C3,C4,Cz,F1,F2,F3,F4,F7,F8,Fp1,Fp2,Fz,O1,O2,P3,P4,Pz,T3,T4,T5,T6
8.6792,7.1111,13.008,-3.9482,-3.268,-4.813,4.5089,-3.9291,-0.06472,-3.9482,-3.268,1.3201,1.2638,5.6508,10.921,10.95,12.238,5.0,0.06349,9.1503,4.359
9.9371,13.46,15.61,-5.89,-2.6144,3.6423,6.4412,-1.9968,7.7023,-5.89,-2.6144,4.6205,1.2638,7.5556,11.556,16.103001,14.815,6.2821,5.7778,9.8039,8.8462
9.9371,13.46,20.813,-3.9482,1.9608,-1.561,12.238,-1.3527,8.9968,-3.9482,1.9608,13.861,0.0,5.0159,9.6508,15.459,14.815,7.5641,6.4127,8.4967,7.5641
4.2767,12.825,22.764,3.8188,7.8431,13.398,18.035,7.0209,8.9968,3.8188,7.8431,21.782,-1.8957,4.381,5.2063,12.238,11.594,7.5641,6.4127,4.5752,5.641
7.4214,13.46,23.415001,-1.3592,2.6144,13.398,19.323999,7.6651,20.646999,-1.3592,2.6144,22.441999,-1.2638,4.381,7.746,11.594,11.594,6.9231,4.5079,3.9216,6.9231
14.34,12.825,25.365999,-2.0065,3.268,22.504,18.035,3.8003,10.291,-2.0065,3.268,26.403,0.63191,3.1111,10.921,11.594,11.594,8.8462,6.4127,6.5359,5.641
15.597,18.540001,22.764,3.1715,6.5359,16.0,23.188,6.3768,14.175,3.1715,6.5359,27.063,-1.8957,2.4762,9.0159,13.527,10.306,10.769,10.222,4.5752,9.4872
14.969,19.174999,20.163,-1.3592,4.5752,18.601999,25.121,8.9533,12.88,-1.3592,4.5752,25.083,-5.6872,-1.9683,6.4762,10.95,8.3736,10.769,7.6825,1.3072,3.7179
20.0,16.0,22.764,-5.2427,-0.65359,17.301001,11.594,8.9533,16.764,-5.2427,-0.65359,20.462,-3.1596,-0.06349,9.6508,12.882,12.238,8.8462,8.9524,2.6144,4.359
13.082,16.0,20.813,-7.1845,-1.9608,14.699,14.815,2.5121,12.88,-7.1845,-1.9608,17.822001,-0.63191,0.57143,8.381,12.238,11.594,8.8462,8.9524,4.5752,6.2821
3.6478,12.19,15.61,-12.362,-6.5359,8.8455,7.7295,3.8003,4.466,-12.362,-6.5359,11.881,-1.2638,-0.69841,0.7619,7.0853,5.7971,3.7179,3.2381,1.9608,2.4359
-2.0126,10.921,9.1057,-2.6537,1.3072,-9.3659,10.95,-1.9968,7.7023,-2.6537,1.3072,11.881,-3.7915,-0.06349,-9.3968,2.5765,-1.9324,1.1538,7.6825,-1.9608,6.2821
-15.849,10.921,-3.252,-6.5372,0.0,2.3415,9.6618,-8.438,10.939,-6.5372,0.0,7.2607,-6.3191,0.57143,-18.285999,0.64412,-10.306,-7.8205,9.5873,-5.2288,6.2821
-16.478001,22.349001,-3.252,-4.5955,7.1895,3.6423,21.256001,-11.014,15.469,-4.5955,7.1895,7.9208,-0.63191,7.5556,-16.381001,9.6618,-4.5089,-14.872,17.205999,-3.268,14.615
-15.22,15.365,-4.5528,-9.1262,1.9608,-6.1138,10.95,-11.659,21.294001,-9.1262,1.9608,1.3201,0.63191,6.9206,-13.206,10.306,-1.9324,-15.513,17.841,-1.9608,13.974
-5.1572,21.714001,2.6016,-14.951,3.9216,-6.7642,14.815,-15.523,19.353001,-14.951,3.9216,3.3003,1.8957,10.73,-4.9524,17.391001,5.7971,-11.026,24.825001,0.65359,21.025999
-0.75472,28.698,5.2033,-11.715,1.3072,-16.52,15.459,-21.32,27.120001,-11.715,1.3072,-2.6403,3.1596,12.0,0.7619,22.544001,10.306,-9.7436,24.190001,1.9608,21.025999
2.3899,15.365,3.252,-11.715,-0.65359,-24.325001,9.0177,-18.1,15.469,-11.715,-0.65359,-7.2607,-0.63191,6.9206,2.0317,15.459,8.3736,-5.8974,20.381001,1.3072,15.256
1.761,14.73,5.8537,-15.599,-2.6144,-2.8618,7.0853,-18.743999,12.233,-15.599,-2.6144,-4.6205,-3.1596,1.2063,2.6667,10.95,6.4412,2.4359,15.302,1.3072,9.4872
-0.75472,13.46,2.6016,-14.951,-5.8824,3.6423,0.0,-9.7262,10.939,-14.951,-5.8824,-6.6007,-4.4234,-0.69841,3.3016,9.6618,5.153,3.7179,12.127,2.6144,6.2821
-1.3836,7.746,-1.9512,-8.479,-6.5359,-11.317,-4.5089,1.2238,9.644,-8.479,-6.5359,-11.221,-6.951,-3.873,-0.50794,6.4412,1.2882,7.5641,9.5873,0.0,5.641
1.1321,-4.3175,-9.1057,-13.657,-11.111,-13.919,-8.3736,-7.7939,-1.3592,-13.657,-11.111,-14.521,-13.27,-10.857,-4.9524,-3.2206,-5.7971,6.2821,1.9683,-4.5752,-2.6923
-8.9308,-15.111,-16.910999,-18.188,-17.646999,-6.7642,-18.68,-6.5056,-3.9482,-18.188,-17.646999,-21.122,-15.798,-15.937,-8.127,-12.238,-11.594,4.359,-5.0159,-5.2288,-7.8205
-10.189,-17.016001,-18.211,-22.070999,-18.954,-15.22,-23.833,-6.5056,-3.9482,-22.070999,-18.954,-23.761999,-13.27,-14.032,-7.4921,-14.171,-10.95,5.641,-5.6508,-5.2288,-8.4615
-7.044,-18.285999,-20.163,-12.362,-16.34,-11.967,-22.544001,-12.947,-8.479,-12.362,-16.34,-23.101999,-13.27,-15.302,-6.8571,-15.459,-12.238,3.0769,-6.9206,-6.5359,-9.1026
-13.333,-15.746,-23.415001,-8.479,-18.301001,-17.820999,-27.697001,-3.285,-9.1262,-8.479,-18.301001,-27.063,-13.27,-12.762,-9.3968,-15.459,-13.527,-4.6154,-9.4603,-7.8431,-10.385
-8.9308,-13.206,-24.065001,-14.951,-16.993,-23.674999,-23.833,-14.235,-13.01,-14.951,-16.993,-29.042999,-12.638,-12.762,-10.032,-12.882,-11.594,-3.9744,-13.27,-7.1895,-9.1026
-13.333,-25.905001,-29.919001,-20.777,-24.183001,-17.820999,-42.512001,-10.37,-7.8317,-20.777,-24.183001,-35.644001,-15.166,-17.205999,-11.302,-19.323999,-14.815,-2.6923,-15.81,-10.458,-15.513
-12.075,-19.556,-22.764,-5.2427,-13.725,-17.820999,-28.341,-7.1498,-11.068,-5.2427,-13.725,-26.403,-15.798,-16.570999,-13.206,-19.968,-14.171,-5.2564,-13.27,-12.418,-12.949
-20.881001,-26.540001,-27.316999,-12.362,-24.837,-19.771999,-39.291,-12.303,-27.896,-12.362,-24.837,-33.002998,-18.325001,-19.111,-20.190001,-23.188,-18.68,-14.231,-18.349001,-18.954,-17.436001
-24.653999,-26.540001,-28.618,-11.715,-24.183001,-24.976,-41.868,-15.523,-32.426998,-11.715,-24.183001,-33.002998,-17.694,-17.841,-22.73,-24.476999,-19.323999,-14.872,-21.524,-18.954,-16.795
-31.572001,-33.523998,-32.52,-17.540001,-31.372999,-32.130001,-48.952999,-16.812,-27.249001,-17.540001,-31.372999,-36.964001,-17.694,-19.111,-25.27,-29.629999,-23.188,-18.077,-26.603001,-19.608,-20.641001
-20.881001,-36.698002,-28.618,-14.951,-27.451,-11.967,-44.444,-19.388,-33.074001,-14.951,-27.451,-31.683001,-16.43,-17.841,-22.094999,-31.562,-21.9,-18.077,-25.968,-17.646999,-18.718
-25.283001,-33.523998,-22.114,-2.6537,-19.608,-28.878,-41.223999,-8.438,-25.955,-2.6537,-19.608,-23.761999,-11.374,-12.127,-21.459999,-30.917999,-19.323999,-13.59,-22.159,-13.725,-15.513
-23.396,-22.094999,-17.561001,-1.3592,-14.379,-4.1626,-21.9,-9.0821,-36.958,-1.3592,-14.379,-13.861,-8.2148,-8.3175,-18.921,-26.409,-16.103001,-13.59,-22.159,-11.111,-12.949
-7.044,-20.825001,-8.4553,7.055,-2.6144,15.35,-27.697001,-8.438,-13.657,7.055,-2.6144,-3.9604,0.0,-1.3333,-5.5873,-18.68,-5.7971,-9.7436,-16.444,-3.9216,-4.6154
0.50314,-10.667,2.6016,14.175,3.268,8.8455,-18.68,-0.70853,-15.599,14.175,3.268,2.6403,8.8468,5.0159,8.381,-9.6618,5.153,-5.2564,-8.1905,3.268,0.51282
7.4214,-11.937,5.8537,9.644,2.6144,-0.26016,-10.95,-1.3527,-9.1262,9.644,2.6144,1.9802,11.374,4.381,13.46,-9.0177,8.3736,-3.9744,-11.365,5.2288,-1.4103
4.9057,-15.111,1.9512,10.291,-1.9608,-7.4146,-16.103001,-0.06441,-11.715,10.291,-1.9608,-3.9604,9.4787,4.381,12.19,-9.6618,7.0853,-2.0513,-14.54,4.5752,-2.0513
-1.3836,-16.381001,-7.8049,9.644,-1.9608,-2.8618,-18.035,0.57971,-24.013,9.644,-1.9608,-8.5809,3.7915,-2.6032,3.3016,-16.103001,-2.5765,1.1538,-19.618999,0.65359,-7.8205
-4.5283,-23.365,-14.959,3.1715,-3.268,2.3415,-19.968,2.5121,-13.01,3.1715,-3.268,-9.2409,-1.2638,-5.7778,-3.0476,-20.612,-9.6618,-2.6923,-18.349001,-3.9216,-11.667
-4.5283,-25.27,-14.309,14.175,0.65359,-10.667,-18.035,1.2238,-18.188,14.175,0.65359,-6.6007,-10.111,-13.397,-9.3968,-25.121,-14.815,-2.6923,-18.983999,-8.4967,-14.872
-9.5597,-17.016001,-8.4553,4.466,-6.5359,-5.4634,-7.7295,11.53,-19.482,4.466,-6.5359,-4.6205,-12.638,-17.205999,-9.3968,-23.833,-13.527,1.7949,-20.889,-8.4967,-18.077
-3.2704,-20.190001,-3.252,5.7605,0.0,12.098,-19.323999,9.5974,-3.301,5.7605,0.0,-0.66007,-11.374,-15.937,-4.9524,-21.256001,-8.3736,4.359,-14.54,-7.8431,-15.513
-5.7862,-17.650999,-4.5528,5.7605,-3.9216,-1.561,-18.035,6.3768,-6.5372,5.7605,-3.9216,-4.6205,-14.534,-17.841,-6.8571,-19.968,-10.306,0.51282,-15.81,-9.8039,-17.436001
-5.1572,-14.476,-1.9512,7.7023,3.268,2.9919,-0.64412,9.5974,-5.2427,7.7023,3.268,0.0,-11.374,-15.302,-4.9524,-16.103001,-6.4412,6.2821,-8.8254,-7.8431,-12.949
0.50314,-11.937,-4.5528,4.466,3.9216,9.4959,0.0,10.886,1.877,4.466,3.9216,1.9802,-8.2148,-13.397,-0.50794,-14.171,-5.7971,8.2051,-9.4603,-5.8824,-14.872
-5.1572,-9.3968,-9.1057,11.586,11.111,-6.1138,3.8647,10.242,2.5243,11.586,11.111,1.9802,-5.6872,-9.5873,-1.7778,-11.594,-5.7971,4.359,-6.9206,-4.5752,-11.667
-1.3836,-2.4127,-10.407,14.175,12.418,3.6423,4.5089,7.0209,3.1715,14.175,12.418,2.6403,-1.2638,-3.873,1.3968,-5.153,-2.5765,1.1538,-1.8413,-3.9216,-4.6154
-1.3836,-3.0476,-13.659,8.9968,11.111,6.2439,3.8647,2.5121,1.2298,8.9968,11.111,0.0,0.63191,-5.1429,2.6667,-6.4412,-4.5089,5.0,-5.0159,-2.6144,-8.4615
-1.3836,0.12698,-9.1057,15.469,18.954,12.098,11.594,7.6651,1.877,15.469,18.954,5.9406,3.7915,-1.3333,3.9365,-2.5765,-1.9324,-2.0513,-0.57143,-1.9608,-3.3333
1.1321,2.6667,-1.9512,21.941999,22.875999,-2.2114,11.594,-1.3527,8.3495,21.941999,22.875999,10.561,1.8957,1.2063,1.3968,0.0,0.64412,-7.8205,0.06349,-6.5359,-0.12821
-2.6415,7.746,5.8537,20.0,26.797001,16.0,14.171,3.1562,10.939,20.0,26.797001,14.521,1.2638,2.4762,0.7619,1.9324,3.8647,-7.8205,3.2381,-7.1895,1.7949
-4.5283,15.365,10.407,14.822,22.222,5.5935,34.783001,-2.6409,-17.540001,14.822,22.222,13.201,-1.2638,1.2063,-1.1429,3.2206,5.153,-13.59,-0.57143,-13.072,2.4359
4.9057,3.9365,13.659,21.294001,26.143999,6.2439,16.103001,-3.285,7.7023,21.294001,26.143999,15.842,3.1596,3.1111,3.9365,3.2206,7.7295,-14.231,0.69841,-7.8431,3.0769
-2.6415,9.6508,16.26,27.120001,29.412001,17.951,16.103001,4.4444,14.175,27.120001,29.412001,22.441999,8.8468,8.1905,7.1111,9.0177,11.594,-14.872,6.4127,-1.9608,6.2821
-0.12579,14.095,16.26,29.061001,36.601002,21.202999,35.426998,4.4444,12.88,29.061001,36.601002,31.023001,12.638,10.095,7.1111,10.306,12.238,-7.8205,7.0476,-2.6144,6.2821
9.3082,16.635,22.114,39.417,43.137001,34.210999,33.493999,15.395,18.705999,39.417,43.137001,40.264,20.221001,15.175,17.27,15.459,18.035,-1.4103,3.873,4.5752,6.9231
14.34,19.174999,27.966999,49.125999,50.327,28.358,39.291,18.615,14.822,49.125999,50.327,46.865002,20.853001,13.905,22.349001,16.103001,22.544001,-0.12821,0.69841,7.8431,7.5641
15.597,10.921,22.114,45.243,42.484001,32.259998,28.341,21.836,11.586,45.243,42.484001,40.924,17.694,8.8254,23.618999,10.306,19.323999,2.4359,-4.381,9.1503,-0.76923
16.226,10.286,16.910999,43.948002,43.137001,34.862,28.341,17.327,11.586,43.948002,43.137001,34.983002,18.957001,5.6508,23.618999,7.7295,17.391001,6.9231,-6.9206,11.765,-4.6154
9.9371,-1.7778,4.5528,27.120001,24.837,3.6423,4.5089,16.683001,0.58252,27.120001,24.837,13.201,18.325001,4.381,23.618999,4.5089,14.171,9.4872,-8.1905,13.072,-6.5385
6.1635,-3.6825,-0.65041,21.294001,18.301001,6.8943,2.5765,8.9533,-5.89,21.294001,18.301001,2.6403,17.062,5.0159,21.714001,4.5089,12.882,7.5641,-10.095,13.725,-2.6923
1.1321,-12.571,-9.7561,3.8188,4.5752,-0.91057,-13.527,4.4444,-7.1845,3.8188,4.5752,-12.541,10.111,-0.06349,14.095,-1.9324,5.153,10.769,-8.1905,9.8039,-5.2564
-2.6415,-14.476,-13.659,5.1133,3.9216,-10.667,-10.95,-0.06441,-3.9482,5.1133,3.9216,-14.521,4.4234,-3.2381,8.381,-4.5089,-1.2882,8.2051,-4.381,6.5359,-4.6154
-4.5283,-11.302,-13.659,0.58252,0.0,-8.7154,-12.238,0.57971,-7.1845,0.58252,0.0,-9.2409,-0.63191,-6.4127,3.3016,-7.0853,-5.7971,2.4359,-5.0159,1.3072,-4.6154
1.1321,-8.7619,-10.407,3.1715,2.6144,-0.26016,-3.8647,1.868,-9.7735,3.1715,2.6144,-0.66007,-1.2638,-8.3175,6.4762,-7.7295,-5.153,7.5641,-5.0159,4.5752,-5.8974
1.761,-8.127,-8.4553,9.644,9.1503,7.5447,-1.2882,10.242,2.5243,9.644,9.1503,5.9406,-4.4234,-10.222,5.2063,-9.0177,-7.0853,9.4872,-0.57143,3.268,-4.6154
-2.0126,0.12698,-5.8537,12.88,13.072,14.049,12.882,8.3092,-4.5955,12.88,13.072,13.861,-6.951,-10.222,2.0317,-6.4412,-6.4412,6.2821,2.6032,-0.65359,-3.9744
3.0189,-1.1429,1.3008,18.705999,16.34,6.2439,10.95,7.6651,8.9968,18.705999,16.34,17.162001,-1.8957,-7.0476,7.746,-1.2882,1.9324,7.5641,0.69841,2.6144,-3.9744
16.226,8.381,13.659,19.353001,18.954,1.6911,17.391001,7.6651,12.88,19.353001,18.954,23.101999,4.4234,-1.3333,17.27,6.4412,12.238,10.128,4.5079,7.1895,1.1538
9.9371,5.2063,11.057,21.294001,23.528999,8.1951,19.323999,7.6651,14.175,21.294001,23.528999,19.802,2.5276,-0.06349,14.73,7.0853,10.95,9.4872,9.5873,4.5752,5.0
6.1635,19.809999,9.7561,13.528,15.033,15.35,29.629999,6.3768,-11.068,13.528,15.033,13.201,4.4234,1.8413,15.365,11.594,12.238,9.4872,7.6825,3.268,4.359
20.629,11.556,13.659,9.644,18.301001,16.0,14.815,13.462,21.941999,9.644,18.301001,11.221,11.374,6.9206,22.349001,14.815,16.747,5.641,16.570999,7.8431,10.769
13.711,18.540001,13.008,11.586,9.8039,6.2439,12.238,8.3092,25.825001,11.586,9.8039,4.6205,13.902,12.0,22.349001,18.68,16.747,7.5641,18.476,8.4967,14.615
20.0,19.809999,14.309,1.877,9.1503,8.1951,21.256001,3.1562,9.644,1.877,9.1503,3.9604,16.43,13.905,24.254,19.323999,18.68,5.641,20.381001,10.458,17.179001
8.6792,6.4762,5.2033,-5.89,0.65359,5.5935,2.5765,8.3092,18.705999,-5.89,0.65359,-3.3003,9.4787,8.1905,15.365,10.95,9.0177,-1.4103,13.397,5.2288,10.769
15.597,14.095,13.659,10.291,10.458,4.2927,10.95,6.3768,11.586,10.291,10.458,9.901,10.742,8.8254,17.905001,14.171,12.882,10.128,13.397,9.1503,11.41
17.483999,16.635,16.26,9.644,9.1503,10.146,16.103001,11.53,16.117001,9.644,9.1503,13.861,10.742,6.9206,19.174999,16.747,14.815,10.128,12.127,11.765,10.128
14.34,20.444,16.26,15.469,15.033,19.252001,18.035,16.039,18.058001,15.469,15.033,17.162001,8.2148,5.0159,16.0,18.68,14.815,11.41,12.762,8.4967,9.4872
7.4214,8.381,4.5528,10.939,11.765,12.098,9.0177,8.3092,7.7023,10.939,11.765,13.201,-0.63191,-7.0476,8.381,3.8647,3.2206,5.0,2.6032,3.9216,-3.9744
-2.0126,3.9365,-7.1545,4.466,1.3072,9.4959,21.9,5.0886,-22.718,4.466,1.3072,7.9208,-10.111,-18.476,-2.4127,-9.0177,-9.0177,5.0,-11.365,-0.65359,-16.153999
-4.5283,-12.571,-11.707,5.7605,0.65359,-13.268,-3.2206,1.2238,-11.068,5.7605,0.65359,1.9802,-13.902,-24.825001,-8.127,-19.323999,-15.459,4.359,-19.618999,-3.9216,-25.768999
3.0189,-17.016001,-8.4553,8.3495,-1.3072,8.1951,-4.5089,-2.6409,7.055,8.3495,-1.3072,0.0,-13.902,-23.556,-4.3175,-20.612,-12.238,1.7949,-15.81,-3.9216,-26.41
1.761,-13.206,-2.6016,0.58252,0.0,10.797,1.9324,-0.70853,-18.834999,0.58252,0.0,0.0,-8.8468,-17.841,-0.50794,-13.527,-5.153,1.7949,-14.54,-2.6144,-18.718
4.9057,3.3016,6.5041,7.055,3.9216,-4.1626,3.8647,5.7327,-2.6537,7.055,3.9216,3.3003,1.8957,-1.3333,7.746,3.2206,6.4412,8.2051,1.3333,3.9216,-0.76923
3.6478,13.46,5.8537,7.7023,7.8431,4.2927,12.882,3.1562,1.2298,7.7023,7.8431,3.3003,5.0553,5.6508,8.381,10.95,7.7295,10.128,10.857,5.8824,8.2051
-1.3836,3.3016,-5.2033,3.8188,5.8824,2.3415,-2.5765,3.8003,6.4078,3.8188,5.8824,-7.9208,3.7915,5.6508,4.5714,6.4412,1.9324,1.1538,9.5873,3.268,6.9231
-1.3836,4.5714,-8.4553,6.4078,4.5752,-10.016,3.2206,-2.6409,1.2298,6.4078,4.5752,-14.521,7.5829,6.9206,8.381,6.4412,3.2206,-0.12821,8.9524,5.8824,8.2051
4.9057,-1.1429,-3.252,-0.71197,4.5752,-3.5122,-4.5089,-1.3527,7.7023,-0.71197,4.5752,-13.861,13.902,12.0,17.905001,9.0177,10.306,3.0769,10.222,9.8039,9.4872
11.824,6.4762,0.65041,7.055,9.8039,-8.065,5.7971,-0.70853,4.466,7.055,9.8039,-7.2607,13.27,13.27,19.809999,10.95,12.882,-2.6923,11.492,9.8039,13.974
11.195,3.9365,3.9024,2.5243,3.9216,-2.8618,-8.3736,-5.2174,12.88,2.5243,3.9216,-7.2607,13.27,13.905,20.444,10.95,14.171,1.1538,11.492,7.8431,12.692
18.742001,19.809999,20.813,2.5243,15.686,13.398,14.815,-7.1498,27.767,2.5243,15.686,8.5809,22.749001,25.333,27.429001,25.121,27.697001,0.51282,19.111,12.418,22.948999
14.34,19.809999,19.511999,-1.3592,3.9216,-0.26016,10.95,-5.8615,3.8188,-1.3592,3.9216,3.3003,18.957001,23.429001,21.714001,25.121,24.476999,-9.1026,17.205999,7.1895,22.948999
14.34,16.0,20.163,1.877,9.1503,-30.829,5.153,-3.285,7.055,1.877,9.1503,7.9208,17.062,18.983999,17.905001,19.323999,21.256001,-5.2564,9.5873,6.5359,16.538
8.6792,14.095,14.959,-1.3592,9.1503,5.5935,10.95,0.57971,15.469,-1.3592,9.1503,7.9208,13.27,15.81,13.46,16.103001,16.103001,-1.4103,7.0476,4.5752,13.333
6.1635,9.0159,7.8049,5.1133,5.8824,17.951,6.4412,5.0886,3.1715,5.1133,5.8824,2.6403,6.951,10.095,9.6508,9.6618,9.6618,-4.6154,3.2381,2.6144,8.2051
8.6792,8.381,9.1057,10.939,9.8039,-6.7642,6.4412,9.5974,10.291,10.939,9.8039,3.3003,8.2148,8.8254,12.825,9.6618,10.95,0.51282,0.69841,7.8431,6.9231
-2.6415,1.3968,-5.2033,6.4078,4.5752,-0.91057,3.2206,3.8003,9.644,6.4078,4.5752,-9.2409,5.0553,4.381,3.3016,3.8647,1.9324,5.0,0.06349,7.1895,3.7179
-24.025,-15.111,-27.966999,-3.301,-1.3072,-13.268,-16.103001,2.5121,9.644,-3.301,-1.3072,-25.743,-2.5276,-0.06349,-17.016001,-7.7295,-14.815,3.7179,-2.4762,-1.3072,-0.12821
-34.716999,-3.6825,-37.073002,-13.01,-3.9216,-24.325001,-3.8647,-3.9291,-2.0065,-13.01,-3.9216,-30.363001,-5.0553,-0.69841,-26.540001,-7.7295,-21.9,1.1538,1.3333,-2.6144,1.1538
-32.830002,-6.8571,-35.771999,-20.129,-12.418,-33.431,-10.95,-11.659,12.88,-20.129,-12.418,-36.964001,-3.1596,0.57143,-24.635,-5.153,-21.256001,-3.3333,10.222,-2.6144,5.0
-13.962,2.6667,-16.910999,-18.188,-9.8039,-12.618,-5.7971,-5.8615,7.7023,-18.188,-9.8039,-26.403,5.6872,7.5556,-3.6825,3.2206,-5.153,4.359,12.127,5.8824,6.9231
6.1635,2.0317,-5.8537,-7.8317,-5.8824,-22.374001,-1.2882,-1.3527,2.5243,-7.8317,-5.8824,-16.502001,3.7915,4.381,5.2063,1.9324,0.64412,8.2051,7.0476,5.2288,5.0
3.0189,3.3016,-2.6016,-13.657,-3.9216,-12.618,1.2882,-0.06441,14.175,-13.657,-3.9216,-9.901,-2.5276,3.1111,0.7619,2.5765,-1.9324,-0.76923,12.127,1.9608,6.2821
0.50314,9.0159,-1.9512,-2.6537,1.9608,-0.91057,2.5765,2.5121,3.8188,-2.6537,1.9608,-5.2805,-5.0553,1.8413,-4.9524,3.8647,-4.5089,1.7949,7.6825,-0.65359,4.359
-0.75472,10.286,-1.9512,-0.71197,1.9608,-0.91057,7.7295,3.8003,1.2298,-0.71197,1.9608,-1.9802,-3.7915,3.1111,-4.3175,6.4412,-4.5089,5.0,7.0476,-0.65359,4.359
5.5346,10.286,9.7561,7.7023,17.646999,19.902,11.594,5.0886,26.472,7.7023,17.646999,13.201,1.2638,7.5556,3.3016,11.594,4.5089,5.641,14.667,1.3072,8.2051
6.7925,12.825,13.659,8.3495,18.301001,12.748,11.594,9.5974,21.941999,8.3495,18.301001,14.521,5.0553,9.4603,9.0159,14.815,9.0177,5.641,12.127,3.268,6.2821
11.195,25.524,20.813,20.0,21.569,10.146,24.476999,13.462,17.410999,20.0,21.569,19.802,10.742,14.54,14.73,21.9,17.391001,6.9231,15.302,8.4967,14.615
9.3082,21.079,19.511999,7.055,15.033,8.8455,23.188,14.106,13.528,7.055,15.033,17.162001,11.374,12.635,16.635,21.9,18.68,1.7949,17.205999,5.8824,12.051
20.0,21.714001,22.114,9.644,15.686,-0.26016,23.188,8.9533,23.882999,9.644,15.686,17.822001,16.43,16.444,23.618999,23.833,23.833,13.974,15.937,15.033,13.974
12.453,24.254,19.511999,12.88,17.646999,14.699,27.697001,10.886,12.233,12.88,17.646999,18.482,16.43,15.81,21.714001,21.9,22.544001,10.128,16.570999,14.379,15.256
9.9371,17.905001,13.659,5.1133,14.379,0.39024,17.391001,7.6651,15.469,5.1133,14.379,11.881,13.902,13.905,16.0,18.68,18.035,6.2821,14.667,9.1503,12.692
10.566,26.159,14.309,8.3495,11.111,6.2439,26.409,4.4444,-11.068,8.3495,11.111,11.221,14.534,13.905,16.0,20.612,18.68,8.2051,11.492,10.458,13.974
3.6478,5.8413,2.6016,-0.71197,3.9216,15.35,-1.2882,9.5974,10.291,-0.71197,3.9216,-1.9802,10.111,8.1905,10.286,13.527,12.238,6.2821,8.3175,7.1895,8.2051
4.2767,5.2063,-1.9512,2.5243,0.0,-6.1138,-4.5089,3.1562,3.1715,2.5243,0.0,-6.6007,7.5829,6.2857,7.746,10.306,8.3736,6.9231,4.5079,5.8824,6.9231
1.1321,-3.0476,-5.2033,-2.0065,-3.268,9.4959,-9.0177,1.2238,-8.479,-2.0065,-3.268,-7.2607,2.5276,3.746,2.0317,4.5089,2.5765,3.7179,-1.2063,2.6144,4.359
-2.0126,-4.9524,-7.8049,-3.9482,-5.8824,-13.919,-12.882,-1.9968,-9.7735,-3.9482,-5.8824,-10.561,-1.2638,0.57143,-3.0476,0.64412,-1.9324,1.1538,-2.4762,0.0,1.7949
-4.5283,-5.5873,-8.4553,-4.5955,-7.1895,-7.4146,-11.594,-6.5056,-14.304,-4.5955,-7.1895,-9.901,-4.4234,-1.9683,-5.5873,-3.2206,-3.8647,-0.76923,-5.6508,-3.268,-0.76923
-0.12579,-6.8571,-4.5528,-2.6537,-4.5752,-0.91057,-10.95,-3.9291,-16.246,-2.6537,-4.5752,-5.2805,-3.1596,-3.2381,-2.4127,-5.7971,-3.2206,2.4359,-6.2857,0.0,-1.4103
-0.75472,-10.032,-3.252,-3.9482,-9.8039,-11.967,-14.815,-0.06441,-13.657,-3.9482,-9.8039,-4.6205,-2.5276,-3.873,-0.50794,-7.7295,-3.8647,0.51282,-6.2857,-0.65359,-5.8974
4.9057,-4.3175,2.6016,-5.2427,-3.9216,7.5447,-5.153,-0.70853,-4.5955,-5.2427,-3.9216,1.3201,-0.63191,-1.9683,0.7619,-6.4412,-1.2882,0.51282,-5.0159,-1.3072,-2.0513
8.0503,12.19,11.707,-1.3592,-3.268,11.447,20.612,8.9533,-16.893,-1.3592,-3.268,11.221,1.8957,-0.06349,5.8413,0.0,3.8647,-3.9744,-5.0159,1.9608,-2.0513
3.0189,0.12698,10.407,6.4078,3.9216,19.252001,5.153,4.4444,-3.301,6.4078,3.9216,14.521,1.2638,-1.3333,5.2063,-2.5765,3.2206,-5.2564,-5.6508,-0.65359,-3.3333
8.0503,-3.6825,7.8049,-5.89,-3.9216,16.0,-3.8647,1.2238,0.58252,-5.89,-3.9216,9.2409,1.8957,-4.5079,7.746,-4.5089,1.9324,-3.9744,-14.54,0.0,-9.7436
13.711,1.3968,11.057,1.2298,3.268,16.0,16.103001,1.868,-8.479,1.2298,3.268,12.541,8.2148,-1.9683,14.73,-0.64412,8.3736,3.0769,-10.73,5.8824,-7.1795
8.0503,0.7619,7.8049,-1.3592,-1.3072,-21.073,-0.64412,-1.9968,-2.6537,-1.3592,-1.3072,3.9604,12.638,1.8413,14.095,1.2882,9.6618,-5.8974,-10.73,4.5752,-5.2564
9.9371,13.46,10.407,-3.301,3.9216,-10.667,7.0853,-6.5056,3.1715,-3.301,3.9216,3.9604,17.062,6.9206,16.0,8.3736,12.882,-7.1795,-5.6508,11.111,-0.76923
1.1321,2.0317,4.5528,1.2298,3.268,-3.5122,5.7971,-4.5733,14.822,1.2298,3.268,-1.9802,17.062,8.8254,10.286,7.0853,9.6618,-3.9744,-1.8413,11.765,-0.12821
-15.849,-0.50794,-5.8537,-4.5955,0.65359,-19.771999,3.2206,-5.8615,-3.9482,-4.5955,0.65359,-8.5809,11.374,6.2857,-2.4127,2.5765,0.64412,-7.8205,-3.746,2.6144,-0.12821
-15.849,16.635,-5.8537,-1.3592,5.8824,0.39024,23.188,-3.9291,-18.834999,-1.3592,5.8824,-2.6403,7.5829,5.6508,-7.4921,5.153,-2.5765,-9.7436,-1.8413,0.0,1.7949
-14.591,-2.4127,-13.008,-8.479,5.2288,-14.569,3.2206,-8.438,12.233,-8.479,5.2288,-7.9208,2.5276,5.0159,-13.206,0.0,-9.0177,-11.667,4.5079,-3.9216,3.0769
-11.447,2.6667,-9.7561,5.1133,12.418,-6.1138,3.8647,-4.5733,16.117001,5.1133,12.418,-1.9802,-5.0553,-0.06349,-18.921,0.0,-10.95,-7.1795,5.7778,-10.458,1.7949
-9.5597,8.381,-3.252,8.9968,14.379,12.098,17.391001,5.0886,17.410999,8.9968,14.379,3.9604,-11.374,-3.2381,-20.190001,0.64412,-11.594,-9.7436,6.4127,-14.379,1.7949
-12.075,0.12698,-2.6016,7.7023,18.301001,-0.91057,12.882,6.3768,19.353001,7.7023,18.301001,5.9406,-15.166,-6.4127,-22.094999,-3.2206,-14.815,-10.385,7.0476,-15.033,-0.76923
-12.704,5.2063,0.0,9.644,16.34,10.797,19.968,-2.6409,17.410999,9.644,16.34,8.5809,-16.43,-8.9524,-20.825001,-4.5089,-14.815,-8.4615,1.9683,-16.34,-3.9744
-0.12579,2.6667,5.2033,17.410999,23.528999,-10.016,22.544001,1.2238,10.939,17.410999,23.528999,13.861,-17.062,-10.857,-13.841,-6.4412,-9.6618,-5.8974,4.5079,-14.379,-3.3333
-8.3019,1.3968,5.2033,14.822,22.875999,15.35,11.594,3.8003,16.117001,14.822,22.875999,9.901,-17.694,-11.492,-11.302,-5.7971,-7.0853,-11.026,7.0476,-15.033,-3.3333
-0.12579,9.6508,14.959,12.233,27.451,21.854,16.747,4.4444,18.705999,12.233,27.451,14.521,-11.374,-5.7778,-1.1429,3.8647,5.153,-8.4615,8.3175,-14.379,0.51282
4.9057,10.286,15.61,11.586,18.954,1.0407,14.171,-2.6409,9.644,11.586,18.954,5.2805,-7.5829,-2.6032,5.2063,9.0177,10.306,-5.8974,9.5873,-12.418,1.7949
6.1635,16.635,14.959,10.291,20.915001,10.146,10.306,-11.659,21.294001,10.291,20.915001,2.6403,-2.5276,1.8413,8.381,14.171,13.527,-9.7436,14.032,-9.8039,6.9231
4.2767,12.19,9.1057,1.2298,11.765,-2.8618,1.2882,-2.6409,15.469,1.2298,11.765,-2.6403,-2.5276,0.57143,7.1111,10.95,10.306,-6.5385,12.127,-8.4967,5.0
3.6478,14.095,5.8537,-0.06472,10.458,-2.2114,12.238,-3.9291,5.7605,-0.06472,10.458,-0.66007,-6.951,-3.2381,2.0317,7.0853,6.4412,-5.8974,6.4127,-10.458,1.7949
11.195,6.4762,9.1057,-2.6537,9.8039,-4.1626,9.0177,-7.1498,13.528,-2.6537,9.8039,3.3003,-8.2148,-5.1429,3.3016,2.5765,5.153,2.4359,6.4127,-11.765,0.51282
3.0189,-1.7778,5.8537,2.5243,6.5359,-2.2114,-2.5765,0.57971,0.58252,2.5243,6.5359,1.3201,-10.742,-8.9524,0.12698,-4.5089,0.64412,-3.3333,1.3333,-13.072,-6.5385
1.1321,-8.7619,2.6016,8.9968,7.1895,12.748,-1.9324,3.1562,5.1133,8.9968,7.1895,2.6403,-12.006,-12.127,-2.4127,-12.882,-4.5089,-5.2564,-5.6508,-12.418,-11.026
-5.1572,-13.206,-7.1545,4.466,7.8431,8.8455,-1.2882,5.7327,-1.3592,4.466,7.8431,0.66007,-15.166,-15.302,-8.7619,-20.612,-11.594,-4.6154,-9.4603,-11.765,-12.949
-8.3019,-21.459999,-16.26,1.877,5.2288,-18.472,-14.815,-1.3527,1.2298,1.877,5.2288,-7.2607,-14.534,-15.937,-13.206,-25.764999,-16.747,-7.1795,-11.365,-12.418,-18.077
-14.591,-25.27,-22.114,0.58252,0.65359,-8.065,-12.882,0.57971,8.9968,0.58252,0.65359,-12.541,-10.742,-12.762,-13.206,-25.764999,-16.747,-5.2564,-10.73,-9.1503,-16.795
-13.333,-29.079,-26.016001,-10.421,-8.4967,-17.820999,-19.323999,-6.5056,-10.421,-10.421,-8.4967,-21.122,-7.5829,-12.127,-10.032,-23.188,-14.815,-1.4103,-16.444,-5.2288,-16.153999
-9.5597,-13.206,-18.211,-10.421,-11.765,-15.87,-24.476999,-3.9291,-5.89,-10.421,-11.765,-21.782,-2.5276,-5.1429,-5.5873,-8.3736,-6.4412,-3.3333,-8.1905,-0.65359,-9.7436
-3.2704,-9.3968,-8.4553,-19.482,-11.111,-15.22,-14.815,-7.7939,-10.421,-19.482,-11.111,-11.881,-4.4234,-5.1429,-7.4921,-2.5765,-3.8647,2.4359,-4.381,-3.9216,-5.2564
-1.3836,4.5714,3.9024,-7.8317,-11.765,-2.8618,-9.0177,-3.9291,3.1715,-7.8317,-11.765,-2.6403,-4.4234,-3.873,-3.6825,5.153,1.9324,1.7949,-3.1111,-2.6144,-4.6154
6.7925,20.444,13.659,-3.9482,-2.6144,6.2439,17.391001,3.1562,-17.540001,-3.9482,-2.6144,9.2409,-1.2638,-0.06349,3.3016,12.882,8.3736,7.5641,1.3333,1.9608,-0.12821
8.6792,6.4762,6.5041,-6.5372,-10.458,0.39024,-7.0853,3.8003,3.1715,-6.5372,-10.458,3.3003,2.5276,1.2063,9.0159,11.594,8.3736,3.7179,1.9683,5.2288,1.1538
8.6792,7.746,5.8537,-5.2427,-9.1503,-3.5122,-8.3736,-2.6409,-2.0065,-5.2427,-9.1503,1.3201,8.2148,5.6508,14.095,16.103001,14.171,6.2821,2.6032,8.4967,5.641
4.9057,11.556,3.252,-11.715,-15.033,2.3415,-9.0177,-5.8615,-10.421,-11.715,-15.033,-1.3201,8.2148,7.5556,12.19,18.68,13.527,4.359,0.06349,8.4967,5.641
8.0503,12.825,9.1057,-5.89,-8.4967,-7.4146,-1.9324,-10.37,-7.8317,-5.89,-8.4967,2.6403,11.374,13.27,14.73,21.9,18.035,3.0769,6.4127,9.8039,12.692
9.3082,5.2063,10.407,-12.362,-15.033,-2.8618,-10.306,3.1562,-6.5372,-12.362,-15.033,-3.9604,13.27,13.905,17.27,19.323999,18.68,7.5641,5.7778,11.765,13.333
1.1321,-3.0476,2.6016,-9.7735,-20.261,-2.8618,-19.968,-0.06441,-11.715,-9.7735,-20.261,-11.221,10.111,8.1905,11.556,9.6618,9.6618,6.2821,1.3333,11.765,6.9231
10.566,0.12698,3.9024,-10.421,-15.686,-5.4634,-14.815,-3.9291,-5.2427,-10.421,-15.686,-11.221,14.534,11.365,18.540001,10.306,12.882,5.0,2.6032,14.379,8.8462
13.082,2.6667,3.252,-9.1262,-15.686,-22.374001,-8.3736,1.868,-20.129,-9.1262,-15.686,-12.541,13.902,10.73,19.174999,9.0177,12.238,12.051,-3.746,13.072,8.2051
9.3082,-10.032,0.65041,-5.2427,-13.072,-0.26016,-19.968,-2.6409,-8.479,-5.2427,-13.072,-11.221,10.111,6.2857,12.19,0.0,4.5089,5.0,-1.8413,9.8039,4.359
8.6792,-10.032,0.65041,-6.5372,-10.458,6.8943,-11.594,-4.5733,-0.06472,-6.5372,-10.458,-5.2805,3.7915,2.4762,4.5714,-5.153,-1.2882,2.4359,-3.746,4.5752,1.1538
6.1635,-7.4921,-0.65041,-3.301,-4.5752,2.3415,-1.9324,-0.06441,-9.7735,-3.301,-4.5752,1.3201,-3.1596,-4.5079,-6.8571,-10.95,-9.6618,4.359,-12.0,0.0,-5.2564
-3.8994,-6.2222,-1.9512,3.1715,-2.6144,16.0,-6.4412,7.0209,-7.1845,3.1715,-2.6144,3.9604,-8.2148,-4.5079,-15.746,-10.95,-12.238,3.0769,-8.1905,-7.1895,-3.9744
-11.447,-11.937,-7.8049,3.1715,-0.65359,4.2927,-5.7971,8.9533,2.5243,3.1715,-0.65359,4.6205,-14.534,-7.0476,-23.365,-14.171,-16.747,-7.1795,-6.9206,-14.379,-3.3333
-8.9308,-8.127,-3.9024,8.9968,5.8824,6.8943,7.7295,8.3092,0.58252,8.9968,5.8824,11.221,-10.742,-4.5079,-20.825001,-10.306,-12.882,-9.7436,-6.2857,-13.725,-2.6923
-2.6415,-9.3968,1.3008,14.175,7.1895,1.0407,7.0853,7.6651,-5.2427,14.175,7.1895,8.5809,-10.111,-5.7778,-15.746,-11.594,-9.0177,-1.4103,-10.095,-10.458,-6.5385
-7.044,2.6667,3.252,7.055,0.65359,2.9919,22.544001,14.75,-16.246,7.055,0.65359,7.9208,-11.374,-5.7778,-15.746,-9.0177,-8.3736,-4.6154,-7.5556,-11.111,-6.5385
-5.7862,-8.7619,1.3008,3.8188,2.6144,4.9431,-7.0853,-1.9968,-2.6537,3.8188,2.6144,4.6205,-10.111,-4.5079,-15.111,-9.0177,-6.4412,-3.9744,-6.2857,-9.8039,-3.3333
-10.189,-12.571,-4.5528,-2.0065,-7.8431,7.5447,-14.171,-5.2174,-8.479,-2.0065,-7.8431,-5.2805,-11.374,-5.7778,-16.381001,-11.594,-9.6618,-5.2564,-11.365,-11.765,-6.5385
-8.3019,-8.7619,-4.5528,2.5243,-2.6144,-0.26016,-6.4412,1.868,-8.479,2.5243,-2.6144,-3.3003,-6.3191,-1.9683,-13.206,-9.6618,-7.7295,-2.6923,-10.095,-7.1895,-3.3333
-18.365,-14.476,-13.659,-2.6537,-10.458,-11.967,-16.747,0.57971,-14.951,-2.6537,-10.458,-11.881,-5.6872,-3.2381,-16.381001,-12.882,-12.238,-5.2564,-12.0,-6.5359,-5.2564
-16.478001,-19.556,-16.26,-3.301,-9.1503,-19.771999,-14.815,-3.285,-17.540001,-3.301,-9.1503,-10.561,-7.5829,-5.1429,-17.016001,-16.747,-16.103001,-2.6923,-12.0,-6.5359,-7.1795
-18.993999,-22.73,-20.813,-9.1262,-13.072,-8.7154,-25.121,-4.5733,-15.599,-9.1262,-13.072,-13.861,-8.8468,-8.3175,-18.285999,-20.612,-21.256001,-5.8974,-13.27,-7.8431,-8.4615
-10.818,-14.476,-18.211,-7.8317,-12.418,-32.779999,-24.476999,-7.1498,-13.657,-7.8317,-12.418,-17.162001,-3.7915,-5.1429,-13.841,-15.459,-17.391001,-0.76923,-14.54,-2.6144,-6.5385
-10.818,-8.7619,-13.008,-5.2427,-9.8039,-13.268,2.5765,-2.6409,-33.074001,-5.2427,-9.8039,-9.901,1.2638,-1.3333,-10.032,-10.306,-12.238,-1.4103,-8.8254,1.3072,-3.3333
-15.22,-17.650999,-14.959,-3.301,-7.1895,3.6423,-15.459,1.868,-14.304,-3.301,-7.1895,-8.5809,-4.4234,-3.2381,-18.285999,-12.238,-15.459,-4.6154,-5.0159,-3.268,-2.0513
-15.22,-12.571,-9.7561,4.466,-5.2288,-1.561,-15.459,1.2238,-3.301,4.466,-5.2288,-3.9604,-4.4234,-3.2381,-16.381001,-8.3736,-12.238,-2.6923,-3.746,-1.9608,-3.9744
-9.5597,-6.8571,-6.5041,8.3495,-6.5359,1.6911,-5.7971,-3.9291,0.58252,8.3495,-6.5359,-3.3003,-2.5276,-1.3333,-10.032,-7.0853,-9.0177,1.1538,-6.2857,-1.3072,-2.6923
-2.0126,-11.937,-6.5041,-1.3592,-9.1503,-0.91057,-14.815,-2.6409,-11.715,-1.3592,-9.1503,-5.9406,-3.1596,-2.6032,-6.2222,-8.3736,-7.7295,1.1538,-5.6508,1.3072,-2.6923
-1.3836,-7.4921,-1.9512,-7.8317,-11.765,-14.569,-13.527,-1.3527,-14.304,-7.8317,-11.765,-3.3003,-1.8957,-0.06349,-1.7778,-4.5089,-3.8647,3.0769,-3.1111,3.9216,-0.76923
-2.0126,-17.016001,-10.407,-11.068,-18.301001,-15.22,-23.833,3.1562,-17.540001,-11.068,-18.301001,-14.521,-6.3191,-7.0476,-5.5873,-10.95,-9.0177,-0.12821,-10.73,-0.65359,-7.8205
-8.9308,-19.556,-17.561001,-26.601999,-26.797001,-13.919,-32.849998,-11.659,-13.657,-26.601999,-26.797001,-23.761999,-9.4787,-10.222,-10.032,-11.594,-12.238,-5.2564,-15.175,-3.9216,-13.59
-13.962,-13.841,-16.26,-16.893,-22.875999,-21.724001,-25.121,-13.591,-24.66,-16.893,-22.875999,-21.122,-10.742,-14.032,-11.937,-12.238,-11.594,-4.6154,-19.618999,-3.268,-16.153999
-23.396,-20.825001,-24.715,-12.362,-25.49,-23.674999,-20.612,-12.303,-19.482,-12.362,-25.49,-21.122,-18.325001,-21.650999,-20.825001,-20.612,-22.544001,-7.8205,-21.524,-9.8039,-23.205
-20.881001,-24.0,-23.415001,-12.362,-12.418,3.6423,-16.103001,-12.303,-11.068,-12.362,-12.418,-7.9208,-18.957001,-19.746,-22.73,-23.188,-24.476999,-7.1795,-14.54,-11.765,-18.718
-14.591,-8.127,-13.659,0.58252,-3.9216,2.9919,3.2206,2.5121,-16.246,0.58252,-3.9216,6.6007,-13.902,-12.762,-21.459999,-16.747,-20.612,-6.5385,-7.5556,-8.4967,-11.026
-2.0126,-4.3175,-3.9024,8.9968,3.9216,15.35,0.64412,6.3768,5.1133,8.9968,3.9216,13.201,-3.7915,-1.9683,-10.032,-7.7295,-9.6618,4.359,4.5079,1.9608,1.7949
1.1321,-0.50794,3.9024,5.1133,3.9216,15.35,8.3736,6.3768,9.644,5.1133,3.9216,17.162001,0.63191,2.4762,-3.0476,-1.9324,-1.9324,5.641,5.7778,2.6144,5.0
9.3082,3.9365,11.707,5.7605,9.8039,8.1951,15.459,7.6651,5.1133,5.7605,9.8039,21.782,3.1596,3.746,3.9365,0.64412,3.2206,10.128,5.7778,3.9216,4.359
19.371,16.0,20.163,10.939,9.8039,23.805,28.341,5.7327,-3.301,10.939,9.8039,26.403,10.742,7.5556,16.0,5.153,12.882,6.9231,7.6825,9.8039,5.641
11.824,8.381,16.26,14.175,8.4967,2.3415,9.0177,14.106,9.644,14.175,8.4967,17.822001,8.2148,6.2857,10.921,5.153,11.594,0.51282,2.6032,5.8824,3.7179
6.7925,10.286,17.561001,6.4078,11.111,19.252001,15.459,10.886,9.644,6.4078,11.111,21.122,6.3191,6.2857,4.5714,5.7971,7.7295,5.0,7.0476,5.2288,5.641
4.2767,17.905001,16.26,8.3495,8.4967,28.358,18.035,1.868,20.646999,8.3495,8.4967,21.782,5.0553,6.9206,5.2063,9.6618,8.3736,-1.4103,12.127,3.9216,7.5641
-2.6415,13.46,7.1545,-3.9482,1.3072,-13.268,7.7295,-3.285,8.3495,-3.9482,1.3072,5.2805,3.7915,6.2857,3.9365,12.238,7.0853,1.7949,8.3175,3.268,7.5641
1.1321,18.540001,7.1545,-10.421,-2.6144,2.9919,5.153,-3.9291,-3.9482,-10.421,-2.6144,1.9802,4.4234,7.5556,4.5714,14.815,9.0177,6.2821,8.3175,3.9216,8.8462
8.0503,11.556,5.2033,-5.2427,0.0,8.1951,5.153,-7.1498,12.233,-5.2427,0.0,-0.66007,5.0553,6.9206,6.4762,12.238,8.3736,2.4359,10.857,7.1895,10.128
7.4214,12.19,-1.3008,-3.9482,-3.9216,-15.87,12.238,-1.9968,4.466,-3.9482,-3.9216,-1.9802,0.63191,1.8413,3.3016,5.153,0.0,-1.4103,7.6825,4.5752,5.0
2.3899,0.7619,-8.4553,-1.3592,1.9608,7.5447,-13.527,-3.285,9.644,-1.3592,1.9608,-1.9802,-5.0553,-5.1429,-3.0476,-4.5089,-8.3736,3.0769,6.4127,3.9216,-0.76923
-0.75472,-1.1429,-10.407,-9.7735,-8.4967,-0.26016,-14.815,0.57971,-5.2427,-9.7735,-8.4967,-8.5809,-6.951,-6.4127,-4.3175,-4.5089,-9.6618,3.0769,1.9683,0.65359,-2.6923
3.0189,0.7619,-3.9024,-9.1262,-11.111,-2.8618,-7.0853,-14.235,-0.06472,-9.1262,-11.111,-9.901,-1.8957,-0.06349,1.3968,2.5765,-1.2882,-0.76923,10.222,2.6144,5.0
-4.5283,-3.6825,-5.8537,-14.951,-18.301001,-19.122,-18.68,-7.1498,-3.301,-14.951,-18.301001,-16.502001,-2.5276,-3.2381,0.7619,0.0,-2.5765,2.4359,2.6032,2.6144,-0.12821
-0.12579,-1.1429,0.65041,-16.246,-7.1895,-4.813,-11.594,-7.7939,0.58252,-16.246,-7.1895,-5.9406,0.63191,0.57143,3.3016,0.0,0.64412,-0.12821,1.9683,5.2288,3.0769
-4.5283,-8.127,-3.9024,-7.8317,-10.458,-16.52,-10.95,-12.303,-2.6537,-7.8317,-10.458,-9.901,-1.2638,-1.9683,-1.1429,-7.0853,-4.5089,-3.9744,1.3333,1.3072,0.51282
-5.7862,-7.4921,-6.5041,-8.479,-9.1503,-9.3659,-6.4412,-12.947,-8.479,-8.479,-9.1503,-11.221,0.63191,-3.873,0.12698,-8.3736,-5.153,1.7949,-2.4762,4.5752,-0.76923
2.3899,-9.3968,-0.65041,-14.951,-14.379,2.3415,-18.68,-9.7262,-2.0065,-14.951,-14.379,-9.2409,6.3191,-0.06349,8.381,-5.7971,1.2882,-0.12821,-0.57143,7.1895,1.1538
5.5346,-9.3968,2.6016,-16.893,-20.261,3.6423,-19.968,-14.235,-21.424,-16.893,-20.261,-7.2607,6.951,-0.06349,10.921,-5.7971,2.5765,-3.3333,-6.9206,7.8431,-0.76923
6.7925,-7.4921,7.1545,-14.951,-14.379,-8.7154,-6.4412,-16.167,-7.8317,-14.951,-14.379,-2.6403,10.111,3.746,12.19,-3.8647,4.5089,1.7949,-1.8413,8.4967,2.4359
5.5346,-6.2222,2.6016,-9.7735,-13.072,-13.919,-0.64412,-12.303,-14.951,-9.7735,-13.072,-1.9802,8.2148,3.746,7.746,-4.5089,1.2882,3.0769,-1.8413,7.8431,2.4359
-2.6415,-7.4921,-1.9512,-6.5372,-12.418,-3.5122,-10.306,-9.7262,-9.1262,-6.5372,-12.418,-1.9802,5.0553,1.2063,3.3016,-5.7971,-1.9324,3.7179,-5.0159,7.1895,2.4359
9.3082,1.3968,3.252,-5.89,-8.4967,-8.7154,-3.8647,1.2238,5.7605,-5.89,-8.4967,1.3201,7.5829,5.0159,9.6508,2.5765,5.153,6.9231,0.69841,10.458,3.7179
9.3082,-1.1429,2.6016,-5.89,-12.418,8.1951,-12.882,-5.8615,-11.715,-5.89,-12.418,-3.9604,5.6872,3.746,10.921,3.8647,5.153,4.359,-0.57143,10.458,3.0769
8.0503,9.0159,6.5041,-13.01,-16.34,6.8943,5.7971,-8.438,-33.074001,-13.01,-16.34,-3.3003,8.2148,8.8254,14.095,9.6618,10.95,-2.6923,1.3333,11.765,6.2821
10.566,1.3968,7.8049,-5.2427,-9.1503,-3.5122,-5.7971,-3.285,3.1715,-5.2427,-9.1503,0.0,6.951,6.9206,13.46,6.4412,10.306,3.7179,4.5079,9.1503,6.2821
3.0189,-0.50794,6.5041,-5.89,-7.1895,-1.561,-5.7971,-0.70853,3.8188,-5.89,-7.1895,5.2805,1.2638,4.381,3.9365,3.8647,4.5089,1.7949,3.2381,5.2288,6.2821
9.3082,6.4762,14.309,3.8188,3.268,5.5935,14.171,-5.8615,-1.3592,3.8188,3.268,13.861,6.3191,8.8254,8.381,9.0177,10.95,0.51282,8.9524,6.5359,10.128
8.6792,6.4762,10.407,-0.71197,-3.9216,22.504,-3.8647,-5.2174,-0.71197,-0.71197,-3.9216,6.6007,7.5829,8.8254,11.556,10.95,10.306,7.5641,8.9524,6.5359,9.4872
11.195,8.381,8.4553,-4.5955,-5.8824,-10.667,6.4412,1.2238,0.58252,-4.5955,-5.8824,1.3201,8.8468,10.095,14.095,11.594,11.594,2.4359,8.3175,8.4967,12.051
8.6792,3.9365,2.6016,-11.068,-13.725,-14.569,-2.5765,-3.9291,-2.6537,-11.068,-13.725,-5.9406,5.0553,8.1905,11.556,7.7295,7.0853,-5.8974,5.1429,5.2288,10.769
6.1635,-4.9524,-5.2033,-14.951,-15.686,-4.1626,-9.0177,-7.7939,-14.951,-14.951,-15.686,-8.5809,1.2638,5.0159,5.2063,1.2882,-0.64412,-1.4103,0.69841,0.65359,7.5641
0.50314,2.0317,-6.5041,-21.424,-16.993,10.797,-4.5089,-6.5056,-26.601999,-21.424,-16.993,-5.9406,0.0,2.4762,1.3968,1.9324,-1.9324,-1.4103,-1.2063,-0.65359,1.7949
1.1321,4.5714,-3.9024,-6.5372,-9.1503,-11.317,-3.2206,-3.9291,-5.2427,-6.5372,-9.1503,-5.2805,1.8957,7.5556,1.3968,8.3736,1.9324,-3.9744,4.5079,-0.65359,6.9231
3.0189,8.381,2.6016,5.1133,-5.8824,-2.8618,-3.8647,0.57971,-0.71197,5.1133,-5.8824,-1.9802,3.7915,7.5556,3.9365,10.306,5.7971,0.51282,5.1429,1.9608,8.8462
0.50314,-0.50794,0.0,-7.8317,-8.4967,6.2439,-5.153,-7.7939,-5.2427,-7.8317,-8.4967,-1.3201,0.0,4.381,0.7619,4.5089,1.2882,-2.0513,3.873,-1.3072,5.641
-0.75472,2.6667,-3.252,-4.5955,-6.5359,-3.5122,-0.64412,-1.3527,-0.71197,-4.5955,-6.5359,-3.9604,-0.63191,5.0159,-2.4127,7.7295,0.64412,1.1538,2.6032,-1.3072,5.0
-6.4151,11.556,-5.2033,-2.6537,-6.5359,10.146,0.0,4.4444,-5.89,-2.6537,-6.5359,-5.2805,0.0,6.9206,-3.6825,13.527,1.2882,3.0769,6.4127,0.65359,10.769
-3.8994,2.0317,-7.1545,-2.0065,-9.1503,2.9919,-0.64412,8.3092,-2.0065,-2.0065,-9.1503,-6.6007,-5.6872,-0.69841,-6.8571,5.7971,-5.153,1.1538,1.3333,-5.2288,4.359
1.1321,9.6508,0.65041,1.2298,-4.5752,2.3415,5.7971,2.5121,-13.657,1.2298,-4.5752,-3.3003,-5.0553,-3.873,-0.50794,6.4412,0.0,3.7179,-2.4762,-2.6144,-1.4103
8.0503,18.540001,7.8049,-1.3592,-3.268,-13.919,4.5089,5.0886,-18.188,-1.3592,-3.268,-1.3201,-0.63191,-0.06349,7.1111,12.238,9.0177,3.7179,-2.4762,1.9608,1.1538
2.3899,2.0317,1.9512,-9.1262,-8.4967,1.6911,-7.7295,0.57971,-1.3592,-9.1262,-8.4967,-7.2607,3.1596,2.4762,7.746,9.6618,8.3736,1.1538,-4.381,3.268,0.51282
4.2767,0.12698,3.9024,-2.6537,-1.3072,8.1951,-7.7295,-9.0821,-2.6537,-2.6537,-1.3072,-4.6205,8.2148,5.0159,10.921,10.306,12.238,3.0769,-1.8413,5.8824,3.7179
1.1321,10.921,4.5528,-1.3592,-2.6144,-11.967,1.9324,-1.3527,-2.0065,-1.3592,-2.6144,-5.9406,12.006,10.095,10.286,16.103001,14.171,-5.2564,-0.57143,3.268,6.9231
3.0189,11.556,3.9024,3.1715,5.8824,4.9431,6.4412,1.2238,8.3495,3.1715,5.8824,0.0,13.27,8.1905,7.1111,10.95,10.306,-4.6154,3.2381,4.5752,5.641
-0.12579,5.2063,0.65041,8.9968,3.9216,9.4959,3.2206,7.6651,-0.06472,8.9968,3.9216,1.9802,6.951,-0.06349,2.0317,0.64412,1.2882,-1.4103,-1.2063,-1.3072,-2.6923
1.761,5.2063,5.8537,11.586,13.072,-2.8618,9.0177,3.8003,11.586,11.586,13.072,6.6007,6.3191,-0.69841,3.3016,0.64412,2.5765,-0.12821,5.1429,-2.6144,-0.76923
-0.75472,10.286,7.8049,1.877,9.1503,-1.561,12.238,3.1562,14.175,1.877,9.1503,8.5809,4.4234,-2.6032,3.3016,1.9324,3.8647,-2.0513,1.3333,-2.6144,-3.3333
-4.5283,1.3968,2.6016,13.528,5.8824,-0.91057,-7.7295,1.868,-0.71197,13.528,5.8824,1.9802,-0.63191,-5.7778,-1.7778,-0.64412,-0.64412,-2.6923,0.06349,-5.2288,-4.6154
-3.2704,5.2063,5.2033,13.528,11.111,11.447,1.9324,10.886,7.7023,13.528,11.111,7.9208,-1.2638,-3.873,-0.50794,1.9324,0.64412,-3.3333,3.873,-3.268,-0.76923
-1.3836,10.286,5.8537,9.644,8.4967,14.699,16.103001,12.174,-1.3592,9.644,8.4967,10.561,-2.5276,-5.1429,-1.1429,2.5765,0.0,-3.3333,2.6032,-3.9216,-2.0513
3.0189,6.4762,4.5528,10.291,5.8824,10.146,5.7971,7.6651,0.58252,10.291,5.8824,9.2409,-3.1596,-5.7778,0.12698,1.2882,-1.2882,1.1538,-0.57143,-2.6144,-3.3333
-7.044,-3.0476,-5.8537,2.5243,1.9608,10.146,5.7971,10.242,-0.06472,2.5243,1.9608,3.3003,-5.6872,-5.7778,-3.0476,-3.8647,-7.0853,3.7179,0.06349,-2.6144,-2.0513
-6.4151,-10.667,-13.008,1.877,-1.9608,-2.2114,-7.0853,-0.06441,1.877,1.877,-1.9608,-4.6205,-5.6872,-8.3175,-4.3175,-6.4412,-9.6618,7.5641,-3.1111,-1.9608,-7.8205
-4.5283,-6.2222,-9.7561,-0.06472,-6.5359,-17.171,-9.6618,3.8003,-7.1845,-0.06472,-6.5359,-7.2607,-5.6872,-7.0476,-1.1429,-1.9324,-5.153,1.7949,-5.6508,-0.65359,-8.4615
3.6478,-1.7778,-2.6016,1.2298,-3.268,-4.1626,-7.7295,8.9533,-5.2427,1.2298,-3.268,-3.9604,-5.6872,-3.873,3.3016,4.5089,2.5765,4.359,0.06349,0.65359,-1.4103
12.453,22.983999,13.008,9.644,1.3072,22.504,18.035,13.462,-16.893,9.644,1.3072,11.881,-1.2638,1.8413,12.825,18.68,14.815,9.4872,3.2381,4.5752,3.0769
6.7925,11.556,7.1545,7.055,5.2288,10.146,5.7971,7.0209,5.7605,7.055,5.2288,7.2607,-6.951,-1.9683,5.8413,14.171,9.0177,5.641,0.69841,0.0,1.7949
6.1635,11.556,6.5041,1.877,2.6144,18.601999,3.2206,7.6651,3.1715,1.877,2.6144,9.2409,-7.5829,-0.69841,6.4762,13.527,7.0853,4.359,5.7778,1.3072,2.4359
7.4214,22.983999,13.008,6.4078,9.8039,3.6423,18.035,7.0209,-0.06472,6.4078,9.8039,15.182,-6.3191,3.1111,5.8413,19.968,12.238,8.8462,10.857,-0.65359,9.4872
4.9057,22.349001,14.959,10.939,5.8824,13.398,7.7295,2.5121,8.3495,10.939,5.8824,12.541,-3.7915,6.9206,6.4762,22.544001,14.815,3.0769,7.0476,-3.268,6.9231
12.453,34.412998,26.667,13.528,16.993,3.6423,28.341,3.8003,5.7605,13.528,16.993,21.782,5.0553,14.54,13.46,28.986,23.833,-1.4103,13.397,1.3072,14.615
2.3899,18.540001,16.910999,12.233,9.1503,7.5447,5.7971,8.3092,16.117001,12.233,9.1503,11.221,5.0553,10.095,8.381,20.612,16.103001,-3.3333,11.492,0.0,10.128
-2.0126,17.27,10.407,14.175,14.379,16.65,9.0177,8.3092,13.528,14.175,14.379,11.221,3.7915,7.5556,0.7619,14.815,9.6618,-2.0513,7.6825,-1.3072,7.5641
-3.2704,26.159,9.1057,3.8188,15.686,10.146,37.359001,7.6651,-11.715,3.8188,15.686,13.861,1.8957,6.2857,-3.6825,12.882,6.4412,-3.3333,8.3175,-3.9216,7.5641
-7.044,-1.1429,-0.65041,9.644,11.111,1.0407,4.5089,-6.5056,10.939,9.644,11.111,0.0,1.8957,4.381,-6.2222,2.5765,0.64412,-7.1795,1.9683,-3.268,2.4359
-8.3019,-10.032,-5.2033,8.3495,8.4967,1.0407,-3.8647,-0.06441,7.7023,8.3495,8.4967,-3.9604,-2.5276,-0.69841,-10.667,-8.3736,-7.7295,-7.8205,-3.746,-5.8824,-2.6923
-15.22,-13.206,-13.659,-1.3592,1.3072,-15.22,0.64412,3.8003,1.877,-1.3592,1.3072,-9.2409,-12.006,-7.6825,-20.190001,-17.391001,-18.035,-5.2564,-6.9206,-11.111,-7.1795
-20.252001,-15.746,-18.862,-3.301,1.3072,-29.528,-9.0177,-7.7939,-11.068,-3.301,1.3072,-14.521,-13.27,-6.4127,-24.635,-18.68,-21.256001,-3.3333,-8.1905,-13.072,-7.8205
-18.365,-8.7619,-17.561001,-1.3592,0.0,-3.5122,-10.95,-0.06441,-2.0065,-1.3592,0.0,-7.2607,-10.111,-3.2381,-23.365,-16.747,-19.323999,-5.2564,-3.746,-11.111,-5.2564
-15.22,-10.667,-14.959,1.877,1.9608,-20.423,-16.103001,6.3768,7.055,1.877,1.9608,-9.2409,-3.7915,0.57143,-17.016001,-12.238,-14.171,-2.6923,1.9683,-6.5359,-0.12821
-14.591,-8.7619,-15.61,-2.6537,-5.2288,-6.1138,-6.4412,-0.06441,-1.3592,-2.6537,-5.2288,-16.502001,-2.5276,2.4762,-16.381001,-9.6618,-12.882,-0.12821,-0.57143,-5.8824,1.1538
-12.704,-11.937,-13.008,-2.0065,-2.6144,-2.8618,-7.7295,1.868,1.877,-2.0065,-2.6144,-13.201,-0.63191,1.8413,-15.111,-10.306,-12.238,1.1538,4.5079,-2.6144,1.7949
-7.673,-10.032,-9.7561,-12.362,-11.765,-10.667,-11.594,-4.5733,-0.71197,-12.362,-11.765,-13.861,3.7915,2.4762,-7.4921,-6.4412,-7.0853,2.4359,0.69841,1.9608,0.51282
-0.12579,-6.8571,-6.5041,-8.479,-4.5752,0.39024,-3.2206,-1.3527,1.877,-8.479,-4.5752,-8.5809,5.6872,0.57143,-1.7778,-6.4412,-4.5089,8.2051,0.69841,5.2288,-0.76923
6.7925,-7.4921,-8.4553,-0.71197,-5.2288,-13.268,-5.153,3.8003,-2.6537,-0.71197,-5.2288,-9.2409,6.951,-1.3333,5.2063,-5.7971,-3.8647,6.2821,2.6032,7.1895,-3.3333
9.3082,-4.3175,-4.5528,-7.1845,-6.5359,-2.8618,-7.7295,2.5121,-7.1845,-7.1845,-6.5359,-9.2409,10.111,0.57143,10.921,-0.64412,1.9324,11.41,0.69841,9.8039,0.51282
4.2767,-9.3968,-5.2033,-3.9482,-13.072,1.0407,-13.527,-0.70853,-7.8317,-3.9482,-13.072,-7.2607,6.3191,-4.5079,7.746,-5.153,-0.64412,5.0,-5.0159,7.1895,-6.5385
4.9057,-6.2222,0.0,4.466,-2.6144,-2.2114,-1.9324,5.7327,-0.71197,4.466,-2.6144,-1.3201,6.951,-1.3333,9.6508,-1.2882,2.5765,1.7949,-0.57143,9.1503,-0.76923
8.6792,3.3016,4.5528,-2.0065,-3.9216,5.5935,0.0,1.2238,-13.01,-2.0065,-3.9216,1.9802,7.5829,-1.9683,14.095,1.9324,6.4412,9.4872,-3.1111,7.8431,-5.2564
13.082,-2.4127,6.5041,-3.301,-1.9608,-5.4634,1.2882,2.5121,-0.71197,-3.301,-1.9608,7.2607,8.2148,1.8413,16.0,3.2206,9.0177,3.7179,-4.381,6.5359,-3.3333
15.597,3.3016,8.4553,10.291,5.2288,16.65,9.0177,8.3092,-4.5955,10.291,5.2288,9.901,6.951,5.0159,14.73,6.4412,9.6618,5.0,-1.2063,7.1895,1.1538
12.453,8.381,9.7561,11.586,9.8039,10.797,10.306,9.5974,5.1133,11.586,9.8039,16.502001,3.7915,3.1111,10.286,5.153,7.0853,2.4359,-3.1111,4.5752,-2.0513
11.195,7.746,11.707,14.175,13.072,14.049,12.882,7.0209,13.528,14.175,13.072,21.122,-0.63191,-0.06349,3.9365,2.5765,5.153,-0.76923,1.3333,-2.6144,-2.0513
9.3082,7.746,11.707,14.822,18.954,38.764,16.747,9.5974,12.88,14.822,18.954,23.761999,-3.1596,-1.3333,0.7619,1.2882,3.8647,-3.3333,0.06349,-5.2288,-5.8974
-9.5597,-0.50794,1.9512,14.822,12.418,1.0407,15.459,8.3092,21.294001,14.822,12.418,11.881,-11.374,-7.6825,-15.111,-7.7295,-7.0853,-7.1795,-3.746,-15.686,-7.8205
-12.704,-6.2222,-2.6016,10.939,9.8039,6.2439,3.2206,6.3768,12.233,10.939,9.8039,7.2607,-13.902,-8.3175,-21.459999,-11.594,-11.594,-9.7436,-0.57143,-18.954,-9.1026
-11.447,2.0317,-2.6016,4.466,11.111,1.6911,9.6618,4.4444,-3.301,4.466,11.111,9.2409,-12.006,-5.7778,-19.556,-8.3736,-10.95,-7.1795,-1.8413,-18.301001,-7.1795
-13.962,-7.4921,-9.7561,1.877,3.268,1.0407,-2.5765,5.0886,10.291,1.877,3.268,1.3201,-12.638,-5.7778,-21.459999,-13.527,-16.747,-9.1026,-1.2063,-16.34,-8.4615
-18.993999,-17.650999,-18.211,-0.71197,0.65359,2.9919,-3.2206,-1.3527,5.1133,-0.71197,0.65359,-5.2805,-17.062,-8.9524,-27.174999,-21.256001,-23.833,-10.385,-2.4762,-16.993,-8.4615
-21.509001,-10.032,-14.309,-9.7735,-1.9608,-23.024,1.2882,0.57971,7.7023,-9.7735,-1.9608,-6.6007,-14.534,-5.7778,-24.635,-15.459,-19.968,-12.949,-3.1111,-14.379,-8.4615
-18.365,-1.7778,-3.9024,1.877,0.65359,-18.472,4.5089,-4.5733,3.8188,1.877,0.65359,-3.9604,-10.742,-3.873,-19.556,-9.0177,-11.594,-5.8974,1.3333,-11.765,-3.3333
-13.962,0.12698,-1.9512,1.2298,-2.6144,-4.813,1.9324,-3.9291,-5.89,1.2298,-2.6144,-5.9406,-8.8468,-3.873,-13.841,-8.3736,-9.0177,-4.6154,-1.2063,-7.8431,-5.8974
-1.3836,0.12698,1.9512,-6.5372,0.65359,-0.91057,3.2206,-11.014,-2.6537,-6.5372,0.65359,-1.3201,-6.951,-2.6032,-7.4921,-7.0853,-4.5089,-1.4103,1.3333,-2.6144,-2.0513
-4.5283,-10.032,-7.1545,-9.7735,-11.111,-10.667,-12.238,-4.5733,-3.9482,-9.7735,-11.111,-11.221,-9.4787,-6.4127,-8.127,-12.238,-9.0177,0.51282,-6.2857,-2.6144,-7.1795
-7.673,-22.094999,-18.211,-12.362,-16.34,-22.374001,-18.035,-7.1498,-18.188,-12.362,-16.34,-20.462,-9.4787,-7.6825,-10.667,-18.035,-14.171,1.1538,-12.0,-2.6144,-7.1795
-7.673,-23.365,-20.813,-11.068,-15.686,-4.1626,-30.917999,-11.014,-16.246,-11.068,-15.686,-19.142,-8.2148,-5.1429,-14.476,-16.747,-16.747,3.7179,-12.0,-1.9608,-4.6154
-13.962,-18.921,-22.114,-3.301,-9.8039,-13.919,-17.391001,1.2238,-20.777,-3.301,-9.8039,-15.842,-6.951,-5.1429,-15.111,-16.747,-18.035,-7.1795,-11.365,0.65359,-5.8974
-16.478001,-18.285999,-21.462999,-2.0065,-9.8039,-25.625999,-11.594,-8.438,-14.951,-2.0065,-9.8039,-17.162001,-5.6872,-6.4127,-15.111,-15.459,-17.391001,-8.4615,-15.175,-1.9608,-7.1795
-22.767,-26.540001,-24.065001,-13.657,-19.608,-20.423,-29.629999,-20.032,-19.482,-13.657,-19.608,-23.101999,-7.5829,-10.222,-18.921,-19.968,-18.68,-7.8205,-22.159,-5.2288,-14.231
-18.993999,-30.349001,-19.511999,-19.482,-22.875999,-20.423,-38.646999,-17.455999,-28.544001,-19.482,-22.875999,-24.422001,-6.3191,-12.127,-13.841,-21.256001,-13.527,-12.308,-20.889,-3.268,-15.513
-18.993999,-26.540001,-13.659,-16.246,-20.915001,-33.431,-24.476999,-18.1,-22.070999,-16.246,-20.915001,-20.462,-11.374,-17.841,-17.650999,-24.476999,-14.171,-11.026,-27.872999,-9.8039,-22.563999
-10.818,-28.444,-7.8049,-8.479,-7.1895,0.39024,-10.306,-3.285,-7.8317,-8.479,-7.1895,-5.9406,-8.8468,-15.302,-15.111,-25.764999,-14.171,-9.7436,-23.429001,-9.8039,-20.0
1.1321,-13.206,1.3008,-0.71197,5.8824,19.902,2.5765,3.8003,1.2298,-0.71197,5.8824,9.2409,0.0,-3.2381,-5.5873,-13.527,-5.153,-3.9744,-8.8254,-3.268,-9.1026
-3.2704,-4.3175,2.6016,16.764,13.072,14.699,9.6618,3.1562,0.58252,16.764,13.072,12.541,1.2638,0.57143,-7.4921,-8.3736,-4.5089,-2.0513,-5.0159,-1.9608,-2.0513
-7.044,-8.7619,0.65041,7.055,6.5359,1.6911,3.2206,-1.3527,3.1715,7.055,6.5359,9.2409,0.0,1.2063,-7.4921,-9.6618,-5.7971,-2.6923,-1.8413,-3.268,-1.4103
-2.6415,-7.4921,2.6016,-1.3592,5.8824,-8.065,8.3736,-4.5733,1.877,-1.3592,5.8824,6.6007,0.0,-0.06349,-3.0476,-7.7295,-2.5765,3.0769,-1.8413,-1.9608,-0.12821
-3.8994,-10.032,-3.252,1.2298,-0.65359,-13.268,-7.0853,-3.9291,4.466,1.2298,-0.65359,-3.9604,-0.63191,1.2063,-3.6825,-5.7971,-3.8647,-0.76923,0.69841,-1.9608,-0.12821
-7.044,-1.7778,-8.4553,-2.6537,0.65359,-6.1138,-1.9324,-0.06441,1.2298,-2.6537,0.65359,-8.5809,1.2638,3.1111,-3.6825,-1.2882,-2.5765,3.0769,1.3333,-1.3072,5.641
-2.0126,-12.571,-11.057,-5.89,-5.8824,-26.927,-9.6618,1.2238,4.466,-5.89,-5.8824,-15.182,1.2638,2.4762,0.7619,-2.5765,-2.5765,1.1538,4.5079,-1.3072,3.7179
13.082,-4.3175,1.9512,-4.5955,2.6144,12.748,-4.5089,4.4444,2.5243,-4.5955,2.6144,-1.9802,3.7915,3.746,8.381,1.9324,4.5089,3.0769,7.6825,3.268,6.9231
16.226,1.3968,9.1057,5.1133,2.6144,27.707001,3.8647,5.0886,-1.3592,5.1133,2.6144,8.5809,6.3191,3.1111,12.825,5.153,9.0177,2.4359,3.2381,7.1895,6.9231
14.34,1.3968,8.4553,3.1715,-0.65359,6.8943,-0.64412,-7.7939,-3.301,3.1715,-0.65359,-0.66007,7.5829,2.4762,14.73,7.0853,11.594,12.051,1.9683,7.1895,3.7179
8.0503,7.1111,4.5528,-5.89,-3.268,-4.813,4.5089,-6.5056,-18.188,-5.89,-3.268,-3.3003,10.111,4.381,12.19,9.0177,10.95,1.7949,5.1429,8.4967,6.2821
3.6478,-3.6825,-2.6016,-3.9482,-5.8824,-16.52,-14.815,-5.2174,1.2298,-3.9482,-5.8824,-11.881,9.4787,1.8413,7.746,2.5765,4.5089,-0.12821,-1.2063,8.4967,3.0769
0.50314,-2.4127,-1.9512,-11.715,-7.1895,-11.967,-7.0853,-4.5733,4.466,-11.715,-7.1895,-12.541,8.8468,3.746,4.5714,3.2206,2.5765,-0.12821,0.06349,5.8824,3.7179
4.9057,-1.7778,3.252,-2.0065,1.3072,-7.4146,1.9324,-1.3527,-3.301,-2.0065,1.3072,-0.66007,6.951,1.2063,4.5714,-1.2882,2.5765,4.359,0.06349,7.1895,1.7949
8.0503,-7.4921,3.9024,9.644,5.8824,-2.2114,0.0,1.868,10.939,9.644,5.8824,3.9604,3.7915,-2.6032,3.3016,-5.7971,-0.64412,3.7179,0.06349,5.2288,-0.76923
9.9371,-0.50794,5.8537,11.586,11.111,23.153999,12.882,5.7327,23.236,11.586,11.111,11.221,0.63191,-1.3333,2.6667,-3.2206,-0.64412,0.51282,1.3333,3.268,-1.4103
11.824,5.2063,9.7561,3.8188,8.4967,25.106001,12.882,11.53,-11.715,3.8188,8.4967,14.521,-4.4234,-4.5079,1.3968,-3.8647,-1.2882,5.0,-1.2063,0.65359,-2.0513
-2.6415,-4.9524,-0.65041,7.055,4.5752,1.6911,-2.5765,8.3092,-3.301,7.055,4.5752,0.66007,-9.4787,-7.0476,-4.9524,-8.3736,-7.0853,3.7179,-2.4762,-3.9216,-4.6154
-2.0126,-3.6825,-1.9512,5.1133,4.5752,6.2439,-3.2206,2.5121,11.586,5.1133,4.5752,1.9802,-8.2148,-3.873,-4.3175,-5.153,-5.153,2.4359,5.7778,-2.6144,1.1538
-2.6415,3.3016,1.9512,4.466,3.268,5.5935,4.5089,12.174,4.466,4.466,3.268,3.9604,-7.5829,-3.873,-4.3175,-1.2882,-3.2206,2.4359,4.5079,-2.6144,0.51282
-0.75472,6.4762,9.1057,8.9968,8.4967,-2.8618,5.7971,8.9533,10.291,8.9968,8.4967,7.2607,-5.0553,-1.3333,-2.4127,3.2206,1.9324,4.359,5.1429,0.0,3.0769
4.9057,5.8413,7.8049,-3.301,-5.8824,16.65,-7.7295,0.57971,-0.71197,-3.301,-5.8824,-1.3201,-0.63191,-0.06349,4.5714,6.4412,5.7971,5.0,3.873,3.9216,1.7949
8.6792,9.0159,7.1545,-1.3592,-6.5359,-11.967,-6.4412,8.3092,-2.6537,-1.3592,-6.5359,-4.6205,7.5829,4.381,14.095,10.95,11.594,8.8462,3.873,9.8039,5.641
10.566,3.3016,2.6016,-9.7735,-16.993,-17.820999,-10.306,-1.3527,-13.01,-9.7735,-16.993,-12.541,11.374,7.5556,18.540001,8.3736,11.594,11.41,4.5079,10.458,5.0
8.6792,0.12698,-0.65041,-14.951,-17.646999,-8.065,-15.459,-11.014,-3.9482,-14.951,-17.646999,-12.541,10.111,8.1905,13.46,5.7971,6.4412,2.4359,6.4127,8.4967,8.8462
17.483999,5.2063,7.8049,-4.5955,-9.1503,-0.91057,-10.95,-4.5733,1.2298,-4.5955,-9.1503,-1.3201,11.374,6.9206,17.905001,4.5089,9.0177,4.359,8.9524,11.111,8.8462
16.855,-3.0476,9.7561,-4.5955,-4.5752,9.4959,-13.527,0.57971,0.58252,-4.5955,-4.5752,5.2805,7.5829,2.4762,18.540001,0.64412,8.3736,8.8462,4.5079,9.8039,1.1538
20.629,9.6508,18.862,9.644,5.8824,21.202999,8.3736,7.0209,5.7605,9.644,5.8824,16.502001,10.742,6.2857,22.349001,9.0177,16.747,8.2051,5.7778,11.765,5.641
26.289,17.27,27.966999,12.233,10.458,18.601999,16.747,8.9533,10.939,12.233,10.458,26.403,13.27,7.5556,25.524,16.103001,23.833,4.359,7.6825,13.725,6.2821
21.257999,9.6508,24.065001,12.233,11.765,28.358,16.747,11.53,3.8188,12.233,11.765,28.382999,7.5829,3.1111,19.809999,8.3736,17.391001,7.5641,0.06349,9.8039,1.7949
13.082,6.4762,16.910999,5.7605,8.4967,7.5447,16.747,7.6651,3.8188,5.7605,8.4967,20.462,1.2638,-1.9683,12.825,1.2882,11.594,2.4359,0.06349,7.1895,-2.6923
9.9371,13.46,16.910999,5.1133,8.4967,12.748,32.206001,-0.06441,-9.1262,5.1133,8.4967,16.502001,-1.8957,-5.1429,8.381,1.2882,9.0177,-0.76923,-1.8413,3.268,-5.2564
12.453,5.2063,11.057,-6.5372,3.9216,15.35,5.153,-7.7939,18.058001,-6.5372,3.9216,9.2409,-1.8957,-2.6032,6.4762,1.2882,7.0853,1.1538,4.5079,3.9216,-1.4103
8.6792,6.4762,11.057,1.877,7.8431,8.1951,9.6618,-3.285,10.291,1.877,7.8431,11.221,-1.8957,-3.2381,5.2063,1.2882,7.7295,0.51282,3.2381,3.268,-2.6923
14.34,14.73,13.659,0.58252,5.8824,5.5935,14.815,1.2238,-0.06472,0.58252,5.8824,11.221,-1.2638,-3.2381,9.0159,3.2206,9.0177,-3.9744,-2.4762,3.268,-3.3333
4.2767,-3.6825,5.2033,6.4078,8.4967,7.5447,7.7295,4.4444,2.5243,6.4078,8.4967,5.9406,-1.2638,-4.5079,4.5714,-5.153,4.5089,0.51282,-5.6508,1.9608,-5.8974
3.0189,-11.302,-6.5041,-5.89,-3.9216,4.9431,-7.0853,-0.70853,-8.479,-5.89,-3.9216,-5.2805,-0.63191,-5.1429,3.9365,-8.3736,-0.64412,2.4359,-12.0,0.0,-11.026
1.1321,-8.7619,-10.407,5.7605,-0.65359,-10.667,-6.4412,5.7327,-9.1262,5.7605,-0.65359,-9.901,1.8957,-0.06349,3.3016,-5.153,0.0,3.0769,-8.8254,2.6144,-5.8974
-8.9308,-6.8571,-15.61,-7.1845,-11.765,-23.024,-3.8647,-9.0821,-15.599,-7.1845,-11.765,-17.822001,1.8957,1.2063,-0.50794,-4.5089,-3.2206,-1.4103,-5.0159,1.9608,-3.9744
-10.818,-11.302,-10.407,-5.2427,-3.268,-4.813,-12.882,-11.014,-4.5955,-5.2427,-3.268,-14.521,1.8957,1.2063,-3.0476,-5.153,-2.5765,0.51282,-3.746,-0.65359,-2.0513
-2.0126,-11.302,0.0,-3.301,-2.6144,-6.7642,-9.0177,-0.06441,1.877,-3.301,-2.6144,-8.5809,5.0553,1.2063,3.9365,-5.153,2.5765,-2.6923,-6.9206,2.6144,-3.9744
8.0503,-8.7619,3.252,4.466,0.0,-2.2114,-3.2206,3.8003,-3.9482,4.466,0.0,-1.9802,3.1596,-4.5079,7.746,-9.0177,0.64412,3.7179,-13.905,5.8824,-9.7436
8.0503,-8.127,1.3008,0.58252,1.9608,1.6911,-8.3736,8.9533,-11.715,0.58252,1.9608,1.3201,0.0,-5.7778,7.1111,-8.3736,-0.64412,7.5641,-16.444,3.9216,-10.385
8.0503,-3.6825,-1.9512,2.5243,-3.268,2.3415,-5.153,5.7327,-11.715,2.5243,-3.268,-1.3201,-1.8957,-4.5079,5.2063,-4.5089,-0.64412,5.0,-10.095,1.3072,-8.4615
1.1321,1.3968,0.65041,9.644,2.6144,11.447,-7.7295,9.5974,5.7605,9.644,2.6144,-0.66007,-0.63191,-1.3333,5.2063,3.2206,3.2206,2.4359,-0.57143,1.3072,-1.4103
-1.3836,8.381,-1.3008,7.7023,0.65359,-0.91057,0.64412,8.3092,-1.3592,7.7023,0.65359,-0.66007,0.0,1.2063,5.2063,6.4412,3.8647,-0.12821,0.06349,0.65359,1.1538
1.761,4.5714,-3.9024,3.8188,-1.3072,-2.2114,-1.9324,-0.06441,-1.3592,3.8188,-1.3072,-3.9604,2.5276,3.1111,6.4762,5.7971,3.2206,3.0769,1.3333,1.9608,3.7179
-0.12579,-2.4127,-8.4553,2.5243,-3.268,2.9919,-16.747,1.2238,6.4078,2.5243,-3.268,-11.221,3.7915,5.0159,7.1111,6.4412,3.2206,-0.12821,3.873,3.268,5.0
4.2767,-1.7778,-7.8049,-3.301,-4.5752,-6.1138,-11.594,-5.2174,-5.2427,-3.301,-4.5752,-9.901,3.1596,2.4762,6.4762,5.153,1.9324,3.0769,3.873,1.3072,5.0
17.483999,7.1111,5.8537,-3.9482,-0.65359,4.2927,-4.5089,-0.06441,5.7605,-3.9482,-0.65359,1.3201,7.5829,5.0159,15.365,8.3736,9.0177,0.51282,2.6032,4.5752,3.0769
20.0,-1.1429,10.407,11.586,1.9608,12.098,-1.2882,5.7327,-3.9482,11.586,1.9608,3.9604,6.951,3.746,16.0,5.153,9.6618,5.641,1.9683,3.268,3.0769
9.9371,-2.4127,7.1545,8.9968,-0.65359,4.9431,-9.0177,11.53,3.1715,8.9968,-0.65359,1.9802,6.3191,4.381,11.556,3.8647,7.0853,3.7179,1.9683,1.3072,3.7179
17.483999,15.365,16.910999,10.939,11.765,4.9431,10.306,10.242,4.466,10.939,11.765,15.842,7.5829,8.1905,12.19,11.594,12.882,-0.12821,7.6825,1.3072,9.4872
4.2767,8.381,9.1057,5.7605,1.3072,8.1951,5.153,4.4444,3.1715,5.7605,1.3072,8.5809,1.2638,5.0159,3.9365,6.4412,5.153,0.51282,5.7778,-3.268,6.2821
4.2767,24.889,18.862,8.9968,9.1503,12.098,38.002998,2.5121,-11.715,8.9968,9.1503,19.142,3.7915,6.2857,6.4762,10.306,9.6618,2.4359,5.1429,-0.65359,8.2051
2.3899,3.3016,11.057,2.5243,1.3072,13.398,1.9324,4.4444,-10.421,2.5243,1.3072,7.9208,1.2638,5.0159,4.5714,5.153,4.5089,1.1538,3.873,-1.3072,8.8462
1.761,-3.0476,1.9512,-2.0065,-4.5752,-4.813,-12.238,3.8003,1.2298,-2.0065,-4.5752,-0.66007,0.63191,1.8413,2.6667,0.64412,0.64412,9.4872,-2.4762,-1.9608,0.51282
1.761,3.9365,0.0,4.466,0.0,8.1951,9.0177,10.242,1.877,4.466,0.0,4.6205,4.4234,2.4762,3.3016,1.9324,0.64412,2.4359,-0.57143,2.6144,0.51282
-4.5283,14.095,-5.2033,3.1715,1.3072,5.5935,16.747,10.886,3.8188,3.1715,1.3072,-0.66007,4.4234,4.381,2.0317,5.7971,0.0,4.359,0.69841,1.9608,5.0
-4.5283,-4.3175,-12.358,0.58252,-1.9608,-6.1138,-9.6618,2.5121,7.7023,0.58252,-1.9608,-9.2409,2.5276,1.8413,-0.50794,0.64412,-4.5089,2.4359,0.69841,0.0,0.51282
-3.2704,-8.7619,-11.057,-5.89,-1.3072,-6.1138,-12.882,-7.1498,-1.3592,-5.89,-1.3072,-8.5809,0.63191,0.57143,-3.0476,-0.64412,-7.0853,-1.4103,1.3333,-1.3072,-0.76923
-7.673,7.746,-4.5528,-5.89,0.65359,-23.024,3.2206,-1.9968,1.877,-5.89,0.65359,-5.2805,-1.2638,-1.3333,-4.9524,3.8647,-5.7971,0.51282,0.69841,-3.9216,1.1538
-10.818,9.6508,-3.252,-1.3592,-1.3072,7.5447,1.2882,-4.5733,1.877,-1.3592,-1.3072,-1.3201,-6.3191,-2.6032,-10.667,5.153,-5.7971,-4.6154,3.873,-7.8431,0.51282
-2.0126,11.556,0.65041,-2.0065,2.6144,-0.26016,8.3736,-7.1498,5.1133,-2.0065,2.6144,3.3003,-8.2148,-4.5079,-8.127,4.5089,-5.153,-3.9744,5.1429,-6.5359,1.7949
-0.12579,10.286,3.252,-5.2427,3.9216,-10.016,6.4412,-4.5733,5.1133,-5.2427,3.9216,1.3201,-6.3191,-3.2381,-2.4127,5.7971,-1.2882,-8.4615,5.7778,-7.1895,1.1538
4.2767,12.19,5.2033,3.1715,9.8039,-2.2114,17.391001,-7.1498,14.175,3.1715,9.8039,5.9406,-4.4234,-1.9683,-0.50794,6.4412,1.2882,-8.4615,6.4127,-4.5752,3.7179
-5.7862,10.921,5.8537,10.939,15.686,10.797,16.747,2.5121,13.528,10.939,15.686,11.221,-3.7915,-1.3333,-2.4127,5.7971,1.9324,-7.8205,10.222,-5.8824,4.359
-6.4151,23.618999,14.309,11.586,20.915001,25.756001,35.426998,8.3092,-2.0065,11.586,20.915001,23.101999,0.63191,4.381,-1.1429,14.171,9.6618,0.51282,10.857,-1.9608,10.128
-0.12579,11.556,13.659,7.055,10.458,0.39024,5.153,6.3768,25.177999,7.055,10.458,13.861,-0.63191,4.381,-0.50794,14.171,11.594,-3.9744,14.032,-3.268,5.641
4.2767,13.46,19.511999,11.586,13.072,2.3415,5.7971,5.7327,16.764,11.586,13.072,12.541,0.0,5.6508,3.9365,18.035,17.391001,-2.0513,15.302,-2.6144,11.41
13.711,16.0,18.211,8.3495,5.2288,14.049,5.153,5.0886,-2.0065,8.3495,5.2288,7.2607,3.1596,6.9206,12.825,20.612,21.256001,-0.12821,9.5873,1.9608,11.41
13.711,16.0,13.659,7.055,12.418,8.8455,12.238,6.3768,12.233,7.055,12.418,6.6007,8.2148,12.0,16.635,23.833,22.544001,5.0,13.397,5.2288,13.333
13.711,14.095,11.707,12.88,15.686,7.5447,14.815,5.0886,12.233,12.88,15.686,9.901,3.7915,6.2857,10.286,17.391001,14.171,-0.76923,10.222,3.9216,10.769
8.6792,14.73,14.309,15.469,18.954,16.65,12.238,6.3768,12.88,15.469,18.954,15.182,0.0,1.8413,2.0317,14.171,9.6618,-0.12821,6.4127,1.9608,6.9231
1.761,15.365,11.707,8.3495,13.725,4.9431,12.882,7.6651,5.1133,8.3495,13.725,11.881,1.2638,2.4762,0.7619,12.882,9.0177,-0.12821,5.1429,0.65359,4.359
-1.3836,12.19,5.2033,1.2298,4.5752,4.2927,5.7971,-2.6409,10.291,1.2298,4.5752,1.3201,1.2638,1.2063,1.3968,12.238,7.7295,-0.76923,-1.8413,1.9608,-0.12821
-0.12579,2.6667,3.252,-6.5372,-1.3072,2.9919,-3.2206,-1.3527,2.5243,-6.5372,-1.3072,0.66007,1.8957,0.57143,3.9365,9.0177,7.7295,-2.0513,2.6032,4.5752,1.7949
8.0503,0.12698,0.65041,-2.0065,-2.6144,-7.4146,2.5765,1.2238,-14.304,-2.0065,-2.6144,-0.66007,1.2638,-3.2381,9.6508,3.2206,7.0853,3.0769,-5.0159,3.9216,-3.9744
5.5346,-1.1429,-2.6016,16.764,8.4967,11.447,1.9324,3.8003,3.1715,16.764,8.4967,1.3201,-3.7915,-6.4127,3.9365,0.64412,1.2882,3.7179,-2.4762,0.0,-4.6154
-3.8994,-0.50794,-7.8049,20.0,16.993,-1.561,8.3736,7.6651,5.1133,20.0,16.993,9.2409,-8.8468,-10.222,-7.4921,-3.8647,-7.0853,0.51282,-5.0159,-1.9608,-8.4615
-5.1572,-8.127,-10.407,12.88,15.033,4.9431,-0.64412,14.106,5.7605,12.88,15.033,7.2607,-10.742,-13.397,-10.667,-10.306,-10.95,4.359,-8.8254,-2.6144,-10.385
3.0189,-1.7778,0.65041,13.528,9.1503,13.398,3.8647,13.462,-2.6537,13.528,9.1503,10.561,-4.4234,-10.222,0.12698,-4.5089,-1.2882,7.5641,-10.73,1.9608,-12.308
16.855,9.6508,14.309,15.469,9.1503,14.049,22.544001,12.818,-28.544001,15.469,9.1503,19.142,1.2638,-7.6825,10.286,0.64412,9.6618,7.5641,-12.635,5.2288,-8.4615
9.9371,16.0,19.511999,13.528,9.1503,16.0,12.882,14.75,-8.479,13.528,9.1503,19.142,3.7915,-7.0476,13.46,4.5089,14.171,5.641,-12.0,5.2288,-9.7436
11.195,0.7619,22.764,13.528,15.686,6.8943,10.306,10.886,10.291,13.528,15.686,21.782,6.3191,-3.2381,14.095,2.5765,16.103001,10.769,-1.8413,6.5359,-5.8974
16.855,9.0159,21.462999,14.175,11.111,1.6911,12.238,5.7327,2.5243,14.175,11.111,20.462,6.3191,-1.3333,14.095,6.4412,15.459,5.0,-1.2063,4.5752,-3.3333
14.34,15.365,18.862,15.469,20.915001,20.552999,19.323999,11.53,5.7605,15.469,20.915001,23.101999,6.3191,-0.69841,10.286,9.6618,14.815,1.7949,4.5079,2.6144,-0.12821
13.711,15.365,16.26,18.705999,15.686,13.398,15.459,5.7327,12.233,18.705999,15.686,16.502001,8.2148,1.8413,12.19,12.238,15.459,0.51282,7.0476,3.268,-1.4103
4.9057,14.095,11.707,10.939,13.725,6.2439,9.0177,1.2238,4.466,10.939,13.725,10.561,9.4787,5.0159,7.1111,12.882,12.882,3.7179,7.6825,6.5359,4.359
-7.673,9.0159,2.6016,1.2298,3.9216,-11.967,2.5765,1.868,8.3495,1.2298,3.9216,0.0,8.8468,5.0159,2.0317,10.306,7.0853,-0.12821,7.0476,3.9216,3.7179
-2.6415,10.921,-2.6016,7.055,3.9216,10.146,2.5765,1.2238,8.9968,7.055,3.9216,-3.3003,10.742,7.5556,3.3016,10.95,5.153,-0.12821,11.492,9.1503,7.5641
-13.333,-4.3175,-12.358,1.877,2.6144,-0.26016,-5.7971,1.868,10.291,1.877,2.6144,-7.2607,3.1596,2.4762,-7.4921,-1.2882,-6.4412,-0.76923,7.6825,0.65359,4.359
-15.22,-5.5873,-14.309,10.939,2.6144,-8.7154,-4.5089,2.5121,-7.1845,10.939,2.6144,-7.9208,-0.63191,-1.3333,-11.937,-5.7971,-11.594,-4.6154,3.873,-2.6144,1.7949
-13.333,-3.6825,-14.309,-0.06472,5.2288,-11.317,-3.8647,-3.285,1.2298,-0.06472,5.2288,-7.2607,-5.6872,-3.873,-13.841,-5.7971,-13.527,-2.6923,1.9683,-1.9608,0.51282
-17.107,-12.571,-20.163,1.2298,-1.3072,-2.2114,-5.7971,1.868,1.877,1.2298,-1.3072,-11.221,-10.111,-5.7778,-20.190001,-12.238,-18.68,-0.76923,0.06349,-4.5752,-0.76923
-18.993999,-19.556,-24.065001,-4.5955,-3.268,-5.4634,-19.323999,-1.3527,-3.301,-4.5955,-3.268,-15.182,-13.27,-12.762,-23.365,-21.9,-25.764999,2.4359,-8.1905,-3.9216,-9.1026
-14.591,-18.285999,-19.511999,3.8188,-4.5752,-4.813,-7.7295,2.5121,-16.246,3.8188,-4.5752,-7.9208,-12.638,-13.397,-18.921,-24.476999,-23.833,-2.0513,-12.635,-3.268,-9.7436
-8.3019,-26.540001,-16.910999,8.3495,0.0,-3.5122,-13.527,7.0209,0.58252,8.3495,0.0,-4.6205,-10.742,-14.032,-14.476,-26.409,-21.9,1.7949,-12.635,-1.3072,-12.949
-2.6415,-14.476,-10.407,-2.6537,-2.6144,-9.3659,-13.527,3.1562,-15.599,-2.6537,-2.6144,-3.3003,-8.2148,-12.127,-9.3968,-20.612,-16.103001,2.4359,-14.54,-1.3072,-12.949
-14.591,-15.746,-9.1057,-0.06472,2.6144,-2.8618,-1.2882,-8.438,6.4078,-0.06472,2.6144,-1.9802,-10.111,-12.127,-11.937,-18.68,-14.171,-0.76923,-10.095,-4.5752,-10.385
-18.993999,-18.285999,-13.659,-9.7735,-6.5359,-30.829,-12.238,-14.879,-9.7735,-9.7735,-6.5359,-11.881,-11.374,-15.937,-11.937,-19.968,-16.103001,-3.3333,-16.444,-4.5752,-18.077
-8.9308,-15.746,-10.407,-7.8317,-7.8431,-15.22,-16.747,-15.523,-20.777,-7.8317,-7.8431,-13.201,-12.006,-16.570999,-8.127,-17.391001,-12.882,-3.3333,-17.079,-5.2288,-16.795
-10.818,-20.825001,-16.26,-17.540001,-14.379,-3.5122,-18.035,-19.388,-15.599,-17.540001,-14.379,-16.502001,-17.694,-21.650999,-13.206,-19.968,-18.68,-8.4615,-18.349001,-10.458,-21.282
-8.3019,-3.6825,-13.659,-19.482,-5.2288,-15.22,8.3736,-17.455999,-33.074001,-19.482,-5.2288,-10.561,-13.902,-14.032,-10.667,-10.306,-14.171,-7.1795,-11.365,-8.4967,-11.667
-7.673,-4.9524,-9.1057,-8.479,-3.268,-6.7642,-14.171,-18.1,-11.068,-8.479,-3.268,-9.901,-0.63191,1.2063,-1.7778,1.2882,-3.8647,-3.9744,1.3333,1.3072,3.7179
2.3899,0.12698,-0.65041,-7.1845,-1.3072,-6.7642,-7.7295,-7.1498,13.528,-7.1845,-1.3072,-8.5809,6.951,12.0,7.746,12.238,7.7295,-0.76923,16.570999,5.2288,16.538
16.855,12.825,14.309,-2.0065,1.3072,-10.667,13.527,-3.285,8.9968,-2.0065,1.3072,1.3201,11.374,15.81,18.540001,17.391001,18.035,2.4359,17.841,7.8431,19.743999
18.113001,7.746,18.211,3.8188,3.9216,12.748,4.5089,-11.014,9.644,3.8188,3.9216,9.2409,8.8468,15.175,15.365,13.527,14.815,-0.12821,17.841,8.4967,21.667
9.3082,12.19,17.561001,7.7023,10.458,-4.1626,12.238,-5.2174,20.646999,7.7023,10.458,13.201,6.3191,13.27,8.381,12.238,10.95,-2.6923,16.570999,3.268,18.462
4.2767,5.2063,9.7561,2.5243,7.1895,-6.7642,7.7295,-1.3527,-2.6537,2.5243,7.1895,7.2607,5.0553,12.635,6.4762,9.6618,8.3736,0.51282,10.222,2.6144,14.615
6.7925,5.2063,9.7561,0.58252,7.1895,-4.813,-0.64412,-0.70853,12.233,0.58252,7.1895,7.9208,6.951,12.635,8.381,12.882,11.594,-2.6923,12.127,2.6144,18.462
6.7925,19.174999,20.163,3.1715,9.1503,10.797,9.0177,1.2238,10.291,3.1715,9.1503,16.502001,12.638,17.714001,12.19,19.323999,19.968,0.51282,10.857,3.9216,17.820999
7.4214,16.0,22.114,12.233,15.686,24.455,25.764999,5.7327,9.644,12.233,15.686,27.063,10.111,16.444,7.1111,16.747,17.391001,1.1538,14.667,1.3072,17.820999
13.082,14.73,22.764,12.88,16.993,30.959,27.697001,3.8003,23.882999,12.88,16.993,31.023001,9.4787,14.54,6.4762,14.171,15.459,3.7179,14.032,1.9608,16.538
9.3082,10.921,18.862,16.764,18.301001,19.902,27.052999,21.191999,10.291,16.764,18.301001,26.403,6.951,10.095,5.2063,9.0177,11.594,-0.12821,8.9524,2.6144,12.051
6.7925,7.1111,8.4553,16.764,7.8431,6.8943,17.391001,8.3092,6.4078,16.764,7.8431,13.861,5.6872,6.2857,2.6667,4.5089,5.7971,0.51282,1.9683,3.268,5.641
0.50314,4.5714,0.0,5.7605,3.9216,-0.91057,14.815,5.0886,-7.1845,5.7605,3.9216,5.2805,5.6872,4.381,0.12698,0.64412,1.2882,5.641,2.6032,5.2288,5.0
-3.2704,-4.9524,-11.057,-4.5955,-3.268,-1.561,2.5765,1.868,-6.5372,-4.5955,-3.268,-5.9406,4.4234,3.1111,-2.4127,-3.8647,-5.153,2.4359,0.06349,6.5359,0.51282
-7.044,-15.746,-19.511999,-3.9482,-1.3072,-3.5122,-9.0177,-3.9291,2.5243,-3.9482,-1.3072,-10.561,1.8957,-0.06349,-8.7619,-10.95,-12.882,5.641,-3.1111,2.6144,-2.0513
-13.333,-8.127,-20.163,-14.304,-7.8431,-27.577,-1.9324,-5.8615,-2.0065,-14.304,-7.8431,-15.842,-1.2638,-1.3333,-11.937,-9.0177,-13.527,0.51282,-4.381,-1.3072,-3.9744
-9.5597,-4.3175,-14.959,-13.01,-5.2288,-10.667,-7.0853,-9.0821,-1.3592,-13.01,-5.2288,-13.201,-2.5276,0.57143,-11.302,-1.9324,-7.7295,-0.76923,0.69841,-1.9608,0.51282
-12.075,6.4762,-7.1545,-3.9482,1.3072,-10.016,1.9324,-5.8615,8.3495,-3.9482,1.3072,-3.3003,-2.5276,3.1111,-11.937,3.8647,-3.2206,-0.12821,4.5079,-4.5752,-0.76923
-12.704,2.0317,-6.5041,4.466,6.5359,-2.2114,5.7971,-3.285,7.7023,4.466,6.5359,1.3201,-5.6872,3.1111,-15.111,3.8647,-4.5089,-5.8974,6.4127,-7.1895,-0.12821
-16.478001,-2.4127,-11.057,3.1715,7.1895,-9.3659,3.8647,-1.9968,4.466,3.1715,7.1895,-3.3003,-10.742,-1.3333,-17.650999,-1.9324,-9.0177,-3.3333,3.2381,-9.1503,-1.4103
-12.075,-10.032,-16.26,10.939,6.5359,-4.813,-3.8647,8.3092,6.4078,10.939,6.5359,-5.2805,-10.111,-3.873,-15.111,-9.0177,-10.95,-0.12821,-4.381,-9.8039,-7.8205
-0.12579,-18.921,-13.659,11.586,9.1503,15.35,1.9324,11.53,-3.301,11.586,9.1503,1.3201,-10.111,-7.0476,-10.667,-16.747,-11.594,2.4359,-6.2857,-7.8431,-9.1026
1.761,-18.285999,-7.1545,13.528,11.765,12.098,-1.9324,12.818,9.644,13.528,11.765,7.2607,-12.006,-9.5873,-11.302,-18.68,-12.238,3.7179,-6.9206,-7.1895,-12.949
-2.6415,-6.8571,-3.9024,8.3495,9.1503,14.699,5.153,10.886,8.3495,8.3495,9.1503,8.5809,-13.902,-8.9524,-15.746,-14.171,-11.594,3.7179,-1.2063,-11.111,-7.8205
1.1321,-1.7778,3.252,11.586,5.8824,24.455,3.2206,16.683001,9.644,11.586,5.8824,7.2607,-8.2148,-3.873,-6.2222,-7.0853,-4.5089,1.1538,1.9683,-7.8431,-2.6923
13.082,9.0159,12.358,14.175,7.8431,8.8455,10.306,16.683001,8.9968,14.175,7.8431,6.6007,-3.7915,-1.9683,3.3016,-0.64412,5.153,1.1538,0.69841,-4.5752,-0.76923
19.371,3.3016,13.659,15.469,8.4967,8.1951,-0.64412,13.462,2.5243,15.469,8.4967,8.5809,1.2638,-0.69841,11.556,1.9324,10.306,4.359,1.9683,3.268,-4.6154
13.082,-8.127,7.8049,14.822,10.458,-4.1626,-6.4412,7.6651,5.1133,14.822,10.458,7.2607,-2.5276,-3.2381,4.5714,-3.2206,3.2206,6.2821,1.3333,-1.9608,-3.3333
-7.044,-6.8571,-5.2033,2.5243,-0.65359,-12.618,-12.882,7.0209,5.1133,2.5243,-0.65359,-1.9802,-6.951,-3.2381,-7.4921,-5.153,-7.0853,-1.4103,-1.8413,-7.8431,-2.6923
-10.189,0.12698,-4.5528,1.2298,1.3072,4.2927,-1.2882,-3.285,-8.479,1.2298,1.3072,-0.66007,-0.63191,3.746,-6.2222,2.5765,-1.9324,-2.0513,-1.2063,-3.268,1.7949
-10.818,-3.6825,-6.5041,-14.304,-7.1895,-0.91057,-10.95,-8.438,-7.8317,-14.304,-7.1895,-6.6007,2.5276,3.746,-3.6825,2.5765,0.0,-3.9744,-0.57143,-3.268,1.1538
-12.075,-4.9524,-5.8537,-8.479,-4.5752,-11.317,-8.3736,-11.659,-4.5955,-8.479,-4.5752,-9.2409,4.4234,3.746,-2.4127,1.2882,1.9324,-0.76923,-4.381,0.0,-1.4103
-10.189,3.9365,-3.252,-2.6537,-5.8824,-10.016,-0.64412,-12.303,-25.306999,-2.6537,-5.8824,-7.9208,3.1596,1.8413,-1.7778,-0.64412,1.9324,-6.5385,-8.8254,0.65359,-3.9744
-7.673,-15.746,-10.407,-10.421,-6.5359,-10.667,-18.035,-5.8615,-0.06472,-10.421,-6.5359,-10.561,-1.8957,-2.6032,-6.2222,-9.6618,-5.153,-7.8205,-7.5556,-3.9216,-6.5385
-10.818,-20.825001,-12.358,-3.9482,-7.8431,-17.820999,-20.612,-5.2174,0.58252,-3.9482,-7.8431,-11.881,0.0,-3.2381,-6.8571,-12.238,-7.0853,-5.8974,-10.73,-2.6144,-7.1795
-7.044,-18.285999,-9.7561,-3.301,-9.1503,-10.667,-19.968,-7.1498,-27.249001,-3.301,-9.1503,-9.901,1.2638,-3.2381,-3.6825,-15.459,-5.7971,-3.9744,-18.983999,0.65359,-11.667
-2.0126,-22.73,-13.008,-6.5372,-8.4967,-8.065,-20.612,-6.5056,-10.421,-6.5372,-8.4967,-11.881,1.2638,-4.5079,-1.1429,-16.747,-6.4412,-0.76923,-22.159,2.6144,-12.949
-0.12579,-13.841,-9.7561,-5.89,-7.1895,3.6423,-10.95,-5.2174,-16.893,-5.89,-7.1895,-7.2607,1.8957,-3.2381,1.3968,-10.306,-2.5765,-1.4103,-17.714001,2.6144,-11.667
2.3899,-6.8571,-7.1545,-4.5955,-6.5359,-17.171,-12.238,-7.1498,-20.129,-4.5955,-6.5359,-6.6007,1.8957,-3.2381,1.3968,-8.3736,-1.9324,-4.6154,-18.983999,1.9608,-12.308
-2.6415,-1.7778,-7.8049,6.4078,-5.2288,2.3415,-0.64412,7.6651,-24.66,6.4078,-5.2288,-2.6403,1.2638,-2.6032,-0.50794,-5.7971,-2.5765,-5.8974,-13.905,-1.3072,-9.7436
-11.447,-13.841,-12.358,-3.301,-7.1895,-6.7642,-11.594,-4.5733,-5.89,-3.301,-7.1895,-10.561,-2.5276,-3.873,-6.8571,-10.306,-7.7295,-0.76923,-15.175,-4.5752,-9.1026
-17.736,-11.937,-13.008,-3.301,-7.1895,-25.625999,-9.0177,-6.5056,10.939,-3.301,-7.1895,-10.561,-0.63191,-0.06349,-8.127,-9.0177,-8.3736,-5.8974,-6.9206,-5.8824,-7.8205
-16.478001,-10.032,-16.26,-11.068,-5.2288,-3.5122,-6.4412,-5.8615,-8.479,-11.068,-5.2288,-9.901,0.63191,1.2063,-10.667,-9.0177,-10.306,-6.5385,-7.5556,-5.8824,-5.8974
-17.736,-15.746,-22.764,-11.068,-13.072,-21.073,-14.171,-5.8615,-10.421,-11.068,-13.072,-19.802,1.8957,1.8413,-11.937,-12.238,-14.171,-4.6154,-8.1905,-5.2288,-5.8974
-15.849,-12.571,-17.561001,-8.479,-6.5359,-10.667,-7.7295,-4.5733,0.58252,-8.479,-6.5359,-15.182,4.4234,5.0159,-14.476,-10.306,-11.594,-5.2564,-3.746,-5.2288,-2.6923
-17.736,-15.111,-15.61,-13.657,-13.725,-10.016,-13.527,-4.5733,3.1715,-13.657,-13.725,-16.502001,5.6872,6.2857,-13.206,-10.306,-9.6618,-7.8205,-1.8413,-4.5752,-1.4103
-6.4151,-6.2222,-4.5528,-13.657,-8.4967,-24.325001,3.2206,-13.591,-1.3592,-13.657,-8.4967,-9.2409,8.8468,7.5556,-5.5873,-7.7295,-4.5089,-5.2564,0.06349,-1.3072,2.4359
-0.75472,6.4762,3.252,-13.01,-11.111,-31.48,11.594,-7.1498,-16.246,-13.01,-11.111,-6.6007,10.742,10.73,3.3016,-1.9324,1.2882,-2.0513,1.9683,1.3072,6.2821
7.4214,6.4762,5.2033,-13.657,-7.8431,-8.7154,2.5765,-16.167,-1.3592,-13.657,-7.8431,-5.9406,11.374,13.27,10.286,4.5089,6.4412,-3.3333,7.0476,1.9608,12.051
-3.8994,-1.7778,-1.3008,-16.246,-5.2288,-2.2114,-6.4412,-14.235,16.764,-16.246,-5.2288,-7.9208,4.4234,9.4603,1.3968,-0.64412,-1.2882,-11.026,8.3175,-3.268,10.769
-5.1572,-1.7778,-1.9512,-13.01,-7.8431,0.39024,-1.9324,-13.591,-3.301,-13.01,-7.8431,-6.6007,1.8957,7.5556,-0.50794,0.0,-3.2206,-7.8205,4.5079,-2.6144,8.8462
-7.044,1.3968,-4.5528,-16.893,-7.1895,-13.919,-1.9324,-9.7262,4.466,-16.893,-7.1895,-9.901,3.1596,7.5556,1.3968,5.153,0.0,-3.9744,6.4127,-1.9608,9.4872
-2.0126,8.381,-3.252,-9.7735,-8.4967,-16.52,4.5089,-14.235,7.7023,-9.7735,-8.4967,-9.901,3.7915,8.1905,5.8413,9.6618,3.2206,-7.8205,3.873,2.6144,9.4872
1.761,3.3016,-1.9512,-9.1262,-9.1503,-4.813,-8.3736,-18.1,-1.3592,-9.1262,-9.1503,-8.5809,0.63191,4.381,6.4762,6.4412,1.9324,0.51282,3.2381,0.65359,6.2821
3.6478,7.1111,3.9024,-15.599,-12.418,-5.4634,-1.2882,-5.2174,-12.362,-15.599,-12.418,-6.6007,1.8957,6.2857,9.6508,9.0177,5.7971,5.0,4.5079,0.65359,10.128
12.453,17.905001,13.659,-7.8317,-11.765,-2.8618,18.68,1.2238,-22.718,-7.8317,-11.765,-0.66007,3.1596,7.5556,14.095,14.815,12.882,5.0,3.873,1.9608,7.5641
6.1635,4.5714,9.7561,-11.715,-13.725,4.9431,-14.171,5.0886,-5.2427,-11.715,-13.725,-6.6007,-0.63191,5.0159,9.6508,9.6618,10.306,7.5641,2.6032,-1.3072,5.0
-0.12579,3.3016,5.8537,-10.421,-13.725,8.1951,-16.747,2.5121,-0.06472,-10.421,-13.725,-7.2607,-4.4234,3.746,3.9365,9.0177,6.4412,4.359,4.5079,-5.2288,6.9231
1.1321,14.095,5.2033,-9.7735,-17.646999,-0.26016,-5.7971,-0.06441,-11.068,-9.7735,-17.646999,-9.2409,-3.7915,4.381,5.2063,10.95,5.7971,-1.4103,5.7778,-3.268,6.2821
4.2767,4.5714,7.8049,-2.0065,-9.1503,-4.813,-3.8647,4.4444,-3.301,-2.0065,-9.1503,-3.3003,-1.8957,3.1111,5.8413,5.7971,3.8647,4.359,8.9524,-1.9608,6.2821
4.2767,3.3016,9.1057,-5.89,-9.1503,4.2927,3.2206,3.1562,-1.3592,-5.89,-9.1503,1.9802,-2.5276,1.2063,6.4762,1.9324,1.9324,5.641,6.4127,-1.9608,0.51282
13.082,16.635,19.511999,7.055,3.268,10.146,9.6618,7.6651,-1.3592,7.055,3.268,15.182,4.4234,6.2857,12.19,10.306,11.594,6.9231,5.7778,3.268,5.0
6.1635,18.540001,15.61,1.877,3.9216,-18.472,12.882,4.4444,8.9968,1.877,3.9216,13.201,6.951,9.4603,9.0159,13.527,10.306,5.641,6.4127,3.268,6.9231
2.3899,14.73,8.4553,-5.2427,2.6144,-0.26016,10.306,-1.3527,12.88,-5.2427,2.6144,7.2607,8.8468,9.4603,6.4762,12.238,7.7295,3.0769,7.6825,4.5752,7.5641
7.4214,16.635,7.8049,-7.8317,-3.9216,14.699,1.2882,-3.285,1.877,-7.8317,-3.9216,2.6403,13.27,12.0,13.46,15.459,10.306,2.4359,4.5079,9.8039,8.2051
8.0503,6.4762,3.252,-9.7735,-7.8431,-4.813,-3.2206,-10.37,-2.0065,-9.7735,-7.8431,-5.9406,10.111,8.1905,12.825,9.6618,7.0853,6.9231,3.2381,7.1895,1.7949
9.9371,5.2063,6.5041,-18.188,-10.458,-6.7642,-2.5765,-11.014,-1.3592,-18.188,-10.458,-5.9406,10.111,8.8254,12.19,9.6618,8.3736,4.359,3.873,8.4967,4.359
4.9057,2.0317,5.2033,-13.01,-13.725,-4.1626,-12.882,-17.455999,-3.9482,-13.01,-13.725,-7.9208,6.3191,6.2857,5.8413,6.4412,5.7971,-2.0513,-0.57143,4.5752,1.7949
-3.2704,3.3016,0.65041,-18.834999,-16.34,-16.52,-12.238,-14.235,-6.5372,-18.834999,-16.34,-9.901,3.1596,5.6508,0.12698,6.4412,2.5765,-1.4103,3.2381,1.3072,5.0
-8.9308,-1.1429,-3.9024,-18.188,-13.725,-11.317,-9.6618,-19.388,-1.3592,-18.188,-13.725,-9.901,2.5276,6.2857,-3.0476,3.8647,0.0,-7.1795,8.3175,-1.9608,6.2821
-10.189,5.2063,-4.5528,-16.246,-7.8431,-17.171,4.5089,-12.303,4.466,-16.246,-7.8431,-7.2607,2.5276,6.2857,-6.2222,3.2206,-2.5765,-11.026,9.5873,-1.3072,6.9231
-14.591,2.6667,-5.2033,-11.068,-1.3072,-11.967,2.5765,-12.303,12.233,-11.068,-1.3072,-3.3003,1.2638,7.5556,-10.667,1.2882,-5.7971,-6.5385,13.397,-3.9216,8.8462
-8.3019,3.3016,-1.9512,-2.6537,3.9216,1.6911,5.7971,-4.5733,8.9968,-2.6537,3.9216,3.3003,-0.63191,1.8413,-11.302,-3.8647,-9.0177,-3.9744,7.0476,-1.9608,3.7179
-7.673,-4.9524,-3.252,-2.6537,-1.9608,2.3415,1.2882,-6.5056,15.469,-2.6537,-1.9608,1.3201,-1.8957,-3.2381,-9.3968,-9.6618,-10.95,-0.76923,4.5079,-2.6144,-1.4103
0.50314,-3.0476,4.5528,0.58252,2.6144,10.146,7.0853,-3.9291,7.055,0.58252,2.6144,7.9208,3.7915,-1.3333,3.3016,-7.0853,-2.5765,3.0769,7.6825,5.8824,1.7949
16.855,-7.4921,8.4553,-6.5372,-9.1503,17.301001,-9.0177,-3.9291,-3.9482,-6.5372,-9.1503,1.3201,8.2148,-1.9683,21.079,-5.7971,5.153,5.0,-3.1111,13.725,-2.6923
26.289,-0.50794,16.910999,-1.3592,-3.268,4.2927,2.5765,-6.5056,-4.5955,-1.3592,-3.268,3.3003,11.374,-0.69841,32.507999,0.64412,16.103001,5.641,-2.4762,13.725,-0.76923
26.289,10.286,23.415001,-8.479,0.65359,12.748,3.8647,-1.3527,6.4078,-8.479,0.65359,8.5809,12.006,1.2063,32.507999,10.306,19.968,7.5641,1.9683,15.033,1.7949
26.289,24.254,29.919001,5.1133,3.9216,2.3415,18.68,-0.06441,14.822,5.1133,3.9216,13.201,12.006,7.5556,29.968,21.9,25.121,9.4872,11.492,11.765,10.769
25.031,26.159,26.016001,-9.7735,-2.6144,4.9431,6.4412,-1.3527,15.469,-9.7735,-2.6144,5.9406,12.638,10.73,28.698,27.052999,26.409,7.5641,14.667,11.765,13.333
14.969,20.444,18.211,1.2298,2.6144,2.3415,7.0853,4.4444,10.291,1.2298,2.6144,5.9406,9.4787,8.8254,22.349001,23.833,21.9,3.0769,7.6825,7.8431,10.769
13.082,16.635,17.561001,4.466,9.1503,4.2927,16.103001,8.3092,16.117001,4.466,9.1503,11.221,6.951,7.5556,17.905001,18.68,18.68,1.7949,7.0476,3.268,9.4872
13.711,16.0,16.26,3.1715,11.111,5.5935,16.747,8.9533,13.528,3.1715,11.111,13.201,4.4234,5.0159,13.46,14.815,14.815,1.1538,6.4127,2.6144,3.0769
3.0189,10.286,8.4553,10.291,9.1503,15.35,10.95,8.9533,5.1133,10.291,9.1503,10.561,-2.5276,-1.9683,0.7619,3.2206,3.8647,-1.4103,-2.4762,-3.268,-3.3333
-2.0126,-4.9524,1.9512,6.4078,1.9608,17.301001,-5.7971,9.5974,3.8188,6.4078,1.9608,7.2607,-9.4787,-10.857,-11.302,-10.306,-7.0853,-3.9744,-6.2857,-8.4967,-11.026
-7.673,-11.302,-2.6016,6.4078,4.5752,10.146,-0.64412,8.9533,5.1133,6.4078,4.5752,8.5809,-12.638,-13.397,-21.459999,-16.747,-14.815,-4.6154,-3.746,-11.765,-12.308
-22.767,-11.302,-7.8049,6.4078,5.2288,7.5447,-6.4412,7.0209,5.7605,6.4078,5.2288,7.9208,-12.638,-13.397,-28.444,-17.391001,-18.035,-7.1795,-6.2857,-13.072,-14.872
-15.849,-6.8571,-6.5041,-0.06472,3.9216,2.3415,3.8647,1.868,-1.3592,-0.06472,3.9216,4.6205,-6.951,-10.222,-20.825001,-13.527,-13.527,-2.0513,-3.1111,-6.5359,-11.026
-5.7862,-8.127,-2.6016,1.2298,1.9608,7.5447,1.9324,0.57971,8.3495,1.2298,1.9608,5.2805,0.63191,-5.7778,-4.9524,-7.7295,-5.153,4.359,-1.8413,3.9216,-7.1795
2.3899,1.3968,0.65041,-4.5955,-1.3072,-5.4634,9.6618,3.8003,-16.246,-4.5955,-1.3072,1.3201,6.951,-5.1429,8.381,-1.9324,2.5765,8.8462,-5.6508,13.725,-5.2564
12.453,-7.4921,-1.3008,-11.715,-9.8039,-4.813,-10.95,-2.6409,1.877,-11.715,-9.8039,-7.9208,11.374,-1.3333,17.905001,2.5765,7.7295,13.333,-1.8413,20.261,-2.6923
6.1635,1.3968,-7.8049,-9.7735,-11.111,-6.1138,-3.8647,-1.3527,-18.188,-9.7735,-11.111,-11.221,8.8468,-1.3333,16.0,5.7971,7.0853,19.103001,-5.0159,15.033,-2.6923
18.113001,-4.3175,-11.057,-6.5372,-16.993,-10.016,-20.612,-1.9968,-19.482,-6.5372,-16.993,-19.142,10.742,-0.69841,23.618999,7.7295,8.3736,13.333,-5.0159,19.608,-3.3333
16.855,-3.0476,-5.8537,-5.89,-8.4967,-12.618,-21.256001,-0.06441,-2.6537,-5.89,-8.4967,-15.842,12.006,3.746,24.889,10.95,12.238,12.051,-2.4762,22.222,2.4359
12.453,2.6667,-0.65041,-7.8317,-9.8039,-8.7154,-12.882,-5.8615,-20.129,-7.8317,-9.8039,-10.561,12.638,4.381,22.983999,13.527,13.527,9.4872,-1.8413,16.993,2.4359
15.597,1.3968,3.9024,-8.479,-8.4967,-11.317,-10.306,-3.285,-5.2427,-8.479,-8.4967,-10.561,15.166,9.4603,23.618999,15.459,15.459,4.359,3.873,16.993,8.2051
9.3082,5.8413,0.65041,-9.1262,-11.111,3.6423,-11.594,-7.7939,-11.068,-9.1262,-11.111,-12.541,8.8468,7.5556,14.73,11.594,9.6618,3.7179,0.69841,9.1503,7.5641
5.5346,-1.7778,-4.5528,-5.89,-9.8039,-13.919,-14.171,-5.2174,-3.9482,-5.89,-9.8039,-14.521,3.1596,3.746,9.6508,3.8647,3.2206,-0.12821,1.3333,5.2288,4.359
-2.0126,-11.302,-9.7561,-5.2427,-5.2288,-8.065,-13.527,-0.06441,5.7605,-5.2427,-5.2288,-17.162001,-0.63191,-0.06349,3.3016,-5.7971,-3.2206,-1.4103,-0.57143,1.9608,2.4359
-13.962,-18.921,-19.511999,-6.5372,-5.8824,-19.771999,-19.323999,-10.37,-5.89,-6.5372,-5.8824,-21.782,-5.0553,-6.4127,-8.7619,-17.391001,-15.459,-6.5385,-4.381,-2.6144,-3.9744
-28.427999,-24.0,-28.618,-5.2427,-5.8824,-23.674999,-16.103001,-8.438,-4.5955,-5.2427,-5.8824,-23.101999,-15.166,-15.302,-25.27,-27.052999,-29.629999,-10.385,-10.73,-9.8039,-12.949
-36.604,-27.174999,-29.919001,-17.540001,-13.725,-15.22,-26.409,-21.965,-14.951,-17.540001,-13.725,-25.083,-24.013,-23.556,-37.333,-32.849998,-36.070999,-15.513,-18.349001,-15.686,-22.563999
-23.396,-23.365,-20.163,-13.01,-13.072,-33.431,-21.9,-19.388,-17.540001,-13.01,-13.072,-19.802,-22.749001,-24.190001,-31.618999,-27.697001,-29.629999,-16.795,-22.159,-12.418,-23.205
-23.396,-22.094999,-16.910999,-18.188,-16.34,-24.976,-18.035,-9.7262,-17.540001,-18.188,-16.34,-18.482,-21.485001,-21.650999,-28.444,-22.544001,-24.476999,-12.308,-18.349001,-14.379,-20.0
-7.673,-4.3175,-4.5528,-5.2427,-5.2288,-1.561,-1.9324,-9.7262,-7.8317,-5.2427,-5.2288,-5.9406,-10.111,-8.3175,-18.921,-7.7295,-12.238,-6.5385,-6.2857,-7.1895,-5.8974
-9.5597,-0.50794,-5.2033,5.1133,1.3072,-4.813,5.153,0.57971,-5.2427,5.1133,1.3072,0.0,-6.951,-1.9683,-19.556,-3.8647,-12.882,-7.8205,-1.2063,-7.1895,1.1538
-15.849,-6.8571,-14.959,-5.2427,3.9216,-0.91057,-7.7295,-7.1498,15.469,-5.2427,3.9216,-0.66007,-13.27,-3.873,-29.714001,-6.4412,-21.9,-3.3333,5.7778,-11.111,6.2821
-15.849,-1.1429,-14.309,-6.5372,-3.268,-28.228001,-10.306,1.2238,-0.06472,-6.5372,-3.268,-3.9604,-16.43,-5.1429,-29.714001,-1.9324,-20.612,-7.8205,0.69841,-13.725,1.7949
-10.189,-0.50794,-3.9024,-0.71197,0.65359,7.5447,-5.153,-2.6409,-4.5955,-0.71197,0.65359,-1.9802,-13.902,-1.3333,-20.825001,2.5765,-8.3736,-5.2564,4.5079,-12.418,5.0
-7.044,-2.4127,-5.2033,-1.3592,-9.8039,-10.667,-12.882,-1.3527,-5.2427,-1.3592,-9.8039,-13.861,-10.742,0.57143,-11.937,3.8647,-3.2206,-3.3333,2.6032,-8.4967,6.2821
2.3899,-9.3968,-3.252,5.1133,-5.2288,1.6911,-11.594,3.8003,-12.362,5.1133,-5.2288,-7.9208,-10.111,-0.69841,-6.2222,-0.64412,-2.5765,7.5641,5.1429,-5.8824,6.9231
13.082,5.2063,0.65041,7.7023,-1.3072,23.805,16.747,8.9533,-14.304,7.7023,-1.3072,1.9802,-10.111,-2.6032,-1.7778,-0.64412,-4.5089,8.2051,3.873,-3.268,3.0769
9.9371,-3.0476,-1.3008,6.4078,4.5752,5.5935,-3.8647,17.971001,12.88,6.4078,4.5752,1.9802,-8.2148,-3.2381,-1.1429,-1.9324,-4.5089,3.7179,3.873,-0.65359,1.7949
12.453,8.381,10.407,16.117001,18.301001,21.854,13.527,18.615,18.058001,16.117001,18.301001,17.162001,-2.5276,1.8413,4.5714,5.7971,3.2206,6.2821,10.857,2.6144,6.9231
10.566,15.365,13.659,14.175,17.646999,17.951,19.968,14.106,18.058001,14.175,17.646999,19.142,0.0,5.6508,5.2063,10.306,6.4412,5.0,8.9524,3.268,8.2051
-0.12579,14.095,8.4553,7.7023,13.725,18.601999,11.594,2.5121,6.4078,7.7023,13.725,12.541,0.0,6.2857,-1.1429,10.95,5.153,-1.4103,8.3175,-0.65359,9.4872
-4.5283,11.556,3.9024,8.9968,11.111,13.398,16.747,5.0886,7.7023,8.9968,11.111,9.901,1.8957,6.9206,-4.3175,8.3736,3.8647,0.51282,3.873,-3.268,7.5641
-4.5283,-2.4127,0.0,8.9968,7.8431,-6.1138,0.0,3.8003,10.291,8.9968,7.8431,5.2805,2.5276,4.381,-6.2222,0.64412,-1.2882,0.51282,4.5079,-4.5752,5.0
-1.3836,0.12698,-1.9512,-2.0065,4.5752,-18.472,5.153,0.57971,8.9968,-2.0065,4.5752,3.3003,2.5276,3.746,-5.5873,0.64412,-1.9324,-1.4103,5.7778,-3.9216,4.359
-0.75472,3.9365,0.65041,11.586,14.379,11.447,10.306,3.8003,8.3495,11.586,14.379,7.9208,0.63191,1.8413,-5.5873,1.9324,-1.9324,-5.8974,3.2381,-7.1895,1.1538
-0.75472,8.381,5.8537,14.822,21.569,20.552999,18.035,11.53,23.882999,14.822,21.569,13.861,1.2638,2.4762,-3.6825,3.8647,0.64412,-5.8974,9.5873,-5.8824,1.7949
6.7925,11.556,13.659,21.294001,22.875999,20.552999,20.612,20.548,23.882999,21.294001,22.875999,24.422001,1.2638,0.57143,0.7619,3.8647,4.5089,-1.4103,5.1429,-2.6144,-0.12821
3.6478,16.0,14.309,14.822,18.301001,2.3415,23.833,8.3092,25.177999,14.822,18.301001,19.802,-0.63191,-1.9683,-0.50794,3.2206,3.2206,-1.4103,3.2381,-3.268,-3.3333
8.6792,19.809999,17.561001,14.822,20.261,18.601999,19.323999,1.868,11.586,14.822,20.261,21.122,3.1596,1.8413,3.3016,7.7295,7.7295,2.4359,4.5079,1.9608,3.0769
-7.673,7.746,8.4553,3.8188,5.8824,17.301001,12.238,7.6651,9.644,3.8188,5.8824,11.881,0.0,-1.3333,-3.6825,0.0,1.2882,-2.0513,-1.2063,-1.3072,-4.6154
-2.0126,16.0,17.561001,15.469,15.686,6.8943,38.646999,0.57971,-9.7735,15.469,15.686,21.782,3.7915,4.381,0.12698,5.153,7.0853,-1.4103,3.873,1.9608,3.7179
-3.2704,3.9365,13.008,7.7023,11.111,-6.1138,13.527,1.868,6.4078,7.7023,11.111,13.861,3.1596,1.8413,2.0317,0.0,4.5089,1.7949,-2.4762,1.9608,-2.0513
3.0189,-6.8571,9.1057,7.7023,9.8039,-15.22,3.8647,-0.06441,12.233,7.7023,9.8039,10.561,1.2638,-2.6032,4.5714,-5.7971,1.9324,1.1538,-6.9206,2.6144,-5.2564
6.7925,3.3016,11.057,12.88,7.8431,19.252001,9.6618,12.818,-3.301,12.88,7.8431,11.881,0.0,-1.9683,3.3016,-3.8647,1.9324,-0.76923,-9.4603,0.0,-5.8974
1.761,-9.3968,1.9512,10.291,2.6144,-3.5122,-3.8647,4.4444,3.1715,10.291,2.6144,4.6205,-3.7915,-3.873,-4.9524,-12.238,-7.7295,2.4359,-10.73,-1.3072,-6.5385
6.1635,-11.937,-3.252,6.4078,4.5752,12.748,2.5765,3.1562,-0.71197,6.4078,4.5752,5.9406,-5.6872,-8.9524,-4.3175,-17.391001,-14.171,4.359,-10.095,0.65359,-9.7436
6.7925,-15.111,-3.9024,3.8188,6.5359,19.252001,3.2206,7.0209,2.5243,3.8188,6.5359,8.5809,-6.951,-12.127,-1.7778,-19.968,-14.815,4.359,-12.0,1.3072,-13.59
6.1635,-4.3175,4.5528,-2.0065,2.6144,8.8455,9.6618,3.8003,3.1715,-2.0065,2.6144,14.521,-5.6872,-9.5873,1.3968,-12.238,-8.3736,8.2051,-8.8254,2.6144,-11.667
13.082,17.905001,15.61,3.1715,3.268,5.5935,25.764999,1.868,-14.951,3.1715,3.268,19.142,-2.5276,-4.5079,6.4762,1.2882,3.2206,6.9231,-3.1111,1.9608,-3.9744
9.9371,5.8413,10.407,10.291,7.8431,17.951,16.747,1.2238,5.1133,10.291,7.8431,18.482,-1.8957,-4.5079,2.6667,-2.5765,-0.64412,3.0769,0.06349,1.3072,-3.9744
2.3899,3.3016,3.9024,3.8188,6.5359,6.8943,11.594,10.242,8.3495,3.8188,6.5359,15.842,-4.4234,-6.4127,-1.1429,-7.0853,-5.7971,-2.0513,-3.1111,0.0,-7.1795
-0.12579,2.0317,3.252,3.1715,13.072,10.797,24.476999,-0.06441,-0.06472,3.1715,13.072,17.822001,-5.6872,-7.0476,-3.0476,-7.0853,-5.7971,2.4359,-1.8413,-3.268,-5.8974
5.5346,1.3968,-1.3008,-0.71197,8.4967,-10.016,6.4412,-1.3527,13.528,-0.71197,8.4967,8.5809,-4.4234,-3.873,-1.1429,-4.5089,-5.7971,-0.76923,-2.4762,-2.6144,-4.6154
-2.6415,-8.7619,-7.8049,-1.3592,1.9608,8.1951,-1.9324,-0.70853,-2.6537,-1.3592,1.9608,0.66007,-6.3191,-6.4127,-4.3175,-8.3736,-9.0177,0.51282,-1.2063,-3.9216,-3.9744
-0.12579,-8.127,-8.4553,-8.479,-6.5359,-19.122,-12.882,-1.3527,-4.5955,-8.479,-6.5359,-8.5809,-5.6872,-6.4127,-1.7778,-5.153,-7.0853,8.2051,-6.2857,-1.9608,-5.8974
-0.75472,1.3968,-5.8537,-0.06472,-1.9608,-0.26016,-0.64412,-3.285,-21.424,-0.06472,-1.9608,-5.9406,-5.6872,-6.4127,-3.6825,-5.153,-7.0853,-4.6154,-10.73,-3.268,-5.8974
-5.1572,-19.556,-14.959,-3.301,-12.418,-9.3659,-22.544001,0.57971,-13.657,-3.301,-12.418,-17.162001,-6.3191,-10.222,-5.5873,-12.238,-12.238,-3.9744,-10.73,-3.9216,-8.4615
4.2767,-10.032,-5.8537,1.2298,-3.9216,-1.561,-9.6618,4.4444,-2.6537,1.2298,-3.9216,-8.5809,1.2638,-5.1429,4.5714,-4.5089,-3.2206,5.641,-6.9206,4.5752,-5.8974
8.0503,-4.9524,-0.65041,-2.0065,-5.8824,6.8943,-6.4412,-0.06441,-5.89,-2.0065,-5.8824,-8.5809,3.7915,-3.2381,7.746,-1.2882,0.64412,3.7179,-4.381,5.2288,-3.9744
9.9371,-4.3175,0.65041,1.2298,-3.9216,-4.1626,-11.594,3.8003,-5.89,1.2298,-3.9216,-6.6007,5.0553,-1.9683,9.6508,0.64412,2.5765,5.641,-2.4762,6.5359,-2.6923
17.483999,4.5714,8.4553,4.466,1.3072,8.1951,0.0,-1.9968,-2.0065,4.466,1.3072,-1.3201,8.8468,1.2063,16.635,6.4412,9.6618,3.7179,4.5079,10.458,-0.12821
11.824,6.4762,8.4553,1.2298,7.1895,11.447,3.2206,-2.6409,13.528,1.2298,7.1895,1.9802,10.742,5.6508,16.635,10.95,12.238,6.9231,12.762,11.111,6.2821
1.1321,21.714001,3.9024,5.7605,11.111,-23.674999,31.562,-3.285,-4.5955,5.7605,11.111,1.3201,6.951,5.6508,9.6508,11.594,8.3736,-2.6923,9.5873,6.5359,6.9231
-7.673,-2.4127,-7.8049,5.1133,11.111,-2.8618,-5.7971,-16.812,17.410999,5.1133,11.111,-8.5809,1.2638,2.4762,0.7619,1.9324,-1.2882,-7.8205,14.032,1.9608,5.0
-6.4151,-1.1429,-9.1057,-10.421,2.6144,-8.065,-7.0853,-14.235,9.644,-10.421,2.6144,-13.201,-0.63191,-0.06349,-1.7778,0.0,-3.2206,-0.12821,9.5873,-1.3072,3.0769
-4.5283,-4.9524,-11.707,-3.9482,-3.9216,-17.820999,-7.0853,-2.6409,-2.6537,-3.9482,-3.9216,-18.482,-2.5276,-2.6032,-3.6825,-3.2206,-6.4412,0.51282,3.873,-2.6144,-5.2564
-7.673,-13.841,-19.511999,-7.1845,-9.8039,-21.073,-22.544001,-3.285,-3.9482,-7.1845,-9.8039,-23.101999,-8.8468,-10.857,-9.3968,-12.238,-15.459,2.4359,-4.381,-5.2288,-11.026
-3.2704,-14.476,-16.910999,-3.301,-15.033,10.797,-17.391001,3.8003,-15.599,-3.301,-15.033,-17.162001,-9.4787,-13.397,-4.9524,-17.391001,-16.747,4.359,-9.4603,-2.6144,-13.59
3.6478,-13.841,-13.659,4.466,-8.4967,-0.91057,-17.391001,5.7327,-13.01,4.466,-8.4967,-11.881,-10.111,-12.127,-3.6825,-16.103001,-15.459,4.359,-9.4603,-1.9608,-10.385
-2.0126,-8.127,-16.910999,5.1133,-8.4967,-8.7154,1.2882,9.5974,-26.601999,5.1133,-8.4967,-9.2409,-12.638,-13.397,-8.127,-17.391001,-18.68,1.7949,-4.381,-5.2288,-11.026
-12.075,-20.190001,-17.561001,4.466,-1.9608,4.2927,-15.459,8.9533,3.1715,4.466,-1.9608,-5.9406,-15.166,-14.667,-11.937,-21.9,-20.612,6.2821,-2.4762,-9.8039,-10.385
-5.7862,-12.571,-6.5041,-0.06472,-2.6144,16.65,-24.476999,7.6651,-6.5372,-0.06472,-2.6144,-1.9802,-14.534,-13.397,-6.2222,-14.815,-11.594,-3.9744,-8.8254,-10.458,-12.308
1.761,4.5714,9.1057,1.2298,9.8039,4.2927,5.7971,4.4444,-5.89,1.2298,9.8039,12.541,-8.2148,-5.7778,0.12698,-3.2206,-0.64412,2.4359,0.06349,-6.5359,-2.0513
-5.1572,-8.7619,-0.65041,14.175,5.8824,2.3415,-0.64412,3.1562,-2.0065,14.175,5.8824,6.6007,-10.111,-8.3175,-8.7619,-9.6618,-9.6618,-5.8974,-3.1111,-11.111,-8.4615
-8.9308,-7.4921,-10.407,14.822,5.2288,12.748,-0.64412,6.3768,-0.71197,14.822,5.2288,2.6403,-11.374,-8.3175,-13.206,-10.95,-14.815,-8.4615,0.06349,-9.1503,-4.6154
-13.962,-3.6825,-13.008,0.58252,1.3072,-26.927,-7.7295,-3.9291,7.7023,0.58252,1.3072,-4.6205,-8.2148,-3.2381,-14.476,-5.7971,-12.882,-8.4615,1.9683,-9.8039,-0.76923
-7.044,5.8413,-5.2033,1.877,3.9216,7.5447,0.64412,4.4444,2.5243,1.877,3.9216,-0.66007,-1.8957,3.746,-6.2222,6.4412,-3.2206,-12.308,10.222,-5.8824,5.641
-10.818,19.174999,0.0,-7.1845,1.3072,1.6911,12.882,-9.7262,-18.188,-7.1845,1.3072,0.0,1.8957,8.8254,-6.8571,11.594,0.0,-7.8205,9.5873,-5.8824,12.051
-12.075,0.12698,-9.1057,-2.6537,2.6144,-19.771999,-3.8647,-7.1498,8.3495,-2.6537,2.6144,-1.3201,0.0,8.1905,-12.571,3.8647,-7.7295,-9.7436,8.9524,-8.4967,8.8462
-14.591,-0.50794,-8.4553,2.5243,3.268,2.9919,0.64412,-7.7939,20.0,2.5243,3.268,1.3201,0.0,10.73,-11.937,4.5089,-8.3736,-10.385,14.032,-5.8824,13.974
-17.736,3.9365,-5.2033,-9.1262,-4.5752,-19.122,1.2882,-17.455999,-10.421,-9.1262,-4.5752,-2.6403,1.2638,12.635,-13.841,6.4412,-5.7971,-9.7436,7.6825,-7.1895,13.974
-10.818,5.8413,-0.65041,-10.421,-3.9216,-24.325001,1.9324,-18.1,-8.479,-10.421,-3.9216,-2.6403,2.5276,11.365,-10.032,7.0853,-1.9324,-10.385,8.3175,-5.8824,14.615
-6.4151,5.8413,7.1545,-12.362,-9.1503,-7.4146,4.5089,-12.947,4.466,-12.362,-9.1503,-1.9802,5.6872,12.0,-3.0476,9.6618,3.8647,-3.9744,6.4127,0.0,13.333
-0.75472,3.9365,8.4553,-17.540001,-8.4967,-2.2114,4.5089,-14.879,-12.362,-17.540001,-8.4967,1.3201,3.7915,9.4603,-1.7778,3.8647,1.9324,-1.4103,-0.57143,1.3072,10.128
7.4214,10.921,6.5041,-20.129,-7.8431,-2.2114,10.306,-11.659,-12.362,-20.129,-7.8431,7.2607,4.4234,8.8254,0.7619,4.5089,0.0,-0.76923,-1.2063,3.9216,9.4872
-10.818,2.6667,-6.5041,-11.068,-7.8431,-2.8618,-5.7971,-16.812,-2.6537,-11.068,-7.8431,-3.9604,1.2638,6.9206,-9.3968,1.9324,-5.7971,-7.1795,3.873,-0.65359,11.41
-15.849,-10.032,-14.959,-25.306999,-22.222,-22.374001,-17.391001,-16.167,-11.068,-25.306999,-22.222,-16.502001,0.0,3.1111,-10.032,-3.2206,-9.0177,-5.2564,-5.0159,-1.3072,1.7949
-10.818,-11.302,-14.959,-30.485001,-19.608,-20.423,-12.238,-20.676001,-16.246,-30.485001,-19.608,-17.162001,1.2638,2.4762,-10.032,-5.7971,-10.306,-0.12821,-4.381,0.65359,4.359
-20.881001,-13.206,-22.764,-18.188,-24.837,-21.724001,-14.171,-21.32,-16.246,-18.188,-24.837,-23.761999,-4.4234,-2.6032,-17.016001,-10.95,-18.035,-5.8974,-6.9206,-5.2288,1.1538
-12.704,-11.937,-20.163,-28.544001,-23.528999,-24.976,-18.68,-15.523,-16.246,-28.544001,-23.528999,-23.761999,-0.63191,1.2063,-11.937,-5.7971,-11.594,-4.6154,-3.1111,-3.268,4.359
-12.704,-4.3175,-20.163,-27.249001,-27.451,-33.431,-22.544001,-15.523,-22.070999,-27.249001,-27.451,-30.363001,1.8957,4.381,-8.7619,0.64412,-5.7971,-6.5385,-1.8413,-5.2288,6.9231
-17.736,-1.7778,-15.61,-18.834999,-21.569,-10.667,-18.68,-12.303,-12.362,-18.834999,-21.569,-25.083,0.63191,5.0159,-12.571,3.8647,-3.2206,-9.1026,0.06349,-6.5359,6.9231
-19.622999,16.635,1.9512,-20.129,-13.725,-29.528,-12.882,-12.303,-0.71197,-20.129,-13.725,-15.842,5.0553,9.4603,-9.3968,16.747,6.4412,-8.4615,4.5079,-3.268,10.769
-14.591,20.444,9.7561,-15.599,-18.954,-19.771999,-15.459,-17.455999,-13.01,-15.599,-18.954,-13.861,8.2148,13.27,-4.9524,23.188,12.882,-7.1795,5.7778,-1.3072,12.051
-12.704,18.540001,10.407,-13.01,-18.301001,-23.024,-4.5089,-10.37,-6.5372,-13.01,-18.301001,-13.861,7.5829,11.365,-1.7778,22.544001,13.527,-3.9744,4.5079,0.65359,9.4872
-7.044,12.19,4.5528,-14.951,-19.608,-3.5122,-12.882,-4.5733,-3.9482,-14.951,-19.608,-17.162001,2.5276,5.6508,0.12698,16.747,7.7295,-2.0513,2.6032,0.0,5.641
6.7925,7.746,1.9512,-22.070999,-23.528999,-8.7154,-18.035,-1.9968,-24.66,-22.070999,-23.528999,-22.441999,3.1596,3.746,9.0159,12.882,9.0177,-0.12821,0.69841,4.5752,3.0769
13.082,-7.4921,-2.6016,-12.362,-23.528999,-5.4634,-27.052999,-12.303,-13.01,-12.362,-23.528999,-24.422001,4.4234,2.4762,14.73,3.8647,7.7295,0.51282,-1.8413,9.1503,1.1538
13.082,-11.302,-3.9024,-7.1845,-20.261,-4.813,-21.256001,-7.1498,-20.777,-7.1845,-20.261,-21.782,1.2638,-2.6032,11.556,-4.5089,3.2206,5.0,-6.2857,3.268,-5.8974
9.9371,-14.476,0.0,-9.7735,-14.379,-6.7642,-25.121,1.2238,-16.246,-9.7735,-14.379,-11.881,1.2638,-1.9683,9.0159,-6.4412,2.5765,-0.76923,-7.5556,1.9608,-7.1795
6.1635,-6.8571,3.9024,10.291,-0.65359,-4.813,-5.7971,8.3092,-3.9482,10.291,-0.65359,3.3003,-3.1596,-6.4127,2.6667,-9.0177,-0.64412,-4.6154,-7.5556,0.0,-6.5385
11.824,2.6667,9.7561,20.0,7.8431,22.504,6.4412,14.75,1.877,20.0,7.8431,15.182,-3.1596,-5.7778,3.9365,-3.2206,1.2882,-2.6923,-0.57143,-1.3072,-7.8205
8.0503,9.6508,14.959,18.705999,15.033,33.561001,15.459,13.462,8.9968,18.705999,15.033,21.122,-3.7915,-3.2381,0.7619,1.9324,3.8647,-0.76923,8.3175,-3.268,-0.76923
4.9057,0.7619,11.057,20.0,9.1503,19.252001,1.9324,13.462,17.410999,20.0,9.1503,15.182,-5.0553,-5.1429,-2.4127,0.0,1.9324,-3.9744,3.2381,-5.8824,-6.5385
8.0503,10.921,16.910999,25.825001,19.608,7.5447,14.815,15.395,10.291,25.825001,19.608,24.422001,-0.63191,1.2063,-0.50794,6.4412,7.7295,-0.12821,8.9524,-5.8824,1.1538
1.761,9.6508,13.659,19.353001,13.725,17.951,11.594,7.6651,12.233,19.353001,13.725,21.782,0.63191,1.2063,0.12698,5.7971,6.4412,-14.231,9.5873,-5.2288,2.4359
-2.6415,0.12698,6.5041,16.117001,9.1503,17.951,2.5765,7.6651,8.9968,16.117001,9.1503,16.502001,-1.2638,1.8413,-4.3175,0.64412,1.9324,-11.026,3.2381,-5.8824,1.1538
1.761,2.6667,10.407,14.822,14.379,24.455,7.7295,14.106,25.177999,14.822,14.379,23.761999,3.7915,6.9206,-1.1429,2.5765,4.5089,-11.026,7.0476,-3.268,5.641
-5.7862,7.1111,7.1545,9.644,5.2288,14.699,16.747,3.1562,-1.3592,9.644,5.2288,18.482,0.63191,4.381,-3.6825,3.2206,3.2206,-9.7436,-0.57143,-4.5752,1.1538
-8.3019,-2.4127,6.5041,7.055,1.9608,-2.8618,3.8647,2.5121,2.5243,7.055,1.9608,15.182,0.0,5.0159,-6.2222,3.8647,3.8647,-6.5385,3.873,-4.5752,4.359
-8.3019,-2.4127,3.9024,3.1715,0.0,7.5447,2.5765,1.2238,1.2298,3.1715,0.0,13.861,0.63191,4.381,-2.4127,2.5765,3.8647,-1.4103,0.69841,-0.65359,3.7179
-10.189,-10.032,-7.8049,-5.89,-5.8824,8.8455,-2.5765,-7.7939,-10.421,-5.89,-5.8824,1.9802,1.8957,3.1111,-0.50794,-5.153,-3.2206,1.1538,-6.9206,1.3072,1.7949
-5.7862,-18.921,-15.61,-12.362,-7.1895,-14.569,-10.95,1.2238,-2.6537,-12.362,-7.1895,-3.9604,3.7915,3.746,1.3968,-9.0177,-5.7971,5.641,-8.8254,3.9216,-0.12821
1.761,-13.206,-14.309,-7.1845,-10.458,8.8455,-7.7295,-3.9291,-14.304,-7.1845,-10.458,-2.6403,3.1596,1.2063,3.3016,-8.3736,-5.153,10.769,-10.095,5.2288,-2.0513
6.7925,-7.4921,-7.8049,-5.2427,-11.111,3.6423,-9.0177,8.3092,-5.2427,-5.2427,-11.111,-5.9406,7.5829,4.381,9.0159,-1.9324,1.2882,8.8462,-6.9206,5.8824,1.1538
11.824,-0.50794,1.3008,3.8188,-6.5359,-10.667,2.5765,2.5121,-5.89,3.8188,-6.5359,-1.9802,10.111,8.1905,12.825,4.5089,8.3736,13.333,-2.4762,9.1503,5.641
10.566,-3.6825,2.6016,-5.89,-5.8824,12.098,-9.6618,3.1562,14.822,-5.89,-5.8824,0.66007,12.638,8.8254,13.46,5.153,8.3736,8.8462,5.1429,13.072,5.641
9.9371,4.5714,6.5041,2.5243,1.9608,8.8455,1.9324,0.57971,7.7023,2.5243,1.9608,4.6205,11.374,9.4603,10.286,7.0853,7.7295,5.641,6.4127,13.725,8.8462
7.4214,2.0317,3.252,-3.9482,0.65359,2.9919,-1.2882,-1.9968,-1.3592,-3.9482,0.65359,3.3003,7.5829,3.746,7.746,2.5765,2.5765,4.359,1.3333,7.1895,0.51282
7.4214,-3.0476,3.252,-2.0065,9.1503,0.39024,7.0853,-2.6409,9.644,-2.0065,9.1503,11.221,5.0553,-0.06349,6.4762,-4.5089,0.64412,2.4359,3.873,5.8824,-2.6923
1.761,-3.0476,2.6016,3.1715,9.1503,13.398,6.4412,-6.5056,8.9968,3.1715,9.1503,12.541,-5.0553,-8.9524,-2.4127,-10.306,-6.4412,-3.9744,-3.746,-1.9608,-11.667
2.3899,5.8413,1.9512,12.88,16.993,-6.1138,24.476999,6.3768,-1.3592,12.88,16.993,17.162001,-10.111,-12.762,-4.9524,-9.0177,-8.3736,1.7949,-6.2857,-4.5752,-14.872
-0.12579,3.9365,-1.3008,22.589001,18.301001,2.3415,31.562,8.9533,5.1133,22.589001,18.301001,18.482,-9.4787,-12.127,-6.2222,-8.3736,-10.306,0.51282,0.06349,-2.6144,-12.949
4.9057,3.3016,1.9512,15.469,18.301001,31.610001,10.95,7.6651,25.825001,15.469,18.301001,15.182,-5.0553,-3.873,-2.4127,-1.9324,-5.7971,8.2051,6.4127,0.0,-3.9744
9.9371,12.19,10.407,16.764,20.261,16.0,14.815,20.548,16.764,16.764,20.261,17.162001,3.1596,5.0159,6.4762,9.6618,6.4412,9.4872,10.857,6.5359,5.0
3.6478,15.365,7.1545,14.175,15.686,19.252001,16.747,14.106,3.1715,14.175,15.686,11.881,1.2638,4.381,2.6667,10.306,6.4412,12.692,10.857,3.268,5.641
-2.6415,0.7619,0.0,18.705999,11.765,6.8943,4.5089,13.462,10.291,18.705999,11.765,3.9604,-3.1596,-1.3333,-1.7778,0.64412,-0.64412,10.769,7.0476,0.65359,2.4359
-0.12579,-0.50794,-0.65041,20.0,16.34,-4.1626,6.4412,10.242,8.3495,20.0,16.34,3.9604,-3.1596,-5.1429,-0.50794,-3.8647,-1.9324,9.4872,0.06349,1.3072,-4.6154
3.0189,5.2063,1.9512,15.469,16.993,13.398,17.391001,14.106,5.7605,15.469,16.993,4.6205,-0.63191,-2.6032,2.0317,1.2882,1.9324,12.051,3.873,3.268,-1.4103
0.50314,3.3016,4.5528,19.353001,16.993,0.39024,6.4412,12.174,20.646999,19.353001,16.993,5.9406,3.1596,-0.06349,6.4762,6.4412,8.3736,10.769,7.0476,3.9216,-0.12821
13.711,13.46,16.26,17.410999,23.528999,20.552999,16.103001,10.886,25.177999,17.410999,23.528999,11.881,8.2148,3.746,16.0,16.747,19.323999,15.256,7.6825,7.1895,1.7949
26.289,33.778,29.268,25.177999,28.105,3.6423,36.070999,16.683001,24.531,25.177999,28.105,19.142,10.742,8.1905,26.159,28.986,30.274,8.8462,13.397,9.1503,7.5641
26.917999,26.159,29.919001,22.589001,32.026001,27.056999,34.783001,14.75,38.123001,22.589001,32.026001,23.761999,12.638,8.1905,27.429001,28.986,32.206001,15.256,12.762,11.111,7.5641
26.289,23.618999,25.365999,16.117001,23.528999,-2.8618,27.052999,7.6651,25.177999,16.117001,23.528999,15.842,15.798,8.8254,28.063,26.409,30.274,10.769,8.9524,11.765,5.0
24.403,21.714001,21.462999,16.764,26.797001,18.601999,18.035,15.395,15.469,16.764,26.797001,16.502001,15.798,6.9206,26.794001,21.9,27.052999,8.8462,9.5873,10.458,6.2821
26.917999,16.635,16.910999,3.8188,16.993,10.797,24.476999,5.7327,25.825001,3.8188,16.993,9.901,13.902,3.746,26.794001,17.391001,22.544001,6.9231,3.2381,9.1503,-0.12821
21.257999,21.714001,16.26,7.7023,13.725,7.5447,36.715,7.0209,6.4078,7.7023,13.725,9.901,18.325001,8.8254,27.429001,19.968,23.833,10.128,10.222,12.418,8.8462
6.7925,0.12698,2.6016,-0.71197,0.65359,-4.1626,-4.5089,4.4444,10.291,-0.71197,0.65359,-9.2409,15.798,5.6508,19.809999,11.594,14.815,0.51282,5.7778,10.458,3.7179
7.4214,0.7619,2.6016,-3.301,-1.9608,-2.2114,-3.2206,3.1562,10.291,-3.301,-1.9608,-9.2409,15.166,5.6508,16.635,10.306,13.527,2.4359,2.6032,11.111,3.0769
5.5346,0.12698,1.3008,-9.7735,-3.9216,-19.122,-3.2206,0.57971,-0.71197,-9.7735,-3.9216,-6.6007,9.4787,1.8413,9.0159,5.7971,7.7295,5.641,-2.4762,6.5359,0.51282
3.6478,-2.4127,1.3008,2.5243,0.65359,-28.228001,-9.0177,-4.5733,-0.06472,2.5243,0.65359,-3.3003,3.1596,-2.6032,3.3016,1.2882,1.9324,-2.0513,-4.381,3.9216,-2.6923
-3.2704,-8.127,-3.9024,2.5243,0.0,5.5935,-6.4412,2.5121,-7.8317,2.5243,0.0,1.3201,-2.5276,-8.9524,-4.9524,-7.7295,-7.0853,2.4359,-9.4603,-1.3072,-9.7436
-7.044,-4.9524,-5.2033,-6.5372,3.9216,14.699,6.4412,-1.3527,21.294001,-6.5372,3.9216,5.2805,-4.4234,-8.3175,-8.127,-7.7295,-8.3736,6.9231,-10.73,-1.9608,-9.1026
-8.9308,-8.7619,-4.5528,7.055,-1.3072,-6.1138,0.0,-5.2174,-3.9482,7.055,-1.3072,0.0,-7.5829,-8.9524,-9.3968,-9.6618,-9.0177,0.51282,-8.1905,-1.3072,-5.8974
-5.7862,-18.285999,-3.9024,3.8188,-2.6144,-11.967,-18.035,0.57971,1.877,3.8188,-2.6144,-2.6403,-8.2148,-9.5873,-8.7619,-14.171,-9.6618,-1.4103,-4.381,-1.3072,-8.4615
8.0503,-10.667,2.6016,2.5243,7.8431,8.1951,6.4412,6.3768,15.469,2.5243,7.8431,7.9208,-2.5276,-7.0476,0.7619,-12.882,-5.153,7.5641,-1.8413,5.2288,-3.9744
7.4214,-8.127,-2.6016,1.2298,1.9608,1.6911,4.5089,-4.5733,-0.06472,1.2298,1.9608,3.3003,-0.63191,-5.7778,1.3968,-13.527,-7.0853,3.7179,-1.8413,7.1895,-3.3333
-5.7862,-9.3968,-7.1545,-13.657,0.65359,-11.317,-3.2206,-6.5056,7.7023,-13.657,0.65359,-2.6403,-1.8957,-5.1429,-1.7778,-11.594,-7.0853,1.7949,-5.6508,5.8824,-5.2564
-3.2704,-6.8571,-7.1545,-13.01,-8.4967,-8.065,-10.95,-11.014,2.5243,-13.01,-8.4967,-10.561,1.2638,-4.5079,2.6667,-8.3736,-3.8647,1.1538,-5.6508,7.8431,-5.2564
2.3899,-11.302,-5.2033,-10.421,-9.1503,-13.919,-11.594,-16.812,-8.479,-10.421,-9.1503,-13.861,2.5276,-2.6032,5.2063,-8.3736,-0.64412,3.7179,-5.0159,8.4967,-2.0513
-0.12579,-10.032,-5.2033,-17.540001,-18.954,-13.919,-19.323999,-14.235,-9.1262,-17.540001,-18.954,-17.162001,1.8957,-1.9683,5.2063,-7.7295,-0.64412,-0.12821,-13.27,7.1895,-3.9744
-0.75472,-8.7619,-9.1057,-13.01,-13.072,-11.317,-1.2882,-5.8615,-36.311001,-13.01,-13.072,-9.901,3.1596,-0.69841,2.0317,-8.3736,-2.5765,5.641,-8.8254,6.5359,-2.0513
-2.6415,-29.079,-18.211,-12.362,-18.954,-32.130001,-32.206001,-6.5056,-12.362,-12.362,-18.954,-18.482,0.63191,-2.6032,-4.3175,-14.171,-10.95,3.0769,-8.1905,1.9608,-3.9744
-7.673,-14.476,-11.057,-13.01,-15.033,-0.91057,-27.052999,-7.1498,-7.1845,-13.01,-15.033,-13.201,-3.7915,-1.9683,-11.302,-7.7295,-8.3736,-1.4103,-7.5556,-4.5752,-0.76923
-10.189,-1.1429,0.0,5.7605,-6.5359,23.805,-7.0853,5.0886,-12.362,5.7605,-6.5359,3.3003,-5.6872,-2.6032,-15.746,-2.5765,-5.153,-5.8974,-2.4762,-4.5752,0.51282
-2.6415,2.6667,7.8049,11.586,3.9216,10.146,-0.64412,9.5974,-0.71197,11.586,3.9216,13.861,-8.8468,-2.6032,-13.841,-1.9324,-3.2206,-0.76923,-1.2063,-7.8431,-0.12821
4.2767,5.2063,10.407,10.939,5.8824,28.358,0.0,3.1562,10.291,10.939,5.8824,20.462,-6.3191,-4.5079,-4.3175,-2.5765,0.0,2.4359,-0.57143,-4.5752,-2.6923
9.9371,3.3016,6.5041,3.1715,0.65359,18.601999,6.4412,7.6651,-4.5955,3.1715,0.65359,11.221,-1.8957,-5.1429,5.8413,-3.2206,3.2206,6.2821,-4.381,1.9608,-5.2564
14.969,12.825,9.7561,0.58252,1.3072,2.9919,27.052999,10.886,-6.5372,0.58252,1.3072,9.2409,0.63191,-3.2381,14.095,1.9324,8.3736,10.769,-3.1111,4.5752,-3.3333
9.9371,3.9365,6.5041,-11.715,-4.5752,-4.813,-4.5089,-3.285,-2.6537,-11.715,-4.5752,-0.66007,1.2638,-1.9683,15.365,3.2206,9.6618,4.359,-4.381,3.9216,-2.6923
8.0503,2.6667,5.2033,-10.421,-7.8431,1.6911,-4.5089,-3.285,-3.9482,-10.421,-7.8431,-4.6205,2.5276,-1.9683,14.73,2.5765,9.0177,3.0769,-3.746,5.2288,-1.4103
3.6478,-3.0476,-1.3008,-9.1262,-8.4967,-10.016,-1.2882,-9.0821,-4.5955,-9.1262,-8.4967,-8.5809,3.7915,-1.9683,13.46,-2.5765,4.5089,-0.12821,-2.4762,6.5359,-1.4103
3.0189,-14.476,-9.7561,-9.7735,-9.8039,-21.724001,-16.747,-13.591,2.5243,-9.7735,-9.8039,-14.521,3.7915,-1.9683,9.6508,-7.0853,0.64412,1.7949,-4.381,3.9216,-2.0513
-2.0126,-3.6825,-8.4553,-16.246,-10.458,-8.7154,-15.459,-9.0821,-10.421,-16.246,-10.458,-11.221,4.4234,1.8413,7.1111,-1.2882,1.9324,1.1538,-1.8413,0.0,-0.12821
-8.9308,-13.206,-10.407,-6.5372,-5.2288,-19.771999,-14.171,-1.9968,4.466,-6.5372,-5.2288,-15.182,2.5276,1.2063,2.0317,-4.5089,-1.2882,-7.1795,1.9683,2.6144,1.7949
-3.8994,-3.6825,-3.252,0.58252,0.65359,2.3415,-1.9324,-0.70853,8.3495,0.58252,0.65359,-5.9406,5.0553,5.6508,4.5714,1.9324,3.2206,-7.1795,5.7778,4.5752,5.641
2.3899,10.921,9.1057,9.644,13.072,-0.26016,10.95,2.5121,11.586,9.644,13.072,5.9406,5.6872,11.365,5.2063,10.95,10.306,-2.6923,10.857,1.3072,12.692
-6.4151,-0.50794,2.6016,3.1715,6.5359,-8.7154,2.5765,-3.9291,16.117001,3.1715,6.5359,1.9802,-0.63191,5.0159,-4.9524,2.5765,1.9324,-11.026,4.5079,-5.2288,5.0
-3.8994,1.3968,5.8537,7.7023,12.418,2.9919,4.5089,6.3768,9.644,7.7023,12.418,7.9208,1.8957,6.9206,-4.3175,4.5089,3.2206,-9.1026,5.7778,-1.9608,7.5641
-7.673,0.7619,1.9512,3.1715,3.268,10.146,-2.5765,-0.06441,3.1715,3.1715,3.268,2.6403,-3.1596,3.1111,-9.3968,0.64412,-1.9324,-3.3333,0.69841,-6.5359,2.4359
-7.044,3.3016,-3.252,-4.5955,2.6144,11.447,5.153,-4.5733,-1.3592,-4.5955,2.6144,1.9802,-5.6872,1.2063,-10.667,-1.9324,-5.7971,-4.6154,-0.57143,-7.8431,1.1538
-12.075,-2.4127,-8.4553,3.1715,2.6144,-21.073,-7.0853,5.7327,10.939,3.1715,2.6144,-4.6205,-4.4234,-0.06349,-11.302,-4.5089,-9.0177,-6.5385,1.3333,-6.5359,-0.12821
-15.849,-6.2222,-14.959,11.586,1.3072,-17.171,-1.9324,6.3768,-0.06472,11.586,1.3072,-8.5809,-4.4234,-1.3333,-13.206,-8.3736,-12.238,-6.5385,-6.9206,-7.8431,-2.6923
-11.447,-14.476,-15.61,-3.9482,1.3072,8.8455,-1.9324,6.3768,4.466,-3.9482,1.3072,-8.5809,-5.0553,-1.9683,-11.302,-12.238,-12.882,-1.4103,-6.2857,-8.4967,-2.0513
-2.0126,-0.50794,-3.9024,3.8188,3.9216,-6.7642,19.323999,1.868,-14.951,3.8188,3.9216,-3.9604,-1.2638,-0.06349,-4.3175,-7.0853,-5.153,-0.76923,-5.6508,-5.8824,-3.3333
3.0189,-12.571,-1.9512,-0.06472,1.3072,-3.5122,-12.238,5.7327,5.1133,-0.06472,1.3072,-9.2409,-4.4234,-0.69841,-4.3175,-7.7295,-4.5089,-4.6154,-5.0159,-9.1503,-5.2564
4.9057,-6.2222,0.0,0.58252,-3.9216,4.2927,-14.171,8.9533,4.466,0.58252,-3.9216,-9.901,-6.3191,0.57143,-4.3175,-3.8647,-3.2206,5.0,-5.0159,-9.1503,-3.3333
-3.2704,-4.9524,-5.2033,7.055,-1.3072,6.2439,-3.2206,0.57971,-4.5955,7.055,-1.3072,-6.6007,-9.4787,-1.9683,-10.032,-6.4412,-7.7295,-0.12821,-6.2857,-7.8431,-4.6154
-3.8994,-1.1429,-5.8537,3.8188,-1.9608,7.5447,-3.2206,1.2238,9.644,3.8188,-1.9608,-2.6403,-8.2148,-1.3333,-8.127,-5.153,-7.7295,-3.9744,0.69841,-5.2288,-2.0513
-3.2704,-7.4921,-8.4553,9.644,5.8824,-0.26016,1.2882,1.868,-2.6537,9.644,5.8824,2.6403,-9.4787,-4.5079,-10.667,-11.594,-12.238,4.359,-0.57143,-5.2288,-3.3333
-6.4151,-13.206,-7.8049,11.586,10.458,18.601999,7.0853,14.75,5.1133,11.586,10.458,14.521,-14.534,-9.5873,-15.746,-18.035,-19.323999,2.4359,-8.8254,-8.4967,-11.667
-11.447,-10.667,-1.9512,10.291,16.993,34.862,14.171,15.395,14.822,10.291,16.993,20.462,-13.902,-8.3175,-18.921,-16.747,-18.035,-0.76923,2.6032,-8.4967,-5.2564
-13.962,2.6667,-3.9024,10.291,4.5752,-9.3659,27.697001,1.2238,-18.188,10.291,4.5752,5.9406,-12.006,-5.7778,-17.650999,-10.306,-14.815,-4.6154,0.06349,-7.8431,-5.2564
-10.818,-3.6825,-7.1545,-1.3592,1.3072,-2.8618,-1.2882,-1.3527,5.7605,-1.3592,1.3072,-3.3003,-8.2148,-1.9683,-12.571,-6.4412,-10.306,-3.3333,1.9683,-5.2288,1.7949
-1.3836,5.2063,-3.9024,-5.89,-5.8824,6.8943,-1.9324,-0.70853,11.586,-5.89,-5.8824,-4.6205,-5.0553,-0.69841,-4.9524,0.64412,-4.5089,-0.76923,7.6825,-2.6144,1.7949
15.597,16.635,4.5528,-1.3592,-2.6144,-8.065,8.3736,-7.7939,2.5243,-1.3592,-2.6144,-1.9802,1.2638,5.6508,5.2063,12.238,5.153,-2.0513,12.762,0.0,8.8462
15.597,18.540001,9.7561,-13.01,-4.5752,-0.26016,3.2206,-1.3527,14.822,-13.01,-4.5752,-1.9802,8.2148,11.365,13.46,19.323999,13.527,-3.3333,12.762,3.9216,12.692
15.597,19.809999,13.008,-7.1845,-5.2288,6.8943,1.2882,-2.6409,0.58252,-7.1845,-5.2288,2.6403,11.374,13.905,16.635,21.9,17.391001,3.0769,11.492,3.9216,13.333
6.1635,18.540001,6.5041,-10.421,-8.4967,-21.724001,6.4412,-12.947,-0.06472,-10.421,-8.4967,-3.3003,13.27,17.714001,13.46,21.256001,15.459,-2.0513,13.397,3.9216,19.743999
-3.8994,5.8413,-3.252,-13.657,-6.5359,-9.3659,6.4412,-4.5733,1.2298,-13.657,-6.5359,-3.3003,9.4787,12.0,6.4762,12.882,8.3736,-3.9744,10.857,0.65359,13.333
-3.2704,6.4762,1.3008,-0.71197,-1.9608,-13.268,0.0,-3.9291,-0.71197,-0.71197,-1.9608,0.0,5.0553,6.9206,3.9365,8.3736,6.4412,-4.6154,8.3175,-1.3072,8.2051
-1.3836,-1.1429,3.9024,-8.479,-1.9608,-1.561,3.8647,-9.0821,5.7605,-8.479,-1.9608,1.9802,1.8957,2.4762,2.6667,1.9324,4.5089,-5.2564,3.2381,-3.9216,3.7179
1.1321,-2.4127,5.8537,-4.5955,-1.3072,14.049,5.7971,-9.0821,1.2298,-4.5955,-1.3072,6.6007,-0.63191,-3.873,2.0317,-3.8647,2.5765,-2.0513,-0.57143,-4.5752,-0.12821
-0.12579,1.3968,2.6016,5.1133,3.268,-3.5122,9.6618,-0.70853,5.7605,5.1133,3.268,8.5809,0.63191,-1.9683,3.3016,-2.5765,1.9324,-3.9744,0.69841,-0.65359,-0.76923
-15.22,-8.127,-11.707,-3.301,-1.3072,-12.618,0.0,-3.9291,-0.06472,-3.301,-1.3072,-1.9802,-6.951,-6.4127,-10.032,-9.0177,-9.0177,-2.0513,-1.8413,-5.8824,-3.3333
-17.107,2.0317,-7.1545,-9.1262,-2.6144,-10.667,6.4412,3.1562,1.2298,-9.1262,-2.6144,-2.6403,-3.7915,-3.2381,-8.7619,-1.9324,-4.5089,-5.8974,-0.57143,-3.9216,-0.76923
-5.7862,15.365,4.5528,-3.9482,-2.6144,-17.171,18.035,-14.235,-7.8317,-3.9482,-2.6144,1.3201,3.7915,3.746,3.9365,8.3736,7.7295,-6.5385,-1.2063,3.268,3.7179
-0.12579,5.2063,4.5528,-20.777,-9.8039,-7.4146,-8.3736,-18.1,-1.3592,-20.777,-9.8039,-6.6007,4.4234,6.2857,9.0159,9.6618,9.6618,-1.4103,7.6825,3.9216,5.641
1.761,0.7619,5.2033,-5.89,-3.268,2.3415,-4.5089,-9.0821,3.1715,-5.89,-3.268,-2.6403,2.5276,2.4762,5.8413,6.4412,7.7295,-0.76923,1.3333,1.9608,1.7949
-0.75472,2.0317,-2.6016,-9.7735,-8.4967,-19.771999,1.9324,-11.014,-13.657,-9.7735,-8.4967,-9.901,0.63191,-1.3333,2.6667,1.9324,1.9324,-5.2564,-8.1905,1.3072,-3.9744
4.2767,5.8413,-6.5041,-10.421,-3.268,-1.561,-5.153,-11.014,-2.0065,-10.421,-3.268,-8.5809,4.4234,4.381,3.3016,6.4412,1.9324,3.0769,-0.57143,4.5752,1.1538
-0.75472,5.2063,-4.5528,-18.834999,-11.111,-23.024,-14.171,-12.947,-4.5955,-18.834999,-11.111,-10.561,1.8957,1.8413,1.3968,5.7971,-0.64412,-0.12821,1.3333,3.268,0.51282
-0.12579,14.095,6.5041,-10.421,-12.418,-8.7154,-5.153,-12.947,-14.304,-10.421,-12.418,-9.901,1.2638,0.57143,2.6667,10.95,6.4412,-2.0513,-0.57143,2.6144,0.51282
-2.0126,21.714001,14.959,-14.951,-10.458,-1.561,10.306,-11.014,-20.777,-14.951,-10.458,-3.9604,6.951,5.6508,6.4762,16.747,14.171,-0.76923,5.1429,5.2288,6.9231
6.7925,7.1111,19.511999,-7.8317,-11.111,-15.22,-11.594,-3.9291,-0.71197,-7.8317,-11.111,-4.6205,12.638,8.1905,13.46,14.815,20.612,-3.3333,7.0476,8.4967,4.359
11.824,10.921,27.966999,-0.71197,-4.5752,7.5447,0.64412,-3.9291,1.2298,-0.71197,-4.5752,5.2805,18.957001,14.54,17.905001,21.256001,28.341,1.1538,6.4127,8.4967,6.9231
9.3082,14.73,20.813,3.1715,-1.3072,7.5447,7.0853,8.9533,-5.89,3.1715,-1.3072,9.901,17.694,14.54,12.19,16.747,21.9,-1.4103,3.873,5.8824,9.4872
6.7925,5.2063,7.1545,-0.06472,0.65359,-10.667,4.5089,-0.06441,3.8188,-0.06472,0.65359,5.9406,10.742,6.9206,3.3016,5.7971,7.7295,-0.76923,1.9683,3.268,4.359
7.4214,3.9365,2.6016,4.466,5.2288,21.854,-1.2882,5.7327,10.291,4.466,5.2288,7.9208,6.951,6.2857,0.7619,5.153,4.5089,1.1538,9.5873,1.9608,6.2821
2.3899,9.6508,-1.3008,10.939,5.2288,26.407,15.459,12.174,4.466,10.939,5.2288,7.9208,1.2638,3.1111,-4.9524,6.4412,1.2882,0.51282,5.1429,-1.3072,4.359
-0.75472,4.5714,-2.6016,8.3495,0.0,11.447,7.0853,1.868,0.58252,8.3495,0.0,5.2805,-3.7915,-0.06349,-6.8571,3.2206,-1.2882,-6.5385,1.3333,-4.5752,2.4359
3.0189,6.4762,3.9024,12.233,6.5359,10.146,1.9324,10.242,2.5243,12.233,6.5359,9.901,-6.951,-4.5079,-4.9524,2.5765,0.64412,-4.6154,3.873,-2.6144,1.7949
-3.8994,6.4762,3.252,10.939,1.3072,-4.813,7.0853,7.6651,11.586,10.939,1.3072,6.6007,-12.006,-8.3175,-9.3968,-0.64412,-3.2206,1.1538,-1.8413,-6.5359,-3.9744
1.1321,0.7619,1.3008,3.8188,1.3072,14.699,0.0,1.868,-9.1262,3.8188,1.3072,7.2607,-12.638,-9.5873,-9.3968,-7.0853,-5.7971,2.4359,-8.1905,-7.1895,-6.5385
-0.12579,-11.937,-5.2033,2.5243,-4.5752,25.106001,-5.7971,3.8003,-10.421,2.5243,-4.5752,9.2409,-12.638,-12.762,-9.3968,-13.527,-10.306,1.7949,-13.905,-5.2288,-11.026
-5.7862,-14.476,-10.407,7.055,-2.6144,10.797,-13.527,8.3092,-10.421,7.055,-2.6144,-1.3201,-8.8468,-10.222,-10.667,-13.527,-10.306,1.1538,-13.27,-1.3072,-9.7436
-10.189,-15.111,-18.211,3.1715,-9.8039,-4.813,-8.3736,-0.70853,-11.715,3.1715,-9.8039,-13.861,-8.8468,-9.5873,-13.841,-13.527,-14.171,1.1538,-10.73,-3.9216,-8.4615
-12.704,-8.7619,-16.26,0.58252,-5.8824,-8.065,-2.5765,0.57971,-14.951,0.58252,-5.8824,-9.901,-7.5829,-8.3175,-14.476,-11.594,-12.882,-1.4103,-10.73,-4.5752,-5.2564
-13.333,-0.50794,-9.1057,0.58252,1.3072,-5.4634,19.968,-3.9291,-31.132999,0.58252,1.3072,-1.3201,-6.3191,-8.9524,-13.841,-11.594,-12.238,-6.5385,-6.9206,-3.9216,-6.5385
-14.591,-11.937,-15.61,-8.479,-1.9608,-11.967,-7.0853,-10.37,3.1715,-8.479,-1.9608,-7.9208,-4.4234,-7.0476,-15.746,-12.882,-15.459,-2.0513,0.06349,-2.6144,-4.6154
-14.591,-12.571,-16.910999,-14.304,-9.8039,-15.87,-12.882,-13.591,3.8188,-14.304,-9.8039,-13.201,-6.3191,-9.5873,-14.476,-14.815,-16.747,-3.3333,-5.6508,-4.5752,-7.1795
-11.447,-14.476,-12.358,-9.1262,-10.458,-4.813,-8.3736,-9.7262,-21.424,-9.1262,-10.458,-13.861,-5.0553,-11.492,-10.667,-12.238,-12.238,-6.5385,-12.635,-4.5752,-15.513
-15.849,-9.3968,-7.8049,-13.657,-12.418,-23.024,-19.968,-14.235,-11.068,-13.657,-12.418,-11.221,-5.0553,-10.857,-11.937,-6.4412,-9.0177,-7.8205,-13.905,-4.5752,-16.153999
-19.622999,-7.4921,-13.008,-17.540001,-18.301001,-4.813,-10.306,-11.014,-23.365999,-17.540001,-18.301001,-17.162001,-10.111,-14.032,-17.650999,-7.0853,-12.238,-9.7436,-16.444,-8.4967,-16.795
-29.686001,-12.571,-16.26,-9.1262,-15.686,-10.016,-16.747,-12.303,-16.246,-9.1262,-15.686,-19.142,-13.27,-17.841,-22.094999,-9.6618,-14.171,-8.4615,-19.618999,-12.418,-23.846001
-22.767,-6.2222,-11.057,-2.0065,-8.4967,-9.3659,-10.306,-1.9968,-15.599,-2.0065,-8.4967,-11.881,-9.4787,-8.9524,-15.111,-3.2206,-7.0853,-8.4615,-9.4603,-9.8039,-14.231
-5.1572,12.19,-4.5528,5.7605,1.9608,-4.1626,14.171,5.7327,-21.424,5.7605,1.9608,-3.3003,-0.63191,0.57143,-4.3175,7.7295,1.9324,-0.76923,-2.4762,-1.9608,-0.12821
-0.12579,3.3016,-5.2033,2.5243,-3.268,8.8455,-12.238,9.5974,3.1715,2.5243,-3.268,-5.2805,1.8957,6.9206,0.12698,9.6618,1.9324,2.4359,6.4127,0.65359,8.2051
8.0503,2.0317,-1.3008,4.466,0.0,6.2439,-6.4412,9.5974,0.58252,4.466,0.0,-1.9802,0.63191,6.2857,3.9365,10.95,3.2206,6.9231,9.5873,1.3072,12.051
14.969,19.809999,7.8049,3.8188,2.6144,10.797,-0.64412,8.9533,8.3495,3.8188,2.6144,7.9208,3.1596,7.5556,9.0159,16.747,9.0177,5.0,7.6825,3.268,6.9231
18.113001,17.905001,16.910999,7.7023,9.8039,9.4959,16.747,5.0886,13.528,7.7023,9.8039,17.162001,6.3191,10.095,12.19,18.035,14.815,10.769,14.032,5.2288,12.692
12.453,23.618999,20.163,1.2298,5.8824,6.2439,17.391001,7.0209,18.058001,1.2298,5.8824,17.162001,7.5829,10.095,13.46,21.256001,18.035,8.8462,5.7778,4.5752,11.41
10.566,17.905001,18.862,8.9968,7.1895,0.39024,10.95,3.1562,8.9968,8.9968,7.1895,11.881,10.742,11.365,13.46,19.323999,19.323999,4.359,12.127,7.1895,13.333
4.2767,18.540001,14.959,9.644,7.1895,10.797,15.459,2.5121,5.7605,9.644,7.1895,10.561,10.111,11.365,11.556,18.035,16.747,-1.4103,14.032,8.4967,13.333
4.9057,19.174999,14.959,3.1715,11.765,15.35,16.103001,9.5974,18.705999,3.1715,11.765,18.482,6.3191,8.1905,6.4762,16.103001,13.527,1.7949,13.397,3.9216,12.051
9.3082,12.825,16.26,10.939,13.725,22.504,17.391001,2.5121,15.469,10.939,13.725,23.761999,6.951,6.2857,5.8413,10.306,10.306,1.1538,11.492,5.8824,10.128
4.9057,13.46,16.910999,10.291,13.725,21.854,17.391001,1.2238,1.2298,10.291,13.725,24.422001,9.4787,8.8254,5.2063,10.306,10.306,5.0,5.1429,9.8039,6.9231
3.0189,9.0159,13.659,-1.3592,3.9216,-4.1626,9.0177,5.0886,-0.71197,-1.3592,3.9216,16.502001,12.006,8.1905,6.4762,7.7295,9.6618,8.8462,3.2381,11.111,7.5641
1.761,3.3016,9.1057,2.5243,0.65359,11.447,8.3736,5.7327,1.877,2.5243,0.65359,10.561,11.374,6.2857,7.746,4.5089,7.0853,3.0769,-1.8413,11.111,4.359
3.0189,1.3968,5.8537,2.5243,4.5752,-2.8618,1.2882,1.868,1.2298,2.5243,4.5752,6.6007,10.742,4.381,7.1111,3.2206,5.7971,9.4872,-5.6508,10.458,0.51282
4.9057,9.6508,4.5528,3.8188,0.0,0.39024,16.103001,-0.06441,-24.013,3.8188,0.0,4.6205,13.27,9.4603,10.286,9.0177,9.0177,2.4359,1.3333,11.765,7.5641
6.1635,0.12698,1.9512,2.5243,1.3072,2.9919,-1.9324,2.5121,1.2298,2.5243,1.3072,0.66007,15.798,12.0,12.19,8.3736,9.6618,2.4359,6.4127,15.033,9.4872
-0.75472,-11.302,-8.4553,-8.479,-8.4967,3.6423,-11.594,-3.285,-5.89,-8.479,-8.4967,-7.9208,8.2148,5.0159,3.9365,-3.2206,-1.2882,5.641,-3.1111,8.4967,1.7949
-6.4151,-14.476,-19.511999,-12.362,-12.418,-9.3659,-21.256001,-5.8615,-11.068,-12.362,-12.418,-19.142,5.6872,1.2063,-0.50794,-10.95,-7.7295,6.2821,-3.1111,8.4967,-0.12821
-5.1572,-15.746,-20.163,-11.715,-13.072,-17.820999,-16.103001,-5.2174,0.58252,-11.715,-13.072,-21.782,5.0553,2.4762,0.12698,-9.6618,-7.0853,2.4359,-1.2063,7.8431,-0.76923
-7.673,-13.841,-17.561001,1.2298,-7.8431,-14.569,-5.153,-0.06441,-3.9482,1.2298,-7.8431,-17.162001,0.0,-1.3333,-4.3175,-11.594,-9.0177,0.51282,0.06349,3.268,1.7949
-12.704,-15.746,-21.462999,-11.068,-8.4967,-19.122,-12.882,-7.7939,9.644,-11.068,-8.4967,-19.802,-5.0553,-4.5079,-10.032,-15.459,-14.815,-1.4103,3.2381,0.65359,-1.4103
-5.1572,-7.4921,-13.659,-2.0065,-1.3072,-11.967,8.3736,-4.5733,-10.421,-2.0065,-1.3072,-12.541,-2.5276,-3.873,-6.8571,-13.527,-10.306,-0.76923,1.3333,1.3072,-1.4103
-1.3836,-17.016001,-7.8049,-4.5955,-5.8824,-2.2114,-12.238,-5.2174,1.2298,-4.5955,-5.8824,-13.201,0.0,-2.6032,-0.50794,-11.594,-5.153,-9.7436,1.3333,1.3072,-2.0513
-0.12579,-9.3968,1.9512,-2.0065,1.3072,4.2927,-6.4412,3.1562,11.586,-2.0065,1.3072,-3.9604,3.7915,2.4762,5.8413,-3.8647,3.2206,1.7949,6.4127,3.268,3.7179
6.7925,6.4762,6.5041,1.877,3.268,-10.016,10.306,-1.3527,1.2298,1.877,3.268,0.66007,6.951,5.6508,9.6508,3.8647,7.0853,1.1538,5.1429,3.9216,6.2821
-0.75472,-0.50794,-1.3008,-2.6537,-1.9608,-6.1138,-5.153,-5.2174,7.7023,-2.6537,-1.9608,-4.6205,2.5276,0.57143,3.3016,-0.64412,0.0,-4.6154,2.6032,-0.65359,3.7179
3.0189,3.3016,2.6016,-5.2427,-0.65359,-3.5122,6.4412,-7.1498,-7.1845,-5.2427,-0.65359,-1.3201,6.3191,2.4762,7.746,-0.64412,3.8647,2.4359,1.3333,1.9608,1.7949
4.9057,-18.921,-3.9024,0.58252,-6.5359,2.9919,-17.391001,-1.3527,-0.06472,0.58252,-6.5359,-7.9208,3.7915,0.57143,9.0159,-6.4412,1.2882,1.7949,-1.8413,1.3072,-2.0513
4.2767,-16.381001,-2.6016,-0.71197,-10.458,4.2927,-18.035,1.2238,-6.5372,-0.71197,-10.458,-8.5809,1.2638,0.57143,7.746,-3.8647,2.5765,-2.6923,-3.1111,0.0,0.51282
8.6792,-1.7778,7.1545,-7.8317,-5.2288,-17.171,-7.7295,1.868,-2.6537,-7.8317,-5.2288,-4.6205,5.6872,5.6508,14.73,4.5089,11.594,-0.12821,1.3333,3.9216,3.7179
4.2767,-10.667,-5.2033,-3.301,-9.8039,-4.813,-14.815,0.57971,-18.834999,-3.301,-9.8039,-12.541,0.63191,-1.3333,8.381,-5.153,1.2882,5.641,-6.9206,1.9608,-0.76923
9.3082,-15.746,-7.8049,-3.9482,-11.111,4.2927,-16.103001,2.5121,-16.893,-3.9482,-11.111,-13.861,-1.8957,-3.2381,7.746,-9.0177,-1.9324,5.0,-9.4603,1.9608,-5.2564
14.969,-11.937,-3.252,-4.5955,-13.072,4.9431,-14.815,-2.6409,-12.362,-4.5955,-13.072,-10.561,-5.0553,-5.1429,6.4762,-7.0853,0.0,8.8462,-13.27,0.65359,-5.2564
4.9057,-18.285999,-5.8537,-5.89,-18.301001,12.098,-27.052999,1.2238,-18.188,-5.89,-18.301001,-7.9208,-7.5829,-6.4127,2.0317,-10.95,-3.2206,4.359,-11.365,-0.65359,-7.8205
6.1635,-20.190001,-5.8537,-9.1262,-16.993,-12.618,-28.341,-1.3527,-9.1262,-9.1262,-16.993,-10.561,-6.951,-7.6825,5.2063,-12.882,-1.9324,5.641,-10.73,0.65359,-6.5385
4.9057,-19.556,-2.6016,-13.01,-18.301001,4.9431,-20.612,-5.8615,-20.129,-13.01,-18.301001,-9.901,-4.4234,-8.3175,8.381,-12.882,0.64412,3.7179,-18.983999,1.9608,-11.026
8.0503,-2.4127,14.309,4.466,-1.9608,3.6423,5.7971,-0.70853,-2.6537,4.466,-1.9608,9.2409,-1.8957,-1.9683,9.6508,-1.2882,9.6618,3.0769,-6.2857,2.6144,-0.76923
-5.1572,2.0317,7.8049,-2.0065,-1.9608,-3.5122,9.0177,-1.3527,-5.2427,-2.0065,-1.9608,5.9406,-6.951,-3.873,0.7619,-1.9324,2.5765,2.4359,-5.6508,-6.5359,-2.0513
4.2767,2.6667,10.407,-7.1845,1.3072,16.65,2.5765,1.868,2.5243,-7.1845,1.3072,9.2409,-1.8957,-1.9683,10.921,0.64412,9.0177,3.7179,-4.381,-3.268,-1.4103
16.226,10.921,20.163,5.1133,4.5752,-4.813,18.035,7.0209,3.1715,5.1133,4.5752,12.541,3.1596,1.8413,19.174999,5.7971,15.459,-2.6923,-0.57143,0.65359,1.7949
13.082,-1.7778,11.707,3.8188,1.9608,4.9431,3.8647,10.242,0.58252,3.8188,1.9608,5.2805,4.4234,0.57143,17.905001,1.2882,10.95,1.7949,-0.57143,2.6144,0.51282
12.453,-3.0476,7.8049,-2.6537,-3.268,5.5935,-3.2206,-0.06441,-0.06472,-2.6537,-3.268,-2.6403,6.951,3.746,17.27,2.5765,10.95,-0.76923,2.6032,3.9216,5.641
11.824,3.3016,10.407,0.58252,3.268,10.146,0.64412,1.868,5.1133,0.58252,3.268,2.6403,7.5829,6.9206,15.365,5.7971,10.95,-0.76923,7.0476,2.6144,7.5641
10.566,12.19,13.659,11.586,13.725,7.5447,10.306,2.5121,14.822,11.586,13.725,10.561,9.4787,8.1905,15.365,7.7295,12.882,-3.3333,5.7778,4.5752,8.8462
