C3,C4,Cz,F1,F2,F3,F4,F7,F8,Fp1,Fp2,Fz,O1,O2,P3,P4,Pz,T3,T4,T5,T6
-20.916,1.9683,-8.7154,-7.8049,-4.9261,-12.878,11.594,-11.715,6.7642,-7.8049,-4.9261,1.9704,-13.333,-6.7302,-24.698,-12.5,-18.292999,-14.622,-2.7172,-13.793,-1.0897
-7.6461,13.397,3.9675,4.878,13.793,1.7561,34.783001,-1.0356,15.545,4.878,13.793,20.690001,-5.7143,-3.873,-16.127001,-7.6923,-14.428,-0.12882,2.0221,-5.9113,-1.0897
1.8325,21.968,12.748,11.707,13.793,14.439,42.512001,2.8479,17.496,11.707,13.793,32.512001,-2.8571,-2.9206,-11.365,-5.7692,-13.462,7.6006,18.136,-5.9113,-3.0128
8.4676,23.872999,17.625999,18.537001,18.719,18.341,48.308998,6.7314,20.423,18.537001,18.719,38.424,-2.8571,-1.9683,-6.6032,-2.8846,-10.564,6.6345,20.979,-5.9113,-5.8974
10.363,23.872999,16.65,17.561001,26.601,17.365999,48.308998,11.586,19.447001,17.561001,26.601,40.394001,0.95238,-0.06349,-3.746,0.96154,-8.6312,4.7021,15.292,-2.9557,-4.9359
11.311,24.825001,15.675,16.584999,25.615999,20.292999,46.376999,16.440001,16.52,16.584999,25.615999,39.409,2.8571,1.8413,-1.8413,3.8462,-6.6989,12.432,6.7615,1.9704,0.83333
9.4155,22.921,11.772,17.561001,22.66,22.243999,42.512001,15.469,16.52,17.561001,22.66,35.467999,-1.9048,-1.9683,-3.746,2.8846,-7.6651,10.499,1.0742,-2.9557,1.7949
8.4676,19.111,7.8699,15.61,21.674999,20.292999,36.715,17.410999,13.593,15.61,21.674999,30.542,-4.7619,-7.6825,-5.6508,0.96154,-9.5974,8.5668,10.553,-4.9261,-1.0897
1.8325,14.349,2.9919,18.537001,18.719,16.389999,30.917999,18.382,16.52,18.537001,18.719,25.615999,-7.619,-10.54,-9.4603,-1.9231,-11.53,9.533,6.7615,-7.8818,-4.9359
-1.9589,7.6825,-2.8618,24.389999,28.570999,18.341,24.155001,12.557,16.52,24.389999,28.570999,19.704,-7.619,-10.54,-9.4603,-2.8846,-11.53,17.261999,5.8136,-2.9557,1.7949
-4.8025,-4.6984,-10.667,24.389999,31.527,9.561,11.594,15.469,15.545,24.389999,31.527,8.867,-6.6667,-10.54,-10.413,-6.7308,-12.496,21.127001,15.292,3.9409,-0.12821
-10.49,-13.27,-19.447001,13.659,23.645,-5.0732,2.8986,19.353001,14.569,13.659,23.645,-1.9704,-9.5238,-14.349,-13.27,-13.462,-15.395,14.364,11.501,0.0,-7.8205
-11.438,-18.983999,-24.325001,9.7561,16.749001,-5.0732,-3.8647,13.528,8.7154,9.7561,16.749001,-5.9113,-8.5714,-13.397,-13.27,-13.462,-15.395,14.364,4.8657,1.9704,-7.8205
-8.594,-18.983999,-24.325001,10.732,20.690001,-2.1463,-10.628,13.528,8.7154,10.732,20.690001,-5.9113,-4.7619,-4.8254,-9.4603,-10.577,-10.564,13.398,-7.4566,3.9409,-2.0513
-8.594,-29.459999,-31.153999,12.683,17.733999,2.7317,-21.256001,10.615,8.7154,12.683,17.733999,-8.867,-5.7143,-6.7302,-9.4603,-14.423,-11.53,12.432,-3.6651,2.9557,-5.8974
-10.49,-35.174999,-33.105999,13.659,16.749001,5.6585,-22.222,8.6731,5.7886,13.659,16.749001,-8.867,-2.8571,-4.8254,-8.5079,-16.346001,-10.564,16.296,-4.613,6.8966,-6.859
-12.385,-32.317001,-30.179001,23.415001,21.674999,-1.1707,-18.357,14.498,3.8374,23.415001,21.674999,-7.8818,1.9048,-2.9206,-5.6508,-14.423,-7.6651,19.195,-6.5087,7.8818,-5.8974
-11.438,-26.603001,-23.35,21.462999,17.733999,-0.19512,-13.527,18.382,2.8618,21.462999,17.733999,-3.9409,5.7143,-1.0159,-4.6984,-13.462,-5.7327,20.160999,0.12638,6.8966,-7.8205
-1.9589,-17.079,-10.667,14.634,17.733999,2.7317,-2.8986,9.644,-1.0407,14.634,17.733999,4.9261,8.5714,1.8413,-0.88889,-10.577,-1.868,10.499,1.0742,7.8818,-11.667
-0.06319,-9.4603,-5.7886,22.438999,22.66,5.6585,-0.96618,4.7896,7.7398,22.438999,22.66,11.823,2.8571,-4.8254,-3.746,-11.538,-5.7327,4.7021,-9.3523,-0.98522,-18.396999
1.8325,-5.6508,-0.91057,27.316999,20.690001,9.561,2.8986,2.8479,15.545,27.316999,20.690001,16.749001,1.9048,-6.7302,-3.746,-10.577,-5.7327,6.6345,-3.6651,-3.9409,-15.513
9.4155,-0.88889,7.8699,26.341,15.764,20.292999,13.527,-2.0065,14.569,26.341,15.764,21.674999,4.7619,-3.873,2.9206,-3.8462,1.0306,12.432,8.6572,2.9557,-10.705
13.207,6.7302,10.797,27.316999,18.719,21.268,17.391001,9.644,11.642,27.316999,18.719,23.645,2.8571,-1.9683,2.9206,0.96154,2.963,15.33,9.6051,0.98522,-5.8974
10.363,4.8254,7.8699,12.683,11.823,10.537,9.6618,12.557,10.667,12.683,11.823,16.749001,-0.95238,-0.06349,0.06349,2.8846,1.9968,17.261999,-4.613,-3.9409,-1.0897
9.4155,2.9206,7.8699,9.7561,7.8818,10.537,5.7971,8.6731,8.7154,9.7561,7.8818,13.793,-8.5714,-5.7778,-2.7937,2.8846,1.9968,8.5668,3.9179,-10.837,-7.8205
8.4676,7.6825,11.772,8.7805,4.9261,12.488,6.7633,7.7023,1.8862,8.7805,4.9261,13.793,-12.381,-5.7778,-3.746,6.7308,3.9291,9.533,17.188,-15.764,-8.7821
8.4676,10.54,14.699,10.732,-0.98522,12.488,6.7633,8.6731,-2.9919,10.732,-0.98522,12.808,-9.5238,0.88889,-1.8413,11.538,7.7939,7.6006,2.0221,-13.793,-1.0897
14.155,12.444,18.601999,11.707,-5.9113,19.316999,5.7971,0.90615,-2.0163,11.707,-5.9113,14.778,-1.9048,7.5556,5.7778,17.308001,15.523,8.5668,-1.7694,-3.9409,3.7179
21.738001,13.397,25.431,5.8537,-5.9113,16.389999,2.8986,13.528,-4.9431,5.8537,-5.9113,14.778,14.286,21.841,19.111,27.885,30.016001,18.229,5.8136,4.9261,14.295
22.686001,8.6349,24.455,-3.9024,-8.867,14.439,-2.8986,18.382,-13.724,-3.9024,-8.867,9.8522,16.190001,26.603001,21.968,30.768999,33.881001,19.195,1.0742,7.8818,20.063999
19.841999,9.5873,22.504,-9.7561,-13.793,11.512,-10.628,0.90615,-17.625999,-9.7561,-13.793,3.9409,13.333,29.459999,21.016001,31.731001,33.881001,11.465,-4.613,6.8966,25.833
15.103,8.6349,19.577,-14.634,-23.645,1.7561,-12.56,-5.89,-21.528,-14.634,-23.645,-0.98522,14.286,28.507999,19.111,28.846001,30.982,9.533,-3.6651,7.8818,21.987
16.051001,6.7302,18.601999,-23.415001,-28.570999,1.7561,-8.6957,-6.8608,-26.407,-23.415001,-28.570999,-0.98522,15.238,30.413,18.159,24.038,28.084,8.5668,-4.613,10.837,19.103001
10.363,2.9206,15.675,-19.511999,-27.586,-1.1707,-6.7633,-8.8026,-26.407,-19.511999,-27.586,-1.9704,12.381,26.603001,14.349,17.308001,23.253,4.7021,-17.882999,8.867,16.218
4.6761,-3.746,9.8211,-15.61,-19.704,-1.1707,-10.628,-10.744,-22.504,-15.61,-19.704,-3.9409,6.6667,20.889,10.54,9.6154,17.455999,8.5668,-22.622,4.9261,11.41
8.4676,-4.6984,9.8211,-15.61,-13.793,-0.19512,-8.6957,-2.0065,-20.552999,-15.61,-13.793,-2.9557,10.476,18.983999,13.397,7.6923,15.523,11.465,-25.466,12.808,12.372
14.155,-6.6032,7.8699,-11.707,-8.867,0.78049,-2.8986,2.8479,-15.675,-11.707,-8.867,-1.9704,9.5238,14.222,15.302,2.8846,11.659,7.6006,-17.882999,15.764,6.6026
15.103,-10.413,4.9431,-10.732,-3.9409,5.6585,-0.96618,-0.06472,-8.8455,-10.732,-3.9409,-1.9704,4.7619,8.5079,14.349,-1.9231,6.8277,5.6683,-18.830999,13.793,-0.12821
9.4155,-12.317,-0.91057,-16.584999,-8.867,2.7317,-7.7295,-3.9482,-8.8455,-16.584999,-8.867,-5.9113,-0.95238,-0.06349,11.492,-4.8077,1.0306,8.5668,-18.830999,12.808,-6.859
6.5719,-9.4603,-3.8374,-16.584999,-7.8818,3.7073,-2.8986,-8.8026,-3.9675,-16.584999,-7.8818,-3.9409,-5.7143,-8.6349,9.5873,-6.7308,-2.8341,12.432,-20.726999,11.823,-8.7821
4.6761,-8.5079,-2.8618,0.0,-0.98522,6.6341,0.96618,0.90615,1.8862,0.0,-0.98522,0.0,-7.619,-15.302,8.6349,-7.6923,-2.8341,10.499,-10.3,7.8818,-12.628
5.624,-7.5556,0.06504,10.732,10.837,11.512,0.96618,2.8479,6.7642,10.732,10.837,2.9557,-7.619,-20.063,10.54,-7.6923,-1.868,5.6683,2.0221,6.8966,-15.513
4.6761,-5.6508,0.06504,9.7561,16.749001,6.6341,0.96618,11.586,13.593,9.7561,16.749001,2.9557,-7.619,-23.872999,12.444,-6.7308,-0.90177,6.6345,2.97,9.8522,-18.396999
1.8325,-0.88889,-0.91057,9.7561,15.764,5.6585,4.8309,12.557,13.593,9.7561,15.764,3.9409,-9.5238,-27.683001,10.54,-3.8462,-0.90177,5.6683,0.12638,5.9113,-18.396999
4.6761,10.54,2.9919,14.634,15.764,8.5854,17.391001,11.586,15.545,14.634,15.764,8.867,-8.5714,-21.968,11.492,4.8077,2.963,6.6345,3.9179,2.9557,-8.7821
2.7804,12.444,3.9675,17.561001,11.823,4.6829,18.357,9.644,22.374001,17.561001,11.823,8.867,-12.381,-26.73,9.5873,5.7692,1.9968,0.83736,16.24,0.98522,-9.7436
1.8325,9.5873,1.0407,6.8293,2.9557,2.7317,12.56,7.7023,23.35,6.8293,2.9557,4.9261,-15.238,-28.635,6.7302,0.96154,-1.868,-1.095,15.292,-2.9557,-14.551
-5.7504,9.5873,-3.8374,1.9512,9.8522,-1.1707,4.8309,4.7896,16.52,1.9512,9.8522,0.98522,-18.094999,-29.587,1.0159,-3.8462,-7.6651,5.6683,16.24,-5.9113,-14.551
-8.594,9.5873,-5.7886,18.537001,14.778,-0.19512,4.8309,4.7896,15.545,18.537001,14.778,0.98522,-20.952,-27.683001,-4.6984,-3.8462,-12.496,-3.0274,21.927,-9.8522,-9.7436
-2.9068,9.5873,-2.8618,29.268,11.823,5.6585,11.594,20.323999,14.569,29.268,11.823,6.8966,-19.048,-22.921,-4.6984,-2.8846,-12.496,-1.095,23.823,-6.8966,-7.8205
1.8325,12.444,2.9919,27.316999,13.793,10.537,18.357,27.120001,15.545,27.316999,13.793,13.793,-15.238,-15.302,-2.7937,-0.96154,-10.564,1.8035,10.553,-8.867,-3.0128
7.5197,14.349,7.8699,28.292999,13.793,19.316999,18.357,18.382,12.618,28.292999,13.793,20.690001,-18.094999,-20.063,-3.746,-2.8846,-12.496,3.7359,11.501,-12.808,-5.8974
12.259,16.254,10.797,27.316999,13.793,24.195,25.121,17.410999,10.667,27.316999,13.793,26.601,-20.0,-23.872999,-4.6984,-3.8462,-13.462,4.7021,8.6572,-17.733999,-12.628
10.363,12.444,7.8699,21.462999,18.719,26.146,19.323999,4.7896,10.667,21.462999,18.719,25.615999,-22.857,-21.968,-8.5079,-4.8077,-15.395,-6.8921,6.7615,-21.674999,-13.59
8.4676,7.6825,6.8943,22.438999,25.615999,19.316999,15.459,11.586,8.7154,22.438999,25.615999,23.645,-21.905001,-21.016001,-9.4603,-2.8846,-14.428,2.7697,12.449,-15.764,-9.7436
9.4155,4.8254,8.8455,27.316999,24.631001,18.341,14.493,12.557,2.8618,27.316999,24.631001,23.645,-18.094999,-22.921,-6.6032,-3.8462,-12.496,-1.095,6.7615,-13.793,-13.59
12.259,4.8254,11.772,30.243999,23.645,23.219999,21.256001,12.557,9.6911,30.243999,23.645,27.586,-18.094999,-26.73,-2.7937,-3.8462,-9.5974,-3.0274,0.12638,-7.8818,-15.513
15.103,8.6349,14.699,34.146,26.601,25.171,25.121,9.644,15.545,34.146,26.601,27.586,-18.094999,-25.778,2.9206,0.0,-4.7665,3.7359,-5.5608,-1.9704,-14.551
11.311,7.6825,13.724,30.243999,19.704,20.292999,25.121,5.7605,14.569,30.243999,19.704,24.631001,-16.190001,-26.73,2.9206,-0.96154,-3.8003,-0.12882,2.0221,-3.9409,-17.436001
-1.0111,0.06349,4.9431,13.659,22.66,3.7073,13.527,3.8188,10.667,13.659,22.66,12.808,-21.905001,-34.348999,-5.6508,-10.577,-12.496,-9.7907,1.0742,-7.8818,-27.051001
-1.0111,5.7778,6.8943,13.659,24.631001,-0.19512,12.56,5.7605,9.6911,13.659,24.631001,10.837,-19.048,-29.587,-5.6508,-9.6154,-10.564,-1.095,-8.4044,-5.9113,-24.167
-0.06319,7.6825,5.9187,11.707,15.764,3.7073,13.527,1.877,6.7642,11.707,15.764,8.867,-13.333,-21.016001,-5.6508,-6.7308,-8.6312,2.7697,-9.3523,0.0,-15.513
-2.9068,2.9206,2.0163,1.9512,5.9113,0.78049,11.594,-3.9482,7.7398,1.9512,5.9113,5.9113,-11.429,-18.159,-6.6032,-8.6538,-9.5974,0.83736,-3.6651,0.0,-11.667
-0.06319,4.8254,4.9431,4.878,8.867,-0.19512,14.493,3.8188,7.7398,4.878,8.867,7.8818,-5.7143,-8.6349,-1.8413,-4.8077,-3.8003,-2.0612,-9.3523,2.9557,-6.859
4.6761,11.492,12.748,4.878,3.9409,2.7317,8.6957,7.7023,0.91057,4.878,3.9409,9.8522,2.8571,-3.873,4.8254,0.0,1.0306,-10.757,-9.3523,4.9261,-3.9744
8.4676,13.397,19.577,3.9024,8.867,6.6341,6.7633,-0.06472,-1.0407,3.9024,8.867,12.808,5.7143,-2.9206,8.6349,2.8846,4.8953,-4.9597,-15.987,10.837,-2.0513
11.311,8.6349,18.601999,0.0,7.8818,4.6829,3.8647,0.90615,-2.0163,0.0,7.8818,11.823,6.6667,-1.9683,9.5873,-0.96154,2.963,7.6006,-12.196,13.793,-5.8974
11.311,4.8254,18.601999,0.97561,-3.9409,2.7317,3.8647,4.7896,-2.0163,0.97561,-3.9409,10.837,11.429,0.88889,11.492,-4.8077,2.963,11.465,-8.4044,13.793,-7.8205
19.841999,2.9206,24.455,0.97561,-9.8522,8.5854,7.7295,2.8479,-7.8699,0.97561,-9.8522,13.793,17.143,1.8413,18.159,-4.8077,6.8277,11.465,-15.987,18.719,-7.8205
19.841999,-1.8413,22.504,-9.7561,-13.793,7.6098,3.8647,12.557,-10.797,-9.7561,-13.793,10.837,14.286,-1.0159,17.205999,-10.577,3.9291,9.533,-22.622,18.719,-12.628
16.051001,-5.6508,17.625999,-9.7561,-20.690001,11.512,1.9324,18.382,-7.8699,-9.7561,-20.690001,8.867,8.5714,-5.7778,13.397,-15.385,0.06441,3.7359,-36.84,14.778,-13.59
13.207,-11.365,8.8455,-5.8537,-15.764,9.561,-7.7295,8.6731,-8.8455,-5.8537,-15.764,2.9557,0.0,-11.492,7.6825,-21.153999,-5.7327,-9.7907,-20.726999,5.9113,-22.243999
7.5197,-12.317,2.9919,-8.7805,-5.9113,1.7561,-12.56,8.6731,-9.8211,-8.7805,-5.9113,-0.98522,-0.95238,-11.492,4.8254,-22.115,-7.6651,-0.12882,-5.5608,1.9704,-22.243999
6.5719,-14.222,0.06504,-4.878,-2.9557,2.7317,-9.6618,10.615,-3.9675,-4.878,-2.9557,-1.9704,-3.8095,-16.254,2.9206,-22.115,-9.5974,13.398,-14.092,1.9704,-21.282
6.5719,-14.222,-3.8374,2.9268,-9.8522,8.5854,-9.6618,4.7896,-3.9675,2.9268,-9.8522,-3.9409,-8.5714,-20.063,0.06349,-22.115,-11.53,7.6006,-13.144,-1.9704,-21.282
-1.0111,-16.127001,-12.618,-3.9024,-18.719,-1.1707,-12.56,4.7896,-3.9675,-3.9024,-18.719,-10.837,-15.238,-22.921,-6.6032,-21.153999,-16.361,4.7021,-6.5087,-5.9113,-19.358999
-5.7504,-12.317,-17.496,-11.707,-11.823,-8.9756,-18.357,8.6731,0.91057,-11.707,-11.823,-12.808,-19.048,-21.016001,-10.413,-17.308001,-18.292999,1.8035,-10.3,-7.8818,-9.7436
-13.333,-10.413,-20.423,-14.634,-12.808,-8.9756,-18.357,-6.8608,-2.0163,-14.634,-12.808,-16.749001,-20.0,-14.349,-17.079,-16.346001,-20.225,-7.8583,-6.5087,-19.704,-6.859
-19.021,-6.6032,-22.374001,-19.511999,-15.764,-17.756001,-15.459,-13.657,-7.8699,-19.511999,-15.764,-20.690001,-18.094999,-11.492,-20.889,-13.462,-20.225,-12.689,5.8136,-21.674999,-4.9359
-22.812,-5.6508,-24.325001,-24.389999,-14.778,-23.610001,-16.424999,-16.57,-6.8943,-24.389999,-14.778,-23.645,-15.238,-4.8254,-21.841,-8.6538,-17.327,-18.486,19.084,-16.749001,4.6795
-20.916,-2.7937,-22.374001,-24.389999,-19.704,-22.634001,-15.459,-18.511,-3.9675,-24.389999,-19.704,-20.690001,-12.381,1.8413,-19.937,-3.8462,-14.428,-24.283001,20.979,-13.793,12.372
-19.021,-0.88889,-18.472,-21.462999,-18.719,-18.732,-17.391001,-18.511,-4.9431,-21.462999,-18.719,-18.719,-9.5238,6.6032,-17.079,0.96154,-9.5974,-12.689,15.292,-11.823,16.218
-19.968,1.0159,-12.618,-16.584999,-17.733999,-22.634001,-10.628,-12.686,-4.9431,-16.584999,-17.733999,-17.733999,-2.8571,10.413,-14.222,6.7308,-2.8341,-4.9597,15.292,-10.837,20.063999
-19.021,3.873,-7.7398,-17.561001,-18.719,-21.659,-9.6618,-18.511,-2.9919,-17.561001,-18.719,-16.749001,0.0,15.175,-12.317,10.577,1.9968,-20.419001,5.8136,-10.837,21.987
-23.76,2.9206,-10.667,-18.537001,-14.778,-22.634001,-6.7633,-24.337,-7.8699,-18.537001,-14.778,-18.719,-2.8571,10.413,-15.175,5.7692,-0.90177,-24.283001,1.0742,-13.793,17.179001
-19.968,5.7778,-9.6911,-15.61,-5.9113,-21.659,-6.7633,-15.599,-2.9919,-15.61,-5.9113,-16.749001,3.8095,9.4603,-10.413,7.6923,3.9291,-12.689,8.6572,-7.8818,15.256
-14.281,1.0159,-10.667,-15.61,-6.8966,-17.756001,-9.6618,-17.540001,-1.0407,-15.61,-6.8966,-16.749001,3.8095,4.6984,-9.4603,3.8462,3.9291,-11.723,20.979,-9.8522,9.4872
-15.229,-7.5556,-11.642,-18.537001,-6.8966,-18.732,-7.7295,-16.57,3.8374,-18.537001,-6.8966,-15.764,-0.95238,-1.9683,-12.317,-4.8077,0.06441,-24.283001,16.24,-20.690001,-2.0513
-19.021,-13.27,-13.593,-15.61,-5.9113,-12.878,-6.7633,-21.424,5.7886,-15.61,-5.9113,-12.808,-1.9048,-1.9683,-16.127001,-10.577,-4.7665,-18.486,5.8136,-21.674999,-5.8974
-21.864,-14.222,-17.496,-5.8537,-0.98522,-18.732,-8.6957,-13.657,6.7642,-5.8537,-0.98522,-14.778,-4.7619,-1.9683,-20.889,-13.462,-8.6312,-17.52,9.6051,-19.704,-3.9744
-16.177,-7.5556,-13.593,0.0,8.867,-16.780001,-1.9324,-10.744,9.6911,0.0,8.867,-8.867,-3.8095,1.8413,-18.032,-8.6538,-5.7327,-16.554001,17.188,-17.733999,0.83333
-14.281,-4.6984,-9.6911,-4.878,2.9557,-7.0244,-1.9324,-14.628,7.7398,-4.878,2.9557,-5.9113,-5.7143,-0.06349,-15.175,-6.7308,-4.7665,-24.283001,5.8136,-19.704,-2.0513
-8.594,1.9683,-0.91057,1.9512,7.8818,-0.19512,-0.96618,-6.8608,9.6911,1.9512,7.8818,0.0,-6.6667,2.7937,-11.365,0.96154,-0.90177,-18.486,9.6051,-22.66,2.7564
-3.8547,11.492,7.8699,0.0,6.8966,-0.19512,6.7633,-4.9191,14.569,0.0,6.8966,3.9409,-1.9048,13.27,-6.6032,10.577,5.8615,-17.52,23.823,-18.719,10.449
-4.8025,19.111,8.8455,-1.9512,4.9261,-2.1463,15.459,-10.744,16.52,-1.9512,4.9261,5.9113,-3.8095,12.317,-7.5556,16.346001,6.8277,-26.216,32.354,-21.674999,13.333
-11.438,21.016001,3.9675,-8.7805,12.808,-9.9512,17.391001,-9.7735,20.423,-8.7805,12.808,1.9704,-4.7619,13.27,-11.365,20.191999,5.8615,-25.25,30.458,-24.631001,19.103001
-12.385,24.825001,3.9675,0.0,16.749001,-14.829,13.527,-11.715,20.423,0.0,16.749001,-0.98522,-4.7619,18.032,-10.413,25.0,8.7601,-24.283001,23.823,-23.645,22.948999
-7.6461,32.444,11.772,2.9268,11.823,-5.0732,23.188,-16.57,18.472,2.9268,11.823,4.9261,-1.9048,22.794001,-6.6032,32.692001,14.557,-28.148001,28.562,-24.631001,29.679001
-9.5419,33.396999,9.8211,-0.97561,10.837,-6.0488,23.188,-20.452999,21.398001,-0.97561,10.837,5.9113,-2.8571,21.841,-7.5556,32.692001,12.625,-44.573002,25.719,-25.615999,29.679001
-13.333,28.635,6.8943,-1.9512,12.808,-7.0244,23.188,-28.219999,22.374001,-1.9512,12.808,6.8966,-6.6667,15.175,-10.413,29.808001,10.692,-37.810001,27.615,-27.586,26.795
-15.229,26.73,5.9187,-7.8049,13.793,-12.878,16.424999,-27.249001,17.496,-7.8049,13.793,4.9261,-10.476,10.413,-12.317,27.885,7.7939,-35.877998,18.136,-32.512001,28.718
-12.385,22.921,6.8943,-4.878,21.674999,-13.854,15.459,-25.306999,16.52,-4.878,21.674999,4.9261,-7.619,4.6984,-11.365,22.115,4.8953,-40.709,26.667,-31.527,20.063999
-11.438,17.205999,5.9187,3.9024,20.690001,-5.0732,17.391001,-26.278,15.545,3.9024,20.690001,6.8966,-4.7619,-0.06349,-10.413,15.385,2.963,-37.810001,28.562,-25.615999,9.4872
-6.6983,18.159,8.8455,13.659,19.704,-3.122,26.087,-8.8026,11.642,13.659,19.704,12.808,-1.9048,2.7937,-6.6032,12.5,2.963,-25.25,18.136,-18.719,9.4872
-1.0111,14.349,9.8211,24.389999,23.645,2.7317,28.018999,5.7605,18.472,24.389999,23.645,18.719,-1.9048,-0.06349,-4.6984,4.8077,0.06441,-8.8245,5.8136,-11.823,4.6795
1.8325,8.6349,11.772,26.341,31.527,5.6585,29.952,10.615,20.423,26.341,31.527,22.66,-2.8571,-0.06349,-4.6984,-3.8462,-3.8003,-2.0612,-8.4044,-8.867,0.83333
10.363,10.54,16.65,25.365999,33.498001,16.389999,29.952,19.353001,19.447001,25.365999,33.498001,28.570999,1.9048,5.6508,1.0159,-3.8462,-0.90177,0.83736,-0.82148,-2.9557,4.6795
12.259,6.7302,15.675,30.243999,26.601,20.292999,24.155001,19.353001,12.618,30.243999,26.601,27.586,2.8571,6.6032,0.06349,-6.7308,-3.8003,11.465,11.501,-2.9557,-0.12821
10.363,5.7778,9.8211,27.316999,28.570999,21.268,20.290001,21.294001,7.7398,27.316999,28.570999,25.615999,-2.8571,1.8413,-6.6032,-9.6154,-9.5974,10.499,10.553,-7.8818,-10.705
11.311,9.5873,7.8699,28.292999,25.615999,26.146,23.188,22.264999,7.7398,28.292999,25.615999,25.615999,-5.7143,-0.06349,-9.4603,-4.8077,-10.564,11.465,7.7093,-8.867,-10.705
6.5719,6.7302,2.0163,24.389999,18.719,27.122,17.391001,25.177999,7.7398,24.389999,18.719,20.690001,-9.5238,-2.9206,-12.317,-3.8462,-13.462,5.6683,4.8657,-8.867,-5.8974
2.7804,5.7778,-3.8374,17.561001,8.867,17.365999,9.6618,22.264999,0.91057,17.561001,8.867,10.837,-12.381,-7.6825,-14.222,-3.8462,-15.395,2.7697,2.97,-8.867,-5.8974
4.6761,7.6825,-2.8618,19.511999,3.9409,15.415,4.8309,19.353001,-2.9919,19.511999,3.9409,6.8966,-6.6667,-1.9683,-8.5079,5.7692,-8.6312,10.499,-15.987,-0.98522,4.6795
2.7804,2.9206,-5.7886,11.707,1.9704,14.439,-9.6618,17.410999,-4.9431,11.707,1.9704,-0.98522,-4.7619,-0.06349,-5.6508,9.6154,-3.8003,16.296,-1.7694,3.9409,7.5641
5.624,1.0159,-4.813,9.7561,-1.9704,9.561,-21.256001,15.469,-10.797,9.7561,-1.9704,-4.9261,1.9048,3.746,0.06349,12.5,1.0306,24.992001,16.24,7.8818,8.5256
4.6761,-3.746,-5.7886,2.9268,-12.808,2.7317,-24.155001,11.586,-13.724,2.9268,-12.808,-9.8522,5.7143,9.4603,2.9206,12.5,4.8953,23.059999,5.8136,11.823,11.41
0.88468,-13.27,-7.7398,-7.8049,-21.674999,3.7073,-24.155001,-2.0065,-18.601999,-7.8049,-21.674999,-14.778,10.476,15.175,4.8254,10.577,7.7939,16.296,-1.7694,17.733999,18.141001
-0.06319,-17.079,-10.667,-12.683,-20.690001,-4.0976,-28.986,2.8479,-22.504,-12.683,-20.690001,-18.719,14.286,19.937,5.7778,6.7308,8.7601,13.398,-4.613,20.690001,20.063999
-3.8547,-18.983999,-16.52,-14.634,-24.631001,-13.854,-32.849998,-0.06472,-29.333,-14.634,-24.631001,-25.615999,16.190001,23.746,5.7778,0.96154,8.7601,8.5668,-16.934999,21.674999,19.103001
-3.8547,-16.127001,-14.569,-14.634,-24.631001,-14.829,-27.052999,-9.7735,-27.382,-14.634,-24.631001,-23.645,20.952,29.459999,8.6349,0.96154,10.692,12.432,-23.57,21.674999,21.987
-11.438,-14.222,-16.52,-20.488001,-27.586,-21.659,-24.155001,-10.744,-27.382,-20.488001,-27.586,-26.601,21.905001,28.507999,7.6825,-2.8846,9.7262,0.83736,-5.5608,20.690001,18.141001
-18.073,-20.889,-22.374001,-28.292999,-27.586,-23.610001,-28.018999,-23.365999,-22.504,-28.292999,-27.586,-30.542,20.952,24.698,1.9683,-9.6154,4.8953,-1.095,-1.7694,19.704,7.5641
-15.229,-20.889,-20.423,-23.415001,-21.674999,-22.634001,-23.188,-19.482,-17.625999,-23.415001,-21.674999,-27.586,24.761999,24.698,1.9683,-9.6154,5.8615,4.7021,-17.882999,23.645,5.641
-10.49,-19.937,-15.545,-21.462999,-19.704,-21.659,-16.424999,-3.9482,-14.699,-21.462999,-19.704,-21.674999,27.618999,24.698,5.7778,-5.7692,8.7601,6.6345,-14.092,27.586,3.7179
-9.5419,-18.983999,-12.618,-21.462999,-8.867,-16.780001,-8.6957,-1.0356,-8.8455,-21.462999,-8.867,-15.764,25.714001,22.794001,4.8254,-4.8077,8.7601,11.465,-15.039,24.631001,1.7949
-14.281,-17.079,-15.545,-16.584999,-8.867,-15.805,-10.628,-13.657,-9.8211,-16.584999,-8.867,-14.778,18.094999,11.365,-0.88889,-8.6538,2.963,2.7697,-26.414,16.749001,-3.9744
-7.6461,-10.413,-10.667,-13.659,-11.823,-15.805,-3.8647,-13.657,-11.772,-13.659,-11.823,-11.823,15.238,8.5079,1.9683,-3.8462,3.9291,-7.8583,-15.987,12.808,-0.12821
-2.9068,-9.4603,-5.7886,-7.8049,-9.8522,-7.0244,-4.8309,-11.715,-13.724,-7.8049,-9.8522,-7.8818,13.333,7.5556,5.7778,-2.8846,4.8953,-6.8921,-0.82148,9.8522,-1.0897
-0.06319,-7.5556,-0.91057,-4.878,-6.8966,-7.0244,-5.7971,-7.8317,-16.65,-4.878,-6.8966,-4.9261,13.333,3.746,9.5873,-1.9231,5.8615,6.6345,-0.82148,9.8522,-4.9359
3.7283,-7.5556,1.0407,-14.634,-12.808,-6.0488,-4.8309,-11.715,-10.797,-14.634,-12.808,-3.9409,10.476,0.88889,9.5873,-1.9231,3.9291,10.499,-1.7694,11.823,-5.8974
7.5197,-9.4603,1.0407,-10.732,-10.837,-3.122,-2.8986,-3.9482,-5.9187,-10.732,-10.837,-3.9409,9.5238,0.88889,11.492,-1.9231,2.963,15.33,-15.039,15.764,-3.0128
14.155,-6.6032,3.9675,-11.707,-10.837,-1.1707,0.0,2.8479,-7.8699,-11.707,-10.837,-0.98522,10.476,-1.9683,16.254,-2.8846,2.963,24.025999,-14.092,21.674999,-3.0128
16.051001,-8.5079,4.9431,-13.659,-14.778,1.7561,-6.7633,5.7605,-14.699,-13.659,-14.778,-1.9704,11.429,-5.7778,19.111,-4.8077,2.963,19.195,-9.3523,25.615999,-4.9359
26.476999,-4.6984,11.772,-6.8293,-11.823,9.561,-6.7633,4.7896,-10.797,-6.8293,-11.823,1.9704,20.0,4.6984,26.73,2.8846,10.692,21.127001,-11.248,34.483002,5.641
24.580999,-10.413,8.8455,-1.9512,-6.8966,7.6098,-15.459,4.7896,-8.8455,-1.9512,-6.8966,-0.98522,24.761999,5.6508,28.635,0.96154,12.625,19.195,-0.82148,39.409,2.7564
14.155,-20.889,-1.8862,-8.7805,-9.8522,-0.19512,-24.155001,-0.06472,-14.699,-8.7805,-9.8522,-9.8522,18.094999,0.88889,21.016001,-8.6538,4.8953,26.924,-1.7694,34.483002,-7.8205
8.4676,-21.841,-7.7398,-19.511999,-17.733999,-2.1463,-23.188,-5.89,-17.625999,-19.511999,-17.733999,-13.793,10.476,-1.0159,14.349,-13.462,-0.90177,25.958,-21.674999,30.542,-10.705
2.7804,-21.841,-10.667,-18.537001,-20.690001,-7.0244,-21.256001,-5.89,-17.625999,-18.537001,-20.690001,-14.778,8.5714,-2.9206,9.5873,-17.308001,-5.7327,19.195,-19.778999,28.570999,-11.667
-2.9068,-23.746,-14.569,-20.488001,-17.733999,-13.854,-24.155001,-5.89,-12.748,-20.488001,-17.733999,-16.749001,5.7143,-2.9206,2.9206,-21.153999,-11.53,16.296,-15.987,22.66,-12.628
-7.6461,-25.650999,-18.472,-18.537001,-20.690001,-13.854,-27.052999,-12.686,-9.8211,-18.537001,-20.690001,-18.719,0.95238,-6.7302,-4.6984,-26.923,-19.259001,7.6006,-18.830999,17.733999,-15.513
-6.6983,-22.794001,-19.447001,-11.707,-12.808,-8.9756,-22.222,-10.744,-7.8699,-11.707,-12.808,-14.778,1.9048,-5.7778,-6.6032,-25.962,-22.158001,-1.095,-18.830999,18.719,-11.667
-9.5419,-24.698,-23.35,-14.634,-4.9261,-7.0244,-13.527,-18.511,-7.8699,-14.634,-4.9261,-12.808,1.9048,-5.7778,-8.5079,-25.962,-24.09,-2.0612,-4.613,16.749001,-13.59
-18.073,-25.650999,-30.179001,-16.584999,-6.8966,-16.780001,-17.391001,-13.657,-2.0163,-16.584999,-6.8966,-18.719,-0.95238,-8.6349,-16.127001,-26.923,-28.921,4.7021,-5.5608,9.8522,-16.474001
-20.916,-21.841,-31.153999,-15.61,-7.8818,-19.707001,-18.357,-17.540001,3.8374,-15.61,-7.8818,-20.690001,-0.95238,-4.8254,-19.937,-23.077,-29.886999,-3.0274,-0.82148,7.8818,-6.859
-24.708,-12.317,-26.275999,-18.537001,-10.837,-24.584999,-10.628,-23.365999,2.8618,-18.537001,-10.837,-19.704,-1.9048,-1.0159,-20.889,-15.385,-26.989,-15.588,6.7615,2.9557,1.7949
-22.812,2.9206,-18.472,-18.537001,-6.8966,-21.659,-4.8309,-24.337,3.8374,-18.537001,-6.8966,-14.778,0.95238,6.6032,-16.127001,-2.8846,-18.292999,-17.52,6.7615,4.9261,13.333
-17.125,12.444,-9.6911,-24.389999,-8.867,-20.683001,2.8986,-21.424,3.8374,-24.389999,-8.867,-11.823,1.9048,10.413,-8.5079,9.6154,-7.6651,-12.689,8.6572,1.9704,21.025999
-6.6983,14.349,-0.91057,-17.561001,-12.808,-12.878,6.7633,-16.57,4.813,-17.561001,-12.808,-7.8818,2.8571,11.365,0.06349,17.308001,2.963,-14.622,5.8136,0.98522,21.987
6.5719,18.159,10.797,-5.8537,0.98522,-2.1463,11.594,-5.89,6.7642,-5.8537,0.98522,0.98522,11.429,18.983999,15.302,27.885,16.49,-3.9936,10.553,10.837,31.603001
11.311,19.111,13.724,-5.8537,4.9261,3.7073,8.6957,-1.0356,0.91057,-5.8537,4.9261,4.9261,12.381,18.032,20.063,28.846001,20.354,22.093,19.084,14.778,27.756001
14.155,17.205999,11.772,0.97561,4.9261,5.6585,4.8309,8.6731,-1.0407,0.97561,4.9261,5.9113,8.5714,12.317,19.111,24.038,18.422001,26.924,16.24,15.764,18.141001
16.997999,16.254,12.748,4.878,2.9557,12.488,6.7633,19.353001,-2.0163,4.878,2.9557,8.867,8.5714,8.5079,21.016001,23.077,18.422001,24.992001,9.6051,17.733999,13.333
23.632999,14.349,16.65,8.7805,1.9704,17.365999,11.594,28.091,-5.9187,8.7805,1.9704,12.808,14.286,8.5079,26.73,22.115,21.32,35.619999,-8.4044,29.556999,10.449
28.372999,9.5873,18.601999,18.537001,3.9409,20.292999,10.628,30.032,-2.0163,18.537001,3.9409,14.778,14.286,7.5556,28.635,16.346001,19.388,31.754999,-12.196,30.542,5.641
30.268999,6.7302,19.577,21.462999,5.9113,21.268,9.6618,28.091,-2.9919,21.462999,5.9113,15.764,13.333,8.5079,30.540001,11.538,18.422001,33.688,-0.82148,26.601,4.6795
33.112,2.9206,19.577,18.537001,9.8522,27.122,5.7971,31.003,-7.8699,18.537001,9.8522,15.764,17.143,1.8413,33.396999,4.8077,16.49,41.417,-4.613,29.556999,-5.8974
36.903999,-1.8413,18.601999,21.462999,8.867,32.976002,1.9324,35.858002,-3.9675,21.462999,8.867,16.749001,18.094999,-1.9683,33.396999,-1.9231,14.557,41.417,-13.144,33.498001,-13.59
34.060001,-7.5556,14.699,22.438999,1.9704,34.926998,-6.7633,29.061001,-4.9431,22.438999,1.9704,14.778,18.094999,-5.7778,30.540001,-10.577,8.7601,44.316002,-26.414,33.498001,-20.320999
31.216,-11.365,9.8211,17.561001,-5.9113,30.049,-4.8309,31.974001,-8.8455,17.561001,-5.9113,11.823,15.238,-8.6349,24.825001,-14.423,2.963,40.451,-30.205,28.570999,-20.320999
30.268999,-12.317,7.8699,15.61,-8.867,25.171,0.0,35.858002,-9.8211,15.61,-8.867,9.8522,13.333,-10.54,21.016001,-16.346001,1.0306,30.789,-17.882999,23.645,-23.205
24.580999,-12.317,4.9431,14.634,-2.9557,23.219999,-4.8309,33.916,-14.699,14.634,-2.9557,6.8966,8.5714,-14.349,16.254,-18.268999,-1.868,24.992001,-12.196,15.764,-27.051001
18.893999,-11.365,2.9919,20.488001,4.9261,17.365999,-12.56,28.091,-12.748,20.488001,4.9261,3.9409,2.8571,-20.063,11.492,-17.308001,-3.8003,14.364,-25.466,9.8522,-27.051001
16.051001,-12.317,2.9919,19.511999,1.9704,20.292999,-13.527,10.615,-7.8699,19.511999,1.9704,2.9557,-0.95238,-19.111,9.5873,-13.462,-2.8341,15.33,-16.934999,8.867,-23.205
16.997999,-7.5556,6.8943,16.584999,-3.9409,20.292999,-8.6957,20.323999,-5.9187,16.584999,-3.9409,4.9261,-0.95238,-14.349,9.5873,-5.7692,1.0306,18.229,-1.7694,6.8966,-17.436001
15.103,-1.8413,10.797,15.61,-2.9557,14.439,-2.8986,28.091,-5.9187,15.61,-2.9557,6.8966,-3.8095,-14.349,8.6349,0.0,3.9291,23.059999,-8.4044,3.9409,-14.551
12.259,-1.8413,9.8211,14.634,-3.9409,12.488,-0.96618,23.236,-2.9919,14.634,-3.9409,5.9113,-9.5238,-15.302,5.7778,0.96154,3.9291,24.025999,-8.4044,0.0,-14.551
14.155,1.9683,12.748,9.7561,1.9704,17.365999,0.96618,17.410999,-0.06504,9.7561,1.9704,7.8818,-9.5238,-14.349,4.8254,2.8846,6.8277,7.6006,-9.3523,-8.867,-16.474001
11.311,7.6825,14.699,15.61,9.8522,17.365999,3.8647,11.586,2.8618,15.61,9.8522,9.8522,-10.476,-13.397,2.9206,6.7308,9.7262,-2.0612,-11.248,-13.793,-15.513
4.6761,5.7778,10.797,20.488001,5.9113,12.488,0.0,-2.0065,-2.9919,20.488001,5.9113,5.9113,-13.333,-9.5873,-2.7937,5.7692,7.7939,-12.689,-1.7694,-17.733999,-7.8205
0.88468,5.7778,9.8211,13.659,1.9704,1.7561,4.8309,4.7896,-2.9919,13.659,1.9704,3.9409,-11.429,-5.7778,-4.6984,6.7308,7.7939,-6.8921,4.8657,-16.749001,-2.0513
4.6761,11.492,14.699,12.683,6.8966,4.6829,10.628,10.615,1.8862,12.683,6.8966,9.8522,-4.7619,-0.06349,-0.88889,9.6154,12.625,1.8035,0.12638,-9.8522,0.83333
0.88468,14.349,16.65,9.7561,6.8966,5.6585,14.493,3.8188,5.7886,9.7561,6.8966,12.808,-3.8095,1.8413,-2.7937,10.577,13.591,-9.7907,-8.4044,-14.778,3.7179
0.88468,17.205999,17.625999,6.8293,3.9409,5.6585,19.323999,-1.0356,3.8374,6.8293,3.9409,14.778,-5.7143,-0.06349,-4.6984,10.577,12.625,-18.486,-2.7172,-18.719,2.7564
3.7283,17.205999,18.601999,11.707,13.793,9.561,22.222,-7.8317,5.7886,11.707,13.793,17.733999,-5.7143,-1.0159,-4.6984,8.6538,10.692,-27.181999,-1.7694,-19.704,-3.9744
4.6761,15.302,19.577,9.7561,15.764,8.5854,21.256001,-5.89,9.6911,9.7561,15.764,18.719,-4.7619,-0.06349,-2.7937,7.6923,10.692,-23.316999,3.9179,-19.704,-3.0128
7.5197,14.349,19.577,5.8537,14.778,8.5854,22.222,-2.0065,9.6911,5.8537,14.778,20.690001,-4.7619,-0.06349,-0.88889,8.6538,10.692,-16.554001,6.7615,-17.733999,-1.0897
9.4155,20.063,22.504,17.561001,20.690001,14.439,24.155001,-7.8317,11.642,17.561001,20.690001,24.631001,-2.8571,1.8413,1.9683,12.5,11.659,-19.452,8.6572,-18.719,2.7564
8.4676,22.921,22.504,22.438999,23.645,14.439,28.986,-1.0356,12.618,22.438999,23.645,27.586,-1.9048,6.6032,3.873,18.268999,15.523,-20.419001,13.397,-21.674999,6.6026
1.8325,20.063,16.65,11.707,12.808,7.6098,27.052999,1.877,11.642,11.707,12.808,22.66,-4.7619,4.6984,-0.88889,17.308001,12.625,-26.216,2.97,-24.631001,6.6026
-1.9589,17.205999,12.748,7.8049,15.764,2.7317,18.357,-6.8608,11.642,7.8049,15.764,17.733999,-4.7619,7.5556,-1.8413,20.191999,12.625,-34.910999,6.7615,-20.690001,10.449
-0.06319,17.205999,12.748,9.7561,21.674999,7.6098,20.290001,-10.744,12.618,9.7561,21.674999,17.733999,-3.8095,7.5556,0.06349,24.038,15.523,-25.25,12.449,-20.690001,15.256
-3.8547,9.5873,6.8943,7.8049,14.778,2.7317,9.6618,-8.8026,10.667,7.8049,14.778,10.837,-3.8095,3.746,-2.7937,19.231001,12.625,-18.486,17.188,-19.704,7.5641
-3.8547,3.873,2.9919,0.0,7.8818,1.7561,4.8309,-6.8608,2.8618,0.0,7.8818,6.8966,-3.8095,1.8413,-3.746,13.462,10.692,-18.486,6.7615,-15.764,1.7949
0.88468,3.873,5.9187,5.8537,0.98522,2.7317,0.0,-2.9773,-4.9431,5.8537,0.98522,4.9261,0.95238,7.5556,1.9683,15.385,14.557,-15.588,2.97,-10.837,7.5641
-1.0111,-5.6508,1.0407,5.8537,-2.9557,3.7073,-6.7633,-4.9191,-6.8943,5.8537,-2.9557,0.0,0.0,2.7937,1.0159,9.6154,12.625,-5.9259,-8.4044,-6.8966,0.83333
-6.6983,-10.413,-3.8374,2.9268,-0.98522,-6.0488,-11.594,3.8188,-4.9431,2.9268,-0.98522,-5.9113,-1.9048,-7.6825,-0.88889,2.8846,7.7939,2.7697,-5.5608,0.0,-6.859
-6.6983,-7.5556,-3.8374,0.0,-2.9557,-10.927,-9.6618,2.8479,-1.0407,0.0,-2.9557,-8.867,-2.8571,-9.5873,-0.88889,0.0,4.8953,-1.095,2.97,2.9557,-6.859
-11.438,-1.8413,-4.813,-4.878,-6.8966,-14.829,-6.7633,-2.9773,2.8618,-4.878,-6.8966,-9.8522,-7.619,-9.5873,-4.6984,-1.9231,0.06441,-6.8921,-1.7694,-1.9704,-1.0897
-22.812,-0.88889,-14.569,-8.7805,-3.9409,-23.610001,-6.7633,-5.89,-0.06504,-8.7805,-3.9409,-16.749001,-20.0,-16.254,-20.889,-13.462,-15.395,-12.689,3.9179,-14.778,-8.7821
-35.133999,-5.6508,-25.301001,-22.438999,-13.793,-25.561001,-6.7633,-11.715,-0.06504,-22.438999,-13.793,-20.690001,-30.476,-20.063,-36.126999,-24.038,-31.82,-10.757,0.12638,-22.66,-13.59
-33.238998,0.06349,-23.35,-10.732,-6.8966,-15.805,0.96618,-15.599,3.8374,-10.732,-6.8966,-12.808,-30.476,-14.349,-38.984001,-22.115,-34.717999,-9.7907,-9.3523,-27.586,-7.8205
-31.343,0.06349,-23.35,-9.7561,-3.9409,-18.732,-4.8309,-11.715,-2.0163,-9.7561,-3.9409,-12.808,-29.524,-11.492,-41.841,-23.077,-37.617001,-20.419001,0.12638,-29.556999,-4.9359
-26.603001,2.9206,-18.472,-5.8537,-0.98522,-15.805,-1.9324,-3.9482,3.8374,-5.8537,-0.98522,-9.8522,-25.714001,-3.873,-38.032001,-15.385,-32.785999,-19.452,2.97,-25.615999,4.6795
-21.864,3.873,-15.545,-8.7805,-4.9261,-11.902,0.96618,-7.8317,0.91057,-8.7805,-4.9261,-6.8966,-24.761999,-4.8254,-36.126999,-12.5,-29.886999,-12.689,7.7093,-26.601,2.7564
-21.864,-2.7937,-18.472,-10.732,-10.837,-14.829,-5.7971,-13.657,-2.0163,-10.732,-10.837,-10.837,-24.761999,-9.5873,-36.126999,-14.423,-30.853001,-20.419001,8.6572,-29.556999,-3.0128
-15.229,-0.88889,-10.667,-8.7805,-1.9704,-8.9756,-0.96618,-20.452999,1.8862,-8.7805,-1.9704,-5.9113,-17.143,-4.8254,-25.650999,-6.7308,-20.225,-28.148001,14.344,-23.645,2.7564
-6.6983,3.873,0.06504,-7.8049,0.0,-2.1463,2.8986,-15.599,5.7886,-7.8049,0.0,0.0,-7.619,3.746,-12.317,4.8077,-5.7327,-14.622,20.032,-16.749001,11.41
3.7283,6.7302,7.8699,-3.9024,1.9704,10.537,3.8647,-18.511,6.7642,-3.9024,1.9704,4.9261,4.7619,8.5079,2.9206,12.5,7.7939,-6.8921,10.553,-2.9557,14.295
12.259,10.54,12.748,4.878,8.867,11.512,3.8647,-2.9773,5.7886,4.878,8.867,5.9113,17.143,17.079,18.159,20.191999,20.354,5.6683,-9.3523,11.823,19.103001
16.997999,5.7778,14.699,9.7561,10.837,4.6829,-0.96618,12.557,-1.0407,9.7561,10.837,3.9409,22.857,21.841,25.778,22.115,28.084,16.296,2.97,17.733999,20.063999
16.997999,-5.6508,11.772,3.9024,5.9113,1.7561,-1.9324,9.644,-0.06504,3.9024,5.9113,0.98522,24.761999,18.032,27.683001,15.385,28.084,12.432,14.344,20.690001,10.449
15.103,-11.365,9.8211,1.9512,-4.9261,3.7073,0.0,5.7605,-3.9675,1.9512,-4.9261,-0.98522,24.761999,12.317,26.73,7.6923,24.219,20.160999,7.7093,25.615999,1.7949
12.259,-10.413,8.8455,7.8049,3.9409,1.7561,-3.8647,7.7023,5.7886,7.8049,3.9409,-0.98522,26.667,10.413,27.683001,2.8846,22.287001,24.992001,-2.7172,25.615999,-0.12821
0.88468,-12.317,2.9919,6.8293,14.778,-5.0732,-2.8986,-4.9191,11.642,6.8293,14.778,-3.9409,20.0,3.746,16.254,-4.8077,12.625,16.296,-8.4044,15.764,-6.859
-9.5419,-13.27,-4.813,-6.8293,4.9261,-13.854,-3.8647,-10.744,8.7154,-6.8293,4.9261,-10.837,7.619,-6.7302,1.9683,-13.462,0.06441,4.7021,-0.82148,7.8818,-10.705
-20.916,-15.175,-11.642,-14.634,-4.9261,-25.561001,-7.7295,-11.715,7.7398,-14.634,-4.9261,-17.733999,-1.9048,-8.6349,-11.365,-17.308001,-9.5974,-9.7907,2.0221,-2.9557,-9.7436
-24.708,-11.365,-16.52,-16.584999,-5.9113,-28.488001,-6.7633,-14.628,9.6911,-16.584999,-5.9113,-20.690001,-7.619,-1.9683,-19.937,-13.462,-14.428,-13.655,5.8136,-10.837,-0.12821
-34.186001,-14.222,-26.275999,-28.292999,-13.793,-34.341,-10.628,-29.191,5.7886,-28.292999,-13.793,-27.586,-15.238,-2.9206,-32.317001,-18.268999,-23.124001,-21.385,14.344,-18.719,-2.0513
-42.716999,-16.127001,-34.081001,-39.023998,-24.631001,-45.073002,-18.357,-35.987,-0.06504,-39.023998,-24.631001,-34.483002,-22.857,-3.873,-41.841,-22.115,-30.853001,-30.080999,6.7615,-32.512001,-3.9744
-42.716999,-13.27,-35.056999,-38.049,-22.66,-45.073002,-23.188,-39.870998,-2.0163,-38.049,-22.66,-36.452999,-20.952,1.8413,-42.793999,-16.346001,-29.886999,-32.013,12.449,-33.498001,4.6795
-38.925999,-8.5079,-32.130001,-30.243999,-15.764,-36.292999,-22.222,-40.841,-2.0163,-30.243999,-15.764,-33.498001,-17.143,8.5079,-38.032001,-9.6154,-26.023001,-34.910999,17.188,-26.601,12.372
-33.238998,-5.6508,-28.228001,-26.341,-16.749001,-31.415001,-15.459,-25.306999,-2.9919,-26.341,-16.749001,-29.556999,-16.190001,9.4603,-31.365,-5.7692,-22.158001,-24.283001,13.397,-21.674999,14.295
-28.499001,-6.6032,-27.252001,-33.171001,-31.527,-28.488001,-10.628,-20.452999,-6.8943,-33.171001,-31.527,-27.586,-19.048,6.6032,-28.507999,-5.7692,-22.158001,-23.316999,6.7615,-20.690001,13.333
-24.708,-4.6984,-26.275999,-19.511999,-17.733999,-19.707001,-14.493,-20.452999,1.8862,-19.511999,-17.733999,-22.66,-17.143,5.6508,-25.650999,-5.7692,-22.158001,-13.655,5.8136,-15.764,12.372
-19.021,-4.6984,-25.301001,-9.7561,-9.8522,-12.878,-16.424999,-13.657,1.8862,-9.7561,-9.8522,-16.749001,-14.286,1.8413,-21.841,-6.7308,-21.191999,0.83736,4.8657,-11.823,9.4872
-10.49,-5.6508,-20.423,-2.9268,-8.867,-2.1463,-12.56,-0.06472,-0.06504,-2.9268,-8.867,-8.867,-8.5714,2.7937,-12.317,-4.8077,-16.361,10.499,4.8657,0.98522,11.41
-0.06319,-6.6032,-14.569,10.732,6.8966,7.6098,-2.8986,18.382,2.8618,10.732,6.8966,0.0,-5.7143,-3.873,-5.6508,-7.6923,-15.395,23.059999,9.6051,4.9261,2.7564
-0.06319,-11.365,-13.593,9.7561,5.9113,13.463,-0.96618,16.440001,-0.06504,9.7561,5.9113,4.9261,-9.5238,-12.444,-6.6032,-15.385,-19.259001,21.127001,3.9179,3.9409,-8.7821
1.8325,-11.365,-10.667,16.584999,3.9409,18.341,3.8647,10.615,0.91057,16.584999,3.9409,10.837,-11.429,-15.302,-5.6508,-17.308001,-20.225,13.398,-0.82148,4.9261,-9.7436
3.7283,-12.317,-8.7154,22.438999,10.837,13.463,6.7633,21.294001,2.8618,22.438999,10.837,12.808,-10.476,-19.111,-3.746,-20.191999,-20.225,12.432,-3.6651,4.9261,-12.628
11.311,-6.6032,-1.8862,19.511999,12.808,21.268,12.56,26.149,6.7642,19.511999,12.808,19.704,-0.95238,-12.444,3.873,-15.385,-12.496,15.33,-8.4044,9.8522,-12.628
15.103,-5.6508,4.9431,25.365999,23.645,27.122,9.6618,22.264999,17.496,25.365999,23.645,23.645,2.8571,-9.5873,10.54,-10.577,-3.8003,17.261999,-8.4044,12.808,-13.59
16.997999,-1.8413,11.772,25.365999,20.690001,25.171,13.527,26.149,16.52,25.365999,20.690001,23.645,2.8571,-9.5873,15.302,-4.8077,1.9968,24.025999,-3.6651,15.764,-8.7821
20.790001,5.7778,17.625999,21.462999,16.749001,26.146,22.222,22.264999,16.52,21.462999,16.749001,24.631001,5.7143,-10.54,20.063,-0.96154,6.8277,24.992001,3.9179,13.793,-12.628
16.051001,2.9206,13.724,19.511999,19.704,16.389999,22.222,12.557,18.472,19.511999,19.704,19.704,0.95238,-15.302,14.349,-3.8462,1.9968,10.499,7.7093,4.9261,-16.474001
9.4155,5.7778,11.772,12.683,22.66,7.6098,18.357,8.6731,16.52,12.683,22.66,13.793,-5.7143,-19.111,7.6825,-5.7692,-3.8003,-3.0274,-2.7172,0.0,-15.513
7.5197,10.54,13.724,11.707,22.66,11.512,19.323999,-0.06472,21.398001,11.707,22.66,12.808,-9.5238,-17.205999,4.8254,-3.8462,-6.6989,-2.0612,9.6051,-4.9261,-10.705
3.7283,12.444,12.748,5.8537,16.749001,3.7073,19.323999,-0.06472,20.423,5.8537,16.749001,10.837,-9.5238,-15.302,2.9206,-1.9231,-5.7327,-4.9597,20.979,-5.9113,-4.9359
-2.9068,14.349,9.8211,-3.9024,14.778,-7.0244,12.56,-2.9773,20.423,-3.9024,14.778,3.9409,-14.286,-17.205999,-0.88889,0.0,-6.6989,-22.351,14.344,-13.793,-4.9359
-6.6983,15.302,7.8699,-8.7805,13.793,-10.927,12.56,-17.540001,19.447001,-8.7805,13.793,0.0,-18.094999,-17.205999,-4.6984,1.9231,-6.6989,-23.316999,-3.6651,-18.719,-1.0897
-5.7504,14.349,8.8455,-6.8293,10.837,-8.9756,9.6618,-18.511,15.545,-6.8293,10.837,0.0,-15.238,-7.6825,-4.6984,6.7308,-2.8341,-16.554001,8.6572,-18.719,4.6795
-0.06319,16.254,13.724,6.8293,17.733999,-3.122,10.628,-8.8026,18.472,6.8293,17.733999,2.9557,-6.6667,5.6508,-0.88889,15.385,3.9291,-21.385,16.24,-13.793,17.179001
-4.8025,8.6349,7.8699,5.8537,13.793,-7.0244,4.8309,-8.8026,14.569,5.8537,13.793,-2.9557,-12.381,5.6508,-6.6032,11.538,1.0306,-23.316999,11.501,-22.66,11.41
-4.8025,6.7302,4.9431,-1.9512,6.8966,-8.0,0.0,-7.8317,9.6911,-1.9512,6.8966,-4.9261,-14.286,8.5079,-9.4603,8.6538,-1.868,-19.452,14.344,-24.631001,8.5256
-1.9589,7.6825,4.9431,0.0,-2.9557,-3.122,-0.96618,-8.8026,6.7642,0.0,-2.9557,-3.9409,-11.429,14.222,-6.6032,9.6154,1.0306,-15.588,1.0742,-24.631001,13.333
3.7283,11.492,7.8699,2.9268,-0.98522,-0.19512,-5.7971,1.877,1.8862,2.9268,-0.98522,-1.9704,-3.8095,18.032,-1.8413,12.5,6.8277,-18.486,2.0221,-18.719,14.295
7.5197,13.397,9.8211,1.9512,0.0,0.78049,-1.9324,10.615,-2.9919,1.9512,0.0,0.0,3.8095,24.698,4.8254,17.308001,13.591,-7.8583,1.0742,-10.837,18.141001
11.311,11.492,10.797,-7.8049,-5.9113,4.6829,-2.8986,9.644,-8.8455,-7.8049,-5.9113,0.0,10.476,26.603001,9.5873,19.231001,19.388,6.6345,-6.5087,-1.9704,17.179001
16.997999,9.5873,17.625999,-3.9024,-5.9113,11.512,-3.8647,6.7314,-9.8211,-3.9024,-5.9113,5.9113,21.905001,30.413,20.063,23.077,30.016001,12.432,-6.5087,11.823,17.179001
16.997999,7.6825,19.577,5.8537,-8.867,3.7073,0.0,2.8479,-12.748,5.8537,-8.867,4.9261,25.714001,33.27,24.825001,23.077,34.847,9.533,-15.039,12.808,16.218
20.790001,6.7302,23.48,3.9024,-15.764,10.537,1.9324,-2.0065,-11.772,3.9024,-15.764,7.8818,27.618999,29.459999,27.683001,23.077,37.745998,4.7021,-10.3,14.778,13.333
27.424999,9.5873,31.285,6.8293,-5.9113,20.292999,6.7633,11.586,-8.8455,6.8293,-5.9113,16.749001,39.048,32.317001,38.159,28.846001,46.441002,-3.0274,1.0742,24.631001,16.218
28.372999,12.444,35.187,10.732,1.9704,15.415,7.7295,15.469,-6.8943,10.732,1.9704,18.719,45.714001,30.413,42.921001,28.846001,51.271999,13.398,2.0221,32.512001,9.4872
25.528999,15.302,35.187,0.97561,0.98522,13.463,4.8309,7.7023,-3.9675,0.97561,0.98522,14.778,46.667,27.556,44.825001,29.808001,52.237999,22.093,-1.7694,35.467999,4.6795
19.841999,11.492,28.358,-1.9512,-1.9704,10.537,1.9324,-0.06472,-8.8455,-1.9512,-1.9704,9.8522,39.048,23.746,39.111,26.923,47.407001,11.465,-20.726999,29.556999,5.641
15.103,9.5873,24.455,0.97561,-4.9261,0.78049,5.7971,1.877,-10.797,0.97561,-4.9261,6.8966,34.285999,18.983999,35.301998,25.962,42.576,8.5668,-10.3,20.690001,7.5641
14.155,11.492,23.48,-4.878,-16.749001,0.78049,10.628,-0.06472,-6.8943,-4.878,-16.749001,5.9113,30.476,17.079,31.492001,25.0,38.712002,3.7359,3.9179,14.778,8.5256
17.945999,17.205999,26.407,0.0,1.9704,10.537,7.7295,-0.06472,-1.0407,0.0,1.9704,9.8522,29.524,18.032,32.444,26.923,37.745998,-13.655,8.6572,18.719,10.449
16.997999,18.159,25.431,1.9512,9.8522,8.5854,5.7971,0.90615,-1.0407,1.9512,9.8522,9.8522,26.667,16.127001,29.587,27.885,33.881001,-3.0274,5.8136,19.704,13.333
12.259,14.349,17.625999,-6.8293,-2.9557,-0.19512,3.8647,-4.9191,-3.9675,-6.8293,-2.9557,4.9261,19.048,13.27,21.968,23.077,25.184999,5.6683,-0.82148,13.793,12.372
11.311,12.444,13.724,-10.732,-4.9261,2.7317,6.7633,-9.7735,-6.8943,-10.732,-4.9261,2.9557,16.190001,13.27,17.205999,19.231001,18.422001,-3.9936,-6.5087,10.837,14.295
8.4676,7.6825,4.9431,-17.561001,-14.778,3.7073,2.8986,-5.89,-12.748,-17.561001,-14.778,0.98522,17.143,12.317,13.397,11.538,10.692,0.83736,-10.3,14.778,11.41
6.5719,-0.88889,-3.8374,-4.878,-12.808,1.7561,0.96618,-2.9773,-11.772,-4.878,-12.808,-1.9704,14.286,8.5079,8.6349,2.8846,1.9968,2.7697,-6.5087,15.764,7.5641
0.88468,-8.5079,-12.618,0.0,-10.837,-2.1463,-7.7295,3.8188,-12.748,0.0,-10.837,-6.8966,4.7619,0.88889,-0.88889,-5.7692,-9.5974,3.7359,0.12638,8.867,1.7949
-1.0111,-8.5079,-16.52,-0.97561,-4.9261,3.7073,-15.459,-2.9773,-16.65,-0.97561,-4.9261,-6.8966,-2.8571,-1.9683,-5.6508,-9.6154,-16.361,-3.9936,-9.3523,2.9557,2.7564
-0.06319,-16.127001,-18.472,0.97561,-3.9409,-1.1707,-13.527,3.8188,-12.748,0.97561,-3.9409,-6.8966,-3.8095,-1.0159,-6.6032,-15.385,-18.292999,10.499,-13.144,6.8966,-3.0128
0.88468,-18.032,-18.472,-0.97561,-16.749001,-1.1707,-10.628,7.7023,-11.772,-0.97561,-16.749001,-5.9113,0.0,-0.06349,-3.746,-17.308001,-17.327,17.261999,-15.039,10.837,-8.7821
2.7804,-14.222,-14.569,-3.9024,-10.837,2.7317,-2.8986,9.644,-13.724,-3.9024,-10.837,-1.9704,4.7619,-1.9683,1.0159,-15.385,-13.462,15.33,-8.4044,17.733999,-7.8205
2.7804,-16.127001,-13.593,-3.9024,-3.9409,6.6341,-3.8647,8.6731,-8.8455,-3.9024,-3.9409,1.9704,5.7143,-1.0159,0.06349,-15.385,-13.462,13.398,-4.613,13.793,-7.8205
-3.8547,-14.222,-14.569,0.97561,0.98522,3.7073,-10.628,-0.06472,-7.8699,0.97561,0.98522,1.9704,6.6667,-0.06349,-4.6984,-16.346001,-14.428,1.8035,-15.039,5.9113,-8.7821
-3.8547,-9.4603,-8.7154,6.8293,-2.9557,2.7317,-2.8986,-9.7735,-8.8455,6.8293,-2.9557,3.9409,10.476,-0.06349,-0.88889,-11.538,-9.5974,-4.9597,-10.3,11.823,-5.8974
-1.9589,-4.6984,-2.8618,-5.8537,-11.823,-3.122,-0.96618,-2.9773,-9.8211,-5.8537,-11.823,2.9557,9.5238,-3.873,3.873,-5.7692,-3.8003,-5.9259,-8.4044,14.778,-3.9744
-5.7504,0.06349,0.06504,-14.634,-8.867,-8.0,-5.7971,-4.9191,-8.8455,-14.634,-8.867,-0.98522,10.476,-4.8254,4.8254,0.0,0.06441,0.83736,-2.7172,12.808,-0.12821
-5.7504,2.9206,0.06504,-16.584999,-8.867,-12.878,-6.7633,-13.657,-8.8455,-16.584999,-8.867,-3.9409,15.238,0.88889,6.7302,6.7308,5.8615,-0.12882,2.0221,14.778,9.4872
-10.49,2.9206,-2.8618,-24.389999,-13.793,-20.683001,-5.7971,-24.337,-7.8699,-24.389999,-13.793,-9.8522,17.143,7.5556,7.6825,9.6154,8.7601,-5.9259,8.6572,14.778,11.41
-18.073,-1.8413,-9.6911,-30.243999,-13.793,-26.537001,-16.424999,-34.044998,-9.8211,-30.243999,-13.793,-17.733999,15.238,12.317,3.873,7.6923,7.7939,-16.554001,2.97,10.837,9.4872
-21.864,-1.8413,-13.593,-32.195,-16.749001,-34.341,-21.256001,-35.987,-12.748,-32.195,-16.749001,-23.645,14.286,14.222,1.9683,8.6538,8.7601,-24.283001,-4.613,6.8966,11.41
-19.968,-3.746,-12.618,-25.365999,-14.778,-36.292999,-14.493,-33.074001,-7.8699,-25.365999,-14.778,-22.66,14.286,16.127001,1.9683,9.6154,9.7262,-21.385,-0.82148,6.8966,12.372
-17.125,-5.6508,-12.618,-19.511999,-14.778,-24.584999,-12.56,-32.104,-8.8455,-19.511999,-14.778,-18.719,13.333,20.889,1.0159,8.6538,9.7262,-9.7907,2.97,6.8966,14.295
-20.916,-1.8413,-15.545,-26.341,-14.778,-28.488001,-12.56,-15.599,-7.8699,-26.341,-14.778,-20.690001,10.476,18.983999,-3.746,5.7692,4.8953,1.8035,4.8657,4.9261,11.41
-25.656,-6.6032,-21.398001,-23.415001,-9.8522,-32.389999,-15.459,-8.8026,-2.0163,-23.415001,-9.8522,-22.66,-2.8571,8.5079,-16.127001,-2.8846,-6.6989,-1.095,-2.7172,-6.8966,3.7179
-28.499001,-11.365,-25.301001,-12.683,-0.98522,-28.488001,-12.56,-3.9482,-0.06504,-12.683,-0.98522,-19.704,-11.429,-1.0159,-24.698,-10.577,-17.327,-0.12882,-9.3523,-12.808,-5.8974
-20.916,-7.5556,-19.447001,-8.7805,5.9113,-15.805,-2.8986,2.8479,4.813,-8.7805,5.9113,-10.837,-15.238,-4.8254,-23.746,-10.577,-18.292999,2.7697,-12.196,-16.749001,-3.9744
-15.229,-10.413,-17.496,-3.9024,5.9113,-4.0976,-0.96618,-2.0065,2.8618,-3.9024,5.9113,-4.9261,-18.094999,-12.444,-22.794001,-17.308001,-23.124001,0.83736,2.97,-15.764,-10.705
-15.229,-18.032,-20.423,2.9268,0.0,-8.0,-2.8986,6.7314,-2.9919,2.9268,0.0,-6.8966,-22.857,-21.968,-24.698,-28.846001,-31.82,0.83736,6.7615,-12.808,-22.243999
-10.49,-19.937,-19.447001,3.9024,-2.9557,-5.0732,-1.9324,11.586,-3.9675,3.9024,-2.9557,-5.9113,-28.570999,-28.635,-24.698,-34.615002,-37.617001,0.83736,-0.82148,-13.793,-24.167
-1.0111,-13.27,-10.667,2.9268,3.9409,2.7317,2.8986,13.528,-1.0407,2.9268,3.9409,0.0,-24.761999,-25.778,-16.127001,-28.846001,-31.82,14.364,-9.3523,-3.9409,-16.474001
7.5197,-7.5556,-1.8862,8.7805,6.8966,11.512,3.8647,18.382,-2.9919,8.7805,6.8966,5.9113,-20.0,-25.778,-6.6032,-21.153999,-24.09,21.127001,-9.3523,3.9409,-10.705
16.997999,-0.88889,4.9431,5.8537,0.0,22.243999,0.96618,15.469,-4.9431,5.8537,0.0,10.837,-17.143,-28.635,0.06349,-16.346001,-18.292999,25.958,-5.5608,7.8818,-13.59
25.528999,5.7778,13.724,12.683,1.9704,25.171,8.6957,31.974001,3.8374,12.683,1.9704,15.764,-7.619,-20.063,11.492,-5.7692,-6.6989,31.754999,7.7093,14.778,-11.667
25.528999,11.492,17.625999,24.389999,9.8522,25.171,16.424999,33.916,5.7886,24.389999,9.8522,18.719,-4.7619,-14.349,14.349,2.8846,1.0306,27.889999,14.344,12.808,-4.9359
22.686001,12.444,18.601999,23.415001,10.837,24.195,17.391001,28.091,5.7886,23.415001,10.837,16.749001,-1.9048,-10.54,13.397,5.7692,4.8953,19.195,0.12638,13.793,-3.9744
21.738001,11.492,17.625999,19.511999,12.808,24.195,11.594,18.382,4.813,19.511999,12.808,15.764,-0.95238,-6.7302,12.444,8.6538,7.7939,13.398,1.0742,9.8522,-0.12821
13.207,5.7778,11.772,14.634,7.8818,16.389999,3.8647,20.323999,6.7642,14.634,7.8818,9.8522,-4.7619,-7.6825,7.6825,4.8077,4.8953,17.261999,2.97,4.9261,-1.0897
7.5197,0.06349,5.9187,8.7805,2.9557,8.5854,2.8986,24.207001,4.813,8.7805,2.9557,5.9113,-5.7143,-7.6825,3.873,2.8846,3.9291,20.160999,5.8136,3.9409,-2.0513
3.7283,-6.6032,2.0163,8.7805,0.0,12.488,-5.7971,17.410999,-0.06504,8.7805,0.0,2.9557,-3.8095,-5.7778,1.9683,0.0,2.963,15.33,-1.7694,0.98522,-0.12821
2.7804,-10.413,-0.91057,14.634,-6.8966,13.463,-5.7971,17.410999,-1.0407,14.634,-6.8966,1.9704,-7.619,-9.5873,0.06349,-7.6923,-1.868,19.195,-10.3,-0.98522,-8.7821
1.8325,-11.365,-0.91057,16.584999,4.9261,14.439,-4.8309,18.382,-2.9919,16.584999,4.9261,4.9261,-10.476,-12.444,-3.746,-13.462,-6.6989,18.229,-0.82148,-1.9704,-14.551
1.8325,-13.27,-1.8862,18.537001,13.793,10.537,-1.9324,18.382,-0.06504,18.537001,13.793,8.867,-12.381,-19.111,-7.5556,-20.191999,-13.462,12.432,3.9179,-3.9409,-19.358999
2.7804,-15.175,-1.8862,21.462999,12.808,13.463,2.8986,17.410999,3.8374,21.462999,12.808,13.793,-18.094999,-28.635,-13.27,-28.846001,-22.158001,15.33,-5.5608,-7.8818,-27.051001
0.88468,-16.127001,-3.8374,16.584999,10.837,11.512,-1.9324,19.353001,4.813,16.584999,10.837,10.837,-22.857,-37.206001,-18.983999,-33.653999,-29.886999,12.432,-11.248,-11.823,-32.820999
-3.8547,-13.27,-8.7154,10.732,0.0,4.6829,-0.96618,16.440001,0.91057,10.732,0.0,4.9261,-26.667,-42.921001,-24.698,-33.653999,-34.717999,6.6345,-10.3,-15.764,-34.743999
-8.594,-11.365,-14.569,1.9512,-0.98522,6.6341,1.9324,11.586,-2.9919,1.9512,-0.98522,0.98522,-31.429001,-39.111,-30.413,-31.731001,-37.617001,6.6345,-15.987,-22.66,-28.974001
-9.5419,-9.4603,-17.496,4.878,1.9704,3.7073,-3.8647,6.7314,-0.06504,4.878,1.9704,-1.9704,-33.333,-29.587,-33.27,-25.962,-34.717999,-3.0274,-3.6651,-25.615999,-19.358999
-7.6461,-6.6032,-15.545,4.878,-3.9409,0.78049,-13.527,-1.0356,-0.06504,4.878,-3.9409,-5.9113,-31.429001,-22.921,-30.413,-18.268999,-27.955,-6.8921,6.7615,-22.66,-13.59
-2.9068,-2.7937,-10.667,-4.878,-9.8522,1.7561,-10.628,-5.89,-2.9919,-4.878,-9.8522,-6.8966,-28.570999,-11.492,-24.698,-6.7308,-16.361,-7.8583,4.8657,-20.690001,-3.0128
-1.0111,2.9206,-7.7398,-1.9512,-9.8522,2.7317,-4.8309,-5.89,-2.9919,-1.9512,-9.8522,-2.9557,-22.857,-1.9683,-18.983999,3.8462,-7.6651,-20.419001,0.12638,-23.645,7.5641
-0.06319,7.6825,-4.813,3.9024,-7.8818,8.5854,2.8986,-3.9482,0.91057,3.9024,-7.8818,0.0,-17.143,1.8413,-12.317,10.577,1.0306,-12.689,2.0221,-16.749001,7.5641
3.7283,10.54,-0.91057,1.9512,-3.9409,4.6829,-0.96618,4.7896,0.91057,1.9512,-3.9409,0.0,-7.619,7.5556,-2.7937,16.346001,10.692,-3.0274,4.8657,-6.8966,8.5256
2.7804,6.7302,-0.91057,-7.8049,-4.9261,1.7561,-10.628,7.7023,-3.9675,-7.8049,-4.9261,-5.9113,-1.9048,11.365,2.9206,18.268999,16.49,1.8035,7.7093,-4.9261,12.372
1.8325,1.9683,-3.8374,-7.8049,-6.8966,3.7073,-15.459,6.7314,-2.9919,-7.8049,-6.8966,-8.867,1.9048,13.27,4.8254,19.231001,18.422001,3.7359,5.8136,-2.9557,16.218
-1.9589,-2.7937,-8.7154,-5.8537,-11.823,-1.1707,-20.290001,3.8188,-1.0407,-5.8537,-11.823,-14.778,1.9048,12.317,4.8254,16.346001,17.455999,3.7359,8.6572,0.0,14.295
-2.9068,-5.6508,-10.667,-1.9512,-14.778,-3.122,-19.323999,-2.9773,-2.0163,-1.9512,-14.778,-16.749001,1.9048,7.5556,4.8254,9.6154,13.591,3.7359,9.6051,0.98522,7.5641
-3.8547,-9.4603,-10.667,-1.9512,-13.793,-8.0,-10.628,-9.7735,-2.9919,-1.9512,-13.793,-15.764,2.8571,5.6508,3.873,3.8462,9.7262,-3.9936,-3.6651,0.98522,3.7179
-2.9068,-2.7937,-5.7886,-3.9024,-3.9409,-11.902,-4.8309,-1.0356,0.91057,-3.9024,-3.9409,-11.823,3.8095,3.746,4.8254,3.8462,7.7939,-1.095,-2.7172,6.8966,4.6795
-6.6983,-4.6984,-5.7886,-2.9268,2.9557,-14.829,-4.8309,3.8188,1.8862,-2.9268,2.9557,-9.8522,-1.9048,-3.873,0.06349,-1.9231,1.9968,2.7697,3.9179,0.98522,-1.0897
-3.8547,-2.7937,1.0407,-4.878,11.823,-8.0,2.8986,7.7023,9.6911,-4.878,11.823,-0.98522,-2.8571,-6.7302,-0.88889,-0.96154,0.06441,1.8035,2.0221,-4.9261,-0.12821
1.8325,-0.88889,7.8699,0.97561,12.808,1.7561,5.7971,5.7605,9.6911,0.97561,12.808,5.9113,-1.9048,-11.492,1.0159,-2.8846,0.06441,2.7697,6.7615,-4.9261,-6.859
7.5197,1.9683,13.724,12.683,12.808,7.6098,12.56,6.7314,12.618,12.683,12.808,11.823,0.0,-15.302,4.8254,-5.7692,1.0306,1.8035,6.7615,-3.9409,-14.551
15.103,1.9683,15.675,14.634,12.808,14.439,25.121,4.7896,18.472,14.634,12.808,18.719,2.8571,-10.54,9.5873,-6.7308,2.963,2.7697,-1.7694,-0.98522,-14.551
16.051001,0.06349,13.724,18.537001,19.704,20.292999,29.952,11.586,17.496,18.537001,19.704,21.674999,0.0,-11.492,8.6349,-8.6538,1.9968,4.7021,-5.5608,-0.98522,-14.551
15.103,7.6825,13.724,18.537001,25.615999,25.171,26.087,7.7023,20.423,18.537001,25.615999,23.645,-1.9048,-9.5873,5.7778,-4.8077,1.9968,8.5668,-6.5087,-2.9557,-9.7436
13.207,7.6825,12.748,14.634,25.615999,17.365999,25.121,10.615,21.398001,14.634,25.615999,20.690001,0.0,-2.9206,4.8254,0.0,4.8953,10.499,5.8136,0.0,-5.8974
8.4676,3.873,7.8699,1.9512,17.733999,14.439,19.323999,6.7314,13.593,1.9512,17.733999,12.808,-3.8095,-4.8254,1.0159,0.96154,4.8953,1.8035,10.553,-5.9113,-4.9359
5.624,3.873,3.9675,1.9512,12.808,12.488,11.594,2.8479,6.7642,1.9512,12.808,5.9113,-2.8571,-5.7778,1.0159,0.96154,4.8953,-3.9936,2.97,-6.8966,-3.9744
1.8325,0.06349,-0.91057,6.8293,3.9409,1.7561,1.9324,3.8188,3.8374,6.8293,3.9409,-1.9704,-1.9048,-1.0159,2.9206,0.0,4.8953,-3.0274,-4.613,-1.9704,0.83333
2.7804,-7.5556,-5.7886,0.0,-7.8818,-4.0976,-5.7971,-1.0356,-4.9431,0.0,-7.8818,-10.837,0.0,1.8413,4.8254,-5.7692,1.9968,-2.0612,-4.613,1.9704,-3.0128
5.624,-10.413,-5.7886,-3.9024,-4.9261,-9.9512,-8.6957,-3.9482,-7.8699,-3.9024,-4.9261,-14.778,7.619,8.5079,11.492,-5.7692,4.8953,8.5668,-7.4566,8.867,-1.0897
3.7283,-10.413,-3.8374,-4.878,-2.9557,-7.0244,-11.594,-10.744,-8.8455,-4.878,-2.9557,-15.764,11.429,11.365,15.302,-0.96154,8.7601,7.6006,-3.6651,8.867,4.6795
-1.0111,-13.27,-5.7886,-15.61,-11.823,-17.756001,-19.323999,-12.686,-14.699,-15.61,-11.823,-21.674999,10.476,11.365,14.349,-1.9231,7.7939,-6.8921,-0.82148,8.867,4.6795
-2.9068,-16.127001,-7.7398,-23.415001,-14.778,-22.634001,-26.087,-13.657,-16.65,-23.415001,-14.778,-27.586,14.286,15.175,16.254,-1.9231,9.7262,-12.689,-19.778999,15.764,4.6795
-3.8547,-20.889,-6.7642,-23.415001,-16.749001,-26.537001,-31.884001,-21.424,-14.699,-23.415001,-16.749001,-30.542,20.952,21.841,21.016001,0.96154,14.557,-24.283001,-21.674999,18.719,9.4872
-11.438,-25.650999,-9.6911,-18.537001,-24.631001,-40.195,-38.646999,-26.278,-15.675,-18.537001,-24.631001,-38.424,20.0,18.983999,15.302,-2.8846,12.625,-25.25,-23.57,11.823,0.83333
-18.073,-28.507999,-8.7154,-22.438999,-31.527,-39.220001,-37.681,-34.044998,-20.552999,-22.438999,-31.527,-39.409,22.857,19.937,10.54,-7.6923,10.692,-17.52,-15.039,12.808,-5.8974
-19.968,-31.365,-6.7642,-24.389999,-33.498001,-40.195,-44.444,-32.104,-19.577,-24.389999,-33.498001,-37.438,28.570999,20.889,10.54,-10.577,12.625,-12.689,-19.778999,18.719,-9.7436
-14.281,-30.413,-1.8862,-25.365999,-22.66,-32.389999,-40.580002,-35.987,-21.528,-25.365999,-22.66,-33.498001,33.333,22.794001,14.349,-10.577,15.523,-20.419001,-26.414,19.704,-9.7436
-9.5419,-27.556,2.0163,-24.389999,-23.645,-29.462999,-31.884001,-27.249001,-24.455,-24.389999,-23.645,-30.542,35.237999,25.650999,16.254,-8.6538,17.455999,-22.351,-31.153,20.690001,-7.8205
-7.6461,-21.841,4.9431,-22.438999,-20.690001,-27.511999,-26.087,-19.482,-20.552999,-22.438999,-20.690001,-26.601,33.333,24.698,15.302,-6.7308,16.49,-30.080999,-34.945,14.778,-6.859
-10.49,-17.079,2.9919,-28.292999,-19.704,-25.561001,-24.155001,-28.219999,-17.625999,-28.292999,-19.704,-23.645,28.570999,23.746,9.5873,-6.7308,11.659,-42.640999,-30.205,5.9113,-7.8205
-11.438,-13.27,3.9675,-29.268,-15.764,-26.537001,-19.323999,-33.074001,-8.8455,-29.268,-15.764,-22.66,23.809999,23.746,4.8254,-5.7692,8.7601,-32.979,-22.622,-1.9704,-4.9359
-14.281,-12.317,2.9919,-30.243999,-18.719,-28.488001,-17.391001,-39.870998,-3.9675,-30.243999,-18.719,-20.690001,14.286,14.222,-2.7937,-7.6923,1.9968,-29.114,-6.5087,-8.867,-7.8205
-15.229,-5.6508,4.9431,-32.195,-23.645,-31.415001,-16.424999,-40.841,-2.9919,-32.195,-23.645,-17.733999,5.7143,7.5556,-6.6032,-7.6923,-2.8341,-31.047001,8.6572,-11.823,-10.705
-11.438,4.8254,10.797,-21.462999,-11.823,-19.707001,-2.8986,-43.754002,6.7642,-21.462999,-11.823,-5.9113,-1.9048,4.6984,-9.4603,-4.8077,-5.7327,-38.776001,5.8136,-17.733999,-8.7821
-9.5419,13.397,14.699,-14.634,0.0,-11.902,16.424999,-35.987,26.275999,-14.634,0.0,2.9557,-10.476,-2.9206,-13.27,-3.8462,-10.564,-44.573002,13.397,-25.615999,-6.859
-6.6983,25.778,21.528,-16.584999,5.9113,-11.902,28.018999,-32.104,34.081001,-16.584999,5.9113,11.823,-13.333,-7.6825,-12.317,1.9231,-9.5974,-47.472,11.501,-26.601,-3.9744
-3.8547,37.206001,28.358,-16.584999,9.8522,-6.0488,41.546001,-35.015999,37.984001,-16.584999,9.8522,21.674999,-12.381,-7.6825,-9.4603,9.6154,-5.7327,-50.369999,26.667,-22.66,0.83333
-0.06319,42.921001,33.236,-7.8049,21.674999,7.6098,54.105999,-35.987,49.691002,-7.8049,21.674999,34.483002,-14.286,-9.5873,-9.4603,10.577,-5.7327,-40.709,42.779999,-22.66,0.83333
3.7283,48.634998,39.089001,-4.878,28.570999,14.439,59.903,-29.191,48.715,-4.878,28.570999,42.365002,-13.333,-7.6825,-5.6508,15.385,-1.868,-27.181999,38.041,-19.704,3.7179
9.4155,53.396999,43.966999,2.9268,39.409,18.341,66.667,-22.395,46.764,2.9268,39.409,48.276001,-9.5238,-3.873,-1.8413,22.115,3.9291,-25.25,25.719,-19.704,13.333
6.5719,51.492001,36.162998,4.878,34.483002,12.488,59.903,-22.395,42.862,4.878,34.483002,43.349998,-8.5714,-3.873,-3.746,20.191999,2.963,-28.148001,31.406,-27.586,11.41
2.7804,41.015999,23.48,9.7561,22.66,10.537,52.174,-20.452999,37.007999,9.7561,22.66,34.483002,-4.7619,-3.873,-4.6984,14.423,1.0306,-30.080999,42.779999,-18.719,7.5641
-1.9589,34.348999,13.724,2.9268,18.719,5.6585,43.478001,-20.452999,33.105999,2.9268,18.719,24.631001,-1.9048,-1.9683,-3.746,11.538,1.0306,-31.047001,35.196999,-12.808,7.5641
-7.6461,29.587,2.9919,-2.9268,16.749001,0.78049,32.849998,-27.249001,26.275999,-2.9268,16.749001,15.764,-4.7619,-2.9206,-7.5556,7.6923,-2.8341,-29.114,27.615,-14.778,6.6026
-14.281,29.587,-5.7886,-3.9024,12.808,-5.0732,21.256001,-26.278,16.52,-3.9024,12.808,7.8818,-10.476,-5.7778,-13.27,5.7692,-8.6312,-29.114,12.449,-16.749001,6.6026
-19.021,21.968,-15.545,-8.7805,10.837,-10.927,15.459,-15.599,16.52,-8.7805,10.837,0.98522,-15.238,-9.5873,-18.032,0.96154,-14.428,-22.351,17.188,-19.704,6.6026
-19.021,13.397,-21.398001,-7.8049,12.808,-7.0244,10.628,-12.686,19.447001,-7.8049,12.808,-1.9704,-18.094999,-12.444,-20.889,-1.9231,-19.259001,-17.52,25.719,-19.704,4.6795
-17.125,13.397,-20.423,0.97561,12.808,-2.1463,10.628,-5.89,19.447001,0.97561,12.808,-0.98522,-19.048,-15.302,-21.841,-1.9231,-22.158001,-14.622,25.719,-17.733999,3.7179
-15.229,13.397,-20.423,6.8293,11.823,3.7073,4.8309,-5.89,14.569,6.8293,11.823,0.0,-23.809999,-19.111,-25.650999,-3.8462,-27.955,-14.622,10.553,-20.690001,3.7179
-13.333,12.444,-17.496,11.707,8.867,3.7073,8.6957,1.877,12.618,11.707,8.867,2.9557,-25.714001,-18.159,-27.556,-3.8462,-29.886999,-12.689,12.449,-18.719,2.7564
-13.333,4.8254,-17.496,16.584999,6.8966,0.78049,4.8309,7.7023,10.667,16.584999,6.8966,0.0,-25.714001,-22.921,-27.556,-7.6923,-32.785999,-7.8583,15.292,-17.733999,-4.9359
-5.7504,6.7302,-13.593,19.511999,4.9261,7.6098,4.8309,9.644,4.813,19.511999,4.9261,1.9704,-23.809999,-25.778,-24.698,-7.6923,-32.785999,1.8035,0.12638,-11.823,-6.859
4.6761,9.5873,-4.813,21.462999,12.808,16.389999,10.628,22.264999,3.8374,21.462999,12.808,7.8818,-17.143,-18.159,-16.127001,-0.96154,-26.023001,17.261999,5.8136,0.0,0.83333
10.363,9.5873,2.9919,24.389999,14.778,22.243999,6.7633,32.945,0.91057,24.389999,14.778,10.837,-9.5238,-6.7302,-7.5556,4.8077,-18.292999,24.025999,9.6051,2.9557,11.41
13.207,9.5873,7.8699,24.389999,11.823,25.171,3.8647,35.858002,1.8862,24.389999,11.823,12.808,-8.5714,-8.6349,-5.6508,4.8077,-16.361,24.992001,13.397,2.9557,8.5256
16.051001,9.5873,10.797,25.365999,10.837,29.073,5.7971,32.945,4.813,25.365999,10.837,16.749001,-8.5714,-11.492,-5.6508,1.9231,-16.361,24.025999,5.8136,6.8966,0.83333
16.051001,8.6349,11.772,31.219999,14.778,29.073,9.6618,34.887001,3.8374,31.219999,14.778,20.690001,-10.476,-8.6349,-5.6508,-0.96154,-14.428,25.958,-6.5087,5.9113,-1.0897
16.997999,6.7302,14.699,33.171001,13.793,31.024,18.357,31.974001,-1.0407,33.171001,13.793,27.586,-12.381,-4.8254,-3.746,-1.9231,-12.496,33.688,-10.3,4.9261,0.83333
20.790001,4.8254,18.601999,33.171001,23.645,38.828999,26.087,31.003,-8.8455,33.171001,23.645,34.483002,-13.333,-5.7778,-2.7937,-3.8462,-10.564,27.889999,-10.3,0.98522,0.83333
17.945999,0.06349,18.601999,37.073002,30.542,34.926998,18.357,39.741001,-7.8699,37.073002,30.542,36.452999,-14.286,-5.7778,-4.6984,-5.7692,-10.564,26.924,-4.613,-3.9409,-3.0128
16.051001,-5.6508,15.675,32.195,26.601,32.976002,16.424999,41.682999,-4.9431,32.195,26.601,38.424,-13.333,-2.9206,-6.6032,-6.7308,-10.564,24.992001,-11.248,-2.9557,-3.0128
16.997999,-8.5079,12.748,34.146,24.631001,36.877998,11.594,38.77,0.91057,34.146,24.631001,41.379002,-9.5238,4.6984,-4.6984,-4.8077,-6.6989,26.924,-22.622,0.98522,1.7949
15.103,-4.6984,10.797,29.268,16.749001,35.902,11.594,36.827999,-0.06504,29.268,16.749001,40.394001,-8.5714,11.365,-5.6508,-0.96154,-3.8003,32.721001,-15.039,-7.8818,9.4872
12.259,-8.5079,6.8943,32.195,19.704,35.902,15.459,32.945,0.91057,32.195,19.704,40.394001,-5.7143,18.032,-6.6032,0.0,-1.868,33.688,1.0742,-6.8966,11.41
9.4155,-9.4603,2.9919,33.171001,29.556999,35.902,18.357,32.945,2.8618,33.171001,29.556999,39.409,-2.8571,20.889,-9.4603,0.0,-0.90177,30.789,10.553,-1.9704,12.372
9.4155,-2.7937,2.0163,34.146,26.601,37.854,17.391001,31.003,0.91057,34.146,26.601,39.409,-5.7143,20.889,-11.365,1.9231,-2.8341,23.059999,-1.7694,-6.8966,18.141001
10.363,7.6825,3.9675,34.146,18.719,33.951,18.357,38.77,-2.0163,34.146,18.719,37.438,-3.8095,19.937,-8.5079,7.6923,1.9968,15.33,-6.5087,-7.8818,20.063999
10.363,13.397,5.9187,37.073002,23.645,28.098,17.391001,43.625,-0.06504,37.073002,23.645,33.498001,3.8095,27.556,-2.7937,19.231001,9.7262,25.958,-3.6651,-1.9704,32.563999
2.7804,9.5873,-3.8374,29.268,11.823,21.268,7.7295,31.974001,-2.0163,29.268,11.823,20.690001,3.8095,26.603001,-3.746,19.231001,8.7601,27.889999,13.397,-0.98522,31.603001
2.7804,4.8254,-11.642,16.584999,0.98522,15.415,0.0,29.061001,-4.9431,16.584999,0.98522,9.8522,7.619,24.698,1.0159,20.191999,10.692,28.857,14.344,5.9113,27.756001
4.6761,2.9206,-12.618,19.511999,0.98522,13.463,-9.6618,30.032,-9.8211,19.511999,0.98522,0.98522,17.143,30.413,10.54,26.923,18.422001,39.485001,9.6051,12.808,33.526001
7.5197,3.873,-12.618,9.7561,-5.9113,8.5854,-13.527,29.061001,-14.699,9.7561,-5.9113,-7.8818,22.857,33.27,17.205999,31.731001,22.287001,39.485001,2.0221,21.674999,36.41
3.7283,-2.7937,-20.423,-4.878,-14.778,-0.19512,-25.121,20.323999,-20.552999,-4.878,-14.778,-20.690001,21.905001,26.603001,17.205999,27.885,20.354,37.551998,-5.5608,30.542,30.641001
3.7283,-4.6984,-22.374001,-3.9024,-25.615999,-3.122,-29.952,26.149,-26.407,-3.9024,-25.615999,-25.615999,26.667,28.507999,21.968,30.768999,23.253,41.417,-19.778999,32.512001,34.487
4.6761,-4.6984,-21.398001,-8.7805,-30.542,-7.0244,-35.749001,31.974001,-30.309,-8.7805,-30.542,-28.570999,32.381001,30.413,25.778,31.731001,27.118,44.316002,-8.4044,34.483002,35.449001
-1.0111,-18.032,-25.301001,-13.659,-34.483002,-14.829,-38.646999,25.177999,-36.162998,-13.659,-34.483002,-36.452999,27.618999,25.650999,22.921,23.077,22.287001,36.585999,2.0221,35.467999,26.795
0.88468,-22.794001,-23.35,-13.659,-35.467999,-13.854,-39.613998,18.382,-41.041,-13.659,-35.467999,-38.424,30.476,27.556,26.73,20.191999,24.219,37.551998,-6.5087,40.394001,22.948999
4.6761,-18.983999,-16.52,-18.537001,-35.467999,-10.927,-39.613998,16.440001,-43.966999,-18.537001,-35.467999,-35.467999,32.381001,20.889,31.492001,20.191999,26.150999,49.146999,-23.57,46.305,18.141001
9.4155,-22.794001,-11.642,-16.584999,-42.365002,-12.878,-40.580002,19.353001,-37.138,-16.584999,-42.365002,-36.452999,28.570999,12.317,34.348999,13.462,24.219,54.944,-18.830999,46.305,10.449
16.051001,-19.937,-5.7886,-14.634,-38.424,-8.0,-38.646999,20.323999,-28.358,-14.634,-38.424,-34.483002,26.667,6.6032,38.159,8.6538,22.287001,48.18,-10.3,45.32,6.6026
16.997999,-20.889,-4.813,-18.537001,-28.570999,-1.1707,-39.613998,7.7023,-24.455,-18.537001,-28.570999,-31.527,20.952,-2.9206,34.348999,0.0,15.523,32.721001,-16.934999,38.424,1.7949
19.841999,-20.889,-1.8862,-13.659,-24.631001,-0.19512,-29.952,12.557,-17.625999,-13.659,-24.631001,-24.631001,17.143,-7.6825,32.444,-4.8077,13.591,40.451,-3.6651,34.483002,-3.9744
23.632999,-16.127001,4.9431,-4.878,-22.66,2.7317,-18.357,18.382,-12.748,-4.878,-22.66,-14.778,15.238,-12.444,33.396999,-5.7692,13.591,45.282001,5.8136,36.452999,-12.628
29.320999,-6.6032,13.724,-4.878,-11.823,8.5854,-8.6957,16.440001,-11.772,-4.878,-11.823,-3.9409,14.286,-18.159,36.254002,-2.8846,15.523,34.653999,-7.4566,37.438,-15.513
32.164001,3.873,23.48,3.9024,-11.823,14.439,4.8309,15.469,-10.797,3.9024,-11.823,6.8966,12.381,-19.111,36.254002,4.8077,20.354,33.688,-2.7172,34.483002,-12.628
35.956001,11.492,29.333,16.584999,-5.9113,26.146,18.357,19.353001,-5.9187,16.584999,-5.9113,18.719,13.333,-14.349,38.159,13.462,25.184999,31.754999,8.6572,30.542,-8.7821
35.956001,14.349,31.285,16.584999,3.9409,31.024,20.290001,24.207001,-5.9187,16.584999,3.9409,25.615999,16.190001,-10.54,37.206001,17.308001,29.049999,36.585999,2.97,25.615999,-6.859
34.060001,19.111,33.236,18.537001,5.9113,31.024,19.323999,26.149,-8.8455,18.537001,5.9113,28.570999,16.190001,-5.7778,37.206001,24.038,33.881001,37.551998,2.0221,24.631001,-3.0128
35.007999,19.111,34.210999,24.389999,7.8818,31.024,16.424999,24.207001,-8.8455,24.389999,7.8818,28.570999,19.048,-0.06349,39.111,27.885,38.712002,30.789,2.97,28.570999,-1.0897
34.060001,16.254,30.309,25.365999,2.9557,32.976002,13.527,25.177999,-12.748,25.365999,2.9557,25.615999,21.905001,6.6032,40.063,28.846001,41.610001,29.823,-7.4566,28.570999,4.6795
24.580999,8.6349,19.577,12.683,0.0,25.171,9.6618,13.528,-10.797,12.683,0.0,17.733999,20.0,10.413,32.444,23.077,38.712002,23.059999,0.12638,24.631001,4.6795
13.207,0.06349,7.8699,10.732,-0.98522,6.6341,3.8647,10.615,-8.8455,10.732,-0.98522,7.8818,20.0,12.317,26.73,16.346001,34.847,19.195,7.7093,18.719,0.83333
0.88468,-6.6032,-3.8374,12.683,0.0,-7.0244,-6.7633,7.7023,-16.65,12.683,0.0,-2.9557,20.952,15.175,18.159,10.577,29.049999,6.6345,1.0742,14.778,2.7564
-4.8025,-14.222,-12.618,5.8537,-3.9409,-8.9756,-13.527,1.877,-14.699,5.8537,-3.9409,-6.8966,15.238,12.317,10.54,1.9231,20.354,3.7359,-3.6651,10.837,0.83333
-8.594,-18.032,-17.496,1.9512,-2.9557,-7.0244,-9.6618,-4.9191,-10.797,1.9512,-2.9557,-7.8818,9.5238,8.5079,3.873,-5.7692,11.659,9.533,-18.830999,6.8966,-0.12821
-19.968,-21.841,-27.252001,-4.878,-0.98522,-19.707001,-15.459,-7.8317,-11.772,-4.878,-0.98522,-15.764,2.8571,2.7937,-8.5079,-15.385,0.06441,3.7359,-14.092,0.0,-7.8205
-28.499001,-27.556,-35.056999,-4.878,4.9261,-33.366001,-23.188,-10.744,-4.9431,-4.878,4.9261,-23.645,-1.9048,-3.873,-15.175,-24.038,-8.6312,-14.622,2.0221,-0.98522,-15.513
-33.238998,-28.507999,-38.959,-12.683,2.9557,-36.292999,-21.256001,-21.424,-2.0163,-12.683,2.9557,-26.601,-3.8095,-4.8254,-20.889,-26.923,-13.462,-9.7907,-1.7694,-5.9113,-15.513
-42.716999,-34.222,-44.813,-18.537001,-3.9409,-38.243999,-22.222,-26.278,-0.06504,-18.537001,-3.9409,-34.483002,-12.381,-10.54,-31.365,-32.692001,-22.158001,-18.486,-10.3,-19.704,-20.320999
-46.508999,-34.222,-45.789001,-16.584999,-6.8966,-43.122002,-26.087,-34.044998,0.91057,-16.584999,-6.8966,-40.394001,-15.238,-11.492,-36.126999,-32.692001,-26.023001,-22.351,-14.092,-18.719,-19.358999
-47.457001,-25.650999,-44.813,-19.511999,-12.808,-45.073002,-28.018999,-29.191,0.91057,-19.511999,-12.808,-41.379002,-22.857,-12.444,-39.937,-29.808001,-28.921,-23.316999,-16.934999,-23.645,-13.59
-42.716999,-20.889,-42.862,-21.462999,-6.8966,-39.220001,-23.188,-23.365999,1.8862,-21.462999,-6.8966,-38.424,-28.570999,-15.302,-41.841,-30.768999,-32.785999,-23.316999,-2.7172,-30.542,-17.436001
-35.133999,-13.27,-34.081001,-16.584999,2.9557,-30.438999,-19.323999,-15.599,3.8374,-16.584999,2.9557,-33.498001,-29.524,-19.111,-38.984001,-27.885,-31.82,-14.622,2.0221,-30.542,-24.167
-25.656,-3.746,-20.423,-4.878,6.8966,-20.683001,-6.7633,-12.686,8.7154,-4.878,6.8966,-21.674999,-28.570999,-22.921,-33.27,-21.153999,-28.921,-23.316999,1.0742,-28.570999,-24.167
-19.021,1.9683,-11.642,-6.8293,4.9261,-20.683001,0.0,-2.9773,11.642,-6.8293,4.9261,-14.778,-27.618999,-20.063,-28.507999,-16.346001,-26.023001,-18.486,0.12638,-25.615999,-18.396999
-18.073,4.8254,-9.6911,-4.878,4.9261,-18.732,3.8647,-2.9773,14.569,-4.878,4.9261,-11.823,-29.524,-21.016001,-30.413,-15.385,-26.989,-11.723,-16.934999,-27.586,-17.436001
-19.021,7.6825,-8.7154,-0.97561,6.8966,-12.878,7.7295,-9.7735,15.545,-0.97561,6.8966,-6.8966,-31.429001,-18.159,-33.27,-12.5,-26.989,-18.486,-3.6651,-31.527,-13.59
-13.333,15.302,1.0407,1.9512,5.9113,-11.902,13.527,-6.8608,12.618,1.9512,5.9113,-0.98522,-23.809999,-8.6349,-27.556,-2.8846,-20.225,-14.622,2.97,-27.586,-1.0897
-11.438,11.492,4.9431,1.9512,8.867,-9.9512,10.628,-7.8317,6.7642,1.9512,8.867,-0.98522,-22.857,-9.5873,-26.603001,-4.8077,-19.259001,-22.351,-1.7694,-26.601,-3.0128
-11.438,4.8254,3.9675,-9.7561,3.9409,-11.902,4.8309,-14.628,0.91057,-9.7561,3.9409,-5.9113,-26.667,-11.492,-29.459999,-9.6154,-22.158001,-26.216,1.0742,-29.556999,-6.859
-11.438,5.7778,5.9187,-5.8537,1.9704,-10.927,4.8309,-14.628,0.91057,-5.8537,1.9704,-3.9409,-20.952,-5.7778,-24.698,-6.7308,-18.292999,-25.25,1.0742,-26.601,-1.0897
-16.177,0.06349,1.0407,-8.7805,-5.9113,-17.756001,-1.9324,-21.424,-3.9675,-8.7805,-5.9113,-10.837,-21.905001,-11.492,-25.650999,-9.6154,-20.225,-25.25,-11.248,-23.645,-4.9359
-18.073,-4.6984,-4.813,-19.511999,-10.837,-14.829,-11.594,-25.306999,-3.9675,-19.511999,-10.837,-14.778,-26.667,-14.349,-27.556,-11.538,-21.191999,-28.148001,-6.5087,-22.66,-7.8205
-16.177,-5.6508,-3.8374,-15.61,-8.867,-13.854,-8.6957,-17.540001,1.8862,-15.61,-8.867,-11.823,-20.952,-9.5873,-22.794001,-10.577,-18.292999,-27.181999,4.8657,-17.733999,-3.9744
-13.333,-12.317,-2.8618,-6.8293,-0.98522,-14.829,-4.8309,-13.657,4.813,-6.8293,-0.98522,-8.867,-17.143,-9.5873,-17.079,-13.462,-15.395,-20.419001,2.0221,-10.837,-7.8205
-10.49,-17.079,-3.8374,-6.8293,7.8818,-9.9512,-6.7633,-13.657,4.813,-6.8293,7.8818,-5.9113,-16.190001,-11.492,-14.222,-17.308001,-14.428,-24.283001,-11.248,-7.8818,-13.59
-10.49,-19.937,-4.813,-0.97561,10.837,-9.9512,-7.7295,-12.686,6.7642,-0.97561,10.837,-3.9409,-13.333,-11.492,-11.365,-19.231001,-13.462,-12.689,-7.4566,-3.9409,-11.667
-11.438,-24.698,-8.7154,1.9512,4.9261,-9.9512,-7.7295,-14.628,4.813,1.9512,4.9261,-3.9409,-14.286,-12.444,-13.27,-24.038,-16.361,-20.419001,3.9179,-9.8522,-15.513
-9.5419,-18.983999,-10.667,1.9512,5.9113,-1.1707,0.0,-15.599,4.813,1.9512,5.9113,0.98522,-11.429,-10.54,-13.27,-22.115,-15.395,-19.452,9.6051,-8.867,-16.474001
-8.594,-13.27,-10.667,2.9268,4.9261,3.7073,4.8309,-11.715,11.642,2.9268,4.9261,3.9409,-7.619,-6.7302,-10.413,-16.346001,-12.496,-8.8245,3.9179,-6.8966,-9.7436
-10.49,-4.6984,-10.667,-1.9512,3.9409,-3.122,9.6618,-4.9191,12.618,-1.9512,3.9409,4.9261,-9.5238,-7.6825,-12.317,-12.5,-12.496,-13.655,2.97,-11.823,-5.8974
-14.281,5.7778,-7.7398,0.97561,9.8522,-6.0488,15.459,-4.9191,13.593,0.97561,9.8522,7.8818,-13.333,-8.6349,-15.175,-8.6538,-14.428,-16.554001,5.8136,-12.808,-3.9744
-12.385,19.111,0.06504,5.8537,15.764,-0.19512,26.087,-8.8026,19.447001,5.8537,15.764,15.764,-11.429,-7.6825,-15.175,-2.8846,-13.462,-19.452,16.24,-16.749001,-3.0128
-8.594,22.921,5.9187,0.97561,19.704,5.6585,28.018999,-11.715,28.228001,0.97561,19.704,21.674999,-9.5238,-8.6349,-13.27,0.96154,-12.496,-22.351,29.51,-20.690001,-4.9359
-2.9068,25.778,11.772,4.878,15.764,10.537,32.849998,-6.8608,27.252001,4.878,15.764,25.615999,-10.476,-8.6349,-10.413,6.7308,-9.5974,-10.757,30.458,-18.719,-3.0128
4.6761,28.635,17.625999,7.8049,18.719,15.415,30.917999,-2.9773,22.374001,7.8049,18.719,26.601,-10.476,-9.5873,-4.6984,10.577,-4.7665,-4.9597,15.292,-16.749001,-2.0513
9.4155,30.540001,23.48,5.8537,24.631001,13.463,29.952,3.8188,21.398001,5.8537,24.631001,27.586,-7.619,-6.7302,1.9683,15.385,0.06441,-3.0274,13.397,-12.808,-0.12821
13.207,29.587,25.431,13.659,24.631001,17.365999,34.783001,4.7896,19.447001,13.659,24.631001,28.570999,-8.5714,-7.6825,4.8254,15.385,1.0306,0.83736,18.136,-11.823,-2.0513
17.945999,24.825001,25.431,18.537001,19.704,23.219999,30.917999,5.7605,17.496,18.537001,19.704,28.570999,-6.6667,-7.6825,9.5873,15.385,2.963,-2.0612,16.24,-10.837,-3.0128
18.893999,22.921,24.455,14.634,19.704,28.098,23.188,2.8479,19.447001,14.634,19.704,26.601,-3.8095,-4.8254,12.444,16.346001,7.7939,-4.9597,3.9179,-8.867,-3.9744
17.945999,21.016001,21.528,11.707,20.690001,19.316999,15.459,11.586,15.545,11.707,20.690001,22.66,2.8571,1.8413,15.302,19.231001,12.625,-0.12882,1.0742,-3.9409,2.7564
16.997999,10.54,16.65,12.683,9.8522,11.512,6.7633,13.528,8.7154,12.683,9.8522,14.778,8.5714,0.88889,18.159,12.5,12.625,8.5668,0.12638,2.9557,-3.0128
19.841999,1.0159,14.699,6.8293,6.8966,15.415,3.8647,12.557,10.667,6.8293,6.8966,12.808,10.476,-4.8254,20.063,3.8462,10.692,13.398,4.8657,3.9409,-14.551
16.051001,-12.317,5.9187,19.511999,17.733999,16.389999,2.8986,17.410999,11.642,19.511999,17.733999,10.837,3.8095,-11.492,12.444,-12.5,0.06441,14.364,0.12638,0.0,-22.243999
14.155,-19.937,2.0163,21.462999,12.808,24.195,-1.9324,16.440001,0.91057,21.462999,12.808,11.823,0.95238,-15.302,7.6825,-22.115,-7.6651,14.364,-8.4044,0.98522,-25.128
17.945999,-17.079,4.9431,26.341,11.823,25.171,2.8986,27.120001,-6.8943,26.341,11.823,15.764,4.7619,-9.5873,9.5873,-23.077,-5.7327,18.229,-16.934999,6.8966,-21.282
17.945999,-18.983999,2.0163,28.292999,8.867,25.171,3.8647,37.799,-6.8943,28.292999,8.867,16.749001,-0.95238,-12.444,3.873,-26.923,-11.53,15.33,-22.622,1.9704,-17.436001
19.841999,-21.841,0.06504,21.462999,8.867,29.073,-3.8647,35.858002,-12.748,21.462999,8.867,15.764,-2.8571,-16.254,1.9683,-31.731001,-15.395,-1.095,-20.726999,-3.9409,-23.205
21.738001,-17.079,2.0163,20.488001,2.9557,30.049,-0.96618,31.003,-13.724,20.488001,2.9557,16.749001,0.95238,-15.302,5.7778,-26.923,-11.53,10.499,-17.882999,0.98522,-23.205
18.893999,-10.413,2.9919,19.511999,4.9261,23.219999,4.8309,23.236,-16.65,19.511999,4.9261,15.764,-0.95238,-14.349,6.7302,-20.191999,-9.5974,20.160999,-12.196,3.9409,-18.396999
16.997999,-5.6508,3.9675,11.707,10.837,20.292999,3.8647,19.353001,-13.724,11.707,10.837,14.778,-0.95238,-8.6349,4.8254,-13.462,-8.6312,12.432,2.0221,0.98522,-10.705
13.207,1.9683,5.9187,5.8537,3.9409,14.439,3.8647,16.440001,-5.9187,5.8537,3.9409,11.823,0.95238,-3.873,2.9206,-3.8462,-3.8003,5.6683,2.0221,0.0,-3.9744
15.103,10.54,10.797,0.0,0.0,15.415,6.7633,10.615,-4.9431,0.0,0.0,12.808,4.7619,2.7937,8.6349,5.7692,3.9291,3.7359,-0.82148,1.9704,4.6795
13.207,15.302,11.772,-3.9024,-3.9409,10.537,14.493,8.6731,-8.8455,-3.9024,-3.9409,10.837,4.7619,7.5556,11.492,12.5,8.7601,4.7021,-8.4044,1.9704,12.372
11.311,15.302,11.772,-10.732,-13.793,3.7073,10.628,5.7605,-6.8943,-10.732,-13.793,6.8966,4.7619,11.365,11.492,16.346001,12.625,1.8035,6.7615,1.9704,18.141001
10.363,17.205999,14.699,-10.732,-15.764,1.7561,4.8309,-3.9482,-7.8699,-10.732,-15.764,4.9261,5.7143,15.175,14.349,21.153999,16.49,-7.8583,16.24,1.9704,21.987
13.207,18.159,18.601999,-8.7805,-10.837,-0.19512,0.0,-4.9191,-8.8455,-8.7805,-10.837,3.9409,11.429,18.983999,19.111,25.0,21.32,-0.12882,2.0221,4.9261,25.833
15.103,16.254,20.552999,-8.7805,-8.867,-2.1463,0.0,1.877,-9.8211,-8.7805,-8.867,3.9409,20.0,23.746,23.872999,26.923,28.084,4.7021,7.7093,14.778,24.872
9.4155,10.54,16.65,-18.537001,-15.764,-6.0488,-2.8986,-5.89,-14.699,-18.537001,-15.764,0.0,23.809999,26.603001,21.968,25.0,30.016001,-0.12882,10.553,11.823,21.025999
3.7283,8.6349,14.699,-22.438999,-13.793,-12.878,-6.7633,-8.8026,-9.8211,-22.438999,-13.793,-2.9557,27.618999,32.317001,21.016001,25.0,32.915001,-4.9597,4.8657,9.8522,20.063999
0.88468,8.6349,12.748,-16.584999,-10.837,-14.829,-4.8309,-11.715,-11.772,-16.584999,-10.837,-4.9261,27.618999,30.413,18.159,22.115,30.982,-4.9597,-13.144,12.808,18.141001
-4.8025,4.8254,7.8699,-15.61,-19.704,-14.829,-5.7971,-14.628,-12.748,-15.61,-19.704,-8.867,23.809999,24.698,14.349,16.346001,25.184999,-4.9597,-11.248,12.808,12.372
-9.5419,0.06349,1.0407,-21.462999,-18.719,-17.756001,-11.594,-18.511,-11.772,-21.462999,-18.719,-9.8522,17.143,17.079,5.7778,7.6923,14.557,-17.52,-4.613,6.8966,9.4872
-10.49,-6.6032,-2.8618,-15.61,-8.867,-14.829,-9.6618,-16.57,-8.8455,-15.61,-8.867,-7.8818,9.5238,10.413,-2.7937,-1.9231,2.963,-14.622,-2.7172,-1.9704,-0.12821
-9.5419,-7.5556,-2.8618,-5.8537,-4.9261,-8.9756,1.9324,-13.657,-2.9919,-5.8537,-4.9261,-2.9557,3.8095,2.7937,-6.6032,-5.7692,-2.8341,-7.8583,-0.82148,-1.9704,-6.859
-8.594,-2.7937,-1.8862,-7.8049,-4.9261,-1.1707,1.9324,-5.89,1.8862,-7.8049,-4.9261,0.0,-0.95238,-3.873,-8.5079,-4.8077,-6.6989,-7.8583,-1.7694,0.0,-7.8205
-4.8025,2.9206,0.06504,-5.8537,1.9704,0.78049,1.9324,1.877,2.8618,-5.8537,1.9704,3.9409,-3.8095,-6.7302,-7.5556,-3.8462,-7.6651,-2.0612,-9.3523,0.98522,-7.8205
-1.0111,6.7302,-0.91057,-7.8049,0.0,0.78049,4.8309,3.8188,3.8374,-7.8049,0.0,3.9409,-7.619,-10.54,-8.5079,-2.8846,-10.564,-3.0274,4.8657,-0.98522,-4.9359
4.6761,9.5873,1.0407,1.9512,1.9704,4.6829,9.6618,-1.0356,1.8862,1.9512,1.9704,4.9261,-11.429,-13.397,-6.6032,0.96154,-9.5974,-14.622,8.6572,-2.9557,1.7949
10.363,14.349,6.8943,9.7561,5.9113,9.561,10.628,2.8479,6.7642,9.7561,5.9113,9.8522,-8.5714,-9.5873,-1.8413,9.6154,-3.8003,-3.0274,9.6051,-0.98522,8.5256
11.311,16.254,9.8211,0.0,7.8818,11.512,10.628,2.8479,9.6911,0.0,7.8818,11.823,-6.6667,-7.6825,1.0159,14.423,-0.90177,4.7021,11.501,2.9557,10.449
13.207,22.921,10.797,0.97561,5.9113,10.537,11.594,2.8479,6.7642,0.97561,5.9113,10.837,-3.8095,-9.5873,4.8254,18.268999,2.963,3.7359,6.7615,3.9409,9.4872
15.103,22.921,12.748,0.97561,3.9409,12.488,15.459,-1.0356,10.667,0.97561,3.9409,8.867,5.7143,-3.873,11.492,24.038,10.692,10.499,10.553,9.8522,17.179001
22.686001,21.968,16.65,0.0,0.0,16.389999,17.391001,2.8479,8.7154,0.0,0.0,9.8522,14.286,0.88889,21.016001,28.846001,19.388,1.8035,23.823,16.749001,18.141001
21.738001,20.063,16.65,-6.8293,-6.8966,6.6341,7.7295,5.7605,1.8862,-6.8293,-6.8966,4.9261,22.857,6.6032,27.683001,32.692001,27.118,0.83736,24.771,21.674999,17.179001
19.841999,20.063,15.675,-13.659,-0.98522,5.6585,4.8309,4.7896,1.8862,-13.659,-0.98522,0.98522,32.381001,15.175,33.396999,36.537998,35.813,14.364,14.344,27.586,20.063999
16.051001,12.444,11.772,-17.561001,-2.9557,6.6341,-3.8647,-7.8317,1.8862,-17.561001,-2.9557,-4.9261,33.333,20.889,34.348999,34.615002,38.712002,11.465,9.6051,27.586,22.948999
9.4155,1.0159,3.9675,-12.683,-10.837,-8.0,-14.493,-10.744,-2.9919,-12.683,-10.837,-14.778,32.381001,18.983999,32.444,27.885,36.778999,-0.12882,6.7615,25.615999,22.948999
4.6761,-7.5556,0.06504,-14.634,-14.778,-14.829,-20.290001,-13.657,-5.9187,-14.634,-14.778,-20.690001,32.381001,17.079,31.492001,22.115,36.778999,-3.0274,2.0221,27.586,17.179001
0.88468,-3.746,0.06504,-16.584999,-19.704,-17.756001,-17.391001,-11.715,-10.797,-16.584999,-19.704,-21.674999,35.237999,21.841,32.444,20.191999,38.712002,2.7697,-4.613,28.570999,12.372
-0.06319,-3.746,-0.91057,-12.683,-18.719,-15.805,-19.323999,-15.599,-12.748,-12.683,-18.719,-21.674999,38.095001,25.650999,32.444,19.231001,38.712002,-4.9597,2.97,29.556999,14.295
-7.6461,-14.222,-8.7154,-21.462999,-22.66,-26.537001,-23.188,-15.599,-13.724,-21.462999,-22.66,-29.556999,38.095001,23.746,28.635,12.5,34.847,-3.0274,-2.7172,28.570999,12.372
-12.385,-18.983999,-12.618,-28.292999,-22.66,-33.366001,-28.018999,-17.540001,-19.577,-28.292999,-22.66,-33.498001,35.237999,20.889,23.872999,6.7308,30.016001,-3.0274,-15.039,25.615999,9.4872
-7.6461,-18.983999,-9.6911,-18.537001,-12.808,-26.537001,-29.952,-18.511,-15.675,-18.537001,-12.808,-28.570999,34.285999,18.983999,21.016001,3.8462,26.150999,-1.095,-16.934999,22.66,8.5256
-2.9068,-18.032,-7.7398,-9.7561,-9.8522,-18.732,-28.986,-11.715,-11.772,-9.7561,-9.8522,-22.66,32.381001,17.079,19.111,0.96154,21.32,-9.7907,-24.518,22.66,3.7179
1.8325,-11.365,-4.813,-11.707,-13.793,-11.902,-22.222,-9.7735,-9.8211,-11.707,-13.793,-16.749001,28.570999,11.365,13.397,-1.9231,16.49,-13.655,-14.092,13.793,1.7949
-1.0111,-14.222,-6.7642,-8.7805,-13.793,-7.0244,-15.459,-11.715,-9.8211,-8.7805,-13.793,-13.793,21.905001,7.5556,5.7778,-8.6538,7.7939,-6.8921,-3.6651,5.9113,-0.12821
-4.8025,-18.983999,-11.642,-10.732,-16.749001,-8.0,-14.493,-12.686,-13.724,-10.732,-16.749001,-14.778,16.190001,6.6032,-1.8413,-15.385,-0.90177,-9.7907,-7.4566,7.8818,-3.9744
-5.7504,-18.983999,-13.593,-8.7805,-15.764,-6.0488,-15.459,-18.511,-16.65,-8.7805,-15.764,-14.778,9.5238,5.6508,-7.5556,-18.268999,-6.6989,-18.486,-11.248,3.9409,-5.8974
-10.49,-19.937,-16.52,-9.7561,-15.764,-11.902,-18.357,-13.657,-19.577,-9.7561,-15.764,-16.749001,0.95238,1.8413,-14.222,-19.231001,-11.53,-9.7907,-22.622,-2.9557,-5.8974
-9.5419,-16.127001,-12.618,-13.659,-11.823,-11.902,-19.323999,-4.9191,-15.675,-13.659,-11.823,-12.808,-0.95238,2.7937,-17.079,-17.308001,-11.53,0.83736,-18.830999,-1.9704,-3.9744
-8.594,-11.365,-7.7398,-3.9024,-6.8966,-7.0244,-13.527,-4.9191,-7.8699,-3.9024,-6.8966,-5.9113,-1.9048,1.8413,-18.032,-15.385,-12.496,-8.8245,-11.248,-0.98522,-2.0513
-10.49,-6.6032,-4.813,4.878,-0.98522,-3.122,-2.8986,-4.9191,-1.0407,4.878,-0.98522,0.98522,-9.5238,-1.9683,-23.746,-14.423,-16.361,-11.723,-6.5087,-7.8818,-3.0128
-8.594,1.9683,1.0407,5.8537,6.8966,1.7561,5.7971,-4.9191,6.7642,5.8537,6.8966,8.867,-9.5238,0.88889,-21.841,-9.6154,-14.428,-11.723,1.0742,-10.837,1.7949
-6.6983,4.8254,6.8943,11.707,12.808,5.6585,11.594,-2.0065,10.667,11.707,12.808,13.793,-4.7619,2.7937,-18.032,-5.7692,-11.53,-3.9936,4.8657,-6.8966,6.6026
-7.6461,-0.88889,2.9919,5.8537,0.0,-6.0488,8.6957,-1.0356,10.667,5.8537,0.0,6.8966,-6.6667,-3.873,-18.983999,-10.577,-14.428,-3.9936,4.8657,-6.8966,-1.0897
-15.229,-5.6508,-0.91057,-3.9024,0.98522,-17.756001,3.8647,-5.89,5.7886,-3.9024,0.98522,-2.9557,-9.5238,-6.7302,-22.794001,-16.346001,-19.259001,-16.554001,-0.82148,-9.8522,-5.8974
-16.177,-0.88889,1.0407,-3.9024,4.9261,-12.878,6.7633,-4.9191,11.642,-3.9024,4.9261,0.0,-2.8571,-2.9206,-18.032,-15.385,-16.361,-3.0274,-4.613,-1.9704,-2.0513
-15.229,-1.8413,1.0407,-6.8293,1.9704,-4.0976,11.594,-9.7735,9.6911,-6.8293,1.9704,2.9557,-6.6667,-3.873,-20.889,-19.231001,-19.259001,1.8035,-0.82148,-5.9113,-3.0128
-13.333,-3.746,-0.91057,0.97561,14.778,-3.122,8.6957,-9.7735,10.667,0.97561,14.778,5.9113,-9.5238,-2.9206,-23.746,-21.153999,-22.158001,-6.8921,-8.4044,-11.823,-3.0128
-9.5419,-1.8413,2.0163,7.8049,13.793,-2.1463,13.527,-3.9482,11.642,7.8049,13.793,9.8522,-7.619,1.8413,-21.841,-17.308001,-20.225,-8.8245,-9.3523,-12.808,-0.12821
-12.385,-4.6984,-1.8862,6.8293,6.8966,1.7561,13.527,-5.89,7.7398,6.8293,6.8966,7.8818,-12.381,-3.873,-25.650999,-19.231001,-23.124001,-16.554001,-2.7172,-22.66,-6.859
-16.177,-5.6508,-6.7642,5.8537,9.8522,1.7561,13.527,-5.89,7.7398,5.8537,9.8522,4.9261,-17.143,-5.7778,-30.413,-18.268999,-25.056,-24.283001,-7.4566,-27.586,-11.667
-17.125,-3.746,-10.667,6.8293,7.8818,4.6829,6.7633,-12.686,6.7642,6.8293,7.8818,1.9704,-20.952,-1.0159,-32.317001,-12.5,-25.056,-31.047001,1.0742,-27.586,-4.9359
-21.864,-3.746,-15.545,2.9268,9.8522,-3.122,-0.96618,-5.89,12.618,2.9268,9.8522,-3.9409,-23.809999,-3.873,-33.27,-10.577,-26.989,-10.757,9.6051,-24.631001,-3.9744
-25.656,-1.8413,-19.447001,-1.9512,9.8522,-12.878,1.9324,2.8479,14.569,-1.9512,9.8522,-11.823,-23.809999,-3.873,-33.27,-9.6154,-27.955,-1.095,9.6051,-20.690001,-1.0897
-29.447001,-2.7937,-28.228001,1.9512,2.9557,-10.927,-5.7971,-2.0065,14.569,1.9512,2.9557,-18.719,-24.761999,-1.0159,-36.126999,-9.6154,-30.853001,-9.7907,2.97,-22.66,1.7949
-30.395,0.06349,-32.130001,-0.97561,-3.9409,-13.854,-11.594,-2.0065,11.642,-0.97561,-3.9409,-22.66,-23.809999,-1.9683,-36.126999,-7.6923,-30.853001,-10.757,-0.82148,-21.674999,7.5641
-31.343,-5.6508,-36.033001,-9.7561,-10.837,-18.732,-15.459,-2.9773,7.7398,-9.7561,-10.837,-26.601,-25.714001,-5.7778,-36.126999,-9.6154,-31.82,-14.622,12.449,-21.674999,5.641
-34.186001,-16.127001,-38.959,-13.659,-11.823,-24.584999,-25.121,-10.744,-1.0407,-13.659,-11.823,-32.512001,-26.667,-6.7302,-37.078999,-13.462,-33.751999,-16.554001,21.927,-21.674999,1.7949
-32.291,-16.127001,-37.007999,-14.634,-11.823,-25.561001,-27.052999,-15.599,-6.8943,-14.634,-11.823,-33.498001,-24.761999,-6.7302,-32.317001,-11.538,-28.921,-19.452,10.553,-20.690001,1.7949
-28.499001,-15.175,-32.130001,-14.634,-13.793,-20.683001,-28.986,-16.57,-3.9675,-14.634,-13.793,-30.542,-17.143,-2.9206,-24.698,-5.7692,-21.191999,-3.9936,6.7615,-13.793,5.641
-23.76,-15.175,-27.252001,-21.462999,-20.690001,-21.659,-32.849998,-15.599,-7.8699,-21.462999,-20.690001,-30.542,-7.619,-0.06349,-16.127001,-3.8462,-13.462,1.8035,-2.7172,-6.8966,4.6795
-12.385,-13.27,-16.52,-23.415001,-22.66,-20.683001,-28.986,-9.7735,-12.748,-23.415001,-22.66,-25.615999,4.7619,5.6508,-2.7937,-0.96154,-1.868,-1.095,-1.7694,6.8966,5.641
-3.8547,-9.4603,-3.8374,-16.584999,-21.674999,-18.732,-18.357,-5.89,-10.797,-16.584999,-21.674999,-17.733999,10.476,12.317,6.7302,3.8462,7.7939,0.83736,-3.6651,9.8522,9.4872
2.7804,-4.6984,7.8699,-9.7561,-19.704,-12.878,-0.96618,-6.8608,-4.9431,-9.7561,-19.704,-3.9409,14.286,14.222,13.397,3.8462,14.557,-2.0612,-5.5608,7.8818,4.6795
7.5197,2.9206,17.625999,-11.707,-7.8818,-4.0976,2.8986,-9.7735,-2.0163,-11.707,-7.8818,5.9113,20.952,13.27,18.159,2.8846,18.422001,-7.8583,-5.5608,13.793,-6.859
5.624,4.8254,18.601999,-11.707,0.0,-4.0976,2.8986,-13.657,0.91057,-11.707,0.0,6.8966,21.905001,11.365,17.205999,0.96154,18.422001,-4.9597,-1.7694,14.778,-8.7821
-3.8547,1.0159,7.8699,-17.561001,-2.9557,-10.927,7.7295,-25.306999,5.7886,-17.561001,-2.9557,1.9704,9.5238,2.7937,4.8254,-7.6923,6.8277,-8.8245,-14.092,0.0,-12.628
-6.6983,3.873,4.9431,-20.488001,-0.98522,-10.927,11.594,-34.044998,12.618,-20.488001,-0.98522,1.9704,0.0,-2.9206,-2.7937,-9.6154,-0.90177,-19.452,0.12638,-5.9113,-10.705
-10.49,11.492,3.9675,-30.243999,-3.9409,-15.805,16.424999,-30.162001,12.618,-30.243999,-3.9409,0.98522,-7.619,-4.8254,-9.4603,-6.7308,-5.7327,-26.216,15.292,-15.764,-3.9744
-14.281,10.54,-0.91057,-26.341,-0.98522,-21.659,15.459,-28.219999,13.593,-26.341,-0.98522,-1.9704,-19.048,-10.54,-18.983999,-10.577,-14.428,-31.047001,20.032,-26.601,-7.8205
-17.125,8.6349,-6.7642,-16.584999,5.9113,-22.634001,10.628,-31.132999,18.472,-16.584999,5.9113,-4.9261,-25.714001,-11.492,-24.698,-10.577,-19.259001,-33.945,21.927,-31.527,-9.7436
-21.864,11.492,-10.667,-16.584999,6.8966,-22.634001,8.6957,-25.306999,15.545,-16.584999,6.8966,-6.8966,-28.570999,-10.54,-26.603001,-6.7308,-20.225,-23.316999,12.449,-30.542,-3.0128
-19.968,17.205999,-5.7886,-8.7805,7.8818,-16.780001,10.628,-19.482,14.569,-8.7805,7.8818,-3.9409,-30.476,-11.492,-23.746,0.0,-17.327,-19.452,12.449,-30.542,1.7949
-18.073,15.302,-4.813,-8.7805,2.9557,-17.756001,9.6618,-15.599,8.7154,-8.7805,2.9557,-5.9113,-31.429001,-9.5873,-21.841,4.8077,-13.462,-26.216,8.6572,-32.512001,4.6795
-11.438,16.254,-0.91057,-2.9268,-1.9704,-7.0244,10.628,-16.57,5.7886,-2.9268,-1.9704,-1.9704,-27.618999,-6.7302,-15.175,9.6154,-7.6651,-13.655,10.553,-27.586,7.5641
-2.9068,13.397,2.0163,-1.9512,1.9704,-2.1463,8.6957,-2.0065,11.642,-1.9512,1.9704,1.9704,-20.952,-2.9206,-5.6508,15.385,0.06441,2.7697,17.188,-19.704,11.41
3.7283,10.54,2.0163,-2.9268,0.98522,-0.19512,6.7633,5.7605,3.8374,-2.9268,0.98522,1.9704,-16.190001,-0.06349,1.9683,18.268999,5.8615,-1.095,13.397,-15.764,14.295
11.311,9.5873,7.8699,4.878,2.9557,10.537,3.8647,3.8188,-3.9675,4.878,2.9557,5.9113,-7.619,2.7937,12.444,22.115,14.557,13.398,9.6051,-1.9704,11.41
22.686001,11.492,15.675,14.634,11.823,19.316999,-8.6957,13.528,-7.8699,14.634,11.823,13.793,-0.95238,5.6508,22.921,25.962,23.253,23.059999,2.0221,2.9557,8.5256
33.112,4.8254,20.552999,20.488001,9.8522,25.171,-5.7971,23.236,-12.748,20.488001,9.8522,17.733999,0.95238,0.88889,29.587,23.077,25.184999,28.857,-14.092,5.9113,4.6795
37.852001,-1.8413,25.431,27.316999,6.8966,32.0,2.8986,31.003,-15.675,27.316999,6.8966,21.674999,3.8095,-0.06349,34.348999,19.231001,27.118,24.992001,-21.674999,15.764,0.83333
45.433998,-1.8413,33.236,32.195,7.8818,44.682999,6.7633,31.003,-9.8211,32.195,7.8818,28.570999,10.476,1.8413,41.015999,18.268999,30.982,32.721001,-15.987,22.66,-0.12821
50.174,-3.746,37.138,31.219999,10.837,45.659,10.628,37.799,-5.9187,31.219999,10.837,33.498001,15.238,6.6032,46.73,17.308001,34.847,37.551998,-7.4566,25.615999,-3.0128
52.07,-1.8413,40.064999,40.0,17.733999,42.731998,17.391001,43.625,-2.9919,40.0,17.733999,36.452999,20.0,5.6508,49.587002,15.385,36.778999,42.382999,-14.092,30.542,-7.8205
52.07,-2.7937,38.113998,44.877998,24.631001,48.584999,15.459,42.653999,-0.06504,44.877998,24.631001,37.438,20.0,2.7937,48.634998,9.6154,34.847,47.214001,-22.622,35.467999,-7.8205
50.174,-2.7937,34.210999,39.023998,25.615999,51.512001,8.6957,42.653999,-4.9431,39.023998,25.615999,37.438,16.190001,-1.9683,43.873001,1.9231,28.084,44.316002,-19.778999,34.483002,-16.474001
48.278,-2.7937,31.285,40.976002,25.615999,51.512001,12.56,43.625,-1.0407,40.976002,25.615999,38.424,14.286,-5.7778,41.015999,-2.8846,24.219,41.417,-25.466,28.570999,-26.09
50.174,-3.746,31.285,42.926998,27.586,48.584999,20.290001,42.653999,1.8862,42.926998,27.586,39.409,13.333,-5.7778,39.111,-3.8462,23.253,39.485001,-19.778999,24.631001,-24.167
46.382,-0.88889,28.358,43.902,27.586,44.682999,21.256001,31.003,3.8374,43.902,27.586,38.424,7.619,-11.492,34.348999,-3.8462,20.354,33.688,-7.4566,20.690001,-23.205
49.226002,9.5873,35.187,44.877998,28.570999,48.584999,35.749001,32.945,8.7154,44.877998,28.570999,44.334999,7.619,-15.302,38.159,2.8846,25.184999,38.519001,-5.5608,25.615999,-19.358999
54.912998,21.016001,43.966999,40.976002,31.527,50.536999,44.444,43.625,9.6911,40.976002,31.527,50.245998,12.381,-12.444,44.825001,12.5,31.948,46.248001,-3.6651,30.542,-11.667
49.226002,26.73,43.966999,40.0,31.527,43.707001,38.646999,41.682999,8.7154,40.0,31.527,45.32,12.381,-11.492,43.873001,18.268999,31.948,45.282001,-5.5608,28.570999,-1.0897
40.695,27.683001,38.113998,39.023998,27.586,38.828999,32.849998,31.974001,8.7154,39.023998,27.586,38.424,5.7143,-15.302,38.159,18.268999,28.084,35.619999,-6.5087,24.631001,-4.9359
37.852001,25.778,35.187,31.219999,21.674999,36.877998,29.952,31.003,7.7398,31.219999,21.674999,34.483002,5.7143,-10.54,36.254002,19.231001,26.150999,28.857,9.6051,25.615999,-3.0128
33.112,21.968,28.358,20.488001,14.778,26.146,19.323999,31.003,8.7154,20.488001,14.778,25.615999,10.476,2.7937,34.348999,20.191999,26.150999,24.992001,14.344,26.601,5.641
23.632999,19.111,19.577,9.7561,5.9113,13.463,15.459,20.323999,1.8862,9.7561,5.9113,12.808,15.238,14.222,28.635,20.191999,24.219,27.889999,5.8136,28.570999,13.333
15.103,12.444,9.8211,4.878,-2.9557,9.561,10.628,9.644,-2.9919,4.878,-2.9557,3.9409,14.286,20.889,21.016001,18.268999,19.388,25.958,6.7615,22.66,19.103001
12.259,7.6825,5.9187,8.7805,-0.98522,6.6341,4.8309,10.615,-10.797,8.7805,-0.98522,0.98522,16.190001,30.413,16.254,18.268999,17.455999,10.499,8.6572,14.778,23.91
9.4155,4.8254,2.9919,4.878,-1.9704,2.7317,-6.7633,13.528,-14.699,4.878,-1.9704,-0.98522,18.094999,35.174999,13.397,16.346001,16.49,7.6006,3.9179,10.837,29.679001
-1.0111,-5.6508,-7.7398,3.9024,-8.867,-4.0976,-15.459,5.7605,-14.699,3.9024,-8.867,-8.867,12.381,27.556,4.8254,3.8462,3.9291,2.7697,15.292,6.8966,20.063999
-12.385,-17.079,-21.398001,-0.97561,-12.808,-8.9756,-20.290001,-2.9773,-7.8699,-0.97561,-12.808,-16.749001,0.95238,17.079,-7.5556,-11.538,-11.53,-8.8245,15.292,-1.9704,6.6026
-25.656,-26.603001,-34.081001,-8.7805,-16.749001,-17.756001,-29.952,-8.8026,-4.9431,-8.7805,-16.749001,-27.586,-6.6667,4.6984,-17.079,-23.077,-23.124001,-15.588,3.9179,-6.8966,-3.9744
-30.395,-34.222,-42.862,-8.7805,-19.704,-20.683001,-34.783001,-16.57,-5.9187,-8.7805,-19.704,-35.467999,-10.476,-3.873,-21.841,-31.731001,-29.886999,-5.9259,-2.7172,-4.9261,-12.628
-30.395,-38.032001,-48.715,-14.634,-21.674999,-28.488001,-44.444,-11.715,-12.748,-14.634,-21.674999,-42.365002,-7.619,-8.6349,-19.937,-34.615002,-32.785999,2.7697,-9.3523,-1.9704,-15.513
-28.499001,-40.889,-49.691002,-17.561001,-24.631001,-26.537001,-48.308998,-3.9482,-14.699,-17.561001,-24.631001,-44.334999,-2.8571,-11.492,-16.127001,-35.577,-31.82,6.6345,-9.3523,7.8818,-17.436001
-20.916,-38.032001,-46.764,-14.634,-22.66,-19.707001,-45.410999,0.90615,-10.797,-14.634,-22.66,-40.394001,-2.8571,-14.349,-11.365,-31.731001,-29.886999,7.6006,-19.778999,15.764,-13.59
-20.916,-37.078999,-44.813,-10.732,-21.674999,-19.707001,-44.444,-4.9191,-7.8699,-10.732,-21.674999,-41.379002,-9.5238,-21.968,-14.222,-31.731001,-31.82,5.6683,-7.4566,9.8522,-14.551
-24.708,-32.317001,-41.886002,-13.659,-20.690001,-20.683001,-46.376999,-10.744,-8.8455,-13.659,-20.690001,-39.409,-13.333,-26.73,-17.079,-28.846001,-32.785999,3.7359,6.7615,5.9113,-17.436001
-22.812,-21.841,-34.081001,-11.707,-23.645,-26.537001,-30.917999,-4.9191,-4.9431,-11.707,-23.645,-32.512001,-15.238,-27.683001,-17.079,-22.115,-29.886999,-3.9936,8.6572,2.9557,-12.628
-23.76,-12.317,-28.228001,-10.732,-19.704,-26.537001,-17.391001,-4.9191,-0.06504,-10.732,-19.704,-26.601,-16.190001,-29.587,-18.032,-17.308001,-27.955,-2.0612,5.8136,1.9704,-9.7436
-19.021,1.0159,-16.52,-13.659,-6.8966,-19.707001,-4.8309,-6.8608,8.7154,-13.659,-6.8966,-16.749001,-14.286,-21.968,-15.175,-6.7308,-20.225,-1.095,9.6051,-2.9557,-1.0897
-23.76,9.5873,-9.6911,-22.438999,-5.9113,-25.561001,0.96618,-12.686,6.7642,-22.438999,-5.9113,-13.793,-12.381,-15.302,-16.127001,0.0,-16.361,-11.723,3.9179,-9.8522,5.641
-22.812,7.6825,-7.7398,-20.488001,-5.9113,-24.584999,1.9324,-21.424,6.7642,-20.488001,-5.9113,-12.808,-9.5238,-13.397,-18.032,0.0,-15.395,-25.25,13.397,-11.823,-0.12821
-20.916,4.8254,-6.7642,-14.634,0.0,-19.707001,2.8986,-21.424,8.7154,-14.634,0.0,-10.837,-4.7619,-8.6349,-17.079,-1.9231,-13.462,-38.776001,18.136,-14.778,-3.0128
-25.656,2.9206,-5.7886,-15.61,0.98522,-22.634001,3.8647,-25.306999,13.593,-15.61,0.98522,-12.808,0.0,-1.0159,-16.127001,0.0,-10.564,-35.877998,5.8136,-16.749001,-0.12821
-28.499001,2.9206,-6.7642,-15.61,-4.9261,-30.438999,0.96618,-22.395,12.618,-15.61,-4.9261,-17.733999,3.8095,1.8413,-17.079,1.9231,-8.6312,-36.844002,3.9179,-18.719,-2.0513
-29.447001,3.873,-6.7642,-16.584999,-5.9113,-28.488001,1.9324,-25.306999,10.667,-16.584999,-5.9113,-18.719,7.619,4.6984,-17.079,3.8462,-5.7327,-37.810001,2.97,-19.704,-2.0513
-31.343,1.9683,-9.6911,-19.511999,-1.9704,-25.561001,0.96618,-25.306999,10.667,-19.511999,-1.9704,-21.674999,8.5714,6.6032,-18.032,2.8846,-4.7665,-33.945,-3.6651,-19.704,0.83333
-25.656,1.0159,-11.642,-24.389999,-3.9409,-29.462999,-4.8309,-24.337,5.7886,-24.389999,-3.9409,-23.645,15.238,12.317,-13.27,0.96154,-0.90177,-42.640999,-5.5608,-20.690001,-0.12821
-21.864,2.9206,-9.6911,-23.415001,-4.9261,-31.415001,-3.8647,-25.306999,7.7398,-23.415001,-4.9261,-22.66,24.761999,19.937,-6.6032,4.8077,6.8277,-37.810001,3.9179,-13.793,1.7949
-17.125,6.7302,-4.813,-21.462999,-3.9409,-26.537001,-7.7295,-19.482,7.7398,-21.462999,-3.9409,-22.66,33.333,27.556,1.9683,13.462,17.455999,-32.979,4.8657,-3.9409,10.449
-14.281,5.7778,-4.813,-26.341,-8.867,-23.610001,-14.493,-25.306999,-0.06504,-26.341,-8.867,-25.615999,34.285999,33.27,3.873,18.268999,22.287001,-32.013,-2.7172,-2.9557,18.141001
-20.916,0.06349,-10.667,-37.073002,-24.631001,-33.366001,-25.121,-34.044998,-9.8211,-37.073002,-24.631001,-35.467999,31.429001,31.365,0.06349,16.346001,20.354,-40.709,-10.3,-2.9557,20.063999
-21.864,-1.8413,-13.593,-50.731998,-30.542,-34.341,-28.018999,-45.695999,-16.65,-50.731998,-30.542,-39.409,27.618999,33.27,-0.88889,14.423,19.388,-43.606998,-14.092,-4.9261,23.91
-17.125,1.9683,-8.7154,-37.073002,-22.66,-32.389999,-26.087,-35.987,-6.8943,-37.073002,-22.66,-35.467999,30.476,38.032001,3.873,22.115,26.150999,-36.844002,-11.248,-2.9557,31.603001
-16.177,7.6825,-4.813,-35.122002,-22.66,-33.366001,-17.391001,-33.074001,-1.0407,-35.122002,-22.66,-34.483002,27.618999,35.174999,3.873,26.923,28.084,-32.013,8.6572,-4.9261,33.526001
-25.656,4.8254,-11.642,-45.854,-25.615999,-42.146,-23.188,-43.754002,-5.9187,-45.854,-25.615999,-40.394001,16.190001,27.556,-6.6032,21.153999,18.422001,-37.810001,13.397,-9.8522,26.795
-29.447001,4.8254,-12.618,-41.951,-23.645,-43.122002,-24.155001,-42.783001,-5.9187,-41.951,-23.645,-40.394001,9.5238,21.841,-12.317,17.308001,11.659,-40.709,8.6572,-12.808,24.872
-29.447001,7.6825,-12.618,-40.0,-21.674999,-36.292999,-22.222,-43.754002,0.91057,-40.0,-21.674999,-37.438,2.8571,17.079,-15.175,14.423,5.8615,-41.674999,9.6051,-18.719,22.948999
-30.395,6.7302,-12.618,-36.098,-14.778,-38.243999,-20.290001,-32.104,7.7398,-36.098,-14.778,-34.483002,-1.9048,12.317,-19.937,10.577,0.06441,-36.844002,3.9179,-18.719,21.025999
-30.395,7.6825,-11.642,-32.195,-14.778,-38.243999,-19.323999,-26.278,6.7642,-32.195,-14.778,-29.556999,-7.619,10.413,-22.794001,6.7308,-6.6989,-38.776001,9.6051,-20.690001,20.063999
-27.551001,3.873,-9.6911,-22.438999,-13.793,-27.511999,-10.628,-21.424,6.7642,-22.438999,-13.793,-19.704,-11.429,1.8413,-26.603001,-0.96154,-13.462,-30.080999,9.6051,-23.645,15.256
-11.438,11.492,2.0163,-6.8293,-11.823,-6.0488,6.7633,-8.8026,5.7886,-6.8293,-11.823,-0.98522,-2.8571,4.6984,-18.032,1.9231,-9.5974,-11.723,20.032,-15.764,11.41
-2.9068,13.397,7.8699,3.9024,-0.98522,2.7317,12.56,-1.0356,7.7398,3.9024,-0.98522,8.867,0.0,8.5079,-14.222,2.8846,-7.6651,-6.8921,23.823,-8.867,9.4872
-1.9589,9.5873,8.8455,10.732,4.9261,8.5854,17.391001,0.90615,9.6911,10.732,4.9261,15.764,-7.619,4.6984,-17.079,-2.8846,-13.462,-10.757,14.344,-10.837,7.5641
0.88468,11.492,11.772,13.659,9.8522,19.316999,25.121,-0.06472,8.7154,13.659,9.8522,24.631001,-14.286,-1.9683,-19.937,-4.8077,-17.327,-14.622,1.0742,-21.674999,1.7949
7.5197,15.302,16.65,19.511999,16.749001,23.219999,28.018999,13.528,10.667,19.511999,16.749001,31.527,-16.190001,-4.8254,-17.079,-1.9231,-15.395,-3.9936,2.0221,-19.704,0.83333
7.5197,21.968,19.577,18.537001,19.704,24.195,26.087,18.382,9.6911,18.537001,19.704,32.512001,-17.143,-5.7778,-14.222,0.96154,-14.428,6.6345,9.6051,-14.778,2.7564
10.363,15.302,17.625999,18.537001,18.719,31.024,27.052999,18.382,9.6911,18.537001,18.719,34.483002,-21.905001,-10.54,-13.27,-1.9231,-17.327,6.6345,9.6051,-17.733999,-5.8974
14.155,12.444,16.65,29.268,13.793,33.951,28.986,23.236,8.7154,29.268,13.793,36.452999,-20.952,-11.492,-10.413,-2.8846,-17.327,10.499,8.6572,-13.793,-9.7436
20.790001,15.302,20.552999,43.902,23.645,38.828999,29.952,32.945,10.667,43.902,23.645,41.379002,-13.333,-5.7778,-3.746,0.0,-13.462,22.093,2.0221,-2.9557,-4.9359
24.580999,14.349,19.577,40.976002,24.631001,45.659,25.121,36.827999,4.813,40.976002,24.631001,42.365002,-10.476,-2.9206,-0.88889,-0.96154,-12.496,25.958,7.7093,0.98522,-2.0513
21.738001,5.7778,13.724,41.951,22.66,46.633999,22.222,36.827999,-3.9675,41.951,22.66,39.409,-19.048,-10.54,-5.6508,-7.6923,-19.259001,22.093,5.8136,-4.9261,-5.8974
21.738001,-1.8413,9.8211,44.877998,25.615999,48.584999,21.256001,29.061001,-1.0407,44.877998,25.615999,39.409,-21.905001,-16.254,-6.6032,-13.462,-23.124001,21.127001,2.0221,-4.9261,-10.705
18.893999,-10.413,4.9431,40.0,21.674999,37.854,13.527,35.858002,3.8374,40.0,21.674999,33.498001,-25.714001,-21.016001,-7.5556,-18.268999,-26.023001,28.857,0.12638,-7.8818,-12.628
18.893999,-7.5556,3.9675,33.171001,25.615999,33.951,14.493,36.827999,5.7886,33.171001,25.615999,31.527,-28.570999,-24.825001,-7.5556,-17.308001,-26.989,33.688,-13.144,-7.8818,-10.705
16.997999,0.06349,4.9431,35.122002,26.601,35.902,20.290001,32.945,12.618,35.122002,26.601,32.512001,-32.381001,-28.635,-10.413,-16.346001,-27.955,29.823,-3.6651,-9.8522,-14.551
12.259,-5.6508,-0.91057,39.023998,25.615999,32.0,17.391001,29.061001,14.569,39.023998,25.615999,28.570999,-35.237999,-36.254002,-15.175,-21.153999,-32.785999,24.025999,12.449,-14.778,-23.205
12.259,-8.5079,-2.8618,40.0,30.542,32.976002,20.290001,27.120001,19.447001,40.0,30.542,29.556999,-34.285999,-34.348999,-15.175,-20.191999,-31.82,28.857,13.397,-9.8522,-20.320999
8.4676,-10.413,-8.7154,29.268,23.645,26.146,18.357,24.207001,15.545,29.268,23.645,24.631001,-36.189999,-34.348999,-18.032,-23.077,-34.717999,28.857,6.7615,-8.867,-19.358999
5.624,-8.5079,-10.667,29.268,22.66,23.219999,13.527,21.294001,9.6911,29.268,22.66,22.66,-36.189999,-35.301998,-18.983999,-24.038,-34.717999,19.195,-1.7694,-10.837,-20.320999
4.6761,-8.5079,-7.7398,26.341,22.66,22.243999,14.493,17.410999,1.8862,26.341,22.66,20.690001,-32.381001,-32.444,-17.079,-21.153999,-30.853001,16.296,-1.7694,-9.8522,-16.474001
3.7283,-10.413,-7.7398,13.659,11.823,12.488,9.6618,18.382,-3.9675,13.659,11.823,14.778,-30.476,-26.73,-16.127001,-17.308001,-27.955,19.195,-6.5087,-7.8818,-11.667
2.7804,-7.5556,-5.7886,18.537001,8.867,7.6098,6.7633,15.469,-6.8943,18.537001,8.867,12.808,-29.524,-21.968,-14.222,-14.423,-23.124001,20.160999,-10.3,-5.9113,-9.7436
0.88468,-2.7937,-4.813,18.537001,5.9113,9.561,8.6957,6.7314,-10.797,18.537001,5.9113,11.823,-22.857,-17.205999,-10.413,-11.538,-17.327,21.127001,-7.4566,-1.9704,-11.667
-0.06319,-5.6508,-4.813,6.8293,6.8966,5.6585,2.8986,7.7023,-12.748,6.8293,6.8966,8.867,-14.286,-13.397,-5.6508,-11.538,-12.496,18.229,1.0742,3.9409,-8.7821
-0.06319,-9.4603,-3.8374,5.8537,5.9113,5.6585,-1.9324,1.877,-10.797,5.8537,5.9113,6.8966,-8.5714,-9.5873,-3.746,-10.577,-9.5974,8.5668,1.0742,2.9557,-5.8974
-1.0111,-7.5556,0.06504,0.97561,-2.9557,0.78049,2.8986,-1.0356,-9.8211,0.97561,-2.9557,4.9261,-4.7619,-3.873,-1.8413,-6.7308,-4.7665,0.83736,-4.613,4.9261,-2.0513
0.88468,-1.8413,5.9187,1.9512,1.9704,0.78049,3.8647,3.8188,-6.8943,1.9512,1.9704,9.8522,0.95238,-1.0159,1.9683,-0.96154,0.06441,21.127001,-10.3,13.793,1.7949
-2.9068,3.873,7.8699,3.9024,5.9113,-2.1463,3.8647,11.586,-7.8699,3.9024,5.9113,10.837,0.0,-4.8254,0.06349,0.96154,0.06441,30.789,-10.3,12.808,-0.12821
0.88468,6.7302,7.8699,-4.878,1.9704,-2.1463,11.594,11.586,-10.797,-4.878,1.9704,11.823,-0.95238,-3.873,1.0159,4.8077,2.963,22.093,1.0742,9.8522,1.7949
2.7804,5.7778,6.8943,-5.8537,-4.9261,-0.19512,17.391001,5.7605,-10.797,-5.8537,-4.9261,9.8522,-2.8571,-8.6349,1.9683,4.8077,1.9968,21.127001,3.9179,2.9557,-2.0513
0.88468,6.7302,3.9675,-3.9024,2.9557,-3.122,17.391001,0.90615,-2.0163,-3.9024,2.9557,8.867,-7.619,-16.254,0.06349,2.8846,-0.90177,16.296,1.0742,2.9557,-9.7436
5.624,12.444,8.8455,-2.9268,11.823,1.7561,22.222,-3.9482,8.7154,-2.9268,11.823,13.793,-8.5714,-16.254,2.9206,7.6923,2.963,20.160999,-2.7172,4.9261,-7.8205
7.5197,11.492,8.8455,-5.8537,8.867,0.78049,20.290001,2.8479,11.642,-5.8537,8.867,12.808,-10.476,-19.111,3.873,7.6923,3.9291,4.7021,7.7093,1.9704,-12.628
5.624,6.7302,4.9431,-6.8293,3.9409,3.7073,21.256001,7.7023,9.6911,-6.8293,3.9409,11.823,-9.5238,-20.063,4.8254,5.7692,4.8953,15.33,10.553,0.98522,-18.396999
5.624,4.8254,2.0163,-5.8537,2.9557,0.78049,13.527,6.7314,9.6911,-5.8537,2.9557,7.8818,-4.7619,-13.397,5.7778,7.6923,7.7939,23.059999,-2.7172,3.9409,-15.513
8.4676,3.873,2.0163,-13.659,1.9704,2.7317,7.7295,6.7314,7.7398,-13.659,1.9704,6.8966,-0.95238,-9.5873,10.54,10.577,13.591,24.992001,3.9179,10.837,-12.628
15.103,3.873,5.9187,-7.8049,3.9409,10.537,11.594,6.7314,2.8618,-7.8049,3.9409,9.8522,7.619,-1.0159,18.159,12.5,19.388,27.889999,-2.7172,20.690001,-6.859
22.686001,7.6825,10.797,0.97561,1.9704,17.365999,10.628,12.557,-2.9919,0.97561,1.9704,12.808,15.238,12.317,25.778,18.268999,27.118,28.857,-8.4044,27.586,7.5641
25.528999,2.9206,6.8943,-2.9268,-4.9261,13.463,3.8647,5.7605,-8.8455,-2.9268,-4.9261,6.8966,14.286,12.317,26.73,15.385,27.118,21.127001,-1.7694,25.615999,6.6026
24.580999,-1.8413,6.8943,0.97561,-8.867,11.512,-2.8986,6.7314,-12.748,0.97561,-8.867,4.9261,19.048,10.413,31.492001,13.462,30.982,22.093,-6.5087,32.512001,0.83333
27.424999,0.06349,14.699,11.707,-0.98522,24.195,-3.8647,9.644,-16.65,11.707,-0.98522,9.8522,24.761999,11.365,38.159,15.385,36.778999,28.857,-8.4044,38.424,3.7179
23.632999,-6.6032,13.724,9.7561,-6.8966,16.389999,-5.7971,19.353001,-19.577,9.7561,-6.8966,6.8966,20.0,7.5556,34.348999,9.6154,31.948,28.857,-8.4044,33.498001,3.7179
19.841999,-6.6032,13.724,2.9268,-2.9557,7.6098,-5.7971,22.264999,-19.577,2.9268,-2.9557,5.9113,19.048,4.6984,30.540001,5.7692,29.049999,25.958,-6.5087,25.615999,3.7179
18.893999,0.06349,16.65,4.878,-3.9409,10.537,-0.96618,16.440001,-17.625999,4.878,-3.9409,6.8966,22.857,7.5556,30.540001,7.6923,29.049999,18.229,-14.092,26.601,6.6026
16.997999,0.06349,16.65,9.7561,-11.823,8.5854,-0.96618,13.528,-11.772,9.7561,-11.823,2.9557,22.857,10.413,29.587,10.577,29.049999,13.398,-10.3,28.570999,12.372
15.103,-0.88889,14.699,10.732,-9.8522,5.6585,-6.7633,6.7314,-11.772,10.732,-9.8522,-0.98522,22.857,14.222,27.683001,10.577,27.118,7.6006,-13.144,23.645,9.4872
16.051001,0.06349,12.748,7.8049,-3.9409,5.6585,-8.6957,3.8188,-12.748,7.8049,-3.9409,-2.9557,23.809999,18.983999,26.73,11.538,27.118,0.83736,-12.196,20.690001,9.4872
16.051001,-0.88889,9.8211,7.8049,-2.9557,1.7561,-14.493,7.7023,-13.724,7.8049,-2.9557,-4.9261,26.667,26.603001,26.73,13.462,28.084,2.7697,-2.7172,19.704,16.218
15.103,1.0159,8.8455,6.8293,-1.9704,0.78049,-17.391001,5.7605,-13.724,6.8293,-1.9704,-3.9409,30.476,28.507999,26.73,15.385,29.049999,7.6006,-5.5608,20.690001,16.218
14.155,0.06349,7.8699,3.9024,-4.9261,1.7561,-11.594,-0.06472,-16.65,3.9024,-4.9261,-2.9557,28.570999,26.603001,24.825001,14.423,28.084,0.83736,-5.5608,16.749001,12.372
8.4676,-9.4603,2.9919,-5.8537,-9.8522,-1.1707,-16.424999,1.877,-14.699,-5.8537,-9.8522,-6.8966,24.761999,20.889,21.016001,5.7692,24.219,-3.0274,-2.7172,13.793,1.7949
5.624,-9.4603,3.9675,-11.707,-12.808,-3.122,-10.628,-5.89,-11.772,-11.707,-12.808,-6.8966,26.667,18.032,20.063,4.8077,23.253,-5.9259,-14.092,10.837,-0.12821
4.6761,-0.88889,7.8699,-9.7561,-8.867,-4.0976,-2.8986,-8.8026,-4.9431,-9.7561,-8.867,-4.9261,27.618999,19.937,21.968,10.577,28.084,-2.0612,-5.5608,9.8522,4.6795
4.6761,1.9683,8.8455,-7.8049,-2.9557,-7.0244,-2.8986,-17.540001,1.8862,-7.8049,-2.9557,-3.9409,27.618999,21.841,21.968,12.5,29.049999,-7.8583,-6.5087,9.8522,6.6026
2.7804,-0.88889,3.9675,-10.732,-1.9704,-12.878,-7.7295,-16.57,1.8862,-10.732,-1.9704,-8.867,25.714001,18.983999,20.063,6.7308,26.150999,-21.385,-4.613,9.8522,5.641
1.8325,-7.5556,0.06504,-11.707,-2.9557,-20.683001,-5.7971,-8.8026,2.8618,-11.707,-2.9557,-10.837,25.714001,13.27,18.159,0.0,21.32,-7.8583,4.8657,6.8966,0.83333
-2.9068,-6.6032,-4.813,-14.634,-0.98522,-18.732,-6.7633,-10.744,3.8374,-14.634,-0.98522,-8.867,25.714001,12.317,13.397,-3.8462,15.523,5.6683,2.97,8.867,1.7949
-9.5419,-12.317,-13.593,-13.659,-0.98522,-15.805,-6.7633,-10.744,7.7398,-13.659,-0.98522,-9.8522,17.143,9.4603,3.873,-11.538,5.8615,0.83736,-2.7172,6.8966,3.7179
-18.073,-22.794001,-22.374001,-23.415001,-10.837,-16.780001,-10.628,-19.482,1.8862,-23.415001,-10.837,-13.793,4.7619,-1.0159,-6.6032,-24.038,-6.6989,-5.9259,-0.82148,-2.9557,-5.8974
-17.125,-24.698,-23.35,-19.511999,-7.8818,-17.756001,-14.493,-15.599,0.91057,-19.511999,-7.8818,-12.808,-0.95238,-10.54,-11.365,-29.808001,-12.496,-10.757,2.0221,-4.9261,-12.628
-16.177,-18.983999,-21.398001,-9.7561,3.9409,-18.732,-11.594,-8.8026,4.813,-9.7561,3.9409,-8.867,-2.8571,-7.6825,-12.317,-25.962,-13.462,-13.655,-7.4566,-7.8818,-9.7436
-12.385,-12.317,-14.569,-5.8537,4.9261,-10.927,1.9324,-13.657,7.7398,-5.8537,4.9261,-2.9557,-3.8095,-2.9206,-12.317,-19.231001,-10.564,-20.419001,4.8657,-8.867,-5.8974
-13.333,-12.317,-12.618,-10.732,3.9409,-8.9756,-1.9324,-15.599,13.593,-10.732,3.9409,-1.9704,-4.7619,-0.06349,-15.175,-14.423,-8.6312,-13.655,12.449,-8.867,-1.0897
-11.438,-8.5079,-7.7398,-7.8049,-2.9557,-10.927,-0.96618,-9.7735,13.593,-7.8049,-2.9557,0.0,-1.9048,4.6984,-13.27,-5.7692,-4.7665,-7.8583,0.12638,-6.8966,5.641
-3.8547,3.873,2.0163,-7.8049,-7.8818,-8.0,4.8309,-6.8608,7.7398,-7.8049,-7.8818,4.9261,6.6667,16.127001,-5.6508,7.6923,3.9291,-16.554001,7.7093,-1.9704,16.218
-0.06319,5.7778,4.9431,-8.7805,-0.98522,-2.1463,2.8986,-12.686,5.7886,-8.7805,-0.98522,5.9113,10.476,18.032,-0.88889,11.538,8.7601,-12.689,13.397,0.0,14.295
-1.0111,5.7778,4.9431,-9.7561,2.9557,0.78049,1.9324,-13.657,5.7886,-9.7561,2.9557,3.9409,9.5238,16.127001,1.0159,11.538,9.7262,-8.8245,4.8657,1.9704,12.372
1.8325,10.54,7.8699,-0.97561,6.8966,1.7561,0.96618,-14.628,3.8374,-0.97561,6.8966,3.9409,11.429,18.032,6.7302,18.268999,14.557,-15.588,1.0742,0.0,17.179001
8.4676,12.444,12.748,4.878,4.9261,1.7561,4.8309,-7.8317,2.8618,4.878,4.9261,2.9557,20.0,23.746,15.302,24.038,22.287001,-13.655,10.553,4.9261,21.025999
7.5197,8.6349,8.8455,-2.9268,-3.9409,1.7561,-1.9324,-3.9482,6.7642,-2.9268,-3.9409,-2.9557,23.809999,19.937,17.205999,23.077,23.253,-3.0274,9.6051,8.867,16.218
2.7804,10.54,3.9675,-4.878,-7.8818,3.7073,-3.8647,-0.06472,7.7398,-4.878,-7.8818,-4.9261,18.094999,15.175,12.444,22.115,19.388,1.8035,4.8657,7.8818,15.256
-2.9068,7.6825,-2.8618,-5.8537,-16.749001,-4.0976,-5.7971,1.877,6.7642,-5.8537,-16.749001,-10.837,9.5238,10.413,4.8254,14.423,9.7262,-0.12882,6.7615,1.9704,5.641
-1.0111,11.492,-2.8618,0.0,-5.9113,-4.0976,-4.8309,3.8188,4.813,0.0,-5.9113,-9.8522,8.5714,2.7937,2.9206,9.6154,5.8615,1.8035,7.7093,2.9557,-3.0128
1.8325,13.397,1.0407,0.0,5.9113,2.7317,-0.96618,6.7314,12.618,0.0,5.9113,-6.8966,8.5714,-0.06349,4.8254,9.6154,4.8953,2.7697,-5.5608,3.9409,-4.9359
3.7283,10.54,1.0407,3.9024,5.9113,3.7073,3.8647,8.6731,14.569,3.9024,5.9113,-4.9261,7.619,-1.9683,4.8254,7.6923,2.963,2.7697,2.97,4.9261,-3.9744
0.88468,5.7778,-2.8618,5.8537,0.98522,4.6829,2.8986,5.7605,10.667,5.8537,0.98522,-3.9409,0.0,-8.6349,-0.88889,1.9231,-4.7665,-7.8583,11.501,0.0,-5.8974
-1.9589,6.7302,-3.8374,10.732,-3.9409,3.7073,0.96618,-0.06472,9.6911,10.732,-3.9409,-2.9557,-2.8571,-11.492,-3.746,0.96154,-7.6651,-5.9259,3.9179,0.0,-5.8974
-4.8025,10.54,-1.8862,10.732,0.0,5.6585,0.0,-4.9191,9.6911,10.732,0.0,-2.9557,-2.8571,-6.7302,-3.746,5.7692,-4.7665,5.6683,4.8657,0.98522,2.7564
-12.385,7.6825,-1.8862,-4.878,-6.8966,-8.9756,1.9324,0.90615,6.7642,-4.878,-6.8966,-8.867,-6.6667,-6.7302,-8.5079,4.8077,-6.6989,0.83736,10.553,-3.9409,1.7949
-8.594,5.7778,2.0163,-4.878,0.98522,-9.9512,-0.96618,2.8479,2.8618,-4.878,0.98522,-5.9113,-5.7143,-2.9206,-6.6032,3.8462,-5.7327,-6.8921,5.8136,-3.9409,1.7949
-1.0111,9.5873,8.8455,0.97561,11.823,1.7561,2.8986,-1.0356,1.8862,0.97561,11.823,2.9557,1.9048,-0.06349,0.06349,7.6923,0.06441,-3.9936,-0.82148,0.98522,5.641
0.88468,8.6349,11.772,12.683,3.9409,4.6829,10.628,-2.0065,11.642,12.683,3.9409,7.8818,5.7143,7.5556,1.0159,8.6538,1.9968,-3.0274,2.97,0.98522,8.5256
4.6761,6.7302,14.699,14.634,4.9261,8.5854,8.6957,-0.06472,10.667,14.634,4.9261,14.778,4.7619,12.317,1.0159,7.6923,1.0306,-8.8245,4.8657,1.9704,10.449
5.624,6.7302,15.675,12.683,6.8966,11.512,10.628,4.7896,7.7398,12.683,6.8966,16.749001,5.7143,12.317,1.9683,6.7308,0.06441,5.6683,0.12638,6.8966,8.5256
5.624,5.7778,11.772,12.683,10.837,13.463,13.527,4.7896,4.813,12.683,10.837,17.733999,3.8095,14.222,1.0159,4.8077,-2.8341,10.499,-10.3,9.8522,10.449
-0.06319,-4.6984,2.9919,7.8049,5.9113,7.6098,9.6618,5.7605,-2.0163,7.8049,5.9113,10.837,-1.9048,8.5079,-3.746,-5.7692,-10.564,10.499,-12.196,5.9113,0.83333
-3.8547,-12.317,-6.7642,0.97561,-5.9113,2.7317,0.0,3.8188,-4.9431,0.97561,-5.9113,3.9409,-10.476,-0.06349,-11.365,-17.308001,-20.225,3.7359,-17.882999,-2.9557,-10.705
-5.7504,-14.222,-13.593,-4.878,-0.98522,2.7317,-5.7971,3.8188,-4.9431,-4.878,-0.98522,-0.98522,-19.048,-10.54,-16.127001,-22.115,-26.989,2.7697,-11.248,-8.867,-15.513
-6.6983,-16.127001,-18.472,7.8049,6.8966,0.78049,-9.6618,3.8188,-1.0407,7.8049,6.8966,-3.9409,-21.905001,-17.205999,-18.983999,-23.077,-31.82,-7.8583,-4.613,-11.823,-17.436001
-7.6461,-15.175,-20.423,11.707,5.9113,-4.0976,-14.493,4.7896,0.91057,11.707,5.9113,-7.8818,-21.905001,-14.349,-19.937,-23.077,-32.785999,-8.8245,-4.613,-14.778,-14.551
-10.49,-15.175,-23.35,5.8537,1.9704,-5.0732,-19.323999,5.7605,4.813,5.8537,1.9704,-10.837,-21.905001,-14.349,-19.937,-23.077,-32.785999,6.6345,-0.82148,-12.808,-13.59
-11.438,-15.175,-24.325001,4.878,0.98522,-7.0244,-9.6618,5.7605,7.7398,4.878,0.98522,-9.8522,-21.905001,-21.016001,-19.937,-23.077,-33.751999,7.6006,-9.3523,-10.837,-14.551
-10.49,-13.27,-24.325001,5.8537,0.98522,4.6829,-4.8309,1.877,8.7154,5.8537,0.98522,-4.9261,-20.0,-26.73,-18.983999,-22.115,-31.82,1.8035,-1.7694,-8.867,-18.396999
-15.229,-8.5079,-22.374001,2.9268,0.98522,-0.19512,-2.8986,8.6731,3.8374,2.9268,0.98522,-4.9261,-21.905001,-28.635,-19.937,-17.308001,-27.955,4.7021,-11.248,-7.8818,-22.243999
-11.438,1.0159,-14.569,2.9268,2.9557,-2.1463,0.0,10.615,0.91057,2.9268,2.9557,-2.9557,-20.0,-24.825001,-15.175,-8.6538,-19.259001,3.7359,-6.5087,-11.823,-16.474001
-1.9589,7.6825,-5.7886,1.9512,3.9409,4.6829,1.9324,10.615,4.813,1.9512,3.9409,2.9557,-18.094999,-16.254,-9.4603,-0.96154,-11.53,0.83736,8.6572,-12.808,-7.8205
2.7804,14.349,2.9919,13.659,7.8818,9.561,10.628,9.644,8.7154,13.659,7.8818,7.8818,-16.190001,-6.7302,-6.6032,6.7308,-3.8003,-2.0612,2.97,-11.823,3.7179
2.7804,9.5873,3.9675,13.659,10.837,8.5854,7.7295,7.7023,1.8862,13.659,10.837,5.9113,-17.143,-4.8254,-6.6032,5.7692,-2.8341,-9.7907,10.553,-13.793,1.7949
10.363,9.5873,11.772,8.7805,7.8818,14.439,9.6618,10.615,6.7642,8.7805,7.8818,10.837,-14.286,-1.9683,0.06349,6.7308,3.9291,2.7697,18.136,-9.8522,-1.0897
17.945999,6.7302,15.675,10.732,6.8966,19.316999,10.628,4.7896,7.7398,10.732,6.8966,13.793,-8.5714,0.88889,5.7778,7.6923,7.7939,15.33,5.8136,-4.9261,-2.0513
16.051001,8.6349,15.675,9.7561,0.98522,10.537,11.594,6.7314,4.813,9.7561,0.98522,8.867,-3.8095,5.6508,6.7302,9.6154,9.7262,3.7359,-3.6651,-7.8818,2.7564
12.259,6.7302,13.724,-3.9024,-2.9557,3.7073,4.8309,12.557,4.813,-3.9024,-2.9557,2.9557,1.9048,7.5556,8.6349,9.6154,10.692,-0.12882,1.0742,-2.9557,6.6026
8.4676,0.06349,6.8943,-6.8293,-1.9704,2.7317,-5.7971,2.8479,-0.06504,-6.8293,-1.9704,-3.9409,3.8095,8.5079,6.7302,5.7692,6.8277,-4.9597,6.7615,-2.9557,7.5641
3.7283,-3.746,2.9919,-9.7561,-5.9113,-3.122,-9.6618,-3.9482,-1.0407,-9.7561,-5.9113,-9.8522,4.7619,8.5079,4.8254,1.9231,4.8953,-4.9597,-1.7694,-1.9704,9.4872
3.7283,-5.6508,2.9919,-10.732,-7.8818,-4.0976,-9.6618,-8.8026,-3.9675,-10.732,-7.8818,-10.837,6.6667,11.365,5.7778,2.8846,5.8615,-5.9259,2.97,-0.98522,9.4872
-0.06319,-9.4603,-0.91057,-13.659,-16.749001,-8.9756,-13.527,-11.715,-8.8455,-13.659,-16.749001,-13.793,5.7143,8.5079,3.873,-0.96154,2.963,-15.588,-3.6651,0.0,3.7179
4.6761,-3.746,4.9431,-5.8537,-15.764,-0.19512,-6.7633,-15.599,-9.8211,-5.8537,-15.764,-6.8966,14.286,9.4603,9.5873,2.8846,6.8277,-5.9259,-4.613,11.823,4.6795
7.5197,0.06349,7.8699,2.9268,-3.9409,-0.19512,-1.9324,-0.06472,-3.9675,2.9268,-3.9409,-0.98522,22.857,10.413,15.302,4.8077,10.692,8.5668,-1.7694,17.733999,5.641
4.6761,3.873,9.8211,-4.878,0.98522,-4.0976,2.8986,3.8188,-1.0407,-4.878,0.98522,0.0,24.761999,10.413,14.349,6.7308,11.659,8.5668,1.0742,14.778,6.6026
2.7804,3.873,8.8455,-4.878,-1.9704,-3.122,3.8647,-4.9191,-2.9919,-4.878,-1.9704,0.0,20.952,6.6032,10.54,4.8077,8.7601,1.8035,1.0742,13.793,3.7179
1.8325,-1.8413,3.9675,2.9268,1.9704,-0.19512,-0.96618,-8.8026,-2.0163,2.9268,1.9704,0.0,15.238,0.88889,4.8254,-0.96154,3.9291,-3.9936,-2.7172,9.8522,-2.0513
-0.06319,-0.88889,1.0407,3.9024,5.9113,-1.1707,-2.8986,-5.89,-1.0407,3.9024,5.9113,0.98522,6.6667,-5.7778,0.06349,-2.8846,0.06441,-9.7907,-6.5087,-0.98522,-5.8974
-4.8025,-3.746,-2.8618,2.9268,-1.9704,-5.0732,-4.8309,-7.8317,-1.0407,2.9268,-1.9704,-2.9557,0.0,-6.7302,-6.6032,-6.7308,-4.7665,-13.655,-7.4566,-7.8818,-9.7436
-7.6461,-5.6508,-3.8374,0.97561,-0.98522,0.78049,-4.8309,-19.482,-2.9919,0.97561,-0.98522,-3.9409,-5.7143,-3.873,-11.365,-5.7692,-5.7327,-26.216,1.0742,-14.778,-6.859
-6.6983,0.06349,-1.8862,0.0,2.9557,-4.0976,-2.8986,-5.89,-2.0163,0.0,2.9557,-3.9409,-5.7143,4.6984,-10.413,0.0,-1.868,-23.316999,3.9179,-12.808,0.83333
-8.594,1.0159,-5.7886,0.0,0.0,-12.878,0.0,1.877,-1.0407,0.0,0.0,-5.9113,-10.476,10.413,-12.317,0.0,-2.8341,-6.8921,7.7093,-12.808,4.6795
-10.49,-3.746,-9.6911,-9.7561,-9.8522,-10.927,-4.8309,-4.9191,-2.9919,-9.7561,-9.8522,-8.867,-19.048,5.6508,-17.079,-4.8077,-8.6312,-5.9259,9.6051,-18.719,4.6795
-8.594,-0.88889,-4.813,-7.8049,-9.8522,-8.0,-10.628,-2.9773,-5.9187,-7.8049,-9.8522,-6.8966,-17.143,4.6984,-13.27,-3.8462,-5.7327,-3.9936,4.8657,-15.764,3.7179
-2.9068,2.9206,2.0163,-0.97561,-7.8818,-1.1707,-5.7971,-3.9482,-3.9675,-0.97561,-7.8818,-2.9557,-11.429,6.6032,-5.6508,1.9231,0.06441,5.6683,2.0221,-5.9113,9.4872
-1.0111,1.0159,2.0163,-4.878,-1.9704,-2.1463,-3.8647,-4.9191,-2.9919,-4.878,-1.9704,-1.9704,-11.429,5.6508,-5.6508,0.96154,-0.90177,0.83736,-7.4566,-5.9113,4.6795
1.8325,-0.88889,2.0163,-4.878,0.98522,-2.1463,-1.9324,-2.9773,-2.9919,-4.878,0.98522,-1.9704,-5.7143,1.8413,-0.88889,0.0,0.06441,-0.12882,-1.7694,0.0,1.7949
2.7804,1.0159,2.0163,-7.8049,-9.8522,-5.0732,1.9324,-4.9191,-8.8455,-7.8049,-9.8522,-4.9261,0.0,1.8413,2.9206,0.0,1.9968,-5.9259,0.12638,0.98522,1.7949
0.88468,-0.88889,2.9919,-7.8049,-4.9261,-4.0976,-8.6957,-14.628,-9.8211,-7.8049,-4.9261,-4.9261,4.7619,-0.06349,2.9206,-0.96154,1.9968,-1.095,2.97,2.9557,-0.12821
2.7804,3.873,9.8211,-6.8293,0.98522,-5.0732,1.9324,-5.89,-4.9431,-6.8293,0.98522,-1.9704,9.5238,-0.06349,6.7302,4.8077,6.8277,3.7359,2.0221,8.867,0.83333
0.88468,6.7302,9.8211,-5.8537,-11.823,-9.9512,1.9324,-2.0065,-5.9187,-5.8537,-11.823,-2.9557,12.381,2.7937,9.5873,7.6923,9.7262,-2.0612,-3.6651,8.867,1.7949
-6.6983,1.0159,0.06504,-4.878,-2.9557,-17.756001,-2.8986,-4.9191,1.8862,-4.878,-2.9557,-8.867,6.6667,-1.9683,2.9206,0.0,2.963,-6.8921,-18.830999,2.9557,-3.0128
-9.5419,0.06349,-3.8374,-6.8293,14.778,-17.756001,2.8986,-6.8608,7.7398,-6.8293,14.778,-8.867,2.8571,-4.8254,1.0159,-1.9231,0.06441,-13.655,-7.4566,-1.9704,-4.9359
-12.385,3.873,-3.8374,-8.7805,3.9409,-16.780001,6.7633,-14.628,4.813,-8.7805,3.9409,-8.867,4.7619,-5.7778,0.06349,-0.96154,1.0306,-10.757,1.0742,-2.9557,-7.8205
-17.125,3.873,-8.7154,-7.8049,5.9113,-17.756001,9.6618,-21.424,5.7886,-7.8049,5.9113,-8.867,2.8571,-6.7302,-3.746,-0.96154,-0.90177,-20.419001,1.0742,-6.8966,-8.7821
-19.968,1.0159,-13.593,-2.9268,13.793,-12.878,3.8647,-29.191,9.6911,-2.9268,13.793,-10.837,-5.7143,-16.254,-9.4603,-5.7692,-6.6989,-28.148001,4.8657,-14.778,-11.667
-19.968,3.873,-13.593,-10.732,16.749001,-19.707001,0.0,-19.482,12.618,-10.732,16.749001,-10.837,-6.6667,-16.254,-10.413,-4.8077,-6.6989,-26.216,4.8657,-15.764,-8.7821
-21.864,2.9206,-14.569,-7.8049,13.793,-27.511999,1.9324,-20.452999,12.618,-7.8049,13.793,-13.793,-9.5238,-14.349,-13.27,-3.8462,-7.6651,-30.080999,-0.82148,-19.704,-5.8974
-24.708,-1.8413,-19.447001,-4.878,-1.9704,-26.537001,-0.96618,-34.044998,5.7886,-4.878,-1.9704,-17.733999,-18.094999,-16.254,-21.841,-7.6923,-15.395,-34.910999,-6.5087,-28.570999,-6.859
-22.812,0.06349,-17.496,-13.659,-0.98522,-24.584999,-5.7971,-26.278,3.8374,-13.659,-0.98522,-16.749001,-15.238,-6.7302,-21.841,-3.8462,-14.428,-26.216,2.0221,-25.615999,0.83333
-13.333,4.8254,-6.7642,-14.634,1.9704,-16.780001,0.0,-11.715,1.8862,-14.634,1.9704,-8.867,-10.476,0.88889,-15.175,1.9231,-7.6651,-11.723,2.97,-17.733999,9.4872
-7.6461,2.9206,0.06504,-8.7805,-0.98522,-8.0,2.8986,-5.89,0.91057,-8.7805,-0.98522,-2.9557,-8.5714,5.6508,-9.4603,2.8846,-3.8003,0.83736,-0.82148,-16.749001,9.4872
-1.9589,-0.88889,3.9675,-3.9024,0.0,-1.1707,2.8986,-0.06472,-1.0407,-3.9024,0.0,1.9704,-9.5238,5.6508,-7.5556,0.0,-2.8341,5.6683,10.553,-12.808,4.6795
5.624,-0.88889,8.8455,3.9024,-3.9409,11.512,7.7295,1.877,-1.0407,3.9024,-3.9409,8.867,-9.5238,5.6508,-3.746,0.96154,-0.90177,1.8035,7.7093,-8.867,4.6795
12.259,2.9206,12.748,2.9268,2.9557,12.488,11.594,17.410999,-0.06504,2.9268,2.9557,12.808,-3.8095,9.4603,1.0159,4.8077,3.9291,13.398,-1.7694,-0.98522,9.4872
16.051001,5.7778,16.65,7.8049,5.9113,17.365999,12.56,25.177999,2.8618,7.8049,5.9113,18.719,0.0,7.5556,6.7302,7.6923,7.7939,25.958,3.9179,7.8818,9.4872
24.580999,11.492,28.358,20.488001,9.8522,26.146,17.391001,23.236,6.7642,20.488001,9.8522,26.601,7.619,9.4603,15.302,14.423,15.523,23.059999,5.8136,13.793,14.295
27.424999,9.5873,33.236,14.634,11.823,29.073,13.527,22.264999,2.8618,14.634,11.823,28.570999,6.6667,3.746,19.111,12.5,17.455999,26.924,7.7093,14.778,6.6026
32.164001,11.492,35.187,16.584999,10.837,35.902,16.424999,17.410999,-1.0407,16.584999,10.837,32.512001,8.5714,-1.0159,22.921,13.462,19.388,28.857,2.97,13.793,0.83333
29.320999,15.302,29.333,22.438999,5.9113,35.902,21.256001,14.498,-4.9431,22.438999,5.9113,32.512001,11.429,-3.873,21.968,13.462,17.455999,19.195,-8.4044,14.778,0.83333
24.580999,10.54,20.552999,19.511999,4.9261,32.976002,14.493,8.6731,-8.8455,19.511999,4.9261,25.615999,10.476,-9.5873,18.159,8.6538,12.625,9.533,-4.613,16.749001,-2.0513
26.476999,8.6349,22.504,17.561001,1.9704,26.146,13.527,22.264999,-6.8943,17.561001,1.9704,22.66,15.238,-4.8254,21.968,7.6923,13.591,18.229,2.0221,23.645,-0.12821
26.476999,3.873,17.625999,11.707,4.9261,21.268,5.7971,23.236,-5.9187,11.707,4.9261,16.749001,13.333,-6.7302,20.063,2.8846,9.7262,17.261999,0.12638,15.764,-3.0128
