C3,C4,Cz,F1,F2,F3,F4,F7,F8,Fp1,Fp2,Fz,O1,O2,P3,P4,Pz,T3,T4,T5,T6
-1.3902,5.8692,9.1707,8.4314,7.2607,7.5447,3.252,3.1715,3.187,8.4314,7.2607,9.9502,-6.9841,-3.873,-3.6825,2.5765,-1.868,13.977,10.921,-6.5681,10.177
3.6651,7.1451,11.772,9.7386,10.561,9.4959,7.8049,5.7605,8.3902,9.7386,10.561,13.267,-6.3492,-3.2381,-1.7778,1.2882,-0.57971,-15.652,9.6508,-7.8818,3.0918
1.1374,3.3174,8.5203,7.1242,9.901,5.5935,7.8049,1.877,9.0407,7.1242,9.901,9.9502,-5.0794,-3.873,-1.7778,-0.64412,-0.57971,-27.246,8.381,-8.5386,-0.12882
-1.3902,1.4035,3.9675,4.5098,9.2409,2.3415,8.4553,-2.0065,9.6911,4.5098,9.2409,6.6335,0.63492,-1.3333,0.12698,2.5765,1.9968,-20.805,7.1111,-4.5977,6.9565
-10.237,-0.51037,-0.58537,1.8954,3.9604,-2.2114,5.8537,-5.89,7.0894,1.8954,3.9604,0.66335,2.5397,2.4762,-4.3175,4.5089,1.3527,-15.652,9.6508,-6.5681,8.2448
-8.9731,1.4035,-0.58537,3.2026,2.6403,-0.26016,5.2033,-1.3592,7.0894,3.2026,2.6403,0.66335,6.3492,6.2857,-3.0476,7.0853,3.9291,1.7391,5.8413,-2.6273,7.6006
-3.2859,-2.4242,-3.8374,-0.06536,3.3003,-0.91057,1.3008,-0.71197,4.4878,-0.06536,3.3003,-2.6534,7.619,4.381,1.3968,4.5089,3.9291,1.7391,5.8413,3.2841,6.9565
-3.2859,-5.614,-8.3902,-2.0261,2.6403,-2.2114,-2.6016,-1.3592,1.8862,-2.0261,2.6403,-5.9701,8.254,1.8413,3.9365,3.8647,2.6409,9.4686,8.381,6.5681,9.533
-8.9731,-9.4418,-17.496,-5.2941,-3.3003,-6.1138,-9.1057,-2.0065,-3.3171,-5.2941,-3.3003,-13.267,0.63492,-5.1429,-3.0476,-3.2206,-5.7327,-8.5668,-0.50794,0.0,4.38
-9.6051,-5.614,-15.545,-4.6405,-1.3201,-6.1138,-7.1545,1.877,-3.3171,-4.6405,-1.3201,-12.604,-1.2698,-7.0476,-4.3175,-3.2206,-6.3768,-4.7021,-3.0476,1.9704,1.1594
-6.4455,-1.1483,-7.0894,1.8954,3.9604,-3.5122,-3.252,7.7023,-0.06504,1.8954,3.9604,-8.6235,4.4444,-1.9683,-0.50794,1.9324,-1.868,13.977,2.0317,7.8818,4.38
-5.8136,-9.4418,-10.341,-3.3333,-7.9208,-8.7154,-11.057,2.5243,-7.8699,-3.3333,-7.9208,-15.257,-1.2698,-6.4127,-4.9524,-5.7971,-8.9533,4.3156,-10.032,1.9704,-5.9259
-0.75829,-10.08,-9.0407,-6.6013,-11.221,-6.1138,-11.057,2.5243,-10.472,-6.6013,-11.221,-14.594,-5.0794,-8.3175,-3.6825,-7.7295,-8.9533,-9.2109,-13.841,-4.5977,-11.723
-0.12638,-4.9761,-6.439,-5.9477,-5.2805,-1.561,-2.6016,2.5243,-7.2195,-5.9477,-5.2805,-9.2869,-4.4444,-9.5873,-0.50794,-4.5089,-4.4444,-9.2109,-8.127,-3.2841,-3.3494
1.7694,-0.51037,-1.8862,1.2418,4.6205,2.3415,1.9512,7.7023,0.58537,1.2418,4.6205,-3.9801,-3.1746,-9.5873,1.3968,-3.8647,-1.868,19.129999,-2.4127,6.5681,-5.2818
-3.2859,-3.7002,-1.8862,-0.71895,6.6007,-1.561,-3.252,3.8188,1.2358,-0.71895,6.6007,-5.9701,-9.5238,-14.667,-5.5873,-10.95,-7.6651,22.351,-8.127,-1.9704,-14.944
-7.7093,-10.718,-5.1382,-7.9085,-0.66007,-7.4146,-7.8049,-2.0065,-5.2683,-7.9085,-0.66007,-9.9502,-16.507999,-17.205999,-11.302,-15.459,-12.818,12.689,-13.206,-10.509,-16.875999
-8.3412,-12.632,-5.1382,-9.2157,-2.6403,-8.065,-5.8537,-4.5955,-6.5691,-9.2157,-2.6403,-9.2869,-19.048,-16.570999,-13.206,-17.391001,-14.75,-14.364,-15.111,-8.5386,-14.944
-6.4455,-10.718,-1.8862,-5.2941,-1.9802,-3.5122,-1.9512,-5.2427,-3.3171,-5.2941,-1.9802,-3.3167,-17.143,-13.397,-11.937,-16.747,-12.174,-32.398998,-13.206,-11.166,-14.3
-5.8136,-8.8038,0.06504,-2.6797,0.66007,-0.91057,0.65041,-4.5955,-0.06504,-2.6797,0.66007,1.99,-8.254,-6.4127,-8.7619,-12.882,-8.3092,5.6039,-10.032,-5.9113,-9.1465
-5.8136,-2.4242,0.71545,-0.06536,7.9208,-1.561,4.5528,-4.5955,6.439,-0.06536,7.9208,4.6434,1.9048,0.57143,-4.9524,-7.0853,-5.0886,28.792,-2.4127,0.65681,-2.0612
-2.654,-1.7863,0.06504,-0.71895,13.201,-2.2114,4.5528,-6.5372,8.3902,-0.71895,13.201,3.9801,6.3492,1.2063,-2.4127,-5.7971,-4.4444,-1.4815,5.8413,1.9704,0.5153
6.1927,5.2313,7.8699,5.1634,16.502001,5.5935,11.057,-2.6537,13.593,5.1634,16.502001,11.277,14.603,6.2857,5.2063,0.64412,3.285,-9.2109,13.46,5.2545,6.3124
5.5608,6.5072,9.8211,3.8562,11.881,4.9431,11.707,-4.5955,11.642,3.8562,11.881,9.9502,13.333,5.0159,4.5714,1.2882,3.9291,-24.025999,3.3016,3.9409,3.7359
-3.2859,6.5072,9.1707,-0.06536,7.2607,-2.8618,7.8049,-10.421,8.3902,-0.06536,7.2607,5.3068,8.254,5.6508,-0.50794,3.2206,3.285,3.0274,-1.1429,2.6273,4.38
-5.1817,12.887,12.423,0.58824,9.901,-4.1626,9.7561,-9.7735,14.244,0.58824,9.901,6.6335,4.4444,5.6508,-3.0476,4.5089,2.6409,4.9597,2.0317,0.0,5.6683
-7.7093,5.8692,7.2195,-5.9477,2.6403,-6.7642,7.8049,-12.362,10.992,-5.9477,2.6403,1.99,-3.1746,-1.3333,-8.7619,-2.5765,-3.8003,8.1804,5.8413,-5.9113,-2.7053
-7.7093,-3.7002,-0.58537,-8.5621,-2.6403,-8.7154,1.3008,-10.421,3.187,-8.5621,-2.6403,-3.3167,-8.254,-5.1429,-11.302,-6.4412,-8.9533,-6.6345,7.1111,-11.166,-3.3494
-3.2859,-4.9761,-3.8374,-5.2941,5.2805,-6.7642,-0.65041,-5.2427,4.4878,-5.2941,5.2805,-4.6434,-11.429,-5.7778,-10.667,-5.7971,-9.5974,-34.332001,0.12698,-15.107,-1.4171
-3.2859,-3.7002,-1.8862,-0.71895,12.541,-4.1626,1.9512,-0.06472,10.992,-0.71895,12.541,-2.6534,-10.794,-3.873,-8.7619,-2.5765,-7.6651,-7.9227,3.9365,-11.823,2.4477
-2.0221,-3.7002,1.3659,-0.71895,6.6007,-4.1626,0.65041,1.2298,10.341,-0.71895,6.6007,-3.3167,-9.5238,-4.5079,-6.2222,-3.2206,-7.0209,13.977,2.6667,-7.225,1.8035
3.0332,-1.7863,7.2195,1.2418,3.3003,-2.2114,1.9512,2.5243,8.3902,1.2418,3.3003,-1.3267,-1.9048,-1.9683,1.3968,-1.9324,-3.1562,39.098,3.9365,4.5977,1.1594
-4.5498,-9.4418,0.06504,-5.9477,1.9802,-9.3659,-5.8537,-6.5372,1.8862,-5.9477,1.9802,-8.6235,-7.619,-5.1429,-4.9524,-7.0853,-8.3092,30.080999,1.3968,0.0,-4.6377
-8.3412,-12.632,-5.1382,-10.523,-0.66007,-11.317,-9.1057,-9.7735,0.58537,-10.523,-0.66007,-11.94,-14.603,-10.857,-11.302,-10.95,-12.174,4.9597,-4.9524,-5.2545,-8.5024
-4.5498,-11.994,-3.8374,-10.523,-5.9406,-7.4146,-6.5041,-7.8317,-0.71545,-10.523,-5.9406,-9.2869,-13.968,-12.762,-9.3968,-12.238,-12.174,-31.111,-4.9524,-1.9704,-11.079
-0.12638,-10.718,-5.1382,-8.5621,-3.9604,-6.7642,-5.8537,-3.301,-0.71545,-8.5621,-3.9604,-9.9502,-6.9841,-10.222,-4.3175,-12.882,-10.242,-33.688,-11.302,-1.9704,-14.3
-0.75829,-4.3381,-3.8374,-7.2549,1.9802,-7.4146,-3.9024,-3.9482,3.187,-7.2549,1.9802,-9.9502,6.9841,-0.69841,3.9365,-4.5089,-1.868,26.860001,-12.571,11.166,-9.7907
-8.3412,-11.356,-10.341,-9.2157,-1.3201,-13.268,-11.057,-9.7735,-0.71545,-9.2157,-1.3201,-14.594,3.8095,-1.3333,-2.4127,-8.3736,-6.3768,37.810001,-9.3968,8.5386,-10.435
-16.556,-20.924999,-20.747999,-9.8693,-5.2805,-17.171,-15.61,-12.362,-3.3171,-9.8693,-5.2805,-19.237,-8.254,-8.9524,-17.016001,-18.035,-17.327,3.6715,-13.206,-5.9113,-13.655
-15.924,-16.459,-19.447001,-7.9085,0.0,-12.618,-9.7561,-9.7735,0.58537,-7.9085,0.0,-14.594,-6.3492,-5.7778,-17.016001,-16.747,-16.039,-18.229,-15.746,-5.9113,-16.232
-10.237,-8.1659,-10.992,-5.9477,5.9406,-8.065,-1.3008,-8.479,5.1382,-5.9477,5.9406,-8.6235,-3.1746,0.57143,-10.032,-8.3736,-7.0209,-22.738001,-7.4921,-5.9113,-11.079
-7.0774,0.76555,-2.5366,-3.9869,4.6205,-4.813,3.9024,-9.7735,9.6911,-3.9869,4.6205,-1.99,-3.1746,6.9206,-4.9524,0.0,0.70853,-11.787,-0.50794,-7.225,-2.7053
-3.9179,7.1451,5.2683,-0.71895,7.2607,-0.26016,5.8537,-9.1262,14.244,-0.71895,7.2607,3.3167,-1.2698,12.0,0.12698,6.4412,7.7939,15.266,3.9365,-4.5977,0.5153
8.0885,12.249,13.073,5.817,17.162001,8.8455,11.057,-0.71197,20.098,5.817,17.162001,9.2869,3.1746,17.079,9.0159,14.171,14.879,22.995001,16.0,0.65681,7.6006
12.512,9.697,11.122,4.5098,14.521,11.447,10.407,1.2298,16.846001,4.5098,14.521,7.9602,3.8095,13.27,10.921,11.594,12.947,6.8921,14.095,-0.65681,5.0242
11.88,7.7831,7.8699,1.2418,7.9208,10.146,7.1545,-2.0065,13.593,1.2418,7.9208,5.3068,5.7143,10.095,9.6508,9.0177,11.014,-2.7697,4.5714,-1.3136,1.1594
12.512,9.697,9.8211,1.8954,6.6007,12.098,7.1545,-2.0065,12.943,1.8954,6.6007,7.2968,13.968,10.73,14.095,10.95,14.235,24.283001,5.8413,9.8522,1.8035
3.0332,5.8692,3.3171,0.58824,0.66007,8.1951,1.9512,-2.6537,9.0407,0.58824,0.66007,2.6534,11.429,5.6508,7.1111,6.4412,6.5056,25.572001,5.2063,9.8522,-0.12882
0.50553,3.3174,-1.2358,-0.71895,0.66007,4.9431,-0.65041,-2.6537,8.3902,-0.71895,0.66007,-0.66335,6.9841,0.57143,-0.50794,1.9324,-1.868,-17.584999,8.381,5.2545,1.1594
3.6651,0.76555,-2.5366,-3.9869,0.0,2.3415,-1.3008,-0.71197,7.0894,-3.9869,0.0,-3.9801,5.7143,-1.3333,-0.50794,0.0,-5.7327,-18.872999,9.0159,6.5681,2.4477
9.9842,2.6794,2.0163,1.2418,0.0,4.9431,2.6016,3.1715,9.0407,1.2418,0.0,-0.66335,11.429,7.5556,5.2063,5.7971,-1.2238,14.622,3.9365,21.018,11.465
-3.2859,-7.5279,-9.6911,-8.5621,-7.2607,-8.065,-7.8049,-10.421,-0.06504,-8.5621,-7.2607,-11.277,1.9048,-0.69841,-5.5873,-1.9324,-10.242,21.707001,-2.4127,15.764,6.9565
-10.869,-14.545,-19.447001,-19.02,-13.201,-17.171,-14.959,-18.188,-8.5203,-19.02,-13.201,-20.563999,-7.619,-7.6825,-15.111,-8.3736,-17.971001,-4.058,-4.9524,-1.3136,-2.0612
-8.9731,-13.27,-16.846001,-15.752,-15.842,-13.919,-16.910999,-12.362,-10.472,-15.752,-15.842,-18.573999,-6.3492,-3.873,-12.571,-6.4412,-13.462,1.7391,-5.5873,-5.2545,-2.0612
-10.237,-11.356,-12.293,-11.83,-17.162001,-9.3659,-13.008,-9.1262,-10.472,-11.83,-17.162001,-14.594,-7.619,-3.2381,-11.302,-5.7971,-8.3092,11.401,-4.9524,-6.5681,-2.7053
-2.0221,3.9553,2.6667,-0.06536,0.0,3.6423,4.5528,1.2298,6.439,-0.06536,0.0,1.99,-3.8095,6.2857,-3.6825,3.2206,3.285,-26.601999,5.8413,-4.5977,6.9565
-3.2859,8.4211,5.2683,-2.0261,0.0,4.2927,5.2033,-1.3592,9.0407,-2.0261,0.0,5.9701,-6.9841,4.381,-4.3175,3.2206,4.5733,-38.195999,3.3016,-15.764,3.7359
-3.9179,7.7831,7.2195,-7.9085,-5.9406,-1.561,3.252,-8.479,6.439,-7.9085,-5.9406,3.3167,-8.254,-0.06349,-1.1429,1.2882,6.5056,-1.4815,-1.7778,-19.048,-6.57
1.7694,9.059,11.122,-9.8693,1.3201,-4.813,3.9024,-11.715,8.3902,-9.8693,1.3201,2.6534,-6.3492,-0.69841,5.8413,3.8647,9.7262,15.266,-1.1429,-12.479,-2.0612
7.4566,10.973,13.724,-7.2549,9.2409,-2.2114,6.5041,-11.715,13.593,-7.2549,9.2409,5.3068,-0.63492,-1.3333,10.286,6.4412,11.014,12.045,4.5714,-3.2841,6.9565
14.408,14.801,15.024,-2.0261,10.561,5.5935,12.358,-7.1845,19.447001,-2.0261,10.561,12.604,6.9841,0.57143,16.0,9.6618,13.591,3.6715,12.825,5.9113,7.6006
11.88,12.249,9.8211,-2.6797,6.6007,6.2439,12.358,-5.2427,20.098,-2.6797,6.6007,11.94,5.7143,-2.6032,12.19,9.0177,10.37,-15.652,17.905001,5.9113,11.465
13.144,15.439,10.472,-0.06536,6.6007,7.5447,14.959,-0.06472,23.35,-0.06536,6.6007,13.267,6.9841,0.57143,10.286,9.0177,9.0821,-36.264,17.27,9.8522,10.177
3.6651,9.697,5.2683,-7.9085,2.6403,-1.561,6.5041,-8.479,16.195,-7.9085,2.6403,4.6434,5.7143,-0.69841,3.3016,4.5089,3.285,-11.787,2.6667,11.166,1.8035
-9.6051,-6.252,-9.6911,-24.247999,-15.182,-17.171,-9.7561,-21.424,-1.3659,-24.247999,-15.182,-11.94,1.2698,-5.1429,-4.3175,-3.8647,-7.6651,23.639,2.6667,11.823,2.4477
-10.237,-10.718,-15.545,-22.941,-19.142,-19.122,-13.659,-18.834999,-4.6179,-22.941,-19.142,-15.92,5.0794,-0.06349,-3.0476,-3.2206,-8.3092,26.216,7.1111,13.793,8.2448
-9.6051,-10.718,-16.846001,-17.712,-16.502001,-17.820999,-14.959,-12.362,-5.2683,-17.712,-16.502001,-16.584,5.7143,4.381,-2.4127,-1.9324,-7.6651,16.554001,1.3968,7.8818,8.8889
-6.4455,-8.8038,-14.244,-15.098,-13.201,-15.22,-13.659,-9.1262,-4.6179,-15.098,-13.201,-14.594,4.4444,5.0159,-3.0476,-1.9324,-7.0209,-21.448999,2.0317,1.3136,6.3124
1.1374,-0.51037,-5.7886,-3.9869,-2.6403,-5.4634,-1.3008,0.58252,8.3902,-3.9869,-2.6403,-5.3068,8.254,10.095,3.3016,3.8647,0.70853,-4.7021,8.381,7.8818,9.533
-2.654,-3.0622,-9.0407,-5.2941,-4.6205,-6.1138,-3.252,-2.0065,8.3902,-5.2941,-4.6205,-7.2968,-0.63492,2.4762,-0.50794,-1.9324,-1.868,-6.6345,5.2063,-1.3136,0.5153
-8.9731,-4.9761,-12.293,-9.2157,-8.5809,-7.4146,-7.8049,-5.89,4.4878,-9.2157,-8.5809,-9.2869,-9.5238,-4.5079,-7.4921,-7.7295,-7.6651,-10.499,-12.571,-10.509,-7.8583
-5.8136,-2.4242,-7.0894,-6.6013,-7.9208,-4.1626,-6.5041,-2.0065,3.8374,-6.6013,-7.9208,-6.6335,-6.3492,-0.06349,-4.3175,-3.2206,-3.1562,-9.8551,-9.3968,-9.1954,-3.3494
-2.654,-1.7863,-1.8862,-7.2549,-11.221,-4.1626,-5.2033,-2.6537,-1.3659,-7.2549,-11.221,-7.2968,-2.5397,4.381,0.12698,1.2882,3.285,-6.6345,-0.50794,-10.509,1.1594
2.4013,0.76555,3.3171,-7.9085,-10.561,-2.8618,-3.9024,-2.6537,0.58537,-7.9085,-10.561,-6.6335,1.2698,6.2857,5.2063,4.5089,7.7939,10.113,0.12698,-9.1954,6.3124
3.6651,3.3174,3.9675,-5.2941,-7.2607,0.39024,-0.65041,-0.71197,5.1382,-5.2941,-7.2607,-3.3167,4.4444,8.1905,7.746,7.0853,8.438,12.045,3.3016,-4.5977,5.6683
3.6651,7.7831,5.2683,-1.3725,-2.6403,4.2927,3.252,2.5243,9.0407,-1.3725,-2.6403,1.99,5.7143,7.5556,7.1111,8.3736,8.438,17.841999,8.381,-0.65681,6.3124
-0.12638,9.697,3.9675,-4.6405,-7.2607,1.6911,1.9512,-0.71197,9.0407,-4.6405,-7.2607,0.66335,3.1746,3.746,3.3016,6.4412,6.5056,-1.4815,12.19,-0.65681,3.7359
4.9289,17.351999,10.472,-2.6797,-1.9802,4.9431,10.407,-0.06472,15.545,-2.6797,-1.9802,6.6335,8.254,9.4603,7.746,12.238,11.659,-2.1256,14.73,4.5977,8.2448
8.0885,17.99,11.772,-1.3725,2.6403,6.8943,13.659,1.2298,19.447001,-1.3725,2.6403,9.9502,13.968,12.0,11.556,14.815,12.947,-3.4138,25.524,7.225,14.042
-0.12638,5.2313,0.71545,-7.9085,-7.9208,-0.91057,4.5528,-5.89,9.0407,-7.9085,-7.9208,1.3267,8.254,4.381,4.5714,6.4412,3.285,-2.1256,11.556,1.9704,8.8889
-5.1817,-2.4242,-6.439,-11.83,-11.881,-4.813,-1.9512,-9.1262,3.187,-11.83,-11.881,-3.3167,1.9048,0.57143,-4.3175,0.64412,-3.8003,-18.872999,7.746,0.0,5.0242
1.1374,5.2313,0.71545,-4.6405,-2.6403,1.6911,6.5041,-2.6537,10.341,-4.6405,-2.6403,4.6434,4.4444,6.2857,0.12698,7.7295,1.9968,-11.143,17.27,5.2545,10.821
3.6651,9.697,4.6179,1.2418,4.6205,3.6423,11.707,-0.06472,14.244,1.2418,4.6205,9.2869,3.1746,6.2857,3.3016,9.0177,4.5733,-0.83736,12.19,3.2841,12.11
1.1374,6.5072,2.6667,1.8954,5.2805,2.3415,9.1057,-2.6537,10.992,1.8954,5.2805,7.9602,-2.5397,-0.69841,0.7619,3.8647,0.70853,7.5362,7.746,-1.3136,6.9565
2.4013,7.7831,2.6667,4.5098,3.3003,5.5935,9.7561,-0.71197,8.3902,4.5098,3.3003,9.9502,-5.0794,-4.5079,-0.50794,1.2882,-0.57971,7.5362,6.4762,-1.9704,0.5153
6.1927,6.5072,3.9675,5.817,5.2805,6.2439,11.057,-0.71197,6.439,5.817,5.2805,11.277,-1.9048,-5.1429,3.9365,1.2882,2.6409,-1.4815,-0.50794,-1.3136,-3.9936
8.7204,2.0415,5.9187,6.4706,6.6007,6.2439,11.057,1.877,3.8374,6.4706,6.6007,10.614,1.2698,-2.6032,9.0159,1.9324,5.8615,3.6715,-6.2222,0.0,-5.9259
11.248,3.3174,7.8699,10.392,1.9802,8.1951,9.1057,8.3495,3.187,10.392,1.9802,10.614,3.1746,-1.3333,11.556,2.5765,7.7939,-23.382,-10.667,-3.2841,-6.57
14.408,10.973,12.423,18.235001,9.2409,15.35,12.358,14.175,8.3902,18.235001,9.2409,16.584,7.619,3.746,15.365,7.7295,11.659,0.45089,-3.6825,1.3136,-1.4171
7.4566,5.8692,6.5691,13.66,9.901,11.447,5.8537,9.644,-0.06504,13.66,9.901,9.2869,3.1746,3.1111,10.286,4.5089,8.438,25.572001,-1.7778,-0.65681,-5.9259
0.50553,-3.0622,-1.2358,3.8562,0.66007,1.6911,-6.5041,3.8188,-9.8211,3.8562,0.66007,-3.3167,-1.9048,-0.69841,3.3016,0.64412,2.6409,7.5362,-9.3968,-3.9409,-9.1465
-2.0221,-11.356,-8.3902,-3.3333,-7.9208,-5.4634,-16.26,2.5243,-13.724,-3.3333,-7.9208,-11.94,-0.63492,-2.6032,0.12698,-3.8647,-3.8003,-3.4138,-13.206,2.6273,-12.367
-5.1817,-16.459,-14.894,-5.9477,-11.881,-8.7154,-18.862,0.58252,-13.724,-5.9477,-11.881,-16.584,0.0,-3.2381,-3.6825,-7.7295,-8.3092,-5.9903,-14.476,5.9113,-16.875999
-6.4455,-8.1659,-9.6911,-2.6797,-10.561,-6.1138,-11.707,1.2298,-9.1707,-2.6797,-10.561,-12.604,1.9048,-0.69841,-1.7778,-1.2882,-4.4444,14.622,-14.476,8.5386,-7.2142
-2.0221,2.6794,0.06504,4.5098,-1.9802,-0.26016,-2.6016,6.4078,-0.71545,4.5098,-1.9802,-5.9701,4.4444,5.6508,2.0317,9.0177,2.6409,16.554001,0.12698,8.5386,6.9565
-2.654,3.9553,-0.58537,5.1634,0.0,0.39024,-1.3008,5.7605,3.187,5.1634,0.0,-4.6434,3.1746,9.4603,-1.1429,12.238,1.3527,9.4686,9.0159,4.5977,17.261999
-10.237,-1.7863,-8.3902,-2.6797,-6.6007,-6.1138,-7.1545,-5.2427,1.2358,-2.6797,-6.6007,-9.9502,-5.0794,3.746,-9.3968,7.0853,-5.7327,1.7391,5.2063,-2.6273,11.465
-7.0774,-1.1483,-5.1382,-2.6797,0.0,-6.7642,-5.8537,-5.2427,1.8862,-2.6797,0.0,-9.2869,-6.3492,1.2063,-6.8571,5.153,-4.4444,-15.652,12.825,-4.5977,8.2448
9.9842,9.059,8.5203,9.7386,12.541,5.5935,3.9024,7.055,9.0407,9.7386,12.541,3.3167,4.4444,8.1905,7.746,11.594,6.5056,-25.313999,22.349001,8.5386,15.33
8.7204,7.7831,7.2195,9.085,9.2409,5.5935,4.5528,3.8188,5.1382,9.085,9.2409,5.3068,1.9048,2.4762,5.2063,5.153,4.5733,-25.958,14.095,3.2841,6.3124
1.1374,3.9553,2.0163,5.817,7.9208,1.0407,3.252,0.58252,1.8862,5.817,7.9208,3.3167,-3.1746,-5.1429,-0.50794,-1.9324,0.70853,-4.7021,-4.9524,-4.5977,-4.6377
3.0332,3.3174,5.9187,12.353,9.901,2.9919,5.2033,7.7023,1.8862,12.353,9.901,7.2968,0.63492,-5.1429,3.3016,-1.2882,3.9291,16.554001,-4.9524,-3.2841,-5.2818
3.6651,-0.51037,7.2195,11.699,6.6007,2.9919,3.252,7.7023,-2.6667,11.699,6.6007,7.2968,0.0,-8.9524,3.9365,-5.7971,2.6409,17.841999,-6.8571,-5.9113,-11.079
6.8246,0.12759,9.1707,14.967,7.2607,6.8943,6.5041,11.586,-5.9187,14.967,7.2607,10.614,-2.5397,-10.222,4.5714,-7.7295,1.9968,5.6039,-11.302,-6.5681,-12.367
8.0885,2.6794,11.122,21.503,7.9208,12.748,8.4553,18.705999,-7.8699,21.503,7.9208,14.594,-3.1746,-6.4127,5.2063,-5.153,4.5733,9.4686,-8.127,-4.5977,-11.723
4.9289,2.6794,13.073,23.464001,10.561,16.0,7.8049,18.058001,-9.8211,23.464001,10.561,17.91,-4.4444,-5.1429,2.6667,-3.2206,6.5056,9.4686,-15.746,-1.9704,-12.367
11.248,7.1451,20.878,30.0,19.802,23.153999,14.309,26.472,-5.2683,30.0,19.802,25.207001,3.1746,1.2063,8.381,2.5765,11.659,6.8921,-15.746,4.5977,-11.079
15.039,4.5933,18.275999,28.039,15.182,22.504,14.309,25.825001,-9.1707,28.039,15.182,23.216999,7.619,0.57143,10.921,0.0,9.0821,-30.466999,-13.206,6.5681,-16.232
16.934999,2.6794,13.073,27.386,13.201,21.202999,11.057,24.531,-11.122,27.386,13.201,20.563999,12.063,3.1111,11.556,-1.2882,5.2174,-10.499,-19.556,15.764,-10.435
4.297,-5.614,0.71545,18.889,4.6205,11.447,0.65041,14.822,-16.976,18.889,4.6205,10.614,8.254,-2.6032,2.0317,-7.7295,-3.1562,12.045,-19.556,11.166,-8.5024
-1.3902,-8.8038,-5.1382,14.314,3.9604,4.9431,-3.252,9.644,-12.423,14.314,3.9604,3.9801,5.7143,-5.7778,-1.7778,-9.0177,-6.3768,18.486,-7.4921,7.225,-7.8583
-3.2859,-10.08,-7.7398,13.007,5.2805,1.6911,-5.2033,9.644,-9.1707,13.007,5.2805,-0.66335,3.1746,-7.6825,-4.3175,-9.0177,-8.3092,15.266,-5.5873,3.2841,-3.3494
-7.0774,-6.89,-7.0894,14.967,8.5809,2.9919,-4.5528,8.9968,-5.2683,14.967,8.5809,0.66335,0.0,-6.4127,-6.8571,-7.0853,-8.3092,7.5362,-4.9524,-1.3136,0.5153
-6.4455,-6.89,-7.0894,16.275,9.901,2.9919,-3.252,7.055,-3.9675,16.275,9.901,1.3267,-3.8095,-4.5079,-6.2222,-7.0853,-8.3092,3.6715,1.3968,-1.9704,3.0918
1.1374,-4.3381,-4.4878,18.235001,11.221,4.9431,-1.9512,9.644,-3.3171,18.235001,11.221,2.6534,-6.9841,-3.2381,-3.0476,-5.7971,-5.7327,-8.5668,13.46,-3.9409,1.8035
6.8246,1.4035,-0.58537,18.889,15.182,7.5447,0.65041,12.88,2.5366,18.889,15.182,4.6434,-8.254,-0.06349,-0.50794,-0.64412,-1.2238,-34.332001,12.19,-7.8818,6.3124
3.0332,2.6794,-0.58537,13.66,9.2409,2.9919,-3.252,5.1133,-0.06504,13.66,9.2409,0.0,-10.794,1.2063,-2.4127,3.2206,1.3527,-29.823,3.9365,-11.823,12.11
-2.0221,5.8692,1.3659,9.085,5.2805,-0.26016,-2.6016,-0.71197,-3.3171,9.085,5.2805,-0.66335,-12.698,-0.06349,-4.3175,2.5765,1.3527,-15.008,-6.8571,-15.107,3.7359
6.8246,14.163,13.073,14.967,9.2409,8.1951,6.5041,9.644,3.8374,14.967,9.2409,7.9602,1.2698,8.1905,8.381,10.306,12.303,7.5362,8.381,-2.6273,6.3124
4.297,7.1451,9.1707,14.314,8.5809,4.2927,3.252,8.9968,-3.3171,14.314,8.5809,3.3167,4.4444,6.9206,8.381,6.4412,11.014,-0.83736,12.19,-1.3136,4.38
-2.654,-1.7863,-0.58537,11.699,8.5809,-1.561,-7.1545,5.7605,-9.8211,11.699,8.5809,-3.9801,1.9048,3.1111,2.0317,1.2882,4.5733,-1.4815,0.12698,-3.2841,-3.3494
-2.654,-3.7002,-4.4878,5.817,1.9802,-4.813,-11.707,3.1715,-15.024,5.817,1.9802,-8.6235,4.4444,2.4762,1.3968,0.64412,2.6409,10.113,-4.3175,3.2841,-5.9259
3.0332,-0.51037,-0.58537,6.4706,1.3201,-1.561,-7.8049,6.4078,-11.772,6.4706,1.3201,-5.9701,14.603,5.0159,7.746,4.5089,5.8615,26.860001,-3.0476,15.764,1.1594
3.0332,-3.7002,-1.2358,6.4706,1.9802,-0.91057,-8.4553,7.7023,-11.772,6.4706,1.9802,-4.6434,17.143,5.6508,10.286,4.5089,6.5056,16.554001,-6.8571,17.077,3.7359
4.9289,-3.7002,0.06504,6.4706,3.3003,0.39024,-5.8537,6.4078,-14.374,6.4706,3.3003,-1.3267,15.873,4.381,10.921,2.5765,7.1498,7.5362,-14.476,14.45,-2.7053
10.616,-2.4242,2.6667,11.046,3.9604,4.9431,-0.65041,12.88,-13.724,11.046,3.9604,3.9801,17.778,5.0159,14.73,2.5765,7.1498,12.045,-11.302,20.361,-3.9936
15.039,-1.7863,2.0163,11.699,6.6007,6.8943,-0.65041,13.528,-13.724,11.699,6.6007,3.9801,13.333,6.2857,13.46,2.5765,6.5056,-11.787,-5.5873,15.764,-1.4171
9.9842,0.76555,1.3659,8.4314,11.221,3.6423,0.0,6.4078,-11.122,8.4314,11.221,2.6534,3.1746,2.4762,7.1111,1.2882,3.9291,9.4686,-5.5873,9.1954,-0.77295
-2.0221,-1.7863,-3.187,7.7778,7.9208,1.0407,-1.9512,5.1133,-11.772,7.7778,7.9208,1.3267,-9.5238,-5.7778,-3.6825,-6.4412,-3.1562,21.707001,-15.111,-0.65681,-7.2142
1.7694,2.0415,2.6667,12.353,9.901,8.8455,3.9024,12.88,-9.8211,12.353,9.901,7.9602,-10.794,-5.1429,-3.6825,-5.7971,-1.2238,3.0274,-17.650999,-5.9113,-6.57
9.3523,5.8692,7.2195,14.967,13.201,14.049,9.7561,14.175,-3.9675,14.967,13.201,13.267,-6.9841,-3.873,2.6667,-1.9324,3.285,15.266,-1.7778,-3.9409,0.5153
3.6651,0.76555,0.71545,8.4314,3.9604,6.2439,2.6016,7.055,-9.8211,8.4314,3.9604,5.9701,-10.159,-7.6825,-1.1429,-5.153,0.06441,1.7391,1.3968,-9.8522,-6.57
8.7204,9.697,5.9187,9.7386,4.6205,8.1951,7.1545,8.9968,-5.9187,9.7386,4.6205,8.6235,-1.2698,2.4762,5.2063,4.5089,7.1498,-5.3462,4.5714,-1.9704,-3.3494
6.8246,13.525,7.2195,9.7386,12.541,12.098,13.008,5.1133,-0.06504,9.7386,12.541,13.93,4.4444,10.73,7.1111,10.95,9.7262,8.1804,8.381,4.5977,9.533
-0.12638,8.4211,2.0163,5.817,13.201,10.146,12.358,-2.0065,-0.71545,5.817,13.201,13.93,-1.2698,3.1111,-0.50794,5.153,1.9968,12.689,5.8413,1.3136,10.177
5.5608,9.059,5.9187,5.817,14.521,12.748,13.008,3.1715,2.5366,5.817,14.521,15.92,1.9048,3.746,2.0317,7.7295,4.5733,6.8921,5.2063,0.65681,9.533
12.512,15.439,12.423,7.7778,13.201,13.398,16.26,8.3495,3.8374,7.7778,13.201,17.91,9.5238,12.0,8.381,16.103001,12.303,4.3156,8.381,6.5681,15.33
6.1927,12.249,9.1707,2.549,3.3003,5.5935,11.057,3.1715,-2.6667,2.549,3.3003,11.277,5.7143,6.2857,3.9365,12.238,8.438,-9.8551,15.365,5.2545,13.398
-0.12638,5.2313,0.06504,-3.3333,-0.66007,-0.91057,2.6016,-2.6537,-9.1707,-3.3333,-0.66007,3.3167,3.1746,3.746,0.7619,7.7295,2.6409,-5.3462,9.6508,5.9113,9.533
-5.1817,0.12759,-7.0894,-6.6013,-6.6007,-2.8618,-1.9512,-7.1845,-11.772,-6.6013,-6.6007,0.0,0.63492,4.381,-4.3175,6.4412,-1.868,5.6039,4.5714,3.9409,10.821
-12.765,-3.7002,-10.341,-4.6405,-4.6205,-0.91057,-1.3008,-3.301,-9.1707,-4.6405,-4.6205,0.0,-7.619,-0.06349,-14.476,0.0,-8.3092,8.1804,4.5714,-3.9409,4.38
-8.3412,-3.0622,-5.7886,3.8562,6.6007,2.9919,1.9512,8.3495,-5.9187,3.8562,6.6007,5.3068,-8.254,0.57143,-12.571,-1.9324,-6.3768,2.3833,-2.4127,-2.6273,-2.0612
-2.0221,-6.89,-3.187,-0.06536,2.6403,-2.2114,-4.5528,3.8188,-14.374,-0.06536,2.6403,0.66335,-6.3492,0.57143,-6.8571,-3.8647,-3.8003,4.3156,-9.3968,0.65681,-2.0612
-3.2859,-14.545,-10.341,-10.523,-11.221,-11.967,-16.26,-4.5955,-26.080999,-10.523,-11.221,-9.9502,-6.9841,-4.5079,-4.9524,-10.95,-7.6651,-15.652,-15.746,-3.2841,-9.1465
-1.3902,-13.907,-12.943,-11.176,-13.201,-12.618,-18.211,-3.301,-25.431,-11.176,-13.201,-11.94,-2.5397,-5.7778,-0.50794,-12.238,-7.6651,-19.517,-15.746,-3.2841,-14.3
-0.75829,-5.614,-3.8374,-2.6797,-6.6007,-6.7642,-7.1545,2.5243,-16.976,-2.6797,-6.6007,-3.9801,2.5397,-0.06349,3.9365,-3.8647,0.06441,9.4686,-8.7619,1.9704,-7.2142
-0.75829,-2.4242,2.6667,1.2418,-6.6007,-2.2114,-3.9024,5.1133,-17.625999,1.2418,-6.6007,0.66335,0.63492,-0.06349,2.6667,-0.64412,4.5733,26.860001,-12.571,-0.65681,-3.3494
-2.0221,-5.614,4.6179,0.58824,-5.9406,0.39024,-6.5041,1.877,-21.528,0.58824,-5.9406,0.0,-5.0794,-2.6032,0.12698,-1.9324,3.285,-9.8551,-13.206,-9.8522,-8.5024
5.5608,0.12759,13.073,4.5098,3.3003,8.1951,1.9512,3.8188,-13.724,4.5098,3.3003,8.6235,-0.63492,5.0159,7.1111,4.5089,11.014,-5.9903,-12.571,-6.5681,-2.7053
12.512,6.5072,14.374,6.4706,10.561,11.447,9.7561,3.8188,-3.3171,6.4706,10.561,15.257,8.254,11.365,14.095,9.6618,14.879,6.8921,0.7619,2.6273,7.6006
5.5608,3.3174,2.0163,3.2026,7.2607,5.5935,8.4553,0.58252,-1.3659,3.2026,7.2607,10.614,10.159,10.73,9.6508,4.5089,7.1498,-16.940001,2.6667,2.6273,3.0918
-2.0221,1.4035,-3.187,-0.71895,3.3003,0.39024,4.5528,-2.0065,-3.9675,-0.71895,3.3003,5.3068,8.254,7.5556,3.9365,0.64412,3.285,0.45089,-5.5873,1.9704,-2.7053
-2.0221,6.5072,4.6179,-3.9869,-2.6403,-0.26016,4.5528,-5.89,-4.6179,-3.9869,-2.6403,5.3068,9.5238,8.1905,3.3016,5.153,7.1498,22.995001,0.12698,6.5681,2.4477
4.297,10.973,11.772,-2.0261,-3.9604,2.9919,5.8537,-4.5955,-1.3659,-2.0261,-3.9604,6.6335,13.333,12.635,7.746,10.306,12.303,8.8245,10.286,8.5386,9.533
7.4566,9.059,8.5203,-3.9869,-1.3201,1.6911,3.9024,-7.1845,0.58537,-3.9869,-1.3201,3.3167,12.698,10.095,9.0159,8.3736,10.37,9.4686,12.19,9.1954,8.8889
0.50553,5.2313,-1.8862,-6.6013,0.0,-1.561,0.65041,-9.7735,1.8862,-6.6013,0.0,-1.3267,5.7143,4.381,0.12698,1.9324,0.06441,-10.499,11.556,3.2841,5.0242
-8.3412,4.5933,-10.341,-7.9085,-1.3201,-5.4634,-1.3008,-9.7735,3.187,-7.9085,-1.3201,-4.6434,1.9048,3.1111,-10.032,0.0,-6.3768,-26.601999,8.381,-2.6273,0.5153
-5.8136,7.7831,-5.1382,-4.6405,2.6403,-1.561,3.252,-3.301,9.0407,-4.6405,2.6403,-0.66335,8.8889,10.73,-4.3175,7.0853,0.06441,-4.058,12.825,7.8818,11.465
0.50553,3.9553,-1.8862,-5.9477,-3.9604,-2.8618,0.0,-2.0065,1.2358,-5.9477,-3.9604,-2.6534,8.8889,10.095,2.0317,7.7295,2.6409,1.7391,9.0159,5.9113,14.042
4.297,-1.7863,-5.1382,-7.9085,-9.901,-8.7154,-5.2033,-2.6537,-7.8699,-7.9085,-9.901,-10.614,4.4444,5.0159,5.2063,3.8647,1.3527,-0.19324,3.9365,0.0,6.3124
-0.12638,-10.08,-12.943,-11.176,-16.502001,-13.919,-13.008,-5.89,-13.724,-11.176,-16.502001,-17.247,-1.9048,-1.9683,2.0317,-3.2206,-5.0886,-9.2109,0.12698,-5.2545,-0.12882
-3.2859,-13.907,-13.593,-9.8693,-13.201,-10.016,-14.959,-3.9482,-12.423,-9.8693,-13.201,-13.93,-5.7143,-5.7778,-3.0476,-9.6618,-10.242,-5.9903,-2.4127,-7.225,-6.57
-7.0774,-14.545,-12.943,-9.8693,-11.221,-8.065,-13.659,-1.3592,-11.772,-9.8693,-11.221,-10.614,-8.254,-7.6825,-10.032,-13.527,-13.462,-16.940001,-9.3968,-9.8522,-11.723
-1.3902,-6.252,-3.187,-5.2941,-5.9406,-2.2114,-4.5528,6.4078,-8.5203,-5.2941,-5.9406,-2.6534,0.0,1.2063,-3.6825,-5.153,-3.8003,-5.3462,-8.7619,0.0,-5.2818
-0.12638,-7.5279,0.06504,-8.5621,-8.5809,-3.5122,-5.8537,-0.06472,-13.073,-8.5621,-8.5809,-3.9801,2.5397,-1.3333,-0.50794,-7.0853,-0.57971,19.775,-13.206,7.225,-6.57
-0.75829,-10.08,-1.8862,-12.484,-13.861,-5.4634,-9.1057,-6.5372,-14.374,-12.484,-13.861,-7.9602,3.1746,-4.5079,0.7619,-9.6618,-1.868,21.707001,-17.016001,4.5977,-10.435
1.7694,-3.0622,3.9675,-5.2941,-7.2607,1.6911,-1.9512,2.5243,-3.9675,-5.2941,-7.2607,-1.3267,8.254,-1.3333,5.2063,-6.4412,1.3527,17.841999,-4.9524,7.225,-5.2818
3.0332,-1.1483,5.2683,-0.71895,-5.2805,4.9431,0.65041,10.291,-2.6667,-0.71895,-5.2805,1.3267,7.619,-5.7778,4.5714,-8.3736,-1.2238,14.622,2.6667,12.479,-2.0612
-0.12638,-5.614,-1.2358,-6.6013,-6.6007,-2.2114,-5.8537,4.466,-8.5203,-6.6013,-6.6007,-5.9701,-1.2698,-13.397,-2.4127,-16.103001,-8.3092,-18.229,-4.3175,3.9409,-14.3
4.9289,-2.4242,1.3659,-7.9085,-9.901,-1.561,-4.5528,1.2298,-7.2195,-7.9085,-9.901,-5.3068,-2.5397,-8.9524,-1.7778,-12.238,-6.3768,-28.535,-8.127,0.65681,-13.011
2.4013,-1.7863,2.0163,-5.9477,-7.2607,-0.91057,-3.9024,-0.71197,-3.3171,-5.9477,-7.2607,-3.3167,-3.1746,-0.69841,-1.7778,-5.153,-4.4444,-2.7697,-2.4127,1.9704,-0.12882
-10.237,-8.1659,-5.7886,-11.83,-7.9208,-9.3659,-10.407,-9.7735,-7.8699,-11.83,-7.9208,-9.9502,-12.063,-2.6032,-10.032,-7.0853,-9.5974,8.8245,-2.4127,-5.2545,0.5153
-14.028,-6.89,-5.7886,-10.523,-7.2607,-8.065,-7.1545,-9.7735,-5.9187,-10.523,-7.2607,-8.6235,-18.413,-7.0476,-14.476,-6.4412,-11.53,10.757,-1.7778,-13.793,-1.4171
-12.133,2.0415,-1.8862,-1.3725,-5.9406,-0.91057,2.6016,-2.6537,-0.06504,-1.3725,-5.9406,-1.3267,-17.778,-0.69841,-13.841,2.5765,-6.3768,-0.19324,7.746,-13.793,7.6006
-7.7093,12.249,2.6667,7.1242,1.9802,4.2927,9.7561,1.877,9.6911,7.1242,1.9802,5.3068,-12.698,8.8254,-8.7619,14.171,1.9968,-22.738001,21.079,-11.823,16.618
-7.0774,14.163,1.3659,1.8954,5.9406,-0.91057,5.8537,-3.9482,9.6911,1.8954,5.9406,1.99,-10.159,8.8254,-5.5873,15.459,5.2174,-13.076,16.0,-13.136,12.11
-7.7093,9.059,-2.5366,-4.6405,1.3201,-7.4146,2.6016,-7.1845,6.439,-4.6405,1.3201,-3.3167,-6.3492,6.2857,-6.2222,10.95,1.9968,-33.042999,7.746,-16.42,6.3124
-5.8136,5.8692,-1.2358,-1.3725,1.3201,-4.813,6.5041,-3.9482,7.7398,-1.3725,1.3201,-0.66335,1.9048,6.9206,-4.3175,10.306,0.70853,-20.805,10.286,-5.2545,16.618
-9.6051,1.4035,-4.4878,-1.3725,-1.9802,-4.1626,6.5041,-4.5955,7.0894,-1.3725,-1.9802,-1.3267,3.8095,1.8413,-6.8571,4.5089,-3.8003,12.045,5.8413,-3.2841,10.177
-12.133,-2.4242,-10.341,-3.3333,-6.6007,-4.813,1.9512,-2.6537,3.187,-3.3333,-6.6007,-3.9801,5.7143,-1.3333,-6.8571,0.64412,-6.3768,9.4686,9.6508,-1.3136,2.4477
-8.3412,-4.9761,-12.293,-4.6405,-8.5809,-5.4634,-3.9024,-2.0065,-3.9675,-4.6405,-8.5809,-5.3068,7.619,-3.2381,-3.0476,-2.5765,-5.7327,-20.805,-3.0476,2.6273,-4.6377
-1.3902,-3.7002,-5.7886,-5.2941,-9.901,-3.5122,-3.252,-2.0065,-4.6179,-5.2941,-9.901,-2.6534,10.794,-1.9683,3.3016,-3.2206,-3.1562,-16.940001,-5.5873,5.9113,-4.6377
1.7694,-7.5279,-4.4878,-7.9085,-14.521,-4.813,-8.4553,1.877,-5.9187,-7.9085,-14.521,-5.9701,7.619,-4.5079,3.9365,-6.4412,-4.4444,4.3156,-1.1429,7.8818,-2.0612
2.4013,-10.08,-5.7886,-9.2157,-14.521,-6.7642,-12.358,2.5243,-10.472,-9.2157,-14.521,-9.2869,5.0794,-1.3333,3.9365,-6.4412,-5.0886,24.283001,-7.4921,9.8522,-5.9259
8.7204,-4.3381,0.06504,0.58824,-5.2805,1.0407,-4.5528,11.586,-7.2195,0.58824,-5.2805,-2.6534,8.254,7.5556,9.0159,0.64412,2.6409,30.725,-5.5873,15.107,-1.4171
1.7694,-7.5279,-5.1382,2.549,-6.6007,1.0407,-7.1545,10.939,-9.1707,2.549,-6.6007,-3.9801,-5.7143,-0.06349,-1.7778,-4.5089,-3.8003,4.9597,5.2063,2.6273,-4.6377
-2.0221,-8.1659,-7.0894,3.2026,-7.2607,3.6423,-7.1545,9.644,-7.2195,3.2026,-7.2607,-1.99,-17.778,-5.7778,-11.302,-7.7295,-9.5974,-3.4138,-5.5873,-6.5681,-3.3494
-7.7093,-8.1659,-8.3902,0.58824,-9.2409,1.0407,-7.8049,6.4078,-6.5691,0.58824,-9.2409,-3.3167,-21.587,-8.3175,-15.746,-9.6618,-14.106,11.401,-13.206,-12.479,-4.6377
-8.3412,-6.89,-7.0894,-0.06536,-5.9406,-2.2114,-4.5528,7.7023,-3.9675,-0.06536,-5.9406,-5.3068,-19.683001,-7.6825,-14.476,-7.7295,-14.106,5.6039,-3.0476,-12.479,-5.2818
-7.7093,-6.252,-7.7398,-2.0261,-11.221,-6.1138,-6.5041,7.055,-7.8699,-2.0261,-11.221,-7.9602,-19.048,-9.5873,-14.476,-7.7295,-12.818,-5.3462,-3.0476,-12.479,-3.9936
-5.8136,-8.1659,-8.3902,-3.3333,-9.2409,-7.4146,-9.7561,4.466,-9.1707,-3.3333,-9.2409,-9.2869,-17.143,-13.397,-13.206,-9.0177,-12.174,-20.805,-3.0476,-14.45,-7.2142
0.50553,-1.1483,-1.8862,3.2026,2.6403,-0.26016,-0.65041,8.9968,0.58537,3.2026,2.6403,-2.6534,-5.0794,-7.0476,-3.0476,-1.9324,-3.1562,-2.1256,2.6667,-3.2841,-2.0612
-5.8136,-1.1483,-6.439,-0.06536,-0.66007,-5.4634,-3.252,2.5243,1.8862,-0.06536,-0.66007,-7.2968,1.2698,-3.873,-3.0476,-0.64412,-3.1562,15.91,-1.7778,1.3136,-0.77295
-11.501,-5.614,-12.293,-5.9477,-5.9406,-13.268,-11.707,-2.0065,-5.2683,-5.9477,-5.9406,-16.584,0.63492,-5.7778,-7.4921,-3.2206,-8.3092,7.5362,-7.4921,-1.3136,-5.9259
-3.2859,-6.252,-7.7398,-5.9477,-13.201,-9.3659,-13.659,1.877,-10.472,-5.9477,-13.201,-15.257,4.4444,0.57143,-2.4127,1.9324,-3.8003,6.8921,-9.3968,0.65681,0.5153
6.1927,-3.7002,2.6667,-0.71895,-11.221,-0.26016,-6.5041,5.1133,-6.5691,-0.71895,-11.221,-6.6335,10.159,8.8254,5.2063,9.0177,4.5733,2.3833,-4.3175,3.9409,9.533
3.0332,-3.7002,3.3171,-1.3725,-7.2607,0.39024,-3.252,1.2298,-2.0163,-1.3725,-7.2607,-3.3167,8.254,5.6508,2.6667,4.5089,2.6409,3.0274,-3.6825,1.9704,1.1594
-3.2859,-4.9761,-1.2358,-5.9477,-3.3003,-1.561,-4.5528,-2.0065,-1.3659,-5.9477,-3.3003,-4.6434,4.4444,2.4762,-2.4127,0.0,-2.5121,-31.111,-4.3175,-1.9704,-4.6377
-0.12638,-3.0622,0.06504,-2.6797,0.0,1.0407,-3.9024,2.5243,-3.3171,-2.6797,0.0,-3.3167,4.4444,1.2063,-0.50794,0.0,-0.57971,-5.3462,-2.4127,2.6273,-3.3494
2.4013,-1.7863,3.3171,-0.06536,-1.9802,1.6911,-3.252,4.466,-6.5691,-0.06536,-1.9802,-1.3267,0.63492,-4.5079,0.12698,-3.8647,-1.2238,24.283001,-8.7619,6.5681,-5.9259
1.1374,-3.0622,2.6667,-3.3333,-2.6403,-1.561,-1.9512,-1.3592,-1.3659,-3.3333,-2.6403,-1.99,-6.9841,-12.127,-2.4127,-11.594,-5.7327,23.639,-8.7619,1.3136,-8.5024
-0.75829,-5.614,0.71545,-3.3333,-2.6403,-2.2114,3.9024,-2.0065,2.5366,-3.3333,-2.6403,-1.3267,-11.429,-15.937,-4.9524,-16.103001,-9.5974,19.129999,-6.8571,-4.5977,-12.367
-1.3902,-6.252,0.71545,0.58824,-1.9802,2.3415,3.9024,5.7605,2.5366,0.58824,-1.9802,1.3267,-13.968,-15.937,-7.4921,-16.103001,-10.886,-14.364,-2.4127,-12.479,-12.367
6.1927,-3.0622,4.6179,1.8954,0.0,6.8943,2.6016,5.7605,3.187,1.8954,0.0,4.6434,-13.333,-10.857,-3.0476,-11.594,-5.7327,-36.264,-4.9524,-7.225,-4.6377
8.7204,4.5933,8.5203,3.8562,7.9208,7.5447,6.5041,3.8188,7.7398,3.8562,7.9208,8.6235,-8.254,-4.5079,4.5714,-3.8647,1.9968,5.6039,0.12698,-0.65681,0.5153
-2.0221,2.6794,0.71545,-2.6797,4.6205,-1.561,2.6016,-3.9482,5.1382,-2.6797,4.6205,2.6534,-10.159,-7.6825,-1.1429,-7.7295,-1.868,26.216,3.9365,-6.5681,-7.8583
-7.7093,-6.252,-7.7398,-11.176,-7.2607,-9.3659,-6.5041,-11.068,-7.2195,-11.176,-7.2607,-5.9701,-7.619,-10.857,-5.5873,-12.238,-8.3092,15.266,-8.7619,-6.5681,-18.164
-6.4455,-6.89,-5.7886,-8.5621,-9.901,-6.1138,-3.9024,-9.7735,-4.6179,-8.5621,-9.901,-3.9801,1.9048,-4.5079,-4.3175,-7.7295,-7.6651,6.8921,-11.302,0.0,-9.7907
-4.5498,-3.0622,-3.187,-5.9477,-3.9604,-2.2114,-1.3008,-6.5372,5.1382,-5.9477,-3.9604,-1.99,4.4444,-0.06349,-5.5873,-3.2206,-7.0209,-27.889999,-3.6825,-3.9409,-2.0612
-3.9179,-4.3381,-2.5366,-2.6797,5.2805,-2.2114,-1.9512,-5.89,8.3902,-2.6797,5.2805,-2.6534,8.254,3.746,-4.3175,-0.64412,-5.7327,-16.940001,-0.50794,1.3136,1.8035
-12.133,-8.1659,-7.7398,-6.6013,-3.3003,-10.667,-6.5041,-13.01,5.1382,-6.6013,-3.3003,-8.6235,6.3492,-0.06349,-8.7619,-2.5765,-8.9533,-19.517,4.5714,3.2841,6.9565
-13.397,-9.4418,-9.0407,-5.9477,-4.6205,-10.016,-8.4553,-11.715,5.1382,-5.9477,-4.6205,-9.2869,5.0794,1.2063,-10.032,-1.2882,-9.5974,-7.9227,7.1111,5.9113,10.177
-11.501,-11.994,-10.992,-5.2941,-2.6403,-7.4146,-11.057,-7.8317,3.8374,-5.2941,-2.6403,-9.2869,2.5397,-3.2381,-11.302,-5.7971,-12.818,14.622,3.9365,8.5386,3.7359
-9.6051,-15.183,-13.593,-6.6013,0.0,-8.7154,-11.057,-9.7735,5.1382,-6.6013,0.0,-9.2869,-1.2698,-9.5873,-10.032,-12.238,-16.683001,17.198,-0.50794,5.9113,-3.9936
-2.654,-14.545,-9.6911,-5.9477,1.3201,-6.7642,-10.407,-5.2427,7.0894,-5.9477,1.3201,-7.9602,-1.2698,-10.222,-4.3175,-13.527,-12.174,6.8921,-5.5873,3.9409,-7.2142
-1.3902,-13.27,-3.8374,-7.9085,-5.9406,-7.4146,-13.008,-7.8317,-0.71545,-7.9085,-5.9406,-7.9602,-5.0794,-10.857,-1.7778,-12.882,-7.0209,-16.940001,-8.7619,-3.2841,-11.723
5.5608,-3.0622,6.5691,-5.2941,-5.9406,-1.561,-4.5528,-7.1845,1.8862,-5.2941,-5.9406,-1.3267,-5.0794,-5.7778,5.2063,-5.153,3.9291,-9.8551,2.0317,-3.9409,-10.435
8.7204,5.2313,11.772,-1.3725,3.9604,4.2927,5.8537,-2.0065,10.992,-1.3725,3.9604,6.6335,-3.1746,3.1111,9.0159,5.7971,11.659,0.45089,5.8413,-0.65681,3.0918
9.3523,9.697,10.472,-0.06536,6.6007,5.5935,9.7561,-0.06472,16.195,-0.06536,6.6007,8.6235,0.0,8.8254,10.921,11.594,13.591,8.8245,9.0159,3.9409,12.11
3.6651,10.973,5.9187,-2.0261,5.2805,2.3415,7.8049,-3.9482,15.545,-2.0261,5.2805,6.6335,-3.8095,6.2857,6.4762,9.0177,9.7262,13.977,12.825,-3.2841,11.465
3.6651,14.801,10.472,-7.2549,3.9604,4.2927,11.057,-9.1262,17.496,-7.2549,3.9604,8.6235,-5.0794,7.5556,5.8413,9.0177,11.014,1.7391,11.556,-11.823,6.3124
12.512,21.18,20.228001,-3.3333,7.9208,10.797,20.163,-7.1845,24.0,-3.3333,7.9208,16.584,1.2698,9.4603,12.19,12.882,16.812,-0.19324,18.540001,-5.9113,8.8889
11.88,19.903999,17.625999,1.2418,14.521,10.146,21.462999,-5.89,24.0,1.2418,14.521,17.247,0.0,2.4762,9.6508,9.6618,12.947,3.6715,10.286,-5.2545,5.6683
9.9842,19.266001,16.976,5.1634,15.182,12.748,20.813,-3.9482,23.35,5.1634,15.182,19.9,-1.2698,-0.69841,5.8413,10.306,9.7262,-11.787,3.3016,-4.5977,9.533
8.7204,21.818001,19.577,7.7778,13.201,15.35,24.065001,-1.3592,22.698999,7.7778,13.201,22.554001,1.9048,1.2063,5.2063,13.527,11.014,-25.313999,13.46,-5.2545,14.686
13.144,28.198,24.129999,11.046,24.422001,16.65,30.569,1.2298,29.202999,11.046,24.422001,26.534,12.063,8.1905,13.46,19.968,18.1,3.0274,29.968,4.5977,19.195
13.776,21.18,17.625999,6.4706,20.462,10.797,24.715,-1.3592,27.252001,6.4706,20.462,19.9,13.968,5.0159,14.73,13.527,12.303,12.045,24.889,12.479,14.042
8.0885,9.697,8.5203,1.2418,9.901,3.6423,15.61,-7.1845,16.846001,1.2418,9.901,11.277,8.254,-3.873,8.381,2.5765,3.9291,3.0274,5.2063,9.1954,3.7359
3.6651,8.4211,5.9187,-2.0261,3.9604,1.6911,11.707,-10.421,9.6911,-2.0261,3.9604,7.2968,3.8095,-9.5873,3.9365,-0.64412,1.3527,11.401,-2.4127,6.5681,-0.12882
4.9289,12.249,8.5203,-0.71895,3.3003,4.2927,10.407,-3.9482,8.3902,-0.71895,3.3003,7.9602,6.9841,-5.7778,6.4762,2.5765,5.2174,17.198,0.12698,11.166,-0.77295
7.4566,12.887,11.772,1.2418,3.3003,4.2927,8.4553,-0.71197,10.341,1.2418,3.3003,6.6335,9.5238,-1.9683,10.286,4.5089,9.0821,8.8245,3.3016,9.8522,-0.12882
9.9842,8.4211,11.122,3.8562,5.9406,3.6423,5.8537,2.5243,11.642,3.8562,5.9406,5.3068,5.7143,-1.9683,10.921,3.2206,7.7939,-25.313999,0.12698,4.5977,-0.77295
7.4566,1.4035,3.9675,2.549,3.9604,2.3415,1.9512,1.877,8.3902,2.549,3.9604,2.6534,-1.9048,-0.69841,4.5714,0.64412,1.9968,-17.584999,0.7619,0.65681,-3.3494
-2.0221,-3.7002,-6.439,-1.3725,-2.6403,-2.2114,-2.6016,-3.9482,2.5366,-1.3725,-2.6403,-1.99,-6.9841,-0.06349,-3.6825,0.0,-3.1562,-11.143,-0.50794,-7.8818,-4.6377
8.0885,8.4211,3.3171,7.1242,9.901,6.2439,8.4553,3.1715,16.195,7.1242,9.901,9.9502,5.0794,13.905,9.6508,13.527,9.7262,9.4686,7.746,3.2841,7.6006
8.7204,8.4211,8.5203,5.1634,13.201,5.5935,9.1057,1.2298,16.846001,5.1634,13.201,11.94,3.1746,9.4603,11.556,10.95,11.659,17.841999,10.921,1.9704,6.3124
0.50553,0.76555,6.5691,-0.06536,3.9604,-0.26016,3.252,-3.301,7.0894,-0.06536,3.9604,9.2869,-5.7143,1.2063,3.3016,0.0,3.285,4.3156,2.6667,-8.5386,-2.7053
1.1374,0.12759,6.5691,-0.71895,1.3201,-0.26016,2.6016,-3.9482,5.1382,-0.71895,1.3201,11.277,-4.4444,-0.06349,0.12698,-1.2882,1.3527,-26.601999,1.3968,-11.166,0.5153
-0.12638,2.0415,1.3659,-3.9869,-1.3201,-1.561,0.0,-7.1845,2.5366,-3.9869,-1.3201,10.614,0.63492,1.8413,0.7619,1.9324,1.9968,-13.076,-0.50794,-4.5977,0.5153
-2.0221,0.76555,-1.2358,-5.2941,-4.6205,-2.2114,-3.252,-8.479,-2.0163,-5.2941,-4.6205,9.2869,5.0794,6.2857,1.3968,5.153,3.9291,2.3833,-1.7778,0.65681,0.5153
0.50553,3.9553,3.9675,0.58824,0.0,1.6911,0.0,-5.89,4.4878,0.58824,0.0,15.257,8.254,7.5556,4.5714,7.7295,7.1498,10.113,5.8413,4.5977,1.8035
6.1927,10.335,11.772,5.1634,9.901,7.5447,8.4553,-2.0065,15.545,5.1634,9.901,23.216999,13.333,9.4603,9.0159,10.95,11.014,14.622,5.2063,9.8522,8.2448
-1.3902,1.4035,2.0163,-2.0261,0.66007,-0.26016,0.0,-7.1845,5.1382,-2.0261,0.66007,15.92,6.9841,2.4762,-0.50794,3.8647,1.9968,-8.5668,1.3968,5.2545,8.2448
-7.0774,-8.8038,-10.341,-7.2549,-11.881,-4.1626,-10.407,-9.1262,-7.8699,-7.2549,-11.881,9.2869,0.63492,-4.5079,-6.8571,-2.5765,-7.0209,-4.058,-3.0476,1.9704,0.5153
-5.1817,-10.08,-13.593,-2.0261,-11.881,-0.91057,-9.7561,-3.9482,-7.2195,-2.0261,-11.881,9.9502,-2.5397,-7.6825,-6.8571,-5.7971,-9.5974,-1.4815,-4.9524,4.5977,-4.6377
-1.3902,-8.1659,-11.642,3.2026,-3.3003,1.0407,-6.5041,1.877,-5.2683,3.2026,-3.3003,11.94,-3.8095,-10.222,-5.5873,-10.306,-10.886,-5.9903,-4.3175,7.225,-10.435
1.7694,-4.9761,-5.7886,5.1634,2.6403,2.9919,-3.252,5.7605,-3.9675,5.1634,2.6403,15.257,-0.63492,-8.9524,-2.4127,-10.306,-8.3092,-0.83736,-8.7619,4.5977,-12.367
-0.12638,-3.7002,-3.8374,3.8562,1.3201,1.6911,-1.9512,3.8188,-5.9187,3.8562,1.3201,14.594,3.1746,-3.873,-1.7778,-8.3736,-5.0886,17.841999,-13.206,3.9409,-12.367
-0.12638,0.12759,-0.58537,5.817,3.9604,2.3415,2.6016,5.1133,1.2358,5.817,3.9604,15.92,5.0794,-1.9683,1.3968,-4.5089,0.06441,26.216,-4.9524,8.5386,-7.8583
3.0332,2.6794,3.3171,9.7386,8.5809,6.2439,5.2033,10.291,7.7398,9.7386,8.5809,18.573999,3.8095,-2.6032,3.9365,-4.5089,2.6409,17.841999,0.7619,9.8522,-6.57
-0.12638,-3.7002,-1.8862,4.5098,1.9802,1.6911,0.0,5.7605,0.58537,4.5098,1.9802,12.604,-4.4444,-7.6825,-3.0476,-11.594,-3.8003,6.248,-4.9524,1.3136,-14.944
-4.5498,-5.614,-4.4878,-0.71895,-9.901,-2.8618,-1.3008,-0.71197,-2.6667,-0.71895,-9.901,7.9602,-7.619,-7.6825,-6.8571,-12.238,-6.3768,8.8245,-10.032,-5.2545,-17.52
-3.9179,-3.7002,-1.2358,-2.6797,-9.901,-4.813,-3.252,-2.0065,-3.3171,-2.6797,-9.901,4.6434,-2.5397,0.57143,-2.4127,-6.4412,0.70853,-4.7021,-11.937,-5.2545,-16.875999
-3.9179,-4.3381,0.06504,-7.9085,-4.6205,-8.065,-7.8049,-7.8317,-2.6667,-7.9085,-4.6205,-1.3267,0.0,3.746,2.6667,-0.64412,5.8615,-31.111,-10.667,-6.5681,-9.1465
-1.3902,-1.7863,2.6667,-6.6013,-0.66007,-4.813,-4.5528,-5.89,-0.06504,-6.6013,-0.66007,1.3267,4.4444,7.5556,7.1111,5.7971,9.7262,-3.4138,-2.4127,-1.9704,5.0242
3.0332,4.5933,7.2195,-2.0261,3.3003,1.0407,1.3008,-0.71197,5.7886,-2.0261,3.3003,6.6335,4.4444,10.73,7.746,10.306,10.37,4.9597,9.0159,-1.9704,10.177
9.3523,10.973,13.073,1.8954,6.6007,7.5447,6.5041,0.58252,11.642,1.8954,6.6007,11.277,6.3492,13.27,9.6508,14.171,13.591,-4.7021,12.825,0.65681,8.8889
12.512,10.335,14.374,1.8954,5.9406,9.4959,7.1545,1.2298,10.341,1.8954,5.9406,11.94,8.254,13.27,12.825,16.103001,16.167,13.977,16.0,5.2545,12.11
1.7694,2.6794,6.5691,-2.0261,0.0,3.6423,1.3008,-4.5955,2.5366,-2.0261,0.0,5.3068,1.9048,6.9206,3.9365,10.306,7.7939,8.8245,9.0159,0.65681,9.533
-7.7093,0.12759,0.71545,-3.9869,-4.6205,0.39024,0.0,-9.1262,0.58537,-3.9869,-4.6205,1.99,-0.63492,1.8413,-4.3175,5.153,0.06441,-4.058,4.5714,-1.3136,5.6683
-3.9179,2.0415,1.3659,-0.71895,-3.3003,2.3415,3.252,-5.2427,3.187,-0.71895,-3.3003,3.9801,4.4444,2.4762,-3.0476,5.153,-0.57971,-28.535,5.8413,1.3136,6.9565
0.50553,0.12759,0.71545,-0.06536,-5.2805,1.6911,0.65041,-2.0065,-0.71545,-0.06536,-5.2805,1.3267,6.3492,1.8413,0.7619,3.2206,0.06441,-4.7021,-1.1429,3.2841,2.4477
3.6651,-1.7863,-0.58537,0.58824,-2.6403,2.3415,0.0,0.58252,-6.5691,0.58824,-2.6403,-0.66335,5.7143,-0.69841,2.6667,0.0,0.06441,-16.940001,-13.206,1.9704,-5.9259
6.8246,-1.7863,2.6667,5.817,1.9802,8.8455,4.5528,7.055,-5.9187,5.817,1.9802,3.9801,8.254,-0.06349,4.5714,0.64412,1.9968,-16.940001,-16.381001,5.2545,-6.57
5.5608,2.6794,7.8699,10.392,7.9208,12.748,9.1057,7.055,2.5366,10.392,7.9208,9.2869,13.333,5.0159,7.746,3.8647,5.8615,19.775,-4.3175,12.479,-0.77295
-0.75829,0.12759,3.9675,3.8562,0.0,4.2927,2.6016,2.5243,-0.06504,3.8562,0.0,1.99,7.619,1.8413,3.3016,-1.2882,1.9968,27.504,1.3968,8.5386,-3.3494
-2.654,-1.7863,-1.8862,0.58824,-5.9406,-2.8618,-2.6016,1.877,-3.9675,0.58824,-5.9406,-6.6335,1.2698,-1.3333,-0.50794,-5.153,-1.2238,9.4686,-6.8571,3.9409,-7.8583
-1.3902,0.76555,-5.1382,-0.06536,-9.2409,-4.1626,-1.3008,2.5243,-5.9187,-0.06536,-9.2409,-9.2869,-3.1746,0.57143,-1.1429,-2.5765,-0.57971,-5.9903,-7.4921,1.9704,-9.1465
-2.654,-1.7863,-8.3902,-2.6797,-9.2409,-4.813,-3.252,0.58252,-7.2195,-2.6797,-9.2409,-11.277,-6.3492,1.8413,-3.6825,-1.9324,-1.868,1.7391,-2.4127,-1.9704,-2.0612
-2.654,-4.3381,-6.439,-1.3725,-7.2607,-2.2114,-3.252,2.5243,-2.6667,-1.3725,-7.2607,-9.9502,-5.0794,-0.06349,-3.0476,-6.4412,-4.4444,12.045,3.3016,-1.9704,-1.4171
1.1374,-3.0622,-1.8862,5.817,-1.9802,2.3415,0.65041,9.644,0.58537,5.817,-1.9802,-6.6335,-1.2698,-1.9683,-1.1429,-9.0177,-3.8003,-13.076,5.8413,0.0,-3.3494
-5.8136,-3.7002,-5.1382,-1.3725,-4.6205,-5.4634,-4.5528,0.58252,-3.3171,-1.3725,-4.6205,-12.604,-3.1746,-3.873,-5.5873,-11.594,-5.7327,-9.8551,-5.5873,-3.9409,-6.57
-15.292,-4.9761,-11.642,-8.5621,-8.5809,-12.618,-8.4553,-6.5372,-5.9187,-8.5621,-8.5809,-19.237,-4.4444,-1.9683,-9.3968,-10.95,-6.3768,12.045,-4.9524,-6.5681,-6.57
-17.188,-10.718,-16.195,-5.2941,-7.9208,-15.22,-11.707,-3.301,-7.8699,-5.2941,-7.9208,-23.881001,-4.4444,-2.6032,-10.667,-10.95,-8.3092,5.6039,-5.5873,-5.9113,-3.3494
-12.765,-17.097,-16.195,-7.2549,-11.221,-16.52,-14.309,-5.2427,-12.423,-7.2549,-11.221,-25.207001,-5.7143,-5.7778,-10.667,-13.527,-12.174,-24.025999,-10.667,-7.8818,-4.6377
-7.0774,-13.27,-8.3902,-2.0261,-7.2607,-10.016,-7.8049,0.58252,-7.2195,-2.0261,-7.2607,-17.91,-2.5397,-3.2381,-7.4921,-9.0177,-8.9533,-1.4815,0.7619,-2.6273,0.5153
-1.3902,-2.4242,-1.8862,4.5098,1.9802,-2.8618,-1.3008,6.4078,1.8862,4.5098,1.9802,-11.94,2.5397,6.2857,-1.1429,1.9324,-0.57971,-9.8551,7.746,1.9704,10.177
-7.7093,-1.1483,-9.6911,-5.9477,-6.6007,-11.317,-6.5041,-6.5372,-2.0163,-5.9477,-6.6007,-19.9,1.2698,7.5556,-3.6825,3.2206,-1.868,-22.093,0.7619,-1.3136,8.8889
-8.3412,-2.4242,-12.293,-8.5621,-5.9406,-13.919,-8.4553,-9.1262,-2.6667,-8.5621,-5.9406,-22.554001,1.9048,6.2857,-3.0476,3.2206,-1.868,-12.432,0.7619,-1.3136,2.4477
-3.9179,-4.3381,-5.7886,-2.6797,-2.6403,-8.065,-7.1545,-1.3592,-3.3171,-2.6797,-2.6403,-17.247,6.3492,7.5556,2.0317,4.5089,0.70853,8.1804,4.5714,4.5977,1.1594
1.1374,-4.9761,1.3659,1.2418,-1.3201,-1.561,-4.5528,3.1715,-3.3171,1.2418,-1.3201,-10.614,8.8889,10.73,4.5714,7.0853,2.6409,3.6715,-0.50794,5.2545,5.6683
4.297,-4.3381,3.9675,3.8562,0.66007,3.6423,-0.65041,5.7605,-4.6179,3.8562,0.66007,-5.9701,6.9841,10.73,3.3016,7.7295,2.6409,-2.1256,-4.9524,4.5977,8.8889
4.9289,-0.51037,3.3171,5.1634,1.3201,5.5935,5.8537,4.466,-2.6667,5.1634,1.3201,-3.3167,7.619,10.73,3.9365,7.0853,1.9968,-0.83736,-3.0476,9.1954,8.8889
1.7694,1.4035,-0.58537,4.5098,1.9802,2.9919,3.252,3.1715,-2.0163,4.5098,1.9802,-5.9701,5.0794,7.5556,2.0317,5.153,0.06441,1.7391,-0.50794,6.5681,5.0242
-5.8136,-3.0622,-5.7886,-4.6405,-9.901,-4.1626,-5.8537,-3.301,-9.1707,-4.6405,-9.901,-11.94,-4.4444,-1.9683,-6.2222,-3.8647,-7.0209,19.129999,-12.571,-1.9704,-5.2818
-2.0221,0.12759,-1.2358,-2.6797,-10.561,-0.26016,-1.3008,-0.06472,-9.8211,-2.6797,-10.561,-7.2968,-5.0794,-0.06349,-6.2222,-2.5765,-4.4444,3.6715,-12.571,-2.6273,-5.2818
9.9842,5.2313,5.9187,7.7778,3.3003,12.748,4.5528,10.939,-4.6179,7.7778,3.3003,3.3167,1.9048,8.1905,2.0317,4.5089,2.6409,-15.008,-6.2222,3.2841,3.7359
5.5608,3.9553,3.3171,10.392,4.6205,12.748,5.2033,8.9968,-2.6667,10.392,4.6205,5.3068,2.5397,9.4603,2.6667,4.5089,1.9968,7.5362,-8.127,3.9409,7.6006
1.1374,3.9553,0.71545,9.7386,1.9802,7.5447,7.8049,4.466,2.5366,9.7386,1.9802,3.3167,3.1746,8.1905,3.9365,5.153,3.9291,2.3833,2.6667,0.65681,7.6006
3.6651,7.1451,3.9675,9.085,6.6007,3.6423,8.4553,3.1715,4.4878,9.085,6.6007,2.6534,3.8095,7.5556,6.4762,5.7971,7.1498,-7.9227,10.286,0.65681,5.0242
9.9842,15.439,12.423,13.66,15.842,9.4959,14.309,8.3495,9.0407,13.66,15.842,7.9602,10.159,13.27,10.921,11.594,12.303,17.841999,13.46,7.225,10.821
1.1374,7.7831,5.2683,11.046,9.901,6.2439,7.1545,3.1715,5.7886,11.046,9.901,3.3167,4.4444,8.1905,0.7619,4.5089,3.9291,13.977,2.0317,-1.3136,5.6683
-3.9179,-3.7002,-5.1382,8.4314,1.9802,2.3415,-3.9024,1.2298,-2.0163,8.4314,1.9802,-4.6434,-0.63492,4.381,-4.9524,-1.2882,-3.1562,1.095,-4.9524,-4.5977,-0.77295
-2.0221,-6.89,-8.3902,6.4706,1.9802,-0.91057,-9.1057,1.877,-2.0163,6.4706,1.9802,-11.277,1.2698,5.0159,-0.50794,-0.64412,-1.2238,-23.382,7.1111,-3.9409,-2.0612
4.9289,-2.4242,-3.8374,3.8562,1.3201,-0.91057,-4.5528,0.58252,1.8862,3.8562,1.3201,-11.277,6.9841,5.6508,7.1111,1.2882,3.285,-8.5668,2.6667,1.9704,-0.12882
3.6651,-1.7863,-1.2358,1.8954,-3.9604,-2.2114,-4.5528,-0.06472,1.8862,1.8954,-3.9604,-12.604,3.1746,2.4762,4.5714,0.0,1.3527,-3.4138,-1.1429,2.6273,2.4477
-2.0221,-1.7863,-1.8862,3.2026,1.9802,-4.813,-3.9024,-1.3592,1.8862,3.2026,1.9802,-13.267,0.63492,2.4762,0.12698,1.2882,0.06441,8.8245,7.746,0.0,4.38
0.50553,2.6794,2.0163,5.1634,6.6007,-2.2114,-3.252,0.58252,2.5366,5.1634,6.6007,-9.9502,6.3492,8.8254,4.5714,9.0177,6.5056,12.689,10.286,2.6273,9.533
-4.5498,0.76555,-1.2358,-0.06536,1.9802,-6.7642,-5.8537,-2.6537,-0.71545,-0.06536,1.9802,-12.604,5.7143,8.1905,3.3016,9.6618,5.8615,10.113,5.8413,3.2841,10.821
-11.501,-2.4242,-8.3902,-5.2941,-1.9802,-13.919,-6.5041,-7.8317,-3.9675,-5.2941,-1.9802,-17.247,0.0,6.9206,-4.3175,7.7295,0.06441,2.3833,6.4762,-0.65681,6.9565
-8.3412,-1.1483,-8.3902,-4.6405,-3.3003,-10.667,-5.8537,-5.2427,-6.5691,-4.6405,-3.3003,-14.594,-1.9048,8.8254,-5.5873,9.6618,-0.57971,-17.584999,7.1111,-2.6273,7.6006
-3.2859,3.9553,0.06504,-0.06536,-2.6403,-4.1626,0.0,-2.0065,-5.2683,-0.06536,-2.6403,-7.2968,-1.9048,12.0,-1.1429,14.171,4.5733,1.7391,1.3968,1.3136,8.2448
-0.75829,7.1451,7.8699,3.8562,1.3201,1.6911,3.252,3.1715,-2.0163,3.8562,1.3201,-0.66335,-5.0794,12.635,-1.1429,14.815,5.8615,12.689,0.12698,1.3136,8.8889
1.1374,3.9553,8.5203,4.5098,3.3003,2.9919,4.5528,4.466,-2.6667,4.5098,3.3003,1.3267,-6.9841,10.095,-1.1429,11.594,4.5733,4.9597,-4.3175,-1.9704,5.0242
-1.3902,-1.1483,3.9675,-1.3725,-1.3201,-2.8618,-1.3008,-3.301,-7.8699,-1.3725,-1.3201,-3.9801,-10.159,2.4762,-1.7778,5.7971,1.3527,-10.499,-16.381001,-7.8818,-3.9936
9.3523,4.5933,9.8211,7.7778,8.5809,5.5935,5.8537,8.3495,1.2358,7.7778,8.5809,3.9801,-2.5397,5.0159,7.1111,9.6618,7.7939,-7.2786,-3.6825,-1.3136,3.0918
3.0332,2.6794,4.6179,7.1242,7.2607,4.2927,5.8537,7.7023,1.2358,7.1242,7.2607,2.6534,-5.0794,-0.06349,1.3968,4.5089,1.3527,-5.3462,2.6667,-3.2841,5.6683
-12.133,-4.3381,-5.1382,-1.3725,-0.66007,-4.1626,0.65041,-2.0065,-6.5691,-1.3725,-0.66007,-5.3068,-11.429,-8.3175,-11.302,-6.4412,-9.5974,-9.2109,-4.9524,-11.166,-3.3494
-7.7093,-2.4242,-1.8862,3.2026,1.3201,0.39024,3.252,4.466,0.58537,3.2026,1.3201,-1.3267,-6.9841,-9.5873,-8.127,-8.3736,-8.9533,-11.143,5.8413,-9.8522,-9.7907
-2.0221,-3.0622,0.71545,6.4706,3.9604,1.6911,4.5528,5.7605,5.7886,6.4706,3.9604,1.3267,-6.3492,-14.667,-4.9524,-12.238,-9.5974,5.6039,0.7619,-4.5977,-11.723
-2.0221,-8.8038,-3.8374,4.5098,3.9604,-0.26016,1.3008,4.466,-0.71545,4.5098,3.9604,-1.3267,-10.794,-21.016001,-6.8571,-18.035,-14.106,18.486,-7.4921,-4.5977,-10.435
-2.0221,-11.994,-7.0894,-0.06536,1.9802,-2.2114,0.0,-0.71197,-3.3171,-0.06536,1.9802,-3.3167,-13.968,-21.016001,-8.127,-19.968,-16.683001,6.248,-8.127,-5.9113,-11.079
-0.12638,-9.4418,-8.3902,-2.0261,0.66007,-1.561,-2.6016,-0.71197,0.58537,-2.0261,0.66007,-4.6434,-12.698,-17.841,-7.4921,-16.103001,-15.395,2.3833,-0.50794,-2.6273,-10.435
-1.3902,-3.0622,-8.3902,-0.06536,-0.66007,0.39024,-4.5528,2.5243,4.4878,-0.06536,-0.66007,-4.6434,-7.619,-8.9524,-7.4921,-7.0853,-10.886,-11.143,2.6667,-0.65681,-5.9259
-12.133,-0.51037,-9.0407,-2.6797,-1.3201,-4.1626,-4.5528,-2.6537,3.187,-2.6797,-1.3201,-6.6335,-2.5397,-1.3333,-10.667,0.0,-7.0209,-1.4815,4.5714,-1.3136,-2.7053
-23.507,-4.9761,-9.6911,-10.523,-9.2409,-13.268,-9.7561,-11.068,-6.5691,-10.523,-9.2409,-12.604,-3.8095,0.57143,-15.746,1.2882,-7.6651,-2.7697,-2.4127,-5.9113,2.4477
-12.133,-0.51037,-1.8862,-8.5621,-9.901,-8.7154,-6.5041,-3.9482,-3.3171,-8.5621,-9.901,-8.6235,-0.63492,3.1111,-8.7619,5.153,-2.5121,-16.296,7.1111,-3.9409,8.2448
2.4013,5.2313,2.6667,-5.2941,-5.2805,-3.5122,-2.6016,-0.71197,0.58537,-5.2941,-5.2805,-5.3068,1.9048,4.381,0.12698,7.0853,1.3527,-11.787,7.1111,0.0,5.0242
4.297,5.8692,2.0163,-3.9869,-1.9802,-2.8618,1.3008,-3.301,-2.0163,-3.9869,-1.9802,-3.9801,4.4444,8.8254,3.3016,9.6618,2.6409,0.45089,2.0317,3.2841,10.177
0.50553,-1.1483,-5.1382,-8.5621,-7.9208,-5.4634,-6.5041,-7.1845,-7.8699,-8.5621,-7.9208,-8.6235,-0.63492,1.8413,-1.1429,3.8647,-2.5121,-5.3462,-7.4921,-0.65681,3.7359
-2.654,-11.356,-12.943,-13.137,-21.122,-8.7154,-18.211,-8.479,-18.275999,-13.137,-21.122,-14.594,-4.4444,-6.4127,-6.8571,-4.5089,-8.9533,6.248,-23.365,-1.9704,-7.2142
3.0332,-8.8038,-5.7886,-7.9085,-21.122,-2.8618,-12.358,0.58252,-20.878,-7.9085,-21.122,-8.6235,1.9048,0.57143,-1.7778,0.0,-3.1562,28.792,-19.556,6.5681,-3.3494
5.5608,-0.51037,2.6667,-5.2941,-7.9208,2.3415,-3.9024,2.5243,-13.724,-5.2941,-7.9208,-1.99,3.8095,5.0159,0.12698,5.153,1.9968,6.248,-5.5873,6.5681,3.0918
1.7694,3.9553,2.6667,-3.3333,-0.66007,3.6423,2.6016,-3.301,-3.3171,-3.3333,-0.66007,1.99,0.0,3.746,-4.3175,2.5765,-1.868,-15.652,-1.7778,-0.65681,3.0918
1.1374,6.5072,4.6179,4.5098,1.3201,8.1951,7.1545,0.58252,2.5366,4.5098,1.3201,7.9602,-0.63492,3.746,-2.4127,1.9324,-0.57971,1.7391,3.3016,-0.65681,1.1594
-3.2859,1.4035,4.6179,0.58824,-0.66007,5.5935,0.65041,-2.6537,-2.6667,0.58824,-0.66007,5.3068,-1.9048,3.746,-1.7778,0.0,0.70853,3.6715,-3.0476,-3.9409,0.5153
1.1374,1.4035,9.1707,0.58824,3.3003,6.8943,2.6016,-2.0065,-0.71545,0.58824,3.3003,6.6335,-0.63492,2.4762,3.3016,-0.64412,4.5733,-15.652,-2.4127,-6.5681,1.8035
8.0885,0.76555,8.5203,0.58824,-0.66007,8.1951,6.5041,-0.71197,3.8374,0.58824,-0.66007,6.6335,1.2698,0.57143,7.746,-3.2206,3.9291,-13.076,-1.1429,-4.5977,-2.0612
19.462999,8.4211,13.073,7.1242,11.221,15.35,14.959,5.1133,16.195,7.1242,11.221,14.594,12.698,7.5556,19.174999,2.5765,10.37,-8.5668,7.746,7.8818,5.6683
18.830999,7.7831,11.772,5.1634,15.842,14.049,15.61,1.2298,15.545,5.1634,15.842,12.604,15.238,5.0159,21.714001,0.0,11.014,-0.83736,8.381,14.45,1.8035
6.8246,-2.4242,5.9187,-3.3333,7.9208,2.3415,1.9512,-9.1262,7.7398,-3.3333,7.9208,2.6534,6.9841,-1.3333,12.825,-7.0853,3.9291,10.757,3.9365,9.1954,-2.7053
-6.4455,-6.89,-0.58537,-9.8693,-3.3003,-6.1138,-3.9024,-14.951,2.5366,-9.8693,-3.3003,-3.3167,0.63492,-5.7778,0.12698,-10.306,-3.1562,0.45089,1.3968,-1.9704,-3.3494
-8.9731,-6.89,-8.3902,-12.484,-10.561,-8.7154,-5.8537,-11.715,-2.0163,-12.484,-10.561,-6.6335,0.63492,-5.7778,-3.6825,-7.7295,-5.7327,-6.6345,0.12698,-3.9409,-3.9936
-4.5498,-6.89,-13.593,-13.137,-10.561,-11.317,-9.1057,-8.479,-3.9675,-13.137,-10.561,-9.2869,3.1746,-5.1429,-1.1429,-5.153,-5.7327,-7.9227,3.9365,0.65681,1.1594
-2.654,0.12759,-8.3902,-11.176,-6.6007,-9.3659,-5.2033,-5.89,0.58537,-11.176,-6.6007,-6.6335,1.2698,-3.873,-2.4127,-1.9324,-3.8003,-10.499,6.4762,0.65681,5.6683
-7.0774,7.7831,-1.2358,-9.8693,-3.9604,-9.3659,1.9512,-7.8317,6.439,-9.8693,-3.9604,-1.3267,-1.2698,-0.69841,-6.2222,3.2206,-1.2238,-7.2786,9.0159,0.0,10.821
-15.292,7.1451,-3.187,-9.2157,-0.66007,-10.667,1.9512,-5.89,9.6911,-9.2157,-0.66007,-1.99,-1.9048,3.1111,-10.667,6.4412,-1.2238,8.8245,9.0159,1.9704,14.686
-24.771,-1.1483,-14.244,-14.444,-6.6007,-17.171,-9.1057,-7.1845,3.187,-14.444,-6.6007,-11.277,-6.9841,0.57143,-17.016001,3.2206,-6.3768,16.554001,8.381,-5.2545,10.821
-23.507,-4.9761,-16.846001,-19.673,-13.861,-22.374001,-13.659,-11.715,-3.9675,-19.673,-13.861,-17.247,-11.429,-2.6032,-16.381001,0.64412,-6.3768,-10.499,1.3968,-13.793,5.6683
-12.765,-1.1483,-7.7398,-14.444,-10.561,-17.171,-9.1057,-7.8317,-3.9675,-14.444,-10.561,-13.267,-11.429,-1.3333,-10.032,2.5765,-3.1562,-13.076,2.0317,-12.479,5.0242
-3.9179,1.4035,2.6667,-5.9477,-9.2409,-6.1138,-4.5528,-2.6537,-0.71545,-5.9477,-9.2409,-3.9801,-12.063,-4.5079,-7.4921,0.64412,-2.5121,-2.1256,5.8413,-12.479,4.38
2.4013,2.0415,8.5203,-3.3333,-7.2607,2.9919,-0.65041,3.1715,0.58537,-3.3333,-7.2607,2.6534,-14.603,-9.5873,-7.4921,-3.8647,-3.8003,-36.908001,5.2063,-15.764,-5.2818
16.934999,9.697,20.228001,4.5098,4.6205,14.049,9.7561,12.88,8.3902,4.5098,4.6205,13.93,-5.0794,-4.5079,7.1111,3.2206,6.5056,-4.058,-1.7778,-4.5977,-3.9936
17.566999,9.059,23.48,4.5098,11.221,13.398,9.1057,8.9968,6.439,4.5098,11.221,15.257,-3.1746,-4.5079,10.921,4.5089,10.37,29.436001,-4.9524,-1.3136,1.8035
6.8246,2.0415,15.675,-2.0261,0.0,4.9431,-0.65041,0.58252,-2.0163,-2.0261,0.0,6.6335,-10.159,-12.127,0.7619,-3.8647,1.9968,4.3156,-1.1429,-9.8522,-3.3494
3.6651,2.6794,16.325001,-1.3725,-0.66007,3.6423,1.3008,-1.3592,4.4878,-1.3725,-0.66007,6.6335,-8.254,-12.127,-1.1429,-6.4412,-1.2238,-4.058,0.7619,-5.2545,-6.57
3.6651,2.6794,18.927,0.58824,5.9406,4.9431,5.8537,2.5243,10.992,0.58824,5.9406,9.2869,-1.2698,-8.3175,3.3016,-5.7971,1.3527,-11.787,0.7619,-3.2841,-6.57
7.4566,0.12759,18.275999,0.58824,5.9406,5.5935,5.8537,0.58252,10.992,0.58824,5.9406,9.2869,3.8095,-6.4127,7.746,-5.153,1.9968,-2.1256,0.7619,-1.3136,-5.2818
14.408,7.7831,25.431,4.5098,12.541,9.4959,13.008,1.2298,17.496,4.5098,12.541,15.257,11.429,-2.6032,14.73,0.64412,8.438,13.333,12.19,10.509,-0.77295
9.3523,9.697,22.829,3.2026,14.521,6.8943,13.659,-2.6537,18.146,3.2026,14.521,13.93,9.5238,-4.5079,9.6508,0.0,4.5733,-0.19324,20.444,10.509,-3.3494
-2.0221,3.9553,16.325001,-0.71895,7.9208,3.6423,11.057,-9.1262,12.943,-0.71895,7.9208,10.614,5.0794,-4.5079,0.12698,-5.153,-3.1562,3.6715,5.2063,7.8818,-4.6377
-3.9179,0.76555,13.073,-0.06536,7.9208,3.6423,6.5041,-4.5955,8.3902,-0.06536,7.9208,7.2968,6.9841,-2.6032,-1.1429,-3.8647,-4.4444,15.91,-1.1429,10.509,1.8035
-3.2859,-1.1483,5.9187,-2.6797,6.6007,-2.2114,0.0,-3.301,5.1382,-2.6797,6.6007,-1.99,7.619,-2.6032,-1.7778,-2.5765,-5.7327,4.3156,2.0317,9.1954,2.4477
-9.6051,-4.3381,-2.5366,-7.2549,-1.9802,-11.317,-5.8537,-7.8317,2.5366,-7.2549,-1.9802,-10.614,1.2698,-7.0476,-8.7619,-5.7971,-10.242,-24.67,0.12698,1.9704,-1.4171
-10.869,-6.252,-3.8374,-7.2549,-5.2805,-13.268,-4.5528,-3.9482,1.2358,-7.2549,-5.2805,-12.604,-0.63492,-4.5079,-10.667,-3.2206,-10.242,-11.143,5.2063,2.6273,-0.12882
-8.9731,-4.9761,-0.58537,-3.9869,-1.3201,-8.7154,-1.3008,1.877,1.2358,-3.9869,-1.3201,-8.6235,-0.63492,-3.873,-9.3968,-0.64412,-8.3092,3.0274,12.825,4.5977,3.0918
-11.501,-7.5279,-2.5366,-3.3333,-0.66007,-6.7642,-5.2033,1.2298,-2.6667,-3.3333,-0.66007,-7.9602,-8.8889,-9.5873,-14.476,-3.8647,-12.174,1.7391,-3.0476,-4.5977,1.1594
-8.9731,-7.5279,-4.4878,-2.6797,-5.2805,-4.1626,-8.4553,-0.71197,-5.9187,-2.6797,-5.2805,-7.9602,-12.063,-10.222,-13.841,-3.8647,-12.174,19.775,-9.3968,-8.5386,-5.9259
-2.0221,-3.0622,-1.2358,0.58824,-3.3003,1.0407,-5.2033,-0.71197,-2.0163,0.58824,-3.3003,-3.3167,-7.619,-5.1429,-6.8571,0.64412,-5.0886,3.0274,-1.7778,-7.8818,3.0918
-1.3902,-2.4242,2.6667,1.2418,-0.66007,1.6911,-0.65041,-0.71197,1.8862,1.2418,-0.66007,-0.66335,-6.3492,-1.3333,-4.9524,3.2206,-0.57971,-7.9227,-0.50794,-8.5386,8.2448
-5.1817,-1.1483,5.9187,0.58824,3.3003,-0.26016,2.6016,-2.0065,1.2358,0.58824,3.3003,0.0,-8.254,-0.69841,-6.8571,1.2882,0.06441,-19.517,-0.50794,-9.8522,3.0918
-2.0221,3.9553,11.122,3.8562,7.2607,4.9431,5.2033,2.5243,2.5366,3.8562,7.2607,4.6434,-4.4444,4.381,-3.0476,6.4412,5.8615,-4.7021,3.3016,-5.9113,6.9565
0.50553,3.3174,9.1707,2.549,2.6403,6.2439,3.252,2.5243,-1.3659,2.549,2.6403,4.6434,-1.9048,3.1111,0.12698,3.8647,7.1498,-16.296,-2.4127,-4.5977,-2.0612
9.3523,7.7831,14.374,7.7778,7.2607,12.098,5.8537,6.4078,1.8862,7.7778,7.2607,9.2869,8.254,6.9206,10.286,5.7971,12.303,-2.7697,-3.6825,5.9113,-7.2142
11.88,8.4211,16.325001,7.1242,5.2805,10.797,3.9024,7.055,-0.06504,7.1242,5.2805,8.6235,13.333,10.095,14.095,7.0853,14.235,9.4686,-5.5873,11.823,-4.6377
8.0885,3.3174,12.423,-0.71895,0.0,2.9919,1.3008,-2.0065,-4.6179,-0.71895,0.0,3.3167,13.968,8.8254,14.095,3.2206,11.014,-12.432,-3.0476,7.8818,-7.2142
11.248,5.2313,16.976,3.2026,2.6403,5.5935,3.9024,-0.06472,-3.3171,3.2026,2.6403,6.6335,21.587,15.81,20.444,8.3736,17.455999,-2.1256,-2.4127,15.107,0.5153
10.616,5.2313,16.976,3.8562,-1.3201,6.2439,0.65041,1.2298,-5.2683,3.8562,-1.3201,6.6335,20.952,14.54,19.174999,8.3736,18.1,17.198,-6.8571,17.077,-0.12882
15.671,10.335,20.228001,3.2026,-5.9406,9.4959,5.2033,-0.06472,-2.6667,3.2026,-5.9406,9.2869,20.316999,15.81,19.174999,11.594,19.388,4.9597,0.12698,16.42,5.0242
14.408,9.697,19.577,0.58824,-9.2409,8.8455,3.9024,-1.3592,-4.6179,0.58824,-9.2409,8.6235,13.333,11.365,15.365,9.6618,15.523,3.6715,4.5714,12.479,6.9565
11.88,5.2313,15.024,-0.71895,-3.9604,7.5447,1.3008,-2.6537,-5.9187,-0.71895,-3.9604,5.3068,8.254,8.1905,11.556,6.4412,11.014,3.0274,4.5714,9.1954,7.6006
16.302999,7.1451,16.325001,2.549,5.9406,10.797,1.9512,1.877,-0.06504,2.549,5.9406,7.2968,10.159,10.73,14.73,9.0177,12.303,-13.72,7.1111,9.8522,9.533
10.616,3.3174,11.122,-2.0261,0.66007,3.6423,-2.6016,-2.6537,-4.6179,-2.0261,0.66007,1.3267,8.254,9.4603,12.19,7.7295,10.37,11.401,-4.3175,7.225,5.6683
6.8246,3.9553,9.8211,-2.0261,-1.3201,0.39024,-1.3008,-3.301,-4.6179,-2.0261,-1.3201,1.99,8.8889,12.635,10.286,10.95,12.303,9.4686,-0.50794,5.9113,8.8889
-2.0221,-0.51037,2.0163,-5.9477,-5.2805,-4.1626,-3.252,-7.1845,-9.8211,-5.9477,-5.2805,-1.3267,0.63492,5.6508,0.7619,5.153,5.2174,-5.3462,0.7619,-1.9704,3.0918
-7.7093,-1.1483,-1.2358,-7.2549,-1.9802,-4.1626,-0.65041,-7.8317,-5.9187,-7.2549,-1.9802,-0.66335,-4.4444,0.57143,-5.5873,2.5765,-0.57971,1.7391,-2.4127,-5.2545,0.5153
-6.4455,-1.1483,-0.58537,-5.2941,0.66007,-2.8618,0.65041,-8.479,-2.0163,-5.2941,0.66007,0.0,-8.254,-2.6032,-6.8571,1.9324,-1.868,-9.2109,-8.127,-10.509,-1.4171
1.1374,3.9553,6.5691,-0.06536,-3.3003,1.0407,5.8537,-1.3592,-1.3659,-0.06536,-3.3003,2.6534,-7.619,-0.06349,0.7619,7.0853,5.8615,-0.83736,-8.7619,-9.8522,-2.7053
13.144,15.439,16.976,6.4706,-0.66007,9.4959,11.707,6.4078,5.1382,6.4706,-0.66007,9.2869,-0.63492,10.095,13.46,19.323999,20.032,10.757,2.6667,-3.2841,6.9565
18.198999,21.818001,22.179001,11.699,13.201,16.0,17.561001,11.586,14.244,11.699,13.201,15.257,4.4444,13.27,20.444,23.833,27.118,17.198,7.746,5.9113,11.465
7.4566,12.249,10.472,7.1242,13.201,8.8455,11.707,8.3495,9.6911,7.1242,13.201,7.9602,-3.8095,2.4762,10.921,10.95,15.523,-14.364,3.3016,-3.2841,-0.77295
9.3523,9.059,8.5203,7.7778,11.881,7.5447,10.407,7.055,9.6911,7.7778,11.881,7.9602,-0.63492,-0.06349,10.921,7.7295,11.659,-4.7021,-0.50794,-1.9704,-2.0612
9.3523,7.1451,7.2195,4.5098,9.901,3.6423,8.4553,2.5243,7.0894,4.5098,9.901,5.9701,4.4444,-0.06349,11.556,5.153,9.0821,24.283001,0.12698,5.2545,-2.0612
7.4566,3.3174,-1.2358,0.58824,3.9604,-0.91057,3.9024,3.8188,3.187,0.58824,3.9604,0.0,4.4444,-2.6032,6.4762,0.0,1.9968,7.5362,-1.1429,5.2545,-5.9259
1.7694,1.4035,-9.0407,-1.3725,0.66007,-4.1626,1.9512,5.1133,3.187,-1.3725,0.66007,-3.9801,4.4444,-4.5079,0.7619,-4.5089,-5.0886,11.401,-4.9524,7.225,-7.8583
-2.0221,-0.51037,-11.642,0.58824,0.66007,-5.4634,1.3008,7.055,5.1382,0.58824,0.66007,-5.3068,7.619,-3.2381,-0.50794,-6.4412,-7.6651,17.841999,3.3016,10.509,-2.0612
-6.4455,-6.252,-16.195,-2.0261,-6.6007,-7.4146,-4.5528,4.466,-0.06504,-2.0261,-6.6007,-9.9502,2.5397,-5.1429,-5.5873,-10.306,-10.886,-17.584999,0.7619,3.9409,-4.6377
-11.501,-9.4418,-20.098,-3.9869,-7.2607,-8.7154,-7.8049,0.58252,0.58537,-3.9869,-7.2607,-12.604,-4.4444,-3.2381,-12.571,-9.6618,-14.106,-16.940001,0.7619,-8.5386,-4.6377
-10.869,-6.252,-16.846001,-0.06536,-3.9604,-4.1626,-5.2033,3.8188,1.8862,-0.06536,-3.9604,-7.2968,-7.619,-1.3333,-15.111,-6.4412,-11.53,4.9597,3.9365,-12.479,-0.12882
-3.2859,2.0415,-9.0407,7.1242,4.6205,6.2439,2.6016,9.644,7.7398,7.1242,4.6205,3.9801,-8.8889,3.1111,-10.032,0.0,-4.4444,5.6039,5.8413,-11.823,3.7359
-3.9179,1.4035,-9.6911,4.5098,6.6007,4.9431,3.252,3.8188,7.7398,4.5098,6.6007,5.3068,-15.873,3.1111,-10.667,0.0,-4.4444,6.248,9.6508,-18.391001,7.6006
-6.4455,-1.7863,-11.642,-0.06536,1.3201,1.6911,0.65041,-0.06472,4.4878,-0.06536,1.3201,2.6534,-20.952,1.2063,-10.667,-1.2882,-5.0886,14.622,7.746,-19.048,5.0242
-7.7093,-3.7002,-15.545,-2.0261,-1.3201,-1.561,0.0,-2.0065,3.187,-2.0261,-1.3201,-1.3267,-23.492001,-5.1429,-12.571,-4.5089,-7.6651,2.3833,6.4762,-19.048,-0.12882
-8.3412,-3.7002,-19.447001,-1.3725,-1.9802,-3.5122,-1.3008,-0.71197,5.1382,-1.3725,-1.9802,-5.3068,-22.857,-8.9524,-14.476,-6.4412,-10.242,-21.448999,-1.1429,-18.391001,-3.3494
-4.5498,-2.4242,-18.797001,1.8954,1.3201,-0.91057,1.3008,3.8188,7.0894,1.8954,1.3201,-3.3167,-19.683001,-11.492,-13.841,-7.7295,-11.53,-23.382,-4.9524,-15.107,-5.9259
-4.5498,-2.4242,-16.846001,5.1634,3.3003,0.39024,2.6016,6.4078,4.4878,5.1634,3.3003,-0.66335,-13.333,-12.762,-10.667,-8.3736,-8.9533,-2.1256,-8.7619,-7.225,-6.57
-4.5498,-1.7863,-13.593,6.4706,0.0,-0.26016,-0.65041,9.644,0.58537,6.4706,0.0,-1.3267,-4.4444,-12.762,-4.9524,-5.7971,-4.4444,15.266,-2.4127,3.2841,-3.3494
-3.9179,-1.7863,-11.642,5.1634,-2.6403,-1.561,-2.6016,10.291,-1.3659,5.1634,-2.6403,-2.6534,0.0,-11.492,-2.4127,-4.5089,-3.1562,12.045,4.5714,3.2841,-5.9259
4.297,4.5933,-5.7886,7.7778,5.2805,2.9919,7.8049,11.586,3.8374,7.7778,5.2805,3.9801,5.0794,-8.3175,3.3016,0.0,0.06441,-0.19324,2.6667,5.9113,1.8035
6.1927,3.9553,-5.7886,5.1634,3.9604,1.6911,7.1545,8.9968,3.187,5.1634,3.9604,5.3068,3.8095,-10.222,3.3016,-1.9324,-1.868,23.639,2.6667,11.166,1.1594
-2.0221,-0.51037,-12.293,-1.3725,-1.3201,-6.7642,0.65041,1.2298,-0.71545,-1.3725,-1.3201,-1.99,-5.0794,-15.302,-4.3175,-10.306,-9.5974,9.4686,-4.9524,4.5977,-13.011
-3.9179,0.76555,-14.244,-0.71895,0.66007,-7.4146,2.6016,2.5243,1.8862,-0.71895,0.66007,-3.3167,-9.5238,-14.032,-8.7619,-10.306,-12.174,-20.805,1.3968,-3.9409,-12.367
-10.869,0.76555,-14.894,-0.71895,1.3201,-6.1138,3.252,1.877,5.1382,-0.71895,1.3201,-2.6534,-12.698,-12.127,-12.571,-9.6618,-14.106,-3.4138,3.9365,-5.9113,-4.6377
-16.556,-3.7002,-18.797001,-3.3333,-1.9802,-8.7154,-0.65041,-2.0065,1.8862,-3.3333,-1.9802,-5.9701,-17.778,-12.127,-17.016001,-11.594,-16.683001,17.198,-1.7778,-7.8818,-3.9936
-10.869,-8.1659,-21.398001,-2.6797,-4.6205,-8.7154,-7.1545,0.58252,-1.3659,-2.6797,-4.6205,-11.277,-16.507999,-12.127,-12.571,-11.594,-17.327,14.622,-0.50794,-6.5681,-5.2818
2.4013,-6.252,-17.496,1.8954,0.0,-3.5122,-6.5041,9.644,1.8862,1.8954,0.0,-9.2869,-7.619,-7.6825,-2.4127,-7.0853,-10.886,3.6715,7.746,-1.3136,0.5153
4.9289,-3.7002,-14.894,1.2418,1.9802,-0.26016,-2.6016,8.9968,4.4878,1.2418,1.9802,-5.9701,-3.1746,-3.2381,2.0317,-2.5765,-6.3768,1.7391,5.8413,4.5977,3.7359
-0.12638,-3.7002,-13.593,-0.71895,-7.2607,1.0407,-1.3008,5.7605,1.2358,-0.71895,-7.2607,-4.6434,-2.5397,-5.7778,0.12698,-5.153,-7.0209,0.45089,-4.9524,2.6273,-5.2818
-7.0774,-9.4418,-16.846001,-7.2549,-12.541,-4.813,-8.4553,-2.0065,-7.8699,-7.2549,-12.541,-9.9502,-3.8095,-11.492,-3.6825,-10.306,-8.3092,-25.313999,-10.667,-5.2545,-13.011
-0.75829,-8.1659,-14.244,-6.6013,-7.9208,-5.4634,-9.1057,-2.6537,-10.472,-6.6013,-7.9208,-10.614,6.3492,-3.873,3.3016,-3.2206,0.06441,4.9597,1.3968,3.9409,-2.0612
6.1927,-5.614,-10.992,-7.2549,-7.9208,-4.1626,-7.1545,-3.301,-9.1707,-7.2549,-7.9208,-7.9602,16.507999,3.1111,9.6508,0.64412,4.5733,25.572001,2.0317,13.136,4.38
4.9289,-8.8038,-12.943,-12.484,-12.541,-8.7154,-10.407,-8.479,-10.472,-12.484,-12.541,-10.614,17.143,1.8413,9.0159,-3.2206,1.3527,13.977,-5.5873,14.45,-0.12882
1.1374,-5.614,-10.341,-10.523,-9.901,-9.3659,-9.1057,-7.1845,-7.2195,-10.523,-9.901,-9.2869,17.143,5.6508,9.0159,-0.64412,5.2174,9.4686,-2.4127,11.823,-2.7053
-10.869,-6.89,-14.894,-13.791,-10.561,-13.268,-12.358,-7.8317,-13.073,-13.791,-10.561,-11.94,6.9841,1.8413,-2.4127,-3.2206,1.9968,-39.485001,-10.667,-3.2841,-11.079
-6.4455,-2.4242,-11.642,-8.5621,-9.901,-8.7154,-9.1057,0.58252,-12.423,-8.5621,-9.901,-7.9602,5.7143,7.5556,-2.4127,3.2206,4.5733,-20.805,-7.4921,-1.3136,-2.0612
0.50553,-4.3381,-10.992,-6.6013,-13.861,-6.1138,-9.7561,6.4078,-15.675,-6.6013,-13.861,-6.6335,4.4444,6.2857,0.7619,0.64412,1.3527,8.8245,-17.650999,0.65681,-6.57
4.297,-4.3381,-9.0407,-3.3333,-11.881,-2.8618,-9.1057,7.055,-17.625999,-3.3333,-11.881,-3.9801,7.619,6.9206,5.8413,2.5765,3.285,32.013,-16.381001,4.5977,-6.57
8.0885,-1.7863,-5.1382,2.549,-5.9406,1.6911,-5.2033,10.939,-13.724,2.549,-5.9406,1.3267,10.794,10.095,9.6508,5.153,7.1498,33.945,-9.3968,7.8818,-1.4171
4.9289,-1.7863,-7.0894,1.8954,-8.5809,2.3415,-5.8537,10.939,-11.772,1.8954,-8.5809,1.3267,6.9841,6.9206,5.8413,2.5765,3.9291,14.622,-3.6825,4.5977,-3.3494
6.8246,5.8692,-3.8374,7.1242,-4.6205,7.5447,1.9512,16.764,-3.3171,7.1242,-4.6205,7.2968,9.5238,10.73,7.746,7.0853,6.5056,0.45089,9.6508,5.9113,-0.77295
-2.654,5.2313,-7.0894,5.1634,-3.3003,6.8943,3.9024,10.939,-2.0163,5.1634,-3.3003,6.6335,1.2698,4.381,-0.50794,3.8647,1.9968,-12.432,8.381,-0.65681,0.5153
-8.3412,2.0415,-7.7398,7.1242,0.0,9.4959,1.9512,8.3495,-2.6667,7.1242,0.0,9.2869,-5.0794,-1.3333,-6.8571,-0.64412,-3.1562,4.3156,5.8413,-2.6273,-0.12882
-2.654,0.12759,-7.7398,9.085,1.3201,13.398,0.65041,10.939,-4.6179,9.085,1.3201,10.614,-3.1746,-1.3333,-4.9524,-1.9324,-4.4444,-7.9227,-1.1429,-1.9704,1.8035
3.6651,-3.0622,-7.7398,5.817,0.66007,9.4959,0.0,8.3495,-4.6179,5.817,0.66007,7.9602,1.2698,-1.9683,1.3968,-5.153,-4.4444,-3.4138,-9.3968,3.9409,-0.12882
2.4013,-8.1659,-9.6911,1.8954,-5.9406,2.3415,-3.252,4.466,-5.9187,1.8954,-5.9406,3.3167,1.9048,-5.7778,1.3968,-10.306,-7.6651,15.91,-11.302,8.5386,-6.57
-2.0221,-10.08,-13.593,0.58824,-5.2805,-0.26016,-6.5041,1.877,-7.2195,0.58824,-5.2805,-1.3267,0.0,-12.762,-3.0476,-12.882,-12.174,13.977,-2.4127,7.8818,-9.7907
-4.5498,-8.8038,-16.195,-0.06536,-5.2805,-0.91057,-7.1545,1.877,-7.2195,-0.06536,-5.2805,-4.6434,-1.2698,-15.302,-5.5873,-11.594,-12.174,6.248,1.3968,5.2545,-6.57
3.6651,2.0415,-7.0894,9.7386,1.9802,6.8943,1.9512,11.586,4.4878,9.7386,1.9802,3.3167,7.619,-5.1429,2.6667,0.0,-1.868,-7.2786,12.19,9.8522,8.8889
-0.75829,-3.7002,-12.943,1.8954,-5.9406,-0.91057,-6.5041,3.8188,-2.6667,1.8954,-5.9406,-6.6335,3.1746,-7.6825,-2.4127,-3.8647,-6.3768,-18.872999,0.7619,1.9704,2.4477
-10.869,-11.356,-19.447001,-10.523,-13.861,-15.22,-17.561001,-10.421,-12.423,-10.523,-13.861,-19.9,-0.63492,-10.222,-6.2222,-9.0177,-10.242,-9.8551,-6.8571,-2.6273,-7.8583
-3.9179,-1.7863,-9.0407,-5.2941,-2.6403,-11.967,-9.1057,-5.2427,-2.6667,-5.2941,-2.6403,-13.93,8.8889,2.4762,3.9365,2.5765,0.70853,12.689,5.8413,5.2545,6.3124
-1.3902,0.12759,-3.8374,-2.6797,0.0,-10.667,-5.8537,-3.9482,-1.3659,-2.6797,0.0,-9.9502,12.698,6.9206,7.1111,5.153,3.9291,11.401,2.0317,3.9409,8.8889
2.4013,0.76555,1.3659,-1.3725,0.66007,-7.4146,-1.9512,-2.6537,-0.71545,-1.3725,0.66007,-5.9701,14.603,11.365,9.6508,6.4412,7.7939,4.3156,2.6667,3.9409,8.8889
7.4566,2.0415,3.3171,-0.71895,0.0,-4.1626,1.9512,1.2298,-0.71545,-0.71895,0.0,-2.6534,13.333,10.095,11.556,5.153,8.438,-24.67,2.0317,3.9409,3.7359
10.616,4.5933,5.2683,1.8954,5.2805,0.39024,5.8537,5.7605,-0.06504,1.8954,5.2805,1.3267,14.603,10.095,12.825,6.4412,10.37,0.45089,-1.1429,7.8818,2.4477
-2.0221,-3.7002,-3.8374,-5.2941,-5.9406,-6.1138,-2.6016,-0.06472,-8.5203,-5.2941,-5.9406,-6.6335,7.619,3.1111,3.3016,-1.9324,1.9968,27.504,-12.571,3.2841,-8.5024
-7.0774,-12.632,-10.341,-9.8693,-9.2409,-9.3659,-10.407,-3.301,-15.675,-9.8693,-9.2409,-11.94,4.4444,-1.3333,-3.0476,-7.0853,-5.7327,15.91,-16.381001,4.5977,-9.7907
2.4013,-8.8038,-7.0894,-2.6797,-3.3003,-4.1626,-7.8049,3.1715,-11.122,-2.6797,-3.3003,-7.9602,7.619,1.8413,2.0317,-3.2206,-3.1562,10.757,-6.2222,12.479,-3.3494
7.4566,0.76555,-1.8862,0.58824,-3.3003,1.0407,1.3008,7.055,-3.3171,0.58824,-3.3003,-1.3267,9.5238,3.1111,6.4762,0.64412,1.3527,3.0274,3.9365,13.793,2.4477
6.1927,2.6794,-1.8862,-0.71895,-1.3201,1.6911,1.9512,5.1133,-0.06504,-0.71895,-1.3201,-0.66335,9.5238,-0.69841,6.4762,0.0,1.3527,-2.7697,8.381,9.1954,2.4477
6.1927,0.12759,-3.187,2.549,-1.3201,4.2927,-1.9512,8.3495,-1.3659,2.549,-1.3201,-0.66335,7.619,-5.7778,3.9365,-1.9324,-0.57971,-47.858002,4.5714,2.6273,-0.77295
5.5608,0.76555,0.06504,4.5098,-2.6403,6.8943,2.6016,7.055,-1.3659,4.5098,-2.6403,3.9801,6.3492,-6.4127,3.9365,0.64412,0.70853,-11.143,2.0317,6.5681,3.0918
3.6651,0.12759,1.3659,3.2026,-4.6205,7.5447,2.6016,4.466,-2.6667,3.2026,-4.6205,6.6335,4.4444,-4.5079,3.9365,-0.64412,0.06441,37.166,1.3968,6.5681,-0.12882
12.512,6.5072,9.8211,11.046,6.6007,16.65,11.057,13.528,5.7886,11.046,6.6007,17.91,6.9841,0.57143,10.286,1.2882,5.2174,27.504,4.5714,5.9113,-2.7053
9.9842,7.7831,11.122,9.085,10.561,15.35,11.707,10.939,3.8374,9.085,10.561,18.573999,-1.9048,-2.6032,5.8413,-1.9324,3.9291,-4.058,-6.2222,-1.3136,-4.6377
3.6651,7.1451,9.1707,4.5098,4.6205,10.146,5.8537,7.055,1.2358,4.5098,4.6205,12.604,-6.3492,0.57143,3.3016,1.2882,5.8615,-5.9903,-1.1429,-4.5977,2.4477
0.50553,7.1451,8.5203,6.4706,2.6403,7.5447,6.5041,7.7023,4.4878,6.4706,2.6403,10.614,-6.9841,5.0159,3.3016,6.4412,8.438,12.689,9.6508,-6.5681,10.821
-3.9179,1.4035,3.9675,3.2026,-2.6403,3.6423,4.5528,1.877,0.58537,3.2026,-2.6403,7.9602,-12.063,0.57143,-4.3175,1.2882,1.3527,-29.179001,12.19,-11.823,6.9565
3.0332,5.2313,5.2683,9.085,1.9802,10.797,9.1057,7.7023,5.1382,9.085,1.9802,13.267,-8.254,2.4762,-3.0476,1.2882,1.3527,-24.67,11.556,-9.8522,5.0242
1.1374,7.1451,3.9675,9.085,3.3003,9.4959,7.8049,3.8188,3.187,9.085,3.3003,11.277,-5.0794,3.746,-2.4127,2.5765,1.9968,7.5362,0.12698,-7.225,1.1594
-2.0221,6.5072,2.6667,4.5098,3.9604,6.2439,5.2033,1.877,1.8862,4.5098,3.9604,7.2968,-6.3492,2.4762,-4.9524,3.2206,1.9968,-17.584999,2.0317,-7.8818,2.4477
-1.3902,9.697,5.9187,9.085,11.881,6.8943,7.1545,6.4078,9.6911,9.085,11.881,9.9502,-4.4444,3.1111,-2.4127,7.7295,5.2174,1.095,9.0159,-4.5977,9.533
-5.8136,3.3174,0.06504,5.817,7.9208,1.6911,3.9024,2.5243,7.7398,5.817,7.9208,6.6335,-9.5238,-5.1429,-6.8571,0.64412,-1.868,19.129999,3.3016,-5.9113,5.0242
-3.2859,-2.4242,-3.8374,1.2418,-3.9604,0.39024,1.3008,3.1715,1.8862,1.2418,-3.9604,3.3167,-11.429,-10.222,-9.3968,-5.153,-7.6651,-15.652,2.0317,-7.8818,-1.4171
0.50553,-1.7863,-1.8862,1.8954,-3.9604,1.6911,1.3008,7.055,-0.71545,1.8954,-3.9604,2.6534,-8.8889,-12.127,-6.2222,-5.153,-6.3768,-7.9227,2.0317,-3.2841,-2.7053
-2.654,0.76555,0.06504,-0.71895,0.0,-0.91057,0.0,7.055,1.2358,-0.71895,0.0,0.0,-5.0794,-11.492,-5.5873,-4.5089,-5.7327,-4.058,2.6667,-1.9704,-2.0612
-5.8136,-2.4242,0.06504,-2.6797,0.0,-2.2114,-1.9512,1.877,1.2358,-2.6797,0.0,-0.66335,-2.5397,-8.3175,-4.9524,-4.5089,-5.0886,4.3156,-4.3175,-1.9704,-0.12882
-5.1817,-8.1659,-3.8374,-3.3333,-3.3003,-3.5122,-4.5528,1.2298,-2.6667,-3.3333,-3.3003,-4.6434,-1.2698,-10.857,-4.3175,-8.3736,-7.6651,22.351,-11.937,2.6273,-3.3494
-4.5498,-11.994,-11.642,-3.3333,-4.6205,-6.7642,-10.407,3.8188,-5.2683,-3.3333,-4.6205,-11.277,-1.9048,-10.857,-6.2222,-9.6618,-10.886,11.401,-3.6825,4.5977,-5.2818
5.5608,-5.614,-7.0894,1.2418,-4.6205,-2.2114,-7.8049,8.9968,-0.06504,1.2418,-4.6205,-8.6235,2.5397,-2.6032,0.12698,-3.8647,-4.4444,-23.382,2.6667,6.5681,-3.9936
1.1374,-6.89,-7.0894,-2.6797,-9.2409,-3.5122,-9.7561,6.4078,-4.6179,-2.6797,-9.2409,-9.9502,-1.2698,-4.5079,-1.1429,-7.0853,-4.4444,-4.058,-5.5873,3.9409,-9.1465
-5.8136,-11.356,-10.992,-7.9085,-15.182,-7.4146,-13.659,0.58252,-15.024,-7.9085,-15.182,-13.267,-7.619,-8.3175,-4.9524,-12.882,-8.3092,19.775,-7.4921,3.9409,-14.3
-8.3412,-13.27,-14.244,-8.5621,-9.901,-8.7154,-12.358,-2.6537,-10.472,-8.5621,-9.901,-15.257,-12.698,-10.222,-9.3968,-14.171,-10.242,13.333,-6.8571,-3.9409,-11.723
-14.028,-16.459,-19.447001,-9.8693,-9.901,-15.22,-18.211,-5.2427,-5.2683,-9.8693,-9.901,-21.226999,-18.413,-10.857,-15.746,-12.882,-12.818,-3.4138,-16.381001,-14.45,-7.2142
-11.501,-12.632,-15.545,-9.8693,-6.6007,-15.22,-18.862,-7.1845,-3.9675,-9.8693,-6.6007,-20.563999,-15.238,-7.0476,-12.571,-5.7971,-7.6651,-15.652,-3.0476,-15.107,0.5153
-4.5498,-2.4242,-4.4878,-6.6013,-2.6403,-8.7154,-11.057,-3.9482,-0.71545,-6.6013,-2.6403,-11.94,-5.7143,1.8413,-3.6825,5.153,3.285,-11.143,5.2063,-7.225,10.821
-7.7093,0.12759,-3.8374,-9.8693,-6.6007,-10.667,-9.1057,-5.89,-0.71545,-9.8693,-6.6007,-11.277,-1.9048,3.1111,-2.4127,5.7971,5.2174,5.6039,-0.50794,-5.9113,3.7359
-5.1817,3.9553,-1.8862,-6.6013,-1.3201,-10.016,-1.9512,-3.301,3.187,-6.6013,-1.3201,-7.2968,3.8095,7.5556,2.0317,9.0177,7.7939,12.689,5.2063,0.0,4.38
-0.75829,5.2313,1.3659,-3.3333,5.2805,-6.7642,1.9512,-1.3592,6.439,-3.3333,5.2805,-1.99,5.7143,13.27,3.3016,12.238,8.438,-7.9227,13.46,0.65681,7.6006
-0.75829,2.6794,2.0163,-6.6013,1.9802,-8.065,1.3008,-5.2427,3.187,-6.6013,1.9802,-2.6534,5.0794,8.8254,1.3968,8.3736,5.8615,-15.008,1.3968,0.0,5.6683
-1.3902,1.4035,5.2683,-7.9085,0.66007,-7.4146,1.3008,-11.068,1.2358,-7.9085,0.66007,-0.66335,6.9841,7.5556,3.3016,7.0853,6.5056,-7.9227,-6.8571,2.6273,5.6683
0.50553,3.3174,9.1707,-7.2549,2.6403,-2.2114,1.9512,-11.068,1.2358,-7.2549,2.6403,3.9801,9.5238,9.4603,5.8413,7.7295,9.0821,-10.499,-7.4921,1.3136,3.7359
-0.12638,3.9553,9.8211,-7.2549,0.0,1.0407,2.6016,-11.068,1.8862,-7.2549,0.0,6.6335,7.619,5.6508,5.8413,5.153,7.7939,-8.5668,-4.9524,-1.9704,-0.77295
5.5608,8.4211,16.325001,-2.0261,3.3003,7.5447,11.707,-7.8317,5.7886,-2.0261,3.3003,14.594,8.8889,8.1905,10.286,8.3736,11.659,13.977,3.9365,3.9409,0.5153
15.039,16.715,26.732,7.1242,16.502001,17.301001,20.163,0.58252,13.593,7.1242,16.502001,24.544001,17.143,14.54,18.540001,14.171,20.032,30.080999,10.921,14.45,3.7359
12.512,11.611,21.528,5.1634,13.201,15.35,13.008,-0.06472,10.992,5.1634,13.201,21.226999,13.333,6.9206,13.46,7.7295,14.235,-15.652,7.746,11.166,1.1594
3.6651,3.3174,9.8211,-2.0261,1.9802,6.8943,1.9512,-9.1262,3.187,-2.0261,1.9802,10.614,3.8095,-3.873,3.9365,-2.5765,3.9291,-9.8551,-3.0476,3.2841,-2.7053
3.0332,0.76555,7.2195,-0.71895,2.6403,4.2927,1.9512,-8.479,1.8862,-0.71895,2.6403,7.9602,1.2698,-5.7778,2.0317,-4.5089,0.70853,10.113,-0.50794,3.2841,-5.2818
4.9289,-1.1483,5.9187,1.8954,3.3003,6.2439,1.3008,-2.0065,0.58537,1.8954,3.3003,7.9602,-1.2698,-7.0476,1.3968,-5.153,-1.868,11.401,-1.1429,3.9409,-3.9936
9.9842,-1.1483,6.5691,7.7778,1.3201,12.098,1.9512,4.466,-3.9675,7.7778,1.3201,9.9502,-1.2698,-7.6825,2.6667,-5.153,-1.868,5.6039,-7.4921,2.6273,-2.0612
7.4566,0.76555,5.2683,10.392,3.9604,13.398,2.6016,1.877,-2.0163,10.392,3.9604,9.9502,-1.2698,-6.4127,1.3968,-3.8647,-2.5121,-3.4138,-2.4127,1.9704,-5.2818
5.5608,0.12759,0.06504,13.66,9.2409,10.146,1.9512,3.8188,3.8374,13.66,9.2409,6.6335,-1.2698,-1.9683,0.7619,-1.2882,-1.2238,-11.787,5.2063,1.3136,-0.77295
7.4566,3.9553,3.9675,18.889,15.842,11.447,8.4553,9.644,10.341,18.889,15.842,9.9502,4.4444,8.1905,6.4762,5.7971,6.5056,1.095,7.746,5.9113,8.8889
3.0332,3.3174,3.9675,13.007,14.521,7.5447,6.5041,2.5243,6.439,13.007,14.521,6.6335,4.4444,12.635,4.5714,7.0853,5.8615,15.266,-0.50794,3.2841,5.0242
-2.0221,0.76555,-0.58537,9.085,13.201,1.6911,0.65041,-3.301,6.439,9.085,13.201,0.0,1.2698,12.635,-0.50794,6.4412,1.9968,9.4686,2.0317,-1.3136,3.0918
-3.9179,0.76555,-5.7886,11.699,14.521,-0.91057,-1.3008,-1.3592,6.439,11.699,14.521,-3.3167,-3.1746,10.095,-3.0476,5.7971,0.06441,-1.4815,0.7619,-3.9409,1.1594
4.9289,10.335,4.6179,16.275,16.502001,5.5935,6.5041,3.8188,10.992,16.275,16.502001,3.9801,6.9841,18.983999,8.381,16.747,11.659,11.401,1.3968,5.2545,12.11
4.297,7.1451,6.5691,13.007,12.541,2.9919,5.8537,1.877,7.7398,13.007,12.541,1.99,5.0794,13.905,7.746,11.594,10.37,3.6715,0.12698,0.0,8.8889
-0.12638,4.5933,4.6179,11.046,13.861,-2.2114,5.8537,-2.6537,7.0894,11.046,13.861,-0.66335,0.0,8.8254,2.6667,5.7971,5.2174,-2.7697,3.3016,-4.5977,1.1594
2.4013,8.4211,5.9187,11.046,15.842,1.0407,7.8049,-3.301,12.293,11.046,15.842,2.6534,0.63492,7.5556,2.6667,7.7295,5.8615,0.45089,10.921,-1.9704,-0.77295
1.1374,5.8692,1.3659,9.7386,9.901,4.2927,5.2033,-2.0065,9.0407,9.7386,9.901,1.99,-2.5397,3.1111,-0.50794,5.7971,3.9291,-12.432,6.4762,-2.6273,1.8035
3.6651,7.1451,4.6179,7.7778,8.5809,4.9431,4.5528,-2.6537,6.439,7.7778,8.5809,3.3167,0.0,3.746,3.9365,7.7295,8.438,-4.058,5.2063,1.3136,6.3124
9.3523,12.887,13.724,10.392,17.822001,8.8455,11.057,-0.71197,15.545,10.392,17.822001,9.2869,8.8889,9.4603,12.19,12.882,14.879,19.775,13.46,9.8522,14.042
3.6651,5.8692,5.2683,5.817,12.541,2.9919,5.2033,-6.5372,12.943,5.817,12.541,3.3167,1.2698,1.2063,2.6667,1.9324,3.9291,-2.1256,4.5714,0.0,3.7359
-0.12638,-0.51037,-2.5366,-0.71895,0.66007,-0.91057,1.3008,-8.479,6.439,-0.71895,0.66007,-1.3267,-3.8095,-7.6825,-4.3175,-7.7295,-4.4444,-5.3462,-1.1429,-4.5977,-6.57
-3.9179,-3.0622,-5.7886,-2.0261,-4.6205,-1.561,-2.6016,-5.2427,-0.06504,-2.0261,-4.6205,-2.6534,-6.3492,-10.857,-6.2222,-10.95,-7.6651,12.689,-6.8571,-3.9409,-10.435
-2.654,-2.4242,-1.8862,-0.71895,-5.9406,0.39024,-1.9512,-2.6537,-0.71545,-0.71895,-5.9406,-0.66335,-5.7143,-8.3175,-5.5873,-8.3736,-6.3768,-20.805,0.12698,-5.9113,-5.2818
8.0885,-1.7863,5.2683,6.4706,6.6007,6.8943,4.5528,5.1133,2.5366,6.4706,6.6007,5.9701,0.63492,-3.2381,1.3968,-3.8647,-2.5121,-3.4138,-2.4127,3.2841,0.5153
6.1927,-10.718,-1.2358,3.2026,5.9406,4.2927,-1.3008,2.5243,-2.6667,3.2026,5.9406,2.6534,-3.8095,-8.9524,-1.7778,-10.306,-8.9533,13.333,-9.3968,1.9704,-5.2818
2.4013,-11.356,-6.439,1.8954,0.66007,2.3415,-5.8537,1.877,-3.9675,1.8954,0.66007,-1.99,-4.4444,-7.0476,-3.0476,-9.6618,-9.5974,13.977,-1.1429,0.0,-5.9259
6.8246,2.6794,3.3171,7.1242,5.9406,7.5447,3.252,6.4078,6.439,7.1242,5.9406,3.9801,5.0794,6.2857,5.2063,4.5089,1.9968,26.860001,4.5714,9.1954,5.6683
1.1374,1.4035,-1.2358,-3.3333,0.0,-0.91057,-2.6016,-3.301,3.187,-3.3333,0.0,-3.3167,-0.63492,0.57143,0.12698,0.64412,-1.868,2.3833,4.5714,1.9704,-0.77295
3.0332,-0.51037,-1.8862,-6.6013,-1.9802,-4.1626,-3.9024,-5.89,3.187,-6.6013,-1.9802,-5.9701,-0.63492,-1.3333,1.3968,0.0,-3.1562,-7.2786,-0.50794,1.3136,-5.2818
2.4013,-1.7863,-1.2358,-5.9477,-4.6205,-5.4634,-0.65041,-7.1845,4.4878,-5.9477,-4.6205,-5.3068,1.9048,-1.3333,2.0317,0.0,-2.5121,-11.143,-5.5873,0.65681,-1.4171
-4.5498,-3.7002,-5.1382,-5.9477,-1.3201,-7.4146,-0.65041,-6.5372,3.8374,-5.9477,-1.3201,-6.6335,0.63492,-2.6032,-2.4127,-1.9324,-3.8003,-13.72,3.3016,-4.5977,-0.12882
-5.1817,3.9553,0.06504,-2.0261,6.6007,-4.813,5.2033,-5.89,9.6911,-2.0261,6.6007,-1.99,2.5397,2.4762,0.7619,4.5089,2.6409,13.977,3.3016,-1.9704,3.0918
-2.654,8.4211,3.9675,-4.6405,6.6007,-4.813,6.5041,-9.1262,10.341,-4.6405,6.6007,-0.66335,0.0,3.1111,1.3968,5.153,5.2174,-5.3462,1.3968,-5.2545,3.0918
1.1374,5.2313,3.3171,-7.2549,3.3003,-5.4634,5.2033,-10.421,7.0894,-7.2549,3.3003,-2.6534,-1.2698,-0.69841,2.0317,1.9324,2.6409,-10.499,3.3016,-3.9409,2.4477
3.6651,8.4211,7.2195,-4.6405,2.6403,-4.1626,9.1057,-9.7735,12.293,-4.6405,2.6403,1.3267,4.4444,4.381,7.1111,5.7971,6.5056,8.8245,9.0159,3.2841,10.177
-0.75829,9.697,6.5691,-4.6405,3.9604,-5.4634,7.1545,-11.715,11.642,-4.6405,3.9604,1.3267,1.9048,4.381,4.5714,6.4412,5.2174,-7.2786,13.46,0.0,11.465
5.5608,16.715,13.073,3.8562,5.9406,4.2927,15.61,-3.301,11.642,3.8562,5.9406,9.9502,4.4444,10.095,7.746,12.882,11.014,5.6039,16.635,0.0,16.618
-0.12638,10.335,7.8699,-0.06536,1.9802,2.3415,10.407,-7.8317,6.439,-0.06536,1.9802,5.9701,-4.4444,1.8413,-2.4127,4.5089,1.9968,-4.7021,12.19,-8.5386,8.8889
-0.75829,3.9553,4.6179,-2.6797,3.3003,0.39024,7.8049,-12.362,6.439,-2.6797,3.3003,3.9801,-9.5238,-1.9683,-6.8571,0.0,-3.1562,-25.958,7.1111,-10.509,6.3124
6.8246,7.1451,9.1707,5.1634,13.201,6.8943,12.358,-3.301,12.943,5.1634,13.201,10.614,-5.0794,5.6508,1.3968,7.0853,4.5733,-29.823,7.746,-4.5977,11.465
-0.75829,1.4035,3.9675,3.8562,9.2409,2.3415,2.6016,-2.6537,6.439,3.8562,9.2409,5.3068,-9.5238,2.4762,-3.6825,4.5089,1.3527,-2.1256,1.3968,-9.1954,10.177
-5.1817,2.6794,5.2683,3.2026,5.9406,1.0407,2.6016,-3.301,3.8374,3.2026,5.9406,5.9701,-8.8889,-0.06349,-4.9524,1.9324,0.06441,21.707001,4.5714,-5.2545,3.0918
-6.4455,3.3174,7.2195,7.7778,8.5809,1.6911,6.5041,-3.301,6.439,7.7778,8.5809,8.6235,-8.254,-3.873,-6.2222,-1.9324,-1.868,13.333,-0.50794,-3.2841,-1.4171
-5.1817,1.4035,3.9675,11.699,11.881,1.6911,8.4553,-0.71197,10.992,11.699,11.881,8.6235,-7.619,-3.873,-6.8571,-3.2206,-3.1562,-5.3462,0.7619,-3.2841,-1.4171
-2.654,3.9553,3.3171,14.967,19.802,2.9919,11.707,3.8188,14.244,14.967,19.802,9.9502,-5.0794,-1.9683,-4.3175,-1.2882,-1.868,-6.6345,5.2063,-4.5977,-1.4171
-1.3902,3.9553,2.0163,11.699,13.861,1.6911,8.4553,3.8188,10.992,11.699,13.861,6.6335,-8.8889,-6.4127,-4.3175,-5.153,-4.4444,-24.67,2.6667,-9.1954,-7.8583
-0.75829,0.12759,1.3659,9.7386,9.2409,2.3415,4.5528,4.466,5.1382,9.7386,9.2409,3.9801,-8.254,-8.3175,-2.4127,-7.7295,-5.7327,-16.296,-3.0476,-7.8818,-6.57
1.1374,-0.51037,2.6667,8.4314,11.221,6.2439,5.2033,4.466,3.8374,8.4314,11.221,5.9701,-4.4444,-5.1429,0.12698,-5.153,-3.8003,6.8921,-3.0476,-3.9409,-1.4171
0.50553,0.76555,2.0163,9.7386,9.901,8.8455,5.8537,1.877,4.4878,9.7386,9.901,6.6335,-3.8095,-4.5079,-0.50794,-3.8647,-1.868,3.0274,0.12698,-1.9704,-1.4171
-0.75829,2.0415,-1.2358,10.392,7.2607,6.8943,4.5528,1.877,5.1382,10.392,7.2607,4.6434,-3.1746,-3.873,-1.7778,-2.5765,-1.868,12.689,-2.4127,-2.6273,-2.0612
1.1374,2.6794,-1.2358,7.1242,3.9604,5.5935,4.5528,5.1133,4.4878,7.1242,3.9604,0.66335,1.2698,-0.06349,0.7619,0.64412,-0.57971,1.7391,6.4762,0.0,1.1594
4.9289,3.9553,2.6667,6.4706,2.6403,6.8943,5.8537,7.055,5.7886,6.4706,2.6403,2.6534,10.159,6.2857,6.4762,5.153,3.9291,12.045,9.6508,6.5681,6.9565
4.9289,1.4035,0.06504,5.817,3.3003,6.2439,2.6016,7.055,5.1382,5.817,3.3003,1.99,12.063,8.8254,6.4762,5.153,3.9291,6.248,6.4762,5.9113,5.0242
-3.9179,-6.252,-9.0407,-4.6405,-5.9406,-2.8618,-5.2033,-3.301,-5.2683,-4.6405,-5.9406,-7.9602,5.7143,3.1111,-0.50794,0.0,-1.2238,-9.8551,-3.6825,0.0,-2.7053
-5.1817,-4.9761,-7.7398,-5.9477,-6.6007,-3.5122,-5.2033,-2.6537,-3.3171,-5.9477,-6.6007,-6.6335,3.1746,6.2857,-1.7778,3.8647,0.70853,3.0274,-10.032,0.0,1.1594
-7.0774,-5.614,-5.7886,-5.2941,-6.6007,-3.5122,-4.5528,-3.301,-3.3171,-5.2941,-6.6007,-4.6434,-4.4444,4.381,-6.8571,2.5765,-2.5121,3.0274,-5.5873,-3.2841,4.38
-6.4455,-7.5279,-4.4878,-4.6405,-3.3003,-2.8618,-3.252,-2.6537,-4.6179,-4.6405,-3.3003,-2.6534,-10.794,-2.6032,-10.667,-4.5089,-8.3092,-6.6345,-0.50794,-7.8818,-2.7053
-1.3902,-3.7002,-0.58537,-2.6797,1.9802,1.0407,0.65041,-1.3592,1.8862,-2.6797,1.9802,2.6534,-6.9841,0.57143,-7.4921,-2.5765,-5.7327,-2.7697,4.5714,-3.2841,-2.7053
-2.0221,-3.7002,-2.5366,-5.2941,0.0,-0.91057,0.65041,-4.5955,0.58537,-5.2941,0.0,1.99,-5.7143,0.57143,-7.4921,-2.5765,-5.0886,-16.940001,2.6667,-4.5977,-2.0612
-5.1817,-6.252,-3.187,-8.5621,-4.6205,-4.813,-1.9512,-7.1845,-3.9675,-8.5621,-4.6205,0.0,-7.619,-3.873,-8.127,-6.4412,-6.3768,-1.4815,-11.937,-7.225,-8.5024
-8.3412,-8.1659,-4.4878,-15.098,-14.521,-9.3659,-5.8537,-10.421,-7.8699,-15.098,-14.521,-3.9801,-8.8889,-10.857,-9.3968,-10.306,-8.3092,-16.296,-16.381001,-7.225,-14.3
3.0332,4.5933,4.6179,-8.5621,-5.9406,-0.91057,4.5528,0.58252,0.58537,-8.5621,-5.9406,2.6534,3.1746,-3.2381,1.3968,-1.9324,0.06441,-15.652,-2.4127,4.5977,-7.8583
4.297,4.5933,6.5691,-5.2941,0.66007,1.0407,3.252,0.58252,0.58537,-5.2941,0.66007,3.9801,11.429,2.4762,7.1111,0.64412,2.6409,8.8245,-3.0476,11.823,-0.77295
-3.2859,-3.0622,3.9675,-10.523,-5.2805,-4.813,-5.2033,-6.5372,-6.5691,-10.523,-5.2805,-1.3267,12.063,5.0159,4.5714,-0.64412,1.3527,6.248,1.3968,7.8818,1.1594
2.4013,0.12759,9.8211,-11.176,-9.2409,-2.2114,-1.9512,-3.301,-3.9675,-11.176,-9.2409,1.3267,15.238,10.095,9.0159,4.5089,5.8615,13.333,0.12698,13.793,5.0242
4.297,-0.51037,10.472,-15.098,-15.182,-3.5122,-3.252,-3.9482,-5.9187,-15.098,-15.182,-1.3267,12.063,7.5556,9.0159,3.8647,5.2174,27.504,-2.4127,13.793,4.38
6.1927,-1.7863,6.5691,-17.712,-16.502001,-4.1626,-9.1057,-3.9482,-9.1707,-17.712,-16.502001,-5.3068,8.254,4.381,7.1111,0.64412,1.9968,-7.2786,-0.50794,3.9409,-2.7053
8.7204,-1.7863,5.9187,-14.444,-15.842,1.0407,-7.1545,-2.0065,-9.1707,-14.444,-15.842,-1.99,10.794,4.381,8.381,1.9324,2.6409,-16.296,-8.7619,2.6273,-2.7053
-0.12638,-3.7002,2.6667,-13.791,-13.861,1.6911,-4.5528,-4.5955,-9.1707,-13.791,-13.861,0.0,5.7143,3.1111,2.0317,0.0,-1.868,1.7391,-10.032,1.9704,-1.4171
-3.2859,-3.0622,2.0163,-11.176,-13.861,1.6911,-3.252,-3.9482,-8.5203,-11.176,-13.861,0.66335,1.9048,8.1905,-0.50794,2.5765,-1.2238,13.333,-6.8571,1.3136,3.0918
3.0332,0.12759,5.2683,-7.9085,-12.541,1.6911,-3.252,1.2298,-4.6179,-7.9085,-12.541,-0.66335,5.0794,10.73,5.2063,7.0853,3.9291,10.113,5.2063,6.5681,10.821
6.1927,-4.3381,2.0163,-12.484,-16.502001,-3.5122,-10.407,0.58252,-7.8699,-12.484,-16.502001,-6.6335,2.5397,3.1111,5.2063,0.64412,0.70853,-4.7021,2.0317,4.5977,-0.77295
-0.12638,-13.27,-5.7886,-19.673,-23.761999,-9.3659,-18.211,-4.5955,-16.325001,-19.673,-23.761999,-13.93,-5.0794,-5.1429,-1.7778,-9.0177,-7.6651,-17.584999,-10.032,-2.6273,-11.079
-7.0774,-14.545,-7.7398,-17.059,-15.182,-8.065,-15.61,-5.89,-11.122,-17.059,-15.182,-12.604,-4.4444,-3.2381,-4.9524,-9.0177,-8.3092,1.095,-8.127,-2.6273,-3.9936
-12.765,-16.459,-12.943,-17.059,-14.521,-10.667,-14.959,-7.8317,-7.2195,-17.059,-14.521,-14.594,-8.254,-6.4127,-10.667,-12.238,-12.818,4.9597,-11.302,-5.2545,-5.2818
-8.9731,-13.27,-10.992,-17.059,-17.822001,-11.967,-14.309,-6.5372,-9.8211,-17.059,-17.822001,-14.594,-9.5238,-8.3175,-10.667,-12.882,-12.818,4.9597,-10.667,-3.2841,-11.723
-4.5498,-8.8038,-7.0894,-18.365999,-15.842,-10.667,-10.407,-5.89,-12.423,-18.365999,-15.842,-11.94,-8.254,-10.222,-9.3968,-14.171,-10.242,6.248,-18.285999,1.3136,-20.097
-3.2859,-8.8038,-6.439,-18.365999,-13.861,-8.065,-7.1545,-5.2427,-11.122,-18.365999,-13.861,-8.6235,-6.3492,-11.492,-8.127,-14.171,-9.5974,-37.551998,-16.381001,-0.65681,-20.097
1.1374,-1.1483,0.06504,-9.2157,-9.2409,-2.2114,2.6016,-0.71197,-0.06504,-9.2157,-9.2409,-0.66335,2.5397,0.57143,1.3968,-2.5765,0.70853,-15.652,0.12698,5.2545,-5.9259
1.7694,3.9553,2.0163,-1.3725,-2.6403,1.0407,5.8537,2.5243,5.7886,-1.3725,-2.6403,4.6434,10.159,7.5556,7.1111,5.153,6.5056,33.945,2.6667,13.136,5.6683
0.50553,2.6794,-0.58537,-3.9869,-3.9604,-0.26016,1.9512,0.58252,1.2358,-3.9869,-3.9604,3.3167,10.794,4.381,5.2063,4.5089,4.5733,29.436001,3.3016,10.509,6.9565
1.1374,2.0415,0.06504,-11.83,-8.5809,-3.5122,-2.6016,-3.301,-4.6179,-11.83,-8.5809,-0.66335,8.8889,4.381,4.5714,4.5089,5.2174,19.129999,-1.7778,6.5681,1.8035
0.50553,0.12759,2.0163,-15.752,-11.881,-4.813,-5.2033,-5.2427,-7.2195,-15.752,-11.881,-1.99,6.3492,2.4762,3.3016,3.2206,3.9291,-3.4138,-0.50794,0.65681,-3.3494
9.9842,7.1451,9.8211,-8.5621,-6.6007,2.9919,3.9024,1.877,3.187,-8.5621,-6.6007,5.9701,9.5238,7.5556,10.286,8.3736,9.7262,-24.025999,9.6508,3.2841,5.0242
11.248,4.5933,10.472,-10.523,-5.9406,2.9919,1.9512,-3.9482,2.5366,-10.523,-5.9406,5.3068,5.0794,9.4603,9.6508,8.3736,8.438,-31.754999,2.6667,0.0,10.821
6.1927,4.5933,9.8211,-10.523,-9.901,1.0407,1.3008,-5.2427,-0.71545,-10.523,-9.901,4.6434,0.63492,8.8254,7.1111,8.3736,7.7939,7.5362,-0.50794,-3.9409,12.11
1.7694,7.7831,7.8699,-8.5621,-5.2805,0.39024,5.2033,-2.0065,3.187,-8.5621,-5.2805,6.6335,-3.1746,5.0159,3.3016,6.4412,6.5056,26.216,7.746,-3.9409,6.9565
-3.2859,5.8692,3.9675,-10.523,-3.3003,-0.91057,4.5528,-3.301,3.187,-10.523,-3.3003,4.6434,-9.5238,-0.06349,-3.0476,1.2882,1.3527,12.689,7.746,-7.225,1.8035
-0.12638,8.4211,9.1707,-3.9869,0.0,5.5935,7.8049,5.1133,8.3902,-3.9869,0.0,8.6235,-7.619,0.57143,-1.1429,3.2206,3.9291,8.8245,10.921,-5.9113,3.0918
-3.2859,2.6794,4.6179,-9.2157,-3.9604,1.6911,2.6016,-0.71197,3.187,-9.2157,-3.9604,3.3167,-12.063,-7.0476,-6.2222,-5.7971,-3.1562,-31.111,-1.1429,-11.823,-9.1465
1.1374,-1.7863,2.6667,-9.2157,-7.2607,-1.561,0.65041,-3.9482,1.2358,-9.2157,-7.2607,0.0,-8.8889,-9.5873,-3.6825,-6.4412,-3.8003,-27.246,-8.127,-7.8818,-7.8583
3.0332,-0.51037,3.9675,-7.2549,-8.5809,-4.1626,0.0,-5.2427,3.8374,-7.2549,-8.5809,-1.3267,-4.4444,-12.762,-1.1429,-5.153,-1.2238,12.689,0.7619,0.0,-1.4171
-2.0221,-1.1483,-0.58537,-11.83,-8.5809,-8.7154,-4.5528,-7.8317,1.8862,-11.83,-8.5809,-5.3068,-4.4444,-16.570999,-3.0476,-6.4412,-2.5121,16.554001,5.2063,0.65681,-3.9936
-6.4455,2.0415,-2.5366,-10.523,-3.3003,-9.3659,-5.2033,-5.89,3.8374,-10.523,-3.3003,-5.9701,-3.8095,-8.9524,-4.3175,-2.5765,-1.2238,-1.4815,10.286,-1.3136,0.5153
-7.0774,2.6794,-4.4878,-8.5621,-2.6403,-6.7642,-3.9024,-4.5955,5.7886,-8.5621,-2.6403,-5.9701,-5.0794,-5.1429,-5.5873,-1.2882,-1.868,-16.296,2.0317,-4.5977,0.5153
2.4013,9.697,3.3171,4.5098,9.2409,3.6423,7.1545,5.7605,16.846001,4.5098,9.2409,4.6434,3.8095,2.4762,3.9365,7.7295,5.2174,4.3156,10.921,5.2545,10.821
-1.3902,3.9553,-4.4878,-0.71895,2.6403,-0.91057,3.9024,-0.06472,10.992,-0.71895,2.6403,0.0,-3.8095,-5.7778,-2.4127,1.2882,-1.868,-19.517,21.079,-1.3136,3.0918
-5.8136,-0.51037,-9.0407,-3.9869,-7.9208,-5.4634,-0.65041,-2.6537,3.8374,-3.9869,-7.9208,-3.9801,-9.5238,-10.857,-8.127,-3.8647,-6.3768,-7.9227,3.3016,-5.9113,-5.9259
-2.0221,4.5933,-3.8374,3.8562,-1.3201,-2.2114,2.6016,1.877,8.3902,3.8562,-1.3201,0.0,-4.4444,-5.7778,-3.6825,1.2882,-1.2238,23.639,-0.50794,-1.3136,1.1594
-5.1817,-0.51037,-7.0894,2.549,3.9604,-3.5122,-1.9512,-1.3592,6.439,2.549,3.9604,-3.3167,-6.3492,-7.6825,-6.8571,-3.8647,-5.7327,8.8245,-4.9524,-2.6273,-5.2818
1.1374,0.76555,-4.4878,5.817,9.2409,2.3415,0.0,4.466,10.341,5.817,9.2409,0.0,-1.2698,-3.2381,-1.7778,0.64412,-3.1562,-0.83736,-1.7778,3.9409,1.8035
-1.3902,-1.1483,-4.4878,5.817,3.3003,2.9919,-3.9024,2.5243,9.6911,5.817,3.3003,-1.99,-3.1746,-3.2381,-3.0476,1.9324,-1.868,5.6039,5.8413,0.0,5.6683
1.7694,3.3174,2.0163,12.353,8.5809,8.1951,1.9512,7.055,14.244,12.353,8.5809,2.6534,-1.9048,-1.3333,0.7619,4.5089,2.6409,12.045,16.635,-0.65681,5.6683
9.9842,9.697,9.1707,16.275,13.201,13.398,11.707,9.644,20.098,16.275,13.201,9.9502,1.9048,3.746,8.381,8.3736,7.1498,-10.499,14.73,1.3136,6.9565
16.302999,10.335,9.8211,19.542,15.182,13.398,13.659,9.644,24.0,19.542,15.182,11.277,5.0794,6.9206,12.825,10.306,7.7939,0.45089,7.746,5.2545,9.533
7.4566,2.6794,-1.8862,14.314,9.2409,4.9431,5.2033,2.5243,14.894,14.314,9.2409,2.6534,2.5397,3.1111,7.1111,5.153,0.06441,9.4686,0.7619,3.2841,6.3124
2.4013,0.76555,-3.187,12.353,9.901,2.3415,0.0,-1.3592,10.992,12.353,9.901,0.0,3.1746,5.6508,5.2063,6.4412,1.3527,-2.7697,-4.3175,5.2545,6.9565
4.297,2.0415,4.6179,11.699,13.861,3.6423,0.65041,-1.3592,12.943,11.699,13.861,1.99,3.1746,6.9206,7.746,9.0177,6.5056,-16.940001,-1.7778,1.9704,8.2448
5.5608,0.12759,4.6179,11.046,11.221,3.6423,1.9512,-0.06472,12.293,11.046,11.221,2.6534,0.63492,2.4762,7.1111,3.8647,3.9291,-7.9227,12.825,0.0,3.0918
4.297,-1.1483,0.06504,10.392,9.2409,1.0407,2.6016,-2.0065,12.943,10.392,9.2409,1.99,0.0,-3.2381,5.8413,-1.9324,-0.57971,1.7391,16.635,3.9409,-2.7053
1.7694,-1.7863,-2.5366,8.4314,9.2409,-1.561,-1.3008,-4.5955,8.3902,8.4314,9.2409,0.66335,0.0,-3.873,2.0317,-2.5765,-2.5121,7.5362,-1.1429,4.5977,-0.77295
-3.2859,-1.1483,-3.187,5.817,7.9208,-5.4634,-3.9024,-5.89,6.439,5.817,7.9208,-1.3267,-1.2698,-3.873,-1.7778,-1.2882,-2.5121,15.266,-11.302,1.9704,-0.12882
-2.0221,2.0415,1.3659,5.817,9.2409,-3.5122,0.0,-2.0065,10.341,5.817,9.2409,0.66335,1.2698,-0.06349,-1.1429,1.2882,1.3527,7.5362,-8.127,2.6273,-3.3494
-1.3902,-1.1483,0.71545,-0.71895,3.3003,-2.2114,0.0,-2.6537,5.7886,-0.71895,3.3003,0.0,0.63492,0.57143,-1.7778,0.0,0.06441,-13.076,-7.4921,-1.3136,-2.0612
-0.75829,-2.4242,-1.2358,-0.71895,-1.9802,-0.91057,-3.252,-2.6537,0.58537,-0.71895,-1.9802,0.0,0.0,3.1111,-2.4127,1.9324,0.06441,-6.6345,3.3016,-2.6273,1.1594
-1.3902,1.4035,2.0163,2.549,-0.66007,-0.26016,-1.3008,-2.6537,0.58537,2.549,-0.66007,2.6534,2.5397,9.4603,0.7619,7.7295,5.8615,-0.83736,3.3016,-0.65681,5.0242
-2.654,2.0415,5.9187,-0.06536,-3.9604,-0.26016,-1.3008,-3.9482,-0.06504,-0.06536,-3.9604,3.3167,0.63492,10.095,1.3968,9.6618,7.1498,-0.19324,-2.4127,-1.3136,6.3124
4.297,6.5072,13.073,3.8562,3.9604,4.9431,3.9024,2.5243,3.8374,3.8562,3.9604,8.6235,5.0794,15.175,7.746,14.171,13.591,6.248,3.9365,5.2545,8.2448
5.5608,10.335,12.423,-0.06536,5.9406,3.6423,4.5528,-0.71197,6.439,-0.06536,5.9406,8.6235,6.9841,15.81,9.0159,16.103001,14.879,0.45089,12.825,3.2841,7.6006
7.4566,9.697,9.8211,-1.3725,3.3003,3.6423,6.5041,0.58252,5.7886,-1.3725,3.3003,6.6335,7.619,13.905,8.381,16.103001,13.591,8.1804,7.1111,1.3136,8.8889
1.7694,3.3174,3.9675,-5.2941,-1.3201,1.0407,5.8537,-3.301,-0.06504,-5.2941,-1.3201,3.3167,3.8095,10.73,2.6667,10.95,7.1498,3.6715,-4.3175,-1.9704,6.9565
-6.4455,-3.7002,-1.8862,-12.484,-8.5809,-2.8618,-0.65041,-9.1262,-3.9675,-12.484,-8.5809,0.0,-3.8095,2.4762,-5.5873,1.9324,-1.868,-22.093,-3.6825,-8.5386,-0.77295
-5.1817,-3.7002,-2.5366,-7.2549,-7.9208,1.6911,-2.6016,-3.9482,-2.0163,-7.2549,-7.9208,2.6534,-6.9841,-0.69841,-8.127,1.2882,-3.8003,-33.042999,-0.50794,-8.5386,1.8035
-3.9179,0.12759,-1.2358,0.58824,0.0,6.2439,0.65041,3.1715,3.187,0.58824,0.0,7.2968,-6.3492,0.57143,-8.127,5.153,-1.868,4.9597,8.381,-3.2841,12.11
-10.237,-1.7863,-8.3902,-6.6013,-3.3003,-2.2114,-2.6016,-3.9482,1.2358,-6.6013,-3.3003,0.66335,-11.429,-8.9524,-11.302,-0.64412,-5.7327,15.266,7.746,-5.2545,6.3124
-8.3412,-4.3381,-9.6911,-7.2549,-4.6205,-6.1138,-3.252,-2.6537,-2.0163,-7.2549,-4.6205,-1.99,-12.063,-13.397,-10.032,-7.0853,-8.9533,-1.4815,6.4762,-5.2545,-0.77295
-8.9731,-5.614,-7.7398,-5.9477,-7.2607,-6.7642,-0.65041,-3.301,-3.3171,-5.9477,-7.2607,-0.66335,-7.619,-14.667,-9.3968,-10.95,-9.5974,14.622,1.3968,-0.65681,-7.2142
-8.3412,-4.3381,-6.439,-9.2157,-5.9406,-6.1138,-1.9512,-4.5955,-3.3171,-9.2157,-5.9406,-0.66335,-3.1746,-10.857,-7.4921,-9.0177,-7.6651,12.689,3.3016,2.6273,-7.8583
-3.9179,-6.89,-8.3902,-9.8693,-8.5809,-6.1138,-9.1057,-3.9482,-7.8699,-9.8693,-8.5809,-1.99,1.9048,-4.5079,-4.3175,-7.0853,-6.3768,18.486,-3.0476,7.8818,-5.9259
-5.8136,-14.545,-13.593,-9.2157,-10.561,-9.3659,-14.309,-7.1845,-14.374,-9.2157,-10.561,-7.2968,1.9048,-7.0476,-6.8571,-12.882,-10.886,-9.8551,-9.3968,3.2841,-9.7907
-3.2859,-6.89,-7.7398,-3.3333,-1.9802,-5.4634,-3.9024,-2.0065,-7.2195,-3.3333,-1.9802,-2.6534,8.254,-2.6032,-1.7778,-9.6618,-6.3768,-26.601999,-10.032,4.5977,-7.2142
0.50553,1.4035,1.3659,5.1634,3.9604,1.6911,1.3008,4.466,-0.06504,5.1634,3.9604,4.6434,14.603,3.746,3.3016,-1.2882,1.9968,-16.296,-1.7778,7.8818,4.38
-2.0221,-1.7863,-0.58537,3.8562,-1.3201,-0.91057,-5.2033,-0.06472,-5.2683,3.8562,-1.3201,0.0,11.429,4.381,0.7619,0.0,2.6409,-13.72,-1.7778,2.6273,6.9565
-1.3902,-1.1483,0.06504,2.549,-0.66007,-3.5122,-7.1545,-2.6537,-5.9187,2.549,-0.66007,-1.99,10.794,7.5556,4.5714,1.9324,5.2174,10.757,0.7619,1.9704,3.7359
2.4013,2.6794,3.9675,3.8562,7.2607,-2.2114,-0.65041,-2.6537,-1.3659,3.8562,7.2607,0.66335,13.333,7.5556,10.286,1.9324,7.1498,24.283001,12.19,3.2841,2.4477
2.4013,0.12759,2.0163,2.549,5.2805,-5.4634,-1.9512,-2.0065,-0.71545,2.549,5.2805,-3.9801,10.794,2.4762,7.746,-4.5089,1.3527,1.7391,3.3016,0.0,-3.3494
3.6651,0.76555,3.9675,3.2026,1.3201,-4.813,-2.6016,3.1715,-1.3659,3.2026,1.3201,-5.3068,10.159,3.1111,7.746,-3.2206,1.9968,-13.076,-8.127,1.3136,-2.0612
-4.5498,-1.7863,-1.2358,-2.0261,-1.9802,-9.3659,-6.5041,-2.0065,-3.3171,-2.0261,-1.9802,-9.2869,3.1746,0.57143,-1.1429,-3.8647,-1.868,-22.093,-3.6825,-1.9704,-2.7053
-13.397,-1.1483,-5.7886,3.2026,3.3003,-10.667,-5.8537,-1.3592,-1.3659,3.2026,3.3003,-10.614,-4.4444,1.8413,-12.571,-3.8647,-5.7327,-20.805,-0.50794,-9.1954,-4.6377
-9.6051,3.3174,2.0163,10.392,6.6007,-4.1626,1.3008,3.1715,0.58537,10.392,6.6007,-3.3167,-2.5397,10.095,-10.032,2.5765,-0.57971,3.6715,3.3016,-5.2545,1.1594
-6.4455,-0.51037,1.3659,5.817,3.3003,-4.813,1.3008,-2.6537,3.187,5.817,3.3003,-4.6434,-8.8889,6.9206,-10.667,-0.64412,-5.0886,-0.19324,3.9365,-7.225,1.8035
-5.1817,-5.614,-6.439,1.8954,4.6205,-8.065,-2.6016,-5.2427,0.58537,1.8954,4.6205,-9.2869,-12.698,-0.69841,-11.937,-6.4412,-12.174,10.113,-4.3175,-9.1954,-1.4171
-0.12638,-4.3381,-5.1382,2.549,5.9406,-6.1138,-3.9024,-3.9482,-3.3171,2.549,5.9406,-8.6235,-5.7143,1.8413,-3.6825,-1.9324,-7.0209,22.351,-3.6825,-1.3136,2.4477
-2.0221,-0.51037,0.06504,6.4706,7.2607,-1.561,3.252,-0.71197,-0.71545,6.4706,7.2607,-2.6534,-0.63492,8.1905,0.12698,3.2206,-0.57971,14.622,0.12698,0.0,6.3124
-7.0774,3.3174,3.9675,10.392,10.561,2.3415,10.407,-0.06472,5.7886,10.392,10.561,3.9801,-0.63492,9.4603,-1.1429,5.7971,1.9968,1.095,8.381,-2.6273,7.6006
-5.8136,4.5933,6.5691,11.699,15.182,4.9431,9.1057,1.2298,7.7398,11.699,15.182,5.9701,-1.9048,6.9206,-4.3175,5.153,2.6409,-40.129002,7.1111,-7.225,1.1594
5.5608,9.059,11.772,14.967,15.182,10.797,10.407,3.8188,3.187,14.967,15.182,10.614,3.1746,8.1905,1.3968,7.7295,6.5056,-40.129002,-2.4127,-1.9704,1.1594
6.1927,5.8692,9.8211,10.392,4.6205,8.1951,5.2033,-1.3592,-8.5203,10.392,4.6205,7.9602,5.7143,6.9206,5.2063,6.4412,7.7939,9.4686,-4.3175,3.2841,1.1594
5.5608,4.5933,10.472,7.1242,0.0,6.8943,5.2033,-2.0065,-8.5203,7.1242,0.0,7.9602,7.619,3.746,7.746,4.5089,8.438,26.860001,5.8413,5.9113,-2.7053
2.4013,4.5933,9.8211,11.046,8.5809,10.146,9.7561,1.877,-0.06504,11.046,8.5809,11.94,4.4444,0.57143,3.9365,0.64412,3.9291,16.554001,5.2063,1.3136,-4.6377
-0.75829,8.4211,12.423,17.582001,15.842,16.0,14.959,8.3495,7.0894,17.582001,15.842,17.247,3.1746,-0.06349,2.0317,1.2882,3.285,12.045,0.7619,-0.65681,-0.12882
0.50553,7.7831,7.8699,15.621,10.561,13.398,12.358,8.9968,3.187,15.621,10.561,12.604,-2.5397,-4.5079,-1.1429,-1.9324,-0.57971,-16.296,-11.302,-6.5681,-9.7907
4.297,3.3174,3.9675,7.7778,7.2607,8.8455,7.8049,4.466,-3.3171,7.7778,7.2607,5.9701,-6.9841,-4.5079,-0.50794,-1.2882,0.06441,-9.8551,-9.3968,-9.8522,-4.6377
4.9289,-1.1483,3.3171,7.7778,8.5809,6.8943,4.5528,7.055,-2.6667,7.7778,8.5809,3.3167,-5.7143,-2.6032,1.3968,0.64412,1.9968,10.757,-2.4127,-6.5681,5.0242
0.50553,-8.8038,-5.7886,3.8562,-1.3201,1.6911,-3.252,4.466,-7.2195,3.8562,-1.3201,-2.6534,-10.159,-8.3175,-3.6825,-7.0853,-7.0209,2.3833,-1.1429,-6.5681,-2.7053
4.297,-5.614,-6.439,4.5098,-4.6205,4.2927,1.3008,8.3495,-4.6179,4.5098,-4.6205,-0.66335,-8.8889,-5.7778,-4.9524,-6.4412,-10.886,-36.264,10.921,-7.225,3.7359
-0.12638,2.0415,-1.2358,9.7386,5.2805,10.797,9.1057,14.822,-0.06504,9.7386,5.2805,5.3068,-5.0794,-1.3333,-6.8571,-1.9324,-7.0209,-5.3462,6.4762,-3.2841,1.8035
-15.292,-0.51037,-4.4878,2.549,0.66007,2.3415,-2.6016,3.1715,-7.8699,2.549,0.66007,-2.6534,-8.254,-5.1429,-13.206,-4.5089,-8.3092,22.351,-6.8571,-5.9113,-10.435
-10.237,-1.7863,-1.2358,-5.2941,-9.2409,-2.8618,-9.1057,-1.3592,-14.374,-5.2941,-9.2409,-7.2968,-4.4444,-1.3333,-5.5873,0.0,-3.1562,12.045,-8.7619,-1.3136,1.1594
-1.3902,-8.1659,-5.7886,-11.176,-16.502001,-6.7642,-13.008,-2.6537,-19.577,-11.176,-16.502001,-11.94,-1.9048,-3.2381,-1.1429,-3.2206,-6.3768,17.841999,-5.5873,2.6273,6.3124
-5.8136,-14.545,-14.244,-17.059,-21.782,-13.919,-18.862,-7.1845,-22.829,-17.059,-21.782,-19.9,-8.8889,-10.857,-9.3968,-12.238,-16.039,9.4686,-6.8571,-2.6273,-3.3494
-2.0221,-13.27,-8.3902,-14.444,-21.122,-11.317,-16.910999,0.58252,-20.878,-14.444,-21.122,-18.573999,-5.7143,-5.1429,-6.8571,-9.0177,-12.174,-28.535,0.7619,-2.6273,1.1594
1.7694,-16.459,-3.187,-13.137,-23.761999,-9.3659,-18.862,3.8188,-23.48,-13.137,-23.761999,-17.91,1.9048,-1.9683,0.7619,-7.7295,-5.7327,-9.8551,-3.6825,5.2545,0.5153
1.7694,-15.821,0.06504,-10.523,-19.802,-6.7642,-16.26,3.1715,-22.829,-10.523,-19.802,-13.267,3.1746,-3.873,4.5714,-10.95,-3.8003,15.266,-13.841,5.9113,-7.2142
3.6651,-15.183,-2.5366,-5.9477,-12.541,-1.561,-13.008,4.466,-19.577,-5.9477,-12.541,-7.9602,0.63492,-9.5873,2.6667,-15.459,-6.3768,-7.9227,-18.285999,2.6273,-16.232
8.0885,-10.718,0.71545,-2.0261,-9.2409,3.6423,-6.5041,6.4078,-13.724,-2.0261,-9.2409,-1.99,0.0,-8.9524,3.9365,-13.527,-4.4444,12.045,-8.7619,5.2545,-13.011
5.5608,-7.5279,4.6179,-5.2941,-11.881,2.9919,-5.8537,3.1715,-14.374,-5.2941,-11.881,-1.99,-1.9048,-11.492,2.6667,-10.95,-3.1562,27.504,-4.9524,3.9409,-9.7907
11.248,0.12759,10.472,-2.0261,-7.2607,6.8943,-0.65041,7.055,-8.5203,-2.0261,-7.2607,1.3267,2.5397,-6.4127,9.0159,-4.5089,3.285,16.554001,-2.4127,6.5681,-6.57
11.88,3.3174,9.8211,-6.6013,-5.2805,5.5935,1.3008,5.1133,-5.2683,-6.6013,-5.2805,1.3267,6.9841,-0.06349,11.556,0.0,6.5056,10.757,3.9365,9.1954,-3.9936
2.4013,-1.7863,1.3659,-10.523,-10.561,-2.2114,-3.252,0.58252,-9.1707,-10.523,-10.561,-3.9801,3.1746,-1.9683,3.9365,-1.9324,1.9968,-7.2786,3.3016,1.9704,-6.57
-3.9179,-4.3381,-1.2358,-12.484,-23.101999,-6.7642,-8.4553,1.2298,-18.275999,-12.484,-23.101999,-9.2869,2.5397,-0.69841,0.12698,-0.64412,0.06441,-5.3462,-6.2222,-3.2841,-5.2818
-6.4455,-4.3381,0.71545,-12.484,-23.761999,-7.4146,-11.057,5.1133,-24.129999,-12.484,-23.761999,-11.277,1.9048,-1.9683,-2.4127,0.0,-1.868,-0.83736,-8.7619,-5.2545,-4.6377
-2.0221,0.76555,5.2683,-6.6013,-13.861,-0.91057,-2.6016,10.939,-20.878,-6.6013,-13.861,-5.9701,2.5397,1.8413,-0.50794,3.2206,0.70853,-4.058,-2.4127,-3.9409,0.5153
1.1374,0.12759,3.9675,-7.2549,-16.502001,0.39024,-5.8537,10.939,-21.528,-7.2549,-16.502001,-5.9701,2.5397,5.6508,0.12698,6.4412,1.3527,-16.296,-3.6825,-2.6273,2.4477
1.1374,2.6794,6.5691,-9.8693,-18.482,-1.561,-7.8049,7.055,-19.577,-9.8693,-18.482,-6.6335,2.5397,8.1905,2.0317,10.95,5.8615,-5.3462,-4.9524,-0.65681,5.6683
4.9289,11.611,17.625999,-5.9477,-11.881,1.6911,1.3008,9.644,-13.073,-5.9477,-11.881,-0.66335,6.3492,11.365,9.6508,19.323999,15.523,15.266,3.3016,3.9409,14.042
-2.654,11.611,14.374,-13.137,-14.521,-4.1626,0.65041,1.2298,-13.724,-13.137,-14.521,-3.9801,-0.63492,1.8413,3.9365,12.238,9.7262,8.1804,11.556,-2.6273,6.9565
1.1374,13.525,15.675,-7.9085,-12.541,-0.91057,7.1545,5.1133,-9.1707,-7.9085,-12.541,0.0,2.5397,3.746,5.2063,11.594,8.438,-5.9903,9.0159,1.3136,14.042
3.0332,11.611,14.374,-5.2941,-11.881,0.39024,5.2033,6.4078,-9.1707,-5.2941,-11.881,0.66335,4.4444,6.2857,5.8413,11.594,7.1498,-16.940001,5.2063,3.2841,15.33
-2.0221,6.5072,7.2195,-13.791,-15.842,-8.7154,-3.252,-3.301,-15.024,-13.791,-15.842,-9.2869,-2.5397,1.2063,-1.1429,4.5089,0.70853,-12.432,-1.7778,-4.5977,1.1594
-7.7093,3.9553,4.6179,-16.405001,-16.502001,-12.618,-6.5041,-4.5955,-16.976,-16.405001,-16.502001,-13.93,-5.0794,-0.06349,-4.3175,3.2206,-1.868,8.1804,-9.3968,-3.2841,-1.4171
-10.869,-0.51037,2.0163,-15.098,-12.541,-10.016,-5.2033,-3.9482,-13.724,-15.098,-12.541,-12.604,-6.9841,-3.873,-8.127,-1.9324,-5.7327,3.0274,-5.5873,-3.9409,-2.0612
-5.8136,-4.3381,1.3659,-10.523,-10.561,-4.1626,-5.2033,0.58252,-12.423,-10.523,-10.561,-9.2869,-6.3492,-7.6825,-6.8571,-7.7295,-8.3092,4.9597,-1.7778,-1.9704,-2.0612
0.50553,-4.3381,0.71545,-7.2549,-11.221,-2.2114,-6.5041,3.8188,-11.122,-7.2549,-11.221,-6.6335,-3.8095,-7.6825,-4.3175,-10.306,-8.3092,19.775,-3.6825,3.2841,-2.0612
3.0332,-3.7002,0.06504,-7.9085,-12.541,-2.8618,-9.7561,4.466,-11.772,-7.9085,-12.541,-7.2968,-6.3492,-10.222,-4.9524,-12.882,-10.242,-4.7021,-10.667,-0.65681,-7.8583
1.7694,-7.5279,-1.2358,-9.2157,-13.201,-4.813,-14.959,2.5243,-15.024,-9.2157,-13.201,-9.2869,-8.254,-10.857,-6.8571,-14.815,-10.886,-9.8551,-8.127,-4.5977,-14.3
-0.12638,0.12759,7.8699,0.58824,-4.6205,3.6423,-3.252,10.939,-5.2683,0.58824,-4.6205,1.99,0.0,-1.3333,-2.4127,-4.5089,-1.2238,-0.83736,4.5714,1.9704,-7.8583
-7.7093,-4.3381,7.8699,3.8562,-1.3201,5.5935,1.3008,9.644,-4.6179,3.8562,-1.3201,6.6335,-0.63492,-3.2381,-6.8571,-6.4412,-2.5121,-23.382,-4.3175,-2.6273,-7.2142
-0.75829,-7.5279,7.8699,4.5098,3.3003,6.2439,2.6016,8.9968,-4.6179,4.5098,3.3003,7.9602,0.0,-3.873,-2.4127,-8.3736,-2.5121,-9.8551,-13.841,-1.9704,-8.5024
8.0885,-2.4242,9.1707,7.1242,7.9208,5.5935,3.9024,10.291,-3.9675,7.1242,7.9208,9.2869,3.8095,-1.3333,5.2063,-4.5089,0.70853,28.148001,-16.381001,5.9113,-7.8583
11.248,2.0415,7.8699,9.7386,3.3003,5.5935,3.252,10.939,-6.5691,9.7386,3.3003,9.2869,8.254,1.2063,9.0159,-0.64412,3.9291,30.080999,-8.127,10.509,-4.6377
12.512,-0.51037,3.3171,6.4706,0.66007,2.9919,1.3008,5.1133,-5.9187,6.4706,0.66007,5.9701,12.063,1.8413,10.286,-1.2882,1.3527,12.045,0.7619,11.823,-3.3494
6.1927,-8.1659,-5.7886,2.549,-2.6403,-2.2114,-2.6016,2.5243,-5.2683,2.549,-2.6403,-1.3267,5.0794,-7.0476,2.0317,-9.0177,-9.5974,-13.72,-4.9524,5.9113,-7.8583
-0.12638,-6.89,-3.8374,10.392,5.2805,2.3415,-0.65041,4.466,-3.9675,10.392,5.2805,2.6534,0.63492,-5.7778,-4.9524,-7.0853,-10.886,-2.1256,-1.7778,3.9409,-7.2142
-3.9179,3.3174,7.8699,18.889,17.162001,12.098,6.5041,7.7023,6.439,18.889,17.162001,13.93,0.63492,2.4762,-4.9524,2.5765,-1.868,4.3156,9.0159,2.6273,1.1594
-10.237,3.9553,10.472,22.157,19.142,14.049,8.4553,6.4078,14.244,22.157,19.142,17.247,-5.7143,1.8413,-8.7619,1.9324,0.06441,-13.72,8.381,-5.9113,5.0242
-6.4455,-3.7002,7.8699,24.118,22.441999,14.049,8.4553,6.4078,9.6911,24.118,22.441999,16.584,-5.7143,0.57143,-4.9524,-2.5765,-1.2238,-0.19324,-8.7619,-4.5977,2.4477
2.4013,-10.718,5.2683,20.195999,17.162001,10.797,3.252,2.5243,-0.71545,20.195999,17.162001,11.94,-3.1746,0.57143,2.0317,-5.153,-2.5121,19.129999,-14.476,1.3136,-3.3494
5.5608,-8.8038,3.3171,18.235001,15.842,5.5935,1.9512,-3.9482,5.1382,18.235001,15.842,7.2968,0.0,2.4762,5.8413,-3.2206,-2.5121,-7.2786,-2.4127,1.9704,-2.7053
8.0885,-6.89,2.6667,22.809999,15.842,5.5935,4.5528,-0.06472,12.293,22.809999,15.842,6.6335,3.1746,3.746,7.1111,-3.8647,-2.5121,-32.398998,0.7619,0.0,-0.12882
9.3523,0.12759,7.2195,26.077999,23.101999,10.146,12.358,3.1715,14.894,26.077999,23.101999,11.94,8.8889,5.6508,10.286,-1.9324,1.3527,9.4686,9.0159,4.5977,1.1594
6.8246,5.8692,7.8699,25.424999,33.662998,10.797,16.26,0.58252,22.698999,25.424999,33.662998,13.93,8.254,3.1111,7.1111,-1.9324,1.9968,7.5362,13.46,6.5681,-0.12882
6.1927,9.059,7.8699,24.771,31.683001,8.8455,14.309,-0.06472,20.747999,24.771,31.683001,10.614,8.254,3.1111,4.5714,0.64412,3.285,-6.6345,9.6508,5.9113,-0.12882
3.0332,9.059,7.8699,16.275,25.743,1.0407,10.407,-11.068,17.496,16.275,25.743,3.9801,8.8889,5.6508,5.2063,5.153,5.8615,14.622,0.7619,5.2545,4.38
-1.3902,5.2313,3.3171,14.967,25.743,-4.813,7.8049,-10.421,18.146,14.967,25.743,-0.66335,5.7143,3.1111,2.6667,4.5089,2.6409,10.757,2.0317,2.6273,6.3124
1.7694,4.5933,3.9675,15.621,23.101999,-3.5122,7.8049,-3.301,14.244,15.621,23.101999,0.0,4.4444,2.4762,5.2063,5.153,3.9291,-23.382,8.381,0.0,10.177
6.1927,7.7831,8.5203,15.621,17.822001,-1.561,11.057,-3.301,12.943,15.621,17.822001,3.3167,6.3492,3.746,10.286,6.4412,8.438,-4.7021,0.12698,3.2841,6.3124
8.7204,8.4211,11.772,16.927999,19.142,-0.91057,9.7561,-2.0065,11.642,16.927999,19.142,3.9801,5.0794,-0.06349,12.19,4.5089,10.37,18.486,5.8413,4.5977,0.5153
15.039,9.059,16.325001,14.967,20.462,1.6911,7.1545,0.58252,11.642,14.967,20.462,4.6434,5.7143,0.57143,15.365,5.7971,12.947,3.0274,3.3016,4.5977,1.1594
17.566999,10.335,21.528,17.582001,19.802,8.8455,10.407,4.466,13.593,17.582001,19.802,10.614,5.0794,1.8413,15.365,7.0853,14.235,7.5362,2.0317,3.2841,3.0918
13.776,14.801,24.780001,20.195999,21.782,14.699,16.26,7.7023,15.545,20.195999,21.782,17.91,1.2698,1.2063,10.286,7.0853,12.947,24.283001,4.5714,1.9704,3.0918
16.934999,19.903999,28.683001,26.732,31.023001,21.854,21.462999,12.88,20.098,26.732,31.023001,24.544001,-1.2698,3.746,8.381,9.0177,12.303,17.841999,6.4762,2.6273,5.6683
9.3523,9.697,15.675,22.809999,26.403,15.35,13.659,7.7023,14.244,22.809999,26.403,17.91,-10.159,-3.2381,-2.4127,-0.64412,0.06441,-2.1256,1.3968,-5.9113,-0.12882
-0.12638,-1.1483,0.71545,16.275,19.802,7.5447,7.1545,2.5243,10.341,16.275,19.802,9.2869,-13.333,-8.9524,-10.032,-9.0177,-10.242,0.45089,-2.4127,-9.8522,-7.2142
-5.8136,-6.252,-6.439,10.392,15.182,1.6911,7.1545,-2.0065,9.0407,10.392,15.182,5.3068,-13.333,-10.857,-11.937,-12.882,-14.106,-15.008,5.8413,-14.45,-13.011
-5.1817,-5.614,-4.4878,11.699,16.502001,2.3415,7.1545,-0.06472,12.943,11.699,16.502001,5.9701,-6.3492,-6.4127,-7.4921,-7.7295,-9.5974,-21.448999,7.1111,-9.8522,-9.1465
-11.501,-10.718,-9.6911,3.8562,9.2409,-6.1138,-2.6016,-9.1262,4.4878,3.8562,9.2409,-1.99,-0.63492,-3.2381,-6.2222,-7.0853,-7.6651,-7.9227,-12.571,-2.6273,-9.1465
-15.924,-17.097,-15.545,-9.2157,-2.6403,-17.171,-14.959,-21.424,-9.8211,-9.2157,-2.6403,-13.267,7.619,-0.06349,-3.0476,-7.7295,-5.0886,9.4686,-24.635,6.5681,-15.588
-13.397,-17.735001,-14.894,-13.137,-8.5809,-19.771999,-18.211,-21.424,-14.374,-13.137,-8.5809,-17.247,14.603,3.746,2.0317,-3.2206,0.70853,21.063,-20.825001,14.45,-15.588
-8.3412,-10.718,-10.992,-5.2941,0.0,-13.919,-11.707,-15.599,-4.6179,-5.2941,0.0,-11.277,15.238,8.8254,5.2063,3.8647,5.2174,12.045,-4.3175,14.45,-3.9936
-0.75829,-0.51037,-3.187,2.549,10.561,-4.1626,0.0,-9.7735,9.0407,2.549,10.561,-1.99,12.063,10.73,8.381,7.0853,7.1498,9.4686,7.746,11.166,5.6683
11.88,12.249,7.2195,11.699,19.802,6.8943,11.707,1.877,18.146,11.699,19.802,8.6235,12.063,12.0,14.73,10.95,10.37,-6.6345,18.540001,11.823,11.465
12.512,10.973,0.06504,5.817,9.2409,3.6423,3.252,0.58252,9.0407,5.817,9.2409,0.0,3.8095,3.1111,9.6508,6.4412,4.5733,-63.960999,17.27,3.2841,7.6006
1.1374,3.9553,-8.3902,-0.71895,-0.66007,-4.1626,-7.8049,-6.5372,-2.6667,-0.71895,-0.66007,-9.2869,3.8095,0.57143,4.5714,4.5089,1.3527,-11.143,-3.6825,3.2841,5.0242
-7.0774,3.3174,-9.6911,1.2418,1.9802,-3.5122,-5.2033,-7.1845,-0.06504,1.2418,1.9802,-7.9602,6.3492,1.8413,1.3968,7.7295,2.6409,44.895,0.7619,3.9409,12.11
-0.75829,7.7831,-3.187,7.1242,7.2607,3.6423,3.9024,-0.71197,8.3902,7.1242,7.2607,-0.66335,6.9841,4.381,3.3016,11.594,5.2174,19.129999,16.635,3.9409,17.907
4.9289,7.7831,-0.58537,6.4706,7.9208,5.5935,7.1545,2.5243,10.992,6.4706,7.9208,0.66335,1.9048,4.381,2.6667,9.0177,3.285,8.1804,14.73,3.2841,9.533
4.297,3.3174,-2.5366,3.8562,7.9208,3.6423,0.65041,0.58252,6.439,3.8562,7.9208,-0.66335,-6.3492,-0.06349,-3.6825,2.5765,-3.1562,-17.584999,3.3016,-7.8818,2.4477
6.8246,8.4211,5.2683,6.4706,9.901,8.1951,4.5528,1.877,7.0894,6.4706,9.901,6.6335,-3.1746,3.746,0.12698,6.4412,1.3527,12.689,-3.6825,-3.9409,5.6683
1.7694,9.697,5.9187,5.1634,5.9406,6.2439,7.1545,-0.71197,5.7886,5.1634,5.9406,7.2968,-6.3492,3.1111,-1.7778,6.4412,1.9968,11.401,0.7619,-5.2545,8.8889
0.50553,8.4211,5.2683,5.817,6.6007,6.8943,7.8049,0.58252,5.7886,5.817,6.6007,9.2869,-12.063,2.4762,-2.4127,5.153,1.9968,2.3833,0.7619,-9.1954,6.9565
5.5608,10.335,11.122,10.392,14.521,10.146,13.008,6.4078,9.6911,10.392,14.521,14.594,-10.794,6.9206,3.3016,9.0177,7.1498,19.129999,9.6508,-3.9409,9.533
4.297,6.5072,9.1707,5.1634,11.881,5.5935,9.1057,1.2298,6.439,5.1634,11.881,11.277,-10.159,5.0159,3.9365,7.0853,6.5056,12.689,8.381,-1.9704,8.2448
1.1374,-1.7863,0.71545,-2.0261,0.0,0.39024,3.252,-2.6537,1.8862,-2.0261,0.0,3.3167,-12.063,-5.1429,-1.7778,-1.2882,-0.57971,-6.6345,10.286,-5.9113,0.5153
3.6651,-3.0622,0.06504,1.8954,6.6007,3.6423,3.252,0.58252,5.7886,1.8954,6.6007,3.9801,-10.159,-10.857,-5.5873,-5.7971,-3.8003,-36.264,7.746,-3.9409,-2.7053
-2.0221,-5.614,-1.2358,-1.3725,6.6007,1.6911,0.0,-5.2427,4.4878,-1.3725,6.6007,3.3167,-3.8095,-13.397,-8.7619,-8.3736,-5.7327,-29.179001,-5.5873,0.0,-5.2818
-7.7093,-8.8038,-3.187,-7.9085,-1.9802,-4.1626,-5.8537,-9.7735,-2.0163,-7.9085,-1.9802,-1.3267,6.3492,-9.5873,-7.4921,-8.3736,-5.0886,8.1804,-6.8571,4.5977,-6.57
-3.9179,-6.89,-1.2358,-5.2941,-3.9604,-4.1626,-4.5528,-4.5955,-2.6667,-5.2941,-3.9604,-0.66335,14.603,-4.5079,0.12698,-4.5089,0.06441,13.333,-3.6825,8.5386,-6.57
3.0332,-1.1483,3.9675,0.58824,0.0,1.0407,1.3008,1.877,-0.06504,0.58824,0.0,1.99,20.952,2.4762,9.0159,1.9324,6.5056,19.775,-6.2222,13.136,-4.6377
7.4566,2.6794,7.8699,6.4706,6.6007,8.1951,3.252,9.644,3.187,6.4706,6.6007,5.3068,21.587,10.095,12.19,9.0177,11.014,21.707001,9.6508,13.793,3.0918
4.9289,3.9553,8.5203,4.5098,3.3003,9.4959,1.3008,8.9968,2.5366,4.5098,3.3003,5.3068,15.873,10.095,9.0159,12.238,12.303,12.045,9.0159,7.8818,8.2448
0.50553,2.0415,3.9675,-0.06536,-2.6403,4.9431,3.252,0.58252,-0.06504,-0.06536,-2.6403,2.6534,5.7143,7.5556,2.0317,10.95,9.0821,-15.652,3.9365,0.0,9.533
-2.0221,-1.1483,-2.5366,-2.0261,-4.6205,2.3415,2.6016,-3.9482,0.58537,-2.0261,-4.6205,1.99,-3.8095,6.2857,-3.0476,7.7295,1.9968,1.095,5.2063,-2.6273,8.8889
-0.75829,0.76555,-3.8374,0.58824,-0.66007,2.9919,2.6016,-0.06472,3.8374,0.58824,-0.66007,1.99,-8.8889,3.1111,-3.6825,5.153,-1.868,6.248,8.381,-3.9409,9.533
3.6651,9.059,3.3171,4.5098,6.6007,7.5447,5.2033,6.4078,7.0894,4.5098,6.6007,4.6434,-8.8889,1.8413,0.12698,7.0853,2.6409,-40.129002,9.0159,-4.5977,8.2448
2.4013,11.611,3.3171,3.2026,5.2805,5.5935,3.9024,5.1133,4.4878,3.2026,5.2805,3.3167,-9.5238,1.8413,-0.50794,7.7295,4.5733,-27.246,9.0159,-9.8522,5.0242
-3.9179,8.4211,-3.187,1.2418,3.3003,2.9919,1.9512,3.1715,2.5366,1.2418,3.3003,0.0,-7.619,1.8413,-3.0476,5.153,2.6409,19.775,0.7619,-5.9113,4.38
-7.0774,-1.7863,-10.341,-1.3725,-0.66007,-0.26016,-3.252,1.2298,-2.6667,-1.3725,-0.66007,-4.6434,-4.4444,-3.873,-4.3175,-2.5765,-3.8003,24.283001,-12.571,-0.65681,-2.7053
-4.5498,-7.5279,-10.341,-3.9869,-8.5809,-3.5122,-6.5041,-2.6537,-6.5691,-3.9869,-8.5809,-7.9602,1.2698,-7.0476,-1.1429,-7.0853,-3.8003,18.486,-10.032,1.3136,-7.8583
8.7204,4.5933,6.5691,0.58824,-3.3003,1.6911,1.9512,3.8188,-0.06504,0.58824,-3.3003,0.0,13.333,-0.69841,12.825,2.5765,11.014,5.6039,1.3968,11.166,-2.0612
6.8246,11.611,9.8211,-3.3333,-1.9802,-2.2114,2.6016,1.2298,1.8862,-3.3333,-1.9802,-1.3267,8.8889,-3.873,12.19,7.0853,14.879,-21.448999,8.381,10.509,-2.0612
-0.12638,10.973,3.3171,-9.2157,-9.901,-8.7154,0.0,-7.1845,-1.3659,-9.2157,-9.901,-5.9701,-1.2698,-1.9683,4.5714,9.6618,12.303,-35.619999,6.4762,3.2841,3.0918
1.1374,12.249,3.9675,-5.9477,-4.6205,-3.5122,6.5041,-4.5955,1.8862,-5.9477,-4.6205,1.3267,1.9048,11.365,5.8413,14.815,12.947,4.3156,3.9365,5.2545,10.177
-3.9179,6.5072,1.3659,-7.2549,1.9802,-1.561,6.5041,-5.2427,1.8862,-7.2549,1.9802,2.6534,-0.63492,13.27,2.0317,8.3736,5.8615,24.927999,-1.1429,0.0,5.0242
-7.7093,2.0415,-3.187,-9.8693,0.66007,-2.8618,3.9024,-3.9482,0.58537,-9.8693,0.66007,0.0,-1.2698,10.73,-3.0476,1.2882,-2.5121,9.4686,-6.8571,-2.6273,-1.4171
-12.765,-1.7863,-12.293,-12.484,-6.6007,-8.065,-3.252,-5.89,-4.6179,-12.484,-6.6007,-7.2968,0.63492,6.2857,-9.3968,-5.153,-10.242,-24.025999,-3.0476,-2.6273,-6.57
-15.924,-8.1659,-22.049,-19.673,-16.502001,-15.22,-11.707,-11.068,-11.772,-19.673,-16.502001,-15.257,-0.63492,1.2063,-15.746,-10.95,-16.039,-45.925999,-11.937,-2.6273,-9.7907
-12.133,-13.907,-20.098,-19.673,-17.162001,-13.919,-13.659,-10.421,-14.374,-19.673,-17.162001,-13.93,3.1746,1.8413,-11.302,-10.95,-14.75,9.4686,-13.206,5.2545,-3.3494
-7.7093,-18.372999,-16.846001,-17.712,-17.822001,-10.667,-13.008,-9.7735,-14.374,-17.712,-17.822001,-11.277,6.9841,1.2063,-6.8571,-12.882,-15.395,17.841999,-7.4921,7.225,-3.3494
7.4566,-8.1659,-3.8374,-5.9477,-9.2409,2.3415,-3.252,5.1133,-3.9675,-5.9477,-9.2409,-1.3267,19.683001,8.1905,7.1111,-3.8647,-4.4444,19.775,3.3016,17.733999,2.4477
5.5608,-5.614,-3.187,-6.6013,-11.221,1.0407,-6.5041,5.7605,-6.5691,-6.6013,-11.221,-3.9801,21.587,10.73,9.0159,-0.64412,0.70853,12.045,-8.7619,15.764,1.1594
-5.8136,-8.1659,-9.0407,-15.098,-21.782,-8.7154,-15.61,-6.5372,-14.374,-15.098,-21.782,-13.267,16.507999,10.095,2.6667,-0.64412,1.3527,0.45089,-5.5873,5.9113,-0.12882
-5.1817,-6.89,-8.3902,-14.444,-17.162001,-10.016,-14.959,-9.1262,-13.724,-14.444,-17.162001,-13.93,13.333,10.73,2.0317,1.2882,3.285,-22.093,2.0317,0.65681,0.5153
2.4013,-2.4242,-1.2358,-7.2549,-5.2805,-0.91057,-7.8049,-1.3592,-5.2683,-7.2549,-5.2805,-3.9801,11.429,12.0,6.4762,3.8647,6.5056,-0.19324,-1.1429,1.9704,0.5153
6.1927,-0.51037,3.3171,-1.3725,0.66007,6.8943,1.3008,4.466,1.2358,-1.3725,0.66007,4.6434,3.1746,6.2857,5.2063,0.0,3.285,24.927999,1.3968,0.65681,-2.0612
3.6651,-3.7002,1.3659,-1.3725,-1.9802,6.8943,3.9024,6.4078,2.5366,-1.3725,-1.9802,4.6434,-10.159,-7.6825,-2.4127,-7.7295,-2.5121,-24.025999,2.0317,-8.5386,-10.435
1.7694,4.5933,3.9675,0.58824,0.66007,7.5447,7.8049,5.1133,5.1382,0.58824,0.66007,7.2968,-15.238,-11.492,-4.9524,-4.5089,-0.57971,-15.652,-1.7778,-7.225,-7.8583
-4.5498,10.335,3.3171,3.8562,4.6205,8.1951,10.407,5.1133,5.7886,3.8562,4.6205,9.9502,-20.316999,-13.397,-10.032,-1.2882,-1.2238,8.8245,-0.50794,-5.9113,-0.77295
-3.2859,12.249,4.6179,7.7778,9.2409,8.1951,13.008,5.7605,10.341,7.7778,9.2409,11.94,-22.222,-9.5873,-10.667,1.2882,-1.2238,17.841999,5.2063,-5.2545,5.6683
-4.5498,6.5072,-0.58537,-2.6797,-0.66007,-0.91057,7.8049,-2.0065,6.439,-2.6797,-0.66007,2.6534,-24.127001,-11.492,-12.571,-2.5765,-6.3768,2.3833,2.6667,-10.509,1.8035
-0.12638,3.9553,-1.2358,-7.9085,-6.6007,-4.813,2.6016,-2.6537,3.8374,-7.9085,-6.6007,-2.6534,-19.683001,-10.222,-8.7619,-3.2206,-7.6651,-16.296,4.5714,-9.1954,2.4477
-2.0221,1.4035,-2.5366,-6.6013,-7.2607,-6.1138,1.3008,-2.0065,2.5366,-6.6013,-7.2607,-3.3167,-13.333,-5.1429,-6.2222,-1.9324,-5.7327,-6.6345,10.286,-2.6273,4.38
-12.133,-3.0622,-7.7398,-9.2157,-4.6205,-10.016,-1.3008,-7.8317,-0.71545,-9.2157,-4.6205,-6.6335,-8.254,-0.06349,-8.127,-1.9324,-5.0886,-5.9903,9.6508,-3.9409,1.8035
-5.8136,0.12759,-2.5366,-5.2941,-2.6403,-4.813,0.0,-3.9482,0.58537,-5.2941,-2.6403,-3.3167,3.8095,9.4603,0.7619,3.8647,5.2174,3.6715,-0.50794,-1.3136,3.0918
1.1374,-1.1483,-0.58537,-3.9869,-2.6403,-0.91057,-1.9512,-1.3592,-1.3659,-3.9869,-2.6403,-1.99,6.9841,12.0,5.8413,3.2206,9.0821,1.095,-7.4921,-1.3136,0.5153
7.4566,-1.1483,-0.58537,-3.9869,-5.2805,0.39024,-1.9512,2.5243,-4.6179,-3.9869,-5.2805,-1.3267,10.794,12.0,9.0159,3.2206,10.37,-0.19324,-8.127,0.65681,-7.2142
9.3523,0.76555,0.06504,-3.3333,-7.2607,1.6911,-1.3008,1.877,-4.6179,-3.3333,-7.2607,0.0,19.683001,13.905,14.095,6.4412,12.947,12.689,-1.1429,5.9113,-3.9936
2.4013,-1.7863,-3.8374,-2.0261,-1.9802,-0.26016,-5.2033,0.58252,-3.9675,-2.0261,-1.9802,-1.99,17.143,9.4603,9.0159,5.7971,9.7262,-10.499,6.4762,2.6273,3.0918
-1.3902,-1.7863,-4.4878,-0.06536,-3.3003,-0.26016,-5.8537,-0.06472,-5.9187,-0.06536,-3.3003,-1.99,12.063,5.6508,4.5714,5.7971,7.1498,-1.4815,-2.4127,0.65681,1.8035
4.9289,3.9553,2.0163,4.5098,-3.9604,4.9431,0.0,5.7605,-4.6179,4.5098,-3.9604,3.3167,9.5238,4.381,7.1111,9.0177,7.7939,10.757,2.0317,4.5977,6.3124
9.3523,3.9553,-1.2358,1.2418,-8.5809,4.2927,-3.252,3.1715,-1.3659,1.2418,-8.5809,0.0,-1.2698,-1.9683,3.3016,5.153,0.70853,-2.7697,7.1111,-1.3136,6.9565
3.6651,-3.0622,-10.341,-3.3333,-6.6007,-2.8618,-9.7561,-1.3592,-5.9187,-3.3333,-6.6007,-7.9602,-13.968,-13.397,-6.2222,-5.153,-10.886,-2.1256,-4.9524,-7.8818,-3.3494
-3.2859,-2.4242,-11.642,-3.9869,-3.9604,-4.813,-7.8049,-3.301,-6.5691,-3.9869,-3.9604,-8.6235,-14.603,-13.397,-9.3968,-5.153,-11.53,1.095,-3.6825,-9.8522,-2.7053
-8.3412,4.5933,-7.0894,-0.06536,-1.9802,-2.8618,1.9512,-0.71197,2.5366,-0.06536,-1.9802,-3.3167,-8.8889,-3.2381,-7.4921,2.5765,-5.0886,-9.8551,10.921,-8.5386,6.9565
-8.9731,8.4211,-1.8862,-1.3725,-1.3201,-2.8618,4.5528,-3.301,5.1382,-1.3725,-1.3201,0.0,-3.1746,3.746,-6.2222,6.4412,-1.2238,-2.1256,8.381,-3.9409,9.533
-4.5498,9.059,0.71545,-5.2941,0.66007,-4.813,1.9512,-7.1845,5.1382,-5.2941,0.66007,0.0,2.5397,6.9206,-1.7778,8.3736,0.70853,12.689,7.746,3.2841,14.042
