C3,C4,Cz,F1,F2,F3,F4,F7,F8,Fp1,Fp2,Fz,O1,O2,P3,P4,Pz,T3,T4,T5,T6
16.934999,17.351999,10.732,12.683,18.627001,13.333,11.65,3.8188,11.586,12.683,18.627001,9.8522,11.374,8.5079,18.136,15.459,12.625,-3.9553,14.413,0.0,4.6571
8.4044,14.482,6.8293,15.61,18.627001,7.5081,8.7379,3.8188,14.498,15.61,18.627001,4.9261,11.374,6.6032,13.397,12.56,10.692,6.571,4.8889,2.9557,5.614
-5.8136,5.8692,-1.9512,15.61,13.725,-2.2006,3.8835,0.90615,14.498,15.61,13.725,0.0,6.6351,2.7937,1.0742,2.8986,2.963,-3.9553,2.0317,0.98522,3.7002
-13.397,-3.7002,-8.7805,13.659,13.725,-2.2006,-0.97087,2.8479,6.7314,13.659,13.725,-3.9409,1.8957,0.88889,-10.3,-3.8647,-4.7665,-8.74,1.0794,-0.98522,2.7432
-14.344,-7.5279,-7.8049,13.659,16.667,-0.2589,0.0,-0.06472,6.7314,13.659,16.667,-0.98522,-7.5829,-2.9206,-18.830999,-5.7971,-10.564,-5.8692,1.0794,-5.9113,0.82935
-14.344,-7.5279,-4.878,17.561001,18.627001,-3.1715,2.9126,-2.0065,10.615,17.561001,18.627001,3.9409,-14.218,-2.9206,-23.57,-7.7295,-14.428,-3.9553,6.7937,-10.837,1.7863
-9.6051,-4.6571,-3.9024,15.61,20.587999,-1.2298,6.7961,2.8479,4.7896,15.61,20.587999,4.9261,-11.374,3.746,-19.778999,-4.8309,-13.462,0.82935,4.8889,-7.8818,5.614
2.7172,1.0845,0.97561,14.634,18.627001,6.5372,9.7087,2.8479,-0.06472,14.634,18.627001,7.8818,-1.8957,11.365,-7.4566,1.9324,-5.7327,4.6571,1.0794,5.9113,11.356
13.144,9.697,10.732,18.537001,13.725,17.216999,12.621,7.7023,4.7896,18.537001,13.725,13.793,9.4787,17.079,9.6051,11.594,7.7939,5.614,1.0794,12.808,12.313
15.987,15.439,14.634,16.584999,15.686,14.304,14.563,8.6731,8.6731,16.584999,15.686,16.749001,19.905001,21.841,20.032,17.391001,18.422001,-7.7831,4.8889,13.793,13.27
8.4044,15.439,12.683,6.8293,9.8039,12.362,11.65,-0.06472,7.7023,6.8293,9.8039,12.808,24.645,21.841,21.927,18.357,23.253,-17.351999,8.6984,11.823,12.313
4.613,19.266001,14.634,12.683,15.686,12.362,13.592,-3.9482,4.7896,12.683,15.686,12.808,21.801001,18.983999,19.084,19.323999,24.219,-6.8262,2.0317,9.8522,12.313
2.7172,18.309,13.659,10.732,10.784,4.5955,12.621,-1.0356,10.615,10.732,10.784,10.837,8.5308,5.6508,10.553,14.493,15.523,-7.7831,2.9841,-0.98522,7.5279
6.5087,13.525,11.707,15.61,17.646999,5.5663,12.621,11.586,12.557,15.61,17.646999,10.837,-5.6872,-9.5873,4.8657,4.8309,3.9291,1.7863,11.556,-8.867,-2.0415
11.248,7.7831,5.8537,24.389999,21.569,12.362,12.621,21.294001,15.469,24.389999,21.569,12.808,-12.322,-17.205999,1.0742,-1.9324,-3.8003,12.313,12.508,-10.837,-8.74
14.092,4.9123,5.8537,19.511999,18.627001,14.304,13.592,17.410999,17.410999,19.511999,18.627001,11.823,-9.4787,-9.5873,2.0221,-0.96618,-1.868,15.183,8.6984,-6.8966,-4.9123
11.248,3.9553,11.707,16.584999,15.686,14.304,12.621,13.528,11.586,16.584999,15.686,9.8522,-8.5308,-0.06349,-0.82148,0.0,0.06441,10.399,8.6984,-8.867,-0.12759
7.4566,-3.7002,13.659,15.61,13.725,7.5081,7.767,11.586,13.528,15.61,13.725,7.8818,-7.5829,5.6508,-1.7694,-4.8309,-1.868,8.4848,6.7937,-2.9557,2.7432
-1.0742,-15.183,3.9024,5.8537,4.902,-2.2006,-4.8544,0.90615,3.8188,5.8537,4.902,-1.9704,-6.6351,2.7937,-3.6651,-11.594,-7.6651,-1.0845,2.0317,-6.8966,0.82935
-5.8136,-17.097,-3.9024,-4.878,-3.9216,-5.1133,-9.7087,-6.8608,-2.9773,-4.878,-3.9216,-8.867,-1.8957,2.7937,-0.82148,-11.594,-7.6651,0.82935,-2.7302,-2.9557,-1.0845
2.7172,-5.614,1.9512,-1.9512,6.8627,-0.2589,-1.9417,-3.9482,1.877,-1.9512,6.8627,-1.9704,15.166,12.317,13.397,0.96618,4.8953,10.399,-0.8254,15.764,3.7002
8.4044,3.9553,6.8293,-3.9024,3.9216,-0.2589,1.9417,-5.89,5.7605,-3.9024,3.9216,1.9704,24.645,18.032,20.032,8.6957,14.557,15.183,-7.4921,23.645,4.6571
5.5608,11.611,9.7561,-5.8537,-2.9412,-6.0841,4.8544,-9.7735,4.7896,-5.8537,-2.9412,0.0,24.645,16.127001,16.24,12.56,18.422001,12.313,-8.4444,20.690001,9.4418
-2.97,10.654,5.8537,-5.8537,-3.9216,-11.909,3.8835,-15.599,-0.06472,-5.8537,-3.9216,-2.9557,17.062,9.4603,5.8136,9.6618,11.659,-1.0845,4.8889,12.808,10.399
-10.553,2.9984,-5.8537,-9.7561,-4.902,-13.851,-1.9417,-19.482,0.90615,-9.7561,-4.902,-7.8818,1.8957,-1.9683,-9.3523,0.0,-2.8341,-6.8262,10.603,0.0,7.5279
-10.553,-5.614,-13.659,-9.7561,-8.8235,-14.822,-8.7379,-14.628,-2.9773,-9.7561,-8.8235,-11.823,-15.166,-13.397,-18.830999,-9.6618,-17.327,-9.697,2.9841,-10.837,-0.12759
-10.553,-10.399,-14.634,-8.7805,-7.8431,-8.0259,-11.65,-6.8608,-2.9773,-8.7805,-7.8431,-12.808,-25.591999,-20.063,-23.57,-13.527,-22.158001,-15.439,2.9841,-17.733999,-4.9123
-12.449,-5.614,-9.7561,-9.7561,-7.8431,-3.1715,-10.68,-2.9773,1.877,-9.7561,-7.8431,-9.8522,-28.436001,-19.111,-25.466,-11.594,-21.191999,-25.007999,2.9841,-20.690001,-4.9123
-9.6051,1.0845,-2.9268,0.97561,1.9608,-4.1424,-6.7961,2.8479,5.7605,0.97561,1.9608,-2.9557,-23.697001,-13.397,-18.830999,-7.7295,-14.428,-20.223,8.6984,-13.793,-3.9553
-6.7615,2.9984,-0.97561,6.8293,2.9412,-0.2589,-4.8544,4.7896,7.7023,6.8293,2.9412,-0.98522,-10.427,-2.9206,-9.3523,-0.96618,-6.6989,-8.74,9.6508,-10.837,-0.12759
-5.8136,-0.82935,-3.9024,4.878,1.9608,2.6537,-1.9417,4.7896,4.7896,4.878,1.9608,-2.9557,3.7915,6.6032,-1.7694,0.96618,-2.8341,-3.9553,2.0317,-7.8818,0.82935
-3.9179,-6.571,-7.8049,0.0,1.9608,-2.2006,-5.8252,1.877,6.7314,0.0,1.9608,-6.8966,13.27,13.27,5.8136,0.96618,1.0306,-0.12759,0.12698,0.98522,3.7002
-3.9179,-9.4418,-13.659,-3.9024,-2.9412,-8.0259,-9.7087,-2.0065,0.90615,-3.9024,-2.9412,-13.793,18.009001,15.175,6.7615,-1.9324,1.0306,-1.0845,0.12698,1.9704,7.5279
-2.0221,-11.356,-14.634,1.9512,-0.98039,-7.055,-9.7087,-1.0356,-4.9191,1.9512,-0.98039,-14.778,18.009001,13.27,5.8136,-5.7971,0.06441,9.4418,4.8889,3.9409,6.571
-0.12638,-10.399,-12.683,-2.9268,-3.9216,-9.9676,-9.7087,-2.9773,-2.9773,-2.9268,-3.9216,-13.793,9.4787,2.7937,2.0221,-9.6618,-3.8003,11.356,2.9841,0.0,-1.0845
3.6651,-8.4848,-6.8293,-0.97561,2.9412,-1.2298,-1.9417,0.90615,4.7896,-0.97561,2.9412,-5.9113,-3.7915,-8.6349,-1.7694,-10.628,-5.7327,3.7002,1.0794,-2.9557,-2.9984
-1.0742,-4.6571,-5.8537,-0.97561,2.9412,1.6828,1.9417,-2.0065,7.7023,-0.97561,2.9412,-0.98522,-21.801001,-21.968,-12.196,-11.594,-12.496,-10.654,0.12698,-12.808,-6.8262
-11.501,-1.7863,-8.7805,-6.8293,0.98039,-7.055,2.9126,-6.8608,7.7023,-6.8293,0.98039,-2.9557,-32.227001,-26.73,-23.57,-11.594,-20.225,-17.351999,-2.7302,-18.719,-5.8692
-17.188,1.0845,-9.7561,-5.8537,-0.98039,-10.939,4.8544,-4.9191,6.7314,-5.8537,-0.98039,-4.9261,-29.384001,-21.016001,-25.466,-5.7971,-19.259001,-9.697,-3.6825,-16.749001,0.82935
-13.397,0.12759,-4.878,1.9512,6.8627,-9.9676,3.8835,-2.0065,5.7605,1.9512,6.8627,-4.9261,-21.801001,-15.302,-18.830999,-2.8986,-13.462,-7.7831,0.12698,-21.674999,5.614
-3.9179,1.0845,0.97561,9.7561,8.8235,-5.1133,0.97087,1.877,0.90615,9.7561,8.8235,-1.9704,-13.27,-10.54,-7.4566,-2.8986,-6.6989,-13.525,-0.8254,-15.764,2.7432
1.7694,2.0415,1.9512,14.634,8.8235,1.6828,3.8835,6.7314,3.8188,14.634,8.8235,2.9557,-3.7915,-3.873,1.0742,-1.9324,-0.90177,-8.74,-10.349,-5.9113,1.7863
-2.97,-2.7432,-7.8049,8.7805,6.8627,4.5955,0.97087,7.7023,7.7023,8.7805,6.8627,0.98522,6.6351,4.6984,1.0742,-1.9324,-0.90177,-2.9984,-3.6825,-1.9704,2.7432
-6.7615,-5.614,-12.683,3.9024,5.8824,0.71197,-3.8835,4.7896,2.8479,3.9024,5.8824,-1.9704,12.322,11.365,0.12638,-2.8986,-3.8003,-5.8692,5.8413,5.9113,4.6571
-8.6572,-6.571,-10.732,-2.9268,0.0,-5.1133,-6.7961,-0.06472,-0.06472,-2.9268,0.0,-7.8818,13.27,13.27,-2.7172,-4.8309,-5.7327,-12.568,4.8889,7.8818,4.6571
-7.7093,-5.614,-4.878,-2.9268,-0.98039,-11.909,-2.9126,-1.0356,-6.8608,-2.9268,-0.98039,-8.867,11.374,11.365,-4.613,-5.7971,-6.6989,-14.482,2.9841,2.9557,0.82935
-5.8136,-1.7863,0.0,-1.9512,-5.8824,-8.0259,-1.9417,-1.0356,-3.9482,-1.9512,-5.8824,-5.9113,7.5829,4.6984,-8.4044,-5.7971,-6.6989,-6.8262,0.12698,-3.9409,-1.0845
-2.0221,3.9553,4.878,4.878,7.8431,2.6537,5.8252,4.7896,2.8479,4.878,7.8431,2.9557,2.8436,-1.9683,-8.4044,-2.8986,-2.8341,-0.12759,4.8889,-13.793,-3.9553
2.7172,7.7831,0.97561,15.61,10.784,10.421,10.68,9.644,10.615,15.61,10.784,6.8966,-2.8436,-10.54,-3.6651,0.96618,2.963,-0.12759,6.7937,-17.733999,-8.74
7.4566,3.9553,-4.878,11.707,5.8824,8.479,6.7961,10.615,10.615,11.707,5.8824,2.9557,-6.6351,-14.349,2.97,1.9324,6.8277,-1.0845,1.0794,-9.8522,-10.654
8.4044,3.9553,0.0,5.8537,5.8824,2.6537,4.8544,10.615,4.7896,5.8537,5.8824,1.9704,-11.374,-13.397,4.8657,3.8647,5.8615,7.5279,-6.5397,-3.9409,-9.697
0.82148,2.0415,3.9024,4.878,4.902,-0.2589,0.0,2.8479,0.90615,4.878,4.902,0.98522,-21.801001,-14.349,-2.7172,0.96618,-5.7327,11.356,-12.254,-3.9409,-4.9123
-2.97,-0.82935,2.9268,2.9268,2.9412,0.71197,-2.9126,-0.06472,-5.89,2.9268,2.9412,0.0,-25.591999,-15.302,-9.3523,-4.8309,-15.395,6.571,-5.5873,-0.98522,-2.0415
1.7694,0.12759,5.8537,-2.9268,-5.8824,3.6246,-3.8835,0.90615,-13.657,-2.9268,-5.8824,0.0,-17.062,-11.492,-4.613,-6.7633,-14.428,5.614,-3.6825,11.823,-0.12759
7.4566,-6.571,1.9512,-2.9268,-6.8627,4.5955,-5.8252,1.877,-14.628,-2.9268,-6.8627,-0.98522,-9.4787,-8.6349,1.0742,-10.628,-10.564,-2.0415,-7.4921,11.823,1.7863
10.3,-15.183,-6.8293,0.97561,-7.8431,4.5955,-9.7087,4.7896,-8.8026,0.97561,-7.8431,-4.9261,-4.7393,-7.6825,3.9179,-15.459,-8.6312,0.82935,-5.5873,9.8522,1.7863
9.3523,-18.054001,-14.634,-0.97561,-8.8235,-2.2006,-14.563,2.8479,-7.8317,-0.97561,-8.8235,-9.8522,-2.8436,-5.7778,3.9179,-15.459,-9.5974,10.399,-6.5397,14.778,1.7863
1.7694,-17.097,-21.462999,-6.8293,-9.8039,-10.939,-16.504999,1.877,-17.540001,-6.8293,-9.8039,-13.793,0.94787,-1.0159,0.12638,-12.56,-9.5974,13.27,-6.5397,13.793,1.7863
-6.7615,-13.27,-20.488001,-7.8049,-12.745,-12.88,-15.534,-0.06472,-17.540001,-7.8049,-12.745,-10.837,3.7915,3.746,-8.4044,-6.7633,-7.6651,7.5279,-5.5873,9.8522,0.82935
-10.553,-9.4418,-9.7561,-5.8537,-10.784,-5.1133,-11.65,-0.06472,-13.657,-5.8537,-10.784,-3.9409,0.94787,4.6984,-13.144,-4.8309,-3.8003,-0.12759,-8.4444,0.98522,-2.0415
-4.8657,-1.7863,5.8537,2.9268,0.98039,3.6246,-0.97087,6.7314,-8.8026,2.9268,0.98039,5.9113,0.0,5.6508,-7.4566,-0.96618,3.9291,6.571,-16.063,-3.9409,-3.9553
3.6651,5.8692,15.61,9.7561,7.8431,7.5081,6.7961,9.644,-0.06472,9.7561,7.8431,11.823,0.94787,3.746,2.0221,1.9324,8.7601,8.4848,-6.5397,-1.9704,-3.9553
10.3,11.611,18.537001,12.683,9.8039,11.392,10.68,13.528,6.7314,12.683,9.8039,15.764,0.0,-1.9683,9.6051,3.8647,10.692,11.356,7.746,-4.9261,-5.8692
7.4566,7.7831,10.732,12.683,6.8627,10.421,6.7961,13.528,3.8188,12.683,6.8627,10.837,-6.6351,-11.492,5.8136,0.0,3.9291,7.5279,4.8889,-11.823,-8.74
4.613,2.0415,1.9512,7.8049,3.9216,6.5372,-0.97087,9.644,-0.06472,7.8049,3.9216,0.98522,-10.427,-16.254,0.12638,0.0,0.06441,5.614,-1.7778,-7.8818,-7.7831
3.6651,0.12759,-1.9512,-1.9512,-1.9608,-1.2298,-7.767,4.7896,-4.9191,-1.9512,-1.9608,-6.8966,-11.374,-14.349,-1.7694,0.0,-0.90177,11.356,-4.6349,-3.9409,-3.9553
-0.12638,-6.571,-3.9024,-7.8049,-9.8039,-8.9968,-9.7087,-4.9191,-6.8608,-7.8049,-9.8039,-9.8522,-11.374,-15.302,-3.6651,-10.628,-5.7327,3.7002,-6.5397,-2.9557,-5.8692
3.6651,-3.7002,3.9024,1.9512,-1.9608,-5.1133,0.97087,-2.0065,-4.9191,1.9512,-1.9608,1.9704,-0.94787,-7.6825,3.9179,-11.594,-0.90177,2.7432,-4.6349,5.9113,-4.9123
6.5087,-1.7863,-0.97561,7.8049,4.902,0.71197,2.9126,1.877,1.877,7.8049,4.902,4.9261,9.4787,0.88889,11.501,-6.7633,5.8615,7.5279,-6.5397,10.837,-1.0845
4.613,-2.7432,-10.732,0.97561,-0.98039,-1.2298,-6.7961,-0.06472,-2.0065,0.97561,-0.98039,-4.9261,15.166,8.5079,13.397,0.0,10.692,2.7432,-4.6349,14.778,3.7002
-1.0742,-6.571,-16.584999,-7.8049,-14.706,-8.0259,-16.504999,0.90615,-8.8026,-7.8049,-14.706,-15.764,16.114,12.317,9.6051,1.9324,7.7939,8.4848,-12.254,18.719,4.6571
-9.6051,-9.4418,-15.61,-9.7561,-16.667,-11.909,-19.417,-1.0356,-12.686,-9.7561,-16.667,-19.704,11.374,13.27,-3.6651,0.0,0.06441,8.4848,-12.254,13.793,3.7002
-17.188,-13.27,-9.7561,-11.707,-18.627001,-16.764,-20.388,-3.9482,-22.395,-11.707,-18.627001,-19.704,1.8957,7.5556,-16.934999,-5.7971,-9.5974,3.7002,-8.4444,3.9409,-1.0845
-13.397,-15.183,-0.97561,-8.7805,-11.765,-12.88,-16.504999,-4.9191,-20.452999,-8.7805,-11.765,-12.808,-6.6351,0.88889,-21.674999,-11.594,-16.361,6.571,-8.4444,-5.9113,-6.8262
-2.97,-15.183,0.0,-5.8537,-10.784,-0.2589,-12.621,1.877,-6.8608,-5.8537,-10.784,-3.9409,-9.4787,-3.873,-13.144,-13.527,-16.361,7.5279,-6.5397,-7.8818,-8.74
3.6651,-10.399,-12.683,-2.9268,-7.8431,-0.2589,-7.767,6.7314,-3.9482,-2.9268,-7.8431,-0.98522,-10.427,-4.8254,-4.613,-10.628,-14.428,13.27,-2.7302,0.0,-8.74
5.5608,-1.7863,-17.561001,3.9024,-0.98039,-0.2589,-2.9126,5.7605,-2.9773,3.9024,-0.98039,0.98522,-6.6351,-1.9683,2.0221,-1.9324,-4.7665,9.4418,-1.7778,-2.9557,-4.9123
10.3,6.8262,-5.8537,8.7805,6.8627,5.5663,4.8544,8.6731,0.90615,8.7805,6.8627,6.8966,0.94787,2.7937,10.553,7.7295,7.7939,11.356,2.0317,1.9704,1.7863
2.7172,8.74,1.9512,2.9268,1.9608,2.6537,4.8544,3.8188,1.877,2.9268,1.9608,4.9261,0.0,-1.9683,4.8657,5.7971,9.7262,9.4418,-5.5873,-0.98522,-2.0415
-8.6572,4.9123,5.8537,-5.8537,-3.9216,-5.1133,0.97087,-6.8608,1.877,-5.8537,-3.9216,0.0,-3.7915,-10.54,-5.5608,1.9324,5.8615,-2.9984,-8.4444,-11.823,-4.9123
-9.6051,-2.7432,8.7805,-4.878,-0.98039,-2.2006,-1.9417,-5.89,4.7896,-4.878,-0.98039,0.98522,-6.6351,-13.397,-12.196,-3.8647,1.0306,-7.7831,-0.8254,-17.733999,-7.7831
-2.0221,-3.7002,12.683,5.8537,6.8627,7.5081,1.9417,-1.0356,7.7023,5.8537,6.8627,7.8818,-6.6351,-7.6825,-10.3,-4.8309,1.0306,-12.568,8.6984,-10.837,-6.8262
-0.12638,2.9984,11.707,4.878,6.8627,2.6537,7.767,-2.0065,10.615,4.878,6.8627,8.867,-7.5829,-2.9206,-7.4566,-2.8986,2.963,-7.7831,5.8413,-11.823,-4.9123
-6.7615,2.9984,-0.97561,-2.9268,0.98039,-8.0259,4.8544,-7.8317,4.7896,-2.9268,0.98039,0.0,-11.374,-1.0159,-9.3523,-1.9324,-2.8341,-1.0845,4.8889,-17.733999,-4.9123
-7.7093,5.8692,-9.7561,1.9512,0.98039,-12.88,2.9126,-3.9482,1.877,1.9512,0.98039,-3.9409,-3.7915,9.4603,-5.5608,5.7971,-1.868,-0.12759,4.8889,-7.8818,-0.12759
-9.6051,0.12759,-21.462999,-0.97561,-3.9216,-15.793,-5.8252,-5.89,-2.0065,-0.97561,-3.9216,-8.867,8.5308,19.937,-2.7172,8.6957,-2.8341,-0.12759,4.8889,2.9557,6.571
-12.449,-8.4848,-32.195,-7.8049,-5.8824,-15.793,-13.592,-8.8026,-3.9482,-7.8049,-5.8824,-15.764,14.218,19.937,-2.7172,4.8309,-7.6651,-0.12759,3.9365,6.8966,5.614
-12.449,-13.27,-34.146,-7.8049,-9.8039,-11.909,-17.476,-6.8608,-11.715,-7.8049,-9.8039,-19.704,16.114,15.175,-2.7172,1.9324,-6.6989,-6.8262,-3.6825,8.867,1.7863
-7.7093,-18.054001,-27.316999,-11.707,-11.765,-9.9676,-17.476,-4.9191,-11.715,-11.707,-11.765,-19.704,14.218,8.5079,0.12638,-1.9324,-1.868,-2.0415,-10.349,10.837,-1.0845
-2.0221,-15.183,-11.707,-6.8293,-6.8627,-1.2298,-9.7087,-1.0356,-0.06472,-6.8293,-6.8627,-11.823,9.4787,-0.06349,2.0221,-7.7295,1.9968,5.614,-15.111,8.867,-5.8692
5.5608,-6.571,8.7805,5.8537,7.8431,2.6537,0.97087,2.8479,2.8479,5.8537,7.8431,3.9409,1.8957,-6.7302,2.0221,-11.594,1.0306,1.7863,-13.206,6.8966,-4.9123
10.3,1.0845,21.462999,6.8293,7.8431,3.6246,6.7961,2.8479,6.7314,6.8293,7.8431,11.823,-6.6351,-11.492,2.0221,-10.628,0.06441,-7.7831,1.0794,0.0,-5.8692
11.248,6.8262,21.462999,4.878,6.8627,6.5372,9.7087,-0.06472,6.7314,4.878,6.8627,12.808,-11.374,-12.444,2.97,-1.9324,1.9968,-6.8262,9.6508,-10.837,-2.0415
11.248,13.525,13.659,9.7561,9.8039,12.362,11.65,3.8188,4.7896,9.7561,9.8039,13.793,-7.5829,-6.7302,4.8657,9.6618,5.8615,-1.0845,11.556,-10.837,0.82935
11.248,19.266001,9.7561,10.732,8.8235,17.216999,14.563,7.7023,10.615,10.732,8.8235,14.778,0.94787,0.88889,8.6572,17.391001,10.692,13.27,10.603,0.98522,0.82935
6.5087,18.309,11.707,6.8293,7.8431,13.333,16.504999,5.7605,7.7023,6.8293,7.8431,12.808,7.5829,6.6032,6.7615,17.391001,12.625,12.313,8.6984,1.9704,-2.0415
3.6651,16.396,18.537001,4.878,7.8431,10.421,15.534,3.8188,7.7023,4.878,7.8431,11.823,13.27,15.175,7.7093,19.323999,16.49,5.614,6.7937,2.9557,0.82935
3.6651,18.309,24.389999,0.97561,1.9608,6.5372,10.68,-5.89,11.586,0.97561,1.9608,9.8522,18.957001,22.794001,9.6051,24.155001,20.354,-6.8262,11.556,4.9261,11.356
2.7172,15.439,19.511999,-2.9268,0.98039,0.71197,8.7379,-9.7735,7.7023,-2.9268,0.98039,7.8818,21.801001,25.650999,10.553,24.155001,19.388,-10.654,3.9365,5.9113,16.139999
3.6651,8.74,5.8537,-1.9512,2.9412,-0.2589,7.767,-8.8026,-0.06472,-1.9512,2.9412,4.9261,21.801001,23.746,11.501,18.357,16.49,-4.9123,-1.7778,5.9113,15.183
3.6651,2.0415,-8.7805,-5.8537,-3.9216,-5.1133,-0.97087,-5.89,-2.9773,-5.8537,-3.9216,-0.98522,16.114,16.127001,8.6572,10.628,9.7262,-4.9123,3.9365,9.8522,13.27
1.7694,-1.7863,-12.683,-4.878,-1.9608,-8.0259,-2.9126,-8.8026,-9.7735,-4.878,-1.9608,-3.9409,7.5829,7.5556,3.9179,3.8647,1.9968,-6.8262,5.8413,3.9409,11.356
-2.0221,-6.571,-10.732,-6.8293,-3.9216,-5.1133,-6.7961,-6.8608,-2.9773,-6.8293,-3.9216,-6.8966,-0.94787,-1.0159,-2.7172,-5.7971,-6.6989,-7.7831,1.0794,-0.98522,4.6571
-4.8657,-7.5279,-7.8049,-2.9268,-3.9216,-0.2589,-7.767,-0.06472,0.90615,-2.9268,-3.9216,-5.9113,-8.5308,-7.6825,-11.248,-12.56,-16.361,-1.0845,-1.7778,0.0,-0.12759
-6.7615,-7.5279,-4.878,-0.97561,-4.902,1.6828,-9.7087,3.8188,-2.9773,-0.97561,-4.902,-7.8818,-12.322,-10.54,-15.039,-11.594,-18.292999,-0.12759,-3.6825,-0.98522,-2.0415
-4.8657,-1.7863,0.97561,-0.97561,-3.9216,-2.2006,-7.767,4.7896,-6.8608,-0.97561,-3.9216,-7.8818,-7.5829,-5.7778,-8.4044,0.0,-8.6312,-2.9984,-3.6825,-0.98522,-2.0415
0.82148,4.9123,6.8293,0.97561,-2.9412,-1.2298,-0.97087,5.7605,-4.9191,0.97561,-2.9412,-0.98522,3.7915,1.8413,4.8657,13.527,7.7939,1.7863,-5.5873,0.0,0.82935
7.4566,9.697,14.634,8.7805,7.8431,11.392,9.7087,8.6731,-0.06472,8.7805,7.8431,9.8522,12.322,7.5556,14.344,21.256001,19.388,3.7002,4.8889,3.9409,2.7432
15.987,13.525,24.389999,16.584999,15.686,23.042,18.447001,14.498,4.7896,16.584999,15.686,20.690001,16.114,10.413,20.032,23.188,26.150999,7.5279,2.9841,5.9113,-2.0415
21.674999,13.525,29.268,15.61,13.725,30.809,17.476,17.410999,4.7896,15.61,13.725,24.631001,16.114,10.413,21.927,19.323999,27.118,12.313,1.0794,12.808,-9.697
18.830999,8.74,18.537001,7.8049,2.9412,24.983999,7.767,8.6731,7.7023,7.8049,2.9412,17.733999,11.374,8.5079,16.24,12.56,21.32,11.356,6.7937,1.9704,-13.525
13.144,6.8262,5.8537,5.8537,5.8824,13.333,5.8252,4.7896,7.7023,5.8537,5.8824,11.823,5.6872,8.5079,11.501,9.6618,13.591,16.139999,4.8889,-4.9261,-8.74
9.3523,6.8262,0.0,6.8293,9.8039,6.5372,7.767,8.6731,1.877,6.8293,9.8039,8.867,0.94787,7.5556,7.7093,7.7295,6.8277,16.139999,5.8413,1.9704,-2.9984
3.6651,5.8692,-0.97561,4.878,5.8824,-1.2298,6.7961,3.8188,-7.8317,4.878,5.8824,4.9261,-4.7393,4.6984,3.9179,4.8309,0.06441,6.571,1.0794,6.8966,0.82935
2.7172,5.8692,2.9268,-4.878,-6.8627,-7.055,3.8835,-1.0356,-5.89,-4.878,-6.8627,-0.98522,-8.5308,0.88889,0.12638,4.8309,-3.8003,-4.9123,1.0794,7.8818,7.5279
2.7172,1.0845,4.878,-8.7805,-15.686,-7.055,-4.8544,-3.9482,-7.8317,-8.7805,-15.686,-5.9113,-6.6351,-1.0159,-1.7694,3.8647,-5.7327,-13.525,1.0794,8.867,12.313
-1.0742,-6.571,-0.97561,-6.8293,-13.725,-6.0841,-13.592,-5.89,-20.452999,-6.8293,-13.725,-11.823,0.94787,0.88889,-2.7172,-1.9324,-7.6651,1.7863,-10.349,11.823,15.183
-11.501,-19.968,-13.659,-12.683,-13.725,-14.822,-22.33,-10.744,-20.452999,-12.683,-13.725,-19.704,4.7393,-1.0159,-7.4566,-11.594,-13.462,4.6571,-10.349,10.837,10.399
-20.979,-27.624001,-27.316999,-19.511999,-17.646999,-16.764,-26.214001,-10.744,-17.540001,-19.511999,-17.646999,-24.631001,3.7915,-3.873,-14.092,-16.424999,-19.259001,-2.9984,-7.4921,8.867,7.5279
-20.032,-19.011,-23.415001,-14.634,-19.608,-15.793,-19.417,-2.9773,-20.452999,-14.634,-19.608,-21.674999,3.7915,-1.0159,-13.144,-9.6618,-13.462,-9.697,-13.206,0.0,6.571
-7.7093,-2.7432,0.97561,-2.9268,-5.8824,-7.055,-6.7961,4.7896,-14.628,-2.9268,-5.8824,-6.8966,5.6872,4.6984,-1.7694,0.96618,0.06441,-6.8262,-3.6825,-5.9113,4.6571
2.7172,9.697,17.561001,2.9268,-2.9412,6.5372,3.8835,9.644,-4.9191,2.9268,-2.9412,5.9113,6.6351,7.5556,9.6051,8.6957,10.692,-4.9123,2.9841,-5.9113,4.6571
6.5087,11.611,14.634,4.878,0.98039,11.392,8.7379,9.644,-2.0065,4.878,0.98039,9.8522,5.6872,8.5079,9.6051,9.6618,12.625,4.6571,3.9365,-6.8966,1.7863
9.3523,14.482,10.732,5.8537,5.8824,8.479,12.621,12.557,-3.9482,5.8537,5.8824,9.8522,-0.94787,3.746,8.6572,8.6957,12.625,11.356,2.9841,-7.8818,-4.9123
11.248,18.309,15.61,2.9268,1.9608,7.5081,14.563,7.7023,7.7023,2.9268,1.9608,8.867,-5.6872,-1.9683,8.6572,11.594,13.591,4.6571,-0.8254,-6.8966,-5.8692
12.196,19.266001,20.488001,0.97561,0.0,6.5372,12.621,5.7605,13.528,0.97561,0.0,10.837,-6.6351,-2.9206,8.6572,14.493,10.692,5.614,5.8413,-5.9113,-1.0845
10.3,13.525,16.584999,2.9268,3.9216,6.5372,13.592,5.7605,6.7314,2.9268,3.9216,12.808,-5.6872,-2.9206,5.8136,8.6957,1.9968,5.614,12.508,0.98522,-2.9984
7.4566,2.0415,6.8293,4.878,9.8039,9.4498,11.65,5.7605,1.877,4.878,9.8039,11.823,-5.6872,-5.7778,1.0742,-2.8986,-9.5974,7.5279,6.7937,5.9113,-9.697
-2.0221,-4.6571,-3.9024,0.97561,5.8824,3.6246,4.8544,1.877,0.90615,0.97561,5.8824,4.9261,-3.7915,-6.7302,-7.4566,-8.6957,-17.327,0.82935,-2.7302,10.837,-7.7831
-15.292,-9.4418,-14.634,-12.683,-5.8824,-8.9968,-4.8544,-7.8317,-0.06472,-12.683,-5.8824,-7.8818,-3.7915,-7.6825,-15.039,-10.628,-21.191999,1.7863,-4.6349,11.823,-1.0845
-17.188,-8.4848,-18.537001,-13.659,-9.8039,-12.88,-8.7379,-11.715,-4.9191,-13.659,-9.8039,-13.793,-1.8957,-4.8254,-15.039,-8.6957,-17.327,-1.0845,-0.8254,4.9261,1.7863
-12.449,-7.5279,-14.634,-8.7805,-6.8627,-14.822,-7.767,-10.744,-3.9482,-8.7805,-6.8627,-12.808,-0.94787,-3.873,-6.5087,-5.7971,-8.6312,-7.7831,1.0794,2.9557,1.7863
-6.7615,-7.5279,-14.634,-2.9268,-3.9216,-4.1424,-6.7961,-7.8317,-2.0065,-2.9268,-3.9216,-8.867,-0.94787,-4.8254,0.12638,-7.7295,-2.8341,-7.7831,-6.5397,5.9113,0.82935
-0.12638,-5.614,-9.7561,4.878,6.8627,0.71197,0.97087,-1.0356,-7.8317,4.878,6.8627,-0.98522,0.0,-4.8254,2.0221,-10.628,0.06441,-4.9123,-10.349,3.9409,0.82935
2.7172,-7.5279,-0.97561,4.878,1.9608,-0.2589,2.9126,4.7896,-6.8608,4.878,1.9608,3.9409,-1.8957,-5.7778,-0.82148,-13.527,-0.90177,-3.9553,-5.5873,-1.9704,-2.0415
5.5608,-5.614,9.7561,5.8537,2.9412,5.5663,2.9126,6.7314,1.877,5.8537,2.9412,4.9261,-3.7915,-7.6825,-0.82148,-10.628,0.06441,-0.12759,0.12698,-2.9557,-3.9553
6.5087,4.9123,16.584999,2.9268,2.9412,5.5663,3.8835,3.8188,1.877,2.9268,2.9412,2.9557,-6.6351,-8.6349,2.0221,-4.8309,1.9968,2.7432,-1.7778,-2.9557,-2.0415
4.613,14.482,17.561001,3.9024,9.8039,3.6246,7.767,-1.0356,6.7314,3.9024,9.8039,0.0,-8.5308,-9.5873,4.8657,0.96618,1.0306,0.82935,2.0317,0.0,0.82935
3.6651,23.094,11.707,4.878,5.8824,-0.2589,4.8544,-2.0065,6.7314,4.878,5.8824,-0.98522,-6.6351,-6.7302,5.8136,7.7295,-0.90177,-2.0415,3.9365,-0.98522,1.7863
4.613,26.922001,0.97561,2.9268,1.9608,-0.2589,3.8835,5.7605,8.6731,2.9268,1.9608,0.0,1.8957,2.7937,8.6572,13.527,3.9291,1.7863,13.46,-0.98522,4.6571
5.5608,25.965,-3.9024,0.0,0.98039,1.6828,4.8544,9.644,5.7605,0.0,0.98039,0.98522,8.5308,10.413,8.6572,15.459,9.7262,6.571,12.508,-7.8818,2.7432
9.3523,29.792999,7.8049,5.8537,4.902,9.4498,13.592,14.498,7.7023,5.8537,4.902,11.823,10.427,15.175,8.6572,16.424999,13.591,13.27,1.0794,-10.837,2.7432
10.3,29.792999,17.561001,9.7561,10.784,19.159,21.358999,16.440001,7.7023,9.7561,10.784,19.704,6.6351,14.222,2.97,11.594,10.692,11.356,-0.8254,-7.8818,-1.0845
6.5087,18.309,15.61,14.634,14.706,19.159,18.447001,15.469,5.7605,14.634,14.706,20.690001,-2.8436,4.6984,-2.7172,2.8986,3.9291,9.4418,2.0317,-4.9261,-4.9123
0.82148,4.9123,5.8537,7.8049,3.9216,16.246,8.7379,7.7023,-2.9773,7.8049,3.9216,10.837,-11.374,-5.7778,-7.4566,-7.7295,-4.7665,8.4848,-0.8254,-4.9261,-8.74
-7.7093,-2.7432,-7.8049,-4.878,-1.9608,4.5955,-2.9126,-2.9773,-6.8608,-4.878,-1.9608,-1.9704,-14.218,-14.349,-12.196,-15.459,-13.462,-6.8262,-0.8254,-5.9113,-4.9123
-16.24,-12.313,-20.488001,-17.561001,-11.765,-19.676001,-18.447001,-17.540001,-3.9482,-17.561001,-11.765,-16.749001,-18.009001,-23.872999,-15.039,-23.188,-23.124001,-16.396,2.0317,-3.9409,-2.9984
-16.24,-17.097,-27.316999,-20.488001,-16.667,-25.502001,-26.214001,-20.452999,-11.715,-20.488001,-16.667,-23.645,-17.062,-27.683001,-15.039,-27.052999,-28.921,-16.396,-8.4444,1.9704,-2.9984
-9.6051,-17.097,-27.316999,-13.659,-10.784,-16.764,-22.33,-14.628,-9.7735,-13.659,-10.784,-18.719,-13.27,-25.778,-12.196,-26.087,-26.023001,-11.611,-7.4921,13.793,-1.0845
-9.6051,-11.356,-25.365999,-3.9024,-2.9412,-8.9968,-9.7087,-11.715,-2.0065,-3.9024,-2.9412,-9.8522,-10.427,-17.205999,-12.196,-19.323999,-22.158001,-6.8262,2.9841,4.9261,-0.12759
-10.553,0.12759,-16.584999,0.97561,5.8824,-8.9968,2.9126,-10.744,3.8188,0.97561,5.8824,-1.9704,0.94787,-0.06349,-7.4566,-5.7971,-9.5974,-7.7831,-0.8254,-3.9409,2.7432
-7.7093,10.654,-3.9024,-0.97561,0.98039,-8.0259,8.7379,-14.628,6.7314,-0.97561,0.98039,0.98522,15.166,19.937,3.9179,14.493,10.692,-11.611,-1.7778,-0.98522,7.5279
-4.8657,14.482,5.8537,-2.9268,4.902,-0.2589,11.65,-10.744,3.8188,-2.9268,4.902,2.9557,23.697001,32.317001,11.501,26.087,24.219,-3.9553,7.746,3.9409,15.183
-2.0221,10.654,10.732,6.8293,12.745,0.71197,7.767,-2.0065,9.644,6.8293,12.745,4.9261,21.801001,31.365,12.449,24.155001,26.150999,-0.12759,11.556,2.9557,15.183
4.613,4.9123,17.561001,13.659,16.667,4.5955,7.767,4.7896,16.440001,13.659,16.667,8.867,12.322,22.794001,9.6051,16.424999,22.287001,-5.8692,9.6508,1.9704,10.399
10.3,3.9553,23.415001,14.634,18.627001,12.362,12.621,9.644,14.498,14.634,18.627001,14.778,1.8957,10.413,5.8136,9.6618,15.523,8.4848,5.8413,2.9557,4.6571
9.3523,4.9123,20.488001,12.683,12.745,11.392,11.65,9.644,9.644,12.683,12.745,13.793,-8.5308,-4.8254,-0.82148,2.8986,4.8953,18.054001,2.9841,2.9557,-2.0415
2.7172,4.9123,9.7561,5.8537,4.902,5.5663,7.767,7.7023,3.8188,5.8537,4.902,8.867,-21.801001,-21.968,-8.4044,-6.7633,-9.5974,8.4848,-4.6349,-4.9261,-9.697
0.82148,3.9553,2.9268,8.7805,5.8824,3.6246,5.8252,6.7314,-0.06472,8.7805,5.8824,7.8818,-28.436001,-34.348999,-6.5087,-16.424999,-15.395,1.7863,-9.3968,-4.9261,-17.351999
1.7694,5.8692,1.9512,8.7805,7.8431,5.5663,7.767,1.877,-4.9191,8.7805,7.8431,6.8966,-22.749001,-35.301998,0.12638,-16.424999,-10.564,2.7432,-8.4444,-4.9261,-21.18
-2.97,2.9984,-3.9024,0.97561,3.9216,-4.1424,4.8544,-2.0065,-2.9773,0.97561,3.9216,0.98522,-12.322,-28.635,2.0221,-14.493,-7.6651,-0.12759,-2.7302,-3.9409,-19.266001
-11.501,-2.7432,-12.683,-7.8049,-1.9608,-17.735001,0.0,-4.9191,4.7896,-7.8049,-1.9608,-6.8966,-3.7915,-17.205999,-3.6651,-13.527,-11.53,-6.8262,2.9841,-1.9704,-14.482
-15.292,-8.4848,-17.561001,-12.683,-4.902,-13.851,-4.8544,-9.7735,3.8188,-12.683,-4.902,-10.837,8.5308,-1.0159,-10.3,-10.628,-14.428,-11.611,4.8889,1.9704,-4.9123
-10.553,-14.226,-15.61,-13.659,-7.8431,-8.0259,-8.7379,-11.715,3.8188,-13.659,-7.8431,-11.823,18.957001,14.222,-9.3523,-6.7633,-10.564,-8.74,-0.8254,7.8818,3.7002
-2.97,-15.183,-8.7805,-5.8537,-4.902,-1.2298,-9.7087,-5.89,0.90615,-5.8537,-4.902,-6.8966,21.801001,23.746,-5.5608,-0.96618,-1.868,-7.7831,-3.6825,9.8522,10.399
1.7694,-14.226,-1.9512,5.8537,1.9608,5.5663,-5.8252,-2.9773,-0.06472,5.8537,1.9608,0.0,18.009001,26.603001,-2.7172,-0.96618,4.8953,-9.697,-1.7778,4.9261,15.183
0.82148,-15.183,-1.9512,2.9268,1.9608,3.6246,-4.8544,-2.0065,-1.0356,2.9268,1.9608,0.98522,5.6872,20.889,-1.7694,-6.7633,4.8953,-9.697,2.9841,-1.9704,14.226
-4.8657,-16.139999,-9.7561,0.97561,2.9412,-2.2006,-5.8252,-5.89,-2.9773,0.97561,2.9412,-3.9409,-2.8436,12.317,-4.613,-14.493,-0.90177,-7.7831,0.12698,-4.9261,5.614
-3.9179,-8.4848,-7.8049,0.97561,0.98039,-3.1715,-3.8835,-4.9191,-4.9191,0.97561,0.98039,-4.9261,-0.94787,11.365,1.0742,-10.628,0.06441,-2.0415,-7.4921,0.98522,0.82935
1.7694,-3.7002,1.9512,0.97561,-0.98039,-7.055,0.97087,-2.9773,3.8188,0.97561,-0.98039,-1.9704,0.0,6.6032,8.6572,-2.8986,5.8615,2.7432,-7.4921,4.9261,-2.0415
11.248,-5.614,14.634,3.9024,1.9608,-3.1715,0.0,-2.0065,9.644,3.9024,1.9608,2.9557,-3.7915,-6.7302,17.188,0.96618,8.7601,9.4418,4.8889,11.823,-6.8262
19.778999,-7.5279,24.389999,6.8293,8.8235,13.333,-2.9126,3.8188,-0.06472,6.8293,8.8235,9.8522,-6.6351,-18.159,20.032,0.0,5.8615,12.313,6.7937,7.8818,-11.611
17.882999,-6.571,20.488001,6.8293,6.8627,20.129,-1.9417,10.615,-0.06472,6.8293,6.8627,12.808,-6.6351,-25.778,15.292,-3.8647,-1.868,16.139999,2.0317,1.9704,-17.351999
6.5087,-3.7002,4.878,2.9268,3.9216,8.479,0.97087,9.644,-2.0065,2.9268,3.9216,7.8818,-6.6351,-22.921,5.8136,-2.8986,-5.7327,8.4848,4.8889,-0.98522,-10.654
-9.6051,-1.7863,-12.683,-3.9024,-2.9412,-5.1133,-2.9126,3.8188,-9.7735,-3.9024,-2.9412,-4.9261,-4.7393,-15.302,-4.613,0.96618,-7.6651,-0.12759,1.0794,-7.8818,-0.12759
-16.24,-0.82935,-15.61,-9.7561,-4.902,-11.909,-4.8544,-0.06472,-1.0356,-9.7561,-4.902,-11.823,4.7393,-1.0159,-6.5087,9.6618,-1.868,-3.9553,1.0794,-5.9113,14.226
-11.501,3.9553,-7.8049,-3.9024,-1.9608,-11.909,-2.9126,-2.0065,2.8479,-3.9024,-1.9608,-10.837,17.062,16.127001,2.0221,23.188,12.625,-13.525,3.9365,0.0,23.796
-3.9179,4.9123,0.97561,1.9512,0.98039,-6.0841,0.97087,-1.0356,-3.9482,1.9512,0.98039,-7.8818,19.905001,25.650999,5.8136,28.986,20.354,-10.654,-1.7778,4.9261,24.753
-10.553,-5.614,-2.9268,-4.878,-8.8235,-9.9676,-7.767,-2.0065,-2.9773,-4.878,-8.8235,-9.8522,7.5829,21.841,-3.6651,17.391001,9.7262,-2.0415,-8.4444,0.98522,18.054001
-18.136,-19.011,-16.584999,-4.878,-8.8235,-10.939,-11.65,-4.9191,-7.8317,-4.878,-8.8235,-11.823,-5.6872,12.317,-19.778999,-1.9324,-8.6312,-10.654,-14.159,-4.9261,6.571
-15.292,-20.924999,-18.537001,0.0,0.0,-6.0841,-4.8544,-5.89,-9.7735,0.0,0.0,-4.9261,-11.374,3.746,-24.518,-17.391001,-17.327,-14.482,-13.206,-7.8818,-6.8262
1.7694,-12.313,-2.9268,0.0,-3.9216,3.6246,0.97087,-1.0356,-9.7735,0.0,-3.9216,4.9261,-5.6872,0.88889,-6.5087,-17.391001,-5.7327,-2.0415,-4.6349,1.9704,-9.697
19.778999,1.0845,14.634,2.9268,-0.98039,13.333,3.8835,1.877,-2.9773,2.9268,-0.98039,12.808,6.6351,2.7937,16.24,-6.7633,12.625,5.614,1.0794,6.8966,-6.8262
25.466,2.9984,20.488001,2.9268,-1.9608,15.275,0.0,-1.0356,5.7605,2.9268,-1.9608,11.823,15.166,6.6032,29.51,3.8647,22.287001,6.571,5.8413,10.837,-3.9553
26.414,1.0845,19.511999,1.9512,-2.9412,17.216999,-6.7961,-1.0356,1.877,1.9512,-2.9412,4.9261,19.905001,7.5556,33.301998,9.6618,26.150999,7.5279,11.556,16.749001,-0.12759
19.778999,-0.82935,12.683,-1.9512,-8.8235,9.4498,-14.563,-0.06472,-2.9773,-1.9512,-8.8235,-4.9261,14.218,1.8413,29.51,8.6957,23.253,5.614,6.7937,14.778,-2.9984
7.4566,-3.7002,6.8293,-6.8293,-9.8039,-1.2298,-17.476,-2.9773,-5.89,-6.8293,-9.8039,-12.808,7.5829,-4.8254,17.188,3.8647,15.523,10.399,2.9841,8.867,-4.9123
-2.0221,-4.6571,5.8537,-8.7805,-13.725,-9.9676,-16.504999,-1.0356,-7.8317,-8.7805,-13.725,-15.764,6.6351,-5.7778,6.7615,0.96618,8.7601,7.5279,-0.8254,3.9409,-3.9553
-1.0742,-1.7863,4.878,-8.7805,-11.765,-10.939,-7.767,3.8188,-8.8026,-8.7805,-11.765,-12.808,6.6351,-3.873,2.97,1.9324,7.7939,-0.12759,-3.6825,1.9704,-1.0845
1.7694,-3.7002,-1.9512,-5.8537,-6.8627,-10.939,-5.8252,9.644,-5.89,-5.8537,-6.8627,-11.823,3.7915,-1.0159,1.0742,2.8986,5.8615,0.82935,-8.4444,0.98522,4.6571
-2.97,-6.571,-17.561001,-1.9512,-3.9216,-6.0841,-4.8544,10.615,-2.0065,-1.9512,-3.9216,-9.8522,-5.6872,-0.06349,-9.3523,0.0,-3.8003,8.4848,-3.6825,-3.9409,8.4848
-6.7615,-4.6571,-26.341,4.878,1.9608,3.6246,3.8835,12.557,-1.0356,4.878,1.9608,-3.9409,-9.4787,4.6984,-16.934999,0.0,-11.53,2.7432,1.0794,-4.9261,14.226
-5.8136,-6.571,-24.389999,9.7561,3.9216,2.6537,0.97087,12.557,-3.9482,9.7561,3.9216,-3.9409,-10.427,7.5556,-15.987,-0.96618,-12.496,1.7863,-4.6349,-0.98522,14.226
-2.0221,-4.6571,-7.8049,6.8293,0.0,0.71197,0.0,11.586,-5.89,6.8293,0.0,-1.9704,-4.7393,10.413,-8.4044,3.8647,-4.7665,5.614,-9.3968,-4.9261,10.399
-2.0221,-8.4848,1.9512,0.0,-5.8824,-0.2589,-2.9126,6.7314,-8.8026,0.0,-5.8824,-3.9409,-1.8957,6.6032,-4.613,-0.96618,-1.868,4.6571,-12.254,-8.867,1.7863
-2.97,-15.183,3.9024,-1.9512,0.0,-2.2006,-1.9417,0.90615,-7.8317,-1.9512,0.0,-1.9704,-0.94787,0.88889,-0.82148,-10.628,-6.6989,-3.9553,-6.5397,-2.9557,-6.8262
-3.9179,-16.139999,-6.8293,1.9512,5.8824,-0.2589,-0.97087,1.877,0.90615,1.9512,5.8824,-0.98522,-0.94787,-6.7302,1.0742,-16.424999,-12.496,-5.8692,-7.4921,2.9557,-17.351999
-1.0742,-9.4418,-12.683,-0.97561,2.9412,-4.1424,-0.97087,0.90615,2.8479,-0.97561,2.9412,-3.9409,0.94787,-8.6349,4.8657,-9.6618,-6.6989,0.82935,-6.5397,4.9261,-16.396
3.6651,-0.82935,-3.9024,-6.8293,-6.8627,-7.055,-8.7379,-2.9773,4.7896,-6.8293,-6.8627,-5.9113,4.7393,-2.9206,10.553,3.8647,6.8277,-2.9984,-6.5397,5.9113,-9.697
11.248,5.8692,13.659,-4.878,-7.8431,-4.1424,-12.621,-5.89,3.8188,-4.878,-7.8431,-3.9409,4.7393,-0.06349,14.344,11.594,17.455999,-8.74,-1.7778,2.9557,-4.9123
15.987,8.74,25.365999,-6.8293,-7.8431,3.6246,-8.7379,-3.9482,5.7605,-6.8293,-7.8431,-0.98522,-0.94787,-3.873,13.397,13.527,19.388,-2.9984,12.508,-1.9704,-1.0845
16.934999,11.611,25.365999,-1.9512,-0.98039,9.4498,-1.9417,1.877,5.7605,-1.9512,-0.98039,3.9409,-6.6351,-7.6825,8.6572,12.56,14.557,5.614,19.174999,-4.9261,1.7863
22.622,19.266001,18.537001,5.8537,0.0,21.1,3.8835,12.557,5.7605,5.8537,0.0,8.867,-3.7915,-1.9683,10.553,15.459,14.557,15.183,20.127001,0.0,6.571
28.309999,19.266001,13.659,9.7561,1.9608,24.983999,4.8544,17.410999,-2.9773,9.7561,1.9608,9.8522,5.6872,12.317,16.24,19.323999,20.354,21.882,18.222,12.808,14.226
20.726999,4.9123,2.9268,-1.9512,-12.745,10.421,-11.65,12.557,-8.8026,-1.9512,-12.745,-5.9113,9.4787,20.889,15.292,14.493,16.49,16.139999,5.8413,11.823,15.183
10.3,-8.4848,-5.8537,-11.707,-18.627001,-7.055,-23.301001,3.8188,-9.7735,-11.707,-18.627001,-18.719,11.374,23.746,15.292,8.6957,10.692,5.614,-3.6825,11.823,15.183
-0.12638,-16.139999,-9.7561,-13.659,-21.569,-21.618,-29.125999,-4.9191,-19.482,-13.659,-21.569,-24.631001,12.322,23.746,10.553,0.96618,1.0306,-3.9553,-12.254,19.704,11.356
-7.7093,-13.27,-7.8049,-20.488001,-25.49,-23.559999,-27.184,-11.715,-24.337,-20.488001,-25.49,-24.631001,14.218,23.746,5.8136,-0.96618,-4.7665,3.7002,-14.159,12.808,10.399
-12.449,-8.4848,-10.732,-21.462999,-24.51,-22.589001,-22.33,-14.628,-19.482,-21.462999,-24.51,-21.674999,14.218,18.983999,-0.82148,0.0,-7.6651,0.82935,-13.206,3.9409,6.571
-12.449,-6.571,-14.634,-14.634,-17.646999,-19.676001,-17.476,-15.599,-15.599,-14.634,-17.646999,-19.704,9.4787,7.5556,-3.6651,-1.9324,-10.564,-9.697,-17.016001,-0.98522,-1.0845
-10.553,-11.356,-19.511999,-11.707,-12.745,-16.764,-16.504999,-16.57,-14.628,-11.707,-12.745,-17.733999,1.8957,-4.8254,-8.4044,-9.6618,-13.462,-13.525,-13.206,-6.8966,-8.74
-5.8136,-18.054001,-23.415001,-12.683,-15.686,-18.705999,-21.358999,-11.715,-13.657,-12.683,-15.686,-17.733999,0.0,-8.6349,-11.248,-16.424999,-12.496,-13.525,-5.5873,-13.793,-13.525
5.5608,-15.183,-12.683,-11.707,-13.725,-9.9676,-18.447001,-6.8608,-8.8026,-11.707,-13.725,-7.8818,0.0,-3.873,-4.613,-12.56,-1.868,-9.697,0.12698,-14.778,-12.568
16.934999,-4.6571,12.683,-0.97561,-7.8431,5.5663,-4.8544,0.90615,-2.9773,-0.97561,-7.8431,7.8818,1.8957,5.6508,4.8657,-1.9324,11.659,-19.266001,2.9841,-15.764,-5.8692
17.882999,9.697,33.171001,13.659,7.8431,21.1,13.592,11.586,0.90615,13.659,7.8431,23.645,0.0,10.413,5.8136,10.628,18.422001,-10.654,2.0317,-16.749001,0.82935
15.987,25.965,37.073002,17.561001,11.765,33.722,21.358999,19.353001,1.877,17.561001,11.765,28.570999,-0.94787,10.413,6.7615,21.256001,22.287001,10.399,3.9365,-9.8522,3.7002
17.882999,27.879,28.292999,18.537001,10.784,31.780001,22.33,24.207001,4.7896,18.537001,10.784,26.601,0.94787,6.6032,12.449,25.121,23.253,23.796,5.8413,1.9704,2.7432
21.674999,27.879,22.438999,25.365999,14.706,26.926001,26.214001,27.120001,11.586,25.365999,14.706,25.615999,4.7393,3.746,20.032,26.087,23.253,22.839001,8.6984,12.808,2.7432
20.726999,28.836,18.537001,27.316999,18.627001,20.129,23.301001,22.264999,9.644,27.316999,18.627001,21.674999,4.7393,0.88889,20.979,24.155001,19.388,19.968,2.9841,11.823,3.7002
10.3,22.136999,11.707,18.537001,14.706,8.479,13.592,16.440001,8.6731,18.537001,14.706,11.823,0.94787,-2.9206,13.397,19.323999,8.7601,18.054001,4.8889,5.9113,4.6571
-1.0742,13.525,-0.97561,6.8293,7.8431,-2.2006,6.7961,6.7314,10.615,6.8293,7.8431,0.98522,-2.8436,-7.6825,2.0221,12.56,-2.8341,9.4418,3.9365,0.98522,6.571
-13.397,1.0845,-13.659,-1.9512,-0.98039,-15.793,-2.9126,-3.9482,5.7605,-1.9512,-0.98039,-9.8522,-6.6351,-11.492,-10.3,3.8647,-13.462,-5.8692,-1.7778,-6.8966,-0.12759
-19.084,-6.571,-12.683,-5.8537,0.0,-18.705999,-7.767,-10.744,-2.0065,-5.8537,0.0,-12.808,-9.4787,-12.444,-17.882999,-0.96618,-15.395,-12.568,-2.7302,-7.8818,-4.9123
-21.927,-4.6571,-4.878,-6.8293,-1.9608,-16.764,-7.767,-11.715,-6.8608,-6.8293,-1.9608,-7.8818,-9.4787,-10.54,-22.622,-0.96618,-13.462,-10.654,-4.6349,-8.867,-5.8692
-21.927,-3.7002,-3.9024,-7.8049,-3.9216,-10.939,-4.8544,-11.715,-11.715,-7.8049,-3.9216,-1.9704,-8.5308,-8.6349,-23.57,-1.9324,-10.564,-15.439,-4.6349,-6.8966,-2.9984
-13.397,0.12759,-3.9024,-7.8049,-0.98039,-3.1715,-0.97087,-11.715,-8.8026,-7.8049,-0.98039,0.98522,-4.7393,-3.873,-17.882999,0.0,-4.7665,-7.7831,-2.7302,-4.9261,-1.0845
-3.9179,0.12759,-6.8293,-4.878,-3.9216,-0.2589,-0.97087,-8.8026,-5.89,-4.878,-3.9216,-0.98522,-3.7915,-1.0159,-10.3,-2.8986,-1.868,-2.9984,0.12698,-1.9704,-4.9123
0.82148,-4.6571,-14.634,-3.9024,-3.9216,-2.2006,2.9126,-5.89,-0.06472,-3.9024,-3.9216,-0.98522,-3.7915,-4.8254,-7.4566,-10.628,-6.6989,-7.7831,1.0794,0.0,-9.697
1.7694,-4.6571,-19.511999,-1.9512,0.0,2.6537,8.7379,-0.06472,6.7314,-1.9512,0.0,0.98522,-3.7915,-6.7302,-6.5087,-14.493,-11.53,-1.0845,-5.5873,0.0,-8.74
-5.8136,-0.82935,-18.537001,4.878,9.8039,1.6828,13.592,3.8188,6.7314,4.878,9.8039,2.9557,-4.7393,-7.6825,-9.3523,-14.493,-13.462,-3.9553,-8.4444,-1.9704,-7.7831
-10.553,1.0845,-10.732,9.7561,10.784,1.6828,17.476,7.7023,4.7896,9.7561,10.784,5.9113,-4.7393,-8.6349,-10.3,-10.628,-10.564,-11.611,1.0794,-13.793,-6.8262
-10.553,0.12759,-2.9268,11.707,13.725,6.5372,21.358999,7.7023,15.469,11.707,13.725,8.867,-8.5308,-12.444,-9.3523,-8.6957,-8.6312,-2.9984,10.603,-20.690001,-6.8262
-2.0221,1.0845,6.8293,15.61,21.569,10.421,21.358999,6.7314,27.120001,15.61,21.569,11.823,-8.5308,-16.254,-1.7694,-4.8309,-6.6989,6.571,10.603,-11.823,-7.7831
10.3,3.9553,16.584999,15.61,25.49,9.4498,21.358999,1.877,29.061001,15.61,25.49,14.778,-6.6351,-18.159,8.6572,-2.8986,-0.90177,7.5279,11.556,-1.9704,-13.525
11.248,8.74,21.462999,14.634,23.528999,9.4498,26.214001,-4.9191,26.149,14.634,23.528999,18.719,-5.6872,-20.063,10.553,-2.8986,1.9968,6.571,9.6508,1.9704,-20.223
7.4566,14.482,23.415001,14.634,29.412001,9.4498,33.009998,-5.89,27.120001,14.634,29.412001,21.674999,-3.7915,-14.349,9.6051,1.9324,8.7601,-0.12759,9.6508,2.9557,-16.396
0.82148,15.439,19.511999,6.8293,21.569,7.5081,32.039001,-9.7735,28.091,6.8293,21.569,17.733999,-2.8436,-9.5873,6.7615,4.8309,10.692,-6.8262,15.365,0.98522,-6.8262
-4.8657,12.568,14.634,0.97561,14.706,0.71197,23.301001,-13.657,21.294001,0.97561,14.706,12.808,-3.7915,-3.873,3.9179,6.7633,7.7939,-10.654,15.365,-0.98522,3.7002
-4.8657,10.654,9.7561,-2.9268,7.8431,-9.9676,10.68,-14.628,6.7314,-2.9268,7.8431,9.8522,-4.7393,-0.06349,2.0221,6.7633,1.9968,-17.351999,4.8889,1.9704,13.27
-7.7093,2.9984,-0.97561,-9.7561,-3.9216,-10.939,-1.9417,-17.540001,1.877,-9.7561,-3.9216,0.98522,-5.6872,0.88889,-3.6651,0.0,-7.6651,-6.8262,1.0794,3.9409,16.139999
-15.292,-8.4848,-14.634,-18.537001,-10.784,-8.9968,-10.68,-21.424,-7.8317,-18.537001,-10.784,-8.867,-3.7915,2.7937,-10.3,-9.6618,-16.361,-2.0415,-9.3968,7.8818,13.27
-23.823,-17.097,-24.389999,-20.488001,-13.725,-15.793,-11.65,-19.482,-13.657,-20.488001,-13.725,-16.749001,-2.8436,3.746,-17.882999,-15.459,-22.158001,-8.74,-7.4921,0.98522,8.4848
-27.615,-20.924999,-30.243999,-16.584999,-12.745,-21.618,-12.621,-17.540001,-11.715,-16.584999,-12.745,-19.704,1.8957,9.4603,-18.830999,-15.459,-20.225,-13.525,1.0794,-2.9557,6.571
-23.823,-18.054001,-33.171001,-13.659,-8.8235,-16.764,-12.621,-10.744,-8.8026,-13.659,-8.8235,-19.704,7.5829,14.222,-15.987,-9.6618,-15.395,-12.568,-0.8254,-0.98522,7.5279
-14.344,-15.183,-29.268,-4.878,2.9412,-8.0259,-6.7961,-3.9482,-0.06472,-4.878,2.9412,-12.808,8.5308,13.27,-11.248,-4.8309,-9.5974,-4.9123,3.9365,-0.98522,7.5279
-0.12638,-8.4848,-12.683,6.8293,12.745,0.71197,4.8544,0.90615,5.7605,6.8293,12.745,0.0,7.5829,6.6032,-2.7172,-0.96618,-1.868,-5.8692,5.8413,-4.9261,1.7863
13.144,6.8262,7.8049,15.61,23.528999,9.4498,18.447001,7.7023,14.498,15.61,23.528999,13.793,5.6872,1.8413,7.7093,8.6957,11.659,-4.9123,2.9841,-7.8818,-2.0415
18.830999,17.351999,21.462999,16.584999,23.528999,13.333,17.476,9.644,18.382,16.584999,23.528999,17.733999,4.7393,-1.9683,16.24,18.357,22.287001,6.571,2.9841,-10.837,-4.9123
12.196,16.396,19.511999,5.8537,12.745,6.5372,8.7379,3.8188,11.586,5.8537,12.745,10.837,-0.94787,-8.6349,13.397,17.391001,18.422001,8.4848,6.7937,-10.837,-7.7831
-0.12638,4.9123,6.8293,-2.9268,0.0,-2.2006,-5.8252,-4.9191,-1.0356,-2.9268,0.0,0.0,-7.5829,-14.349,3.9179,7.7295,4.8953,-1.0845,-0.8254,-10.837,-9.697
-1.0742,-1.7863,1.9512,-0.97561,2.9412,-3.1715,-7.767,-8.8026,-5.89,-0.97561,2.9412,-1.9704,-8.5308,-12.444,1.0742,0.0,-4.7665,4.6571,-1.7778,-5.9113,-5.8692
2.7172,-0.82935,5.8537,5.8537,6.8627,2.6537,7.767,-5.89,4.7896,5.8537,6.8627,8.867,-9.4787,-10.54,-0.82148,-8.6957,-11.53,-0.12759,2.0317,-1.9704,-6.8262
12.196,9.697,15.61,14.634,16.667,15.275,29.125999,7.7023,17.410999,14.634,16.667,25.615999,-10.427,-5.7778,3.9179,-9.6618,-9.5974,-8.74,1.0794,2.9557,-7.7831
15.039,17.351999,18.537001,13.659,15.686,21.1,31.068001,12.557,14.498,13.659,15.686,29.556999,-11.374,-1.0159,5.8136,-5.7971,-2.8341,2.7432,-3.6825,-0.98522,-3.9553
13.144,18.309,16.584999,16.584999,16.667,24.013,29.125999,15.469,9.644,16.584999,16.667,25.615999,-2.8436,10.413,7.7093,4.8309,5.8615,18.054001,-1.7778,2.9557,6.571
10.3,15.439,9.7561,16.584999,14.706,23.042,23.301001,16.440001,0.90615,16.584999,14.706,19.704,11.374,23.746,11.501,14.493,13.591,20.924999,-2.7302,17.733999,13.27
9.3523,8.74,4.878,15.61,8.8235,15.275,11.65,18.382,-6.8608,15.61,8.8235,12.808,25.591999,30.413,15.292,16.424999,18.422001,24.753,-7.4921,25.615999,13.27
10.3,0.12759,2.9268,12.683,4.902,4.5955,3.8835,15.469,-17.540001,12.683,4.902,7.8818,30.332001,26.603001,17.188,9.6618,17.455999,22.839001,-17.016001,32.512001,5.614
5.5608,-11.356,-0.97561,4.878,0.98039,0.71197,-2.9126,8.6731,-18.511,4.878,0.98039,2.9557,26.540001,14.222,11.501,-2.8986,8.7601,12.313,-20.825001,28.570999,-2.0415
-5.8136,-21.882,-6.8293,-5.8537,-6.8627,-9.9676,-9.7087,-7.8317,-10.744,-5.8537,-6.8627,-5.9113,13.27,-4.8254,1.0742,-14.493,-1.868,-9.697,-13.206,14.778,-4.9123
-15.292,-20.924999,-7.8049,-11.707,-9.8039,-13.851,-7.767,-13.657,-4.9191,-11.707,-9.8039,-6.8966,-1.8957,-19.111,-6.5087,-17.391001,-8.6312,-14.482,-0.8254,1.9704,-3.9553
-16.24,-4.6571,0.0,-3.9024,3.9216,-7.055,10.68,-11.715,4.7896,-3.9024,3.9216,3.9409,-9.4787,-19.111,-9.3523,-9.6618,-8.6312,-13.525,11.556,-7.8818,0.82935
-15.292,6.8262,6.8293,0.97561,10.784,-3.1715,17.476,-12.686,16.440001,0.97561,10.784,8.867,-20.853001,-18.159,-14.092,-2.8986,-9.5974,-13.525,18.222,-19.704,1.7863
-7.7093,15.439,12.683,3.9024,13.725,0.71197,17.476,-8.8026,17.410999,3.9024,13.725,12.808,-24.645,-15.302,-10.3,4.8309,-4.7665,-4.9123,17.27,-20.690001,1.7863
5.5608,22.136999,22.438999,9.7561,15.686,9.4498,21.358999,-1.0356,17.410999,9.7561,15.686,18.719,-16.114,-2.9206,2.0221,17.391001,9.7262,0.82935,19.174999,-18.719,4.6571
11.248,23.094,22.438999,12.683,15.686,14.304,20.388,2.8479,8.6731,12.683,15.686,17.733999,-1.8957,11.365,11.501,23.188,19.388,1.7863,12.508,-11.823,6.571
9.3523,15.439,12.683,7.8049,5.8824,12.362,14.563,5.7605,8.6731,7.8049,5.8824,11.823,5.6872,18.032,13.397,18.357,16.49,-1.0845,5.8413,0.98522,3.7002
4.613,4.9123,4.878,3.9024,6.8627,9.4498,16.504999,9.644,5.7605,3.9024,6.8627,10.837,8.5308,20.889,8.6572,8.6957,8.7601,4.6571,-2.7302,4.9261,7.5279
-1.0742,-5.614,-2.9268,0.97561,2.9412,8.479,9.7087,7.7023,1.877,0.97561,2.9412,4.9261,10.427,19.937,2.0221,-1.9324,1.9968,13.27,-8.4444,7.8818,10.399
-2.0221,-15.183,-8.7805,-2.9268,-2.9412,2.6537,-2.9126,1.877,-2.0065,-2.9268,-2.9412,-2.9557,13.27,19.937,2.97,-7.7295,1.0306,11.356,-8.4444,14.778,16.139999
-5.8136,-23.796,-18.537001,-3.9024,-1.9608,-8.0259,-11.65,-6.8608,-8.8026,-3.9024,-1.9608,-13.793,18.009001,18.983999,2.97,-11.594,-1.868,0.82935,-0.8254,17.733999,19.011
-11.501,-26.667,-30.243999,-13.659,-13.725,-21.618,-22.33,-13.657,-10.744,-13.659,-13.725,-24.631001,16.114,9.4603,0.12638,-14.493,-9.5974,-8.74,3.9365,16.749001,14.226
-15.292,-23.796,-32.195,-21.462999,-20.587999,-29.385,-27.184,-14.628,-11.715,-21.462999,-20.587999,-30.542,8.5308,-5.7778,-4.613,-19.323999,-17.327,-7.7831,1.0794,13.793,2.7432
-16.24,-20.924999,-28.292999,-21.462999,-20.587999,-22.589001,-25.243,-12.686,-6.8608,-21.462999,-20.587999,-28.570999,-1.8957,-18.159,-9.3523,-23.188,-23.124001,-5.8692,1.0794,6.8966,-5.8692
-10.553,-13.27,-16.584999,-14.634,-12.745,-12.88,-16.504999,-10.744,-4.9191,-14.634,-12.745,-17.733999,-6.6351,-20.063,-7.4566,-21.256001,-20.225,-7.7831,2.9841,4.9261,-8.74
-12.449,-9.4418,-13.659,-7.8049,-4.902,-12.88,-6.7961,-6.8608,-3.9482,-7.8049,-4.902,-9.8522,-9.4787,-16.254,-11.248,-18.357,-20.225,-2.9984,3.9365,-3.9409,-6.8262
-14.344,-6.571,-13.659,-4.878,1.9608,-13.851,-0.97087,-8.8026,1.877,-4.878,1.9608,-4.9261,-9.4787,-9.5873,-12.196,-10.628,-16.361,-2.0415,4.8889,-13.793,1.7863
-10.553,0.12759,-5.8537,0.0,-1.9608,-6.0841,-1.9417,-8.8026,3.8188,0.0,-1.9608,-1.9704,-6.6351,-2.9206,-6.5087,0.0,-4.7665,-7.7831,4.8889,-13.793,7.5279
-2.97,6.8262,5.8537,6.8293,4.902,2.6537,2.9126,-3.9482,2.8479,6.8293,4.902,5.9113,-4.7393,1.8413,-1.7694,7.7295,4.8953,-8.74,1.0794,-9.8522,7.5279
6.5087,12.568,15.61,8.7805,6.8627,8.479,5.8252,5.7605,2.8479,8.7805,6.8627,12.808,-3.7915,4.6984,4.8657,14.493,13.591,-5.8692,-2.7302,-5.9113,5.614
11.248,13.525,17.561001,6.8293,6.8627,10.421,2.9126,12.557,0.90615,6.8293,6.8627,12.808,-2.8436,8.5079,7.7093,18.357,14.557,-3.9553,5.8413,-3.9409,5.614
14.092,15.439,13.659,5.8537,4.902,10.421,4.8544,14.498,5.7605,5.8537,4.902,10.837,-1.8957,13.27,7.7093,23.188,15.523,4.6571,8.6984,-3.9409,8.4848
15.987,16.396,12.683,11.707,6.8627,17.216999,11.65,18.382,10.615,11.707,6.8627,12.808,1.8957,16.127001,8.6572,24.155001,15.523,17.097,11.556,-1.9704,11.356
14.092,15.439,14.634,14.634,6.8627,22.070999,12.621,25.177999,3.8188,14.634,6.8627,12.808,7.5829,19.937,8.6572,21.256001,15.523,18.054001,9.6508,2.9557,11.356
9.3523,9.697,12.683,13.659,9.8039,17.216999,8.7379,20.323999,1.877,13.659,9.8039,8.867,8.5308,15.175,4.8657,10.628,8.7601,18.054001,6.7937,9.8522,7.5279
1.7694,-3.7002,2.9268,3.9024,2.9412,5.5663,-0.97087,11.586,2.8479,3.9024,2.9412,0.98522,4.7393,4.6984,0.12638,-3.8647,-1.868,11.356,2.9841,10.837,2.7432
-4.8657,-17.097,-13.659,0.0,-2.9412,-6.0841,-9.7087,5.7605,-8.8026,0.0,-2.9412,-8.867,2.8436,-2.9206,-3.6651,-13.527,-13.462,3.7002,-2.7302,13.793,-2.9984
-5.8136,-21.882,-21.462999,-4.878,-7.8431,-8.0259,-18.447001,0.90615,-13.657,-4.878,-7.8431,-14.778,2.8436,-5.7778,-1.7694,-15.459,-15.395,-1.0845,-12.254,23.645,-9.697
-0.12638,-18.054001,-12.683,-8.7805,-10.784,-1.2298,-19.417,-0.06472,-8.8026,-8.7805,-10.784,-13.793,1.8957,-7.6825,2.97,-11.594,-8.6312,-0.12759,-10.349,19.704,-13.525
5.5608,-10.399,0.97561,-3.9024,-5.8824,-2.2006,-14.563,-0.06472,-3.9482,-3.9024,-5.8824,-7.8818,0.0,-11.492,7.7093,-5.7971,0.06441,2.7432,-5.5873,11.823,-13.525
10.3,-2.7432,11.707,3.9024,0.98039,4.5955,-3.8835,1.877,-5.89,3.9024,0.98039,1.9704,2.8436,-8.6349,11.501,0.96618,6.8277,-0.12759,-7.4921,11.823,-10.654
11.248,4.9123,15.61,7.8049,7.8431,13.333,6.7961,6.7314,0.90615,7.8049,7.8431,10.837,4.7393,-1.9683,11.501,5.7971,9.7262,-1.0845,-3.6825,8.867,-6.8262
6.5087,11.611,11.707,9.7561,9.8039,13.333,13.592,6.7314,7.7023,9.7561,9.8039,12.808,3.7915,1.8413,3.9179,9.6618,7.7939,7.5279,4.8889,1.9704,-3.9553
-1.0742,13.525,4.878,3.9024,4.902,5.5663,13.592,-0.06472,12.557,3.9024,4.902,9.8522,1.8957,4.6984,-4.613,10.628,1.9968,9.4418,7.746,-8.867,0.82935
-4.8657,8.74,-2.9268,-3.9024,-0.98039,-1.2298,7.767,-1.0356,9.644,-3.9024,-0.98039,2.9557,0.94787,6.6032,-8.4044,6.7633,-1.868,-1.0845,9.6508,-15.764,2.7432
-4.8657,-5.614,-9.7561,-2.9268,-2.9412,-5.1133,-2.9126,-2.0065,5.7605,-2.9268,-2.9412,-2.9557,-1.8957,4.6984,-10.3,-2.8986,-6.6989,-2.9984,9.6508,-18.719,3.7002
-5.8136,-13.27,-11.707,-2.9268,-2.9412,-3.1715,-5.8252,-3.9482,3.8188,-2.9268,-2.9412,-4.9261,-3.7915,3.746,-11.248,-9.6618,-9.5974,-5.8692,10.603,-18.719,7.5279
-9.6051,-10.399,-14.634,-8.7805,-4.902,-8.9968,-3.8835,-6.8608,4.7896,-8.7805,-4.902,-7.8818,-5.6872,4.6984,-13.144,-8.6957,-13.462,-16.396,1.0794,-14.778,11.356
-15.292,-7.5279,-17.561001,-9.7561,-6.8627,-17.735001,-5.8252,-7.8317,6.7314,-9.7561,-6.8627,-11.823,-8.5308,0.88889,-16.934999,-7.7295,-15.395,-11.611,3.9365,-4.9261,12.313
-20.032,-5.614,-17.561001,-6.8293,-2.9412,-19.676001,-7.767,-6.8608,2.8479,-6.8293,-2.9412,-14.778,-16.114,-7.6825,-20.726999,-9.6618,-18.292999,-9.697,0.12698,-9.8522,8.4848
-21.927,-8.4848,-14.634,-10.732,-6.8627,-19.676001,-12.621,-9.7735,0.90615,-10.732,-6.8627,-17.733999,-18.957001,-15.302,-20.726999,-13.527,-19.259001,-15.439,-3.6825,-11.823,2.7432
-13.397,-11.356,-8.7805,-11.707,-7.8431,-15.793,-11.65,-11.715,-3.9482,-11.707,-7.8431,-16.749001,-10.427,-14.349,-9.3523,-11.594,-11.53,-3.9553,-3.6825,0.98522,-4.9123
-4.8657,-7.5279,-1.9512,-5.8537,-7.8431,-11.909,-6.7961,-8.8026,-2.0065,-5.8537,-7.8431,-8.867,1.8957,-7.6825,2.0221,-5.7971,-1.868,8.4848,-0.8254,9.8522,-5.8692
-1.0742,-0.82935,1.9512,-5.8537,-6.8627,-3.1715,-2.9126,-7.8317,-0.06472,-5.8537,-6.8627,0.0,5.6872,-2.9206,2.97,-1.9324,1.0306,3.7002,2.0317,9.8522,-2.9984
-2.0221,-1.7863,-2.9268,-9.7561,-7.8431,-1.2298,-0.97087,-7.8317,-2.0065,-9.7561,-7.8431,-0.98522,4.7393,-1.0159,0.12638,-1.9324,-1.868,4.6571,0.12698,5.9113,-2.9984
-0.12638,-4.6571,-8.7805,-9.7561,-9.8039,-3.1715,-6.7961,-5.89,3.8188,-9.7561,-9.8039,-5.9113,7.5829,3.746,2.0221,0.0,-0.90177,1.7863,-2.7302,6.8966,-3.9553
6.5087,2.9984,-0.97561,0.0,-1.9608,0.71197,-0.97087,-2.9773,5.7605,0.0,-1.9608,-0.98522,12.322,8.5079,9.6051,7.7295,7.7939,-1.0845,1.0794,10.837,-1.0845
7.4566,11.611,8.7805,-1.9512,0.98039,5.5663,8.7379,-4.9191,7.7023,-1.9512,0.98039,7.8818,7.5829,6.6032,8.6572,8.6957,7.7939,-1.0845,-1.7778,5.9113,2.7432
5.5608,15.439,11.707,-7.8049,0.98039,4.5955,13.592,-7.8317,11.586,-7.8049,0.98039,9.8522,0.0,0.88889,3.9179,3.8647,1.9968,0.82935,-0.8254,0.0,2.7432
1.7694,13.525,7.8049,-6.8293,-0.98039,1.6828,12.621,-4.9191,10.615,-6.8293,-0.98039,7.8818,-6.6351,-4.8254,-0.82148,-2.8986,-3.8003,-1.0845,3.9365,-5.9113,2.7432
-2.97,4.9123,-1.9512,-3.9024,-0.98039,-0.2589,8.7379,-1.0356,8.6731,-3.9024,-0.98039,0.98522,-13.27,-10.54,-9.3523,-9.6618,-9.5974,0.82935,6.7937,-19.704,2.7432
-6.7615,-3.7002,-6.8293,-8.7805,-8.8235,-2.2006,-0.97087,-4.9191,6.7314,-8.7805,-8.8235,-4.9261,-14.218,-13.397,-14.092,-10.628,-11.53,-4.9123,7.746,-25.615999,2.7432
-5.8136,-2.7432,-2.9268,-2.9268,-4.902,-2.2006,0.0,-3.9482,-1.0356,-2.9268,-4.902,-2.9557,-9.4787,-9.5873,-13.144,-4.8309,-7.6651,-9.697,3.9365,-19.704,4.6571
-2.0221,-0.82935,2.9268,-2.9268,-1.9608,1.6828,-1.9417,3.8188,-1.0356,-2.9268,-1.9608,0.98522,-7.5829,-8.6349,-8.4044,-0.96618,-2.8341,-9.697,-6.5397,-13.793,1.7863
4.613,-2.7432,3.9024,1.9512,2.9412,3.6246,-4.8544,9.644,-1.0356,1.9512,2.9412,1.9704,-5.6872,-9.5873,0.12638,-2.8986,0.06441,1.7863,-9.3968,-0.98522,-7.7831
4.613,-12.313,-0.97561,6.8293,2.9412,3.6246,-8.7379,10.615,-4.9191,6.8293,2.9412,-0.98522,-5.6872,-10.54,2.0221,-8.6957,-2.8341,10.399,-7.4921,4.9261,-14.482
2.7172,-17.097,-6.8293,6.8293,-0.98039,5.5663,-12.621,10.615,-11.715,6.8293,-0.98039,-5.9113,-3.7915,-8.6349,2.0221,-10.628,-3.8003,8.4848,-12.254,9.8522,-16.396
6.5087,-10.399,-2.9268,1.9512,-3.9216,9.4498,-11.65,7.7023,-11.715,1.9512,-3.9216,-4.9261,0.94787,-4.8254,4.8657,-4.8309,0.06441,10.399,-21.778,14.778,-18.309
9.3523,-0.82935,4.878,1.9512,0.0,6.5372,-3.8835,4.7896,-5.89,1.9512,0.0,-0.98522,3.7915,-1.0159,9.6051,2.8986,5.8615,18.054001,-20.825001,19.704,-14.482
7.4566,2.9984,6.8293,-0.97561,0.0,0.71197,1.9417,-0.06472,-11.715,-0.97561,0.0,0.0,3.7915,-0.06349,9.6051,7.7295,8.7601,13.27,-5.5873,17.733999,-4.9123
9.3523,9.697,10.732,0.97561,1.9608,-1.2298,8.7379,-4.9191,-4.9191,0.97561,1.9608,3.9409,8.5308,9.4603,12.449,14.493,12.625,5.614,6.7937,12.808,9.4418
3.6651,11.611,7.8049,-2.9268,-0.98039,-2.2006,7.767,-7.8317,-2.0065,-2.9268,-0.98039,1.9704,8.5308,11.365,7.7093,11.594,7.7939,-11.611,4.8889,0.98522,16.139999
-3.9179,8.74,1.9512,-7.8049,-3.9216,-8.0259,5.8252,-8.8026,-5.89,-7.8049,-3.9216,-0.98522,6.6351,10.413,2.0221,7.7295,1.9968,-11.611,5.8413,-1.9704,19.968
-6.7615,2.9984,-2.9268,-10.732,-4.902,-11.909,0.97087,-9.7735,-6.8608,-10.732,-4.902,-5.9113,9.4787,14.222,2.0221,5.7971,2.963,-4.9123,7.746,1.9704,22.839001
-10.553,-5.614,-8.7805,-13.659,-11.765,-15.793,-7.767,-13.657,-8.8026,-13.659,-11.765,-11.823,11.374,13.27,0.12638,-0.96618,1.0306,-18.309,2.0317,3.9409,16.139999
-7.7093,-9.4418,-7.8049,-10.732,-7.8431,-13.851,-5.8252,-13.657,-3.9482,-10.732,-7.8431,-10.837,10.427,6.6032,-0.82148,-7.7295,-0.90177,-11.611,-2.7302,3.9409,8.4848
-10.553,-12.313,-9.7561,-12.683,-9.8039,-14.822,-7.767,-9.7735,-5.89,-12.683,-9.8039,-10.837,0.94787,-4.8254,-7.4566,-15.459,-8.6312,-4.9123,-14.159,-3.9409,-5.8692
-12.449,-17.097,-10.732,-11.707,-9.8039,-15.793,-12.621,-6.8608,-12.686,-11.707,-9.8039,-10.837,-9.4787,-13.397,-14.092,-22.222,-16.361,0.82935,-16.063,-8.867,-16.396
-4.8657,-16.139999,-3.9024,-6.8293,-8.8235,-7.055,-16.504999,-3.9482,-9.7735,-6.8293,-8.8235,-5.9113,-11.374,-11.492,-10.3,-17.391001,-11.53,6.571,-6.5397,-8.867,-15.439
5.5608,-12.313,6.8293,1.9512,-8.8235,3.6246,-16.504999,4.7896,-8.8026,1.9512,-8.8235,0.98522,-6.6351,-3.873,-1.7694,-6.7633,0.06441,8.4848,-0.8254,-4.9261,-9.697
7.4566,-12.313,9.7561,0.0,-11.765,3.6246,-17.476,7.7023,-13.657,0.0,-11.765,0.98522,-3.7915,-1.9683,0.12638,-5.7971,1.0306,3.7002,0.12698,-3.9409,-3.9553
8.4044,-6.571,6.8293,0.0,-5.8824,4.5955,-12.621,7.7023,-8.8026,0.0,-5.8824,2.9557,-1.8957,-0.06349,0.12638,-5.7971,-0.90177,-10.654,0.12698,-3.9409,0.82935
9.3523,2.9984,4.878,0.0,-8.8235,9.4498,-7.767,10.615,-4.9191,0.0,-8.8235,2.9557,0.94787,1.8413,2.97,-0.96618,1.9968,-6.8262,0.12698,0.98522,1.7863
7.4566,5.8692,4.878,0.97561,-8.8235,9.4498,-6.7961,7.7023,-8.8026,0.97561,-8.8235,2.9557,1.8957,2.7937,3.9179,4.8309,7.7939,1.7863,3.9365,-3.9409,1.7863
8.4044,10.654,12.683,6.8293,-6.8627,13.333,-4.8544,6.7314,-2.9773,6.8293,-6.8627,5.9113,4.7393,6.6032,5.8136,11.594,15.523,3.7002,9.6508,-9.8522,3.7002
8.4044,9.697,12.683,7.8049,-5.8824,15.275,-4.8544,9.644,0.90615,7.8049,-5.8824,6.8966,1.8957,5.6508,3.9179,11.594,14.557,0.82935,8.6984,-6.8966,5.614
4.613,5.8692,3.9024,5.8537,0.0,14.304,-3.8835,8.6731,1.877,5.8537,0.0,7.8818,-0.94787,2.7937,1.0742,3.8647,3.9291,3.7002,7.746,-4.9261,3.7002
-2.0221,0.12759,-11.707,1.9512,-1.9608,3.6246,-5.8252,4.7896,-8.8026,1.9512,-1.9608,1.9704,-3.7915,-1.9683,-3.6651,-5.7971,-9.5974,2.7432,-11.302,-1.9704,-3.9553
-5.8136,-7.5279,-20.488001,-0.97561,-8.8235,-8.9968,-7.767,2.8479,-8.8026,-0.97561,-8.8235,-6.8966,-5.6872,-4.8254,-7.4566,-11.594,-17.327,-1.0845,-13.206,4.9261,-8.74
-9.6051,-12.313,-19.511999,-5.8537,-13.725,-18.705999,-11.65,2.8479,-9.7735,-5.8537,-13.725,-11.823,-5.6872,-5.7778,-10.3,-10.628,-18.292999,4.6571,-2.7302,7.8818,-8.74
-14.344,-12.313,-14.634,-10.732,-10.784,-15.793,-13.592,-2.0065,-16.57,-10.732,-10.784,-13.793,-5.6872,-4.8254,-13.144,-8.6957,-15.395,5.614,-3.6825,5.9113,-7.7831
-11.501,-8.4848,-7.8049,-5.8537,-8.8235,-9.9676,-9.7087,-3.9482,-17.540001,-5.8537,-8.8235,-12.808,-0.94787,0.88889,-8.4044,-5.7971,-7.6651,-2.9984,-6.5397,5.9113,-7.7831
-7.7093,-2.7432,-5.8537,-2.9268,-3.9216,-7.055,-6.7961,-2.9773,-9.7735,-2.9268,-3.9216,-7.8818,0.94787,2.7937,-5.5608,-3.8647,-4.7665,-4.9123,-8.4444,4.9261,-6.8262
-6.7615,1.0845,-9.7561,-3.9024,-7.8431,-4.1424,-5.8252,-2.0065,-3.9482,-3.9024,-7.8431,-5.9113,0.94787,2.7937,-5.5608,-0.96618,-5.7327,-8.74,-1.7778,-1.9704,-2.0415
-5.8136,2.0415,-7.8049,-2.9268,0.0,-8.0259,-1.9417,-3.9482,2.8479,-2.9268,0.0,-4.9261,2.8436,3.746,-3.6651,0.96618,-0.90177,-5.8692,2.9841,-5.9113,0.82935
-1.0742,7.7831,5.8537,-0.97561,4.902,-6.0841,4.8544,-3.9482,12.557,-0.97561,4.902,-2.9557,5.6872,6.6032,2.0221,6.7633,10.692,-7.7831,1.0794,-11.823,2.7432
3.6651,11.611,13.659,1.9512,6.8627,-1.2298,10.68,-2.9773,13.528,1.9512,6.8627,1.9704,6.6351,6.6032,5.8136,7.7295,15.523,-5.8692,-1.7778,-16.749001,2.7432
2.7172,8.74,8.7805,4.878,9.8039,-1.2298,16.504999,-2.9773,17.410999,4.878,9.8039,5.9113,3.7915,0.88889,3.9179,2.8986,8.7601,-7.7831,0.12698,-13.793,0.82935
1.7694,5.8692,0.97561,7.8049,10.784,5.5663,17.476,-0.06472,19.353001,7.8049,10.784,7.8818,2.8436,-1.0159,2.0221,-0.96618,1.9968,-4.9123,7.746,-7.8818,-2.9984
0.82148,2.0415,-2.9268,10.732,11.765,12.362,11.65,2.8479,20.323999,10.732,11.765,10.837,-1.8957,-5.7778,-4.613,-4.8309,-4.7665,-7.7831,7.746,-6.8966,-6.8262
2.7172,0.12759,-0.97561,10.732,12.745,10.421,5.8252,7.7023,18.382,10.732,12.745,10.837,-6.6351,-10.54,-6.5087,-5.7971,-6.6989,2.7432,7.746,-1.9704,-7.7831
4.613,-4.6571,-1.9512,8.7805,8.8235,4.5955,3.8835,5.7605,6.7314,8.7805,8.8235,7.8818,-11.374,-14.349,-5.5608,-6.7633,-10.564,18.054001,6.7937,3.9409,-4.9123
0.82148,-7.5279,-7.8049,4.878,1.9608,-1.2298,0.97087,3.8188,4.7896,4.878,1.9608,0.98522,-13.27,-12.444,-8.4044,-6.7633,-16.361,11.356,6.7937,3.9409,2.7432
-5.8136,-12.313,-16.584999,-1.9512,-3.9216,-5.1133,-5.8252,-1.0356,-2.0065,-1.9512,-3.9216,-7.8818,-8.5308,-1.9683,-12.196,-7.7295,-19.259001,1.7863,2.0317,2.9557,13.27
-10.553,-17.097,-20.488001,-5.8537,-5.8824,-14.822,-11.65,-3.9482,-3.9482,-5.8537,-5.8824,-13.793,0.0,11.365,-11.248,-6.7633,-16.361,-9.697,-5.5873,3.9409,16.139999
-5.8136,-12.313,-14.634,-1.9512,0.0,-8.0259,-7.767,-2.9773,-4.9191,-1.9512,0.0,-11.823,10.427,19.937,-3.6651,1.9324,-1.868,-7.7831,-0.8254,6.8966,15.183
0.82148,-1.7863,-5.8537,1.9512,-0.98039,-0.2589,-2.9126,-2.9773,2.8479,1.9512,-0.98039,-7.8818,15.166,19.937,5.8136,11.594,10.692,-4.9123,6.7937,9.8522,12.313
5.5608,10.654,2.9268,5.8537,6.8627,2.6537,3.8835,-2.9773,7.7023,5.8537,6.8627,-0.98522,12.322,10.413,9.6051,15.459,15.523,-9.697,2.0317,-1.9704,5.614
9.3523,23.094,15.61,5.8537,10.784,8.479,12.621,-6.8608,16.440001,5.8537,10.784,7.8818,5.6872,-1.9683,9.6051,16.424999,18.422001,-14.482,10.603,-12.808,-1.0845
18.830999,32.662998,32.195,11.707,20.587999,18.188,25.243,-2.0065,17.410999,11.707,20.587999,21.674999,1.8957,-7.6825,14.344,19.323999,25.184999,3.7002,16.316999,-9.8522,-4.9123
24.518,30.75,39.023998,15.61,20.587999,23.042,27.184,3.8188,15.469,15.61,20.587999,28.570999,-4.7393,-11.492,15.292,13.527,25.184999,15.183,10.603,-10.837,-10.654
22.622,17.351999,31.219999,15.61,16.667,18.188,25.243,6.7314,13.528,15.61,16.667,27.586,-7.5829,-11.492,11.501,1.9324,15.523,13.27,5.8413,-6.8966,-13.525
18.830999,4.9123,17.561001,12.683,8.8235,15.275,14.563,11.586,5.7605,12.683,8.8235,20.690001,-2.8436,-4.8254,9.6051,-1.9324,8.7601,11.356,-0.8254,1.9704,-7.7831
11.248,0.12759,4.878,4.878,4.902,12.362,1.9417,11.586,-4.9191,4.878,4.902,7.8818,-0.94787,1.8413,4.8657,-0.96618,1.9968,8.4848,-3.6825,2.9557,0.82935
5.5608,-4.6571,-1.9512,0.97561,-0.98039,5.5663,-7.767,10.615,-3.9482,0.97561,-0.98039,-4.9261,1.8957,8.5079,2.0221,1.9324,0.06441,8.4848,-3.6825,1.9704,5.614
3.6651,-4.6571,-0.97561,-0.97561,-6.8627,-4.1424,-10.68,1.877,-2.0065,-0.97561,-6.8627,-11.823,11.374,18.983999,4.8657,7.7295,4.8953,8.4848,1.0794,7.8818,11.356
-0.12638,-4.6571,-1.9512,-3.9024,-5.8824,-8.0259,-7.767,-5.89,1.877,-3.9024,-5.8824,-10.837,16.114,23.746,5.8136,9.6618,5.8615,-5.8692,6.7937,10.837,14.226
-6.7615,-7.5279,-8.7805,-10.732,-6.8627,-11.909,-7.767,-7.8317,-1.0356,-10.732,-6.8627,-13.793,17.062,20.889,2.0221,4.8309,1.0306,-11.611,0.12698,14.778,11.356
-11.501,-6.571,-14.634,-16.584999,-11.765,-17.735001,-8.7379,-7.8317,-7.8317,-16.584999,-11.765,-17.733999,17.062,18.032,-0.82148,3.8647,-0.90177,3.7002,-9.3968,9.8522,10.399
-13.397,-7.5279,-16.584999,-17.561001,-15.686,-21.618,-14.563,-9.7735,-7.8317,-17.561001,-15.686,-20.690001,15.166,12.317,-3.6651,2.8986,-0.90177,5.614,-3.6825,4.9261,7.5279
-14.344,-9.4418,-13.659,-16.584999,-13.725,-20.646999,-20.388,-14.628,-4.9191,-16.584999,-13.725,-21.674999,9.4787,1.8413,-6.5087,0.96618,-1.868,3.7002,2.9841,7.8818,2.7432
-12.449,-7.5279,-10.732,-15.61,-17.646999,-19.676001,-15.534,-15.599,-4.9191,-15.61,-17.646999,-19.704,-2.8436,-10.54,-12.196,-1.9324,-4.7665,2.7432,2.0317,3.9409,-4.9123
0.82148,5.8692,3.9024,-0.97561,0.98039,3.6246,6.7961,-5.89,5.7605,-0.97561,0.98039,0.98522,-11.374,-16.254,-9.3523,-2.8986,-2.8341,-2.9984,-2.7302,-0.98522,-8.74
15.039,19.266001,19.511999,14.634,18.627001,27.896,24.271999,9.644,17.410999,14.634,18.627001,24.631001,-17.062,-20.063,-3.6651,-3.8647,-0.90177,-1.0845,-1.7778,-7.8818,-11.611
23.57,22.136999,27.316999,23.415001,24.51,34.693001,31.068001,14.498,14.498,23.415001,24.51,34.483002,-23.697001,-23.872999,0.12638,-4.8309,-0.90177,-2.9984,-2.7302,-12.808,-15.439
27.362,22.136999,32.195,22.438999,15.686,34.693001,26.214001,14.498,5.7605,22.438999,15.686,34.483002,-18.009001,-20.063,10.553,0.0,5.8615,5.614,-4.6349,-6.8966,-14.482
28.309999,22.136999,36.098,22.438999,14.706,31.780001,24.271999,18.382,0.90615,22.438999,14.706,32.512001,-3.7915,-8.6349,22.875,6.7633,14.557,13.27,-1.7778,4.9261,-11.611
27.362,20.223,36.098,20.488001,14.706,25.955,20.388,14.498,1.877,20.488001,14.706,28.570999,13.27,6.6032,30.458,12.56,22.287001,22.839001,-7.4921,13.793,-8.74
28.309999,24.051001,37.073002,19.511999,21.569,25.955,28.155001,9.644,7.7023,19.511999,21.569,30.542,31.280001,24.698,37.092999,23.188,33.881001,25.709999,1.0794,20.690001,0.82935
21.674999,27.879,35.122002,11.707,17.646999,24.013,29.125999,-2.0065,14.498,11.707,17.646999,28.570999,42.653999,38.032001,35.196999,30.917999,38.712002,8.4848,11.556,25.615999,11.356
13.144,27.879,27.316999,5.8537,13.725,14.304,23.301001,-7.8317,17.410999,5.8537,13.725,21.674999,47.393002,47.556,28.562,35.749001,36.778999,0.82935,14.413,19.704,20.924999
-0.12638,16.396,6.8293,-1.9512,3.9216,-1.2298,10.68,-10.744,7.7023,-1.9512,3.9216,5.9113,37.915001,41.841,11.501,26.087,20.354,-13.525,9.6508,10.837,19.011
-7.7093,-3.7002,-11.707,-9.7561,-7.8431,-13.851,-5.8252,-9.7735,-2.9773,-9.7561,-7.8431,-8.867,18.009001,22.794001,-1.7694,7.7295,2.963,-8.74,-0.8254,8.867,13.27
-8.6572,-19.968,-21.462999,-11.707,-11.765,-15.793,-16.504999,-6.8608,-11.715,-11.707,-11.765,-15.764,-1.8957,-0.06349,-11.248,-9.6618,-12.496,-0.12759,-1.7778,4.9261,6.571
-11.501,-24.753,-23.415001,-10.732,-14.706,-15.793,-20.388,-7.8317,-13.657,-10.732,-14.706,-17.733999,-20.853001,-21.968,-19.778999,-18.357,-22.158001,-2.0415,-0.8254,-0.98522,2.7432
-9.6051,-18.054001,-15.61,-7.8049,-11.765,-10.939,-14.563,-4.9191,-10.744,-7.8049,-11.765,-12.808,-26.540001,-32.444,-16.934999,-16.424999,-21.191999,-6.8262,2.0317,0.0,3.7002
-4.8657,-14.226,-8.7805,-9.7561,-11.765,-5.1133,-14.563,-2.0065,-10.744,-9.7561,-11.765,-9.8522,-25.591999,-32.444,-12.196,-14.493,-20.225,-2.9984,-6.5397,1.9704,-1.0845
-3.9179,-14.226,-4.878,-9.7561,-12.745,-3.1715,-13.592,-4.9191,-11.715,-9.7561,-12.745,-5.9113,-22.749001,-26.73,-7.4566,-14.493,-19.259001,1.7863,-12.254,3.9409,-5.8692
3.6651,-10.399,0.97561,-5.8537,-12.745,-1.2298,-11.65,-3.9482,-17.540001,-5.8537,-12.745,-0.98522,-8.5308,-12.444,4.8657,-8.6957,-8.6312,2.7432,-6.5397,11.823,-4.9123
14.092,0.12759,12.683,-1.9512,-9.8039,5.5663,-5.8252,1.877,-18.511,-1.9512,-9.8039,4.9261,11.374,7.5556,20.032,6.7633,11.659,4.6571,-2.7302,21.674999,-1.0845
15.987,13.525,23.415001,3.9024,-8.8235,9.4498,0.97087,7.7023,-12.686,3.9024,-8.8235,10.837,22.749001,19.937,25.719,19.323999,27.118,8.4848,-1.7778,13.793,1.7863
16.934999,27.879,36.098,12.683,0.0,14.304,11.65,12.557,-6.8608,12.683,0.0,17.733999,27.488001,25.650999,25.719,29.952,36.778999,13.27,-6.5397,6.8966,5.614
18.830999,34.577,40.976002,16.584999,7.8431,17.216999,21.358999,14.498,5.7605,16.584999,7.8431,23.645,29.384001,26.603001,27.615,33.816002,39.678001,18.054001,-2.7302,7.8818,2.7432
21.674999,32.662998,38.049,17.561001,17.646999,17.216999,27.184,12.557,21.294001,17.561001,17.646999,24.631001,32.227001,30.413,28.562,33.816002,39.678001,15.183,7.746,7.8818,2.7432
18.830999,28.836,28.292999,12.683,17.646999,7.5081,27.184,5.7605,27.120001,12.683,17.646999,21.674999,30.332001,33.27,22.875,32.849998,34.847,2.7432,15.365,3.9409,9.4418
7.4566,19.266001,9.7561,6.8293,15.686,1.6828,18.447001,-2.0065,22.264999,6.8293,15.686,9.8522,18.957001,26.603001,6.7615,23.188,20.354,-2.9984,22.983999,-8.867,13.27
-2.0221,7.7831,-4.878,0.0,7.8431,-2.2006,5.8252,-2.9773,15.469,0.0,7.8431,-1.9704,4.7393,12.317,-5.5608,11.594,3.9291,-10.654,23.937,-11.823,15.183
-10.553,-2.7432,-13.659,-9.7561,-7.8431,-11.909,-10.68,-9.7735,-0.06472,-9.7561,-7.8431,-13.793,-10.427,-4.8254,-11.248,0.0,-9.5974,-16.396,8.6984,-8.867,9.4418
-16.24,-19.011,-21.462999,-15.61,-16.667,-19.676001,-22.33,-13.657,-13.657,-15.61,-16.667,-23.645,-20.853001,-20.063,-15.039,-17.391001,-24.09,-19.266001,2.0317,-5.9113,2.7432
-14.344,-22.839001,-21.462999,-14.634,-17.646999,-12.88,-21.358999,-10.744,-29.191,-14.634,-17.646999,-23.645,-18.009001,-21.968,-12.196,-24.155001,-27.955,-5.8692,-2.7302,4.9261,3.7002
-11.501,-20.924999,-19.511999,-17.561001,-21.569,-11.909,-20.388,-9.7735,-26.278,-17.561001,-21.569,-21.674999,-11.374,-15.302,-8.4044,-21.256001,-24.09,-0.12759,-11.302,15.764,6.571
-11.501,-16.139999,-17.561001,-21.462999,-27.451,-12.88,-21.358999,-9.7735,-17.540001,-21.462999,-27.451,-19.704,-9.4787,-11.492,-9.3523,-13.527,-20.225,0.82935,-7.4921,13.793,5.614
-15.292,-8.4848,-13.659,-19.511999,-23.528999,-14.822,-21.358999,-7.8317,-18.511,-19.511999,-23.528999,-16.749001,-8.5308,-8.6349,-12.196,-7.7295,-18.292999,-5.8692,-1.7778,2.9557,2.7432
-10.553,-2.7432,-4.878,-12.683,-16.667,-9.9676,-14.563,-1.0356,-13.657,-12.683,-16.667,-7.8818,-4.7393,-6.7302,-7.4566,-1.9324,-12.496,-3.9553,-0.8254,0.0,-0.12759
-1.0742,2.9984,5.8537,-2.9268,-3.9216,-2.2006,-2.9126,2.8479,-2.9773,-2.9268,-3.9216,1.9704,-2.8436,-6.7302,1.0742,0.96618,-2.8341,-1.0845,-0.8254,0.0,-2.0415
5.5608,6.8262,10.732,7.8049,6.8627,7.5081,6.7961,6.7314,3.8188,7.8049,6.8627,11.823,-0.94787,-2.9206,6.7615,2.8986,3.9291,-10.654,-2.7302,-1.9704,-2.0415
12.196,10.654,17.561001,22.438999,21.569,20.129,21.358999,15.469,12.557,22.438999,21.569,25.615999,4.7393,4.6984,11.501,5.7971,9.7262,0.82935,-0.8254,0.0,1.7863
12.196,14.482,23.415001,26.341,26.471001,25.955,28.155001,18.382,19.353001,26.341,26.471001,34.483002,5.6872,9.4603,8.6572,8.6957,10.692,7.5279,7.746,-1.9704,5.614
5.5608,11.611,20.488001,21.462999,26.471001,21.1,27.184,13.528,24.207001,21.462999,26.471001,35.467999,0.94787,8.5079,-0.82148,7.7295,4.8953,2.7432,18.222,-8.867,6.571
4.613,15.439,18.537001,20.488001,27.451,22.070999,30.097,14.498,28.091,20.488001,27.451,36.452999,-0.94787,7.5556,-2.7172,10.628,3.9291,-2.0415,13.46,-10.837,8.4848
9.3523,17.351999,14.634,18.537001,27.451,23.042,35.922001,14.498,27.120001,18.537001,27.451,35.467999,0.0,8.5079,2.0221,12.56,4.8953,-0.12759,15.365,-1.9704,8.4848
6.5087,9.697,0.97561,10.732,14.706,5.5663,23.301001,8.6731,17.410999,10.732,14.706,19.704,-1.8957,6.6032,2.0221,9.6618,1.0306,1.7863,21.079,-5.9113,8.4848
1.7694,5.8692,-6.8293,-1.9512,0.98039,-9.9676,5.8252,-1.0356,1.877,-1.9512,0.98039,1.9704,-0.94787,5.6508,2.97,9.6618,1.0306,-3.9553,17.27,-10.837,9.4418
-5.8136,-0.82935,-7.8049,-12.683,-5.8824,-8.9968,-1.9417,-4.9191,0.90615,-12.683,-5.8824,-4.9261,-5.6872,-2.9206,-2.7172,0.96618,-5.7327,-10.654,12.508,-13.793,3.7002
-10.553,-5.614,-2.9268,-5.8537,0.0,-2.2006,0.97087,-2.9773,8.6731,-5.8537,0.0,1.9704,-13.27,-14.349,-12.196,-9.6618,-14.428,-8.74,9.6508,-14.778,-2.0415
-4.8657,-6.571,2.9268,7.8049,7.8431,7.5081,8.7379,1.877,13.528,7.8049,7.8431,10.837,-14.218,-17.205999,-12.196,-11.594,-14.428,-10.654,2.9841,-12.808,-2.0415
1.7694,-5.614,5.8537,10.732,9.8039,13.333,7.767,1.877,16.440001,10.732,9.8039,12.808,-7.5829,-12.444,-4.613,-6.7633,-5.7327,-8.74,-0.8254,-7.8818,-1.0845
2.7172,-5.614,2.9268,10.732,11.765,11.392,5.8252,0.90615,19.353001,10.732,11.765,7.8818,-1.8957,-7.6825,1.0742,-1.9324,1.0306,-10.654,2.0317,-1.9704,-1.0845
-3.9179,-5.614,-6.8293,7.8049,9.8039,3.6246,0.97087,-6.8608,18.382,7.8049,9.8039,0.0,0.0,-2.9206,0.12638,-1.9324,-1.868,-9.697,4.8889,-0.98522,-2.0415
-10.553,-2.7432,-13.659,9.7561,14.706,-4.1424,4.8544,-8.8026,21.294001,9.7561,14.706,-4.9261,0.0,-0.06349,-3.6651,-2.8986,-7.6651,-2.9984,9.6508,0.0,-1.0845
-15.292,3.9553,-16.584999,16.584999,19.608,-7.055,9.7087,-3.9482,27.120001,16.584999,19.608,-3.9409,-0.94787,-0.06349,-7.4566,-2.8986,-11.53,-8.74,10.603,3.9409,-3.9553
-15.292,5.8692,-13.659,25.365999,33.333,-3.1715,14.563,0.90615,38.77,25.365999,33.333,0.98522,-4.7393,-1.0159,-11.248,-2.8986,-13.462,-10.654,12.508,0.98522,-3.9553
-9.6051,6.8262,-6.8293,32.195,43.137001,0.71197,20.388,5.7605,46.536999,32.195,43.137001,5.9113,-3.7915,0.88889,-8.4044,0.0,-10.564,-0.12759,13.46,-5.9113,-0.12759
-2.97,2.9984,-1.9512,36.098,49.02,1.6828,24.271999,5.7605,48.479,36.098,49.02,9.8522,-0.94787,3.746,-3.6651,-1.9324,-6.6989,5.614,8.6984,-3.9409,1.7863
-1.0742,-5.614,-5.8537,37.073002,51.960999,0.71197,19.417,3.8188,44.595001,37.073002,51.960999,6.8966,-4.7393,-1.9683,-3.6651,-10.628,-9.5974,11.356,8.6984,-0.98522,-3.9553
-1.0742,-8.4848,-9.7561,40.0,56.862999,-0.2589,18.447001,8.6731,39.741001,40.0,56.862999,4.9261,-9.4787,-6.7302,-3.6651,-13.527,-10.564,15.183,4.8889,0.98522,-8.74
-0.12638,-7.5279,-8.7805,43.902,59.804001,-0.2589,20.388,8.6731,46.536999,43.902,59.804001,6.8966,-13.27,-13.397,-3.6651,-11.594,-8.6312,15.183,4.8889,-0.98522,-9.697
-3.9179,-3.7002,-3.9024,43.902,61.764999,5.5663,17.476,6.7314,47.507999,43.902,61.764999,8.867,-18.009001,-19.111,-9.3523,-6.7633,-7.6651,0.82935,12.508,-8.867,-9.697
-8.6572,1.0845,0.0,44.877998,58.824001,7.5081,12.621,3.8188,39.741001,44.877998,58.824001,9.8522,-14.218,-17.205999,-13.144,0.0,-4.7665,-10.654,10.603,-8.867,-5.8692
-11.501,3.9553,0.97561,44.877998,54.902,6.5372,13.592,4.7896,33.916,44.877998,54.902,8.867,-5.6872,-10.54,-15.039,5.7971,-3.8003,-1.0845,10.603,-5.9113,0.82935
-12.449,2.0415,-4.878,41.951,47.058998,7.5081,13.592,4.7896,29.061001,41.951,47.058998,6.8966,-3.7915,-6.7302,-15.987,1.9324,-6.6989,1.7863,4.8889,-4.9261,-5.8692
-8.6572,-1.7863,-14.634,37.073002,41.175999,1.6828,8.7379,6.7314,22.264999,37.073002,41.175999,4.9261,-3.7915,-6.7302,-11.248,-4.8309,-9.5974,-1.0845,-4.6349,-5.9113,-10.654
-10.553,-10.399,-23.415001,27.316999,31.372999,-8.0259,0.0,-0.06472,12.557,27.316999,31.372999,-2.9557,-1.8957,-2.9206,-7.4566,-9.6618,-9.5974,-2.9984,-7.4921,-2.9557,-6.8262
-14.344,-16.139999,-24.389999,15.61,15.686,-12.88,-10.68,-5.89,2.8479,15.61,15.686,-9.8522,-0.94787,-1.0159,-6.5087,-13.527,-9.5974,-6.8262,-5.5873,-9.8522,-2.0415
-13.397,-12.313,-16.584999,2.9268,6.8627,-14.822,-16.504999,-10.744,2.8479,2.9268,6.8627,-13.793,-1.8957,-1.0159,-5.5608,-11.594,-7.6651,-6.8262,-1.7778,-13.793,1.7863
-10.553,-11.356,-11.707,-4.878,-1.9608,-17.735001,-18.447001,-9.7735,1.877,-4.878,-1.9608,-17.733999,-2.8436,-1.9683,-4.613,-11.594,-8.6312,-3.9553,-6.5397,-6.8966,0.82935
-7.7093,-11.356,-6.8293,-8.7805,-5.8824,-15.793,-16.504999,-4.9191,-2.0065,-8.7805,-5.8824,-14.778,-8.5308,-3.873,-7.4566,-10.628,-10.564,9.4418,-6.5397,-1.9704,-2.0415
-11.501,-19.011,-9.7561,-17.561001,-17.646999,-16.764,-24.271999,-4.9191,-12.686,-17.561001,-17.646999,-17.733999,-18.009001,-8.6349,-13.144,-13.527,-16.361,6.571,-0.8254,-0.98522,-6.8262
-14.344,-25.709999,-17.561001,-19.511999,-20.587999,-16.764,-27.184,-2.0065,-15.599,-19.511999,-20.587999,-19.704,-24.645,-13.397,-19.778999,-16.424999,-21.191999,7.5279,-7.4921,0.98522,-11.611
-17.188,-24.753,-23.415001,-22.438999,-23.528999,-19.676001,-28.155001,0.90615,-17.540001,-22.438999,-23.528999,-21.674999,-24.645,-17.205999,-21.674999,-15.459,-23.124001,12.313,-17.016001,2.9557,-18.309
-15.292,-18.054001,-20.488001,-21.462999,-21.569,-12.88,-22.33,3.8188,-11.715,-21.462999,-21.569,-18.719,-20.853001,-22.921,-18.830999,-14.493,-18.292999,12.313,-18.921,2.9557,-24.051001
-7.7093,-11.356,-10.732,-18.537001,-18.627001,-7.055,-13.592,3.8188,-2.9773,-18.537001,-18.627001,-9.8522,-15.166,-27.683001,-11.248,-14.493,-11.53,18.054001,-10.349,2.9557,-24.051001
0.82148,-6.571,-2.9268,-18.537001,-16.667,1.6828,-7.767,6.7314,-10.744,-18.537001,-16.667,-1.9704,-6.6351,-26.73,-2.7172,-16.424999,-4.7665,19.011,-10.349,5.9113,-24.051001
9.3523,1.0845,3.9024,-18.537001,-20.587999,9.4498,-0.97087,13.528,-14.628,-18.537001,-20.587999,3.9409,7.5829,-13.397,7.7093,-11.594,2.963,25.709999,-17.016001,9.8522,-18.309
12.196,2.0415,5.8537,-19.511999,-22.549,6.5372,-1.9417,12.557,-19.482,-19.511999,-22.549,4.9261,18.957001,3.746,12.449,-5.7971,7.7939,21.882,-13.206,3.9409,-8.74
12.196,1.0845,5.8537,-23.415001,-27.451,1.6828,-3.8835,6.7314,-25.306999,-23.415001,-27.451,1.9704,25.591999,18.032,12.449,-0.96618,8.7601,14.226,-9.3968,0.98522,-0.12759
2.7172,-2.7432,0.0,-34.146,-38.235001,-8.9968,-11.65,-8.8026,-35.987,-34.146,-38.235001,-7.8818,19.905001,22.794001,5.8136,1.9324,4.8953,-3.9553,-15.111,-6.8966,4.6571
-12.449,-5.614,-7.8049,-45.854,-47.058998,-18.705999,-22.33,-24.337,-40.841,-45.854,-47.058998,-17.733999,5.6872,18.032,-6.5087,2.8986,0.06441,-21.18,-14.159,-17.733999,4.6571
-25.719,-11.356,-13.659,-50.731998,-52.941002,-30.356001,-29.125999,-30.162001,-38.900002,-50.731998,-52.941002,-25.615999,-7.5829,12.317,-18.830999,2.8986,-6.6989,-18.309,-6.5397,-20.690001,6.571
-31.406,-21.882,-24.389999,-56.584999,-54.902,-33.269001,-33.980999,-31.132999,-35.987,-56.584999,-54.902,-33.498001,-18.009001,5.6508,-28.309999,0.0,-15.395,-20.223,-12.254,-18.719,7.5279
-31.406,-31.451,-36.098,-54.633999,-57.842999,-31.327,-40.777,-28.219999,-35.987,-54.633999,-57.842999,-40.394001,-23.697001,-2.9206,-31.153,-5.7971,-23.124001,-16.396,-17.016001,-12.808,4.6571
-29.51,-28.580999,-34.146,-54.633999,-55.882,-32.298,-40.777,-22.395,-36.958,-54.633999,-55.882,-39.409,-23.697001,-12.444,-28.309999,-11.594,-23.124001,-6.8262,-14.159,-6.8966,-1.0845
-27.615,-23.796,-25.365999,-55.610001,-56.862999,-31.327,-34.951,-16.57,-32.104,-55.610001,-56.862999,-35.467999,-19.905001,-20.063,-21.674999,-18.357,-19.259001,-3.9553,-7.4921,2.9557,-11.611
-19.084,-18.054001,-18.537001,-52.682999,-54.902,-29.385,-32.039001,-11.715,-32.104,-52.682999,-54.902,-32.512001,-10.427,-20.063,-12.196,-22.222,-12.496,0.82935,-4.6349,8.867,-18.309
-7.7093,-10.399,-13.659,-52.682999,-55.882,-26.472,-29.125999,-10.744,-35.015999,-52.682999,-55.882,-31.527,0.94787,-15.302,-1.7694,-20.290001,-6.6989,-0.12759,-11.302,0.98522,-22.136999
-1.0742,-8.4848,-14.634,-48.779999,-52.941002,-19.676001,-27.184,-8.8026,-30.162001,-48.779999,-52.941002,-28.570999,3.7915,-14.349,1.0742,-19.323999,-4.7665,-3.9553,-13.206,-3.9409,-24.051001
0.82148,-9.4418,-16.584999,-40.976002,-51.960999,-16.764,-26.214001,-6.8608,-28.219999,-40.976002,-51.960999,-23.645,0.0,-16.254,0.12638,-18.357,-6.6989,-2.0415,-9.3968,-6.8966,-24.051001
-0.12638,-9.4418,-15.61,-40.976002,-47.058998,-14.822,-21.358999,-2.9773,-30.162001,-40.976002,-47.058998,-18.719,-4.7393,-17.205999,-1.7694,-15.459,-7.6651,-7.7831,-9.3968,-10.837,-16.396
-2.0221,-10.399,-13.659,-41.951,-45.098,-11.909,-19.417,-5.89,-23.365999,-41.951,-45.098,-17.733999,-5.6872,-13.397,-2.7172,-10.628,-5.7327,-5.8692,-2.7302,-8.867,-9.697
-4.8657,-8.4848,-7.8049,-40.976002,-40.195999,-12.88,-18.447001,-14.628,-21.424,-40.976002,-40.195999,-15.764,-4.7393,-5.7778,-1.7694,-3.8647,-0.90177,-2.0415,1.0794,-8.867,-2.9984
-9.6051,-5.614,1.9512,-38.049,-38.235001,-16.764,-15.534,-16.57,-28.219999,-38.049,-38.235001,-10.837,0.94787,6.6032,-1.7694,2.8986,3.9291,-5.8692,-8.4444,-8.867,3.7002
-6.7615,-1.7863,5.8537,-37.073002,-38.235001,-11.909,-12.621,-15.599,-29.191,-37.073002,-38.235001,-7.8818,9.4787,21.841,2.0221,12.56,8.7601,-9.697,-3.6825,-4.9261,15.183
-2.0221,3.9553,4.878,-35.122002,-38.235001,-8.9968,-9.7087,-16.57,-24.337,-35.122002,-38.235001,-7.8818,18.009001,32.317001,6.7615,21.256001,15.523,-23.094,-0.8254,1.9704,23.796
4.613,9.697,6.8293,-33.171001,-36.275002,-8.0259,-10.68,-11.715,-22.395,-33.171001,-36.275002,-5.9113,22.749001,34.222,14.344,25.121,21.32,-12.568,1.0794,8.867,23.796
13.144,11.611,12.683,-31.219999,-35.293999,-6.0841,-11.65,-10.744,-33.074001,-31.219999,-35.293999,-2.9557,25.591999,28.507999,22.875,20.290001,23.253,4.6571,-0.8254,20.690001,15.183
18.830999,5.8692,16.584999,-30.243999,-33.333,-2.2006,-8.7379,-13.657,-28.219999,-30.243999,-33.333,0.98522,27.488001,22.794001,26.667,11.594,22.287001,-4.9123,-11.302,18.719,6.571
18.830999,-0.82935,16.584999,-29.268,-31.372999,-0.2589,-10.68,-18.511,-21.424,-29.268,-31.372999,3.9409,24.645,17.079,22.875,6.7633,19.388,-10.654,-12.254,10.837,5.614
10.3,-7.5279,3.9024,-37.073002,-35.293999,-4.1424,-16.504999,-20.452999,-27.249001,-37.073002,-35.293999,0.0,17.062,9.4603,13.397,0.0,8.7601,-12.568,-7.4921,6.8966,3.7002
-2.97,-20.924999,-17.561001,-39.023998,-39.216,-13.851,-25.243,-16.57,-33.074001,-39.023998,-39.216,-12.808,3.7915,-2.9206,-2.7172,-10.628,-7.6651,-4.9123,-10.349,3.9409,-2.0415
-11.501,-26.667,-28.292999,-34.146,-41.175999,-16.764,-33.009998,-7.8317,-36.958,-34.146,-41.175999,-19.704,-5.6872,-11.492,-14.092,-18.357,-18.292999,-0.12759,-23.683001,1.9704,-9.697
-9.6051,-21.882,-16.584999,-22.438999,-30.392,-6.0841,-26.214001,3.8188,-27.249001,-22.438999,-30.392,-9.8522,-8.5308,-14.349,-15.039,-18.357,-14.428,2.7432,-16.063,3.9409,-12.568
-2.0221,-13.27,0.97561,-15.61,-23.528999,-0.2589,-12.621,9.644,-16.57,-15.61,-23.528999,1.9704,-8.5308,-15.302,-10.3,-15.459,-7.6651,4.6571,-5.5873,3.9409,-12.568
5.5608,-2.7432,11.707,-4.878,-10.784,-0.2589,-0.97087,15.469,-8.8026,-4.878,-10.784,10.837,-4.7393,-12.444,-2.7172,-11.594,-0.90177,15.183,-0.8254,4.9261,-14.482
13.144,8.74,15.61,-0.97561,-6.8627,10.421,4.8544,17.410999,-1.0356,-0.97561,-6.8627,16.749001,3.7915,-1.0159,6.7615,0.0,8.7601,20.924999,2.0317,5.9113,-13.525
14.092,17.351999,16.584999,-2.9268,-5.8824,15.275,7.767,11.586,1.877,-2.9268,-5.8824,15.764,15.166,13.27,14.344,16.424999,20.354,10.399,1.0794,3.9409,-6.8262
7.4566,16.396,7.8049,-5.8537,-9.8039,7.5081,0.97087,5.7605,-2.9773,-5.8537,-9.8039,7.8818,18.009001,20.889,14.344,24.155001,22.287001,0.82935,-2.7302,2.9557,-1.0845
3.6651,8.74,0.0,-14.634,-16.667,-3.1715,-6.7961,-2.9773,-4.9191,-14.634,-16.667,-0.98522,17.062,22.794001,13.397,21.256001,18.422001,4.6571,-4.6349,5.9113,0.82935
-0.12638,-0.82935,-7.8049,-23.415001,-22.549,-11.909,-16.504999,-12.686,-10.744,-23.415001,-22.549,-9.8522,12.322,18.983999,6.7615,10.628,7.7939,-1.0845,-5.5873,-2.9557,2.7432
-1.0742,-2.7432,-8.7805,-28.292999,-23.528999,-15.793,-17.476,-18.511,-12.686,-28.292999,-23.528999,-12.808,7.5829,16.127001,2.0221,5.7971,1.0306,-3.9553,-2.7302,-4.9261,7.5279
-2.97,-4.6571,-7.8049,-25.365999,-20.587999,-19.676001,-15.534,-17.540001,-11.715,-25.365999,-20.587999,-13.793,4.7393,11.365,-0.82148,1.9324,-0.90177,-2.0415,1.0794,1.9704,9.4418
-7.7093,-11.356,-11.707,-21.462999,-20.587999,-18.705999,-14.563,-14.628,-12.686,-21.462999,-20.587999,-14.778,2.8436,6.6032,-5.5608,-4.8309,-4.7665,-4.9123,-2.7302,5.9113,8.4848
-7.7093,-16.139999,-13.659,-20.488001,-20.587999,-12.88,-13.592,-11.715,-12.686,-20.488001,-20.587999,-14.778,1.8957,2.7937,-6.5087,-10.628,-6.6989,-5.8692,-1.7778,6.8966,5.614
-1.0742,-15.183,-7.8049,-15.61,-19.608,-6.0841,-12.621,-11.715,-9.7735,-15.61,-19.608,-11.823,0.94787,-2.9206,-2.7172,-11.594,-4.7665,-4.9123,-3.6825,10.837,1.7863
11.248,-5.614,4.878,-8.7805,-9.8039,1.6828,-4.8544,-5.89,-11.715,-8.7805,-9.8039,-1.9704,4.7393,-3.873,9.6051,-8.6957,1.9968,5.614,-5.5873,17.733999,3.7002
16.934999,2.0415,12.683,-3.9024,-3.9216,4.5955,1.9417,-2.9773,-2.0065,-3.9024,-3.9216,3.9409,5.6872,-5.7778,17.188,-8.6957,6.8277,-5.8692,-12.254,17.733999,1.7863
15.039,5.8692,14.634,-0.97561,0.98039,3.6246,5.8252,-0.06472,0.90615,-0.97561,0.98039,6.8966,2.8436,-5.7778,14.344,-4.8309,7.7939,0.82935,-7.4921,16.749001,4.6571
1.7694,-4.6571,2.9268,-2.9268,-3.9216,-2.2006,-2.9126,-4.9191,-6.8608,-2.9268,-3.9216,0.98522,-2.8436,-5.7778,1.0742,-4.8309,1.9968,6.571,2.0317,4.9261,4.6571
-5.8136,-10.399,-5.8537,-1.9512,-4.902,-0.2589,-6.7961,-5.89,-10.744,-1.9512,-4.902,-3.9409,-0.94787,3.746,-7.4566,-1.9324,0.06441,0.82935,4.8889,-5.9113,12.313
-7.7093,-4.6571,-0.97561,-0.97561,-4.902,1.6828,-6.7961,-2.9773,-9.7735,-0.97561,-4.902,-3.9409,1.8957,13.27,-7.4566,4.8309,3.9291,6.571,0.12698,-7.8818,13.27
-3.9179,5.8692,6.8293,3.9024,2.9412,2.6537,1.9417,-1.0356,-1.0356,3.9024,2.9412,1.9704,4.7393,17.079,-1.7694,9.6618,8.7601,7.5279,2.9841,-5.9113,10.399
-0.12638,15.439,6.8293,2.9268,3.9216,6.5372,10.68,-2.0065,2.8479,2.9268,3.9216,5.9113,5.6872,16.127001,2.0221,13.527,9.7262,-2.9984,8.6984,-6.8966,6.571
5.5608,23.094,3.9024,5.8537,8.8235,10.421,14.563,-0.06472,16.440001,5.8537,8.8235,9.8522,4.7393,11.365,6.7615,14.493,9.7262,-8.74,11.556,-6.8966,0.82935
10.3,22.136999,0.0,12.683,13.725,4.5955,17.476,3.8188,22.264999,12.683,13.725,9.8522,6.6351,10.413,8.6572,13.527,7.7939,-1.0845,2.9841,-2.9557,0.82935
13.144,15.439,0.97561,14.634,16.667,7.5081,15.534,9.644,18.382,14.634,16.667,7.8818,9.4787,10.413,11.501,9.6618,7.7939,8.4848,2.0317,3.9409,2.7432
12.196,3.9553,0.97561,10.732,10.784,9.4498,5.8252,10.615,12.557,10.732,10.784,2.9557,4.7393,3.746,5.8136,0.96618,1.0306,-4.9123,11.556,5.9113,2.7432
5.5608,-4.6571,0.0,8.7805,5.8824,5.5663,0.0,7.7023,2.8479,8.7805,5.8824,0.0,-1.8957,-2.9206,-2.7172,-6.7633,-4.7665,-2.9984,9.6508,0.0,2.7432
-1.0742,-6.571,-0.97561,8.7805,6.8627,1.6828,-2.9126,6.7314,-2.0065,8.7805,6.8627,-1.9704,-1.8957,-3.873,-7.4566,-6.7633,-3.8003,1.7863,2.9841,-6.8966,3.7002
-7.7093,-8.4848,-6.8293,8.7805,2.9412,0.71197,-8.7379,6.7314,-2.0065,8.7805,2.9412,-6.8966,-1.8957,-4.8254,-8.4044,-5.7971,-3.8003,-0.12759,-1.7778,-3.9409,0.82935
-11.501,-5.614,-6.8293,7.8049,2.9412,-0.2589,-5.8252,1.877,-2.0065,7.8049,2.9412,-8.867,-2.8436,-5.7778,-7.4566,-2.8986,-2.8341,-4.9123,-10.349,2.9557,-0.12759
-10.553,-4.6571,-3.9024,5.8537,3.9216,-3.1715,-3.8835,-1.0356,-5.89,5.8537,3.9216,-8.867,-2.8436,-5.7778,-6.5087,0.0,-3.8003,-2.0415,-9.3968,5.9113,2.7432
-6.7615,-8.4848,-2.9268,4.878,5.8824,-8.0259,-5.8252,-4.9191,-11.715,4.878,5.8824,-9.8522,-3.7915,-4.8254,-4.613,-0.96618,-4.7665,-0.12759,-8.4444,6.8966,3.7002
-1.0742,-10.399,-2.9268,5.8537,0.0,-2.2006,-6.7961,-1.0356,-15.599,5.8537,0.0,-7.8818,-1.8957,-1.9683,-2.7172,-1.9324,-3.8003,-10.654,-6.5397,6.8966,0.82935
7.4566,-10.399,-4.878,9.7561,2.9412,2.6537,0.0,6.7314,-15.599,9.7561,2.9412,-0.98522,-0.94787,-1.9683,-0.82148,-3.8647,-5.7327,5.614,-14.159,9.8522,-1.0845
13.144,-2.7432,-2.9268,15.61,9.8039,11.392,7.767,17.410999,-6.8608,15.61,9.8039,5.9113,-3.7915,-2.9206,1.0742,-3.8647,-5.7327,17.097,-12.254,8.867,-2.0415
15.039,6.8262,4.878,18.537001,16.667,13.333,11.65,22.264999,-1.0356,18.537001,16.667,4.9261,-8.5308,-6.7302,1.0742,0.0,-2.8341,12.313,2.0317,3.9409,-2.0415
14.092,12.568,12.683,18.537001,13.725,10.421,12.621,19.353001,1.877,18.537001,13.725,5.9113,-6.6351,-4.8254,3.9179,5.7971,2.963,15.183,8.6984,5.9113,0.82935
12.196,15.439,12.683,18.537001,13.725,18.188,11.65,17.410999,9.644,18.537001,13.725,5.9113,-4.7393,-1.9683,2.97,9.6618,3.9291,9.4418,9.6508,-0.98522,1.7863
5.5608,11.611,5.8537,18.537001,13.725,13.333,5.8252,19.353001,10.615,18.537001,13.725,2.9557,-4.7393,-0.06349,-0.82148,9.6618,2.963,10.399,8.6984,-10.837,1.7863
1.7694,3.9553,-5.8537,22.438999,15.686,7.5081,5.8252,20.323999,0.90615,22.438999,15.686,1.9704,-6.6351,-3.873,-2.7172,3.8647,-2.8341,7.5279,2.0317,-8.867,-1.0845
-0.12638,-4.6571,-12.683,23.415001,17.646999,10.421,6.7961,23.236,3.8188,23.415001,17.646999,1.9704,-10.427,-11.492,-5.5608,-6.7633,-10.564,2.7432,2.9841,-8.867,-8.74
1.7694,-3.7002,-2.9268,28.292999,21.569,16.246,10.68,26.149,10.615,28.292999,21.569,8.867,-10.427,-14.349,-5.5608,-7.7295,-8.6312,4.6571,3.9365,-7.8818,-10.654
-1.0742,-0.82935,7.8049,29.268,23.528999,18.188,11.65,23.236,5.7605,29.268,23.528999,11.823,-12.322,-15.302,-8.4044,-4.8309,-4.7665,5.614,-5.5873,-10.837,-11.611
-2.97,3.9553,13.659,28.292999,23.528999,16.246,14.563,21.294001,4.7896,28.292999,23.528999,13.793,-10.427,-11.492,-10.3,0.96618,-0.90177,-1.0845,-6.5397,-9.8522,-10.654
-1.0742,3.9553,13.659,24.389999,19.608,10.421,11.65,14.498,6.7314,24.389999,19.608,12.808,-5.6872,-4.8254,-7.4566,3.8647,1.9968,-8.74,-6.5397,-1.9704,-4.9123
2.7172,1.0845,7.8049,16.584999,10.784,5.5663,5.8252,5.7605,-1.0356,16.584999,10.784,6.8966,-0.94787,-0.06349,-2.7172,2.8986,-0.90177,-2.9984,-7.4921,9.8522,-2.0415
5.5608,1.0845,1.9512,12.683,5.8824,3.6246,4.8544,3.8188,-11.715,12.683,5.8824,2.9557,0.94787,1.8413,1.0742,1.9324,-3.8003,8.4848,-2.7302,11.823,1.7863
3.6651,-4.6571,-7.8049,8.7805,1.9608,4.5955,0.0,5.7605,-13.657,8.7805,1.9608,-2.9557,-0.94787,0.88889,0.12638,-2.8986,-9.5974,8.4848,-0.8254,4.9261,2.7432
4.613,-12.313,-10.732,10.732,5.8824,6.5372,-3.8835,10.615,-14.628,10.732,5.8824,-4.9261,-2.8436,-1.0159,-0.82148,-6.7633,-9.5974,6.571,-1.7778,3.9409,0.82935
4.613,-15.183,-4.878,9.7561,2.9412,5.5663,-6.7961,13.528,-8.8026,9.7561,2.9412,-4.9261,-5.6872,-3.873,-1.7694,-7.7295,-7.6651,6.571,-4.6349,0.98522,-1.0845
4.613,-10.399,4.878,9.7561,6.8627,5.5663,-1.9417,11.586,-1.0356,9.7561,6.8627,-1.9704,-4.7393,-2.9206,-1.7694,-3.8647,-3.8003,8.4848,-3.6825,-0.98522,0.82935
1.7694,-1.7863,7.8049,10.732,6.8627,6.5372,2.9126,10.615,3.8188,10.732,6.8627,0.98522,-3.7915,-1.9683,-2.7172,-0.96618,-1.868,-0.12759,-6.5397,-1.9704,-0.12759
-3.9179,2.9984,0.0,8.7805,7.8431,0.71197,5.8252,5.7605,6.7314,8.7805,7.8431,0.0,-5.6872,-3.873,-7.4566,-0.96618,-4.7665,-5.8692,0.12698,-6.8966,-2.0415
-0.12638,9.697,-0.97561,12.683,10.784,4.5955,7.767,10.615,10.615,12.683,10.784,1.9704,-1.8957,-1.9683,-2.7172,3.8647,-1.868,4.6571,8.6984,-5.9113,-1.0845
3.6651,11.611,3.9024,11.707,10.784,6.5372,9.7087,9.644,9.644,11.707,10.784,2.9557,0.94787,-0.06349,3.9179,4.8309,4.8953,8.4848,7.746,-3.9409,1.7863
0.82148,5.8692,4.878,9.7561,9.8039,4.5955,9.7087,7.7023,9.644,9.7561,9.8039,1.9704,1.8957,-1.0159,6.7615,1.9324,4.8953,7.5279,12.508,0.98522,2.7432
-7.7093,-4.6571,-2.9268,13.659,12.745,-0.2589,3.8835,1.877,16.440001,13.659,12.745,-2.9557,-3.7915,-7.6825,-0.82148,-7.7295,-4.7665,1.7863,14.413,-1.9704,-0.12759
-12.449,-9.4418,-6.8293,9.7561,13.725,-2.2006,1.9417,-4.9191,21.294001,9.7561,13.725,-3.9409,-5.6872,-10.54,-8.4044,-11.594,-10.564,-10.654,9.6508,-8.867,-2.9984
-4.8657,0.12759,1.9512,6.8293,13.725,0.71197,8.7379,-5.89,20.323999,6.8293,13.725,3.9409,0.0,-4.8254,-4.613,-1.9324,-2.8341,-6.8262,6.7937,-3.9409,2.7432
1.7694,10.654,10.732,11.707,16.667,7.5081,14.563,-3.9482,16.440001,11.707,16.667,9.8522,4.7393,1.8413,1.0742,8.6957,7.7939,-11.611,5.8413,2.9557,6.571
4.613,16.396,16.584999,12.683,13.725,4.5955,13.592,-0.06472,12.557,12.683,13.725,10.837,5.6872,5.6508,5.8136,18.357,14.557,-2.9984,-2.7302,4.9261,5.614
3.6651,20.223,18.537001,11.707,12.745,1.6828,14.563,-2.0065,7.7023,11.707,12.745,9.8522,4.7393,8.5079,9.6051,22.222,18.422001,5.614,-4.6349,4.9261,9.4418
3.6651,15.439,15.61,8.7805,7.8431,7.5081,14.563,-1.0356,0.90615,8.7805,7.8431,7.8818,4.7393,10.413,10.553,18.357,15.523,5.614,-1.7778,4.9261,11.356
1.7694,3.9553,6.8293,3.9024,7.8431,9.4498,10.68,-2.9773,2.8479,3.9024,7.8431,3.9409,0.94787,7.5556,6.7615,8.6957,6.8277,-1.0845,-3.6825,5.9113,7.5279
-0.12638,-1.7863,0.0,0.97561,3.9216,3.6246,2.9126,-3.9482,7.7023,0.97561,3.9216,0.0,0.94787,5.6508,3.9179,3.8647,1.0306,-1.0845,5.8413,2.9557,6.571
-2.97,1.0845,0.0,1.9512,8.8235,0.71197,4.8544,-2.9773,11.586,1.9512,8.8235,0.98522,0.0,2.7937,0.12638,2.8986,-0.90177,-0.12759,13.46,-0.98522,6.571
-8.6572,3.9553,0.97561,2.9268,8.8235,-5.1133,9.7087,-3.9482,13.528,2.9268,8.8235,1.9704,-4.7393,-2.9206,-7.4566,-0.96618,-6.6989,-2.0415,10.603,-5.9113,1.7863
-7.7093,6.8262,5.8537,4.878,12.745,-0.2589,12.621,-1.0356,15.469,4.878,12.745,5.9113,-7.5829,-6.7302,-11.248,-1.9324,-6.6989,-5.8692,9.6508,-1.9704,-1.0845
-3.9179,9.697,7.8049,7.8049,11.765,3.6246,13.592,-2.9773,16.440001,7.8049,11.765,7.8818,-7.5829,-6.7302,-11.248,-0.96618,-5.7327,-5.8692,8.6984,-9.8522,-1.0845
-1.0742,10.654,1.9512,5.8537,10.784,8.479,13.592,-2.9773,9.644,5.8537,10.784,4.9261,-6.6351,-4.8254,-9.3523,-0.96618,-6.6989,-1.0845,12.508,-11.823,1.7863
-0.12638,10.654,-4.878,0.97561,4.902,3.6246,6.7961,-4.9191,14.498,0.97561,4.902,0.0,-6.6351,-6.7302,-5.5608,0.0,-5.7327,-6.8262,8.6984,-7.8818,3.7002
-2.0221,7.7831,-2.9268,-0.97561,3.9216,-6.0841,5.8252,-7.8317,17.410999,-0.97561,3.9216,-0.98522,-7.5829,-7.6825,-2.7172,0.96618,-2.8341,-4.9123,9.6508,-6.8966,1.7863
-2.0221,2.9984,-0.97561,1.9512,5.8824,-3.1715,4.8544,-4.9191,16.440001,1.9512,5.8824,-0.98522,-6.6351,-6.7302,-0.82148,-0.96618,-2.8341,-3.9553,7.746,-3.9409,2.7432
-2.0221,-4.6571,-6.8293,4.878,5.8824,-0.2589,0.0,-4.9191,11.586,4.878,5.8824,-2.9557,-4.7393,-4.8254,-0.82148,-4.8309,-4.7665,-6.8262,2.9841,-3.9409,3.7002
1.7694,-6.571,-9.7561,10.732,10.784,4.5955,1.9417,-2.0065,6.7314,10.732,10.784,-0.98522,0.0,0.88889,4.8657,-2.8986,-1.868,-10.654,-0.8254,0.0,3.7002
4.613,-6.571,-6.8293,14.634,12.745,7.5081,3.8835,2.8479,9.644,14.634,12.745,2.9557,5.6872,5.6508,8.6572,0.96618,2.963,-2.9984,2.9841,3.9409,4.6571
4.613,2.9984,6.8293,14.634,12.745,9.4498,13.592,2.8479,9.644,14.634,12.745,9.8522,8.5308,9.4603,8.6572,5.7971,8.7601,11.356,4.8889,3.9409,3.7002
1.7694,12.568,17.561001,9.7561,11.765,9.4498,20.388,3.8188,12.557,9.7561,11.765,14.778,5.6872,7.5556,3.9179,8.6957,9.7262,8.4848,6.7937,-0.98522,0.82935
1.7694,13.525,18.537001,8.7805,11.765,7.5081,18.447001,2.8479,11.586,8.7805,11.765,13.793,-0.94787,-0.06349,0.12638,8.6957,7.7939,-2.9984,3.9365,0.0,-2.0415
7.4566,15.439,12.683,7.8049,8.8235,9.4498,13.592,6.7314,8.6731,7.8049,8.8235,7.8818,1.8957,2.7937,6.7615,14.493,9.7262,-4.9123,0.12698,0.98522,-0.12759
10.3,8.74,0.97561,6.8293,5.8824,1.6828,0.97087,5.7605,6.7314,6.8293,5.8824,0.98522,5.6872,4.6984,11.501,12.56,8.7601,4.6571,-1.7778,1.9704,0.82935
7.4566,-2.7432,-5.8537,4.878,0.0,-0.2589,-6.7961,2.8479,-1.0356,4.878,0.0,-5.9113,4.7393,2.7937,10.553,2.8986,2.963,10.399,2.0317,7.8818,0.82935
3.6651,-9.4418,-6.8293,3.9024,-2.9412,0.71197,-8.7379,2.8479,-4.9191,3.9024,-2.9412,-9.8522,0.94787,-1.9683,5.8136,-5.7971,-2.8341,5.614,-1.7778,5.9113,2.7432
-4.8657,-18.054001,-13.659,-2.9268,-9.8039,-7.055,-13.592,-2.0065,-8.8026,-2.9268,-9.8039,-16.749001,-7.5829,-8.6349,-3.6651,-15.459,-11.53,0.82935,-4.6349,-0.98522,0.82935
-9.6051,-18.054001,-14.634,-3.9024,-5.8824,-7.055,-12.621,-0.06472,-4.9191,-3.9024,-5.8824,-17.733999,-10.427,-9.5873,-8.4044,-16.424999,-13.462,1.7863,4.8889,-4.9261,1.7863
-9.6051,-16.139999,-15.61,0.0,-2.9412,-7.055,-10.68,3.8188,0.90615,0.0,-2.9412,-14.778,-7.5829,-6.7302,-8.4044,-14.493,-11.53,3.7002,0.12698,-6.8966,-1.0845
-5.8136,-11.356,-14.634,6.8293,3.9216,-4.1424,-5.8252,8.6731,3.8188,6.8293,3.9216,-7.8818,-7.5829,-5.7778,-7.4566,-11.594,-10.564,6.571,-2.7302,-4.9261,-2.9984
0.82148,-3.7002,-5.8537,12.683,8.8235,3.6246,-1.9417,10.615,4.7896,12.683,8.8235,0.98522,-7.5829,-6.7302,-3.6651,-5.7971,-7.6651,6.571,0.12698,3.9409,-2.9984
6.5087,5.8692,8.7805,14.634,9.8039,13.333,4.8544,7.7023,5.7605,14.634,9.8039,7.8818,-6.6351,-4.8254,0.12638,0.96618,-0.90177,0.82935,1.0794,2.9557,-2.0415
4.613,11.611,13.659,10.732,9.8039,11.392,12.621,2.8479,2.8479,10.732,9.8039,10.837,-3.7915,-1.9683,2.0221,4.8309,2.963,5.614,-4.6349,-3.9409,-2.9984
-2.0221,6.8262,10.732,5.8537,5.8824,5.5663,9.7087,-2.9773,7.7023,5.8537,5.8824,7.8818,-1.8957,-1.0159,2.97,5.7971,6.8277,-0.12759,-2.7302,-1.9704,-0.12759
0.82148,6.8262,13.659,8.7805,8.8235,3.6246,9.7087,-1.0356,5.7605,8.7805,8.8235,9.8522,2.8436,0.88889,8.6572,7.7295,11.659,-1.0845,0.12698,3.9409,1.7863
6.5087,6.8262,14.634,11.707,11.765,6.5372,13.592,3.8188,7.7023,11.707,11.765,13.793,4.7393,0.88889,11.501,3.8647,10.692,-1.0845,-3.6825,6.8966,-1.0845
10.3,7.7831,11.707,8.7805,8.8235,8.479,13.592,0.90615,14.498,8.7805,8.8235,11.823,5.6872,1.8413,12.449,3.8647,9.7262,-2.9984,4.8889,4.9261,0.82935
11.248,8.74,6.8293,3.9024,4.902,6.5372,7.767,0.90615,17.410999,3.9024,4.902,6.8966,6.6351,6.6032,10.553,9.6618,10.692,-0.12759,10.603,0.98522,5.614
10.3,10.654,4.878,4.878,7.8431,6.5372,7.767,-0.06472,16.440001,4.878,7.8431,4.9261,5.6872,8.5079,9.6051,14.493,11.659,-2.0415,14.413,0.98522,11.356
4.613,9.697,1.9512,-1.9512,0.0,1.6828,0.0,-3.9482,6.7314,-1.9512,0.0,0.0,0.94787,5.6508,4.8657,14.493,9.7262,-2.9984,14.413,-4.9261,11.356
1.7694,3.9553,1.9512,-1.9512,-3.9216,-2.2006,-2.9126,-1.0356,0.90615,-1.9512,-3.9216,-2.9557,0.0,3.746,2.97,10.628,5.8615,4.6571,9.6508,2.9557,11.356
-1.0742,-2.7432,-1.9512,0.0,-4.902,-5.1133,-6.7961,2.8479,-0.06472,0.0,-4.902,-6.8966,-1.8957,-0.06349,0.12638,1.9324,-0.90177,3.7002,-0.8254,2.9557,7.5279
-4.8657,-8.4848,-2.9268,-1.9512,-3.9216,-2.2006,-8.7379,2.8479,0.90615,-1.9512,-3.9216,-7.8818,-6.6351,-6.7302,-5.5608,-10.628,-9.5974,-0.12759,-1.7778,-2.9557,2.7432
-6.7615,-10.399,-2.9268,-0.97561,-1.9608,4.5955,-5.8252,3.8188,0.90615,-0.97561,-1.9608,-2.9557,-12.322,-14.349,-12.196,-21.256001,-17.327,-2.0415,1.0794,-8.867,-7.7831
-4.8657,-4.6571,-4.878,3.9024,6.8627,4.5955,1.9417,5.7605,4.7896,3.9024,6.8627,2.9557,-11.374,-12.444,-12.196,-18.357,-15.395,9.4418,-2.7302,-7.8818,-12.568
1.7694,2.0415,-3.9024,6.8293,5.8824,0.71197,2.9126,5.7605,5.7605,6.8293,5.8824,2.9557,-5.6872,-5.7778,-3.6651,-5.7971,-6.6989,11.356,-3.6825,-2.9557,-7.7831
8.4044,5.8692,-0.97561,6.8293,3.9216,2.6537,2.9126,5.7605,-1.0356,6.8293,3.9216,0.98522,1.8957,0.88889,8.6572,3.8647,2.963,7.5279,-4.6349,4.9261,-4.9123
10.3,4.9123,0.97561,9.7561,4.902,6.5372,5.8252,7.7023,-5.89,9.7561,4.902,2.9557,5.6872,2.7937,12.449,6.7633,7.7939,1.7863,-5.5873,3.9409,-5.8692
12.196,6.8262,9.7561,18.537001,10.784,8.479,10.68,10.615,-2.9773,18.537001,10.784,12.808,6.6351,3.746,13.397,7.7295,11.659,-2.9984,1.0794,3.9409,-2.9984
13.144,10.654,22.438999,20.488001,17.646999,20.129,21.358999,11.586,10.615,20.488001,17.646999,24.631001,9.4787,5.6508,14.344,7.7295,15.523,-2.9984,5.8413,6.8966,0.82935
12.196,11.611,26.341,16.584999,20.587999,22.070999,19.417,6.7314,16.440001,16.584999,20.587999,26.601,11.374,6.6032,17.188,5.7971,17.455999,-2.9984,6.7937,12.808,1.7863
9.3523,11.611,22.438999,10.732,15.686,12.362,13.592,-2.9773,13.528,10.732,15.686,19.704,8.5308,6.6032,15.292,6.7633,17.455999,-1.0845,3.9365,7.8818,4.6571
5.5608,8.74,15.61,3.9024,7.8431,2.6537,9.7087,-6.8608,13.528,3.9024,7.8431,12.808,5.6872,6.6032,9.6051,6.7633,11.659,-2.0415,6.7937,0.0,8.4848
-1.0742,2.9984,1.9512,-4.878,2.9412,-6.0841,1.9417,-9.7735,3.8188,-4.878,2.9412,3.9409,0.0,1.8413,-0.82148,2.8986,1.0306,-2.9984,7.746,-2.9557,8.4848
-7.7093,-2.7432,-10.732,-7.8049,-4.902,-9.9676,-4.8544,-10.744,-3.9482,-7.8049,-4.902,-3.9409,-6.6351,-4.8254,-9.3523,-2.8986,-9.5974,-4.9123,-1.7778,-3.9409,2.7432
-7.7093,-3.7002,-13.659,-3.9024,-2.9412,-12.88,-5.8252,-5.89,-1.0356,-3.9024,-2.9412,-5.9113,-3.7915,-1.9683,-7.4566,-1.9324,-8.6312,-6.8262,-1.7778,-1.9704,2.7432
-4.8657,-1.7863,-11.707,0.0,-0.98039,-11.909,-3.8835,-2.0065,2.8479,0.0,-0.98039,-1.9704,2.8436,3.746,0.12638,0.96618,-1.868,-4.9123,7.746,0.98522,5.614
-5.8136,0.12759,-6.8293,0.0,2.9412,-5.1133,3.8835,-1.0356,1.877,0.0,2.9412,1.9704,1.8957,1.8413,-0.82148,0.0,0.06441,-2.0415,5.8413,-0.98522,5.614
-9.6051,0.12759,-4.878,-0.97561,2.9412,1.6828,4.8544,-3.9482,-0.06472,-0.97561,2.9412,4.9261,-2.8436,-0.06349,-6.5087,-3.8647,-1.868,-3.9553,5.8413,-1.9704,1.7863
-8.6572,2.0415,-6.8293,0.0,6.8627,5.5663,4.8544,-1.0356,-0.06472,0.0,6.8627,7.8818,-0.94787,1.8413,-9.3523,-3.8647,-3.8003,-1.0845,4.8889,-0.98522,2.7432
0.82148,8.74,-1.9512,1.9512,5.8824,3.6246,5.8252,5.7605,0.90615,1.9512,5.8824,8.867,8.5308,10.413,-0.82148,5.7971,4.8953,3.7002,-4.6349,5.9113,5.614
8.4044,12.568,6.8293,1.9512,4.902,-1.2298,2.9126,1.877,-2.9773,1.9512,4.902,8.867,16.114,17.079,10.553,16.424999,16.49,6.571,-0.8254,9.8522,7.5279
7.4566,7.7831,9.7561,2.9268,0.0,-2.2006,4.8544,-0.06472,-11.715,2.9268,0.0,8.867,15.166,16.127001,13.397,15.459,17.455999,-2.0415,2.0317,11.823,5.614
10.3,4.9123,18.537001,9.7561,2.9412,8.479,7.767,5.7605,-5.89,9.7561,2.9412,15.764,11.374,11.365,16.24,12.56,17.455999,2.7432,-0.8254,6.8966,3.7002
18.830999,5.8692,30.243999,15.61,7.8431,18.188,8.7379,11.586,-5.89,15.61,7.8431,22.66,7.5829,5.6508,20.032,10.628,17.455999,9.4418,-12.254,0.0,-1.0845
24.518,4.9123,28.292999,12.683,7.8431,22.070999,3.8835,12.557,-7.8317,12.683,7.8431,20.690001,7.5829,2.7937,20.979,6.7633,15.523,-0.12759,-12.254,3.9409,-3.9553
19.778999,5.8692,19.511999,11.707,9.8039,17.216999,0.0,9.644,-5.89,11.707,9.8039,15.764,8.5308,3.746,17.188,7.7295,15.523,4.6571,-5.5873,10.837,-5.8692
10.3,5.8692,10.732,5.8537,5.8824,7.5081,-0.97087,3.8188,-3.9482,5.8537,5.8824,7.8818,7.5829,2.7937,10.553,7.7295,13.591,10.399,-6.5397,9.8522,-6.8262
1.7694,6.8262,3.9024,-0.97561,2.9412,-4.1424,0.97087,-3.9482,-2.9773,-0.97561,2.9412,3.9409,2.8436,-1.0159,2.97,4.8309,8.7601,-1.0845,-4.6349,4.9261,-9.697
-2.97,6.8262,-0.97561,-7.8049,-3.9216,-8.9968,0.97087,-8.8026,0.90615,-7.8049,-3.9216,3.9409,-3.7915,-5.7778,-4.613,0.96618,-0.90177,0.82935,0.12698,-0.98522,-6.8262
-2.0221,7.7831,-2.9268,-7.8049,-1.9608,-6.0841,2.9126,-8.8026,8.6731,-7.8049,-1.9608,7.8818,-5.6872,-4.8254,-6.5087,-0.96618,-6.6989,4.6571,4.8889,-6.8966,3.7002
-1.0742,7.7831,-3.9024,-2.9268,0.98039,0.71197,5.8252,-7.8317,12.557,-2.9268,0.98039,11.823,0.0,1.8413,-2.7172,1.9324,-3.8003,-3.9553,14.413,-7.8818,7.5279
-3.9179,2.9984,-5.8537,2.9268,3.9216,-1.2298,4.8544,-6.8608,7.7023,2.9268,3.9216,10.837,4.7393,5.6508,-0.82148,2.8986,1.0306,-10.654,15.365,-5.9113,5.614
-4.8657,-1.7863,-8.7805,-0.97561,0.98039,-5.1133,0.97087,-5.89,5.7605,-0.97561,0.98039,6.8966,5.6872,6.6032,2.0221,2.8986,3.9291,-15.439,12.508,0.0,5.614
-2.0221,-0.82935,-7.8049,-2.9268,0.0,-2.2006,2.9126,-1.0356,1.877,-2.9268,0.0,3.9409,5.6872,6.6032,4.8657,2.8986,6.8277,-8.74,2.9841,-0.98522,4.6571
1.7694,-1.7863,-2.9268,0.97561,-0.98039,2.6537,0.97087,3.8188,2.8479,0.97561,-0.98039,5.9113,3.7915,3.746,5.8136,1.9324,5.8615,-8.74,2.0317,-3.9409,2.7432
0.82148,-3.7002,0.97561,3.9024,2.9412,5.5663,-1.9417,4.7896,4.7896,3.9024,2.9412,7.8818,0.0,-1.0159,2.97,0.0,2.963,-7.7831,6.7937,-2.9557,0.82935
-1.0742,-6.571,0.97561,5.8537,2.9412,4.5955,-2.9126,5.7605,0.90615,5.8537,2.9412,7.8818,0.94787,-1.0159,2.0221,-2.8986,1.9968,1.7863,3.9365,-1.9704,0.82935
-0.12638,-9.4418,0.0,5.8537,1.9608,2.6537,-4.8544,3.8188,-2.9773,5.8537,1.9608,5.9113,3.7915,0.88889,2.0221,-2.8986,2.963,2.7432,-1.7778,0.98522,1.7863
-0.12638,-9.4418,-2.9268,1.9512,-1.9608,3.6246,-6.7961,-0.06472,-10.744,1.9512,-1.9608,3.9409,-0.94787,-1.9683,-0.82148,-2.8986,-0.90177,-2.9984,-8.4444,-1.9704,-2.0415
2.7172,-0.82935,-1.9512,3.9024,-0.98039,7.5081,-4.8544,3.8188,-14.628,3.9024,-0.98039,6.8966,-0.94787,-1.0159,0.12638,3.8647,1.9968,-0.12759,-14.159,1.9704,-1.0845
3.6651,2.0415,0.97561,4.878,-0.98039,4.5955,-5.8252,5.7605,-16.57,4.878,-0.98039,5.9113,-0.94787,-1.0159,2.0221,3.8647,1.9968,-0.12759,-12.254,1.9704,-1.0845
1.7694,-0.82935,3.9024,4.878,-1.9608,4.5955,-0.97087,4.7896,-7.8317,4.878,-1.9608,4.9261,-2.8436,-3.873,0.12638,-1.9324,-1.868,-6.8262,-2.7302,1.9704,-5.8692
2.7172,-0.82935,9.7561,5.8537,2.9412,10.421,2.9126,8.6731,3.8188,5.8537,2.9412,7.8818,-5.6872,-6.7302,-0.82148,-3.8647,-2.8341,-2.0415,0.12698,3.9409,-6.8262
1.7694,2.0415,10.732,3.9024,1.9608,7.5081,-0.97087,9.644,3.8188,3.9024,1.9608,6.8966,-7.5829,-8.6349,-4.613,-7.7295,-5.7327,-0.12759,-2.7302,-5.9113,-10.654
0.82148,4.9123,12.683,0.97561,1.9608,5.5663,1.9417,5.7605,1.877,0.97561,1.9608,6.8966,-6.6351,-7.6825,-5.5608,-7.7295,-3.8003,3.7002,6.7937,-10.837,-11.611
-2.97,3.9553,5.8537,-3.9024,-5.8824,-1.2298,0.0,0.90615,-2.9773,-3.9024,-5.8824,0.98522,-5.6872,-4.8254,-4.613,-3.8647,-1.868,11.356,6.7937,-5.9113,-6.8262
-9.6051,-1.7863,-10.732,-6.8293,-8.8235,-16.764,-6.7961,-4.9191,-2.0065,-6.8293,-8.8235,-8.867,-0.94787,-0.06349,-2.7172,-0.96618,-1.868,10.399,2.0317,-0.98522,2.7432
-12.449,-5.614,-22.438999,-10.732,-9.8039,-20.646999,-10.68,-9.7735,2.8479,-10.732,-9.8039,-16.749001,3.7915,4.6984,0.12638,0.96618,-1.868,5.614,2.9841,3.9409,4.6571
-10.553,-8.4848,-17.561001,-8.7805,-5.8824,-14.822,-8.7379,-8.8026,-2.9773,-8.7805,-5.8824,-16.749001,1.8957,1.8413,-2.7172,-0.96618,-1.868,-1.0845,3.9365,0.98522,3.7002
-6.7615,-3.7002,-2.9268,-5.8537,-3.9216,-10.939,-5.8252,-5.89,0.90615,-5.8537,-3.9216,-12.808,0.0,0.88889,-4.613,1.9324,1.0306,-5.8692,0.12698,-0.98522,6.571
-5.8136,0.12759,3.9024,-2.9268,0.98039,-8.0259,-3.8835,-3.9482,5.7605,-2.9268,0.98039,-8.867,1.8957,4.6984,-3.6651,5.7971,4.8953,-13.525,2.0317,0.0,5.614
-9.6051,-3.7002,-2.9268,-1.9512,0.0,-9.9676,-5.8252,-0.06472,-0.06472,-1.9512,0.0,-11.823,0.94787,2.7937,-7.4566,0.96618,1.0306,-5.8692,1.0794,0.0,0.82935
-11.501,-7.5279,-11.707,-1.9512,-3.9216,-7.055,-7.767,2.8479,-2.9773,-1.9512,-3.9216,-13.793,-3.7915,-1.9683,-12.196,-4.8309,-5.7327,-1.0845,-11.302,-1.9704,-6.8262
-4.8657,-4.6571,-7.8049,-1.9512,-4.902,-2.2006,-4.8544,5.7605,-7.8317,-1.9512,-4.902,-9.8522,-2.8436,-3.873,-8.4044,-6.7633,-5.7327,2.7432,-14.159,-1.9704,-8.74
4.613,-4.6571,1.9512,-1.9512,-1.9608,1.6828,-2.9126,9.644,-8.8026,-1.9512,-1.9608,-6.8966,0.0,-1.0159,2.0221,-6.7633,0.06441,11.356,-7.4921,4.9261,-11.611
12.196,-6.571,4.878,0.97561,-1.9608,3.6246,-7.767,12.557,-13.657,0.97561,-1.9608,-5.9113,2.8436,0.88889,10.553,-7.7295,3.9291,19.011,-5.5873,12.808,-12.568
15.039,-10.399,0.97561,2.9268,-3.9216,3.6246,-12.621,12.557,-12.686,2.9268,-3.9216,-8.867,4.7393,2.7937,14.344,-5.7971,3.9291,19.968,-5.5873,9.8522,-9.697
13.144,-8.4848,-2.9268,1.9512,-1.9608,1.6828,-9.7087,6.7314,-3.9482,1.9512,-1.9608,-8.867,7.5829,6.6032,13.397,-2.8986,2.963,13.27,-2.7302,7.8818,-3.9553
4.613,-3.7002,-6.8293,-1.9512,-8.8235,-4.1424,-7.767,-2.0065,-4.9191,-1.9512,-8.8235,-8.867,4.7393,4.6984,5.8136,-0.96618,0.06441,0.82935,-7.4921,5.9113,-1.0845
-0.12638,2.9984,-3.9024,-4.878,-7.8431,-2.2006,-2.9126,-6.8608,-2.9773,-4.878,-7.8431,-6.8966,2.8436,3.746,2.0221,3.8647,1.9968,-4.9123,-3.6825,0.98522,6.571
-2.0221,6.8262,0.0,-8.7805,-4.902,-4.1424,-2.9126,-8.8026,5.7605,-8.7805,-4.902,-6.8966,0.94787,4.6984,1.0742,7.7295,4.8953,-3.9553,5.8413,0.0,12.313
-3.9179,4.9123,-3.9024,-11.707,-3.9216,-8.0259,-5.8252,-12.686,5.7605,-11.707,-3.9216,-10.837,-1.8957,1.8413,-0.82148,4.8309,1.0306,-5.8692,9.6508,-2.9557,9.4418
-5.8136,-0.82935,-6.8293,-7.8049,-2.9412,-8.0259,-5.8252,-17.540001,3.8188,-7.8049,-2.9412,-10.837,0.0,1.8413,-0.82148,2.8986,0.06441,-14.482,7.746,-1.9704,10.399
-4.8657,2.0415,-0.97561,0.0,4.902,-8.0259,3.8835,-14.628,4.7896,0.0,4.902,-3.9409,2.8436,4.6984,-0.82148,4.8309,2.963,-19.266001,7.746,-0.98522,14.226
-1.0742,10.654,7.8049,8.7805,8.8235,-0.2589,13.592,-10.744,15.469,8.7805,8.8235,6.8966,5.6872,9.4603,0.12638,9.6618,6.8277,-13.525,13.46,-1.9704,16.139999
4.613,17.351999,13.659,13.659,14.706,10.421,16.504999,-12.686,25.177999,13.659,14.706,13.793,9.4787,13.27,2.97,13.527,10.692,-10.654,20.127001,0.0,17.097
6.5087,18.309,14.634,8.7805,12.745,14.304,16.504999,-11.715,18.382,8.7805,12.745,14.778,9.4787,12.317,4.8657,13.527,12.625,-20.223,15.365,-1.9704,13.27
7.4566,11.611,12.683,6.8293,10.784,14.304,18.447001,-10.744,12.557,6.8293,10.784,13.793,3.7915,4.6984,4.8657,6.7633,8.7601,-16.396,9.6508,-5.9113,3.7002
14.092,9.697,17.561001,11.707,14.706,14.304,18.447001,-3.9482,11.586,11.707,14.706,15.764,2.8436,1.8413,9.6051,4.8309,9.7262,-2.9984,-1.7778,4.9261,-3.9553
15.039,8.74,19.511999,12.683,13.725,14.304,12.621,1.877,5.7605,12.683,13.725,13.793,2.8436,-0.06349,12.449,3.8647,11.659,3.7002,0.12698,2.9557,-6.8262
13.144,8.74,17.561001,11.707,8.8235,8.479,6.7961,-0.06472,0.90615,11.707,8.8235,7.8818,4.7393,1.8413,11.501,3.8647,11.659,8.4848,2.9841,1.9704,-4.9123
7.4566,2.9984,11.707,7.8049,4.902,-1.2298,1.9417,-1.0356,-1.0356,7.8049,4.902,1.9704,3.7915,1.8413,8.6572,0.96618,6.8277,8.4848,0.12698,4.9261,-2.9984
3.6651,-3.7002,0.97561,2.9268,1.9608,-3.1715,-2.9126,-1.0356,-0.06472,2.9268,1.9608,-2.9557,1.8957,-0.06349,2.97,-4.8309,0.06441,-4.9123,-3.6825,6.8966,-0.12759
1.7694,-13.27,-9.7561,-2.9268,-2.9412,-1.2298,-8.7379,-0.06472,-2.9773,-2.9268,-2.9412,-7.8818,-1.8957,-3.873,-1.7694,-12.56,-6.6989,2.7432,-5.5873,5.9113,-2.9984
-3.9179,-17.097,-14.634,-3.9024,-3.9216,-3.1715,-9.7087,-0.06472,-4.9191,-3.9024,-3.9216,-12.808,-3.7915,-4.8254,-6.5087,-12.56,-9.5974,7.5279,0.12698,2.9557,-2.0415
-6.7615,-13.27,-11.707,-4.878,-8.8235,-8.9968,-7.767,3.8188,-5.89,-4.878,-8.8235,-16.749001,-3.7915,-1.9683,-6.5087,-7.7295,-7.6651,7.5279,1.0794,-0.98522,1.7863
-11.501,-12.313,-12.683,-6.8293,-3.9216,-11.909,-11.65,-1.0356,-6.8608,-6.8293,-3.9216,-19.704,-5.6872,-2.9206,-9.3523,-6.7633,-9.5974,6.571,-0.8254,-2.9557,0.82935
-15.292,-9.4418,-15.61,-5.8537,-3.9216,-15.793,-18.447001,-2.0065,-7.8317,-5.8537,-3.9216,-20.690001,-9.4787,-7.6825,-15.039,-5.7971,-13.462,1.7863,-4.6349,-3.9409,-3.9553
-14.344,-6.571,-14.634,-3.9024,-2.9412,-13.851,-16.504999,0.90615,-7.8317,-3.9024,-2.9412,-17.733999,-8.5308,-8.6349,-16.934999,-3.8647,-11.53,0.82935,-13.206,-1.9704,-5.8692
-11.501,-4.6571,-8.7805,-2.9268,-0.98039,-8.9968,-8.7379,4.7896,-2.9773,-2.9268,-0.98039,-11.823,-4.7393,-2.9206,-15.039,-0.96618,-5.7327,1.7863,-7.4921,0.0,-4.9123
-3.9179,-5.614,0.97561,1.9512,2.9412,-2.2006,0.0,5.7605,6.7314,1.9512,2.9412,-2.9557,-4.7393,-0.06349,-12.196,-0.96618,-2.8341,3.7002,1.0794,-9.8522,-3.9553
5.5608,-2.7432,9.7561,9.7561,7.8431,6.5372,7.767,9.644,8.6731,9.7561,7.8431,5.9113,-4.7393,-0.06349,-6.5087,-3.8647,-2.8341,-6.8262,2.0317,-12.808,-3.9553
16.934999,2.0415,17.561001,19.511999,17.646999,18.188,13.592,16.440001,6.7314,19.511999,17.646999,16.749001,0.94787,1.8413,3.9179,-2.8986,0.06441,7.5279,-2.7302,-0.98522,-2.9984
19.778999,7.7831,17.561001,29.268,24.51,25.955,14.563,22.264999,11.586,29.268,24.51,20.690001,6.6351,2.7937,10.553,0.96618,2.963,21.882,-9.3968,4.9261,-2.9984
17.882999,11.611,11.707,39.023998,33.333,26.926001,17.476,25.177999,10.615,39.023998,33.333,19.704,9.4787,3.746,15.292,4.8309,5.8615,19.011,-2.7302,10.837,-2.9984
14.092,10.654,8.7805,40.0,35.293999,19.159,15.534,18.382,13.528,40.0,35.293999,15.764,6.6351,0.88889,13.397,6.7633,6.8277,15.183,6.7937,11.823,-1.0845
12.196,12.568,11.707,42.926998,40.195999,15.275,18.447001,12.557,18.382,42.926998,40.195999,14.778,5.6872,-0.06349,13.397,8.6957,7.7939,16.139999,10.603,13.793,1.7863
6.5087,12.568,9.7561,45.854,46.077999,6.5372,20.388,9.644,18.382,45.854,46.077999,14.778,1.8957,-1.0159,5.8136,6.7633,3.9291,12.313,8.6984,10.837,0.82935
1.7694,14.482,9.7561,49.756001,51.960999,7.5081,26.214001,10.615,24.207001,49.756001,51.960999,16.749001,0.94787,2.7937,0.12638,8.6957,2.963,1.7863,11.556,3.9409,6.571
-2.0221,15.439,11.707,51.707001,53.922001,14.304,29.125999,9.644,26.149,51.707001,53.922001,18.719,0.0,2.7937,-4.613,8.6957,2.963,-7.7831,11.556,-4.9261,7.5279
-2.97,13.525,10.732,51.707001,51.960999,16.246,23.301001,11.586,24.207001,51.707001,51.960999,19.704,-1.8957,1.8413,-5.5608,8.6957,3.9291,-0.12759,2.0317,-7.8818,6.571
6.5087,10.654,11.707,54.633999,53.922001,23.042,20.388,16.440001,23.236,54.633999,53.922001,19.704,1.8957,6.6032,2.0221,8.6957,8.7601,4.6571,4.8889,-2.9557,7.5279
14.092,4.9123,7.8049,48.779999,47.058998,23.042,15.534,13.528,19.353001,48.779999,47.058998,15.764,4.7393,7.5556,9.6051,5.7971,7.7939,-6.8262,2.0317,0.98522,4.6571
15.987,2.9984,1.9512,37.073002,38.235001,10.421,14.563,12.557,23.236,37.073002,38.235001,10.837,4.7393,5.6508,10.553,2.8986,4.8953,-4.9123,6.7937,6.8966,6.571
11.248,1.0845,0.0,27.316999,28.431,5.5663,12.621,12.557,23.236,27.316999,28.431,7.8818,7.5829,8.5079,9.6051,4.8309,4.8953,3.7002,10.603,5.9113,7.5279
5.5608,-2.7432,2.9268,22.438999,25.49,8.479,12.621,8.6731,15.469,22.438999,25.49,6.8966,10.427,8.5079,6.7615,5.7971,6.8277,1.7863,6.7937,0.98522,5.614
2.7172,-3.7002,8.7805,18.537001,16.667,9.4498,10.68,11.586,8.6731,18.537001,16.667,6.8966,10.427,6.6032,6.7615,6.7633,9.7262,0.82935,6.7937,3.9409,-0.12759
2.7172,-3.7002,12.683,12.683,12.745,6.5372,4.8544,13.528,3.8188,12.683,12.745,5.9113,5.6872,1.8413,6.7615,5.7971,8.7601,4.6571,-1.7778,4.9261,-5.8692
-0.12638,-2.7432,5.8537,4.878,4.902,6.5372,4.8544,11.586,-2.0065,4.878,4.902,1.9704,-2.8436,-2.9206,0.12638,2.8986,0.06441,9.4418,-9.3968,1.9704,-4.9123
0.82148,-2.7432,-3.9024,0.0,0.0,4.5955,3.8835,7.7023,4.7896,0.0,0.0,0.0,-5.6872,-1.9683,-4.613,2.8986,-5.7327,9.4418,-0.8254,0.0,0.82935
3.6651,-5.614,-8.7805,-7.8049,-5.8824,0.71197,-0.97087,1.877,4.7896,-7.8049,-5.8824,-3.9409,-4.7393,-1.0159,-4.613,0.96618,-7.6651,-2.0415,3.9365,0.98522,0.82935
1.7694,-7.5279,-6.8293,-15.61,-14.706,-3.1715,-1.9417,-4.9191,-2.9773,-15.61,-14.706,-5.9113,-6.6351,-3.873,-2.7172,-0.96618,-5.7327,-1.0845,-3.6825,3.9409,-2.9984
3.6651,-5.614,5.8537,-18.537001,-15.686,-2.2006,-1.9417,-7.8317,-6.8608,-18.537001,-15.686,-1.9704,-0.94787,-0.06349,4.8657,2.8986,1.9968,-3.9553,1.0794,5.9113,-2.0415
6.5087,-1.7863,10.732,-17.561001,-14.706,1.6828,-1.9417,-7.8317,-5.89,-17.561001,-14.706,1.9704,7.5829,5.6508,12.449,6.7633,8.7601,3.7002,8.6984,5.9113,0.82935
5.5608,3.9553,4.878,-17.561001,-15.686,-0.2589,-0.97087,-2.9773,-2.0065,-17.561001,-15.686,2.9557,10.427,5.6508,13.397,8.6957,9.7262,10.399,6.7937,2.9557,3.7002
4.613,6.8262,3.9024,-20.488001,-19.608,-1.2298,-0.97087,-3.9482,-2.9773,-20.488001,-19.608,1.9704,5.6872,1.8413,9.6051,9.6618,7.7939,7.5279,4.8889,5.9113,4.6571
7.4566,4.9123,8.7805,-23.415001,-20.587999,5.5663,1.9417,-8.8026,-7.8317,-23.415001,-20.587999,4.9261,3.7915,1.8413,7.7093,6.7633,5.8615,9.4418,4.8889,3.9409,6.571
9.3523,5.8692,10.732,-25.365999,-23.528999,4.5955,4.8544,-10.744,-5.89,-25.365999,-23.528999,6.8966,10.427,10.413,10.553,9.6618,9.7262,11.356,-1.7778,2.9557,9.4418
10.3,7.7831,16.584999,-28.292999,-26.471001,-5.1133,1.9417,-11.715,-8.8026,-28.292999,-26.471001,2.9557,14.218,14.222,16.24,13.527,15.523,9.4418,0.12698,8.867,12.313
5.5608,0.12759,12.683,-33.171001,-31.372999,-10.939,-11.65,-11.715,-16.57,-33.171001,-31.372999,-5.9113,13.27,12.317,16.24,9.6618,13.591,-0.12759,2.9841,12.808,5.614
-2.0221,-10.399,-2.9268,-35.122002,-30.392,-11.909,-19.417,-10.744,-19.482,-35.122002,-30.392,-15.764,13.27,10.413,11.501,2.8986,4.8953,1.7863,-2.7302,16.749001,-2.0415
-13.397,-20.924999,-29.268,-37.073002,-37.255001,-15.793,-22.33,-12.686,-23.365999,-37.073002,-37.255001,-24.631001,9.4787,3.746,-0.82148,-7.7295,-9.5974,7.5279,-17.968,13.793,-7.7831
-16.24,-22.839001,-39.023998,-35.122002,-36.275002,-19.676001,-19.417,-6.8608,-26.278,-35.122002,-36.275002,-24.631001,-0.94787,-6.7302,-10.3,-17.391001,-19.259001,1.7863,-19.872999,8.867,-12.568
-13.397,-16.139999,-28.292999,-33.171001,-33.333,-16.764,-12.621,-6.8608,-19.482,-33.171001,-33.333,-19.704,-9.4787,-13.397,-14.092,-19.323999,-19.259001,-2.0415,-11.302,0.98522,-14.482
-19.084,-15.183,-17.561001,-32.195,-31.372999,-21.618,-13.592,-13.657,-18.511,-32.195,-31.372999,-19.704,-14.218,-15.302,-19.778999,-21.256001,-20.225,-2.9984,-7.4921,-6.8966,-15.439
-19.084,-14.226,-6.8293,-33.171001,-31.372999,-23.559999,-18.447001,-16.57,-16.57,-33.171001,-31.372999,-19.704,-10.427,-9.5873,-15.039,-17.391001,-14.428,-8.74,-4.6349,-8.867,-12.568
-12.449,-7.5279,0.97561,-29.268,-29.412001,-14.822,-16.504999,-14.628,-14.628,-29.268,-29.412001,-13.793,-2.8436,-1.9683,-4.613,-5.7971,-2.8341,-8.74,-2.7302,-6.8966,-4.9123
-7.7093,-3.7002,0.0,-30.243999,-30.392,-11.909,-13.592,-10.744,-19.482,-30.243999,-30.392,-12.808,0.94787,1.8413,1.0742,0.96618,3.9291,-6.8262,-4.6349,-4.9261,-2.0415
-1.0742,0.12759,-0.97561,-24.389999,-24.51,-2.2006,-6.7961,-2.0065,-11.715,-24.389999,-24.51,-7.8818,3.7915,2.7937,3.9179,5.7971,7.7939,-7.7831,-2.7302,-9.8522,-0.12759
-0.12638,2.9984,-0.97561,-14.634,-16.667,7.5081,0.0,2.8479,-1.0356,-14.634,-16.667,-0.98522,0.0,-3.873,0.12638,3.8647,4.8953,2.7432,1.0794,-12.808,-3.9553
0.82148,1.0845,4.878,-8.7805,-11.765,6.5372,4.8544,7.7023,0.90615,-8.7805,-11.765,6.8966,-3.7915,-6.7302,-1.7694,-0.96618,0.06441,10.399,-3.6825,-4.9261,-5.8692
4.613,-1.7863,11.707,-7.8049,-10.784,5.5663,1.9417,12.557,-4.9191,-7.8049,-10.784,8.867,-4.7393,-5.7778,-0.82148,-3.8647,-0.90177,3.7002,-6.5397,1.9704,-3.9553
4.613,-11.356,1.9512,-16.584999,-22.549,1.6828,-9.7087,10.615,-18.511,-16.584999,-22.549,-0.98522,-4.7393,-5.7778,-1.7694,-9.6618,-7.6651,9.4418,-7.4921,5.9113,-5.8692
-6.7615,-20.924999,-18.537001,-21.462999,-24.51,-11.909,-18.447001,1.877,-21.424,-21.462999,-24.51,-14.778,-6.6351,-5.7778,-8.4044,-17.391001,-16.361,14.226,-10.349,5.9113,-6.8262
-22.875,-28.580999,-33.171001,-26.341,-30.392,-28.414,-27.184,-6.8608,-14.628,-26.341,-30.392,-27.586,-8.5308,-7.6825,-16.934999,-23.188,-23.124001,5.614,-11.302,3.9409,-7.7831
-32.354,-29.537001,-37.073002,-36.098,-34.313999,-31.327,-31.068001,-16.57,-19.482,-36.098,-34.313999,-34.483002,-8.5308,-10.54,-21.674999,-26.087,-26.989,-10.654,-13.206,1.9704,-8.74
-30.458,-23.796,-29.268,-36.098,-33.333,-24.531,-27.184,-16.57,-16.57,-36.098,-33.333,-31.527,-8.5308,-9.5873,-22.622,-23.188,-25.056,-10.654,-9.3968,-2.9557,-9.697
-20.979,-14.226,-18.537001,-31.219999,-29.412001,-17.735001,-21.358999,-14.628,-13.657,-31.219999,-29.412001,-24.631001,-4.7393,-4.8254,-18.830999,-15.459,-18.292999,-6.8262,-13.206,-3.9409,-8.74
-8.6572,-5.614,-12.683,-23.415001,-23.528999,-13.851,-13.592,-10.744,-5.89,-23.415001,-23.528999,-16.749001,-0.94787,-1.9683,-7.4566,-6.7633,-10.564,-6.8262,-13.206,-2.9557,-7.7831
1.7694,1.0845,-8.7805,-14.634,-14.706,-8.9968,-7.767,-6.8608,-4.9191,-14.634,-14.706,-7.8818,5.6872,2.7937,3.9179,2.8986,-0.90177,-9.697,-2.7302,4.9261,-2.0415
3.6651,6.8262,-2.9268,-10.732,-9.8039,-2.2006,-1.9417,-9.7735,-7.8317,-10.732,-9.8039,0.98522,9.4787,5.6508,8.6572,9.6618,6.8277,-5.8692,2.0317,0.0,1.7863
3.6651,9.697,4.878,-11.707,-6.8627,7.5081,2.9126,-5.89,-3.9482,-11.707,-6.8627,6.8966,5.6872,3.746,7.7093,9.6618,10.692,-3.9553,-0.8254,-10.837,3.7002
3.6651,12.568,13.659,-4.878,-1.9608,11.392,8.7379,-0.06472,4.7896,-4.878,-1.9608,15.764,2.8436,-0.06349,2.97,6.7633,10.692,-5.8692,2.9841,-13.793,0.82935
-3.9179,10.654,11.707,-0.97561,2.9412,12.362,13.592,-2.0065,9.644,-0.97561,2.9412,16.749001,-2.8436,-4.8254,-7.4566,0.0,1.0306,-6.8262,3.9365,-15.764,-3.9553
-14.344,2.9984,-1.9512,-7.8049,-3.9216,4.5955,5.8252,-8.8026,3.8188,-7.8049,-3.9216,6.8966,-11.374,-10.54,-17.882999,-9.6618,-12.496,-8.74,1.0794,-16.749001,-6.8262
-14.344,-8.4848,-9.7561,-13.659,-9.8039,-6.0841,-1.9417,-14.628,1.877,-13.659,-9.8039,-3.9409,-14.218,-11.492,-17.882999,-15.459,-17.327,-4.9123,-0.8254,-9.8522,-6.8262
-5.8136,-15.183,-6.8293,-12.683,-12.745,-9.9676,-5.8252,-7.8317,-3.9482,-12.683,-12.745,-6.8966,-7.5829,-6.7302,-5.5608,-15.459,-9.5974,2.7432,-5.5873,1.9704,-6.8262
-1.0742,-15.183,-5.8537,-15.61,-18.627001,-18.705999,-10.68,-1.0356,-7.8317,-15.61,-18.627001,-12.808,-0.94787,-1.9683,2.0221,-11.594,-2.8341,4.6571,-13.206,8.867,-7.7831
-3.9179,-12.313,-10.732,-21.462999,-20.587999,-18.705999,-17.476,0.90615,-11.715,-21.462999,-20.587999,-18.719,-1.8957,-1.9683,0.12638,-7.7295,-3.8003,13.27,-9.3968,9.8522,-3.9553
-10.553,-7.5279,-17.561001,-22.438999,-23.528999,-14.822,-20.388,-1.0356,-9.7735,-22.438999,-23.528999,-23.645,-7.5829,-4.8254,-7.4566,-5.7971,-11.53,15.183,-4.6349,1.9704,-1.0845
-16.24,-8.4848,-22.438999,-22.438999,-20.587999,-20.646999,-22.33,-2.9773,-6.8608,-22.438999,-20.587999,-27.586,-10.427,-6.7302,-14.092,-7.7295,-17.327,7.5279,-2.7302,-4.9261,-0.12759
-16.24,-15.183,-24.389999,-22.438999,-21.569,-21.618,-25.243,-2.0065,-10.744,-22.438999,-21.569,-28.570999,-8.5308,-5.7778,-12.196,-8.6957,-15.395,1.7863,1.0794,-0.98522,-1.0845
-10.553,-18.054001,-21.462999,-16.584999,-15.686,-17.735001,-22.33,-2.0065,-10.744,-16.584999,-15.686,-25.615999,-5.6872,-3.873,-7.4566,-10.628,-11.53,-5.8692,0.12698,0.0,-2.9984
-10.553,-15.183,-16.584999,-13.659,-15.686,-16.764,-17.476,-6.8608,-6.8608,-13.659,-15.686,-19.704,-6.6351,-6.7302,-9.3523,-13.527,-12.496,-11.611,-3.6825,-10.837,-6.8262
-8.6572,-9.4418,-7.8049,-4.878,-5.8824,-7.055,-7.767,-1.0356,-0.06472,-4.878,-5.8824,-7.8818,-4.7393,-6.7302,-9.3523,-9.6618,-8.6312,-5.8692,-2.7302,-13.793,-5.8692
-4.8657,2.0415,0.0,-0.97561,1.9608,-3.1715,3.8835,3.8188,0.90615,-0.97561,1.9608,0.98522,0.94787,-2.9206,-5.5608,-2.8986,-1.868,0.82935,-6.5397,-8.867,-5.8692
-2.0221,11.611,6.8293,0.97561,5.8824,2.6537,10.68,1.877,6.7314,0.97561,5.8824,6.8966,4.7393,1.8413,-1.7694,2.8986,5.8615,-1.0845,-2.7302,-6.8966,-3.9553
1.7694,17.351999,16.584999,4.878,8.8235,8.479,14.563,-0.06472,8.6731,4.878,8.8235,12.808,5.6872,6.6032,0.12638,9.6618,9.7262,-5.8692,2.9841,-3.9409,1.7863
3.6651,16.396,20.488001,7.8049,9.8039,7.5081,13.592,-0.06472,10.615,7.8049,9.8039,13.793,5.6872,9.4603,2.0221,12.56,10.692,-5.8692,8.6984,-6.8966,9.4418
2.7172,2.9984,11.707,1.9512,2.9412,4.5955,2.9126,-2.0065,5.7605,1.9512,2.9412,6.8966,0.0,3.746,1.0742,4.8309,4.8953,-7.7831,4.8889,-9.8522,9.4418
7.4566,-4.6571,7.8049,0.0,0.0,5.5663,0.97087,-2.9773,0.90615,0.0,0.0,3.9409,-1.8957,1.8413,5.8136,0.0,3.9291,-9.697,3.9365,-4.9261,8.4848
10.3,-1.7863,8.7805,3.9024,3.9216,7.5081,4.8544,-1.0356,6.7314,3.9024,3.9216,5.9113,0.94787,0.88889,11.501,0.0,5.8615,-7.7831,7.746,0.98522,8.4848
10.3,5.8692,5.8537,1.9512,3.9216,1.6828,6.7961,-3.9482,7.7023,1.9512,3.9216,4.9261,0.94787,-0.06349,12.449,0.96618,4.8953,-3.9553,9.6508,6.8966,6.571
7.4566,14.482,3.9024,-2.9268,1.9608,-5.1133,9.7087,-9.7735,-0.06472,-2.9268,1.9608,3.9409,2.8436,0.88889,11.501,4.8309,4.8953,-2.0415,9.6508,11.823,7.5279
2.7172,12.568,-0.97561,-7.8049,-4.902,-8.0259,2.9126,-17.540001,-2.0065,-7.8049,-4.902,-2.9557,0.0,-1.9683,5.8136,4.8309,1.9968,-2.0415,7.746,16.749001,5.614
-3.9179,4.9123,-6.8293,-9.7561,-4.902,-5.1133,-2.9126,-14.628,-0.06472,-9.7561,-4.902,-5.9113,-2.8436,-4.8254,-1.7694,1.9324,-1.868,7.5279,2.0317,9.8522,4.6571
-11.501,-3.7002,-12.683,-6.8293,-3.9216,-6.0841,-10.68,-4.9191,-2.9773,-6.8293,-3.9216,-7.8818,-4.7393,-4.8254,-10.3,-1.9324,-7.6651,6.571,-8.4444,-2.9557,0.82935
-13.397,-8.4848,-8.7805,1.9512,0.98039,-4.1424,-11.65,2.8479,-12.686,1.9512,0.98039,-6.8966,-6.6351,-5.7778,-13.144,-4.8309,-9.5974,-0.12759,-6.5397,-6.8966,0.82935
-6.7615,-4.6571,0.97561,8.7805,0.98039,4.5955,-9.7087,4.7896,-12.686,8.7805,0.98039,-0.98522,-5.6872,-4.8254,-10.3,-3.8647,-7.6651,-0.12759,-1.7778,-5.9113,0.82935
-1.0742,-3.7002,1.9512,9.7561,4.902,7.5081,-0.97087,7.7023,-7.8317,9.7561,4.902,2.9557,-5.6872,-8.6349,-8.4044,-5.7971,-8.6312,-2.9984,-3.6825,-4.9261,-6.8262
2.7172,-3.7002,0.97561,13.659,8.8235,5.5663,4.8544,17.410999,-4.9191,13.659,8.8235,6.8966,-2.8436,-7.6825,-2.7172,-6.7633,-6.6989,3.7002,-6.5397,1.9704,-13.525
5.5608,-4.6571,1.9512,16.584999,9.8039,5.5663,7.767,21.294001,-4.9191,16.584999,9.8039,8.867,2.8436,-1.9683,3.9179,-6.7633,-2.8341,16.139999,-14.159,5.9113,-11.611
9.3523,-6.571,3.9024,11.707,6.8627,7.5081,5.8252,19.353001,-2.0065,11.707,6.8627,6.8966,9.4787,4.6984,12.449,-3.8647,2.963,23.796,-9.3968,13.793,-6.8262
11.248,-4.6571,4.878,6.8293,3.9216,9.4498,2.9126,14.498,-4.9191,6.8293,3.9216,4.9261,11.374,7.5556,16.24,-0.96618,6.8277,19.011,-4.6349,15.764,-0.12759
4.613,-5.614,-0.97561,5.8537,1.9608,7.5081,-4.8544,8.6731,-4.9191,5.8537,1.9608,-0.98522,6.6351,6.6032,9.6051,1.9324,1.9968,10.399,-0.8254,6.8966,5.614
-2.0221,-3.7002,-4.878,4.878,2.9412,-3.1715,-10.68,1.877,-2.9773,4.878,2.9412,-5.9113,0.94787,4.6984,1.0742,5.7971,0.06441,4.6571,0.12698,1.9704,9.4418
-6.7615,1.0845,-9.7561,0.0,0.98039,-12.88,-10.68,-1.0356,-5.89,0.0,0.98039,-11.823,-0.94787,4.6984,-2.7172,7.7295,-2.8341,-8.74,-2.7302,-0.98522,12.313
-7.7093,1.0845,-13.659,-1.9512,-0.98039,-16.764,-7.767,-2.9773,-1.0356,-1.9512,-0.98039,-14.778,-1.8957,2.7937,-5.5608,4.8309,-6.6989,-18.309,4.8889,-9.8522,8.4848
-4.8657,2.0415,-7.8049,-0.97561,-0.98039,-9.9676,0.0,-3.9482,-2.0065,-0.97561,-0.98039,-7.8818,-1.8957,1.8413,-3.6651,2.8986,-4.7665,-10.654,8.6984,-11.823,3.7002
0.82148,6.8262,0.97561,2.9268,3.9216,2.6537,6.7961,0.90615,2.8479,2.9268,3.9216,0.98522,0.0,2.7937,-0.82148,3.8647,-0.90177,-2.0415,6.7937,-4.9261,1.7863
6.5087,9.697,6.8293,9.7561,11.765,5.5663,7.767,5.7605,12.557,9.7561,11.765,3.9409,2.8436,4.6984,5.8136,5.7971,2.963,1.7863,4.8889,0.98522,1.7863
8.4044,10.654,7.8049,6.8293,8.8235,1.6828,7.767,3.8188,10.615,6.8293,8.8235,2.9557,1.8957,2.7937,8.6572,5.7971,2.963,5.614,-2.7302,1.9704,1.7863
7.4566,13.525,8.7805,6.8293,8.8235,0.71197,10.68,-2.0065,7.7023,6.8293,8.8235,2.9557,0.0,-0.06349,7.7093,6.7633,1.9968,1.7863,-0.8254,0.0,1.7863
0.82148,11.611,5.8537,0.97561,4.902,1.6828,4.8544,-3.9482,3.8188,0.97561,4.902,-0.98522,-2.8436,-1.9683,0.12638,5.7971,-0.90177,-1.0845,-4.6349,-3.9409,1.7863
-3.9179,7.7831,4.878,-1.9512,5.8824,0.71197,0.0,-5.89,0.90615,-1.9512,5.8824,-0.98522,1.8957,3.746,-4.613,8.6957,1.0306,-3.9553,1.0794,-6.8966,3.7002
