C3,C4,Cz,F1,F2,F3,F4,F7,F8,Fp1,Fp2,Fz,O1,O2,P3,P4,Pz,T3,T4,T5,T6
1.9802,-0.06734,-0.13201,-2.9268,-3.9291,-2.1416,-2.0101,-0.06568,-9.1122,-2.9268,-3.9291,-3.9024,8.594,12.874,4.0201,9.0,3.0303,2.9187,0.90615,6.0427,10.862
6.9307,1.9529,3.8284,0.0,-0.06441,3.0397,2.0101,2.89,-1.072,0.0,-0.06441,1.9512,9.5419,11.888,6.0302,10.0,6.0606,6.8988,0.90615,7.0279,8.9106
7.9208,4.9832,7.7888,1.9512,1.868,6.1485,6.0302,3.8752,4.9581,1.9512,1.868,4.878,10.49,11.888,9.0452,10.0,9.0909,6.8988,-1.0356,8.9984,6.9593
10.891,8.0135,9.769,4.878,6.6989,9.2573,10.05,4.8604,6.9682,4.878,6.6989,8.7805,11.438,10.903,11.055,11.0,10.101,6.8988,-12.686,9.9836,8.9106
9.901,10.034,10.759,5.8537,7.6651,9.2573,13.065,5.8456,5.9631,5.8537,7.6651,8.7805,12.385,11.888,12.06,12.0,11.111,1.9237,4.7896,10.969,10.862
8.9109,7.0034,7.7888,4.878,3.8003,7.1848,9.0452,4.8604,1.943,4.878,3.8003,6.8293,11.438,9.9179,11.055,11.0,10.101,2.9187,15.469,10.969,9.8862
10.891,9.0236,9.769,5.8537,4.7665,9.2573,9.0452,7.8161,0.93802,5.8537,4.7665,7.8049,12.385,10.903,13.065,12.0,11.111,5.9038,6.7314,11.954,10.862
11.881,10.034,11.749,6.8293,3.8003,11.33,9.0452,9.7865,0.93802,6.8293,3.8003,8.7805,13.333,11.888,14.07,14.0,13.131,7.8939,6.7314,10.969,11.837
10.891,11.044,12.739,6.8293,3.8003,11.33,11.055,8.8013,0.93802,6.8293,3.8003,8.7805,11.438,12.874,12.06,16.0,13.131,6.8988,1.877,8.0131,11.837
10.891,13.064,13.729,8.7805,5.7327,12.366,14.07,10.772,-1.072,8.7805,5.7327,11.707,8.594,10.903,9.0452,15.0,13.131,2.9187,4.7896,5.0575,11.837
13.861,16.094,15.71,10.732,7.6651,15.475,16.08,11.757,5.9631,10.732,7.6651,14.634,9.5419,11.888,11.055,17.0,14.141,9.8839,7.7023,6.0427,13.789
11.881,16.094,13.729,6.8293,6.6989,12.366,15.075,8.8013,12.998,6.8293,6.6989,12.683,9.5419,11.888,12.06,17.0,14.141,10.879,9.644,7.0279,13.789
9.901,12.054,8.7789,3.9024,3.8003,9.2573,12.06,5.8456,4.9581,3.9024,3.8003,8.7805,8.594,8.9327,9.0452,13.0,11.111,6.8988,7.7023,6.0427,11.837
9.901,10.034,8.7789,3.9024,2.8341,10.294,11.055,7.8161,-0.067,3.9024,2.8341,8.7805,9.5419,8.9327,11.055,12.0,10.101,7.8939,6.7314,7.0279,11.837
10.891,11.044,9.769,5.8537,2.8341,11.33,12.06,7.8161,1.943,5.8537,2.8341,10.732,9.5419,8.9327,11.055,12.0,10.101,5.9038,6.7314,6.0427,12.813
9.901,11.044,10.759,2.9268,4.7665,10.294,13.065,5.8456,6.9682,2.9268,4.7665,10.732,8.594,9.9179,10.05,11.0,9.0909,5.9038,4.7896,7.0279,11.837
8.9109,10.034,10.759,2.9268,5.7327,9.2573,14.07,3.8752,6.9682,2.9268,5.7327,9.7561,6.6983,6.9622,8.0402,10.0,7.0707,4.9088,2.8479,5.0575,10.862
7.9208,9.0236,9.769,2.9268,3.8003,8.2211,12.06,4.8604,5.9631,2.9268,3.8003,8.7805,5.7504,6.9622,8.0402,9.0,7.0707,1.9237,3.8188,4.0722,10.862
8.9109,10.034,10.759,2.9268,1.868,8.2211,9.0452,5.8456,-2.0771,2.9268,1.868,8.7805,9.5419,9.9179,10.05,12.0,9.0909,0.92869,6.7314,6.0427,13.789
6.9307,11.044,8.7789,2.9268,-0.06441,7.1848,8.0402,6.8309,0.93802,2.9268,-0.06441,5.8537,12.385,12.874,12.06,13.0,11.111,1.9237,-8.8026,8.0131,13.789
8.9109,11.044,9.769,2.9268,0.90177,6.1485,10.05,5.8456,3.9531,2.9268,0.90177,6.8293,10.49,10.903,10.05,13.0,11.111,5.9038,5.7605,7.0279,11.837
7.9208,11.044,10.759,1.9512,3.8003,7.1848,12.06,5.8456,1.943,1.9512,3.8003,8.7805,7.6461,7.9475,9.0452,11.0,10.101,7.8939,17.410999,6.0427,8.9106
8.9109,13.064,13.729,4.878,4.7665,10.294,13.065,7.8161,7.9732,4.878,4.7665,11.707,8.594,9.9179,10.05,11.0,11.111,6.8988,9.644,7.0279,10.862
8.9109,11.044,10.759,4.878,2.8341,9.2573,9.0452,7.8161,5.9631,4.878,2.8341,9.7561,8.594,9.9179,10.05,11.0,11.111,7.8939,9.644,8.0131,10.862
2.9703,5.9933,4.8185,0.97561,-1.0306,2.0035,4.0201,1.9048,-0.067,0.97561,-1.0306,2.9268,5.7504,6.9622,5.0251,8.0,7.0707,0.92869,6.7314,3.087,8.9106
0.0,2.963,1.8482,-2.9268,-3.9291,-3.1779,2.0101,-1.0509,-2.0771,-2.9268,-3.9291,-0.97561,2.9068,4.0066,2.0101,5.0,3.0303,-0.06634,4.7896,1.1166,5.9837
-0.9901,2.963,1.8482,-3.9024,-7.7939,-4.2142,1.005,-1.0509,-6.0972,-3.9024,-7.7939,-2.9268,2.9068,3.0213,2.0101,3.0,3.0303,-0.06634,2.8479,3.087,4.0325
1.9802,5.9933,3.8284,-4.878,-5.8615,-2.1416,4.0201,-0.06568,-5.0921,-4.878,-5.8615,0.0,5.7504,4.9918,5.0251,6.0,7.0707,1.9237,5.7605,6.0427,5.0081
4.9505,5.9933,5.8086,-2.9268,-2.963,0.96718,4.0201,1.9048,0.93802,-2.9268,-2.963,0.97561,5.7504,5.977,6.0302,7.0,7.0707,2.9187,1.877,6.0427,5.0081
7.9208,8.0135,7.7888,2.9268,2.8341,6.1485,8.0402,3.8752,5.9631,2.9268,2.8341,6.8293,5.7504,5.977,5.0251,8.0,7.0707,5.9038,2.8479,4.0722,7.935
6.9307,9.0236,8.7789,4.878,3.8003,9.2573,11.055,5.8456,4.9581,4.878,3.8003,9.7561,4.8025,5.977,5.0251,7.0,6.0606,4.9088,4.7896,4.0722,8.9106
3.9604,5.9933,5.8086,2.9268,1.868,6.1485,10.05,2.89,3.9531,2.9268,1.868,7.8049,2.9068,3.0213,2.0101,4.0,3.0303,1.9237,4.7896,1.1166,5.9837
1.9802,4.9832,4.8185,0.0,1.868,4.076,9.0452,1.9048,6.9682,0.0,1.868,5.8537,1.0111,2.0361,1.005,2.0,2.0202,0.92869,4.7896,0.13136,5.0081
1.9802,5.9933,4.8185,0.97561,3.8003,3.0397,9.0452,-0.06568,6.9682,0.97561,3.8003,4.878,0.06319,1.0509,-1.005,1.0,1.0101,-5.0415,2.8479,-3.8095,4.0325
-1.9802,4.9832,0.85809,0.97561,2.8341,0.96718,6.0302,-2.0361,5.9631,0.97561,2.8341,0.97561,-2.7804,-0.91954,-3.0151,0.0,0.0,-4.0464,2.8479,-3.8095,4.0325
-1.9802,3.9731,-0.13201,0.0,2.8341,-1.1054,7.0352,-2.0361,5.9631,0.0,2.8341,0.97561,-0.88468,0.06568,-2.0101,2.0,0.0,-3.0514,3.8188,-2.8243,5.9837
-1.9802,3.9731,0.85809,0.0,0.90177,-0.06909,8.0402,-1.0509,2.9481,0.0,0.90177,0.97561,-2.7804,1.0509,-2.0101,2.0,1.0101,-2.0564,1.877,-1.8391,4.0325
1.9802,4.9832,2.8383,0.0,0.90177,0.96718,9.0452,-0.06568,4.9581,0.0,0.90177,3.9024,-3.7283,-1.9048,-2.0101,1.0,0.0,2.9187,-17.540001,-0.85386,1.1057
4.9505,5.9933,5.8086,1.9512,1.868,4.076,8.0402,1.9048,4.9581,1.9512,1.868,4.878,-3.7283,-0.91954,0.0,1.0,1.0101,2.9187,-3.9482,1.1166,1.1057
2.9703,3.9731,3.8284,0.97561,0.90177,3.0397,4.0201,1.9048,0.93802,0.97561,0.90177,2.9268,-2.7804,-0.91954,1.005,1.0,0.0,2.9187,10.615,0.13136,2.0813
0.0,0.94276,0.85809,-0.97561,-1.9968,0.96718,2.0101,-0.06568,1.943,-0.97561,-1.9968,0.0,-1.8325,0.06568,0.0,1.0,0.0,1.9237,5.7605,-1.8391,1.1057
-0.9901,0.94276,-1.1221,-0.97561,-2.963,-0.06909,1.005,-0.06568,-1.072,-0.97561,-2.963,-0.97561,-1.8325,0.06568,-1.005,1.0,0.0,-2.0564,2.8479,-2.8243,2.0813
1.9802,2.963,0.85809,-0.97561,-2.963,2.0035,3.0151,1.9048,-1.072,-0.97561,-2.963,0.97561,1.0111,3.0213,1.005,3.0,2.0202,-1.0614,3.8188,-0.85386,4.0325
2.9703,4.9832,2.8383,-0.97561,-2.963,3.0397,5.0251,2.89,0.93802,-0.97561,-2.963,1.9512,0.06319,2.0361,1.005,2.0,2.0202,1.9237,0.90615,0.13136,2.0813
1.9802,0.94276,-0.13201,-2.9268,-2.963,0.96718,4.0201,-0.06568,1.943,-2.9268,-2.963,0.0,-3.7283,-2.89,-3.0151,-1.0,-2.0202,2.9187,-2.0065,-2.8243,-0.84553
0.9901,1.9529,-0.13201,-2.9268,-1.0306,0.96718,3.0151,0.91954,0.93802,-2.9268,-1.0306,0.0,-2.7804,-0.91954,-2.0101,-1.0,-1.0101,1.9237,-1.0356,-0.85386,0.13008
-1.9802,-0.06734,-1.1221,-0.97561,0.90177,-1.1054,1.005,-0.06568,-5.0921,-0.97561,0.90177,-0.97561,-2.7804,-0.91954,-4.0201,-1.0,-2.0202,-5.0415,-2.0065,-3.8095,0.13008
-2.9703,0.94276,0.85809,0.97561,1.868,-0.06909,1.005,-1.0509,-5.0921,0.97561,1.868,0.0,-2.7804,0.06568,-3.0151,0.0,0.0,-5.0415,-2.9773,-2.8243,0.13008
-0.9901,-1.0774,0.85809,0.97561,0.90177,-0.06909,1.005,-2.0361,-2.0771,0.97561,0.90177,0.97561,-2.7804,-1.9048,-4.0201,-1.0,-1.0101,-5.0415,-2.9773,-3.8095,-1.8211
-2.9703,-2.0875,-1.1221,0.0,-0.06441,-0.06909,0.0,-1.0509,-2.0771,0.0,-0.06441,-0.97561,-3.7283,-4.8604,-4.0201,-4.0,-3.0303,-3.0514,-6.8608,-3.8095,-4.748
0.0,-0.06734,0.85809,2.9268,-0.06441,2.0035,3.0151,-0.06568,-3.0821,2.9268,-0.06441,1.9512,-2.7804,-3.8752,-3.0151,-3.0,-3.0303,-1.0614,-6.8608,-2.8243,-5.7236
1.9802,4.9832,5.8086,4.878,3.8003,7.1848,9.0452,1.9048,-2.0771,4.878,3.8003,7.8049,1.0111,0.06568,1.005,0.0,1.0101,1.9237,-4.9191,1.1166,-2.7967
1.9802,5.9933,5.8086,3.9024,2.8341,6.1485,12.06,-0.06568,-2.0771,3.9024,2.8341,8.7805,1.9589,2.0361,0.0,2.0,2.0202,-1.0614,-2.0065,-0.85386,1.1057
0.9901,8.0135,7.7888,2.9268,4.7665,6.1485,12.06,-0.06568,3.9531,2.9268,4.7665,7.8049,4.8025,5.977,2.0101,5.0,5.0505,-2.0564,2.8479,-0.85386,5.0081
0.9901,9.0236,6.7987,0.0,4.7665,3.0397,10.05,-3.0213,6.9682,0.0,4.7665,5.8537,2.9068,5.977,1.005,6.0,5.0505,-4.0464,6.7314,-1.8391,6.9593
-1.9802,5.9933,3.8284,-3.9024,0.90177,-0.06909,5.0251,-4.9918,4.9581,-3.9024,0.90177,0.0,-0.88468,2.0361,-2.0101,3.0,2.0202,-6.0365,3.8188,-4.7947,5.0081
0.9901,7.0034,4.8185,0.0,-0.06441,2.0035,7.0352,-1.0509,5.9631,0.0,-0.06441,2.9268,-0.88468,1.0509,0.0,3.0,3.0303,-2.0564,1.877,-2.8243,5.0081
2.9703,7.0034,5.8086,2.9268,3.8003,5.1123,11.055,0.91954,5.9631,2.9268,3.8003,6.8293,-2.7804,0.06568,2.0101,4.0,4.0404,-2.0564,-2.0065,-2.8243,2.0813
0.0,4.9832,4.8185,0.97561,4.7665,3.0397,9.0452,-2.0361,2.9481,0.97561,4.7665,4.878,-1.8325,0.06568,2.0101,2.0,2.0202,-6.0365,-3.9482,-2.8243,0.13008
-2.9703,0.94276,-1.1221,-0.97561,1.868,-1.1054,3.0151,-4.0066,-0.067,-0.97561,1.868,0.97561,-1.8325,-0.91954,-1.005,0.0,-1.0101,-9.0216,-19.482,-3.8095,-0.84553
-2.9703,-1.0774,-4.0924,0.0,0.90177,-1.1054,1.005,-2.0361,-3.0821,0.0,0.90177,-1.9512,-0.88468,-1.9048,0.0,-3.0,-3.0303,-3.0514,-2.9773,-0.85386,-2.7967
4.9505,1.9529,1.8482,5.8537,2.8341,5.1123,8.0402,4.8604,-1.072,5.8537,2.8341,4.878,4.8025,4.0066,6.0302,1.0,3.0303,6.8988,11.586,4.0722,2.0813
4.9505,4.9832,4.8185,6.8293,3.8003,7.1848,11.055,5.8456,4.9581,6.8293,3.8003,7.8049,4.8025,4.9918,6.0302,4.0,5.0505,4.9088,5.7605,4.0722,4.0325
-6.9307,-4.1077,-6.0726,0.97561,0.90177,-4.2142,0.0,-4.0066,2.9481,0.97561,0.90177,-3.9024,-6.5719,-5.8456,-7.0352,-6.0,-6.0606,-6.0365,-2.9773,-7.7504,-4.748
-13.861,-11.178,-13.993,-3.9024,-1.9968,-11.468,-9.0452,-8.9327,-4.0871,-3.9024,-1.9968,-12.683,-13.207,-11.757,-13.065,-13.0,-14.141,-12.007,-11.715,-12.677,-12.553
-9.901,-8.1481,-13.003,-2.9268,-1.0306,-8.3592,-9.0452,-8.9327,-2.0771,-2.9268,-1.0306,-9.7561,-9.4155,-8.8013,-10.05,-10.0,-12.121,-9.0216,-7.8317,-8.7356,-6.6992
-10.891,-8.1481,-12.013,-4.878,-4.8953,-9.3955,-10.05,-9.9179,-3.0821,-4.878,-4.8953,-11.707,-6.5719,-4.8604,-9.0452,-8.0,-10.101,-10.017,-5.89,-7.7504,-2.7967
-9.901,-7.138,-12.013,-7.8049,-8.7601,-12.504,-12.06,-12.874,-7.1022,-7.8049,-8.7601,-12.683,-4.6761,-2.89,-7.0352,-6.0,-8.0808,-10.017,-2.9773,-5.78,-0.84553
-10.891,-6.1279,-10.033,-9.7561,-11.659,-14.577,-11.055,-13.859,-11.122,-9.7561,-11.659,-14.634,-1.8325,-0.91954,-4.0201,-4.0,-3.0303,-11.012,-2.0065,-3.8095,0.13008
-6.9307,-4.1077,-7.0627,-9.7561,-10.692,-12.504,-8.0402,-12.874,-9.1122,-9.7561,-10.692,-11.707,1.9589,4.0066,0.0,1.0,2.0202,-11.012,-3.9482,-0.85386,1.1057
-6.9307,-3.0976,-7.0627,-7.8049,-6.8277,-9.3955,-5.0251,-13.859,-4.0871,-7.8049,-6.8277,-8.7805,1.0111,2.0361,-1.005,-1.0,1.0101,-10.017,-3.9482,-1.8391,-0.84553
-8.9109,-7.138,-9.0429,-7.8049,-4.8953,-9.3955,-5.0251,-13.859,-3.0821,-7.8049,-4.8953,-7.8049,-3.7283,-4.8604,-6.0302,-7.0,-5.0505,-13.997,-9.7735,-4.7947,-3.7724
-8.9109,-11.178,-10.033,-7.8049,-4.8953,-9.3955,-6.0302,-12.874,-7.1022,-7.8049,-4.8953,-7.8049,-5.624,-6.8309,-8.0402,-12.0,-10.101,-13.997,-10.744,-3.8095,-5.7236
-2.9703,-7.138,-4.0924,-4.878,-2.963,-4.2142,-3.0151,-9.9179,-1.072,-4.878,-2.963,-2.9268,-0.88468,-2.89,-2.0101,-9.0,-5.0505,-5.0415,-6.8608,2.1018,-3.7724
0.0,-2.0875,-0.13201,-1.9512,-0.06441,-1.1054,2.0101,-5.977,-1.072,-1.9512,-0.06441,0.97561,2.9068,1.0509,1.005,-4.0,-2.0202,0.92869,-3.9482,4.0722,0.13008
0.0,0.94276,0.85809,-0.97561,1.868,-0.06909,3.0151,-4.0066,-0.067,-0.97561,1.868,1.9512,6.6983,5.977,4.0201,1.0,3.0303,2.9187,-3.9482,5.0575,1.1057
0.9901,0.94276,0.85809,-0.97561,0.90177,0.96718,4.0201,-3.0213,-1.072,-0.97561,0.90177,2.9268,10.49,10.903,5.0251,6.0,7.0707,2.9187,-23.365999,5.0575,2.0813
0.9901,1.9529,1.8482,-0.97561,-1.9968,0.96718,2.0101,-1.0509,-2.0771,-0.97561,-1.9968,3.9024,12.385,15.829,7.0352,11.0,9.0909,3.9138,-5.89,8.0131,6.9593
1.9802,0.94276,2.8383,-0.97561,-1.0306,-0.06909,-2.0101,-2.0361,-0.067,-0.97561,-1.0306,2.9268,14.281,18.785,6.0302,13.0,9.0909,4.9088,12.557,8.9984,12.813
1.9802,0.94276,3.8284,-0.97561,-1.9968,-0.06909,-3.0151,-0.06568,0.93802,-0.97561,-1.9968,1.9512,19.021,23.711,10.05,14.0,12.121,6.8988,6.7314,13.924,14.764
-1.9802,-6.1279,-3.1023,-2.9268,-5.8615,-4.2142,-10.05,-1.0509,-5.0921,-2.9268,-5.8615,-3.9024,15.229,14.844,5.0251,5.0,5.0505,3.9138,-0.06472,10.969,6.9593
-8.9109,-13.199,-10.033,-5.8537,-7.7939,-7.323,-16.08,-2.0361,-5.0921,-5.8537,-7.7939,-8.7805,6.6983,4.9918,-2.0101,-5.0,-3.0303,-3.0514,-6.8608,5.0575,-2.7967
-9.901,-17.239,-13.003,-2.9268,-5.8615,-7.323,-17.084999,-1.0509,-5.0921,-2.9268,-5.8615,-8.7805,1.0111,-1.9048,-8.0402,-10.0,-8.0808,-5.0415,-9.7735,-1.8391,-5.7236
-12.871,-16.229,-13.993,-3.9024,-5.8615,-9.3955,-16.08,-3.0213,-5.0921,-3.9024,-5.8615,-9.7561,-0.88468,-2.89,-9.0452,-11.0,-10.101,-2.0564,-6.8608,-2.8243,-4.748
-10.891,-14.209,-13.993,-5.8537,-6.8277,-10.432,-14.07,-4.9918,-9.1122,-5.8537,-6.8277,-9.7561,0.06319,-0.91954,-8.0402,-8.0,-8.0808,-1.0614,-5.89,-0.85386,-2.7967
-11.881,-15.219,-13.993,-5.8537,-6.8277,-11.468,-15.075,-4.9918,-6.0972,-5.8537,-6.8277,-10.732,0.06319,-2.89,-7.0352,-7.0,-7.0707,-2.0564,-7.8317,-0.85386,-4.748
-8.9109,-15.219,-13.003,-4.878,-6.8277,-10.432,-18.09,-4.0066,-6.0972,-4.878,-6.8277,-9.7561,1.0111,-2.89,-5.0251,-7.0,-6.0606,-1.0614,-9.7735,1.1166,-3.7724
-3.9604,-12.189,-8.0528,-2.9268,-5.8615,-5.2504,-17.084999,-0.06568,-4.0871,-2.9268,-5.8615,-7.8049,3.8547,0.06568,-1.005,-3.0,-2.0202,1.9237,-2.0065,6.0427,0.13008
-4.9505,-12.189,-8.0528,-2.9268,-7.7939,-5.2504,-16.08,-0.06568,-2.0771,-2.9268,-7.7939,-6.8293,1.9589,-0.91954,-2.0101,-5.0,-4.0404,-1.0614,-7.8317,5.0575,-0.84553
-2.9703,-11.178,-7.0627,-2.9268,-3.9291,-3.1779,-11.055,0.91954,-6.0972,-2.9268,-3.9291,-2.9268,3.8547,-0.91954,-1.005,-4.0,-4.0404,2.9187,-12.686,7.0279,-0.84553
-4.9505,-13.199,-9.0429,-2.9268,-1.9968,-5.2504,-13.065,-0.06568,-5.0921,-2.9268,-1.9968,-5.8537,3.8547,-1.9048,-1.005,-5.0,-5.0505,4.9088,0.90615,8.0131,-2.7967
-7.9208,-16.229,-13.003,-4.878,-5.8615,-10.432,-17.084999,-5.977,-1.072,-4.878,-5.8615,-11.707,3.8547,-1.9048,-3.0151,-6.0,-5.0505,0.92869,7.7023,6.0427,-2.7967
-8.9109,-15.219,-13.993,-4.878,-6.8277,-10.432,-18.09,-4.0066,-5.0921,-4.878,-6.8277,-13.659,4.8025,1.0509,-1.005,-6.0,-4.0404,-1.0614,-0.06472,7.0279,-2.7967
-7.9208,-13.199,-11.023,-3.9024,-4.8953,-9.3955,-15.075,-4.9918,-3.0821,-3.9024,-4.8953,-9.7561,5.7504,0.06568,-1.005,-5.0,-4.0404,-2.0564,-0.06472,5.0575,-2.7967
-2.9703,-5.1178,-3.1023,-2.9268,-1.0306,-4.2142,-8.0402,-4.0066,3.9531,-2.9268,-1.0306,-2.9268,7.6461,3.0213,4.0201,-1.0,2.0202,2.9187,-1.0356,8.0131,0.13008
-2.9703,-5.1178,-2.1122,-4.878,-2.963,-5.2504,-8.0402,-5.977,2.9481,-4.878,-2.963,-3.9024,6.6983,2.0361,2.0101,-1.0,3.0303,0.92869,0.90615,4.0722,0.13008
-5.9406,-6.1279,-3.1023,-5.8537,-4.8953,-7.323,-10.05,-5.977,2.9481,-5.8537,-4.8953,-6.8293,6.6983,3.0213,1.005,0.0,2.0202,-1.0614,-0.06472,4.0722,1.1057
-4.9505,-7.138,-3.1023,-5.8537,-5.8615,-8.3592,-12.06,-5.977,-3.0821,-5.8537,-5.8615,-6.8293,5.7504,3.0213,0.0,0.0,2.0202,-1.0614,-0.06472,4.0722,1.1057
-5.9406,-7.138,-3.1023,-5.8537,-4.8953,-8.3592,-14.07,-6.9622,-4.0871,-5.8537,-4.8953,-6.8293,2.9068,1.0509,-1.005,0.0,1.0101,-3.0514,-1.0356,3.087,1.1057
-2.9703,-5.1178,-0.13201,-4.878,-6.8277,-5.2504,-14.07,-4.9918,-3.0821,-4.878,-6.8277,-4.878,4.8025,2.0361,1.005,1.0,2.0202,-1.0614,-0.06472,4.0722,1.1057
-1.9802,-3.0976,2.8383,-5.8537,-7.7939,-3.1779,-12.06,-4.9918,-2.0771,-5.8537,-7.7939,-3.9024,6.6983,4.0066,4.0201,3.0,4.0404,-3.0514,1.877,6.0427,3.0569
-1.9802,-3.0976,1.8482,-4.878,-4.8953,-3.1779,-9.0452,-5.977,-2.0771,-4.878,-4.8953,-1.9512,6.6983,2.0361,3.0151,1.0,2.0202,-5.0415,0.90615,6.0427,4.0325
-2.9703,-6.1279,-0.13201,-5.8537,-4.8953,-4.2142,-11.055,-6.9622,-3.0821,-5.8537,-4.8953,-3.9024,4.8025,0.06568,3.0151,-2.0,0.0,-0.06634,-2.0065,6.0427,-0.84553
0.9901,-5.1178,2.8383,-3.9024,-6.8277,-2.1416,-11.055,-4.0066,-4.0871,-3.9024,-6.8277,-1.9512,5.7504,1.0509,5.0251,-1.0,2.0202,-0.06634,-8.8026,7.0279,0.13008
4.9505,-1.0774,5.8086,-0.97561,-3.9291,2.0035,-7.0352,-2.0361,-5.0921,-0.97561,-3.9291,1.9512,5.7504,2.0361,5.0251,1.0,5.0505,0.92869,-10.744,7.0279,1.1057
5.9406,-1.0774,7.7888,2.9268,0.90177,6.1485,-3.0151,1.9048,-3.0821,2.9268,0.90177,5.8537,4.8025,2.0361,5.0251,1.0,6.0606,4.9088,5.7605,6.0427,0.13008
2.9703,-6.1279,3.8284,3.9024,1.868,5.1123,-5.0251,2.89,-0.067,3.9024,1.868,3.9024,1.0111,-1.9048,2.0101,-3.0,2.0202,2.9187,6.7314,3.087,-4.748
1.9802,-5.1178,1.8482,1.9512,1.868,4.076,-4.0201,1.9048,2.9481,1.9512,1.868,3.9024,1.0111,-0.91954,2.0101,-2.0,2.0202,3.9138,-1.0356,5.0575,-3.7724
5.9406,-1.0774,4.8185,1.9512,2.8341,5.1123,-2.0101,-2.0361,2.9481,1.9512,2.8341,5.8537,4.8025,2.0361,6.0302,3.0,6.0606,3.9138,5.7605,6.0427,-0.84553
6.9307,-0.06734,4.8185,0.0,0.90177,4.076,-3.0151,-1.0509,1.943,0.0,0.90177,4.878,6.6983,4.9918,9.0452,5.0,8.0808,7.8939,2.8479,8.9984,4.0325
6.9307,0.94276,2.8383,-0.97561,-1.0306,2.0035,-4.0201,0.91954,-2.0771,-0.97561,-1.0306,2.9268,8.594,6.9622,8.0402,5.0,8.0808,10.879,5.7605,10.969,5.9837
0.9901,-1.0774,-0.13201,-3.9024,-1.9968,-1.1054,-6.0302,0.91954,-2.0771,-3.9024,-1.9968,-0.97561,6.6983,5.977,5.0251,2.0,5.0505,9.8839,3.8188,8.9984,5.0081
-0.9901,-2.0875,-2.1122,-2.9268,-1.0306,-3.1779,-5.0251,-4.0066,2.9481,-2.9268,-1.0306,-1.9512,5.7504,4.0066,2.0101,1.0,2.0202,0.92869,4.7896,6.0427,4.0325
-0.9901,-0.06734,-0.13201,-2.9268,-1.0306,-3.1779,-3.0151,-4.9918,6.9682,-2.9268,-1.0306,0.0,5.7504,5.977,5.0251,3.0,5.0505,-3.0514,6.7314,7.0279,5.0081
0.9901,0.94276,0.85809,-0.97561,0.90177,-1.1054,-3.0151,-2.0361,8.9782,-0.97561,0.90177,0.97561,5.7504,4.9918,4.0201,5.0,5.0505,5.9038,9.644,6.0427,5.9837
0.0,0.94276,-0.13201,-1.9512,-0.06441,-2.1416,-4.0201,-1.0509,3.9531,-1.9512,-0.06441,-1.9512,4.8025,4.0066,3.0151,3.0,3.0303,9.8839,10.615,5.0575,5.0081
-2.9703,-4.1077,-6.0726,-4.878,-6.8277,-7.323,-9.0452,-3.0213,-2.0771,-4.878,-6.8277,-7.8049,1.0111,0.06568,-1.005,-2.0,-2.0202,3.9138,5.7605,3.087,2.0813
-5.9406,-7.138,-9.0429,-6.8293,-6.8277,-8.3592,-12.06,-4.0066,-3.0821,-6.8293,-6.8277,-11.707,-2.7804,-2.89,-4.0201,-5.0,-4.0404,0.92869,2.8479,0.13136,-1.8211
-4.9505,-6.1279,-7.0627,-4.878,-3.9291,-7.323,-10.05,-4.0066,-0.067,-4.878,-3.9291,-8.7805,-5.624,-5.8456,-6.0302,-6.0,-6.0606,-3.0514,-0.06472,-3.8095,-4.748
-5.9406,-5.1178,-6.0726,-4.878,-3.9291,-7.323,-8.0402,-4.0066,-1.072,-4.878,-3.9291,-8.7805,-6.5719,-5.8456,-7.0352,-6.0,-6.0606,-2.0564,1.877,-4.7947,-4.748
-4.9505,-3.0976,-7.0627,-4.878,-3.9291,-9.3955,-8.0402,-4.0066,-1.072,-4.878,-3.9291,-8.7805,-3.7283,-3.8752,-5.0251,-4.0,-5.0505,-0.06634,3.8188,-0.85386,-0.84553
-4.9505,-2.0875,-6.0726,-3.9024,-1.0306,-7.323,-5.0251,-2.0361,3.9531,-3.9024,-1.0306,-7.8049,-2.7804,-2.89,-5.0251,-2.0,-4.0404,-1.0614,5.7605,-0.85386,2.0813
-1.9802,0.94276,-3.1023,-2.9268,0.90177,-4.2142,-3.0151,-1.0509,7.9732,-2.9268,0.90177,-3.9024,-1.8325,-0.91954,-3.0151,1.0,-1.0101,-0.06634,6.7314,0.13136,3.0569
0.0,-0.06734,-3.1023,-3.9024,-2.963,-3.1779,-5.0251,-3.0213,3.9531,-3.9024,-2.963,-4.878,-1.8325,-2.89,-2.0101,0.0,-1.0101,0.92869,4.7896,0.13136,0.13008
0.9901,0.94276,-1.1221,-5.8537,-7.7939,-3.1779,-4.0201,-3.0213,1.943,-5.8537,-7.7939,-4.878,1.0111,-0.91954,2.0101,0.0,2.0202,0.92869,5.7605,2.1018,-0.84553
0.9901,0.94276,-0.13201,-1.9512,-3.9291,-2.1416,0.0,-3.0213,0.93802,-1.9512,-3.9291,-1.9512,1.9589,-0.91954,1.005,-1.0,1.0101,1.9237,5.7605,1.1166,-0.84553
-2.9703,-1.0774,-1.1221,-2.9268,-0.06441,-2.1416,2.0101,-2.0361,2.9481,-2.9268,-0.06441,-0.97561,1.0111,-1.9048,0.0,-4.0,-1.0101,0.92869,3.8188,1.1166,-0.84553
-1.9802,-1.0774,-2.1122,-1.9512,0.90177,-1.1054,1.005,-2.0361,3.9531,-1.9512,0.90177,0.0,1.0111,-2.89,-1.005,-4.0,-3.0303,-3.0514,-3.9482,1.1166,-1.8211
-0.9901,0.94276,-0.13201,-0.97561,-1.0306,-1.1054,0.0,-1.0509,4.9581,-0.97561,-1.0306,0.0,1.9589,0.06568,1.005,-3.0,-1.0101,-1.0614,-9.7735,2.1018,-0.84553
0.0,0.94276,-0.13201,-0.97561,-1.9968,-1.1054,0.0,-0.06568,2.9481,-0.97561,-1.9968,0.0,1.9589,1.0509,1.005,-1.0,-1.0101,3.9138,7.7023,3.087,1.1057
-1.9802,-1.0774,-1.1221,-0.97561,0.90177,-1.1054,0.0,0.91954,3.9531,-0.97561,0.90177,0.0,1.0111,0.06568,-1.005,-3.0,-3.0303,2.9187,15.469,2.1018,0.13008
-3.9604,-4.1077,-4.0924,-0.97561,-0.06441,-3.1779,-2.0101,-1.0509,-1.072,-0.97561,-0.06441,-2.9268,0.06319,-1.9048,-3.0151,-4.0,-5.0505,-1.0614,4.7896,0.13136,-1.8211
-3.9604,-4.1077,-4.0924,-1.9512,-1.0306,-4.2142,-3.0151,-1.0509,-3.0821,-1.9512,-1.0306,-3.9024,0.06319,0.06568,-1.005,-3.0,-3.0303,-2.0564,2.8479,1.1166,-0.84553
-0.9901,-3.0976,-3.1023,-1.9512,-2.963,-3.1779,-5.0251,0.91954,-4.0871,-1.9512,-2.963,-4.878,1.0111,1.0509,0.0,-1.0,-2.0202,-1.0614,-2.9773,3.087,0.13008
0.9901,-2.0875,-2.1122,-0.97561,-2.963,-1.1054,-5.0251,2.89,-8.1072,-0.97561,-2.963,-4.878,1.0111,1.0509,1.005,0.0,-1.0101,3.9138,-0.06472,4.0722,0.13008
0.0,-2.0875,-3.1023,0.0,-1.0306,-1.1054,-4.0201,0.91954,-5.0921,0.0,-1.0306,-3.9024,1.0111,1.0509,0.0,0.0,-2.0202,3.9138,1.877,4.0722,1.1057
0.0,-1.0774,-5.0825,-0.97561,0.90177,-2.1416,0.0,-2.0361,3.9531,-0.97561,0.90177,-1.9512,1.9589,0.06568,1.005,-1.0,-2.0202,1.9237,4.7896,6.0427,0.13008
-1.9802,-1.0774,-4.0924,-1.9512,1.868,-4.2142,0.0,-4.0066,2.9481,-1.9512,1.868,-2.9268,0.06319,-1.9048,0.0,-3.0,-3.0303,0.92869,0.90615,4.0722,-1.8211
-1.9802,-4.1077,-4.0924,0.0,0.90177,-4.2142,-3.0151,-4.9918,-0.067,0.0,0.90177,-2.9268,-0.88468,-3.8752,-1.005,-5.0,-4.0404,-0.06634,-2.0065,2.1018,-2.7967
-4.9505,-5.1178,-5.0825,-0.97561,-1.0306,-5.2504,-4.0201,-4.0066,1.943,-0.97561,-1.0306,-4.878,-2.7804,-4.8604,-3.0151,-8.0,-6.0606,-1.0614,-1.0356,1.1166,-4.748
-7.9208,-6.1279,-8.0528,0.0,-1.0306,-6.2867,-2.0101,-4.0066,1.943,0.0,-1.0306,-4.878,-6.5719,-7.8161,-8.0402,-9.0,-10.101,-5.0415,-0.06472,-3.8095,-5.7236
-8.9109,-2.0875,-6.0726,-0.97561,0.90177,-4.2142,2.0101,-4.0066,0.93802,-0.97561,0.90177,-1.9512,-8.4676,-7.8161,-10.05,-7.0,-10.101,-13.002,1.877,-6.7652,-3.7724
-4.9505,0.94276,-2.1122,0.97561,1.868,-1.1054,4.0201,-4.0066,-6.0972,0.97561,1.868,2.9268,-9.4155,-8.8013,-9.0452,-6.0,-8.0808,-10.017,2.8479,-5.78,-4.748
-3.9604,-0.06734,0.85809,0.97561,2.8341,-0.06909,2.0101,-3.0213,-3.0821,0.97561,2.8341,2.9268,-9.4155,-9.7865,-6.0302,-6.0,-6.0606,-1.0614,2.8479,-4.7947,-7.6748
-2.9703,0.94276,0.85809,1.9512,2.8341,0.96718,3.0151,-3.0213,5.9631,1.9512,2.8341,2.9268,-9.4155,-9.7865,-7.0352,-6.0,-6.0606,-1.0614,2.8479,-5.78,-7.6748
-1.9802,2.963,2.8383,4.878,2.8341,3.0397,6.0302,1.9048,11.993,4.878,2.8341,4.878,-6.5719,-5.8456,-4.0201,-4.0,-3.0303,-0.06634,5.7605,-3.8095,-3.7724
-0.9901,1.9529,2.8383,4.878,4.7665,4.076,8.0402,0.91954,10.988,4.878,4.7665,5.8537,-4.6761,-5.8456,-3.0151,-4.0,-4.0404,-0.06634,2.8479,-2.8243,-4.748
1.9802,4.9832,5.8086,4.878,7.6651,6.1485,11.055,2.89,8.9782,4.878,7.6651,8.7805,-3.7283,-3.8752,-1.005,-3.0,-2.0202,1.9237,1.877,0.13136,-2.7967
1.9802,5.9933,7.7888,4.878,6.6989,6.1485,12.06,2.89,6.9682,4.878,6.6989,8.7805,-3.7283,-3.8752,-2.0101,-1.0,-1.0101,2.9187,-1.0356,-0.85386,-2.7967
1.9802,5.9933,7.7888,3.9024,3.8003,7.1848,9.0452,2.89,6.9682,3.9024,3.8003,7.8049,-4.6761,-3.8752,-3.0151,-1.0,-1.0101,-0.06634,-16.57,-1.8391,-2.7967
0.9901,3.9731,5.8086,2.9268,3.8003,5.1123,5.0251,1.9048,4.9581,2.9268,3.8003,4.878,-5.624,-3.8752,-4.0201,-1.0,-2.0202,-1.0614,0.90615,-2.8243,-0.84553
0.0,3.9731,4.8185,1.9512,2.8341,3.0397,4.0201,0.91954,3.9531,1.9512,2.8341,2.9268,-5.624,-1.9048,-4.0201,0.0,-2.0202,-5.0415,15.469,-2.8243,1.1057
0.0,4.9832,5.8086,3.9024,5.7327,3.0397,7.0352,0.91954,5.9631,3.9024,5.7327,4.878,-4.6761,-2.89,-4.0201,0.0,-1.0101,-11.012,9.644,-3.8095,0.13008
0.0,3.9731,4.8185,4.878,6.6989,3.0397,8.0402,0.91954,3.9531,4.878,6.6989,4.878,-7.5197,-5.8456,-6.0302,-3.0,-4.0404,-5.0415,5.7605,-5.78,-3.7724
-2.9703,1.9529,-0.13201,2.9268,5.7327,-0.06909,6.0302,-1.0509,1.943,2.9268,5.7327,1.9512,-9.4155,-8.8013,-8.0402,-7.0,-8.0808,-1.0614,0.90615,-6.7652,-6.6992
-5.9406,-1.0774,-5.0825,2.9268,3.8003,-3.1779,6.0302,-2.0361,2.9481,2.9268,3.8003,-0.97561,-12.259,-11.757,-12.06,-9.0,-12.121,-7.0315,0.90615,-10.706,-7.6748
-3.9604,1.9529,-2.1122,4.878,4.7665,-1.1054,8.0402,0.91954,4.9581,4.878,4.7665,0.97561,-9.4155,-6.8309,-8.0402,-6.0,-8.0808,-4.0464,3.8188,-7.7504,-4.748
-1.9802,2.963,-0.13201,6.8293,5.7327,0.96718,9.0452,-0.06568,5.9631,6.8293,5.7327,2.9268,-7.5197,-5.8456,-7.0352,-5.0,-6.0606,-6.0365,1.877,-6.7652,-4.748
-3.9604,1.9529,-0.13201,4.878,5.7327,0.96718,9.0452,-0.06568,4.9581,4.878,5.7327,2.9268,-7.5197,-6.8309,-6.0302,-6.0,-6.0606,-4.0464,-0.06472,-5.78,-5.7236
-0.9901,2.963,-0.13201,3.9024,4.7665,2.0035,9.0452,-0.06568,4.9581,3.9024,4.7665,3.9024,-6.5719,-5.8456,-6.0302,-4.0,-6.0606,-4.0464,-1.0356,-5.78,-4.748
1.9802,3.9731,1.8482,2.9268,4.7665,4.076,10.05,0.91954,2.9481,2.9268,4.7665,5.8537,-4.6761,-2.89,-3.0151,-2.0,-4.0404,-0.06634,-1.0356,-2.8243,-2.7967
0.9901,2.963,0.85809,2.9268,4.7665,3.0397,9.0452,-1.0509,-0.067,2.9268,4.7665,4.878,-5.624,-3.8752,-4.0201,-3.0,-5.0505,-1.0614,-1.0356,-4.7947,-2.7967
0.0,4.9832,1.8482,3.9024,2.8341,4.076,9.0452,-0.06568,4.9581,3.9024,2.8341,5.8537,-5.624,-2.89,-3.0151,-1.0,-3.0303,-3.0514,1.877,-3.8095,-1.8211
0.0,2.963,-0.13201,3.9024,1.868,2.0035,6.0302,-0.06568,-1.072,3.9024,1.868,3.9024,-5.624,-4.8604,-3.0151,-2.0,-3.0303,-3.0514,-16.57,-3.8095,-1.8211
-1.9802,-0.06734,-2.1122,0.0,-0.06441,-0.06909,3.0151,-0.06568,-4.0871,0.0,-0.06441,0.0,-4.6761,-3.8752,-3.0151,-4.0,-4.0404,-4.0464,-3.9482,-2.8243,-2.7967
-1.9802,-3.0976,-4.0924,0.97561,2.8341,-2.1416,2.0101,-0.06568,1.943,0.97561,2.8341,-1.9512,-3.7283,-3.8752,-3.0151,-5.0,-5.0505,-0.06634,10.615,-1.8391,-1.8211
-0.9901,-3.0976,-4.0924,0.0,3.8003,-1.1054,0.0,-0.06568,1.943,0.0,3.8003,-1.9512,-1.8325,0.06568,-1.005,-3.0,-2.0202,2.9187,6.7314,-0.85386,1.1057
0.9901,0.94276,-0.13201,3.9024,2.8341,2.0035,4.0201,3.8752,-0.067,3.9024,2.8341,1.9512,0.06319,2.0361,1.005,1.0,1.0101,0.92869,5.7605,1.1166,1.1057
2.9703,5.9933,2.8383,6.8293,6.6989,5.1123,10.05,6.8309,1.943,6.8293,6.6989,5.8537,3.8547,4.9918,4.0201,5.0,5.0505,4.9088,1.877,4.0722,3.0569
2.9703,4.9832,2.8383,5.8537,6.6989,4.076,8.0402,4.8604,1.943,5.8537,6.6989,4.878,3.8547,5.977,5.0251,6.0,5.0505,4.9088,0.90615,3.087,4.0325
9.901,9.0236,7.7888,6.8293,5.7327,8.2211,10.05,6.8309,3.9531,6.8293,5.7327,8.7805,7.6461,10.903,10.05,11.0,9.0909,6.8988,4.7896,8.0131,8.9106
10.891,10.034,9.769,7.8049,4.7665,10.294,12.06,7.8161,1.943,7.8049,4.7665,9.7561,7.6461,10.903,11.055,11.0,10.101,7.8939,4.7896,8.9984,8.9106
9.901,8.0135,7.7888,7.8049,6.6989,10.294,13.065,4.8604,2.9481,7.8049,6.6989,10.732,6.6983,7.9475,9.0452,9.0,8.0808,3.9138,3.8188,7.0279,7.935
10.891,10.034,8.7789,6.8293,7.6651,10.294,12.06,6.8309,5.9631,6.8293,7.6651,10.732,9.5419,9.9179,12.06,11.0,11.111,5.9038,6.7314,8.9984,9.8862
13.861,12.054,10.759,6.8293,7.6651,11.33,12.06,6.8309,5.9631,6.8293,7.6651,11.707,11.438,11.888,13.065,13.0,14.141,6.8988,9.644,8.0131,12.813
15.842,17.104,15.71,7.8049,8.6312,15.475,17.084999,7.8161,9.9832,7.8049,8.6312,15.61,11.438,13.859,17.084999,16.0,18.181999,8.8889,11.586,8.9984,12.813
18.812,20.135,19.67,9.7561,9.5974,17.547001,20.101,7.8161,8.9782,9.7561,9.5974,19.511999,12.385,12.874,18.09,19.0,20.202,9.8839,12.557,9.9836,13.789
19.802,21.145,21.65,9.7561,9.5974,18.584,19.094999,7.8161,9.9832,9.7561,9.5974,19.511999,12.385,13.859,19.094999,19.0,21.212,10.879,11.586,11.954,14.764
24.752001,25.184999,24.620001,10.732,11.53,19.620001,22.111,11.757,7.9732,10.732,11.53,21.462999,19.968,21.740999,25.125999,24.0,26.263,15.854,17.410999,17.865,22.569
15.842,15.084,14.719,10.732,9.5974,14.439,14.07,12.742,2.9481,10.732,9.5974,13.659,12.385,13.859,17.084999,15.0,17.172001,4.9088,6.7314,10.969,11.837
10.891,8.0135,6.7987,10.732,6.6989,9.2573,9.0452,9.7865,4.9581,10.732,6.6989,8.7805,4.8025,3.0213,10.05,7.0,9.0909,4.9088,1.877,7.0279,2.0813
11.881,13.064,10.759,8.7805,6.6989,11.33,11.055,6.8309,6.9682,8.7805,6.6989,8.7805,6.6983,5.977,12.06,11.0,13.131,9.8839,6.7314,8.0131,5.9837
15.842,18.114,16.700001,8.7805,6.6989,13.402,15.075,8.8013,8.9782,8.7805,6.6989,13.659,9.5419,11.888,16.08,17.0,18.181999,10.879,10.615,10.969,12.813
20.792,23.165001,21.65,7.8049,8.6312,16.511,21.106001,10.772,11.993,7.8049,8.6312,17.561001,15.229,17.799999,21.106001,22.0,23.232,13.864,13.528,15.895,17.691
21.782,23.165001,23.629999,6.8293,6.6989,18.584,24.121,11.757,11.993,6.8293,6.6989,19.511999,16.177,16.813999,22.111,21.0,23.232,13.864,12.557,15.895,15.74
20.792,21.145,21.65,8.7805,8.6312,20.656,23.115999,12.742,9.9832,8.7805,8.6312,20.488001,15.229,13.859,20.101,17.0,21.212,12.869,10.615,12.939,12.813
19.802,21.145,21.65,12.683,12.496,21.693001,21.106001,13.727,9.9832,12.683,12.496,20.488001,15.229,13.859,21.106001,17.0,21.212,13.864,15.469,12.939,12.813
20.792,20.135,20.66,14.634,12.496,22.729,20.101,16.683001,12.998,14.634,12.496,20.488001,15.229,14.844,19.094999,19.0,20.202,12.869,15.469,11.954,15.74
18.812,19.125,18.68,12.683,9.5974,21.693001,20.101,17.667999,11.993,12.683,9.5974,19.511999,15.229,16.813999,19.094999,20.0,20.202,5.9038,12.557,11.954,16.715
17.822001,19.125,16.700001,13.659,9.5974,19.620001,20.101,14.713,11.993,13.659,9.5974,17.561001,15.229,17.799999,17.084999,20.0,19.191999,9.8839,13.528,11.954,17.691
15.842,18.114,14.719,10.732,7.6651,17.547001,19.094999,14.713,9.9832,10.732,7.6651,14.634,14.281,16.813999,16.08,18.0,17.172001,10.879,10.615,11.954,15.74
17.822001,16.094,12.739,11.707,6.6989,16.511,15.075,15.698,6.9682,11.707,6.6989,12.683,15.229,16.813999,16.08,17.0,16.162001,13.864,-8.8026,13.924,13.789
14.851,14.074,10.759,7.8049,5.7327,14.439,9.0452,15.698,0.93802,7.8049,5.7327,8.7805,15.229,16.813999,15.075,16.0,15.152,15.854,4.7896,12.939,10.862
13.861,11.044,7.7888,6.8293,4.7665,12.366,7.0352,13.727,5.9631,6.8293,4.7665,7.8049,15.229,15.829,12.06,16.0,13.131,13.864,19.353001,11.954,10.862
8.9109,10.034,4.8185,3.9024,3.8003,8.2211,7.0352,9.7865,5.9631,3.9024,3.8003,4.878,14.281,15.829,9.0452,14.0,11.111,8.8889,14.498,9.9836,11.837
10.891,13.064,6.7987,3.9024,1.868,8.2211,9.0452,8.8013,10.988,3.9024,1.868,6.8293,18.073,21.740999,11.055,17.0,13.131,8.8889,13.528,10.969,16.715
8.9109,12.054,6.7987,1.9512,-0.06441,8.2211,9.0452,8.8013,9.9832,1.9512,-0.06441,5.8537,17.125,22.726,10.05,18.0,13.131,8.8889,10.615,10.969,16.715
7.9208,11.044,5.8086,1.9512,0.90177,7.1848,7.0352,8.8013,4.9581,1.9512,0.90177,5.8537,13.333,19.77,7.0352,17.0,11.111,5.9038,10.615,7.0279,16.715
7.9208,11.044,4.8185,3.9024,2.8341,8.2211,7.0352,8.8013,4.9581,3.9024,2.8341,5.8537,10.49,17.799999,6.0302,16.0,9.0909,5.9038,10.615,5.0575,16.715
6.9307,11.044,3.8284,2.9268,0.90177,6.1485,6.0302,7.8161,4.9581,2.9268,0.90177,3.9024,8.594,14.844,5.0251,14.0,7.0707,3.9138,9.644,4.0722,14.764
6.9307,11.044,3.8284,1.9512,-1.0306,4.076,6.0302,6.8309,5.9631,1.9512,-1.0306,2.9268,9.5419,13.859,7.0352,15.0,9.0909,5.9038,12.557,7.0279,14.764
7.9208,14.074,6.7987,2.9268,0.90177,6.1485,9.0452,9.7865,6.9682,2.9268,0.90177,3.9024,12.385,15.829,11.055,17.0,13.131,10.879,13.528,9.9836,15.74
5.9406,12.054,4.8185,2.9268,0.90177,6.1485,7.0352,8.8013,3.9531,2.9268,0.90177,3.9024,9.5419,12.874,8.0402,15.0,11.111,6.8988,8.6731,8.0131,13.789
4.9505,11.044,5.8086,2.9268,1.868,7.1848,6.0302,8.8013,4.9581,2.9268,1.868,4.878,8.594,10.903,8.0402,13.0,10.101,3.9138,7.7023,7.0279,10.862
4.9505,9.0236,3.8284,0.97561,0.90177,5.1123,6.0302,5.8456,3.9531,0.97561,0.90177,3.9024,7.6461,8.9327,6.0302,11.0,8.0808,4.9088,7.7023,5.0575,9.8862
4.9505,9.0236,4.8185,-0.97561,-1.0306,3.0397,4.0201,4.8604,5.9631,-0.97561,-1.0306,0.97561,8.594,10.903,9.0452,11.0,9.0909,7.8939,8.6731,7.0279,10.862
7.9208,9.0236,5.8086,-1.9512,-0.06441,3.0397,1.005,5.8456,6.9682,-1.9512,-0.06441,0.0,9.5419,9.9179,11.055,11.0,10.101,8.8889,8.6731,8.9984,10.862
8.9109,9.0236,5.8086,-2.9268,-3.9291,0.96718,1.005,5.8456,-1.072,-2.9268,-3.9291,-0.97561,9.5419,9.9179,12.06,12.0,12.121,11.874,6.7314,10.969,9.8862
7.9208,7.0034,4.8185,-2.9268,-5.8615,-1.1054,3.0151,4.8604,-2.0771,-2.9268,-5.8615,-0.97561,7.6461,7.9475,10.05,9.0,9.0909,10.879,3.8188,11.954,7.935
5.9406,5.9933,3.8284,-3.9024,-4.8953,-1.1054,2.0101,5.8456,-1.072,-3.9024,-4.8953,-1.9512,7.6461,8.9327,9.0452,8.0,7.0707,8.8889,3.8188,11.954,8.9106
4.9505,5.9933,-0.13201,-4.878,-3.9291,-4.2142,0.0,2.89,0.93802,-4.878,-3.9291,-3.9024,9.5419,9.9179,9.0452,10.0,7.0707,11.874,-10.744,13.924,10.862
1.9802,4.9832,-3.1023,-5.8537,-6.8277,-6.2867,-2.0101,-1.0509,-1.072,-5.8537,-6.8277,-5.8537,10.49,10.903,9.0452,10.0,8.0808,11.874,2.8479,14.91,10.862
2.9703,5.9933,-1.1221,-5.8537,-8.7601,-5.2504,-1.005,-3.0213,-3.0821,-5.8537,-8.7601,-3.9024,12.385,12.874,10.05,13.0,9.0909,9.8839,15.469,16.879999,12.813
0.9901,5.9933,-2.1122,-5.8537,-3.9291,-3.1779,2.0101,-3.0213,0.93802,-5.8537,-3.9291,-2.9268,11.438,12.874,8.0402,12.0,8.0808,4.9088,7.7023,12.939,12.813
-3.9604,3.9731,-5.0825,-5.8537,-1.0306,-6.2867,0.0,-4.9918,1.943,-5.8537,-1.0306,-3.9024,6.6983,7.9475,2.0101,9.0,4.0404,-3.0514,7.7023,5.0575,9.8862
-7.9208,2.963,-7.0627,-6.8293,-4.8953,-8.3592,-1.005,-7.9475,-5.0921,-6.8293,-4.8953,-6.8293,1.0111,3.0213,-3.0151,5.0,0.0,-4.0464,1.877,0.13136,6.9593
-6.9307,2.963,-5.0825,-4.878,-4.8953,-8.3592,0.0,-7.9475,-1.072,-4.878,-4.8953,-5.8537,-1.8325,2.0361,-4.0201,4.0,-1.0101,-4.0464,1.877,-1.8391,5.9837
-4.9505,3.9731,-2.1122,-4.878,-2.963,-8.3592,0.0,-7.9475,-4.0871,-4.878,-2.963,-4.878,0.06319,4.9918,-2.0101,6.0,1.0101,-4.0464,2.8479,0.13136,6.9593
-0.9901,9.0236,1.8482,-2.9268,-1.9968,-5.2504,3.0151,-5.977,-0.067,-2.9268,-1.9968,-0.97561,5.7504,8.9327,5.0251,11.0,7.0707,-0.06634,5.7605,7.0279,10.862
1.9802,12.054,2.8383,0.0,3.8003,-3.1779,5.0251,-4.0066,5.9631,0.0,3.8003,0.97561,12.385,12.874,9.0452,15.0,11.111,5.9038,5.7605,11.954,13.789
0.9901,9.0236,-0.13201,0.0,4.7665,-4.2142,3.0151,-3.0213,4.9581,0.0,4.7665,-0.97561,13.333,14.844,10.05,13.0,10.101,7.8939,5.7605,13.924,14.764
-1.9802,3.9731,-4.0924,0.97561,4.7665,-3.1779,1.005,-4.0066,2.9481,0.97561,4.7665,-0.97561,11.438,12.874,5.0251,9.0,5.0505,3.9138,3.8188,9.9836,13.789
-2.9703,7.0034,-2.1122,0.0,4.7665,-1.1054,5.0251,-4.9918,1.943,0.0,4.7665,0.97561,10.49,13.859,6.0302,10.0,7.0707,4.9088,-9.7735,8.0131,13.789
-1.9802,8.0135,-0.13201,-1.9512,-1.0306,-2.1416,6.0302,-7.9475,-2.0771,-1.9512,-1.0306,1.9512,7.6461,11.888,5.0251,11.0,7.0707,1.9237,4.7896,5.0575,13.789
-3.9604,5.9933,-1.1221,-3.9024,-1.0306,-3.1779,3.0151,-6.9622,2.9481,-3.9024,-1.0306,0.0,3.8547,7.9475,3.0151,8.0,5.0505,-2.0564,15.469,2.1018,8.9106
-3.9604,2.963,-4.0924,-2.9268,1.868,-4.2142,-1.005,-4.9918,4.9581,-2.9268,1.868,-1.9512,1.9589,4.9918,0.0,6.0,3.0303,-10.017,6.7314,-0.85386,6.9593
-4.9505,0.94276,-5.0825,-4.878,-1.0306,-5.2504,-4.0201,-4.9918,0.93802,-4.878,-1.0306,-3.9024,1.0111,4.9918,-1.005,5.0,2.0202,-13.997,4.7896,-2.8243,5.9837
-0.9901,1.9529,-2.1122,-2.9268,-2.963,-4.2142,0.0,-5.977,1.943,-2.9268,-2.963,-1.9512,3.8547,7.9475,1.005,6.0,4.0404,-7.0315,5.7605,-0.85386,7.935
-2.9703,3.9731,-2.1122,-1.9512,-1.0306,-4.2142,4.0201,-4.0066,1.943,-1.9512,-1.0306,-0.97561,3.8547,7.9475,1.005,7.0,5.0505,-4.0464,3.8188,-0.85386,6.9593
-5.9406,2.963,-4.0924,-1.9512,0.90177,-6.2867,4.0201,-4.9918,4.9581,-1.9512,0.90177,-0.97561,0.06319,3.0213,-3.0151,3.0,1.0101,-7.0315,-1.0356,-4.7947,4.0325
-4.9505,3.9731,-4.0924,0.97561,3.8003,-4.2142,6.0302,-3.0213,6.9682,0.97561,3.8003,0.0,0.06319,2.0361,-2.0101,3.0,0.0,-3.0514,0.90615,-1.8391,5.0081
-6.9307,0.94276,-6.0726,-0.97561,1.868,-4.2142,3.0151,-3.0213,2.9481,-0.97561,1.868,-1.9512,-0.88468,0.06568,-3.0151,1.0,-2.0202,-7.0315,-0.06472,-3.8095,2.0813
-5.9406,-0.06734,-5.0825,-1.9512,-0.06441,-2.1416,2.0101,-3.0213,-0.067,-1.9512,-0.06441,-0.97561,-1.8325,0.06568,-3.0151,0.0,-3.0303,-5.0415,-1.0356,-3.8095,1.1057
-2.9703,3.9731,-1.1221,0.97561,3.8003,0.96718,6.0302,-1.0509,4.9581,0.97561,3.8003,2.9268,1.0111,3.0213,1.005,3.0,0.0,-3.0514,1.877,1.1166,3.0569
-0.9901,5.9933,0.85809,2.9268,4.7665,2.0035,7.0352,0.91954,8.9782,2.9268,4.7665,3.9024,1.9589,4.9918,1.005,4.0,1.0101,0.92869,3.8188,1.1166,4.0325
-0.9901,4.9832,0.85809,1.9512,0.90177,0.96718,6.0302,-0.06568,5.9631,1.9512,0.90177,1.9512,0.06319,1.0509,1.005,2.0,1.0101,4.9088,1.877,1.1166,1.1057
0.0,1.9529,-1.1221,1.9512,1.868,-0.06909,3.0151,1.9048,1.943,1.9512,1.868,0.0,-2.7804,-2.89,-1.005,-1.0,0.0,-3.0514,-2.9773,-1.8391,-1.8211
-2.9703,0.94276,-3.1023,0.97561,0.90177,-2.1416,0.0,1.9048,-1.072,0.97561,0.90177,-3.9024,-4.6761,-1.9048,-2.0101,-1.0,0.0,-3.0514,-2.0065,-4.7947,-1.8211
-0.9901,1.9529,-1.1221,0.97561,0.90177,-2.1416,0.0,1.9048,-1.072,0.97561,0.90177,-1.9512,-2.7804,0.06568,-1.005,2.0,2.0202,0.92869,-1.0356,-4.7947,1.1057
2.9703,5.9933,3.8284,3.9024,1.868,0.96718,3.0151,2.89,1.943,3.9024,1.868,0.97561,1.0111,4.0066,5.0251,6.0,7.0707,2.9187,-15.599,2.1018,5.0081
2.9703,4.9832,-0.13201,2.9268,0.90177,-2.1416,3.0151,-0.06568,1.943,2.9268,0.90177,0.0,2.9068,3.0213,5.0251,6.0,7.0707,3.9138,-0.06472,4.0722,4.0325
1.9802,7.0034,-0.13201,2.9268,3.8003,-0.06909,6.0302,2.89,1.943,2.9268,3.8003,0.97561,4.8025,5.977,7.0352,6.0,7.0707,3.9138,19.353001,6.0427,5.9837
6.9307,9.0236,3.8284,5.8537,3.8003,5.1123,7.0352,6.8309,3.9531,5.8537,3.8003,5.8537,6.6983,5.977,9.0452,7.0,7.0707,8.8889,13.528,8.9984,6.9593
6.9307,7.0034,4.8185,3.9024,-0.06441,6.1485,4.0201,5.8456,5.9631,3.9024,-0.06441,4.878,4.8025,4.9918,8.0402,5.0,6.0606,10.879,7.7023,8.0131,4.0325
8.9109,8.0135,6.7987,2.9268,0.90177,7.1848,5.0251,7.8161,5.9631,2.9268,0.90177,7.8049,4.8025,4.9918,8.0402,5.0,6.0606,8.8889,4.7896,8.0131,5.9837
9.901,9.0236,7.7888,3.9024,2.8341,10.294,8.0402,4.8604,5.9631,3.9024,2.8341,10.732,3.8547,4.0066,8.0402,4.0,5.0505,6.8988,6.7314,8.9984,5.9837
9.901,10.034,8.7789,4.878,5.7327,10.294,9.0452,8.8013,8.9782,4.878,5.7327,11.707,3.8547,4.0066,7.0352,4.0,5.0505,7.8939,7.7023,7.0279,5.0081
9.901,11.044,9.769,4.878,5.7327,9.2573,8.0402,11.757,9.9832,4.878,5.7327,10.732,4.8025,4.9918,8.0402,6.0,7.0707,12.869,7.7023,7.0279,6.9593
9.901,10.034,9.769,4.878,2.8341,7.1848,6.0302,10.772,10.988,4.878,2.8341,9.7561,5.7504,5.977,10.05,9.0,10.101,12.869,8.6731,8.9984,6.9593
10.891,11.044,11.749,4.878,2.8341,9.2573,6.0302,11.757,10.988,4.878,2.8341,10.732,8.594,9.9179,11.055,12.0,14.141,10.879,10.615,9.9836,8.9106
16.832001,14.074,16.700001,6.8293,4.7665,12.366,8.0402,13.727,12.998,6.8293,4.7665,12.683,14.281,14.844,18.09,17.0,19.191999,16.849001,13.528,15.895,13.789
14.851,9.0236,14.719,3.9024,0.90177,10.294,5.0251,10.772,3.9531,3.9024,0.90177,10.732,11.438,11.888,14.07,14.0,16.162001,14.859,8.6731,12.939,9.8862
14.851,9.0236,15.71,6.8293,2.8341,11.33,5.0251,11.757,3.9531,6.8293,2.8341,12.683,12.385,11.888,16.08,13.0,16.162001,15.854,7.7023,15.895,8.9106
18.812,10.034,17.690001,9.7561,7.6651,15.475,7.0352,11.757,12.998,9.7561,7.6651,16.584999,14.281,11.888,17.084999,13.0,18.181999,17.844,8.6731,16.879999,9.8862
15.842,8.0135,16.700001,6.8293,5.7327,14.439,6.0302,10.772,15.008,6.8293,5.7327,15.61,12.385,9.9179,15.075,11.0,15.152,15.854,8.6731,14.91,5.9837
15.842,8.0135,16.700001,8.7805,4.7665,14.439,7.0352,12.742,10.988,8.7805,4.7665,16.584999,12.385,9.9179,13.065,9.0,14.141,13.864,9.644,12.939,7.935
13.861,7.0034,15.71,8.7805,5.7327,14.439,6.0302,13.727,8.9782,8.7805,5.7327,15.61,13.333,10.903,13.065,9.0,14.141,11.874,8.6731,14.91,7.935
10.891,2.963,11.749,5.8537,2.8341,10.294,0.0,8.8013,1.943,5.8537,2.8341,10.732,10.49,7.9475,10.05,6.0,11.111,11.874,3.8188,12.939,5.9837
5.9406,2.963,7.7888,1.9512,-2.963,7.1848,-2.0101,4.8604,-1.072,1.9512,-2.963,7.8049,6.6983,4.9918,7.0352,4.0,8.0808,7.8939,-10.744,10.969,3.0569
6.9307,7.0034,8.7789,4.878,2.8341,8.2211,3.0151,6.8309,2.9481,4.878,2.8341,10.732,8.594,7.9475,8.0402,7.0,9.0909,9.8839,7.7023,10.969,5.9837
6.9307,5.9933,7.7888,6.8293,7.6651,10.294,5.0251,7.8161,6.9682,6.8293,7.6651,11.707,8.594,7.9475,7.0352,5.0,7.0707,11.874,20.323999,12.939,5.9837
4.9505,2.963,5.8086,6.8293,4.7665,8.2211,4.0201,7.8161,8.9782,6.8293,4.7665,9.7561,5.7504,3.0213,4.0201,1.0,3.0303,7.8939,10.615,8.9984,1.1057
3.9604,0.94276,5.8086,6.8293,3.8003,8.2211,2.0101,7.8161,7.9732,6.8293,3.8003,8.7805,4.8025,3.0213,3.0151,1.0,2.0202,7.8939,7.7023,7.0279,1.1057
1.9802,-2.0875,2.8383,4.878,-0.06441,4.076,-4.0201,5.8456,2.9481,4.878,-0.06441,4.878,1.9589,1.0509,1.005,-1.0,0.0,5.9038,0.90615,4.0722,1.1057
1.9802,-1.0774,2.8383,2.9268,-0.06441,3.0397,-4.0201,1.9048,0.93802,2.9268,-0.06441,3.9024,1.9589,0.06568,1.005,-2.0,0.0,4.9088,2.8479,5.0575,2.0813
0.9901,-0.06734,2.8383,2.9268,2.8341,2.0035,-3.0151,2.89,0.93802,2.9268,2.8341,3.9024,1.9589,1.0509,1.005,0.0,0.0,4.9088,5.7605,5.0575,4.0325
6.9307,2.963,6.7987,4.878,1.868,6.1485,0.0,4.8604,2.9481,4.878,1.868,7.8049,5.7504,5.977,6.0302,6.0,6.0606,7.8939,5.7605,8.9984,8.9106
13.861,9.0236,15.71,5.8537,2.8341,12.366,6.0302,8.8013,5.9631,5.8537,2.8341,13.659,12.385,13.859,14.07,13.0,15.152,12.869,7.7023,13.924,13.789
6.9307,0.94276,8.7789,4.878,2.8341,7.1848,0.0,2.89,3.9531,4.878,2.8341,9.7561,4.8025,4.9918,5.0251,5.0,7.0707,4.9088,2.8479,4.0722,5.0081
0.0,-7.138,2.8383,2.9268,-0.06441,3.0397,-7.0352,-1.0509,-4.0871,2.9268,-0.06441,3.9024,-1.8325,-2.89,0.0,-3.0,1.0101,0.92869,-2.9773,0.13136,-3.7724
2.9703,-6.1279,3.8284,1.9512,-0.06441,3.0397,-6.0302,0.91954,-4.0871,1.9512,-0.06441,3.9024,2.9068,-0.91954,3.0151,-1.0,3.0303,2.9187,-2.0065,4.0722,-2.7967
1.9802,-4.1077,2.8383,1.9512,1.868,0.96718,-4.0201,0.91954,0.93802,1.9512,1.868,2.9268,2.9068,0.06568,5.0251,-1.0,4.0404,-1.0614,-1.0356,5.0575,-2.7967
2.9703,-2.0875,2.8383,3.9024,1.868,0.96718,-3.0151,-0.06568,2.9481,3.9024,1.868,3.9024,3.8547,1.0509,4.0201,0.0,3.0303,3.9138,1.877,6.0427,-0.84553
1.9802,-2.0875,3.8284,0.97561,0.90177,0.96718,-4.0201,-0.06568,3.9531,0.97561,0.90177,1.9512,4.8025,3.0213,5.0251,1.0,3.0303,6.8988,4.7896,7.0279,0.13008
4.9505,-1.0774,5.8086,-0.97561,-1.0306,0.96718,-5.0251,-0.06568,2.9481,-0.97561,-1.0306,1.9512,7.6461,6.9622,7.0352,5.0,6.0606,5.9038,5.7605,8.0131,5.9837
5.9406,-0.06734,6.7987,0.0,-1.9968,5.1123,-3.0151,3.8752,-0.067,0.0,-1.9968,4.878,7.6461,7.9475,8.0402,7.0,8.0808,6.8988,5.7605,7.0279,7.935
8.9109,1.9529,9.769,4.878,-0.06441,8.2211,-2.0101,6.8309,0.93802,4.878,-0.06441,7.8049,10.49,10.903,10.05,9.0,11.111,8.8889,4.7896,8.0131,10.862
7.9208,1.9529,8.7789,2.9268,-1.0306,7.1848,-2.0101,4.8604,-5.0921,2.9268,-1.0306,5.8537,9.5419,8.9327,9.0452,9.0,10.101,7.8939,5.7605,8.9984,9.8862
4.9505,-0.06734,5.8086,0.97561,-1.0306,4.076,-4.0201,2.89,-3.0821,0.97561,-1.0306,3.9024,6.6983,4.9918,6.0302,5.0,7.0707,5.9038,3.8188,6.0427,4.0325
3.9604,-2.0875,3.8284,1.9512,-0.06441,4.076,-6.0302,3.8752,1.943,1.9512,-0.06441,1.9512,5.7504,4.9918,6.0302,5.0,6.0606,5.9038,0.90615,5.0575,3.0569
3.9604,-2.0875,3.8284,1.9512,-3.9291,3.0397,-7.0352,4.8604,-2.0771,1.9512,-3.9291,0.97561,6.6983,6.9622,6.0302,6.0,8.0808,5.9038,-14.628,5.0575,1.1057
1.9802,-2.0875,1.8482,0.0,-7.7939,-0.06909,-9.0452,1.9048,-3.0821,0.0,-7.7939,-1.9512,8.594,9.9179,5.0251,8.0,9.0909,4.9088,-7.8317,4.0722,2.0813
-0.9901,-4.1077,-0.13201,-1.9512,-7.7939,-3.1779,-10.05,1.9048,-3.0821,-1.9512,-7.7939,-4.878,10.49,12.874,4.0201,8.0,8.0808,-0.06634,8.6731,4.0722,5.0081
-1.9802,-6.1279,-1.1221,-0.97561,-4.8953,-3.1779,-10.05,-0.06568,-8.1072,-0.97561,-4.8953,-2.9268,11.438,13.859,3.0151,7.0,6.0606,-1.0614,9.644,3.087,5.9837
-0.9901,-6.1279,-0.13201,-0.97561,-4.8953,-2.1416,-10.05,-0.06568,-11.122,-0.97561,-4.8953,-2.9268,13.333,14.844,6.0302,7.0,6.0606,2.9187,2.8479,7.0279,6.9593
-2.9703,-7.138,-4.0924,-3.9024,-8.7601,-5.2504,-13.065,-2.0361,-6.0972,-3.9024,-8.7601,-7.8049,12.385,12.874,3.0151,5.0,4.0404,1.9237,0.90615,5.0575,6.9593
-1.9802,-5.1178,-3.1023,-3.9024,-8.7601,-4.2142,-11.055,-0.06568,-4.0871,-3.9024,-8.7601,-7.8049,11.438,13.859,5.0251,5.0,4.0404,1.9237,0.90615,5.0575,6.9593
0.0,-4.1077,-0.13201,-3.9024,-5.8615,-2.1416,-8.0402,1.9048,-2.0771,-3.9024,-5.8615,-4.878,9.5419,10.903,4.0201,6.0,4.0404,0.92869,3.8188,5.0575,6.9593
-0.9901,-3.0976,0.85809,-3.9024,-4.8953,-3.1779,-9.0452,-1.0509,0.93802,-3.9024,-4.8953,-3.9024,7.6461,8.9327,5.0251,5.0,4.0404,-5.0415,3.8188,4.0722,5.9837
0.9901,-1.0774,0.85809,-2.9268,-3.9291,-3.1779,-7.0352,-3.0213,0.93802,-2.9268,-3.9291,-1.9512,6.6983,5.977,5.0251,5.0,4.0404,-5.0415,4.7896,4.0722,5.0081
0.9901,0.94276,2.8383,0.97561,1.868,2.0035,-2.0101,0.91954,1.943,0.97561,1.868,1.9512,5.7504,4.9918,5.0251,4.0,5.0505,-0.06634,3.8188,5.0575,4.0325
0.0,-0.06734,2.8383,1.9512,3.8003,3.0397,-1.005,0.91954,-0.067,1.9512,3.8003,2.9268,3.8547,3.0213,4.0201,3.0,4.0404,1.9237,0.90615,2.1018,4.0325
1.9802,-1.0774,2.8383,0.97561,1.868,4.076,-2.0101,2.89,2.9481,0.97561,1.868,1.9512,2.9068,2.0361,4.0201,2.0,4.0404,0.92869,-0.06472,2.1018,3.0569
4.9505,-2.0875,4.8185,0.97561,-0.06441,3.0397,-1.005,3.8752,0.93802,0.97561,-0.06441,1.9512,1.9589,0.06568,4.0201,1.0,5.0505,-3.0514,-2.9773,-0.85386,-0.84553
6.9307,-1.0774,6.7987,2.9268,-1.0306,4.076,0.0,4.8604,-3.0821,2.9268,-1.0306,1.9512,2.9068,2.0361,6.0302,3.0,7.0707,-2.0564,-2.0065,-0.85386,-0.84553
7.9208,-0.06734,8.7789,5.8537,1.868,5.1123,-1.005,4.8604,-3.0821,5.8537,1.868,3.9024,4.8025,2.0361,8.0402,5.0,9.0909,1.9237,0.90615,3.087,-0.84553
7.9208,0.94276,8.7789,5.8537,0.90177,5.1123,-4.0201,3.8752,-3.0821,5.8537,0.90177,3.9024,4.8025,1.0509,8.0402,6.0,9.0909,2.9187,0.90615,4.0722,-1.8211
7.9208,3.9731,9.769,5.8537,0.90177,7.1848,-3.0151,5.8456,-2.0771,5.8537,0.90177,4.878,7.6461,4.9918,10.05,8.0,11.111,2.9187,3.8188,5.0575,2.0813
3.9604,1.9529,6.7987,2.9268,-2.963,5.1123,-3.0151,1.9048,-6.0972,2.9268,-2.963,2.9268,4.8025,4.0066,6.0302,6.0,8.0808,-1.0614,1.877,1.1166,1.1057
0.9901,-0.06734,3.8284,1.9512,-2.963,3.0397,-5.0251,-0.06568,-4.0871,1.9512,-2.963,0.0,3.8547,3.0213,5.0251,5.0,6.0606,-5.0415,0.90615,-0.85386,0.13008
1.9802,-2.0875,0.85809,2.9268,-0.06441,3.0397,-5.0251,-1.0509,-3.0821,2.9268,-0.06441,0.0,1.9589,1.0509,2.0101,3.0,5.0505,-7.0315,-0.06472,-3.8095,2.0813
4.9505,-1.0774,3.8284,4.878,0.90177,6.1485,-3.0151,1.9048,-5.0921,4.878,0.90177,1.9512,1.0111,3.0213,4.0201,6.0,7.0707,-6.0365,0.90615,-4.7947,4.0325
6.9307,-2.0875,4.8185,5.8537,-1.9968,6.1485,-1.005,3.8752,-1.072,5.8537,-1.9968,2.9268,1.0111,3.0213,3.0151,6.0,6.0606,-0.06634,-2.9773,-3.8095,4.0325
4.9505,-4.1077,2.8383,3.9024,-0.06441,5.1123,-2.0101,4.8604,-1.072,3.9024,-0.06441,0.97561,-0.88468,1.0509,3.0151,3.0,4.0404,1.9237,-7.8317,-1.8391,-0.84553
6.9307,-2.0875,2.8383,5.8537,3.8003,3.0397,-1.005,5.8456,-3.0821,5.8537,3.8003,0.0,-0.88468,-1.9048,3.0151,0.0,2.0202,1.9237,-8.8026,2.1018,-3.7724
1.9802,-1.0774,1.8482,3.9024,3.8003,-1.1054,-1.005,1.9048,-1.072,3.9024,3.8003,-2.9268,0.06319,-2.89,2.0101,-2.0,1.0101,-2.0564,-5.89,5.0575,-4.748
-0.9901,0.94276,0.85809,0.97561,1.868,-4.2142,-1.005,-2.0361,1.943,0.97561,1.868,-3.9024,1.9589,-0.91954,2.0101,0.0,1.0101,0.92869,-0.06472,5.0575,-1.8211
-0.9901,4.9832,3.8284,-0.97561,0.90177,-3.1779,-1.005,-5.977,1.943,-0.97561,0.90177,-1.9512,4.8025,3.0213,5.0251,5.0,5.0505,3.9138,7.7023,6.0427,2.0813
-0.9901,4.9832,3.8284,-0.97561,-0.06441,-3.1779,-4.0201,-7.9475,1.943,-0.97561,-0.06441,-1.9512,5.7504,4.9918,5.0251,7.0,7.0707,-2.0564,10.615,4.0722,5.9837
2.9703,7.0034,7.7888,-2.9268,-0.06441,-1.1054,-3.0151,-8.9327,3.9531,-2.9268,-0.06441,-0.97561,11.438,10.903,10.05,11.0,12.121,-2.0564,13.528,7.0279,11.837
8.9109,7.0034,11.749,0.97561,2.8341,5.1123,0.0,-0.06568,2.9481,0.97561,2.8341,2.9268,11.438,11.888,13.065,12.0,13.131,1.9237,11.586,7.0279,11.837
6.9307,0.94276,6.7987,4.878,3.8003,5.1123,1.005,4.8604,-1.072,4.878,3.8003,1.9512,1.9589,1.0509,5.0251,3.0,6.0606,-3.0514,0.90615,-0.85386,2.0813
2.9703,-0.06734,5.8086,3.9024,3.8003,2.0035,4.0201,0.91954,-1.072,3.9024,3.8003,0.97561,-3.7283,-3.8752,0.0,-1.0,3.0303,-11.012,-3.9482,-5.78,-2.7967
5.9406,7.0034,10.759,2.9268,4.7665,2.0035,9.0452,-2.0361,2.9481,2.9268,4.7665,4.878,2.9068,3.0213,6.0302,6.0,9.0909,-9.0216,-0.06472,0.13136,3.0569
5.9406,10.034,11.749,-0.97561,0.90177,-0.06909,9.0452,-4.9918,2.9481,-0.97561,0.90177,3.9024,8.594,7.9475,9.0452,10.0,13.131,-3.0514,1.877,7.0279,6.9593
2.9703,9.0236,7.7888,-5.8537,-2.963,-4.2142,6.0302,-9.9179,3.9531,-5.8537,-2.963,0.0,8.594,6.9622,8.0402,9.0,11.111,-0.06634,3.8188,9.9836,6.9593
2.9703,7.0034,5.8086,-4.878,-3.9291,-4.2142,1.005,-8.9327,-1.072,-4.878,-3.9291,-1.9512,10.49,8.9327,11.055,9.0,11.111,4.9088,5.7605,13.924,6.9593
1.9802,1.9529,2.8383,-3.9024,-5.8615,-4.2142,-8.0402,-7.9475,-9.1122,-3.9024,-5.8615,-3.9024,7.6461,4.9918,6.0302,6.0,5.0505,3.9138,2.8479,9.9836,5.0081
0.9901,-1.0774,-0.13201,-4.878,-5.8615,-3.1779,-8.0402,-7.9475,-10.117,-4.878,-5.8615,-2.9268,1.9589,0.06568,2.0101,0.0,0.0,0.92869,-0.06472,5.0575,1.1057
0.0,-0.06734,-1.1221,-4.878,-3.9291,0.96718,0.0,-9.9179,-8.1072,-4.878,-3.9291,1.9512,-1.8325,-3.8752,-2.0101,-3.0,-5.0505,-2.0564,-0.06472,0.13136,1.1057
-3.9604,0.94276,-4.0924,-3.9024,-2.963,0.96718,7.0352,-9.9179,-11.122,-3.9024,-2.963,3.9024,-5.624,-4.8604,-7.0352,-6.0,-10.101,-7.0315,0.90615,-4.7947,1.1057
-3.9604,2.963,-4.0924,-3.9024,-3.9291,-1.1054,7.0352,-9.9179,-7.1022,-3.9024,-3.9291,1.9512,-5.624,-3.8752,-9.0452,-4.0,-10.101,-11.012,-0.06472,-8.7356,1.1057
-5.9406,1.9529,-2.1122,-5.8537,-4.8953,-3.1779,2.0101,-10.903,-4.0871,-5.8537,-4.8953,0.0,-6.5719,-2.89,-8.0402,-3.0,-7.0707,-18.972,-2.0065,-11.691,0.13008
-8.9109,0.94276,-2.1122,-8.7805,-6.8277,-7.323,-1.005,-15.829,-5.0921,-8.7805,-6.8277,-3.9024,-5.624,-2.89,-7.0352,-1.0,-4.0404,-24.941999,-4.9191,-14.647,-1.8211
-7.9208,2.963,-0.13201,-9.7561,-7.7939,-8.3592,-1.005,-17.799999,-3.0821,-9.7561,-7.7939,-5.8537,-0.88468,3.0213,-3.0151,3.0,1.0101,-18.972,-2.0065,-10.706,1.1057
-6.9307,1.9529,0.85809,-9.7561,-7.7939,-9.3955,-4.0201,-15.829,-5.0921,-9.7561,-7.7939,-6.8293,0.06319,4.9918,-3.0151,4.0,3.0303,-13.997,-2.9773,-9.7209,1.1057
-11.881,-2.0875,-3.1023,-9.7561,-7.7939,-13.541,-7.0352,-19.77,-10.117,-9.7561,-7.7939,-9.7561,-5.624,0.06568,-9.0452,0.0,-1.0101,-19.966999,-9.7735,-14.647,-4.748
-14.851,-2.0875,-5.0825,-9.7561,-4.8953,-14.577,-4.0201,-22.726,-4.0871,-9.7561,-4.8953,-7.8049,-9.4155,-3.8752,-13.065,-2.0,-5.0505,-21.957001,-8.8026,-17.603001,-8.6504
-17.822001,-3.0976,-7.0627,-11.707,-4.8953,-15.613,-3.0151,-23.711,-5.0921,-11.707,-4.8953,-7.8049,-13.207,-7.8161,-16.08,-4.0,-10.101,-23.947001,-6.8608,-20.558001,-11.577
-15.842,-4.1077,-9.0429,-10.732,-8.7601,-12.504,-3.0151,-19.77,-9.1122,-10.732,-8.7601,-7.8049,-16.997999,-10.772,-17.084999,-7.0,-14.141,-20.962,-9.7735,-21.544001,-13.528
-16.832001,-7.138,-13.003,-10.732,-9.7262,-12.504,-6.0302,-18.785,-11.122,-10.732,-9.7262,-9.7561,-21.738001,-15.698,-21.106001,-11.0,-19.191999,-21.957001,-12.686,-25.483999,-16.455
-18.812,-8.1481,-14.983,-11.707,-6.8277,-14.577,-6.0302,-20.754999,-7.1022,-11.707,-6.8277,-12.683,-25.528999,-19.639,-23.115999,-14.0,-23.232,-24.941999,-10.744,-28.440001,-17.431
-17.822001,-9.1582,-13.993,-11.707,-6.8277,-14.577,-6.0302,-21.740999,-6.0972,-11.707,-6.8277,-10.732,-27.424999,-23.58,-23.115999,-16.0,-23.232,-26.931999,-13.657,-29.424999,-20.358
-16.832001,-8.1481,-11.023,-11.707,-6.8277,-14.577,-7.0352,-20.754999,-11.122,-11.707,-6.8277,-9.7561,-25.528999,-24.565001,-19.094999,-16.0,-20.202,-24.941999,-13.657,-26.469999,-21.333
-16.832001,-9.1582,-12.013,-11.707,-5.8615,-15.613,-5.0251,-21.740999,-9.1122,-11.707,-5.8615,-9.7561,-27.424999,-27.521,-20.101,-18.0,-19.191999,-27.927,-13.657,-27.455,-24.26
-16.832001,-9.1582,-12.013,-9.7561,-3.9291,-14.577,-3.0151,-20.754999,-4.0871,-9.7561,-3.9291,-8.7805,-28.372999,-28.506001,-19.094999,-20.0,-19.191999,-25.937,-17.540001,-26.469999,-26.211
-17.822001,-13.199,-15.974,-8.7805,-4.8953,-14.577,-6.0302,-18.785,-10.117,-8.7805,-4.8953,-10.732,-29.320999,-30.476,-22.111,-23.0,-21.212,-26.931999,-33.074001,-28.440001,-29.138
-15.842,-15.219,-15.974,-8.7805,-7.7939,-11.468,-8.0402,-14.844,-14.137,-8.7805,-7.7939,-11.707,-28.372999,-27.521,-20.101,-22.0,-21.212,-19.966999,-20.452999,-26.469999,-26.211
-13.861,-17.239,-16.964001,-9.7561,-7.7939,-11.468,-8.0402,-10.903,-16.146999,-9.7561,-7.7939,-11.707,-29.320999,-29.490999,-21.106001,-23.0,-23.232,-13.997,-10.744,-25.483999,-26.211
-14.851,-16.229,-17.954,-8.7805,-8.7601,-11.468,-8.0402,-10.903,-13.132,-8.7805,-8.7601,-12.683,-30.268999,-29.490999,-22.111,-23.0,-25.253,-15.987,-15.599,-24.499001,-25.236
-15.842,-14.209,-17.954,-7.8049,-8.7601,-13.541,-10.05,-10.903,-10.117,-7.8049,-8.7601,-13.659,-30.268999,-29.490999,-24.121,-21.0,-25.253,-16.982,-13.657,-25.483999,-24.26
-17.822001,-14.209,-17.954,-12.683,-11.659,-17.686001,-13.065,-13.859,-14.137,-12.683,-11.659,-17.561001,-32.164001,-30.476,-26.131001,-21.0,-25.253,-19.966999,-19.482,-28.440001,-26.211
-23.761999,-18.249001,-20.924,-17.561001,-17.455999,-23.903,-19.094999,-18.785,-21.173,-17.561001,-17.455999,-22.438999,-35.956001,-33.431999,-30.150999,-25.0,-27.273001,-24.941999,-22.395,-33.366001,-30.114
-22.771999,-15.219,-18.944,-15.61,-13.591,-21.830999,-16.08,-18.785,-15.142,-15.61,-13.591,-19.511999,-33.112,-31.461,-27.136,-23.0,-25.253,-24.941999,-20.452999,-32.381001,-29.138
-19.802,-10.168,-13.993,-11.707,-9.7262,-15.613,-10.05,-14.844,-9.1122,-11.707,-9.7262,-14.634,-30.268999,-28.506001,-24.121,-20.0,-23.232,-20.962,-15.599,-29.424999,-26.211
-18.812,-11.178,-13.993,-11.707,-13.591,-14.577,-8.0402,-13.859,-14.137,-11.707,-13.591,-12.683,-33.112,-30.476,-26.131001,-21.0,-24.242001,-20.962,-16.57,-31.396,-27.187
-18.812,-11.178,-13.003,-11.707,-10.692,-14.577,-6.0302,-12.874,-10.117,-11.707,-10.692,-11.707,-33.112,-30.476,-25.125999,-22.0,-23.232,-22.952,-18.511,-31.396,-27.187
-17.822001,-13.199,-14.983,-8.7805,-6.8277,-13.541,-8.0402,-12.874,-9.1122,-8.7805,-6.8277,-10.732,-34.060001,-32.446999,-26.131001,-24.0,-24.242001,-20.962,-17.540001,-31.396,-27.187
-19.802,-19.259001,-18.944,-11.707,-9.7262,-15.613,-15.075,-11.888,-17.152,-11.707,-9.7262,-16.584999,-36.903999,-35.402,-28.141001,-29.0,-27.273001,-18.972,-21.424,-32.381001,-32.064999
-19.802,-22.290001,-22.903999,-13.659,-11.659,-19.757999,-17.084999,-14.844,-16.146999,-13.659,-11.659,-19.511999,-37.852001,-36.388,-30.150999,-32.0,-29.292999,-18.972,-25.306999,-32.381001,-34.992001
-20.792,-20.268999,-21.914,-14.634,-10.692,-19.757999,-13.065,-14.844,-12.127,-14.634,-10.692,-19.511999,-35.007999,-34.417,-28.141001,-30.0,-28.283001,-18.972,-21.424,-31.396,-32.064999
-16.832001,-14.209,-17.954,-10.732,-6.8277,-16.649,-7.0352,-13.859,-6.0972,-10.732,-6.8277,-14.634,-31.216,-31.461,-24.121,-25.0,-24.242001,-16.982,-15.599,-27.455,-28.163
-14.851,-12.189,-16.964001,-10.732,-8.7601,-15.613,-7.0352,-11.888,-5.0921,-10.732,-8.7601,-14.634,-29.320999,-28.506001,-22.111,-21.0,-21.212,-16.982,-14.628,-25.483999,-26.211
-12.871,-14.209,-17.954,-11.707,-12.625,-14.577,-12.06,-7.9475,-12.127,-11.707,-12.625,-16.584999,-29.320999,-29.490999,-21.106001,-22.0,-22.222,-14.992,-17.540001,-24.499001,-27.187
-6.9307,-12.189,-13.993,-8.7805,-11.659,-9.3955,-10.05,-2.0361,-11.122,-8.7805,-11.659,-12.683,-24.580999,-25.549999,-15.075,-20.0,-18.181999,-6.0365,-15.599,-16.617001,-24.26
-3.9604,-9.1582,-10.033,-5.8537,-8.7601,-5.2504,-5.0251,-1.0509,-6.0972,-5.8537,-8.7601,-7.8049,-21.738001,-23.58,-12.06,-18.0,-15.152,-2.0564,-13.657,-14.647,-21.333
-6.9307,-9.1582,-9.0429,-9.7561,-8.7601,-7.323,-6.0302,-4.0066,-8.1072,-9.7561,-8.7601,-8.7805,-23.632999,-25.549999,-14.07,-19.0,-16.162001,-6.0365,-13.657,-17.603001,-24.26
-6.9307,-8.1481,-7.0627,-9.7561,-8.7601,-7.323,-5.0251,-3.0213,-8.1072,-9.7561,-8.7601,-7.8049,-23.632999,-25.549999,-14.07,-18.0,-14.141,-7.0315,-11.715,-18.587999,-23.285
-5.9406,-4.1077,-4.0924,-7.8049,-6.8277,-5.2504,-3.0151,-3.0213,-4.0871,-7.8049,-6.8277,-4.878,-19.841999,-20.624001,-11.055,-13.0,-10.101,-7.0315,-9.7735,-17.603001,-20.358
-4.9505,-3.0976,-2.1122,-5.8537,-7.7939,-5.2504,-2.0101,-1.0509,-5.0921,-5.8537,-7.7939,-3.9024,-19.841999,-19.639,-11.055,-11.0,-7.0707,-8.0265,-10.744,-18.587999,-20.358
-1.9802,-2.0875,-1.1221,-5.8537,-8.7601,-4.2142,-3.0151,-1.0509,-8.1072,-5.8537,-8.7601,-3.9024,-17.945999,-17.667999,-9.0452,-10.0,-6.0606,-4.0464,-9.7735,-16.617001,-18.407
-1.9802,-3.0976,-1.1221,-5.8537,-8.7601,-4.2142,-4.0201,-1.0509,-6.0972,-5.8537,-8.7601,-5.8537,-17.945999,-16.683001,-8.0402,-10.0,-6.0606,-1.0614,-8.8026,-13.662,-18.407
-3.9604,-6.1279,-6.0726,-7.8049,-7.7939,-7.323,-6.0302,-4.0066,-5.0921,-7.8049,-7.7939,-7.8049,-19.841999,-19.639,-12.06,-15.0,-12.121,-4.0464,-11.715,-13.662,-19.382
-5.9406,-7.138,-7.0627,-7.8049,-7.7939,-7.323,-6.0302,-3.0213,-8.1072,-7.8049,-7.7939,-8.7805,-20.790001,-21.608999,-14.07,-17.0,-15.152,-5.0415,-10.744,-13.662,-19.382
-5.9406,-7.138,-6.0726,-3.9024,-3.9291,-5.2504,-3.0151,-2.0361,-6.0972,-3.9024,-3.9291,-4.878,-22.686001,-25.549999,-16.08,-19.0,-17.172001,-5.0415,-12.686,-14.647,-22.309
-7.9208,-7.138,-8.0528,-1.9512,-1.9968,-4.2142,-1.005,-2.0361,-5.0921,-1.9512,-1.9968,-3.9024,-24.580999,-26.535,-16.08,-21.0,-18.181999,-7.0315,-14.628,-15.632,-24.26
-10.891,-11.178,-12.013,-3.9024,-2.963,-7.323,-3.0151,-4.9918,-4.0871,-3.9024,-2.963,-5.8537,-25.528999,-27.521,-19.094999,-23.0,-20.202,-11.012,-15.599,-19.573,-26.211
-12.871,-12.189,-14.983,-6.8293,-5.8615,-9.3955,-6.0302,-5.977,-8.1072,-6.8293,-5.8615,-9.7561,-25.528999,-26.535,-19.094999,-23.0,-20.202,-13.002,-14.628,-21.544001,-25.236
-13.861,-12.189,-17.954,-5.8537,-5.8615,-11.468,-8.0402,-6.9622,-10.117,-5.8537,-5.8615,-10.732,-25.528999,-26.535,-21.106001,-23.0,-21.212,-13.002,-14.628,-22.528999,-24.26
-14.851,-11.178,-15.974,-4.878,-3.9291,-10.432,-6.0302,-6.9622,-5.0921,-4.878,-3.9291,-9.7561,-25.528999,-25.549999,-21.106001,-22.0,-21.212,-14.992,-13.657,-22.528999,-24.26
-8.9109,-10.168,-12.013,-0.97561,-2.963,-6.2867,-4.0201,-1.0509,-7.1022,-0.97561,-2.963,-5.8537,-22.686001,-24.565001,-17.084999,-20.0,-18.181999,-8.0265,-12.686,-17.603001,-22.309
-3.9604,-6.1279,-6.0726,0.0,-1.0306,-1.1054,-1.005,2.89,-4.0871,0.0,-1.0306,-0.97561,-16.051001,-18.653999,-10.05,-16.0,-13.131,-1.0614,-10.744,-9.7209,-18.407
0.0,-4.1077,-4.0924,2.9268,1.868,-0.06909,1.005,4.8604,0.93802,2.9268,1.868,0.97561,-12.259,-13.727,-7.0352,-13.0,-10.101,-0.06634,-8.8026,-6.7652,-13.528
0.0,-4.1077,-4.0924,0.0,-0.06441,-1.1054,1.005,4.8604,0.93802,0.0,-0.06441,-0.97561,-10.363,-11.757,-6.0302,-12.0,-10.101,2.9187,-7.8317,-5.78,-12.553
-4.9505,-10.168,-9.0429,-1.9512,-2.963,-5.2504,-2.0101,0.91954,-5.0921,-1.9512,-2.963,-3.9024,-16.997999,-18.653999,-12.06,-18.0,-16.162001,-1.0614,-13.657,-10.706,-19.382
-10.891,-15.219,-13.003,-3.9024,-3.9291,-8.3592,-6.0302,-2.0361,-8.1072,-3.9024,-3.9291,-6.8293,-22.686001,-24.565001,-18.09,-22.0,-21.212,-6.0365,-14.628,-17.603001,-22.309
-14.851,-18.249001,-15.974,-5.8537,-8.7601,-11.468,-13.065,-3.0213,-16.146999,-5.8537,-8.7601,-11.707,-28.372999,-28.506001,-23.115999,-25.0,-25.253,-10.017,-14.628,-21.544001,-25.236
-16.832001,-20.268999,-19.934,-6.8293,-9.7262,-13.541,-15.075,-4.9918,-14.137,-6.8293,-9.7262,-14.634,-32.164001,-30.476,-27.136,-27.0,-29.292999,-13.002,-16.57,-26.469999,-27.187
-17.822001,-20.268999,-21.914,-6.8293,-7.7939,-12.504,-14.07,-4.0066,-7.1022,-6.8293,-7.7939,-15.61,-31.216,-29.490999,-27.136,-27.0,-29.292999,-12.007,-18.511,-26.469999,-27.187
-20.792,-21.278999,-24.884001,-6.8293,-7.7939,-13.541,-15.075,-6.9622,-10.117,-6.8293,-7.7939,-15.61,-31.216,-29.490999,-31.156,-28.0,-31.313,-16.982,-17.540001,-28.440001,-25.236
-23.761999,-20.268999,-25.875,-6.8293,-7.7939,-14.577,-14.07,-5.977,-13.132,-6.8293,-7.7939,-16.584999,-31.216,-29.490999,-32.160999,-29.0,-32.323002,-16.982,-31.132999,-28.440001,-26.211
-22.771999,-22.290001,-25.875,-5.8537,-9.7262,-14.577,-15.075,-6.9622,-15.142,-5.8537,-9.7262,-17.561001,-32.164001,-30.476,-32.160999,-30.0,-32.323002,-15.987,-32.104,-29.424999,-29.138
-17.822001,-19.259001,-22.903999,-4.878,-6.8277,-11.468,-12.06,-6.9622,-11.122,-4.878,-6.8277,-15.61,-28.372999,-27.521,-27.136,-29.0,-28.283001,-13.002,-9.7735,-23.514,-25.236
-15.842,-18.249001,-21.914,-5.8537,-5.8615,-11.468,-12.06,-6.9622,-9.1122,-5.8537,-5.8615,-15.61,-26.476999,-26.535,-25.125999,-29.0,-27.273001,-12.007,-4.9191,-21.544001,-24.26
-11.881,-15.219,-17.954,-5.8537,-8.7601,-9.3955,-11.055,-4.9918,-8.1072,-5.8537,-8.7601,-13.659,-22.686001,-22.594,-19.094999,-24.0,-22.222,-10.017,-13.657,-17.603001,-21.333
-7.9208,-12.189,-13.003,-2.9268,-4.8953,-7.323,-8.0402,-4.0066,-7.1022,-2.9268,-4.8953,-9.7561,-18.893999,-19.639,-16.08,-21.0,-18.181999,-9.0216,-14.628,-15.632,-21.333
-9.901,-12.189,-12.013,-3.9024,-2.963,-8.3592,-5.0251,-4.9918,-5.0921,-3.9024,-2.963,-8.7805,-19.841999,-21.608999,-16.08,-21.0,-19.191999,-11.012,-16.57,-15.632,-23.285
-11.881,-13.199,-13.003,-5.8537,-4.8953,-10.432,-4.0201,-7.9475,-2.0771,-5.8537,-4.8953,-8.7805,-20.790001,-21.608999,-19.094999,-22.0,-22.222,-12.007,-12.686,-16.617001,-20.358
-11.881,-14.209,-14.983,-3.9024,-3.9291,-8.3592,-4.0201,-5.977,-4.0871,-3.9024,-3.9291,-8.7805,-21.738001,-21.608999,-21.106001,-23.0,-25.253,-10.017,-13.657,-15.632,-19.382
-14.851,-16.229,-15.974,-1.9512,-1.9968,-7.323,-4.0201,-3.0213,-6.0972,-1.9512,-1.9968,-7.8049,-26.476999,-25.549999,-26.131001,-27.0,-30.302999,-14.992,-14.628,-19.573,-22.309
-15.842,-14.209,-14.983,-2.9268,-1.0306,-7.323,-1.005,-4.0066,-6.0972,-2.9268,-1.0306,-6.8293,-27.424999,-26.535,-27.136,-28.0,-30.302999,-14.992,-13.657,-20.558001,-23.285
-15.842,-13.199,-14.983,-3.9024,-1.0306,-9.3955,-1.005,-4.9918,-8.1072,-3.9024,-1.0306,-7.8049,-25.528999,-25.549999,-23.115999,-25.0,-27.273001,-10.017,-10.744,-19.573,-22.309
-12.871,-11.178,-14.983,-2.9268,0.90177,-9.3955,-1.005,-4.0066,-2.0771,-2.9268,0.90177,-8.7805,-21.738001,-21.608999,-18.09,-20.0,-21.212,-8.0265,-10.744,-17.603001,-18.407
-11.881,-11.178,-13.993,-1.9512,0.90177,-9.3955,-4.0201,-4.0066,2.9481,-1.9512,0.90177,-8.7805,-19.841999,-18.653999,-16.08,-18.0,-18.181999,-9.0216,-10.744,-15.632,-16.455
-10.891,-12.189,-13.993,-2.9268,-0.06441,-10.432,-4.0201,-5.977,-2.0771,-2.9268,-0.06441,-8.7805,-16.997999,-17.667999,-14.07,-17.0,-17.172001,-8.0265,-11.715,-13.662,-15.48
-8.9109,-10.168,-12.013,-4.878,-0.06441,-10.432,-5.0251,-5.977,-2.0771,-4.878,-0.06441,-9.7561,-12.259,-13.727,-9.0452,-16.0,-14.141,-6.0365,-9.7735,-7.7504,-13.528
-7.9208,-12.189,-13.003,-2.9268,-0.06441,-10.432,-6.0302,-4.9918,-3.0821,-2.9268,-0.06441,-9.7561,-12.259,-15.698,-10.05,-18.0,-15.152,-5.0415,-11.715,-7.7504,-15.48
-9.901,-17.239,-15.974,-2.9268,-2.963,-11.468,-9.0452,-3.0213,-6.0972,-2.9268,-2.963,-11.707,-15.103,-18.653999,-12.06,-22.0,-18.181999,-4.0464,-14.628,-8.7356,-19.382
-9.901,-16.229,-14.983,-0.97561,-1.0306,-9.3955,-8.0402,-2.0361,-6.0972,-0.97561,-1.0306,-8.7805,-15.103,-16.683001,-14.07,-21.0,-19.191999,-2.0564,-10.744,-8.7356,-17.431
-11.881,-14.209,-13.993,-0.97561,1.868,-7.323,-7.0352,-2.0361,-3.0821,-0.97561,1.868,-6.8293,-16.997999,-18.653999,-16.08,-21.0,-20.202,-4.0464,-10.744,-9.7209,-18.407
-11.881,-15.219,-13.993,0.0,0.90177,-5.2504,-7.0352,-0.06568,-3.0821,0.0,0.90177,-4.878,-16.051001,-19.639,-17.084999,-22.0,-21.212,-5.0415,-10.744,-9.7209,-18.407
-11.881,-13.199,-12.013,0.97561,-1.0306,-5.2504,-8.0402,-0.06568,-2.0771,0.97561,-1.0306,-5.8537,-13.207,-17.667999,-13.065,-20.0,-18.181999,-5.0415,-8.8026,-5.78,-16.455
-6.9307,-10.168,-8.0528,0.97561,-1.0306,-4.2142,-9.0452,-0.06568,-1.072,0.97561,-1.0306,-4.878,-9.4155,-13.727,-9.0452,-15.0,-13.131,-2.0564,-6.8608,-2.8243,-11.577
-1.9802,-4.1077,-1.1221,2.9268,2.8341,0.96718,-6.0302,1.9048,-1.072,2.9268,2.8341,0.0,-3.7283,-5.8456,-3.0151,-7.0,-6.0606,3.9138,-0.06472,2.1018,-4.748
-1.9802,-2.0875,0.85809,3.9024,2.8341,0.96718,-4.0201,2.89,0.93802,3.9024,2.8341,1.9512,-0.88468,-1.9048,-2.0101,-2.0,-3.0303,1.9237,1.877,2.1018,0.13008
-5.9406,-4.1077,-2.1122,1.9512,3.8003,-3.1779,-5.0251,0.91954,0.93802,1.9512,3.8003,-0.97561,-1.8325,-1.9048,-5.0251,-1.0,-4.0404,-4.0464,0.90615,-0.85386,0.13008
-6.9307,-5.1178,-3.1023,3.9024,5.7327,-4.2142,-5.0251,-1.0509,-2.0771,3.9024,5.7327,-0.97561,-3.7283,-1.9048,-8.0402,-2.0,-5.0505,-5.0415,-17.540001,-3.8095,0.13008
-4.9505,-6.1279,-1.1221,4.878,5.7327,-2.1416,-5.0251,-0.06568,-2.0771,4.878,5.7327,0.97561,-4.6761,-2.89,-7.0352,-3.0,-4.0404,-0.06634,-2.0065,-3.8095,-0.84553
0.0,-4.1077,3.8284,4.878,6.6989,0.96718,-2.0101,2.89,3.9531,4.878,6.6989,3.9024,0.06319,1.0509,-1.005,0.0,2.0202,4.9088,15.469,1.1166,2.0813
2.9703,-3.0976,5.8086,2.9268,4.7665,2.0035,0.0,2.89,1.943,2.9268,4.7665,4.878,3.8547,4.0066,2.0101,3.0,5.0505,4.9088,8.6731,5.0575,4.0325
3.9604,-0.06734,6.7987,2.9268,2.8341,3.0397,0.0,5.8456,4.9581,2.9268,2.8341,3.9024,6.6983,6.9622,6.0302,5.0,7.0707,5.9038,6.7314,7.0279,5.9837
3.9604,-1.0774,4.8185,3.9024,2.8341,4.076,-2.0101,5.8456,1.943,3.9024,2.8341,3.9024,8.594,7.9475,6.0302,6.0,7.0707,1.9237,3.8188,6.0427,7.935
1.9802,-1.0774,2.8383,2.9268,1.868,3.0397,-3.0151,4.8604,2.9481,2.9268,1.868,1.9512,8.594,7.9475,6.0302,5.0,7.0707,3.9138,3.8188,7.0279,6.9593
2.9703,-1.0774,2.8383,2.9268,4.7665,4.076,-1.005,3.8752,6.9682,2.9268,4.7665,3.9024,8.594,6.9622,6.0302,5.0,7.0707,4.9088,4.7896,6.0427,5.0081
0.9901,-0.06734,3.8284,1.9512,4.7665,3.0397,-1.005,2.89,4.9581,1.9512,4.7665,3.9024,6.6983,5.977,5.0251,5.0,6.0606,3.9138,5.7605,6.0427,5.0081
1.9802,-1.0774,3.8284,0.97561,1.868,0.96718,-1.005,0.91954,-0.067,0.97561,1.868,2.9268,5.7504,4.0066,3.0151,4.0,5.0505,1.9237,7.7023,4.0722,5.0081
0.0,-1.0774,1.8482,0.0,-1.9968,-0.06909,-3.0151,0.91954,-1.072,0.0,-1.9968,0.97561,4.8025,4.9918,2.0101,4.0,4.0404,0.92869,4.7896,4.0722,5.9837
1.9802,-3.0976,1.8482,2.9268,0.90177,0.96718,-3.0151,2.89,1.943,2.9268,0.90177,1.9512,4.8025,4.0066,3.0151,3.0,4.0404,1.9237,2.8479,5.0575,2.0813
2.9703,-3.0976,3.8284,2.9268,4.7665,3.0397,-5.0251,3.8752,1.943,2.9268,4.7665,2.9268,4.8025,3.0213,6.0302,2.0,5.0505,3.9138,-0.06472,4.0722,0.13008
0.9901,-4.1077,3.8284,2.9268,3.8003,0.96718,-6.0302,2.89,0.93802,2.9268,3.8003,1.9512,2.9068,0.06568,5.0251,1.0,6.0606,1.9237,-1.0356,2.1018,-0.84553
1.9802,-1.0774,6.7987,3.9024,2.8341,0.96718,-3.0151,1.9048,2.9481,3.9024,2.8341,2.9268,3.8547,1.0509,6.0302,4.0,8.0808,-0.06634,0.90615,1.1166,0.13008
4.9505,1.9529,11.749,6.8293,5.7327,5.1123,3.0151,2.89,8.9782,6.8293,5.7327,8.7805,4.8025,3.0213,8.0402,5.0,9.0909,-0.06634,3.8188,2.1018,2.0813
5.9406,1.9529,11.749,4.878,4.7665,7.1848,5.0251,1.9048,3.9531,4.878,4.7665,10.732,1.9589,0.06568,5.0251,3.0,7.0707,-3.0514,3.8188,-1.8391,0.13008
5.9406,0.94276,10.759,5.8537,4.7665,8.2211,3.0151,4.8604,-0.067,5.8537,4.7665,10.732,1.0111,0.06568,4.0201,2.0,7.0707,0.92869,4.7896,-2.8243,1.1057
8.9109,1.9529,10.759,7.8049,5.7327,11.33,2.0101,6.8309,-0.067,7.8049,5.7327,10.732,2.9068,2.0361,6.0302,4.0,7.0707,4.9088,1.877,0.13136,2.0813
11.881,5.9933,13.729,6.8293,5.7327,13.402,3.0151,8.8013,2.9481,6.8293,5.7327,12.683,9.5419,8.9327,11.055,9.0,11.111,3.9138,4.7896,7.0279,7.935
6.9307,-0.06734,7.7888,6.8293,4.7665,9.2573,-1.005,5.8456,6.9682,6.8293,4.7665,7.8049,4.8025,4.0066,5.0251,4.0,6.0606,1.9237,0.90615,3.087,3.0569
0.0,-7.138,0.85809,5.8537,1.868,4.076,-7.0352,4.8604,2.9481,5.8537,1.868,0.0,-2.7804,-3.8752,-2.0101,-3.0,-1.0101,-1.0614,-19.482,-3.8095,-5.7236
1.9802,-6.1279,2.8383,6.8293,-0.06441,5.1123,-5.0251,4.8604,-0.067,6.8293,-0.06441,1.9512,0.06319,-0.91954,0.0,-2.0,1.0101,-1.0614,-3.9482,-3.8095,-3.7724
2.9703,-2.0875,5.8086,7.8049,3.8003,6.1485,-1.005,4.8604,-0.067,7.8049,3.8003,4.878,3.8547,3.0213,5.0251,2.0,6.0606,1.9237,10.615,1.1166,0.13008
5.9406,-0.06734,6.7987,7.8049,5.7327,6.1485,-1.005,5.8456,-0.067,7.8049,5.7327,6.8293,6.6983,4.9918,6.0302,3.0,8.0808,3.9138,1.877,4.0722,1.1057
6.9307,-1.0774,7.7888,6.8293,5.7327,7.1848,-1.005,5.8456,-1.072,6.8293,5.7327,5.8537,6.6983,4.0066,8.0402,3.0,9.0909,3.9138,1.877,5.0575,-1.8211
7.9208,-1.0774,7.7888,6.8293,3.8003,7.1848,1.005,4.8604,-2.0771,6.8293,3.8003,6.8293,5.7504,3.0213,7.0352,4.0,9.0909,2.9187,-2.9773,5.0575,-1.8211
4.9505,-1.0774,6.7987,6.8293,4.7665,7.1848,1.005,4.8604,-1.072,6.8293,4.7665,6.8293,3.8547,3.0213,5.0251,4.0,7.0707,4.9088,-2.9773,3.087,-1.8211
2.9703,-3.0976,3.8284,5.8537,2.8341,6.1485,-1.005,4.8604,-4.0871,5.8537,2.8341,4.878,-0.88468,0.06568,0.0,1.0,2.0202,3.9138,-4.9191,-1.8391,-2.7967
0.0,-3.0976,1.8482,5.8537,1.868,4.076,0.0,3.8752,-3.0821,5.8537,1.868,3.9024,-3.7283,-1.9048,-3.0151,-1.0,-2.0202,-0.06634,-4.9191,-4.7947,-3.7724
-0.9901,-4.1077,-0.13201,5.8537,1.868,3.0397,-3.0151,-0.06568,-3.0821,5.8537,1.868,2.9268,-2.7804,-2.89,-4.0201,-2.0,-3.0303,-3.0514,-4.9191,-4.7947,-4.748
0.9901,-2.0875,2.8383,5.8537,4.7665,6.1485,-1.005,1.9048,-0.067,5.8537,4.7665,4.878,1.0111,1.0509,0.0,1.0,0.0,-0.06634,-0.06472,-2.8243,-0.84553
2.9703,-1.0774,3.8284,7.8049,6.6989,8.2211,-2.0101,3.8752,-1.072,7.8049,6.6989,4.878,3.8547,4.9918,2.0101,2.0,2.0202,2.9187,0.90615,0.13136,0.13008
1.9802,-1.0774,1.8482,7.8049,5.7327,7.1848,-1.005,4.8604,0.93802,7.8049,5.7327,4.878,6.6983,8.9327,1.005,4.0,2.0202,2.9187,-1.0356,-0.85386,0.13008
0.0,-0.06734,0.85809,5.8537,5.7327,5.1123,2.0101,3.8752,1.943,5.8537,5.7327,4.878,9.5419,12.874,2.0101,7.0,4.0404,-1.0614,0.90615,-0.85386,3.0569
2.9703,1.9529,1.8482,8.7805,6.6989,7.1848,4.0201,6.8309,2.9481,8.7805,6.6989,6.8293,11.438,13.859,3.0151,10.0,7.0707,1.9237,3.8188,0.13136,5.0081
3.9604,2.963,3.8284,7.8049,6.6989,7.1848,3.0151,7.8161,-0.067,7.8049,6.6989,5.8537,12.385,13.859,5.0251,10.0,8.0808,5.9038,5.7605,2.1018,6.9593
0.0,-1.0774,1.8482,5.8537,5.7327,4.076,0.0,4.8604,0.93802,5.8537,5.7327,2.9268,9.5419,9.9179,1.005,6.0,4.0404,-1.0614,2.8479,-2.8243,4.0325
1.9802,-0.06734,3.8284,6.8293,6.6989,5.1123,2.0101,4.8604,1.943,6.8293,6.6989,4.878,9.5419,9.9179,5.0251,5.0,5.0505,2.9187,2.8479,1.1166,5.0081
5.9406,0.94276,5.8086,9.7561,6.6989,8.2211,2.0101,8.8013,0.93802,9.7561,6.6989,6.8293,8.594,6.9622,5.0251,4.0,4.0404,6.8988,1.877,4.0722,5.0081
5.9406,2.963,8.7789,9.7561,5.7327,10.294,3.0151,8.8013,1.943,9.7561,5.7327,8.7805,6.6983,5.977,6.0302,5.0,5.0505,5.9038,3.8188,4.0722,4.0325
7.9208,4.9832,13.729,9.7561,7.6651,11.33,6.0302,5.8456,2.9481,9.7561,7.6651,10.732,7.6461,6.9622,7.0352,8.0,9.0909,4.9088,1.877,3.087,6.9593
6.9307,4.9832,14.719,10.732,10.564,11.33,6.0302,4.8604,0.93802,10.732,10.564,10.732,8.594,8.9327,10.05,9.0,12.121,3.9138,1.877,3.087,7.935
8.9109,5.9933,14.719,11.707,11.53,12.366,9.0452,5.8456,0.93802,11.707,11.53,13.659,8.594,8.9327,11.055,10.0,13.131,2.9187,2.8479,4.0722,7.935
11.881,9.0236,17.690001,12.683,13.462,16.511,12.06,7.8161,2.9481,12.683,13.462,16.584999,9.5419,9.9179,14.07,13.0,16.162001,4.9088,1.877,6.0427,6.9593
15.842,10.034,19.67,15.61,14.428,18.584,12.06,10.772,2.9481,15.61,14.428,18.537001,10.49,8.9327,15.075,13.0,17.172001,7.8939,-14.628,8.0131,6.9593
16.832001,12.054,19.67,16.584999,13.462,21.693001,14.07,12.742,0.93802,16.584999,13.462,19.511999,10.49,8.9327,16.08,14.0,17.172001,8.8889,-5.89,8.9984,6.9593
16.832001,15.084,19.67,15.61,13.462,20.656,17.084999,12.742,5.9631,15.61,13.462,20.488001,12.385,10.903,17.084999,16.0,18.181999,10.879,15.469,9.9836,8.9106
15.842,15.084,17.690001,14.634,14.428,18.584,16.08,10.772,7.9732,14.634,14.428,17.561001,11.438,11.888,15.075,18.0,18.181999,9.8839,19.353001,8.0131,11.837
13.861,14.074,14.719,13.659,12.496,17.547001,14.07,11.757,8.9782,13.659,12.496,15.61,10.49,11.888,14.07,17.0,16.162001,8.8889,11.586,7.0279,11.837
12.871,12.054,12.739,13.659,11.53,17.547001,16.08,8.8013,6.9682,13.659,11.53,17.561001,8.594,7.9475,11.055,13.0,12.121,6.8988,11.586,7.0279,9.8862
9.901,13.064,12.739,11.707,10.564,15.475,16.08,7.8161,3.9531,11.707,10.564,15.61,8.594,7.9475,10.05,12.0,11.111,2.9187,8.6731,6.0427,9.8862
8.9109,11.044,10.759,10.732,10.564,12.366,12.06,6.8309,5.9631,10.732,10.564,12.683,7.6461,6.9622,9.0452,11.0,9.0909,5.9038,6.7314,7.0279,8.9106
8.9109,10.034,11.749,9.7561,10.564,12.366,10.05,6.8309,7.9732,9.7561,10.564,10.732,8.594,6.9622,11.055,11.0,10.101,8.8889,4.7896,8.0131,7.935
12.871,9.0236,14.719,10.732,10.564,14.439,13.065,6.8309,8.9782,10.732,10.564,13.659,8.594,5.977,12.06,10.0,11.111,6.8988,7.7023,8.0131,5.0081
12.871,8.0135,14.719,12.683,11.53,15.475,12.06,7.8161,5.9631,12.683,11.53,14.634,7.6461,4.9918,12.06,7.0,11.111,6.8988,2.8479,8.9984,2.0813
10.891,3.9731,10.759,12.683,10.564,12.366,9.0452,5.8456,3.9531,12.683,10.564,12.683,6.6983,3.0213,9.0452,4.0,8.0808,4.9088,-1.0356,7.0279,2.0813
8.9109,2.963,8.7789,11.707,10.564,11.33,7.0352,6.8309,4.9581,11.707,10.564,10.732,6.6983,4.0066,10.05,4.0,9.0909,4.9088,-1.0356,7.0279,2.0813
6.9307,3.9731,7.7888,11.707,10.564,10.294,9.0452,5.8456,4.9581,11.707,10.564,10.732,5.7504,4.0066,7.0352,5.0,7.0707,2.9187,-0.06472,3.087,3.0569
5.9406,8.0135,8.7789,10.732,8.6312,10.294,10.05,6.8309,4.9581,10.732,8.6312,10.732,5.7504,6.9622,7.0352,8.0,8.0808,2.9187,3.8188,3.087,6.9593
10.891,11.044,10.759,10.732,9.5974,12.366,11.055,8.8013,7.9732,10.732,9.5974,12.683,7.6461,8.9327,9.0452,11.0,9.0909,7.8939,7.7023,6.0427,8.9106
9.901,8.0135,8.7789,8.7805,9.5974,11.33,9.0452,8.8013,0.93802,8.7805,9.5974,9.7561,6.6983,6.9622,9.0452,9.0,9.0909,8.8889,4.7896,6.0427,6.9593
7.9208,7.0034,6.7987,8.7805,9.5974,9.2573,9.0452,7.8161,1.943,8.7805,9.5974,9.7561,6.6983,5.977,9.0452,7.0,9.0909,6.8988,2.8479,6.0427,3.0569
6.9307,7.0034,6.7987,6.8293,7.6651,8.2211,10.05,5.8456,5.9631,6.8293,7.6651,9.7561,6.6983,4.9918,8.0402,7.0,9.0909,4.9088,-16.57,6.0427,2.0813
6.9307,10.034,9.769,8.7805,6.6989,9.2573,13.065,3.8752,5.9631,8.7805,6.6989,10.732,7.6461,5.977,9.0452,8.0,11.111,4.9088,0.90615,6.0427,4.0325
7.9208,11.044,10.759,11.707,10.564,10.294,14.07,5.8456,9.9832,11.707,10.564,12.683,9.5419,7.9475,10.05,10.0,11.111,6.8988,18.382,8.0131,5.9837
6.9307,8.0135,7.7888,8.7805,9.5974,8.2211,11.055,6.8309,5.9631,8.7805,9.5974,8.7805,9.5419,7.9475,10.05,9.0,11.111,7.8939,10.615,8.9984,5.9837
6.9307,8.0135,5.8086,7.8049,8.6312,8.2211,10.05,6.8309,4.9581,7.8049,8.6312,7.8049,8.594,7.9475,9.0452,9.0,9.0909,6.8988,10.615,6.0427,5.9837
6.9307,10.034,7.7888,8.7805,8.6312,10.294,12.06,6.8309,10.988,8.7805,8.6312,9.7561,6.6983,7.9475,8.0402,9.0,9.0909,6.8988,9.644,5.0575,5.9837
5.9406,9.0236,6.7987,9.7561,8.6312,11.33,12.06,6.8309,10.988,9.7561,8.6312,10.732,1.9589,2.0361,3.0151,6.0,5.0505,6.8988,5.7605,1.1166,3.0569
4.9505,9.0236,6.7987,8.7805,8.6312,11.33,14.07,6.8309,11.993,8.7805,8.6312,11.707,-0.88468,0.06568,1.005,3.0,2.0202,2.9187,7.7023,0.13136,3.0569
3.9604,11.044,8.7789,7.8049,8.6312,10.294,15.075,4.8604,9.9832,7.8049,8.6312,12.683,-0.88468,-0.91954,-1.005,3.0,0.0,-2.0564,7.7023,-0.85386,3.0569
0.0,9.0236,5.8086,2.9268,8.6312,5.1123,14.07,0.91954,8.9782,2.9268,8.6312,8.7805,-2.7804,-2.89,-3.0151,0.0,-2.0202,-0.06634,7.7023,-0.85386,0.13008
0.0,7.0034,2.8383,3.9024,8.6312,3.0397,13.065,1.9048,9.9832,3.9024,8.6312,7.8049,-3.7283,-3.8752,-4.0201,-2.0,-4.0404,3.9138,4.7896,-0.85386,-0.84553
0.9901,8.0135,4.8185,6.8293,11.53,7.1848,15.075,2.89,8.9782,6.8293,11.53,9.7561,-1.8325,-0.91954,-2.0101,-1.0,-2.0202,3.9138,6.7314,0.13136,-0.84553
4.9505,8.0135,6.7987,7.8049,10.564,9.2573,14.07,5.8456,10.988,7.8049,10.564,11.707,-0.88468,-1.9048,0.0,-1.0,0.0,4.9088,6.7314,1.1166,0.13008
7.9208,8.0135,8.7789,6.8293,6.6989,11.33,13.065,6.8309,11.993,6.8293,6.6989,10.732,1.9589,0.06568,3.0151,1.0,2.0202,5.9038,7.7023,2.1018,2.0813
7.9208,11.044,9.769,5.8537,6.6989,10.294,13.065,5.8456,11.993,5.8537,6.6989,10.732,2.9068,4.0066,4.0201,6.0,5.0505,4.9088,9.644,2.1018,5.9837
3.9604,10.034,5.8086,3.9024,7.6651,5.1123,7.0352,2.89,7.9732,3.9024,7.6651,5.8537,3.8547,4.9918,3.0151,7.0,4.0404,2.9187,10.615,2.1018,6.9593
1.9802,10.034,3.8284,0.0,5.7327,0.96718,4.0201,1.9048,5.9631,0.0,5.7327,0.97561,4.8025,5.977,4.0201,9.0,5.0505,3.9138,10.615,3.087,8.9106
3.9604,10.034,2.8383,0.0,1.868,-0.06909,4.0201,2.89,7.9732,0.0,1.868,-0.97561,7.6461,7.9475,7.0352,10.0,7.0707,5.9038,9.644,6.0427,10.862
2.9703,8.0135,1.8482,0.0,0.90177,-0.06909,2.0101,4.8604,4.9581,0.0,0.90177,-1.9512,6.6983,6.9622,7.0352,9.0,7.0707,3.9138,8.6731,6.0427,7.935
1.9802,3.9731,-0.13201,1.9512,2.8341,2.0035,3.0151,4.8604,5.9631,1.9512,2.8341,0.0,5.7504,4.9918,4.0201,6.0,5.0505,3.9138,7.7023,5.0575,5.0081
-0.9901,1.9529,-3.1023,0.97561,2.8341,-0.06909,4.0201,2.89,4.9581,0.97561,2.8341,-1.9512,5.7504,4.9918,2.0101,4.0,4.0404,3.9138,3.8188,4.0722,4.0325
-3.9604,-0.06734,-7.0627,-1.9512,-0.06441,-3.1779,2.0101,-1.0509,4.9581,-1.9512,-0.06441,-4.878,3.8547,2.0361,-1.005,1.0,0.0,-0.06634,1.877,2.1018,3.0569
-5.9406,-0.06734,-9.0429,-3.9024,-0.06441,-6.2867,-1.005,-3.0213,5.9631,-3.9024,-0.06441,-7.8049,1.9589,1.0509,-1.005,0.0,-2.0202,-1.0614,0.90615,1.1166,2.0813
-3.9604,1.9529,-6.0726,-0.97561,-1.0306,-5.2504,-2.0101,-1.0509,0.93802,-0.97561,-1.0306,-6.8293,1.9589,3.0213,-1.005,3.0,0.0,-1.0614,1.877,0.13136,5.9837
-1.9802,4.9832,-3.1023,-0.97561,-1.9968,-3.1779,-2.0101,1.9048,2.9481,-0.97561,-1.9968,-4.878,2.9068,5.977,1.005,6.0,3.0303,0.92869,-10.744,0.13136,8.9106
2.9703,5.9933,1.8482,0.0,-1.9968,0.96718,2.0101,1.9048,1.943,0.0,-1.9968,0.0,5.7504,7.9475,4.0201,8.0,7.0707,2.9187,5.7605,3.087,10.862
10.891,11.044,10.759,2.9268,3.8003,10.294,9.0452,5.8456,2.9481,2.9268,3.8003,8.7805,13.333,13.859,13.065,13.0,13.131,8.8889,22.264999,12.939,14.764
6.9307,3.9731,4.8185,3.9024,2.8341,5.1123,3.0151,4.8604,-1.072,3.9024,2.8341,3.9024,8.594,6.9622,7.0352,7.0,7.0707,1.9237,8.6731,8.9984,7.935
-0.9901,-0.06734,-0.13201,0.0,-1.0306,-1.1054,-2.0101,1.9048,-4.0871,0.0,-1.0306,-3.9024,4.8025,4.0066,2.0101,3.0,2.0202,-2.0564,3.8188,5.0575,3.0569
0.0,0.94276,-1.1221,-2.9268,-4.8953,-4.2142,-3.0151,0.91954,-5.0921,-2.9268,-4.8953,-4.878,7.6461,5.977,5.0251,4.0,4.0404,-0.06634,-0.06472,7.0279,4.0325
2.9703,1.9529,1.8482,-1.9512,-5.8615,-3.1779,-4.0201,1.9048,-5.0921,-1.9512,-5.8615,-4.878,9.5419,7.9475,8.0402,6.0,8.0808,1.9237,-1.0356,8.9984,5.0081
4.9505,4.9832,4.8185,-0.97561,-3.9291,-2.1416,-3.0151,2.89,-5.0921,-0.97561,-3.9291,-2.9268,11.438,10.903,11.055,8.0,11.111,4.9088,2.8479,9.9836,8.9106
6.9307,5.9933,5.8086,-0.97561,-2.963,-0.06909,-1.005,3.8752,-6.0972,-0.97561,-2.963,-1.9512,12.385,10.903,11.055,8.0,11.111,6.8988,6.7314,11.954,8.9106
6.9307,5.9933,5.8086,-2.9268,-3.9291,0.96718,-1.005,2.89,-6.0972,-2.9268,-3.9291,-0.97561,11.438,8.9327,10.05,7.0,9.0909,6.8988,5.7605,10.969,7.935
4.9505,5.9933,5.8086,-4.878,-3.9291,-0.06909,-1.005,1.9048,-1.072,-4.878,-3.9291,-0.97561,10.49,9.9179,8.0402,8.0,9.0909,5.9038,4.7896,8.9984,8.9106
0.9901,4.9832,1.8482,-5.8537,-3.9291,-3.1779,-4.0201,0.91954,-1.072,-5.8537,-3.9291,-3.9024,8.594,7.9475,7.0352,8.0,7.0707,3.9138,4.7896,8.0131,9.8862
0.0,0.94276,-1.1221,-3.9024,-2.963,-5.2504,-5.0251,-0.06568,-1.072,-3.9024,-2.963,-4.878,6.6983,4.9918,4.0201,4.0,3.0303,3.9138,0.90615,6.0427,6.9593
-0.9901,0.94276,-0.13201,-2.9268,-2.963,-4.2142,-2.0101,0.91954,-1.072,-2.9268,-2.963,-3.9024,5.7504,6.9622,4.0201,4.0,2.0202,1.9237,1.877,6.0427,6.9593
2.9703,5.9933,3.8284,-0.97561,1.868,-0.06909,4.0201,2.89,0.93802,-0.97561,1.868,0.0,9.5419,9.9179,6.0302,8.0,6.0606,3.9138,4.7896,8.0131,11.837
1.9802,3.9731,2.8383,-2.9268,-0.06441,-0.06909,0.0,3.8752,-0.067,-2.9268,-0.06441,-2.9268,9.5419,11.888,7.0352,8.0,6.0606,5.9038,5.7605,8.0131,8.9106
-0.9901,-2.0875,-3.1023,-2.9268,-4.8953,-4.2142,-7.0352,1.9048,-4.0871,-2.9268,-4.8953,-7.8049,7.6461,8.9327,1.005,4.0,1.0101,2.9187,-2.0065,3.087,4.0325
-4.9505,-4.1077,-5.0825,-4.878,-7.7939,-8.3592,-10.05,-0.06568,-7.1022,-4.878,-7.7939,-10.732,6.6983,9.9179,-2.0101,2.0,0.0,-1.0614,-4.9191,-0.85386,3.0569
-7.9208,-5.1178,-9.0429,-7.8049,-7.7939,-12.504,-12.06,-2.0361,-7.1022,-7.8049,-7.7939,-14.634,7.6461,11.888,-4.0201,4.0,0.0,-3.0514,-4.9191,-2.8243,5.0081
-6.9307,-2.0875,-8.0528,-8.7805,-7.7939,-11.468,-11.055,-2.0361,-5.0921,-8.7805,-7.7939,-14.634,13.333,18.785,1.005,10.0,5.0505,-2.0564,-2.0065,0.13136,10.862
-6.9307,-3.0976,-9.0429,-7.8049,-8.7601,-12.504,-13.065,-2.0361,-6.0972,-7.8049,-8.7601,-14.634,13.333,19.77,0.0,12.0,6.0606,-4.0464,-1.0356,0.13136,11.837
-7.9208,-4.1077,-12.013,-8.7805,-10.692,-13.541,-15.075,-2.0361,-8.1072,-8.7805,-10.692,-17.561001,11.438,17.799999,1.005,11.0,6.0606,-1.0614,-3.9482,0.13136,10.862
-4.9505,-3.0976,-11.023,-6.8293,-8.7601,-11.468,-15.075,0.91954,-8.1072,-6.8293,-8.7601,-15.61,11.438,15.829,4.0201,11.0,6.0606,3.9138,-23.365999,3.087,10.862
1.9802,1.9529,-5.0825,-3.9024,-4.8953,-5.2504,-12.06,3.8752,-8.1072,-3.9024,-4.8953,-10.732,15.229,16.813999,10.05,13.0,9.0909,6.8988,-2.0065,10.969,13.789
7.9208,4.9832,0.85809,-1.9512,-4.8953,-0.06909,-8.0402,5.8456,-10.117,-1.9512,-4.8953,-4.878,19.968,19.77,16.08,16.0,13.131,11.874,16.440001,18.851,16.715
12.871,7.0034,3.8284,0.97561,-4.8953,4.076,-3.0151,8.8013,-6.0972,0.97561,-4.8953,-0.97561,23.76,21.740999,19.094999,17.0,15.152,15.854,11.586,23.777,16.715
13.861,10.034,5.8086,2.9268,0.90177,5.1123,2.0101,12.742,0.93802,2.9268,0.90177,0.0,26.603001,22.726,23.115999,19.0,17.172001,19.834,10.615,27.718,18.667
11.881,8.0135,2.8383,2.9268,-0.06441,3.0397,0.0,10.772,-3.0821,2.9268,-0.06441,-1.9512,23.76,19.77,20.101,17.0,16.162001,15.854,7.7023,24.761999,16.715
11.881,8.0135,4.8185,1.9512,-2.963,4.076,-1.005,10.772,-7.1022,1.9512,-2.963,-0.97561,19.968,16.813999,19.094999,15.0,15.152,15.854,5.7605,21.806,16.715
12.871,9.0236,6.7987,2.9268,-2.963,7.1848,2.0101,10.772,-5.0921,2.9268,-2.963,2.9268,14.281,13.859,15.075,14.0,13.131,15.854,3.8188,16.879999,15.74
11.881,12.054,9.769,5.8537,2.8341,10.294,7.0352,12.742,1.943,5.8537,2.8341,6.8293,12.385,13.859,14.07,16.0,13.131,12.869,6.7314,13.924,15.74
11.881,12.054,9.769,8.7805,6.6989,11.33,10.05,11.757,2.9481,8.7805,6.6989,8.7805,10.49,10.903,11.055,15.0,12.121,10.879,7.7023,10.969,12.813
12.871,14.074,11.749,8.7805,8.6312,11.33,12.06,10.772,3.9531,8.7805,8.6312,9.7561,10.49,11.888,13.065,16.0,14.141,10.879,6.7314,9.9836,11.837
10.891,12.054,8.7789,7.8049,6.6989,8.2211,11.055,7.8161,-1.072,7.8049,6.6989,7.8049,8.594,9.9179,11.055,14.0,12.121,10.879,3.8188,8.0131,10.862
9.901,10.034,6.7987,6.8293,2.8341,7.1848,9.0452,7.8161,-1.072,6.8293,2.8341,5.8537,7.6461,7.9475,10.05,11.0,10.101,10.879,0.90615,8.9984,6.9593
11.881,9.0236,6.7987,6.8293,3.8003,7.1848,7.0352,9.7865,-0.067,6.8293,3.8003,4.878,8.594,7.9475,11.055,11.0,10.101,11.874,-0.06472,10.969,8.9106
12.871,9.0236,6.7987,7.8049,4.7665,7.1848,6.0302,10.772,-0.067,7.8049,4.7665,3.9024,11.438,11.888,15.075,13.0,12.121,12.869,3.8188,13.924,12.813
11.881,9.0236,4.8185,7.8049,2.8341,5.1123,7.0352,8.8013,1.943,7.8049,2.8341,3.9024,11.438,10.903,14.07,13.0,11.111,11.874,5.7605,13.924,13.789
9.901,11.044,4.8185,4.878,1.868,4.076,9.0452,8.8013,2.9481,4.878,1.868,2.9268,9.5419,8.9327,11.055,11.0,9.0909,11.874,5.7605,11.954,11.837
8.9109,11.044,3.8284,2.9268,2.8341,4.076,9.0452,8.8013,3.9531,2.9268,2.8341,3.9024,8.594,9.9179,8.0402,11.0,7.0707,11.874,6.7314,10.969,12.813
10.891,12.054,4.8185,4.878,4.7665,6.1485,10.05,10.772,5.9631,4.878,4.7665,5.8537,9.5419,12.874,9.0452,13.0,8.0808,11.874,8.6731,9.9836,14.764
10.891,14.074,5.8086,5.8537,4.7665,7.1848,9.0452,11.757,1.943,5.8537,4.7665,5.8537,12.385,14.844,11.055,16.0,11.111,10.879,11.586,10.969,17.691
9.901,13.064,3.8284,4.878,1.868,6.1485,5.0251,10.772,0.93802,4.878,1.868,3.9024,12.385,14.844,11.055,16.0,10.101,13.864,12.557,11.954,18.667
11.881,13.064,4.8185,4.878,1.868,8.2211,6.0302,13.727,3.9531,4.878,1.868,5.8537,14.281,17.799999,13.065,16.0,11.111,15.854,13.528,15.895,21.593
9.901,11.044,2.8383,5.8537,1.868,7.1848,7.0352,12.742,2.9481,5.8537,1.868,5.8537,12.385,12.874,10.05,12.0,8.0808,10.879,9.644,12.939,16.715
12.871,12.054,6.7987,5.8537,1.868,9.2573,7.0352,13.727,1.943,5.8537,1.868,6.8293,13.333,14.844,13.065,12.0,10.101,15.854,-7.8317,15.895,15.74
14.851,9.0236,6.7987,7.8049,2.8341,11.33,4.0201,15.698,-1.072,7.8049,2.8341,6.8293,13.333,12.874,14.07,11.0,11.111,19.834,5.7605,16.879999,13.789
12.871,7.0034,4.8185,9.7561,3.8003,11.33,2.0101,18.653999,-0.067,9.7561,3.8003,4.878,13.333,11.888,14.07,10.0,10.101,18.839001,18.382,17.865,12.813
10.891,7.0034,3.8284,8.7805,4.7665,10.294,3.0151,15.698,-3.0821,8.7805,4.7665,4.878,13.333,10.903,13.065,10.0,10.101,16.849001,10.615,15.895,13.789
9.901,11.044,6.7987,7.8049,4.7665,11.33,5.0251,15.698,1.943,7.8049,4.7665,6.8293,13.333,12.874,13.065,12.0,12.121,13.864,11.586,14.91,12.813
14.851,14.074,10.759,10.732,4.7665,13.402,8.0402,16.683001,5.9631,10.732,4.7665,9.7561,14.281,13.859,15.075,15.0,15.152,15.854,7.7023,15.895,14.764
13.861,10.034,9.769,9.7561,4.7665,12.366,5.0251,17.667999,0.93802,9.7561,4.7665,7.8049,13.333,13.859,14.07,14.0,15.152,13.864,3.8188,14.91,12.813
15.842,8.0135,9.769,8.7805,6.6989,12.366,5.0251,17.667999,3.9531,8.7805,6.6989,7.8049,13.333,12.874,13.065,13.0,14.141,15.854,4.7896,15.895,11.837
14.851,9.0236,9.769,9.7561,6.6989,14.439,5.0251,17.667999,6.9682,9.7561,6.6989,9.7561,13.333,13.859,14.07,12.0,13.131,17.844,8.6731,16.879999,11.837
10.891,5.9933,6.7987,7.8049,1.868,11.33,1.005,14.713,3.9531,7.8049,1.868,7.8049,12.385,10.903,11.055,9.0,9.0909,14.859,6.7314,14.91,10.862
10.891,4.9832,5.8086,6.8293,1.868,10.294,-1.005,13.727,1.943,6.8293,1.868,5.8537,15.229,13.859,12.06,9.0,9.0909,15.854,8.6731,16.879999,12.813
8.9109,2.963,2.8383,5.8537,4.7665,7.1848,-3.0151,11.757,1.943,5.8537,4.7665,3.9024,13.333,12.874,9.0452,9.0,8.0808,12.869,7.7023,15.895,12.813
7.9208,3.9731,2.8383,4.878,4.7665,7.1848,-1.005,13.727,4.9581,4.878,4.7665,3.9024,14.281,13.859,8.0402,10.0,7.0707,11.874,8.6731,15.895,15.74
12.871,10.034,8.7789,9.7561,6.6989,13.402,6.0302,19.639,10.988,9.7561,6.6989,10.732,20.916,20.754999,15.075,16.0,14.141,14.859,13.528,21.806,21.593
6.9307,2.963,3.8284,10.732,6.6989,9.2573,1.005,12.742,6.9682,10.732,6.6989,7.8049,13.333,12.874,8.0402,11.0,9.0909,6.8988,6.7314,12.939,13.789
5.9406,1.9529,4.8185,11.707,8.6312,10.294,2.0101,11.757,3.9531,11.707,8.6312,7.8049,10.49,11.888,8.0402,10.0,9.0909,8.8889,5.7605,10.969,9.8862
10.891,5.9933,7.7888,12.683,11.53,13.402,7.0352,12.742,6.9682,12.683,11.53,12.683,14.281,12.874,10.05,12.0,11.111,12.869,6.7314,13.924,11.837
8.9109,7.0034,7.7888,8.7805,9.5974,11.33,7.0352,12.742,9.9832,8.7805,9.5974,10.732,15.229,14.844,11.055,13.0,12.121,11.874,7.7023,15.895,13.789
8.9109,7.0034,6.7987,7.8049,6.6989,9.2573,5.0251,10.772,7.9732,7.8049,6.6989,8.7805,17.125,16.813999,10.05,14.0,12.121,11.874,-7.8317,15.895,15.74
7.9208,7.0034,6.7987,7.8049,6.6989,8.2211,3.0151,10.772,6.9682,7.8049,6.6989,7.8049,18.073,16.813999,12.06,13.0,13.131,8.8889,1.877,16.879999,14.764
6.9307,2.963,5.8086,7.8049,6.6989,7.1848,-2.0101,9.7865,1.943,7.8049,6.6989,5.8537,16.177,14.844,10.05,10.0,11.111,8.8889,17.410999,15.895,13.789
3.9604,-1.0774,2.8383,3.9024,1.868,4.076,-5.0251,7.8161,-0.067,3.9024,1.868,0.97561,12.385,12.874,8.0402,7.0,9.0909,7.8939,13.528,12.939,11.837
3.9604,-0.06734,2.8383,2.9268,-0.06441,0.96718,-4.0201,3.8752,-3.0821,2.9268,-0.06441,0.0,12.385,13.859,8.0402,9.0,10.101,7.8939,9.644,12.939,14.764
5.9406,2.963,7.7888,3.9024,4.7665,2.0035,-2.0101,2.89,2.9481,3.9024,4.7665,3.9024,15.229,17.799999,11.055,13.0,12.121,7.8939,12.557,15.895,17.691
6.9307,1.9529,8.7789,3.9024,4.7665,3.0397,-5.0251,2.89,6.9682,3.9024,4.7665,4.878,15.229,16.813999,10.05,11.0,11.111,7.8939,7.7023,14.91,15.74
6.9307,0.94276,8.7789,1.9512,-0.06441,4.076,-5.0251,4.8604,4.9581,1.9512,-0.06441,2.9268,15.229,16.813999,10.05,11.0,11.111,7.8939,5.7605,13.924,14.764
9.901,2.963,10.759,2.9268,-0.06441,6.1485,-2.0101,5.8456,-3.0821,2.9268,-0.06441,5.8537,18.073,19.77,13.065,13.0,14.141,7.8939,5.7605,14.91,15.74
12.871,7.0034,13.729,4.878,4.7665,9.2573,4.0201,5.8456,1.943,4.878,4.7665,8.7805,20.916,23.711,16.08,17.0,20.202,8.8889,9.644,13.924,16.715
9.901,8.0135,13.729,2.9268,7.6651,7.1848,5.0251,2.89,10.988,2.9268,7.6651,9.7561,21.864,25.681,15.075,20.0,22.222,5.9038,6.7314,10.969,16.715
5.9406,7.0034,10.759,2.9268,6.6989,5.1123,4.0201,0.91954,10.988,2.9268,6.6989,7.8049,20.916,24.695999,11.055,19.0,19.191999,1.9237,6.7314,8.0131,15.74
2.9703,5.9933,8.7789,1.9512,5.7327,5.1123,3.0151,1.9048,9.9832,1.9512,5.7327,5.8537,18.073,22.726,8.0402,16.0,14.141,-0.06634,9.644,8.0131,15.74
0.9901,-1.0774,2.8383,1.9512,3.8003,3.0397,-3.0151,0.91954,5.9631,1.9512,3.8003,3.9024,13.333,16.813999,3.0151,9.0,7.0707,-2.0564,7.7023,5.0575,12.813
0.0,-2.0875,0.85809,0.97561,2.8341,3.0397,-5.0251,0.91954,2.9481,0.97561,2.8341,2.9268,10.49,14.844,1.005,6.0,2.0202,0.92869,7.7023,6.0427,12.813
0.0,-2.0875,-0.13201,0.0,1.868,3.0397,-2.0101,1.9048,4.9581,0.0,1.868,4.878,7.6461,10.903,-1.005,3.0,-2.0202,-1.0614,8.6731,4.0722,12.813
-0.9901,-0.06734,0.85809,0.0,2.8341,5.1123,1.005,1.9048,3.9531,0.0,2.8341,6.8293,6.6983,7.9475,-1.005,1.0,-3.0303,-3.0514,8.6731,4.0722,11.837
2.9703,2.963,4.8185,2.9268,6.6989,8.2211,4.0201,2.89,6.9682,2.9268,6.6989,10.732,7.6461,7.9475,1.005,3.0,0.0,1.9237,11.586,7.0279,11.837
5.9406,4.9832,7.7888,4.878,5.7327,9.2573,2.0101,4.8604,6.9682,4.878,5.7327,10.732,8.594,9.9179,5.0251,6.0,5.0505,6.8988,12.557,9.9836,12.813
4.9505,2.963,6.7987,3.9024,2.8341,7.1848,0.0,4.8604,8.9782,3.9024,2.8341,6.8293,7.6461,8.9327,4.0201,6.0,6.0606,5.9038,9.644,7.0279,10.862
3.9604,2.963,5.8086,3.9024,4.7665,6.1485,1.005,4.8604,7.9732,3.9024,4.7665,5.8537,6.6983,7.9475,5.0251,5.0,7.0707,5.9038,-6.8608,7.0279,8.9106
2.9703,1.9529,3.8284,4.878,5.7327,4.076,2.0101,3.8752,8.9782,4.878,5.7327,5.8537,4.8025,4.9918,2.0101,2.0,3.0303,3.9138,7.7023,4.0722,6.9593
0.9901,1.9529,2.8383,2.9268,5.7327,0.96718,1.005,0.91954,9.9832,2.9268,5.7327,2.9268,3.8547,4.9918,1.005,3.0,2.0202,2.9187,22.264999,5.0575,7.935
3.9604,3.9731,4.8185,2.9268,3.8003,3.0397,2.0101,2.89,6.9682,2.9268,3.8003,2.9268,5.7504,6.9622,4.0201,6.0,5.0505,4.9088,15.469,7.0279,8.9106
4.9505,2.963,4.8185,5.8537,4.7665,5.1123,5.0251,4.8604,2.9481,5.8537,4.7665,5.8537,6.6983,6.9622,5.0251,6.0,5.0505,5.9038,16.440001,8.9984,9.8862
3.9604,1.9529,4.8185,4.878,4.7665,4.076,4.0201,4.8604,4.9581,4.878,4.7665,4.878,7.6461,6.9622,5.0251,6.0,5.0505,6.8988,10.615,9.9836,10.862
3.9604,2.963,5.8086,2.9268,4.7665,3.0397,1.005,3.8752,7.9732,2.9268,4.7665,3.9024,8.594,8.9327,6.0302,6.0,6.0606,6.8988,12.557,11.954,10.862
4.9505,1.9529,4.8185,1.9512,3.8003,3.0397,1.005,3.8752,10.988,1.9512,3.8003,3.9024,5.7504,4.9918,5.0251,2.0,4.0404,7.8939,-8.8026,9.9836,6.9593
3.9604,-0.06734,2.8383,2.9268,2.8341,4.076,2.0101,4.8604,4.9581,2.9268,2.8341,3.9024,1.0111,-1.9048,0.0,-4.0,-1.0101,6.8988,-7.8317,5.0575,0.13008
3.9604,0.94276,4.8185,1.9512,4.7665,6.1485,3.0151,5.8456,3.9531,1.9512,4.7665,4.878,-0.88468,-2.89,0.0,-5.0,-2.0202,6.8988,18.382,5.0575,0.13008
3.9604,0.94276,3.8284,1.9512,4.7665,5.1123,4.0201,4.8604,5.9631,1.9512,4.7665,4.878,0.06319,-0.91954,0.0,-4.0,-2.0202,6.8988,23.236,5.0575,3.0569
0.9901,1.9529,0.85809,0.97561,4.7665,3.0397,2.0101,3.8752,8.9782,0.97561,4.7665,1.9512,2.9068,3.0213,1.005,-1.0,0.0,4.9088,11.586,5.0575,5.0081
0.9901,0.94276,-0.13201,0.97561,1.868,0.96718,-1.005,0.91954,6.9682,0.97561,1.868,0.97561,4.8025,4.9918,2.0101,2.0,1.0101,1.9237,13.528,5.0575,7.935
3.9604,-0.06734,2.8383,1.9512,3.8003,4.076,-1.005,1.9048,4.9581,1.9512,3.8003,1.9512,6.6983,5.977,5.0251,4.0,4.0404,2.9187,6.7314,8.0131,8.9106
3.9604,-1.0774,2.8383,2.9268,5.7327,4.076,-1.005,1.9048,0.93802,2.9268,5.7327,1.9512,6.6983,5.977,4.0201,2.0,3.0303,0.92869,4.7896,8.0131,6.9593
1.9802,-3.0976,2.8383,0.0,2.8341,2.0035,-1.005,1.9048,0.93802,0.0,2.8341,0.0,5.7504,3.0213,3.0151,0.0,2.0202,3.9138,-2.0065,8.0131,2.0813
6.9307,-1.0774,5.8086,0.97561,2.8341,4.076,1.005,4.8604,3.9531,0.97561,2.8341,2.9268,7.6461,4.0066,6.0302,1.0,4.0404,9.8839,-27.249001,9.9836,3.0569
8.9109,2.963,8.7789,2.9268,4.7665,7.1848,3.0151,4.8604,2.9481,2.9268,4.7665,5.8537,8.594,5.977,8.0402,3.0,7.0707,6.8988,-3.9482,11.954,6.9593
9.901,3.9731,10.759,4.878,6.6989,8.2211,7.0352,3.8752,1.943,4.878,6.6989,8.7805,9.5419,6.9622,9.0452,4.0,8.0808,7.8939,27.120001,11.954,7.935
7.9208,1.9529,9.769,4.878,8.6312,8.2211,7.0352,1.9048,3.9531,4.878,8.6312,9.7561,6.6983,3.0213,6.0302,1.0,6.0606,7.8939,18.382,10.969,5.0081
5.9406,-0.06734,7.7888,4.878,8.6312,7.1848,6.0302,0.91954,4.9581,4.878,8.6312,7.8049,2.9068,-0.91954,3.0151,-3.0,2.0202,6.8988,7.7023,8.0131,1.1057
7.9208,0.94276,7.7888,5.8537,9.5974,7.1848,6.0302,4.8604,5.9631,5.8537,9.5974,7.8049,1.9589,-0.91954,3.0151,-4.0,0.0,8.8889,6.7314,8.0131,1.1057
5.9406,1.9529,6.7987,5.8537,8.6312,7.1848,6.0302,6.8309,2.9481,5.8537,8.6312,7.8049,0.06319,-0.91954,1.005,-4.0,-1.0101,6.8988,5.7605,7.0279,0.13008
5.9406,3.9731,6.7987,5.8537,9.5974,10.294,8.0402,6.8309,4.9581,5.8537,9.5974,8.7805,1.0111,0.06568,0.0,-2.0,-1.0101,7.8939,-13.657,6.0427,2.0813
7.9208,5.9933,8.7789,6.8293,6.6989,11.33,9.0452,8.8013,5.9631,6.8293,6.6989,9.7561,2.9068,3.0213,2.0101,2.0,3.0303,8.8889,-0.06472,7.0279,5.0081
10.891,5.9933,8.7789,8.7805,8.6312,10.294,7.0352,6.8309,9.9832,8.7805,8.6312,9.7561,6.6983,5.977,6.0302,5.0,6.0606,8.8889,25.177999,8.9984,7.935
10.891,2.963,7.7888,5.8537,7.6651,7.1848,3.0151,2.89,2.9481,5.8537,7.6651,6.8293,8.594,7.9475,9.0452,6.0,7.0707,8.8889,14.498,11.954,8.9106
10.891,3.9731,7.7888,2.9268,3.8003,6.1485,3.0151,0.91954,-3.0821,2.9268,3.8003,4.878,11.438,8.9327,12.06,7.0,9.0909,9.8839,12.557,13.924,10.862
7.9208,4.9832,6.7987,0.97561,5.7327,2.0035,2.0101,-2.0361,6.9682,0.97561,5.7327,1.9512,12.385,8.9327,13.065,6.0,9.0909,8.8889,14.498,16.879999,10.862
8.9109,9.0236,9.769,-0.97561,6.6989,-0.06909,4.0201,-7.9475,9.9832,-0.97561,6.6989,3.9024,14.281,11.888,14.07,8.0,11.111,7.8939,14.498,18.851,14.764
5.9406,7.0034,6.7987,-1.9512,2.8341,-3.1779,2.0101,-5.977,3.9531,-1.9512,2.8341,0.0,11.438,9.9179,10.05,6.0,7.0707,6.8988,12.557,15.895,13.789
-3.9604,-5.1178,-5.0825,-3.9024,-1.9968,-10.432,-6.0302,-6.9622,-1.072,-3.9024,-1.9968,-7.8049,1.0111,0.06568,-3.0151,-5.0,-5.0505,-0.06634,-2.9773,4.0722,4.0325
-8.9109,-8.1481,-9.0429,-4.878,-2.963,-10.432,-8.0402,-6.9622,-4.0871,-4.878,-2.963,-9.7561,-3.7283,-4.8604,-9.0452,-10.0,-10.101,-6.0365,-26.278,-1.8391,-1.8211
-2.9703,-6.1279,-6.0726,-2.9268,-1.9968,-3.1779,-6.0302,-3.0213,-0.067,-2.9268,-1.9968,-5.8537,-0.88468,-1.9048,-5.0251,-8.0,-6.0606,-0.06634,-0.06472,2.1018,0.13008
0.0,-7.138,-5.0825,-0.97561,-1.9968,0.96718,-7.0352,0.91954,-0.067,-0.97561,-1.9968,-4.878,1.0111,-0.91954,-4.0201,-7.0,-5.0505,3.9138,21.294001,4.0722,1.1057
-1.9802,-9.1582,-9.0429,-2.9268,-7.7939,-1.1054,-8.0402,-0.06568,-18.157,-2.9268,-7.7939,-8.7805,1.0111,1.0509,-6.0302,-8.0,-7.0707,2.9187,-2.0065,4.0722,2.0813
-2.9703,-6.1279,-11.023,-4.878,-7.7939,-3.1779,-3.0151,-1.0509,-14.137,-4.878,-7.7939,-8.7805,0.06319,0.06568,-9.0452,-9.0,-9.0909,2.9187,-22.395,3.087,1.1057
0.9901,0.94276,-5.0825,0.0,4.7665,0.96718,2.0101,1.9048,10.988,0.0,4.7665,-0.97561,0.06319,-0.91954,-6.0302,-7.0,-7.0707,5.9038,5.7605,5.0575,1.1057
4.9505,2.963,-0.13201,3.9024,11.53,4.076,7.0352,3.8752,18.023001,3.9024,11.53,5.8537,2.9068,1.0509,-2.0101,-5.0,-3.0303,5.9038,30.032,8.0131,3.0569
5.9406,5.9933,3.8284,2.9268,8.6312,3.0397,11.055,2.89,16.013,2.9268,8.6312,7.8049,8.594,6.9622,4.0201,0.0,2.0202,8.8889,18.382,12.939,7.935
2.9703,5.9933,0.85809,-0.97561,4.7665,-2.1416,8.0402,-2.0361,3.9531,-0.97561,4.7665,2.9268,9.5419,6.9622,5.0251,0.0,2.0202,8.8889,10.615,13.924,8.9106
0.9901,4.9832,-0.13201,-3.9024,0.90177,-5.2504,3.0151,-4.0066,-0.067,-3.9024,0.90177,-2.9268,11.438,8.9327,7.0352,1.0,2.0202,8.8889,-6.8608,14.91,9.8862
0.9901,1.9529,-3.1023,-4.878,-1.0306,-7.323,-4.0201,-5.977,3.9531,-4.878,-1.0306,-6.8293,12.385,9.9179,7.0352,3.0,1.0101,7.8939,-3.9482,14.91,10.862
0.0,-0.06734,-4.0924,-5.8537,-3.9291,-7.323,-9.0452,-4.9918,-0.067,-5.8537,-3.9291,-10.732,13.333,13.859,8.0402,7.0,4.0404,8.8889,2.8479,14.91,12.813
0.9901,-1.0774,-6.0726,-6.8293,-3.9291,-7.323,-12.06,-4.0066,-4.0871,-6.8293,-3.9291,-13.659,14.281,14.844,6.0302,8.0,5.0505,4.9088,-8.8026,12.939,11.837
-0.9901,-3.0976,-6.0726,-7.8049,-6.8277,-7.323,-14.07,-4.0066,-1.072,-7.8049,-6.8277,-15.61,16.177,18.785,6.0302,8.0,7.0707,0.92869,9.644,10.969,10.862
-0.9901,-4.1077,-5.0825,-5.8537,-5.8615,-7.323,-10.05,-4.9918,1.943,-5.8537,-5.8615,-13.659,18.073,19.77,5.0251,9.0,8.0808,-0.06634,20.323999,8.9984,12.813
-2.9703,-3.0976,-5.0825,-5.8537,-1.0306,-8.3592,-5.0251,-5.977,1.943,-5.8537,-1.0306,-9.7561,15.229,17.799999,2.0101,7.0,5.0505,-2.0564,8.6731,6.0427,12.813
-3.9604,-2.0875,-5.0825,-6.8293,1.868,-7.323,-1.005,-8.9327,3.9531,-6.8293,1.868,-5.8537,11.438,14.844,-2.0101,5.0,0.0,-7.0315,6.7314,2.1018,12.813
0.0,1.9529,0.85809,-3.9024,2.8341,-2.1416,5.0251,-4.9918,-0.067,-3.9024,2.8341,0.0,12.385,16.813999,1.005,8.0,2.0202,-6.0365,-2.9773,4.0722,15.74
4.9505,5.9933,5.8086,0.97561,4.7665,4.076,7.0352,-1.0509,2.9481,0.97561,4.7665,4.878,14.281,18.785,7.0352,13.0,8.0808,-3.0514,-1.0356,8.0131,15.74
6.9307,5.9933,6.7987,0.97561,0.90177,6.1485,3.0151,-1.0509,0.93802,0.97561,0.90177,2.9268,14.281,17.799999,9.0452,14.0,11.111,-0.06634,-4.9191,9.9836,14.764
7.9208,2.963,5.8086,0.97561,0.90177,5.1123,-2.0101,-1.0509,-4.0871,0.97561,0.90177,0.97561,13.333,14.844,12.06,12.0,11.111,1.9237,6.7314,12.939,13.789
9.901,4.9832,7.7888,2.9268,3.8003,7.1848,-2.0101,1.9048,-3.0821,2.9268,3.8003,1.9512,13.333,13.859,14.07,12.0,13.131,2.9187,11.586,13.924,12.813
13.861,11.044,11.749,4.878,5.7327,8.2211,3.0151,5.8456,-0.067,4.878,5.7327,5.8537,14.281,12.874,19.094999,15.0,16.162001,10.879,7.7023,16.879999,12.813
16.832001,17.104,15.71,4.878,6.6989,10.294,10.05,5.8456,3.9531,4.878,6.6989,9.7561,14.281,12.874,20.101,17.0,18.181999,14.859,8.6731,16.879999,12.813
16.832001,21.145,18.68,2.9268,5.7327,10.294,17.084999,3.8752,4.9581,2.9268,5.7327,11.707,13.333,11.888,20.101,18.0,19.191999,13.864,11.586,14.91,12.813
12.871,20.135,15.71,0.0,1.868,7.1848,17.084999,-0.06568,5.9631,0.0,1.868,9.7561,10.49,8.9327,14.07,16.0,15.152,9.8839,13.528,10.969,11.837
10.891,20.135,15.71,-1.9512,3.8003,6.1485,15.075,-1.0509,10.988,-1.9512,3.8003,8.7805,10.49,10.903,13.065,17.0,15.152,6.8988,14.498,8.9984,13.789
8.9109,18.114,12.739,-0.97561,7.6651,7.1848,14.07,-0.06568,10.988,-0.97561,7.6651,9.7561,7.6461,8.9327,8.0402,16.0,12.121,-0.06634,13.528,4.0722,11.837
2.9703,14.074,8.7789,-0.97561,4.7665,5.1123,11.055,-1.0509,8.9782,-0.97561,4.7665,6.8293,2.9068,5.977,4.0201,12.0,7.0707,-4.0464,9.644,-0.85386,7.935
0.0,11.044,4.8185,-0.97561,2.8341,-0.06909,7.0352,-4.9918,2.9481,-0.97561,2.8341,3.9024,0.06319,4.0066,1.005,10.0,4.0404,-5.0415,4.7896,-3.8095,7.935
0.0,9.0236,2.8383,-1.9512,0.90177,-2.1416,5.0251,-5.977,0.93802,-1.9512,0.90177,0.97561,1.9589,6.9622,2.0101,10.0,5.0505,-5.0415,3.8188,-0.85386,9.8862
2.9703,7.0034,2.8383,-1.9512,0.90177,-2.1416,3.0151,-3.0213,1.943,-1.9512,0.90177,0.0,2.9068,5.977,5.0251,10.0,5.0505,-2.0564,2.8479,1.1166,7.935
5.9406,7.0034,4.8185,-0.97561,0.90177,0.96718,4.0201,-1.0509,2.9481,-0.97561,0.90177,1.9512,4.8025,4.9918,8.0402,8.0,6.0606,2.9187,1.877,5.0575,5.0081
7.9208,8.0135,5.8086,0.97561,2.8341,2.0035,7.0352,-0.06568,-1.072,0.97561,2.8341,3.9024,4.8025,4.0066,8.0402,6.0,5.0505,5.9038,0.90615,7.0279,5.0081
8.9109,11.044,6.7987,4.878,7.6651,6.1485,11.055,3.8752,4.9581,4.878,7.6651,6.8293,4.8025,2.0361,9.0452,7.0,7.0707,6.8988,3.8188,8.0131,3.0569
6.9307,10.034,7.7888,4.878,7.6651,7.1848,12.06,2.89,6.9682,4.878,7.6651,8.7805,1.0111,-1.9048,6.0302,5.0,6.0606,1.9237,1.877,4.0722,-0.84553
6.9307,10.034,7.7888,2.9268,6.6989,7.1848,12.06,0.91954,6.9682,2.9268,6.6989,9.7561,0.06319,-0.91954,5.0251,4.0,5.0505,2.9187,-4.9191,2.1018,-0.84553
5.9406,11.044,7.7888,2.9268,4.7665,7.1848,12.06,0.91954,4.9581,2.9268,4.7665,8.7805,0.06319,0.06568,4.0201,4.0,4.0404,3.9138,-4.9191,2.1018,0.13008
7.9208,14.074,9.769,6.8293,8.6312,11.33,15.075,5.8456,6.9682,6.8293,8.6312,11.707,1.0111,2.0361,5.0251,7.0,7.0707,4.9088,15.469,2.1018,5.0081
3.9604,13.064,6.7987,4.878,4.7665,7.1848,13.065,4.8604,8.9782,4.878,4.7665,7.8049,0.06319,2.0361,3.0151,9.0,7.0707,0.92869,21.294001,-0.85386,5.9837
0.9901,11.044,2.8383,0.0,1.868,3.0397,8.0402,2.89,9.9832,0.0,1.868,2.9268,0.06319,2.0361,2.0101,9.0,7.0707,-2.0564,10.615,-2.8243,5.9837
-0.9901,10.034,0.85809,-1.9512,1.868,-0.06909,6.0302,1.9048,10.988,-1.9512,1.868,0.0,-2.7804,0.06568,1.005,6.0,5.0505,-0.06634,-3.9482,-3.8095,2.0813
-3.9604,5.9933,-2.1122,-2.9268,-1.0306,-2.1416,2.0101,-0.06568,3.9531,-2.9268,-1.0306,-1.9512,-8.4676,-5.8456,-4.0201,1.0,-1.0101,-2.0564,-0.06472,-8.7356,-2.7967
-1.9802,7.0034,-1.1221,-3.9024,-5.8615,-1.1054,4.0201,-1.0509,-1.072,-3.9024,-5.8615,-0.97561,-8.4676,-4.8604,-1.005,1.0,1.0101,0.92869,14.498,-5.78,-1.8211
3.9604,11.044,3.8284,-1.9512,-2.963,2.0035,11.055,-2.0361,4.9581,-1.9512,-2.963,3.9024,-2.7804,1.0509,4.0201,6.0,6.0606,6.8988,10.615,0.13136,3.0569
3.9604,11.044,4.8185,-0.97561,2.8341,0.96718,11.055,-0.06568,7.9732,-0.97561,2.8341,2.9268,-0.88468,0.06568,5.0251,5.0,6.0606,6.8988,10.615,2.1018,0.13008
1.9802,9.0236,1.8482,-0.97561,2.8341,-1.1054,6.0302,3.8752,7.9732,-0.97561,2.8341,0.97561,-0.88468,-1.9048,4.0201,4.0,4.0404,5.9038,8.6731,2.1018,-0.84553
1.9802,8.0135,0.85809,-2.9268,-2.963,-1.1054,3.0151,3.8752,4.9581,-2.9268,-2.963,-0.97561,0.06319,0.06568,4.0201,4.0,3.0303,4.9088,-0.06472,3.087,0.13008
2.9703,9.0236,0.85809,-3.9024,-4.8953,-2.1416,4.0201,1.9048,4.9581,-3.9024,-4.8953,-0.97561,-0.88468,0.06568,3.0151,4.0,3.0303,4.9088,-2.0065,2.1018,3.0569
2.9703,12.054,2.8383,-2.9268,-1.9968,-0.06909,8.0402,0.91954,7.9732,-2.9268,-1.9968,0.97561,2.9068,4.0066,6.0302,8.0,6.0606,1.9237,16.440001,3.087,6.9593
0.9901,10.034,0.85809,-1.9512,-0.06441,-1.1054,6.0302,-0.06568,6.9682,-1.9512,-0.06441,0.0,1.0111,1.0509,4.0201,6.0,5.0505,-1.0614,21.294001,1.1166,4.0325
-2.9703,7.0034,-2.1122,-5.8537,-1.0306,-5.2504,2.0101,-4.0066,1.943,-5.8537,-1.0306,-4.878,-0.88468,-1.9048,1.005,3.0,3.0303,-2.0564,-1.0356,-0.85386,-0.84553
-2.9703,5.9933,-1.1221,-2.9268,-0.06441,-2.1416,4.0201,-1.0509,7.9732,-2.9268,-0.06441,-2.9268,-2.7804,-2.89,1.005,1.0,3.0303,-3.0514,4.7896,-2.8243,-2.7967
-0.9901,5.9933,0.85809,0.97561,0.90177,2.0035,9.0452,-0.06568,10.988,0.97561,0.90177,1.9512,-4.6761,-5.8456,-1.005,-1.0,1.0101,-5.0415,8.6731,-5.78,-4.748
0.0,7.0034,3.8284,-0.97561,0.90177,2.0035,11.055,-2.0361,8.9782,-0.97561,0.90177,3.9024,-3.7283,-3.8752,2.0101,0.0,1.0101,-3.0514,8.6731,-3.8095,-2.7967
-2.9703,5.9933,0.85809,-4.878,-0.06441,-3.1779,9.0452,-6.9622,8.9782,-4.878,-0.06441,0.97561,-3.7283,-4.8604,0.0,-1.0,0.0,-5.0415,3.8188,-4.7947,-2.7967
-3.9604,7.0034,-0.13201,-4.878,1.868,-5.2504,7.0352,-6.9622,6.9682,-4.878,1.868,-1.9512,-2.7804,-3.8752,1.005,1.0,0.0,-4.0464,7.7023,-3.8095,-2.7967
-0.9901,5.9933,0.85809,-2.9268,2.8341,-4.2142,6.0302,-5.977,6.9682,-2.9268,2.8341,0.0,-1.8325,-2.89,2.0101,1.0,1.0101,-2.0564,4.7896,-1.8391,-1.8211
0.9901,7.0034,2.8383,-1.9512,1.868,-0.06909,8.0402,-4.9918,7.9732,-1.9512,1.868,1.9512,-1.8325,-1.9048,3.0151,1.0,2.0202,-0.06634,3.8188,-0.85386,-2.7967
0.9901,7.0034,2.8383,-1.9512,1.868,2.0035,9.0452,-1.0509,7.9732,-1.9512,1.868,3.9024,-3.7283,-3.8752,1.005,1.0,2.0202,-0.06634,-14.628,-3.8095,-3.7724
-0.9901,2.963,-0.13201,-4.878,-0.06441,-0.06909,5.0251,0.91954,6.9682,-4.878,-0.06441,0.97561,-6.5719,-6.8309,-1.005,-2.0,0.0,-1.0614,-0.06472,-5.78,-5.7236
-2.9703,-2.0875,-3.1023,-4.878,-1.9968,-3.1779,1.005,-0.06568,2.9481,-4.878,-1.9968,-1.9512,-8.4676,-9.7865,-3.0151,-4.0,-2.0202,-2.0564,8.6731,-6.7652,-8.6504
-3.9604,-2.0875,-4.0924,-4.878,-4.8953,-5.2504,-2.0101,-1.0509,-4.0871,-4.878,-4.8953,-4.878,-9.4155,-7.8161,-4.0201,-4.0,-2.0202,-3.0514,-0.06472,-6.7652,-8.6504
-3.9604,-0.06734,-3.1023,-5.8537,-3.9291,-6.2867,-1.005,-4.0066,-6.0972,-5.8537,-3.9291,-4.878,-8.4676,-7.8161,-4.0201,-3.0,-3.0303,-4.0464,0.90615,-6.7652,-6.6992
-9.901,-4.1077,-7.0627,-10.732,-7.7939,-12.504,-3.0151,-9.9179,-9.1122,-10.732,-7.7939,-8.7805,-13.207,-12.742,-9.0452,-9.0,-8.0808,-12.007,-6.8608,-10.706,-11.577
-15.842,-11.178,-13.003,-12.683,-10.692,-16.649,-8.0402,-14.844,-9.1122,-12.683,-10.692,-13.659,-19.841999,-20.624001,-16.08,-17.0,-16.162001,-16.982,-13.657,-16.617001,-19.382
-16.832001,-13.199,-15.974,-11.707,-11.659,-16.649,-11.055,-13.859,-6.0972,-11.707,-11.659,-15.61,-22.686001,-23.58,-17.084999,-20.0,-19.191999,-14.992,-14.628,-18.587999,-23.285
-17.822001,-14.209,-17.954,-12.683,-11.659,-17.686001,-11.055,-13.859,-10.117,-12.683,-11.659,-15.61,-24.580999,-25.549999,-19.094999,-22.0,-21.212,-14.992,-16.57,-19.573,-24.26
-15.842,-13.199,-16.964001,-13.659,-8.7601,-16.649,-9.0452,-13.859,-10.117,-13.659,-8.7601,-15.61,-23.632999,-23.58,-17.084999,-21.0,-20.202,-13.997,-16.57,-18.587999,-24.26
-18.812,-14.209,-17.954,-16.584999,-11.659,-18.722,-10.05,-16.813999,-11.122,-16.584999,-11.659,-16.584999,-24.580999,-24.565001,-18.09,-21.0,-20.202,-17.976999,-20.452999,-21.544001,-26.211
-22.771999,-16.229,-20.924,-18.537001,-14.557,-21.830999,-11.055,-20.754999,-11.122,-18.537001,-14.557,-17.561001,-26.476999,-26.535,-22.111,-23.0,-22.222,-21.957001,-19.482,-25.483999,-25.236
-23.761999,-15.219,-19.934,-17.561001,-13.591,-20.794001,-9.0452,-20.754999,-7.1022,-17.561001,-13.591,-16.584999,-26.476999,-25.549999,-22.111,-21.0,-22.222,-22.952,-17.540001,-25.483999,-24.26
-18.812,-9.1582,-14.983,-12.683,-10.692,-14.577,-3.0151,-17.799999,-4.0871,-12.683,-10.692,-9.7561,-22.686001,-20.624001,-19.094999,-16.0,-18.181999,-19.966999,-33.074001,-23.514,-21.333
-18.812,-10.168,-13.993,-13.659,-10.692,-12.504,-4.0201,-17.799999,-12.127,-13.659,-10.692,-8.7805,-25.528999,-24.565001,-20.101,-19.0,-19.191999,-21.957001,-21.424,-24.499001,-25.236
-19.802,-15.219,-16.964001,-13.659,-10.692,-12.504,-8.0402,-17.799999,-15.142,-13.659,-10.692,-8.7805,-28.372999,-28.506001,-23.115999,-22.0,-21.212,-22.952,-2.9773,-26.469999,-27.187
-20.792,-16.229,-18.944,-13.659,-14.557,-13.541,-9.0452,-16.813999,-15.142,-13.659,-14.557,-11.707,-29.320999,-29.490999,-23.115999,-23.0,-22.222,-22.952,-11.715,-25.483999,-29.138
-18.812,-14.209,-17.954,-13.659,-13.591,-13.541,-6.0302,-17.799999,-16.146999,-13.659,-13.591,-10.732,-30.268999,-29.490999,-24.121,-23.0,-22.222,-25.937,-16.57,-27.455,-29.138
-17.822001,-11.178,-15.974,-13.659,-7.7939,-12.504,-3.0151,-15.829,-7.1022,-13.659,-7.7939,-9.7561,-25.528999,-25.549999,-20.101,-20.0,-19.191999,-23.947001,-15.599,-24.499001,-26.211
-14.851,-7.138,-14.983,-10.732,-5.8615,-11.468,-1.005,-14.844,-2.0771,-10.732,-5.8615,-8.7805,-17.945999,-19.639,-14.07,-16.0,-15.152,-17.976999,-11.715,-19.573,-21.333
-16.832001,-9.1582,-17.954,-10.732,-9.7262,-13.541,-4.0201,-14.844,-7.1022,-10.732,-9.7262,-11.707,-16.051001,-17.667999,-14.07,-17.0,-16.162001,-17.976999,-12.686,-17.603001,-19.382
-19.802,-14.209,-22.903999,-13.659,-11.659,-16.649,-10.05,-17.799999,-11.122,-13.659,-11.659,-15.61,-17.945999,-19.639,-17.084999,-20.0,-19.191999,-24.941999,-15.599,-19.573,-20.358
-21.782,-18.249001,-26.865,-15.61,-12.625,-19.757999,-14.07,-20.754999,-11.122,-15.61,-12.625,-19.511999,-24.580999,-25.549999,-20.101,-24.0,-22.222,-23.947001,-16.57,-23.514,-24.26
-21.782,-19.259001,-26.865,-15.61,-13.591,-20.794001,-15.075,-21.740999,-11.122,-15.61,-13.591,-20.488001,-28.372999,-28.506001,-22.111,-26.0,-24.242001,-20.962,-30.162001,-25.483999,-27.187
-23.761999,-20.268999,-28.844999,-15.61,-15.523,-21.830999,-14.07,-22.726,-13.132,-15.61,-15.523,-21.462999,-31.216,-33.431999,-26.131001,-30.0,-29.292999,-24.941999,-21.424,-29.424999,-32.064999
-23.761999,-20.268999,-27.855,-14.634,-16.49,-19.757999,-13.065,-20.754999,-17.152,-14.634,-16.49,-19.511999,-32.164001,-32.446999,-27.136,-30.0,-30.302999,-25.937,-17.540001,-30.410999,-31.089001
-24.752001,-22.290001,-28.844999,-14.634,-12.625,-19.757999,-13.065,-21.740999,-15.142,-14.634,-12.625,-18.537001,-34.060001,-34.417,-30.150999,-32.0,-32.323002,-27.927,-12.686,-32.381001,-32.064999
-24.752001,-19.259001,-25.875,-10.732,-7.7939,-15.613,-11.055,-18.785,-7.1022,-10.732,-7.7939,-15.61,-34.060001,-32.446999,-29.146,-29.0,-29.292999,-27.927,-8.8026,-33.366001,-30.114
-22.771999,-17.239,-22.903999,-8.7805,-6.8277,-12.504,-9.0452,-16.813999,-8.1072,-8.7805,-6.8277,-11.707,-33.112,-30.476,-29.146,-25.0,-26.263,-27.927,-11.715,-35.337002,-29.138
-23.761999,-17.239,-20.924,-10.732,-10.692,-14.577,-10.05,-18.785,-9.1122,-10.732,-10.692,-13.659,-34.060001,-31.461,-29.146,-25.0,-25.253,-28.922001,-21.424,-34.351002,-30.114
-22.771999,-18.249001,-22.903999,-11.707,-10.692,-16.649,-9.0452,-19.77,-14.137,-11.707,-10.692,-14.634,-33.112,-32.446999,-29.146,-26.0,-27.273001,-24.941999,-19.482,-34.351002,-28.163
-22.771999,-18.249001,-24.884001,-11.707,-9.7262,-16.649,-9.0452,-17.799999,-13.132,-11.707,-9.7262,-15.61,-31.216,-30.476,-28.141001,-26.0,-26.263,-21.957001,-20.452999,-30.410999,-28.163
-19.802,-18.249001,-23.893999,-9.7561,-8.7601,-15.613,-10.05,-17.799999,-14.137,-9.7561,-8.7601,-14.634,-28.372999,-28.506001,-25.125999,-25.0,-25.253,-20.962,-19.482,-28.440001,-28.163
-19.802,-16.229,-20.924,-10.732,-7.7939,-15.613,-9.0452,-15.829,-12.127,-10.732,-7.7939,-13.659,-25.528999,-25.549999,-21.106001,-22.0,-22.222,-18.972,-39.870998,-25.483999,-26.211
-18.812,-14.209,-20.924,-10.732,-7.7939,-14.577,-7.0352,-14.844,-9.1122,-10.732,-7.7939,-12.683,-23.632999,-23.58,-21.106001,-20.0,-21.212,-17.976999,-18.511,-23.514,-23.285
-17.822001,-11.178,-18.944,-10.732,-9.7262,-12.504,-6.0302,-12.874,-11.122,-10.732,-9.7262,-11.707,-19.841999,-19.639,-18.09,-17.0,-19.191999,-18.972,-0.06472,-19.573,-19.382
-17.822001,-10.168,-18.944,-11.707,-10.692,-14.577,-7.0352,-15.829,-12.127,-11.707,-10.692,-12.683,-19.841999,-19.639,-19.094999,-16.0,-19.191999,-19.966999,-5.89,-18.587999,-18.407
-15.842,-9.1582,-16.964001,-11.707,-9.7262,-14.577,-6.0302,-14.844,-8.1072,-11.707,-9.7262,-11.707,-18.893999,-17.667999,-17.084999,-14.0,-17.172001,-14.992,-6.8608,-16.617001,-14.504
-13.861,-8.1481,-14.983,-8.7805,-5.8615,-13.541,-6.0302,-13.859,-5.0921,-8.7805,-5.8615,-10.732,-18.893999,-17.667999,-16.08,-13.0,-17.172001,-12.007,-7.8317,-15.632,-12.553
-12.871,-7.138,-13.003,-8.7805,-2.963,-11.468,-5.0251,-13.859,-2.0771,-8.7805,-2.963,-8.7805,-18.893999,-17.667999,-16.08,-12.0,-15.152,-14.992,-5.89,-15.632,-12.553
-11.881,-8.1481,-12.013,-9.7561,-5.8615,-11.468,-7.0352,-14.844,-6.0972,-9.7561,-5.8615,-9.7561,-16.997999,-15.698,-14.07,-13.0,-14.141,-14.992,-8.8026,-15.632,-13.528
-10.891,-10.168,-12.013,-7.8049,-9.7262,-10.432,-10.05,-10.903,-13.132,-7.8049,-9.7262,-11.707,-13.207,-13.727,-10.05,-11.0,-11.111,-11.012,-11.715,-12.677,-13.528
-10.891,-12.189,-13.993,-8.7805,-10.692,-11.468,-13.065,-10.903,-12.127,-8.7805,-10.692,-12.683,-13.207,-12.742,-10.05,-11.0,-10.101,-8.0265,-11.715,-10.706,-13.528
-10.891,-11.178,-12.013,-9.7561,-8.7601,-12.504,-12.06,-12.874,-7.1022,-9.7561,-8.7601,-10.732,-11.311,-11.757,-10.05,-10.0,-9.0909,-9.0216,-11.715,-10.706,-12.553
-8.9109,-9.1582,-8.0528,-9.7561,-5.8615,-11.468,-9.0452,-10.903,-5.0921,-9.7561,-5.8615,-8.7805,-10.363,-10.772,-9.0452,-9.0,-8.0808,-8.0265,-9.7735,-9.7209,-12.553
-6.9307,-9.1582,-6.0726,-7.8049,-5.8615,-8.3592,-9.0452,-7.9475,-4.0871,-7.8049,-5.8615,-5.8537,-9.4155,-10.772,-8.0402,-9.0,-7.0707,-7.0315,-10.744,-8.7356,-13.528
-6.9307,-10.168,-6.0726,-5.8537,-7.7939,-5.2504,-10.05,-4.9918,-6.0972,-5.8537,-7.7939,-5.8537,-9.4155,-9.7865,-7.0352,-9.0,-7.0707,-4.0464,-10.744,-6.7652,-13.528
-9.901,-13.199,-10.033,-3.9024,-5.8615,-5.2504,-10.05,-6.9622,-9.1122,-3.9024,-5.8615,-4.878,-15.103,-15.698,-15.075,-13.0,-13.131,-7.0315,-13.657,-12.677,-17.431
-11.881,-14.209,-9.0429,-0.97561,-1.9968,-3.1779,-9.0452,-4.0066,-8.1072,-0.97561,-1.9968,-2.9268,-16.051001,-14.713,-16.08,-14.0,-14.141,-12.007,-13.657,-13.662,-17.431
-7.9208,-14.209,-8.0528,-0.97561,-2.963,-2.1416,-10.05,-2.0361,-6.0972,-0.97561,-2.963,-1.9512,-12.259,-12.742,-13.065,-13.0,-13.131,-7.0315,-11.715,-9.7209,-12.553
-8.9109,-13.199,-8.0528,-4.878,-6.8277,-4.2142,-11.055,-4.0066,-5.0921,-4.878,-6.8277,-3.9024,-8.4676,-9.7865,-9.0452,-10.0,-10.101,-2.0564,-10.744,-6.7652,-9.626
-8.9109,-12.189,-9.0429,-4.878,-4.8953,-7.323,-10.05,-6.9622,-6.0972,-4.878,-4.8953,-4.878,-6.5719,-6.8309,-9.0452,-7.0,-8.0808,-5.0415,-15.599,-7.7504,-7.6748
-8.9109,-10.168,-7.0627,-2.9268,-2.963,-6.2867,-12.06,-4.9918,-9.1122,-2.9268,-2.963,-3.9024,-4.6761,-5.8456,-7.0352,-6.0,-6.0606,-4.0464,-16.57,-5.78,-6.6992
-7.9208,-11.178,-7.0627,-0.97561,-2.963,-6.2867,-12.06,-3.0213,-6.0972,-0.97561,-2.963,-2.9268,-5.624,-6.8309,-7.0352,-6.0,-6.0606,-4.0464,-1.0356,-4.7947,-6.6992
-4.9505,-7.138,-3.1023,0.0,-1.9968,-2.1416,-7.0352,-1.0509,-0.067,0.0,-1.9968,0.0,-2.7804,-2.89,-4.0201,-3.0,-3.0303,-1.0614,4.7896,-2.8243,-3.7724
-4.9505,-7.138,-3.1023,-1.9512,-1.9968,-4.2142,-6.0302,-4.0066,-0.067,-1.9512,-1.9968,0.0,-2.7804,-2.89,-4.0201,-3.0,-2.0202,-3.0514,-3.9482,-2.8243,-4.748
-11.881,-13.199,-9.0429,-4.878,-3.9291,-9.3955,-10.05,-8.9327,-2.0771,-4.878,-3.9291,-5.8537,-8.4676,-8.8013,-11.055,-9.0,-9.0909,-8.0265,-5.89,-8.7356,-10.602
-16.832001,-19.259001,-13.993,-2.9268,-4.8953,-12.504,-16.08,-8.9327,-3.0821,-2.9268,-4.8953,-8.7805,-14.155,-14.713,-17.084999,-16.0,-16.162001,-10.017,-14.628,-13.662,-17.431
-14.851,-18.249001,-12.013,-2.9268,-4.8953,-9.3955,-14.07,-6.9622,-3.0821,-2.9268,-4.8953,-6.8293,-12.259,-12.742,-17.084999,-15.0,-16.162001,-8.0265,-13.657,-11.691,-15.48
-11.881,-16.229,-10.033,-4.878,-5.8615,-8.3592,-14.07,-4.9918,-5.0921,-4.878,-5.8615,-5.8537,-11.311,-10.772,-14.07,-13.0,-14.141,-5.0415,-12.686,-9.7209,-13.528
-11.881,-18.249001,-12.013,-5.8537,-5.8615,-8.3592,-16.08,-5.977,-5.0921,-5.8537,-5.8615,-7.8049,-12.259,-11.757,-16.08,-15.0,-15.152,-11.012,-11.715,-11.691,-14.504
-10.891,-18.249001,-11.023,-4.878,-5.8615,-7.323,-14.07,-5.977,-5.0921,-4.878,-5.8615,-5.8537,-13.207,-12.742,-16.08,-16.0,-16.162001,-12.007,-11.715,-10.706,-14.504
-8.9109,-18.249001,-10.033,-2.9268,-3.9291,-4.2142,-11.055,-4.0066,-5.0921,-2.9268,-3.9291,-2.9268,-13.207,-15.698,-15.075,-17.0,-17.172001,-6.0365,-12.686,-11.691,-15.48
-8.9109,-17.239,-8.0528,-2.9268,-4.8953,-3.1779,-12.06,-3.0213,-4.0871,-2.9268,-4.8953,-2.9268,-12.259,-14.713,-13.065,-17.0,-16.162001,-4.0464,-11.715,-9.7209,-16.455
-8.9109,-17.239,-9.0429,-4.878,-7.7939,-4.2142,-13.065,-4.9918,-8.1072,-4.878,-7.7939,-3.9024,-12.259,-13.727,-13.065,-15.0,-14.141,-7.0315,-13.657,-9.7209,-16.455
-10.891,-17.239,-9.0429,-4.878,-6.8277,-5.2504,-12.06,-5.977,-12.127,-4.878,-6.8277,-4.878,-12.259,-12.742,-13.065,-15.0,-13.131,-8.0265,-13.657,-11.691,-17.431
-8.9109,-14.209,-7.0627,-1.9512,-1.0306,-4.2142,-7.0352,-5.977,-4.0871,-1.9512,-1.0306,-1.9512,-9.4155,-10.772,-12.06,-13.0,-12.121,-7.0315,-10.744,-10.706,-13.528
-5.9406,-10.168,-4.0924,1.9512,5.7327,-0.06909,-4.0201,-1.0509,4.9581,1.9512,5.7327,1.9512,-6.5719,-5.8456,-9.0452,-9.0,-9.0909,-4.0464,-6.8608,-7.7504,-9.626
-5.9406,-10.168,-3.1023,3.9024,4.7665,-0.06909,-4.0201,-0.06568,4.9581,3.9024,4.7665,0.97561,-3.7283,-2.89,-7.0352,-6.0,-6.0606,-3.0514,-6.8608,-5.78,-7.6748
-11.881,-14.209,-8.0528,-3.9024,-2.963,-7.323,-10.05,-10.903,-3.0821,-3.9024,-2.963,-5.8537,-3.7283,-2.89,-9.0452,-6.0,-7.0707,-6.0365,-9.7735,-8.7356,-7.6748
-13.861,-15.219,-10.033,-7.8049,-3.9291,-10.432,-13.065,-10.903,-4.0871,-7.8049,-3.9291,-7.8049,-2.7804,-0.91954,-11.055,-6.0,-8.0808,-9.0216,-8.8026,-10.706,-7.6748
-11.881,-13.199,-8.0528,-4.878,-3.9291,-7.323,-12.06,-2.0361,-4.0871,-4.878,-3.9291,-6.8293,-1.8325,1.0509,-10.05,-5.0,-8.0808,-6.0365,-5.89,-8.7356,-5.7236
-11.881,-13.199,-8.0528,-2.9268,-6.8277,-7.323,-13.065,-2.0361,-5.0921,-2.9268,-6.8277,-6.8293,-2.7804,0.06568,-12.06,-6.0,-9.0909,-11.012,-5.89,-9.7209,-5.7236
-10.891,-14.209,-9.0429,-2.9268,-7.7939,-7.323,-14.07,-3.0213,-6.0972,-2.9268,-7.7939,-7.8049,-4.6761,-0.91954,-13.065,-7.0,-10.101,-11.012,-7.8317,-11.691,-5.7236
-9.901,-15.219,-8.0528,-3.9024,-5.8615,-7.323,-15.075,-3.0213,-7.1022,-3.9024,-5.8615,-7.8049,-4.6761,-1.9048,-11.055,-8.0,-9.0909,-4.0464,-8.8026,-10.706,-6.6992
-8.9109,-16.229,-9.0429,-3.9024,-5.8615,-7.323,-15.075,-3.0213,-8.1072,-3.9024,-5.8615,-8.7805,-5.624,-3.8752,-11.055,-9.0,-9.0909,-4.0464,-9.7735,-9.7209,-9.626
-5.9406,-14.209,-8.0528,-1.9512,-5.8615,-6.2867,-14.07,-0.06568,-3.0821,-1.9512,-5.8615,-7.8049,-2.7804,-1.9048,-6.0302,-8.0,-7.0707,-0.06634,-8.8026,-5.78,-7.6748
-5.9406,-16.229,-11.023,-3.9024,-8.7601,-9.3955,-17.084999,-3.0213,-7.1022,-3.9024,-8.7601,-10.732,-1.8325,-3.8752,-4.0201,-9.0,-7.0707,-3.0514,-9.7735,-4.7947,-6.6992
-5.9406,-14.209,-8.0528,-2.9268,-7.7939,-8.3592,-16.08,-1.0509,-11.122,-2.9268,-7.7939,-9.7561,-0.88468,-2.89,-1.005,-8.0,-4.0404,-2.0564,-8.8026,-2.8243,-7.6748
-5.9406,-14.209,-7.0627,-0.97561,-6.8277,-6.2867,-14.07,-4.0066,-12.127,-0.97561,-6.8277,-6.8293,-3.7283,-6.8309,-4.0201,-10.0,-6.0606,-3.0514,-9.7735,-5.78,-10.602
-9.901,-15.219,-7.0627,-3.9024,-9.7262,-7.323,-14.07,-4.9918,-10.117,-3.9024,-9.7262,-8.7805,-8.4676,-11.757,-9.0452,-14.0,-10.101,-7.0315,-13.657,-9.7209,-14.504
-6.9307,-13.199,-7.0627,-0.97561,-4.8953,-6.2867,-10.05,0.91954,-6.0972,-0.97561,-4.8953,-5.8537,-8.4676,-9.7865,-9.0452,-12.0,-9.0909,-4.0464,-10.744,-9.7209,-11.577
-5.9406,-11.178,-5.0825,0.97561,-1.0306,-5.2504,-7.0352,2.89,-4.0871,0.97561,-1.0306,-3.9024,-6.5719,-6.8309,-8.0402,-9.0,-8.0808,-2.0564,-7.8317,-6.7652,-8.6504
-5.9406,-11.178,-4.0924,0.97561,-0.06441,-5.2504,-9.0452,-0.06568,-3.0821,0.97561,-0.06441,-3.9024,-7.5197,-7.8161,-9.0452,-9.0,-8.0808,-3.0514,-8.8026,-7.7504,-9.626
-4.9505,-10.168,-2.1122,0.97561,-1.0306,-3.1779,-7.0352,1.9048,-4.0871,0.97561,-1.0306,-1.9512,-8.4676,-7.8161,-8.0402,-8.0,-8.0808,-1.0614,-6.8608,-7.7504,-8.6504
-0.9901,-8.1481,-0.13201,2.9268,-1.0306,-0.06909,-5.0251,3.8752,-3.0821,2.9268,-1.0306,0.97561,-4.6761,-5.8456,-5.0251,-6.0,-6.0606,-1.0614,-4.9191,-3.8095,-3.7724
0.0,-9.1582,-1.1221,1.9512,-1.0306,0.96718,-5.0251,2.89,-6.0972,1.9512,-1.0306,0.97561,-2.7804,-3.8752,-3.0151,-6.0,-6.0606,0.92869,-3.9482,-1.8391,-2.7967
0.9901,-6.1279,0.85809,2.9268,0.90177,0.96718,-2.0101,0.91954,-4.0871,2.9268,0.90177,2.9268,0.06319,-3.8752,-1.005,-5.0,-5.0505,-1.0614,-1.0356,0.13136,-2.7967
0.9901,-2.0875,1.8482,2.9268,1.868,-0.06909,1.005,-0.06568,2.9481,2.9268,1.868,2.9268,1.0111,-1.9048,0.0,-3.0,-3.0303,0.92869,2.8479,1.1166,-2.7967
-2.9703,-3.0976,-1.1221,0.0,-1.0306,-4.2142,-1.005,-2.0361,5.9631,0.0,-1.0306,-1.9512,1.0111,-1.9048,0.0,-4.0,-2.0202,1.9237,1.877,1.1166,-3.7724
-0.9901,-4.1077,-2.1122,2.9268,1.868,-1.1054,0.0,-1.0509,4.9581,2.9268,1.868,-0.97561,2.9068,0.06568,2.0101,-2.0,-1.0101,2.9187,0.90615,3.087,-1.8211
2.9703,-4.1077,-0.13201,6.8293,6.6989,3.0397,0.0,0.91954,3.9531,6.8293,6.6989,1.9512,2.9068,0.06568,3.0151,-3.0,0.0,4.9088,-0.06472,4.0722,-2.7967
4.9505,-3.0976,1.8482,8.7805,6.6989,6.1485,1.005,7.8161,2.9481,8.7805,6.6989,3.9024,2.9068,-0.91954,3.0151,-3.0,0.0,6.8988,-2.0065,4.0722,-4.748
5.9406,-0.06734,3.8284,6.8293,6.6989,7.1848,5.0251,10.772,5.9631,6.8293,6.6989,4.878,4.8025,1.0509,6.0302,0.0,2.0202,8.8889,0.90615,7.0279,-1.8211
5.9406,-0.06734,2.8383,5.8537,4.7665,6.1485,5.0251,5.8456,3.9531,5.8537,4.7665,5.8537,4.8025,2.0361,5.0251,2.0,2.0202,7.8939,3.8188,6.0427,2.0813
6.9307,1.9529,6.7987,8.7805,7.6651,9.2573,5.0251,8.8013,3.9531,8.7805,7.6651,6.8293,7.6461,7.9475,8.0402,6.0,6.0606,8.8889,4.7896,8.0131,6.9593
6.9307,-0.06734,5.8086,9.7561,6.6989,8.2211,1.005,7.8161,2.9481,9.7561,6.6989,5.8537,7.6461,6.9622,6.0302,6.0,6.0606,5.9038,2.8479,7.0279,6.9593
3.9604,-2.0875,3.8284,7.8049,2.8341,5.1123,-1.005,4.8604,-7.1022,7.8049,2.8341,2.9268,5.7504,4.9918,4.0201,3.0,5.0505,-0.06634,-1.0356,5.0575,4.0325
8.9109,2.963,9.769,8.7805,5.7327,9.2573,5.0251,7.8161,-2.0771,8.7805,5.7327,8.7805,12.385,10.903,11.055,9.0,11.111,5.9038,1.877,8.9984,8.9106
10.891,5.9933,13.729,7.8049,7.6651,10.294,7.0352,6.8309,4.9581,7.8049,7.6651,10.732,14.281,12.874,15.075,11.0,14.141,8.8889,2.8479,12.939,8.9106
13.861,7.0034,15.71,10.732,9.5974,11.33,7.0352,6.8309,4.9581,10.732,9.5974,12.683,15.229,12.874,15.075,11.0,14.141,9.8839,8.6731,12.939,10.862
14.851,8.0135,15.71,12.683,9.5974,14.439,8.0402,11.757,5.9631,12.683,9.5974,13.659,15.229,13.859,16.08,12.0,14.141,10.879,12.557,14.91,12.813
11.881,5.9933,10.759,10.732,6.6989,11.33,8.0402,12.742,4.9581,10.732,6.6989,10.732,14.281,12.874,14.07,10.0,12.121,10.879,8.6731,14.91,11.837
12.871,7.0034,11.749,8.7805,5.7327,9.2573,9.0452,7.8161,7.9732,8.7805,5.7327,9.7561,15.229,13.859,15.075,11.0,13.131,15.854,8.6731,17.865,12.813
10.891,5.9933,10.759,5.8537,5.7327,6.1485,7.0352,6.8309,6.9682,5.8537,5.7327,6.8293,13.333,9.9179,14.07,7.0,11.111,14.859,5.7605,14.91,7.935
8.9109,2.963,7.7888,5.8537,4.7665,5.1123,6.0302,9.7865,3.9531,5.8537,4.7665,5.8537,9.5419,6.9622,9.0452,3.0,7.0707,10.879,4.7896,10.969,5.9837
7.9208,3.9731,6.7987,6.8293,5.7327,5.1123,7.0352,9.7865,7.9732,6.8293,5.7327,5.8537,10.49,9.9179,9.0452,5.0,5.0505,11.874,8.6731,11.954,9.8862
5.9406,3.9731,4.8185,5.8537,5.7327,4.076,7.0352,5.8456,7.9732,5.8537,5.7327,4.878,10.49,9.9179,7.0352,6.0,4.0404,6.8988,6.7314,10.969,10.862
4.9505,3.9731,3.8284,4.878,2.8341,5.1123,6.0302,6.8309,7.9732,4.878,2.8341,3.9024,12.385,9.9179,8.0402,6.0,5.0505,8.8889,8.6731,12.939,10.862
6.9307,2.963,2.8383,5.8537,4.7665,6.1485,4.0201,6.8309,4.9581,5.8537,4.7665,4.878,12.385,8.9327,7.0352,6.0,5.0505,10.879,8.6731,12.939,10.862
