C3,C4,Cz,F1,F2,F3,F4,F7,F8,Fp1,Fp2,Fz,O1,O2,P3,P4,Pz,T3,T4,T5,T6
13.207,18.159,19.417,9.8039,27.586,3.6715,31.068001,-4.9191,29.202999,9.8039,27.586,20.587999,5.7416,1.8413,17.205999,10.577,24.219,-6.859,21.968,0.0,4.7021
9.4155,13.397,17.476,8.8235,14.778,-2.1256,25.243,-2.9773,22.374001,8.8235,14.778,21.569,-1.9139,-6.7302,7.6825,5.7692,17.455999,-8.7821,18.159,-6.8627,-2.0612
7.5197,9.5873,14.563,9.8039,6.8966,0.77295,17.476,-0.06472,15.545,9.8039,6.8966,19.608,-10.526,-11.492,-0.88889,-0.96154,6.8277,-10.705,8.6349,-12.745,-7.8583
3.7283,6.7302,9.7087,9.8039,14.778,13.333,12.621,2.8479,8.7154,9.8039,14.778,15.686,-16.268,-13.397,-6.6032,-9.6154,-3.8003,-10.705,-1.8413,-16.667,-9.7907
-4.8025,1.0159,-1.9417,5.8824,15.764,9.4686,4.8544,3.8188,1.8862,5.8824,15.764,8.8235,-22.01,-13.397,-16.127001,-16.346001,-13.462,-10.705,-6.6032,-22.549,-11.723
-10.49,1.0159,-13.592,3.9216,7.8818,4.6377,0.0,4.7896,-1.0407,3.9216,7.8818,6.8627,-26.794001,-12.444,-25.650999,-16.346001,-23.124001,-8.7821,-3.746,-26.471001,-9.7907
-15.229,-1.8413,-20.388,-1.9608,2.9557,8.5024,-3.8835,4.7896,-0.06504,-1.9608,2.9557,5.8824,-30.622,-10.54,-32.317001,-15.385,-30.853001,-7.8205,0.06349,-30.392,-5.9259
-14.281,-2.7937,-20.388,-3.9216,-6.8966,-3.0918,-3.8835,3.8188,-0.06504,-3.9216,-6.8966,2.9412,-31.579,-8.6349,-35.174999,-12.5,-32.785999,-9.7436,4.8254,-31.372999,-2.0612
-18.073,-1.8413,-20.388,3.9216,-15.764,-7.9227,-1.9417,-0.06472,0.91057,3.9216,-15.764,-4.902,-27.750999,-3.873,-34.222,-7.6923,-30.853001,-10.705,8.6349,-25.49,2.7697
-20.916,-4.6984,-23.301001,0.98039,-7.8818,-6.9565,-8.7379,-4.9191,-0.06504,0.98039,-7.8818,-10.784,-23.923,-3.873,-29.459999,-7.6923,-30.853001,-11.667,8.6349,-18.627001,5.6683
-18.073,-5.6508,-21.358999,-14.706,-9.8522,-20.483,-16.504999,-8.8026,-2.9919,-14.706,-9.8522,-14.706,-18.181999,-2.9206,-21.841,-4.8077,-26.023001,-10.705,6.7302,-12.745,7.6006
-11.438,-4.6984,-17.476,-16.667,-11.823,-14.686,-13.592,-5.89,-3.9675,-16.667,-11.823,-15.686,-9.5694,-0.06349,-8.5079,-0.96154,-15.395,-1.0897,10.54,-1.9608,9.533
-3.8547,-2.7937,-12.621,-11.765,-11.823,2.7053,-6.7961,-0.06472,-3.9675,-11.765,-11.823,-15.686,-2.8708,-2.9206,3.873,0.0,-5.7327,8.5256,6.7302,5.8824,5.6683
2.7804,-1.8413,-5.8252,-9.8039,-13.793,3.6715,-1.9417,3.8188,-2.9919,-9.8039,-13.793,-11.765,0.95694,-9.5873,11.492,-0.96154,3.9291,12.372,1.9683,10.784,-1.095
5.624,-0.88889,0.0,-15.686,-6.8966,2.7053,-3.8835,5.7605,-2.0163,-15.686,-6.8966,-10.784,4.7847,-8.6349,16.254,2.8846,12.625,15.256,1.9683,14.706,-3.0274
7.5197,-0.88889,4.8544,-6.8627,-11.823,-4.058,-6.7961,6.7314,-4.9431,-6.8627,-11.823,-11.765,8.6124,-4.8254,20.063,5.7692,19.388,15.256,0.06349,17.646999,-1.095
9.4155,-4.6984,8.7379,-2.9412,-14.778,-3.0918,-9.7087,5.7605,-10.797,-2.9412,-14.778,-10.784,10.526,-3.873,21.968,7.6923,21.32,14.295,-7.5556,14.706,0.83736
8.4676,-8.5079,7.767,8.8235,-1.9704,0.77295,-12.621,7.7023,-15.675,8.8235,-1.9704,-9.8039,9.5694,0.88889,18.159,9.6154,19.388,10.449,-14.222,13.725,3.7359
2.7804,-12.317,2.9126,5.8824,0.98522,-2.1256,-12.621,6.7314,-19.577,5.8824,0.98522,-6.8627,5.7416,4.6984,9.5873,5.7692,11.659,2.7564,-15.175,8.8235,2.7697
-4.8025,-16.127001,-1.9417,7.8431,0.0,-1.1594,-10.68,3.8188,-20.552999,7.8431,0.0,-6.8627,0.95694,7.5556,0.06349,0.0,5.8615,-4.9359,-12.317,0.0,3.7359
-7.6461,-15.175,-4.8544,-0.98039,-6.8966,0.77295,-10.68,1.877,-18.601999,-0.98039,-6.8966,-2.9412,-0.95694,9.4603,-5.6508,-0.96154,1.9968,-8.7821,-14.222,-2.9412,4.7021
-5.7504,-10.413,-5.8252,-1.9608,-3.9409,-3.0918,-10.68,-1.0356,-13.724,-1.9608,-3.9409,1.9608,-0.95694,11.365,-9.4603,-1.9231,-4.7665,-6.859,-16.127001,-2.9412,3.7359
-0.06319,-3.746,-0.97087,0.98039,7.8818,-11.787,3.8835,-0.06472,-5.9187,0.98039,7.8818,8.8235,0.0,8.5079,-10.413,-2.8846,-8.6312,-2.0513,-12.317,-0.98039,-0.12882
7.5197,5.7778,6.7961,17.646999,9.8522,-3.0918,19.417,5.7605,4.813,17.646999,9.8522,15.686,0.95694,4.6984,-8.5079,-1.9231,-5.7327,4.6795,-5.6508,-0.98039,-4.9597
5.624,11.492,6.7961,22.549,20.690001,18.164,21.358999,7.7023,10.667,22.549,20.690001,14.706,-2.8708,-1.9683,-9.4603,-1.9231,-6.6989,6.6026,3.873,-0.98039,-8.8245
-0.06319,9.5873,2.9126,8.8235,11.823,14.3,15.534,3.8188,12.618,8.8235,11.823,7.8431,-4.7847,-5.7778,-10.413,-1.9231,-7.6651,4.6795,13.397,-2.9412,-7.8583
-1.0111,7.6825,1.9417,-2.9412,0.98522,-9.8551,7.767,-0.06472,10.667,-2.9412,0.98522,3.9216,-2.8708,-4.8254,-7.5556,0.0,-6.6989,3.7179,15.302,-4.902,-3.9936
-1.0111,6.7302,2.9126,-4.902,-0.98522,-8.8889,3.8835,0.90615,8.7154,-4.902,-0.98522,2.9412,-1.9139,-2.9206,-2.7937,2.8846,-4.7665,3.7179,15.302,-3.9216,-0.12882
-1.9589,7.6825,3.8835,0.0,-3.9409,5.6039,8.7379,2.8479,5.7886,0.0,-3.9409,0.98039,-0.95694,-3.873,-0.88889,7.6923,-0.90177,0.83333,14.349,-2.9412,6.6345
-2.9068,6.7302,2.9126,-1.9608,3.9409,1.7391,10.68,1.877,3.8374,-1.9608,3.9409,-0.98039,0.0,-3.873,1.9683,12.5,3.9291,-2.0513,16.254,-0.98039,12.432
-1.0111,7.6825,2.9126,-2.9412,3.9409,-9.8551,3.8835,-0.06472,0.91057,-2.9412,3.9409,1.9608,2.8708,1.8413,2.9206,15.385,7.7939,-3.0128,11.492,2.9412,15.33
-1.9589,5.7778,1.9417,-0.98039,1.9704,-4.058,0.0,-2.0065,-4.9431,-0.98039,1.9704,0.98039,5.7416,5.6508,2.9206,14.423,10.692,-3.0128,1.0159,6.8627,16.296
-4.8025,1.9683,0.0,0.98039,2.9557,0.77295,1.9417,-4.9191,-10.797,0.98039,2.9557,-1.9608,9.5694,12.317,2.9206,16.346001,10.692,-4.9359,-4.6984,9.8039,18.229
-8.594,-0.88889,-1.9417,0.0,-4.9261,-4.058,-1.9417,-8.8026,-16.65,0.0,-4.9261,-5.8824,12.44,15.175,3.873,18.268999,8.7601,-5.8974,-8.5079,11.765,18.229
-12.385,-2.7937,-1.9417,-7.8431,-17.733999,-10.821,-11.65,-12.686,-23.48,-7.8431,-17.733999,-11.765,13.397,18.983999,4.8254,18.268999,6.8277,-9.7436,-10.413,11.765,17.261999
-12.385,-8.5079,-3.8835,-20.587999,-25.615999,-16.618,-18.447001,-15.599,-30.309,-20.587999,-25.615999,-17.646999,7.6555,20.889,1.0159,13.462,3.9291,-11.667,-10.413,8.8235,14.364
-4.8025,-8.5079,-1.9417,-14.706,-30.542,-7.9227,-26.214001,-9.7735,-30.309,-14.706,-30.542,-15.686,4.7847,19.937,1.0159,8.6538,5.8615,-9.7436,-12.317,8.8235,11.465
5.624,-0.88889,6.7961,5.8824,-10.837,4.6377,-16.504999,-0.06472,-23.48,5.8824,-10.837,-4.902,9.5694,18.983999,7.6825,6.7308,11.659,-3.9744,-14.222,12.745,7.6006
16.997999,8.6349,17.476,13.725,7.8818,17.198,6.7961,8.6731,-12.748,13.725,7.8818,7.8431,17.225,18.983999,14.349,7.6923,19.388,2.7564,-13.27,15.686,2.7697
23.632999,18.159,26.214001,14.706,15.764,22.028999,16.504999,12.557,-3.9675,14.706,15.764,21.569,22.01,18.032,20.063,10.577,24.219,7.5641,-7.5556,20.587999,0.83736
26.476999,25.778,33.980999,18.627001,25.615999,23.961,24.271999,15.469,4.813,18.627001,25.615999,32.353001,22.01,16.127001,23.872999,9.6154,26.150999,11.41,-0.88889,22.549,-3.0274
31.216,27.683001,38.834999,35.293999,36.452999,36.521999,36.893002,18.382,12.618,35.293999,36.452999,39.216,19.139,12.317,23.872999,9.6154,26.150999,16.218,1.0159,19.608,-5.9259
34.060001,23.872999,38.834999,43.137001,33.498001,40.386002,33.009998,20.323999,19.447001,43.137001,33.498001,41.175999,12.44,3.746,21.016001,6.7308,23.253,16.218,4.8254,15.686,-9.7907
33.112,24.825001,36.893002,35.293999,30.542,32.657001,31.068001,21.294001,22.374001,35.293999,30.542,41.175999,6.6986,-1.0159,17.205999,6.7308,20.354,17.179001,14.349,9.8039,-8.8245
23.632999,21.968,24.271999,21.569,23.645,27.826,26.214001,18.382,20.423,21.569,23.645,32.353001,0.95694,-2.9206,6.7302,4.8077,11.659,12.372,16.254,1.9608,-3.9936
11.311,15.302,9.7087,3.9216,13.793,-5.9903,23.301001,10.615,20.423,3.9216,13.793,21.569,-6.6986,-3.873,-3.746,2.8846,0.06441,2.7564,20.063,-6.8627,2.7697
-1.9589,11.492,0.0,1.9608,8.867,-0.19324,11.65,2.8479,21.398001,1.9608,8.867,8.8235,-14.354,-2.9206,-11.365,2.8846,-11.53,-5.8974,24.825001,-15.686,9.533
-15.229,7.6825,-6.7961,3.9216,8.867,4.6377,1.9417,-3.9482,19.447001,3.9216,8.867,-1.9608,-18.181999,-2.9206,-15.175,2.8846,-18.292999,-14.551,26.73,-17.646999,13.398
-22.812,3.873,-12.621,-4.902,2.9557,-6.9565,-1.9417,-9.7735,12.618,-4.902,2.9557,-8.8235,-15.311,1.8413,-16.127001,4.8077,-19.259001,-20.320999,23.872999,-15.686,16.296
-19.968,1.9683,-12.621,-5.8824,-3.9409,-16.618,-0.97087,-12.686,7.7398,-5.8824,-3.9409,-8.8235,-8.6124,7.5556,-11.365,8.6538,-12.496,-18.396999,22.921,-9.8039,21.127001
-10.49,0.06349,-8.7379,-13.725,-6.8966,-25.313999,-1.9417,-11.715,-2.9919,-13.725,-6.8966,-8.8235,0.0,9.4603,-1.8413,10.577,-2.8341,-13.59,12.444,-1.9608,20.160999
-4.8025,-4.6984,-4.8544,-10.784,-17.733999,-7.9227,-9.7087,-7.8317,-13.724,-10.784,-17.733999,-10.784,7.6555,12.317,3.873,11.538,5.8615,-5.8974,-5.6508,4.902,17.261999
0.88468,-10.413,-3.8835,-14.706,-18.719,-0.19324,-17.476,-2.9773,-21.528,-14.706,-18.719,-10.784,9.5694,11.365,6.7302,8.6538,10.692,-0.12821,-15.175,8.8235,10.499
6.5719,-17.079,-3.8835,-14.706,-20.690001,-8.8889,-28.155001,1.877,-30.309,-14.706,-20.690001,-12.745,8.6124,6.6032,7.6825,1.9231,11.659,4.6795,-24.698,9.8039,1.8035
10.363,-23.746,-3.8835,-3.9216,-29.556999,-6.9565,-28.155001,8.6731,-37.138,-3.9216,-29.556999,-12.745,6.6986,3.746,8.6349,-2.8846,10.692,11.41,-34.222,10.784,-6.8921
15.103,-28.507999,-2.9126,-1.9608,-20.690001,12.367,-29.125999,17.410999,-37.138,-1.9608,-20.690001,-8.8235,6.6986,2.7937,11.492,-7.6923,10.692,17.179001,-38.984001,13.725,-12.689
17.945999,-30.413,0.0,3.9216,-7.8818,24.927999,-29.125999,24.207001,-32.259998,3.9216,-7.8818,-3.9216,8.6124,-1.0159,16.254,-14.423,9.7262,22.948999,-40.889,14.706,-19.452
19.841999,-23.746,3.8835,2.9412,-6.8966,21.063,-16.504999,27.120001,-24.455,2.9412,-6.8966,2.9412,7.6555,-8.6349,16.254,-21.153999,8.7601,25.833,-34.222,11.765,-29.114
21.738001,-10.413,10.68,8.8235,0.0,27.826,-0.97087,30.032,-17.625999,8.8235,0.0,13.725,3.8278,-16.254,11.492,-29.808001,4.8953,28.718,-28.507999,10.784,-37.810001
24.580999,4.8254,17.476,20.587999,6.8966,34.589001,10.68,32.945,-8.8455,20.587999,6.8966,22.549,0.0,-24.825001,7.6825,-34.615002,0.06441,32.563999,-22.794001,11.765,-39.742001
26.476999,12.444,20.388,26.471001,18.719,33.623001,14.563,32.945,-1.0407,26.471001,18.719,25.49,-3.8278,-26.73,1.9683,-33.653999,-6.6989,31.603001,-14.222,9.8039,-38.776001
24.580999,15.302,17.476,21.569,20.690001,23.961,20.388,30.032,3.8374,21.569,20.690001,22.549,-3.8278,-22.921,-0.88889,-28.846001,-11.53,28.718,-4.6984,7.8431,-32.013
16.997999,14.349,11.65,7.8431,7.8818,-3.0918,22.33,17.410999,5.7886,7.8431,7.8818,16.667,-1.9139,-18.159,-0.88889,-19.231001,-13.462,21.025999,4.8254,7.8431,-23.316999
14.155,15.302,7.767,6.8627,4.9261,1.7391,13.592,9.644,8.7154,6.8627,4.9261,11.765,0.95694,-8.6349,0.06349,-2.8846,-9.5974,14.295,13.397,6.8627,-9.7907
15.103,22.921,10.68,14.706,8.867,15.266,16.504999,7.7023,12.618,14.706,8.867,12.745,5.7416,1.8413,5.7778,14.423,-0.90177,10.449,23.872999,7.8431,4.7021
11.311,27.683001,12.621,7.8431,8.867,17.198,13.592,4.7896,14.569,7.8431,8.867,11.765,6.6986,5.6508,6.7302,25.0,3.9291,3.7179,25.778,4.902,14.364
4.6761,27.683001,10.68,3.9216,17.733999,10.435,13.592,2.8479,14.569,3.9216,17.733999,8.8235,5.7416,11.365,1.9683,31.731001,4.8953,-1.0897,27.683001,0.0,24.025999
-1.9589,28.635,7.767,8.8235,21.674999,0.77295,18.447001,-2.0065,13.593,8.8235,21.674999,6.8627,5.7416,14.222,-0.88889,34.615002,6.8277,-6.859,23.872999,-4.902,29.823
-5.7504,25.778,6.7961,-0.98039,6.8966,-11.787,19.417,-7.8317,6.7642,-0.98039,6.8966,4.902,5.7416,14.222,-1.8413,34.615002,9.7262,-11.667,16.254,-8.8235,32.721001
-7.6461,14.349,5.8252,-15.686,-5.9113,-23.382,0.97087,-11.715,-4.9431,-15.686,-5.9113,1.9608,4.7847,15.175,-3.746,29.808001,11.659,-11.667,7.6825,-10.784,30.789
-10.49,-3.746,-0.97087,-1.9608,-12.808,-11.787,-17.476,-11.715,-19.577,-1.9608,-12.808,-4.902,3.8278,12.317,-4.6984,18.268999,8.7601,-9.7436,-4.6984,-10.784,23.059999
-14.281,-20.889,-9.7087,-2.9412,-11.823,-3.0918,-28.155001,-10.744,-32.259998,-2.9412,-11.823,-13.725,0.95694,3.746,-4.6984,0.0,0.06441,-7.8205,-20.889,-11.765,9.533
-10.49,-32.317001,-14.563,-2.9412,-14.778,-2.1256,-31.068001,-3.9482,-37.138,-2.9412,-14.778,-14.706,-0.95694,-4.8254,0.06349,-16.346001,-3.8003,-2.0513,-34.222,-8.8235,-5.9259
-4.8025,-34.222,-12.621,2.9412,-12.808,2.7053,-25.243,5.7605,-32.259998,2.9412,-12.808,-10.784,-2.8708,-12.444,3.873,-27.885,-4.7665,5.641,-35.174999,-4.902,-21.385
-1.9589,-28.507999,-6.7961,-3.9216,-10.837,0.77295,-18.447001,9.644,-24.455,-3.9216,-10.837,-5.8824,-3.8278,-19.111,3.873,-31.731001,-6.6989,9.4872,-36.126999,-4.902,-30.080999
-2.9068,-21.841,-5.8252,-1.9608,-11.823,3.6715,-12.621,10.615,-17.625999,-1.9608,-11.823,-3.9216,-4.7847,-19.111,-2.7937,-29.808001,-6.6989,9.4872,-34.222,-4.902,-32.013
-7.6461,-18.032,-12.621,-3.9216,-6.8966,-4.058,-9.7087,7.7023,-8.8455,-3.9216,-6.8966,-6.8627,-5.7416,-18.159,-11.365,-25.0,-9.5974,6.6026,-26.603001,-8.8235,-31.047001
-7.6461,-10.413,-15.534,-6.8627,-8.867,-5.9903,-8.7379,3.8188,-1.0407,-6.8627,-8.867,-9.8039,-4.7847,-12.444,-13.27,-13.462,-8.6312,2.7564,-14.222,-11.765,-20.419001
-6.6983,-0.88889,-11.65,4.902,-6.8966,-6.9565,-13.592,0.90615,7.7398,4.902,-6.8966,-12.745,-1.9139,-5.7778,-11.365,2.8846,-1.868,-2.0513,3.873,-8.8235,-7.8583
-1.0111,14.349,-0.97087,5.8824,6.8966,-5.0242,2.9126,-3.9482,21.398001,5.8824,6.8966,-6.8627,4.7847,4.6984,-5.6508,23.077,10.692,-5.8974,25.778,-3.9216,8.5668
5.624,34.348999,12.621,3.9216,15.764,11.401,26.214001,-10.744,34.081001,3.9216,15.764,5.8824,12.44,16.127001,7.6825,42.307999,24.219,-8.7821,44.825001,0.98039,27.889999
9.4155,43.873001,21.358999,3.9216,17.733999,15.266,32.039001,-17.540001,38.959,3.9216,17.733999,13.725,17.225,24.698,15.302,53.846001,32.915001,-11.667,58.159,4.902,42.382999
9.4155,43.873001,24.271999,-4.902,16.749001,3.6715,30.097,-20.452999,37.007999,-4.902,16.749001,12.745,20.096001,28.507999,19.111,57.692001,35.813,-10.705,60.063,7.8431,48.18
6.5719,36.254002,19.417,-4.902,11.823,-3.0918,23.301001,-17.540001,30.179001,-4.902,11.823,6.8627,19.139,26.603001,21.968,52.884998,30.982,-6.859,51.492001,9.8039,44.316002
4.6761,24.825001,12.621,-5.8824,9.8522,-14.686,9.7087,-13.657,25.301001,-5.8824,9.8522,2.9412,20.096001,24.698,21.016001,45.192001,27.118,-3.9744,41.967999,10.784,39.485001
7.5197,14.349,10.68,-3.9216,5.9113,-18.551001,3.8835,-9.7735,18.472,-3.9216,5.9113,2.9412,22.966999,24.698,23.872999,37.5,26.150999,1.7949,31.492001,12.745,30.789
12.259,8.6349,11.65,-1.9608,5.9113,2.7053,4.8544,-4.9191,12.618,-1.9608,5.9113,5.8824,24.879999,18.032,28.635,26.923,24.219,8.5256,16.254,15.686,16.296
11.311,1.0159,7.767,-0.98039,2.9557,7.5362,0.97087,-2.9773,4.813,-0.98039,2.9557,2.9412,21.052999,10.413,25.778,14.423,20.354,10.449,1.0159,12.745,3.7359
5.624,-10.413,0.97087,-8.8235,-5.9113,-5.0242,-10.68,-4.9191,-5.9187,-8.8235,-5.9113,-0.98039,13.397,4.6984,19.111,1.9231,13.591,8.5256,-9.4603,6.8627,-2.0612
-1.9589,-22.794001,-7.767,-12.745,-6.8966,-7.9227,-21.358999,-6.8608,-13.724,-12.745,-6.8966,-6.8627,3.8278,-1.9683,7.6825,-11.538,2.963,5.641,-25.650999,0.0,-7.8583
-9.5419,-32.317001,-15.534,0.98039,-3.9409,-16.618,-30.097,-6.8608,-19.577,0.98039,-3.9409,-11.765,-1.9139,-9.5873,-1.8413,-26.923,-7.6651,1.7949,-35.174999,-5.8824,-18.486
-14.281,-36.126999,-18.447001,0.0,-6.8966,-18.551001,-18.447001,-3.9482,-19.577,0.0,-6.8966,-10.784,-8.6124,-12.444,-9.4603,-35.577,-14.428,-0.12821,-34.222,-9.8039,-25.25
-14.281,-34.222,-18.447001,1.9608,-7.8818,-5.9903,-6.7961,-1.0356,-11.772,1.9608,-7.8818,-4.902,-12.44,-14.349,-14.222,-42.307999,-21.191999,-0.12821,-29.459999,-10.784,-30.080999
-14.281,-29.459999,-17.476,6.8627,1.9704,0.77295,-7.767,0.90615,-1.0407,6.8627,1.9704,0.98039,-14.354,-14.349,-18.032,-45.192001,-25.056,-0.12821,-25.650999,-11.765,-32.013
-15.229,-24.698,-17.476,1.9608,8.867,-2.1256,-4.8544,-0.06472,3.8374,1.9608,8.867,1.9608,-15.311,-11.492,-22.794001,-39.423,-25.056,-3.0128,-16.127001,-12.745,-27.181999
-15.229,-16.127001,-15.534,3.9216,10.837,-1.1594,-3.8835,-0.06472,6.7642,3.9216,10.837,-3.9216,-15.311,-8.6349,-24.698,-25.962,-22.158001,-3.0128,-8.5079,-12.745,-21.385
-15.229,-6.6032,-10.68,3.9216,3.9409,-12.754,-0.97087,-3.9482,10.667,3.9216,3.9409,-7.8431,-13.397,-9.5873,-21.841,-12.5,-19.259001,-5.8974,-4.6984,-8.8235,-13.655
-18.073,-0.88889,-10.68,-5.8824,-10.837,-15.652,3.8835,-7.8317,13.593,-5.8824,-10.837,-11.765,-15.311,-14.349,-21.841,-6.7308,-19.259001,-9.7436,1.9683,-8.8235,-11.723
-19.021,5.7778,-9.7087,-13.725,0.0,-14.686,4.8544,-9.7735,17.496,-13.725,0.0,-12.745,-13.397,-14.349,-15.175,-1.9231,-18.292999,-12.628,13.397,-9.8039,-6.8921
-16.177,12.444,-7.767,-5.8824,8.867,-12.754,8.7379,-8.8026,17.496,-5.8824,8.867,-9.8039,-6.6986,-12.444,-5.6508,0.96154,-14.428,-10.705,17.205999,-1.9608,-0.12882
-10.49,15.302,-3.8835,4.902,9.8522,-13.72,9.7087,-9.7735,15.545,4.902,9.8522,-7.8431,-0.95694,-9.5873,2.9206,3.8462,-7.6651,-4.9359,19.111,6.8627,0.83736
-1.9589,17.205999,0.97087,11.765,8.867,-2.1256,18.447001,-7.8317,15.545,11.765,8.867,-2.9412,1.9139,-7.6825,10.54,7.6923,-0.90177,-0.12821,21.968,11.765,0.83736
8.4676,15.302,8.7379,13.725,8.867,15.266,18.447001,-2.9773,13.593,13.725,8.867,1.9608,2.8708,-5.7778,16.254,11.538,6.8277,1.7949,13.397,12.745,3.7359
16.051001,7.6825,11.65,13.725,12.808,12.367,9.7087,-1.0356,6.7642,13.725,12.808,5.8824,2.8708,-2.9206,19.111,12.5,13.591,3.7179,3.873,12.745,8.5668
17.945999,1.0159,8.7379,12.745,3.9409,17.198,1.9417,0.90615,-1.0407,12.745,3.9409,7.8431,2.8708,2.7937,18.159,12.5,16.49,5.641,0.06349,9.8039,14.364
18.893999,-1.8413,7.767,6.8627,-1.9704,8.5024,0.0,1.877,-7.8699,6.8627,-1.9704,7.8431,4.7847,12.317,17.205999,12.5,17.455999,5.641,-5.6508,8.8235,19.195
17.945999,-3.746,5.8252,-2.9412,-9.8522,7.5362,-6.7961,-0.06472,-8.8455,-2.9412,-9.8522,7.8431,5.7416,16.127001,13.397,10.577,15.523,2.7564,-7.5556,5.8824,18.229
13.207,-6.6032,3.8835,1.9608,-9.8522,8.5024,-11.65,-2.9773,-4.9431,1.9608,-9.8522,3.9216,7.6555,16.127001,8.6349,4.8077,12.625,-0.12821,-5.6508,3.9216,14.364
6.5719,-13.27,-0.97087,8.8235,-10.837,9.4686,-13.592,-4.9191,0.91057,8.8235,-10.837,-1.9608,7.6555,13.27,6.7302,-1.9231,6.8277,-3.0128,-0.88889,3.9216,10.499
1.8325,-20.889,-4.8544,3.9216,-6.8966,5.6039,-11.65,-6.8608,5.7886,3.9216,-6.8966,-6.8627,4.7847,8.5079,1.9683,-10.577,1.0306,-4.9359,-0.88889,0.98039,4.7021
-2.9068,-29.459999,-13.592,-5.8824,-15.764,-5.0242,-11.65,-7.8317,5.7886,-5.8824,-15.764,-10.784,0.0,0.88889,-4.6984,-23.077,-7.6651,-6.859,-1.8413,-1.9608,-7.8583
-7.6461,-32.317001,-20.388,-9.8039,-10.837,-18.551001,-12.621,-8.8026,3.8374,-9.8039,-10.837,-12.745,-6.6986,-9.5873,-11.365,-36.537998,-18.292999,-8.7821,-5.6508,-5.8824,-20.419001
-9.5419,-32.317001,-24.271999,-8.8235,0.0,-8.8889,-13.592,-5.89,1.8862,-8.8235,0.0,-12.745,-10.526,-16.254,-17.079,-47.115002,-26.989,-9.7436,-15.175,-8.8235,-30.080999
-11.438,-25.650999,-22.33,-0.98039,-1.9704,2.7053,-12.621,-3.9482,3.8374,-0.98039,-1.9704,-8.8235,-10.526,-16.254,-18.032,-49.037998,-31.82,-7.8205,-14.222,-8.8235,-36.844002
-10.49,-11.365,-14.563,6.8627,6.8966,2.7053,-0.97087,-2.9773,5.7886,6.8627,6.8966,-4.902,-8.6124,-13.397,-12.317,-40.384998,-27.955,-6.859,-9.4603,-7.8431,-32.979
-6.6983,2.9206,-3.8835,6.8627,8.867,-3.0918,15.534,-2.0065,8.7154,6.8627,8.867,-2.9412,-1.9139,-4.8254,-3.746,-19.231001,-12.496,-6.859,-0.88889,-6.8627,-21.385
-2.9068,13.397,5.8252,-6.8627,3.9409,-10.821,22.33,-4.9191,7.7398,-6.8627,3.9409,0.0,8.6124,7.5556,3.873,3.8462,6.8277,-8.7821,1.0159,-3.9216,-4.9597
-2.9068,18.159,7.767,-4.902,-7.8818,-23.382,18.447001,-7.8317,3.8374,-4.902,-7.8818,-4.902,13.397,18.983999,8.6349,21.153999,16.49,-13.59,1.9683,-3.9216,10.499
-6.6983,16.254,5.8252,-4.902,-1.9704,-15.652,8.7379,-9.7735,-2.0163,-4.902,-1.9704,-9.8039,14.354,24.698,9.5873,32.692001,20.354,-15.513,3.873,-0.98039,23.059999
-5.7504,13.397,7.767,-16.667,-5.9113,-14.686,-0.97087,-9.7735,-9.8211,-16.667,-5.9113,-9.8039,18.181999,32.317001,11.492,43.269001,25.184999,-15.513,-0.88889,3.9216,32.721001
-1.0111,8.6349,10.68,-9.8039,-15.764,-8.8889,-6.7961,-5.89,-15.675,-9.8039,-15.764,-6.8627,22.966999,38.984001,16.254,50.0,31.948,-11.667,-0.88889,6.8627,39.485001
-0.06319,2.9206,12.621,6.8627,-9.8522,4.6377,-12.621,-2.9773,-15.675,6.8627,-9.8522,-5.8824,25.837,43.745998,19.111,52.884998,34.847,-9.7436,-3.746,9.8039,44.316002
-0.06319,-0.88889,7.767,8.8235,-3.9409,-0.19324,-10.68,-2.0065,-10.797,8.8235,-3.9409,0.98039,21.052999,38.984001,14.349,47.115002,29.049999,-9.7436,-7.5556,7.8431,42.382999
-5.7504,-1.8413,-1.9417,5.8824,4.9261,-0.19324,-1.9417,-1.0356,-0.06504,5.8824,4.9261,7.8431,7.6555,26.603001,3.873,32.692001,13.591,-11.667,0.06349,0.98039,32.721001
-8.594,-2.7937,-8.7379,8.8235,12.808,-2.1256,10.68,-0.06472,13.593,8.8235,12.808,15.686,-7.6555,10.413,-12.317,11.538,-6.6989,-13.59,13.397,-7.8431,18.229
-11.438,-6.6032,-16.504999,6.8627,12.808,-2.1256,11.65,1.877,24.325001,6.8627,12.808,19.608,-22.01,-6.7302,-25.650999,-11.538,-25.056,-14.551,18.159,-16.667,-0.12882
-11.438,-11.365,-22.33,5.8824,15.764,-2.1256,12.621,3.8188,27.252001,5.8824,15.764,20.587999,-28.708,-17.205999,-29.459999,-29.808001,-38.583,-14.551,18.159,-19.608,-13.655
-15.229,-15.175,-27.184,17.646999,13.793,8.5024,12.621,2.8479,27.252001,17.646999,13.793,13.725,-31.579,-21.968,-32.317001,-40.384998,-45.346001,-12.628,14.349,-21.569,-24.283001
-18.073,-20.889,-31.068001,12.745,11.823,9.4686,6.7961,-2.0065,24.325001,12.745,11.823,1.9608,-35.407001,-25.778,-36.126999,-47.115002,-47.278999,-12.628,12.444,-24.51,-29.114
-20.916,-24.698,-33.980999,5.8824,-0.98522,-5.0242,0.0,-2.9773,19.447001,5.8824,-0.98522,-6.8627,-38.278,-25.778,-38.984001,-46.153999,-46.312,-8.7821,5.7778,-24.51,-29.114
-24.708,-27.556,-35.922001,1.9608,-11.823,-20.483,-5.8252,-4.9191,10.667,1.9608,-11.823,-18.627001,-36.363998,-26.73,-38.032001,-43.269001,-43.414001,-5.8974,1.0159,-21.569,-27.181999
-26.603001,-30.413,-34.951,-17.646999,-15.764,-26.280001,-12.621,-7.8317,2.8618,-17.646999,-15.764,-25.49,-32.535999,-25.778,-33.27,-36.537998,-36.651001,-6.859,1.9683,-19.608,-21.385
-29.447001,-28.507999,-33.009998,-24.51,-23.645,-26.280001,-16.504999,-6.8608,-2.0163,-24.51,-23.645,-29.412001,-23.923,-20.063,-27.556,-25.962,-29.886999,-4.9359,-3.746,-15.686,-12.689
-29.447001,-24.698,-31.068001,-13.725,-13.793,-33.042999,-16.504999,-5.89,-4.9431,-13.725,-13.793,-29.412001,-17.225,-16.254,-23.746,-17.308001,-25.056,-5.8974,-3.746,-13.725,-3.0274
-26.603001,-20.889,-26.214001,3.9216,0.0,-19.517,-14.563,-2.0065,-7.8699,3.9216,0.0,-27.451,-11.483,-10.54,-17.079,-7.6923,-17.327,-5.8974,-1.8413,-10.784,4.7021
-19.968,-13.27,-18.447001,2.9412,-4.9261,-5.9903,-7.767,1.877,-11.772,2.9412,-4.9261,-23.528999,-4.7847,-7.6825,-8.5079,0.0,-8.6312,-2.0513,-2.7937,-3.9216,8.5668
-10.49,-3.746,-8.7379,-3.9216,-3.9409,-12.754,-0.97087,2.8479,-9.8211,-3.9216,-3.9409,-16.667,1.9139,-3.873,3.873,4.8077,0.06441,1.7949,0.06349,2.9412,9.533
-1.0111,2.9206,0.97087,-2.9412,1.9704,-7.9227,4.8544,3.8188,-4.9431,-2.9412,1.9704,-12.745,7.6555,1.8413,11.492,8.6538,5.8615,2.7564,3.873,8.8235,10.499
3.7283,6.7302,5.8252,0.98039,6.8966,4.6377,9.7087,3.8188,2.8618,0.98039,6.8966,-9.8039,8.6124,5.6508,12.444,10.577,4.8953,2.7564,8.6349,9.8039,13.398
4.6761,9.5873,8.7379,-1.9608,10.837,5.6039,9.7087,3.8188,8.7154,-1.9608,10.837,-5.8824,3.8278,4.6984,8.6349,7.6923,-1.868,1.7949,14.349,5.8824,11.465
3.7283,7.6825,6.7961,-4.902,5.9113,0.77295,8.7379,2.8479,10.667,-4.902,5.9113,-3.9216,-1.9139,-1.0159,0.06349,0.0,-9.5974,-0.12821,14.349,1.9608,3.7359
6.5719,3.873,1.9417,-8.8235,-1.9704,3.6715,9.7087,4.7896,7.7398,-8.8235,-1.9704,0.0,-4.7847,-6.7302,-5.6508,-10.577,-16.361,0.83333,14.349,-1.9608,-4.9597
8.4676,0.06349,0.0,-1.9608,-12.808,12.367,1.9417,11.586,1.8862,-1.9608,-12.808,5.8824,-7.6555,-7.6825,-7.5556,-19.231001,-20.225,6.6026,10.54,0.0,-10.757
7.5197,-8.5079,-4.8544,7.8431,-10.837,19.129999,-9.7087,17.410999,-4.9431,7.8431,-10.837,6.8627,-11.483,-17.205999,-11.365,-29.808001,-24.09,12.372,-6.6032,1.9608,-23.316999
4.6761,-16.127001,-10.68,12.745,-7.8818,16.232,-11.65,20.323999,-12.748,12.745,-7.8818,5.8824,-16.268,-25.778,-13.27,-34.615002,-27.955,16.218,-19.937,-1.9608,-32.979
4.6761,-18.032,-10.68,4.902,-12.808,14.3,-15.534,20.323999,-18.601999,4.902,-12.808,4.902,-17.225,-25.778,-9.4603,-29.808001,-24.09,18.141001,-18.032,-2.9412,-32.013
4.6761,-15.175,-7.767,-6.8627,-17.733999,22.028999,-17.476,18.382,-20.552999,-6.8627,-17.733999,2.9412,-16.268,-24.825001,-5.6508,-22.115,-17.327,19.103001,-18.032,-1.9608,-26.216
3.7283,-13.27,-6.7961,3.9216,-12.808,24.927999,-15.534,16.440001,-23.48,3.9216,-12.808,-0.98039,-11.483,-21.016001,-2.7937,-13.462,-11.53,18.141001,-16.127001,0.0,-18.486
4.6761,-8.5079,-4.8544,14.706,-12.808,12.367,-17.476,12.557,-24.455,14.706,-12.808,-5.8824,-4.7847,-14.349,1.9683,-2.8846,-1.868,17.179001,-13.27,2.9412,-9.7907
4.6761,-5.6508,0.0,7.8431,-19.704,3.6715,-18.447001,5.7605,-22.504,7.8431,-19.704,-9.8039,0.0,-6.7302,5.7778,6.7308,6.8277,13.333,-12.317,4.902,-1.095
1.8325,-3.746,2.9126,-0.98039,-23.645,-1.1594,-19.417,-0.06472,-22.504,-0.98039,-23.645,-12.745,4.7847,-0.06349,6.7302,11.538,12.625,9.4872,-11.365,6.8627,3.7359
1.8325,-0.88889,7.767,-19.608,-22.66,-5.0242,-25.243,-4.9191,-20.552999,-19.608,-22.66,-13.725,10.526,4.6984,11.492,13.462,16.49,5.641,-5.6508,8.8235,5.6683
-0.06319,2.9206,11.65,-25.49,-13.793,-19.517,-21.358999,-9.7735,-18.601999,-25.49,-13.793,-11.765,15.311,11.365,13.397,15.385,18.422001,3.7179,-8.5079,11.765,8.5668
-4.8025,8.6349,11.65,-14.706,-10.837,-21.448999,-15.534,-12.686,-16.65,-14.706,-10.837,-7.8431,16.268,14.222,12.444,16.346001,17.455999,-0.12821,-7.5556,12.745,10.499
-8.594,18.159,14.563,2.9412,-5.9113,-20.483,2.9126,-12.686,-11.772,2.9412,-5.9113,0.98039,17.225,15.175,11.492,17.308001,17.455999,-3.0128,-0.88889,9.8039,9.533
-4.8025,28.635,22.33,10.784,10.837,-6.9565,18.447001,-8.8026,-3.9675,10.784,10.837,13.725,15.311,13.27,9.5873,16.346001,18.422001,-5.8974,-0.88889,5.8824,8.5668
-1.0111,35.301998,24.271999,11.765,10.837,15.266,28.155001,-3.9482,3.8374,11.765,10.837,24.51,11.483,9.4603,3.873,15.385,18.422001,-5.8974,1.9683,1.9608,4.7021
0.88468,37.206001,21.358999,20.587999,23.645,13.333,36.893002,1.877,10.667,20.587999,23.645,30.392,4.7847,5.6508,-0.88889,11.538,13.591,-5.8974,8.6349,-1.9608,3.7359
8.4676,40.063,25.243,23.528999,40.394001,17.198,41.748001,6.7314,14.569,23.528999,40.394001,37.255001,1.9139,4.6984,-0.88889,10.577,13.591,-2.0513,15.302,-2.9412,7.6006
16.997999,42.921001,30.097,17.646999,32.512001,18.164,39.806,9.644,16.52,17.646999,32.512001,42.157001,0.95694,4.6984,2.9206,16.346001,21.32,0.83333,18.159,-1.9608,10.499
24.580999,42.921001,33.980999,8.8235,19.704,11.401,33.980999,7.7023,14.569,8.8235,19.704,41.175999,0.0,6.6032,8.6349,21.153999,26.150999,3.7179,22.921,-1.9608,13.398
25.528999,38.159,33.009998,16.667,9.8522,14.3,20.388,7.7023,8.7154,16.667,9.8522,35.293999,2.8708,6.6032,13.397,23.077,28.084,9.4872,17.205999,3.9216,16.296
26.476999,33.396999,30.097,27.451,13.793,28.792,10.68,8.6731,-0.06504,27.451,13.793,27.451,6.6986,10.413,18.159,26.923,31.948,14.295,9.5873,9.8039,20.160999
25.528999,28.635,27.184,21.569,7.8818,30.725,8.7379,8.6731,-4.9431,21.569,7.8818,20.587999,7.6555,11.365,21.968,26.923,31.948,17.179001,4.8254,11.765,19.195
23.632999,22.921,26.214001,8.8235,-7.8818,16.232,4.8544,7.7023,-8.8455,8.8235,-7.8818,14.706,7.6555,12.317,21.016001,24.038,28.084,19.103001,1.9683,12.745,19.195
21.738001,14.349,22.33,-6.8627,-13.793,-0.19324,-9.7087,4.7896,-12.748,-6.8627,-13.793,9.8039,7.6555,13.27,17.205999,19.231001,23.253,21.025999,-1.8413,11.765,14.364
18.893999,9.5873,15.534,-6.8627,-7.8818,-7.9227,-9.7087,1.877,-13.724,-6.8627,-7.8818,6.8627,6.6986,12.317,16.254,12.5,14.557,19.103001,-7.5556,12.745,8.5668
16.997999,6.7302,10.68,12.745,0.0,13.333,-4.8544,0.90615,-12.748,12.745,0.0,6.8627,8.6124,14.222,18.159,8.6538,10.692,17.179001,-10.413,13.725,7.6006
16.051001,4.8254,12.621,11.765,0.0,15.266,-3.8835,-2.0065,-11.772,11.765,0.0,6.8627,11.483,15.175,20.063,9.6154,14.557,16.218,-10.413,15.686,5.6683
18.893999,8.6349,17.476,-3.9216,0.0,4.6377,1.9417,-7.8317,-9.8211,-3.9216,0.0,7.8431,13.397,14.222,22.921,12.5,20.354,16.218,-13.27,19.608,1.8035
18.893999,14.349,21.358999,-4.902,-7.8818,-6.9565,6.7961,-8.8026,-3.9675,-4.902,-7.8818,7.8431,12.44,9.4603,24.825001,11.538,21.32,15.256,-10.413,17.646999,-1.095
16.997999,19.111,25.243,-12.745,-3.9409,-2.1256,17.476,-5.89,3.8374,-12.745,-3.9409,9.8039,8.6124,2.7937,22.921,9.6154,23.253,14.295,-5.6508,14.706,-7.8583
18.893999,23.872999,26.214001,0.0,17.733999,7.5362,14.563,-0.06472,10.667,0.0,17.733999,11.765,5.7416,-1.0159,22.921,10.577,27.118,15.256,0.06349,12.745,-9.7907
20.790001,25.778,29.125999,5.8824,24.631001,8.5024,19.417,3.8188,15.545,5.8824,24.631001,10.784,4.7847,-1.0159,22.921,15.385,30.982,15.256,9.5873,8.8235,-6.8921
19.841999,25.778,28.155001,4.902,17.733999,6.57,25.243,4.7896,17.496,4.902,17.733999,8.8235,4.7847,-0.06349,22.921,20.191999,31.948,13.333,18.159,7.8431,-3.0274
17.945999,24.825001,24.271999,-6.8627,7.8818,1.7391,22.33,3.8188,14.569,-6.8627,7.8818,8.8235,3.8278,2.7937,21.968,25.0,29.049999,11.41,21.016001,7.8431,5.6683
16.997999,17.205999,20.388,0.98039,-4.9261,7.5362,12.621,5.7605,6.7642,0.98039,-4.9261,6.8627,1.9139,1.8413,20.063,20.191999,23.253,11.41,11.492,7.8431,7.6006
16.997999,7.6825,16.504999,2.9412,-12.808,7.5362,1.9417,6.7314,-2.0163,2.9412,-12.808,6.8627,1.9139,-1.0159,16.254,13.462,17.455999,11.41,0.06349,8.8235,7.6006
13.207,1.0159,12.621,-8.8235,-10.837,4.6377,-4.8544,3.8188,-6.8943,-8.8235,-10.837,5.8824,1.9139,0.88889,11.492,12.5,11.659,9.4872,-1.8413,9.8039,14.364
9.4155,-3.746,9.7087,-3.9216,-12.808,3.6715,-17.476,0.90615,-10.797,-3.9216,-12.808,2.9412,5.7416,7.5556,10.54,14.423,9.7262,6.6026,-4.6984,11.765,19.195
2.7804,-10.413,2.9126,0.0,-19.704,-7.9227,-26.214001,-2.9773,-13.724,0.0,-19.704,-2.9412,12.44,13.27,10.54,14.423,10.692,1.7949,-6.6032,13.725,23.059999
2.7804,-17.079,0.0,-7.8431,-16.749001,-6.9565,-28.155001,-2.9773,-17.625999,-7.8431,-16.749001,-7.8431,21.052999,21.841,16.254,17.308001,16.49,-2.0513,-8.5079,14.706,24.025999
2.7804,-22.794001,-0.97087,-2.9412,-11.823,-11.787,-31.068001,-3.9482,-19.577,-2.9412,-11.823,-16.667,24.879999,24.698,20.063,15.385,17.455999,-3.0128,-8.5079,18.627001,20.160999
-4.8025,-25.650999,-5.8252,0.98039,-15.764,2.7053,-32.039001,-2.9773,-17.625999,0.98039,-15.764,-24.51,22.966999,18.983999,15.302,6.7308,9.7262,-1.0897,-11.365,18.627001,9.533
-6.6983,-22.794001,-9.7087,1.9608,-9.8522,1.7391,-23.301001,-2.9773,-10.797,1.9608,-9.8522,-22.549,16.268,12.317,6.7302,-4.8077,-1.868,1.7949,-13.27,13.725,-2.0612
-3.8547,-14.222,-6.7961,3.9216,0.0,-0.19324,-12.621,-2.0065,-1.0407,3.9216,0.0,-14.706,13.397,5.6508,2.9206,-14.423,-7.6651,0.83333,-10.413,9.8039,-11.723
0.88468,-4.6984,-0.97087,4.902,2.9557,1.7391,0.0,-1.0356,4.813,4.902,2.9557,-6.8627,13.397,1.8413,1.0159,-18.268999,-4.7665,-3.0128,-7.5556,3.9216,-17.52
1.8325,1.9683,1.9417,3.9216,7.8818,-2.1256,0.97087,-1.0356,10.667,3.9216,7.8818,-0.98039,10.526,-3.873,-3.746,-17.308001,-2.8341,-5.8974,1.0159,-3.9216,-18.486
0.88468,11.492,2.9126,3.9216,15.764,-5.0242,10.68,1.877,20.423,3.9216,15.764,4.902,1.9139,-9.5873,-9.4603,-13.462,-3.8003,-5.8974,11.492,-12.745,-17.52
-0.06319,17.205999,0.97087,3.9216,24.631001,0.77295,24.271999,2.8479,25.301001,3.9216,24.631001,9.8039,-12.44,-18.159,-18.983999,-10.577,-9.5974,-8.7821,24.825001,-23.528999,-15.588
-4.8025,14.349,-6.7961,8.8235,22.66,3.6715,20.388,0.90615,25.301001,8.8235,22.66,5.8824,-28.708,-23.872999,-30.413,-7.6923,-17.327,-10.705,24.825001,-34.313999,-9.7907
-9.5419,7.6825,-14.563,11.765,11.823,3.6715,12.621,-0.06472,20.423,11.765,11.823,0.0,-33.493,-23.872999,-32.317001,-4.8077,-23.124001,-8.7821,20.063,-32.353001,-2.0612
-10.49,1.0159,-19.417,2.9412,4.9261,-0.19324,3.8835,-1.0356,15.545,2.9412,4.9261,-2.9412,-27.750999,-20.063,-27.556,0.0,-22.158001,-6.859,20.063,-23.528999,6.6345
-9.5419,-3.746,-19.417,-1.9608,4.9261,-5.9903,0.97087,-2.0065,8.7154,-1.9608,4.9261,-4.902,-17.225,-14.349,-18.983999,7.6923,-16.361,-3.0128,15.302,-13.725,11.465
-4.8025,-4.6984,-17.476,-3.9216,3.9409,-4.058,0.0,-1.0356,7.7398,-3.9216,3.9409,-1.9608,-5.7416,-4.8254,-7.5556,13.462,-8.6312,1.7949,7.6825,-2.9412,15.33
-4.8025,-7.5556,-16.504999,0.0,1.9704,1.7391,-1.9417,1.877,4.813,0.0,1.9704,-5.8824,1.9139,2.7937,1.9683,14.423,-2.8341,6.6026,-0.88889,5.8824,17.261999
-5.7504,-13.27,-14.563,-3.9216,-7.8818,5.6039,-5.8252,3.8188,-1.0407,-3.9216,-7.8818,-12.745,10.526,9.4603,8.6349,17.308001,2.963,11.41,-6.6032,12.745,17.261999
-5.7504,-18.032,-15.534,-10.784,-10.837,-4.058,-25.243,4.7896,-5.9187,-10.784,-10.837,-16.667,18.181999,16.127001,15.302,19.231001,9.7262,14.295,-12.317,17.646999,16.296
-6.6983,-25.650999,-16.504999,-9.8039,-14.778,-14.686,-27.184,4.7896,-12.748,-9.8039,-14.778,-21.569,24.879999,18.983999,18.159,17.308001,14.557,14.295,-16.127001,19.608,14.364
-5.7504,-27.556,-14.563,-9.8039,-16.749001,-9.8551,-25.243,4.7896,-17.625999,-9.8039,-16.749001,-21.569,29.665001,21.841,20.063,14.423,18.422001,13.333,-18.032,19.608,13.398
-6.6983,-25.650999,-13.592,-2.9412,-12.808,1.7391,-23.301001,7.7023,-14.699,-2.9412,-12.808,-15.686,25.837,18.983999,18.159,6.7308,15.523,9.4872,-17.079,16.667,5.6683
-7.6461,-17.079,-9.7087,9.8039,-4.9261,1.7391,-7.767,10.615,-2.9919,9.8039,-4.9261,-0.98039,18.181999,12.317,11.492,-7.6923,2.963,1.7949,-12.317,9.8039,-5.9259
-4.8025,-4.6984,-3.8835,15.686,14.778,13.333,11.65,14.498,11.642,15.686,14.778,16.667,8.6124,-0.06349,1.9683,-25.0,-10.564,0.83333,-7.5556,0.98039,-22.351
-2.9068,8.6349,1.9417,24.51,33.498001,18.164,32.039001,16.440001,23.35,24.51,33.498001,28.431,-1.9139,-13.397,-6.6032,-34.615002,-17.327,-0.12821,-2.7937,-4.902,-33.945
-1.9589,21.968,3.8835,24.51,34.483002,17.198,45.631001,12.557,29.202999,24.51,34.483002,32.353001,-13.397,-21.016001,-15.175,-33.653999,-22.158001,-5.8974,4.8254,-10.784,-33.945
-0.06319,26.73,4.8544,24.51,38.424,12.367,46.602001,9.644,30.179001,24.51,38.424,31.372999,-23.923,-23.872999,-23.746,-26.923,-23.124001,-10.705,15.302,-16.667,-27.181999
2.7804,24.825001,4.8544,13.725,30.542,13.333,42.717999,15.469,29.202999,13.725,30.542,28.431,-29.665001,-21.968,-26.603001,-16.346001,-24.09,-11.667,21.016001,-20.587999,-17.52
-1.0111,21.016001,0.0,0.98039,29.556999,1.7391,33.980999,1.877,23.35,0.98039,29.556999,21.569,-29.665001,-17.205999,-25.650999,-9.6154,-25.056,-13.59,23.872999,-23.528999,-5.9259
-5.7504,15.302,-1.9417,-13.725,17.733999,-7.9227,24.271999,-8.8026,18.472,-13.725,17.733999,15.686,-23.923,-8.6349,-22.794001,-3.8462,-25.056,-16.474001,29.587,-23.528999,3.7359
-9.5419,5.7778,-6.7961,-12.745,11.823,-0.19324,16.504999,-2.0065,16.52,-12.745,11.823,12.745,-20.096001,-3.873,-25.650999,-1.9231,-25.056,-10.705,23.872999,-23.528999,5.6683
-10.49,0.06349,-11.65,2.9412,19.704,5.6039,7.767,-2.0065,14.569,2.9412,19.704,7.8431,-16.268,-0.06349,-25.650999,-1.9231,-24.09,-5.8974,15.302,-20.587999,6.6345
-11.438,-7.5556,-19.417,9.8039,6.8966,-3.0918,12.621,-1.0356,8.7154,9.8039,6.8966,-1.9608,-14.354,-0.06349,-27.556,-4.8077,-25.056,-5.8974,6.7302,-18.627001,6.6345
-11.438,-19.937,-30.097,1.9608,-8.867,-3.0918,0.97087,5.7605,-6.8943,1.9608,-8.867,-8.8235,-11.483,-1.9683,-27.556,-8.6538,-26.023001,-2.0513,-6.6032,-14.706,2.7697
-16.177,-30.413,-37.863998,-5.8824,-7.8818,-5.0242,-20.388,4.7896,-20.552999,-5.8824,-7.8818,-20.587999,-8.6124,-3.873,-22.794001,-12.5,-26.989,1.7949,-19.937,-6.8627,-0.12882
-22.812,-38.984001,-40.777,-16.667,-19.704,-8.8889,-34.951,0.90615,-29.333,-16.667,-19.704,-30.392,-6.6986,-6.7302,-19.937,-17.308001,-26.989,1.7949,-27.556,-1.9608,-3.0274
-22.812,-44.698002,-38.834999,-22.549,-27.586,-18.551001,-48.543999,2.8479,-30.309,-22.549,-27.586,-36.275002,-5.7416,-5.7778,-18.032,-18.268999,-23.124001,0.83333,-28.507999,0.0,-2.0612
-18.073,-46.603001,-32.039001,-33.333,-28.570999,-22.415001,-52.426998,-1.0356,-32.259998,-33.333,-28.570999,-38.235001,-1.9139,-4.8254,-11.365,-19.231001,-16.361,2.7564,-26.603001,4.902,-2.0612
-19.021,-50.412998,-28.155001,-33.333,-33.498001,-23.382,-59.223,-11.715,-35.187,-33.333,-33.498001,-41.175999,-0.95694,-8.6349,-6.6032,-25.962,-12.496,-3.0128,-27.556,5.8824,-8.8245
-21.864,-55.174999,-30.097,-13.725,-34.483002,-14.686,-59.223,-10.744,-38.113998,-13.725,-34.483002,-43.137001,-2.8708,-14.349,-10.413,-37.5,-12.496,-0.12821,-35.174999,4.902,-17.52
-22.812,-50.412998,-30.097,-4.902,-22.66,-21.448999,-44.66,-6.8608,-28.358,-4.902,-22.66,-35.293999,-2.8708,-20.063,-12.317,-47.115002,-17.327,1.7949,-37.078999,2.9412,-26.216
-17.125,-38.032001,-22.33,-6.8627,-3.9409,-15.652,-19.417,-4.9191,-15.675,-6.8627,-3.9409,-19.608,-0.95694,-21.968,-10.413,-51.923,-19.259001,-0.12821,-30.413,1.9608,-31.047001
-10.49,-21.841,-12.621,4.902,6.8966,3.6715,0.97087,0.90615,-3.9675,4.902,6.8966,-1.9608,0.0,-19.111,-9.4603,-47.115002,-20.225,-3.9744,-17.079,0.98039,-28.148001
-6.6983,-7.5556,-4.8544,15.686,32.512001,4.6377,14.563,0.90615,8.7154,15.686,32.512001,10.784,-3.8278,-15.302,-13.27,-37.5,-22.158001,-9.7436,-4.6984,-3.9216,-20.419001
-5.7504,7.6825,2.9126,23.528999,53.202,9.4686,26.214001,-1.0356,22.374001,23.528999,53.202,20.587999,-8.6124,-12.444,-20.889,-22.115,-21.191999,-18.396999,10.54,-11.765,-11.723
-2.9068,25.778,12.621,28.431,59.112999,17.198,36.893002,-2.0065,37.007999,28.431,59.112999,30.392,-9.5694,-2.9206,-24.698,-1.9231,-14.428,-24.167,24.825001,-17.646999,-1.095
-3.8547,34.348999,16.504999,33.333,59.112999,18.164,50.485001,-4.9191,45.789001,33.333,59.112999,33.333,-7.6555,4.6984,-24.698,11.538,-8.6312,-26.09,33.396999,-18.627001,10.499
-0.06319,36.254002,17.476,34.313999,50.245998,21.063,54.368999,-4.9191,44.813,34.313999,50.245998,33.333,-2.8708,12.317,-18.032,23.077,-0.90177,-22.243999,37.206001,-13.725,19.195
5.624,36.254002,16.504999,32.353001,46.305,22.995001,46.602001,-0.06472,42.862,32.353001,46.305,30.392,1.9139,16.127001,-8.5079,30.768999,4.8953,-16.474001,37.206001,-8.8235,24.992001
10.363,35.301998,18.447001,17.646999,32.512001,18.164,44.66,-1.0356,39.935001,17.646999,32.512001,27.451,6.6986,21.841,1.0159,37.5,9.7262,-9.7436,37.206001,-5.8824,31.754999
10.363,32.444,18.447001,8.8235,19.704,16.232,33.009998,-6.8608,32.130001,8.8235,19.704,21.569,9.5694,24.698,4.8254,39.423,13.591,-5.8974,34.348999,-4.902,34.653999
9.4155,24.825001,16.504999,11.765,21.674999,9.4686,14.563,-6.8608,25.301001,11.765,21.674999,13.725,10.526,23.746,4.8254,38.462002,16.49,-8.7821,27.683001,-4.902,33.688
7.5197,14.349,13.592,7.8431,11.823,3.6715,4.8544,-8.8026,13.593,7.8431,11.823,5.8824,12.44,21.841,4.8254,35.577,19.388,-6.859,24.825001,-2.9412,29.823
10.363,11.492,12.621,-3.9216,7.8818,8.5024,-3.8835,-2.0065,6.7642,-3.9216,7.8818,6.8627,12.44,17.079,8.6349,28.846001,20.354,-1.0897,15.302,0.98039,22.093
13.207,11.492,13.592,-1.9608,13.793,8.5024,8.7379,-2.0065,7.7398,-1.9608,13.793,10.784,11.483,7.5556,10.54,20.191999,17.455999,0.83333,11.492,2.9412,12.432
14.155,12.444,14.563,-1.9608,5.9113,4.6377,19.417,-3.9482,9.6911,-1.9608,5.9113,14.706,9.5694,-1.9683,10.54,13.462,12.625,0.83333,11.492,4.902,2.7697
14.155,9.5873,14.563,6.8627,1.9704,5.6039,11.65,-2.0065,3.8374,6.8627,1.9704,14.706,6.6986,-6.7302,11.492,3.8462,7.7939,0.83333,4.8254,4.902,-3.9936
11.311,1.9683,10.68,5.8824,-0.98522,9.4686,3.8835,-2.9773,4.813,5.8824,-0.98522,8.8235,2.8708,-10.54,9.5873,-3.8462,3.9291,-2.0513,-1.8413,3.9216,-9.7907
5.624,-4.6984,4.8544,-4.902,-2.9557,3.6715,0.0,-7.8317,-3.9675,-4.902,-2.9557,2.9412,0.95694,-8.6349,6.7302,-9.6154,1.0306,-4.9359,-7.5556,1.9608,-9.7907
-0.06319,-8.5079,2.9126,-7.8431,-4.9261,-3.0918,-5.8252,-9.7735,-7.8699,-7.8431,-4.9261,0.0,-0.95694,-6.7302,3.873,-13.462,-1.868,-8.7821,-14.222,-0.98039,-10.757
-7.6461,-13.27,-2.9126,-3.9216,-5.9113,-5.9903,-10.68,-6.8608,-9.8211,-3.9216,-5.9113,-5.8824,-3.8278,-7.6825,-2.7937,-19.231001,-5.7327,-10.705,-19.937,-4.902,-14.622
-9.5419,-16.127001,-10.68,-3.9216,-7.8818,-5.0242,-16.504999,1.877,-14.699,-3.9216,-7.8818,-9.8039,-6.6986,-6.7302,-7.5556,-22.115,-10.564,-10.705,-23.746,-7.8431,-16.554001
-8.594,-15.175,-10.68,-13.725,-14.778,-6.9565,-14.563,-3.9482,-11.772,-13.725,-14.778,-8.8235,-6.6986,-5.7778,-8.5079,-20.191999,-10.564,-8.7821,-21.841,-4.902,-15.588
-0.06319,-3.746,0.97087,-13.725,-5.9113,-7.9227,-5.8252,-3.9482,-6.8943,-13.725,-5.9113,-1.9608,-1.9139,-0.06349,-2.7937,-6.7308,0.06441,-8.7821,-10.413,-1.9608,-5.9259
10.363,7.6825,14.563,-4.902,1.9704,-3.0918,-0.97087,3.8188,-1.0407,-4.902,1.9704,6.8627,1.9139,4.6984,5.7778,7.6923,10.692,-3.0128,2.9206,0.0,1.8035
13.207,14.349,22.33,5.8824,8.867,-2.1256,6.7961,8.6731,5.7886,5.8824,8.867,13.725,1.9139,3.746,8.6349,20.191999,15.523,-1.0897,6.7302,-0.98039,8.5668
15.103,19.111,24.271999,1.9608,11.823,-5.0242,12.621,9.644,12.618,1.9608,11.823,17.646999,0.95694,-0.06349,6.7302,25.0,17.455999,-2.0513,14.349,-3.9216,7.6006
13.207,21.016001,21.358999,7.8431,16.749001,4.6377,10.68,13.528,14.569,7.8431,16.749001,18.627001,-1.9139,-2.9206,1.9683,24.038,15.523,-2.0513,21.968,-5.8824,5.6683
7.5197,21.968,16.504999,15.686,18.719,15.266,13.592,14.498,16.52,15.686,18.719,17.646999,-6.6986,-5.7778,-2.7937,18.268999,10.692,-4.9359,22.921,-8.8235,3.7359
-1.0111,19.111,9.7087,5.8824,11.823,8.5024,14.563,8.6731,15.545,5.8824,11.823,14.706,-10.526,-10.54,-5.6508,11.538,4.8953,-6.859,20.063,-10.784,0.83736
-9.5419,8.6349,0.97087,2.9412,11.823,-4.058,7.767,5.7605,8.7154,2.9412,11.823,0.98039,-10.526,-16.254,-7.5556,3.8462,0.06441,-6.859,13.397,-9.8039,-6.8921
-14.281,0.06349,-6.7961,0.98039,10.837,-8.8889,4.8544,1.877,1.8862,0.98039,10.837,-12.745,-9.5694,-19.111,-4.6984,-1.9231,-2.8341,-5.8974,2.9206,-8.8235,-12.689
-16.177,-5.6508,-12.621,-16.667,-0.98522,-21.448999,-6.7961,-2.9773,-2.9919,-16.667,-0.98522,-20.587999,-6.6986,-17.205999,0.06349,-4.8077,-3.8003,-3.9744,-6.6032,-1.9608,-13.655
-11.438,-7.5556,-10.68,-16.667,-8.867,-16.618,-13.592,-1.0356,-8.8455,-16.667,-8.867,-23.528999,-1.9139,-15.302,6.7302,-2.8846,1.9968,-3.0128,-11.365,6.8627,-11.723
-1.0111,-3.746,-3.8835,-7.8431,-13.793,-6.9565,-13.592,-0.06472,-10.797,-7.8431,-13.793,-21.569,6.6986,-7.6825,17.205999,3.8462,11.659,4.6795,-12.317,13.725,-5.9259
6.5719,0.06349,5.8252,-16.667,-16.749001,-5.0242,-14.563,-1.0356,-16.65,-16.667,-16.749001,-17.646999,14.354,0.88889,24.825001,10.577,22.287001,10.449,-18.032,19.608,-0.12882
8.4676,-2.7937,9.7087,-14.706,-26.601,-8.8889,-15.534,-2.9773,-21.528,-14.706,-26.601,-16.667,17.225,6.6032,24.825001,10.577,25.184999,11.41,-23.746,22.549,0.83736
10.363,-11.365,6.7961,-11.765,-25.615999,-8.8889,-24.271999,0.90615,-28.358,-11.765,-25.615999,-15.686,16.268,4.6984,22.921,2.8846,19.388,8.5256,-26.603001,20.587999,-3.9936
9.4155,-19.937,4.8544,-15.686,-25.615999,-11.787,-31.068001,-3.9482,-25.431,-15.686,-25.615999,-12.745,10.526,-1.0159,18.159,-7.6923,8.7601,3.7179,-20.889,13.725,-8.8245
10.363,-21.841,5.8252,-9.8039,-22.66,-4.058,-19.417,-4.9191,-12.748,-9.8039,-22.66,-6.8627,2.8708,-3.873,13.397,-12.5,4.8953,0.83333,-15.175,7.8431,-9.7907
16.051001,-15.175,8.7379,-17.646999,-12.808,-0.19324,-4.8544,5.7605,-6.8943,-17.646999,-12.808,0.98039,-0.95694,-5.7778,13.397,-10.577,6.8277,-0.12821,-10.413,5.8824,-10.757
16.997999,-5.6508,10.68,-13.725,-10.837,1.7391,-6.7961,0.90615,-2.9919,-13.725,-10.837,5.8824,-1.9139,-7.6825,13.397,-7.6923,10.692,-0.12821,-0.88889,2.9412,-11.723
11.311,1.9683,10.68,0.0,-13.793,16.232,1.9417,-7.8317,4.813,0.0,-13.793,4.902,-1.9139,-6.7302,11.492,-1.9231,14.557,2.7564,6.7302,0.98039,-10.757
7.5197,8.6349,12.621,2.9412,-16.749001,14.3,-0.97087,-2.9773,6.7642,2.9412,-16.749001,0.98039,0.95694,-2.9206,13.397,3.8462,17.455999,4.6795,5.7778,1.9608,-8.8245
3.7283,5.7778,10.68,-8.8235,-19.704,-10.821,-16.504999,-10.744,-0.06504,-8.8235,-19.704,-6.8627,1.9139,-1.0159,13.397,4.8077,16.49,-0.12821,3.873,-0.98039,-9.7907
-1.0111,1.9683,7.767,-20.587999,-19.704,-11.787,-11.65,-14.628,-2.0163,-20.587999,-19.704,-11.765,2.8708,3.746,8.6349,7.6923,15.523,-3.9744,4.8254,-0.98039,-3.0274
-3.8547,2.9206,7.767,-25.49,-28.570999,-9.8551,-1.9417,-12.686,-2.9919,-25.49,-28.570999,-8.8235,4.7847,8.5079,5.7778,12.5,16.49,-5.8974,6.7302,1.9608,5.6683
-1.0111,4.8254,12.621,-10.784,-16.749001,-0.19324,0.0,-6.8608,-3.9675,-10.784,-16.749001,-4.902,7.6555,16.127001,6.7302,16.346001,20.354,-4.9359,1.9683,1.9608,11.465
6.5719,3.873,20.388,-19.608,-7.8818,-8.8889,-4.8544,-3.9482,-9.8211,-19.608,-7.8818,0.0,11.483,20.889,8.6349,19.231001,23.253,-2.0513,-7.5556,0.98039,11.465
12.259,2.9206,20.388,-11.765,-11.823,0.77295,-4.8544,-1.0356,-14.699,-11.765,-11.823,-0.98039,14.354,26.603001,10.54,19.231001,24.219,2.7564,-14.222,2.9412,12.432
12.259,1.0159,15.534,-1.9608,-23.645,12.367,-4.8544,9.644,-17.625999,-1.9608,-23.645,-5.8824,14.354,30.413,11.492,18.268999,19.388,4.6795,-15.175,3.9216,14.364
9.4155,-2.7937,7.767,-10.784,-30.542,4.6377,-9.7087,2.8479,-22.504,-10.784,-30.542,-10.784,13.397,29.459999,10.54,15.385,14.557,6.6026,-18.032,4.902,14.364
8.4676,-7.5556,1.9417,-16.667,-26.601,-5.0242,-15.534,-2.0065,-24.455,-16.667,-26.601,-12.745,13.397,29.459999,13.397,13.462,11.659,7.5641,-16.127001,9.8039,13.398
8.4676,-9.4603,0.0,-13.725,-20.690001,-3.0918,-18.447001,0.90615,-21.528,-13.725,-20.690001,-13.725,14.354,26.603001,19.111,11.538,11.659,6.6026,-14.222,14.706,10.499
7.5197,-13.27,-3.8835,-14.706,-23.645,-5.0242,-18.447001,-1.0356,-21.528,-14.706,-23.645,-13.725,16.268,20.889,21.968,5.7692,12.625,8.5256,-17.079,19.608,1.8035
3.7283,-19.937,-8.7379,-19.608,-25.615999,-4.058,-20.388,-0.06472,-21.528,-19.608,-25.615999,-14.706,16.268,10.413,19.111,-5.7692,7.7939,12.372,-21.841,21.569,-10.757
-5.7504,-24.698,-13.592,-26.471001,-26.601,-10.821,-24.271999,-6.8608,-22.504,-26.471001,-26.601,-16.667,12.44,-1.0159,14.349,-21.153999,0.06441,10.449,-21.841,19.608,-23.316999
-9.5419,-21.841,-14.563,-28.431,-29.556999,-21.448999,-25.243,-9.7735,-16.65,-28.431,-29.556999,-15.686,9.5694,-6.7302,9.5873,-27.885,-3.8003,7.5641,-15.175,15.686,-26.216
-15.229,-18.983999,-17.476,-17.646999,-32.512001,-18.551001,-17.476,-6.8608,-9.8211,-17.646999,-32.512001,-19.608,0.0,-9.5873,-1.8413,-28.846001,-8.6312,2.7564,-9.4603,7.8431,-23.316999
-19.968,-15.175,-18.447001,-9.8039,-25.615999,-16.618,-11.65,-7.8317,-4.9431,-9.8039,-25.615999,-18.627001,-11.483,-16.254,-13.27,-30.768999,-17.327,-1.0897,-2.7937,0.0,-23.316999
-21.864,-11.365,-15.534,-16.667,-17.733999,-15.652,-13.592,-8.8026,-2.0163,-16.667,-17.733999,-16.667,-18.181999,-17.205999,-18.983999,-27.885,-19.259001,-5.8974,1.0159,-7.8431,-21.385
-19.968,-6.6032,-12.621,-13.725,-12.808,-10.821,-12.621,-9.7735,-1.0407,-13.725,-12.808,-14.706,-19.139,-10.54,-18.032,-17.308001,-17.327,-9.7436,5.7778,-11.765,-9.7907
-16.177,1.0159,-8.7379,-13.725,-17.733999,-8.8889,-6.7961,-7.8317,-2.0163,-13.725,-17.733999,-13.725,-16.268,-4.8254,-13.27,-2.8846,-13.462,-6.859,2.9206,-9.8039,2.7697
-8.594,5.7778,-2.9126,-13.725,-23.645,-10.821,-4.8544,-5.89,-2.9919,-13.725,-23.645,-11.765,-11.483,-0.06349,-4.6984,8.6538,-7.6651,-2.0513,-4.6984,-3.9216,11.465
-2.9068,6.7302,0.0,-15.686,-22.66,-18.551001,-6.7961,-3.9482,-11.772,-15.686,-22.66,-10.784,-7.6555,2.7937,1.0159,15.385,-4.7665,2.7564,-8.5079,1.9608,15.33
4.6761,6.7302,0.97087,-13.725,-16.749001,-12.754,-10.68,-0.06472,-14.699,-13.725,-16.749001,-4.902,-3.8278,3.746,5.7778,18.268999,-1.868,10.449,-7.5556,5.8824,18.229
16.051001,7.6825,8.7379,0.0,-8.867,1.7391,-12.621,8.6731,-13.724,0.0,-8.867,0.0,2.8708,3.746,12.444,20.191999,4.8953,19.103001,-6.6032,8.8235,18.229
18.893999,4.8254,10.68,4.902,-10.837,20.097,-0.97087,17.410999,-11.772,4.902,-10.837,4.902,5.7416,5.6508,15.302,22.115,10.692,23.91,-1.8413,10.784,18.229
16.051001,1.0159,5.8252,9.8039,-10.837,26.860001,1.9417,19.353001,-8.8455,9.8039,-10.837,5.8824,5.7416,3.746,17.205999,18.268999,9.7262,24.872,0.06349,11.765,14.364
14.155,-4.6984,2.9126,11.765,-3.9409,19.129999,0.0,15.469,-3.9675,11.765,-3.9409,5.8824,5.7416,0.88889,15.302,12.5,6.8277,21.987,1.9683,13.725,9.533
13.207,-11.365,0.97087,4.902,-1.9704,16.232,-1.9417,15.469,-2.0163,4.902,-1.9704,3.9216,3.8278,0.88889,13.397,6.7308,3.9291,21.025999,1.0159,15.686,7.6006
9.4155,-14.222,-2.9126,5.8824,-10.837,7.5362,-8.7379,5.7605,-3.9675,5.8824,-10.837,-0.98039,1.9139,-3.873,12.444,-3.8462,-0.90177,18.141001,-2.7937,13.725,-2.0612
1.8325,-14.222,-5.8252,-0.98039,-8.867,-10.821,-9.7087,-5.89,-4.9431,-0.98039,-8.867,-7.8431,2.8708,-10.54,11.492,-14.423,-5.7327,12.372,-3.746,12.745,-11.723
-4.8025,-10.413,-5.8252,-16.667,-2.9557,-25.313999,-7.767,-10.744,-3.9675,-16.667,-2.9557,-6.8627,1.9139,-14.349,5.7778,-22.115,-9.5974,3.7179,1.0159,6.8627,-20.419001
-11.438,-1.8413,-2.9126,-22.549,0.0,-12.754,0.97087,-16.57,0.91057,-22.549,0.0,-3.9216,0.0,-16.254,-1.8413,-27.885,-12.496,-4.9359,1.9683,2.9412,-25.25
-19.021,4.8254,0.0,-13.725,3.9409,-8.8889,10.68,-16.57,8.7154,-13.725,3.9409,-0.98039,-2.8708,-12.444,-10.413,-27.885,-13.462,-14.551,3.873,-3.9216,-24.283001
-21.864,6.7302,-0.97087,-4.902,3.9409,-19.517,12.621,-20.452999,12.618,-4.902,3.9409,-1.9608,-7.6555,-5.7778,-18.983999,-20.191999,-12.496,-28.013,7.6825,-13.725,-17.52
-26.603001,4.8254,-5.8252,-11.765,-5.9113,-28.212999,6.7961,-28.219999,7.7398,-11.765,-5.9113,-7.8431,-10.526,0.88889,-24.698,-13.462,-12.496,-30.896999,6.7302,-20.587999,-6.8921
-25.656,5.7778,-2.9126,-23.528999,-6.8966,-22.415001,0.97087,-24.337,3.8374,-23.528999,-6.8966,-5.8824,-6.6986,8.5079,-19.937,-4.8077,-6.6989,-27.051001,3.873,-20.587999,1.8035
-19.021,8.6349,4.8544,-5.8824,0.0,-24.348,10.68,-18.511,6.7642,-5.8824,0.0,-3.9216,2.8708,16.127001,-10.413,6.7308,4.8953,-26.09,7.6825,-13.725,11.465
-12.385,12.444,9.7087,6.8627,8.867,-16.618,11.65,-18.511,8.7154,6.8627,8.867,0.0,9.5694,24.698,0.06349,17.308001,13.591,-21.282,13.397,-5.8824,20.160999
-3.8547,16.254,14.563,11.765,17.733999,-5.0242,11.65,-11.715,10.667,11.765,17.733999,6.8627,14.354,30.413,8.6349,25.0,16.49,-16.474001,19.111,0.0,30.789
3.7283,16.254,15.534,12.745,16.749001,4.6377,15.534,-7.8317,11.642,12.745,16.749001,9.8039,17.225,31.365,9.5873,25.962,15.523,-11.667,20.063,5.8824,35.619999
11.311,13.397,14.563,11.765,15.764,11.401,13.592,-4.9191,7.7398,11.765,15.764,14.706,16.268,26.603001,12.444,19.231001,10.692,-3.0128,13.397,8.8235,28.857
16.051001,6.7302,11.65,20.587999,13.793,12.367,15.534,3.8188,3.8374,20.587999,13.793,15.686,11.483,18.983999,12.444,8.6538,5.8615,5.641,2.9206,9.8039,17.261999
17.945999,1.9683,11.65,13.725,10.837,16.232,11.65,7.7023,0.91057,13.725,10.837,17.646999,8.6124,15.175,10.54,0.96154,2.963,14.295,0.06349,7.8431,7.6006
23.632999,6.7302,13.592,17.646999,0.98522,23.961,11.65,16.440001,-1.0407,17.646999,0.98522,20.587999,5.7416,13.27,9.5873,0.0,0.06441,21.987,-9.4603,6.8627,1.8035
21.738001,12.444,11.65,30.392,8.867,31.691,11.65,22.264999,0.91057,30.392,8.867,20.587999,0.95694,8.5079,2.9206,-2.8846,-7.6651,25.833,-10.413,6.8627,-3.0274
12.259,4.8254,0.0,20.587999,17.733999,33.623001,7.767,23.236,-1.0407,20.587999,17.733999,14.706,-3.8278,-0.06349,-7.5556,-9.6154,-18.292999,20.063999,-3.746,0.0,-11.723
4.6761,-5.6508,-13.592,19.608,10.837,21.063,4.8544,19.353001,-3.9675,19.608,10.837,7.8431,-7.6555,-7.6825,-15.175,-21.153999,-27.955,18.141001,-2.7937,-3.9216,-18.486
-3.8547,-14.222,-22.33,19.608,5.9113,13.333,-1.9417,13.528,-5.9187,19.608,5.9113,0.98039,-8.6124,-12.444,-15.175,-31.731001,-31.82,18.141001,-4.6984,-4.902,-24.283001
-9.5419,-19.937,-25.243,2.9412,3.9409,3.6715,-2.9126,7.7023,-7.8699,2.9412,3.9409,0.0,-7.6555,-17.205999,-13.27,-35.577,-28.921,11.41,-7.5556,-5.8824,-27.181999
-9.5419,-18.983999,-21.358999,0.0,0.98522,-3.0918,-6.7961,7.7023,-5.9187,0.0,0.98522,-0.98039,-5.7416,-14.349,-8.5079,-26.923,-20.225,9.4872,-9.4603,-4.902,-24.283001
-5.7504,-13.27,-13.592,6.8627,-1.9704,1.7391,-8.7379,0.90615,-5.9187,6.8627,-1.9704,-3.9216,-2.8708,-10.54,-2.7937,-14.423,-10.564,9.4872,-8.5079,-1.9608,-14.622
-3.8547,-5.6508,-3.8835,1.9608,-3.9409,5.6039,-7.767,-2.0065,-7.8699,1.9608,-3.9409,-5.8824,-0.95694,-6.7302,1.0159,0.0,-0.90177,7.5641,-10.413,0.0,-3.0274
0.88468,2.9206,4.8544,-1.9608,-6.8966,-5.0242,-3.8835,-0.06472,-7.8699,-1.9608,-6.8966,-2.9412,-0.95694,-0.06349,3.873,14.423,6.8277,5.641,-7.5556,0.0,9.533
3.7283,14.349,10.68,-4.902,-11.823,-12.754,2.9126,-2.0065,-3.9675,-4.902,-11.823,1.9608,-0.95694,6.6032,6.7302,26.923,10.692,4.6795,1.0159,0.0,22.093
8.4676,21.016001,16.504999,-14.706,-5.9113,-6.9565,-0.97087,2.8479,-2.9919,-14.706,-5.9113,7.8431,0.0,10.413,9.5873,31.731001,11.659,3.7179,6.7302,0.98039,28.857
14.155,21.968,17.476,0.0,9.8522,4.6377,3.8835,9.644,0.91057,0.0,9.8522,11.765,1.9139,11.365,10.54,29.808001,9.7262,6.6026,10.54,0.98039,27.889999
17.945999,21.016001,16.504999,13.725,10.837,2.7053,13.592,13.528,5.7886,13.725,10.837,16.667,0.95694,9.4603,8.6349,22.115,4.8953,5.641,13.397,1.9608,22.093
14.155,17.205999,12.621,13.725,11.823,6.57,15.534,17.410999,7.7398,13.725,11.823,19.608,-3.8278,0.88889,0.06349,11.538,-2.8341,6.6026,10.54,-1.9608,11.465
7.5197,13.397,4.8544,14.706,20.690001,19.129999,14.563,17.410999,11.642,14.706,20.690001,21.569,-16.268,-5.7778,-11.365,2.8846,-12.496,8.5256,12.444,-9.8039,3.7359
-1.0111,6.7302,-4.8544,15.686,11.823,23.961,10.68,17.410999,12.618,15.686,11.823,19.608,-26.794001,-10.54,-20.889,-5.7692,-22.158001,9.4872,6.7302,-15.686,-3.0274
-7.6461,1.0159,-13.592,22.549,12.808,19.129999,7.767,16.440001,10.667,22.549,12.808,13.725,-30.622,-12.444,-25.650999,-10.577,-26.023001,6.6026,2.9206,-19.608,-4.9597
-7.6461,1.0159,-16.504999,25.49,20.690001,14.3,11.65,18.382,10.667,25.49,20.690001,10.784,-26.794001,-11.492,-22.794001,-9.6154,-24.09,7.5641,2.9206,-16.667,-2.0612
-3.8547,3.873,-14.563,22.549,15.764,13.333,12.621,15.469,8.7154,22.549,15.764,9.8039,-19.139,-9.5873,-12.317,-7.6923,-20.225,7.5641,1.9683,-11.765,-3.0274
-1.0111,6.7302,-9.7087,13.725,2.9557,2.7053,9.7087,12.557,1.8862,13.725,2.9557,8.8235,-8.6124,-5.7778,-3.746,-4.8077,-14.428,7.5641,5.7778,-3.9216,-2.0612
-1.9589,7.6825,-6.7961,-1.9608,-1.9704,2.7053,4.8544,7.7023,-4.9431,-1.9608,-1.9704,4.902,0.0,1.8413,1.9683,0.96154,-8.6312,8.5256,6.7302,2.9412,1.8035
-0.06319,6.7302,-6.7961,-9.8039,-1.9704,12.367,1.9417,4.7896,-7.8699,-9.8039,-1.9704,0.0,4.7847,7.5556,3.873,6.7308,-5.7327,10.449,3.873,5.8824,2.7697
4.6761,4.8254,-6.7961,7.8431,-4.9261,5.6039,-4.8544,6.7314,-7.8699,7.8431,-4.9261,-2.9412,7.6555,9.4603,4.8254,10.577,-2.8341,7.5641,2.9206,4.902,3.7359
3.7283,-0.88889,-8.7379,20.587999,7.8818,3.6715,4.8544,8.6731,1.8862,20.587999,7.8818,-3.9216,6.6986,8.5079,2.9206,7.6923,-3.8003,5.641,-1.8413,2.9412,3.7359
0.88468,-5.6508,-10.68,5.8824,9.8522,-0.19324,0.97087,9.644,5.7886,5.8824,9.8522,-2.9412,4.7847,8.5079,1.0159,6.7308,-4.7665,3.7179,-1.8413,1.9608,6.6345
-0.06319,-6.6032,-7.767,0.98039,10.837,3.6715,-0.97087,3.8188,6.7642,0.98039,10.837,-3.9216,1.9139,10.413,1.0159,7.6923,-3.8003,7.5641,3.873,0.98039,11.465
-3.8547,-9.4603,-9.7087,0.98039,3.9409,8.5024,-0.97087,-6.8608,6.7642,0.98039,3.9409,-9.8039,-2.8708,8.5079,-4.6984,5.7692,-3.8003,2.7564,3.873,-1.9608,13.398
-3.8547,-12.317,-12.621,1.9608,-0.98522,-2.1256,-0.97087,-5.89,1.8862,1.9608,-0.98522,-10.784,-4.7847,9.4603,-6.6032,4.8077,0.06441,-3.9744,2.9206,-2.9412,13.398
-3.8547,-17.079,-13.592,-5.8824,0.0,-8.8889,-4.8544,-6.8608,-0.06504,-5.8824,0.0,-10.784,-1.9139,10.413,-3.746,0.96154,4.8953,-7.8205,-2.7937,-0.98039,9.533
-4.8025,-22.794001,-12.621,-7.8431,-9.8522,-12.754,-13.592,-7.8317,-3.9675,-7.8431,-9.8522,-12.745,1.9139,9.4603,-2.7937,-1.9231,6.8277,-13.59,-6.6032,0.0,3.7359
-4.8025,-24.698,-9.7087,6.8627,-2.9557,-3.0918,-23.301001,-6.8608,-6.8943,6.8627,-2.9557,-11.765,6.6986,10.413,-1.8413,-0.96154,7.7939,-16.474001,-5.6508,1.9608,0.83736
-6.6983,-21.841,-6.7961,14.706,3.9409,-0.19324,-16.504999,-12.686,-3.9675,14.706,3.9409,-7.8431,10.526,6.6032,-0.88889,-1.9231,7.7939,-13.59,-6.6032,4.902,-4.9597
-8.594,-11.365,0.0,9.8039,7.8818,-7.9227,0.0,-16.57,4.813,9.8039,7.8818,0.0,13.397,6.6032,-0.88889,-0.96154,8.7601,-12.628,-5.6508,5.8824,-6.8921
-7.6461,1.0159,5.8252,2.9412,17.733999,-8.8889,13.592,-13.657,16.52,2.9412,17.733999,8.8235,13.397,10.413,-2.7937,2.8846,7.7939,-15.513,3.873,3.9216,-2.0612
-8.594,9.5873,5.8252,-0.98039,22.66,-6.9565,25.243,-15.599,24.325001,-0.98039,22.66,11.765,6.6986,8.5079,-9.4603,3.8462,1.0306,-18.396999,14.349,-1.9608,0.83736
-8.594,16.254,3.8835,-3.9216,22.66,-4.058,31.068001,-12.686,27.252001,-3.9216,22.66,13.725,1.9139,8.5079,-12.317,6.7308,-3.8003,-19.358999,22.921,-5.8824,3.7359
-7.6461,18.159,1.9417,-0.98039,21.674999,-5.9903,24.271999,-9.7735,26.275999,-0.98039,21.674999,14.706,-2.8708,9.4603,-14.222,7.6923,-8.6312,-19.358999,26.73,-9.8039,8.5668
-5.7504,20.063,0.0,0.98039,15.764,-4.058,19.417,-7.8317,27.252001,0.98039,15.764,13.725,-8.6124,10.413,-17.079,7.6923,-15.395,-20.320999,27.683001,-15.686,12.432
-3.8547,19.111,-0.97087,-3.9216,4.9261,-12.754,27.184,-10.744,24.325001,-3.9216,4.9261,13.725,-11.483,6.6032,-18.983999,4.8077,-21.191999,-21.282,24.825001,-17.646999,11.465
-5.7504,11.492,-7.767,-3.9216,10.837,-10.821,19.417,-12.686,23.35,-3.9216,10.837,9.8039,-13.397,3.746,-22.794001,0.0,-26.989,-23.205,21.968,-18.627001,6.6345
-10.49,2.9206,-13.592,-0.98039,17.733999,-4.058,12.621,-13.657,17.496,-0.98039,17.733999,3.9216,-13.397,3.746,-24.698,-1.9231,-28.921,-23.205,16.254,-17.646999,5.6683
-13.333,-2.7937,-15.534,-9.8039,4.9261,-5.9903,4.8544,-14.628,11.642,-9.8039,4.9261,-1.9608,-14.354,2.7937,-23.746,-1.9231,-26.989,-24.167,8.6349,-17.646999,6.6345
-17.125,-8.5079,-17.476,-17.646999,0.98522,-5.0242,-4.8544,-14.628,4.813,-17.646999,0.98522,-5.8824,-16.268,1.8413,-24.698,-1.9231,-24.09,-19.358999,7.6825,-14.706,5.6683
-18.073,-13.27,-16.504999,-13.725,4.9261,-2.1256,-10.68,-10.744,-0.06504,-13.725,4.9261,-6.8627,-17.225,-1.9683,-24.698,-2.8846,-21.191999,-14.551,4.8254,-13.725,2.7697
-12.385,-13.27,-13.592,-0.98039,-1.9704,-4.058,-4.8544,-1.0356,-2.9919,-0.98039,-1.9704,-6.8627,-17.225,-7.6825,-20.889,-7.6923,-17.327,-12.628,-3.746,-11.765,-3.0274
-10.49,-14.222,-11.65,3.9216,-8.867,-2.1256,-10.68,-2.9773,-10.797,3.9216,-8.867,-8.8235,-16.268,-10.54,-16.127001,-12.5,-13.462,-8.7821,-12.317,-7.8431,-7.8583
-11.438,-14.222,-9.7087,0.0,-4.9261,-4.058,-14.563,-5.89,-15.675,0.0,-4.9261,-11.765,-13.397,-12.444,-12.317,-13.462,-9.5974,-6.859,-13.27,-3.9216,-8.8245
-14.281,-13.27,-7.767,-10.784,-7.8818,-13.72,-14.563,-5.89,-19.577,-10.784,-7.8818,-10.784,-11.483,-13.397,-13.27,-16.346001,-9.5974,-8.7821,-15.175,-4.902,-10.757
-16.177,-15.175,-9.7087,-11.765,-9.8522,-16.618,-17.476,-4.9191,-21.528,-11.765,-9.8522,-9.8039,-13.397,-14.349,-18.983999,-19.231001,-11.53,-12.628,-13.27,-8.8235,-11.723
-14.281,-9.4603,-8.7379,0.0,-2.9557,-14.686,-14.563,-1.0356,-15.675,0.0,-2.9557,-3.9216,-15.311,-17.205999,-22.794001,-22.115,-15.395,-11.667,-12.317,-11.765,-17.52
-8.594,0.06349,0.0,-0.98039,13.793,-2.1256,4.8544,-0.06472,-6.8943,-0.98039,13.793,5.8824,-14.354,-19.111,-20.889,-20.191999,-14.428,-12.628,-8.5079,-13.725,-15.588
-2.9068,7.6825,6.7961,1.9608,21.674999,2.7053,22.33,2.8479,2.8618,1.9608,21.674999,13.725,-10.526,-14.349,-18.032,-11.538,-9.5974,-12.628,0.06349,-10.784,-8.8245
1.8325,12.444,8.7379,8.8235,21.674999,4.6377,25.243,6.7314,13.593,8.8235,21.674999,15.686,-5.7416,-12.444,-13.27,-5.7692,-6.6989,-3.9744,5.7778,-6.8627,-7.8583
2.7804,9.5873,5.8252,6.8627,7.8818,8.5024,17.476,7.7023,15.545,6.8627,7.8818,11.765,-6.6986,-13.397,-11.365,-5.7692,-7.6651,2.7564,6.7302,-5.8824,-8.8245
0.88468,4.8254,2.9126,1.9608,1.9704,10.435,4.8544,7.7023,12.618,1.9608,1.9704,4.902,-9.5694,-11.492,-12.317,-3.8462,-9.5974,1.7949,6.7302,-6.8627,-7.8583
-1.9589,-1.8413,-0.97087,-6.8627,-0.98522,5.6039,-8.7379,7.7023,7.7398,-6.8627,-0.98522,-2.9412,-10.526,-12.444,-11.365,-3.8462,-11.53,0.83333,4.8254,-5.8824,-7.8583
-7.6461,-6.6032,-7.767,-15.686,-17.733999,-1.1594,-15.534,4.7896,0.91057,-15.686,-17.733999,-12.745,-13.397,-17.205999,-10.413,-5.7692,-14.428,0.83333,4.8254,-3.9216,-8.8245
-10.49,-10.413,-12.621,-24.51,-32.512001,-6.9565,-20.388,-0.06472,-3.9675,-24.51,-32.512001,-17.646999,-15.311,-21.016001,-9.4603,-8.6538,-14.428,2.7564,3.873,-2.9412,-8.8245
-5.7504,-12.317,-12.621,-17.646999,-21.674999,-11.787,-25.243,-0.06472,-5.9187,-17.646999,-21.674999,-20.587999,-15.311,-22.921,-4.6984,-8.6538,-11.53,6.6026,-2.7937,-1.9608,-9.7907
-2.9068,-13.27,-9.7087,-12.745,-10.837,-3.0918,-25.243,0.90615,-6.8943,-12.745,-10.837,-20.587999,-13.397,-24.825001,1.0159,-12.5,-7.6651,8.5256,-4.6984,3.9216,-12.689
-2.9068,-13.27,-3.8835,-13.725,-13.793,2.7053,-17.476,1.877,-4.9431,-13.725,-13.793,-15.686,-12.44,-28.635,2.9206,-16.346001,-4.7665,8.5256,-2.7937,5.8824,-17.52
-0.06319,-11.365,0.97087,-12.745,-14.778,-1.1594,-12.621,0.90615,-3.9675,-12.745,-14.778,-11.765,-11.483,-30.540001,1.9683,-18.268999,-2.8341,7.5641,-4.6984,2.9412,-22.351
0.88468,-10.413,3.8835,-13.725,-17.733999,-5.9903,-14.563,0.90615,-6.8943,-13.725,-17.733999,-8.8235,-9.5694,-30.540001,4.8254,-19.231001,-1.868,6.6026,-5.6508,1.9608,-22.351
7.5197,-8.5079,7.767,-10.784,-5.9113,4.6377,-11.65,3.8188,-3.9675,-10.784,-5.9113,-4.902,-7.6555,-27.683001,9.5873,-15.385,1.9968,6.6026,-6.6032,2.9412,-18.486
13.207,-1.8413,12.621,6.8627,8.867,10.435,2.9126,6.7314,1.8862,6.8627,8.867,0.0,-5.7416,-23.872999,10.54,-11.538,5.8615,3.7179,-3.746,1.9608,-13.655
13.207,3.873,14.563,12.745,7.8818,6.57,9.7087,6.7314,4.813,12.745,7.8818,0.98039,-5.7416,-19.111,6.7302,-9.6154,3.9291,5.641,0.06349,-0.98039,-8.8245
7.5197,5.7778,11.65,4.902,7.8818,1.7391,11.65,5.7605,6.7642,4.902,7.8818,1.9608,-3.8278,-13.397,2.9206,-7.6923,0.06441,6.6026,2.9206,-2.9412,-3.9936
4.6761,8.6349,8.7379,2.9412,4.9261,-4.058,12.621,2.8479,0.91057,2.9412,4.9261,4.902,0.0,-5.7778,1.9683,-4.8077,-0.90177,3.7179,1.0159,-3.9216,-0.12882
4.6761,13.397,10.68,1.9608,0.98522,1.7391,16.504999,1.877,-5.9187,1.9608,0.98522,6.8627,6.6986,0.88889,5.7778,0.0,1.0306,2.7564,1.9683,-1.9608,2.7697
4.6761,17.205999,16.504999,-5.8824,1.9704,-3.0918,10.68,4.7896,-6.8943,-5.8824,1.9704,5.8824,11.483,6.6032,10.54,6.7308,6.8277,3.7179,1.0159,0.98039,7.6006
10.363,20.063,20.388,-3.9216,4.9261,6.57,8.7379,8.6731,-3.9675,-3.9216,4.9261,6.8627,19.139,10.413,17.205999,13.462,16.49,8.5256,0.06349,6.8627,10.499
16.051001,21.016001,23.301001,3.9216,0.0,12.367,10.68,9.644,-3.9675,3.9216,0.0,8.8235,25.837,12.317,24.825001,16.346001,22.287001,11.41,0.06349,12.745,11.465
19.841999,16.254,25.243,-3.9216,-3.9409,3.6715,0.97087,10.615,-4.9431,-3.9216,-3.9409,6.8627,28.708,11.365,30.540001,15.385,23.253,12.372,-2.7937,16.667,9.533
20.790001,10.54,25.243,-4.902,-8.867,6.57,-6.7961,11.586,-7.8699,-4.902,-8.867,1.9608,31.579,9.4603,35.301998,14.423,26.150999,19.103001,-4.6984,23.528999,6.6345
18.893999,4.8254,23.301001,-1.9608,-5.9113,2.7053,-9.7087,12.557,-12.748,-1.9608,-5.9113,-5.8824,34.450001,6.6032,41.967999,12.5,32.915001,22.948999,-5.6508,30.392,3.7359
16.051001,-1.8413,21.358999,-5.8824,-12.808,-4.058,-12.621,7.7023,-16.65,-5.8824,-12.808,-12.745,32.535999,0.88889,41.967999,7.6923,34.847,25.833,-9.4603,30.392,-2.0612
19.841999,-4.6984,20.388,-12.745,-15.764,-0.19324,-10.68,6.7314,-16.65,-12.745,-15.764,-9.8039,27.750999,-1.0159,38.159,2.8846,33.881001,29.679001,-16.127001,29.412001,-4.9597
22.686001,-9.4603,16.504999,-4.902,-9.8522,9.4686,-13.592,7.7023,-15.675,-4.902,-9.8522,-6.8627,22.01,-0.06349,33.396999,0.0,30.016001,25.833,-18.032,24.51,-3.9936
22.686001,-13.27,10.68,-4.902,-10.837,11.401,-11.65,5.7605,-14.699,-4.902,-10.837,-7.8431,21.052999,2.7937,29.587,1.9231,28.084,18.141001,-18.983999,21.569,-1.095
21.738001,-15.175,6.7961,-4.902,-19.704,3.6715,-15.534,3.8188,-18.601999,-4.902,-19.704,-9.8039,21.052999,7.5556,25.778,6.7308,28.084,14.295,-17.079,20.587999,4.7021
16.051001,-15.175,2.9126,0.0,-13.793,2.7053,-20.388,1.877,-21.528,0.0,-13.793,-14.706,19.139,9.4603,19.111,8.6538,24.219,9.4872,-15.175,19.608,8.5668
7.5197,-14.222,-0.97087,-0.98039,-7.8818,-0.19324,-19.417,-1.0356,-17.625999,-0.98039,-7.8818,-15.686,15.311,8.5079,14.349,9.6154,19.388,4.6795,-15.175,16.667,11.465
0.88468,-14.222,-1.9417,-5.8824,-15.764,-5.9903,-19.417,-3.9482,-15.675,-5.8824,-15.764,-15.686,12.44,8.5079,10.54,11.538,16.49,-0.12821,-12.317,12.745,15.33
-1.0111,-13.27,-2.9126,-16.667,-16.749001,-6.9565,-19.417,-5.89,-13.724,-16.667,-16.749001,-13.725,12.44,10.413,9.5873,11.538,13.591,-1.0897,-6.6032,9.8039,19.195
1.8325,-6.6032,0.97087,-10.784,-12.808,-19.517,-14.563,-2.0065,-12.748,-10.784,-12.808,-5.8824,11.483,11.365,11.492,10.577,12.625,0.83333,-8.5079,8.8235,18.229
4.6761,1.0159,6.7961,0.0,-4.9261,-6.9565,-5.8252,2.8479,-11.772,0.0,-4.9261,1.9608,8.6124,7.5556,8.6349,9.6154,10.692,2.7564,-8.5079,3.9216,12.432
7.5197,8.6349,12.621,10.784,5.9113,21.063,1.9417,6.7314,-4.9431,10.784,5.9113,9.8039,7.6555,6.6032,8.6349,10.577,10.692,4.6795,-2.7937,3.9216,9.533
11.311,20.063,25.243,18.627001,9.8522,25.893999,15.534,9.644,3.8374,18.627001,9.8522,20.587999,10.526,7.5556,15.302,14.423,15.523,6.6026,4.8254,8.8235,12.432
15.103,28.635,33.009998,24.51,15.764,16.232,29.125999,13.528,15.545,24.51,15.764,26.471001,14.354,3.746,21.016001,17.308001,21.32,10.449,12.444,11.765,9.533
17.945999,33.396999,34.951,26.471001,24.631001,11.401,35.922001,10.615,18.472,26.471001,24.631001,28.431,16.268,3.746,23.872999,19.231001,25.184999,11.41,9.5873,10.784,4.7021
16.997999,32.444,32.039001,15.686,24.631001,9.4686,24.271999,6.7314,16.52,15.686,24.631001,25.49,16.268,4.6984,21.968,15.385,24.219,8.5256,6.7302,6.8627,3.7359
12.259,22.921,22.33,16.667,25.615999,14.3,22.33,7.7023,16.52,16.667,25.615999,21.569,12.44,1.8413,13.397,6.7308,19.388,3.7179,8.6349,0.98039,-0.12882
12.259,14.349,15.534,10.784,23.645,11.401,21.358999,6.7314,17.496,10.784,23.645,22.549,10.526,1.8413,7.6825,-0.96154,15.523,1.7949,5.7778,-2.9412,-2.0612
13.207,10.54,14.563,8.8235,10.837,9.4686,22.33,4.7896,16.52,8.8235,10.837,20.587999,10.526,1.8413,8.6349,-5.7692,14.557,-0.12821,7.6825,-2.9412,-3.9936
15.103,5.7778,14.563,12.745,2.9557,10.435,20.388,0.90615,10.667,12.745,2.9557,14.706,9.5694,-0.06349,11.492,-5.7692,16.49,2.7564,4.8254,0.0,-4.9597
16.997999,4.8254,11.65,-0.98039,5.9113,3.6715,12.621,-2.9773,5.7886,-0.98039,5.9113,7.8431,10.526,-2.9206,16.254,0.96154,21.32,6.6026,1.9683,5.8824,-1.095
16.051001,7.6825,8.7379,-5.8824,0.98522,-1.1594,11.65,-5.89,2.8618,-5.8824,0.98522,0.0,13.397,1.8413,22.921,14.423,27.118,4.6795,5.7778,12.745,8.5668
13.207,6.7302,4.8544,-9.8039,-8.867,-0.19324,-5.8252,-6.8608,-0.06504,-9.8039,-8.867,-7.8431,16.268,9.4603,24.825001,25.962,31.948,6.6026,8.6349,16.667,19.195
10.363,3.873,0.97087,-10.784,-6.8966,1.7391,-8.7379,-3.9482,0.91057,-10.784,-6.8966,-7.8431,21.052999,14.222,25.778,32.692001,33.881001,13.333,13.397,18.627001,24.992001
10.363,2.9206,0.97087,-5.8824,-9.8522,3.6715,-3.8835,-1.0356,2.8618,-5.8824,-9.8522,-8.8235,22.966999,16.127001,24.825001,31.731001,32.915001,11.41,13.397,18.627001,25.958
9.4155,-0.88889,3.8835,-3.9216,-6.8966,3.6715,-6.7961,0.90615,2.8618,-3.9216,-6.8966,-8.8235,22.966999,15.175,23.872999,27.885,30.016001,7.5641,8.6349,17.646999,23.059999
7.5197,-6.6032,-0.97087,-7.8431,-1.9704,3.6715,-6.7961,0.90615,1.8862,-7.8431,-1.9704,-7.8431,22.01,15.175,19.111,19.231001,24.219,6.6026,5.7778,16.667,14.364
4.6761,-12.317,-8.7379,-2.9412,-2.9557,-5.0242,-13.592,0.90615,-0.06504,-2.9412,-2.9557,-6.8627,19.139,13.27,16.254,7.6923,16.49,3.7179,3.873,12.745,9.533
-1.0111,-14.222,-9.7087,11.765,-1.9704,-4.058,-8.7379,1.877,0.91057,11.765,-1.9704,-5.8824,17.225,10.413,11.492,0.0,8.7601,2.7564,0.06349,10.784,5.6683
-4.8025,-11.365,-7.767,14.706,5.9113,3.6715,1.9417,1.877,3.8374,14.706,5.9113,3.9216,11.483,4.6984,3.873,-7.6923,1.0306,1.7949,-0.88889,6.8627,-2.0612
-9.5419,-9.4603,-7.767,13.725,14.778,-2.1256,4.8544,0.90615,8.7154,13.725,14.778,6.8627,4.7847,0.88889,-4.6984,-15.385,-12.496,-1.0897,-0.88889,-2.9412,-6.8921
-16.177,-6.6032,-10.68,12.745,22.66,-10.821,9.7087,-2.9773,10.667,12.745,22.66,7.8431,-1.9139,-1.0159,-14.222,-20.191999,-24.09,-5.8974,0.06349,-7.8431,-7.8583
-21.864,-2.7937,-12.621,5.8824,10.837,-16.618,18.447001,-8.8026,11.642,5.8824,10.837,8.8235,-8.6124,-1.9683,-24.698,-21.153999,-30.853001,-12.628,2.9206,-14.706,-7.8583
-23.76,1.9683,-13.592,-0.98039,18.719,-6.9565,21.358999,-12.686,13.593,-0.98039,18.719,10.784,-14.354,1.8413,-31.365,-18.268999,-28.921,-18.396999,3.873,-21.569,-3.9936
-22.812,8.6349,-7.767,5.8824,26.601,-2.1256,21.358999,-11.715,19.447001,5.8824,26.601,14.706,-12.44,4.6984,-28.507999,-11.538,-18.292999,-19.358999,9.5873,-23.528999,-0.12882
-19.021,12.444,-2.9126,5.8824,15.764,-6.9565,21.358999,-11.715,14.569,5.8824,15.764,15.686,-7.6555,9.4603,-22.794001,-1.9231,-4.7665,-19.358999,13.397,-21.569,5.6683
-19.021,12.444,-5.8252,0.98039,1.9704,-13.72,12.621,-15.599,4.813,0.98039,1.9704,8.8235,-5.7416,13.27,-18.983999,7.6923,1.9968,-20.320999,7.6825,-19.608,10.499
-22.812,7.6825,-9.7087,-6.8627,-2.9557,-25.313999,5.8252,-18.511,-1.0407,-6.8627,-2.9557,0.0,-4.7847,17.079,-16.127001,15.385,3.9291,-15.513,2.9206,-16.667,19.195
-26.603001,-1.8413,-16.504999,-7.8431,-1.9704,-19.517,-0.97087,-18.511,-6.8943,-7.8431,-1.9704,-9.8039,-4.7847,17.079,-16.127001,16.346001,2.963,-10.705,1.0159,-12.745,21.127001
-28.499001,-11.365,-26.214001,-9.8039,-7.8818,-18.551001,-11.65,-16.57,-11.772,-9.8039,-7.8818,-17.646999,-5.7416,14.222,-16.127001,14.423,1.0306,-7.8205,-5.6508,-10.784,17.261999
-27.551001,-18.032,-30.097,-14.706,-15.764,-19.517,-17.476,-14.628,-15.675,-14.706,-15.764,-25.49,-1.9139,14.222,-13.27,14.423,1.0306,-4.9359,-7.5556,-5.8824,18.229
-24.708,-21.841,-31.068001,-16.667,-26.601,-14.686,-26.214001,-12.686,-17.625999,-16.667,-26.601,-32.353001,3.8278,15.175,-9.4603,16.346001,3.9291,-4.9359,-8.5079,0.0,18.229
-20.916,-27.556,-33.009998,-16.667,-38.424,-28.212999,-37.863998,-9.7735,-19.577,-16.667,-38.424,-35.293999,7.6555,15.175,-5.6508,12.5,1.9968,-3.0128,-12.317,3.9216,15.33
-16.177,-28.507999,-32.039001,-4.902,-27.586,-16.618,-37.863998,-5.89,-19.577,-4.902,-27.586,-35.293999,10.526,15.175,-0.88889,6.7308,1.0306,-3.0128,-12.317,6.8627,9.533
-16.177,-28.507999,-30.097,-1.9608,-12.808,2.7053,-33.009998,-4.9191,-17.625999,-1.9608,-12.808,-31.372999,9.5694,15.175,0.06349,1.9231,0.06441,-3.0128,-7.5556,6.8627,5.6683
-14.281,-25.650999,-28.155001,-12.745,-17.733999,-6.9565,-37.863998,-3.9482,-12.748,-12.745,-17.733999,-26.471001,8.6124,15.175,-0.88889,0.0,-2.8341,-3.9744,-6.6032,4.902,3.7359
-15.229,-18.032,-23.301001,-1.9608,-12.808,-6.9565,-27.184,-5.89,-7.8699,-1.9608,-12.808,-21.569,8.6124,14.222,-3.746,0.0,-5.7327,-5.8974,-5.6508,5.8824,1.8035
-14.281,-9.4603,-17.476,10.784,-0.98522,-0.19324,-6.7961,-6.8608,1.8862,10.784,-0.98522,-13.725,5.7416,13.27,-7.5556,-0.96154,-9.5974,-8.7821,1.0159,3.9216,-2.0612
-7.6461,-0.88889,-9.7087,7.8431,8.867,-2.1256,5.8252,-7.8317,13.593,7.8431,8.867,2.9412,2.8708,10.413,-10.413,-3.8462,-13.462,-11.667,6.7302,-0.98039,-3.9936
-1.0111,11.492,1.9417,12.745,13.793,4.6377,18.447001,-4.9191,22.374001,12.745,13.793,18.627001,0.95694,8.5079,-10.413,-5.7692,-12.496,-11.667,10.54,-4.902,-4.9597
2.7804,21.968,11.65,13.725,28.570999,6.57,26.214001,-3.9482,32.130001,13.725,28.570999,28.431,-2.8708,5.6508,-13.27,-4.8077,-9.5974,-16.474001,22.921,-9.8039,-3.9936
5.624,34.348999,17.476,14.706,36.452999,6.57,38.834999,-3.9482,37.984001,14.706,36.452999,36.275002,-10.526,0.88889,-16.127001,0.0,-6.6989,-17.436001,30.540001,-16.667,-0.12882
11.311,42.921001,22.33,22.549,38.424,9.4686,46.602001,0.90615,40.910999,22.549,38.424,40.195999,-17.225,-1.9683,-14.222,5.7692,-4.7665,-11.667,34.348999,-20.587999,3.7359
13.207,42.921001,21.358999,25.49,40.394001,10.435,45.631001,3.8188,38.959,25.49,40.394001,39.216,-20.096001,-5.7778,-12.317,7.6923,-4.7665,-8.7821,33.396999,-20.587999,3.7359
11.311,37.206001,17.476,19.608,33.498001,12.367,39.806,6.7314,31.153999,19.608,33.498001,37.255001,-20.096001,-9.5873,-12.317,7.6923,-6.6989,-5.8974,28.635,-18.627001,0.83736
10.363,29.587,12.621,29.412001,23.645,23.961,33.009998,10.615,20.423,29.412001,23.645,32.353001,-17.225,-9.5873,-8.5079,6.7308,-7.6651,-0.12821,19.111,-13.725,-1.095
9.4155,21.016001,7.767,29.412001,21.674999,29.757999,21.358999,13.528,8.7154,29.412001,21.674999,23.528999,-17.225,-10.54,-8.5079,3.8462,-8.6312,4.6795,4.8254,-10.784,-1.095
10.363,13.397,3.8835,19.608,12.808,22.995001,13.592,17.410999,-0.06504,19.608,12.808,18.627001,-15.311,-11.492,-7.5556,1.9231,-8.6312,10.449,-3.746,-6.8627,-4.9597
9.4155,6.7302,0.97087,23.528999,6.8966,25.893999,6.7961,20.323999,-6.8943,23.528999,6.8966,13.725,-10.526,-9.5873,-5.6508,-0.96154,-8.6312,14.295,-10.413,-2.9412,-7.8583
3.7283,-2.7937,-2.9126,22.549,3.9409,18.164,-3.8835,21.294001,-14.699,22.549,3.9409,4.902,-7.6555,-8.6349,-4.6984,-7.6923,-10.564,14.295,-15.175,0.0,-11.723
-3.8547,-9.4603,-7.767,13.725,0.98522,6.57,-8.7379,16.440001,-18.601999,13.725,0.98522,-3.9216,-7.6555,-6.7302,-5.6508,-12.5,-13.462,11.41,-18.983999,0.0,-15.588
-10.49,-11.365,-12.621,8.8235,-1.9704,-0.19324,-9.7087,10.615,-15.675,8.8235,-1.9704,-5.8824,-10.526,-11.492,-9.4603,-22.115,-19.259001,6.6026,-18.032,-0.98039,-22.351
-19.021,-16.127001,-17.476,-3.9216,-6.8966,-4.058,-10.68,5.7605,-9.8211,-3.9216,-6.8966,-7.8431,-17.225,-19.111,-17.079,-32.692001,-28.921,3.7179,-19.937,-5.8824,-31.047001
-17.125,-17.079,-18.447001,0.0,2.9557,-4.058,-4.8544,4.7896,-2.9919,0.0,2.9557,-4.902,-21.052999,-22.921,-23.746,-37.5,-29.886999,0.83333,-17.079,-9.8039,-33.945
-14.281,-11.365,-12.621,11.765,11.823,-2.1256,2.9126,3.8188,4.813,11.765,11.823,0.0,-22.01,-22.921,-24.698,-38.462002,-26.023001,-4.9359,-8.5079,-12.745,-33.945
-11.438,-3.746,-5.8252,13.725,10.837,-9.8551,10.68,2.8479,14.569,13.725,10.837,3.9216,-19.139,-19.111,-20.889,-33.653999,-20.225,-7.8205,1.9683,-12.745,-28.148001
-9.5419,-1.8413,-4.8544,11.765,14.778,-5.9903,10.68,-0.06472,18.472,11.765,14.778,2.9412,-20.096001,-19.111,-18.983999,-30.768999,-16.361,-8.7821,7.6825,-14.706,-26.216
-5.7504,-0.88889,-3.8835,9.8039,18.719,2.7053,9.7087,1.877,19.447001,9.8039,18.719,2.9412,-19.139,-16.254,-15.175,-26.923,-14.428,-5.8974,12.444,-15.686,-22.351
-1.9589,0.06349,-3.8835,6.8627,11.823,6.57,6.7961,3.8188,16.52,6.8627,11.823,2.9412,-21.052999,-16.254,-14.222,-23.077,-16.361,-3.9744,9.5873,-16.667,-21.385
-0.06319,-0.88889,-6.7961,5.8824,9.8522,10.435,4.8544,6.7314,12.618,5.8824,9.8522,3.9216,-24.879999,-18.159,-17.079,-19.231001,-18.292999,-1.0897,6.7302,-17.646999,-20.419001
0.88468,0.06349,-8.7379,-0.98039,10.837,2.7053,5.8252,6.7314,10.667,-0.98039,10.837,4.902,-24.879999,-17.205999,-15.175,-11.538,-18.292999,1.7949,7.6825,-15.686,-14.622
1.8325,-1.8413,-8.7379,-3.9216,0.98522,-2.1256,6.7961,6.7314,7.7398,-3.9216,0.98522,2.9412,-21.052999,-15.302,-11.365,-5.7692,-17.327,3.7179,4.8254,-12.745,-8.8245
-0.06319,-8.5079,-12.621,-0.98039,3.9409,2.7053,-2.9126,6.7314,0.91057,-0.98039,3.9409,-7.8431,-17.225,-14.349,-10.413,-3.8462,-14.428,3.7179,-2.7937,-7.8431,-7.8583
-4.8025,-12.317,-17.476,2.9412,-5.9113,2.7053,-10.68,5.7605,-8.8455,2.9412,-5.9113,-17.646999,-12.44,-11.492,-8.5079,-2.8846,-12.496,6.6026,-7.5556,-2.9412,-8.8245
-1.9589,-13.27,-15.534,0.98039,-15.764,1.7391,-13.592,7.7023,-16.65,0.98039,-15.764,-16.667,-5.7416,-8.6349,-1.8413,-2.8846,-8.6312,12.372,-12.317,2.9412,-9.7907
2.7804,-12.317,-11.65,0.0,-11.823,8.5024,-15.534,13.528,-18.601999,0.0,-11.823,-13.725,-2.8708,-5.7778,0.06349,-2.8846,-5.7327,15.256,-15.175,2.9412,-10.757
2.7804,-12.317,-10.68,-4.902,-10.837,1.7391,-13.592,13.528,-17.625999,-4.902,-10.837,-12.745,-2.8708,-2.9206,-0.88889,-2.8846,-4.7665,14.295,-16.127001,0.98039,-9.7907
1.8325,-12.317,-12.621,-9.8039,-11.823,-1.1594,-13.592,11.586,-14.699,-9.8039,-11.823,-13.725,-0.95694,-0.06349,1.0159,-1.9231,-2.8341,10.449,-18.032,0.98039,-3.9936
-1.9589,-15.175,-15.534,-16.667,-14.778,-2.1256,-13.592,6.7314,-10.797,-16.667,-14.778,-15.686,-0.95694,-0.06349,1.9683,-4.8077,-1.868,6.6026,-12.317,2.9412,-3.0274
-3.8547,-18.983999,-16.504999,-18.627001,-20.690001,-2.1256,-15.534,0.90615,-10.797,-18.627001,-20.690001,-19.608,0.0,-1.9683,1.9683,-10.577,-2.8341,3.7179,-13.27,2.9412,-5.9259
-1.9589,-16.127001,-8.7379,-12.745,-19.704,-6.9565,-12.621,-2.9773,-9.8211,-12.745,-19.704,-16.667,3.8278,-1.0159,6.7302,-10.577,2.963,0.83333,-13.27,5.8824,-5.9259
2.7804,-12.317,-0.97087,-7.8431,-10.837,-8.8889,-7.767,-7.8317,-4.9431,-7.8431,-10.837,-11.765,9.5694,2.7937,12.444,-5.7692,10.692,-0.12821,-7.5556,9.8039,-3.0274
4.6761,-8.5079,0.97087,-9.8039,1.9704,-13.72,-2.9126,-10.744,-2.0163,-9.8039,1.9704,-3.9216,13.397,8.5079,14.349,-1.9231,15.523,-2.0513,-5.6508,11.765,1.8035
1.8325,-5.6508,0.0,-10.784,1.9704,-10.821,-9.7087,-10.744,-2.0163,-10.784,1.9704,0.0,13.397,11.365,12.444,0.0,13.591,-6.859,-2.7937,9.8039,4.7021
-1.9589,-4.6984,-1.9417,10.784,-0.98522,-3.0918,-5.8252,-8.8026,-3.9675,10.784,-0.98522,-1.9608,11.483,16.127001,8.6349,3.8462,8.7601,-9.7436,-0.88889,4.902,8.5668
-1.9589,-4.6984,-1.9417,12.745,-0.98522,-2.1256,-0.97087,-4.9191,-6.8943,12.745,-0.98522,0.98039,11.483,19.937,4.8254,5.7692,5.8615,-9.7436,1.0159,3.9216,10.499
2.7804,-1.8413,0.0,7.8431,3.9409,-3.0918,-0.97087,-2.0065,-8.8455,7.8431,3.9409,6.8627,10.526,18.032,2.9206,3.8462,1.9968,-6.859,0.06349,3.9216,8.5668
12.259,3.873,7.767,11.765,6.8966,1.7391,5.8252,3.8188,-3.9675,11.765,6.8966,15.686,10.526,17.079,2.9206,4.8077,1.9968,3.7179,2.9206,2.9412,9.533
12.259,4.8254,8.7379,2.9412,-0.98522,16.232,8.7379,5.7605,-2.0163,2.9412,-0.98522,19.608,8.6124,12.317,2.9206,3.8462,-0.90177,9.4872,2.9206,3.9216,5.6683
6.5719,2.9206,4.8544,3.9216,1.9704,21.063,2.9126,2.8479,-2.0163,3.9216,1.9704,12.745,5.7416,8.5079,3.873,0.96154,-2.8341,7.5641,2.9206,5.8824,2.7697
4.6761,-0.88889,5.8252,-10.784,3.9409,4.6377,-3.8835,-0.06472,-0.06504,-10.784,3.9409,6.8627,4.7847,5.6508,5.7778,-0.96154,-0.90177,5.641,1.0159,4.902,-2.0612
7.5197,-5.6508,5.8252,-4.902,-9.8522,3.6715,-2.9126,-1.0356,1.8862,-4.902,-9.8522,1.9608,4.7847,2.7937,7.6825,-1.9231,2.963,4.6795,-0.88889,3.9216,-4.9597
8.4676,-10.413,2.9126,6.8627,-12.808,2.7053,-8.7379,-0.06472,0.91057,6.8627,-12.808,-4.902,3.8278,-3.873,9.5873,-2.8846,5.8615,3.7179,-1.8413,2.9412,-7.8583
11.311,-9.4603,4.8544,1.9608,-7.8818,-1.1594,-11.65,-0.06472,3.8374,1.9608,-7.8818,-8.8235,6.6986,-8.6349,12.444,-2.8846,9.7262,3.7179,1.0159,5.8824,-8.8245
9.4155,-6.6032,5.8252,-4.902,-9.8522,-3.0918,-14.563,-0.06472,8.7154,-4.902,-9.8522,-9.8039,5.7416,-8.6349,11.492,1.9231,12.625,3.7179,2.9206,4.902,-4.9597
6.5719,-5.6508,0.97087,-3.9216,-4.9261,0.77295,-12.621,-0.06472,10.667,-3.9216,-4.9261,-8.8235,3.8278,-8.6349,7.6825,1.9231,9.7262,0.83333,5.7778,2.9412,-2.0612
4.6761,-2.7937,0.0,-6.8627,-5.9113,-3.0918,-5.8252,-1.0356,10.667,-6.8627,-5.9113,-7.8431,3.8278,-6.7302,6.7302,0.96154,8.7601,-1.0897,6.7302,1.9608,-0.12882
2.7804,-1.8413,0.97087,-6.8627,-1.9704,-1.1594,-0.97087,-1.0356,8.7154,-6.8627,-1.9704,-6.8627,5.7416,-2.9206,5.7778,0.0,6.8277,-3.9744,4.8254,3.9216,0.83736
-1.0111,-3.746,1.9417,-0.98039,0.98522,-0.19324,-0.97087,-2.0065,2.8618,-0.98039,0.98522,-6.8627,7.6555,0.88889,5.7778,-2.8846,2.963,-3.9744,1.9683,5.8824,-1.095
-3.8547,-6.6032,1.9417,-3.9216,-3.9409,-9.8551,-3.8835,-5.89,-7.8699,-3.9216,-3.9409,-7.8431,8.6124,4.6984,5.7778,-6.7308,-0.90177,-2.0513,-6.6032,6.8627,-1.095
-4.8025,-8.5079,-0.97087,-12.745,-8.867,-17.584999,-6.7961,-7.8317,-16.65,-12.745,-8.867,-8.8235,6.6986,6.6032,3.873,-8.6538,-6.6989,-0.12821,-15.175,6.8627,0.83736
-3.8547,-9.4603,-6.7961,-5.8824,-11.823,-12.754,-11.65,-6.8608,-18.601999,-5.8824,-11.823,-9.8039,4.7847,5.6508,4.8254,-10.577,-11.53,0.83333,-16.127001,6.8627,-0.12882
-4.8025,-11.365,-10.68,-12.745,-15.764,-5.0242,-17.476,-5.89,-21.528,-12.745,-15.764,-10.784,0.0,2.7937,2.9206,-12.5,-15.395,1.7949,-15.175,5.8824,-3.0274
-6.6983,-13.27,-12.621,-17.646999,-17.733999,-5.9903,-19.417,-6.8608,-17.625999,-17.646999,-17.733999,-9.8039,-5.7416,1.8413,-3.746,-14.423,-19.259001,-1.0897,-12.317,0.98039,-3.9936
-3.8547,-9.4603,-11.65,-11.765,-6.8966,-9.8551,-3.8835,-2.0065,-8.8455,-11.765,-6.8966,-1.9608,-9.5694,-4.8254,-6.6032,-17.308001,-20.225,-1.0897,-7.5556,-3.9216,-8.8245
-1.9589,-4.6984,-7.767,-0.98039,2.9557,0.77295,7.767,2.8479,-0.06504,-0.98039,2.9557,5.8824,-11.483,-9.5873,-7.5556,-17.308001,-18.292999,-2.0513,-2.7937,-4.902,-11.723
-1.0111,0.06349,-3.8835,-0.98039,7.8818,17.198,11.65,7.7023,6.7642,-0.98039,7.8818,12.745,-11.483,-9.5873,-9.4603,-10.577,-13.462,-0.12821,1.0159,-3.9216,-10.757
1.8325,5.7778,1.9417,7.8431,11.823,16.232,11.65,11.586,11.642,7.8431,11.823,15.686,-9.5694,-9.5873,-6.6032,-2.8846,-4.7665,3.7179,6.7302,-2.9412,-7.8583
3.7283,11.492,9.7087,18.627001,10.837,17.198,13.592,11.586,13.593,18.627001,10.837,17.646999,-6.6986,-10.54,-0.88889,1.9231,2.963,6.6026,5.7778,-0.98039,-4.9597
5.624,12.444,12.621,13.725,10.837,17.198,19.417,9.644,13.593,13.725,10.837,18.627001,-3.8278,-11.492,3.873,3.8462,6.8277,7.5641,6.7302,1.9608,-5.9259
7.5197,9.5873,11.65,8.8235,17.733999,13.333,17.476,7.7023,15.545,8.8235,17.733999,15.686,-4.7847,-10.54,8.6349,4.8077,5.8615,7.5641,6.7302,3.9216,-4.9597
9.4155,10.54,13.592,6.8627,18.719,6.57,17.476,4.7896,15.545,6.8627,18.719,11.765,-4.7847,-6.7302,13.397,7.6923,4.8953,8.5256,8.6349,5.8824,1.8035
10.363,11.492,16.504999,-1.9608,4.9261,2.7053,14.563,1.877,9.6911,-1.9608,4.9261,6.8627,-2.8708,-1.0159,15.302,11.538,6.8277,10.449,11.492,8.8235,9.533
11.311,7.6825,16.504999,-14.706,-0.98522,-0.19324,0.97087,-2.0065,-0.06504,-14.706,-0.98522,-2.9412,0.0,5.6508,16.254,13.462,7.7939,10.449,6.7302,12.745,15.33
13.207,1.0159,13.592,-26.471001,-13.793,-5.9903,-10.68,-5.89,-9.8211,-26.471001,-13.793,-9.8039,2.8708,10.413,19.111,12.5,8.7601,6.6026,1.0159,14.706,20.160999
15.103,-1.8413,11.65,-14.706,-23.645,0.77295,-15.534,-3.9482,-15.675,-14.706,-23.645,-9.8039,8.6124,12.317,20.063,10.577,11.659,4.6795,-4.6984,17.646999,19.195
17.945999,-0.88889,12.621,-1.9608,-22.66,8.5024,-18.447001,-2.9773,-20.552999,-1.9608,-22.66,-6.8627,13.397,14.222,22.921,13.462,18.422001,4.6795,-11.365,18.627001,17.261999
17.945999,-1.8413,16.504999,-3.9216,-21.674999,2.7053,-20.388,-4.9191,-24.455,-3.9216,-21.674999,-4.902,18.181999,14.222,25.778,13.462,24.219,3.7179,-16.127001,20.587999,14.364
16.997999,-4.6984,18.447001,-13.725,-18.719,-1.1594,-21.358999,-6.8608,-27.382,-13.725,-18.719,-5.8824,22.01,15.175,24.825001,10.577,27.118,1.7949,-17.079,16.667,12.432
9.4155,-11.365,12.621,-12.745,-19.704,-4.058,-29.125999,-9.7735,-29.333,-12.745,-19.704,-10.784,17.225,12.317,17.205999,4.8077,24.219,-2.0513,-18.983999,11.765,7.6006
2.7804,-12.317,12.621,-15.686,-20.690001,-7.9227,-29.125999,-8.8026,-24.455,-15.686,-20.690001,-9.8039,13.397,9.4603,12.444,2.8846,21.32,-3.0128,-14.222,8.8235,2.7697
2.7804,-5.6508,17.476,-6.8627,-5.9113,-11.787,-18.447001,-5.89,-14.699,-6.8627,-5.9113,-3.9216,11.483,7.5556,9.5873,5.7692,21.32,-3.9744,-5.6508,6.8627,0.83736
2.7804,2.9206,15.534,0.0,2.9557,-1.1594,-7.767,-1.0356,-0.06504,0.0,2.9557,0.0,5.7416,1.8413,4.8254,10.577,19.388,-3.9744,1.9683,1.9608,-0.12882
-0.06319,9.5873,11.65,-4.902,7.8818,-1.1594,6.7961,-1.0356,9.6911,-4.902,7.8818,0.98039,0.0,-5.7778,-0.88889,10.577,10.692,-5.8974,6.7302,-3.9216,0.83736
-4.8025,15.302,6.7961,-10.784,8.867,-1.1594,10.68,-2.0065,16.52,-10.784,8.867,0.98039,-3.8278,-9.5873,-8.5079,9.6154,1.0306,-8.7821,13.397,-7.8431,1.8035
-10.49,16.254,0.0,-7.8431,5.9113,-5.9903,4.8544,-3.9482,20.423,-7.8431,5.9113,-1.9608,-11.483,-10.54,-18.032,9.6154,-8.6312,-11.667,19.111,-13.725,1.8035
-18.073,13.397,-4.8544,-11.765,-5.9113,-16.618,6.7961,-8.8026,15.545,-11.765,-5.9113,-7.8431,-19.139,-9.5873,-24.698,9.6154,-17.327,-16.474001,16.254,-18.627001,7.6006
-19.968,12.444,-5.8252,-16.667,-5.9113,-19.517,0.0,-12.686,7.7398,-16.667,-5.9113,-15.686,-20.096001,-5.7778,-20.889,13.462,-16.361,-15.513,10.54,-15.686,13.398
-16.177,9.5873,-4.8544,-28.431,-5.9113,-23.382,-3.8835,-14.628,-0.06504,-28.431,-5.9113,-20.587999,-14.354,-1.0159,-12.317,19.231001,-9.5974,-14.551,5.7778,-10.784,18.229
-10.49,5.7778,-4.8544,-32.353001,-7.8818,-22.415001,-6.7961,-11.715,-5.9187,-32.353001,-7.8818,-20.587999,-6.6986,6.6032,-1.8413,24.038,-2.8341,-7.8205,1.9683,-0.98039,24.025999
-4.8025,1.9683,-3.8835,-22.549,-14.778,-27.246,-12.621,-8.8026,-9.8211,-22.549,-14.778,-18.627001,0.95694,8.5079,5.7778,25.962,3.9291,-0.12821,-1.8413,5.8824,23.059999
1.8325,3.873,1.9417,-10.784,-8.867,-13.72,-11.65,-3.9482,-9.8211,-10.784,-8.867,-11.765,6.6986,11.365,10.54,28.846001,14.557,0.83333,-9.4603,8.8235,23.059999
9.4155,8.6349,12.621,-1.9608,-2.9557,2.7053,-3.8835,-1.0356,-12.748,-1.9608,-2.9557,-0.98039,10.526,15.175,16.254,30.768999,25.184999,1.7949,-10.413,10.784,24.992001
16.997999,10.54,20.388,2.9412,-8.867,1.7391,-2.9126,0.90615,-15.675,2.9412,-8.867,6.8627,12.44,15.175,21.016001,25.962,29.049999,0.83333,-6.6032,8.8235,21.127001
18.893999,9.5873,21.358999,0.98039,3.9409,3.6715,1.9417,-0.06472,-11.772,0.98039,3.9409,10.784,10.526,12.317,19.111,17.308001,27.118,0.83333,-1.8413,9.8039,15.33
20.790001,10.54,22.33,0.98039,12.808,6.57,3.8835,-1.0356,-5.9187,0.98039,12.808,10.784,9.5694,8.5079,17.205999,7.6923,24.219,2.7564,-2.7937,11.765,7.6006
22.686001,16.254,21.358999,1.9608,11.823,10.435,8.7379,-2.0065,3.8374,1.9608,11.823,12.745,7.6555,6.6032,15.302,3.8462,19.388,3.7179,1.0159,9.8039,1.8035
16.051001,20.063,15.534,5.8824,11.823,7.5362,16.504999,-4.9191,12.618,5.8824,11.823,11.765,2.8708,3.746,7.6825,1.9231,11.659,0.83333,9.5873,5.8824,-1.095
8.4676,20.063,9.7087,-1.9608,11.823,-1.1594,19.417,-7.8317,14.569,-1.9608,11.823,9.8039,-0.95694,0.88889,-0.88889,0.96154,2.963,-4.9359,15.302,0.98039,-2.0612
5.624,21.968,9.7087,1.9608,7.8818,-5.0242,21.358999,-7.8317,14.569,1.9608,7.8818,10.784,-2.8708,-1.9683,-5.6508,1.9231,-1.868,-7.8205,15.302,-2.9412,-4.9597
7.5197,26.73,15.534,7.8431,9.8522,-4.058,28.155001,-2.9773,16.52,7.8431,9.8522,16.667,-1.9139,-1.9683,-4.6984,6.7308,1.0306,-7.8205,16.254,-3.9216,-4.9597
10.363,26.73,19.417,0.0,13.793,10.435,26.214001,-1.0356,11.642,0.0,13.793,17.646999,0.0,0.88889,-0.88889,13.462,6.8277,-4.9359,15.302,-3.9216,-1.095
14.155,21.968,18.447001,0.98039,6.8966,14.3,21.358999,1.877,4.813,0.98039,6.8966,17.646999,3.8278,2.7937,5.7778,18.268999,12.625,-0.12821,9.5873,0.0,1.8035
13.207,10.54,13.592,8.8235,5.9113,19.129999,7.767,5.7605,-0.06504,8.8235,5.9113,12.745,5.7416,7.5556,7.6825,23.077,17.455999,4.6795,1.9683,0.98039,8.5668
6.5719,0.06349,7.767,7.8431,7.8818,13.333,2.9126,5.7605,-3.9675,7.8431,7.8818,7.8431,7.6555,13.27,7.6825,25.962,19.388,4.6795,-0.88889,3.9216,14.364
1.8325,-3.746,4.8544,3.9216,2.9557,3.6715,0.0,2.8479,-5.9187,3.9216,2.9557,4.902,12.44,13.27,9.5873,25.0,21.32,2.7564,-2.7937,6.8627,13.398
0.88468,-2.7937,2.9126,2.9412,8.867,3.6715,6.7961,2.8479,-3.9675,2.9412,8.867,5.8824,17.225,15.175,13.397,23.077,22.287001,1.7949,-9.4603,10.784,13.398
2.7804,-3.746,0.97087,-0.98039,2.9557,-3.0918,7.767,2.8479,-2.0163,-0.98039,2.9557,5.8824,19.139,18.032,14.349,20.191999,21.32,-2.0513,-12.317,8.8235,15.33
0.88468,-7.5556,-3.8835,2.9412,-1.9704,-0.19324,-0.97087,2.8479,-3.9675,2.9412,-1.9704,-1.9608,20.096001,16.127001,10.54,14.423,16.49,1.7949,-9.4603,9.8039,12.432
-1.0111,-9.4603,-5.8252,11.765,3.9409,5.6039,-4.8544,2.8479,-8.8455,11.765,3.9409,-5.8824,20.096001,14.222,9.5873,7.6923,12.625,8.5256,-11.365,11.765,7.6006
-2.9068,-12.317,-6.7961,4.902,-8.867,2.7053,-6.7961,3.8188,-12.748,4.902,-8.867,-9.8039,17.225,11.365,8.6349,0.0,5.8615,8.5256,-15.175,9.8039,-2.0612
-4.8025,-14.222,-9.7087,2.9412,-8.867,0.77295,-9.7087,6.7314,-13.724,2.9412,-8.867,-8.8235,10.526,2.7937,1.9683,-11.538,-5.7327,5.641,-18.032,5.8824,-9.7907
-5.7504,-13.27,-9.7087,11.765,10.837,-0.19324,-15.534,10.615,-7.8699,11.765,10.837,-4.902,4.7847,-3.873,-4.6984,-21.153999,-16.361,3.7179,-13.27,2.9412,-16.554001
-7.6461,-12.317,-13.592,10.784,11.823,5.6039,-6.7961,8.6731,-1.0407,10.784,11.823,-1.9608,-3.8278,-8.6349,-13.27,-25.962,-25.056,-0.12821,-1.8413,-2.9412,-17.52
-13.333,-11.365,-19.417,7.8431,0.98522,4.6377,2.9126,4.7896,5.7886,7.8431,0.98522,-0.98039,-15.311,-12.444,-19.937,-26.923,-32.785999,-4.9359,5.7778,-12.745,-16.554001
-12.385,-10.413,-19.417,-2.9412,-10.837,-5.9903,6.7961,1.877,7.7398,-2.9412,-10.837,1.9608,-25.837,-18.159,-23.746,-26.923,-36.651001,-7.8205,9.5873,-18.627001,-19.452
-10.49,-8.5079,-16.504999,0.0,3.9409,0.77295,12.621,0.90615,16.52,0.0,3.9409,6.8627,-32.535999,-24.825001,-26.603001,-27.885,-34.717999,-8.7821,14.349,-23.528999,-26.216
-9.5419,-1.8413,-10.68,12.745,17.733999,9.4686,20.388,-1.0356,23.35,12.745,17.733999,14.706,-32.535999,-27.683001,-25.650999,-25.962,-26.989,-11.667,16.254,-24.51,-29.114
-7.6461,3.873,-3.8835,5.8824,11.823,2.7053,18.447001,-5.89,18.472,5.8824,11.823,17.646999,-25.837,-23.872999,-24.698,-18.268999,-15.395,-12.628,14.349,-24.51,-24.283001
-7.6461,5.7778,1.9417,-4.902,3.9409,2.7053,7.767,-5.89,10.667,-4.902,3.9409,14.706,-15.311,-14.349,-20.889,-7.6923,-3.8003,-12.628,7.6825,-19.608,-14.622
-10.49,-1.8413,1.9417,-2.9412,-11.823,5.6039,-8.7379,-4.9191,-1.0407,-2.9412,-11.823,3.9216,-5.7416,-7.6825,-16.127001,0.0,1.9968,-10.705,-4.6984,-14.706,-6.8921
-9.5419,-7.5556,2.9126,0.0,-17.733999,-2.1256,-10.68,-4.9191,-9.8211,0.0,-17.733999,-1.9608,2.8708,-3.873,-10.413,5.7692,5.8615,-9.7436,-12.317,-7.8431,-2.0612
-8.594,-10.413,0.97087,-1.9608,-13.793,-9.8551,-12.621,-4.9191,-11.772,-1.9608,-13.793,-7.8431,9.5694,1.8413,-4.6984,8.6538,9.7262,-6.859,-9.4603,-0.98039,2.7697
-8.594,-12.317,-4.8544,-7.8431,-7.8818,-13.72,-16.504999,-5.89,-7.8699,-7.8431,-7.8818,-12.745,12.44,3.746,0.06349,7.6923,5.8615,-6.859,-9.4603,1.9608,5.6683
-9.5419,-13.27,-12.621,-7.8431,-6.8966,-11.787,-15.534,-7.8317,-6.8943,-7.8431,-6.8966,-14.706,14.354,2.7937,-0.88889,0.0,-4.7665,-6.859,-7.5556,5.8824,3.7359
-15.229,-17.079,-22.33,-11.765,-8.867,-12.754,-19.417,-9.7735,-5.9187,-11.765,-8.867,-19.608,9.5694,0.88889,-8.5079,-9.6154,-17.327,-4.9359,-3.746,5.8824,0.83736
-19.968,-21.841,-32.039001,-9.8039,-6.8966,-11.787,-18.447001,-9.7735,-4.9431,-9.8039,-6.8966,-22.549,1.9139,-1.9683,-16.127001,-17.308001,-29.886999,-3.9744,0.06349,2.9412,-3.9936
-20.916,-24.698,-35.922001,-5.8824,-9.8522,-6.9565,-17.476,-8.8026,1.8862,-5.8824,-9.8522,-23.528999,-6.6986,-3.873,-19.937,-22.115,-37.617001,-3.0128,3.873,-1.9608,-4.9597
-17.125,-20.889,-33.009998,-7.8431,-3.9409,-8.8889,-5.8252,-8.8026,11.642,-7.8431,-3.9409,-19.608,-13.397,-7.6825,-23.746,-25.0,-39.549,-3.9744,11.492,-5.8824,-6.8921
-6.6983,-8.5079,-20.388,-8.8235,3.9409,-14.686,5.8252,-5.89,21.398001,-8.8235,3.9409,-8.8235,-11.483,-8.6349,-16.127001,-22.115,-30.853001,-3.0128,19.111,-5.8824,-8.8245
7.5197,3.873,0.97087,9.8039,15.764,9.4686,17.476,1.877,30.179001,9.8039,15.764,9.8039,-3.8278,-10.54,-2.7937,-14.423,-12.496,-0.12821,28.635,-3.9216,-6.8921
16.051001,15.302,16.504999,16.667,18.719,22.995001,26.214001,6.7314,35.056999,16.667,18.719,22.549,0.95694,-9.5873,5.7778,-2.8846,4.8953,0.83333,28.635,-3.9216,-3.9936
19.841999,23.872999,23.301001,20.587999,19.704,19.129999,28.155001,8.6731,33.105999,20.587999,19.704,24.51,4.7847,-2.9206,12.444,13.462,18.422001,2.7564,26.73,-2.9412,2.7697
17.945999,31.492001,27.184,26.471001,21.674999,17.198,25.243,5.7605,30.179001,26.471001,21.674999,18.627001,8.6124,1.8413,15.302,27.885,26.150999,3.7179,29.587,-0.98039,9.533
14.155,34.348999,28.155001,20.587999,21.674999,12.367,21.358999,-0.06472,23.35,20.587999,21.674999,13.725,14.354,6.6032,17.205999,35.577,31.948,3.7179,27.683001,2.9412,10.499
8.4676,33.396999,23.301001,4.902,13.793,9.4686,19.417,-4.9191,15.545,4.902,13.793,10.784,20.096001,13.27,21.968,40.384998,36.778999,5.641,21.016001,8.8235,12.432
7.5197,32.444,19.417,2.9412,14.778,2.7053,20.388,-4.9191,10.667,2.9412,14.778,11.765,27.750999,21.841,29.587,43.269001,39.678001,5.641,16.254,15.686,16.296
7.5197,26.73,15.534,8.8235,15.764,1.7391,14.563,-2.9773,5.7886,8.8235,15.764,9.8039,30.622,26.603001,28.635,40.384998,37.745998,3.7179,11.492,17.646999,18.229
2.7804,19.111,8.7379,10.784,4.9261,-3.0918,5.8252,-2.9773,-2.0163,10.784,4.9261,4.902,26.794001,28.507999,21.016001,33.653999,27.118,1.7949,1.0159,15.686,19.195
-6.6983,9.5873,0.97087,3.9216,1.9704,-4.058,-1.9417,-6.8608,-6.8943,3.9216,1.9704,0.0,20.096001,26.603001,9.5873,22.115,9.7262,-0.12821,-6.6032,12.745,18.229
-13.333,-0.88889,-9.7087,-3.9216,1.9704,-5.0242,-2.9126,-11.715,-6.8943,-3.9216,1.9704,-5.8824,10.526,20.889,-2.7937,5.7692,-9.5974,-3.9744,-9.4603,6.8627,13.398
-16.177,-12.317,-18.447001,-15.686,-1.9704,-15.652,-2.9126,-15.599,-5.9187,-15.686,-1.9704,-9.8039,0.95694,13.27,-13.27,-12.5,-26.989,-2.0513,-11.365,5.8824,4.7021
-16.177,-21.841,-24.271999,-12.745,-10.837,-20.483,-1.9417,-14.628,-2.0163,-12.745,-10.837,-11.765,-11.483,2.7937,-20.889,-31.731001,-42.448002,-0.12821,-9.4603,2.9412,-3.9936
-11.438,-25.650999,-22.33,-4.902,-8.867,-4.058,3.8835,-9.7735,4.813,-4.902,-8.867,-5.8824,-20.096001,-7.6825,-24.698,-41.346001,-47.278999,-3.0128,-0.88889,-4.902,-9.7907
-2.9068,-18.032,-14.563,-8.8235,0.98522,4.6377,7.767,-2.9773,13.593,-8.8235,0.98522,4.902,-22.01,-8.6349,-21.841,-34.615002,-38.583,-6.859,3.873,-9.8039,-11.723
2.7804,-9.4603,-5.8252,6.8627,10.837,8.5024,14.563,-0.06472,18.472,6.8627,10.837,12.745,-18.181999,-7.6825,-14.222,-23.077,-25.056,-10.705,9.5873,-12.745,-7.8583
4.6761,-2.7937,-0.97087,11.765,15.764,13.333,12.621,1.877,19.447001,11.765,15.764,14.706,-9.5694,-4.8254,-6.6032,-10.577,-9.5974,-12.628,13.397,-9.8039,-0.12882
1.8325,-1.8413,-0.97087,7.8431,6.8966,3.6715,4.8544,-0.06472,14.569,7.8431,6.8966,7.8431,-2.8708,-1.9683,0.06349,0.96154,3.9291,-12.628,12.444,-4.902,3.7359
-1.0111,-2.7937,-1.9417,7.8431,2.9557,-2.1256,0.0,-2.0065,6.7642,7.8431,2.9557,0.0,2.8708,-1.0159,5.7778,4.8077,11.659,-8.7821,8.6349,0.98039,2.7697
0.88468,-3.746,0.97087,5.8824,0.98522,0.77295,-3.8835,-2.0065,-2.9919,5.8824,0.98522,-3.9216,10.526,5.6508,11.492,8.6538,20.354,-1.0897,0.06349,7.8431,5.6683
2.7804,-3.746,6.7961,-6.8627,-12.808,-14.686,-14.563,-2.0065,-12.748,-6.8627,-12.808,-8.8235,15.311,9.4603,15.302,14.423,26.150999,3.7179,-8.5079,11.765,7.6006
5.624,-1.8413,11.65,-16.667,-15.764,-12.754,-21.358999,-2.9773,-18.601999,-16.667,-15.764,-9.8039,18.181999,15.175,18.159,21.153999,29.049999,6.6026,-9.4603,11.765,8.5668
-0.06319,-0.88889,13.592,-6.8627,-10.837,-5.0242,-20.388,-0.06472,-23.48,-6.8627,-10.837,-11.765,18.181999,14.222,16.254,22.115,27.118,10.449,-15.175,13.725,5.6683
-0.06319,1.0159,13.592,10.784,-12.808,-2.1256,-18.447001,5.7605,-22.504,10.784,-12.808,-7.8431,16.268,13.27,12.444,20.191999,20.354,11.41,-16.127001,13.725,3.7359
2.7804,1.0159,9.7087,2.9412,-12.808,-3.0918,-18.447001,8.6731,-19.577,2.9412,-12.808,-3.9216,10.526,12.317,6.7302,12.5,10.692,13.333,-8.5079,10.784,5.6683
2.7804,-1.8413,4.8544,-13.725,-4.9261,-21.448999,-16.504999,8.6731,-13.724,-13.725,-4.9261,-3.9216,7.6555,9.4603,0.06349,4.8077,1.0306,15.256,-7.5556,7.8431,7.6006
3.7283,-2.7937,0.0,3.9216,2.9557,-3.0918,-12.621,11.586,-7.8699,3.9216,2.9557,-0.98039,2.8708,4.6984,-5.6508,-1.9231,-7.6651,16.218,-6.6032,5.8824,6.6345
0.88468,-7.5556,-6.7961,13.725,3.9409,18.164,-3.8835,13.528,-2.9919,13.725,3.9409,1.9608,-6.6986,-4.8254,-11.365,-12.5,-18.292999,16.218,-1.8413,0.0,0.83736
-1.9589,-10.413,-14.563,5.8824,1.9704,12.367,5.8252,13.528,5.7886,5.8824,1.9704,3.9216,-15.311,-13.397,-16.127001,-23.077,-27.955,14.295,2.9206,-4.902,-4.9597
-5.7504,-16.127001,-22.33,-0.98039,-0.98522,3.6715,2.9126,9.644,7.7398,-0.98039,-0.98522,0.98039,-20.096001,-18.159,-18.983999,-29.808001,-32.785999,10.449,-0.88889,-10.784,-10.757
-6.6983,-19.937,-26.214001,0.98039,-4.9261,-5.0242,-5.8252,10.615,2.8618,0.98039,-4.9261,-5.8824,-22.966999,-19.111,-18.032,-29.808001,-30.853001,7.5641,-4.6984,-12.745,-14.622
-3.8547,-20.889,-22.33,5.8824,-5.9113,-3.0918,-13.592,13.528,-2.9919,5.8824,-5.9113,-11.765,-20.096001,-18.159,-13.27,-25.0,-23.124001,11.41,-5.6508,-10.784,-13.655
0.88468,-20.889,-15.534,0.98039,-3.9409,4.6377,-18.447001,16.440001,-9.8211,0.98039,-3.9409,-13.725,-14.354,-17.205999,-9.4603,-19.231001,-13.462,18.141001,-8.5079,-6.8627,-14.622
4.6761,-16.127001,-7.767,-5.8824,-5.9113,-1.1594,-20.388,18.382,-13.724,-5.8824,-5.9113,-12.745,-8.6124,-13.397,-3.746,-14.423,-4.7665,21.025999,-10.413,-0.98039,-13.655
6.5719,-10.413,0.0,0.0,-12.808,7.5362,-16.504999,19.353001,-16.65,0.0,-12.808,-9.8039,-3.8278,-13.397,2.9206,-9.6154,1.0306,21.987,-13.27,1.9608,-11.723
3.7283,-4.6984,2.9126,12.745,-11.823,9.4686,-12.621,19.353001,-18.601999,12.745,-11.823,-8.8235,0.0,-13.397,5.7778,-7.6923,6.8277,20.063999,-12.317,5.8824,-11.723
1.8325,0.06349,2.9126,14.706,-6.8966,1.7391,-9.7087,16.440001,-19.577,14.706,-6.8966,-6.8627,3.8278,-7.6825,6.7302,-7.6923,7.7939,18.141001,-15.175,8.8235,-9.7907
-1.0111,4.8254,3.8835,11.765,-4.9261,-1.1594,-1.9417,13.528,-17.625999,11.765,-4.9261,-2.9412,5.7416,-4.8254,4.8254,-11.538,1.9968,12.372,-17.079,5.8824,-9.7907
-4.8025,3.873,5.8252,9.8039,1.9704,-3.0918,-0.97087,10.615,-13.724,9.8039,1.9704,2.9412,4.7847,-1.9683,-0.88889,-15.385,-5.7327,1.7949,-12.317,0.98039,-8.8245
-3.8547,2.9206,8.7379,7.8431,8.867,-0.19324,0.97087,6.7314,-9.8211,7.8431,8.867,10.784,0.95694,3.746,-9.4603,-18.268999,-13.462,-3.0128,-7.5556,-4.902,-5.9259
-0.06319,2.9206,10.68,2.9412,7.8818,3.6715,5.8252,3.8188,-7.8699,2.9412,7.8818,17.646999,-2.8708,4.6984,-13.27,-19.231001,-21.191999,-4.9359,-4.6984,-7.8431,-3.9936
4.6761,3.873,10.68,3.9216,8.867,3.6715,15.534,4.7896,-3.9675,3.9216,8.867,22.549,-9.5694,4.6984,-18.032,-15.385,-24.09,-3.0128,-0.88889,-10.784,-0.12882
9.4155,7.6825,9.7087,9.8039,10.837,8.5024,24.271999,8.6731,-1.0407,9.8039,10.837,24.51,-15.311,3.746,-20.889,-7.6923,-22.158001,-1.0897,3.873,-14.706,6.6345
12.259,15.302,12.621,13.725,13.793,13.333,23.301001,14.498,-0.06504,13.725,13.793,26.471001,-17.225,1.8413,-18.983999,3.8462,-14.428,1.7949,7.6825,-16.667,11.465
16.997999,24.825001,18.447001,14.706,15.764,25.893999,28.155001,22.264999,-0.06504,14.706,15.764,31.372999,-15.311,0.88889,-13.27,15.385,-3.8003,6.6026,8.6349,-15.686,11.465
17.945999,25.778,18.447001,11.765,13.793,25.893999,27.184,24.207001,-2.0163,11.765,13.793,31.372999,-14.354,-0.06349,-7.5556,21.153999,4.8953,10.449,6.7302,-12.745,9.533
16.997999,20.063,15.534,19.608,16.749001,28.792,14.563,23.236,-5.9187,19.608,16.749001,22.549,-9.5694,0.88889,1.9683,22.115,10.692,14.295,0.06349,-4.902,10.499
17.945999,12.444,12.621,18.627001,11.823,28.792,12.621,23.236,-11.772,18.627001,11.823,15.686,-1.9139,-1.0159,8.6349,17.308001,13.591,16.218,-7.5556,2.9412,4.7021
16.051001,4.8254,6.7961,15.686,2.9557,26.860001,4.8544,22.264999,-16.65,15.686,2.9557,8.8235,3.8278,0.88889,12.444,12.5,16.49,19.103001,-11.365,8.8235,-1.095
12.259,-0.88889,1.9417,17.646999,2.9557,22.995001,-2.9126,22.264999,-21.528,17.646999,2.9557,2.9412,7.6555,0.88889,14.349,7.6923,16.49,21.025999,-17.079,14.706,-2.0612
10.363,-4.6984,0.97087,0.98039,-9.8522,9.4686,-8.7379,19.353001,-25.431,0.98039,-9.8522,0.0,8.6124,-1.0159,14.349,1.9231,13.591,20.063999,-19.937,14.706,-5.9259
11.311,-4.6984,1.9417,0.98039,-22.66,9.4686,-5.8252,21.294001,-28.358,0.98039,-22.66,0.98039,11.483,-1.9683,12.444,-1.9231,11.659,21.025999,-24.698,18.627001,-10.757
7.5197,-4.6984,0.97087,0.0,-14.778,15.266,-9.7087,21.294001,-28.358,0.0,-14.778,0.0,11.483,-3.873,9.5873,-5.7692,5.8615,20.063999,-28.507999,19.608,-15.588
2.7804,-5.6508,1.9417,0.0,1.9704,11.401,-13.592,16.440001,-24.455,0.0,1.9704,0.0,7.6555,-4.8254,4.8254,-10.577,-2.8341,12.372,-27.556,15.686,-15.588
-3.8547,-8.5079,-0.97087,2.9412,4.9261,-1.1594,-6.7961,9.644,-19.577,2.9412,4.9261,-0.98039,1.9139,-5.7778,-2.7937,-15.385,-9.5974,3.7179,-24.698,6.8627,-15.588
-10.49,-12.317,-4.8544,-4.902,-1.9704,-1.1594,-3.8835,0.90615,-14.699,-4.902,-1.9704,-2.9412,-2.8708,-9.5873,-7.5556,-21.153999,-14.428,-3.9744,-22.794001,0.98039,-16.554001
-8.594,-9.4603,-2.9126,-5.8824,-1.9704,1.7391,0.97087,-2.0065,-8.8455,-5.8824,-1.9704,1.9608,-5.7416,-9.5873,-5.6508,-21.153999,-14.428,-6.859,-13.27,-1.9608,-14.622
-3.8547,-3.746,-0.97087,-2.9412,0.98522,1.7391,7.767,-2.9773,-3.9675,-2.9412,0.98522,7.8431,-9.5694,-8.6349,-7.5556,-14.423,-10.564,-8.7821,-9.4603,-6.8627,-10.757
-0.06319,0.06349,0.0,-12.745,5.9113,-5.0242,10.68,-5.89,-0.06504,-12.745,5.9113,8.8235,-11.483,-6.7302,-7.5556,-6.7308,-7.6651,-9.7436,-6.6032,-10.784,-4.9597
2.7804,3.873,3.8835,-6.8627,8.867,-5.0242,16.504999,-7.8317,4.813,-6.8627,8.867,7.8431,-10.526,-1.0159,-4.6984,2.8846,-3.8003,-9.7436,-2.7937,-10.784,1.8035
4.6761,4.8254,4.8544,0.98039,6.8966,8.5024,17.476,-7.8317,6.7642,0.98039,6.8966,7.8431,-7.6555,2.7937,-0.88889,7.6923,1.0306,-7.8205,-4.6984,-7.8431,4.7021
4.6761,1.9683,3.8835,1.9608,6.8966,3.6715,12.621,-5.89,5.7886,1.9608,6.8966,3.9216,-3.8278,3.746,1.9683,5.7692,4.8953,-3.9744,-6.6032,-3.9216,0.83736
2.7804,1.0159,1.9417,0.0,7.8818,-2.1256,5.8252,-4.9191,3.8374,0.0,7.8818,-0.98039,-0.95694,3.746,4.8254,2.8846,6.8277,-1.0897,-7.5556,0.98039,-2.0612
-1.0111,-1.8413,-0.97087,0.0,0.98522,0.77295,-2.9126,-2.9773,0.91057,0.0,0.98522,-5.8824,0.0,1.8413,3.873,-0.96154,4.8953,-0.12821,-10.413,4.902,-3.0274
-6.6983,-7.5556,-8.7379,-5.8824,-3.9409,-10.821,-7.767,-3.9482,-3.9675,-5.8824,-3.9409,-11.765,-1.9139,-0.06349,1.9683,-5.7692,-0.90177,-0.12821,-11.365,5.8824,-4.9597
-11.438,-9.4603,-15.534,-8.8235,-7.8818,-15.652,-1.9417,-4.9191,-3.9675,-8.8235,-7.8818,-17.646999,-3.8278,-5.7778,1.0159,-10.577,-9.5974,-0.12821,-11.365,6.8627,-8.8245
-15.229,-16.127001,-22.33,-12.745,-8.867,-15.652,-9.7087,-5.89,-2.9919,-12.745,-8.867,-21.569,-6.6986,-14.349,-2.7937,-21.153999,-20.225,-3.0128,-12.317,5.8824,-19.452
-19.968,-20.889,-28.155001,-9.8039,-5.9113,-16.618,-22.33,-9.7735,-1.0407,-9.8039,-5.9113,-25.49,-8.6124,-18.159,-7.5556,-27.885,-26.023001,-6.859,-8.5079,2.9412,-26.216
-19.968,-17.079,-26.214001,-7.8431,-3.9409,-18.551001,-16.504999,-11.715,2.8618,-7.8431,-3.9409,-23.528999,-5.7416,-18.159,-7.5556,-26.923,-24.09,-9.7436,-1.8413,1.9608,-23.316999
-20.916,-17.079,-23.301001,-14.706,-5.9113,-27.246,-8.7379,-15.599,3.8374,-14.706,-5.9113,-22.549,-5.7416,-15.302,-6.6032,-24.038,-19.259001,-14.551,-1.8413,-2.9412,-19.452
-19.021,-17.079,-18.447001,-18.627001,-16.749001,-24.348,-11.65,-16.57,5.7886,-18.627001,-16.749001,-17.646999,-7.6555,-9.5873,-5.6508,-16.346001,-12.496,-16.474001,5.7778,-8.8235,-9.7907
-14.281,-13.27,-11.65,-14.706,-8.867,-11.787,-10.68,-13.657,6.7642,-14.706,-8.867,-11.765,-8.6124,-2.9206,-3.746,-8.6538,-6.6989,-14.551,6.7302,-9.8039,2.7697
-11.438,-11.365,-9.7087,-6.8627,8.867,-5.0242,-6.7961,-10.744,7.7398,-6.8627,8.867,-9.8039,-10.526,-0.06349,-4.6984,-1.9231,-3.8003,-14.551,4.8254,-9.8039,7.6006
-6.6983,-6.6032,-7.767,2.9412,3.9409,-2.1256,-4.8544,-8.8026,8.7154,2.9412,3.9409,-7.8431,-10.526,-0.06349,-3.746,4.8077,0.06441,-12.628,2.9206,-7.8431,8.5668
-1.0111,1.0159,-1.9417,-2.9412,-9.8522,-4.058,-1.9417,-11.715,11.642,-2.9412,-9.8522,-2.9412,-3.8278,4.6984,1.9683,12.5,5.8615,-11.667,5.7778,-3.9216,11.465
2.7804,8.6349,6.7961,-14.706,-6.8966,-16.618,-1.9417,-19.482,12.618,-14.706,-6.8966,0.98039,2.8708,13.27,7.6825,19.231001,12.625,-12.628,10.54,0.0,18.229
3.7283,15.302,11.65,-8.8235,5.9113,-3.0918,2.9126,-23.365999,16.52,-8.8235,5.9113,5.8824,7.6555,18.983999,11.492,24.038,19.388,-13.59,14.349,3.9216,22.093
7.5197,19.111,15.534,-3.9216,11.823,10.435,10.68,-21.424,21.398001,-3.9216,11.823,11.765,11.483,20.889,14.349,23.077,22.287001,-12.628,19.111,6.8627,23.059999
7.5197,16.254,14.563,-1.9608,8.867,0.77295,13.592,-18.511,21.398001,-1.9608,8.867,13.725,9.5694,18.983999,11.492,15.385,17.455999,-13.59,20.063,6.8627,17.261999
6.5719,11.492,11.65,1.9608,7.8818,0.77295,17.476,-12.686,20.423,1.9608,7.8818,14.706,8.6124,12.317,5.7778,3.8462,10.692,-9.7436,18.159,7.8431,4.7021
1.8325,4.8254,5.8252,-6.8627,2.9557,3.6715,9.7087,-9.7735,19.447001,-6.8627,2.9557,10.784,3.8278,1.8413,-1.8413,-7.6923,0.06441,-8.7821,11.492,4.902,-10.757
-5.7504,-1.8413,-1.9417,-1.9608,0.98522,0.77295,0.97087,-6.8608,17.496,-1.9608,0.98522,1.9608,0.0,-3.873,-7.5556,-12.5,-8.6312,-8.7821,10.54,1.9608,-15.588
-10.49,-4.6984,-6.7961,-2.9412,-7.8818,2.7053,1.9417,-4.9191,17.496,-2.9412,-7.8818,-2.9412,-2.8708,-5.7778,-7.5556,-9.6154,-9.5974,-6.859,10.54,-0.98039,-10.757
-11.438,-10.413,-11.65,-11.765,-7.8818,-6.9565,-5.8252,-6.8608,14.569,-11.765,-7.8818,-8.8235,-9.5694,-7.6825,-7.5556,-5.7692,-8.6312,-7.8205,8.6349,-5.8824,-5.9259
-11.438,-15.175,-15.534,-24.51,-11.823,-17.584999,-20.388,-11.715,11.642,-24.51,-11.823,-15.686,-15.311,-6.7302,-9.4603,-1.9231,-7.6651,-8.7821,9.5873,-10.784,0.83736
-12.385,-16.127001,-17.476,-25.49,-14.778,-26.280001,-21.358999,-13.657,11.642,-25.49,-14.778,-20.587999,-15.311,-3.873,-7.5556,3.8462,-0.90177,-7.8205,12.444,-13.725,7.6006
-14.281,-18.032,-21.358999,-15.686,-13.793,-26.280001,-20.388,-13.657,10.667,-15.686,-13.793,-24.51,-11.483,-1.9683,-4.6984,5.7692,2.963,-4.9359,8.6349,-10.784,10.499
-19.021,-22.794001,-26.214001,-10.784,-18.719,-17.584999,-22.33,-15.599,9.6911,-10.784,-18.719,-29.412001,-11.483,-4.8254,-6.6032,-0.96154,-3.8003,-6.859,8.6349,-9.8039,8.5668
-17.125,-22.794001,-25.243,-7.8431,-19.704,-12.754,-19.417,-12.686,13.593,-7.8431,-19.704,-28.431,-10.526,-5.7778,-7.5556,-2.8846,-6.6989,-7.8205,16.254,-7.8431,8.5668
-14.281,-18.032,-22.33,-12.745,-16.749001,-17.584999,-20.388,-10.744,15.545,-12.745,-16.749001,-26.471001,-7.6555,-4.8254,-4.6984,-1.9231,-8.6312,-7.8205,21.968,-5.8824,10.499
-12.385,-7.5556,-15.534,-16.667,-13.793,-19.517,-12.621,-9.7735,19.447001,-16.667,-13.793,-21.569,-4.7847,-4.8254,0.06349,1.9231,-8.6312,-8.7821,27.683001,-4.902,11.465
-10.49,2.9206,-7.767,-18.627001,-7.8818,-18.551001,-3.8835,-9.7735,22.374001,-18.627001,-7.8818,-16.667,0.0,-1.9683,2.9206,6.7308,-4.7665,-8.7821,33.396999,-1.9608,11.465
-3.8547,11.492,0.0,-8.8235,0.0,-8.8889,1.9417,-6.8608,23.35,-8.8235,0.0,-11.765,3.8278,1.8413,7.6825,10.577,-1.868,-7.8205,35.301998,1.9608,13.398
5.624,20.063,9.7087,3.9216,6.8966,-1.1594,8.7379,-2.0065,25.301001,3.9216,6.8966,-5.8824,8.6124,4.6984,12.444,13.462,3.9291,-3.0128,29.587,5.8824,15.33
11.311,25.778,15.534,4.902,7.8818,6.57,14.563,-0.06472,25.301001,4.902,7.8818,1.9608,8.6124,2.7937,11.492,16.346001,5.8615,-1.0897,27.683001,6.8627,15.33
13.207,29.587,20.388,-2.9412,4.9261,2.7053,19.417,-2.0065,26.275999,-2.9412,4.9261,6.8627,5.7416,-2.9206,8.6349,17.308001,6.8277,-1.0897,30.540001,3.9216,13.398
11.311,32.444,25.243,-1.9608,5.9113,-5.9903,17.476,-3.9482,23.35,-1.9608,5.9113,8.8235,6.6986,-2.9206,6.7302,20.191999,10.692,-2.0513,28.635,1.9608,12.432
8.4676,29.587,26.214001,-11.765,0.98522,-5.0242,8.7379,-5.89,18.472,-11.765,0.98522,4.902,9.5694,0.88889,9.5873,25.962,18.422001,-3.0128,25.778,0.0,17.261999
7.5197,25.778,24.271999,-9.8039,-2.9557,3.6715,7.767,-5.89,12.618,-9.8039,-2.9557,0.98039,12.44,2.7937,12.444,30.768999,27.118,-2.0513,20.063,0.0,19.195
9.4155,21.968,24.271999,-2.9412,-0.98522,7.5362,4.8544,-2.9773,8.7154,-2.9412,-0.98522,0.0,14.354,5.6508,17.205999,31.731001,33.881001,1.7949,14.349,1.9608,18.229
12.259,18.159,23.301001,-9.8039,-6.8966,2.7053,3.8835,-2.0065,5.7886,-9.8039,-6.8966,1.9608,15.311,7.5556,19.111,29.808001,37.745998,5.641,12.444,3.9216,16.296
13.207,14.349,20.388,-6.8627,-5.9113,-5.0242,-1.9417,-1.0356,1.8862,-6.8627,-5.9113,1.9608,15.311,8.5079,18.159,25.0,37.745998,6.6026,4.8254,4.902,13.398
8.4676,12.444,16.504999,2.9412,6.8966,2.7053,-6.7961,-1.0356,0.91057,2.9412,6.8966,0.98039,14.354,6.6032,14.349,19.231001,30.982,5.641,1.0159,6.8627,9.533
1.8325,8.6349,10.68,-0.98039,4.9261,-5.9903,1.9417,-3.9482,3.8374,-0.98039,4.9261,-2.9412,11.483,0.88889,7.6825,12.5,22.287001,2.7564,4.8254,7.8431,5.6683
-4.8025,2.9206,1.9417,-6.8627,-1.9704,-12.754,1.9417,-6.8608,5.7886,-6.8627,-1.9704,-6.8627,7.6555,-3.873,3.873,7.6923,13.591,-1.0897,6.7302,6.8627,1.8035
-8.594,-1.8413,-4.8544,-4.902,-4.9261,-6.9565,-7.767,-8.8026,5.7886,-4.902,-4.9261,-9.8039,4.7847,-2.9206,4.8254,1.9231,4.8953,-3.9744,3.873,4.902,1.8035
-10.49,-7.5556,-11.65,-7.8431,-7.8818,-12.754,-6.7961,-11.715,4.813,-7.8431,-7.8818,-12.745,0.95694,-5.7778,-0.88889,-5.7692,-5.7327,-7.8205,2.9206,0.0,-0.12882
-14.281,-11.365,-18.447001,-2.9412,-5.9113,-16.618,-2.9126,-12.686,5.7886,-2.9412,-5.9113,-13.725,-3.8278,-7.6825,-6.6032,-14.423,-17.327,-9.7436,5.7778,-2.9412,-2.0612
-12.385,-9.4603,-18.447001,1.9608,7.8818,-11.787,1.9417,-10.744,6.7642,1.9608,7.8818,-7.8431,-6.6986,-10.54,-8.5079,-18.268999,-24.09,-9.7436,4.8254,-5.8824,-4.9597
-7.6461,-4.6984,-10.68,-8.8235,13.793,-5.9903,3.8835,-7.8317,6.7642,-8.8235,13.793,0.0,-10.526,-16.254,-11.365,-17.308001,-26.023001,-9.7436,7.6825,-9.8039,-9.7907
-3.8547,2.9206,-1.9417,0.98039,10.837,4.6377,7.767,-2.9773,5.7886,0.98039,10.837,6.8627,-16.268,-20.063,-13.27,-11.538,-22.158001,-8.7821,10.54,-13.725,-11.723
-0.06319,8.6349,4.8544,12.745,9.8522,5.6039,13.592,-0.06472,3.8374,12.745,9.8522,11.765,-19.139,-21.968,-13.27,-5.7692,-14.428,-5.8974,10.54,-14.706,-10.757
1.8325,12.444,10.68,15.686,11.823,10.435,14.563,-0.06472,2.8618,15.686,11.823,14.706,-17.225,-21.968,-10.413,-1.9231,-6.6989,-2.0513,9.5873,-14.706,-11.723
5.624,13.397,15.534,15.686,11.823,9.4686,13.592,1.877,-0.06504,15.686,11.823,15.686,-12.44,-17.205999,-6.6032,1.9231,1.9968,1.7949,5.7778,-10.784,-7.8583
8.4676,15.302,20.388,15.686,8.867,14.3,12.621,6.7314,-0.06504,15.686,8.867,17.646999,-6.6986,-9.5873,1.0159,7.6923,12.625,6.6026,3.873,-7.8431,-0.12882
13.207,20.063,25.243,20.587999,15.764,14.3,14.563,11.586,3.8374,20.587999,15.764,20.587999,-3.8278,-1.0159,6.7302,17.308001,21.32,11.41,9.5873,-5.8824,9.533
16.051001,21.968,25.243,22.549,21.674999,14.3,15.534,16.440001,5.7886,22.549,21.674999,20.587999,-1.9139,5.6508,10.54,25.0,27.118,14.295,6.7302,-2.9412,16.296
16.051001,20.063,21.358999,19.608,18.719,15.266,11.65,19.353001,4.813,19.608,18.719,19.608,0.95694,9.4603,14.349,25.962,28.084,16.218,2.9206,4.902,19.195
11.311,13.397,15.534,17.646999,4.9261,16.232,3.8835,17.410999,-0.06504,17.646999,4.9261,12.745,2.8708,11.365,14.349,22.115,23.253,16.218,2.9206,8.8235,18.229
9.4155,3.873,9.7087,16.667,-2.9557,13.333,-6.7961,14.498,-2.0163,16.667,-2.9557,4.902,4.7847,14.222,12.444,18.268999,18.422001,15.256,3.873,9.8039,16.296
6.5719,-4.6984,1.9417,12.745,-7.8818,6.57,-11.65,12.557,-4.9431,12.745,-7.8818,0.98039,3.8278,15.175,8.6349,12.5,9.7262,12.372,1.0159,8.8235,14.364
4.6761,-9.4603,-2.9126,0.0,-12.808,4.6377,-6.7961,9.644,-7.8699,0.0,-12.808,0.0,1.9139,13.27,5.7778,2.8846,0.06441,9.4872,-5.6508,7.8431,11.465
2.7804,-14.222,-5.8252,0.98039,-4.9261,4.6377,-4.8544,8.6731,-7.8699,0.98039,-4.9261,1.9608,-0.95694,6.6032,-1.8413,-6.7308,-6.6989,6.6026,-10.413,5.8824,1.8035
2.7804,-10.413,-3.8835,11.765,3.9409,8.5024,-0.97087,9.644,-7.8699,11.765,3.9409,6.8627,-3.8278,3.746,-7.5556,-9.6154,-10.564,3.7179,-14.222,0.0,-3.0274
3.7283,0.06349,2.9126,16.667,6.8966,14.3,3.8835,11.586,-7.8699,16.667,6.8966,14.706,-3.8278,3.746,-10.413,-9.6154,-9.5974,0.83333,-14.222,-2.9412,-3.9936
4.6761,5.7778,8.7379,16.667,14.778,15.266,11.65,12.557,-5.9187,16.667,14.778,21.569,-2.8708,0.88889,-11.365,-8.6538,-6.6989,-0.12821,-12.317,-5.8824,-6.8921
3.7283,7.6825,9.7087,18.627001,20.690001,20.097,20.388,12.557,-3.9675,18.627001,20.690001,26.471001,-3.8278,-1.9683,-11.365,-9.6154,-8.6312,0.83333,-13.27,-8.8235,-11.723
-0.06319,2.9206,4.8544,28.431,26.601,16.232,20.388,9.644,-2.0163,28.431,26.601,22.549,-4.7847,-4.8254,-10.413,-12.5,-9.5974,-2.0513,-9.4603,-9.8039,-16.554001
-1.9589,-2.7937,0.97087,27.451,25.615999,11.401,18.447001,4.7896,0.91057,27.451,25.615999,15.686,-3.8278,-5.7778,-8.5079,-10.577,-8.6312,-4.9359,-9.4603,-11.765,-15.588
-1.0111,-2.7937,-0.97087,15.686,16.749001,8.5024,11.65,0.90615,3.8374,15.686,16.749001,10.784,0.95694,-3.873,-2.7937,-7.6923,-3.8003,-3.9744,-9.4603,-6.8627,-14.622
0.88468,-4.6984,-1.9417,14.706,8.867,2.7053,8.7379,0.90615,6.7642,14.706,8.867,5.8824,4.7847,-1.0159,1.0159,-4.8077,0.06441,-3.0128,-6.6032,-3.9216,-10.757
2.7804,-6.6032,-3.8835,15.686,5.9113,1.7391,2.9126,2.8479,6.7642,15.686,5.9113,0.0,7.6555,4.6984,3.873,-0.96154,3.9291,-3.9744,0.06349,-1.9608,-4.9597
3.7283,-9.4603,-6.7961,10.784,1.9704,-0.19324,-7.767,2.8479,2.8618,10.784,1.9704,-7.8431,11.483,10.413,8.6349,2.8846,6.8277,-3.0128,3.873,0.0,-0.12882
6.5719,-10.413,-6.7961,0.98039,-14.778,4.6377,-14.563,2.8479,-5.9187,0.98039,-14.778,-13.725,15.311,14.222,14.349,6.7308,7.7939,2.7564,1.9683,5.8824,5.6683
9.4155,-11.365,-5.8252,-12.745,-21.674999,3.6715,-17.476,3.8188,-14.699,-12.745,-21.674999,-14.706,18.181999,16.127001,19.111,6.7308,7.7939,7.5641,-3.746,12.745,8.5668
7.5197,-14.222,-4.8544,-14.706,-20.690001,-5.9903,-23.301001,2.8479,-20.552999,-14.706,-20.690001,-16.667,20.096001,17.079,21.016001,4.8077,7.7939,11.41,-7.5556,16.667,10.499
1.8325,-18.032,-7.767,-10.784,-18.719,-10.821,-24.271999,1.877,-25.431,-10.784,-18.719,-19.608,22.966999,18.032,19.111,2.8846,2.963,11.41,-13.27,19.608,12.432
-1.9589,-17.079,-6.7961,-10.784,-21.674999,-9.8551,-18.447001,-1.0356,-24.455,-10.784,-21.674999,-19.608,27.750999,22.794001,20.063,4.8077,3.9291,9.4872,-14.222,22.549,16.296
-2.9068,-12.317,-4.8544,-9.8039,-20.690001,-10.821,-18.447001,-3.9482,-22.504,-9.8039,-20.690001,-15.686,30.622,25.650999,19.111,7.6923,5.8615,7.5641,-15.175,22.549,19.195
-4.8025,-7.5556,-4.8544,-14.706,-18.719,-21.448999,-15.534,-6.8608,-17.625999,-14.706,-18.719,-11.765,26.794001,21.841,14.349,4.8077,1.0306,2.7564,-15.175,18.627001,15.33
-7.6461,-6.6032,-2.9126,-14.706,-9.8522,-12.754,-2.9126,-7.8317,-14.699,-14.706,-9.8522,-8.8235,22.966999,19.937,8.6349,0.96154,-1.868,-2.0513,-16.127001,12.745,11.465
-9.5419,-7.5556,-3.8835,-9.8039,0.98522,-7.9227,-4.8544,-8.8026,-14.699,-9.8039,0.98522,-6.8627,17.225,15.175,0.06349,-1.9231,-2.8341,-2.0513,-15.175,7.8431,3.7359
-9.5419,-7.5556,-4.8544,-6.8627,0.98522,-11.787,-4.8544,-9.7735,-7.8699,-6.8627,0.98522,-2.9412,10.526,11.365,-5.6508,-7.6923,-6.6989,-4.9359,-11.365,1.9608,-2.0612
-4.8025,-2.7937,1.9417,-1.9608,7.8818,-2.1256,5.8252,-7.8317,5.7886,-1.9608,7.8818,4.902,6.6986,4.6984,-8.5079,-11.538,-5.7327,-5.8974,-2.7937,-2.9412,-7.8583
-0.06319,5.7778,7.767,9.8039,19.704,2.7053,17.476,-2.9773,17.496,9.8039,19.704,12.745,2.8708,-1.0159,-11.365,-13.462,-4.7665,-4.9359,4.8254,-7.8431,-14.622
5.624,14.349,12.621,16.667,20.690001,3.6715,28.155001,0.90615,24.325001,16.667,20.690001,19.608,-0.95694,-5.7778,-10.413,-12.5,-5.7327,-3.9744,14.349,-9.8039,-17.52
5.624,16.254,11.65,11.765,20.690001,7.5362,28.155001,1.877,27.252001,11.765,20.690001,21.569,-7.6555,-9.5873,-12.317,-12.5,-8.6312,-3.0128,23.872999,-13.725,-15.588
9.4155,16.254,7.767,15.686,14.778,0.77295,22.33,5.7605,26.275999,15.686,14.778,22.549,-12.44,-9.5873,-12.317,-10.577,-11.53,1.7949,22.921,-15.686,-12.689
10.363,9.5873,1.9417,20.587999,11.823,14.3,20.388,7.7023,20.423,20.587999,11.823,17.646999,-17.225,-11.492,-11.365,-11.538,-17.327,6.6026,16.254,-11.765,-10.757
8.4676,0.06349,-4.8544,11.765,15.764,25.893999,11.65,9.644,11.642,11.765,15.764,13.725,-18.181999,-14.349,-11.365,-13.462,-21.191999,10.449,9.5873,-6.8627,-10.757
6.5719,-9.4603,-9.7087,9.8039,12.808,21.063,5.8252,10.615,1.8862,9.8039,12.808,10.784,-15.311,-14.349,-9.4603,-14.423,-22.158001,12.372,0.06349,-3.9216,-11.723
5.624,-11.365,-10.68,11.765,4.9261,13.333,2.9126,9.644,-6.8943,11.765,4.9261,9.8039,-10.526,-9.5873,-5.6508,-10.577,-19.259001,13.333,-8.5079,0.98039,-6.8921
4.6761,-8.5079,-7.767,5.8824,-0.98522,8.5024,-3.8835,9.644,-10.797,5.8824,-0.98522,9.8039,-5.7416,-5.7778,-0.88889,-5.7692,-11.53,15.256,-10.413,4.902,-3.9936
4.6761,-8.5079,-3.8835,11.765,-0.98522,6.57,-1.9417,5.7605,-13.724,11.765,-0.98522,7.8431,-2.8708,-2.9206,1.0159,-3.8462,-4.7665,12.372,-14.222,6.8627,-3.9936
1.8325,-10.413,-1.9417,17.646999,1.9704,4.6377,-3.8835,0.90615,-17.625999,17.646999,1.9704,4.902,-1.9139,0.88889,1.0159,-1.9231,1.9968,8.5256,-18.983999,6.8627,-2.0612
-1.9589,-15.175,-3.8835,13.725,-5.9113,-0.19324,-6.7961,-3.9482,-22.504,13.725,-5.9113,0.98039,-0.95694,3.746,1.0159,-2.8846,5.8615,1.7949,-22.794001,4.902,-1.095
-2.9068,-17.079,-2.9126,9.8039,-8.867,-2.1256,-11.65,-4.9191,-27.382,9.8039,-8.867,-0.98039,1.9139,8.5079,1.0159,-2.8846,10.692,-2.0513,-23.746,3.9216,-0.12882
-3.8547,-17.079,-2.9126,4.902,-4.9261,-6.9565,-10.68,-2.9773,-26.407,4.902,-4.9261,-5.8824,2.8708,10.413,1.9683,-3.8462,11.659,-3.9744,-21.841,1.9608,-1.095
-6.6983,-13.27,-1.9417,8.8235,0.98522,-5.0242,-4.8544,-0.06472,-17.625999,8.8235,0.98522,-8.8235,-0.95694,8.5079,-2.7937,-7.6923,6.8277,-5.8974,-22.794001,-3.9216,-2.0612
-6.6983,-7.5556,0.0,10.784,8.867,4.6377,-2.9126,1.877,-3.9675,10.784,8.867,-9.8039,-6.6986,3.746,-10.413,-8.6538,2.963,-7.8205,-16.127001,-9.8039,-4.9597
-4.8025,-2.7937,-1.9417,13.725,8.867,3.6715,1.9417,1.877,5.7886,13.725,8.867,-6.8627,-13.397,0.88889,-16.127001,-8.6538,-1.868,-8.7821,-4.6984,-15.686,-4.9597
-2.9068,0.06349,-3.8835,13.725,7.8818,-1.1594,4.8544,2.8479,10.667,13.725,7.8818,-3.9216,-18.181999,-1.0159,-20.889,-9.6154,-6.6989,-9.7436,0.06349,-21.569,-3.9936
-4.8025,-3.746,-4.8544,12.745,8.867,9.4686,7.767,2.8479,10.667,12.745,8.867,-1.9608,-20.096001,-1.0159,-25.650999,-11.538,-12.496,-10.705,2.9206,-21.569,-4.9597
-5.7504,-3.746,-2.9126,8.8235,0.98522,10.435,8.7379,2.8479,8.7154,8.8235,0.98522,1.9608,-19.139,-2.9206,-24.698,-12.5,-15.395,-12.628,5.7778,-18.627001,-4.9597
-3.8547,3.873,1.9417,8.8235,0.98522,12.367,4.8544,1.877,6.7642,8.8235,0.98522,6.8627,-15.311,-2.9206,-18.032,-9.6154,-12.496,-10.705,4.8254,-14.706,-3.9936
-1.0111,9.5873,5.8252,9.8039,4.9261,12.367,8.7379,3.8188,7.7398,9.8039,4.9261,9.8039,-9.5694,-2.9206,-10.413,-1.9231,-6.6989,-5.8974,2.9206,-8.8235,-0.12882
7.5197,15.302,8.7379,9.8039,6.8966,10.435,12.621,6.7314,8.7154,9.8039,6.8966,14.706,-3.8278,-0.06349,-2.7937,6.7308,0.06441,1.7949,9.5873,-2.9412,5.6683
11.311,16.254,10.68,9.8039,6.8966,19.129999,11.65,6.7314,8.7154,9.8039,6.8966,15.686,0.95694,1.8413,2.9206,11.538,2.963,6.6026,15.302,1.9608,8.5668
13.207,14.349,12.621,9.8039,3.9409,24.927999,15.534,5.7605,5.7886,9.8039,3.9409,16.667,2.8708,2.7937,6.7302,12.5,6.8277,7.5641,12.444,3.9216,8.5668
11.311,9.5873,8.7379,2.9412,-0.98522,16.232,4.8544,2.8479,0.91057,2.9412,-0.98522,10.784,6.6986,1.8413,8.6349,11.538,9.7262,7.5641,9.5873,5.8824,3.7359
7.5197,-0.88889,0.0,0.0,-7.8818,9.4686,-13.592,1.877,-6.8943,0.0,-7.8818,0.98039,7.6555,-0.06349,8.6349,7.6923,6.8277,5.641,2.9206,4.902,0.83736
4.6761,-11.365,-7.767,0.0,-18.719,7.5362,-14.563,3.8188,-12.748,0.0,-18.719,-6.8627,5.7416,-3.873,4.8254,2.8846,1.0306,6.6026,-2.7937,2.9412,-3.0274
-1.9589,-18.032,-17.476,-15.686,-15.764,0.77295,-23.301001,1.877,-21.528,-15.686,-15.764,-12.745,-0.95694,-8.6349,-1.8413,-5.7692,-8.6312,7.5641,-12.317,-1.9608,-7.8583
-4.8025,-19.937,-19.417,-10.784,-15.764,-11.787,-32.039001,-0.06472,-27.382,-10.784,-15.764,-14.706,-5.7416,-9.5873,-3.746,-11.538,-13.462,8.5256,-15.175,-4.902,-10.757
-6.6983,-17.079,-15.534,-3.9216,-15.764,-12.754,-24.271999,-2.0065,-25.431,-3.9216,-15.764,-11.765,-7.6555,-10.54,-6.6032,-14.423,-13.462,5.641,-18.032,-6.8627,-12.689
-7.6461,-14.222,-12.621,-10.784,-11.823,-3.0918,-15.534,-4.9191,-19.577,-10.784,-11.823,-6.8627,-11.483,-14.349,-12.317,-20.191999,-14.428,0.83333,-18.032,-12.745,-14.622
-9.5419,-6.6032,-9.7087,-10.784,-6.8966,-3.0918,-9.7087,-6.8608,-9.8211,-10.784,-6.8966,-2.9412,-11.483,-12.444,-16.127001,-21.153999,-16.361,-3.0128,-11.365,-12.745,-13.655
-10.49,0.06349,-6.7961,-10.784,-6.8966,-9.8551,1.9417,-7.8317,-2.0163,-10.784,-6.8966,0.0,-11.483,-12.444,-18.032,-19.231001,-17.327,-4.9359,-5.6508,-12.745,-14.622
-7.6461,1.9683,-4.8544,-12.745,0.98522,-18.551001,3.8835,-8.8026,-0.06504,-12.745,0.98522,0.0,-9.5694,-11.492,-17.079,-15.385,-15.395,-4.9359,-3.746,-11.765,-16.554001
-7.6461,0.06349,-3.8835,-16.667,-3.9409,-16.618,2.9126,-9.7735,-2.0163,-16.667,-3.9409,-0.98039,-3.8278,-7.6825,-13.27,-11.538,-10.564,-4.9359,-7.5556,-8.8235,-15.588
-8.594,1.0159,-0.97087,-17.646999,-7.8818,-13.72,0.97087,-11.715,-3.9675,-17.646999,-7.8818,-1.9608,1.9139,-2.9206,-7.5556,-3.8462,-3.8003,-6.859,-7.5556,-6.8627,-8.8245
-9.5419,3.873,2.9126,-18.627001,-3.9409,-20.483,2.9126,-14.628,-4.9431,-18.627001,-3.9409,-3.9216,3.8278,2.7937,-4.6984,5.7692,1.9968,-9.7436,-1.8413,-5.8824,-1.095
-11.438,3.873,3.8835,-23.528999,-6.8966,-18.551001,1.9417,-13.657,-4.9431,-23.528999,-6.8966,-3.9216,3.8278,6.6032,-0.88889,11.538,4.8953,-6.859,-0.88889,-3.9216,5.6683
-8.594,1.0159,2.9126,-17.646999,-1.9704,-13.72,-1.9417,-10.744,-6.8943,-17.646999,-1.9704,-4.902,4.7847,6.6032,3.873,10.577,7.7939,-3.0128,-4.6984,0.0,4.7021
-4.8025,-3.746,-0.97087,-18.627001,0.0,-17.584999,-8.7379,-7.8317,-10.797,-18.627001,0.0,-6.8627,4.7847,5.6508,7.6825,8.6538,7.7939,1.7949,-8.5079,1.9608,3.7359
