C3,C4,Cz,F1,F2,F3,F4,F7,F8,Fp1,Fp2,Fz,O1,O2,P3,P4,Pz,T3,T4,T5,T6
7.4843,-1.8413,2.8479,-9.6154,-11.83,-1.1538,-7.7939,-1.0306,-7.7564,-9.6154,-11.83,-3.9482,5.624,2.7937,6.6983,-0.0641,2.8205,8.5486,-1.8957,5.8252,-2.0415
4.6541,-0.88889,-0.06472,-3.8462,-4.9673,-0.19231,-2.963,4.7665,0.89744,-3.8462,-4.9673,-3.9482,-5.7504,-5.7778,1.0111,-7.7564,-3.9103,-1.9777,0.94787,0.0,-4.9123
-6.6667,1.9683,-3.9482,5.7692,4.8366,-1.1538,6.6989,6.6989,5.7051,5.7692,4.8366,-0.06472,-11.438,-11.492,-10.363,-12.564,-10.641,-3.8915,2.8436,-9.7087,-8.74
-12.327,3.873,-4.9191,3.8462,1.8954,-2.1154,7.6651,2.8341,4.7436,3.8462,1.8954,0.90615,-14.281,-16.254,-14.155,-15.449,-13.526,-2.9346,0.94787,-10.68,-9.697
-13.27,2.9206,-8.8026,-1.9231,-0.06536,-1.1538,7.6651,-1.9968,9.5513,-1.9231,-0.06536,0.90615,-21.864,-21.016001,-17.945999,-19.295,-18.333,-5.8054,4.7393,-15.534,-8.74
-10.44,1.0159,-9.7735,-3.8462,0.91503,2.6923,11.53,-1.9968,11.474,-3.8462,0.91503,2.8479,-19.968,-20.063,-17.945999,-20.256001,-21.218,-5.8054,6.6351,-17.476,-9.697
-2.8931,1.0159,-5.89,-1.9231,-1.0458,8.4615,11.53,2.8341,7.6282,-1.9231,-1.0458,8.6731,-17.125,-19.111,-13.207,-19.295,-20.256001,-0.0638,2.8436,-10.68,-10.654
2.7673,0.06349,-2.9773,2.8846,2.8758,10.385,10.564,5.7327,6.6667,2.8846,2.8758,11.586,-16.177,-15.302,-10.363,-18.333,-20.256001,-0.0638,0.94787,-8.7379,-9.697
6.5409,-0.88889,-0.06472,-2.8846,-4.9673,9.4231,3.8003,4.7665,0.89744,-2.8846,-4.9673,8.6731,-9.5419,-9.5873,-3.7283,-15.449,-15.449,4.7209,-2.8436,-0.97087,-11.611
12.201,0.06349,2.8479,-3.8462,-4.9673,8.4615,3.8003,2.8341,1.859,-3.8462,-4.9673,7.7023,-5.7504,-5.7778,0.06319,-11.603,-10.641,3.764,-0.94787,-1.9417,-10.654
11.258,1.9683,2.8479,0.0,-1.0458,9.4231,5.7327,5.7327,5.7051,0.0,-1.0458,7.7023,-1.0111,-3.873,1.9589,-5.8333,-6.7949,2.807,1.8957,0.0,-2.9984
7.4843,4.8254,4.7896,-3.8462,-1.0458,4.6154,6.6989,-1.0306,2.8205,-3.8462,-1.0458,3.8188,3.7283,1.8413,4.8025,0.89744,0.89744,1.8501,2.8436,5.8252,-0.12759
1.8239,1.9683,2.8479,-0.96154,-0.06536,0.76923,1.868,3.8003,5.7051,-0.96154,-0.06536,-0.06472,-1.0111,-1.9683,3.8547,0.89744,2.8205,1.8501,-1.8957,4.8544,-2.9984
2.7673,1.9683,4.7896,5.7692,2.8758,3.6538,2.8341,8.6312,0.89744,5.7692,2.8758,2.8479,-4.8025,-2.9206,3.8547,2.8205,5.7051,7.5917,-1.8957,5.8252,-1.0845
-0.06289,5.7778,5.7605,-2.8846,-2.0261,-0.19231,3.8003,-1.0306,0.89744,-2.8846,-2.0261,0.90615,-1.9589,0.88889,2.9068,6.6667,7.6282,2.807,1.8957,2.9126,0.82935
-8.5535,1.0159,-2.9773,-2.8846,1.8954,-5.9615,1.868,-3.9291,7.6282,-2.8846,1.8954,-4.9191,-2.9068,-2.9206,-4.6761,1.859,0.89744,-1.0207,1.8957,-1.9417,-0.12759
-9.4969,-1.8413,-4.9191,-4.8077,-1.0458,-6.9231,-2.963,-2.963,5.7051,-4.8077,-1.0458,-8.8026,1.8325,-0.06349,-5.624,2.8205,-0.0641,-1.0207,1.8957,-0.97087,2.7432
-8.5535,-1.8413,-2.9773,-4.8077,-1.0458,-7.8846,-3.9291,-2.963,5.7051,-4.8077,-1.0458,-7.8317,-2.9068,0.88889,-9.4155,0.89744,-3.9103,-1.9777,0.94787,-3.8835,2.7432
-6.6667,-0.88889,1.877,-4.8077,-3.9869,-5.0,-1.9968,-4.8953,-1.0256,-4.8077,-3.9869,-3.9482,-5.7504,-0.06349,-9.4155,0.89744,-5.8333,-3.8915,-1.8957,-4.8544,7.5279
1.8239,-4.6984,4.7896,-8.6538,-10.85,1.7308,-9.7262,-4.8953,-8.7179,-8.6538,-10.85,-0.06472,-1.0111,3.746,-2.7804,2.8205,-2.9487,-2.9346,-6.6351,-3.8835,6.571
13.145,-5.6508,9.644,-8.6538,-11.83,9.4231,-12.625,0.90177,-10.641,-8.6538,-11.83,4.7896,5.624,6.6032,8.594,6.6667,4.7436,10.463,-8.5308,2.9126,-2.9984
14.088,-1.8413,10.615,-13.462,-9.8693,5.5769,-8.7601,-7.7939,-6.7949,-13.462,-9.8693,2.8479,10.363,13.27,16.177,10.513,12.436,6.6348,-5.6872,8.7379,-3.9553
10.314,0.06349,6.7314,-13.462,-7.9085,-0.19231,-3.9291,-9.7262,-1.9872,-13.462,-7.9085,-1.0356,12.259,13.27,17.125,10.513,14.359,5.6778,-2.8436,13.592,1.7863
2.7673,-2.7937,-0.06472,-8.6538,-7.9085,-5.0,-4.8953,-8.7601,0.89744,-8.6538,-7.9085,-6.8608,14.155,12.317,13.333,8.5897,12.436,-1.0207,0.0,12.621,2.7432
2.7673,1.0159,1.877,-8.6538,-5.9477,-5.0,-1.0306,-10.692,0.89744,-8.6538,-5.9477,-3.9482,11.311,7.5556,11.438,8.5897,12.436,-5.8054,2.8436,11.65,8.4848
1.8239,9.5873,9.644,-13.462,-6.9281,-3.0769,7.6651,-13.591,3.7821,-13.462,-6.9281,0.90615,8.4676,6.6032,9.5419,10.513,13.397,-8.6762,7.5829,8.7379,6.571
-3.8365,11.492,8.6731,-5.7692,-0.06536,-2.1154,10.564,-7.7939,10.513,-5.7692,-0.06536,3.8188,4.6761,8.5079,0.06319,8.5897,6.6667,-3.8915,11.374,-1.9417,8.4848
-11.384,11.492,5.7605,-5.7692,-2.0261,-4.0385,8.6312,-6.8277,10.513,-5.7692,-2.0261,1.877,1.8325,10.413,-7.5197,8.5897,1.859,-7.7193,10.427,-7.767,11.356
-16.101,8.6349,-1.0356,-5.7692,0.91503,-6.9231,10.564,-7.7939,12.436,-5.7692,0.91503,-1.0356,-7.6461,-2.9206,-15.103,2.8205,-4.8718,-4.8485,12.322,-17.476,6.571
-12.327,0.06349,-8.8026,-4.8077,-1.0458,-5.0,3.8003,-1.9968,11.474,-4.8077,-1.0458,-4.9191,-14.281,-11.492,-15.103,-5.8333,-10.641,2.807,7.5829,-15.534,-0.12759
-9.4969,-6.6032,-10.744,-13.462,-9.8693,-7.8846,-4.8953,-6.8277,0.89744,-13.462,-9.8693,-9.7735,-11.438,-4.8254,-12.259,-4.8718,-10.641,-1.0207,2.8436,-11.65,3.7002
-10.44,-11.365,-15.599,-19.231001,-16.732,-12.692,-12.625,-7.7939,-3.9103,-19.231001,-16.732,-16.57,-9.5419,-4.8254,-9.4155,-6.7949,-11.603,-6.7624,-2.8436,-6.7961,-2.0415
-4.7799,-8.5079,-13.657,-16.346001,-16.732,-10.769,-9.7262,-1.9968,-7.7564,-16.346001,-16.732,-15.599,-3.8547,-2.9206,-3.7283,-2.9487,-5.8333,-5.8054,-2.8436,-2.9126,-3.9553
-1.0063,-8.5079,-10.744,-21.153999,-22.614,-14.615,-17.455999,-10.692,-10.641,-21.153999,-22.614,-18.511,5.624,5.6508,2.9068,2.8205,2.8205,-2.9346,-3.7915,-0.97087,-2.0415
4.6541,-5.6508,-2.9773,-25.0,-24.575001,-13.654,-19.388,-12.625,-10.641,-25.0,-24.575001,-17.540001,9.4155,10.413,10.49,9.5513,11.474,4.7209,-1.8957,7.767,3.7002
3.7107,-5.6508,-2.0065,-22.115,-20.653999,-11.731,-16.49,-7.7939,-10.641,-22.115,-20.653999,-15.599,4.6761,5.6508,7.6461,6.6667,7.6282,-0.0638,-2.8436,7.767,2.7432
0.8805,-4.6984,-2.9773,-15.385,-14.771,-6.9231,-11.659,-0.06441,-9.6795,-15.385,-14.771,-9.7735,-2.9068,-3.873,2.9068,-1.0256,-1.9872,5.6778,-4.7393,6.7961,-2.0415
-2.8931,-0.88889,-4.9191,-15.385,-11.83,-5.0,-1.9968,-6.8277,-6.7949,-15.385,-11.83,-3.9482,-7.6461,-13.397,-4.6761,-1.0256,-8.7179,6.6348,0.0,-2.9126,8.4848
-8.5535,-0.88889,-10.744,-8.6538,-3.0065,-4.0385,3.8003,-5.8615,3.7821,-8.6538,-3.0065,-2.0065,-7.6461,-6.7302,-12.259,-4.8718,-15.449,-1.0207,4.7393,-7.767,10.399
-15.157,-6.6032,-15.599,-3.8462,0.91503,-6.9231,1.868,-5.8615,2.8205,-3.8462,0.91503,-3.9482,-10.49,-4.8254,-16.997999,-13.526,-21.218,-13.461,2.8436,-5.8252,-2.9984
-16.101,-6.6032,-11.715,-9.6154,-7.9085,-8.8462,-6.8277,-5.8615,-1.9872,-9.6154,-7.9085,-7.8317,-5.7504,-2.9206,-13.207,-9.6795,-15.449,-8.6762,-2.8436,-7.767,-4.9123
-5.7233,0.06349,0.90615,-11.538,-6.9281,-5.0,-3.9291,-8.7601,-1.9872,-11.538,-6.9281,-3.9482,4.6761,2.7937,-4.6761,0.89744,-2.9487,-5.8054,0.94787,-5.8252,4.6571
0.8805,2.9206,9.644,-12.5,-9.8693,-1.1538,-4.8953,-7.7939,-2.9487,-12.5,-9.8693,-1.0356,3.7283,-2.9206,2.9068,5.7051,6.6667,-10.59,0.94787,0.97087,6.571
5.5975,-0.88889,11.586,-4.8077,-6.9281,3.6538,-4.8953,-0.06441,-4.8718,-4.8077,-6.9281,2.8479,-0.06319,-1.9683,5.7504,1.859,12.436,4.7209,-2.8436,-0.97087,-6.8262
9.3711,0.06349,13.528,-1.9231,-6.9281,6.5385,-4.8953,2.8341,-3.9103,-1.9231,-6.9281,3.8188,-2.9068,0.88889,8.594,-0.0641,16.282,7.5917,-3.7915,-4.8544,-12.568
15.975,0.06349,14.498,-3.8462,-8.8889,6.5385,-1.9968,2.8341,-5.8333,-3.8462,-8.8889,3.8188,-2.9068,-1.9683,13.333,2.8205,19.167,0.89314,-3.7915,-0.97087,-4.9123
16.917999,1.9683,12.557,-8.6538,-12.81,5.5769,-0.06441,-0.06441,-7.7564,-8.6538,-12.81,1.877,2.7804,0.88889,18.073,5.7051,20.128,1.8501,0.0,5.8252,-3.9553
11.258,3.873,5.7605,-17.308001,-14.771,-3.0769,-2.963,-7.7939,-2.9487,-17.308001,-14.771,-4.9191,6.5719,4.6984,16.177,9.5513,17.243999,1.8501,4.7393,8.7379,3.7002
1.8239,-0.88889,-6.8608,-20.191999,-18.693001,-13.654,-12.625,-8.7601,-1.9872,-20.191999,-18.693001,-16.57,8.4676,9.4603,10.49,8.5897,7.6282,4.7209,3.7915,13.592,5.614
-7.6101,-5.6508,-16.57,-18.268999,-20.653999,-22.308001,-17.455999,-8.7601,-7.7564,-18.268999,-20.653999,-24.337,-0.06319,-1.0159,3.8547,1.859,-3.9103,2.807,2.8436,10.68,5.614
-16.101,-8.5079,-18.511,-21.153999,-24.575001,-25.191999,-20.354,-11.659,-13.526,-21.153999,-24.575001,-26.278,-2.9068,-5.7778,-5.624,-2.9487,-11.603,-0.0638,-0.94787,1.9417,4.6571
-14.214,-11.365,-17.540001,-21.153999,-26.535999,-16.538,-22.287001,-4.8953,-19.295,-21.153999,-26.535999,-21.424,-0.06319,-1.0159,-7.5197,-6.7949,-14.487,-6.7624,-5.6872,-1.9417,-2.9984
-17.987,-15.175,-21.424,-19.231001,-24.575001,-15.577,-22.287001,-7.7939,-19.295,-19.231001,-24.575001,-19.482,-6.6983,-6.7302,-11.311,-11.603,-18.333,-3.8915,-7.5829,-4.8544,-5.8692
-19.874001,-14.222,-21.424,-10.577,-15.752,-11.731,-16.49,-1.9968,-13.526,-10.577,-15.752,-15.599,-4.8025,-4.8254,-12.259,-10.641,-18.333,1.8501,-7.5829,-2.9126,-4.9123
-12.327,-2.7937,-11.715,-5.7692,-7.9085,-4.0385,-0.06441,-1.0306,-6.7949,-5.7692,-7.9085,-4.9191,-3.8547,-1.9683,-10.363,-5.8333,-12.564,0.89314,0.0,-0.97087,0.82935
-4.7799,6.7302,-3.9482,1.9231,2.8758,5.5769,14.428,5.7327,6.6667,1.9231,2.8758,5.7605,-6.6983,-3.873,-11.311,-2.9487,-10.641,-6.7624,7.5829,-7.767,4.6571
-1.9497,4.8254,-2.9773,3.8462,7.7778,7.5,16.361,2.8341,9.5513,3.8462,7.7778,9.644,-14.281,-9.5873,-13.207,-6.7949,-12.564,-8.6762,4.7393,-6.7961,0.82935
-1.9497,1.0159,-1.0356,2.8846,4.8366,6.5385,12.496,0.90177,8.5897,2.8846,4.8366,8.6731,-14.281,-8.6349,-16.051001,-8.7179,-13.526,-6.7624,1.8957,-16.504999,-6.8262
3.7107,5.7778,5.7605,12.5,14.641,12.308,18.292999,7.6651,10.513,12.5,14.641,15.469,-9.5419,-6.7302,-13.207,-2.9487,-7.7564,-0.0638,4.7393,-20.388,-3.9553
7.4843,8.6349,11.586,6.7308,8.7582,10.385,13.462,3.8003,7.6282,6.7308,8.7582,12.557,-3.8547,-0.06349,-3.7283,2.8205,1.859,2.807,2.8436,-9.7087,-1.0845
8.4277,6.7302,12.557,3.8462,5.817,3.6538,6.6989,0.90177,2.8205,3.8462,5.817,5.7605,-3.8547,-4.8254,2.9068,3.7821,7.6282,3.764,2.8436,0.0,5.614
4.6541,1.9683,7.7023,0.96154,1.8954,-2.1154,-1.9968,1.868,-2.9487,0.96154,1.8954,-1.0356,-0.06319,-0.06349,4.8025,4.7436,10.513,-1.9777,0.0,0.0,5.614
1.8239,-6.6032,0.90615,-1.9231,-0.06536,-7.8846,-11.659,-1.9968,-2.9487,-1.9231,-0.06536,-6.8608,6.5719,8.5079,4.8025,2.8205,8.5897,-10.59,-3.7915,0.0,-1.0845
-8.5535,-14.222,-9.7735,1.9231,0.91503,-11.731,-16.49,-0.06441,-1.0256,1.9231,0.91503,-11.715,3.7283,5.6508,-2.7804,-4.8718,-1.0256,-5.8054,-5.6872,0.0,-11.611
-16.101,-13.27,-14.628,6.7308,4.8366,-9.8077,-9.7262,-0.06441,-0.0641,6.7308,4.8366,-8.8026,-0.06319,1.8413,-10.363,-5.8333,-8.7179,6.6348,-2.8436,-3.8835,-8.74
-20.818001,-11.365,-18.511,0.96154,-2.0261,-7.8846,-8.7601,-3.9291,-3.9103,0.96154,-2.0261,-6.8608,2.7804,1.8413,-15.103,-4.8718,-14.487,-2.9346,-1.8957,-6.7961,-3.9553
-25.535,-11.365,-24.337,-4.8077,-5.9477,-8.8462,-8.7601,-6.8277,-6.7949,-4.8077,-5.9477,-7.8317,3.7283,1.8413,-17.945999,-6.7949,-22.179001,-9.6332,-1.8957,-3.8835,-2.9984
-17.987,-8.5079,-23.365999,-1.9231,-4.9673,-5.9615,-4.8953,-1.9968,-3.9103,-1.9231,-4.9673,-5.89,-1.9589,-4.8254,-16.051001,-10.641,-26.025999,-8.6762,-2.8436,-1.9417,-4.9123
-10.44,-3.746,-14.628,0.96154,-2.0261,-0.19231,3.8003,1.868,-3.9103,0.96154,-2.0261,-1.0356,-3.8547,-5.7778,-10.363,-8.7179,-22.179001,-1.0207,-4.7393,-1.9417,-2.0415
-1.0063,0.06349,-2.9773,-7.6923,-7.9085,0.76923,0.90177,-3.9291,-7.7564,-7.6923,-7.9085,0.90615,8.4676,5.6508,0.06319,-3.9103,-8.7179,-1.9777,-3.7915,5.8252,-2.0415
7.4843,1.9683,3.8188,-10.577,-11.83,3.6538,-2.963,1.868,-8.7179,-10.577,-11.83,0.90615,8.4676,6.6032,7.6461,-0.0641,1.859,-1.9777,-1.8957,10.68,-2.0415
8.4277,3.873,7.7023,-8.6538,-8.8889,-2.1154,-1.0306,-5.8615,-8.7179,-8.6538,-8.8889,-1.0356,3.7283,1.8413,10.49,2.8205,8.5897,-1.9777,-1.8957,6.7961,-2.0415
15.031,8.6349,14.498,-12.5,-11.83,-4.0385,-1.0306,-13.591,-7.7564,-12.5,-11.83,-1.0356,5.624,7.5556,18.073,11.474,20.128,-4.8485,1.8957,9.7087,1.7863
16.917999,13.397,21.294001,-7.6923,-6.9281,2.6923,6.6989,-4.8953,-4.8718,-7.6923,-6.9281,6.7314,8.4676,11.365,19.968,17.243999,25.896999,6.6348,7.5829,7.767,10.399
16.917999,12.444,24.207001,3.8462,0.91503,9.4231,7.6651,6.6989,-1.9872,3.8462,0.91503,13.528,7.5197,6.6032,19.021,15.321,24.936001,8.5486,4.7393,5.8252,9.4418
25.409,18.159,32.945,11.538,7.7778,19.038,14.428,15.395,-2.9487,11.538,7.7778,22.264999,12.259,9.4603,24.708,21.09,27.820999,15.247,6.6351,14.563,16.139999
21.635,18.159,31.003,16.346001,10.719,23.846001,14.428,20.225,0.89744,16.346001,10.719,26.149,6.5719,9.4603,19.968,17.243999,20.128,12.376,5.6872,10.68,12.313
18.805,16.254,24.207001,24.038,19.542,28.653999,17.327,26.989,5.7051,24.038,19.542,29.061001,-0.06319,2.7937,10.49,9.5513,7.6282,10.463,4.7393,3.8835,8.4848
12.201,13.397,16.440001,22.115,18.562,26.731001,17.327,23.124001,7.6282,22.115,18.562,28.091,-3.8547,-4.8254,3.8547,4.7436,-0.0641,6.6348,4.7393,4.8544,10.399
3.7107,4.8254,2.8479,25.962,21.503,22.885,14.428,21.191999,7.6282,25.962,21.503,22.264999,-6.6983,-5.7778,-5.624,-6.7949,-10.641,4.7209,1.8957,-2.9126,-1.0845
-7.6101,-7.5556,-9.7735,17.308001,11.699,13.269,-1.0306,14.428,-1.0256,17.308001,11.699,8.6731,-7.6461,-1.0159,-16.051001,-10.641,-17.372,-0.0638,-6.6351,-14.563,-7.7831
-8.5535,-14.222,-12.686,5.7692,0.91503,3.6538,-10.692,4.7665,-9.6795,5.7692,0.91503,-1.0356,-6.6983,-4.8254,-14.155,-7.7564,-13.526,-6.7624,-12.322,-12.621,-3.9553
-9.4969,-18.032,-13.657,0.96154,-5.9477,-5.0,-15.523,-0.06441,-12.564,0.96154,-5.9477,-9.7735,-2.9068,-1.9683,-11.311,-7.7564,-8.7179,-5.8054,-15.166,-9.7087,-6.8262
-6.6667,-16.127001,-9.7735,-0.96154,-4.9673,-8.8462,-9.7262,0.90177,-12.564,-0.96154,-4.9673,-12.686,1.8325,2.7937,-6.5719,-4.8718,-1.9872,3.764,-12.322,-3.8835,-10.654
-7.6101,-15.175,-9.7735,-4.8077,-8.8889,-15.577,-14.557,-2.963,-11.603,-4.8077,-8.8889,-17.540001,-1.9589,-5.7778,-4.6761,-5.8333,-0.0641,2.807,-13.27,-1.9417,-9.697
-5.7233,-11.365,-5.89,-9.6154,-10.85,-15.577,-14.557,-4.8953,-8.7179,-9.6154,-10.85,-18.511,1.8325,-3.873,-2.7804,-4.8718,0.89744,2.807,-9.4787,0.97087,-9.697
-1.9497,-6.6032,-4.9191,-6.7308,-3.0065,-14.615,-7.7939,-6.8277,-1.9872,-6.7308,-3.0065,-14.628,2.7804,-1.9683,0.06319,-2.9487,0.89744,-1.0207,-4.7393,7.767,-3.9553
-6.6667,-8.5079,-8.8026,-1.9231,-3.0065,-14.615,-8.7601,-6.8277,-0.0641,-1.9231,-3.0065,-14.628,-6.6983,-8.6349,-5.624,-6.7949,-5.8333,-14.418,-4.7393,-2.9126,-3.9553
-5.7233,-10.413,-11.715,-7.6923,-6.9281,-10.769,-9.7262,-8.7601,-6.7949,-7.6923,-6.9281,-12.686,-10.49,-8.6349,-8.4676,-12.564,-11.603,-5.8054,-5.6872,-8.7379,-8.74
-10.44,-8.5079,-13.657,-11.538,-10.85,-12.692,-8.7601,-10.692,-9.6795,-11.538,-10.85,-13.657,-5.7504,-1.9683,-5.624,-8.7179,-12.564,5.6778,-4.7393,-0.97087,-4.9123
-9.4969,-5.6508,-11.715,-12.5,-11.83,-10.769,-6.8277,-13.591,-9.6795,-12.5,-11.83,-10.744,0.88468,1.8413,-3.7283,-1.0256,-9.6795,3.764,-1.8957,0.97087,2.7432
-8.5535,-6.6032,-13.657,-9.6154,-12.81,-7.8846,-6.8277,-7.7939,-6.7949,-9.6154,-12.81,-7.8317,9.4155,11.365,-0.88468,-0.0641,-8.7179,-3.8915,-2.8436,4.8544,-2.9984
-6.6667,-8.5079,-10.744,-2.8846,-8.8889,-3.0769,-4.8953,0.90177,-8.7179,-2.8846,-8.8889,-3.9482,8.4676,10.413,-1.8325,-2.9487,-7.7564,-0.0638,-6.6351,3.8835,-7.7831
-6.6667,-6.6032,-2.0065,-11.538,-15.752,-3.0769,-8.7601,-4.8953,-15.449,-11.538,-15.752,-2.0065,3.7283,3.746,-2.7804,-1.0256,-2.9487,-1.0207,-10.427,0.0,-8.74
-1.0063,0.06349,8.6731,-16.346001,-19.673,-0.19231,-6.8277,-7.7939,-18.333,-16.346001,-19.673,3.8188,4.6761,2.7937,0.06319,3.7821,5.7051,-5.8054,-8.5308,2.9126,0.82935
10.314,8.6349,19.353001,-6.7308,-12.81,9.4231,1.868,3.8003,-8.7179,-6.7308,-12.81,12.557,2.7804,-1.9683,2.9068,5.7051,11.474,-4.8485,-3.7915,-0.97087,3.7002
13.145,10.54,21.294001,-0.96154,-5.9477,11.346,7.6651,6.6989,-4.8718,-0.96154,-5.9477,14.498,8.4676,4.6984,4.8025,4.7436,15.321,-0.0638,0.94787,-1.9417,1.7863
6.5409,7.6825,15.469,-7.6923,-10.85,4.6154,5.7327,0.90177,-5.8333,-7.6923,-10.85,6.7314,-1.9589,-1.9683,0.06319,-0.0641,11.474,2.807,0.0,-8.7379,-7.7831
5.5975,7.6825,8.6731,-11.538,-9.8693,0.76923,4.7665,1.868,0.89744,-11.538,-9.8693,1.877,-11.438,-7.6825,0.06319,3.7821,11.474,7.5917,5.6872,-8.7379,0.82935
5.5975,6.7302,2.8479,-6.7308,-3.9869,-1.1538,4.7665,3.8003,9.5513,-6.7308,-3.9869,-2.9773,-7.6461,-7.6825,4.8025,8.5897,13.397,3.764,11.374,-1.9417,11.356
-1.0063,0.06349,-3.9482,-8.6538,-7.9085,-7.8846,-2.963,-1.9968,3.7821,-8.6538,-7.9085,-10.744,-1.0111,-1.0159,4.8025,3.7821,9.5513,-5.8054,5.6872,-1.9417,6.571
-3.8365,-6.6032,-7.8317,-11.538,-10.85,-12.692,-8.7601,-5.8615,-0.0641,-11.538,-10.85,-15.599,3.7283,7.5556,3.8547,0.89744,5.7051,-2.9346,0.94787,-4.8544,0.82935
-3.8365,-6.6032,-8.8026,-15.385,-14.771,-13.654,-12.625,-5.8615,-3.9103,-15.385,-14.771,-18.511,5.624,7.5556,4.8025,0.89744,3.7821,3.764,0.0,0.97087,0.82935
-4.7799,-3.746,-5.89,-16.346001,-15.752,-14.615,-11.659,-6.8277,-5.8333,-16.346001,-15.752,-17.540001,0.88468,-3.873,1.9589,2.8205,1.859,7.5917,0.0,4.8544,8.4848
-2.8931,1.0159,-2.0065,-12.5,-13.791,-9.8077,-6.8277,-1.9968,-4.8718,-12.5,-13.791,-12.686,-4.8025,-11.492,1.9589,3.7821,0.89744,1.8501,0.94787,2.9126,8.4848
3.7107,0.06349,0.90615,-9.6154,-9.8693,-5.9615,-6.8277,-2.963,-3.9103,-9.6154,-9.8693,-7.8317,4.6761,5.6508,5.7504,-1.0256,0.89744,6.6348,-0.94787,5.8252,-3.9553
9.3711,-0.88889,4.7896,-6.7308,-8.8889,1.7308,-5.8615,0.90177,-1.0256,-6.7308,-8.8889,-2.0065,5.624,8.5079,6.6983,-5.8333,-1.9872,8.5486,-3.7915,4.8544,-11.611
14.088,2.9206,10.615,-3.8462,-3.0065,8.4615,2.8341,3.8003,1.859,-3.8462,-3.0065,4.7896,2.7804,-1.0159,5.7504,-2.9487,-1.9872,6.6348,0.0,5.8252,-5.8692
11.258,1.0159,6.7314,-5.7692,-3.9869,8.4615,1.868,1.868,2.8205,-5.7692,-3.9869,4.7896,3.7283,2.7937,5.7504,-2.9487,-2.9487,0.89314,0.94787,5.8252,-2.9984
4.6541,-2.7937,-2.9773,-1.9231,-2.0261,8.4615,3.8003,1.868,1.859,-1.9231,-2.0261,4.7896,-2.9068,-1.9683,-0.88468,-2.9487,-5.8333,0.89314,2.8436,-0.97087,1.7863
-4.7799,-5.6508,-13.657,-2.8846,-2.0261,3.6538,2.8341,-1.0306,5.7051,-2.8846,-2.0261,1.877,-5.7504,-1.0159,-6.5719,-4.8718,-8.7179,-1.9777,3.7915,-1.9417,2.7432
-9.4969,-3.746,-12.686,-0.96154,0.91503,-1.1538,6.6989,-3.9291,2.8205,-0.96154,0.91503,0.90615,-2.9068,-0.06349,-8.4676,-1.0256,-6.7949,-7.7193,4.7393,-1.9417,9.4418
-10.44,-4.6984,-9.7735,-2.8846,-1.0458,-2.1154,-1.0306,-1.9968,3.7821,-2.8846,-1.0458,-2.0065,-1.0111,2.7937,-7.5197,-2.9487,-7.7564,-5.8054,0.94787,1.9417,-2.9984
-16.101,-6.6032,-8.8026,-4.8077,-2.0261,-7.8846,-4.8953,-5.8615,3.7821,-4.8077,-2.0261,-6.8608,3.7283,-0.06349,-8.4676,-3.9103,-7.7564,1.8501,-0.94787,2.9126,-6.8262
-18.931,-6.6032,-8.8026,-5.7692,-4.9673,-9.8077,-6.8277,-4.8953,-0.0641,-5.7692,-4.9673,-9.7735,3.7283,-0.06349,-11.311,-2.9487,-7.7564,1.8501,0.0,-0.97087,-2.9984
-16.101,-6.6032,-8.8026,-6.7308,-5.9477,-11.731,-7.7939,-8.7601,-1.9872,-6.7308,-5.9477,-11.715,-4.8025,-3.873,-12.259,-3.9103,-8.7179,-5.8054,0.0,-4.8544,-2.0415
-11.384,-4.6984,-6.8608,-3.8462,-4.9673,-8.8462,-5.8615,-7.7939,-1.9872,-3.8462,-4.9673,-8.8026,-0.06319,0.88889,-8.4676,-1.9872,-7.7564,-1.9777,0.0,0.0,-0.12759
-1.0063,-1.8413,-5.89,-1.9231,-4.9673,-1.1538,-4.8953,-2.963,-4.8718,-1.9231,-4.9673,-3.9482,0.88468,-0.06349,-0.88468,0.89744,-4.8718,-4.8485,0.94787,7.767,7.5279
2.7673,-0.88889,-6.8608,-9.6154,-7.9085,-1.1538,-2.963,-6.8277,-4.8718,-9.6154,-7.9085,-4.9191,4.6761,4.6984,5.7504,2.8205,-1.9872,-0.0638,0.94787,12.621,8.4848
1.8239,-2.7937,-9.7735,-6.7308,-3.9869,-3.0769,-1.0306,-5.8615,1.859,-6.7308,-3.9869,-7.8317,4.6761,6.6032,5.7504,0.89744,-2.9487,4.7209,0.94787,8.7379,-2.9984
10.314,-2.7937,-1.0356,3.8462,0.91503,3.6538,-1.0306,2.8341,-1.0256,3.8462,0.91503,-2.0065,8.4676,8.5079,11.438,4.7436,4.7436,5.6778,-1.8957,9.7087,-1.0845
17.862,1.9683,7.7023,4.8077,2.8758,9.4231,-0.06441,4.7665,3.7821,4.8077,2.8758,2.8479,7.5197,9.4603,19.021,11.474,13.397,1.8501,0.0,11.65,4.6571
13.145,5.7778,9.644,6.7308,8.7582,5.5769,5.7327,-1.0306,10.513,6.7308,8.7582,2.8479,4.6761,6.6032,16.177,13.397,15.321,4.7209,2.8436,9.7087,10.399
8.4277,5.7778,8.6731,9.6154,7.7778,3.6538,3.8003,3.8003,9.5513,9.6154,7.7778,1.877,7.5197,10.413,14.281,13.397,14.359,9.5056,3.7915,10.68,9.4418
4.6541,7.6825,7.7023,6.7308,8.7582,0.76923,7.6651,0.90177,10.513,6.7308,8.7582,1.877,12.259,16.127001,12.385,14.359,13.397,8.5486,8.5308,11.65,13.27
-6.6667,7.6825,2.8479,0.0,7.7778,-5.9615,7.6651,-6.8277,16.282,0.0,7.7778,-0.06472,8.4676,7.5556,1.9589,11.474,5.7051,-6.7624,9.4787,2.9126,9.4418
-9.4969,4.8254,-3.9482,1.9231,11.699,-5.9615,8.6312,-4.8953,17.243999,1.9231,11.699,-0.06472,0.88468,4.6984,-7.5197,3.7821,-3.9103,-1.0207,6.6351,-1.9417,6.571
-8.5535,0.06349,-8.8026,0.96154,5.817,-1.1538,1.868,-1.9968,14.359,0.96154,5.817,-1.0356,-3.8547,-0.06349,-12.259,-5.8333,-15.449,0.89314,2.8436,-4.8544,-2.9984
-4.7799,-1.8413,-10.744,-4.8077,0.91503,1.7308,1.868,-2.963,8.5897,-4.8077,0.91503,0.90615,-12.385,-8.6349,-13.207,-10.641,-22.179001,-1.9777,2.8436,-5.8252,-2.9984
-5.7233,0.06349,-12.686,-8.6538,-0.06536,-2.1154,3.8003,-8.7601,10.513,-8.6538,-0.06536,-1.0356,-19.021,-20.063,-15.103,-12.564,-25.063999,-2.9346,3.7915,-6.7961,2.7432
-4.7799,-1.8413,-10.744,-5.7692,1.8954,-4.0385,2.8341,-9.7262,10.513,-5.7692,1.8954,-0.06472,-13.333,-12.444,-13.207,-12.564,-20.256001,-2.9346,1.8957,-9.7087,-5.8692
4.6541,1.0159,0.90615,-5.7692,1.8954,0.76923,2.8341,-6.8277,9.5513,-5.7692,1.8954,2.8479,-2.9068,2.7937,-3.7283,-6.7949,-6.7949,-1.0207,2.8436,-8.7379,-5.8692
2.7673,1.0159,5.7605,-8.6538,-0.06536,-1.1538,1.868,-9.7262,7.6282,-8.6538,-0.06536,1.877,-6.6983,-4.8254,-2.7804,-4.8718,-0.0641,-9.6332,2.8436,-10.68,-3.9553
4.6541,2.9206,11.586,-6.7308,1.8954,-1.1538,3.8003,-10.692,7.6282,-6.7308,1.8954,3.8188,-7.6461,-5.7778,0.06319,-1.9872,5.7051,-1.9777,1.8957,-8.7379,0.82935
11.258,7.6825,18.382,-4.8077,1.8954,4.6154,5.7327,-5.8615,9.5513,-4.8077,1.8954,9.644,3.7283,4.6984,7.6461,6.6667,14.359,0.89314,4.7393,0.0,5.614
10.314,15.302,22.264999,0.96154,7.7778,11.346,13.462,-1.9968,11.474,0.96154,7.7778,17.410999,3.7283,4.6984,5.7504,9.5513,14.359,-0.0638,11.374,-2.9126,11.356
4.6541,19.111,19.353001,0.96154,7.7778,12.308,16.361,-1.9968,13.397,0.96154,7.7778,20.323999,3.7283,4.6984,1.9589,11.474,9.5513,-1.9777,13.27,-4.8544,13.27
-3.8365,15.302,9.644,-1.9231,6.7974,4.6154,14.428,-3.9291,10.513,-1.9231,6.7974,14.498,0.88468,0.88889,-5.624,2.8205,-1.0256,-3.8915,8.5308,-7.767,4.6571
-4.7799,12.444,2.8479,-3.8462,4.8366,-1.1538,13.462,-6.8277,8.5897,-3.8462,4.8366,9.644,-2.9068,-1.0159,-7.5197,-2.9487,-7.7564,-9.6332,6.6351,-9.7087,3.7002
-1.9497,10.54,0.90615,0.0,5.817,1.7308,15.395,-3.9291,7.6282,0.0,5.817,9.644,-5.7504,-4.8254,-6.5719,-7.7564,-10.641,-2.9346,1.8957,-6.7961,-1.0845
3.7107,9.5873,4.7896,0.0,2.8758,6.5385,11.53,2.8341,3.7821,0.0,2.8758,9.644,-7.6461,-7.6825,-0.88468,-6.7949,-4.8718,5.6778,-0.94787,0.0,-6.8262
9.3711,7.6825,5.7605,0.0,1.8954,6.5385,7.6651,4.7665,1.859,0.0,1.8954,4.7896,-5.7504,-5.7778,4.8025,-3.9103,2.8205,5.6778,0.0,0.97087,-5.8692
5.5975,1.0159,1.877,-4.8077,-3.9869,-0.19231,-3.9291,-1.0306,-0.0641,-4.8077,-3.9869,-3.9482,1.8325,-1.9683,7.6461,-2.9487,6.6667,-3.8915,-4.7393,0.97087,-11.611
12.201,1.9683,10.615,-3.8462,-3.9869,2.6923,-2.963,-1.0306,-1.0256,-3.8462,-3.9869,0.90615,13.207,4.6984,17.125,5.7051,18.205,5.6778,-3.7915,12.621,-2.9984
17.862,5.7778,19.353001,0.0,-1.0458,10.385,1.868,3.8003,0.89744,0.0,-1.0458,7.7023,13.207,-0.06349,23.76,10.513,24.936001,12.376,-1.8957,19.417,0.82935
16.917999,6.7302,19.353001,2.8846,3.8562,9.4231,1.868,3.8003,0.89744,2.8846,3.8562,8.6731,8.4676,3.746,22.812,11.474,25.896999,13.333,0.94787,18.447001,5.614
14.088,6.7302,18.382,0.0,0.91503,4.6154,0.90177,-1.0306,-1.0256,0.0,0.91503,5.7605,6.5719,1.8413,18.073,10.513,23.013,2.807,0.94787,9.7087,6.571
6.5409,8.6349,15.469,3.8462,5.817,4.6154,5.7327,-0.06441,1.859,3.8462,5.817,6.7314,4.6761,2.7937,8.594,5.7051,16.282,2.807,1.8957,-0.97087,0.82935
-1.9497,4.8254,5.7605,7.6923,6.7974,3.6538,3.8003,4.7665,2.8205,7.6923,6.7974,5.7605,-3.8547,-2.9206,-1.8325,-1.9872,2.8205,3.764,0.94787,-1.9417,-2.9984
-6.6667,4.8254,-2.0065,7.6923,5.817,2.6923,4.7665,3.8003,5.7051,7.6923,5.817,4.7896,-8.594,-9.5873,-8.4676,-3.9103,-7.7564,-3.8915,3.7915,-5.8252,9.4418
-12.327,1.0159,-9.7735,2.8846,2.8758,-4.0385,3.8003,-4.8953,2.8205,2.8846,2.8758,-1.0356,-10.49,-11.492,-16.051001,-10.641,-18.333,-7.7193,0.0,-15.534,-2.9984
-13.27,-4.6984,-12.686,-6.7308,-3.9869,-8.8462,-4.8953,-5.8615,-2.9487,-6.7308,-3.9869,-6.8608,-3.8547,-1.9683,-14.155,-12.564,-18.333,-6.7624,-6.6351,-12.621,-14.482
-4.7799,-4.6984,-8.8026,-8.6538,-5.9477,-9.8077,-5.8615,-7.7939,-4.8718,-8.6538,-5.9477,-6.8608,0.88468,-1.9683,-3.7283,-11.603,-10.641,-1.9777,-7.5829,0.97087,-11.611
3.7107,0.06349,-1.0356,-10.577,-8.8889,-4.0385,-4.8953,-6.8277,-2.9487,-10.577,-8.8889,-3.9482,0.88468,-2.9206,3.8547,-3.9103,-0.0641,-1.0207,-1.8957,2.9126,-4.9123
5.5975,1.0159,-1.0356,-7.6923,-7.9085,-3.0769,-1.0306,-3.9291,-4.8718,-7.6923,-7.9085,-3.9482,1.8325,-0.06349,4.8025,-1.0256,3.7821,-1.9777,0.0,1.9417,0.82935
3.7107,0.06349,-2.0065,-12.5,-12.81,-7.8846,-5.8615,-5.8615,-4.8718,-12.5,-12.81,-10.744,1.8325,0.88889,5.7504,-0.0641,3.7821,-1.9777,0.94787,4.8544,4.6571
1.8239,-4.6984,-2.0065,-10.577,-9.8693,-9.8077,-6.8277,-4.8953,-4.8718,-10.577,-9.8693,-11.715,-6.6983,-8.6349,1.9589,-3.9103,-0.0641,4.7209,-0.94787,3.8835,-0.12759
-1.0063,-10.413,-1.0356,-8.6538,-10.85,-7.8846,-9.7262,-1.0306,-7.7564,-8.6538,-10.85,-9.7735,-4.8025,-5.7778,-2.7804,-6.7949,-2.9487,-2.9346,-5.6872,-0.97087,-4.9123
1.8239,-8.5079,3.8188,-7.6923,-8.8889,-1.1538,-7.7939,-0.06441,-7.7564,-7.6923,-8.8889,-2.9773,-0.06319,0.88889,0.06319,-1.0256,2.8205,2.807,-3.7915,3.8835,-0.12759
-0.06289,-0.88889,4.7896,-5.7692,-7.9085,1.7308,-2.963,1.868,-3.9103,-5.7692,-7.9085,-0.06472,-2.9068,-2.9206,0.06319,4.7436,6.6667,-1.0207,1.8957,-2.9126,7.5279
-8.5535,-0.88889,-2.0065,-6.7308,-8.8889,-5.9615,-4.8953,-3.9291,-5.8333,-6.7308,-8.8889,-5.89,-1.9589,-1.0159,-2.7804,2.8205,4.7436,1.8501,1.8957,-5.8252,5.614
-3.8365,1.9683,-1.0356,-6.7308,-10.85,-4.0385,-1.0306,-1.9968,-9.6795,-6.7308,-10.85,-4.9191,1.8325,2.7937,1.9589,3.7821,5.7051,4.7209,-0.94787,3.8835,-0.12759
4.6541,4.8254,4.7896,-3.8462,-6.9281,2.6923,0.90177,4.7665,-5.8333,-3.8462,-6.9281,0.90615,3.7283,3.746,6.6983,4.7436,7.6282,1.8501,-1.8957,5.8252,1.7863
9.3711,7.6825,7.7023,-0.96154,-3.9869,6.5385,2.8341,5.7327,-2.9487,-0.96154,-3.9869,4.7896,6.5719,3.746,9.5419,5.7051,8.5897,-1.0207,-1.8957,5.8252,4.6571
8.4277,8.6349,6.7314,-0.96154,-2.0261,5.5769,3.8003,2.8341,-0.0641,-0.96154,-2.0261,3.8188,9.4155,8.5079,7.6461,7.6282,8.5897,-0.0638,-0.94787,2.9126,2.7432
2.7673,4.8254,1.877,-4.8077,-3.0065,-1.1538,1.868,-2.963,-0.0641,-4.8077,-3.0065,-2.0065,0.88468,3.746,1.9589,4.7436,4.7436,1.8501,0.94787,0.0,1.7863
0.8805,1.0159,-2.0065,-5.7692,-3.0065,-5.0,-1.0306,-4.8953,1.859,-5.7692,-3.0065,-4.9191,-2.9068,1.8413,-0.88468,2.8205,1.859,-3.8915,1.8957,-4.8544,-1.0845
-0.06289,-3.746,-4.9191,-6.7308,-4.9673,-5.9615,-5.8615,-2.963,-2.9487,-6.7308,-4.9673,-6.8608,-1.0111,2.7937,-3.7283,0.89744,-0.0641,-1.0207,-0.94787,-6.7961,-0.12759
-2.8931,-8.5079,-9.7735,-7.6923,-8.8889,-7.8846,-9.7262,-2.963,-8.7179,-7.6923,-8.8889,-10.744,-1.9589,-0.06349,-3.7283,-1.0256,-1.9872,-2.9346,-2.8436,-1.9417,-1.0845
-5.7233,-14.222,-14.628,-3.8462,-5.9477,-8.8462,-13.591,-4.8953,-7.7564,-3.8462,-5.9477,-11.715,-1.9589,-2.9206,-6.5719,-1.9872,-4.8718,-2.9346,-3.7915,-4.8544,1.7863
-8.5535,-18.983999,-17.540001,-3.8462,-5.9477,-8.8462,-19.388,-2.963,-7.7564,-3.8462,-5.9477,-13.657,5.624,4.6984,-7.5197,-2.9487,-6.7949,-3.8915,-8.5308,-1.9417,-2.0415
-16.101,-20.889,-19.482,-1.9231,-3.9869,-12.692,-18.422001,-5.8615,-8.7179,-1.9231,-3.9869,-15.599,-1.0111,-1.0159,-12.259,-9.6795,-14.487,-3.8915,-10.427,-0.97087,-4.9123
-19.874001,-18.983999,-19.482,0.0,-3.9869,-13.654,-19.388,-5.8615,-7.7564,0.0,-3.9869,-17.540001,-8.594,-9.5873,-11.311,-11.603,-15.449,-9.6332,-7.5829,3.8835,-3.9553
-14.214,-17.079,-14.628,1.9231,-3.0065,-13.654,-18.422001,-2.963,-9.6795,1.9231,-3.0065,-17.540001,-5.7504,-7.6825,-3.7283,-5.8333,-7.7564,-5.8054,-6.6351,6.7961,-2.0415
-4.7799,-12.317,-6.8608,4.8077,-1.0458,-6.9231,-14.557,-0.06441,-7.7564,4.8077,-1.0458,-11.715,1.8325,0.88889,4.8025,0.89744,0.89744,5.6778,-4.7393,7.767,-2.9984
4.6541,-6.6032,0.90615,13.462,9.7386,3.6538,-5.8615,8.6312,-2.9487,13.462,9.7386,-0.06472,8.4676,4.6984,7.6461,3.7821,3.7821,5.6778,-1.8957,7.767,0.82935
7.4843,-0.88889,4.7896,14.423,11.699,8.4615,2.8341,4.7665,-4.8718,14.423,11.699,7.7023,3.7283,-0.06349,5.7504,2.8205,1.859,2.807,-1.8957,3.8835,0.82935
13.145,5.7778,10.615,13.462,12.68,14.231,7.6651,2.8341,-2.9487,13.462,12.68,15.469,2.7804,-1.0159,7.6461,4.7436,3.7821,8.5486,2.8436,3.8835,7.5279
10.314,5.7778,8.6731,17.308001,18.562,17.115,11.53,7.6651,7.6282,17.308001,18.562,17.410999,1.8325,1.8413,3.8547,0.89744,-0.0641,3.764,4.7393,1.9417,4.6571
5.5975,5.7778,3.8188,25.962,28.365999,16.153999,18.292999,11.53,16.282,25.962,28.365999,18.382,-1.0111,6.6032,-0.88468,-1.9872,-2.9487,-5.8054,6.6351,-0.97087,-1.0845
-1.0063,3.873,-0.06472,29.808001,29.346001,12.308,16.361,14.428,13.397,29.808001,29.346001,15.469,-4.8025,2.7937,-8.4676,-2.9487,-6.7949,-7.7193,3.7915,-7.767,-2.0415
-3.8365,2.9206,-0.06472,22.115,22.483999,7.5,12.496,4.7665,8.5897,22.115,22.483999,12.557,-1.9589,-3.873,-10.363,2.8205,-4.8718,-0.0638,2.8436,-10.68,1.7863
-1.9497,-0.88889,-2.0065,20.191999,22.483999,8.4615,8.6312,6.6989,7.6282,20.191999,22.483999,10.615,-5.7504,-5.7778,-8.4676,-0.0641,-5.8333,3.764,0.0,-2.9126,1.7863
-1.0063,-4.6984,-5.89,22.115,20.523001,9.4231,4.7665,13.462,6.6667,22.115,20.523001,6.7314,-5.7504,-1.9683,-6.5719,-3.9103,-6.7949,0.89314,-1.8957,-3.8835,-0.12759
-2.8931,-2.7937,-6.8608,16.346001,15.621,2.6923,5.7327,4.7665,1.859,16.346001,15.621,2.8479,2.7804,1.8413,-2.7804,-0.0641,-1.9872,-1.0207,-0.94787,-5.8252,3.7002
-5.7233,0.06349,-6.8608,9.6154,11.699,-3.0769,3.8003,-0.06441,6.6667,9.6154,11.699,-1.0356,6.5719,4.6984,1.0111,2.8205,1.859,-3.8915,0.94787,-0.97087,-0.12759
-1.9497,2.9206,-0.06472,9.6154,14.641,-0.19231,8.6312,0.90177,8.5897,9.6154,14.641,2.8479,1.8325,3.746,2.9068,3.7821,4.7436,-3.8915,0.94787,-0.97087,-4.9123
3.7107,6.7302,8.6731,11.538,15.621,4.6154,12.496,4.7665,10.513,11.538,15.621,7.7023,1.8325,5.6508,7.6461,5.7051,9.5513,2.807,1.8957,2.9126,-1.0845
16.917999,16.254,21.294001,15.385,18.562,12.308,18.292999,8.6312,11.474,15.385,18.562,16.440001,7.5197,4.6984,19.021,15.321,21.09,9.5056,6.6351,14.563,14.226
16.917999,18.159,23.236,11.538,13.66,10.385,15.395,7.6651,9.5513,11.538,13.66,14.498,8.4676,6.6032,19.968,16.282,23.013,10.463,5.6872,12.621,12.313
13.145,14.349,16.440001,11.538,11.699,5.5769,11.53,6.6989,5.7051,11.538,11.699,8.6731,11.311,6.6032,18.073,18.205,22.051001,6.6348,5.6872,12.621,11.356
12.201,11.492,8.6731,9.6154,8.7582,2.6923,8.6312,7.6651,1.859,9.6154,8.7582,3.8188,13.207,12.317,18.073,15.321,19.167,6.6348,7.5829,18.447001,5.614
-4.7799,2.9206,-4.9191,5.7692,9.7386,-8.8462,1.868,-3.9291,5.7051,5.7692,9.7386,-2.9773,11.311,16.127001,4.8025,10.513,8.5897,4.7209,4.7393,6.7961,1.7863
-14.214,-2.7937,-12.686,6.7308,9.7386,-9.8077,-2.963,-4.8953,6.6667,6.7308,9.7386,-3.9482,8.4676,10.413,-4.6761,6.6667,-1.0256,-4.8485,1.8957,-2.9126,7.5279
-13.27,-5.6508,-13.657,16.346001,16.601,-2.1154,1.868,6.6989,8.5897,16.346001,16.601,2.8479,-1.0111,-7.6825,-12.259,-1.0256,-11.603,-2.9346,0.94787,-7.767,5.614
-9.4969,-6.6032,-9.7735,21.153999,18.562,7.5,5.7327,12.496,7.6282,21.153999,18.562,8.6731,-4.8025,-7.6825,-15.103,-8.7179,-17.372,-1.9777,0.0,-5.8252,-2.9984
-8.5535,-3.746,-2.9773,17.308001,15.621,13.269,8.6312,12.496,5.7051,17.308001,15.621,13.528,-9.5419,-5.7778,-17.945999,-11.603,-17.372,-3.8915,-0.94787,-15.534,-13.525
-6.6667,-0.88889,-1.0356,21.153999,17.582001,18.077,13.462,16.361,8.5897,21.153999,17.582001,16.440001,-17.125,-12.444,-16.997999,-13.526,-17.372,4.7209,-0.94787,-19.417,-14.482
-0.06289,0.06349,2.8479,14.423,12.68,17.115,12.496,13.462,4.7436,14.423,12.68,14.498,-15.229,-13.397,-10.363,-11.603,-11.603,0.89314,-0.94787,-10.68,-11.611
10.314,-1.8413,4.7896,11.538,10.719,15.192,6.6989,13.462,4.7436,11.538,10.719,10.615,-9.5419,-12.444,0.06319,-12.564,-5.8333,0.89314,-0.94787,0.97087,-9.697
13.145,-0.88889,8.6731,8.6538,4.8366,15.192,2.8341,16.361,5.7051,8.6538,4.8366,9.644,-7.6461,-10.54,5.7504,-9.6795,-0.0641,5.6778,0.0,3.8835,0.82935
12.201,0.06349,8.6731,0.96154,-0.06536,11.346,4.7665,6.6989,0.89744,0.96154,-0.06536,8.6731,-7.6461,-6.7302,4.8025,-5.8333,1.859,7.5917,0.0,0.0,-2.9984
12.201,1.9683,5.7605,-1.9231,-3.0065,10.385,4.7665,5.7327,2.8205,-1.9231,-3.0065,7.7023,-4.8025,-1.0159,5.7504,-3.9103,1.859,2.807,0.94787,0.0,-7.7831
8.4277,0.06349,0.90615,-1.9231,-3.9869,5.5769,0.90177,4.7665,-1.0256,-1.9231,-3.9869,2.8479,-0.06319,0.88889,4.8025,-5.8333,-1.0256,5.6778,0.0,-0.97087,-8.74
-2.8931,-4.6984,-6.8608,-5.7692,-7.9085,-4.0385,-7.7939,-0.06441,-4.8718,-5.7692,-7.9085,-6.8608,-1.9589,-1.9683,-2.7804,-7.7564,-6.7949,3.764,-4.7393,-6.7961,-13.525
-4.7799,-2.7937,-8.8026,-11.538,-11.83,-7.8846,-7.7939,-6.8277,-8.7179,-11.538,-11.83,-8.8026,-1.0111,-1.0159,-2.7804,-5.8333,-8.7179,-6.7624,-5.6872,0.97087,-6.8262
-9.4969,-3.746,-14.628,-12.5,-10.85,-10.769,-3.9291,-8.7601,-4.8718,-12.5,-10.85,-9.7735,-2.9068,-1.9683,-6.5719,-8.7179,-17.372,-5.8054,-1.8957,0.97087,-2.9984
-11.384,-3.746,-14.628,-9.6154,-5.9477,-11.731,0.90177,-8.7601,0.89744,-9.6154,-5.9477,-7.8317,-6.6983,-6.7302,-9.4155,-12.564,-21.218,-1.0207,0.94787,2.9126,0.82935
-13.27,-5.6508,-11.715,-8.6538,-5.9477,-8.8462,-1.0306,-4.8953,2.8205,-8.6538,-5.9477,-6.8608,-7.6461,-10.54,-10.363,-12.564,-20.256001,-7.7193,0.0,-0.97087,-2.9984
-11.384,-3.746,-6.8608,-10.577,-6.9281,-7.8846,-1.0306,-7.7939,-0.0641,-10.577,-6.9281,-5.89,-1.9589,-4.8254,-7.5197,-4.8718,-11.603,-3.8915,2.8436,0.97087,-2.0415
-7.6101,-2.7937,-5.89,-13.462,-10.85,-5.9615,-1.9968,-7.7939,-3.9103,-13.462,-10.85,-7.8317,4.6761,4.6984,-4.6761,-1.9872,-5.8333,-3.8915,2.8436,1.9417,1.7863
-4.7799,-1.8413,-7.8317,-5.7692,-5.9477,-2.1154,-1.9968,0.90177,-1.0256,-5.7692,-5.9477,-7.8317,0.88468,5.6508,-4.6761,-1.0256,-3.9103,-10.59,1.8957,-3.8835,1.7863
-0.06289,6.7302,1.877,-4.8077,-3.0065,-1.1538,1.868,-4.8953,-0.0641,-4.8077,-3.0065,-2.9773,2.7804,0.88889,-0.88468,6.6667,6.6667,-6.7624,5.6872,-3.8835,6.571
5.5975,13.397,14.498,-5.7692,-3.9869,1.7308,3.8003,-3.9291,0.89744,-5.7692,-3.9869,2.8479,3.7283,4.6984,4.8025,12.436,14.359,-5.8054,6.6351,-0.97087,9.4418
5.5975,13.397,18.382,-7.6923,-4.9673,-2.1154,2.8341,-8.7601,-1.0256,-7.6923,-4.9673,1.877,1.8325,7.5556,5.7504,12.436,16.282,-10.59,7.5829,0.97087,13.27
0.8805,10.54,13.528,-8.6538,-6.9281,-6.9231,-0.06441,-9.7262,-3.9103,-8.6538,-6.9281,-2.0065,4.6761,12.317,2.9068,10.513,13.397,-11.547,6.6351,-2.9126,7.5279
-2.8931,4.8254,4.7896,0.0,-2.0261,-6.9231,-2.963,-2.963,-1.0256,0.0,-2.0261,-2.9773,-0.06319,7.5556,-3.7283,5.7051,4.7436,-2.9346,4.7393,-8.7379,3.7002
-7.6101,2.9206,0.90615,-10.577,-9.8693,-10.769,-7.7939,-12.625,-4.8718,-10.577,-9.8693,-6.8608,1.8325,2.7937,-4.6761,5.7051,0.89744,-2.9346,4.7393,-3.8835,8.4848
-9.4969,2.9206,-2.0065,-12.5,-8.8889,-11.731,-3.9291,-12.625,-4.8718,-12.5,-8.8889,-7.8317,0.88468,-0.06349,-5.624,7.6282,-1.9872,-7.7193,5.6872,0.0,12.313
-8.5535,-0.88889,-4.9191,-5.7692,-6.9281,-6.9231,-5.8615,-2.963,-1.9872,-5.7692,-6.9281,-6.8608,-1.0111,0.88889,-4.6761,4.7436,-5.8333,-4.8485,2.8436,1.9417,6.571
1.8239,-5.6508,-2.9773,-6.7308,-10.85,-2.1154,-7.7939,-2.963,-8.7179,-6.7308,-10.85,-3.9482,3.7283,5.6508,2.9068,-1.0256,-4.8718,-2.9346,-1.8957,8.7379,-2.0415
-1.9497,-14.222,-8.8026,-10.577,-15.752,-4.0385,-15.523,-1.9968,-11.603,-10.577,-15.752,-9.7735,4.6761,5.6508,-0.88468,-8.7179,-9.6795,2.807,-7.5829,0.97087,-12.568
-3.8365,-14.222,-9.7735,-13.462,-17.712,-6.9231,-14.557,-4.8953,-19.295,-13.462,-17.712,-12.686,5.624,3.746,-0.88468,-7.7564,-7.7564,2.807,-10.427,0.0,-5.8692
1.8239,-13.27,-6.8608,-19.231001,-25.556,-5.9615,-20.354,-1.0306,-19.295,-19.231001,-25.556,-14.628,3.7283,-0.06349,4.8025,-4.8718,-1.9872,-4.8485,-10.427,5.8252,-2.9984
-1.9497,-13.27,-7.8317,-17.308001,-22.614,-12.692,-22.287001,-8.7601,-16.41,-17.308001,-22.614,-17.540001,-0.06319,-1.9683,1.9589,-5.8333,-1.9872,2.807,-9.4787,4.8544,-6.8262
-4.7799,-8.5079,-3.9482,-15.385,-18.693001,-14.615,-17.455999,-10.692,-15.449,-15.385,-18.693001,-15.599,0.88468,0.88889,1.0111,-4.8718,0.89744,6.6348,-9.4787,0.97087,-10.654
1.8239,1.0159,6.7314,-14.423,-15.752,-7.8846,-9.7262,-7.7939,-12.564,-14.423,-15.752,-7.8317,-0.06319,-0.06349,5.7504,3.7821,10.513,-1.9777,-3.7915,0.97087,2.7432
0.8805,2.9206,8.6731,-11.538,-11.83,-5.9615,-4.8953,-7.7939,-9.6795,-11.538,-11.83,-2.9773,-0.06319,-0.06349,5.7504,6.6667,13.397,-8.6762,-3.7915,1.9417,5.614
1.8239,3.873,8.6731,-6.7308,-8.8889,-3.0769,-1.0306,-3.9291,-7.7564,-6.7308,-8.8889,1.877,7.5197,3.746,9.5419,8.5897,13.397,6.6348,-2.8436,10.68,-1.0845
-1.9497,2.9206,0.90615,3.8462,1.8954,-1.1538,2.8341,2.8341,-0.0641,3.8462,1.8954,1.877,-1.9589,-5.7778,4.8025,5.7051,3.7821,10.463,-1.8957,8.7379,2.7432
-1.9497,2.9206,-2.9773,10.577,7.7778,0.76923,4.7665,7.6651,4.7436,10.577,7.7778,1.877,-1.0111,1.8413,1.0111,6.6667,-1.0256,1.8501,0.94787,-4.8544,8.4848
-3.8365,1.0159,-2.9773,8.6538,8.7582,-0.19231,8.6312,6.6989,-0.0641,8.6538,8.7582,2.8479,6.5719,13.27,-0.88468,5.7051,-1.9872,3.764,1.8957,-5.8252,8.4848
-5.7233,-6.6032,-5.89,2.8846,0.91503,-3.0769,-1.9968,0.90177,-4.8718,2.8846,0.91503,-1.0356,1.8325,7.5556,-2.7804,-1.0256,-8.7179,-1.9777,-2.8436,-1.9417,-2.9984
-2.8931,-11.365,-8.8026,0.96154,0.91503,-2.1154,-4.8953,0.90177,-1.0256,0.96154,0.91503,-2.0065,-0.06319,4.6984,-3.7283,-2.9487,-13.526,2.807,-2.8436,4.8544,-6.8262
-7.6101,-13.27,-13.657,3.8462,2.8758,-3.0769,-5.8615,4.7665,5.7051,3.8462,2.8758,-5.89,-1.9589,-1.0159,-9.4155,-4.8718,-18.333,-3.8915,-0.94787,3.8835,0.82935
-6.6667,-11.365,-11.715,7.6923,5.817,-2.1154,-3.9291,6.6989,5.7051,7.6923,5.817,-4.9191,-1.9589,1.8413,-11.311,-3.9103,-14.487,2.807,-0.94787,-6.7961,-1.0845
-1.9497,-7.5556,-5.89,3.8462,2.8758,-1.1538,-2.963,2.8341,4.7436,3.8462,2.8758,-2.9773,1.8325,3.746,-6.5719,-3.9103,-6.7949,2.807,-0.94787,-7.767,-5.8692
6.5409,1.0159,3.8188,4.8077,6.7974,2.6923,3.8003,1.868,5.7051,4.8077,6.7974,2.8479,4.6761,3.746,2.9068,2.8205,5.7051,1.8501,3.7915,1.9417,-0.12759
12.201,10.54,13.528,4.8077,6.7974,7.5,9.5974,2.8341,10.513,4.8077,6.7974,7.7023,4.6761,3.746,10.49,9.5513,17.243999,4.7209,6.6351,2.9126,3.7002
14.088,16.254,20.323999,9.6154,12.68,10.385,16.361,5.7327,11.474,9.6154,12.68,12.557,6.5719,-1.0159,14.281,15.321,23.013,4.7209,7.5829,9.7087,7.5279
12.201,19.111,22.264999,7.6923,10.719,10.385,14.428,0.90177,11.474,7.6923,10.719,13.528,9.4155,5.6508,14.281,19.167,23.974001,2.807,10.427,7.767,14.226
4.6541,17.205999,14.498,4.8077,10.719,3.6538,10.564,-2.963,12.436,4.8077,10.719,8.6731,8.4676,10.413,11.438,19.167,20.128,3.764,11.374,8.7379,20.924999
0.8805,8.6349,3.8188,4.8077,8.7582,-0.19231,4.7665,-1.0306,10.513,4.8077,8.7582,2.8479,2.7804,7.5556,6.6983,9.5513,9.5513,-5.8054,6.6351,5.8252,4.6571
-2.8931,5.7778,-1.0356,2.8846,6.7974,-0.19231,4.7665,-1.9968,10.513,2.8846,6.7974,2.8479,-1.9589,3.746,-4.6761,1.859,-0.0641,-9.6332,6.6351,-13.592,-1.0845
-4.7799,4.8254,-3.9482,7.6923,8.7582,4.6154,6.6989,5.7327,12.436,7.6923,8.7582,6.7314,-8.594,-8.6349,-12.259,-1.9872,-9.6795,1.8501,5.6872,-19.417,3.7002
2.7673,0.06349,-5.89,11.538,8.7582,11.346,6.6989,14.428,8.5897,11.538,8.7582,9.644,-9.5419,-10.54,-7.5197,-9.6795,-15.449,8.5486,0.94787,-2.9126,-6.8262
0.8805,-2.7937,-8.8026,8.6538,9.7386,8.4615,8.6312,7.6651,8.5897,8.6538,9.7386,8.6731,-9.5419,-12.444,-9.4155,-16.41,-21.218,3.764,1.8957,-4.8544,-4.9123
-1.9497,-6.6032,-9.7735,4.8077,3.8562,6.5385,7.6651,4.7665,1.859,4.8077,3.8562,6.7314,-14.281,-20.063,-11.311,-19.295,-23.141001,3.764,-1.8957,-6.7961,-2.9984
0.8805,-9.4603,-6.8608,4.8077,1.8954,9.4231,2.8341,6.6989,-0.0641,4.8077,1.8954,7.7023,-12.385,-14.349,-8.4676,-22.179001,-19.295,3.764,-5.6872,-5.8252,-13.525
-3.8365,-6.6032,-5.89,2.8846,3.8562,4.6154,0.90177,3.8003,8.5897,2.8846,3.8562,3.8188,-8.594,-6.7302,-7.5197,-18.333,-13.526,-2.9346,-1.8957,-7.767,-18.309
-1.0063,1.0159,-0.06472,3.8462,6.7974,2.6923,6.6989,4.7665,9.5513,3.8462,6.7974,3.8188,-2.9068,-5.7778,-2.7804,-6.7949,-1.9872,-0.0638,2.8436,-6.7961,-5.8692
2.7673,5.7778,4.7896,1.9231,2.8758,2.6923,4.7665,5.7327,7.6282,1.9231,2.8758,3.8188,-6.6983,-9.5873,1.9589,-1.9872,4.7436,1.8501,0.94787,-1.9417,4.6571
11.258,10.54,13.528,4.8077,8.7582,7.5,10.564,4.7665,10.513,4.8077,8.7582,8.6731,-1.0111,-1.0159,9.5419,2.8205,11.474,9.5056,4.7393,5.8252,8.4848
10.314,13.397,17.410999,4.8077,8.7582,8.4615,12.496,3.8003,14.359,4.8077,8.7582,11.586,0.88468,-4.8254,8.594,8.5897,13.397,7.5917,6.6351,2.9126,12.313
5.5975,5.7778,10.615,7.6923,10.719,5.5769,8.6312,5.7327,11.474,7.6923,10.719,8.6731,-2.9068,-0.06349,0.06319,-1.0256,4.7436,2.807,0.94787,-4.8544,-8.74
3.7107,-1.8413,4.7896,7.6923,3.8562,2.6923,-0.06441,6.6989,0.89744,7.6923,3.8562,3.8188,-1.0111,-1.9683,0.06319,-7.7564,-1.9872,6.6348,-7.5829,3.8835,-20.223
2.7673,-2.7937,0.90615,3.8462,-1.0458,0.76923,-4.8953,3.8003,-1.9872,3.8462,-1.0458,0.90615,-3.8547,-5.7778,0.06319,-4.8718,-3.9103,5.6778,-3.7915,-0.97087,-6.8262
3.7107,-2.7937,-2.9773,-4.8077,-5.9477,-3.0769,-6.8277,-2.963,-1.9872,-4.8077,-5.9477,-3.9482,-1.0111,-1.9683,2.9068,-1.0256,-2.9487,7.5917,-2.8436,5.8252,4.6571
-1.0063,-5.6508,-8.8026,-9.6154,-6.9281,-7.8846,-6.8277,-6.8277,-1.0256,-9.6154,-6.9281,-9.7735,0.88468,-2.9206,1.9589,-1.9872,-3.9103,1.8501,-2.8436,8.7379,5.614
-5.7233,-12.317,-14.628,-4.8077,-3.0065,-7.8846,-8.7601,-2.963,2.8205,-4.8077,-3.0065,-12.686,-0.06319,-2.9206,-3.7283,-7.7564,-8.7179,-0.0638,-2.8436,-0.97087,-7.7831
-6.6667,-9.4603,-9.7735,-5.7692,-4.9673,-9.8077,-9.7262,-6.8277,-1.0256,-5.7692,-4.9673,-11.715,6.5719,8.5079,-2.7804,-2.9487,-3.9103,1.8501,-2.8436,-0.97087,-5.8692
-8.5535,-5.6508,-2.9773,-9.6154,-7.9085,-13.654,-9.7262,-12.625,-6.7949,-9.6154,-7.9085,-11.715,1.8325,2.7937,-1.8325,-0.0641,1.859,-3.8915,-3.7915,-0.97087,-3.9553
-4.7799,2.9206,5.7605,-11.538,-8.8889,-10.769,-6.8277,-11.659,-6.7949,-11.538,-8.8889,-6.8608,5.624,4.6984,5.7504,8.5897,9.5513,-1.9777,-0.94787,6.7961,7.5279
-1.0063,8.6349,10.615,-9.6154,-6.9281,-2.1154,-0.06441,-4.8953,-4.8718,-9.6154,-6.9281,0.90615,8.4676,10.413,7.6461,13.397,12.436,-2.9346,0.94787,10.68,15.183
-3.8365,6.7302,7.7023,-1.9231,-3.0065,2.6923,-1.0306,0.90177,1.859,-1.9231,-3.0065,4.7896,2.7804,4.6984,1.0111,8.5897,4.7436,-4.8485,1.8957,4.8544,5.614
-2.8931,4.8254,8.6731,-1.9231,-3.9869,0.76923,0.90177,-5.8615,-0.0641,-1.9231,-3.9869,6.7314,-1.0111,-0.06349,-2.7804,2.8205,0.89744,-0.0638,0.94787,-1.9417,-0.12759
-0.06289,5.7778,7.7023,-6.7308,-5.9477,0.76923,1.868,-2.963,-1.0256,-6.7308,-5.9477,4.7896,-4.8025,-5.7778,-2.7804,1.859,-1.0256,4.7209,-1.8957,-3.8835,2.7432
4.6541,3.873,3.8188,-2.8846,-2.0261,1.7308,4.7665,-0.06441,0.89744,-2.8846,-2.0261,3.8188,-7.6461,-7.6825,-3.7283,-2.9487,-2.9487,-1.0207,0.94787,-7.767,1.7863
3.7107,1.0159,0.90615,-0.96154,-0.06536,2.6923,5.7327,-0.06441,1.859,-0.96154,-0.06536,2.8479,1.8325,4.6984,-2.7804,-3.9103,-1.9872,0.89314,1.8957,-5.8252,-1.0845
7.4843,1.9683,3.8188,1.9231,2.8758,4.6154,9.5974,3.8003,-1.0256,1.9231,2.8758,5.7605,8.4676,11.365,2.9068,1.859,3.7821,6.6348,0.0,4.8544,4.6571
5.5975,1.0159,3.8188,0.0,1.8954,1.7308,3.8003,-0.06441,1.859,0.0,1.8954,2.8479,-1.9589,-0.06349,1.9589,0.89744,2.8205,-1.9777,0.0,4.8544,6.571
4.6541,-1.8413,1.877,3.8462,4.8366,-0.19231,-0.06441,0.90177,3.7821,3.8462,4.8366,1.877,-3.8547,-1.9683,2.9068,0.89744,3.7821,5.6778,-0.94787,4.8544,-0.12759
-0.06289,-5.6508,-2.9773,2.8846,-1.0458,0.76923,-3.9291,2.8341,-1.9872,2.8846,-1.0458,-2.9773,-0.06319,-3.873,1.9589,4.7436,5.7051,2.807,-5.6872,-0.97087,1.7863
-3.8365,-7.5556,-5.89,4.8077,-1.0458,0.76923,-6.8277,4.7665,-4.8718,4.8077,-1.0458,-4.9191,8.4676,1.8413,1.0111,9.5513,7.6282,-1.0207,-5.6872,-0.97087,11.356
1.8239,-11.365,-3.9482,3.8462,-3.9869,1.7308,-13.591,5.7327,-11.603,3.8462,-3.9869,-4.9191,8.4676,6.6032,4.8025,3.7821,5.7051,4.7209,-10.427,7.767,-4.9123
-5.7233,-15.175,-5.89,-1.9231,-10.85,-4.0385,-17.455999,1.868,-15.449,-1.9231,-10.85,-8.8026,-1.9589,3.746,-3.7283,-6.7949,-2.9487,3.764,-15.166,-2.9126,-18.309
-6.6667,-9.4603,-3.9482,-0.96154,-3.9869,-4.0385,-9.7262,0.90177,-3.9103,-0.96154,-3.9869,-5.89,-5.7504,-0.06349,-8.4676,-6.7949,-5.8333,4.7209,-8.5308,-9.7087,-12.568
3.7107,1.0159,2.8479,0.96154,0.91503,2.6923,-1.0306,1.868,-1.0256,0.96154,0.91503,0.90615,-1.0111,-1.0159,-0.88468,-2.9487,-1.0256,-1.0207,-4.7393,0.0,-4.9123
6.5409,2.9206,3.8188,4.8077,5.817,7.5,0.90177,2.8341,2.8205,4.8077,5.817,6.7314,-1.0111,-1.0159,1.0111,-4.8718,-1.9872,-0.0638,-1.8957,0.97087,-2.9984
3.7107,1.0159,0.90615,5.7692,5.817,7.5,-0.06441,1.868,4.7436,5.7692,5.817,5.7605,-9.5419,-7.6825,-4.6761,-6.7949,-7.7564,0.89314,0.0,-6.7961,-2.0415
6.5409,1.9683,1.877,3.8462,3.8562,7.5,1.868,0.90177,-1.0256,3.8462,3.8562,6.7314,-5.7504,-2.9206,-2.7804,-4.8718,-6.7949,-4.8485,0.0,-4.8544,-1.0845
2.7673,2.9206,-0.06472,1.9231,3.8562,1.7308,1.868,-2.963,2.8205,1.9231,3.8562,2.8479,-1.0111,-0.06349,1.0111,-3.9103,-3.9103,-2.9346,5.6872,4.8544,2.7432
2.7673,2.9206,-1.0356,3.8462,8.7582,1.7308,4.7665,-1.0306,7.6282,3.8462,8.7582,1.877,0.88468,-0.06349,1.9589,-0.0641,-1.9872,-2.9346,8.5308,0.97087,2.7432
-1.9497,4.8254,-0.06472,-0.96154,2.8758,-3.0769,0.90177,-3.9291,6.6667,-0.96154,2.8758,-2.0065,4.6761,0.88889,1.9589,3.7821,0.89744,-0.0638,8.5308,0.0,5.614
-5.7233,5.7778,-1.0356,-1.9231,5.817,-8.8462,3.8003,-9.7262,9.5513,-1.9231,5.817,-4.9191,1.8325,-0.06349,-0.88468,2.8205,0.89744,0.89314,11.374,0.0,9.4418
-3.8365,5.7778,-0.06472,-4.8077,-0.06536,-7.8846,-0.06441,-10.692,9.5513,-4.8077,-0.06536,-5.89,-1.9589,-2.9206,-1.8325,0.89744,-1.9872,-3.8915,11.374,-2.9126,7.5279
2.7673,4.8254,0.90615,-6.7308,-4.9673,-2.1154,-1.0306,-5.8615,0.89744,-6.7308,-4.9673,-2.9773,-2.9068,-5.7778,1.9589,-1.0256,-2.9487,-3.8915,7.5829,10.68,9.4418
1.8239,7.6825,0.90615,-2.8846,-3.0065,2.6923,3.8003,-1.9968,2.8205,-2.8846,-3.0065,0.90615,1.8325,-1.0159,1.9589,-0.0641,-3.9103,-3.8915,9.4787,6.7961,9.4418
-5.7233,7.6825,-2.0065,0.96154,3.8562,0.76923,7.6651,-1.9968,6.6667,0.96154,3.8562,0.90615,-0.06319,0.88889,-6.5719,-1.0256,-5.8333,-8.6762,8.5308,-7.767,8.4848
-8.5535,6.7302,-1.0356,-0.96154,3.8562,-5.9615,6.6989,-7.7939,5.7051,-0.96154,3.8562,-2.0065,-2.9068,-2.9206,-5.624,0.89744,-1.9872,-2.9346,5.6872,-2.9126,5.614
-1.0063,11.492,7.7023,1.9231,4.8366,-4.0385,7.6651,-4.8953,6.6667,1.9231,4.8366,0.90615,1.8325,-0.06349,2.9068,12.436,10.513,5.6778,10.427,3.8835,10.399
10.314,14.349,16.440001,4.8077,5.817,4.6154,9.5974,0.90177,1.859,4.8077,5.817,7.7023,10.363,9.4603,15.229,19.167,21.09,5.6778,9.4787,12.621,12.313
10.314,6.7302,12.557,1.9231,0.91503,6.5385,0.90177,3.8003,-1.0256,1.9231,0.91503,5.7605,15.103,18.983999,14.281,15.321,21.09,2.807,4.7393,8.7379,4.6571
-1.9497,-2.7937,-0.06472,2.8846,2.8758,-2.1154,-5.8615,-0.06441,-1.0256,2.8846,2.8758,-2.9773,9.4155,14.222,1.0111,6.6667,8.5897,-4.8485,1.8957,-4.8544,-1.0845
-1.9497,-4.6984,-6.8608,-1.9231,-3.0065,-7.8846,-8.7601,-4.8953,-3.9103,-1.9231,-3.0065,-9.7735,-1.9589,-1.9683,0.06319,3.7821,-1.0256,-6.7624,-0.94787,0.0,4.6571
-1.0063,-7.5556,-10.744,-5.7692,-6.9281,-6.9231,-9.7262,-1.9968,-8.7179,-5.7692,-6.9281,-12.686,-0.06319,-7.6825,0.06319,1.859,-3.9103,-1.0207,-3.7915,7.767,7.5279
-0.06289,-10.413,-9.7735,-5.7692,-9.8693,-4.0385,-10.692,-1.9968,-11.603,-5.7692,-9.8693,-10.744,10.363,7.5556,1.9589,-1.0256,-1.0256,0.89314,-8.5308,5.8252,-7.7831
6.5409,-9.4603,-2.0065,-1.9231,-5.9477,2.6923,-5.8615,2.8341,-14.487,-1.9231,-5.9477,-1.0356,8.4676,10.413,6.6983,-4.8718,2.8205,4.7209,-12.322,7.767,-14.482
13.145,-5.6508,5.7605,-0.96154,-4.9673,5.5769,-2.963,3.8003,-9.6795,-0.96154,-4.9673,3.8188,5.624,1.8413,13.333,-1.9872,5.7051,8.5486,-10.427,11.65,-7.7831
8.4277,-5.6508,3.8188,-1.9231,-4.9673,-0.19231,-4.8953,1.868,-9.6795,-1.9231,-4.9673,-1.0356,4.6761,-1.0159,10.49,-1.0256,5.7051,11.419,-9.4787,6.7961,-7.7831
0.8805,-2.7937,-0.06472,-1.9231,-3.9869,-2.1154,-3.9291,5.7327,-3.9103,-1.9231,-3.9869,-2.9773,1.8325,-4.8254,6.6983,5.7051,6.6667,-0.0638,-3.7915,1.9417,2.7432
-7.6101,-5.6508,-4.9191,-2.8846,-1.0458,-3.0769,-1.0306,-0.06441,-1.9872,-2.8846,-1.0458,-1.0356,-5.7504,-5.7778,-2.7804,-2.9487,-1.0256,-1.9777,-5.6872,-1.9417,-3.9553
-10.44,-4.6984,-2.0065,-5.7692,-3.0065,-0.19231,-0.06441,-2.963,0.89744,-5.7692,-3.0065,2.8479,-5.7504,2.7937,-8.4676,-8.7179,-4.8718,-2.9346,-3.7915,-6.7961,-12.568
-3.8365,1.9683,6.7314,-5.7692,-3.0065,0.76923,1.868,-4.8953,-1.0256,-5.7692,-3.0065,5.7605,-0.06319,7.5556,-7.5197,-1.9872,-0.0641,-4.8485,2.8436,-6.7961,-5.8692
-1.0063,7.6825,8.6731,-8.6538,-5.9477,-2.1154,2.8341,-5.8615,-4.8718,-8.6538,-5.9477,1.877,-1.0111,-0.06349,-3.7283,5.7051,4.7436,-1.9777,4.7393,0.0,5.614
4.6541,8.6349,7.7023,-7.6923,-3.9869,-0.19231,3.8003,-1.9968,-0.0641,-7.6923,-3.9869,1.877,2.7804,4.6984,1.0111,9.5513,7.6282,-1.0207,7.5829,0.97087,12.313
6.5409,4.8254,3.8188,-9.6154,-5.9477,-0.19231,3.8003,-3.9291,2.8205,-9.6154,-5.9477,0.90615,-0.06319,4.6984,1.9589,6.6667,5.7051,0.89314,6.6351,-0.97087,5.614
8.4277,3.873,3.8188,-11.538,-6.9281,0.76923,3.8003,-3.9291,1.859,-11.538,-6.9281,-0.06472,0.88468,4.6984,3.8547,3.7821,4.7436,-0.0638,4.7393,2.9126,-0.12759
-0.06289,3.873,1.877,-22.115,-14.771,-7.8846,-0.06441,-11.659,-4.8718,-22.115,-14.771,-6.8608,4.6761,1.8413,1.9589,4.7436,4.7436,-2.9346,3.7915,0.0,4.6571
-4.7799,0.06349,-2.0065,-15.385,-14.771,-9.8077,-2.963,-8.7601,-8.7179,-15.385,-14.771,-8.8026,1.8325,-1.9683,-2.7804,-1.0256,-1.0256,-4.8485,0.94787,-3.8835,-1.0845
2.7673,1.9683,-0.06472,-3.8462,-7.9085,0.76923,-0.06441,7.6651,-6.7949,-3.8462,-7.9085,-1.0356,-3.8547,-6.7302,1.0111,-1.0256,-1.9872,-2.9346,0.94787,3.8835,-2.0415
-2.8931,2.9206,-2.9773,-1.9231,-5.9477,-1.1538,0.90177,4.7665,-5.8333,-1.9231,-5.9477,-2.0065,-1.9589,-1.9683,-0.88468,1.859,-2.9487,4.7209,0.94787,2.9126,5.614
-12.327,1.9683,-8.8026,-0.96154,-4.9673,-9.8077,-4.8953,0.90177,-4.8718,-0.96154,-4.9673,-9.7735,-0.06319,2.7937,-5.624,3.7821,-2.9487,7.5917,0.94787,-4.8544,9.4418
-12.327,-0.88889,-10.744,-7.6923,-10.85,-14.615,-13.591,-1.9968,-8.7179,-7.6923,-10.85,-18.511,4.6761,2.7937,-1.8325,7.6282,0.89744,-0.0638,-1.8957,2.9126,7.5279
-7.6101,-6.6032,-9.7735,-5.7692,-9.8693,-12.692,-14.557,-2.963,-13.526,-5.7692,-9.8693,-17.540001,4.6761,3.746,1.0111,3.7821,1.859,2.807,-3.7915,4.8544,2.7432
-0.06289,-7.5556,-2.9773,-1.9231,-8.8889,-2.1154,-15.523,3.8003,-12.564,-1.9231,-8.8889,-8.8026,2.7804,7.5556,2.9068,2.8205,3.7821,0.89314,-3.7915,4.8544,0.82935
11.258,-3.746,5.7605,5.7692,0.91503,8.4615,-6.8277,7.6651,-6.7949,5.7692,0.91503,3.8188,6.5719,3.746,8.594,4.7436,8.5897,1.8501,-1.8957,7.767,3.7002
12.201,-3.746,7.7023,8.6538,2.8758,13.269,-2.963,12.496,-1.9872,8.6538,2.8758,7.7023,7.5197,-4.8254,13.333,7.6282,12.436,9.5056,0.0,11.65,7.5279
10.314,-3.746,5.7605,7.6923,2.8758,9.4231,1.868,10.564,-4.8718,7.6923,2.8758,6.7314,1.8325,-4.8254,10.49,1.859,10.513,11.419,-0.94787,6.7961,1.7863
3.7107,-4.6984,2.8479,8.6538,2.8758,6.5385,0.90177,8.6312,-1.9872,8.6538,2.8758,3.8188,-3.8547,0.88889,0.06319,-6.7949,1.859,2.807,-3.7915,-8.7379,-12.568
3.7107,0.06349,4.7896,8.6538,3.8562,7.5,3.8003,10.564,-0.0641,8.6538,3.8562,5.7605,-1.0111,1.8413,-2.7804,-1.9872,1.859,2.807,-0.94787,-8.7379,-9.697
-0.06289,3.873,2.8479,1.9231,-1.0458,1.7308,2.8341,5.7327,-2.9487,1.9231,-1.0458,0.90615,1.8325,2.7937,-0.88468,0.89744,1.859,-0.0638,0.0,-2.9126,-3.9553
-8.5535,-2.7937,-7.8317,-0.96154,-3.0065,-5.0,-2.963,2.8341,-4.8718,-0.96154,-3.0065,-5.89,-1.9589,-0.06349,-4.6761,-3.9103,-3.9103,-2.9346,-2.8436,0.97087,-6.8262
-5.7233,-6.6032,-8.8026,2.8846,-3.0065,-2.1154,-4.8953,6.6989,-8.7179,2.8846,-3.0065,-4.9191,-1.9589,-2.9206,-4.6761,-3.9103,-5.8333,-3.8915,-3.7915,0.97087,-3.9553
-1.9497,-3.746,-4.9191,1.9231,-3.9869,-0.19231,-2.963,5.7327,-11.603,1.9231,-3.9869,-1.0356,4.6761,2.7937,1.9589,0.89744,-3.9103,4.7209,-2.8436,9.7087,3.7002
0.8805,-6.6032,-4.9191,1.9231,-4.9673,0.76923,-5.8615,9.5974,-9.6795,1.9231,-4.9673,-2.0065,3.7283,-1.0159,1.9589,-0.0641,-2.9487,9.5056,-3.7915,3.8835,3.7002
-0.06289,-13.27,-7.8317,-6.7308,-12.81,-3.0769,-16.49,5.7327,-12.564,-6.7308,-12.81,-7.8317,3.7283,2.7937,0.06319,-4.8718,-2.9487,-0.0638,-8.5308,-4.8544,-9.697
1.8239,-13.27,-6.8608,-4.8077,-9.8693,-1.1538,-14.557,1.868,-14.487,-4.8077,-9.8693,-4.9191,2.7804,2.7937,-1.8325,-6.7949,-4.8718,2.807,-7.5829,-0.97087,-6.8262
2.7673,-11.365,-4.9191,-1.9231,-9.8693,6.5385,-10.692,8.6312,-16.41,-1.9231,-9.8693,1.877,-7.6461,-7.6825,-4.6761,-8.7179,-7.7564,-1.0207,-9.4787,-2.9126,-7.7831
1.8239,-10.413,-5.89,3.8462,-3.9869,8.4615,-2.963,11.53,-14.487,3.8462,-3.9869,5.7605,-9.5419,-6.7302,-6.5719,-9.6795,-9.6795,5.6778,-9.4787,-5.8252,-10.654
1.8239,-8.5079,-7.8317,-4.8077,-10.85,5.5769,-3.9291,8.6312,-17.372,-4.8077,-10.85,0.90615,-1.9589,-2.9206,-3.7283,-6.7949,-6.7949,1.8501,-8.5308,-1.9417,-7.7831
-2.8931,-10.413,-12.686,-9.6154,-16.732,-1.1538,-9.7262,5.7327,-17.372,-9.6154,-16.732,-7.8317,-8.594,-5.7778,-7.5197,-8.7179,-8.7179,-3.8915,-9.4787,-4.8544,-9.697
-3.8365,-5.6508,-8.8026,-4.8077,-12.81,-0.19231,-9.7262,8.6312,-12.564,-4.8077,-12.81,-7.8317,-5.7504,-5.7778,-4.6761,-3.9103,-3.9103,-2.9346,-5.6872,-1.9417,-1.0845
3.7107,2.9206,3.8188,-2.8846,-9.8693,4.6154,-1.9968,7.6651,-14.487,-2.8846,-9.8693,1.877,-3.8547,-5.7778,1.0111,0.89744,4.7436,6.6348,-2.8436,-1.9417,1.7863
1.8239,4.8254,8.6731,1.9231,-3.9869,6.5385,-1.0306,9.5974,-9.6795,1.9231,-3.9869,4.7896,-5.7504,-3.873,-0.88468,-1.0256,3.7821,7.5917,-1.8957,-4.8544,-4.9123
4.6541,6.7302,11.586,1.9231,-3.0065,6.5385,-0.06441,9.5974,-11.603,1.9231,-3.0065,5.7605,-2.9068,-4.8254,1.9589,-0.0641,6.6667,2.807,-0.94787,-1.9417,-2.0415
5.5975,7.6825,11.586,-3.8462,-6.9281,3.6538,-1.9968,2.8341,-12.564,-3.8462,-6.9281,1.877,2.7804,-0.06349,5.7504,2.8205,9.5513,-1.0207,0.0,-0.97087,0.82935
3.7107,6.7302,6.7314,-0.96154,-3.9869,0.76923,-1.9968,1.868,-9.6795,-0.96154,-3.9869,-0.06472,5.624,6.6032,4.8025,4.7436,10.513,-6.7624,0.94787,0.0,4.6571
-0.06289,1.9683,2.8479,1.9231,-3.9869,-1.1538,-7.7939,5.7327,-8.7179,1.9231,-3.9869,-2.0065,1.8325,3.746,1.0111,2.8205,4.7436,-1.9777,-0.94787,-1.9417,3.7002
0.8805,-0.88889,0.90615,-2.8846,-6.9281,-3.0769,-8.7601,-1.0306,-10.641,-2.8846,-6.9281,-2.9773,3.7283,4.6984,-0.88468,-0.0641,-0.0641,-3.8915,-1.8957,-1.9417,4.6571
-5.7233,-2.7937,-4.9191,-7.6923,-7.9085,-5.0,-2.963,-7.7939,-8.7179,-7.6923,-7.9085,-2.0065,-2.9068,-1.9683,-8.4676,-6.7949,-12.564,-2.9346,-0.94787,-1.9417,-2.0415
-11.384,-5.6508,-9.7735,-7.6923,-6.9281,-0.19231,0.90177,-4.8953,-4.8718,-7.6923,-6.9281,2.8479,-16.177,-10.54,-16.997999,-15.449,-25.063999,0.89314,-0.94787,-8.7379,-8.74
-5.7233,-5.6508,-5.89,2.8846,2.8758,8.4615,7.6651,3.8003,-1.9872,2.8846,2.8758,10.615,-17.125,-17.205999,-16.051001,-17.372,-25.063999,1.8501,-3.7915,-8.7379,-7.7831
-1.0063,-5.6508,0.90615,5.7692,2.8758,12.308,6.6989,6.6989,-2.9487,5.7692,2.8758,12.557,-4.8025,-7.6825,-7.5197,-13.526,-15.449,-4.8485,-7.5829,-2.9126,-6.8262
5.5975,-3.746,5.7605,0.96154,2.8758,9.4231,9.5974,0.90177,-2.9487,0.96154,2.8758,11.586,-0.06319,-1.0159,0.06319,-9.6795,-4.8718,-0.0638,-4.7393,0.97087,-6.8262
4.6541,-1.8413,3.8188,-4.8077,-4.9673,5.5769,1.868,0.90177,-2.9487,-4.8077,-4.9673,3.8188,-1.0111,-1.9683,2.9068,-3.9103,1.859,-2.9346,-1.8957,-1.9417,-4.9123
6.5409,3.873,5.7605,-9.6154,-8.8889,-1.1538,0.90177,-8.7601,-3.9103,-9.6154,-8.8889,-0.06472,7.5197,7.5556,10.49,6.6667,11.474,-3.8915,0.94787,6.7961,3.7002
0.8805,10.54,4.7896,-7.6923,-3.9869,-5.0,4.7665,-6.8277,4.7436,-7.6923,-3.9869,-2.0065,6.5719,1.8413,8.594,11.474,12.436,-2.9346,7.5829,5.8252,14.226
-4.7799,11.492,4.7896,-0.96154,3.8562,-5.0,8.6312,-1.9968,9.5513,-0.96154,3.8562,-1.0356,7.5197,4.6984,2.9068,11.474,9.5513,2.807,12.322,0.0,19.011
-5.7233,7.6825,1.877,-3.8462,-2.0261,-7.8846,3.8003,-5.8615,-0.0641,-3.8462,-2.0261,-3.9482,5.624,8.5079,0.06319,4.7436,2.8205,1.8501,1.8957,-1.9417,5.614
-5.7233,-0.88889,-4.9191,-3.8462,-4.9673,-7.8846,-6.8277,-4.8953,-3.9103,-3.8462,-4.9673,-6.8608,-2.9068,-0.06349,-6.5719,-3.9103,-6.7949,-3.8915,-3.7915,-6.7961,-1.0845
-8.5535,-5.6508,-10.744,-6.7308,-9.8693,-9.8077,-15.523,-5.8615,-7.7564,-6.7308,-9.8693,-10.744,-1.9589,-0.06349,-8.4676,-4.8718,-10.641,-5.8054,-5.6872,-5.8252,-4.9123
-6.6667,-5.6508,-10.744,-8.6538,-8.8889,-10.769,-16.49,-7.7939,-10.641,-8.6538,-8.8889,-11.715,3.7283,3.746,-4.6761,-0.0641,-8.7179,0.89314,-6.6351,3.8835,-2.9984
-5.7233,-5.6508,-8.8026,-5.7692,-7.9085,-8.8462,-12.625,-4.8953,-8.7179,-5.7692,-7.9085,-10.744,-0.06319,0.88889,-4.6761,-0.0641,-9.6795,-1.9777,-7.5829,1.9417,0.82935
-0.06289,-8.5079,-4.9191,-1.9231,-3.0065,-5.0,-8.7601,-1.9968,-4.8718,-1.9231,-3.0065,-5.89,-1.9589,-0.06349,-0.88468,-3.9103,-5.8333,3.764,-8.5308,2.9126,-4.9123
2.7673,-9.4603,-1.0356,-0.96154,0.91503,-3.0769,-5.8615,-4.8953,-3.9103,-0.96154,0.91503,-3.9482,4.6761,-0.06349,3.8547,-2.9487,-1.0256,7.5917,-7.5829,4.8544,-4.9123
2.7673,-8.5079,0.90615,0.0,1.8954,-3.0769,-1.9968,-5.8615,-0.0641,0.0,1.8954,-1.0356,2.7804,-1.0159,5.7504,-3.9103,0.89744,4.7209,-8.5308,5.8252,-6.8262
1.8239,-5.6508,2.8479,3.8462,6.7974,0.76923,1.868,-1.9968,5.7051,3.8462,6.7974,2.8479,2.7804,-0.06349,2.9068,-4.8718,0.89744,3.764,-2.8436,-2.9126,-5.8692
1.8239,-0.88889,3.8188,6.7308,10.719,4.6154,7.6651,-0.06441,12.436,6.7308,10.719,7.7023,4.6761,-4.8254,2.9068,-4.8718,1.859,0.89314,1.8957,-1.9417,-2.9984
5.5975,3.873,4.7896,8.6538,13.66,8.4615,14.428,4.7665,13.397,8.6538,13.66,11.586,-8.594,-17.205999,3.8547,-7.7564,-0.0641,-8.6762,2.8436,4.8544,-1.0845
-0.06289,3.873,-1.0356,9.6154,13.66,7.5,12.496,5.7327,15.321,9.6154,13.66,9.644,-5.7504,-6.7302,0.06319,-7.7564,-3.9103,-0.0638,4.7393,-2.9126,-6.8262
-4.7799,0.06349,-6.8608,8.6538,9.7386,0.76923,7.6651,0.90177,6.6667,8.6538,9.7386,2.8479,3.7283,4.6984,-0.88468,-6.7949,-3.9103,7.5917,1.8957,-0.97087,-4.9123
-1.0063,1.9683,-5.89,0.96154,-0.06536,-2.1154,1.868,-1.9968,2.8205,0.96154,-0.06536,-2.9773,3.7283,4.6984,6.6983,-0.0641,1.859,-0.0638,1.8957,6.7961,1.7863
0.8805,4.8254,-0.06472,-2.8846,2.8758,-5.0,6.6989,-9.7262,7.6282,-2.8846,2.8758,-2.9773,8.4676,4.6984,9.5419,6.6667,7.6282,0.89314,5.6872,10.68,1.7863
-1.0063,3.873,0.90615,-2.8846,2.8758,-7.8846,-0.06441,-8.7601,12.436,-2.8846,2.8758,-5.89,8.4676,5.6508,8.594,8.5897,8.5897,-1.0207,4.7393,9.7087,5.614
-1.0063,-0.88889,-2.0065,-2.8846,0.91503,-10.769,-4.8953,-11.659,6.6667,-2.8846,0.91503,-10.744,1.8325,2.7937,5.7504,2.8205,4.7436,-2.9346,2.8436,2.9126,-0.12759
1.8239,-0.88889,-2.9773,0.96154,3.8562,-10.769,-4.8953,-9.7262,7.6282,0.96154,3.8562,-11.715,7.5197,8.5079,5.7504,6.6667,8.5897,-2.9346,3.7915,0.97087,7.5279
-0.06289,0.06349,-2.9773,2.8846,4.8366,-9.8077,-3.9291,-7.7939,8.5897,2.8846,4.8366,-10.744,12.259,10.413,7.6461,12.436,12.436,-2.9346,3.7915,8.7379,10.399
-5.7233,1.9683,-2.9773,0.0,8.7582,-9.8077,0.90177,-10.692,17.243999,0.0,8.7582,-9.7735,3.7283,0.88889,1.0111,10.513,7.6282,-6.7624,9.4787,3.8835,6.571
-7.6101,4.8254,-1.0356,3.8462,13.66,-8.8462,9.5974,-10.692,18.205,3.8462,13.66,-4.9191,-1.0111,2.7937,-4.6761,8.5897,2.8205,-5.8054,11.374,-2.9126,8.4848
-6.6667,3.873,-0.06472,9.6154,14.641,-3.0769,9.5974,-2.963,17.243999,9.6154,14.641,0.90615,-5.7504,2.7937,-10.363,3.7821,-5.8333,-6.7624,6.6351,-9.7087,5.614
-5.7233,5.7778,0.90615,14.423,17.582001,3.6538,12.496,0.90177,19.167,14.423,17.582001,8.6731,-3.8547,6.6032,-12.259,1.859,-10.641,-1.9777,7.5829,-7.767,5.614
-5.7233,5.7778,-2.0065,16.346001,20.523001,5.5769,14.428,0.90177,16.282,16.346001,20.523001,9.644,-4.8025,3.746,-11.311,-1.0256,-13.526,1.8501,5.6872,-3.8835,2.7432
-7.6101,0.06349,-7.8317,11.538,15.621,1.7308,7.6651,-1.0306,11.474,11.538,15.621,2.8479,-4.8025,1.8413,-8.4676,-3.9103,-15.449,-7.7193,0.0,1.9417,-1.0845
-3.8365,-2.7937,-6.8608,4.8077,7.7778,0.76923,1.868,-2.963,4.7436,4.8077,7.7778,-1.0356,-1.0111,4.6984,-5.624,-1.9872,-11.603,-4.8485,-0.94787,-2.9126,4.6571
-0.06289,-3.746,-2.9773,5.7692,5.817,-0.19231,-1.0306,-1.0306,3.7821,5.7692,5.817,-2.0065,-1.9589,-4.8254,1.9589,2.8205,-2.9487,2.807,-1.8957,-3.8835,3.7002
3.7107,-4.6984,0.90615,10.577,8.7582,0.76923,-1.9968,0.90177,5.7051,10.577,8.7582,-0.06472,2.7804,-1.9683,8.594,5.7051,5.7051,4.7209,-1.8957,7.767,1.7863
0.8805,-4.6984,-0.06472,9.6154,9.7386,-1.1538,-3.9291,-0.06441,10.513,9.6154,9.7386,-1.0356,4.6761,4.6984,8.594,6.6667,7.6282,4.7209,0.94787,4.8544,1.7863
6.5409,-5.6508,-0.06472,11.538,12.68,-0.19231,-3.9291,0.90177,7.6282,11.538,12.68,-1.0356,4.6761,8.5079,9.5419,6.6667,8.5897,-1.9777,1.8957,1.9417,0.82935
-0.06289,-6.6032,-5.89,10.577,13.66,-4.0385,-3.9291,-4.8953,11.474,10.577,13.66,-3.9482,9.4155,10.413,6.6983,5.7051,4.7436,-2.9346,2.8436,4.8544,0.82935
-1.9497,-4.6984,-9.7735,12.5,18.562,-1.1538,3.8003,-5.8615,19.167,12.5,18.562,-0.06472,3.7283,1.8413,1.0111,3.7821,-1.9872,-0.0638,6.6351,5.8252,8.4848
-1.0063,-3.746,-9.7735,21.153999,24.444,7.5,9.5974,4.7665,21.09,21.153999,24.444,7.7023,-8.594,-2.9206,-6.5719,-5.8333,-10.641,-4.8485,5.6872,-4.8544,-3.9553
3.7107,4.8254,-0.06472,26.923,32.287998,15.192,21.191999,10.564,21.09,26.923,32.287998,18.382,-9.5419,-9.5873,-5.624,-6.7949,-8.7179,-0.0638,7.5829,-5.8252,-0.12759
3.7107,15.302,9.644,25.0,32.287998,17.115,29.886999,6.6989,25.896999,25.0,32.287998,24.207001,-7.6461,-13.397,-4.6761,-2.9487,-5.8333,1.8501,10.427,-4.8544,2.7432
7.4843,17.205999,16.440001,27.885,34.248001,20.962,31.82,8.6312,26.858999,27.885,34.248001,29.061001,-5.7504,-3.873,-2.7804,-3.9103,-1.9872,-1.9777,9.4787,-4.8544,-8.74
12.201,20.063,23.236,25.962,32.287998,22.885,31.82,7.6651,26.858999,25.962,32.287998,29.061001,-0.06319,3.746,2.9068,1.859,7.6282,-1.0207,11.374,-4.8544,-3.9553
14.088,20.063,22.264999,20.191999,28.365999,17.115,26.989,5.7327,24.936001,20.191999,28.365999,22.264999,6.5719,5.6508,8.594,7.6282,17.243999,0.89314,10.427,0.0,-0.12759
9.3711,13.397,13.528,19.231001,24.444,8.4615,16.361,9.5974,21.09,19.231001,24.444,9.644,2.7804,-1.9683,11.438,5.7051,18.205,5.6778,8.5308,7.767,-2.0415
8.4277,10.54,13.528,18.268999,19.542,0.76923,8.6312,6.6989,15.321,18.268999,19.542,2.8479,0.88468,0.88889,12.385,10.513,23.013,6.6348,8.5308,4.8544,4.6571
14.088,9.5873,19.353001,10.577,12.68,0.76923,3.8003,1.868,7.6282,10.577,12.68,1.877,8.4676,10.413,16.177,16.282,28.782,6.6348,5.6872,2.9126,8.4848
15.975,7.6825,19.353001,11.538,10.719,3.6538,1.868,5.7327,2.8205,11.538,10.719,2.8479,7.5197,6.6032,17.125,14.359,25.896999,4.7209,5.6872,8.7379,6.571
16.917999,5.7778,17.410999,13.462,14.641,2.6923,3.8003,1.868,6.6667,13.462,14.641,5.7605,6.5719,3.746,16.177,11.474,21.09,5.6778,6.6351,12.621,7.5279
10.314,4.8254,12.557,9.6154,11.699,1.7308,1.868,0.90177,9.5513,9.6154,11.699,4.7896,0.88468,0.88889,10.49,6.6667,13.397,0.89314,4.7393,6.7961,9.4418
3.7107,4.8254,7.7023,19.231001,19.542,5.5769,8.6312,6.6989,11.474,19.231001,19.542,9.644,-3.8547,-1.0159,1.0111,-0.0641,3.7821,4.7209,2.8436,-3.8835,0.82935
-1.0063,5.7778,5.7605,17.308001,17.582001,9.4231,8.6312,3.8003,11.474,17.308001,17.582001,13.528,-1.0111,-0.06349,-3.7283,0.89744,-0.0641,3.764,3.7915,-2.9126,-2.9984
-0.06289,7.6825,6.7314,13.462,15.621,14.231,11.53,3.8003,8.5897,13.462,15.621,16.440001,-0.06319,7.5556,-2.7804,3.7821,-1.0256,-0.0638,5.6872,1.9417,3.7002
-4.7799,3.873,-1.0356,18.268999,17.582001,13.269,11.53,10.564,10.513,18.268999,17.582001,14.498,-5.7504,-1.0159,-5.624,-1.9872,-8.7179,-8.6762,4.7393,0.97087,3.7002
-5.7233,-1.8413,-6.8608,18.268999,17.582001,10.385,6.6989,6.6989,11.474,18.268999,17.582001,10.615,-4.8025,-4.8254,-7.5197,-2.9487,-10.641,-2.9346,3.7915,-4.8544,2.7432
-6.6667,-3.746,-8.8026,14.423,11.699,8.4615,-0.06441,6.6989,7.6282,14.423,11.699,5.7605,1.8325,-1.0159,-8.4676,-0.0641,-8.7179,-1.0207,0.94787,-13.592,11.356
-0.06289,-3.746,-5.89,17.308001,11.699,10.385,-1.0306,11.53,2.8205,17.308001,11.699,4.7896,-1.9589,-4.8254,-3.7283,0.89744,-4.8718,6.6348,0.94787,-6.7961,10.399
-0.06289,-11.365,-6.8608,8.6538,3.8562,4.6154,-9.7262,5.7327,-1.9872,8.6538,3.8562,-2.0065,-5.7504,0.88889,-0.88468,-5.8333,-4.8718,8.5486,-5.6872,-0.97087,-15.439
1.8239,-13.27,-7.8317,7.6923,4.8366,0.76923,-10.692,5.7327,-1.9872,7.6923,4.8366,-6.8608,-1.9589,5.6508,1.0111,-6.7949,-3.9103,1.8501,-7.5829,-1.9417,-20.223
3.7107,-8.5079,-3.9482,9.6154,5.817,-0.19231,-7.7939,7.6651,-0.0641,9.6154,5.817,-6.8608,4.6761,5.6508,5.7504,1.859,0.89744,1.8501,-3.7915,8.7379,-2.9984
1.8239,-4.6984,-2.0065,1.9231,0.91503,-1.1538,-2.963,3.8003,-4.8718,1.9231,0.91503,-6.8608,3.7283,2.7937,4.8025,6.6667,3.7821,0.89314,-0.94787,6.7961,6.571
-1.9497,-0.88889,-2.9773,-3.8462,-2.0261,-5.0,-2.963,-1.0306,-1.9872,-3.8462,-2.0261,-7.8317,0.88468,-3.873,1.0111,11.474,2.8205,3.764,2.8436,4.8544,18.054001
-4.7799,-0.88889,-3.9482,-1.9231,-0.06536,-7.8846,-2.963,-4.8953,1.859,-1.9231,-0.06536,-6.8608,2.7804,6.6032,0.06319,8.5897,0.89744,2.807,2.8436,5.8252,7.5279
-6.6667,1.0159,-1.0356,0.96154,1.8954,-6.9231,1.868,-4.8953,-0.0641,0.96154,1.8954,-2.0065,8.4676,14.222,0.06319,5.7051,1.859,4.7209,1.8957,0.0,1.7863
-4.7799,2.9206,0.90615,-7.6923,-6.9281,-4.0385,-0.06441,-9.7262,-5.8333,-7.6923,-6.9281,-1.0356,11.311,13.27,1.0111,5.7051,2.8205,-1.9777,-0.94787,-1.9417,-1.0845
-1.0063,7.6825,3.8188,-13.462,-8.8889,-1.1538,3.8003,-14.557,-5.8333,-13.462,-8.8889,1.877,9.4155,11.365,1.9589,10.513,4.7436,-7.7193,1.8957,1.9417,9.4418
-1.0063,9.5873,1.877,-9.6154,-4.9673,0.76923,6.6989,-9.7262,2.8205,-9.6154,-4.9673,2.8479,0.88468,2.7937,0.06319,11.474,1.859,-5.8054,4.7393,-0.97087,16.139999
7.4843,5.7778,0.90615,1.9231,1.8954,6.5385,8.6312,2.8341,0.89744,1.9231,1.8954,4.7896,4.6761,11.365,4.8025,7.6282,1.859,-3.8915,-0.94787,1.9417,4.6571
7.4843,3.873,0.90615,3.8462,1.8954,7.5,3.8003,6.6989,-1.0256,3.8462,1.8954,4.7896,9.4155,12.317,7.6461,5.7051,4.7436,-2.9346,-6.6351,6.7961,-5.8692
8.4277,3.873,3.8188,5.7692,1.8954,10.385,4.7665,6.6989,-3.9103,5.7692,1.8954,9.644,4.6761,3.746,9.5419,6.6667,5.7051,1.8501,-6.6351,12.621,1.7863
9.3711,4.8254,5.7605,7.6923,5.817,15.192,9.5974,10.564,1.859,7.6923,5.817,15.469,2.7804,-0.06349,7.6461,5.7051,2.8205,6.6348,-1.8957,3.8835,7.5279
6.5409,3.873,3.8188,14.423,13.66,17.115,11.53,14.428,8.5897,14.423,13.66,16.440001,-0.06319,-4.8254,1.9589,1.859,-2.9487,11.419,0.94787,0.0,3.7002
-8.5535,-6.6032,-7.8317,13.462,9.7386,5.5769,0.90177,10.564,4.7436,13.462,9.7386,4.7896,-11.438,-8.6349,-12.259,-11.603,-14.487,6.6348,-4.7393,-10.68,-11.611
-11.384,-8.5079,-11.715,6.7308,4.8366,-0.19231,-3.9291,3.8003,-1.0256,6.7308,4.8366,-2.0065,-8.594,-9.5873,-14.155,-9.6795,-15.449,-0.0638,-4.7393,-12.621,-7.7831
-13.27,-11.365,-17.540001,3.8462,1.8954,-3.0769,-5.8615,4.7665,0.89744,3.8462,1.8954,-5.89,-6.6983,-5.7778,-16.997999,-15.449,-21.218,-9.6332,-6.6351,-14.563,-17.351999
-17.044001,-14.222,-21.424,-2.8846,-3.9869,-8.8462,-8.7601,-0.06441,-1.0256,-2.8846,-3.9869,-10.744,-10.49,-9.5873,-21.738001,-19.295,-23.141001,-8.6762,-6.6351,-18.447001,-12.568
-10.44,-8.5079,-11.715,-9.6154,-8.8889,-12.692,-8.7601,-7.7939,-5.8333,-9.6154,-8.8889,-11.715,1.8325,1.8413,-10.363,-9.6795,-11.603,-1.9777,-5.6872,-4.8544,-4.9123
-3.8365,-0.88889,-1.0356,-14.423,-12.81,-11.731,-7.7939,-9.7262,-7.7564,-14.423,-12.81,-8.8026,2.7804,-1.0159,-0.88468,-1.9872,0.89744,-3.8915,-1.8957,-2.9126,2.7432
-2.8931,1.9683,3.8188,-9.6154,-8.8889,-5.9615,-2.963,-4.8953,-4.8718,-9.6154,-8.8889,-2.0065,-7.6461,-7.6825,-3.7283,-9.6795,-0.0641,-3.8915,1.8957,-4.8544,-1.0845
-0.06289,3.873,7.7023,-6.7308,-3.9869,1.7308,1.868,-1.9968,-0.0641,-6.7308,-3.9869,4.7896,-3.8547,-1.0159,-3.7283,-12.564,-1.0256,-1.9777,1.8957,-3.8835,-11.611
4.6541,5.7778,8.6731,-4.8077,-2.0261,3.6538,5.7327,-1.0306,-0.0641,-4.8077,-2.0261,6.7314,-1.9589,-0.06349,-0.88468,-8.7179,-0.0641,-0.0638,2.8436,-6.7961,-4.9123
6.5409,6.7302,10.615,-8.6538,-8.8889,0.76923,1.868,-2.963,-3.9103,-8.6538,-8.8889,2.8479,2.7804,-0.06349,5.7504,-1.9872,5.7051,0.89314,2.8436,1.9417,4.6571
6.5409,2.9206,8.6731,-14.423,-15.752,-5.0,-5.8615,-8.7601,-8.7179,-14.423,-15.752,-2.9773,2.7804,-2.9206,7.6461,-0.0641,5.7051,-0.0638,0.94787,4.8544,3.7002
4.6541,-0.88889,2.8479,-18.268999,-19.673,-8.8462,-11.659,-10.692,-11.603,-18.268999,-19.673,-9.7735,-0.06319,-6.7302,7.6461,-2.9487,2.8205,-2.9346,-1.8957,10.68,2.7432
3.7107,-1.8413,-1.0356,-14.423,-17.712,-7.8846,-10.692,-5.8615,-13.526,-14.423,-17.712,-9.7735,3.7283,-2.9206,7.6461,0.89744,3.7821,-4.8485,-3.7915,10.68,8.4848
0.8805,-9.4603,-6.8608,-10.577,-15.752,-5.9615,-16.49,-1.0306,-12.564,-10.577,-15.752,-11.715,7.5197,6.6032,6.6983,-1.0256,0.89744,0.89314,-5.6872,8.7379,-3.9553
5.5975,-10.413,-4.9191,-7.6923,-12.81,-2.1154,-13.591,-0.06441,-14.487,-7.6923,-12.81,-8.8026,8.4676,5.6508,10.49,-1.0256,2.8205,7.5917,-3.7915,13.592,-7.7831
1.8239,-6.6032,-2.9773,-5.7692,-9.8693,-0.19231,-6.8277,1.868,-7.7564,-5.7692,-9.8693,-3.9482,5.624,-0.06349,5.7504,-1.0256,-0.0641,13.333,-0.94787,10.68,-2.9984
-1.0063,-0.88889,-2.9773,-1.9231,-3.9869,1.7308,2.8341,4.7665,-5.8333,-1.9231,-3.9869,-0.06472,2.7804,3.746,-0.88468,-1.0256,-2.9487,11.419,0.94787,6.7961,-0.12759
-1.9497,2.9206,-2.9773,-1.9231,-3.0065,0.76923,2.8341,5.7327,-1.0256,-1.9231,-3.0065,-0.06472,-1.9589,-1.0159,-4.6761,1.859,-4.8718,-1.0207,1.8957,2.9126,10.399
-0.06289,3.873,-1.0356,1.9231,-0.06536,4.6154,4.7665,12.496,1.859,1.9231,-0.06536,3.8188,-7.6461,-1.0159,-11.311,-5.8333,-8.7179,-3.8915,0.0,-9.7087,-1.0845
2.7673,4.8254,1.877,-0.96154,-3.0065,6.5385,5.7327,7.6651,-1.9872,-0.96154,-3.0065,5.7605,-11.438,-5.7778,-13.207,-9.6795,-11.603,-5.8054,-5.6872,-13.592,-11.611
2.7673,2.9206,0.90615,-3.8462,-4.9673,2.6923,0.90177,1.868,-4.8718,-3.8462,-4.9673,2.8479,-11.438,-6.7302,-9.4155,-6.7949,-9.6795,2.807,-4.7393,-5.8252,-5.8692
1.8239,3.873,2.8479,-13.462,-11.83,-5.0,-3.9291,-8.7601,-9.6795,-13.462,-11.83,-3.9482,-4.8025,-4.8254,-0.88468,0.89744,-1.0256,4.7209,-2.8436,0.97087,3.7002
3.7107,2.9206,2.8479,-16.346001,-14.771,-7.8846,-8.7601,-7.7939,-8.7179,-16.346001,-14.771,-8.8026,3.7283,1.8413,8.594,6.6667,6.6667,2.807,-3.7915,11.65,6.571
-7.6101,-0.88889,-3.9482,-5.7692,-4.9673,-9.8077,-5.8615,-1.9968,-3.9103,-5.7692,-4.9673,-8.8026,5.624,2.7937,3.8547,7.6282,7.6282,-3.8915,-1.8957,4.8544,1.7863
-13.27,1.0159,-2.9773,-6.7308,-5.9477,-12.692,-4.8953,-4.8953,-2.9487,-6.7308,-5.9477,-9.7735,12.259,13.27,3.8547,13.397,12.436,-4.8485,0.94787,6.7961,5.614
-10.44,1.0159,-1.0356,-9.6154,-5.9477,-13.654,-3.9291,-6.8277,-1.0256,-9.6154,-5.9477,-8.8026,12.259,14.222,4.8025,14.359,14.359,-4.8485,1.8957,3.8835,12.313
-8.5535,-3.746,-7.8317,-8.6538,-6.9281,-12.692,-4.8953,-6.8277,-0.0641,-8.6538,-6.9281,-9.7735,3.7283,5.6508,0.06319,6.6667,3.7821,-6.7624,0.94787,-1.9417,3.7002
-9.4969,-8.5079,-12.686,-6.7308,-6.9281,-11.731,-5.8615,-4.8953,-5.8333,-6.7308,-6.9281,-9.7735,-5.7504,-3.873,-6.5719,-1.9872,-7.7564,-2.9346,-3.7915,-6.7961,-0.12759
-0.06289,-1.8413,-3.9482,-6.7308,-5.9477,-4.0385,-2.963,-2.963,-3.9103,-6.7308,-5.9477,-2.9773,-0.06319,1.8413,-2.7804,3.7821,-3.9103,-0.0638,-2.8436,-6.7961,-1.0845
11.258,10.54,10.615,-3.8462,-2.0261,7.5,8.6312,0.90177,-1.0256,-3.8462,-2.0261,8.6731,1.8325,4.6984,4.8025,9.5513,5.7051,5.6778,4.7393,0.0,3.7002
10.314,14.349,13.528,-6.7308,-5.9477,7.5,6.6989,0.90177,-2.9487,-6.7308,-5.9477,7.7023,-2.9068,-0.06349,6.6983,9.5513,9.5513,0.89314,6.6351,2.9126,6.571
14.088,16.254,17.410999,-0.96154,-3.0065,12.308,7.6651,10.564,-2.9487,-0.96154,-3.0065,10.615,-0.06319,-0.06349,8.594,11.474,15.321,4.7209,6.6351,0.97087,7.5279
13.145,15.302,17.410999,3.8462,0.91503,12.308,9.5974,10.564,-0.0641,3.8462,0.91503,11.586,0.88468,2.7937,7.6461,9.5513,14.359,6.6348,6.6351,-3.8835,7.5279
13.145,15.302,16.440001,-0.96154,-0.06536,8.4615,8.6312,3.8003,0.89744,-0.96154,-0.06536,8.6731,-0.06319,-2.9206,8.594,10.513,15.321,2.807,7.5829,1.9417,13.27
10.314,10.54,14.498,-2.8846,-3.9869,6.5385,3.8003,3.8003,-0.0641,-2.8846,-3.9869,5.7605,-3.8547,-9.5873,8.594,10.513,15.321,-0.0638,5.6872,0.97087,15.183
9.3711,8.6349,13.528,-7.6923,-5.9477,4.6154,3.8003,0.90177,-1.9872,-7.6923,-5.9477,4.7896,0.88468,-1.0159,10.49,10.513,17.243999,5.6778,5.6872,0.97087,3.7002
6.5409,3.873,5.7605,0.0,0.91503,4.6154,5.7327,5.7327,4.7436,0.0,0.91503,3.8188,-0.06319,-1.9683,8.594,2.8205,9.5513,9.5056,4.7393,6.7961,-6.8262
1.8239,1.0159,-2.0065,6.7308,5.817,5.5769,6.6989,10.564,9.5513,6.7308,5.817,4.7896,-3.8547,-5.7778,1.0111,-4.8718,-1.0256,6.6348,2.8436,0.0,-6.8262
-5.7233,0.06349,-5.89,-4.8077,-3.9869,-4.0385,-0.06441,-1.9968,-1.9872,-4.8077,-3.9869,-2.0065,-8.594,-10.54,-4.6761,-6.7949,-8.7179,0.89314,0.94787,0.0,-0.12759
-5.7233,-1.8413,-6.8608,-7.6923,-8.8889,-7.8846,-5.8615,-3.9291,-3.9103,-7.6923,-8.8889,-6.8608,-7.6461,-9.5873,-3.7283,-4.8718,-9.6795,0.89314,1.8957,-4.8544,5.614
-0.06289,-5.6508,-4.9191,-4.8077,-8.8889,-4.0385,-6.8277,-1.9968,-10.641,-4.8077,-8.8889,-5.89,-2.9068,-6.7302,-0.88468,-10.641,-9.6795,4.7209,-3.7915,-2.9126,-6.8262
-3.8365,-12.317,-10.744,-10.577,-12.81,-4.0385,-14.557,-4.8953,-9.6795,-10.577,-12.81,-8.8026,-6.6983,-10.54,-5.624,-19.295,-17.372,1.8501,-8.5308,-5.8252,-20.223
-2.8931,-13.27,-14.628,-8.6538,-11.83,-2.1154,-15.523,0.90177,-8.7179,-8.6538,-11.83,-7.8317,-8.594,-9.5873,-8.4676,-20.256001,-22.179001,-2.9346,-8.5308,-5.8252,-18.309
-2.8931,-13.27,-13.657,-8.6538,-16.732,-4.0385,-18.422001,-0.06441,-12.564,-8.6538,-16.732,-9.7735,-8.594,-14.349,-8.4676,-16.41,-22.179001,-5.8054,-10.427,-1.9417,-7.7831
-4.7799,-11.365,-7.8317,-11.538,-18.693001,-7.8846,-17.455999,-6.8277,-16.41,-11.538,-18.693001,-9.7735,-8.594,-12.444,-10.363,-11.603,-16.41,-8.6762,-10.427,-5.8252,-0.12759
-5.7233,-10.413,-2.9773,-15.385,-19.673,-5.9615,-14.557,-8.7601,-13.526,-15.385,-19.673,-6.8608,-2.9068,1.8413,-9.4155,-15.449,-11.603,-6.7624,-15.166,-7.767,-19.266001
-1.9497,-8.5079,-0.06472,-12.5,-12.81,-0.19231,-6.8277,-5.8615,-6.7949,-12.5,-12.81,-0.06472,-1.0111,4.6984,-6.5719,-10.641,-7.7564,-1.9777,-10.427,-2.9126,-19.266001
2.7673,-4.6984,1.877,-8.6538,-9.8693,5.5769,-1.9968,-0.06441,-2.9487,-8.6538,-9.8693,4.7896,4.6761,6.6032,-1.8325,-2.9487,-2.9487,0.89314,-6.6351,0.97087,-7.7831
-1.9497,-0.88889,1.877,-7.6923,-9.8693,1.7308,2.8341,-1.0306,-5.8333,-7.6923,-9.8693,4.7896,10.363,8.5079,-0.88468,5.7051,0.89744,3.764,-4.7393,7.767,5.614
-11.384,-3.746,-1.0356,-8.6538,-9.8693,-5.0,-1.9968,-5.8615,-3.9103,-8.6538,-9.8693,-2.0065,6.5719,8.5079,-6.5719,4.7436,-1.0256,0.89314,-4.7393,1.9417,-1.0845
-1.0063,1.0159,4.7896,-7.6923,-4.9673,-1.1538,0.90177,-5.8615,-0.0641,-7.6923,-4.9673,0.90615,13.207,15.175,1.9589,10.513,6.6667,-1.0207,-0.94787,8.7379,1.7863
5.5975,6.7302,9.644,-6.7308,-3.0065,1.7308,5.7327,-6.8277,1.859,-6.7308,-3.0065,3.8188,9.4155,6.6032,10.49,17.243999,14.359,-1.9777,3.7915,14.563,16.139999
8.4277,7.6825,13.528,-6.7308,-2.0261,3.6538,4.7665,-5.8615,1.859,-6.7308,-2.0261,4.7896,8.4676,6.6032,13.333,19.167,20.128,-0.0638,4.7393,7.767,14.226
8.4277,9.5873,15.469,-8.6538,-0.06536,0.76923,9.5974,-11.659,5.7051,-8.6538,-0.06536,4.7896,15.103,13.27,13.333,19.167,22.051001,1.8501,7.5829,5.8252,16.139999
8.4277,7.6825,12.557,-3.8462,3.8562,1.7308,11.53,-6.8277,9.5513,-3.8462,3.8562,4.7896,15.103,18.032,13.333,12.436,17.243999,-0.0638,7.5829,10.68,9.4418
11.258,7.6825,10.615,3.8462,6.7974,7.5,12.496,5.7327,9.5513,3.8462,6.7974,8.6731,11.311,13.27,10.49,9.5513,13.397,-1.0207,8.5308,2.9126,14.226
7.4843,6.7302,7.7023,2.8846,4.8366,5.5769,8.6312,0.90177,7.6282,2.8846,4.8366,7.7023,3.7283,2.7937,3.8547,7.6282,7.6282,1.8501,6.6351,-3.8835,9.4418
-0.06289,2.9206,2.8479,2.8846,8.7582,2.6923,8.6312,-4.8953,9.5513,2.8846,8.7582,7.7023,3.7283,7.5556,-2.7804,2.8205,2.8205,-2.9346,8.5308,-9.7087,-1.0845
-13.27,-5.6508,-9.7735,6.7308,10.719,-0.19231,3.8003,2.8341,11.474,6.7308,10.719,2.8479,-1.9589,0.88889,-12.259,-7.7564,-9.6795,-6.7624,5.6872,-10.68,-7.7831
-15.157,-12.317,-17.540001,8.6538,7.7778,-2.1154,-1.9968,4.7665,6.6667,8.6538,7.7778,-1.0356,-9.5419,-6.7302,-15.103,-11.603,-18.333,-1.0207,-0.94787,-6.7961,-6.8262
-18.931,-16.127001,-25.306999,-1.9231,-3.0065,-8.8462,-9.7262,0.90177,-1.0256,-1.9231,-3.0065,-9.7735,-17.125,-13.397,-16.051001,-14.487,-24.103001,0.89314,-4.7393,-3.8835,-1.0845
-17.987,-18.032,-25.306999,-8.6538,-8.8889,-14.615,-12.625,-5.8615,-7.7564,-8.6538,-8.8889,-15.599,-14.281,-15.302,-13.207,-13.526,-22.179001,-2.9346,-7.5829,-0.97087,0.82935
-11.384,-16.127001,-19.482,-8.6538,-12.81,-11.731,-14.557,-1.9968,-8.7179,-8.6538,-12.81,-16.57,-6.6983,-7.6825,-4.6761,-10.641,-13.526,-1.0207,-8.5308,4.8544,-8.74
-4.7799,-10.413,-9.7735,-3.8462,-6.9281,-5.0,-7.7939,3.8003,-4.8718,-3.8462,-6.9281,-9.7735,2.7804,6.6032,-3.7283,-5.8333,-5.8333,3.764,-5.6872,0.0,-10.654
5.5975,0.06349,4.7896,-4.8077,-5.9477,3.6538,-1.9968,1.868,0.89744,-4.8077,-5.9477,-0.06472,2.7804,2.7937,1.0111,1.859,3.7821,2.807,0.94787,-0.97087,0.82935
15.975,9.5873,14.498,-4.8077,-5.9477,9.4231,5.7327,0.90177,-0.0641,-4.8077,-5.9477,7.7023,1.8325,1.8413,7.6461,6.6667,8.5897,2.807,6.6351,7.767,7.5279
10.314,8.6349,12.557,-4.8077,-6.9281,6.5385,0.90177,0.90177,2.8205,-4.8077,-6.9281,4.7896,-5.7504,-2.9206,1.9589,1.859,3.7821,1.8501,4.7393,-0.97087,1.7863
8.4277,8.6349,10.615,-3.8462,-3.9869,3.6538,-1.0306,3.8003,3.7821,-3.8462,-3.9869,1.877,-5.7504,-6.7302,1.9589,0.89744,2.8205,3.764,3.7915,-2.9126,-0.12759
8.4277,10.54,12.557,0.0,-0.06536,1.7308,1.868,0.90177,3.7821,0.0,-0.06536,1.877,1.8325,-1.0159,4.8025,5.7051,6.6667,6.6348,3.7915,1.9417,5.614
4.6541,6.7302,6.7314,-2.8846,-0.06536,-1.1538,0.90177,-4.8953,5.7051,-2.8846,-0.06536,-0.06472,-2.9068,1.8413,2.9068,2.8205,2.8205,-3.8915,5.6872,2.9126,3.7002
-0.06289,3.873,-2.0065,-1.9231,3.8562,-4.0385,3.8003,-5.8615,10.513,-1.9231,3.8562,-3.9482,-4.8025,0.88889,0.06319,2.8205,-0.0641,-6.7624,10.427,3.8835,9.4418
-5.7233,1.9683,-3.9482,-0.96154,3.8562,-6.9231,2.8341,-7.7939,9.5513,-0.96154,3.8562,-5.89,1.8325,-0.06349,-0.88468,4.7436,-0.0641,-1.9777,6.6351,2.9126,6.571
-3.8365,1.9683,0.90615,-3.8462,1.8954,-5.9615,2.8341,-9.7262,3.7821,-3.8462,1.8954,-2.9773,8.4676,1.8413,-0.88468,5.7051,1.859,0.89314,3.7915,2.9126,2.7432
-4.7799,1.0159,1.877,-1.9231,0.91503,-2.1154,1.868,-1.9968,1.859,-1.9231,0.91503,-2.0065,4.6761,-1.9683,-1.8325,2.8205,-0.0641,-1.0207,2.8436,1.9417,7.5279
-1.9497,1.9683,3.8188,1.9231,5.817,0.76923,8.6312,-0.06441,1.859,1.9231,5.817,2.8479,0.88468,0.88889,-1.8325,-4.8718,-1.0256,-1.0207,-0.94787,0.97087,-4.9123
3.7107,4.8254,9.644,7.6923,9.7386,7.5,11.53,6.6989,9.5513,7.6923,9.7386,10.615,2.7804,1.8413,0.06319,-5.8333,0.89744,2.807,1.8957,-3.8835,-14.482
4.6541,4.8254,10.615,13.462,13.66,10.385,11.53,11.53,9.5513,13.462,13.66,13.528,-5.7504,-3.873,-3.7283,-8.7179,0.89744,6.6348,0.94787,-10.68,-10.654
10.314,5.7778,15.469,11.538,9.7386,12.308,9.5974,11.53,4.7436,11.538,9.7386,15.469,-4.8025,-1.9683,2.9068,-4.8718,6.6667,6.6348,0.0,-5.8252,-3.9553
15.975,5.7778,19.353001,8.6538,6.7974,12.308,6.6989,10.564,1.859,8.6538,6.7974,14.498,-3.8547,-9.5873,8.594,1.859,12.436,4.7209,1.8957,-1.9417,4.6571
8.4277,-0.88889,11.586,0.0,-3.0065,5.5769,-3.9291,5.7327,-5.8333,0.0,-3.0065,5.7605,-3.8547,-7.6825,5.7504,-1.9872,9.5513,-1.0207,-5.6872,-4.8544,-7.7831
-0.06289,-8.5079,-2.0065,0.96154,-2.0261,-2.1154,-6.8277,4.7665,-3.9103,0.96154,-2.0261,-2.0065,-4.8025,-7.6825,1.9589,-5.8333,3.7821,-1.9777,-8.5308,-0.97087,-12.568
-2.8931,-9.4603,-10.744,5.7692,0.91503,-4.0385,-4.8953,5.7327,-1.9872,5.7692,0.91503,-3.9482,-0.06319,1.8413,2.9068,-4.8718,1.859,4.7209,-4.7393,1.9417,-11.611
-1.9497,-7.5556,-9.7735,6.7308,2.8758,3.6538,-0.06441,11.53,-4.8718,6.7308,2.8758,0.90615,-1.0111,2.7937,0.06319,-2.9487,0.89744,7.5917,-2.8436,-1.9417,-6.8262
-4.7799,-2.7937,-6.8608,5.7692,1.8954,5.5769,0.90177,6.6989,-1.0256,5.7692,1.8954,4.7896,-6.6983,-8.6349,-5.624,-0.0641,-2.9487,0.89314,0.0,-3.8835,4.6571
-1.9497,2.9206,-2.9773,2.8846,3.8562,7.5,4.7665,1.868,4.7436,2.8846,3.8562,9.644,-1.9589,-4.8254,-3.7283,0.89744,-4.8718,-3.8915,5.6872,0.97087,6.571
-0.06289,3.873,-3.9482,8.6538,10.719,13.269,10.564,4.7665,9.5513,8.6538,10.719,14.498,-4.8025,-4.8254,-4.6761,-5.8333,-11.603,1.8501,5.6872,0.0,-3.9553
-2.8931,4.8254,-4.9191,9.6154,9.7386,11.346,9.5974,2.8341,8.5897,9.6154,9.7386,12.557,-11.438,-6.7302,-5.624,-9.6795,-15.449,-4.8485,4.7393,-2.9126,-2.0415
-1.9497,6.7302,-0.06472,4.8077,5.817,6.5385,6.6989,-2.963,3.7821,4.8077,5.817,8.6731,-9.5419,-11.492,-2.7804,-2.9487,-8.7179,-3.8915,5.6872,-4.8544,4.6571
3.7107,7.6825,5.7605,-1.9231,0.91503,2.6923,2.8341,-5.8615,1.859,-1.9231,0.91503,2.8479,2.7804,-1.9683,5.7504,3.7821,2.8205,4.7209,4.7393,0.97087,1.7863
0.8805,2.9206,3.8188,-3.8462,-1.0458,-3.0769,-0.06441,-4.8953,0.89744,-3.8462,-1.0458,-3.9482,13.207,13.27,6.6983,4.7436,8.5897,4.7209,0.94787,1.9417,1.7863
-2.8931,-2.7937,-1.0356,-2.8846,-3.0065,-8.8462,-7.7939,-2.963,-1.9872,-2.8846,-3.0065,-11.715,16.051001,18.032,5.7504,5.7051,10.513,-1.0207,0.0,5.8252,6.571
2.7673,-3.746,-0.06472,-4.8077,-6.9281,-6.9231,-7.7939,-1.0306,-10.641,-4.8077,-6.9281,-10.744,-2.9068,-2.9206,5.7504,4.7436,9.5513,0.89314,-1.8957,6.7961,9.4418
0.8805,-6.6032,-3.9482,-5.7692,-11.83,-5.9615,-13.591,-0.06441,-10.641,-5.7692,-11.83,-11.715,-13.333,-12.444,1.0111,-1.9872,1.859,-4.8485,-7.5829,0.97087,-5.8692
-7.6101,-13.27,-13.657,-1.9231,-6.9281,-10.769,-14.557,-1.9968,-6.7949,-1.9231,-6.9281,-14.628,-6.6983,-6.7302,-8.4676,-10.641,-12.564,-2.9346,-8.5308,-2.9126,-12.568
-19.874001,-18.032,-24.337,0.96154,-3.9869,-13.654,-15.523,-0.06441,-4.8718,0.96154,-3.9869,-18.511,-4.8025,-1.0159,-22.686001,-18.333,-27.948999,-4.8485,-6.6351,-14.563,-12.568
-22.704,-19.937,-28.219999,4.8077,0.91503,-12.692,-11.659,0.90177,-1.9872,4.8077,0.91503,-15.599,-11.438,-13.397,-27.424999,-23.141001,-35.640999,-5.8054,-7.5829,-14.563,-8.74
-17.987,-15.175,-21.424,0.96154,-3.0065,-9.8077,-8.7601,-0.06441,-2.9487,0.96154,-3.0065,-11.715,-11.438,-15.302,-20.790001,-21.218,-30.833,-2.9346,-5.6872,-13.592,-9.697
-7.6101,-8.5079,-12.686,-2.8846,-4.9673,-6.9231,-5.8615,-1.0306,-3.9103,-2.8846,-4.9673,-7.8317,-3.8547,-5.7778,-7.5197,-16.41,-18.333,4.7209,-1.8957,0.0,-8.74
-6.6667,-4.6984,-8.8026,-6.7308,-5.9477,-7.8846,-2.963,-3.9291,-1.9872,-6.7308,-5.9477,-6.8608,-3.8547,-3.873,-3.7283,-10.641,-11.603,-1.9777,0.0,2.9126,-1.0845
-7.6101,1.0159,-2.9773,-1.9231,1.8954,-6.9231,1.868,-5.8615,2.8205,-1.9231,1.8954,-2.9773,5.624,3.746,-2.7804,-3.9103,-2.9487,-9.6332,2.8436,-2.9126,-3.9553
0.8805,11.492,12.557,-1.9231,6.7974,-2.1154,9.5974,-6.8277,6.6667,-1.9231,6.7974,4.7896,11.311,9.4603,6.6983,7.6282,10.513,-6.7624,7.5829,4.8544,5.614
7.4843,17.205999,22.264999,-5.7692,4.8366,-0.19231,12.496,-14.557,9.5513,-5.7692,4.8366,9.644,4.6761,5.6508,12.385,13.397,17.243999,-5.8054,8.5308,5.8252,13.27
8.4277,20.063,24.207001,-13.462,-1.0458,0.76923,12.496,-22.287001,6.6667,-13.462,-1.0458,9.644,5.624,0.88889,10.49,19.167,20.128,-3.8915,11.374,0.97087,17.097
12.201,19.111,21.294001,-11.538,-1.0458,2.6923,10.564,-19.388,7.6282,-11.538,-1.0458,8.6731,10.363,10.413,13.333,20.128,22.051001,-4.8485,11.374,8.7379,14.226
5.5975,11.492,10.615,0.0,6.7974,0.76923,8.6312,-13.591,10.513,0.0,6.7974,4.7896,14.155,21.841,9.5419,15.321,18.205,-4.8485,10.427,8.7379,9.4418
-0.06289,8.6349,5.7605,2.8846,6.7974,1.7308,4.7665,-4.8953,5.7051,2.8846,6.7974,4.7896,17.945999,22.794001,6.6983,16.282,15.321,-4.8485,6.6351,4.8544,10.399
-2.8931,6.7302,4.7896,2.8846,2.8758,1.7308,3.8003,-3.9291,-0.0641,2.8846,2.8758,5.7605,9.4155,8.5079,4.8025,13.397,9.5513,-4.8485,3.7915,6.7961,15.183
-9.4969,1.0159,-3.9482,3.8462,1.8954,1.7308,1.868,0.90177,1.859,3.8462,1.8954,3.8188,-0.06319,-0.06349,-1.8325,4.7436,-2.9487,-0.0638,4.7393,4.8544,8.4848
-17.987,-9.4603,-16.57,5.7692,1.8954,-3.0769,-3.9291,3.8003,0.89744,5.7692,1.8954,-2.9773,-2.9068,-0.06349,-11.311,-1.9872,-15.449,-3.8915,1.8957,-4.8544,5.614
-19.874001,-16.127001,-23.365999,4.8077,-3.0065,-5.9615,-9.7262,6.6989,-5.8333,4.8077,-3.0065,-9.7735,-7.6461,-10.54,-16.051001,-12.564,-21.218,-3.8915,-8.5308,-13.592,-5.8692
-8.5535,-16.127001,-16.57,1.9231,-3.9869,-5.0,-12.625,5.7327,-7.7564,1.9231,-3.9869,-9.7735,-9.5419,-13.397,-10.363,-15.449,-15.449,1.8501,-11.374,-13.592,-14.482
-4.7799,-18.983999,-14.628,-2.8846,-11.83,-5.9615,-19.388,2.8341,-11.603,-2.8846,-11.83,-12.686,-14.281,-12.444,-9.4155,-19.295,-14.487,-2.9346,-12.322,-15.534,-14.482
7.4843,-14.222,-6.8608,-2.8846,-11.83,-1.1538,-16.49,7.6651,-13.526,-2.8846,-11.83,-10.744,-10.49,-10.54,0.06319,-12.564,-5.8333,4.7209,-12.322,-8.7379,-8.74
13.145,-12.317,-0.06472,-2.8846,-11.83,-1.1538,-15.523,4.7665,-13.526,-2.8846,-11.83,-9.7735,-1.9589,0.88889,7.6461,-5.8333,3.7821,14.29,-11.374,1.9417,-14.482
7.4843,-9.4603,-1.0356,1.9231,-4.9673,-3.0769,-10.692,5.7327,-8.7179,1.9231,-4.9673,-7.8317,-5.7504,-2.9206,4.8025,-2.9487,3.7821,11.419,-6.6351,2.9126,-11.611
6.5409,-1.8413,1.877,1.9231,-3.9869,-2.1154,-7.7939,9.5974,-6.7949,1.9231,-3.9869,-5.89,0.88468,0.88889,6.6983,6.6667,6.6667,3.764,-3.7915,6.7961,4.6571
1.8239,2.9206,1.877,0.0,-4.9673,-4.0385,-4.8953,0.90177,-2.9487,0.0,-4.9673,-6.8608,2.7804,1.8413,2.9068,9.5513,3.7821,2.807,0.94787,6.7961,9.4418
-11.384,-0.88889,-8.8026,-5.7692,-7.9085,-12.692,-6.8277,-9.7262,-5.8333,-5.7692,-7.9085,-12.686,-8.594,-10.54,-8.4676,-1.9872,-10.641,-1.9777,0.94787,0.0,8.4848
-18.931,-3.746,-16.57,-7.6923,-8.8889,-15.577,-9.7262,-9.7262,-1.9872,-7.6923,-8.8889,-14.628,-8.594,-7.6825,-17.945999,-6.7949,-17.372,-5.8054,-0.94787,-15.534,-2.0415
-17.987,-3.746,-13.657,-5.7692,-3.0065,-14.615,-5.8615,-12.625,2.8205,-5.7692,-3.0065,-10.744,-1.9589,-0.06349,-17.945999,-9.6795,-17.372,-7.7193,-0.94787,-14.563,-8.74
-6.6667,-1.8413,-3.9482,-8.6538,-8.8889,-8.8462,-6.8277,-11.659,-5.8333,-8.6538,-8.8889,-4.9191,-1.0111,-0.06349,-5.624,-7.7564,-9.6795,-10.59,-5.6872,0.97087,-4.9123
3.7107,1.0159,5.7605,-6.7308,-5.9477,-0.19231,-1.0306,-8.7601,-3.9103,-6.7308,-5.9477,1.877,-1.0111,-2.9206,3.8547,-2.9487,-0.0641,-6.7624,-4.7393,4.8544,-5.8692
14.088,7.6825,14.498,-3.8462,-2.0261,7.5,4.7665,-6.8277,0.89744,-3.8462,-2.0261,8.6731,5.624,-0.06349,14.281,10.513,11.474,-3.8915,0.0,16.504999,3.7002
15.975,7.6825,18.382,-3.8462,-3.0065,10.385,5.7327,-2.963,-1.9872,-3.8462,-3.0065,11.586,16.997999,14.222,17.125,15.321,20.128,0.89314,-0.94787,13.592,6.571
12.201,3.873,12.557,-2.8846,-1.0458,7.5,5.7327,-3.9291,0.89744,-2.8846,-1.0458,7.7023,15.103,16.127001,15.229,12.436,20.128,-1.0207,-1.8957,7.767,2.7432
15.031,1.9683,10.615,-0.96154,2.8758,4.6154,2.8341,-2.963,5.7051,-0.96154,2.8758,2.8479,16.051001,19.937,18.073,15.321,23.013,5.6778,0.0,10.68,4.6571
11.258,1.9683,6.7314,-6.7308,-3.9869,-2.1154,-3.9291,-4.8953,3.7821,-6.7308,-3.9869,-4.9191,13.207,14.222,18.073,19.167,22.051001,5.6778,1.8957,11.65,11.356
4.6541,1.9683,0.90615,-11.538,-4.9673,-8.8462,-1.9968,-10.692,3.7821,-11.538,-4.9673,-8.8026,5.624,3.746,12.385,17.243999,15.321,-4.8485,3.7915,11.65,17.097
-4.7799,2.9206,-3.9482,-4.8077,1.8954,-9.8077,1.868,-8.7601,12.436,-4.8077,1.8954,-6.8608,6.5719,5.6508,2.9068,11.474,5.7051,-3.8915,4.7393,0.97087,7.5279
-4.7799,5.7778,-1.0356,-0.96154,6.7974,-5.0,7.6651,-6.8277,15.321,-0.96154,6.7974,-1.0356,4.6761,6.6032,-4.6761,5.7051,0.89744,5.6778,7.5829,-8.7379,4.6571
-8.5535,5.7778,-0.06472,-2.8846,5.817,-5.9615,7.6651,-6.8277,17.243999,-2.8846,5.817,-2.0065,-1.9589,-0.06349,-10.363,0.89744,-3.9103,1.8501,9.4787,-10.68,6.571
-17.987,-2.7937,-8.8026,-6.7308,2.8758,-14.615,-0.06441,-9.7262,17.243999,-6.7308,2.8758,-11.715,-6.6983,-1.0159,-17.945999,-8.7179,-13.526,-2.9346,4.7393,-13.592,-3.9553
-27.421,-9.4603,-16.57,-15.385,-5.9477,-19.423,-6.8277,-15.523,9.5513,-15.385,-5.9477,-18.511,-11.438,-3.873,-25.528999,-15.449,-22.179001,-12.504,-0.94787,-17.476,-7.7831
-19.874001,-9.4603,-15.599,-17.308001,-7.9085,-13.654,-3.9291,-16.49,7.6282,-17.308001,-7.9085,-11.715,-10.49,-9.5873,-19.841999,-15.449,-21.218,-12.504,-1.8957,-9.7087,-7.7831
-9.4969,-6.6032,-8.8026,-8.6538,-3.9869,-0.19231,1.868,-5.8615,2.8205,-8.6538,-3.9869,-1.0356,-6.6983,-6.7302,-14.155,-13.526,-15.449,-13.461,-1.8957,-5.8252,-8.74
-1.0063,-3.746,-1.0356,-4.8077,-4.9673,6.5385,-0.06441,0.90177,1.859,-4.8077,-4.9673,4.7896,-4.8025,-6.7302,-5.624,-11.603,-9.6795,-5.8054,-0.94787,-2.9126,-11.611
10.314,2.9206,9.644,-1.9231,0.91503,9.4231,6.6989,-1.9968,7.6282,-1.9231,0.91503,10.615,-2.9068,-12.444,2.9068,-4.8718,-1.0256,5.6778,1.8957,0.0,-3.9553
12.201,7.6825,13.528,-4.8077,-0.06536,9.4231,9.5974,-6.8277,11.474,-4.8077,-0.06536,11.586,0.88468,-3.873,8.594,-1.9872,4.7436,2.807,4.7393,5.8252,-0.12759
16.917999,12.444,18.382,-2.8846,6.7974,9.4231,15.395,-6.8277,16.282,-2.8846,6.7974,14.498,4.6761,6.6032,14.281,2.8205,12.436,5.6778,11.374,7.767,4.6571
14.088,16.254,20.323999,-1.9231,5.817,8.4615,15.395,-2.963,12.436,-1.9231,5.817,14.498,5.624,7.5556,13.333,5.7051,13.397,2.807,10.427,5.8252,5.614
16.917999,18.159,21.294001,-1.9231,3.8562,7.5,15.395,-4.8953,6.6667,-1.9231,3.8562,15.469,4.6761,5.6508,14.281,7.6282,12.436,-6.7624,10.427,13.592,6.571
3.7107,18.159,15.469,-1.9231,3.8562,0.76923,16.361,-5.8615,8.5897,-1.9231,3.8562,10.615,5.624,6.6032,6.6983,9.5513,8.5897,-8.6762,10.427,5.8252,5.614
-5.7233,13.397,6.7314,0.0,5.817,-1.1538,12.496,-1.0306,10.513,0.0,5.817,5.7605,0.88468,2.7937,-2.7804,6.6667,3.7821,-0.0638,10.427,-3.8835,7.5279
-7.6101,8.6349,-0.06472,0.96154,4.8366,-2.1154,8.6312,1.868,9.5513,0.96154,4.8366,0.90615,-0.06319,1.8413,-2.7804,7.6282,3.7821,9.5056,8.5308,-3.8835,13.27
-4.7799,3.873,-2.9773,0.0,1.8954,-2.1154,2.8341,2.8341,0.89744,0.0,1.8954,-3.9482,1.8325,4.6984,0.06319,7.6282,5.7051,3.764,3.7915,0.0,6.571
-7.6101,-0.88889,-4.9191,-4.8077,-3.9869,-7.8846,-6.8277,-1.0306,-5.8333,-4.8077,-3.9869,-8.8026,1.8325,1.8413,-2.7804,5.7051,2.8205,1.8501,0.0,0.0,-2.9984
-2.8931,1.0159,-1.0356,-3.8462,-5.9477,-5.9615,-6.8277,1.868,-8.7179,-3.8462,-5.9477,-6.8608,-2.9068,-4.8254,-0.88468,7.6282,2.8205,7.5917,-0.94787,1.9417,5.614
2.7673,-1.8413,1.877,-1.9231,-5.9477,-0.19231,-7.7939,4.7665,-10.641,-1.9231,-5.9477,-3.9482,-1.9589,-1.0159,0.06319,2.8205,1.859,-0.0638,-4.7393,-0.97087,0.82935
7.4843,-3.746,4.7896,-0.96154,-3.9869,5.5769,-5.8615,7.6651,-9.6795,-0.96154,-3.9869,-0.06472,2.7804,5.6508,-0.88468,-0.0641,1.859,-3.8915,-5.6872,-6.7961,-2.9984
15.031,-3.746,7.7023,1.9231,-2.0261,9.4231,-3.9291,10.564,-8.7179,1.9231,-2.0261,3.8188,7.5197,6.6032,6.6983,-0.0641,5.7051,5.6778,-4.7393,1.9417,-3.9553
18.805,-1.8413,9.644,-0.96154,-7.9085,9.4231,-0.06441,10.564,-13.526,-0.96154,-7.9085,4.7896,6.5719,3.746,14.281,-0.0641,9.5513,13.333,-4.7393,12.621,-2.0415
17.862,-2.7937,9.644,-2.8846,-7.9085,8.4615,-1.9968,9.5974,-14.487,-2.8846,-7.9085,3.8188,2.7804,-3.873,15.229,-1.9872,8.5897,11.419,-6.6351,10.68,-2.9984
14.088,-1.8413,9.644,-4.8077,-6.9281,8.4615,-1.9968,9.5974,-11.603,-4.8077,-6.9281,3.8188,2.7804,-1.9683,14.281,-0.0641,8.5897,10.463,-4.7393,9.7087,-2.9984
9.3711,1.0159,6.7314,-7.6923,-9.8693,4.6154,-1.0306,7.6651,-15.449,-7.6923,-9.8693,1.877,3.7283,0.88889,12.385,1.859,8.5897,7.5917,-2.8436,9.7087,-2.0415
-3.8365,-0.88889,-2.0065,-13.462,-18.693001,-7.8846,-8.7601,-1.0306,-19.295,-13.462,-18.693001,-8.8026,-1.0111,-2.9206,3.8547,3.7821,3.7821,-5.8054,-2.8436,1.9417,6.571
-8.5535,0.06349,-3.9482,-14.423,-18.693001,-11.731,-9.7262,-3.9291,-21.218,-14.423,-18.693001,-10.744,-2.9068,-2.9206,-1.8325,4.7436,1.859,-0.0638,-0.94787,-1.9417,7.5279
-4.7799,-1.8413,-3.9482,-14.423,-20.653999,-5.9615,-11.659,3.8003,-24.103001,-14.423,-20.653999,-7.8317,0.88468,0.88889,-1.8325,0.89744,0.89744,3.764,-3.7915,-3.8835,-4.9123
-2.8931,-8.5079,-8.8026,-8.6538,-18.693001,-2.1154,-12.625,8.6312,-26.025999,-8.6538,-18.693001,-5.89,-3.8547,-0.06349,-7.5197,-7.7564,-7.7564,-1.0207,-7.5829,-9.7087,-14.482
-0.06289,-11.365,-11.715,-5.7692,-18.693001,2.6923,-13.591,15.395,-26.025999,-5.7692,-18.693001,-3.9482,-7.6461,-3.873,-7.5197,-12.564,-11.603,1.8501,-8.5308,-6.7961,-17.351999
4.6541,-8.5079,-7.8317,0.0,-13.791,9.4231,-6.8277,22.158001,-26.025999,0.0,-13.791,1.877,-6.6983,-5.7778,-3.7283,-8.7179,-7.7564,9.5056,-6.6351,-0.97087,-5.8692
6.5409,-10.413,-6.8608,0.96154,-14.771,12.308,-9.7262,22.158001,-24.103001,0.96154,-14.771,3.8188,-5.7504,-5.7778,-0.88468,-8.7179,-6.7949,11.419,-8.5308,4.8544,-8.74
4.6541,-13.27,-6.8608,-0.96154,-14.771,8.4615,-12.625,17.327,-25.063999,-0.96154,-14.771,2.8479,-6.6983,-11.492,-2.7804,-8.7179,-6.7949,1.8501,-11.374,0.97087,-6.8262
4.6541,-11.365,-4.9191,0.0,-11.83,7.5,-8.7601,16.361,-23.141001,0.0,-11.83,1.877,-4.8025,-9.5873,-0.88468,-4.8718,-2.9487,2.807,-10.427,-0.97087,0.82935
3.7107,-9.4603,-5.89,0.0,-10.85,5.5769,-7.7939,14.428,-18.333,0.0,-10.85,-0.06472,0.88468,3.746,0.06319,-0.0641,1.859,10.463,-7.5829,-0.97087,1.7863
0.8805,-9.4603,-7.8317,-3.8462,-12.81,-0.19231,-9.7262,7.6651,-19.295,-3.8462,-12.81,-5.89,4.6761,5.6508,1.0111,1.859,3.7821,5.6778,-7.5829,0.0,-2.9984
-0.06289,-6.6032,-2.9773,-4.8077,-12.81,-1.1538,-12.625,4.7665,-18.333,-4.8077,-12.81,-5.89,11.311,10.413,2.9068,7.6282,8.5897,-2.9346,-5.6872,2.9126,-0.12759
1.8239,-2.7937,0.90615,-3.8462,-8.8889,0.76923,-7.7939,6.6989,-18.333,-3.8462,-8.8889,-4.9191,9.4155,7.5556,4.8025,7.6282,10.513,1.8501,-4.7393,10.68,2.7432
4.6541,-3.746,-0.06472,-4.8077,-11.83,-3.0769,-11.659,4.7665,-15.449,-4.8077,-11.83,-9.7735,9.4155,9.4603,9.5419,6.6667,8.5897,1.8501,-5.6872,15.534,-1.0845
-1.0063,-6.6032,-3.9482,-6.7308,-11.83,-9.8077,-13.591,2.8341,-13.526,-6.7308,-11.83,-14.628,9.4155,7.5556,5.7504,2.8205,5.7051,10.463,-6.6351,5.8252,-2.9984
-5.7233,-9.4603,-6.8608,-9.6154,-15.752,-13.654,-17.455999,1.868,-16.41,-9.6154,-15.752,-18.511,5.624,3.746,1.9589,-2.9487,0.89744,8.5486,-10.427,0.0,-7.7831
1.8239,-9.4603,-4.9191,-5.7692,-9.8693,-6.9231,-11.659,5.7327,-14.487,-5.7692,-9.8693,-14.628,3.7283,-0.06349,3.8547,-5.8333,0.89744,6.6348,-9.4787,2.9126,-6.8262
1.8239,-10.413,-4.9191,-3.8462,-7.9085,-5.9615,-10.692,2.8341,-12.564,-3.8462,-7.9085,-12.686,-0.06319,-4.8254,5.7504,-8.7179,-1.9872,5.6778,-9.4787,4.8544,-9.697
-0.06289,-10.413,-5.89,-2.8846,-6.9281,-6.9231,-8.7601,-1.0306,-14.487,-2.8846,-6.9281,-10.744,-6.6983,-9.5873,1.9589,-10.641,-4.8718,3.764,-9.4787,3.8835,-8.74
-1.9497,-11.365,-8.8026,-2.8846,-9.8693,-6.9231,-11.659,-0.06441,-16.41,-2.8846,-9.8693,-9.7735,-5.7504,-6.7302,0.06319,-9.6795,-6.7949,-0.0638,-11.374,0.97087,-8.74
2.7673,-13.27,-9.7735,-1.9231,-9.8693,-4.0385,-9.7262,-0.06441,-18.333,-1.9231,-9.8693,-6.8608,0.88468,-1.9683,1.9589,-8.7179,-7.7564,-0.0638,-14.218,2.9126,-6.8262
-1.9497,-13.27,-11.715,-0.96154,-7.9085,-3.0769,-8.7601,2.8341,-13.526,-0.96154,-7.9085,-4.9191,-1.0111,-1.9683,-2.7804,-8.7179,-11.603,1.8501,-11.374,2.9126,-6.8262
-7.6101,-6.6032,-11.715,1.9231,-2.0261,-1.1538,1.868,3.8003,-8.7179,1.9231,-2.0261,-0.06472,-4.8025,-4.8254,-9.4155,-5.8333,-13.526,3.764,-5.6872,-1.9417,-2.9984
-5.7233,0.06349,-7.8317,2.8846,0.91503,1.7308,3.8003,2.8341,-0.0641,2.8846,0.91503,3.8188,-1.9589,0.88889,-7.5197,0.89744,-9.6795,0.89314,0.94787,-6.7961,1.7863
-2.8931,4.8254,-2.0065,2.8846,1.8954,4.6154,6.6989,4.7665,3.7821,2.8846,1.8954,7.7023,-3.8547,-0.06349,-5.624,0.89744,-6.7949,1.8501,3.7915,-3.8835,3.7002
4.6541,13.397,8.6731,6.7308,7.7778,10.385,14.428,5.7327,8.5897,6.7308,7.7778,14.498,0.88468,2.7937,-0.88468,5.7051,-0.0641,5.6778,7.5829,0.0,7.5279
11.258,21.968,19.353001,8.6538,13.66,15.192,22.158001,2.8341,15.321,8.6538,13.66,21.294001,6.5719,5.6508,5.7504,12.436,8.5897,3.764,13.27,3.8835,10.399
9.3711,21.968,19.353001,8.6538,14.641,12.308,23.124001,-0.06441,16.282,8.6538,14.641,19.353001,1.8325,1.8413,2.9068,11.474,10.513,-5.8054,13.27,-1.9417,7.5279
5.5975,20.063,18.382,10.577,16.601,12.308,21.191999,2.8341,20.128,10.577,16.601,17.410999,-1.9589,0.88889,1.0111,10.513,10.513,-8.6762,15.166,-5.8252,9.4418
2.7673,17.205999,14.498,13.462,18.562,8.4615,20.225,2.8341,18.205,13.462,18.562,15.469,1.8325,0.88889,0.06319,7.6282,6.6667,-2.9346,15.166,-3.8835,7.5279
0.8805,13.397,10.615,12.5,14.641,9.4231,17.327,5.7327,12.436,12.5,14.641,14.498,-0.06319,-1.0159,-0.88468,1.859,2.8205,-2.9346,12.322,-1.9417,5.614
2.7673,10.54,5.7605,6.7308,12.68,8.4615,14.428,-1.0306,13.397,6.7308,12.68,12.557,-3.8547,-4.8254,1.0111,-0.0641,-0.0641,-2.9346,12.322,0.97087,8.4848
-1.9497,1.0159,-6.8608,8.6538,13.66,6.5385,6.6989,6.6989,18.205,8.6538,13.66,5.7605,-7.6461,-7.6825,-3.7283,-4.8718,-7.7564,-2.9346,8.5308,-5.8252,5.614
-2.8931,-3.746,-10.744,12.5,13.66,0.76923,3.8003,3.8003,12.436,12.5,13.66,-0.06472,0.88468,1.8413,-2.7804,-4.8718,-6.7949,4.7209,4.7393,-3.8835,-0.12759
1.8239,1.9683,-2.9773,8.6538,11.699,1.7308,5.7327,-0.06441,13.397,8.6538,11.699,1.877,6.5719,6.6032,1.9589,0.89744,-1.9872,0.89314,5.6872,-2.9126,-3.9553
1.8239,4.8254,-0.06472,10.577,11.699,3.6538,6.6989,1.868,12.436,10.577,11.699,3.8188,-1.0111,-4.8254,-1.8325,0.89744,-4.8718,1.8501,8.5308,0.97087,5.614
-1.0063,5.7778,0.90615,9.6154,8.7582,0.76923,4.7665,-2.963,11.474,9.6154,8.7582,2.8479,-5.7504,-8.6349,-4.6761,-0.0641,-7.7564,-2.9346,6.6351,-4.8544,4.6571
-3.8365,4.8254,-1.0356,2.8846,4.8366,-5.9615,1.868,-6.8277,4.7436,2.8846,4.8366,-1.0356,-4.8025,-2.9206,-5.624,-0.0641,-7.7564,-5.8054,2.8436,-4.8544,4.6571
-6.6667,1.0159,-2.9773,-0.96154,0.91503,-8.8462,-2.963,-6.8277,2.8205,-0.96154,0.91503,-5.89,-4.8025,-0.06349,-6.5719,-4.8718,-9.6795,4.7209,0.0,-4.8544,2.7432
-4.7799,1.9683,-1.0356,-0.96154,-1.0458,-7.8846,-1.9968,-6.8277,-1.9872,-0.96154,-1.0458,-3.9482,-3.8547,-4.8254,-6.5719,-0.0641,-6.7949,-1.0207,1.8957,-4.8544,15.183
-4.7799,-3.746,-3.9482,-4.8077,-4.9673,-3.0769,-3.9291,-3.9291,-1.0256,-4.8077,-4.9673,-2.9773,-1.0111,-0.06349,-9.4155,-5.8333,-9.6795,-4.8485,-2.8436,-6.7961,-7.7831
-12.327,-8.5079,-12.686,-0.96154,4.8366,-5.0,-2.963,-2.963,12.436,-0.96154,4.8366,-3.9482,-3.8547,0.88889,-12.259,-12.564,-14.487,-1.0207,-0.94787,-5.8252,-22.136999
-15.157,-7.5556,-14.628,0.96154,10.719,-8.8462,0.90177,-8.7601,19.167,0.96154,10.719,-6.8608,-5.7504,-5.7778,-13.207,-11.603,-14.487,-7.7193,0.0,-7.767,-12.568
-6.6667,0.06349,-5.89,-1.9231,5.817,-7.8846,4.7665,-12.625,19.167,-1.9231,5.817,-4.9191,-5.7504,-6.7302,-5.624,-2.9487,-5.8333,-1.9777,4.7393,-1.9417,3.7002
-1.9497,2.9206,-0.06472,2.8846,13.66,-3.0769,9.5974,-9.7262,23.974001,2.8846,13.66,-0.06472,-1.9589,-2.9206,-1.8325,-3.9103,-1.9872,1.8501,8.5308,-0.97087,2.7432
0.8805,2.9206,2.8479,5.7692,15.621,2.6923,7.6651,-6.8277,23.974001,5.7692,15.621,2.8479,-0.06319,-0.06349,-2.7804,-2.9487,-0.0641,-6.7624,6.6351,-5.8252,-3.9553
2.7673,4.8254,5.7605,6.7308,14.641,6.5385,8.6312,-1.9968,21.09,6.7308,14.641,6.7314,-3.8547,-0.06349,-3.7283,0.89744,0.89744,-9.6332,6.6351,-7.767,5.614
3.7107,5.7778,7.7023,3.8462,10.719,3.6538,8.6312,-5.8615,15.321,3.8462,10.719,5.7605,-0.06319,2.7937,-1.8325,3.7821,3.7821,-2.9346,5.6872,-4.8544,3.7002
1.8239,1.0159,5.7605,0.96154,5.817,-2.1154,0.90177,-9.7262,10.513,0.96154,5.817,0.90615,-2.9068,0.88889,-1.8325,1.859,3.7821,-1.0207,2.8436,0.97087,-1.0845
3.7107,0.06349,4.7896,1.9231,2.8758,-1.1538,-4.8953,-2.963,9.5513,1.9231,2.8758,-1.0356,-3.8547,-2.9206,2.9068,3.7821,4.7436,-5.8054,0.0,5.8252,9.4418
-1.0063,-1.8413,0.90615,4.8077,6.7974,-4.0385,-1.9968,-3.9291,8.5897,4.8077,6.7974,-1.0356,-0.06319,-1.9683,1.0111,2.8205,2.8205,-0.0638,0.94787,8.7379,5.614
-10.44,-3.746,-3.9482,2.8846,5.817,-5.9615,-2.963,-5.8615,7.6282,2.8846,5.817,-2.0065,-1.0111,0.88889,-6.5719,0.89744,-1.0256,-1.9777,-0.94787,-4.8544,-2.9984
-10.44,-2.7937,-3.9482,3.8462,8.7582,-4.0385,0.90177,-5.8615,8.5897,3.8462,8.7582,-0.06472,-1.0111,2.7937,-9.4155,0.89744,-1.0256,-7.7193,0.0,-10.68,-3.9553
-10.44,-3.746,-5.89,2.8846,5.817,-5.0,0.90177,-6.8277,8.5897,2.8846,5.817,-1.0356,1.8325,4.6984,-7.5197,-1.9872,-2.9487,-3.8915,-0.94787,-5.8252,-7.7831
-5.7233,-3.746,-5.89,4.8077,9.7386,-2.1154,2.8341,-3.9291,9.5513,4.8077,9.7386,0.90615,1.8325,1.8413,-4.6761,-1.0256,-2.9487,0.89314,0.94787,-2.9126,-1.0845
-4.7799,-3.746,-4.9191,5.7692,8.7582,-0.19231,3.8003,-3.9291,9.5513,5.7692,8.7582,1.877,-3.8547,-2.9206,-4.6761,-2.9487,-3.9103,-1.0207,2.8436,-3.8835,3.7002
-1.9497,-0.88889,-2.9773,2.8846,7.7778,1.7308,7.6651,-2.963,9.5513,2.8846,7.7778,3.8188,1.8325,-0.06349,-0.88468,-0.0641,-0.0641,-6.7624,3.7915,2.9126,6.571
-0.06289,1.0159,0.90615,2.8846,7.7778,2.6923,6.6989,-3.9291,10.513,2.8846,7.7778,4.7896,3.7283,0.88889,2.9068,3.7821,4.7436,-2.9346,4.7393,5.8252,1.7863
3.7107,-1.8413,3.8188,0.0,4.8366,3.6538,0.90177,-4.8953,7.6282,0.0,4.8366,2.8479,1.8325,3.746,7.6461,3.7821,8.5897,1.8501,0.94787,6.7961,-3.9553
0.8805,-2.7937,4.7896,-2.8846,-0.06536,-4.0385,-1.9968,-9.7262,0.89744,-2.8846,-0.06536,-2.0065,5.624,10.413,7.6461,5.7051,10.513,-0.0638,-0.94787,3.8835,1.7863
-0.06289,-1.8413,3.8188,-5.7692,-4.9673,-8.8462,-6.8277,-10.692,-1.9872,-5.7692,-4.9673,-7.8317,10.363,11.365,9.5419,11.474,13.397,-0.0638,-0.94787,6.7961,9.4418
-1.0063,-1.8413,1.877,-4.8077,-3.0065,-9.8077,-7.7939,-7.7939,-1.0256,-4.8077,-3.0065,-8.8026,11.311,10.413,7.6461,11.474,13.397,2.807,0.0,8.7379,6.571
-4.7799,-2.7937,-1.0356,-0.96154,0.91503,-8.8462,-7.7939,-5.8615,3.7821,-0.96154,0.91503,-8.8026,9.4155,6.6032,1.9589,8.5897,8.5897,0.89314,2.8436,2.9126,0.82935
-7.6101,-5.6508,-5.89,3.8462,3.8562,-8.8462,-6.8277,-1.9968,2.8205,3.8462,3.8562,-9.7735,3.7283,2.7937,-3.7283,0.89744,-0.0641,-1.9777,0.94787,0.0,-3.9553
-11.384,-8.5079,-12.686,1.9231,-1.0458,-12.692,-10.692,-1.0306,-1.0256,1.9231,-1.0458,-13.657,-6.6983,-7.6825,-7.5197,-4.8718,-6.7949,-3.8915,-0.94787,-0.97087,-2.0415
-3.8365,-7.5556,-10.744,3.8462,4.8366,-8.8462,-5.8615,0.90177,1.859,3.8462,4.8366,-9.7735,-4.8025,-4.8254,0.06319,-1.9872,-2.9487,3.764,-0.94787,8.7379,-0.12759
-4.7799,-10.413,-10.744,2.8846,2.8758,-8.8462,-8.7601,-1.9968,2.8205,2.8846,2.8758,-10.744,0.88468,1.8413,1.0111,-2.9487,-2.9487,-1.9777,-1.8957,5.8252,-2.9984
-4.7799,-10.413,-9.7735,3.8462,3.8562,-7.8846,-5.8615,-4.8953,0.89744,3.8462,3.8562,-7.8317,-0.06319,-0.06349,-1.8325,-3.9103,-3.9103,-0.0638,-1.8957,1.9417,-3.9553
0.8805,-3.746,-4.9191,5.7692,6.7974,0.76923,1.868,-1.0306,2.8205,5.7692,6.7974,-1.0356,4.6761,2.7937,1.9589,-0.0641,-0.0641,-2.9346,0.0,3.8835,-3.9553
-1.0063,2.9206,-1.0356,8.6538,11.699,1.7308,7.6651,-1.0306,6.6667,8.6538,11.699,3.8188,-2.9068,-1.9683,-0.88468,2.8205,1.859,-3.8915,1.8957,-0.97087,5.614
4.6541,9.5873,7.7023,10.577,12.68,6.5385,10.564,0.90177,7.6282,10.577,12.68,9.644,-1.9589,-2.9206,4.8025,8.5897,7.6282,3.764,2.8436,0.97087,11.356
7.4843,10.54,12.557,9.6154,10.719,10.385,9.5974,1.868,4.7436,9.6154,10.719,12.557,5.624,4.6984,6.6983,9.5513,9.5513,1.8501,3.7915,3.8835,8.4848
9.3711,9.5873,13.528,9.6154,9.7386,13.269,8.6312,6.6989,2.8205,9.6154,9.7386,14.498,3.7283,8.5079,7.6461,2.8205,5.7051,1.8501,1.8957,7.767,-1.0845
7.4843,9.5873,10.615,8.6538,8.7582,11.346,8.6312,5.7327,4.7436,8.6538,8.7582,12.557,4.6761,6.6032,4.8025,0.89744,1.859,2.807,4.7393,2.9126,1.7863
4.6541,10.54,8.6731,6.7308,8.7582,6.5385,11.53,-0.06441,2.8205,6.7308,8.7582,9.644,5.624,0.88889,3.8547,2.8205,1.859,7.5917,5.6872,0.97087,3.7002
1.8239,4.8254,3.8188,1.9231,0.91503,2.6923,4.7665,-1.0306,-2.9487,1.9231,0.91503,5.7605,-0.06319,-4.8254,1.9589,-1.0256,-0.0641,2.807,-0.94787,0.97087,0.82935
-0.06289,0.06349,-0.06472,4.8077,4.8366,-0.19231,2.8341,1.868,0.89744,4.8077,4.8366,2.8479,0.88468,-1.9683,0.06319,-3.9103,-2.9487,-1.9777,-0.94787,1.9417,-0.12759
2.7673,0.06349,0.90615,5.7692,5.817,1.7308,5.7327,7.6651,4.7436,5.7692,5.817,3.8188,5.624,4.6984,2.9068,-0.0641,-1.0256,4.7209,0.94787,4.8544,-0.12759
2.7673,-2.7937,-0.06472,8.6538,8.7582,3.6538,3.8003,8.6312,5.7051,8.6538,8.7582,3.8188,-1.9589,-4.8254,-0.88468,-1.9872,-3.9103,0.89314,-1.8957,-1.9417,-3.9553
-1.0063,-6.6032,-4.9191,9.6154,7.7778,5.5769,-1.0306,10.564,3.7821,9.6154,7.7778,3.8188,-9.5419,-9.5873,-3.7283,-7.7564,-7.7564,1.8501,-2.8436,0.0,-2.9984
3.7107,-4.6984,-2.9773,10.577,6.7974,10.385,1.868,13.462,0.89744,10.577,6.7974,7.7023,-5.7504,-4.8254,1.0111,-5.8333,-4.8718,12.376,-0.94787,2.9126,0.82935
4.6541,-2.7937,-2.0065,8.6538,5.817,12.308,2.8341,13.462,1.859,8.6538,5.817,8.6731,-5.7504,-3.873,0.06319,-5.8333,-4.8718,4.7209,-1.8957,-5.8252,-2.9984
7.4843,1.9683,3.8188,6.7308,5.817,10.385,5.7327,8.6312,1.859,6.7308,5.817,8.6731,0.88468,6.6032,1.0111,-1.9872,1.859,3.764,-0.94787,-9.7087,-6.8262
8.4277,7.6825,9.644,3.8462,2.8758,9.4231,6.6989,7.6651,0.89744,3.8462,2.8758,8.6731,3.7283,5.6508,3.8547,3.7821,7.6282,0.89314,0.94787,-6.7961,0.82935
3.7107,7.6825,7.7023,0.96154,0.91503,2.6923,3.8003,1.868,1.859,0.96154,0.91503,3.8188,1.8325,1.8413,2.9068,5.7051,7.6282,-5.8054,1.8957,-3.8835,4.6571
-1.9497,5.7778,3.8188,-0.96154,-0.06536,-1.1538,0.90177,-1.9968,3.7821,-0.96154,-0.06536,-1.0356,1.8325,-4.8254,1.9589,4.7436,4.7436,-1.0207,0.0,3.8835,-1.0845
-3.8365,7.6825,2.8479,0.96154,4.8366,-0.19231,5.7327,-1.0306,6.6667,0.96154,4.8366,0.90615,3.7283,-1.9683,1.0111,2.8205,3.7821,1.8501,2.8436,6.7961,1.7863
-4.7799,4.8254,-0.06472,-0.96154,2.8758,-0.19231,2.8341,-4.8953,4.7436,-0.96154,2.8758,0.90615,5.624,7.5556,-1.8325,0.89744,2.8205,-1.9777,3.7915,-1.9417,2.7432
-1.0063,2.9206,1.877,-0.96154,2.8758,1.7308,3.8003,-6.8277,3.7821,-0.96154,2.8758,2.8479,1.8325,2.7937,-0.88468,-1.0256,2.8205,-2.9346,2.8436,-3.8835,-3.9553
1.8239,1.9683,3.8188,0.96154,2.8758,2.6923,4.7665,-4.8953,2.8205,0.96154,2.8758,4.7896,0.88468,-1.9683,-0.88468,-0.0641,-1.0256,-5.8054,2.8436,0.0,-0.12759
5.5975,-0.88889,1.877,1.9231,1.8954,3.6538,1.868,-3.9291,-1.0256,1.9231,1.8954,3.8188,4.6761,3.746,1.0111,-1.9872,-3.9103,-6.7624,-0.94787,4.8544,3.7002
9.3711,0.06349,4.7896,6.7308,2.8758,7.5,5.7327,3.8003,-3.9103,6.7308,2.8758,6.7314,4.6761,0.88889,5.7504,0.89744,-1.9872,2.807,-1.8957,8.7379,6.571
8.4277,-0.88889,4.7896,8.6538,2.8758,13.269,2.8341,15.395,-1.9872,8.6538,2.8758,8.6731,2.7804,-1.9683,2.9068,-0.0641,-0.0641,2.807,-3.7915,-0.97087,-1.0845
7.4843,-1.8413,1.877,8.6538,2.8758,11.346,0.90177,13.462,-1.0256,8.6538,2.8758,7.7023,-3.8547,-1.0159,0.06319,-3.9103,-1.9872,2.807,-3.7915,-5.8252,-6.8262
7.4843,1.0159,1.877,7.6923,3.8562,9.4231,1.868,9.5974,-1.0256,7.6923,3.8562,6.7314,-2.9068,6.6032,1.9589,-1.9872,-1.0256,5.6778,-0.94787,-1.9417,-4.9123
9.3711,4.8254,3.8188,8.6538,5.817,8.4615,3.8003,11.53,-0.0641,8.6538,5.817,6.7314,-2.9068,-1.0159,7.6461,2.8205,1.859,10.463,1.8957,11.65,7.5279
2.7673,4.8254,-0.06472,6.7308,2.8758,5.5769,2.8341,11.53,1.859,6.7308,2.8758,3.8188,-6.6983,-7.6825,1.9589,-1.9872,-1.9872,11.419,0.94787,2.9126,1.7863
0.8805,4.8254,0.90615,8.6538,5.817,4.6154,2.8341,11.53,0.89744,8.6538,5.817,2.8479,-2.9068,-5.7778,-1.8325,-2.9487,-1.9872,11.419,0.94787,-6.7961,-5.8692
-3.8365,3.873,0.90615,5.7692,1.8954,-0.19231,-1.9968,6.6989,-0.0641,5.7692,1.8954,-2.0065,-4.8025,-5.7778,-5.624,-5.8333,-4.8718,5.6778,0.94787,-9.7087,-9.697
-5.7233,1.9683,-1.0356,1.9231,-1.0458,-5.0,-2.963,0.90177,-1.0256,1.9231,-1.0458,-5.89,-10.49,-7.6825,-9.4155,-10.641,-7.7564,-1.9777,0.0,-9.7087,-3.9553
-1.9497,2.9206,1.877,-0.96154,-1.0458,-5.9615,-1.9968,-0.06441,-1.9872,-0.96154,-1.0458,-6.8608,-9.5419,-14.349,-2.7804,-4.8718,-3.9103,-11.547,0.94787,0.97087,6.571
4.6541,1.0159,5.7605,1.9231,1.8954,0.76923,-1.0306,4.7665,-1.9872,1.9231,1.8954,-1.0356,0.88468,-1.9683,1.9589,0.89744,1.859,-0.0638,0.0,1.9417,1.7863
5.5975,1.0159,8.6731,0.96154,-0.06536,1.7308,-2.963,-1.0306,-1.0256,0.96154,-0.06536,0.90615,12.259,12.317,7.6461,6.6667,8.5897,8.5486,-1.8957,9.7087,-1.0845
8.4277,1.0159,12.557,0.0,1.8954,3.6538,-0.06441,-3.9291,-2.9487,0.0,1.8954,4.7896,12.259,14.222,13.333,8.5897,14.359,8.5486,-1.8957,16.504999,-1.0845
8.4277,0.06349,11.586,-1.9231,-2.0261,3.6538,-1.9968,-2.963,-5.8333,-1.9231,-2.0261,3.8188,11.311,12.317,12.385,9.5513,15.321,6.6348,-2.8436,9.7087,0.82935
2.7673,1.9683,7.7023,-5.7692,-1.0458,-2.1154,1.868,-8.7601,-2.9487,-5.7692,-1.0458,1.877,7.5197,6.6032,7.6461,11.474,13.397,-1.9777,2.8436,2.9126,10.399
2.7673,6.7302,7.7023,0.0,8.7582,-0.19231,10.564,-7.7939,7.6282,0.0,8.7582,6.7314,3.7283,4.6984,5.7504,11.474,10.513,-9.6332,8.5308,3.8835,16.139999
-0.06289,8.6349,4.7896,8.6538,13.66,3.6538,15.395,-2.963,11.474,8.6538,13.66,12.557,4.6761,5.6508,0.06319,6.6667,2.8205,-12.504,7.5829,-0.97087,10.399
1.8239,10.54,2.8479,12.5,18.562,10.385,18.292999,0.90177,9.5513,12.5,18.562,16.440001,1.8325,5.6508,-4.6761,3.7821,-2.9487,-8.6762,9.4787,-6.7961,9.4418
-1.0063,10.54,0.90615,12.5,17.582001,9.4231,13.462,-0.06441,7.6282,12.5,17.582001,12.557,5.624,8.5079,-4.6761,5.7051,-1.0256,-1.9777,5.6872,-6.7961,3.7002
-2.8931,6.7302,2.8479,7.6923,11.699,4.6154,6.6989,-4.8953,2.8205,7.6923,11.699,7.7023,10.363,13.27,0.06319,5.7051,4.7436,-0.0638,2.8436,-0.97087,-2.9984
1.8239,5.7778,6.7314,1.9231,4.8366,0.76923,0.90177,-8.7601,2.8205,1.9231,4.8366,2.8479,13.207,16.127001,7.6461,10.513,11.474,-3.8915,2.8436,6.7961,0.82935
6.5409,1.9683,7.7023,0.0,-0.06536,-0.19231,-4.8953,-7.7939,-4.8718,0.0,-0.06536,-1.0356,10.363,6.6032,12.385,11.474,14.359,1.8501,-0.94787,15.534,4.6571
6.5409,-1.8413,5.7605,-4.8077,-7.9085,-2.1154,-12.625,-2.963,-11.603,-4.8077,-7.9085,-5.89,10.363,7.5556,14.281,12.436,16.282,-1.9777,-4.7393,16.504999,7.5279
3.7107,-5.6508,1.877,-7.6923,-9.8693,-10.769,-11.659,-8.7601,-12.564,-7.6923,-9.8693,-11.715,13.207,14.222,13.333,13.397,17.243999,-1.9777,-6.6351,10.68,2.7432
-1.0063,-7.5556,-2.0065,-11.538,-11.83,-16.538,-14.557,-12.625,-9.6795,-11.538,-11.83,-16.57,16.997999,15.175,10.49,15.321,17.243999,2.807,-5.6872,5.8252,4.6571
0.8805,-6.6032,-0.06472,-12.5,-13.791,-13.654,-12.625,-6.8277,-12.564,-12.5,-13.791,-14.628,13.207,10.413,8.594,15.321,16.282,0.89314,-3.7915,4.8544,11.356
-1.0063,-4.6984,0.90615,-13.462,-15.752,-10.769,-9.7262,-5.8615,-13.526,-13.462,-15.752,-12.686,6.5719,7.5556,6.6983,8.5897,10.513,2.807,-4.7393,4.8544,-0.12759
-2.8931,-1.8413,-2.0065,-13.462,-10.85,-7.8846,-4.8953,-7.7939,-6.7949,-13.462,-10.85,-8.8026,-0.06319,-0.06349,1.0111,2.8205,1.859,0.89314,-1.8957,2.9126,-2.0415
-7.6101,-1.8413,-7.8317,-13.462,-11.83,-7.8846,-5.8615,-7.7939,-2.9487,-13.462,-11.83,-7.8317,-2.9068,-3.873,-2.7804,-0.0641,-5.8333,-0.0638,0.94787,3.8835,6.571
-6.6667,-1.8413,-9.7735,-6.7308,-6.9281,-4.0385,-1.9968,-1.0306,-0.0641,-6.7308,-6.9281,-3.9482,-4.8025,-3.873,-5.624,-1.9872,-8.7179,-1.0207,1.8957,-0.97087,6.571
-4.7799,-1.8413,-8.8026,-5.7692,-6.9281,-1.1538,-0.06441,-0.06441,-1.9872,-5.7692,-6.9281,-2.0065,-1.0111,0.88889,-3.7283,-3.9103,-9.6795,-1.0207,-1.8957,0.0,-6.8262
2.7673,1.0159,-3.9482,-5.7692,-5.9477,3.6538,0.90177,0.90177,-1.0256,-5.7692,-5.9477,1.877,4.6761,4.6984,3.8547,-1.9872,-5.8333,-4.8485,0.0,10.68,-5.8692
3.7107,3.873,-0.06472,-4.8077,-4.9673,4.6154,1.868,0.90177,-1.9872,-4.8077,-4.9673,4.7896,3.7283,3.746,2.9068,0.89744,-3.9103,2.807,1.8957,6.7961,3.7002
4.6541,6.7302,5.7605,-6.7308,-7.9085,6.5385,0.90177,-0.06441,-3.9103,-6.7308,-7.9085,5.7605,1.8325,0.88889,3.8547,1.859,0.89744,4.7209,0.94787,1.9417,5.614
9.3711,6.7302,10.615,-3.8462,-4.9673,8.4615,2.8341,3.8003,-3.9103,-3.8462,-4.9673,8.6731,-4.8025,-5.7778,5.7504,-1.0256,4.7436,2.807,0.0,0.97087,-0.12759
13.145,9.5873,14.498,1.9231,-0.06536,13.269,7.6651,14.428,-1.9872,1.9231,-0.06536,11.586,-2.9068,-1.9683,8.594,-0.0641,8.5897,5.6778,0.0,1.9417,-2.0415
7.4843,5.7778,10.615,3.8462,1.8954,6.5385,5.7327,12.496,0.89744,3.8462,1.8954,6.7314,-7.6461,-3.873,2.9068,-1.0256,5.7051,4.7209,0.94787,-3.8835,-2.0415
-0.06289,0.06349,2.8479,0.96154,-2.0261,-2.1154,-1.9968,4.7665,2.8205,0.96154,-2.0261,-2.0065,-10.49,-9.5873,-2.7804,-4.8718,-0.0641,4.7209,-0.94787,-8.7379,-4.9123
-1.9497,1.0159,-0.06472,0.96154,0.91503,-3.0769,3.8003,4.7665,3.7821,0.96154,0.91503,-1.0356,-10.49,-12.444,-5.624,-5.8333,-4.8718,7.5917,1.8957,-5.8252,-1.0845
-4.7799,0.06349,-6.8608,-2.8846,-2.0261,-2.1154,3.8003,2.8341,3.7821,-2.8846,-2.0261,-0.06472,-11.438,-12.444,-9.4155,-9.6795,-12.564,-1.9777,2.8436,-5.8252,-2.0415
-7.6101,-1.8413,-11.715,-2.8846,-1.0458,-2.1154,4.7665,0.90177,2.8205,-2.8846,-1.0458,0.90615,-10.49,-8.6349,-12.259,-12.564,-18.333,-1.0207,0.94787,-4.8544,-3.9553
-13.27,-5.6508,-15.599,-8.6538,-6.9281,-6.9231,-2.963,-4.8953,-1.0256,-8.6538,-6.9281,-4.9191,-5.7504,-1.9683,-15.103,-11.603,-18.333,-6.7624,-1.8957,-7.767,-8.74
-13.27,-5.6508,-14.628,-11.538,-9.8693,-10.769,-6.8277,-10.692,-3.9103,-11.538,-9.8693,-8.8026,-1.9589,1.8413,-13.207,-6.7949,-13.526,-4.8485,-1.8957,-7.767,0.82935
-13.27,-6.6032,-11.715,-10.577,-9.8693,-10.769,-9.7262,-9.7262,-3.9103,-10.577,-9.8693,-10.744,-7.6461,-5.7778,-12.259,-5.8333,-11.603,-8.6762,-1.8957,-8.7379,2.7432
-1.9497,-1.8413,-1.0356,-5.7692,-4.9673,-2.1154,-5.8615,-4.8953,-1.9872,-5.7692,-4.9673,-2.9773,-3.8547,-10.54,-3.7283,-0.0641,-1.9872,-9.6332,1.8957,-4.8544,4.6571
3.7107,1.9683,6.7314,-2.8846,-3.9869,3.6538,-1.9968,-2.963,-0.0641,-2.8846,-3.9869,2.8479,-0.06319,-3.873,3.8547,3.7821,5.7051,-0.0638,2.8436,0.97087,4.6571
9.3711,1.9683,8.6731,0.0,-2.0261,7.5,0.90177,0.90177,-1.9872,0.0,-2.0261,4.7896,2.7804,8.5079,8.594,0.89744,8.5897,4.7209,0.94787,2.9126,-7.7831
10.314,-2.7937,4.7896,1.9231,-0.06536,8.4615,-0.06441,5.7327,-0.0641,1.9231,-0.06536,3.8188,-1.0111,1.8413,6.6983,-6.7949,2.8205,1.8501,-0.94787,-0.97087,-13.525
6.5409,-6.6032,-0.06472,2.8846,-1.0458,5.5769,-1.9968,7.6651,0.89744,2.8846,-1.0458,2.8479,-6.6983,-7.6825,0.06319,-12.564,-5.8333,2.807,-2.8436,-4.8544,-8.74
2.7673,-8.5079,-3.9482,0.96154,-3.0065,0.76923,-2.963,7.6651,-4.8718,0.96154,-3.0065,-0.06472,-8.594,-10.54,-3.7283,-14.487,-10.641,0.89314,-5.6872,-4.8544,-9.697
-1.0063,-7.5556,-5.89,-1.9231,-7.9085,-3.0769,-6.8277,6.6989,-4.8718,-1.9231,-7.9085,-4.9191,-9.5419,-11.492,-2.7804,-10.641,-10.641,-0.0638,-6.6351,-1.9417,-8.74
-2.8931,-5.6508,-6.8608,0.0,-4.9673,-5.0,-4.8953,5.7327,-4.8718,0.0,-4.9673,-6.8608,-6.6983,-7.6825,-3.7283,-8.7179,-8.7179,2.807,-6.6351,-3.8835,-7.7831
-4.7799,-4.6984,-6.8608,-1.9231,-5.9477,-5.0,-6.8277,4.7665,-2.9487,-1.9231,-5.9477,-6.8608,-3.8547,-2.9206,-2.7804,-5.8333,-8.7179,-0.0638,-4.7393,-3.8835,-2.9984
-2.8931,-6.6032,-4.9191,1.9231,-2.0261,-3.0769,-4.8953,5.7327,-3.9103,1.9231,-2.0261,-3.9482,-3.8547,-3.873,-3.7283,-6.7949,-8.7179,1.8501,-4.7393,-1.9417,-3.9553
-3.8365,-8.5079,-5.89,2.8846,-2.0261,-0.19231,-6.8277,6.6989,-2.9487,2.8846,-2.0261,-2.9773,-1.0111,-3.873,-4.6761,-5.8333,-11.603,3.764,-6.6351,-1.9417,-5.8692
-8.5535,-12.317,-12.686,2.8846,-3.0065,-0.19231,-9.7262,8.6312,-5.8333,2.8846,-3.0065,-3.9482,-2.9068,-5.7778,-10.363,-9.6795,-17.372,4.7209,-7.5829,-3.8835,-2.9984
-9.4969,-14.222,-16.57,0.0,-4.9673,-1.1538,-13.591,9.5974,-6.7949,0.0,-4.9673,-7.8317,-1.0111,-3.873,-9.4155,-8.7179,-17.372,-0.0638,-8.5308,-1.9417,-2.0415
-3.8365,-10.413,-10.744,0.0,-3.9869,-0.19231,-5.8615,5.7327,-9.6795,0.0,-3.9869,-4.9191,2.7804,0.88889,-3.7283,-5.8333,-11.603,-1.9777,-7.5829,3.8835,-2.9984
1.8239,-6.6032,-4.9191,-0.96154,-3.9869,2.6923,-3.9291,4.7665,-4.8718,-0.96154,-3.9869,-2.0065,-1.9589,-2.9206,-1.8325,-5.8333,-8.7179,1.8501,-6.6351,0.97087,-5.8692
6.5409,-0.88889,3.8188,0.0,-0.06536,2.6923,-0.06441,1.868,-1.9872,0.0,-0.06536,2.8479,7.5197,3.746,4.8025,2.8205,2.8205,10.463,-3.7915,8.7379,-0.12759
2.7673,1.0159,5.7605,-1.9231,-1.0458,-2.1154,2.8341,-4.8953,-2.9487,-1.9231,-1.0458,0.90615,4.6761,6.6032,4.8025,5.7051,7.6282,2.807,-4.7393,2.9126,3.7002
-0.06289,2.9206,5.7605,-3.8462,-0.06536,-5.0,2.8341,-8.7601,-1.9872,-3.8462,-0.06536,-1.0356,2.7804,7.5556,1.9589,8.5897,10.513,-4.8485,-1.8957,-7.767,0.82935
3.7107,6.7302,8.6731,-4.8077,-2.0261,-5.0,2.8341,-6.8277,-3.9103,-4.8077,-2.0261,-1.0356,5.624,10.413,3.8547,12.436,14.359,-7.7193,-0.94787,-3.8835,1.7863
2.7673,9.5873,9.644,-4.8077,-3.0065,-5.0,1.868,-3.9291,-1.9872,-4.8077,-3.0065,-2.0065,2.7804,4.6984,4.8025,12.436,12.436,-5.8054,1.8957,0.97087,7.5279
-1.9497,10.54,6.7314,-7.6923,-3.9869,-8.8462,0.90177,-8.7601,-0.0641,-7.6923,-3.9869,-2.9773,-1.9589,-3.873,1.9589,10.513,7.6282,-11.547,5.6872,0.0,10.399
-9.4969,6.7302,-1.0356,-9.6154,-7.9085,-9.8077,-3.9291,-8.7601,-0.0641,-9.6154,-7.9085,-5.89,2.7804,1.8413,-2.7804,8.5897,0.89744,-4.8485,3.7915,0.0,7.5279
-13.27,0.06349,-11.715,-5.7692,-4.9673,-10.769,-3.9291,-4.8953,-1.9872,-5.7692,-4.9673,-9.7735,6.5719,6.6032,-6.5719,2.8205,-7.7564,2.807,0.0,0.0,5.614
-15.157,-4.6984,-16.57,-5.7692,-6.9281,-11.731,-8.7601,-3.9291,0.89744,-5.7692,-6.9281,-13.657,6.5719,6.6032,-7.5197,0.89744,-11.603,0.89314,-0.94787,-1.9417,-2.0415
-2.8931,-3.746,-7.8317,-9.6154,-9.8693,-5.9615,-9.7262,-2.963,-2.9487,-9.6154,-9.8693,-8.8026,5.624,1.8413,0.06319,2.8205,-5.8333,1.8501,-1.8957,3.8835,2.7432
-1.9497,-6.6032,-3.9482,-15.385,-14.771,-8.8462,-10.692,-10.692,-5.8333,-15.385,-14.771,-9.7735,2.7804,0.88889,2.9068,-0.0641,-3.9103,-2.9346,-4.7393,10.68,-1.0845
0.8805,-11.365,-2.9773,-11.538,-9.8693,-8.8462,-9.7262,-11.659,-3.9103,-11.538,-9.8693,-7.8317,3.7283,6.6032,2.9068,-2.9487,-1.9872,-3.8915,-5.6872,8.7379,-7.7831
-0.06289,-12.317,-3.9482,-9.6154,-8.8889,-5.9615,-11.659,-5.8615,-5.8333,-9.6154,-8.8889,-8.8026,4.6761,-0.06349,1.9589,-0.0641,-0.0641,-0.0638,-6.6351,3.8835,0.82935
-1.0063,-12.317,-5.89,-7.6923,-7.9085,-5.9615,-9.7262,-2.963,-5.8333,-7.6923,-7.9085,-9.7735,-5.7504,-7.6825,-0.88468,-0.0641,1.859,1.8501,-6.6351,-1.9417,-1.0845
2.7673,-8.5079,-2.0065,-4.8077,-4.9673,-2.1154,-4.8953,-0.06441,-1.0256,-4.8077,-4.9673,-4.9191,-5.7504,-5.7778,1.9589,-0.0641,6.6667,-0.0638,-2.8436,-2.9126,-1.0845
7.4843,-1.8413,6.7314,0.0,1.8954,2.6923,4.7665,-1.0306,0.89744,0.0,1.8954,3.8188,1.8325,3.746,3.8547,-0.0641,11.474,5.6778,-0.94787,-8.7379,-4.9123
10.314,2.9206,12.557,1.9231,2.8758,8.4615,4.7665,-0.06441,3.7821,1.9231,2.8758,9.644,0.88468,3.746,5.7504,0.89744,12.436,-1.0207,0.94787,-5.8252,-7.7831
8.4277,5.7778,11.586,3.8462,4.8366,9.4231,6.6989,1.868,7.6282,3.8462,4.8366,9.644,-4.8025,-4.8254,4.8025,-2.9487,8.5897,-7.7193,5.6872,-0.97087,-4.9123
9.3711,9.5873,9.644,4.8077,8.7582,8.4615,10.564,-0.06441,11.474,4.8077,8.7582,8.6731,-1.9589,-1.9683,4.8025,-1.0256,5.7051,-0.0638,9.4787,0.0,2.7432
1.8239,11.492,5.7605,6.7308,11.699,6.5385,13.462,0.90177,14.359,6.7308,11.699,8.6731,-1.0111,-1.0159,0.06319,-1.0256,-0.0641,6.6348,13.27,-1.9417,-0.12759
-2.8931,11.492,2.8479,6.7308,11.699,6.5385,14.428,2.8341,14.359,6.7308,11.699,9.644,-9.5419,-12.444,-4.6761,-2.9487,-7.7564,-1.9777,14.218,-0.97087,5.614
0.8805,11.492,3.8188,6.7308,8.7582,10.385,15.395,7.6651,11.474,6.7308,8.7582,11.586,-3.8547,-1.9683,-2.7804,-1.9872,-7.7564,-4.8485,12.322,-1.9417,5.614
4.6541,9.5873,6.7314,7.6923,9.7386,10.385,15.395,5.7327,11.474,7.6923,9.7386,13.528,0.88468,-1.0159,0.06319,-0.0641,-5.8333,0.89314,10.427,2.9126,4.6571
0.8805,2.9206,1.877,2.8846,1.8954,4.6154,8.6312,0.90177,3.7821,2.8846,1.8954,5.7605,-0.06319,2.7937,-2.7804,-2.9487,-5.8333,2.807,2.8436,-4.8544,-3.9553
1.8239,-2.7937,-2.0065,-0.96154,-2.0261,-0.19231,-2.963,-0.06441,-2.9487,-0.96154,-2.0261,-2.0065,-1.0111,3.746,-0.88468,-1.9872,-1.9872,4.7209,0.0,-5.8252,-2.0415
3.7107,-4.6984,-3.9482,-1.9231,-5.9477,-3.0769,-10.692,0.90177,-3.9103,-1.9231,-5.9477,-6.8608,-2.9068,1.8413,2.9068,1.859,1.859,2.807,-1.8957,0.0,-0.12759
5.5975,-0.88889,2.8479,5.7692,0.91503,0.76923,-4.8953,6.6989,-2.9487,5.7692,0.91503,-2.0065,1.8325,5.6508,5.7504,7.6282,8.5897,6.6348,-0.94787,0.97087,5.614
4.6541,4.8254,8.6731,7.6923,5.817,2.6923,-1.0306,5.7327,3.7821,7.6923,5.817,3.8188,1.8325,3.746,6.6983,10.513,12.436,6.6348,3.7915,2.9126,4.6571
0.8805,8.6349,7.7023,9.6154,10.719,2.6923,5.7327,2.8341,7.6282,9.6154,10.719,5.7605,4.6761,3.746,1.9589,10.513,10.513,-0.0638,6.6351,0.0,5.614
-1.0063,11.492,4.7896,13.462,12.68,5.5769,9.5974,8.6312,13.397,13.462,12.68,6.7314,10.363,5.6508,1.9589,14.359,7.6282,1.8501,10.427,6.7961,14.226
-1.9497,6.7302,-0.06472,12.5,12.68,5.5769,9.5974,3.8003,10.513,12.5,12.68,5.7605,0.88468,1.8413,-2.7804,4.7436,-1.9872,-0.0638,7.5829,1.9417,5.614
2.7673,2.9206,-0.06472,7.6923,10.719,5.5769,8.6312,0.90177,9.5513,7.6923,10.719,4.7896,0.88468,3.746,1.0111,-1.9872,-2.9487,-0.0638,3.7915,5.8252,-4.9123
10.314,1.0159,1.877,4.8077,7.7778,4.6154,6.6989,-1.9968,4.7436,4.8077,7.7778,3.8188,0.88468,0.88889,7.6461,-1.9872,-1.9872,5.6778,0.94787,10.68,-2.0415
5.5975,-1.8413,0.90615,1.9231,0.91503,-0.19231,1.868,-3.9291,-0.0641,1.9231,0.91503,0.90615,-0.06319,-1.0159,5.7504,-1.9872,-1.0256,5.6778,-0.94787,6.7961,-2.0415
0.8805,0.06349,2.8479,1.9231,5.817,-1.1538,4.7665,-6.8277,4.7436,1.9231,5.817,1.877,5.624,3.746,4.8025,0.89744,3.7821,-1.9777,2.8436,5.8252,-1.0845
1.8239,0.06349,4.7896,2.8846,5.817,-1.1538,3.8003,-4.8953,1.859,2.8846,5.817,1.877,8.4676,4.6984,8.594,3.7821,8.5897,-1.0207,0.0,9.7087,-2.9984
4.6541,1.0159,4.7896,1.9231,-0.06536,0.76923,-1.0306,0.90177,-3.9103,1.9231,-0.06536,0.90615,4.6761,0.88889,9.5419,5.7051,10.513,3.764,-1.8957,9.7087,-0.12759
