C3,C4,Cz,F1,F2,F3,F4,F7,F8,Fp1,Fp2,Fz,O1,O2,P3,P4,Pz,T3,T4,T5,T6
-2.8931,-2.7937,-7.8317,13.462,13.66,7.5,11.53,7.6651,4.7436,13.462,13.66,12.557,-2.9068,-1.9683,-6.5719,-10.641,-11.603,8.5486,0.0,-0.97087,-9.697
-3.8365,-2.7937,-7.8317,7.6923,7.7778,7.5,8.6312,2.8341,-0.0641,7.6923,7.7778,10.615,0.88468,-1.0159,-5.624,-11.603,-13.526,2.807,-3.7915,-1.9417,-9.697
-1.0063,-6.6032,-7.8317,4.8077,3.8562,5.5769,-0.06441,1.868,-1.9872,4.8077,3.8562,7.7023,-1.9589,-2.9206,-4.6761,-12.564,-14.487,3.764,-5.6872,-0.97087,-7.7831
2.7673,-16.127001,-8.8026,3.8462,0.91503,6.5385,-5.8615,3.8003,-1.9872,3.8462,0.91503,3.8188,-7.6461,-11.492,-2.7804,-16.41,-16.41,4.7209,-5.6872,0.97087,-11.611
7.4843,-10.413,-4.9191,3.8462,2.8758,8.4615,-2.963,10.564,-1.9872,3.8462,2.8758,4.7896,-4.8025,-10.54,2.9068,-13.526,-9.6795,9.5056,-8.5308,6.7961,-14.482
12.201,2.9206,0.90615,5.7692,3.8562,9.4231,-0.06441,12.496,-2.9487,5.7692,3.8562,5.7605,-3.8547,-6.7302,6.6983,-6.7949,-0.0641,10.463,-14.218,8.7379,-6.8262
10.314,-5.6508,0.90615,5.7692,2.8758,6.5385,-1.9968,9.5974,-0.0641,5.7692,2.8758,2.8479,-1.9589,-3.873,6.6983,-6.7949,3.7821,15.247,-2.8436,3.8835,-7.7831
10.314,-7.5556,5.7605,5.7692,4.8366,2.6923,-0.06441,5.7327,1.859,5.7692,4.8366,1.877,1.8325,-3.873,8.594,-1.0256,8.5897,11.419,8.5308,2.9126,-3.9553
7.4843,1.0159,9.644,2.8846,1.8954,-0.19231,-2.963,2.8341,0.89744,2.8846,1.8954,-1.0356,2.7804,-2.9206,8.594,4.7436,11.474,2.807,1.8957,3.8835,2.7432
2.7673,6.7302,9.644,0.0,0.91503,-5.9615,2.8341,-0.06441,-4.8718,0.0,0.91503,-3.9482,3.7283,4.6984,5.7504,4.7436,11.474,1.8501,2.8436,5.8252,2.7432
-7.6101,-1.8413,-1.0356,-4.8077,-3.9869,-14.615,-6.8277,-6.8277,-0.0641,-4.8077,-3.9869,-14.628,2.7804,5.6508,0.06319,3.7821,4.7436,-8.6762,1.8957,2.9126,0.82935
-11.384,-4.6984,-5.89,-5.7692,-4.9673,-16.538,-9.7262,-11.659,2.8205,-5.7692,-4.9673,-18.511,5.624,7.5556,-3.7283,8.5897,2.8205,-9.6332,6.6351,0.0,8.4848
-10.44,10.54,-3.9482,-7.6923,-4.9673,-13.654,-4.8953,-7.7939,0.89744,-7.6923,-4.9673,-15.599,5.624,12.317,-3.7283,11.474,1.859,-6.7624,2.8436,-1.9417,14.226
-7.6101,7.6825,-3.9482,-6.7308,-5.9477,-11.731,-8.7601,-6.8277,-3.9103,-6.7308,-5.9477,-13.657,-0.06319,6.6032,-2.7804,8.5897,-0.0641,-1.0207,-0.94787,0.97087,10.399
-1.9497,-1.8413,-2.9773,-3.8462,-5.9477,-5.9615,-9.7262,-2.963,-3.9103,-3.8462,-5.9477,-10.744,0.88468,0.88889,1.0111,8.5897,0.89744,0.89314,0.94787,3.8835,11.356
0.8805,-8.5079,-2.0065,1.9231,-0.06536,-0.19231,-3.9291,1.868,-1.9872,1.9231,-0.06536,-4.9191,2.7804,0.88889,1.9589,5.7051,0.89744,0.89314,-0.94787,4.8544,6.571
-1.9497,-8.5079,-3.9482,0.96154,-2.0261,0.76923,-1.9968,2.8341,-3.9103,0.96154,-2.0261,-2.0065,0.88468,2.7937,-0.88468,-1.0256,-2.9487,0.89314,-2.8436,0.0,-3.9553
-0.06289,-13.27,-2.9773,0.96154,-3.0065,0.76923,-1.9968,3.8003,-2.9487,0.96154,-3.0065,-0.06472,0.88468,2.7937,-0.88468,-1.9872,-1.9872,3.764,0.0,-1.9417,-2.0415
4.6541,-3.746,3.8188,0.0,-1.0458,6.5385,-0.06441,4.7665,-0.0641,0.0,-1.0458,3.8188,2.7804,2.7937,2.9068,0.89744,3.7821,3.764,-3.7915,0.0,-1.0845
4.6541,1.9683,4.7896,1.9231,2.8758,5.5769,-2.963,7.6651,0.89744,1.9231,2.8758,4.7896,-2.9068,-1.9683,1.9589,-1.0256,4.7436,7.5917,-0.94787,-1.9417,-2.0415
5.5975,2.9206,6.7314,5.7692,3.8562,5.5769,4.7665,8.6312,0.89744,5.7692,3.8562,7.7023,-7.6461,-10.54,1.9589,-3.9103,3.7821,11.419,1.8957,-2.9126,-2.9984
8.4277,16.254,11.586,8.6538,7.7778,9.4231,13.462,7.6651,1.859,8.6538,7.7778,13.528,-4.8025,-7.6825,3.8547,-1.9872,4.7436,5.6778,-1.8957,-0.97087,-3.9553
8.4277,17.205999,13.528,11.538,13.66,13.269,18.292999,10.564,5.7051,11.538,13.66,19.353001,-2.9068,-1.9683,1.9589,-0.0641,3.7821,1.8501,-0.94787,0.0,-2.0415
2.7673,8.6349,8.6731,11.538,12.68,12.308,15.395,9.5974,8.5897,11.538,12.68,18.382,-1.0111,-1.0159,-1.8325,-1.0256,-1.9872,-3.8915,2.8436,0.0,-3.9553
-1.0063,2.9206,1.877,10.577,12.68,8.4615,15.395,2.8341,3.7821,10.577,12.68,16.440001,-4.8025,-5.7778,-6.5719,-2.9487,-6.7949,1.8501,5.6872,-1.9417,-0.12759
1.8239,6.7302,-0.06472,8.6538,10.719,8.4615,10.564,1.868,6.6667,8.6538,10.719,12.557,-1.9589,-1.0159,-2.7804,-0.0641,-4.8718,4.7209,-0.94787,-0.97087,2.7432
2.7673,-2.7937,-4.9191,5.7692,8.7582,3.6538,1.868,3.8003,5.7051,5.7692,8.7582,5.7605,-3.8547,-2.9206,-2.7804,-3.9103,-5.8333,0.89314,2.8436,-3.8835,-2.0415
-1.0063,-11.365,-7.8317,4.8077,4.8366,-2.1154,-4.8953,6.6989,3.7821,4.8077,4.8366,-1.0356,-4.8025,-3.873,-2.7804,-4.8718,-4.8718,0.89314,4.7393,-3.8835,-4.9123
5.5975,-4.6984,0.90615,6.7308,4.8366,0.76923,-0.06441,6.6989,-1.0256,6.7308,4.8366,-0.06472,0.88468,-0.06349,4.8025,-0.0641,2.8205,7.5917,-0.94787,1.9417,-2.9984
8.4277,9.5873,5.7605,4.8077,2.8758,5.5769,2.8341,5.7327,-3.9103,4.8077,2.8758,2.8479,2.7804,-0.06349,7.6461,1.859,6.6667,2.807,-9.4787,5.8252,-5.8692
9.3711,8.6349,7.7023,5.7692,4.8366,6.5385,5.7327,6.6989,-0.0641,5.7692,4.8366,4.7896,3.7283,1.8413,8.594,5.7051,9.5513,4.7209,-5.6872,7.767,-1.0845
5.5975,0.06349,5.7605,3.8462,2.8758,3.6538,-0.06441,7.6651,5.7051,3.8462,2.8758,0.90615,3.7283,-2.9206,9.5419,8.5897,10.513,10.463,0.94787,5.8252,-1.0845
3.7107,1.0159,4.7896,3.8462,5.817,2.6923,4.7665,7.6651,2.8205,3.8462,5.817,0.90615,3.7283,2.7937,7.6461,6.6667,8.5897,9.5056,2.8436,3.8835,0.82935
-0.06289,-6.6032,-1.0356,0.96154,0.91503,-1.1538,-0.06441,3.8003,2.8205,0.96154,0.91503,-2.9773,-0.06319,1.8413,2.9068,0.89744,0.89744,4.7209,3.7915,1.9417,-1.0845
2.7673,-1.8413,-0.06472,-2.8846,-3.0065,-1.1538,-4.8953,0.90177,0.89744,-2.8846,-3.0065,-4.9191,1.8325,2.7937,5.7504,3.7821,2.8205,6.6348,0.0,5.8252,1.7863
3.7107,-4.6984,-2.0065,-7.6923,-8.8889,-5.0,-8.7601,-1.9968,-4.8718,-7.6923,-8.8889,-7.8317,1.8325,1.8413,6.6983,2.8205,1.859,5.6778,-0.94787,6.7961,1.7863
-1.9497,-4.6984,-3.9482,-9.6154,-10.85,-7.8846,-10.692,-4.8953,-8.7179,-9.6154,-10.85,-8.8026,-2.9068,-1.9683,1.0111,-0.0641,-3.9103,1.8501,-2.8436,0.0,0.82935
-1.9497,6.7302,-1.0356,-10.577,-9.8693,-4.0385,-3.9291,-8.7601,-8.7179,-10.577,-9.8693,-4.9191,-1.0111,1.8413,-1.8325,1.859,-4.8718,-5.8054,-8.5308,-1.9417,3.7002
-4.7799,1.0159,-4.9191,-10.577,-10.85,-5.9615,-2.963,-6.8277,-4.8718,-10.577,-10.85,-5.89,-0.06319,-1.0159,-3.7283,0.89744,-6.7949,-5.8054,-3.7915,-2.9126,2.7432
-2.8931,-10.413,-3.9482,-7.6923,-4.9673,-3.0769,-0.06441,-4.8953,0.89744,-7.6923,-4.9673,-2.0065,0.88468,-1.0159,-2.7804,0.89744,-3.9103,1.8501,6.6351,-0.97087,3.7002
4.6541,-0.88889,4.7896,-1.9231,0.91503,5.5769,9.5974,-0.06441,2.8205,-1.9231,0.91503,6.7314,7.5197,5.6508,5.7504,6.6667,4.7436,4.7209,8.5308,5.8252,5.614
4.6541,13.397,11.586,0.96154,4.8366,6.5385,10.564,1.868,3.7821,0.96154,4.8366,10.615,9.4155,10.413,5.7504,12.436,10.513,5.6778,2.8436,3.8835,7.5279
-1.0063,13.397,8.6731,0.0,2.8758,1.7308,5.7327,-1.0306,4.7436,0.0,2.8758,7.7023,3.7283,6.6032,1.0111,8.5897,7.6282,-3.8915,1.8957,0.0,4.6571
0.8805,10.54,6.7314,2.8846,7.7778,3.6538,10.564,-3.9291,5.7051,2.8846,7.7778,7.7023,1.8325,3.746,1.0111,2.8205,3.7821,-7.7193,2.8436,1.9417,5.614
-1.9497,11.492,2.8479,1.9231,5.817,-0.19231,2.8341,-1.9968,5.7051,1.9231,5.817,1.877,-1.0111,-1.9683,0.06319,-1.0256,0.89744,-2.9346,-5.6872,1.9417,1.7863
-6.6667,7.6825,-3.9482,-2.8846,-1.0458,-7.8846,0.90177,-6.8277,0.89744,-2.8846,-1.0458,-5.89,-2.9068,-1.0159,-4.6761,-5.8333,-3.9103,3.764,-2.8436,-2.9126,-0.12759
-14.214,-17.079,-15.599,-9.6154,-6.9281,-15.577,-8.7601,-10.692,2.8205,-9.6154,-6.9281,-16.57,-4.8025,-2.9206,-8.4676,-12.564,-11.603,-1.9777,9.4787,-4.8544,-5.8692
-12.327,-20.889,-17.540001,-6.7308,-2.0261,-13.654,-5.8615,-6.8277,2.8205,-6.7308,-2.0261,-15.599,-4.8025,-5.7778,-7.5197,-10.641,-12.564,-3.8915,8.5308,-1.9417,-4.9123
-8.5535,-14.222,-16.57,-2.8846,-1.0458,-7.8846,-11.659,-3.9291,3.7821,-2.8846,-1.0458,-11.715,-4.8025,-4.8254,-7.5197,-10.641,-14.487,-4.8485,-0.94787,-2.9126,-6.8262
-5.7233,-11.365,-15.599,-2.8846,-2.0261,-5.9615,-9.7262,-1.0306,-0.0641,-2.8846,-2.0261,-8.8026,-7.6461,-7.6825,-6.5719,-10.641,-14.487,-5.8054,-3.7915,-3.8835,-3.9553
-0.06289,-8.5079,-10.744,-2.8846,-4.9673,-3.0769,-5.8615,1.868,-5.8333,-2.8846,-4.9673,-6.8608,-5.7504,-7.6825,-2.7804,-9.6795,-10.641,2.807,-4.7393,0.0,-2.0415
-1.0063,-4.6984,-7.8317,-4.8077,-6.9281,-3.0769,-10.692,1.868,-9.6795,-4.8077,-6.9281,-6.8608,-3.8547,-2.9206,-2.7804,-4.8718,-7.7564,3.764,-8.5308,-1.9417,-2.0415
0.8805,15.302,1.877,-1.9231,-4.9673,-0.19231,-1.9968,2.8341,-11.603,-1.9231,-4.9673,-2.0065,0.88468,-1.0159,1.0111,3.7821,-0.0641,4.7209,-14.218,-0.97087,4.6571
5.5975,7.6825,7.7023,1.9231,-1.0458,5.5769,0.90177,3.8003,-4.8718,1.9231,-1.0458,6.7314,5.624,1.8413,7.6461,5.7051,7.6282,6.6348,0.0,4.8544,4.6571
8.4277,-0.88889,14.498,2.8846,2.8758,10.385,5.7327,0.90177,-0.0641,2.8846,2.8758,13.528,3.7283,1.8413,7.6461,3.7821,10.513,2.807,10.427,3.8835,4.6571
10.314,10.54,21.294001,0.0,-0.06536,15.192,9.5974,1.868,-2.9487,0.0,-0.06536,16.440001,1.8325,2.7937,8.594,6.6667,11.474,-1.9777,2.8436,2.9126,1.7863
10.314,8.6349,16.440001,-0.96154,-3.0065,11.346,5.7327,4.7665,-7.7564,-0.96154,-3.0065,12.557,1.8325,3.746,8.594,5.7051,10.513,3.764,-3.7915,2.9126,-0.12759
12.201,4.8254,12.557,-3.8462,-6.9281,8.4615,-1.0306,4.7665,-9.6795,-3.8462,-6.9281,8.6731,7.5197,6.6032,13.333,7.6282,13.397,9.5056,-10.427,11.65,-0.12759
14.088,5.7778,12.557,-0.96154,-3.0065,10.385,1.868,4.7665,-8.7179,-0.96154,-3.0065,10.615,13.207,8.5079,14.281,10.513,14.359,8.5486,-11.374,14.563,3.7002
12.201,8.6349,11.586,0.0,-3.0065,11.346,2.8341,2.8341,-7.7564,0.0,-3.0065,10.615,10.363,8.5079,11.438,9.5513,12.436,5.6778,-9.4787,7.767,2.7432
9.3711,1.9683,8.6731,-1.9231,-3.0065,7.5,1.868,-1.0306,-7.7564,-1.9231,-3.0065,6.7314,5.624,3.746,7.6461,6.6667,9.5513,2.807,-0.94787,2.9126,7.5279
0.8805,-5.6508,2.8479,-3.8462,-3.9869,1.7308,-4.8953,-1.9968,-6.7949,-3.8462,-3.9869,1.877,3.7283,3.746,1.9589,3.7821,4.7436,-0.0638,1.8957,0.0,3.7002
3.7107,2.9206,6.7314,0.96154,0.91503,6.5385,-0.06441,-0.06441,-4.8718,0.96154,0.91503,6.7314,4.6761,8.5079,1.0111,5.7051,3.7821,1.8501,-2.8436,1.9417,2.7432
-3.8365,1.0159,2.8479,-1.9231,-2.0261,1.7308,1.868,-1.9968,-6.7949,-1.9231,-2.0261,1.877,2.7804,5.6508,-4.6761,2.8205,-1.9872,-3.8915,-3.7915,-0.97087,0.82935
-5.7233,0.06349,-0.06472,-3.8462,-3.9869,-5.0,-5.8615,-5.8615,-6.7949,-3.8462,-3.9869,-4.9191,1.8325,1.8413,-4.6761,0.89744,-1.0256,-5.8054,-4.7393,-0.97087,0.82935
0.8805,2.9206,2.8479,-4.8077,-5.9477,-5.9615,-9.7262,-1.9968,-5.8333,-4.8077,-5.9477,-7.8317,5.624,1.8413,2.9068,6.6667,5.7051,-1.0207,-6.6351,0.97087,2.7432
-1.9497,-13.27,-4.9191,-5.7692,-6.9281,-7.8846,-15.523,-1.9968,-7.7564,-5.7692,-6.9281,-13.657,4.6761,5.6508,1.9589,2.8205,3.7821,-1.0207,-7.5829,-0.97087,-1.0845
-1.0063,-1.8413,-4.9191,-3.8462,-5.9477,-4.0385,-11.659,-1.0306,-7.7564,-3.8462,-5.9477,-9.7735,1.8325,4.6984,1.9589,1.859,2.8205,1.8501,-14.218,0.97087,-3.9553
-2.8931,-11.365,-6.8608,-2.8846,-3.9869,-1.1538,-7.7939,0.90177,-4.8718,-2.8846,-3.9869,-4.9191,-0.06319,-1.9683,-0.88468,-1.0256,-3.9103,-1.9777,-9.4787,1.9417,-5.8692
-4.7799,-18.032,-11.715,-3.8462,-3.9869,1.7308,-8.7601,-1.9968,-5.8333,-3.8462,-3.9869,-2.9773,1.8325,0.88889,-3.7283,-5.8333,-11.603,-2.9346,-8.5308,2.9126,-8.74
-1.9497,-13.27,-9.7735,0.96154,-1.0458,6.5385,-4.8953,0.90177,0.89744,0.96154,-1.0458,1.877,0.88468,2.7937,-2.7804,-3.9103,-9.6795,-0.0638,-3.7915,0.97087,-3.9553
2.7673,-5.6508,-3.9482,3.8462,1.8954,8.4615,3.8003,6.6989,-0.0641,3.8462,1.8954,6.7314,-6.6983,-4.8254,-1.8325,-4.8718,-6.7949,2.807,-4.7393,-4.8544,-3.9553
8.4277,-0.88889,2.8479,2.8846,1.8954,8.4615,6.6989,6.6989,0.89744,2.8846,1.8954,7.7023,-3.8547,-4.8254,2.9068,-4.8718,-2.9487,6.6348,0.0,-0.97087,-4.9123
5.5975,-2.7937,3.8188,1.9231,2.8758,4.6154,3.8003,0.90177,5.7051,1.9231,2.8758,5.7605,-0.06319,-1.0159,1.0111,-5.8333,-1.9872,-0.0638,3.7915,-0.97087,-3.9553
1.8239,13.397,7.7023,0.96154,2.8758,0.76923,8.6312,-4.8953,9.5513,0.96154,2.8758,4.7896,0.88468,1.8413,1.0111,1.859,3.7821,-4.8485,4.7393,0.0,-1.0845
-3.8365,19.111,6.7314,0.0,5.817,-6.9231,17.327,-8.7601,11.474,0.0,5.817,2.8479,1.8325,5.6508,-2.7804,3.7821,3.7821,-7.7193,9.4787,-2.9126,4.6571
-11.384,6.7302,0.90615,-0.96154,7.7778,-12.692,9.5974,-10.692,18.205,-0.96154,7.7778,-2.9773,2.7804,3.746,-7.5197,3.7821,1.859,-19.202999,14.218,-6.7961,6.571
-11.384,8.6349,0.90615,0.96154,11.699,-11.731,12.496,-8.7601,20.128,0.96154,11.699,-2.9773,3.7283,-0.06349,-6.5719,3.7821,3.7821,-12.504,16.114,-4.8544,9.4418
-13.27,1.0159,-2.9773,0.0,7.7778,-7.8846,9.5974,-7.7939,18.205,0.0,7.7778,-3.9482,-1.9589,-0.06349,-10.363,-1.9872,-2.9487,-9.6332,15.166,-7.767,6.571
-13.27,0.06349,-7.8317,1.9231,6.7974,-5.9615,10.564,-3.9291,9.5513,1.9231,6.7974,-2.0065,-5.7504,-2.9206,-15.103,-6.7949,-10.641,-8.6762,12.322,-8.7379,4.6571
-9.4969,1.0159,-7.8317,0.96154,4.8366,-1.1538,2.8341,-0.06441,10.513,0.96154,4.8366,-0.06472,-5.7504,-5.7778,-13.207,-6.7949,-12.564,-5.8054,2.8436,-7.767,-3.9553
-1.0063,1.0159,-1.0356,1.9231,3.8562,3.6538,2.8341,-1.0306,8.5897,1.9231,3.8562,3.8188,5.624,3.746,-6.5719,-1.9872,-5.8333,-3.8915,3.7915,-1.9417,-4.9123
5.5975,-1.8413,1.877,0.96154,-2.0261,2.6923,-0.06441,-1.0306,-0.0641,0.96154,-2.0261,1.877,-0.06319,-0.06349,-0.88468,-4.8718,-2.9487,-0.0638,-1.8957,0.0,-3.9553
-0.06289,-14.222,-4.9191,-3.8462,-6.9281,-5.9615,-9.7262,-4.8953,-8.7179,-3.8462,-6.9281,-8.8026,-10.49,-10.54,-1.8325,-8.7179,-4.8718,0.89314,-5.6872,-2.9126,-5.8692
-1.0063,-6.6032,-4.9191,-5.7692,-8.8889,-9.8077,-8.7601,-6.8277,-10.641,-5.7692,-8.8889,-9.7735,-5.7504,-7.6825,1.0111,-2.9487,0.89744,-5.8054,-6.6351,-0.97087,-1.0845
-1.0063,-5.6508,-2.9773,-6.7308,-9.8693,-8.8462,-11.659,-5.8615,-9.6795,-6.7308,-9.8693,-8.8026,-3.8547,-3.873,2.9068,-1.9872,3.7821,0.89314,-3.7915,0.0,0.82935
-0.06289,-9.4603,-2.0065,-6.7308,-8.8889,-6.9231,-9.7262,-4.8953,-9.6795,-6.7308,-8.8889,-5.89,-1.0111,-3.873,2.9068,-1.0256,2.8205,6.6348,-0.94787,1.9417,-1.0845
-1.9497,-5.6508,-2.9773,-7.6923,-10.85,-5.9615,-9.7262,-5.8615,-12.564,-7.6923,-10.85,-7.8317,3.7283,-0.06349,2.9068,-0.0641,0.89744,1.8501,-5.6872,2.9126,-2.9984
-3.8365,-4.6984,-7.8317,-5.7692,-7.9085,-5.0,-9.7262,-4.8953,-7.7564,-5.7692,-7.9085,-7.8317,6.5719,4.6984,0.06319,-3.9103,-3.9103,2.807,-2.8436,2.9126,-1.0845
-8.5535,-2.7937,-12.686,-3.8462,-5.9477,-4.0385,-9.7262,-1.0306,-0.0641,-3.8462,-5.9477,-7.8317,0.88468,0.88889,-4.6761,-7.7564,-10.641,-1.0207,0.94787,0.97087,-2.9984
-10.44,1.0159,-17.540001,-2.8846,-1.0458,-7.8846,-6.8277,-1.9968,-0.0641,-2.8846,-1.0458,-8.8026,-5.7504,-7.6825,-7.5197,-10.641,-14.487,-4.8485,-11.374,0.97087,-4.9123
-9.4969,-18.983999,-24.337,-3.8462,-2.0261,-9.8077,-10.692,-3.9291,-0.0641,-3.8462,-2.0261,-12.686,-6.6983,-8.6349,-6.5719,-16.41,-18.333,-3.8915,-5.6872,1.9417,-11.611
-7.6101,-20.889,-19.482,0.96154,1.8954,-5.0,-4.8953,-4.8953,0.89744,0.96154,1.8954,-6.8608,-1.0111,-2.9206,-7.5197,-14.487,-17.372,-0.0638,3.7915,-1.9417,-9.697
-3.8365,-11.365,-11.715,1.9231,3.8562,1.7308,-2.963,-1.9968,6.6667,1.9231,3.8562,-1.0356,2.7804,2.7937,-5.624,-7.7564,-11.603,-3.8915,0.0,-1.9417,-3.9553
-0.06289,-3.746,-2.9773,3.8462,2.8758,0.76923,-0.06441,0.90177,2.8205,3.8462,2.8758,-0.06472,-1.9589,-3.873,-3.7283,-3.9103,-5.8333,-3.8915,2.8436,-2.9126,-1.0845
-1.0063,8.6349,2.8479,2.8846,-0.06536,-2.1154,0.90177,0.90177,0.89744,2.8846,-0.06536,-1.0356,-5.7504,-7.6825,-3.7283,0.89744,-1.9872,-4.8485,0.0,-4.8544,-0.12759
-4.7799,1.0159,-0.06472,0.0,-1.0458,-6.9231,-1.9968,-1.9968,3.7821,0.0,-1.0458,-3.9482,-2.9068,-1.0159,-3.7283,0.89744,-0.0641,-2.9346,3.7915,-2.9126,1.7863
-8.5535,0.06349,-3.9482,-3.8462,-3.0065,-9.8077,-3.9291,-5.8615,2.8205,-3.8462,-3.0065,-7.8317,0.88468,1.8413,-4.6761,-0.0641,-1.9872,-2.9346,4.7393,-1.9417,-0.12759
-6.6667,3.873,-2.9773,-2.8846,-1.0458,-7.8846,-1.0306,-5.8615,2.8205,-2.8846,-1.0458,-5.89,-1.9589,-1.0159,-3.7283,0.89744,-0.0641,0.89314,2.8436,-3.8835,3.7002
-7.6101,-2.7937,-1.0356,-2.8846,-2.0261,-7.8846,-1.9968,-4.8953,3.7821,-2.8846,-2.0261,-5.89,-1.9589,-1.0159,-3.7283,3.7821,1.859,-1.9777,7.5829,-4.8544,6.571
-2.8931,1.9683,1.877,-2.8846,-1.0458,-7.8846,0.90177,-3.9291,4.7436,-2.8846,-1.0458,-3.9482,6.5719,7.5556,1.0111,11.474,7.6282,-6.7624,5.6872,0.97087,12.313
-2.8931,-0.88889,-2.9773,-4.8077,-1.0458,-5.0,-0.06441,-5.8615,1.859,-4.8077,-1.0458,-4.9191,4.6761,8.5079,-0.88468,7.6282,5.7051,-1.9777,5.6872,-1.9417,6.571
-2.8931,1.0159,-3.9482,-1.9231,-0.06536,-3.0769,5.7327,0.90177,-0.0641,-1.9231,-0.06536,-2.9773,0.88468,4.6984,-0.88468,4.7436,2.8205,3.764,5.6872,-1.9417,4.6571
2.7673,8.6349,-0.06472,3.8462,4.8366,2.6923,8.6312,6.6989,4.7436,3.8462,4.8366,3.8188,-1.0111,-2.9206,1.9589,4.7436,1.859,6.6348,6.6351,2.9126,7.5279
1.8239,1.9683,-2.0065,2.8846,2.8758,2.6923,-1.0306,5.7327,6.6667,2.8846,2.8758,1.877,-1.9589,-5.7778,1.0111,-1.0256,-1.9872,-1.0207,5.6872,1.9417,-0.12759
-0.06289,1.9683,-2.9773,-0.96154,1.8954,-0.19231,-1.0306,-0.06441,4.7436,-0.96154,1.8954,0.90615,-3.8547,-4.8254,-2.7804,-5.8333,-6.7949,-0.0638,8.5308,-1.9417,-0.12759
-1.0063,-5.6508,-4.9191,-2.8846,-2.0261,-0.19231,-2.963,-0.06441,3.7821,-2.8846,-2.0261,-1.0356,-6.6983,-3.873,-4.6761,-8.7179,-9.6795,0.89314,8.5308,-2.9126,-1.0845
-1.0063,-2.7937,-2.0065,-1.9231,-3.0065,-1.1538,-1.9968,-1.0306,0.89744,-1.9231,-3.0065,-2.0065,-3.8547,-2.9206,-2.7804,-4.8718,-5.8333,-1.9777,3.7915,0.0,-1.0845
-3.8365,1.0159,-0.06472,-4.8077,-3.9869,-1.1538,-0.06441,-3.9291,1.859,-4.8077,-3.9869,-2.9773,0.88468,-1.0159,-1.8325,-2.9487,-2.9487,-0.0638,2.8436,1.9417,1.7863
-0.06289,13.397,5.7605,-0.96154,-0.06536,-1.1538,6.6989,-1.0306,-0.0641,-0.96154,-0.06536,-0.06472,-0.06319,0.88889,0.06319,-0.0641,1.859,-0.0638,1.8957,2.9126,3.7002
0.8805,9.5873,6.7314,0.0,-3.9869,-2.1154,-1.0306,1.868,-1.9872,0.0,-3.9869,-2.0065,-1.0111,-2.9206,1.0111,4.7436,4.7436,-1.9777,-2.8436,-0.97087,4.6571
3.7107,-5.6508,3.8188,0.0,-3.9869,1.7308,-4.8953,1.868,-2.9487,0.0,-3.9869,-1.0356,0.88468,0.88889,2.9068,-0.0641,3.7821,0.89314,6.6351,0.97087,0.82935
2.7673,-5.6508,4.7896,0.96154,-3.0065,4.6154,-3.9291,1.868,-0.0641,0.96154,-3.0065,1.877,4.6761,5.6508,1.9589,-0.0641,3.7821,-0.0638,8.5308,0.97087,0.82935
2.7673,1.0159,6.7314,0.96154,-0.06536,4.6154,-1.0306,5.7327,2.8205,0.96154,-0.06536,3.8188,3.7283,6.6032,2.9068,4.7436,5.7051,0.89314,7.5829,1.9417,5.614
7.4843,11.492,8.6731,0.96154,-1.0458,5.5769,2.8341,3.8003,-0.0641,0.96154,-1.0458,3.8188,4.6761,8.5079,5.7504,7.6282,6.6667,3.764,0.0,3.8835,7.5279
5.5975,8.6349,7.7023,-0.96154,-3.9869,1.7308,0.90177,1.868,-1.0256,-0.96154,-3.9869,0.90615,2.7804,4.6984,3.8547,7.6282,5.7051,2.807,0.0,0.97087,5.614
10.314,3.873,8.6731,-0.96154,-3.0065,6.5385,0.90177,0.90177,-1.9872,-0.96154,-3.0065,2.8479,4.6761,6.6032,7.6461,8.5897,6.6667,4.7209,2.8436,3.8835,5.614
7.4843,13.397,9.644,0.0,-2.0261,5.5769,4.7665,5.7327,-2.9487,0.0,-2.0261,4.7896,3.7283,5.6508,7.6461,9.5513,5.7051,8.5486,-3.7915,2.9126,6.571
0.8805,3.873,2.8479,-2.8846,-3.0065,0.76923,-1.0306,2.8341,-4.8718,-2.8846,-3.0065,0.90615,-1.0111,-0.06349,1.0111,5.7051,-1.0256,2.807,0.0,0.0,2.7432
-2.8931,-7.5556,-3.9482,-4.8077,-3.9869,-2.1154,-4.8953,-1.9968,-1.9872,-4.8077,-3.9869,-3.9482,0.88468,0.88889,-2.7804,2.8205,-3.9103,-4.8485,5.6872,-1.9417,3.7002
-5.7233,-9.4603,-9.7735,-4.8077,-3.0065,-7.8846,-7.7939,-4.8953,-1.0256,-4.8077,-3.0065,-7.8317,-0.06319,-1.9683,-3.7283,0.89744,-4.8718,-5.8054,3.7915,-0.97087,5.614
-4.7799,-5.6508,-10.744,-3.8462,-3.0065,-6.9231,-6.8277,-2.963,2.8205,-3.8462,-3.0065,-7.8317,-3.8547,-2.9206,-2.7804,-5.8333,-6.7949,-2.9346,1.8957,-1.9417,-4.9123
4.6541,3.873,-1.0356,3.8462,1.8954,2.6923,1.868,2.8341,0.89744,3.8462,1.8954,-0.06472,-1.0111,-1.9683,2.9068,-3.9103,-1.9872,4.7209,-5.6872,1.9417,-6.8262
3.7107,-1.8413,-0.06472,3.8462,0.91503,4.6154,1.868,5.7327,-1.0256,3.8462,0.91503,0.90615,0.88468,-2.9206,3.8547,-3.9103,-0.0641,2.807,-3.7915,2.9126,-6.8262
8.4277,6.7302,5.7605,3.8462,3.8562,7.5,8.6312,4.7665,-1.0256,3.8462,3.8562,5.7605,3.7283,1.8413,9.5419,1.859,7.6282,8.5486,-5.6872,5.8252,-2.9984
11.258,7.6825,9.644,2.8846,3.8562,10.385,5.7327,4.7665,2.8205,2.8846,3.8562,7.7023,13.207,12.317,16.177,9.5513,16.282,9.5056,0.94787,12.621,2.7432
13.145,-2.7937,11.586,6.7308,5.817,9.4231,4.7665,5.7327,2.8205,6.7308,5.817,10.615,10.363,5.6508,15.229,7.6282,16.282,5.6778,6.6351,11.65,3.7002
11.258,5.7778,13.528,6.7308,3.8562,9.4231,3.8003,4.7665,0.89744,6.7308,3.8562,10.615,5.624,0.88889,13.333,5.7051,14.359,9.5056,0.0,10.68,-0.12759
2.7673,3.873,7.7023,3.8462,1.8954,0.76923,1.868,0.90177,-2.9487,3.8462,1.8954,4.7896,0.88468,0.88889,6.6983,2.8205,9.5513,3.764,-2.8436,4.8544,-1.0845
-2.8931,10.54,4.7896,0.0,-0.06536,-5.0,2.8341,-3.9291,-1.0256,0.0,-0.06536,0.90615,-0.06319,-1.9683,1.0111,4.7436,7.6282,-6.7624,-0.94787,0.0,3.7002
-3.8365,3.873,2.8479,-4.8077,-1.0458,-3.0769,2.8341,-7.7939,-0.0641,-4.8077,-1.0458,0.90615,0.88468,-2.9206,-0.88468,5.7051,5.7051,-5.8054,3.7915,0.0,6.571
-6.6667,1.9683,-0.06472,-5.7692,-3.0065,-5.0,2.8341,-7.7939,-3.9103,-5.7692,-3.0065,-1.0356,-1.0111,-0.06349,-4.6761,2.8205,-0.0641,-9.6332,-2.8436,-3.8835,7.5279
-9.4969,1.0159,-3.9482,-4.8077,-5.9477,-8.8462,-1.9968,-6.8277,-5.8333,-4.8077,-5.9477,-5.89,1.8325,8.5079,-5.624,2.8205,-1.0256,-5.8054,-6.6351,-0.97087,3.7002
-6.6667,-12.317,-6.8608,-5.7692,-6.9281,-10.769,-5.8615,-8.7601,-5.8333,-5.7692,-6.9281,-8.8026,5.624,9.4603,-2.7804,3.7821,-0.0641,0.89314,0.94787,1.9417,0.82935
0.8805,-5.6508,-1.0356,-5.7692,-5.9477,-6.9231,-7.7939,-7.7939,-5.8333,-5.7692,-5.9477,-5.89,7.5197,9.4603,1.9589,6.6667,3.7821,-0.0638,-3.7915,0.97087,1.7863
5.5975,2.9206,4.7896,-2.8846,-4.9673,-2.1154,-0.06441,-2.963,-9.6795,-2.8846,-4.9673,-0.06472,11.311,9.4603,3.8547,6.6667,7.6282,-0.0638,-6.6351,2.9126,3.7002
6.5409,17.205999,9.644,-2.8846,-4.9673,4.6154,2.8341,-0.06441,-6.7949,-2.8846,-4.9673,5.7605,5.624,5.6508,4.8025,8.5897,8.5897,-0.0638,-5.6872,1.9417,6.571
5.5975,10.54,8.6731,0.96154,-0.06536,5.5769,3.8003,-0.06441,-0.0641,0.96154,-0.06536,5.7605,-0.06319,3.746,1.9589,8.5897,6.6667,-2.9346,0.0,-0.97087,9.4418
0.8805,-1.8413,2.8479,0.0,-2.0261,-1.1538,-1.9968,0.90177,2.8205,0.0,-2.0261,-2.0065,-0.06319,-0.06349,1.0111,2.8205,2.8205,-1.0207,1.8957,0.97087,0.82935
2.7673,5.7778,4.7896,0.96154,0.91503,-3.0769,2.8341,0.90177,-0.0641,0.96154,0.91503,-2.9773,-0.06319,-0.06349,2.9068,1.859,3.7821,7.5917,1.8957,3.8835,-2.9984
-1.0063,-1.8413,0.90615,0.0,1.8954,-3.0769,-3.9291,1.868,4.7436,0.0,1.8954,-3.9482,-3.8547,-5.7778,1.0111,-1.0256,-1.0256,6.6348,4.7393,0.97087,-3.9553
-3.8365,-4.6984,-3.9482,1.9231,5.817,-2.1154,0.90177,3.8003,6.6667,1.9231,5.817,-2.0065,-5.7504,-8.6349,-4.6761,-3.9103,-7.7564,6.6348,4.7393,-2.9126,-1.0845
-4.7799,1.0159,-6.8608,2.8846,3.8562,2.6923,0.90177,4.7665,1.859,2.8846,3.8562,-0.06472,-8.594,-8.6349,-6.5719,-3.9103,-11.603,-1.9777,-5.6872,-3.8835,2.7432
-2.8931,-3.746,-7.8317,4.8077,1.8954,2.6923,-1.0306,4.7665,-2.9487,4.8077,1.8954,-0.06472,-6.6983,-4.8254,-5.624,-8.7179,-12.564,0.89314,-7.5829,0.97087,-2.9984
-1.9497,-1.8413,-6.8608,3.8462,-0.06536,1.7308,-2.963,2.8341,-6.7949,3.8462,-0.06536,-1.0356,-4.8025,-1.9683,-4.6761,-9.6795,-11.603,3.764,-7.5829,-3.8835,-10.654
0.8805,-3.746,-4.9191,6.7308,1.8954,5.5769,-2.963,4.7665,-7.7564,6.7308,1.8954,2.8479,-4.8025,-2.9206,-3.7283,-9.6795,-8.7179,-1.0207,-7.5829,-5.8252,-7.7831
-0.06289,-9.4603,-3.9482,6.7308,0.91503,7.5,-1.9968,7.6651,-6.7949,6.7308,0.91503,6.7314,-5.7504,-7.6825,-2.7804,-11.603,-6.7949,2.807,-5.6872,-3.8835,-8.74
4.6541,-2.7937,3.8188,7.6923,3.8562,12.308,3.8003,4.7665,-3.9103,7.6923,3.8562,12.557,-1.9589,-4.8254,1.9589,-7.7564,-1.9872,4.7209,-2.8436,2.9126,-2.9984
6.5409,-2.7937,8.6731,7.6923,5.817,13.269,3.8003,2.8341,1.859,7.6923,5.817,15.469,-1.9589,-4.8254,1.9589,-6.7949,-1.0256,-2.9346,0.94787,0.0,-2.0415
7.4843,-1.8413,10.615,10.577,7.7778,14.231,6.6989,4.7665,3.7821,10.577,7.7778,17.410999,-3.8547,-7.6825,1.0111,-7.7564,-1.0256,-3.8915,-0.94787,-2.9126,-8.74
7.4843,1.9683,7.7023,7.6923,9.7386,11.346,8.6312,5.7327,2.8205,7.6923,9.7386,13.528,-2.9068,-2.9206,2.9068,-6.7949,0.89744,-3.8915,-5.6872,0.97087,-10.654
10.314,8.6349,9.644,4.8077,7.7778,6.5385,7.6651,4.7665,3.7821,4.8077,7.7778,8.6731,4.6761,4.6984,9.5419,2.8205,9.5513,7.5917,-4.7393,4.8544,-3.9553
12.201,23.872999,15.469,4.8077,8.7582,4.6154,12.496,3.8003,2.8205,4.8077,8.7582,7.7023,5.624,4.6984,12.385,8.5897,14.359,14.29,-5.6872,5.8252,5.614
7.4843,4.8254,10.615,-0.96154,0.91503,0.76923,5.7327,1.868,2.8205,-0.96154,0.91503,1.877,0.88468,0.88889,8.594,2.8205,7.6282,-0.0638,3.7915,3.8835,0.82935
2.7673,-3.746,4.7896,-0.96154,-0.06536,-0.19231,-0.06441,0.90177,1.859,-0.96154,-0.06536,-1.0356,-1.0111,-1.9683,4.8025,-0.0641,2.8205,2.807,2.8436,4.8544,-0.12759
-0.06289,-9.4603,-2.0065,-1.9231,-1.0458,0.76923,-5.8615,-1.0306,3.7821,-1.9231,-1.0458,-2.0065,3.7283,2.7937,3.8547,-0.0641,1.859,1.8501,0.0,3.8835,-1.0845
-6.6667,-13.27,-6.8608,-2.8846,-0.06536,-4.0385,-4.8953,-6.8277,-0.0641,-2.8846,-0.06536,-4.9191,-1.0111,-0.06349,-2.7804,-4.8718,-2.9487,-1.0207,-0.94787,-1.9417,-2.9984
-7.6101,-5.6508,-6.8608,-4.8077,-3.0065,-8.8462,-4.8953,-6.8277,-1.0256,-4.8077,-3.0065,-6.8608,-5.7504,-2.9206,-5.624,-6.7949,-6.7949,-4.8485,-6.6351,-5.8252,-4.9123
-7.6101,-4.6984,-6.8608,-6.7308,-2.0261,-10.769,-4.8953,-7.7939,-1.9872,-6.7308,-2.0261,-8.8026,-5.7504,-1.9683,-7.5197,-7.7564,-7.7564,-1.9777,-4.7393,-5.8252,-6.8262
-10.44,4.8254,-5.89,-7.6923,-5.9477,-13.654,-3.9291,-4.8953,-2.9487,-7.6923,-5.9477,-9.7735,-4.8025,-3.873,-8.4676,-4.8718,-4.8718,-3.8915,-6.6351,-5.8252,-1.0845
-1.9497,9.5873,1.877,-0.96154,-0.06536,-4.0385,7.6651,-0.06441,-1.9872,-0.96154,-0.06536,-1.0356,2.7804,0.88889,-0.88468,1.859,2.8205,-1.9777,-0.94787,0.0,4.6571
1.8239,3.873,4.7896,0.0,-1.0458,2.6923,1.868,-1.0306,1.859,0.0,-1.0458,2.8479,3.7283,1.8413,1.9589,2.8205,4.7436,-7.7193,0.94787,0.97087,0.82935
4.6541,-6.6032,0.90615,-0.96154,-1.0458,2.6923,-4.8953,-1.0306,3.7821,-0.96154,-1.0458,0.90615,-0.06319,-1.9683,4.8025,0.89744,3.7821,-0.0638,6.6351,2.9126,-2.0415
5.5975,-5.6508,-2.0065,-0.96154,-1.0458,0.76923,-5.8615,-1.0306,1.859,-0.96154,-1.0458,-2.0065,1.8325,0.88889,5.7504,0.89744,4.7436,3.764,0.0,2.9126,-2.0415
7.4843,-5.6508,-2.0065,0.96154,0.91503,2.6923,-3.9291,2.8341,3.7821,0.96154,0.91503,-1.0356,3.7283,0.88889,7.6461,-1.0256,5.7051,4.7209,0.94787,5.8252,-2.9984
10.314,-8.5079,-0.06472,5.7692,5.817,4.6154,0.90177,9.5974,6.6667,5.7692,5.817,3.8188,2.7804,-1.0159,10.49,-2.9487,4.7436,2.807,7.5829,6.7961,-2.0415
13.145,17.205999,11.586,6.7308,2.8758,12.308,7.6651,9.5974,0.89744,6.7308,2.8758,12.557,1.8325,3.746,9.5419,3.7821,7.6282,2.807,0.0,4.8544,3.7002
3.7107,6.7302,7.7023,6.7308,7.7778,10.385,10.564,4.7665,7.6282,6.7308,7.7778,12.557,-1.0111,1.8413,1.0111,3.7821,1.859,5.6778,7.5829,-1.9417,1.7863
-3.8365,5.7778,2.8479,13.462,16.601,9.4231,22.158001,6.6989,14.359,13.462,16.601,15.469,-1.9589,3.746,-5.624,1.859,-3.9103,0.89314,10.427,-7.767,1.7863
-6.6667,9.5873,0.90615,16.346001,21.503,9.4231,21.191999,6.6989,18.205,16.346001,21.503,15.469,-3.8547,2.7937,-10.363,0.89744,-6.7949,-1.9777,6.6351,-8.7379,3.7002
-3.8365,7.6825,2.8479,14.423,20.523001,7.5,13.462,6.6989,19.167,14.423,20.523001,11.586,0.88468,4.6984,-6.5719,5.7051,-1.9872,-6.7624,7.5829,-7.767,8.4848
2.7673,7.6825,7.7023,10.577,13.66,5.5769,9.5974,2.8341,7.6282,10.577,13.66,8.6731,2.7804,2.7937,0.06319,10.513,5.7051,-2.9346,5.6872,-3.8835,10.399
2.7673,0.06349,3.8188,2.8846,-0.06536,-0.19231,-3.9291,0.90177,-3.9103,2.8846,-0.06536,-0.06472,-0.06319,-1.0159,3.8547,4.7436,5.7051,1.8501,-0.94787,-1.9417,0.82935
4.6541,-5.6508,-1.0356,1.9231,-2.0261,-1.1538,-9.7262,2.8341,-8.7179,1.9231,-2.0261,-4.9191,-0.06319,-1.0159,4.8025,2.8205,4.7436,4.7209,-9.4787,1.9417,-2.0415
6.5409,1.0159,0.90615,-0.96154,-6.9281,2.6923,-12.625,1.868,-10.641,-0.96154,-6.9281,-3.9482,7.5197,8.5079,9.5419,8.5897,9.5513,5.6778,-13.27,6.7961,-1.0845
9.3711,-6.6032,2.8479,1.9231,-4.9673,2.6923,-10.692,0.90177,-11.603,1.9231,-4.9673,-3.9482,12.259,13.27,13.333,10.513,14.359,7.5917,-10.427,11.65,-1.0845
5.5975,-13.27,0.90615,0.0,-4.9673,0.76923,-10.692,-0.06441,-9.6795,0.0,-4.9673,-6.8608,6.5719,4.6984,9.5419,7.6282,11.474,3.764,-9.4787,9.7087,-1.0845
-2.8931,-14.222,-4.9191,-2.8846,-3.0065,-5.0,-7.7939,-1.0306,-1.9872,-2.8846,-3.0065,-9.7735,0.88468,-0.06349,1.0111,2.8205,1.859,-6.7624,-3.7915,1.9417,-0.12759
-6.6667,-10.413,-7.8317,-2.8846,-1.0458,-7.8846,-3.9291,-3.9291,4.7436,-2.8846,-1.0458,-9.7735,0.88468,0.88889,-2.7804,1.859,-2.9487,-4.8485,3.7915,-1.9417,2.7432
-6.6667,1.0159,-4.9191,-2.8846,-0.06536,-9.8077,-1.9968,-8.7601,6.6667,-2.8846,-0.06536,-7.8317,3.7283,10.413,-1.8325,5.7051,-0.0641,-3.8915,2.8436,-1.9417,2.7432
-6.6667,0.06349,-2.0065,-2.8846,0.91503,-8.8462,-0.06441,-7.7939,7.6282,-2.8846,0.91503,-6.8608,4.6761,8.5079,-1.8325,5.7051,-0.0641,-5.8054,6.6351,-2.9126,4.6571
-4.7799,15.302,2.8479,-1.9231,1.8954,-5.9615,4.7665,-5.8615,7.6282,-1.9231,1.8954,-2.0065,0.88468,1.8413,-2.7804,3.7821,-1.9872,-3.8915,2.8436,-1.9417,5.614
-4.7799,2.9206,-1.0356,-2.8846,5.817,-3.0769,4.7665,-6.8277,7.6282,-2.8846,5.817,-0.06472,0.88468,2.7937,-5.624,-1.9872,-5.8333,-2.9346,7.5829,-2.9126,2.7432
-2.8931,-1.8413,-2.0065,0.96154,6.7974,1.7308,6.6989,-1.9968,11.474,0.96154,6.7974,2.8479,-0.06319,1.8413,-5.624,-3.9103,-4.8718,-3.8915,7.5829,-2.9126,-1.0845
-0.06289,4.8254,2.8479,5.7692,6.7974,3.6538,12.496,0.90177,8.5897,5.7692,6.7974,7.7023,-1.0111,-2.9206,-3.7283,-1.9872,-1.0256,-1.0207,6.6351,-3.8835,-0.12759
-1.0063,7.6825,3.8188,4.8077,6.7974,4.6154,13.462,-0.06441,6.6667,4.8077,6.7974,8.6731,0.88468,-1.0159,-2.7804,2.8205,2.8205,-3.8915,8.5308,-5.8252,3.7002
1.8239,10.54,4.7896,4.8077,8.7582,4.6154,13.462,0.90177,7.6282,4.8077,8.7582,9.644,4.6761,7.5556,-0.88468,7.6282,6.6667,-1.9777,7.5829,-1.9417,8.4848
-1.9497,1.9683,-0.06472,1.9231,3.8562,1.7308,0.90177,0.90177,6.6667,1.9231,3.8562,3.8188,6.5719,9.4603,-0.88468,4.7436,3.7821,-4.8485,3.7915,-1.9417,1.7863
-3.8365,6.7302,-1.0356,1.9231,0.91503,1.7308,-1.9968,-1.0306,-0.0641,1.9231,0.91503,1.877,-1.0111,-1.0159,-4.6761,-0.0641,-1.0256,-2.9346,-2.8436,-4.8544,-1.0845
-3.8365,1.9683,-2.0065,2.8846,-0.06536,1.7308,-3.9291,1.868,-1.9872,2.8846,-0.06536,0.90615,-1.9589,-1.9683,-3.7283,1.859,-2.9487,-0.0638,-5.6872,-1.9417,2.7432
-2.8931,-14.222,-8.8026,1.9231,2.8758,0.76923,-3.9291,0.90177,1.859,1.9231,2.8758,-0.06472,-1.9589,-1.0159,-4.6761,-4.8718,-10.641,-2.9346,2.8436,0.0,-2.0415
-7.6101,-13.27,-12.686,0.96154,2.8758,-3.0769,-3.9291,-1.0306,5.7051,0.96154,2.8758,-2.9773,-6.6983,-3.873,-9.4155,-12.564,-19.295,-2.9346,6.6351,-3.8835,-3.9553
-5.7233,-6.6032,-11.715,0.96154,4.8366,-2.1154,-0.06441,0.90177,6.6667,0.96154,4.8366,-2.9773,-6.6983,-6.7302,-7.5197,-8.7179,-16.41,1.8501,2.8436,-1.9417,-2.0415
-6.6667,-5.6508,-11.715,-0.96154,-0.06536,-2.1154,0.90177,-1.9968,2.8205,-0.96154,-0.06536,-5.89,-8.594,-7.6825,-8.4676,-8.7179,-14.487,-0.0638,1.8957,-3.8835,-1.0845
-7.6101,-5.6508,-9.7735,-2.8846,-2.0261,-4.0385,0.90177,-2.963,-0.0641,-2.8846,-2.0261,-7.8317,-10.49,-9.5873,-8.4676,-9.6795,-13.526,-1.9777,2.8436,-6.7961,-1.0845
-5.7233,9.5873,-2.9773,-4.8077,-0.06536,-7.8846,1.868,-1.0306,3.7821,-4.8077,-0.06536,-7.8317,-5.7504,-4.8254,-4.6761,-1.9872,-5.8333,-1.9777,-2.8436,-3.8835,1.7863
-8.5535,1.9683,-4.9191,-7.6923,-4.9673,-13.654,-7.7939,-3.9291,3.7821,-7.6923,-4.9673,-14.628,-3.8547,-0.06349,-2.7804,-0.0641,-1.9872,-0.0638,2.8436,-1.9417,2.7432
-10.44,-15.175,-8.8026,-8.6538,-6.9281,-17.5,-11.659,-6.8277,0.89744,-8.6538,-6.9281,-19.482,-3.8547,-3.873,-3.7283,-1.0256,-2.9487,-1.9777,10.427,-0.97087,2.7432
-12.327,-14.222,-10.744,-11.538,-10.85,-18.462,-16.49,-7.7939,-6.7949,-11.538,-10.85,-19.482,-3.8547,-3.873,-6.5719,-1.9872,-5.8333,-1.9777,-2.8436,-3.8835,3.7002
-11.384,-10.413,-12.686,-9.6154,-10.85,-14.615,-18.422001,-5.8615,-13.526,-9.6154,-10.85,-16.57,-3.8547,-1.9683,-7.5197,-6.7949,-9.6795,-2.9346,-9.4787,-3.8835,-3.9553
-14.214,-15.175,-15.599,-7.6923,-12.81,-9.8077,-21.32,-4.8953,-10.641,-7.6923,-12.81,-13.657,-1.0111,-2.9206,-10.363,-6.7949,-12.564,-3.8915,-5.6872,-3.8835,-10.654
-10.44,-5.6508,-8.8026,-0.96154,-5.9477,-2.1154,-6.8277,0.90177,-7.7564,-0.96154,-5.9477,-2.9773,0.88468,-0.06349,-10.363,-2.9487,-11.603,-0.0638,-6.6351,-3.8835,-2.0415
-1.9497,9.5873,-0.06472,1.9231,-2.0261,5.5769,9.5974,2.8341,-1.9872,1.9231,-2.0261,7.7023,-0.06319,3.746,-4.6761,-1.0256,-8.7179,-1.0207,-1.8957,-2.9126,0.82935
4.6541,11.492,3.8188,4.8077,4.8366,9.4231,15.395,0.90177,3.7821,4.8077,4.8366,12.557,-0.06319,2.7937,-0.88468,-0.0641,-4.8718,0.89314,3.7915,-1.9417,-0.12759
4.6541,-2.7937,-1.0356,1.9231,4.8366,5.5769,6.6989,-0.06441,9.5513,1.9231,4.8366,6.7314,4.6761,0.88889,1.0111,0.89744,-1.0256,-1.0207,9.4787,-2.9126,1.7863
0.8805,-9.4603,-4.9191,-1.9231,1.8954,-4.0385,0.90177,-3.9291,6.6667,-1.9231,1.8954,-2.9773,3.7283,-0.06349,1.9589,1.859,1.859,-2.9346,8.5308,-1.9417,0.82935
0.8805,-0.88889,-2.0065,-3.8462,-2.0261,-5.0,-0.06441,-6.8277,1.859,-3.8462,-2.0261,-6.8608,3.7283,1.8413,4.8025,1.859,6.6667,-7.7193,0.94787,2.9126,-3.9553
3.7107,8.6349,5.7605,-3.8462,-0.06536,-4.0385,-1.0306,-1.9968,1.859,-3.8462,-0.06536,-3.9482,6.5719,4.6984,9.5419,9.5513,13.397,1.8501,-2.8436,8.7379,4.6571
3.7107,7.6825,7.7023,-3.8462,-0.06536,-3.0769,-1.9968,-0.06441,0.89744,-3.8462,-0.06536,-2.0065,10.363,9.4603,10.49,12.436,16.282,6.6348,3.7915,10.68,12.313
1.8239,1.9683,3.8188,-2.8846,-1.0458,-3.0769,-1.9968,-3.9291,-1.0256,-2.8846,-1.0458,-3.9482,8.4676,8.5079,6.6983,8.5897,12.436,3.764,10.427,7.767,5.614
0.8805,2.9206,0.90615,-1.9231,-3.0065,-5.0,-1.9968,-1.9968,-5.8333,-1.9231,-3.0065,-5.89,0.88468,1.8413,2.9068,4.7436,5.7051,-1.0207,2.8436,1.9417,5.614
3.7107,5.7778,1.877,0.0,-3.9869,-0.19231,-3.9291,2.8341,-7.7564,0.0,-3.9869,-1.0356,-1.9589,0.88889,2.9068,0.89744,2.8205,6.6348,-2.8436,0.97087,1.7863
6.5409,1.0159,4.7896,2.8846,-2.0261,5.5769,2.8341,5.7327,-9.6795,2.8846,-2.0261,4.7896,-4.8025,-5.7778,2.9068,-1.0256,-0.0641,10.463,-2.8436,1.9417,-2.0415
4.6541,-5.6508,3.8188,3.8462,-3.0065,6.5385,-0.06441,4.7665,-5.8333,3.8462,-3.0065,4.7896,-2.9068,-2.9206,1.0111,-1.9872,-1.9872,2.807,-2.8436,1.9417,-2.9984
0.8805,-4.6984,1.877,3.8462,-1.0458,3.6538,-3.9291,4.7665,-2.9487,3.8462,-1.0458,2.8479,-1.9589,0.88889,-0.88468,-2.9487,-2.9487,1.8501,-4.7393,0.97087,-4.9123
-3.8365,-2.7937,-0.06472,0.0,-0.06536,0.76923,-2.963,3.8003,-3.9103,0.0,-0.06536,0.90615,-5.7504,-5.7778,-4.6761,-3.9103,-4.8718,0.89314,-5.6872,-0.97087,-3.9553
-1.9497,-0.88889,2.8479,0.96154,1.8954,1.7308,4.7665,3.8003,-4.8718,0.96154,1.8954,4.7896,-3.8547,-5.7778,-1.8325,-3.9103,-2.9487,2.807,-4.7393,0.97087,-1.0845
-1.9497,-3.746,1.877,-0.96154,-2.0261,2.6923,2.8341,0.90177,-3.9103,-0.96154,-2.0261,4.7896,-0.06319,-1.0159,0.06319,-1.0256,0.89744,-1.0207,-2.8436,-0.97087,-0.12759
-1.9497,-2.7937,-0.06472,1.9231,-1.0458,-1.1538,0.90177,0.90177,-1.0256,1.9231,-1.0458,2.8479,0.88468,-0.06349,0.06319,1.859,1.859,0.89314,0.94787,-1.9417,-0.12759
-0.06289,6.7302,1.877,4.8077,1.8954,1.7308,4.7665,4.7665,1.859,4.8077,1.8954,4.7896,3.7283,2.7937,1.9589,3.7821,2.8205,0.89314,0.0,0.0,-0.12759
4.6541,5.7778,5.7605,7.6923,5.817,7.5,10.564,4.7665,6.6667,7.6923,5.817,9.644,1.8325,5.6508,1.9589,2.8205,1.859,-2.9346,1.8957,-1.9417,2.7432
5.5975,-0.88889,5.7605,6.7308,7.7778,9.4231,9.5974,5.7327,11.474,6.7308,7.7778,9.644,-1.0111,2.7937,1.9589,0.89744,-0.0641,-0.0638,6.6351,-2.9126,1.7863
7.4843,7.6825,6.7314,6.7308,13.66,8.4615,11.53,4.7665,13.397,6.7308,13.66,10.615,0.88468,2.7937,1.9589,2.8205,-0.0641,4.7209,2.8436,-0.97087,3.7002
0.8805,12.444,-0.06472,4.8077,10.719,4.6154,11.53,3.8003,8.5897,4.8077,10.719,5.7605,-3.8547,-1.9683,-2.7804,-1.0256,-7.7564,1.8501,-1.8957,-1.9417,0.82935
-1.9497,-7.5556,-8.8026,2.8846,4.8366,-0.19231,-1.0306,-0.06441,3.7821,2.8846,4.8366,-2.0065,-5.7504,-2.9206,-6.5719,-8.7179,-13.526,-1.9777,7.5829,0.0,-4.9123
-3.8365,-16.127001,-10.744,0.0,-3.0065,-2.1154,-12.625,-1.0306,-1.0256,0.0,-3.0065,-7.8317,-6.6983,-6.7302,-6.5719,-12.564,-15.449,-1.9777,2.8436,-0.97087,-7.7831
-1.9497,-1.8413,-6.8608,1.9231,-3.9869,0.76923,-6.8277,0.90177,-5.8333,1.9231,-3.9869,-3.9482,-10.49,-14.349,-6.5719,-13.526,-14.487,4.7209,-8.5308,-1.9417,-8.74
-4.7799,-18.032,-12.686,-3.8462,-8.8889,-5.0,-12.625,0.90177,-8.7179,-3.8462,-8.8889,-9.7735,-13.333,-15.302,-8.4676,-20.256001,-16.41,1.8501,-3.7915,-1.9417,-15.439
-1.9497,-18.032,-9.7735,-4.8077,-8.8889,-4.0385,-13.591,2.8341,-5.8333,-4.8077,-8.8889,-9.7735,-9.5419,-12.444,-4.6761,-16.41,-11.603,-0.0638,-1.8957,0.97087,-7.7831
1.8239,-5.6508,-2.9773,-7.6923,-7.9085,-2.1154,-6.8277,-1.9968,-7.7564,-7.6923,-7.9085,-6.8608,-3.8547,-11.492,1.9589,-10.641,-4.8718,5.6778,-10.427,5.8252,-6.8262
-0.06289,-2.7937,-1.0356,-6.7308,-8.8889,-5.9615,-6.8277,-2.963,-6.7949,-6.7308,-8.8889,-5.89,1.8325,-2.9206,2.9068,-5.8333,-1.0256,0.89314,-5.6872,5.8252,-3.9553
0.8805,5.7778,2.8479,-3.8462,-6.9281,-4.0385,-2.963,-2.963,-6.7949,-3.8462,-6.9281,-2.0065,3.7283,1.8413,2.9068,-0.0641,2.8205,-0.0638,-1.8957,1.9417,0.82935
6.5409,14.349,9.644,-2.8846,-6.9281,2.6923,1.868,0.90177,-5.8333,-2.8846,-6.9281,3.8188,5.624,2.7937,8.594,9.5513,9.5513,6.6348,-6.6351,5.8252,3.7002
10.314,10.54,14.498,0.0,-3.0065,4.6154,7.6651,1.868,-7.7564,0.0,-3.0065,6.7314,11.311,6.6032,12.385,13.397,14.359,7.5917,-4.7393,8.7379,7.5279
12.201,5.7778,16.440001,0.96154,-2.0261,7.5,4.7665,1.868,-4.8718,0.96154,-2.0261,8.6731,5.624,5.6508,13.333,9.5513,13.397,2.807,1.8957,9.7087,6.571
14.088,8.6349,17.410999,4.8077,1.8954,12.308,9.5974,5.7327,1.859,4.8077,1.8954,13.528,0.88468,7.5556,11.438,9.5513,12.436,6.6348,3.7915,7.767,7.5279
13.145,19.111,16.440001,5.7692,6.7974,15.192,13.462,7.6651,5.7051,5.7692,6.7974,18.382,5.624,6.6032,11.438,11.474,12.436,7.5917,0.0,6.7961,8.4848
9.3711,13.397,10.615,9.6154,10.719,13.269,14.428,4.7665,6.6667,9.6154,10.719,16.440001,3.7283,3.746,7.6461,9.5513,10.513,4.7209,3.7915,5.8252,6.571
8.4277,8.6349,8.6731,8.6538,9.7386,10.385,6.6989,2.8341,6.6667,8.6538,9.7386,10.615,3.7283,2.7937,6.6983,6.6667,8.5897,3.764,4.7393,2.9126,2.7432
5.5975,4.8254,8.6731,7.6923,5.817,4.6154,2.8341,1.868,0.89744,7.6923,5.817,5.7605,-1.0111,-5.7778,4.8025,8.5897,7.6282,-2.9346,0.94787,0.0,6.571
4.6541,7.6825,7.7023,6.7308,2.8758,4.6154,1.868,4.7665,-1.9872,6.7308,2.8758,3.8188,3.7283,4.6984,3.8547,8.5897,7.6282,-2.9346,-4.7393,0.0,4.6571
-0.06289,3.873,2.8479,5.7692,3.8562,4.6154,1.868,5.7327,-0.0641,5.7692,3.8562,3.8188,5.624,8.5079,1.0111,-0.0641,3.7821,2.807,-7.5829,0.97087,-6.8262
-1.9497,-3.746,-1.0356,4.8077,1.8954,3.6538,-4.8953,2.8341,-0.0641,4.8077,1.8954,2.8479,0.88468,1.8413,-2.7804,-4.8718,-1.9872,-0.0638,-2.8436,0.0,-5.8692
-0.06289,-3.746,-1.0356,4.8077,2.8758,1.7308,3.8003,2.8341,0.89744,4.8077,2.8758,2.8479,0.88468,0.88889,-2.7804,-2.9487,-4.8718,-1.0207,0.94787,-2.9126,-1.0845
-0.06289,-6.6032,-3.9482,2.8846,-0.06536,-1.1538,3.8003,1.868,1.859,2.8846,-0.06536,-0.06472,-1.0111,-1.9683,-3.7283,-2.9487,-5.8333,-0.0638,3.7915,-0.97087,-2.0415
-1.0063,1.9683,-3.9482,-1.9231,-3.9869,-4.0385,-0.06441,-0.06441,0.89744,-1.9231,-3.9869,-2.9773,-1.9589,-0.06349,-2.7804,-1.0256,-2.9487,0.89314,0.0,-3.8835,-2.9984
-1.0063,6.7302,-1.0356,-3.8462,-3.0065,-5.0,0.90177,-3.9291,-0.0641,-3.8462,-3.0065,-3.9482,-0.06319,-1.0159,-0.88468,-0.0641,-0.0641,3.764,0.0,-0.97087,-0.12759
-4.7799,2.9206,-1.0356,-7.6923,-6.9281,-7.8846,-3.9291,-6.8277,0.89744,-7.6923,-6.9281,-6.8608,0.88468,-0.06349,-4.6761,0.89744,-1.9872,-1.9777,2.8436,-2.9126,3.7002
-3.8365,4.8254,1.877,-9.6154,-6.9281,-10.769,-4.8953,-6.8277,-2.9487,-9.6154,-6.9281,-8.8026,-1.9589,-0.06349,-3.7283,-0.0641,-1.9872,-3.8915,3.7915,-2.9126,4.6571
-4.7799,0.06349,-2.0065,-13.462,-11.83,-13.654,-9.7262,-7.7939,-3.9103,-13.462,-11.83,-12.686,-2.9068,-2.9206,-0.88468,0.89744,-1.0256,-8.6762,2.8436,1.9417,4.6571
-3.8365,-2.7937,-3.9482,-10.577,-8.8889,-10.769,-1.9968,-9.7262,-3.9103,-10.577,-8.8889,-8.8026,-0.06319,-1.0159,0.06319,-1.9872,-1.9872,-2.9346,2.8436,0.97087,4.6571
-1.9497,-2.7937,-2.0065,-6.7308,-6.9281,-6.9231,-4.8953,-7.7939,-0.0641,-6.7308,-6.9281,-3.9482,0.88468,0.88889,1.0111,-4.8718,-1.0256,-2.9346,4.7393,0.97087,-1.0845
6.5409,11.492,9.644,0.0,-0.06536,3.6538,1.868,-0.06441,-0.0641,0.0,-0.06536,6.7314,1.8325,0.88889,4.8025,-0.0641,5.7051,2.807,-0.94787,2.9126,-2.0415
8.4277,3.873,12.557,4.8077,2.8758,11.346,5.7327,6.6989,0.89744,4.8077,2.8758,11.586,2.7804,-1.0159,5.7504,1.859,6.6667,6.6348,0.0,1.9417,0.82935
8.4277,-2.7937,9.644,11.538,8.7582,16.153999,7.6651,11.53,5.7051,11.538,8.7582,16.440001,-1.0111,-2.9206,2.9068,-1.9872,3.7821,3.764,3.7915,1.9417,2.7432
4.6541,0.06349,3.8188,12.5,10.719,15.192,7.6651,12.496,6.6667,12.5,10.719,15.469,-3.8547,-5.7778,-1.8325,-7.7564,-1.9872,2.807,1.8957,-1.9417,-6.8262
3.7107,-2.7937,-0.06472,10.577,9.7386,11.346,7.6651,10.564,5.7051,10.577,9.7386,11.586,-6.6983,-8.6349,-2.7804,-8.7179,-3.9103,3.764,1.8957,-0.97087,-8.74
4.6541,5.7778,2.8479,7.6923,5.817,10.385,6.6989,9.5974,3.7821,7.6923,5.817,8.6731,-5.7504,-5.7778,-1.8325,-4.8718,-2.9487,0.89314,-3.7915,-2.9126,-5.8692
5.5975,8.6349,4.7896,8.6538,8.7582,7.5,8.6312,8.6312,7.6282,8.6538,8.7582,8.6731,-1.0111,-1.0159,0.06319,-4.8718,-1.0256,2.807,2.8436,-1.9417,-3.9553
2.7673,17.205999,5.7605,7.6923,9.7386,3.6538,12.496,6.6989,4.7436,7.6923,9.7386,7.7023,-1.0111,-1.0159,1.0111,-2.9487,0.89744,5.6778,-5.6872,-0.97087,-6.8262
0.8805,7.6825,1.877,2.8846,5.817,0.76923,0.90177,1.868,3.7821,2.8846,5.817,1.877,-1.0111,-2.9206,1.9589,-0.0641,-0.0641,1.8501,-4.7393,0.97087,-4.9123
-1.0063,-13.27,-3.9482,2.8846,2.8758,-4.0385,-8.7601,2.8341,3.7821,2.8846,2.8758,-3.9482,-1.0111,-2.9206,1.0111,-1.9872,-3.9103,4.7209,2.8436,3.8835,-3.9553
-3.8365,-14.222,-6.8608,0.96154,-3.0065,-6.9231,-13.591,1.868,-2.9487,0.96154,-3.0065,-9.7735,-1.0111,-0.06349,-1.8325,-4.8718,-7.7564,6.6348,-2.8436,2.9126,-6.8262
-5.7233,-6.6032,-6.8608,-1.9231,-4.9673,-8.8462,-12.625,-1.0306,-7.7564,-1.9231,-4.9673,-12.686,0.88468,3.746,-5.624,-2.9487,-7.7564,-1.9777,-9.4787,0.0,-4.9123
-8.5535,-8.5079,-9.7735,-5.7692,-7.9085,-8.8462,-13.591,-5.8615,-8.7179,-5.7692,-7.9085,-16.57,-4.8025,-1.0159,-9.4155,-3.9103,-10.641,-7.7193,-8.5308,-4.8544,-4.9123
-11.384,-12.317,-11.715,-5.7692,-5.9477,-12.692,-12.625,-5.8615,-3.9103,-5.7692,-5.9477,-16.57,-6.6983,-1.0159,-13.207,-3.9103,-10.641,-3.8915,-0.94787,-8.7379,3.7002
-9.4969,5.7778,-5.89,-7.6923,-3.9869,-9.8077,-2.963,-4.8953,-1.9872,-7.6923,-3.9869,-11.715,-2.9068,-1.9683,-8.4676,1.859,-2.9487,-1.0207,-6.6351,-4.8544,5.614
-7.6101,-1.8413,-5.89,-9.6154,-4.9673,-8.8462,-2.963,-10.692,-1.0256,-9.6154,-4.9673,-10.744,-1.0111,-2.9206,-5.624,-1.0256,-0.0641,-3.8915,-0.94787,0.0,1.7863
-5.7233,-15.175,-4.9191,-11.538,-7.9085,-7.8846,-6.8277,-8.7601,3.7821,-11.538,-7.9085,-9.7735,0.88468,2.7937,-2.7804,-1.0256,2.8205,-10.59,13.27,-2.9126,0.82935
0.8805,-5.6508,3.8188,-8.6538,-3.9869,-3.0769,-5.8615,-9.7262,2.8205,-8.6538,-3.9869,-2.9773,4.6761,1.8413,3.8547,4.7436,8.5897,-4.8485,10.427,0.0,5.614
3.7107,7.6825,8.6731,-9.6154,-5.9477,-2.1154,-0.06441,-9.7262,-1.9872,-9.6154,-5.9477,1.877,6.5719,6.6032,6.6983,9.5513,10.513,-3.8915,3.7915,0.97087,8.4848
9.3711,10.54,12.557,-4.8077,-2.0261,4.6154,7.6651,-1.9968,-1.0256,-4.8077,-2.0261,7.7023,8.4676,7.5556,9.5419,12.436,12.436,-1.9777,3.7915,7.767,13.27
12.201,17.205999,14.498,0.96154,2.8758,11.346,11.53,2.8341,1.859,0.96154,2.8758,12.557,10.363,9.4603,13.333,13.397,14.359,4.7209,2.8436,11.65,12.313
13.145,20.063,16.440001,0.96154,5.817,13.269,16.361,0.90177,4.7436,0.96154,5.817,15.469,9.4155,12.317,14.281,14.359,15.321,6.6348,7.5829,5.8252,11.356
6.5409,13.397,6.7314,2.8846,2.8758,7.5,8.6312,2.8341,1.859,2.8846,2.8758,9.644,3.7283,5.6508,5.7504,7.6282,6.6667,5.6778,0.94787,-0.97087,5.614
1.8239,-3.746,-2.0065,7.6923,2.8758,3.6538,3.8003,9.5974,-3.9103,7.6923,2.8758,5.7605,-3.8547,-4.8254,-1.8325,-3.9103,-4.8718,5.6778,2.8436,-2.9126,-2.0415
2.7673,-4.6984,-1.0356,0.96154,-1.0458,3.6538,-0.06441,6.6989,-5.8333,0.96154,-1.0458,3.8188,-10.49,-9.5873,-1.8325,-10.641,-8.7179,1.8501,1.8957,-2.9126,-4.9123
-0.06289,-5.6508,-2.9773,-7.6923,-3.0065,-1.1538,-3.9291,1.868,-1.9872,-7.6923,-3.0065,-1.0356,-7.6461,-11.492,-0.88468,-7.7564,-7.7564,-3.8915,-0.94787,-0.97087,-2.9984
-0.06289,-3.746,-2.9773,-7.6923,-3.0065,-3.0769,-2.963,-1.9968,-5.8333,-7.6923,-3.0065,-2.9773,1.8325,-5.7778,3.8547,-1.9872,-1.0256,-0.0638,-6.6351,3.8835,-2.9984
-2.8931,-12.317,-4.9191,-4.8077,-5.9477,-5.0,-7.7939,-2.963,-6.7949,-4.8077,-5.9477,-6.8608,2.7804,0.88889,3.8547,-1.9872,0.89744,2.807,-3.7915,2.9126,-3.9553
-1.9497,-9.4603,-1.0356,-2.8846,-3.9869,-4.0385,-2.963,-2.963,-6.7949,-2.8846,-3.9869,-2.9773,-0.06319,1.8413,1.9589,-1.0256,2.8205,2.807,-1.8957,0.0,-1.0845
-1.0063,8.6349,3.8188,-7.6923,-5.9477,-1.1538,-2.963,-3.9291,-3.9103,-7.6923,-5.9477,-1.0356,1.8325,-1.0159,3.8547,5.7051,6.6667,-0.0638,-5.6872,4.8544,2.7432
-7.6101,-3.746,-2.9773,-8.6538,-6.9281,-5.0,-3.9291,-4.8953,-1.9872,-8.6538,-6.9281,-4.9191,-0.06319,0.88889,-3.7283,2.8205,1.859,-1.0207,0.94787,0.0,3.7002
-6.6667,-3.746,-2.0065,-9.6154,-6.9281,-4.0385,-1.0306,-2.963,-2.9487,-9.6154,-6.9281,-5.89,4.6761,8.5079,-2.7804,5.7051,2.8205,-1.0207,3.7915,-0.97087,3.7002
0.8805,6.7302,1.877,-5.7692,-4.9673,-1.1538,-2.963,-0.06441,-3.9103,-5.7692,-4.9673,-2.9773,9.4155,12.317,1.0111,10.513,4.7436,1.8501,-1.8957,3.8835,6.571
-6.6667,0.06349,-5.89,-9.6154,-10.85,-5.9615,-12.625,-1.0306,-5.8333,-9.6154,-10.85,-9.7735,-4.8025,-4.8254,-5.624,1.859,-4.8718,-10.59,-3.7915,-0.97087,3.7002
-5.7233,-12.317,-10.744,-7.6923,-8.8889,-5.0,-10.692,-2.963,-5.8333,-7.6923,-8.8889,-9.7735,-4.8025,-5.7778,-5.624,-3.9103,-9.6795,-2.9346,1.8957,-1.9417,0.82935
-2.8931,-5.6508,-7.8317,-4.8077,-7.9085,-3.0769,-4.8953,0.90177,-3.9103,-4.8077,-7.9085,-5.89,-1.0111,0.88889,-3.7283,-1.9872,-5.8333,2.807,0.94787,-3.8835,-0.12759
-3.8365,1.0159,-5.89,-2.8846,-3.9869,-2.1154,-5.8615,-1.0306,-3.9103,-2.8846,-3.9869,-3.9482,3.7283,8.5079,-3.7283,2.8205,-3.9103,-1.0207,-0.94787,-6.7961,0.82935
-3.8365,-3.746,-5.89,-2.8846,-4.9673,-1.1538,-6.8277,-1.9968,-2.9487,-2.8846,-4.9673,-2.9773,5.624,9.4603,-4.6761,4.7436,-3.9103,-1.9777,-0.94787,-5.8252,-0.12759
-4.7799,-9.4603,-8.8026,-1.9231,-3.9869,-1.1538,-1.0306,0.90177,-6.7949,-1.9231,-3.9869,-2.0065,-1.0111,-0.06349,-7.5197,-1.0256,-7.7564,-3.8915,0.0,-3.8835,-2.9984
1.8239,2.9206,-2.9773,2.8846,-1.0458,0.76923,-0.06441,3.8003,-5.8333,2.8846,-1.0458,0.90615,0.88468,-2.9206,-1.8325,2.8205,-3.9103,-1.0207,-6.6351,0.0,4.6571
6.5409,-5.6508,-2.0065,2.8846,-3.0065,3.6538,-8.7601,2.8341,-1.0256,2.8846,-3.0065,-1.0356,-4.8025,-4.8254,0.06319,-3.9103,-2.9487,-1.0207,0.0,-2.9126,-1.0845
8.4277,-11.365,2.8479,1.9231,-1.0458,5.5769,-5.8615,2.8341,-1.9872,1.9231,-1.0458,0.90615,-8.594,-7.6825,1.9589,-4.8718,-1.0256,0.89314,1.8957,-3.8835,-4.9123
9.3711,1.0159,11.586,0.0,-1.0458,7.5,-1.0306,3.8003,-2.9487,0.0,-1.0458,4.7896,-0.06319,0.88889,6.6983,1.859,6.6667,8.5486,-4.7393,0.97087,-2.0415
4.6541,-5.6508,6.7314,-2.8846,-3.9869,0.76923,-3.9291,0.90177,-5.8333,-2.8846,-3.9869,-0.06472,7.5197,4.6984,7.6461,0.89744,7.6282,8.5486,-1.8957,7.767,-3.9553
1.8239,3.873,0.90615,-0.96154,-5.9477,-0.19231,-2.963,2.8341,-5.8333,-0.96154,-5.9477,-2.0065,13.207,9.4603,7.6461,2.8205,5.7051,2.807,-6.6351,11.65,-4.9123
-1.0063,3.873,-5.89,3.8462,-1.0458,-0.19231,-0.06441,3.8003,-3.9103,3.8462,-1.0458,-2.9773,6.5719,3.746,1.9589,1.859,-1.0256,4.7209,-3.7915,6.7961,-2.9984
-6.6667,-3.746,-9.7735,1.9231,-0.06536,-3.0769,-5.8615,2.8341,-1.9872,1.9231,-0.06536,-4.9191,-1.9589,-0.06349,-5.624,-1.9872,-7.7564,0.89314,-5.6872,-1.9417,-3.9553
-4.7799,-2.7937,-5.89,1.9231,0.91503,-1.1538,-1.0306,3.8003,-4.8718,1.9231,0.91503,-1.0356,-3.8547,-2.9206,-5.624,-2.9487,-8.7179,0.89314,-4.7393,-1.9417,-1.0845
-5.7233,-3.746,-8.8026,-2.8846,-3.9869,-0.19231,-7.7939,-0.06441,-4.8718,-2.8846,-3.9869,-2.9773,-6.6983,-7.6825,-7.5197,-6.7949,-13.526,0.89314,-4.7393,-0.97087,-4.9123
-7.6101,-10.413,-13.657,-2.8846,-4.9673,-5.0,-11.659,-2.963,-5.8333,-2.8846,-4.9673,-6.8608,-6.6983,-6.7302,-10.363,-9.6795,-15.449,-1.9777,-2.8436,-3.8835,-5.8692
-4.7799,-12.317,-13.657,-1.9231,-6.9281,-5.9615,-5.8615,-0.06441,-4.8718,-1.9231,-6.9281,-7.8317,-3.8547,-2.9206,-5.624,-5.8333,-10.641,-1.9777,-0.94787,-3.8835,-2.9984
-5.7233,-10.413,-9.7735,-2.8846,-2.0261,-6.9231,-0.06441,-1.0306,-0.0641,-2.8846,-2.0261,-5.89,-4.8025,-3.873,-5.624,-4.8718,-5.8333,1.8501,0.94787,-3.8835,-2.0415
-1.0063,11.492,2.8479,0.0,3.8562,0.76923,9.5974,-1.0306,0.89744,0.0,3.8562,1.877,-9.5419,-5.7778,-2.7804,-4.8718,-1.0256,1.8501,-3.7915,-3.8835,-1.0845
1.8239,2.9206,7.7023,2.8846,5.817,2.6923,7.6651,1.868,3.7821,2.8846,5.817,4.7896,-7.6461,-2.9206,-0.88468,-3.9103,3.7821,0.89314,3.7915,-3.8835,-1.0845
3.7107,-2.7937,10.615,4.8077,4.8366,4.6154,6.6989,1.868,2.8205,4.8077,4.8366,5.7605,-1.0111,-0.06349,0.06319,-2.9487,4.7436,-1.9777,6.6351,-1.9417,-1.0845
4.6541,1.0159,10.615,2.8846,3.8562,5.5769,2.8341,0.90177,0.89744,2.8846,3.8562,4.7896,-2.9068,-2.9206,-0.88468,-2.9487,3.7821,-1.0207,1.8957,-3.8835,-0.12759
-1.0063,-1.8413,1.877,2.8846,2.8758,-1.1538,-1.0306,2.8341,3.7821,2.8846,2.8758,0.90615,-5.7504,-5.7778,-5.624,-5.8333,-1.0256,-2.9346,0.94787,-7.767,-4.9123
-6.6667,-1.8413,-4.9191,3.8462,2.8758,-5.0,0.90177,2.8341,6.6667,3.8462,2.8758,-1.0356,-2.9068,-4.8254,-7.5197,-2.9487,-4.8718,-3.8915,0.94787,-4.8544,-1.0845
-10.44,7.6825,-6.8608,4.8077,5.817,-5.0,8.6312,0.90177,6.6667,4.8077,5.817,0.90615,-3.8547,-2.9206,-10.363,-3.9103,-7.7564,-3.8915,0.94787,-8.7379,0.82935
-8.5535,6.7302,-3.9482,4.8077,6.7974,-1.1538,8.6312,1.868,8.5897,4.8077,6.7974,2.8479,-1.9589,-1.9683,-7.5197,-3.9103,-6.7949,-2.9346,5.6872,-7.767,0.82935
-0.06289,1.0159,1.877,7.6923,8.7582,5.5769,9.5974,3.8003,8.5897,7.6923,8.7582,5.7605,6.5719,4.6984,0.06319,-0.0641,-0.0641,1.8501,9.4787,1.9417,2.7432
2.7673,-4.6984,0.90615,7.6923,4.8366,5.5769,1.868,7.6651,5.7051,7.6923,4.8366,3.8188,4.6761,1.8413,2.9068,-0.0641,1.859,4.7209,1.8957,3.8835,-2.0415
5.5975,-1.8413,0.90615,5.7692,3.8562,5.5769,4.7665,6.6989,-1.9872,5.7692,3.8562,4.7896,-2.9068,-1.9683,3.8547,-3.9103,2.8205,6.6348,-4.7393,2.9126,-4.9123
3.7107,2.9206,0.90615,0.96154,-0.06536,3.6538,2.8341,2.8341,-1.9872,0.96154,-0.06536,2.8479,-3.8547,-3.873,3.8547,-3.9103,2.8205,2.807,-2.8436,2.9126,-6.8262
6.5409,-3.746,0.90615,-0.96154,-0.06536,1.7308,-1.0306,-1.0306,0.89744,-0.96154,-0.06536,0.90615,-1.9589,-3.873,5.7504,-1.0256,4.7436,5.6778,1.8957,5.8252,-1.0845
8.4277,-0.88889,2.8479,-4.8077,-5.9477,-0.19231,-7.7939,-1.0306,-2.9487,-4.8077,-5.9477,-2.9773,-0.06319,-1.9683,8.594,2.8205,6.6667,4.7209,-2.8436,7.767,2.7432
5.5975,-5.6508,-1.0356,-2.8846,-5.9477,-4.0385,-7.7939,-2.963,-6.7949,-2.8846,-5.9477,-4.9191,2.7804,1.8413,7.6461,1.859,5.7051,1.8501,1.8957,5.8252,0.82935
3.7107,-4.6984,-1.0356,-1.9231,-7.9085,-3.0769,-9.7262,-3.9291,-9.6795,-1.9231,-7.9085,-3.9482,6.5719,3.746,6.6983,3.7821,6.6667,-1.9777,-1.8957,7.767,-0.12759
-1.9497,5.7778,-0.06472,-3.8462,-4.9673,-1.1538,-2.963,-4.8953,-7.7564,-3.8462,-4.9673,-0.06472,6.5719,2.7937,3.8547,7.6282,5.7051,-1.0207,-1.8957,5.8252,6.571
-11.384,-2.7937,-6.8608,-2.8846,1.8954,-6.9231,1.868,-8.7601,4.7436,-2.8846,1.8954,-2.9773,2.7804,3.746,-4.6761,1.859,-2.9487,-6.7624,0.94787,0.0,1.7863
-17.044001,1.0159,-10.744,1.9231,8.7582,-10.769,5.7327,-7.7939,5.7051,1.9231,8.7582,-4.9191,2.7804,4.6984,-6.5719,-0.0641,-4.8718,-9.6332,-4.7393,3.8835,-4.9123
-11.384,-6.6032,-9.7735,4.8077,10.719,-7.8846,-0.06441,-6.8277,11.474,4.8077,10.719,-3.9482,2.7804,3.746,-2.7804,-0.0641,-2.9487,-7.7193,2.8436,1.9417,-2.9984
0.8805,-6.6032,-2.9773,5.7692,12.68,0.76923,3.8003,-5.8615,16.282,5.7692,12.68,1.877,7.5197,7.5556,2.9068,3.7821,2.8205,-1.0207,10.427,0.0,3.7002
4.6541,-0.88889,1.877,3.8462,11.699,2.6923,7.6651,-6.8277,12.436,3.8462,11.699,3.8188,11.311,11.365,4.8025,6.6667,6.6667,2.807,7.5829,0.97087,6.571
7.4843,1.0159,3.8188,4.8077,10.719,1.7308,8.6312,-2.963,15.321,4.8077,10.719,3.8188,9.4155,7.5556,7.6461,5.7051,8.5897,1.8501,3.7915,3.8835,1.7863
9.3711,3.873,5.7605,5.7692,11.699,4.6154,11.53,-1.9968,10.513,5.7692,11.699,6.7314,3.7283,0.88889,5.7504,2.8205,6.6667,-1.9777,2.8436,2.9126,-0.12759
9.3711,12.444,6.7314,7.6923,8.7582,5.5769,9.5974,2.8341,8.5897,7.6923,8.7582,7.7023,-0.06319,-1.0159,5.7504,1.859,4.7436,-1.9777,-1.8957,5.8252,-0.12759
10.314,9.5873,7.7023,9.6154,10.719,6.5385,9.5974,3.8003,7.6282,9.6154,10.719,8.6731,-1.0111,-2.9206,5.7504,1.859,3.7821,4.7209,-0.94787,5.8252,2.7432
1.8239,10.54,5.7605,7.6923,10.719,3.6538,11.53,5.7327,10.513,7.6923,10.719,8.6731,-5.7504,-2.9206,0.06319,-0.0641,-0.0641,6.6348,3.7915,-1.9417,5.614
-3.8365,7.6825,1.877,9.6154,12.68,2.6923,19.259001,6.6989,8.5897,9.6154,12.68,7.7023,-5.7504,-0.06349,-5.624,-1.0256,-3.9103,3.764,8.5308,-4.8544,3.7002
-7.6101,-8.5079,-7.8317,7.6923,6.7974,-2.1154,3.8003,2.8341,6.6667,7.6923,6.7974,-1.0356,-1.0111,-0.06349,-3.7283,-2.9487,-5.8333,-0.0638,6.6351,1.9417,-2.9984
-9.4969,-6.6032,-9.7735,4.8077,4.8366,-6.9231,-2.963,-0.06441,3.7821,4.8077,4.8366,-4.9191,2.7804,-0.06349,-1.8325,-1.0256,-2.9487,3.764,0.0,4.8544,-2.0415
-10.44,-4.6984,-9.7735,0.0,-1.0458,-7.8846,-4.8953,-1.0306,-1.9872,0.0,-1.0458,-6.8608,3.7283,1.8413,-3.7283,0.89744,-1.9872,0.89314,-2.8436,-2.9126,-2.0415
-2.8931,8.6349,-3.9482,2.8846,1.8954,0.76923,2.8341,0.90177,-1.0256,2.8846,1.8954,0.90615,-0.06319,-1.0159,-2.7804,0.89744,-2.9487,-4.8485,-4.7393,-3.8835,0.82935
2.7673,8.6349,-1.0356,5.7692,5.817,6.5385,6.6989,3.8003,1.859,5.7692,5.817,6.7314,-0.06319,-1.0159,0.06319,-2.9487,-4.8718,4.7209,-6.6351,-1.9417,-3.9553
1.8239,-6.6032,-4.9191,4.8077,3.8562,3.6538,0.90177,4.7665,-1.0256,4.8077,3.8562,2.8479,-0.06319,-0.06349,0.06319,-8.7179,-6.7949,-0.0638,-2.8436,-0.97087,-5.8692
7.4843,-13.27,-2.9773,0.0,-2.0261,3.6538,-3.9291,-0.06441,-2.9487,0.0,-2.0261,-1.0356,-2.9068,-4.8254,6.6983,-6.7949,-1.0256,-3.8915,-0.94787,2.9126,-4.9123
11.258,-2.7937,6.7314,-1.9231,-2.0261,3.6538,-2.963,-1.0306,-4.8718,-1.9231,-2.0261,0.90615,-0.06319,-1.9683,12.385,1.859,10.513,5.6778,-2.8436,4.8544,-1.0845
9.3711,-2.7937,8.6731,-2.8846,-2.0261,-0.19231,-4.8953,-0.06441,-1.9872,-2.8846,-2.0261,-1.0356,6.5719,3.746,14.281,5.7051,13.397,6.6348,0.94787,9.7087,2.7432
2.7673,-3.746,3.8188,-4.8077,-4.9673,-5.0,-6.8277,-2.963,-1.0256,-4.8077,-4.9673,-5.89,11.311,11.365,9.5419,6.6667,9.5513,1.8501,-0.94787,8.7379,4.6571
-3.8365,10.54,4.7896,-3.8462,-1.0458,-6.9231,0.90177,-8.7601,-0.0641,-3.8462,-1.0458,-3.9482,7.5197,10.413,1.9589,10.513,7.6282,-4.8485,-7.5829,3.8835,8.4848
-3.8365,18.159,7.7023,-4.8077,-0.06536,-4.0385,3.8003,-10.692,2.8205,-4.8077,-0.06536,-0.06472,5.624,10.413,1.0111,12.436,6.6667,-5.8054,-3.7915,4.8544,7.5279
-8.5535,-0.88889,1.877,-5.7692,-2.0261,-5.0,-0.06441,-11.659,0.89744,-5.7692,-2.0261,-1.0356,6.5719,7.5556,-4.6761,6.6667,0.89744,-5.8054,4.7393,-0.97087,2.7432
-11.384,-11.365,-3.9482,-3.8462,-3.0065,-5.0,-7.7939,-6.8277,-0.0641,-3.8462,-3.0065,-2.0065,0.88468,2.7937,-9.4155,-0.0641,-4.8718,-6.7624,2.8436,-4.8544,-2.9984
-2.8931,-2.7937,-1.0356,1.9231,2.8758,0.76923,-3.9291,0.90177,-1.0256,1.9231,2.8758,3.8188,-3.8547,-4.8254,-8.4676,-3.9103,-7.7564,-4.8485,-0.94787,-5.8252,-2.9984
5.5975,1.0159,1.877,4.8077,3.8562,8.4615,6.6989,4.7665,-2.9487,4.8077,3.8562,6.7314,-7.6461,-7.6825,-3.7283,-6.7949,-6.7949,-3.8915,0.0,-3.8835,-2.0415
9.3711,1.0159,3.8188,7.6923,4.8366,11.346,5.7327,6.6989,0.89744,7.6923,4.8366,6.7314,-7.6461,-2.9206,-0.88468,-7.7564,-4.8718,-1.9777,0.0,0.0,-2.0415
8.4277,3.873,3.8188,8.6538,4.8366,11.346,0.90177,10.564,2.8205,8.6538,4.8366,7.7023,-6.6983,-4.8254,0.06319,-7.7564,-3.9103,0.89314,-8.5308,-3.8835,-3.9553
12.201,13.397,6.7314,10.577,3.8562,12.308,2.8341,13.462,-3.9103,10.577,3.8562,9.644,-3.8547,-9.5873,2.9068,-8.7179,-1.9872,6.6348,-9.4787,-1.9417,-7.7831
7.4843,-10.413,-1.0356,5.7692,-0.06536,10.385,-6.8277,9.5974,-1.9872,5.7692,-0.06536,4.7896,-10.49,-11.492,-0.88468,-10.641,-6.7949,5.6778,0.94787,-6.7961,-6.8262
8.4277,-13.27,-1.0356,7.6923,2.8758,8.4615,-4.8953,9.5974,-0.0641,7.6923,2.8758,4.7896,-10.49,-7.6825,1.0111,-7.7564,-5.8333,9.5056,2.8436,-2.9126,-2.0415
6.5409,-2.7937,0.90615,6.7308,0.91503,5.5769,-2.963,9.5974,-1.9872,6.7308,0.91503,2.8479,-3.8547,-1.0159,3.8547,-5.8333,-1.9872,8.5486,0.0,1.9417,-2.9984
0.8805,-3.746,-1.0356,1.9231,-0.06536,0.76923,-3.9291,4.7665,-0.0641,1.9231,-0.06536,-0.06472,-1.9589,1.8413,1.9589,-5.8333,-1.0256,1.8501,0.0,0.97087,-1.0845
0.8805,2.9206,1.877,0.0,-1.0458,1.7308,3.8003,-1.0306,-3.9103,0.0,-1.0458,0.90615,-3.8547,-0.06349,1.9589,-2.9487,0.89744,-2.9346,-4.7393,0.0,-0.12759
2.7673,9.5873,6.7314,-1.9231,-2.0261,1.7308,3.8003,-1.0306,0.89744,-1.9231,-2.0261,0.90615,4.6761,4.6984,5.7504,3.7821,6.6667,-1.9777,0.0,2.9126,4.6571
-1.9497,5.7778,1.877,-0.96154,0.91503,-2.1154,0.90177,-3.9291,4.7436,-0.96154,0.91503,-2.9773,4.6761,4.6984,1.9589,3.7821,4.7436,-0.0638,7.5829,0.0,4.6571
-10.44,-5.6508,-5.89,-3.8462,-1.0458,-9.8077,-0.06441,-7.7939,8.5897,-3.8462,-1.0458,-8.8026,0.88468,4.6984,-3.7283,1.859,0.89744,-6.7624,13.27,-1.9417,2.7432
-9.4969,1.9683,-2.9773,-3.8462,0.91503,-11.731,0.90177,-11.659,5.7051,-3.8462,0.91503,-6.8608,-1.0111,1.8413,-4.6761,5.7051,1.859,-13.461,6.6351,-5.8252,7.5279
-10.44,-4.6984,-4.9191,-6.7308,-4.9673,-12.692,-6.8277,-11.659,0.89744,-6.7308,-4.9673,-9.7735,0.88468,0.88889,-6.5719,3.7821,-0.0641,-10.59,5.6872,-6.7961,4.6571
-7.6101,-3.746,-2.9773,-6.7308,-6.9281,-11.731,-9.7262,-8.7601,-1.9872,-6.7308,-6.9281,-9.7735,2.7804,3.746,-5.624,1.859,-0.0641,-4.8485,2.8436,-4.8544,-0.12759
-5.7233,6.7302,1.877,-5.7692,-6.9281,-7.8846,-5.8615,-5.8615,-3.9103,-5.7692,-6.9281,-5.89,0.88468,3.746,-4.6761,2.8205,0.89744,-6.7624,-7.5829,-1.9417,2.7432
-0.06289,6.7302,5.7605,-0.96154,-3.9869,-1.1538,1.868,-0.06441,-7.7564,-0.96154,-3.9869,0.90615,-1.0111,1.8413,-1.8325,6.6667,3.7821,1.8501,0.0,0.97087,5.614
-0.06289,2.9206,3.8188,-0.96154,-4.9673,0.76923,-2.963,1.868,-2.9487,-0.96154,-4.9673,1.877,0.88468,2.7937,-2.7804,6.6667,2.8205,2.807,2.8436,-3.8835,1.7863
0.8805,-3.746,0.90615,-0.96154,-3.0065,-0.19231,-1.9968,-0.06441,-1.0256,-0.96154,-3.0065,0.90615,0.88468,2.7937,-2.7804,4.7436,0.89744,-1.9777,5.6872,-5.8252,1.7863
-0.06289,-8.5079,-4.9191,-3.8462,-6.9281,-3.0769,-8.7601,-1.9968,-3.9103,-3.8462,-6.9281,-4.9191,2.7804,0.88889,-0.88468,3.7821,-1.9872,-3.8915,0.94787,1.9417,2.7432
-1.9497,-5.6508,-6.8608,-5.7692,-8.8889,-5.9615,-7.7939,-4.8953,-6.7949,-5.7692,-8.8889,-7.8317,-1.0111,-0.06349,-0.88468,0.89744,-2.9487,-3.8915,-7.5829,1.9417,1.7863
1.8239,-1.8413,-2.9773,-6.7308,-7.9085,-3.0769,-6.8277,-1.9968,-5.8333,-6.7308,-7.9085,-6.8608,1.8325,1.8413,1.9589,-0.0641,-0.0641,-0.0638,-7.5829,3.8835,-3.9553
4.6541,0.06349,1.877,-3.8462,-3.0065,2.6923,-3.9291,3.8003,-5.8333,-3.8462,-3.0065,-1.0356,1.8325,0.88889,4.8025,-1.9872,-0.0641,8.5486,-9.4787,4.8544,-5.8692
2.7673,-0.88889,0.90615,0.0,-3.0065,6.5385,1.868,8.6312,-6.7949,0.0,-3.0065,1.877,1.8325,-1.9683,1.0111,-4.8718,-3.9103,11.419,-7.5829,2.9126,-6.8262
3.7107,4.8254,3.8188,2.8846,-0.06536,12.308,10.564,8.6312,-4.8718,2.8846,-0.06536,7.7023,-1.9589,-1.0159,1.0111,-2.9487,-1.0256,10.463,-4.7393,0.97087,-5.8692
7.4843,7.6825,11.586,1.9231,3.8562,13.269,13.462,6.6989,3.7821,1.9231,3.8562,11.586,2.7804,0.88889,5.7504,3.7821,7.6282,7.5917,1.8957,3.8835,-1.0845
9.3711,5.7778,16.440001,1.9231,5.817,12.308,10.564,6.6989,7.6282,1.9231,5.817,12.557,2.7804,-0.06349,8.594,6.6667,13.397,3.764,5.6872,3.8835,4.6571
15.031,11.492,21.294001,8.6538,11.699,14.231,14.428,8.6312,5.7051,8.6538,11.699,16.440001,-1.0111,-0.06349,12.385,7.6282,14.359,8.5486,3.7915,5.8252,3.7002
14.088,16.254,19.353001,8.6538,9.7386,13.269,14.428,4.7665,2.8205,8.6538,9.7386,15.469,1.8325,2.7937,12.385,6.6667,13.397,4.7209,-3.7915,6.7961,-0.12759
14.088,23.872999,18.382,7.6923,10.719,13.269,16.361,1.868,3.7821,7.6923,10.719,16.440001,7.5197,6.6032,12.385,10.513,12.436,3.764,-3.7915,5.8252,9.4418
8.4277,3.873,8.6731,3.8462,3.8562,8.4615,4.7665,1.868,3.7821,3.8462,3.8562,9.644,8.4676,6.6032,8.594,7.6282,6.6667,-1.0207,2.8436,3.8835,8.4848
4.6541,0.06349,4.7896,2.8846,2.8758,1.7308,2.8341,2.8341,-2.9487,2.8846,2.8758,3.8188,3.7283,5.6508,4.8025,3.7821,2.8205,4.7209,1.8957,4.8544,7.5279
-0.06289,-0.88889,1.877,-0.96154,-3.0065,-3.0769,-1.9968,3.8003,-8.7179,-0.96154,-3.0065,-1.0356,0.88468,4.6984,1.9589,2.8205,0.89744,2.807,-3.7915,1.9417,2.7432
1.8239,-8.5079,-1.0356,-3.8462,-4.9673,-1.1538,-7.7939,-1.0306,-7.7564,-3.8462,-4.9673,-2.0065,0.88468,2.7937,2.9068,1.859,-0.0641,3.764,-1.8957,2.9126,0.82935
1.8239,-0.88889,2.8479,-6.7308,-4.9673,-0.19231,-6.8277,-5.8615,-1.9872,-6.7308,-4.9673,-1.0356,1.8325,4.6984,3.8547,4.7436,2.8205,3.764,0.0,5.8252,2.7432
-0.06289,11.492,3.8188,-10.577,-6.9281,-5.0,-1.9968,-7.7939,-2.9487,-10.577,-6.9281,-2.0065,0.88468,1.8413,1.9589,4.7436,1.859,-3.8915,0.94787,3.8835,2.7432
-6.6667,1.9683,-4.9191,-9.6154,-7.9085,-11.731,-4.8953,-3.9291,-3.9103,-9.6154,-7.9085,-10.744,-1.9589,-2.9206,-3.7283,-1.9872,-5.8333,-3.8915,0.0,-1.9417,-0.12759
1.8239,3.873,-2.9773,-6.7308,-8.8889,-5.0,-4.8953,-1.0306,-4.8718,-6.7308,-8.8889,-8.8026,-1.0111,-2.9206,0.06319,0.89744,-1.9872,-0.0638,1.8957,0.97087,5.614
-2.8931,1.0159,-4.9191,-9.6154,-9.8693,-8.8462,-4.8953,-1.0306,-3.9103,-9.6154,-9.8693,-10.744,-3.8547,-5.7778,-2.7804,1.859,-1.9872,0.89314,0.0,-1.9417,7.5279
-5.7233,-6.6032,-3.9482,-8.6538,-5.9477,-10.769,-7.7939,-1.0306,-0.0641,-8.6538,-5.9477,-9.7735,-3.8547,-3.873,-3.7283,-1.9872,-2.9487,7.5917,3.7915,-1.9417,3.7002
0.8805,3.873,5.7605,-5.7692,-4.9673,-1.1538,0.90177,-0.06441,-2.9487,-5.7692,-4.9673,-0.06472,-1.9589,-3.873,0.06319,0.89744,1.859,6.6348,1.8957,1.9417,4.6571
2.7673,1.9683,5.7605,-2.8846,-4.9673,2.6923,-2.963,1.868,-1.0256,-2.8846,-4.9673,0.90615,-2.9068,-1.0159,0.06319,0.89744,1.859,2.807,2.8436,-0.97087,0.82935
-0.06289,-7.5556,-2.0065,-2.8846,-4.9673,-3.0769,-10.692,-0.06441,-1.0256,-2.8846,-4.9673,-5.89,2.7804,3.746,1.0111,-0.0641,1.859,3.764,3.7915,0.0,-1.0845
-4.7799,-9.4603,-10.744,-6.7308,-7.9085,-8.8462,-13.591,-1.9968,-1.9872,-6.7308,-7.9085,-11.715,-1.0111,1.8413,-1.8325,-1.0256,-1.0256,-2.9346,1.8957,-1.9417,2.7432
-2.8931,-6.6032,-8.8026,-4.8077,-5.9477,-6.9231,-7.7939,-6.8277,-0.0641,-4.8077,-5.9477,-8.8026,-1.0111,1.8413,-1.8325,-2.9487,-0.0641,-7.7193,4.7393,-0.97087,-1.0845
-1.0063,-5.6508,-1.0356,-5.7692,-8.8889,-5.9615,-5.8615,-5.8615,-0.0641,-5.7692,-8.8889,-6.8608,3.7283,2.7937,2.9068,0.89744,3.7821,-4.8485,4.7393,0.0,-2.9984
-0.06289,2.9206,3.8188,-3.8462,-2.0261,-4.0385,0.90177,-3.9291,0.89744,-3.8462,-2.0261,-2.9773,4.6761,2.7937,1.0111,0.89744,3.7821,3.764,0.0,0.97087,1.7863
-10.44,-4.6984,-8.8026,-5.7692,-3.9869,-6.9231,0.90177,-4.8953,-0.0641,-5.7692,-3.9869,-6.8608,-2.9068,-1.9683,-7.5197,-7.7564,-6.7949,-3.8915,5.6872,-2.9126,-3.9553
-9.4969,-10.413,-12.686,0.0,0.91503,-3.0769,-2.963,-1.0306,4.7436,0.0,0.91503,-4.9191,-4.8025,-5.7778,-9.4155,-10.641,-10.641,-4.8485,7.5829,-4.8544,-6.8262
-1.0063,-1.8413,-5.89,3.8462,4.8366,3.6538,-2.963,5.7327,7.6282,3.8462,4.8366,1.877,-1.9589,-4.8254,-2.7804,-4.8718,-5.8333,-1.0207,-0.94787,-4.8544,-4.9123
2.7673,-0.88889,-0.06472,8.6538,5.817,6.5385,4.7665,12.496,4.7436,8.6538,5.817,5.7605,-2.9068,-6.7302,-0.88468,-4.8718,-5.8333,4.7209,0.0,0.0,-0.12759
3.7107,3.873,2.8479,9.6154,2.8758,6.5385,3.8003,13.462,1.859,9.6154,2.8758,4.7896,-1.9589,-3.873,-0.88468,-5.8333,-3.9103,5.6778,-4.7393,-1.9417,-8.74
7.4843,5.7778,6.7314,10.577,6.7974,9.4231,9.5974,10.564,3.7821,10.577,6.7974,7.7023,0.88468,0.88889,1.9589,-2.9487,-0.0641,5.6778,-2.8436,-1.9417,-8.74
5.5975,1.0159,2.8479,7.6923,5.817,6.5385,7.6651,8.6312,4.7436,7.6923,5.817,5.7605,-1.0111,-3.873,0.06319,-1.0256,-1.0256,6.6348,0.0,-1.9417,-6.8262
5.5975,11.492,4.7896,5.7692,6.7974,4.6154,12.496,6.6989,1.859,5.7692,6.7974,6.7314,-2.9068,-1.9683,2.9068,3.7821,5.7051,5.6778,-0.94787,2.9126,-1.0845
10.314,11.492,10.615,4.8077,7.7778,6.5385,12.496,6.6989,8.5897,4.8077,7.7778,8.6731,5.624,6.6032,9.5419,7.6282,14.359,-0.0638,6.6351,3.8835,3.7002
6.5409,8.6349,9.644,1.9231,5.817,3.6538,5.7327,4.7665,9.5513,1.9231,5.817,4.7896,10.363,10.413,8.594,9.5513,15.321,-2.9346,6.6351,2.9126,5.614
-1.9497,-6.6032,-0.06472,-2.8846,0.91503,-3.0769,-0.06441,-0.06441,5.7051,-2.8846,0.91503,-2.0065,9.4155,9.4603,2.9068,6.6667,9.5513,-1.9777,5.6872,0.97087,2.7432
-3.8365,-9.4603,-3.9482,-4.8077,-1.0458,-4.0385,-6.8277,-4.8953,2.8205,-4.8077,-1.0458,-4.9191,11.311,10.413,1.0111,7.6282,6.6667,-1.9777,2.8436,1.9417,-1.0845
-4.7799,1.0159,-3.9482,-4.8077,-1.0458,-4.0385,-3.9291,-7.7939,-0.0641,-4.8077,-1.0458,-3.9482,9.4155,7.5556,-0.88468,6.6667,4.7436,-1.9777,-3.7915,3.8835,2.7432
-11.384,-9.4603,-10.744,-6.7308,-3.9869,-8.8462,-5.8615,-6.8277,1.859,-6.7308,-3.9869,-8.8026,-0.06319,0.88889,-8.4676,-0.0641,-4.8718,-5.8054,4.7393,-1.9417,0.82935
-10.44,-7.5556,-9.7735,-3.8462,-0.06536,-8.8462,-0.06441,-5.8615,4.7436,-3.8462,-0.06536,-4.9191,-0.06319,5.6508,-11.311,-2.9487,-8.7179,-6.7624,9.4787,-6.7961,-0.12759
-9.4969,11.492,-2.9773,0.96154,4.8366,-3.0769,8.6312,-3.9291,6.6667,0.96154,4.8366,2.8479,-1.9589,3.746,-11.311,-0.0641,-7.7564,-13.461,0.94787,-8.7379,6.571
-5.7233,6.7302,-2.9773,3.8462,7.7778,0.76923,9.5974,-2.963,5.7051,3.8462,7.7778,6.7314,-8.594,-6.7302,-11.311,-5.8333,-9.6795,-12.504,5.6872,-9.7087,3.7002
-1.0063,-2.7937,-2.9773,-0.96154,-0.06536,3.6538,-1.0306,-3.9291,3.7821,-0.96154,-0.06536,2.8479,-4.8025,-2.9206,-4.6761,-7.7564,-5.8333,-3.8915,1.8957,-6.7961,-3.9553
2.7673,-3.746,-0.06472,-1.9231,0.91503,4.6154,-4.8953,-0.06441,0.89744,-1.9231,0.91503,1.877,-4.8025,-1.0159,-0.88468,-7.7564,-2.9487,0.89314,-3.7915,-1.9417,-6.8262
3.7107,-4.6984,4.7896,1.9231,-0.06536,5.5769,-1.9968,5.7327,-1.0256,1.9231,-0.06536,2.8479,-5.7504,-7.6825,1.9589,-5.8333,0.89744,2.807,-0.94787,0.97087,-4.9123
9.3711,-8.5079,6.7314,6.7308,-1.0458,8.4615,-1.0306,4.7665,-5.8333,6.7308,-1.0458,5.7605,-1.9589,-7.6825,6.6983,-1.0256,5.7051,6.6348,-1.8957,1.9417,-0.12759
9.3711,-5.6508,8.6731,2.8846,-4.9673,7.5,-4.8953,5.7327,-11.603,2.8846,-4.9673,4.7896,2.7804,0.88889,8.594,0.89744,8.5897,2.807,-8.5308,3.8835,-2.0415
14.088,1.0159,12.557,2.8846,-2.0261,9.4231,-1.0306,7.6651,-7.7564,2.8846,-2.0261,7.7023,6.5719,7.5556,13.333,6.6667,13.397,10.463,-4.7393,11.65,-1.0845
8.4277,13.397,11.586,4.8077,-0.06536,8.4615,5.7327,9.5974,-5.8333,4.8077,-0.06536,8.6731,6.5719,4.6984,9.5419,8.5897,12.436,10.463,-9.4787,8.7379,1.7863
-0.06289,-2.7937,-2.0065,2.8846,1.8954,1.7308,3.8003,5.7327,-2.9487,2.8846,1.8954,2.8479,1.8325,3.746,1.0111,1.859,1.859,3.764,-1.8957,2.9126,3.7002
-1.0063,-8.5079,-7.8317,5.7692,5.817,1.7308,0.90177,3.8003,4.7436,5.7692,5.817,0.90615,1.8325,0.88889,-3.7283,-1.9872,-4.8718,-2.9346,4.7393,1.9417,3.7002
-6.6667,-3.746,-8.8026,6.7308,6.7974,-1.1538,-1.0306,1.868,8.5897,6.7308,6.7974,-1.0356,-5.7504,-9.5873,-11.311,-5.8333,-9.6795,-3.8915,4.7393,-7.767,0.82935
-12.327,-3.746,-10.744,2.8846,4.8366,-6.9231,2.8341,-3.9291,6.6667,2.8846,4.8366,-3.9482,-9.5419,-7.6825,-17.945999,-7.7564,-12.564,-4.8485,5.6872,-16.504999,-1.0845
-12.327,-1.8413,-10.744,-2.8846,-0.06536,-7.8846,0.90177,-7.7939,4.7436,-2.8846,-0.06536,-6.8608,-12.385,-6.7302,-16.051001,-8.7179,-12.564,-9.6332,4.7393,-14.563,-3.9553
-7.6101,6.7302,-3.9482,-3.8462,-0.06536,-7.8846,2.8341,-10.692,3.7821,-3.8462,-0.06536,-4.9191,-5.7504,-2.9206,-9.4155,-4.8718,-5.8333,-3.8915,0.0,-6.7961,-0.12759
-1.9497,7.6825,2.8479,-5.7692,-3.0065,-7.8846,-2.963,-8.7601,1.859,-5.7692,-3.0065,-4.9191,2.7804,4.6984,1.0111,3.7821,5.7051,-0.0638,2.8436,1.9417,6.571
-1.0063,-4.6984,2.8479,-7.6923,-4.9673,-8.8462,-8.7601,-11.659,0.89744,-7.6923,-4.9673,-8.8026,2.7804,1.8413,3.8547,3.7821,10.513,-6.7624,11.374,0.0,5.614
0.8805,-4.6984,4.7896,-6.7308,-4.9673,-5.9615,-9.7262,-8.7601,-0.0641,-6.7308,-4.9673,-7.8317,4.6761,3.746,5.7504,3.7821,12.436,-7.7193,7.5829,-1.9417,1.7863
2.7673,5.7778,4.7896,-6.7308,-5.9477,-5.9615,-3.9291,-7.7939,-4.8718,-6.7308,-5.9477,-6.8608,7.5197,6.6032,7.6461,8.5897,13.397,-5.8054,-2.8436,2.9126,5.614
-2.8931,-6.6032,-5.89,-9.6154,-8.8889,-8.8462,-8.7601,-10.692,-1.9872,-9.6154,-8.8889,-11.715,6.5719,4.6984,4.8025,2.8205,6.6667,-4.8485,-1.8957,5.8252,2.7432
-6.6667,-11.365,-11.715,-3.8462,-3.0065,-8.8462,-5.8615,-9.7262,0.89744,-3.8462,-3.0065,-9.7735,5.624,2.7937,-0.88468,-1.9872,-1.9872,-4.8485,5.6872,3.8835,1.7863
-9.4969,-3.746,-13.657,0.0,-3.0065,-5.9615,-2.963,-4.8953,-0.0641,0.0,-3.0065,-7.8317,-5.7504,-8.6349,-10.363,-6.7949,-13.526,-2.9346,-0.94787,-2.9126,1.7863
-8.5535,-7.5556,-15.599,1.9231,-1.0458,-3.0769,-1.0306,1.868,-1.9872,1.9231,-1.0458,-4.9191,-10.49,-9.5873,-16.997999,-13.526,-21.218,2.807,-0.94787,-8.7379,-4.9123
-10.44,-5.6508,-15.599,0.96154,-2.0261,-2.1154,-1.0306,4.7665,-2.9487,0.96154,-2.0261,-3.9482,-10.49,-6.7302,-18.893999,-15.449,-23.141001,2.807,-3.7915,-8.7379,-10.654
-8.5535,0.06349,-8.8026,3.8462,1.8954,-0.19231,7.6651,5.7327,-1.9872,3.8462,1.8954,0.90615,-6.6983,-5.7778,-14.155,-11.603,-17.372,1.8501,0.0,-4.8544,-4.9123
-1.0063,11.492,2.8479,6.7308,4.8366,7.5,10.564,8.6312,2.8205,6.7308,4.8366,6.7314,-5.7504,-4.8254,-5.624,-4.8718,-8.7179,0.89314,-0.94787,-1.9417,-0.12759
5.5975,10.54,7.7023,6.7308,3.8562,11.346,4.7665,9.5974,4.7436,6.7308,3.8562,9.644,-2.9068,-1.0159,1.9589,-0.0641,-1.0256,1.8501,-3.7915,0.97087,3.7002
6.5409,2.9206,4.7896,5.7692,4.8366,9.4231,6.6989,9.5974,2.8205,5.7692,4.8366,7.7023,-2.9068,-0.06349,4.8025,-0.0641,1.859,6.6348,1.8957,4.8544,0.82935
6.5409,10.54,4.7896,6.7308,4.8366,7.5,7.6651,8.6312,2.8205,6.7308,4.8366,6.7314,0.88468,2.7937,7.6461,5.7051,8.5897,10.463,5.6872,6.7961,-0.12759
10.314,11.492,12.557,7.6923,7.7778,7.5,12.496,8.6312,3.7821,7.6923,7.7778,9.644,5.624,6.6032,12.385,13.397,17.243999,11.419,6.6351,7.767,7.5279
15.975,14.349,19.353001,5.7692,5.817,12.308,6.6989,8.6312,-1.0256,5.7692,5.817,12.557,8.4676,8.5079,16.177,16.282,20.128,12.376,2.8436,6.7961,8.4848
14.088,7.6825,15.469,6.7308,3.8562,12.308,4.7665,7.6651,-4.8718,6.7308,3.8562,12.557,9.4155,5.6508,13.333,10.513,13.397,9.5056,-0.94787,8.7379,4.6571
5.5975,8.6349,3.8188,3.8462,-0.06536,4.6154,2.8341,5.7327,-3.9103,3.8462,-0.06536,5.7605,7.5197,5.6508,8.594,7.6282,4.7436,0.89314,-4.7393,7.767,6.571
-3.8365,-1.8413,-10.744,0.96154,0.91503,-3.0769,5.7327,-0.06441,-3.9103,0.96154,0.91503,-1.0356,-1.0111,-1.9683,-1.8325,0.89744,-6.7949,-3.8915,0.0,1.9417,6.571
-9.4969,-9.4603,-17.540001,-1.9231,-2.0261,-5.0,-1.9968,-2.963,-1.0256,-1.9231,-2.0261,-3.9482,-7.6461,-8.6349,-8.4676,-5.8333,-15.449,-1.9777,1.8957,-3.8835,-0.12759
-5.7233,-3.746,-9.7735,0.0,-0.06536,-3.0769,0.90177,-1.9968,-1.0256,0.0,-0.06536,-0.06472,-3.8547,-2.9206,-8.4676,-4.8718,-12.564,-0.0638,-4.7393,-4.8544,-2.0415
-6.6667,-9.4603,-6.8608,-1.9231,-1.0458,-3.0769,-1.0306,-2.963,-0.0641,-1.9231,-1.0458,-1.0356,-1.9589,-5.7778,-10.363,-10.641,-14.487,-1.9777,-2.8436,-6.7961,-7.7831
-5.7233,-10.413,-4.9191,0.0,0.91503,-3.0769,-0.06441,-3.9291,-1.0256,0.0,0.91503,-1.0356,-6.6983,-7.6825,-11.311,-13.526,-15.449,-1.9777,-1.8957,-7.767,-6.8262
-9.4969,-3.746,-5.89,0.0,0.91503,-5.0,-1.0306,-2.963,-1.0256,0.0,0.91503,-2.0065,-7.6461,-5.7778,-12.259,-13.526,-14.487,-8.6762,-7.5829,-7.767,-7.7831
-6.6667,-2.7937,-4.9191,0.96154,2.8758,-5.0,-1.9968,-2.963,2.8205,0.96154,2.8758,-2.0065,-0.06319,-1.0159,-6.5719,-7.7564,-7.7564,-7.7193,-2.8436,-3.8835,-2.9984
-5.7233,-2.7937,-5.89,1.9231,2.8758,-1.1538,6.6989,-3.9291,1.859,1.9231,2.8758,-0.06472,-6.6983,-6.7302,-5.624,-6.7949,-4.8718,-0.0638,0.94787,-2.9126,-3.9553
-2.8931,-3.746,-6.8608,1.9231,4.8366,-0.19231,6.6989,1.868,5.7051,1.9231,4.8366,-0.06472,-8.594,-4.8254,-4.6761,-5.8333,-2.9487,2.807,3.7915,-2.9126,-4.9123
-1.9497,1.0159,-3.9482,3.8462,6.7974,-0.19231,2.8341,3.8003,7.6282,3.8462,6.7974,0.90615,-1.9589,2.7937,-2.7804,0.89744,1.859,-0.0638,2.8436,-5.8252,-0.12759
1.8239,7.6825,1.877,3.8462,6.7974,3.6538,2.8341,0.90177,3.7821,3.8462,6.7974,3.8188,3.7283,4.6984,1.0111,5.7051,4.7436,-2.9346,-1.8957,-3.8835,3.7002
3.7107,-0.88889,2.8479,0.96154,4.8366,4.6154,0.90177,0.90177,1.859,0.96154,4.8366,3.8188,5.624,1.8413,1.9589,3.7821,1.859,0.89314,-0.94787,0.97087,3.7002
-1.0063,-3.746,-0.06472,0.0,0.91503,0.76923,-1.9968,-0.06441,-0.0641,0.0,0.91503,1.877,2.7804,-2.9206,-0.88468,-1.9872,-4.8718,-1.9777,-1.8957,4.8544,-2.0415
-6.6667,0.06349,-4.9191,0.0,0.91503,-2.1154,-1.0306,-2.963,-2.9487,0.0,0.91503,-0.06472,-2.9068,-5.7778,-7.5197,-4.8718,-11.603,-4.8485,-4.7393,-1.9417,-5.8692
-9.4969,-10.413,-11.715,-1.9231,-3.0065,-5.0,-3.9291,-2.963,-1.0256,-1.9231,-3.0065,-3.9482,-2.9068,-1.0159,-9.4155,-6.7949,-14.487,-1.0207,-0.94787,-1.9417,-3.9553
-5.7233,-12.317,-9.7735,-0.96154,-0.06536,-2.1154,-3.9291,-4.8953,-0.0641,-0.96154,-0.06536,-3.9482,-1.0111,-1.9683,-6.5719,-4.8718,-10.641,4.7209,4.7393,-0.97087,1.7863
-1.0063,5.7778,-1.0356,0.96154,0.91503,2.6923,5.7327,-1.0306,-1.9872,0.96154,0.91503,0.90615,0.88468,-1.9683,-1.8325,-0.0641,-2.9487,-1.0207,0.0,-2.9126,0.82935
3.7107,6.7302,5.7605,4.8077,6.7974,4.6154,5.7327,4.7665,4.7436,4.8077,6.7974,4.7896,1.8325,3.746,1.0111,4.7436,3.7821,-3.8915,2.8436,-2.9126,3.7002
5.5975,4.8254,7.7023,2.8846,3.8562,2.6923,-1.0306,2.8341,5.7051,2.8846,3.8562,1.877,5.624,5.6508,5.7504,6.6667,10.513,-5.8054,0.0,-0.97087,1.7863
3.7107,-7.5556,3.8188,-3.8462,-3.0065,-3.0769,-4.8953,-4.8953,-1.0256,-3.8462,-3.0065,-4.9191,5.624,4.6984,7.6461,4.7436,12.436,-3.8915,1.8957,4.8544,-0.12759
7.4843,2.9206,6.7314,-5.7692,-8.8889,-4.0385,-9.7262,-1.9968,-6.7949,-5.7692,-8.8889,-5.89,5.624,4.6984,13.333,9.5513,18.205,5.6778,-6.6351,7.767,2.7432
8.4277,0.06349,7.7023,-2.8846,-7.9085,-3.0769,-8.7601,-0.06441,-7.7564,-2.8846,-7.9085,-5.89,9.4155,6.6032,16.177,13.397,22.051001,10.463,-4.7393,8.7379,1.7863
7.4843,-9.4603,5.7605,-2.8846,-7.9085,-1.1538,-8.7601,1.868,-4.8718,-2.8846,-7.9085,-3.9482,9.4155,7.5556,15.229,8.5897,19.167,0.89314,1.8957,7.767,-3.9553
5.5975,-0.88889,5.7605,-2.8846,-3.0065,-0.19231,-6.8277,2.8341,-6.7949,-2.8846,-3.0065,-2.0065,2.7804,-0.06349,10.49,2.8205,12.436,4.7209,-10.427,9.7087,-3.9553
-1.0063,-3.746,-1.0356,-5.7692,-4.9673,-5.0,-9.7262,-2.963,-9.6795,-5.7692,-4.9673,-5.89,2.7804,-4.8254,3.8547,-1.0256,3.7821,3.764,-14.218,10.68,-4.9123
-6.6667,-12.317,-10.744,-7.6923,-7.9085,-11.731,-12.625,-5.8615,-7.7564,-7.6923,-7.9085,-10.744,1.8325,-2.9206,-1.8325,-2.9487,-4.8718,-5.8054,-4.7393,5.8252,-2.0415
-11.384,-18.032,-19.482,-5.7692,-5.9477,-12.692,-12.625,-6.8277,-3.9103,-5.7692,-5.9477,-12.686,-0.06319,-2.9206,-8.4676,-10.641,-15.449,-1.9777,-0.94787,0.0,-7.7831
-11.384,-4.6984,-18.511,-5.7692,-4.9673,-7.8846,-9.7262,-8.7601,-3.9103,-5.7692,-4.9673,-9.7735,-2.9068,-1.0159,-11.311,-11.603,-20.256001,0.89314,-7.5829,-2.9126,-9.697
-8.5535,-7.5556,-14.628,-2.8846,-3.0065,-5.0,-5.8615,-8.7601,-3.9103,-2.8846,-3.0065,-4.9191,-2.9068,-2.9206,-10.363,-11.603,-18.333,-1.9777,-5.6872,-0.97087,-4.9123
-5.7233,-5.6508,-7.8317,-1.9231,-2.0261,-2.1154,-2.963,-3.9291,-3.9103,-1.9231,-2.0261,-1.0356,0.88468,-1.9683,-5.624,-7.7564,-12.564,-3.8915,-5.6872,0.0,-1.0845
4.6541,10.54,3.8188,1.9231,2.8758,5.5769,6.6989,-0.06441,-4.8718,1.9231,2.8758,8.6731,0.88468,-1.9683,1.0111,-2.9487,-3.9103,-0.0638,-9.4787,2.9126,-2.0415
-0.06289,-6.6032,0.90615,2.8846,0.91503,4.6154,0.90177,-0.06441,-1.0256,2.8846,0.91503,7.7023,-2.9068,-4.8254,-0.88468,-6.7949,-3.9103,-1.0207,-1.8957,-0.97087,-7.7831
-1.0063,-13.27,0.90615,4.8077,4.8366,4.6154,1.868,3.8003,1.859,4.8077,4.8366,7.7023,-2.9068,-1.9683,-1.8325,-4.8718,-0.0641,-3.8915,1.8957,-4.8544,-3.9553
4.6541,-5.6508,7.7023,4.8077,4.8366,9.4231,4.7665,7.6651,2.8205,4.8077,4.8366,10.615,1.8325,1.8413,3.8547,1.859,7.6282,-1.0207,1.8957,0.0,-2.9984
15.031,10.54,16.440001,6.7308,7.7778,17.115,11.53,9.5974,0.89744,6.7308,7.7778,16.440001,3.7283,3.746,12.385,7.6282,17.243999,7.5917,-1.8957,5.8252,-0.12759
16.917999,8.6349,17.410999,5.7692,6.7974,17.115,7.6651,12.496,5.7051,5.7692,6.7974,15.469,3.7283,3.746,16.177,9.5513,18.205,11.419,1.8957,4.8544,2.7432
15.975,4.8254,12.557,8.6538,7.7778,14.231,6.6989,13.462,5.7051,8.6538,7.7778,12.557,8.4676,5.6508,16.177,10.513,16.282,13.333,0.94787,7.767,5.614
9.3711,4.8254,1.877,7.6923,3.8562,7.5,0.90177,9.5974,3.7821,7.6923,3.8562,4.7896,4.6761,2.7937,11.438,7.6282,8.5897,10.463,-1.8957,8.7379,2.7432
0.8805,0.06349,-6.8608,3.8462,-0.06536,-0.19231,-3.9291,3.8003,0.89744,3.8462,-0.06536,-2.9773,-1.9589,-1.9683,2.9068,1.859,-0.0641,5.6778,2.8436,5.8252,1.7863
-5.7233,-11.365,-12.686,-3.8462,-4.9673,-6.9231,-11.659,-1.9968,-3.9103,-3.8462,-4.9673,-11.715,-1.9589,-1.9683,-2.7804,-1.9872,-7.7564,0.89314,1.8957,1.9417,1.7863
-4.7799,-10.413,-9.7735,-8.6538,-11.83,-11.731,-13.591,-1.9968,-9.6795,-8.6538,-11.83,-13.657,2.7804,4.6984,-0.88468,-1.0256,-6.7949,-1.9777,-1.8957,1.9417,2.7432
-7.6101,-5.6508,-7.8317,-13.462,-12.81,-15.577,-6.8277,-8.7601,-7.7564,-13.462,-12.81,-15.599,1.8325,4.6984,-1.8325,-2.9487,-5.8333,-1.9777,2.8436,0.0,1.7863
-3.8365,11.492,-2.9773,-8.6538,-3.9869,-10.769,1.868,-9.7262,-4.8718,-8.6538,-3.9869,-10.744,3.7283,4.6984,1.9589,1.859,-1.9872,-3.8915,-3.7915,0.97087,4.6571
0.8805,12.444,0.90615,-1.9231,1.8954,-4.0385,1.868,-7.7939,-0.0641,-1.9231,1.8954,-3.9482,3.7283,2.7937,4.8025,3.7821,1.859,-8.6762,-7.5829,4.8544,6.571
1.8239,-5.6508,0.90615,2.8846,5.817,-1.1538,-2.963,-5.8615,7.6282,2.8846,5.817,-2.9773,0.88468,1.8413,4.8025,0.89744,-0.0641,-2.9346,2.8436,5.8252,2.7432
1.8239,-3.746,5.7605,6.7308,9.7386,0.76923,2.8341,-3.9291,6.6667,6.7308,9.7386,1.877,2.7804,4.6984,3.8547,2.8205,1.859,3.764,7.5829,4.8544,5.614
1.8239,5.7778,10.615,2.8846,6.7974,3.6538,6.6989,-3.9291,4.7436,2.8846,6.7974,5.7605,4.6761,3.746,5.7504,6.6667,6.6667,-2.9346,2.8436,6.7961,5.614
4.6541,3.873,10.615,6.7308,11.699,8.4615,9.5974,-0.06441,5.7051,6.7308,11.699,9.644,5.624,4.6984,4.8025,6.6667,7.6282,-2.9346,2.8436,2.9126,2.7432
6.5409,7.6825,12.557,10.577,11.699,12.308,9.5974,3.8003,6.6667,10.577,11.699,13.528,2.7804,3.746,4.8025,6.6667,7.6282,3.764,0.94787,-0.97087,2.7432
14.088,15.302,15.469,14.423,16.601,19.038,16.361,6.6989,8.5897,14.423,16.601,20.323999,-1.0111,-0.06349,6.6983,5.7051,7.6282,10.463,1.8957,-0.97087,5.614
11.258,21.016001,12.557,16.346001,14.641,17.115,19.259001,16.361,9.5513,16.346001,14.641,20.323999,-1.9589,-1.0159,5.7504,4.7436,4.7436,8.5486,-5.6872,0.0,4.6571
7.4843,2.9206,4.7896,13.462,13.66,9.4231,12.496,13.462,9.5513,13.462,13.66,13.528,-4.8025,-5.7778,1.9589,-1.9872,-1.9872,2.807,3.7915,0.97087,0.82935
-1.0063,-12.317,-2.9773,4.8077,7.7778,-0.19231,-1.9968,1.868,6.6667,4.8077,7.7778,0.90615,-5.7504,-4.8254,-3.7283,-10.641,-7.7564,-2.9346,5.6872,-3.8835,-8.74
-2.8931,-6.6032,-0.06472,0.0,2.8758,-5.9615,-4.8953,-2.963,0.89744,0.0,2.8758,-4.9191,-1.0111,-1.0159,-1.8325,-5.8333,-1.0256,-3.8915,0.0,-1.9417,-5.8692
-3.8365,-6.6032,0.90615,-3.8462,-3.9869,-8.8462,-6.8277,-4.8953,-2.9487,-3.8462,-3.9869,-8.8026,3.7283,0.88889,0.06319,0.89744,4.7436,-2.9346,0.0,1.9417,-1.0845
-1.9497,1.0159,3.8188,0.0,-3.0065,-4.0385,-2.963,0.90177,-2.9487,0.0,-3.0065,-2.9773,9.4155,9.4603,0.06319,6.6667,7.6282,-0.0638,-0.94787,2.9126,5.614
0.8805,6.7302,5.7605,2.8846,0.91503,4.6154,0.90177,5.7327,-1.9872,2.8846,0.91503,4.7896,4.6761,1.8413,-1.8325,1.859,3.7821,4.7209,-4.7393,3.8835,2.7432
3.7107,8.6349,5.7605,6.7308,6.7974,12.308,9.5974,7.6651,1.859,6.7308,6.7974,12.557,-1.0111,-1.0159,-2.7804,-2.9487,1.859,3.764,0.0,-1.9417,-2.0415
5.5975,1.9683,6.7314,8.6538,8.7582,12.308,13.462,6.6989,6.6667,8.6538,8.7582,13.528,-1.9589,1.8413,-0.88468,-0.0641,3.7821,2.807,10.427,-3.8835,1.7863
10.314,3.873,11.586,4.8077,5.817,14.231,7.6651,1.868,7.6282,4.8077,5.817,11.586,0.88468,1.8413,6.6983,9.5513,11.474,4.7209,5.6872,2.9126,6.571
6.5409,9.5873,13.528,-0.96154,0.91503,5.5769,3.8003,-2.963,0.89744,-0.96154,0.91503,5.7605,5.624,3.746,9.5419,14.359,15.321,-4.8485,3.7915,2.9126,7.5279
0.8805,6.7302,8.6731,-4.8077,-4.9673,-3.0769,0.90177,-4.8953,-1.9872,-4.8077,-4.9673,-2.0065,8.4676,8.5079,10.49,17.243999,14.359,-7.7193,6.6351,2.9126,10.399
3.7107,7.6825,6.7314,-5.7692,-3.9869,-1.1538,-2.963,-3.9291,-2.9487,-5.7692,-3.9869,-2.9773,11.311,15.175,13.333,15.321,13.397,3.764,-0.94787,10.68,11.356
1.8239,-0.88889,2.8479,-7.6923,-6.9281,-4.0385,-7.7939,-2.963,-4.8718,-7.6923,-6.9281,-5.89,9.4155,10.413,12.385,11.474,8.5897,3.764,-1.8957,11.65,7.5279
2.7673,6.7302,3.8188,-7.6923,-7.9085,-5.0,-2.963,-5.8615,-8.7179,-7.6923,-7.9085,-5.89,6.5719,5.6508,9.5419,11.474,6.6667,2.807,-5.6872,10.68,3.7002
-1.9497,-3.746,-2.9773,-9.6154,-7.9085,-6.9231,-0.06441,-5.8615,-6.7949,-9.6154,-7.9085,-8.8026,3.7283,6.6032,3.8547,5.7051,-0.0641,0.89314,0.0,7.767,0.82935
-2.8931,-8.5079,-7.8317,-2.8846,-3.9869,-5.9615,1.868,-1.0306,0.89744,-2.8846,-3.9869,-6.8608,0.88468,2.7937,-0.88468,-1.0256,-5.8333,-0.0638,4.7393,2.9126,0.82935
-3.8365,1.0159,-4.9191,-0.96154,-0.06536,-1.1538,-0.06441,-1.9968,5.7051,-0.96154,-0.06536,-1.0356,-5.7504,-2.9206,-6.5719,-4.8718,-10.641,-6.7624,2.8436,-4.8544,0.82935
-5.7233,2.9206,-2.0065,0.0,3.8562,-3.0769,2.8341,-0.06441,5.7051,0.0,3.8562,1.877,-11.438,-11.492,-10.363,-5.8333,-11.603,0.89314,0.94787,-8.7379,0.82935
-3.8365,6.7302,0.90615,0.0,1.8954,-2.1154,5.7327,1.868,3.7821,0.0,1.8954,1.877,-11.438,-9.5873,-6.5719,-2.9487,-6.7949,5.6778,0.94787,-7.767,-0.12759
-1.9497,2.9206,-0.06472,0.0,3.8562,-2.1154,5.7327,0.90177,5.7051,0.0,3.8562,1.877,-6.6983,-3.873,-3.7283,-1.0256,-1.9872,2.807,10.427,-2.9126,0.82935
0.8805,22.921,5.7605,0.0,4.8366,3.6538,14.428,-0.06441,5.7051,0.0,4.8366,6.7314,-1.0111,-0.06349,-1.8325,2.8205,2.8205,0.89314,0.94787,-2.9126,0.82935
3.7107,11.492,7.7023,0.0,3.8562,4.6154,9.5974,1.868,6.6667,0.0,3.8562,5.7605,0.88468,2.7937,1.0111,3.7821,5.7051,-1.0207,3.7915,-1.9417,1.7863
5.5975,4.8254,11.586,-1.9231,2.8758,2.6923,4.7665,-0.06441,3.7821,-1.9231,2.8758,3.8188,3.7283,1.8413,4.8025,6.6667,10.513,0.89314,6.6351,-0.97087,2.7432
7.4843,11.492,13.528,-2.8846,-0.06536,1.7308,3.8003,-1.9968,3.7821,-2.8846,-0.06536,2.8479,5.624,7.5556,7.6461,10.513,14.359,-6.7624,0.94787,0.0,4.6571
12.201,12.444,14.498,-0.96154,3.8562,5.5769,9.5974,-1.9968,8.5897,-0.96154,3.8562,6.7314,5.624,7.5556,11.438,12.436,17.243999,-1.9777,10.427,1.9417,7.5279
9.3711,8.6349,12.557,0.0,4.8366,2.6923,10.564,-1.9968,11.474,0.0,4.8366,4.7896,5.624,3.746,9.5419,11.474,15.321,1.8501,15.166,0.97087,10.399
0.8805,10.54,7.7023,0.0,4.8366,-3.0769,9.5974,-3.9291,8.5897,0.0,4.8366,-0.06472,4.6761,5.6508,5.7504,7.6282,11.474,0.89314,8.5308,2.9126,7.5279
-1.9497,21.016001,3.8188,-0.96154,0.91503,-5.0,1.868,-2.963,4.7436,-0.96154,0.91503,-3.9482,3.7283,4.6984,2.9068,7.6282,7.6282,-1.9777,-0.94787,0.0,4.6571
-6.6667,0.06349,-9.7735,-1.9231,-1.0458,-7.8846,-2.963,-1.9968,0.89744,-1.9231,-1.0458,-8.8026,-1.0111,-1.0159,-5.624,0.89744,-2.9487,-1.9777,1.8957,-6.7961,4.6571
-13.27,-17.079,-21.424,-3.8462,-6.9281,-11.731,-11.659,1.868,-3.9103,-3.8462,-6.9281,-14.628,-7.6461,-5.7778,-12.259,-7.7564,-14.487,-4.8485,0.0,-6.7961,-2.9984
-14.214,-17.079,-24.337,-2.8846,-7.9085,-10.769,-11.659,-0.06441,-10.641,-2.8846,-7.9085,-13.657,-7.6461,-5.7778,-15.103,-12.564,-19.295,-12.504,-10.427,-7.767,-8.74
-12.327,-27.556,-25.306999,-4.8077,-9.8693,-7.8846,-21.32,-3.9291,-8.7179,-4.8077,-9.8693,-13.657,-4.8025,-6.7302,-12.259,-17.372,-21.218,-2.9346,-11.374,-3.8835,-14.482
-5.7233,-24.698,-16.57,0.0,-4.9673,-4.0385,-18.422001,-0.06441,-5.8333,0.0,-4.9673,-8.8026,-2.9068,-3.873,-7.5197,-12.564,-14.487,5.6778,-5.6872,-1.9417,-10.654
-2.8931,-13.27,-6.8608,1.9231,-4.9673,-0.19231,-11.659,3.8003,-6.7949,1.9231,-4.9673,-3.9482,-2.9068,-1.9683,-5.624,-8.7179,-7.7564,0.89314,-10.427,-2.9126,-11.611
6.5409,2.9206,6.7314,0.96154,-1.0458,8.4615,-2.963,3.8003,-8.7179,0.96154,-1.0458,3.8188,0.88468,2.7937,1.0111,-2.9487,1.859,4.7209,-11.374,0.97087,-8.74
6.5409,-1.8413,8.6731,0.0,-3.0065,5.5769,-2.963,4.7665,-7.7564,0.0,-3.0065,1.877,2.7804,-0.06349,1.9589,-1.9872,4.7436,0.89314,-9.4787,0.97087,-6.8262
2.7673,-1.8413,6.7314,0.96154,-3.9869,-0.19231,-1.9968,3.8003,-7.7564,0.96154,-3.9869,-1.0356,1.8325,-1.9683,1.9589,0.89744,5.7051,-1.9777,-7.5829,1.9417,-5.8692
2.7673,-4.6984,0.90615,1.9231,-2.0261,-3.0769,-4.8953,0.90177,-3.9103,1.9231,-2.0261,-2.9773,2.7804,0.88889,3.8547,0.89744,4.7436,3.764,-5.6872,4.8544,-2.9984
-2.8931,-15.175,-6.8608,-0.96154,-1.0458,-4.0385,-2.963,-1.0306,-0.0641,-0.96154,-1.0458,-3.9482,-1.9589,-1.0159,-1.8325,-4.8718,-2.9487,-1.9777,0.94787,0.0,-2.9984
-3.8365,-3.746,-5.89,0.96154,-0.06536,-1.1538,3.8003,-1.9968,-1.9872,0.96154,-0.06536,0.90615,0.88468,0.88889,-3.7283,-5.8333,-7.7564,1.8501,-0.94787,2.9126,-3.9553
-5.7233,-7.5556,-9.7735,0.96154,0.91503,-2.1154,-1.9968,-1.9968,-0.0641,0.96154,0.91503,-1.0356,-1.0111,-1.0159,-7.5197,-5.8333,-13.526,1.8501,-0.94787,0.97087,-1.0845
-5.7233,13.397,-8.8026,0.0,3.8562,-2.1154,2.8341,-1.9968,1.859,0.0,3.8562,0.90615,-3.8547,0.88889,-9.4155,-0.0641,-12.564,-3.8915,-4.7393,-4.8544,6.571
-8.5535,2.9206,-13.657,-1.9231,-0.06536,-2.1154,1.868,-4.8953,-0.0641,-1.9231,-0.06536,-1.0356,-4.8025,1.8413,-12.259,-2.9487,-13.526,-9.6332,0.94787,-7.767,-0.12759
-5.7233,-7.5556,-10.744,0.0,0.91503,-1.1538,-1.0306,-3.9291,0.89744,0.0,0.91503,-0.06472,-2.9068,-0.06349,-8.4676,-2.9487,-9.6795,-5.8054,7.5829,-4.8544,-0.12759
-2.8931,0.06349,-2.0065,-2.8846,-2.0261,-1.1538,0.90177,-1.9968,-2.9487,-2.8846,-2.0261,1.877,-0.06319,0.88889,-3.7283,-1.9872,-4.8718,-0.0638,1.8957,-2.9126,0.82935
2.7673,-6.6032,2.8479,-5.7692,-5.9477,0.76923,-3.9291,-3.9291,-6.7949,-5.7692,-5.9477,-0.06472,0.88468,2.7937,-0.88468,-2.9487,-1.0256,3.764,-1.8957,-1.9417,-0.12759
4.6541,-8.5079,4.7896,-8.6538,-10.85,2.6923,-10.692,-2.963,-8.7179,-8.6538,-10.85,-2.9773,-0.06319,-1.9683,3.8547,-1.9872,2.8205,-1.0207,-4.7393,3.8835,-0.12759
8.4277,-8.5079,6.7314,-3.8462,-7.9085,3.6538,-8.7601,-1.0306,-9.6795,-3.8462,-7.9085,-1.0356,4.6761,-0.06349,9.5419,0.89744,8.5897,6.6348,-6.6351,8.7379,-2.0415
13.145,11.492,13.528,0.96154,-4.9673,6.5385,-5.8615,4.7665,-8.7179,0.96154,-4.9673,4.7896,9.4155,0.88889,14.281,5.7051,14.359,2.807,-18.957001,8.7379,-2.9984
11.258,-3.746,9.644,0.0,-4.9673,5.5769,-9.7262,5.7327,-7.7564,0.0,-4.9673,3.8188,1.8325,-1.9683,10.49,-2.9487,8.5897,4.7209,-10.427,4.8544,-8.74
4.6541,-18.983999,1.877,-1.9231,-6.9281,2.6923,-7.7939,3.8003,-6.7949,-1.9231,-6.9281,-1.0356,-2.9068,-5.7778,2.9068,-11.603,-0.0641,5.6778,-1.8957,1.9417,-14.482
3.7107,-4.6984,2.8479,0.96154,-1.0458,3.6538,-0.06441,5.7327,-2.9487,0.96154,-1.0458,1.877,-1.0111,-8.6349,1.0111,-7.7564,0.89744,7.5917,-4.7393,0.97087,-11.611
0.8805,-5.6508,-4.9191,0.96154,-1.0458,0.76923,-1.9968,3.8003,-1.0256,0.96154,-1.0458,-0.06472,0.88468,-5.7778,0.06319,-7.7564,-3.9103,8.5486,-2.8436,2.9126,-6.8262
-9.4969,-5.6508,-16.57,-0.96154,-2.0261,-6.9231,-5.8615,1.868,-1.9872,-0.96154,-2.0261,-7.8317,-8.594,-9.5873,-10.363,-13.526,-16.41,-0.0638,-6.6351,-2.9126,-5.8692
-14.214,-0.88889,-20.452999,0.0,-1.0458,-9.8077,-0.06441,1.868,-1.9872,0.0,-1.0458,-8.8026,-12.385,-9.5873,-16.997999,-15.449,-23.141001,-2.9346,-5.6872,-9.7087,-6.8262
-13.27,-1.8413,-19.482,0.96154,-0.06536,-5.0,-3.9291,2.8341,1.859,0.96154,-0.06536,-5.89,-8.594,-6.7302,-16.997999,-10.641,-23.141001,-1.9777,2.8436,-9.7087,-2.0415
-7.6101,-6.6032,-13.657,0.0,0.91503,0.76923,-3.9291,3.8003,3.7821,0.0,0.91503,-1.0356,-10.49,-3.873,-16.051001,-4.8718,-19.295,-0.0638,4.7393,-11.65,3.7002
-5.7233,-2.7937,-4.9191,0.0,-1.0458,4.6154,0.90177,0.90177,2.8205,0.0,-1.0458,3.8188,-8.594,-2.9206,-11.311,-2.9487,-12.564,-6.7624,3.7915,-8.7379,1.7863
0.8805,4.8254,5.7605,3.8462,3.8562,9.4231,6.6989,4.7665,2.8205,3.8462,3.8562,9.644,-3.8547,-4.8254,-1.8325,1.859,-2.9487,0.89314,5.6872,-0.97087,3.7002
1.8239,6.7302,6.7314,3.8462,1.8954,5.5769,2.8341,4.7665,1.859,3.8462,1.8954,7.7023,-0.06319,-1.0159,1.9589,3.7821,1.859,4.7209,-0.94787,-1.9417,2.7432
5.5975,14.349,10.615,3.8462,3.8562,6.5385,9.5974,4.7665,1.859,3.8462,3.8562,8.6731,0.88468,4.6984,4.8025,4.7436,7.6282,5.6778,5.6872,-1.9417,5.614
10.314,12.444,12.557,2.8846,1.8954,8.4615,9.5974,6.6989,4.7436,2.8846,1.8954,7.7023,6.5719,5.6508,12.385,8.5897,13.397,1.8501,7.5829,4.8544,6.571
9.3711,2.9206,8.6731,3.8462,0.91503,4.6154,2.8341,4.7665,1.859,3.8462,0.91503,2.8479,4.6761,-0.06349,12.385,8.5897,12.436,7.5917,2.8436,10.68,5.614
6.5409,-9.4603,4.7896,0.96154,-1.0458,3.6538,-1.0306,0.90177,-1.0256,0.96154,-1.0458,-2.0065,1.8325,-0.06349,8.594,2.8205,6.6667,5.6778,2.8436,7.767,2.7432
7.4843,-6.6032,6.7314,0.0,1.8954,0.76923,-1.0306,1.868,0.89744,0.0,1.8954,-1.0356,-0.06319,2.7937,8.594,-1.0256,4.7436,6.6348,0.0,4.8544,-1.0845
4.6541,1.0159,7.7023,0.0,0.91503,-3.0769,-1.9968,0.90177,3.7821,0.0,0.91503,-2.0065,-1.0111,-0.06349,5.7504,-0.0641,2.8205,5.6778,-6.6351,0.97087,0.82935
0.8805,-0.88889,3.8188,0.96154,2.8758,-4.0385,2.8341,-5.8615,4.7436,0.96154,2.8758,-2.9773,-2.9068,-2.9206,-0.88468,-2.9487,-2.9487,-1.0207,0.0,-1.9417,-0.12759
-4.7799,2.9206,-1.0356,1.9231,2.8758,-7.8846,2.8341,-3.9291,6.6667,1.9231,2.8758,-3.9482,-3.8547,-1.9683,-5.624,-2.9487,-4.8718,-4.8485,1.8957,-3.8835,-1.0845
-1.0063,14.349,3.8188,3.8462,7.7778,-1.1538,15.395,1.868,10.513,3.8462,7.7778,2.8479,1.8325,2.7937,-1.8325,3.7821,0.89744,-0.0638,11.374,0.0,6.571
-0.06289,17.205999,4.7896,2.8846,8.7582,0.76923,13.462,-0.06441,13.397,2.8846,8.7582,5.7605,0.88468,1.8413,-2.7804,6.6667,0.89744,-1.9777,12.322,-1.9417,8.4848
-5.7233,6.7302,-0.06472,-0.96154,5.817,-4.0385,8.6312,-3.9291,12.436,-0.96154,5.817,0.90615,-4.8025,-1.9683,-6.5719,3.7821,-1.0256,-3.8915,15.166,-6.7961,6.571
-5.7233,6.7302,-1.0356,-1.9231,2.8758,-5.0,10.564,-5.8615,8.5897,-1.9231,2.8758,-1.0356,-0.06319,3.746,-5.624,5.7051,0.89744,-2.9346,11.374,-4.8544,8.4848
-4.7799,5.7778,-0.06472,-3.8462,-1.0458,-5.9615,-0.06441,-4.8953,7.6282,-3.8462,-1.0458,-4.9191,3.7283,5.6508,-3.7283,7.6282,3.7821,-9.6332,5.6872,-3.8835,6.571
-1.0063,5.7778,5.7605,-0.96154,0.91503,-2.1154,0.90177,-4.8953,5.7051,-0.96154,0.91503,-1.0356,2.7804,4.6984,-1.8325,8.5897,6.6667,-8.6762,7.5829,-5.8252,7.5279
2.7673,11.492,13.528,-0.96154,1.8954,2.6923,2.8341,-3.9291,4.7436,-0.96154,1.8954,3.8188,6.5719,8.5079,2.9068,15.321,12.436,-6.7624,5.6872,-3.8835,8.4848
8.4277,18.159,16.440001,-1.9231,2.8758,4.6154,5.7327,-2.963,1.859,-1.9231,2.8758,6.7314,8.4676,8.5079,8.594,15.321,15.321,2.807,1.8957,2.9126,11.356
4.6541,1.9683,6.7314,-3.8462,-1.0458,0.76923,1.868,-0.06441,1.859,-3.8462,-1.0458,2.8479,5.624,6.6032,6.6983,9.5513,10.513,2.807,9.4787,4.8544,14.226
0.8805,1.0159,1.877,0.0,1.8954,-0.19231,4.7665,0.90177,3.7821,0.0,1.8954,2.8479,4.6761,8.5079,2.9068,10.513,6.6667,2.807,3.7915,1.9417,12.313
-4.7799,-5.6508,-4.9191,-0.96154,1.8954,-2.1154,-0.06441,-3.9291,3.7821,-0.96154,1.8954,-0.06472,2.7804,4.6984,-0.88468,2.8205,-0.0641,-2.9346,5.6872,0.0,-1.0845
-5.7233,-17.079,-11.715,0.0,-2.0261,-6.9231,-7.7939,-6.8277,-1.0256,0.0,-2.0261,-4.9191,-2.9068,-1.9683,-2.7804,-4.8718,-6.7949,-3.8915,0.94787,0.0,-7.7831
-4.7799,-14.222,-13.657,-2.8846,-4.9673,-8.8462,-8.7601,-3.9291,-5.8333,-2.8846,-4.9673,-7.8317,-3.8547,-1.9683,-1.8325,-5.8333,-10.641,-2.9346,-5.6872,2.9126,-5.8692
-3.8365,-11.365,-12.686,-2.8846,-2.0261,-6.9231,-3.9291,-1.0306,-5.8333,-2.8846,-2.0261,-6.8608,-1.0111,-0.06349,-2.7804,-3.9103,-11.603,2.807,-3.7915,0.97087,-1.0845
-1.9497,2.9206,-6.8608,-0.96154,-1.0458,-2.1154,-3.9291,-0.06441,-1.0256,-0.96154,-1.0458,-3.9482,3.7283,2.7937,0.06319,-0.0641,-6.7949,3.764,-12.322,2.9126,-2.0415
-2.8931,-2.7937,-6.8608,-1.9231,0.91503,-2.1154,-5.8615,-3.9291,2.8205,-1.9231,0.91503,-2.9773,-3.8547,-1.9683,-2.7804,-4.8718,-7.7564,0.89314,-5.6872,-0.97087,-6.8262
-1.0063,-3.746,-4.9191,0.0,0.91503,-2.1154,-1.0306,-1.0306,1.859,0.0,0.91503,-2.9773,-6.6983,-5.7778,-2.7804,-8.7179,-6.7949,-3.8915,-0.94787,-3.8835,-4.9123
2.7673,-2.7937,-1.0356,0.96154,0.91503,0.76923,-0.06441,2.8341,1.859,0.96154,0.91503,-2.0065,-1.0111,-1.0159,1.0111,-3.9103,-1.0256,-1.0207,4.7393,-0.97087,-4.9123
3.7107,-0.88889,1.877,-0.96154,-0.06536,0.76923,1.868,3.8003,-0.0641,-0.96154,-0.06536,-2.0065,-0.06319,-1.0159,3.8547,-2.9487,2.8205,4.7209,0.94787,2.9126,-7.7831
3.7107,-2.7937,2.8479,-2.8846,-3.0065,1.7308,0.90177,3.8003,-2.9487,-2.8846,-3.0065,-2.9773,-1.9589,-4.8254,3.8547,-2.9487,3.7821,5.6778,-2.8436,3.8835,-4.9123
6.5409,1.0159,6.7314,0.96154,-1.0458,4.6154,-2.963,2.8341,-1.0256,0.96154,-1.0458,0.90615,1.8325,-3.873,5.7504,-1.0256,6.6667,5.6778,0.0,2.9126,-1.0845
7.4843,25.778,12.557,4.8077,1.8954,6.5385,2.8341,5.7327,-0.0641,4.8077,1.8954,5.7605,3.7283,-0.06349,5.7504,3.7821,9.5513,-1.9777,-10.427,0.0,-2.0415
-0.06289,3.873,2.8479,2.8846,1.8954,2.6923,4.7665,4.7665,2.8205,2.8846,1.8954,3.8188,-9.5419,-9.5873,-4.6761,-5.8333,-1.9872,1.8501,0.94787,-8.7379,-3.9553
-2.8931,-12.317,-5.89,1.9231,1.8954,2.6923,2.8341,3.8003,7.6282,1.9231,1.8954,1.877,-9.5419,-7.6825,-7.5197,-10.641,-8.7179,3.764,9.4787,-7.767,-2.9984
-5.7233,1.9683,-5.89,3.8462,3.8562,-1.1538,6.6989,1.868,0.89744,3.8462,3.8562,0.90615,-8.594,-6.7302,-8.4676,-8.7179,-11.603,-1.9777,2.8436,-3.8835,-2.9984
-10.44,-6.6032,-10.744,1.9231,0.91503,-4.0385,-2.963,0.90177,2.8205,1.9231,0.91503,-3.9482,-13.333,-9.5873,-13.207,-11.603,-17.372,-3.8915,2.8436,-10.68,-4.9123
-3.8365,-8.5079,-5.89,2.8846,3.8562,0.76923,-1.9968,3.8003,4.7436,2.8846,3.8562,-0.06472,-2.9068,-1.0159,-7.5197,-5.8333,-10.641,-1.0207,4.7393,-5.8252,-0.12759
-0.06289,4.8254,0.90615,-0.96154,-1.0458,2.6923,1.868,3.8003,-3.9103,-0.96154,-1.0458,1.877,-2.9068,-0.06349,-0.88468,-7.7564,-5.8333,0.89314,-7.5829,-0.97087,-4.9123
5.5975,2.9206,5.7605,0.96154,1.8954,2.6923,1.868,2.8341,-1.9872,0.96154,1.8954,3.8188,-2.9068,-3.873,4.8025,-5.8333,2.8205,2.807,-6.6351,3.8835,-3.9553
4.6541,-9.4603,6.7314,0.0,-0.06536,2.6923,-5.8615,-1.0306,1.859,0.0,-0.06536,1.877,-0.06319,-1.0159,7.6461,-2.9487,9.5513,-5.8054,0.94787,4.8544,-3.9553
2.7673,-11.365,4.7896,-0.96154,-1.0458,0.76923,-7.7939,-0.06441,-1.0256,-0.96154,-1.0458,-1.0356,0.88468,-1.9683,7.6461,-2.9487,10.513,-0.0638,0.94787,3.8835,-2.9984
4.6541,-0.88889,4.7896,1.9231,-0.06536,-0.19231,-5.8615,1.868,-1.0256,1.9231,-0.06536,-1.0356,7.5197,3.746,10.49,1.859,12.436,4.7209,-1.8957,7.767,2.7432
4.6541,1.0159,3.8188,-0.96154,-0.06536,-2.1154,-1.0306,-2.963,0.89744,-0.96154,-0.06536,-2.0065,8.4676,3.746,10.49,5.7051,14.359,2.807,-2.8436,9.7087,1.7863
2.7673,-1.8413,-1.0356,-3.8462,-3.9869,-2.1154,-3.9291,-4.8953,-1.0256,-3.8462,-3.9869,-3.9482,6.5719,1.8413,6.6983,1.859,8.5897,3.764,-3.7915,7.767,-2.9984
-1.0063,-1.8413,-4.9191,-4.8077,-3.9869,-5.0,-6.8277,-4.8953,-0.0641,-4.8077,-3.9869,-6.8608,9.4155,8.5079,3.8547,2.8205,4.7436,-0.0638,1.8957,5.8252,-0.12759
-2.8931,2.9206,-6.8608,-4.8077,-5.9477,-6.9231,-0.06441,-5.8615,-5.8333,-4.8077,-5.9477,-5.89,1.8325,2.7937,-1.8325,-1.0256,-1.9872,-0.0638,-3.7915,1.9417,0.82935
-7.6101,-9.4603,-11.715,-4.8077,-5.9477,-8.8462,-5.8615,-4.8953,-2.9487,-4.8077,-5.9477,-7.8317,-3.8547,-1.9683,-6.5719,-4.8718,-9.6795,-6.7624,0.0,0.0,-1.0845
-1.0063,0.06349,-3.9482,0.0,-0.06536,-1.1538,0.90177,-0.06441,0.89744,0.0,-0.06536,1.877,-1.0111,-0.06349,-3.7283,0.89744,-7.7564,-2.9346,2.8436,0.0,4.6571
3.7107,4.8254,2.8479,0.96154,0.91503,8.4615,6.6989,2.8341,-0.0641,0.96154,0.91503,8.6731,-0.06319,1.8413,-1.8325,-0.0641,-7.7564,1.8501,2.8436,0.0,3.7002
-2.8931,6.7302,4.7896,0.96154,2.8758,2.6923,8.6312,-1.0306,1.859,0.96154,2.8758,8.6731,-2.9068,2.7937,-7.5197,1.859,-8.7179,-0.0638,2.8436,-5.8252,8.4848
-2.8931,14.349,8.6731,0.96154,1.8954,1.7308,9.5974,-2.963,2.8205,0.96154,1.8954,7.7023,-1.0111,5.6508,-5.624,5.7051,-2.9487,-3.8915,5.6872,-5.8252,7.5279
2.7673,12.444,11.586,1.9231,2.8758,3.6538,8.6312,-3.9291,1.859,1.9231,2.8758,9.644,7.5197,13.27,1.0111,10.513,5.7051,-0.0638,3.7915,0.97087,7.5279
1.8239,8.6349,8.6731,-2.8846,-1.0458,1.7308,2.8341,-4.8953,-1.0256,-2.8846,-1.0458,5.7605,5.624,8.5079,1.9589,8.5897,6.6667,-2.9346,0.0,0.97087,4.6571
3.7107,-0.88889,6.7314,-2.8846,-1.0458,0.76923,1.868,-5.8615,-1.9872,-2.8846,-1.0458,3.8188,4.6761,4.6984,3.8547,8.5897,8.5897,-4.8485,4.7393,0.97087,7.5279
1.8239,-2.7937,3.8188,-3.8462,-3.9869,-1.1538,-1.9968,-3.9291,-3.9103,-3.8462,-3.9869,-0.06472,9.4155,9.4603,5.7504,10.513,10.513,-2.9346,1.8957,2.9126,5.614
5.5975,3.873,5.7605,0.0,-2.0261,1.7308,-1.0306,1.868,-5.8333,0.0,-2.0261,1.877,9.4155,8.5079,9.5419,11.474,13.397,5.6778,-1.8957,7.767,2.7432
8.4277,-2.7937,3.8188,0.0,-3.0065,5.5769,-7.7939,4.7665,-2.9487,0.0,-3.0065,1.877,7.5197,5.6508,11.438,6.6667,10.513,4.7209,-4.7393,10.68,1.7863
8.4277,-4.6984,-0.06472,3.8462,-1.0458,9.4231,-3.9291,5.7327,-1.9872,3.8462,-1.0458,3.8188,4.6761,-0.06349,9.5419,1.859,6.6667,9.5056,1.8957,9.7087,-0.12759
6.5409,-0.88889,-1.0356,6.7308,2.8758,10.385,4.7665,7.6651,-1.0256,6.7308,2.8758,4.7896,3.7283,-2.9206,6.6983,-1.0256,2.8205,6.6348,0.94787,6.7961,-2.0415
6.5409,14.349,5.7605,10.577,6.7974,9.4231,8.6312,8.6312,1.859,10.577,6.7974,8.6731,0.88468,1.8413,4.8025,3.7821,3.7821,3.764,-5.6872,2.9126,7.5279
-0.06289,1.9683,3.8188,7.6923,2.8758,3.6538,4.7665,4.7665,1.859,7.6923,2.8758,6.7314,-4.8025,-1.9683,-2.7804,1.859,-2.9487,2.807,5.6872,-1.9417,4.6571
-5.7233,-6.6032,-1.0356,1.9231,-1.0458,-1.1538,-0.06441,-0.06441,-0.0641,1.9231,-1.0458,1.877,-2.9068,-0.06349,-7.5197,-0.0641,-8.7179,-1.0207,5.6872,-3.8835,2.7432
-3.8365,9.5873,2.8479,0.96154,1.8954,-0.19231,6.6989,-1.0306,-1.9872,0.96154,1.8954,4.7896,1.8325,7.5556,-6.5719,3.7821,-3.9103,-3.8915,0.0,-1.9417,6.571
-2.8931,7.6825,2.8479,-1.9231,0.91503,2.6923,8.6312,-0.06441,-1.0256,-1.9231,0.91503,4.7896,1.8325,5.6508,-4.6761,3.7821,-0.0641,-0.0638,1.8957,0.97087,-0.12759
0.8805,6.7302,9.644,0.96154,3.8562,6.5385,9.5974,0.90177,3.7821,0.96154,3.8562,8.6731,2.7804,1.8413,-1.8325,4.7436,4.7436,3.764,8.5308,-0.97087,2.7432
6.5409,18.159,20.323999,3.8462,2.8758,9.4231,7.6651,5.7327,2.8205,3.8462,2.8758,12.557,1.8325,-1.0159,2.9068,4.7436,10.513,4.7209,-1.8957,0.97087,4.6571
13.145,16.254,23.236,3.8462,2.8758,10.385,2.8341,3.8003,-0.0641,3.8462,2.8758,11.586,2.7804,-0.06349,9.5419,5.7051,16.282,7.5917,-0.94787,0.97087,3.7002
14.088,5.7778,17.410999,-0.96154,-0.06536,9.4231,1.868,2.8341,1.859,-0.96154,-0.06536,5.7605,4.6761,6.6032,12.385,6.6667,18.205,2.807,-1.8957,1.9417,1.7863
11.258,-6.6032,6.7314,1.9231,0.91503,3.6538,4.7665,2.8341,2.8205,1.9231,0.91503,0.90615,2.7804,2.7937,11.438,2.8205,14.359,0.89314,3.7915,3.8835,-0.12759
1.8239,-8.5079,-3.9482,0.96154,-2.0261,-4.0385,-2.963,4.7665,-1.0256,0.96154,-2.0261,-6.8608,-2.9068,-5.7778,5.7504,-3.9103,7.6282,0.89314,0.94787,-1.9417,-6.8262
-1.9497,-9.4603,-6.8608,0.0,-3.0065,-8.8462,-8.7601,2.8341,-4.8718,0.0,-3.0065,-10.744,0.88468,-1.9683,3.8547,-1.9872,6.6667,5.6778,-6.6351,-1.9417,-6.8262
-4.7799,-9.4603,-7.8317,-4.8077,-8.8889,-12.692,-9.7262,-3.9291,-6.7949,-4.8077,-8.8889,-14.628,2.7804,-0.06349,1.9589,-1.0256,2.8205,2.807,-6.6351,0.97087,-2.9984
-6.6667,1.0159,-9.7735,-9.6154,-8.8889,-12.692,-11.659,-6.8277,-6.7949,-9.6154,-8.8889,-15.599,2.7804,1.8413,1.0111,-1.0256,-1.9872,0.89314,-11.374,2.9126,-1.0845
-14.214,-14.222,-19.482,-12.5,-11.83,-17.5,-19.388,-9.7262,-7.7564,-12.5,-11.83,-21.424,-1.0111,-1.9683,-4.6761,-6.7949,-11.603,-1.0207,-9.4787,3.8835,-5.8692
-16.101,-22.794001,-21.424,-12.5,-12.81,-18.462,-15.523,-9.7262,-8.7179,-12.5,-12.81,-20.452999,0.88468,1.8413,-5.624,-4.8718,-12.564,-2.9346,-1.8957,3.8835,-1.0845
-11.384,-8.5079,-13.657,-10.577,-10.85,-14.615,-11.659,-11.659,-9.6795,-10.577,-10.85,-15.599,0.88468,-2.9206,-5.624,-2.9487,-8.7179,-7.7193,-0.94787,0.0,-0.12759
-10.44,-5.6508,-9.7735,-8.6538,-6.9281,-12.692,-7.7939,-8.7601,-6.7949,-8.6538,-6.9281,-11.715,-5.7504,-3.873,-9.4155,-5.8333,-9.6795,-8.6762,0.0,-5.8252,-0.12759
-4.7799,3.873,-1.0356,-5.7692,-1.0458,-6.9231,1.868,-1.9968,-1.0256,-5.7692,-1.0458,-3.9482,-4.8025,-0.06349,-5.624,-2.9487,-4.8718,1.8501,0.0,-2.9126,1.7863
-1.0063,17.205999,4.7896,-0.96154,-0.06536,-1.1538,4.7665,1.868,-1.0256,-0.96154,-0.06536,1.877,-1.9589,0.88889,-0.88468,1.859,-1.0256,5.6778,-5.6872,0.0,4.6571
1.8239,-1.8413,1.877,1.9231,2.8758,1.7308,2.8341,0.90177,-0.0641,1.9231,2.8758,3.8188,2.7804,5.6508,1.0111,1.859,-1.0256,5.6778,4.7393,1.9417,3.7002
-1.0063,-7.5556,-2.9773,-0.96154,1.8954,2.6923,-1.0306,-0.06441,4.7436,-0.96154,1.8954,3.8188,1.8325,2.7937,1.0111,2.8205,-1.9872,-2.9346,6.6351,2.9126,4.6571
2.7673,2.9206,-2.0065,1.9231,3.8562,4.6154,5.7327,-0.06441,3.7821,1.9231,3.8562,5.7605,5.624,3.746,4.8025,6.6667,-0.0641,1.8501,2.8436,6.7961,2.7432
4.6541,4.8254,-0.06472,1.9231,2.8758,8.4615,8.6312,3.8003,3.7821,1.9231,2.8758,6.7314,8.4676,9.4603,7.6461,11.474,1.859,0.89314,4.7393,8.7379,5.614
5.5975,11.492,3.8188,2.8846,2.8758,7.5,4.7665,1.868,0.89744,2.8846,2.8758,6.7314,9.4155,6.6032,8.594,10.513,3.7821,-0.0638,-8.5308,9.7087,6.571
2.7673,1.9683,3.8188,1.9231,0.91503,4.6154,-1.9968,-3.9291,0.89744,1.9231,0.91503,2.8479,5.624,5.6508,5.7504,2.8205,0.89744,-0.0638,-1.8957,4.8544,-2.0415
2.7673,-0.88889,3.8188,1.9231,2.8758,2.6923,-1.9968,-3.9291,2.8205,1.9231,2.8758,1.877,3.7283,5.6508,3.8547,3.7821,2.8205,1.8501,1.8957,2.9126,-2.9984
-0.06289,-10.413,-2.0065,0.96154,0.91503,-2.1154,-1.0306,0.90177,1.859,0.96154,0.91503,-2.0065,-1.9589,-1.0159,1.0111,-0.0641,-0.0641,0.89314,5.6872,0.0,1.7863
2.7673,-7.5556,-4.9191,2.8846,1.8954,-0.19231,-1.9968,3.8003,2.8205,2.8846,1.8954,-2.9773,-2.9068,-3.873,1.0111,-1.9872,-1.0256,2.807,2.8436,0.0,-0.12759
-1.0063,-5.6508,-2.9773,5.7692,2.8758,1.7308,-2.963,3.8003,2.8205,5.7692,2.8758,-1.0356,-6.6983,-8.6349,-3.7283,-3.9103,-3.9103,-1.0207,-2.8436,-7.767,-2.0415
-3.8365,0.06349,-0.06472,5.7692,2.8758,2.6923,-1.0306,2.8341,-1.0256,5.7692,2.8758,1.877,-9.5419,-8.6349,-8.4676,-6.7949,-6.7949,-5.8054,-8.5308,-11.65,-2.0415
-5.7233,-5.6508,-3.9482,0.0,-3.9869,-1.1538,-6.8277,-0.06441,-7.7564,0.0,-3.9869,-2.9773,-6.6983,-5.7778,-10.363,-11.603,-11.603,-3.8915,-8.5308,-7.767,-8.74
-4.7799,-9.4603,-5.89,-4.8077,-6.9281,-1.1538,-10.692,-3.9291,-7.7564,-4.8077,-6.9281,-5.89,-2.9068,-2.9206,-7.5197,-9.6795,-10.641,-0.0638,-7.5829,-4.8544,-7.7831
-5.7233,-13.27,-10.744,-6.7308,-6.9281,-1.1538,-7.7939,-5.8615,-8.7179,-6.7308,-6.9281,-5.89,-5.7504,-5.7778,-7.5197,-12.564,-13.526,-1.9777,-5.6872,-6.7961,-10.654
-5.7233,-12.317,-11.715,-2.8846,-4.9673,-5.9615,-4.8953,-1.9968,-3.9103,-2.8846,-4.9673,-7.8317,2.7804,2.7937,-2.7804,-5.8333,-8.7179,-1.9777,-1.8957,0.0,-7.7831
-5.7233,-3.746,-8.8026,-3.8462,-3.0065,-11.731,-1.0306,-3.9291,-4.8718,-3.8462,-3.0065,-9.7735,4.6761,4.6984,0.06319,3.7821,-0.0641,-1.9777,-1.8957,2.9126,3.7002
-4.7799,7.6825,-2.9773,-8.6538,-7.9085,-12.692,-6.8277,-9.7262,-5.8333,-8.6538,-7.9085,-10.744,2.7804,0.88889,1.0111,7.6282,4.7436,-3.8915,-5.6872,3.8835,8.4848
-5.7233,-5.6508,-2.0065,-7.6923,-7.9085,-12.692,-12.625,-10.692,-4.8718,-7.6923,-7.9085,-10.744,5.624,2.7937,-1.8325,4.7436,2.8205,-10.59,-0.94787,0.97087,0.82935
-8.5535,-3.746,-2.0065,-6.7308,-5.9477,-6.9231,-4.8953,-7.7939,-2.9487,-6.7308,-5.9477,-3.9482,5.624,6.6032,-6.5719,2.8205,-1.0256,-12.504,-2.8436,-5.8252,-2.0415
-3.8365,5.7778,0.90615,0.96154,5.817,1.7308,6.6989,-2.963,3.7821,0.96154,5.817,5.7605,-1.0111,0.88889,-7.5197,-0.0641,-2.9487,-0.0638,0.94787,-6.7961,-1.0845
-0.06289,2.9206,1.877,3.8462,5.817,4.6154,8.6312,-1.0306,8.5897,3.8462,5.817,7.7023,-3.8547,-4.8254,-3.7283,-1.0256,-1.0256,1.8501,3.7915,-2.9126,-0.12759
-2.8931,-4.6984,0.90615,0.0,2.8758,-1.1538,9.5974,-4.8953,5.7051,0.0,2.8758,3.8188,-3.8547,-7.6825,-6.5719,-5.8333,-2.9487,-5.8054,2.8436,-6.7961,-4.9123
2.7673,5.7778,7.7023,-0.96154,3.8562,1.7308,3.8003,-0.06441,6.6667,-0.96154,3.8562,5.7605,5.624,2.7937,1.0111,-0.0641,3.7821,-3.8915,0.94787,1.9417,-4.9123
9.3711,14.349,13.528,0.0,6.7974,7.5,13.462,0.90177,3.7821,0.0,6.7974,9.644,15.103,12.317,9.5419,9.5513,9.5513,-1.0207,4.7393,12.621,4.6571
10.314,1.9683,7.7023,-2.8846,1.8954,7.5,4.7665,-1.9968,5.7051,-2.8846,1.8954,3.8188,9.4155,5.6508,11.438,7.6282,7.6282,3.764,6.6351,12.621,5.614
9.3711,1.9683,5.7605,0.0,0.91503,5.5769,-1.9968,-0.06441,3.7821,0.0,0.91503,0.90615,4.6761,4.6984,12.385,8.5897,8.5897,6.6348,0.94787,8.7379,5.614
5.5975,-3.746,1.877,0.0,-2.0261,2.6923,-5.8615,2.8341,0.89744,0.0,-2.0261,-1.0356,1.8325,1.8413,9.5419,6.6667,5.7051,5.6778,3.7915,4.8544,0.82935
7.4843,5.7778,3.8188,3.8462,-1.0458,7.5,-0.06441,5.7327,-0.0641,3.8462,-1.0458,2.8479,3.7283,-0.06349,8.594,8.5897,5.7051,7.5917,-1.8957,6.7961,0.82935
4.6541,4.8254,1.877,2.8846,-0.06536,4.6154,-0.06441,7.6651,0.89744,2.8846,-0.06536,2.8479,6.5719,7.5556,4.8025,6.6667,2.8205,8.5486,0.0,3.8835,-0.12759
-1.0063,-3.746,-4.9191,1.9231,-1.0458,-0.19231,-4.8953,6.6989,0.89744,1.9231,-1.0458,-2.9773,1.8325,5.6508,-1.8325,2.8205,-2.9487,4.7209,2.8436,0.97087,2.7432
-7.6101,-3.746,-8.8026,-0.96154,-1.0458,-4.0385,-1.9968,0.90177,-1.9872,-0.96154,-1.0458,-4.9191,-10.49,-7.6825,-10.363,-6.7949,-9.6795,-0.0638,3.7915,-9.7087,0.82935
-7.6101,1.9683,-4.9191,-2.8846,-3.9869,-5.0,-1.0306,-0.06441,-1.0256,-2.8846,-3.9869,-3.9482,-18.073,-15.302,-13.207,-9.6795,-11.603,-2.9346,1.8957,-14.563,-2.0415
-1.9497,5.7778,2.8479,0.96154,-0.06536,-2.1154,3.8003,1.868,4.7436,0.96154,-0.06536,-0.06472,-11.438,-12.444,-6.5719,-5.8333,-6.7949,2.807,1.8957,-7.767,-0.12759
0.8805,10.54,6.7314,-1.9231,-0.06536,0.76923,4.7665,1.868,3.7821,-1.9231,-0.06536,2.8479,-5.7504,-5.7778,-0.88468,-1.9872,-1.0256,-1.0207,0.0,-4.8544,0.82935
4.6541,8.6349,7.7023,1.9231,2.8758,4.6154,4.7665,2.8341,2.8205,1.9231,2.8758,3.8188,-1.0111,-0.06349,2.9068,3.7821,3.7821,-0.0638,4.7393,-0.97087,4.6571
5.5975,2.9206,6.7314,2.8846,0.91503,8.4615,-0.06441,1.868,2.8205,2.8846,0.91503,4.7896,-0.06319,1.8413,5.7504,2.8205,5.7051,-0.0638,5.6872,-0.97087,0.82935
6.5409,1.0159,8.6731,4.8077,1.8954,4.6154,-1.0306,4.7665,-0.0641,4.8077,1.8954,5.7605,-3.8547,-1.0159,5.7504,2.8205,7.6282,3.764,0.0,-1.9417,2.7432
4.6541,-2.7937,8.6731,2.8846,0.91503,2.6923,-1.9968,4.7665,-0.0641,2.8846,0.91503,4.7896,-2.9068,-2.9206,5.7504,1.859,7.6282,2.807,0.94787,-1.9417,0.82935
7.4843,1.9683,10.615,2.8846,3.8562,5.5769,1.868,3.8003,-2.9487,2.8846,3.8562,6.7314,4.6761,0.88889,8.594,4.7436,10.513,5.6778,1.8957,3.8835,6.571
6.5409,7.6825,8.6731,3.8462,2.8758,4.6154,1.868,3.8003,-1.0256,3.8462,2.8758,5.7605,4.6761,3.746,8.594,5.7051,8.5897,5.6778,-2.8436,5.8252,5.614
0.8805,-5.6508,-0.06472,3.8462,1.8954,-2.1154,-4.8953,1.868,0.89744,3.8462,1.8954,-1.0356,4.6761,3.746,2.9068,-0.0641,3.7821,1.8501,0.94787,3.8835,-4.9123
-1.0063,-10.413,-2.0065,1.9231,-0.06536,-4.0385,-4.8953,-1.0306,1.859,1.9231,-0.06536,-3.9482,1.8325,-2.9206,1.0111,-4.8718,-0.0641,-1.0207,1.8957,2.9126,-9.697
-1.0063,9.5873,0.90615,0.0,-0.06536,-3.0769,4.7665,-1.0306,0.89744,0.0,-0.06536,-1.0356,-2.9068,-5.7778,-0.88468,-7.7564,-1.9872,-0.0638,-2.8436,0.97087,-7.7831
-5.7233,0.06349,-3.9482,-3.8462,-3.9869,-8.8462,-1.0306,-0.06441,-1.0256,-3.8462,-3.9869,-6.8608,-1.9589,-3.873,-2.7804,-7.7564,-6.7949,4.7209,0.94787,1.9417,-3.9553
-5.7233,1.0159,-5.89,-4.8077,-5.9477,-9.8077,-3.9291,-1.0306,-2.9487,-4.8077,-5.9477,-9.7735,-1.9589,-4.8254,-2.7804,-5.8333,-7.7564,5.6778,-10.427,4.8544,-1.0845
-5.7233,-6.6032,-10.744,-6.7308,-7.9085,-8.8462,-5.8615,-2.963,-5.8333,-6.7308,-7.9085,-11.715,-3.8547,-5.7778,-4.6761,-5.8333,-9.6795,-0.0638,-2.8436,0.0,-2.0415
-6.6667,-8.5079,-11.715,-8.6538,-9.8693,-7.8846,-5.8615,-1.9968,-5.8333,-8.6538,-9.8693,-11.715,-1.0111,0.88889,-3.7283,-3.9103,-7.7564,2.807,2.8436,0.0,-2.0415
-2.8931,-3.746,-5.89,-4.8077,-5.9477,-5.9615,-2.963,-1.0306,-1.0256,-4.8077,-5.9477,-7.8317,4.6761,4.6984,0.06319,1.859,-2.9487,2.807,2.8436,3.8835,-0.12759
-1.0063,-4.6984,-3.9482,-4.8077,-6.9281,-4.0385,-6.8277,-2.963,-1.9872,-4.8077,-6.9281,-6.8608,5.624,1.8413,1.0111,2.8205,-1.0256,-5.8054,2.8436,3.8835,0.82935
1.8239,2.9206,-1.0356,-1.9231,-3.0065,-1.1538,-0.06441,-1.0306,-2.9487,-1.9231,-3.0065,-1.0356,0.88468,-1.0159,0.06319,3.7821,-1.0256,-1.0207,-0.94787,0.97087,4.6571
0.8805,8.6349,-2.0065,0.0,-2.0261,3.6538,2.8341,1.868,-0.0641,0.0,-2.0261,0.90615,-1.9589,-1.0159,-0.88468,0.89744,-1.9872,3.764,-2.8436,0.97087,0.82935
-1.0063,3.873,-2.9773,3.8462,2.8758,2.6923,5.7327,2.8341,0.89744,3.8462,2.8758,1.877,-1.9589,-1.0159,-1.8325,-1.0256,-3.9103,4.7209,-2.8436,2.9126,0.82935
-2.8931,-0.88889,-3.9482,1.9231,3.8562,2.6923,1.868,1.868,2.8205,1.9231,3.8562,2.8479,-5.7504,-3.873,-5.624,-2.9487,-7.7564,-1.9777,0.0,-4.8544,0.82935
-0.06289,-0.88889,-1.0356,4.8077,4.8366,4.6154,3.8003,2.8341,2.8205,4.8077,4.8366,5.7605,-4.8025,-2.9206,-7.5197,-2.9487,-8.7179,-1.9777,0.0,-7.767,2.7432
-1.9497,-2.7937,0.90615,6.7308,3.8562,4.6154,8.6312,3.8003,1.859,6.7308,3.8562,7.7023,-2.9068,-3.873,-6.5719,-5.8333,-8.7179,-2.9346,0.94787,-5.8252,-2.9984
-1.0063,-8.5079,-1.0356,6.7308,7.7778,3.6538,3.8003,1.868,4.7436,6.7308,7.7778,6.7314,-0.06319,0.88889,-6.5719,-6.7949,-6.7949,-0.0638,5.6872,-3.8835,-5.8692
-3.8365,-4.6984,-3.9482,3.8462,3.8562,-0.19231,-1.0306,0.90177,3.7821,3.8462,3.8562,0.90615,-5.7504,-2.9206,-8.4676,-6.7949,-7.7564,-5.8054,0.94787,-6.7961,-3.9553
-2.8931,-0.88889,-4.9191,3.8462,4.8366,-0.19231,3.8003,-1.0306,4.7436,3.8462,4.8366,-0.06472,-8.594,-4.8254,-7.5197,-5.8333,-5.8333,-5.8054,0.94787,-5.8252,-0.12759
0.8805,15.302,0.90615,3.8462,4.8366,0.76923,6.6989,0.90177,3.7821,3.8462,4.8366,1.877,-0.06319,0.88889,-1.8325,-1.0256,-0.0641,0.89314,-2.8436,-2.9126,-0.12759
-1.9497,1.9683,-2.0065,0.96154,2.8758,-4.0385,1.868,0.90177,4.7436,0.96154,2.8758,-2.0065,1.8325,0.88889,-1.8325,-2.9487,-0.0641,-1.9777,4.7393,-1.9417,0.82935
-2.8931,2.9206,-2.0065,-1.9231,-0.06536,-4.0385,0.90177,-2.963,1.859,-1.9231,-0.06536,-3.9482,2.7804,-1.9683,0.06319,-1.0256,0.89744,-0.0638,-0.94787,1.9417,-1.0845
-1.9497,-2.7937,-3.9482,-0.96154,-2.0261,-3.0769,-1.9968,-1.9968,-0.0641,-0.96154,-2.0261,-4.9191,1.8325,-2.9206,1.0111,-1.9872,-0.0641,-1.0207,-3.7915,1.9417,-3.9553
-5.7233,-14.222,-8.8026,-0.96154,-2.0261,-5.9615,-4.8953,-1.0306,-1.0256,-0.96154,-2.0261,-6.8608,-1.9589,-4.8254,-3.7283,-5.8333,-3.9103,-4.8485,3.7915,-1.9417,-5.8692
-5.7233,-4.6984,-6.8608,-1.9231,-4.9673,-5.0,-2.963,-1.9968,-6.7949,-1.9231,-4.9673,-5.89,-1.0111,-1.0159,-1.8325,-1.9872,-2.9487,-0.0638,-2.8436,1.9417,-2.9984
-3.8365,-2.7937,-4.9191,0.0,-3.9869,-2.1154,-8.7601,-4.8953,-4.8718,0.0,-3.9869,-4.9191,1.8325,3.746,0.06319,-1.0256,-1.0256,-0.0638,-2.8436,3.8835,0.82935
-5.7233,3.873,-3.9482,-2.8846,-4.9673,-1.1538,-3.9291,-3.9291,-0.0641,-2.8846,-4.9673,-3.9482,1.8325,2.7937,-1.8325,1.859,-1.0256,-2.9346,0.94787,-1.9417,1.7863
-1.9497,4.8254,0.90615,0.96154,2.8758,0.76923,5.7327,-1.9968,1.859,0.96154,2.8758,1.877,-2.9068,-0.06349,-0.88468,0.89744,0.89744,-1.0207,3.7915,-3.8835,2.7432
2.7673,3.873,5.7605,6.7308,6.7974,6.5385,5.7327,2.8341,5.7051,6.7308,6.7974,7.7023,-4.8025,-3.873,1.9589,0.89744,2.8205,-1.9777,2.8436,0.0,4.6571
12.201,1.9683,11.586,10.577,8.7582,16.153999,8.6312,5.7327,3.7821,10.577,8.7582,13.528,-0.06319,-0.06349,4.8025,2.8205,3.7821,3.764,2.8436,1.9417,4.6571
7.4843,1.9683,6.7314,9.6154,3.8562,15.192,3.8003,7.6651,1.859,9.6154,3.8562,13.528,-0.06319,-0.06349,1.0111,0.89744,-0.0641,1.8501,-1.8957,-0.97087,-0.12759
4.6541,1.9683,2.8479,12.5,9.7386,13.269,9.5974,8.6312,3.7821,12.5,9.7386,14.498,-0.06319,-1.0159,-1.8325,1.859,-1.0256,-0.0638,0.94787,-2.9126,1.7863
8.4277,-0.88889,5.7605,12.5,12.68,15.192,9.5974,8.6312,6.6667,12.5,12.68,15.469,0.88468,1.8413,2.9068,1.859,2.8205,1.8501,8.5308,-1.9417,0.82935
12.201,3.873,10.615,15.385,13.66,15.192,12.496,10.564,4.7436,15.385,13.66,17.410999,2.7804,3.746,6.6983,1.859,7.6282,1.8501,3.7915,0.97087,-1.0845
13.145,9.5873,14.498,16.346001,12.68,15.192,9.5974,12.496,6.6667,16.346001,12.68,16.440001,3.7283,-0.06349,9.5419,3.7821,11.474,5.6778,1.8957,3.8835,-2.9984
15.975,20.063,17.410999,14.423,12.68,16.153999,14.428,14.428,6.6667,14.423,12.68,17.410999,0.88468,-2.9206,13.333,2.8205,15.321,9.5056,-1.8957,6.7961,-1.0845
12.201,10.54,11.586,8.6538,9.7386,10.385,8.6312,7.6651,5.7051,8.6538,9.7386,11.586,1.8325,-1.9683,12.385,-1.9872,11.474,8.5486,-4.7393,5.8252,-4.9123
9.3711,-3.746,4.7896,4.8077,8.7582,5.5769,2.8341,2.8341,9.5513,4.8077,8.7582,4.7896,2.7804,0.88889,9.5419,-1.9872,5.7051,7.5917,6.6351,5.8252,-2.0415
2.7673,-4.6984,-2.0065,2.8846,2.8758,0.76923,-1.0306,0.90177,3.7821,2.8846,2.8758,-1.0356,-4.8025,-7.6825,2.9068,-2.9487,-1.9872,2.807,4.7393,0.97087,2.7432
-1.9497,-7.5556,-7.8317,0.0,-3.0065,-4.0385,-6.8277,-0.06441,-1.0256,0.0,-3.0065,-5.89,-8.594,-8.6349,-1.8325,-4.8718,-7.7564,-2.9346,3.7915,-1.9417,-1.0845
-5.7233,1.0159,-5.89,-3.8462,-4.9673,-7.8846,1.868,-4.8953,-7.7564,-3.8462,-4.9673,-5.89,-4.8025,-3.873,-2.7804,-1.9872,-7.7564,0.89314,3.7915,-0.97087,0.82935
-6.6667,6.7302,-1.0356,-7.6923,-7.9085,-8.8462,0.90177,-8.7601,-2.9487,-7.6923,-7.9085,-5.89,2.7804,4.6984,-0.88468,5.7051,-2.9487,-1.0207,-1.8957,0.0,4.6571
-7.6101,15.302,3.8188,-10.577,-5.9477,-9.8077,-1.0306,-10.692,-4.8718,-10.577,-5.9477,-3.9482,0.88468,4.6984,-1.8325,8.5897,2.8205,-7.7193,-6.6351,-1.9417,8.4848
-6.6667,-1.8413,1.877,-11.538,-8.8889,-9.8077,-7.7939,-11.659,-3.9103,-11.538,-8.8889,-6.8608,3.7283,8.5079,0.06319,12.436,6.6667,-10.59,2.8436,-0.97087,9.4418
-2.8931,-12.317,0.90615,-6.7308,-6.9281,-7.8846,-6.8277,-10.692,-1.9872,-6.7308,-6.9281,-6.8608,11.311,15.175,3.8547,13.397,12.436,-2.9346,9.4787,3.8835,8.4848
-3.8365,-2.7937,-0.06472,-5.7692,-5.9477,-5.9615,-5.8615,-5.8615,-1.0256,-5.7692,-5.9477,-5.89,7.5197,9.4603,2.9068,10.513,10.513,-3.8915,1.8957,2.9126,6.571
-1.0063,-1.8413,-1.0356,-0.96154,-1.0458,-0.19231,-2.963,-2.963,1.859,-0.96154,-1.0458,-2.0065,4.6761,6.6032,0.06319,7.6282,8.5897,-1.9777,0.0,0.97087,4.6571
3.7107,0.06349,0.90615,0.96154,2.8758,5.5769,2.8341,3.8003,7.6282,0.96154,2.8758,2.8479,4.6761,4.6984,2.9068,5.7051,6.6667,-0.0638,5.6872,0.0,4.6571
-2.8931,3.873,-2.9773,2.8846,3.8562,2.6923,6.6989,8.6312,6.6667,2.8846,3.8562,1.877,-5.7504,-7.6825,-4.6761,-5.8333,-2.9487,-0.0638,0.0,-5.8252,-2.9984
-2.8931,6.7302,-2.9773,5.7692,2.8758,3.6538,6.6989,9.5974,5.7051,5.7692,2.8758,0.90615,-4.8025,-7.6825,-5.624,-6.7949,-5.8333,2.807,-1.8957,-3.8835,-5.8692
2.7673,3.873,-0.06472,5.7692,4.8366,4.6154,8.6312,9.5974,8.5897,5.7692,4.8366,2.8479,-1.0111,-2.9206,0.06319,-2.9487,-1.0256,6.6348,6.6351,2.9126,-5.8692
1.8239,-3.746,-1.0356,11.538,12.68,4.6154,4.7665,8.6312,15.321,11.538,12.68,2.8479,-1.0111,-1.9683,1.9589,-1.0256,-1.0256,2.807,8.5308,2.9126,-2.9984
6.5409,2.9206,5.7605,20.191999,22.483999,9.4231,8.6312,12.496,18.205,20.191999,22.483999,8.6731,1.8325,-1.0159,6.6983,5.7051,4.7436,-0.0638,6.6351,6.7961,2.7432
8.4277,6.7302,7.7023,25.962,26.405001,10.385,11.53,13.462,16.282,25.962,26.405001,10.615,-0.06319,-1.9683,7.6461,5.7051,6.6667,7.5917,5.6872,6.7961,5.614
11.258,15.302,10.615,40.384998,39.150002,16.153999,16.361,19.259001,21.09,40.384998,39.150002,16.440001,3.7283,2.7937,10.49,10.513,8.5897,13.333,1.8957,9.7087,10.399
13.145,23.872999,14.498,57.692001,61.699001,24.808001,30.853001,26.023001,33.59,57.692001,61.699001,27.120001,5.624,4.6984,10.49,8.5897,8.5897,13.333,7.5829,10.68,8.4848
19.747999,19.111,16.440001,75.0,74.444,34.423,34.717999,31.82,38.396999,75.0,74.444,35.858002,7.5197,8.5079,12.385,6.6667,8.5897,14.29,12.322,9.7087,3.7002
17.862,10.54,16.440001,89.422997,85.228996,37.307999,33.751999,37.617001,41.282001,89.422997,85.228996,38.77,3.7283,7.5556,10.49,9.5513,8.5897,12.376,12.322,6.7961,7.5279
14.088,11.492,15.469,92.307999,89.150002,35.384998,39.549,35.683998,41.282001,92.307999,89.150002,39.741001,-4.8025,-3.873,6.6983,4.7436,3.7821,11.419,10.427,1.9417,5.614
16.917999,15.302,16.440001,93.268997,92.092003,37.307999,43.414001,32.785999,43.205002,93.268997,92.092003,42.653999,-3.8547,-4.8254,5.7504,1.859,3.7821,7.5917,4.7393,0.0,0.82935
15.031,20.063,15.469,91.346001,92.092003,36.346001,40.514999,34.717999,47.050999,91.346001,92.092003,41.682999,-3.8547,-5.7778,4.8025,-1.0256,2.8205,1.8501,4.7393,0.97087,0.82935
13.145,14.349,12.557,83.653999,85.228996,30.577,38.583,29.886999,41.282001,83.653999,85.228996,36.827999,-1.0111,-1.9683,4.8025,-1.0256,2.8205,8.5486,9.4787,3.8835,-0.12759
13.145,22.921,15.469,72.114998,74.444,26.731001,35.683998,26.023001,39.359001,72.114998,74.444,33.916,8.4676,9.4603,11.438,7.6282,9.5513,13.333,8.5308,10.68,4.6571
16.917999,15.302,12.557,62.5,68.561996,23.846001,33.751999,21.191999,40.320999,62.5,68.561996,30.032,8.4676,9.4603,13.333,9.5513,11.474,12.376,14.218,9.7087,9.4418
8.4277,7.6825,8.6731,44.230999,48.953999,17.115,23.124001,13.462,29.743999,44.230999,48.953999,20.323999,3.7283,1.8413,7.6461,8.5897,7.6282,1.8501,9.4787,4.8544,4.6571
7.4843,8.6349,11.586,34.615002,38.169998,16.153999,22.158001,8.6312,15.321,34.615002,38.169998,18.382,2.7804,3.746,5.7504,8.5897,7.6282,2.807,7.5829,3.8835,6.571
3.7107,3.873,8.6731,22.115,25.424999,5.5769,10.564,6.6989,12.436,22.115,25.424999,9.644,1.8325,7.5556,2.9068,2.8205,3.7821,-2.9346,5.6872,0.97087,5.614
0.8805,6.7302,4.7896,8.6538,12.68,-3.0769,0.90177,1.868,5.7051,8.6538,12.68,2.8479,-1.0111,-0.06349,1.0111,1.859,1.859,-5.8054,-1.8957,0.0,3.7002
-1.0063,13.397,2.8479,-3.8462,-0.06536,-8.8462,-3.9291,-3.9291,-2.9487,-3.8462,-0.06536,-3.9482,4.6761,3.746,2.9068,5.7051,4.7436,0.89314,-1.8957,3.8835,7.5279
-4.7799,-5.6508,-2.9773,-14.423,-10.85,-14.615,-9.7262,-10.692,-4.8718,-14.423,-10.85,-12.686,6.5719,8.5079,1.9589,1.859,3.7821,1.8501,2.8436,1.9417,5.614
-9.4969,-12.317,-7.8317,-27.885,-21.634001,-21.346001,-15.523,-18.422001,-10.641,-27.885,-21.634001,-21.424,0.88468,3.746,-2.7804,-3.9103,-1.0256,-1.9777,0.0,-1.9417,0.82935
-10.44,-12.317,-11.715,-37.5,-34.379002,-23.268999,-21.32,-20.354,-17.372,-37.5,-34.379002,-26.278,-4.8025,-2.9206,-6.5719,-6.7949,-5.8333,-6.7624,1.8957,-6.7961,-2.9984
-13.27,-13.27,-15.599,-42.307999,-40.261002,-23.268999,-23.253,-21.32,-23.141001,-42.307999,-40.261002,-28.219999,-4.8025,-2.9206,-10.363,-5.8333,-10.641,-11.547,-0.94787,-5.8252,-0.12759
-20.818001,-10.413,-20.452999,-49.037998,-47.124001,-28.077,-22.287001,-26.150999,-30.833,-49.037998,-47.124001,-30.162001,-7.6461,-2.9206,-17.945999,-7.7564,-17.372,-16.332001,-12.322,-10.68,-1.0845
-14.214,2.9206,-11.715,-44.230999,-43.202999,-22.308001,-15.523,-21.32,-26.025999,-44.230999,-43.202999,-21.424,-7.6461,-2.9206,-16.051001,-2.9487,-11.603,-7.7193,-10.427,-11.65,2.7432
-9.4969,-3.746,-8.8026,-44.230999,-46.144001,-16.538,-24.219,-16.49,-25.063999,-44.230999,-46.144001,-17.540001,-6.6983,-4.8254,-10.363,-4.8718,-9.6795,-3.8915,-9.4787,-8.7379,-1.0845
-4.7799,-19.937,-9.7735,-44.230999,-47.124001,-11.731,-26.150999,-13.591,-28.91,-44.230999,-47.124001,-15.599,-8.594,-6.7302,-7.5197,-13.526,-12.564,0.89314,-5.6872,-5.8252,-9.697
-1.9497,-18.032,-7.8317,-41.346001,-47.124001,-5.9615,-22.287001,-8.7601,-31.795,-41.346001,-47.124001,-10.744,-10.49,-9.5873,-5.624,-14.487,-12.564,2.807,-8.5308,-4.8544,-8.74
0.8805,-14.222,-5.89,-41.346001,-45.162998,-5.0,-18.422001,-8.7601,-29.872,-41.346001,-45.162998,-9.7735,-9.5419,-13.397,-3.7283,-13.526,-8.7179,0.89314,-7.5829,-5.8252,-8.74
3.7107,-8.5079,0.90615,-43.269001,-47.124001,-2.1154,-19.388,-8.7601,-27.948999,-43.269001,-47.124001,-7.8317,-5.7504,-10.54,1.9589,-11.603,-0.0641,2.807,-12.322,-2.9126,-15.439
0.8805,-11.365,0.90615,-42.307999,-45.162998,-5.9615,-19.388,-8.7601,-27.948999,-42.307999,-45.162998,-9.7735,-3.8547,-6.7302,2.9068,-11.603,3.7821,2.807,-11.374,0.0,-15.439
-0.06289,0.06349,0.90615,-42.307999,-45.162998,-9.8077,-15.523,-9.7262,-26.987,-42.307999,-45.162998,-10.744,-1.9589,-4.8254,4.8025,-6.7949,5.7051,-3.8915,-16.114,2.9126,-9.697
-3.8365,-9.4603,-5.89,-42.307999,-44.182999,-13.654,-22.287001,-14.557,-23.141001,-42.307999,-44.182999,-15.599,-0.06319,-4.8254,1.9589,-3.9103,2.8205,-1.9777,-10.427,2.9126,-6.8262
-6.6667,-21.841,-10.744,-42.307999,-43.202999,-15.577,-25.184999,-17.455999,-21.218,-42.307999,-43.202999,-19.482,2.7804,0.88889,-3.7283,-3.9103,-3.9103,-1.0207,-1.8957,-2.9126,-7.7831
-2.8931,-15.175,-5.89,-38.462002,-39.280998,-9.8077,-18.422001,-13.591,-19.295,-38.462002,-39.280998,-12.686,-1.9589,2.7937,-4.6761,-4.8718,-7.7564,-1.0207,-1.8957,-4.8544,-2.9984
-3.8365,-9.4603,-2.0065,-41.346001,-38.300999,-8.8462,-16.49,-12.625,-18.333,-41.346001,-38.300999,-10.744,-9.5419,-7.6825,-8.4676,-10.641,-12.564,-2.9346,-4.7393,-7.767,-6.8262
-2.8931,7.6825,3.8188,-41.346001,-36.34,-6.9231,-5.8615,-12.625,-16.41,-41.346001,-36.34,-6.8608,-4.8025,-4.8254,-6.5719,-5.8333,-6.7949,-9.6332,-2.8436,-5.8252,-3.9553
-6.6667,2.9206,-0.06472,-43.269001,-40.261002,-13.654,-5.8615,-17.455999,-21.218,-43.269001,-40.261002,-11.715,5.624,7.5556,-3.7283,1.859,-0.0641,-13.461,0.0,-3.8835,0.82935
-12.327,-2.7937,-4.9191,-46.153999,-45.162998,-22.308001,-17.455999,-26.150999,-21.218,-46.153999,-45.162998,-20.452999,9.4155,11.365,-1.8325,7.6282,3.7821,-13.461,-0.94787,0.0,4.6571
-13.27,-7.5556,-4.9191,-47.115002,-43.202999,-29.038,-20.354,-30.016001,-19.295,-47.115002,-43.202999,-25.306999,12.259,14.222,0.06319,13.397,8.5897,-9.6332,3.7915,1.9417,9.4418
