C3,C4,Cz,F1,F2,F3,F4,F7,F8,Fp1,Fp2,Fz,O1,O2,P3,P4,Pz,T3,T4,T5,T6
-15.849,-1.1429,-9.7561,-0.71197,-2.6144,-6.7642,4.5089,-0.06441,-11.068,-0.71197,-2.6144,-6.6007,-13.902,-5.1429,-17.650999,-6.4412,-12.238,-0.12821,1.3333,-13.725,-1.4103
-13.962,-19.556,-19.511999,-12.362,-7.1895,-5.4634,-28.986,-3.285,29.709,-12.362,-7.1895,-13.201,-17.694,-8.9524,-18.285999,-14.815,-18.68,0.51282,-3.746,-13.725,-5.8974
-4.5283,-4.3175,-9.7561,3.8188,-1.3072,-1.561,-2.5765,-1.9968,-14.304,3.8188,-1.3072,-5.9406,-15.166,-7.0476,-12.571,-7.7295,-11.594,0.51282,-3.1111,-8.4967,-2.0513
-0.75472,-6.2222,-6.5041,5.7605,-5.2288,-1.561,-14.171,9.5974,7.055,5.7605,-5.2288,-9.901,-13.27,-7.6825,-6.2222,-6.4412,-8.3736,4.359,-2.4762,-4.5752,-6.5385
5.5346,0.7619,0.65041,7.055,1.9608,15.35,2.5765,7.0209,-6.5372,7.055,1.9608,0.0,-12.638,-7.6825,-1.1429,-3.2206,-3.8647,2.4359,0.06349,-1.9608,-4.6154
2.3899,5.2063,-4.5528,-4.5955,-6.5359,-4.1626,-8.3736,-2.6409,3.8188,-4.5955,-6.5359,-3.9604,-16.43,-12.762,-4.3175,-7.7295,-9.6618,6.9231,-5.0159,-3.9216,-9.7436
4.2767,-8.7619,-5.2033,7.7023,10.458,8.1951,3.8647,1.2238,8.9968,7.7023,10.458,5.2805,-15.166,-13.397,-3.6825,-10.95,-10.306,12.692,1.9683,-0.65359,-7.8205
5.5346,-1.7778,0.0,5.7605,9.1503,16.0,6.4412,8.3092,-0.06472,5.7605,9.1503,8.5809,-15.798,-15.302,0.12698,-9.6618,-6.4412,9.4872,-5.6508,0.0,-10.385
13.082,7.746,5.2033,14.822,13.072,-4.813,34.783001,5.7327,-25.306999,14.822,13.072,11.881,-12.006,-13.397,5.8413,-5.153,-1.2882,5.0,1.3333,1.3072,-10.385
5.5346,-1.7778,6.5041,5.1133,13.072,14.699,5.7971,1.868,25.177999,5.1133,13.072,8.5809,-6.951,-7.0476,5.2063,-0.64412,1.9324,-0.12821,7.6825,0.65359,-3.9744
4.9057,7.1111,4.5528,6.4078,11.765,-1.561,3.8647,17.971001,32.298,6.4078,11.765,8.5809,-7.5829,-8.3175,1.3968,-0.64412,0.0,1.1538,4.5079,-1.3072,-3.9744
-3.8994,5.8413,-1.9512,5.1133,11.111,10.797,17.391001,-0.06441,4.466,5.1133,11.111,5.2805,-8.8468,-7.6825,-8.127,-1.2882,-4.5089,-5.8974,8.9524,-6.5359,-1.4103
0.50314,5.2063,1.3008,5.1133,11.765,12.748,6.4412,-7.1498,15.469,5.1133,11.765,3.3003,-4.4234,-1.9683,-5.5873,3.8647,0.0,-3.9744,15.302,-4.5752,2.4359
-4.5283,2.0317,-2.6016,-5.89,5.2288,-13.268,1.9324,-9.7262,23.236,-5.89,5.2288,-1.9802,-5.0553,-2.6032,-5.5873,3.2206,-1.2882,-5.8974,20.381001,-5.8824,4.359
-5.1572,2.0317,-1.3008,-9.1262,3.268,-26.927,-6.4412,-11.659,30.356001,-9.1262,3.268,-3.3003,-4.4234,-0.69841,-4.3175,4.5089,0.0,-2.6923,15.302,-3.9216,5.0
-2.0126,2.6667,-0.65041,4.466,3.268,-0.26016,-2.5765,3.1562,10.939,4.466,3.268,-0.66007,-3.7915,-1.9683,-4.3175,3.2206,-1.2882,-5.2564,10.857,-2.6144,3.7179
-8.9308,-5.5873,-7.8049,1.877,-1.3072,12.098,-9.0177,5.7327,7.7023,1.877,-1.3072,-1.9802,-3.7915,-2.6032,-5.5873,-1.2882,-5.153,1.1538,7.6825,-2.6144,1.1538
0.50314,5.8413,-0.65041,8.3495,5.8824,-6.7642,5.153,7.6651,-1.3592,8.3495,5.8824,2.6403,-3.1596,-3.2381,-3.0476,1.2882,-2.5765,5.0,0.69841,-0.65359,0.51282
-2.6415,4.5714,2.6016,-11.068,1.3072,-4.813,7.0853,1.2238,-3.9482,-11.068,1.3072,2.6403,-3.7915,-0.69841,-2.4127,3.8647,0.0,-0.76923,5.1429,-1.9608,3.7179
-2.6415,-4.9524,-0.65041,7.7023,3.268,14.049,-8.3736,3.1562,14.175,7.7023,3.268,2.6403,-5.6872,-3.873,-2.4127,-0.64412,-2.5765,3.0769,1.9683,-1.3072,-0.76923
1.761,19.174999,3.9024,11.586,1.3072,14.049,21.9,21.836,-16.246,11.586,1.3072,5.9406,-5.0553,-6.4127,0.7619,1.9324,-1.2882,2.4359,-3.746,-1.9608,-5.8974
-3.8994,3.9365,1.3008,3.1715,5.2288,-8.065,23.833,-4.5733,-47.960999,3.1715,5.2288,4.6205,-3.7915,-6.4127,-3.0476,-4.5089,-3.2206,3.0769,-0.57143,0.0,-4.6154
-5.7862,-10.032,-1.9512,6.4078,-0.65359,-6.1138,-23.188,0.57971,45.889999,6.4078,-0.65359,-1.3201,-6.951,-8.9524,-8.127,-8.3736,-7.0853,-4.6154,-2.4762,-4.5752,-5.8974
-0.12579,5.8413,5.8537,9.644,9.8039,-5.4634,-4.5089,10.886,24.531,9.644,9.8039,7.2607,-5.0553,-7.0476,-5.5873,-2.5765,-1.9324,-4.6154,1.9683,-3.268,-4.6154
-6.4151,-3.0476,4.5528,2.5243,12.418,10.146,7.7295,-3.285,2.5243,2.5243,12.418,9.2409,-3.7915,-5.1429,-5.5873,-4.5089,-2.5765,-0.76923,3.2381,-2.6144,-3.9744
-1.3836,-0.50794,-2.6016,14.175,9.1503,7.5447,1.2882,6.3768,8.9968,14.175,9.1503,4.6205,-4.4234,-5.7778,-4.3175,-3.8647,-3.8647,-1.4103,2.6032,-3.268,-2.6923
-2.6415,24.889,-3.252,5.1133,8.4967,4.2927,26.409,2.5121,-18.834999,5.1133,8.4967,9.901,-3.1596,-3.873,-4.9524,0.0,-4.5089,-3.9744,-2.4762,-1.9608,-2.0513
-5.1572,-13.841,-9.7561,12.88,5.8824,-2.2114,-14.815,-0.06441,28.414,12.88,5.8824,0.0,-5.0553,-3.873,-6.8571,-7.7295,-9.0177,-9.7436,8.9524,-4.5752,-0.76923
-0.12579,-8.7619,-1.9512,17.410999,9.8039,13.398,-10.306,12.174,23.882999,17.410999,9.8039,3.3003,-3.1596,-0.69841,-3.0476,-2.5765,-1.9324,0.51282,12.127,-5.8824,3.7179
9.9371,16.0,11.057,7.7023,15.033,26.407,16.747,-2.6409,7.7023,7.7023,15.033,13.201,3.1596,5.6508,4.5714,6.4412,7.7295,-6.5385,10.857,-1.9608,9.4872
7.4214,0.7619,9.1057,8.3495,9.1503,-0.26016,0.64412,7.6651,12.233,8.3495,9.1503,7.2607,6.3191,5.6508,7.746,4.5089,7.0853,-4.6154,15.302,0.65359,9.4872
9.3082,16.635,13.659,10.291,7.1895,10.797,14.815,7.6651,1.2298,10.291,7.1895,11.881,8.2148,9.4603,12.825,10.95,11.594,-0.12821,15.302,1.9608,14.615
7.4214,0.12698,6.5041,7.7023,6.5359,2.9919,-3.8647,-5.2174,16.764,7.7023,6.5359,7.2607,3.7915,3.746,7.1111,3.2206,5.153,-0.12821,10.222,0.0,6.9231
9.9371,3.3016,7.8049,4.466,8.4967,10.146,-3.8647,-1.3527,23.882999,4.466,8.4967,7.2607,6.951,6.9206,9.6508,7.7295,8.3736,-2.6923,13.397,1.9608,8.8462
2.3899,22.349001,9.7561,5.1133,6.5359,5.5935,27.697001,-2.6409,-17.540001,5.1133,6.5359,9.901,6.3191,5.6508,7.1111,10.306,8.3736,-2.6923,6.4127,1.9608,8.8462
2.3899,5.8413,5.2033,-7.1845,0.65359,-3.5122,1.2882,-9.0821,25.177999,-7.1845,0.65359,3.3003,2.5276,-1.9683,5.8413,2.5765,1.9324,-3.9744,5.1429,3.268,0.51282
7.4214,0.12698,8.4553,-2.6537,0.0,4.2927,-8.3736,-8.438,1.2298,-2.6537,0.0,5.9406,5.6872,1.8413,10.286,3.2206,5.153,-2.0513,-1.8413,5.8824,3.7179
-2.6415,-11.302,-0.65041,-11.068,-16.993,-13.268,-19.968,-11.659,-3.301,-11.068,-16.993,-9.901,3.1596,-0.06349,4.5714,0.0,0.64412,-0.12821,-1.2063,5.8824,0.51282
-5.1572,-1.1429,-1.3008,-7.1845,-12.418,-10.016,-11.594,-4.5733,-5.89,-7.1845,-12.418,-8.5809,0.63191,-0.69841,0.7619,3.2206,0.64412,3.7179,-0.57143,5.2288,-0.12821
-3.2704,0.12698,-2.6016,-8.479,-10.458,-8.065,-9.0177,-3.9291,-14.304,-8.479,-10.458,-5.9406,-1.2638,-2.6032,-0.50794,1.2882,-1.2882,-0.12821,-5.0159,3.268,-1.4103
1.761,17.27,4.5528,0.58252,0.65359,2.3415,22.544001,-3.285,-4.5955,0.58252,0.65359,5.2805,1.2638,-0.69841,2.6667,7.0853,3.2206,5.0,-3.1111,5.8824,0.51282
-0.75472,5.8413,6.5041,-3.301,3.9216,-6.1138,9.6618,0.57971,-7.8317,-3.301,3.9216,10.561,1.2638,1.2063,2.0317,7.7295,4.5089,-1.4103,2.6032,3.268,3.7179
-3.8994,-7.4921,1.9512,3.1715,-1.3072,10.146,-11.594,-4.5733,-7.1845,3.1715,-1.3072,-0.66007,-0.63191,-0.69841,-1.1429,3.2206,2.5765,-0.12821,-4.381,-1.9608,-1.4103
-0.12579,-1.1429,2.6016,-2.6537,-6.5359,-4.1626,-10.306,-5.8615,-11.715,-2.6537,-6.5359,-3.3003,0.0,-1.3333,-0.50794,3.2206,2.5765,-3.9744,-10.095,-1.3072,-4.6154
-7.044,-5.5873,-1.9512,-8.479,-7.1895,-6.7642,3.8647,-5.2174,-27.249001,-8.479,-7.1895,-3.3003,-5.0553,-7.0476,-6.8571,-3.2206,-4.5089,-7.8205,-16.444,-6.5359,-11.026
-8.9308,-4.9524,-5.8537,-1.3592,-9.8039,-0.91057,-1.2882,-11.659,-25.955,-1.3592,-9.8039,-0.66007,-9.4787,-12.762,-11.302,-9.6618,-10.306,-9.7436,-23.429001,-10.458,-15.513
-10.189,-20.825001,-9.1057,-10.421,-12.418,-6.1138,-27.052999,-14.879,2.5243,-10.421,-12.418,-6.6007,-12.006,-10.222,-13.206,-14.171,-11.594,-11.667,-17.079,-13.725,-16.153999
-5.1572,-11.302,-1.9512,-4.5955,-4.5752,-6.7642,-3.2206,-4.5733,-25.955,-4.5955,-4.5752,-1.3201,-7.5829,-1.9683,-7.4921,-9.6618,-5.7971,-10.385,-15.175,-11.111,-8.4615
-1.3836,-10.032,0.65041,5.7605,7.8431,6.2439,-5.153,4.4444,17.410999,5.7605,7.8431,3.9604,0.0,6.9206,-1.1429,-3.8647,-0.64412,-4.6154,-3.746,-6.5359,1.7949
14.34,35.682999,15.61,8.3495,18.301001,-4.1626,44.444,-2.6409,-42.136002,8.3495,18.301001,14.521,10.111,13.905,13.46,13.527,13.527,0.51282,-7.5556,5.8824,9.4872
10.566,-6.2222,7.8049,4.466,10.458,-2.8618,-5.7971,-5.8615,38.77,4.466,10.458,2.6403,12.006,15.175,16.635,10.306,13.527,-4.6154,13.397,9.1503,12.692
9.3082,-1.7778,7.8049,-0.06472,12.418,4.9431,-1.9324,-5.8615,20.646999,-0.06472,12.418,3.3003,8.2148,8.8254,12.825,8.3736,12.238,2.4359,10.222,5.8824,8.2051
12.453,16.0,13.008,-7.1845,5.2288,9.4959,9.0177,-16.167,-16.893,-7.1845,5.2288,2.6403,6.951,5.0159,14.095,14.171,15.459,-0.76923,-1.2063,7.8431,5.0
17.483999,23.618999,18.862,1.877,9.8039,-5.4634,9.0177,-7.1498,1.2298,1.877,9.8039,10.561,10.111,8.1905,19.809999,19.323999,21.256001,8.2051,8.9524,13.725,12.692
8.6792,14.095,9.7561,1.877,6.5359,6.2439,7.7295,5.7327,7.7023,1.877,6.5359,3.9604,5.0553,-1.3333,14.73,10.95,12.882,6.2821,-3.1111,12.418,1.7949
10.566,-7.4921,1.9512,6.4078,-1.9608,2.3415,-19.968,8.9533,-1.3592,6.4078,-1.9608,-2.6403,-1.8957,-9.5873,12.19,0.64412,5.7971,10.128,-1.2063,11.111,-5.2564
7.4214,-3.0476,5.8537,2.5243,-0.65359,10.146,-12.238,7.6651,-2.0065,2.5243,-0.65359,1.9802,-7.5829,-14.032,8.381,1.9324,5.153,13.333,-3.1111,7.1895,-7.1795
12.453,10.286,13.008,2.5243,4.5752,23.153999,10.306,-5.8615,-11.715,2.5243,4.5752,9.901,-6.951,-13.397,8.381,6.4412,8.3736,12.051,-12.0,4.5752,-8.4615
9.3082,21.079,14.309,18.705999,3.9216,1.6911,0.64412,27.632999,1.877,18.705999,3.9216,13.201,-0.63191,-6.4127,9.0159,11.594,11.594,19.743999,-5.6508,7.1895,-2.0513
0.50314,-13.841,-3.9024,4.466,-0.65359,2.9919,-12.882,11.53,-5.89,4.466,-0.65359,-1.3201,-2.5276,-7.6825,0.12698,-0.64412,-1.9324,5.641,-1.2063,3.268,-1.4103
-3.2704,-20.825001,-6.5041,14.822,-0.65359,14.049,-16.747,20.548,-15.599,14.822,-0.65359,2.6403,-4.4234,-10.222,-5.5873,-11.594,-9.6618,2.4359,-3.746,-1.3072,-5.2564
3.6478,-11.937,1.3008,21.294001,4.5752,3.6423,-16.103001,26.344999,20.0,21.294001,4.5752,12.541,0.0,-7.6825,-2.4127,-11.594,-7.7295,-0.76923,-5.6508,0.65359,-5.2564
-2.0126,-10.667,-3.9024,5.1133,-1.9608,6.8943,-8.3736,6.3768,-7.1845,5.1133,-1.9608,3.3003,-1.2638,-8.3175,-5.5873,-15.459,-10.95,1.1538,-11.365,-1.3072,-6.5385
-3.2704,-4.3175,-2.6016,7.055,1.3072,-1.561,-0.64412,3.1562,0.58252,7.055,1.3072,2.6403,3.1596,-2.6032,-4.3175,-10.306,-8.3736,4.359,-5.6508,-0.65359,-3.3333
-2.6415,8.381,-6.5041,-11.715,-3.268,9.4959,9.0177,-7.7939,-20.129,-11.715,-3.268,0.0,5.6872,2.4762,-6.2222,-4.5089,-7.0853,-4.6154,-4.381,0.65359,2.4359
-13.962,-15.746,-18.211,-7.1845,-10.458,-8.7154,-9.6618,-3.9291,-18.188,-7.1845,-10.458,-12.541,4.4234,5.6508,-10.032,-6.4412,-10.95,-9.7436,3.2381,-0.65359,5.0
-8.9308,-22.73,-17.561001,2.5243,-5.8824,-26.927,-27.052999,12.174,13.528,2.5243,-5.8824,-16.502001,5.6872,8.8254,-6.8571,-5.153,-7.7295,-12.949,5.1429,0.0,6.9231
-5.1572,5.8413,-6.5041,-8.479,-11.111,5.5935,1.9324,-7.7939,-18.188,-8.479,-11.111,-9.2409,8.8468,10.73,0.12698,1.9324,0.0,-9.1026,-1.2063,0.65359,6.9231
4.2767,-13.206,0.65041,-3.301,-1.9608,-6.1138,-12.882,-15.523,7.7023,-3.301,-1.9608,-7.2607,8.8468,8.8254,5.8413,-2.5765,1.9324,-0.12821,5.7778,6.5359,6.9231
1.1321,-3.0476,-1.3008,-6.5372,-5.2288,-17.171,3.2206,-7.7939,-25.955,-6.5372,-5.2288,-3.9604,4.4234,3.1111,2.6667,-5.7971,-1.9324,-4.6154,-6.9206,4.5752,-1.4103
-0.12579,-1.1429,-1.3008,3.8188,3.9216,-0.26016,21.9,-3.285,-15.599,3.8188,3.9216,1.3201,5.6872,2.4762,2.6667,-7.7295,-0.64412,3.0769,1.3333,7.1895,-0.76923
3.0189,-19.556,-5.8537,-2.6537,-3.9216,0.39024,-18.035,-14.235,20.0,-2.6537,-3.9216,-9.2409,6.3191,0.57143,5.8413,-11.594,-1.2882,-2.6923,-0.57143,9.1503,-5.2564
6.1635,-1.1429,3.9024,-11.715,-8.4967,-15.22,-12.882,-2.6409,3.1715,-11.715,-8.4967,-8.5809,10.111,6.9206,11.556,0.64412,7.0853,5.0,0.69841,11.765,3.0769
10.566,8.381,9.7561,-5.89,2.6144,8.8455,9.6618,-1.9968,9.644,-5.89,2.6144,0.0,6.951,6.9206,10.286,7.0853,9.0177,5.641,4.5079,9.1503,3.7179
4.2767,5.2063,2.6016,3.8188,1.3072,2.9919,-5.7971,-3.9291,-2.6537,3.8188,1.3072,-2.6403,4.4234,5.6508,5.2063,4.5089,5.153,1.7949,-5.6508,5.2288,2.4359
6.7925,0.12698,5.2033,-5.89,3.268,4.9431,3.8647,7.0209,-3.9482,-5.89,3.268,3.3003,5.0553,6.2857,5.2063,5.153,5.153,3.7179,3.2381,4.5752,3.7179
4.2767,9.6508,5.2033,10.939,0.65359,12.098,14.815,-2.6409,-14.951,10.939,0.65359,4.6205,4.4234,3.746,1.3968,3.8647,1.9324,3.0769,-3.1111,4.5752,-0.12821
-1.3836,38.222,3.9024,7.7023,-0.65359,6.2439,20.612,15.395,-27.896,7.7023,-0.65359,3.9604,3.1596,1.2063,-3.6825,5.153,-0.64412,2.4359,-13.905,1.3072,-3.9744
-1.3836,-12.571,-4.5528,-0.06472,-0.65359,-13.919,-15.459,4.4444,2.5243,-0.06472,-0.65359,-4.6205,3.1596,0.57143,-3.6825,-3.2206,-4.5089,-7.8205,-1.8413,-1.3072,-2.0513
-0.75472,-10.032,3.252,1.877,5.8824,14.049,4.5089,-0.06441,-5.89,1.877,5.8824,6.6007,3.7915,3.1111,-2.4127,-1.2882,-0.64412,-2.0513,1.9683,0.0,0.51282
-7.044,2.6667,0.0,-7.8317,-1.9608,-2.2114,0.64412,5.7327,-2.6537,-7.8317,-1.9608,3.3003,1.8957,4.381,-5.5873,0.64412,-1.2882,-3.3333,-5.6508,-3.9216,-1.4103
-11.447,-6.2222,-10.407,7.7023,2.6144,0.39024,-1.9324,5.7327,-5.2427,7.7023,2.6144,-1.9802,3.1596,8.8254,-6.2222,0.64412,-3.2206,-8.4615,0.69841,-3.268,5.0
-5.1572,6.4762,-11.707,-5.89,-3.268,-8.7154,4.5089,-9.7262,-12.362,-5.89,-3.268,-6.6007,2.5276,8.8254,-4.9524,4.5089,-1.9324,-0.76923,-1.2063,-3.268,5.0
-7.044,-6.8571,-4.5528,-6.5372,3.268,-11.317,-4.5089,-1.9968,1.877,-6.5372,3.268,-7.2607,2.5276,9.4603,-1.7778,6.4412,2.5765,-0.76923,8.3175,-3.268,7.5641
1.761,7.746,7.8049,6.4078,5.8824,0.39024,2.5765,7.6651,6.4078,6.4078,5.8824,1.9802,3.1596,12.0,4.5714,14.815,10.95,-4.6154,10.222,-3.268,9.4872
7.4214,9.6508,11.707,-2.6537,12.418,23.153999,13.527,-1.9968,32.945,-2.6537,12.418,9.901,3.1596,12.0,5.8413,14.815,12.238,-2.0513,16.570999,-3.9216,14.615
-0.12579,0.7619,3.9024,-0.71197,8.4967,5.5935,5.7971,-3.9291,14.822,-0.71197,8.4967,3.3003,-2.5276,4.381,-0.50794,4.5089,3.2206,-14.231,9.5873,-7.8431,6.2821
-2.6415,8.381,-1.9512,1.877,7.8431,-12.618,12.882,2.5121,-0.06472,1.877,7.8431,0.0,-3.7915,3.1111,-4.9524,5.7971,0.64412,-2.6923,12.762,-7.1895,7.5641
-14.591,0.7619,-13.008,-5.2427,5.2288,-0.91057,-1.2882,-1.3527,17.410999,-5.2427,5.2288,-5.9406,-6.3191,1.2063,-13.206,1.2882,-6.4412,-5.8974,8.9524,-8.4967,6.9231
-13.962,-11.937,-14.309,3.8188,5.8824,-0.91057,1.9324,-3.9291,8.3495,3.8188,5.8824,-5.2805,-9.4787,-3.873,-15.746,-5.153,-11.594,-12.308,4.5079,-9.8039,2.4359
-10.818,-9.3968,-9.7561,-1.3592,-1.3072,-6.7642,1.9324,-6.5056,1.2298,-1.3592,-1.3072,-6.6007,-8.8468,-4.5079,-11.937,-5.153,-8.3736,-5.2564,1.3333,-8.4967,-0.12821
-8.3019,-11.302,-10.407,-5.89,-9.8039,-11.967,-16.103001,1.2238,-3.9482,-5.89,-9.8039,-15.182,-3.7915,-1.3333,-5.5873,-2.5765,-3.2206,-0.12821,-5.0159,-1.9608,0.51282
-3.2704,-6.8571,-4.5528,1.877,-6.5359,-2.8618,-5.153,6.3768,-16.246,1.877,-6.5359,-10.561,-0.63191,-1.3333,0.7619,0.0,1.9324,6.2821,-5.6508,0.65359,-1.4103
4.9057,-0.50794,3.252,-1.3592,-3.9216,6.2439,10.306,2.5121,-14.304,-1.3592,-3.9216,-0.66007,0.63191,-1.3333,8.381,0.0,5.153,5.0,-6.9206,2.6144,-4.6154
22.516001,3.9365,10.407,6.4078,3.268,20.552999,10.95,-0.70853,-13.657,6.4078,3.268,7.9208,5.6872,1.8413,16.635,5.153,11.594,6.2821,-6.9206,8.4967,-0.76923
7.4214,-7.4921,2.6016,-2.6537,-2.6144,-4.1626,-11.594,2.5121,4.466,-2.6537,-2.6144,1.3201,5.0553,0.57143,12.19,1.9324,8.3736,13.974,-5.6508,4.5752,-3.3333
11.195,3.3016,7.1545,-5.89,-5.8824,4.9431,1.2882,11.53,-9.1262,-5.89,-5.8824,1.3201,5.0553,-0.06349,14.095,5.153,10.306,5.0,-11.365,4.5752,-5.2564
20.629,2.0317,13.008,9.644,-1.9608,20.552999,0.0,7.0209,-9.7735,9.644,-1.9608,8.5809,5.0553,-0.06349,17.905001,5.7971,12.238,4.359,-10.095,5.2288,-4.6154
7.4214,3.3016,9.7561,14.822,3.268,10.797,7.7295,13.462,-0.06472,14.822,3.268,11.881,-0.63191,-2.6032,6.4762,0.0,5.153,5.0,-10.095,-2.6144,-5.2564
4.9057,6.4762,9.1057,8.9968,7.1895,24.455,12.882,17.971001,10.291,8.9968,7.1895,16.502001,-3.1596,-3.873,2.0317,0.0,1.2882,-0.76923,-8.8254,-2.6144,-6.5385
3.6478,2.0317,8.4553,17.410999,15.686,11.447,3.8647,12.174,6.4078,17.410999,15.686,17.162001,-2.5276,-3.2381,0.7619,-1.2882,1.2882,3.7179,-3.746,-3.9216,-2.6923
1.1321,0.7619,3.9024,14.822,13.072,21.854,7.0853,2.5121,9.644,14.822,13.072,11.881,-4.4234,-5.1429,0.12698,-3.2206,-1.9324,-3.9744,0.69841,-6.5359,-5.2564
2.3899,3.9365,3.252,18.705999,15.686,4.9431,10.306,9.5974,12.233,18.705999,15.686,11.221,-3.1596,-3.2381,0.12698,-1.9324,-0.64412,-2.0513,3.2381,-5.2288,-5.2564
-2.0126,3.9365,0.0,4.466,5.2288,0.39024,3.2206,7.0209,14.822,4.466,5.2288,3.9604,-2.5276,-0.06349,-3.0476,-0.64412,-1.9324,1.7949,8.3175,-5.2288,-0.12821
-7.044,3.3016,-1.9512,2.5243,7.8431,10.797,4.5089,3.1562,19.353001,2.5243,7.8431,1.9802,-3.7915,1.2063,-6.2222,0.64412,-3.2206,-2.0513,10.857,-5.8824,5.0
-4.5283,10.286,3.252,2.5243,6.5359,-11.317,8.3736,-3.285,5.7605,2.5243,6.5359,2.6403,0.63191,5.6508,-2.4127,5.7971,1.2882,-3.3333,14.667,-1.9608,8.8462
-1.3836,3.9365,3.252,2.5243,3.9216,-10.667,3.8647,1.2238,20.0,2.5243,3.9216,1.3201,3.1596,7.5556,-0.50794,5.153,1.9324,-0.76923,15.937,-0.65359,9.4872
-5.1572,19.174999,6.5041,-3.301,1.3072,14.699,6.4412,-5.8615,9.644,-3.301,1.3072,1.3201,3.1596,10.095,-1.1429,10.95,5.7971,-5.2564,15.937,-0.65359,12.692
-3.8994,21.079,11.707,-7.1845,-0.65359,4.2927,23.188,-16.167,-2.6537,-7.1845,-0.65359,4.6205,4.4234,13.905,-0.50794,16.103001,8.3736,-4.6154,18.476,2.6144,17.179001
-2.0126,8.381,2.6016,-2.6537,0.0,-26.275999,-0.64412,-5.8615,10.291,-2.6537,0.0,-2.6403,3.7915,12.0,-1.7778,10.95,3.8647,0.51282,15.937,3.268,15.256
-3.2704,2.0317,-5.2033,-5.2427,-3.268,-4.813,-9.6618,-2.6409,16.764,-5.2427,-3.268,-7.2607,1.2638,9.4603,-3.0476,5.153,-1.2882,-1.4103,15.302,2.6144,12.692
1.1321,0.7619,-6.5041,-7.1845,-4.5752,6.8943,4.5089,-9.0821,0.58252,-7.1845,-4.5752,-4.6205,-1.2638,6.9206,-4.9524,0.0,-5.7971,3.0769,15.302,1.3072,11.41
0.50314,4.5714,-6.5041,-13.01,-12.418,-21.073,-5.7971,-4.5733,-0.71197,-13.01,-12.418,-9.901,-1.2638,2.4762,-3.6825,-0.64412,-5.7971,-7.1795,7.0476,0.65359,5.0
4.9057,-2.4127,-3.252,-11.068,-8.4967,1.0407,-2.5765,-4.5733,-3.301,-11.068,-8.4967,-4.6205,1.2638,1.8413,-0.50794,-1.2882,-3.2206,5.641,4.5079,5.8824,5.0
-7.673,-6.2222,-8.4553,-5.89,-11.111,1.0407,-7.7295,1.868,10.939,-5.89,-11.111,-9.2409,-3.1596,-3.2381,-6.8571,-5.7971,-9.6618,7.5641,3.2381,2.6144,-0.12821
0.50314,5.8413,1.3008,-3.9482,-2.6144,-7.4146,20.612,-1.9968,-13.01,-3.9482,-2.6144,3.9604,-3.7915,-5.1429,-2.4127,-3.8647,-5.153,1.7949,0.06349,0.0,-2.6923
6.1635,-1.1429,0.65041,-3.301,-5.2288,-6.7642,-4.5089,4.4444,7.7023,-3.301,-5.2288,1.3201,-5.6872,-5.7778,0.12698,-3.2206,-5.7971,5.0,-1.2063,0.0,-2.6923
1.1321,6.4762,-1.3008,7.7023,0.65359,9.4959,2.5765,13.462,1.877,7.7023,0.65359,4.6205,-5.6872,-5.7778,0.12698,-1.2882,-5.153,5.0,-1.8413,0.65359,-2.6923
-2.0126,-6.2222,-7.1545,1.877,-2.6144,16.65,2.5765,3.1562,1.877,1.877,-2.6144,3.9604,-5.0553,-6.4127,-0.50794,-4.5089,-6.4412,3.7179,-2.4762,0.0,-5.2564
1.761,-6.2222,-2.6016,-10.421,-4.5752,5.5935,2.5765,4.4444,1.2298,-10.421,-4.5752,3.9604,-3.7915,-7.0476,2.6667,-3.8647,-4.5089,1.1538,-3.1111,1.9608,-3.9744
3.0189,-1.1429,1.9512,2.5243,0.0,5.5935,4.5089,3.8003,-4.5955,2.5243,0.0,5.2805,-1.8957,-7.0476,5.2063,-2.5765,-0.64412,3.7179,-6.2857,1.3072,-6.5385
4.9057,-1.1429,4.5528,3.8188,3.268,0.39024,3.8647,-0.70853,1.2298,3.8188,3.268,6.6007,0.0,-3.873,7.1111,0.0,3.2206,1.7949,-5.0159,0.65359,-3.9744
0.50314,1.3968,7.1545,6.4078,9.1503,14.049,9.6618,1.2238,11.586,6.4078,9.1503,10.561,0.63191,-2.6032,3.9365,1.9324,4.5089,1.7949,-3.746,0.65359,-2.6923
-1.3836,0.12698,5.2033,11.586,13.072,-9.3659,9.6618,-3.285,10.939,11.586,13.072,10.561,-3.7915,-5.7778,-2.4127,-2.5765,1.2882,-6.5385,-4.381,-4.5752,-5.8974
-7.673,0.7619,3.252,3.8188,11.765,-13.268,10.306,-3.9291,0.58252,3.8188,11.765,9.2409,-2.5276,-4.5079,-6.2222,-3.8647,-0.64412,-7.1795,-5.0159,-7.8431,-5.8974
-17.107,0.12698,-1.9512,3.1715,11.765,4.2927,7.0853,-3.9291,10.939,3.1715,11.765,7.2607,0.0,-0.69841,-8.127,-3.2206,-1.9324,-1.4103,0.06349,-3.9216,-3.3333
-13.333,-3.0476,-4.5528,-5.89,8.4967,17.951,3.8647,-3.285,17.410999,-5.89,8.4967,3.9604,-1.2638,-1.3333,-7.4921,-3.2206,-1.9324,-0.12821,4.5079,-2.6144,-1.4103
-7.673,1.3968,-4.5528,7.055,4.5752,-9.3659,7.7295,-0.70853,5.7605,7.055,4.5752,-1.3201,-1.8957,-2.6032,-4.9524,-3.2206,-1.9324,-2.0513,3.2381,-3.268,-4.6154
-0.12579,9.0159,0.0,2.5243,5.8824,-4.1626,8.3736,-9.7262,8.9968,2.5243,5.8824,0.66007,1.2638,-0.06349,0.7619,1.2882,2.5765,5.0,3.873,1.3072,-2.0513
2.3899,-6.8571,-3.9024,-6.5372,-4.5752,6.8943,-8.3736,-3.285,14.175,-6.5372,-4.5752,-6.6007,3.7915,-1.9683,4.5714,-3.8647,0.64412,5.0,0.69841,3.9216,-6.5385
6.1635,-6.8571,-3.9024,3.1715,-1.9608,-9.3659,-10.95,-5.8615,3.8188,3.1715,-1.9608,-9.2409,3.7915,-4.5079,5.8413,-5.153,0.64412,7.5641,1.9683,5.8824,-7.1795
3.6478,-6.2222,-7.1545,-11.068,-10.458,-0.91057,-14.815,3.1562,-9.1262,-11.068,-10.458,-15.182,-1.2638,-7.6825,3.9365,-6.4412,-3.2206,12.692,-4.381,4.5752,-11.667
8.6792,-6.2222,-7.8049,-3.301,-7.1895,-37.333,-10.95,10.886,0.58252,-3.301,-7.1895,-17.162001,0.63191,-6.4127,6.4762,-3.8647,-0.64412,13.333,-1.8413,8.4967,-7.8205
7.4214,-12.571,-12.358,-8.479,-13.072,-10.016,-23.188,-3.285,0.58252,-8.479,-13.072,-22.441999,-2.5276,-10.222,3.9365,-7.7295,-4.5089,10.128,-3.746,5.8824,-12.308
2.3899,-11.937,-11.707,-2.0065,-10.458,4.2927,-17.391001,0.57971,-11.068,-2.0065,-10.458,-20.462,-3.7915,-12.127,2.6667,-9.0177,-5.153,13.333,-9.4603,5.8824,-14.231
3.6478,-6.8571,-6.5041,-2.6537,-11.765,0.39024,-18.68,1.868,-4.5955,-2.6537,-11.765,-15.842,0.0,-7.6825,5.8413,-3.2206,0.0,10.769,-6.9206,6.5359,-12.308
4.2767,-7.4921,-9.1057,-9.7735,-13.725,-5.4634,-17.391001,-1.9968,-7.8317,-9.7735,-13.725,-16.502001,-5.0553,-12.127,0.7619,-7.7295,-5.153,5.0,-6.9206,1.9608,-12.308
-1.3836,-5.5873,-11.057,-9.1262,-5.8824,-3.5122,-7.7295,1.2238,0.58252,-9.1262,-5.8824,-12.541,-6.951,-10.222,-3.6825,-6.4412,-9.0177,2.4359,-5.6508,-1.3072,-8.4615
-3.2704,14.095,-4.5528,-2.6537,-0.65359,5.5935,18.68,-3.9291,-11.715,-2.6537,-0.65359,-2.6403,-9.4787,-9.5873,-6.8571,-3.2206,-8.3736,-0.76923,-5.0159,-5.2288,-7.8205
-6.4151,-8.7619,-4.5528,-1.3592,-1.3072,-20.423,-7.0853,1.868,1.2298,-1.3592,-1.3072,-3.3003,-11.374,-10.857,-8.7619,-9.0177,-10.306,-1.4103,-4.381,-8.4967,-8.4615
-5.1572,-6.2222,0.65041,1.2298,1.3072,-4.1626,0.0,2.5121,-5.2427,1.2298,1.3072,2.6403,-5.0553,-5.1429,-4.3175,-5.153,-5.153,-3.9744,0.69841,-5.2288,-3.3333
-7.673,3.3016,3.252,-5.2427,-1.3072,1.6911,4.5089,1.2238,1.2298,-5.2427,-1.3072,-0.66007,-3.7915,-3.873,-4.9524,-1.9324,-3.8647,-6.5385,0.06349,-5.8824,-2.0513
-6.4151,0.12698,0.0,-1.3592,-4.5752,0.39024,-4.5089,1.2238,0.58252,-1.3592,-4.5752,-1.9802,-1.2638,0.57143,-4.9524,1.2882,-3.2206,-5.8974,1.3333,-6.5359,3.0769
-4.5283,5.2063,-6.5041,-14.951,-7.1895,-1.561,9.0177,-2.6409,-14.951,-14.951,-7.1895,0.66007,-1.8957,-0.06349,-8.7619,0.64412,-7.0853,-5.2564,-0.57143,-6.5359,3.7179
-12.075,-3.6825,-9.1057,-5.2427,-11.765,4.2927,-12.238,-11.014,-5.2427,-5.2427,-11.765,-3.9604,-0.63191,0.57143,-9.3968,0.64412,-5.7971,-5.8974,-1.8413,-8.4967,1.1538
-12.704,-4.3175,-2.6016,-2.6537,-5.8824,-10.016,-6.4412,-7.1498,-7.1845,-2.6537,-5.8824,-3.3003,-0.63191,-1.9683,-6.2222,1.2882,-1.2882,-6.5385,-3.1111,-7.1895,-1.4103
-5.1572,13.46,8.4553,-10.421,-12.418,-22.374001,17.391001,-12.947,-30.485001,-10.421,-12.418,4.6205,-1.2638,-3.873,-1.1429,5.7971,4.5089,-5.2564,-8.8254,-5.8824,-5.2564
1.1321,3.3016,13.659,-5.2427,-2.6144,2.9919,1.2882,-4.5733,5.7605,-5.2427,-2.6144,10.561,0.0,-2.6032,3.3016,6.4412,9.0177,-8.4615,-2.4762,-5.2288,-2.0513
8.0503,13.46,19.511999,-1.3592,7.8431,17.951,12.238,-7.1498,5.7605,-1.3592,7.8431,19.142,2.5276,0.57143,7.746,9.6618,12.238,-14.231,4.5079,-1.3072,0.51282
11.824,28.698,26.667,-2.6537,18.954,3.6423,29.629999,-13.591,22.589001,-2.6537,18.954,29.702999,7.5829,8.8254,9.6508,18.035,17.391001,2.4359,15.302,3.9216,12.692
9.9371,14.73,18.862,11.586,15.033,25.106001,21.9,1.2238,26.472,11.586,15.033,25.743,8.2148,10.73,6.4762,16.103001,13.527,-0.76923,23.556,5.2288,16.538
6.7925,12.825,11.057,10.291,10.458,16.65,23.188,2.5121,14.175,10.291,10.458,19.142,4.4234,4.381,1.3968,6.4412,4.5089,1.1538,15.937,4.5752,6.9231
14.34,3.9365,6.5041,6.4078,7.1895,7.5447,10.95,1.868,18.705999,6.4078,7.1895,14.521,3.7915,-1.3333,5.2063,-1.9324,1.2882,8.8462,4.5079,7.8431,-0.12821
9.3082,-12.571,-10.407,-2.0065,1.9608,-3.5122,2.5765,1.868,0.58252,-2.0065,1.9608,0.66007,-1.2638,-8.9524,1.3968,-15.459,-9.6618,5.641,-3.746,7.1895,-8.4615
1.1321,-12.571,-10.407,-8.479,-0.65359,11.447,0.0,-5.2174,6.4078,-8.479,-0.65359,0.0,-2.5276,-11.492,0.12698,-18.035,-10.306,15.256,-9.4603,5.8824,-12.949
6.1635,-6.2222,1.9512,3.1715,0.65359,-3.5122,0.0,2.5121,3.8188,3.1715,0.65359,-0.66007,1.8957,-4.5079,7.1111,-7.0853,-0.64412,7.5641,-2.4762,8.4967,-5.2564
1.1321,3.3016,1.9512,4.466,3.268,-2.2114,23.188,-3.9291,-25.306999,4.466,3.268,-1.9802,0.0,-2.6032,0.7619,-4.5089,-1.2882,-2.6923,-3.1111,3.268,-2.6923
-4.5283,-5.5873,-6.5041,-1.3592,3.9216,-5.4634,-3.2206,-0.70853,18.058001,-1.3592,3.9216,-7.2607,3.1596,2.4762,-1.1429,-4.5089,-3.2206,-3.3333,1.9683,2.6144,1.7949
5.5346,-4.3175,-5.2033,-4.5955,-1.3072,-1.561,-12.882,-12.947,0.58252,-4.5955,-1.3072,-10.561,4.4234,3.1111,3.3016,-3.8647,-0.64412,5.0,-2.4762,1.3072,2.4359
7.4214,-1.7778,3.252,2.5243,-1.9608,1.6911,3.2206,-2.6409,-6.5372,2.5243,-1.9608,-4.6205,8.8468,7.5556,9.0159,0.64412,5.153,-1.4103,-3.746,5.2288,3.7179
1.1321,-5.5873,1.9512,-3.9482,-1.9608,-12.618,-3.8647,12.174,-0.71197,-3.9482,-1.9608,-5.2805,5.6872,7.5556,4.5714,1.2882,4.5089,-5.8974,-1.8413,2.6144,5.641
-0.75472,3.9365,2.6016,-4.5955,-5.8824,-2.8618,-0.64412,-7.7939,-4.5955,-4.5955,-5.8824,-7.2607,6.951,6.9206,3.9365,3.8647,3.2206,-5.2564,-6.2857,1.3072,3.7179
-4.5283,-2.4127,-1.9512,-7.1845,-0.65359,-12.618,-3.8647,-8.438,4.466,-7.1845,-0.65359,-9.2409,6.951,7.5556,1.3968,0.0,0.64412,-0.12821,-0.57143,0.65359,6.2821
-7.044,-4.3175,-11.057,-7.1845,-10.458,-11.317,-15.459,-11.659,-7.8317,-7.1845,-10.458,-15.842,-0.63191,-0.06349,-6.2222,-3.8647,-8.3736,-5.8974,-9.4603,-5.2288,-0.76923
-4.5283,-6.2222,-8.4553,-5.89,-3.268,-2.2114,-6.4412,-11.014,-7.8317,-5.89,-3.268,-8.5809,-0.63191,1.8413,-6.2222,0.0,-5.153,-7.1795,-0.57143,-5.2288,5.0
-5.1572,1.3968,-3.9024,-11.068,-12.418,-11.967,-6.4412,-3.285,-9.1262,-11.068,-12.418,-8.5809,0.0,3.1111,-3.6825,5.153,-0.64412,-2.0513,2.6032,-4.5752,5.0
-6.4151,7.1111,2.6016,-7.1845,-2.6144,-2.2114,4.5089,-3.285,3.1715,-7.1845,-2.6144,0.66007,-3.1596,2.4762,-5.5873,7.7295,1.2882,-2.6923,7.0476,-5.2288,7.5641
-8.3019,11.556,7.1545,4.466,8.4967,4.2927,11.594,-0.06441,15.469,4.466,8.4967,10.561,-3.7915,3.746,-6.2222,10.306,1.9324,-3.3333,15.937,-3.9216,11.41
1.1321,28.063,13.008,9.644,11.111,2.3415,28.341,3.1562,4.466,9.644,11.111,18.482,-4.4234,2.4762,-2.4127,14.815,5.7971,2.4359,11.492,-2.6144,8.8462
11.195,13.46,13.659,8.3495,14.379,17.301001,24.476999,13.462,18.058001,8.3495,14.379,24.422001,-2.5276,0.57143,7.1111,10.306,7.7295,10.128,12.127,5.2288,8.2051
10.566,-8.127,7.1545,1.877,3.9216,29.659,-5.153,-3.9291,18.058001,1.877,3.9216,15.842,-6.951,-3.2381,6.4762,1.9324,3.2206,9.4872,10.222,1.9608,2.4359
9.3082,3.9365,12.358,-2.0065,-0.65359,12.098,10.306,-4.5733,-1.3592,-2.0065,-0.65359,15.182,-5.0553,-3.873,9.0159,3.8647,5.153,3.7179,3.2381,4.5752,-0.76923
10.566,11.556,16.910999,4.466,3.9216,3.6423,11.594,9.5974,10.291,4.466,3.9216,18.482,1.8957,1.8413,14.095,9.6618,11.594,1.7949,5.7778,11.111,5.0
11.195,9.0159,13.008,8.9968,3.9216,-12.618,13.527,3.1562,1.2298,8.9968,3.9216,13.861,5.0553,2.4762,14.73,9.6618,11.594,11.41,5.1429,13.072,4.359
13.711,9.6508,12.358,5.7605,3.268,5.5935,9.6618,1.868,5.7605,5.7605,3.268,12.541,7.5829,4.381,17.905001,9.6618,12.882,6.9231,1.9683,11.765,1.7949
14.969,11.556,14.309,1.877,4.5752,15.35,12.882,-0.70853,7.055,1.877,4.5752,13.201,10.111,5.6508,19.174999,11.594,15.459,11.41,1.9683,13.725,5.0
3.0189,-1.1429,1.9512,-13.01,-7.1895,-6.1138,-16.747,-14.235,1.877,-13.01,-7.1895,-1.3201,7.5829,3.746,9.6508,5.7971,7.7295,-0.12821,-4.381,5.8824,-0.12821
3.0189,-3.6825,1.9512,-3.301,-3.9216,-3.5122,-7.0853,-3.285,-9.7735,-3.301,-3.9216,0.0,12.638,7.5556,9.0159,5.7971,8.3736,3.0769,-4.381,8.4967,4.359
6.7925,-5.5873,0.0,-6.5372,-11.111,4.2927,-9.0177,-3.9291,-11.068,-6.5372,-11.111,-5.2805,12.638,7.5556,7.746,4.5089,5.7971,0.51282,-8.8254,7.8431,1.1538
9.3082,-1.1429,5.8537,-0.06472,-3.9216,6.8943,-2.5765,2.5121,-3.9482,-0.06472,-3.9216,2.6403,14.534,8.8254,10.286,4.5089,8.3736,0.51282,-8.1905,7.1895,3.7179
11.195,-3.0476,5.8537,-1.3592,-8.4967,4.9431,-9.6618,9.5974,-3.301,-1.3592,-8.4967,-3.3003,11.374,5.6508,12.825,1.2882,7.7295,-0.76923,-13.27,5.2288,-2.0513
17.483999,-8.7619,3.252,1.877,-3.9216,2.3415,-5.7971,23.124001,-7.8317,1.877,-3.9216,-4.6205,12.006,3.746,16.0,-2.5765,7.7295,3.0769,-15.175,6.5359,-3.9744
3.6478,-10.032,-1.3008,-2.6537,-6.5359,16.0,-12.882,-11.659,-5.89,-2.6537,-6.5359,-8.5809,7.5829,1.8413,10.921,-5.153,3.2206,-10.385,-13.905,1.3072,-5.2564
4.9057,0.12698,3.9024,1.877,-1.9608,-1.561,-3.2206,-13.591,-11.068,1.877,-1.9608,-5.2805,4.4234,3.1111,7.1111,2.5765,5.7971,-3.3333,-8.8254,-3.9216,-2.0513
-4.5283,7.746,7.8049,1.2298,0.65359,-21.724001,0.0,8.9533,-1.3592,1.2298,0.65359,-1.3201,4.4234,6.2857,3.9365,8.3736,9.0177,-7.8205,-4.381,-5.2288,1.7949
-7.673,8.381,5.2033,10.291,3.9216,0.39024,-0.64412,-0.06441,0.58252,10.291,3.9216,0.0,1.8957,4.381,1.3968,7.0853,5.153,-5.2564,-2.4762,-5.8824,3.0769
3.6478,20.444,9.1057,7.7023,3.268,11.447,23.833,0.57971,-13.01,7.7023,3.268,4.6205,9.4787,9.4603,9.6508,10.306,10.306,-2.6923,-2.4762,1.9608,5.641
8.6792,-3.6825,4.5528,-9.7735,-11.111,-10.016,-13.527,-2.6409,-7.8317,-9.7735,-11.111,-6.6007,7.5829,6.2857,11.556,2.5765,7.7295,1.7949,-8.8254,1.9608,2.4359
8.6792,-7.4921,5.2033,-3.9482,-7.8431,-2.8618,-22.544001,-5.2174,-6.5372,-3.9482,-7.8431,-5.2805,5.6872,4.381,10.921,1.9324,7.0853,-6.5385,-5.6508,0.65359,1.1538
14.34,9.0159,13.659,4.466,4.5752,10.146,4.5089,2.5121,10.291,4.466,4.5752,4.6205,13.902,10.095,17.905001,10.95,15.459,-0.76923,3.2381,7.8431,6.2821
6.7925,8.381,9.7561,1.2298,5.8824,9.4959,-1.2882,-13.591,-3.9482,1.2298,5.8824,3.9604,13.27,8.8254,12.19,9.6618,12.238,-9.1026,0.69841,5.8824,6.2821
-13.333,10.286,7.1545,7.055,12.418,-5.4634,12.238,-3.285,-0.06472,7.055,12.418,11.221,10.111,9.4603,-2.4127,7.7295,5.153,-11.026,3.873,-0.65359,6.9231
-14.591,14.095,8.4553,12.88,16.993,11.447,12.882,5.0886,11.586,12.88,16.993,14.521,7.5829,8.1905,-7.4921,7.7295,3.8647,3.0769,0.69841,-2.6144,7.5641
-2.0126,-4.9524,2.6016,4.466,3.9216,11.447,-5.7971,3.8003,-11.068,4.466,3.9216,7.2607,6.3191,3.746,-1.7778,-0.64412,1.2882,-10.385,-5.0159,-1.3072,-0.12821
6.7925,-3.6825,5.2033,8.9968,8.4967,16.65,-0.64412,2.5121,-3.9482,8.9968,8.4967,10.561,4.4234,2.4762,0.7619,-1.9324,1.2882,3.0769,-3.1111,-1.3072,-0.12821
6.7925,5.2063,4.5528,1.877,8.4967,11.447,9.0177,5.0886,-7.1845,1.877,8.4967,12.541,1.2638,1.8413,0.12698,-0.64412,-0.64412,-0.76923,-6.2857,-2.6144,-1.4103
6.1635,-0.50794,2.6016,12.233,15.686,21.202999,1.9324,10.886,1.2298,12.233,15.686,12.541,1.2638,1.8413,-0.50794,-3.8647,-2.5765,-3.3333,-3.746,1.3072,-0.12821
-0.12579,-1.7778,1.3008,7.7023,9.8039,-4.813,0.64412,-6.5056,7.7023,7.7023,9.8039,7.2607,-1.2638,0.57143,-6.2222,-3.8647,-5.7971,-4.6154,-1.8413,-3.268,-0.76923
-12.075,7.1111,-0.65041,3.1715,3.268,-19.122,-0.64412,-3.285,-7.8317,3.1715,3.268,1.3201,-4.4234,1.2063,-13.206,0.0,-5.7971,-10.385,-3.746,-7.8431,-0.12821
-10.189,5.8413,-5.2033,6.4078,3.9216,-2.8618,-0.64412,3.8003,-0.06472,6.4078,3.9216,-3.9604,-5.0553,2.4762,-15.746,2.5765,-6.4412,-6.5385,-1.2063,-9.8039,1.1538
-10.189,-0.50794,-7.1545,3.8188,11.765,5.5935,2.5765,-1.9968,10.939,3.8188,11.765,-1.3201,-5.0553,3.1111,-17.016001,-1.9324,-9.6618,-5.2564,2.6032,-10.458,1.7949
-8.3019,-1.1429,-6.5041,13.528,19.608,6.2439,10.95,1.868,2.5243,13.528,19.608,5.9406,-4.4234,1.8413,-17.016001,-8.3736,-12.238,-2.6923,0.06349,-7.8431,-0.12821
-5.1572,-8.127,-9.1057,18.058001,17.646999,-8.065,2.5765,8.9533,11.586,18.058001,17.646999,0.0,-3.7915,5.0159,-15.746,-7.0853,-12.238,-6.5385,0.06349,-7.1895,3.7179
-8.9308,10.921,-2.6016,14.175,18.301001,7.5447,7.0853,5.0886,1.2298,14.175,18.301001,-0.66007,-2.5276,6.2857,-12.571,1.2882,-7.7295,-9.1026,3.873,-7.1895,6.9231
-15.849,3.3016,-3.252,7.055,14.379,3.6423,3.2206,-5.2174,0.58252,7.055,14.379,-3.9604,-4.4234,5.0159,-14.476,0.64412,-9.0177,-9.7436,3.2381,-6.5359,6.2821
-12.704,-0.50794,-5.8537,7.055,14.379,-11.967,-9.6618,-5.2174,1.2298,7.055,14.379,-6.6007,-5.0553,3.746,-13.206,-1.2882,-10.306,-12.308,3.873,-5.8824,5.641
-15.22,-6.2222,-11.057,14.175,16.993,1.0407,-12.238,1.2238,5.7605,14.175,16.993,-6.6007,-3.7915,5.0159,-10.667,-5.7971,-12.882,5.0,0.06349,-2.6144,4.359
-13.333,-20.825001,-18.211,14.822,19.608,2.3415,-1.9324,9.5974,-5.2427,14.822,19.608,-5.2805,-6.3191,-2.6032,-11.937,-18.68,-19.968,10.128,-10.095,0.0,-3.3333
0.50314,-22.094999,-15.61,20.0,17.646999,23.153999,-12.238,1.868,-3.301,20.0,17.646999,-0.66007,-2.5276,-4.5079,-3.0476,-19.968,-16.103001,1.7949,-13.27,4.5752,-7.1795
-0.75472,-17.650999,-10.407,28.414,24.183001,2.9919,-1.9324,21.191999,-11.715,28.414,24.183001,1.3201,-0.63191,-4.5079,-0.50794,-18.68,-12.882,11.41,-12.635,5.8824,-7.1795
-1.3836,-8.127,-13.659,23.882999,15.686,-10.016,5.7971,19.903,-18.834999,23.882999,15.686,-5.2805,-5.0553,-7.6825,-5.5873,-20.612,-18.68,9.4872,-16.444,3.268,-11.667
-3.2704,-30.983999,-22.114,15.469,16.34,1.0407,-21.256001,7.0209,7.055,15.469,16.34,-7.2607,-5.0553,-6.4127,-8.127,-25.764999,-22.544001,5.641,-10.73,1.9608,-8.4615
-11.447,-30.349001,-26.016001,4.466,9.1503,-6.1138,-24.476999,7.0209,-4.5955,4.466,9.1503,-10.561,-8.8468,-10.222,-13.206,-27.052999,-25.764999,1.1538,-8.8254,-2.6144,-12.308
-7.673,-20.825001,-19.511999,15.469,18.301001,-8.065,-7.7295,-2.6409,3.8188,15.469,18.301001,-5.2805,-6.3191,-8.3175,-12.571,-22.544001,-21.256001,7.5641,-10.73,-1.9608,-12.308
-11.447,-19.556,-20.163,11.586,15.686,-2.2114,-14.171,8.9533,-0.06472,11.586,15.686,-9.2409,-5.0553,-4.5079,-15.111,-16.747,-18.68,-2.6923,-6.2857,-3.268,-9.1026
-11.447,-5.5873,-12.358,14.175,18.301001,-11.317,-2.5765,7.0209,5.1133,14.175,18.301001,-2.6403,-1.8957,-0.06349,-15.111,-8.3736,-12.882,-2.0513,-3.746,-1.9608,-4.6154
-10.818,-8.127,-5.2033,14.175,18.954,-2.8618,-3.2206,10.242,5.1133,14.175,18.954,1.3201,0.0,-0.69841,-11.937,-7.7295,-9.6618,1.1538,-1.8413,1.3072,-3.9744
-10.189,-9.3968,-7.8049,15.469,16.34,-10.667,-4.5089,4.4444,1.877,15.469,16.34,1.3201,-2.5276,-1.9683,-11.302,-9.0177,-10.306,6.2821,-4.381,-0.65359,-5.8974
-7.044,-4.9524,-11.707,15.469,11.111,-11.317,13.527,2.5121,-32.426998,15.469,11.111,-1.9802,0.63191,-0.06349,-5.5873,-8.3736,-9.6618,3.0769,-8.8254,1.9608,-5.8974
-7.044,-15.746,-20.163,8.3495,4.5752,14.049,-17.391001,8.3092,-2.6537,8.3495,4.5752,-9.901,1.2638,0.57143,-2.4127,-8.3736,-10.306,1.7949,-7.5556,4.5752,-4.6154
2.3899,-13.841,-14.959,5.7605,0.65359,11.447,-20.612,-5.8615,-11.068,5.7605,0.65359,-9.2409,-0.63191,-0.06349,1.3968,-4.5089,-6.4412,17.179001,-7.5556,2.6144,-3.3333
13.082,-1.7778,-0.65041,17.410999,3.268,-10.016,-10.306,20.548,-16.246,17.410999,3.268,-2.6403,4.4234,4.381,11.556,3.8647,5.153,5.641,-4.381,7.8431,0.51282
18.113001,-6.8571,6.5041,15.469,1.9608,10.146,-9.0177,23.768,-7.8317,15.469,1.9608,5.2805,3.1596,2.4762,14.095,2.5765,7.7295,3.0769,-3.1111,7.1895,-0.12821
19.371,-6.8571,5.8537,13.528,-1.9608,20.552999,-8.3736,9.5974,-17.540001,13.528,-1.9608,3.9604,-3.7915,-4.5079,12.825,-2.5765,4.5089,13.974,-11.365,0.65359,-7.1795
18.113001,-6.8571,-2.6016,16.117001,-1.9608,-8.7154,-7.0853,16.683001,-14.951,16.117001,-1.9608,-0.66007,-3.1596,-4.5079,14.095,-4.5089,2.5765,16.538,-8.8254,2.6144,-5.2564
7.4214,-11.302,-13.008,1.877,-10.458,10.797,-13.527,8.9533,-13.01,1.877,-10.458,-9.2409,-4.4234,-6.4127,8.381,-7.7295,-3.8647,7.5641,-7.5556,1.9608,-6.5385
9.9371,-6.8571,-7.8049,-0.06472,-5.2288,16.65,-5.7971,8.3092,-0.71197,-0.06472,-5.2288,-3.9604,-5.0553,-5.7778,4.5714,-9.0177,-5.7971,10.769,-2.4762,3.268,-2.6923
4.2767,-8.127,-5.8537,-8.479,-9.1503,-9.3659,-7.7295,5.7327,0.58252,-8.479,-9.1503,-1.9802,-8.8468,-8.3175,-2.4127,-10.95,-10.306,10.128,-1.2063,-1.9608,-6.5385
-3.8994,-1.7778,-2.6016,6.4078,0.65359,2.9919,5.153,3.8003,11.586,6.4078,0.65359,3.3003,-12.006,-8.3175,-11.937,-9.0177,-11.594,1.1538,8.9524,-6.5359,-1.4103
-17.107,-4.9524,-12.358,-9.7735,-9.1503,-7.4146,-1.2882,-2.6409,7.055,-9.7735,-9.1503,-7.9208,-17.694,-12.127,-22.73,-14.815,-21.256001,0.51282,7.6825,-11.111,-3.3333
-20.252001,-3.0476,-14.959,-6.5372,-3.268,-1.561,4.5089,-2.6409,7.055,-6.5372,-3.268,-5.2805,-17.062,-12.127,-25.27,-14.815,-22.544001,-9.7436,10.857,-13.072,-2.0513
-15.849,-0.50794,-10.407,-3.9482,-3.268,-18.472,8.3736,5.0886,14.175,-3.9482,-3.268,-0.66007,-12.006,-8.3175,-20.825001,-11.594,-16.747,-11.026,14.667,-7.8431,2.4359
-22.767,-2.4127,-11.707,-14.304,-4.5752,-22.374001,5.7971,-10.37,14.175,-14.304,-4.5752,-8.5809,-11.374,-7.6825,-20.190001,-10.306,-14.815,-7.1795,14.667,-10.458,1.7949
-22.767,-3.0476,-13.008,-23.365999,-5.2288,-2.2114,0.64412,-14.879,21.294001,-23.365999,-5.2288,-15.842,-7.5829,-5.7778,-16.381001,-8.3736,-12.238,-13.59,19.111,-9.1503,1.7949
-22.138,4.5714,-15.61,-11.068,-5.8824,-28.228001,9.6618,-12.947,21.941999,-11.068,-5.8824,-17.822001,-1.8957,0.57143,-13.206,-2.5765,-10.306,-11.667,21.650999,-3.9216,8.2051
-20.881001,5.8413,-15.61,-12.362,-1.9608,-17.171,7.0853,-7.1498,20.0,-12.362,-1.9608,-19.802,1.8957,3.1111,-8.127,1.2882,-7.0853,-9.7436,21.650999,-1.9608,10.128
-3.2704,9.0159,-3.9024,-13.657,-2.6144,-17.171,9.6618,-12.303,27.120001,-13.657,-2.6144,-15.182,7.5829,6.9206,3.9365,7.7295,3.2206,-10.385,22.921,0.65359,12.692
-1.3836,10.286,-1.9512,-13.01,-3.268,-11.317,5.153,-3.9291,22.589001,-13.01,-3.268,-17.162001,6.3191,7.5556,5.8413,11.594,5.7971,-1.4103,24.825001,0.0,11.41
1.761,12.19,-0.65041,-24.66,-9.8039,-23.674999,0.0,-1.9968,17.410999,-24.66,-9.8039,-19.802,6.951,6.2857,7.746,10.95,6.4412,-7.8205,17.205999,0.65359,8.2051
-0.75472,4.5714,-3.9024,-24.013,-11.111,-15.22,-1.9324,-7.7939,10.939,-24.013,-11.111,-21.782,3.7915,3.1111,3.3016,5.7971,1.9324,-15.513,10.222,-2.6144,5.641
0.50314,1.3968,-3.252,-19.482,-13.725,-18.472,-7.7295,-9.7262,1.2298,-19.482,-13.725,-16.502001,5.0553,5.0159,4.5714,4.5089,2.5765,0.51282,7.0476,-3.268,3.7179
1.1321,1.3968,3.252,-20.129,-6.5359,-20.423,-1.9324,-3.9291,5.7605,-20.129,-6.5359,-9.901,7.5829,5.6508,5.2063,5.153,7.0853,6.9231,5.1429,-1.9608,3.0769
0.50314,14.73,7.8049,-16.893,-9.8039,6.2439,13.527,-3.285,-10.421,-16.893,-9.8039,-3.9604,8.8468,6.9206,5.8413,10.306,9.0177,-5.8974,2.6032,-4.5752,1.7949
2.3899,19.174999,13.008,-0.71197,7.1895,8.8455,5.153,-3.9291,12.88,-0.71197,7.1895,7.9208,8.8468,8.1905,3.9365,12.882,10.95,-4.6154,7.0476,-3.268,5.641
1.1321,0.12698,7.1545,-7.8317,0.65359,-6.1138,-1.2882,0.57971,7.7023,-7.8317,0.65359,6.6007,0.63191,0.57143,-1.1429,2.5765,1.2882,3.0769,8.3175,-7.1895,-1.4103
4.2767,-6.2222,4.5528,-8.479,1.9608,-11.967,1.9324,-11.014,-5.89,-8.479,1.9608,7.9208,-3.1596,-2.6032,-2.4127,-4.5089,-3.2206,-1.4103,0.69841,-7.1895,-3.3333
11.824,-2.4127,4.5528,-3.9482,3.9216,6.2439,0.64412,0.57971,-4.5955,-3.9482,3.9216,9.901,-3.7915,-6.4127,0.12698,-6.4412,-4.5089,0.51282,-3.1111,-5.2288,-7.8205
-3.8994,-14.476,-11.057,-11.715,-8.4967,6.8943,-12.882,2.5121,-17.540001,-11.715,-8.4967,-3.3003,-8.8468,-12.127,-8.127,-14.171,-13.527,-5.2564,-10.73,-8.4967,-14.231
-21.509001,-10.667,-9.1057,-7.8317,-7.8431,-3.5122,-14.815,-6.5056,-15.599,-7.8317,-7.8431,0.66007,-11.374,-12.762,-18.285999,-10.95,-14.171,-3.9744,-13.27,-12.418,-16.153999
-22.138,1.3968,1.9512,5.7605,-3.9216,-17.171,-7.0853,-3.285,-8.479,5.7605,-3.9216,4.6205,-7.5829,-8.3175,-15.746,0.0,-5.7971,-3.3333,-6.9206,-9.8039,-10.385
-7.044,5.8413,8.4553,-7.1845,-5.2288,12.748,-5.153,1.868,-7.1845,-7.1845,-5.2288,5.2805,-0.63191,-3.2381,-3.0476,7.0853,3.8647,-0.76923,-3.1111,-4.5752,-4.6154
6.7925,9.0159,11.707,-5.89,-10.458,-4.813,-9.6618,-11.659,-16.246,-5.89,-10.458,3.3003,5.6872,3.1111,8.381,13.527,10.95,0.51282,1.3333,2.6144,0.51282
16.226,5.8413,12.358,-7.1845,-7.1895,-6.7642,1.2882,-3.285,-15.599,-7.1845,-7.1895,5.2805,7.5829,1.2063,14.73,9.0177,10.306,11.41,-2.4762,7.8431,0.51282
23.145,2.0317,10.407,2.5243,-0.65359,19.902,-3.8647,3.8003,-1.3592,2.5243,-0.65359,9.2409,9.4787,0.57143,19.809999,5.7971,8.3736,5.641,-4.381,15.033,-1.4103
7.4214,4.5714,3.9024,-5.89,-4.5752,0.39024,-7.7295,-12.303,-9.1262,-5.89,-4.5752,0.66007,6.951,-0.06349,11.556,5.7971,4.5089,1.1538,-9.4603,11.765,-2.0513
1.761,1.3968,5.2033,-10.421,-8.4967,-14.569,-3.8647,-12.303,-13.657,-10.421,-8.4967,-1.9802,9.4787,1.8413,11.556,9.0177,7.0853,2.4359,-7.5556,9.8039,-1.4103
9.9371,7.1111,10.407,-9.1262,-7.1895,6.8943,-3.8647,-13.591,-15.599,-9.1262,-7.1895,0.0,15.166,7.5556,18.540001,16.747,15.459,-5.2564,-0.57143,13.725,6.2821
6.1635,12.19,9.7561,-3.9482,-6.5359,-0.91057,0.0,-23.253,1.877,-3.9482,-6.5359,2.6403,15.798,9.4603,16.635,18.035,15.459,-2.0513,0.06349,13.725,6.2821
2.3899,10.286,12.358,1.2298,1.9608,-6.1138,6.4412,-12.303,-4.5955,1.2298,1.9608,5.9406,14.534,9.4603,12.19,16.103001,14.815,3.7179,5.1429,11.111,9.4872
8.0503,15.365,14.959,-0.71197,3.268,13.398,8.3736,1.2238,1.2298,-0.71197,3.268,14.521,12.638,9.4603,10.921,18.035,13.527,-1.4103,5.1429,7.8431,8.8462
13.082,17.905001,18.211,2.5243,7.8431,17.301001,18.68,-10.37,0.58252,2.5243,7.8431,17.162001,10.742,7.5556,10.286,16.103001,14.815,1.1538,5.1429,5.8824,7.5641
14.969,14.095,20.163,8.9968,3.9216,25.756001,13.527,5.0886,8.9968,8.9968,3.9216,19.142,6.951,3.746,10.286,12.882,12.882,3.0769,0.69841,1.9608,2.4359
14.969,13.46,17.561001,16.764,9.1503,29.659,19.323999,4.4444,4.466,16.764,9.1503,22.441999,1.8957,-1.3333,7.746,5.7971,7.7295,-0.76923,-5.0159,0.0,-2.6923
12.453,-1.1429,11.707,14.175,5.8824,10.797,12.238,12.174,-3.301,14.175,5.8824,21.782,-1.8957,-6.4127,3.9365,-5.153,1.2882,-3.3333,-9.4603,-1.3072,-7.8205
6.7925,-1.1429,11.707,18.058001,4.5752,8.1951,7.0853,19.903,-0.06472,18.058001,4.5752,19.802,-4.4234,-7.6825,0.7619,-7.0853,0.0,-8.4615,-9.4603,-2.6144,-7.1795
6.1635,9.6508,13.659,17.410999,2.6144,19.252001,10.95,11.53,-4.5955,17.410999,2.6144,13.861,-10.742,-11.492,-4.3175,-4.5089,-1.2882,3.0769,-7.5556,-7.8431,-6.5385
-8.9308,-8.127,0.65041,-3.9482,-5.2288,30.309,-3.2206,6.3768,3.1715,-3.9482,-5.2288,3.3003,-18.957001,-15.937,-15.746,-10.95,-10.95,5.641,-3.1111,-10.458,-8.4615
-2.6415,-4.3175,0.0,7.055,-6.5359,10.146,-5.153,8.3092,3.1715,7.055,-6.5359,-0.66007,-17.694,-13.397,-13.206,-7.0853,-9.6618,1.1538,1.3333,-7.8431,-3.3333
-7.673,0.7619,-5.2033,3.8188,-8.4967,9.4959,-1.2882,3.8003,-1.3592,3.8188,-8.4967,-2.6403,-20.853001,-16.570999,-18.285999,-7.7295,-13.527,0.51282,1.9683,-13.072,-7.1795
-8.9308,-1.7778,-9.7561,-4.5955,-6.5359,-2.8618,-0.64412,0.57971,7.7023,-4.5955,-6.5359,-5.2805,-21.485001,-17.205999,-20.190001,-9.6618,-16.103001,4.359,5.1429,-9.8039,-6.5385
-5.1572,4.5714,-4.5528,-2.0065,-2.6144,-10.016,7.0853,7.0209,16.764,-2.0065,-2.6144,-1.3201,-13.902,-9.5873,-10.667,-1.9324,-9.0177,2.4359,10.857,-5.2288,-0.76923
2.3899,15.365,5.2033,-6.5372,0.0,-6.1138,19.323999,-0.70853,17.410999,-6.5372,0.0,3.3003,-9.4787,-5.1429,-1.7778,5.7971,-0.64412,-5.8974,10.857,-2.6144,3.0769
3.6478,14.73,5.8537,-7.1845,-3.268,16.0,9.6618,-9.7262,20.646999,-7.1845,-3.268,1.9802,-8.2148,-3.873,2.6667,10.95,4.5089,-5.8974,17.205999,-3.9216,3.7179
9.9371,21.714001,12.358,2.5243,5.2288,1.6911,21.256001,-8.438,28.414,2.5243,5.2288,7.2607,-3.7915,0.57143,9.6508,18.035,12.882,-3.9744,20.381001,1.3072,8.8462
9.9371,21.079,11.707,-0.06472,2.6144,-4.1626,16.747,-9.7262,18.705999,-0.06472,2.6144,3.9604,-5.6872,0.57143,7.746,18.68,11.594,-7.1795,17.205999,-1.3072,5.641
-0.75472,22.983999,9.7561,-5.2427,3.9216,-7.4146,15.459,-10.37,18.705999,-5.2427,3.9216,3.3003,-4.4234,3.746,1.3968,21.9,12.238,-2.0513,19.746,-5.8824,9.4872
-6.4151,22.349001,7.8049,-3.9482,-1.9608,-10.667,12.882,-8.438,25.177999,-3.9482,-1.9608,2.6403,-1.2638,5.0159,0.7619,21.256001,10.306,-3.3333,19.111,-2.6144,10.128
0.50314,16.635,8.4553,-12.362,-2.6144,-8.7154,15.459,-5.8615,14.175,-12.362,-2.6144,3.3003,0.0,5.0159,3.3016,16.747,8.3736,-0.12821,17.205999,-1.3072,10.128
5.5346,17.905001,8.4553,1.877,-2.6144,7.5447,17.391001,-4.5733,7.7023,1.877,-2.6144,5.9406,5.0553,6.9206,11.556,14.815,10.306,-7.8205,12.127,5.8824,9.4872
7.4214,-2.4127,-1.3008,1.2298,-7.8431,6.8943,0.64412,-6.5056,25.177999,1.2298,-7.8431,-1.9802,3.1596,1.8413,8.381,3.2206,3.2206,-1.4103,10.222,7.1895,4.359
-4.5283,-8.127,-8.4553,-8.479,-10.458,-9.3659,-6.4412,-9.0821,3.1715,-8.479,-10.458,-6.6007,-5.0553,-3.2381,-5.5873,-3.8647,-7.0853,0.51282,5.1429,-2.6144,-0.12821
-10.189,-1.7778,-11.057,-2.0065,-7.1895,-0.91057,2.5765,-3.9291,6.4078,-2.0065,-7.1895,-2.6403,-6.3191,-0.69841,-11.302,-1.9324,-8.3736,1.7949,4.5079,-3.268,1.7949
-3.2704,2.0317,-5.8537,-7.1845,-4.5752,-6.1138,4.5089,-0.06441,14.822,-7.1845,-4.5752,-0.66007,-0.63191,2.4762,-6.2222,1.2882,-3.2206,1.7949,5.7778,2.6144,5.641
-7.044,-0.50794,-2.6016,1.2298,-6.5359,15.35,6.4412,1.868,12.233,1.2298,-6.5359,2.6403,-2.5276,2.4762,-9.3968,-1.2882,-3.8647,-0.76923,4.5079,-1.3072,4.359
-4.5283,-3.0476,-3.9024,1.2298,-7.8431,-8.7154,1.9324,-6.5056,8.9968,1.2298,-7.8431,-0.66007,-5.6872,0.57143,-10.032,-3.2206,-3.8647,5.0,-1.2063,-2.6144,3.7179
-0.75472,-8.127,-4.5528,-7.8317,-15.033,3.6423,-12.238,0.57971,-3.301,-7.8317,-15.033,-6.6007,-3.7915,1.8413,-4.3175,-2.5765,-1.2882,-6.5385,-1.8413,-0.65359,3.7179
3.0189,-10.032,-7.1545,-0.06472,-16.34,9.4959,-10.95,-2.6409,-7.8317,-0.06472,-16.34,-10.561,-3.1596,-0.06349,-1.7778,-4.5089,-2.5765,-1.4103,-4.381,1.3072,1.7949
3.6478,-8.7619,-9.7561,-21.424,-21.569,-35.382,-11.594,-7.1498,-13.657,-21.424,-21.569,-16.502001,-0.63191,-0.69841,0.7619,-5.153,-2.5765,2.4359,-10.73,5.2288,-1.4103
-5.1572,-6.8571,-11.057,-10.421,-20.915001,-0.91057,1.2882,-3.9291,-40.841,-10.421,-20.915001,-15.842,-1.8957,-5.1429,-1.1429,-9.0177,-5.7971,4.359,-15.81,6.5359,-3.9744
-8.3019,-24.635,-13.659,-11.068,-28.105,-22.374001,-32.849998,-3.285,-9.7735,-11.068,-28.105,-20.462,-1.8957,-5.1429,-1.7778,-11.594,-6.4412,5.641,-15.175,5.8824,-6.5385
3.0189,-7.4921,0.0,-16.246,-16.34,7.5447,-14.171,1.868,-7.8317,-16.246,-16.34,-7.2607,6.3191,1.8413,8.381,0.64412,6.4412,13.333,-8.1905,10.458,2.4359
4.9057,-4.3175,0.65041,-10.421,-22.222,-0.91057,-16.747,7.0209,-20.777,-10.421,-22.222,-10.561,3.7915,-0.06349,10.286,1.9324,6.4412,5.641,-12.635,9.1503,-2.0513
11.195,-3.6825,3.9024,-13.01,-16.34,-6.7642,-11.594,9.5974,-16.246,-13.01,-16.34,-7.2607,8.2148,1.8413,16.0,3.8647,10.95,10.128,-10.095,11.111,-0.12821
16.226,-2.4127,3.9024,1.2298,-18.301001,-13.268,-12.238,3.8003,-21.424,1.2298,-18.301001,-8.5809,11.374,3.1111,21.714001,3.8647,12.882,6.9231,-13.27,12.418,-0.12821
16.855,-5.5873,5.8537,2.5243,-14.379,4.9431,-16.103001,7.6651,-19.482,2.5243,-14.379,-5.9406,12.006,4.381,21.714001,3.8647,14.171,6.2821,-10.095,13.725,0.51282
11.195,10.921,13.008,6.4078,-1.3072,16.0,8.3736,31.497999,-0.06472,6.4078,-1.3072,11.221,12.006,7.5556,16.635,10.95,16.747,5.0,-2.4762,9.1503,5.0
-8.3019,0.12698,3.9024,1.2298,-3.268,-2.2114,-3.8647,1.868,1.2298,1.2298,-3.268,1.9802,5.6872,5.6508,2.6667,5.153,8.3736,-0.12821,-5.0159,1.3072,3.0769
-2.0126,9.0159,9.1057,-10.421,-4.5752,4.2927,13.527,2.5121,-18.834999,-10.421,-4.5752,3.9604,6.3191,6.2857,5.8413,7.7295,11.594,-2.0513,-6.2857,3.268,3.0769
3.6478,-8.7619,7.8049,-6.5372,-8.4967,-9.3659,-8.3736,-0.06441,-13.657,-6.5372,-8.4967,-0.66007,5.6872,5.6508,9.0159,0.64412,10.95,-3.9744,-5.0159,1.3072,2.4359
9.3082,-5.5873,8.4553,-4.5955,-9.1503,8.1951,-10.306,-7.1498,-6.5372,-4.5955,-9.1503,-4.6205,8.2148,5.6508,16.0,1.2882,13.527,0.51282,-2.4762,4.5752,1.7949
7.4214,-0.50794,3.9024,-3.301,-11.765,-4.1626,-3.2206,1.2238,-9.1262,-3.301,-11.765,-6.6007,12.638,10.095,21.079,4.5089,15.459,2.4359,-1.8413,7.1895,4.359
11.824,-3.6825,1.3008,-7.1845,-11.765,1.0407,-9.0177,-6.5056,-14.951,-7.1845,-11.765,-8.5809,16.43,12.0,22.349001,4.5089,14.815,1.1538,0.06349,10.458,5.641
10.566,0.12698,5.2033,-15.599,-11.111,1.6911,-4.5089,-3.285,-1.3592,-15.599,-11.111,-3.3003,20.221001,13.27,22.349001,7.0853,17.391001,8.8462,1.3333,11.765,6.2821
1.761,-5.5873,0.0,-8.479,-11.765,-10.016,-14.171,-5.8615,-9.1262,-8.479,-11.765,-7.2607,15.798,9.4603,12.825,1.9324,10.95,8.2051,-3.746,9.1503,4.359
-3.2704,-8.7619,-4.5528,-2.0065,-17.646999,-23.024,-18.68,8.9533,-25.306999,-2.0065,-17.646999,-9.2409,8.2148,5.0159,5.2063,-1.2882,3.8647,0.51282,-6.2857,5.2288,-0.76923
-3.2704,2.0317,-6.5041,-2.6537,-14.379,-5.4634,2.5765,9.5974,-24.66,-2.6537,-14.379,-5.9406,5.0553,4.381,-0.50794,-2.5765,-1.2882,0.51282,-5.0159,5.2288,2.4359
-3.8994,-18.285999,-17.561001,-8.479,-17.646999,-0.26016,-22.544001,0.57971,-9.1262,-8.479,-17.646999,-13.201,-0.63191,-0.69841,-5.5873,-11.594,-10.306,10.769,-5.6508,1.9608,-5.2564
-7.673,-15.111,-11.057,-6.5372,-11.111,5.5935,-14.815,2.5121,-11.715,-6.5372,-11.111,-5.9406,-4.4234,-0.06349,-8.7619,-11.594,-9.0177,1.7949,-2.4762,0.65359,-2.0513
-13.333,-11.302,-12.358,-15.599,-16.993,-8.065,-10.95,-7.7939,-14.951,-15.599,-16.993,-10.561,-10.111,-3.2381,-14.476,-14.171,-13.527,-0.12821,-5.0159,-3.268,-3.3333
-17.107,-15.111,-11.707,1.2298,-9.1503,-10.016,-9.6618,3.8003,-8.479,1.2298,-9.1503,-4.6205,-12.638,-5.1429,-17.016001,-15.459,-14.815,4.359,-3.1111,-5.8824,-3.9744
-11.447,-6.8571,-8.4553,0.58252,-6.5359,1.6911,-4.5089,5.7327,-5.2427,0.58252,-6.5359,0.66007,-15.166,-6.4127,-15.111,-13.527,-14.815,-0.76923,-5.0159,-7.1895,-5.8974
-12.704,-3.0476,-11.057,-7.8317,-9.8039,-26.275999,0.64412,-0.70853,-19.482,-7.8317,-9.8039,-3.9604,-18.325001,-9.5873,-15.111,-14.171,-16.747,2.4359,-9.4603,-7.8431,-8.4615
-13.333,-17.016001,-18.211,-11.715,-13.725,-10.016,-12.238,0.57971,-16.893,-11.715,-13.725,-8.5809,-17.694,-10.222,-16.381001,-18.035,-20.612,-5.8974,-7.5556,-11.111,-7.1795
-8.9308,-20.825001,-19.511999,-7.1845,-11.765,1.6911,-15.459,-9.7262,-5.89,-7.1845,-11.765,-11.881,-15.166,-8.9524,-11.937,-19.968,-19.323999,-5.2564,-6.9206,-8.4967,-8.4615
3.0189,-14.476,-14.959,-4.5955,-9.1503,-15.87,-7.7295,-17.455999,-9.1262,-4.5955,-9.1503,-13.201,-8.8468,-4.5079,-4.3175,-16.103001,-14.171,-6.5385,-5.0159,-2.6144,-3.9744
0.50314,-9.3968,-11.707,-9.1262,-6.5359,-11.967,-11.594,-13.591,-0.06472,-9.1262,-6.5359,-14.521,-3.7915,-0.06349,1.3968,-7.0853,-6.4412,-0.76923,-0.57143,1.9608,-0.12821
6.1635,-0.50794,-1.3008,-11.715,-3.268,6.8943,-1.9324,1.868,-9.7735,-11.715,-3.268,-7.9208,3.1596,3.746,11.556,3.2206,5.7971,0.51282,-1.2063,5.2288,2.4359
20.629,4.5714,12.358,4.466,4.5752,8.1951,-3.2206,14.75,5.7605,4.466,4.5752,3.9604,12.006,10.73,22.349001,10.95,17.391001,-3.3333,5.1429,11.765,8.2051
13.711,10.921,16.26,12.233,11.111,-0.91057,13.527,-0.70853,10.291,12.233,11.111,7.9208,9.4787,7.5556,16.635,11.594,16.747,5.641,4.5079,6.5359,6.9231
8.0503,15.365,20.813,1.2298,13.725,17.301001,14.171,-11.014,13.528,1.2298,13.725,19.802,7.5829,8.8254,9.0159,12.882,15.459,-5.2564,10.857,2.6144,9.4872
7.4214,17.27,21.462999,22.589001,26.143999,-6.7642,24.476999,10.242,14.175,22.589001,26.143999,23.761999,9.4787,11.365,3.9365,15.459,16.103001,-5.2564,12.127,3.268,12.692
-5.7862,13.46,6.5041,7.055,11.765,24.455,17.391001,14.106,12.88,7.055,11.765,16.502001,2.5276,5.0159,-8.127,8.3736,5.153,-12.308,5.1429,-3.268,5.0
-1.3836,17.27,11.707,21.294001,18.954,23.153999,28.341,12.818,-0.71197,21.294001,18.954,21.122,3.7915,6.2857,-3.6825,11.594,10.306,3.7179,8.3175,-1.3072,7.5641
6.7925,14.73,18.211,21.941999,15.686,10.146,14.171,8.9533,12.233,21.941999,15.686,19.142,4.4234,7.5556,2.0317,14.171,14.171,1.1538,11.492,-1.3072,8.2051
1.761,17.905001,24.065001,10.939,21.569,27.056999,16.747,7.6651,24.531,10.939,21.569,23.101999,6.3191,8.8254,3.9365,16.747,17.391001,-2.6923,16.570999,-0.65359,11.41
1.1321,24.889,23.415001,15.469,17.646999,24.455,23.833,4.4444,21.941999,15.469,17.646999,21.122,9.4787,11.365,7.1111,19.968,18.68,-6.5385,17.205999,1.3072,12.692
4.9057,15.365,11.707,6.4078,13.725,-1.561,14.171,2.5121,13.528,6.4078,13.725,9.2409,9.4787,12.0,8.381,14.815,14.171,-6.5385,12.762,1.3072,11.41
13.082,14.73,13.008,-1.3592,11.765,-21.073,17.391001,-0.06441,19.353001,-1.3592,11.765,10.561,12.006,12.0,15.365,14.171,16.103001,0.51282,10.857,5.8824,8.8462
17.483999,14.095,14.309,12.233,17.646999,-6.7642,22.544001,-1.9968,8.3495,12.233,17.646999,18.482,9.4787,9.4603,13.46,9.6618,11.594,-0.76923,11.492,4.5752,6.2821
8.0503,9.0159,9.1057,16.117001,20.915001,32.259998,18.035,4.4444,14.175,16.117001,20.915001,18.482,3.7915,3.746,5.8413,1.9324,3.2206,-5.8974,6.4127,1.9608,0.51282
1.1321,3.3016,3.9024,-2.0065,16.993,12.098,12.238,-17.455999,14.822,-2.0065,16.993,11.881,-2.5276,0.57143,-1.7778,-0.64412,-1.2882,-3.3333,5.7778,-4.5752,-3.3333
0.50314,12.825,2.6016,10.939,18.301001,-6.1138,15.459,1.868,14.175,10.939,18.301001,13.201,-1.2638,3.1111,-0.50794,3.8647,1.2882,-4.6154,1.3333,-2.6144,-1.4103
-3.2704,1.3968,-3.252,15.469,12.418,-8.7154,14.171,14.106,1.2298,15.469,12.418,5.9406,-3.1596,1.2063,-4.9524,-1.9324,-3.2206,-5.2564,3.2381,-5.2288,-3.3333
-15.22,-11.302,-7.8049,9.644,9.1503,1.6911,-2.5765,-7.1498,-1.3592,9.644,9.1503,1.9802,-10.111,-5.1429,-16.381001,-11.594,-12.882,-11.667,-2.4762,-13.725,-8.4615
-10.189,-3.6825,-0.65041,8.3495,10.458,5.5935,0.64412,-3.285,14.175,8.3495,10.458,3.9604,-7.5829,-0.69841,-13.841,-6.4412,-7.7295,-9.1026,0.06349,-9.1503,-4.6154
-10.818,8.381,3.9024,0.58252,9.1503,-2.8618,14.815,-9.7262,7.7023,0.58252,9.1503,5.9406,-10.111,0.57143,-19.556,-1.2882,-6.4412,-5.8974,6.4127,-15.686,-0.12821
-22.138,10.286,-1.3008,-3.301,7.1895,14.699,8.3736,-3.285,13.528,-3.301,7.1895,4.6205,-6.951,5.0159,-24.0,3.8647,-7.0853,-14.872,9.5873,-15.033,4.359
-12.704,14.73,1.9512,8.3495,15.686,-15.87,19.323999,-1.3527,30.356001,8.3495,15.686,3.9604,-3.1596,6.2857,-17.650999,7.0853,-1.2882,-11.026,13.397,-8.4967,7.5641
-6.4151,10.286,0.65041,3.8188,13.072,1.0407,12.238,1.2238,11.586,3.8188,13.072,1.9802,-4.4234,3.746,-14.476,4.5089,-3.2206,-5.2564,8.9524,-6.5359,3.0769
-0.75472,12.19,-1.3008,5.7605,13.072,12.748,20.612,5.0886,-5.2427,5.7605,13.072,5.2805,-1.8957,3.746,-10.667,1.2882,-5.153,-2.6923,9.5873,-2.6144,6.2821
-5.1572,-7.4921,-13.008,-9.1262,1.9608,-24.325001,-3.8647,-7.7939,9.644,-9.1262,1.9608,-9.901,-5.6872,-1.9683,-10.667,-6.4412,-10.95,-0.76923,7.6825,-4.5752,0.51282
-5.7862,-4.3175,-9.7561,-18.188,0.65359,6.2439,-7.0853,-13.591,9.644,-18.188,0.65359,-7.2607,-3.7915,-0.06349,-6.2222,-1.9324,-6.4412,-2.0513,7.0476,0.65359,2.4359
-0.75472,10.921,-1.9512,1.2298,-1.9608,-0.26016,12.238,-1.3527,-10.421,1.2298,-1.9608,-4.6205,3.1596,3.746,2.0317,3.8647,0.0,2.4359,5.1429,5.8824,5.641
0.50314,-5.5873,-6.5041,-9.1262,-9.8039,-36.682999,-23.188,-1.3527,-5.2427,-9.1262,-9.8039,-19.142,6.951,4.381,9.6508,1.9324,1.2882,-2.0513,1.9683,10.458,6.9231
4.9057,0.12698,-0.65041,-15.599,-15.686,-7.4146,-16.747,-3.285,-9.7735,-15.599,-15.686,-14.521,7.5829,3.1111,11.556,1.9324,3.2206,5.0,-3.1111,9.1503,-0.12821
6.7925,-6.8571,1.9512,-9.1262,-9.1503,1.0407,-2.5765,2.5121,-8.479,-9.1262,-9.1503,-3.9604,3.7915,-1.9683,8.381,-3.8647,0.64412,9.4872,-3.746,6.5359,-3.9744
1.761,-8.127,-2.6016,-8.479,-6.5359,1.6911,-7.7295,2.5121,-9.7735,-8.479,-6.5359,-3.9604,0.0,-4.5079,2.0317,-6.4412,-2.5765,-3.3333,-6.9206,3.268,-5.8974
-12.704,-16.381001,-12.358,-18.188,-12.418,-12.618,-16.747,-12.303,-13.657,-18.188,-12.418,-8.5809,-6.951,-11.492,-9.3968,-14.171,-10.306,6.9231,-17.714001,-4.5752,-16.153999
-17.107,-22.094999,-16.26,-10.421,-13.725,8.8455,-15.459,-18.1,-21.424,-10.421,-13.725,-8.5809,-13.27,-19.111,-17.016001,-20.612,-16.103001,5.0,-24.063,-8.4967,-23.846001
-25.283001,-25.27,-21.462999,-7.8317,-17.646999,-18.472,-25.121,-7.7939,-22.070999,-7.8317,-17.646999,-15.842,-15.166,-21.016001,-20.190001,-22.544001,-18.035,-11.026,-27.238001,-10.458,-27.691999
-25.912001,-30.983999,-25.365999,-9.7735,-20.261,-21.724001,-24.476999,0.57971,-28.544001,-9.7735,-20.261,-19.802,-19.589001,-24.825001,-24.635,-27.052999,-22.544001,-12.308,-29.778,-15.033,-30.256001
-11.447,-27.809999,-17.561001,-3.301,-20.915001,-2.2114,-26.409,-0.70853,-27.249001,-3.301,-20.915001,-13.861,-15.166,-17.841,-18.285999,-21.9,-18.035,0.51282,-20.889,-12.418,-23.205
6.1635,-5.5873,-3.9024,-1.3592,-7.1895,2.3415,1.2882,4.4444,-34.368999,-1.3592,-7.1895,2.6403,-5.0553,-5.1429,-4.9524,-9.0177,-5.153,5.0,-12.635,-4.5752,-8.4615
13.711,-19.556,-5.8537,0.58252,-9.8039,17.951,-16.747,16.683001,-4.5955,0.58252,-9.8039,1.3201,0.0,0.57143,2.6667,-9.6618,-4.5089,1.1538,-7.5556,0.0,-4.6154
3.0189,-15.111,-5.8537,5.7605,-8.4967,-16.52,-12.882,13.462,-0.06472,5.7605,-8.4967,-2.6403,-4.4234,-0.69841,-3.6825,-9.0177,-6.4412,15.256,-6.2857,-2.6144,-2.0513
-2.6415,-8.127,-7.8049,-3.301,-12.418,-5.4634,-10.306,16.039,-7.1845,-3.301,-12.418,-3.9604,-8.8468,-4.5079,-7.4921,-6.4412,-10.306,10.769,-6.2857,-3.9216,-2.6923
-0.12579,0.7619,-5.8537,1.877,-5.8824,19.902,-5.153,-0.06441,-14.304,1.877,-5.8824,0.66007,-8.2148,-6.4127,-5.5873,-1.9324,-8.3736,11.41,-3.1111,-2.6144,-2.0513
-0.75472,5.2063,-5.8537,-4.5955,-9.8039,13.398,-4.5089,1.868,-6.5372,-4.5955,-9.8039,1.3201,-6.3191,-8.3175,-3.6825,-0.64412,-8.3736,5.641,0.06349,0.0,-2.6923
-1.3836,-3.6825,-9.7561,0.58252,-6.5359,-7.4146,-4.5089,4.4444,-3.9482,0.58252,-6.5359,-4.6205,-8.8468,-12.127,-4.9524,-5.7971,-11.594,2.4359,-2.4762,2.6144,-3.9744
1.1321,-4.3175,-8.4553,-0.06472,-2.6144,2.3415,1.9324,9.5974,-2.6537,-0.06472,-2.6144,0.0,-8.2148,-12.762,-3.6825,-8.3736,-11.594,8.2051,-0.57143,5.2288,-4.6154
-0.12579,-7.4921,-7.8049,7.7023,-2.6144,-0.91057,-3.2206,5.7327,3.1715,7.7023,-2.6144,-0.66007,-10.111,-15.302,-5.5873,-10.95,-12.238,2.4359,-0.57143,3.268,-7.1795
-2.6415,1.3968,-0.65041,2.5243,3.268,4.9431,4.5089,2.5121,13.528,2.5243,3.268,3.3003,-8.2148,-11.492,-3.0476,-3.2206,-5.7971,13.974,3.873,2.6144,-2.0513
-1.3836,19.174999,-0.65041,-7.8317,-0.65359,12.748,3.2206,-3.9291,-6.5372,-7.8317,-0.65359,0.0,-4.4234,-4.5079,-1.7778,7.0853,0.64412,15.256,4.5079,4.5752,3.7179
-6.4151,2.6667,-7.8049,2.5243,-3.9216,-15.87,-6.4412,8.9533,-3.301,2.5243,-3.9216,-10.561,-1.8957,-1.9683,-3.6825,6.4412,-0.64412,8.8462,8.3175,1.9608,6.9231
-2.6415,3.3016,-2.6016,-4.5955,-5.2288,-19.122,-8.3736,6.3768,10.291,-4.5955,-5.2288,-7.9208,0.0,0.57143,-3.0476,8.3736,1.2882,-1.4103,9.5873,0.0,6.9231
-5.1572,14.73,1.3008,2.5243,2.6144,-0.91057,7.0853,2.5121,-13.01,2.5243,2.6144,-1.3201,-4.4234,-1.9683,-8.7619,5.153,-2.5765,-2.6923,-1.2063,-3.9216,3.7179
-8.3019,-3.6825,-5.2033,2.5243,-1.9608,-0.91057,-7.7295,8.3092,9.644,2.5243,-1.9608,-5.9406,-7.5829,-5.7778,-12.571,-1.9324,-8.3736,-0.76923,-2.4762,-7.1895,-2.6923
-10.818,-11.302,-11.057,-16.893,-13.725,-11.967,-18.035,-4.5733,-18.834999,-16.893,-13.725,-16.502001,-6.951,-7.6825,-10.667,-9.0177,-10.95,2.4359,-17.714001,-5.2288,-7.8205
0.50314,-24.635,-10.407,-20.129,-22.222,-0.26016,-36.070999,-13.591,-33.722,-20.129,-22.222,-17.822001,-6.3191,-11.492,-2.4127,-14.171,-10.306,8.2051,-38.667,-5.2288,-17.436001
7.4214,-25.905001,-5.8537,-14.951,-18.301001,-36.033001,-25.121,0.57971,-34.368999,-14.951,-18.301001,-11.221,-3.7915,-12.762,3.3016,-17.391001,-7.7295,8.2051,-38.667,0.0,-16.795
-4.5283,-34.793999,-16.26,3.1715,-22.875999,-6.1138,-36.715,14.75,-25.955,3.1715,-22.875999,-21.782,-6.3191,-16.570999,-3.0476,-25.121,-14.171,4.359,-37.396999,-0.65359,-21.923
-5.7862,-24.635,-11.707,6.4078,-7.1895,16.65,-19.323999,5.7327,-13.657,6.4078,-7.1895,-10.561,-6.951,-16.570999,-4.3175,-23.188,-11.594,3.0769,-31.683001,-2.6144,-20.0
-5.1572,-20.190001,-13.659,-11.068,-8.4967,2.9919,-16.747,-1.3527,-10.421,-11.068,-8.4967,-11.221,-10.111,-19.111,-6.2222,-26.409,-15.459,-1.4103,-18.349001,-3.268,-20.0
-0.75472,-28.444,-13.659,-0.71197,-3.268,-4.1626,-10.95,0.57971,1.2298,-0.71197,-3.268,-8.5809,-10.111,-17.205999,-5.5873,-27.052999,-16.103001,6.9231,-6.2857,-2.6144,-15.513
6.1635,-13.841,-3.9024,-8.479,1.3072,17.301001,-1.9324,-9.7262,14.822,-8.479,1.3072,-1.9802,-6.951,-10.857,0.7619,-16.747,-7.7295,-1.4103,3.2381,-1.9608,-7.8205
-2.6415,-1.1429,-5.2033,-5.89,-6.5359,-4.813,0.0,-9.7262,11.586,-5.89,-6.5359,-9.901,-8.2148,-9.5873,0.12698,-9.0177,-5.153,-2.0513,7.0476,-1.3072,-3.9744
4.2767,3.9365,-0.65041,-10.421,-5.8824,-12.618,0.0,-13.591,12.233,-10.421,-5.8824,-9.901,-0.63191,-1.9683,6.4762,2.5765,3.2206,-2.6923,15.937,3.9216,5.641
3.6478,14.095,1.9512,-14.951,-5.2288,-14.569,6.4412,-9.0821,18.058001,-14.951,-5.2288,-11.881,3.7915,3.1111,6.4762,11.594,8.3736,-7.1795,16.570999,2.6144,7.5641
-1.3836,19.809999,2.6016,-13.657,-7.8431,4.9431,3.2206,-16.167,-1.3592,-13.657,-7.8431,-11.881,3.1596,2.4762,3.9365,14.171,8.3736,6.2821,13.397,5.2288,6.9231
5.5346,14.73,3.252,-18.188,-5.8824,-15.22,6.4412,-11.659,21.294001,-18.188,-5.8824,-8.5809,6.3191,6.9206,7.746,16.103001,10.306,1.7949,21.016001,9.1503,13.333
-2.0126,15.365,-0.65041,-23.365999,-9.1503,-5.4634,6.4412,-18.743999,1.877,-23.365999,-9.1503,-8.5809,2.5276,5.0159,1.3968,13.527,5.153,1.1538,12.762,4.5752,8.8462
-2.0126,3.9365,1.3008,-7.1845,-5.8824,-4.813,-1.9324,-7.7939,11.586,-7.1845,-5.8824,-5.9406,1.8957,5.0159,-1.7778,10.95,3.8647,-0.76923,14.667,2.6144,9.4872
0.50314,-2.4127,1.9512,-3.301,0.0,-30.179001,-4.5089,3.1562,14.822,-3.301,0.0,-3.9604,2.5276,5.0159,-1.7778,7.0853,3.2206,2.4359,10.857,1.3072,9.4872
-5.7862,1.3968,-1.3008,-7.1845,-6.5359,9.4959,-0.64412,8.9533,1.877,-7.1845,-6.5359,-5.9406,2.5276,5.0159,-3.6825,3.8647,0.0,1.1538,3.2381,0.0,6.2821
-6.4151,-3.6825,0.0,9.644,5.2288,-2.8618,1.2882,5.7327,5.7605,9.644,5.2288,-2.6403,3.1596,6.2857,-4.9524,1.2882,-0.64412,-3.9744,3.873,0.65359,8.2051
-17.736,-1.1429,-3.252,-1.3592,-0.65359,11.447,4.5089,-7.1498,14.175,-1.3592,-0.65359,-0.66007,0.0,4.381,-13.841,-0.64412,-5.153,-1.4103,1.3333,-4.5752,4.359
-13.962,0.12698,-0.65041,-4.5955,3.268,1.6911,2.5765,-5.8615,10.291,-4.5955,3.268,2.6403,0.0,5.6508,-11.302,1.2882,-1.9324,-1.4103,0.69841,-5.8824,6.9231
-3.8994,3.3016,3.252,5.1133,0.0,-0.91057,3.2206,7.6651,-3.9482,5.1133,0.0,4.6205,3.7915,5.6508,0.7619,3.2206,3.8647,-7.1795,-9.4603,-2.6144,1.7949
9.3082,4.5714,11.057,1.2298,-5.2288,-6.7642,5.153,3.8003,-21.424,1.2298,-5.2288,2.6403,6.3191,6.2857,9.6508,5.153,10.306,-0.12821,-7.5556,1.3072,1.1538
4.9057,-8.7619,0.0,-0.71197,-4.5752,-13.919,-12.882,-2.6409,8.9968,-0.71197,-4.5752,-0.66007,1.8957,3.1111,5.8413,-2.5765,0.64412,1.7949,-6.2857,-1.9608,-2.0513
13.711,-10.032,-0.65041,3.1715,0.0,13.398,-5.7971,3.8003,3.8188,3.1715,0.0,0.66007,3.7915,3.1111,10.921,-3.8647,1.9324,4.359,-11.365,0.0,-3.3333
23.774,-3.0476,8.4553,-0.06472,-1.3072,24.455,0.0,-0.06441,-4.5955,-0.06472,-1.3072,4.6205,10.111,7.5556,19.174999,1.9324,10.306,9.4872,-9.4603,4.5752,-0.76923
21.257999,14.095,16.910999,2.5243,3.9216,6.8943,17.391001,-8.438,-3.301,2.5243,3.9216,9.2409,11.374,11.365,24.254,10.306,18.035,1.1538,-6.9206,5.8824,1.1538
14.34,0.12698,14.959,2.5243,1.3072,-2.8618,-4.5089,-0.06441,-3.9482,2.5243,1.3072,4.6205,6.951,7.5556,17.905001,6.4412,14.171,-1.4103,-8.8254,1.3072,0.51282
9.3082,7.1111,13.659,5.7605,3.268,-0.91057,-2.5765,1.2238,-3.301,5.7605,3.268,7.9208,3.1596,5.6508,8.381,7.0853,9.6618,-5.8974,-5.6508,-3.9216,0.51282
10.566,15.365,9.7561,1.877,7.8431,19.902,20.612,-1.9968,-3.9482,1.877,7.8431,9.901,1.8957,4.381,7.1111,7.7295,7.0853,5.0,-5.0159,-4.5752,1.1538
8.0503,-13.206,3.252,1.2298,7.1895,2.3415,-9.0177,6.3768,6.4078,1.2298,7.1895,6.6007,0.63191,-1.3333,6.4762,-3.8647,3.2206,3.0769,-8.1905,-1.9608,-5.2564
7.4214,-15.111,3.9024,-2.0065,8.4967,16.65,-1.9324,-16.812,2.5243,-2.0065,8.4967,11.881,-6.3191,-10.857,-1.1429,-12.238,-3.2206,3.7179,-14.54,-5.8824,-11.667
2.3899,-6.2222,7.1545,16.764,9.8039,16.0,3.2206,10.886,1.877,16.764,9.8039,15.182,-3.1596,-10.857,0.12698,-9.0177,-0.64412,5.641,-13.905,-0.65359,-13.59
4.9057,3.9365,13.659,19.353001,14.379,17.951,10.95,16.683001,0.58252,19.353001,14.379,17.162001,3.7915,-5.1429,8.381,1.2882,8.3736,1.1538,-6.9206,6.5359,-4.6154
10.566,5.8413,10.407,6.4078,5.2288,2.9919,5.153,-0.70853,-8.479,6.4078,5.2288,7.9208,5.6872,-3.873,14.095,6.4412,10.95,-0.76923,-6.9206,7.1895,-5.2564
9.3082,4.5714,6.5041,4.466,9.1503,6.2439,1.9324,8.9533,3.8188,4.466,9.1503,5.9406,6.951,-1.3333,14.73,7.0853,10.95,10.128,-4.381,10.458,-2.0513
8.0503,2.0317,-0.65041,-3.301,-1.3072,17.301001,-2.5765,-9.7262,2.5243,-3.301,-1.3072,-1.3201,4.4234,-2.6032,11.556,3.8647,5.153,5.0,-6.9206,8.4967,-4.6154
8.0503,12.825,8.4553,1.877,8.4967,-15.87,10.306,7.0209,3.1715,1.877,8.4967,7.2607,8.8468,2.4762,14.095,9.6618,9.6618,5.641,-1.2063,11.765,1.1538
3.6478,10.286,10.407,11.586,3.268,-9.3659,3.2206,10.886,-0.06472,11.586,3.268,4.6205,8.2148,3.746,12.19,10.306,10.306,5.641,0.06349,8.4967,1.1538
6.7925,12.19,15.61,11.586,5.2288,15.35,6.4412,-0.06441,-0.06472,11.586,5.2288,7.9208,12.006,6.2857,14.095,11.594,14.815,5.0,0.06349,10.458,3.7179
7.4214,7.746,14.959,-3.301,5.8824,10.146,8.3736,-1.9968,3.8188,-3.301,5.8824,8.5809,15.798,11.365,15.365,11.594,15.459,-0.12821,4.5079,10.458,5.641
12.453,22.983999,18.211,0.58252,7.1895,14.049,31.562,-16.812,-18.188,0.58252,7.1895,15.182,17.694,15.81,17.905001,17.391001,18.035,-1.4103,5.1429,9.1503,8.8462
8.0503,16.635,17.561001,-11.715,6.5359,16.0,9.6618,-14.235,11.586,-11.715,6.5359,13.201,21.485001,19.618999,15.365,19.968,18.035,-5.8974,7.0476,12.418,13.333
-9.5597,16.635,11.707,1.2298,5.8824,-10.016,9.0177,-4.5733,17.410999,1.2298,5.8824,9.2409,15.798,17.714001,2.0317,18.035,11.594,-2.0513,12.127,4.5752,12.692
-7.673,16.0,10.407,3.1715,9.1503,-4.1626,10.95,-4.5733,0.58252,3.1715,9.1503,9.901,6.951,8.1905,-4.9524,9.6618,3.8647,-5.8974,6.4127,-1.3072,5.0
-12.704,0.12698,5.2033,4.466,5.2288,-0.91057,5.7971,-3.9291,7.7023,4.466,5.2288,8.5809,0.0,3.1111,-11.937,1.2882,-3.2206,-5.2564,0.69841,-5.2288,-2.0513
-12.075,-7.4921,-5.8537,8.3495,6.5359,5.5935,3.2206,6.3768,-3.9482,8.3495,6.5359,5.9406,-7.5829,-4.5079,-18.921,-9.6618,-14.815,-0.12821,-6.2857,-9.8039,-7.1795
-0.12579,-14.476,-7.1545,7.055,8.4967,12.748,-7.0853,5.0886,12.233,7.055,8.4967,6.6007,-7.5829,-7.6825,-14.476,-14.815,-15.459,0.51282,-3.1111,-8.4967,-9.1026
3.0189,-18.921,-4.5528,8.9968,7.8431,9.4959,-3.2206,5.0886,10.939,8.9968,7.8431,5.9406,-8.2148,-9.5873,-8.7619,-18.035,-13.527,6.2821,-3.1111,-6.5359,-8.4615
8.6792,-9.3968,-1.3008,7.7023,0.65359,2.9919,-4.5089,7.6651,2.5243,7.7023,0.65359,0.66007,-7.5829,-6.4127,0.12698,-14.815,-9.0177,3.7179,-4.381,-4.5752,-7.8205
7.4214,2.0317,3.9024,-0.06472,-0.65359,-26.275999,2.5765,2.5121,0.58252,-0.06472,-0.65359,-0.66007,-1.8957,-1.3333,5.8413,-5.7971,-1.9324,4.359,-1.8413,1.3072,-1.4103
6.7925,-5.5873,0.65041,-8.479,-10.458,-2.2114,-13.527,-3.9291,-0.71197,-8.479,-10.458,-7.9208,3.7915,-0.06349,10.921,-3.2206,0.0,6.2821,-0.57143,7.1895,-3.9744
10.566,-1.1429,5.2033,-4.5955,-5.2288,12.748,-6.4412,-3.9291,-2.6537,-4.5955,-5.2288,-6.6007,9.4787,5.0159,16.0,3.8647,7.7295,8.8462,3.873,9.8039,1.1538
11.824,15.365,9.1057,-9.7735,-9.8039,-5.4634,8.3736,-17.455999,-13.01,-9.7735,-9.8039,-4.6205,8.8468,3.1111,17.27,7.7295,10.306,8.2051,0.06349,7.1895,0.51282
6.1635,2.0317,5.8537,-10.421,-0.65359,4.9431,-2.5765,-11.659,-0.71197,-10.421,-0.65359,-1.3201,6.951,-0.06349,13.46,4.5089,8.3736,5.0,3.2381,9.8039,-0.76923
4.2767,5.8413,2.6016,7.055,2.6144,-19.122,-2.5765,1.868,12.233,7.055,2.6144,-2.6403,9.4787,-0.06349,12.825,5.153,7.7295,4.359,3.2381,11.765,-1.4103
11.195,9.6508,0.65041,9.644,2.6144,-13.919,16.747,5.0886,-12.362,9.644,2.6144,1.3201,9.4787,-1.3333,11.556,3.8647,7.0853,-2.0513,3.2381,9.1503,-0.76923
-4.5283,-11.937,-6.5041,-3.9482,1.3072,10.146,-10.95,-5.8615,7.7023,-3.9482,1.3072,-5.2805,3.1596,-5.1429,2.0317,-4.5089,0.0,-7.8205,3.2381,2.6144,-3.9744
-2.6415,0.7619,-1.9512,-10.421,5.2288,-6.1138,1.9324,-12.303,16.764,-10.421,5.2288,-1.3201,2.5276,-1.9683,-0.50794,1.2882,1.2882,0.51282,9.5873,1.3072,1.1538
-3.2704,9.6508,5.2033,2.5243,11.765,15.35,9.0177,-9.7262,16.117001,2.5243,11.765,7.9208,5.0553,1.2063,-2.4127,5.153,3.8647,-5.8974,10.857,1.3072,3.7179
-12.704,9.6508,2.6016,5.1133,12.418,-10.016,10.95,-3.9291,10.291,5.1133,12.418,6.6007,1.8957,-0.69841,-8.127,2.5765,0.0,-9.1026,8.9524,-1.9608,2.4359
-8.3019,7.1111,2.6016,-0.06472,12.418,-6.7642,16.103001,-16.812,18.705999,-0.06472,12.418,5.9406,1.2638,2.4762,-8.7619,4.5089,-1.2882,-9.7436,19.111,-3.9216,6.9231
-8.3019,15.365,4.5528,-3.301,11.765,1.6911,16.103001,-11.014,29.061001,-3.301,11.765,9.901,3.7915,6.2857,-4.9524,7.0853,1.2882,-12.949,19.746,-2.6144,8.8462
-7.673,12.825,-0.65041,-4.5955,14.379,-12.618,19.323999,-17.455999,14.175,-4.5955,14.379,9.2409,-1.2638,1.8413,-7.4921,1.2882,-4.5089,-9.1026,19.111,-7.8431,6.9231
-2.0126,9.6508,2.6016,2.5243,16.34,12.098,14.815,-9.7262,23.882999,2.5243,16.34,12.541,1.2638,3.746,-1.7778,3.2206,-0.64412,-19.358999,21.650999,-7.1895,8.8462
2.3899,31.872999,18.862,17.410999,27.451,32.910999,36.070999,5.0886,30.356001,17.410999,27.451,27.723,8.8468,10.095,9.0159,15.459,12.882,-8.4615,25.459999,-1.9608,15.256
10.566,28.698,24.065001,18.058001,23.528999,6.8943,13.527,8.9533,38.77,18.058001,23.528999,24.422001,8.8468,10.73,15.365,21.9,19.323999,-14.872,26.73,-1.3072,17.179001
14.969,33.778,27.316999,17.410999,24.837,8.8455,26.409,-0.06441,25.177999,17.410999,24.837,28.382999,12.638,12.635,19.174999,25.121,23.188,1.1538,27.365,2.6144,17.179001
18.742001,16.0,15.61,11.586,16.993,19.902,15.459,1.868,24.531,11.586,16.993,17.822001,14.534,13.905,21.079,18.68,18.035,2.4359,21.650999,7.8431,13.974
25.031,33.778,27.316999,13.528,22.222,15.35,38.646999,5.7327,6.4078,13.528,22.222,26.403,18.325001,18.349001,25.524,25.764999,25.764999,1.1538,23.556,9.8039,21.667
18.742001,19.174999,25.365999,17.410999,16.34,1.0407,14.171,-0.70853,19.353001,17.410999,16.34,17.822001,17.694,16.444,21.714001,22.544001,23.833,0.51282,20.381001,9.1503,15.897
14.969,17.905001,18.862,17.410999,13.072,-1.561,19.968,8.3092,8.9968,17.410999,13.072,8.5809,14.534,15.175,15.365,19.323999,19.323999,-1.4103,16.570999,7.8431,14.615
2.3899,7.746,5.2033,-4.5955,7.8431,10.797,-1.2882,1.868,15.469,-4.5955,7.8431,0.66007,8.8468,10.73,2.0317,10.306,5.7971,-12.308,15.302,1.9608,10.769
-5.7862,-3.0476,-15.61,-2.6537,1.3072,-14.569,-7.7295,-9.7262,8.9968,-2.6537,1.3072,-11.881,1.2638,5.0159,-7.4921,0.64412,-7.0853,1.1538,7.6825,0.0,5.641
-8.3019,2.6667,-17.561001,-8.479,-3.9216,-21.073,-1.9324,-3.9291,-7.8317,-8.479,-3.9216,-17.162001,-3.1596,1.2063,-10.667,0.0,-8.3736,-2.0513,5.1429,-1.3072,5.641
-5.7862,0.7619,-7.8049,-3.9482,-3.9216,-11.967,-0.64412,-0.70853,10.291,-3.9482,-3.9216,-13.861,-3.7915,1.2063,-8.7619,2.5765,-4.5089,-7.1795,8.3175,-1.3072,3.7179
-8.3019,1.3968,-7.1545,2.5243,-9.1503,-13.268,-3.2206,4.4444,-17.540001,2.5243,-9.1503,-17.162001,-3.7915,1.2063,-9.3968,3.2206,-4.5089,-0.76923,3.873,-1.9608,5.641
-18.365,0.7619,-13.659,-9.7735,-11.765,-23.024,-21.256001,-10.37,-4.5955,-9.7735,-11.765,-23.761999,-6.951,-0.06349,-15.111,2.5765,-7.7295,-1.4103,4.5079,-6.5359,5.0
-20.881001,-7.4921,-14.309,-14.951,-12.418,-35.382,-18.68,-11.659,1.2298,-14.951,-12.418,-21.782,-10.742,-3.873,-18.285999,-0.64412,-9.6618,-5.8974,5.7778,-9.1503,3.0769
-17.736,20.444,-7.8049,-17.540001,-13.072,-4.1626,3.8647,-18.743999,-22.070999,-17.540001,-13.072,-11.881,-8.8468,-1.3333,-13.841,9.0177,-2.5765,-14.872,3.873,-9.1503,5.641
-23.396,-4.3175,-18.211,-24.66,-12.418,-11.967,-18.68,-12.947,-10.421,-24.66,-12.418,-21.782,-8.2148,-1.3333,-16.381001,3.8647,-7.0853,-3.9744,6.4127,-7.8431,5.641
-16.478001,-10.667,-16.26,-5.2427,-11.111,-34.081001,-16.103001,-8.438,3.1715,-5.2427,-11.111,-17.162001,-6.3191,-0.06349,-13.206,0.0,-7.7295,-5.8974,8.9524,-5.8824,5.0
-13.962,-3.0476,-9.1057,-1.3592,1.9608,-15.87,1.2882,1.2238,1.2298,-1.3592,1.9608,-3.9604,-5.6872,-1.3333,-11.302,-4.5089,-7.7295,-1.4103,5.7778,-4.5752,4.359
-9.5597,-10.667,-7.1545,-15.599,-2.6144,2.3415,-5.153,-11.014,11.586,-15.599,-2.6144,-0.66007,-11.374,-8.3175,-11.302,-9.6618,-10.306,-4.6154,-0.57143,-10.458,-5.2564
-5.7862,2.6667,0.65041,-1.3592,3.268,-17.820999,14.815,-6.5056,-14.304,-1.3592,3.268,7.2607,-10.742,-8.9524,-7.4921,-5.7971,-3.8647,-3.3333,-1.8413,-6.5359,-5.2564
-5.1572,-6.2222,0.65041,2.5243,0.65359,11.447,-3.2206,14.106,6.4078,2.5243,0.65359,4.6205,-13.902,-13.397,-6.2222,-7.7295,-5.153,-7.1795,-3.746,-8.4967,-11.667
-9.5597,-3.0476,-0.65041,-5.89,-1.9608,7.5447,-2.5765,-5.2174,-2.6537,-5.89,-1.9608,3.9604,-17.694,-12.762,-10.667,-6.4412,-5.7971,-9.1026,-5.0159,-13.725,-11.026
-3.2704,5.2063,4.5528,-2.6537,3.9216,-6.7642,4.5089,-6.5056,5.7605,-2.6537,3.9216,5.2805,-8.2148,-0.69841,-4.3175,2.5765,0.64412,-7.1795,3.873,-5.8824,1.1538
8.6792,10.286,5.2033,4.466,6.5359,4.2927,-2.5765,3.1562,7.055,4.466,6.5359,8.5809,-4.4234,2.4762,2.0317,7.0853,4.5089,1.1538,5.1429,-3.268,6.2821
8.0503,4.5714,5.2033,12.233,13.072,-4.1626,9.0177,10.886,5.7605,12.233,13.072,11.221,-3.1596,3.1111,4.5714,9.0177,7.0853,2.4359,9.5873,-2.6144,8.2051
14.34,-0.50794,3.252,12.233,15.033,14.699,7.0853,12.818,25.177999,12.233,15.033,9.901,-1.8957,3.746,8.381,7.7295,7.0853,1.1538,8.3175,-0.65359,8.2051
13.082,11.556,9.1057,12.88,14.379,16.0,14.815,10.242,-0.71197,12.88,14.379,11.881,1.8957,2.4762,10.286,6.4412,8.3736,-1.4103,1.3333,1.3072,5.0
17.483999,12.825,16.910999,24.531,20.915001,14.049,27.052999,26.989,-2.6537,24.531,20.915001,18.482,7.5829,5.6508,14.095,6.4412,10.95,0.51282,-4.381,7.8431,5.641
6.7925,-3.6825,5.8537,3.8188,9.1503,27.707001,0.0,3.8003,10.291,3.8188,9.1503,9.2409,3.7915,3.1111,4.5714,0.64412,3.2206,4.359,0.69841,3.268,6.2821
3.0189,3.3016,9.7561,-1.3592,9.1503,-9.3659,3.2206,8.3092,10.291,-1.3592,9.1503,6.6007,5.6872,5.6508,5.2063,7.7295,8.3736,-4.6154,7.6825,5.8824,8.2051
9.3082,19.809999,16.26,16.764,11.111,-8.065,16.747,11.53,-1.3592,16.764,11.111,10.561,8.8468,10.095,11.556,18.035,16.747,3.7179,9.5873,8.4967,13.974
8.0503,15.365,11.057,11.586,7.1895,2.9919,5.153,4.4444,10.291,11.586,7.1895,3.3003,12.006,12.0,14.095,19.968,18.035,7.5641,14.667,9.8039,16.538
11.824,15.365,9.7561,11.586,16.34,4.9431,14.171,4.4444,1.877,11.586,16.34,6.6007,11.374,13.27,10.286,18.68,14.815,1.7949,14.667,9.8039,19.103001
1.1321,17.27,1.9512,6.4078,3.9216,1.6911,3.2206,-1.9968,6.4078,6.4078,3.9216,-1.3201,8.8468,11.365,4.5714,16.103001,8.3736,7.5641,9.5873,9.1503,14.615
1.761,3.3016,-0.65041,-3.9482,-1.9608,-2.2114,-7.7295,-11.014,-5.2427,-3.9482,-1.9608,-5.2805,8.8468,10.73,3.9365,12.238,8.3736,9.4872,12.762,7.8431,14.615
-0.75472,1.3968,-5.2033,-0.71197,-9.1503,-16.52,-4.5089,2.5121,-29.191,-0.71197,-9.1503,-11.221,10.111,8.8254,5.8413,7.7295,5.7971,-1.4103,4.5079,11.111,7.5641
-7.044,-23.365,-18.211,2.5243,-7.8431,-17.171,-29.629999,7.0209,-11.715,2.5243,-7.8431,-20.462,6.3191,2.4762,-1.1429,-5.7971,-4.5089,-0.12821,-7.5556,9.1503,0.51282
-4.5283,-29.079,-20.163,-6.5372,-11.765,1.6911,-28.341,8.9533,-14.304,-6.5372,-11.765,-15.842,2.5276,-2.6032,-6.2222,-17.391001,-14.171,0.51282,-13.27,7.1895,-6.5385
-2.0126,-27.174999,-17.561001,-4.5955,-9.8039,4.9431,-15.459,1.2238,-23.365999,-4.5955,-9.8039,-12.541,-6.3191,-8.9524,-10.667,-25.121,-20.612,5.0,-13.905,2.6144,-10.385
-12.704,-20.825001,-18.862,1.877,-4.5752,-0.26016,-12.238,-9.7262,-10.421,1.877,-4.5752,-7.9208,-12.638,-11.492,-18.285999,-28.341,-26.409,-0.12821,-8.8254,-5.2288,-11.026
-15.849,-20.825001,-22.114,9.644,1.3072,-27.577,-3.2206,5.7327,8.3495,9.644,1.3072,-4.6205,-15.798,-15.302,-20.190001,-31.562,-29.629999,-2.0513,-13.27,-7.1895,-18.718
-6.4151,-19.556,-16.910999,7.7023,1.9608,-9.3659,-6.4412,11.53,-5.2427,7.7023,1.9608,-5.9406,-13.902,-14.667,-12.571,-29.629999,-23.833,2.4359,-14.54,-5.2288,-18.718
-7.044,-13.841,-11.707,-1.3592,-2.6144,23.153999,-9.0177,7.6651,-12.362,-1.3592,-2.6144,-3.3003,-12.638,-12.127,-8.7619,-20.612,-14.815,1.7949,-13.905,-8.4967,-16.795
2.3899,5.2063,0.65041,-3.301,4.5752,8.1951,6.4412,20.548,-3.301,-3.301,4.5752,5.2805,-7.5829,-3.873,-1.1429,-2.5765,-1.2882,5.641,-5.6508,-7.1895,-7.1795
1.1321,12.19,5.8537,10.939,7.8431,12.098,9.6618,8.9533,4.466,10.939,7.8431,7.2607,-3.1596,2.4762,4.5714,10.306,7.7295,-2.6923,1.3333,-3.268,0.51282
8.0503,23.618999,10.407,16.764,3.9216,-0.26016,28.341,9.5974,-24.013,16.764,3.9216,7.2607,-1.8957,3.1111,10.921,14.815,13.527,7.5641,-2.4762,-0.65359,0.51282
18.742001,3.9365,5.8537,2.5243,-3.268,4.2927,-6.4412,8.3092,-9.7735,2.5243,-3.268,-0.66007,-1.8957,3.1111,14.095,9.0177,12.238,14.615,-1.2063,1.3072,1.1538
18.742001,5.8413,3.9024,5.7605,-3.268,17.301001,5.7971,23.124001,-24.013,5.7605,-3.268,1.3201,-3.1596,1.2063,10.921,6.4412,9.0177,19.103001,-10.73,0.65359,-0.76923
9.3082,-4.9524,-2.6016,3.8188,-11.765,-1.561,-15.459,16.039,-16.893,3.8188,-11.765,-5.2805,-3.7915,-0.69841,5.2063,0.64412,3.2206,6.2821,-13.905,-0.65359,-4.6154
5.5346,-13.206,-5.8537,5.7605,-9.1503,14.049,-21.256001,9.5974,-16.246,5.7605,-9.1503,-9.901,-3.7915,-3.2381,2.6667,-2.5765,1.2882,12.692,-16.444,1.3072,-4.6154
8.6792,-17.016001,-6.5041,-0.06472,-16.34,7.5447,-20.612,10.242,-35.015999,-0.06472,-16.34,-9.2409,-2.5276,-4.5079,2.6667,-7.0853,-1.2882,13.974,-22.159,3.268,-12.308
9.3082,-13.206,-1.9512,0.58252,-8.4967,-7.4146,-18.68,7.6651,-25.306999,0.58252,-8.4967,-6.6007,-1.8957,-3.873,1.3968,-6.4412,-0.64412,9.4872,-22.794001,3.9216,-9.1026
-4.5283,-11.937,-9.1057,2.5243,-11.765,2.3415,-13.527,9.5974,-33.074001,2.5243,-11.765,-6.6007,-7.5829,-8.9524,-10.032,-12.882,-10.306,8.8462,-24.698,-3.268,-11.667
-8.3019,-20.825001,-13.659,-1.3592,-9.1503,14.699,-14.815,10.242,-20.129,-1.3592,-9.1503,-5.9406,-6.3191,-10.857,-16.381001,-20.612,-17.391001,6.9231,-20.889,-3.268,-14.231
-10.189,-26.540001,-14.309,5.1133,-9.8039,-14.569,-23.833,7.6651,-9.1262,5.1133,-9.8039,-7.2607,-5.0553,-9.5873,-17.016001,-22.544001,-18.035,0.51282,-17.714001,-3.9216,-12.949
-13.962,-11.937,-8.4553,0.58252,-5.8824,-21.073,-9.0177,4.4444,-5.2427,0.58252,-5.8824,-4.6205,-1.2638,-4.5079,-10.667,-12.238,-9.6618,0.51282,-13.27,-1.3072,-7.1795
-8.3019,-8.127,-9.7561,-3.301,-15.033,-4.1626,-17.391001,5.0886,-16.893,-3.301,-15.033,-14.521,-0.63191,-3.873,-7.4921,-11.594,-9.0177,3.7179,-12.635,-2.6144,-7.1795
-7.044,-24.0,-17.561001,-18.188,-19.608,-9.3659,-23.188,-4.5733,-13.657,-18.188,-19.608,-15.182,-5.0553,-8.3175,-10.032,-19.968,-16.747,2.4359,-13.27,-5.2288,-12.308
-8.9308,-30.349001,-22.764,-5.2427,-13.072,-4.813,-19.323999,4.4444,-16.246,-5.2427,-13.072,-15.182,-6.951,-11.492,-11.302,-25.121,-20.612,4.359,-15.175,-4.5752,-13.59
-4.5283,-13.841,-14.959,-1.3592,-11.765,-0.91057,-2.5765,-1.3527,-21.424,-1.3592,-11.765,-7.9208,-6.3191,-10.857,-6.8571,-20.612,-16.103001,6.9231,-15.81,-2.6144,-14.231
-7.044,-25.27,-15.61,-0.71197,-11.111,8.1951,-12.882,9.5974,-12.362,-0.71197,-11.111,-6.6007,-10.742,-12.762,-11.302,-21.9,-19.323999,0.51282,-12.0,-5.2288,-14.231
-7.044,-19.556,-14.309,-8.479,-11.111,-1.561,-21.9,7.0209,3.1715,-8.479,-11.111,-10.561,-12.638,-10.222,-11.302,-16.103001,-16.103001,-5.2564,-7.5556,-7.1895,-9.7436
4.9057,-17.650999,-5.2033,-1.3592,-5.8824,-1.561,-13.527,4.4444,-12.362,-1.3592,-5.8824,-3.9604,-5.6872,-5.7778,-1.7778,-10.306,-7.0853,3.7179,-5.6508,-3.268,-6.5385
-1.3836,-8.127,-4.5528,-0.06472,-0.65359,8.1951,-1.9324,9.5974,-9.1262,-0.06472,-0.65359,1.3201,-5.0553,-5.1429,-4.9524,-9.0177,-7.7295,6.2821,-4.381,-5.2288,-5.8974
-7.044,-12.571,-5.8537,10.291,9.1503,4.2927,3.8647,5.7327,-2.6537,10.291,9.1503,9.901,-6.3191,-6.4127,-11.937,-14.171,-11.594,-5.8974,-5.6508,-10.458,-7.1795
-9.5597,-4.3175,-3.9024,-2.0065,3.9216,3.6423,5.153,3.1562,-11.715,-2.0065,3.9216,8.5809,-3.7915,-3.2381,-13.841,-10.95,-11.594,-5.2564,-7.5556,-8.4967,-6.5385
-5.1572,-5.5873,-1.3008,8.3495,8.4967,10.146,6.4412,10.886,3.1715,8.3495,8.4967,8.5809,-4.4234,-2.6032,-13.841,-9.0177,-8.3736,-0.12821,-3.1111,-9.1503,-3.9744
-10.189,-8.127,-5.2033,20.0,4.5752,2.3415,1.9324,10.886,0.58252,20.0,4.5752,7.2607,-10.111,-7.6825,-17.016001,-10.95,-10.95,-7.8205,-9.4603,-15.033,-9.1026
-18.365,5.2063,-9.1057,7.055,5.8824,-14.569,20.612,5.0886,-24.66,7.055,5.8824,0.66007,-11.374,-6.4127,-18.921,-7.0853,-10.95,-12.949,-9.4603,-15.686,-6.5385
-15.849,-15.111,-17.561001,4.466,0.0,6.8943,-13.527,7.0209,-0.71197,4.466,0.0,-9.901,-8.8468,-7.0476,-16.381001,-12.238,-13.527,-5.2564,-11.365,-10.458,-8.4615
-10.818,-3.6825,-11.707,-0.06472,0.0,10.146,5.7971,0.57971,-15.599,-0.06472,0.0,-6.6007,-8.8468,-7.0476,-12.571,-8.3736,-10.306,-2.6923,-8.1905,-7.1895,-7.1795
-4.5283,-4.9524,-7.8049,1.877,0.0,-11.967,0.64412,-3.285,-0.71197,1.877,0.0,-5.9406,-6.951,-6.4127,-7.4921,-9.0177,-7.7295,-2.0513,-10.095,-2.6144,-7.1795
-3.8994,-17.650999,-12.358,1.2298,-3.9216,-8.7154,-14.815,8.3092,-6.5372,1.2298,-3.9216,-11.221,-5.6872,-8.9524,-4.3175,-16.103001,-11.594,-0.12821,-11.365,1.3072,-11.026
-0.75472,-6.8571,-10.407,-0.71197,-2.6144,-23.674999,-0.64412,-1.9968,-7.1845,-0.71197,-2.6144,-10.561,-3.7915,-10.222,-1.1429,-18.035,-11.594,6.2821,-16.444,2.6144,-12.308
9.3082,-15.111,-3.9024,-18.188,-4.5752,19.252001,-5.153,-11.659,-1.3592,-18.188,-4.5752,-5.2805,0.63191,-6.4127,5.2063,-14.815,-6.4412,17.179001,-8.8254,7.8431,-8.4615
6.7925,2.6667,0.65041,0.58252,-0.65359,-3.5122,5.153,-0.06441,-1.3592,0.58252,-0.65359,-3.9604,1.8957,-4.5079,7.1111,-7.7295,-1.9324,1.1538,-5.6508,8.4967,-7.1795
2.3899,3.3016,1.9512,6.4078,1.9608,4.9431,7.0853,8.9533,7.7023,6.4078,1.9608,-0.66007,3.1596,-0.06349,6.4762,-1.9324,0.64412,3.0769,0.06349,9.1503,-2.6923
-0.75472,0.12698,0.0,0.58252,4.5752,-16.52,3.8647,5.0886,16.117001,0.58252,4.5752,0.0,0.63191,1.2063,1.3968,-0.64412,-0.64412,-2.0513,4.5079,5.2288,1.1538
-3.8994,3.9365,-1.3008,7.055,5.8824,8.1951,5.153,6.3768,4.466,7.055,5.8824,5.2805,0.63191,3.746,-1.1429,2.5765,0.0,1.1538,8.3175,3.268,3.0769
-7.044,0.12698,0.65041,1.2298,5.2288,14.049,3.8647,8.9533,9.644,1.2298,5.2288,5.2805,-1.2638,3.746,-4.9524,3.2206,0.0,4.359,5.1429,0.0,5.0
-0.12579,11.556,10.407,2.5243,0.0,-3.5122,7.0853,-0.06441,4.466,2.5243,0.0,9.2409,2.5276,10.73,-0.50794,14.171,7.7295,1.7949,10.222,0.0,10.128
-0.12579,16.635,14.309,11.586,13.725,10.797,17.391001,-3.285,23.236,11.586,13.725,17.162001,3.7915,12.635,-1.1429,18.035,9.6618,-7.1795,18.476,-1.3072,14.615
-2.6415,29.968,18.862,13.528,15.686,12.098,34.138,8.3092,9.644,13.528,15.686,25.743,3.1596,13.905,0.7619,21.9,11.594,-7.1795,17.205999,-3.9216,13.333
3.6478,19.809999,18.862,12.88,18.301001,23.153999,20.612,2.5121,16.764,12.88,18.301001,25.743,0.63191,10.73,1.3968,18.035,10.306,-3.3333,19.111,-6.5359,14.615
5.5346,21.079,20.813,2.5243,8.4967,5.5935,21.9,-0.06441,15.469,2.5243,8.4967,19.802,0.63191,10.095,3.9365,16.747,10.95,-12.949,17.205999,-4.5752,12.051
7.4214,17.27,22.114,-5.89,8.4967,14.049,9.0177,-7.7939,10.939,-5.89,8.4967,17.822001,3.1596,8.8254,7.1111,15.459,12.882,-6.5385,11.492,-1.9608,10.128
8.6792,13.46,18.862,-2.6537,3.268,6.2439,3.8647,-19.388,9.644,-2.6537,3.268,11.881,3.1596,7.5556,10.286,13.527,12.882,-2.6923,10.222,0.65359,9.4872
9.9371,18.540001,16.26,5.1133,1.9608,-4.813,14.171,-3.285,0.58252,5.1133,1.9608,13.861,3.1596,6.2857,11.556,11.594,12.238,1.7949,5.1429,3.9216,5.641
0.50314,3.3016,9.7561,-3.9482,0.65359,17.951,5.7971,-1.3527,4.466,-3.9482,0.65359,11.881,2.5276,1.2063,6.4762,1.9324,5.7971,3.7179,0.06349,1.9608,-0.12821
-3.2704,-7.4921,-0.65041,-2.0065,-2.6144,-23.024,1.2882,-9.0821,-3.9482,-2.0065,-2.6144,3.3003,2.5276,-1.3333,2.0317,-6.4412,-0.64412,-4.6154,-7.5556,2.6144,-3.9744
1.761,2.6667,-1.3008,-3.301,-3.268,-15.22,-0.64412,-4.5733,3.1715,-3.301,-3.268,0.0,6.3191,2.4762,4.5714,-1.2882,1.9324,10.769,-6.9206,8.4967,-1.4103
2.3899,3.9365,-0.65041,-8.479,-3.268,7.5447,-3.8647,-7.7939,-0.06472,-8.479,-3.268,0.0,6.951,3.1111,3.9365,0.0,1.9324,10.769,-3.1111,9.1503,-0.76923
4.2767,-10.032,-1.9512,-0.06472,-7.8431,-6.7642,-9.6618,-2.6409,-9.7735,-0.06472,-7.8431,-4.6205,5.0553,-0.06349,3.9365,-5.153,-0.64412,1.7949,-5.6508,10.458,-4.6154
-0.75472,-11.302,-3.252,-9.7735,-10.458,3.6423,-11.594,1.2238,-3.9482,-9.7735,-10.458,-5.2805,2.5276,-1.9683,2.0317,-7.7295,-2.5765,-2.0513,-8.8254,8.4967,-6.5385
5.5346,-3.0476,2.6016,-7.8317,-13.725,-5.4634,-11.594,-12.303,-14.304,-7.8317,-13.725,-8.5809,3.7915,0.57143,7.1111,-4.5089,1.9324,-2.0513,-11.365,9.1503,-2.0513
11.195,-1.1429,6.5041,-13.01,-14.379,6.8943,5.7971,-9.7262,-29.191,-13.01,-14.379,-2.6403,7.5829,3.746,13.46,-2.5765,5.7971,6.9231,-9.4603,10.458,-1.4103
11.824,-3.6825,6.5041,-3.9482,-1.9608,-3.5122,-6.4412,-3.285,-3.9482,-3.9482,-1.9608,-2.6403,9.4787,6.2857,13.46,1.2882,8.3736,5.0,1.3333,9.8039,5.0
11.824,-0.50794,9.7561,-5.2427,-3.268,4.2927,-9.0177,-5.8615,-0.06472,-5.2427,-3.268,0.0,8.8468,7.5556,15.365,6.4412,11.594,-7.8205,0.06349,5.8824,5.0
8.6792,9.0159,8.4553,12.233,11.111,-8.065,19.968,7.0209,18.705999,12.233,11.111,7.9208,8.8468,10.73,9.6508,9.6618,11.594,-0.12821,10.222,2.6144,12.692
-2.0126,-1.1429,-3.252,5.1133,0.65359,-2.2114,5.153,5.7327,3.1715,5.1133,0.65359,-0.66007,0.63191,6.2857,-3.0476,2.5765,0.0,-4.6154,8.9524,-5.8824,9.4872
-13.333,-11.302,-4.5528,-9.1262,-1.9608,-2.8618,-9.0177,-14.235,1.2298,-9.1262,-1.9608,-5.2805,-3.7915,3.1111,-10.032,-1.9324,-3.8647,-11.026,5.7778,-7.8431,7.5641
-13.962,-3.0476,-3.252,-11.715,-2.6144,-6.7642,-8.3736,-15.523,7.7023,-11.715,-2.6144,-7.2607,-2.5276,3.746,-10.032,3.8647,-1.2882,-15.513,7.0476,-7.1895,7.5641
-8.9308,9.6508,-0.65041,-7.1845,-1.3072,-1.561,3.2206,-10.37,1.877,-7.1845,-1.3072,-5.2805,1.2638,7.5556,-5.5873,13.527,3.8647,-6.5385,11.492,-3.9216,12.692
-10.189,15.365,2.6016,-5.89,-1.9608,-6.7642,4.5089,-0.06441,7.055,-5.89,-1.9608,-1.9802,0.0,7.5556,-5.5873,15.459,4.5089,-8.4615,12.762,-2.6144,13.333
-6.4151,23.618999,7.1545,-0.06472,0.0,-21.073,9.6618,-11.014,16.764,-0.06472,0.0,1.9802,0.0,8.1905,-4.9524,22.544001,7.0853,-3.3333,16.570999,-1.9608,15.256
-0.75472,15.365,9.7561,-11.715,-3.268,-18.472,1.9324,-9.7262,10.291,-11.715,-3.268,-1.9802,2.5276,7.5556,3.9365,21.9,11.594,4.359,15.302,1.9608,13.333
9.3082,13.46,9.7561,-6.5372,-5.8824,-6.1138,-1.9324,-3.285,10.939,-6.5372,-5.8824,-3.9604,10.111,10.095,16.0,21.9,16.103001,4.359,14.667,11.765,13.974
11.195,16.635,7.8049,-11.068,-0.65359,-10.016,5.153,-11.659,10.291,-11.068,-0.65359,-0.66007,10.742,9.4603,17.905001,21.9,15.459,4.359,12.762,13.725,13.333
11.195,7.746,0.65041,-2.6537,3.268,9.4959,1.9324,1.868,14.822,-2.6537,3.268,0.66007,8.8468,7.5556,15.365,14.171,10.95,6.2821,10.222,15.033,9.4872
12.453,-5.5873,-8.4553,1.2298,3.9216,10.146,8.3736,3.1562,2.5243,1.2298,3.9216,0.66007,3.7915,-0.69841,10.286,-3.2206,-0.64412,12.051,0.69841,12.418,-0.76923
10.566,-17.016001,-10.407,3.8188,-2.6144,-7.4146,-3.8647,6.3768,-6.5372,3.8188,-2.6144,-5.2805,4.4234,-1.3333,12.825,-8.3736,0.0,2.4359,-4.381,9.8039,-4.6154
10.566,-4.9524,0.65041,2.5243,-0.65359,-23.024,-4.5089,1.2238,-1.3592,2.5243,-0.65359,-1.9802,6.3191,2.4762,14.73,-1.2882,6.4412,6.9231,-3.746,14.379,-0.12821
4.9057,-0.50794,2.6016,-13.657,-9.1503,-12.618,-7.0853,-1.9968,0.58252,-13.657,-9.1503,-3.3003,2.5276,1.8413,6.4762,0.0,3.8647,2.4359,-5.6508,7.8431,-2.0513
-4.5283,7.746,5.2033,-3.9482,-3.9216,2.3415,4.5089,-8.438,-3.9482,-3.9482,-3.9216,0.66007,3.7915,4.381,0.12698,5.7971,5.7971,0.51282,-3.1111,3.9216,1.1538
-7.044,1.3968,0.65041,-11.715,-9.8039,9.4959,-9.0177,-16.167,4.466,-11.715,-9.8039,-1.9802,1.2638,3.746,-5.5873,3.8647,2.5765,-4.6154,-3.746,0.0,-0.12821
-7.044,0.7619,1.9512,-7.1845,-6.5359,2.3415,-5.153,-9.0821,-0.71197,-7.1845,-6.5359,0.0,0.63191,5.6508,-5.5873,3.8647,3.8647,1.7949,-1.8413,-1.3072,1.1538
-7.044,-0.50794,0.0,-9.7735,-11.111,-23.024,-0.64412,-9.0821,-2.0065,-9.7735,-11.111,-6.6007,-2.5276,4.381,-6.8571,5.153,2.5765,-3.9744,-3.746,-5.8824,0.51282
-2.6415,7.746,2.6016,-7.1845,-4.5752,-8.065,0.64412,-14.235,5.7605,-7.1845,-4.5752,-5.2805,-0.63191,7.5556,-3.0476,10.95,7.0853,-5.8974,4.5079,-5.8824,5.0
-4.5283,13.46,3.9024,-2.6537,1.3072,-9.3659,1.2882,-7.1498,13.528,-2.6537,1.3072,-4.6205,1.8957,8.1905,1.3968,14.171,9.0177,-7.1795,8.9524,-1.3072,8.2051
3.0189,6.4762,3.252,-6.5372,-1.9608,-6.7642,-0.64412,-8.438,6.4078,-6.5372,-1.9608,-7.2607,2.5276,5.6508,5.2063,10.95,7.7295,-6.5385,4.5079,-0.65359,3.7179
6.7925,7.1111,3.9024,-16.893,-7.1895,-8.7154,-1.9324,-18.743999,5.1133,-16.893,-7.1895,-7.2607,2.5276,-0.69841,7.746,6.4412,6.4412,-1.4103,-2.4762,0.65359,-4.6154
4.9057,-10.667,-5.2033,-23.365999,-18.301001,-12.618,-16.103001,-14.235,-12.362,-23.365999,-18.301001,-14.521,-4.4234,-10.222,3.3016,-5.7971,-2.5765,-4.6154,-15.175,0.0,-16.153999
2.3899,-17.650999,-11.707,-20.777,-18.301001,-11.317,-15.459,-20.676001,-9.7735,-20.777,-18.301001,-17.822001,-6.951,-14.032,-1.1429,-12.238,-9.6618,-2.6923,-15.81,-1.9608,-18.077
-7.673,-8.127,-11.707,-16.246,-11.111,-26.275999,-7.7295,-28.406,-0.71197,-16.246,-11.111,-16.502001,-6.951,-12.127,-4.3175,-10.306,-9.6618,-12.308,-10.095,-3.9216,-13.59
-3.8994,-8.7619,-1.9512,-10.421,-1.9608,-4.1626,-10.306,-16.167,14.822,-10.421,-1.9608,-7.9208,-0.63191,-3.873,0.12698,-5.7971,-2.5765,-5.2564,-1.8413,1.3072,-3.3333
2.3899,17.27,13.659,-3.9482,5.2288,-9.3659,10.306,-7.7939,18.705999,-3.9482,5.2288,4.6205,6.951,8.8254,7.746,9.0177,10.306,1.1538,9.5873,5.8824,10.128
1.1321,3.3016,5.8537,1.2298,8.4967,2.3415,11.594,-12.303,18.058001,1.2298,8.4967,7.9208,0.63191,1.8413,0.12698,1.2882,2.5765,-10.385,7.6825,-1.9608,5.641
-9.5597,-1.7778,0.65041,-6.5372,8.4967,16.0,10.306,-3.9291,21.941999,-6.5372,8.4967,3.3003,-1.2638,-0.06349,-4.9524,-1.2882,-0.64412,-4.6154,5.1429,-3.9216,3.0769
-8.3019,1.3968,3.9024,-3.301,8.4967,9.4959,5.7971,-9.7262,18.058001,-3.301,8.4967,6.6007,-0.63191,0.57143,-5.5873,-0.64412,1.2882,-0.12821,6.4127,-2.6144,5.0
-0.12579,0.12698,0.65041,3.1715,5.2288,-6.7642,5.153,-5.8615,18.705999,3.1715,5.2288,1.9802,1.2638,1.8413,-1.7778,-0.64412,1.9324,-5.8974,7.0476,0.65359,6.2821
0.50314,-4.9524,-3.252,-0.06472,4.5752,-16.52,1.9324,-12.947,8.3495,-0.06472,4.5752,-3.9604,4.4234,3.1111,2.6667,0.0,3.2206,5.641,7.0476,3.268,6.2821
7.4214,-2.4127,0.0,-11.068,-4.5752,-11.967,-0.64412,-7.7939,11.586,-11.068,-4.5752,-5.2805,7.5829,3.1111,10.286,1.2882,5.7971,3.0769,11.492,5.2288,3.0769
14.34,5.2063,5.8537,-3.301,5.8824,-8.7154,10.306,-1.9968,20.0,-3.301,5.8824,6.6007,10.742,5.0159,14.095,3.2206,9.0177,6.2821,7.0476,9.1503,5.0
8.6792,-1.1429,0.0,1.877,2.6144,-3.5122,0.64412,-1.9968,10.291,1.877,2.6144,1.9802,7.5829,1.2063,11.556,-3.2206,4.5089,3.7179,4.5079,7.1895,1.7949
4.2767,-5.5873,0.0,1.877,0.0,27.056999,4.5089,-3.285,13.528,1.877,0.0,4.6205,6.3191,-0.06349,9.0159,-3.8647,2.5765,1.1538,6.4127,6.5359,1.7949
14.34,18.540001,13.659,3.8188,10.458,4.9431,27.697001,2.5121,24.531,3.8188,10.458,11.221,7.5829,2.4762,17.27,6.4412,10.95,10.769,10.857,7.8431,3.7179
14.34,11.556,9.1057,-2.0065,7.8431,-0.26016,15.459,-5.2174,23.236,-2.0065,7.8431,3.9604,10.742,3.746,17.905001,3.8647,7.7295,12.051,15.302,12.418,4.359
-3.2704,2.6667,-1.9512,-4.5955,4.5752,-12.618,9.6618,-17.455999,21.294001,-4.5955,4.5752,0.66007,6.951,1.8413,3.9365,-0.64412,-1.2882,0.51282,12.762,4.5752,3.7179
-7.044,10.286,-2.6016,-9.7735,6.5359,-8.065,18.035,-6.5056,17.410999,-9.7735,6.5359,2.6403,6.3191,1.8413,-1.1429,-0.64412,-2.5765,-0.76923,10.222,2.6144,3.0769
-3.2704,-1.7778,-5.2033,1.877,2.6144,9.4959,2.5765,-1.3527,18.058001,1.877,2.6144,3.3003,3.7915,0.57143,-4.3175,-4.5089,-6.4412,-2.6923,7.6825,0.0,2.4359
-7.044,5.2063,-2.6016,-2.0065,-0.65359,-0.91057,5.7971,-2.6409,12.88,-2.0065,-0.65359,-0.66007,-0.63191,-0.69841,-8.7619,-2.5765,-6.4412,-8.4615,4.5079,-6.5359,1.1538
-9.5597,-1.7778,-7.1545,-2.6537,-3.268,-6.7642,-3.2206,-2.6409,11.586,-2.6537,-3.268,-2.6403,-2.5276,-0.69841,-11.937,-3.8647,-8.3736,-12.308,3.873,-8.4967,1.1538
-8.3019,2.6667,-7.1545,-5.2427,-7.8431,1.0407,-1.9324,-8.438,-3.9482,-5.2427,-7.8431,-1.3201,-0.63191,3.1111,-9.3968,-1.2882,-6.4412,-9.1026,-1.8413,-8.4967,1.7949
1.761,3.9365,-0.65041,-9.7735,-3.9216,14.699,-11.594,-5.2174,-1.3592,-9.7735,-3.9216,1.3201,1.2638,5.0159,-4.9524,2.5765,-1.2882,-9.1026,-4.381,-6.5359,4.359
0.50314,-6.2222,3.9024,3.8188,-8.4967,8.1951,-5.153,-1.3527,-2.0065,3.8188,-8.4967,1.3201,0.0,3.1111,-1.1429,1.9324,1.9324,-7.8205,-1.8413,-4.5752,1.7949
18.113001,6.4762,17.561001,5.1133,1.3072,17.951,4.5089,4.4444,5.7605,5.1133,1.3072,9.901,7.5829,9.4603,12.19,12.882,15.459,4.359,1.9683,3.268,8.8462
12.453,13.46,13.008,1.877,-7.8431,8.1951,2.5765,10.886,-1.3592,1.877,-7.8431,1.3201,7.5829,8.8254,12.19,14.815,15.459,-6.5385,-1.2063,5.8824,6.2821
2.3899,8.381,6.5041,-6.5372,-5.8824,-6.1138,-3.2206,1.868,8.3495,-6.5372,-5.8824,-3.3003,1.8957,6.2857,4.5714,12.882,9.6618,2.4359,7.0476,2.6144,9.4872
3.6478,12.19,7.8049,-1.3592,-1.3072,4.9431,-3.2206,-1.3527,12.233,-1.3592,-1.3072,0.66007,0.63191,5.0159,5.2063,14.171,10.306,6.2821,9.5873,3.268,8.2051
1.1321,9.6508,5.8537,0.58252,0.65359,-10.667,1.9324,-3.9291,7.055,0.58252,0.65359,-2.6403,-1.8957,1.8413,2.0317,11.594,7.0853,1.1538,7.6825,0.65359,6.9231
-3.8994,12.19,3.252,3.8188,2.6144,1.0407,6.4412,3.1562,3.8188,3.8188,2.6144,-1.3201,-0.63191,3.1111,-1.7778,9.6618,4.5089,2.4359,12.762,1.3072,8.2051
-12.075,9.0159,-8.4553,-0.71197,0.0,-4.1626,5.153,2.5121,-2.6537,-0.71197,0.0,-2.6403,-7.5829,-3.873,-14.476,1.2882,-7.7295,-0.76923,2.6032,-3.9216,0.51282
-12.704,-10.667,-14.959,-0.06472,1.3072,11.447,-12.882,6.3768,12.88,-0.06472,1.3072,-5.2805,-9.4787,-7.6825,-17.650999,-8.3736,-14.815,-0.76923,3.2381,-6.5359,-2.6923
-7.044,-10.667,-11.057,-3.301,-5.8824,-0.91057,-14.171,1.2238,1.877,-3.301,-5.8824,-11.221,-5.0553,-5.7778,-10.667,-5.153,-9.0177,6.2821,1.3333,-3.9216,-3.9744
4.2767,-5.5873,-2.6016,-3.301,-12.418,1.6911,-16.747,1.868,-11.068,-3.301,-12.418,-13.201,3.7915,-1.3333,2.6667,0.0,1.2882,3.7179,-5.0159,3.268,-3.3333
4.2767,-4.9524,-2.6016,-5.2427,-15.686,-8.065,-19.323999,-3.285,-5.2427,-5.2427,-15.686,-16.502001,5.6872,0.57143,6.4762,0.0,2.5765,1.7949,0.06349,5.8824,-0.76923
7.4214,-5.5873,-2.6016,-1.3592,-9.1503,-5.4634,-7.7295,5.0886,-5.89,-1.3592,-9.1503,-7.9208,5.0553,-0.06349,7.746,-3.8647,1.2882,6.9231,-3.1111,7.1895,-3.9744
10.566,-4.3175,4.5528,3.8188,-4.5752,16.0,-3.2206,11.53,-1.3592,3.8188,-4.5752,7.2607,3.7915,-2.6032,9.6508,-5.7971,3.8647,6.2821,-8.8254,4.5752,-8.4615
15.597,-0.50794,13.659,3.1715,3.9216,14.699,7.0853,3.1562,5.7605,3.1715,3.9216,19.142,4.4234,-1.9683,11.556,-3.8647,7.7295,3.7179,-5.6508,1.9608,-7.8205
21.257999,12.825,14.959,8.3495,3.9216,18.601999,9.0177,-1.3527,-0.71197,8.3495,3.9216,17.822001,8.2148,1.8413,16.635,3.8647,11.594,0.51282,-5.6508,4.5752,-6.5385
4.2767,-3.0476,7.8049,7.055,2.6144,-1.561,12.882,19.903,-13.01,7.055,2.6144,11.221,3.1596,-3.873,6.4762,-5.7971,3.8647,5.641,-10.095,-1.9608,-9.7436
-2.0126,-11.302,2.6016,6.4078,-6.5359,6.2439,-5.153,11.53,-7.8317,6.4078,-6.5359,2.6403,0.0,-5.1429,1.3968,-9.0177,-1.2882,-6.5385,-14.54,-5.8824,-14.231
0.50314,-9.3968,2.6016,2.5243,-0.65359,2.3415,-1.2882,5.0886,-2.6537,2.5243,-0.65359,7.9208,0.0,-3.873,-1.7778,-7.0853,-1.2882,6.2821,-13.27,-7.1895,-9.1026
-6.4151,-6.2222,-5.8537,-10.421,-9.1503,16.0,-5.153,-9.0821,-17.540001,-10.421,-9.1503,-1.9802,-6.3191,-5.7778,-11.937,-6.4412,-7.0853,-3.3333,-13.27,-13.725,-8.4615
-8.3019,-1.7778,-5.2033,4.466,-7.1895,-7.4146,-9.6618,2.5121,-9.7735,4.466,-7.1895,-6.6007,-5.0553,-1.3333,-11.937,1.9324,-3.2206,-9.1026,-8.8254,-8.4967,-3.3333
-9.5597,10.921,3.9024,1.2298,-3.9216,-12.618,3.2206,1.868,3.1715,1.2298,-3.9216,-1.9802,-2.5276,1.8413,-9.3968,10.306,3.8647,-1.4103,-1.8413,-7.1895,1.7949
-6.4151,2.6667,-5.8537,0.58252,0.0,-8.7154,0.0,9.5974,-3.301,0.58252,0.0,-3.9604,-8.2148,-5.7778,-13.206,2.5765,-5.153,-5.2564,-6.2857,-9.1503,-4.6154
-9.5597,-5.5873,-13.659,7.055,7.1895,-5.4634,0.64412,15.395,-2.6537,7.055,7.1895,-1.3201,-9.4787,-9.5873,-13.206,-7.0853,-10.95,3.0769,-5.0159,-7.8431,-7.1795
5.5346,-3.6825,-5.2033,14.175,14.379,2.3415,10.306,12.818,3.8188,14.175,14.379,7.2607,-7.5829,-10.222,-4.3175,-8.3736,-7.0853,5.0,-1.2063,-2.6144,-9.1026
2.3899,-10.032,-5.8537,14.822,12.418,19.252001,7.0853,30.209,1.877,14.822,12.418,5.9406,-13.27,-17.205999,-6.8571,-14.815,-11.594,9.4872,-2.4762,-6.5359,-12.949
-1.3836,-11.302,-10.407,9.644,9.1503,13.398,-6.4412,4.4444,9.644,9.644,9.1503,0.66007,-13.902,-15.302,-7.4921,-12.882,-12.238,3.7179,0.69841,-7.1895,-10.385
-0.12579,-8.7619,-9.1057,19.353001,10.458,-1.561,1.2882,10.886,8.9968,19.353001,10.458,0.0,-10.742,-12.762,-4.9524,-10.306,-9.6618,1.1538,-0.57143,-2.6144,-8.4615
-3.8994,-14.476,-9.7561,12.233,5.8824,-8.7154,-5.7971,17.971001,1.877,12.233,5.8824,-5.2805,-6.3191,-10.222,-2.4127,-11.594,-9.0177,1.7949,-0.57143,-1.9608,-7.8205
-0.12579,-10.032,-9.7561,6.4078,1.9608,-4.813,-3.8647,3.8003,-11.068,6.4078,1.9608,-9.2409,-3.1596,-10.222,-1.1429,-12.882,-10.306,0.51282,-4.381,1.3072,-7.8205
-7.044,-6.8571,-8.4553,5.1133,3.268,2.3415,-6.4412,1.2238,8.9968,5.1133,3.268,-6.6007,-1.8957,-4.5079,-2.4127,-7.0853,-9.0177,-0.76923,0.06349,2.6144,-3.9744
-6.4151,4.5714,-5.8537,8.9968,9.8039,10.797,2.5765,-2.6409,1.877,8.9968,9.8039,-5.2805,1.2638,0.57143,-4.3175,0.64412,-5.153,3.0769,5.1429,3.9216,3.0769
-8.3019,3.3016,-7.1545,6.4078,3.9216,-7.4146,-7.7295,8.3092,10.939,6.4078,3.9216,-9.2409,0.63191,3.746,-6.2222,4.5089,-3.8647,-7.8205,7.6825,0.0,4.359
-3.2704,11.556,2.6016,1.2298,8.4967,2.9919,6.4412,1.868,8.9968,1.2298,8.4967,0.0,3.7915,8.1905,-3.0476,12.238,4.5089,-2.0513,12.127,-0.65359,10.128
1.1321,10.921,5.8537,-2.0065,1.9608,-1.561,3.8647,4.4444,3.1715,-2.0065,1.9608,1.9802,3.7915,6.2857,0.12698,8.3736,3.2206,-3.9744,6.4127,0.0,5.0
-3.2704,5.8413,1.9512,9.644,6.5359,6.2439,10.306,4.4444,3.1715,9.644,6.5359,5.2805,-4.4234,-0.69841,-6.8571,0.0,-4.5089,-7.8205,2.6032,-7.1895,1.1538
-5.1572,3.9365,-1.9512,-0.06472,6.5359,1.0407,9.0177,1.868,19.353001,-0.06472,6.5359,3.9604,-8.8468,-5.7778,-8.7619,-3.2206,-9.0177,-0.12821,2.6032,-5.2288,-1.4103
-1.3836,-6.2222,-7.1545,-1.3592,1.9608,-2.2114,-5.153,-2.6409,-2.6537,-1.3592,1.9608,-5.2805,-9.4787,-8.3175,-6.8571,-8.3736,-10.306,-1.4103,-5.0159,-6.5359,-3.9744
-5.7862,-1.1429,-5.2033,3.1715,0.65359,0.39024,0.0,1.2238,-15.599,3.1715,0.65359,-4.6205,-10.111,-10.222,-5.5873,-10.95,-10.95,-4.6154,-8.8254,-8.4967,-8.4615
-10.818,-4.3175,-6.5041,3.1715,-0.65359,-2.2114,-7.0853,3.1562,-2.0065,3.1715,-0.65359,-3.3003,-9.4787,-12.127,-5.5873,-12.238,-12.882,-0.12821,-12.635,-6.5359,-11.026
-10.189,-14.476,-12.358,-3.9482,-2.6144,-30.829,-14.171,-1.9968,-9.7735,-3.9482,-2.6144,-5.9406,-7.5829,-10.857,-6.8571,-16.747,-14.815,-0.12821,-14.54,-6.5359,-8.4615
-5.7862,-25.905001,-18.862,1.2298,-11.111,-0.26016,-23.188,18.615,-19.482,1.2298,-11.111,-10.561,-6.3191,-12.762,-5.5873,-23.188,-16.103001,3.0769,-25.333,-2.6144,-18.077
-1.3836,-30.349001,-16.910999,3.1715,-8.4967,5.5935,-22.544001,9.5974,-21.424,3.1715,-8.4967,-9.901,-5.6872,-14.667,-3.0476,-26.409,-16.103001,8.2051,-28.507999,0.65359,-19.358999
4.9057,-29.714001,-13.008,14.822,-3.268,-3.5122,-12.238,10.886,-22.718,14.822,-3.268,-0.66007,-6.3191,-15.302,-1.7778,-33.493999,-19.323999,13.974,-24.698,3.9216,-19.358999
-1.3836,-39.237999,-20.813,13.528,1.3072,1.6911,-21.256001,12.818,-19.482,13.528,1.3072,-2.6403,-11.374,-18.476,-10.667,-39.291,-27.697001,-1.4103,-20.889,-1.3072,-20.0
-5.7862,-22.094999,-17.561001,2.5243,1.9608,9.4959,-12.882,8.3092,-12.362,2.5243,1.9608,-3.3003,-8.8468,-12.762,-10.667,-25.764999,-21.256001,11.41,-12.0,1.9608,-11.667
1.761,-7.4921,-4.5528,3.1715,-0.65359,-5.4634,-8.3736,2.5121,-24.013,3.1715,-0.65359,-1.9802,-3.1596,-7.0476,-3.6825,-9.0177,-7.7295,9.4872,-5.0159,4.5752,-6.5385
6.1635,7.746,4.5528,-5.2427,-7.8431,-7.4146,-10.306,1.2238,-15.599,-5.2427,-7.8431,-5.9406,5.0553,3.746,5.2063,10.306,6.4412,6.9231,4.5079,6.5359,3.0769
4.2767,10.286,-0.65041,-3.9482,-6.5359,-11.317,-8.3736,1.868,-7.8317,-3.9482,-6.5359,-10.561,5.6872,6.2857,5.2063,14.171,8.3736,8.8462,7.0476,7.8431,7.5641
-0.12579,2.6667,-1.9512,-7.1845,-8.4967,3.6423,-14.171,-1.9968,-10.421,-7.1845,-8.4967,-10.561,3.1596,5.6508,5.2063,12.882,8.3736,1.1538,9.5873,3.9216,6.2821
1.761,14.73,10.407,6.4078,5.8824,-19.122,9.6618,-2.6409,4.466,6.4078,5.8824,2.6403,5.6872,10.095,8.381,19.968,16.103001,0.51282,15.937,3.268,13.974
4.2767,6.4762,10.407,0.58252,0.65359,2.3415,-12.238,1.2238,9.644,0.58252,0.65359,-3.3003,6.951,12.0,11.556,19.323999,17.391001,-4.6154,15.302,2.6144,13.974
9.3082,12.825,16.910999,8.3495,6.5359,3.6423,1.2882,10.886,6.4078,8.3495,6.5359,4.6205,6.951,12.635,12.825,21.256001,19.968,-0.76923,20.381001,3.9216,16.538
8.0503,14.73,15.61,7.055,11.111,-6.7642,10.95,-3.285,9.644,7.055,11.111,8.5809,7.5829,13.27,9.6508,19.968,17.391001,-0.76923,22.285999,2.6144,17.179001
4.9057,19.809999,16.26,8.9968,12.418,11.447,14.171,3.1562,7.7023,8.9968,12.418,11.221,10.111,15.81,11.556,19.968,18.68,-2.0513,19.746,3.9216,17.820999
1.1321,17.27,15.61,12.233,13.072,20.552999,12.238,3.8003,10.939,12.233,13.072,12.541,7.5829,16.444,7.746,19.323999,16.103001,-10.385,22.285999,-3.9216,19.743999
-5.1572,24.889,9.7561,-3.9482,12.418,11.447,21.256001,2.5121,5.1133,-3.9482,12.418,11.881,3.7915,14.54,-1.7778,16.747,9.0177,-9.7436,15.302,-5.2288,17.179001
-7.044,22.349001,7.8049,8.9968,9.1503,-8.065,25.764999,7.0209,-11.715,8.9968,9.1503,13.201,-1.8957,11.365,-8.127,12.882,3.8647,-9.1026,14.667,-9.8039,15.256
-13.962,10.286,1.9512,4.466,0.0,-2.8618,8.3736,-11.659,-3.301,4.466,0.0,4.6205,-6.951,5.0159,-15.746,5.153,-3.2206,-12.949,7.6825,-16.993,8.8462
-17.736,-8.127,-7.1545,-4.5955,0.65359,12.098,-9.6618,-9.7262,-2.0065,-4.5955,0.65359,1.3201,-10.742,-1.9683,-21.459999,-5.7971,-11.594,-13.59,-4.381,-18.954,1.1538
-17.736,-11.302,-13.659,-5.89,-3.9216,-6.1138,-11.594,-8.438,-7.8317,-5.89,-3.9216,-5.9406,-13.902,-6.4127,-23.365,-11.594,-16.747,-9.1026,-5.6508,-18.301001,-3.9744
-20.881001,-15.746,-18.211,-13.01,-9.1503,-19.122,-13.527,-11.659,-18.188,-13.01,-9.1503,-10.561,-18.325001,-14.032,-25.27,-18.68,-21.9,-5.8974,-14.54,-15.686,-12.308
-15.22,-23.365,-16.910999,-5.89,-11.765,-4.813,-16.747,-1.3527,-16.246,-5.89,-11.765,-9.2409,-16.43,-16.570999,-17.016001,-21.256001,-19.323999,-3.3333,-19.618999,-10.458,-17.436001
3.0189,-17.650999,-5.8537,10.939,-1.9608,8.8455,-8.3736,8.3092,-22.070999,10.939,-1.9608,0.66007,-10.111,-15.302,-3.0476,-16.747,-9.0177,4.359,-19.618999,-1.3072,-16.795
1.1321,-18.285999,-1.9512,1.877,-5.8824,1.0407,-10.95,5.7327,-13.01,1.877,-5.8824,3.3003,-11.374,-16.570999,-0.50794,-16.103001,-7.0853,7.5641,-22.159,0.0,-20.641001
6.1635,-8.127,7.1545,5.7605,3.268,-1.561,0.0,9.5974,-5.89,5.7605,3.268,11.221,-6.951,-12.762,3.9365,-9.0177,0.64412,12.051,-15.81,4.5752,-14.872
6.7925,-4.3175,5.2033,2.5243,-1.9608,7.5447,-4.5089,5.0886,-12.362,2.5243,-1.9608,7.2607,-6.3191,-12.762,5.8413,-7.7295,0.64412,11.41,-17.079,4.5752,-15.513
13.082,-4.9524,10.407,6.4078,2.6144,16.0,0.64412,2.5121,-11.715,6.4078,2.6144,11.881,-4.4234,-10.857,10.286,-5.153,5.153,12.051,-12.0,6.5359,-11.667
13.711,-6.8571,11.057,7.7023,-0.65359,-0.26016,0.64412,6.3768,1.877,7.7023,-0.65359,11.221,-3.1596,-10.222,11.556,-4.5089,5.153,5.641,-11.365,7.8431,-11.667
14.34,0.7619,13.659,12.88,2.6144,12.098,-1.9324,5.7327,-12.362,12.88,2.6144,11.881,5.6872,-2.6032,16.635,3.8647,10.95,10.128,-3.746,13.725,-3.3333
14.34,3.9365,12.358,3.8188,-2.6144,1.0407,-7.0853,6.3768,-5.89,3.8188,-2.6144,3.9604,11.374,2.4762,19.809999,7.0853,12.882,8.8462,-5.0159,15.033,-0.76923
15.597,1.3968,6.5041,-7.1845,-5.8824,6.2439,-3.2206,-16.167,-5.89,-7.1845,-5.8824,0.0,10.111,1.8413,17.27,4.5089,7.7295,-1.4103,-5.6508,13.072,-2.0513
7.4214,2.0317,2.6016,-15.599,-7.8431,2.3415,-3.8647,-7.1498,-10.421,-15.599,-7.8431,-1.3201,7.5829,1.2063,10.286,4.5089,3.8647,-0.12821,-1.8413,9.1503,-0.12821
0.50314,3.9365,1.9512,-9.7735,-5.8824,-12.618,-2.5765,-11.014,-0.71197,-9.7735,-5.8824,-1.3201,8.8468,6.2857,7.1111,8.3736,3.8647,1.1538,0.69841,8.4967,4.359
-1.3836,11.556,3.9024,-6.5372,-2.6144,-5.4634,1.2882,-12.303,-2.6537,-6.5372,-2.6144,-3.9604,9.4787,8.8254,6.4762,12.882,5.7971,0.51282,4.5079,6.5359,8.2051
-6.4151,10.286,-1.9512,-6.5372,-8.4967,-27.577,-4.5089,-11.659,2.5243,-6.5372,-8.4967,-8.5809,6.951,9.4603,2.0317,12.238,3.2206,-5.8974,6.4127,2.6144,10.128
-8.3019,5.8413,-3.252,-2.6537,-1.9608,-10.016,5.7971,-9.7262,9.644,-2.6537,-1.9608,-5.2805,6.3191,8.8254,-1.1429,9.0177,0.64412,-5.2564,7.6825,3.268,11.41
-13.962,13.46,1.9512,-3.301,0.0,12.098,16.103001,-2.6409,-11.715,-3.301,0.0,2.6403,3.7915,8.8254,-6.8571,9.0177,0.0,-7.8205,6.4127,-2.6144,10.769
-10.818,1.3968,-2.6016,-0.06472,4.5752,-0.91057,1.2882,-11.659,-0.71197,-0.06472,4.5752,0.0,-1.2638,3.1111,-10.667,2.5765,-4.5089,-9.7436,3.2381,-6.5359,5.0
-9.5597,-1.7778,-6.5041,-3.301,-0.65359,-9.3659,-5.153,-7.1498,1.877,-3.301,-0.65359,-4.6205,-6.951,-5.1429,-11.302,-4.5089,-8.3736,-14.231,-7.5556,-6.5359,-5.2564
-0.75472,-2.4127,3.252,-1.3592,-1.9608,6.8943,5.7971,-3.9291,-3.9482,-1.3592,-1.9608,1.3201,-5.0553,-5.7778,-3.6825,-1.9324,-1.2882,-0.12821,-6.9206,-1.3072,-6.5385
4.9057,-7.4921,3.252,-18.834999,-12.418,-14.569,-10.306,-14.235,-3.301,-18.834999,-12.418,-2.6403,-1.2638,-4.5079,2.0317,0.0,0.64412,-5.2564,-11.365,0.65359,-9.7436
8.0503,6.4762,7.8049,-5.2427,-2.6144,27.056999,3.2206,-2.6409,-10.421,-5.2427,-2.6144,7.9208,7.5829,6.2857,9.0159,9.0177,8.3736,0.51282,-7.5556,6.5359,0.51282
14.34,5.8413,9.7561,3.8188,-3.268,-10.667,-3.8647,-4.5733,-0.06472,3.8188,-3.268,3.9604,15.798,13.905,19.809999,14.815,15.459,6.2821,-0.57143,13.072,6.9231
25.031,12.825,18.211,1.2298,0.65359,7.5447,4.5089,-1.3527,-2.6537,1.2298,0.65359,7.2607,19.589001,15.175,28.698,18.68,21.9,11.41,-1.2063,16.34,8.8462
23.145,5.8413,17.561001,-5.2427,-3.9216,12.098,-0.64412,-0.06441,0.58252,-5.2427,-3.9216,4.6205,17.694,12.0,28.063,14.171,19.968,12.051,-1.8413,15.686,5.641
20.629,5.8413,14.959,-0.71197,-1.9608,12.748,3.8647,-5.2174,-8.479,-0.71197,-1.9608,7.9208,19.589001,12.0,25.524,12.882,18.68,8.2051,0.06349,15.033,5.641
12.453,3.3016,9.7561,1.2298,1.9608,2.9919,4.5089,-0.70853,-5.2427,1.2298,1.9608,8.5809,17.694,11.365,20.444,8.3736,13.527,8.2051,-1.2063,11.765,4.359
16.226,3.9365,11.057,-0.06472,4.5752,5.5935,9.0177,-0.70853,5.1133,-0.06472,4.5752,7.9208,14.534,10.095,17.905001,6.4412,11.594,-0.12821,0.69841,7.8431,5.0
6.1635,16.635,14.959,7.7023,9.1503,27.707001,24.476999,10.242,-10.421,7.7023,9.1503,18.482,12.006,8.8254,11.556,7.0853,9.6618,12.051,3.2381,2.6144,5.641
-0.75472,1.3968,7.8049,7.7023,9.8039,-1.561,6.4412,5.7327,10.291,7.7023,9.8039,10.561,8.8468,9.4603,5.2063,3.8647,3.8647,3.0769,8.3175,3.268,7.5641
-2.6415,-3.0476,0.65041,10.291,6.5359,-12.618,0.64412,14.106,14.822,10.291,6.5359,3.3003,3.7915,6.9206,-4.3175,1.2882,-1.2882,-9.1026,7.6825,-1.9608,8.2051
-3.2704,9.6508,5.2033,14.822,6.5359,3.6423,8.3736,8.9533,3.1715,14.822,6.5359,6.6007,5.6872,9.4603,-2.4127,5.153,2.5765,-3.3333,12.127,-2.6144,10.769
9.3082,9.6508,12.358,7.055,13.725,14.699,10.306,4.4444,17.410999,7.055,13.725,11.221,8.8468,12.0,5.2063,9.0177,7.7295,-1.4103,15.937,2.6144,15.256
2.3899,11.556,6.5041,-1.3592,5.2288,5.5935,9.0177,14.106,6.4078,-1.3592,5.2288,5.2805,6.951,10.73,0.7619,7.0853,2.5765,-2.6923,13.397,-1.3072,12.692
-5.1572,2.6667,-5.2033,3.1715,5.2288,2.3415,1.9324,-1.9968,14.822,3.1715,5.2288,-1.9802,4.4234,7.5556,-4.3175,0.0,-5.7971,-6.5385,12.127,-1.9608,10.128
-5.7862,-3.6825,-7.8049,-0.06472,-0.65359,-2.2114,0.0,-1.9968,4.466,-0.06472,-0.65359,-8.5809,0.63191,1.8413,-2.4127,-5.153,-7.0853,-1.4103,6.4127,-3.268,3.7179
-2.0126,9.0159,-2.6016,1.2298,1.3072,-11.967,12.238,7.6651,-18.188,1.2298,1.3072,-3.9604,0.0,3.1111,-0.50794,-0.64412,-3.8647,-1.4103,2.6032,-3.268,6.9231
-6.4151,-10.667,-14.309,-10.421,-11.111,-8.065,-12.238,-1.9968,-7.8317,-10.421,-11.111,-13.861,-5.0553,-1.3333,-8.127,-8.3736,-12.882,-9.1026,0.06349,-7.1895,1.1538
-10.818,-20.825001,-17.561001,-2.6537,-5.8824,4.9431,-19.968,3.8003,4.466,-2.6537,-5.8824,-11.881,-6.3191,-3.873,-12.571,-14.171,-16.103001,1.1538,2.6032,-5.8824,1.1538
-12.704,-15.111,-18.211,-7.1845,-13.072,-3.5122,-10.306,-6.5056,1.877,-7.1845,-13.072,-15.182,-8.8468,-4.5079,-14.476,-16.103001,-17.391001,-5.2564,-3.746,-6.5359,-1.4103
-15.22,-18.285999,-15.61,-5.2427,-12.418,-23.024,-15.459,-9.7262,-5.89,-5.2427,-12.418,-17.822001,-9.4787,-3.2381,-15.111,-15.459,-16.103001,-10.385,-3.1111,-7.8431,-0.12821
-19.622999,-4.9524,-11.707,-9.7735,-10.458,0.39024,-8.3736,-1.9968,-1.3592,-9.7735,-10.458,-12.541,-6.3191,1.2063,-15.746,-7.7295,-11.594,-5.8974,0.06349,-3.268,2.4359
-13.962,-9.3968,-15.61,-16.246,-11.765,-39.285,-11.594,-10.37,0.58252,-16.246,-11.765,-18.482,-6.951,2.4762,-16.381001,-5.7971,-10.95,-5.8974,-1.2063,-4.5752,2.4359
-13.333,-5.5873,-12.358,-18.188,-9.1503,-16.52,-8.3736,-9.7262,2.5243,-18.188,-9.1503,-17.162001,-3.7915,4.381,-12.571,-2.5765,-6.4412,-1.4103,1.3333,-2.6144,4.359
-8.3019,2.6667,-2.6016,4.466,-3.268,2.3415,-1.9324,3.8003,-4.5955,4.466,-3.268,-5.9406,-0.63191,5.6508,-8.127,1.2882,-0.64412,3.0769,1.9683,1.3072,4.359
-3.8994,-5.5873,-7.8049,-1.3592,-4.5752,-17.820999,-8.3736,-12.947,3.8188,-1.3592,-4.5752,-11.881,-3.7915,1.8413,-11.302,-3.2206,-6.4412,1.7949,2.6032,-1.3072,1.1538
-7.044,2.0317,-9.7561,-15.599,-7.8431,1.6911,-5.153,-13.591,6.4078,-15.599,-7.8431,-12.541,-0.63191,3.746,-8.127,0.64412,-5.153,1.7949,6.4127,0.65359,3.7179
1.1321,3.9365,-1.3008,-1.3592,-4.5752,6.2439,3.8647,2.5121,9.644,-1.3592,-4.5752,-3.3003,2.5276,3.746,0.12698,2.5765,-0.64412,12.051,4.5079,3.9216,4.359
13.082,17.905001,11.057,2.5243,3.268,12.098,32.206001,1.2238,-6.5372,2.5243,3.268,11.221,3.1596,3.1111,9.0159,4.5089,5.153,2.4359,6.4127,6.5359,1.7949
21.257999,0.7619,8.4553,7.055,7.1895,12.748,9.0177,11.53,3.8188,7.055,7.1895,9.2409,3.1596,-1.3333,14.095,-3.8647,2.5765,6.9231,2.6032,8.4967,-1.4103
8.6792,-8.127,1.3008,-1.3592,0.0,-8.065,0.0,5.7327,1.2298,-1.3592,0.0,1.3201,1.8957,-2.6032,9.0159,-5.153,-1.2882,6.2821,1.9683,4.5752,-2.6923
4.9057,6.4762,7.8049,5.7605,7.1895,0.39024,11.594,0.57971,9.644,5.7605,7.1895,7.2607,4.4234,0.57143,7.1111,3.2206,4.5089,-1.4103,5.1429,1.3072,1.1538
4.2767,3.3016,5.2033,0.58252,1.3072,11.447,-3.8647,3.1562,7.055,0.58252,1.3072,5.9406,5.0553,1.8413,5.2063,3.8647,3.2206,-1.4103,-1.2063,0.65359,-0.12821
3.0189,6.4762,9.7561,10.291,11.111,21.854,12.238,16.683001,2.5243,10.291,11.111,15.842,3.7915,3.1111,3.9365,5.7971,6.4412,1.7949,5.7778,0.0,3.0769
-2.0126,0.7619,4.5528,7.7023,2.6144,14.699,-2.5765,5.7327,5.1133,7.7023,2.6144,7.9208,-3.7915,-2.6032,-5.5873,1.9324,0.0,-3.9744,0.69841,-7.8431,-2.6923
-5.7862,-0.50794,-2.6016,10.939,3.9216,19.902,-2.5765,6.3768,-5.2427,10.939,3.9216,1.9802,-5.6872,-2.6032,-10.667,2.5765,-3.2206,-7.8205,-3.746,-8.4967,-2.6923
-7.673,10.286,1.3008,16.117001,6.5359,-5.4634,5.153,16.683001,4.466,16.117001,6.5359,0.66007,-3.7915,1.2063,-8.127,7.7295,0.64412,-7.1795,6.4127,-8.4967,1.7949
-2.6415,7.746,6.5041,14.822,6.5359,-3.5122,9.6618,7.0209,6.4078,14.822,6.5359,5.9406,-3.1596,0.57143,-4.3175,3.8647,2.5765,0.51282,1.9683,-7.1895,-0.76923
8.0503,2.6667,12.358,7.7023,11.765,17.951,3.2206,12.174,13.528,7.7023,11.765,14.521,2.5276,5.0159,3.9365,5.153,8.3736,-2.6923,3.2381,-3.268,1.7949
18.113001,12.19,13.659,8.9968,17.646999,10.146,14.171,3.8003,18.705999,8.9968,17.646999,20.462,6.3191,8.1905,9.6508,9.6618,10.95,-0.76923,8.9524,-0.65359,4.359
7.4214,12.19,6.5041,6.4078,15.686,2.9919,19.968,4.4444,20.0,6.4078,15.686,12.541,5.6872,7.5556,5.8413,8.3736,7.0853,-0.76923,11.492,0.65359,5.641
-1.3836,9.0159,4.5528,0.58252,7.1895,12.748,7.0853,3.8003,18.705999,0.58252,7.1895,3.9604,5.6872,6.2857,5.2063,7.0853,6.4412,0.51282,10.222,2.6144,3.7179
1.761,-7.4921,-0.65041,1.2298,-3.9216,-0.91057,-9.0177,-3.9291,-2.0065,1.2298,-3.9216,-6.6007,0.63191,-1.9683,3.9365,-5.153,-0.64412,5.641,1.3333,0.65359,-4.6154
-0.75472,-11.302,-5.8537,-7.1845,-3.9216,2.9919,-9.6618,-5.8615,-2.6537,-7.1845,-3.9216,-8.5809,-3.1596,-7.0476,-0.50794,-12.238,-7.0853,-1.4103,-5.0159,-2.6144,-8.4615
-5.1572,-12.571,-13.008,-0.71197,0.0,-7.4146,-7.7295,0.57971,-7.1845,-0.71197,0.0,-5.9406,-3.1596,-8.3175,-7.4921,-13.527,-13.527,1.1538,-6.2857,-1.9608,-8.4615
-8.9308,-18.921,-20.813,-11.715,-8.4967,-13.919,-16.103001,-8.438,-0.71197,-11.715,-8.4967,-16.502001,-6.3191,-10.222,-15.746,-15.459,-18.035,-0.76923,-8.8254,-7.1895,-11.026
-9.5597,-11.302,-13.008,0.58252,-1.9608,-10.016,-10.306,5.0886,-1.3592,0.58252,-1.9608,-9.2409,-9.4787,-10.857,-17.016001,-12.238,-15.459,0.51282,-8.8254,-9.1503,-9.1026
-6.4151,-2.4127,-4.5528,7.055,0.0,-4.1626,-5.7971,10.886,-1.3592,7.055,0.0,-1.9802,-7.5829,-10.222,-12.571,-5.153,-9.6618,1.1538,-8.8254,-6.5359,-9.1026
2.3899,7.1111,0.0,9.644,7.1895,13.398,17.391001,8.3092,-16.893,9.644,7.1895,5.2805,-3.7915,-6.4127,-8.127,-2.5765,-4.5089,-9.1026,-6.9206,-3.9216,-5.2564
-7.673,-8.7619,-11.057,-0.06472,-1.9608,-2.8618,-10.95,-1.9968,-2.6537,-0.06472,-1.9608,-5.2805,-3.1596,-7.0476,-8.7619,-7.7295,-10.306,-1.4103,-8.8254,-2.6144,-7.8205
-2.0126,2.0317,-5.2033,-3.9482,1.9608,6.8943,-3.2206,3.8003,-2.0065,-3.9482,1.9608,-1.9802,0.63191,-3.2381,-2.4127,-2.5765,-3.8647,0.51282,-8.8254,0.0,-3.3333
3.6478,-1.1429,3.252,-3.301,-3.268,16.0,-0.64412,-0.06441,-8.479,-3.301,-3.268,1.9802,3.1596,-1.9683,3.3016,-0.64412,0.0,-4.6154,-5.0159,-1.3072,-2.6923
4.2767,4.5714,9.7561,12.88,1.3072,4.9431,1.9324,10.242,-3.9482,12.88,1.3072,9.2409,5.6872,3.746,5.2063,6.4412,5.153,6.2821,0.06349,1.9608,1.7949
-2.6415,10.286,7.8049,14.822,9.8039,-14.569,10.306,8.3092,1.2298,14.822,9.8039,9.901,5.0553,6.2857,3.3016,8.3736,5.153,-6.5385,1.3333,-0.65359,5.0
-2.0126,-0.50794,-1.9512,3.8188,9.1503,-4.1626,2.5765,-0.06441,11.586,3.8188,9.1503,1.3201,2.5276,2.4762,2.6667,0.64412,-0.64412,-9.7436,1.9683,-1.3072,0.51282
-2.6415,-0.50794,-2.6016,-3.301,7.1895,6.8943,7.7295,-10.37,6.4078,-3.301,7.1895,1.3201,-2.5276,-1.9683,-1.1429,-3.2206,-3.8647,2.4359,-3.1111,-5.2288,-2.6923
-7.673,-1.1429,-2.6016,2.5243,7.1895,-3.5122,2.5765,-3.9291,10.291,2.5243,7.1895,0.0,-7.5829,-4.5079,-5.5873,-4.5089,-5.7971,-5.2564,-0.57143,-9.1503,-4.6154
-4.5283,5.8413,2.6016,-3.9482,5.8824,-2.2114,4.5089,-4.5733,13.528,-3.9482,5.8824,1.9802,-5.0553,-3.873,-3.6825,1.2882,-1.9324,3.0769,3.2381,-5.2288,-2.6923
6.1635,12.825,7.1545,6.4078,6.5359,9.4959,12.882,-9.7262,8.9968,6.4078,6.5359,5.9406,-1.2638,-1.3333,3.3016,5.7971,3.2206,2.4359,5.1429,-1.3072,-2.0513
-0.75472,2.6667,0.0,4.466,6.5359,-19.122,7.0853,-5.2174,7.7023,4.466,6.5359,0.0,-5.0553,-5.1429,0.7619,0.0,-2.5765,3.0769,3.873,-3.268,-4.6154
3.0189,10.921,7.1545,1.877,8.4967,-4.1626,9.6618,8.3092,-0.06472,1.877,8.4967,6.6007,-1.2638,-1.3333,6.4762,7.7295,4.5089,6.9231,8.9524,0.0,-0.76923
12.453,21.079,18.211,6.4078,11.111,28.358,11.594,-3.9291,19.353001,6.4078,11.111,10.561,3.1596,1.8413,14.095,18.68,14.815,7.5641,9.5873,3.268,3.0769
11.195,18.540001,15.61,7.7023,3.9216,3.6423,3.8647,15.395,14.175,7.7023,3.9216,2.6403,5.0553,2.4762,15.365,19.968,14.171,1.7949,10.857,7.8431,3.0769
14.969,21.079,11.707,8.3495,11.111,1.6911,17.391001,7.0209,3.1715,8.3495,11.111,6.6007,4.4234,1.2063,14.095,18.035,10.95,8.8462,12.127,9.8039,5.0
11.824,5.8413,1.9512,4.466,0.65359,19.902,5.7971,2.5121,8.9968,4.466,0.65359,3.9604,0.63191,-5.1429,10.921,3.8647,1.2882,15.897,0.06349,7.8431,-4.6154
13.711,-2.4127,6.5041,-0.06472,5.8824,16.0,5.7971,5.7327,0.58252,-0.06472,5.8824,5.9406,0.63191,-5.7778,12.825,-1.9324,1.9324,8.8462,0.69841,10.458,-2.0513
12.453,-0.50794,7.8049,0.58252,-1.9608,-13.919,-2.5765,-2.6409,1.2298,0.58252,-1.9608,0.66007,2.5276,-3.873,12.19,0.0,3.2206,7.5641,-4.381,10.458,-3.3333
1.761,2.0317,3.9024,2.5243,0.0,-0.91057,0.0,-5.8615,-4.5955,2.5243,0.0,3.3003,0.0,-1.9683,3.9365,2.5765,0.0,4.359,-1.8413,5.8824,-0.12821
-3.2704,12.825,-1.3008,-7.8317,0.65359,-6.7642,23.188,-6.5056,-15.599,-7.8317,0.65359,1.3201,-1.2638,-0.69841,0.12698,3.8647,-3.2206,4.359,4.5079,3.9216,3.7179
-7.673,-11.937,-11.057,-5.89,-0.65359,-17.820999,-10.306,-5.8615,-1.3592,-5.89,-0.65359,-5.9406,-6.951,-7.6825,-6.2222,-7.7295,-10.95,-1.4103,-4.381,-1.3072,-4.6154
-6.4151,-8.127,-3.9024,-2.6537,1.3072,-9.3659,-5.7971,-5.8615,7.7023,-2.6537,1.3072,-0.66007,-6.3191,-7.6825,-3.6825,-7.0853,-7.7295,-0.76923,-4.381,-0.65359,-4.6154
-3.2704,5.2063,3.252,-10.421,-1.3072,12.748,3.8647,-10.37,-0.71197,-10.421,-1.3072,0.66007,-3.7915,-4.5079,0.12698,-1.9324,-2.5765,-2.6923,-2.4762,-2.6144,-2.0513
-3.8994,13.46,6.5041,-6.5372,-0.65359,-2.8618,5.153,-4.5733,7.7023,-6.5372,-0.65359,1.9802,-0.63191,0.57143,2.0317,4.5089,1.9324,-1.4103,3.2381,-0.65359,4.359
-0.12579,2.6667,0.0,4.466,1.9608,-10.667,4.5089,-2.6409,2.5243,4.466,1.9608,1.3201,0.0,0.57143,2.6667,0.0,0.0,-0.76923,1.9683,0.65359,4.359
1.1321,-4.3175,-5.2033,1.2298,4.5752,1.0407,2.5765,-8.438,6.4078,1.2298,4.5752,0.66007,1.2638,1.2063,2.0317,-3.8647,-1.9324,-2.6923,0.69841,-3.268,2.4359
9.3082,3.9365,5.2033,3.1715,5.2288,-11.317,3.8647,8.9533,4.466,3.1715,5.2288,3.9604,10.111,9.4603,11.556,4.5089,8.3736,-1.4103,1.9683,5.2288,7.5641
9.9371,3.3016,11.707,0.58252,4.5752,-10.016,4.5089,-0.70853,-1.3592,0.58252,4.5752,6.6007,10.742,10.095,12.825,6.4412,12.238,-0.12821,3.2381,4.5752,8.8462
2.3899,2.6667,7.8049,-3.301,3.268,4.2927,1.2882,-0.06441,7.7023,-3.301,3.268,4.6205,8.2148,10.73,7.1111,5.153,10.306,-9.1026,1.9683,-0.65359,5.641
4.9057,-3.0476,6.5041,15.469,9.1503,2.3415,-1.2882,2.5121,8.9968,15.469,9.1503,6.6007,6.951,10.095,2.6667,3.2206,8.3736,-7.8205,1.9683,-1.9608,6.9231
1.761,2.6667,8.4553,15.469,11.765,22.504,9.0177,7.6651,9.644,15.469,11.765,15.182,5.6872,10.095,0.12698,4.5089,6.4412,-4.6154,1.9683,-3.9216,4.359
3.0189,10.921,14.309,20.0,22.875999,17.951,18.035,2.5121,12.233,20.0,22.875999,23.101999,5.0553,12.635,-2.4127,9.0177,7.7295,-1.4103,7.6825,-3.9216,9.4872
-4.5283,11.556,10.407,6.4078,11.111,13.398,19.323999,10.886,16.117001,6.4078,11.111,19.142,0.63191,6.9206,-8.127,5.7971,1.2882,-5.2564,10.222,-5.2288,5.641
-6.4151,10.921,6.5041,11.586,11.765,3.6423,13.527,5.0886,13.528,11.586,11.765,13.861,1.8957,5.0159,-6.8571,5.7971,0.64412,1.7949,1.9683,0.0,3.7179
-3.8994,3.9365,-0.65041,8.3495,3.9216,7.5447,2.5765,-3.9291,-0.06472,8.3495,3.9216,9.2409,0.63191,1.2063,-8.127,1.2882,-5.7971,4.359,1.3333,1.3072,1.7949
-9.5597,-1.7778,-6.5041,6.4078,3.268,-7.4146,1.9324,3.1562,-0.71197,6.4078,3.268,5.2805,-0.63191,-3.2381,-8.7619,-1.9324,-8.3736,3.0769,0.06349,4.5752,-2.0513
-2.0126,0.7619,-3.252,0.58252,3.268,10.146,6.4412,-9.7262,1.877,0.58252,3.268,3.9604,0.63191,-3.2381,-1.7778,0.64412,-3.8647,3.7179,-0.57143,5.2288,-0.76923
0.50314,-1.7778,-7.1545,-10.421,-3.9216,-15.22,-0.64412,-0.06441,-7.8317,-10.421,-3.9216,-3.9604,-3.1596,-8.3175,1.3968,-2.5765,-5.153,-0.12821,-3.746,4.5752,-7.1795
11.195,-2.4127,-0.65041,3.8188,-3.268,-2.2114,-3.2206,14.106,-1.3592,3.8188,-3.268,-1.9802,2.5276,-6.4127,14.73,0.0,1.9324,14.615,-2.4762,13.725,-5.2564
16.226,5.2063,1.9512,2.5243,-8.4967,20.552999,16.103001,2.5121,-40.194,2.5243,-8.4967,1.9802,3.1596,-5.1429,17.27,-1.2882,3.2206,17.820999,-5.0159,14.379,-6.5385
12.453,-13.206,-4.5528,-2.0065,-11.111,-6.7642,-8.3736,1.2238,-5.89,-2.0065,-11.111,-4.6205,-3.1596,-9.5873,8.381,-9.6618,-5.153,8.2051,-6.2857,7.8431,-9.1026
10.566,-5.5873,1.9512,-0.71197,-4.5752,4.2927,-7.7295,-6.5056,12.233,-0.71197,-4.5752,-0.66007,1.2638,-2.6032,10.286,-2.5765,1.9324,13.974,-0.57143,9.1503,-3.9744
-3.2704,-0.50794,-0.65041,-5.89,-1.9608,10.146,3.2206,-3.285,-11.715,-5.89,-1.9608,3.3003,-1.8957,-6.4127,0.12698,-6.4412,-2.5765,-2.6923,-5.0159,2.6144,-8.4615
-3.8994,-6.2222,-0.65041,1.2298,-3.9216,6.8943,-3.2206,7.6651,-3.9482,1.2298,-3.9216,0.0,-1.2638,-5.7778,-2.4127,-8.3736,-3.2206,-0.76923,-8.1905,1.3072,-9.7436
-2.0126,-10.667,-1.3008,-3.301,-7.1895,-15.22,-3.2206,-0.70853,-8.479,-3.301,-7.1895,-5.9406,-5.0553,-8.3175,-7.4921,-12.238,-5.7971,5.0,-12.0,-2.6144,-11.667
-10.189,-16.381001,-9.1057,-10.421,-15.033,-2.2114,-14.171,-0.06441,-13.657,-10.421,-15.033,-11.221,-8.2148,-8.9524,-13.206,-14.815,-9.6618,-2.0513,-15.81,-5.8824,-13.59
-5.7862,-12.571,-11.057,-1.3592,-9.8039,-17.820999,-9.0177,-13.591,-21.424,-1.3592,-9.8039,-14.521,-4.4234,-5.1429,-11.937,-11.594,-8.3736,-10.385,-12.635,-4.5752,-7.8205
-12.704,-15.746,-14.959,-13.657,-11.765,-6.7642,-14.171,-8.438,-4.5955,-13.657,-11.765,-13.201,-4.4234,-3.2381,-11.937,-10.306,-9.6618,-7.1795,-10.095,-6.5359,-7.1795
-7.044,-7.4921,-8.4553,-0.06472,-4.5752,-4.1626,-2.5765,-6.5056,-0.06472,-0.06472,-4.5752,-7.9208,0.0,1.2063,-6.2222,-4.5089,-3.2206,-3.9744,-1.2063,-2.6144,1.7949
-8.3019,-4.3175,-7.8049,-10.421,-9.8039,-0.91057,-12.238,-5.8615,-11.068,-10.421,-9.8039,-11.221,-1.8957,-1.3333,-6.8571,-5.153,-5.153,-8.4615,-5.6508,-5.2288,-0.76923
-10.189,-15.746,-11.057,-6.5372,-14.379,-9.3659,-14.171,-4.5733,-17.540001,-6.5372,-14.379,-13.201,-5.0553,-6.4127,-8.127,-11.594,-9.6618,-5.2564,-6.2857,-5.2288,-6.5385
-8.3019,-20.190001,-14.959,-17.540001,-18.954,-13.268,-21.9,-10.37,-22.070999,-17.540001,-18.954,-17.162001,-3.1596,-8.9524,-3.0476,-12.882,-9.6618,-10.385,-8.1905,-3.9216,-10.385
