C3,C4,Cz,F1,F2,F3,F4,F7,F8,Fp1,Fp2,Fz,O1,O2,P3,P4,Pz,T3,T4,T5,T6
-16.177,-10.413,-18.447001,-22.549,-17.733999,-11.787,-8.7379,-11.715,-1.0407,-22.549,-17.733999,-11.765,5.7416,1.8413,-8.5079,-1.9231,-11.53,-17.436001,-0.88889,-0.98039,3.7359
-14.281,-13.27,-17.476,-18.627001,-14.778,-11.787,-6.7961,-7.8317,-0.06504,-18.627001,-14.778,-9.8039,7.6555,7.5556,-6.6032,-4.8077,-10.564,-10.705,2.9206,1.9608,4.7021
-9.5419,-16.127001,-15.534,-9.8039,-4.9261,-6.9565,-3.8835,-2.9773,-1.0407,-9.8039,-4.9261,-7.8431,9.5694,10.413,-0.88889,-6.7308,-7.6651,-0.12821,-2.7937,5.8824,4.7021
-7.6461,-19.937,-18.447001,-3.9216,1.9704,-4.058,-4.8544,1.877,-6.8943,-3.9216,1.9704,-6.8627,7.6555,8.5079,0.06349,-11.538,-7.6651,3.7179,-11.365,4.902,-4.9597
-4.8025,-20.889,-20.388,-0.98039,5.9113,-18.551001,-5.8252,4.7896,-6.8943,-0.98039,5.9113,-4.902,8.6124,4.6984,-0.88889,-18.268999,-10.564,2.7564,-17.079,3.9216,-19.452
-2.9068,-18.983999,-20.388,3.9216,2.9557,-5.9903,-3.8835,9.644,-6.8943,3.9216,2.9557,-2.9412,5.7416,2.7937,-4.6984,-25.0,-14.428,3.7179,-16.127001,1.9608,-25.25
-1.9589,-16.127001,-18.447001,13.725,4.9261,12.367,-6.7961,14.498,-9.8211,13.725,4.9261,-2.9412,0.0,-4.8254,-10.413,-31.731001,-18.292999,5.641,-15.175,0.0,-30.080999
0.88468,-9.4603,-11.65,15.686,14.778,13.333,-2.9126,16.440001,-7.8699,15.686,14.778,0.98039,-4.7847,-8.6349,-15.175,-30.768999,-20.225,7.5641,-15.175,-1.9608,-28.148001
-1.0111,-9.4603,-7.767,11.765,14.778,6.57,-1.9417,11.586,-7.8699,11.765,14.778,1.9608,-7.6555,-9.5873,-18.032,-27.885,-23.124001,5.641,-13.27,-4.902,-20.419001
-5.7504,-12.317,-4.8544,7.8431,5.9113,-1.1594,-6.7961,7.7023,-11.772,7.8431,5.9113,-0.98039,-8.6124,-10.54,-19.937,-24.038,-23.124001,2.7564,-12.317,-5.8824,-13.655
-10.49,-18.032,-7.767,4.902,5.9113,-11.787,-12.621,4.7896,-13.724,4.902,5.9113,-7.8431,-12.44,-13.397,-22.794001,-21.153999,-25.056,-1.0897,-14.222,-10.784,-4.9597
-16.177,-18.983999,-14.563,0.0,3.9409,-8.8889,-11.65,-0.06472,-7.8699,0.0,3.9409,-11.765,-14.354,-14.349,-23.746,-18.268999,-26.023001,-8.7821,-8.5079,-9.8039,1.8035
-20.916,-18.032,-18.447001,-10.784,-0.98522,-3.0918,-13.592,-2.9773,-6.8943,-10.784,-0.98522,-12.745,-16.268,-16.254,-25.650999,-15.385,-26.023001,-7.8205,-8.5079,-9.8039,1.8035
-23.76,-15.175,-19.417,-7.8431,-3.9409,-5.0242,-13.592,-2.9773,-4.9431,-7.8431,-3.9409,-12.745,-19.139,-18.159,-30.413,-15.385,-26.989,-3.9744,-6.6032,-14.706,-1.095
-26.603001,-11.365,-19.417,-5.8824,-0.98522,-16.618,0.0,-5.89,2.8618,-5.8824,-0.98522,-10.784,-21.052999,-17.205999,-34.222,-15.385,-27.955,-6.859,-3.746,-17.646999,-3.9936
-26.603001,-9.4603,-18.447001,-5.8824,-2.9557,-12.754,0.0,-6.8608,4.813,-5.8824,-2.9557,-8.8235,-21.052999,-10.54,-34.222,-14.423,-26.989,-8.7821,-0.88889,-18.627001,-3.9936
-23.76,-9.4603,-18.447001,-5.8824,0.0,-8.8889,0.97087,-4.9191,4.813,-5.8824,0.0,-5.8824,-19.139,-5.7778,-34.222,-15.385,-25.056,-8.7821,-0.88889,-17.646999,-4.9597
-20.916,-10.413,-17.476,-5.8824,1.9704,-11.787,3.8835,-2.9773,6.7642,-5.8824,1.9704,-3.9216,-16.268,-3.873,-32.317001,-17.308001,-25.056,-7.8205,-2.7937,-20.587999,-7.8583
-11.438,-10.413,-13.592,-6.8627,1.9704,-3.0918,6.7961,-1.0356,9.6911,-6.8627,1.9704,1.9608,-11.483,0.88889,-25.650999,-17.308001,-19.259001,-5.8974,1.9683,-19.608,-6.8921
-1.0111,-9.4603,-8.7379,-5.8824,4.9261,4.6377,2.9126,2.8479,10.667,-5.8824,4.9261,5.8824,-6.6986,4.6984,-17.079,-16.346001,-12.496,-2.0513,1.0159,-14.706,-5.9259
1.8325,-8.5079,-6.7961,-1.9608,5.9113,9.4686,0.0,2.8479,6.7642,-1.9608,5.9113,6.8627,-7.6555,-0.06349,-14.222,-19.231001,-14.428,-0.12821,1.0159,-12.745,-4.9597
-0.06319,-7.5556,-12.621,-3.9216,-2.9557,10.435,-2.9126,1.877,3.8374,-3.9216,-2.9557,3.9216,-12.44,-10.54,-18.032,-24.038,-23.124001,-2.0513,7.6825,-11.765,-6.8921
-2.9068,-10.413,-19.417,-5.8824,-6.8966,3.6715,-6.7961,0.90615,-1.0407,-5.8824,-6.8966,0.0,-16.268,-18.159,-24.698,-28.846001,-30.853001,-2.0513,1.0159,-10.784,-7.8583
-9.5419,-16.127001,-25.243,-9.8039,-9.8522,0.77295,-15.534,-2.0065,-9.8211,-9.8039,-9.8522,-6.8627,-20.096001,-22.921,-29.459999,-33.653999,-39.549,-2.0513,-5.6508,-11.765,-6.8921
-16.177,-20.889,-29.125999,-14.706,-14.778,-4.058,-21.358999,-2.9773,-14.699,-14.706,-14.778,-11.765,-22.966999,-25.778,-31.365,-34.615002,-44.380001,-0.12821,-6.6032,-12.745,-5.9259
-20.916,-21.841,-30.097,-14.706,-18.719,-5.9903,-19.417,-4.9191,-14.699,-14.706,-18.719,-14.706,-23.923,-23.872999,-32.317001,-29.808001,-44.380001,-2.0513,-6.6032,-12.745,-3.9936
-24.708,-22.794001,-31.068001,-12.745,-14.778,-13.72,-17.476,-5.89,-8.8455,-12.745,-14.778,-14.706,-23.923,-18.159,-32.317001,-25.0,-43.414001,-7.8205,-3.746,-12.745,-0.12882
-24.708,-20.889,-33.009998,-16.667,-4.9261,-14.686,-6.7961,-6.8608,-0.06504,-16.667,-4.9261,-13.725,-22.01,-13.397,-29.459999,-24.038,-40.514999,-4.9359,0.06349,-12.745,-0.12882
-19.968,-18.032,-33.009998,-9.8039,-3.9409,-14.686,-4.8544,-3.9482,-1.0407,-9.8039,-3.9409,-13.725,-16.268,-9.5873,-26.603001,-23.077,-36.651001,-0.12821,-4.6984,-10.784,-2.0612
-13.333,-15.175,-26.214001,-0.98039,-6.8966,-6.9565,-7.767,3.8188,-6.8943,-0.98039,-6.8966,-11.765,-11.483,-6.7302,-18.983999,-22.115,-30.853001,0.83333,-10.413,-4.902,-4.9597
-5.7504,-10.413,-14.563,-1.9608,-10.837,-1.1594,-2.9126,5.7605,-5.9187,-1.9608,-10.837,-8.8235,-6.6986,-4.8254,-8.5079,-18.268999,-22.158001,3.7179,-5.6508,-0.98039,-7.8583
0.88468,-5.6508,-4.8544,-5.8824,-8.867,-12.754,-4.8544,4.7896,-4.9431,-5.8824,-8.867,-7.8431,-3.8278,-0.06349,-1.8413,-9.6154,-11.53,3.7179,-3.746,0.0,-6.8921
2.7804,-3.746,-0.97087,-7.8431,-0.98522,-8.8889,-11.65,6.7314,-3.9675,-7.8431,-0.98522,-8.8235,-1.9139,5.6508,1.0159,-1.9231,-3.8003,3.7179,-2.7937,1.9608,-3.0274
2.7804,-1.8413,1.9417,-3.9216,3.9409,-3.0918,-10.68,3.8188,-0.06504,-3.9216,3.9409,-6.8627,-2.8708,11.365,2.9206,4.8077,0.06441,1.7949,3.873,2.9412,4.7021
6.5719,1.0159,5.8252,2.9412,5.9113,7.5362,-2.9126,4.7896,2.8618,2.9412,5.9113,-1.9608,-1.9139,11.365,5.7778,6.7308,4.8953,4.6795,5.7778,4.902,7.6006
10.363,2.9206,9.7087,9.8039,4.9261,9.4686,5.8252,5.7605,4.813,9.8039,4.9261,1.9608,-1.9139,7.5556,6.7302,3.8462,5.8615,5.641,2.9206,3.9216,7.6006
12.259,4.8254,12.621,10.784,0.0,6.57,-3.8835,5.7605,2.8618,10.784,0.0,3.9216,-2.8708,6.6032,8.6349,2.8846,4.8953,5.641,5.7778,0.98039,7.6006
14.155,7.6825,14.563,11.765,-0.98522,11.401,-0.97087,6.7314,1.8862,11.765,-0.98522,7.8431,-2.8708,7.5556,8.6349,5.7692,5.8615,5.641,6.7302,0.98039,9.533
16.997999,9.5873,15.534,12.745,5.9113,18.164,8.7379,8.6731,1.8862,12.745,5.9113,13.725,-1.9139,5.6508,7.6825,9.6154,5.8615,5.641,4.8254,3.9216,10.499
16.051001,4.8254,13.592,8.8235,-1.9704,12.367,0.97087,10.615,-10.797,8.8235,-1.9704,12.745,-2.8708,0.88889,5.7778,6.7308,2.963,11.41,-2.7937,4.902,6.6345
13.207,-2.7937,11.65,5.8824,-18.719,12.367,-10.68,13.528,-18.601999,5.8824,-18.719,7.8431,-3.8278,-1.9683,1.9683,4.8077,2.963,17.179001,-8.5079,4.902,4.7021
7.5197,-5.6508,8.7379,-1.9608,-12.808,5.6039,-13.592,11.586,-15.675,-1.9608,-12.808,0.0,-5.7416,-2.9206,-0.88889,6.7308,2.963,13.333,-6.6032,4.902,2.7697
0.88468,-7.5556,3.8835,-5.8824,-9.8522,-5.9903,-10.68,6.7314,-12.748,-5.8824,-9.8522,-9.8039,-6.6986,-2.9206,1.0159,5.7692,0.06441,7.5641,-8.5079,1.9608,2.7697
-2.9068,-5.6508,0.0,-1.9608,-8.867,0.77295,-12.621,4.7896,-8.8455,-1.9608,-8.867,-15.686,-4.7847,-2.9206,3.873,5.7692,-0.90177,3.7179,-4.6984,0.0,3.7359
-2.9068,-1.8413,0.0,-3.9216,-4.9261,3.6715,-5.8252,1.877,-6.8943,-3.9216,-4.9261,-13.725,-2.8708,-1.9683,3.873,7.6923,1.0306,-0.12821,0.06349,-0.98039,4.7021
2.7804,2.9206,3.8835,-5.8824,-5.9113,-0.19324,0.0,2.8479,-5.9187,-5.8824,-5.9113,-7.8431,-1.9139,1.8413,5.7778,9.6154,6.8277,-3.9744,2.9206,0.0,5.6683
9.4155,10.54,12.621,0.0,-1.9704,-0.19324,3.8835,5.7605,-1.0407,0.0,-1.9704,0.0,2.8708,8.5079,11.492,17.308001,15.523,-2.0513,8.6349,1.9608,9.533
15.103,17.205999,20.388,-1.9608,-3.9409,0.77295,8.7379,5.7605,3.8374,-1.9608,-3.9409,3.9216,6.6986,10.413,15.302,22.115,22.287001,-2.0513,12.444,0.98039,9.533
16.997999,21.016001,25.243,0.0,3.9409,8.5024,6.7961,5.7605,8.7154,0.0,3.9409,6.8627,5.7416,9.4603,18.159,21.153999,26.150999,-3.0128,17.205999,1.9608,7.6006
19.841999,21.968,28.155001,0.98039,12.808,6.57,11.65,7.7023,13.593,0.98039,12.808,10.784,4.7847,5.6508,21.016001,16.346001,26.150999,-3.9744,18.159,2.9412,5.6683
22.686001,21.968,27.184,11.765,13.793,13.333,17.476,12.557,11.642,11.765,13.793,16.667,5.7416,1.8413,20.063,8.6538,24.219,3.7179,13.397,3.9216,1.8035
24.580999,20.063,24.271999,18.627001,12.808,22.995001,18.447001,18.382,7.7398,18.627001,12.808,19.608,3.8278,-0.06349,17.205999,3.8462,20.354,10.449,8.6349,2.9412,-1.095
21.738001,15.302,21.358999,24.51,17.733999,26.860001,15.534,19.353001,2.8618,24.51,17.733999,21.569,-1.9139,-2.9206,14.349,0.96154,10.692,8.5256,2.9206,0.98039,-3.0274
17.945999,8.6349,15.534,29.412001,14.778,18.164,4.8544,16.440001,-4.9431,29.412001,14.778,16.667,-7.6555,-3.873,10.54,0.96154,5.8615,4.6795,-2.7937,-2.9412,-3.0274
16.051001,1.0159,12.621,23.528999,1.9704,9.4686,-5.8252,16.440001,-15.675,23.528999,1.9704,11.765,-10.526,-6.7302,7.6825,1.9231,2.963,4.6795,-5.6508,-4.902,-1.095
15.103,-0.88889,11.65,21.569,4.9261,18.164,-7.767,17.410999,-14.699,21.569,4.9261,10.784,-11.483,-8.6349,6.7302,4.8077,1.9968,7.5641,-6.6032,-1.9608,-1.095
11.311,5.7778,11.65,26.471001,14.778,25.893999,-7.767,15.469,-7.8699,26.471001,14.778,10.784,-8.6124,-3.873,5.7778,9.6154,5.8615,5.641,-4.6984,-0.98039,0.83736
9.4155,10.54,14.563,19.608,18.719,20.097,5.8252,10.615,-1.0407,19.608,18.719,8.8235,-1.9139,-1.0159,9.5873,13.462,12.625,3.7179,0.06349,1.9608,2.7697
7.5197,13.397,16.504999,15.686,19.704,9.4686,14.563,3.8188,4.813,15.686,19.704,4.902,5.7416,-1.0159,16.254,16.346001,19.388,-0.12821,3.873,5.8824,2.7697
6.5719,14.349,16.504999,10.784,16.749001,2.7053,11.65,-2.9773,10.667,10.784,16.749001,0.98039,15.311,2.7937,21.968,21.153999,26.150999,-5.8974,4.8254,8.8235,4.7021
5.624,10.54,14.563,0.0,4.9261,-5.9903,10.68,-7.8317,12.618,0.0,4.9261,-2.9412,23.923,3.746,24.825001,21.153999,30.016001,-3.9744,8.6349,13.725,2.7697
4.6761,6.7302,13.592,-8.8235,-2.9557,-8.8889,6.7961,-7.8317,8.7154,-8.8235,-2.9557,-6.8627,30.622,2.7937,25.778,16.346001,30.982,-1.0897,3.873,16.667,-2.0612
10.363,11.492,19.417,-12.745,-3.9409,-5.9903,8.7379,-4.9191,6.7642,-12.745,-3.9409,-6.8627,37.320999,3.746,31.492001,18.268999,37.745998,-0.12821,2.9206,21.569,-4.9597
16.997999,18.159,26.214001,-10.784,-1.9704,-4.058,12.621,-2.9773,7.7398,-10.784,-1.9704,-4.902,40.191002,6.6032,39.111,22.115,43.542999,1.7949,6.7302,27.451,-0.12882
23.632999,22.921,29.125999,-13.725,-1.9704,-5.0242,12.621,-2.9773,9.6911,-13.725,-1.9704,-3.9216,40.191002,13.27,43.873001,26.923,47.407001,0.83333,8.6349,30.392,7.6006
28.372999,24.825001,31.068001,-18.627001,-3.9409,-12.754,15.534,-3.9482,8.7154,-18.627001,-3.9409,-0.98039,44.019001,18.032,46.73,30.768999,51.271999,1.7949,7.6825,32.353001,8.5668
28.372999,19.111,28.155001,-12.745,-7.8818,-0.19324,2.9126,-2.9773,2.8618,-12.745,-7.8818,0.0,46.889999,21.841,48.634998,29.808001,50.306,1.7949,0.06349,33.333,7.6006
25.528999,10.54,22.33,-4.902,0.0,7.5362,-9.7087,-4.9191,-2.0163,-4.902,0.0,-0.98039,46.889999,23.746,47.682999,25.962,45.474998,0.83333,-7.5556,31.372999,10.499
22.686001,4.8254,14.563,-6.8627,1.9704,2.7053,-3.8835,-4.9191,-4.9431,-6.8627,1.9704,-3.9216,44.019001,22.794001,45.778,25.0,42.576,0.83333,-7.5556,28.431,14.364
19.841999,-0.88889,11.65,-6.8627,-1.9704,-0.19324,0.97087,-2.9773,-5.9187,-6.8627,-1.9704,-5.8824,39.234001,22.794001,42.921001,25.962,41.610001,0.83333,-2.7937,26.471001,16.296
15.103,-4.6984,8.7379,-6.8627,-7.8818,-13.72,-11.65,-2.9773,-6.8943,-6.8627,-7.8818,-11.765,32.535999,21.841,37.206001,24.038,38.712002,-0.12821,-0.88889,22.549,16.296
9.4155,-1.8413,6.7961,-6.8627,-7.8818,-12.754,-11.65,-2.9773,-3.9675,-6.8627,-7.8818,-11.765,24.879999,20.889,30.540001,25.0,37.745998,-3.9744,5.7778,17.646999,16.296
1.8325,1.9683,6.7961,-6.8627,-1.9704,-10.821,-7.767,-4.9191,2.8618,-6.8627,-1.9704,-10.784,17.225,18.032,21.016001,22.115,32.915001,-3.0128,10.54,10.784,15.33
-1.9589,8.6349,10.68,3.9216,6.8966,-6.9565,5.8252,-4.9191,10.667,3.9216,6.8966,-3.9216,11.483,16.127001,13.397,20.191999,27.118,-3.0128,14.349,6.8627,15.33
-1.0111,15.302,15.534,7.8431,18.719,-0.19324,15.534,-2.9773,15.545,7.8431,18.719,2.9412,6.6986,16.127001,9.5873,20.191999,26.150999,-4.9359,11.492,2.9412,15.33
1.8325,16.254,16.504999,6.8627,19.704,-2.1256,16.504999,-2.9773,11.642,6.8627,19.704,5.8824,3.8278,13.27,6.7302,18.268999,24.219,-3.9744,5.7778,1.9608,14.364
7.5197,18.159,19.417,8.8235,17.733999,-2.1256,20.388,-2.9773,6.7642,8.8235,17.733999,10.784,3.8278,13.27,10.54,21.153999,26.150999,-3.0128,2.9206,2.9412,15.33
14.155,24.825001,25.243,8.8235,21.674999,-4.058,19.417,-1.0356,7.7398,8.8235,21.674999,17.646999,9.5694,21.841,17.205999,29.808001,32.915001,-0.12821,1.0159,4.902,20.160999
16.051001,28.635,27.184,19.608,24.631001,10.435,20.388,3.8188,7.7398,19.608,24.631001,22.549,11.483,22.794001,17.205999,33.653999,33.881001,-0.12821,2.9206,6.8627,22.093
16.051001,30.540001,28.155001,22.549,19.704,21.063,29.125999,4.7896,12.618,22.549,19.704,25.49,8.6124,16.127001,14.349,30.768999,29.049999,-2.0513,9.5873,5.8824,23.059999
16.997999,29.587,25.243,20.587999,27.586,3.6715,28.155001,0.90615,20.423,20.587999,27.586,28.431,6.6986,11.365,11.492,25.0,24.219,-4.9359,17.205999,0.98039,21.127001
16.997999,23.872999,22.33,16.667,37.438,12.367,21.358999,0.90615,23.35,16.667,37.438,30.392,5.7416,9.4603,9.5873,22.115,21.32,-7.8205,19.111,-1.9608,19.195
11.311,14.349,14.563,21.569,32.512001,24.927999,15.534,2.8479,21.398001,21.569,32.512001,28.431,-0.95694,4.6984,3.873,15.385,13.591,-7.8205,14.349,-6.8627,14.364
1.8325,4.8254,1.9417,22.549,21.674999,14.3,8.7379,0.90615,14.569,22.549,21.674999,17.646999,-8.6124,-0.06349,-3.746,8.6538,2.963,-8.7821,11.492,-13.725,13.398
-3.8547,-2.7937,-4.8544,10.784,4.9261,3.6715,1.9417,-2.0065,5.7886,10.784,4.9261,6.8627,-9.5694,-2.9206,-7.5556,5.7692,-1.868,-13.59,10.54,-15.686,14.364
-10.49,-8.5079,-10.68,5.8824,-2.9557,-3.0918,-10.68,-4.9191,-0.06504,5.8824,-2.9557,-1.9608,-10.526,-4.8254,-10.413,1.9231,-6.6989,-13.59,3.873,-17.646999,14.364
-17.125,-10.413,-13.592,-2.9412,-5.9113,-11.787,-18.447001,-9.7735,-2.0163,-2.9412,-5.9113,-7.8431,-13.397,-7.6825,-12.317,-0.96154,-10.564,-9.7436,1.9683,-17.646999,10.499
-19.021,-10.413,-14.563,-7.8431,-11.823,-17.584999,-19.417,-10.744,-2.0163,-7.8431,-11.823,-10.784,-16.268,-10.54,-15.175,-5.7692,-13.462,-8.7821,6.7302,-15.686,4.7021
-16.177,-8.5079,-15.534,-8.8235,-10.837,-11.787,-9.7087,-5.89,-2.0163,-8.8235,-10.837,-7.8431,-19.139,-14.349,-16.127001,-12.5,-17.327,-6.859,1.9683,-13.725,-1.095
-11.438,-7.5556,-13.592,-9.8039,-10.837,-8.8889,-4.8544,-2.0065,0.91057,-9.8039,-10.837,-4.902,-20.096001,-16.254,-14.222,-14.423,-18.292999,-4.9359,1.0159,-13.725,-5.9259
-5.7504,-5.6508,-10.68,-1.9608,-6.8966,-10.821,-0.97087,-0.06472,7.7398,-1.9608,-6.8966,-3.9216,-18.181999,-19.111,-10.413,-15.385,-18.292999,-3.0128,9.5873,-12.745,-6.8921
-0.06319,1.9683,-4.8544,3.9216,1.9704,0.77295,11.65,4.7896,11.642,3.9216,1.9704,-0.98039,-15.311,-20.063,-8.5079,-15.385,-19.259001,4.6795,7.6825,-6.8627,-6.8921
-1.0111,5.7778,-5.8252,1.9608,1.9704,7.5362,13.592,7.7023,8.7154,1.9608,1.9704,0.98039,-16.268,-21.016001,-10.413,-18.268999,-22.158001,7.5641,4.8254,-7.8431,-10.757
-0.06319,8.6349,-4.8544,-3.9216,4.9261,0.77295,13.592,7.7023,8.7154,-3.9216,4.9261,6.8627,-19.139,-21.016001,-11.365,-17.308001,-23.124001,7.5641,8.6349,-12.745,-12.689
2.7804,13.397,-0.97087,5.8824,14.778,8.5024,17.476,7.7023,12.618,5.8824,14.778,14.706,-19.139,-16.254,-10.413,-12.5,-21.191999,6.6026,12.444,-12.745,-11.723
3.7283,15.302,-0.97087,12.745,17.733999,14.3,25.243,3.8188,16.52,12.745,17.733999,21.569,-15.311,-10.54,-9.4603,-5.7692,-18.292999,0.83333,9.5873,-10.784,-7.8583
-1.9589,13.397,-7.767,3.9216,13.793,2.7053,25.243,-2.9773,14.569,3.9216,13.793,19.608,-10.526,-5.7778,-9.4603,-1.9231,-16.361,-6.859,3.873,-7.8431,-3.9936
-11.438,5.7778,-14.563,-5.8824,7.8818,-4.058,9.7087,-6.8608,5.7886,-5.8824,7.8818,14.706,-10.526,-7.6825,-13.27,-2.8846,-18.292999,-13.59,2.9206,-8.8235,-3.9936
-15.229,0.06349,-16.504999,1.9608,2.9557,-3.0918,-1.9417,-5.89,-2.0163,1.9608,2.9557,9.8039,-13.397,-10.54,-17.079,-4.8077,-20.225,-13.59,-5.6508,-10.784,-3.9936
-14.281,-2.7937,-14.563,8.8235,2.9557,-0.19324,3.8835,-3.9482,-5.9187,8.8235,2.9557,7.8431,-15.311,-14.349,-19.937,-8.6538,-19.259001,-10.705,-12.317,-11.765,-4.9597
-16.177,-6.6032,-13.592,1.9608,1.9704,-3.0918,0.97087,-3.9482,-6.8943,1.9608,1.9704,5.8824,-16.268,-17.205999,-21.841,-12.5,-19.259001,-11.667,-10.413,-10.784,-7.8583
-20.916,-11.365,-15.534,0.98039,-8.867,-7.9227,-4.8544,-7.8317,-9.8211,0.98039,-8.867,0.0,-16.268,-15.302,-21.841,-16.346001,-19.259001,-13.59,-13.27,-11.765,-10.757
-21.864,-14.222,-17.476,1.9608,-9.8522,-5.9903,-5.8252,-6.8608,-9.8211,1.9608,-9.8522,-3.9216,-11.483,-16.254,-18.983999,-19.231001,-17.327,-11.667,-15.175,-11.765,-15.588
-17.125,-18.983999,-16.504999,-0.98039,-7.8818,-0.19324,-7.767,-3.9482,-6.8943,-0.98039,-7.8818,-2.9412,-4.7847,-13.397,-15.175,-20.191999,-14.428,-8.7821,-17.079,-7.8431,-19.452
-9.5419,-23.746,-12.621,3.9216,-0.98522,6.57,-8.7379,0.90615,-5.9187,3.9216,-0.98522,-0.98039,0.0,-9.5873,-11.365,-19.231001,-10.564,-3.0128,-15.175,-3.9216,-17.52
-1.0111,-26.603001,-8.7379,13.725,3.9409,5.6039,-14.563,4.7896,-2.0163,13.725,3.9409,0.0,1.9139,-4.8254,-7.5556,-17.308001,-5.7327,0.83333,-7.5556,-0.98039,-13.655
3.7283,-22.794001,-5.8252,18.627001,1.9704,11.401,-14.563,4.7896,1.8862,18.627001,1.9704,0.98039,2.8708,-1.0159,-5.6508,-17.308001,-5.7327,2.7564,-4.6984,0.98039,-10.757
4.6761,-16.127001,-4.8544,18.627001,5.9113,18.164,-4.8544,4.7896,9.6911,18.627001,5.9113,3.9216,-2.8708,-2.9206,-9.4603,-19.231001,-12.496,2.7564,1.9683,-2.9412,-11.723
5.624,-8.5079,-6.7961,20.587999,6.8966,14.3,2.9126,10.615,10.667,20.587999,6.8966,7.8431,-13.397,-7.6825,-16.127001,-22.115,-26.023001,3.7179,4.8254,-9.8039,-14.622
3.7283,-3.746,-9.7087,18.627001,3.9409,10.435,6.7961,15.469,8.7154,18.627001,3.9409,8.8235,-22.01,-14.349,-22.794001,-29.808001,-38.583,3.7179,2.9206,-13.725,-19.452
0.88468,-4.6984,-14.563,18.627001,9.8522,17.198,7.767,16.440001,6.7642,18.627001,9.8522,7.8431,-24.879999,-24.825001,-24.698,-40.384998,-49.210999,2.7564,3.873,-11.765,-27.181999
-2.9068,-10.413,-22.33,8.8235,8.867,13.333,1.9417,12.557,-2.9919,8.8235,8.867,0.98039,-22.966999,-30.540001,-23.746,-49.037998,-54.042,4.6795,-5.6508,-7.8431,-36.844002
-4.8025,-14.222,-26.214001,5.8824,1.9704,4.6377,-3.8835,8.6731,-14.699,5.8824,1.9704,-5.8824,-17.225,-31.492001,-18.983999,-50.962002,-49.210999,11.41,-18.032,-0.98039,-37.810001
-4.8025,-14.222,-22.33,9.8039,-5.9113,7.5362,-7.767,4.7896,-20.552999,9.8039,-5.9113,-8.8235,-8.6124,-24.825001,-14.222,-42.307999,-38.583,15.256,-20.889,4.902,-30.080999
-4.8025,-12.317,-17.476,10.784,-9.8522,4.6377,-7.767,-1.0356,-23.48,10.784,-9.8522,-7.8431,0.95694,-13.397,-9.4603,-31.731001,-26.023001,13.333,-20.889,8.8235,-20.419001
-2.9068,-8.5079,-12.621,4.902,-7.8818,4.6377,-9.7087,-1.0356,-26.407,4.902,-7.8818,-6.8627,10.526,-2.9206,-2.7937,-21.153999,-11.53,14.295,-26.603001,10.784,-13.655
-3.8547,-10.413,-9.7087,7.8431,0.98522,6.57,-8.7379,-0.06472,-26.407,7.8431,0.98522,-5.8824,16.268,3.746,2.9206,-13.462,-2.8341,14.295,-29.459999,13.725,-8.8245
-4.8025,-14.222,-5.8252,10.784,0.98522,-1.1594,-14.563,-3.9482,-24.455,10.784,0.98522,-8.8235,17.225,9.4603,6.7302,-5.7692,6.8277,13.333,-27.556,14.706,-3.9936
-5.7504,-16.127001,-2.9126,9.8039,2.9557,-7.9227,-18.447001,-5.89,-22.504,9.8039,2.9557,-11.765,19.139,14.222,9.5873,2.8846,16.49,9.4872,-23.746,12.745,0.83736
-4.8025,-18.983999,-0.97087,0.0,0.98522,-11.787,-21.358999,-7.8317,-14.699,0.0,0.98522,-14.706,21.052999,16.127001,12.444,8.6538,22.287001,6.6026,-18.032,13.725,3.7359
-5.7504,-21.841,-0.97087,-2.9412,-7.8818,-6.9565,-31.068001,-9.7735,-9.8211,-2.9412,-7.8818,-16.667,20.096001,20.889,11.492,13.462,25.184999,4.6795,-8.5079,12.745,8.5668
-7.6461,-17.079,1.9417,1.9608,-9.8522,-5.0242,-30.097,-11.715,-5.9187,1.9608,-9.8522,-14.706,17.225,25.650999,6.7302,17.308001,25.184999,1.7949,0.06349,7.8431,14.364
-5.7504,-7.5556,6.7961,2.9412,-1.9704,-8.8889,-22.33,-13.657,-1.0407,2.9412,-1.9704,-9.8039,14.354,26.603001,6.7302,16.346001,22.287001,-2.0513,7.6825,3.9216,17.261999
-1.9589,-0.88889,9.7087,0.0,-0.98522,-12.754,-19.417,-11.715,3.8374,0.0,-0.98522,-4.902,12.44,22.794001,6.7302,12.5,18.422001,-3.0128,11.492,0.0,11.465
0.88468,3.873,8.7379,-2.9412,-4.9261,-12.754,-8.7379,-9.7735,8.7154,-2.9412,-4.9261,0.98039,8.6124,14.222,6.7302,2.8846,10.692,-3.0128,15.302,-1.9608,-0.12882
2.7804,6.7302,5.8252,-0.98039,2.9557,-3.0918,7.767,-7.8317,14.569,-0.98039,2.9557,8.8235,6.6986,2.7937,6.7302,-6.7308,2.963,-0.12821,10.54,2.9412,-11.723
-0.06319,2.9206,0.0,-4.902,3.9409,-4.058,13.592,-4.9191,12.618,-4.902,3.9409,7.8431,5.7416,-5.7778,3.873,-13.462,-3.8003,0.83333,1.0159,4.902,-18.486
-1.0111,-0.88889,-3.8835,-8.8235,-5.9113,-11.787,8.7379,-2.0065,4.813,-8.8235,-5.9113,3.9216,7.6555,-10.54,3.873,-13.462,-6.6989,3.7179,-4.6984,7.8431,-22.351
1.8325,1.9683,-1.9417,-8.8235,-7.8818,-3.0918,9.7087,0.90615,2.8618,-8.8235,-7.8818,5.8824,10.526,-8.6349,9.5873,-9.6154,-4.7665,3.7179,-1.8413,13.725,-17.52
5.624,2.9206,-0.97087,-5.8824,-9.8522,6.57,6.7961,3.8188,-2.0163,-5.8824,-9.8522,6.8627,14.354,-10.54,16.254,-6.7308,-0.90177,11.41,-7.5556,19.608,-13.655
8.4676,0.06349,-1.9417,-1.9608,-14.778,8.5024,0.97087,6.7314,-4.9431,-1.9608,-14.778,4.902,16.268,-12.444,21.968,-1.9231,3.9291,20.063999,-10.413,24.51,-11.723
13.207,1.9683,3.8835,0.98039,-8.867,7.5362,2.9126,11.586,-3.9675,0.98039,-8.867,6.8627,19.139,-8.6349,25.778,4.8077,10.692,22.948999,-9.4603,25.49,-5.9259
16.051001,4.8254,5.8252,1.9608,-4.9261,14.3,9.7087,13.528,-0.06504,1.9608,-4.9261,9.8039,20.096001,-3.873,24.825001,10.577,13.591,22.948999,-6.6032,22.549,-0.12882
16.997999,5.7778,5.8252,2.9412,-4.9261,17.198,8.7379,12.557,6.7642,2.9412,-4.9261,11.765,16.268,-0.06349,21.968,10.577,12.625,21.025999,1.0159,18.627001,0.83736
16.997999,3.873,6.7961,1.9608,-1.9704,13.333,10.68,10.615,12.618,1.9608,-1.9704,10.784,13.397,3.746,18.159,9.6154,11.659,17.179001,6.7302,14.706,1.8035
14.155,5.7778,5.8252,-0.98039,2.9557,9.4686,18.447001,7.7023,16.52,-0.98039,2.9557,10.784,11.483,9.4603,13.397,13.462,14.557,13.333,9.5873,9.8039,5.6683
11.311,13.397,6.7961,5.8824,4.9261,11.401,20.388,5.7605,20.423,5.8824,4.9261,9.8039,10.526,15.175,7.6825,21.153999,17.455999,10.449,16.254,4.902,11.465
12.259,21.968,11.65,7.8431,8.867,10.435,21.358999,4.7896,20.423,7.8431,8.867,10.784,7.6555,18.983999,4.8254,28.846001,18.422001,7.5641,21.968,0.98039,16.296
13.207,25.778,18.447001,2.9412,5.9113,11.401,17.476,3.8188,18.472,2.9412,5.9113,11.765,5.7416,20.889,1.9683,31.731001,19.388,5.641,21.968,-0.98039,18.229
11.311,26.73,21.358999,0.98039,-0.98522,9.4686,14.563,3.8188,14.569,0.98039,-0.98522,11.765,2.8708,18.983999,0.06349,31.731001,19.388,3.7179,21.016001,-5.8824,16.296
12.259,28.635,25.243,-1.9608,1.9704,4.6377,16.504999,3.8188,12.618,-1.9608,1.9704,13.725,1.9139,14.222,0.06349,27.885,16.49,3.7179,14.349,-8.8235,11.465
14.155,27.683001,27.184,2.9412,6.8966,11.401,15.534,5.7605,7.7398,2.9412,6.8966,14.706,3.8278,11.365,4.8254,23.077,14.557,5.641,3.873,-5.8824,5.6683
17.945999,24.825001,26.214001,0.0,-0.98522,16.232,13.592,6.7314,-0.06504,0.0,-0.98522,13.725,7.6555,12.317,9.5873,20.191999,16.49,6.6026,-3.746,-2.9412,3.7359
18.893999,20.063,23.301001,-3.9216,-4.9261,13.333,5.8252,8.6731,-5.9187,-3.9216,-4.9261,10.784,13.397,14.222,11.492,16.346001,20.354,7.5641,-10.413,0.0,1.8035
17.945999,13.397,18.447001,-1.9608,-2.9557,13.333,0.97087,10.615,-5.9187,-1.9608,-2.9557,7.8431,19.139,16.127001,11.492,13.462,22.287001,8.5256,-10.413,4.902,2.7697
15.103,4.8254,12.621,-0.98039,-6.8966,11.401,-3.8835,11.586,-5.9187,-0.98039,-6.8966,2.9412,21.052999,14.222,11.492,10.577,19.388,9.4872,-5.6508,7.8431,2.7697
10.363,-1.8413,4.8544,-4.902,-7.8818,6.57,-8.7379,7.7023,-6.8943,-4.902,-7.8818,-2.9412,17.225,8.5079,8.6349,2.8846,11.659,5.641,-3.746,3.9216,-2.0612
5.624,-2.7937,2.9126,-7.8431,-5.9113,-5.0242,-3.8835,4.7896,-2.9919,-7.8431,-5.9113,-5.8824,11.483,3.746,4.8254,-1.9231,4.8953,0.83333,1.0159,1.9608,-3.9936
2.7804,-0.88889,0.97087,-10.784,-3.9409,-0.19324,6.7961,5.7605,1.8862,-10.784,-3.9409,-3.9216,4.7847,1.8413,0.06349,-1.9231,2.963,3.7179,7.6825,-1.9608,0.83736
-1.0111,-0.88889,-1.9417,-9.8039,-3.9409,4.6377,9.7087,3.8188,10.667,-9.8039,-3.9409,-2.9412,-1.9139,-3.873,-9.4603,-1.9231,-0.90177,4.6795,16.254,-9.8039,3.7359
-1.9589,1.0159,-0.97087,-8.8235,-0.98522,-5.0242,6.7961,-3.9482,18.472,-8.8235,-0.98522,-1.9608,-3.8278,-3.873,-13.27,1.9231,-0.90177,-3.0128,26.73,-13.725,7.6006
-1.0111,5.7778,4.8544,-11.765,11.823,-8.8889,3.8835,-5.89,19.447001,-11.765,11.823,-0.98039,-4.7847,-0.06349,-9.4603,10.577,1.0306,-4.9359,24.825001,-12.745,16.296
-0.06319,12.444,7.767,-18.627001,22.66,-7.9227,0.97087,-6.8608,20.423,-18.627001,22.66,0.98039,-8.6124,-0.06349,-11.365,12.5,1.0306,-6.859,23.872999,-10.784,21.127001
-1.9589,17.205999,6.7961,-12.745,17.733999,-4.058,9.7087,-10.744,22.374001,-12.745,17.733999,0.0,-11.483,-1.0159,-14.222,11.538,-0.90177,-7.8205,30.540001,-10.784,19.195
-4.8025,19.111,2.9126,-5.8824,9.8522,-10.821,15.534,-13.657,20.423,-5.8824,9.8522,-3.9216,-12.44,-1.0159,-18.032,10.577,-3.8003,-6.859,29.587,-10.784,19.195
-8.594,16.254,0.0,-12.745,4.9261,-15.652,13.592,-15.599,16.52,-12.745,4.9261,-5.8824,-18.181999,-2.9206,-22.794001,6.7308,-7.6651,-5.8974,25.778,-11.765,13.398
-10.49,12.444,2.9126,-23.528999,3.9409,-17.584999,4.8544,-18.511,14.569,-23.528999,3.9409,-5.8824,-21.052999,-6.7302,-22.794001,2.8846,-10.564,-4.9359,21.968,-13.725,9.533
-7.6461,10.54,8.7379,-24.51,1.9704,-15.652,-0.97087,-17.540001,11.642,-24.51,1.9704,-4.902,-17.225,-5.7778,-15.175,1.9231,-8.6312,-3.9744,13.397,-10.784,7.6006
-6.6983,6.7302,9.7087,-28.431,0.98522,-13.72,0.0,-14.628,4.813,-28.431,0.98522,-4.902,-13.397,-4.8254,-12.317,0.0,-5.7327,-3.0128,4.8254,-8.8235,3.7359
-4.8025,0.06349,8.7379,-19.608,0.0,-6.9565,1.9417,-10.744,-0.06504,-19.608,0.0,-2.9412,-8.6124,-3.873,-11.365,-5.7692,-4.7665,-2.0513,1.0159,-5.8824,-0.12882
-3.8547,-4.6984,7.767,-13.725,1.9704,-5.9903,-0.97087,-7.8317,-4.9431,-13.725,1.9704,0.0,-6.6986,-6.7302,-11.365,-12.5,-4.7665,-2.0513,-8.5079,-4.902,-7.8583
-3.8547,-6.6032,6.7961,-15.686,-1.9704,-4.058,-0.97087,-3.9482,-13.724,-15.686,-1.9704,3.9216,-6.6986,-9.5873,-11.365,-16.346001,-4.7665,-3.0128,-18.983999,-4.902,-11.723
-5.7504,-4.6984,6.7961,-15.686,-13.793,-2.1256,0.0,-2.9773,-20.552999,-15.686,-13.793,3.9216,-5.7416,-8.6349,-13.27,-14.423,-3.8003,-3.9744,-20.889,-5.8824,-9.7907
-5.7504,2.9206,6.7961,-16.667,-12.808,-7.9227,0.97087,-3.9482,-17.625999,-16.667,-12.808,4.902,-2.8708,-3.873,-12.317,-6.7308,-1.868,-4.9359,-10.413,-6.8627,-3.9936
-8.594,8.6349,1.9417,-18.627001,-11.823,-12.754,0.97087,-7.8317,-11.772,-18.627001,-11.823,0.98039,-1.9139,2.7937,-12.317,1.9231,-0.90177,-8.7821,-6.6032,-8.8235,3.7359
-13.333,7.6825,-4.8544,-24.51,-14.778,-22.415001,3.8835,-12.686,-5.9187,-24.51,-14.778,-4.902,-1.9139,6.6032,-14.222,6.7308,-2.8341,-13.59,0.06349,-9.8039,9.533
-17.125,6.7302,-10.68,-31.372999,-14.778,-23.382,-2.9126,-15.599,-2.0163,-31.372999,-14.778,-11.765,-4.7847,9.4603,-15.175,9.6154,-6.6989,-15.513,13.397,-9.8039,13.398
-17.125,5.7778,-12.621,-36.275002,-22.66,-24.348,-2.9126,-19.482,-2.0163,-36.275002,-22.66,-15.686,-7.6555,10.413,-13.27,11.538,-7.6651,-16.474001,12.444,-11.765,18.229
-15.229,1.9683,-8.7379,-40.195999,-24.631001,-32.077,-8.7379,-24.337,-2.0163,-40.195999,-24.631001,-17.646999,-8.6124,9.4603,-12.317,10.577,-6.6989,-16.474001,11.492,-10.784,18.229
-14.281,-1.8413,-2.9126,-38.235001,-15.764,-24.348,-10.68,-26.278,-0.06504,-38.235001,-15.764,-16.667,-6.6986,8.5079,-8.5079,9.6154,-3.8003,-14.551,15.302,-5.8824,18.229
-13.333,-4.6984,-2.9126,-31.372999,-11.823,-22.415001,-5.8252,-26.278,-2.0163,-31.372999,-11.823,-18.627001,-2.8708,9.4603,-6.6032,8.6538,-0.90177,-13.59,9.5873,-1.9608,18.229
-13.333,-7.5556,-3.8835,-24.51,-15.764,-27.246,-2.9126,-22.395,-4.9431,-24.51,-15.764,-20.587999,-1.9139,12.317,-7.5556,6.7308,-1.868,-13.59,4.8254,-2.9412,17.261999
-16.177,-10.413,-4.8544,-27.451,-17.733999,-24.348,-5.8252,-20.452999,-8.8455,-27.451,-17.733999,-21.569,-3.8278,16.127001,-9.4603,5.7692,-5.7327,-14.551,0.06349,-4.902,16.296
-17.125,-11.365,-10.68,-28.431,-15.764,-23.382,-12.621,-18.511,-12.748,-28.431,-15.764,-22.549,-2.8708,19.937,-8.5079,9.6154,-2.8341,-13.59,-8.5079,-2.9412,16.296
-16.177,-11.365,-12.621,-18.627001,-10.837,-27.246,-17.476,-15.599,-21.528,-18.627001,-10.837,-23.528999,-0.95694,21.841,-6.6032,12.5,3.9291,-15.513,-18.983999,0.0,16.296
-15.229,-11.365,-9.7087,-7.8431,-9.8522,-27.246,-23.301001,-9.7735,-29.333,-7.8431,-9.8522,-19.608,1.9139,18.983999,-2.7937,10.577,7.7939,-14.551,-26.603001,2.9412,13.398
-12.385,-8.5079,-4.8544,-0.98039,-5.9113,-15.652,-15.534,-2.9773,-30.309,-0.98039,-5.9113,-12.745,4.7847,17.079,1.0159,10.577,8.7601,-5.8974,-32.317001,4.902,11.465
-17.125,-9.4603,-6.7961,-8.8235,-9.8522,-21.448999,-6.7961,-3.9482,-28.358,-8.8235,-9.8522,-11.765,1.9139,15.175,-2.7937,6.7308,3.9291,-4.9359,-29.459999,1.9608,9.533
-24.708,-16.127001,-12.621,-14.706,-18.719,-18.551001,-16.504999,-6.8608,-26.407,-14.706,-18.719,-15.686,-3.8278,9.4603,-9.4603,0.96154,-2.8341,-8.7821,-20.889,-2.9412,6.6345
-25.656,-21.841,-18.447001,-9.8039,-12.808,-16.618,-18.447001,-9.7735,-18.601999,-9.8039,-12.808,-22.549,-6.6986,7.5556,-13.27,-1.9231,-7.6651,-10.705,-13.27,-6.8627,7.6006
-24.708,-24.698,-23.301001,-5.8824,-8.867,-16.618,-20.388,-8.8026,-13.724,-5.8824,-8.867,-25.49,-7.6555,9.4603,-12.317,-3.8462,-9.5974,-10.705,-6.6032,-7.8431,12.432
-20.916,-26.603001,-24.271999,-11.765,-11.823,-23.382,-20.388,-8.8026,-9.8211,-11.765,-11.823,-26.471001,-6.6986,6.6032,-10.413,-6.7308,-11.53,-7.8205,-2.7937,-6.8627,12.432
-13.333,-24.698,-20.388,-4.902,-2.9557,-18.551001,-15.534,-3.9482,-5.9187,-4.902,-2.9557,-23.528999,-8.6124,-0.06349,-10.413,-8.6538,-13.462,-3.0128,1.0159,-4.902,10.499
-8.594,-19.937,-17.476,1.9608,0.0,-7.9227,-17.476,-0.06472,-2.9919,1.9608,0.0,-20.587999,-8.6124,-6.7302,-8.5079,-12.5,-14.428,1.7949,3.873,-0.98039,4.7021
-10.49,-18.032,-17.476,-1.9608,0.0,-3.0918,-9.7087,-0.06472,-1.0407,-1.9608,0.0,-18.627001,-8.6124,-13.397,-7.5556,-15.385,-17.327,1.7949,3.873,0.98039,1.8035
-15.229,-16.127001,-20.388,0.0,-0.98522,-4.058,-6.7961,-0.06472,-0.06504,0.0,-0.98522,-18.627001,-9.5694,-14.349,-7.5556,-14.423,-18.292999,-0.12821,1.9683,-0.98039,0.83736
-13.333,-10.413,-17.476,7.8431,-0.98522,-1.1594,-7.767,3.8188,0.91057,7.8431,-0.98522,-15.686,-8.6124,-11.492,-6.6032,-5.7692,-13.462,-1.0897,2.9206,-0.98039,4.7021
-12.385,-6.6032,-12.621,8.8235,1.9704,-0.19324,-7.767,2.8479,1.8862,8.8235,1.9704,-12.745,-7.6555,-11.492,-6.6032,0.96154,-10.564,-7.8205,2.9206,-0.98039,5.6683
-9.5419,-5.6508,-7.767,6.8627,0.0,-1.1594,-6.7961,3.8188,-0.06504,6.8627,0.0,-9.8039,-5.7416,-13.397,-4.6984,3.8462,-8.6312,-6.859,1.0159,0.0,2.7697
-8.594,-9.4603,-6.7961,7.8431,-1.9704,-1.1594,-6.7961,2.8479,-4.9431,7.8431,-1.9704,-7.8431,-3.8278,-12.444,-4.6984,0.0,-6.6989,-2.0513,-5.6508,0.0,-0.12882
-7.6461,-13.27,-6.7961,3.9216,-4.9261,-0.19324,-10.68,-2.0065,-10.797,3.9216,-4.9261,-8.8235,-1.9139,-9.5873,-1.8413,0.0,-5.7327,-2.0513,-12.317,1.9608,-1.095
-4.8025,-14.222,-6.7961,7.8431,-3.9409,-1.1594,-16.504999,-2.0065,-21.528,7.8431,-3.9409,-11.765,1.9139,-2.9206,4.8254,6.7308,-0.90177,0.83333,-19.937,5.8824,2.7697
-4.8025,-15.175,-7.767,10.784,-3.9409,-3.0918,-18.447001,-1.0356,-28.358,10.784,-3.9409,-14.706,5.7416,3.746,8.6349,14.423,6.8277,0.83333,-21.841,6.8627,7.6006
-4.8025,-17.079,-8.7379,7.8431,-9.8522,-3.0918,-22.33,-2.0065,-32.259998,7.8431,-9.8522,-12.745,6.6986,5.6508,7.6825,12.5,6.8277,-0.12821,-22.794001,6.8627,8.5668
-3.8547,-22.794001,-10.68,2.9412,-13.793,-0.19324,-27.184,-1.0356,-36.162998,2.9412,-13.793,-10.784,6.6986,7.5556,7.6825,4.8077,1.9968,0.83333,-29.459999,7.8431,1.8035
-1.0111,-25.650999,-11.65,11.765,-13.793,5.6039,-22.33,1.877,-38.113998,11.765,-13.793,-5.8824,6.6986,8.5079,8.6349,-1.9231,-0.90177,4.6795,-37.078999,9.8039,-3.9936
3.7283,-22.794001,-6.7961,17.646999,-8.867,7.5362,-19.417,4.7896,-35.187,17.646999,-8.867,0.0,7.6555,3.746,10.54,-9.6154,1.0306,8.5256,-35.174999,11.765,-11.723
6.5719,-18.032,-1.9417,24.51,-1.9704,11.401,-13.592,10.615,-31.285,24.51,-1.9704,5.8824,8.6124,-0.06349,12.444,-12.5,1.9968,10.449,-30.413,14.706,-14.622
8.4676,-13.27,-0.97087,32.353001,0.0,16.232,-7.767,17.410999,-26.407,32.353001,0.0,8.8235,9.5694,-3.873,13.397,-13.462,1.0306,15.256,-28.507999,16.667,-18.486
10.363,-10.413,0.0,29.412001,-1.9704,25.893999,-4.8544,21.294001,-20.552999,29.412001,-1.9704,9.8039,9.5694,-6.7302,14.349,-14.423,0.06441,17.179001,-25.650999,17.646999,-21.385
9.4155,-11.365,-3.8835,26.471001,-2.9557,27.826,-9.7087,22.264999,-16.65,26.471001,-2.9557,5.8824,5.7416,-9.5873,13.397,-19.231001,-4.7665,17.179001,-23.746,15.686,-23.316999
5.624,-13.27,-9.7087,21.569,-8.867,15.266,-10.68,20.323999,-14.699,21.569,-8.867,0.98039,0.95694,-12.444,8.6349,-24.038,-9.5974,13.333,-18.983999,11.765,-26.216
3.7283,-15.175,-13.592,20.587999,-5.9113,15.266,-6.7961,18.382,-10.797,20.587999,-5.9113,-0.98039,-1.9139,-14.349,2.9206,-28.846001,-10.564,8.5256,-17.079,7.8431,-27.181999
5.624,-14.222,-12.621,22.549,-0.98522,23.961,-2.9126,19.353001,-7.8699,22.549,-0.98522,1.9608,-0.95694,-16.254,4.8254,-31.731001,-8.6312,6.6026,-21.841,6.8627,-27.181999
7.5197,-15.175,-11.65,22.549,-1.9704,22.995001,-0.97087,17.410999,-6.8943,22.549,-1.9704,2.9412,1.9139,-15.302,8.6349,-28.846001,-4.7665,1.7949,-18.983999,3.9216,-23.316999
4.6761,-18.983999,-14.563,12.745,1.9704,11.401,-4.8544,10.615,-7.8699,12.745,1.9704,-0.98039,4.7847,-12.444,8.6349,-25.0,-1.868,0.83333,-13.27,5.8824,-18.486
2.7804,-20.889,-15.534,11.765,0.0,12.367,-5.8252,5.7605,-8.8455,11.765,0.0,-6.8627,5.7416,-11.492,7.6825,-19.231001,-1.868,3.7179,-11.365,8.8235,-14.622
0.88468,-18.983999,-17.476,4.902,-13.793,11.401,-8.7379,2.8479,-13.724,4.902,-13.793,-13.725,3.8278,-8.6349,3.873,-14.423,-5.7327,0.83333,-11.365,5.8824,-10.757
-1.9589,-11.365,-17.476,-3.9216,-10.837,4.6377,-9.7087,-3.9482,-10.797,-3.9216,-10.837,-16.667,1.9139,-4.8254,0.06349,-9.6154,-8.6312,-3.9744,-6.6032,3.9216,-5.9259
-1.0111,-4.6984,-12.621,-2.9412,-10.837,2.7053,-11.65,-4.9191,-11.772,-2.9412,-10.837,-15.686,2.8708,-1.0159,1.0159,-4.8077,-8.6312,-5.8974,-4.6984,5.8824,-3.0274
1.8325,1.0159,-6.7961,2.9412,-16.749001,0.77295,-11.65,-3.9482,-18.601999,2.9412,-16.749001,-12.745,5.7416,3.746,4.8254,2.8846,-2.8341,-4.9359,-5.6508,7.8431,0.83736
0.88468,4.8254,-0.97087,0.98039,-9.8522,-5.0242,-14.563,-7.8317,-13.724,0.98039,-9.8522,-9.8039,5.7416,6.6032,2.9206,8.6538,1.0306,-8.7821,-3.746,4.902,3.7359
-0.06319,8.6349,2.9126,-1.9608,-12.808,0.77295,-7.767,-9.7735,-8.8455,-1.9608,-12.808,-6.8627,7.6555,7.5556,2.9206,11.538,2.963,-12.628,0.06349,2.9412,7.6006
-1.0111,7.6825,0.97087,-0.98039,-15.764,5.6039,-4.8544,-9.7735,-2.0163,-0.98039,-15.764,-5.8824,8.6124,5.6508,4.8254,9.6154,4.8953,-10.705,4.8254,1.9608,5.6683
0.88468,4.8254,0.97087,-0.98039,-9.8522,4.6377,-3.8835,-6.8608,1.8862,-0.98039,-9.8522,-1.9608,10.526,1.8413,6.7302,6.7308,7.7939,-6.859,1.0159,1.9608,0.83736
4.6761,1.9683,3.8835,0.98039,0.98522,7.5362,-2.9126,-2.9773,5.7886,0.98039,0.98522,-0.98039,12.44,1.8413,9.5873,5.7692,10.692,-3.9744,0.06349,3.9216,-4.9597
7.5197,1.0159,5.8252,6.8627,2.9557,-0.19324,-5.8252,0.90615,3.8374,6.8627,2.9557,0.0,11.483,5.6508,12.444,2.8846,13.591,-2.0513,0.06349,4.902,-3.9936
7.5197,-0.88889,5.8252,4.902,-4.9261,7.5362,-9.7087,3.8188,0.91057,4.902,-4.9261,3.9216,8.6124,1.8413,10.54,-4.8077,12.625,5.641,-4.6984,4.902,-8.8245
6.5719,-1.8413,6.7961,5.8824,-0.98522,15.266,-12.621,4.7896,5.7886,5.8824,-0.98522,9.8039,2.8708,-3.873,5.7778,-11.538,6.8277,8.5256,-3.746,0.98039,-14.622
5.624,-3.746,5.8252,1.9608,0.0,5.6039,-9.7087,0.90615,8.7154,1.9608,0.0,10.784,-3.8278,-6.7302,0.06349,-17.308001,-0.90177,5.641,-1.8413,-2.9412,-17.52
1.8325,-9.4603,0.97087,-3.9216,-3.9409,-1.1594,-6.7961,-2.9773,6.7642,-3.9216,-3.9409,5.8824,-10.526,-10.54,-8.5079,-22.115,-12.496,0.83333,1.9683,-6.8627,-18.486
-3.8547,-12.317,-6.7961,-5.8824,-4.9261,-5.0242,-11.65,-7.8317,8.7154,-5.8824,-4.9261,0.98039,-16.268,-13.397,-15.175,-26.923,-24.09,-3.9744,1.0159,-9.8039,-19.452
-8.594,-12.317,-14.563,-10.784,-9.8522,-13.72,-12.621,-14.628,8.7154,-10.784,-9.8522,-4.902,-17.225,-13.397,-15.175,-25.962,-28.921,-7.8205,3.873,-12.745,-17.52
-12.385,-5.6508,-18.447001,-14.706,-21.674999,-24.348,-8.7379,-16.57,6.7642,-14.706,-21.674999,-8.8235,-14.354,-8.6349,-13.27,-18.268999,-26.989,-9.7436,8.6349,-11.765,-11.723
-17.125,0.06349,-17.476,-16.667,-15.764,-19.517,-8.7379,-15.599,6.7642,-16.667,-15.764,-8.8235,-10.526,-6.7302,-11.365,-11.538,-24.09,-10.705,10.54,-12.745,-6.8921
-19.021,4.8254,-11.65,-20.587999,-10.837,-16.618,-6.7961,-13.657,5.7886,-20.587999,-10.837,-8.8235,-3.8278,-4.8254,-5.6508,-2.8846,-18.292999,-10.705,13.397,-9.8039,-0.12882
-14.281,11.492,-4.8544,-19.608,-12.808,-12.754,3.8835,-11.715,4.813,-19.608,-12.808,-5.8824,3.8278,2.7937,2.9206,9.6154,-5.7327,-8.7821,9.5873,-3.9216,5.6683
-7.6461,14.349,0.97087,-16.667,-4.9261,-8.8889,8.7379,-9.7735,6.7642,-16.667,-4.9261,-2.9412,9.5694,5.6508,8.6349,16.346001,3.9291,-6.859,14.349,0.98039,9.533
-3.8547,15.302,2.9126,-18.627001,-2.9557,-14.686,9.7087,-9.7735,10.667,-18.627001,-2.9557,-2.9412,12.44,6.6032,12.444,18.268999,11.659,-4.9359,17.205999,4.902,10.499
-0.06319,15.302,5.8252,-21.569,0.98522,-11.787,14.563,-6.8608,15.545,-21.569,0.98522,-0.98039,17.225,8.5079,17.205999,21.153999,19.388,2.7564,15.302,8.8235,10.499
6.5719,14.349,12.621,-18.627001,3.9409,-7.9227,13.592,-2.9773,19.447001,-18.627001,3.9409,0.98039,22.966999,11.365,23.872999,25.0,28.084,8.5256,16.254,15.686,13.398
15.103,15.302,20.388,-9.8039,5.9113,-2.1256,20.388,0.90615,25.301001,-9.8039,5.9113,6.8627,29.665001,18.032,30.540001,28.846001,34.847,13.333,19.111,23.528999,16.296
20.790001,16.254,22.33,-7.8431,7.8818,-3.0918,23.301001,6.7314,26.275999,-7.8431,7.8818,10.784,29.665001,18.983999,30.540001,25.0,34.847,17.179001,21.016001,24.51,11.465
22.686001,18.159,23.301001,-1.9608,8.867,2.7053,23.301001,9.644,27.252001,-1.9608,8.867,14.706,24.879999,13.27,25.778,14.423,28.084,17.179001,16.254,20.587999,-0.12882
19.841999,17.205999,24.271999,1.9608,3.9409,15.266,22.33,9.644,27.252001,1.9608,3.9409,13.725,18.181999,7.5556,19.111,6.7308,19.388,15.256,18.159,14.706,-5.9259
14.155,16.254,17.476,-2.9412,-0.98522,11.401,18.447001,5.7605,27.252001,-2.9412,-0.98522,4.902,10.526,4.6984,12.444,3.8462,11.659,9.4872,24.825001,6.8627,-8.8245
7.5197,14.349,8.7379,-10.784,-2.9557,-2.1256,12.621,-0.06472,28.228001,-10.784,-2.9557,-4.902,3.8278,4.6984,4.8254,4.8077,4.8953,3.7179,29.587,0.0,-6.8921
-1.0111,9.5873,0.0,-16.667,-5.9113,-5.9903,0.0,-2.0065,25.301001,-16.667,-5.9113,-11.765,-2.8708,-0.06349,-0.88889,3.8462,-3.8003,0.83333,32.444,-4.902,-4.9597
-6.6983,5.7778,-7.767,-21.569,-6.8966,-8.8889,-2.9126,-3.9482,23.35,-21.569,-6.8966,-17.646999,-6.6986,-3.873,-4.6984,5.7692,-8.6312,0.83333,31.492001,-5.8824,-2.0612
-8.594,5.7778,-11.65,-29.412001,-11.823,-18.551001,0.97087,-5.89,21.398001,-29.412001,-11.823,-22.549,-9.5694,-1.9683,-9.4603,7.6923,-10.564,-0.12821,24.825001,-7.8431,0.83736
-6.6983,8.6349,-7.767,-29.412001,-8.867,-20.483,3.8835,-3.9482,21.398001,-29.412001,-8.867,-19.608,-11.483,-1.0159,-9.4603,9.6154,-10.564,0.83333,22.921,-7.8431,5.6683
-2.9068,13.397,-1.9417,-21.569,-3.9409,-14.686,11.65,-2.0065,20.423,-21.569,-3.9409,-13.725,-9.5694,1.8413,-6.6032,12.5,-5.7327,3.7179,20.063,-5.8824,10.499
4.6761,18.159,5.8252,-15.686,0.98522,-7.9227,20.388,0.90615,20.423,-15.686,0.98522,-4.902,-6.6986,4.6984,-4.6984,14.423,1.0306,1.7949,19.111,-7.8431,10.499
13.207,23.872999,16.504999,-9.8039,16.749001,0.77295,28.155001,4.7896,25.301001,-9.8039,16.749001,9.8039,-5.7416,5.6508,1.9683,15.385,8.7601,4.6795,21.968,-5.8824,11.465
21.738001,28.635,27.184,-4.902,31.527,2.7053,40.777,9.644,27.252001,-4.902,31.527,23.528999,-3.8278,5.6508,10.54,19.231001,17.455999,11.41,22.921,-0.98039,11.465
30.268999,32.444,33.980999,7.8431,39.409,20.097,47.573002,16.440001,32.130001,7.8431,39.409,35.293999,-2.8708,2.7937,16.254,19.231001,21.32,17.179001,29.587,1.9608,10.499
33.112,33.396999,33.980999,26.471001,46.305,34.589001,49.514999,22.264999,37.007999,26.471001,46.305,41.175999,-8.6124,-3.873,12.444,14.423,14.557,20.063999,34.348999,0.98039,6.6345
35.007999,29.587,30.097,38.235001,49.261002,40.386002,46.602001,28.091,37.007999,38.235001,49.261002,43.137001,-15.311,-12.444,4.8254,7.6923,3.9291,21.987,34.348999,-0.98039,0.83736
34.060001,24.825001,22.33,36.275002,47.291,45.216999,45.631001,31.003,33.105999,36.275002,47.291,44.118,-16.268,-16.254,1.0159,-0.96154,-2.8341,21.987,27.683001,-0.98039,-6.8921
27.424999,13.397,9.7087,31.372999,38.424,40.386002,38.834999,31.003,24.325001,31.372999,38.424,36.275002,-19.139,-19.111,-3.746,-12.5,-12.496,19.103001,9.5873,-2.9412,-15.588
17.945999,-0.88889,-3.8835,31.372999,33.498001,29.757999,22.33,28.091,13.593,31.372999,33.498001,26.471001,-20.096001,-16.254,-5.6508,-21.153999,-19.259001,17.179001,0.06349,-3.9216,-18.486
6.5719,-10.413,-13.592,33.333,29.556999,14.3,12.621,23.236,5.7886,33.333,29.556999,15.686,-17.225,-12.444,-8.5079,-25.0,-21.191999,14.295,-6.6032,-5.8824,-18.486
-3.8547,-16.127001,-21.358999,25.49,17.733999,10.435,0.0,20.323999,0.91057,25.49,17.733999,7.8431,-14.354,-13.397,-11.365,-27.885,-22.158001,10.449,-12.317,-8.8235,-19.452
-7.6461,-18.983999,-22.33,19.608,12.808,10.435,0.97087,17.410999,-2.9919,19.608,12.808,5.8824,-9.5694,-12.444,-9.4603,-26.923,-20.225,5.641,-14.222,-6.8627,-18.486
-3.8547,-14.222,-14.563,19.608,11.823,9.4686,6.7961,17.410999,-2.0163,19.608,11.823,9.8039,-5.7416,-6.7302,-6.6032,-18.268999,-12.496,1.7949,-12.317,-6.8627,-11.723
1.8325,-7.5556,-3.8835,26.471001,13.793,14.3,6.7961,20.323999,-2.0163,26.471001,13.793,16.667,-3.8278,-4.8254,-1.8413,-7.6923,-2.8341,4.6795,-9.4603,-9.8039,-4.9597
5.624,-2.7937,4.8544,30.392,13.793,18.164,6.7961,22.264999,-2.9919,30.392,13.793,21.569,-1.9139,-0.06349,4.8254,1.9231,6.8277,6.6026,-5.6508,-6.8627,0.83736
10.363,0.06349,12.621,34.313999,13.793,16.232,8.7379,20.323999,-2.0163,34.313999,13.793,25.49,2.8708,2.7937,8.6349,5.7692,14.557,6.6026,-6.6032,0.0,2.7697
11.311,0.06349,15.534,41.175999,11.823,15.266,8.7379,17.410999,-2.9919,41.175999,11.823,25.49,11.483,1.8413,10.54,5.7692,15.523,7.5641,-10.413,6.8627,0.83736
8.4676,-2.7937,11.65,39.216,8.867,11.401,1.9417,14.498,-7.8699,39.216,8.867,22.549,15.311,-1.0159,9.5873,0.96154,10.692,6.6026,-12.317,9.8039,-4.9597
4.6761,-3.746,7.767,35.293999,9.8522,7.5362,-0.97087,11.586,-8.8455,35.293999,9.8522,21.569,13.397,-6.7302,5.7778,-4.8077,6.8277,4.6795,-11.365,6.8627,-10.757
0.88468,-1.8413,5.8252,33.333,8.867,13.333,1.9417,10.615,-5.9187,33.333,8.867,22.549,8.6124,-14.349,-0.88889,-14.423,0.06441,-0.12821,-5.6508,4.902,-14.622
-3.8547,-5.6508,0.0,28.431,4.9261,13.333,0.97087,9.644,-3.9675,28.431,4.9261,19.608,0.0,-21.968,-9.4603,-25.0,-11.53,-3.9744,-1.8413,0.0,-17.52
-6.6983,-10.413,-9.7087,23.528999,6.8966,10.435,1.9417,9.644,-2.0163,23.528999,6.8966,14.706,-7.6555,-22.921,-16.127001,-31.731001,-20.225,-6.859,-0.88889,-2.9412,-20.419001
-10.49,-16.127001,-22.33,13.725,5.9113,-9.8551,0.97087,6.7314,-1.0407,13.725,5.9113,5.8824,-13.397,-23.872999,-24.698,-36.537998,-29.886999,-8.7821,-1.8413,-7.8431,-22.351
-14.281,-21.841,-31.068001,6.8627,0.0,-8.8889,-4.8544,3.8188,-0.06504,6.8627,0.0,-0.98039,-18.181999,-25.778,-28.507999,-35.577,-36.651001,-14.551,1.9683,-14.706,-21.385
-18.073,-22.794001,-33.980999,2.9412,-0.98522,-2.1256,-8.7379,-0.06472,0.91057,2.9412,-0.98522,-2.9412,-22.01,-24.825001,-28.507999,-31.731001,-36.651001,-12.628,0.06349,-20.587999,-18.486
-19.021,-18.983999,-26.214001,-0.98039,4.9261,-8.8889,-6.7961,-0.06472,4.813,-0.98039,4.9261,-1.9608,-22.01,-20.063,-24.698,-23.077,-27.955,-5.8974,0.06349,-17.646999,-10.757
-15.229,-13.27,-14.563,-1.9608,5.9113,-9.8551,-2.9126,0.90615,5.7886,-1.9608,5.9113,0.0,-17.225,-12.444,-18.032,-10.577,-15.395,-3.9744,3.873,-10.784,0.83736
-10.49,-9.4603,-5.8252,-4.902,0.0,-2.1256,-7.767,2.8479,2.8618,-4.902,0.0,0.0,-7.6555,-7.6825,-9.4603,1.9231,-1.868,-0.12821,1.9683,-5.8824,9.533
-9.5419,-7.5556,0.0,-1.9608,-5.9113,-3.0918,-10.68,0.90615,-2.9919,-1.9608,-5.9113,-2.9412,0.0,-3.873,-3.746,9.6154,6.8277,-0.12821,-0.88889,-1.9608,14.364
-8.594,-3.746,5.8252,3.9216,-10.837,-6.9565,-9.7087,-0.06472,-4.9431,3.9216,-10.837,-3.9216,6.6986,4.6984,1.0159,14.423,11.659,0.83333,-0.88889,1.9608,18.229
-3.8547,1.9683,10.68,0.98039,-7.8818,-6.9565,-5.8252,-1.0356,-5.9187,0.98039,-7.8818,1.9608,11.483,8.5079,5.7778,16.346001,17.455999,1.7949,-3.746,4.902,18.229
1.8325,2.9206,9.7087,4.902,-5.9113,-1.1594,-7.767,2.8479,-5.9187,4.902,-5.9113,6.8627,14.354,8.5079,9.5873,16.346001,23.253,4.6795,-6.6032,6.8627,13.398
5.624,1.9683,10.68,3.9216,-6.8966,-2.1256,-7.767,6.7314,-7.8699,3.9216,-6.8966,9.8039,15.311,8.5079,12.444,14.423,25.184999,7.5641,-5.6508,9.8039,10.499
8.4676,1.9683,12.621,2.9412,-5.9113,0.77295,-4.8544,7.7023,-7.8699,2.9412,-5.9113,10.784,16.268,9.4603,14.349,15.385,26.150999,9.4872,-3.746,12.745,7.6006
12.259,2.9206,14.563,3.9216,-5.9113,11.401,-4.8544,8.6731,-6.8943,3.9216,-5.9113,12.745,14.354,7.5556,12.444,16.346001,26.150999,7.5641,-2.7937,11.765,5.6683
12.259,-0.88889,15.534,3.9216,-3.9409,13.333,-9.7087,6.7314,-9.8211,3.9216,-3.9409,8.8235,13.397,7.5556,8.6349,15.385,25.184999,3.7179,-4.6984,8.8235,4.7021
10.363,-3.746,11.65,0.98039,-3.9409,6.57,-12.621,4.7896,-10.797,0.98039,-3.9409,4.902,15.311,10.413,4.8254,14.423,22.287001,4.6795,-1.8413,7.8431,5.6683
6.5719,-2.7937,4.8544,2.9412,-6.8966,7.5362,-10.68,1.877,-3.9675,2.9412,-6.8966,2.9412,13.397,11.365,-2.7937,8.6538,13.591,2.7564,3.873,4.902,1.8035
8.4676,1.9683,3.8835,6.8627,-0.98522,7.5362,0.0,1.877,3.8374,6.8627,-0.98522,7.8431,8.6124,9.4603,-6.6032,0.96154,1.0306,-2.0513,5.7778,0.98039,-0.12882
11.311,6.7302,3.8835,1.9608,-0.98522,8.5024,11.65,2.8479,9.6911,1.9608,-0.98522,14.706,4.7847,5.6508,-8.5079,-5.7692,-8.6312,-4.9359,5.7778,-3.9216,-1.095
11.311,7.6825,2.9126,5.8824,6.8966,16.232,13.592,3.8188,13.593,5.8824,6.8966,17.646999,3.8278,4.6984,-8.5079,-8.6538,-14.428,-6.859,9.5873,-5.8824,0.83736
10.363,9.5873,4.8544,9.8039,16.749001,22.995001,17.476,1.877,13.593,9.8039,16.749001,18.627001,5.7416,5.6508,-2.7937,-6.7308,-13.462,-6.859,12.444,-2.9412,5.6683
12.259,9.5873,7.767,7.8431,13.793,17.198,16.504999,-0.06472,6.7642,7.8431,13.793,16.667,8.6124,5.6508,4.8254,-3.8462,-7.6651,-6.859,8.6349,-2.9412,7.6006
14.155,10.54,14.563,10.784,6.8966,19.129999,11.65,-1.0356,0.91057,10.784,6.8966,15.686,12.44,7.5556,7.6825,1.9231,1.0306,-4.9359,5.7778,1.9608,11.465
13.207,14.349,21.358999,8.8235,2.9557,18.164,9.7087,-3.9482,-3.9675,8.8235,2.9557,11.765,11.483,8.5079,7.6825,10.577,8.7601,-6.859,2.9206,3.9216,13.398
11.311,16.254,24.271999,-0.98039,2.9557,7.5362,7.767,-6.8608,-6.8943,-0.98039,2.9557,6.8627,9.5694,13.27,10.54,19.231001,16.49,-6.859,5.7778,2.9412,17.261999
8.4676,20.063,25.243,-2.9412,0.98522,2.7053,2.9126,-7.8317,-7.8699,-2.9412,0.98522,3.9216,12.44,18.032,11.492,29.808001,24.219,-5.8974,2.9206,2.9412,23.059999
9.4155,22.921,27.184,-1.9608,-1.9704,1.7391,6.7961,-9.7735,-3.9675,-1.9608,-1.9704,3.9216,19.139,19.937,14.349,35.577,30.982,-9.7436,1.9683,4.902,25.958
9.4155,21.016001,27.184,-3.9216,2.9557,2.7053,11.65,-10.744,-0.06504,-3.9216,2.9557,3.9216,22.01,17.079,18.159,36.537998,36.778999,-6.859,4.8254,6.8627,25.958
9.4155,21.016001,25.243,-8.8235,6.8966,-5.9903,16.504999,-13.657,3.8374,-8.8235,6.8966,2.9412,21.052999,17.079,18.159,35.577,40.644001,-3.9744,4.8254,5.8824,23.059999
8.4676,17.205999,21.358999,-12.745,5.9113,-5.9903,13.592,-12.686,2.8618,-12.745,5.9113,0.0,17.225,15.175,17.205999,28.846001,37.745998,-4.9359,2.9206,4.902,16.296
4.6761,11.492,14.563,-8.8235,4.9261,-3.0918,7.767,-11.715,-0.06504,-8.8235,4.9261,-1.9608,12.44,9.4603,14.349,18.268999,29.049999,-4.9359,-0.88889,2.9412,7.6006
1.8325,8.6349,9.7087,-9.8039,1.9704,-2.1256,3.8835,-11.715,-0.06504,-9.8039,1.9704,-2.9412,5.7416,6.6032,8.6349,13.462,22.287001,-4.9359,-3.746,-1.9608,2.7697
-1.0111,7.6825,6.7961,-14.706,1.9704,-5.9903,-1.9417,-10.744,-1.0407,-14.706,1.9704,-1.9608,1.9139,8.5079,0.06349,11.538,15.523,-5.8974,-0.88889,-6.8627,4.7021
-6.6983,4.8254,0.97087,-9.8039,0.98522,-6.9565,0.0,-13.657,-1.0407,-9.8039,0.98522,-3.9216,-4.7847,9.4603,-9.4603,6.7308,2.963,-8.7821,-3.746,-15.686,6.6345
-14.281,2.9206,-6.7961,-8.8235,-2.9557,-9.8551,0.97087,-15.599,-3.9675,-8.8235,-2.9557,-11.765,-10.526,6.6032,-18.032,1.9231,-9.5974,-12.628,-9.4603,-20.587999,5.6683
-16.177,2.9206,-8.7379,-12.745,-3.9409,-16.618,-7.767,-15.599,-6.8943,-12.745,-3.9409,-15.686,-10.526,5.6508,-19.937,0.96154,-14.428,-13.59,-6.6032,-19.608,6.6345
-15.229,6.7302,-5.8252,-16.667,-2.9557,-11.787,-1.9417,-15.599,0.91057,-16.667,-2.9557,-14.706,-10.526,4.6984,-18.032,0.0,-15.395,-12.628,1.9683,-16.667,5.6683
-15.229,9.5873,-6.7961,-17.646999,-0.98522,-10.821,4.8544,-15.599,9.6911,-17.646999,-0.98522,-12.745,-11.483,-0.06349,-16.127001,-5.7692,-16.361,-11.667,8.6349,-13.725,0.83736
-17.125,9.5873,-6.7961,-20.587999,2.9557,-19.517,5.8252,-15.599,14.569,-20.587999,2.9557,-12.745,-11.483,-2.9206,-14.222,-9.6154,-15.395,-13.59,11.492,-12.745,-1.095
-19.021,8.6349,-3.8835,-24.51,-2.9557,-21.448999,4.8544,-17.540001,14.569,-24.51,-2.9557,-13.725,-7.6555,-6.7302,-11.365,-9.6154,-12.496,-16.474001,11.492,-9.8039,-3.9936
-19.021,5.7778,-2.9126,-23.528999,-2.9557,-18.551001,1.9417,-19.482,9.6911,-23.528999,-2.9557,-16.667,-1.9139,-5.7778,-8.5079,-4.8077,-7.6651,-14.551,7.6825,-5.8824,-2.0612
-17.125,1.9683,-3.8835,-23.528999,-1.9704,-18.551001,-2.9126,-18.511,1.8862,-23.528999,-1.9704,-18.627001,1.9139,-1.0159,-8.5079,2.8846,-0.90177,-8.7821,6.7302,-1.9608,-1.095
-16.177,-0.88889,-5.8252,-22.549,-4.9261,-21.448999,-8.7379,-17.540001,-2.0163,-22.549,-4.9261,-19.608,5.7416,1.8413,-7.5556,8.6538,3.9291,-9.7436,-3.746,0.0,1.8035
-17.125,-2.7937,-6.7961,-21.569,-3.9409,-21.448999,-6.7961,-16.57,-3.9675,-21.569,-3.9409,-18.627001,4.7847,2.7937,-8.5079,11.538,7.7939,-8.7821,-7.5556,0.0,4.7021
-16.177,-4.6984,-4.8544,-21.569,-5.9113,-18.551001,-8.7379,-15.599,-3.9675,-21.569,-5.9113,-17.646999,2.8708,-0.06349,-7.5556,8.6538,6.8277,-6.859,-5.6508,0.0,1.8035
-12.385,-4.6984,-2.9126,-19.608,-6.8966,-20.483,-5.8252,-12.686,-0.06504,-19.608,-6.8966,-14.706,-0.95694,-5.7778,-4.6984,0.96154,1.9968,-3.9744,-3.746,0.98039,-3.0274
-11.438,-5.6508,-5.8252,-14.706,0.0,-16.618,-3.8835,-9.7735,-0.06504,-14.706,0.0,-14.706,-2.8708,-8.6349,-2.7937,-2.8846,-1.868,-1.0897,-0.88889,1.9608,-5.9259
-10.49,-4.6984,-9.7087,-15.686,3.9409,-13.72,-2.9126,-8.8026,-2.0163,-15.686,3.9409,-15.686,-4.7847,-8.6349,-1.8413,-2.8846,-4.7665,-0.12821,-2.7937,0.0,-6.8921
-7.6461,-2.7937,-8.7379,-12.745,5.9113,-10.821,-2.9126,-6.8608,-3.9675,-12.745,5.9113,-11.765,-3.8278,-8.6349,-0.88889,-3.8462,-6.6989,-3.0128,-5.6508,-1.9608,-6.8921
-2.9068,4.8254,-4.8544,-1.9608,9.8522,-2.1256,2.9126,-2.0065,-2.9919,-1.9608,9.8522,-1.9608,-2.8708,-3.873,-1.8413,-0.96154,-5.7327,-1.0897,-1.8413,-0.98039,-4.9597
0.88468,10.54,0.0,11.765,17.733999,4.6377,13.592,1.877,-1.0407,11.765,17.733999,5.8824,-3.8278,0.88889,-6.6032,0.96154,-5.7327,4.6795,-10.413,-1.9608,-6.8921
0.88468,11.492,0.0,11.765,21.674999,3.6715,17.476,-0.06472,3.8374,11.765,21.674999,8.8235,-8.6124,-0.06349,-12.317,-1.9231,-10.564,2.7564,-12.317,-4.902,-7.8583
-0.06319,8.6349,-3.8835,-1.9608,19.704,-6.9565,11.65,-2.9773,5.7886,-1.9608,19.704,6.8627,-13.397,-3.873,-15.175,-6.7308,-17.327,-0.12821,-0.88889,-4.902,-7.8583
-8.594,1.9683,-13.592,-3.9216,9.8522,-15.652,1.9417,-6.8608,5.7886,-3.9216,9.8522,0.0,-16.268,-8.6349,-18.983999,-15.385,-25.056,-2.0513,3.873,-7.8431,-8.8245
-21.864,-5.6508,-23.301001,-1.9608,0.0,-24.348,-5.8252,-11.715,4.813,-1.9608,0.0,-8.8235,-20.096001,-10.54,-23.746,-25.962,-32.785999,-8.7821,4.8254,-11.765,-8.8245
-29.447001,-11.365,-27.184,-6.8627,-3.9409,-29.179001,-6.7961,-13.657,5.7886,-6.8627,-3.9409,-13.725,-24.879999,-14.349,-25.650999,-31.731001,-36.651001,-11.667,3.873,-14.706,-10.757
-29.447001,-13.27,-26.214001,-11.765,-6.8966,-29.179001,-1.9417,-12.686,10.667,-11.765,-6.8966,-13.725,-25.837,-15.302,-29.459999,-29.808001,-35.683998,-11.667,5.7778,-17.646999,-10.757
-26.603001,-16.127001,-24.271999,-15.686,-3.9409,-22.415001,-1.9417,-8.8026,14.569,-15.686,-3.9409,-13.725,-25.837,-18.159,-30.413,-27.885,-35.683998,-9.7436,12.444,-17.646999,-10.757
-19.968,-16.127001,-21.358999,-7.8431,-1.9704,-15.652,-3.8835,-2.9773,15.545,-7.8431,-1.9704,-10.784,-24.879999,-18.159,-23.746,-22.115,-31.82,-6.859,10.54,-17.646999,-6.8921
-12.385,-15.175,-17.476,-6.8627,0.0,-20.483,-2.9126,1.877,12.618,-6.8627,0.0,-7.8431,-25.837,-19.111,-19.937,-16.346001,-26.989,-4.9359,6.7302,-15.686,-5.9259
-6.6983,-13.27,-12.621,9.8039,5.9113,2.7053,-4.8544,8.6731,7.7398,9.8039,5.9113,-4.902,-23.923,-18.159,-16.127001,-10.577,-21.191999,-2.0513,4.8254,-13.725,-3.9936
0.88468,-8.5079,-5.8252,23.528999,9.8522,24.927999,-0.97087,13.528,4.813,23.528999,9.8522,0.98039,-17.225,-14.349,-7.5556,-1.9231,-12.496,3.7179,1.0159,-8.8235,-1.095
9.4155,-0.88889,2.9126,24.51,9.8522,25.893999,6.7961,15.469,-0.06504,24.51,9.8522,6.8627,-7.6555,-6.7302,0.06349,6.7308,-0.90177,7.5641,-0.88889,-0.98039,3.7359
14.155,2.9206,10.68,20.587999,4.9261,21.063,4.8544,12.557,-4.9431,20.587999,4.9261,7.8431,0.95694,3.746,4.8254,14.423,7.7939,7.5641,-2.7937,4.902,9.533
14.155,1.9683,10.68,2.9412,0.0,13.333,0.97087,5.7605,-7.8699,2.9412,0.0,4.902,7.6555,8.5079,11.492,13.462,12.625,8.5256,-4.6984,9.8039,9.533
12.259,-0.88889,8.7379,3.9216,2.9557,4.6377,-0.97087,1.877,-11.772,3.9216,2.9557,1.9608,11.483,6.6032,15.302,9.6154,17.455999,12.372,-16.127001,14.706,3.7359
11.311,-2.7937,9.7087,16.667,6.8966,4.6377,-0.97087,1.877,-11.772,16.667,6.8966,3.9216,15.311,6.6032,16.254,3.8462,18.422001,12.372,-20.889,19.608,-3.9936
5.624,-8.5079,4.8544,18.627001,6.8966,8.5024,0.0,1.877,-10.797,18.627001,6.8966,5.8824,13.397,3.746,10.54,-3.8462,11.659,7.5641,-24.698,17.646999,-11.723
-2.9068,-11.365,-2.9126,18.627001,7.8818,4.6377,4.8544,4.7896,-3.9675,18.627001,7.8818,5.8824,8.6124,-0.06349,2.9206,-9.6154,3.9291,3.7179,-21.841,11.765,-16.554001
-9.5419,-10.413,-6.7961,14.706,12.808,1.7391,9.7087,4.7896,6.7642,14.706,12.808,5.8824,0.95694,-3.873,-2.7937,-16.346001,-4.7665,0.83333,-7.5556,6.8627,-18.486
-13.333,-11.365,-12.621,4.902,11.823,-3.0918,9.7087,2.8479,11.642,4.902,11.823,1.9608,-7.6555,-6.7302,-7.5556,-22.115,-15.395,-2.0513,1.0159,0.98039,-15.588
-14.281,-10.413,-17.476,2.9412,6.8966,-9.8551,7.767,1.877,12.618,2.9412,6.8966,0.0,-13.397,-7.6825,-11.365,-21.153999,-21.191999,-3.9744,7.6825,-3.9216,-11.723
-11.438,-6.6032,-16.504999,0.98039,5.9113,-8.8889,1.9417,0.90615,12.618,0.98039,5.9113,-0.98039,-15.311,-2.9206,-12.317,-14.423,-21.191999,-3.9744,15.302,-5.8824,-3.9936
-3.8547,-0.88889,-12.621,0.98039,4.9261,-5.9903,4.8544,2.8479,7.7398,0.98039,4.9261,2.9412,-14.354,-1.9683,-9.4603,-5.7692,-21.191999,-2.0513,15.302,-5.8824,4.7021
6.5719,4.8254,-8.7379,8.8235,2.9557,-3.0918,7.767,7.7023,1.8862,8.8235,2.9557,8.8235,-11.483,-4.8254,-4.6984,-0.96154,-18.292999,1.7949,14.349,-3.9216,8.5668
13.207,4.8254,-5.8252,20.587999,1.9704,15.266,5.8252,12.557,-3.9675,20.587999,1.9704,11.765,-11.483,-10.54,-2.7937,-0.96154,-14.428,7.5641,11.492,-1.9608,4.7021
15.103,1.9683,-4.8544,19.608,0.98522,32.657001,-0.97087,15.469,-7.8699,19.608,0.98522,8.8235,-10.526,-12.444,1.0159,-0.96154,-13.462,11.41,7.6825,1.9608,1.8035
16.997999,-1.8413,-1.9417,3.9216,-7.8818,24.927999,-13.592,14.498,-12.748,3.9216,-7.8818,4.902,-5.7416,-10.54,6.7302,0.0,-7.6651,8.5256,2.9206,5.8824,2.7697
15.103,-6.6032,0.0,13.725,-16.749001,23.961,-14.563,12.557,-19.577,13.725,-16.749001,-2.9412,3.8278,-4.8254,13.397,1.9231,1.0306,8.5256,-13.27,13.725,3.7359
11.311,-15.175,-1.9417,12.745,-19.704,20.097,-22.33,9.644,-25.431,12.745,-19.704,-11.765,12.44,1.8413,19.111,2.8846,6.8277,12.372,-20.889,22.549,4.7021
6.5719,-23.746,-7.767,4.902,-22.66,14.3,-34.951,9.644,-28.358,4.902,-22.66,-16.667,16.268,4.6984,21.968,0.96154,9.7262,13.333,-22.794001,22.549,3.7359
4.6761,-28.507999,-9.7087,4.902,-22.66,9.4686,-32.039001,11.586,-31.285,4.902,-22.66,-19.608,17.225,5.6508,21.016001,-2.8846,11.659,10.449,-29.459999,21.569,-0.12882
7.5197,-28.507999,-4.8544,1.9608,-21.674999,3.6715,-29.125999,13.528,-31.285,1.9608,-21.674999,-18.627001,22.966999,7.5556,21.968,-2.8846,16.49,11.41,-28.507999,22.549,-2.0612
13.207,-23.746,1.9417,0.0,-20.690001,5.6039,-28.155001,12.557,-29.333,0.0,-20.690001,-16.667,29.665001,13.27,26.73,1.9231,24.219,13.333,-27.556,24.51,-3.0274
16.997999,-17.079,6.7961,-0.98039,-18.719,9.4686,-26.214001,12.557,-25.431,-0.98039,-18.719,-13.725,33.493,14.222,30.540001,5.7692,30.016001,17.179001,-24.698,27.451,-4.9597
18.893999,-14.222,8.7379,-2.9412,-12.808,10.435,-22.33,11.586,-17.625999,-2.9412,-12.808,-10.784,29.665001,11.365,29.587,3.8462,27.118,16.218,-18.032,24.51,-6.8921
19.841999,-13.27,4.8544,0.0,-6.8966,12.367,-15.534,13.528,-7.8699,0.0,-6.8966,-5.8824,22.966999,6.6032,21.968,-1.9231,16.49,16.218,-9.4603,19.608,-9.7907
21.738001,-8.5079,0.0,-4.902,-1.9704,9.4686,-7.767,14.498,-0.06504,-4.902,-1.9704,1.9608,14.354,2.7937,12.444,-8.6538,2.963,17.179001,-5.6508,13.725,-13.655
26.476999,-1.8413,1.9417,4.902,4.9261,12.367,2.9126,17.410999,6.7642,4.902,4.9261,15.686,5.7416,-1.0159,5.7778,-13.462,-8.6312,17.179001,-1.8413,8.8235,-14.622
27.424999,3.873,3.8835,23.528999,11.823,26.860001,10.68,18.382,9.6911,23.528999,11.823,22.549,-2.8708,-3.873,0.06349,-16.346001,-16.361,14.295,5.7778,2.9412,-13.655
22.686001,8.6349,4.8544,30.392,14.778,34.589001,14.563,16.440001,10.667,30.392,14.778,24.51,-10.526,-3.873,-4.6984,-14.423,-20.225,12.372,9.5873,-2.9412,-13.655
18.893999,11.492,5.8252,21.569,16.749001,27.826,14.563,14.498,11.642,21.569,16.749001,23.528999,-14.354,-3.873,-6.6032,-12.5,-20.225,10.449,11.492,-5.8824,-9.7907
16.051001,14.349,5.8252,14.706,13.793,20.097,16.504999,12.557,9.6911,14.706,13.793,22.549,-15.311,-1.9683,-8.5079,-6.7308,-17.327,6.6026,12.444,-7.8431,-4.9597
13.207,14.349,5.8252,3.9216,7.8818,16.232,13.592,9.644,6.7642,3.9216,7.8818,20.587999,-10.526,1.8413,-7.5556,0.96154,-7.6651,4.6795,10.54,-7.8431,-1.095
12.259,14.349,3.8835,1.9608,6.8966,13.333,11.65,6.7314,4.813,1.9608,6.8966,18.627001,-2.8708,6.6032,-2.7937,7.6923,4.8953,2.7564,6.7302,-4.902,3.7359
12.259,15.302,9.7087,0.0,4.9261,6.57,7.767,2.8479,4.813,0.0,4.9261,17.646999,6.6986,12.317,5.7778,14.423,19.388,0.83333,7.6825,0.98039,9.533
15.103,16.254,17.476,-8.8235,0.0,-3.0918,8.7379,-2.0065,5.7886,-8.8235,0.0,16.667,14.354,16.127001,16.254,20.191999,32.915001,-0.12821,9.5873,5.8824,12.432
16.997999,14.349,24.271999,-9.8039,3.9409,3.6715,9.7087,-2.9773,7.7398,-9.8039,3.9409,19.608,18.181999,18.983999,23.872999,18.268999,39.678001,0.83333,3.873,9.8039,11.465
18.893999,12.444,31.068001,-4.902,8.867,16.232,15.534,1.877,12.618,-4.902,8.867,24.51,21.052999,15.175,25.778,12.5,40.644001,4.6795,1.0159,11.765,6.6345
20.790001,10.54,32.039001,-2.9412,12.808,21.063,22.33,3.8188,13.593,-2.9412,12.808,28.431,18.181999,11.365,25.778,10.577,40.644001,6.6026,1.0159,10.784,1.8035
20.790001,11.492,28.155001,4.902,17.733999,11.401,26.214001,6.7314,11.642,4.902,17.733999,28.431,16.268,8.5079,21.968,10.577,34.847,7.5641,-0.88889,7.8431,1.8035
16.997999,10.54,22.33,9.8039,18.719,13.333,25.243,8.6731,7.7398,9.8039,18.719,26.471001,12.44,8.5079,13.397,11.538,23.253,10.449,4.8254,6.8627,5.6683
13.207,10.54,15.534,6.8627,12.808,15.266,17.476,7.7023,0.91057,6.8627,12.808,23.528999,5.7416,5.6508,5.7778,8.6538,11.659,9.4872,0.06349,2.9412,3.7359
16.051001,13.397,15.534,9.8039,12.808,19.129999,11.65,8.6731,-3.9675,9.8039,12.808,21.569,0.0,2.7937,1.9683,6.7308,3.9291,10.449,-0.88889,1.9608,3.7359
16.997999,14.349,14.563,12.745,11.823,16.232,12.621,7.7023,-6.8943,12.745,11.823,17.646999,-2.8708,2.7937,2.9206,8.6538,-0.90177,6.6026,-0.88889,0.0,4.7021
15.103,11.492,10.68,4.902,11.823,9.4686,10.68,3.8188,-8.8455,4.902,11.823,14.706,-4.7847,5.6508,1.9683,9.6154,-3.8003,6.6026,0.06349,-3.9216,7.6006
9.4155,11.492,7.767,8.8235,7.8818,7.5362,1.9417,-0.06472,-7.8699,8.8235,7.8818,7.8431,-4.7847,5.6508,1.0159,9.6154,-2.8341,6.6026,-1.8413,-5.8824,7.6006
4.6761,9.5873,7.767,8.8235,3.9409,7.5362,0.97087,-2.0065,-6.8943,8.8235,3.9409,2.9412,-0.95694,6.6032,4.8254,6.7308,-0.90177,0.83333,-1.8413,-3.9216,5.6683
1.8325,7.6825,4.8544,5.8824,0.0,2.7053,6.7961,-2.0065,-5.9187,5.8824,0.0,-2.9412,4.7847,10.413,9.5873,4.8077,2.963,-3.9744,-2.7937,-0.98039,5.6683
-1.0111,4.8254,3.8835,1.9608,0.98522,-3.0918,0.97087,-3.9482,-5.9187,1.9608,0.98522,-7.8431,9.5694,15.175,11.492,5.7692,9.7262,-6.859,-1.8413,1.9608,6.6345
-1.0111,2.9206,5.8252,-1.9608,-0.98522,-7.9227,-6.7961,-3.9482,-7.8699,-1.9608,-0.98522,-7.8431,12.44,18.983999,13.397,7.6923,15.523,-4.9359,1.0159,5.8824,8.5668
4.6761,4.8254,9.7087,-0.98039,-5.9113,-13.72,-1.9417,-2.0065,-10.797,-0.98039,-5.9113,-1.9608,15.311,18.983999,17.205999,7.6923,20.354,-1.0897,1.9683,9.8039,9.533
11.311,5.7778,14.563,10.784,-0.98522,3.6715,-0.97087,0.90615,-9.8211,10.784,-0.98522,4.902,20.096001,18.032,21.968,6.7308,23.253,3.7179,1.0159,14.706,9.533
16.997999,5.7778,18.447001,15.686,6.8966,19.129999,1.9417,2.8479,-9.8211,15.686,6.8966,7.8431,23.923,16.127001,23.872999,5.7692,22.287001,7.5641,1.0159,18.627001,6.6345
16.997999,1.0159,14.563,8.8235,3.9409,11.401,-4.8544,0.90615,-12.748,8.8235,3.9409,2.9412,22.01,13.27,19.111,2.8846,16.49,8.5256,-5.6508,18.627001,2.7697
9.4155,-6.6032,4.8544,-1.9608,-4.9261,0.77295,-15.534,-2.0065,-18.601999,-1.9608,-4.9261,-6.8627,14.354,8.5079,9.5873,-1.9231,5.8615,5.641,-18.032,15.686,-1.095
-1.9589,-16.127001,-7.767,-5.8824,-13.793,-5.0242,-26.214001,-4.9191,-24.455,-5.8824,-13.793,-19.608,5.7416,2.7937,-0.88889,-8.6538,-7.6651,1.7949,-25.650999,10.784,-4.9597
-15.229,-27.556,-21.358999,-9.8039,-26.601,-13.72,-33.980999,-4.9191,-33.236,-9.8039,-26.601,-31.372999,-3.8278,-2.9206,-10.413,-12.5,-19.259001,-0.12821,-30.413,3.9216,-8.8245
-23.76,-33.27,-33.009998,-22.549,-35.467999,-19.517,-39.806,-5.89,-36.162998,-22.549,-35.467999,-41.175999,-10.526,-4.8254,-18.032,-12.5,-25.056,-0.12821,-30.413,-1.9608,-8.8245
-29.447001,-33.27,-37.863998,-31.372999,-35.467999,-27.246,-42.717999,-6.8608,-31.285,-31.372999,-35.467999,-48.039001,-13.397,-4.8254,-22.794001,-9.6154,-26.023001,-2.0513,-24.698,-5.8824,-7.8583
-32.291,-31.365,-39.806,-28.431,-30.542,-29.179001,-37.863998,-5.89,-24.455,-28.431,-30.542,-49.02,-17.225,-5.7778,-23.746,-7.6923,-23.124001,-3.9744,-18.983999,-7.8431,-8.8245
-28.499001,-24.698,-34.951,-25.49,-24.631001,-27.246,-31.068001,-2.9773,-19.577,-25.49,-24.631001,-41.175999,-16.268,-4.8254,-20.889,-4.8077,-19.259001,1.7949,-13.27,-3.9216,-8.8245
-23.76,-20.889,-30.097,-22.549,-19.704,-26.280001,-24.271999,0.90615,-16.65,-22.549,-19.704,-33.333,-13.397,-6.7302,-18.983999,-4.8077,-17.327,9.4872,-11.365,-0.98039,-8.8245
-20.916,-18.983999,-25.243,-19.608,-18.719,-27.246,-19.417,4.7896,-15.675,-19.608,-18.719,-27.451,-13.397,-12.444,-16.127001,-6.7308,-14.428,13.333,-15.175,0.0,-12.689
-14.281,-18.032,-18.447001,-17.646999,-20.690001,-25.313999,-20.388,8.6731,-15.675,-17.646999,-20.690001,-20.587999,-12.44,-16.254,-12.317,-7.6923,-10.564,15.256,-13.27,0.98039,-13.655
-8.594,-18.032,-13.592,-17.646999,-22.66,-18.551001,-22.33,9.644,-14.699,-17.646999,-22.66,-14.706,-10.526,-17.205999,-9.4603,-8.6538,-9.5974,15.256,-13.27,-0.98039,-12.689
-4.8025,-21.841,-9.7087,-19.608,-25.615999,-23.382,-27.184,8.6731,-14.699,-19.608,-25.615999,-10.784,-10.526,-17.205999,-6.6032,-14.423,-10.564,14.295,-17.079,-3.9216,-13.655
-1.9589,-28.507999,-9.7087,-5.8824,-32.512001,-16.618,-33.009998,12.557,-15.675,-5.8824,-32.512001,-7.8431,-10.526,-19.111,-5.6508,-25.962,-13.462,16.218,-18.983999,-4.902,-20.419001
-1.0111,-30.413,-10.68,6.8627,-28.570999,7.5362,-28.155001,19.353001,-11.772,6.8627,-28.570999,-1.9608,-11.483,-21.968,-7.5556,-36.537998,-21.191999,18.141001,-20.889,-4.902,-25.25
0.88468,-28.507999,-10.68,4.902,-23.645,16.232,-21.358999,20.323999,-9.8211,4.902,-23.645,0.98039,-12.44,-21.016001,-7.5556,-38.462002,-26.989,19.103001,-19.937,-2.9412,-25.25
1.8325,-22.794001,-12.621,6.8627,-22.66,13.333,-20.388,18.382,-7.8699,6.8627,-22.66,1.9608,-10.526,-14.349,-5.6508,-30.768999,-27.955,17.179001,-14.222,0.98039,-16.554001
1.8325,-15.175,-12.621,4.902,-21.674999,12.367,-17.476,14.498,-2.0163,4.902,-21.674999,1.9608,-6.6986,-7.6825,-5.6508,-19.231001,-26.023001,15.256,-4.6984,1.9608,-5.9259
1.8325,-9.4603,-12.621,3.9216,-19.704,10.435,-12.621,12.557,-0.06504,3.9216,-19.704,0.98039,-3.8278,-3.873,-4.6984,-8.6538,-21.191999,11.41,-2.7937,0.0,3.7359
-1.9589,-5.6508,-11.65,9.8039,-14.778,10.435,-10.68,11.586,-0.06504,9.8039,-14.778,-0.98039,-1.9139,-1.0159,-5.6508,0.0,-15.395,8.5256,-3.746,-0.98039,8.5668
-6.6983,-4.6984,-8.7379,2.9412,-15.764,5.6039,-13.592,11.586,-1.0407,2.9412,-15.764,-3.9216,-1.9139,-0.06349,-5.6508,5.7692,-11.53,3.7179,-2.7937,-2.9412,8.5668
-8.594,-3.746,-8.7379,5.8824,-12.808,6.57,-15.534,11.586,-1.0407,5.8824,-12.808,-6.8627,-1.9139,0.88889,-7.5556,7.6923,-9.5974,4.6795,-5.6508,-3.9216,9.533
-8.594,-0.88889,-8.7379,17.646999,-4.9261,4.6377,-13.592,10.615,4.813,17.646999,-4.9261,-5.8824,0.0,-0.06349,-8.5079,8.6538,-4.7665,8.5256,-2.7937,-4.902,9.533
-3.8547,0.06349,-2.9126,22.549,-2.9557,6.57,-3.8835,11.586,10.667,22.549,-2.9557,-0.98039,0.95694,-1.9683,-6.6032,7.6923,1.0306,8.5256,3.873,-4.902,6.6345
0.88468,0.06349,2.9126,18.627001,1.9704,7.5362,2.9126,11.586,13.593,18.627001,1.9704,2.9412,0.95694,-3.873,-2.7937,6.7308,4.8953,4.6795,8.6349,-3.9216,5.6683
8.4676,1.9683,6.7961,16.667,4.9261,4.6377,3.8835,12.557,13.593,16.667,4.9261,9.8039,3.8278,-1.9683,1.9683,7.6923,9.7262,5.641,5.7778,-1.9608,4.7021
12.259,1.0159,10.68,16.667,5.9113,1.7391,-1.9417,11.586,12.618,16.667,5.9113,11.765,7.6555,0.88889,4.8254,5.7692,14.557,5.641,1.9683,0.98039,2.7697
12.259,-0.88889,9.7087,25.49,0.0,12.367,-2.9126,8.6731,10.667,25.49,0.0,10.784,10.526,2.7937,6.7302,2.8846,12.625,5.641,1.9683,3.9216,1.8035
9.4155,-6.6032,4.8544,20.587999,1.9704,10.435,-3.8835,4.7896,7.7398,20.587999,1.9704,6.8627,8.6124,4.6984,4.8254,-0.96154,4.8953,2.7564,3.873,0.98039,-0.12882
-0.06319,-14.222,-3.8835,5.8824,2.9557,-0.19324,-6.7961,-2.0065,3.8374,5.8824,2.9557,0.0,2.8708,1.8413,-5.6508,-8.6538,-7.6651,-4.9359,0.06349,-5.8824,-5.9259
-12.385,-20.889,-11.65,-1.9608,-4.9261,-7.9227,-13.592,-8.8026,0.91057,-1.9608,-4.9261,-6.8627,-3.8278,-1.9683,-14.222,-15.385,-18.292999,-15.513,-2.7937,-12.745,-6.8921
-20.916,-21.841,-19.417,-12.745,-11.823,-16.618,-20.388,-13.657,1.8862,-12.745,-11.823,-12.745,-11.483,-4.8254,-20.889,-15.385,-25.056,-18.396999,0.06349,-19.608,-6.8921
-27.551001,-18.032,-24.271999,-16.667,-14.778,-22.415001,-17.476,-17.540001,6.7642,-16.667,-14.778,-16.667,-16.268,-7.6825,-26.603001,-13.462,-27.955,-20.320999,2.9206,-23.528999,-3.9936
-29.447001,-10.413,-22.33,-22.549,-12.808,-20.483,-10.68,-20.452999,12.618,-22.549,-12.808,-17.646999,-16.268,-4.8254,-26.603001,-3.8462,-22.158001,-26.09,7.6825,-25.49,3.7359
-26.603001,-1.8413,-19.417,-13.725,-8.867,-18.551001,2.9126,-23.365999,17.496,-13.725,-8.867,-11.765,-14.354,-1.0159,-21.841,5.7692,-15.395,-30.896999,17.205999,-25.49,8.5668
-23.76,4.8254,-16.504999,-7.8431,3.9409,-11.787,9.7087,-24.337,23.35,-7.8431,3.9409,-3.9216,-14.354,4.6984,-18.032,13.462,-8.6312,-31.858999,20.063,-25.49,14.364
-14.281,14.349,-5.8252,-4.902,17.733999,-0.19324,21.358999,-19.482,29.202999,-4.902,17.733999,7.8431,-11.483,8.5079,-11.365,19.231001,1.0306,-28.013,24.825001,-21.569,18.229
-5.7504,21.968,5.8252,-5.8824,21.674999,4.6377,33.009998,-14.628,30.179001,-5.8824,21.674999,16.667,-8.6124,5.6508,-5.6508,20.191999,7.7939,-23.205,23.872999,-17.646999,16.296
2.7804,28.635,17.476,0.0,25.615999,7.5362,40.777,-10.744,28.228001,0.0,25.615999,23.528999,-4.7847,6.6032,1.0159,23.077,17.455999,-19.358999,23.872999,-13.725,17.261999
7.5197,29.587,25.243,10.784,24.631001,10.435,36.893002,-7.8317,24.325001,10.784,24.631001,27.451,1.9139,12.317,7.6825,27.885,24.219,-16.474001,19.111,-7.8431,21.127001
9.4155,23.872999,24.271999,8.8235,25.615999,10.435,26.214001,-6.8608,18.472,8.8235,25.615999,23.528999,5.7416,13.27,14.349,27.885,24.219,-14.551,9.5873,-4.902,20.160999
11.311,16.254,20.388,-0.98039,22.66,1.7391,15.534,-6.8608,10.667,-0.98039,22.66,17.646999,7.6555,11.365,17.205999,23.077,21.32,-12.628,4.8254,-0.98039,16.296
14.155,14.349,19.417,0.0,16.749001,-1.1594,15.534,-5.89,5.7886,0.0,16.749001,17.646999,10.526,9.4603,18.159,18.268999,22.287001,-9.7436,5.7778,1.9608,13.398
14.155,16.254,21.358999,2.9412,18.719,11.401,20.388,-4.9191,3.8374,2.9412,18.719,18.627001,12.44,8.5079,17.205999,17.308001,26.150999,-5.8974,4.8254,6.8627,12.432
9.4155,16.254,18.447001,0.98039,20.690001,12.367,20.388,-6.8608,3.8374,0.98039,20.690001,14.706,13.397,10.413,14.349,18.268999,27.118,-4.9359,6.7302,9.8039,13.398
-0.06319,13.397,11.65,-8.8235,10.837,-2.1256,13.592,-12.686,5.7886,-8.8235,10.837,5.8824,12.44,11.365,9.5873,22.115,22.287001,-7.8205,11.492,6.8627,16.296
-10.49,12.444,3.8835,-26.471001,3.9409,-21.448999,9.7087,-21.424,9.6911,-26.471001,3.9409,-4.902,9.5694,14.222,4.8254,28.846001,16.49,-13.59,23.872999,4.902,23.059999
-16.177,14.349,-3.8835,-32.353001,-1.9704,-28.212999,0.97087,-27.249001,11.642,-32.353001,-1.9704,-16.667,7.6555,18.032,1.0159,34.615002,12.625,-19.358999,23.872999,2.9412,28.857
-18.073,18.159,-5.8252,-29.412001,-3.9409,-29.179001,-3.8835,-28.219999,9.6911,-29.412001,-3.9409,-22.549,6.6986,18.983999,0.06349,36.537998,11.659,-16.474001,24.825001,0.98039,30.789
-17.125,20.063,-2.9126,-31.372999,-5.9113,-34.009998,2.9126,-26.278,10.667,-31.372999,-5.9113,-21.569,3.8278,17.079,-2.7937,30.768999,8.7601,-10.705,30.540001,-1.9608,27.889999
-16.177,18.159,-2.9126,-28.431,5.9113,-26.280001,11.65,-22.395,18.472,-28.431,5.9113,-14.706,-0.95694,7.5556,-4.6984,16.346001,1.9968,-9.7436,30.540001,-5.8824,15.33
-10.49,16.254,-1.9417,-16.667,18.719,-16.618,25.243,-17.540001,31.153999,-16.667,18.719,-2.9412,-3.8278,-1.0159,-3.746,0.0,-7.6651,-7.8205,30.540001,-4.902,0.83736
-2.9068,16.254,1.9417,-8.8235,31.527,-9.8551,34.951,-12.686,41.886002,-8.8235,31.527,7.8431,-4.7847,-7.6825,-0.88889,-9.6154,-11.53,-5.8974,29.587,-2.9412,-12.689
-0.06319,14.349,2.9126,-7.8431,38.424,-9.8551,36.893002,-13.657,41.886002,-7.8431,38.424,12.745,-3.8278,-12.444,-1.8413,-14.423,-12.496,-5.8974,23.872999,-1.9608,-21.385
-2.9068,6.7302,0.0,-4.902,25.615999,-7.9227,27.184,-14.628,33.105999,-4.902,25.615999,10.784,-0.95694,-14.349,-4.6984,-18.268999,-15.395,-7.8205,10.54,-0.98039,-25.25
-5.7504,-0.88889,-0.97087,-5.8824,10.837,-6.9565,14.563,-15.599,20.423,-5.8824,10.837,5.8824,-0.95694,-17.205999,-7.5556,-22.115,-16.361,-8.7821,1.9683,-1.9608,-26.216
-9.5419,-5.6508,-3.8835,-13.725,1.9704,-5.0242,6.7961,-16.57,12.618,-13.725,1.9704,-3.9216,-3.8278,-17.205999,-9.4603,-18.268999,-16.361,-10.705,2.9206,-3.9216,-19.452
-15.229,-6.6032,-9.7087,-11.765,1.9704,-8.8889,4.8544,-14.628,10.667,-11.765,1.9704,-13.725,-6.6986,-12.444,-9.4603,-9.6154,-16.361,-12.628,8.6349,-4.902,-6.8921
-17.125,-0.88889,-11.65,-11.765,1.9704,-16.618,5.8252,-15.599,10.667,-11.765,1.9704,-17.646999,-7.6555,-5.7778,-5.6508,0.0,-15.395,-13.59,12.444,-3.9216,6.6345
-17.125,6.7302,-11.65,-15.686,0.98522,-17.584999,9.7087,-16.57,10.667,-15.686,0.98522,-14.706,-6.6986,-0.06349,-2.7937,11.538,-13.462,-13.59,16.254,-1.9608,19.195
-16.177,13.397,-9.7087,-14.706,3.9409,-17.584999,15.534,-17.540001,8.7154,-14.706,3.9409,-10.784,-4.7847,2.7937,-0.88889,19.231001,-9.5974,-13.59,17.205999,-1.9608,25.958
-11.438,18.159,-2.9126,-14.706,4.9261,-20.483,19.417,-15.599,9.6911,-14.706,4.9261,-4.902,1.9139,4.6984,4.8254,23.077,-2.8341,-12.628,15.302,1.9608,27.889999
-3.8547,23.872999,5.8252,-16.667,0.98522,-28.212999,14.563,-13.657,8.7154,-16.667,0.98522,-0.98039,8.6124,8.5079,13.397,26.923,6.8277,-11.667,11.492,6.8627,25.958
2.7804,31.492001,15.534,-18.627001,-0.98522,-20.483,15.534,-10.744,5.7886,-18.627001,-0.98522,3.9216,13.397,12.317,17.205999,30.768999,18.422001,-3.9744,7.6825,9.8039,21.127001
6.5719,33.396999,23.301001,-9.8039,6.8966,-4.058,21.358999,-5.89,0.91057,-9.8039,6.8966,7.8431,17.225,12.317,18.159,28.846001,26.150999,1.7949,8.6349,12.745,15.33
8.4676,28.635,23.301001,-3.9216,8.867,0.77295,16.504999,-2.9773,-5.9187,-3.9216,8.867,8.8235,17.225,10.413,15.302,22.115,27.118,0.83333,12.444,11.765,7.6006
6.5719,21.016001,20.388,-6.8627,7.8818,-1.1594,9.7087,-1.0356,-6.8943,-6.8627,7.8818,9.8039,14.354,7.5556,8.6349,13.462,22.287001,-0.12821,9.5873,8.8235,-0.12882
-0.06319,8.6349,11.65,-7.8431,5.9113,-6.9565,0.97087,-0.06472,-4.9431,-7.8431,5.9113,6.8627,4.7847,-2.9206,-0.88889,0.0,10.692,-3.9744,2.9206,1.9608,-13.655
-8.594,-4.6984,0.0,-6.8627,1.9704,-8.8889,-2.9126,-0.06472,-2.9919,-6.8627,1.9704,2.9412,-7.6555,-13.397,-11.365,-15.385,-3.8003,-6.859,-3.746,-5.8824,-29.114
-12.385,-15.175,-8.7379,-2.9412,2.9557,-5.9903,-7.767,1.877,-2.0163,-2.9412,2.9557,0.0,-13.397,-21.968,-17.079,-27.885,-11.53,-4.9359,-10.413,-7.8431,-42.640999
-12.385,-18.983999,-12.621,3.9216,2.9557,-3.0918,-4.8544,4.7896,-2.0163,3.9216,2.9557,-3.9216,-15.311,-31.492001,-14.222,-35.577,-16.361,-1.0897,-19.937,-5.8824,-52.303001
-6.6983,-21.841,-14.563,9.8039,4.9261,2.7053,-0.97087,7.7023,-2.9919,9.8039,4.9261,-6.8627,-13.397,-36.254002,-4.6984,-37.5,-20.225,2.7564,-20.889,-0.98039,-48.438
-0.06319,-23.746,-16.504999,12.745,-0.98522,9.4686,-6.7961,10.615,-6.8943,12.745,-0.98522,-10.784,-11.483,-33.396999,3.873,-33.653999,-21.191999,4.6795,-22.794001,5.8824,-36.844002
4.6761,-27.556,-17.476,8.8235,-5.9113,15.266,-16.504999,11.586,-10.797,8.8235,-5.9113,-15.686,-7.6555,-26.73,7.6825,-27.885,-21.191999,11.41,-24.698,10.784,-27.181999
8.4676,-25.650999,-16.504999,6.8627,-8.867,16.232,-19.417,11.586,-16.65,6.8627,-8.867,-18.627001,-1.9139,-17.205999,11.492,-22.115,-18.292999,17.179001,-23.746,16.667,-18.486
11.311,-18.032,-13.592,0.0,-12.808,5.6039,-16.504999,11.586,-17.625999,0.0,-12.808,-17.646999,2.8708,-11.492,15.302,-18.268999,-11.53,18.141001,-24.698,18.627001,-16.554001
13.207,-9.4603,-6.7961,-0.98039,-11.823,8.5024,-11.65,9.644,-16.65,-0.98039,-11.823,-10.784,8.6124,-6.7302,19.111,-17.308001,-2.8341,19.103001,-19.937,21.569,-16.554001
14.155,-1.8413,0.97087,2.9412,-15.764,12.367,-3.8835,7.7023,-12.748,2.9412,-15.764,-3.9216,13.397,-0.06349,23.872999,-14.423,5.8615,19.103001,-16.127001,22.549,-9.7907
10.363,8.6349,7.767,-2.9412,-8.867,7.5362,8.7379,2.8479,-8.8455,-2.9412,-8.867,1.9608,14.354,3.746,23.872999,-8.6538,11.659,16.218,-11.365,18.627001,-3.0274
5.624,15.302,12.621,-6.8627,1.9704,-6.9565,19.417,-0.06472,-6.8943,-6.8627,1.9704,6.8627,13.397,5.6508,21.968,-3.8462,13.591,13.333,-5.6508,13.725,0.83736
-1.9589,17.205999,11.65,-8.8235,8.867,-2.1256,24.271999,-2.0065,-6.8943,-8.8235,8.867,10.784,9.5694,6.6032,20.063,1.9231,10.692,10.449,-0.88889,9.8039,4.7021
-7.6461,21.016001,9.7087,-10.784,10.837,-0.19324,25.243,-5.89,-6.8943,-10.784,10.837,12.745,5.7416,8.5079,19.111,10.577,12.625,9.4872,3.873,7.8431,10.499
-6.6983,22.921,15.534,-11.765,10.837,-12.754,20.388,-12.686,-7.8699,-11.765,10.837,9.8039,5.7416,14.222,19.111,21.153999,17.455999,8.5256,6.7302,9.8039,17.261999
-6.6983,15.302,17.476,-16.667,4.9261,-26.280001,9.7087,-20.452999,-9.8211,-16.667,4.9261,0.98039,5.7416,16.127001,18.159,24.038,17.455999,7.5641,7.6825,9.8039,18.229
-13.333,-0.88889,1.9417,-18.627001,4.9261,-32.077,-1.9417,-22.395,-13.724,-18.627001,4.9261,-12.745,0.0,9.4603,10.54,10.577,6.8277,1.7949,2.9206,5.8824,6.6345
-20.916,-13.27,-15.534,-16.667,2.9557,-24.348,-9.7087,-17.540001,-12.748,-16.667,2.9557,-20.587999,-10.526,-0.06349,-8.5079,-2.8846,-9.5974,-8.7821,-5.6508,-5.8824,-3.9936
-22.812,-15.175,-20.388,-1.9608,-2.9557,-14.686,-14.563,-7.8317,-6.8943,-1.9608,-2.9557,-20.587999,-19.139,-5.7778,-27.556,-7.6923,-21.191999,-11.667,-3.746,-16.667,-5.9259
-18.073,-10.413,-16.504999,9.8039,-1.9704,-7.9227,-15.534,-2.0065,-3.9675,9.8039,-1.9704,-17.646999,-23.923,-8.6349,-38.984001,-7.6923,-25.056,-11.667,0.06349,-23.528999,-4.9597
-10.49,-0.88889,-8.7379,11.765,0.0,-0.19324,-9.7087,1.877,-1.0407,11.765,0.0,-12.745,-22.01,-8.6349,-39.937,-4.8077,-21.191999,-11.667,1.9683,-24.51,-1.095
1.8325,8.6349,0.97087,5.8824,-2.9557,-0.19324,0.0,5.7605,2.8618,5.8824,-2.9557,-1.9608,-13.397,-6.7302,-28.507999,-2.8846,-12.496,-7.8205,5.7778,-17.646999,0.83736
13.207,15.302,7.767,11.765,-3.9409,14.3,4.8544,11.586,4.813,11.765,-3.9409,9.8039,-1.9139,-3.873,-10.413,-1.9231,-1.868,-1.0897,6.7302,-6.8627,-1.095
22.686001,21.016001,14.563,16.667,-1.9704,31.691,12.621,17.410999,3.8374,16.667,-1.9704,19.608,11.483,1.8413,5.7778,0.96154,9.7262,7.5641,1.0159,6.8627,-3.0274
34.060001,23.872999,25.243,18.627001,2.9557,40.386002,13.592,23.236,1.8862,18.627001,2.9557,28.431,22.966999,7.5556,21.016001,6.7308,21.32,16.218,-4.6984,19.608,-1.095
41.643002,21.968,33.980999,23.528999,3.9409,42.319,12.621,26.149,-2.0163,23.528999,3.9409,34.313999,30.622,15.175,35.301998,14.423,30.016001,23.91,-11.365,28.431,1.8035
40.695,15.302,33.980999,20.587999,1.9704,40.386002,6.7961,24.207001,-9.8211,20.587999,1.9704,32.353001,33.493,19.937,43.873001,19.231001,34.847,28.718,-18.032,33.333,5.6683
36.903999,4.8254,28.155001,12.745,-4.9261,35.556,-2.9126,18.382,-18.601999,12.745,-4.9261,24.51,34.450001,20.889,46.73,18.268999,36.778999,29.679001,-15.175,34.313999,8.5668
35.007999,-5.6508,19.417,4.902,-7.8818,25.893999,-7.767,11.586,-23.48,4.902,-7.8818,16.667,37.320999,18.983999,47.682999,13.462,34.847,32.563999,-17.079,34.313999,6.6345
32.164001,-16.127001,10.68,1.9608,-5.9113,19.129999,-13.592,4.7896,-22.504,1.9608,-5.9113,8.8235,40.191002,18.983999,47.682999,6.7308,32.915001,33.526001,-19.937,36.275002,3.7359
30.268999,-24.698,4.8544,2.9412,-3.9409,15.266,-13.592,0.90615,-17.625999,2.9412,-3.9409,2.9412,39.234001,18.983999,41.015999,0.0,30.016001,28.718,-10.413,36.275002,2.7697
25.528999,-29.459999,2.9126,0.98039,-3.9409,13.333,-19.417,-0.06472,-9.8211,0.98039,-3.9409,-3.9216,34.450001,16.127001,33.396999,-2.8846,27.118,19.103001,1.0159,30.392,1.8035
18.893999,-30.413,1.9417,-2.9412,-6.8966,4.6377,-26.214001,-2.0065,-4.9431,-2.9412,-6.8966,-12.745,24.879999,11.365,22.921,-5.7692,23.253,14.295,3.873,21.569,1.8035
6.5719,-28.507999,-2.9126,-4.902,-12.808,-4.058,-32.039001,-3.9482,-5.9187,-4.902,-12.808,-20.587999,13.397,8.5079,10.54,-6.7308,15.523,6.6026,5.7778,9.8039,5.6683
-7.6461,-23.746,-11.65,-11.765,-17.733999,-14.686,-31.068001,-7.8317,-6.8943,-11.765,-17.733999,-26.471001,5.7416,7.5556,-1.8413,-2.8846,6.8277,-5.8974,6.7302,0.0,10.499
-20.916,-16.127001,-20.388,-20.587999,-15.764,-30.145,-23.301001,-11.715,-1.0407,-20.587999,-15.764,-28.431,-0.95694,8.5079,-12.317,0.0,-2.8341,-12.628,7.6825,-8.8235,10.499
-28.499001,-6.6032,-25.243,-20.587999,-13.793,-37.874001,-13.592,-14.628,7.7398,-20.587999,-13.793,-23.528999,-5.7416,9.4603,-18.983999,4.8077,-11.53,-18.396999,11.492,-15.686,12.432
-33.238998,7.6825,-21.358999,-11.765,0.98522,-34.976002,0.97087,-14.628,18.472,-11.765,0.98522,-15.686,-9.5694,14.222,-22.794001,15.385,-13.462,-22.243999,14.349,-20.587999,18.229
-35.133999,23.872999,-14.563,-9.8039,7.8818,-28.212999,17.476,-15.599,27.252001,-9.8039,7.8818,-5.8824,-14.354,18.032,-29.459999,26.923,-11.53,-25.128,24.825001,-26.471001,24.992001
-34.186001,38.159,-8.7379,-19.608,9.8522,-30.145,25.243,-16.57,30.179001,-19.608,9.8522,2.9412,-13.397,21.841,-33.27,36.537998,-7.6651,-28.013,36.254002,-30.392,31.754999
-31.343,47.682999,-3.8835,-16.667,18.719,-31.111,31.068001,-15.599,29.202999,-16.667,18.719,8.8235,-11.483,24.698,-33.27,44.230999,-3.8003,-28.013,38.159,-29.412001,39.485001
-29.447001,50.540001,0.0,-5.8824,14.778,-19.517,29.125999,-10.744,24.325001,-5.8824,14.778,10.784,-9.5694,26.603001,-32.317001,50.0,1.9968,-23.205,38.159,-25.49,44.316002
-24.708,46.73,1.9417,-0.98039,6.8966,-9.8551,28.155001,-4.9191,15.545,-0.98039,6.8966,11.765,-6.6986,25.650999,-25.650999,51.923,4.8953,-17.436001,35.301998,-19.608,46.248001
-17.125,37.206001,2.9126,1.9608,3.9409,-7.9227,22.33,-2.0065,6.7642,1.9608,3.9409,8.8235,-4.7847,25.650999,-16.127001,47.115002,8.7601,-12.628,24.825001,-13.725,42.382999
-9.5419,26.73,4.8544,4.902,1.9704,-5.0242,14.563,0.90615,1.8862,4.902,1.9704,4.902,-0.95694,26.603001,-5.6508,41.346001,16.49,-7.8205,11.492,-7.8431,34.653999
0.88468,21.016001,10.68,7.8431,0.98522,2.7053,9.7087,6.7314,2.8618,7.8431,0.98522,4.902,2.8708,20.889,3.873,35.577,24.219,-5.8974,5.7778,-2.9412,24.025999
10.363,15.302,16.504999,13.725,1.9704,8.5024,4.8544,10.615,2.8618,13.725,1.9704,5.8824,3.8278,10.413,12.444,28.846001,29.049999,1.7949,1.0159,0.98039,15.33
15.103,8.6349,17.476,14.706,2.9557,13.333,-1.9417,11.586,0.91057,14.706,2.9557,5.8824,3.8278,2.7937,15.302,21.153999,28.084,9.4872,-5.6508,2.9412,7.6006
11.311,1.0159,13.592,16.667,-0.98522,14.3,-9.7087,8.6731,0.91057,16.667,-0.98522,1.9608,1.9139,-2.9206,11.492,8.6538,19.388,6.6026,-3.746,1.9608,-1.095
7.5197,-5.6508,8.7379,15.686,0.0,13.333,-15.534,4.7896,6.7642,15.686,0.0,2.9412,0.0,-6.7302,3.873,-1.9231,9.7262,1.7949,-1.8413,0.98039,-6.8921
7.5197,-6.6032,5.8252,18.627001,3.9409,18.164,-9.7087,3.8188,15.545,18.627001,3.9409,9.8039,-2.8708,-7.6825,-3.746,-9.6154,1.9968,-1.0897,1.9683,-2.9412,-10.757
6.5719,-8.5079,2.9126,22.549,10.837,16.232,-0.97087,4.7896,21.398001,22.549,10.837,14.706,-6.6986,-9.5873,-10.413,-18.268999,-4.7665,-0.12821,6.7302,-4.902,-14.622
1.8325,-11.365,-2.9126,23.528999,20.690001,17.198,6.7961,4.7896,26.275999,23.528999,20.690001,18.627001,-9.5694,-10.54,-18.032,-25.962,-12.496,-1.0897,9.5873,-6.8627,-17.52
-3.8547,-14.222,-10.68,21.569,24.631001,17.198,9.7087,3.8188,28.228001,21.569,24.631001,18.627001,-13.397,-8.6349,-27.556,-29.808001,-21.191999,-5.8974,11.492,-11.765,-17.52
-9.5419,-17.079,-19.417,17.646999,18.719,9.4686,7.767,1.877,29.202999,17.646999,18.719,13.725,-16.268,-7.6825,-32.317001,-29.808001,-26.023001,-10.705,17.205999,-16.667,-14.622
-10.49,-18.032,-23.301001,12.745,19.704,8.5024,8.7379,0.90615,28.228001,12.745,19.704,9.8039,-18.181999,-7.6825,-30.413,-27.885,-28.921,-12.628,19.111,-18.627001,-11.723
-7.6461,-18.983999,-22.33,7.8431,17.733999,12.367,6.7961,1.877,24.325001,7.8431,17.733999,6.8627,-21.052999,-6.7302,-26.603001,-24.038,-26.989,-11.667,16.254,-20.587999,-9.7907
-1.0111,-19.937,-16.504999,1.9608,13.793,14.3,3.8835,3.8188,18.472,1.9608,13.793,6.8627,-21.052999,-5.7778,-18.983999,-20.191999,-19.259001,-7.8205,11.492,-18.627001,-8.8245
8.4676,-21.841,-6.7961,1.9608,11.823,12.367,0.97087,5.7605,9.6911,1.9608,11.823,5.8824,-18.181999,-7.6825,-9.4603,-16.346001,-11.53,-3.9744,5.7778,-15.686,-7.8583
14.155,-20.889,0.97087,11.765,6.8966,15.266,1.9417,8.6731,3.8374,11.765,6.8966,7.8431,-16.268,-10.54,-1.8413,-12.5,-3.8003,0.83333,-2.7937,-12.745,-8.8245
14.155,-22.794001,2.9126,17.646999,5.9113,22.995001,-4.8544,9.644,-2.9919,17.646999,5.9113,3.9216,-18.181999,-14.349,-0.88889,-11.538,-2.8341,1.7949,-7.5556,-11.765,-14.622
10.363,-28.507999,0.97087,12.745,-3.9409,19.129999,-19.417,8.6731,-13.724,12.745,-3.9409,-4.902,-17.225,-20.063,0.06349,-15.385,-6.6989,2.7564,-16.127001,-7.8431,-21.385
8.4676,-32.317001,-2.9126,2.9412,-17.733999,14.3,-31.068001,7.7023,-24.455,2.9412,-17.733999,-13.725,-11.483,-25.778,2.9206,-22.115,-9.5974,4.6795,-24.698,-0.98039,-25.25
8.4676,-31.365,-4.8544,-4.902,-28.570999,9.4686,-38.834999,7.7023,-32.259998,-4.902,-28.570999,-20.587999,-6.6986,-29.587,3.873,-25.962,-9.5974,7.5641,-29.459999,4.902,-29.114
7.5197,-30.413,-3.8835,-11.765,-34.483002,1.7391,-42.717999,6.7314,-37.138,-11.765,-34.483002,-24.51,-2.8708,-26.73,4.8254,-25.962,-4.7665,11.41,-38.032001,10.784,-27.181999
4.6761,-32.317001,-5.8252,-18.627001,-37.438,-2.1256,-43.688999,4.7896,-37.138,-18.627001,-37.438,-27.451,0.95694,-21.968,3.873,-25.962,-2.8341,13.333,-44.698002,12.745,-25.25
2.7804,-31.365,-8.7379,-18.627001,-33.498001,-5.9903,-36.893002,5.7605,-31.285,-18.627001,-33.498001,-26.471001,2.8708,-16.254,-1.8413,-25.962,-4.7665,12.372,-42.793999,10.784,-21.385
0.88468,-27.556,-8.7379,-15.686,-25.615999,-6.9565,-29.125999,4.7896,-18.601999,-15.686,-25.615999,-21.569,0.0,-9.5873,-8.5079,-25.0,-7.6651,8.5256,-32.317001,4.902,-16.554001
-0.06319,-18.983999,-7.767,-6.8627,-14.778,0.77295,-15.534,6.7314,-2.9919,-6.8627,-14.778,-10.784,-3.8278,-2.9206,-11.365,-22.115,-9.5974,4.6795,-14.222,-0.98039,-9.7907
0.88468,-8.5079,-5.8252,3.9216,0.98522,9.4686,0.97087,9.644,12.618,3.9216,0.98522,1.9608,-8.6124,-1.9683,-14.222,-24.038,-12.496,1.7949,4.8254,-6.8627,-7.8583
1.8325,0.06349,0.97087,11.765,12.808,8.5024,17.476,11.586,21.398001,11.765,12.808,14.706,-12.44,-4.8254,-16.127001,-26.923,-15.395,-3.9744,17.205999,-12.745,-10.757
5.624,6.7302,6.7961,19.608,25.615999,18.164,28.155001,15.469,26.275999,19.608,25.615999,24.51,-13.397,-5.7778,-13.27,-25.962,-14.428,-7.8205,21.968,-14.706,-9.7907
7.5197,9.5873,8.7379,24.51,34.483002,22.028999,31.068001,15.469,26.275999,24.51,34.483002,28.431,-10.526,-6.7302,-6.6032,-20.191999,-9.5974,-4.9359,25.778,-12.745,-8.8245
6.5719,10.54,11.65,23.528999,32.512001,15.266,23.301001,11.586,19.447001,23.528999,32.512001,24.51,-6.6986,-6.7302,-1.8413,-11.538,-4.7665,0.83333,21.016001,-9.8039,-3.9936
0.88468,10.54,10.68,14.706,24.631001,-0.19324,16.504999,2.8479,11.642,14.706,24.631001,14.706,-3.8278,-4.8254,-1.8413,-3.8462,-4.7665,-0.12821,12.444,-4.902,0.83736
-6.6983,6.7302,3.8835,8.8235,12.808,-5.0242,12.621,-3.9482,4.813,8.8235,12.808,0.98039,-1.9139,-2.9206,-2.7937,0.0,-5.7327,-3.0128,5.7778,-1.9608,4.7021
-11.438,0.06349,-1.9417,8.8235,5.9113,-10.821,2.9126,-7.8317,-4.9431,8.8235,5.9113,-11.765,1.9139,0.88889,0.06349,4.8077,-3.8003,-3.0128,-1.8413,1.9608,7.6006
-11.438,-1.8413,-2.9126,3.9216,0.98522,-15.652,-7.767,-9.7735,-11.772,3.9216,0.98522,-17.646999,8.6124,5.6508,6.7302,9.6154,1.0306,-0.12821,-6.6032,7.8431,10.499
-6.6983,2.9206,1.9417,-7.8431,-5.9113,-16.618,-6.7961,-9.7735,-15.675,-7.8431,-5.9113,-16.667,14.354,10.413,14.349,15.385,8.7601,4.6795,-10.413,13.725,15.33
-0.06319,9.5873,9.7087,-13.725,-9.8522,-12.754,-4.8544,-8.8026,-18.601999,-13.725,-9.8522,-8.8235,16.268,11.365,21.016001,19.231001,14.557,7.5641,-10.413,16.667,20.160999
3.7283,12.444,11.65,-1.9608,-8.867,-8.8889,0.97087,-3.9482,-20.552999,-1.9608,-8.867,-3.9216,14.354,5.6508,21.016001,15.385,13.591,8.5256,-9.4603,14.706,16.296
12.259,14.349,14.563,3.9216,-6.8966,-6.9565,3.8835,1.877,-17.625999,3.9216,-6.8966,3.9216,13.397,1.8413,22.921,10.577,13.591,12.372,-11.365,14.706,8.5668
18.893999,13.397,16.504999,3.9216,-0.98522,1.7391,7.767,5.7605,-11.772,3.9216,-0.98522,7.8431,11.483,-0.06349,23.872999,3.8462,11.659,15.256,-8.5079,14.706,0.83736
20.790001,11.492,16.504999,3.9216,4.9261,10.435,11.65,6.7314,-2.9919,3.9216,4.9261,9.8039,8.6124,-1.9683,21.968,-0.96154,8.7601,12.372,2.9206,12.745,-2.0612
20.790001,14.349,16.504999,4.902,5.9113,13.333,13.592,7.7023,6.7642,4.902,5.9113,13.725,6.6986,-2.9206,20.063,-0.96154,8.7601,12.372,8.6349,9.8039,-3.0274
18.893999,15.302,17.476,13.725,10.837,23.961,18.447001,7.7023,11.642,13.725,10.837,19.608,5.7416,-1.0159,14.349,0.96154,8.7601,9.4872,5.7778,4.902,-1.095
16.997999,12.444,17.476,13.725,12.808,23.961,19.417,7.7023,14.569,13.725,12.808,22.549,4.7847,-1.9683,7.6825,1.9231,4.8953,2.7564,3.873,0.0,-0.12882
15.103,4.8254,13.592,11.765,9.8522,15.266,10.68,6.7314,8.7154,11.765,9.8522,17.646999,0.95694,-2.9206,1.0159,-0.96154,1.0306,-0.12821,3.873,-1.9608,-1.095
11.311,-2.7937,7.767,8.8235,0.98522,12.367,0.97087,5.7605,-1.0407,8.8235,0.98522,8.8235,0.0,-3.873,-2.7937,-3.8462,-2.8341,-1.0897,-3.746,-3.9216,-2.0612
6.5719,-7.5556,2.9126,0.0,-10.837,5.6039,-13.592,1.877,-11.772,0.0,-10.837,-0.98039,0.0,-1.0159,-1.8413,-5.7692,-6.6989,-1.0897,-8.5079,-1.9608,0.83736
0.88468,-8.5079,0.0,-5.8824,-17.733999,-4.058,-21.358999,-2.0065,-20.552999,-5.8824,-17.733999,-9.8039,0.95694,0.88889,1.0159,-6.7308,-7.6651,-3.0128,-12.317,-0.98039,1.8035
-1.0111,-2.7937,1.9417,-5.8824,-16.749001,-9.8551,-17.476,-4.9191,-22.504,-5.8824,-16.749001,-9.8039,3.8278,3.746,1.9683,-3.8462,-5.7327,-3.9744,-11.365,0.0,3.7359
-4.8025,4.8254,3.8835,-6.8627,-12.808,-16.618,-9.7087,-8.8026,-17.625999,-6.8627,-12.808,-8.8235,5.7416,5.6508,4.8254,3.8462,-2.8341,-4.9359,-8.5079,1.9608,9.533
-11.438,10.54,0.0,-8.8235,-7.8818,-29.179001,-0.97087,-13.657,-9.8211,-8.8235,-7.8818,-8.8235,2.8708,5.6508,5.7778,10.577,-1.868,-7.8205,0.06349,0.98039,14.364
-18.073,19.111,-2.9126,-11.765,1.9704,-21.448999,5.8252,-16.57,-1.0407,-11.765,1.9704,-5.8824,-0.95694,7.5556,1.9683,16.346001,-0.90177,-9.7436,6.7302,-0.98039,16.296
-19.968,24.825001,0.0,-5.8824,8.867,-15.652,17.476,-17.540001,6.7642,-5.8824,8.867,-2.9412,-2.8708,6.6032,-0.88889,18.268999,-0.90177,-12.628,10.54,-4.902,16.296
-15.229,29.587,4.8544,0.98039,17.733999,-15.652,29.125999,-16.57,14.569,0.98039,17.733999,4.902,-1.9139,7.5556,3.873,20.191999,1.9968,-15.513,17.205999,-1.9608,18.229
-7.6461,31.492001,8.7379,4.902,23.645,-9.8551,33.009998,-11.715,16.52,4.902,23.645,10.784,0.95694,7.5556,9.5873,21.153999,6.8277,-7.8205,20.063,0.98039,15.33
-1.0111,26.73,11.65,8.8235,27.586,-1.1594,32.039001,-3.9482,11.642,8.8235,27.586,14.706,0.95694,4.6984,8.6349,16.346001,3.9291,0.83333,15.302,1.9608,10.499
3.7283,20.063,9.7087,17.646999,28.570999,8.5024,26.214001,3.8188,1.8862,17.646999,28.570999,17.646999,0.0,3.746,6.7302,10.577,1.9968,4.6795,2.9206,2.9412,3.7359
8.4676,16.254,12.621,32.353001,32.512001,18.164,22.33,11.586,-8.8455,32.353001,32.512001,20.587999,1.9139,4.6984,6.7302,9.6154,5.8615,11.41,-10.413,5.8824,-1.095
14.155,14.349,18.447001,40.195999,33.498001,25.893999,17.476,19.353001,-16.65,40.195999,33.498001,23.528999,5.7416,1.8413,8.6349,9.6154,11.659,16.218,-22.794001,10.784,-8.8245
22.686001,9.5873,20.388,40.195999,34.483002,27.826,13.592,23.236,-25.431,40.195999,34.483002,21.569,12.44,-1.0159,15.302,6.7308,17.455999,21.025999,-35.174999,18.627001,-15.588
29.320999,1.9683,19.417,41.175999,35.467999,25.893999,6.7961,21.294001,-26.407,41.175999,35.467999,15.686,17.225,-4.8254,22.921,0.96154,21.32,22.948999,-46.603001,23.528999,-20.419001
30.268999,-4.6984,16.504999,38.235001,29.556999,27.826,-3.8835,18.382,-23.48,38.235001,29.556999,7.8431,21.052999,-6.7302,27.683001,-4.8077,23.253,21.987,-48.507999,26.471001,-19.452
26.476999,-8.5079,11.65,30.392,18.719,20.097,-13.592,15.469,-18.601999,30.392,18.719,-1.9608,22.01,-2.9206,27.683001,-5.7692,22.287001,18.141001,-34.222,25.49,-11.723
18.893999,-7.5556,5.8252,24.51,12.808,10.435,-13.592,10.615,-3.9675,24.51,12.808,-5.8824,20.096001,1.8413,21.016001,-4.8077,17.455999,12.372,-9.4603,22.549,-3.9936
13.207,-5.6508,0.0,19.608,7.8818,7.5362,-10.68,6.7314,5.7886,19.608,7.8818,-3.9216,14.354,4.6984,10.54,-6.7308,8.7601,7.5641,11.492,16.667,2.7697
7.5197,-2.7937,-1.9417,15.686,6.8966,5.6039,-1.9417,4.7896,12.618,15.686,6.8966,0.0,7.6555,5.6508,2.9206,-6.7308,1.0306,2.7564,23.872999,9.8039,10.499
3.7283,2.9206,-1.9417,12.745,12.808,5.6039,5.8252,2.8479,21.398001,12.745,12.808,7.8431,4.7847,6.6032,-1.8413,-0.96154,-1.868,-4.9359,34.348999,4.902,15.33
-1.0111,7.6825,-1.9417,6.8627,16.749001,-3.0918,13.592,-3.9482,29.202999,6.8627,16.749001,9.8039,2.8708,9.4603,-6.6032,7.6923,-0.90177,-8.7821,40.063,0.0,21.127001
-6.6983,13.397,-0.97087,1.9608,16.749001,-8.8889,20.388,-9.7735,32.130001,1.9608,16.749001,10.784,0.95694,13.27,-7.5556,18.268999,1.0306,-9.7436,34.348999,-4.902,24.992001
-10.49,17.205999,-0.97087,-3.9216,15.764,-6.9565,23.301001,-8.8026,31.153999,-3.9216,15.764,12.745,3.8278,18.032,-6.6032,25.962,6.8277,-11.667,31.492001,-7.8431,25.958
-13.333,19.111,0.0,-14.706,13.793,-5.9903,26.214001,-10.744,27.252001,-14.706,13.793,13.725,6.6986,20.889,-4.6984,29.808001,11.659,-12.628,28.635,-4.902,24.025999
-13.333,21.016001,3.8835,-12.745,6.8966,-7.9227,25.243,-11.715,18.472,-12.745,6.8966,12.745,8.6124,16.127001,-1.8413,25.962,12.625,-12.628,18.159,-1.9608,17.261999
-9.5419,22.921,8.7379,-2.9412,1.9704,-2.1256,25.243,-9.7735,10.667,-2.9412,1.9704,16.667,9.5694,8.5079,1.9683,18.268999,12.625,-9.7436,6.7302,-0.98039,4.7021
-5.7504,21.016001,8.7379,-4.902,0.98522,1.7391,23.301001,-5.89,2.8618,-4.902,0.98522,16.667,8.6124,1.8413,1.0159,6.7308,10.692,-8.7821,-3.746,-2.9412,-8.8245
-4.8025,11.492,3.8835,-5.8824,1.9704,2.7053,17.476,-2.9773,-6.8943,-5.8824,1.9704,11.765,4.7847,-2.9206,-2.7937,-4.8077,4.8953,-9.7436,-20.889,-5.8824,-16.554001
-5.7504,1.9683,-0.97087,-4.902,-0.98522,-1.1594,3.8835,-1.0356,-11.772,-4.902,-0.98522,3.9216,0.0,-4.8254,-3.746,-9.6154,-0.90177,-6.859,-28.507999,-7.8431,-17.52
-8.594,-4.6984,-5.8252,-12.745,-11.823,-4.058,-2.9126,-1.0356,-9.8211,-12.745,-11.823,-7.8431,-4.7847,-3.873,-7.5556,-11.538,-3.8003,-7.8205,-21.841,-8.8235,-13.655
-8.594,-11.365,-7.767,-26.471001,-23.645,-6.9565,-11.65,-2.9773,-4.9431,-26.471001,-23.645,-15.686,-6.6986,-1.0159,-10.413,-9.6154,-4.7665,-4.9359,-13.27,-8.8235,-6.8921
-10.49,-16.127001,-12.621,-28.431,-29.556999,-12.754,-20.388,-6.8608,-0.06504,-28.431,-29.556999,-22.549,-7.6555,-1.0159,-11.365,-7.6923,-7.6651,-1.0897,-5.6508,-8.8235,-3.0274
-12.385,-18.983999,-17.476,-33.333,-38.424,-16.618,-23.301001,-9.7735,3.8374,-33.333,-38.424,-24.51,-8.6124,-2.9206,-14.222,-8.6538,-11.53,-1.0897,3.873,-9.8039,-0.12882
-11.438,-18.983999,-19.417,-33.333,-35.467999,-15.652,-26.214001,-8.8026,5.7886,-33.333,-35.467999,-23.528999,-9.5694,-6.7302,-14.222,-11.538,-16.361,-3.0128,11.492,-7.8431,1.8035
-11.438,-18.983999,-21.358999,-27.451,-23.645,-15.652,-22.33,-8.8026,8.7154,-27.451,-23.645,-21.569,-10.526,-6.7302,-12.317,-13.462,-19.259001,-1.0897,14.349,-5.8824,1.8035
-10.49,-18.032,-21.358999,-29.412001,-20.690001,-15.652,-17.476,-9.7735,10.667,-29.412001,-20.690001,-19.608,-8.6124,-2.9206,-9.4603,-12.5,-20.225,-0.12821,14.349,-2.9412,2.7697
-9.5419,-12.317,-17.476,-21.569,-13.793,-14.686,-7.767,-8.8026,13.593,-21.569,-13.793,-13.725,-6.6986,1.8413,-10.413,-6.7308,-19.259001,-2.0513,17.205999,-4.902,6.6345
-7.6461,-3.746,-10.68,-11.765,-3.9409,-9.8551,0.97087,-7.8317,16.52,-11.765,-3.9409,-4.902,-7.6555,4.6984,-10.413,2.8846,-16.361,-7.8205,21.016001,-7.8431,9.533
-0.06319,9.5873,0.97087,0.98039,7.8818,2.7053,10.68,-2.0065,15.545,0.98039,7.8818,6.8627,-4.7847,9.4603,-7.5556,14.423,-5.7327,-7.8205,21.016001,-6.8627,11.465
5.624,21.016001,13.592,15.686,18.719,14.3,16.504999,3.8188,14.569,15.686,18.719,15.686,-2.8708,12.317,-4.6984,23.077,3.9291,-7.8205,19.111,-6.8627,13.398
3.7283,22.921,17.476,20.587999,21.674999,16.232,18.447001,2.8479,11.642,20.587999,21.674999,17.646999,-4.7847,11.365,-5.6508,24.038,6.8277,-11.667,12.444,-8.8235,12.432
-4.8025,20.063,14.563,22.549,28.570999,9.4686,17.476,-2.9773,9.6911,22.549,28.570999,14.706,-7.6555,6.6032,-8.5079,17.308001,3.9291,-17.436001,3.873,-11.765,5.6683
-12.385,15.302,10.68,20.587999,37.438,-0.19324,22.33,-5.89,11.642,20.587999,37.438,12.745,-10.526,2.7937,-10.413,9.6154,-0.90177,-20.320999,0.06349,-14.706,-0.12882
-17.125,11.492,3.8835,23.528999,40.394001,-5.9903,22.33,-5.89,11.642,23.528999,40.394001,8.8235,-13.397,-1.9683,-13.27,0.96154,-5.7327,-20.320999,-2.7937,-17.646999,-6.8921
-16.177,7.6825,-0.97087,32.353001,37.438,-3.0918,18.447001,2.8479,7.7398,32.353001,37.438,6.8627,-17.225,-5.7778,-13.27,-5.7692,-7.6651,-12.628,-9.4603,-17.646999,-9.7907
-6.6983,6.7302,0.0,36.275002,40.394001,-0.19324,17.476,10.615,10.667,36.275002,40.394001,9.8039,-20.096001,-6.7302,-13.27,-8.6538,-9.5974,-3.0128,-5.6508,-18.627001,-9.7907
5.624,8.6349,3.8835,42.157001,39.409,7.5362,19.417,15.469,16.52,42.157001,39.409,14.706,-20.096001,-6.7302,-9.4603,-9.6154,-12.496,7.5641,1.0159,-15.686,-8.8245
12.259,4.8254,0.0,40.195999,33.498001,19.129999,16.504999,22.264999,12.618,40.195999,33.498001,12.745,-17.225,-3.873,-7.5556,-11.538,-14.428,16.218,-0.88889,-11.765,-7.8583
10.363,-7.5556,-10.68,28.431,24.631001,21.063,8.7379,22.264999,5.7886,28.431,24.631001,3.9216,-15.311,-1.9683,-10.413,-13.462,-19.259001,18.141001,-1.8413,-8.8235,-5.9259
3.7283,-20.889,-19.417,13.725,5.9113,10.435,-3.8835,13.528,-0.06504,13.725,5.9113,-4.902,-15.311,-1.9683,-13.27,-16.346001,-24.09,15.256,-0.88889,-6.8627,-4.9597
-0.06319,-29.459999,-25.243,-0.98039,-13.793,1.7391,-16.504999,3.8188,-3.9675,-0.98039,-13.793,-11.765,-11.483,-5.7778,-10.413,-21.153999,-25.056,12.372,-1.8413,-1.9608,-10.757
-1.9589,-32.317001,-25.243,-8.8235,-17.733999,-3.0918,-22.33,-2.9773,-4.9431,-8.8235,-17.733999,-12.745,-5.7416,-8.6349,-4.6984,-25.0,-21.191999,11.41,-3.746,3.9216,-13.655
-1.0111,-31.365,-19.417,-20.587999,-18.719,-8.8889,-23.301001,-6.8608,-6.8943,-20.587999,-18.719,-12.745,0.95694,-7.6825,1.9683,-24.038,-15.395,10.449,-6.6032,5.8824,-12.689
2.7804,-25.650999,-13.592,-16.667,-22.66,-6.9565,-22.33,-6.8608,-8.8455,-16.667,-22.66,-10.784,4.7847,-3.873,6.7302,-16.346001,-6.6989,8.5256,-6.6032,8.8235,-7.8583
4.6761,-18.983999,-9.7087,-16.667,-22.66,-5.0242,-21.358999,-6.8608,-11.772,-16.667,-22.66,-9.8039,8.6124,0.88889,9.5873,-6.7308,1.0306,4.6795,-5.6508,10.784,-1.095
-0.06319,-16.127001,-7.767,-20.587999,-25.615999,-12.754,-24.271999,-9.7735,-15.675,-20.587999,-25.615999,-8.8235,5.7416,0.88889,8.6349,-2.8846,2.963,4.6795,-12.317,7.8431,0.83736
-5.7504,-13.27,-6.7961,-18.627001,-30.542,-13.72,-23.301001,-8.8026,-15.675,-18.627001,-30.542,-8.8235,1.9139,-0.06349,4.8254,-1.9231,2.963,5.641,-16.127001,4.902,-0.12882
-11.438,-11.365,-7.767,-18.627001,-35.467999,-10.821,-14.563,-9.7735,-11.772,-18.627001,-35.467999,-7.8431,-1.9139,-0.06349,-3.746,-4.8077,0.06441,-1.0897,-15.175,-0.98039,-2.0612
-15.229,-8.5079,-8.7379,-20.587999,-29.556999,-11.787,-9.7087,-11.715,-3.9675,-20.587999,-29.556999,-7.8431,-8.6124,-5.7778,-15.175,-9.6154,-9.5974,-8.7821,-10.413,-9.8039,-6.8921
-19.021,-4.6984,-13.592,-25.49,-19.704,-16.618,-1.9417,-14.628,2.8618,-25.49,-19.704,-6.8627,-14.354,-11.492,-25.650999,-15.385,-19.259001,-14.551,-1.8413,-16.667,-11.723
-23.76,-0.88889,-20.388,-31.372999,-18.719,-25.313999,3.8835,-18.511,5.7886,-31.372999,-18.719,-8.8235,-18.181999,-11.492,-31.365,-15.385,-25.056,-18.396999,4.8254,-19.608,-10.757
-25.656,1.9683,-19.417,-33.333,-20.690001,-27.246,2.9126,-20.452999,3.8374,-33.333,-20.690001,-9.8039,-16.268,-6.7302,-30.413,-8.6538,-24.09,-20.320999,9.5873,-18.627001,-3.0274
-20.916,3.873,-14.563,-32.353001,-26.601,-23.382,-2.9126,-20.452999,-2.0163,-32.353001,-26.601,-11.765,-10.526,-2.9206,-23.746,0.0,-18.292999,-17.436001,8.6349,-15.686,2.7697
-10.49,5.7778,-8.7379,-33.333,-30.542,-17.584999,0.0,-16.57,-3.9675,-33.333,-30.542,-8.8235,-0.95694,2.7937,-13.27,8.6538,-6.6989,-13.59,8.6349,-9.8039,8.5668
-1.0111,4.8254,-0.97087,-27.451,-27.586,-13.72,-6.7961,-12.686,-4.9431,-27.451,-27.586,-6.8627,9.5694,6.6032,-0.88889,15.385,7.7939,-8.7821,7.6825,-1.9608,13.398
6.5719,1.9683,5.8252,-21.569,-26.601,-4.058,-12.621,-7.8317,-7.8699,-21.569,-26.601,-6.8627,16.268,10.413,10.54,20.191999,18.422001,-4.9359,5.7778,5.8824,15.33
10.363,-0.88889,6.7961,-13.725,-26.601,2.7053,-19.417,-1.0356,-11.772,-13.725,-26.601,-7.8431,19.139,12.317,16.254,17.308001,24.219,4.6795,3.873,11.765,13.398
13.207,-5.6508,4.8544,-5.8824,-30.542,-2.1256,-27.184,3.8188,-18.601999,-5.8824,-30.542,-8.8235,21.052999,10.413,20.063,12.5,26.150999,13.333,-2.7937,15.686,9.533
16.051001,-7.5556,5.8252,-4.902,-32.512001,7.5362,-24.271999,6.7314,-23.48,-4.902,-32.512001,-7.8431,22.01,8.5079,21.968,8.6538,27.118,16.218,-5.6508,18.627001,7.6006
16.997999,-6.6032,7.767,-5.8824,-32.512001,16.232,-29.125999,7.7023,-24.455,-5.8824,-32.512001,-8.8235,18.181999,4.6984,21.016001,6.7308,25.184999,13.333,-6.6032,16.667,2.7697
16.997999,-5.6508,8.7379,-5.8824,-35.467999,13.333,-32.039001,7.7023,-26.407,-5.8824,-35.467999,-7.8431,14.354,3.746,21.016001,5.7692,20.354,10.449,-8.5079,14.706,1.8035
13.207,-5.6508,5.8252,-13.725,-38.424,3.6715,-35.922001,3.8188,-27.382,-13.725,-38.424,-9.8039,10.526,0.88889,18.159,0.0,11.659,7.5641,-8.5079,11.765,-2.0612
8.4676,-4.6984,3.8835,-10.784,-33.498001,0.77295,-27.184,0.90615,-24.455,-10.784,-33.498001,-6.8627,6.6986,-3.873,14.349,-8.6538,2.963,6.6026,-13.27,7.8431,-8.8245
11.311,0.06349,8.7379,-7.8431,-22.66,2.7053,-10.68,-0.06472,-17.625999,-7.8431,-22.66,0.98039,6.6986,-3.873,14.349,-13.462,1.0306,6.6026,-15.175,8.8235,-12.689
15.103,2.9206,14.563,-1.9608,-14.778,6.57,-3.8835,-0.06472,-13.724,-1.9608,-14.778,7.8431,4.7847,-6.7302,13.397,-15.385,2.963,4.6795,-16.127001,4.902,-16.554001
16.051001,1.0159,14.563,0.0,-10.837,8.5024,0.0,-0.06472,-12.748,0.0,-10.837,12.745,3.8278,-11.492,9.5873,-14.423,3.9291,2.7564,-18.983999,1.9608,-17.52
13.207,-1.8413,11.65,0.98039,-7.8818,7.5362,6.7961,0.90615,-13.724,0.98039,-7.8818,13.725,7.6555,-9.5873,10.54,-9.6154,5.8615,0.83333,-19.937,1.9608,-13.655
10.363,-6.6032,6.7961,0.0,-8.867,4.6377,0.97087,2.8479,-13.724,0.0,-8.867,9.8039,12.44,-5.7778,13.397,-3.8462,9.7262,-0.12821,-19.937,2.9412,-7.8583
3.7283,-6.6032,0.0,-2.9412,-12.808,5.6039,-3.8835,3.8188,-13.724,-2.9412,-12.808,2.9412,15.311,-3.873,12.444,1.9231,12.625,0.83333,-14.222,5.8824,-2.0612
-6.6983,-7.5556,-8.7379,-11.765,-20.690001,-1.1594,-6.7961,-0.06472,-12.748,-11.765,-20.690001,-7.8431,13.397,-5.7778,5.7778,1.9231,8.7601,0.83333,-8.5079,3.9216,0.83736
-17.125,-13.27,-19.417,-25.49,-24.631001,-13.72,-11.65,-6.8608,-7.8699,-25.49,-24.631001,-18.627001,5.7416,-6.7302,-4.6984,-3.8462,-4.7665,-6.859,-3.746,0.98039,-0.12882
-22.812,-15.175,-26.214001,-23.528999,-23.645,-25.313999,-12.621,-11.715,-2.0163,-23.528999,-23.645,-24.51,-3.8278,-8.6349,-13.27,-10.577,-14.428,-11.667,3.873,-3.9216,-3.0274
-26.603001,-14.222,-27.184,-26.471001,-24.631001,-27.246,-10.68,-13.657,2.8618,-26.471001,-24.631001,-25.49,-12.44,-11.492,-18.983999,-14.423,-23.124001,-10.705,7.6825,-6.8627,-5.9259
-26.603001,-13.27,-26.214001,-29.412001,-24.631001,-24.348,-11.65,-14.628,4.813,-29.412001,-24.631001,-26.471001,-19.139,-11.492,-23.746,-17.308001,-29.886999,-11.667,7.6825,-9.8039,-5.9259
-23.76,-15.175,-25.243,-28.431,-26.601,-22.415001,-14.563,-11.715,2.8618,-28.431,-26.601,-26.471001,-22.966999,-16.254,-26.603001,-18.268999,-30.853001,-12.628,3.873,-9.8039,-8.8245
-15.229,-14.222,-16.504999,-22.549,-25.615999,-14.686,-15.534,-4.9191,-2.0163,-22.549,-25.615999,-20.587999,-22.01,-19.111,-23.746,-16.346001,-25.056,-7.8205,-0.88889,-6.8627,-9.7907
-2.9068,-9.4603,-4.8544,-12.745,-18.719,-1.1594,-8.7379,3.8188,-3.9675,-12.745,-18.719,-9.8039,-15.311,-15.302,-12.317,-9.6154,-11.53,-0.12821,-3.746,-1.9608,-8.8245
9.4155,-4.6984,4.8544,-1.9608,-15.764,8.5024,-8.7379,12.557,-7.8699,-1.9608,-15.764,-0.98039,-5.7416,-12.444,2.9206,-2.8846,2.963,8.5256,-6.6032,4.902,-9.7907
17.945999,0.06349,12.621,1.9608,-15.764,16.232,-6.7961,15.469,-11.772,1.9608,-15.764,4.902,3.8278,-9.5873,14.349,5.7692,11.659,12.372,-13.27,12.745,-6.8921
23.632999,2.9206,15.534,-0.98039,-13.793,15.266,-4.8544,11.586,-14.699,-0.98039,-13.793,7.8431,14.354,-4.8254,25.778,10.577,18.422001,13.333,-14.222,19.608,-4.9597
22.686001,2.9206,13.592,-9.8039,-14.778,5.6039,-8.7379,3.8188,-18.601999,-9.8039,-14.778,5.8824,22.01,2.7937,32.444,12.5,23.253,12.372,-17.079,22.549,-2.0612
18.893999,1.9683,11.65,-12.745,-16.749001,3.6715,-5.8252,-1.0356,-19.577,-12.745,-16.749001,3.9216,26.794001,11.365,32.444,12.5,24.219,9.4872,-15.175,22.549,4.7021
14.155,-1.8413,8.7379,-12.745,-17.733999,1.7391,-5.8252,-3.9482,-16.65,-12.745,-17.733999,0.98039,28.708,15.175,30.540001,9.6154,22.287001,5.641,-7.5556,20.587999,9.533
7.5197,-4.6984,3.8835,-15.686,-12.808,-5.0242,-4.8544,-4.9191,-10.797,-15.686,-12.808,-1.9608,23.923,15.175,21.968,6.7308,15.523,0.83333,1.0159,15.686,10.499
2.7804,0.06349,2.9126,-10.784,-4.9261,-2.1256,-1.9417,-2.9773,-2.9919,-10.784,-4.9261,0.0,17.225,16.127001,11.492,6.7308,7.7939,-2.0513,7.6825,7.8431,11.465
-1.0111,8.6349,4.8544,0.98039,1.9704,1.7391,6.7961,0.90615,7.7398,0.98039,1.9704,4.902,7.6555,15.175,-0.88889,6.7308,0.06441,-4.9359,15.302,0.0,10.499
-4.8025,13.397,4.8544,3.9216,3.9409,-3.0918,12.621,-0.06472,18.472,3.9216,3.9409,6.8627,-4.7847,12.317,-16.127001,5.7692,-8.6312,-8.7821,22.921,-10.784,9.533
-9.5419,14.349,0.0,-2.9412,4.9261,-8.8889,15.534,-3.9482,23.35,-2.9412,4.9261,4.902,-16.268,8.5079,-26.603001,4.8077,-13.462,-12.628,25.778,-19.608,9.533
-11.438,14.349,-2.9126,-6.8627,6.8966,-11.787,16.504999,-6.8608,26.275999,-6.8627,6.8966,3.9216,-20.096001,4.6984,-27.556,6.7308,-15.395,-13.59,22.921,-24.51,11.465
-11.438,16.254,0.0,-11.765,5.9113,-10.821,14.563,-10.744,25.301001,-11.765,5.9113,2.9412,-18.181999,1.8413,-21.841,10.577,-11.53,-14.551,21.016001,-22.549,12.432
-9.5419,15.302,6.7961,-12.745,6.8966,0.77295,17.476,-7.8317,18.472,-12.745,6.8966,4.902,-11.483,-1.0159,-15.175,10.577,-8.6312,-10.705,18.159,-15.686,10.499
-4.8025,10.54,6.7961,-0.98039,6.8966,5.6039,15.534,-1.0356,11.642,-0.98039,6.8966,3.9216,-1.9139,-3.873,-7.5556,5.7692,-5.7327,-4.9359,10.54,-5.8824,5.6683
0.88468,1.9683,0.97087,8.8235,3.9409,3.6715,11.65,3.8188,3.8374,8.8235,3.9409,0.98039,3.8278,-6.7302,-0.88889,-0.96154,-4.7665,0.83333,1.9683,2.9412,1.8035
4.6761,-8.5079,-1.9417,10.784,-0.98522,4.6377,-0.97087,6.7314,-3.9675,10.784,-0.98522,-2.9412,9.5694,-5.7778,5.7778,-5.7692,-0.90177,6.6026,-4.6984,11.765,-3.9936
9.4155,-14.222,0.0,6.8627,0.0,5.6039,-7.767,7.7023,-11.772,6.8627,0.0,-5.8824,15.311,-1.9683,13.397,-8.6538,3.9291,10.449,-16.127001,17.646999,-6.8921
10.363,-18.032,-2.9126,0.0,-1.9704,3.6715,-15.534,6.7314,-17.625999,0.0,-1.9704,-9.8039,19.139,-0.06349,20.063,-9.6154,8.7601,14.295,-19.937,22.549,-7.8583
10.363,-20.889,-5.8252,-4.902,-6.8966,0.77295,-19.417,4.7896,-21.528,-4.902,-6.8966,-12.745,20.096001,0.88889,23.872999,-10.577,12.625,14.295,-20.889,23.528999,-4.9597
6.5719,-22.794001,-10.68,-0.98039,-10.837,0.77295,-16.504999,2.8479,-19.577,-0.98039,-10.837,-15.686,18.181999,2.7937,21.016001,-13.462,8.7601,11.41,-19.937,21.569,-3.0274
0.88468,-22.794001,-16.504999,-0.98039,-12.808,-2.1256,-12.621,-0.06472,-16.65,-0.98039,-12.808,-16.667,10.526,4.6984,10.54,-16.346001,-1.868,7.5641,-14.222,14.706,-2.0612
-5.7504,-20.889,-20.388,-1.9608,-5.9113,-1.1594,-10.68,0.90615,-10.797,-1.9608,-5.9113,-13.725,0.0,2.7937,-2.7937,-16.346001,-12.496,4.6795,-8.5079,4.902,-3.9936
-7.6461,-13.27,-17.476,0.0,2.9557,-5.9903,-3.8835,0.90615,-2.9919,0.0,2.9557,-9.8039,-9.5694,0.88889,-13.27,-13.462,-20.225,3.7179,-2.7937,-3.9216,-3.9936
-7.6461,-5.6508,-13.592,6.8627,1.9704,-4.058,0.97087,2.8479,0.91057,6.8627,1.9704,-5.8824,-17.225,-3.873,-19.937,-13.462,-26.023001,3.7179,0.06349,-12.745,-7.8583
-8.594,0.06349,-11.65,3.9216,3.9409,-0.19324,2.9126,3.8188,4.813,3.9216,3.9409,-1.9608,-21.052999,-8.6349,-24.698,-15.385,-26.989,2.7564,1.9683,-17.646999,-11.723
-12.385,-0.88889,-12.621,0.0,8.867,-1.1594,0.0,1.877,4.813,0.0,8.867,-1.9608,-24.879999,-11.492,-28.507999,-14.423,-26.023001,-0.12821,1.9683,-22.549,-12.689
-19.968,-6.6032,-16.504999,0.0,1.9704,-4.058,-8.7379,-1.0356,0.91057,0.0,1.9704,-6.8627,-27.750999,-13.397,-28.507999,-13.462,-26.023001,-5.8974,1.9683,-24.51,-10.757
-19.968,-8.5079,-19.417,-4.902,-7.8818,-6.9565,-10.68,-2.9773,-2.0163,-4.902,-7.8818,-9.8039,-23.923,-12.444,-22.794001,-8.6538,-22.158001,-8.7821,-0.88889,-21.569,-8.8245
-11.438,-2.7937,-10.68,-6.8627,-9.8522,-5.0242,-9.7087,-0.06472,-5.9187,-6.8627,-9.8522,-6.8627,-15.311,-4.8254,-10.413,1.9231,-7.6651,-4.9359,-3.746,-15.686,-3.0274
-1.0111,1.0159,3.8835,-5.8824,-8.867,-3.0918,-6.7961,0.90615,-8.8455,-5.8824,-8.867,-2.9412,-5.7416,3.746,7.6825,11.538,9.7262,3.7179,-3.746,-4.902,5.6683
3.7283,3.873,12.621,-9.8039,-6.8966,-7.9227,-4.8544,-1.0356,-6.8943,-9.8039,-6.8966,-1.9608,1.9139,8.5079,21.968,16.346001,22.287001,8.5256,-3.746,4.902,8.5668
2.7804,5.7778,16.504999,-9.8039,-2.9557,-13.72,-2.9126,-4.9191,-3.9675,-9.8039,-2.9557,-0.98039,7.6555,10.413,26.73,18.268999,27.118,5.641,-1.8413,6.8627,9.533
1.8325,5.7778,18.447001,-6.8627,2.9557,-19.517,-2.9126,-6.8608,0.91057,-6.8627,2.9557,0.0,11.483,11.365,27.683001,16.346001,27.118,1.7949,1.9683,6.8627,9.533
2.7804,7.6825,18.447001,-4.902,9.8522,-10.821,1.9417,-5.89,5.7886,-4.902,9.8522,6.8627,11.483,7.5556,22.921,12.5,24.219,0.83333,6.7302,4.902,3.7359
3.7283,12.444,18.447001,-1.9608,16.749001,-1.1594,13.592,-4.9191,7.7398,-1.9608,16.749001,12.745,9.5694,4.6984,16.254,7.6923,20.354,0.83333,1.9683,3.9216,2.7697
4.6761,15.302,19.417,1.9608,21.674999,-4.058,26.214001,-5.89,4.813,1.9608,21.674999,17.646999,8.6124,3.746,7.6825,3.8462,13.591,-2.0513,0.06349,1.9608,4.7021
5.624,16.254,18.447001,2.9412,23.645,-0.19324,25.243,-7.8317,3.8374,2.9412,23.645,21.569,5.7416,0.88889,1.0159,0.96154,4.8953,-5.8974,3.873,0.0,4.7021
4.6761,16.254,13.592,-0.98039,23.645,-0.19324,20.388,-7.8317,6.7642,-0.98039,23.645,24.51,-0.95694,-0.06349,-3.746,0.96154,-3.8003,-9.7436,6.7302,-2.9412,8.5668
6.5719,14.349,6.7961,8.8235,22.66,2.7053,16.504999,-3.9482,11.642,8.8235,22.66,23.528999,-8.6124,-2.9206,-4.6984,0.96154,-11.53,-8.7821,9.5873,-3.9216,8.5668
7.5197,11.492,0.97087,11.765,10.837,9.4686,16.504999,-0.06472,11.642,11.765,10.837,20.587999,-13.397,-6.7302,-4.6984,-1.9231,-15.395,-6.859,12.444,-4.902,3.7359
6.5719,8.6349,0.0,10.784,10.837,20.097,9.7087,6.7314,11.642,10.784,10.837,17.646999,-16.268,-6.7302,-6.6032,0.0,-11.53,-3.0128,12.444,-5.8824,0.83736
6.5719,7.6825,1.9417,15.686,15.764,24.927999,8.7379,12.557,9.6911,15.686,15.764,14.706,-15.311,-1.9683,-8.5079,2.8846,-7.6651,-0.12821,10.54,-3.9216,2.7697
6.5719,5.7778,1.9417,14.706,14.778,22.995001,9.7087,13.528,9.6911,14.706,14.778,12.745,-8.6124,0.88889,-7.5556,1.9231,-3.8003,1.7949,8.6349,1.9608,1.8035
5.624,3.873,1.9417,12.745,15.764,19.129999,7.767,11.586,10.667,12.745,15.764,11.765,-1.9139,3.746,-5.6508,0.96154,1.0306,3.7179,6.7302,4.902,-0.12882
2.7804,3.873,4.8544,11.765,17.733999,10.435,8.7379,6.7314,14.569,11.765,17.733999,8.8235,4.7847,6.6032,-2.7937,2.8846,5.8615,2.7564,5.7778,6.8627,-0.12882
-2.9068,3.873,3.8835,4.902,16.749001,-0.19324,6.7961,-0.06472,17.496,4.902,16.749001,0.98039,6.6986,7.5556,-0.88889,6.7308,11.659,-3.0128,7.6825,5.8824,-1.095
-7.6461,6.7302,4.8544,1.9608,15.764,-6.9565,7.767,-7.8317,16.52,1.9608,15.764,-2.9412,5.7416,9.4603,0.06349,9.6154,15.523,-7.8205,10.54,3.9216,0.83736
-12.385,8.6349,4.8544,0.98039,12.808,-9.8551,10.68,-10.744,16.52,0.98039,12.808,-3.9216,3.8278,6.6032,-2.7937,8.6538,12.625,-12.628,11.492,-0.98039,1.8035
-17.125,8.6349,0.97087,-0.98039,13.793,-11.787,12.621,-11.715,15.545,-0.98039,13.793,-5.8824,-2.8708,1.8413,-7.5556,4.8077,2.963,-14.551,10.54,-5.8824,0.83736
-19.021,10.54,-0.97087,-8.8235,13.793,-16.618,15.534,-10.744,15.545,-8.8235,13.793,-6.8627,-6.6986,-1.0159,-13.27,2.8846,-1.868,-12.628,9.5873,-9.8039,0.83736
-18.073,9.5873,1.9417,-13.725,7.8818,-19.517,9.7087,-8.8026,14.569,-13.725,7.8818,-5.8824,-8.6124,-2.9206,-17.079,1.9231,-3.8003,-9.7436,11.492,-11.765,0.83736
-14.281,6.7302,6.7961,-13.725,5.9113,-20.483,3.8835,-6.8608,9.6911,-13.725,5.9113,-2.9412,-12.44,-6.7302,-17.079,0.0,-4.7665,-8.7821,8.6349,-13.725,1.8035
-6.6983,7.6825,12.621,-7.8431,5.9113,-8.8889,5.8252,-5.89,4.813,-7.8431,5.9113,0.98039,-13.397,-7.6825,-13.27,1.9231,-2.8341,-7.8205,7.6825,-13.725,3.7359
-1.0111,7.6825,16.504999,-5.8824,4.9261,1.7391,5.8252,-3.9482,-1.0407,-5.8824,4.9261,4.902,-10.526,-3.873,-10.413,4.8077,-0.90177,-7.8205,1.9683,-12.745,5.6683
6.5719,7.6825,20.388,0.98039,5.9113,8.5024,6.7961,0.90615,-6.8943,0.98039,5.9113,10.784,-2.8708,-0.06349,-3.746,7.6923,3.9291,-3.9744,-4.6984,-6.8627,4.7021
15.103,6.7302,24.271999,10.784,8.867,13.333,6.7961,8.6731,-10.797,10.784,8.867,13.725,4.7847,3.746,1.9683,9.6154,10.692,4.6795,-6.6032,1.9608,3.7359
19.841999,3.873,20.388,13.725,13.793,18.164,5.8252,14.498,-10.797,13.725,13.793,12.745,9.5694,2.7937,4.8254,4.8077,13.591,10.449,-6.6032,7.8431,-3.0274
22.686001,0.06349,18.447001,12.745,13.793,21.063,1.9417,17.410999,-4.9431,12.745,13.793,9.8039,12.44,3.746,8.6349,0.96154,14.557,13.333,-7.5556,12.745,-6.8921
19.841999,-5.6508,11.65,16.667,9.8522,19.129999,-3.8835,18.382,-1.0407,16.667,9.8522,0.98039,12.44,4.6984,8.6349,-0.96154,12.625,14.295,-7.5556,15.686,-7.8583
12.259,-12.317,-0.97087,13.725,5.9113,7.5362,-10.68,15.469,-1.0407,13.725,5.9113,-9.8039,10.526,3.746,5.7778,-2.8846,7.7939,12.372,-2.7937,15.686,-6.8921
5.624,-14.222,-8.7379,8.8235,0.98522,3.6715,-12.621,12.557,0.91057,8.8235,0.98522,-15.686,7.6555,4.6984,7.6825,-4.8077,2.963,9.4872,-0.88889,12.745,-2.0612
2.7804,-11.365,-13.592,5.8824,1.9704,6.57,-7.767,10.615,3.8374,5.8824,1.9704,-16.667,5.7416,6.6032,11.492,-5.7692,1.9968,7.5641,1.9683,9.8039,-0.12882
-0.06319,-9.4603,-14.563,0.98039,-1.9704,5.6039,-5.8252,8.6731,5.7886,0.98039,-1.9704,-17.646999,3.8278,4.6984,13.397,-3.8462,1.9968,4.6795,5.7778,8.8235,0.83736
-1.0111,-10.413,-10.68,-4.902,-3.9409,3.6715,-6.7961,6.7314,3.8374,-4.902,-3.9409,-17.646999,1.9139,0.88889,16.254,-2.8846,0.06441,3.7179,3.873,7.8431,1.8035
0.88468,-9.4603,-6.7961,-0.98039,-3.9409,1.7391,-10.68,6.7314,0.91057,-0.98039,-3.9409,-15.686,3.8278,0.88889,16.254,-1.9231,0.06441,4.6795,1.0159,6.8627,0.83736
-0.06319,-9.4603,-6.7961,1.9608,-3.9409,-1.1594,-9.7087,4.7896,-2.0163,1.9608,-3.9409,-14.706,5.7416,2.7937,13.397,-0.96154,-0.90177,4.6795,-1.8413,6.8627,1.8035
-1.9589,-11.365,-4.8544,1.9608,0.98522,-2.1256,-14.563,2.8479,-2.0163,1.9608,0.98522,-10.784,8.6124,4.6984,13.397,0.96154,1.0306,2.7564,-1.8413,6.8627,2.7697
-1.0111,-8.5079,0.97087,7.8431,3.9409,2.7053,-12.621,1.877,-2.0163,7.8431,3.9409,-3.9216,9.5694,8.5079,12.444,6.7308,8.7601,1.7949,-3.746,7.8431,4.7021
1.8325,-3.746,7.767,10.784,6.8966,9.4686,-2.9126,4.7896,-2.9919,10.784,6.8966,2.9412,13.397,9.4603,14.349,12.5,18.422001,3.7179,-10.413,11.765,3.7359
4.6761,1.0159,14.563,13.725,15.764,9.4686,8.7379,5.7605,-2.0163,13.725,15.764,9.8039,16.268,6.6032,17.205999,16.346001,25.184999,3.7179,-10.413,12.745,3.7359
4.6761,6.7302,18.447001,18.627001,20.690001,9.4686,14.563,3.8188,-0.06504,18.627001,20.690001,14.706,14.354,3.746,14.349,16.346001,26.150999,0.83333,-5.6508,8.8235,4.7021
3.7283,15.302,19.417,15.686,22.66,0.77295,23.301001,0.90615,6.7642,15.686,22.66,19.608,9.5694,3.746,6.7302,14.423,21.32,-3.9744,4.8254,0.0,5.6683
1.8325,21.968,15.534,11.765,25.615999,3.6715,25.243,0.90615,13.593,11.765,25.615999,21.569,1.9139,2.7937,-4.6984,9.6154,11.659,-8.7821,11.492,-8.8235,5.6683
-1.9589,19.111,7.767,11.765,27.586,7.5362,29.125999,1.877,16.52,11.765,27.586,17.646999,-6.6986,0.88889,-14.222,1.9231,-1.868,-10.705,14.349,-13.725,3.7359
-5.7504,9.5873,-1.9417,13.725,22.66,2.7053,20.388,2.8479,15.545,13.725,22.66,10.784,-13.397,1.8413,-18.032,-5.7692,-12.496,-9.7436,15.302,-15.686,1.8035
-6.6983,-1.8413,-12.621,3.9216,12.808,4.6377,5.8252,2.8479,8.7154,3.9216,12.808,2.9412,-15.311,2.7937,-18.032,-11.538,-20.225,-4.9359,7.6825,-14.706,-0.12882
-2.9068,-9.4603,-16.504999,3.9216,4.9261,8.5024,-1.9417,5.7605,1.8862,3.9216,4.9261,-0.98039,-14.354,1.8413,-14.222,-15.385,-21.191999,2.7564,-0.88889,-8.8235,-4.9597
0.88468,-14.222,-16.504999,7.8431,-1.9704,7.5362,-9.7087,8.6731,-2.9919,7.8431,-1.9704,-3.9216,-11.483,-1.0159,-10.413,-15.385,-20.225,7.5641,-5.6508,-2.9412,-7.8583
0.88468,-18.032,-17.476,2.9412,-6.8966,1.7391,-16.504999,8.6731,-7.8699,2.9412,-6.8966,-8.8235,-6.6986,-1.9683,-4.6984,-14.423,-19.259001,9.4872,-8.5079,1.9608,-7.8583
-2.9068,-21.841,-18.447001,-1.9608,-11.823,-3.0918,-23.301001,4.7896,-12.748,-1.9608,-11.823,-15.686,-4.7847,-3.873,-0.88889,-13.462,-18.292999,10.449,-12.317,3.9216,-9.7907
-3.8547,-20.889,-15.534,-3.9216,-15.764,-4.058,-26.214001,1.877,-14.699,-3.9216,-15.764,-17.646999,-1.9139,-6.7302,1.9683,-11.538,-12.496,9.4872,-11.365,5.8824,-8.8245
-3.8547,-18.032,-8.7379,-5.8824,-12.808,-6.9565,-22.33,-2.0065,-12.748,-5.8824,-12.808,-14.706,1.9139,-8.6349,5.7778,-11.538,-6.6989,6.6026,-8.5079,7.8431,-8.8245
-3.8547,-14.222,-2.9126,-3.9216,-3.9409,-7.9227,-12.621,-6.8608,-7.8699,-3.9216,-3.9409,-10.784,5.7416,-9.5873,11.492,-10.577,-1.868,3.7179,-10.413,8.8235,-9.7907
-2.9068,-6.6032,2.9126,1.9608,3.9409,-1.1594,-3.8835,-5.89,1.8862,1.9608,3.9409,-1.9608,9.5694,-5.7778,15.302,-5.7692,5.8615,1.7949,-8.5079,9.8039,-6.8921
-1.0111,1.9683,10.68,10.784,14.778,1.7391,7.767,-4.9191,9.6911,10.784,14.778,6.8627,13.397,0.88889,17.205999,0.96154,13.591,-1.0897,0.06349,10.784,-1.095
-1.0111,8.6349,13.592,11.765,17.733999,2.7053,16.504999,-5.89,11.642,11.765,17.733999,8.8235,16.268,8.5079,17.205999,8.6538,18.422001,-4.9359,3.873,7.8431,5.6683
-1.9589,12.444,12.621,6.8627,14.778,1.7391,19.417,-7.8317,11.642,6.8627,14.778,10.784,11.483,12.317,8.6349,12.5,13.591,-11.667,8.6349,1.9608,8.5668
-4.8025,11.492,7.767,7.8431,12.808,0.77295,17.476,-7.8317,9.6911,7.8431,12.808,11.765,0.0,9.4603,-6.6032,7.6923,0.06441,-16.474001,8.6349,-8.8235,8.5668
-6.6983,6.7302,1.9417,5.8824,8.867,-3.0918,10.68,-6.8608,4.813,5.8824,8.867,9.8039,-13.397,4.6984,-22.794001,1.9231,-14.428,-17.436001,5.7778,-16.667,5.6683
-6.6983,1.0159,0.0,1.9608,2.9557,-3.0918,3.8835,-3.9482,-2.9919,1.9608,2.9557,6.8627,-21.052999,0.88889,-28.507999,-1.9231,-19.259001,-12.628,-0.88889,-19.608,1.8035
-1.0111,-1.8413,-0.97087,3.9216,0.98522,4.6377,-3.8835,0.90615,-6.8943,3.9216,0.98522,3.9216,-20.096001,-1.9683,-24.698,-4.8077,-21.191999,-4.9359,-7.5556,-15.686,0.83736
4.6761,0.06349,-2.9126,3.9216,-2.9557,13.333,0.97087,6.7314,-4.9431,3.9216,-2.9557,4.902,-16.268,-3.873,-17.079,-5.7692,-22.158001,1.7949,-3.746,-9.8039,0.83736
6.5719,-0.88889,-5.8252,4.902,0.98522,14.3,2.9126,10.615,-2.0163,4.902,0.98522,2.9412,-13.397,-3.873,-10.413,-6.7308,-20.225,5.641,3.873,-6.8627,0.83736
8.4676,-2.7937,-5.8252,7.8431,2.9557,12.367,2.9126,12.557,1.8862,7.8431,2.9557,0.98039,-9.5694,-5.7778,-4.6984,-7.6923,-15.395,7.5641,10.54,-2.9412,-1.095
13.207,0.06349,-1.9417,2.9412,-10.837,8.5024,-3.8835,14.498,3.8374,2.9412,-10.837,0.0,-1.9139,-7.6825,3.873,-6.7308,-6.6989,7.5641,11.492,2.9412,-5.9259
17.945999,6.7302,6.7961,3.9216,-2.9557,-1.1594,-4.8544,15.469,2.8618,3.9216,-2.9557,2.9412,8.6124,-4.8254,15.302,0.0,7.7939,9.4872,5.7778,10.784,-7.8583
21.738001,11.492,14.563,11.765,4.9261,12.367,-0.97087,14.498,1.8862,11.765,4.9261,4.902,19.139,3.746,26.73,8.6538,22.287001,9.4872,4.8254,18.627001,-2.0612
21.738001,12.444,21.358999,11.765,0.98522,22.028999,0.97087,8.6731,0.91057,11.765,0.98522,5.8824,25.837,12.317,38.159,15.385,32.915001,8.5256,1.0159,24.51,3.7359
18.893999,13.397,25.243,5.8824,1.9704,12.367,3.8835,2.8479,1.8862,5.8824,1.9704,6.8627,29.665001,19.937,43.873001,20.191999,39.678001,7.5641,-2.7937,26.471001,7.6006
15.103,14.349,26.214001,4.902,2.9557,8.5024,5.8252,-1.0356,0.91057,4.902,2.9557,9.8039,27.750999,21.841,40.063,20.191999,41.610001,5.641,-2.7937,24.51,7.6006
15.103,15.302,26.214001,2.9412,1.9704,6.57,9.7087,-1.0356,-2.9919,2.9412,1.9704,11.765,25.837,19.937,35.301998,18.268999,37.745998,4.6795,-7.5556,20.587999,6.6345
16.997999,19.111,27.184,0.98039,5.9113,6.57,14.563,-0.06472,-2.9919,0.98039,5.9113,17.646999,22.01,21.841,30.540001,18.268999,32.915001,3.7179,-10.413,15.686,8.5668
16.997999,18.159,25.243,0.0,7.8818,1.7391,11.65,0.90615,-4.9431,0.0,7.8818,19.608,19.139,18.032,22.921,15.385,25.184999,3.7179,-11.365,9.8039,7.6006
10.363,12.444,17.476,5.8824,5.9113,0.77295,5.8252,-0.06472,-5.9187,5.8824,5.9113,14.706,13.397,13.27,12.444,12.5,13.591,-0.12821,-9.4603,3.9216,6.6345
2.7804,6.7302,8.7379,8.8235,2.9557,-0.19324,0.97087,0.90615,-4.9431,8.8235,2.9557,9.8039,4.7847,9.4603,0.06349,11.538,3.9291,-3.0128,-1.8413,-4.902,8.5668
-3.8547,2.9206,-0.97087,7.8431,0.0,2.7053,-3.8835,4.7896,-2.9919,7.8431,0.0,6.8627,-6.6986,2.7937,-9.4603,9.6154,-3.8003,-5.8974,5.7778,-15.686,8.5668
-6.6983,1.9683,-6.7961,7.8431,-0.98522,1.7391,-4.8544,5.7605,0.91057,7.8431,-0.98522,4.902,-16.268,-6.7302,-15.175,7.6923,-10.564,-7.8205,8.6349,-23.528999,7.6006
-6.6983,2.9206,-10.68,1.9608,0.98522,0.77295,-6.7961,4.7896,5.7886,1.9608,0.98522,1.9608,-21.052999,-9.5873,-14.222,8.6538,-12.496,-10.705,10.54,-26.471001,8.5668
-1.9589,7.6825,-7.767,-2.9412,5.9113,2.7053,-0.97087,4.7896,11.642,-2.9412,5.9113,3.9216,-18.181999,-8.6349,-9.4603,13.462,-8.6312,-10.705,17.205999,-23.528999,10.499
0.88468,13.397,-1.9417,3.9216,9.8522,1.7391,9.7087,4.7896,13.593,3.9216,9.8522,6.8627,-10.526,-5.7778,-1.8413,19.231001,-0.90177,-11.667,21.968,-15.686,14.364
