C3,C4,Cz,F1,F2,F3,F4,F7,F8,Fp1,Fp2,Fz,O1,O2,P3,P4,Pz,T3,T4,T5,T6
-2.0126,9.5873,7.8699,13.527,23.645,-10.016,5.8537,-3.9291,5.7886,13.527,23.645,-5.9113,9.5694,11.311,15.229,21.256001,27.118,-7.8205,5.8136,7.8431,11.41
-0.12579,17.205999,11.772,13.527,25.615999,-10.016,9.7561,-5.8615,23.35,13.527,25.615999,-1.9704,7.6555,20.790001,9.5419,27.052999,29.049999,-5.8974,20.979,-1.9608,21.025999
-5.7862,15.302,9.8211,3.8647,17.733999,-15.87,5.8537,-7.7939,21.398001,3.8647,17.733999,-5.9113,13.397,24.580999,5.7504,25.121,25.184999,-15.513,19.084,-5.8824,24.872
-2.0126,15.302,13.724,3.8647,19.704,-13.919,7.8049,-9.7262,23.35,3.8647,19.704,-1.9704,21.052999,39.747002,9.5419,27.052999,27.118,-11.667,19.084,-1.9608,30.641001
-2.0126,13.397,13.724,-1.9324,13.793,-13.919,11.707,-15.523,19.447001,-1.9324,13.793,-3.9409,11.483,16.997999,7.6461,19.323999,21.32,-13.59,13.397,-1.9608,13.333
1.761,15.302,13.724,-5.7971,15.764,-15.87,13.659,-15.523,13.593,-5.7971,15.764,-5.9113,0.0,-9.5419,3.8547,9.6618,15.523,-13.59,7.7093,-3.9216,-3.9744
-7.673,1.9683,2.0163,-23.188,-5.9113,-23.674999,-7.8049,-23.253,13.593,-23.188,-5.9113,-17.733999,3.8278,-1.9589,0.06319,5.7971,11.659,-19.358999,2.0221,-5.8824,-3.9744
-7.673,3.873,0.06504,-21.256001,1.9704,-23.674999,1.9512,-25.184999,7.7398,-21.256001,1.9704,-15.764,5.7416,1.8325,1.9589,5.7971,13.591,-15.513,-1.7694,-3.9216,-0.12821
-7.673,3.873,0.06504,-28.986,-11.823,-21.724001,-5.8537,-25.184999,7.7398,-28.986,-11.823,-15.764,1.9139,3.7283,-1.8325,5.7971,9.7262,-17.436001,2.0221,-7.8431,1.7949
-2.0126,9.5873,5.9187,-27.052999,-9.8522,-13.919,3.9024,-17.455999,5.7886,-27.052999,-9.8522,-5.9113,13.397,24.580999,0.06319,13.527,13.591,-11.667,13.397,-7.8431,15.256
-11.447,5.7778,3.9675,-27.052999,-9.8522,-23.674999,-1.9512,-29.049999,-2.0163,-27.052999,-9.8522,-9.8522,5.7416,22.686001,-3.7283,9.6618,7.7939,-21.282,7.7093,-5.8824,15.256
-7.673,11.492,9.8211,-23.188,-5.9113,-17.820999,7.8049,-21.32,13.593,-23.188,-5.9113,-3.9409,1.9139,18.893999,-1.8325,13.527,11.659,-15.513,13.397,-9.8039,13.333
-9.5597,9.5873,5.9187,-25.121,-5.9113,-19.771999,11.707,-19.388,7.7398,-25.121,-5.9113,-3.9409,-5.7416,-3.8547,-5.624,3.8647,5.8615,-13.59,5.8136,-9.8039,-5.8974
-7.673,11.492,5.9187,-21.256001,-7.8818,-13.919,9.7561,-19.388,7.7398,-21.256001,-7.8818,0.0,1.9139,-1.9589,-1.8325,5.7971,7.7939,-11.667,0.12638,-3.9216,-2.0513
-0.12579,9.5873,9.8211,-13.527,-3.9409,-4.1626,5.8537,-9.7262,13.593,-13.527,-3.9409,3.9409,11.483,11.311,1.9589,9.6618,13.591,-11.667,13.397,-3.9216,7.5641
-5.7862,5.7778,5.9187,-19.323999,-9.8522,-10.016,5.8537,-13.591,15.545,-19.323999,-9.8522,0.0,-1.9139,-9.5419,-3.7283,0.0,3.9291,-13.59,3.9179,-7.8431,-7.8205
-5.7862,3.873,2.0163,-15.459,-13.793,-8.065,1.9512,-3.9291,15.545,-15.459,-13.793,-1.9704,0.0,-1.9589,-7.5197,0.0,-1.868,-11.667,3.9179,-11.765,-2.0513
-11.447,1.9683,-3.8374,-23.188,-19.704,-15.87,-7.8049,-11.659,1.8862,-23.188,-19.704,-7.8818,-1.9139,7.5197,-9.4155,0.0,-5.7327,-13.59,-3.6651,-9.8039,3.7179
-17.107,-13.27,-15.545,-19.323999,-15.764,-19.771999,-7.8049,-15.523,-2.0163,-19.323999,-15.764,-11.823,-17.225,-9.5419,-20.790001,-15.459,-19.259001,-11.667,0.12638,-13.725,-5.8974
-17.107,-13.27,-17.496,-17.391001,-21.674999,-15.87,-11.707,-9.7262,-0.06504,-17.391001,-21.674999,-11.823,-13.397,-7.6461,-18.893999,-15.459,-21.191999,-11.667,-5.5608,-11.765,-5.8974
-2.0126,0.06349,-1.8862,-3.8647,-7.8818,-2.2114,0.0,-1.9968,-2.0163,-3.8647,-7.8818,0.0,7.6555,3.7283,-7.5197,-3.8647,-7.6651,-2.0513,-5.5608,-3.9216,-2.0513
-2.0126,-1.8413,0.06504,-3.8647,-9.8522,-0.26016,3.9024,3.8003,5.7886,-3.8647,-9.8522,-1.9704,-3.8278,-0.06319,-11.311,-5.7971,-11.53,-2.0513,11.501,-11.765,-3.9744
-5.7862,-1.8413,-3.8374,-3.8647,-9.8522,-4.1626,0.0,3.8003,3.8374,-3.8647,-9.8522,-3.9409,0.0,-5.7504,-11.311,-7.7295,-13.462,-3.9744,2.0221,-5.8824,-7.8205
-13.333,-13.27,-11.642,-7.7295,-9.8522,-8.065,-11.707,3.8003,1.8862,-7.7295,-9.8522,-9.8522,-9.5694,-15.229,-20.790001,-17.391001,-21.191999,-7.8205,-5.5608,-13.725,-15.513
-15.22,-15.175,-15.545,-9.6618,-13.793,-8.065,-9.7561,-1.9968,-3.9675,-9.6618,-13.793,-7.8818,-11.483,-9.5419,-22.686001,-17.391001,-23.124001,-3.9744,-5.5608,-13.725,-7.8205
-13.333,-15.175,-17.496,-7.7295,-13.793,-6.1138,-15.61,1.868,-3.9675,-7.7295,-13.793,-5.9113,-17.225,-15.229,-22.686001,-21.256001,-26.989,-0.12821,-13.144,-13.725,-13.59
-11.447,-13.27,-15.545,1.9324,-3.9409,-2.2114,-7.8049,5.7327,1.8862,1.9324,-3.9409,-1.9704,-11.483,-5.7504,-24.580999,-17.391001,-28.921,-0.12821,0.12638,-17.646999,-5.8974
-11.447,-11.365,-15.545,1.9324,-11.823,-2.2114,-3.9024,3.8003,-7.8699,1.9324,-11.823,-1.9704,-19.139,-7.6461,-24.580999,-17.391001,-30.853001,3.7179,-7.4566,-13.725,-5.8974
-20.881001,-20.889,-27.252001,-1.9324,-13.793,-8.065,-15.61,1.868,-0.06504,-1.9324,-13.793,-11.823,-36.363998,-24.708,-37.852001,-27.052999,-40.514999,-2.0513,-9.3523,-25.49,-21.282
-17.107,-18.983999,-21.398001,1.9324,0.0,-6.1138,-5.8537,3.8003,-5.9187,1.9324,0.0,-5.9113,-32.535999,-22.812,-35.956001,-25.121,-38.583,-2.0513,-5.5608,-25.49,-19.358999
-7.673,-7.5556,-7.7398,9.6618,5.9113,7.5447,0.0,15.395,-0.06504,9.6618,5.9113,5.9113,-22.966999,-26.603001,-22.686001,-17.391001,-28.921,5.641,-7.4566,-15.686,-21.282
7.4214,5.7778,5.9187,30.917999,29.556999,21.202999,17.561001,25.056,25.301001,30.917999,29.556999,23.645,3.8278,-11.438,-5.624,-3.8647,-9.5974,7.5641,15.292,-5.8824,-7.8205
14.969,13.397,9.8211,36.715,29.556999,29.007999,25.365999,40.514999,21.398001,36.715,29.556999,27.586,7.6555,3.7283,1.9589,5.7971,0.06441,19.103001,13.397,-3.9216,3.7179
-0.12579,-5.6508,-9.6911,21.256001,11.823,7.5447,3.9024,17.327,-0.06504,21.256001,11.823,9.8522,-9.5694,-5.7504,-5.624,-7.7295,-13.462,13.333,-7.4566,3.9216,-2.0513
-3.8994,-11.365,-15.545,7.7295,5.9113,1.6911,-5.8537,9.5974,-0.06504,7.7295,5.9113,1.9704,-13.397,-22.812,-5.624,-15.459,-17.327,7.5641,-7.4566,3.9216,-15.513
-5.7862,-15.175,-17.496,9.6618,9.8522,-0.26016,-7.8049,11.53,-3.9675,9.6618,9.8522,0.0,-15.311,-20.916,-7.5197,-17.391001,-17.327,11.41,-1.7694,3.9216,-15.513
-7.673,-13.27,-17.496,11.594,9.8522,1.6911,-5.8537,11.53,-5.9187,11.594,9.8522,0.0,-5.7416,-9.5419,-1.8325,-11.594,-9.5974,7.5641,0.12638,3.9216,-7.8205
5.5346,3.873,-3.8374,23.188,15.764,7.5447,5.8537,19.259001,9.6911,23.188,15.764,9.8522,19.139,26.476999,15.229,9.6618,7.7939,19.103001,-1.7694,17.646999,17.179001
5.5346,0.06349,-3.8374,17.391001,13.793,5.5935,-3.9024,19.259001,11.642,17.391001,13.793,7.8818,11.483,18.893999,15.229,5.7971,5.8615,17.179001,11.501,21.569,15.256
3.6478,-7.5556,-5.7886,13.527,9.8522,3.6423,-7.8049,13.462,-7.8699,13.527,9.8522,1.9704,-9.5694,-17.125,9.5419,-9.6618,-1.868,19.103001,-5.5608,15.686,-13.59
-3.8994,-15.175,-13.593,1.9324,-9.8522,-6.1138,-17.561001,5.7327,-13.724,1.9324,-9.8522,-11.823,-7.6555,-19.021,3.8547,-13.527,-5.7327,9.4872,-16.934999,9.8039,-19.358999
-2.0126,-11.365,-9.6911,7.7295,1.9704,-0.26016,-5.8537,9.5974,3.8374,7.7295,1.9704,-7.8818,1.9139,-11.438,7.6461,-7.7295,-1.868,9.4872,0.12638,13.725,-9.7436
-0.12579,-11.365,-7.7398,5.7971,-3.9409,1.6911,-17.561001,11.53,-17.625999,5.7971,-3.9409,-9.8522,1.9139,-7.6461,9.5419,-7.7295,0.06441,13.333,-7.4566,15.686,-9.7436
7.4214,-5.6508,-1.8862,5.7971,-1.9704,1.6911,-11.707,11.53,-27.382,5.7971,-1.9704,-7.8818,1.9139,1.8325,9.5419,1.9324,1.9968,15.256,-16.934999,13.725,3.7179
-3.8994,-17.079,-11.642,-1.9324,-13.793,-10.016,-27.316999,1.868,-19.577,-1.9324,-13.793,-21.674999,3.8278,3.7283,5.7504,-3.8647,-1.868,7.5641,-32.101002,13.725,-0.12821
-13.333,-26.603001,-27.252001,-13.527,-29.556999,-17.820999,-40.976002,-3.9291,-27.382,-13.527,-29.556999,-33.498001,-5.7416,3.7283,-1.8325,-9.6618,-11.53,7.5641,-15.039,13.725,1.7949
-18.993999,-34.222,-38.959,-11.594,-25.615999,-21.724001,-35.122002,-9.7262,-37.138,-11.594,-25.615999,-37.438,-15.311,-15.229,-11.311,-23.188,-23.124001,3.7179,-24.518,5.8824,-17.436001
-3.8994,-13.27,-17.496,13.527,-3.9409,-2.2114,-15.61,7.6651,-7.8699,13.527,-3.9409,-17.733999,15.311,18.893999,1.9589,0.0,-1.868,3.7179,-5.5608,3.9216,11.41
-2.0126,-11.365,-13.593,7.7295,1.9704,-4.1626,-15.61,5.7327,-3.9675,7.7295,1.9704,-17.733999,7.6555,9.4155,3.8547,0.0,-1.868,7.5641,-5.5608,7.8431,5.641
-2.0126,-11.365,-11.642,-7.7295,-15.764,-8.065,-23.415001,-3.9291,-11.772,-7.7295,-15.764,-23.645,-1.9139,-3.8547,1.9589,-1.9324,-3.8003,1.7949,-16.934999,1.9608,-2.0513
-5.7862,-15.175,-13.593,-3.8647,-7.8818,-10.016,-21.462999,-5.8615,-13.724,-3.8647,-7.8818,-23.645,-5.7416,-15.229,-3.7283,-7.7295,-7.6651,-0.12821,-1.7694,-3.9216,-7.8205
-15.22,-13.27,-17.496,-3.8647,-5.9113,-15.87,-19.511999,-0.06441,-9.8211,-3.8647,-5.9113,-27.586,-3.8278,-5.7504,-7.5197,-3.8647,-11.53,-7.8205,-1.7694,-5.8824,-0.12821
-11.447,-9.4603,-15.545,-1.9324,1.9704,-15.87,-13.659,-7.7939,-2.0163,-1.9324,1.9704,-23.645,1.9139,5.624,-7.5197,-1.9324,-9.5974,-0.12821,5.8136,0.0,9.4872
-17.107,-11.365,-17.496,-3.8647,0.0,-15.87,-7.8049,-7.7939,-0.06504,-3.8647,0.0,-19.704,1.9139,11.311,-9.4155,-1.9324,-11.53,-3.9744,0.12638,-5.8824,9.4872
1.761,5.7778,2.0163,9.6618,19.704,-4.1626,1.9512,3.8003,13.593,9.6618,19.704,0.0,22.966999,54.912998,5.7504,23.188,7.7939,5.641,19.084,9.8039,47.949001
-2.0126,1.9683,0.06504,1.9324,11.823,-2.2114,3.9024,-0.06441,21.398001,1.9324,11.823,1.9704,-11.483,-9.5419,-7.5197,0.0,-7.6651,-0.12821,15.292,-7.8431,-2.0513
-13.333,-5.6508,-9.6911,0.0,13.793,-11.967,0.0,-9.7262,11.642,0.0,13.793,-3.9409,-21.052999,-36.082001,-18.893999,-13.527,-17.327,-11.667,2.0221,-17.646999,-21.282
-7.673,9.5873,-5.7886,5.7971,25.615999,-2.2114,15.61,-5.8615,9.6911,5.7971,25.615999,5.9113,-5.7416,-7.6461,-11.311,1.9324,-7.6651,-7.8205,15.292,-9.8039,1.7949
-7.673,5.7778,-7.7398,9.6618,23.645,-2.2114,17.561001,-0.06441,27.252001,9.6618,23.645,7.8818,-9.5694,-9.5419,-13.207,1.9324,-7.6651,-7.8205,19.084,-15.686,5.641
-9.5597,0.06349,-5.7886,5.7971,19.704,-6.1138,9.7561,-3.9291,7.7398,5.7971,19.704,3.9409,-7.6555,-0.06319,-13.207,0.0,-7.6651,-3.9744,9.6051,-11.765,5.641
-0.12579,17.205999,9.8211,3.8647,17.733999,-4.1626,21.462999,-5.8615,7.7398,3.8647,17.733999,11.823,-3.8278,-0.06319,-1.8325,9.6618,1.9968,-0.12821,7.7093,-1.9608,9.4872
5.5346,17.205999,17.625999,1.9324,19.704,-0.26016,17.561001,-1.9968,15.545,1.9324,19.704,13.793,0.0,9.4155,1.9589,15.459,7.7939,-2.0513,11.501,0.0,19.103001
7.4214,17.205999,21.528,0.0,15.764,1.6911,17.561001,-3.9291,9.6911,0.0,15.764,11.823,11.483,24.580999,7.6461,19.323999,11.659,-2.0513,19.084,5.8824,22.948999
3.6478,13.397,15.675,-3.8647,5.9113,-2.2114,11.707,-11.659,5.7886,-3.8647,5.9113,7.8818,1.9139,13.207,3.8547,13.527,7.7939,-0.12821,5.8136,0.0,13.333
5.5346,11.492,9.8211,-9.6618,1.9704,-0.26016,7.8049,-11.659,9.6911,-9.6618,1.9704,5.9113,9.5694,-0.06319,9.5419,5.7971,7.7939,-2.0513,5.8136,9.8039,-0.12821
13.082,15.302,13.724,3.8647,15.764,3.6423,23.415001,-13.591,3.8374,3.8647,15.764,13.793,1.9139,-5.7504,13.333,5.7971,9.7262,3.7179,7.7093,15.686,-0.12821
11.195,13.397,13.724,-3.8647,5.9113,1.6911,19.511999,-7.7939,17.496,-3.8647,5.9113,11.823,-3.8278,-1.9589,11.438,7.7295,9.7262,-0.12821,9.6051,3.9216,3.7179
16.855,17.205999,15.675,0.0,13.793,7.5447,21.462999,-0.06441,13.593,0.0,13.793,13.793,15.311,13.207,19.021,15.459,19.388,3.7179,20.979,11.765,15.256
11.195,13.397,7.8699,-9.6618,-5.9113,1.6911,3.9024,-9.7262,9.6911,-9.6618,-5.9113,0.0,15.311,20.790001,19.021,19.323999,17.455999,1.7949,22.875,15.686,24.872
14.969,24.825001,13.724,-11.594,-7.8818,1.6911,7.8049,-13.591,-5.9187,-11.594,-7.8818,0.0,28.708,28.372999,20.916,23.188,23.253,1.7949,5.8136,17.646999,22.948999
7.4214,13.397,5.9187,-17.391001,-19.704,-4.1626,-3.9024,-15.523,-3.9675,-17.391001,-19.704,-7.8818,21.052999,18.893999,19.021,17.391001,17.455999,-2.0513,5.8136,17.646999,19.103001
9.3082,11.492,9.8211,-15.459,-5.9113,-2.2114,5.8537,-11.659,-0.06504,-15.459,-5.9113,-3.9409,30.622,35.956001,24.708,21.256001,21.32,1.7949,2.0221,29.412001,30.641001
7.4214,9.5873,7.8699,-11.594,-7.8818,-0.26016,11.707,-9.7262,-2.0163,-11.594,-7.8818,-3.9409,-1.9139,1.8325,13.333,9.6618,11.659,1.7949,-1.7694,13.725,1.7949
5.5346,1.9683,3.9675,-15.459,-19.704,-6.1138,-5.8537,-7.7939,5.7886,-15.459,-19.704,-13.793,-5.7416,-11.438,7.6461,5.7971,11.659,1.7949,5.8136,-1.9608,-5.8974
5.5346,3.873,5.9187,-17.391001,-17.733999,-8.065,-7.8049,-11.659,1.8862,-17.391001,-17.733999,-15.764,15.311,1.8325,15.229,9.6618,15.523,-0.12821,-1.7694,9.8039,-0.12821
1.761,1.9683,3.9675,-15.459,-21.674999,-10.016,-9.7561,-13.591,-11.772,-15.459,-21.674999,-15.764,7.6555,5.624,9.5419,7.7295,13.591,-0.12821,-5.5608,7.8431,-0.12821
7.4214,7.6825,5.9187,-5.7971,-11.823,-0.26016,-1.9512,-0.06441,-7.8699,-5.7971,-11.823,-7.8818,13.397,15.103,11.438,13.527,13.591,1.7949,5.8136,7.8431,11.41
1.761,0.06349,0.06504,-7.7295,-11.823,-4.1626,-5.8537,-7.7939,1.8862,-7.7295,-11.823,-7.8818,11.483,11.311,5.7504,5.7971,7.7939,-2.0513,0.12638,3.9216,5.641
3.6478,0.06349,0.06504,1.9324,-1.9704,-0.26016,-1.9512,-7.7939,5.7886,1.9324,-1.9704,-1.9704,5.7416,7.5197,5.7504,3.8647,5.8615,-0.12821,3.9179,1.9608,5.641
7.4214,13.397,3.9675,-1.9324,0.0,3.6423,5.8537,-1.9968,3.8374,-1.9324,0.0,1.9704,11.483,16.997999,9.5419,9.6618,7.7939,1.7949,2.0221,9.8039,11.41
5.5346,-5.6508,0.06504,1.9324,-1.9704,3.6423,-9.7561,-3.9291,-5.9187,1.9324,-1.9704,0.0,-5.7416,-1.9589,3.8547,0.0,0.06441,3.7179,-9.3523,3.9216,-0.12821
5.5346,-5.6508,3.9675,5.7971,-3.9409,7.5447,-3.9024,-1.9968,-0.06504,5.7971,-3.9409,5.9113,-1.9139,-7.6461,3.8547,-3.8647,1.9968,-0.12821,0.12638,-1.9608,-13.59
11.195,1.9683,9.8211,9.6618,7.8818,9.4959,5.8537,-0.06441,3.8374,9.6618,7.8818,11.823,1.9139,-1.9589,7.6461,-1.9324,5.8615,1.7949,-1.7694,5.8824,-9.7436
1.761,-5.6508,2.0163,0.0,-1.9704,3.6423,-3.9024,-7.7939,-5.9187,0.0,-1.9704,1.9704,-9.5694,-13.333,0.06319,-7.7295,-3.8003,-2.0513,-11.248,1.9608,-11.667
7.4214,-3.746,3.9675,7.7295,9.8522,5.5935,0.0,-7.7939,5.7886,7.7295,9.8522,3.9409,-1.9139,1.8325,3.8547,-3.8647,0.06441,3.7179,0.12638,5.8824,-2.0513
13.082,11.492,13.724,15.459,21.674999,17.301001,21.462999,11.53,-2.0163,15.459,21.674999,17.733999,13.397,9.4155,11.438,3.8647,5.8615,3.7179,5.8136,15.686,1.7949
7.4214,1.9683,7.8699,5.7971,5.9113,7.5447,3.9024,-1.9968,13.593,5.7971,5.9113,7.8818,1.9139,13.207,1.9589,-1.9324,-1.868,3.7179,2.0221,5.8824,5.641
-0.12579,-3.746,0.06504,-1.9324,-7.8818,-2.2114,-5.8537,-9.7262,-2.0163,-1.9324,-7.8818,0.0,-7.6555,-15.229,-3.7283,-13.527,-9.5974,1.7949,-22.622,-3.9216,-19.358999
-2.0126,-9.4603,-5.7886,-1.9324,-3.9409,-4.1626,-1.9512,-9.7262,-9.8211,-1.9324,-3.9409,-3.9409,-3.8278,-13.333,0.06319,-17.391001,-11.53,-0.12821,-7.4566,5.8824,-17.436001
-3.8994,-13.27,-11.642,-1.9324,-9.8522,-6.1138,-9.7561,-3.9291,-0.06504,-1.9324,-9.8522,-7.8818,-9.5694,-13.333,-5.624,-19.323999,-15.395,1.7949,-3.6651,1.9608,-15.513
-2.0126,-11.365,-7.7398,-1.9324,-1.9704,-2.2114,-3.9024,-5.8615,-2.0163,-1.9324,-1.9704,-3.9409,-17.225,-19.021,-5.624,-19.323999,-13.462,3.7179,-15.039,-1.9608,-15.513
3.6478,1.9683,3.9675,9.6618,15.764,5.5935,9.7561,-1.9968,7.7398,9.6618,15.764,7.8818,-5.7416,-3.8547,1.9589,-9.6618,-5.7327,5.641,-1.7694,7.8431,-2.0513
14.969,11.492,17.625999,17.391001,21.674999,19.252001,25.365999,15.395,17.496,17.391001,21.674999,23.645,11.483,26.476999,13.333,9.6618,7.7939,15.256,9.6051,15.686,22.948999
9.3082,17.205999,17.625999,9.6618,11.823,13.398,27.316999,5.7327,17.496,9.6618,11.823,19.704,-15.311,-15.229,3.8547,-1.9324,1.9968,9.4872,2.0221,3.9216,-11.667
5.5346,7.6825,9.8211,-1.9324,-3.9409,9.4959,7.8049,-0.06441,11.642,-1.9324,-3.9409,7.8818,-30.622,-43.665001,-3.7283,-15.459,-9.5974,5.641,-7.4566,-1.9608,-34.743999
13.082,7.6825,15.675,9.6618,15.764,15.35,11.707,3.8003,11.642,9.6618,15.764,15.764,-3.8278,-9.5419,9.5419,0.0,3.9291,7.5641,-3.6651,9.8039,-7.8205
13.082,9.5873,9.8211,15.459,15.764,19.252001,7.8049,9.5974,15.545,15.459,15.764,15.764,7.6555,-1.9589,11.438,3.8647,5.8615,7.5641,3.9179,15.686,-0.12821
7.4214,9.5873,5.9187,13.527,11.823,15.35,7.8049,7.6651,5.7886,13.527,11.823,15.764,-1.9139,-7.6461,3.8547,0.0,0.06441,9.4872,2.0221,7.8431,-0.12821
5.5346,0.06349,5.9187,7.7295,9.8522,9.4959,3.9024,1.868,-3.9675,7.7295,9.8522,9.8522,5.7416,1.8325,3.8547,0.0,0.06441,7.5641,5.8136,7.8431,1.7949
11.195,1.9683,7.8699,9.6618,3.9409,11.447,0.0,1.868,9.6911,9.6618,3.9409,7.8818,11.483,3.7283,7.6461,1.9324,5.8615,9.4872,3.9179,11.765,5.641
1.761,-1.8413,2.0163,-3.8647,-9.8522,1.6911,-7.8049,-1.9968,-9.8211,-3.8647,-9.8522,-5.9113,1.9139,11.311,0.06319,0.0,1.9968,3.7179,-7.4566,1.9608,5.641
9.3082,3.873,5.9187,0.0,1.9704,5.5935,7.8049,-0.06441,-5.9187,0.0,1.9704,0.0,1.9139,1.8325,3.8547,0.0,3.9291,11.41,-5.5608,5.8824,1.7949
7.4214,-1.8413,2.0163,-1.9324,-5.9113,3.6423,-7.8049,-1.9968,9.6911,-1.9324,-5.9113,-5.9113,19.139,11.311,9.5419,1.9324,7.7939,1.7949,2.0221,7.8431,7.5641
-0.12579,-3.746,-7.7398,-1.9324,5.9113,-4.1626,-3.9024,-3.9291,11.642,-1.9324,5.9113,-9.8522,3.8278,11.311,3.8547,1.9324,1.9968,-0.12821,3.9179,7.8431,11.41
-7.673,0.06349,-9.6911,0.0,5.9113,-6.1138,-1.9512,-5.8615,-0.06504,0.0,5.9113,-7.8818,-11.483,-9.5419,-3.7283,-1.9324,-1.868,-0.12821,5.8136,-3.9216,-5.8974
-9.5597,-1.8413,-11.642,3.8647,1.9704,-8.065,-1.9512,-5.8615,15.545,3.8647,1.9704,-9.8522,-1.9139,-7.6461,-1.8325,0.0,1.9968,-5.8974,7.7093,-5.8824,-7.8205
-7.673,-1.8413,-11.642,-1.9324,0.0,-8.065,3.9024,-7.7939,7.7398,-1.9324,0.0,-9.8522,0.0,-7.6461,3.8547,1.9324,7.7939,-5.8974,9.6051,0.0,-3.9744
-3.8994,-3.746,-11.642,1.9324,3.9409,-4.1626,0.0,-1.9968,7.7398,1.9324,3.9409,-9.8522,5.7416,-1.9589,9.5419,5.7971,11.659,-3.9744,7.7093,3.9216,1.7949
-2.0126,-11.365,-15.545,-3.8647,0.0,-6.1138,-11.707,-5.8615,3.8374,-3.8647,0.0,-17.733999,17.225,16.997999,13.333,7.7295,15.523,-0.12821,5.8136,13.725,13.333
-3.8994,3.873,-7.7398,-1.9324,1.9704,-8.065,-5.8537,-7.7939,1.8862,-1.9324,1.9704,-15.764,22.966999,24.580999,11.438,15.459,17.455999,-5.8974,0.12638,11.765,19.103001
-9.5597,0.06349,-5.7886,-7.7295,-1.9704,-15.87,-7.8049,-13.591,3.8374,-7.7295,-1.9704,-19.704,7.6555,13.207,3.8547,7.7295,9.7262,-5.8974,-1.7694,1.9608,7.5641
-3.8994,1.9683,5.9187,-9.6618,-9.8522,-11.967,-7.8049,-11.659,5.7886,-9.6618,-9.8522,-15.764,13.397,22.686001,9.5419,13.527,17.455999,-7.8205,3.9179,5.8824,13.333
7.4214,9.5873,19.577,3.8647,3.9409,-2.2114,1.9512,-5.8615,15.545,3.8647,3.9409,-1.9704,30.622,24.580999,20.916,21.256001,29.049999,-7.8205,19.084,15.686,22.948999
1.761,5.7778,13.724,-13.527,-7.8818,-8.065,-9.7561,-5.8615,13.593,-13.527,-7.8818,-7.8818,19.139,11.311,15.229,11.594,21.32,-5.8974,3.9179,11.765,7.5641
-3.8994,-3.746,3.9675,-17.391001,-15.764,-13.919,-19.511999,-11.659,-2.0163,-17.391001,-15.764,-13.793,-1.9139,-0.06319,1.9589,1.9324,9.7262,-9.7436,-20.726999,-5.8824,-2.0513
-5.7862,-1.8413,2.0163,-17.391001,-13.793,-11.967,-11.707,-9.7262,5.7886,-17.391001,-13.793,-9.8522,11.483,9.4155,1.9589,5.7971,11.659,-7.8205,2.0221,-1.9608,3.7179
1.761,9.5873,9.8211,-3.8647,-3.9409,1.6911,-1.9512,3.8003,11.642,-3.8647,-3.9409,0.0,7.6555,22.686001,3.8547,15.459,15.523,-0.12821,15.292,1.9608,17.179001
-9.5597,-9.4603,-5.7886,-15.459,-13.793,-13.919,-17.561001,-9.7262,-5.9187,-15.459,-13.793,-9.8522,0.0,-1.9589,-3.7283,-3.8647,1.9968,-2.0513,-7.4566,0.0,-5.8974
-9.5597,-18.983999,-13.593,-15.459,-7.8818,-15.87,-15.61,-7.7939,-13.724,-15.459,-7.8818,-13.793,5.7416,-1.9589,-7.5197,-13.527,-5.7327,-0.12821,0.12638,-1.9608,-9.7436
-9.5597,-17.079,-15.545,-5.7971,-3.9409,-11.967,-9.7561,-1.9968,-13.724,-5.7971,-3.9409,-9.8522,0.0,-0.06319,-9.4155,-17.391001,-11.53,1.7949,-7.4566,-5.8824,-11.667
-9.5597,-22.794001,-19.447001,1.9324,-1.9704,-10.016,-17.561001,3.8003,3.8374,1.9324,-1.9704,-7.8818,-13.397,-19.021,-16.997999,-25.121,-19.259001,3.7179,-9.3523,-13.725,-23.205
-13.333,-22.794001,-19.447001,-5.7971,1.9704,-11.967,-15.61,-3.9291,-2.0163,-5.7971,1.9704,-9.8522,-7.6555,-11.438,-18.893999,-25.121,-25.056,-2.0513,-5.5608,-13.725,-15.513
-7.673,-9.4603,-9.6911,-1.9324,1.9704,-4.1626,-1.9512,-1.9968,17.496,-1.9324,1.9704,0.0,-7.6555,-11.438,-16.997999,-17.391001,-23.124001,-3.9744,3.9179,-15.686,-9.7436
-9.5597,-7.5556,-9.6911,-3.8647,3.9409,-6.1138,-1.9512,-5.8615,17.496,-3.8647,3.9409,0.0,-7.6555,-7.6461,-18.893999,-13.527,-25.056,-0.12821,2.0221,-11.765,-3.9744
-15.22,-17.079,-17.496,-7.7295,0.0,-11.967,-1.9512,-9.7262,5.7886,-7.7295,0.0,-5.9113,-15.311,-19.021,-26.476999,-25.121,-32.785999,-3.9744,0.12638,-19.608,-17.436001
-18.993999,-20.889,-25.301001,-5.7971,5.9113,-13.919,3.9024,-9.7262,-3.9675,-5.7971,5.9113,-3.9409,-17.225,-19.021,-28.372999,-30.917999,-36.651001,-5.8974,2.0221,-17.646999,-19.358999
-9.5597,-1.8413,-9.6911,1.9324,15.764,-2.2114,11.707,-7.7939,15.545,1.9324,15.764,7.8818,-5.7416,-0.06319,-16.997999,-11.594,-25.056,-2.0513,13.397,-7.8431,1.7949
-0.12579,7.6825,2.0163,15.459,23.645,7.5447,19.511999,1.868,31.153999,15.459,23.645,19.704,0.0,-1.9589,-9.4155,-1.9324,-13.462,1.7949,17.188,-3.9216,5.641
-2.0126,11.492,-1.8862,7.7295,15.764,7.5447,21.462999,-3.9291,11.642,7.7295,15.764,13.793,0.0,-0.06319,-7.5197,0.0,-11.53,-2.0513,11.501,-3.9216,3.7179
-9.5597,0.06349,-9.6911,1.9324,9.8522,-2.2114,9.7561,-9.7262,11.642,1.9324,9.8522,1.9704,-7.6555,-1.9589,-11.311,-3.8647,-13.462,-9.7436,7.7093,-9.8039,3.7179
-5.7862,-1.8413,-7.7398,1.9324,9.8522,1.6911,7.8049,-3.9291,13.593,1.9324,9.8522,1.9704,1.9139,9.4155,0.06319,1.9324,-3.8003,-3.9744,11.501,3.9216,11.41
-5.7862,1.9683,-7.7398,1.9324,9.8522,-4.1626,5.8537,-9.7262,-0.06504,1.9324,9.8522,-1.9704,1.9139,15.103,0.06319,5.7971,0.06441,-0.12821,-7.4566,1.9608,11.41
-9.5597,7.6825,-3.8374,-3.8647,-1.9704,-8.065,1.9512,-11.659,1.8862,-3.8647,-1.9704,-7.8818,5.7416,16.997999,1.9589,11.594,5.8615,-7.8205,3.9179,0.0,15.256
1.761,9.5873,7.8699,1.9324,5.9113,-6.1138,7.8049,-7.7939,1.8862,1.9324,5.9113,-5.9113,17.225,26.476999,13.333,19.323999,17.455999,-2.0513,17.188,9.8039,22.948999
-5.7862,0.06349,3.9675,-13.527,-9.8522,-17.820999,-9.7561,-15.523,-3.9675,-13.527,-9.8522,-17.733999,9.5694,1.8325,11.438,11.594,15.523,-7.8205,2.0221,7.8431,5.641
-0.12579,13.397,7.8699,-7.7295,-7.8818,-13.919,0.0,-21.32,-2.0163,-7.7295,-7.8818,-11.823,17.225,16.997999,19.021,19.323999,23.253,-5.8974,-5.5608,13.725,17.179001
-0.12579,7.6825,3.9675,-15.459,-13.793,-15.87,-11.707,-13.591,-17.625999,-15.459,-13.793,-19.704,17.225,34.060001,17.125,23.188,23.253,-5.8974,-11.248,9.8039,28.718
-0.12579,3.873,3.9675,-17.391001,-15.764,-17.820999,-15.61,-11.659,-13.724,-17.391001,-15.764,-21.674999,17.225,13.207,15.229,19.323999,25.184999,-5.8974,-5.5608,9.8039,11.41
1.761,9.5873,13.724,-17.391001,-19.704,-17.820999,-11.707,-17.455999,-3.9675,-17.391001,-19.704,-17.733999,19.139,16.997999,17.125,25.121,27.118,-5.8974,3.9179,7.8431,15.256
1.761,9.5873,11.772,-21.256001,-21.674999,-17.820999,-7.8049,-17.455999,-15.675,-21.256001,-21.674999,-15.764,17.225,22.686001,17.125,23.188,27.118,-7.8205,-3.6651,7.8431,17.179001
1.761,15.302,15.675,-13.527,-11.823,-15.87,0.0,-13.591,-2.0163,-13.527,-11.823,-9.8522,19.139,22.686001,17.125,27.052999,29.049999,-9.7436,-1.7694,7.8431,19.103001
-3.8994,1.9683,7.8699,-23.188,-27.586,-21.724001,-21.462999,-15.523,-9.8211,-23.188,-27.586,-19.704,13.397,20.790001,13.333,19.323999,23.253,-11.667,3.9179,5.8824,13.333
1.761,11.492,13.724,-15.459,-27.586,-15.87,-9.7561,-13.591,-15.675,-15.459,-27.586,-11.823,15.311,24.580999,15.229,21.256001,27.118,-5.8974,-3.6651,5.8824,17.179001
1.761,11.492,15.675,-21.256001,-27.586,-13.919,-13.659,-9.7262,-19.577,-21.256001,-27.586,-9.8522,15.311,24.580999,13.333,21.256001,25.184999,-5.8974,-5.5608,5.8824,17.179001
-0.12579,3.873,11.772,-19.323999,-25.615999,-11.967,-9.7561,-11.659,-11.772,-19.323999,-25.615999,-9.8522,9.5694,5.624,7.6461,11.594,17.455999,-3.9744,-9.3523,3.9216,3.7179
-11.447,-1.8413,0.06504,-25.121,-33.498001,-21.724001,-21.462999,-11.659,-5.9187,-25.121,-33.498001,-17.733999,5.7416,15.103,-1.8325,9.6618,7.7939,-9.7436,0.12638,-5.8824,11.41
-11.447,-3.746,-1.8862,-27.052999,-27.586,-21.724001,-13.659,-13.591,-29.333,-27.052999,-27.586,-15.764,7.6555,7.5197,-5.624,1.9324,0.06441,-9.7436,-3.6651,-5.8824,1.7949
-9.5597,1.9683,2.0163,-23.188,-25.615999,-15.87,-7.8049,-15.523,-11.772,-23.188,-25.615999,-7.8818,-7.6555,-17.125,-7.5197,-1.9324,-1.868,-13.59,-5.5608,-15.686,-13.59
-2.0126,7.6825,11.772,-15.459,-11.823,-10.016,-3.9024,-7.7939,1.8862,-15.459,-11.823,3.9409,-9.5694,-9.5419,-5.624,1.9324,1.9968,-7.8205,3.9179,-13.725,-2.0513
-0.12579,7.6825,15.675,-21.256001,-21.674999,-8.065,-3.9024,-9.7262,-11.772,-21.256001,-21.674999,1.9704,0.0,-9.5419,-1.8325,3.8647,3.9291,-9.7436,-5.5608,-9.8039,-5.8974
5.5346,9.5873,19.577,-15.459,-21.674999,-6.1138,-7.8049,-5.8615,-3.9675,-15.459,-21.674999,1.9704,3.8278,7.5197,3.8547,11.594,9.7262,-5.8974,7.7093,-5.8824,7.5641
9.3082,13.397,21.528,-11.594,-15.764,1.6911,3.9024,-3.9291,-9.8211,-11.594,-15.764,7.8818,7.6555,13.207,7.6461,13.527,13.591,-0.12821,-1.7694,1.9608,9.4872
9.3082,13.397,17.625999,-5.7971,-13.793,5.5935,0.0,-0.06441,-2.0163,-5.7971,-13.793,11.823,9.5694,15.103,9.5419,13.527,11.659,-0.12821,3.9179,5.8824,11.41
9.3082,7.6825,15.675,-9.6618,-13.793,5.5935,-1.9512,-3.9291,-3.9675,-9.6618,-13.793,9.8522,5.7416,-1.9589,7.6461,5.7971,7.7939,1.7949,-11.248,1.9608,-0.12821
20.629,22.921,27.382,3.8647,1.9704,13.398,11.707,1.868,-7.8699,3.8647,1.9704,21.674999,17.225,22.686001,19.021,21.256001,21.32,1.7949,-3.6651,7.8431,21.025999
14.969,17.205999,21.528,9.6618,5.9113,13.398,11.707,5.7327,-3.9675,9.6618,5.9113,19.704,9.5694,11.311,15.229,13.527,15.523,-0.12821,13.397,7.8431,9.4872
13.082,15.302,15.675,5.7971,0.0,7.5447,9.7561,7.6651,3.8374,5.7971,0.0,15.764,5.7416,1.8325,13.333,5.7971,11.659,1.7949,-11.248,9.8039,-0.12821
11.195,3.873,11.772,5.7971,1.9704,9.4959,0.0,9.5974,7.7398,5.7971,1.9704,9.8522,17.225,11.311,15.229,7.7295,13.591,5.641,3.9179,15.686,7.5641
1.761,-3.746,0.06504,5.7971,-5.9113,5.5935,-1.9512,9.5974,-0.06504,5.7971,-5.9113,1.9704,-1.9139,-7.6461,1.9589,-3.8647,1.9968,3.7179,-1.7694,1.9608,-7.8205
-7.673,-5.6508,-7.7398,11.594,5.9113,5.5935,0.0,11.53,-2.0163,11.594,5.9113,1.9704,-19.139,-19.021,-13.207,-9.6618,-7.6651,-2.0513,-7.4566,-15.686,-15.513
-5.7862,0.06349,-1.8862,13.527,13.793,7.5447,3.9024,15.395,13.593,13.527,13.793,3.9409,-5.7416,-3.8547,-5.624,1.9324,0.06441,-0.12821,13.397,-7.8431,3.7179
7.4214,15.302,15.675,23.188,21.674999,17.301001,21.462999,19.259001,13.593,23.188,21.674999,15.764,1.9139,15.103,1.9589,13.527,11.659,3.7179,5.8136,-9.8039,15.256
1.761,1.9683,5.9187,19.323999,13.793,9.4959,9.7561,9.5974,-7.8699,19.323999,13.793,9.8522,-3.8278,-9.5419,-1.8325,-1.9324,5.8615,-2.0513,-1.7694,-9.8039,-9.7436
5.5346,-3.746,5.9187,17.391001,5.9113,5.5935,5.8537,17.327,5.7886,17.391001,5.9113,7.8818,-7.6555,-5.7504,1.9589,-5.7971,7.7939,1.7949,0.12638,-1.9608,-9.7436
-0.12579,-11.365,0.06504,9.6618,-1.9704,1.6911,-5.8537,15.395,-0.06504,9.6618,-1.9704,0.0,-11.483,-20.916,-1.8325,-13.527,0.06441,-3.9744,-13.144,-5.8824,-21.282
1.761,-7.5556,0.06504,13.527,9.8522,-0.26016,-5.8537,5.7327,-3.9675,13.527,9.8522,3.9409,-5.7416,-17.125,-5.624,-11.594,-1.868,-0.12821,-9.3523,-7.8431,-17.436001
9.3082,7.6825,11.772,21.256001,13.793,11.447,9.7561,17.327,7.7398,21.256001,13.793,17.733999,9.5694,13.207,1.9589,5.7971,9.7262,-0.12821,5.8136,-5.8824,5.641
14.969,11.492,17.625999,25.121,21.674999,19.252001,19.511999,23.124001,5.7886,25.121,21.674999,27.586,5.7416,5.624,7.6461,5.7971,9.7262,7.5641,5.8136,3.9216,3.7179
18.742001,21.016001,17.625999,25.121,21.674999,21.202999,23.415001,23.124001,11.642,25.121,21.674999,27.586,3.8278,-3.8547,9.5419,7.7295,11.659,11.41,-3.6651,5.8824,-3.9744
7.4214,15.302,7.8699,23.188,15.764,13.398,23.415001,19.259001,-0.06504,23.188,15.764,21.674999,-1.9139,-5.7504,-1.8325,0.0,0.06441,9.4872,0.12638,-3.9216,-3.9744
3.6478,0.06349,-1.8862,21.256001,15.764,13.398,9.7561,23.124001,-7.8699,21.256001,15.764,17.733999,3.8278,3.7283,-3.7283,-3.8647,-5.7327,11.41,-1.7694,1.9608,-0.12821
3.6478,1.9683,-1.8862,23.188,9.8522,13.398,9.7561,19.259001,-0.06504,23.188,9.8522,17.733999,-1.9139,-1.9589,-7.5197,-5.7971,-9.5974,9.4872,3.9179,-3.9216,-5.8974
5.5346,1.9683,-1.8862,15.459,9.8522,13.398,17.561001,21.191999,-9.8211,15.459,9.8522,19.704,-7.6555,-9.5419,-7.5197,-11.594,-15.395,9.4872,0.12638,0.0,-11.667
1.761,-5.6508,-3.8374,11.594,1.9704,15.35,0.0,23.124001,-5.9187,11.594,1.9704,15.764,-26.794001,-26.603001,-20.790001,-21.256001,-28.921,5.641,-9.3523,-9.8039,-23.205
1.761,-1.8413,-3.8374,19.323999,9.8522,17.301001,7.8049,21.191999,-3.9675,19.323999,9.8522,19.704,-17.225,-19.021,-18.893999,-19.323999,-26.989,11.41,-15.039,-5.8824,-21.282
7.4214,7.6825,5.9187,23.188,21.674999,27.056999,17.561001,26.989,5.7886,23.188,21.674999,27.586,-9.5694,-15.229,-15.103,-13.527,-21.191999,9.4872,-3.6651,-9.8039,-11.667
9.3082,5.7778,3.9675,28.986,19.704,23.153999,17.561001,25.056,11.642,28.986,19.704,27.586,-11.483,-20.916,-11.311,-13.527,-21.191999,9.4872,5.8136,-1.9608,-11.667
13.082,9.5873,7.8699,23.188,11.823,21.202999,19.511999,23.124001,9.6911,23.188,11.823,27.586,0.0,1.8325,0.06319,-3.8647,-11.53,13.333,11.501,11.765,-0.12821
11.195,1.9683,5.9187,32.849998,21.674999,21.202999,13.659,21.191999,-0.06504,32.849998,21.674999,27.586,-3.8278,-7.6461,-3.7283,-9.6618,-13.462,11.41,11.501,3.9216,-5.8974
7.4214,3.873,2.0163,21.256001,17.733999,17.301001,15.61,21.191999,-11.772,21.256001,17.733999,21.674999,-5.7416,-7.6461,-3.7283,-7.7295,-13.462,7.5641,-1.7694,1.9608,-7.8205
7.4214,-3.746,0.06504,23.188,21.674999,19.252001,7.8049,23.124001,9.6911,23.188,21.674999,15.764,-15.311,-11.438,-3.7283,-9.6618,-13.462,9.4872,3.9179,1.9608,-5.8974
7.4214,-5.6508,-1.8862,19.323999,11.823,21.202999,-1.9512,21.191999,3.8374,19.323999,11.823,11.823,-5.7416,-9.5419,1.9589,-7.7295,-9.5974,13.333,-7.4566,13.725,-5.8974
9.3082,5.7778,2.0163,19.323999,11.823,21.202999,5.8537,23.124001,-7.8699,19.323999,11.823,15.764,1.9139,9.4155,5.7504,3.8647,-3.8003,13.333,-7.4566,13.725,11.41
7.4214,0.06349,-3.8374,23.188,5.9113,21.202999,1.9512,23.124001,-0.06504,23.188,5.9113,11.823,-3.8278,-3.8547,3.8547,-1.9324,-5.7327,13.333,2.0221,11.765,-2.0513
3.6478,-13.27,-15.545,25.121,11.823,19.252001,-7.8049,21.191999,-9.8211,25.121,11.823,5.9113,-7.6555,-9.5419,-1.8325,-7.7295,-11.53,13.333,-7.4566,3.9216,-7.8205
-3.8994,-13.27,-21.398001,13.527,5.9113,9.4959,-7.8049,19.259001,3.8374,13.527,5.9113,-3.9409,-11.483,-11.438,-5.624,-5.7971,-11.53,7.5641,9.6051,-1.9608,-0.12821
-2.0126,-9.4603,-19.447001,17.391001,11.823,9.4959,3.9024,21.191999,-5.9187,17.391001,11.823,-1.9704,-9.5694,-3.8547,-1.8325,-3.8647,-7.6651,7.5641,0.12638,0.0,-0.12821
-3.8994,-17.079,-23.35,13.527,13.793,3.6423,-7.8049,15.395,-5.9187,13.527,13.793,-7.8818,0.0,7.5197,1.9589,-3.8647,-3.8003,7.5641,-7.4566,5.8824,7.5641
3.6478,-9.4603,-17.496,11.594,11.823,5.5935,-1.9512,13.462,-5.9187,11.594,11.823,-7.8818,7.6555,16.997999,9.5419,7.7295,3.9291,9.4872,-3.6651,13.725,19.103001
-3.8994,-3.746,-17.496,9.6618,1.9704,-2.2114,-5.8537,7.6651,-13.724,9.6618,1.9704,-11.823,13.397,9.4155,5.7504,5.7971,3.9291,7.5641,-13.144,11.765,9.4872
-11.447,-18.983999,-21.398001,0.0,-9.8522,-10.016,-25.365999,5.7327,-7.8699,0.0,-9.8522,-21.674999,-3.8278,3.7283,-3.7283,0.0,1.9968,1.7949,-1.7694,0.0,1.7949
-3.8994,-9.4603,-7.7398,3.8647,-1.9704,-2.2114,-15.61,5.7327,-15.675,3.8647,-1.9704,-15.764,13.397,20.790001,5.7504,11.594,13.591,3.7179,0.12638,5.8824,19.103001
-5.7862,-7.5556,-3.8374,1.9324,-7.8818,-6.1138,-21.462999,5.7327,-15.675,1.9324,-7.8818,-15.764,13.397,24.580999,3.8547,11.594,13.591,-2.0513,-9.3523,3.9216,15.256
3.6478,-5.6508,3.9675,5.7971,-1.9704,-0.26016,-11.707,9.5974,-13.724,5.7971,-1.9704,-7.8818,3.8278,1.8325,5.7504,5.7971,11.659,1.7949,2.0221,5.8824,-0.12821
5.5346,3.873,7.8699,7.7295,-7.8818,3.6423,-11.707,3.8003,-21.528,7.7295,-7.8818,-3.9409,15.311,15.103,9.5419,13.527,15.523,1.7949,-9.3523,11.765,7.5641
7.4214,1.9683,9.8211,5.7971,-3.9409,3.6423,-9.7561,3.8003,-2.0163,5.7971,-3.9409,-3.9409,3.8278,3.7283,5.7504,11.594,11.659,1.7949,5.8136,3.9216,5.641
-3.8994,-3.746,-1.8862,-3.8647,-11.823,-6.1138,-13.659,1.868,-7.8699,-3.8647,-11.823,-11.823,-3.8278,-3.8547,-1.8325,1.9324,1.9968,1.7949,-1.7694,1.9608,-2.0513
3.6478,0.06349,-1.8862,7.7295,0.0,-0.26016,-9.7561,11.53,-11.772,7.7295,0.0,-5.9113,9.5694,11.311,5.7504,7.7295,7.7939,3.7179,-5.5608,3.9216,9.4872
7.4214,-1.8413,2.0163,9.6618,-3.9409,1.6911,-13.659,13.462,-9.8211,9.6618,-3.9409,-5.9113,17.225,20.790001,13.333,13.527,13.591,1.7949,3.9179,11.765,15.256
9.3082,9.5873,9.8211,7.7295,-5.9113,1.6911,-9.7561,9.5974,-11.772,7.7295,-5.9113,0.0,1.9139,11.311,9.5419,13.527,11.659,9.4872,-15.039,5.8824,9.4872
-2.0126,-7.5556,2.0163,0.0,-15.764,-10.016,-15.61,1.868,-13.724,0.0,-15.764,-9.8522,-17.225,-22.812,-3.7283,-7.7295,-3.8003,1.7949,-7.4566,-3.9216,-19.358999
1.761,-5.6508,3.9675,1.9324,-9.8522,-2.2114,-11.707,11.53,-23.48,1.9324,-9.8522,-5.9113,3.8278,-3.8547,1.9589,-1.9324,0.06441,3.7179,-5.5608,0.0,-7.8205
3.6478,7.6825,5.9187,13.527,-1.9704,-2.2114,0.0,11.53,-9.8211,13.527,-1.9704,1.9704,-1.9139,-1.9589,3.8547,1.9324,0.06441,13.333,-7.4566,1.9608,-0.12821
-3.8994,-7.5556,-1.8862,0.0,-15.764,-10.016,-13.659,9.5974,-7.8699,0.0,-15.764,-7.8818,-5.7416,-5.7504,-5.624,-9.6618,-7.6651,7.5641,-9.3523,-3.9216,-7.8205
7.4214,0.06349,11.772,5.7971,-3.9409,1.6911,-3.9024,13.462,-11.772,5.7971,-3.9409,3.9409,9.5694,11.311,3.8547,0.0,0.06441,11.41,-5.5608,3.9216,1.7949
1.761,-1.8413,5.9187,3.8647,-7.8818,-4.1626,-5.8537,11.53,-7.8699,3.8647,-7.8818,-1.9704,-15.311,-11.438,-7.5197,-7.7295,-7.6651,5.641,-1.7694,-9.8039,-11.667
-7.673,-11.365,-7.7398,-3.8647,-17.733999,-13.919,-17.561001,-0.06441,-19.577,-3.8647,-17.733999,-11.823,-30.622,-34.186001,-16.997999,-21.256001,-17.327,-0.12821,-20.726999,-13.725,-30.896999
-0.12579,3.873,0.06504,7.7295,-5.9113,-0.26016,3.9024,9.5974,-5.9187,7.7295,-5.9113,1.9704,-3.8278,-17.125,-5.624,-5.7971,-7.6651,1.7949,0.12638,-5.8824,-9.7436
7.4214,9.5873,9.8211,25.121,17.733999,13.398,13.659,19.259001,11.642,25.121,17.733999,19.704,0.0,1.8325,-3.7283,5.7971,1.9968,9.4872,5.8136,-9.8039,7.5641
1.761,9.5873,7.8699,17.391001,7.8818,11.447,7.8049,19.259001,13.593,17.391001,7.8818,15.764,-5.7416,-1.9589,-5.624,3.8647,-3.8003,5.641,9.6051,-9.8039,1.7949
7.4214,5.7778,5.9187,21.256001,13.793,13.398,11.707,15.395,9.6911,21.256001,13.793,13.793,-9.5694,-7.6461,-3.7283,1.9324,-3.8003,9.4872,15.292,-5.8824,-0.12821
1.761,-1.8413,0.06504,13.527,7.8818,9.4959,-1.9512,15.395,-7.8699,13.527,7.8818,5.9113,-5.7416,-0.06319,-5.624,-3.8647,-7.6651,5.641,-16.934999,-3.9216,-3.9744
1.761,-1.8413,-1.8862,13.527,7.8818,5.5935,1.9512,9.5974,11.642,13.527,7.8818,5.9113,-15.311,-7.6461,-11.311,-7.7295,-11.53,5.641,3.9179,-9.8039,-5.8974
5.5346,1.9683,0.06504,9.6618,9.8522,9.4959,1.9512,9.5974,-0.06504,9.6618,9.8522,3.9409,3.8278,-0.06319,-1.8325,0.0,-3.8003,7.5641,2.0221,-5.8824,1.7949
9.3082,1.9683,2.0163,15.459,13.793,9.4959,11.707,9.5974,9.6911,15.459,13.793,7.8818,3.8278,-1.9589,1.9589,-1.9324,-1.868,3.7179,3.9179,0.0,-2.0513
5.5346,5.7778,2.0163,5.7971,3.9409,5.5935,3.9024,11.53,3.8374,5.7971,3.9409,3.9409,5.7416,7.5197,1.9589,-1.9324,-3.8003,7.5641,-9.3523,3.9216,1.7949
3.6478,0.06349,-1.8862,5.7971,-1.9704,5.5935,-1.9512,9.5974,1.8862,5.7971,-1.9704,1.9704,-1.9139,9.4155,0.06319,-1.9324,-5.7327,11.41,-1.7694,1.9608,3.7179
-7.673,-13.27,-11.642,-1.9324,-3.9409,-4.1626,-3.9024,1.868,5.7886,-1.9324,-3.9409,-9.8522,-19.139,-24.708,-9.4155,-15.459,-13.462,3.7179,2.0221,-3.9216,-19.358999
-9.5597,-18.983999,-15.545,-7.7295,-9.8522,-8.065,-19.511999,-1.9968,-13.724,-7.7295,-9.8522,-17.733999,-19.139,-41.769001,-11.311,-23.188,-17.327,5.641,-20.726999,-1.9608,-36.667
3.6478,0.06349,-1.8862,3.8647,1.9704,7.5447,-1.9512,7.6651,-9.8211,3.8647,1.9704,-1.9704,1.9139,-0.06319,1.9589,-1.9324,-1.868,9.4872,0.12638,3.9216,-3.9744
-2.0126,-13.27,-9.6911,5.7971,5.9113,3.6423,-9.7561,5.7327,-2.0163,5.7971,5.9113,-3.9409,-11.483,-13.333,-7.5197,-15.459,-13.462,5.641,-5.5608,-5.8824,-15.513
1.761,-5.6508,-1.8862,13.527,11.823,11.447,0.0,13.462,5.7886,13.527,11.823,7.8818,-7.6555,-15.229,-5.624,-17.391001,-15.395,7.5641,-22.622,1.9608,-19.358999
7.4214,-5.6508,7.8699,19.323999,13.793,17.301001,5.8537,17.327,15.545,19.323999,13.793,15.764,3.8278,-7.6461,-1.8325,-15.459,-13.462,7.5641,3.9179,9.8039,-11.667
-0.12579,-7.5556,2.0163,17.391001,19.704,9.4959,5.8537,9.5974,11.642,17.391001,19.704,13.793,-21.052999,-22.812,-16.997999,-23.188,-23.124001,1.7949,0.12638,-9.8039,-21.282
-5.7862,-1.8413,2.0163,11.594,13.793,5.5935,7.8049,1.868,13.593,11.594,13.793,11.823,-15.311,-5.7504,-18.893999,-13.527,-21.191999,-7.8205,0.12638,-15.686,-7.8205
-0.12579,7.6825,5.9187,23.188,31.527,13.398,21.462999,7.6651,19.447001,23.188,31.527,19.704,0.0,5.624,-9.4155,-3.8647,-13.462,-0.12821,17.188,-5.8824,3.7179
-11.447,-7.5556,-17.496,11.594,15.764,3.6423,7.8049,1.868,9.6911,11.594,15.764,5.9113,-17.225,-19.021,-16.997999,-17.391001,-26.989,-11.667,3.9179,-9.8039,-13.59
-7.673,1.9683,-15.545,19.323999,31.527,5.5935,23.415001,9.5974,23.35,19.323999,31.527,11.823,-22.966999,-20.916,-18.893999,-15.459,-26.989,-5.8974,19.084,-13.725,-11.667
-7.673,3.873,-9.6911,17.391001,29.556999,7.5447,23.415001,5.7327,38.959,17.391001,29.556999,13.793,-7.6555,-9.5419,-15.103,-7.7295,-23.124001,-7.8205,22.875,-11.765,-2.0513
-0.12579,26.73,3.9675,19.323999,35.467999,9.4959,37.073002,3.8003,29.202999,19.323999,35.467999,19.704,-3.8278,3.7283,-9.4155,5.7971,-13.462,-7.8205,22.875,-5.8824,11.41
-11.447,5.7778,-7.7398,0.0,15.764,-8.065,13.659,-11.659,19.447001,0.0,15.764,0.0,-11.483,-7.6461,-16.997999,-7.7295,-21.191999,-15.513,13.397,-11.765,-2.0513
-11.447,-1.8413,-9.6911,3.8647,11.823,-10.016,11.707,-11.659,21.398001,3.8647,11.823,-3.9409,-5.7416,-9.5419,-9.4155,-5.7971,-13.462,-15.513,11.501,-1.9608,-3.9744
-11.447,5.7778,-9.6911,-5.7971,9.8522,-15.87,9.7561,-13.591,15.545,-5.7971,9.8522,-5.9113,3.8278,-0.06319,-5.624,1.9324,-5.7327,-17.436001,0.12638,-1.9608,3.7179
-11.447,11.492,-7.7398,-7.7295,9.8522,-13.919,17.561001,-13.591,9.6911,-7.7295,9.8522,-3.9409,9.5694,16.997999,0.06319,11.594,1.9968,-13.59,20.979,-1.9608,17.179001
-11.447,11.492,-3.8374,-5.7971,13.793,-10.016,15.61,-11.659,21.398001,-5.7971,13.793,0.0,-3.8278,-9.5419,-1.8325,7.7295,1.9968,-13.59,22.875,-3.9216,1.7949
-3.8994,19.111,7.8699,-3.8647,11.823,-8.065,19.511999,-11.659,15.545,-3.8647,11.823,3.9409,1.9139,-5.7504,5.7504,15.459,13.591,-13.59,20.979,0.0,3.7179
-3.8994,13.397,5.9187,-7.7295,0.0,-13.919,7.8049,-15.523,3.8374,-7.7295,0.0,-5.9113,3.8278,1.8325,9.5419,15.459,17.455999,-11.667,9.6051,3.9216,9.4872
-2.0126,7.6825,5.9187,-11.594,-9.8522,-15.87,1.9512,-13.591,5.7886,-11.594,-9.8522,-11.823,9.5694,1.8325,13.333,15.459,21.32,-11.667,7.7093,7.8431,9.4872
-0.12579,9.5873,11.772,-13.527,-7.8818,-17.820999,5.8537,-11.659,-5.9187,-13.527,-7.8818,-9.8522,21.052999,20.790001,19.021,25.121,29.049999,-9.7436,5.8136,11.765,24.872
-2.0126,11.492,11.772,-25.121,-19.704,-19.771999,0.0,-15.523,-2.0163,-25.121,-19.704,-15.764,17.225,32.164001,17.125,25.121,29.049999,-17.436001,7.7093,9.8039,28.718
3.6478,9.5873,13.724,-23.188,-17.733999,-15.87,-5.8537,-17.455999,-17.625999,-23.188,-17.733999,-13.793,21.052999,34.060001,20.916,28.986,32.915001,-7.8205,-5.5608,13.725,32.563999
-7.673,-1.8413,3.9675,-34.783001,-33.498001,-25.625999,-25.365999,-21.32,-17.625999,-34.783001,-33.498001,-27.586,13.397,15.103,11.438,17.391001,23.253,-13.59,-5.5608,7.8431,13.333
-3.8994,3.873,2.0163,-19.323999,-23.645,-19.771999,-15.61,-21.32,-27.382,-19.323999,-23.645,-19.704,1.9139,-1.9589,9.5419,11.594,21.32,-11.667,-9.3523,3.9216,1.7949
-7.673,1.9683,-1.8862,-28.986,-31.527,-23.674999,-17.561001,-17.455999,-23.48,-28.986,-31.527,-23.645,15.311,16.997999,13.333,19.323999,29.049999,-11.667,0.12638,5.8824,17.179001
5.5346,9.5873,9.8211,-21.256001,-23.645,-10.016,-7.8049,-5.8615,-11.772,-21.256001,-23.645,-9.8522,24.879999,24.580999,20.916,25.121,34.847,-7.8205,5.8136,11.765,22.948999
3.6478,-3.746,7.8699,-25.121,-31.527,-13.919,-23.415001,-11.659,-25.431,-25.121,-31.527,-13.793,15.311,15.103,19.021,15.459,29.049999,-3.9744,-7.4566,11.765,13.333
3.6478,0.06349,9.8211,-25.121,-33.498001,-15.87,-15.61,-17.455999,-33.236,-25.121,-33.498001,-13.793,22.966999,39.747002,17.125,19.323999,29.049999,-0.12821,-9.3523,7.8431,26.795
1.761,0.06349,13.724,-25.121,-35.467999,-11.967,-17.561001,-9.7262,-13.724,-25.121,-35.467999,-13.793,0.0,5.624,7.6461,7.7295,19.388,-2.0513,-15.039,0.0,1.7949
3.6478,3.873,19.577,-17.391001,-21.674999,-10.016,-19.511999,-7.7939,-23.48,-17.391001,-21.674999,-9.8522,1.9139,-7.6461,7.6461,9.6618,15.523,-0.12821,-9.3523,1.9608,-2.0513
-0.12579,1.9683,13.724,-19.323999,-27.586,-13.919,-17.561001,-11.659,-19.577,-19.323999,-27.586,-11.823,13.397,11.311,3.8547,9.6618,11.659,-3.9744,2.0221,1.9608,9.4872
-3.8994,1.9683,7.8699,-15.459,-21.674999,-13.919,-9.7561,-9.7262,-17.625999,-15.459,-21.674999,-5.9113,7.6555,13.207,0.06319,7.7295,5.8615,-3.9744,0.12638,0.0,9.4872
-2.0126,1.9683,3.9675,-9.6618,-19.704,-8.065,-13.659,-3.9291,-7.8699,-9.6618,-19.704,-1.9704,11.483,13.207,1.9589,7.7295,3.9291,-0.12821,5.8136,5.8824,13.333
-3.8994,0.06349,2.0163,-1.9324,-5.9113,-6.1138,-5.8537,1.868,-21.528,-1.9324,-5.9113,0.0,9.5694,5.624,-3.7283,3.8647,-1.868,-0.12821,-5.5608,1.9608,5.641
-5.7862,-5.6508,-1.8862,-3.8647,-11.823,-6.1138,-7.8049,1.868,-5.9187,-3.8647,-11.823,-1.9704,0.0,16.997999,-5.624,0.0,-5.7327,3.7179,-3.6651,5.8824,11.41
-9.5597,-3.746,-5.7886,-3.8647,-9.8522,-4.1626,-1.9512,-0.06441,-3.9675,-3.8647,-9.8522,-1.9704,-15.311,-13.333,-15.103,-11.594,-15.395,-2.0513,-18.830999,-5.8824,-11.667
-0.12579,-1.8413,0.06504,11.594,3.9409,5.5935,7.8049,11.53,-5.9187,11.594,3.9409,11.823,-3.8278,-5.7504,-11.311,-5.7971,-9.5974,1.7949,2.0221,-7.8431,-0.12821
5.5346,7.6825,7.8699,17.391001,5.9113,11.447,3.9024,17.327,11.642,17.391001,5.9113,15.764,13.397,13.207,1.9589,1.9324,0.06441,5.641,-3.6651,7.8431,7.5641
11.195,3.873,13.724,21.256001,13.793,17.301001,11.707,23.124001,7.7398,21.256001,13.793,21.674999,-3.8278,-9.5419,1.9589,-1.9324,-1.868,13.333,7.7093,1.9608,-9.7436
-3.8994,-9.4603,-3.8374,0.0,-9.8522,1.6911,-1.9512,7.6651,-3.9675,0.0,-9.8522,1.9704,-22.966999,-20.916,-11.311,-15.459,-13.462,3.7179,-1.7694,-5.8824,-19.358999
-0.12579,-7.5556,-7.7398,1.9324,-1.9704,-0.26016,-1.9512,-0.06441,-3.9675,1.9324,-1.9704,-1.9704,-9.5694,-3.8547,-7.5197,-11.594,-9.5974,7.5641,-5.5608,0.0,-7.8205
-3.8994,-11.365,-11.642,7.7295,-1.9704,5.5935,-9.7561,9.5974,-7.8699,7.7295,-1.9704,-1.9704,-15.311,-15.229,-7.5197,-15.459,-13.462,7.5641,-9.3523,-1.9608,-19.358999
11.195,5.7778,3.9675,21.256001,17.733999,17.301001,13.659,21.191999,11.642,21.256001,17.733999,15.764,1.9139,-0.06319,5.7504,-1.9324,1.9968,13.333,3.9179,9.8039,-2.0513
13.082,11.492,13.724,27.052999,15.764,19.252001,11.707,19.259001,11.642,27.052999,15.764,19.704,3.8278,-0.06319,9.5419,3.8647,5.8615,15.256,5.8136,9.8039,1.7949
3.6478,-3.746,7.8699,5.7971,3.9409,5.5935,3.9024,5.7327,-15.675,5.7971,3.9409,7.8818,-7.6555,-5.7504,0.06319,-5.7971,-1.868,9.4872,-18.830999,1.9608,-5.8974
-0.12579,-9.4603,0.06504,0.0,-7.8818,-2.2114,-11.707,1.868,-3.9675,0.0,-7.8818,-5.9113,-11.483,-17.125,-1.8325,-11.594,-9.5974,7.5641,-11.248,7.8431,-15.513
-5.7862,-17.079,-9.6911,-3.8647,-11.823,-6.1138,-23.415001,-3.9291,5.7886,-3.8647,-11.823,-15.764,-13.397,-20.916,-7.5197,-15.459,-11.53,3.7179,2.0221,-1.9608,-15.513
3.6478,-7.5556,-3.8374,5.7971,0.0,5.5935,-7.8049,7.6651,3.8374,5.7971,0.0,-3.9409,0.0,-7.6461,1.9589,-5.7971,-1.868,9.4872,3.9179,5.8824,-7.8205
-5.7862,-7.5556,-17.496,3.8647,-3.9409,-4.1626,-11.707,-1.9968,1.8862,3.8647,-3.9409,-11.823,-3.8278,-3.8547,-3.7283,-7.7295,-7.6651,1.7949,2.0221,3.9216,-3.9744
-5.7862,-11.365,-21.398001,0.0,-1.9704,-2.2114,-11.707,-0.06441,1.8862,0.0,-1.9704,-11.823,0.0,13.207,-5.624,-5.7971,-7.6651,1.7949,5.8136,-3.9216,5.641
-3.8994,-11.365,-17.496,1.9324,9.8522,1.6911,3.9024,1.868,-15.675,1.9324,9.8522,-3.9409,-11.483,-5.7504,-5.624,-9.6618,-9.5974,3.7179,-5.5608,-1.9608,-5.8974
-2.0126,-13.27,-17.496,0.0,3.9409,1.6911,-3.9024,-1.9968,3.8374,0.0,3.9409,-3.9409,-7.6555,-19.021,-1.8325,-13.527,-9.5974,9.4872,-9.3523,0.0,-17.436001
5.5346,0.06349,-1.8862,13.527,3.9409,7.5447,-5.8537,11.53,13.593,13.527,3.9409,1.9704,1.9139,-1.9589,7.6461,0.0,1.9968,11.41,0.12638,0.0,-3.9744
9.3082,3.873,2.0163,9.6618,11.823,9.4959,7.8049,9.5974,5.7886,9.6618,11.823,3.9409,3.8278,3.7283,7.6461,3.8647,1.9968,13.333,5.8136,7.8431,1.7949
7.4214,1.9683,2.0163,0.0,0.0,3.6423,-3.9024,3.8003,15.545,0.0,0.0,-1.9704,9.5694,7.5197,7.6461,0.0,0.06441,11.41,11.501,9.8039,3.7179
3.6478,9.5873,3.9675,0.0,9.8522,-0.26016,11.707,-3.9291,5.7886,0.0,9.8522,3.9409,0.0,3.7283,0.06319,-1.9324,-5.7327,7.5641,7.7093,-1.9608,-0.12821
-0.12579,-5.6508,0.06504,-1.9324,5.9113,3.6423,5.8537,-1.9968,-5.9187,-1.9324,5.9113,3.9409,-19.139,-19.021,-7.5197,-11.594,-15.395,5.641,-1.7694,-5.8824,-13.59
11.195,3.873,9.8211,0.0,7.8818,11.447,7.8049,1.868,13.593,0.0,7.8818,11.823,-5.7416,-0.06319,1.9589,-1.9324,-3.8003,9.4872,-3.6651,3.9216,-0.12821
9.3082,9.5873,11.772,5.7971,17.733999,15.35,19.511999,5.7327,11.642,5.7971,17.733999,15.764,3.8278,7.5197,3.8547,5.7971,-1.868,13.333,-5.5608,7.8431,7.5641
5.5346,-3.746,-1.8862,7.7295,5.9113,13.398,1.9512,5.7327,13.593,7.7295,5.9113,9.8522,-1.9139,-22.812,-1.8325,-7.7295,-9.5974,7.5641,13.397,5.8824,-13.59
11.195,11.492,9.8211,17.391001,21.674999,17.301001,21.462999,9.5974,19.447001,17.391001,21.674999,19.704,3.8278,-3.8547,3.8547,5.7971,0.06441,11.41,9.6051,0.0,1.7949
7.4214,13.397,5.9187,13.527,17.733999,13.398,19.511999,7.6651,13.593,13.527,17.733999,17.733999,-1.9139,-1.9589,-1.8325,1.9324,-5.7327,9.4872,-1.7694,-5.8824,-2.0513
7.4214,-5.6508,-1.8862,9.6618,9.8522,11.447,0.0,9.5974,15.545,9.6618,9.8522,7.8818,-7.6555,-3.8547,-1.8325,-5.7971,-9.5974,11.41,9.6051,0.0,-3.9744
1.761,-11.365,-3.8374,0.0,7.8818,3.6423,1.9512,1.868,-5.9187,0.0,7.8818,3.9409,-11.483,-24.708,-3.7283,-15.459,-13.462,9.4872,-13.144,3.9216,-21.282
7.4214,-1.8413,3.9675,9.6618,15.764,11.447,7.8049,9.5974,11.642,9.6618,15.764,11.823,-3.8278,-7.6461,1.9589,-5.7971,-5.7327,11.41,-5.5608,3.9216,-7.8205
1.761,-7.5556,-3.8374,7.7295,7.8818,5.5935,3.9024,1.868,7.7398,7.7295,7.8818,5.9113,1.9139,11.311,0.06319,-5.7971,-5.7327,7.5641,5.8136,5.8824,1.7949
-3.8994,-7.5556,-11.642,9.6618,13.793,1.6911,1.9512,1.868,1.8862,9.6618,13.793,1.9704,-7.6555,-7.6461,-5.624,-13.527,-13.462,7.5641,-9.3523,1.9608,-11.667
-5.7862,-13.27,-13.593,9.6618,9.8522,3.6423,0.0,7.6651,13.593,9.6618,9.8522,1.9704,-7.6555,-19.021,-5.624,-17.391001,-15.395,7.5641,3.9179,5.8824,-17.436001
-5.7862,-7.5556,-11.642,3.8647,15.764,-0.26016,11.707,-1.9968,3.8374,3.8647,15.764,1.9704,1.9139,-5.7504,-3.7283,-13.527,-13.462,5.641,5.8136,5.8824,-9.7436
-9.5597,-5.6508,-13.593,-3.8647,3.9409,-6.1138,5.8537,-3.9291,3.8374,-3.8647,3.9409,-5.9113,-3.8278,-9.5419,-1.8325,-11.594,-11.53,-0.12821,-1.7694,7.8431,-11.667
-7.673,-5.6508,-11.642,-3.8647,9.8522,-10.016,1.9512,-7.7939,3.8374,-3.8647,9.8522,-7.8818,0.0,-1.9589,0.06319,-5.7971,-7.6651,1.7949,2.0221,7.8431,-2.0513
-2.0126,5.7778,-5.7886,-1.9324,-1.9704,-0.26016,3.9024,1.868,3.8374,-1.9324,-1.9704,-5.9113,13.397,11.311,5.7504,0.0,-1.868,1.7949,-11.248,15.686,1.7949
-5.7862,-3.746,-9.6911,1.9324,-5.9113,-6.1138,-3.9024,-1.9968,1.8862,1.9324,-5.9113,-7.8818,-5.7416,-0.06319,-1.8325,-7.7295,-11.53,5.641,-7.4566,7.8431,-2.0513
-9.5597,-13.27,-13.593,-7.7295,-3.9409,-10.016,-7.8049,-3.9291,1.8862,-7.7295,-3.9409,-9.8522,-13.397,-9.5419,-7.5197,-13.527,-11.53,1.7949,2.0221,-3.9216,-9.7436
-5.7862,-9.4603,-9.6911,-9.6618,-3.9409,-8.065,-5.8537,-7.7939,-9.8211,-9.6618,-3.9409,-7.8818,-3.8278,-17.125,-3.7283,-13.527,-7.6651,1.7949,-7.4566,-1.9608,-21.282
-0.12579,-7.5556,0.06504,-7.7295,-7.8818,-4.1626,-7.8049,-3.9291,-0.06504,-7.7295,-7.8818,-3.9409,3.8278,-15.229,5.7504,-7.7295,1.9968,1.7949,-1.7694,9.8039,-15.513
-2.0126,-1.8413,0.06504,-3.8647,1.9704,-6.1138,-1.9512,-5.8615,-7.8699,-3.8647,1.9704,-5.9113,-1.9139,9.4155,1.9589,1.9324,5.8615,-2.0513,7.7093,-3.9216,7.5641
3.6478,0.06349,3.9675,-1.9324,-1.9704,-2.2114,1.9512,-9.7262,5.7886,-1.9324,-1.9704,-1.9704,13.397,9.4155,9.5419,3.8647,11.659,-2.0513,2.0221,5.8824,1.7949
1.761,5.7778,5.9187,-9.6618,-3.9409,-6.1138,-1.9512,-7.7939,9.6911,-9.6618,-3.9409,-1.9704,11.483,18.893999,7.6461,11.594,11.659,-3.9744,5.8136,1.9608,15.256
-0.12579,3.873,5.9187,-3.8647,1.9704,-2.2114,0.0,-5.8615,3.8374,-3.8647,1.9704,3.9409,0.0,1.8325,0.06319,3.8647,5.8615,-3.9744,5.8136,-3.9216,5.641
-3.8994,0.06349,-1.8862,-5.7971,-7.8818,-6.1138,1.9512,-9.7262,-2.0163,-5.7971,-7.8818,0.0,0.0,3.7283,-3.7283,0.0,0.06441,-9.7436,-5.5608,-3.9216,3.7179
-2.0126,0.06349,-1.8862,-5.7971,-9.8522,-4.1626,-3.9024,-9.7262,7.7398,-5.7971,-9.8522,-1.9704,5.7416,7.5197,-1.8325,5.7971,1.9968,-7.8205,9.6051,-1.9608,9.4872
1.761,7.6825,7.8699,-1.9324,-3.9409,1.6911,5.8537,-5.8615,1.8862,-1.9324,-3.9409,7.8818,5.7416,13.207,1.9589,11.594,7.7939,-5.8974,15.292,1.9608,15.256
7.4214,13.397,15.675,9.6618,0.0,7.5447,15.61,3.8003,-7.8699,9.6618,0.0,13.793,11.483,18.893999,5.7504,15.459,13.591,-2.0513,17.188,3.9216,21.025999
1.761,7.6825,9.8211,-5.7971,-9.8522,-2.2114,-3.9024,-3.9291,7.7398,-5.7971,-9.8522,3.9409,7.6555,22.686001,1.9589,13.527,7.7939,-2.0513,9.6051,-1.9608,22.948999
1.761,-3.746,3.9675,-1.9324,-5.9113,-2.2114,-5.8537,-1.9968,3.8374,-1.9324,-5.9113,1.9704,1.9139,9.4155,0.06319,3.8647,3.9291,-0.12821,9.6051,-1.9608,11.41
-3.8994,3.873,0.06504,-3.8647,-5.9113,-6.1138,-1.9512,-1.9968,-23.48,-3.8647,-5.9113,-1.9704,-5.7416,-1.9589,-3.7283,3.8647,0.06441,-5.8974,-11.248,-7.8431,5.641
-2.0126,1.9683,0.06504,1.9324,3.9409,-8.065,-1.9512,-1.9968,11.642,1.9324,3.9409,-1.9704,3.8278,11.311,-1.8325,11.594,3.9291,-2.0513,17.188,-7.8431,17.179001
-9.5597,-1.8413,-5.7886,0.0,-7.8818,-13.919,-1.9512,-7.7939,-13.724,0.0,-7.8818,-7.8818,1.9139,-0.06319,-3.7283,5.7971,1.9968,-9.7436,19.084,-7.8431,5.641
-2.0126,7.6825,0.06504,-3.8647,-7.8818,-11.967,-3.9024,-5.8615,-5.9187,-3.8647,-7.8818,-5.9113,5.7416,5.624,1.9589,9.6618,7.7939,-3.9744,2.0221,0.0,11.41
-5.7862,1.9683,-1.8862,-9.6618,-15.764,-11.967,-17.561001,-5.8615,7.7398,-9.6618,-15.764,-11.823,-3.8278,1.8325,-3.7283,9.6618,1.9968,-3.9744,0.12638,-5.8824,7.5641
-0.12579,7.6825,2.0163,0.0,3.9409,-8.065,1.9512,-3.9291,-2.0163,0.0,3.9409,-3.9409,13.397,22.686001,7.6461,17.391001,13.591,-3.9744,9.6051,5.8824,19.103001
-7.673,1.9683,-7.7398,-3.8647,-1.9704,-11.967,-5.8537,-7.7939,-0.06504,-3.8647,-1.9704,-11.823,5.7416,16.997999,1.9589,11.594,5.8615,-5.8974,9.6051,0.0,19.103001
-3.8994,-3.746,-9.6911,-1.9324,-3.9409,-10.016,-5.8537,-1.9968,-0.06504,-1.9324,-3.9409,-13.793,3.8278,3.7283,3.8547,5.7971,3.9291,-3.9744,13.397,3.9216,3.7179
-2.0126,-3.746,-3.8374,-7.7295,-5.9113,-10.016,-5.8537,-3.9291,5.7886,-7.7295,-5.9113,-13.793,9.5694,11.311,5.7504,7.7295,5.8615,-3.9744,9.6051,5.8824,9.4872
-2.0126,3.873,0.06504,-7.7295,0.0,-8.065,0.0,-0.06441,-3.9675,-7.7295,0.0,-9.8522,-9.5694,-0.06319,0.06319,5.7971,3.9291,-5.8974,0.12638,-1.9608,1.7949
-5.7862,5.7778,0.06504,-9.6618,-7.8818,-11.967,3.9024,-9.7262,-7.8699,-9.6618,-7.8818,-7.8818,-7.6555,-9.5419,-1.8325,1.9324,0.06441,-2.0513,-3.6651,-1.9608,-7.8205
-2.0126,7.6825,0.06504,-5.7971,-3.9409,-8.065,0.0,-7.7939,17.496,-5.7971,-3.9409,-5.9113,13.397,11.311,5.7504,9.6618,7.7939,-5.8974,17.188,5.8824,9.4872
1.761,1.9683,-1.8862,-3.8647,1.9704,-2.2114,3.9024,-3.9291,9.6911,-3.8647,1.9704,-5.9113,13.397,22.686001,7.6461,11.594,7.7939,-3.9744,20.979,3.9216,17.179001
5.5346,11.492,7.8699,-1.9324,-3.9409,1.6911,3.9024,-1.9968,1.8862,-1.9324,-3.9409,0.0,13.397,30.268999,9.5419,17.391001,13.591,-3.9744,15.292,5.8824,26.795
11.195,7.6825,15.675,-5.7971,-5.9113,3.6423,3.9024,-3.9291,-2.0163,-5.7971,-5.9113,1.9704,11.483,9.4155,17.125,11.594,17.455999,1.7949,3.9179,13.725,7.5641
13.082,13.397,19.577,-7.7295,-9.8522,7.5447,1.9512,-1.9968,-2.0163,-7.7295,-9.8522,5.9113,7.6555,-7.6461,19.021,9.6618,17.455999,-0.12821,-5.5608,13.725,-3.9744
13.082,5.7778,9.8211,0.0,-3.9409,7.5447,3.9024,-0.06441,-0.06504,0.0,-3.9409,7.8818,-3.8278,-13.333,13.333,5.7971,11.659,5.641,9.6051,9.8039,-0.12821
9.3082,5.7778,3.9675,0.0,-5.9113,9.4959,-1.9512,7.6651,-0.06504,0.0,-5.9113,3.9409,11.483,7.5197,17.125,9.6618,15.523,7.5641,5.8136,13.725,5.641
16.855,13.397,15.675,11.594,5.9113,17.301001,11.707,9.5974,5.7886,11.594,5.9113,15.764,15.311,13.207,20.916,19.323999,25.184999,7.5641,11.501,15.686,17.179001
20.629,17.205999,23.48,11.594,-3.9409,21.202999,7.8049,19.259001,3.8374,11.594,-3.9409,17.733999,19.139,24.580999,20.916,25.121,27.118,5.641,17.188,13.725,24.872
22.516001,17.205999,27.382,5.7971,-3.9409,21.202999,7.8049,9.5974,-23.48,5.7971,-3.9409,17.733999,5.7416,13.207,19.021,17.391001,23.253,11.41,-9.3523,15.686,15.256
18.742001,9.5873,23.48,-1.9324,-11.823,15.35,0.0,5.7327,-23.48,-1.9324,-11.823,11.823,1.9139,5.624,19.021,17.391001,25.184999,5.641,0.12638,9.8039,9.4872
16.855,9.5873,15.675,13.527,0.0,15.35,0.0,9.5974,-13.724,13.527,0.0,11.823,17.225,20.790001,20.916,19.323999,27.118,3.7179,5.8136,5.8824,17.179001
14.969,9.5873,9.8211,15.459,5.9113,17.301001,3.9024,17.327,-5.9187,15.459,5.9113,15.764,22.966999,24.580999,19.021,17.391001,23.253,7.5641,5.8136,9.8039,21.025999
14.969,19.111,19.577,13.527,-1.9704,17.301001,7.8049,11.53,-0.06504,13.527,-1.9704,21.674999,17.225,32.164001,17.125,23.188,23.253,7.5641,0.12638,11.765,32.563999
16.855,13.397,25.431,11.594,0.0,19.252001,5.8537,11.53,-7.8699,11.594,0.0,23.645,5.7416,9.4155,13.333,15.459,19.388,3.7179,9.6051,3.9216,7.5641
13.082,13.397,23.48,13.527,0.0,17.301001,5.8537,11.53,-17.625999,13.527,0.0,21.674999,0.0,-13.333,9.5419,5.7971,13.591,3.7179,-5.5608,1.9608,-11.667
13.082,5.7778,17.625999,15.459,11.823,13.398,5.8537,5.7327,-7.8699,15.459,11.823,17.733999,13.397,-3.8547,13.333,5.7971,13.591,3.7179,-1.7694,13.725,-2.0513
9.3082,3.873,9.8211,9.6618,7.8818,7.5447,0.0,3.8003,-13.724,9.6618,7.8818,13.793,5.7416,1.8325,9.5419,3.8647,9.7262,-0.12821,3.9179,5.8824,-0.12821
7.4214,5.7778,11.772,11.594,3.9409,7.5447,5.8537,9.5974,-17.625999,11.594,3.9409,13.793,17.225,24.580999,9.5419,9.6618,11.659,5.641,-13.144,9.8039,15.256
-0.12579,1.9683,3.9675,0.0,-5.9113,-2.2114,0.0,1.868,-13.724,0.0,-5.9113,1.9704,5.7416,5.624,3.8547,1.9324,3.9291,-0.12821,-9.3523,5.8824,1.7949
-0.12579,3.873,2.0163,3.8647,-7.8818,-2.2114,3.9024,3.8003,-7.8699,3.8647,-7.8818,0.0,-7.6555,-19.021,-1.8325,-3.8647,0.06441,-2.0513,-9.3523,-1.9608,-15.513
-7.673,1.9683,0.06504,1.9324,-5.9113,-8.065,-5.8537,1.868,-13.724,1.9324,-5.9113,-5.9113,-5.7416,-5.7504,-5.624,0.0,-1.868,-5.8974,-5.5608,-7.8431,-5.8974
1.761,0.06349,7.8699,5.7971,1.9704,-4.1626,-9.7561,5.7327,-9.8211,5.7971,1.9704,-1.9704,7.6555,9.4155,1.9589,7.7295,5.8615,-3.9744,-5.5608,-1.9608,7.5641
-3.8994,5.7778,5.9187,-1.9324,-3.9409,-11.967,0.0,-0.06441,-13.724,-1.9324,-3.9409,-7.8818,13.397,16.997999,1.9589,9.6618,5.8615,-9.7436,2.0221,0.0,13.333
-7.673,-11.365,-7.7398,-5.7971,-5.9113,-15.87,-9.7561,-0.06441,-11.772,-5.7971,-5.9113,-17.733999,0.0,9.4155,-7.5197,-1.9324,-3.8003,-7.8205,2.0221,-5.8824,5.641
-13.333,-17.079,-17.496,-3.8647,-23.645,-17.820999,-27.316999,-1.9968,-11.772,-3.8647,-23.645,-23.645,1.9139,7.5197,-9.4155,-7.7295,-9.5974,-5.8974,-15.039,-1.9608,-0.12821
-9.5597,-15.175,-15.545,0.0,-7.8818,-11.967,-15.61,9.5974,-19.577,0.0,-7.8818,-13.793,1.9139,3.7283,-9.4155,-9.6618,-11.53,-3.9744,-13.144,-5.8824,1.7949
-11.447,-17.079,-17.496,-7.7295,-13.793,-15.87,-15.61,1.868,-2.0163,-7.7295,-13.793,-17.733999,-13.397,-19.021,-15.103,-17.391001,-19.259001,-5.8974,-9.3523,-7.8431,-17.436001
-15.22,-15.175,-19.447001,-11.594,-19.704,-17.820999,-23.415001,-5.8615,-17.625999,-11.594,-19.704,-21.674999,-15.311,-24.708,-18.893999,-21.256001,-19.259001,-5.8974,-11.248,-11.765,-25.128
-5.7862,-3.746,-5.7886,-5.7971,-7.8818,-2.2114,-7.8049,3.8003,-27.382,-5.7971,-7.8818,-7.8818,-3.8278,-7.6461,-13.207,-5.7971,-9.5974,-7.8205,-16.934999,-7.8431,-9.7436
-3.8994,5.7778,3.9675,1.9324,-3.9409,1.6911,-5.8537,7.6651,-5.9187,1.9324,-3.9409,1.9704,0.0,-0.06319,-9.4155,3.8647,-1.868,-3.9744,-3.6651,-9.8039,1.7949
-2.0126,3.873,7.8699,3.8647,-7.8818,-0.26016,-9.7561,7.6651,-0.06504,3.8647,-7.8818,1.9704,3.8278,3.7283,-7.5197,3.8647,0.06441,-3.9744,-1.7694,-11.765,3.7179
1.761,3.873,9.8211,-3.8647,-11.823,-0.26016,-5.8537,1.868,-11.772,-3.8647,-11.823,-1.9704,-1.9139,-0.06319,-5.624,-1.9324,-1.868,-5.8974,-7.4566,-9.8039,-3.9744
3.6478,-5.6508,5.9187,-3.8647,-3.9409,1.6911,-5.8537,-0.06441,-9.8211,-3.8647,-3.9409,0.0,-9.5694,-9.5419,-5.624,-11.594,-7.6651,-2.0513,-5.5608,-5.8824,-9.7436
-3.8994,-7.5556,-1.8862,-5.7971,-9.8522,-2.2114,-7.8049,-1.9968,-25.431,-5.7971,-9.8522,-3.9409,-7.6555,-5.7504,-11.311,-13.527,-13.462,-5.8974,-7.4566,-13.725,-9.7436
1.761,0.06349,3.9675,1.9324,-7.8818,3.6423,-7.8049,5.7327,-0.06504,1.9324,-7.8818,1.9704,5.7416,15.103,-7.5197,-1.9324,-5.7327,-2.0513,3.9179,-9.8039,7.5641
-2.0126,0.06349,2.0163,3.8647,1.9704,1.6911,1.9512,5.7327,-9.8211,3.8647,1.9704,3.9409,1.9139,-1.9589,-7.5197,-7.7295,-7.6651,1.7949,-9.3523,-3.9216,-5.8974
-7.673,-11.365,-5.7886,0.0,-11.823,-4.1626,-13.659,1.868,-5.9187,0.0,-11.823,-5.9113,-7.6555,-3.8547,-13.207,-11.594,-13.462,5.641,2.0221,-9.8039,-7.8205
-3.8994,-5.6508,-7.7398,1.9324,-5.9113,5.5935,-3.9024,3.8003,-7.8699,1.9324,-5.9113,-1.9704,-5.7416,-9.5419,-9.4155,-9.6618,-11.53,1.7949,-3.6651,-3.9216,-9.7436
-3.8994,-5.6508,-11.642,5.7971,3.9409,3.6423,1.9512,5.7327,-3.9675,5.7971,3.9409,-1.9704,-9.5694,-19.021,-9.4155,-13.527,-13.462,1.7949,-9.3523,-1.9608,-15.513
-5.7862,-11.365,-15.545,1.9324,-7.8818,3.6423,-11.707,5.7327,5.7886,1.9324,-7.8818,-7.8818,-9.5694,-7.6461,-9.4155,-15.459,-13.462,1.7949,3.9179,-1.9608,-7.8205
-2.0126,-9.4603,-11.642,11.594,7.8818,5.5935,0.0,3.8003,-7.8699,11.594,7.8818,0.0,-5.7416,-9.5419,-7.5197,-13.527,-13.462,1.7949,-11.248,-1.9608,-11.667
-0.12579,-7.5556,-5.7886,7.7295,7.8818,7.5447,3.9024,11.53,15.545,7.7295,7.8818,3.9409,-9.5694,-9.5419,-5.624,-9.6618,-9.5974,5.641,7.7093,-5.8824,-5.8974
-0.12579,-11.365,-7.7398,1.9324,-5.9113,5.5935,1.9512,7.6651,-3.9675,1.9324,-5.9113,1.9704,-7.6555,-11.438,-3.7283,-13.527,-11.53,7.5641,-5.5608,1.9608,-11.667
5.5346,-1.8413,-3.8374,9.6618,3.9409,9.4959,5.8537,9.5974,7.7398,9.6618,3.9409,7.8818,7.6555,9.4155,1.9589,-5.7971,-3.8003,11.41,-7.4566,5.8824,-0.12821
-3.8994,-7.5556,-17.496,0.0,-1.9704,-0.26016,5.8537,3.8003,-2.0163,0.0,-1.9704,-1.9704,-9.5694,-7.6461,-7.5197,-13.527,-15.395,5.641,-3.6651,0.0,-3.9744
-13.333,-17.079,-25.301001,0.0,-3.9409,-4.1626,-7.8049,1.868,-11.772,0.0,-3.9409,-7.8818,-21.052999,-24.708,-20.790001,-23.188,-28.921,1.7949,-9.3523,-11.765,-21.282
-7.673,0.06349,-7.7398,5.7971,1.9704,1.6911,3.9024,9.5974,7.7398,5.7971,1.9704,1.9704,-9.5694,-0.06319,-15.103,-7.7295,-21.191999,-0.12821,2.0221,-9.8039,-0.12821
-5.7862,-1.8413,-3.8374,0.0,-1.9704,-2.2114,3.9024,1.868,-9.8211,0.0,-1.9704,0.0,-7.6555,-5.7504,-9.4155,-7.7295,-17.327,3.7179,-1.7694,0.0,-3.9744
-7.673,-11.365,-9.6911,-7.7295,-13.793,-8.065,-11.707,-0.06441,-19.577,-7.7295,-13.793,-11.823,-1.9139,-7.6461,-3.7283,-7.7295,-13.462,1.7949,-7.4566,7.8431,-5.8974
-9.5597,-9.4603,-13.593,-11.594,-17.733999,-11.967,-13.659,-9.7262,-11.772,-11.594,-17.733999,-15.764,-7.6555,-9.5419,-7.5197,-9.6618,-15.395,-0.12821,-11.248,3.9216,-7.8205
-9.5597,-11.365,-13.593,-11.594,-13.793,-10.016,-13.659,-7.7939,-5.9187,-11.594,-13.793,-11.823,-3.8278,-3.8547,-9.4155,-7.7295,-15.395,-0.12821,-3.6651,-5.8824,-3.9744
-0.12579,-1.8413,-3.8374,3.8647,-1.9704,-0.26016,1.9512,-0.06441,-0.06504,3.8647,-1.9704,1.9704,1.9139,-1.9589,0.06319,-3.8647,-7.6651,1.7949,-7.4566,0.0,-0.12821
-5.7862,-1.8413,-7.7398,-7.7295,-3.9409,-10.016,5.8537,-7.7939,-9.8211,-7.7295,-3.9409,-1.9704,-3.8278,-13.333,0.06319,-11.594,-9.5974,-5.8974,-7.4566,3.9216,-9.7436
-0.12579,-3.746,-3.8374,-11.594,-7.8818,-10.016,0.0,-5.8615,-3.9675,-11.594,-7.8818,-3.9409,3.8278,-3.8547,5.7504,-5.7971,-1.868,1.7949,-1.7694,11.765,-0.12821
-5.7862,-11.365,-9.6911,-19.323999,-25.615999,-17.820999,-25.365999,-13.591,-7.8699,-19.323999,-25.615999,-21.674999,13.397,11.311,9.5419,-1.9324,3.9291,-7.8205,-11.248,11.765,1.7949
-3.8994,0.06349,-3.8374,-19.323999,-13.793,-21.724001,-1.9512,-19.388,-23.48,-19.323999,-13.793,-17.733999,7.6555,5.624,5.7504,1.9324,3.9291,-5.8974,-7.4566,9.8039,1.7949
-0.12579,3.873,9.8211,-13.527,-17.733999,-13.919,-13.659,-9.7262,-0.06504,-13.527,-17.733999,-11.823,9.5694,20.790001,7.6461,13.527,11.659,-9.7436,-1.7694,7.8431,17.179001
3.6478,5.7778,13.724,-5.7971,-3.9409,-10.016,-7.8049,-5.8615,7.7398,-5.7971,-3.9409,-5.9113,3.8278,1.8325,9.5419,9.6618,13.591,-7.8205,3.9179,5.8824,3.7179
-3.8994,-5.6508,0.06504,-21.256001,-19.704,-23.674999,-13.659,-17.455999,-5.9187,-21.256001,-19.704,-21.674999,0.0,-3.8547,5.7504,1.9324,7.7939,-11.667,-3.6651,5.8824,-2.0513
-5.7862,-15.175,-7.7398,-23.188,-23.645,-25.625999,-31.219999,-15.523,-9.8211,-23.188,-23.645,-29.556999,7.6555,11.311,9.5419,0.0,7.7939,-7.8205,-13.144,13.725,5.641
3.6478,-7.5556,0.06504,-5.7971,-9.8522,-11.967,-7.8049,-7.7939,-7.8699,-5.7971,-9.8522,-13.793,21.052999,18.893999,15.229,5.7971,11.659,-13.59,-1.7694,15.686,11.41
-0.12579,-1.8413,2.0163,-13.527,-17.733999,-10.016,-11.707,-5.8615,-3.9675,-13.527,-17.733999,-9.8522,-5.7416,-0.06319,5.7504,0.0,7.7939,-0.12821,-11.248,-1.9608,-2.0513
-2.0126,-9.4603,2.0163,-9.6618,-7.8818,-10.016,-13.659,-5.8615,-0.06504,-9.6618,-7.8818,-9.8522,-7.6555,-11.438,3.8547,-5.7971,3.9291,3.7179,-9.3523,1.9608,-11.667
3.6478,9.5873,11.772,3.8647,1.9704,-0.26016,5.8537,-0.06441,7.7398,3.8647,1.9704,1.9704,3.8278,-3.8547,9.5419,7.7295,11.659,-2.0513,-1.7694,3.9216,-2.0513
13.082,17.205999,23.48,13.527,17.733999,13.398,15.61,9.5974,19.447001,13.527,17.733999,13.793,7.6555,-1.9589,15.229,13.527,19.388,9.4872,15.292,7.8431,3.7179
14.969,15.302,23.48,17.391001,11.823,15.35,15.61,7.6651,17.496,17.391001,11.823,15.764,11.483,13.207,15.229,15.459,17.455999,1.7949,11.501,13.725,13.333
16.855,21.016001,25.431,5.7971,11.823,13.398,17.561001,5.7327,25.301001,5.7971,11.823,17.733999,11.483,18.893999,13.333,17.391001,13.591,11.41,2.0221,7.8431,17.179001
5.5346,9.5873,13.724,0.0,5.9113,5.5935,1.9512,1.868,5.7886,0.0,5.9113,11.823,-11.483,5.624,-3.7283,5.7971,1.9968,-5.8974,-9.3523,-13.725,5.641
3.6478,3.873,9.8211,7.7295,11.823,3.6423,9.7561,-3.9291,13.593,7.7295,11.823,11.823,-19.139,-24.708,-5.624,-3.8647,-3.8003,-0.12821,3.9179,-7.8431,-15.513
9.3082,15.302,15.675,13.527,13.793,13.398,19.511999,5.7327,21.398001,13.527,13.793,19.704,-1.9139,-7.6461,3.8547,11.594,7.7939,-0.12821,20.979,-3.9216,-0.12821
14.969,24.825001,21.528,19.323999,29.556999,17.301001,25.365999,9.5974,15.545,19.323999,29.556999,25.615999,13.397,11.311,9.5419,21.256001,17.455999,5.641,13.397,1.9608,13.333
7.4214,13.397,15.675,15.459,19.704,15.35,25.365999,7.6651,23.35,15.459,19.704,23.645,1.9139,3.7283,0.06319,11.594,7.7939,-0.12821,9.6051,-5.8824,5.641
3.6478,7.6825,11.772,11.594,13.793,9.4959,15.61,5.7327,21.398001,11.594,13.793,19.704,-5.7416,-7.6461,-3.7283,3.8647,1.9968,-2.0513,0.12638,-5.8824,-3.9744
-0.12579,11.492,9.8211,0.0,13.793,3.6423,15.61,-1.9968,15.545,0.0,13.793,11.823,-7.6555,-1.9589,-5.624,7.7295,1.9968,-2.0513,7.7093,-3.9216,1.7949
-3.8994,7.6825,2.0163,-1.9324,5.9113,-2.2114,1.9512,-5.8615,5.7886,-1.9324,5.9113,1.9704,0.0,7.5197,-9.4155,7.7295,0.06441,-5.8974,0.12638,-9.8039,9.4872
-2.0126,9.5873,3.9675,-1.9324,1.9704,-2.2114,5.8537,-1.9968,25.301001,-1.9324,1.9704,0.0,13.397,18.893999,0.06319,13.527,7.7939,-0.12821,22.875,0.0,17.179001
1.761,17.205999,7.8699,1.9324,7.8818,-4.1626,11.707,-5.8615,15.545,1.9324,7.8818,3.9409,21.052999,20.790001,5.7504,15.459,9.7262,1.7949,17.188,9.8039,15.256
-9.5597,5.7778,-7.7398,-7.7295,-3.9409,-13.919,0.0,-9.7262,3.8374,-7.7295,-3.9409,-9.8522,3.8278,7.5197,-9.4155,1.9324,-5.7327,-3.9744,0.12638,-3.9216,5.641
-9.5597,-15.175,-19.447001,-13.527,-9.8522,-6.1138,-11.707,-5.8615,9.6911,-13.527,-9.8522,-13.793,-19.139,-24.708,-15.103,-15.459,-19.259001,1.7949,-1.7694,-5.8824,-21.282
-11.447,-9.4603,-15.545,-7.7295,1.9704,-8.065,-3.9024,-5.8615,7.7398,-7.7295,1.9704,-7.8818,-21.052999,-22.812,-20.790001,-11.594,-19.259001,-2.0513,3.9179,-21.569,-13.59
-9.5597,-1.8413,-13.593,-3.8647,-1.9704,-2.2114,0.0,-0.06441,7.7398,-3.8647,-1.9704,-5.9113,-5.7416,-1.9589,-15.103,-3.8647,-11.53,-2.0513,19.084,-13.725,1.7949
-9.5597,-5.6508,-17.496,0.0,-1.9704,3.6423,-3.9024,-0.06441,9.6911,0.0,-1.9704,-3.9409,-5.7416,-5.7504,-13.207,-7.7295,-13.462,1.7949,2.0221,-7.8431,-5.8974
-15.22,-11.365,-21.398001,0.0,-3.9409,-2.2114,-3.9024,-1.9968,17.496,0.0,-3.9409,-7.8818,-13.397,-17.125,-16.997999,-13.527,-21.191999,-0.12821,3.9179,-9.8039,-11.667
-13.333,-13.27,-15.545,-1.9324,-3.9409,-4.1626,-3.9024,-0.06441,11.642,-1.9324,-3.9409,-7.8818,-13.397,-13.333,-15.103,-13.527,-19.259001,1.7949,3.9179,-5.8824,-7.8205
-3.8994,9.5873,2.0163,-1.9324,3.9409,3.6423,11.707,3.8003,5.7886,-1.9324,3.9409,5.9113,-9.5694,3.7283,-7.5197,1.9324,-7.6651,1.7949,-9.3523,-3.9216,5.641
-3.8994,-9.4603,-1.8862,-3.8647,1.9704,-0.26016,1.9512,-5.8615,5.7886,-3.8647,1.9704,1.9704,-11.483,-5.7504,-11.311,-13.527,-15.395,3.7179,2.0221,-5.8824,-5.8974
-3.8994,-15.175,-9.6911,-7.7295,-3.9409,-0.26016,-5.8537,-3.9291,-9.8211,-7.7295,-3.9409,-1.9704,-21.052999,-39.874001,-13.207,-28.986,-25.056,7.5641,0.12638,-3.9216,-36.667
5.5346,-1.8413,-1.8862,7.7295,15.764,7.5447,11.707,7.6651,5.7886,7.7295,15.764,9.8522,-3.8278,-19.021,-1.8325,-15.459,-13.462,11.41,0.12638,9.8039,-17.436001
3.6478,-3.746,-7.7398,-1.9324,3.9409,7.5447,3.9024,-0.06441,7.7398,-1.9324,3.9409,5.9113,-3.8278,-3.8547,-5.624,-11.594,-15.395,7.5641,9.6051,1.9608,-3.9744
-0.12579,-1.8413,-11.642,7.7295,1.9704,5.5935,5.8537,1.868,15.545,7.7295,1.9704,3.9409,5.7416,9.4155,-1.8325,-5.7971,-9.5974,11.41,7.7093,5.8824,5.641
-2.0126,-9.4603,-17.496,-1.9324,1.9704,1.6911,1.9512,1.868,13.593,-1.9324,1.9704,-1.9704,-24.879999,-30.395,-7.5197,-17.391001,-19.259001,9.4872,2.0221,3.9216,-21.282
-3.8994,-7.5556,-15.545,-7.7295,3.9409,-0.26016,0.0,-1.9968,7.7398,-7.7295,3.9409,-3.9409,-28.708,-43.665001,-9.4155,-19.323999,-19.259001,5.641,-22.622,0.0,-28.974001
7.4214,7.6825,2.0163,1.9324,11.823,3.6423,11.707,-1.9968,21.398001,1.9324,11.823,5.9113,1.9139,18.893999,1.9589,5.7971,1.9968,7.5641,13.397,0.0,15.256
5.5346,9.5873,7.8699,1.9324,5.9113,1.6911,7.8049,1.868,19.447001,1.9324,5.9113,7.8818,-7.6555,-9.5419,3.8547,3.8647,5.8615,3.7179,15.292,1.9608,-2.0513
7.4214,11.492,11.772,1.9324,7.8818,-0.26016,9.7561,-3.9291,13.593,1.9324,7.8818,7.8818,0.0,-5.7504,9.5419,7.7295,13.591,3.7179,9.6051,9.8039,3.7179
7.4214,13.397,11.772,-1.9324,3.9409,-4.1626,5.8537,-7.7939,13.593,-1.9324,3.9409,3.9409,9.5694,13.207,13.333,17.391001,19.388,-2.0513,19.084,11.765,15.256
3.6478,7.6825,5.9187,-1.9324,7.8818,-8.065,7.8049,-5.8615,9.6911,-1.9324,7.8818,0.0,13.397,13.207,13.333,15.459,19.388,-0.12821,11.501,7.8431,15.256
1.761,1.9683,-1.8862,0.0,11.823,-8.065,11.707,-1.9968,9.6911,0.0,11.823,-1.9704,1.9139,-7.6461,11.438,5.7971,13.591,-0.12821,3.9179,9.8039,-2.0513
3.6478,5.7778,-1.8862,0.0,3.9409,-10.016,1.9512,-3.9291,9.6911,0.0,3.9409,-3.9409,7.6555,13.207,13.333,11.594,17.455999,-0.12821,17.188,7.8431,17.179001
1.761,-1.8413,-1.8862,-1.9324,-1.9704,-11.967,-5.8537,-5.8615,21.398001,-1.9324,-1.9704,-9.8522,19.139,16.997999,15.229,11.594,19.388,-3.9744,15.292,9.8039,13.333
-0.12579,-7.5556,-3.8374,0.0,3.9409,-13.919,-1.9512,-7.7939,7.7398,0.0,3.9409,-9.8522,9.5694,7.5197,11.438,3.8647,13.591,-2.0513,-1.7694,9.8039,5.641
-7.673,-11.365,-11.642,-1.9324,-3.9409,-11.967,-13.659,-5.8615,-0.06504,-1.9324,-3.9409,-13.793,1.9139,1.8325,0.06319,-5.7971,1.9968,-7.8205,-11.248,0.0,-2.0513
-2.0126,-11.365,-5.7886,5.7971,17.733999,-8.065,-7.8049,1.868,-0.06504,5.7971,17.733999,-7.8818,13.397,11.311,7.6461,-1.9324,7.7939,3.7179,-3.6651,13.725,3.7179
-7.673,-7.5556,-7.7398,0.0,5.9113,-10.016,1.9512,-1.9968,-0.06504,0.0,5.9113,-9.8522,-1.9139,11.311,-1.8325,1.9324,3.9291,-0.12821,7.7093,-5.8824,9.4872
-9.5597,-7.5556,-11.642,-5.7971,-1.9704,-10.016,-3.9024,-7.7939,11.642,-5.7971,-1.9704,-13.793,-1.9139,3.7283,-5.624,-1.9324,0.06441,-0.12821,3.9179,-5.8824,1.7949
-9.5597,-13.27,-13.593,-7.7295,-7.8818,-6.1138,-13.659,-3.9291,11.642,-7.7295,-7.8818,-13.793,-11.483,-15.229,-9.4155,-9.6618,-5.7327,1.7949,-7.4566,-13.725,-13.59
-5.7862,-7.5556,-9.6911,7.7295,1.9704,-0.26016,-3.9024,7.6651,-3.9675,7.7295,1.9704,-5.9113,-1.9139,-5.7504,-5.624,-7.7295,-3.8003,-0.12821,-9.3523,-11.765,-9.7436
-7.673,-7.5556,-9.6911,0.0,1.9704,-4.1626,-3.9024,1.868,1.8862,0.0,1.9704,-7.8818,1.9139,5.624,-5.624,-3.8647,-3.8003,-0.12821,3.9179,-9.8039,-2.0513
-5.7862,-5.6508,-3.8374,1.9324,3.9409,1.6911,-5.8537,1.868,7.7398,1.9324,3.9409,-1.9704,1.9139,7.5197,-3.7283,0.0,0.06441,3.7179,9.6051,-5.8824,3.7179
1.761,3.873,2.0163,15.459,21.674999,9.4959,13.659,9.5974,13.593,15.459,21.674999,9.8522,1.9139,-1.9589,-1.8325,-1.9324,-1.868,9.4872,3.9179,-1.9608,-5.8974
-7.673,-5.6508,-9.6911,-1.9324,-5.9113,3.6423,5.8537,-0.06441,1.8862,-1.9324,-5.9113,0.0,-17.225,-15.229,-15.103,-15.459,-19.259001,1.7949,-5.5608,-7.8431,-15.513
-2.0126,-3.746,-3.8374,9.6618,1.9704,11.447,5.8537,5.7327,3.8374,9.6618,1.9704,9.8522,-17.225,-20.916,-15.103,-13.527,-19.259001,5.641,-11.248,-7.8431,-15.513
-2.0126,-9.4603,-7.7398,0.0,0.0,7.5447,0.0,-1.9968,-3.9675,0.0,0.0,3.9409,-21.052999,-26.603001,-13.207,-21.256001,-21.191999,3.7179,-9.3523,-3.9216,-25.128
5.5346,1.9683,2.0163,3.8647,3.9409,7.5447,9.7561,3.8003,9.6911,3.8647,3.9409,7.8818,-5.7416,-0.06319,-1.8325,-3.8647,-7.6651,5.641,2.0221,1.9608,-0.12821
9.3082,5.7778,9.8211,5.7971,5.9113,7.5447,1.9512,5.7327,1.8862,5.7971,5.9113,7.8818,13.397,11.311,9.5419,7.7295,3.9291,7.5641,9.6051,11.765,9.4872
1.761,9.5873,3.9675,-1.9324,1.9704,-0.26016,9.7561,-7.7939,1.8862,-1.9324,1.9704,1.9704,-3.8278,5.624,3.8547,3.8647,0.06441,-0.12821,-5.5608,3.9216,7.5641
-2.0126,0.06349,-3.8374,-7.7295,-5.9113,-2.2114,-3.9024,-9.7262,3.8374,-7.7295,-5.9113,-3.9409,0.0,3.7283,3.8547,3.8647,0.06441,-3.9744,0.12638,3.9216,5.641
7.4214,3.873,7.8699,1.9324,1.9704,5.5935,3.9024,-9.7262,7.7398,1.9324,1.9704,3.9409,-3.8278,-1.9589,7.6461,5.7971,3.9291,1.7949,-1.7694,3.9216,3.7179
14.969,13.397,17.625999,3.8647,5.9113,13.398,13.659,3.8003,17.496,3.8647,5.9113,9.8522,3.8278,3.7283,17.125,13.527,17.455999,3.7179,11.501,7.8431,7.5641
11.195,7.6825,11.772,1.9324,1.9704,1.6911,0.0,-0.06441,9.6911,1.9324,1.9704,1.9704,13.397,-0.06319,17.125,11.594,17.455999,1.7949,13.397,9.8039,1.7949
3.6478,1.9683,5.9187,-5.7971,-7.8818,-6.1138,-7.8049,-7.7939,-3.9675,-5.7971,-7.8818,-7.8818,-1.9139,-1.9589,11.438,7.7295,9.7262,1.7949,3.9179,5.8824,3.7179
7.4214,9.5873,9.8211,-1.9324,0.0,-2.2114,-1.9512,-7.7939,-0.06504,-1.9324,0.0,-3.9409,7.6555,16.997999,13.333,17.391001,13.591,-0.12821,-5.5608,7.8431,15.256
7.4214,19.111,17.625999,-5.7971,-3.9409,-4.1626,3.9024,-11.659,5.7886,-5.7971,-3.9409,1.9704,19.139,28.372999,17.125,23.188,19.388,-2.0513,9.6051,13.725,24.872
9.3082,15.302,17.625999,-5.7971,-7.8818,-0.26016,-3.9024,-5.8615,7.7398,-5.7971,-7.8818,3.9409,5.7416,1.8325,13.333,17.391001,13.591,-2.0513,5.8136,9.8039,9.4872
5.5346,13.397,13.724,-3.8647,-1.9704,-0.26016,0.0,-3.9291,-3.9675,-3.8647,-1.9704,1.9704,5.7416,3.7283,11.438,15.459,11.659,-0.12821,-7.4566,11.765,7.5641
-0.12579,1.9683,3.9675,-7.7295,-11.823,-6.1138,-9.7561,-5.8615,5.7886,-7.7295,-11.823,-5.9113,5.7416,16.997999,7.6461,13.527,9.7262,1.7949,13.397,7.8431,17.179001
-2.0126,-5.6508,0.06504,-3.8647,-3.9409,-6.1138,-11.707,-9.7262,-11.772,-3.8647,-3.9409,-5.9113,-13.397,-11.438,0.06319,1.9324,3.9291,-2.0513,-9.3523,-1.9608,-3.9744
1.761,1.9683,3.9675,0.0,0.0,-0.26016,7.8049,-5.8615,-15.675,0.0,0.0,3.9409,-5.7416,-3.8547,0.06319,5.7971,5.8615,-3.9744,-15.039,-9.8039,-2.0513
16.855,19.111,23.48,25.121,19.704,13.398,17.561001,7.6651,15.545,25.121,19.704,23.645,24.879999,24.580999,15.229,21.256001,21.32,1.7949,17.188,5.8824,21.025999
13.082,11.492,17.625999,11.594,9.8522,9.4959,7.8049,5.7327,23.35,11.594,9.8522,15.764,15.311,18.893999,13.333,17.391001,17.455999,-0.12821,17.188,5.8824,15.256
7.4214,1.9683,11.772,7.7295,13.793,1.6911,3.9024,3.8003,-5.9187,7.7295,13.793,9.8522,9.5694,20.790001,7.6461,11.594,13.591,-2.0513,-1.7694,1.9608,11.41
5.5346,3.873,11.772,3.8647,3.9409,-0.26016,-1.9512,1.868,11.642,3.8647,3.9409,7.8818,13.397,15.103,7.6461,11.594,11.659,-3.9744,0.12638,3.9216,11.41
-0.12579,-3.746,5.9187,-1.9324,1.9704,-8.065,0.0,-3.9291,-5.9187,-1.9324,1.9704,1.9704,13.397,5.624,1.9589,3.8647,5.8615,-2.0513,-3.6651,1.9608,1.7949
-15.22,-9.4603,-5.7886,-3.8647,-7.8818,-15.87,-11.707,-9.7262,-11.772,-3.8647,-7.8818,-5.9113,0.0,3.7283,-9.4155,0.0,-1.868,-11.667,-7.4566,-13.725,1.7949
-20.881001,-13.27,-23.35,-3.8647,-3.9409,-21.724001,-11.707,-5.8615,-0.06504,-3.8647,-3.9409,-13.793,-9.5694,-5.7504,-20.790001,-9.6618,-13.462,-11.667,-9.3523,-17.646999,-7.8205
-24.653999,-15.175,-33.105999,-3.8647,-5.9113,-19.771999,-13.659,-1.9968,-5.9187,-3.8647,-5.9113,-17.733999,-5.7416,-1.9589,-24.580999,-11.594,-19.259001,-5.8974,-7.4566,-15.686,-7.8205
-11.447,-5.6508,-19.447001,11.594,13.793,-0.26016,3.9024,7.6651,5.7886,11.594,13.793,1.9704,-1.9139,-3.8547,-18.893999,-7.7295,-15.395,-0.12821,-3.6651,-13.725,-5.8974
-5.7862,-1.8413,-11.642,17.391001,19.704,3.6423,9.7561,9.5974,7.7398,17.391001,19.704,9.8522,7.6555,13.207,-13.207,-1.9324,-9.5974,1.7949,11.501,-11.765,7.5641
-7.673,-9.4603,-17.496,21.256001,17.733999,7.5447,5.8537,9.5974,17.496,21.256001,17.733999,5.9113,-5.7416,3.7283,-16.997999,-11.594,-15.395,1.7949,2.0221,-13.725,-2.0513
-9.5597,-13.27,-19.447001,11.594,11.823,-0.26016,9.7561,7.6651,7.7398,11.594,11.823,0.0,-3.8278,-11.438,-16.997999,-19.323999,-19.259001,-0.12821,-5.5608,-13.725,-17.436001
-7.673,-11.365,-11.642,11.594,17.733999,-0.26016,9.7561,3.8003,-0.06504,11.594,17.733999,1.9704,-3.8278,-9.5419,-13.207,-15.459,-13.462,-2.0513,-7.4566,-9.8039,-11.667
-5.7862,-13.27,-9.6911,7.7295,5.9113,-0.26016,-5.8537,-1.9968,1.8862,7.7295,5.9113,-3.9409,-7.6555,-7.6461,-13.207,-15.459,-13.462,1.7949,-7.4566,-3.9216,-11.667
-3.8994,0.06349,-5.7886,5.7971,3.9409,1.6911,1.9512,-0.06441,-5.9187,5.7971,3.9409,-3.9409,-5.7416,3.7283,-9.4155,-3.8647,-7.6651,1.7949,-11.248,-3.9216,-0.12821
1.761,-1.8413,3.9675,17.391001,9.8522,9.4959,0.0,3.8003,-0.06504,17.391001,9.8522,3.9409,5.7416,9.4155,-1.8325,1.9324,0.06441,3.7179,0.12638,1.9608,5.641
1.761,1.9683,7.8699,7.7295,5.9113,11.447,1.9512,7.6651,7.7398,7.7295,5.9113,5.9113,-3.8278,-13.333,-5.624,-3.8647,-3.8003,9.4872,-7.4566,-1.9608,-9.7436
-3.8994,0.06349,0.06504,3.8647,5.9113,1.6911,7.8049,-1.9968,7.7398,3.8647,5.9113,3.9409,-9.5694,-9.5419,-9.4155,-7.7295,-7.6651,3.7179,0.12638,-3.9216,-7.8205
-5.7862,-1.8413,-7.7398,-1.9324,1.9704,1.6911,3.9024,-3.9291,-9.8211,-1.9324,1.9704,-1.9704,-3.8278,-7.6461,-5.624,-3.8647,-5.7327,3.7179,0.12638,-1.9608,-3.9744
-2.0126,0.06349,-7.7398,0.0,1.9704,1.6911,7.8049,-3.9291,-2.0163,0.0,1.9704,0.0,-1.9139,7.5197,0.06319,1.9324,0.06441,5.641,2.0221,3.9216,9.4872
-2.0126,-3.746,-5.7886,1.9324,1.9704,5.5935,1.9512,-1.9968,5.7886,1.9324,1.9704,3.9409,-1.9139,5.624,1.9589,-1.9324,1.9968,3.7179,0.12638,3.9216,3.7179
7.4214,0.06349,5.9187,1.9324,7.8818,7.5447,7.8049,-11.659,-5.9187,1.9324,7.8818,9.8522,1.9139,5.624,5.7504,1.9324,7.7939,5.641,0.12638,5.8824,5.641
16.855,17.205999,19.577,-1.9324,0.0,13.398,11.707,-5.8615,13.593,-1.9324,0.0,13.793,13.397,11.311,19.021,13.527,19.388,3.7179,5.8136,13.725,11.41
13.082,5.7778,15.675,-9.6618,-3.9409,5.5935,-1.9512,-7.7939,7.7398,-9.6618,-3.9409,3.9409,15.311,-1.9589,19.021,7.7295,21.32,5.641,3.9179,13.725,-3.9744
9.3082,7.6825,11.772,-11.594,-7.8818,-0.26016,-1.9512,-13.591,1.8862,-11.594,-7.8818,0.0,13.397,9.4155,19.021,11.594,23.253,-2.0513,9.6051,9.8039,3.7179
3.6478,11.492,11.772,-19.323999,-9.8522,-6.1138,1.9512,-21.32,-11.772,-19.323999,-9.8522,-3.9409,7.6555,5.624,13.333,11.594,21.32,-7.8205,-7.4566,7.8431,3.7179
7.4214,15.302,17.625999,-19.323999,-15.764,-8.065,-3.9024,-23.253,3.8374,-19.323999,-15.764,-1.9704,15.311,15.103,17.125,21.256001,27.118,-7.8205,9.6051,9.8039,13.333
16.855,26.73,23.48,-13.527,-11.823,-0.26016,1.9512,-13.591,7.7398,-13.527,-11.823,5.9113,28.708,37.852001,26.603001,34.783001,36.778999,-2.0513,13.397,19.608,32.563999
13.082,24.825001,19.577,-11.594,-3.9409,1.6911,19.511999,-15.523,-9.8211,-11.594,-3.9409,9.8522,13.397,11.311,19.021,23.188,27.118,-5.8974,-3.6651,13.725,9.4872
3.6478,9.5873,13.724,-11.594,-3.9409,-8.065,3.9024,-17.455999,1.8862,-11.594,-3.9409,3.9409,1.9139,-3.8547,7.6461,7.7295,13.591,-9.7436,2.0221,0.0,-3.9744
-0.12579,3.873,11.772,-13.527,-1.9704,-10.016,-1.9512,-17.455999,5.7886,-13.527,-1.9704,0.0,5.7416,-3.8547,5.7504,1.9324,5.8615,-9.7436,2.0221,3.9216,-3.9744
1.761,5.7778,13.724,-15.459,-3.9409,-11.967,0.0,-17.455999,-0.06504,-15.459,-3.9409,-1.9704,13.397,15.103,9.5419,5.7971,5.8615,-9.7436,3.9179,7.8431,7.5641
1.761,3.873,9.8211,-3.8647,0.0,-11.967,1.9512,-15.523,-0.06504,-3.8647,0.0,-1.9704,11.483,18.893999,5.7504,5.7971,0.06441,-7.8205,9.6051,11.765,13.333
-13.333,-15.175,-11.642,-23.188,-21.674999,-23.674999,-19.511999,-23.253,-3.9675,-23.188,-21.674999,-21.674999,0.0,-13.333,-11.311,-19.323999,-23.124001,-15.513,-5.5608,1.9608,-19.358999
-7.673,-7.5556,-7.7398,-13.527,-7.8818,-13.919,-9.7561,-17.455999,-2.0163,-13.527,-7.8818,-13.793,3.8278,-3.8547,-11.311,-17.391001,-23.124001,-13.59,-5.5608,-5.8824,-13.59
-15.22,-11.365,-15.545,-9.6618,-9.8522,-13.919,-9.7561,-11.659,1.8862,-9.6618,-9.8522,-13.793,-1.9139,-13.333,-16.997999,-25.121,-26.989,-9.7436,2.0221,-7.8431,-19.358999
-17.107,-11.365,-17.496,-5.7971,-1.9704,-13.919,-7.8049,-9.7262,3.8374,-5.7971,-1.9704,-9.8522,-7.6555,-15.229,-22.686001,-27.052999,-30.853001,-9.7436,-7.4566,-13.725,-21.282
-20.881001,-15.175,-19.447001,-13.527,-7.8818,-19.771999,-7.8049,-17.455999,5.7886,-13.527,-7.8818,-13.793,-3.8278,-1.9589,-20.790001,-21.256001,-26.989,-13.59,2.0221,-11.765,-11.667
-11.447,-11.365,-11.642,-11.594,-3.9409,-13.919,-3.9024,-11.659,-3.9675,-11.594,-3.9409,-7.8818,-5.7416,-7.6461,-11.311,-15.459,-13.462,-3.9744,2.0221,-3.9216,-11.667
-3.8994,-3.746,0.06504,-11.594,-7.8818,-8.065,-9.7561,-9.7262,-0.06504,-11.594,-7.8818,-3.9409,0.0,-3.8547,0.06319,-1.9324,1.9968,-5.8974,0.12638,0.0,-3.9744
7.4214,11.492,13.724,-1.9324,0.0,-0.26016,1.9512,-3.9291,11.642,-1.9324,0.0,5.9113,9.5694,5.624,15.229,11.594,19.388,-0.12821,3.9179,7.8431,7.5641
13.082,21.016001,25.431,5.7971,7.8818,3.6423,11.707,-3.9291,25.301001,5.7971,7.8818,13.793,13.397,18.893999,24.708,27.052999,30.982,1.7949,15.292,15.686,22.948999
14.969,21.016001,27.382,3.8647,11.823,5.5935,13.659,-5.8615,13.593,3.8647,11.823,13.793,24.879999,16.997999,28.499001,27.052999,34.847,-0.12821,15.292,21.569,21.025999
16.855,17.205999,27.382,0.0,1.9704,7.5447,5.8537,-5.8615,9.6911,0.0,1.9704,9.8522,13.397,26.476999,32.291,32.849998,36.778999,-2.0513,15.292,19.608,28.718
20.629,21.016001,27.382,1.9324,3.9409,7.5447,11.707,-0.06441,15.545,1.9324,3.9409,11.823,9.5694,13.207,34.186001,30.917999,38.712002,1.7949,13.397,23.528999,26.795
22.516001,21.016001,31.285,0.0,1.9704,3.6423,11.707,-9.7262,5.7886,0.0,1.9704,13.793,22.966999,30.268999,41.769001,36.715,44.508999,1.7949,7.7093,33.333,40.256001
28.176001,26.73,37.138,1.9324,9.8522,11.447,7.8049,-3.9291,1.8862,1.9324,9.8522,17.733999,32.535999,45.433998,49.352001,46.376999,52.237999,1.7949,15.292,31.372999,46.026001
28.176001,26.73,33.236,5.7971,13.793,9.4959,7.8049,-0.06441,1.8862,5.7971,13.793,13.793,26.794001,26.476999,47.457001,40.580002,52.237999,5.641,5.8136,25.49,30.641001
14.969,11.492,13.724,-5.7971,-3.9409,-0.26016,-7.8049,-3.9291,7.7398,-5.7971,-3.9409,-3.9409,13.397,7.5197,34.186001,27.052999,38.712002,-0.12821,-3.6651,21.569,17.179001
14.969,7.6825,13.724,-3.8647,-9.8522,-2.2114,-5.8537,-3.9291,-3.9675,-3.8647,-9.8522,-5.9113,22.966999,30.268999,32.291,30.917999,38.712002,-0.12821,15.292,21.569,30.641001
3.6478,0.06349,3.9675,-7.7295,-15.764,-6.1138,-15.61,-5.8615,-5.9187,-7.7295,-15.764,-13.793,22.966999,30.268999,24.708,23.188,30.982,-3.9744,3.9179,21.569,24.872
-0.12579,-3.746,-7.7398,1.9324,3.9409,-10.016,-7.8049,1.868,-2.0163,1.9324,3.9409,-13.793,13.397,20.790001,17.125,15.459,23.253,-2.0513,7.7093,15.686,21.025999
-5.7862,-5.6508,-17.496,-1.9324,-3.9409,-10.016,-23.415001,5.7327,1.8862,-1.9324,-3.9409,-19.704,9.5694,9.4155,9.5419,7.7295,13.591,-5.8974,-1.7694,3.9216,7.5641
-9.5597,-9.4603,-17.496,-3.8647,-7.8818,-13.919,-19.511999,1.868,-2.0163,-3.8647,-7.8818,-19.704,7.6555,15.103,-1.8325,5.7971,5.8615,-3.9744,2.0221,-5.8824,9.4872
-11.447,-5.6508,-13.593,-5.7971,-5.9113,-10.016,-7.8049,3.8003,-13.724,-5.7971,-5.9113,-11.823,-1.9139,-3.8547,-7.5197,-1.9324,-3.8003,-5.8974,-1.7694,-7.8431,-3.9744
-15.22,-3.746,-13.593,-1.9324,-3.9409,-11.967,-9.7561,1.868,-7.8699,-1.9324,-3.9409,-11.823,0.0,1.8325,-11.311,-3.8647,-7.6651,-3.9744,-9.3523,-3.9216,-3.9744
-18.993999,-15.175,-17.496,-3.8647,-1.9704,-15.87,-13.659,-1.9968,9.6911,-3.8647,-1.9704,-15.764,1.9139,11.311,-18.893999,-7.7295,-15.395,-5.8974,9.6051,-7.8431,3.7179
-24.653999,-22.794001,-27.252001,-9.6618,-15.764,-23.674999,-25.365999,-3.9291,1.8862,-9.6618,-15.764,-25.615999,-15.311,-17.125,-26.476999,-21.256001,-25.056,-5.8974,-5.5608,-15.686,-19.358999
-30.313999,-32.317001,-35.056999,-17.391001,-25.615999,-29.528,-35.122002,-5.8615,-13.724,-17.391001,-25.615999,-33.498001,-26.794001,-32.291,-34.060001,-32.849998,-36.651001,-5.8974,-28.309999,-23.528999,-30.896999
-32.201,-30.413,-33.105999,-9.6618,-15.764,-27.577,-25.365999,-0.06441,-13.724,-9.6618,-15.764,-27.586,-32.535999,-30.395,-37.852001,-32.849998,-40.514999,-3.9744,-9.3523,-29.412001,-28.974001
-24.653999,-24.698,-25.301001,-3.8647,-11.823,-17.820999,-23.415001,3.8003,-3.9675,-3.8647,-11.823,-19.704,-13.397,-11.438,-32.164001,-25.121,-34.717999,-3.9744,-9.3523,-27.451,-17.436001
-17.107,-18.983999,-21.398001,3.8647,0.0,-8.065,-11.707,7.6651,3.8374,3.8647,0.0,-7.8818,-17.225,-20.916,-30.268999,-25.121,-34.717999,3.7179,-11.248,-19.608,-23.205
-9.5597,-17.079,-15.545,9.6618,7.8818,-0.26016,-1.9512,11.53,-2.0163,9.6618,7.8818,0.0,-9.5694,-11.438,-22.686001,-23.188,-26.989,9.4872,-1.7694,-9.8039,-19.358999
-7.673,-13.27,-9.6911,11.594,0.0,1.6911,-9.7561,7.6651,-2.0163,11.594,0.0,0.0,-7.6555,-7.6461,-20.790001,-17.391001,-23.124001,3.7179,-11.248,-17.646999,-15.513
7.4214,1.9683,5.9187,17.391001,9.8522,21.202999,13.659,23.124001,5.7886,17.391001,9.8522,15.764,-7.6555,-9.5419,-11.311,-9.6618,-13.462,15.256,-3.6651,-9.8039,-11.667
3.6478,1.9683,7.8699,13.527,1.9704,17.301001,5.8537,19.259001,1.8862,13.527,1.9704,13.793,-1.9139,-1.9589,-11.311,-7.7295,-13.462,11.41,0.12638,-7.8431,-7.8205
-0.12579,1.9683,7.8699,13.527,3.9409,13.398,3.9024,9.5974,1.8862,13.527,3.9409,11.823,-13.397,-13.333,-16.997999,-13.527,-19.259001,7.5641,0.12638,-11.765,-15.513
1.761,3.873,11.772,15.459,13.793,19.252001,15.61,13.462,-0.06504,15.459,13.793,19.704,-13.397,-11.438,-15.103,-9.6618,-17.327,7.5641,0.12638,-11.765,-11.667
13.082,13.397,21.528,30.917999,31.527,27.056999,31.219999,15.395,9.6911,30.917999,31.527,31.527,-3.8278,-1.9589,-3.7283,0.0,-5.7327,13.333,-1.7694,-3.9216,-0.12821
9.3082,13.397,17.625999,17.391001,7.8818,23.153999,11.707,19.259001,13.593,17.391001,7.8818,21.674999,-7.6555,3.7283,-5.624,-1.9324,-7.6651,5.641,-13.144,-9.8039,1.7949
14.969,3.873,13.724,17.391001,11.823,27.056999,7.8049,19.259001,7.7398,17.391001,11.823,19.704,0.0,7.5197,-1.8325,-1.9324,-5.7327,19.103001,7.7093,0.0,1.7949
13.082,11.492,13.724,23.188,15.764,27.056999,25.365999,21.191999,9.6911,23.188,15.764,23.645,-5.7416,-9.5419,-1.8325,-3.8647,-7.6651,15.256,11.501,-1.9608,-9.7436
9.3082,7.6825,5.9187,21.256001,17.733999,21.202999,17.561001,19.259001,11.642,21.256001,17.733999,19.704,-9.5694,-17.125,-5.624,-9.6618,-15.395,11.41,5.8136,-9.8039,-13.59
7.4214,3.873,3.9675,19.323999,15.764,21.202999,19.511999,11.53,15.545,19.323999,15.764,17.733999,-19.139,-22.812,-7.5197,-13.527,-19.259001,9.4872,3.9179,-7.8431,-17.436001
7.4214,7.6825,5.9187,13.527,15.764,17.301001,23.415001,13.462,-5.9187,13.527,15.764,13.793,-21.052999,-24.708,-5.624,-9.6618,-15.395,9.4872,9.6051,-1.9608,-13.59
3.6478,7.6825,3.9675,7.7295,5.9113,7.5447,11.707,7.6651,11.642,7.7295,5.9113,5.9113,-11.483,-17.125,-5.624,-7.7295,-13.462,7.5641,-1.7694,-5.8824,-11.667
3.6478,7.6825,5.9187,5.7971,3.9409,7.5447,13.659,5.7327,21.398001,5.7971,3.9409,5.9113,-7.6555,-17.125,-3.7283,-3.8647,-9.5974,7.5641,5.8136,-3.9216,-11.667
5.5346,13.397,5.9187,7.7295,11.823,11.447,25.365999,5.7327,11.642,7.7295,11.823,11.823,-5.7416,-11.438,-1.8325,0.0,-7.6651,7.5641,13.397,0.0,-0.12821
5.5346,17.205999,7.8699,19.323999,23.645,19.252001,39.023998,11.53,19.447001,19.323999,23.645,21.674999,-3.8278,-5.7504,-1.8325,3.8647,-5.7327,7.5641,17.188,0.0,-0.12821
-0.12579,13.397,3.9675,13.527,23.645,7.5447,29.268,9.5974,25.301001,13.527,23.645,15.764,15.311,5.624,1.9589,3.8647,-5.7327,5.641,9.6051,17.646999,5.641
-7.673,3.873,-7.7398,1.9324,9.8522,-2.2114,17.561001,1.868,17.496,1.9324,9.8522,5.9113,-22.966999,-17.125,-16.997999,-7.7295,-21.191999,-3.9744,7.7093,-17.646999,-9.7436
-2.0126,11.492,-3.8374,9.6618,13.793,1.6911,23.415001,5.7327,9.6911,9.6618,13.793,9.8522,-26.794001,-13.333,-15.103,-1.9324,-17.327,3.7179,2.0221,-21.569,-7.8205
-2.0126,3.873,-7.7398,-3.8647,-1.9704,-2.2114,5.8537,-0.06441,13.593,-3.8647,-1.9704,0.0,-13.397,-7.6461,-9.4155,-3.8647,-17.327,3.7179,15.292,-9.8039,-5.8974
7.4214,5.7778,0.06504,3.8647,9.8522,1.6911,9.7561,1.868,9.6911,3.8647,9.8522,3.9409,-15.311,-9.5419,-3.7283,-1.9324,-11.53,9.4872,5.8136,-3.9216,-2.0513
-3.8994,-1.8413,-7.7398,-3.8647,-11.823,-6.1138,-1.9512,-5.8615,-5.9187,-3.8647,-11.823,-7.8818,-17.225,-17.125,-7.5197,-7.7295,-19.259001,-0.12821,0.12638,-3.9216,-9.7436
1.761,-1.8413,-3.8374,-5.7971,-5.9113,-4.1626,-1.9512,-1.9968,-5.9187,-5.7971,-5.9113,-3.9409,-15.311,-15.229,-5.624,-7.7295,-15.395,3.7179,3.9179,-3.9216,-9.7436
1.761,1.9683,-1.8862,-5.7971,1.9704,-2.2114,-7.8049,-0.06441,-19.577,-5.7971,1.9704,0.0,-13.397,-17.125,-1.8325,-9.6618,-15.395,3.7179,-9.3523,3.9216,-11.667
-2.0126,-9.4603,-7.7398,-5.7971,-1.9704,-2.2114,-7.8049,-1.9968,-2.0163,-5.7971,-1.9704,0.0,-15.311,-13.333,-11.311,-17.391001,-23.124001,1.7949,-5.5608,-3.9216,-11.667
3.6478,-3.746,0.06504,3.8647,0.0,7.5447,3.9024,7.6651,9.6911,3.8647,0.0,7.8818,-5.7416,-13.333,-7.5197,-15.459,-17.327,3.7179,0.12638,0.0,-11.667
5.5346,0.06349,2.0163,17.391001,15.764,13.398,15.61,7.6651,5.7886,17.391001,15.764,15.764,-9.5694,-9.5419,-7.5197,-11.594,-15.395,5.641,-9.3523,-5.8824,-7.8205
5.5346,0.06349,5.9187,11.594,17.733999,13.398,17.561001,13.462,15.545,11.594,17.733999,15.764,-7.6555,-13.333,-3.7283,-11.594,-11.53,9.4872,7.7093,-3.9216,-11.667
7.4214,-1.8413,5.9187,5.7971,5.9113,13.398,7.8049,11.53,1.8862,5.7971,5.9113,9.8522,-5.7416,-11.438,0.06319,-9.6618,-7.6651,7.5641,3.9179,3.9216,-9.7436
5.5346,0.06349,3.9675,0.0,-5.9113,3.6423,-7.8049,1.868,-2.0163,0.0,-5.9113,1.9704,-3.8278,-3.8547,0.06319,-3.8647,-3.8003,3.7179,-9.3523,0.0,-2.0513
7.4214,3.873,5.9187,-5.7971,-7.8818,1.6911,-1.9512,1.868,-2.0163,-5.7971,-7.8818,-1.9704,0.0,9.4155,5.7504,5.7971,5.8615,1.7949,11.501,1.9608,9.4872
7.4214,0.06349,2.0163,-5.7971,-7.8818,1.6911,-3.9024,-1.9968,-15.675,-5.7971,-7.8818,-1.9704,0.0,-7.6461,5.7504,1.9324,5.8615,1.7949,7.7093,3.9216,-3.9744
-2.0126,-3.746,-3.8374,-13.527,-19.704,-4.1626,-11.707,-3.9291,1.8862,-13.527,-19.704,-9.8522,1.9139,-15.229,0.06319,-3.8647,0.06441,-5.8974,-5.5608,-1.9608,-15.513
3.6478,7.6825,3.9675,-7.7295,-9.8522,5.5935,3.9024,-0.06441,3.8374,-7.7295,-9.8522,0.0,-5.7416,-3.8547,0.06319,1.9324,3.9291,-0.12821,3.9179,0.0,-2.0513
-2.0126,-5.6508,-3.8374,-13.527,-13.793,-0.26016,-5.8537,-5.8615,-5.9187,-13.527,-13.793,-5.9113,-5.7416,-17.125,-1.8325,-3.8647,-1.868,-3.9744,-3.6651,5.8824,-7.8205
1.761,-1.8413,-1.8862,-3.8647,-3.9409,3.6423,5.8537,-3.9291,-9.8211,-3.8647,-3.9409,1.9704,1.9139,3.7283,1.9589,5.7971,5.8615,1.7949,3.9179,7.8431,7.5641
-7.673,-1.8413,-13.593,-9.6618,-9.8522,-2.2114,-1.9512,-3.9291,-9.8211,-9.6618,-9.8522,-7.8818,3.8278,7.5197,-1.8325,5.7971,3.9291,-3.9744,2.0221,5.8824,9.4872
-9.5597,-1.8413,-15.545,-5.7971,-7.8818,-8.065,-1.9512,-11.659,-0.06504,-5.7971,-7.8818,-7.8818,1.9139,7.5197,-3.7283,7.7295,1.9968,-3.9744,5.8136,1.9608,15.256
-2.0126,3.873,-3.8374,-7.7295,-7.8818,-0.26016,1.9512,-1.9968,-0.06504,-7.7295,-7.8818,0.0,9.5694,22.686001,3.8547,17.391001,9.7262,-3.9744,7.7093,9.8039,28.718
5.5346,11.492,7.8699,0.0,11.823,3.6423,11.707,-1.9968,11.642,0.0,11.823,9.8522,13.397,15.103,13.333,21.256001,17.455999,1.7949,24.771,19.608,24.872
5.5346,13.397,7.8699,-1.9324,1.9704,3.6423,1.9512,1.868,11.642,-1.9324,1.9704,1.9704,22.966999,37.852001,17.125,27.052999,19.388,-0.12821,22.875,19.608,38.333
1.761,9.5873,0.06504,-9.6618,-5.9113,-11.967,1.9512,-9.7262,-5.9187,-9.6618,-5.9113,-7.8818,21.052999,22.686001,17.125,15.459,13.591,-2.0513,-1.7694,23.528999,21.025999
-0.12579,-1.8413,-3.8374,-13.527,-11.823,-17.820999,-5.8537,-15.523,-3.9675,-13.527,-11.823,-11.823,3.8278,-3.8547,13.333,3.8647,7.7939,-2.0513,-3.6651,17.646999,-0.12821
-3.8994,-9.4603,-9.6911,-13.527,-7.8818,-15.87,-11.707,-11.659,-5.9187,-13.527,-7.8818,-9.8522,0.0,-3.8547,7.6461,-1.9324,1.9968,-3.9744,-1.7694,15.686,1.7949
-3.8994,-3.746,-7.7398,-9.6618,-7.8818,-11.967,-13.659,-9.7262,-17.625999,-9.6618,-7.8818,-5.9113,3.8278,7.5197,7.6461,3.8647,3.9291,-3.9744,-7.4566,15.686,9.4872
3.6478,9.5873,7.8699,-1.9324,1.9704,-2.2114,7.8049,-3.9291,-11.772,-1.9324,1.9704,9.8522,11.483,16.997999,9.5419,15.459,11.659,3.7179,13.397,13.725,21.025999
9.3082,22.921,19.577,5.7971,17.733999,7.5447,19.511999,-0.06441,3.8374,5.7971,17.733999,19.704,13.397,18.893999,15.229,21.256001,17.455999,7.5641,-1.7694,17.646999,19.103001
7.4214,7.6825,13.724,3.8647,1.9704,7.5447,3.9024,-3.9291,11.642,3.8647,1.9704,13.793,-5.7416,-15.229,9.5419,3.8647,7.7939,3.7179,3.9179,9.8039,-3.9744
-0.12579,0.06349,7.8699,7.7295,3.9409,-0.26016,0.0,-9.7262,-0.06504,7.7295,3.9409,9.8522,-9.5694,-15.229,3.8547,-1.9324,1.9968,1.7949,-5.5608,9.8039,-5.8974
1.761,13.397,9.8211,1.9324,1.9704,-0.26016,3.9024,-0.06441,-5.9187,1.9324,1.9704,9.8522,0.0,1.8325,5.7504,5.7971,3.9291,3.7179,-16.934999,9.8039,-0.12821
7.4214,7.6825,9.8211,5.7971,7.8818,5.5935,5.8537,1.868,-15.675,5.7971,7.8818,9.8522,1.9139,-1.9589,5.7504,5.7971,3.9291,7.5641,-1.7694,5.8824,1.7949
3.6478,11.492,7.8699,7.7295,7.8818,3.6423,9.7561,3.8003,5.7886,7.7295,7.8818,9.8522,1.9139,3.7283,3.8547,5.7971,5.8615,7.5641,0.12638,3.9216,1.7949
13.082,9.5873,17.625999,9.6618,11.823,11.447,13.659,13.462,5.7886,9.6618,11.823,13.793,15.311,16.997999,11.438,13.527,15.523,13.333,9.6051,9.8039,11.41
5.5346,3.873,11.772,0.0,3.9409,1.6911,-5.8537,1.868,1.8862,0.0,3.9409,1.9704,9.5694,18.893999,7.6461,11.594,13.591,11.41,3.9179,3.9216,11.41
3.6478,0.06349,3.9675,-1.9324,-5.9113,-4.1626,-11.707,1.868,5.7886,-1.9324,-5.9113,-5.9113,1.9139,9.4155,3.8547,5.7971,7.7939,11.41,0.12638,5.8824,5.641
1.761,-9.4603,-7.7398,-5.7971,-13.793,-6.1138,-21.462999,1.868,-13.724,-5.7971,-13.793,-11.823,-7.6555,-13.333,1.9589,-7.7295,1.9968,9.4872,-24.518,1.9608,-15.513
5.5346,-7.5556,-5.7886,-1.9324,-9.8522,-2.2114,-15.61,1.868,-5.9187,-1.9324,-9.8522,-5.9113,0.0,3.7283,3.8547,-3.8647,3.9291,9.4872,-13.144,-1.9608,-3.9744
3.6478,-13.27,-3.8374,-7.7295,-15.764,-2.2114,-21.462999,-3.9291,-9.8211,-7.7295,-15.764,-9.8522,7.6555,5.624,3.8547,-5.7971,1.9968,5.641,2.0221,1.9608,-5.8974
7.4214,-5.6508,3.9675,-3.8647,-11.823,-2.2114,-21.462999,-0.06441,-3.9675,-3.8647,-11.823,-7.8818,3.8278,9.4155,7.6461,0.0,5.8615,7.5641,-9.3523,5.8824,-0.12821
-2.0126,-17.079,-3.8374,-5.7971,-11.823,-8.065,-19.511999,-5.8615,-5.9187,-5.7971,-11.823,-11.823,-9.5694,-9.5419,-5.624,-13.527,-5.7327,1.7949,-7.4566,-5.8824,-15.513
-5.7862,-13.27,-3.8374,-7.7295,-9.8522,-6.1138,-21.462999,-5.8615,-15.675,-7.7295,-9.8522,-7.8818,0.0,-9.5419,-5.624,-13.527,-5.7327,-2.0513,-7.4566,-7.8431,-17.436001
-9.5597,-17.079,-9.6911,-5.7971,-9.8522,-8.065,-19.511999,-5.8615,-7.8699,-5.7971,-9.8522,-9.8522,-5.7416,-17.125,-9.4155,-17.391001,-11.53,-3.9744,-16.934999,-5.8824,-19.358999
-15.22,-18.983999,-13.593,-11.594,-19.704,-15.87,-19.511999,-15.523,-3.9675,-11.594,-19.704,-15.764,-13.397,-15.229,-16.997999,-17.391001,-15.395,-11.667,-16.934999,-11.765,-19.358999
-3.8994,0.06349,3.9675,-1.9324,-7.8818,-6.1138,-5.8537,-3.9291,-0.06504,-1.9324,-7.8818,-1.9704,13.397,5.624,-3.7283,0.0,0.06441,-3.9744,9.6051,1.9608,1.7949
1.761,3.873,9.8211,5.7971,5.9113,3.6423,3.9024,5.7327,11.642,5.7971,5.9113,5.9113,5.7416,3.7283,-3.7283,3.8647,1.9968,-5.8974,15.292,-3.9216,1.7949
3.6478,7.6825,9.8211,7.7295,13.793,-0.26016,5.8537,-0.06441,11.642,7.7295,13.793,5.9113,5.7416,13.207,-3.7283,5.7971,3.9291,-11.667,7.7093,-13.725,5.641
-9.5597,11.492,3.9675,-3.8647,3.9409,-10.016,7.8049,-9.7262,1.8862,-3.8647,3.9409,1.9704,1.9139,-0.06319,-11.311,3.8647,-3.8003,-17.436001,-5.5608,-15.686,-2.0513
-9.5597,1.9683,-1.8862,7.7295,13.793,-6.1138,7.8049,-1.9968,3.8374,7.7295,13.793,3.9409,-3.8278,-5.7504,-15.103,-3.8647,-7.6651,-13.59,-1.7694,-19.608,-5.8974
-11.447,-3.746,-9.6911,1.9324,1.9704,-6.1138,-3.9024,-1.9968,1.8862,1.9324,1.9704,-5.9113,3.8278,7.5197,-13.207,-3.8647,-5.7327,-15.513,-9.3523,-13.725,1.7949
-15.22,-5.6508,-13.593,-3.8647,1.9704,-15.87,-1.9512,-11.659,-0.06504,-3.8647,1.9704,-11.823,-7.6555,9.4155,-16.997999,-3.8647,-7.6651,-13.59,2.0221,-11.765,3.7179
-18.993999,-7.5556,-11.642,0.0,3.9409,-17.820999,-3.9024,-13.591,9.6911,0.0,3.9409,-13.793,-5.7416,-0.06319,-16.997999,-7.7295,-7.6651,-17.436001,7.7093,-15.686,-3.9744
-5.7862,3.873,2.0163,3.8647,9.8522,-4.1626,5.8537,3.8003,11.642,3.8647,9.8522,0.0,0.0,-0.06319,-13.207,-1.9324,-1.868,-13.59,-5.5608,-19.608,-5.8974
-9.5597,-1.8413,-1.8862,-1.9324,3.9409,-11.967,3.9024,-5.8615,15.545,-1.9324,3.9409,-5.9113,7.6555,-0.06319,-11.311,-5.7971,-5.7327,-15.513,3.9179,-9.8039,-5.8974
-5.7862,-3.746,-3.8374,-3.8647,3.9409,-11.967,3.9024,-9.7262,5.7886,-3.8647,3.9409,-7.8818,3.8278,1.8325,-9.4155,-5.7971,-7.6651,-11.667,3.9179,-1.9608,-0.12821
-3.8994,1.9683,0.06504,-5.7971,-1.9704,-8.065,-3.9024,-5.8615,11.642,-5.7971,-1.9704,-5.9113,-9.5694,5.624,-13.207,-3.8647,-7.6651,-17.436001,-1.7694,-19.608,3.7179
-7.673,0.06349,0.06504,-5.7971,9.8522,-13.919,13.659,-17.455999,-7.8699,-5.7971,9.8522,-1.9704,-11.483,-11.438,-11.311,-7.7295,-7.6651,-15.513,-3.6651,-15.686,-9.7436
-2.0126,1.9683,3.9675,-5.7971,9.8522,-8.065,0.0,-9.7262,21.398001,-5.7971,9.8522,-3.9409,5.7416,1.8325,0.06319,1.9324,3.9291,-7.8205,11.501,1.9608,3.7179
-0.12579,5.7778,7.8699,-3.8647,3.9409,-8.065,-1.9512,-3.9291,21.398001,-3.8647,3.9409,-1.9704,5.7416,16.997999,3.8547,11.594,11.659,-9.7436,11.501,-3.9216,13.333
3.6478,13.397,11.772,-3.8647,9.8522,-8.065,15.61,-11.659,17.496,-3.8647,9.8522,3.9409,15.311,16.997999,11.438,15.459,17.455999,-7.8205,7.7093,3.9216,15.256
1.761,13.397,11.772,-7.7295,3.9409,-10.016,5.8537,-13.591,23.35,-7.7295,3.9409,3.9409,19.139,26.476999,9.5419,17.391001,15.523,-7.8205,22.875,1.9608,22.948999
-0.12579,9.5873,9.8211,-1.9324,5.9113,-8.065,9.7561,-15.523,13.593,-1.9324,5.9113,5.9113,13.397,20.790001,1.9589,13.527,7.7939,-7.8205,17.188,0.0,21.025999
-2.0126,7.6825,5.9187,-7.7295,5.9113,-6.1138,13.659,-13.591,15.545,-7.7295,5.9113,3.9409,-1.9139,-3.8547,-3.7283,3.8647,0.06441,-7.8205,15.292,-1.9608,3.7179
-5.7862,1.9683,0.06504,-7.7295,3.9409,-11.967,5.8537,-13.591,15.545,-7.7295,3.9409,0.0,3.8278,1.8325,-7.5197,1.9324,-3.8003,-5.8974,15.292,-3.9216,3.7179
-3.8994,-1.8413,-3.8374,-7.7295,1.9704,-8.065,0.0,-11.659,11.642,-7.7295,1.9704,-1.9704,3.8278,1.8325,-7.5197,-3.8647,-5.7327,-7.8205,-1.7694,-5.8824,-2.0513
3.6478,11.492,5.9187,-1.9324,11.823,-2.2114,17.561001,-7.7939,17.496,-1.9324,11.823,7.8818,11.483,7.5197,-3.7283,1.9324,-1.868,-0.12821,9.6051,1.9608,3.7179
1.761,13.397,5.9187,3.8647,5.9113,3.6423,15.61,-1.9968,23.35,3.8647,5.9113,11.823,11.483,13.207,-3.7283,7.7295,-1.868,-0.12821,13.397,5.8824,13.333
-5.7862,1.9683,-5.7886,1.9324,5.9113,-4.1626,5.8537,-11.659,11.642,1.9324,5.9113,3.9409,-13.397,-7.6461,-15.103,-7.7295,-15.395,-2.0513,7.7093,-1.9608,-2.0513
-9.5597,3.873,-5.7886,-11.594,-1.9704,-8.065,7.8049,-13.591,9.6911,-11.594,-1.9704,0.0,-13.397,-1.9589,-16.997999,-7.7295,-15.395,-5.8974,3.9179,-7.8431,1.7949
7.4214,15.302,9.8211,7.7295,15.764,7.5447,19.511999,1.868,21.398001,7.7295,15.764,13.793,9.5694,24.580999,1.9589,13.527,5.8615,1.7949,22.875,0.0,24.872
1.761,1.9683,-3.8374,0.0,1.9704,1.6911,3.9024,-0.06441,17.496,0.0,1.9704,1.9704,3.8278,5.624,-1.8325,0.0,-1.868,-3.9744,17.188,-3.9216,11.41
5.5346,0.06349,-7.7398,-1.9324,1.9704,1.6911,9.7561,-1.9968,17.496,-1.9324,1.9704,0.0,7.6555,5.624,7.6461,0.0,1.9968,1.7949,9.6051,7.8431,7.5641
3.6478,5.7778,-5.7886,0.0,7.8818,-0.26016,11.707,-7.7939,21.398001,0.0,7.8818,0.0,0.0,-5.7504,7.6461,3.8647,5.8615,3.7179,7.7093,3.9216,3.7179
11.195,9.5873,2.0163,3.8647,7.8818,7.5447,11.707,1.868,19.447001,3.8647,7.8818,3.9409,15.311,16.997999,22.812,13.527,19.388,7.5641,15.292,19.608,17.179001
11.195,5.7778,3.9675,-3.8647,-7.8818,5.5935,1.9512,-1.9968,-2.0163,-3.8647,-7.8818,-1.9704,13.397,15.103,26.603001,13.527,25.184999,9.4872,-11.248,23.528999,19.103001
9.3082,9.5873,3.9675,-1.9324,-1.9704,3.6423,9.7561,-1.9968,-11.772,-1.9324,-1.9704,0.0,15.311,13.207,32.291,15.459,29.049999,9.4872,3.9179,31.372999,13.333
3.6478,-3.746,-1.8862,-3.8647,-1.9704,-4.1626,-3.9024,-3.9291,-23.48,-3.8647,-1.9704,-5.9113,-1.9139,5.624,20.916,9.6618,25.184999,5.641,3.9179,11.765,5.641
1.761,7.6825,2.0163,-9.6618,-7.8818,-4.1626,-5.8537,-3.9291,1.8862,-9.6618,-7.8818,-7.8818,1.9139,15.103,20.916,21.256001,27.118,5.641,0.12638,7.8431,19.103001
13.082,15.302,17.625999,1.9324,5.9113,5.5935,7.8049,3.8003,17.496,1.9324,5.9113,3.9409,24.879999,24.580999,37.978001,30.917999,40.644001,9.4872,19.084,25.49,26.795
16.855,22.921,21.528,3.8647,-1.9704,11.447,3.9024,9.5974,-0.06504,3.8647,-1.9704,7.8818,28.708,20.790001,37.978001,32.849998,42.576,13.333,-5.5608,21.569,22.948999
16.855,13.397,17.625999,1.9324,0.0,9.4959,5.8537,5.7327,-2.0163,1.9324,0.0,5.9113,11.483,16.997999,34.186001,28.986,36.778999,15.256,13.397,21.569,24.872
7.4214,1.9683,5.9187,-3.8647,-13.793,-0.26016,-3.9024,1.868,-25.431,-3.8647,-13.793,-3.9409,13.397,16.997999,30.395,19.323999,29.049999,7.5641,-9.3523,23.528999,15.256
9.3082,0.06349,3.9675,0.0,-15.764,-2.2114,-15.61,-3.9291,-25.431,0.0,-15.764,-5.9113,13.397,9.4155,30.395,13.527,25.184999,11.41,-20.726999,23.528999,5.641
11.195,3.873,9.8211,-1.9324,-11.823,5.5935,-15.61,5.7327,-23.48,-1.9324,-11.823,-1.9704,11.483,11.311,28.499001,17.391001,27.118,7.5641,-5.5608,21.569,9.4872
9.3082,7.6825,13.724,3.8647,-3.9409,3.6423,-9.7561,3.8003,-7.8699,3.8647,-3.9409,0.0,13.397,9.4155,24.708,21.256001,27.118,3.7179,-15.039,19.608,11.41
1.761,0.06349,3.9675,-1.9324,-11.823,-0.26016,-17.561001,-3.9291,-5.9187,-1.9324,-11.823,-9.8522,15.311,9.4155,19.021,17.391001,23.253,1.7949,5.8136,15.686,11.41
3.6478,5.7778,2.0163,1.9324,-5.9113,-0.26016,-5.8537,1.868,-19.577,1.9324,-5.9113,-7.8818,17.225,18.893999,19.021,21.256001,25.184999,-0.12821,7.7093,13.725,19.103001
-5.7862,-5.6508,-5.7886,-11.594,-23.645,-13.919,-23.415001,-9.7262,-21.528,-11.594,-23.645,-21.674999,13.397,13.207,13.333,9.6618,15.523,-7.8205,-5.5608,13.725,7.5641
-3.8994,-9.4603,-1.8862,-13.527,-21.674999,-13.919,-23.415001,-7.7939,-15.675,-13.527,-21.674999,-19.704,7.6555,9.4155,9.5419,5.7971,11.659,-5.8974,0.12638,7.8431,5.641
-0.12579,1.9683,9.8211,-11.594,-19.704,-11.967,-13.659,-7.7939,-17.625999,-11.594,-19.704,-11.823,17.225,18.893999,11.438,9.6618,13.591,-5.8974,-9.3523,9.8039,9.4872
-0.12579,-7.5556,7.8699,-13.527,-17.733999,-8.065,-21.462999,-5.8615,-33.236,-13.527,-17.733999,-13.793,9.5694,13.207,9.5419,3.8647,9.7262,-5.8974,-15.039,9.8039,3.7179
-2.0126,-3.746,5.9187,-17.391001,-25.615999,-11.967,-21.462999,-11.659,-17.625999,-17.391001,-25.615999,-15.764,15.311,11.311,5.7504,5.7971,7.7939,-7.8205,-20.726999,5.8824,3.7179
-5.7862,-7.5556,0.06504,-19.323999,-33.498001,-11.967,-19.511999,-11.659,-13.724,-19.323999,-33.498001,-15.764,3.8278,-3.8547,1.9589,-3.8647,3.9291,-7.8205,-1.7694,5.8824,-5.8974
-9.5597,-18.983999,-11.642,-17.391001,-29.556999,-13.919,-23.415001,-17.455999,-39.089001,-17.391001,-29.556999,-19.704,-3.8278,-3.8547,-7.5197,-11.594,-3.8003,-9.7436,-9.3523,-3.9216,-7.8205
-9.5597,-18.983999,-15.545,-19.323999,-33.498001,-10.016,-25.365999,-9.7262,-19.577,-19.323999,-33.498001,-19.704,0.0,-0.06319,-7.5197,-9.6618,-5.7327,-7.8205,-9.3523,-5.8824,-9.7436
-5.7862,-3.746,-9.6911,-5.7971,-11.823,-6.1138,-1.9512,-0.06441,-15.675,-5.7971,-11.823,-5.9113,0.0,-1.9589,-5.624,-5.7971,-1.868,-3.9744,-3.6651,0.0,-5.8974
-9.5597,-7.5556,-15.545,-11.594,-21.674999,-10.016,-9.7561,-1.9968,-9.8211,-11.594,-21.674999,-11.823,5.7416,1.8325,-3.7283,-3.8647,-1.868,-7.8205,-5.5608,-1.9608,-3.9744
-3.8994,-5.6508,-7.7398,-11.594,-25.615999,-10.016,-13.659,-3.9291,-11.772,-11.594,-25.615999,-13.793,-3.8278,-1.9589,-1.8325,0.0,3.9291,-5.8974,-3.6651,-3.9216,-2.0513
-3.8994,-3.746,0.06504,-11.594,-21.674999,-10.016,-15.61,-5.8615,-21.528,-11.594,-21.674999,-9.8522,1.9139,-1.9589,3.8547,0.0,5.8615,-2.0513,-9.3523,3.9216,-3.9744
-3.8994,0.06349,0.06504,-13.527,-19.704,-10.016,-11.707,-3.9291,-23.48,-13.527,-19.704,-9.8522,-3.8278,-7.6461,-3.7283,-3.8647,-1.868,-2.0513,-22.622,-3.9216,-9.7436
-3.8994,-5.6508,0.06504,-13.527,-25.615999,-10.016,-7.8049,-0.06441,-3.9675,-13.527,-25.615999,-9.8522,1.9139,7.5197,-1.8325,-1.9324,0.06441,-3.9744,-3.6651,-3.9216,1.7949
-2.0126,-5.6508,2.0163,-9.6618,-17.733999,-4.1626,-5.8537,-0.06441,-35.187,-9.6618,-17.733999,-9.8522,9.5694,5.624,1.9589,-1.9324,1.9968,1.7949,-1.7694,1.9608,-2.0513
-0.12579,0.06349,3.9675,-15.459,-21.674999,-4.1626,-7.8049,-1.9968,-25.431,-15.459,-21.674999,-9.8522,5.7416,7.5197,1.9589,1.9324,1.9968,1.7949,-5.5608,0.0,3.7179
3.6478,9.5873,9.8211,-5.7971,-17.733999,1.6911,-7.8049,3.8003,-7.8699,-5.7971,-17.733999,-3.9409,13.397,18.893999,7.6461,9.6618,7.7939,3.7179,-5.5608,5.8824,11.41
-3.8994,3.873,2.0163,-5.7971,-15.764,-0.26016,-5.8537,7.6651,-7.8699,-5.7971,-15.764,-5.9113,-1.9139,3.7283,-1.8325,1.9324,-1.868,3.7179,-3.6651,-1.9608,1.7949
-3.8994,0.06349,0.06504,-5.7971,-17.733999,-0.26016,1.9512,9.5974,-13.724,-5.7971,-17.733999,-1.9704,-11.483,-11.438,-5.624,-1.9324,-5.7327,3.7179,0.12638,-3.9216,-7.8205
-11.447,-5.6508,-9.6911,-3.8647,-11.823,-8.065,-5.8537,5.7327,-13.724,-3.8647,-11.823,-7.8818,-7.6555,-20.916,-9.4155,-11.594,-13.462,-2.0513,-11.248,-1.9608,-17.436001
-11.447,-5.6508,-11.642,1.9324,-7.8818,-4.1626,-5.8537,9.5974,-13.724,1.9324,-7.8818,-5.9113,-13.397,-9.5419,-18.893999,-11.594,-19.259001,-2.0513,-9.3523,-17.646999,-9.7436
-5.7862,-9.4603,-9.6911,9.6618,1.9704,-0.26016,1.9512,17.327,-9.8211,9.6618,1.9704,0.0,-13.397,-15.229,-18.893999,-15.459,-19.259001,1.7949,-1.7694,-15.686,-11.667
-9.5597,-18.983999,-23.35,7.7295,3.9409,-0.26016,-1.9512,11.53,-11.772,7.7295,3.9409,-5.9113,-11.483,-13.333,-22.686001,-21.256001,-26.989,-2.0513,-9.3523,-13.725,-13.59
-9.5597,-9.4603,-25.301001,17.391001,5.9113,3.6423,-3.9024,21.191999,1.8862,17.391001,5.9113,-1.9704,-7.6555,-0.06319,-24.580999,-15.459,-28.921,3.7179,-11.248,-15.686,-0.12821
-13.333,-9.4603,-21.398001,23.188,19.704,5.5935,3.9024,26.989,11.642,23.188,19.704,1.9704,-3.8278,-1.9589,-24.580999,-11.594,-28.921,-0.12821,9.6051,-17.646999,-0.12821
-13.333,-20.889,-23.35,25.121,15.764,3.6423,0.0,26.989,-0.06504,25.121,15.764,1.9704,-22.966999,-28.499001,-32.164001,-28.986,-40.514999,3.7179,-1.7694,-23.528999,-25.128
-9.5597,-13.27,-15.545,25.121,5.9113,11.447,-1.9512,28.921,-3.9675,25.121,5.9113,7.8818,-26.794001,-28.499001,-30.268999,-25.121,-36.651001,3.7179,-15.039,-19.608,-21.282
-3.8994,-18.983999,-11.642,25.121,13.793,11.447,1.9512,28.921,-19.577,25.121,13.793,7.8818,-17.225,-13.333,-20.790001,-19.323999,-28.921,9.4872,-7.4566,-7.8431,-11.667
-0.12579,-15.175,-9.6911,23.188,11.823,11.447,1.9512,28.921,-13.724,23.188,11.823,7.8818,-11.483,-13.333,-11.311,-15.459,-21.191999,11.41,-9.3523,-1.9608,-13.59
14.969,0.06349,3.9675,30.917999,19.704,21.202999,7.8049,26.989,9.6911,30.917999,19.704,17.733999,1.9139,-5.7504,0.06319,-3.8647,-7.6651,15.256,3.9179,9.8039,-2.0513
13.082,3.873,5.9187,23.188,9.8522,21.202999,7.8049,26.989,3.8374,23.188,9.8522,19.704,-9.5694,-7.6461,0.06319,0.0,-5.7327,7.5641,0.12638,1.9608,-2.0513
13.082,1.9683,3.9675,23.188,5.9113,23.153999,7.8049,28.921,-9.8211,23.188,5.9113,19.704,-7.6555,-5.7504,1.9589,0.0,-1.868,15.256,-3.6651,1.9608,-0.12821
13.082,1.9683,3.9675,23.188,5.9113,19.252001,3.9024,26.989,3.8374,23.188,5.9113,17.733999,-3.8278,-5.7504,3.8547,0.0,1.9968,15.256,2.0221,5.8824,-2.0513
11.195,0.06349,3.9675,25.121,11.823,23.153999,9.7561,36.651001,-23.48,25.121,11.823,17.733999,-13.397,-17.125,1.9589,-5.7971,0.06441,15.256,-5.5608,1.9608,-9.7436
14.969,-7.5556,0.06504,23.188,0.0,23.153999,-7.8049,36.651001,-29.333,23.188,0.0,9.8522,-9.5694,-17.125,5.7504,-7.7295,0.06441,19.103001,-15.039,7.8431,-11.667
18.742001,1.9683,5.9187,27.052999,0.0,29.007999,0.0,36.651001,-17.625999,27.052999,0.0,13.793,-5.7416,-5.7504,7.6461,0.0,3.9291,15.256,-9.3523,5.8824,-5.8974
26.289,9.5873,11.772,25.121,7.8818,32.910999,3.9024,38.583,-25.431,25.121,7.8818,15.764,-3.8278,-5.7504,13.333,1.9324,5.8615,19.103001,-15.039,11.765,-3.9744
22.516001,7.6825,11.772,19.323999,-3.9409,29.007999,0.0,38.583,-7.8699,19.323999,-3.9409,13.793,3.8278,-0.06319,15.229,3.8647,7.7939,21.025999,-7.4566,9.8039,-3.9744
14.969,1.9683,3.9675,19.323999,0.0,19.252001,-1.9512,32.785999,-23.48,19.323999,0.0,7.8818,-9.5694,-5.7504,11.438,-1.9324,3.9291,17.179001,-9.3523,7.8431,-5.8974
7.4214,3.873,-1.8862,13.527,-3.9409,13.398,-9.7561,26.989,-23.48,13.527,-3.9409,1.9704,1.9139,3.7283,9.5419,1.9324,7.7939,9.4872,-20.726999,9.8039,-0.12821
5.5346,1.9683,0.06504,27.052999,5.9113,15.35,3.9024,32.785999,-17.625999,27.052999,5.9113,7.8818,0.0,1.8325,7.6461,1.9324,9.7262,9.4872,3.9179,1.9608,-0.12821
3.6478,-5.6508,-3.8374,15.459,-7.8818,9.4959,-5.8537,26.989,-35.187,15.459,-7.8818,-1.9704,3.8278,-1.9589,9.5419,-3.8647,11.659,7.5641,-7.4566,1.9608,-9.7436
13.082,1.9683,5.9187,19.323999,3.9409,15.35,-3.9024,25.056,-21.528,19.323999,3.9409,3.9409,-1.9139,-5.7504,9.5419,0.0,15.523,7.5641,-9.3523,-3.9216,-5.8974
13.082,-1.8413,9.8211,19.323999,-3.9409,17.301001,-5.8537,25.056,-15.675,19.323999,-3.9409,7.8818,-11.483,-19.021,7.6461,-7.7295,11.659,13.333,-9.3523,-1.9608,-17.436001
9.3082,-1.8413,11.772,19.323999,1.9704,13.398,-5.8537,21.191999,-27.382,19.323999,1.9704,9.8522,-13.397,-11.438,1.9589,-9.6618,5.8615,11.41,-11.248,-5.8824,-15.513
5.5346,-7.5556,7.8699,17.391001,1.9704,7.5447,-3.9024,21.191999,-19.577,17.391001,1.9704,7.8818,-1.9139,1.8325,0.06319,-5.7971,3.9291,5.641,-11.248,-5.8824,-5.8974
1.761,-1.8413,3.9675,13.527,-1.9704,-0.26016,-7.8049,19.259001,-17.625999,13.527,-1.9704,3.9409,5.7416,7.5197,1.9589,-3.8647,1.9968,7.5641,-18.830999,1.9608,-3.9744
-5.7862,-7.5556,-1.8862,11.594,-1.9704,-4.1626,-5.8537,15.395,-27.382,11.594,-1.9704,-1.9704,-3.8278,-7.6461,-7.5197,-9.6618,-7.6651,3.7179,-5.5608,-5.8824,-9.7436
-13.333,-20.889,-9.6911,3.8647,-17.733999,-13.919,-25.365999,5.7327,-19.577,3.8647,-17.733999,-11.823,-3.8278,-0.06319,-13.207,-13.527,-13.462,-5.8974,-1.7694,-11.765,-7.8205
-7.673,-7.5556,0.06504,7.7295,-11.823,-10.016,-19.511999,9.5974,-19.577,7.7295,-11.823,-3.9409,-7.6555,-1.9589,-7.5197,-5.7971,-5.7327,-0.12821,-7.4566,-9.8039,-3.9744
-0.12579,-1.8413,5.9187,9.6618,-5.9113,-4.1626,-7.8049,13.462,-15.675,9.6618,-5.9113,1.9704,3.8278,5.624,1.9589,1.9324,1.9968,7.5641,5.8136,0.0,1.7949
-2.0126,-1.8413,2.0163,3.8647,-7.8818,-6.1138,-17.561001,13.462,-17.625999,3.8647,-7.8818,-1.9704,11.483,15.103,0.06319,1.9324,-1.868,5.641,-9.3523,0.0,5.641
-7.673,-5.6508,-5.7886,-1.9324,-17.733999,-11.967,-23.415001,7.6651,-21.528,-1.9324,-17.733999,-7.8818,-3.8278,-15.229,-3.7283,-9.6618,-9.5974,3.7179,-13.144,1.9608,-15.513
-5.7862,-9.4603,-3.8374,1.9324,-11.823,-10.016,-15.61,5.7327,-23.48,1.9324,-11.823,-5.9113,-17.225,-19.021,-5.624,-11.594,-7.6651,3.7179,-5.5608,-3.9216,-15.513
-9.5597,-13.27,-5.7886,-13.527,-27.586,-19.771999,-25.365999,-5.8615,-19.577,-13.527,-27.586,-15.764,-7.6555,-11.438,-5.624,-9.6618,-7.6651,-2.0513,0.12638,-5.8824,-9.7436
-3.8994,-7.5556,-1.8862,-7.7295,-19.704,-13.919,-17.561001,-0.06441,-19.577,-7.7295,-19.704,-9.8522,1.9139,-0.06319,-1.8325,-3.8647,-3.8003,-0.12821,-5.5608,3.9216,-2.0513
-2.0126,-7.5556,-3.8374,-9.6618,-23.645,-10.016,-21.462999,-0.06441,-9.8211,-9.6618,-23.645,-13.793,1.9139,1.8325,0.06319,-3.8647,-5.7327,1.7949,0.12638,3.9216,3.7179
-0.12579,-5.6508,0.06504,-7.7295,-1.9704,-10.016,-11.707,1.868,-23.48,-7.7295,-1.9704,-5.9113,-5.7416,-5.7504,-3.7283,-5.7971,-7.6651,7.5641,-15.039,0.0,-3.9744
-2.0126,-3.746,0.06504,-11.594,-17.733999,-8.065,-17.561001,3.8003,-7.8699,-11.594,-17.733999,-7.8818,1.9139,3.7283,0.06319,-1.9324,-5.7327,1.7949,-7.4566,5.8824,1.7949
3.6478,5.7778,5.9187,0.0,-1.9704,3.6423,0.0,7.6651,1.8862,0.0,-1.9704,1.9704,-13.397,-11.438,-3.7283,-1.9324,-5.7327,3.7179,-11.248,-3.9216,-3.9744
-5.7862,-1.8413,-1.8862,-3.8647,-5.9113,-6.1138,1.9512,3.8003,-11.772,-3.8647,-5.9113,-1.9704,-13.397,-9.5419,-9.4155,-5.7971,-11.53,-2.0513,5.8136,-5.8824,-3.9744
-0.12579,7.6825,3.9675,5.7971,3.9409,1.6911,13.659,7.6651,13.593,5.7971,3.9409,7.8818,-11.483,-7.6461,-9.4155,-1.9324,-9.5974,3.7179,7.7093,-3.9216,3.7179
1.761,7.6825,3.9675,1.9324,0.0,5.5935,5.8537,1.868,3.8374,1.9324,0.0,3.9409,-11.483,-20.916,-9.4155,-5.7971,-13.462,-0.12821,-5.5608,-3.9216,-9.7436
-2.0126,-1.8413,0.06504,-1.9324,-1.9704,-0.26016,5.8537,3.8003,-2.0163,-1.9324,-1.9704,0.0,-15.311,-17.125,-11.311,-7.7295,-13.462,-0.12821,9.6051,-3.9216,-7.8205
3.6478,0.06349,5.9187,1.9324,1.9704,7.5447,1.9512,11.53,7.7398,1.9324,1.9704,5.9113,-9.5694,-3.8547,-5.624,-1.9324,-7.6651,9.4872,11.501,0.0,3.7179
1.761,1.9683,2.0163,3.8647,1.9704,7.5447,5.8537,7.6651,3.8374,3.8647,1.9704,5.9113,-9.5694,-1.9589,-9.4155,-3.8647,-11.53,5.641,0.12638,-3.9216,-2.0513
3.6478,-5.6508,-1.8862,5.7971,1.9704,7.5447,0.0,11.53,-0.06504,5.7971,1.9704,1.9704,0.0,3.7283,-3.7283,-3.8647,-11.53,11.41,-1.7694,7.8431,-0.12821
-3.8994,-3.746,-9.6911,1.9324,3.9409,3.6423,1.9512,13.462,-0.06504,1.9324,3.9409,-1.9704,-15.311,-20.916,-15.103,-15.459,-23.124001,7.5641,-15.039,-3.9216,-15.513
-5.7862,-11.365,-11.642,5.7971,0.0,-2.2114,3.9024,3.8003,3.8374,5.7971,0.0,-1.9704,-11.483,-15.229,-18.893999,-15.459,-25.056,1.7949,5.8136,-5.8824,-9.7436
5.5346,15.302,2.0163,7.7295,13.793,11.447,21.462999,15.395,9.6911,7.7295,13.793,11.823,3.8278,24.580999,-5.624,9.6618,-7.6651,11.41,3.9179,0.0,19.103001
-5.7862,0.06349,-7.7398,9.6618,19.704,-0.26016,5.8537,9.5974,11.642,9.6618,19.704,1.9704,-5.7416,-11.438,-11.311,-3.8647,-15.395,7.5641,2.0221,-3.9216,-3.9744
-3.8994,-1.8413,-3.8374,7.7295,9.8522,-0.26016,1.9512,11.53,29.202999,7.7295,9.8522,0.0,-15.311,-28.499001,-11.311,-7.7295,-15.395,5.641,11.501,-7.8431,-15.513
3.6478,7.6825,3.9675,5.7971,7.8818,3.6423,3.9024,5.7327,15.545,5.7971,7.8818,3.9409,-21.052999,-24.708,-11.311,-5.7971,-15.395,7.5641,-3.6651,-7.8431,-13.59
-2.0126,-7.5556,-9.6911,-1.9324,-1.9704,-2.2114,-3.9024,1.868,9.6911,-1.9324,-1.9704,-3.9409,-15.311,-19.021,-11.311,-13.527,-19.259001,1.7949,3.9179,-3.9216,-15.513
1.761,1.9683,-5.7886,7.7295,11.823,5.5935,7.8049,9.5974,3.8374,7.7295,11.823,5.9113,-7.6555,1.8325,-7.5197,-3.8647,-13.462,9.4872,5.8136,-5.8824,1.7949
1.761,11.492,-1.8862,7.7295,9.8522,5.5935,9.7561,9.5974,19.447001,7.7295,9.8522,5.9113,9.5694,18.893999,0.06319,9.6618,-3.8003,5.641,20.979,0.0,19.103001
5.5346,1.9683,-1.8862,13.527,15.764,5.5935,9.7561,11.53,21.398001,13.527,15.764,5.9113,3.8278,3.7283,0.06319,1.9324,-5.7327,7.5641,17.188,1.9608,5.641
-0.12579,1.9683,-5.7886,13.527,17.733999,1.6911,9.7561,13.462,5.7886,13.527,17.733999,3.9409,-9.5694,-7.6461,-7.5197,-3.8647,-11.53,7.5641,-15.039,-1.9608,-5.8974
-0.12579,-3.746,-5.7886,17.391001,15.764,3.6423,5.8537,9.5974,9.6911,17.391001,15.764,1.9704,-5.7416,-9.5419,-7.5197,-5.7971,-13.462,7.5641,-3.6651,1.9608,-5.8974
3.6478,-1.8413,-1.8862,15.459,19.704,9.4959,11.707,11.53,7.7398,15.459,19.704,5.9113,1.9139,7.5197,-3.7283,-1.9324,-7.6651,9.4872,-3.6651,0.0,5.641
5.5346,0.06349,-3.8374,15.459,5.9113,9.4959,13.659,7.6651,7.7398,15.459,5.9113,5.9113,5.7416,5.624,-1.8325,0.0,-5.7327,9.4872,5.8136,1.9608,3.7179
3.6478,-9.4603,-9.6911,13.527,3.9409,9.4959,0.0,9.5974,-0.06504,13.527,3.9409,3.9409,-11.483,-22.812,-5.624,-13.527,-15.395,9.4872,0.12638,0.0,-19.358999
1.761,-7.5556,-7.7398,11.594,7.8818,7.5447,0.0,5.7327,-0.06504,11.594,7.8818,5.9113,-19.139,-17.125,-9.4155,-11.594,-15.395,9.4872,-7.4566,-1.9608,-13.59
3.6478,1.9683,-3.8374,21.256001,15.764,13.398,9.7561,13.462,-0.06504,21.256001,15.764,13.793,-7.6555,-13.333,-3.7283,-3.8647,-9.5974,11.41,-11.248,1.9608,-5.8974
7.4214,7.6825,3.9675,17.391001,17.733999,19.252001,17.561001,13.462,15.545,17.391001,17.733999,17.733999,11.483,9.4155,-1.8325,3.8647,-5.7327,9.4872,7.7093,0.0,9.4872
11.195,13.397,11.772,25.121,25.615999,25.106001,23.415001,19.259001,13.593,25.121,25.615999,25.615999,1.9139,-0.06319,-3.7283,3.8647,-7.6651,11.41,5.8136,0.0,3.7179
5.5346,9.5873,7.8699,25.121,23.645,25.106001,25.365999,19.259001,5.7886,25.121,23.645,25.615999,-7.6555,-9.5419,-9.4155,-7.7295,-17.327,7.5641,2.0221,-1.9608,-7.8205
1.761,1.9683,2.0163,21.256001,19.704,19.252001,17.561001,11.53,7.7398,21.256001,19.704,21.674999,-13.397,-17.125,-16.997999,-15.459,-23.124001,5.641,7.7093,-7.8431,-9.7436
-2.0126,-11.365,-9.6911,23.188,15.764,21.202999,5.8537,11.53,13.593,23.188,15.764,17.733999,-15.311,-15.229,-16.997999,-23.188,-28.921,3.7179,3.9179,-7.8431,-13.59
3.6478,-7.5556,-7.7398,23.188,23.645,19.252001,9.7561,15.395,-0.06504,23.188,23.645,19.704,-3.8278,1.8325,-13.207,-21.256001,-25.056,9.4872,-7.4566,-3.9216,-3.9744
5.5346,-5.6508,-1.8862,13.527,17.733999,21.202999,19.511999,11.53,9.6911,13.527,17.733999,19.704,-11.483,-13.333,-9.4155,-21.256001,-21.191999,5.641,2.0221,0.0,-13.59
7.4214,-3.746,3.9675,15.459,17.733999,15.35,9.7561,7.6651,9.6911,15.459,17.733999,15.764,-7.6555,-15.229,-5.624,-15.459,-13.462,9.4872,5.8136,3.9216,-13.59
7.4214,7.6825,5.9187,11.594,11.823,15.35,3.9024,7.6651,5.7886,11.594,11.823,13.793,3.8278,-5.7504,1.9589,-5.7971,-3.8003,5.641,2.0221,7.8431,-5.8974
-0.12579,1.9683,0.06504,7.7295,21.674999,5.5935,11.707,1.868,5.7886,7.7295,21.674999,7.8818,-3.8278,-3.8547,-3.7283,-5.7971,-7.6651,1.7949,7.7093,0.0,-0.12821
-3.8994,0.06349,-1.8862,0.0,3.9409,-2.2114,-1.9512,-3.9291,15.545,0.0,3.9409,0.0,5.7416,3.7283,1.9589,-1.9324,-1.868,1.7949,5.8136,11.765,1.7949
3.6478,5.7778,2.0163,3.8647,9.8522,1.6911,5.8537,3.8003,19.447001,3.8647,9.8522,1.9704,5.7416,-9.5419,9.5419,1.9324,5.8615,3.7179,2.0221,11.765,-3.9744
5.5346,11.492,9.8211,7.7295,23.645,3.6423,15.61,3.8003,11.642,7.7295,23.645,5.9113,0.0,7.5197,7.6461,11.594,13.591,1.7949,9.6051,-3.9216,9.4872
1.761,9.5873,5.9187,-1.9324,1.9704,-10.016,1.9512,-3.9291,15.545,-1.9324,1.9704,-7.8818,19.139,15.103,17.125,17.391001,19.388,-3.9744,17.188,11.765,17.179001
1.761,11.492,3.9675,0.0,3.9409,-10.016,0.0,-7.7939,15.545,0.0,3.9409,-7.8818,26.794001,37.852001,17.125,23.188,23.253,-2.0513,19.084,11.765,34.487
-3.8994,1.9683,-1.8862,-1.9324,3.9409,-10.016,-3.9024,-5.8615,1.8862,-1.9324,3.9409,-9.8522,5.7416,-0.06319,11.438,7.7295,13.591,-7.8205,0.12638,5.8824,-0.12821
-2.0126,5.7778,3.9675,0.0,5.9113,-10.016,-5.8537,-9.7262,-5.9187,0.0,5.9113,-7.8818,17.225,1.8325,17.125,13.527,23.253,-5.8974,-1.7694,13.725,3.7179
3.6478,7.6825,5.9187,-5.7971,0.0,-8.065,-7.8049,-3.9291,-2.0163,-5.7971,0.0,-9.8522,11.483,7.5197,20.916,17.391001,27.118,-5.8974,3.9179,11.765,11.41
-2.0126,-5.6508,2.0163,-9.6618,-1.9704,-15.87,-11.707,-9.7262,7.7398,-9.6618,-1.9704,-15.764,11.483,5.624,19.021,13.527,25.184999,-3.9744,2.0221,11.765,7.5641
1.761,13.397,11.772,-7.7295,-7.8818,-17.820999,1.9512,-11.659,-0.06504,-7.7295,-7.8818,-11.823,30.622,34.060001,26.603001,28.986,34.847,-5.8974,0.12638,19.608,24.872
11.195,11.492,21.528,-3.8647,-5.9113,-11.967,-11.707,-7.7939,1.8862,-3.8647,-5.9113,-7.8818,34.450001,39.747002,34.186001,34.783001,42.576,-2.0513,3.9179,27.451,32.563999
7.4214,9.5873,15.675,-15.459,-15.764,-15.87,-19.511999,-15.523,-2.0163,-15.459,-15.764,-11.823,36.363998,43.539001,30.395,34.783001,38.712002,-5.8974,5.8136,19.608,34.487
-0.12579,3.873,5.9187,-3.8647,-7.8818,-13.919,-13.659,-13.591,-2.0163,-3.8647,-7.8818,-7.8818,11.483,1.8325,15.229,15.459,21.32,-7.8205,-1.7694,3.9216,-2.0513
-5.7862,0.06349,-3.8374,-11.594,-15.764,-13.919,-17.561001,-9.7262,-2.0163,-11.594,-15.764,-11.823,0.0,-17.125,9.5419,7.7295,11.659,-9.7436,-5.5608,3.9216,-13.59
-0.12579,13.397,0.06504,-5.7971,-5.9113,-10.016,0.0,-9.7262,-5.9187,-5.7971,-5.9113,-1.9704,13.397,16.997999,11.438,21.256001,19.388,-5.8974,2.0221,3.9216,13.333
1.761,5.7778,5.9187,-9.6618,-5.9113,-11.967,-5.8537,-9.7262,5.7886,-9.6618,-5.9113,-3.9409,17.225,18.893999,17.125,19.323999,19.388,-3.9744,2.0221,15.686,15.256
1.761,0.06349,9.8211,-19.323999,-21.674999,-15.87,-17.561001,-13.591,-0.06504,-19.323999,-21.674999,-11.823,21.052999,24.580999,17.125,17.391001,19.388,-3.9744,3.9179,13.725,17.179001
3.6478,-1.8413,9.8211,-15.459,-13.793,-11.967,-13.659,-17.455999,1.8862,-15.459,-13.793,-11.823,19.139,24.580999,15.229,15.459,17.455999,-2.0513,7.7093,11.765,19.103001
-0.12579,0.06349,3.9675,-21.256001,-13.793,-13.919,-15.61,-15.523,7.7398,-21.256001,-13.793,-13.793,11.483,22.686001,9.5419,11.594,11.659,-5.8974,2.0221,1.9608,19.103001
1.761,-5.6508,5.9187,-21.256001,-21.674999,-13.919,-7.8049,-15.523,-0.06504,-21.256001,-21.674999,-9.8522,3.8278,-3.8547,7.6461,0.0,3.9291,-5.8974,-1.7694,5.8824,-3.9744
3.6478,-1.8413,9.8211,-19.323999,-13.793,-10.016,-9.7561,-15.523,7.7398,-19.323999,-13.793,-5.9113,-5.7416,-11.438,1.9589,0.0,1.9968,-5.8974,0.12638,0.0,-5.8974
7.4214,11.492,15.675,-11.594,-3.9409,-6.1138,5.8537,-13.591,9.6911,-11.594,-3.9409,1.9704,11.483,20.790001,7.6461,13.527,9.7262,-2.0513,11.501,1.9608,17.179001
3.6478,1.9683,7.8699,-9.6618,-3.9409,-4.1626,3.9024,-9.7262,1.8862,-9.6618,-3.9409,0.0,7.6555,13.207,1.9589,7.7295,3.9291,-2.0513,17.188,0.0,11.41
-2.0126,0.06349,-1.8862,-7.7295,0.0,-6.1138,7.8049,-11.659,19.447001,-7.7295,0.0,1.9704,5.7416,7.5197,-5.624,3.8647,-3.8003,-7.8205,15.292,-5.8824,7.5641
-3.8994,9.5873,-3.8374,-11.594,-1.9704,-8.065,9.7561,-13.591,27.252001,-11.594,-1.9704,1.9704,0.0,15.103,-3.7283,11.594,1.9968,-3.9744,15.292,-5.8824,17.179001
-7.673,3.873,-7.7398,-1.9324,9.8522,-8.065,7.8049,-11.659,19.447001,-1.9324,9.8522,1.9704,0.0,9.4155,-7.5197,5.7971,0.06441,-2.0513,13.397,-3.9216,9.4872
-9.5597,3.873,-9.6911,3.8647,11.823,-4.1626,17.561001,-5.8615,17.496,3.8647,11.823,7.8818,-3.8278,-5.7504,-11.311,0.0,-7.6651,-3.9744,5.8136,-7.8431,-3.9744
3.6478,22.921,5.9187,7.7295,15.764,7.5447,27.316999,-1.9968,31.153999,7.7295,15.764,19.704,5.7416,9.4155,-1.8325,13.527,1.9968,3.7179,5.8136,1.9608,13.333
5.5346,11.492,5.9187,9.6618,21.674999,13.398,23.415001,5.7327,25.301001,9.6618,21.674999,17.733999,-3.8278,5.624,-3.7283,7.7295,0.06441,1.7949,17.188,-5.8824,7.5641
7.4214,7.6825,5.9187,7.7295,15.764,9.4959,19.511999,-1.9968,27.252001,7.7295,15.764,13.793,0.0,7.5197,-5.624,7.7295,0.06441,3.7179,17.188,-7.8431,9.4872
1.761,7.6825,5.9187,-1.9324,7.8818,3.6423,5.8537,-5.8615,9.6911,-1.9324,7.8818,5.9113,1.9139,5.624,-5.624,5.7971,0.06441,-0.12821,-5.5608,-5.8824,3.7179
-0.12579,-3.746,5.9187,-1.9324,7.8818,-0.26016,3.9024,-11.659,5.7886,-1.9324,7.8818,3.9409,-5.7416,-3.8547,-7.5197,-1.9324,-1.868,-3.9744,3.9179,-9.8039,-2.0513
5.5346,7.6825,11.772,0.0,5.9113,3.6423,13.659,-13.591,17.496,0.0,5.9113,9.8522,-3.8278,5.624,-3.7283,3.8647,1.9968,-7.8205,5.8136,-9.8039,3.7179
5.5346,9.5873,13.724,1.9324,13.793,1.6911,13.659,-17.455999,13.593,1.9324,13.793,11.823,-1.9139,-0.06319,1.9589,5.7971,7.7939,-5.8974,2.0221,-1.9608,-0.12821
5.5346,7.6825,11.772,-5.7971,7.8818,-2.2114,9.7561,-13.591,-2.0163,-5.7971,7.8818,9.8522,3.8278,5.624,5.7504,9.6618,13.591,-5.8974,5.8136,0.0,7.5641
3.6478,11.492,9.8211,-3.8647,3.9409,-4.1626,7.8049,-13.591,19.447001,-3.8647,3.9409,5.9113,13.397,26.476999,7.6461,17.391001,17.455999,-9.7436,7.7093,1.9608,22.948999
-7.673,1.9683,-1.8862,-9.6618,1.9704,-13.919,-1.9512,-23.253,17.496,-9.6618,1.9704,-7.8818,9.5694,13.207,0.06319,7.7295,11.659,-11.667,5.8136,-3.9216,9.4872
