C3,C4,Cz,F1,F2,F3,F4,F7,F8,Fp1,Fp2,Fz,O1,O2,P3,P4,Pz,T3,T4,T5,T6
-0.69182,10.222,6.4725,0.0,-1.9512,-3.3974,1.2882,-10.962,4.4444,0.0,-1.9512,0.65681,0.0,1.8501,0.69841,9.6154,5.153,-2.6923,14.032,-3.9216,4.359
1.8239,15.937,11.65,3.8835,4.5528,-0.83333,8.3736,0.57692,13.462,3.8835,4.5528,3.2841,6.3492,10.144,6.4127,16.667,12.882,5.641,10.222,0.65359,11.41
3.0818,9.5873,9.7087,5.178,7.8049,1.7308,1.2882,-1.9872,16.039,5.178,7.8049,3.9409,8.254,10.781,7.0476,13.462,12.238,-4.6154,7.0476,1.9608,9.4872
2.4528,0.69841,3.2362,-0.64725,0.0,1.7308,-1.9324,-0.70513,4.4444,-0.64725,0.0,1.9704,5.7143,6.9537,3.2381,3.8462,5.153,-14.872,1.9683,1.3072,2.4359
-2.5786,-5.6508,-3.8835,0.64725,-9.7561,-0.19231,2.5765,1.859,-3.285,0.64725,-9.7561,0.65681,-0.63492,0.57416,-3.1111,-5.1282,-3.8647,1.1538,-6.9206,1.9608,-2.6923
-4.4654,-10.095,-8.4142,5.178,-5.8537,-0.19231,1.9324,6.9872,-4.5733,5.178,-5.8537,1.3136,-4.4444,-3.8915,-6.9206,-12.179,-9.6618,9.4872,-22.794001,-3.9216,-5.8974
-3.8365,-11.365,-7.1197,7.767,11.707,2.3718,-1.2882,15.321,-6.5056,7.767,11.707,2.6273,-3.8095,-4.5295,-6.2857,-12.821,-9.6618,-0.12821,-18.983999,-5.2288,-5.2564
-1.9497,-13.27,-6.4725,1.9417,9.1057,2.3718,-3.8647,9.5513,-4.5733,1.9417,9.1057,1.9704,-3.1746,-3.8915,-4.381,-12.179,-8.3736,3.7179,3.2381,-3.268,-6.5385
-1.9497,-13.27,-7.767,-4.5307,3.252,-3.3974,-9.0177,-0.70513,-5.8615,-4.5307,3.252,-4.5977,-6.3492,-6.4434,-5.0159,-10.897,-9.0177,-4.6154,2.6032,-6.5359,-6.5385
-6.9811,-10.73,-9.7087,1.9417,1.9512,-11.731,-17.391001,-3.2692,-7.7939,1.9417,1.9512,-12.479,-9.5238,-10.909,-6.9206,-9.6154,-10.306,-2.0513,-5.0159,-4.5752,-7.1795
-7.6101,-5.6508,-9.7087,5.8252,3.252,-9.1667,-12.882,-3.2692,-5.2174,5.8252,3.252,-10.509,-6.3492,-7.0813,-6.9206,-5.7692,-9.0177,1.7949,-3.746,-0.65359,-5.2564
-1.3208,-3.746,-6.4725,3.2362,4.5528,-0.83333,-9.0177,-3.9103,-2.6409,3.2362,4.5528,-5.9113,-1.2698,-3.2536,-3.1111,-3.2051,-5.7971,-3.9744,0.06349,3.268,-3.9744
3.7107,-3.1111,-1.9417,-0.64725,1.3008,3.6538,-3.2206,-0.70513,-1.3527,-0.64725,1.3008,0.65681,4.4444,-0.70175,1.9683,-1.9231,-1.2882,5.641,-0.57143,10.458,-3.3333
5.5975,0.69841,2.589,4.5307,5.8537,5.5769,7.0853,10.833,-3.285,4.5307,5.8537,5.9113,8.8889,1.2121,6.4127,-0.64103,2.5765,13.974,-8.8254,13.725,-1.4103
4.9686,-1.2063,1.9417,11.003,7.8049,6.2179,1.9324,19.167,1.2238,11.003,7.8049,5.2545,8.254,-0.70175,5.7778,-1.9231,1.9324,16.538,-18.983999,11.765,-3.9744
5.5975,0.69841,2.589,16.827999,8.4553,9.4231,3.8647,14.679,-0.06441,16.827999,8.4553,8.5386,5.0794,-1.3397,3.873,-1.9231,1.9324,8.8462,-8.8254,7.1895,-3.3333
6.2264,0.06349,1.9417,14.239,4.5528,9.4231,5.7971,15.321,3.8003,14.239,4.5528,7.225,-0.63492,-4.5295,3.2381,-3.2051,0.64412,-1.4103,2.6032,3.268,-5.8974
7.4843,3.2381,3.8835,8.4142,3.252,7.5,9.6618,8.2692,9.5974,8.4142,3.252,8.5386,-1.2698,-5.1675,3.2381,0.0,1.9324,4.359,7.6825,1.3072,-6.5385
4.9686,7.0476,3.8835,2.589,1.3008,4.2949,5.7971,5.0641,5.7327,2.589,1.3008,3.9409,0.0,-1.9777,3.2381,5.1282,3.8647,10.769,5.7778,1.3072,-2.0513
3.0818,7.0476,1.9417,-5.178,5.8537,1.0897,3.2206,-0.70513,1.868,-5.178,5.8537,-0.65681,-1.2698,-1.3397,1.3333,5.7692,3.8647,5.0,1.3333,-0.65359,0.51282
-0.69182,5.7778,0.0,-4.5307,4.5528,-4.0385,-2.5765,1.859,0.57971,-4.5307,4.5528,-4.5977,-1.2698,-1.9777,0.06349,5.7692,2.5765,6.9231,-6.2857,-1.9608,1.7949
-2.5786,-2.4762,-5.178,8.4142,1.9512,-5.9615,-7.0853,3.141,2.5121,8.4142,1.9512,-7.225,-1.2698,-2.6156,-2.4762,0.64103,-1.2882,6.9231,-2.4762,-3.268,0.51282
-4.4654,-10.095,-8.4142,1.9417,-5.8537,-4.0385,-4.5089,2.5,-1.9968,1.9417,-5.8537,-7.225,-1.2698,-3.8915,-4.381,-6.4103,-5.153,3.0769,-4.381,-3.9216,-2.0513
-6.9811,-16.444,-11.65,0.0,-3.252,-9.8077,-10.95,0.57692,-5.2174,0.0,-3.252,-12.479,-3.8095,-5.8054,-5.6508,-11.538,-9.0177,0.51282,-7.5556,-3.268,-5.8974
-3.2075,-12.0,-8.4142,1.9417,1.3008,-8.5256,-13.527,-3.9103,-0.06441,1.9417,1.3008,-11.823,-3.1746,-2.6156,-3.746,-8.3333,-7.0853,-1.4103,-14.54,-1.3072,-0.76923
-3.8365,-4.381,-7.1197,1.2945,-1.9512,-4.0385,-5.153,-1.3462,-3.9291,1.2945,-1.9512,-7.225,-5.0794,-0.70175,-3.746,-2.5641,-5.153,-5.2564,-6.9206,-3.268,2.4359
-4.4654,0.06349,-7.767,1.2945,-2.6016,-4.0385,1.9324,5.0641,-10.37,1.2945,-2.6016,-5.9113,-5.0794,-0.0638,-3.746,0.0,-2.5765,-7.8205,5.1429,-6.5359,1.1538
-3.8365,3.2381,-4.5307,-1.9417,1.3008,-2.7564,1.2882,1.859,-5.2174,-1.9417,1.3008,-3.9409,-3.8095,1.8501,-1.8413,3.2051,0.64412,2.4359,7.6825,-5.8824,3.0769
-4.4654,0.69841,-4.5307,-5.8252,0.0,-5.3205,-3.8647,-0.0641,5.0886,-5.8252,0.0,-4.5977,-3.8095,0.57416,-1.2063,1.2821,0.64412,11.41,1.9683,-1.3072,0.51282
-4.4654,-5.6508,-7.767,0.0,1.9512,-7.8846,-9.6618,-1.9872,2.5121,0.0,1.9512,-7.225,-3.8095,-1.9777,-1.2063,-2.5641,-0.64412,4.359,-4.381,-1.3072,-3.9744
-1.9497,-4.381,-7.1197,8.4142,5.2033,-5.3205,-7.0853,4.4231,-9.7262,8.4142,5.2033,-3.9409,-0.63492,-1.3397,0.69841,-1.2821,0.64412,8.2051,-7.5556,1.3072,-2.0513
-0.69182,-5.6508,-8.4142,14.887,-0.65041,-4.0385,-6.4412,3.7821,-15.523,14.887,-0.65041,-4.5977,-1.9048,-5.1675,0.06349,-3.2051,-1.9324,-6.5385,-10.73,0.0,-4.6154
5.5975,-5.6508,-4.5307,6.4725,0.65041,1.7308,-1.9324,5.7051,-12.303,6.4725,0.65041,-1.9704,0.0,-5.1675,2.6032,-3.2051,-1.2882,5.0,-8.8254,5.8824,-5.2564
8.1132,-3.746,1.9417,7.1197,-1.9512,6.2179,1.9324,6.9872,-7.1498,7.1197,-1.9512,1.3136,0.0,-3.8915,4.5079,-1.9231,1.2882,5.641,-0.57143,6.5359,-7.8205
13.145,5.1429,11.003,12.298,3.252,13.269,5.153,10.192,5.0886,12.298,3.252,9.1954,5.7143,-0.0638,9.5873,6.4103,8.3736,15.256,-1.2063,9.1503,-2.6923
11.887,11.492,12.945,4.5307,3.9024,12.628,3.2206,10.833,5.7327,4.5307,3.9024,9.1954,6.3492,1.8501,10.222,10.256,10.95,22.308001,-5.6508,7.8431,4.359
8.7421,8.9524,11.65,4.5307,3.9024,8.7821,9.6618,6.9872,-3.285,4.5307,3.9024,9.1954,8.254,3.764,8.9524,8.3333,10.95,16.538,6.4127,5.8824,3.7179
2.4528,4.5079,7.1197,-3.2362,7.8049,1.0897,0.0,-9.6795,2.5121,-3.2362,7.8049,1.9704,7.619,5.0399,6.4127,5.7692,8.3736,3.0769,10.222,1.3072,3.0769
-1.3208,3.873,4.5307,-13.592,-0.65041,-1.4744,0.64412,-9.0385,3.1562,-13.592,-0.65041,1.3136,5.7143,6.9537,3.873,4.4872,6.4412,-12.308,5.1429,-2.6144,6.2821
0.56604,3.2381,4.5307,0.64725,1.3008,-0.19231,6.4412,-0.70513,2.5121,0.64725,1.3008,3.2841,8.254,9.5056,5.1429,3.2051,7.7295,-12.949,3.873,-1.9608,6.9231
-0.06289,0.69841,1.9417,9.0615,3.9024,0.44872,3.8647,-0.0641,3.1562,9.0615,3.9024,1.9704,8.8889,8.8676,5.1429,1.2821,6.4412,-12.949,5.1429,-0.65359,5.0
0.56604,-3.1111,0.0,6.4725,0.0,3.6538,-1.2882,-3.2692,6.3768,6.4725,0.0,3.2841,6.9841,6.3158,3.2381,-1.9231,3.2206,-5.8974,5.1429,1.3072,1.7949
-0.06289,-6.2857,-1.9417,3.8835,-12.358,4.2949,0.0,-0.70513,9.5974,3.8835,-12.358,4.5977,3.1746,3.126,0.06349,-4.4872,0.0,-2.0513,4.5079,-3.268,-0.12821
-3.2075,-6.9206,-3.8835,1.9417,0.0,0.44872,1.9324,2.5,5.0886,1.9417,0.0,1.9704,-0.63492,-0.70175,-3.746,-5.1282,-3.2206,-6.5385,-1.2063,-8.4967,-2.0513
-0.06289,1.9683,0.0,-7.767,9.7561,3.6538,-1.2882,-5.8333,-3.9291,-7.767,9.7561,1.9704,1.2698,3.764,-1.2063,3.2051,0.64412,-5.2564,-5.6508,-7.1895,4.359
4.3396,9.5873,7.767,0.64725,13.659,7.5,7.0853,-3.2692,1.868,0.64725,13.659,8.5386,2.5397,6.3158,2.6032,10.256,5.153,-11.667,12.762,-4.5752,8.2051
5.5975,12.762,11.003,1.2945,13.659,8.141,16.103001,3.141,12.174,1.2945,13.659,12.479,2.5397,5.0399,4.5079,11.538,6.4412,-8.4615,21.650999,-1.9608,6.9231
2.4528,12.762,7.767,-0.64725,8.4553,2.3718,11.594,0.57692,15.395,-0.64725,8.4553,9.1954,0.0,3.126,1.9683,10.256,4.5089,-3.3333,10.857,-3.268,6.9231
1.195,13.397,5.178,7.1197,1.3008,1.0897,6.4412,1.2179,8.9533,7.1197,1.3008,5.2545,0.63492,4.4019,1.9683,10.897,3.2206,-2.6923,-0.57143,-4.5752,8.8462
2.4528,8.3175,3.8835,7.1197,-3.252,4.2949,4.5089,-1.9872,0.57971,7.1197,-3.252,3.9409,4.4444,6.9537,2.6032,8.9744,4.5089,-3.3333,5.1429,-4.5752,8.2051
7.4843,7.0476,8.4142,6.4725,-3.252,11.346,4.5089,-5.8333,8.9533,6.4725,-3.252,8.5386,6.3492,9.5056,7.6825,9.6154,9.0177,1.7949,10.857,-1.3072,9.4872
8.1132,5.1429,10.356,8.4142,0.65041,11.987,9.6618,4.4231,12.818,8.4142,0.65041,14.45,6.3492,7.5917,9.5873,6.4103,10.95,3.0769,7.6825,3.9216,7.5641
5.5975,-3.1111,5.178,5.178,1.3008,12.628,14.171,9.5513,7.6651,5.178,1.3008,13.136,2.5397,-1.9777,5.7778,-3.8462,4.5089,-6.5385,8.3175,2.6144,-2.6923
3.0818,-5.6508,0.64725,-2.589,9.1057,9.4231,9.0177,6.3462,0.57971,-2.589,9.1057,8.5386,1.2698,-3.8915,2.6032,-7.6923,1.2882,-3.9744,-1.2063,1.9608,-5.2564
-0.69182,-1.2063,0.64725,-7.767,6.5041,1.7308,2.5765,-0.0641,-4.5733,-7.767,6.5041,3.9409,3.1746,-0.0638,2.6032,-1.9231,3.2206,2.4359,-15.175,0.0,1.1538
4.9686,1.3333,3.8835,10.356,7.1545,3.6538,1.2882,5.0641,8.3092,10.356,7.1545,5.2545,5.0794,1.2121,4.5079,0.64103,3.8647,-9.7436,-5.0159,1.3072,-0.76923
8.1132,5.1429,5.8252,7.1197,6.5041,7.5,3.2206,5.0641,9.5974,7.1197,6.5041,5.9113,3.1746,2.488,5.1429,2.5641,4.5089,-9.7436,3.2381,3.268,-2.6923
2.4528,8.3175,3.8835,6.4725,5.8537,3.6538,1.2882,5.7051,-1.3527,6.4725,5.8537,1.9704,1.9048,5.6778,1.9683,6.4103,4.5089,7.5641,-0.57143,1.9608,1.1538
-2.5786,7.0476,0.64725,7.1197,1.3008,-1.4744,1.2882,6.9872,2.5121,7.1197,1.3008,-1.3136,0.0,4.4019,-1.8413,5.7692,1.2882,8.2051,3.873,0.0,2.4359
-4.4654,4.5079,-1.2945,5.8252,0.65041,-2.1154,3.2206,1.859,3.8003,5.8252,0.65041,-1.9704,-1.9048,2.488,-3.1111,3.2051,-1.2882,5.641,2.6032,0.65359,0.51282
0.56604,4.5079,0.64725,9.7087,-1.9512,1.0897,5.153,-1.3462,7.6651,9.7087,-1.9512,2.6273,-1.9048,1.8501,-0.57143,3.2051,0.0,10.128,3.2381,1.3072,0.51282
-1.3208,-1.8413,-2.589,0.64725,1.3008,-0.19231,0.0,4.4231,7.6651,0.64725,1.3008,2.6273,-3.8095,-2.6156,-1.8413,-2.5641,-1.9324,-0.12821,3.873,-0.65359,-3.9744
3.0818,-3.1111,-2.589,-11.003,-0.65041,3.0128,3.2206,4.4231,-1.3527,-11.003,-0.65041,3.9409,-3.1746,-1.9777,0.06349,-3.8462,-1.9324,-8.4615,5.7778,0.65359,-1.4103
-5.0943,-6.9206,-7.1197,-4.5307,3.252,-2.1154,2.5765,0.57692,3.8003,-4.5307,3.252,0.0,-6.9841,-3.8915,-5.6508,-8.9744,-7.0853,5.0,-3.746,-4.5752,-4.6154
-8.8679,-10.095,-9.0615,9.7087,12.358,-2.1154,-1.2882,3.141,10.242,9.7087,12.358,-1.3136,-8.8889,-5.8054,-8.8254,-11.538,-10.306,14.615,-10.73,-5.2288,-3.9744
-5.0943,-10.095,-8.4142,5.178,3.252,-0.19231,-2.5765,-3.2692,4.4444,5.178,3.252,-1.9704,-8.8889,-7.0813,-8.1905,-11.538,-10.306,-2.6923,-1.8413,-1.9608,-5.8974
-5.7233,-9.4603,-10.356,-1.9417,-1.9512,-6.6026,-3.8647,0.57692,3.8003,-1.9417,-1.9512,-5.2545,-8.254,-6.4434,-7.5556,-8.9744,-9.0177,9.4872,5.1429,-2.6144,-7.8205
-6.3522,-6.9206,-11.65,0.64725,-11.057,-9.8077,-6.4412,1.859,-1.9968,0.64725,-11.057,-9.1954,-6.3492,-4.5295,-5.6508,-5.7692,-7.0853,14.615,2.6032,-2.6144,-3.3333
-5.7233,-5.6508,-10.356,-14.239,-7.1545,-6.6026,-6.4412,-7.7564,-2.6409,-14.239,-7.1545,-9.1954,-5.7143,-5.1675,-5.0159,-4.4872,-6.4412,5.641,4.5079,-1.3072,-1.4103
-5.0943,-1.8413,-6.4725,-16.827999,-0.65041,-7.8846,-12.238,-10.962,1.868,-16.827999,-0.65041,-7.8818,-5.7143,-5.8054,-4.381,-3.2051,-5.153,-9.1026,0.69841,-1.3072,-3.9744
-7.6101,4.5079,-3.2362,-14.887,-9.1057,-14.936,-5.7971,-8.3974,-3.285,-14.887,-9.1057,-6.5681,-3.8095,-4.5295,-4.381,0.64103,-1.9324,-14.231,-2.4762,-5.8824,-1.4103
-8.239,0.06349,-5.178,-14.887,-11.707,-18.782,-5.7971,-12.885,-7.7939,-14.887,-11.707,-11.166,-1.2698,-4.5295,-3.746,-1.2821,-1.2882,-5.8974,-4.381,-4.5752,-3.9744
-6.9811,-3.1111,-5.178,-11.65,-5.8537,-14.295,-1.9324,-12.885,-4.5733,-11.65,-5.8537,-11.166,0.0,-0.70175,-3.1111,-0.64103,-0.64412,-2.0513,-1.2063,-1.9608,-2.0513
-6.9811,-1.2063,-4.5307,-7.767,0.65041,-8.5256,-3.8647,-9.6795,-3.9291,-7.767,0.65041,-8.5386,1.2698,5.0399,-4.381,1.2821,-0.64412,1.1538,-10.095,-1.9608,5.641
-10.755,-7.5556,-8.4142,-9.7087,-3.9024,-11.731,-9.6618,-15.449,0.57971,-9.7087,-3.9024,-11.166,0.0,3.764,-8.8254,-3.8462,-5.153,-3.9744,-4.381,-3.9216,3.0769
-11.384,-7.5556,-7.1197,-11.003,-7.8049,-11.09,1.9324,-15.449,3.1562,-11.003,-7.8049,-7.8818,0.0,2.488,-9.4603,-5.7692,-6.4412,-14.231,5.1429,-3.9216,2.4359
-8.8679,-6.2857,-4.5307,-5.178,-0.65041,-5.9615,0.64412,-16.731001,-1.3527,-5.178,-0.65041,-5.9113,-0.63492,3.764,-8.1905,-5.1282,-6.4412,-7.8205,8.3175,-1.9608,0.51282
-6.9811,-3.1111,-2.589,-5.178,-0.65041,-5.9615,-1.2882,-16.731001,-1.9968,-5.178,-0.65041,-4.5977,-0.63492,4.4019,-5.0159,-1.9231,-3.8647,-1.4103,8.3175,-1.3072,3.0769
-4.4654,-1.2063,-2.589,-4.5307,-9.1057,-8.5256,-3.2206,-17.372,-0.70853,-4.5307,-9.1057,-6.5681,-0.63492,3.764,-1.8413,0.64103,-1.9324,-3.9744,6.4127,1.9608,4.359
1.8239,4.5079,0.0,-3.2362,-2.6016,-7.8846,-7.7295,-5.1923,-0.06441,-3.2362,-2.6016,-7.225,3.1746,8.2297,4.5079,7.0513,4.5089,-1.4103,0.69841,1.9608,10.769
1.8239,3.2381,-1.2945,-7.767,-8.4553,-5.9615,-7.0853,-1.9872,4.4444,-7.767,-8.4553,-7.8818,0.0,3.126,4.5079,5.1282,3.8647,-4.6154,3.2381,-2.6144,5.641
6.8553,5.1429,3.2362,-5.178,-5.8537,0.44872,5.153,-5.1923,5.7327,-5.178,-5.8537,0.0,0.0,-0.0638,7.0476,4.4872,5.7971,-13.59,1.3333,0.0,1.7949
9.3711,8.3175,7.767,0.0,3.9024,6.859,5.153,-0.70513,5.0886,0.0,3.9024,5.2545,3.1746,2.488,11.492,8.3333,9.6618,-9.7436,-1.8413,3.268,5.0
7.4843,5.7778,5.178,-8.4142,5.2033,3.6538,5.153,-4.5513,-0.70853,-8.4142,5.2033,1.9704,3.8095,-0.0638,10.857,5.7692,8.3736,5.641,-8.1905,5.8824,3.7179
6.8553,-3.1111,1.2945,-3.8835,3.252,4.2949,-1.2882,-8.3974,-1.9968,-3.8835,3.252,-2.6273,0.63492,-7.0813,7.0476,-3.2051,2.5765,5.641,-0.57143,5.2288,-5.2564
4.9686,-5.0159,1.9417,5.8252,7.8049,6.2179,0.64412,-2.6282,-3.285,5.8252,7.8049,1.3136,0.63492,-8.9952,5.1429,-5.7692,0.64412,12.692,3.873,5.2288,-9.1026
6.8553,-1.2063,5.8252,9.0615,4.5528,8.141,4.5089,6.3462,-4.5733,9.0615,4.5528,7.225,3.8095,-5.1675,5.7778,-1.9231,1.9324,10.769,-0.57143,4.5752,-5.2564
6.8553,-0.57143,5.178,5.8252,-9.1057,8.7821,7.0853,6.3462,-7.7939,5.8252,-9.1057,9.8522,0.0,-8.9952,2.6032,-3.8462,-1.2882,8.2051,-1.8413,5.2288,-6.5385
6.8553,3.2381,5.178,-0.64725,-7.8049,10.705,9.0177,10.833,-7.1498,-0.64725,-7.8049,11.166,0.0,-7.7193,1.3333,-1.9231,-2.5765,5.0,-6.2857,5.2288,-3.9744
6.2264,4.5079,3.8835,-9.7087,-2.6016,8.141,9.6618,3.7821,-0.70853,-9.7087,-2.6016,7.225,-0.63492,-5.8054,-0.57143,-0.64103,-3.8647,-0.12821,-1.2063,1.9608,-2.6923
-0.06289,1.3333,-1.2945,-14.887,0.65041,2.3718,5.7971,-15.449,2.5121,-14.887,0.65041,1.3136,-6.3492,-7.0813,-7.5556,-3.2051,-8.3736,-7.8205,-4.381,-1.9608,-2.0513
-3.8365,-2.4762,-3.8835,-6.4725,-1.3008,-0.19231,-3.8647,-9.6795,-1.3527,-6.4725,-1.3008,-0.65681,-8.254,-8.9952,-10.73,-5.1282,-10.95,-11.667,-3.746,-8.4967,-3.9744
-0.06289,1.9683,-0.64725,8.4142,4.5528,1.7308,-6.4412,2.5,-1.3527,8.4142,4.5528,1.3136,-5.0794,-5.1675,-5.6508,0.0,-5.7971,-6.5385,-12.0,-8.4967,2.4359
1.8239,-1.2063,-1.2945,8.4142,9.7561,3.0128,-5.153,2.5,2.5121,8.4142,9.7561,0.65681,-5.7143,-5.1675,-3.1111,-1.9231,-4.5089,0.51282,2.6032,-7.8431,-1.4103
3.0818,1.3333,1.2945,4.5307,2.6016,6.859,9.0177,0.57692,1.868,4.5307,2.6016,7.225,-5.0794,-3.2536,-1.2063,-0.64103,-2.5765,-5.2564,20.381001,-5.8824,-2.0513
1.195,5.1429,2.589,10.356,5.8537,7.5,12.882,3.7821,4.4444,10.356,5.8537,9.1954,-5.7143,-5.1675,-1.8413,-0.64103,-3.2206,-0.76923,11.492,-3.9216,-2.0513
4.3396,5.1429,3.8835,9.0615,13.008,10.064,9.0177,7.6282,13.462,9.0615,13.008,11.166,-2.5397,-3.8915,1.3333,-0.64103,-1.9324,2.4359,7.0476,1.3072,0.51282
3.7107,0.06349,1.2945,10.356,7.1545,7.5,2.5765,8.2692,12.818,10.356,7.1545,7.225,0.0,-0.0638,2.6032,-1.9231,-1.2882,-0.12821,3.2381,1.9608,0.51282
3.0818,-1.2063,0.0,4.5307,6.5041,4.9359,1.2882,6.9872,3.1562,4.5307,6.5041,3.9409,1.9048,1.8501,2.6032,-2.5641,0.0,2.4359,1.9683,3.268,-0.76923
3.0818,1.3333,2.589,4.5307,2.6016,5.5769,2.5765,6.3462,4.4444,4.5307,2.6016,4.5977,3.1746,0.57416,3.873,-1.2821,1.2882,6.9231,-2.4762,5.2288,-2.0513
1.8239,3.2381,4.5307,8.4142,3.252,3.6538,5.7971,3.7821,4.4444,8.4142,3.252,5.2545,3.8095,1.8501,4.5079,0.64103,3.2206,5.641,-7.5556,7.8431,0.51282
0.56604,0.06349,1.2945,-3.8835,5.8537,-0.19231,-1.2882,-3.9103,-5.2174,-3.8835,5.8537,-1.9704,3.8095,1.2121,4.5079,-0.64103,1.9324,-2.0513,-3.746,7.8431,-2.0513
0.56604,3.2381,0.0,-5.8252,3.9024,-7.2436,-3.8647,-10.962,-2.6409,-5.8252,3.9024,-6.5681,4.4444,3.126,6.4127,2.5641,3.2206,-4.6154,-7.5556,10.458,2.4359
-0.06289,1.9683,-0.64725,-3.2362,-1.3008,-10.449,-4.5089,-9.0385,5.0886,-3.2362,-1.3008,-7.8818,5.0794,4.4019,5.7778,2.5641,3.8647,-10.385,3.873,9.8039,3.0769
2.4528,0.69841,0.0,-7.767,-2.6016,-6.6026,-6.4412,-8.3974,14.75,-7.767,-2.6016,-7.225,6.3492,5.0399,5.7778,2.5641,4.5089,-7.1795,10.222,7.8431,1.7949
-0.69182,-0.57143,-1.2945,-14.239,-6.5041,-9.1667,-7.0853,-11.603,6.3768,-14.239,-6.5041,-7.225,1.2698,3.764,0.69841,0.64103,0.64412,-2.6923,1.9683,0.0,2.4359
-3.2075,-1.2063,-1.2945,-20.065001,-15.61,-7.8846,-8.3736,-15.449,-3.285,-20.065001,-15.61,-6.5681,-1.2698,4.4019,-3.1111,1.9231,-0.64412,-7.8205,1.9683,-5.2288,5.0
-1.9497,2.6032,2.589,-9.7087,-14.309,-3.3974,-0.64412,-9.6795,-0.06441,-9.7087,-14.309,-1.9704,0.63492,7.5917,-1.8413,4.4872,1.9324,-9.7436,1.9683,-5.8824,7.5641
1.8239,7.0476,5.178,-9.7087,-10.407,0.44872,8.3736,-7.7564,-2.6409,-9.7087,-10.407,1.3136,1.9048,8.8676,1.3333,8.9744,5.7971,-2.0513,-1.8413,-3.9216,10.769
2.4528,6.4127,5.178,-9.0615,-2.6016,3.0128,12.882,-3.2692,-3.285,-9.0615,-2.6016,3.2841,-1.2698,3.764,0.06349,5.7692,3.8647,-4.6154,6.4127,-5.8824,6.2821
-2.5786,3.2381,1.2945,0.0,1.3008,-0.83333,5.7971,-1.3462,-1.9968,0.0,1.3008,1.9704,-2.5397,-0.0638,-4.381,0.0,-1.2882,-19.358999,12.762,-9.1503,-0.12821
-8.239,-1.2063,-3.8835,-6.4725,-19.511999,-5.3205,2.5765,-2.6282,-2.6409,-6.4725,-19.511999,1.3136,-4.4444,-3.2536,-9.4603,-5.1282,-7.0853,-11.026,7.6825,-9.1503,-2.0513
-9.4969,-1.2063,-5.178,-15.534,-13.008,-4.6795,-1.9324,-2.6282,5.0886,-15.534,-13.008,-0.65681,-0.63492,-1.3397,-8.8254,-3.8462,-6.4412,1.7949,-1.8413,-5.8824,-1.4103
-7.6101,2.6032,-3.2362,-4.5307,4.5528,-4.0385,-1.9324,-3.2692,5.7327,-4.5307,4.5528,-2.6273,5.0794,3.126,-3.1111,1.9231,-0.64412,4.359,-8.1905,0.0,3.0769
-5.7233,0.69841,-1.9417,4.5307,4.5528,-4.6795,-2.5765,-9.0385,-0.06441,4.5307,4.5528,-3.9409,5.0794,1.2121,0.06349,0.64103,1.2882,1.7949,0.69841,0.65359,-1.4103
-5.0943,-1.8413,-3.2362,-5.8252,0.65041,-4.0385,-4.5089,-0.70513,-2.6409,-5.8252,0.65041,-3.9409,5.0794,-1.3397,0.06349,-2.5641,-0.64412,-12.308,6.4127,1.3072,-7.1795
-5.0943,-1.2063,-4.5307,-5.8252,-5.8537,-4.0385,-3.8647,0.57692,-8.438,-5.8252,-5.8537,-3.9409,6.3492,-0.0638,0.06349,-2.5641,-2.5765,-7.8205,-0.57143,5.8824,-3.9744
-3.2075,1.9683,-3.2362,5.178,-7.1545,-0.83333,3.2206,3.7821,-12.947,5.178,-7.1545,-0.65681,6.9841,2.488,0.69841,0.0,-1.9324,3.0769,-6.2857,11.111,1.1538
-1.9497,-4.381,-5.178,5.178,2.6016,1.7308,-7.0853,9.5513,-3.9291,5.178,2.6016,-1.3136,3.8095,0.57416,-1.2063,-4.4872,-4.5089,-0.76923,-5.6508,5.8824,-3.3333
-0.06289,-3.746,-3.8835,14.887,11.707,4.2949,1.9324,15.321,-3.285,14.887,11.707,3.2841,1.9048,1.2121,-0.57143,-4.4872,-4.5089,7.5641,-1.8413,2.6144,-2.6923
-0.69182,-2.4762,-2.589,14.887,13.008,6.2179,5.7971,15.962,-2.6409,14.887,13.008,4.5977,0.0,-0.0638,-1.2063,-3.8462,-4.5089,7.5641,-4.381,-0.65359,-2.6923
2.4528,-0.57143,0.0,11.003,7.8049,10.064,-1.2882,13.397,10.242,11.003,7.8049,5.2545,-2.5397,0.57416,-0.57143,-0.64103,-2.5765,1.1538,-3.746,-1.9608,-1.4103
-0.06289,3.2381,0.64725,0.0,-1.9512,6.859,-2.5765,12.756,5.0886,0.0,-1.9512,3.2841,-6.3492,2.488,-2.4762,5.1282,-0.64412,1.1538,-12.0,-4.5752,8.2051
-0.06289,2.6032,0.0,1.2945,-4.5528,1.7308,-3.8647,9.5513,1.2238,1.2945,-4.5528,0.0,-5.7143,2.488,-1.2063,6.4103,1.2882,14.615,1.3333,-2.6144,5.0
3.7107,-0.57143,1.2945,11.003,1.9512,4.2949,-1.9324,6.9872,-1.9968,11.003,1.9512,0.65681,-5.7143,-0.70175,0.06349,3.8462,1.9324,16.538,9.5873,-3.268,-0.76923
4.3396,-0.57143,1.2945,3.2362,-4.5528,3.6538,-1.9324,6.9872,-7.1498,3.2362,-4.5528,-0.65681,-6.9841,-3.2536,-0.57143,3.2051,2.5765,7.5641,5.7778,-3.9216,-2.6923
8.1132,1.3333,4.5307,5.178,-3.252,3.6538,-1.9324,-2.6282,-8.438,5.178,-3.252,0.0,-3.1746,-2.6156,2.6032,3.8462,4.5089,8.8462,-3.746,-0.65359,-0.12821
5.5975,-1.8413,1.9417,3.8835,-5.8537,1.7308,-7.0853,8.2692,-4.5733,3.8835,-5.8537,-1.9704,-3.1746,-6.4434,0.69841,-0.64103,0.64412,8.8462,-3.746,-1.9608,-3.9744
2.4528,-2.4762,0.0,-1.9417,3.252,0.44872,-2.5765,13.397,-7.1498,-1.9417,3.252,-0.65681,-3.8095,-7.0813,-1.2063,-2.5641,-1.9324,13.333,-3.746,1.3072,-4.6154
3.0818,-2.4762,0.0,6.4725,6.5041,3.0128,1.9324,8.9103,-7.7939,6.4725,6.5041,1.3136,-1.9048,-7.7193,0.06349,-3.8462,-2.5765,12.692,0.69841,0.0,-5.8974
6.2264,-1.8413,2.589,12.298,3.9024,6.2179,4.5089,7.6282,3.1562,12.298,3.9024,6.5681,-0.63492,-7.7193,1.9683,-3.8462,-1.9324,12.051,0.69841,-0.65359,-6.5385
10.629,1.3333,7.1197,9.7087,14.959,11.987,7.0853,8.2692,8.9533,9.7087,14.959,12.479,3.8095,-2.6156,6.4127,-1.2821,1.9324,6.2821,-6.2857,4.5752,-3.9744
17.547001,0.06349,10.356,9.7087,11.707,15.192,3.2206,10.833,2.5121,9.7087,11.707,12.479,8.8889,1.2121,12.762,0.0,6.4412,6.2821,-5.6508,12.418,-3.9744
21.320999,4.5079,12.298,1.9417,-0.65041,11.987,2.5765,6.9872,-5.8615,1.9417,-0.65041,9.1954,15.238,5.6778,17.841,5.1282,10.95,12.692,-11.365,19.608,-0.12821
11.258,0.69841,5.178,0.0,-9.1057,1.0897,-1.9324,5.7051,-9.7262,0.0,-9.1057,0.65681,12.698,6.3158,12.127,2.5641,6.4412,11.41,-5.6508,15.686,1.7949
1.195,-3.1111,0.0,1.2945,-11.057,-5.9615,-6.4412,3.141,-4.5733,1.2945,-11.057,-4.5977,5.0794,2.488,3.2381,-2.5641,-0.64412,3.7179,2.6032,5.2288,-1.4103
-3.8365,-3.746,-3.2362,-7.1197,-13.008,-5.9615,-3.2206,-6.4744,-0.06441,-7.1197,-13.008,-5.2545,-1.9048,-1.3397,-3.1111,-5.1282,-5.153,3.0769,7.0476,-3.268,-2.6923
-4.4654,-3.746,-3.8835,-11.65,-3.252,-5.9615,-3.8647,-7.1154,5.0886,-11.65,-3.252,-6.5681,-6.3492,-1.3397,-7.5556,-5.1282,-7.0853,-10.385,12.127,-8.4967,-0.76923
-6.9811,0.06349,-3.8835,-8.4142,5.8537,-7.8846,-3.2206,-4.5513,0.57971,-8.4142,5.8537,-7.225,-5.7143,0.57416,-8.1905,-1.9231,-5.7971,-12.308,8.3175,-9.1503,2.4359
-7.6101,2.6032,-3.2362,3.2362,2.6016,-7.2436,-4.5089,-1.9872,-0.06441,3.2362,2.6016,-5.9113,-3.8095,4.4019,-6.9206,1.9231,-2.5765,-8.4615,8.3175,-6.5359,6.9231
-4.4654,2.6032,0.0,8.4142,1.9512,-0.83333,-5.153,3.141,1.2238,8.4142,1.9512,-1.9704,-3.1746,5.6778,-4.381,4.4872,0.0,-16.795,0.69841,-5.8824,6.9231
0.56604,2.6032,3.8835,-5.178,3.9024,6.859,1.2882,4.4231,2.5121,-5.178,3.9024,3.9409,-1.9048,5.0399,-1.8413,5.1282,2.5765,-1.4103,-1.2063,-5.8824,5.0
-0.69182,4.5079,4.5307,-2.589,-6.5041,4.2949,2.5765,11.474,3.1562,-2.589,-6.5041,4.5977,-0.63492,3.764,0.06349,6.4103,4.5089,12.051,-8.1905,-0.65359,6.2821
-0.69182,2.6032,1.9417,5.178,-9.1057,-2.1154,-1.9324,3.7821,-11.014,5.178,-9.1057,1.3136,-1.2698,-0.70175,0.06349,3.2051,2.5765,2.4359,-7.5556,-3.268,4.359
1.8239,0.06349,1.9417,2.589,-2.6016,1.7308,-0.64412,-0.70513,-16.812,2.589,-2.6016,1.9704,0.63492,0.57416,1.9683,0.64103,1.9324,5.0,11.492,-1.3072,-0.12821
1.8239,0.06349,1.9417,4.5307,3.9024,4.2949,4.5089,-0.0641,-1.9968,4.5307,3.9024,4.5977,0.0,-1.3397,1.3333,-0.64103,0.64412,7.5641,10.857,1.9608,-2.0513
1.195,0.06349,0.0,3.2362,-3.9024,1.7308,-1.2882,-0.0641,5.7327,3.2362,-3.9024,0.65681,-1.2698,-3.8915,0.69841,-0.64103,-1.2882,-9.7436,-2.4762,1.9608,-1.4103
-1.9497,-3.1111,-3.2362,-1.2945,-5.8537,0.44872,-1.2882,-3.9103,-3.285,-1.2945,-5.8537,-1.9704,-3.1746,-4.5295,-2.4762,-3.2051,-3.2206,-21.282,0.06349,1.3072,-3.9744
-8.8679,-5.6508,-5.8252,-7.1197,-5.2033,-5.9615,-5.7971,-5.1923,-2.6409,-7.1197,-5.2033,-6.5681,-3.1746,-3.8915,-4.381,-5.7692,-5.153,-0.76923,-1.2063,0.65359,-5.8974
-5.7233,-2.4762,-4.5307,-5.178,1.9512,-5.3205,-7.0853,-3.2692,2.5121,-5.178,1.9512,-5.2545,-1.2698,-0.70175,-1.2063,-3.2051,-2.5765,14.615,-0.57143,4.5752,-3.3333
-2.5786,-3.1111,-3.2362,-2.589,0.65041,-5.3205,-2.5765,-3.9103,-7.7939,-2.589,0.65041,-3.9409,-1.2698,-3.2536,1.9683,-4.4872,-1.2882,7.5641,-3.1111,6.5359,-3.9744
2.4528,-2.4762,0.0,-0.64725,-0.65041,-4.0385,-2.5765,2.5,-6.5056,-0.64725,-0.65041,-2.6273,0.63492,-4.5295,5.7778,-3.8462,1.9324,7.5641,-12.635,6.5359,-5.8974
7.4843,0.69841,4.5307,-3.8835,1.9512,2.3718,-1.9324,5.7051,1.868,-3.8835,1.9512,1.3136,1.2698,-2.6156,7.0476,-0.64103,3.8647,0.51282,-13.905,2.6144,-3.9744
6.2264,-1.2063,3.8835,-1.2945,-2.6016,4.2949,-3.2206,1.2179,3.8003,-1.2945,-2.6016,1.3136,0.63492,-4.5295,6.4127,-1.9231,3.2206,-2.0513,-3.746,0.65359,-4.6154
2.4528,-3.1111,2.589,4.5307,-5.8537,4.2949,-0.64412,1.2179,2.5121,4.5307,-5.8537,1.9704,2.5397,-3.2536,5.1429,-3.2051,3.8647,-7.1795,5.1429,-0.65359,-5.8974
-1.9497,-3.746,-1.2945,5.178,-3.252,1.7308,-3.2206,-0.70513,-1.3527,5.178,-3.252,0.0,0.63492,-1.9777,1.3333,-1.9231,3.8647,-3.9744,8.3175,-4.5752,-4.6154
1.8239,-2.4762,-0.64725,0.0,3.9024,3.0128,-1.9324,-6.4744,-3.9291,0.0,3.9024,0.65681,0.0,-0.0638,1.3333,0.0,3.8647,1.1538,2.6032,-1.3072,-0.76923
-0.06289,1.9683,0.64725,-4.5307,1.3008,1.7308,1.2882,-6.4744,-5.2174,-4.5307,1.3008,-1.3136,1.2698,5.0399,1.3333,3.8462,4.5089,-0.12821,-7.5556,-3.268,3.0769
-6.9811,-2.4762,-3.2362,-12.945,-8.4553,-9.8077,-4.5089,-7.1154,-11.659,-12.945,-8.4553,-9.8522,0.63492,5.6778,-2.4762,2.5641,1.9324,-3.9744,-4.381,-7.8431,5.0
-8.8679,-5.6508,-9.0615,-16.827999,-9.7561,-16.858999,-12.238,-11.603,-21.965,-16.827999,-9.7561,-17.733999,0.0,4.4019,-4.381,0.0,-1.9324,-17.436001,-2.4762,-5.2288,4.359
-10.126,-5.0159,-9.7087,-14.239,-13.659,-13.654,-10.306,-18.013,-9.0821,-14.239,-13.659,-15.107,1.9048,3.126,-4.381,0.0,-2.5765,-5.2564,-1.8413,-1.9608,5.0
-16.415001,-8.1905,-12.945,-13.592,-23.415001,-18.141001,-15.459,-12.885,-0.06441,-13.592,-23.415001,-17.077,-3.8095,-3.8915,-10.73,-4.4872,-9.0177,-1.4103,-0.57143,-6.5359,-0.12821
-18.931,-6.9206,-13.592,-15.534,-16.26,-20.063999,-14.815,-9.0385,-5.8615,-15.534,-16.26,-17.077,-8.254,-5.1675,-15.175,-5.1282,-12.882,-17.436001,-10.73,-9.1503,1.7949
-15.786,-8.1905,-11.003,-10.356,-5.8537,-14.295,-7.0853,-12.885,-7.7939,-10.356,-5.8537,-14.45,-5.0794,-1.9777,-13.905,-7.0513,-12.882,-15.513,0.69841,-5.2288,-0.12821
-9.4969,-4.381,-6.4725,-8.4142,-4.5528,-9.1667,2.5765,-5.8333,3.8003,-8.4142,-4.5528,-7.225,-3.1746,0.57416,-10.73,-5.7692,-10.306,-0.12821,5.1429,-3.9216,-2.0513
-5.0943,-1.2063,-2.589,-4.5307,1.3008,-4.0385,0.0,1.2179,13.462,-4.5307,1.3008,-1.3136,-3.8095,-0.0638,-8.8254,-3.2051,-8.3736,-2.6923,-1.8413,-5.8824,-2.0513
-4.4654,1.3333,-1.2945,-5.8252,-1.9512,-4.0385,4.5089,0.57692,7.6651,-5.8252,-1.9512,1.3136,-6.3492,-3.2536,-6.9206,-2.5641,-7.7295,-2.0513,2.6032,-3.9216,-3.9744
-1.9497,3.873,1.9417,1.2945,0.0,-0.19231,10.306,3.141,-0.70853,1.2945,0.0,5.2545,-5.7143,-2.6156,-3.746,-1.9231,-5.153,8.2051,1.9683,-0.65359,-2.6923
3.0818,7.6825,6.4725,8.4142,10.407,4.9359,12.882,1.859,3.1562,8.4142,10.407,8.5386,-1.9048,-1.3397,0.69841,1.9231,-0.64412,6.9231,-3.746,0.65359,-1.4103
4.9686,9.5873,9.0615,9.7087,7.8049,6.2179,14.171,4.4231,3.8003,9.7087,7.8049,10.509,0.63492,-0.0638,1.9683,4.4872,2.5765,-3.3333,-8.8254,0.0,-1.4103
5.5975,8.3175,9.7087,10.356,5.2033,7.5,10.306,3.7821,3.1562,10.356,5.2033,10.509,3.8095,2.488,3.873,5.7692,5.7971,-2.0513,-3.1111,-1.3072,-2.0513
6.8553,9.5873,11.003,10.356,9.7561,11.346,9.0177,1.859,7.0209,10.356,9.7561,11.823,4.4444,4.4019,5.1429,7.6923,9.6618,-3.9744,-1.2063,-1.9608,-0.76923
6.8553,8.9524,13.592,16.181,3.252,13.91,6.4412,0.57692,3.8003,16.181,3.252,14.45,7.619,6.9537,6.4127,10.897,14.171,5.0,-10.73,-0.65359,1.1538
8.1132,5.1429,14.239,12.298,15.61,14.551,6.4412,6.3462,-7.1498,12.298,15.61,16.42,8.254,4.4019,6.4127,8.9744,14.815,6.9231,1.3333,1.3072,-2.6923
12.516,7.6825,18.122999,8.4142,14.309,21.603001,9.0177,9.5513,-0.06441,8.4142,14.309,20.361,12.698,8.2297,10.857,10.897,18.035,5.641,8.9524,8.4967,-0.76923
13.145,9.5873,16.827999,7.1197,7.1545,18.396999,14.815,10.192,2.5121,7.1197,7.1545,21.018,14.603,9.5056,12.127,10.897,18.035,8.8462,3.2381,8.4967,3.7179
8.7421,5.7778,10.356,14.239,11.707,11.346,12.882,6.9872,-3.285,14.239,11.707,13.793,10.794,6.9537,8.3175,7.0513,12.238,3.7179,3.873,5.8824,4.359
6.2264,5.1429,8.4142,16.181,11.707,7.5,9.6618,-1.9872,1.868,16.181,11.707,9.8522,10.159,9.5056,7.0476,8.3333,10.95,-19.358999,3.873,5.8824,8.8462
4.3396,4.5079,6.4725,6.4725,7.1545,4.2949,3.8647,-4.5513,7.0209,6.4725,7.1545,5.9113,8.8889,9.5056,5.7778,8.9744,9.0177,-20.0,6.4127,4.5752,9.4872
3.7107,7.0476,5.8252,1.2945,0.0,5.5769,5.7971,-7.7564,7.6651,1.2945,0.0,7.225,8.254,9.5056,5.1429,9.6154,7.7295,5.0,5.7778,4.5752,10.128
5.5975,8.9524,5.8252,11.003,-1.9512,8.141,6.4412,-0.0641,9.5974,11.003,-1.9512,8.5386,7.619,10.781,5.7778,11.538,7.7295,7.5641,1.3333,3.9216,12.051
6.8553,7.0476,4.5307,7.767,5.2033,7.5,7.0853,-1.9872,2.5121,7.767,5.2033,7.225,3.1746,7.5917,5.7778,9.6154,5.7971,-3.3333,-0.57143,2.6144,12.692
5.5975,7.0476,5.178,-3.8835,13.008,5.5769,8.3736,0.57692,-1.3527,-3.8835,13.008,6.5681,5.7143,6.3158,7.6825,8.9744,6.4412,5.0,8.9524,9.8039,9.4872
3.0818,5.7778,3.8835,-10.356,3.252,2.3718,4.5089,1.2179,-8.438,-10.356,3.252,3.9409,3.8095,2.488,6.4127,7.6923,5.7971,3.0769,11.492,4.5752,3.7179
3.0818,4.5079,1.2945,-3.8835,-8.4553,-2.1154,-1.2882,-1.3462,-6.5056,-3.8835,-8.4553,-0.65681,0.0,-0.0638,5.1429,6.4103,5.153,-9.1026,5.7778,-3.268,2.4359
5.5975,6.4127,3.2362,1.9417,-10.407,-0.19231,2.5765,1.859,-2.6409,1.9417,-10.407,0.65681,-1.2698,0.57416,7.0476,8.3333,6.4412,0.51282,0.69841,-0.65359,2.4359
1.8239,2.6032,1.2945,-4.5307,-5.8537,0.44872,0.0,2.5,-1.9968,-4.5307,-5.8537,-0.65681,-2.5397,-0.70175,4.5079,5.1282,3.8647,17.820999,-1.2063,1.3072,0.51282
-1.9497,-1.8413,-2.589,-5.178,-1.9512,-2.1154,-12.882,-2.6282,-2.6409,-5.178,-1.9512,-6.5681,-2.5397,1.2121,1.9683,2.5641,1.9324,12.692,-1.8413,0.65359,-0.76923
-0.69182,-3.1111,-4.5307,-3.2362,-3.252,-6.6026,-11.594,-6.4744,-12.947,-3.2362,-3.252,-9.1954,0.0,2.488,3.2381,1.9231,1.9324,10.769,2.6032,5.8824,0.51282
-2.5786,-3.746,-6.4725,-8.4142,-12.358,-11.731,-8.3736,1.2179,-12.947,-8.4142,-12.358,-11.166,-0.63492,-0.0638,1.9683,-0.64103,-0.64412,3.0769,-1.2063,5.8824,-2.0513
1.195,-4.381,-5.178,-12.298,-13.008,-7.2436,-2.5765,2.5,-5.8615,-12.298,-13.008,-7.8818,0.63492,-0.70175,1.9683,-1.9231,-0.64412,2.4359,-5.6508,6.5359,-3.3333
-0.06289,-3.746,-5.178,-15.534,-3.252,-5.3205,-5.153,3.7821,-3.285,-15.534,-3.252,-7.8818,-0.63492,-3.8915,0.69841,-2.5641,-1.9324,15.897,-12.635,6.5359,-3.9744
2.4528,-4.381,-5.178,-2.589,-7.8049,-4.6795,-5.7971,4.4231,-6.5056,-2.589,-7.8049,-7.225,1.2698,-3.8915,0.69841,-3.8462,-2.5765,15.897,-7.5556,6.5359,-3.9744
1.195,-4.381,-3.8835,8.4142,-7.8049,-2.7564,-5.7971,10.192,-5.2174,8.4142,-7.8049,-5.9113,3.8095,-3.2536,1.3333,-5.1282,-2.5765,17.179001,1.9683,8.4967,-7.1795
1.8239,-4.381,-2.589,6.4725,0.65041,2.3718,-3.8647,8.9103,-7.1498,6.4725,0.65041,-1.9704,1.2698,-4.5295,0.06349,-6.4103,-3.2206,9.4872,-1.2063,5.8824,-6.5385
4.9686,-5.0159,-1.9417,3.8835,1.9512,4.9359,-1.9324,12.115,-1.9968,3.8835,1.9512,-1.3136,-1.2698,-5.1675,-0.57143,-6.4103,-4.5089,-7.8205,0.06349,1.3072,-6.5385
-0.69182,-5.0159,-4.5307,0.64725,0.65041,-3.3974,-3.8647,1.859,7.6651,0.64725,0.65041,-5.9113,-3.8095,-6.4434,-2.4762,-6.4103,-5.153,-0.12821,3.2381,1.3072,-7.8205
-6.9811,-4.381,-6.4725,1.2945,-3.9024,-9.1667,-1.2882,-4.5513,9.5974,1.2945,-3.9024,-8.5386,-6.9841,-6.4434,-5.0159,-5.7692,-5.7971,-0.76923,1.9683,-1.3072,-4.6154
-1.9497,-1.2063,-3.2362,-2.589,4.5528,-5.9615,4.5089,-3.9103,8.3092,-2.589,4.5528,-6.5681,-2.5397,-1.9777,-0.57143,-1.2821,-1.9324,5.0,5.1429,-1.3072,1.7949
-5.7233,-1.8413,-6.4725,1.2945,1.3008,-9.8077,-2.5765,1.2179,5.0886,1.2945,1.3008,-10.509,-5.0794,-3.2536,-3.1111,-1.9231,-3.8647,8.8462,0.69841,-3.268,1.7949
-8.8679,0.69841,-7.1197,2.589,6.5041,-12.372,-3.8647,6.3462,-0.70853,2.589,6.5041,-10.509,-6.9841,-3.8915,-5.6508,-0.64103,-4.5089,2.4359,-1.2063,-7.1895,3.0769
-10.126,4.5079,-4.5307,-9.7087,6.5041,-9.8077,1.2882,1.859,0.57971,-9.7087,6.5041,-5.9113,-5.7143,-1.9777,-7.5556,1.2821,-3.8647,-2.6923,-3.746,-11.111,5.641
-9.4969,3.873,-2.589,2.589,6.5041,-5.9615,1.9324,-0.0641,5.7327,2.589,6.5041,-1.3136,-5.7143,-1.3397,-8.8254,0.64103,-4.5089,-11.667,2.6032,-9.8039,6.2821
-6.3522,3.2381,0.64725,11.003,9.1057,1.0897,5.7971,-1.9872,11.53,11.003,9.1057,4.5977,-8.8889,-3.8915,-10.095,-1.9231,-6.4412,-24.487,6.4127,-13.072,3.0769
-3.2075,5.7778,3.2362,8.4142,5.8537,4.2949,9.6618,-3.9103,3.1562,8.4142,5.8537,6.5681,-7.619,-1.3397,-8.8254,0.0,-4.5089,-6.5385,10.222,-11.765,2.4359
1.8239,8.3175,5.8252,8.4142,7.1545,6.2179,11.594,-2.6282,7.6651,8.4142,7.1545,8.5386,-3.8095,1.2121,-4.381,2.5641,-1.9324,6.2821,13.397,-7.1895,6.2821
1.195,4.5079,2.589,1.2945,-2.6016,3.0128,4.5089,1.859,7.0209,1.2945,-2.6016,4.5977,-4.4444,-1.3397,-4.381,-0.64103,-3.2206,-2.6923,5.1429,-5.2288,1.7949
-0.06289,3.2381,0.64725,0.64725,-3.9024,-1.4744,5.153,4.4231,-1.3527,0.64725,-3.9024,1.3136,-5.0794,-3.2536,-4.381,-1.2821,-3.8647,0.51282,-3.746,-4.5752,-0.12821
4.9686,5.1429,5.178,-3.2362,0.0,3.0128,3.2206,5.7051,-0.70853,-3.2362,0.0,2.6273,-3.1746,-3.2536,0.69841,1.2821,0.0,-8.4615,0.69841,-3.268,0.51282
8.1132,7.0476,10.356,-3.8835,1.3008,7.5,5.153,6.9872,-7.7939,-3.8835,1.3008,7.225,1.2698,-1.3397,4.5079,4.4872,4.5089,-5.8974,-4.381,2.6144,1.1538
10.0,8.9524,14.239,3.2362,6.5041,9.4231,6.4412,-3.9103,-7.7939,3.2362,6.5041,9.8522,5.0794,3.764,8.3175,7.6923,9.0177,9.4872,-1.8413,6.5359,2.4359
15.031,14.032,18.77,15.534,9.7561,13.91,9.0177,3.141,8.3092,15.534,9.7561,15.764,9.5238,8.2297,13.397,11.538,14.171,3.7179,-5.0159,6.5359,7.5641
15.031,11.492,16.827999,14.887,8.4553,15.833,9.0177,12.115,8.9533,14.887,8.4553,16.42,10.159,4.4019,13.397,8.3333,12.238,2.4359,-15.175,7.1895,2.4359
10.0,1.9683,9.7087,3.2362,5.8537,12.628,5.7971,8.2692,1.868,3.2362,5.8537,12.479,8.8889,2.488,8.3175,0.64103,6.4412,-0.12821,-3.1111,4.5752,-4.6154
5.5975,-2.4762,5.178,0.64725,1.3008,7.5,2.5765,1.859,-2.6409,0.64725,1.3008,7.8818,8.8889,3.126,6.4127,-3.2051,3.8647,-11.026,2.6032,3.9216,-4.6154
3.7107,-4.381,0.64725,5.8252,-1.3008,3.6538,-0.64412,-1.9872,-9.7262,5.8252,-1.3008,3.2841,5.7143,2.488,3.873,-4.4872,0.64412,-3.3333,-0.57143,4.5752,-2.6923
-1.3208,-6.9206,-4.5307,9.0615,-0.65041,-0.19231,-4.5089,-3.2692,-14.879,9.0615,-0.65041,-1.9704,3.1746,1.8501,-0.57143,-6.4103,-3.2206,8.8462,-2.4762,3.9216,-0.12821
-9.4969,-10.73,-9.7087,-5.178,0.0,-5.9615,-18.035,1.859,-17.455999,-5.178,0.0,-9.1954,-1.9048,-0.0638,-5.0159,-8.9744,-7.0853,-2.6923,-8.8254,0.0,-2.0513
-9.4969,-10.095,-10.356,-15.534,-7.1545,-4.6795,-14.815,3.141,-13.591,-15.534,-7.1545,-7.225,-3.8095,1.2121,-6.2857,-7.6923,-7.7295,-4.6154,-3.1111,1.3072,-0.12821
-7.6101,-6.2857,-11.003,-9.7087,-11.057,-5.3205,-5.7971,1.859,-7.1498,-9.7087,-11.057,-7.8818,-3.1746,3.764,-6.9206,-5.7692,-8.3736,5.0,-3.1111,3.9216,5.641
-12.013,-10.73,-16.181,-2.589,-16.910999,-12.372,-9.0177,-5.1923,-7.1498,-2.589,-16.910999,-13.793,-5.0794,-0.0638,-10.73,-8.3333,-12.238,-2.0513,-6.2857,-1.9608,3.7179
-10.126,-9.4603,-15.534,-3.2362,-10.407,-10.449,-14.171,-3.2692,-4.5733,-3.2362,-10.407,-14.45,-5.7143,-1.9777,-9.4603,-7.0513,-12.238,-0.76923,-1.2063,-0.65359,0.51282
-5.7233,-6.9206,-11.003,1.2945,-7.1545,-6.6026,-12.882,-0.70513,-9.0821,1.2945,-7.1545,-10.509,-5.7143,-3.8915,-7.5556,-5.1282,-10.95,5.641,-7.5556,2.6144,2.4359
-7.6101,-13.27,-12.945,-7.767,-13.659,-9.8077,-16.103001,-1.3462,-13.591,-7.767,-13.659,-12.479,-6.9841,-8.3573,-10.095,-9.6154,-12.882,-4.6154,-1.8413,-2.6144,-5.8974
-7.6101,-10.73,-11.65,-11.003,-11.707,-11.731,-17.391001,-5.1923,-7.7939,-11.003,-11.707,-14.45,-6.9841,-7.7193,-9.4603,-7.0513,-10.95,8.8462,-1.8413,-2.6144,-7.1795
-0.06289,-5.6508,-5.8252,-11.65,-5.8537,-4.0385,-16.103001,-2.6282,-2.6409,-11.65,-5.8537,-10.509,-3.8095,-7.0813,-3.746,-2.5641,-5.153,11.41,-4.381,1.3072,-5.2564
7.4843,-2.4762,-0.64725,-11.003,-5.2033,3.6538,-9.6618,2.5,-3.9291,-11.003,-5.2033,-3.9409,-1.2698,-5.8054,2.6032,0.0,0.0,1.1538,-0.57143,5.2288,-3.9744
4.3396,-0.57143,0.64725,-9.0615,-5.8537,3.0128,-5.7971,9.5513,-17.455999,-9.0615,-5.8537,-1.3136,-2.5397,-3.2536,1.9683,1.2821,1.2882,11.41,-5.0159,3.268,-2.6923
3.0818,3.2381,3.8835,-1.2945,-10.407,3.0128,-5.153,5.7051,-9.7262,-1.2945,-10.407,-0.65681,-2.5397,0.57416,3.2381,6.4103,5.153,18.462,-7.5556,0.0,1.7949
9.3711,10.857,9.7087,-1.9417,-5.8537,6.2179,-1.9324,4.4231,-4.5733,-1.9417,-5.8537,0.0,3.1746,7.5917,9.5873,15.385,12.882,10.769,-15.175,1.9608,8.2051
12.516,15.302,13.592,4.5307,-6.5041,7.5,6.4412,8.2692,-9.7262,4.5307,-6.5041,3.2841,10.794,15.247,15.937,21.153999,18.68,5.0,-10.095,7.1895,13.333
13.145,10.222,11.003,11.65,-1.9512,8.141,2.5765,2.5,-6.5056,11.65,-1.9512,5.9113,12.698,12.695,15.937,16.025999,16.747,9.4872,-7.5556,10.458,8.2051
11.258,5.1429,6.4725,8.4142,-0.65041,8.141,2.5765,0.57692,-7.1498,8.4142,-0.65041,5.9113,10.159,6.9537,13.397,8.9744,11.594,11.41,-3.1111,10.458,0.51282
3.0818,-3.746,-0.64725,3.8835,-0.65041,5.5769,1.2882,-0.0641,-3.285,3.8835,-0.65041,4.5977,5.0794,-1.9777,5.7778,-1.9231,2.5765,-3.9744,2.6032,7.8431,-7.1795
-3.2075,-11.365,-7.1197,-2.589,3.252,2.3718,-0.64412,5.7051,-0.70853,-2.589,3.252,0.65681,1.9048,-7.0813,-0.57143,-10.897,-5.153,-6.5385,1.3333,7.8431,-12.949
-5.0943,-10.73,-8.4142,0.64725,11.057,-2.7564,-0.64412,5.7051,4.4444,0.64725,11.057,-2.6273,1.9048,-7.7193,-2.4762,-11.538,-7.0853,6.9231,-3.746,6.5359,-11.026
-3.8365,-9.4603,-6.4725,2.589,10.407,-2.7564,-3.8647,-0.0641,6.3768,2.589,10.407,-1.9704,0.0,-7.7193,-3.1111,-10.897,-7.0853,5.0,1.3333,-1.3072,-9.1026
-1.3208,-5.0159,-1.9417,-3.8835,4.5528,-0.19231,3.8647,-3.2692,5.0886,-3.8835,4.5528,1.9704,-3.1746,-7.0813,-4.381,-8.3333,-5.7971,-3.9744,1.3333,-5.8824,-5.2564
0.56604,-2.4762,-1.2945,7.767,-0.65041,1.0897,1.9324,-6.4744,5.0886,7.767,-0.65041,-0.65681,-6.9841,-8.3573,-4.381,-6.4103,-6.4412,-21.282,5.1429,-6.5359,-3.3333
2.4528,1.3333,-0.64725,10.356,-2.6016,3.0128,3.2206,0.57692,-11.014,10.356,-2.6016,0.65681,-9.5238,-8.3573,-5.6508,-4.4872,-6.4412,-16.795,5.7778,-8.4967,0.51282
0.56604,3.873,1.2945,3.8835,1.3008,2.3718,4.5089,7.6282,-1.3527,3.8835,1.3008,1.9704,-7.619,-4.5295,-5.0159,-0.64103,-4.5089,1.1538,10.857,-9.1503,2.4359
-0.69182,3.2381,1.2945,-5.178,2.6016,-1.4744,1.2882,2.5,7.6651,-5.178,2.6016,-0.65681,-8.8889,-2.6156,-5.6508,0.64103,-3.2206,7.5641,7.0476,-10.458,3.0769
-0.06289,2.6032,1.9417,-9.7087,-6.5041,-4.0385,-3.8647,-0.0641,3.8003,-9.7087,-6.5041,-2.6273,-9.5238,-2.6156,-5.0159,1.9231,-2.5765,4.359,-8.1905,-9.8039,4.359
1.195,-2.4762,0.64725,-3.2362,-7.8049,-2.1154,-5.153,-0.70513,-1.3527,-3.2362,-7.8049,-1.3136,-7.619,-3.2536,-3.746,-1.9231,-2.5765,3.0769,0.06349,-7.1895,-0.76923
5.5975,-3.746,1.9417,-5.178,-3.9024,0.44872,-2.5765,3.7821,-8.438,-5.178,-3.9024,-0.65681,-2.5397,-0.0638,1.3333,-1.2821,0.64412,-4.6154,9.5873,-4.5752,-3.3333
2.4528,-4.381,-1.9417,-19.417,-9.1057,-1.4744,-7.0853,-5.1923,-11.014,-19.417,-9.1057,-5.2545,0.0,1.8501,1.9683,-0.64103,1.9324,-8.4615,-4.381,-5.2288,-0.76923
1.195,-6.2857,-3.8835,-10.356,-9.7561,-2.7564,-10.306,-3.2692,-11.659,-10.356,-9.7561,-7.225,2.5397,3.764,3.873,0.0,3.8647,-2.6923,-7.5556,-2.6144,0.51282
4.3396,-6.2857,-1.2945,1.2945,-7.8049,-0.83333,-10.306,-1.9872,-18.1,1.2945,-7.8049,-5.9113,5.0794,5.6778,7.0476,0.64103,6.4412,3.7179,-12.635,3.268,1.1538
8.7421,-5.0159,1.9417,1.9417,-19.511999,6.859,-6.4412,-6.4744,-8.438,1.9417,-19.511999,0.0,8.8889,6.3158,10.222,1.2821,9.0177,3.7179,-4.381,8.4967,0.51282
2.4528,-5.6508,-0.64725,-5.8252,-13.008,0.44872,-7.7295,3.141,-4.5733,-5.8252,-13.008,-3.9409,11.429,6.9537,8.3175,-0.64103,8.3736,-6.5385,-1.2063,6.5359,-0.76923
-1.3208,-8.8254,-3.8835,-11.003,-1.3008,-7.2436,-8.3736,4.4231,-8.438,-11.003,-1.3008,-8.5386,11.429,6.3158,7.0476,-4.4872,5.7971,-3.9744,-7.5556,7.8431,-2.0513
-3.8365,-10.095,-4.5307,-7.1197,-7.1545,-7.8846,-5.153,-5.8333,-9.7262,-7.1197,-7.1545,-7.225,10.794,3.764,5.1429,-6.4103,2.5765,0.51282,-10.095,9.8039,-5.2564
-3.8365,-8.1905,-1.9417,-7.767,-5.2033,-5.3205,-1.9324,-9.6795,-12.947,-7.767,-5.2033,-3.2841,6.3492,-0.0638,1.9683,-7.0513,0.0,3.7179,-6.2857,5.8824,-6.5385
-6.3522,-5.0159,-1.2945,-10.356,-10.407,-7.2436,-3.2206,-10.962,-5.8615,-10.356,-10.407,-2.6273,-1.2698,-5.8054,-2.4762,-6.4103,-4.5089,-1.4103,-5.0159,-0.65359,-6.5385
-4.4654,-3.1111,-1.2945,-1.2945,-2.6016,-5.9615,-3.2206,-5.1923,8.9533,-1.2945,-2.6016,-0.65681,-1.9048,-5.8054,-3.746,-5.7692,-5.7971,-9.7436,1.3333,-1.3072,-4.6154
-0.69182,1.3333,1.2945,-1.9417,6.5041,-2.1154,-5.153,-5.1923,3.8003,-1.9417,6.5041,-1.9704,3.1746,-0.70175,0.06349,0.64103,-1.9324,-4.6154,7.0476,3.9216,-2.0513
4.9686,8.3175,5.8252,4.5307,7.8049,1.0897,1.2882,-7.1154,0.57971,4.5307,7.8049,1.9704,8.254,5.6778,4.5079,7.0513,3.2206,3.7179,5.1429,9.1503,5.641
-1.3208,7.0476,2.589,3.8835,2.6016,-4.0385,5.7971,-7.1154,3.8003,3.8835,2.6016,-1.3136,3.8095,6.9537,1.9683,7.0513,2.5765,-2.0513,12.762,5.2288,5.641
-5.7233,6.4127,-1.9417,-0.64725,-1.9512,-9.1667,5.153,-3.2692,1.868,-0.64725,-1.9512,-5.9113,-1.2698,7.5917,-1.8413,7.6923,0.64412,-12.308,10.222,-3.268,6.9231
-6.9811,8.3175,-1.9417,-3.8835,-7.8049,-9.1667,1.9324,-3.9103,5.7327,-3.8835,-7.8049,-6.5681,1.9048,10.781,0.06349,10.256,3.8647,-0.12821,5.1429,-3.9216,10.128
-5.0943,6.4127,-1.2945,-6.4725,-2.6016,-5.9615,5.7971,-11.603,3.1562,-6.4725,-2.6016,-3.9409,2.5397,10.781,1.3333,10.256,5.7971,10.128,7.0476,-3.268,10.128
-3.8365,-1.2063,-3.8835,-0.64725,-0.65041,-4.6795,1.9324,-11.603,2.5121,-0.64725,-0.65041,-3.9409,-1.2698,5.0399,-1.2063,3.2051,1.2882,5.0,3.2381,-4.5752,5.0
-0.06289,-4.381,-3.8835,3.2362,0.65041,0.44872,-4.5089,2.5,3.1562,3.2362,0.65041,-3.9409,-1.2698,2.488,0.06349,0.64103,0.64412,-6.5385,-1.8413,-3.9216,2.4359
-3.2075,-5.6508,-5.178,-5.178,0.65041,-2.1154,-7.0853,6.9872,-3.9291,-5.178,0.65041,-5.9113,-1.2698,-0.70175,-3.1111,-1.9231,-2.5765,-0.12821,-8.8254,-5.2288,0.51282
-5.7233,-6.2857,-6.4725,-9.7087,0.0,-5.3205,-5.153,1.859,-7.1498,-9.7087,0.0,-6.5681,-2.5397,-1.3397,-5.6508,-3.2051,-5.153,5.0,-11.365,-5.8824,-0.12821
-7.6101,-8.1905,-7.767,-2.589,-1.3008,-5.3205,-3.2206,1.2179,-4.5733,-2.589,-1.3008,-4.5977,-6.3492,-5.8054,-9.4603,-7.6923,-9.0177,5.0,0.06349,-7.8431,-3.9744
-8.8679,-13.27,-10.356,-1.9417,-1.3008,-3.3974,-9.0177,-1.9872,-5.8615,-1.9417,-1.3008,-4.5977,-8.254,-9.6332,-12.635,-13.462,-13.527,8.8462,1.3333,-7.8431,-9.7436
-10.755,-13.905,-11.003,-9.7087,-0.65041,-4.0385,-9.6618,-3.9103,-3.9291,-9.7087,-0.65041,-3.9409,-9.5238,-9.6332,-15.175,-14.744,-16.103001,-0.76923,-3.1111,-7.1895,-10.385
-13.27,-10.73,-11.003,-5.8252,-3.252,-5.3205,-6.4412,3.7821,1.868,-5.8252,-3.252,-3.2841,-11.429,-10.909,-16.444,-14.103,-17.391001,-6.5385,-8.1905,-5.8824,-7.1795
-11.384,-7.5556,-9.7087,3.8835,1.9512,-4.6795,3.2206,5.7051,3.8003,3.8835,1.9512,-0.65681,-12.063,-12.823,-14.54,-15.385,-17.391001,-3.3333,-6.2857,-5.2288,-7.8205
-12.013,-7.5556,-9.7087,1.9417,-2.6016,-0.83333,1.2882,6.3462,0.57971,1.9417,-2.6016,0.0,-9.5238,-12.185,-12.635,-14.744,-16.103001,-7.8205,4.5079,-3.268,-9.1026
-6.3522,-3.1111,-5.8252,7.767,-1.9512,3.6538,1.9324,8.2692,-2.6409,7.767,-1.9512,3.9409,-6.9841,-8.9952,-9.4603,-9.6154,-12.238,-12.949,5.1429,-0.65359,-4.6154
-5.7233,-1.2063,-3.8835,7.767,9.1057,2.3718,5.153,3.7821,0.57971,7.767,9.1057,3.9409,-5.0794,-8.3573,-7.5556,-7.6923,-9.6618,5.641,5.1429,-2.6144,-5.2564
-5.0943,1.9683,-0.64725,-1.2945,13.008,1.0897,9.0177,0.57692,2.5121,-1.2945,13.008,6.5681,-3.1746,-5.1675,-5.0159,-3.8462,-5.7971,13.333,0.06349,-0.65359,-2.6923
-1.3208,5.1429,3.2362,5.178,13.659,2.3718,5.153,-0.0641,5.0886,5.178,13.659,6.5681,-3.8095,-0.70175,-1.8413,2.5641,-1.2882,2.4359,-8.8254,-2.6144,5.0
-0.06289,3.2381,4.5307,16.827999,18.211,6.2179,4.5089,0.57692,10.242,16.827999,18.211,6.5681,-1.9048,1.8501,0.06349,3.8462,2.5765,5.641,4.5079,-3.9216,4.359
1.195,1.9683,4.5307,5.8252,3.9024,4.2949,3.8647,9.5513,5.7327,5.8252,3.9024,5.9113,-1.2698,3.764,1.9683,5.1282,5.153,-18.718,12.762,-4.5752,1.7949
4.3396,6.4127,5.178,2.589,-1.9512,3.6538,10.306,2.5,-1.3527,2.589,-1.9512,6.5681,0.0,7.5917,5.1429,8.9744,8.3736,-9.1026,1.9683,-3.9216,6.9231
3.0818,5.1429,3.2362,5.8252,-1.3008,2.3718,6.4412,-4.5513,-2.6409,5.8252,-1.3008,3.2841,1.9048,9.5056,5.7778,8.9744,8.3736,3.0769,2.6032,-3.268,8.8462
4.3396,4.5079,4.5307,9.0615,6.5041,0.44872,-1.9324,1.2179,4.4444,9.0615,6.5041,0.0,8.254,12.057,8.9524,10.897,11.594,9.4872,-1.8413,1.3072,10.128
4.9686,3.873,3.2362,3.2362,-1.3008,-0.83333,-2.5765,4.4231,0.57971,3.2362,-1.3008,-3.2841,8.254,9.5056,8.9524,10.256,10.95,3.7179,-3.746,3.268,8.8462
2.4528,4.5079,1.9417,-0.64725,-7.1545,-3.3974,1.2882,3.7821,-5.8615,-0.64725,-7.1545,-4.5977,5.0794,3.764,5.7778,6.4103,5.7971,-0.76923,-1.2063,1.9608,5.641
4.9686,6.4127,5.178,2.589,0.65041,1.0897,9.0177,-0.0641,4.4444,2.589,0.65041,1.9704,4.4444,4.4019,5.7778,7.0513,5.153,-2.6923,3.873,7.1895,6.9231
3.7107,4.5079,4.5307,1.2945,5.2033,3.0128,3.2206,-4.5513,7.6651,1.2945,5.2033,3.2841,5.7143,3.126,5.7778,4.4872,3.8647,1.7949,7.0476,11.111,3.0769
4.3396,2.6032,3.2362,0.64725,4.5528,3.6538,2.5765,-4.5513,12.174,0.64725,4.5528,2.6273,5.7143,3.126,5.7778,2.5641,1.9324,0.51282,1.9683,11.765,3.0769
3.0818,3.873,3.2362,-1.9417,3.252,0.44872,2.5765,0.57692,14.75,-1.9417,3.252,2.6273,6.3492,5.0399,5.7778,3.8462,2.5765,4.359,2.6032,12.418,5.0
8.7421,6.4127,7.767,-4.5307,7.8049,5.5769,10.306,4.4231,11.53,-4.5307,7.8049,7.8818,5.7143,3.764,8.3175,5.1282,6.4412,4.359,14.032,13.072,5.0
8.7421,8.3175,10.356,0.0,7.8049,8.7821,11.594,1.2179,14.106,0.0,7.8049,9.8522,3.1746,1.8501,8.9524,5.7692,8.3736,2.4359,17.205999,9.1503,4.359
10.629,12.762,12.945,12.298,8.4553,8.7821,13.527,-1.3462,0.57971,12.298,8.4553,11.166,5.0794,4.4019,10.857,9.6154,11.594,0.51282,8.9524,11.111,7.5641
9.3711,9.5873,10.356,11.003,1.9512,8.141,12.882,-7.7564,2.5121,11.003,1.9512,8.5386,5.0794,3.126,10.222,8.9744,10.95,1.1538,9.5873,7.1895,4.359
4.3396,9.5873,7.767,0.0,1.3008,4.2949,16.103001,-5.8333,6.3768,0.0,1.3008,7.225,4.4444,1.8501,7.0476,8.3333,9.0177,3.0769,8.9524,2.6144,4.359
1.8239,5.7778,5.8252,-3.2362,1.9512,3.6538,6.4412,-1.9872,5.7327,-3.2362,1.9512,5.2545,5.7143,1.8501,6.4127,7.6923,8.3736,-2.6923,6.4127,1.3072,3.7179
3.7107,4.5079,5.8252,1.9417,3.9024,3.6538,-5.153,3.141,8.9533,1.9417,3.9024,3.2841,8.254,3.764,7.6825,8.9744,10.306,-0.76923,5.7778,0.65359,5.0
0.56604,3.2381,3.2362,-5.178,5.8537,-0.19231,-5.153,2.5,10.886,-5.178,5.8537,0.65681,9.5238,5.0399,5.7778,7.6923,9.0177,-4.6154,8.9524,1.3072,5.0
-5.0943,2.6032,0.0,-8.4142,2.6016,-4.6795,0.64412,1.859,7.6651,-8.4142,2.6016,-0.65681,6.3492,3.764,1.3333,5.1282,5.7971,-5.2564,3.2381,-0.65359,5.641
-2.5786,4.5079,1.9417,1.2945,-1.3008,1.7308,3.2206,2.5,5.0886,1.2945,-1.3008,2.6273,1.9048,3.126,-0.57143,3.8462,3.8647,-8.4615,1.3333,-3.9216,6.2821
1.195,8.9524,6.4725,0.64725,3.252,4.2949,7.0853,1.2179,3.1562,0.64725,3.252,6.5681,1.2698,4.4019,1.3333,6.4103,4.5089,-3.9744,-5.0159,0.0,8.2051
1.195,3.873,4.5307,9.7087,1.9512,3.0128,8.3736,-1.9872,4.4444,9.7087,1.9512,4.5977,0.0,2.488,0.06349,1.9231,1.9324,1.7949,4.5079,-0.65359,2.4359
-1.9497,-1.2063,0.64725,11.65,5.2033,1.0897,2.5765,4.4231,4.4444,11.65,5.2033,1.3136,-1.2698,1.2121,-1.8413,-1.2821,-0.64412,-1.4103,14.032,-1.9608,0.51282
-1.9497,0.69841,1.9417,6.4725,5.8537,1.7308,4.5089,3.7821,13.462,6.4725,5.8537,3.2841,1.2698,4.4019,-1.8413,0.64103,0.0,-16.153999,7.0476,-0.65359,3.7179
-3.8365,0.06349,0.64725,1.2945,-1.3008,0.44872,3.8647,1.859,8.9533,1.2945,-1.3008,3.2841,-0.63492,3.126,-2.4762,0.0,-0.64412,-4.6154,-2.4762,-1.9608,1.7949
-3.8365,0.06349,0.64725,1.9417,0.65041,1.0897,3.8647,-3.9103,1.868,1.9417,0.65041,3.2841,0.0,1.2121,-2.4762,0.0,0.64412,10.769,-1.8413,-1.3072,-0.76923
-4.4654,-1.2063,-0.64725,-3.8835,-3.252,-1.4744,1.2882,-1.3462,2.5121,-3.8835,-3.252,-1.3136,0.0,-0.0638,0.06349,0.0,2.5765,8.2051,1.3333,-1.3072,-2.6923
0.56604,2.6032,1.9417,0.0,3.9024,-3.3974,4.5089,-0.70513,-2.6409,0.0,3.9024,-0.65681,2.5397,1.8501,4.5079,3.8462,7.0853,-2.0513,-2.4762,-1.9608,-0.76923
1.8239,3.873,3.2362,7.1197,12.358,-2.7564,1.9324,-5.8333,-1.3527,7.1197,12.358,0.0,1.9048,-0.0638,5.7778,4.4872,8.3736,-0.76923,-0.57143,-1.9608,-2.0513
3.7107,1.9683,4.5307,3.2362,8.4553,-0.83333,0.64412,-3.2692,7.6651,3.2362,8.4553,0.65681,-0.63492,-2.6156,5.7778,3.8462,8.3736,-0.76923,0.69841,-0.65359,-2.6923
1.8239,7.6825,5.8252,-1.9417,3.252,-4.0385,5.7971,-1.3462,10.242,-1.9417,3.252,0.65681,-3.1746,-1.3397,4.5079,6.4103,7.0853,-9.7436,-6.9206,-5.2288,3.7179
1.195,4.5079,2.589,7.767,2.6016,-3.3974,8.3736,-5.1923,14.106,7.767,2.6016,0.0,-4.4444,-2.6156,1.3333,1.2821,3.2206,-11.667,-2.4762,-7.1895,0.51282
-1.3208,-2.4762,-3.2362,10.356,0.65041,-4.0385,5.7971,-3.2692,15.395,10.356,0.65041,-2.6273,-5.0794,-3.2536,-1.2063,-5.1282,-2.5765,1.7949,3.873,-3.9216,-3.9744
-3.2075,-4.381,-7.1197,3.8835,2.6016,-4.6795,1.2882,-3.9103,7.0209,3.8835,2.6016,-3.9409,-5.0794,-1.9777,-3.746,-5.1282,-4.5089,1.7949,1.3333,-5.2288,-1.4103
-6.3522,-6.9206,-9.0615,-7.767,3.9024,-6.6026,-2.5765,-8.3974,7.0209,-7.767,3.9024,-4.5977,-5.7143,-1.9777,-6.2857,-6.4103,-6.4412,-5.8974,0.69841,-7.1895,-3.3333
-6.3522,-5.6508,-7.767,-16.827999,3.252,-6.6026,-5.153,-13.526,7.0209,-16.827999,3.252,-5.9113,-1.9048,2.488,-3.746,-2.5641,-2.5765,-7.8205,-1.8413,-3.9216,-3.3333
-4.4654,-1.8413,-5.8252,-5.8252,6.5041,-6.6026,-1.9324,-5.8333,0.57971,-5.8252,6.5041,-4.5977,0.0,3.126,-1.8413,0.64103,0.0,1.1538,2.6032,-1.3072,-1.4103
1.195,-1.2063,-1.2945,4.5307,7.1545,-4.0385,-1.2882,4.4231,2.5121,4.5307,7.1545,-1.9704,3.8095,5.0399,1.9683,1.2821,1.9324,5.0,2.6032,3.9216,-0.76923
3.7107,0.06349,1.9417,3.2362,3.9024,-0.83333,0.0,5.0641,5.7327,3.2362,3.9024,1.9704,5.7143,4.4019,2.6032,0.0,0.64412,10.128,-0.57143,9.8039,-0.76923
0.56604,-3.746,-1.2945,-0.64725,-5.8537,-0.83333,-3.8647,5.0641,8.3092,-0.64725,-5.8537,0.65681,-0.63492,-3.8915,-2.4762,-5.7692,-6.4412,10.769,-5.0159,2.6144,-7.8205
2.4528,-1.2063,0.0,3.8835,-1.9512,0.44872,-3.8647,-0.70513,7.6651,3.8835,-1.9512,1.3136,-3.1746,-6.4434,-3.1111,-5.1282,-7.0853,2.4359,-4.381,-1.3072,-8.4615
3.0818,6.4127,3.2362,4.5307,-5.2033,1.7308,1.9324,0.57692,3.1562,4.5307,-5.2033,2.6273,-2.5397,-6.4434,-0.57143,0.64103,-3.8647,6.9231,-7.5556,0.65359,-2.6923
1.195,5.1429,3.8835,-0.64725,1.9512,1.0897,6.4412,3.7821,-1.9968,-0.64725,1.9512,3.9409,-4.4444,-7.7193,-1.2063,-0.64103,-4.5089,13.974,-1.2063,1.3072,-2.6923
1.8239,3.873,3.8835,-3.8835,3.252,6.2179,7.7295,3.7821,-5.2174,-3.8835,3.252,6.5681,-5.0794,-10.271,-1.8413,-2.5641,-4.5089,-0.76923,5.7778,-0.65359,-7.8205
2.4528,0.06349,0.64725,-1.2945,5.8537,7.5,6.4412,6.3462,5.7327,-1.2945,5.8537,5.2545,-4.4444,-9.6332,-3.746,-5.1282,-5.7971,-2.0513,4.5079,-1.9608,-9.7436
-0.69182,-3.1111,-3.8835,2.589,3.9024,0.44872,0.0,10.192,9.5974,2.589,3.9024,0.65681,-3.1746,-8.3573,-5.6508,-7.0513,-7.7295,10.769,-4.381,-1.3072,-7.8205
-5.0943,-9.4603,-10.356,5.178,-1.9512,-5.3205,-1.9324,3.141,11.53,5.178,-1.9512,-3.2841,-8.254,-14.099,-11.365,-14.103,-14.815,3.7179,-2.4762,-6.5359,-12.949
-8.8679,-12.635,-11.65,1.9417,-0.65041,-6.6026,-4.5089,-1.9872,14.75,1.9417,-0.65041,-3.9409,-10.794,-15.375,-15.175,-17.308001,-18.035,-11.026,4.5079,-9.1503,-14.231
-8.239,-10.095,-10.356,-2.589,9.7561,-3.3974,-1.9324,2.5,11.53,-2.589,9.7561,-3.9409,-8.254,-10.909,-13.905,-14.103,-16.103001,-11.026,4.5079,-6.5359,-8.4615
-7.6101,-9.4603,-11.003,-3.2362,3.9024,-4.0385,-5.153,-0.70513,5.0886,-3.2362,3.9024,-5.9113,-4.4444,-6.4434,-11.365,-12.821,-14.171,-5.2564,5.7778,-2.6144,-3.3333
-7.6101,-10.095,-12.298,-0.64725,-5.8537,-8.5256,-7.0853,-6.4744,1.868,-0.64725,-5.8537,-8.5386,-4.4444,-4.5295,-10.73,-11.538,-13.527,6.9231,0.69841,1.3072,-2.6923
-6.3522,-8.8254,-11.003,-5.178,-9.1057,-6.6026,-8.3736,-7.7564,0.57971,-5.178,-9.1057,-8.5386,-3.8095,-2.6156,-8.8254,-9.6154,-10.95,3.7179,-6.9206,-1.3072,-3.3333
-3.8365,-3.1111,-5.178,-7.1197,-6.5041,-5.3205,-4.5089,-7.1154,-1.9968,-7.1197,-6.5041,-5.2545,-0.63492,2.488,-4.381,-1.2821,-3.8647,-3.9744,-14.54,-3.9216,2.4359
-2.5786,-2.4762,-2.589,-3.8835,0.65041,-4.0385,-1.9324,-3.9103,-2.6409,-3.8835,0.65041,-3.9409,-1.9048,2.488,-3.1111,0.64103,-0.64412,-5.8974,-0.57143,-3.9216,3.0769
3.7107,1.3333,3.8835,1.9417,3.252,2.3718,0.64412,8.2692,3.8003,1.9417,3.252,1.9704,2.5397,5.6778,3.2381,5.1282,5.153,-0.76923,8.3175,3.268,2.4359
6.8553,6.4127,7.767,0.0,4.5528,6.2179,5.153,8.9103,3.8003,0.0,4.5528,6.5681,1.9048,5.0399,5.7778,8.9744,8.3736,0.51282,-3.1111,4.5752,3.7179
6.2264,5.1429,6.4725,-0.64725,-4.5528,7.5,1.2882,-6.4744,1.2238,-0.64725,-4.5528,4.5977,-1.9048,1.2121,3.873,6.4103,5.153,8.8462,-1.2063,-1.9608,1.1538
8.1132,4.5079,8.4142,-1.9417,-7.1545,10.705,7.0853,-1.3462,-2.6409,-1.9417,-7.1545,8.5386,-0.63492,1.2121,3.873,4.4872,4.5089,14.615,0.69841,0.0,-2.0513
11.887,7.0476,12.298,9.7087,6.5041,15.833,8.3736,14.679,2.5121,9.7087,6.5041,12.479,4.4444,6.3158,8.3175,8.3333,9.0177,11.41,0.06349,5.8824,2.4359
12.516,4.5079,10.356,14.239,13.008,14.551,-1.2882,16.603001,4.4444,14.239,13.008,10.509,5.7143,6.3158,7.0476,5.7692,7.7295,6.9231,0.69841,5.2288,1.7949
8.1132,0.06349,5.8252,0.64725,5.2033,12.628,-1.9324,6.9872,-0.70853,0.64725,5.2033,7.225,2.5397,2.488,2.6032,0.0,2.5765,4.359,-1.8413,3.268,-2.6923
3.0818,-2.4762,1.9417,8.4142,3.9024,8.141,3.2206,1.859,-11.659,8.4142,3.9024,5.9113,-0.63492,0.57416,-3.1111,-5.1282,-3.2206,-8.4615,-5.0159,1.3072,-3.3333
0.56604,-3.1111,-0.64725,10.356,-4.5528,6.2179,3.2206,3.141,-7.7939,10.356,-4.5528,5.2545,-0.63492,-0.0638,-4.381,-7.0513,-6.4412,7.5641,-13.27,4.5752,-2.6923
-1.9497,-10.095,-6.4725,-1.2945,-3.9024,1.7308,-3.2206,4.4231,-2.6409,-1.2945,-3.9024,0.65681,-2.5397,-4.5295,-7.5556,-13.462,-10.95,9.4872,-5.0159,1.3072,-8.4615
-3.8365,-13.905,-10.356,0.0,2.6016,-3.3974,-9.0177,-0.70513,3.8003,0.0,2.6016,-4.5977,-3.8095,-8.3573,-9.4603,-17.948999,-14.171,-4.6154,1.9683,-1.9608,-12.308
-3.8365,-11.365,-10.356,-2.589,-3.252,-4.0385,-2.5765,-1.9872,5.7327,-2.589,-3.252,-3.9409,-2.5397,-8.3573,-7.5556,-16.025999,-13.527,0.51282,0.69841,1.9608,-10.385
-1.3208,-5.0159,-6.4725,-3.8835,-4.5528,0.44872,0.64412,-1.9872,-3.9291,-3.8835,-4.5528,0.0,0.63492,-3.2536,-3.746,-9.6154,-8.3736,5.641,-3.746,3.9216,-5.8974
-3.2075,-6.9206,-6.4725,-1.9417,0.0,0.44872,-9.6618,-3.9103,-5.2174,-1.9417,0.0,-2.6273,1.9048,-0.70175,-2.4762,-6.4103,-5.153,-7.1795,-0.57143,0.0,-3.3333
-1.9497,-2.4762,-2.589,-0.64725,1.9512,0.44872,-7.0853,-2.6282,-1.9968,-0.64725,1.9512,-1.9704,3.8095,3.764,0.69841,0.64103,0.64412,-16.795,2.6032,0.0,4.359
1.195,1.3333,1.2945,8.4142,-3.9024,3.0128,-6.4412,-0.0641,-4.5733,8.4142,-3.9024,0.65681,2.5397,4.4019,1.9683,3.8462,3.2206,-6.5385,0.06349,-0.65359,5.0
3.7107,7.6825,6.4725,9.7087,-3.9024,4.2949,3.8647,-3.9103,-3.285,9.7087,-3.9024,5.9113,2.5397,5.6778,3.2381,8.9744,5.7971,1.7949,-3.746,-2.6144,9.4872
-0.69182,5.7778,4.5307,0.64725,5.2033,-0.19231,2.5765,-3.2692,6.3768,0.64725,5.2033,3.9409,3.1746,7.5917,1.3333,8.3333,5.7971,-5.8974,0.06349,-3.9216,10.128
-9.4969,-1.2063,-2.589,-1.9417,0.65041,-5.9615,0.0,-1.3462,3.8003,-1.9417,0.65041,-1.3136,0.0,5.0399,-4.381,2.5641,0.64412,-12.308,5.1429,-8.4967,4.359
-8.8679,2.6032,-2.589,-4.5307,-0.65041,-4.6795,0.0,1.859,-3.9291,-4.5307,-0.65041,-1.9704,-2.5397,5.0399,-5.6508,3.8462,-0.64412,-11.026,-1.2063,-8.4967,6.2821
-8.239,0.06349,-3.8835,-3.2362,8.4553,-3.3974,0.64412,3.7821,-6.5056,-3.2362,8.4553,-1.9704,-5.0794,1.2121,-7.5556,0.0,-3.8647,-9.1026,3.873,-7.1895,3.7179
-12.013,-5.0159,-7.1197,-2.589,2.6016,-5.9615,-6.4412,-3.2692,-3.285,-2.589,2.6016,-6.5681,-5.7143,-1.9777,-9.4603,-4.4872,-7.0853,0.51282,-1.2063,-4.5752,-2.0513
-7.6101,-4.381,-6.4725,-0.64725,-0.65041,-4.0385,-7.0853,-5.1923,-5.2174,-0.64725,-0.65041,-5.9113,-6.9841,-3.2536,-7.5556,-4.4872,-7.0853,11.41,-3.746,-2.6144,-2.0513
-1.3208,-2.4762,-3.2362,1.9417,2.6016,1.0897,-1.2882,6.3462,-1.3527,1.9417,2.6016,-1.3136,-3.1746,-1.3397,-2.4762,-3.2051,-4.5089,2.4359,1.9683,1.9608,-3.3333
5.5975,-2.4762,-1.2945,9.7087,3.9024,4.2949,3.2206,9.5513,7.0209,9.7087,3.9024,3.2841,-1.2698,-2.6156,1.3333,-2.5641,-2.5765,6.2821,-0.57143,5.2288,-3.3333
7.4843,0.06349,1.9417,2.589,0.65041,6.2179,5.7971,2.5,7.6651,2.589,0.65041,5.2545,0.63492,-2.6156,3.2381,-0.64103,-0.64412,10.769,-2.4762,8.4967,-3.3333
4.3396,0.69841,1.9417,3.8835,4.5528,3.6538,3.8647,4.4231,4.4444,3.8835,4.5528,2.6273,1.9048,-1.9777,2.6032,0.0,-0.64412,8.8462,-0.57143,10.458,0.51282
2.4528,1.3333,0.64725,0.0,-2.6016,-1.4744,6.4412,6.9872,1.868,0.0,-2.6016,0.65681,1.9048,-0.70175,1.9683,-0.64103,-0.64412,-13.59,0.06349,6.5359,-0.76923
3.0818,3.2381,-0.64725,-3.8835,-1.3008,-4.6795,1.9324,-1.3462,0.57971,-3.8835,-1.3008,-1.9704,4.4444,3.764,4.5079,2.5641,2.5765,-4.6154,-13.27,7.8431,6.2821
1.195,-5.0159,-3.8835,-12.945,-1.9512,-7.8846,-7.0853,-9.6795,-0.70853,-12.945,-1.9512,-6.5681,0.63492,-1.9777,2.6032,-3.8462,-0.64412,10.769,-2.4762,5.8824,-0.12821
-0.69182,-6.9206,-3.8835,-13.592,-9.7561,-7.8846,-8.3736,-9.0385,-5.2174,-13.592,-9.7561,-7.8818,0.0,-4.5295,1.9683,-6.4103,-0.64412,7.5641,7.6825,3.268,-5.2564
0.56604,-1.2063,-0.64725,-9.0615,-12.358,-5.3205,-7.0853,-7.1154,-7.1498,-9.0615,-12.358,-6.5681,2.5397,-0.70175,5.1429,0.64103,4.5089,7.5641,2.6032,1.3072,1.1538
2.4528,6.4127,3.2362,-4.5307,-11.707,-4.6795,-3.8647,-4.5513,0.57971,-4.5307,-11.707,-4.5977,8.254,7.5917,8.9524,10.256,12.238,-1.4103,4.5079,1.3072,8.2051
3.0818,8.3175,3.8835,-4.5307,-3.9024,-0.83333,0.0,-9.6795,-0.70853,-4.5307,-3.9024,-1.9704,5.7143,6.9537,7.0476,10.897,12.238,-13.59,8.3175,-2.6144,8.8462
-0.06289,7.0476,1.9417,-1.9417,-1.3008,-1.4744,-3.2206,-10.321,-1.9968,-1.9417,-1.3008,-2.6273,0.0,1.2121,2.6032,8.3333,8.3736,-12.949,4.5079,-8.4967,6.2821
-1.9497,5.7778,1.9417,-0.64725,-2.6016,-1.4744,-3.8647,-5.8333,7.6651,-0.64725,-2.6016,-0.65681,0.63492,1.8501,1.3333,6.4103,6.4412,-15.513,3.873,-8.4967,4.359
-5.0943,5.1429,0.0,-3.2362,-1.9512,-4.6795,-3.8647,-5.1923,-3.285,-3.2362,-1.9512,-3.2841,3.1746,3.764,1.9683,5.7692,5.7971,-6.5385,7.0476,-5.2288,3.7179
-1.9497,7.0476,3.8835,-15.534,1.3008,-4.6795,3.2206,2.5,-5.2174,-15.534,1.3008,-1.3136,4.4444,5.6778,4.5079,8.3333,7.7295,1.7949,-1.2063,-0.65359,6.9231
-0.06289,5.7778,5.178,-5.8252,0.0,-4.6795,2.5765,1.2179,5.0886,-5.8252,0.0,-1.3136,2.5397,5.0399,5.1429,7.0513,7.0853,3.0769,-0.57143,0.65359,6.9231
0.56604,3.2381,3.2362,12.945,3.252,-5.3205,3.2206,-0.0641,-3.285,12.945,3.252,-1.3136,1.9048,3.126,3.873,5.1282,5.153,-6.5385,7.6825,0.65359,4.359
-2.5786,0.06349,-1.2945,0.64725,-0.65041,-5.9615,-1.2882,-7.7564,-7.1498,0.64725,-0.65041,-4.5977,-2.5397,0.57416,0.06349,1.9231,0.64412,-3.3333,8.9524,-1.9608,1.1538
1.195,1.3333,0.0,-7.1197,-3.252,-2.1154,-2.5765,-10.962,5.7327,-7.1197,-3.252,-0.65681,-3.1746,-1.9777,0.69841,1.9231,-0.64412,-5.2564,0.06349,0.65359,0.51282
1.8239,0.69841,2.589,2.589,1.3008,1.7308,-3.2206,-6.4744,7.0209,2.589,1.3008,1.9704,-2.5397,-3.2536,1.3333,0.0,-0.64412,-12.949,0.69841,-0.65359,-1.4103
3.7107,4.5079,6.4725,7.767,3.9024,7.5,8.3736,2.5,6.3768,7.767,3.9024,8.5386,1.2698,-2.6156,3.2381,1.2821,0.64412,6.9231,5.7778,1.3072,0.51282
-3.8365,-3.1111,0.0,1.9417,0.65041,1.0897,7.0853,-1.9872,-4.5733,1.9417,0.65041,4.5977,-1.9048,-8.3573,-1.8413,-7.0513,-5.7971,12.051,3.873,0.65359,-7.8205
-4.4654,-4.381,-1.2945,-0.64725,2.6016,-1.4744,7.7295,-2.6282,-3.285,-0.64725,2.6016,3.9409,-1.2698,-7.7193,-2.4762,-8.9744,-6.4412,-2.0513,1.9683,0.65359,-9.7436
-4.4654,-5.6508,-2.589,-9.0615,1.3008,-1.4744,3.2206,-10.321,5.0886,-9.0615,1.3008,1.3136,-2.5397,-6.4434,-4.381,-9.6154,-7.0853,-6.5385,0.06349,-1.3072,-8.4615
-2.5786,0.06349,0.64725,-4.5307,0.65041,0.44872,3.2206,-1.3462,0.57971,-4.5307,0.65041,1.9704,0.63492,-0.0638,-2.4762,-3.8462,-3.2206,-0.76923,-12.0,-1.3072,-1.4103
-0.69182,2.6032,1.2945,1.2945,3.9024,-1.4744,4.5089,-0.70513,2.5121,1.2945,3.9024,0.65681,5.0794,4.4019,-0.57143,-1.2821,0.0,3.7179,2.6032,-1.3072,1.1538
-5.7233,-1.8413,-3.2362,-5.8252,1.3008,-6.6026,-3.8647,-5.1923,4.4444,-5.8252,1.3008,-4.5977,1.2698,2.488,-3.746,-3.8462,-2.5765,-2.0513,8.9524,-5.2288,-1.4103
-3.8365,2.6032,-1.2945,1.9417,5.8537,-4.0385,1.2882,-0.0641,7.6651,1.9417,5.8537,-1.3136,-1.2698,5.6778,-3.746,1.2821,-1.2882,-5.2564,-0.57143,-7.1895,5.641
1.195,3.873,0.0,11.65,1.9512,3.6538,1.9324,0.57692,-1.9968,11.65,1.9512,1.9704,-1.2698,6.9537,-1.2063,3.8462,0.64412,-21.282,1.9683,-6.5359,6.9231
1.195,2.6032,-1.2945,9.7087,0.65041,3.6538,2.5765,8.2692,-3.285,9.7087,0.65041,2.6273,-1.2698,5.0399,-1.2063,3.2051,0.64412,-5.2564,4.5079,-4.5752,5.0
-6.9811,1.3333,-5.178,-3.2362,-7.8049,-3.3974,-0.64412,4.4231,4.4444,-3.2362,-7.8049,-2.6273,-1.9048,4.4019,-5.0159,3.2051,-1.9324,6.2821,8.3175,-3.268,5.0
-7.6101,3.873,-5.178,-11.003,-6.5041,-5.9615,1.9324,-2.6282,-1.9968,-11.003,-6.5041,-3.2841,0.63492,6.9537,-5.0159,7.0513,0.0,8.8462,0.69841,-1.3072,9.4872
-4.4654,2.6032,-3.8835,-4.5307,1.3008,-2.7564,-1.9324,5.7051,-16.812,-4.5307,1.3008,-2.6273,3.8095,8.2297,-1.8413,7.0513,1.9324,6.2821,-5.6508,3.9216,7.5641
1.8239,3.2381,-0.64725,-5.178,5.2033,0.44872,-6.4412,1.2179,-9.7262,-5.178,5.2033,-0.65681,5.7143,7.5917,2.6032,7.6923,3.8647,3.7179,-11.365,6.5359,7.5641
1.8239,-1.8413,0.0,-1.9417,1.3008,1.0897,-9.6618,-2.6282,6.3768,-1.9417,1.3008,-0.65681,3.1746,3.764,2.6032,2.5641,1.2882,-0.76923,-0.57143,5.2288,1.1538
-1.3208,-1.8413,0.0,2.589,-1.9512,-3.3974,-5.153,-5.8333,1.2238,2.589,-1.9512,-1.9704,0.63492,1.2121,0.69841,1.2821,0.0,4.359,3.873,5.2288,-1.4103
3.0818,0.69841,2.589,-0.64725,-3.9024,0.44872,0.0,-5.1923,-7.7939,-0.64725,-3.9024,1.3136,-1.2698,-0.70175,0.69841,1.9231,0.64412,3.0769,-0.57143,5.8824,-0.76923
3.7107,3.2381,4.5307,-5.178,2.6016,0.44872,1.2882,3.141,-4.5733,-5.178,2.6016,3.2841,0.63492,2.488,1.9683,4.4872,3.2206,-11.667,-2.4762,1.9608,2.4359
6.2264,6.4127,8.4142,-5.8252,7.1545,3.6538,8.3736,1.859,-3.285,-5.8252,7.1545,8.5386,3.1746,4.4019,3.873,7.0513,5.7971,-3.3333,-0.57143,1.9608,4.359
4.3396,5.1429,7.767,-4.5307,2.6016,4.2949,8.3736,-2.6282,3.1562,-4.5307,2.6016,9.1954,-1.2698,1.8501,0.69841,3.8462,2.5765,8.2051,3.2381,-1.3072,1.7949
3.7107,5.7778,7.767,4.5307,-3.252,3.6538,7.0853,-5.1923,8.3092,4.5307,-3.252,8.5386,-1.9048,1.8501,-0.57143,4.4872,2.5765,0.51282,3.2381,-3.268,3.7179
1.8239,3.2381,5.178,-1.2945,-2.6016,0.44872,3.8647,-3.9103,3.8003,-1.2945,-2.6016,3.2841,-5.7143,-1.9777,-3.1111,2.5641,0.0,-12.308,2.6032,-9.1503,2.4359
-0.06289,2.6032,3.2362,-4.5307,6.5041,-1.4744,3.8647,-3.9103,-2.6409,-4.5307,6.5041,0.65681,-7.619,-5.1675,-4.381,1.2821,-0.64412,-2.6923,-3.746,-11.111,0.51282
-0.06289,5.1429,3.8835,6.4725,5.2033,-1.4744,3.2206,-1.9872,1.2238,6.4725,5.2033,-1.3136,-4.4444,-2.6156,-0.57143,4.4872,1.9324,3.0769,-10.095,-7.8431,4.359
-0.69182,-0.57143,1.2945,2.589,-5.8537,-3.3974,-1.2882,4.4231,2.5121,2.589,-5.8537,-2.6273,-1.9048,-1.9777,0.06349,0.64103,1.9324,7.5641,3.873,-5.8824,1.7949
0.56604,-3.746,-1.2945,-3.2362,-7.1545,-1.4744,-5.7971,0.57692,-9.0821,-3.2362,-7.1545,-5.2545,0.0,-0.0638,0.69841,-1.9231,0.64412,3.7179,10.857,-3.268,-1.4103
-2.5786,-6.2857,-5.178,-5.178,-3.252,-5.3205,-9.6618,-9.0385,-12.303,-5.178,-3.252,-9.1954,1.2698,1.8501,-0.57143,-2.5641,0.0,-11.667,2.6032,-2.6144,0.51282
-1.9497,-4.381,-3.8835,-6.4725,-3.9024,-4.6795,-10.306,1.2179,0.57971,-6.4725,-3.9024,-8.5386,3.8095,2.488,1.9683,0.0,1.9324,-3.3333,-2.4762,1.9608,-0.12821
5.5975,5.7778,3.8835,-9.7087,-6.5041,2.3718,1.2882,6.3462,-1.9968,-9.7087,-6.5041,1.9704,6.9841,6.9537,8.3175,7.6923,7.7295,13.333,-4.381,11.765,6.2821
4.3396,5.7778,3.8835,-1.9417,-12.358,2.3718,3.8647,4.4231,-3.9291,-1.9417,-12.358,3.9409,7.619,6.3158,8.3175,7.6923,7.0853,21.025999,-5.0159,10.458,4.359
6.2264,3.873,3.2362,2.589,-5.2033,5.5769,1.2882,3.7821,-0.70853,2.589,-5.2033,4.5977,7.619,3.764,8.3175,6.4103,6.4412,16.538,-1.2063,8.4967,0.51282
5.5975,5.7778,3.8835,1.2945,3.252,4.9359,2.5765,0.57692,-3.9291,1.2945,3.252,4.5977,5.0794,1.8501,6.4127,6.4103,5.153,12.051,-3.1111,7.8431,1.1538
6.8553,7.6825,5.178,8.4142,2.6016,6.2179,6.4412,5.7051,1.2238,8.4142,2.6016,7.225,4.4444,2.488,7.0476,6.4103,5.153,10.128,-2.4762,7.8431,1.1538
10.0,9.5873,7.1197,16.181,10.407,10.705,12.238,10.192,4.4444,16.181,10.407,11.823,3.1746,3.126,7.6825,7.0513,4.5089,0.51282,-3.746,7.1895,4.359
8.7421,5.7778,6.4725,14.239,5.2033,15.833,15.459,8.9103,8.9533,14.239,5.2033,13.136,0.63492,-0.0638,4.5079,2.5641,1.2882,-9.7436,1.3333,1.9608,0.51282
1.8239,1.3333,1.9417,3.2362,5.2033,8.7821,3.2206,1.859,9.5974,3.2362,5.2033,7.8818,-2.5397,-3.2536,-1.2063,-1.9231,-2.5765,6.2821,7.6825,-2.6144,-2.6923
-1.9497,0.69841,0.0,1.9417,10.407,3.0128,-1.9324,5.0641,12.174,1.9417,10.407,3.9409,-2.5397,-1.9777,-2.4762,-2.5641,-3.8647,10.128,4.5079,-3.9216,-0.12821
-1.9497,-1.2063,-1.2945,4.5307,8.4553,3.6538,5.153,1.2179,7.6651,4.5307,8.4553,4.5977,-1.9048,-3.2536,-5.0159,-4.4872,-5.153,-0.12821,5.1429,-5.2288,-2.6923
-5.7233,-6.9206,-6.4725,3.2362,-2.6016,2.3718,3.2206,-0.70513,-1.3527,3.2362,-2.6016,1.3136,-3.8095,-4.5295,-8.8254,-9.6154,-9.0177,-7.8205,1.9683,-4.5752,-4.6154
-10.126,-7.5556,-8.4142,6.4725,-5.8537,-0.19231,3.2206,-4.5513,-1.3527,6.4725,-5.8537,0.0,-4.4444,-3.8915,-10.095,-10.256,-10.95,-4.6154,-1.2063,1.3072,-3.3333
-15.157,-8.1905,-11.65,0.64725,2.6016,-6.6026,-1.9324,-1.9872,-0.70853,0.64725,2.6016,-6.5681,-5.0794,-6.4434,-11.365,-10.256,-12.238,-1.4103,-1.8413,-0.65359,-3.9744
-16.415001,-9.4603,-13.592,-3.8835,6.5041,-10.449,-5.7971,-3.2692,1.868,-3.8835,6.5041,-9.8522,-7.619,-7.7193,-13.905,-10.897,-13.527,-5.8974,0.69841,-7.1895,-4.6154
-13.899,-10.73,-14.239,-3.2362,-0.65041,-9.1667,-9.6618,-5.8333,5.7327,-3.2362,-0.65041,-9.8522,-5.7143,-5.8054,-12.635,-10.897,-12.882,-2.0513,0.06349,-4.5752,-6.5385
-5.0943,-5.6508,-8.4142,-1.2945,0.0,-3.3974,-5.7971,2.5,-6.5056,-1.2945,0.0,-4.5977,-1.9048,-1.9777,-5.6508,-5.7692,-7.0853,-1.4103,-9.4603,1.9608,-3.3333
-1.3208,-3.1111,-3.8835,-5.178,-5.2033,-0.19231,-4.5089,0.57692,-7.1498,-5.178,-5.2033,-2.6273,-1.2698,-1.3397,-2.4762,-3.8462,-4.5089,-1.4103,-5.6508,4.5752,-2.6923
2.4528,-1.8413,-1.9417,-0.64725,-8.4553,-2.1154,-2.5765,0.57692,-9.0821,-0.64725,-8.4553,-2.6273,0.0,-0.0638,1.3333,-1.9231,-1.9324,3.7179,1.3333,9.1503,-3.3333
8.7421,-0.57143,1.2945,3.8835,-3.9024,1.0897,-1.9324,3.7821,-6.5056,3.8835,-3.9024,-1.3136,3.8095,2.488,7.0476,0.64103,3.8647,-2.6923,0.06349,10.458,-1.4103
5.5975,-2.4762,-1.2945,-2.589,-2.6016,-2.1154,-5.153,-0.0641,-0.06441,-2.589,-2.6016,-5.2545,2.5397,1.2121,6.4127,1.2821,4.5089,13.333,-1.8413,8.4967,-1.4103
-0.69182,-4.381,-3.2362,-14.887,-5.8537,-5.3205,-9.0177,-1.9872,6.3768,-14.887,-5.8537,-7.225,0.0,-3.2536,3.2381,-1.2821,1.9324,11.41,-4.381,5.8824,-3.9744
2.4528,-4.381,-0.64725,-4.5307,2.6016,-0.19231,-7.0853,1.859,7.6651,-4.5307,2.6016,-3.9409,0.63492,-5.1675,4.5079,-1.2821,3.2206,8.8462,1.3333,7.1895,-4.6154
8.1132,-1.2063,4.5307,1.9417,5.2033,7.5,-2.5765,9.5513,8.9533,1.9417,5.2033,1.3136,4.4444,-4.5295,7.6825,1.2821,6.4412,1.7949,2.6032,6.5359,-3.3333
8.7421,4.5079,9.0615,10.356,-2.6016,8.141,2.5765,7.6282,5.7327,10.356,-2.6016,5.2545,6.9841,0.57416,9.5873,6.4103,10.306,5.641,1.3333,4.5752,0.51282
3.7107,5.7778,6.4725,3.2362,-0.65041,4.2949,5.7971,-2.6282,-5.8615,3.2362,-0.65041,3.9409,3.1746,1.8501,5.1429,7.0513,8.3736,-3.9744,0.69841,0.0,3.0769
1.8239,5.1429,6.4725,-4.5307,0.65041,2.3718,9.0177,-0.70513,-16.812,-4.5307,0.65041,3.2841,1.9048,3.126,3.2381,7.0513,7.0853,-1.4103,-8.8254,2.6144,5.0
4.3396,2.6032,9.0615,11.003,9.7561,3.6538,7.0853,5.7051,-4.5733,11.003,9.7561,6.5681,5.7143,3.764,5.1429,5.1282,7.7295,10.769,-0.57143,7.1895,0.51282
4.9686,-1.2063,7.767,6.4725,13.659,7.5,-2.5765,13.397,10.242,6.4725,13.659,6.5681,8.254,4.4019,5.7778,2.5641,7.7295,9.4872,3.873,7.1895,-2.6923
6.2264,1.9683,7.1197,7.767,3.9024,6.859,0.64412,10.833,10.242,7.767,3.9024,6.5681,8.8889,5.6778,5.1429,4.4872,7.0853,5.0,-8.8254,6.5359,1.1538
3.0818,1.9683,5.178,3.2362,-2.6016,3.6538,2.5765,1.859,2.5121,3.2362,-2.6016,4.5977,3.8095,1.8501,1.9683,2.5641,3.2206,-12.308,-3.746,3.9216,-0.12821
3.0818,1.3333,7.1197,5.178,1.3008,1.0897,5.7971,-1.3462,-2.6409,5.178,1.3008,5.9113,3.8095,-0.0638,2.6032,1.2821,2.5765,0.51282,-6.2857,6.5359,-3.3333
3.7107,0.69841,6.4725,1.2945,3.252,0.44872,1.2882,-7.1154,-9.0821,1.2945,3.252,3.2841,3.8095,-1.3397,3.873,0.64103,2.5765,3.0769,-2.4762,7.8431,-4.6154
1.8239,-0.57143,1.9417,-9.0615,-1.3008,-0.83333,-1.9324,-11.603,-16.812,-9.0615,-1.3008,-1.9704,0.63492,-5.1675,0.06349,-1.2821,0.0,-9.1026,-2.4762,3.9216,-3.9744
-2.5786,-4.381,-3.2362,-3.8835,-10.407,-3.3974,-5.7971,-10.962,-13.591,-3.8835,-10.407,-7.225,-1.9048,-8.3573,-2.4762,-5.1282,-3.8647,1.1538,-3.1111,1.3072,-5.8974
-1.9497,-3.1111,-1.9417,1.2945,-14.959,-2.7564,-2.5765,-1.9872,-0.70853,1.2945,-14.959,-4.5977,0.0,-6.4434,-0.57143,-4.4872,-1.9324,3.0769,1.3333,1.9608,-6.5385
-1.9497,1.3333,1.2945,0.0,-5.2033,-4.6795,-1.2882,2.5,3.8003,0.0,-5.2033,-2.6273,1.9048,0.57416,2.6032,0.64103,2.5765,1.1538,-4.381,3.268,0.51282
-1.9497,1.9683,1.2945,-0.64725,4.5528,-4.6795,-6.4412,1.859,3.8003,-0.64725,4.5528,-3.9409,2.5397,3.126,3.873,1.9231,3.8647,-5.8974,-1.2063,3.268,3.0769
1.195,3.2381,4.5307,3.8835,1.3008,-0.19231,-1.2882,1.2179,0.57971,3.8835,1.3008,1.3136,6.9841,5.0399,7.0476,3.2051,7.0853,-19.358999,2.6032,2.6144,1.7949
4.3396,9.5873,10.356,-2.589,0.0,4.9359,10.306,-3.9103,2.5121,-2.589,0.0,7.8818,8.254,8.2297,7.6825,8.3333,9.6618,-10.385,1.9683,1.3072,7.5641
-0.06289,8.3175,7.1197,-6.4725,0.0,3.6538,7.7295,-7.7564,-0.06441,-6.4725,0.0,5.2545,3.1746,5.6778,1.9683,7.0513,5.7971,-6.5385,9.5873,-7.1895,7.5641
-3.8365,4.5079,2.589,-6.4725,1.9512,2.3718,4.5089,-9.6795,-1.9968,-6.4725,1.9512,1.9704,-0.63492,3.764,-2.4762,3.8462,1.9324,-20.0,15.302,-15.686,6.2821
-5.7233,1.9683,0.64725,-0.64725,3.9024,-0.19231,2.5765,-15.449,1.868,-0.64725,3.9024,0.0,-3.8095,2.488,-5.6508,3.2051,-0.64412,-12.308,8.3175,-17.646999,6.9231
-7.6101,0.69841,-0.64725,2.589,1.9512,-2.7564,-1.9324,-3.2692,7.6651,2.589,1.9512,-2.6273,-5.0794,2.488,-6.9206,3.2051,-1.9324,-12.949,7.0476,-18.301001,4.359
-3.8365,2.6032,0.0,0.0,-1.3008,-3.3974,1.9324,2.5,10.242,0.0,-1.3008,-1.3136,-2.5397,4.4019,-3.746,4.4872,0.64412,-13.59,3.2381,-14.379,5.0
-0.69182,4.5079,0.64725,3.8835,0.0,-5.3205,3.2206,-5.8333,6.3768,3.8835,0.0,-1.9704,-2.5397,1.8501,-1.8413,4.4872,1.9324,-2.6923,3.873,-13.072,3.7179
1.195,4.5079,2.589,-2.589,-0.65041,-4.0385,6.4412,-5.8333,2.5121,-2.589,-0.65041,-0.65681,-5.0794,-0.0638,-0.57143,4.4872,1.9324,-5.2564,5.1429,-11.111,3.0769
1.8239,6.4127,3.8835,-10.356,1.3008,-4.0385,5.153,-5.1923,10.886,-10.356,1.3008,-0.65681,-5.0794,1.8501,0.69841,7.0513,2.5765,-8.4615,-0.57143,-7.8431,6.9231
2.4528,11.492,6.4725,-3.8835,7.1545,-0.83333,14.171,3.141,6.3768,-3.8835,7.1545,3.2841,-2.5397,2.488,1.9683,10.897,3.8647,1.1538,0.69841,-4.5752,10.128
3.7107,10.857,6.4725,-2.589,0.65041,2.3718,13.527,2.5,-1.3527,-2.589,0.65041,5.2545,-1.9048,-1.3397,1.9683,7.6923,3.2206,6.9231,15.302,-5.2288,4.359
2.4528,5.7778,3.2362,-3.2362,9.1057,0.44872,5.153,-3.9103,7.0209,-3.2362,9.1057,1.9704,-2.5397,-5.8054,0.69841,2.5641,0.64412,8.8462,12.762,-3.9216,-2.6923
0.56604,0.69841,0.0,0.64725,11.057,0.44872,-0.64412,-7.1154,11.53,0.64725,11.057,1.3136,-5.0794,-9.6332,-1.8413,-3.2051,-2.5765,-0.12821,2.6032,-4.5752,-10.385
9.3711,0.06349,4.5307,3.8835,7.8049,10.064,3.2206,1.859,12.174,3.8835,7.8049,6.5681,-4.4444,-10.271,3.2381,-3.8462,-0.64412,-0.76923,1.9683,1.3072,-12.308
10.0,3.2381,7.1197,11.003,4.5528,8.141,5.7971,8.9103,3.1562,11.003,4.5528,7.225,-0.63492,-5.1675,6.4127,-0.64103,1.9324,10.769,-2.4762,4.5752,-7.8205
8.1132,1.3333,3.8835,12.298,1.3008,2.3718,2.5765,9.5513,0.57971,12.298,1.3008,1.9704,1.2698,-3.8915,6.4127,-2.5641,1.2882,10.128,-2.4762,6.5359,-7.8205
5.5975,-5.0159,-1.2945,5.178,0.0,-1.4744,-2.5765,5.7051,-3.285,5.178,0.0,-2.6273,2.5397,-3.2536,5.1429,-5.1282,0.64412,3.0769,-6.9206,5.2288,-6.5385
0.56604,-10.095,-5.178,1.9417,-5.2033,-2.1154,-7.0853,4.4231,-5.2174,1.9417,-5.2033,-3.9409,1.9048,-1.9777,1.9683,-7.6923,-0.64412,4.359,-8.8254,0.65359,-7.1795
0.56604,-7.5556,-3.8835,-1.9417,-0.65041,3.0128,-3.2206,4.4231,-6.5056,-1.9417,-0.65041,0.65681,1.2698,-0.0638,0.06349,-5.7692,-0.64412,5.0,-6.9206,-1.3072,-3.3333
2.4528,-1.8413,-1.2945,0.0,2.6016,6.2179,-3.2206,9.5513,-6.5056,0.0,2.6016,1.9704,3.1746,4.4019,1.3333,-0.64103,1.2882,8.8462,-6.9206,1.9608,2.4359
4.9686,-0.57143,0.64725,9.0615,-1.3008,7.5,-0.64412,10.192,-5.8615,9.0615,-1.3008,3.2841,3.8095,5.6778,1.9683,0.0,1.2882,11.41,-2.4762,2.6144,3.0769
1.8239,-1.2063,0.64725,11.65,-1.3008,2.3718,-3.8647,8.2692,-9.0821,11.65,-1.3008,1.3136,0.0,2.488,-0.57143,-1.9231,-1.9324,5.0,-1.2063,-1.3072,-0.76923
1.195,-1.2063,2.589,9.0615,8.4553,4.2949,-3.2206,4.4231,-3.285,9.0615,8.4553,3.9409,-3.1746,1.2121,-3.746,-2.5641,-5.153,11.41,0.06349,-1.9608,-0.12821
2.4528,1.3333,2.589,8.4142,7.1545,5.5769,1.2882,7.6282,3.8003,8.4142,7.1545,5.9113,-5.0794,0.57416,-4.381,-1.2821,-6.4412,10.769,-1.8413,-2.6144,3.0769
-1.9497,-3.746,-3.2362,1.2945,-0.65041,-0.83333,1.2882,5.0641,-1.3527,1.2945,-0.65041,1.3136,-8.8889,-4.5295,-7.5556,-6.4103,-10.306,8.8462,0.69841,-5.2288,-0.12821
-1.9497,-4.381,-5.178,-3.2362,-2.6016,-2.7564,-1.2882,5.7051,-4.5733,-3.2362,-2.6016,-2.6273,-6.9841,-3.8915,-4.381,-5.1282,-7.7295,1.7949,4.5079,0.65359,-0.76923
-0.69182,-3.746,-3.2362,-0.64725,-3.9024,-3.3974,-3.8647,4.4231,-7.7939,-0.64725,-3.9024,-3.2841,-4.4444,-1.3397,-0.57143,-1.9231,-1.9324,5.641,0.69841,0.65359,0.51282
-0.69182,-1.8413,-1.9417,-9.7087,-3.9024,-2.7564,-4.5089,3.7821,-8.438,-9.7087,-3.9024,-3.2841,-1.9048,-0.70175,1.3333,-0.64103,1.2882,2.4359,-5.0159,-1.3072,0.51282
-1.9497,-1.8413,-2.589,-20.712,-13.659,-4.0385,-1.2882,-1.3462,-11.014,-20.712,-13.659,-4.5977,-2.5397,-2.6156,0.69841,-1.2821,1.2882,-2.6923,-3.746,-1.3072,-0.76923
1.8239,-1.8413,-1.2945,0.0,-14.309,-2.7564,-2.5765,1.2179,-3.285,0.0,-14.309,-3.2841,0.63492,-0.70175,3.873,0.0,3.8647,8.8462,-5.0159,3.9216,0.51282
5.5975,-0.57143,0.0,7.767,-7.1545,-2.7564,-1.9324,-1.9872,-1.9968,7.767,-7.1545,-3.2841,4.4444,2.488,7.6825,1.9231,7.0853,1.7949,0.06349,5.8824,0.51282
6.2264,1.3333,0.0,-1.2945,-9.1057,-2.1154,-5.153,-6.4744,0.57971,-1.2945,-9.1057,-4.5977,6.3492,4.4019,8.9524,5.1282,8.3736,3.0769,-10.095,7.1895,3.0769
-2.5786,1.9683,-2.589,-7.767,-1.3008,-7.8846,-6.4412,-3.2692,3.8003,-7.767,-1.3008,-7.225,6.9841,6.9537,5.7778,5.1282,7.0853,6.9231,-5.6508,4.5752,5.0
-4.4654,-2.4762,-5.178,-7.1197,4.5528,-8.5256,-6.4412,-9.0385,0.57971,-7.1197,4.5528,-8.5386,3.1746,3.126,1.9683,0.64103,2.5765,-0.12821,7.6825,1.3072,1.1538
-5.0943,-2.4762,-4.5307,-3.8835,3.252,-5.3205,-6.4412,-5.1923,-4.5733,-3.8835,3.252,-5.2545,-0.63492,1.2121,-1.2063,-1.2821,-0.64412,-9.7436,5.1429,-0.65359,-0.12821
-6.3522,-4.381,-7.1197,-4.5307,-2.6016,-4.6795,-4.5089,-1.9872,-7.7939,-4.5307,-2.6016,-3.9409,-5.7143,-3.8915,-5.6508,-5.7692,-7.0853,-8.4615,1.3333,-4.5752,-2.0513
-5.0943,-5.0159,-5.8252,-0.64725,-5.8537,-1.4744,-1.9324,-0.0641,-3.285,-0.64725,-5.8537,-1.3136,-3.8095,-3.8915,-5.0159,-6.4103,-7.7295,1.7949,5.1429,-2.6144,-3.3333
0.56604,3.2381,0.0,-5.8252,-0.65041,4.2949,5.153,-0.70513,3.8003,-5.8252,-0.65041,3.2841,-1.2698,0.57416,-1.2063,0.0,-3.2206,1.1538,1.3333,-1.9608,5.0
-1.9497,4.5079,0.64725,-11.65,-1.9512,2.3718,1.9324,-0.70513,9.5974,-11.65,-1.9512,1.9704,-3.8095,-0.70175,-3.1111,0.64103,-3.8647,-1.4103,-0.57143,-4.5752,5.0
-0.06289,5.1429,2.589,3.8835,-1.9512,2.3718,7.0853,-0.0641,0.57971,3.8835,-1.9512,4.5977,-4.4444,-0.0638,-1.2063,1.2821,-1.9324,-2.0513,4.5079,-1.3072,3.7179
3.7107,5.7778,3.8835,7.767,-4.5528,4.9359,9.6618,3.7821,-0.06441,7.767,-4.5528,6.5681,-3.8095,0.57416,1.3333,2.5641,0.0,-5.8974,8.3175,-0.65359,1.7949
7.4843,8.3175,5.178,6.4725,4.5528,7.5,6.4412,5.0641,9.5974,6.4725,4.5528,7.225,-3.1746,1.2121,3.2381,5.1282,2.5765,2.4359,5.1429,-1.3072,6.9231
10.629,14.667,9.7087,9.7087,14.959,10.705,5.153,8.9103,7.0209,9.7087,14.959,9.1954,-1.2698,1.2121,7.0476,10.256,7.0853,-0.76923,-1.2063,-2.6144,11.41
12.516,11.492,10.356,17.476,16.910999,12.628,5.7971,9.5513,5.7327,17.476,16.910999,11.823,0.63492,-0.70175,9.5873,8.3333,9.0177,6.2821,8.9524,1.3072,5.641
11.258,7.6825,9.0615,14.239,11.057,10.705,10.306,6.9872,5.7327,14.239,11.057,11.166,1.2698,-1.9777,9.5873,5.7692,9.6618,9.4872,10.857,1.9608,0.51282
11.258,7.0476,7.767,9.7087,8.4553,13.91,10.95,6.9872,5.7327,9.7087,8.4553,10.509,-1.2698,-3.2536,8.3175,5.1282,8.3736,2.4359,3.2381,0.65359,-0.12821
12.516,6.4127,7.767,-0.64725,9.7561,16.474001,6.4412,6.3462,11.53,-0.64725,9.7561,9.8522,-2.5397,-2.6156,7.0476,5.1282,7.0853,-1.4103,-1.8413,-1.3072,-0.12821
12.516,7.0476,8.4142,3.2362,9.7561,14.551,3.2206,6.9872,5.7327,3.2362,9.7561,8.5386,-0.63492,-0.70175,6.4127,5.7692,5.7971,6.9231,-1.8413,3.268,-0.76923
9.3711,1.9683,5.8252,20.065001,6.5041,8.141,2.5765,10.192,1.2238,20.065001,6.5041,6.5681,0.63492,-2.6156,3.2381,1.9231,2.5765,-2.0513,-0.57143,4.5752,-7.1795
9.3711,-1.2063,4.5307,19.417,1.9512,6.2179,-1.2882,-1.3462,-3.285,19.417,1.9512,3.2841,3.1746,-0.70175,2.6032,0.64103,1.9324,-5.8974,-9.4603,5.8824,-7.1795
2.4528,-1.2063,1.2945,7.1197,-6.5041,1.7308,2.5765,-7.1154,-7.1498,7.1197,-6.5041,2.6273,4.4444,3.126,-1.2063,-1.2821,-1.2882,3.7179,-9.4603,5.8824,-5.2564
-4.4654,-3.746,-2.589,-3.2362,0.65041,-2.1154,4.5089,-6.4744,-2.6409,-3.2362,0.65041,1.3136,1.9048,-0.0638,-6.9206,-5.7692,-6.4412,0.51282,-12.635,3.268,-6.5385
-5.0943,0.06349,-2.589,-1.9417,5.2033,-0.19231,3.2206,-1.3462,1.868,-1.9417,5.2033,2.6273,2.5397,1.2121,-7.5556,-2.5641,-6.4412,0.51282,-16.444,2.6144,-1.4103
-6.3522,-2.4762,-5.178,-9.7087,3.252,0.44872,2.5765,-0.0641,4.4444,-9.7087,3.252,1.3136,3.1746,1.8501,-7.5556,-6.4103,-7.7295,-13.59,-1.2063,3.268,-3.9744
-6.9811,-8.1905,-9.0615,-6.4725,1.9512,-2.1154,-1.2882,-10.962,5.0886,-6.4725,1.9512,-1.9704,1.2698,1.2121,-8.8254,-10.897,-10.95,-12.308,4.5079,1.9608,-3.9744
-8.8679,-5.0159,-8.4142,-9.7087,-0.65041,-4.0385,1.2882,-14.808,5.7327,-9.7087,-0.65041,-2.6273,-0.63492,1.2121,-8.8254,-8.9744,-10.306,-7.8205,-3.746,-1.3072,-0.76923
-8.8679,-8.1905,-9.7087,-11.65,0.65041,-7.2436,0.0,-11.603,3.1562,-11.65,0.65041,-4.5977,-0.63492,-1.3397,-9.4603,-10.897,-10.95,-9.1026,2.6032,-0.65359,-3.9744
-10.126,-8.8254,-11.003,-8.4142,-0.65041,-9.8077,-2.5765,-9.6795,-0.70853,-8.4142,-0.65041,-7.225,-3.1746,-4.5295,-10.73,-11.538,-12.882,-3.9744,5.7778,-3.9216,-3.9744
-9.4969,-2.4762,-7.1197,1.2945,-1.9512,-5.9615,0.0,1.2179,-5.2174,1.2945,-1.9512,-2.6273,-5.0794,-4.5295,-10.095,-8.3333,-10.95,-2.0513,7.0476,-3.9216,-0.76923
-8.8679,-0.57143,-3.8835,-2.589,-2.6016,-4.0385,-0.64412,-0.70513,-0.06441,-2.589,-2.6016,-0.65681,-6.3492,-5.1675,-10.095,-5.7692,-9.0177,-0.76923,5.7778,-7.1895,-0.76923
-10.755,-2.4762,-5.178,-7.767,-12.358,-5.9615,1.9324,-7.7564,-1.9968,-7.767,-12.358,-2.6273,-7.619,-3.8915,-12.0,-5.7692,-9.0177,-9.7436,2.6032,-11.765,-0.76923
-13.27,-4.381,-8.4142,-5.8252,-5.8537,-11.09,-7.0853,-9.0385,-9.0821,-5.8252,-5.8537,-9.1954,-7.619,-1.3397,-12.0,-5.1282,-8.3736,-12.308,-4.381,-11.111,-1.4103
-10.126,-2.4762,-7.767,-7.767,0.0,-9.8077,-11.594,-8.3974,-2.6409,-7.767,0.0,-10.509,-1.2698,2.488,-8.8254,-1.9231,-5.153,-17.436001,-0.57143,-8.4967,1.1538
-3.8365,0.69841,-2.589,-12.945,-6.5041,-4.0385,-7.0853,-8.3974,-2.6409,-12.945,-6.5041,-6.5681,5.7143,7.5917,-3.1111,3.2051,0.0,-11.026,-4.381,-1.9608,8.2051
-8.239,1.3333,-2.589,-14.887,-14.959,-7.2436,-1.9324,-14.167,-4.5733,-14.887,-14.959,-5.9113,7.619,8.8676,-1.8413,4.4872,1.9324,-9.1026,-1.2063,0.65359,6.9231
-10.126,-3.746,-5.8252,-12.945,-14.959,-12.372,-5.7971,-12.885,1.868,-12.945,-14.959,-7.8818,6.3492,6.9537,-2.4762,0.0,0.64412,-7.1795,5.7778,1.3072,1.7949
-5.7233,-6.9206,-5.178,-12.298,-6.5041,-14.295,-10.306,-6.4744,-2.6409,-12.298,-6.5041,-9.8522,6.9841,7.5917,1.3333,-1.9231,1.9324,-6.5385,1.3333,2.6144,-0.76923
-2.5786,-6.2857,-3.2362,-12.945,-1.3008,-11.731,-4.5089,-3.9103,-6.5056,-12.945,-1.3008,-7.8818,6.9841,5.6778,3.873,-2.5641,3.2206,-0.76923,-2.4762,3.9216,-2.6923
0.56604,-3.746,0.0,2.589,-3.252,-4.0385,-4.5089,-0.0641,-12.947,2.589,-3.252,-5.9113,6.9841,3.764,6.4127,-0.64103,5.153,3.7179,-3.746,7.1895,-3.3333
2.4528,0.06349,2.589,5.178,-6.5041,-0.19231,-5.153,-0.0641,-8.438,5.178,-6.5041,-2.6273,6.9841,5.0399,7.0476,1.9231,6.4412,-3.9744,-5.0159,8.4967,-0.76923
-0.69182,-5.6508,-1.2945,-1.2945,-9.7561,-2.7564,-9.6618,0.57692,-0.70853,-1.2945,-9.7561,-4.5977,2.5397,1.8501,3.873,-3.2051,3.2206,1.7949,-6.2857,7.1895,-7.1795
-0.06289,-8.1905,-1.9417,-2.589,-7.1545,1.0897,-1.2882,5.0641,-2.6409,-2.589,-7.1545,-0.65681,1.2698,-1.9777,2.6032,-5.7692,0.64412,0.51282,-8.1905,7.1895,-9.7436
5.5975,-4.381,3.2362,-1.9417,0.65041,10.705,1.2882,10.192,1.2238,-1.9417,0.65041,5.2545,3.1746,-0.70175,5.7778,-1.9231,2.5765,3.7179,-6.9206,11.111,-5.8974
2.4528,-5.6508,0.0,8.4142,2.6016,7.5,-7.0853,11.474,2.5121,8.4142,2.6016,2.6273,1.2698,-3.2536,2.6032,-3.8462,-1.2882,16.538,-12.0,11.111,-5.2564
-0.06289,-7.5556,-3.2362,5.8252,0.65041,4.9359,-8.3736,6.9872,1.2238,5.8252,0.65041,0.65681,-1.9048,-6.4434,-1.2063,-6.4103,-5.7971,9.4872,-7.5556,7.8431,-6.5385
0.56604,-5.6508,-2.589,3.8835,4.5528,3.6538,0.0,9.5513,2.5121,3.8835,4.5528,2.6273,-2.5397,-4.5295,-1.8413,-5.1282,-4.5089,8.2051,5.1429,1.3072,-7.1795
-0.69182,-1.2063,-1.9417,9.0615,7.1545,1.7308,3.2206,6.3462,1.868,9.0615,7.1545,1.3136,-3.1746,-3.8915,-2.4762,-2.5641,-4.5089,10.769,5.1429,-1.9608,-3.3333
1.195,-1.2063,-2.589,6.4725,-1.9512,2.3718,1.2882,5.7051,-9.7262,6.4725,-1.9512,-0.65681,-5.0794,-4.5295,-4.381,-1.9231,-5.7971,2.4359,1.9683,-3.268,-0.12821
4.3396,1.3333,0.0,5.178,-0.65041,3.0128,1.9324,7.6282,-10.37,5.178,-0.65041,0.0,-1.2698,-0.0638,-1.2063,1.9231,-2.5765,8.2051,0.06349,0.65359,4.359
5.5975,3.873,2.589,-3.2362,0.65041,4.9359,-3.2206,-7.1154,3.1562,-3.2362,0.65041,0.0,0.0,1.2121,0.69841,5.1282,-0.64412,1.1538,0.69841,3.9216,6.9231
8.1132,5.1429,4.5307,-5.8252,0.0,4.9359,-5.7971,-3.2692,3.8003,-5.8252,0.0,0.0,0.63492,1.8501,1.9683,5.7692,0.64412,-3.3333,-1.2063,0.65359,4.359
5.5975,5.7778,5.178,3.8835,-1.3008,4.2949,-3.2206,6.9872,-1.9968,3.8835,-1.3008,1.3136,0.0,0.57416,1.9683,5.7692,1.2882,8.2051,-3.746,-1.9608,2.4359
6.2264,5.1429,6.4725,5.178,-6.5041,5.5769,-1.9324,4.4231,-7.1498,5.178,-6.5041,3.9409,0.0,3.126,3.873,7.0513,4.5089,6.2821,-5.0159,-0.65359,4.359
9.3711,7.6825,9.0615,4.5307,-5.8537,6.2179,0.64412,-1.3462,-10.37,4.5307,-5.8537,3.9409,5.0794,7.5917,8.9524,10.897,9.6618,6.2821,-1.2063,3.9216,7.5641
7.4843,10.857,10.356,-5.8252,1.3008,3.0128,3.2206,-1.3462,-7.1498,-5.8252,1.3008,4.5977,4.4444,8.2297,8.9524,12.821,11.594,8.8462,5.7778,3.268,10.769
8.1132,8.9524,12.298,-6.4725,-1.3008,3.6538,5.7971,-2.6282,-7.1498,-6.4725,-1.3008,5.2545,1.2698,6.3158,8.9524,10.897,11.594,-0.76923,7.0476,-0.65359,6.2821
15.031,12.127,18.122999,8.4142,-2.6016,5.5769,10.306,3.141,-0.70853,8.4142,-2.6016,9.8522,9.5238,11.419,15.937,15.385,17.391001,6.2821,5.7778,8.4967,8.2051
10.0,12.127,14.887,3.2362,-5.8537,2.3718,7.0853,4.4231,6.3768,3.2362,-5.8537,7.225,12.698,11.419,14.667,16.025999,17.391001,3.7179,-1.8413,10.458,8.2051
6.2264,8.3175,9.7087,-5.178,7.8049,2.3718,4.5089,2.5,7.6651,-5.178,7.8049,4.5977,6.3492,6.3158,9.5873,10.897,12.882,-3.9744,0.69841,7.8431,3.0769
6.2264,7.6825,10.356,-1.9417,13.008,5.5769,4.5089,2.5,9.5974,-1.9417,13.008,6.5681,4.4444,3.126,8.3175,8.9744,10.306,-7.1795,-0.57143,4.5752,1.1538
9.3711,10.857,11.65,11.65,14.959,8.7821,12.238,0.57692,11.53,11.65,14.959,12.479,6.3492,1.8501,8.3175,8.3333,9.6618,13.974,-5.0159,9.1503,-0.76923
9.3711,8.9524,10.356,11.003,16.26,10.705,14.815,-0.0641,12.818,11.003,16.26,13.136,6.9841,1.8501,7.0476,5.7692,7.0853,15.256,-3.746,7.1895,-2.6923
6.2264,7.6825,8.4142,9.0615,8.4553,10.064,17.391001,6.3462,14.75,9.0615,8.4553,13.136,3.8095,1.8501,2.6032,3.8462,2.5765,8.2051,5.7778,1.9608,-1.4103
6.2264,7.0476,7.1197,1.2945,10.407,9.4231,15.459,6.9872,12.174,1.2945,10.407,11.823,0.63492,-0.0638,1.3333,2.5641,0.0,9.4872,1.9683,3.268,-1.4103
3.7107,7.0476,5.8252,-0.64725,11.057,4.9359,6.4412,2.5,2.5121,-0.64725,11.057,7.8818,-0.63492,1.8501,0.69841,4.4872,0.64412,-0.76923,-6.9206,-1.3072,3.7179
2.4528,5.1429,5.178,7.767,2.6016,-0.19231,5.7971,6.3462,1.2238,7.767,2.6016,4.5977,1.9048,2.488,1.3333,3.8462,1.9324,-1.4103,5.7778,-2.6144,2.4359
-1.3208,2.6032,0.64725,-5.178,-0.65041,-3.3974,2.5765,6.9872,7.0209,-5.178,-0.65041,-0.65681,0.63492,2.488,0.06349,2.5641,0.64412,-7.8205,7.0476,-1.9608,-0.12821
-5.7233,1.3333,-4.5307,-4.5307,1.3008,-6.6026,5.153,-3.9103,-3.9291,-4.5307,1.3008,-3.9409,0.0,3.126,-1.2063,2.5641,-0.64412,-9.1026,-0.57143,-1.9608,2.4359
-6.3522,1.3333,-5.178,-1.2945,2.6016,-5.9615,0.0,-7.7564,-1.9968,-1.2945,2.6016,-4.5977,1.2698,3.126,-0.57143,3.8462,1.2882,-3.3333,3.2381,-0.65359,4.359
-3.8365,3.873,-1.9417,-2.589,-1.9512,-7.8846,-2.5765,-7.1154,7.0209,-2.589,-1.9512,-5.2545,1.9048,3.126,1.9683,6.4103,3.8647,6.2821,0.06349,2.6144,6.2821
-1.3208,4.5079,0.64725,3.2362,-8.4553,-7.2436,-5.153,-4.5513,5.0886,3.2362,-8.4553,-6.5681,3.8095,3.126,5.1429,7.6923,5.7971,7.5641,7.6825,5.8824,6.9231
-2.5786,-0.57143,-1.2945,-8.4142,-5.8537,-10.449,-6.4412,-7.1154,-0.06441,-8.4142,-5.8537,-7.8818,1.2698,-0.70175,2.6032,3.8462,3.2206,-4.6154,5.1429,2.6144,4.359
-7.6101,-5.0159,-6.4725,-15.534,-14.309,-16.858999,-12.238,-7.1154,-9.0821,-15.534,-14.309,-13.136,1.9048,0.57416,0.69841,0.0,1.2882,-2.6923,0.06349,1.9608,3.7179
-6.9811,-8.1905,-9.7087,-16.827999,-16.26,-14.936,-13.527,-6.4744,-14.235,-16.827999,-16.26,-15.764,3.1746,1.8501,0.69841,-2.5641,0.64412,-9.7436,-0.57143,3.268,4.359
-12.642,-10.095,-12.945,-17.476,-17.561001,-16.858999,-18.68,-10.962,-9.0821,-17.476,-17.561001,-18.391001,1.9048,-0.70175,-1.8413,-3.8462,-1.9324,-3.9744,-7.5556,1.3072,5.641
-12.642,-11.365,-12.298,-9.0615,-14.959,-13.013,-13.527,-7.1154,-9.0821,-9.0615,-14.959,-13.793,-1.2698,-5.8054,-4.381,-8.3333,-5.153,-3.9744,2.6032,0.0,0.51282
-4.4654,-7.5556,-3.8835,-3.2362,-4.5528,-3.3974,-5.153,-3.2692,-1.3527,-3.2362,-4.5528,-4.5977,0.0,-5.1675,-0.57143,-6.4103,-2.5765,-6.5385,8.3175,0.0,-0.12821
1.195,-5.6508,-0.64725,3.2362,3.9024,2.3718,-5.153,-7.7564,0.57971,3.2362,3.9024,-0.65681,0.0,-5.1675,1.3333,-3.8462,0.0,-1.4103,-2.4762,2.6144,-0.76923
3.7107,-3.746,1.2945,11.65,5.8537,5.5769,-6.4412,-1.3462,1.2238,11.65,5.8537,0.65681,1.2698,-4.5295,3.2381,-3.2051,0.64412,5.0,-5.0159,5.8824,-2.0513
4.9686,-0.57143,2.589,16.827999,5.8537,9.4231,-1.9324,8.2692,-2.6409,16.827999,5.8537,3.9409,2.5397,-4.5295,2.6032,-2.5641,0.64412,8.2051,-6.9206,0.65359,-1.4103
3.0818,-1.8413,1.2945,8.4142,6.5041,6.859,1.9324,8.2692,-7.7939,8.4142,6.5041,3.9409,1.2698,-3.8915,1.9683,-4.4872,-0.64412,4.359,3.873,-0.65359,-4.6154
2.4528,-3.746,0.0,6.4725,3.252,1.0897,-0.64412,3.7821,-5.2174,6.4725,3.252,0.65681,2.5397,-1.9777,1.9683,-3.2051,0.0,-4.6154,7.6825,0.65359,-3.3333
-1.9497,-4.381,-3.2362,-10.356,3.252,-3.3974,-5.7971,-1.9872,-0.06441,-10.356,3.252,-3.9409,0.63492,-1.3397,-0.57143,-3.2051,-1.9324,-7.8205,5.7778,-3.268,-1.4103
-2.5786,-0.57143,-1.9417,-0.64725,-0.65041,-2.1154,-6.4412,-3.2692,5.7327,-0.64725,-0.65041,-3.2841,2.5397,3.764,0.69841,0.0,0.64412,-3.9744,3.873,-1.9608,2.4359
-1.3208,0.69841,-0.64725,10.356,-0.65041,-0.19231,-1.9324,1.2179,5.7327,10.356,-0.65041,-1.3136,1.9048,3.764,0.69841,1.2821,1.2882,-0.76923,3.873,-0.65359,1.7949
-6.3522,3.873,-1.9417,7.767,-1.3008,-0.83333,2.5765,-7.7564,-1.9968,7.767,-1.3008,-2.6273,-1.2698,3.764,-2.4762,3.8462,0.64412,-5.2564,-7.5556,-4.5752,6.2821
-7.6101,1.9683,-3.8835,4.5307,2.6016,-4.0385,1.2882,-14.167,-0.70853,4.5307,2.6016,-5.2545,-1.9048,5.6778,-4.381,3.2051,-0.64412,-3.3333,0.69841,-5.8824,7.5641
-9.4969,-3.1111,-7.767,-5.8252,-1.9512,-10.449,-6.4412,-8.3974,3.8003,-5.8252,-1.9512,-9.1954,-2.5397,4.4019,-6.2857,-0.64103,-3.2206,-5.2564,6.4127,-3.9216,5.0
-12.642,-3.746,-8.4142,-26.537001,-11.707,-11.731,-2.5765,-9.6795,0.57971,-26.537001,-11.707,-6.5681,-5.0794,2.488,-8.8254,-1.9231,-5.153,-10.385,2.6032,-7.1895,5.0
-14.528,-4.381,-9.0615,-22.653999,-13.008,-11.731,-2.5765,-10.962,-5.8615,-22.653999,-13.008,-7.8818,-6.3492,1.8501,-10.73,-3.2051,-7.0853,-7.8205,5.1429,-9.1503,3.7179
-8.8679,-3.1111,-7.767,-3.2362,-1.3008,-7.2436,-3.2206,-9.0385,-3.9291,-3.2362,-1.3008,-7.8818,-4.4444,3.764,-8.1905,-1.9231,-6.4412,-10.385,2.6032,-3.268,8.8462
-9.4969,-5.6508,-10.356,-13.592,1.3008,-5.9615,-5.153,-12.244,-0.06441,-13.592,1.3008,-9.8522,-5.7143,3.126,-10.73,-4.4872,-9.6618,-17.436001,5.7778,-3.9216,6.2821
-9.4969,-8.1905,-12.298,-10.356,-4.5528,-8.5256,-1.2882,-5.8333,1.2238,-10.356,-4.5528,-8.5386,-10.159,-2.6156,-14.54,-8.3333,-14.171,-17.436001,7.6825,-10.458,1.7949
-6.9811,-6.9206,-9.0615,8.4142,0.65041,-6.6026,1.2882,0.57692,1.868,8.4142,0.65041,-4.5977,-11.429,-7.7193,-13.905,-10.256,-15.459,-5.8974,5.7778,-11.111,-0.76923
-4.4654,-6.2857,-5.178,9.7087,7.8049,-1.4744,0.64412,-0.70513,12.174,9.7087,7.8049,-1.9704,-8.8889,-9.6332,-11.365,-9.6154,-12.882,10.128,6.4127,-8.4967,-5.8974
-0.69182,-4.381,-1.2945,7.1197,11.707,4.9359,2.5765,-3.2692,17.327,7.1197,11.707,1.3136,-5.7143,-10.271,-7.5556,-7.6923,-9.0177,12.051,3.873,-3.9216,-8.4615
4.3396,3.873,4.5307,1.9417,9.7561,7.5,5.7971,1.2179,3.8003,1.9417,9.7561,5.9113,0.0,-5.8054,0.06349,0.0,-1.2882,10.769,-7.5556,1.9608,-3.9744
6.2264,5.1429,6.4725,-2.589,0.0,4.2949,10.306,1.2179,3.1562,-2.589,0.0,7.225,1.9048,-3.2536,3.2381,1.9231,2.5765,12.692,9.5873,0.65359,-5.2564
6.8553,6.4127,6.4725,-0.64725,-3.252,3.6538,14.171,2.5,8.9533,-0.64725,-3.252,7.225,1.2698,-1.3397,5.7778,3.2051,5.153,-2.6923,19.111,-2.6144,-5.8974
5.5975,5.1429,3.8835,-7.1197,1.3008,1.0897,8.3736,1.2179,4.4444,-7.1197,1.3008,3.9409,0.0,-0.70175,6.4127,3.2051,5.153,-9.1026,5.1429,-1.9608,-4.6154
3.7107,1.3333,1.2945,-11.003,0.65041,4.2949,0.0,-1.9872,8.9533,-11.003,0.65041,1.3136,-3.1746,-3.8915,5.1429,0.0,2.5765,5.641,4.5079,1.3072,-4.6154
-0.06289,-4.381,-3.8835,5.178,-3.252,-2.7564,-2.5765,3.7821,7.6651,5.178,-3.252,-2.6273,-5.0794,-8.3573,1.3333,-5.1282,-2.5765,13.974,0.69841,-0.65359,-4.6154
-1.3208,-6.9206,-7.1197,0.64725,-0.65041,-5.9615,-5.7971,8.2692,3.8003,0.64725,-0.65041,-5.9113,-3.8095,-5.8054,-1.8413,-7.0513,-5.7971,0.51282,0.06349,0.0,-4.6154
0.56604,-4.381,-3.8835,7.1197,3.9024,-0.19231,-1.2882,8.9103,-2.6409,7.1197,3.9024,-1.3136,-0.63492,-1.9777,-1.2063,-3.8462,-4.5089,8.2051,-1.8413,5.8824,1.7949
-0.06289,0.69841,-2.589,12.945,0.0,1.0897,-1.2882,9.5513,-7.7939,12.945,0.0,-1.9704,0.63492,3.126,-1.8413,0.0,-3.8647,8.8462,0.06349,3.9216,6.2821
2.4528,3.2381,-0.64725,1.2945,5.2033,3.0128,3.2206,5.0641,-2.6409,1.2945,5.2033,0.65681,1.2698,7.5917,-1.8413,2.5641,-3.2206,7.5641,-0.57143,1.9608,6.9231
-0.06289,1.3333,-1.2945,4.5307,-2.6016,0.44872,3.2206,6.9872,-7.7939,4.5307,-2.6016,0.0,-1.9048,5.0399,-3.746,0.64103,-4.5089,3.7179,-5.6508,-0.65359,4.359
1.8239,-1.2063,-1.9417,-11.65,-7.1545,1.0897,-4.5089,5.0641,-10.37,-11.65,-7.1545,-1.9704,-3.1746,-0.0638,-3.746,-1.2821,-5.7971,-8.4615,-12.0,0.65359,1.7949
-0.69182,-10.73,-6.4725,-14.887,-6.5041,-0.83333,-14.815,-1.9872,-0.70853,-14.887,-6.5041,-6.5681,-6.3492,-6.4434,-6.2857,-8.9744,-9.6618,0.51282,-3.746,-0.65359,-4.6154
-3.8365,-13.27,-9.0615,3.8835,-3.252,-2.1154,-10.306,-4.5513,1.868,3.8835,-3.252,-5.2545,-8.254,-9.6332,-7.5556,-12.179,-11.594,7.5641,1.3333,-0.65359,-7.8205
-3.8365,-8.8254,-9.0615,12.945,-0.65041,-1.4744,-2.5765,6.3462,7.0209,12.945,-0.65041,-4.5977,-5.7143,-8.9952,-6.2857,-9.6154,-9.6618,11.41,-6.2857,1.9608,-5.2564
-4.4654,-9.4603,-9.7087,11.65,1.3008,-1.4744,-4.5089,11.474,9.5974,11.65,1.3008,-5.9113,-5.7143,-8.9952,-7.5556,-10.256,-9.6618,7.5641,-0.57143,-1.3072,-4.6154
-2.5786,-8.8254,-7.767,3.2362,0.65041,2.3718,-3.2206,6.3462,-4.5733,3.2362,0.65041,-2.6273,-3.8095,-7.7193,-5.6508,-9.6154,-7.0853,4.359,4.5079,-1.3072,-3.9744
-3.2075,-8.1905,-6.4725,-5.178,-0.65041,-2.1154,-3.8647,-1.3462,-4.5733,-5.178,-0.65041,-3.2841,-2.5397,-4.5295,-3.746,-7.6923,-3.8647,2.4359,-0.57143,0.0,-3.3333
-6.3522,-7.5556,-6.4725,-1.2945,-0.65041,-6.6026,-10.306,-1.9872,-3.9291,-1.2945,-0.65041,-6.5681,-0.63492,-1.9777,-5.0159,-6.4103,-2.5765,-7.1795,0.06349,-3.268,-2.6923
-11.384,-7.5556,-9.0615,-8.4142,-0.65041,-11.09,-13.527,-5.1923,-5.8615,-8.4142,-0.65041,-11.166,-2.5397,-5.1675,-7.5556,-8.3333,-5.7971,-9.1026,5.7778,-5.2288,-3.9744
-12.013,-12.0,-12.945,-13.592,-3.252,-16.218,-13.527,-9.6795,5.0886,-13.592,-3.252,-14.45,-5.7143,-8.9952,-10.73,-12.821,-10.95,-3.9744,0.69841,-5.8824,-5.8974
-10.126,-10.73,-11.65,2.589,-3.252,-11.731,-12.238,-3.9103,10.242,2.589,-3.252,-12.479,-5.7143,-7.7193,-9.4603,-11.538,-10.306,-2.0513,0.69841,-8.4967,-6.5385
-6.3522,-5.6508,-8.4142,11.003,-5.8537,-4.6795,-5.153,-4.5513,-1.9968,11.003,-5.8537,-7.225,-5.7143,-5.1675,-8.1905,-7.6923,-8.3736,-9.1026,-6.2857,-9.8039,-3.3333
-8.8679,-4.381,-7.767,5.178,-7.1545,-4.6795,-0.64412,-1.3462,-13.591,5.178,-7.1545,-5.9113,-5.0794,-4.5295,-9.4603,-8.3333,-9.6618,-8.4615,-3.1111,-5.8824,-5.8974
-3.2075,-3.746,-3.2362,1.2945,-1.3008,2.3718,-5.153,3.7821,-7.7939,1.2945,-1.3008,-2.6273,-3.8095,-1.9777,-6.2857,-5.7692,-6.4412,-5.8974,1.9683,-5.2288,-3.9744
-1.3208,-1.8413,0.0,-1.9417,-1.3008,1.7308,-5.153,6.9872,-0.70853,-1.9417,-1.3008,-0.65681,-4.4444,-0.70175,-3.746,-2.5641,-3.2206,1.7949,-2.4762,-6.5359,-3.3333
-0.69182,-1.8413,0.64725,0.64725,1.3008,1.7308,-0.64412,12.756,-7.1498,0.64725,1.3008,1.9704,-3.8095,-3.2536,-1.8413,-1.9231,-0.64412,3.0769,-3.746,-9.1503,-4.6154
9.3711,1.9683,7.1197,3.8835,3.252,11.987,0.0,15.962,-0.06441,3.8835,3.252,9.1954,-1.2698,-0.70175,5.7778,2.5641,5.7971,3.0769,-7.5556,-5.8824,-3.3333
16.917999,7.0476,13.592,3.2362,13.008,19.679001,7.7295,15.321,5.0886,3.2362,13.008,15.107,1.2698,0.57416,12.127,6.4103,11.594,5.0,-3.746,-1.3072,-3.3333
20.063,14.032,18.77,12.945,14.959,19.679001,14.171,19.808001,10.242,12.945,14.959,17.733999,3.8095,2.488,15.937,12.179,16.103001,19.743999,-6.2857,1.9608,-0.12821
20.063,16.570999,19.417,17.476,4.5528,18.396999,17.391001,23.653999,3.1562,17.476,4.5528,18.391001,3.8095,4.4019,15.937,15.385,17.391001,24.872,-5.0159,0.65359,3.7179
13.145,8.3175,11.65,20.712,-0.65041,14.551,12.238,14.679,-3.9291,20.712,-0.65041,13.793,-1.9048,-0.0638,8.3175,8.3333,9.0177,15.256,2.6032,-3.268,0.51282
12.516,8.9524,11.003,14.239,7.1545,16.474001,8.3736,12.756,-0.06441,14.239,7.1545,13.793,-0.63492,0.57416,7.6825,8.3333,7.7295,6.9231,-7.5556,0.0,3.0769
13.774,7.6825,11.65,13.592,9.7561,16.474001,10.306,11.474,3.8003,13.592,9.7561,15.107,3.1746,3.126,10.222,7.6923,9.6618,14.615,-3.746,4.5752,3.0769
14.403,4.5079,9.7087,12.945,9.1057,13.91,7.0853,15.321,-1.3527,12.945,9.1057,13.136,5.7143,3.764,11.492,5.1282,8.3736,11.41,7.0476,9.1503,0.51282
11.258,5.1429,9.0615,5.178,13.008,10.705,3.2206,19.808001,-2.6409,5.178,13.008,9.8522,8.254,2.488,11.492,6.4103,9.6618,0.51282,7.0476,7.1895,1.7949
11.887,7.6825,10.356,7.767,13.659,10.705,3.8647,19.167,-2.6409,7.767,13.659,9.1954,10.794,3.764,14.667,9.6154,12.882,8.2051,3.2381,6.5359,3.0769
13.774,8.3175,11.003,5.178,13.008,10.064,8.3736,7.6282,6.3768,5.178,13.008,11.166,9.5238,1.2121,15.937,8.9744,14.171,9.4872,0.69841,6.5359,0.51282
15.031,6.4127,12.298,12.945,9.7561,12.628,5.153,1.2179,8.9533,12.945,9.7561,11.823,10.159,-1.3397,16.570999,8.3333,14.171,8.2051,-1.2063,7.1895,-3.3333
11.887,8.3175,11.003,17.476,9.7561,7.5,6.4412,5.0641,5.0886,17.476,9.7561,11.166,10.159,-1.3397,15.302,8.9744,13.527,11.41,-4.381,8.4967,-2.0513
11.258,7.0476,8.4142,9.7087,1.9512,6.859,5.153,1.2179,5.7327,9.7087,1.9512,9.1954,9.5238,-0.70175,13.397,8.3333,12.238,5.641,-0.57143,8.4967,-3.3333
15.031,10.857,12.945,11.003,2.6016,13.269,17.391001,2.5,1.2238,11.003,2.6016,17.077,8.254,-0.0638,14.032,11.538,13.527,5.0,0.69841,9.8039,-0.76923
13.145,16.570999,17.476,14.239,11.707,14.551,23.833,5.0641,5.0886,14.239,11.707,21.018,5.0794,0.57416,10.222,12.821,12.238,-1.4103,4.5079,5.2288,-0.12821
7.4843,15.302,15.534,10.356,17.561001,8.7821,18.035,0.57692,12.174,10.356,17.561001,17.733999,1.9048,1.2121,4.5079,10.897,7.7295,-4.6154,6.4127,1.3072,-0.12821
8.7421,21.016001,17.476,5.178,13.008,9.4231,16.747,1.859,6.3768,5.178,13.008,17.077,5.7143,8.8676,7.0476,16.667,10.95,-10.385,-5.6508,3.268,10.769
6.2264,17.841,12.945,6.4725,11.057,6.859,14.171,1.2179,5.0886,6.4725,11.057,12.479,5.7143,11.419,5.7778,15.385,9.6618,-4.6154,2.6032,1.9608,12.051
-1.3208,7.6825,5.178,1.2945,8.4553,-0.83333,7.7295,-1.3462,8.3092,1.2945,8.4553,6.5681,0.0,8.8676,-1.2063,7.6923,2.5765,-2.6923,12.762,-4.5752,7.5641
-1.9497,10.222,6.4725,5.8252,6.5041,0.44872,13.527,-7.7564,10.242,5.8252,6.5041,9.8522,0.63492,11.419,-2.4762,9.6154,2.5765,-5.8974,7.0476,-5.2288,12.692
-5.0943,7.0476,5.8252,2.589,12.358,2.3718,10.306,-11.603,8.3092,2.589,12.358,9.8522,0.0,10.781,-5.0159,6.4103,0.64412,-9.7436,9.5873,-6.5359,10.769
-11.384,2.6032,0.64725,4.5307,7.8049,-4.0385,5.7971,-10.962,-0.70853,4.5307,7.8049,3.2841,-2.5397,6.3158,-8.8254,1.9231,-3.2206,-14.872,3.2381,-9.1503,7.5641
-7.6101,0.69841,-1.9417,7.1197,1.9512,-4.0385,0.0,-9.6795,-1.9968,7.1197,1.9512,-1.3136,-1.9048,5.0399,-6.9206,0.64103,-3.2206,-16.153999,-3.1111,-3.9216,5.0
-6.9811,-3.1111,-3.8835,1.9417,-1.9512,-4.6795,-5.7971,-10.962,6.3768,1.9417,-1.9512,-4.5977,-0.63492,1.8501,-5.6508,-2.5641,-4.5089,-12.308,-5.0159,-4.5752,1.1538
-3.2075,-1.2063,1.2945,-5.8252,3.9024,-0.83333,1.2882,-7.7564,-0.70853,-5.8252,3.9024,0.0,2.5397,2.488,-1.2063,-0.64103,0.0,-11.026,-5.6508,-2.6144,-0.12821
-1.9497,0.69841,4.5307,-11.65,1.3008,-0.83333,3.8647,-7.7564,-5.2174,-11.65,1.3008,2.6273,4.4444,3.764,2.6032,1.2821,3.2206,-8.4615,-8.1905,0.0,-0.76923
-1.9497,2.6032,5.8252,-1.9417,-3.9024,-0.83333,5.153,-3.9103,-2.6409,-1.9417,-3.9024,3.9409,3.8095,5.0399,3.2381,3.2051,5.153,-13.59,-15.175,1.3072,1.7949
-1.3208,2.6032,4.5307,9.0615,7.8049,1.7308,1.2882,-5.1923,7.6651,9.0615,7.8049,3.2841,3.8095,5.0399,3.2381,3.8462,5.7971,-12.949,-12.0,3.268,2.4359
-5.0943,-5.0159,-0.64725,1.2945,4.5528,-2.1154,-1.9324,-14.167,1.2238,1.2945,4.5528,0.0,2.5397,1.2121,-0.57143,-3.2051,0.64412,-11.667,2.6032,0.0,-3.9744
-9.4969,-6.2857,-4.5307,-4.5307,-3.9024,-10.449,-3.2206,-16.09,-12.947,-4.5307,-3.9024,-3.9409,0.63492,-1.3397,-5.0159,-6.4103,-4.5089,-15.513,7.0476,-2.6144,-6.5385
-5.7233,-1.8413,-2.589,-2.589,-2.6016,-7.8846,-0.64412,-17.372,-6.5056,-2.589,-2.6016,-1.9704,1.2698,-0.0638,-3.746,-4.4872,-4.5089,-11.667,1.9683,-0.65359,-2.6923
-5.7233,-0.57143,-1.2945,-3.2362,-9.1057,-5.3205,-0.64412,-14.808,0.57971,-3.2362,-9.1057,-0.65681,2.5397,0.57416,-3.1111,-3.8462,-3.8647,-9.1026,-3.746,1.9608,-2.6923
-3.8365,-1.2063,-1.9417,-9.7087,-6.5041,-3.3974,-0.64412,-10.321,-8.438,-9.7087,-6.5041,0.0,6.3492,3.126,-1.2063,-2.5641,-2.5765,-9.7436,-6.9206,6.5359,-1.4103
-8.239,-6.9206,-7.767,-12.945,-8.4553,-4.6795,-5.153,-15.449,-4.5733,-12.945,-8.4553,-3.2841,1.9048,-1.3397,-5.6508,-8.9744,-7.0853,-11.026,-10.73,2.6144,-7.1795
-8.8679,-6.9206,-7.767,-7.1197,-5.2033,-2.7564,-3.2206,-9.0385,5.0886,-7.1197,-5.2033,-2.6273,-0.63492,-1.3397,-7.5556,-9.6154,-8.3736,-5.8974,-12.0,0.65359,-7.1795
-10.126,-6.9206,-7.767,-0.64725,3.9024,-1.4744,-1.2882,-2.6282,8.3092,-0.64725,3.9024,-1.9704,-3.1746,-0.0638,-10.095,-10.256,-9.6618,1.1538,-8.1905,-1.3072,-4.6154
-15.786,-8.8254,-11.003,-3.8835,1.9512,-3.3974,-3.2206,-1.9872,1.868,-3.8835,1.9512,-3.9409,-6.3492,-3.8915,-14.54,-12.179,-12.882,-1.4103,-6.9206,-5.8824,-5.8974
-15.786,-8.1905,-12.298,-11.003,-3.9024,-5.3205,-5.153,-1.9872,-1.9968,-11.003,-3.9024,-6.5681,-5.0794,-3.8915,-14.54,-10.897,-12.882,-2.6923,-3.746,-2.6144,-3.3333
-14.528,-11.365,-14.887,-9.0615,-9.1057,-7.2436,-7.7295,2.5,5.0886,-9.0615,-9.1057,-9.1954,-6.3492,-4.5295,-15.175,-12.179,-14.171,-2.0513,1.3333,-6.5359,-3.3333
-5.7233,-8.1905,-9.7087,-7.767,-4.5528,-0.83333,-1.2882,4.4231,12.174,-7.767,-4.5528,-3.9409,-6.9841,-4.5295,-11.365,-8.3333,-10.95,0.51282,4.5079,-8.4967,-0.12821
-1.9497,-2.4762,-4.5307,-7.1197,-3.9024,-1.4744,3.8647,0.57692,5.7327,-7.1197,-3.9024,-1.3136,-3.8095,-3.2536,-5.6508,-3.8462,-5.7971,6.9231,3.873,-3.9216,-0.76923
-1.9497,-2.4762,-3.8835,4.5307,-3.9024,-4.0385,5.153,1.859,3.8003,4.5307,-3.9024,-1.3136,-1.2698,-3.2536,-3.1111,-4.4872,-3.2206,7.5641,9.5873,-1.3072,-3.3333
-6.3522,-8.8254,-11.65,-1.2945,1.3008,-5.3205,-9.6618,5.7051,9.5974,-1.2945,1.3008,-9.1954,-3.1746,-5.8054,-5.6508,-8.9744,-7.0853,3.0769,9.5873,-0.65359,-5.8974
-8.239,-12.0,-16.827999,-5.8252,3.252,-9.1667,-10.306,0.57692,9.5974,-5.8252,3.252,-13.793,-7.619,-10.271,-9.4603,-12.179,-12.238,3.7179,4.5079,-3.9216,-8.4615
-7.6101,-9.4603,-14.239,-8.4142,-1.3008,-7.8846,-1.9324,1.859,12.818,-8.4142,-1.3008,-9.8522,-8.8889,-10.909,-9.4603,-11.538,-13.527,8.2051,1.9683,-3.268,-9.7436
-6.3522,-8.8254,-11.65,-5.178,-2.6016,-4.6795,-1.2882,3.141,7.6651,-5.178,-2.6016,-5.2545,-8.8889,-10.909,-8.8254,-11.538,-14.171,8.8462,2.6032,-3.268,-9.1026
-6.3522,-8.8254,-11.65,-9.0615,-5.8537,-3.3974,-7.7295,-0.0641,5.0886,-9.0615,-5.8537,-7.225,-6.3492,-7.7193,-8.1905,-10.256,-13.527,3.0769,1.3333,-1.9608,-7.8205
-11.384,-8.1905,-11.65,-18.122999,-9.1057,-9.1667,-5.153,-5.1923,-3.285,-18.122999,-9.1057,-9.8522,-5.0794,-5.1675,-8.8254,-8.3333,-10.95,-7.1795,-1.8413,0.65359,-5.2564
-13.899,-4.381,-7.767,-8.4142,-3.252,-9.1667,-3.2206,-2.6282,-7.1498,-8.4142,-3.252,-7.225,-3.1746,-0.70175,-7.5556,-2.5641,-5.7971,-6.5385,-1.8413,-1.3072,-2.0513
-8.8679,1.9683,-1.2945,5.178,1.3008,-2.7564,1.9324,-0.0641,-9.7262,5.178,1.3008,-0.65681,1.2698,6.9537,-2.4762,4.4872,1.9324,3.7179,-0.57143,-1.9608,5.641
-6.3522,1.9683,1.9417,1.2945,-3.9024,-4.0385,5.153,1.859,3.8003,1.2945,-3.9024,0.65681,5.0794,10.781,1.9683,6.4103,6.4412,3.7179,5.1429,1.3072,6.9231
-5.7233,0.69841,1.9417,-10.356,-3.9024,-5.9615,1.9324,-0.70513,19.259001,-10.356,-3.9024,-1.3136,5.0794,8.8676,2.6032,4.4872,6.4412,-2.6923,3.2381,0.65359,3.7179
-6.3522,3.2381,1.2945,-9.0615,-5.2033,-6.6026,1.9324,-5.8333,14.106,-9.0615,-5.2033,-3.2841,0.63492,6.3158,-0.57143,4.4872,3.8647,-5.2564,5.1429,-3.268,5.641
-6.9811,2.6032,0.64725,-9.0615,-4.5528,-5.9615,5.153,-7.7564,8.3092,-9.0615,-4.5528,-3.2841,-3.8095,2.488,-3.1111,3.2051,1.9324,-4.6154,14.667,-8.4967,3.7179
-0.69182,6.4127,3.8835,-12.945,-3.252,-1.4744,10.95,-7.7564,14.106,-12.945,-3.252,1.9704,-3.1746,3.764,0.69841,6.4103,5.153,-1.4103,21.016001,-8.4967,6.9231
4.9686,9.5873,6.4725,-11.65,-13.008,4.2949,11.594,-10.962,16.683001,-11.65,-13.008,4.5977,-4.4444,2.488,3.873,8.3333,7.0853,-2.6923,19.111,-9.8039,6.2821
9.3711,13.397,9.7087,1.2945,-5.8537,-0.19231,9.0177,1.859,8.3092,1.2945,-5.8537,2.6273,-1.2698,5.6778,8.3175,11.538,10.306,5.0,19.111,-7.1895,9.4872
8.1132,11.492,8.4142,-3.8835,3.9024,-6.6026,0.64412,8.2692,7.0209,-3.8835,3.9024,-5.2545,1.9048,8.2297,11.492,13.462,12.882,6.9231,15.937,-0.65359,10.769
7.4843,7.6825,5.8252,-9.0615,1.3008,-5.3205,-7.0853,4.4231,11.53,-9.0615,1.3008,-7.8818,-3.8095,5.0399,9.5873,12.179,10.95,-0.12821,10.222,-1.9608,10.128
10.0,8.9524,7.767,-1.2945,-4.5528,1.7308,3.8647,8.2692,14.106,-1.2945,-4.5528,-1.3136,-5.7143,4.4019,8.9524,10.897,9.6618,3.7179,9.5873,-0.65359,10.769
10.0,3.2381,6.4725,-3.8835,-3.9024,4.2949,10.306,0.57692,9.5974,-3.8835,-3.9024,3.2841,-5.0794,-0.0638,6.4127,2.5641,5.153,8.8462,16.570999,-2.6144,3.0769
4.9686,-1.8413,2.589,-1.2945,-3.9024,2.3718,3.8647,-2.6282,4.4444,-1.2945,-3.9024,0.65681,-5.0794,-3.8915,2.6032,-4.4872,0.0,5.0,10.222,-2.6144,-3.9744
0.56604,-4.381,-1.2945,-4.5307,-1.3008,-2.1154,0.64412,-5.1923,-5.8615,-4.5307,-1.3008,-3.2841,-3.1746,-1.9777,0.06349,-5.7692,-2.5765,5.641,6.4127,0.0,-2.6923
-1.3208,-5.0159,-3.2362,-15.534,-11.057,-2.7564,-4.5089,-5.1923,-14.879,-15.534,-11.057,-3.9409,0.0,1.8501,-0.57143,-3.8462,-1.9324,5.0,1.3333,2.6144,-0.76923
-0.06289,-4.381,-4.5307,-12.298,-19.511999,1.0897,-5.7971,-1.3462,-12.947,-12.298,-19.511999,-1.9704,3.8095,6.9537,0.69841,-0.64103,-0.64412,4.359,-9.4603,6.5359,5.0
1.8239,-8.1905,-5.178,-11.003,-13.008,0.44872,-7.7295,3.141,-1.3527,-11.003,-13.008,-1.9704,5.0794,5.0399,1.3333,-4.4872,-0.64412,5.641,-7.5556,9.8039,1.7949
-1.9497,-13.27,-7.767,-9.0615,-9.1057,-4.0385,-9.6618,-5.8333,3.8003,-9.0615,-9.1057,-3.9409,1.9048,-2.6156,-1.2063,-10.897,-4.5089,-3.9744,1.3333,6.5359,-6.5385
-2.5786,-9.4603,-7.1197,-4.5307,-0.65041,-5.9615,-7.0853,-7.7564,2.5121,-4.5307,-0.65041,-5.2545,0.0,-5.1675,-0.57143,-10.256,-3.8647,-2.0513,1.9683,5.8824,-7.1795
-3.2075,-3.746,-5.8252,-6.4725,1.3008,-8.5256,-3.2206,-12.244,-8.438,-6.4725,1.3008,-7.225,4.4444,0.57416,1.9683,-4.4872,0.0,3.0769,3.873,9.8039,-0.12821
-1.9497,0.06349,-4.5307,-18.122999,-6.5041,-11.731,-2.5765,-19.936001,-7.1498,-18.122999,-6.5041,-9.8522,6.3492,1.8501,4.5079,1.2821,3.8647,-2.0513,0.69841,9.1503,2.4359
0.56604,3.873,-1.2945,-12.945,-8.4553,-15.577,-5.7971,-19.936001,-2.6409,-12.945,-8.4553,-13.136,5.0794,2.488,6.4127,6.4103,6.4412,-13.59,1.9683,7.8431,3.7179
4.9686,9.5873,5.8252,-8.4142,-3.9024,-9.1667,-1.2882,-12.244,-1.3527,-8.4142,-3.9024,-5.9113,5.7143,5.0399,10.222,12.179,11.594,-5.2564,2.6032,8.4967,8.2051
4.9686,8.3175,7.1197,-11.003,0.0,1.0897,-2.5765,-3.9103,4.4444,-11.003,0.0,0.65681,5.0794,5.0399,8.3175,10.256,9.6618,10.769,1.3333,6.5359,8.8462
2.4528,-0.57143,1.9417,5.8252,5.8537,3.0128,-6.4412,6.3462,5.7327,5.8252,5.8537,0.65681,-0.63492,-0.70175,1.9683,1.2821,1.9324,9.4872,-3.746,0.65359,1.7949
1.8239,-8.8254,-1.9417,14.887,2.6016,4.2949,-5.153,3.141,-1.3527,14.887,2.6016,0.65681,-4.4444,-7.0813,-3.1111,-8.9744,-5.7971,5.641,-5.0159,-2.6144,-6.5385
5.5975,-8.8254,0.0,13.592,1.9512,11.987,3.2206,13.397,-0.70853,13.592,1.9512,7.225,-3.1746,-7.7193,-3.1111,-10.897,-7.7295,10.769,-19.618999,-1.3072,-7.8205
3.0818,-10.73,-5.8252,5.178,-2.6016,6.2179,-1.2882,15.321,-6.5056,5.178,-2.6016,1.9704,-6.9841,-12.185,-6.9206,-14.744,-12.882,8.2051,-16.444,-4.5752,-12.308
-2.5786,-11.365,-7.767,-3.2362,-4.5528,0.44872,-7.7295,12.756,-12.947,-3.2362,-4.5528,-1.9704,-6.3492,-9.6332,-7.5556,-12.179,-10.95,8.2051,-6.2857,-3.9216,-12.308
-1.3208,-3.1111,-0.64725,3.8835,1.3008,4.2949,-7.0853,9.5513,-13.591,3.8835,1.3008,1.3136,1.9048,-0.70175,-1.2063,-1.2821,-0.64412,13.974,-1.8413,3.268,-5.8974
1.8239,1.9683,3.2362,2.589,3.252,7.5,-3.2206,8.9103,-10.37,2.589,3.252,3.2841,0.63492,-0.0638,1.3333,3.2051,3.8647,11.41,0.06349,6.5359,-4.6154
7.4843,4.5079,6.4725,2.589,5.8537,9.4231,-3.8647,10.192,-2.6409,2.589,5.8537,3.9409,-0.63492,-0.70175,4.5079,5.1282,6.4412,3.7179,-6.2857,8.4967,-3.9744
13.774,6.4127,8.4142,15.534,6.5041,7.5,-1.2882,12.115,1.2238,15.534,6.5041,3.2841,3.8095,1.2121,9.5873,5.7692,9.0177,6.9231,0.06349,10.458,-1.4103
10.629,4.5079,4.5307,8.4142,-3.9024,-1.4744,0.64412,3.7821,-1.3527,8.4142,-3.9024,-2.6273,5.0794,1.8501,8.9524,3.8462,7.0853,8.2051,5.7778,13.072,0.51282
7.4843,7.0476,4.5307,-1.9417,-1.9512,-4.0385,-0.64412,-1.9872,-3.9291,-1.9417,-1.9512,-5.9113,6.9841,3.764,10.857,8.9744,9.0177,12.692,3.873,14.379,6.9231
6.2264,9.5873,6.4725,-5.178,2.6016,-0.83333,-3.8647,-11.603,-4.5733,-5.178,2.6016,-5.2545,8.8889,7.5917,12.762,14.744,13.527,10.769,0.69841,12.418,12.051
-0.06289,8.9524,3.8835,-11.65,-5.2033,-5.9615,-6.4412,-13.526,-1.9968,-11.65,-5.2033,-7.225,6.3492,8.2297,10.222,16.667,13.527,-5.8974,-2.4762,10.458,14.615
-2.5786,5.7778,0.64725,-8.4142,-5.2033,-11.09,-6.4412,-9.6795,0.57971,-8.4142,-5.2033,-7.8818,3.1746,5.6778,8.3175,14.103,10.95,-7.8205,8.3175,8.4967,12.051
-3.8365,1.3333,-2.589,-21.358999,-9.7561,-11.09,-5.7971,-19.295,-0.70853,-21.358999,-9.7561,-10.509,1.9048,3.126,5.1429,8.9744,6.4412,-10.385,1.3333,4.5752,7.5641
-1.9497,-1.8413,-5.178,-17.476,-11.707,-10.449,-10.306,-19.936001,-4.5733,-17.476,-11.707,-11.823,-0.63492,-2.6156,1.9683,3.2051,1.2882,-2.6923,1.3333,1.9608,3.7179
1.195,-1.8413,-5.178,-8.4142,-11.707,-9.1667,-14.171,-3.2692,-7.1498,-8.4142,-11.707,-13.136,-1.2698,-4.5295,1.3333,-0.64103,-1.9324,6.2821,6.4127,0.0,1.1538
6.2264,-0.57143,-3.8835,-11.003,-11.057,-7.2436,-10.306,3.141,-11.014,-11.003,-11.057,-9.8522,-3.1746,-3.8915,-0.57143,-2.5641,-4.5089,-11.667,-1.8413,-3.268,1.7949
1.8239,-5.0159,-5.178,-14.239,-10.407,-6.6026,-12.238,3.7821,-12.303,-14.239,-10.407,-8.5386,-6.3492,-7.7193,-3.746,-7.6923,-8.3736,-9.7436,-5.0159,-2.6144,-5.8974
3.0818,-4.381,0.64725,1.2945,3.252,4.2949,-0.64412,12.115,-8.438,1.2945,3.252,3.9409,-1.9048,-6.4434,-1.2063,-7.6923,-5.153,13.974,-8.8254,0.0,-10.385
7.4843,-2.4762,7.767,18.77,13.008,14.551,8.3736,14.038,4.4444,18.77,13.008,16.42,3.8095,-5.1675,3.2381,-6.4103,-0.64412,13.974,-17.079,1.3072,-14.231
8.1132,-1.2063,11.003,23.301001,7.1545,17.756001,16.103001,15.962,7.0209,23.301001,7.1545,21.018,6.9841,-5.1675,5.1429,-5.1282,3.2206,12.051,-16.444,3.9216,-18.718
4.3396,0.69841,8.4142,7.1197,-4.5528,13.91,10.95,13.397,-8.438,7.1197,-4.5528,15.107,7.619,-2.6156,4.5079,-1.9231,3.8647,12.051,-16.444,5.2288,-14.872
2.4528,1.3333,3.2362,1.2945,3.252,6.859,-1.2882,3.7821,-12.303,1.2945,3.252,5.2545,6.9841,1.2121,3.2381,0.0,3.2206,4.359,-8.1905,3.9216,-6.5385
-2.5786,1.3333,-3.2362,1.2945,7.8049,-4.0385,-9.6618,-1.9872,-9.0821,1.2945,7.8049,-6.5681,6.9841,1.2121,1.3333,1.2821,1.2882,4.359,-6.2857,6.5359,-0.76923
-7.6101,2.6032,-8.4142,-5.178,2.6016,-11.731,-14.815,-4.5513,-7.1498,-5.178,2.6016,-13.136,3.8095,1.2121,-3.1111,2.5641,-1.2882,-3.9744,-6.2857,3.9216,5.641
-15.157,-0.57143,-13.592,-10.356,-11.057,-21.346001,-15.459,-19.936001,-7.1498,-10.356,-11.057,-17.733999,1.2698,1.2121,-8.1905,0.64103,-5.153,-13.59,3.2381,-1.9608,5.0
-16.415001,-5.6508,-14.887,-18.122999,-14.309,-25.191999,-13.527,-30.833,-5.2174,-18.122999,-14.309,-19.704,-1.2698,-1.9777,-10.73,-4.4872,-8.3736,-16.795,10.222,-3.268,3.7179
-16.415001,-12.635,-16.181,-20.712,-7.8049,-23.268999,-14.171,-25.063999,-8.438,-20.712,-7.8049,-19.048,-6.9841,-4.5295,-13.905,-10.256,-12.238,-34.103001,10.222,-7.8431,4.359
-16.415001,-21.524,-20.065001,-16.827999,-16.910999,-17.5,-16.103001,-22.5,-6.5056,-16.827999,-16.910999,-19.048,-11.429,-7.7193,-17.079,-19.231001,-18.035,-27.691999,3.2381,-10.458,0.51282
-17.044001,-24.698,-20.712,-11.003,-9.1057,-13.013,-9.6618,-19.295,-6.5056,-11.003,-9.1057,-15.107,-13.968,-12.823,-19.618999,-26.282,-23.188,-11.026,-3.746,-12.418,-4.6154
-22.075001,-19.618999,-17.476,-5.8252,-4.5528,-14.936,-7.7295,-17.372,-7.1498,-5.8252,-4.5528,-13.136,-13.968,-13.461,-20.889,-25.0,-23.188,-12.308,-4.381,-12.418,-7.8205
-13.27,-3.1111,-4.5307,0.64725,1.9512,-10.449,0.64412,-13.526,2.5121,0.64725,1.9512,-4.5977,-6.3492,-4.5295,-13.27,-10.256,-12.238,-10.385,-2.4762,-13.072,-0.76923
-6.9811,12.127,6.4725,3.2362,8.4553,-3.3974,5.153,-8.3974,-5.8615,3.2362,8.4553,1.9704,-3.1746,3.764,-8.8254,6.4103,-2.5765,-18.718,0.69841,-18.301001,6.9231
-5.0943,19.111,11.65,-1.2945,3.252,0.44872,9.0177,-0.70513,-10.37,-1.2945,3.252,4.5977,-3.1746,5.6778,-7.5556,15.385,2.5765,-17.436001,-3.1111,-18.301001,9.4872
5.5975,20.381001,16.827999,2.589,-0.65041,4.2949,6.4412,-2.6282,-12.303,2.589,-0.65041,6.5681,1.2698,10.781,1.3333,23.077,11.594,-12.308,-2.4762,-13.725,9.4872
19.434,21.016001,23.301001,9.0615,-0.65041,11.346,8.3736,3.7821,-8.438,9.0615,-0.65041,14.45,10.794,19.075001,14.667,28.846001,21.9,-1.4103,-8.1905,-2.6144,12.692
28.868,24.190001,27.184,16.181,8.4553,20.320999,12.882,7.6282,-1.9968,16.181,8.4553,18.391001,18.413,22.264999,24.190001,31.41,27.697001,-12.308,-13.905,5.8824,15.256
25.723,14.032,20.065001,6.4725,12.358,19.038,12.238,7.6282,-1.9968,6.4725,12.358,16.42,16.507999,15.247,22.285999,19.872,22.544001,5.641,-8.1905,11.111,4.359
14.403,4.5079,11.003,12.298,14.959,15.833,10.95,9.5513,0.57971,12.298,14.959,15.764,12.063,5.0399,14.032,6.4103,12.238,12.692,-2.4762,11.765,-4.6154
3.0818,2.6032,5.178,28.479,24.065001,13.91,14.171,14.038,3.8003,28.479,24.065001,15.764,10.159,2.488,6.4127,-0.64103,5.153,12.692,1.3333,10.458,-5.2564
-12.013,-5.6508,-6.4725,17.476,13.008,5.5769,7.7295,6.9872,9.5974,17.476,13.008,7.225,5.7143,-1.9777,-5.0159,-10.256,-4.5089,12.692,5.1429,6.5359,-9.7436
-22.704,-9.4603,-15.534,1.9417,9.1057,-7.8846,0.64412,1.2179,4.4444,1.9417,9.1057,-3.9409,0.0,-7.0813,-15.175,-16.025999,-14.815,-2.0513,2.6032,0.65359,-11.026
-17.673,-8.1905,-15.534,0.0,8.4553,-9.8077,3.2206,1.2179,8.3092,0.0,8.4553,-5.2545,-4.4444,-11.547,-18.349001,-18.59,-20.612,-3.3333,7.6825,1.9608,-11.026
-14.528,-10.095,-16.181,-1.2945,0.65041,-11.731,-3.2206,-6.4744,10.886,-1.2945,0.65041,-9.1954,-8.8889,-16.650999,-19.618999,-21.153999,-24.476999,-10.385,4.5079,-1.3072,-10.385
-10.755,-10.73,-14.239,-1.2945,0.0,-13.654,-5.153,-10.962,10.242,-1.2945,0.0,-10.509,-8.8889,-16.013,-15.81,-17.948999,-21.256001,-2.6923,4.5079,-3.268,-8.4615
-3.2075,-5.0159,-8.4142,-4.5307,-7.1545,-11.09,-0.64412,-12.244,1.868,-4.5307,-7.1545,-8.5386,-3.1746,-8.9952,-6.2857,-7.0513,-10.95,-8.4615,7.6825,-0.65359,-2.6923
3.0818,7.0476,-2.589,-3.8835,-0.65041,-6.6026,3.2206,-10.321,-0.06441,-3.8835,-0.65041,-4.5977,0.63492,-3.2536,1.9683,5.1282,-1.2882,-8.4615,1.3333,1.3072,6.2821
5.5975,11.492,4.5307,-1.9417,10.407,1.7308,1.9324,-9.0385,8.9533,-1.9417,10.407,1.3136,1.2698,0.57416,5.7778,11.538,5.153,-12.949,7.6825,-0.65359,10.769
-1.3208,5.1429,4.5307,-5.178,8.4553,-2.1154,2.5765,-7.1154,9.5974,-5.178,8.4553,4.5977,-6.3492,-3.8915,-1.2063,6.4103,1.2882,-12.949,22.921,-9.1503,5.641
-7.6101,5.1429,4.5307,4.5307,4.5528,-2.1154,7.7295,-0.70513,10.886,4.5307,4.5528,7.8818,-10.794,-3.2536,-7.5556,5.1282,-2.5765,-5.2564,21.650999,-15.686,3.7179
-7.6101,7.6825,7.1197,13.592,8.4553,3.6538,13.527,3.7821,14.75,13.592,8.4553,13.136,-11.429,-0.70175,-10.095,5.7692,-3.2206,-8.4615,18.476,-16.34,7.5641
-10.755,1.3333,2.589,11.003,7.8049,6.2179,10.306,5.0641,10.242,11.003,7.8049,11.166,-11.429,-3.8915,-13.905,-1.2821,-8.3736,-9.7436,10.222,-18.301001,2.4359
-3.8365,-3.1111,0.64725,7.1197,5.8537,10.705,9.6618,1.2179,3.1562,7.1197,5.8537,9.8522,-8.8889,-7.0813,-10.73,-7.0513,-9.0177,-3.9744,-2.4762,-13.725,-4.6154
6.2264,-2.4762,2.589,14.239,4.5528,11.987,5.7971,10.833,0.57971,14.239,4.5528,8.5386,-1.9048,-5.8054,-0.57143,-6.4103,-2.5765,5.0,-12.0,-1.3072,-7.1795
14.403,-1.8413,6.4725,16.827999,10.407,13.269,0.0,21.09,2.5121,16.827999,10.407,8.5386,5.0794,-1.9777,8.3175,-2.5641,5.153,10.769,-9.4603,7.1895,-8.4615
18.176001,-0.57143,9.7087,5.8252,10.407,14.551,3.2206,20.448999,-5.2174,5.8252,10.407,9.8522,11.429,0.57416,14.667,0.64103,10.306,10.128,-9.4603,12.418,-7.8205
17.547001,8.3175,12.298,9.7087,4.5528,13.91,12.882,24.295,-9.7262,9.7087,4.5528,12.479,15.873,6.9537,17.205999,8.9744,16.103001,11.41,-21.524,15.033,-1.4103
12.516,12.127,10.356,15.534,5.2033,12.628,11.594,16.603001,-5.2174,15.534,5.2033,11.166,12.063,8.8676,13.397,10.897,13.527,12.051,-4.381,15.033,2.4359
6.8553,10.857,7.767,4.5307,3.252,9.4231,8.3736,6.3462,3.8003,4.5307,3.252,8.5386,9.5238,11.419,8.9524,10.256,10.95,3.0769,17.841,13.725,3.0769
2.4528,11.492,5.8252,5.178,5.8537,2.3718,6.4412,6.9872,5.7327,5.178,5.8537,3.9409,10.159,13.333,5.7778,10.897,9.6618,7.5641,12.127,11.111,5.0
3.0818,12.762,5.178,7.767,0.0,3.0128,-1.9324,12.756,-1.9968,7.767,0.0,0.65681,7.619,11.419,4.5079,12.179,7.7295,6.2821,4.5079,8.4967,8.2051
8.7421,14.032,7.1197,5.8252,-4.5528,6.2179,-2.5765,12.756,-0.70853,5.8252,-4.5528,-0.65681,7.619,9.5056,6.4127,13.462,7.7295,5.641,4.5079,8.4967,11.41
6.8553,10.222,2.589,0.0,-7.8049,1.7308,-5.153,5.7051,-12.303,0.0,-7.8049,-4.5977,4.4444,4.4019,5.1429,9.6154,3.2206,5.641,1.3333,9.1503,8.8462
5.5975,1.9683,-2.589,-3.8835,-5.2033,1.0897,-9.0177,-0.70513,-8.438,-3.8835,-5.2033,-7.225,0.63492,-1.3397,1.9683,1.9231,-3.2206,2.4359,0.06349,8.4967,5.0
3.0818,-10.095,-10.356,-9.7087,-8.4553,-2.1154,-16.747,6.3462,-2.6409,-9.7087,-8.4553,-13.136,-3.1746,-7.0813,-0.57143,-7.6923,-10.306,1.7949,-6.9206,7.1895,0.51282
8.1132,-13.905,-9.0615,4.5307,0.0,0.44872,-12.882,17.243999,2.5121,4.5307,0.0,-7.225,-2.5397,-6.4434,1.9683,-10.256,-9.6618,14.615,-5.0159,9.1503,-0.76923
6.8553,-18.349001,-5.8252,11.65,2.6016,3.0128,-7.7295,11.474,1.2238,11.65,2.6016,-1.3136,-1.2698,-5.1675,1.9683,-14.103,-8.3736,15.897,-9.4603,6.5359,-3.3333
3.0818,-18.983999,-1.9417,9.7087,2.6016,7.5,5.7971,6.3462,-3.9291,9.7087,2.6016,7.8818,-2.5397,-5.1675,0.06349,-17.948999,-8.3736,10.769,-22.794001,0.65359,-5.8974
1.8239,-15.175,1.9417,9.7087,3.9024,11.346,11.594,5.0641,1.2238,9.7087,3.9024,12.479,-1.2698,-3.8915,0.06349,-16.025999,-5.153,5.641,-12.635,-1.3072,-9.7436
3.7107,-8.8254,5.178,2.589,-1.9512,9.4231,5.7971,5.0641,-1.9968,2.589,-1.9512,9.8522,1.9048,-1.3397,1.9683,-7.6923,0.64412,-4.6154,-1.2063,0.0,-10.385
9.3711,2.6032,9.7087,-8.4142,-0.65041,7.5,1.9324,1.859,-9.0821,-8.4142,-0.65041,4.5977,5.7143,6.3158,7.6825,5.7692,9.6618,-1.4103,-7.5556,2.6144,-2.0513
14.403,17.841,15.534,4.5307,0.65041,10.064,5.153,1.859,-3.285,4.5307,0.65041,7.225,13.968,17.160999,15.302,20.513,19.968,2.4359,-6.2857,9.1503,10.128
13.145,21.016001,14.887,5.178,4.5528,6.859,-0.64412,6.9872,-2.6409,5.178,4.5528,5.9113,17.143,24.816999,18.476,26.282,23.833,8.8462,-3.746,10.458,17.820999
10.0,17.841,12.298,0.64725,3.9024,4.9359,-3.2206,10.192,-11.659,0.64725,3.9024,2.6273,16.507999,27.368,17.205999,25.641001,23.188,9.4872,-2.4762,7.1895,19.743999
5.5975,15.937,9.7087,9.0615,-5.8537,1.0897,3.2206,8.9103,-21.32,9.0615,-5.8537,3.2841,12.698,21.627001,13.397,21.795,19.323999,1.1538,-4.381,3.9216,16.538
-2.5786,10.857,4.5307,11.003,-9.7561,-0.19231,2.5765,6.3462,-12.303,11.003,-9.7561,2.6273,6.3492,13.333,6.4127,14.103,12.238,2.4359,-2.4762,2.6144,9.4872
-13.27,1.9683,-3.2362,3.8835,-3.9024,-2.1154,-1.2882,4.4231,-4.5733,3.8835,-3.9024,0.0,1.2698,6.3158,-3.1111,5.1282,3.2206,-0.12821,-5.0159,-0.65359,5.0
-18.931,-6.2857,-6.4725,9.7087,0.65041,-1.4744,-2.5765,6.9872,3.1562,9.7087,0.65041,-0.65681,-0.63492,0.57416,-6.2857,-2.5641,-1.9324,5.0,-3.1111,1.9608,1.1538
-11.384,-17.079,-8.4142,3.8835,10.407,0.44872,-1.9324,14.038,12.174,3.8835,10.407,1.3136,-3.8095,-6.4434,-6.2857,-14.103,-7.7295,2.4359,-0.57143,5.8824,-5.8974
-3.8365,-24.698,-11.003,1.9417,15.61,-1.4744,-3.2206,15.321,7.0209,1.9417,15.61,-2.6273,-5.7143,-14.737,-5.6508,-24.358999,-14.171,14.615,-1.8413,7.1895,-14.872
8.1132,-19.618999,-7.1197,5.178,5.8537,4.2949,2.5765,10.192,5.0886,5.178,5.8537,0.0,-5.7143,-16.013,-2.4762,-23.077,-13.527,18.462,-3.746,6.5359,-14.872
14.403,-15.175,-5.8252,-3.2362,-0.65041,4.2949,0.0,12.115,8.9533,-3.2362,-0.65041,-1.9704,-10.159,-15.375,-1.2063,-19.231001,-12.882,14.615,-1.8413,1.9608,-12.308
13.145,-9.4603,-6.4725,0.0,-4.5528,0.44872,0.64412,10.833,-3.285,0.0,-4.5528,-5.9113,-13.968,-13.461,-3.1111,-12.179,-11.594,11.41,-7.5556,-5.2288,-7.1795
9.3711,-3.1111,-5.178,5.8252,-11.057,-0.83333,-7.0853,3.7821,-13.591,5.8252,-11.057,-7.225,-12.698,-7.7193,-3.746,-3.8462,-8.3736,12.051,-6.2857,-8.4967,-2.6923
8.7421,2.6032,-1.9417,-0.64725,-9.7561,1.7308,-7.7295,3.7821,-11.014,-0.64725,-9.7561,-3.9409,-7.619,-1.3397,-1.2063,2.5641,-2.5765,15.256,2.6032,-8.4967,3.0769
7.4843,2.6032,-2.589,5.178,-6.5041,1.7308,-6.4412,6.3462,-3.285,5.178,-6.5041,-4.5977,-4.4444,2.488,0.69841,3.8462,0.0,7.5641,1.9683,-7.8431,3.0769
2.4528,7.6825,-1.9417,7.767,2.6016,1.0897,-1.9324,4.4231,3.1562,7.767,2.6016,-3.2841,-3.8095,5.0399,-1.8413,8.9744,1.2882,7.5641,-5.6508,-11.111,6.9231
-9.4969,10.857,-0.64725,-1.2945,4.5528,1.7308,-3.2206,2.5,5.0886,-1.2945,4.5528,-0.65681,-6.9841,3.764,-8.1905,10.897,0.64412,0.51282,3.873,-18.301001,8.2051
-12.013,9.5873,3.8835,-1.2945,7.1545,2.3718,1.2882,6.9872,7.6651,-1.2945,7.1545,4.5977,-3.1746,6.3158,-6.2857,12.179,4.5089,-3.9744,10.857,-15.686,6.9231
-8.239,5.1429,4.5307,7.1197,9.1057,4.2949,1.9324,0.57692,5.7327,7.1197,9.1057,7.225,3.8095,6.9537,-0.57143,9.6154,7.0853,0.51282,3.873,-7.1895,3.0769
-6.9811,-0.57143,1.9417,-1.9417,1.9512,3.0128,-3.2206,-3.2692,-11.659,-1.9417,1.9512,3.9409,3.1746,3.764,0.69841,4.4872,4.5089,-9.1026,1.9683,-4.5752,0.51282
-5.0943,-4.381,0.0,-5.178,-8.4553,-3.3974,3.2206,-8.3974,-23.896999,-5.178,-8.4553,0.0,-0.63492,0.57416,0.06349,-0.64103,1.9324,-5.2564,-1.8413,-1.9608,-0.76923
-0.06289,-5.0159,-0.64725,-9.7087,-9.7561,-4.6795,-1.2882,-14.808,-5.2174,-9.7087,-9.7561,-4.5977,-1.9048,-1.9777,0.69841,-4.4872,-0.64412,3.7179,-3.1111,-1.3072,-2.6923
3.7107,-5.6508,-1.2945,1.2945,-3.252,-2.7564,-5.153,-9.0385,12.174,1.2945,-3.252,-4.5977,-3.8095,-6.4434,-0.57143,-7.6923,-3.2206,-0.12821,4.5079,-4.5752,-4.6154
4.3396,-8.1905,-5.8252,9.7087,-7.1545,-2.7564,-1.9324,-1.9872,8.9533,9.7087,-7.1545,-5.9113,-6.3492,-10.909,-2.4762,-11.538,-7.0853,-14.872,6.4127,-5.2288,-8.4615
0.56604,-10.095,-9.0615,-1.2945,-2.6016,-5.3205,-4.5089,1.2179,1.868,-1.2945,-2.6016,-7.225,-5.0794,-8.3573,-3.1111,-12.179,-7.0853,-4.6154,2.6032,-1.3072,-7.1795
-0.06289,-2.4762,-5.8252,-7.1197,2.6016,-3.3974,-3.8647,-4.5513,3.1562,-7.1197,2.6016,-5.2545,-1.9048,-3.2536,0.06349,-5.7692,-2.5765,8.2051,-1.2063,1.9608,-2.6923
3.0818,5.7778,1.9417,-1.9417,3.252,4.2949,3.2206,1.2179,6.3768,-1.9417,3.252,3.2841,0.63492,-1.9777,3.2381,1.9231,1.9324,-7.8205,-13.27,0.65359,-0.12821
-4.4654,9.5873,4.5307,-1.9417,3.9024,2.3718,2.5765,3.141,-0.06441,-1.9417,3.9024,4.5977,-1.2698,-1.9777,0.06349,5.7692,2.5765,-0.12821,-2.4762,-2.6144,-1.4103
-9.4969,10.857,6.4725,0.64725,-1.3008,-3.3974,5.153,4.4231,5.0886,0.64725,-1.3008,5.9113,-0.63492,-0.70175,-1.8413,7.6923,2.5765,10.128,10.222,0.0,-0.12821
