C3,C4,Cz,F1,F2,F3,F4,F7,F8,Fp1,Fp2,Fz,O1,O2,P3,P4,Pz,T3,T4,T5,T6
0.88468,-9.5056,-2.8618,-1.9608,-3.9409,2.7317,-0.96618,3.8003,1.868,-1.9608,-3.9409,-0.98039,-8.5714,-20.159,-3.746,-23.188,-14.428,9.533,-11.302,3.9409,-26.216
-1.0111,-10.463,-4.813,-5.8824,-7.8818,-1.1707,-6.7633,4.7665,-0.06441,-5.8824,-7.8818,-4.902,-7.619,-17.289,-3.746,-19.323999,-11.53,7.6006,-11.302,3.9409,-23.316999
-4.8025,-10.463,-7.7398,-17.646999,-14.778,-9.9512,-12.56,-2.963,-7.7939,-17.646999,-14.778,-11.765,-6.6667,-12.504,-3.746,-14.493,-8.6312,2.7697,-11.302,2.9557,-19.452
-7.6461,-12.376,-11.642,-25.49,-20.690001,-15.805,-15.459,-7.7939,-8.7601,-25.49,-20.690001,-16.667,-3.8095,-5.8054,-2.7937,-8.6957,-5.7327,-1.095,-7.4921,2.9557,-12.689
-10.49,-14.29,-14.569,-24.51,-21.674999,-18.732,-16.424999,-10.692,-9.7262,-24.51,-21.674999,-18.627001,-1.9048,-1.0207,-4.6984,-3.8647,-3.8003,-2.0612,-8.4444,1.9704,-5.9259
-14.281,-12.376,-15.545,-23.528999,-21.674999,-20.683001,-17.391001,-13.591,-9.7262,-23.528999,-21.674999,-20.587999,0.95238,3.764,-5.6508,0.96618,-1.868,-4.9597,-0.8254,-0.98522,2.7697
-17.125,-8.5486,-14.569,-25.49,-20.690001,-20.683001,-14.493,-16.49,-8.7601,-25.49,-20.690001,-18.627001,0.95238,5.6778,-9.4603,4.8309,-1.868,-9.7907,5.8413,-4.9261,9.533
-13.333,2.9346,-5.7886,-20.587999,-11.823,-14.829,-1.9324,-14.557,3.8003,-20.587999,-11.823,-7.8431,1.9048,12.376,-6.6032,13.527,2.963,-13.655,11.556,-4.9261,19.195
-8.594,13.461,2.9919,-16.667,-6.8966,-10.927,7.7295,-17.455999,9.5974,-16.667,-6.8966,1.9608,6.6667,20.032,-1.8413,20.290001,8.7601,-14.622,9.6508,-1.9704,26.924
-3.8547,13.461,4.9431,-14.706,-6.8966,-7.0244,6.7633,-14.557,4.7665,-14.706,-6.8966,4.902,8.5714,20.032,1.9683,21.256001,11.659,-12.689,6.7937,0.98522,25.958
-3.8547,3.8915,2.0163,-12.745,-6.8966,-4.0976,1.9324,-11.659,-2.963,-12.745,-6.8966,2.9412,6.6667,17.160999,1.9683,14.493,8.7601,-11.723,4.8889,-0.98522,20.160999
-3.8547,-2.807,-0.91057,-8.8235,-5.9113,-4.0976,-1.9324,-10.692,-2.963,-8.8235,-5.9113,1.9608,5.7143,12.376,-0.88889,6.7633,3.9291,-9.7907,2.9841,-1.9704,14.364
-0.06319,-3.764,-0.91057,-2.9412,-3.9409,0.78049,0.96618,-4.8953,0.90177,-2.9412,-3.9409,3.9216,2.8571,7.5917,-1.8413,-0.96618,-0.90177,-4.9597,0.12698,-2.9557,8.5668
3.7283,-4.7209,-0.91057,0.98039,-1.9704,6.6341,0.96618,2.8341,-1.9968,0.98039,-1.9704,7.8431,0.0,1.8501,-3.746,-8.6957,-5.7327,0.83736,-2.7302,-3.9409,1.8035
7.5197,-3.764,0.06504,4.902,-1.9704,11.512,0.96618,7.6651,-2.963,4.902,-1.9704,9.8039,-1.9048,-4.8485,-3.746,-13.527,-9.5974,6.6345,-1.7778,-1.9704,-5.9259
7.5197,-2.807,0.06504,8.8235,-2.9557,14.439,0.0,11.53,-2.963,8.8235,-2.9557,8.8235,-4.7619,-9.6332,-2.7937,-14.493,-10.564,6.6345,-3.6825,-2.9557,-11.723
6.5719,-5.6778,0.06504,5.8824,-1.9704,10.537,-1.9324,7.6651,-4.8953,5.8824,-1.9704,4.902,-5.7143,-12.504,1.0159,-13.527,-8.6312,3.7359,-7.4921,-1.9704,-14.622
10.363,-4.7209,2.9919,5.8824,0.98522,11.512,-1.9324,8.6312,-4.8953,5.8824,0.98522,5.8824,-1.9048,-8.6762,6.7302,-10.628,-2.8341,8.5668,-2.7302,2.9557,-12.689
10.363,-3.764,4.9431,6.8627,-2.9557,9.561,-3.8647,8.6312,-3.9291,6.8627,-2.9557,4.902,0.95238,-3.8915,8.6349,-6.7633,1.0306,5.6683,-4.6349,2.9557,-8.8245
8.4676,-1.8501,4.9431,2.9412,-4.9261,3.7073,-2.8986,2.8341,-3.9291,2.9412,-4.9261,2.9412,2.8571,-1.0207,9.5873,-1.9324,4.8953,-0.12882,-5.5873,3.9409,-7.8583
3.7283,-2.807,2.9919,-0.98039,-4.9261,0.78049,-4.8309,-1.0306,-4.8953,-0.98039,-4.9261,0.0,2.8571,3.764,6.7302,0.96618,7.7939,-0.12882,-4.6349,0.98522,-3.9936
-1.0111,-2.807,-0.91057,0.0,-3.9409,-2.1463,-3.8647,-1.9968,-2.963,0.0,-3.9409,-2.9412,3.8095,11.419,2.9206,2.8986,6.8277,-2.0612,2.9841,-3.9409,3.7359
-3.8547,-0.89314,-0.91057,-5.8824,-6.8966,-7.0244,-5.7971,-7.7939,-5.8615,-5.8824,-6.8966,-5.8824,4.7619,13.333,1.0159,4.8309,6.8277,-6.8921,3.9365,-3.9409,5.6683
-3.8547,-1.8501,0.06504,-8.8235,-8.867,-8.9756,-5.7971,-10.692,-9.7262,-8.8235,-8.867,-5.8824,8.5714,14.29,1.0159,4.8309,6.8277,-10.757,0.12698,-0.98522,7.6006
-4.8025,-0.89314,1.0407,-5.8824,-4.9261,-7.0244,-2.8986,-9.7262,-4.8953,-5.8824,-4.9261,-3.9216,7.619,13.333,0.06349,2.8986,4.8953,-15.588,-1.7778,-0.98522,7.6006
-5.7504,2.9346,2.9919,-4.902,-0.98522,-8.0,3.8647,-12.625,3.8003,-4.902,-0.98522,-0.98039,5.7143,12.376,-1.8413,2.8986,2.963,-14.622,-0.8254,-1.9704,9.533
-10.49,2.9346,-1.8862,-13.725,-5.9113,-13.854,1.9324,-16.49,2.8341,-13.725,-5.9113,-5.8824,2.8571,8.5486,-2.7937,1.9324,1.0306,-19.452,-4.6349,-1.9704,9.533
-11.438,1.9777,-5.7886,-17.646999,-8.867,-17.756001,-0.96618,-17.455999,-1.9968,-17.646999,-8.867,-10.784,1.9048,5.6778,-2.7937,0.96618,-0.90177,-12.689,0.12698,-0.98522,8.5668
-12.385,-2.807,-10.667,-16.667,-9.8522,-18.732,-5.7971,-16.49,-4.8953,-16.667,-9.8522,-14.706,0.0,1.8501,-4.6984,-2.8986,-3.8003,-5.9259,2.9841,-0.98522,5.6683
-9.5419,-3.764,-7.7398,-12.745,-8.867,-12.878,-5.7971,-11.659,-3.9291,-12.745,-8.867,-11.765,-0.95238,-0.0638,-3.746,0.0,-1.868,-3.0274,4.8889,-0.98522,4.7021
-1.0111,1.9777,0.06504,-4.902,-2.9557,-2.1463,-0.96618,-0.06441,-1.9968,-4.902,-2.9557,-4.902,-1.9048,-3.8915,0.06349,5.7971,2.963,3.7359,6.7937,0.0,3.7359
0.88468,2.9346,2.9919,0.0,0.98522,1.7561,1.9324,5.7327,2.8341,0.0,0.98522,-1.9608,-0.95238,-4.8485,1.9683,5.7971,5.8615,4.7021,5.8413,0.98522,1.8035
-0.06319,1.9777,1.0407,4.902,4.9261,0.78049,3.8647,5.7327,3.8003,4.902,4.9261,-1.9608,0.0,-2.9346,2.9206,6.7633,6.8277,3.7359,4.8889,1.9704,1.8035
1.8325,1.0207,2.0163,6.8627,5.9113,1.7561,3.8647,8.6312,5.7327,6.8627,5.9113,-1.9608,2.8571,0.89314,5.7778,8.6957,8.7601,4.7021,3.9365,4.9261,3.7359
2.7804,1.9777,3.9675,7.8431,3.9409,1.7561,4.8309,7.6651,4.7665,7.8431,3.9409,0.0,6.6667,5.6778,8.6349,10.628,10.692,0.83736,-0.8254,6.8966,6.6345
0.88468,-0.89314,1.0407,10.784,5.9113,3.7073,2.8986,7.6651,6.6989,10.784,5.9113,1.9608,4.7619,6.6348,4.8254,6.7633,6.8277,4.7021,0.12698,3.9409,5.6683
4.6761,-2.807,1.0407,11.765,9.8522,7.6098,2.8986,10.564,3.8003,11.765,9.8522,5.8824,4.7619,6.6348,3.873,2.8986,3.9291,10.499,2.9841,4.9261,2.7697
9.4155,0.0638,4.9431,9.8039,8.867,12.488,5.7971,10.564,5.7327,9.8039,8.867,9.8039,3.8095,5.6778,5.7778,0.96618,1.9968,8.5668,-0.8254,8.867,0.83736
9.4155,2.9346,6.8943,9.8039,4.9261,13.463,5.7971,7.6651,2.8341,9.8039,4.9261,10.784,-0.95238,0.89314,3.873,0.0,-0.90177,7.6006,-2.7302,6.8966,-2.0612
6.5719,1.0207,4.9431,13.725,4.9261,12.488,5.7971,7.6651,4.7665,13.725,4.9261,9.8039,-4.7619,-2.9346,0.06349,-4.8309,-5.7327,6.6345,1.0794,3.9409,-4.9597
5.624,1.0207,4.9431,16.667,8.867,13.463,10.628,8.6312,6.6989,16.667,8.867,12.745,-4.7619,-4.8485,-0.88889,-7.7295,-6.6989,3.7359,0.12698,3.9409,-5.9259
5.624,1.9777,4.9431,14.706,9.8522,12.488,10.628,6.6989,5.7327,14.706,9.8522,13.725,-4.7619,-7.7193,-0.88889,-6.7633,-5.7327,3.7359,-3.6825,2.9557,-9.7907
4.6761,2.9346,4.9431,6.8627,2.9557,11.512,7.7295,3.8003,4.7665,6.8627,2.9557,10.784,-4.7619,-5.8054,0.06349,-0.96618,-1.868,3.7359,-8.4444,1.9704,-7.8583
2.7804,2.9346,3.9675,0.98039,-2.9557,8.5854,-0.96618,-1.0306,-6.8277,0.98039,-2.9557,6.8627,-1.9048,-2.9346,1.0159,3.8647,1.9968,1.8035,-4.6349,0.0,-3.9936
3.7283,4.8485,5.9187,0.98039,-0.98522,6.6341,-0.96618,-3.9291,-4.8953,0.98039,-0.98522,6.8627,2.8571,0.89314,5.7778,7.7295,8.7601,3.7359,4.8889,4.9261,0.83736
4.6761,8.6762,8.8455,-2.9412,-1.9704,3.7073,2.8986,-6.8277,-1.0306,-2.9412,-1.9704,5.8824,4.7619,5.6778,8.6349,10.628,11.659,-2.0612,6.7937,4.9261,6.6345
8.4676,12.504,11.772,-2.9412,1.9704,3.7073,7.7295,-3.9291,5.7327,-2.9412,1.9704,6.8627,4.7619,7.5917,11.492,14.493,14.557,-3.0274,9.6508,5.9113,9.533
7.5197,11.547,12.748,-0.98039,4.9261,3.7073,10.628,-4.8953,11.53,-0.98039,4.9261,6.8627,3.8095,5.6778,11.492,14.493,15.523,-3.9936,9.6508,3.9409,10.499
2.7804,7.7193,8.8455,-1.9608,3.9409,-0.19512,4.8309,-7.7939,8.6312,-1.9608,3.9409,1.9608,3.8095,6.6348,8.6349,12.56,12.625,-3.9936,5.8413,0.98522,10.499
-1.9589,2.9346,2.0163,-4.902,1.9704,-4.0976,2.8986,-7.7939,5.7327,-4.902,1.9704,-2.9412,3.8095,8.5486,4.8254,5.7971,7.7939,-6.8921,4.8889,-0.98522,9.533
-4.8025,-0.89314,-3.8374,-4.902,0.98522,-5.0732,1.9324,-3.9291,2.8341,-4.902,0.98522,-4.902,0.95238,4.7209,0.06349,-3.8647,-0.90177,-6.8921,-0.8254,-2.9557,5.6683
-2.9068,-0.89314,-4.813,0.0,1.9704,-2.1463,2.8986,1.868,2.8341,0.0,1.9704,-3.9216,-1.9048,-3.8915,-3.746,-10.628,-8.6312,-2.0612,-1.7778,-2.9557,-1.095
-2.9068,-1.8501,-5.7886,0.98039,2.9557,-1.1707,1.9324,3.8003,1.868,0.98039,2.9557,-2.9412,-6.6667,-11.547,-7.5556,-17.391001,-16.361,-1.095,1.0794,-2.9557,-7.8583
-5.7504,-5.6778,-9.6911,-2.9412,0.0,-2.1463,0.0,2.8341,-2.963,-2.9412,0.0,-4.902,-9.5238,-17.289,-11.365,-24.155001,-22.158001,-1.095,-4.6349,-3.9409,-13.655
-9.5419,-10.463,-16.52,0.0,0.0,-3.122,-1.9324,3.8003,-1.0306,0.0,0.0,-6.8627,-7.619,-16.332001,-12.317,-27.052999,-24.09,-0.12882,-8.4444,-2.9557,-16.554001
-12.385,-16.204,-20.423,0.98039,-3.9409,-5.0732,-6.7633,3.8003,-5.8615,0.98039,-3.9409,-9.8039,-3.8095,-11.547,-12.317,-25.121,-23.124001,2.7697,-7.4921,-0.98522,-12.689
-11.438,-13.333,-17.496,-2.9412,-7.8818,-7.0244,-10.628,4.7665,-9.7262,-2.9412,-7.8818,-10.784,-1.9048,-6.7624,-10.413,-14.493,-16.361,0.83736,-8.4444,0.0,-8.8245
-10.49,-5.6778,-11.642,-1.9608,-5.9113,-7.0244,-8.6957,3.8003,-8.7601,-1.9608,-5.9113,-8.8235,-1.9048,-1.9777,-8.5079,-2.8986,-7.6651,-1.095,-4.6349,-0.98522,-3.9936
-9.5419,-2.807,-8.7154,-1.9608,-2.9557,-8.9756,-7.7295,-1.0306,-7.7939,-1.9608,-2.9557,-9.8039,-0.95238,3.764,-8.5079,4.8309,-1.868,0.83736,-6.5397,-3.9409,-0.12882
-8.594,0.0638,-6.7642,-1.9608,-4.9261,-8.9756,-6.7633,-1.0306,-7.7939,-1.9608,-4.9261,-7.8431,0.0,7.5917,-6.6032,8.6957,1.9968,-0.12882,-9.3968,-6.8966,1.8035
-3.8547,2.9346,-2.8618,-4.902,-5.9113,-4.0976,-2.8986,-0.06441,-3.9291,-4.902,-5.9113,-2.9412,1.9048,11.419,-2.7937,11.594,4.8953,-2.0612,-0.8254,-4.9261,5.6683
1.8325,5.8054,4.9431,-5.8824,-2.9557,0.78049,0.96618,-0.06441,-1.0306,-5.8824,-2.9557,2.9412,2.8571,11.419,-0.88889,14.493,6.8277,-3.9936,2.9841,-3.9409,8.5668
5.624,7.7193,10.797,-1.9608,0.0,4.6829,2.8986,2.8341,2.8341,-1.9608,0.0,5.8824,0.95238,11.419,-0.88889,14.493,6.8277,-3.9936,2.0317,-4.9261,11.465
9.4155,7.7193,13.724,-0.98039,-0.98522,5.6585,2.8986,-1.9968,0.90177,-0.98039,-0.98522,7.8431,-0.95238,7.5917,1.0159,11.594,6.8277,-3.9936,3.9365,-3.9409,9.533
9.4155,7.7193,13.724,-1.9608,-0.98522,3.7073,2.8986,-5.8615,-0.06441,-1.9608,-0.98522,7.8431,-0.95238,6.6348,1.9683,9.6618,5.8615,-6.8921,3.9365,-1.9704,10.499
10.363,7.7193,13.724,-1.9608,-1.9704,6.6341,3.8647,1.868,-0.06441,-1.9608,-1.9704,7.8431,-0.95238,5.6778,4.8254,7.7295,6.8277,-1.095,2.9841,0.98522,7.6006
11.311,5.8054,12.748,0.98039,0.98522,8.5854,5.7971,4.7665,0.90177,0.98039,0.98522,8.8235,-1.9048,0.89314,5.7778,3.8647,4.8953,6.6345,0.12698,0.98522,3.7359
9.4155,3.8915,10.797,1.9608,0.0,8.5854,4.8309,6.6989,2.8341,1.9608,0.0,7.8431,-4.7619,-2.9346,2.9206,-0.96618,1.0306,1.8035,-1.7778,0.0,-1.095
7.5197,-2.807,5.9187,2.9412,-0.98522,8.5854,1.9324,7.6651,1.868,2.9412,-0.98522,4.902,-6.6667,-8.6762,0.06349,-6.7633,-3.8003,2.7697,-5.5873,0.0,-6.8921
1.8325,-3.764,-0.91057,0.0,0.0,4.6829,-0.96618,3.8003,-0.06441,0.0,0.0,1.9608,-6.6667,-11.547,-2.7937,-9.6618,-7.6651,1.8035,-5.5873,0.0,-9.7907
-2.9068,-5.6778,-7.7398,-0.98039,-0.98522,-0.19512,0.0,1.868,3.8003,-0.98039,-0.98522,-1.9608,-7.619,-15.375,-3.746,-12.56,-9.5974,1.8035,-1.7778,0.0,-9.7907
-2.9068,-9.5056,-10.667,-0.98039,-2.9557,0.78049,-3.8647,3.8003,-0.06441,-0.98039,-2.9557,-4.902,-11.429,-23.987,-4.6984,-14.493,-12.496,3.7359,-2.7302,0.0,-14.622
-3.8547,-6.6348,-8.7154,-2.9412,-2.9557,-1.1707,-3.8647,1.868,-2.963,-2.9412,-2.9557,-3.9216,-12.381,-25.900999,-5.6508,-12.56,-13.462,5.6683,-3.6825,0.98522,-13.655
-8.594,-6.6348,-12.618,-6.8627,-3.9409,-6.0488,-5.7971,0.90177,-3.9291,-6.8627,-3.9409,-6.8627,-14.286,-25.900999,-9.4603,-14.493,-17.327,1.8035,-1.7778,-1.9704,-14.622
-8.594,-8.5486,-13.593,-6.8627,-3.9409,-5.0732,-4.8309,4.7665,-2.963,-6.8627,-3.9409,-5.8824,-14.286,-21.115999,-11.365,-14.493,-17.327,2.7697,0.12698,-3.9409,-15.588
-5.7504,-8.5486,-10.667,-4.902,-5.9113,-5.0732,-5.7971,1.868,-1.0306,-4.902,-5.9113,-5.8824,-7.619,-10.59,-9.4603,-8.6957,-11.53,3.7359,0.12698,-2.9557,-10.757
-3.8547,-4.7209,-7.7398,-1.9608,-6.8966,-4.0976,-5.7971,1.868,-0.06441,-1.9608,-6.8966,-4.902,-2.8571,-2.9346,-7.5556,-2.8986,-6.6989,2.7697,-4.6349,-2.9557,-5.9259
-1.9589,-0.89314,-5.7886,-2.9412,-5.9113,-3.122,-4.8309,-0.06441,-1.0306,-2.9412,-5.9113,-4.902,-0.95238,-1.9777,-6.6032,-0.96618,-4.7665,2.7697,-4.6349,-1.9704,-3.0274
-3.8547,-2.807,-7.7398,-5.8824,-3.9409,-4.0976,-2.8986,-1.9968,-0.06441,-5.8824,-3.9409,-5.8824,-0.95238,-0.0638,-6.6032,-2.8986,-3.8003,1.8035,-0.8254,-3.9409,-2.0612
-2.9068,-0.89314,-3.8374,-3.9216,-0.98522,-3.122,0.0,-0.06441,0.90177,-3.9216,-0.98522,-3.9216,5.7143,5.6778,-2.7937,-0.96618,1.9968,-0.12882,0.12698,-1.9704,0.83736
-0.06319,1.0207,1.0407,-3.9216,-0.98522,-3.122,0.0,-2.963,3.8003,-3.9216,-0.98522,-2.9412,11.429,10.463,1.9683,2.8986,8.7601,-5.9259,-1.7778,0.0,3.7359
1.8325,-0.89314,4.9431,-5.8824,-0.98522,-3.122,-0.96618,-4.8953,0.90177,-5.8824,-0.98522,-2.9412,10.476,10.463,1.9683,3.8647,10.692,-3.9936,1.0794,-2.9557,4.7021
-0.06319,-1.8501,3.9675,-4.902,-5.9113,-3.122,-4.8309,-7.7939,-1.0306,-4.902,-5.9113,-5.8824,7.619,8.5486,-1.8413,3.8647,8.7601,-3.0274,3.9365,-6.8966,5.6683
0.88468,-2.807,2.9919,-5.8824,-5.9113,-1.1707,-4.8309,-6.8277,-1.0306,-5.8824,-5.9113,-5.8824,6.6667,6.6348,-0.88889,3.8647,7.7939,-1.095,2.9841,-5.9113,5.6683
1.8325,1.9777,3.9675,-4.902,-2.9557,1.7561,-3.8647,-1.9968,0.90177,-4.902,-2.9557,-4.902,5.7143,7.5917,1.0159,6.7633,7.7939,-0.12882,-1.7778,-3.9409,6.6345
2.7804,4.8485,3.9675,-4.902,-2.9557,-0.19512,-0.96618,-1.9968,-1.0306,-4.902,-2.9557,-3.9216,6.6667,9.5056,2.9206,10.628,8.7601,1.8035,2.0317,-0.98522,10.499
3.7283,2.9346,2.9919,-5.8824,-2.9557,1.7561,-0.96618,2.8341,-1.0306,-5.8824,-2.9557,-1.9608,3.8095,5.6778,2.9206,7.7295,5.8615,5.6683,4.8889,0.98522,7.6006
7.5197,2.9346,3.9675,0.0,0.0,5.6585,3.8647,7.6651,3.8003,0.0,0.0,2.9412,3.8095,3.764,4.8254,6.7633,3.9291,10.499,6.7937,5.9113,5.6683
6.5719,1.9777,2.9919,2.9412,2.9557,6.6341,1.9324,6.6989,3.8003,2.9412,2.9557,3.9216,2.8571,-0.0638,6.7302,4.8309,1.0306,8.5668,4.8889,9.8522,2.7697
3.7283,-0.89314,-0.91057,0.0,-0.98522,3.7073,-1.9324,4.7665,-2.963,0.0,-0.98522,0.0,3.8095,-2.9346,6.7302,1.9324,-0.90177,15.33,0.12698,11.823,-0.12882
3.7283,-3.764,-3.8374,-2.9412,-4.9261,1.7561,-5.7971,4.7665,-5.8615,-2.9412,-4.9261,-2.9412,4.7619,-3.8915,8.6349,-1.9324,-0.90177,17.261999,-3.6825,13.793,-2.0612
3.7283,-3.764,-1.8862,0.0,-4.9261,1.7561,-2.8986,3.8003,-3.9291,0.0,-4.9261,0.0,6.6667,-3.8915,10.54,-3.8647,0.06441,14.364,-0.8254,14.778,-3.0274
4.6761,-2.807,0.06504,1.9608,-2.9557,1.7561,-0.96618,2.8341,-2.963,1.9608,-2.9557,1.9608,5.7143,-4.8485,9.5873,-7.7295,-0.90177,12.432,-2.7302,13.793,-5.9259
4.6761,-1.8501,2.0163,0.0,1.9704,1.7561,1.9324,0.90177,-1.0306,0.0,1.9704,4.902,1.9048,-7.7193,6.7302,-8.6957,-1.868,7.6006,-7.4921,10.837,-7.8583
4.6761,-2.807,3.9675,-0.98039,3.9409,0.78049,3.8647,-1.9968,2.8341,-0.98039,3.9409,5.8824,0.0,-8.6762,2.9206,-8.6957,-2.8341,4.7021,-0.8254,6.8966,-7.8583
0.88468,-2.807,1.0407,-1.9608,2.9557,-0.19512,0.96618,-2.963,2.8341,-1.9608,2.9557,3.9216,-3.8095,-11.547,-0.88889,-9.6618,-4.7665,3.7359,2.0317,2.9557,-10.757
-2.9068,1.0207,1.0407,0.0,4.9261,-2.1463,2.8986,-7.7939,3.8003,0.0,4.9261,3.9216,-5.7143,-13.461,-1.8413,-7.7295,-3.8003,-4.9597,2.9841,-0.98522,-10.757
-4.8025,3.8915,2.9919,0.0,3.9409,-4.0976,2.8986,-7.7939,4.7665,0.0,3.9409,1.9608,-6.6667,-11.547,-1.8413,-1.9324,-0.90177,-10.757,6.7937,-4.9261,-6.8921
-4.8025,7.7193,7.8699,-1.9608,2.9557,-6.0488,2.8986,-7.7939,3.8003,-1.9608,2.9557,0.98039,-3.8095,-4.8485,-0.88889,4.8309,2.963,-9.7907,6.7937,-8.867,-1.095
-4.8025,10.59,8.8455,-4.902,-2.9557,-8.9756,-0.96618,-9.7262,-1.0306,-4.902,-2.9557,-1.9608,0.95238,2.807,0.06349,12.56,6.8277,-10.757,7.746,-9.8522,6.6345
-6.6983,5.8054,4.9431,-6.8627,-4.9261,-11.902,-2.8986,-10.692,-2.963,-6.8627,-4.9261,-4.902,2.8571,8.5486,0.06349,15.459,8.7601,-16.554001,8.6984,-9.8522,10.499
-4.8025,5.8054,4.9431,-5.8824,-2.9557,-9.9512,-2.8986,-6.8277,0.90177,-5.8824,-2.9557,-5.8824,3.8095,12.376,1.0159,17.391001,9.7262,-12.689,3.9365,-9.8522,13.398
-1.9589,6.7624,4.9431,-6.8627,-2.9557,-8.0,-0.96618,-4.8953,1.868,-6.8627,-2.9557,-4.902,3.8095,14.29,1.9683,16.424999,9.7262,-6.8921,7.746,-7.8818,17.261999
-2.9068,5.8054,2.9919,-6.8627,-4.9261,-7.0244,-1.9324,-4.8953,5.7327,-6.8627,-4.9261,-5.8824,2.8571,16.204,1.0159,14.493,8.7601,-4.9597,9.6508,-7.8818,18.229
-0.06319,4.8485,2.0163,-2.9412,-5.9113,-4.0976,-4.8309,-0.06441,-1.9968,-2.9412,-5.9113,-4.902,1.9048,15.247,1.0159,11.594,5.8615,-3.0274,3.9365,-4.9261,15.33
-2.9068,-1.8501,-4.813,-3.9216,-6.8966,-4.0976,-7.7295,0.90177,-2.963,-3.9216,-6.8966,-7.8431,-0.95238,10.463,-3.746,4.8309,-0.90177,-3.0274,-1.7778,-5.9113,10.499
-4.8025,-6.6348,-9.6911,-7.8431,-9.8522,-5.0732,-8.6957,-0.06441,-1.9968,-7.8431,-9.8522,-10.784,0.0,9.5056,-4.6984,-0.96618,-5.7327,3.7359,-3.6825,-4.9261,7.6006
-3.8547,-12.376,-10.667,-7.8431,-9.8522,-4.0976,-11.594,2.8341,-5.8615,-7.8431,-9.8522,-11.765,2.8571,10.463,-2.7937,-6.7633,-5.7327,8.5668,-10.349,0.0,3.7359
-1.9589,-14.29,-11.642,-7.8431,-8.867,-4.0976,-11.594,2.8341,-5.8615,-7.8431,-8.867,-11.765,6.6667,9.5056,0.06349,-9.6618,-5.7327,10.499,-13.206,4.9261,-2.0612
-4.8025,-18.118,-15.545,-6.8627,-8.867,-6.0488,-11.594,-1.9968,-3.9291,-6.8627,-8.867,-10.784,2.8571,0.89314,-3.746,-16.424999,-10.564,7.6006,-14.159,2.9557,-9.7907
-5.7504,-19.075001,-16.52,-3.9216,-7.8818,-3.122,-9.6618,-1.0306,-2.963,-3.9216,-7.8818,-7.8431,-0.95238,-6.7624,-6.6032,-19.323999,-14.428,3.7359,-12.254,1.9704,-13.655
0.88468,-14.29,-6.7642,-1.9608,-4.9261,2.7317,-6.7633,-0.06441,-2.963,-1.9608,-4.9261,0.0,-0.95238,-8.6762,-2.7937,-18.357,-11.53,5.6683,-4.6349,4.9261,-14.622
6.5719,-8.5486,2.9919,-0.98039,-2.9557,8.5854,-4.8309,1.868,-1.9968,-0.98039,-2.9557,4.902,-0.95238,-9.6332,0.06349,-16.424999,-7.6651,8.5668,-2.7302,4.9261,-16.554001
4.6761,-5.6778,4.9431,-1.9608,-2.9557,6.6341,-3.8647,-1.0306,-3.9291,-1.9608,-2.9557,4.902,0.95238,-6.7624,1.0159,-10.628,-3.8003,6.6345,-5.5873,5.9113,-14.622
2.7804,-0.89314,2.9919,-1.9608,0.0,4.6829,-0.96618,-1.9968,-2.963,-1.9608,0.0,5.8824,2.8571,-3.8915,1.9683,-4.8309,-1.868,1.8035,-4.6349,4.9261,-10.757
-0.06319,1.9777,2.9919,-1.9608,1.9704,3.7073,2.8986,-4.8953,-0.06441,-1.9608,1.9704,7.8431,2.8571,-1.9777,-0.88889,-0.96618,-2.8341,0.83736,-2.7302,0.98522,-6.8921
-1.0111,2.9346,4.9431,-0.98039,1.9704,0.78049,4.8309,-5.8615,5.7327,-0.98039,1.9704,6.8627,2.8571,-1.0207,0.06349,1.9324,0.06441,-3.0274,2.0317,0.98522,-3.0274
-2.9068,4.8485,5.9187,-1.9608,3.9409,-4.0976,7.7295,-9.7262,8.6312,-1.9608,3.9409,4.902,2.8571,0.89314,1.9683,7.7295,3.9291,-4.9597,6.7937,1.9704,2.7697
-5.7504,7.7193,2.9919,-2.9412,6.8966,-8.9756,4.8309,-13.591,6.6989,-2.9412,6.8966,1.9608,0.95238,3.764,1.0159,12.56,4.8953,-7.8583,5.8413,-0.98522,7.6006
-2.9068,11.547,3.9675,0.98039,10.837,-6.0488,9.6618,-9.7262,11.53,0.98039,10.837,4.902,1.9048,7.5917,1.0159,15.459,6.8277,-5.9259,8.6984,-0.98522,11.465
2.7804,15.375,8.8455,4.902,11.823,-1.1707,12.56,-5.8615,12.496,4.902,11.823,8.8235,1.9048,9.5056,2.9206,13.527,6.8277,-1.095,12.508,0.0,12.432
6.5719,11.547,12.748,4.902,10.837,0.78049,10.628,-4.8953,6.6989,4.902,10.837,8.8235,0.95238,12.376,4.8254,11.594,7.7939,-1.095,6.7937,0.0,14.364
9.4155,4.8485,11.772,4.902,10.837,0.78049,5.7971,-1.0306,6.6989,4.902,10.837,4.902,2.8571,11.419,9.5873,8.6957,9.7262,0.83736,6.7937,3.9409,12.432
8.4676,2.9346,6.8943,4.902,8.867,-0.19512,4.8309,1.868,6.6989,4.902,8.867,0.98039,2.8571,10.463,10.54,5.7971,9.7262,6.6345,11.556,4.9261,10.499
7.5197,-0.89314,2.9919,3.9216,5.9113,-1.1707,1.9324,0.90177,5.7327,3.9216,5.9113,-0.98039,0.0,6.6348,7.6825,0.0,5.8615,6.6345,5.8413,2.9557,5.6683
8.4676,-4.7209,2.9919,7.8431,7.8818,2.7317,1.9324,5.7327,6.6989,7.8431,7.8818,0.98039,-2.8571,-1.0207,5.7778,-6.7633,1.9968,9.533,-0.8254,1.9704,-3.9936
8.4676,-2.807,6.8943,13.725,9.8522,7.6098,4.8309,11.53,7.6651,13.725,9.8522,4.902,-4.7619,-6.7624,4.8254,-7.7295,1.0306,10.499,-7.4921,0.98522,-10.757
7.5197,1.9777,6.8943,15.686,8.867,9.561,3.8647,12.496,3.8003,15.686,8.867,5.8824,-4.7619,-8.6762,3.873,-1.9324,1.9968,6.6345,-6.5397,0.98522,-8.8245
4.6761,5.8054,5.9187,12.745,10.837,7.6098,4.8309,11.53,4.7665,12.745,10.837,4.902,-2.8571,-7.7193,2.9206,3.8647,3.9291,4.7021,2.0317,0.98522,-6.8921
-1.0111,3.8915,2.9919,3.9216,8.867,1.7561,4.8309,1.868,5.7327,3.9216,8.867,2.9412,-3.8095,-6.7624,-1.8413,3.8647,1.9968,-2.0612,4.8889,-2.9557,-7.8583
-0.06319,8.6762,4.9431,3.9216,8.867,1.7561,8.6957,-0.06441,5.7327,3.9216,8.867,4.902,-7.619,-10.59,-2.7937,2.8986,0.06441,-6.8921,2.0317,-3.9409,-8.8245
1.8325,9.6332,9.8211,6.8627,6.8966,2.7317,8.6957,0.90177,5.7327,6.8627,6.8966,7.8431,-5.7143,-7.7193,-0.88889,6.7633,1.9968,-3.9936,-0.8254,-3.9409,-6.8921
0.88468,8.6762,6.8943,4.902,4.9261,-0.19512,6.7633,-2.963,1.868,4.902,4.9261,4.902,-1.9048,-2.9346,0.06349,8.6957,3.9291,-2.0612,-0.8254,-3.9409,-3.0274
-1.9589,5.8054,1.0407,4.902,2.9557,-1.1707,4.8309,-1.0306,0.90177,4.902,2.9557,1.9608,1.9048,3.764,0.06349,8.6957,3.9291,-3.9936,1.0794,-1.9704,2.7697
-1.9589,7.7193,2.9919,4.902,5.9113,0.78049,6.7633,2.8341,-1.0306,4.902,5.9113,4.902,5.7143,12.376,1.0159,9.6618,5.8615,-4.9597,0.12698,-1.9704,10.499
-1.0111,8.6762,4.9431,2.9412,4.9261,0.78049,6.7633,0.90177,1.868,2.9412,4.9261,4.902,7.619,13.333,2.9206,8.6957,5.8615,-4.9597,1.0794,-0.98522,11.465
1.8325,4.8485,2.9919,3.9216,5.9113,2.7317,7.7295,-0.06441,3.8003,3.9216,5.9113,5.8824,7.619,13.333,1.9683,2.8986,3.9291,-2.0612,6.7937,-1.9704,11.465
2.7804,1.0207,1.0407,6.8627,9.8522,4.6829,8.6957,2.8341,4.7665,6.8627,9.8522,7.8431,7.619,12.376,2.9206,-0.96618,2.963,-5.9259,6.7937,-1.9704,8.5668
5.624,0.0638,2.0163,9.8039,8.867,7.6098,9.6618,4.7665,5.7327,9.8039,8.867,9.8039,6.6667,10.463,3.873,-0.96618,2.963,-0.12882,2.0317,-0.98522,6.6345
7.5197,-0.89314,3.9675,9.8039,7.8818,8.5854,6.7633,6.6989,1.868,9.8039,7.8818,8.8235,4.7619,9.5056,3.873,0.0,2.963,3.7359,-2.7302,-0.98522,4.7021
8.4676,2.9346,4.9431,10.784,8.867,9.561,5.7971,6.6989,-1.0306,10.784,8.867,8.8235,4.7619,8.5486,4.8254,3.8647,4.8953,2.7697,-3.6825,1.9704,4.7021
7.5197,2.9346,3.9675,12.745,7.8818,9.561,3.8647,7.6651,-3.9291,12.745,7.8818,5.8824,1.9048,2.807,3.873,5.7971,5.8615,1.8035,0.12698,1.9704,1.8035
6.5719,1.9777,2.0163,9.8039,5.9113,8.5854,1.9324,7.6651,-1.9968,9.8039,5.9113,2.9412,-3.8095,-3.8915,2.9206,6.7633,4.8953,1.8035,2.0317,-0.98522,-1.095
6.5719,4.8485,2.9919,12.745,6.8966,9.561,3.8647,9.5974,-1.0306,12.745,6.8966,4.902,-4.7619,-7.7193,3.873,7.7295,6.8277,0.83736,-0.8254,0.0,-3.9936
8.4676,4.8485,7.8699,15.686,5.9113,10.537,0.96618,8.6312,-4.8953,15.686,5.9113,6.8627,-2.8571,-6.7624,7.6825,9.6618,9.7262,-2.0612,-2.7302,1.9704,-3.9936
11.311,7.7193,12.748,13.725,5.9113,12.488,1.9324,9.5974,-4.8953,13.725,5.9113,8.8235,1.9048,-3.8915,10.54,10.628,11.659,-1.095,2.9841,5.9113,-1.095
10.363,7.7193,10.797,9.8039,2.9557,11.512,0.96618,7.6651,-2.963,9.8039,2.9557,8.8235,3.8095,0.89314,10.54,9.6618,10.692,-1.095,2.0317,3.9409,1.8035
6.5719,5.8054,8.8455,5.8824,0.0,7.6098,-0.96618,0.90177,-7.7939,5.8824,0.0,5.8824,4.7619,6.6348,7.6825,7.7295,7.7939,-3.0274,1.0794,1.9704,7.6006
2.7804,1.0207,5.9187,7.8431,3.9409,4.6829,-0.96618,-1.0306,-5.8615,7.8431,3.9409,3.9216,3.8095,10.463,3.873,2.8986,3.9291,-8.8245,4.8889,-1.9704,10.499
0.88468,-1.8501,5.9187,7.8431,7.8818,2.7317,3.8647,-2.963,-0.06441,7.8431,7.8818,4.902,4.7619,11.419,1.0159,-1.9324,1.0306,-9.7907,2.0317,-1.9704,7.6006
1.8325,0.0638,5.9187,0.98039,1.9704,0.78049,2.8986,-4.8953,-1.9968,0.98039,1.9704,3.9216,5.7143,10.463,1.0159,-4.8309,1.0306,-8.8245,-2.7302,0.98522,3.7359
2.7804,-0.89314,3.9675,0.98039,1.9704,2.7317,2.8986,0.90177,-2.963,0.98039,1.9704,3.9216,1.9048,4.7209,0.06349,-7.7295,-0.90177,-4.9597,-4.6349,0.98522,-1.095
1.8325,-0.89314,2.0163,4.902,2.9557,5.6585,3.8647,6.6989,-1.0306,4.902,2.9557,5.8824,-2.8571,-1.0207,-2.7937,-9.6618,-2.8341,-2.0612,-2.7302,-0.98522,-4.9597
2.7804,2.9346,3.9675,7.8431,4.9261,7.6098,6.7633,7.6651,2.8341,7.8431,4.9261,6.8627,-3.8095,-1.9777,-1.8413,-5.7971,-2.8341,6.6345,0.12698,0.98522,-3.0274
0.88468,1.0207,1.0407,7.8431,0.98522,4.6829,0.96618,6.6989,0.90177,7.8431,0.98522,1.9608,-4.7619,-2.9346,-0.88889,-0.96618,-1.868,5.6683,-0.8254,0.98522,-1.095
-1.9589,-1.8501,-3.8374,2.9412,-2.9557,-0.19512,-3.8647,3.8003,-5.8615,2.9412,-2.9557,-3.9216,-5.7143,-3.8915,-0.88889,1.9324,-1.868,3.7359,-0.8254,1.9704,-0.12882
-3.8547,-5.6778,-9.6911,-0.98039,-5.9113,-3.122,-8.6957,4.7665,-9.7262,-0.98039,-5.9113,-7.8431,-5.7143,-5.8054,-0.88889,0.0,-3.8003,7.6006,-2.7302,5.9113,-2.0612
-5.7504,-6.6348,-13.593,2.9412,-4.9261,-3.122,-7.7295,9.5974,-8.7601,2.9412,-4.9261,-8.8235,-7.619,-8.6762,-2.7937,-1.9324,-6.6989,8.5668,-6.5397,3.9409,-5.9259
-4.8025,-3.764,-10.667,3.9216,-1.9704,-1.1707,-3.8647,7.6651,-5.8615,3.9216,-1.9704,-4.902,-6.6667,-8.6762,-0.88889,-0.96618,-5.7327,7.6006,-7.4921,4.9261,-6.8921
-1.0111,-5.6778,-6.7642,4.902,-5.9113,1.7561,-6.7633,9.5974,-8.7601,4.902,-5.9113,-1.9608,-3.8095,-6.7624,1.9683,-2.8986,-4.7665,8.5668,-9.3968,10.837,-7.8583
-1.9589,-7.5917,-9.6911,0.98039,-5.9113,1.7561,-6.7633,8.6312,-13.591,0.98039,-5.9113,-1.9608,-3.8095,-10.59,0.06349,-7.7295,-9.5974,11.465,-14.159,8.867,-10.757
-4.8025,-9.5056,-14.569,0.98039,-4.9261,0.78049,-7.7295,7.6651,-11.659,0.98039,-4.9261,-3.9216,-1.9048,-8.6762,-3.746,-10.628,-12.496,11.465,-10.349,7.8818,-11.723
-7.6461,-13.333,-16.52,1.9608,-4.9261,-0.19512,-8.6957,11.53,-10.692,1.9608,-4.9261,-5.8824,-0.95238,-5.8054,-5.6508,-11.594,-12.496,8.5668,-3.6825,6.8966,-9.7907
-10.49,-17.160999,-17.496,-0.98039,-9.8522,-5.0732,-12.56,4.7665,-11.659,-0.98039,-9.8522,-10.784,0.95238,-1.9777,-5.6508,-11.594,-11.53,2.7697,-7.4921,4.9261,-7.8583
-15.229,-19.075001,-18.472,-6.8627,-9.8522,-11.902,-14.493,-2.963,-13.591,-6.8627,-9.8522,-15.686,1.9048,-0.0638,-7.5556,-13.527,-11.53,-1.095,-9.3968,2.9557,-7.8583
-22.812,-19.075001,-22.374001,-12.745,-14.778,-20.683001,-18.357,-7.7939,-18.422001,-12.745,-14.778,-21.569,0.95238,-1.0207,-11.365,-16.424999,-13.462,-7.8583,-12.254,0.0,-8.8245
-27.551001,-17.160999,-25.301001,-13.725,-15.764,-24.584999,-18.357,-8.7601,-18.422001,-13.725,-15.764,-25.49,-1.9048,-2.9346,-18.032,-16.424999,-16.361,-8.8245,-11.302,-6.8966,-8.8245
-22.812,-15.247,-22.374001,-9.8039,-14.778,-19.707001,-15.459,-3.9291,-14.557,-9.8039,-14.778,-22.549,-0.95238,-0.0638,-18.032,-14.493,-14.428,-9.7907,-8.4444,-7.8818,-3.0274
-15.229,-8.5486,-12.618,-11.765,-11.823,-13.854,-10.628,-1.9968,-10.692,-11.765,-11.823,-14.706,1.9048,7.5917,-13.27,-6.7633,-8.6312,-4.9597,-6.5397,-6.8966,5.6683
-10.49,-2.807,-6.7642,-11.765,-7.8818,-10.927,-5.7971,-4.8953,-5.8615,-11.765,-7.8818,-9.8039,0.0,8.5486,-12.317,-1.9324,-5.7327,-3.0274,-1.7778,-8.867,9.533
-6.6983,0.0638,-4.813,-8.8235,-7.8818,-8.0,-4.8309,-4.8953,-6.8277,-8.8235,-7.8818,-6.8627,1.9048,11.419,-9.4603,2.8986,-1.868,-3.0274,3.9365,-6.8966,10.499
-3.8547,1.9777,-3.8374,-4.902,-9.8522,-6.0488,-4.8309,-1.0306,-8.7601,-4.902,-9.8522,-6.8627,4.7619,14.29,-5.6508,7.7295,1.9968,-3.0274,4.8889,-3.9409,13.398
-2.9068,1.0207,0.06504,-4.902,-9.8522,-6.0488,-4.8309,-1.9968,-7.7939,-4.902,-9.8522,-6.8627,5.7143,14.29,0.06349,11.594,7.7939,-2.0612,2.0317,-0.98522,14.364
-1.0111,0.0638,2.0163,-3.9216,-5.9113,-4.0976,-3.8647,1.868,-5.8615,-3.9216,-5.9113,-3.9216,7.619,12.376,4.8254,10.628,8.7601,2.7697,0.12698,2.9557,12.432
1.8325,-0.89314,0.06504,-4.902,-6.8966,0.78049,-4.8309,6.6989,-7.7939,-4.902,-6.8966,-0.98039,6.6667,7.5917,5.7778,3.8647,4.8953,6.6345,0.12698,5.9113,9.533
5.624,-0.89314,0.06504,1.9608,-2.9557,4.6829,-1.9324,6.6989,-6.8277,1.9608,-2.9557,2.9412,3.8095,1.8501,6.7302,-0.96618,0.06441,6.6345,1.0794,7.8818,5.6683
8.4676,1.9777,1.0407,6.8627,2.9557,7.6098,2.8986,6.6989,-0.06441,6.8627,2.9557,7.8431,-0.95238,-4.8485,4.8254,-2.8986,-3.8003,11.465,-0.8254,6.8966,0.83736
7.5197,2.9346,2.0163,6.8627,4.9261,7.6098,4.8309,4.7665,1.868,6.8627,4.9261,8.8235,-5.7143,-12.504,1.9683,-5.7971,-7.6651,7.6006,-5.5873,4.9261,-3.9936
5.624,1.0207,2.0163,5.8824,0.0,6.6341,-0.96618,3.8003,-1.9968,5.8824,0.0,5.8824,-6.6667,-16.332001,-0.88889,-7.7295,-9.5974,3.7359,-1.7778,1.9704,-7.8583
3.7283,-0.89314,0.06504,3.9216,-1.9704,4.6829,-1.9324,8.6312,-5.8615,3.9216,-1.9704,2.9412,-7.619,-21.115999,-2.7937,-10.628,-10.564,1.8035,0.12698,1.9704,-13.655
-1.9589,-3.764,-2.8618,1.9608,0.0,-0.19512,-1.9324,0.90177,-4.8953,1.9608,0.0,0.0,-7.619,-19.202999,-7.5556,-10.628,-11.53,-3.0274,-2.7302,-1.9704,-14.622
-3.8547,-5.6778,-3.8374,1.9608,0.0,-0.19512,-0.96618,-3.9291,-1.9968,1.9608,0.0,-0.98039,-3.8095,-11.547,-8.5079,-7.7295,-8.6312,-3.9936,-0.8254,-3.9409,-9.7907
-3.8547,-3.764,-0.91057,0.98039,-0.98522,0.78049,-0.96618,-1.0306,-0.06441,0.98039,-0.98522,0.0,1.9048,-1.9777,-4.6984,-2.8986,-2.8341,-6.8921,0.12698,-2.9557,-2.0612
-2.9068,-1.8501,0.06504,-0.98039,0.98522,-0.19512,1.9324,-0.06441,2.8341,-0.98039,0.98522,0.0,6.6667,5.6778,0.06349,1.9324,3.9291,-7.8583,2.0317,0.0,3.7359
-2.9068,1.0207,1.0407,-0.98039,0.0,-0.19512,2.8986,0.90177,1.868,-0.98039,0.0,0.0,8.5714,12.376,1.9683,7.7295,8.7601,-5.9259,2.9841,-1.9704,9.533
-3.8547,1.9777,0.06504,0.0,-0.98522,-1.1707,3.8647,-0.06441,0.90177,0.0,-0.98522,0.0,9.5238,13.333,1.9683,7.7295,9.7262,-3.9936,7.746,-4.9261,11.465
-2.9068,2.9346,1.0407,2.9412,-0.98522,-0.19512,4.8309,1.868,3.8003,2.9412,-0.98522,0.98039,5.7143,8.5486,1.0159,4.8309,6.8277,-3.9936,7.746,-5.9113,10.499
0.88468,6.7624,6.8943,4.902,0.98522,2.7317,6.7633,3.8003,6.6989,4.902,0.98522,3.9216,0.95238,3.764,1.9683,4.8309,4.8953,-3.0274,3.9365,-5.9113,8.5668
-1.0111,5.8054,5.9187,0.0,1.9704,0.78049,6.7633,1.868,4.7665,0.0,1.9704,3.9216,-1.9048,-1.9777,-0.88889,0.96618,1.0306,-0.12882,5.8413,-5.9113,5.6683
-1.9589,4.8485,2.9919,1.9608,3.9409,1.7561,8.6957,2.8341,6.6989,1.9608,3.9409,5.8824,-4.7619,-5.8054,-3.746,-0.96618,-3.8003,-0.12882,10.603,-5.9113,2.7697
-1.0111,4.8485,2.0163,0.98039,3.9409,2.7317,10.628,2.8341,8.6312,0.98039,3.9409,7.8431,-5.7143,-7.7193,-2.7937,-2.8986,-4.7665,-3.0274,12.508,-4.9261,-0.12882
-1.9589,3.8915,0.06504,-1.9608,-0.98522,-0.19512,6.7633,-1.9968,5.7327,-1.9608,-0.98522,4.902,-7.619,-10.59,-2.7937,-3.8647,-5.7327,-3.0274,9.6508,-3.9409,-3.0274
-1.9589,2.9346,-0.91057,-2.9412,-3.9409,-0.19512,3.8647,-0.06441,-0.06441,-2.9412,-3.9409,3.9216,-5.7143,-9.6332,-2.7937,-4.8309,-4.7665,2.7697,4.8889,-1.9704,-4.9597
-2.9068,0.0638,-3.8374,-2.9412,-3.9409,0.78049,1.9324,3.8003,0.90177,-2.9412,-3.9409,1.9608,-3.8095,-9.6332,-0.88889,-5.7971,-4.7665,2.7697,-0.8254,1.9704,-6.8921
-1.0111,-0.89314,-2.8618,2.9412,-0.98522,3.7073,1.9324,5.7327,-1.0306,2.9412,-0.98522,2.9412,-3.8095,-8.6762,0.06349,-4.8309,-2.8341,4.7021,-2.7302,2.9557,-4.9597
-1.0111,-3.764,-2.8618,1.9608,-1.9704,1.7561,-3.8647,4.7665,-5.8615,1.9608,-1.9704,0.98039,-2.8571,-7.7193,0.06349,-2.8986,-2.8341,1.8035,-7.4921,2.9557,-4.9597
-2.9068,-6.6348,-4.813,-2.9412,-7.8818,-3.122,-8.6957,-1.9968,-11.659,-2.9412,-7.8818,-3.9216,-2.8571,-7.7193,-1.8413,-4.8309,-3.8003,-1.095,-6.5397,1.9704,-5.9259
-1.0111,-8.5486,-4.813,-4.902,-10.837,-3.122,-9.6618,-2.963,-10.692,-4.902,-10.837,-3.9216,-2.8571,-5.8054,-0.88889,-5.7971,-3.8003,-0.12882,-1.7778,2.9557,-6.8921
0.88468,-7.5917,-2.8618,-2.9412,-7.8818,-2.1463,-6.7633,-1.0306,-5.8615,-2.9412,-7.8818,-2.9412,-1.9048,-2.9346,-0.88889,-5.7971,-2.8341,-3.9936,2.0317,2.9557,-3.0274
1.8325,-3.764,-0.91057,-2.9412,-6.8966,-1.1707,-4.8309,0.90177,-2.963,-2.9412,-6.8966,-0.98039,-0.95238,-1.9777,-0.88889,-3.8647,-2.8341,-2.0612,2.9841,1.9704,-1.095
1.8325,0.0638,0.06504,-2.9412,-5.9113,0.78049,-0.96618,3.8003,-1.9968,-2.9412,-5.9113,0.98039,-2.8571,-1.9777,-2.7937,-2.8986,-3.8003,-2.0612,2.0317,-0.98522,-2.0612
-0.06319,0.0638,1.0407,-0.98039,-2.9557,-0.19512,0.0,2.8341,1.868,-0.98039,-2.9557,0.98039,-4.7619,-1.9777,-4.6984,-2.8986,-5.7327,-3.9936,-2.7302,-2.9557,-3.0274
-1.0111,-3.764,0.06504,2.9412,-2.9557,-1.1707,-2.8986,0.90177,-2.963,2.9412,-2.9557,-0.98039,-3.8095,-1.9777,-4.6984,-5.7971,-5.7327,-3.0274,-3.6825,-2.9557,-4.9597
0.88468,-6.6348,0.06504,1.9608,-6.8966,-1.1707,-9.6618,3.8003,-11.659,1.9608,-6.8966,-3.9216,0.0,-1.9777,-0.88889,-6.7633,-3.8003,-1.095,-3.6825,0.98522,-5.9259
-0.06319,-6.6348,-0.91057,-3.9216,-11.823,-3.122,-13.527,2.8341,-14.557,-3.9216,-11.823,-7.8431,0.95238,-2.9346,1.9683,-3.8647,-0.90177,-3.0274,-7.4921,0.98522,-5.9259
-1.9589,-6.6348,-2.8618,-8.8235,-15.764,-5.0732,-13.527,-1.0306,-13.591,-8.8235,-15.764,-10.784,0.0,-6.7624,3.873,-1.9324,1.9968,-1.095,-7.4921,0.98522,-7.8583
-3.8547,-11.419,-5.7886,-6.8627,-17.733999,-4.0976,-15.459,1.868,-16.49,-6.8627,-17.733999,-11.765,-3.8095,-11.547,1.9683,-5.7971,1.0306,-1.095,-5.5873,-1.9704,-11.723
-3.8547,-9.5056,-4.813,0.0,-10.837,-2.1463,-10.628,9.5974,-7.7939,0.0,-10.837,-8.8235,-1.9048,-8.6762,1.0159,-4.8309,2.963,3.7359,-2.7302,-1.9704,-8.8245
-5.7504,-6.6348,-4.813,3.9216,-4.9261,-3.122,-8.6957,11.53,-2.963,3.9216,-4.9261,-7.8431,1.9048,-0.0638,0.06349,0.0,4.8953,4.7021,-1.7778,-2.9557,-2.0612
-7.6461,-3.764,-5.7886,1.9608,-2.9557,-6.0488,-8.6957,4.7665,-5.8615,1.9608,-2.9557,-8.8235,2.8571,7.5917,-1.8413,4.8309,4.8953,2.7697,-4.6349,-4.9261,3.7359
-5.7504,1.0207,-0.91057,-0.98039,-6.8966,-5.0732,-8.6957,3.8003,-7.7939,-0.98039,-6.8966,-6.8627,1.9048,10.463,-0.88889,8.6957,5.8615,2.7697,-3.6825,-5.9113,6.6345
-1.0111,1.9777,3.9675,-1.9608,-7.8818,-2.1463,-7.7295,3.8003,-6.8277,-1.9608,-7.8818,-3.9216,2.8571,11.419,1.0159,12.56,8.7601,5.6683,-0.8254,-4.9261,8.5668
2.7804,6.7624,6.8943,-1.9608,-3.9409,1.7561,-2.8986,0.90177,-2.963,-1.9608,-3.9409,0.0,4.7619,12.376,2.9206,14.493,9.7262,3.7359,0.12698,-1.9704,8.5668
8.4676,11.547,8.8455,-3.9216,-3.9409,3.7073,0.96618,1.868,-1.9968,-3.9216,-3.9409,2.9412,6.6667,12.376,6.7302,15.459,9.7262,1.8035,2.0317,3.9409,9.533
12.259,9.6332,11.772,-5.8824,-5.9113,3.7073,0.0,2.8341,-0.06441,-5.8824,-5.9113,3.9216,2.8571,9.5056,6.7302,12.56,6.8277,9.533,4.8889,2.9557,8.5668
14.155,4.8485,12.748,-0.98039,-1.9704,5.6585,2.8986,3.8003,2.8341,-0.98039,-1.9704,6.8627,-2.8571,2.807,4.8254,3.8647,1.9968,11.465,9.6508,0.0,4.7021
10.363,-1.8501,7.8699,0.0,-2.9557,5.6585,0.0,3.8003,-1.0306,0.0,-2.9557,5.8824,-8.5714,-4.8485,0.06349,-5.7971,-4.7665,6.6345,4.8889,-1.9704,-1.095
5.624,0.0638,2.9919,0.0,-3.9409,3.7073,0.96618,-0.06441,-4.8953,0.0,-3.9409,3.9216,-10.476,-12.504,-2.7937,-8.6957,-7.6651,1.8035,-0.8254,-1.9704,-5.9259
1.8325,0.0638,0.06504,-0.98039,-3.9409,1.7561,0.0,0.90177,-3.9291,-0.98039,-3.9409,0.98039,-10.476,-18.246,-3.746,-8.6957,-6.6989,-0.12882,-2.7302,-0.98522,-10.757
3.7283,4.8485,4.9431,0.98039,-3.9409,4.6829,0.0,4.7665,-3.9291,0.98039,-3.9409,2.9412,-5.7143,-14.418,0.06349,-2.8986,-0.90177,4.7021,-2.7302,0.98522,-9.7907
8.4676,4.8485,10.797,0.98039,-2.9557,9.561,1.9324,5.7327,-1.9968,0.98039,-2.9557,6.8627,0.0,-10.59,3.873,-1.9324,3.9291,0.83736,-2.7302,5.9113,-9.7907
9.4155,2.9346,9.8211,1.9608,0.0,10.537,3.8647,3.8003,0.90177,1.9608,0.0,8.8235,3.8095,-6.7624,4.8254,-0.96618,5.8615,1.8035,-7.4921,4.9261,-11.723
7.5197,5.8054,7.8699,-0.98039,0.0,6.6341,6.7633,-1.9968,8.6312,-0.98039,0.0,7.8431,5.7143,-0.0638,5.7778,4.8309,9.7262,7.6006,-1.7778,3.9409,-8.8245
4.6761,3.8915,2.9919,-1.9608,0.0,4.6829,4.8309,1.868,4.7665,-1.9608,0.0,3.9216,9.5238,5.6778,5.7778,6.7633,9.7262,1.8035,-0.8254,4.9261,-3.9936
1.8325,1.9777,2.0163,-0.98039,1.9704,2.7317,1.9324,-0.06441,-1.9968,-0.98039,1.9704,0.98039,10.476,11.419,5.7778,7.7295,9.7262,-0.12882,-2.7302,3.9409,0.83736
2.7804,2.9346,2.9919,0.98039,5.9113,2.7317,2.8986,-1.9968,-0.06441,0.98039,5.9113,1.9608,11.429,16.204,6.7302,9.6618,10.692,-3.0274,2.0317,1.9704,6.6345
3.7283,0.0638,2.0163,1.9608,7.8818,3.7073,3.8647,-0.06441,3.8003,1.9608,7.8818,3.9216,11.429,16.204,5.7778,7.7295,9.7262,-5.9259,2.0317,1.9704,8.5668
0.88468,0.0638,1.0407,0.0,2.9557,1.7561,0.96618,-3.9291,5.7327,0.0,2.9557,1.9608,11.429,15.247,4.8254,9.6618,8.7601,-3.9936,2.0317,0.98522,10.499
1.8325,3.8915,2.9919,-2.9412,1.9704,-1.1707,2.8986,-6.8277,6.6989,-2.9412,1.9704,0.0,11.429,15.247,6.7302,13.527,11.659,-2.0612,5.8413,0.98522,13.398
2.7804,5.8054,5.9187,-3.9216,1.9704,-2.1463,1.9324,-3.9291,3.8003,-3.9216,1.9704,-1.9608,11.429,14.29,9.5873,14.493,13.591,-3.0274,5.8413,2.9557,14.364
2.7804,4.8485,3.9675,-2.9412,1.9704,-2.1463,3.8647,-1.9968,3.8003,-2.9412,1.9704,-2.9412,10.476,11.419,9.5873,10.628,12.625,0.83736,6.7937,3.9409,13.398
-1.0111,0.0638,-1.8862,-2.9412,0.98522,-5.0732,2.8986,-5.8615,4.7665,-2.9412,0.98522,-4.902,7.619,4.7209,5.7778,2.8986,5.8615,-0.12882,4.8889,3.9409,8.5668
-1.0111,-2.807,-1.8862,-2.9412,0.98522,-4.0976,1.9324,-2.963,1.868,-2.9412,0.98522,-3.9216,1.9048,-1.0207,2.9206,-0.96618,1.9968,1.8035,2.9841,0.98522,3.7359
3.7283,0.0638,4.9431,-1.9608,1.9704,-0.19512,1.9324,2.8341,-0.06441,-1.9608,1.9704,0.0,0.0,-4.8485,3.873,0.0,1.0306,1.8035,4.8889,1.9704,1.8035
7.5197,10.59,13.724,1.9608,6.8966,4.6829,10.628,4.7665,9.5974,1.9608,6.8966,6.8627,-3.8095,-11.547,4.8254,3.8647,1.0306,6.6345,5.8413,1.9704,-1.095
6.5719,15.375,14.699,2.9412,6.8966,5.6585,12.56,2.8341,9.5974,2.9412,6.8966,9.8039,-9.5238,-19.202999,1.9683,2.8986,-1.868,7.6006,6.7937,-0.98522,-5.9259
2.7804,9.6332,7.8699,2.9412,4.9261,4.6829,7.7295,1.868,3.8003,2.9412,4.9261,7.8431,-12.381,-21.115999,-0.88889,-1.9324,-3.8003,1.8035,5.8413,-0.98522,-8.8245
3.7283,5.8054,5.9187,2.9412,2.9557,6.6341,4.8309,2.8341,-0.06441,2.9412,2.9557,7.8431,-6.6667,-13.461,1.9683,-0.96618,-0.90177,4.7021,-0.8254,2.9557,-6.8921
6.5719,1.9777,6.8943,5.8824,3.9409,7.6098,1.9324,4.7665,-0.06441,5.8824,3.9409,6.8627,0.95238,-3.8915,4.8254,0.96618,3.9291,3.7359,-3.6825,7.8818,-6.8921
5.624,-3.764,5.9187,7.8431,3.9409,7.6098,-0.96618,6.6989,-1.0306,7.8431,3.9409,5.8824,5.7143,2.807,4.8254,0.0,4.8953,0.83736,-3.6825,9.8522,-4.9597
2.7804,-4.7209,1.0407,2.9412,0.98522,4.6829,0.0,2.8341,6.6989,2.9412,0.98522,2.9412,5.7143,8.5486,2.9206,-0.96618,3.9291,2.7697,-5.5873,5.9113,-1.095
0.88468,-5.6778,-4.813,-0.98039,-1.9704,1.7561,-0.96618,-4.8953,1.868,-0.98039,-1.9704,0.0,6.6667,11.419,2.9206,-1.9324,2.963,1.8035,-7.4921,3.9409,1.8035
-0.06319,-7.5917,-6.7642,0.0,-0.98522,-1.1707,-5.7971,-8.7601,-4.8953,0.0,-0.98522,-2.9412,8.5714,14.29,2.9206,-1.9324,2.963,-5.9259,-4.6349,3.9409,3.7359
0.88468,-4.7209,-1.8862,-0.98039,4.9261,-1.1707,-1.9324,-9.7262,-1.9968,-0.98039,4.9261,-1.9608,10.476,17.160999,3.873,2.8986,5.8615,-10.757,2.0317,1.9704,7.6006
3.7283,2.9346,3.9675,2.9412,10.837,-0.19512,4.8309,-6.8277,8.6312,2.9412,10.837,0.98039,12.381,20.032,5.7778,9.6618,7.7939,-13.655,7.746,1.9704,13.398
6.5719,11.547,6.8943,10.784,20.690001,4.6829,14.493,0.90177,18.292999,10.784,20.690001,7.8431,9.5238,18.118,5.7778,13.527,8.7601,-10.757,13.46,0.0,15.33
7.5197,9.6332,5.9187,10.784,20.690001,3.7073,13.527,-1.9968,20.225,10.784,20.690001,6.8627,6.6667,14.29,4.8254,9.6618,4.8953,-6.8921,15.365,-2.9557,11.465
8.4676,7.7193,5.9187,13.725,20.690001,5.6585,11.594,1.868,18.292999,13.725,20.690001,5.8824,1.9048,8.5486,2.9206,8.6957,3.9291,3.7359,13.46,-2.9557,8.5668
7.5197,10.59,6.8943,17.646999,20.690001,7.6098,10.628,9.5974,14.428,17.646999,20.690001,5.8824,-3.8095,0.89314,0.06349,7.7295,0.06441,7.6006,4.8889,-5.9113,4.7021
8.4676,12.504,6.8943,21.569,20.690001,11.512,13.527,15.395,9.5974,21.569,20.690001,9.8039,-6.6667,-5.8054,-0.88889,4.8309,-1.868,10.499,6.7937,-5.9113,0.83736
4.6761,6.7624,2.0163,19.608,21.674999,10.537,14.493,15.395,13.462,19.608,21.674999,8.8235,-14.286,-12.504,-3.746,-1.9324,-6.6989,12.432,8.6984,-8.867,-3.9936
2.7804,1.9777,2.0163,19.608,21.674999,11.512,11.594,15.395,11.53,19.608,21.674999,7.8431,-16.190001,-14.418,-4.6984,-3.8647,-7.6651,14.364,4.8889,-8.867,-4.9597
4.6761,1.9777,2.9919,23.528999,18.719,11.512,8.6957,17.327,6.6989,23.528999,18.719,8.8235,-13.333,-13.461,-2.7937,-1.9324,-4.7665,14.364,0.12698,-3.9409,-4.9597
0.88468,-0.89314,0.06504,20.587999,14.778,7.6098,4.8309,13.462,5.7327,20.587999,14.778,5.8824,-14.286,-15.375,-4.6984,-3.8647,-5.7327,11.465,-5.5873,-4.9261,-8.8245
-0.06319,-4.7209,-1.8862,17.646999,12.808,6.6341,3.8647,11.53,4.7665,17.646999,12.808,5.8824,-11.429,-15.375,-3.746,-7.7295,-5.7327,7.6006,-3.6825,-0.98522,-9.7907
-1.9589,-5.6778,-4.813,12.745,9.8522,6.6341,1.9324,9.5974,-0.06441,12.745,9.8522,4.902,-10.476,-16.332001,-4.6984,-10.628,-6.6989,9.533,-5.5873,0.98522,-12.689
-1.0111,-2.807,-3.8374,11.765,11.823,6.6341,2.8986,6.6989,-0.06441,11.765,11.823,6.8627,-8.5714,-14.418,-2.7937,-7.7295,-4.7665,12.432,-3.6825,2.9557,-11.723
2.7804,0.0638,1.0407,13.725,9.8522,7.6098,1.9324,4.7665,1.868,13.725,9.8522,6.8627,-5.7143,-10.59,1.9683,-1.9324,1.0306,9.533,0.12698,5.9113,-9.7907
7.5197,4.8485,5.9187,11.765,8.867,8.5854,3.8647,2.8341,1.868,11.765,8.867,7.8431,-0.95238,-2.9346,8.6349,4.8309,6.8277,10.499,0.12698,10.837,-3.9936
9.4155,4.8485,6.8943,6.8627,6.8966,6.6341,1.9324,-1.0306,3.8003,6.8627,6.8966,6.8627,4.7619,4.7209,12.444,7.7295,10.692,5.6683,0.12698,13.793,2.7697
9.4155,3.8915,6.8943,4.902,5.9113,4.6829,1.9324,-3.9291,5.7327,4.902,5.9113,4.902,11.429,11.419,14.349,9.6618,13.591,2.7697,-0.8254,15.764,6.6345
7.5197,3.8915,4.9431,1.9608,4.9261,1.7561,0.96618,-8.7601,0.90177,1.9608,4.9261,0.98039,15.238,17.160999,14.349,9.6618,13.591,2.7697,-2.7302,14.778,9.533
8.4676,4.8485,5.9187,-3.9216,1.9704,-1.1707,1.9324,-10.692,-2.963,-3.9216,1.9704,0.98039,20.952,24.816999,15.302,10.628,15.523,3.7359,2.0317,16.749001,16.296
9.4155,5.8054,7.8699,-4.902,0.98522,-3.122,1.9324,-13.591,-1.0306,-4.902,0.98522,1.9608,23.809999,25.774,17.205999,10.628,15.523,-0.12882,1.0794,17.733999,17.261999
10.363,4.8485,8.8455,-1.9608,5.9113,-1.1707,4.8309,-10.692,5.7327,-1.9608,5.9113,3.9216,22.857,22.903,17.205999,8.6957,14.557,-3.0274,6.7937,18.719,16.296
7.5197,4.8485,6.8943,-2.9412,4.9261,-1.1707,5.7971,-9.7262,7.6651,-2.9412,4.9261,3.9216,17.143,15.247,12.444,4.8309,9.7262,-3.9936,7.746,11.823,12.432
5.624,4.8485,3.9675,-1.9608,3.9409,0.78049,5.7971,-4.8953,6.6989,-1.9608,3.9409,4.902,10.476,6.6348,5.7778,2.8986,2.963,-2.0612,4.8889,5.9113,5.6683
4.6761,6.7624,5.9187,3.9216,6.8966,5.6585,7.7295,4.7665,9.5974,3.9216,6.8966,7.8431,3.8095,-1.9777,1.9683,1.9324,0.06441,-1.095,3.9365,0.98522,-0.12882
6.5719,14.418,11.772,5.8824,9.8522,7.6098,12.56,3.8003,13.462,5.8824,9.8522,12.745,1.9048,-6.7624,3.873,7.7295,2.963,-2.0612,5.8413,0.0,0.83736
6.5719,15.375,12.748,4.902,10.837,5.6585,13.527,0.90177,13.462,4.902,10.837,11.765,-0.95238,-10.59,3.873,8.6957,3.9291,-0.12882,4.8889,-0.98522,-1.095
2.7804,8.6762,7.8699,1.9608,6.8966,2.7317,9.6618,-1.0306,8.6312,1.9608,6.8966,8.8235,-2.8571,-13.461,2.9206,7.7295,2.963,0.83736,2.9841,-1.9704,-3.9936
-1.9589,4.8485,2.9919,-1.9608,1.9704,-0.19512,6.7633,-4.8953,2.8341,-1.9608,1.9704,6.8627,-0.95238,-8.6762,0.06349,6.7633,1.9968,-1.095,1.0794,-1.9704,-3.0274
-5.7504,0.0638,-2.8618,-2.9412,-2.9557,-3.122,0.0,-2.963,-1.0306,-2.9412,-2.9557,0.0,1.9048,0.89314,-1.8413,4.8309,1.0306,-1.095,-3.6825,-3.9409,-0.12882
-3.8547,-0.89314,-2.8618,-5.8824,-5.9113,-4.0976,-2.8986,-1.0306,-1.9968,-5.8824,-5.9113,-2.9412,6.6667,11.419,0.06349,5.7971,2.963,-2.0612,-3.6825,-1.9704,4.7021
-1.9589,-0.89314,-1.8862,-8.8235,-8.867,-5.0732,-3.8647,-4.8953,-2.963,-8.8235,-8.867,-1.9608,8.5714,18.118,1.0159,4.8309,3.9291,-4.9597,-2.7302,-1.9704,6.6345
-2.9068,-0.89314,-2.8618,-11.765,-9.8522,-5.0732,-3.8647,-7.7939,-7.7939,-11.765,-9.8522,-1.9608,8.5714,20.032,0.06349,2.8986,1.9968,-7.8583,-5.5873,-0.98522,7.6006
-1.0111,-0.89314,-2.8618,-12.745,-10.837,-5.0732,-5.7971,-7.7939,-6.8277,-12.745,-10.837,-1.9608,8.5714,21.945999,0.06349,4.8309,2.963,-4.9597,-2.7302,0.0,11.465
-1.0111,-5.6778,-2.8618,-12.745,-14.778,-5.0732,-8.6957,-7.7939,-9.7262,-12.745,-14.778,-4.902,5.7143,20.032,-0.88889,1.9324,1.0306,-1.095,-0.8254,-3.9409,10.499
-0.06319,-7.5917,-1.8862,-11.765,-13.793,-4.0976,-8.6957,-3.9291,-6.8277,-11.765,-13.793,-4.902,3.8095,17.160999,-1.8413,0.0,0.06441,-3.9936,-1.7778,-4.9261,8.5668
-1.0111,-5.6778,-0.91057,-9.8039,-8.867,-4.0976,-4.8309,-5.8615,-2.963,-9.8039,-8.867,-1.9608,0.0,11.419,-4.6984,-2.8986,-0.90177,-8.8245,-4.6349,-6.8966,5.6683
-5.7504,-2.807,-2.8618,-11.765,-7.8818,-7.0244,-2.8986,-9.7262,-1.9968,-11.765,-7.8818,-2.9412,-4.7619,-0.0638,-9.4603,-7.7295,-6.6989,-12.689,-2.7302,-9.8522,-1.095
-6.6983,-1.8501,-2.8618,-14.706,-8.867,-8.0,-1.9324,-9.7262,-0.06441,-14.706,-8.867,-2.9412,-5.7143,-8.6762,-10.413,-11.594,-10.564,-11.723,1.0794,-6.8966,-6.8921
-6.6983,-4.7209,-3.8374,-9.8039,-8.867,-6.0488,-2.8986,-4.8953,-1.9968,-9.8039,-8.867,-3.9216,-6.6667,-13.461,-10.413,-13.527,-13.462,-9.7907,1.0794,-4.9261,-10.757
-9.5419,-4.7209,-7.7398,-4.902,-5.9113,-6.0488,-1.9324,-3.9291,-0.06441,-4.902,-5.9113,-5.8824,-9.5238,-18.246,-13.27,-11.594,-14.428,-5.9259,1.0794,-8.867,-11.723
-17.125,-7.5917,-14.569,-7.8431,-6.8966,-11.902,-3.8647,-8.7601,-1.0306,-7.8431,-6.8966,-9.8039,-11.429,-17.289,-18.983999,-11.594,-16.361,-8.8245,1.0794,-13.793,-9.7907
-19.968,-8.5486,-17.496,-10.784,-9.8522,-13.854,-7.7295,-5.8615,-4.8953,-10.784,-9.8522,-13.725,-9.5238,-12.504,-20.889,-7.7295,-16.361,-10.757,0.12698,-13.793,-4.9597
-18.073,-5.6778,-15.545,-11.765,-11.823,-15.805,-8.6957,-8.7601,-6.8277,-11.765,-11.823,-15.686,-9.5238,-7.7193,-20.889,-1.9324,-14.428,-8.8245,-1.7778,-14.778,-0.12882
-16.177,-1.8501,-12.618,-13.725,-11.823,-15.805,-8.6957,-10.692,-4.8953,-13.725,-11.823,-15.686,-7.619,-1.0207,-18.032,3.8647,-9.5974,-7.8583,-5.5873,-13.793,4.7021
-14.281,-5.6778,-13.593,-16.667,-12.808,-14.829,-9.6618,-9.7262,-6.8277,-16.667,-12.808,-15.686,-4.7619,4.7209,-15.175,3.8647,-6.6989,-4.9597,1.0794,-9.8522,8.5668
-13.333,-11.419,-16.52,-15.686,-16.749001,-13.854,-15.459,-6.8277,-13.591,-15.686,-16.749001,-17.646999,-1.9048,11.419,-13.27,0.0,-5.7327,-1.095,1.0794,-8.867,9.533
-13.333,-15.247,-16.52,-11.765,-17.733999,-13.854,-17.391001,-6.8277,-16.49,-11.765,-17.733999,-17.646999,-3.8095,8.5486,-13.27,-5.7971,-7.6651,-4.9597,-6.5397,-8.867,3.7359
-10.49,-15.247,-12.618,-9.8039,-15.764,-12.878,-14.493,-6.8277,-9.7262,-9.8039,-15.764,-14.706,-1.9048,8.5486,-7.5556,-6.7633,-4.7665,-7.8583,-7.4921,-2.9557,1.8035
-3.8547,-12.376,-7.7398,-6.8627,-9.8522,-7.0244,-9.6618,-1.9968,-10.692,-6.8627,-9.8522,-9.8039,1.9048,11.419,-1.8413,-4.8309,0.06441,-0.12882,-10.349,1.9704,2.7697
0.88468,-10.463,-5.7886,-1.9608,-5.9113,-0.19512,-6.7633,2.8341,-9.7262,-1.9608,-5.9113,-4.902,0.95238,5.6778,0.06349,-6.7633,-0.90177,6.6345,-10.349,3.9409,-0.12882
5.624,-6.6348,-0.91057,4.902,-1.9704,7.6098,-0.96618,7.6651,-1.9968,4.902,-1.9704,1.9608,-0.95238,-0.0638,0.06349,-7.7295,-2.8341,10.499,-5.5873,5.9113,-2.0612
8.4676,-1.8501,6.8943,8.8235,1.9704,13.463,2.8986,11.53,0.90177,8.8235,1.9704,7.8431,-3.8095,-5.8054,-0.88889,-8.6957,-3.8003,6.6345,-7.4921,3.9409,-4.9597
12.259,5.8054,13.724,8.8235,5.9113,15.415,9.6618,8.6312,3.8003,8.8235,5.9113,13.725,-8.5714,-9.6332,1.0159,-3.8647,-2.8341,2.7697,-2.7302,-0.98522,-4.9597
13.207,5.8054,14.699,5.8824,6.8966,15.415,8.6957,7.6651,6.6989,5.8824,6.8966,13.725,-12.381,-15.375,0.06349,-4.8309,-2.8341,1.8035,2.0317,-4.9261,-7.8583
9.4155,5.8054,12.748,5.8824,4.9261,13.463,6.7633,7.6651,2.8341,5.8824,4.9261,12.745,-13.333,-16.332001,-1.8413,-4.8309,-3.8003,-2.0612,3.9365,-7.8818,-9.7907
7.5197,9.6332,12.748,7.8431,3.9409,13.463,8.6957,8.6312,3.8003,7.8431,3.9409,12.745,-11.429,-16.332001,-1.8413,-0.96618,-1.868,-1.095,4.8889,-9.8522,-9.7907
7.5197,9.6332,10.797,6.8627,1.9704,11.512,6.7633,8.6312,2.8341,6.8627,1.9704,10.784,-8.5714,-12.504,-0.88889,1.9324,0.06441,6.6345,5.8413,-8.867,-8.8245
4.6761,5.8054,6.8943,-0.98039,-4.9261,5.6585,1.9324,6.6989,-0.06441,-0.98039,-4.9261,4.902,-5.7143,-8.6762,-0.88889,2.8986,1.0306,5.6683,4.8889,-7.8818,-7.8583
-0.06319,1.9777,1.0407,-9.8039,-10.837,-1.1707,-3.8647,0.90177,-3.9291,-9.8039,-10.837,-1.9608,-2.8571,-1.9777,-1.8413,3.8647,0.06441,2.7697,1.0794,-5.9113,-3.9936
-7.6461,-1.8501,-6.7642,-7.8431,-7.8818,-9.9512,-6.7633,-4.8953,-6.8277,-7.8431,-7.8818,-8.8235,0.0,1.8501,-3.746,1.9324,-1.868,0.83736,-3.6825,-2.9557,-0.12882
-13.333,-5.6778,-11.642,-10.784,-6.8966,-16.780001,-6.7633,-8.7601,-3.9291,-10.784,-6.8966,-13.725,0.0,1.8501,-4.6984,0.96618,-3.8003,-0.12882,-6.5397,-1.9704,0.83736
-14.281,-6.6348,-10.667,-15.686,-8.867,-18.732,-6.7633,-11.659,-2.963,-15.686,-8.867,-14.706,0.95238,1.8501,-2.7937,0.0,-1.868,-1.095,-3.6825,0.98522,2.7697
-10.49,-6.6348,-8.7154,-15.686,-9.8522,-14.829,-7.7295,-8.7601,-1.0306,-15.686,-9.8522,-13.725,3.8095,4.7209,1.0159,-0.96618,-0.90177,-1.095,-0.8254,5.9113,4.7021
-4.8025,-2.807,-4.813,-10.784,-6.8966,-8.0,-2.8986,-5.8615,2.8341,-10.784,-6.8966,-7.8431,8.5714,5.6778,4.8254,-0.96618,1.0306,5.6683,-2.7302,10.837,4.7021
-2.9068,-4.7209,-3.8374,-7.8431,-6.8966,-5.0732,-5.7971,-5.8615,-1.9968,-7.8431,-6.8966,-6.8627,10.476,7.5917,5.7778,-2.8986,1.0306,6.6345,-3.6825,11.823,4.7021
0.88468,-4.7209,-0.91057,-8.8235,-7.8818,-4.0976,-5.7971,-7.7939,-4.8953,-8.8235,-7.8818,-4.902,13.333,11.419,7.6825,-1.9324,2.963,5.6683,-0.8254,14.778,6.6345
3.7283,-1.8501,2.9919,-9.8039,-5.9113,-3.122,-3.8647,-8.7601,-1.0306,-9.8039,-5.9113,-2.9412,10.476,9.5056,7.6825,-0.96618,2.963,2.7697,-2.7302,14.778,4.7021
5.624,0.0638,5.9187,-4.902,-1.9704,1.7561,0.96618,-2.963,1.868,-4.902,-1.9704,0.98039,8.5714,6.6348,7.6825,-1.9324,2.963,2.7697,0.12698,12.808,1.8035
5.624,1.9777,5.9187,1.9608,1.9704,6.6341,4.8309,1.868,3.8003,1.9608,1.9704,5.8824,5.7143,3.764,5.7778,-1.9324,1.9968,-0.12882,0.12698,9.8522,-0.12882
5.624,4.8485,5.9187,1.9608,3.9409,7.6098,5.7971,0.90177,6.6989,1.9608,3.9409,7.8431,4.7619,0.89314,4.8254,-0.96618,1.9968,-3.9936,5.8413,7.8818,-2.0612
5.624,7.7193,8.8455,1.9608,5.9113,5.6585,5.7971,-1.9968,5.7327,1.9608,5.9113,6.8627,0.95238,-4.8485,4.8254,2.8986,3.9291,-0.12882,9.6508,4.9261,-4.9597
8.4676,12.504,13.724,4.902,5.9113,6.6341,7.7295,-1.0306,7.6651,4.902,5.9113,9.8039,0.95238,-6.7624,8.6349,8.6957,8.7601,3.7359,11.556,5.9113,-4.9597
9.4155,19.202999,15.675,3.9216,8.867,7.6098,15.459,1.868,17.327,3.9216,8.867,12.745,3.8095,-5.8054,11.492,13.527,12.625,6.6345,15.365,8.867,-3.0274
6.5719,15.375,9.8211,-0.98039,5.9113,3.7073,9.6618,1.868,7.6651,-0.98039,5.9113,7.8431,3.8095,-5.8054,10.54,11.594,11.659,4.7021,10.603,6.8966,-3.0274
0.88468,3.8915,1.0407,-6.8627,-0.98522,-3.122,0.0,-1.9968,-2.963,-6.8627,-0.98522,-1.9608,1.9048,-6.7624,6.7302,4.8309,5.8615,0.83736,3.9365,3.9409,-4.9597
-5.7504,-4.7209,-7.7398,-7.8431,-4.9261,-9.9512,-3.8647,-6.8277,-1.9968,-7.8431,-4.9261,-8.8235,-1.9048,-7.7193,0.06349,-2.8986,-0.90177,-2.0612,-0.8254,0.0,-5.9259
-9.5419,-10.463,-10.667,-9.8039,-5.9113,-10.927,-5.7971,-6.8277,-1.9968,-9.8039,-5.9113,-9.8039,-1.9048,-2.9346,-4.6984,-6.7633,-6.6989,-3.9936,-9.3968,-1.9704,-3.0274
-11.438,-13.333,-12.618,-8.8235,-3.9409,-8.9756,-6.7633,-4.8953,-1.9968,-8.8235,-3.9409,-8.8235,-0.95238,2.807,-8.5079,-10.628,-10.564,-1.095,-4.6349,-3.9409,-1.095
-14.281,-17.160999,-16.52,-10.784,-4.9261,-10.927,-8.6957,-7.7939,-4.8953,-10.784,-4.9261,-9.8039,-5.7143,0.89314,-15.175,-16.424999,-17.327,-2.0612,-3.6825,-8.867,-1.095
-15.229,-17.160999,-19.447001,-14.706,-12.808,-12.878,-10.628,-10.692,-5.8615,-14.706,-12.808,-12.745,-7.619,0.89314,-17.079,-16.424999,-20.225,-5.9259,-7.4921,-10.837,1.8035
-15.229,-14.29,-17.496,-13.725,-10.837,-11.902,-8.6957,-10.692,-6.8277,-13.725,-10.837,-9.8039,-7.619,0.89314,-17.079,-13.527,-19.259001,-5.9259,-8.4444,-9.8522,3.7359
-11.438,-9.5056,-11.642,-3.9216,-0.98522,-7.0244,-3.8647,-6.8277,-1.9968,-3.9216,-0.98522,-4.902,-5.7143,2.807,-13.27,-10.628,-15.395,-4.9597,-2.7302,-7.8818,3.7359
-5.7504,-2.807,-4.813,-0.98039,2.9557,-2.1463,3.8647,-3.9291,7.6651,-0.98039,2.9557,0.98039,0.0,7.5917,-5.6508,-5.7971,-7.6651,-0.12882,3.9365,-1.9704,5.6683
-2.9068,-4.7209,-3.8374,-4.902,-1.9704,-2.1463,0.96618,-2.963,4.7665,-4.902,-1.9704,0.0,1.9048,6.6348,0.06349,-4.8309,-3.8003,-1.095,0.12698,1.9704,2.7697
-0.06319,-1.8501,-3.8374,-3.9216,0.0,-0.19512,1.9324,-1.9968,5.7327,-3.9216,0.0,0.98039,3.8095,6.6348,2.9206,-2.8986,0.06441,2.7697,-0.8254,4.9261,0.83736
5.624,1.9777,2.0163,2.9412,2.9557,5.6585,4.8309,2.8341,6.6989,2.9412,2.9557,6.8627,5.7143,3.764,6.7302,0.0,3.9291,6.6345,3.9365,6.8966,-0.12882
10.363,5.8054,6.8943,7.8431,4.9261,11.512,7.7295,7.6651,6.6989,7.8431,4.9261,11.765,5.7143,0.89314,9.5873,1.9324,6.8277,5.6683,4.8889,8.867,-2.0612
12.259,10.59,8.8455,5.8824,6.8966,12.488,9.6618,5.7327,8.6312,5.8824,6.8966,12.745,5.7143,-3.8915,11.492,5.7971,9.7262,6.6345,1.0794,11.823,-3.9936
10.363,12.504,8.8455,2.9412,6.8966,9.561,9.6618,3.8003,5.7327,2.9412,6.8966,10.784,0.95238,-6.7624,8.6349,6.7633,8.7601,5.6683,2.0317,7.8818,-3.9936
2.7804,9.6332,3.9675,1.9608,5.9113,2.7317,9.6618,-1.0306,9.5974,1.9608,5.9113,5.8824,-5.7143,-11.547,1.9683,1.9324,3.9291,0.83736,6.7937,0.0,-5.9259
-5.7504,-2.807,-4.813,1.9608,3.9409,-5.0732,2.8986,-3.9291,9.5974,1.9608,3.9409,-2.9412,-10.476,-18.246,-4.6984,-5.7971,-2.8341,-7.8583,7.746,-3.9409,-12.689
-7.6461,-7.5917,-6.7642,0.0,3.9409,-5.0732,0.96618,-1.9968,6.6989,0.0,3.9409,-3.9216,-16.190001,-23.030001,-8.5079,-8.6957,-6.6989,-4.9597,2.9841,-8.867,-14.622
-7.6461,-5.6778,-6.7642,-1.9608,1.9704,-5.0732,-0.96618,-1.0306,6.6989,-1.9608,1.9704,-4.902,-17.143,-21.115999,-9.4603,-7.7295,-8.6312,-3.0274,-1.7778,-10.837,-12.689
-7.6461,-6.6348,-6.7642,-4.902,0.98522,-7.0244,-2.8986,-2.963,1.868,-4.902,0.98522,-4.902,-17.143,-17.289,-10.413,-5.7971,-8.6312,-3.0274,-3.6825,-10.837,-8.8245
-7.6461,-3.764,-5.7886,-4.902,0.98522,-6.0488,-0.96618,-3.9291,4.7665,-4.902,0.98522,-3.9216,-14.286,-11.547,-10.413,-3.8647,-8.6312,-4.9597,2.0317,-10.837,-4.9597
-7.6461,-3.764,-5.7886,-3.9216,0.98522,-4.0976,1.9324,-1.9968,3.8003,-3.9216,0.98522,-0.98039,-11.429,-7.7193,-10.413,-4.8309,-9.5974,-4.9597,3.9365,-10.837,-3.0274
-7.6461,-1.8501,-6.7642,-4.902,-1.9704,-4.0976,0.96618,-0.06441,3.8003,-4.902,-1.9704,-1.9608,-8.5714,-1.9777,-8.5079,-4.8309,-8.6312,-3.0274,2.0317,-7.8818,-0.12882
-6.6983,-3.764,-6.7642,-5.8824,-4.9261,-6.0488,-1.9324,-1.9968,-1.0306,-5.8824,-4.9261,-3.9216,-4.7619,-0.0638,-6.6032,-4.8309,-6.6989,-3.0274,1.0794,-4.9261,0.83736
-1.9589,-2.807,-2.8618,-2.9412,-3.9409,-2.1463,-2.8986,-0.06441,-5.8615,-2.9412,-3.9409,-1.9608,-1.9048,2.807,-1.8413,-2.8986,-2.8341,-2.0612,-0.8254,-1.9704,0.83736
0.88468,0.0638,2.0163,0.0,0.0,2.7317,1.9324,-0.06441,-0.06441,0.0,0.0,2.9412,-0.95238,3.764,0.06349,0.0,0.06441,-1.095,-0.8254,-1.9704,2.7697
5.624,2.9346,6.8943,0.0,2.9557,5.6585,4.8309,-1.0306,3.8003,0.0,2.9557,7.8431,0.95238,3.764,3.873,3.8647,3.9291,0.83736,-1.7778,0.98522,3.7359
12.259,7.7193,11.772,3.9216,5.9113,11.512,7.7295,4.7665,2.8341,3.9216,5.9113,12.745,4.7619,4.7209,9.5873,7.7295,8.7601,4.7021,0.12698,5.9113,4.7021
12.259,8.6762,10.797,4.902,6.8966,12.488,8.6957,7.6651,5.7327,4.902,6.8966,11.765,4.7619,2.807,10.54,8.6957,9.7262,4.7021,-1.7778,7.8818,0.83736
7.5197,4.8485,4.9431,2.9412,4.9261,7.6098,5.7971,1.868,4.7665,2.9412,4.9261,6.8627,0.0,-1.0207,5.7778,5.7971,5.8615,1.8035,-2.7302,2.9557,-3.0274
7.5197,1.9777,4.9431,3.9216,2.9557,5.6585,2.8986,-0.06441,2.8341,3.9216,2.9557,3.9216,0.0,-1.9777,6.7302,4.8309,5.8615,1.8035,2.0317,3.9409,-2.0612
7.5197,3.8915,6.8943,1.9608,1.9704,2.7317,2.8986,-2.963,6.6989,1.9608,1.9704,1.9608,3.8095,-0.0638,9.5873,9.6618,9.7262,-1.095,4.8889,4.9261,1.8035
4.6761,4.8485,4.9431,0.0,0.98522,-0.19512,0.96618,-3.9291,2.8341,0.0,0.98522,-0.98039,1.9048,-3.8915,10.54,10.628,10.692,-5.9259,3.9365,5.9113,0.83736
-1.0111,2.9346,1.0407,-5.8824,-4.9261,-6.0488,-4.8309,-6.8277,-3.9291,-5.8824,-4.9261,-7.8431,0.0,-4.8485,6.7302,8.6957,8.7601,-4.9597,2.0317,1.9704,-0.12882
-3.8547,-0.89314,-1.8862,-9.8039,-4.9261,-8.9756,-6.7633,-7.7939,-1.9968,-9.8039,-4.9261,-11.765,1.9048,-0.0638,4.8254,5.7971,7.7939,-2.0612,1.0794,0.98522,1.8035
-2.9068,-1.8501,-1.8862,-9.8039,-4.9261,-8.9756,-6.7633,-6.8277,1.868,-9.8039,-4.9261,-10.784,6.6667,6.6348,4.8254,5.7971,7.7939,-0.12882,2.9841,2.9557,4.7021
-3.8547,-0.89314,-2.8618,-9.8039,-6.8966,-10.927,-5.7971,-8.7601,0.90177,-9.8039,-6.8966,-10.784,7.619,8.5486,3.873,4.8309,4.8953,-3.0274,3.9365,1.9704,5.6683
-3.8547,-0.89314,-3.8374,-8.8235,-6.8966,-9.9512,-6.7633,-5.8615,-2.963,-8.8235,-6.8966,-10.784,5.7143,9.5056,2.9206,2.8986,2.963,-3.0274,2.0317,0.98522,6.6345
-2.9068,0.0638,-2.8618,-9.8039,-6.8966,-9.9512,-5.7971,-4.8953,-3.9291,-9.8039,-6.8966,-9.8039,8.5714,14.29,3.873,3.8647,2.963,-2.0612,2.9841,2.9557,12.432
-2.9068,-0.89314,-0.91057,-8.8235,-6.8966,-9.9512,-4.8309,-3.9291,-1.0306,-8.8235,-6.8966,-8.8235,8.5714,15.247,4.8254,4.8309,2.963,-5.9259,5.8413,3.9409,13.398
-1.9589,2.9346,1.0407,-4.902,-4.9261,-8.0,-2.8986,-1.9968,-4.8953,-4.902,-4.9261,-4.902,5.7143,11.419,2.9206,5.7971,2.963,1.8035,2.0317,1.9704,12.432
-1.9589,5.8054,2.0163,-6.8627,-3.9409,-5.0732,-0.96618,-1.9968,-4.8953,-6.8627,-3.9409,-0.98039,1.9048,7.5917,-0.88889,6.7633,1.0306,1.8035,3.9365,-0.98522,10.499
1.8325,4.8485,6.8943,-4.902,-2.9557,-0.19512,0.96618,1.868,-1.0306,-4.902,-2.9557,2.9412,0.95238,7.5917,-0.88889,6.7633,1.9968,-1.095,3.9365,-0.98522,10.499
2.7804,3.8915,9.8211,-0.98039,-0.98522,1.7561,1.9324,2.8341,1.868,-0.98039,-0.98522,4.902,-1.9048,3.764,-1.8413,6.7633,1.0306,-1.095,2.9841,-1.9704,9.533
1.8325,3.8915,8.8455,0.0,0.98522,1.7561,2.8986,2.8341,-0.06441,0.0,0.98522,4.902,-3.8095,-1.9777,-4.6984,4.8309,0.06441,-3.0274,1.0794,-2.9557,5.6683
-1.0111,1.9777,3.9675,-1.9608,-1.9704,-0.19512,0.96618,1.868,-1.9968,-1.9608,-1.9704,0.98039,-5.7143,-6.7624,-6.6032,3.8647,-1.868,-3.9936,-2.7302,-3.9409,2.7697
-0.06319,0.0638,2.0163,-2.9412,-3.9409,-0.19512,-0.96618,1.868,-1.9968,-2.9412,-3.9409,0.0,-3.8095,-7.7193,-4.6984,1.9324,-1.868,-2.0612,-5.5873,-0.98522,1.8035
3.7283,0.0638,4.9431,-1.9608,-1.9704,1.7561,0.96618,0.90177,-0.06441,-1.9608,-1.9704,1.9608,-4.7619,-8.6762,-1.8413,0.0,-0.90177,-0.12882,-2.7302,0.0,1.8035
2.7804,0.0638,4.9431,-0.98039,0.0,1.7561,1.9324,0.90177,-0.06441,-0.98039,0.0,2.9412,-9.5238,-12.504,-3.746,-3.8647,-3.8003,-2.0612,-1.7778,-3.9409,-2.0612
0.88468,-0.89314,1.0407,0.98039,-0.98522,0.78049,0.0,1.868,-1.9968,0.98039,-0.98522,0.98039,-9.5238,-10.59,-5.6508,-5.7971,-6.6989,-1.095,-3.6825,-3.9409,-3.0274
-3.8547,-6.6348,-5.7886,0.0,-5.9113,-3.122,-7.7295,-0.06441,-8.7601,0.0,-5.9113,-3.9216,-5.7143,-2.9346,-5.6508,-5.7971,-6.6989,-3.0274,-7.4921,-1.9704,-2.0612
-5.7504,-15.247,-9.6911,-1.9608,-9.8522,-5.0732,-13.527,-1.9968,-12.625,-1.9608,-9.8522,-7.8431,-0.95238,3.764,-3.746,-6.7633,-4.7665,-2.0612,-8.4444,0.0,-0.12882
-3.8547,-16.204,-9.6911,-1.9608,-7.8818,-3.122,-14.493,-1.0306,-12.625,-1.9608,-7.8818,-7.8431,2.8571,7.5917,-1.8413,-6.7633,-3.8003,0.83736,-9.3968,2.9557,0.83736
-1.0111,-9.5056,-3.8374,-2.9412,-2.9557,0.78049,-7.7295,-0.06441,-8.7601,-2.9412,-2.9557,-2.9412,3.8095,7.5917,1.0159,-3.8647,-0.90177,-2.0612,-5.5873,4.9261,2.7697
1.8325,-6.6348,-1.8862,-4.902,-5.9113,2.7317,-7.7295,1.868,-8.7601,-4.902,-5.9113,-0.98039,1.9048,3.764,1.0159,-1.9324,0.06441,-0.12882,-6.5397,2.9557,0.83736
4.6761,0.0638,2.0163,-4.902,-8.867,2.7317,-2.8986,-0.06441,-6.8277,-4.902,-8.867,1.9608,4.7619,5.6778,4.8254,2.8986,4.8953,-1.095,-3.6825,4.9261,3.7359
2.7804,5.8054,3.9675,0.98039,-1.9704,3.7073,2.8986,0.90177,3.8003,0.98039,-1.9704,3.9216,2.8571,4.7209,3.873,4.8309,4.8953,-2.0612,2.0317,1.9704,5.6683
2.7804,4.8485,3.9675,6.8627,6.8966,5.6585,6.7633,2.8341,10.564,6.8627,6.8966,5.8824,-0.95238,2.807,1.9683,4.8309,3.9291,0.83736,7.746,-1.9704,4.7021
3.7283,1.9777,4.9431,2.9412,5.9113,4.6829,5.7971,-0.06441,11.53,2.9412,5.9113,3.9216,0.95238,0.89314,4.8254,2.8986,4.8953,2.7697,8.6984,1.9704,1.8035
3.7283,-0.89314,2.9919,0.98039,3.9409,2.7317,3.8647,-0.06441,9.5974,0.98039,3.9409,2.9412,0.0,-0.0638,3.873,0.0,2.963,0.83736,7.746,0.98522,1.8035
0.88468,-1.8501,-0.91057,0.98039,3.9409,1.7561,2.8986,1.868,7.6651,0.98039,3.9409,1.9608,-2.8571,-4.8485,0.06349,-5.7971,-1.868,-3.0274,5.8413,-1.9704,-2.0612
-1.0111,1.0207,-1.8862,2.9412,4.9261,1.7561,4.8309,-0.06441,8.6312,2.9412,4.9261,3.9216,-3.8095,-8.6762,-2.7937,-8.6957,-6.6989,-3.9936,6.7937,-3.9409,-4.9597
-2.9068,0.0638,-3.8374,2.9412,5.9113,2.7317,6.7633,0.90177,9.5974,2.9412,5.9113,3.9216,-6.6667,-12.504,-5.6508,-12.56,-10.564,-4.9597,4.8889,-6.8966,-7.8583
-4.8025,-1.8501,-6.7642,1.9608,3.9409,1.7561,3.8647,1.868,6.6989,1.9608,3.9409,1.9608,-4.7619,-12.504,-5.6508,-14.493,-11.53,-3.0274,0.12698,-5.9113,-7.8583
-7.6461,-5.6778,-9.6911,2.9412,2.9557,-1.1707,0.96618,0.90177,4.7665,2.9412,2.9557,-0.98039,-2.8571,-12.504,-7.5556,-15.459,-11.53,-0.12882,-0.8254,-4.9261,-9.7907
-9.5419,-7.5917,-11.642,1.9608,0.0,-2.1463,-2.8986,0.90177,3.8003,1.9608,0.0,-3.9216,-4.7619,-12.504,-11.365,-16.424999,-13.462,-1.095,-1.7778,-6.8966,-11.723
-10.49,-6.6348,-11.642,2.9412,0.0,-4.0976,-2.8986,-0.06441,-0.06441,2.9412,0.0,-3.9216,-7.619,-11.547,-15.175,-15.459,-16.361,-4.9597,1.0794,-9.8522,-11.723
-14.281,-10.463,-14.569,-2.9412,-1.9704,-8.9756,-4.8309,-3.9291,-1.9968,-2.9412,-1.9704,-7.8431,-8.5714,-8.6762,-17.079,-13.527,-16.361,-6.8921,0.12698,-11.823,-10.757
-14.281,-9.5056,-16.52,-3.9216,0.0,-10.927,-4.8309,-3.9291,-1.0306,-3.9216,0.0,-8.8235,-5.7143,-1.0207,-16.127001,-6.7633,-12.496,-5.9259,-1.7778,-9.8522,-3.0274
-13.333,-7.5917,-15.545,-1.9608,-2.9557,-10.927,-7.7295,-3.9291,-2.963,-1.9608,-2.9557,-10.784,-4.7619,3.764,-13.27,1.9324,-6.6989,-3.9936,-1.7778,-9.8522,1.8035
-9.5419,-1.8501,-9.6911,0.0,-2.9557,-8.0,-5.7971,0.90177,-3.9291,0.0,-2.9557,-7.8431,0.0,9.5056,-8.5079,7.7295,-0.90177,-1.095,-0.8254,-6.8966,5.6683
-7.6461,2.9346,-4.813,-0.98039,-2.9557,-6.0488,-3.8647,-1.0306,-1.0306,-0.98039,-2.9557,-5.8824,2.8571,12.376,-4.6984,10.628,2.963,-4.9597,-3.6825,-3.9409,7.6006
-4.8025,2.9346,-2.8618,0.0,0.0,-3.122,0.96618,-2.963,3.8003,0.0,0.0,-1.9608,5.7143,13.333,-1.8413,8.6957,3.9291,-3.0274,-5.5873,-1.9704,5.6683
-1.0111,1.0207,-1.8862,-1.9608,1.9704,-2.1463,0.0,-1.0306,0.90177,-1.9608,1.9704,-0.98039,8.5714,12.376,1.0159,3.8647,5.8615,0.83736,-2.7302,0.98522,2.7697
3.7283,-2.807,0.06504,-2.9412,1.9704,-0.19512,-0.96618,-1.9968,-1.0306,-2.9412,1.9704,-0.98039,8.5714,11.419,4.8254,0.0,6.8277,-1.095,4.8889,2.9557,0.83736
8.4676,-5.6778,2.0163,4.902,4.9261,3.7073,0.0,2.8341,0.90177,4.902,4.9261,0.98039,8.5714,6.6348,4.8254,-3.8647,2.963,5.6683,6.7937,4.9261,-1.095
10.363,0.0638,5.9187,16.667,15.764,11.512,8.6957,10.564,8.6312,16.667,15.764,9.8039,6.6667,4.7209,3.873,-5.7971,0.06441,6.6345,4.8889,3.9409,-2.0612
10.363,2.9346,8.8455,17.646999,21.674999,15.415,16.424999,11.53,14.428,17.646999,21.674999,14.706,-1.9048,-3.8915,1.0159,-10.628,-4.7665,5.6683,3.9365,-0.98522,-7.8583
14.155,10.59,14.699,17.646999,26.601,19.316999,23.188,12.496,22.158001,17.646999,26.601,21.569,-4.7619,-10.59,3.873,-8.6957,-3.8003,6.6345,3.9365,0.98522,-11.723
16.997999,16.332001,19.577,22.549,28.570999,21.268,26.087,10.564,21.191999,22.549,28.570999,24.51,-6.6667,-15.375,6.7302,-5.7971,-0.90177,10.499,7.746,2.9557,-12.689
16.051001,17.289,21.528,21.569,21.674999,18.341,20.290001,9.5974,12.496,21.569,21.674999,22.549,-8.5714,-18.246,6.7302,-1.9324,0.06441,13.398,5.8413,0.98522,-14.622
11.311,14.418,17.625999,18.627001,18.719,13.463,16.424999,9.5974,9.5974,18.627001,18.719,18.627001,-6.6667,-14.418,5.7778,2.8986,2.963,8.5668,4.8889,1.9704,-11.723
3.7283,10.59,9.8211,13.725,14.778,6.6341,10.628,4.7665,10.564,13.725,14.778,10.784,-0.95238,-9.6332,5.7778,5.7971,5.8615,4.7021,6.7937,1.9704,-6.8921
-1.9589,4.8485,1.0407,8.8235,11.823,-1.1707,3.8647,-0.06441,4.7665,8.8235,11.823,1.9608,2.8571,-7.7193,6.7302,5.7971,5.8615,3.7359,3.9365,5.9113,-4.9597
-4.8025,1.0207,-3.8374,5.8824,7.8818,-5.0732,-0.96618,-3.9291,2.8341,5.8824,7.8818,-3.9216,2.8571,-6.7624,3.873,5.7971,3.9291,-2.0612,2.0317,5.9113,-4.9597
-4.8025,2.9346,-2.8618,6.8627,10.837,-5.0732,1.9324,-5.8615,5.7327,6.8627,10.837,-2.9412,1.9048,-4.8485,1.0159,7.7295,2.963,1.8035,4.8889,2.9557,0.83736
-5.7504,3.8915,-2.8618,9.8039,11.823,-4.0976,0.96618,-4.8953,3.8003,9.8039,11.823,-1.9608,3.8095,-1.0207,-1.8413,7.7295,1.9968,1.8035,2.9841,1.9704,4.7021
-3.8547,0.0638,-4.813,13.725,10.837,-0.19512,-0.96618,1.868,-1.0306,13.725,10.837,-0.98039,6.6667,2.807,1.0159,4.8309,1.9968,-1.095,-1.7778,4.9261,6.6345
-4.8025,-7.5917,-7.7398,14.706,10.837,1.7561,-3.8647,0.90177,-1.9968,14.706,10.837,-1.9608,7.619,5.6778,1.0159,-1.9324,1.0306,0.83736,-8.4444,4.9261,5.6683
-4.8025,-11.419,-7.7398,17.646999,15.764,1.7561,-1.9324,-1.9968,0.90177,17.646999,15.764,-1.9608,10.476,11.419,0.06349,-6.7633,1.0306,-3.0274,-6.5397,3.9409,6.6345
-2.9068,-9.5056,-2.8618,17.646999,23.645,3.7073,3.8647,0.90177,6.6989,17.646999,23.645,0.98039,12.381,15.247,-2.7937,-8.6957,1.0306,-2.0612,-1.7778,1.9704,7.6006
-1.9589,-11.419,-0.91057,19.608,25.615999,4.6829,6.7633,0.90177,10.564,19.608,25.615999,3.9216,8.5714,15.247,-6.6032,-9.6618,0.06441,-6.8921,-2.7302,-1.9704,6.6345
0.88468,-9.5056,1.0407,22.549,25.615999,8.5854,7.7295,3.8003,10.564,22.549,25.615999,6.8627,7.619,13.333,-5.6508,-8.6957,1.0306,-4.9597,-6.5397,-2.9557,3.7359
7.5197,-3.764,4.9431,23.528999,28.570999,13.463,9.6618,9.5974,11.53,23.528999,28.570999,10.784,5.7143,8.5486,-0.88889,-5.7971,3.9291,3.7359,-5.5873,-0.98522,0.83736
10.363,3.8915,8.8455,25.49,31.527,14.439,13.527,8.6312,12.496,25.49,31.527,11.765,1.9048,-0.0638,1.9683,-2.8986,3.9291,5.6683,-3.6825,0.0,-3.0274
11.311,15.375,12.748,24.51,30.542,12.488,16.424999,5.7327,16.361,24.51,30.542,12.745,0.0,-5.8054,4.8254,4.8309,5.8615,11.465,4.8889,0.98522,-3.0274
10.363,17.289,13.724,20.587999,28.570999,9.561,16.424999,4.7665,16.361,20.587999,28.570999,11.765,0.95238,-3.8915,5.7778,11.594,8.7601,9.533,13.46,0.98522,2.7697
6.5719,15.375,10.797,17.646999,26.601,5.6585,13.527,4.7665,16.361,17.646999,26.601,7.8431,0.0,-3.8915,3.873,13.527,7.7939,5.6683,12.508,-1.9704,4.7021
9.4155,20.159,12.748,20.587999,28.570999,6.6341,20.290001,6.6989,22.158001,20.587999,28.570999,9.8039,0.0,-1.9777,5.7778,16.424999,8.7601,5.6683,17.27,-0.98522,6.6345
10.363,21.115999,11.772,16.667,23.645,4.6829,20.290001,1.868,21.191999,16.667,23.645,8.8235,1.9048,3.764,6.7302,18.357,8.7601,3.7359,21.079,0.0,8.5668
4.6761,17.289,4.9431,5.8824,16.749001,-2.1463,14.493,-6.8277,12.496,5.8824,16.749001,2.9412,1.9048,4.7209,4.8254,13.527,4.8953,3.7359,14.413,0.0,5.6683
-0.06319,9.6332,0.06504,3.9216,14.778,-4.0976,8.6957,-5.8615,9.5974,3.9216,14.778,0.0,2.8571,5.6778,1.9683,6.7633,0.06441,-2.0612,6.7937,0.0,1.8035
-4.8025,1.0207,-4.813,5.8824,10.837,-6.0488,4.8309,-5.8615,8.6312,5.8824,10.837,-3.9216,0.0,7.5917,-3.746,0.96618,-4.7665,-6.8921,2.0317,-4.9261,1.8035
-6.6983,-3.764,-7.7398,0.98039,3.9409,-8.9756,-2.8986,-8.7601,-1.9968,0.98039,3.9409,-8.8235,0.0,9.5056,-4.6984,-3.8647,-7.6651,-6.8921,-0.8254,-4.9261,0.83736
-4.8025,-9.5056,-7.7398,-1.9608,-0.98522,-8.9756,-7.7295,-5.8615,-6.8277,-1.9608,-0.98522,-9.8039,3.8095,11.419,-1.8413,-2.8986,-4.7665,-3.9936,-6.5397,1.9704,0.83736
-5.7504,-14.29,-9.6911,0.0,-1.9704,-8.9756,-12.56,-5.8615,-10.692,0.0,-1.9704,-11.765,3.8095,10.463,-1.8413,-3.8647,-4.7665,-3.9936,-13.206,4.9261,0.83736
-2.9068,-11.419,-4.813,2.9412,-0.98522,-4.0976,-10.628,-1.0306,-7.7939,2.9412,-0.98522,-5.8824,6.6667,13.333,1.0159,-2.8986,-1.868,-3.0274,-15.111,6.8966,1.8035
1.8325,-4.7209,2.9919,5.8824,1.9704,1.7561,-3.8647,0.90177,-1.9968,5.8824,1.9704,1.9608,7.619,12.376,3.873,-1.9324,1.0306,-1.095,-8.4444,6.8966,0.83736
4.6761,-1.8501,4.9431,5.8824,4.9261,4.6829,0.0,0.90177,3.8003,5.8824,4.9261,4.902,4.7619,6.6348,4.8254,-4.8309,1.0306,2.7697,-3.6825,3.9409,-4.9597
7.5197,-0.89314,5.9187,3.9216,2.9557,6.6341,-1.9324,3.8003,-0.06441,3.9216,2.9557,5.8824,6.6667,4.7209,7.6825,-2.8986,1.9968,4.7021,-3.6825,4.9261,-3.9936
5.624,-3.764,3.9675,4.902,0.98522,4.6829,-3.8647,2.8341,-5.8615,4.902,0.98522,2.9412,7.619,2.807,7.6825,-3.8647,2.963,3.7359,-5.5873,4.9261,-3.9936
0.88468,-10.463,0.06504,5.8824,2.9557,0.78049,-4.8309,-0.06441,-1.9968,5.8824,2.9557,-0.98039,3.8095,-4.8485,4.8254,-6.7633,1.0306,-0.12882,-4.6349,3.9409,-8.8245
-1.9589,-13.333,-2.8618,-0.98039,-0.98522,-1.1707,-6.7633,0.90177,-1.0306,-0.98039,-0.98522,-3.9216,-0.95238,-9.6332,1.9683,-6.7633,-0.90177,0.83736,-2.7302,0.98522,-8.8245
-0.06319,-9.5056,-1.8862,-0.98039,-1.9704,-0.19512,-5.7971,3.8003,-1.9968,-0.98039,-1.9704,-3.9216,-1.9048,-10.59,1.0159,-2.8986,0.06441,7.6006,0.12698,0.98522,-5.9259
0.88468,-0.89314,1.0407,2.9412,-0.98522,2.7317,-1.9324,4.7665,1.868,2.9412,-0.98522,0.0,-3.8095,-10.59,1.0159,1.9324,1.0306,10.499,-0.8254,0.98522,-3.9936
6.5719,6.7624,6.8943,5.8824,1.9704,8.5854,2.8986,9.5974,-0.06441,5.8824,1.9704,6.8627,-1.9048,-8.6762,2.9206,7.7295,4.8953,14.364,2.0317,3.9409,0.83736
10.363,11.547,11.772,8.8235,3.9409,12.488,5.7971,9.5974,3.8003,8.8235,3.9409,10.784,-0.95238,-5.8054,4.8254,12.56,7.7939,9.533,11.556,2.9557,3.7359
12.259,13.461,13.724,4.902,4.9261,9.561,8.6957,1.868,4.7665,4.902,4.9261,10.784,1.9048,-1.0207,6.7302,16.424999,11.659,3.7359,17.27,3.9409,6.6345
9.4155,14.418,10.797,-1.9608,-0.98522,4.6829,5.7971,-1.9968,0.90177,-1.9608,-0.98522,7.8431,1.9048,2.807,7.6825,17.391001,12.625,1.8035,14.413,0.98522,6.6345
6.5719,14.418,9.8211,-4.902,-2.9557,0.78049,5.7971,-3.9291,2.8341,-4.902,-2.9557,5.8824,2.8571,6.6348,7.6825,17.391001,12.625,3.7359,10.603,1.9704,7.6006
3.7283,10.59,6.8943,-4.902,-3.9409,-2.1463,2.8986,-4.8953,1.868,-4.902,-3.9409,1.9608,3.8095,9.5056,6.7302,15.459,11.659,0.83736,6.7937,0.98522,6.6345
0.88468,1.9777,3.9675,-7.8431,-9.8522,-5.0732,-5.7971,-5.8615,-7.7939,-7.8431,-9.8522,-2.9412,4.7619,13.333,5.7778,12.56,11.659,-4.9597,1.0794,0.0,4.7021
0.88468,-1.8501,1.0407,-12.745,-14.778,-5.0732,-11.594,-4.8953,-12.625,-12.745,-14.778,-5.8824,7.619,19.075001,6.7302,11.594,10.692,-4.9597,-5.5873,1.9704,8.5668
0.88468,-1.8501,0.06504,-13.725,-16.749001,-5.0732,-10.628,-5.8615,-12.625,-13.725,-16.749001,-4.902,10.476,22.903,7.6825,9.6618,10.692,-4.9597,-10.349,3.9409,10.499
0.88468,-4.7209,-0.91057,-10.784,-16.749001,-5.0732,-10.628,-8.7601,-13.591,-10.784,-16.749001,-4.902,7.619,17.160999,6.7302,3.8647,6.8277,-3.9936,-11.302,2.9557,6.6345
1.8325,-5.6778,1.0407,-10.784,-13.793,-4.0976,-9.6618,-6.8277,-14.557,-10.784,-13.793,-3.9216,4.7619,10.463,4.8254,-1.9324,2.963,-4.9597,-10.349,3.9409,3.7359
0.88468,-6.6348,-0.91057,-10.784,-12.808,-4.0976,-8.6957,-3.9291,-13.591,-10.784,-12.808,-4.902,0.0,2.807,1.9683,-10.628,-1.868,-4.9597,-10.349,0.0,-2.0612
-1.9589,-11.419,-5.7886,-13.725,-15.764,-5.0732,-10.628,-6.8277,-15.523,-13.725,-15.764,-6.8627,-2.8571,-3.8915,-0.88889,-16.424999,-5.7327,-6.8921,-11.302,0.0,-5.9259
-5.7504,-16.204,-9.6911,-11.765,-13.793,-7.0244,-13.527,-8.7601,-12.625,-11.765,-13.793,-8.8235,-5.7143,-11.547,-3.746,-18.357,-9.5974,-5.9259,-12.254,-1.9704,-7.8583
-5.7504,-16.204,-8.7154,-10.784,-14.778,-7.0244,-14.493,-6.8277,-11.659,-10.784,-14.778,-10.784,-6.6667,-16.332001,-3.746,-16.424999,-8.6312,-4.9597,-11.302,-3.9409,-7.8583
-1.9589,-10.463,-3.8374,-9.8039,-15.764,-5.0732,-12.56,-2.963,-13.591,-9.8039,-15.764,-9.8039,-3.8095,-14.418,1.0159,-9.6618,-3.8003,-3.9936,-11.302,0.0,-3.9936
-4.8025,-9.5056,-4.813,-12.745,-16.749001,-8.9756,-13.527,-3.9291,-9.7262,-12.745,-16.749001,-13.725,-3.8095,-14.418,1.0159,-4.8309,-1.868,-3.9936,-8.4444,0.0,-2.0612
-6.6983,-4.7209,-5.7886,-17.646999,-14.778,-11.902,-9.6618,-6.8277,-4.8953,-17.646999,-14.778,-14.706,-2.8571,-9.6332,1.0159,2.8986,1.0306,-5.9259,1.0794,0.98522,3.7359
-6.6983,0.0638,-4.813,-17.646999,-17.733999,-11.902,-10.628,-8.7601,-8.7601,-17.646999,-17.733999,-11.765,-1.9048,-3.8915,1.0159,8.6957,1.9968,-4.9597,2.9841,1.9704,9.533
-5.7504,0.0638,-1.8862,-11.765,-14.778,-8.9756,-9.6618,-6.8277,-12.625,-11.765,-14.778,-7.8431,-1.9048,-1.9777,0.06349,7.7295,1.0306,-3.9936,3.9365,0.98522,8.5668
-2.9068,2.9346,0.06504,-6.8627,-12.808,-3.122,-5.7971,0.90177,-5.8615,-6.8627,-12.808,-3.9216,-1.9048,0.89314,-1.8413,5.7971,-0.90177,1.8035,4.8889,0.98522,7.6006
-3.8547,1.9777,-2.8618,-6.8627,-10.837,-2.1463,-3.8647,0.90177,-7.7939,-6.8627,-10.837,-2.9412,-2.8571,2.807,-6.6032,3.8647,-5.7327,-0.12882,2.0317,-1.9704,8.5668
-5.7504,1.9777,-5.7886,-4.902,-5.9113,-2.1463,-0.96618,-1.0306,-2.963,-4.902,-5.9113,-1.9608,-1.9048,4.7209,-7.5556,2.8986,-7.6651,-4.9597,1.0794,-1.9704,6.6345
-5.7504,2.9346,-3.8374,-3.9216,-4.9261,-1.1707,1.9324,-4.8953,-1.0306,-3.9216,-4.9261,0.98039,2.8571,7.5917,-4.6984,2.8986,-5.7327,-4.9597,2.9841,1.9704,4.7021
-8.594,5.8054,-0.91057,-6.8627,-3.9409,-4.0976,4.8309,-8.7601,2.8341,-6.8627,-3.9409,2.9412,1.9048,1.8501,-6.6032,0.0,-7.6651,-11.723,1.0794,0.98522,-1.095
-8.594,7.7193,0.06504,-8.8235,0.98522,-4.0976,9.6618,-7.7939,4.7665,-8.8235,0.98522,4.902,0.0,-1.9777,-8.5079,-2.8986,-7.6651,-8.8245,-6.5397,-2.9557,-5.9259
-9.5419,4.8485,-1.8862,-6.8627,2.9557,-3.122,10.628,-5.8615,3.8003,-6.8627,2.9557,5.8824,0.95238,-0.0638,-9.4603,-4.8309,-6.6989,-9.7907,-6.5397,-5.9113,-8.8245
-12.385,-0.89314,-7.7398,-5.8824,-0.98522,-6.0488,4.8309,-4.8953,2.8341,-5.8824,-0.98522,0.98039,-0.95238,0.89314,-13.27,-6.7633,-5.7327,-13.655,-5.5873,-11.823,-9.7907
-11.438,-3.764,-8.7154,-8.8235,-5.9113,-7.0244,-0.96618,-3.9291,-2.963,-8.8235,-5.9113,-2.9412,-2.8571,0.89314,-14.222,-4.8309,-4.7665,-12.689,-7.4921,-14.778,-9.7907
-7.6461,-5.6778,-4.813,-8.8235,-7.8818,-5.0732,-4.8309,-2.963,-5.8615,-8.8235,-7.8818,-2.9412,-5.7143,-1.9777,-14.222,-4.8309,-3.8003,-8.8245,-4.6349,-15.764,-9.7907
-1.9589,-7.5917,-1.8862,-5.8824,-7.8818,-1.1707,-3.8647,1.868,-1.9968,-5.8824,-7.8818,-2.9412,-7.619,-5.8054,-11.365,-6.7633,-2.8341,-2.0612,1.0794,-15.764,-9.7907
0.88468,-5.6778,-1.8862,-2.9412,-6.8966,-0.19512,-3.8647,5.7327,-0.06441,-2.9412,-6.8966,-2.9412,-7.619,-6.7624,-6.6032,-3.8647,-0.90177,-0.12882,5.8413,-12.808,-6.8921
2.7804,-3.764,-1.8862,-0.98039,-6.8966,0.78049,-2.8986,6.6989,-1.9968,-0.98039,-6.8966,-2.9412,-5.7143,-6.7624,-1.8413,0.0,0.06441,1.8035,4.8889,-8.867,-3.0274
3.7283,-2.807,-1.8862,-1.9608,-9.8522,1.7561,-5.7971,10.564,-2.963,-1.9608,-9.8522,-2.9412,-9.5238,-12.504,0.06349,0.96618,-0.90177,3.7359,1.0794,-7.8818,-3.0274
6.5719,-0.89314,2.0163,-4.902,-14.778,1.7561,-8.6957,9.5974,-9.7262,-4.902,-14.778,-2.9412,-11.429,-14.418,1.9683,3.8647,-0.90177,7.6006,-2.7302,-4.9261,1.8035
6.5719,0.0638,3.9675,-5.8824,-17.733999,0.78049,-12.56,9.5974,-16.49,-5.8824,-17.733999,-5.8824,-11.429,-10.59,3.873,6.7633,0.06441,9.533,-3.6825,-1.9704,7.6006
3.7283,-0.89314,1.0407,-5.8824,-15.764,-3.122,-10.628,5.7327,-14.557,-5.8824,-15.764,-8.8235,-7.619,-2.9346,4.8254,5.7971,0.06441,4.7021,3.9365,1.9704,12.432
0.88468,-4.7209,-2.8618,-9.8039,-16.749001,-5.0732,-11.594,2.8341,-9.7262,-9.8039,-16.749001,-10.784,-3.8095,2.807,5.7778,2.8986,1.0306,1.8035,4.8889,3.9409,13.398
-1.0111,-1.8501,-3.8374,-10.784,-16.749001,-7.0244,-7.7295,-2.963,-8.7601,-10.784,-16.749001,-7.8431,-0.95238,5.6778,5.7778,0.96618,1.9968,-1.095,0.12698,4.9261,12.432
2.7804,1.0207,2.9919,-9.8039,-11.823,-1.1707,-1.9324,-2.963,-1.0306,-9.8039,-11.823,-1.9608,3.8095,9.5056,8.6349,1.9324,5.8615,-1.095,-0.8254,6.8966,10.499
5.624,1.9777,8.8455,-8.8235,-7.8818,1.7561,0.96618,-2.963,6.6989,-8.8235,-7.8818,2.9412,8.5714,11.419,12.444,2.8986,9.7262,-5.9259,-0.8254,11.823,7.6006
4.6761,2.9346,7.8699,-4.902,-7.8818,1.7561,1.9324,-2.963,0.90177,-4.902,-7.8818,4.902,9.5238,10.463,12.444,0.96618,10.692,-2.0612,1.0794,10.837,3.7359
1.8325,1.0207,2.9919,-3.9216,-5.9113,0.78049,0.0,-1.0306,-3.9291,-3.9216,-5.9113,3.9216,8.5714,10.463,8.6349,0.0,8.7601,-3.9936,2.0317,6.8966,2.7697
-1.9589,1.0207,-1.8862,-4.902,-3.9409,-2.1463,-0.96618,-1.0306,-3.9291,-4.902,-3.9409,0.98039,3.8095,4.7209,3.873,-0.96618,3.9291,-8.8245,-1.7778,3.9409,0.83736
-2.9068,-2.807,-3.8374,-2.9412,-4.9261,-4.0976,-4.8309,1.868,-3.9291,-2.9412,-4.9261,-2.9412,-2.8571,-1.0207,-0.88889,-2.8986,-1.868,-5.9259,-2.7302,0.98522,-3.9936
-6.6983,-5.6778,-4.813,-2.9412,-7.8818,-7.0244,-5.7971,1.868,-5.8615,-2.9412,-7.8818,-7.8431,-8.5714,-5.8054,-5.6508,-4.8309,-5.7327,-5.9259,0.12698,-3.9409,-5.9259
-9.5419,-3.764,-7.7398,-2.9412,-7.8818,-8.0,-4.8309,3.8003,-5.8615,-2.9412,-7.8818,-8.8235,-11.429,-7.7193,-8.5079,-2.8986,-7.6651,-3.9936,-0.8254,-5.9113,-3.9936
-9.5419,-1.8501,-7.7398,-5.8824,-6.8966,-8.0,-2.8986,1.868,-4.8953,-5.8824,-6.8966,-7.8431,-9.5238,-8.6762,-8.5079,-0.96618,-7.6651,-2.0612,-1.7778,-3.9409,-1.095
-11.438,-2.807,-10.667,-7.8431,-9.8522,-10.927,-2.8986,-1.0306,-0.06441,-7.8431,-9.8522,-8.8235,-9.5238,-7.7193,-9.4603,-0.96618,-10.564,-6.8921,0.12698,-1.9704,-0.12882
-13.333,-7.5917,-13.593,-7.8431,-11.823,-10.927,-5.7971,0.90177,-3.9291,-7.8431,-11.823,-10.784,-9.5238,-7.7193,-12.317,-5.7971,-14.428,-1.095,2.0317,-2.9557,-1.095
-12.385,-12.376,-15.545,-7.8431,-12.808,-8.9756,-11.594,4.7665,-13.591,-7.8431,-12.808,-12.745,-10.476,-10.59,-13.27,-10.628,-17.327,3.7359,-0.8254,-5.9113,-5.9259
-9.5419,-9.5056,-14.569,-6.8627,-9.8522,-6.0488,-8.6957,6.6989,-12.625,-6.8627,-9.8522,-10.784,-7.619,-7.7193,-11.365,-8.6957,-14.428,4.7021,-2.7302,-4.9261,-4.9597
-5.7504,-5.6778,-11.642,-6.8627,-10.837,-4.0976,-5.7971,4.7665,-5.8615,-6.8627,-10.837,-8.8235,-0.95238,-0.0638,-5.6508,-3.8647,-8.6312,9.533,-3.6825,0.0,-1.095
-3.8547,-5.6778,-8.7154,-8.8235,-13.793,-4.0976,-5.7971,1.868,-6.8277,-8.8235,-13.793,-8.8235,4.7619,5.6778,0.06349,-0.96618,-2.8341,6.6345,-2.7302,2.9557,1.8035
-3.8547,-6.6348,-9.6911,-8.8235,-11.823,-5.0732,-8.6957,1.868,-5.8615,-8.8235,-11.823,-9.8039,2.8571,5.6778,0.06349,-1.9324,-1.868,5.6683,-1.7778,1.9704,1.8035
-1.0111,-5.6778,-7.7398,-2.9412,-6.8966,-2.1463,-6.7633,4.7665,-5.8615,-2.9412,-6.8966,-6.8627,2.8571,5.6778,1.0159,-3.8647,-0.90177,2.7697,1.0794,3.9409,-0.12882
0.88468,-2.807,-2.8618,0.0,-4.9261,2.7317,0.0,3.8003,4.7665,0.0,-4.9261,-0.98039,2.8571,4.7209,1.0159,-3.8647,0.06441,6.6345,4.8889,3.9409,-1.095
0.88468,0.0638,-1.8862,0.98039,-0.98522,5.6585,4.8309,2.8341,8.6312,0.98039,-0.98522,1.9608,0.95238,2.807,-1.8413,-3.8647,-1.868,10.499,4.8889,0.98522,-1.095
-1.9589,-3.764,-3.8374,-1.9608,-1.9704,2.7317,1.9324,-1.0306,-0.06441,-1.9608,-1.9704,0.98039,-0.95238,-1.9777,-5.6508,-8.6957,-5.7327,4.7021,0.12698,0.0,-3.9936
-1.0111,-5.6778,-0.91057,-3.9216,-2.9557,0.78049,0.96618,-5.8615,-1.9968,-3.9216,-2.9557,1.9608,-0.95238,-5.8054,-6.6032,-9.6618,-7.6651,1.8035,-1.7778,-0.98522,-6.8921
1.8325,-3.764,2.0163,-0.98039,-1.9704,4.6829,4.8309,-4.8953,-0.06441,-0.98039,-1.9704,6.8627,-4.7619,-10.59,-9.4603,-12.56,-11.53,1.8035,-1.7778,-3.9409,-9.7907
0.88468,-1.8501,2.0163,7.8431,5.9113,10.537,7.7295,5.7327,4.7665,7.8431,5.9113,11.765,-8.5714,-14.418,-13.27,-14.493,-15.395,-3.9936,-1.7778,-8.867,-10.757
4.6761,5.8054,7.8699,14.706,11.823,14.439,13.527,8.6312,9.5974,14.706,11.823,15.686,-8.5714,-12.504,-11.365,-7.7295,-12.496,-3.0274,1.0794,-9.8522,-7.8583
5.624,8.6762,10.797,14.706,8.867,12.488,10.628,10.564,6.6989,14.706,8.867,12.745,-8.5714,-13.461,-7.5556,-1.9324,-6.6989,-1.095,4.8889,-8.867,-6.8921
5.624,12.504,10.797,14.706,8.867,11.512,10.628,11.53,7.6651,14.706,8.867,11.765,-9.5238,-12.504,-4.6984,4.8309,-1.868,1.8035,5.8413,-8.867,-3.0274
9.4155,11.547,12.748,15.686,8.867,13.463,8.6957,10.564,9.5974,15.686,8.867,11.765,-5.7143,-3.8915,1.9683,12.56,4.8953,4.7021,6.7937,-4.9261,4.7021
13.207,8.6762,13.724,14.706,8.867,14.439,7.7295,14.428,3.8003,14.706,8.867,12.745,1.9048,6.6348,8.6349,18.357,11.659,10.499,5.8413,2.9557,11.465
12.259,7.7193,11.772,10.784,6.8966,12.488,5.7971,14.428,0.90177,10.784,6.8966,10.784,4.7619,10.463,9.5873,17.391001,11.659,12.432,0.12698,5.9113,12.432
12.259,9.6332,11.772,10.784,6.8966,12.488,7.7295,16.361,2.8341,10.784,6.8966,11.765,4.7619,10.463,12.444,16.424999,13.591,18.229,2.0317,8.867,10.499
11.311,6.7624,8.8455,10.784,3.9409,12.488,3.8647,17.327,-1.0306,10.784,3.9409,9.8039,5.7143,10.463,15.302,12.56,13.591,16.296,2.9841,11.823,8.5668
10.363,6.7624,5.9187,6.8627,2.9557,9.561,3.8647,10.564,-1.9968,6.8627,2.9557,7.8431,8.5714,10.463,15.302,9.6618,11.659,14.364,3.9365,13.793,7.6006
12.259,9.6332,7.8699,5.8824,4.9261,10.537,6.7633,11.53,4.7665,5.8824,4.9261,9.8039,11.429,11.419,15.302,9.6618,9.7262,17.261999,1.0794,15.764,6.6345
13.207,6.7624,9.8211,5.8824,2.9557,11.512,4.8309,11.53,0.90177,5.8824,2.9557,9.8039,11.429,9.5056,15.302,7.7295,9.7262,15.33,2.0317,16.749001,4.7021
11.311,0.0638,7.8699,4.902,2.9557,8.5854,2.8986,6.6989,1.868,4.902,2.9557,4.902,13.333,9.5056,17.205999,5.7971,10.692,14.364,2.0317,17.733999,1.8035
9.4155,-0.89314,5.9187,5.8824,3.9409,7.6098,2.8986,5.7327,3.8003,5.8824,3.9409,3.9216,13.333,6.6348,14.349,3.8647,9.7262,9.533,1.0794,15.764,-1.095
5.624,2.9346,2.9919,5.8824,5.9113,7.6098,5.7971,4.7665,6.6989,5.8824,5.9113,3.9216,8.5714,1.8501,10.54,1.9324,6.8277,2.7697,0.12698,10.837,-5.9259
1.8325,5.8054,2.0163,5.8824,4.9261,4.6829,5.7971,0.90177,5.7327,5.8824,4.9261,1.9608,5.7143,-1.9777,6.7302,2.8986,4.8953,0.83736,1.0794,5.9113,-5.9259
-0.06319,6.7624,1.0407,8.8235,5.9113,2.7317,4.8309,-1.0306,4.7665,8.8235,5.9113,1.9608,4.7619,-1.0207,2.9206,3.8647,3.9291,-3.0274,2.9841,1.9704,-0.12882
-2.9068,8.6762,-1.8862,3.9216,5.9113,-0.19512,4.8309,-3.9291,7.6651,3.9216,5.9113,-0.98039,2.8571,2.807,-0.88889,6.7633,2.963,-3.9936,6.7937,-5.9113,6.6345
-5.7504,4.8485,-4.813,-1.9608,4.9261,-4.0976,4.8309,-7.7939,8.6312,-1.9608,4.9261,-2.9412,1.9048,6.6348,-4.6984,6.7633,1.9968,-8.8245,9.6508,-10.837,10.499
-2.9068,2.9346,1.0407,-0.98039,6.8966,-2.1463,4.8309,-8.7601,7.6651,-0.98039,6.8966,0.0,8.5714,14.29,-0.88889,9.6618,6.8277,-11.723,6.7937,-8.867,14.364
0.88468,4.8485,4.9431,2.9412,6.8966,-0.19512,4.8309,-8.7601,4.7665,2.9412,6.8966,2.9412,13.333,20.032,1.9683,11.594,10.692,-10.757,7.746,-4.9261,16.296
3.7283,4.8485,4.9431,5.8824,5.9113,2.7317,2.8986,-2.963,2.8341,5.8824,5.9113,3.9216,11.429,20.989,2.9206,11.594,9.7262,-6.8921,9.6508,-2.9557,16.296
2.7804,2.9346,2.9919,5.8824,6.8966,2.7317,2.8986,1.868,1.868,5.8824,6.8966,2.9412,6.6667,18.118,-0.88889,8.6957,5.8615,-5.9259,6.7937,-4.9261,16.296
0.88468,2.9346,2.9919,4.902,3.9409,1.7561,0.96618,1.868,-0.06441,4.902,3.9409,0.98039,1.9048,14.29,-1.8413,5.7971,3.9291,-8.8245,2.9841,-6.8966,14.364
5.624,2.9346,7.8699,8.8235,6.8966,4.6829,3.8647,3.8003,-0.06441,8.8235,6.8966,4.902,3.8095,12.376,2.9206,4.8309,5.8615,-2.0612,-0.8254,0.0,9.533
9.4155,2.9346,9.8211,12.745,7.8818,9.561,3.8647,7.6651,1.868,12.745,7.8818,7.8431,2.8571,4.7209,6.7302,2.8986,6.8277,6.6345,-1.7778,4.9261,1.8035
9.4155,2.9346,7.8699,9.8039,7.8818,9.561,3.8647,8.6312,2.8341,9.8039,7.8818,7.8431,1.9048,-1.0207,7.6825,2.8986,5.8615,8.5668,-1.7778,7.8818,-3.0274
9.4155,3.8915,6.8943,8.8235,8.867,8.5854,4.8309,8.6312,3.8003,8.8235,8.867,7.8431,2.8571,-2.9346,10.54,2.8986,5.8615,12.432,-0.8254,11.823,-5.9259
8.4676,5.8054,6.8943,11.765,11.823,8.5854,6.7633,9.5974,5.7327,11.765,11.823,8.8235,2.8571,-6.7624,12.444,1.9324,5.8615,8.5668,-2.7302,13.793,-10.757
10.363,10.59,9.8211,15.686,16.749001,12.488,13.527,11.53,9.5974,15.686,16.749001,13.725,5.7143,-8.6762,14.349,2.8986,6.8277,8.5668,-1.7778,14.778,-10.757
11.311,11.547,8.8455,14.706,17.733999,13.463,15.459,8.6312,12.496,14.706,17.733999,14.706,6.6667,-7.7193,14.349,1.9324,6.8277,7.6006,3.9365,15.764,-9.7907
10.363,4.8485,5.9187,13.725,16.749001,11.512,12.56,4.7665,10.564,13.725,16.749001,12.745,5.7143,-5.8054,11.492,-0.96618,3.9291,7.6006,5.8413,12.808,-6.8921
8.4676,-0.89314,3.9675,11.765,16.749001,9.561,6.7633,2.8341,5.7327,11.765,16.749001,10.784,6.6667,-1.9777,9.5873,-3.8647,1.9968,10.499,3.9365,9.8522,-6.8921
7.5197,0.0638,5.9187,9.8039,16.749001,8.5854,7.7295,0.90177,7.6651,9.8039,16.749001,10.784,6.6667,-1.0207,7.6825,-4.8309,1.0306,5.6683,2.9841,9.8522,-6.8921
5.624,2.9346,5.9187,10.784,18.719,9.561,9.6618,2.8341,11.53,10.784,18.719,10.784,2.8571,-0.0638,2.9206,-4.8309,-1.868,2.7697,3.9365,3.9409,-5.9259
6.5719,6.7624,6.8943,11.765,19.704,11.512,11.594,4.7665,9.5974,11.765,19.704,14.706,0.0,-0.0638,0.06349,-2.8986,-1.868,2.7697,3.9365,0.0,-3.9936
7.5197,9.6332,9.8211,14.706,20.690001,10.537,13.527,2.8341,12.496,14.706,20.690001,14.706,0.95238,3.764,2.9206,0.0,1.9968,1.8035,4.8889,0.98522,-1.095
3.7283,6.7624,6.8943,13.725,21.674999,4.6829,12.56,-0.06441,14.428,13.725,21.674999,8.8235,0.95238,7.5917,1.0159,2.8986,3.9291,1.8035,4.8889,-1.9704,3.7359
-1.0111,0.0638,-0.91057,10.784,16.749001,0.78049,6.7633,0.90177,8.6312,10.784,16.749001,2.9412,0.95238,9.5056,-1.8413,1.9324,1.9968,1.8035,2.0317,-3.9409,5.6683
-1.9589,-3.764,-3.8374,12.745,15.764,1.7561,6.7633,2.8341,8.6312,12.745,15.764,1.9608,0.0,8.5486,-3.746,1.9324,1.0306,1.8035,2.0317,-6.8966,4.7021
-2.9068,1.0207,-1.8862,13.725,16.749001,2.7317,9.6618,3.8003,13.462,13.725,16.749001,2.9412,-1.9048,9.5056,-6.6032,3.8647,1.0306,-0.12882,4.8889,-12.808,7.6006
-1.0111,6.7624,1.0407,10.784,18.719,4.6829,13.527,4.7665,17.327,10.784,18.719,6.8627,-3.8095,6.6348,-6.6032,5.7971,1.0306,-0.12882,8.6984,-14.778,7.6006
-0.06319,5.8054,1.0407,6.8627,11.823,1.7561,8.6957,1.868,12.496,6.8627,11.823,3.9216,-5.7143,1.8501,-5.6508,6.7633,1.9968,2.7697,11.556,-14.778,4.7021
1.8325,5.8054,2.9919,6.8627,9.8522,1.7561,6.7633,4.7665,8.6312,6.8627,9.8522,2.9412,-4.7619,-1.0207,-0.88889,8.6957,3.9291,4.7021,8.6984,-9.8522,3.7359
3.7283,8.6762,4.9431,7.8431,8.867,2.7317,5.7971,4.7665,4.7665,7.8431,8.867,3.9216,-2.8571,-5.8054,1.9683,8.6957,4.8953,4.7021,5.8413,-6.8966,2.7697
3.7283,4.8485,3.9675,5.8824,6.8966,1.7561,3.8647,-1.0306,2.8341,5.8824,6.8966,3.9216,0.0,-4.8485,4.8254,4.8309,5.8615,0.83736,3.9365,-2.9557,1.8035
1.8325,2.9346,2.0163,-0.98039,1.9704,-1.1707,2.8986,-3.9291,2.8341,-0.98039,1.9704,1.9608,0.95238,-1.9777,5.7778,2.8986,4.8953,0.83736,2.0317,0.0,0.83736
-1.0111,1.0207,-0.91057,-5.8824,-4.9261,-4.0976,-3.8647,-3.9291,-3.9291,-5.8824,-4.9261,-3.9216,2.8571,1.8501,4.8254,0.96618,2.963,0.83736,-3.6825,0.98522,0.83736
-1.0111,-1.8501,0.06504,-6.8627,-7.8818,-7.0244,-6.7633,-6.8277,-6.8277,-6.8627,-7.8818,-5.8824,6.6667,5.6778,7.6825,0.0,3.9291,1.8035,-3.6825,5.9113,0.83736
-1.9589,-5.6778,0.06504,-8.8235,-6.8966,-8.9756,-8.6957,-11.659,-6.8277,-8.8235,-6.8966,-6.8627,7.619,6.6348,6.7302,-3.8647,2.963,-2.0612,-7.4921,5.9113,-2.0612
-1.0111,-6.6348,1.0407,-6.8627,-7.8818,-5.0732,-7.7295,-9.7262,-7.7939,-6.8627,-7.8818,-2.9412,9.5238,7.5917,6.7302,-5.7971,3.9291,-3.0274,-10.349,7.8818,-2.0612
-0.06319,-5.6778,1.0407,-7.8431,-8.867,-2.1463,-5.7971,-10.692,-6.8277,-7.8431,-8.867,0.98039,7.619,4.7209,6.7302,-8.6957,2.963,-4.9597,-10.349,7.8818,-5.9259
-3.8547,-9.5056,-3.8374,-7.8431,-5.9113,-3.122,-4.8309,-11.659,-4.8953,-7.8431,-5.9113,-0.98039,6.6667,2.807,2.9206,-12.56,1.0306,-5.9259,-8.4444,6.8966,-7.8583
-7.6461,-12.376,-6.7642,-11.765,-7.8818,-7.0244,-8.6957,-13.591,-6.8277,-11.765,-7.8818,-5.8824,8.5714,5.6778,1.0159,-9.6618,0.06441,-9.7907,-8.4444,7.8818,-3.9936
-11.438,-13.333,-8.7154,-14.706,-8.867,-10.927,-10.628,-18.422001,-7.7939,-14.706,-8.867,-8.8235,7.619,4.7209,-4.6984,-6.7633,-1.868,-7.8583,-8.4444,2.9557,-2.0612
-14.281,-12.376,-12.618,-13.725,-9.8522,-15.805,-11.594,-19.388,-5.8615,-13.725,-9.8522,-13.725,3.8095,0.89314,-9.4603,-7.7295,-4.7665,-9.7907,-8.4444,0.0,-3.0274
-18.073,-13.333,-16.52,-17.646999,-9.8522,-20.683001,-12.56,-19.388,-6.8277,-17.646999,-9.8522,-16.667,0.0,-2.9346,-14.222,-8.6957,-8.6312,-14.622,-8.4444,-3.9409,-4.9597
-18.073,-9.5056,-14.569,-16.667,-7.8818,-21.659,-8.6957,-19.388,-0.06441,-16.667,-7.8818,-14.706,-1.9048,-6.7624,-15.175,-6.7633,-10.564,-14.622,-5.5873,-4.9261,-2.0612
-16.177,-5.6778,-10.667,-10.784,-4.9261,-17.756001,-4.8309,-15.523,0.90177,-10.784,-4.9261,-10.784,-5.7143,-9.6332,-16.127001,-5.7971,-11.53,-14.622,-0.8254,-7.8818,-1.095
-12.385,-3.764,-8.7154,-8.8235,-3.9409,-12.878,-3.8647,-9.7262,-0.06441,-8.8235,-3.9409,-8.8235,-9.5238,-12.504,-15.175,-4.8309,-11.53,-11.723,0.12698,-8.867,-2.0612
-5.7504,1.9777,-5.7886,-7.8431,-1.9704,-7.0244,-0.96618,-4.8953,1.868,-7.8431,-1.9704,-4.902,-9.5238,-10.59,-12.317,-0.96618,-8.6312,-3.0274,-0.8254,-7.8818,-1.095
-0.06319,2.9346,-1.8862,-4.902,0.0,-2.1463,2.8986,-1.0306,2.8341,-4.902,0.0,0.0,-8.5714,-8.6762,-7.5556,0.96618,-5.7327,-1.095,3.9365,-2.9557,-1.095
2.7804,3.8915,0.06504,-0.98039,0.98522,0.78049,2.8986,2.8341,1.868,-0.98039,0.98522,1.9608,-7.619,-6.7624,-3.746,2.8986,-2.8341,4.7021,5.8413,-0.98522,-2.0612
2.7804,2.9346,2.0163,-2.9412,-0.98522,-0.19512,1.9324,2.8341,1.868,-2.9412,-0.98522,0.98039,-7.619,-7.7193,-0.88889,2.8986,-0.90177,9.533,4.8889,0.0,-3.0274
3.7283,-0.89314,1.0407,-3.9216,-0.98522,1.7561,0.96618,2.8341,4.7665,-3.9216,-0.98522,0.0,-6.6667,-5.8054,1.0159,0.0,0.06441,6.6345,4.8889,2.9557,-3.9936
7.5197,1.9777,2.9919,1.9608,1.9704,6.6341,0.0,6.6989,-0.06441,1.9608,1.9704,3.9216,-1.9048,-1.9777,4.8254,0.0,2.963,11.465,0.12698,7.8818,-3.0274
10.363,0.0638,6.8943,2.9412,0.0,8.5854,-2.8986,5.7327,-4.8953,2.9412,0.0,4.902,0.95238,0.89314,9.5873,0.0,6.8277,8.5668,-1.7778,8.867,-4.9597
12.259,-0.89314,10.797,0.0,-1.9704,6.6341,-2.8986,3.8003,-5.8615,0.0,-1.9704,3.9216,7.619,7.5917,15.302,3.8647,12.625,9.533,-6.5397,10.837,-1.095
11.311,-1.8501,9.8211,-1.9608,-1.9704,5.6585,-3.8647,3.8003,-2.963,-1.9608,-1.9704,1.9608,10.476,10.463,17.205999,4.8309,14.557,10.499,-8.4444,11.823,0.83736
9.4155,-4.7209,6.8943,-1.9608,-3.9409,5.6585,-4.8309,2.8341,-4.8953,-1.9608,-3.9409,1.9608,6.6667,7.5917,13.397,0.96618,10.692,4.7021,-3.6825,8.867,-0.12882
3.7283,-4.7209,1.0407,-3.9216,-6.8966,1.7561,-5.7971,0.90177,-3.9291,-3.9216,-6.8966,0.0,3.8095,6.6348,7.6825,0.0,5.8615,2.7697,-1.7778,2.9557,1.8035
-0.06319,-2.807,0.06504,-6.8627,-6.8966,-1.1707,-3.8647,-0.06441,-1.9968,-6.8627,-6.8966,-0.98039,2.8571,4.7209,3.873,-1.9324,1.9968,0.83736,1.0794,0.98522,1.8035
-1.9589,1.9777,0.06504,-5.8824,-4.9261,-2.1463,-2.8986,-2.963,-2.963,-5.8824,-4.9261,-1.9608,-0.95238,-1.9777,0.06349,-1.9324,0.06441,-4.9597,2.0317,-3.9409,-1.095
-7.6461,1.9777,-2.8618,-5.8824,-0.98522,-5.0732,-0.96618,-3.9291,-0.06441,-5.8824,-0.98522,-3.9216,-3.8095,-5.8054,-4.6984,-0.96618,-2.8341,-6.8921,2.9841,-6.8966,-2.0612
-12.385,-0.89314,-9.6911,-7.8431,-1.9704,-8.0,-1.9324,-4.8953,1.868,-7.8431,-1.9704,-5.8824,-4.7619,-5.8054,-7.5556,-1.9324,-5.7327,-7.8583,2.0317,-7.8818,1.8035
-12.385,1.9777,-9.6911,-10.784,-3.9409,-9.9512,0.96618,-6.8277,1.868,-10.784,-3.9409,-5.8824,-5.7143,-8.6762,-9.4603,-2.8986,-6.6989,-7.8583,3.9365,-7.8818,0.83736
-9.5419,2.9346,-5.7886,-7.8431,-0.98522,-8.9756,2.8986,-7.7939,6.6989,-7.8431,-0.98522,-3.9216,-7.619,-10.59,-10.413,-1.9324,-6.6989,-7.8583,9.6508,-9.8522,-0.12882
-7.6461,1.9777,-2.8618,-5.8824,-1.9704,-8.0,1.9324,-3.9291,4.7665,-5.8824,-1.9704,-3.9216,-9.5238,-11.547,-12.317,-1.9324,-7.6651,-6.8921,6.7937,-10.837,-3.0274
-6.6983,0.0638,-4.813,-6.8627,-6.8966,-8.0,-0.96618,-0.06441,0.90177,-6.8627,-6.8966,-5.8824,-7.619,-9.6332,-12.317,-0.96618,-6.6989,-2.0612,0.12698,-9.8522,-3.9936
-8.594,-6.6348,-9.6911,-7.8431,-9.8522,-9.9512,-7.7295,-3.9291,-6.8277,-7.8431,-9.8522,-9.8039,-4.7619,-5.8054,-12.317,-1.9324,-6.6989,-4.9597,-1.7778,-9.8522,-2.0612
-9.5419,-9.5056,-10.667,-4.902,-5.9113,-8.9756,-6.7633,-2.963,-5.8615,-4.902,-5.9113,-8.8235,-1.9048,-1.0207,-9.4603,-2.8986,-5.7327,-6.8921,-2.7302,-6.8966,-0.12882
-9.5419,-9.5056,-9.6911,-3.9216,-7.8818,-7.0244,-8.6957,-0.06441,-9.7262,-3.9216,-7.8818,-7.8431,1.9048,5.6778,-7.5556,-3.8647,-5.7327,-6.8921,-5.5873,-3.9409,1.8035
-5.7504,-9.5056,-6.7642,-2.9412,-6.8966,-4.0976,-7.7295,-1.0306,-9.7262,-2.9412,-6.8966,-4.902,0.95238,6.6348,-7.5556,-6.7633,-6.6989,-5.9259,-7.4921,-2.9557,1.8035
-3.8547,-8.5486,-5.7886,0.0,-2.9557,-2.1463,-3.8647,-0.06441,-2.963,0.0,-2.9557,-2.9412,-0.95238,6.6348,-9.4603,-10.628,-12.496,-4.9597,-8.4444,-3.9409,-1.095
-1.9589,-7.5917,-4.813,-1.9608,-1.9704,-2.1463,-1.9324,-1.9968,-2.963,-1.9608,-1.9704,-3.9216,-1.9048,7.5917,-9.4603,-13.527,-14.428,-7.8583,-7.4921,-2.9557,-1.095
1.8325,-5.6778,-0.91057,-3.9216,-2.9557,-0.19512,-2.8986,-3.9291,-2.963,-3.9216,-2.9557,-2.9412,1.9048,11.419,-4.6984,-10.628,-10.564,-2.0612,-4.6349,0.0,0.83736
0.88468,-4.7209,0.06504,-5.8824,-5.9113,-1.1707,-3.8647,-2.963,-2.963,-5.8824,-5.9113,-3.9216,4.7619,14.29,-1.8413,-6.7633,-6.6989,-0.12882,-0.8254,1.9704,3.7359
-1.9589,-2.807,-0.91057,-6.8627,-6.8966,-1.1707,-2.8986,-1.0306,-1.9968,-6.8627,-6.8966,-4.902,5.7143,13.333,-1.8413,-3.8647,-5.7327,-1.095,1.0794,1.9704,3.7359
-2.9068,1.0207,-2.8618,-2.9412,-2.9557,-2.1463,0.96618,-1.9968,2.8341,-2.9412,-2.9557,-5.8824,5.7143,12.376,-2.7937,0.0,-4.7665,-3.0274,1.0794,2.9557,4.7021
-5.7504,-2.807,-6.7642,-3.9216,-4.9261,-6.0488,-2.8986,-0.06441,0.90177,-3.9216,-4.9261,-9.8039,1.9048,4.7209,-5.6508,-2.8986,-6.6989,-3.0274,1.0794,0.0,-0.12882
-5.7504,-3.764,-6.7642,-4.902,-8.867,-7.0244,-6.7633,-1.0306,-6.8277,-4.902,-8.867,-11.765,1.9048,0.89314,-3.746,-0.96618,-4.7665,-0.12882,1.0794,0.0,-2.0612
-1.0111,2.9346,-1.8862,-1.9608,-3.9409,-4.0976,-1.9324,-0.06441,-1.9968,-1.9608,-3.9409,-5.8824,4.7619,0.89314,1.9683,3.8647,1.9968,2.7697,1.0794,3.9409,1.8035
2.7804,6.7624,3.9675,0.0,1.9704,-0.19512,3.8647,1.868,5.7327,0.0,1.9704,0.0,4.7619,-1.9777,7.6825,7.7295,6.8277,0.83736,4.8889,6.8966,2.7697
5.624,7.7193,5.9187,0.98039,3.9409,2.7317,5.7971,3.8003,4.7665,0.98039,3.9409,2.9412,3.8095,-5.8054,10.54,9.6618,8.7601,6.6345,7.746,9.8522,1.8035
2.7804,4.8485,2.9919,-0.98039,0.98522,1.7561,1.9324,2.8341,1.868,-0.98039,0.98522,0.0,0.95238,-8.6762,6.7302,7.7295,5.8615,7.6006,2.0317,7.8818,-1.095
2.7804,1.0207,1.0407,2.9412,0.0,1.7561,0.0,3.8003,-1.0306,2.9412,0.0,-0.98039,0.95238,-6.7624,5.7778,6.7633,5.8615,4.7021,0.12698,6.8966,0.83736
2.7804,-3.764,0.06504,2.9412,0.98522,0.78049,-1.9324,0.90177,-0.06441,2.9412,0.98522,-0.98039,2.8571,-3.8915,6.7302,2.8986,4.8953,4.7021,-4.6349,8.867,-0.12882
0.88468,-6.6348,-1.8862,0.0,2.9557,-1.1707,-1.9324,-0.06441,-2.963,0.0,2.9557,-0.98039,1.9048,-3.8915,3.873,-2.8986,1.9968,1.8035,-7.4921,5.9113,-3.0274
-1.0111,-3.764,-1.8862,1.9608,6.8966,0.78049,2.8986,-0.06441,1.868,1.9608,6.8966,1.9608,0.0,-2.9346,1.9683,-5.7971,-1.868,0.83736,-2.7302,3.9409,-3.9936
-2.9068,-2.807,-1.8862,4.902,8.867,0.78049,6.7633,-3.9291,4.7665,4.902,8.867,4.902,-4.7619,-6.7624,-2.7937,-7.7295,-5.7327,-7.8583,-5.5873,0.0,-5.9259
-1.9589,0.0638,0.06504,8.8235,12.808,3.7073,9.6618,-2.963,7.6651,8.8235,12.808,8.8235,-8.5714,-8.6762,-5.6508,-6.7633,-6.6989,-9.7907,-2.7302,-1.9704,-7.8583
0.88468,3.8915,3.9675,8.8235,16.749001,7.6098,12.56,-0.06441,10.564,8.8235,16.749001,12.745,-7.619,-5.8054,-5.6508,-3.8647,-5.7327,-4.9597,2.9841,-2.9557,-4.9597
-1.0111,4.8485,2.0163,6.8627,14.778,5.6585,9.6618,-2.963,10.564,6.8627,14.778,9.8039,-5.7143,-4.8485,-6.6032,-2.8986,-5.7327,-3.9936,3.9365,-2.9557,-4.9597
-3.8547,2.9346,-0.91057,7.8431,11.823,2.7317,7.7295,-3.9291,9.5974,7.8431,11.823,5.8824,-6.6667,-4.8485,-6.6032,-1.9324,-5.7327,-4.9597,3.9365,0.0,-4.9597
-5.7504,1.9777,-3.8374,7.8431,9.8522,1.7561,5.7971,-1.9968,6.6989,7.8431,9.8522,2.9412,-7.619,-6.7624,-7.5556,-2.8986,-6.6989,-3.9936,1.0794,-1.9704,-5.9259
-4.8025,2.9346,-3.8374,7.8431,10.837,3.7073,7.7295,1.868,7.6651,7.8431,10.837,3.9216,-8.5714,-8.6762,-6.6032,-1.9324,-5.7327,-3.0274,1.0794,-1.9704,-6.8921
-5.7504,1.0207,-3.8374,8.8235,10.837,2.7317,6.7633,4.7665,7.6651,8.8235,10.837,2.9412,-8.5714,-10.59,-5.6508,-2.8986,-4.7665,-3.9936,1.0794,-0.98522,-6.8921
-5.7504,1.0207,-3.8374,7.8431,6.8966,1.7561,1.9324,4.7665,-0.06441,7.8431,6.8966,1.9608,-7.619,-10.59,-4.6984,-0.96618,-2.8341,-0.12882,-0.8254,-1.9704,-5.9259
-3.8547,1.0207,-3.8374,6.8627,3.9409,1.7561,0.0,3.8003,-2.963,6.8627,3.9409,0.98039,-8.5714,-13.461,-4.6984,0.0,-1.868,2.7697,-3.6825,-2.9557,-4.9597
-2.9068,-0.89314,-3.8374,8.8235,6.8966,1.7561,1.9324,4.7665,2.8341,8.8235,6.8966,0.0,-8.5714,-15.375,-2.7937,-1.9324,-2.8341,3.7359,0.12698,0.0,-5.9259
-1.0111,-0.89314,-1.8862,5.8824,4.9261,3.7073,2.8986,6.6989,4.7665,5.8824,4.9261,0.0,-8.5714,-14.418,-0.88889,-2.8986,-2.8341,4.7021,2.0317,0.98522,-4.9597
-0.06319,-3.764,-1.8862,6.8627,1.9704,4.6829,-0.96618,10.564,-2.963,6.8627,1.9704,-0.98039,-7.619,-13.461,0.06349,-5.7971,-3.8003,7.6006,-5.5873,1.9704,-4.9597
2.7804,-7.5917,-0.91057,10.784,3.9409,7.6098,-0.96618,14.428,-3.9291,10.784,3.9409,0.98039,-5.7143,-13.461,0.06349,-7.7295,-5.7327,9.533,-6.5397,2.9557,-6.8921
1.8325,-8.5486,-2.8618,9.8039,1.9704,6.6341,-2.8986,8.6312,-3.9291,9.8039,1.9704,0.0,-4.7619,-11.547,-0.88889,-7.7295,-7.6651,5.6683,-9.3968,1.9704,-5.9259
0.88468,-6.6348,-2.8618,5.8824,1.9704,3.7073,-3.8647,3.8003,-4.8953,5.8824,1.9704,-0.98039,-2.8571,-8.6762,-1.8413,-5.7971,-7.6651,4.7021,-9.3968,0.98522,-3.0274
0.88468,-7.5917,-2.8618,4.902,0.98522,1.7561,-5.7971,2.8341,-4.8953,4.902,0.98522,-1.9608,-0.95238,-8.6762,-0.88889,-7.7295,-7.6651,3.7359,-10.349,2.9557,-5.9259
-1.0111,-7.5917,-4.813,6.8627,0.98522,-0.19512,-4.8309,1.868,-1.0306,6.8627,0.98522,-2.9412,0.95238,-7.7193,-1.8413,-10.628,-7.6651,2.7697,-1.7778,1.9704,-8.8245
-1.9589,-4.7209,-6.7642,0.98039,-2.9557,-4.0976,-3.8647,-1.0306,0.90177,0.98039,-2.9557,-5.8824,2.8571,-2.9346,0.06349,-8.6957,-5.7327,3.7359,1.0794,1.9704,-5.9259
-1.9589,-4.7209,-3.8374,-2.9412,-1.9704,-4.0976,-2.8986,-1.0306,-1.0306,-2.9412,-1.9704,-3.9216,6.6667,5.6778,1.0159,-3.8647,-2.8341,1.8035,-0.8254,1.9704,0.83736
-0.06319,-2.807,-0.91057,-0.98039,-0.98522,-2.1463,-1.9324,-0.06441,0.90177,-0.98039,-0.98522,-0.98039,7.619,12.376,1.9683,0.0,0.06441,-0.12882,2.0317,0.98522,4.7021
3.7283,0.0638,2.9919,1.9608,-0.98522,-0.19512,0.96618,-0.06441,1.868,1.9608,-0.98522,1.9608,4.7619,13.333,1.9683,0.0,1.9968,-0.12882,5.8413,-0.98522,6.6345
4.6761,3.8915,5.9187,1.9608,-2.9557,0.78049,0.0,0.90177,-2.963,1.9608,-2.9557,2.9412,3.8095,13.333,2.9206,1.9324,3.9291,0.83736,5.8413,-2.9557,6.6345
5.624,6.7624,7.8699,2.9412,-1.9704,1.7561,1.9324,1.868,-1.0306,2.9412,-1.9704,5.8824,3.8095,14.29,5.7778,4.8309,5.8615,3.7359,2.0317,-0.98522,8.5668
7.5197,9.6332,8.8455,3.9216,0.98522,5.6585,5.7971,5.7327,3.8003,3.9216,0.98522,7.8431,0.95238,13.333,4.8254,4.8309,5.8615,4.7021,2.9841,-1.9704,8.5668
9.4155,9.6332,10.797,10.784,4.9261,10.537,10.628,8.6312,8.6312,10.784,4.9261,12.745,-1.9048,11.419,3.873,3.8647,3.9291,4.7021,11.556,-3.9409,7.6006
9.4155,6.7624,11.772,10.784,5.9113,10.537,9.6618,7.6651,5.7327,10.784,5.9113,14.706,-3.8095,6.6348,1.9683,2.8986,2.963,3.7359,9.6508,-2.9557,4.7021
7.5197,4.8485,9.8211,9.8039,4.9261,10.537,6.7633,12.496,2.8341,9.8039,4.9261,11.765,-3.8095,2.807,0.06349,2.8986,1.9968,3.7359,1.0794,-3.9409,2.7697
3.7283,4.8485,6.8943,5.8824,0.98522,6.6341,4.8309,8.6312,-0.06441,5.8824,0.98522,7.8431,-3.8095,0.89314,-1.8413,2.8986,1.0306,1.8035,-0.8254,-3.9409,2.7697
-2.9068,1.0207,2.0163,-0.98039,-8.867,-1.1707,-4.8309,2.8341,-8.7601,-0.98039,-8.867,-0.98039,-6.6667,-3.8915,-5.6508,0.96618,-0.90177,-0.12882,-5.5873,-7.8818,-1.095
-1.9589,0.0638,1.0407,-3.9216,-7.8818,-3.122,-7.7295,-0.06441,-9.7262,-3.9216,-7.8818,-3.9216,-9.5238,-5.8054,-4.6984,1.9324,-0.90177,-0.12882,-6.5397,-6.8966,-1.095
1.8325,0.0638,3.9675,-3.9216,-5.9113,-0.19512,-5.7971,1.868,-3.9291,-3.9216,-5.9113,-2.9412,-12.381,-6.7624,-2.7937,6.7633,1.9968,-3.0274,1.0794,-7.8818,1.8035
1.8325,0.0638,2.9919,-3.9216,-6.8966,-2.1463,-4.8309,1.868,-1.9968,-3.9216,-6.8966,-4.902,-13.333,-4.8485,-2.7937,10.628,2.963,-2.0612,5.8413,-9.8522,5.6683
0.88468,1.9777,1.0407,-7.8431,-9.8522,-5.0732,-6.7633,0.90177,-1.9968,-7.8431,-9.8522,-8.8235,-9.5238,2.807,-0.88889,13.527,4.8953,-2.0612,0.12698,-5.9113,10.499
2.7804,1.9777,2.0163,-11.765,-10.837,-6.0488,-5.7971,-1.0306,-3.9291,-11.765,-10.837,-7.8431,-5.7143,9.5056,2.9206,13.527,6.8277,-3.0274,3.9365,-1.9704,14.364
2.7804,1.0207,2.0163,-9.8039,-12.808,-6.0488,-6.7633,-2.963,-3.9291,-9.8039,-12.808,-6.8627,-3.8095,8.5486,3.873,10.628,5.8615,1.8035,7.746,-0.98522,11.465
3.7283,1.9777,2.9919,-12.745,-12.808,-7.0244,-5.7971,-5.8615,-5.8615,-12.745,-12.808,-4.902,1.9048,10.463,6.7302,11.594,7.7939,1.8035,8.6984,3.9409,11.465
4.6761,3.8915,3.9675,-11.765,-9.8522,-5.0732,-3.8647,-2.963,-5.8615,-11.765,-9.8522,-3.9216,6.6667,11.419,9.5873,12.56,9.7262,4.7021,5.8413,9.8522,11.465
8.4676,4.8485,5.9187,-9.8039,-9.8522,-0.19512,-1.9324,0.90177,-6.8277,-9.8039,-9.8522,-0.98039,9.5238,10.463,12.444,10.628,10.692,11.465,1.0794,14.778,10.499
10.363,3.8915,8.8455,-8.8235,-9.8522,2.7317,-0.96618,2.8341,-4.8953,-8.8235,-9.8522,1.9608,10.476,8.5486,14.349,6.7633,10.692,11.465,-4.6349,16.749001,6.6345
7.5197,1.9777,8.8455,-6.8627,-10.837,1.7561,-2.8986,-1.0306,-7.7939,-6.8627,-10.837,2.9412,12.381,6.6348,13.397,1.9324,8.7601,7.6006,-6.5397,16.749001,2.7697
2.7804,-1.8501,2.9919,-8.8235,-9.8522,-2.1463,-4.8309,-6.8277,-8.7601,-8.8235,-9.8522,0.98039,14.286,5.6778,9.5873,-2.8986,5.8615,2.7697,-8.4444,14.778,2.7697
-2.9068,-5.6778,-2.8618,-10.784,-10.837,-3.122,-5.7971,-6.8277,-4.8953,-10.784,-10.837,-0.98039,10.476,-1.0207,3.873,-6.7633,0.06441,0.83736,-7.4921,10.837,-1.095
-6.6983,-8.5486,-6.7642,-10.784,-14.778,-6.0488,-10.628,-6.8277,-11.659,-10.784,-14.778,-5.8824,5.7143,-7.7193,-1.8413,-9.6618,-5.7327,-0.12882,-5.5873,5.9113,-4.9597
-8.594,-11.419,-7.7398,-11.765,-17.733999,-7.0244,-15.459,-5.8615,-14.557,-11.765,-17.733999,-10.784,3.8095,-9.6332,-4.6984,-8.6957,-7.6651,-3.9936,-8.4444,3.9409,-4.9597
-10.49,-12.376,-9.6911,-12.745,-18.719,-8.9756,-16.424999,-7.7939,-15.523,-12.745,-18.719,-13.725,1.9048,-9.6332,-8.5079,-6.7633,-10.564,-5.9259,-5.5873,0.98522,-3.0274
-13.333,-11.419,-11.642,-15.686,-20.690001,-11.902,-17.391001,-12.625,-15.523,-15.686,-20.690001,-14.706,0.0,-8.6762,-10.413,-5.7971,-10.564,-11.723,1.0794,-3.9409,-2.0612
-10.49,-5.6778,-8.7154,-17.646999,-17.733999,-9.9512,-11.594,-9.7262,-10.692,-17.646999,-17.733999,-11.765,0.95238,-5.8054,-8.5079,-2.8986,-6.6989,-14.622,3.9365,-4.9261,-1.095
-6.6983,-4.7209,-5.7886,-16.667,-15.764,-9.9512,-12.56,-8.7601,-11.659,-16.667,-15.764,-11.765,5.7143,-0.0638,-3.746,0.96618,-1.868,-11.723,2.0317,-1.9704,-1.095
-3.8547,-5.6778,-3.8374,-15.686,-15.764,-10.927,-12.56,-10.692,-11.659,-15.686,-15.764,-11.765,5.7143,3.764,-3.746,2.8986,1.0306,-3.9936,-0.8254,-5.9113,-1.095
-1.0111,-4.7209,-1.8862,-9.8039,-15.764,-8.0,-11.594,-5.8615,-8.7601,-9.8039,-15.764,-8.8235,5.7143,7.5917,-3.746,2.8986,1.0306,0.83736,-0.8254,-5.9113,1.8035
-1.0111,-3.764,-1.8862,-7.8431,-15.764,-7.0244,-11.594,-1.0306,-10.692,-7.8431,-15.764,-6.8627,8.5714,13.333,-1.8413,3.8647,2.963,-0.12882,-2.7302,-2.9557,5.6683
0.88468,-4.7209,-1.8862,-13.725,-18.719,-8.0,-14.493,-4.8953,-14.557,-13.725,-18.719,-8.8235,12.381,16.204,2.9206,3.8647,5.8615,0.83736,-8.4444,1.9704,6.6345
2.7804,-4.7209,-1.8862,-12.745,-17.733999,-7.0244,-12.56,-1.9968,-13.591,-12.745,-17.733999,-7.8431,12.381,15.247,5.7778,1.9324,6.8277,2.7697,-5.5873,4.9261,3.7359
3.7283,-2.807,0.06504,-11.765,-16.749001,-5.0732,-9.6618,-1.9968,-12.625,-11.765,-16.749001,-5.8824,12.381,13.333,7.6825,0.96618,5.8615,3.7359,-3.6825,6.8966,1.8035
6.5719,3.8915,5.9187,-9.8039,-13.793,-2.1463,-3.8647,-2.963,-8.7601,-9.8039,-13.793,0.0,14.286,14.29,10.54,2.8986,7.7939,3.7359,-1.7778,9.8522,5.6683
8.4676,10.59,8.8455,-5.8824,-8.867,0.78049,2.8986,0.90177,-1.9968,-5.8824,-8.867,4.902,11.429,10.463,11.492,4.8309,7.7939,2.7697,0.12698,9.8522,6.6345
6.5719,4.8485,5.9187,-7.8431,-7.8818,-0.19512,1.9324,-0.06441,2.8341,-7.8431,-7.8818,2.9412,6.6667,4.7209,9.5873,0.96618,4.8953,2.7697,1.0794,7.8818,2.7697
4.6761,0.0638,2.0163,-6.8627,-6.8966,-2.1463,0.96618,-1.9968,1.868,-6.8627,-6.8966,0.98039,4.7619,1.8501,9.5873,-2.8986,2.963,2.7697,2.9841,6.8966,1.8035
4.6761,1.0207,2.0163,-0.98039,-3.9409,2.7317,1.9324,3.8003,2.8341,-0.98039,-3.9409,1.9608,3.8095,0.89314,8.6349,-1.9324,1.9968,2.7697,0.12698,6.8966,1.8035
2.7804,0.0638,1.0407,-2.9412,-3.9409,3.7073,1.9324,0.90177,0.90177,-2.9412,-3.9409,2.9412,0.95238,-1.9777,5.7778,-0.96618,1.0306,-2.0612,1.0794,2.9557,1.8035
1.8325,1.0207,1.0407,-3.9216,-5.9113,3.7073,1.9324,-0.06441,1.868,-3.9216,-5.9113,2.9412,-0.95238,-5.8054,3.873,-0.96618,1.0306,-3.0274,4.8889,0.98522,-3.0274
3.7283,5.8054,3.9675,2.9412,-2.9557,8.5854,5.7971,8.6312,3.8003,2.9412,-2.9557,5.8824,-1.9048,-8.6762,3.873,0.96618,1.9968,-1.095,4.8889,0.0,-5.9259
0.88468,3.8915,1.0407,8.8235,-1.9704,8.5854,2.8986,12.496,-0.06441,8.8235,-1.9704,5.8824,-2.8571,-8.6762,1.0159,0.0,1.0306,-4.9597,2.9841,-1.9704,-8.8245
-2.9068,-0.89314,-3.8374,0.98039,-2.9557,2.7317,-1.9324,6.6989,-5.8615,0.98039,-2.9557,0.98039,-3.8095,-8.6762,-2.7937,-0.96618,-1.868,-3.9936,1.0794,-4.9261,-7.8583
-7.6461,-3.764,-6.7642,-3.9216,-4.9261,-2.1463,-2.8986,1.868,-3.9291,-3.9216,-4.9261,-3.9216,-3.8095,-7.7193,-5.6508,-0.96618,-2.8341,-4.9597,0.12698,-7.8818,-7.8583
-6.6983,1.9777,-3.8374,-0.98039,0.0,-1.1707,5.7971,2.8341,3.8003,-0.98039,0.0,0.0,-1.9048,-3.8915,-4.6984,0.0,-1.868,-5.9259,1.0794,-7.8818,-5.9259
-2.9068,8.6762,2.0163,6.8627,4.9261,2.7317,12.56,6.6989,11.53,6.8627,4.9261,4.902,-0.95238,-1.0207,-2.7937,2.8986,0.06441,-3.9936,4.8889,-6.8966,-2.0612
-1.9589,6.7624,2.9919,3.9216,2.9557,0.78049,8.6957,2.8341,4.7665,3.9216,2.9557,4.902,-3.8095,-1.9777,-2.7937,2.8986,0.06441,-5.9259,6.7937,-8.867,-1.095
-1.9589,4.8485,0.06504,-0.98039,0.0,-0.19512,3.8647,1.868,2.8341,-0.98039,0.0,1.9608,-3.8095,-1.0207,-4.6984,3.8647,0.06441,-5.9259,5.8413,-10.837,1.8035
0.88468,2.9346,2.0163,0.0,0.0,0.78049,2.8986,2.8341,4.7665,0.0,0.0,0.98039,0.0,2.807,-0.88889,4.8309,1.9968,-4.9597,4.8889,-5.9113,5.6683
4.6761,-0.89314,3.9675,3.9216,-0.98522,3.7073,0.96618,3.8003,-1.9968,3.9216,-0.98522,1.9608,0.0,0.89314,0.06349,0.96618,1.0306,1.8035,2.9841,-3.9409,3.7359
6.5719,1.0207,5.9187,3.9216,0.0,6.6341,2.8986,6.6989,-1.9968,3.9216,0.0,4.902,-2.8571,-0.0638,0.06349,0.96618,1.0306,5.6683,2.0317,-4.9261,3.7359
7.5197,0.0638,4.9431,-0.98039,-2.9557,6.6341,1.9324,8.6312,-2.963,-0.98039,-2.9557,3.9216,-2.8571,-1.0207,1.9683,1.9324,2.963,5.6683,1.0794,-1.9704,3.7359
7.5197,1.0207,2.9919,-3.9216,-4.9261,3.7073,-0.96618,4.7665,-2.963,-3.9216,-4.9261,1.9608,-1.9048,-1.9777,4.8254,3.8647,4.8953,7.6006,-4.6349,1.9704,3.7359
6.5719,2.9346,3.9675,-2.9412,-7.8818,-0.19512,-1.9324,2.8341,-3.9291,-2.9412,-7.8818,-0.98039,-2.8571,-2.9346,6.7302,7.7295,6.8277,9.533,-3.6825,3.9409,3.7359
3.7283,1.0207,1.0407,-5.8824,-10.837,-3.122,-4.8309,0.90177,-8.7601,-5.8824,-10.837,-4.902,-1.9048,-3.8915,5.7778,5.7971,4.8953,8.5668,1.0794,5.9113,2.7697
-2.9068,-2.807,-3.8374,-9.8039,-11.823,-7.0244,-5.7971,-3.9291,-6.8277,-9.8039,-11.823,-7.8431,-2.8571,-3.8915,1.0159,0.96618,1.0306,5.6683,1.0794,4.9261,-0.12882
-3.8547,-1.8501,-4.813,-8.8235,-12.808,-5.0732,-6.7633,-1.9968,-10.692,-8.8235,-12.808,-6.8627,-2.8571,-5.8054,0.06349,-0.96618,0.06441,4.7021,-2.7302,3.9409,-3.9936
-1.9589,-3.764,-2.8618,-6.8627,-10.837,-2.1463,-6.7633,0.90177,-12.625,-6.8627,-10.837,-3.9216,0.0,-2.9346,1.9683,-1.9324,1.0306,1.8035,-4.6349,5.9113,-3.9936
1.8325,-2.807,-0.91057,-3.9216,-8.867,3.7073,-4.8309,2.8341,-7.7939,-3.9216,-8.867,0.0,1.9048,0.89314,2.9206,-0.96618,1.0306,3.7359,-4.6349,4.9261,-2.0612
0.88468,-2.807,-0.91057,0.98039,-2.9557,5.6585,-1.9324,1.868,-2.963,0.98039,-2.9557,1.9608,0.95238,-0.0638,0.06349,-3.8647,-0.90177,0.83736,-5.5873,2.9557,-2.0612
-1.9589,-3.764,-2.8618,6.8627,0.98522,4.6829,-1.9324,1.868,-0.06441,6.8627,0.98522,0.0,-0.95238,-1.9777,-2.7937,-7.7295,-3.8003,-3.9936,-11.302,0.0,-3.0274
-0.06319,-5.6778,0.06504,8.8235,0.98522,5.6585,-3.8647,3.8003,-0.06441,8.8235,0.98522,0.0,-0.95238,-2.9346,-1.8413,-6.7633,-3.8003,-4.9597,-9.3968,0.98522,-3.0274
0.88468,-5.6778,1.0407,4.902,1.9704,4.6829,-2.8986,0.90177,2.8341,4.902,1.9704,0.98039,0.95238,-0.0638,-1.8413,-4.8309,-2.8341,-3.9936,1.0794,0.98522,-0.12882
3.7283,-2.807,2.9919,4.902,4.9261,5.6585,0.0,1.868,0.90177,4.902,4.9261,3.9216,2.8571,2.807,0.06349,-3.8647,0.06441,-1.095,5.8413,0.98522,1.8035
3.7283,-0.89314,2.9919,3.9216,2.9557,3.7073,0.0,-0.06441,-1.0306,3.9216,2.9557,2.9412,2.8571,2.807,0.06349,-1.9324,1.9968,-2.0612,3.9365,-1.9704,0.83736
1.8325,1.0207,4.9431,3.9216,2.9557,-0.19512,2.8986,-1.0306,0.90177,3.9216,2.9557,1.9608,4.7619,5.6778,1.9683,2.8986,4.8953,-3.0274,3.9365,0.0,2.7697
1.8325,5.8054,6.8943,3.9216,5.9113,-2.1463,4.8309,0.90177,4.7665,3.9216,5.9113,1.9608,7.619,10.463,5.7778,10.628,9.7262,-0.12882,3.9365,1.9704,7.6006
2.7804,9.6332,5.9187,3.9216,6.8966,-0.19512,4.8309,6.6989,5.7327,3.9216,6.8966,0.98039,6.6667,9.5056,5.7778,13.527,9.7262,0.83736,0.12698,2.9557,8.5668
5.624,11.547,7.8699,4.902,4.9261,2.7317,5.7971,5.7327,7.6651,4.902,4.9261,3.9216,1.9048,6.6348,3.873,13.527,8.7601,6.6345,6.7937,0.0,8.5668
6.5719,9.6332,9.8211,4.902,4.9261,5.6585,5.7971,7.6651,7.6651,4.902,4.9261,5.8824,-3.8095,2.807,0.06349,11.594,4.8953,9.533,9.6508,-3.9409,6.6345
10.363,10.59,11.772,6.8627,9.8522,8.5854,7.7295,10.564,3.8003,6.8627,9.8522,9.8039,-3.8095,-0.0638,2.9206,9.6618,4.8953,11.465,4.8889,-1.9704,2.7697
10.363,6.7624,9.8211,7.8431,7.8818,8.5854,7.7295,10.564,3.8003,7.8431,7.8818,8.8235,-3.8095,-1.0207,4.8254,6.7633,4.8953,14.364,4.8889,0.98522,-1.095
9.4155,3.8915,7.8699,9.8039,5.9113,8.5854,7.7295,12.496,3.8003,9.8039,5.9113,9.8039,-4.7619,-2.9346,4.8254,3.8647,3.9291,14.364,4.8889,0.98522,-3.0274
10.363,3.8915,9.8211,13.725,9.8522,11.512,8.6957,10.564,4.7665,13.725,9.8522,12.745,-3.8095,-3.8915,5.7778,0.96618,2.963,11.465,2.0317,2.9557,-3.9936
8.4676,2.9346,8.8455,10.784,10.837,11.512,10.628,7.6651,9.5974,10.784,10.837,13.725,-5.7143,-7.7193,1.9683,-5.7971,-0.90177,5.6683,-2.7302,-0.98522,-7.8583
3.7283,-1.8501,3.9675,8.8235,8.867,10.537,5.7971,6.6989,1.868,8.8235,8.867,10.784,-6.6667,-11.547,-2.7937,-11.594,-6.6989,2.7697,-8.4444,-2.9557,-14.622
4.6761,-2.807,2.9919,12.745,9.8522,12.488,5.7971,8.6312,0.90177,12.745,9.8522,12.745,-2.8571,-6.7624,-1.8413,-10.628,-5.7327,3.7359,-7.4921,0.0,-12.689
4.6761,-1.8501,2.0163,11.765,5.9113,11.512,3.8647,5.7327,0.90177,11.765,5.9113,9.8039,-1.9048,-1.9777,-2.7937,-7.7295,-3.8003,1.8035,-4.6349,-1.9704,-9.7907
3.7283,-0.89314,2.9919,8.8235,4.9261,9.561,0.96618,0.90177,-3.9291,8.8235,4.9261,6.8627,-1.9048,1.8501,-3.746,-3.8647,-2.8341,0.83736,-4.6349,-3.9409,-4.9597
2.7804,-2.807,2.0163,1.9608,0.0,5.6585,-1.9324,-2.963,-1.0306,1.9608,0.0,2.9412,-0.95238,5.6778,-3.746,-2.8986,-1.868,-4.9597,-2.7302,-3.9409,-2.0612
-4.8025,-7.5917,-6.7642,-1.9608,-3.9409,-1.1707,-5.7971,-3.9291,-2.963,-1.9608,-3.9409,-3.9216,-1.9048,5.6778,-8.5079,-5.7971,-5.7327,-9.7907,0.12698,-6.8966,-1.095
-10.49,-8.5486,-11.642,0.98039,-0.98522,-5.0732,-6.7633,-1.0306,-1.9968,0.98039,-0.98522,-8.8235,-1.9048,5.6778,-10.413,-5.7971,-7.6651,-10.757,-0.8254,-6.8966,1.8035
-6.6983,-5.6778,-7.7398,3.9216,1.9704,-6.0488,-4.8309,-1.9968,1.868,3.9216,1.9704,-8.8235,0.95238,7.5917,-4.6984,0.0,-3.8003,-9.7907,-0.8254,-1.9704,5.6683
-5.7504,-1.8501,-5.7886,2.9412,3.9409,-7.0244,-4.8309,-2.963,0.90177,2.9412,3.9409,-8.8235,4.7619,10.463,0.06349,4.8309,1.0306,-5.9259,-2.7302,0.98522,9.533
-6.6983,-1.8501,-6.7642,-2.9412,2.9557,-8.9756,-5.7971,-5.8615,-0.06441,-2.9412,2.9557,-9.8039,2.8571,6.6348,0.06349,3.8647,0.06441,-3.0274,-1.7778,-0.98522,6.6345
-5.7504,-2.807,-7.7398,-1.9608,0.98522,-8.9756,-4.8309,-6.8277,-1.9968,-1.9608,0.98522,-8.8235,0.0,3.764,0.06349,3.8647,-0.90177,-3.9936,2.9841,-0.98522,6.6345
-7.6461,-1.8501,-8.7154,0.0,-0.98522,-8.0,-4.8309,-2.963,-2.963,0.0,-0.98522,-7.8431,-2.8571,1.8501,-1.8413,3.8647,-1.868,-4.9597,3.9365,-3.9409,7.6006
-3.8547,-0.89314,-3.8374,-0.98039,0.0,-5.0732,-0.96618,-0.06441,-0.06441,-0.98039,0.0,-3.9216,-2.8571,1.8501,-0.88889,5.7971,0.06441,-2.0612,3.9365,-3.9409,8.5668
-1.0111,1.0207,-1.8862,-0.98039,2.9557,-3.122,0.96618,-0.06441,1.868,-0.98039,2.9557,-0.98039,-2.8571,0.89314,-0.88889,1.9324,-0.90177,-2.0612,4.8889,-1.9704,6.6345
-1.0111,-1.8501,-1.8862,-0.98039,1.9704,-3.122,1.9324,-0.06441,2.8341,-0.98039,1.9704,0.0,-5.7143,-4.8485,-2.7937,-5.7971,-4.7665,-3.0274,4.8889,-1.9704,-2.0612
-1.0111,-0.89314,0.06504,0.98039,2.9557,-1.1707,2.8986,-0.06441,5.7327,0.98039,2.9557,1.9608,-3.8095,-3.8915,-3.746,-7.7295,-4.7665,1.8035,0.12698,-0.98522,-5.9259
-1.0111,0.0638,2.9919,0.98039,2.9557,-1.1707,1.9324,-1.0306,-1.9968,0.98039,2.9557,1.9608,-1.9048,-0.0638,-3.746,-5.7971,-3.8003,1.8035,-3.6825,-0.98522,-4.9597
-1.9589,3.8915,4.9431,-0.98039,0.98522,-2.1463,0.0,-1.9968,-6.8277,-0.98039,0.98522,0.98039,0.0,2.807,-2.7937,-2.8986,-1.868,-2.0612,-5.5873,-0.98522,-4.9597
-1.9589,1.9777,5.9187,0.0,1.9704,-1.1707,0.0,-2.963,-1.9968,0.0,1.9704,1.9608,0.0,1.8501,-2.7937,-1.9324,-1.868,-0.12882,-5.5873,-1.9704,-3.9936
-2.9068,-1.8501,0.06504,-0.98039,1.9704,-0.19512,0.0,-1.9968,-1.0306,-0.98039,1.9704,0.0,-0.95238,-0.0638,-4.6984,-4.8309,-4.7665,-1.095,-3.6825,-2.9557,-4.9597
-4.8025,-1.8501,-2.8618,-1.9608,0.98522,-2.1463,0.96618,-1.9968,1.868,-1.9608,0.98522,-1.9608,0.0,-1.0207,-4.6984,-3.8647,-4.7665,0.83736,0.12698,-0.98522,-3.0274
-5.7504,-3.764,-1.8862,-5.8824,0.0,-5.0732,-0.96618,-6.8277,0.90177,-5.8824,0.0,-4.902,-0.95238,-0.0638,-4.6984,-1.9324,-3.8003,-3.0274,1.0794,-1.9704,-1.095
-3.8547,-0.89314,1.0407,-7.8431,-1.9704,-5.0732,-1.9324,-5.8615,1.868,-7.8431,-1.9704,-5.8824,-0.95238,0.89314,-0.88889,0.96618,-0.90177,-6.8921,3.9365,-0.98522,0.83736
-1.9589,-0.89314,1.0407,-4.902,-3.9409,-3.122,-2.8986,-3.9291,-2.963,-4.902,-3.9409,-5.8824,0.0,1.8501,1.9683,0.96618,0.06441,-5.9259,3.9365,0.98522,1.8035
-3.8547,-2.807,-1.8862,-5.8824,-4.9261,-4.0976,-5.7971,-4.8953,-6.8277,-5.8824,-4.9261,-6.8627,-0.95238,3.764,-0.88889,0.0,-1.868,-1.095,-0.8254,-1.9704,4.7021
-2.9068,-3.764,-1.8862,-8.8235,-4.9261,-5.0732,-4.8309,-3.9291,-3.9291,-8.8235,-4.9261,-6.8627,0.0,3.764,-0.88889,0.0,-1.868,2.7697,0.12698,-0.98522,3.7359
0.88468,-1.8501,0.06504,-7.8431,-1.9704,-2.1463,-1.9324,0.90177,-1.0306,-7.8431,-1.9704,-3.9216,0.95238,3.764,1.9683,0.96618,0.06441,5.6683,2.0317,1.9704,1.8035
0.88468,-1.8501,0.06504,-5.8824,-1.9704,-0.19512,0.0,-1.9968,-0.06441,-5.8824,-1.9704,-1.9608,-0.95238,0.89314,1.0159,-0.96618,0.06441,2.7697,1.0794,1.9704,0.83736
-1.9589,-3.764,-4.813,-6.8627,-3.9409,-2.1463,-0.96618,-1.9968,-1.0306,-6.8627,-3.9409,-2.9412,-3.8095,-4.8485,-2.7937,-4.8309,-4.7665,-3.0274,-2.7302,0.0,-2.0612
-1.9589,-2.807,-6.7642,-3.9216,-0.98522,0.78049,1.9324,0.90177,1.868,-3.9216,-0.98522,0.0,-1.9048,-5.8054,-1.8413,-3.8647,-3.8003,-0.12882,-6.5397,2.9557,-3.0274
-1.0111,1.9777,-2.8618,1.9608,2.9557,4.6829,2.8986,1.868,1.868,1.9608,2.9557,3.9216,-0.95238,-4.8485,-0.88889,-0.96618,-1.868,2.7697,-6.5397,2.9557,-3.9936
-0.06319,-0.89314,-0.91057,2.9412,3.9409,3.7073,0.0,1.868,-2.963,2.9412,3.9409,3.9216,-2.8571,-7.7193,-0.88889,-1.9324,-1.868,5.6683,-0.8254,0.98522,-5.9259
-3.8547,-3.764,-4.813,0.98039,1.9704,0.78049,-2.8986,1.868,-3.9291,0.98039,1.9704,-0.98039,-2.8571,-8.6762,-1.8413,-2.8986,-1.868,3.7359,-2.7302,0.98522,-6.8921
-7.6461,-5.6778,-11.642,0.0,-0.98522,-3.122,-2.8986,-1.9968,-1.0306,0.0,-0.98522,-4.902,-2.8571,-9.6332,-2.7937,-3.8647,-3.8003,-0.12882,-1.7778,0.98522,-5.9259
-9.5419,-7.5917,-14.569,-1.9608,-1.9704,-7.0244,-5.7971,-6.8277,-1.9968,-1.9608,-1.9704,-7.8431,-2.8571,-9.6332,-4.6984,-4.8309,-5.7327,-3.9936,1.0794,0.98522,-4.9597
-8.594,-6.6348,-10.667,-3.9216,1.9704,-7.0244,-3.8647,-5.8615,-0.06441,-3.9216,1.9704,-6.8627,-0.95238,-5.8054,-3.746,-2.8986,-3.8003,-3.9936,2.9841,1.9704,-1.095
-8.594,-6.6348,-7.7398,-3.9216,-1.9704,-8.9756,-4.8309,-5.8615,-1.0306,-3.9216,-1.9704,-7.8431,-1.9048,-5.8054,-4.6984,-2.8986,-2.8341,-2.0612,1.0794,-0.98522,-0.12882
-7.6461,-5.6778,-5.7886,-3.9216,-3.9409,-8.0,-4.8309,-4.8953,-5.8615,-3.9216,-3.9409,-5.8824,0.0,-1.9777,-5.6508,-1.9324,-2.8341,-2.0612,-2.7302,0.0,0.83736
-8.594,-4.7209,-5.7886,-3.9216,-1.9704,-7.0244,-4.8309,-6.8277,-5.8615,-3.9216,-1.9704,-3.9216,0.95238,-0.0638,-6.6032,-3.8647,-2.8341,-1.095,-4.6349,-0.98522,0.83736
-9.5419,-4.7209,-3.8374,-5.8824,-0.98522,-7.0244,-3.8647,-7.7939,-2.963,-5.8824,-0.98522,-2.9412,0.95238,-0.0638,-8.5079,-6.7633,-3.8003,-2.0612,-6.5397,-2.9557,-2.0612
-10.49,-0.89314,-2.8618,-3.9216,-0.98522,-7.0244,-1.9324,-6.8277,-4.8953,-3.9216,-0.98522,-0.98039,0.95238,-1.9777,-8.5079,-6.7633,-3.8003,-3.9936,-7.4921,-1.9704,-3.0274
-11.438,-3.764,-4.813,-2.9412,-1.9704,-7.0244,-0.96618,-6.8277,-1.9968,-2.9412,-1.9704,-1.9608,-0.95238,-3.8915,-9.4603,-5.7971,-4.7665,-4.9597,-2.7302,-4.9261,-3.9936
-7.6461,-3.764,-4.813,-1.9608,2.9557,-3.122,2.8986,-1.9968,4.7665,-1.9608,2.9557,0.0,-3.8095,-7.7193,-8.5079,-5.7971,-5.7327,-3.9936,2.0317,-5.9113,-5.9259
-1.0111,1.9777,-0.91057,2.9412,9.8522,1.7561,7.7295,0.90177,10.564,2.9412,9.8522,4.902,-5.7143,-11.547,-4.6984,-3.8647,-3.8003,-3.0274,2.0317,-5.9113,-6.8921
5.624,7.7193,5.9187,8.8235,18.719,6.6341,15.459,0.90177,13.462,8.8235,18.719,10.784,-6.6667,-12.504,0.06349,0.96618,0.06441,-1.095,4.8889,-1.9704,-5.9259
9.4155,11.547,8.8455,13.725,20.690001,10.537,18.357,3.8003,18.292999,13.725,20.690001,13.725,-5.7143,-8.6762,4.8254,4.8309,3.9291,2.7697,6.7937,0.98522,-3.0274
12.259,12.504,11.772,18.627001,21.674999,14.439,19.323999,6.6989,21.191999,18.627001,21.674999,16.667,-3.8095,-5.8054,8.6349,6.7633,5.8615,6.6345,5.8413,1.9704,-1.095
15.103,14.418,14.699,15.686,19.704,16.389999,16.424999,9.5974,17.327,15.686,19.704,16.667,0.0,-1.9777,13.397,10.628,9.7262,10.499,5.8413,5.9113,2.7697
15.103,12.504,12.748,12.745,18.719,14.439,13.527,8.6312,16.361,12.745,18.719,13.725,2.8571,3.764,16.254,12.56,11.659,8.5668,10.603,6.8966,7.6006
12.259,7.7193,7.8699,13.725,16.749001,11.512,10.628,8.6312,18.292999,13.725,16.749001,9.8039,1.9048,5.6778,14.349,11.594,9.7262,6.6345,11.556,4.9261,10.499
9.4155,8.6762,5.9187,14.706,18.719,9.561,12.56,4.7665,16.361,14.706,18.719,7.8431,0.95238,6.6348,11.492,10.628,8.7601,6.6345,10.603,2.9557,10.499
11.311,9.6332,7.8699,12.745,19.704,7.6098,12.56,1.868,11.53,12.745,19.704,7.8431,4.7619,9.5056,12.444,9.6618,9.7262,3.7359,9.6508,6.8966,10.499
11.311,5.8054,6.8943,10.784,17.733999,6.6341,8.6957,2.8341,8.6312,10.784,17.733999,6.8627,7.619,10.463,12.444,5.7971,9.7262,9.533,5.8413,9.8522,9.533
5.624,0.0638,2.0163,10.784,15.764,4.6829,3.8647,1.868,7.6651,10.784,15.764,2.9412,6.6667,9.5056,7.6825,2.8986,5.8615,8.5668,2.9841,4.9261,8.5668
-0.06319,-3.764,-1.8862,10.784,12.808,0.78049,1.9324,-1.0306,6.6989,10.784,12.808,0.0,9.5238,11.419,4.8254,0.96618,5.8615,1.8035,1.0794,4.9261,9.533
-4.8025,-7.5917,-4.813,6.8627,9.8522,-4.0976,0.0,-2.963,4.7665,6.8627,9.8522,-2.9412,9.5238,8.5486,1.9683,-2.8986,2.963,-1.095,-0.8254,5.9113,4.7021
-10.49,-4.7209,-8.7154,0.98039,9.8522,-8.9756,0.96618,-5.8615,4.7665,0.98039,9.8522,-5.8824,4.7619,2.807,-3.746,-5.7971,-1.868,-2.0612,-3.6825,3.9409,-0.12882
-12.385,-3.764,-9.6911,2.9412,11.823,-10.927,1.9324,-7.7939,3.8003,2.9412,11.823,-6.8627,2.8571,-0.0638,-7.5556,-5.7971,-4.7665,-3.0274,-2.7302,1.9704,-2.0612
-12.385,-2.807,-8.7154,8.8235,10.837,-10.927,0.96618,-4.8953,6.6989,8.8235,10.837,-6.8627,2.8571,-1.0207,-7.5556,-3.8647,-5.7327,0.83736,-3.6825,0.98522,-2.0612
-7.6461,-1.8501,-4.813,9.8039,10.837,-7.0244,0.96618,-1.0306,4.7665,9.8039,10.837,-4.902,1.9048,-1.9777,-5.6508,-0.96618,-3.8003,-2.0612,-6.5397,1.9704,-1.095
-2.9068,0.0638,-0.91057,5.8824,10.837,-3.122,1.9324,-0.06441,5.7327,5.8824,10.837,-1.9608,1.9048,-3.8915,-2.7937,0.96618,0.06441,-1.095,-1.7778,1.9704,-3.0274
-1.0111,-0.89314,1.0407,5.8824,13.793,-0.19512,3.8647,-1.9968,5.7327,5.8824,13.793,1.9608,0.95238,-2.9346,-3.746,0.0,0.06441,-3.0274,3.9365,-1.9704,-3.0274
0.88468,1.0207,2.9919,8.8235,11.823,1.7561,2.8986,-1.0306,3.8003,8.8235,11.823,3.9216,3.8095,4.7209,-2.7937,2.8986,0.06441,-5.9259,1.0794,-1.9704,1.8035
5.624,4.8485,7.8699,7.8431,8.867,4.6829,3.8647,0.90177,3.8003,7.8431,8.867,5.8824,9.5238,11.419,1.9683,7.7295,4.8953,-3.9936,2.0317,1.9704,6.6345
4.6761,4.8485,7.8699,6.8627,6.8966,4.6829,2.8986,0.90177,1.868,6.8627,6.8966,5.8824,10.476,14.29,1.9683,7.7295,5.8615,-5.9259,2.9841,-0.98522,7.6006
4.6761,4.8485,8.8455,10.784,9.8522,5.6585,5.7971,1.868,2.8341,10.784,9.8522,6.8627,10.476,14.29,2.9206,8.6957,7.7939,-4.9597,4.8889,-0.98522,8.5668
6.5719,5.8054,10.797,12.745,8.867,7.6098,4.8309,1.868,1.868,12.745,8.867,7.8431,9.5238,14.29,2.9206,10.628,7.7939,-2.0612,3.9365,-0.98522,8.5668
7.5197,5.8054,11.772,7.8431,4.9261,6.6341,3.8647,1.868,2.8341,7.8431,4.9261,5.8824,7.619,13.333,2.9206,11.594,6.8277,-3.9936,2.0317,-1.9704,10.499
3.7283,4.8485,7.8699,3.9216,3.9409,3.7073,3.8647,1.868,5.7327,3.9216,3.9409,2.9412,3.8095,7.5917,-0.88889,6.7633,1.0306,-2.0612,3.9365,-3.9409,7.6006
3.7283,3.8915,4.9431,3.9216,2.9557,3.7073,4.8309,2.8341,6.6989,3.9216,2.9557,1.9608,-1.9048,-1.0207,-1.8413,0.0,-3.8003,1.8035,8.6984,-3.9409,0.83736
4.6761,2.9346,4.9431,1.9608,0.98522,3.7073,0.96618,-0.06441,0.90177,1.9608,0.98522,1.9608,-5.7143,-8.6762,-2.7937,-4.8309,-5.7327,1.8035,6.7937,-4.9261,-3.9936
6.5719,4.8485,6.8943,0.98039,0.98522,6.6341,0.96618,-0.06441,-1.0306,0.98039,0.98522,2.9412,-6.6667,-13.461,-1.8413,-4.8309,-4.7665,3.7359,4.8889,-4.9261,-7.8583
