C3,C4,Cz,F1,F2,F3,F4,F7,F8,Fp1,Fp2,Fz,O1,O2,P3,P4,Pz,T3,T4,T5,T6
-9.5597,-1.7778,-3.9024,8.3495,7.8431,-8.065,3.2206,-0.06441,-1.3592,8.3495,7.8431,1.3201,-5.0553,-3.2381,-10.667,-4.5089,-6.4412,-3.3333,2.6032,-6.5359,-0.76923
-18.365,-3.0476,-12.358,1.877,3.9216,3.6423,3.2206,0.57971,16.117001,1.877,3.9216,-7.2607,-6.951,-7.0476,-15.746,-5.7971,-12.238,3.0769,5.7778,-6.5359,-1.4103
-17.107,2.6667,-13.659,-2.6537,3.268,-9.3659,2.5765,-6.5056,2.5243,-2.6537,3.268,-9.901,-6.3191,-3.873,-14.476,-3.2206,-12.882,-12.949,1.3333,-5.2288,-1.4103
-5.7862,25.524,-2.6016,3.8188,11.765,-4.813,36.070999,-3.285,19.353001,3.8188,11.765,1.9802,-1.2638,3.746,-6.2222,9.0177,-4.5089,3.7179,11.492,-3.268,8.8462
-15.849,-4.3175,-14.309,-0.71197,1.9608,-4.1626,0.0,1.2238,-0.71197,-0.71197,1.9608,-11.221,-5.0553,-1.9683,-10.032,-3.8647,-10.95,3.0769,8.3175,-3.9216,3.7179
-14.591,-25.905001,-24.065001,-9.1262,-7.8431,-9.3659,-28.986,-0.06441,-5.89,-9.1262,-7.8431,-21.782,-8.2148,-9.5873,-5.5873,-16.103001,-14.815,5.641,-2.4762,0.0,-9.7436
-2.0126,-15.111,-13.008,-8.479,-7.1895,-14.569,-11.594,1.2238,-9.7735,-8.479,-7.1895,-13.201,-4.4234,-10.222,1.3968,-12.882,-7.7295,-2.0513,-11.365,0.0,-11.667
1.761,-21.459999,-13.659,-14.951,-17.646999,-49.041,-21.9,-14.235,-15.599,-14.951,-17.646999,-21.782,-5.0553,-13.397,3.3016,-18.035,-9.6618,-2.6923,-18.983999,-1.9608,-18.077
-4.5283,-25.905001,-16.910999,-20.777,-15.033,-3.5122,-15.459,-12.303,-14.304,-20.777,-15.033,-17.822001,-8.8468,-15.937,1.3968,-23.833,-12.238,7.5641,-17.714001,-1.9608,-20.0
8.6792,-18.285999,-6.5041,-20.777,-13.072,7.5447,-14.815,-12.303,-30.485001,-20.777,-13.072,-7.2607,1.2638,-7.6825,9.0159,-14.171,-3.2206,6.9231,-17.714001,4.5752,-12.308
8.0503,-15.746,-5.8537,-3.9482,-9.1503,-3.5122,-16.103001,-11.014,-11.068,-3.9482,-9.1503,-7.2607,12.638,5.0159,13.46,-8.3736,2.5765,-3.9744,-9.4603,9.1503,-3.3333
9.3082,-11.937,-1.9512,-1.3592,-3.268,-10.016,-4.5089,1.868,0.58252,-1.3592,-3.268,-3.9604,17.062,10.73,16.635,-1.9324,8.3736,0.51282,-1.2063,11.111,5.641
11.824,-13.206,0.0,-0.71197,-5.2288,6.8943,-10.306,-1.3527,13.528,-0.71197,-5.2288,-3.9604,12.638,10.73,12.825,-3.2206,7.0853,-14.872,1.9683,7.8431,3.7179
6.7925,-6.8571,2.6016,3.1715,-1.3072,1.6911,-13.527,-3.285,0.58252,3.1715,-1.3072,-0.66007,13.27,12.635,11.556,0.64412,8.3736,1.7949,2.6032,5.2288,3.7179
-3.8994,-3.0476,-3.252,-11.068,-7.8431,12.748,1.9324,-3.285,-3.9482,-11.068,-7.8431,0.66007,7.5829,8.8254,-0.50794,-2.5765,0.64412,5.0,1.3333,3.268,6.9231
-13.962,-11.302,-12.358,-9.7735,-7.1895,-15.22,-11.594,0.57971,-9.1262,-9.7735,-7.1895,-10.561,1.2638,3.746,-9.3968,-7.7295,-7.7295,-6.5385,-0.57143,-2.6144,1.1538
-7.044,-5.5873,-7.1545,-3.9482,-5.2288,-13.268,-7.0853,-3.285,7.7023,-3.9482,-5.2288,-9.2409,2.5276,3.746,-6.2222,-2.5765,-5.153,5.641,7.6825,1.3072,3.0769
-8.9308,7.1111,-7.1545,-5.2427,-7.1895,-2.2114,10.95,-5.8615,-2.0065,-5.2427,-7.1895,-5.9406,-1.2638,1.8413,-10.667,-3.2206,-9.6618,7.5641,8.3175,0.65359,6.2821
-17.107,5.2063,-10.407,-3.301,-4.5752,-26.927,1.9324,-0.70853,17.410999,-3.301,-4.5752,-11.881,-1.2638,1.8413,-8.7619,0.0,-8.3736,-2.6923,20.381001,-1.9608,12.692
-8.9308,11.556,-8.4553,-9.1262,-7.8431,-3.5122,9.0177,-5.8615,-3.9482,-9.1262,-7.8431,-12.541,-0.63191,-1.9683,-1.1429,3.8647,-3.8647,1.1538,14.032,0.0,5.641
5.5346,8.381,-5.2033,-19.482,-6.5359,12.098,-1.2882,-1.3527,9.644,-19.482,-6.5359,-11.221,5.0553,2.4762,10.286,6.4412,1.2882,6.9231,12.762,5.8824,2.4359
14.34,16.0,3.252,-3.9482,1.9608,4.2927,5.7971,8.9533,7.055,-3.9482,1.9608,-3.3003,5.6872,6.2857,14.73,12.238,7.0853,13.333,19.746,7.8431,13.333
16.226,10.921,5.8537,3.8188,-1.9608,-0.26016,3.2206,3.1562,17.410999,3.8188,-1.9608,-3.3003,0.63191,-0.06349,15.365,8.3736,5.153,11.41,22.285999,7.8431,6.9231
18.742001,9.0159,10.407,-2.0065,6.5359,1.6911,8.3736,-5.2174,16.117001,-2.0065,6.5359,6.6007,0.0,0.57143,17.905001,7.0853,7.7295,6.9231,21.650999,6.5359,9.4872
14.969,9.0159,6.5041,-5.2427,1.3072,9.4959,5.7971,-4.5733,7.055,-5.2427,1.3072,4.6205,-4.4234,-6.4127,11.556,3.8647,3.8647,8.2051,11.492,5.2288,-0.12821
19.371,15.365,9.7561,14.822,13.725,14.049,18.035,-4.5733,20.646999,14.822,13.725,10.561,-1.2638,-3.2381,12.825,6.4412,8.3736,4.359,12.762,3.9216,1.7949
18.113001,18.540001,10.407,-6.5372,9.8039,1.0407,16.103001,0.57971,16.764,-6.5372,9.8039,11.881,0.0,1.2063,15.365,9.6618,10.306,2.4359,20.381001,8.4967,7.5641
-3.8994,2.6667,1.3008,1.877,3.9216,0.39024,7.7295,5.7327,8.3495,1.877,3.9216,5.9406,-3.7915,-6.4127,-1.1429,0.0,0.0,14.615,12.127,1.9608,-2.0513
2.3899,9.0159,9.1057,12.233,10.458,14.699,14.171,12.818,9.644,12.233,10.458,14.521,0.0,-5.7778,0.7619,3.8647,3.8647,5.0,10.857,5.2288,-1.4103
1.1321,10.921,5.2033,11.586,10.458,-6.7642,14.171,1.868,8.3495,11.586,10.458,11.221,0.63191,-1.3333,-0.50794,3.8647,1.2882,-5.2564,7.0476,5.8824,0.51282
-12.704,-4.3175,-7.8049,13.528,11.765,11.447,1.2882,1.2238,18.058001,13.528,11.765,7.2607,-3.1596,-4.5079,-15.111,-5.153,-9.0177,-7.8205,8.9524,-0.65359,-3.3333
-13.962,-4.3175,-9.7561,8.9968,9.8039,13.398,5.7971,-1.9968,19.353001,8.9968,9.8039,6.6007,-7.5829,-8.3175,-20.190001,-10.306,-14.171,-21.923,-1.8413,-3.268,-5.8974
-16.478001,-8.7619,-4.5528,5.7605,12.418,21.202999,1.9324,8.3092,10.939,5.7605,12.418,13.861,-6.951,-7.6825,-19.556,-11.594,-14.171,5.0,0.06349,-6.5359,-3.3333
-5.7862,-5.5873,2.6016,16.117001,5.8824,26.407,-1.9324,8.9533,1.2298,16.117001,5.8824,13.201,-5.6872,-4.5079,-18.285999,-11.594,-11.594,5.641,3.873,-9.1503,-4.6154
-14.591,-8.127,-2.6016,22.589001,9.1503,6.2439,1.2882,7.0209,3.8188,22.589001,9.1503,4.6205,-5.6872,-5.1429,-17.650999,-13.527,-14.171,-17.436001,-6.9206,-6.5359,-6.5385
-12.704,2.6667,-3.9024,5.7605,7.1895,10.146,0.64412,-0.70853,-3.301,5.7605,7.1895,2.6403,-3.1596,-2.6032,-13.206,-5.7971,-10.306,-13.59,-2.4762,-8.4967,-0.76923
0.50314,6.4762,1.9512,3.1715,8.4967,6.2439,5.7971,-3.9291,9.644,3.1715,8.4967,5.9406,1.2638,3.746,-4.9524,1.2882,-3.2206,-7.8205,1.3333,-1.9608,3.0769
6.1635,13.46,11.057,15.469,10.458,8.1951,14.171,7.0209,16.764,15.469,10.458,13.861,5.6872,7.5556,2.0317,9.0177,3.8647,-2.6923,3.873,-0.65359,2.4359
9.3082,14.095,10.407,0.58252,9.1503,-0.91057,18.035,-4.5733,6.4078,0.58252,9.1503,10.561,1.8957,1.8413,1.3968,9.0177,4.5089,-0.76923,4.5079,-5.2288,0.51282
8.6792,3.9365,9.7561,7.7023,7.1895,10.797,0.64412,5.0886,10.291,7.7023,7.1895,8.5809,1.8957,0.57143,3.3016,7.0853,3.8647,6.9231,4.5079,-1.3072,-2.6923
17.483999,20.444,18.862,6.4078,18.301001,29.659,20.612,14.75,20.0,6.4078,18.301001,19.802,7.5829,5.6508,11.556,16.747,13.527,-8.4615,14.032,0.65359,10.769
14.34,21.714001,14.959,5.7605,8.4967,7.5447,24.476999,-1.3527,14.822,5.7605,8.4967,13.201,5.0553,6.9206,10.286,16.747,12.882,5.0,14.667,0.0,8.8462
16.855,26.159,18.862,9.644,9.8039,21.202999,27.052999,-2.6409,-5.2427,9.644,9.8039,15.182,5.6872,3.746,10.286,18.68,14.815,0.51282,12.127,1.3072,3.0769
4.9057,18.540001,13.008,1.2298,5.8824,1.0407,4.5089,2.5121,20.0,1.2298,5.8824,1.3201,1.8957,2.4762,4.5714,16.103001,11.594,-13.59,14.667,-5.2288,5.641
13.711,17.905001,14.959,-7.1845,5.2288,-4.813,4.5089,-8.438,20.0,-7.1845,5.2288,0.66007,5.6872,6.2857,11.556,19.323999,16.747,-0.12821,14.667,5.8824,7.5641
-5.7862,14.095,11.707,-2.6537,-1.3072,5.5935,5.153,-17.455999,0.58252,-2.6537,-1.3072,-1.3201,1.2638,3.746,0.7619,18.035,14.171,0.51282,12.127,-1.3072,8.2051
-8.9308,6.4762,1.9512,-9.1262,-10.458,-14.569,-14.171,-11.659,-6.5372,-9.1262,-10.458,-13.201,-0.63191,5.6508,-1.7778,14.815,10.95,-11.667,5.1429,-1.9608,8.2051
-5.1572,7.1111,0.65041,-16.246,-8.4967,-24.325001,-0.64412,-18.743999,-9.7735,-16.246,-8.4967,-12.541,0.0,5.0159,2.6667,10.95,10.306,-3.9744,2.6032,0.0,6.9231
-7.044,3.9365,-0.65041,-16.893,-5.8824,-12.618,-1.2882,-5.8615,-2.6537,-16.893,-5.8824,-4.6205,0.0,5.0159,-1.1429,7.7295,7.0853,-7.1795,-1.2063,-1.9608,4.359
-0.12579,-4.3175,3.9024,-7.8317,-1.3072,2.9919,-4.5089,-7.1498,-3.9482,-7.8317,-1.3072,-0.66007,1.2638,5.6508,1.3968,5.153,7.7295,-14.872,7.6825,-1.3072,7.5641
11.824,3.9365,12.358,-7.8317,-2.6144,-13.919,-5.7971,-17.455999,-2.6537,-7.8317,-2.6144,0.0,4.4234,6.9206,9.0159,9.6618,13.527,-20.641001,1.9683,3.268,6.2821
6.7925,-2.4127,8.4553,-5.89,0.65359,-8.7154,-7.7295,-1.9968,2.5243,-5.89,0.65359,0.0,6.3191,5.0159,5.2063,5.7971,9.6618,19.103001,-2.4762,-4.5752,3.7179
-6.4151,-13.206,-3.9024,1.2298,-9.1503,4.2927,-21.256001,1.868,-15.599,1.2298,-9.1503,-6.6007,5.6872,5.0159,-3.0476,-2.5765,1.2882,-4.6154,-12.635,-3.9216,-2.0513
-9.5597,-9.3968,-4.5528,-1.3592,-11.765,28.358,-3.2206,-1.3527,-30.485001,-1.3592,-11.765,7.2607,4.4234,3.1111,-8.127,-6.4412,-2.5765,-7.1795,-15.81,-1.9608,-2.0513
-10.818,-17.650999,-11.707,-2.0065,-4.5752,-20.423,-21.256001,5.0886,-10.421,-2.0065,-4.5752,-6.6007,-2.5276,-5.1429,-10.667,-14.815,-11.594,0.51282,-20.889,-6.5359,-10.385
3.6478,-18.921,-6.5041,14.175,5.2288,11.447,-12.238,7.6651,-11.068,14.175,5.2288,1.9802,-3.1596,-7.6825,-6.8571,-17.391001,-10.306,-15.513,-16.444,-3.268,-12.949
-8.9308,-10.032,-7.1545,15.469,3.9216,-2.8618,2.5765,13.462,16.764,15.469,3.9216,3.9604,-0.63191,-5.7778,-11.937,-16.747,-13.527,13.974,-12.635,-4.5752,-11.026
-7.673,-13.841,-9.1057,8.9968,12.418,8.1951,3.8647,8.9533,8.9968,8.9968,12.418,3.9604,1.2638,-5.1429,-10.032,-16.103001,-12.882,15.897,-6.9206,-1.3072,-6.5385
-2.6415,-11.937,-11.057,7.055,8.4967,19.902,6.4412,6.3768,10.939,7.055,8.4967,3.3003,-0.63191,-4.5079,-7.4921,-17.391001,-12.882,9.4872,-5.0159,-1.3072,-10.385
-8.3019,-13.206,-12.358,6.4078,6.5359,2.9919,14.171,5.7327,1.877,6.4078,6.5359,-0.66007,-5.6872,-5.7778,-8.127,-16.747,-13.527,12.051,-6.9206,0.65359,-8.4615
-2.0126,-5.5873,-4.5528,3.8188,5.2288,19.902,3.8647,-4.5733,-0.06472,3.8188,5.2288,3.9604,-3.7915,-3.2381,-6.2222,-8.3736,-8.3736,8.2051,-4.381,-1.9608,-2.6923
-9.5597,-4.9524,-5.8537,-7.8317,1.9608,-21.073,-3.2206,2.5121,10.291,-7.8317,1.9608,1.9802,-5.6872,-2.6032,-6.8571,-7.7295,-7.7295,-2.0513,-0.57143,-4.5752,-0.76923
-7.044,-5.5873,-5.8537,-3.301,-4.5752,-3.5122,5.153,-5.8615,-2.6537,-3.301,-4.5752,-1.9802,-10.111,-8.3175,-5.5873,-10.95,-9.0177,5.0,-2.4762,-2.6144,-5.8974
-0.75472,0.12698,-1.3008,-3.9482,-9.1503,-15.22,1.2882,-3.285,-1.3592,-3.9482,-9.1503,-0.66007,-8.2148,-5.1429,-1.1429,-7.0853,-5.153,-5.8974,-5.0159,-3.268,-5.8974
11.195,7.746,5.2033,-18.188,-1.3072,-0.26016,7.0853,7.6651,-2.0065,-18.188,-1.3072,3.9604,-1.2638,-1.3333,10.921,0.64412,4.5089,5.641,-5.6508,6.5359,-2.0513
2.3899,5.2063,5.8537,-2.0065,-1.3072,27.056999,0.64412,-1.9968,-5.89,-2.0065,-1.3072,0.66007,-0.63191,3.746,6.4762,5.153,6.4412,5.0,0.06349,3.268,4.359
5.5346,3.3016,5.2033,7.055,-11.765,-13.268,-7.7295,-1.9968,-5.89,7.055,-11.765,-7.9208,-0.63191,3.746,6.4762,7.7295,7.0853,0.51282,1.3333,1.3072,9.4872
2.3899,8.381,5.2033,-3.301,-6.5359,2.9919,3.8647,-2.6409,12.88,-3.301,-6.5359,-5.9406,0.63191,5.0159,8.381,10.306,9.0177,-1.4103,-1.2063,0.65359,6.9231
6.7925,0.7619,7.1545,-3.301,1.3072,-26.275999,-1.9324,5.0886,-3.9482,-3.301,1.3072,-3.9604,1.8957,5.6508,9.0159,8.3736,9.6618,9.4872,-3.746,1.3072,5.0
4.9057,0.7619,4.5528,-10.421,-9.1503,-1.561,-9.0177,1.868,-13.01,-10.421,-9.1503,-1.9802,0.0,3.746,5.8413,1.9324,3.8647,8.8462,-6.2857,1.9608,1.7949
-3.2704,-8.127,-3.252,-2.6537,1.3072,18.601999,-4.5089,-1.9968,-9.1262,-2.6537,1.3072,-0.66007,-5.6872,-2.6032,-4.3175,-6.4412,-4.5089,5.0,-14.54,-2.6144,-5.8974
-1.3836,-11.937,-3.9024,0.58252,-9.8039,10.797,-9.6618,2.5121,-13.657,0.58252,-9.8039,0.0,-5.6872,-3.873,-6.8571,-10.95,-9.6618,2.4359,-12.635,-1.9608,-7.8205
-3.8994,-6.8571,0.0,5.7605,1.3072,-2.8618,1.2882,6.3768,2.5243,5.7605,1.3072,6.6007,-5.6872,-2.6032,-6.8571,-10.306,-9.0177,3.7179,-5.0159,0.65359,-0.12821
-10.189,-9.3968,-4.5528,-8.479,-3.268,17.301001,-13.527,-6.5056,-19.482,-8.479,-3.268,5.9406,-10.742,-7.6825,-16.381001,-16.103001,-17.391001,-9.1026,-14.54,-9.1503,-4.6154
-10.818,-17.650999,-8.4553,-0.06472,-1.3072,-15.22,-12.238,0.57971,-9.1262,-0.06472,-1.3072,0.0,-8.8468,-6.4127,-13.206,-16.103001,-16.747,-13.59,-8.1905,-8.4967,-5.2564
-5.7862,-11.302,-3.9024,4.466,0.0,-15.87,-3.8647,1.868,-2.0065,4.466,0.0,3.3003,-5.6872,-5.1429,-5.5873,-10.95,-10.306,5.0,-5.6508,-3.268,-5.2564
-0.12579,-13.841,-1.9512,-0.06472,-1.3072,2.9919,-10.95,1.868,-20.777,-0.06472,-1.3072,-1.3201,-4.4234,-7.6825,-0.50794,-10.306,-5.7971,11.41,-15.81,-2.6144,-7.1795
4.9057,-7.4921,1.3008,3.1715,-1.9608,10.797,-10.306,3.1562,-9.7735,3.1715,-1.9608,-1.9802,3.7915,-2.6032,9.0159,-5.153,1.9324,5.0,-7.5556,5.2288,-5.2564
4.9057,-2.4127,1.3008,5.7605,-7.8431,11.447,-10.306,3.1562,-16.246,5.7605,-7.8431,-2.6403,2.5276,-4.5079,7.1111,-0.64412,3.2206,8.8462,-13.905,4.5752,-3.3333
9.9371,1.3968,3.9024,5.7605,-2.6144,-11.317,-7.0853,-2.6409,-7.1845,5.7605,-2.6144,-2.6403,6.3191,2.4762,12.19,5.7971,9.0177,8.2051,-11.365,7.8431,-1.4103
5.5346,9.0159,5.8537,-5.2427,-5.2288,-17.820999,-6.4412,-3.285,-3.301,-5.2427,-5.2288,-7.9208,8.8468,6.2857,14.73,11.594,13.527,-6.5385,-5.0159,9.8039,3.0769
11.195,15.365,12.358,-3.301,0.65359,-10.667,5.7971,-14.879,-9.7735,-3.301,0.65359,-3.3003,14.534,10.73,15.365,19.323999,18.68,9.4872,3.2381,5.8824,12.051
-0.75472,10.921,5.8537,8.9968,-6.5359,-35.382,0.0,-1.9968,-2.6537,8.9968,-6.5359,-1.9802,10.742,8.8254,8.381,11.594,10.306,-2.6923,3.2381,0.0,8.2051
3.0189,4.5714,8.4553,-2.0065,3.9216,9.4959,9.0177,-1.9968,4.466,-2.0065,3.9216,-0.66007,11.374,9.4603,9.6508,8.3736,9.0177,-12.949,5.1429,7.8431,11.41
4.2767,14.73,10.407,-4.5955,0.65359,-0.91057,5.7971,-1.3527,16.117001,-4.5955,0.65359,1.3201,12.006,10.095,8.381,14.171,12.238,-10.385,6.4127,3.268,9.4872
-2.0126,15.365,6.5041,3.1715,2.6144,-28.228001,10.95,-6.5056,-13.01,3.1715,2.6144,-3.9604,12.006,13.905,5.2063,15.459,10.95,-21.282,10.222,1.9608,13.974
-4.5283,12.825,7.1545,-1.3592,-0.65359,4.9431,0.0,-3.9291,10.939,-1.3592,-0.65359,-4.6205,12.006,13.27,2.6667,17.391001,9.6618,-11.026,9.5873,5.2288,15.897
-0.75472,22.349001,13.659,-8.479,3.9216,18.601999,12.882,-3.9291,4.466,-8.479,3.9216,8.5809,9.4787,12.0,2.6667,18.68,11.594,-23.205,8.3175,1.9608,13.974
-13.333,0.7619,-0.65041,-5.89,-5.2288,-11.317,-2.5765,7.6651,1.877,-5.89,-5.2288,-5.9406,2.5276,4.381,-6.2222,3.8647,-1.2882,1.1538,5.1429,0.65359,4.359
-7.673,6.4762,-0.65041,1.877,-1.9608,-3.5122,7.7295,-5.2174,3.8188,1.877,-1.9608,-5.2805,0.63191,1.2063,-2.4127,1.9324,-1.2882,5.0,3.2381,4.5752,-0.12821
4.2767,2.6667,1.9512,-2.6537,0.65359,11.447,7.7295,-0.06441,1.877,-2.6537,0.65359,1.3201,-1.2638,-2.6032,1.3968,-1.2882,-1.2882,2.4359,-5.0159,6.5359,-5.2564
-0.75472,-6.2222,-5.2033,-3.301,-1.3072,-1.561,-0.64412,-9.0821,-2.6537,-3.301,-1.3072,-2.6403,-2.5276,-6.4127,0.12698,-11.594,-7.0853,6.9231,-6.9206,5.2288,-10.385
2.3899,-6.2222,-2.6016,3.8188,1.3072,-11.967,9.0177,12.818,-8.479,3.8188,1.3072,2.6403,-0.63191,-8.9524,3.3016,-16.103001,-7.0853,5.641,-3.1111,8.4967,-12.949
3.0189,-13.841,0.65041,-7.8317,1.9608,2.9919,4.5089,-1.3527,12.88,-7.8317,1.9608,5.2805,-1.2638,-11.492,4.5714,-19.968,-8.3736,3.0769,-3.1111,7.1895,-13.59
6.7925,-1.7778,3.252,3.1715,7.1895,-0.91057,13.527,-4.5733,-11.715,3.1715,7.1895,7.9208,1.2638,-11.492,7.746,-11.594,-3.2206,2.4359,-7.5556,4.5752,-16.795
1.1321,3.9365,1.3008,-0.71197,-2.6144,-1.561,0.64412,-3.285,-2.6537,-0.71197,-2.6144,1.9802,0.0,-8.3175,5.2063,-2.5765,0.0,-7.1795,-2.4762,5.2288,-12.949
4.2767,10.286,2.6016,-9.1262,-3.9216,-0.26016,3.8647,-9.0821,7.7023,-9.1262,-3.9216,6.6007,5.6872,-1.3333,12.19,5.153,6.4412,14.615,7.0476,10.458,-1.4103
4.9057,-1.1429,0.65041,-23.365999,-10.458,-15.22,-11.594,-4.5733,-17.540001,-23.365999,-10.458,1.3201,4.4234,-0.06349,12.19,4.5089,6.4412,14.615,1.3333,7.8431,1.7949
1.761,3.9365,0.65041,0.58252,-6.5359,-13.919,-9.6618,-11.659,-9.7735,0.58252,-6.5359,-3.9604,5.6872,0.57143,9.0159,9.0177,7.7295,-3.3333,-5.0159,8.4967,3.7179
9.3082,2.6667,6.5041,11.586,0.65359,8.8455,-5.7971,1.2238,-10.421,11.586,0.65359,1.3201,14.534,13.27,18.540001,14.171,16.103001,5.0,-6.9206,18.301001,6.2821
1.1321,-2.4127,1.3008,-16.246,-9.1503,-2.2114,-10.306,-12.947,-17.540001,-16.246,-9.1503,-4.6205,9.4787,12.635,10.286,10.306,9.6618,8.2051,-3.746,11.765,12.051
-8.3019,-7.4921,-14.309,-16.893,-19.608,-10.016,-26.409,-12.303,-21.424,-16.893,-19.608,-17.162001,8.2148,13.27,3.3016,9.6618,3.2206,-2.0513,-6.2857,9.1503,13.974
-10.818,-20.825001,-22.764,-7.1845,-18.301001,-12.618,-28.986,-0.70853,-8.479,-7.1845,-18.301001,-20.462,9.4787,15.81,1.3968,6.4412,1.9324,12.051,4.5079,9.8039,17.820999
-9.5597,-22.094999,-22.114,-12.362,-24.837,-23.024,-32.849998,-1.9968,-21.424,-12.362,-24.837,-21.782,8.2148,14.54,-0.50794,2.5765,-0.64412,8.2051,-0.57143,7.8431,14.615
8.0503,-10.667,-5.8537,0.58252,-7.1895,2.9919,-10.95,14.75,-5.89,0.58252,-7.1895,-5.9406,11.374,17.714001,7.1111,7.0853,7.0853,6.2821,0.69841,9.8039,17.820999
8.6792,-4.9524,6.5041,6.4078,-2.6144,2.3415,-5.7971,15.395,1.2298,6.4078,-2.6144,1.9802,8.8468,15.175,6.4762,9.6618,9.6618,7.5641,4.5079,5.2288,16.538
-3.8994,-6.8571,1.9512,7.055,-4.5752,8.8455,-3.2206,-2.6409,-11.715,7.055,-4.5752,1.9802,2.5276,6.2857,-2.4127,1.9324,1.9324,1.1538,5.1429,-0.65359,12.051
-7.044,-6.8571,-6.5041,1.877,3.268,10.797,3.2206,9.5974,11.586,1.877,3.268,1.3201,-3.7915,0.57143,-8.7619,-2.5765,-6.4412,-9.7436,-3.1111,-8.4967,1.1538
-3.8994,7.746,-10.407,10.939,-1.3072,1.0407,1.2882,1.2238,-6.5372,10.939,-1.3072,-0.66007,-8.8468,-1.3333,-11.302,-0.64412,-9.0177,-18.077,-2.4762,-10.458,1.7949
-12.075,3.3016,-8.4553,5.1133,0.0,-11.317,6.4412,-6.5056,8.3495,5.1133,0.0,-3.3003,-7.5829,3.746,-11.302,3.8647,-6.4412,-6.5385,14.667,-9.8039,15.897
-7.044,4.5714,0.0,9.644,6.5359,12.098,4.5089,12.174,10.939,9.644,6.5359,3.9604,-4.4234,6.9206,-4.9524,10.95,0.0,-9.7436,15.302,-7.1895,12.692
13.082,12.19,7.1545,9.644,3.268,-15.87,3.8647,14.106,20.646999,9.644,3.268,7.9208,-0.63191,8.8254,4.5714,12.882,3.8647,5.0,11.492,-3.268,14.615
1.1321,0.12698,-0.65041,-2.6537,1.9608,20.552999,0.0,10.886,10.291,-2.6537,1.9608,7.2607,-4.4234,3.1111,0.7619,3.8647,-1.9324,8.8462,4.5079,-2.6144,8.8462
2.3899,0.7619,-3.252,21.294001,5.2288,21.854,12.238,11.53,1.877,21.294001,5.2288,2.6403,-5.6872,-0.06349,-1.1429,0.0,-3.2206,3.7179,9.5873,-4.5752,4.359
6.7925,-8.127,-3.252,7.7023,-0.65359,4.9431,-10.306,-1.3527,12.233,7.7023,-0.65359,-2.6403,-5.0553,-0.69841,2.0317,0.64412,-0.64412,5.0,8.3175,-5.8824,4.359
6.7925,-0.50794,1.9512,7.7023,5.2288,6.8943,-6.4412,8.9533,1.877,7.7023,5.2288,4.6205,-1.8957,1.8413,4.5714,1.2882,2.5765,-7.8205,9.5873,-1.3072,5.641
1.761,-0.50794,0.65041,1.2298,1.3072,11.447,0.0,5.7327,3.8188,1.2298,1.3072,2.6403,-8.2148,-2.6032,-6.8571,-2.5765,-4.5089,9.4872,3.873,-4.5752,-1.4103
2.3899,5.2063,3.252,7.055,11.765,14.049,14.815,3.8003,13.528,7.055,11.765,13.201,-8.2148,-1.9683,-9.3968,-1.9324,-5.7971,4.359,7.0476,-9.1503,3.0769
5.5346,9.0159,3.252,14.822,13.725,17.951,7.7295,10.886,5.7605,14.822,13.725,11.221,-3.1596,-0.06349,-3.0476,2.5765,-3.2206,3.0769,7.6825,0.65359,0.51282
8.6792,10.921,8.4553,13.528,18.301001,-12.618,16.747,3.8003,10.291,13.528,18.301001,10.561,1.8957,5.6508,3.9365,7.0853,5.153,12.692,11.492,2.6144,3.7179
9.9371,16.635,14.309,10.939,18.301001,8.8455,22.544001,7.6651,23.882999,10.939,18.301001,15.182,2.5276,5.6508,7.746,9.6618,7.0853,5.641,5.7778,3.9216,1.7949
18.113001,14.73,16.26,7.7023,25.49,19.902,31.562,6.3768,21.941999,7.7023,25.49,21.782,1.8957,3.746,7.746,9.0177,7.0853,11.41,11.492,1.3072,0.51282
4.2767,-1.7778,4.5528,0.58252,10.458,0.39024,4.5089,4.4444,16.764,0.58252,10.458,9.2409,-1.2638,-0.69841,0.7619,-1.2882,-1.2882,-3.9744,0.06349,-0.65359,-6.5385
3.0189,-4.9524,-0.65041,5.1133,7.8431,1.6911,-3.2206,7.0209,4.466,5.1133,7.8431,0.66007,-0.63191,-5.1429,0.7619,-5.7971,-4.5089,1.7949,-2.4762,0.65359,-7.8205
11.195,10.286,7.8049,11.586,15.686,6.8943,18.68,-0.70853,14.822,11.586,15.686,7.9208,8.2148,6.2857,11.556,3.2206,5.153,6.2821,10.222,6.5359,2.4359
6.7925,3.3016,0.0,3.8188,8.4967,-1.561,6.4412,10.242,5.1133,3.8188,8.4967,1.3201,4.4234,4.381,9.0159,0.0,1.2882,-2.0513,1.9683,8.4967,-2.6923
8.0503,5.2063,1.9512,1.2298,8.4967,-11.967,2.5765,7.6651,2.5243,1.2298,8.4967,-0.66007,8.8468,7.5556,9.6508,3.8647,6.4412,6.2821,5.7778,3.268,1.7949
5.5346,14.73,8.4553,6.4078,11.111,-11.317,16.103001,-5.8615,29.061001,6.4078,11.111,1.9802,13.902,12.0,16.0,14.815,16.747,1.7949,8.9524,7.1895,3.0769
8.0503,21.079,11.057,3.1715,11.111,-1.561,16.103001,-7.1498,14.822,3.1715,11.111,0.0,15.166,15.175,20.444,18.68,20.612,-0.12821,10.857,9.1503,6.9231
6.7925,17.905001,10.407,-3.301,10.458,8.8455,25.764999,-6.5056,12.233,-3.301,10.458,1.9802,15.798,14.54,19.174999,18.035,19.968,-1.4103,21.650999,9.1503,11.41
-0.75472,1.3968,1.3008,-2.0065,-1.3072,2.3415,-2.5765,-10.37,8.3495,-2.0065,-1.3072,-11.221,7.5829,8.1905,6.4762,10.95,12.238,1.7949,15.302,3.9216,9.4872
1.1321,-1.1429,-4.5528,-22.718,-7.1895,-37.984001,-14.815,-14.235,3.8188,-22.718,-7.1895,-15.182,1.8957,3.1111,2.6667,6.4412,6.4412,4.359,7.0476,-1.9608,-0.12821
-10.189,-6.8571,-9.7561,-15.599,-9.1503,-10.667,-7.0853,-16.167,-13.657,-15.599,-9.1503,-14.521,-5.6872,-4.5079,-4.3175,-1.9324,-1.2882,0.51282,0.69841,-7.8431,-2.0513
-0.12579,-10.667,-4.5528,1.877,-11.111,-3.5122,-14.815,-0.70853,10.291,1.877,-11.111,-13.201,-5.0553,-7.6825,-1.1429,-3.8647,-0.64412,-0.12821,0.69841,-3.9216,-5.8974
4.2767,3.3016,1.9512,-7.1845,-6.5359,-6.7642,5.153,5.7327,-0.71197,-7.1845,-6.5359,-3.9604,-3.1596,-3.2381,-1.7778,0.0,1.9324,7.5641,3.2381,-1.3072,-0.76923
-3.2704,-10.667,-7.8049,-18.834999,-17.646999,12.098,-19.323999,-0.70853,-13.657,-18.834999,-17.646999,-7.9208,-10.742,-7.0476,-8.7619,-8.3736,-9.0177,-8.4615,-4.381,-9.8039,-9.1026
0.50314,-4.3175,-1.3008,-8.479,-11.765,4.2927,-7.0853,0.57971,-17.540001,-8.479,-11.765,-1.3201,-5.6872,-3.2381,-6.8571,-5.153,-3.8647,10.128,-2.4762,-3.9216,-5.8974
3.0189,3.9365,5.2033,3.8188,-7.1895,5.5935,6.4412,8.9533,-18.188,3.8188,-7.1895,0.0,-1.2638,-1.3333,-2.4127,-2.5765,0.0,0.51282,-13.27,0.0,-6.5385
-2.0126,-14.476,-3.252,-13.657,-16.993,-11.317,-20.612,-4.5733,-15.599,-13.657,-16.993,-6.6007,-8.8468,-10.222,-11.302,-12.882,-10.306,-10.385,-11.365,-3.268,-11.667
0.50314,-7.4921,-1.9512,-9.1262,-14.379,-2.8618,-10.306,-11.659,-7.1845,-9.1262,-14.379,1.9802,-10.111,-10.222,-11.302,-11.594,-10.95,13.974,-6.9206,-5.2288,-9.7436
-3.2704,-10.667,-4.5528,-14.951,-10.458,12.748,-10.95,-5.2174,-16.246,-14.951,-10.458,0.66007,-7.5829,-7.0476,-10.032,-13.527,-11.594,3.0769,-15.175,-5.2288,-11.667
-2.0126,-10.032,-3.252,1.877,-4.5752,14.699,-7.0853,-0.06441,-13.657,1.877,-4.5752,3.3003,-5.0553,-8.3175,-8.127,-13.527,-11.594,-0.12821,-8.1905,-2.6144,-13.59
-0.75472,-1.7778,0.65041,1.2298,-11.765,10.146,0.0,4.4444,-9.1262,1.2298,-11.765,6.6007,-5.0553,-7.6825,-8.127,-7.7295,-9.6618,-0.76923,-5.0159,-3.268,-9.1026
-10.189,-4.3175,-5.2033,-8.479,-1.9608,-1.561,-3.8647,-1.3527,-1.3592,-8.479,-1.9608,1.3201,-6.3191,-5.1429,-11.937,-7.7295,-12.882,-5.8974,-5.6508,-5.8824,-3.9744
-13.333,-0.50794,-8.4553,-0.06472,-5.8824,-11.967,-5.153,-5.8615,-20.777,-0.06472,-5.8824,-3.9604,-5.0553,-3.2381,-11.937,-4.5089,-10.95,-19.358999,-13.27,-5.2288,-7.1795
-8.3019,0.12698,-3.252,-4.5955,-3.268,-10.667,-1.9324,-5.2174,-17.540001,-4.5955,-3.268,-1.3201,-2.5276,-2.6032,-6.8571,0.0,-4.5089,-7.1795,-8.8254,0.65359,-0.76923
0.50314,14.095,5.8537,5.1133,9.1503,1.6911,1.9324,-7.7939,11.586,5.1133,9.1503,3.9604,0.0,1.8413,-1.7778,5.153,1.2882,9.4872,3.873,-2.6144,5.641
-0.75472,9.0159,2.6016,-7.1845,8.4967,-10.667,16.103001,-2.6409,23.236,-7.1845,8.4967,1.3201,-1.8957,-1.3333,-1.1429,1.9324,0.64412,-0.76923,2.6032,0.0,3.0769
-6.4151,0.12698,-2.6016,-11.068,-3.9216,-11.967,-4.5089,-5.8615,-11.068,-11.068,-3.9216,-10.561,-2.5276,-1.9683,-5.5873,0.0,-1.2882,-5.8974,-4.381,-1.3072,-5.8974
-1.3836,0.7619,1.9512,-0.06472,-2.6144,-9.3659,-3.8647,-3.285,7.055,-0.06472,-2.6144,-9.2409,-0.63191,0.57143,-1.7778,1.2882,3.8647,0.51282,-2.4762,-2.6144,1.7949
-4.5283,-4.3175,1.9512,-13.657,-9.8039,-3.5122,-12.238,-10.37,-10.421,-13.657,-9.8039,-12.541,-5.0553,-7.0476,-5.5873,-2.5765,-1.2882,-9.1026,-13.905,-5.2288,-9.1026
11.195,14.095,16.26,7.055,8.4967,6.2439,2.5765,3.8003,3.1715,7.055,8.4967,0.66007,3.1596,-0.69841,6.4762,8.3736,10.95,-3.9744,-0.57143,3.268,2.4359
11.195,14.095,16.26,-2.0065,-1.9608,16.65,7.0853,-11.659,5.1133,-2.0065,-1.9608,-0.66007,1.2638,-1.3333,5.2063,7.0853,9.6618,-27.691999,-0.57143,-1.9608,-2.6923
2.3899,12.19,13.008,-8.479,-5.8824,-37.333,5.153,-7.7939,-16.893,-8.479,-5.8824,-5.2805,0.0,-3.2381,2.6667,5.7971,7.7295,12.051,-7.5556,-1.3072,-4.6154
1.1321,22.349001,14.309,2.5243,5.2288,2.3415,12.238,-3.9291,-0.06472,2.5243,5.2288,1.3201,5.0553,-0.69841,3.9365,13.527,10.95,8.8462,7.6825,-1.9608,2.4359
4.9057,16.0,9.1057,-3.301,5.2288,24.455,10.95,-3.9291,3.1715,-3.301,5.2288,10.561,3.7915,1.8413,1.3968,10.95,7.7295,-3.9744,8.3175,-3.9216,1.7949
1.761,19.809999,9.7561,22.589001,16.993,-0.91057,23.833,8.3092,3.1715,22.589001,16.993,11.881,5.0553,3.746,2.0317,14.171,10.306,4.359,8.3175,-0.65359,6.9231
4.9057,13.46,11.057,28.414,20.261,27.056999,11.594,17.327,29.709,28.414,20.261,13.861,7.5829,8.1905,3.9365,14.171,11.594,-0.76923,15.302,-1.3072,9.4872
4.2767,11.556,13.008,23.882999,22.875999,21.202999,18.035,10.886,11.586,23.882999,22.875999,21.122,5.0553,5.0159,1.3968,9.6618,6.4412,-3.9744,13.397,-6.5359,7.5641
-5.1572,14.73,12.358,9.644,17.646999,12.098,23.833,3.1562,21.941999,9.644,17.646999,25.083,6.951,7.5556,-4.3175,7.7295,3.2206,-7.1795,12.127,-0.65359,8.2051
-8.9308,5.8413,3.9024,6.4078,13.072,1.6911,14.171,-0.06441,16.764,6.4078,13.072,19.802,3.1596,3.1111,-10.667,0.64412,-4.5089,1.1538,10.222,-3.9216,4.359
-10.189,9.0159,-1.3008,13.528,13.072,8.1951,17.391001,6.3768,10.291,13.528,13.072,13.201,5.0553,5.6508,-8.7619,-0.64412,-5.153,-1.4103,5.7778,-2.6144,3.7179
-5.1572,2.6667,-2.6016,18.705999,11.765,18.601999,11.594,7.0209,13.528,18.705999,11.765,11.221,5.6872,3.1111,-5.5873,-4.5089,-5.153,-4.6154,2.6032,-3.268,-2.0513
6.7925,22.349001,11.057,10.939,11.111,6.2439,25.121,-7.7939,8.3495,10.939,11.111,17.162001,8.8468,6.2857,4.5714,4.5089,3.8647,-8.4615,-0.57143,0.0,1.1538
-2.0126,-14.476,2.6016,3.1715,11.765,-6.7642,10.95,-5.2174,0.58252,3.1715,11.765,15.842,3.1596,-0.69841,-4.3175,-11.594,-5.153,-8.4615,3.873,-3.9216,-0.12821
-3.8994,-21.459999,-5.8537,-7.1845,-0.65359,-0.26016,-13.527,-3.9291,-3.9482,-7.1845,-0.65359,3.3003,1.2638,-5.7778,-3.0476,-16.103001,-9.0177,-0.12821,-3.746,-6.5359,-10.385
3.6478,-11.937,0.65041,1.877,-1.9608,-0.26016,-3.2206,1.2238,2.5243,1.877,-1.9608,6.6007,5.6872,-0.06349,4.5714,-9.6618,-1.2882,6.9231,-4.381,1.9608,-2.6923
4.2767,-12.571,0.0,3.8188,-5.8824,7.5447,-3.8647,5.0886,-2.6537,3.8188,-5.8824,4.6205,5.6872,-0.69841,7.1111,-8.3736,0.0,-5.2564,-1.8413,3.268,-2.0513
9.3082,-0.50794,3.252,6.4078,9.1503,5.5935,6.4412,10.242,10.291,6.4078,9.1503,11.221,8.2148,1.8413,9.6508,0.0,5.153,4.359,1.3333,4.5752,4.359
-1.3836,0.12698,0.65041,9.644,9.1503,19.252001,12.882,6.3768,20.0,9.644,9.1503,17.822001,4.4234,3.1111,3.9365,0.64412,1.2882,5.641,4.5079,2.6144,6.2821
-0.12579,-1.7778,-3.252,-6.5372,4.5752,28.358,3.8647,-6.5056,10.291,-6.5372,4.5752,13.201,-3.1596,-7.0476,-4.9524,-6.4412,-7.7295,0.51282,0.69841,-6.5359,0.51282
-1.3836,0.12698,-0.65041,3.1715,1.3072,-13.268,-3.2206,-4.5733,-7.8317,3.1715,1.3072,7.2607,-1.8957,-1.9683,-1.7778,-1.9324,-3.8647,-10.385,1.3333,-1.3072,1.1538
3.0189,2.0317,5.8537,16.117001,0.65359,1.0407,-1.2882,10.242,-5.89,16.117001,0.65359,5.9406,1.8957,0.57143,8.381,4.5089,4.5089,1.7949,-1.2063,9.1503,1.1538
7.4214,11.556,5.2033,2.5243,1.3072,-0.26016,4.5089,6.3768,-11.715,2.5243,1.3072,0.66007,4.4234,1.2063,6.4762,9.0177,5.7971,7.5641,-1.8413,5.8824,2.4359
-3.2704,3.3016,0.65041,7.7023,0.65359,2.3415,6.4412,12.818,-20.129,7.7023,0.65359,4.6205,2.5276,3.1111,1.3968,4.5089,0.64412,6.2821,1.3333,3.268,7.5641
6.7925,-3.6825,1.9512,5.1133,5.2288,13.398,-1.2882,2.5121,11.586,5.1133,5.2288,3.3003,-4.4234,-5.7778,1.3968,-0.64412,-3.2206,5.641,0.06349,2.6144,-1.4103
11.195,9.0159,9.1057,-6.5372,-0.65359,15.35,3.8647,3.8003,-22.718,-6.5372,-0.65359,2.6403,-2.5276,-3.2381,5.2063,5.7971,3.2206,10.128,1.9683,3.9216,-1.4103
10.566,-4.9524,4.5528,-5.2427,-11.765,-17.820999,-20.612,-1.3527,-14.304,-5.2427,-11.765,-13.201,-0.63191,-2.6032,8.381,2.5765,3.8647,-3.3333,-3.746,6.5359,0.51282
1.761,-13.841,-8.4553,-7.8317,-22.875999,-15.87,-29.629999,-0.06441,-14.304,-7.8317,-22.875999,-25.083,-3.1596,-6.4127,3.9365,-4.5089,-1.9324,0.51282,-13.27,3.9216,-6.5385
9.3082,-11.937,-8.4553,-6.5372,-14.379,-11.317,-16.747,-1.9968,-25.955,-6.5372,-14.379,-17.162001,-1.2638,-5.1429,7.1111,-4.5089,-0.64412,7.5641,-9.4603,9.8039,-5.2564
-3.2704,-15.111,-9.7561,-13.01,-11.765,-0.26016,-18.68,-7.1498,-13.657,-13.01,-11.765,-13.201,-5.6872,-8.3175,-4.3175,-9.0177,-8.3736,1.7949,-10.095,3.268,-7.8205
-13.333,2.6667,-2.6016,2.5243,1.9608,-6.1138,11.594,1.2238,16.764,2.5243,1.9608,1.3201,-8.8468,-7.6825,-11.937,-4.5089,-8.3736,5.0,-3.746,-1.3072,-5.8974
-15.849,-3.6825,-5.8537,-2.6537,-5.8824,-0.26016,-6.4412,-2.6409,-18.188,-2.6537,-5.8824,-3.3003,-12.006,-8.3175,-15.111,-9.6618,-12.238,-5.8974,-5.0159,-4.5752,-9.1026
-6.4151,3.3016,0.65041,-6.5372,0.0,4.9431,16.747,-1.9968,-25.955,-6.5372,0.0,1.3201,-8.2148,-3.873,-6.2222,-5.7971,-5.7971,5.0,-1.8413,1.9608,-2.0513
-4.5283,-15.746,-10.407,-18.188,-12.418,-4.1626,-25.764999,-29.049999,0.58252,-18.188,-12.418,-11.221,-11.374,-10.857,-7.4921,-12.882,-9.6618,10.128,-9.4603,-7.1895,-9.1026
1.1321,-11.937,-10.407,-13.657,-15.033,-29.528,-17.391001,-6.5056,-7.1845,-13.657,-15.033,-18.482,-7.5829,-7.6825,0.7619,-9.6618,-3.8647,-7.8205,-9.4603,-1.9608,-8.4615
4.2767,-9.3968,-3.9024,4.466,-9.8039,0.39024,-9.0177,13.462,-7.8317,4.466,-9.8039,-11.881,-1.2638,-2.6032,10.286,-2.5765,3.8647,3.7179,-6.2857,11.111,-1.4103
3.0189,-22.73,-13.659,-2.6537,-11.111,-13.268,-28.341,4.4444,-14.951,-2.6537,-11.111,-19.802,-8.2148,-10.222,3.9365,-12.238,-5.7971,12.051,-16.444,2.6144,-11.667
-6.4151,-20.190001,-18.862,-16.246,-13.072,-1.561,-16.103001,4.4444,-10.421,-16.246,-13.072,-16.502001,-11.374,-12.762,-3.0476,-14.171,-10.95,1.7949,-15.175,-0.65359,-14.231
-7.673,-15.746,-19.511999,-13.657,-9.1503,-23.024,-17.391001,-0.70853,-10.421,-13.657,-9.1503,-18.482,-12.638,-10.857,-6.2222,-12.882,-11.594,6.9231,-12.635,-3.268,-12.308
-9.5597,-19.556,-19.511999,-5.89,-15.033,-20.423,-19.968,-0.70853,-29.191,-5.89,-15.033,-17.822001,-12.638,-13.397,-7.4921,-17.391001,-14.815,12.051,-18.983999,-1.3072,-16.153999
-3.2704,-22.094999,-19.511999,-2.6537,-15.033,-2.2114,-20.612,3.1562,-7.8317,-2.6537,-15.033,-18.482,-13.902,-15.937,-5.5873,-17.391001,-14.171,6.2821,-21.524,-0.65359,-14.872
-5.1572,-21.459999,-20.163,-13.657,-9.1503,-5.4634,-12.882,4.4444,-16.893,-13.657,-9.1503,-13.201,-14.534,-14.032,-8.127,-18.035,-16.103001,4.359,-15.175,-1.3072,-12.308
-3.2704,-15.111,-18.862,-3.301,-11.111,-3.5122,-7.7295,2.5121,-2.6537,-3.301,-11.111,-15.842,-12.638,-10.857,-7.4921,-16.103001,-14.815,12.051,-12.0,-0.65359,-12.949
8.6792,-14.476,-12.358,-5.2427,-8.4967,-2.2114,-12.238,1.868,-5.2427,-5.2427,-8.4967,-10.561,-9.4787,-4.5079,-2.4127,-12.882,-9.6618,5.0,0.06349,-2.6144,-2.6923
-10.189,-20.190001,-17.561001,-9.7735,-8.4967,-6.1138,-12.238,8.9533,7.055,-9.7735,-8.4967,-11.881,-10.742,-7.6825,-8.127,-16.103001,-14.171,-0.76923,-1.8413,-3.268,-4.6154
-12.075,-16.381001,-16.26,-5.2427,-3.268,2.3415,-10.95,5.7327,-9.1262,-5.2427,-3.268,-10.561,-9.4787,-6.4127,-8.7619,-14.171,-12.882,2.4359,-5.0159,-3.268,-2.6923
-5.1572,-9.3968,-12.358,-3.301,-7.8431,-10.016,-12.238,1.868,-15.599,-3.301,-7.8431,-7.2607,-12.006,-8.3175,-6.8571,-10.95,-11.594,6.2821,-3.1111,-3.9216,-5.8974
-5.7862,-8.127,-11.057,2.5243,1.9608,-11.967,-4.5089,2.5121,3.1715,2.5243,1.9608,-1.3201,-10.742,-9.5873,-6.2222,-8.3736,-8.3736,4.359,1.9683,-5.8824,-2.6923
0.50314,-6.8571,-7.8049,8.3495,-3.268,3.6423,-8.3736,12.174,-0.06472,8.3495,-3.268,-3.9604,-5.0553,-8.3175,2.6667,-6.4412,-4.5089,8.8462,0.69841,-0.65359,-3.9744
-1.3836,2.6667,-2.6016,11.586,5.2288,1.0407,12.882,12.818,-3.301,11.586,5.2288,2.6403,-5.0553,-12.127,2.6667,-4.5089,-2.5765,7.5641,-1.8413,1.3072,-5.2564
4.2767,-0.50794,3.252,6.4078,1.3072,21.202999,0.64412,5.0886,10.291,6.4078,1.3072,9.2409,-4.4234,-10.857,5.8413,-4.5089,-1.2882,-18.718,-2.4762,0.65359,-7.8205
8.0503,3.9365,5.8537,17.410999,7.8431,6.8943,7.0853,17.327,1.2298,17.410999,7.8431,9.901,3.1596,-5.7778,7.746,2.5765,4.5089,13.974,3.873,2.6144,-4.6154
1.1321,-0.50794,-3.252,-2.0065,3.268,-21.073,0.64412,6.3768,0.58252,-2.0065,3.268,-1.9802,1.2638,-10.857,4.5714,-1.9324,1.9324,17.820999,0.69841,1.9608,-4.6154
1.761,3.3016,-1.9512,0.58252,0.65359,-4.813,7.7295,-0.06441,-14.951,0.58252,0.65359,-5.9406,2.5276,-7.6825,5.2063,0.64412,3.8647,-0.76923,0.69841,3.268,-5.2564
-2.0126,-8.127,-8.4553,-7.1845,-5.8824,1.6911,-9.6618,4.4444,-0.06472,-7.1845,-5.8824,-12.541,3.1596,-8.3175,0.7619,-3.8647,0.64412,5.0,-3.1111,3.268,-5.8974
-10.189,-17.016001,-18.211,-16.246,-17.646999,-13.268,-22.544001,-5.8615,4.466,-16.246,-17.646999,-21.782,-1.8957,-10.222,-10.032,-9.6618,-8.3736,-4.6154,-7.5556,-3.268,-6.5385
-23.396,-7.4921,-20.163,-14.304,-15.686,-23.674999,-12.882,-12.947,-20.129,-14.304,-15.686,-19.802,-6.3191,-11.492,-17.016001,-8.3736,-12.882,-5.8974,-13.27,-6.5359,-12.308
-21.509001,-9.3968,-16.26,-18.188,-15.686,-17.820999,-13.527,-13.591,-4.5955,-18.188,-15.686,-17.162001,-8.8468,-12.762,-18.285999,-7.0853,-10.95,-12.308,-10.095,-9.1503,-7.8205
-10.818,-5.5873,-5.8537,-9.7735,-3.9216,3.6423,4.5089,0.57971,-11.068,-9.7735,-3.9216,-2.6403,-4.4234,-5.1429,-11.302,-3.8647,-5.7971,-17.436001,-10.73,-4.5752,-3.9744
-3.2704,-6.8571,0.65041,-8.479,-3.268,4.2927,-9.0177,5.0886,-3.301,-8.479,-3.268,1.9802,0.63191,3.1111,-1.1429,0.64412,1.2882,4.359,-5.0159,-1.9608,1.1538
14.969,4.5714,8.4553,1.877,1.9608,-18.472,2.5765,-6.5056,-8.479,1.877,1.9608,4.6205,7.5829,10.095,13.46,11.594,12.238,5.641,1.9683,6.5359,10.769
-3.8994,-2.4127,-4.5528,-3.9482,-7.8431,13.398,-12.882,-0.06441,-7.8317,-3.9482,-7.8431,-5.9406,2.5276,5.6508,2.0317,6.4412,3.8647,5.641,-1.8413,0.0,6.9231
1.1321,0.7619,-5.2033,-0.06472,-4.5752,1.0407,-5.7971,3.1562,-3.301,-0.06472,-4.5752,-7.2607,2.5276,5.6508,4.5714,7.0853,5.153,3.0769,-7.5556,-1.9608,9.4872
8.0503,5.8413,1.9512,-5.2427,-7.1895,-19.122,-3.8647,0.57971,1.877,-5.2427,-7.1895,-6.6007,5.6872,8.1905,10.921,14.171,11.594,-0.76923,1.3333,0.65359,8.2051
6.1635,6.4762,9.7561,-7.1845,1.9608,-3.5122,-0.64412,-7.1498,-5.2427,-7.1845,1.9608,0.0,9.4787,15.175,12.825,18.68,17.391001,-6.5385,14.032,0.65359,18.462
9.3082,17.27,12.358,-2.6537,2.6144,-12.618,3.2206,-6.5056,9.644,-2.6537,2.6144,1.3201,10.111,15.81,11.556,20.612,15.459,-25.128,12.127,0.65359,17.179001
2.3899,7.746,6.5041,-0.71197,4.5752,-2.2114,4.5089,-11.014,-1.3592,-0.71197,4.5752,4.6205,8.2148,13.905,3.3016,14.171,8.3736,-4.6154,8.9524,-1.3072,15.256
3.0189,21.714001,13.659,7.055,13.072,14.049,22.544001,-2.6409,21.294001,7.055,13.072,12.541,14.534,22.159,7.1111,21.9,14.171,5.641,19.111,2.6144,21.025999
-2.0126,10.921,9.1057,14.175,13.072,6.8943,7.0853,5.0886,17.410999,14.175,13.072,9.901,10.742,20.254,0.12698,14.815,7.7295,-3.9744,15.937,-0.65359,18.462
-6.4151,13.46,7.8049,10.939,24.183001,27.056999,27.697001,6.3768,32.298,10.939,24.183001,23.101999,9.4787,20.254,-6.2222,10.95,2.5765,-5.2564,28.0,-3.9216,24.231001
-22.767,4.5714,-3.252,-4.5955,7.1895,4.9431,18.035,-12.947,20.646999,-4.5955,7.1895,13.861,-5.0553,7.5556,-22.094999,-2.5765,-13.527,-9.1026,7.0476,-7.1895,10.128
-27.799,10.921,-0.65041,14.175,15.686,-2.8618,14.815,3.8003,9.644,14.175,15.686,12.541,-5.0553,7.5556,-28.444,2.5765,-12.882,-18.077,12.762,-13.725,8.8462
-18.993999,12.825,1.9512,24.531,13.072,-2.2114,16.747,9.5974,13.528,24.531,13.072,11.221,-3.7915,12.635,-24.635,9.6618,-7.0853,-10.385,21.016001,-10.458,16.538
-15.849,12.19,0.65041,5.1133,1.9608,7.5447,3.2206,1.2238,8.9968,5.1133,1.9608,5.9406,-6.951,8.1905,-25.27,11.594,-5.153,2.4359,13.397,-13.072,18.462
-18.993999,3.3016,-3.252,-0.06472,-5.8824,-3.5122,-7.7295,-3.9291,3.1715,-0.06472,-5.8824,-5.9406,-12.006,4.381,-24.635,7.7295,-6.4412,-11.667,3.2381,-18.301001,8.8462
-3.2704,5.2063,3.252,-5.89,-2.6144,-13.268,0.0,-3.285,-9.1262,-5.89,-2.6144,-1.9802,-8.2148,5.0159,-14.476,6.4412,-1.2882,-7.1795,5.1429,-9.1503,5.0
-3.2704,4.5714,2.6016,-7.1845,-7.1895,17.951,-7.7295,-0.70853,-7.8317,-7.1845,-7.1895,-2.6403,-3.7915,6.9206,-8.7619,10.306,3.2206,1.7949,1.9683,-9.8039,2.4359
-3.8994,12.825,3.9024,-0.06472,-5.8824,-26.927,3.8647,-7.7939,-2.0065,-0.06472,-5.8824,-3.3003,-1.2638,8.1905,-4.9524,12.882,6.4412,-18.718,1.9683,-7.8431,8.2051
1.761,14.73,7.1545,1.877,0.65359,-11.967,10.306,5.0886,14.822,1.877,0.65359,-1.9802,5.0553,11.365,3.9365,14.171,9.6618,0.51282,0.69841,1.3072,6.9231
9.3082,3.3016,9.1057,-1.3592,4.5752,22.504,4.5089,-1.3527,-3.9482,-1.3592,4.5752,3.3003,5.0553,6.2857,9.0159,9.0177,10.95,2.4359,0.06349,4.5752,3.0769
6.7925,7.746,6.5041,-3.9482,-0.65359,2.3415,-2.5765,-3.9291,-13.657,-3.9482,-0.65359,-1.3201,5.6872,5.0159,8.381,3.2206,7.0853,4.359,-10.095,-0.65359,-3.9744
6.1635,-7.4921,1.9512,-11.068,-5.8824,7.5447,-19.968,-9.7262,-4.5955,-11.068,-5.8824,-2.6403,4.4234,1.8413,7.1111,-1.9324,3.8647,6.2821,-10.73,1.9608,-3.9744
4.9057,-10.032,-0.65041,-12.362,-12.418,-4.1626,-16.103001,-14.879,-11.715,-12.362,-12.418,-4.6205,-0.63191,-0.69841,3.3016,-5.153,0.0,-16.795,-14.54,-3.268,-7.1795
3.0189,-3.6825,3.252,13.528,0.65359,6.8943,1.2882,-5.2174,-7.8317,13.528,0.65359,-1.3201,-0.63191,-3.873,3.3016,-5.153,0.0,-5.2564,-14.54,-5.2288,-8.4615
10.566,3.9365,12.358,12.233,5.8824,-3.5122,12.882,-5.2174,20.646999,12.233,5.8824,5.9406,3.1596,0.57143,7.746,-1.9324,5.153,-0.12821,-13.905,1.3072,-10.385
8.6792,-8.7619,1.3008,-7.1845,-1.9608,-17.171,-7.7295,-3.285,-19.482,-7.1845,-1.9608,-1.3201,-0.63191,-4.5079,5.2063,-11.594,-2.5765,-2.0513,-22.159,-2.6144,-16.795
-4.5283,-20.825001,-5.8537,-3.9482,-3.268,6.2439,-7.7295,-13.591,-18.188,-3.9482,-3.268,-5.2805,-1.2638,-3.873,-2.4127,-16.747,-8.3736,-3.9744,-18.349001,-3.268,-9.7436
-5.1572,-6.2222,0.65041,-9.1262,2.6144,14.699,0.0,-7.7939,-10.421,-9.1262,2.6144,7.2607,1.2638,-0.06349,-3.0476,-9.0177,-4.5089,-5.8974,-11.365,-1.3072,-5.8974
5.5346,-2.4127,7.1545,-0.06472,1.3072,1.6911,-1.2882,-1.3527,-4.5955,-0.06472,1.3072,7.2607,3.7915,3.1111,0.7619,-3.8647,-0.64412,-2.0513,-5.6508,-1.3072,-4.6154
-3.8994,4.5714,4.5528,-3.9482,0.65359,-4.1626,10.95,-1.3527,-5.89,-3.9482,0.65359,1.9802,2.5276,4.381,-1.1429,0.64412,0.0,-8.4615,-3.746,-2.6144,1.1538
-8.3019,-4.3175,-4.5528,-2.6537,-3.268,-13.919,-9.0177,1.2238,-4.5955,-2.6537,-3.268,-5.9406,4.4234,4.381,-8.127,-2.5765,-5.153,-3.9744,-3.1111,-4.5752,-0.12821
-1.3836,-2.4127,-4.5528,4.466,-1.9608,-0.26016,-5.153,-3.9291,2.5243,4.466,-1.9608,0.0,7.5829,6.2857,-4.3175,-1.9324,-4.5089,-0.76923,-0.57143,1.3072,1.1538
3.6478,7.746,3.9024,10.291,13.072,16.0,16.103001,-7.7939,11.586,10.291,13.072,13.201,6.3191,3.746,-3.6825,3.2206,-1.2882,-12.949,1.3333,-0.65359,1.7949
8.0503,3.3016,6.5041,1.877,0.0,23.805,5.153,10.886,-1.3592,1.877,0.0,7.9208,3.1596,2.4762,-1.1429,1.2882,0.64412,3.0769,-0.57143,-1.9608,-1.4103
7.4214,12.19,11.057,7.7023,13.072,0.39024,16.747,8.9533,5.7605,7.7023,13.072,9.901,5.6872,7.5556,3.9365,7.0853,7.7295,4.359,7.0476,5.2288,8.2051
-0.12579,7.1111,3.252,-0.06472,1.3072,1.6911,1.2882,-0.06441,1.2298,-0.06472,1.3072,0.0,0.0,-1.3333,-0.50794,3.8647,1.9324,-0.76923,-0.57143,-4.5752,-2.0513
-0.75472,9.0159,3.9024,9.644,7.1895,30.309,12.882,10.242,21.294001,9.644,7.1895,7.2607,2.5276,0.57143,0.7619,5.7971,4.5089,5.641,3.2381,-2.6144,1.7949
12.453,-4.3175,2.6016,-18.188,-3.9216,-23.674999,-8.3736,-12.303,5.7605,-18.188,-3.9216,1.9802,0.63191,-3.873,3.9365,-1.9324,1.9324,-2.6923,1.9683,0.65359,-7.8205
-0.75472,-14.476,-9.1057,-0.71197,-11.765,-23.674999,-21.256001,-3.285,-16.893,-0.71197,-11.765,-15.182,-9.4787,-13.397,-0.50794,-11.594,-7.0853,-1.4103,-10.73,0.65359,-13.59
-7.044,-17.016001,-12.358,-0.71197,-12.418,-8.065,-18.68,4.4444,-18.834999,-0.71197,-12.418,-19.802,-6.951,-12.127,-4.9524,-17.391001,-11.594,4.359,-6.2857,-1.3072,-13.59
-2.0126,-25.27,-16.26,-3.9482,-5.8824,-2.2114,-12.238,7.6651,-3.301,-3.9482,-5.8824,-10.561,-7.5829,-17.841,-3.6825,-28.341,-17.391001,7.5641,-18.983999,0.0,-21.923
-0.75472,-25.905001,-14.309,7.055,4.5752,6.2439,1.2882,3.1562,7.7023,7.055,4.5752,0.66007,-8.8468,-19.111,-3.0476,-34.138,-19.968,-9.7436,-22.159,0.0,-23.846001
11.824,-24.635,-7.1545,8.9968,4.5752,23.805,1.2882,-5.8615,-20.129,8.9968,4.5752,5.9406,-6.3191,-17.841,2.0317,-30.917999,-16.103001,5.641,-13.905,4.5752,-20.0
-6.4151,-26.540001,-14.309,-0.06472,-1.3072,-4.813,-10.95,-1.9968,-10.421,-0.06472,-1.3072,-5.9406,-13.902,-21.650999,-13.206,-31.562,-23.188,9.4872,-18.983999,-5.8824,-22.563999
-12.704,-11.937,-11.707,-7.1845,3.268,-7.4146,-5.153,-0.70853,5.7605,-7.1845,3.268,-3.3003,-10.742,-12.762,-13.206,-20.612,-18.035,-5.8974,-6.2857,-7.1895,-11.026
-2.0126,-6.2222,-4.5528,0.58252,13.725,1.0407,12.238,3.1562,-13.657,0.58252,13.725,4.6205,-3.7915,-5.7778,-3.6825,-10.306,-8.3736,-9.1026,5.7778,1.9608,-4.6154
-4.5283,-0.50794,1.3008,3.8188,9.8039,-6.1138,0.64412,-6.5056,18.705999,3.8188,9.8039,1.3201,0.63191,-0.69841,-2.4127,-1.2882,-0.64412,-4.6154,1.3333,1.3072,-0.12821
2.3899,3.3016,4.5528,1.877,6.5359,-24.325001,-3.8647,-2.6409,15.469,1.877,6.5359,1.3201,3.1596,3.746,3.3016,3.2206,3.8647,-3.3333,8.9524,6.5359,6.9231
-2.0126,-4.3175,-5.8537,-2.6537,-3.268,-6.7642,-6.4412,-3.9291,0.58252,-2.6537,-3.268,-11.881,0.63191,2.4762,0.7619,0.0,-1.9324,-1.4103,6.4127,7.1895,6.2821
0.50314,7.746,-0.65041,-2.6537,0.65359,10.797,0.64412,1.868,4.466,-2.6537,0.65359,-3.3003,5.0553,5.6508,-0.50794,5.7971,3.2206,-11.026,5.1429,4.5752,10.128
2.3899,4.5714,0.65041,-2.6537,-5.2288,6.8943,-1.2882,-5.8615,-10.421,-2.6537,-5.2288,-4.6205,6.3191,1.8413,2.6667,7.0853,3.8647,-0.12821,0.69841,6.5359,3.7179
-6.4151,7.746,3.252,-3.9482,-2.6144,11.447,-1.9324,-7.7939,-9.7735,-3.9482,-2.6144,-0.66007,5.6872,6.9206,0.7619,9.0177,5.153,12.692,0.69841,5.8824,3.0769
-6.4151,4.5714,1.3008,-16.246,-11.765,-19.771999,-3.8647,-11.659,12.233,-16.246,-11.765,-9.2409,3.1596,3.1111,-0.50794,7.0853,3.2206,2.4359,7.0476,3.268,2.4359
-2.0126,-2.4127,-4.5528,-5.2427,-13.072,-18.472,-14.171,-3.9291,-9.1262,-5.2427,-13.072,-15.842,4.4234,3.1111,2.0317,2.5765,1.2882,-2.0513,0.06349,4.5752,2.4359
-3.8994,-2.4127,-5.2033,-7.1845,-8.4967,-4.813,-5.7971,2.5121,-5.89,-7.1845,-8.4967,-12.541,0.63191,-0.06349,-0.50794,0.64412,0.0,-0.76923,0.69841,0.0,1.1538
3.0189,-7.4921,-1.3008,-2.6537,-7.1895,-17.820999,-5.153,-0.70853,8.9968,-2.6537,-7.1895,-7.2607,1.2638,-1.9683,3.9365,-1.9324,1.2882,6.9231,-3.1111,3.268,-2.6923
-2.6415,1.3968,5.2033,-4.5955,-1.3072,-13.268,5.153,3.8003,-0.06472,-4.5955,-1.3072,0.66007,0.63191,-1.9683,1.3968,-1.9324,1.2882,-19.358999,1.3333,1.9608,-5.2564
-1.3836,5.8413,13.659,8.3495,4.5752,29.007999,8.3736,12.174,4.466,8.3495,4.5752,14.521,0.63191,1.2063,4.5714,0.64412,5.7971,15.897,-0.57143,7.8431,-1.4103
-4.5283,2.0317,10.407,7.055,-2.6144,6.8943,5.153,10.242,-5.2427,7.055,-2.6144,4.6205,0.63191,-0.69841,0.7619,0.64412,5.153,13.333,-3.1111,-1.3072,-3.9744
-3.2704,1.3968,0.0,1.2298,0.0,-11.317,0.0,2.5121,3.8188,1.2298,0.0,-3.3003,0.0,0.57143,0.7619,0.0,2.5765,-5.2564,0.06349,-1.3072,-0.76923
11.195,0.7619,4.5528,-2.0065,7.1895,20.552999,9.6618,-1.3527,12.233,-2.0065,7.1895,5.2805,5.0553,1.2063,10.286,1.2882,7.0853,7.5641,-2.4762,7.1895,-4.6154
8.6792,1.3968,7.1545,7.055,5.8824,13.398,3.2206,1.2238,-2.6537,7.055,5.8824,5.9406,6.3191,1.8413,12.825,1.9324,8.3736,-3.9744,-3.1111,1.3072,-5.2564
14.34,9.6508,13.659,14.822,11.111,2.3415,5.153,11.53,6.4078,14.822,11.111,11.881,6.951,3.1111,14.73,8.3736,10.95,5.641,7.6825,5.8824,3.7179
15.597,12.825,16.26,5.1133,8.4967,8.1951,8.3736,9.5974,14.822,5.1133,8.4967,12.541,10.742,10.73,16.0,13.527,12.882,5.0,14.032,8.4967,8.2051
9.9371,11.556,7.1545,7.7023,9.1503,-5.4634,9.6618,-6.5056,12.233,7.7023,9.1503,7.9208,9.4787,7.5556,14.73,9.6618,10.306,-7.1795,9.5873,6.5359,5.0
8.0503,7.1111,-0.65041,0.58252,9.1503,-11.967,7.0853,-0.06441,27.120001,0.58252,9.1503,1.9802,7.5829,2.4762,14.095,7.0853,6.4412,-3.9744,12.127,5.8824,-0.76923
11.824,16.635,9.7561,5.1133,17.646999,18.601999,15.459,0.57971,14.175,5.1133,17.646999,12.541,8.8468,7.5556,12.19,12.882,10.95,11.41,25.459999,5.2288,10.128
14.34,17.27,14.959,8.3495,15.033,20.552999,20.612,-0.70853,17.410999,8.3495,15.033,14.521,7.5829,5.6508,16.0,16.747,13.527,7.5641,21.016001,6.5359,10.128
4.2767,12.19,7.1545,-3.9482,7.1895,-0.26016,5.153,-4.5733,26.472,-3.9482,7.1895,4.6205,3.1596,3.746,10.286,12.238,9.0177,6.2821,22.921,2.6144,8.2051
8.0503,11.556,3.9024,3.8188,2.6144,14.699,5.153,14.106,17.410999,3.8188,2.6144,3.9604,2.5276,1.2063,12.19,6.4412,5.7971,8.2051,22.921,5.2288,5.0
10.566,-4.9524,0.0,1.2298,0.65359,7.5447,0.0,-1.9968,8.3495,1.2298,0.65359,0.66007,1.8957,-2.6032,12.825,-0.64412,2.5765,6.2821,12.762,7.1895,-0.76923
10.566,4.5714,2.6016,0.58252,0.0,10.146,-0.64412,-5.8615,-1.3592,0.58252,0.0,3.3003,2.5276,-2.6032,15.365,5.7971,7.7295,1.1538,13.397,6.5359,3.0769
12.453,-1.1429,0.0,-10.421,-5.8824,-13.919,-2.5765,0.57971,9.644,-10.421,-5.8824,-8.5809,1.2638,0.57143,12.825,4.5089,6.4412,19.743999,9.5873,7.8431,0.51282
-6.4151,0.7619,-3.252,-1.3592,-4.5752,-18.472,-9.6618,-0.70853,1.2298,-1.3592,-4.5752,-13.861,-1.2638,0.57143,4.5714,5.153,2.5765,11.41,12.127,2.6144,5.641
-12.075,-2.4127,-11.707,-9.7735,-5.8824,-8.7154,-9.6618,-1.3527,1.877,-9.7735,-5.8824,-13.861,-3.7915,-3.873,-1.7778,0.0,-3.8647,-7.1795,5.7778,1.3072,-2.0513
-0.75472,-2.4127,-9.7561,-7.1845,-4.5752,-8.065,-8.3736,-1.9968,3.1715,-7.1845,-4.5752,-10.561,0.63191,-1.3333,2.0317,1.9324,-3.2206,9.4872,7.6825,4.5752,0.51282
-2.6415,2.6667,-3.252,-9.7735,-1.3072,11.447,-0.64412,-7.7939,10.291,-9.7735,-1.3072,-5.9406,0.0,2.4762,3.9365,7.0853,1.9324,-5.2564,10.222,5.2288,7.5641
-1.3836,7.746,3.252,-5.2427,0.65359,-4.1626,1.9324,-5.2174,-3.301,-5.2427,0.65359,0.0,1.2638,2.4762,1.3968,7.7295,2.5765,-7.1795,5.7778,-0.65359,5.641
8.0503,21.079,16.910999,10.939,8.4967,13.398,27.697001,8.3092,14.822,10.939,8.4967,17.822001,7.5829,7.5556,10.921,14.815,10.95,12.051,25.459999,9.1503,12.051
9.3082,9.0159,16.26,10.291,18.954,4.9431,27.697001,5.0886,34.887001,10.291,18.954,25.083,6.3191,5.0159,9.0159,5.7971,7.0853,4.359,15.302,6.5359,8.8462
5.5346,0.7619,8.4553,8.3495,12.418,9.4959,10.306,3.1562,2.5243,8.3495,12.418,15.842,1.8957,-1.9683,3.9365,-3.8647,0.64412,3.0769,-4.381,0.0,-1.4103
2.3899,-1.1429,8.4553,13.528,18.954,9.4959,14.171,8.3092,1.2298,13.528,18.954,19.142,5.6872,1.8413,7.1111,-2.5765,3.8647,5.641,3.2381,3.268,-0.12821
-0.12579,3.9365,7.8049,3.8188,11.111,5.5935,12.238,7.6651,2.5243,3.8188,11.111,15.182,5.6872,4.381,3.9365,0.64412,3.8647,0.51282,-3.746,0.65359,-2.0513
-2.0126,6.4762,9.1057,9.644,9.1503,6.2439,14.815,-3.285,-0.71197,9.644,9.1503,15.182,8.8468,8.1905,2.6667,9.6618,8.3736,-16.795,2.6032,2.6144,8.2051
-2.0126,14.73,12.358,7.7023,8.4967,7.5447,10.306,3.1562,7.055,7.7023,8.4967,13.861,7.5829,12.0,0.7619,16.103001,11.594,-22.563999,10.222,-3.268,13.333
0.50314,12.19,12.358,3.8188,13.725,12.748,13.527,-0.70853,7.055,3.8188,13.725,13.861,8.2148,12.0,0.12698,16.747,12.238,-2.6923,14.667,-1.9608,15.256
-2.0126,12.825,1.9512,12.88,14.379,8.8455,12.238,-1.9968,8.3495,12.88,14.379,9.901,3.7915,8.1905,-3.6825,10.306,3.8647,-5.8974,9.5873,-3.9216,9.4872
6.7925,11.556,3.9024,12.88,20.261,-6.7642,19.968,3.8003,6.4078,12.88,20.261,15.182,4.4234,8.8254,2.0317,9.0177,3.2206,-9.7436,19.111,-2.6144,10.128
4.9057,6.4762,5.8537,3.8188,14.379,17.951,5.153,1.2238,21.294001,3.8188,14.379,13.201,1.2638,4.381,-3.0476,3.2206,0.64412,-9.7436,13.397,-0.65359,4.359
-0.75472,7.746,5.8537,3.8188,5.8824,11.447,6.4412,-10.37,7.7023,3.8188,5.8824,6.6007,-3.1596,-0.69841,-5.5873,0.64412,-1.9324,-12.949,6.4127,-1.3072,1.1538
-1.3836,5.2063,4.5528,8.3495,7.8431,-2.2114,5.153,-5.2174,-3.9482,8.3495,7.8431,7.2607,-2.5276,-3.873,-2.4127,0.0,-0.64412,-3.3333,8.9524,0.0,-0.76923
4.2767,10.921,3.252,3.1715,3.268,14.699,-1.2882,6.3768,12.233,3.1715,3.268,4.6205,1.2638,2.4762,3.9365,3.8647,3.2206,15.256,7.0476,9.1503,2.4359
3.0189,-1.1429,-5.2033,-7.8317,-5.2288,-10.667,-9.0177,-3.285,-5.89,-7.8317,-5.2288,-6.6007,-0.63191,-0.69841,2.0317,-3.8647,-1.9324,-0.12821,3.873,3.268,0.51282
3.0189,2.6667,-0.65041,4.466,-3.268,6.2439,1.2882,-0.06441,-8.479,4.466,-3.268,-1.3201,0.63191,-1.9683,3.3016,-2.5765,0.64412,6.9231,4.5079,7.8431,-1.4103
11.195,-2.4127,6.5041,5.7605,-1.9608,6.2439,-5.7971,-5.2174,5.7605,5.7605,-1.9608,0.66007,-3.1596,-7.6825,5.8413,-3.2206,2.5765,11.41,-2.4762,4.5752,-12.949
3.6478,-6.2222,3.252,-33.074001,-12.418,-3.5122,-14.171,-9.0821,-11.068,-33.074001,-12.418,-0.66007,-12.638,-15.937,-4.3175,-10.306,-5.7971,5.641,-16.444,-1.3072,-16.795
-10.818,-9.3968,-6.5041,-2.6537,-13.725,-0.91057,-9.0177,-1.3527,-12.362,-2.6537,-13.725,-9.2409,-21.485001,-22.285999,-15.746,-16.747,-14.815,-9.1026,-17.714001,-11.111,-17.436001
-4.5283,-7.4921,-5.8537,5.7605,-12.418,-0.26016,-9.6618,5.0886,-13.01,5.7605,-12.418,-9.2409,-17.694,-18.476,-8.127,-11.594,-10.306,-7.1795,-13.27,-9.1503,-16.795
1.1321,2.6667,5.2033,2.5243,-1.9608,1.0407,-0.64412,7.0209,3.1715,2.5243,-1.9608,3.9604,-10.111,-6.4127,-4.9524,0.0,0.0,-3.9744,-4.381,-5.8824,-2.6923
8.6792,8.381,13.659,-2.0065,-2.6144,14.699,3.2206,0.57971,-2.0065,-2.0065,-2.6144,5.9406,-3.1596,-1.3333,2.0317,7.0853,5.7971,-5.2564,1.9683,-2.6144,1.7949
9.3082,19.174999,19.511999,-14.304,5.2288,11.447,14.171,-0.06441,0.58252,-14.304,5.2288,16.502001,-1.8957,3.1111,3.9365,12.238,9.0177,3.0769,-2.4762,-3.268,1.1538
6.7925,14.73,16.910999,7.055,1.9608,3.6423,3.2206,6.3768,4.466,7.055,1.9608,8.5809,1.2638,6.9206,6.4762,13.527,10.95,-2.0513,4.5079,-6.5359,6.9231
12.453,12.825,14.959,11.586,4.5752,-23.024,9.6618,-0.70853,-4.5955,11.586,4.5752,7.2607,5.6872,9.4603,11.556,14.815,14.171,-0.12821,4.5079,0.65359,10.769
4.2767,12.825,6.5041,1.877,1.9608,7.5447,7.7295,2.5121,0.58252,1.877,1.9608,3.3003,2.5276,4.381,7.746,9.6618,10.306,-7.1795,-2.4762,0.65359,3.7179
3.0189,5.8413,4.5528,-1.3592,0.0,19.902,0.0,1.868,1.877,-1.3592,0.0,2.6403,2.5276,1.8413,7.746,7.7295,9.0177,1.1538,-6.2857,1.3072,1.7949
1.761,5.2063,5.8537,-13.01,-1.3072,13.398,4.5089,-8.438,-12.362,-13.01,-1.3072,7.2607,3.1596,4.381,3.9365,5.7971,5.153,1.1538,-4.381,-1.3072,5.641
0.50314,8.381,7.8049,-0.06472,6.5359,4.2927,11.594,-0.70853,7.055,-0.06472,6.5359,10.561,6.951,8.1905,5.2063,8.3736,7.0853,5.641,4.5079,5.2288,6.9231
-7.673,-5.5873,-3.9024,1.877,-3.9216,-21.724001,-3.8647,-4.5733,-2.6537,1.877,-3.9216,-3.3003,0.63191,2.4762,-5.5873,-1.9324,-3.2206,-0.76923,-1.2063,0.0,-1.4103
-12.704,-10.667,-11.057,-2.0065,-7.8431,-7.4146,-8.3736,-1.9968,-24.013,-2.0065,-7.8431,-7.9208,-6.3191,-0.69841,-13.206,-7.7295,-10.306,-11.026,-11.365,-4.5752,-2.0513
-11.447,-11.937,-12.358,-2.6537,1.3072,-21.724001,0.0,9.5974,-20.129,-2.6537,1.3072,-1.3201,-6.3191,-3.873,-15.111,-9.0177,-12.238,-2.0513,-6.9206,-5.2288,0.51282
-7.673,-9.3968,-8.4553,-2.6537,-5.8824,6.8943,-9.6618,-3.285,-5.89,-2.6537,-5.8824,-1.9802,-8.2148,-2.6032,-10.032,-9.6618,-11.594,-9.1026,-7.5556,-8.4967,-4.6154
-0.12579,3.3016,1.3008,-3.9482,-0.65359,17.951,12.238,-6.5056,6.4078,-3.9482,-0.65359,7.9208,-8.8468,-3.873,-7.4921,-4.5089,-7.0853,-0.76923,-6.9206,-3.268,-2.6923
3.6478,-3.6825,0.65041,-4.5955,-0.65359,6.2439,-4.5089,12.818,-5.89,-4.5955,-0.65359,1.9802,-7.5829,-4.5079,-2.4127,-2.5765,-3.2206,20.385,-10.095,-1.9608,-3.9744
4.9057,-3.6825,-1.3008,-3.9482,-10.458,-4.1626,-9.0177,-1.9968,-21.424,-3.9482,-10.458,-3.3003,-6.3191,-4.5079,0.7619,-3.2206,-3.2206,4.359,-8.8254,-1.9608,-1.4103
2.3899,-6.2222,-8.4553,-9.7735,-16.34,-0.26016,-10.306,1.868,-10.421,-9.7735,-16.34,-7.9208,-8.2148,-6.4127,-5.5873,-5.7971,-9.0177,0.51282,-11.365,-4.5752,-6.5385
-5.1572,-11.302,-13.659,-3.9482,-8.4967,-15.87,-10.306,-0.70853,-8.479,-3.9482,-8.4967,-9.901,-9.4787,-8.3175,-5.5873,-7.7295,-8.3736,6.9231,-6.2857,-2.6144,-5.8974
-3.2704,-3.0476,-9.7561,-7.1845,-11.765,-21.724001,-1.2882,-3.9291,-0.71197,-7.1845,-11.765,-9.901,-5.6872,-7.6825,-3.0476,-3.2206,-4.5089,0.51282,-7.5556,-3.268,-6.5385
-3.8994,-8.127,-9.7561,-16.893,-11.111,11.447,-8.3736,-9.7262,-18.188,-16.893,-11.111,-12.541,-4.4234,-7.0476,-1.7778,-3.8647,-3.8647,-2.0513,-9.4603,-1.3072,-3.9744
-6.4151,-10.667,-15.61,-7.8317,-12.418,2.9919,-17.391001,-10.37,-15.599,-7.8317,-12.418,-19.802,-0.63191,-4.5079,0.12698,-4.5089,-3.2206,-7.1795,-9.4603,2.6144,-3.3333
-8.3019,-18.921,-18.862,-9.1262,-13.725,-10.667,-21.256001,-2.6409,-10.421,-9.1262,-13.725,-23.101999,0.63191,-3.873,-2.4127,-9.0177,-5.153,-6.5385,-3.1111,1.9608,-5.8974
-11.447,-12.571,-11.707,-5.89,-5.2288,-19.771999,-15.459,-5.2174,1.877,-5.89,-5.2288,-15.182,5.0553,-1.9683,-3.0476,-3.2206,-1.2882,1.1538,-0.57143,3.268,-1.4103
-12.075,13.46,-2.6016,-2.6537,-3.9216,-21.073,13.527,-11.014,0.58252,-2.6537,-3.9216,-5.9406,5.6872,5.6508,-6.2222,6.4412,3.2206,-11.667,4.5079,-3.268,5.641
-15.22,4.5714,-0.65041,-4.5955,4.5752,9.4959,3.2206,1.2238,9.644,-4.5955,4.5752,-3.3003,2.5276,6.9206,-10.667,4.5089,1.2882,-21.923,7.0476,-9.1503,8.8462
-14.591,5.2063,5.8537,-1.3592,9.1503,-4.813,6.4412,-9.0821,16.117001,-1.3592,9.1503,2.6403,6.3191,9.4603,-8.7619,8.3736,5.7971,-10.385,6.4127,-5.2288,8.8462
-0.12579,16.0,11.057,3.1715,11.765,9.4959,20.612,-14.879,6.4078,3.1715,11.765,9.2409,10.742,15.81,2.0317,13.527,10.95,-7.1795,10.222,2.6144,13.974
-18.365,-10.667,-13.008,3.8188,0.65359,10.797,-7.7295,-8.438,-2.0065,3.8188,0.65359,-7.2607,3.1596,5.0159,-10.032,-4.5089,-4.5089,-13.59,-1.8413,-7.8431,3.0769
-12.075,-9.3968,-10.407,-0.71197,1.3072,-8.7154,-1.2882,-10.37,-0.06472,-0.71197,1.3072,-4.6205,3.1596,3.1111,-6.2222,-4.5089,-3.8647,-7.1795,-7.5556,1.3072,-0.76923
-2.6415,-12.571,-9.7561,-9.1262,-10.458,-17.820999,-21.9,-9.7262,-7.8317,-9.1262,-10.458,-15.842,1.8957,3.1111,-3.0476,-3.8647,-3.8647,1.7949,-12.635,1.3072,-3.9744
-11.447,-7.4921,-14.309,-18.188,-11.111,-23.024,-9.6618,-7.7939,-13.01,-18.188,-11.111,-21.122,-0.63191,-0.06349,-7.4921,-7.0853,-8.3736,10.128,-10.095,-1.3072,-1.4103
-17.736,-24.0,-26.667,-25.955,-28.105,-16.52,-22.544001,-15.523,-38.251999,-25.955,-28.105,-30.363001,-8.2148,-10.857,-15.746,-19.968,-21.9,10.128,-23.429001,-3.9216,-11.667
-8.3019,-24.635,-27.316999,-14.304,-17.646999,-21.724001,-31.562,-5.8615,-25.955,-14.304,-17.646999,-24.422001,-8.8468,-8.3175,-16.381001,-23.833,-25.121,6.2821,-24.698,-4.5752,-12.949
-4.5283,-32.254002,-32.52,-8.479,-22.222,-11.317,-28.341,0.57971,-23.365999,-8.479,-22.222,-24.422001,-12.006,-12.762,-18.285999,-33.493999,-32.849998,3.7179,-27.872999,-5.8824,-19.358999
-3.2704,-33.523998,-28.618,-2.0065,-13.072,1.6911,-15.459,10.886,-19.482,-2.0065,-13.072,-15.842,-15.798,-16.570999,-16.381001,-34.138,-32.849998,-6.5385,-32.317001,-4.5752,-19.358999
-0.75472,-21.459999,-16.910999,-2.0065,-12.418,1.0407,-13.527,13.462,-30.485001,-2.0065,-12.418,-7.2607,-12.638,-12.127,-13.841,-26.409,-27.052999,22.308001,-38.032001,-3.268,-18.077
0.50314,-17.650999,-11.707,-9.7735,-10.458,-19.122,-10.306,1.868,-24.66,-9.7735,-10.458,-3.9604,-12.006,-12.127,-10.667,-23.833,-22.544001,15.897,-23.429001,-6.5359,-16.153999
2.3899,-0.50794,-1.9512,8.9968,-1.3072,6.2439,0.64412,8.9533,-13.01,8.9968,-1.3072,1.3201,-7.5829,-5.1429,-1.1429,-10.95,-10.306,1.7949,-13.905,0.0,-7.1795
-2.0126,-1.7778,-0.65041,4.466,-1.9608,8.1951,3.2206,5.0886,-8.479,4.466,-1.9608,1.3201,-3.7915,-2.6032,2.6667,-4.5089,-3.8647,6.9231,-8.8254,2.6144,-3.3333
-3.8994,0.7619,-0.65041,-4.5955,-1.3072,-6.7642,-0.64412,-0.06441,-6.5372,-4.5955,-1.3072,-3.9604,-3.1596,-0.06349,2.0317,1.9324,1.2882,-5.8974,1.9683,-1.9608,3.7179
-1.3836,5.8413,-1.3008,4.466,-0.65359,1.6911,3.8647,-5.2174,-13.657,4.466,-0.65359,-3.9604,-0.63191,3.1111,5.2063,9.0177,7.7295,-3.9744,8.3175,-4.5752,8.8462
-2.0126,0.12698,-2.6016,-8.479,-6.5359,-20.423,-10.95,-4.5733,14.175,-8.479,-6.5359,-11.221,2.5276,5.6508,7.1111,11.594,10.306,-5.8974,4.5079,1.9608,12.051
6.7925,0.7619,1.3008,-9.7735,-4.5752,-13.268,-12.238,3.1562,2.5243,-9.7735,-4.5752,-11.221,6.3191,9.4603,11.556,11.594,14.171,5.0,3.2381,5.2288,9.4872
3.0189,-4.9524,-3.252,-6.5372,-4.5752,10.797,-9.0177,7.0209,-3.301,-6.5372,-4.5752,-5.2805,4.4234,6.2857,5.8413,7.0853,9.0177,0.51282,7.0476,-0.65359,8.8462
-2.6415,-2.4127,-4.5528,5.1133,-5.8824,-3.5122,-10.306,8.3092,-4.5955,5.1133,-5.8824,-8.5809,0.0,6.2857,1.3968,1.9324,3.2206,-14.231,5.7778,-5.2288,10.128
6.1635,4.5714,5.2033,6.4078,4.5752,13.398,16.747,-1.3527,-0.71197,6.4078,4.5752,5.2805,8.2148,11.365,5.8413,6.4412,7.7295,5.0,9.5873,1.3072,15.256
6.7925,9.6508,8.4553,1.2298,5.8824,6.8943,5.7971,3.1562,11.586,1.2298,5.8824,4.6205,11.374,14.54,9.0159,14.171,11.594,-1.4103,14.032,4.5752,16.538
13.711,12.19,9.7561,10.291,13.072,28.358,12.238,-0.06441,1.2298,10.291,13.072,13.201,5.6872,12.635,3.9365,10.95,9.0177,-11.667,7.0476,-2.6144,16.538
3.0189,0.7619,2.6016,7.7023,6.5359,-17.820999,0.64412,6.3768,8.3495,7.7023,6.5359,6.6007,7.5829,11.365,3.3016,7.7295,4.5089,3.0769,10.222,0.0,10.128
-10.818,-1.7778,-3.252,14.175,7.1895,-8.065,-5.153,10.242,2.5243,14.175,7.1895,-0.66007,6.3191,11.365,-2.4127,5.7971,2.5765,-6.5385,8.3175,-1.9608,12.692
-11.447,2.6667,-3.9024,6.4078,-1.3072,10.146,-3.8647,-3.285,-2.0065,6.4078,-1.3072,-8.5809,3.1596,8.1905,-5.5873,4.5089,0.64412,-16.153999,1.3333,-6.5359,5.641
-8.9308,-7.4921,-4.5528,-6.5372,-1.9608,-21.073,-7.7295,-15.523,-2.6537,-6.5372,-1.9608,-11.881,1.2638,9.4603,-7.4921,-1.9324,-2.5765,-11.667,-1.8413,-6.5359,3.0769
-12.075,-3.0476,-4.5528,-9.7735,-5.2288,8.1951,-3.8647,-8.438,-0.71197,-9.7735,-5.2288,-6.6007,0.0,8.8254,-8.127,-2.5765,-2.5765,-10.385,-3.1111,-4.5752,1.1538
-10.818,0.7619,-1.9512,3.1715,-1.3072,-31.48,0.0,-0.06441,-6.5372,3.1715,-1.3072,-9.2409,1.8957,10.73,-6.2222,3.8647,2.5765,-18.718,3.873,-5.8824,4.359
3.0189,8.381,9.7561,8.9968,9.8039,-5.4634,1.2882,3.8003,13.528,8.9968,9.8039,0.0,10.111,20.889,5.2063,12.882,13.527,-18.718,12.762,0.65359,10.128
-4.5283,12.19,7.1545,-0.71197,12.418,7.5447,12.238,-16.812,-4.5955,-0.71197,12.418,1.3201,11.374,22.159,7.1111,14.171,13.527,0.51282,3.873,6.5359,13.974
-8.3019,12.19,5.2033,5.1133,15.033,-21.073,10.95,-13.591,8.3495,5.1133,15.033,5.2805,7.5829,15.175,-1.7778,5.7971,5.153,-9.1026,9.5873,-2.6144,10.769
-7.673,2.6667,10.407,13.528,19.608,1.0407,10.306,1.2238,26.472,13.528,19.608,16.502001,8.2148,12.0,-4.3175,-0.64412,1.2882,-12.949,7.6825,4.5752,4.359
3.6478,5.2063,13.659,19.353001,18.954,10.146,19.323999,6.3768,-0.71197,19.353001,18.954,20.462,9.4787,8.8254,-4.3175,-1.2882,-0.64412,-8.4615,5.1429,6.5359,3.7179
4.9057,5.2063,10.407,7.7023,11.765,32.259998,11.594,8.9533,12.233,7.7023,11.765,17.822001,5.6872,3.746,-4.3175,-7.0853,-4.5089,3.7179,-4.381,5.2288,-4.6154
11.824,-1.1429,7.8049,11.586,11.765,16.0,12.882,15.395,-2.6537,11.586,11.765,17.822001,1.8957,-5.1429,-1.1429,-12.882,-7.0853,-7.8205,-12.635,2.6144,-12.949
1.1321,-6.2222,-1.3008,12.88,5.2288,-15.87,9.0177,14.75,13.528,12.88,5.2288,14.521,-10.111,-12.762,-11.302,-17.391001,-15.459,3.7179,-12.635,-7.1895,-16.795
1.1321,-3.6825,0.65041,17.410999,7.8431,11.447,0.0,6.3768,-7.8317,17.410999,7.8431,15.182,-11.374,-15.937,-11.937,-12.238,-12.238,11.41,-13.905,-7.1895,-17.436001
7.4214,6.4762,3.252,10.291,-0.65359,7.5447,9.0177,8.3092,2.5243,10.291,-0.65359,10.561,-2.5276,-7.0476,1.3968,-0.64412,-1.9324,8.8462,-3.1111,1.3072,-8.4615
-2.6415,0.12698,-1.9512,1.2298,4.5752,8.8455,6.4412,26.344999,9.644,1.2298,4.5752,5.2805,-2.5276,-5.7778,-1.1429,1.2882,0.64412,-2.6923,1.9683,-1.9608,-10.385
-8.3019,-3.0476,-7.8049,3.8188,0.0,3.6423,-5.153,-0.70853,-8.479,3.8188,0.0,-1.3201,-5.0553,-7.6825,-3.6825,-1.2882,-1.9324,3.7179,-7.5556,-1.9608,-11.667
-15.22,-4.3175,-5.2033,0.58252,1.3072,4.2927,-5.7971,4.4444,-8.479,0.58252,1.3072,3.3003,-3.7915,-6.4127,-8.7619,0.0,-2.5765,7.5641,-8.1905,-3.268,-7.8205
-11.447,5.2063,-1.3008,5.1133,-1.9608,-2.2114,4.5089,8.9533,-0.06472,5.1133,-1.9608,3.9604,-5.0553,-5.7778,-6.2222,2.5765,-0.64412,1.1538,-0.57143,0.0,-7.8205
-2.6415,8.381,1.9512,-1.3592,-1.3072,-4.1626,0.64412,-7.1498,5.1133,-1.3592,-1.3072,0.66007,1.8957,-1.9683,0.7619,7.0853,4.5089,3.0769,4.5079,4.5752,-2.0513
-0.12579,0.7619,3.9024,-12.362,-3.268,-0.26016,-6.4412,-9.7262,-1.3592,-12.362,-3.268,-1.3201,3.7915,-1.9683,5.2063,5.153,5.153,-1.4103,-0.57143,2.6144,-5.2564
8.6792,2.0317,9.7561,-13.657,-3.9216,-4.813,4.5089,-7.7939,-5.2427,-13.657,-3.9216,3.9604,6.3191,1.8413,12.19,4.5089,7.0853,8.2051,-1.8413,7.8431,1.1538
20.0,12.19,18.862,-1.3592,4.5752,1.6911,11.594,-4.5733,8.3495,-1.3592,4.5752,13.861,12.006,7.5556,18.540001,10.306,13.527,15.256,5.7778,13.072,6.9231
32.578999,16.635,23.415001,-2.0065,9.8039,15.35,25.121,14.106,1.2298,-2.0065,9.8039,20.462,12.006,5.6508,24.889,15.459,18.68,11.41,4.5079,12.418,5.0
14.34,13.46,14.959,-9.1262,-4.5752,12.098,0.64412,-8.438,-11.715,-9.1262,-4.5752,5.9406,4.4234,5.0159,12.19,11.594,13.527,2.4359,0.69841,5.2288,3.0769
13.082,21.714001,20.163,0.58252,3.9216,2.9919,3.8647,-2.6409,1.877,0.58252,3.9216,8.5809,12.006,13.905,18.540001,20.612,21.9,-4.6154,10.222,9.1503,10.128
14.969,8.381,13.659,-3.9482,2.6144,-4.813,8.3736,-17.455999,10.291,-3.9482,2.6144,6.6007,11.374,12.0,16.635,12.238,17.391001,8.2051,4.5079,6.5359,9.4872
5.5346,-2.4127,5.2033,-7.1845,-4.5752,-8.7154,-5.153,-16.167,-7.1845,-7.1845,-4.5752,0.0,8.2148,10.73,10.921,5.7971,10.95,-11.026,3.2381,5.2288,8.8462
9.3082,13.46,12.358,-0.06472,7.8431,3.6423,10.306,3.1562,5.1133,-0.06472,7.8431,7.9208,10.742,13.27,8.381,12.882,13.527,-3.3333,10.857,1.9608,13.974
4.2767,11.556,7.8049,-1.3592,2.6144,-0.91057,0.0,6.3768,8.3495,-1.3592,2.6144,2.6403,8.8468,12.0,0.7619,12.238,8.3736,14.615,10.857,1.3072,12.051
1.1321,10.286,4.5528,6.4078,5.8824,-6.1138,5.7971,14.106,5.1133,6.4078,5.8824,0.0,5.0553,10.73,-3.0476,8.3736,4.5089,5.641,12.762,0.65359,13.333
-3.8994,1.3968,1.3008,3.8188,-2.6144,30.309,-4.5089,6.3768,-3.9482,3.8188,-2.6144,1.9802,-3.7915,-0.69841,-10.032,-3.2206,-6.4412,0.51282,2.6032,-3.9216,1.1538
4.2767,0.7619,5.8537,18.058001,9.8039,18.601999,-0.64412,16.683001,16.117001,18.058001,9.8039,8.5809,-3.1596,-1.9683,-3.0476,-5.7971,-5.153,17.179001,6.4127,-1.3072,1.1538
-0.12579,-0.50794,-1.3008,18.058001,0.65359,13.398,-1.9324,19.259001,13.528,18.058001,0.65359,-0.66007,-5.0553,-5.7778,-3.0476,-12.238,-9.6618,11.41,0.69841,-0.65359,-6.5385
-0.12579,-14.476,-7.8049,6.4078,-9.1503,-6.7642,-14.171,10.886,-11.715,6.4078,-9.1503,-9.2409,-8.2148,-15.302,-0.50794,-18.68,-12.238,13.974,-6.2857,0.65359,-16.795
7.4214,-15.111,-6.5041,-2.0065,-10.458,13.398,-20.612,8.9533,-7.8317,-2.0065,-10.458,-8.5809,-1.8957,-5.7778,8.381,-14.815,-6.4412,-6.5385,-7.5556,4.5752,-7.1795
13.711,-24.0,-13.659,-0.06472,-18.301001,2.3415,-29.629999,0.57971,-22.718,-0.06472,-18.301001,-16.502001,0.63191,-5.7778,13.46,-19.323999,-7.0853,14.615,-13.905,6.5359,-10.385
10.566,-29.079,-19.511999,-16.246,-23.528999,-7.4146,-32.206001,1.2238,-34.368999,-16.246,-23.528999,-19.802,-1.2638,-9.5873,9.6508,-21.9,-10.306,26.153999,-15.81,3.9216,-14.231
1.761,-30.983999,-23.415001,-0.71197,-18.954,-13.268,-38.646999,10.242,-22.718,-0.71197,-18.954,-24.422001,-0.63191,-5.7778,3.9365,-20.612,-12.238,-0.12821,-13.27,3.9216,-9.1026
-0.12579,-18.921,-22.114,7.055,-10.458,-8.7154,-20.612,3.8003,-13.657,7.055,-10.458,-23.101999,-0.63191,-7.0476,2.0317,-17.391001,-12.238,-0.76923,-8.8254,3.268,-10.385
-2.6415,-6.8571,-14.959,-2.0065,-6.5359,-13.268,-2.5765,1.868,-16.246,-2.0065,-6.5359,-13.201,1.2638,-2.6032,-0.50794,-9.0177,-7.7295,4.359,-10.095,0.65359,-3.9744
-2.0126,-4.9524,-8.4553,2.5243,-7.1895,6.8943,-12.238,5.7327,0.58252,2.5243,-7.1895,-7.9208,6.3191,3.746,1.3968,-4.5089,-3.2206,7.5641,-0.57143,1.9608,1.1538
3.6478,-1.1429,-1.3008,-7.1845,-4.5752,-2.8618,-3.8647,-5.2174,29.709,-7.1845,-4.5752,-2.6403,8.2148,6.2857,6.4762,2.5765,3.2206,5.641,9.5873,4.5752,5.641
-0.75472,-2.4127,1.3008,-3.9482,1.9608,13.398,-3.8647,-7.7939,-2.0065,-3.9482,1.9608,-0.66007,3.7915,1.8413,0.7619,3.2206,3.2206,-0.76923,5.7778,1.9608,6.2821
-4.5283,8.381,3.252,-7.1845,-4.5752,-13.268,-1.9324,-9.0821,0.58252,-7.1845,-4.5752,-1.9802,3.1596,3.746,-2.4127,7.0853,3.8647,-12.308,7.0476,0.0,2.4359
-8.3019,12.19,5.8537,1.877,5.8824,-16.52,18.035,-5.8615,16.117001,1.877,5.8824,5.9406,4.4234,5.6508,-1.1429,9.6618,5.7971,6.2821,8.9524,2.6144,3.7179
-6.4151,8.381,3.252,-11.068,-5.8824,-18.472,5.153,-10.37,3.1715,-11.068,-5.8824,0.0,0.63191,-1.3333,-1.1429,5.153,2.5765,-9.7436,0.06349,1.3072,-2.0513
-8.9308,0.12698,-0.65041,-21.424,-7.8431,-4.813,-1.9324,-13.591,-5.2427,-21.424,-7.8431,-3.9604,-2.5276,-7.0476,0.12698,0.64412,1.2882,-6.5385,-4.381,5.2288,-3.9744
-3.2704,-3.0476,0.0,-21.424,-13.725,-25.625999,-10.95,-14.879,2.5243,-21.424,-13.725,-10.561,0.0,-7.0476,6.4762,1.9324,5.153,12.692,-8.1905,10.458,-11.026
9.9371,-1.1429,3.9024,-11.068,-8.4967,-10.667,-2.5765,-11.659,-12.362,-11.068,-8.4967,-4.6205,4.4234,-5.1429,17.27,4.5089,10.95,12.051,-6.9206,13.725,-8.4615
9.3082,-5.5873,-0.65041,-22.718,-13.725,-11.967,-10.306,5.7327,-2.0065,-22.718,-13.725,-8.5809,0.63191,-7.0476,15.365,0.64412,6.4412,10.128,-10.095,12.418,-8.4615
11.824,7.746,7.1545,1.2298,-5.2288,10.797,0.64412,1.2238,1.877,1.2298,-5.2288,1.9802,3.1596,-3.873,17.905001,5.153,9.6618,17.179001,0.69841,6.5359,-3.9744
15.597,14.73,14.309,-1.3592,7.1895,12.098,14.815,-0.06441,15.469,-1.3592,7.1895,11.221,12.006,7.5556,24.889,15.459,18.035,17.820999,20.381001,16.34,13.974
17.483999,21.079,13.659,3.8188,3.268,1.0407,16.103001,2.5121,18.705999,3.8188,3.268,7.9208,10.111,5.6508,21.714001,14.815,14.815,16.538,15.937,15.033,8.8462
13.082,10.921,10.407,3.1715,1.3072,12.748,7.0853,5.0886,7.055,3.1715,1.3072,9.2409,3.1596,-1.3333,16.635,8.3736,9.6618,12.692,10.222,10.458,3.0769
14.34,6.4762,11.057,-10.421,1.3072,12.748,11.594,-0.06441,10.939,-10.421,1.3072,12.541,1.2638,1.8413,10.921,5.153,6.4412,6.2821,14.032,0.65359,5.0
1.761,2.0317,3.9024,-8.479,1.3072,-29.528,6.4412,-3.9291,-3.9482,-8.479,1.3072,8.5809,-5.0553,-4.5079,-1.7778,-4.5089,-5.153,-7.1795,-3.1111,-5.8824,-3.3333
-7.044,2.0317,-3.252,-5.89,-5.8824,7.5447,9.0177,-8.438,-2.6537,-5.89,-5.8824,3.3003,-8.2148,-7.6825,-8.7619,-6.4412,-9.6618,-18.077,6.4127,-7.8431,-2.6923
1.1321,7.746,3.252,9.644,9.8039,14.049,10.306,3.1562,17.410999,9.644,9.8039,8.5809,-3.1596,-1.9683,-4.9524,-1.2882,-4.5089,-0.76923,10.222,-2.6144,0.51282
-12.075,0.7619,0.65041,9.644,6.5359,-11.967,3.8647,4.4444,15.469,9.644,6.5359,5.2805,-6.951,-5.7778,-10.667,-3.2206,-7.7295,7.5641,3.2381,-7.8431,-3.3333
-17.736,5.8413,0.0,1.877,1.3072,-0.26016,3.2206,1.2238,-0.71197,1.877,1.3072,3.3003,-10.111,-7.6825,-19.556,-5.7971,-11.594,-0.76923,0.69841,-8.4967,-0.76923
-13.962,3.9365,2.6016,-4.5955,1.3072,12.748,5.7971,-0.06441,8.9968,-4.5955,1.3072,6.6007,-10.111,-6.4127,-18.285999,-3.2206,-10.306,-6.5385,2.6032,-10.458,-0.12821
-7.044,13.46,7.8049,-4.5955,11.111,-10.016,15.459,1.2238,12.233,-4.5955,11.111,11.881,-7.5829,-1.3333,-11.937,4.5089,-1.9324,-5.8974,11.492,-13.072,9.4872
-10.818,6.4762,1.9512,3.1715,5.2288,-11.317,3.8647,-5.2174,5.7605,3.1715,5.2288,3.3003,-13.27,-8.9524,-15.111,0.0,-7.0853,-14.231,1.9683,-14.379,-3.3333
2.3899,36.952,18.862,20.0,22.222,17.301001,47.021,5.7327,35.534,20.0,22.222,19.802,-2.5276,1.2063,-1.1429,18.035,9.6618,-0.76923,13.397,-6.5359,8.8462
7.4214,10.286,13.659,10.291,8.4967,16.0,5.153,8.9533,13.528,10.291,8.4967,9.2409,-0.63191,-0.06349,3.9365,11.594,9.6618,-5.8974,6.4127,-4.5752,2.4359
4.2767,-8.127,-1.3008,7.055,7.1895,0.39024,-11.594,5.0886,4.466,7.055,7.1895,1.3201,-5.0553,-4.5079,0.12698,1.9324,0.64412,6.2821,0.69841,-6.5359,-5.8974
-1.3836,0.12698,-7.1545,5.7605,6.5359,16.65,12.238,3.1562,13.528,5.7605,6.5359,2.6403,-5.6872,-5.1429,-3.6825,-0.64412,-3.2206,3.7179,6.4127,-1.3072,-2.0513
-5.1572,-11.302,-18.211,-11.715,-1.3072,-6.7642,-10.95,1.868,-2.0065,-11.715,-1.3072,-13.861,-10.742,-10.857,-8.127,-5.153,-9.6618,3.7179,0.06349,-0.65359,-6.5385
-15.22,-10.667,-25.365999,-3.301,-3.9216,-13.919,-19.323999,3.8003,1.2298,-3.301,-3.9216,-24.422001,-10.742,-8.3175,-10.667,-4.5089,-11.594,3.0769,6.4127,-4.5752,-0.12821
-6.4151,-12.571,-20.163,1.877,-9.1503,-11.967,-18.035,-2.6409,-7.8317,1.877,-9.1503,-22.441999,-12.006,-10.857,-6.8571,-6.4412,-10.95,2.4359,0.69841,-0.65359,-5.8974
-2.0126,-7.4921,-11.707,-4.5955,-4.5752,-8.065,-6.4412,2.5121,-9.1262,-4.5955,-4.5752,-11.881,-13.902,-14.032,-5.5873,-10.306,-11.594,6.9231,-8.8254,0.0,-9.1026
-3.8994,-9.3968,-9.7561,-3.9482,-2.6144,12.098,-5.7971,3.1562,-3.301,-3.9482,-2.6144,-7.2607,-12.638,-12.127,-6.2222,-10.306,-10.306,13.974,1.9683,-4.5752,-3.3333
-0.12579,-7.4921,-7.1545,10.291,1.3072,-8.065,-3.2206,4.4444,-4.5955,10.291,1.3072,-9.2409,-9.4787,-12.127,-2.4127,-5.7971,-5.7971,10.128,0.69841,0.0,-2.6923
-4.5283,1.3968,-1.9512,5.1133,-4.5752,-0.26016,-1.9324,4.4444,-0.71197,5.1133,-4.5752,-3.9604,-7.5829,-7.0476,1.3968,-3.8647,-1.2882,-1.4103,-1.8413,-1.9608,-3.3333
10.566,-2.4127,6.5041,4.466,8.4967,12.748,6.4412,0.57971,14.822,4.466,8.4967,6.6007,-1.8957,-1.9683,7.746,-1.9324,3.2206,0.51282,1.9683,3.268,0.51282
-3.2704,-4.9524,0.65041,11.586,4.5752,-6.7642,0.64412,3.8003,-2.6537,11.586,4.5752,2.6403,-1.8957,-1.9683,0.7619,-2.5765,-1.2882,-3.3333,-4.381,-1.9608,-0.76923
2.3899,7.1111,11.707,11.586,16.993,16.0,25.764999,1.868,21.294001,11.586,16.993,16.502001,5.6872,8.1905,6.4762,7.0853,8.3736,-0.76923,5.7778,3.268,13.974
8.6792,2.0317,6.5041,0.58252,5.2288,3.6423,8.3736,5.7327,20.646999,0.58252,5.2288,2.6403,7.5829,7.5556,11.556,7.0853,10.306,-18.077,8.3175,7.1895,9.4872
4.2767,-1.7778,1.9512,-3.9482,-1.9608,-2.8618,-14.171,-10.37,-5.2427,-3.9482,-1.9608,-9.2409,12.638,13.27,11.556,10.95,14.815,-2.6923,1.3333,0.65359,9.4872
8.0503,-1.7778,3.252,-5.89,-0.65359,2.9919,-4.5089,-11.659,-5.89,-5.89,-0.65359,-0.66007,10.742,13.905,7.746,10.95,13.527,6.2821,6.4127,0.0,14.615
1.1321,-3.6825,1.9512,1.877,8.4967,2.9919,0.64412,5.7327,10.939,1.877,8.4967,9.2409,3.7915,10.095,0.12698,6.4412,8.3736,-9.1026,1.9683,-1.9608,12.692
6.7925,2.6667,9.1057,11.586,7.1895,17.301001,-3.2206,10.242,1.2298,11.586,7.1895,11.221,3.1596,7.5556,-0.50794,8.3736,8.3736,4.359,2.6032,-4.5752,3.0769
2.3899,7.1111,6.5041,7.7023,3.9216,1.6911,3.8647,2.5121,-14.304,7.7023,3.9216,9.901,-3.1596,2.4762,-4.3175,4.5089,2.5765,-1.4103,-2.4762,-8.4967,5.0
4.9057,0.7619,6.5041,5.7605,5.8824,15.35,2.5765,13.462,1.877,5.7605,5.8824,13.201,-0.63191,1.8413,-3.6825,3.8647,1.9324,-1.4103,-8.1905,-2.6144,5.0
9.9371,-3.0476,3.252,8.3495,0.65359,2.9919,-1.9324,8.9533,1.877,8.3495,0.65359,8.5809,-0.63191,-0.69841,-1.1429,-0.64412,0.0,-1.4103,-11.365,0.65359,-7.1795
-0.75472,-11.302,-5.8537,1.2298,-7.1895,-6.1138,-9.0177,-3.285,-21.424,1.2298,-7.1895,-1.3201,-5.0553,-7.0476,-6.2222,-9.6618,-7.0853,12.692,-18.983999,-2.6144,-13.59
4.9057,-6.8571,-2.6016,1.2298,-3.268,19.902,-7.0853,8.3092,-11.715,1.2298,-3.268,2.6403,0.0,-4.5079,2.0317,-7.0853,-2.5765,6.2821,-15.81,2.6144,-8.4615
1.761,-4.9524,-7.8049,8.9968,-6.5359,8.8455,-7.0853,5.7327,-11.068,8.9968,-6.5359,-3.3003,-0.63191,-7.0476,5.2063,-10.306,-5.7971,6.9231,-24.698,9.8039,-14.231
-13.333,-22.094999,-18.211,-8.479,-9.8039,5.5935,-28.341,-3.285,-18.834999,-8.479,-9.8039,-11.221,-5.0553,-12.127,-7.4921,-17.391001,-14.171,-13.59,-25.968,-1.3072,-21.282
-9.5597,-29.079,-19.511999,3.1715,-13.072,1.0407,-21.256001,12.174,-29.191,3.1715,-13.072,-13.201,-6.951,-12.762,-8.7619,-21.256001,-17.391001,-2.6923,-25.968,-1.3072,-21.282
-6.4151,-22.094999,-18.862,1.877,-15.033,-6.1138,-20.612,8.9533,-18.834999,1.877,-15.033,-13.201,-5.6872,-12.127,-4.3175,-19.323999,-16.747,3.0769,-23.429001,5.2288,-18.077
-9.5597,-24.0,-22.114,-13.657,-10.458,-10.016,-10.306,-3.285,-29.837999,-13.657,-10.458,-13.861,-7.5829,-13.397,-12.571,-22.544001,-21.256001,12.692,-22.159,1.3072,-17.436001
-10.818,-30.349001,-31.219999,-5.89,-18.954,-21.724001,-25.764999,3.1562,-15.599,-5.89,-18.954,-25.083,-12.638,-17.205999,-17.650999,-28.341,-27.697001,0.51282,-24.698,-1.9608,-21.923
-11.447,-17.016001,-24.715,-0.06472,-6.5359,-0.26016,-9.0177,3.8003,-1.3592,-0.06472,-6.5359,-17.162001,-8.8468,-10.222,-13.206,-18.035,-19.968,10.128,-10.73,-0.65359,-11.667
-11.447,-17.016001,-20.163,-5.2427,-13.072,-32.779999,-13.527,7.6651,-25.306999,-5.2427,-13.072,-18.482,-10.111,-12.762,-15.111,-16.103001,-20.612,-1.4103,-13.905,-6.5359,-8.4615
-12.704,-7.4921,-11.057,-8.479,-1.3072,-14.569,-3.2206,-0.70853,-7.8317,-8.479,-1.3072,-5.9406,-7.5829,-6.4127,-17.650999,-12.238,-17.391001,-9.7436,-5.0159,-4.5752,-5.8974
-8.3019,5.2063,1.9512,1.2298,1.9608,4.9431,7.7295,-4.5733,12.88,1.2298,1.9608,3.9604,-2.5276,-0.06349,-10.032,-2.5765,-7.7295,-6.5385,-2.4762,1.9608,1.1538
-12.704,-6.8571,-0.65041,-0.06472,-1.3072,-6.1138,-1.9324,-14.235,6.4078,-0.06472,-1.3072,0.66007,-6.951,-5.1429,-17.016001,-6.4412,-10.306,-9.1026,3.873,-9.8039,-1.4103
-13.962,0.12698,-0.65041,-14.951,1.9608,16.0,2.5765,-14.879,4.466,-14.951,1.9608,3.9604,-4.4234,-1.3333,-15.746,-5.7971,-9.6618,-25.768999,1.3333,-8.4967,-0.76923
1.761,9.0159,7.8049,8.3495,13.072,-0.26016,12.882,-1.9968,16.764,8.3495,13.072,9.901,3.1596,5.0159,-1.1429,3.2206,0.64412,-4.6154,12.127,1.9608,8.8462
-0.12579,11.556,13.008,10.939,9.1503,-6.7642,10.306,-9.7262,3.1715,10.939,9.1503,9.901,4.4234,5.6508,0.12698,8.3736,7.0853,-0.76923,12.127,-0.65359,9.4872
9.3082,24.254,25.365999,-1.3592,13.072,18.601999,19.323999,-6.5056,22.589001,-1.3592,13.072,19.802,10.111,14.54,9.6508,19.968,18.68,-1.4103,15.302,-0.65359,13.974
7.4214,17.27,20.813,3.1715,10.458,-21.724001,9.6618,-0.70853,7.7023,3.1715,10.458,13.861,8.2148,10.095,10.921,18.035,18.68,-11.026,10.857,-1.9608,10.128
16.226,25.524,26.016001,10.291,15.033,34.862,25.121,1.2238,14.822,10.291,15.033,22.441999,10.742,12.635,16.635,25.121,24.476999,-14.231,14.032,3.268,16.538
17.483999,23.618999,23.415001,14.175,19.608,31.610001,25.764999,5.0886,12.233,14.175,19.608,22.441999,8.8468,12.635,16.0,21.9,21.256001,12.692,11.492,1.3072,12.692
6.1635,16.635,16.910999,21.294001,15.033,3.6423,22.544001,9.5974,3.8188,21.294001,15.033,15.842,5.0553,10.095,9.0159,15.459,15.459,6.2821,7.0476,-0.65359,8.8462
9.9371,10.286,14.309,11.586,13.072,3.6423,8.3736,-0.06441,6.4078,11.586,13.072,11.881,7.5829,10.095,12.825,11.594,14.815,-9.7436,12.127,5.8824,10.128
-0.75472,-8.7619,-3.9024,-6.5372,-2.6144,-4.813,-8.3736,-5.2174,-0.71197,-6.5372,-2.6144,-6.6007,5.0553,6.2857,7.1111,1.2882,4.5089,-5.8974,0.06349,1.9608,0.51282
-0.12579,-6.2222,-4.5528,-0.06472,1.3072,-13.919,-1.2882,-3.285,-2.0065,-0.06472,1.3072,-7.2607,10.111,8.1905,5.8413,1.2882,4.5089,-8.4615,-1.8413,4.5752,5.641
0.50314,3.3016,-4.5528,-5.2427,-4.5752,-2.8618,-5.7971,-8.438,1.877,-5.2427,-4.5752,-9.2409,11.374,8.8254,6.4762,3.2206,2.5765,9.4872,3.2381,5.2288,5.0
-9.5597,-8.7619,-14.959,-10.421,-7.1895,-15.22,-15.459,-8.438,-5.89,-10.421,-7.1895,-18.482,8.2148,3.746,-1.1429,-1.2882,-1.9324,-14.231,-0.57143,1.9608,3.0769
-1.3836,-4.3175,-8.4553,-5.89,-7.1895,-9.3659,-14.171,2.5121,-5.89,-5.89,-7.1895,-17.162001,9.4787,5.0159,3.9365,1.9324,1.9324,6.2821,-1.2063,3.9216,-0.76923
6.1635,2.6667,-4.5528,2.5243,-6.5359,1.6911,-7.7295,-5.8615,-13.01,2.5243,-6.5359,-11.881,6.951,3.1111,4.5714,3.2206,2.5765,8.2051,-2.4762,5.2288,1.1538
-5.7862,3.9365,-5.2033,-9.1262,-4.5752,4.2927,-1.9324,-5.8615,-13.01,-9.1262,-4.5752,-7.2607,4.4234,-1.3333,-1.7778,3.8647,-0.64412,-7.8205,3.873,0.65359,3.7179
-5.1572,8.381,0.0,0.58252,-5.8824,-13.919,-5.153,-9.0821,1.877,0.58252,-5.8824,-5.2805,1.8957,-2.6032,-0.50794,4.5089,-0.64412,-9.1026,7.6825,-0.65359,2.4359
-3.2704,9.6508,1.3008,-6.5372,-2.6144,-8.065,-3.8647,1.868,-2.6537,-6.5372,-2.6144,-3.9604,1.8957,-1.3333,-3.0476,5.7971,0.64412,-9.7436,7.0476,-4.5752,-0.12821
-5.7862,5.8413,0.0,-0.71197,0.65359,-1.561,2.5765,-7.7939,12.88,-0.71197,0.65359,-2.6403,-2.5276,-1.9683,-6.8571,5.7971,-0.64412,-2.6923,7.0476,-1.3072,-1.4103
-7.044,10.286,4.5528,-1.3592,0.65359,-0.26016,5.7971,-14.879,8.3495,-1.3592,0.65359,1.9802,-3.1596,-2.6032,-7.4921,7.0853,0.0,-17.436001,8.9524,-6.5359,1.7949
-6.4151,19.809999,11.707,-14.304,4.5752,5.5935,11.594,-4.5733,-0.71197,-14.304,4.5752,9.2409,0.0,3.746,-4.9524,12.882,5.7971,-5.8974,12.762,-3.9216,7.5641
-0.12579,22.349001,17.561001,4.466,13.725,4.9431,16.747,-12.303,18.705999,4.466,13.725,15.182,1.8957,5.6508,0.7619,18.68,12.238,2.4359,17.841,2.6144,13.333
-1.3836,29.333,19.511999,1.2298,15.033,21.854,25.764999,-7.7939,16.117001,1.2298,15.033,21.122,5.6872,11.365,3.3016,21.256001,15.459,-0.12821,19.746,1.9608,12.051
8.0503,21.714001,20.163,2.5243,14.379,1.0407,16.747,-11.014,12.233,2.5243,14.379,15.842,8.2148,13.27,7.746,19.968,18.68,-4.6154,21.016001,3.9216,13.974
6.1635,19.174999,16.910999,2.5243,6.5359,-15.22,12.238,-7.7939,-1.3592,2.5243,6.5359,13.201,5.6872,11.365,9.0159,18.68,16.103001,1.1538,14.032,2.6144,14.615
8.0503,9.0159,8.4553,1.2298,3.9216,2.9919,2.5765,-5.2174,8.9968,1.2298,3.9216,11.881,-1.8957,-0.06349,5.2063,9.0177,7.7295,17.179001,7.6825,-0.65359,7.5641
8.6792,4.5714,5.8537,3.8188,1.3072,23.805,3.8647,13.462,5.7605,3.8188,1.3072,11.881,-1.8957,-0.06349,6.4762,2.5765,5.153,8.8462,5.1429,1.3072,-0.76923
14.34,0.7619,2.6016,-5.2427,-3.268,12.098,-4.5089,8.9533,-5.89,-5.2427,-3.268,7.9208,-1.8957,-0.69841,5.8413,-3.8647,1.9324,3.0769,-3.1111,2.6144,-2.0513
6.1635,-11.937,-4.5528,3.1715,-6.5359,12.748,-11.594,11.53,-10.421,3.1715,-6.5359,1.9802,-5.0553,-5.1429,2.6667,-9.0177,-3.8647,17.820999,-8.8254,2.6144,-6.5385
4.2767,-8.127,-1.9512,1.877,-1.3072,-0.91057,-1.9324,12.818,3.8188,1.877,-1.3072,3.3003,-6.951,-1.9683,3.3016,-5.153,-1.2882,6.2821,-4.381,2.6144,-1.4103
13.082,-2.4127,5.2033,5.7605,-0.65359,18.601999,-5.153,-2.6409,-3.9482,5.7605,-0.65359,8.5809,-5.0553,-1.3333,4.5714,-3.2206,0.64412,0.51282,-3.1111,-3.268,-0.12821
4.9057,-7.4921,3.252,10.291,1.3072,-12.618,-7.0853,5.7327,2.5243,10.291,1.3072,7.2607,-7.5829,-2.6032,0.12698,-5.153,-2.5765,10.769,-1.8413,-2.6144,-4.6154
11.195,10.286,11.707,-0.71197,1.9608,10.797,9.6618,22.48,-11.715,-0.71197,1.9608,17.162001,-2.5276,2.4762,4.5714,6.4412,5.7971,8.8462,-5.6508,-0.65359,-3.9744
14.969,5.2063,11.057,13.528,2.6144,21.854,4.5089,5.7327,-7.1845,13.528,2.6144,9.901,-0.63191,5.6508,4.5714,5.7971,4.5089,-6.5385,-4.381,-0.65359,3.0769
-3.2704,-0.50794,1.9512,2.5243,0.65359,6.8943,-3.2206,-0.06441,-1.3592,2.5243,0.65359,0.0,-1.8957,5.0159,-0.50794,3.8647,0.64412,8.2051,0.06349,-1.3072,7.5641
-3.2704,2.6667,0.65041,1.2298,1.9608,2.3415,1.9324,8.3092,10.291,1.2298,1.9608,2.6403,-0.63191,2.4762,-2.4127,5.7971,0.64412,5.641,-2.4762,-1.9608,3.0769
-8.9308,1.3968,-7.8049,-2.0065,-1.3072,18.601999,-1.2882,-10.37,-11.715,-2.0065,-1.3072,-5.9406,-3.7915,1.8413,-10.032,-1.2882,-7.7295,-11.667,-10.73,-4.5752,-0.12821
-10.189,2.0317,-7.1545,-0.06472,-0.65359,-15.87,3.8647,-11.659,-10.421,-0.06472,-0.65359,-7.2607,0.63191,7.5556,-8.127,0.64412,-4.5089,-3.3333,-1.8413,-1.9608,3.0769
-11.447,-6.2222,-6.5041,3.1715,5.2288,-8.065,-3.2206,3.8003,2.5243,3.1715,5.2288,-6.6007,3.7915,8.8254,-6.2222,0.64412,-2.5765,-3.3333,1.9683,1.9608,6.9231
-13.962,-4.3175,-9.7561,-2.6537,-3.9216,-32.130001,-1.9324,-0.06441,14.822,-2.6537,-3.9216,-14.521,5.0553,10.095,-6.2222,1.2882,-3.2206,-12.308,7.0476,1.9608,8.2051
-6.4151,-2.4127,-6.5041,-3.9482,2.6144,-1.561,6.4412,-11.659,-2.0065,-3.9482,2.6144,-9.2409,8.2148,12.635,1.3968,5.7971,1.9324,-3.3333,12.127,5.2288,17.179001
-8.3019,-5.5873,-10.407,-3.9482,-0.65359,-11.967,0.0,-6.5056,-5.2427,-3.9482,-0.65359,-11.221,3.1596,7.5556,-1.1429,0.0,-1.9324,-0.76923,7.0476,0.0,8.2051
-3.8994,9.6508,-0.65041,3.8188,5.8824,-10.016,13.527,5.0886,8.3495,3.8188,5.8824,-1.3201,0.0,4.381,0.12698,5.7971,1.2882,-8.4615,9.5873,0.0,8.8462
6.7925,12.825,10.407,-0.06472,11.111,6.2439,19.968,-7.1498,27.120001,-0.06472,11.111,8.5809,4.4234,7.5556,7.746,12.238,7.7295,1.1538,19.746,4.5752,13.974
-1.3836,3.3016,4.5528,-0.06472,6.5359,2.3415,9.0177,-11.014,11.586,-0.06472,6.5359,1.3201,2.5276,3.746,5.2063,7.0853,5.7971,13.974,18.476,4.5752,12.051
-1.3836,2.0317,-1.9512,-11.715,-3.268,-18.472,-3.2206,-9.7262,-0.06472,-11.715,-3.268,-9.2409,-1.8957,-0.06349,4.5714,5.7971,1.9324,5.641,13.397,10.458,8.2051
4.9057,7.1111,1.9512,-11.715,-3.268,-6.1138,-0.64412,-9.0821,-2.6537,-11.715,-3.268,-5.9406,0.63191,1.2063,3.9365,5.7971,4.5089,14.615,2.6032,3.9216,4.359
4.2767,-2.4127,-2.6016,-15.599,-7.8431,-15.22,-5.7971,-3.285,-14.304,-15.599,-7.8431,-8.5809,-1.2638,-4.5079,0.7619,-3.2206,-1.2882,-2.6923,-7.5556,-1.3072,-5.8974
-3.8994,-16.381001,-13.659,-5.2427,-13.072,-16.52,-3.8647,-6.5056,-0.06472,-5.2427,-13.072,-19.802,-5.6872,-9.5873,-4.9524,-12.238,-9.6618,-1.4103,-6.2857,3.9216,-9.1026
-16.478001,-23.365,-21.462999,-12.362,-22.222,-19.122,-28.341,-12.947,-24.013,-12.362,-22.222,-28.382999,-12.006,-15.302,-14.476,-18.68,-17.391001,3.0769,-13.27,-6.5359,-14.872
-10.189,-18.285999,-17.561001,-27.896,-24.183001,-18.472,-32.849998,-21.32,-18.188,-27.896,-24.183001,-23.761999,-13.27,-16.570999,-11.302,-17.391001,-16.747,-28.974001,-13.905,-7.1895,-15.513
-2.0126,-10.032,-7.1545,-4.5955,-15.033,-10.016,-10.306,-5.2174,-3.9482,-4.5955,-15.033,-13.201,-6.3191,-8.9524,-5.5873,-10.95,-11.594,-5.8974,-8.1905,-5.2288,-9.1026
12.453,1.3968,6.5041,5.1133,-1.9608,18.601999,-5.7971,13.462,0.58252,5.1133,-1.9608,5.9406,5.6872,3.746,7.746,-1.2882,0.0,6.9231,3.2381,3.9216,1.7949
4.2767,-1.7778,5.8537,-0.71197,1.3072,8.1951,6.4412,-3.9291,-2.6537,-0.71197,1.3072,7.9208,0.63191,-0.06349,0.12698,-4.5089,-2.5765,4.359,-1.8413,-2.6144,-0.76923
1.761,-3.6825,4.5528,-1.3592,-0.65359,-8.7154,-2.5765,-0.70853,-2.0065,-1.3592,-0.65359,6.6007,3.7915,-0.06349,2.0317,-4.5089,-0.64412,-7.8205,-1.8413,-1.3072,-2.0513
-0.75472,-1.1429,-1.3008,5.1133,1.3072,4.2927,4.5089,10.886,3.8188,5.1133,1.3072,6.6007,2.5276,-2.6032,-0.50794,-9.0177,-3.2206,-3.9744,-8.8254,-1.9608,-7.1795
-3.8994,-13.841,-2.6016,7.7023,0.0,2.3415,-3.8647,5.7327,7.7023,7.7023,0.0,2.6403,4.4234,-0.69841,0.7619,-10.95,-1.9324,-3.3333,-1.8413,-1.3072,-4.6154
-0.75472,-4.3175,3.252,5.1133,4.5752,8.8455,2.5765,3.1562,13.528,5.1133,4.5752,5.9406,6.3191,1.8413,5.2063,-5.153,4.5089,-11.026,-1.2063,0.0,-0.76923
0.50314,-8.7619,-6.5041,-3.301,-7.1895,3.6423,-13.527,-1.3527,-9.1262,-3.301,-7.1895,-5.2805,5.0553,-1.9683,3.9365,-5.7971,1.9324,1.1538,-8.8254,1.9608,-2.6923
-2.6415,-6.2222,-7.8049,0.58252,4.5752,-3.5122,-5.7971,6.3768,-3.9482,0.58252,4.5752,-4.6205,8.2148,3.746,4.5714,-2.5765,3.8647,6.2821,-6.2857,6.5359,-4.6154
-1.3836,-5.5873,-5.8537,1.877,0.65359,2.9919,-4.5089,3.8003,1.877,1.877,0.65359,-1.9802,5.6872,1.8413,1.3968,-3.2206,1.2882,-2.0513,-5.6508,3.9216,-0.76923
6.7925,10.286,5.8537,9.644,7.8431,14.049,9.6618,6.3768,7.7023,9.644,7.8431,8.5809,5.6872,3.746,3.3016,7.0853,6.4412,10.128,10.222,4.5752,8.2051
-0.75472,3.3016,-1.9512,2.5243,1.3072,-31.48,-5.153,4.4444,-2.0065,2.5243,1.3072,-3.3003,1.2638,-0.06349,-4.3175,2.5765,-0.64412,4.359,-3.1111,1.9608,-0.76923
7.4214,7.1111,1.9512,6.4078,2.6144,16.65,2.5765,13.462,8.9968,6.4078,2.6144,2.6403,2.5276,1.2063,2.6667,5.153,3.2206,3.0769,-1.8413,7.1895,3.7179
14.34,9.0159,7.8049,11.586,5.8824,7.5447,9.0177,10.242,1.877,11.586,5.8824,10.561,-1.8957,-3.2381,3.9365,4.5089,2.5765,3.7179,3.873,5.2288,1.1538
6.7925,9.0159,5.8537,7.055,8.4967,20.552999,14.815,14.106,4.466,7.055,8.4967,15.182,-3.1596,-5.1429,-1.7778,2.5765,-1.2882,12.692,3.873,0.65359,-2.0513
3.6478,3.3016,-0.65041,0.58252,-0.65359,14.049,7.0853,11.53,-14.951,0.58252,-0.65359,4.6205,-7.5829,-12.127,-1.7778,-5.153,-5.7971,16.538,-10.73,-3.268,-11.026
13.082,0.12698,5.2033,13.528,5.8824,2.9919,4.5089,15.395,-2.6537,13.528,5.8824,7.9208,0.63191,-4.5079,10.921,-0.64412,2.5765,17.179001,-0.57143,4.5752,-5.8974
13.711,-1.7778,5.2033,3.8188,7.1895,4.9431,-3.8647,10.886,-7.8317,3.8188,7.1895,6.6007,0.0,-6.4127,9.6508,-3.8647,0.64412,3.7179,-6.9206,-1.3072,-5.8974
4.2767,-6.2222,3.252,0.58252,-0.65359,-5.4634,-18.035,-11.014,-7.8317,0.58252,-0.65359,-3.3003,-1.8957,-4.5079,3.9365,-3.8647,-1.2882,5.0,-5.0159,-3.268,-3.3333
8.6792,0.7619,5.8537,1.877,1.3072,-0.26016,-5.7971,-5.8615,0.58252,1.877,1.3072,-2.6403,5.6872,2.4762,10.286,3.2206,6.4412,6.2821,1.3333,2.6144,2.4359
4.9057,0.7619,3.252,1.2298,-0.65359,16.0,-5.153,-0.70853,-7.8317,1.2298,-0.65359,-1.9802,6.951,2.4762,10.286,4.5089,8.3736,-11.667,0.69841,0.65359,1.1538
4.2767,5.8413,9.1057,7.7023,9.1503,14.699,10.306,0.57971,10.291,7.7023,9.1503,13.201,7.5829,5.6508,7.746,4.5089,9.0177,8.2051,10.857,-1.3072,1.7949
4.2767,1.3968,7.8049,3.1715,1.9608,-10.016,9.0177,1.868,7.055,3.1715,1.9608,13.201,8.2148,4.381,5.8413,-1.9324,5.7971,-1.4103,1.9683,1.3072,4.359
-3.8994,-6.8571,3.252,7.7023,7.8431,27.707001,8.3736,-1.9968,1.877,7.7023,7.8431,12.541,6.3191,1.2063,3.3016,-7.7295,1.9324,-13.59,-6.2857,0.65359,-0.12821
-6.4151,2.6667,0.65041,5.7605,11.111,19.252001,13.527,4.4444,17.410999,5.7605,11.111,10.561,0.0,-2.6032,-2.4127,-9.6618,-3.8647,-6.5385,-3.746,-6.5359,-6.5385
-13.333,-12.571,-5.8537,17.410999,15.686,-8.065,-3.8647,-0.70853,0.58252,17.410999,15.686,3.3003,1.2638,-1.9683,-8.7619,-12.238,-6.4412,-20.0,0.69841,-5.8824,-3.3333
-13.962,-11.302,-9.7561,8.3495,8.4967,0.39024,-1.9324,0.57971,12.233,8.3495,8.4967,-0.66007,1.2638,-0.69841,-9.3968,-12.882,-8.3736,-0.12821,-1.8413,-1.3072,-6.5385
-11.447,-6.2222,-10.407,15.469,12.418,2.9919,5.7971,3.1562,8.3495,15.469,12.418,-1.3201,0.63191,0.57143,-7.4921,-11.594,-9.0177,-13.59,-1.8413,-3.268,-2.6923
-13.962,-10.667,-14.959,5.7605,8.4967,-10.667,0.0,1.2238,3.1715,5.7605,8.4967,-7.9208,-1.2638,-1.3333,-9.3968,-14.171,-11.594,-2.6923,-2.4762,-3.268,-2.0513
-8.3019,-21.459999,-16.26,3.8188,2.6144,-15.87,-14.815,5.7327,9.644,3.8188,2.6144,-13.201,-2.5276,-5.7778,-6.2222,-16.747,-11.594,-0.12821,-5.6508,-1.3072,-10.385
-0.12579,-8.127,-9.7561,-4.5955,8.4967,-17.820999,-3.2206,-4.5733,10.939,-4.5955,8.4967,-9.2409,1.2638,-1.9683,-0.50794,-9.6618,-5.7971,5.0,-6.2857,3.268,-9.1026
2.3899,-1.7778,-7.1545,-2.0065,0.0,7.5447,-1.2882,-4.5733,7.055,-2.0065,0.0,-9.901,2.5276,3.1111,3.9365,-3.2206,-1.2882,-7.1795,1.3333,3.9216,0.51282
8.0503,-1.7778,-1.3008,-3.9482,-1.3072,2.9919,-12.238,3.1562,4.466,-3.9482,-1.3072,-11.221,6.3191,6.2857,9.6508,2.5765,5.153,-0.12821,8.3175,8.4967,6.9231
13.711,8.381,1.9512,-3.301,3.268,-8.065,-3.2206,-5.8615,10.291,-3.301,3.268,-11.221,6.3191,6.2857,10.286,8.3736,7.7295,2.4359,5.1429,5.8824,6.9231
-2.0126,-3.6825,-7.8049,-9.7735,-16.993,-8.7154,-11.594,-12.303,-3.9482,-9.7735,-16.993,-17.822001,2.5276,3.746,1.3968,0.0,-0.64412,-9.7436,3.2381,1.9608,4.359
-7.673,-16.381001,-13.659,-19.482,-19.608,-16.52,-25.121,-15.523,-2.6537,-19.482,-19.608,-26.403,1.2638,0.57143,-3.6825,-7.0853,-5.7971,-11.026,-5.6508,3.9216,1.7949
-3.8994,-4.9524,-7.8049,-19.482,-15.033,-17.171,-13.527,-12.947,-22.718,-19.482,-15.033,-18.482,-1.2638,-1.3333,-6.2222,-7.0853,-6.4412,-4.6154,-8.1905,1.9608,-1.4103
-9.5597,-16.381001,-11.707,-26.601999,-28.757999,-6.7642,-30.274,-22.608999,-14.304,-26.601999,-28.757999,-29.702999,-4.4234,-4.5079,-10.032,-11.594,-10.95,-8.4615,-6.2857,-1.3072,-7.1795
-8.9308,-11.937,-12.358,-18.834999,-23.528999,-17.820999,-25.121,-9.0821,-9.1262,-18.834999,-23.528999,-28.382999,-2.5276,-2.6032,-11.302,-10.306,-10.306,-9.7436,-6.2857,-1.9608,-1.4103
-17.107,-20.190001,-20.163,-27.249001,-35.948002,-29.528,-34.138,-20.676001,-23.365999,-27.249001,-35.948002,-34.983002,-10.111,-10.222,-18.285999,-16.747,-17.391001,-15.513,-13.905,-6.5359,-9.7436
-17.736,-20.190001,-18.862,-28.544001,-33.333,-17.171,-38.002998,-21.32,-22.718,-28.544001,-33.333,-34.323002,-11.374,-10.857,-17.650999,-16.747,-16.747,-7.1795,-5.0159,-5.8824,-9.1026
-16.478001,-11.302,-16.910999,-29.191,-36.601002,-22.374001,-25.121,-20.676001,-25.955,-29.191,-36.601002,-31.023001,-14.534,-10.857,-20.825001,-17.391001,-19.968,-2.0513,-6.2857,-13.072,-6.5385
-15.849,-23.365,-19.511999,-35.662998,-30.719,-33.431,-31.562,-19.388,-13.657,-35.662998,-30.719,-30.363001,-17.694,-17.205999,-25.27,-22.544001,-23.188,-11.026,-10.73,-18.954,-11.026
-21.509001,-24.0,-21.462999,-27.249001,-29.412001,-41.236,-25.764999,-11.014,-6.5372,-27.249001,-29.412001,-30.363001,-16.43,-14.032,-22.73,-24.476999,-23.188,-12.308,-8.8254,-13.072,-11.667
-20.252001,-22.73,-22.114,-22.718,-31.372999,-18.472,-23.833,-14.879,-27.896,-22.718,-31.372999,-31.023001,-12.638,-8.9524,-20.825001,-21.9,-21.256001,-11.026,-9.4603,-12.418,-7.1795
-15.849,-8.127,-13.008,-25.955,-22.875999,-16.52,-14.171,-10.37,5.1133,-25.955,-22.875999,-21.122,-6.3191,-3.2381,-16.381001,-10.95,-12.882,-13.59,6.4127,-9.1503,0.51282
-21.509001,-6.2222,-12.358,-12.362,-15.033,-32.779999,-0.64412,-5.8615,-2.6537,-12.362,-15.033,-17.822001,-5.6872,-1.3333,-17.650999,-9.0177,-11.594,-6.5385,3.2381,-9.1503,-2.0513
-23.396,-13.206,-16.26,-13.01,-12.418,-4.813,-18.035,-6.5056,-14.304,-13.01,-12.418,-16.502001,-8.8468,-5.1429,-18.921,-13.527,-16.103001,-12.949,-5.6508,-2.6144,-5.8974
-13.962,0.7619,-6.5041,-3.301,-7.8431,-15.22,-2.5765,0.57971,1.2298,-3.301,-7.8431,-3.3003,-2.5276,1.2063,-16.381001,-3.8647,-7.7295,-7.8205,-2.4762,-7.8431,0.51282
-10.189,5.8413,-1.9512,2.5243,2.6144,9.4959,6.4412,-0.70853,9.644,2.5243,2.6144,3.9604,-1.8957,3.1111,-11.302,1.2882,-3.8647,-8.4615,10.222,-7.1895,5.641
-8.3019,15.365,2.6016,1.877,1.9608,-2.2114,12.882,2.5121,0.58252,1.877,1.9608,7.2607,-3.1596,1.8413,-8.7619,4.5089,-1.2882,6.2821,5.7778,-2.6144,3.7179
-2.6415,5.2063,3.252,-5.89,-1.3072,0.39024,5.7971,-7.7939,7.7023,-5.89,-1.3072,5.2805,-5.0553,-1.9683,-8.7619,2.5765,-2.5765,1.7949,2.6032,-4.5752,0.51282
-3.8994,0.12698,0.0,-5.89,-5.8824,16.0,-2.5765,3.1562,4.466,-5.89,-5.8824,3.3003,-5.6872,-3.2381,-8.127,1.2882,-4.5089,-4.6154,0.69841,-4.5752,-4.6154
3.0189,14.73,5.2033,2.5243,1.9608,-3.5122,17.391001,5.0886,-5.89,2.5243,1.9608,11.881,-0.63191,3.1111,-3.6825,4.5089,0.0,10.769,-3.746,1.9608,0.51282
2.3899,-4.3175,0.0,-2.0065,-6.5359,1.6911,-5.153,-1.9968,-11.715,-2.0065,-6.5359,3.3003,-2.5276,-1.9683,-4.3175,-3.8647,-4.5089,6.9231,-3.1111,0.65359,-2.6923
0.50314,-1.1429,1.9512,1.2298,-1.9608,6.2439,1.2882,12.174,-5.2427,1.2298,-1.9608,3.9604,-0.63191,-4.5079,-2.4127,-3.2206,-2.5765,2.4359,-6.2857,0.65359,-3.3333
6.1635,-1.7778,1.3008,0.58252,-7.1895,17.301001,0.0,17.327,-16.246,0.58252,-7.1895,6.6007,-1.8957,-3.873,0.12698,-0.64412,-1.9324,10.128,-12.635,-0.65359,-7.1795
9.3082,-4.3175,3.252,3.1715,-5.2288,5.5935,-3.8647,3.8003,-7.8317,3.1715,-5.2288,6.6007,-0.63191,-2.6032,2.6667,0.0,0.0,17.820999,-8.1905,3.9216,-3.9744
26.289,6.4762,16.26,7.055,-1.3072,19.252001,3.2206,15.395,1.2298,7.055,-1.3072,17.822001,7.5829,5.6508,14.095,8.3736,10.306,24.231001,-7.5556,6.5359,0.51282
21.886999,2.6667,20.163,1.2298,0.65359,15.35,10.306,10.886,3.1715,1.2298,0.65359,21.782,6.951,3.1111,14.73,9.0177,12.238,8.2051,1.9683,7.8431,2.4359
10.566,-0.50794,14.309,1.877,1.3072,10.146,-1.9324,5.7327,-7.8317,1.877,1.3072,16.502001,0.63191,-3.2381,7.1111,3.2206,5.153,0.51282,-4.381,5.2288,-7.1795
12.453,6.4762,11.707,10.291,7.8431,3.6423,11.594,11.53,5.7605,10.291,7.8431,21.122,-4.4234,-7.0476,2.6667,1.9324,1.2882,6.9231,-6.2857,3.268,-7.1795
4.2767,0.12698,3.9024,11.586,-4.5752,14.699,-5.153,6.3768,-14.951,11.586,-4.5752,13.201,-8.8468,-13.397,-3.6825,-4.5089,-4.5089,13.974,-14.54,-0.65359,-9.7436
6.1635,-0.50794,9.7561,15.469,7.1895,38.113998,5.7971,20.548,-9.1262,15.469,7.1895,19.802,-5.6872,-4.5079,0.12698,0.0,-0.64412,9.4872,-8.1905,1.3072,-5.2564
-0.75472,7.1111,6.5041,12.88,15.033,29.659,21.9,14.106,-2.0065,12.88,15.033,23.761999,-10.742,-6.4127,-7.4921,0.64412,-4.5089,6.2821,-4.381,-3.268,-3.9744
-0.75472,-3.0476,-1.9512,5.7605,9.1503,0.39024,-0.64412,1.2238,-5.89,5.7605,9.1503,12.541,-13.902,-10.857,-10.032,-1.9324,-7.0853,1.1538,-12.635,-7.8431,-9.1026
-1.3836,-1.7778,5.8537,19.353001,17.646999,10.146,12.882,10.886,8.9968,19.353001,17.646999,21.782,-12.638,-9.5873,-6.8571,0.0,-2.5765,6.9231,-8.8254,-5.8824,-7.8205
11.195,8.381,20.813,12.88,24.837,32.259998,19.323999,14.106,2.5243,12.88,24.837,33.002998,-5.6872,-1.9683,3.3016,8.3736,8.3736,6.2821,-1.8413,-4.5752,-1.4103
13.711,13.46,21.462999,24.531,26.143999,26.407,28.986,10.886,18.058001,24.531,26.143999,33.662998,-7.5829,-3.2381,2.0317,7.0853,6.4412,3.0769,-2.4762,-5.2288,1.1538
19.371,18.540001,24.715,29.061001,28.105,29.659,28.341,17.327,10.291,29.061001,28.105,38.944,-6.3191,-2.6032,8.381,9.6618,9.6618,-7.8205,3.2381,-1.3072,1.1538
26.289,25.524,31.219999,29.061001,33.333,41.366001,39.291,32.785999,18.705999,29.061001,33.333,43.563999,1.2638,3.1111,14.095,16.103001,16.103001,16.538,7.6825,4.5752,6.9231
18.113001,12.825,23.415001,16.764,19.608,21.854,21.9,17.327,-4.5955,16.764,19.608,33.002998,-1.8957,-4.5079,9.0159,8.3736,9.6618,12.692,-3.1111,0.0,-2.6923
23.774,16.0,26.667,14.822,18.301001,23.153999,19.968,9.5974,1.2298,14.822,18.301001,36.304001,3.1596,1.8413,15.365,10.95,14.815,20.385,0.06349,5.2288,0.51282
13.082,15.365,16.26,20.0,21.569,19.902,18.035,21.191999,15.469,20.0,21.569,23.101999,5.0553,4.381,10.921,12.238,11.594,14.615,3.2381,7.8431,3.7179
1.761,13.46,5.8537,28.414,23.528999,21.202999,23.188,15.395,1.2298,28.414,23.528999,15.182,4.4234,1.2063,7.746,10.95,8.3736,-1.4103,-1.8413,8.4967,2.4359
-1.3836,9.0159,0.0,5.1133,11.765,14.699,13.527,1.2238,11.586,5.1133,11.765,6.6007,1.2638,-1.3333,5.2063,7.7295,5.153,10.128,-2.4762,5.2288,-3.3333
1.1321,3.3016,-0.65041,2.5243,15.033,-3.5122,10.95,1.2238,11.586,2.5243,15.033,3.9604,2.5276,-2.6032,7.746,5.7971,3.8647,12.051,-1.8413,9.1503,-2.0513
-1.3836,0.7619,-5.2033,1.2298,5.8824,-15.22,0.64412,-5.2174,-1.3592,1.2298,5.8824,-4.6205,2.5276,-0.69841,4.5714,1.9324,0.64412,2.4359,-1.8413,6.5359,-1.4103
-0.12579,-2.4127,-8.4553,-2.0065,3.9216,-8.065,-2.5765,3.1562,-3.301,-2.0065,3.9216,-10.561,1.2638,-3.2381,2.6667,-0.64412,-2.5765,6.2821,-6.9206,9.8039,-3.9744
1.761,-1.1429,-5.8537,-5.2427,0.0,-8.065,1.2882,-3.285,-7.1845,-5.2427,0.0,-11.881,0.63191,-3.873,3.3016,-2.5765,-3.2206,13.974,-5.0159,7.1895,-4.6154
-2.6415,-10.032,-9.1057,-7.1845,1.9608,-24.976,-7.0853,0.57971,-1.3592,-7.1845,1.9608,-13.861,-3.1596,-7.6825,-1.7778,-9.6618,-9.0177,4.359,-5.0159,7.1895,-7.8205
-13.333,-4.3175,-14.309,0.58252,11.111,-5.4634,20.612,-1.3527,5.7605,0.58252,11.111,-8.5809,-9.4787,-12.762,-13.206,-14.171,-18.68,-2.0513,-3.746,-1.3072,-9.1026
-15.849,0.12698,-13.659,1.2298,7.1895,0.39024,5.153,0.57971,-0.06472,1.2298,7.1895,-7.9208,-6.951,-12.762,-10.032,-11.594,-15.459,0.51282,-5.0159,-1.9608,-9.1026
-7.673,-9.3968,-11.057,-7.1845,7.1895,-7.4146,1.2882,-10.37,1.2298,-7.1845,7.1895,-8.5809,-7.5829,-9.5873,-7.4921,-11.594,-10.95,-0.76923,-8.1905,-0.65359,-9.1026
-3.8994,-6.8571,-5.8537,0.58252,-0.65359,-0.26016,-9.0177,-6.5056,1.2298,0.58252,-0.65359,-13.201,-4.4234,-4.5079,-4.3175,-3.2206,-3.8647,4.359,-3.1111,-5.8824,-5.8974
1.761,3.3016,-1.3008,-8.479,0.0,-4.1626,-8.3736,7.6651,1.2298,-8.479,0.0,-11.881,-2.5276,-1.9683,1.3968,5.153,3.8647,-10.385,5.7778,-6.5359,3.0769
8.6792,19.809999,3.9024,3.8188,5.8824,-3.5122,14.171,10.242,21.941999,3.8188,5.8824,-5.9406,3.7915,4.381,9.6508,14.815,11.594,12.051,13.397,1.3072,6.2821
5.5346,13.46,5.2033,3.1715,5.8824,-14.569,4.5089,0.57971,12.88,3.1715,5.8824,-7.9208,3.1596,6.2857,9.6508,15.459,12.882,-5.8974,14.667,-0.65359,12.051
12.453,13.46,11.707,-4.5955,0.65359,-2.2114,-0.64412,-13.591,15.469,-4.5955,0.65359,-3.3003,9.4787,11.365,16.0,18.68,16.103001,-3.9744,15.937,1.3072,13.974
15.597,34.412998,24.065001,2.5243,16.993,8.1951,25.121,4.4444,25.825001,2.5243,16.993,15.842,17.062,20.889,22.983999,31.562,27.052999,8.2051,37.523998,9.1503,24.872
21.257999,33.143002,27.966999,12.88,18.954,16.0,28.986,7.0209,28.414,12.88,18.954,21.122,24.013,25.968,31.238001,32.849998,31.562,10.128,41.333,17.646999,32.563999
28.805,31.238001,29.919001,14.822,20.915001,25.756001,30.274,-1.3527,30.356001,14.822,20.915001,28.382999,24.645,20.889,35.048,26.409,30.917999,3.0769,21.650999,20.261,19.103001
25.66,36.317001,31.870001,10.939,20.915001,32.910999,39.291,-3.285,20.646999,10.939,20.915001,27.063,20.221001,17.079,31.872999,27.052999,30.274,-1.4103,22.921,16.34,16.538
21.886999,21.079,25.365999,12.88,10.458,25.106001,19.323999,1.868,32.945,12.88,10.458,19.142,14.534,10.73,26.794001,18.68,23.188,-3.9744,21.650999,13.072,12.692
15.597,4.5714,15.61,14.822,8.4967,6.8943,3.2206,7.6651,4.466,14.822,8.4967,15.182,8.8468,6.9206,19.174999,9.0177,15.459,6.9231,10.857,11.765,7.5641
6.1635,-1.1429,4.5528,10.939,5.8824,-15.87,1.2882,13.462,0.58252,10.939,5.8824,4.6205,10.111,10.73,12.19,5.153,10.306,8.8462,3.873,7.8431,6.2821
-3.2704,-17.016001,-11.057,-0.71197,-3.9216,1.6911,-18.68,6.3768,-2.0065,-0.71197,-3.9216,-10.561,2.5276,-0.06349,1.3968,-5.7971,-1.9324,-6.5385,-6.2857,1.9608,-5.2564
-12.075,-20.825001,-20.163,-3.301,-17.646999,-21.724001,-18.035,-5.8615,-17.540001,-3.301,-17.646999,-20.462,-6.951,-7.6825,-12.571,-12.238,-13.527,8.2051,-12.0,-1.9608,-10.385
-15.849,-20.190001,-23.415001,-21.424,-28.105,-22.374001,-32.849998,-7.1498,-25.955,-21.424,-28.105,-23.101999,-12.006,-12.127,-20.825001,-12.238,-18.035,4.359,-24.698,-12.418,-14.231
-12.704,-6.2222,-15.61,-11.715,-18.954,-11.317,-17.391001,-3.285,-26.601999,-11.715,-18.954,-13.861,-8.8468,-8.9524,-14.476,-5.153,-10.306,-8.4615,-17.714001,-8.4967,-13.59
-10.189,-14.476,-12.358,-3.301,-19.608,4.2927,-26.409,1.2238,-31.780001,-3.301,-19.608,-14.521,-5.0553,-6.4127,-11.302,-3.8647,-7.0853,5.641,-14.54,-5.2288,-9.1026
-3.2704,-6.8571,-3.252,-7.8317,-13.725,4.2927,-18.035,-5.2174,-5.2427,-7.8317,-13.725,-5.2805,-1.8957,-0.69841,-4.9524,5.153,0.0,-11.026,-8.8254,-9.1503,-1.4103
16.226,20.444,14.309,12.88,8.4967,8.1951,14.815,-1.9968,7.7023,12.88,8.4967,12.541,13.902,14.54,12.19,23.833,18.035,-3.3333,11.492,7.1895,17.820999
4.2767,12.19,7.8049,3.1715,-3.9216,2.3415,-3.2206,1.868,-3.301,3.1715,-3.9216,1.9802,10.111,11.365,10.921,21.256001,14.171,10.769,12.127,3.9216,15.256
3.0189,17.905001,11.707,-0.06472,7.8431,3.6423,7.0853,1.2238,9.644,-0.06472,7.8431,8.5809,10.111,14.54,11.556,27.052999,19.968,4.359,17.205999,0.65359,21.025999
14.34,21.079,18.211,14.175,14.379,-0.26016,20.612,13.462,17.410999,14.175,14.379,14.521,15.798,16.444,24.254,29.629999,27.052999,5.641,22.921,14.379,22.948999
16.226,18.540001,18.862,1.877,10.458,-14.569,18.68,8.3092,12.88,1.877,10.458,12.541,18.957001,18.983999,25.524,25.121,26.409,12.051,21.650999,13.725,21.025999
9.3082,10.286,16.26,3.8188,1.3072,17.951,-0.64412,3.1562,5.7605,3.8188,1.3072,5.9406,15.798,13.905,19.809999,20.612,21.9,8.2051,11.492,9.1503,14.615
10.566,17.905001,16.910999,5.7605,-1.3072,6.2439,4.5089,3.1562,18.705999,5.7605,-1.3072,4.6205,13.902,12.635,20.444,22.544001,21.256001,6.2821,21.650999,9.8039,17.179001
-2.6415,7.746,5.2033,-10.421,-9.1503,-13.919,0.64412,-12.303,5.7605,-10.421,-9.1503,-1.9802,10.111,10.095,10.286,15.459,13.527,8.2051,13.397,1.3072,12.692
3.6478,13.46,9.7561,-2.6537,1.9608,13.398,13.527,-1.9968,2.5243,-2.6537,1.9608,3.3003,13.902,13.27,14.73,21.9,18.035,2.4359,10.857,7.8431,11.41
9.9371,24.254,18.211,5.7605,10.458,2.9919,14.815,1.868,1.877,5.7605,10.458,11.221,15.798,18.349001,16.0,27.052999,21.9,-11.667,23.556,7.1895,21.667
3.6478,14.73,11.057,-3.301,5.8824,-5.4634,3.8647,-3.9291,8.9968,-3.301,5.8824,11.221,12.638,16.444,10.921,20.612,16.103001,-7.8205,20.381001,3.9216,21.667
6.7925,21.714001,14.959,1.877,5.8824,12.748,16.747,-9.0821,-4.5955,1.877,5.8824,17.162001,13.902,16.444,11.556,18.68,16.103001,1.1538,12.762,4.5752,17.820999
14.969,22.349001,22.114,-4.5955,9.1503,-10.667,19.968,-10.37,29.061001,-4.5955,9.1503,21.122,14.534,18.983999,14.73,19.968,19.323999,-7.1795,24.190001,5.8824,22.308001
11.195,3.9365,13.659,3.1715,5.8824,30.959,4.5089,-7.1498,4.466,3.1715,5.8824,16.502001,8.8468,10.73,10.921,10.95,13.527,-11.026,15.302,1.9608,15.256
11.195,9.6508,12.358,18.058001,7.8431,-10.667,9.6618,3.1562,11.586,18.058001,7.8431,17.822001,8.2148,12.635,12.825,9.0177,12.238,3.0769,12.762,8.4967,10.769
3.0189,9.0159,9.1057,18.705999,18.301001,20.552999,27.697001,6.3768,-9.1262,18.705999,18.301001,24.422001,3.7915,6.2857,4.5714,3.8647,5.7971,8.8462,2.6032,1.9608,6.2821
2.3899,0.12698,5.2033,12.88,10.458,17.951,14.171,5.0886,-2.6537,12.88,10.458,16.502001,1.8957,1.8413,4.5714,-1.9324,1.9324,1.7949,0.69841,1.9608,-3.9744
3.0189,-6.8571,1.3008,14.822,9.8039,5.5935,-1.2882,7.0209,-6.5372,14.822,9.8039,11.221,0.63191,-2.6032,3.3016,-6.4412,0.64412,-1.4103,-8.1905,3.268,-6.5385
8.6792,-11.302,-7.1545,-5.89,0.65359,16.65,-9.0177,-1.3527,-3.301,-5.89,0.65359,3.3003,-0.63191,-7.0476,2.6667,-10.95,-3.8647,4.359,-8.8254,1.3072,-12.949
1.1321,-11.937,-14.309,2.5243,-3.9216,-11.967,-9.6618,-2.6409,-7.8317,2.5243,-3.9216,-5.9406,-3.7915,-12.762,0.12698,-14.815,-8.3736,1.7949,-15.175,1.3072,-15.513
5.5346,-4.3175,-9.7561,-2.6537,-3.268,-2.8618,-6.4412,1.868,-14.304,-2.6537,-3.268,-4.6205,1.2638,-7.6825,3.9365,-9.6618,-5.153,0.51282,-17.714001,5.2288,-12.949
8.0503,-12.571,-6.5041,-10.421,-9.1503,-20.423,-14.171,-9.0821,-7.1845,-10.421,-9.1503,-8.5809,1.2638,-7.6825,4.5714,-9.0177,-3.2206,-11.026,-15.81,1.3072,-16.153999
-7.044,-9.3968,-7.1545,-7.1845,-15.033,6.2439,-16.747,-14.235,-9.7735,-7.1845,-15.033,-11.881,1.2638,-6.4127,-0.50794,-5.153,-2.5765,-1.4103,-17.714001,3.268,-8.4615
-8.9308,1.3968,-3.252,-2.6537,-11.111,12.748,-7.7295,-7.7939,-14.304,-2.6537,-11.111,-7.9208,3.1596,-3.2381,-1.7778,0.64412,-0.64412,-10.385,-12.0,-0.65359,-4.6154
-3.2704,3.3016,4.5528,-0.71197,-6.5359,2.9919,-5.153,-9.0821,-9.7735,-0.71197,-6.5359,-0.66007,5.6872,1.8413,0.7619,5.153,2.5765,-16.795,-9.4603,2.6144,1.7949
-3.2704,8.381,5.8537,0.58252,-5.8824,-2.2114,-8.3736,-4.5733,-11.068,0.58252,-5.8824,-2.6403,4.4234,6.9206,0.7619,8.3736,3.8647,-6.5385,-10.73,0.65359,3.0769
-7.673,5.8413,1.9512,-3.301,1.9608,-10.667,-0.64412,-11.014,-4.5955,-3.301,1.9608,-3.3003,3.7915,8.8254,-4.9524,7.7295,3.2206,-5.8974,6.4127,-5.8824,8.8462
-7.673,4.5714,1.3008,-3.301,0.0,-10.667,-3.2206,-11.014,-0.06472,-3.301,0.0,-3.9604,3.1596,11.365,-6.8571,9.6618,3.8647,-16.795,6.4127,-9.1503,14.615
-7.673,4.5714,3.252,-7.8317,-0.65359,-19.122,1.2882,-7.1498,1.877,-7.8317,-0.65359,-1.9802,-1.8957,6.2857,-9.3968,6.4412,1.9324,-9.7436,3.2381,-10.458,8.8462
-9.5597,-1.1429,1.3008,-6.5372,-3.268,-2.2114,-0.64412,-12.303,11.586,-6.5372,-3.268,-5.9406,-0.63191,6.9206,-10.032,5.7971,1.9324,-21.923,7.0476,-11.765,10.128
-12.075,-8.127,-7.1545,-6.5372,-3.268,-30.179001,-3.2206,-16.812,-5.89,-6.5372,-3.268,-9.901,-2.5276,5.6508,-10.667,-1.2882,-3.8647,-21.282,7.6825,-8.4967,10.128
-15.849,-4.9524,-12.358,-10.421,0.0,-4.813,4.5089,-20.676001,29.061001,-10.421,0.0,-11.881,0.0,5.6508,-9.3968,-2.5765,-6.4412,-12.949,8.3175,-5.2288,6.9231
-3.8994,4.5714,0.65041,-3.9482,13.725,4.2927,25.764999,-18.1,3.8188,-3.9482,13.725,1.3201,5.6872,8.1905,0.12698,5.153,3.2206,-10.385,17.205999,3.268,10.128
-7.673,2.0317,-1.9512,-4.5955,-3.9216,-10.667,-7.0853,-21.32,11.586,-4.5955,-3.9216,-9.2409,1.8957,2.4762,-1.1429,2.5765,0.64412,-7.8205,4.5079,0.0,4.359
-7.044,0.7619,0.65041,-2.6537,-1.3072,-3.5122,-4.5089,-5.8615,6.4078,-2.6537,-1.3072,-5.2805,5.0553,8.1905,0.7619,3.8647,3.2206,-2.0513,12.762,3.9216,8.2051
-5.7862,9.6508,-1.3008,-11.715,-6.5359,-6.7642,3.2206,-7.7939,13.528,-11.715,-6.5359,-7.2607,4.4234,7.5556,1.3968,6.4412,2.5765,-3.9744,11.492,3.268,6.2821
6.1635,7.1111,-1.3008,-13.657,-6.5359,-37.333,-0.64412,-19.388,14.822,-13.657,-6.5359,-8.5809,8.2148,7.5556,7.746,5.7971,5.7971,6.9231,8.9524,8.4967,5.641
9.3082,1.3968,0.65041,-14.951,-3.9216,10.146,-5.153,-6.5056,-11.715,-14.951,-3.9216,-4.6205,5.6872,3.746,9.6508,0.0,2.5765,14.615,0.69841,14.379,-3.9744
3.0189,-1.7778,-1.3008,-11.068,-6.5359,17.301001,-1.2882,-7.1498,1.2298,-11.068,-6.5359,-2.6403,0.0,-3.2381,2.0317,-7.0853,-5.153,-16.153999,-4.381,1.9608,-6.5385
2.3899,-3.6825,-1.3008,-0.06472,-5.2288,-6.7642,1.9324,-4.5733,-5.89,-0.06472,-5.2288,-2.6403,0.63191,-5.1429,3.9365,-7.7295,-5.153,6.2821,-7.5556,5.8824,-7.8205
5.5346,-6.2222,0.0,-11.068,-13.072,1.6911,-9.0177,-6.5056,-12.362,-11.068,-13.072,-6.6007,-1.2638,-5.7778,3.9365,-7.7295,-3.8647,15.256,-15.175,5.8824,-11.667
7.4214,-17.650999,-2.6016,-5.89,-10.458,6.2439,-14.815,-1.9968,-3.9482,-5.89,-10.458,-3.9604,-1.8957,-5.1429,2.0317,-14.171,-7.0853,7.5641,-17.079,0.65359,-11.667
1.1321,-22.73,-9.1057,-6.5372,-8.4967,-0.26016,-12.238,3.1562,-7.8317,-6.5372,-8.4967,-3.9604,-4.4234,-12.127,-1.7778,-21.9,-12.238,10.128,-23.429001,0.65359,-19.358999
-6.4151,-19.556,-11.707,-5.89,-15.033,-10.016,-18.035,0.57971,-23.365999,-5.89,-15.033,-8.5809,-8.8468,-14.667,-8.127,-25.764999,-15.459,3.7179,-25.968,-4.5752,-23.205
-8.3019,-28.444,-13.659,-10.421,-15.686,-7.4146,-24.476999,-9.7262,-33.722,-10.421,-15.686,-12.541,-12.006,-13.397,-11.937,-25.764999,-16.103001,1.7949,-19.618999,-7.1895,-20.0
-2.6415,-15.746,-4.5528,-3.301,-5.8824,9.4959,-10.95,1.868,-7.8317,-3.301,-5.8824,-3.3003,-7.5829,-11.492,-7.4921,-14.171,-8.3736,6.2821,-15.81,-3.9216,-13.59
1.1321,7.1111,5.2033,7.055,3.9216,6.2439,4.5089,1.868,16.764,7.055,3.9216,8.5809,-3.1596,-0.06349,-3.6825,-0.64412,0.0,-0.76923,-3.1111,-3.9216,-3.9744
-7.673,-3.0476,-4.5528,9.644,5.8824,-13.268,-2.5765,10.242,8.9968,9.644,5.8824,1.9802,-10.111,-8.9524,-12.571,-7.0853,-7.0853,0.51282,3.2381,-11.111,-4.6154
-8.3019,-3.0476,-8.4553,1.2298,3.268,8.1951,-0.64412,8.9533,4.466,1.2298,3.268,-1.3201,-11.374,-11.492,-15.111,-8.3736,-10.306,6.9231,-1.2063,-10.458,-10.385
-8.3019,-1.7778,-7.1545,8.3495,4.5752,-0.91057,-1.9324,8.9533,8.3495,8.3495,4.5752,-1.3201,-12.638,-10.857,-13.841,-4.5089,-8.3736,1.1538,1.3333,-11.111,-3.9744
-3.2704,12.825,0.65041,9.644,7.8431,-1.561,21.256001,18.615,-20.777,9.644,7.8431,5.2805,-12.006,-9.5873,-6.8571,0.0,-5.153,-5.2564,6.4127,-3.9216,-1.4103
-12.704,3.3016,-3.252,5.1133,9.8039,14.699,2.5765,-1.9968,18.058001,5.1133,9.8039,0.66007,-10.111,-10.222,-13.206,-1.9324,-8.3736,-3.9744,5.7778,-9.8039,-1.4103
-15.849,-5.5873,-11.057,1.877,-0.65359,-8.7154,-12.882,0.57971,3.8188,1.877,-0.65359,-8.5809,-11.374,-11.492,-15.111,-8.3736,-14.171,-6.5385,-2.4762,-7.1895,-5.2564
-7.044,-5.5873,-9.7561,0.58252,1.9608,-21.724001,-6.4412,1.2238,-2.6537,0.58252,1.9608,-10.561,-6.951,-8.3175,-5.5873,-9.0177,-11.594,-2.0513,3.2381,0.65359,-5.2564
-2.0126,0.12698,-5.2033,-7.8317,-4.5752,-8.065,-2.5765,-7.7939,5.7605,-7.8317,-4.5752,-6.6007,-3.7915,-5.7778,-1.1429,-7.7295,-8.3736,-1.4103,1.9683,0.65359,0.51282
3.0189,0.12698,3.252,-3.301,-1.9608,-0.91057,3.8647,-4.5733,0.58252,-3.301,-1.9608,0.66007,0.63191,-0.69841,7.746,-4.5089,-1.2882,-0.12821,8.3175,8.4967,1.7949
8.6792,5.8413,7.8049,0.58252,0.0,14.049,5.153,-0.06441,-11.715,0.58252,0.0,4.6205,3.1596,0.57143,11.556,-3.8647,1.2882,13.974,5.7778,8.4967,0.51282
8.6792,0.12698,5.2033,-9.1262,-1.9608,-6.1138,5.153,1.2238,18.705999,-9.1262,-1.9608,1.3201,2.5276,-1.9683,12.19,-5.7971,1.2882,13.333,0.69841,9.8039,-3.3333
12.453,-1.1429,2.6016,-1.3592,-2.6144,0.39024,3.8647,7.6651,5.1133,-1.3592,-2.6144,-5.2805,2.5276,-1.3333,13.46,-6.4412,1.2882,5.0,1.9683,7.1895,-2.6923
12.453,-9.3968,-3.252,2.5243,-1.9608,4.9431,-9.0177,4.4444,3.8188,2.5243,-1.9608,-9.2409,0.63191,-1.9683,10.921,-7.0853,-0.64412,14.615,-1.8413,6.5359,-2.6923
8.0503,-9.3968,-5.2033,-1.3592,-0.65359,-5.4634,-5.153,2.5121,7.7023,-1.3592,-0.65359,-5.9406,-3.1596,-5.7778,3.3016,-7.7295,-3.8647,0.51282,-4.381,0.65359,-8.4615
-3.8994,-6.2222,-5.2033,4.466,2.6144,-4.813,-3.2206,10.242,-7.1845,4.466,2.6144,-3.9604,-5.6872,-6.4127,-1.7778,-9.0177,-7.0853,10.128,-9.4603,-3.9216,-12.949
-3.2704,-8.127,-7.1545,6.4078,0.65359,5.5935,-1.2882,21.836,-3.301,6.4078,0.65359,-2.6403,-7.5829,-9.5873,-3.0476,-9.0177,-9.0177,12.051,-13.27,0.0,-12.949
-3.2704,-15.111,-13.659,-8.479,-10.458,-7.4146,-14.171,7.0209,-8.479,-8.479,-10.458,-13.201,-9.4787,-8.9524,-9.3968,-16.747,-15.459,-7.1795,-15.175,-10.458,-14.231
-1.3836,-11.937,-6.5041,-6.5372,-1.9608,-4.1626,-9.6618,10.242,-1.3592,-6.5372,-1.9608,-4.6205,-5.0553,-3.2381,-7.4921,-12.882,-10.306,12.051,-5.0159,-7.1895,-7.1795
7.4214,-6.8571,1.3008,-2.0065,-4.5752,15.35,-5.7971,1.2238,2.5243,-2.0065,-4.5752,2.6403,-1.8957,-3.873,-0.50794,-8.3736,-5.153,8.8462,-3.746,-1.3072,-7.8205
-1.3836,-7.4921,1.3008,5.7605,2.6144,4.2927,0.0,10.242,3.8188,5.7605,2.6144,5.9406,-3.1596,-3.873,-6.8571,-10.306,-8.3736,1.1538,-3.1111,-5.2288,-7.8205
-5.7862,0.7619,0.0,10.939,0.65359,9.4959,8.3736,11.53,-16.893,10.939,0.65359,9.2409,-4.4234,-3.2381,-11.937,-9.0177,-10.95,-3.3333,-5.0159,-5.2288,-3.3333
-11.447,-9.3968,-7.1545,1.2298,3.9216,12.748,-7.7295,8.3092,5.1133,1.2298,3.9216,1.9802,-1.2638,-0.06349,-13.841,-9.6618,-12.238,-7.8205,3.2381,-2.6144,0.51282
-18.993999,-13.841,-13.659,-0.06472,-3.9216,-34.731998,-11.594,-0.06441,5.1133,-0.06472,-3.9216,-9.901,-2.5276,-1.9683,-18.921,-13.527,-16.103001,5.641,-1.8413,-3.9216,-2.0513
-17.107,-10.667,-13.008,1.2298,-0.65359,-0.91057,-5.7971,-5.8615,4.466,1.2298,-0.65359,-9.2409,1.2638,-0.06349,-13.206,-10.306,-10.95,-7.1795,-9.4603,0.0,-2.0513
-12.075,-15.746,-17.561001,-8.479,-3.9216,-11.317,-12.882,-4.5733,-4.5955,-8.479,-3.9216,-13.201,0.0,-6.4127,-8.7619,-12.882,-10.95,-14.231,-17.079,0.65359,-8.4615
-6.4151,-14.476,-13.008,-4.5955,-3.268,-2.2114,-14.171,4.4444,-20.777,-4.5955,-3.268,-9.2409,3.7915,0.57143,-1.1429,-3.8647,-3.2206,8.2051,-5.0159,3.9216,-1.4103
1.761,2.0317,-1.9512,0.58252,4.5752,7.5447,0.64412,7.0209,-7.8317,0.58252,4.5752,5.9406,8.2148,7.5556,8.381,4.5089,5.153,12.051,0.69841,8.4967,8.2051
3.0189,7.746,1.3008,8.9968,11.765,-1.561,11.594,8.3092,7.055,8.9968,11.765,8.5809,5.0553,5.0159,3.3016,3.2206,1.9324,10.769,1.9683,8.4967,1.1538
8.0503,16.0,10.407,16.764,15.033,4.9431,23.833,7.6651,-8.479,16.764,15.033,16.502001,3.1596,0.57143,3.9365,3.2206,2.5765,11.41,4.5079,7.8431,0.51282
6.7925,10.286,8.4553,18.058001,15.033,12.748,10.306,16.039,8.3495,18.058001,15.033,16.502001,2.5276,1.2063,7.746,3.8647,3.8647,-1.4103,9.5873,6.5359,1.7949
6.7925,10.921,1.9512,18.705999,13.072,5.5935,12.882,14.75,25.825001,18.705999,13.072,9.901,0.63191,-0.69841,6.4762,3.2206,0.64412,13.974,3.2381,4.5752,4.359
0.50314,-13.841,-11.707,3.8188,-1.9608,10.146,-7.7295,4.4444,-2.6537,3.8188,-1.9608,-0.66007,-8.8468,-13.397,-0.50794,-14.815,-12.238,-5.2564,-5.0159,0.65359,-11.026
6.1635,-1.1429,-3.252,7.7023,10.458,-1.561,11.594,6.3768,11.586,7.7023,10.458,4.6205,-6.951,-11.492,0.7619,-12.882,-9.0177,3.0769,-0.57143,-2.6144,-7.8205
-0.12579,-14.476,-7.8049,-7.8317,-7.8431,-0.26016,-5.153,2.5121,3.1715,-7.8317,-7.8431,-2.6403,-11.374,-14.032,-6.8571,-16.747,-13.527,-9.7436,-2.4762,-6.5359,-12.949
1.1321,-13.206,-6.5041,1.2298,3.268,10.146,-4.5089,8.3092,-4.5955,1.2298,3.268,-0.66007,-10.742,-14.032,-6.2222,-16.103001,-11.594,12.692,-2.4762,-3.268,-5.8974
0.50314,-8.7619,-6.5041,2.5243,0.65359,8.1951,-8.3736,5.0886,-5.89,2.5243,0.65359,-3.9604,-11.374,-13.397,-6.2222,-13.527,-11.594,11.41,-6.2857,-5.2288,-10.385
-0.75472,-3.0476,-7.8049,1.2298,-5.8824,18.601999,-3.8647,7.6651,-29.837999,1.2298,-5.8824,-6.6007,-13.27,-12.127,-8.7619,-10.95,-9.6618,1.1538,-8.1905,-8.4967,-9.7436
-2.0126,-3.6825,-3.9024,5.7605,0.0,-13.919,-1.2882,1.868,-11.068,5.7605,0.0,-7.9208,-8.8468,-5.7778,-6.2222,-3.8647,-4.5089,-0.76923,-1.2063,-5.8824,-3.9744
-4.5283,-6.8571,-5.8537,-5.2427,-6.5359,-6.7642,-21.256001,-1.9968,-2.6537,-5.2427,-6.5359,-11.881,-8.8468,-5.7778,-9.3968,-2.5765,-5.7971,-4.6154,-2.4762,-8.4967,-4.6154
-5.7862,-1.1429,-1.3008,-5.2427,1.3072,8.1951,-3.2206,7.6651,12.88,-5.2427,1.3072,1.9802,-2.5276,3.746,-6.2222,3.2206,0.0,-11.667,8.9524,-5.2288,8.8462
-7.044,-2.4127,-6.5041,7.7023,-3.9216,-2.8618,-5.153,1.2238,10.939,7.7023,-3.9216,-6.6007,-3.7915,1.2063,-8.7619,2.5765,-2.5765,-3.9744,4.5079,-7.1895,2.4359
-10.189,-6.8571,-11.057,-0.06472,-7.1895,-6.7642,-10.95,-0.06441,3.8188,-0.06472,-7.1895,-13.201,-1.2638,3.1111,-7.4921,0.0,-3.2206,3.0769,-0.57143,-4.5752,4.359
-12.075,-7.4921,-9.1057,-11.068,-10.458,-22.374001,-12.238,-11.014,-5.89,-11.068,-10.458,-17.822001,1.2638,5.6508,-3.6825,3.2206,0.0,-9.1026,2.6032,-1.3072,8.8462
-5.7862,2.6667,2.6016,-22.070999,-5.8824,-13.268,-2.5765,-16.812,-8.479,-22.070999,-5.8824,-9.2409,4.4234,8.1905,2.0317,10.306,7.0853,-3.9744,8.3175,1.3072,6.9231
8.0503,20.444,14.959,0.58252,5.2288,1.0407,17.391001,-1.9968,25.177999,0.58252,5.2288,7.2607,14.534,15.175,14.095,25.121,19.968,3.0769,20.381001,9.1503,18.462
13.082,31.872999,14.959,10.291,14.379,7.5447,19.968,5.7327,16.764,10.291,14.379,9.2409,13.27,17.714001,15.365,25.764999,18.68,3.7179,15.302,11.111,19.103001
11.824,3.3016,7.1545,2.5243,-5.2288,7.5447,-7.7295,0.57971,5.1133,2.5243,-5.2288,-1.3201,5.6872,7.5556,9.6508,12.882,10.306,-7.1795,9.5873,5.8824,8.2051
18.113001,10.921,13.008,6.4078,1.9608,16.65,5.153,-0.06441,20.0,6.4078,1.9608,5.9406,8.8468,8.1905,14.73,16.747,14.815,13.974,10.857,11.111,12.692
21.886999,10.286,12.358,-4.5955,-2.6144,14.049,1.9324,7.0209,5.1133,-4.5955,-2.6144,3.9604,5.0553,5.0159,14.095,12.882,11.594,26.153999,8.3175,10.458,5.641
9.3082,2.0317,4.5528,-7.8317,-5.2288,-5.4634,-2.5765,-3.9291,-14.304,-7.8317,-5.2288,0.0,-5.6872,-10.857,5.2063,1.9324,0.64412,7.5641,-3.1111,1.9608,-9.1026
4.9057,-4.3175,-2.6016,-3.301,-9.1503,-4.1626,-9.0177,9.5974,0.58252,-3.301,-9.1503,-4.6205,-5.6872,-10.857,3.3016,-2.5765,-3.2206,1.1538,-5.6508,0.0,-11.667
8.0503,-4.9524,-1.9512,2.5243,-7.1895,4.2927,-10.306,1.868,-20.129,2.5243,-7.1895,-3.3003,-3.1596,-7.0476,5.2063,0.64412,0.64412,-2.6923,-5.0159,3.9216,-3.9744
2.3899,1.3968,3.252,0.58252,-5.2288,26.407,-8.3736,4.4444,-5.89,0.58252,-5.2288,0.0,1.2638,-0.06349,5.8413,5.153,3.8647,6.2821,1.9683,4.5752,-0.12821
9.3082,12.825,14.309,-3.301,3.9216,-0.26016,14.171,-4.5733,-9.1262,-3.301,3.9216,8.5809,8.2148,6.2857,14.095,16.747,14.815,2.4359,15.937,7.1895,11.41
12.453,11.556,14.959,10.291,-0.65359,-22.374001,13.527,7.0209,-6.5372,10.291,-0.65359,12.541,6.951,7.5556,12.825,12.882,14.171,8.2051,8.3175,3.268,5.0
13.082,12.825,11.707,11.586,0.65359,14.049,0.64412,15.395,3.8188,11.586,0.65359,8.5809,6.951,8.1905,10.921,10.95,11.594,9.4872,1.3333,4.5752,4.359
6.7925,5.8413,9.1057,7.7023,0.0,6.8943,-0.64412,8.9533,7.7023,7.7023,0.0,5.9406,5.0553,6.2857,7.746,9.0177,10.306,-12.308,1.9683,5.8824,5.0
6.7925,0.7619,9.7561,7.7023,-1.3072,-17.820999,-4.5089,5.0886,-11.715,7.7023,-1.3072,7.2607,5.0553,3.746,5.2063,5.153,8.3736,-4.6154,-8.1905,3.268,-3.9744
6.7925,5.2063,15.61,0.58252,6.5359,29.007999,0.0,3.1562,-8.479,0.58252,6.5359,16.502001,5.6872,5.0159,3.3016,7.0853,9.0177,11.41,-4.381,2.6144,-4.6154
3.0189,9.6508,9.1057,9.644,6.5359,18.601999,13.527,1.2238,8.3495,9.644,6.5359,13.861,1.8957,2.4762,-3.6825,3.8647,2.5765,-7.1795,-8.8254,-2.6144,-3.9744
0.50314,2.0317,5.2033,7.055,7.1895,-11.967,3.2206,3.8003,-3.301,7.055,7.1895,9.901,5.6872,6.9206,-5.5873,1.9324,-0.64412,-8.4615,-5.0159,0.65359,5.0
-13.962,-6.8571,-1.3008,8.3495,1.9608,6.8943,-7.0853,8.3092,-16.893,8.3495,1.9608,3.3003,-0.63191,5.0159,-13.206,-5.7971,-7.0853,-7.1795,-8.1905,-4.5752,-1.4103
-6.4151,2.0317,1.9512,8.3495,8.4967,0.39024,12.882,-5.2174,-3.9482,8.3495,8.4967,5.2805,-5.0553,-1.9683,-10.667,-4.5089,-5.7971,-7.8205,-8.1905,-9.1503,-1.4103
-8.3019,2.6667,0.65041,-3.301,1.3072,-11.317,1.2882,-5.2174,7.055,-3.301,1.3072,0.66007,-0.63191,5.6508,-8.127,-0.64412,-3.2206,-3.3333,-3.1111,-5.8824,-0.12821
-6.4151,2.6667,1.3008,-9.7735,0.65359,-16.52,7.0853,-9.0821,-5.89,-9.7735,0.65359,-1.3201,-1.2638,6.9206,-5.5873,0.0,-1.2882,-5.2564,-4.381,-5.2288,5.0
-6.4151,0.12698,-2.6016,-12.362,-4.5752,-6.1138,-3.8647,-19.388,2.5243,-12.362,-4.5752,-8.5809,4.4234,10.73,-3.0476,3.2206,1.2882,-8.4615,2.6032,-7.8431,6.9231
-5.1572,10.286,3.252,3.1715,5.2288,-15.87,7.7295,-4.5733,4.466,3.1715,5.2288,0.0,10.111,13.905,1.3968,12.238,9.0177,-9.1026,5.1429,-1.3072,9.4872
3.6478,13.46,10.407,3.1715,1.3072,1.6911,2.5765,-7.7939,2.5243,3.1715,1.3072,0.66007,8.8468,15.81,8.381,19.968,15.459,2.4359,5.7778,4.5752,11.41
-2.0126,9.0159,5.2033,-2.6537,0.65359,-4.1626,1.2882,-9.7262,1.877,-2.6537,0.65359,-2.6403,3.7915,10.095,2.0317,14.815,9.6618,-0.12821,12.762,-3.268,8.2051
-3.8994,5.2063,-0.65041,-4.5955,0.0,-6.7642,-0.64412,-9.7262,-3.301,-4.5955,0.0,-0.66007,0.0,3.1111,-3.6825,7.0853,1.9324,-5.8974,0.69841,-1.9608,4.359
-3.8994,5.8413,-2.6016,-7.8317,-0.65359,-8.065,2.5765,-0.06441,-16.246,-7.8317,-0.65359,-1.9802,0.0,4.381,-3.0476,4.5089,-0.64412,5.641,5.1429,3.268,8.8462
-4.5283,-3.0476,-4.5528,8.3495,-3.268,-3.5122,-4.5089,9.5974,11.586,8.3495,-3.268,-3.9604,0.0,-0.06349,-4.9524,-2.5765,-3.2206,1.1538,5.7778,1.9608,1.1538
0.50314,-3.0476,-3.252,7.055,-3.9216,-7.4146,-9.0177,-0.70853,-5.2427,7.055,-3.9216,-1.9802,0.63191,-1.9683,-5.5873,-3.8647,-4.5089,5.641,4.5079,-0.65359,0.51282
-9.5597,-7.4921,-7.8049,-7.8317,-2.6144,-13.268,0.0,-7.1498,-6.5372,-7.8317,-2.6144,-3.3003,-5.6872,-5.1429,-10.032,-9.6618,-9.6618,-12.308,1.3333,-3.268,-2.0513
6.7925,15.365,9.1057,12.233,9.1503,23.153999,14.171,6.3768,33.591999,12.233,9.1503,13.861,3.1596,5.6508,-0.50794,5.153,3.2206,10.128,17.205999,1.9608,10.128
0.50314,-2.4127,3.252,-6.5372,6.5359,23.153999,-3.8647,5.7327,6.4078,-6.5372,6.5359,7.9208,-1.2638,-3.2381,-4.3175,-3.2206,-3.2206,-1.4103,-1.8413,-1.3072,-3.3333
0.50314,3.3016,9.7561,8.9968,3.9216,-2.8618,1.9324,8.3092,0.58252,8.9968,3.9216,6.6007,-0.63191,1.2063,0.7619,1.2882,2.5765,-9.7436,3.2381,-3.268,0.51282
5.5346,12.19,15.61,19.353001,11.765,15.35,16.103001,12.174,11.586,19.353001,11.765,15.182,-0.63191,1.8413,2.6667,6.4412,7.0853,-4.6154,5.7778,-3.268,5.0
3.0189,3.9365,8.4553,9.644,13.072,-1.561,14.171,1.2238,8.9968,9.644,13.072,10.561,-8.2148,-7.0476,-1.1429,-0.64412,0.64412,5.641,0.69841,-8.4967,-9.1026
7.4214,2.0317,3.252,8.9968,9.8039,12.098,14.171,6.3768,10.939,8.9968,9.8039,8.5809,-6.951,-4.5079,0.12698,-2.5765,0.0,-1.4103,1.9683,-3.268,-2.0513
-1.3836,-9.3968,-11.707,-10.421,-8.4967,-5.4634,-12.882,0.57971,5.1133,-10.421,-8.4967,-9.2409,-8.8468,-5.7778,-6.8571,-6.4412,-7.7295,0.51282,-4.381,-11.111,-5.2564
-0.75472,-4.3175,-7.1545,-2.0065,-1.9608,0.39024,-2.5765,1.868,1.877,-2.0065,-1.9608,-9.2409,-6.951,-1.3333,-7.4921,-3.2206,-3.8647,1.1538,1.9683,-5.8824,-0.76923
-2.0126,9.0159,-3.252,-2.0065,0.65359,-7.4146,21.9,-0.70853,5.7605,-2.0065,0.65359,-3.9604,-6.951,-1.3333,-7.4921,0.64412,-3.2206,-7.8205,2.6032,-5.2288,-0.12821
-7.044,-9.3968,-8.4553,4.466,5.8824,-21.073,-3.2206,-9.7262,23.236,4.466,5.8824,-10.561,-6.951,-3.2381,-8.7619,-3.8647,-4.5089,-12.949,3.873,-7.1895,-0.76923
-8.3019,0.12698,-8.4553,-14.951,-6.5359,7.5447,-6.4412,-12.303,-3.9482,-14.951,-6.5359,-13.201,-6.3191,-1.9683,-8.127,-0.64412,-4.5089,-12.308,-0.57143,-5.8824,-2.0513
-18.365,-6.2222,-14.959,-13.01,-7.8431,-26.927,-1.9324,-18.1,-1.3592,-13.01,-7.8431,-18.482,-3.7915,-1.3333,-10.667,-3.2206,-7.7295,2.4359,3.873,-4.5752,1.1538
-13.333,-6.8571,-11.707,-14.304,-7.1895,-12.618,-6.4412,-9.7262,13.528,-14.304,-7.1895,-14.521,0.63191,1.2063,-4.9524,0.0,-3.2206,-11.026,9.5873,-0.65359,5.0
-2.6415,-2.4127,-5.8537,-16.893,-11.111,-14.569,-8.3736,-12.303,-6.5372,-16.893,-11.111,-11.881,0.0,-0.69841,0.12698,1.2882,-1.2882,6.9231,-2.4762,4.5752,1.7949
-0.75472,-6.8571,-3.9024,-9.1262,-9.1503,-0.91057,-13.527,-11.659,-2.0065,-9.1262,-9.1503,-5.2805,2.5276,-1.3333,2.0317,-1.2882,0.0,10.128,-1.8413,3.9216,-2.6923
-2.6415,-11.302,-6.5041,-14.304,-7.1895,-17.820999,-8.3736,-4.5733,-0.71197,-14.304,-7.1895,-8.5809,2.5276,-3.2381,2.6667,-3.2206,-1.2882,1.1538,-5.0159,6.5359,-3.9744
-3.2704,-9.3968,-6.5041,1.2298,-4.5752,-8.065,-6.4412,1.868,-7.1845,1.2298,-4.5752,-7.2607,3.1596,-3.873,3.3016,-3.2206,-1.2882,-2.0513,-5.6508,1.9608,-3.3333
-6.4151,-9.3968,-7.1545,-2.6537,-4.5752,2.3415,-8.3736,-1.9968,-3.9482,-2.6537,-4.5752,-7.9208,3.1596,-0.06349,0.12698,-3.8647,-4.5089,6.9231,-0.57143,2.6144,-2.6923
-7.044,-4.9524,-3.9024,-13.01,-2.6144,-8.065,0.0,-4.5733,8.9968,-13.01,-2.6144,-3.9604,3.7915,2.4762,-1.7778,-3.2206,-5.153,10.128,3.2381,3.9216,3.0769
1.1321,14.095,3.9024,1.2298,-0.65359,9.4959,10.306,6.3768,-10.421,1.2298,-0.65359,1.9802,5.0553,1.8413,5.8413,2.5765,0.64412,-5.8974,-4.381,9.1503,3.0769
-2.6415,-13.206,-7.8049,3.1715,-2.6144,-5.4634,-3.2206,4.4444,-2.6537,3.1715,-2.6144,-6.6007,0.0,-4.5079,-3.0476,-10.95,-9.0177,1.1538,0.69841,0.0,-0.76923
-2.0126,-18.285999,-9.7561,-5.2427,-6.5359,1.0407,-13.527,-0.70853,1.2298,-5.2427,-6.5359,-7.9208,-1.2638,-5.7778,-3.0476,-14.815,-10.95,-3.3333,0.06349,0.0,-3.9744
4.2767,-1.7778,0.0,4.466,2.6144,-6.1138,5.7971,-10.37,3.1715,4.466,2.6144,1.3201,0.63191,-5.1429,3.3016,-8.3736,-2.5765,8.8462,-5.0159,6.5359,-4.6154
0.50314,-8.7619,0.65041,-2.0065,-5.8824,-9.3659,-8.3736,-0.06441,-5.89,-2.0065,-5.8824,-3.3003,3.7915,-2.6032,3.9365,-6.4412,0.64412,1.1538,-5.6508,4.5752,-5.8974
