C3,C4,Cz,F1,F2,F3,F4,F7,F8,Fp1,Fp2,Fz,O1,O2,P3,P4,Pz,T3,T4,T5,T6
-3.9179,-2.7302,1.0356,11.765,9.8522,6.5056,7.767,8.6731,6.7314,11.765,9.8522,8.9552,-1.9048,-5.7778,-4.6349,-4.8077,-3.8003,3.7359,1.0742,-1.9704,-5.8974
-3.9179,-5.5873,0.06472,10.784,12.808,13.269,7.767,10.615,9.644,10.784,12.808,11.94,-8.5714,-12.444,-10.349,-11.538,-10.564,0.83736,1.0742,-8.867,-9.7436
-4.8657,-8.4444,-1.877,6.8627,12.808,11.337,7.767,6.7314,8.6731,6.8627,12.808,10.945,-15.238,-20.063,-17.016001,-17.308001,-17.327,-7.8583,-4.613,-15.764,-10.705
-3.9179,-7.4921,-1.877,5.8824,11.823,12.303,9.7087,9.644,7.7023,5.8824,11.823,11.94,-20.0,-23.872999,-19.872999,-19.231001,-21.191999,-16.554001,-2.7172,-15.764,-12.628
-2.0221,-1.7778,2.9773,9.8039,13.793,10.37,10.68,12.557,10.615,9.8039,13.793,14.925,-21.905001,-22.921,-18.921,-16.346001,-20.225,-1.095,4.8657,-14.778,-12.628
1.7694,2.0317,5.89,9.8039,12.808,11.337,10.68,9.644,11.586,9.8039,12.808,14.925,-22.857,-23.872999,-15.111,-14.423,-18.292999,13.398,7.7093,-13.793,-11.667
5.5608,2.9841,5.89,6.8627,11.823,15.201,11.65,8.6731,11.586,6.8627,11.823,13.93,-21.905001,-21.968,-11.302,-11.538,-15.395,-3.0274,9.6051,-15.764,-9.7436
8.4044,3.9365,4.9191,2.9412,8.867,17.134001,11.65,8.6731,10.615,2.9412,8.867,14.925,-20.0,-20.063,-7.4921,-9.6154,-12.496,0.83736,5.8136,-13.793,-5.8974
8.4044,2.9841,4.9191,7.8431,8.867,13.269,13.592,10.615,6.7314,7.8431,8.867,14.925,-17.143,-18.159,-4.6349,-9.6154,-11.53,13.398,5.8136,-5.9113,-3.0128
6.5087,3.9365,4.9191,4.902,3.9409,14.235,12.621,8.6731,1.877,4.902,3.9409,12.935,-16.190001,-18.159,-4.6349,-9.6154,-11.53,8.5668,0.12638,-4.9261,-6.859
6.5087,7.746,5.89,6.8627,11.823,10.37,10.68,6.7314,2.8479,6.8627,11.823,12.935,-16.190001,-16.254,-3.6825,-5.7692,-7.6651,2.7697,2.0221,-5.9113,-5.8974
1.7694,11.556,5.89,5.8824,11.823,3.6071,9.7087,3.8188,4.7896,5.8824,11.823,8.9552,-14.286,-13.397,-2.7302,-1.9231,-5.7327,1.8035,10.553,-3.9409,-2.0513
3.6651,10.603,5.89,5.8824,9.8522,5.5395,8.7379,3.8188,4.7896,5.8824,9.8522,7.9602,-11.429,-9.5873,-0.8254,1.9231,-1.868,-2.0612,6.7615,-1.9704,2.7564
0.82148,2.9841,0.06472,1.9608,3.9409,2.6409,3.8835,2.8479,2.8479,1.9608,3.9409,1.99,-8.5714,-6.7302,-0.8254,0.0,-1.868,-4.9597,-1.7694,-1.9704,-1.0897
2.7172,-0.8254,-1.877,0.98039,1.9704,0.70853,2.9126,0.90615,2.8479,0.98039,1.9704,0.0,-2.8571,-1.0159,2.9841,1.9231,1.9968,7.6006,-5.5608,0.98522,-3.9744
7.4566,2.9841,2.0065,0.0,1.9704,6.5056,0.97087,6.7314,4.7896,0.0,1.9704,1.99,4.7619,5.6508,9.6508,7.6923,9.7262,9.533,0.12638,7.8818,-1.0897
5.5608,4.8889,2.9773,2.9412,1.9704,4.5733,3.8835,9.644,4.7896,2.9412,1.9704,2.9851,5.7143,6.6032,9.6508,7.6923,9.7262,1.8035,9.6051,6.8966,1.7949
0.82148,4.8889,2.0065,0.0,1.9704,6.5056,5.8252,7.7023,4.7896,0.0,1.9704,3.9801,5.7143,7.5556,4.8889,5.7692,7.7939,4.7021,2.97,3.9409,1.7949
-6.7615,-0.8254,-2.8479,-1.9608,0.0,2.6409,2.9126,-0.06472,4.7896,-1.9608,0.0,0.0,1.9048,5.6508,-2.7302,0.96154,1.9968,2.7697,-0.82148,-3.9409,0.83333
-8.6572,-4.6349,-5.7605,-0.98039,5.9113,-2.19,-0.97087,-2.0065,4.7896,-0.98039,5.9113,-1.99,0.0,3.746,-7.4921,-1.9231,-1.868,-4.9597,1.0742,-7.8818,1.7949
-11.501,-8.4444,-9.644,4.902,7.8818,-8.9533,0.0,-2.0065,5.7605,4.902,7.8818,-3.9801,-1.9048,0.88889,-11.302,-5.7692,-6.6989,-4.9597,-1.7694,-10.837,-2.0513
-14.344,-8.4444,-10.615,3.9216,4.9261,-9.9195,2.9126,-2.0065,6.7314,3.9216,4.9261,-2.9851,-3.8095,-1.0159,-14.159,-8.6538,-10.564,-5.9259,2.0221,-10.837,-5.8974
-8.6572,-2.7302,-6.7314,1.9608,6.8966,-0.25765,3.8835,3.8188,7.7023,1.9608,6.8966,2.9851,-2.8571,-1.9683,-10.349,-7.6923,-9.5974,0.83736,2.97,-4.9261,-4.9359
-5.8136,4.8889,-2.8479,0.98039,9.8522,2.6409,6.7961,5.7605,9.644,0.98039,9.8522,5.9701,-4.7619,-3.873,-8.4444,-4.8077,-8.6312,0.83736,7.7093,-2.9557,-3.9744
-6.7615,5.8413,-2.8479,-1.9608,4.9261,-2.19,2.9126,1.877,7.7023,-1.9608,4.9261,0.99502,-8.5714,-5.7778,-9.3968,-3.8462,-10.564,-1.095,8.6572,-4.9261,-1.0897
-0.12638,5.8413,-0.90615,0.98039,3.9409,-0.25765,2.9126,1.877,4.7896,0.98039,3.9409,0.99502,-6.6667,-4.8254,-3.6825,0.0,-6.6989,5.6683,12.449,2.9557,1.7949
-0.12638,2.0317,-3.8188,-7.8431,-6.8966,-5.0886,-0.97087,-4.9191,-3.9482,-7.8431,-6.8966,-5.9701,-4.7619,-2.9206,0.12698,2.8846,-3.8003,-3.0274,5.8136,7.8818,2.7564
-1.0742,0.12698,-6.7314,-15.686,-15.764,-9.9195,-3.8835,-13.657,-8.8026,-15.686,-15.764,-12.935,0.0,0.88889,2.9841,6.7308,1.0306,-8.8245,-2.7172,11.823,9.4872
-2.97,0.12698,-7.7023,-19.608,-16.749001,-9.9195,-13.592,-14.628,-7.8317,-19.608,-16.749001,-15.92,5.7143,5.6508,4.8889,10.577,4.8953,-13.655,-3.6651,11.823,15.256
-3.9179,1.0794,-4.7896,-15.686,-12.808,-10.886,-12.621,-9.7735,-13.657,-15.686,-12.808,-13.93,9.5238,9.4603,5.8413,11.538,7.7939,1.8035,-1.7694,7.8818,14.295
-3.9179,-0.8254,-2.8479,-9.8039,-11.823,-13.784,-13.592,-4.9191,-11.715,-9.8039,-11.823,-11.94,10.476,10.413,4.8889,9.6154,8.7601,2.7697,-1.7694,3.9409,9.4872
-2.0221,-2.7302,0.06472,-4.902,-9.8522,-10.886,-11.65,-2.9773,-5.89,-4.902,-9.8522,-6.9652,12.381,10.413,5.8413,7.6923,9.7262,-3.9936,-7.4566,4.9261,5.641
1.7694,-1.7778,3.9482,-3.9216,-5.9113,-0.25765,-1.9417,-0.06472,-5.89,-3.9216,-5.9113,0.0,17.143,13.27,9.6508,8.6538,12.625,8.5668,-10.3,12.808,5.641
2.7172,0.12698,5.89,-2.9412,-5.9113,4.5733,0.97087,1.877,-5.89,-2.9412,-5.9113,1.99,20.952,17.079,9.6508,10.577,14.557,9.533,-5.5608,13.793,9.4872
-1.0742,-1.7778,2.9773,-6.8627,-9.8522,-0.25765,-1.9417,-2.0065,-6.8608,-6.8627,-9.8522,-3.9801,18.094999,15.175,4.8889,7.6923,11.659,1.8035,-8.4044,10.837,6.6026
-4.8657,-2.7302,1.0356,-6.8627,-2.9557,-5.0886,-6.7961,0.90615,-2.9773,-6.8627,-2.9557,-4.9751,13.333,12.317,-0.8254,2.8846,6.8277,-8.8245,-3.6651,2.9557,1.7949
-4.8657,-3.6825,1.0356,-0.98039,5.9113,-4.1224,-3.8835,1.877,0.90615,-0.98039,5.9113,-0.99502,7.619,7.5556,-3.6825,-1.9231,1.9968,3.7359,1.0742,0.0,-1.0897
-3.9179,-6.5397,-1.877,1.9608,7.8818,-1.2238,-2.9126,2.8479,2.8479,1.9608,7.8818,1.99,3.8095,2.7937,-5.5873,-6.7308,-3.8003,6.6345,-0.82148,-3.9409,-3.9744
-0.12638,-5.5873,-3.8188,3.9216,7.8818,0.70853,0.0,2.8479,4.7896,3.9216,7.8818,0.99502,-1.9048,-2.9206,-7.4921,-6.7308,-7.6651,-21.385,2.0221,-5.9113,-2.0513
0.82148,-2.7302,-4.7896,-0.98039,4.9261,1.6747,0.97087,1.877,6.7314,-0.98039,4.9261,0.0,-4.7619,-4.8254,-6.5397,-6.7308,-9.5974,-5.9259,2.0221,-5.9113,-4.9359
-0.12638,0.12698,-5.7605,-4.902,3.9409,2.6409,0.97087,0.90615,5.7605,-4.902,3.9409,-2.9851,-5.7143,-5.7778,-6.5397,-5.7692,-10.564,15.33,-0.82148,-7.8818,-8.7821
-5.8136,1.0794,-7.7023,-11.765,-4.9261,-4.1224,0.0,-3.9482,2.8479,-11.765,-4.9261,-5.9701,-6.6667,-7.6825,-7.4921,-4.8077,-10.564,16.296,-0.82148,-6.8966,-7.8205
-3.9179,2.0317,-5.7605,-7.8431,-6.8966,-7.9871,-1.9417,-3.9482,-1.0356,-7.8431,-6.8966,-5.9701,-5.7143,-4.8254,-5.5873,-0.96154,-6.6989,2.7697,4.8657,-2.9557,-0.12821
-1.0742,0.12698,-3.8188,-1.9608,-4.9261,-5.0886,-5.8252,-1.0356,-2.9773,-1.9608,-4.9261,-3.9801,-3.8095,-1.0159,-0.8254,0.96154,-1.868,1.8035,2.97,2.9557,3.7179
-2.0221,-4.6349,-4.7896,-5.8824,-5.9113,-5.0886,-8.7379,-3.9482,-3.9482,-5.8824,-5.9113,-5.9701,-1.9048,-0.06349,1.0794,-0.96154,-0.90177,-0.12882,-0.82148,5.9113,0.83333
-3.9179,-8.4444,-5.7605,-10.784,-11.823,-8.9533,-9.7087,-7.8317,-8.8026,-10.784,-11.823,-10.945,-0.95238,-0.06349,2.9841,-1.9231,1.0306,0.83736,-3.6651,3.9409,-1.0897
-1.0742,-4.6349,-0.90615,-7.8431,-7.8818,-9.9195,-8.7379,-8.8026,-6.8608,-7.8431,-7.8818,-9.9502,1.9048,2.7937,7.746,2.8846,6.8277,0.83736,-4.613,6.8966,5.641
2.7172,0.12698,4.9191,-8.8235,-6.8966,-2.19,-3.8835,-3.9482,-3.9482,-8.8235,-6.8966,-4.9751,3.8095,3.746,11.556,5.7692,12.625,-23.316999,-4.613,5.9113,2.7564
9.3523,4.8889,11.715,-4.902,-0.98522,1.6747,5.8252,2.8479,-0.06472,-4.902,-0.98522,1.99,8.5714,6.6032,18.222,9.6154,18.422001,-4.9597,-1.7694,8.867,-1.0897
15.987,7.746,16.57,2.9412,5.9113,2.6409,3.8835,6.7314,2.8479,2.9412,5.9113,7.9602,13.333,8.5079,24.889,11.538,24.219,20.160999,-1.7694,9.8522,-3.0128
18.830999,9.6508,19.482,4.902,7.8818,9.4042,5.8252,7.7023,4.7896,4.902,7.8818,10.945,17.143,11.365,27.746,13.462,27.118,13.398,-0.82148,9.8522,-2.0513
18.830999,13.46,21.424,-1.9608,7.8818,14.235,8.7379,5.7605,6.7314,-1.9608,7.8818,12.935,18.094999,13.27,27.746,16.346001,29.049999,6.6345,5.8136,9.8522,2.7564
13.144,15.365,18.511,1.9608,5.9113,11.337,7.767,3.8188,5.7605,1.9608,5.9113,9.9502,16.190001,13.27,22.032,17.308001,25.184999,-3.0274,3.9179,5.9113,7.5641
6.5087,13.46,10.744,3.9216,4.9261,1.6747,4.8544,2.8479,4.7896,3.9216,4.9261,3.9801,13.333,14.222,14.413,15.385,20.354,5.6683,3.9179,3.9409,10.449
3.6651,9.6508,4.9191,-3.9216,-0.98522,-2.19,1.9417,-0.06472,1.877,-3.9216,-0.98522,-0.99502,12.381,15.175,9.6508,13.462,14.557,8.5668,6.7615,0.0,11.41
3.6651,7.746,3.9482,-7.8431,-5.9113,1.6747,0.97087,-0.06472,-1.0356,-7.8431,-5.9113,-0.99502,11.429,14.222,7.746,11.538,11.659,2.7697,8.6572,-0.98522,14.295
2.7172,2.9841,1.0356,-8.8235,-10.837,1.6747,-0.97087,-1.0356,-6.8608,-8.8235,-10.837,-2.9851,10.476,13.27,4.8889,8.6538,8.7601,0.83736,6.7615,1.9704,13.333
-2.97,-3.6825,-6.7314,-10.784,-10.837,-5.0886,-6.7961,-5.89,-12.686,-10.784,-10.837,-8.9552,8.5714,12.317,-0.8254,5.7692,2.963,-14.622,2.97,1.9704,12.372
-9.6051,-7.4921,-12.557,-10.784,-10.837,-7.9871,-12.621,-7.8317,-10.744,-10.784,-10.837,-10.945,7.619,12.317,-6.5397,3.8462,-0.90177,-11.723,-0.82148,1.9704,14.295
-11.501,-8.4444,-12.557,-6.8627,-9.8522,-8.9533,-10.68,-6.8608,-8.8026,-6.8627,-9.8522,-8.9552,6.6667,12.317,-7.4921,2.8846,-1.868,-0.12882,3.9179,1.9704,12.372
-4.8657,-6.5397,-7.7023,-2.9412,-6.8966,-5.0886,-7.767,-2.9773,-3.9482,-2.9412,-6.8966,-4.9751,8.5714,11.365,-3.6825,2.8846,0.06441,7.6006,2.97,3.9409,12.372
2.7172,-9.3968,-3.8188,-0.98039,-4.9261,-1.2238,-5.8252,-1.0356,-5.89,-0.98039,-4.9261,-0.99502,6.6667,7.5556,1.0794,-1.9231,0.06441,4.7021,-10.3,5.9113,4.6795
8.4044,-10.349,-0.90615,3.9216,-4.9261,3.6071,-5.8252,2.8479,-12.686,3.9216,-4.9261,0.99502,5.7143,3.746,4.8889,-5.7692,0.06441,6.6345,-12.196,7.8818,-2.0513
12.196,-9.3968,2.0065,8.8235,-7.8818,11.337,-1.9417,5.7605,-12.686,8.8235,-7.8818,4.9751,2.8571,-0.06349,4.8889,-6.7308,-1.868,7.6006,-12.196,7.8818,-3.9744
7.4566,-10.349,-1.877,3.9216,-5.9113,9.4042,-3.8835,9.644,-8.8026,3.9216,-5.9113,2.9851,-0.95238,-2.9206,0.12698,-10.577,-6.6989,-2.0612,-11.248,7.8818,-7.8205
1.7694,-8.4444,-3.8188,2.9412,1.9704,4.5733,-1.9417,9.644,-1.0356,2.9412,1.9704,2.9851,-2.8571,-3.873,-3.6825,-10.577,-9.5974,4.7021,-3.6651,2.9557,-8.7821
-4.8657,-8.4444,-8.6731,3.9216,1.9704,-1.2238,-1.9417,10.615,-2.0065,3.9216,1.9704,-0.99502,-7.619,-6.7302,-10.349,-12.5,-14.428,4.7021,-3.6651,-1.9704,-7.8205
-9.6051,-10.349,-13.528,-3.9216,-4.9261,-4.1224,-1.9417,4.7896,-3.9482,-3.9216,-4.9261,-6.9652,-12.381,-9.5873,-14.159,-14.423,-18.292999,2.7697,-0.82148,-5.9113,-5.8974
-11.501,-8.4444,-13.528,-11.765,-9.8522,-7.0209,-3.8835,-2.9773,-5.89,-11.765,-9.8522,-9.9502,-13.333,-8.6349,-12.254,-11.538,-16.361,6.6345,0.12638,-4.9261,-1.0897
-3.9179,-3.6825,-5.7605,-8.8235,-10.837,-8.9533,-8.7379,-1.0356,-6.8608,-8.8235,-10.837,-9.9502,-10.476,-3.873,-4.6349,-3.8462,-8.6312,3.7359,3.9179,-4.9261,4.6795
3.6651,0.12698,0.06472,-7.8431,-14.778,-7.9871,-9.7087,-4.9191,-11.715,-7.8431,-14.778,-10.945,-6.6667,-0.06349,2.0317,2.8846,-0.90177,-4.9597,2.97,-1.9704,5.641
2.7172,2.9841,2.0065,-14.706,-16.749001,-7.9871,-12.621,-8.8026,-13.657,-14.706,-16.749001,-12.935,-2.8571,4.6984,4.8889,9.6154,4.8953,2.7697,2.0221,-0.98522,9.4872
1.7694,4.8889,2.0065,-18.627001,-10.837,-8.9533,-9.7087,-7.8317,-10.744,-18.627001,-10.837,-13.93,1.9048,8.5079,6.7937,14.423,9.7262,-7.8583,-0.82148,-0.98522,15.256
-0.12638,3.9365,1.0356,-13.725,-10.837,-7.9871,-9.7087,-7.8317,-11.715,-13.725,-10.837,-12.935,3.8095,10.413,6.7937,14.423,10.692,-1.095,1.0742,0.0,13.333
-0.12638,2.9841,2.0065,-3.9216,-3.9409,-6.0548,-7.767,-3.9482,-8.8026,-3.9216,-3.9409,-8.9552,4.7619,10.413,5.8413,13.462,9.7262,4.7021,-0.82148,0.0,13.333
-1.0742,-1.7778,-0.90615,0.98039,-2.9557,-5.0886,-8.7379,-1.0356,-4.9191,0.98039,-2.9557,-9.9502,2.8571,8.5079,2.9841,8.6538,4.8953,-7.8583,-4.613,0.0,7.5641
1.7694,-2.7302,-1.877,2.9412,-2.9557,-1.2238,-5.8252,-2.0065,-3.9482,2.9412,-2.9557,-6.9652,2.8571,6.6032,2.9841,3.8462,1.9968,-5.9259,-7.4566,2.9557,0.83333
-0.12638,-3.6825,-1.877,-1.9608,-2.9557,-2.19,-0.97087,-2.0065,0.90615,-1.9608,-2.9557,-3.9801,2.8571,3.746,2.0317,0.0,0.06441,-3.0274,-3.6651,3.9409,-3.0128
-3.9179,-6.5397,-3.8188,-4.902,0.0,-5.0886,-2.9126,-4.9191,1.877,-4.902,0.0,-2.9851,0.95238,0.88889,-0.8254,-4.8077,-3.8003,6.6345,-1.7694,1.9704,-4.9359
-3.9179,-11.302,-6.7314,-8.8235,1.9704,-4.1224,-2.9126,-4.9191,2.8479,-8.8235,1.9704,-1.99,-3.8095,-4.8254,-3.6825,-12.5,-8.6312,4.7021,-6.5087,-1.9704,-10.705
0.82148,-12.254,-6.7314,0.98039,1.9704,1.6747,-1.9417,4.7896,0.90615,0.98039,1.9704,0.0,-5.7143,-8.6349,-2.7302,-15.385,-9.5974,5.6683,-7.4566,-2.9557,-14.551
3.6651,-12.254,-6.7314,9.8039,3.9409,7.4718,-3.8835,8.6731,-1.0356,9.8039,3.9409,2.9851,-5.7143,-9.5873,-1.7778,-15.385,-8.6312,5.6683,-0.82148,0.0,-12.628
3.6651,-9.3968,-4.7896,7.8431,6.8966,6.5056,-1.9417,9.644,3.8188,7.8431,6.8966,5.9701,-3.8095,-8.6349,-1.7778,-14.423,-9.5974,-4.9597,3.9179,-1.9704,-10.705
-3.9179,-9.3968,-6.7314,-0.98039,2.9557,-0.25765,0.0,-0.06472,2.8479,-0.98039,2.9557,1.99,-7.619,-11.492,-8.4444,-18.268999,-14.428,-14.622,-0.82148,-6.8966,-13.59
-11.501,-6.5397,-8.6731,-7.8431,0.98522,-3.1562,0.97087,-5.89,2.8479,-7.8431,0.98522,-0.99502,-9.5238,-11.492,-14.159,-17.308001,-16.361,-7.8583,2.0221,-9.8522,-11.667
-18.136,-5.5873,-12.557,-6.8627,1.9704,-7.9871,1.9417,-6.8608,2.8479,-6.8627,1.9704,-3.9801,-11.429,-12.444,-20.825001,-16.346001,-20.225,-3.9936,3.9179,-13.793,-8.7821
-20.979,-8.4444,-15.469,-6.8627,-1.9704,-12.818,-3.8835,-8.8026,-2.0065,-6.8627,-1.9704,-9.9502,-15.238,-16.254,-24.635,-17.308001,-24.09,-13.655,-2.7172,-13.793,-8.7821
-19.084,-8.4444,-14.498,-4.902,-2.9557,-13.784,-7.767,-6.8608,-2.9773,-4.902,-2.9557,-11.94,-15.238,-18.159,-22.73,-15.385,-22.158001,-3.0274,-2.7172,-10.837,-6.859
-13.397,-6.5397,-10.615,-1.9608,-0.98522,-10.886,-7.767,-4.9191,-0.06472,-1.9608,-0.98522,-9.9502,-12.381,-15.302,-17.016001,-11.538,-16.361,-1.095,-0.82148,-6.8966,-4.9359
-8.6572,-6.5397,-8.6731,0.98039,0.98522,-7.9871,-3.8835,-2.9773,-2.0065,0.98039,0.98522,-5.9701,-10.476,-12.444,-13.206,-10.577,-13.462,-5.9259,-3.6651,-7.8818,-6.859
-3.9179,-1.7778,-2.8479,-0.98039,0.98522,1.6747,-0.97087,0.90615,-0.06472,-0.98039,0.98522,0.0,-8.5714,-10.54,-8.4444,-8.6538,-8.6312,-2.0612,-3.6651,-3.9409,-7.8205
3.6651,3.9365,4.9191,1.9608,5.9113,10.37,4.8544,1.877,1.877,1.9608,5.9113,6.9652,-7.619,-8.6349,-2.7302,-3.8462,-3.8003,-2.0612,0.12638,-0.98522,-3.9744
9.3523,6.7937,10.744,6.8627,7.8818,12.303,9.7087,3.8188,2.8479,6.8627,7.8818,9.9502,-3.8095,-3.873,2.9841,-0.96154,1.9968,-1.095,-0.82148,0.98522,-3.0128
12.196,9.6508,14.628,12.745,11.823,10.37,13.592,3.8188,5.7605,12.745,11.823,12.935,0.95238,1.8413,7.746,4.8077,8.7601,3.7359,0.12638,3.9409,-3.0128
8.4044,9.6508,13.657,7.8431,9.8522,9.4042,10.68,-0.06472,8.6731,7.8431,9.8522,11.94,1.9048,3.746,7.746,7.6923,9.7262,-1.095,1.0742,3.9409,1.7949
6.5087,10.603,14.628,10.784,13.793,7.4718,14.563,4.7896,11.586,10.784,13.793,12.935,0.95238,4.6984,5.8413,7.6923,9.7262,4.7021,1.0742,-2.9557,-0.12821
4.613,11.556,14.628,12.745,17.733999,7.4718,16.504999,8.6731,14.498,12.745,17.733999,11.94,0.95238,4.6984,4.8889,8.6538,9.7262,8.5668,5.8136,-5.9113,-1.0897
0.82148,7.746,9.7735,11.765,15.764,5.5395,14.563,6.7314,13.528,11.765,15.764,8.9552,-1.9048,1.8413,0.12698,5.7692,5.8615,3.7359,7.7093,-8.867,-0.12821
-1.0742,2.9841,3.9482,10.784,10.837,5.5395,13.592,7.7023,11.586,10.784,10.837,6.9652,-7.619,-4.8254,-6.5397,-0.96154,-1.868,-2.0612,4.8657,-10.837,-5.8974
-2.97,0.12698,-0.90615,8.8235,10.837,8.438,8.7379,8.6731,12.557,8.8235,10.837,8.9552,-11.429,-9.5873,-10.349,-5.7692,-7.6651,-8.8245,5.8136,-10.837,-7.8205
-1.0742,2.9841,0.06472,10.784,15.764,10.37,11.65,10.615,17.410999,10.784,15.764,11.94,-11.429,-9.5873,-10.349,-4.8077,-8.6312,-0.12882,10.553,-9.8522,-3.9744
-2.0221,4.8889,0.06472,12.745,12.808,6.5056,11.65,9.644,13.528,12.745,12.808,10.945,-11.429,-9.5873,-9.3968,-4.8077,-9.5974,6.6345,9.6051,-6.8966,-3.0128
-2.0221,5.8413,-0.90615,12.745,12.808,2.6409,11.65,8.6731,12.557,12.745,12.808,7.9602,-8.5714,-7.6825,-8.4444,-4.8077,-9.5974,3.7359,7.7093,-4.9261,-4.9359
-2.0221,6.7937,-0.90615,6.8627,10.837,1.6747,10.68,3.8188,12.557,6.8627,10.837,3.9801,-7.619,-4.8254,-6.5397,-1.9231,-8.6312,5.6683,4.8657,-3.9409,-3.0128
0.82148,8.6984,2.0065,5.8824,4.9261,2.6409,7.767,2.8479,5.7605,5.8824,4.9261,4.9751,-3.8095,-1.9683,-1.7778,3.8462,-3.8003,-5.9259,4.8657,2.9557,6.6026
1.7694,4.8889,2.9773,3.9216,1.9704,2.6409,2.9126,3.8188,-2.0065,3.9216,1.9704,3.9801,-3.8095,-2.9206,-1.7778,1.9231,-4.7665,-6.8921,-0.82148,3.9409,2.7564
-2.0221,1.0794,0.06472,2.9412,2.9557,-0.25765,0.97087,-2.9773,-5.89,2.9412,2.9557,1.99,-5.7143,-3.873,-3.6825,-0.96154,-6.6989,14.364,-5.5608,0.0,-0.12821
-0.12638,2.0317,1.0356,3.9216,3.9409,0.70853,0.97087,-2.9773,-0.06472,3.9216,3.9409,2.9851,-2.8571,-1.0159,-0.8254,1.9231,-3.8003,7.6006,-0.82148,1.9704,1.7949
3.6651,3.9365,2.9773,2.9412,4.9261,1.6747,2.9126,-2.0065,1.877,2.9412,4.9261,2.9851,-0.95238,-0.06349,2.0317,3.8462,-0.90177,1.8035,2.0221,6.8966,4.6795
2.7172,3.9365,2.9773,2.9412,0.98522,1.6747,0.97087,-3.9482,-1.0356,2.9412,0.98522,0.0,-0.95238,-1.0159,2.0317,4.8077,1.9968,0.83736,-2.7172,5.9113,4.6795
0.82148,3.9365,2.0065,2.9412,-1.9704,-4.1224,-0.97087,-4.9191,-2.0065,2.9412,-1.9704,-3.9801,1.9048,2.7937,2.0317,6.7308,3.9291,-1.095,-2.7172,0.98522,5.641
0.82148,6.7937,3.9482,-1.9608,-1.9704,-6.0548,0.0,-6.8608,0.90615,-1.9608,-1.9704,-3.9801,3.8095,5.6508,3.9365,9.6154,6.8277,-6.8921,0.12638,0.0,7.5641
5.5608,9.6508,8.8026,0.0,4.9261,-1.2238,7.767,-6.8608,4.7896,0.0,4.9261,2.9851,8.5714,9.4603,9.6508,13.462,12.625,-5.9259,6.7615,4.9261,11.41
5.5608,8.6984,9.7735,1.9608,6.8966,3.6071,9.7087,-4.9191,7.7023,1.9608,6.8966,6.9652,11.429,11.365,11.556,13.462,14.557,0.83736,10.553,5.9113,11.41
5.5608,5.8413,8.8026,2.9412,5.9113,7.4718,6.7961,-2.9773,8.6731,2.9412,5.9113,7.9602,9.5238,9.4603,10.603,12.5,12.625,-2.0612,6.7615,5.9113,11.41
7.4566,7.746,9.7735,2.9412,7.8818,9.4042,8.7379,-2.0065,8.6731,2.9412,7.8818,10.945,8.5714,5.6508,10.603,10.577,11.659,-12.689,5.8136,1.9704,9.4872
4.613,3.9365,7.8317,3.9216,7.8818,5.5395,3.8835,-0.06472,5.7605,3.9216,7.8818,8.9552,4.7619,0.88889,7.746,4.8077,7.7939,-1.095,4.8657,3.9409,2.7564
3.6651,2.9841,6.8608,5.8824,11.823,6.5056,8.7379,4.7896,7.7023,5.8824,11.823,11.94,3.8095,-2.9206,4.8889,0.0,3.9291,6.6345,5.8136,3.9409,0.83333
1.7694,1.0794,3.9482,12.745,11.823,8.438,14.563,8.6731,10.615,12.745,11.823,12.935,0.95238,-7.6825,1.0794,-5.7692,-1.868,13.398,2.0221,2.9557,-6.859
-1.0742,-2.7302,-1.877,12.745,13.793,3.6071,7.767,7.7023,10.615,12.745,13.793,7.9602,-2.8571,-12.444,-4.6349,-10.577,-7.6651,10.499,-0.82148,0.98522,-13.59
-2.0221,-2.7302,-4.7896,5.8824,8.867,1.6747,0.97087,4.7896,7.7023,5.8824,8.867,2.9851,-4.7619,-12.444,-5.5873,-9.6154,-9.5974,11.465,1.0742,0.98522,-8.7821
1.7694,-0.8254,-3.8188,0.98039,4.9261,1.6747,0.97087,1.877,3.8188,0.98039,4.9261,0.99502,-1.9048,-6.7302,0.12698,-4.8077,-4.7665,13.398,4.8657,6.8966,-3.9744
5.5608,1.0794,-1.877,-7.8431,-0.98522,2.6409,0.97087,0.90615,3.8188,-7.8431,-0.98522,-1.99,2.8571,-1.9683,7.746,1.9231,1.9968,5.6683,3.9179,8.867,-0.12821
9.3523,4.8889,3.9482,-2.9412,-3.9409,1.6747,3.8835,0.90615,-0.06472,-2.9412,-3.9409,-0.99502,7.619,4.6984,14.413,8.6538,9.7262,5.6683,-0.82148,8.867,5.641
13.144,9.6508,9.7735,-0.98039,-4.9261,1.6747,2.9126,1.877,-3.9482,-0.98039,-4.9261,0.99502,11.429,11.365,20.127001,14.423,16.49,11.465,2.0221,9.8522,11.41
15.987,10.603,13.657,-0.98039,-2.9557,4.5733,0.0,-0.06472,-2.9773,-0.98039,-2.9557,2.9851,14.286,13.27,23.937,18.268999,22.287001,1.8035,3.9179,12.808,12.372
16.934999,10.603,15.599,-1.9608,-3.9409,4.5733,0.97087,-2.9773,-3.9482,-1.9608,-3.9409,2.9851,19.048,16.127001,27.746,18.268999,26.150999,-1.095,0.12638,12.808,10.449
15.987,10.603,16.57,-2.9412,-1.9704,1.6747,3.8835,-2.0065,-3.9482,-2.9412,-1.9704,2.9851,24.761999,19.937,29.650999,19.231001,30.982,10.499,-1.7694,14.778,10.449
16.934999,13.46,19.482,2.9412,0.98522,4.5733,9.7087,-0.06472,-0.06472,2.9412,0.98522,5.9701,28.570999,22.794001,31.556,21.153999,33.881001,10.499,2.0221,17.733999,13.333
20.726999,17.27,23.365999,8.8235,4.9261,13.269,13.592,3.8188,4.7896,8.8235,4.9261,12.935,31.429001,25.650999,32.507999,25.962,36.778999,9.533,5.8136,18.719,17.179001
15.039,12.508,19.482,6.8627,3.9409,13.269,6.7961,3.8188,5.7605,6.8627,3.9409,12.935,26.667,22.794001,24.889,22.115,30.982,4.7021,1.0742,13.793,15.256
1.7694,5.8413,9.7735,-1.9608,2.9557,8.438,3.8835,-1.0356,4.7896,-1.9608,2.9557,8.9552,18.094999,17.079,11.556,13.462,19.388,-12.689,0.12638,6.8966,10.449
-12.449,-0.8254,-0.90615,0.0,2.9557,-3.1562,3.8835,-5.89,4.7896,0.0,2.9557,4.9751,8.5714,7.5556,-5.5873,3.8462,4.8953,-16.554001,3.9179,-4.9261,4.6795
-21.927,-5.5873,-9.644,7.8431,1.9704,-7.0209,0.97087,-1.0356,7.7023,7.8431,1.9704,0.0,-2.8571,-1.9683,-19.872999,-6.7308,-8.6312,-2.0612,5.8136,-10.837,-3.9744
-19.084,-6.5397,-13.528,7.8431,2.9557,-5.0886,1.9417,2.8479,9.644,7.8431,2.9557,-0.99502,-13.333,-12.444,-25.587,-15.385,-19.259001,-5.9259,8.6572,-11.823,-8.7821
-10.553,-6.5397,-13.528,3.9216,3.9409,-6.0548,2.9126,4.7896,8.6731,3.9216,3.9409,-2.9851,-19.048,-18.159,-20.825001,-19.231001,-22.158001,-8.8245,5.8136,-11.823,-11.667
0.82148,-1.7778,-6.7314,3.9216,5.9113,0.70853,0.97087,7.7023,9.644,3.9216,5.9113,0.0,-17.143,-16.254,-10.349,-14.423,-16.361,10.499,9.6051,-4.9261,-9.7436
5.5608,0.12698,-3.8188,0.98039,0.98522,2.6409,-2.9126,8.6731,2.8479,0.98039,0.98522,0.0,-13.333,-12.444,-2.7302,-9.6154,-9.5974,6.6345,2.97,0.0,-9.7436
8.4044,1.0794,-0.90615,0.0,-4.9261,2.6409,-3.8835,6.7314,-2.0065,0.0,-4.9261,-2.9851,-7.619,-7.6825,4.8889,-2.8846,-1.868,6.6345,-6.5087,3.9409,-4.9359
14.092,4.8889,3.9482,-5.8824,-7.8818,1.6747,-6.7961,1.877,-3.9482,-5.8824,-7.8818,-4.9751,1.9048,1.8413,14.413,8.6538,8.7601,14.364,-0.82148,9.8522,3.7179
19.778999,7.746,10.744,-4.902,-7.8818,3.6071,-5.8252,3.8188,-6.8608,-4.902,-7.8818,-1.99,9.5238,9.4603,22.032,16.346001,18.422001,15.33,3.9179,16.749001,10.449
20.726999,8.6984,13.657,-1.9608,-8.867,4.5733,-4.8544,7.7023,-8.8026,-1.9608,-8.867,0.0,13.333,13.27,23.937,18.268999,20.354,3.7359,0.12638,16.749001,12.372
17.882999,6.7937,10.744,-0.98039,-8.867,4.5733,-3.8835,2.8479,-14.628,-0.98039,-8.867,0.99502,15.238,15.175,21.079,16.346001,18.422001,13.398,-5.5608,16.749001,13.333
15.039,3.9365,7.8317,-3.9216,-7.8818,6.5056,-0.97087,1.877,-12.686,-3.9216,-7.8818,2.9851,16.190001,14.222,18.222,13.462,15.523,13.398,-7.4566,17.733999,12.372
8.4044,3.9365,4.9191,-0.98039,-2.9557,5.5395,0.0,1.877,-2.9773,-0.98039,-2.9557,2.9851,13.333,12.317,12.508,10.577,11.659,1.8035,-1.7694,9.8522,9.4872
2.7172,2.9841,4.9191,-0.98039,-1.9704,1.6747,6.7961,-2.9773,1.877,-0.98039,-1.9704,2.9851,8.5714,8.5079,5.8413,8.6538,7.7939,-2.0612,-4.613,1.9704,8.5256
1.7694,4.8889,6.8608,0.0,0.98522,6.5056,7.767,-2.0065,3.8188,0.0,0.98522,6.9652,5.7143,6.6032,2.9841,7.6923,5.8615,-6.8921,-0.82148,-2.9557,4.6795
0.82148,7.746,7.8317,5.8824,10.837,10.37,6.7961,2.8479,11.586,5.8824,10.837,9.9502,6.6667,8.5079,1.0794,7.6923,6.8277,-3.0274,2.0221,-3.9409,3.7179
-3.9179,5.8413,3.9482,6.8627,12.808,6.5056,9.7087,3.8188,13.528,6.8627,12.808,10.945,1.9048,3.746,-6.5397,3.8462,1.0306,-1.095,2.97,-8.867,4.6795
-10.553,2.9841,-1.877,7.8431,10.837,1.6747,12.621,-0.06472,10.615,7.8431,10.837,8.9552,-3.8095,-0.06349,-15.111,-1.9231,-5.7327,-10.757,7.7093,-15.764,0.83333
-17.188,-2.7302,-7.7023,4.902,5.9113,-1.2238,3.8835,0.90615,8.6731,4.902,5.9113,2.9851,-9.5238,-4.8254,-21.778,-6.7308,-13.462,-10.757,8.6572,-19.704,-3.9744
-19.084,-10.349,-15.469,1.9608,1.9704,-5.0886,-6.7961,2.8479,3.8188,1.9608,1.9704,-2.9851,-16.190001,-10.54,-27.492001,-13.462,-21.191999,-21.385,-0.82148,-20.690001,-6.859
-17.188,-16.063,-18.382,1.9608,-0.98522,-4.1224,-9.7087,5.7605,-1.0356,1.9608,-0.98522,-7.9602,-19.048,-15.302,-26.540001,-17.308001,-25.056,-3.9936,-4.613,-17.733999,-10.705
-15.292,-18.921,-19.353001,2.9412,-3.9409,-4.1224,-12.621,6.7314,-2.0065,2.9412,-3.9409,-9.9502,-20.0,-18.159,-23.683001,-19.231001,-26.023001,15.33,-2.7172,-10.837,-15.513
-13.397,-19.872999,-19.353001,2.9412,-3.9409,-6.0548,-16.504999,6.7314,-3.9482,2.9412,-3.9409,-10.945,-20.0,-21.016001,-21.778,-23.077,-26.023001,14.364,-6.5087,-9.8522,-22.243999
-6.7615,-17.016001,-13.528,5.8824,-2.9557,-2.19,-10.68,8.6731,-5.89,5.8824,-2.9557,-5.9701,-19.048,-20.063,-17.016001,-22.115,-24.09,16.296,-9.3523,-7.8818,-21.282
-2.97,-12.254,-8.6731,0.98039,-4.9261,2.6409,-7.767,8.6731,-5.89,0.98039,-4.9261,-1.99,-20.0,-21.016001,-15.111,-21.153999,-24.09,5.6683,-5.5608,-5.9113,-19.358999
-2.97,-11.302,-7.7023,-0.98039,-7.8818,-2.19,-8.7379,1.877,-8.8026,-0.98039,-7.8818,-2.9851,-20.952,-22.921,-16.063,-23.077,-26.023001,8.5668,-9.3523,-5.9113,-19.358999
-3.9179,-10.349,-8.6731,-4.902,-12.808,-2.19,-8.7379,-1.0356,-12.686,-4.902,-12.808,-6.9652,-19.048,-21.016001,-15.111,-21.153999,-24.09,-7.8583,-12.196,-5.9113,-16.474001
-0.12638,-5.5873,-4.7896,-5.8824,-10.837,-2.19,-6.7961,0.90615,-9.7735,-5.8824,-10.837,-5.9701,-12.381,-13.397,-8.4444,-13.462,-15.395,-10.757,-7.4566,-2.9557,-7.8205
-0.12638,-1.7778,-0.90615,-7.8431,-10.837,-5.0886,-3.8835,-2.0065,-6.8608,-7.8431,-10.837,-5.9701,-4.7619,-4.8254,-2.7302,-3.8462,-5.7327,11.465,-3.6651,0.0,1.7949
0.82148,2.0317,1.0356,-7.8431,-10.837,-3.1562,-1.9417,-2.9773,-6.8608,-7.8431,-10.837,-4.9751,0.95238,1.8413,1.0794,2.8846,1.9968,4.7021,1.0742,0.0,8.5256
2.7172,2.9841,4.9191,-8.8235,-10.837,1.6747,0.97087,-5.89,-3.9482,-8.8235,-10.837,-1.99,4.7619,5.6508,5.8413,6.7308,8.7601,-5.9259,-0.82148,1.9704,10.449
0.82148,4.8889,6.8608,-6.8627,-8.867,-2.19,4.8544,-6.8608,-2.0065,-6.8627,-8.867,-0.99502,7.619,7.5556,7.746,8.6538,13.591,2.7697,-1.7694,3.9409,9.4872
-5.8136,0.12698,2.0065,-9.8039,-7.8818,-7.9871,1.9417,-12.686,-3.9482,-9.8039,-7.8818,-2.9851,3.8095,4.6984,2.0317,4.8077,9.7262,-10.757,2.0221,-2.9557,5.641
-9.6051,-3.6825,-0.90615,-5.8824,-3.9409,-7.0209,0.0,-12.686,-2.0065,-5.8824,-3.9409,-3.9801,1.9048,2.7937,-0.8254,0.96154,5.8615,-15.588,3.9179,-6.8966,4.6795
-5.8136,-1.7778,1.0356,0.0,4.9261,-5.0886,0.97087,-7.8317,4.7896,0.0,4.9261,0.0,3.8095,4.6984,0.12698,0.96154,5.8615,-19.452,3.9179,-5.9113,5.641
-3.9179,-1.7778,2.0065,0.98039,5.9113,-0.25765,-0.97087,-3.9482,9.644,0.98039,5.9113,2.9851,0.95238,0.88889,-1.7778,-2.8846,1.9968,-30.080999,-1.7694,-8.867,-0.12821
-2.0221,-4.6349,2.0065,3.9216,7.8818,3.6071,0.0,-1.0356,7.7023,3.9216,7.8818,4.9751,-5.7143,-6.7302,-5.5873,-10.577,-4.7665,-19.452,-8.4044,-11.823,-10.705
-2.0221,-3.6825,2.0065,5.8824,8.867,5.5395,4.8544,3.8188,8.6731,5.8824,8.867,7.9602,-9.5238,-11.492,-6.5397,-14.423,-9.5974,-3.9936,-7.4566,-11.823,-16.474001
-1.0742,-4.6349,0.06472,7.8431,8.867,4.5733,6.7961,5.7605,7.7023,7.8431,8.867,7.9602,-10.476,-14.349,-7.4921,-17.308001,-12.496,3.7359,-7.4566,-9.8522,-19.358999
-0.12638,-2.7302,-0.90615,5.8824,5.9113,4.5733,3.8835,6.7314,4.7896,5.8824,5.9113,5.9701,-8.5714,-12.444,-5.5873,-13.462,-11.53,1.8035,-0.82148,-2.9557,-14.551
-1.0742,-3.6825,-3.8188,0.98039,0.98522,-3.1562,0.97087,3.8188,2.8479,0.98039,0.98522,0.0,-7.619,-11.492,-3.6825,-11.538,-11.53,-0.12882,1.0742,1.9704,-11.667
-3.9179,-4.6349,-5.7605,-0.98039,-0.98522,-7.9871,-4.8544,-1.0356,3.8188,-0.98039,-0.98522,-5.9701,-4.7619,-8.6349,-2.7302,-8.6538,-9.5974,1.8035,2.97,2.9557,-10.705
-4.8657,-3.6825,-6.7314,1.9608,0.0,-10.886,-6.7961,-3.9482,2.8479,1.9608,0.0,-9.9502,0.0,-1.0159,-0.8254,-2.8846,-4.7665,3.7359,-0.82148,3.9409,-3.9744
-2.97,-0.8254,-5.7605,-4.902,-0.98522,-8.9533,-5.8252,-3.9482,2.8479,-4.902,-0.98522,-10.945,6.6667,7.5556,2.0317,4.8077,1.0306,-2.0612,2.0221,2.9557,3.7179
0.82148,1.0794,-2.8479,-10.784,-2.9557,-6.0548,-4.8544,-6.8608,-1.0356,-10.784,-2.9557,-8.9552,12.381,14.222,7.746,10.577,7.7939,3.7359,2.0221,7.8818,9.4872
3.6651,4.8889,2.0065,-12.745,-7.8818,-5.0886,-4.8544,-6.8608,-5.89,-12.745,-7.8818,-7.9602,19.048,21.841,15.365,19.231001,15.523,2.7697,2.0221,10.837,19.103001
4.613,8.6984,6.8608,-13.725,-7.8818,-9.9195,-4.8544,-12.686,-4.9191,-13.725,-7.8818,-5.9701,22.857,26.603001,19.174999,24.038,21.32,-2.0612,3.9179,13.793,20.063999
4.613,11.556,10.744,-13.725,-5.9113,-7.9871,-0.97087,-14.628,-3.9482,-13.725,-5.9113,-2.9851,24.761999,28.507999,21.079,25.0,24.219,4.7021,2.97,15.764,19.103001
7.4566,12.508,13.657,-11.765,-6.8966,-2.19,4.8544,-9.7735,-2.9773,-11.765,-6.8966,0.99502,22.857,26.603001,21.079,24.038,25.184999,-7.8583,1.0742,11.823,17.179001
11.248,15.365,17.540001,-0.98039,-0.98522,0.70853,11.65,-3.9482,0.90615,-0.98039,-0.98522,7.9602,22.857,24.698,22.032,25.0,27.118,-7.8583,3.9179,9.8522,17.179001
10.3,13.46,18.511,0.0,3.9409,2.6409,7.767,-0.06472,-0.06472,0.0,3.9409,9.9502,20.0,21.841,21.079,22.115,25.184999,-4.9597,2.0221,6.8966,16.218
6.5087,8.6984,13.657,-1.9608,1.9704,3.6071,2.9126,-1.0356,-2.0065,-1.9608,1.9704,7.9602,14.286,15.175,15.365,15.385,18.422001,-5.9259,2.0221,3.9409,10.449
0.82148,3.9365,7.8317,0.98039,0.0,2.6409,2.9126,-2.9773,-1.0356,0.98039,0.0,6.9652,8.5714,9.4603,7.746,8.6538,10.692,1.8035,3.9179,1.9704,5.641
-3.9179,0.12698,2.0065,4.902,2.9557,3.6071,3.8835,-2.9773,0.90615,4.902,2.9557,7.9602,2.8571,5.6508,-0.8254,3.8462,3.9291,-6.8921,6.7615,-0.98522,3.7179
-13.397,-3.6825,-4.7896,-0.98039,1.9704,-0.25765,1.9417,-2.0065,1.877,-0.98039,1.9704,3.9801,-4.7619,-1.9683,-12.254,-3.8462,-6.6989,-4.9597,6.7615,-7.8818,-2.0513
-16.24,-7.4921,-9.644,-0.98039,4.9261,-1.2238,0.97087,-1.0356,2.8479,-0.98039,4.9261,1.99,-15.238,-9.5873,-22.73,-11.538,-17.327,-5.9259,4.8657,-18.719,-3.9744
-9.6051,-7.4921,-10.615,10.784,9.8522,2.6409,0.97087,7.7023,7.7023,10.784,9.8522,3.9801,-20.0,-16.254,-23.683001,-16.346001,-23.124001,1.8035,1.0742,-18.719,-5.8974
-2.97,-9.3968,-10.615,15.686,8.867,6.5056,1.9417,13.528,6.7314,15.686,8.867,5.9701,-25.714001,-22.921,-22.73,-23.077,-27.955,3.7359,2.0221,-17.733999,-14.551
3.6651,-9.3968,-8.6731,16.667,9.8522,11.337,0.97087,16.440001,6.7314,16.667,9.8522,7.9602,-27.618999,-27.683001,-17.968,-25.962,-27.955,6.6345,0.12638,-16.749001,-19.358999
3.6651,-11.302,-9.644,13.725,10.837,10.37,2.9126,17.410999,6.7314,13.725,10.837,7.9602,-29.524,-30.540001,-17.968,-27.885,-28.921,1.8035,-2.7172,-13.793,-21.282
2.7172,-14.159,-11.586,9.8039,2.9557,8.438,-0.97087,15.469,2.8479,9.8039,2.9557,5.9701,-32.381001,-34.348999,-17.968,-30.768999,-31.82,-3.9936,-4.613,-12.808,-24.167
5.5608,-10.349,-7.7023,7.8431,2.9557,9.4042,0.0,13.528,2.8479,7.8431,2.9557,5.9701,-29.524,-30.540001,-12.254,-26.923,-26.989,11.465,-2.7172,-7.8818,-22.243999
6.5087,-6.5397,-3.8188,0.0,1.9704,6.5056,-1.9417,6.7314,3.8188,0.0,1.9704,3.9801,-26.667,-28.635,-7.4921,-22.115,-21.191999,15.33,2.0221,-4.9261,-20.320999
4.613,-4.6349,-2.8479,-2.9412,0.98522,1.6747,-2.9126,4.7896,3.8188,-2.9412,0.98522,0.99502,-24.761999,-26.73,-4.6349,-19.231001,-17.327,-3.9936,2.0221,-3.9409,-18.396999
3.6651,-2.7302,-1.877,0.98039,1.9704,2.6409,-0.97087,3.8188,3.8188,0.98039,1.9704,0.0,-21.905001,-24.825001,-2.7302,-15.385,-13.462,10.499,2.0221,-2.9557,-16.474001
2.7172,-0.8254,-1.877,-2.9412,1.9704,3.6071,-0.97087,3.8188,2.8479,-2.9412,1.9704,-0.99502,-17.143,-21.016001,-1.7778,-12.5,-10.564,17.261999,3.9179,-2.9557,-12.628
3.6651,-0.8254,-0.90615,0.0,7.8818,2.6409,0.97087,4.7896,5.7605,0.0,7.8818,0.0,-13.333,-16.254,-0.8254,-10.577,-8.6312,1.8035,3.9179,0.98522,-10.705
-2.0221,-3.6825,-6.7314,2.9412,4.9261,-3.1562,-1.9417,-0.06472,2.8479,2.9412,4.9261,-3.9801,-13.333,-15.302,-5.5873,-12.5,-12.496,-3.0274,-1.7694,-5.9113,-13.59
-8.6572,-3.6825,-8.6731,0.98039,2.9557,-7.0209,-4.8544,-5.89,-2.0065,0.98039,2.9557,-6.9652,-10.476,-11.492,-9.3968,-9.6154,-11.53,0.83736,0.12638,-8.867,-6.859
-12.449,-4.6349,-10.615,-7.8431,-0.98522,-9.9195,-6.7961,-12.686,-3.9482,-7.8431,-0.98522,-9.9502,-8.5714,-7.6825,-11.302,-8.6538,-10.564,-22.351,-3.6651,-9.8522,-3.0128
-12.449,-3.6825,-9.644,-8.8235,-0.98522,-13.784,-4.8544,-12.686,-2.9773,-8.8235,-0.98522,-9.9502,-2.8571,-2.9206,-8.4444,-5.7692,-6.6989,-18.486,-4.613,-4.9261,-1.0897
-10.553,-5.5873,-6.7314,-7.8431,0.0,-13.784,-2.9126,-12.686,-1.0356,-7.8431,0.0,-6.9652,1.9048,1.8413,-5.5873,-2.8846,-3.8003,-5.9259,-3.6651,-1.9704,0.83333
-11.501,-7.4921,-6.7314,-1.9608,3.9409,-8.9533,-0.97087,-7.8317,-1.0356,-1.9608,3.9409,-4.9751,0.95238,0.88889,-7.4921,-5.7692,-4.7665,-9.7907,-7.4566,-3.9409,-3.9744
-11.501,-5.5873,-5.7605,3.9216,10.837,-5.0886,1.9417,-0.06472,4.7896,3.9216,10.837,0.0,1.9048,-0.06349,-7.4921,-5.7692,-4.7665,-1.095,-3.6651,-0.98522,-3.0128
-12.449,-4.6349,-6.7314,4.902,9.8522,-2.19,4.8544,1.877,5.7605,4.902,9.8522,0.99502,-1.9048,-2.9206,-11.302,-7.6923,-6.6989,-6.8921,-7.4566,-4.9261,-4.9359
-8.6572,-0.8254,-5.7605,9.8039,10.837,-1.2238,5.8252,5.7605,8.6731,9.8039,10.837,1.99,-3.8095,-4.8254,-11.302,-8.6538,-7.6651,-6.8921,-9.3523,-7.8818,-8.7821
-2.97,4.8889,0.06472,14.706,14.778,1.6747,8.7379,11.586,10.615,14.706,14.778,7.9602,-2.8571,-3.873,-8.4444,-4.8077,-5.7327,13.398,5.8136,-3.9409,-5.8974
-2.0221,6.7937,2.9773,6.8627,9.8522,2.6409,11.65,4.7896,8.6731,6.8627,9.8522,8.9552,-4.7619,-3.873,-8.4444,-4.8077,-5.7327,9.533,8.6572,-3.9409,-3.9744
-4.8657,2.9841,0.06472,0.98039,5.9113,-2.19,5.8252,-0.06472,7.7023,0.98039,5.9113,3.9801,-8.5714,-5.7778,-13.206,-6.7308,-9.5974,-21.385,6.7615,-12.808,-6.859
-5.8136,-4.6349,-5.7605,0.0,0.98522,-5.0886,-2.9126,-0.06472,1.877,0.0,0.98522,-3.9801,-13.333,-10.54,-16.063,-9.6154,-13.462,-13.655,6.7615,-16.749001,-5.8974
-2.0221,-3.6825,-4.7896,-3.9216,-1.9704,-0.25765,-5.8252,0.90615,-2.0065,-3.9216,-1.9704,-6.9652,-12.381,-9.5873,-11.302,-6.7308,-10.564,-1.095,3.9179,-9.8522,-2.0513
1.7694,-0.8254,0.06472,-2.9412,-6.8966,-0.25765,-6.7961,2.8479,-8.8026,-2.9412,-6.8966,-7.9602,-5.7143,-3.873,-2.7302,-0.96154,-1.868,-3.0274,-3.6651,-3.9409,-0.12821
3.6651,-2.7302,2.0065,-6.8627,-11.823,-1.2238,-12.621,0.90615,-11.715,-6.8627,-11.823,-10.945,-0.95238,-1.0159,3.9365,2.8846,3.9291,3.7359,-6.5087,0.0,2.7564
6.5087,-2.7302,2.9773,-8.8235,-10.837,-0.25765,-14.563,-2.0065,-11.715,-8.8235,-10.837,-9.9502,2.8571,0.88889,8.6984,5.7692,7.7939,8.5668,-3.6651,5.9113,5.641
8.4044,-1.7778,3.9482,-8.8235,-10.837,-2.19,-14.563,-1.0356,-11.715,-8.8235,-10.837,-9.9502,6.6667,4.6984,11.556,9.6154,10.692,4.7021,-4.613,9.8522,9.4872
9.3523,-0.8254,3.9482,-5.8824,-7.8818,-0.25765,-10.68,1.877,-13.657,-5.8824,-7.8818,-6.9652,8.5714,6.6032,12.508,11.538,12.625,10.499,-6.5087,12.808,10.449
8.4044,-1.7778,3.9482,-0.98039,-6.8966,2.6409,-7.767,6.7314,-11.715,-0.98039,-6.8966,-2.9851,11.429,9.4603,13.46,11.538,13.591,14.364,-5.5608,13.793,9.4872
5.5608,-5.5873,0.06472,0.0,-3.9409,4.5733,-6.7961,5.7605,-6.8608,0.0,-3.9409,-2.9851,10.476,8.5079,9.6508,8.6538,10.692,-0.12882,-1.7694,9.8522,8.5256
-1.0742,-5.5873,-2.8479,-2.9412,-1.9704,0.70853,-4.8544,2.8479,-2.9773,-2.9412,-1.9704,-3.9801,8.5714,7.5556,4.8889,5.7692,7.7939,2.7697,0.12638,7.8818,3.7179
-2.0221,-2.7302,-1.877,0.98039,1.9704,-0.25765,0.0,3.8188,1.877,0.98039,1.9704,-1.99,9.5238,9.4603,5.8413,7.6923,8.7601,20.160999,-0.82148,8.867,1.7949
-2.0221,-0.8254,-0.90615,7.8431,4.9261,2.6409,2.9126,6.7314,2.8479,7.8431,4.9261,1.99,10.476,10.413,6.7937,7.6923,9.7262,13.398,-5.5608,6.8966,0.83333
2.7172,0.12698,1.0356,8.8235,8.867,5.5395,4.8544,9.644,4.7896,8.8235,8.867,4.9751,9.5238,9.4603,7.746,6.7308,9.7262,6.6345,-3.6651,5.9113,-1.0897
4.613,1.0794,1.0356,5.8824,8.867,8.438,2.9126,5.7605,5.7605,5.8824,8.867,6.9652,7.619,6.6032,6.7937,5.7692,7.7939,12.432,-5.5608,4.9261,-0.12821
0.82148,2.9841,1.0356,4.902,6.8966,2.6409,-0.97087,2.8479,2.8479,4.902,6.8966,4.9751,5.7143,6.6032,3.9365,5.7692,7.7939,4.7021,-4.613,1.9704,1.7949
0.82148,4.8889,1.0356,-1.9608,2.9557,0.70853,1.9417,-0.06472,1.877,-1.9608,2.9557,0.99502,7.619,9.4603,4.8889,8.6538,9.7262,-11.723,1.0742,5.9113,5.641
-1.0742,2.9841,-1.877,-2.9412,-1.9704,-3.1562,1.9417,-2.0065,-0.06472,-2.9412,-1.9704,-4.9751,9.5238,11.365,3.9365,8.6538,9.7262,-5.9259,1.0742,4.9261,7.5641
-3.9179,-0.8254,-5.7605,0.98039,-4.9261,-7.0209,-4.8544,-5.89,-2.9773,0.98039,-4.9261,-8.9552,9.5238,10.413,2.0317,8.6538,8.7601,1.8035,3.9179,2.9557,12.372
-4.8657,-0.8254,-5.7605,-0.98039,-6.8966,-8.9533,-6.7961,-5.89,-4.9191,-0.98039,-6.8966,-11.94,9.5238,11.365,2.0317,9.6154,8.7601,-8.8245,5.8136,3.9409,14.295
-3.9179,0.12698,-4.7896,-6.8627,-8.867,-10.886,-8.7379,-4.9191,-7.8317,-6.8627,-8.867,-12.935,12.381,14.222,2.9841,10.577,8.7601,-3.0274,3.9179,4.9261,14.295
-6.7615,1.0794,-4.7896,-15.686,-12.808,-9.9195,-13.592,-9.7735,-9.7735,-15.686,-12.808,-13.93,12.381,15.175,2.0317,11.538,8.7601,0.83736,-3.6651,5.9113,13.333
-7.7093,0.12698,-4.7896,-16.667,-9.8522,-12.818,-11.65,-12.686,-10.744,-16.667,-9.8522,-13.93,13.333,17.079,2.0317,14.423,9.7262,-10.757,-1.7694,3.9409,16.218
-10.553,-2.7302,-5.7605,-13.725,-11.823,-17.649,-12.621,-13.657,-13.657,-13.725,-11.823,-16.915001,15.238,18.983999,1.0794,15.385,10.692,-8.8245,1.0742,3.9409,19.103001
-9.6051,-3.6825,-2.8479,-9.8039,-12.808,-16.683001,-9.7087,-10.744,-11.715,-9.8039,-12.808,-13.93,18.094999,20.889,3.9365,16.346001,12.625,1.8035,-1.7694,7.8818,17.179001
-5.8136,-2.7302,0.06472,-7.8431,-8.867,-13.784,-8.7379,-8.8026,-8.8026,-7.8431,-8.867,-10.945,20.952,22.794001,6.7937,16.346001,14.557,1.8035,-5.5608,10.837,13.333
-2.0221,0.12698,2.9773,-6.8627,-3.9409,-7.9871,-4.8544,-7.8317,-8.8026,-6.8627,-3.9409,-7.9602,20.952,22.794001,7.746,17.308001,15.523,-7.8583,-2.7172,9.8522,16.218
1.7694,3.9365,5.89,-7.8431,-0.98522,-7.0209,-0.97087,-4.9191,-2.9773,-7.8431,-0.98522,-5.9701,23.809999,24.698,10.603,18.268999,17.455999,5.6683,2.0221,10.837,17.179001
1.7694,4.8889,5.89,-9.8039,0.98522,-8.9533,-0.97087,-2.9773,0.90615,-9.8039,0.98522,-3.9801,25.714001,22.794001,11.556,15.385,17.455999,8.5668,0.12638,10.837,12.372
2.7172,5.8413,5.89,-7.8431,1.9704,-5.0886,0.0,-2.0065,1.877,-7.8431,1.9704,-0.99502,23.809999,20.889,11.556,11.538,15.523,-2.0612,2.97,8.867,8.5256
1.7694,4.8889,4.9191,0.98039,3.9409,-2.19,3.8835,-2.9773,3.8188,0.98039,3.9409,0.99502,20.0,17.079,8.6984,7.6923,11.659,-18.486,4.8657,7.8818,5.641
-0.12638,3.9365,3.9482,-2.9412,3.9409,-2.19,4.8544,-4.9191,1.877,-2.9412,3.9409,2.9851,18.094999,14.222,5.8413,4.8077,8.7601,-7.8583,-1.7694,7.8818,3.7179
-2.97,4.8889,4.9191,-3.9216,4.9261,-0.25765,7.767,-6.8608,4.7896,-3.9216,4.9261,4.9751,14.286,12.317,2.9841,5.7692,5.8615,3.7359,-4.613,4.9261,6.6026
-4.8657,5.8413,3.9482,-3.9216,2.9557,-0.25765,4.8544,-6.8608,0.90615,-3.9216,2.9557,3.9801,10.476,11.365,-0.8254,6.7308,4.8953,-0.12882,-0.82148,1.9704,10.449
-5.8136,2.0317,0.06472,-7.8431,-4.9261,-5.0886,-1.9417,-6.8608,-4.9191,-7.8431,-4.9261,-1.99,7.619,11.365,-1.7778,7.6923,3.9291,-16.554001,-0.82148,1.9704,8.5256
-2.97,1.0794,-0.90615,-8.8235,-7.8818,-7.9871,-5.8252,-4.9191,-6.8608,-8.8235,-7.8818,-4.9751,8.5714,13.27,1.0794,10.577,6.8277,-11.723,0.12638,2.9557,11.41
-0.12638,0.12698,-0.90615,-10.784,-9.8522,-7.9871,-10.68,-5.89,-9.7735,-10.784,-9.8522,-6.9652,10.476,16.127001,4.8889,14.423,9.7262,8.5668,-0.82148,6.8966,14.295
3.6651,1.0794,2.0065,-9.8039,-9.8522,-3.1562,-8.7379,-4.9191,-11.715,-9.8039,-9.8522,-3.9801,13.333,18.032,9.6508,16.346001,14.557,3.7359,-2.7172,7.8818,15.256
11.248,3.9365,10.744,-2.9412,-8.867,4.5733,-0.97087,1.877,-7.8317,-2.9412,-8.867,2.9851,17.143,20.889,17.27,19.231001,20.354,0.83736,-1.7694,10.837,14.295
15.987,3.9365,16.57,-0.98039,-5.9113,8.438,1.9417,4.7896,-8.8026,-0.98039,-5.9113,7.9602,18.094999,18.983999,22.032,17.308001,22.287001,9.533,-4.613,13.793,10.449
18.830999,4.8889,18.511,0.98039,-4.9261,14.235,5.8252,6.7314,-9.7735,0.98039,-4.9261,11.94,17.143,15.175,22.983999,15.385,21.32,12.432,-1.7694,14.778,7.5641
18.830999,5.8413,16.57,2.9412,-2.9557,13.269,4.8544,4.7896,-7.8317,2.9412,-2.9557,10.945,14.286,11.365,21.079,12.5,19.388,6.6345,2.97,14.778,6.6026
14.092,2.9841,10.744,2.9412,-4.9261,6.5056,-0.97087,1.877,-6.8608,2.9412,-4.9261,4.9751,10.476,6.6032,17.27,7.6923,14.557,9.533,-2.7172,12.808,0.83333
13.144,4.8889,9.7735,3.9216,0.0,3.6071,2.9126,2.8479,-2.9773,3.9216,0.0,5.9701,7.619,3.746,15.365,5.7692,11.659,11.465,-3.6651,9.8522,-3.0128
13.144,12.508,13.657,1.9608,8.867,9.4042,13.592,4.7896,10.615,1.9608,8.867,12.935,5.7143,0.88889,14.413,7.6923,12.625,17.261999,6.7615,7.8818,-0.12821
9.3523,16.316999,14.628,9.8039,13.793,11.337,20.388,8.6731,15.469,9.8039,13.793,16.915001,0.95238,-2.9206,8.6984,5.7692,8.7601,21.127001,12.449,4.9261,-0.12821
-0.12638,11.556,6.8608,14.706,13.793,8.438,16.504999,7.7023,13.528,14.706,13.793,13.93,-5.7143,-7.6825,-0.8254,0.0,1.0306,1.8035,8.6572,-0.98522,-4.9359
-5.8136,11.556,2.9773,14.706,14.778,6.5056,11.65,4.7896,16.440001,14.706,14.778,10.945,-8.5714,-6.7302,-7.4921,1.9231,-1.868,3.7359,5.8136,-6.8966,1.7949
-7.7093,12.508,2.9773,9.8039,13.793,1.6747,13.592,0.90615,14.498,9.8039,13.793,8.9552,-8.5714,-4.8254,-10.349,2.8846,-2.8341,-6.8921,12.449,-15.764,2.7564
-6.7615,10.603,2.0065,9.8039,13.793,1.6747,13.592,1.877,14.498,9.8039,13.793,8.9552,-10.476,-4.8254,-12.254,1.9231,-5.7327,-18.486,11.501,-16.749001,-1.0897
-2.0221,11.556,3.9482,9.8039,12.808,4.5733,12.621,2.8479,15.469,9.8039,12.808,10.945,-8.5714,-1.9683,-8.4444,4.8077,-3.8003,-7.8583,8.6572,-12.808,2.7564
-2.0221,8.6984,2.9773,6.8627,10.837,3.6071,11.65,-1.0356,13.528,6.8627,10.837,8.9552,-10.476,-1.9683,-7.4921,2.8846,-5.7327,-2.0612,6.7615,-14.778,2.7564
-0.12638,3.9365,1.0356,6.8627,7.8818,3.6071,7.767,-2.0065,8.6731,6.8627,7.8818,6.9652,-11.429,-3.873,-7.4921,0.0,-7.6651,-3.0274,4.8657,-13.793,2.7564
3.6651,0.12698,2.0065,5.8824,5.9113,7.4718,2.9126,2.8479,5.7605,5.8824,5.9113,5.9701,-10.476,-4.8254,-5.5873,-0.96154,-7.6651,-3.9936,3.9179,-9.8522,2.7564
3.6651,-6.5397,-0.90615,3.9216,3.9409,8.438,-0.97087,1.877,2.8479,3.9216,3.9409,3.9801,-12.381,-9.5873,-4.6349,-6.7308,-9.5974,-3.0274,0.12638,-5.9113,-2.0513
4.613,-9.3968,-2.8479,2.9412,0.0,6.5056,-3.8835,2.8479,0.90615,2.9412,0.0,1.99,-13.333,-11.492,-1.7778,-9.6154,-8.6312,-15.588,-3.6651,-3.9409,-6.859
5.5608,-8.4444,-1.877,2.9412,-2.9557,3.6071,-4.8544,2.8479,-0.06472,2.9412,-2.9557,0.0,-9.5238,-8.6349,2.0317,-6.7308,-4.7665,8.5668,0.12638,1.9704,-3.9744
2.7172,-8.4444,-1.877,-1.9608,-6.8966,-1.2238,-7.767,-2.9773,-2.0065,-1.9608,-6.8966,-3.9801,-5.7143,-5.7778,2.9841,-3.8462,-1.868,22.093,0.12638,1.9704,-3.0128
4.613,-7.4921,0.06472,0.0,-1.9704,-0.25765,-3.8835,-0.06472,-1.0356,0.0,-1.9704,-1.99,-1.9048,-2.9206,4.8889,-2.8846,1.0306,9.533,-2.7172,1.9704,-3.0128
8.4044,-3.6825,2.9773,2.9412,4.9261,6.5056,2.9126,6.7314,4.7896,2.9412,4.9261,3.9801,0.0,-1.0159,6.7937,-0.96154,2.963,2.7697,1.0742,4.9261,-3.0128
3.6651,-5.5873,-0.90615,5.8824,7.8818,5.5395,2.9126,1.877,4.7896,5.8824,7.8818,3.9801,-5.7143,-7.6825,0.12698,-5.7692,-2.8341,-25.25,-1.7694,0.0,-5.8974
-0.12638,-5.5873,-1.877,4.902,7.8818,6.5056,0.97087,-1.0356,5.7605,4.902,7.8818,3.9801,-9.5238,-11.492,-3.6825,-8.6538,-5.7327,-5.9259,-7.4566,-2.9557,-10.705
-2.0221,-4.6349,-1.877,5.8824,8.867,2.6409,2.9126,-1.0356,6.7314,5.8824,8.867,3.9801,-9.5238,-11.492,-3.6825,-8.6538,-4.7665,10.499,0.12638,-4.9261,-8.7821
-6.7615,-5.5873,-3.8188,2.9412,5.9113,-4.1224,0.0,-5.89,6.7314,2.9412,5.9113,0.0,-11.429,-13.397,-6.5397,-11.538,-7.6651,4.7021,2.97,-8.867,-10.705
-9.6051,-6.5397,-6.7314,-3.9216,1.9704,-9.9195,-2.9126,-8.8026,5.7605,-3.9216,1.9704,-3.9801,-13.333,-15.302,-9.3968,-14.423,-9.5974,-3.0274,2.97,-12.808,-13.59
-7.7093,-2.7302,-3.8188,-1.9608,1.9704,-7.0209,1.9417,-7.8317,6.7314,-1.9608,1.9704,-2.9851,-10.476,-13.397,-8.4444,-11.538,-8.6312,-7.8583,6.7615,-11.823,-7.8205
-8.6572,1.0794,-2.8479,-0.98039,0.98522,-7.0209,2.9126,-7.8317,5.7605,-0.98039,0.98522,-0.99502,-10.476,-12.444,-9.3968,-8.6538,-7.6651,-21.385,8.6572,-11.823,-2.0513
-7.7093,5.8413,1.0356,2.9412,4.9261,-3.1562,8.7379,-4.9191,6.7314,2.9412,4.9261,4.9751,-6.6667,-9.5873,-8.4444,-5.7692,-4.7665,-14.622,9.6051,-11.823,-3.9744
-6.7615,8.6984,3.9482,2.9412,5.9113,-1.2238,11.65,-3.9482,9.644,2.9412,5.9113,5.9701,-3.8095,-6.7302,-5.5873,-3.8462,-1.868,-20.419001,9.6051,-9.8522,-4.9359
-5.8136,10.603,6.8608,2.9412,6.8966,-0.25765,13.592,-8.8026,12.557,2.9412,6.8966,8.9552,-2.8571,-4.8254,-2.7302,-0.96154,-0.90177,-24.283001,10.553,-7.8818,-1.0897
-2.0221,5.8413,3.9482,4.902,3.9409,1.6747,7.767,-2.9773,6.7314,4.902,3.9409,7.9602,-5.7143,-8.6349,-2.7302,-4.8077,-4.7665,-10.757,5.8136,-5.9113,-2.0513
0.82148,-1.7778,-0.90615,2.9412,1.9704,3.6071,1.9417,6.7314,-2.0065,2.9412,1.9704,4.9751,-7.619,-11.492,-3.6825,-9.6154,-8.6312,0.83736,-3.6651,-1.9704,-7.8205
0.82148,-6.5397,-5.7605,0.98039,0.0,4.5733,0.0,9.644,-2.9773,0.98039,0.0,0.0,-9.5238,-12.444,-3.6825,-13.462,-12.496,-1.095,0.12638,0.98522,-8.7821
-0.12638,-9.3968,-10.615,2.9412,-4.9261,0.70853,-3.8835,5.7605,-6.8608,2.9412,-4.9261,-4.9751,-10.476,-12.444,-5.5873,-14.423,-15.395,6.6345,-0.82148,4.9261,-5.8974
-1.0742,-10.349,-12.557,0.98039,-7.8818,-3.1562,-8.7379,5.7605,-8.8026,0.98039,-7.8818,-8.9552,-9.5238,-9.5873,-5.5873,-13.462,-14.428,9.533,-3.6651,6.8966,-4.9359
-1.0742,-10.349,-12.557,0.0,-9.8522,-2.19,-12.621,2.8479,-11.715,0.0,-9.8522,-10.945,-7.619,-6.7302,-5.5873,-11.538,-12.496,-2.0612,-4.613,6.8966,-4.9359
0.82148,-9.3968,-10.615,-2.9412,-13.793,-2.19,-14.563,1.877,-16.57,-2.9412,-13.793,-11.94,-2.8571,-1.0159,-2.7302,-7.6923,-8.6312,1.8035,-12.196,6.8966,-3.9744
4.613,-6.5397,-8.6731,-1.9608,-13.793,-1.2238,-13.592,6.7314,-17.540001,-1.9608,-13.793,-10.945,1.9048,3.746,2.0317,-2.8846,-3.8003,20.160999,-13.144,10.837,-0.12821
4.613,-5.5873,-8.6731,-2.9412,-13.793,-1.2238,-11.65,7.7023,-15.599,-2.9412,-13.793,-9.9502,4.7619,6.6032,2.9841,0.0,-1.868,21.127001,-9.3523,11.823,0.83333
-1.0742,-5.5873,-9.644,-4.902,-13.793,-5.0886,-11.65,0.90615,-12.686,-4.902,-13.793,-11.94,5.7143,7.5556,2.0317,1.9231,-0.90177,15.33,-6.5087,9.8522,2.7564
-3.9179,-6.5397,-9.644,-10.784,-16.749001,-9.9195,-16.504999,-8.8026,-15.599,-10.784,-16.749001,-15.92,8.5714,8.5079,3.9365,3.8462,1.9968,-11.723,-4.613,10.837,4.6795
-4.8657,-5.5873,-6.7314,-16.667,-17.733999,-12.818,-16.504999,-12.686,-14.628,-16.667,-17.733999,-16.915001,15.238,12.317,7.746,7.6923,6.8277,4.7021,-2.7172,12.808,4.6795
-2.0221,-3.6825,-1.877,-16.667,-13.793,-11.852,-11.65,-9.7735,-11.715,-16.667,-13.793,-13.93,20.952,16.127001,9.6508,10.577,11.659,12.432,-4.613,13.793,6.6026
-3.9179,-2.7302,-1.877,-11.765,-12.808,-12.818,-9.7087,-9.7735,-10.744,-11.765,-12.808,-11.94,20.0,16.127001,6.7937,8.6538,10.692,-8.8245,-0.82148,7.8818,3.7179
-7.7093,-1.7778,-0.90615,-6.8627,-10.837,-10.886,-8.7379,-10.744,-7.8317,-6.8627,-10.837,-9.9502,17.143,14.222,2.9841,5.7692,7.7939,-1.095,2.0221,4.9261,3.7179
-9.6051,0.12698,-0.90615,-8.8235,-8.867,-7.0209,-5.8252,-9.7735,-4.9191,-8.8235,-8.867,-6.9652,13.333,10.413,-1.7778,2.8846,2.963,3.7359,3.9179,0.98522,6.6026
-9.6051,-1.7778,-2.8479,-7.8431,-5.9113,-5.0886,-1.9417,-3.9482,-2.9773,-7.8431,-5.9113,-3.9801,6.6667,4.6984,-7.4921,-2.8846,-4.7665,5.6683,2.97,-4.9261,1.7949
-6.7615,-6.5397,-5.7605,-0.98039,-5.9113,-1.2238,0.97087,1.877,-2.9773,-0.98039,-5.9113,-1.99,-2.8571,-4.8254,-14.159,-12.5,-14.428,-9.7907,-3.6651,-8.867,-6.859
-6.7615,-9.3968,-10.615,2.9412,-3.9409,-0.25765,-0.97087,-0.06472,-5.89,2.9412,-3.9409,-3.9801,-12.381,-13.397,-18.921,-18.268999,-23.124001,-1.095,-7.4566,-10.837,-10.705
-4.8657,-8.4444,-10.615,1.9608,-3.9409,2.6409,-5.8252,2.8479,-7.8317,1.9608,-3.9409,-3.9801,-17.143,-16.254,-17.968,-17.308001,-23.124001,4.7021,-6.5087,-11.823,-9.7436
-1.0742,-6.5397,-9.644,2.9412,-2.9557,4.5733,-5.8252,6.7314,-6.8608,2.9412,-2.9557,-3.9801,-17.143,-16.254,-15.111,-15.385,-21.191999,-1.095,-5.5608,-10.837,-7.8205
-0.12638,-6.5397,-10.615,2.9412,-0.98522,0.70853,-5.8252,4.7896,-3.9482,2.9412,-0.98522,-4.9751,-17.143,-17.205999,-11.302,-13.462,-19.259001,-13.655,-6.5087,-5.9113,-7.8205
4.613,-4.6349,-7.7023,3.9216,1.9704,1.6747,-2.9126,7.7023,-2.0065,3.9216,1.9704,-3.9801,-14.286,-16.254,-5.5873,-11.538,-14.428,16.296,-9.3523,2.9557,-6.859
4.613,-3.6825,-6.7314,2.9412,0.98522,1.6747,0.0,7.7023,-2.9773,2.9412,0.98522,-3.9801,-11.429,-14.349,-2.7302,-9.6154,-10.564,29.823,-9.3523,7.8818,-6.859
2.7172,-4.6349,-5.7605,1.9608,-1.9704,0.70853,-5.8252,2.8479,-6.8608,1.9608,-1.9704,-4.9751,-5.7143,-10.54,-0.8254,-7.6923,-7.6651,17.261999,-8.4044,6.8966,-7.8205
3.6651,-2.7302,-2.8479,-0.98039,-3.9409,-0.25765,-5.8252,3.8188,-6.8608,-0.98039,-3.9409,-4.9751,-1.9048,-6.7302,2.0317,-3.8462,-1.868,0.83736,-5.5608,6.8966,-4.9359
6.5087,1.0794,2.9773,-2.9412,-2.9557,0.70853,-1.9417,2.8479,-3.9482,-2.9412,-2.9557,-1.99,2.8571,-1.9683,6.7937,1.9231,4.8953,3.7359,-1.7694,7.8818,-3.0128
12.196,8.6984,12.686,0.98039,0.98522,6.5056,7.767,1.877,0.90615,0.98039,0.98522,5.9701,9.5238,5.6508,14.413,10.577,14.557,11.465,2.97,10.837,2.7564
12.196,15.365,19.482,1.9608,4.9261,6.5056,14.563,2.8479,5.7605,1.9608,4.9261,11.94,13.333,9.4603,17.27,16.346001,21.32,2.7697,4.8657,8.867,6.6026
10.3,14.413,18.511,0.0,4.9261,4.5733,12.621,-0.06472,3.8188,0.0,4.9261,10.945,12.381,7.5556,14.413,15.385,20.354,-3.9936,2.0221,5.9113,4.6795
7.4566,11.556,15.599,0.98039,3.9409,4.5733,8.7379,-2.0065,2.8479,0.98039,3.9409,9.9502,12.381,6.6032,13.46,12.5,18.422001,5.6683,3.9179,4.9261,2.7564
5.5608,9.6508,13.657,0.0,4.9261,3.6071,9.7087,-4.9191,4.7896,0.0,4.9261,8.9552,11.429,5.6508,11.556,9.6154,15.523,12.432,8.6572,1.9704,2.7564
4.613,7.746,11.715,-1.9608,1.9704,2.6409,8.7379,-2.9773,0.90615,-1.9608,1.9704,7.9602,8.5714,3.746,9.6508,7.6923,11.659,-6.8921,4.8657,-1.9704,3.7179
1.7694,5.8413,8.8026,-1.9608,1.9704,1.6747,8.7379,-5.89,0.90615,-1.9608,1.9704,6.9652,1.9048,0.88889,3.9365,4.8077,5.8615,-18.486,2.0221,-6.8966,6.6026
-0.12638,5.8413,6.8608,1.9608,5.9113,3.6071,11.65,-3.9482,5.7605,1.9608,5.9113,9.9502,0.95238,0.88889,0.12698,3.8462,1.9968,-3.0274,5.8136,-7.8818,7.5641
0.82148,7.746,6.8608,7.8431,10.837,7.4718,15.534,3.8188,10.615,7.8431,10.837,12.935,1.9048,2.7937,-1.7778,2.8846,1.0306,-4.9597,8.6572,-4.9261,5.641
-1.0742,5.8413,2.0065,6.8627,8.867,0.70853,9.7087,3.8188,8.6731,6.8627,8.867,7.9602,-0.95238,-0.06349,-4.6349,0.0,-2.8341,-3.0274,4.8657,-1.9704,3.7179
-1.0742,3.9365,-0.90615,3.9216,4.9261,0.70853,8.7379,2.8479,5.7605,3.9216,4.9261,3.9801,-1.9048,-0.06349,-5.5873,0.0,-3.8003,-4.9597,2.0221,-3.9409,3.7179
-0.12638,2.9841,-1.877,2.9412,0.0,4.5733,1.9417,4.7896,2.8479,2.9412,0.0,1.99,-2.8571,-0.06349,-5.5873,0.96154,-4.7665,1.8035,2.97,-4.9261,3.7179
-0.12638,0.12698,-4.7896,0.0,0.0,2.6409,-6.7961,5.7605,-0.06472,0.0,0.0,-0.99502,-5.7143,-2.9206,-6.5397,-0.96154,-5.7327,7.6006,5.8136,-2.9557,1.7949
0.82148,-1.7778,-4.7896,-2.9412,0.0,0.70853,-4.8544,1.877,-2.0065,-2.9412,0.0,-3.9801,-7.619,-4.8254,-5.5873,-0.96154,-6.6989,-3.0274,-0.82148,-1.9704,1.7949
-0.12638,-3.6825,-4.7896,-2.9412,-1.9704,-1.2238,-4.8544,-3.9482,-2.0065,-2.9412,-1.9704,-5.9701,-8.5714,-4.8254,-5.5873,-1.9231,-6.6989,-3.0274,-6.5087,-0.98522,-0.12821
2.7172,-2.7302,-0.90615,-1.9608,-2.9557,0.70853,-3.8835,-0.06472,-1.0356,-1.9608,-2.9557,-2.9851,-4.7619,-1.9683,-0.8254,-0.96154,-3.8003,1.8035,-4.613,1.9704,-1.0897
3.6651,-2.7302,1.0356,0.98039,0.0,1.6747,-4.8544,5.7605,-2.0065,0.98039,0.0,-0.99502,-0.95238,-1.0159,1.0794,-0.96154,-1.868,6.6345,-2.7172,2.9557,-3.0128
3.6651,-5.5873,1.0356,1.9608,1.9704,0.70853,-4.8544,5.7605,-3.9482,1.9608,1.9704,0.0,0.0,-0.06349,2.9841,-3.8462,-1.868,9.533,-3.6651,5.9113,-4.9359
3.6651,-6.5397,2.0065,2.9412,1.9704,4.5733,-0.97087,4.7896,-3.9482,2.9412,1.9704,2.9851,-1.9048,-4.8254,2.0317,-6.7308,-3.8003,-0.12882,-5.5608,5.9113,-7.8205
5.5608,-4.6349,2.0065,3.9216,1.9704,6.5056,1.9417,4.7896,-2.9773,3.9216,1.9704,3.9801,-4.7619,-7.6825,2.0317,-7.6923,-3.8003,14.364,-3.6651,3.9409,-9.7436
6.5087,-0.8254,2.0065,0.0,0.0,7.4718,-0.97087,0.90615,-0.06472,0.0,0.0,2.9851,-2.8571,-6.7302,3.9365,-5.7692,-1.868,19.195,-7.4566,3.9409,-11.667
5.5608,5.8413,4.9191,3.9216,4.9261,4.5733,3.8835,-0.06472,4.7896,3.9216,4.9261,3.9801,-0.95238,-3.873,4.8889,0.0,1.9968,8.5668,2.0221,1.9704,-4.9359
2.7172,10.603,7.8317,3.9216,5.9113,-1.2238,8.7379,0.90615,7.7023,3.9216,5.9113,5.9701,-0.95238,-1.9683,3.9365,4.8077,4.8953,-2.0612,11.501,0.0,1.7949
0.82148,14.413,8.8026,0.98039,7.8818,-1.2238,13.592,-1.0356,10.615,0.98039,7.8818,5.9701,-2.8571,-1.0159,1.0794,6.7308,5.8615,-6.8921,9.6051,-3.9409,4.6795
-1.0742,12.508,6.8608,0.98039,4.9261,-2.19,10.68,-3.9482,9.644,0.98039,4.9261,3.9801,-3.8095,0.88889,-0.8254,8.6538,4.8953,-20.419001,10.553,-6.8966,8.5256
-3.9179,5.8413,1.0356,-1.9608,2.9557,-1.2238,0.0,-6.8608,6.7314,-1.9608,2.9557,0.0,-2.8571,2.7937,-2.7302,7.6923,2.963,-20.419001,10.553,-5.9113,8.5256
-8.6572,1.0794,-0.90615,-6.8627,-0.98522,-5.0886,-5.8252,-9.7735,2.8479,-6.8627,-0.98522,-2.9851,-1.9048,5.6508,-4.6349,6.7308,2.963,-11.723,6.7615,-3.9409,7.5641
-9.6051,1.0794,0.06472,-6.8627,-2.9557,-6.0548,-3.8835,-10.744,0.90615,-6.8627,-2.9557,-1.99,-0.95238,7.5556,-4.6349,5.7692,2.963,3.7359,0.12638,-5.9113,7.5641
-10.553,-1.7778,-2.8479,-6.8627,-4.9261,-7.9871,-2.9126,-11.715,-0.06472,-6.8627,-4.9261,-3.9801,0.0,6.6032,-7.4921,2.8846,0.06441,1.8035,-1.7694,-8.867,5.641
-4.8657,-3.6825,-2.8479,1.9608,0.0,-3.1562,-0.97087,-2.9773,0.90615,1.9608,0.0,-1.99,3.8095,6.6032,-3.6825,-0.96154,-0.90177,2.7697,0.12638,-1.9704,1.7949
2.7172,-7.4921,-3.8188,1.9608,-0.98522,4.5733,-2.9126,5.7605,-2.0065,1.9608,-0.98522,0.99502,3.8095,4.6984,-0.8254,-5.7692,-4.7665,11.465,-3.6651,3.9409,-2.0513
7.4566,-11.302,-5.7605,-0.98039,-4.9261,4.5733,-8.7379,9.644,-6.8608,-0.98039,-4.9261,0.0,2.8571,2.7937,2.0317,-9.6154,-7.6651,7.6006,-9.3523,6.8966,-5.8974
11.248,-11.302,-4.7896,2.9412,-3.9409,4.5733,-9.7087,9.644,-8.8026,2.9412,-3.9409,-0.99502,1.9048,0.88889,4.8889,-8.6538,-5.7327,10.499,-12.196,9.8522,-5.8974
15.987,-4.6349,2.0065,6.8627,0.0,9.4042,-1.9417,10.615,-3.9482,6.8627,0.0,2.9851,3.8095,1.8413,12.508,-2.8846,1.0306,13.398,-0.82148,14.778,-2.0513
15.987,-1.7778,3.9482,6.8627,0.98522,8.438,0.97087,9.644,-1.0356,6.8627,0.98522,2.9851,5.7143,1.8413,16.316999,-0.96154,4.8953,7.6006,-2.7172,17.733999,-3.0128
13.144,-0.8254,3.9482,0.98039,-3.9409,5.5395,0.97087,6.7314,-2.9773,0.98039,-3.9409,0.99502,4.7619,-0.06349,15.365,0.0,6.8277,10.499,-4.613,13.793,-5.8974
9.3523,-0.8254,2.9773,0.0,-5.9113,0.70853,0.0,6.7314,-2.9773,0.0,-5.9113,-0.99502,2.8571,-3.873,12.508,-0.96154,6.8277,17.261999,-3.6651,11.823,-7.8205
9.3523,-0.8254,5.89,1.9608,-1.9704,3.6071,-0.97087,8.6731,-0.06472,1.9608,-1.9704,1.99,2.8571,-3.873,11.556,-1.9231,6.8277,9.533,-2.7172,6.8966,-8.7821
4.613,0.12698,6.8608,1.9608,4.9261,5.5395,1.9417,7.7023,4.7896,1.9608,4.9261,5.9701,2.8571,-3.873,7.746,-3.8462,4.8953,6.6345,-0.82148,3.9409,-9.7436
-2.97,0.12698,2.0065,2.9412,6.8966,2.6409,5.8252,2.8479,6.7314,2.9412,6.8966,4.9751,-1.9048,-6.7302,0.12698,-6.7308,0.06441,-6.8921,2.97,-1.9704,-11.667
-6.7615,2.9841,0.06472,5.8824,9.8522,3.6071,10.68,0.90615,10.615,5.8824,9.8522,5.9701,-3.8095,-6.7302,-5.5873,-3.8462,-2.8341,-6.8921,8.6572,-6.8966,-5.8974
-11.501,7.746,0.06472,5.8824,9.8522,-0.25765,11.65,-1.0356,15.469,5.8824,9.8522,4.9751,-6.6667,-5.7778,-10.349,0.0,-2.8341,-9.7907,7.7093,-10.837,0.83333
-10.553,13.46,3.9482,4.902,9.8522,-3.1562,12.621,-5.89,18.382,4.902,9.8522,5.9701,-7.619,-3.873,-11.302,5.7692,-0.90177,0.83736,12.449,-14.778,6.6026
-10.553,11.556,4.9191,-0.98039,5.9113,-5.0886,8.7379,-10.744,14.498,-0.98039,5.9113,5.9701,-13.333,-6.7302,-14.159,4.8077,-3.8003,-12.689,11.501,-20.690001,5.641
-9.6051,7.746,2.0065,-3.9216,2.9557,-6.0548,4.8544,-10.744,6.7314,-3.9216,2.9557,2.9851,-17.143,-9.5873,-16.063,0.0,-7.6651,-25.25,7.7093,-21.674999,2.7564
-9.6051,2.0317,-3.8188,-2.9412,0.0,-5.0886,0.97087,-5.89,2.8479,-2.9412,0.0,-0.99502,-13.333,-8.6349,-14.159,-2.8846,-9.5974,-7.8583,2.0221,-13.793,-0.12821
-9.6051,-2.7302,-7.7023,-2.9412,-5.9113,-7.0209,-1.9417,-4.9191,0.90615,-2.9412,-5.9113,-5.9701,-9.5238,-6.7302,-11.302,-3.8462,-9.5974,-2.0612,0.12638,-4.9261,-1.0897
-6.7615,-2.7302,-6.7314,-4.902,-6.8966,-7.9871,-6.7961,-5.89,-1.0356,-4.902,-6.8966,-6.9652,-5.7143,-1.9683,-7.4921,-2.8846,-6.6989,-5.9259,1.0742,0.0,-0.12821
-0.12638,-1.7778,-2.8479,-4.902,-4.9261,-5.0886,-4.8544,-3.9482,0.90615,-4.902,-4.9261,-5.9701,-1.9048,-0.06349,-1.7778,-0.96154,-1.868,-3.9936,1.0742,2.9557,1.7949
7.4566,-1.7778,2.0065,0.0,-0.98522,0.70853,-2.9126,-0.06472,-2.0065,0.0,-0.98522,-1.99,2.8571,0.88889,6.7937,0.0,2.963,9.533,-2.7172,6.8966,0.83333
7.4566,-3.6825,1.0356,-1.9608,-2.9557,0.70853,-5.8252,1.877,-3.9482,-1.9608,-2.9557,-2.9851,3.8095,0.88889,10.603,0.0,5.8615,7.6006,-6.5087,9.8522,-2.0513
9.3523,-1.7778,2.9773,1.9608,0.0,1.6747,-1.9417,4.7896,-2.9773,1.9608,0.0,0.0,7.619,2.7937,14.413,1.9231,10.692,11.465,-6.5087,11.823,-3.0128
10.3,1.0794,7.8317,4.902,0.98522,4.5733,0.97087,4.7896,-1.0356,4.902,0.98522,1.99,11.429,5.6508,18.222,4.8077,14.557,5.6683,-3.6651,13.793,-3.9744
14.092,6.7937,13.657,6.8627,3.9409,8.438,7.767,9.644,4.7896,6.8627,3.9409,6.9652,15.238,8.5079,22.032,8.6538,19.388,2.7697,2.97,15.764,-2.0513
13.144,8.6984,14.628,4.902,7.8818,8.438,8.7379,8.6731,7.7023,4.902,7.8818,9.9502,15.238,7.5556,20.127001,9.6154,19.388,8.5668,3.9179,14.778,-1.0897
9.3523,5.8413,11.715,3.9216,7.8818,7.4718,14.563,5.7605,4.7896,3.9216,7.8818,9.9502,12.381,4.6984,16.316999,7.6923,15.523,11.465,0.12638,11.823,3.7179
3.6651,-0.8254,3.9482,5.8824,3.9409,5.5395,6.7961,3.8188,5.7605,5.8824,3.9409,4.9751,7.619,0.88889,7.746,0.0,7.7939,8.5668,-3.6651,5.9113,-4.9359
-4.8657,-7.4921,-4.7896,5.8824,3.9409,-0.25765,-3.8835,7.7023,2.8479,5.8824,3.9409,-0.99502,1.9048,-1.9683,-1.7778,-6.7308,-0.90177,-2.0612,-3.6651,-1.9704,-10.705
-16.24,-11.302,-10.615,1.9608,4.9261,-5.0886,-4.8544,6.7314,4.7896,1.9608,4.9261,-4.9751,-2.8571,-4.8254,-12.254,-12.5,-9.5974,-14.622,-1.7694,-8.867,-11.667
-21.927,-10.349,-14.498,3.9216,7.8818,-7.0209,-0.97087,0.90615,8.6731,3.9216,7.8818,-3.9801,-6.6667,-7.6825,-19.872999,-15.385,-16.361,-12.689,2.97,-12.808,-8.7821
-29.51,-9.3968,-18.382,-1.9608,3.9409,-12.818,0.0,-6.8608,6.7314,-1.9608,3.9409,-7.9602,-13.333,-12.444,-27.492001,-18.268999,-25.056,-14.622,2.97,-19.704,-5.8974
-31.406,-6.5397,-19.353001,-7.8431,0.98522,-17.649,-2.9126,-14.628,4.7896,-7.8431,0.98522,-10.945,-20.0,-16.254,-31.302,-17.308001,-28.921,-17.52,4.8657,-20.690001,-2.0513
-23.823,-5.5873,-18.382,-13.725,-2.9557,-15.717,-4.8544,-15.599,2.8479,-13.725,-2.9557,-12.935,-23.809999,-18.159,-29.396999,-14.423,-27.955,-22.351,5.8136,-22.66,2.7564
-14.344,-4.6349,-12.557,-13.725,-6.8966,-9.9195,-6.7961,-14.628,3.8188,-13.725,-6.8966,-11.94,-21.905001,-14.349,-22.73,-9.6154,-23.124001,-25.25,6.7615,-21.674999,3.7179
-5.8136,-0.8254,-4.7896,-5.8824,-3.9409,-5.0886,0.0,-9.7735,4.7896,-5.8824,-3.9409,-3.9801,-13.333,-6.7302,-11.302,-1.9231,-13.462,-3.0274,7.7093,-10.837,6.6026
2.7172,2.0317,1.0356,2.9412,-0.98522,1.6747,-0.97087,-2.0065,2.8479,2.9412,-0.98522,1.99,-7.619,-1.9683,-2.7302,2.8846,-5.7327,6.6345,3.9179,-0.98522,9.4872
9.3523,2.9841,3.9482,3.9216,0.0,6.5056,-2.9126,3.8188,-2.0065,3.9216,0.0,1.99,-1.9048,2.7937,3.9365,5.7692,1.0306,-0.12882,0.12638,3.9409,12.372
13.144,-0.8254,4.9191,0.0,-1.9704,5.5395,-4.8544,5.7605,-5.89,0.0,-1.9704,-0.99502,1.9048,6.6032,7.746,6.7308,4.8953,-12.689,-4.613,5.9113,8.5256
13.144,-1.7778,6.8608,0.0,0.98522,6.5056,-6.7961,6.7314,-7.8317,0.0,0.98522,0.99502,4.7619,8.5079,10.603,5.7692,7.7939,4.7021,-12.196,8.867,3.7179
16.934999,1.0794,10.744,7.8431,0.98522,11.337,-0.97087,9.644,-9.7735,7.8431,0.98522,6.9652,7.619,11.365,15.365,8.6538,12.625,27.889999,-14.092,12.808,4.6795
22.622,3.9365,16.57,11.765,0.98522,20.032,6.7961,14.498,-10.744,11.765,0.98522,13.93,11.429,13.27,22.032,11.538,17.455999,30.789,-11.248,15.764,4.6795
25.466,2.0317,16.57,9.8039,0.98522,22.931,4.8544,19.353001,-10.744,9.8039,0.98522,14.925,12.381,12.317,22.983999,8.6538,16.49,15.33,-12.196,16.749001,0.83333
21.674999,-1.7778,11.715,14.706,3.9409,22.931,8.7379,22.264999,-11.715,14.706,3.9409,13.93,11.429,8.5079,19.174999,2.8846,11.659,8.5668,-11.248,14.778,-3.9744
15.039,-3.6825,5.89,16.667,8.867,19.066,4.8544,20.323999,-6.8608,16.667,8.867,11.94,8.5714,4.6984,13.46,-1.9231,5.8615,2.7697,-8.4044,12.808,-6.859
4.613,-5.5873,-0.90615,14.706,9.8522,6.5056,0.97087,12.557,-5.89,14.706,9.8522,3.9801,2.8571,-1.9683,5.8413,-5.7692,0.06441,-2.0612,-6.5087,2.9557,-7.8205
0.82148,-0.8254,-0.90615,14.706,10.837,2.6409,0.97087,7.7023,-1.0356,14.706,10.837,2.9851,0.0,-2.9206,2.0317,-2.8846,-0.90177,3.7359,-5.5608,-1.9704,-5.8974
-2.97,3.9365,0.06472,10.784,13.793,2.6409,1.9417,5.7605,6.7314,10.784,13.793,4.9751,-1.9048,-2.9206,-1.7778,-0.96154,-0.90177,-1.095,2.0221,-4.9261,-1.0897
-15.292,2.9841,-5.7605,3.9216,7.8818,-6.0548,1.9417,-3.9482,4.7896,3.9216,7.8818,-0.99502,-5.7143,-4.8254,-11.302,-0.96154,-6.6989,-8.8245,7.7093,-9.8522,2.7564
-20.979,1.0794,-10.615,-0.98039,2.9557,-12.818,-1.9417,-8.8026,2.8479,-0.98039,2.9557,-6.9652,-4.7619,-1.9683,-16.063,0.0,-8.6312,-7.8583,9.6051,-9.8522,4.6795
-20.032,-0.8254,-13.528,-4.902,-0.98522,-16.683001,-8.7379,-8.8026,-1.0356,-4.902,-0.98522,-11.94,-2.8571,2.7937,-17.016001,1.9231,-8.6312,-3.9936,6.7615,-7.8818,8.5256
-19.084,-3.6825,-15.469,-1.9608,-3.9409,-16.683001,-12.621,-9.7735,-4.9191,-1.9608,-3.9409,-13.93,-1.9048,5.6508,-17.016001,1.9231,-9.5974,-2.0612,1.0742,-4.9261,11.41
-12.449,-4.6349,-12.557,1.9608,-4.9261,-9.9195,-10.68,-4.9191,-5.89,1.9608,-4.9261,-10.945,-1.9048,6.6032,-14.159,2.8846,-7.6651,-14.622,2.97,-6.8966,11.41
-3.9179,-3.6825,-8.6731,1.9608,-6.8966,-2.19,-9.7087,0.90615,-7.8317,1.9608,-6.8966,-7.9602,0.0,8.5079,-8.4444,4.8077,-3.8003,-12.689,1.0742,-5.9113,11.41
6.5087,-0.8254,-0.90615,-1.9608,-7.8818,7.4718,-2.9126,4.7896,-10.744,-1.9608,-7.8818,0.0,6.6667,12.317,2.0317,8.6538,3.9291,4.7021,-0.82148,3.9409,12.372
15.039,5.8413,7.8317,1.9608,-5.9113,12.303,2.9126,9.644,-8.8026,1.9608,-5.9113,6.9652,13.333,18.032,13.46,17.308001,13.591,18.229,1.0742,10.837,18.141001
18.830999,8.6984,13.657,11.765,0.0,14.235,3.8835,11.586,-5.89,11.765,0.0,11.94,18.094999,19.937,21.079,19.231001,20.354,17.261999,-2.7172,15.764,13.333
17.882999,8.6984,16.57,9.8039,2.9557,14.235,0.0,9.644,-4.9191,9.8039,2.9557,12.935,20.0,18.983999,22.983999,17.308001,23.253,12.432,-8.4044,16.749001,4.6795
17.882999,10.603,20.452999,10.784,7.8818,13.269,5.8252,5.7605,-1.0356,10.784,7.8818,15.92,21.905001,18.983999,24.889,18.268999,26.150999,10.499,-7.4566,15.764,3.7179
14.092,7.746,17.540001,9.8039,6.8966,13.269,6.7961,3.8188,-0.06472,9.8039,6.8966,13.93,19.048,16.127001,21.079,14.423,22.287001,2.7697,-4.613,12.808,3.7179
12.196,2.0317,12.686,10.784,8.867,16.167,6.7961,4.7896,0.90615,10.784,8.867,12.935,15.238,11.365,16.316999,8.6538,17.455999,-10.757,-6.5087,7.8818,0.83333
7.4566,-1.7778,6.8608,12.745,9.8522,10.37,11.65,4.7896,4.7896,12.745,9.8522,10.945,11.429,5.6508,10.603,1.9231,9.7262,-3.9936,-3.6651,2.9557,-3.9744
-0.12638,-7.4921,0.06472,9.8039,9.8522,0.70853,8.7379,-0.06472,5.7605,9.8039,9.8522,5.9701,2.8571,-1.9683,1.0794,-7.6923,0.06441,-13.655,-0.82148,-1.9704,-9.7436
-6.7615,-6.5397,-3.8188,4.902,11.823,-2.19,5.8252,-4.9191,10.615,4.902,11.823,2.9851,-4.7619,-8.6349,-7.4921,-14.423,-8.6312,-9.7907,1.0742,-8.867,-12.628
-10.553,-2.7302,-3.8188,1.9608,14.778,-3.1562,9.7087,-5.89,17.410999,1.9608,14.778,3.9801,-9.5238,-12.444,-14.159,-17.308001,-14.428,-8.8245,5.8136,-12.808,-13.59
-15.292,-0.8254,-5.7605,-0.98039,16.749001,-7.0209,12.621,-10.744,20.323999,-0.98039,16.749001,2.9851,-14.286,-16.254,-19.872999,-18.268999,-18.292999,-25.25,7.7093,-17.733999,-12.628
-15.292,1.0794,-5.7605,-4.902,14.778,-8.9533,11.65,-14.628,21.294001,-4.902,14.778,0.99502,-13.333,-16.254,-18.921,-15.385,-17.327,-12.689,13.397,-15.764,-10.705
-14.344,2.9841,-4.7896,-5.8824,9.8522,-9.9195,6.7961,-16.57,16.440001,-5.8824,9.8522,-0.99502,-8.5714,-9.5873,-13.206,-8.6538,-11.53,-5.9259,13.397,-8.867,-3.0128
-12.449,3.9365,-4.7896,-11.765,2.9557,-12.818,0.97087,-18.511,11.586,-11.765,2.9557,-5.9701,-3.8095,-1.9683,-8.4444,-0.96154,-5.7327,-20.419001,8.6572,-8.867,4.6795
-9.6051,8.6984,-0.90615,-16.667,-3.9409,-14.75,3.8835,-18.511,7.7023,-16.667,-3.9409,-6.9652,1.9048,5.6508,-2.7302,7.6923,1.9968,-11.723,13.397,-5.9113,11.41
-9.6051,11.556,2.9773,-18.627001,-6.8966,-17.649,2.9126,-20.452999,5.7605,-18.627001,-6.8966,-7.9602,7.619,11.365,2.0317,14.423,9.7262,-9.7907,14.344,-0.98522,15.256
-5.8136,14.413,6.8608,-18.627001,-6.8966,-13.784,-1.9417,-22.395,2.8479,-18.627001,-6.8966,-7.9602,12.381,16.127001,6.7937,21.153999,17.455999,-18.486,12.449,0.98522,19.103001
0.82148,16.316999,12.686,-15.686,-4.9261,-7.9871,-0.97087,-18.511,0.90615,-15.686,-4.9261,-4.9751,17.143,20.889,13.46,25.962,24.219,-12.689,10.553,6.8966,23.91
10.3,19.174999,19.482,-10.784,-4.9261,-0.25765,6.7961,-14.628,-1.0356,-10.784,-4.9261,1.99,24.761999,26.603001,22.983999,29.808001,30.982,2.7697,7.7093,15.764,22.948999
18.830999,19.174999,23.365999,1.9608,-0.98522,9.4042,9.7087,-0.06472,-2.9773,1.9608,-0.98522,9.9502,28.570999,27.556,27.746,29.808001,33.881001,-7.8583,3.9179,20.690001,20.063999
17.882999,12.508,17.540001,8.8235,0.98522,10.37,7.767,5.7605,-8.8026,8.8235,0.98522,8.9552,24.761999,22.794001,22.983999,23.077,28.084,-8.8245,-0.82148,17.733999,15.256
11.248,6.7937,10.744,5.8824,2.9557,8.438,4.8544,1.877,-8.8026,5.8824,2.9557,3.9801,21.905001,19.937,18.222,18.268999,21.32,12.432,-1.7694,16.749001,13.333
8.4044,3.9365,6.8608,7.8431,5.9113,7.4718,0.0,0.90615,-6.8608,7.8431,5.9113,0.99502,19.048,18.032,14.413,15.385,17.455999,20.160999,-1.7694,14.778,11.41
11.248,5.8413,8.8026,12.745,8.867,6.5056,1.9417,5.7605,-3.9482,12.745,8.867,4.9751,20.0,19.937,16.316999,16.346001,17.455999,14.364,2.97,17.733999,14.295
14.092,5.8413,8.8026,16.667,11.823,8.438,5.8252,10.615,-1.0356,16.667,11.823,9.9502,18.094999,18.032,15.365,14.423,15.523,13.398,3.9179,18.719,12.372
12.196,2.0317,4.9191,14.706,9.8522,11.337,5.8252,11.586,-1.0356,14.706,9.8522,8.9552,14.286,14.222,10.603,7.6923,9.7262,-0.12882,0.12638,12.808,5.641
8.4044,-3.6825,1.0356,13.725,7.8818,13.269,0.97087,13.528,-2.0065,13.725,7.8818,7.9602,9.5238,9.4603,5.8413,1.9231,2.963,6.6345,0.12638,7.8818,2.7564
6.5087,-1.7778,1.0356,15.686,7.8818,12.303,0.97087,14.498,-2.0065,15.686,7.8818,7.9602,6.6667,7.5556,3.9365,1.9231,1.0306,0.83736,0.12638,7.8818,4.6795
8.4044,3.9365,3.9482,13.725,5.9113,11.337,6.7961,14.498,-2.0065,13.725,5.9113,8.9552,9.5238,9.4603,5.8413,4.8077,3.9291,13.398,0.12638,10.837,4.6795
9.3523,7.746,6.8608,9.8039,9.8522,10.37,6.7961,12.557,0.90615,9.8039,9.8522,7.9602,12.381,9.4603,8.6984,6.7308,5.8615,25.958,0.12638,14.778,7.5641
6.5087,6.7937,3.9482,6.8627,9.8522,5.5395,4.8544,9.644,2.8479,6.8627,9.8522,4.9751,11.429,9.4603,6.7937,4.8077,4.8953,15.33,-1.7694,8.867,1.7949
5.5608,5.8413,2.9773,11.765,9.8522,4.5733,5.8252,11.586,2.8479,11.765,9.8522,5.9701,10.476,6.6032,5.8413,2.8846,2.963,14.364,1.0742,7.8818,-3.0128
7.4566,5.8413,3.9482,13.725,7.8818,9.4042,6.7961,10.615,1.877,13.725,7.8818,8.9552,7.619,2.7937,4.8889,2.8846,1.9968,-7.8583,5.8136,8.867,-0.12821
8.4044,7.746,4.9191,12.745,7.8818,8.438,9.7087,8.6731,-0.06472,12.745,7.8818,10.945,5.7143,2.7937,3.9365,3.8462,1.0306,4.7021,4.8657,9.8522,1.7949
5.5608,8.6984,3.9482,11.765,5.9113,5.5395,6.7961,7.7023,1.877,11.765,5.9113,10.945,3.8095,1.8413,2.9841,3.8462,0.06441,18.229,3.9179,6.8966,2.7564
1.7694,6.7937,1.0356,7.8431,4.9261,1.6747,5.8252,4.7896,1.877,7.8431,4.9261,5.9701,-0.95238,-2.9206,0.12698,0.96154,-3.8003,7.6006,1.0742,2.9557,0.83333
1.7694,4.8889,-0.90615,4.902,2.9557,-1.2238,4.8544,2.8479,-1.0356,4.902,2.9557,2.9851,-5.7143,-7.6825,-1.7778,-1.9231,-6.6989,-4.9597,2.97,1.9704,-1.0897
4.613,3.9365,0.06472,1.9608,1.9704,-0.25765,4.8544,5.7605,-2.0065,1.9608,1.9704,2.9851,-5.7143,-8.6349,1.0794,-0.96154,-4.7665,10.499,5.8136,3.9409,0.83333
2.7172,-0.8254,-2.8479,-0.98039,-3.9409,-2.19,0.0,6.7314,-6.8608,-0.98039,-3.9409,0.0,-9.5238,-10.54,1.0794,-4.8077,-6.6989,21.127001,-4.613,1.9704,-4.9359
3.6651,-3.6825,-2.8479,0.0,-4.9261,1.6747,0.0,7.7023,-8.8026,0.0,-4.9261,-0.99502,-10.476,-11.492,0.12698,-7.6923,-7.6651,16.296,-11.248,0.0,-7.8205
2.7172,-5.5873,-4.7896,-0.98039,-3.9409,-2.19,-1.9417,6.7314,-7.8317,-0.98039,-3.9409,-2.9851,-12.381,-12.444,-2.7302,-9.6154,-8.6312,5.6683,-5.5608,-3.9409,-8.7821
-1.0742,-8.4444,-7.7023,0.0,-3.9409,-4.1224,-5.8252,5.7605,-6.8608,0.0,-3.9409,-5.9701,-14.286,-13.397,-7.4921,-11.538,-10.564,-17.52,-2.7172,-8.867,-8.7821
-0.12638,-7.4921,-5.7605,0.0,-1.9704,-2.19,-4.8544,5.7605,-1.0356,0.0,-1.9704,-5.9701,-13.333,-13.397,-6.5397,-11.538,-9.5974,-4.9597,-1.7694,-5.9113,-8.7821
-1.0742,-5.5873,-3.8188,-0.98039,-0.98522,-0.25765,-0.97087,7.7023,-1.0356,-0.98039,-0.98522,-1.99,-14.286,-13.397,-6.5397,-12.5,-8.6312,18.229,-4.613,-9.8522,-14.551
-2.97,-2.7302,-0.90615,5.8824,3.9409,3.6071,3.8835,10.615,5.7605,5.8824,3.9409,3.9801,-16.190001,-15.302,-9.3968,-12.5,-8.6312,12.432,-0.82148,-15.764,-17.436001
-3.9179,-3.6825,-1.877,7.8431,6.8966,4.5733,3.8835,11.586,10.615,7.8431,6.8966,3.9801,-20.0,-19.111,-13.206,-14.423,-11.53,-3.9936,-1.7694,-19.704,-19.358999
-5.8136,-5.5873,-4.7896,4.902,6.8966,0.70853,0.97087,8.6731,9.644,4.902,6.8966,-0.99502,-20.0,-19.111,-15.111,-14.423,-13.462,-7.8583,-0.82148,-19.704,-15.513
-8.6572,-6.5397,-6.7314,1.9608,0.98522,-4.1224,-2.9126,3.8188,6.7314,1.9608,0.98522,-5.9701,-19.048,-18.159,-14.159,-13.462,-14.428,-4.9597,1.0742,-17.733999,-13.59
-6.7615,-4.6349,-4.7896,0.0,0.98522,-4.1224,-1.9417,-1.0356,4.7896,0.0,0.98522,-4.9751,-13.333,-12.444,-10.349,-9.6154,-10.564,-11.723,-0.82148,-10.837,-9.7436
-4.8657,-1.7778,-1.877,-1.9608,2.9557,-3.1562,0.97087,-2.9773,5.7605,-1.9608,2.9557,0.0,-5.7143,-4.8254,-6.5397,-3.8462,-5.7327,-11.723,1.0742,-8.867,-3.0128
-6.7615,-2.7302,-2.8479,-3.9216,0.98522,-5.0886,1.9417,-5.89,0.90615,-3.9216,0.98522,-0.99502,-1.9048,-1.0159,-6.5397,-1.9231,-3.8003,-3.0274,-1.7694,-6.8966,-2.0513
-7.7093,-1.7778,-2.8479,-5.8824,-4.9261,-7.0209,0.0,-6.8608,-3.9482,-5.8824,-4.9261,-2.9851,0.95238,1.8413,-6.5397,0.0,-1.868,-7.8583,0.12638,-5.9113,1.7949
-5.8136,1.0794,-0.90615,-4.902,-6.8966,-4.1224,0.0,-6.8608,-3.9482,-4.902,-6.8966,-0.99502,3.8095,5.6508,-5.5873,2.8846,0.06441,-14.622,-1.7694,-3.9409,6.6026
-5.8136,2.9841,-0.90615,-5.8824,-7.8818,-3.1562,-5.8252,-4.9191,-3.9482,-5.8824,-7.8818,-1.99,5.7143,8.5079,-3.6825,5.7692,1.9968,-7.8583,-2.7172,-1.9704,7.5641
-3.9179,2.0317,-0.90615,-8.8235,-9.8522,-6.0548,-6.7961,-5.89,-6.8608,-8.8235,-9.8522,-2.9851,7.619,9.4603,-1.7778,6.7308,3.9291,-3.0274,2.0221,-0.98522,8.5256
-2.0221,-0.8254,-0.90615,-8.8235,-12.808,-7.0209,-5.8252,-5.89,-7.8317,-8.8235,-12.808,-4.9751,10.476,11.365,1.0794,6.7308,5.8615,-14.622,3.9179,0.98522,10.449
-2.0221,-1.7778,-0.90615,-7.8431,-10.837,-7.0209,-6.7961,-3.9482,-4.9191,-7.8431,-10.837,-5.9701,11.429,13.27,2.0317,8.6538,6.8277,-9.7907,3.9179,2.9557,13.333
-2.0221,0.12698,1.0356,-9.8039,-8.867,-5.0886,-4.8544,-2.0065,-3.9482,-9.8039,-8.867,-3.9801,10.476,11.365,2.9841,7.6923,7.7939,2.7697,2.97,2.9557,9.4872
-1.0742,2.0317,2.0065,-5.8824,-7.8818,-0.25765,-2.9126,2.8479,-2.9773,-5.8824,-7.8818,-1.99,8.5714,9.4603,2.9841,6.7308,6.8277,6.6345,2.0221,1.9704,6.6026
1.7694,1.0794,1.0356,-1.9608,-8.867,3.6071,-1.9417,6.7314,-1.0356,-1.9608,-8.867,-1.99,7.619,8.5079,3.9365,6.7308,5.8615,6.6345,-1.7694,2.9557,5.641
4.613,-2.7302,0.06472,1.9608,-6.8966,4.5733,-6.7961,10.615,-0.06472,1.9608,-6.8966,-1.99,5.7143,6.6032,4.8889,5.7692,5.8615,-16.554001,-7.4566,4.9261,3.7179
4.613,-7.4921,-1.877,-0.98039,-7.8818,3.6071,-11.65,9.644,-5.89,-0.98039,-7.8818,-4.9751,1.9048,1.8413,3.9365,1.9231,1.9968,-1.095,-8.4044,4.9261,4.6795
1.7694,-8.4444,-4.7896,-4.902,-11.823,-0.25765,-13.592,5.7605,-7.8317,-4.902,-11.823,-9.9502,-2.8571,-2.9206,1.0794,-1.9231,-1.868,25.958,0.12638,1.9704,0.83333
0.82148,-8.4444,-7.7023,-5.8824,-12.808,-2.19,-10.68,3.8188,-2.9773,-5.8824,-12.808,-10.945,-8.5714,-8.6349,-0.8254,-6.7308,-5.7327,18.229,0.12638,-2.9557,-5.8974
-0.12638,-7.4921,-8.6731,-7.8431,-14.778,-4.1224,-7.767,1.877,-0.06472,-7.8431,-14.778,-11.94,-12.381,-12.444,-2.7302,-8.6538,-8.6312,7.6006,-0.82148,-5.9113,-9.7436
3.6651,-2.7302,-4.7896,-5.8824,-8.867,-2.19,-4.8544,3.8188,-0.06472,-5.8824,-8.867,-7.9602,-10.476,-10.54,0.12698,-4.8077,-4.7665,14.364,7.7093,-2.9557,-3.9744
1.7694,-2.7302,-3.8188,-4.902,-2.9557,-3.1562,-2.9126,3.8188,5.7605,-4.902,-2.9557,-5.9701,-10.476,-11.492,-0.8254,-5.7692,-5.7327,-3.0274,5.8136,-3.9409,-4.9359
0.82148,-1.7778,-1.877,0.0,1.9704,-0.25765,0.0,1.877,10.615,0.0,1.9704,-2.9851,-8.5714,-8.6349,-0.8254,-5.7692,-4.7665,-2.0612,-0.82148,-3.9409,-5.8974
3.6651,-0.8254,0.06472,1.9608,0.98522,1.6747,-3.8835,2.8479,10.615,1.9608,0.98522,-2.9851,-3.8095,-4.8254,3.9365,-1.9231,0.06441,4.7021,2.0221,0.98522,-4.9359
4.613,-0.8254,-1.877,-6.8627,-1.9704,-2.19,-5.8252,0.90615,5.7605,-6.8627,-1.9704,-6.9652,-3.8095,-6.7302,5.8413,-1.9231,0.06441,19.195,4.8657,6.8966,-1.0897
-1.0742,-3.6825,-5.7605,-11.765,-5.9113,-7.0209,-8.7379,-2.9773,2.8479,-11.765,-5.9113,-12.935,-8.5714,-9.5873,0.12698,-6.7308,-3.8003,2.7697,2.97,-0.98522,-6.859
-6.7615,-4.6349,-7.7023,-13.725,-5.9113,-12.818,-8.7379,-4.9191,2.8479,-13.725,-5.9113,-14.925,-9.5238,-11.492,-3.6825,-9.6154,-7.6651,-3.0274,5.8136,-4.9261,-10.705
-6.7615,-6.5397,-9.644,-13.725,-5.9113,-14.75,-9.7087,-10.744,0.90615,-13.725,-5.9113,-14.925,-10.476,-13.397,-5.5873,-12.5,-10.564,13.398,-4.613,-3.9409,-11.667
-3.9179,-8.4444,-8.6731,-8.8235,-0.98522,-9.9195,-6.7961,-4.9191,2.8479,-8.8235,-0.98522,-8.9552,-7.619,-10.54,-4.6349,-11.538,-10.564,17.261999,-4.613,0.0,-8.7821
-4.8657,-9.3968,-8.6731,-3.9216,-3.9409,-7.0209,-6.7961,-0.06472,2.8479,-3.9216,-3.9409,-4.9751,-8.5714,-10.54,-8.4444,-12.5,-11.53,16.296,-1.7694,0.98522,-4.9359
-8.6572,-14.159,-11.586,-0.98039,-1.9704,-6.0548,-8.7379,0.90615,-1.0356,-0.98039,-1.9704,-6.9652,-12.381,-13.397,-14.159,-15.385,-16.361,2.7697,-9.3523,-4.9261,-9.7436
-7.7093,-15.111,-12.557,-0.98039,2.9557,-5.0886,-4.8544,-1.0356,-1.0356,-0.98039,2.9557,-6.9652,-11.429,-13.397,-14.159,-15.385,-17.327,1.8035,-1.7694,-2.9557,-8.7821
-7.7093,-16.063,-15.469,-5.8824,-1.9704,-8.9533,-9.7087,-5.89,-0.06472,-5.8824,-1.9704,-9.9502,-13.333,-15.302,-14.159,-17.308001,-19.259001,-0.12882,-1.7694,-2.9557,-8.7821
-6.7615,-15.111,-13.528,-4.902,-4.9261,-9.9195,-13.592,-7.8317,-2.0065,-4.902,-4.9261,-9.9502,-14.286,-16.254,-14.159,-19.231001,-20.225,-3.0274,-8.4044,-4.9261,-13.59
-7.7093,-14.159,-10.615,-4.902,-6.8966,-7.0209,-11.65,-2.0065,-4.9191,-4.902,-6.8966,-6.9652,-17.143,-19.111,-14.159,-21.153999,-20.225,-7.8583,-16.934999,-5.9113,-20.320999
-5.8136,-11.302,-5.7605,-5.8824,-2.9557,-3.1562,-7.767,-0.06472,-2.9773,-5.8824,-2.9557,-1.99,-17.143,-19.111,-14.159,-19.231001,-19.259001,7.6006,-10.3,-7.8818,-14.551
-8.6572,-8.4444,-5.7605,-8.8235,-3.9409,-6.0548,-5.8252,-5.89,-1.0356,-8.8235,-3.9409,-1.99,-17.143,-17.205999,-17.016001,-17.308001,-19.259001,-4.9597,-0.82148,-9.8522,-9.7436
-7.7093,-6.5397,-5.7605,-7.8431,-4.9261,-8.9533,-4.8544,-9.7735,-0.06472,-7.8431,-4.9261,-2.9851,-15.238,-14.349,-14.159,-14.423,-16.361,-5.9259,4.8657,-8.867,-9.7436
-5.8136,-4.6349,-5.7605,-8.8235,-7.8818,-9.9195,-5.8252,-10.744,0.90615,-8.8235,-7.8818,-5.9701,-12.381,-11.492,-10.349,-11.538,-13.462,2.7697,2.0221,-7.8818,-6.859
-7.7093,-5.5873,-6.7314,-12.745,-8.867,-9.9195,-6.7961,-10.744,-2.0065,-12.745,-8.867,-5.9701,-12.381,-10.54,-12.254,-11.538,-13.462,-2.0612,-1.7694,-6.8966,-4.9359
-9.6051,-3.6825,-5.7605,-12.745,-6.8966,-7.9871,-2.9126,-8.8026,0.90615,-12.745,-6.8966,-2.9851,-11.429,-8.6349,-15.111,-9.6154,-13.462,-3.9936,2.0221,-10.837,-3.0128
-15.292,-5.5873,-7.7023,-6.8627,-3.9409,-7.9871,0.0,-10.744,0.90615,-6.8627,-3.9409,-1.99,-12.381,-11.492,-18.921,-10.577,-15.395,-5.9259,1.0742,-15.764,-3.9744
-16.24,-8.4444,-8.6731,-3.9216,-4.9261,-7.9871,-1.9417,-9.7735,-2.0065,-3.9216,-4.9261,-3.9801,-13.333,-12.444,-18.921,-13.462,-15.395,-7.8583,-0.82148,-15.764,-5.8974
-16.24,-12.254,-10.615,-3.9216,-5.9113,-7.9871,-7.767,-10.744,-3.9482,-3.9216,-5.9113,-5.9701,-14.286,-12.444,-18.921,-15.385,-16.361,-16.554001,-0.82148,-14.778,-10.705
-13.397,-13.206,-10.615,-2.9412,-3.9409,-7.9871,-7.767,-7.8317,-3.9482,-2.9412,-3.9409,-5.9701,-12.381,-12.444,-15.111,-15.385,-15.395,-7.8583,-7.4566,-11.823,-9.7436
-5.8136,-10.349,-5.7605,-0.98039,-3.9409,-4.1224,-3.8835,-1.0356,-4.9191,-0.98039,-3.9409,-3.9801,-8.5714,-9.5873,-8.4444,-11.538,-10.564,-2.0612,-8.4044,-4.9261,-6.859
-2.97,-8.4444,-2.8479,1.9608,-2.9557,-3.1562,-5.8252,-0.06472,-6.8608,1.9608,-2.9557,-1.99,-3.8095,-6.7302,-3.6825,-7.6923,-5.7327,9.533,-15.039,1.9704,-9.7436
-2.0221,-1.7778,2.0065,2.9412,-2.9557,-1.2238,3.8835,-1.0356,-5.89,2.9412,-2.9557,1.99,-0.95238,-1.9683,0.12698,0.0,1.0306,-5.9259,-9.3523,3.9409,-3.0128
-0.12638,-0.8254,1.0356,0.98039,-3.9409,0.70853,1.9417,-2.0065,-3.9482,0.98039,-3.9409,0.99502,-0.95238,-0.06349,1.0794,1.9231,2.963,-9.7907,-4.613,0.0,-1.0897
-0.12638,-2.7302,1.0356,0.0,-4.9261,-0.25765,-5.8252,-1.0356,-3.9482,0.0,-4.9261,-0.99502,0.0,-0.06349,2.0317,0.0,2.963,7.6006,-6.5087,-2.9557,-3.9744
0.82148,-1.7778,3.9482,1.9608,0.0,0.70853,-1.9417,-1.0356,-4.9191,1.9608,0.0,0.99502,3.8095,2.7937,3.9365,2.8846,5.8615,5.6683,0.12638,-1.9704,-0.12821
-1.0742,-0.8254,2.9773,-1.9608,0.0,-0.25765,-1.9417,-3.9482,-2.9773,-1.9608,0.0,0.0,3.8095,3.746,2.0317,3.8462,3.9291,-12.689,1.0742,0.0,4.6795
0.82148,2.0317,2.0065,-5.8824,-1.9704,0.70853,2.9126,-4.9191,-2.9773,-5.8824,-1.9704,0.99502,4.7619,3.746,0.12698,2.8846,2.963,-25.25,-5.5608,0.98522,1.7949
-2.0221,3.9365,1.0356,-5.8824,-2.9557,-0.25765,3.8835,-6.8608,-3.9482,-5.8824,-2.9557,0.99502,4.7619,4.6984,-1.7778,3.8462,1.9968,-6.8921,-9.3523,-3.9409,-2.0513
-4.8657,5.8413,0.06472,-6.8627,-2.9557,-3.1562,4.8544,-8.8026,-1.0356,-6.8627,-2.9557,0.99502,5.7143,7.5556,-1.7778,7.6923,1.9968,9.533,-4.613,-3.9409,2.7564
-2.97,5.8413,0.06472,-2.9412,-0.98522,-2.19,0.0,-5.89,1.877,-2.9412,-0.98522,1.99,6.6667,8.5079,0.12698,9.6154,3.9291,4.7021,4.8657,0.98522,6.6026
-4.8657,2.0317,0.06472,-2.9412,1.9704,-4.1224,1.9417,-6.8608,-0.06472,-2.9412,1.9704,1.99,5.7143,6.6032,1.0794,6.7308,1.9968,5.6683,5.8136,1.9704,6.6026
-4.8657,-1.7778,-2.8479,-6.8627,-4.9261,-3.1562,0.97087,-5.89,-2.0065,-6.8627,-4.9261,0.0,3.8095,2.7937,0.12698,0.96154,-0.90177,0.83736,2.0221,2.9557,1.7949
2.7172,-1.7778,-0.90615,-0.98039,-0.98522,0.70853,1.9417,-0.06472,-0.06472,-0.98039,-0.98522,2.9851,6.6667,3.746,3.9365,0.0,1.0306,-0.12882,-2.7172,8.867,1.7949
7.4566,1.0794,2.9773,1.9608,1.9704,7.4718,3.8835,2.8479,0.90615,1.9608,1.9704,6.9652,8.5714,4.6984,6.7937,0.96154,3.9291,-4.9597,-0.82148,9.8522,-0.12821
7.4566,-2.7302,1.0356,5.8824,0.0,9.4042,0.97087,9.644,-3.9482,5.8824,0.0,7.9602,6.6667,2.7937,5.8413,-1.9231,1.9968,-0.12882,-7.4566,6.8966,-3.9744
3.6651,-6.5397,-1.877,5.8824,-0.98522,6.5056,-2.9126,11.586,-6.8608,5.8824,-0.98522,2.9851,4.7619,-0.06349,3.9365,-3.8462,1.0306,9.533,-9.3523,6.8966,-4.9359
2.7172,-5.5873,-2.8479,1.9608,-3.9409,1.6747,-5.8252,5.7605,-6.8608,1.9608,-3.9409,-1.99,6.6667,1.8413,4.8889,-1.9231,2.963,-3.0274,-6.5087,8.867,-3.0128
5.5608,-0.8254,1.0356,-1.9608,-5.9113,0.70853,-1.9417,3.8188,-5.89,-1.9608,-5.9113,-1.99,9.5238,5.6508,7.746,2.8846,6.8277,-10.757,-3.6651,8.867,0.83333
7.4566,2.0317,3.9482,-5.8824,-5.9113,4.5733,-0.97087,1.877,-3.9482,-5.8824,-5.9113,0.99502,10.476,7.5556,8.6984,4.8077,7.7939,-4.9597,2.97,8.867,3.7179
5.5608,1.0794,3.9482,-3.9216,-4.9261,7.4718,3.8835,3.8188,-5.89,-3.9216,-4.9261,2.9851,8.5714,4.6984,5.8413,2.8846,5.8615,1.8035,7.7093,7.8818,3.7179
0.82148,0.12698,3.9482,-2.9412,-4.9261,2.6409,3.8835,0.90615,-3.9482,-2.9412,-4.9261,2.9851,8.5714,4.6984,3.9365,2.8846,4.8953,8.5668,1.0742,6.8966,1.7949
-0.12638,0.12698,2.0065,-1.9608,-3.9409,-1.2238,0.0,-1.0356,-2.9773,-1.9608,-3.9409,0.99502,8.5714,5.6508,2.0317,3.8462,3.9291,7.6006,0.12638,4.9261,5.641
-1.0742,-1.7778,-1.877,-6.8627,-5.9113,-0.25765,-5.8252,1.877,-4.9191,-6.8627,-5.9113,-0.99502,4.7619,3.746,0.12698,2.8846,1.0306,-1.095,-4.613,2.9557,4.6795
0.82148,0.12698,-1.877,-3.9216,-6.8966,-1.2238,-4.8544,0.90615,-4.9191,-3.9216,-6.8966,-0.99502,3.8095,3.746,0.12698,3.8462,1.0306,-3.9936,-3.6651,2.9557,3.7179
-0.12638,2.0317,0.06472,-7.8431,-8.867,-4.1224,-3.8835,-5.89,-5.89,-7.8431,-8.867,-1.99,4.7619,4.6984,2.9841,6.7308,2.963,-11.723,6.7615,3.9409,4.6795
1.7694,5.8413,4.9191,-7.8431,-5.9113,-3.1562,0.97087,-3.9482,-2.9773,-7.8431,-5.9113,0.0,6.6667,7.5556,5.8413,9.6154,6.8277,1.8035,2.97,3.9409,5.641
2.7172,2.9841,2.9773,-5.8824,-6.8966,-3.1562,0.0,-1.0356,-3.9482,-5.8824,-6.8966,-0.99502,7.619,9.4603,6.7937,8.6538,6.8277,-1.095,1.0742,2.9557,5.641
0.82148,-1.7778,-1.877,-3.9216,-4.9261,-4.1224,-2.9126,-1.0356,-4.9191,-3.9216,-4.9261,-2.9851,4.7619,5.6508,1.0794,3.8462,1.9968,-2.0612,1.0742,0.98522,4.6795
-5.8136,-3.6825,-5.7605,-4.902,-5.9113,-3.1562,-2.9126,-4.9191,-2.0065,-4.902,-5.9113,-3.9801,1.9048,3.746,-5.5873,0.0,-2.8341,-3.0274,-2.7172,-2.9557,1.7949
-10.553,-2.7302,-6.7314,-8.8235,-5.9113,-6.0548,-1.9417,-6.8608,-1.0356,-8.8235,-5.9113,-3.9801,-0.95238,1.8413,-9.3968,-1.9231,-5.7327,-0.12882,-4.613,-6.8966,0.83333
-8.6572,-1.7778,-5.7605,-6.8627,-4.9261,-7.9871,-2.9126,-3.9482,-2.0065,-6.8627,-4.9261,-4.9751,-1.9048,1.8413,-9.3968,-1.9231,-5.7327,-7.8583,-2.7172,-9.8522,0.83333
-4.8657,-2.7302,-4.7896,-4.902,-5.9113,-6.0548,-5.8252,-3.9482,-2.9773,-4.902,-5.9113,-6.9652,-4.7619,-0.06349,-7.4921,-2.8846,-5.7327,-12.689,-0.82148,-10.837,-0.12821
-2.0221,1.0794,0.06472,-4.902,-0.98522,-2.19,0.0,-2.9773,-0.06472,-4.902,-0.98522,-2.9851,-5.7143,-1.0159,-4.6349,-0.96154,-3.8003,1.8035,-1.7694,-6.8966,0.83333
-0.12638,3.9365,2.0065,-5.8824,-1.9704,-3.1562,2.9126,-2.0065,0.90615,-5.8824,-1.9704,-0.99502,-8.5714,-2.9206,-4.6349,-0.96154,-3.8003,-12.689,2.0221,-8.867,-0.12821
-2.0221,2.9841,0.06472,-5.8824,-4.9261,-4.1224,0.0,-3.9482,-1.0356,-5.8824,-4.9261,-2.9851,-12.381,-4.8254,-6.5397,-1.9231,-4.7665,-10.757,1.0742,-10.837,-1.0897
-2.97,2.9841,-0.90615,-3.9216,-2.9557,-3.1562,0.0,-3.9482,-0.06472,-3.9216,-2.9557,-2.9851,-10.476,-3.873,-5.5873,0.0,-2.8341,-8.8245,2.97,-8.867,0.83333
-1.0742,2.9841,0.06472,-0.98039,2.9557,-1.2238,1.9417,-0.06472,3.8188,-0.98039,2.9557,-0.99502,-8.5714,-3.873,-3.6825,1.9231,0.06441,-5.9259,2.0221,-5.9113,0.83333
0.82148,3.9365,2.9773,-2.9412,2.9557,2.6409,0.97087,-0.06472,6.7314,-2.9412,2.9557,0.0,-6.6667,-1.9683,-1.7778,3.8462,1.9968,3.7359,7.7093,-5.9113,0.83333
2.7172,3.9365,3.9482,2.9412,4.9261,4.5733,4.8544,2.8479,6.7314,2.9412,4.9261,2.9851,-6.6667,-2.9206,0.12698,2.8846,3.9291,1.8035,7.7093,-8.867,0.83333
5.5608,2.9841,3.9482,11.765,4.9261,7.4718,6.7961,10.615,6.7314,11.765,4.9261,5.9701,-5.7143,-5.7778,2.9841,0.96154,2.963,2.7697,3.9179,-7.8818,0.83333
10.3,2.0317,3.9482,10.784,4.9261,11.337,9.7087,13.528,7.7023,10.784,4.9261,7.9602,-1.9048,-5.7778,5.8413,0.0,3.9291,-2.0612,2.97,-2.9557,-1.0897
7.4566,-1.7778,1.0356,5.8824,3.9409,10.37,4.8544,8.6731,7.7023,5.8824,3.9409,4.9751,-0.95238,-7.6825,5.8413,-4.8077,1.9968,1.8035,-1.7694,1.9704,-10.705
5.5608,-3.6825,-1.877,4.902,5.9113,5.5395,0.97087,1.877,3.8188,4.902,5.9113,2.9851,0.0,-8.6349,4.8889,-5.7692,-0.90177,-2.0612,-0.82148,2.9557,-9.7436
2.7172,-0.8254,-0.90615,1.9608,1.9704,1.6747,1.9417,-2.9773,-0.06472,1.9608,1.9704,0.99502,0.0,-7.6825,4.8889,-3.8462,0.06441,-3.9936,-2.7172,2.9557,-4.9359
-0.12638,2.9841,2.0065,0.98039,2.9557,-1.2238,4.8544,-5.89,2.8479,0.98039,2.9557,0.99502,1.9048,-5.7778,4.8889,-2.8846,1.0306,10.499,-2.7172,2.9557,-7.8205
-0.12638,4.8889,3.9482,-0.98039,2.9557,-3.1562,8.7379,-6.8608,5.7605,-0.98039,2.9557,2.9851,2.8571,-5.7778,4.8889,-2.8846,1.0306,0.83736,3.9179,1.9704,-8.7821
-0.12638,5.8413,4.9191,-0.98039,4.9261,-3.1562,9.7087,-4.9191,4.7896,-0.98039,4.9261,3.9801,2.8571,-5.7778,4.8889,-0.96154,0.06441,-9.7907,6.7615,1.9704,-3.9744
1.7694,8.6984,7.8317,1.9608,7.8818,2.6409,9.7087,-2.0065,9.644,1.9608,7.8818,6.9652,1.9048,-2.9206,5.8413,0.96154,1.9968,1.8035,5.8136,4.9261,-3.0128
-1.0742,7.746,6.8608,0.98039,7.8818,2.6409,9.7087,-2.9773,10.615,0.98039,7.8818,6.9652,-1.9048,-2.9206,2.0317,0.0,0.06441,5.6683,5.8136,1.9704,-3.0128
-1.0742,5.8413,5.89,0.0,9.8522,4.5733,9.7087,0.90615,11.586,0.0,9.8522,5.9701,-2.8571,-1.9683,0.12698,0.0,-0.90177,-9.7907,6.7615,-1.9704,-1.0897
0.82148,4.8889,4.9191,3.9216,7.8818,3.6071,3.8835,3.8188,9.644,3.9216,7.8818,4.9751,-0.95238,-0.06349,1.0794,1.9231,1.0306,-7.8583,4.8657,-1.9704,-0.12821
0.82148,7.746,5.89,1.9608,5.9113,-0.25765,5.8252,-0.06472,6.7314,1.9608,5.9113,3.9801,2.8571,4.6984,3.9365,5.7692,4.8953,-2.0612,5.8136,1.9704,5.641
4.613,13.46,12.686,2.9412,4.9261,4.5733,14.563,-0.06472,8.6731,2.9412,4.9261,7.9602,8.5714,12.317,9.6508,13.462,12.625,7.6006,9.6051,2.9557,9.4872
9.3523,17.27,18.511,6.8627,5.9113,8.438,16.504999,-1.0356,9.644,6.8627,5.9113,12.935,13.333,18.032,13.46,20.191999,19.388,3.7359,11.501,4.9261,15.256
10.3,19.174999,19.482,0.98039,5.9113,9.4042,13.592,-6.8608,9.644,0.98039,5.9113,12.935,16.190001,23.746,15.365,25.962,24.219,-11.723,11.501,6.8966,21.025999
11.248,22.032,20.452999,0.98039,7.8818,8.438,15.534,-7.8317,10.615,0.98039,7.8818,12.935,20.0,26.603001,18.222,29.808001,28.084,-3.9936,10.553,10.837,24.872
10.3,19.174999,17.540001,-1.9608,1.9704,6.5056,8.7379,-4.9191,6.7314,-1.9608,1.9704,8.9552,20.0,24.698,18.222,27.885,27.118,1.8035,10.553,9.8522,23.91
14.092,15.365,16.57,3.9216,0.0,10.37,4.8544,2.8479,4.7896,3.9216,0.0,7.9602,21.905001,23.746,18.222,25.962,26.150999,-6.8921,8.6572,7.8818,18.141001
17.882999,15.365,16.57,7.8431,2.9557,16.167,8.7379,5.7605,3.8188,7.8431,2.9557,10.945,23.809999,25.650999,20.127001,25.962,28.084,-17.52,5.8136,10.837,15.256
15.039,14.413,13.657,4.902,3.9409,13.269,9.7087,5.7605,0.90615,4.902,3.9409,8.9552,23.809999,26.603001,19.174999,25.962,26.150999,10.499,4.8657,13.793,20.063999
11.248,14.413,10.744,5.8824,3.9409,8.438,7.767,6.7314,1.877,5.8824,3.9409,7.9602,20.0,23.746,15.365,24.038,22.287001,29.823,7.7093,12.808,19.103001
8.4044,9.6508,7.8317,7.8431,0.0,8.438,5.8252,6.7314,0.90615,7.8431,0.0,6.9652,13.333,16.127001,8.6984,17.308001,14.557,13.398,4.8657,6.8966,17.179001
3.6651,2.9841,3.9482,1.9608,-1.9704,5.5395,2.9126,4.7896,-2.9773,1.9608,-1.9704,4.9751,7.619,10.413,2.9841,8.6538,6.8277,10.499,-0.82148,2.9557,8.5256
6.5087,-0.8254,3.9482,0.98039,2.9557,8.438,4.8544,7.7023,-0.06472,0.98039,2.9557,7.9602,7.619,8.5079,3.9365,3.8462,3.9291,9.533,-5.5608,6.8966,4.6795
3.6651,-2.7302,1.0356,7.8431,8.867,10.37,5.8252,10.615,2.8479,7.8431,8.867,6.9652,6.6667,5.6508,1.0794,-1.9231,-0.90177,5.6683,-4.613,7.8818,-0.12821
-2.0221,-5.5873,-3.8188,11.765,12.808,2.6409,3.8835,8.6731,7.7023,11.765,12.808,2.9851,2.8571,2.7937,-3.6825,-6.7308,-7.6651,-15.588,-3.6651,2.9557,-3.0128
-6.7615,-7.4921,-6.7314,9.8039,7.8818,-5.0886,0.97087,1.877,6.7314,9.8039,7.8818,-0.99502,-2.8571,-1.0159,-8.4444,-10.577,-12.496,-8.8245,1.0742,-0.98522,-3.9744
-7.7093,-7.4921,-6.7314,2.9412,1.9704,-6.0548,-1.9417,-2.9773,0.90615,2.9412,1.9704,-1.99,-4.7619,-3.873,-8.4444,-10.577,-13.462,3.7359,-3.6651,-0.98522,-3.9744
-6.7615,-7.4921,-6.7314,1.9608,4.9261,-5.0886,-1.9417,-2.9773,-0.06472,1.9608,4.9261,-0.99502,-4.7619,-3.873,-8.4444,-9.6154,-12.496,-7.8583,-4.613,-1.9704,-1.0897
-4.8657,-5.5873,-5.7605,7.8431,10.837,-0.25765,-0.97087,4.7896,4.7896,7.8431,10.837,1.99,-3.8095,-2.9206,-6.5397,-9.6154,-11.53,8.5668,0.12638,1.9704,0.83333
-4.8657,-6.5397,-7.7023,9.8039,12.808,3.6071,-0.97087,4.7896,6.7314,9.8039,12.808,2.9851,-5.7143,-5.7778,-7.4921,-10.577,-13.462,14.364,2.0221,0.98522,2.7564
-4.8657,-6.5397,-8.6731,9.8039,8.867,4.5733,-1.9417,3.8188,5.7605,9.8039,8.867,1.99,-7.619,-5.7778,-8.4444,-11.538,-14.428,0.83736,0.12638,-1.9704,-3.0128
-4.8657,-5.5873,-6.7314,8.8235,9.8522,1.6747,-2.9126,-1.0356,0.90615,8.8235,9.8522,0.0,-10.476,-6.7302,-8.4444,-10.577,-12.496,-3.0274,2.0221,-2.9557,-6.859
-5.8136,-3.6825,-6.7314,6.8627,9.8522,-1.2238,-3.8835,-2.0065,-0.06472,6.8627,9.8522,-1.99,-11.429,-7.6825,-7.4921,-7.6923,-10.564,-16.554001,5.8136,-5.9113,-2.0513
-4.8657,-3.6825,-5.7605,6.8627,6.8966,-3.1562,-1.9417,-2.0065,-0.06472,6.8627,6.8966,-1.99,-8.5714,-7.6825,-6.5397,-7.6923,-8.6312,-9.7907,2.97,-4.9261,-1.0897
-9.6051,-7.4921,-9.644,0.0,0.98522,-7.0209,-5.8252,-8.8026,-3.9482,0.0,0.98522,-4.9751,-8.5714,-9.5873,-10.349,-10.577,-11.53,-7.8583,-3.6651,-5.9113,-3.9744
-18.136,-13.206,-16.440001,-6.8627,-0.98522,-12.818,-12.621,-15.599,-8.8026,-6.8627,-0.98522,-11.94,-11.429,-10.54,-16.063,-13.462,-15.395,-9.7907,-6.5087,-7.8818,-3.9744
-16.24,-12.254,-14.498,-5.8824,-1.9704,-15.717,-7.767,-15.599,-10.744,-5.8824,-1.9704,-10.945,-7.619,-5.7778,-13.206,-9.6154,-12.496,-15.588,-10.3,-4.9261,0.83333
-6.7615,-7.4921,-7.7023,-1.9608,-1.9704,-7.9871,-5.8252,-10.744,-10.744,-1.9608,-1.9704,-6.9652,0.0,0.88889,-5.5873,-2.8846,-4.7665,-13.655,-7.4566,0.98522,5.641
3.6651,-2.7302,0.06472,0.0,-3.9409,2.6409,-8.7379,-6.8608,-8.8026,0.0,-3.9409,-3.9801,9.5238,7.5556,3.9365,3.8462,3.9291,4.7021,2.0221,7.8818,6.6026
7.4566,-0.8254,3.9482,3.9216,-3.9409,4.5733,-8.7379,-2.0065,-7.8317,3.9216,-3.9409,-2.9851,16.190001,10.413,10.603,6.7308,9.7262,17.261999,-5.5608,15.764,4.6795
7.4566,-1.7778,2.0065,2.9412,-5.9113,-2.19,-8.7379,0.90615,-8.8026,2.9412,-5.9113,-5.9701,15.238,9.4603,10.603,4.8077,8.7601,4.7021,-6.5087,15.764,0.83333
1.7694,-2.7302,-2.8479,0.0,-4.9261,-7.0209,-7.767,-2.0065,-4.9191,0.0,-4.9261,-8.9552,11.429,5.6508,4.8889,2.8846,2.963,0.83736,-2.7172,12.808,-2.0513
-2.0221,-0.8254,-4.7896,1.9608,-0.98522,-7.0209,-6.7961,-4.9191,-1.0356,1.9608,-0.98522,-6.9652,6.6667,1.8413,1.0794,0.96154,-0.90177,-3.0274,3.9179,8.867,-0.12821
-3.9179,2.0317,-3.8188,-0.98039,-0.98522,-6.0548,-4.8544,-5.89,1.877,-0.98039,-0.98522,-5.9701,2.8571,-1.0159,-0.8254,0.0,-2.8341,8.5668,9.6051,3.9409,-1.0897
0.82148,5.8413,2.0065,0.98039,5.9113,1.6747,4.8544,-2.9773,8.6731,0.98039,5.9113,0.0,0.95238,-1.0159,2.0317,2.8846,0.06441,13.398,15.292,4.9261,0.83333
-2.97,2.9841,-0.90615,-4.902,0.0,-3.1562,1.9417,-7.8317,8.6731,-4.902,0.0,-2.9851,-5.7143,-5.7778,-0.8254,-0.96154,-2.8341,-1.095,9.6051,-1.9704,-1.0897
-1.0742,4.8889,0.06472,-4.902,-0.98522,-6.0548,0.0,-8.8026,5.7605,-4.902,-0.98522,-3.9801,-6.6667,-5.7778,0.12698,0.96154,-1.868,-7.8583,8.6572,-5.9113,1.7949
4.613,13.46,8.8026,1.9608,4.9261,1.6747,5.8252,1.877,8.6731,1.9608,4.9261,1.99,0.95238,2.7937,7.746,8.6538,7.7939,2.7697,12.449,1.9704,7.5641
7.4566,17.27,13.657,5.8824,4.9261,7.4718,11.65,6.7314,7.7023,5.8824,4.9261,6.9652,4.7619,7.5556,11.556,13.462,13.591,15.33,14.344,3.9409,9.4872
8.4044,13.46,12.686,1.9608,-0.98522,8.438,7.767,5.7605,3.8188,1.9608,-0.98522,4.9751,2.8571,5.6508,10.603,11.538,12.625,-3.9936,9.6051,0.98522,6.6026
7.4566,7.746,8.8026,-3.9216,-5.9113,6.5056,6.7961,3.8188,-2.0065,-3.9216,-5.9113,3.9801,0.95238,2.7937,8.6984,7.6923,8.7601,-5.9259,1.0742,-0.98522,2.7564
4.613,0.12698,4.9191,-1.9608,-5.9113,1.6747,-1.9417,1.877,-2.0065,-1.9608,-5.9113,0.99502,-0.95238,-1.0159,6.7937,2.8846,5.8615,7.6006,-7.4566,0.0,-0.12821
2.7172,-1.7778,2.0065,0.98039,-2.9557,0.70853,-4.8544,2.8479,-1.0356,0.98039,-2.9557,-1.99,-0.95238,-1.9683,5.8413,0.96154,3.9291,4.7021,-6.5087,1.9704,-2.0513
5.5608,-0.8254,2.0065,4.902,3.9409,5.5395,-1.9417,8.6731,-2.9773,4.902,3.9409,0.0,-2.8571,-4.8254,3.9365,-0.96154,1.9968,5.6683,-7.4566,4.9261,-3.9744
6.5087,-2.7302,2.0065,6.8627,3.9409,5.5395,-1.9417,12.557,-3.9482,6.8627,3.9409,3.9801,-4.7619,-8.6349,1.0794,-5.7692,-1.868,13.398,-7.4566,2.9557,-7.8205
6.5087,-3.6825,2.9773,1.9608,-1.9704,8.438,3.8835,10.615,-2.9773,1.9608,-1.9704,6.9652,-4.7619,-10.54,0.12698,-8.6538,-3.8003,4.7021,-6.5087,-1.9704,-12.628
8.4044,-3.6825,5.89,5.8824,2.9557,12.303,8.7379,10.615,-2.0065,5.8824,2.9557,11.94,-3.8095,-10.54,1.0794,-10.577,-2.8341,13.398,-8.4044,-0.98522,-13.59
4.613,-5.5873,3.9482,9.8039,1.9704,9.4042,6.7961,9.644,-0.06472,9.8039,1.9704,11.94,-4.7619,-12.444,-1.7778,-14.423,-4.7665,-0.12882,-8.4044,-2.9557,-18.396999
-0.12638,-5.5873,2.0065,4.902,-0.98522,7.4718,6.7961,6.7314,-2.9773,4.902,-0.98522,7.9602,-5.7143,-12.444,-4.6349,-15.385,-7.6651,4.7021,-9.3523,-0.98522,-18.396999
-0.12638,-0.8254,3.9482,7.8431,7.8818,7.4718,7.767,9.644,-0.06472,7.8431,7.8818,8.9552,-3.8095,-9.5873,-4.6349,-11.538,-5.7327,17.261999,-4.613,-2.9557,-11.667
1.7694,1.0794,4.9191,7.8431,4.9261,7.4718,2.9126,12.557,6.7314,7.8431,4.9261,6.9652,-3.8095,-7.6825,-2.7302,-6.7308,-3.8003,-0.12882,1.0742,-7.8818,-9.7436
2.7172,-2.7302,1.0356,4.902,0.98522,-0.25765,-1.9417,7.7023,-0.06472,4.902,0.98522,0.99502,-6.6667,-8.6349,-2.7302,-5.7692,-4.7665,-7.8583,0.12638,-10.837,-7.8205
3.6651,-2.7302,-0.90615,-0.98039,-4.9261,-1.2238,-4.8544,5.7605,-2.0065,-0.98039,-4.9261,-2.9851,-1.9048,-3.873,1.0794,-1.9231,-1.868,10.499,5.8136,-5.9113,-3.0128
8.4044,0.12698,1.0356,0.0,-6.8966,4.5733,-1.9417,9.644,1.877,0.0,-6.8966,0.0,5.7143,1.8413,7.746,4.8077,2.963,19.195,13.397,4.9261,0.83333
4.613,2.9841,0.06472,0.0,-6.8966,2.6409,-1.9417,3.8188,0.90615,0.0,-6.8966,-1.99,9.5238,6.6032,9.6508,8.6538,5.8615,12.432,8.6572,7.8818,3.7179
1.7694,6.7937,1.0356,-0.98039,-3.9409,-0.25765,-0.97087,5.7605,-1.0356,-0.98039,-3.9409,-2.9851,12.381,11.365,9.6508,14.423,9.7262,4.7021,5.8136,7.8818,8.5256
1.7694,3.9365,0.06472,-1.9608,-8.867,-0.25765,-4.8544,6.7314,-5.89,-1.9608,-8.867,-5.9701,12.381,11.365,7.746,14.423,9.7262,5.6683,2.97,4.9261,9.4872
1.7694,-2.7302,-2.8479,-3.9216,-10.837,1.6747,-6.7961,5.7605,-9.7735,-3.9216,-10.837,-6.9652,9.5238,7.5556,4.8889,8.6538,4.8953,3.7359,-5.5608,4.9261,4.6795
1.7694,-7.4921,-5.7605,1.9608,-5.9113,-1.2238,-10.68,5.7605,-8.8026,1.9608,-5.9113,-6.9652,8.5714,3.746,4.8889,2.8846,1.0306,-2.0612,-8.4044,4.9261,0.83333
3.6651,-13.206,-7.7023,2.9412,-2.9557,0.70853,-15.534,7.7023,-12.686,2.9412,-2.9557,-6.9652,6.6667,0.88889,3.9365,-2.8846,-1.868,-3.9936,-11.248,3.9409,-4.9359
4.613,-15.111,-7.7023,1.9608,-2.9557,6.5056,-10.68,11.586,-11.715,1.9608,-2.9557,-3.9801,5.7143,0.88889,3.9365,-6.7308,-3.8003,8.5668,-15.987,2.9557,-10.705
4.613,-10.349,-2.8479,4.902,1.9704,8.438,-0.97087,10.615,-6.8608,4.902,1.9704,1.99,5.7143,1.8413,3.9365,-5.7692,-2.8341,18.229,-14.092,2.9557,-10.705
-0.12638,-5.5873,-0.90615,3.9216,-0.98522,6.5056,1.9417,4.7896,-5.89,3.9216,-0.98522,5.9701,0.95238,-1.9683,0.12698,-5.7692,-3.8003,10.499,-12.196,0.98522,-10.705
-4.8657,-0.8254,1.0356,3.9216,-0.98522,5.5395,5.8252,1.877,-0.06472,3.9216,-0.98522,9.9502,-2.8571,-4.8254,-4.6349,-4.8077,-4.7665,-4.9597,-7.4566,-4.9261,-9.7436
-6.7615,2.9841,2.0065,-3.9216,0.0,4.5733,7.767,-1.0356,0.90615,-3.9216,0.0,7.9602,-5.7143,-5.7778,-8.4444,-1.9231,-4.7665,-17.52,-3.6651,-10.837,-5.8974
-4.8657,2.9841,2.9773,0.98039,-10.837,-1.2238,4.8544,-2.9773,-2.9773,0.98039,-10.837,3.9801,-4.7619,-5.7778,-6.5397,-1.9231,-3.8003,-10.757,-4.613,-7.8818,-8.7821
0.82148,-1.7778,2.0065,4.902,9.8522,-2.19,0.97087,-0.06472,-5.89,4.902,9.8522,2.9851,-1.9048,-2.9206,-3.6825,-3.8462,-3.8003,4.7021,-6.5087,0.98522,-7.8205
-4.8657,-13.206,-8.6731,-7.8431,5.9113,-5.0886,-11.65,-2.0065,-12.686,-7.8431,5.9113,-4.9751,-6.6667,-7.6825,-9.3968,-11.538,-11.53,6.6345,-14.092,-2.9557,-12.628
-8.6572,-18.921,-14.498,-11.765,-5.9113,-8.9533,-12.621,-5.89,-14.628,-11.765,-5.9113,-7.9602,-12.381,-11.492,-15.111,-17.308001,-16.361,3.7359,-16.934999,-2.9557,-14.551
-10.553,-14.159,-14.498,-9.8039,-9.8522,-8.9533,-8.7379,-5.89,-9.7735,-9.8039,-9.8522,-6.9652,-14.286,-12.444,-15.111,-15.385,-16.361,-5.9259,-13.144,-4.9261,-11.667
-9.6051,-7.4921,-11.586,-11.765,-7.8818,-8.9533,-3.8835,-4.9191,-7.8317,-11.765,-7.8818,-6.9652,-15.238,-12.444,-13.206,-11.538,-13.462,-2.0612,-9.3523,-5.9113,-6.859
-8.6572,-6.5397,-10.615,-12.745,-6.8966,-9.9195,-5.8252,-5.89,-8.8026,-12.745,-6.8966,-9.9502,-16.190001,-12.444,-10.349,-10.577,-12.496,7.6006,-4.613,-7.8818,-5.8974
-3.9179,-6.5397,-7.7023,-9.8039,-3.9409,-4.1224,-8.7379,-2.0065,-7.8317,-9.8039,-3.9409,-8.9552,-17.143,-12.444,-6.5397,-9.6154,-10.564,6.6345,-0.82148,-4.9261,-6.859
0.82148,-3.6825,-3.8188,-16.667,-3.9409,0.70853,-4.8544,0.90615,-3.9482,-16.667,-3.9409,-4.9751,-15.238,-11.492,-1.7778,-6.7308,-6.6989,3.7359,0.12638,0.0,-3.9744
1.7694,-1.7778,-1.877,-13.725,-15.764,-1.2238,-4.8544,1.877,-5.89,-13.725,-15.764,-1.99,-13.333,-10.54,1.0794,-4.8077,-3.8003,4.7021,-8.4044,2.9557,-3.0128
2.7172,-1.7778,0.06472,-6.8627,-11.823,-6.0548,-6.7961,3.8188,-8.8026,-6.8627,-11.823,-2.9851,-10.476,-8.6349,2.0317,-3.8462,-2.8341,11.465,-6.5087,2.9557,-3.0128
3.6651,-0.8254,2.9773,0.98039,2.9557,-6.0548,-1.9417,3.8188,-4.9191,0.98039,2.9557,-0.99502,-7.619,-5.7778,4.8889,-1.9231,-0.90177,14.364,-2.7172,0.98522,-2.0513
1.7694,-1.7778,2.0065,-1.9608,6.8966,-4.1224,-0.97087,0.90615,-2.9773,-1.9608,6.8966,0.0,-7.619,-4.8254,4.8889,-1.9231,1.0306,10.499,1.0742,-1.9704,-0.12821
3.6651,-2.7302,2.0065,-1.9608,5.9113,2.6409,-1.9417,-0.06472,0.90615,-1.9608,5.9113,0.99502,-5.7143,-2.9206,6.7937,0.0,2.963,0.83736,4.8657,-3.9409,-0.12821
4.613,-2.7302,2.0065,-3.9216,-0.98522,5.5395,-0.97087,2.8479,2.8479,-3.9216,-0.98522,1.99,-1.9048,-0.06349,5.8413,1.9231,2.963,-2.0612,2.0221,-4.9261,-1.0897
2.7172,-1.7778,2.0065,-0.98039,1.9704,5.5395,1.9417,6.7314,4.7896,-0.98039,1.9704,3.9801,0.95238,1.8413,4.8889,1.9231,2.963,-3.0274,3.9179,-4.9261,-2.0513
0.82148,2.9841,3.9482,3.9216,7.8818,5.5395,9.7087,4.7896,9.644,3.9216,7.8818,9.9502,3.8095,3.746,3.9365,2.8846,3.9291,-12.689,6.7615,-3.9409,-0.12821
-7.7093,-0.8254,-1.877,-5.8824,-4.9261,-2.19,1.9417,-2.9773,8.6731,-5.8824,-4.9261,3.9801,1.9048,1.8413,-3.6825,-0.96154,-0.90177,-1.095,3.9179,-8.867,-3.9744
-12.449,-2.7302,-5.7605,-5.8824,0.0,-9.9195,-1.9417,-5.89,1.877,-5.8824,0.0,-3.9801,1.9048,0.88889,-8.4444,-2.8846,-3.8003,-1.095,-2.7172,-6.8966,-3.0128
-13.397,-0.8254,-5.7605,-7.8431,1.9704,-14.75,-7.767,-11.715,-0.06472,-7.8431,1.9704,-8.9552,2.8571,1.8413,-11.302,-0.96154,-2.8341,-11.723,-3.6651,-4.9261,-3.0128
-12.449,-0.8254,-5.7605,-11.765,-1.9704,-14.75,-7.767,-16.57,-4.9191,-11.765,-1.9704,-10.945,4.7619,2.7937,-10.349,0.96154,-1.868,-21.385,-3.6651,-4.9261,-1.0897
-11.501,0.12698,-5.7605,-15.686,-3.9409,-16.683001,-7.767,-18.511,-3.9482,-15.686,-3.9409,-14.925,6.6667,4.6984,-6.5397,2.8846,1.0306,-22.351,2.0221,-2.9557,1.7949
-11.501,2.0317,-4.7896,-16.667,-0.98522,-19.580999,-7.767,-21.424,-1.0356,-16.667,-0.98522,-15.92,9.5238,7.5556,-0.8254,5.7692,4.8953,-16.554001,6.7615,0.98522,5.641
-7.7093,4.8889,-2.8479,-18.627001,-3.9409,-16.683001,-7.767,-22.395,-0.06472,-18.627001,-3.9409,-15.92,13.333,10.413,6.7937,10.577,10.692,-20.419001,8.6572,8.867,10.449
-4.8657,5.8413,-2.8479,-20.587999,-9.8522,-14.75,-6.7961,-22.395,-2.0065,-20.587999,-9.8522,-16.915001,13.333,10.413,9.6508,12.5,13.591,-18.486,9.6051,12.808,11.41
0.82148,8.6984,0.06472,-11.765,-5.9113,-13.784,-6.7961,-17.540001,2.8479,-11.765,-5.9113,-13.93,14.286,12.317,12.508,14.423,15.523,-12.689,8.6572,13.793,13.333
1.7694,11.556,3.9482,-8.8235,-5.9113,-9.9195,-2.9126,-16.57,2.8479,-8.8235,-5.9113,-9.9502,15.238,15.175,14.413,18.268999,18.422001,-6.8921,8.6572,10.837,15.256
0.82148,9.6508,4.9191,-13.725,-3.9409,-9.9195,0.97087,-17.540001,-0.06472,-13.725,-3.9409,-6.9652,15.238,15.175,13.46,17.308001,17.455999,-9.7907,8.6572,8.867,13.333
-0.12638,7.746,5.89,-10.784,1.9704,-6.0548,7.767,-14.628,6.7314,-10.784,1.9704,0.0,15.238,15.175,11.556,15.385,16.49,-6.8921,9.6051,7.8818,12.372
-0.12638,8.6984,7.8317,4.902,11.823,0.70853,11.65,-5.89,15.469,4.902,11.823,6.9652,16.190001,16.127001,9.6508,14.423,16.49,2.7697,12.449,10.837,11.41
-2.0221,5.8413,4.9191,10.784,10.837,0.70853,6.7961,1.877,9.644,10.784,10.837,4.9751,11.429,11.365,4.8889,9.6154,10.692,6.6345,0.12638,6.8966,5.641
0.82148,3.9365,5.89,8.8235,8.867,2.6409,5.8252,3.8188,4.7896,8.8235,8.867,6.9652,5.7143,7.5556,2.9841,5.7692,7.7939,-0.12882,-0.82148,1.9704,2.7564
5.5608,6.7937,8.8026,6.8627,12.808,10.37,9.7087,5.7605,8.6731,6.8627,12.808,11.94,4.7619,5.6508,4.8889,4.8077,7.7939,2.7697,2.97,3.9409,1.7949
8.4044,6.7937,10.744,8.8235,15.764,11.337,14.563,6.7314,10.615,8.8235,15.764,15.92,1.9048,0.88889,5.8413,0.0,5.8615,-0.12882,2.97,0.98522,-1.0897
4.613,2.9841,7.8317,11.765,13.793,8.438,14.563,8.6731,11.586,11.765,13.793,15.92,-4.7619,-6.7302,2.0317,-8.6538,0.06441,4.7021,1.0742,-1.9704,-9.7436
2.7172,2.0317,5.89,17.646999,19.704,12.303,15.534,11.586,13.528,17.646999,19.704,16.915001,-8.5714,-11.492,-2.7302,-12.5,-4.7665,3.7359,2.97,-7.8818,-12.628
4.613,1.0794,5.89,20.587999,16.749001,17.134001,15.534,14.498,13.528,20.587999,16.749001,17.91,-13.333,-14.349,-6.5397,-13.462,-7.6651,-7.8583,0.12638,-13.793,-15.513
7.4566,4.8889,8.8026,25.49,16.749001,19.066,14.563,17.410999,16.440001,25.49,16.749001,20.896,-13.333,-12.444,-5.5873,-8.6538,-5.7327,-0.12882,-0.82148,-13.793,-11.667
8.4044,9.6508,11.715,21.569,15.764,19.066,13.592,15.469,15.469,21.569,15.764,19.9,-9.5238,-6.7302,-1.7778,0.0,0.06441,-1.095,3.9179,-12.808,-3.9744
7.4566,11.556,11.715,15.686,14.778,13.269,11.65,9.644,12.557,15.686,14.778,16.915001,-6.6667,-1.0159,1.0794,6.7308,4.8953,-1.095,5.8136,-10.837,1.7949
3.6651,7.746,7.8317,5.8824,11.823,7.4718,4.8544,3.8188,11.586,5.8824,11.823,8.9552,-4.7619,0.88889,1.0794,8.6538,4.8953,0.83736,8.6572,-8.867,2.7564
-0.12638,1.0794,0.06472,-2.9412,2.9557,-2.19,-3.8835,-2.9773,8.6731,-2.9412,2.9557,-1.99,-3.8095,2.7937,-0.8254,6.7308,2.963,-8.8245,11.501,-6.8966,3.7179
-2.97,-3.6825,-5.7605,-4.902,-2.9557,-7.0209,-8.7379,-2.9773,5.7605,-4.902,-2.9557,-9.9502,-4.7619,1.8413,-4.6349,2.8846,0.06441,-18.486,8.6572,-9.8522,3.7179
-3.9179,-3.6825,-6.7314,-1.9608,-5.9113,-7.9871,-8.7379,-2.9773,4.7896,-1.9608,-5.9113,-10.945,-4.7619,1.8413,-6.5397,0.96154,-1.868,-13.655,9.6051,-9.8522,2.7564
-1.0742,-0.8254,-3.8188,5.8824,-6.8966,-7.0209,-5.8252,-1.0356,5.7605,5.8824,-6.8966,-8.9552,-2.8571,1.8413,-4.6349,0.96154,-1.868,-0.12882,7.7093,-6.8966,4.6795
-3.9179,-3.6825,-6.7314,-9.8039,-13.793,-11.852,-10.68,-5.89,-0.06472,-9.8039,-13.793,-13.93,-1.9048,0.88889,-3.6825,-0.96154,-1.868,6.6345,2.97,-4.9261,2.7564
-2.97,-3.6825,-7.7023,-22.549,-19.704,-14.75,-14.563,-7.8317,-5.89,-22.549,-19.704,-19.9,0.95238,3.746,1.0794,1.9231,1.9968,7.6006,2.0221,-0.98522,2.7564
0.82148,0.12698,-1.877,-17.646999,-26.601,-7.9871,-7.767,-2.0065,-7.8317,-17.646999,-26.601,-14.925,6.6667,9.4603,7.746,8.6538,8.7601,0.83736,5.8136,2.9557,6.6026
2.7172,1.0794,2.9773,-8.8235,-21.674999,-7.0209,-6.7961,-0.06472,-8.8026,-8.8235,-21.674999,-9.9502,6.6667,10.413,7.746,9.6154,10.692,3.7359,4.8657,4.9261,8.5256
3.6651,-1.7778,2.0065,-5.8824,-16.749001,-7.0209,-11.65,3.8188,-7.8317,-5.8824,-16.749001,-6.9652,3.8095,8.5079,5.8413,6.7308,7.7939,1.8035,0.12638,1.9704,7.5641
3.6651,-5.5873,0.06472,-3.9216,-11.823,-4.1224,-7.767,4.7896,-7.8317,-3.9216,-11.823,-4.9751,0.95238,3.746,2.0317,0.96154,1.9968,7.6006,-5.5608,-0.98522,3.7179
2.7172,-8.4444,-2.8479,0.98039,-8.867,-4.1224,-7.767,4.7896,-8.8026,0.98039,-8.867,-5.9701,0.0,2.7937,0.12698,-3.8462,-1.868,13.398,-9.3523,1.9704,1.7949
-1.0742,-10.349,-5.7605,0.0,-7.8818,-4.1224,-6.7961,6.7314,-10.744,0.0,-7.8818,-7.9602,-2.8571,-1.0159,-3.6825,-7.6923,-6.6989,19.195,-16.934999,0.0,-3.0128
-1.0742,-7.4921,-3.8188,1.9608,-4.9261,-0.25765,-0.97087,9.644,-3.9482,1.9608,-4.9261,-2.9851,-6.6667,-3.873,-5.5873,-9.6154,-9.5974,14.364,-9.3523,-2.9557,-4.9359
1.7694,-2.7302,0.06472,8.8235,4.9261,8.438,8.7379,11.586,4.7896,8.8235,4.9261,6.9652,-9.5238,-7.6825,-6.5397,-9.6154,-10.564,-1.095,-0.82148,-1.9704,-4.9359
3.6651,2.0317,3.9482,10.784,6.8966,12.303,14.563,7.7023,9.644,10.784,6.8966,13.93,-13.333,-11.492,-7.4921,-9.6154,-10.564,6.6345,0.12638,-8.867,-5.8974
9.3523,11.556,12.686,17.646999,18.719,17.134001,24.271999,13.528,14.498,17.646999,18.719,20.896,-10.476,-10.54,-1.7778,-3.8462,-3.8003,5.6683,8.6572,-8.867,-3.9744
7.4566,14.413,14.628,15.686,17.733999,16.167,25.243,11.586,13.528,15.686,17.733999,21.891001,-8.5714,-8.6349,0.12698,-1.9231,0.06441,-10.757,12.449,-9.8522,-6.859
-0.12638,13.46,9.7735,9.8039,14.778,8.438,17.476,3.8188,12.557,9.8039,14.778,15.92,-6.6667,-5.7778,-1.7778,0.0,0.06441,8.5668,14.344,-9.8522,-5.8974
-7.7093,6.7937,1.0356,7.8431,10.837,-0.25765,7.767,1.877,13.528,7.8431,10.837,5.9701,-4.7619,-1.9683,-6.5397,0.0,-1.868,4.7021,13.397,-7.8818,-0.12821
-12.449,-0.8254,-7.7023,7.8431,3.9409,-7.0209,-2.9126,-1.0356,7.7023,7.8431,3.9409,-3.9801,-1.9048,0.88889,-8.4444,-1.9231,-4.7665,-7.8583,6.7615,-5.9113,2.7564
-9.6051,-5.5873,-9.644,0.98039,-1.9704,-5.0886,-6.7961,-2.9773,-0.06472,0.98039,-1.9704,-6.9652,0.0,1.8413,-7.4921,-3.8462,-5.7327,-3.0274,5.8136,1.9704,4.6795
-2.97,-5.5873,-6.7314,0.0,-4.9261,0.70853,-1.9417,-0.06472,-2.9773,0.0,-4.9261,-2.9851,2.8571,4.6984,-4.6349,-2.8846,-5.7327,5.6683,3.9179,6.8966,6.6026
0.82148,-6.5397,-6.7314,-5.8824,-9.8522,2.6409,-3.8835,-2.9773,-6.8608,-5.8824,-9.8522,-1.99,2.8571,4.6984,-3.6825,-3.8462,-6.6989,11.465,-3.6651,8.867,3.7179
1.7694,-11.302,-10.615,-13.725,-14.778,-1.2238,-15.534,-3.9482,-15.599,-13.725,-14.778,-9.9502,1.9048,2.7937,-2.7302,-7.6923,-8.6312,-1.095,-16.934999,9.8522,-3.9744
3.6651,-11.302,-9.644,-10.784,-16.749001,-4.1224,-15.534,0.90615,-19.482,-10.784,-16.749001,-12.935,4.7619,4.6984,1.0794,-4.8077,-4.7665,5.6683,-16.934999,15.764,-3.0128
6.5087,-11.302,-8.6731,-3.9216,-14.778,-3.1562,-16.504999,8.6731,-19.482,-3.9216,-14.778,-12.935,9.5238,8.5079,4.8889,-0.96154,0.06441,26.924,-17.882999,18.719,-0.12821
10.3,-11.302,-5.7605,5.8824,-9.8522,0.70853,-15.534,13.528,-18.511,5.8824,-9.8522,-9.9502,13.333,11.365,7.746,0.0,2.963,27.889999,-19.778999,20.690001,0.83333
8.4044,-10.349,-4.7896,6.8627,-9.8522,3.6071,-14.563,14.498,-18.511,6.8627,-9.8522,-7.9602,11.429,9.4603,6.7937,-0.96154,2.963,13.398,-16.934999,18.719,-2.0513
2.7172,-11.302,-7.7023,2.9412,-8.867,3.6071,-9.7087,9.644,-13.657,2.9412,-8.867,-6.9652,7.619,4.6984,2.0317,-3.8462,-1.868,19.195,-13.144,15.764,-4.9359
-3.9179,-9.3968,-8.6731,-1.9608,-3.9409,-0.25765,-6.7961,5.7605,-2.0065,-1.9608,-3.9409,-4.9751,1.9048,-0.06349,-4.6349,-5.7692,-6.6989,14.364,-5.5608,11.823,-3.9744
-10.553,-4.6349,-7.7023,2.9412,3.9409,-4.1224,-1.9417,-0.06472,5.7605,2.9412,3.9409,-1.99,-3.8095,-5.7778,-12.254,-6.7308,-10.564,3.7359,2.0221,3.9409,-5.8974
-8.6572,3.9365,0.06472,8.8235,11.823,-2.19,7.767,0.90615,14.498,8.8235,11.823,3.9801,-6.6667,-7.6825,-11.302,-4.8077,-8.6312,-8.8245,6.7615,-0.98522,-5.8974
-2.0221,13.46,7.8317,9.8039,15.764,-0.25765,16.504999,-1.0356,18.382,9.8039,15.764,9.9502,-7.619,-8.6349,-5.5873,-0.96154,-4.7665,-10.757,16.24,0.0,-3.0128
5.5608,19.174999,15.599,8.8235,15.764,6.5056,21.358999,-0.06472,19.353001,8.8235,15.764,15.92,-6.6667,-7.6825,0.12698,2.8846,1.0306,-7.8583,13.397,-1.9704,-1.0897
10.3,20.127001,17.540001,8.8235,12.808,12.303,18.447001,2.8479,13.528,8.8235,12.808,16.915001,-3.8095,-2.9206,5.8413,7.6923,4.8953,-0.12882,5.8136,0.0,4.6795
7.4566,13.46,11.715,2.9412,5.9113,8.438,10.68,-2.0065,4.7896,2.9412,5.9113,8.9552,-0.95238,0.88889,6.7937,8.6538,5.8615,6.6345,8.6572,1.9704,9.4872
4.613,8.6984,5.89,-4.902,0.0,0.70853,5.8252,-4.9191,1.877,-4.902,0.0,1.99,3.8095,6.6032,7.746,10.577,8.7601,9.533,14.344,4.9261,12.372
3.6651,3.9365,2.0065,-8.8235,-4.9261,-7.9871,-0.97087,-9.7735,0.90615,-8.8235,-4.9261,-4.9751,8.5714,10.413,9.6508,11.538,10.692,2.7697,8.6572,7.8818,11.41
5.5608,2.9841,1.0356,-9.8039,-7.8818,-9.9195,-5.8252,-8.8026,-1.0356,-9.8039,-7.8818,-7.9602,13.333,15.175,13.46,13.462,13.591,-4.9597,5.8136,13.793,13.333
10.3,3.9365,4.9191,-5.8824,-9.8522,-6.0548,-7.767,-7.8317,-4.9191,-5.8824,-9.8522,-4.9751,17.143,19.937,20.127001,18.268999,18.422001,6.6345,5.8136,18.719,19.103001
15.987,4.8889,10.744,-4.902,-10.837,-2.19,-6.7961,-4.9191,-7.8317,-4.902,-10.837,-2.9851,21.905001,23.746,26.794001,22.115,24.219,15.33,4.8657,20.690001,19.103001
21.674999,6.7937,14.628,-2.9412,-4.9261,1.6747,-3.8835,-1.0356,-5.89,-2.9412,-4.9261,0.99502,22.857,23.746,30.603001,21.153999,27.118,14.364,1.0742,22.66,15.256
22.622,5.8413,15.599,0.98039,0.0,6.5056,0.0,3.8188,-3.9482,0.98039,0.0,5.9701,20.0,19.937,29.650999,17.308001,24.219,18.229,-2.7172,22.66,11.41
17.882999,1.0794,12.686,8.8235,2.9557,9.4042,3.8835,7.7023,-4.9191,8.8235,2.9557,6.9652,12.381,13.27,22.032,9.6154,17.455999,10.499,-4.613,15.764,4.6795
11.248,-2.7302,5.89,5.8824,1.9704,6.5056,0.97087,4.7896,-3.9482,5.8824,1.9704,4.9751,4.7619,7.5556,12.508,1.9231,8.7601,13.398,-11.248,10.837,-2.0513
4.613,-4.6349,2.9773,4.902,3.9409,6.5056,1.9417,7.7023,-1.0356,4.902,3.9409,4.9751,0.95238,3.746,2.9841,-2.8846,1.0306,9.533,-7.4566,6.8966,-3.0128
-0.12638,-6.5397,-0.90615,6.8627,9.8522,11.337,4.8544,12.557,4.7896,6.8627,9.8522,8.9552,-4.7619,-1.0159,-6.5397,-8.6538,-7.6651,3.7359,-2.7172,-0.98522,-4.9359
-5.8136,-12.254,-8.6731,5.8824,7.8818,10.37,1.9417,10.615,6.7314,5.8824,7.8818,6.9652,-12.381,-10.54,-17.016001,-18.268999,-17.327,4.7021,-2.7172,-9.8522,-11.667
-11.501,-17.016001,-13.528,5.8824,4.9261,5.5395,-2.9126,6.7314,6.7314,5.8824,4.9261,2.9851,-20.952,-21.016001,-23.683001,-25.962,-26.023001,-6.8921,-4.613,-13.793,-17.436001
-15.292,-15.111,-13.528,10.784,9.8522,-0.25765,-1.9417,3.8188,10.615,10.784,9.8522,0.99502,-27.618999,-27.683001,-27.492001,-28.846001,-29.886999,-8.8245,-2.7172,-19.704,-20.320999
-19.084,-10.349,-13.528,10.784,11.823,-6.0548,1.9417,-0.06472,10.615,10.784,11.823,0.0,-31.429001,-28.635,-28.444,-25.962,-28.921,-10.757,-1.7694,-21.674999,-20.320999
-16.24,-2.7302,-9.644,7.8431,12.808,-3.1562,7.767,-0.06472,10.615,7.8431,12.808,1.99,-26.667,-22.921,-25.587,-17.308001,-23.124001,-15.588,6.7615,-24.631001,-12.628
-13.397,2.0317,-6.7314,11.765,11.823,-0.25765,7.767,0.90615,11.586,11.765,11.823,3.9801,-22.857,-17.205999,-22.73,-10.577,-17.327,-6.8921,13.397,-25.615999,-7.8205
-13.397,2.9841,-6.7314,5.8824,0.98522,-2.19,0.0,-1.0356,5.7605,5.8824,0.98522,0.99502,-20.952,-13.397,-20.825001,-6.7308,-15.395,-6.8921,4.8657,-24.631001,-4.9359
-8.6572,5.8413,-1.877,-1.9608,-0.98522,-4.1224,0.0,-4.9191,2.8479,-1.9608,-0.98522,-0.99502,-12.381,-4.8254,-14.159,1.9231,-6.6989,-5.9259,4.8657,-18.719,3.7179
-5.8136,7.746,1.0356,-3.9216,-4.9261,-7.9871,-0.97087,-8.8026,1.877,-3.9216,-4.9261,-2.9851,-4.7619,1.8413,-6.5397,7.6923,1.0306,-8.8245,2.97,-10.837,10.449
-2.97,4.8889,0.06472,-2.9412,-4.9261,-7.0209,-5.8252,-8.8026,-3.9482,-2.9412,-4.9261,-3.9801,0.0,4.6984,-2.7302,7.6923,2.963,-11.723,-2.7172,-5.9113,9.4872
-1.0742,2.0317,1.0356,-7.8431,-5.9113,-4.1224,-7.767,-6.8608,-6.8608,-7.8431,-5.9113,-4.9751,2.8571,5.6508,0.12698,6.7308,3.9291,-0.12882,2.0221,-2.9557,9.4872
0.82148,3.9365,3.9482,-6.8627,-8.867,0.70853,-2.9126,-3.9482,-6.8608,-6.8627,-8.867,-2.9851,6.6667,6.6032,3.9365,6.7308,6.8277,0.83736,-0.82148,0.0,10.449
7.4566,9.6508,10.744,-7.8431,-3.9409,6.5056,3.8835,-0.06472,0.90615,-7.8431,-3.9409,3.9801,11.429,9.4603,12.508,10.577,13.591,2.7697,0.12638,7.8818,9.4872
12.196,13.46,14.628,0.98039,2.9557,8.438,9.7087,-1.0356,5.7605,0.98039,2.9557,8.9552,13.333,12.317,18.222,14.423,19.388,6.6345,7.7093,10.837,10.449
10.3,11.556,14.628,4.902,-0.98522,3.6071,8.7379,-4.9191,4.7896,4.902,-0.98522,7.9602,13.333,13.27,19.174999,16.346001,19.388,-0.12882,8.6572,7.8818,11.41
10.3,10.603,14.628,-0.98039,0.0,2.6409,6.7961,-5.89,5.7605,-0.98039,0.0,7.9602,13.333,13.27,18.222,16.346001,19.388,0.83736,7.7093,9.8522,12.372
5.5608,8.6984,11.715,-3.9216,0.98522,5.5395,8.7379,-7.8317,7.7023,-3.9216,0.98522,7.9602,11.429,11.365,13.46,14.423,14.557,3.7359,5.8136,9.8522,10.449
-2.0221,5.8413,5.89,0.98039,0.98522,3.6071,7.767,-6.8608,6.7314,0.98039,0.98522,5.9701,5.7143,5.6508,3.9365,8.6538,6.8277,-5.9259,6.7615,2.9557,6.6026
-5.8136,-0.8254,1.0356,2.9412,0.0,-0.25765,1.9417,-2.9773,3.8188,2.9412,0.0,3.9801,-1.9048,-1.9683,-3.6825,0.0,-1.868,0.83736,2.0221,-0.98522,1.7949
-4.8657,-7.4921,-2.8479,3.9216,1.9704,-0.25765,0.0,2.8479,0.90615,3.9216,1.9704,1.99,-5.7143,-6.7302,-7.4921,-6.7308,-6.6989,2.7697,-4.613,-2.9557,-5.8974
-5.8136,-12.254,-5.7605,2.9412,1.9704,-0.25765,-2.9126,2.8479,-0.06472,2.9412,1.9704,0.99502,-11.429,-11.492,-10.349,-12.5,-12.496,-3.9936,-2.7172,-5.9113,-11.667
-5.8136,-13.206,-7.7023,5.8824,2.9557,-0.25765,-3.8835,0.90615,1.877,5.8824,2.9557,0.0,-15.238,-14.349,-13.206,-16.346001,-15.395,-4.9597,-1.7694,-9.8522,-13.59
-4.8657,-11.302,-6.7314,7.8431,5.9113,1.6747,0.0,2.8479,1.877,7.8431,5.9113,2.9851,-16.190001,-15.302,-14.159,-15.385,-15.395,-5.9259,-4.613,-13.793,-10.705
-6.7615,-11.302,-7.7023,3.9216,5.9113,0.70853,-1.9417,2.8479,-0.06472,3.9216,5.9113,0.99502,-16.190001,-13.397,-14.159,-14.423,-15.395,-3.9936,-3.6651,-13.793,-10.705
-6.7615,-11.302,-7.7023,1.9608,3.9409,-3.1562,-3.8835,-0.06472,-3.9482,1.9608,3.9409,-0.99502,-15.238,-12.444,-13.206,-13.462,-14.428,-18.486,-8.4044,-12.808,-11.667
-2.97,-7.4921,-3.8188,6.8627,0.98522,-0.25765,-2.9126,3.8188,-6.8608,6.8627,0.98522,0.0,-11.429,-8.6349,-8.4444,-8.6538,-9.5974,-10.757,-7.4566,-8.867,-7.8205
-0.12638,-0.8254,1.0356,4.902,1.9704,1.6747,1.9417,3.8188,-6.8608,4.902,1.9704,2.9851,-6.6667,-2.9206,-3.6825,-1.9231,-2.8341,1.8035,-11.248,-2.9557,-3.0128
2.7172,3.9365,4.9191,2.9412,4.9261,2.6409,4.8544,2.8479,-1.0356,2.9412,4.9261,4.9751,-2.8571,1.8413,2.0317,3.8462,2.963,8.5668,-4.613,0.98522,3.7179
3.6651,8.6984,5.89,2.9412,5.9113,2.6409,9.7087,-2.0065,1.877,2.9412,5.9113,4.9751,-2.8571,3.746,2.9841,7.6923,4.8953,2.7697,3.9179,0.0,9.4872
2.7172,12.508,6.8608,1.9608,5.9113,3.6071,9.7087,-1.0356,4.7896,1.9608,5.9113,3.9801,-2.8571,3.746,3.9365,9.6154,5.8615,-3.0274,4.8657,1.9704,10.449
3.6651,12.508,7.8317,4.902,5.9113,3.6071,7.767,0.90615,6.7314,4.902,5.9113,4.9751,-1.9048,3.746,5.8413,10.577,5.8615,-2.0612,6.7615,1.9704,8.5256
3.6651,11.556,7.8317,4.902,2.9557,2.6409,5.8252,0.90615,7.7023,4.902,2.9557,3.9801,0.95238,4.6984,6.7937,11.538,7.7939,0.83736,7.7093,1.9704,9.4872
7.4566,12.508,7.8317,1.9608,2.9557,1.6747,5.8252,1.877,6.7314,1.9608,2.9557,2.9851,7.619,8.5079,10.603,14.423,11.659,8.5668,10.553,7.8818,12.372
5.5608,9.6508,4.9191,-1.9608,0.0,-0.25765,0.97087,-1.0356,4.7896,-1.9608,0.0,-0.99502,11.429,10.413,11.556,13.462,12.625,9.533,10.553,13.793,11.41
-1.0742,2.0317,-1.877,-6.8627,-3.9409,-7.0209,-3.8835,-6.8608,1.877,-6.8627,-3.9409,-6.9652,7.619,6.6032,5.8413,6.7308,5.8615,6.6345,4.8657,10.837,5.641
-5.8136,-3.6825,-7.7023,-10.784,-1.9704,-6.0548,-4.8544,-6.8608,2.8479,-10.784,-1.9704,-7.9602,1.9048,-0.06349,-1.7778,-1.9231,-1.868,-0.12882,-0.82148,1.9704,-0.12821
-7.7093,-5.5873,-8.6731,-5.8824,0.0,-4.1224,-3.8835,-6.8608,4.7896,-5.8824,0.0,-6.9652,-4.7619,-6.7302,-8.4444,-8.6538,-8.6312,-7.8583,1.0742,-6.8966,-5.8974
-7.7093,-2.7302,-6.7314,1.9608,2.9557,-3.1562,0.97087,-2.0065,5.7605,1.9608,2.9557,-3.9801,-8.5714,-9.5873,-11.302,-10.577,-10.564,-11.723,4.8657,-9.8522,-7.8205
-5.8136,0.12698,-3.8188,5.8824,5.9113,0.70853,3.8835,3.8188,7.7023,5.8824,5.9113,0.0,-9.5238,-10.54,-10.349,-10.577,-9.5974,-7.8583,2.0221,-8.867,-10.705
-0.12638,1.0794,0.06472,7.8431,8.867,5.5395,6.7961,4.7896,9.644,7.8431,8.867,4.9751,-6.6667,-6.7302,-5.5873,-6.7308,-5.7327,-6.8921,3.9179,-8.867,-10.705
5.5608,3.9365,4.9191,6.8627,8.867,7.4718,9.7087,4.7896,8.6731,6.8627,8.867,8.9552,-1.9048,-1.0159,2.0317,-0.96154,1.0306,-10.757,3.9179,-4.9261,-5.8974
6.5087,6.7937,6.8608,4.902,9.8522,8.438,13.592,1.877,4.7896,4.902,9.8522,9.9502,2.8571,5.6508,5.8413,4.8077,5.8615,-12.689,0.12638,0.98522,1.7949
3.6651,3.9365,3.9482,8.8235,7.8818,5.5395,7.767,2.8479,1.877,8.8235,7.8818,6.9652,5.7143,8.5079,3.9365,5.7692,6.8277,-5.9259,0.12638,2.9557,6.6026
0.82148,0.12698,1.0356,3.9216,4.9261,0.70853,0.0,-0.06472,-0.06472,3.9216,4.9261,1.99,6.6667,9.4603,2.9841,5.7692,5.8615,4.7021,0.12638,6.8966,7.5641
-2.97,-2.7302,-3.8188,-6.8627,-2.9557,-5.0886,-3.8835,-5.89,-2.0065,-6.8627,-2.9557,-3.9801,4.7619,7.5556,1.0794,1.9231,1.9968,2.7697,2.97,6.8966,7.5641
-3.9179,-4.6349,-6.7314,-11.765,-3.9409,-8.9533,-3.8835,-7.8317,-3.9482,-11.765,-3.9409,-6.9652,0.95238,2.7937,-1.7778,-1.9231,-2.8341,-8.8245,3.9179,0.98522,6.6026
-4.8657,-2.7302,-5.7605,-9.8039,-5.9113,-9.9195,-3.8835,-7.8317,-2.0065,-9.8039,-5.9113,-7.9602,-1.9048,0.88889,-2.7302,-2.8846,-3.8003,-2.0612,4.8657,0.98522,3.7179
-2.0221,1.0794,-1.877,-5.8824,-5.9113,-6.0548,-2.9126,-3.9482,-1.0356,-5.8824,-5.9113,-4.9751,3.8095,5.6508,2.0317,2.8846,1.9968,5.6683,4.8657,6.8966,8.5256
1.7694,2.9841,1.0356,-12.745,-6.8966,-3.1562,-2.9126,-2.9773,-2.9773,-12.745,-6.8966,-2.9851,8.5714,10.413,5.8413,9.6154,6.8277,-2.0612,2.97,11.823,12.372
2.7172,5.8413,2.9773,-15.686,-10.837,-4.1224,2.9126,-5.89,-4.9191,-15.686,-10.837,-1.99,11.429,12.317,7.746,13.462,10.692,-5.9259,2.0221,9.8522,12.372
3.6651,9.6508,4.9191,-6.8627,-10.837,-3.1562,3.8835,-4.9191,-4.9191,-6.8627,-10.837,-1.99,13.333,13.27,9.6508,16.346001,13.591,0.83736,3.9179,9.8522,13.333
7.4566,13.46,9.7735,-1.9608,-2.9557,1.6747,6.7961,0.90615,-1.0356,-1.9608,-2.9557,1.99,17.143,17.079,15.365,22.115,19.388,15.33,5.8136,11.823,16.218
11.248,15.365,13.657,0.98039,3.9409,5.5395,10.68,3.8188,2.8479,0.98039,3.9409,7.9602,19.048,18.983999,19.174999,23.077,22.287001,7.6006,4.8657,13.793,14.295
13.144,17.27,17.540001,7.8431,6.8966,7.4718,15.534,7.7023,5.7605,7.8431,6.8966,14.925,18.094999,17.079,20.127001,23.077,23.253,13.398,3.9179,15.764,14.295
9.3523,11.556,15.599,11.765,6.8966,8.438,15.534,6.7314,3.8188,11.765,6.8966,15.92,13.333,10.413,15.365,15.385,16.49,14.364,-1.7694,11.823,6.6026
2.7172,4.8889,9.7735,8.8235,5.9113,9.4042,9.7087,1.877,1.877,8.8235,5.9113,11.94,6.6667,3.746,7.746,6.7308,8.7601,-1.095,-9.3523,4.9261,-2.0513
-0.12638,1.0794,6.8608,3.9216,4.9261,6.5056,8.7379,-2.0065,-1.0356,3.9216,4.9261,9.9502,2.8571,-1.0159,2.9841,0.0,2.963,-1.095,-6.5087,-0.98522,-5.8974
-2.97,1.0794,3.9482,-1.9608,-1.9704,2.6409,4.8544,-3.9482,-4.9191,-1.9608,-1.9704,3.9801,0.95238,-1.9683,2.0317,-0.96154,1.0306,-8.8245,-1.7694,-0.98522,-3.0128
0.82148,4.8889,5.89,-2.9412,-4.9261,-0.25765,2.9126,-4.9191,-2.9773,-2.9412,-4.9261,1.99,5.7143,2.7937,3.9365,4.8077,4.8953,-10.757,4.8657,0.0,4.6795
1.7694,4.8889,3.9482,-8.8235,-9.8522,-4.1224,-1.9417,-5.89,-2.0065,-8.8235,-9.8522,-1.99,7.619,5.6508,3.9365,6.7308,5.8615,-12.689,9.6051,-0.98522,9.4872
-0.12638,-1.7778,-2.8479,-11.765,-12.808,-7.9871,-8.7379,-7.8317,-6.8608,-11.765,-12.808,-8.9552,8.5714,4.6984,1.0794,3.8462,1.9968,-19.452,5.8136,0.0,10.449
2.7172,-4.6349,-6.7314,-9.8039,-15.764,-6.0548,-15.534,-4.9191,-13.657,-9.8039,-15.764,-11.94,12.381,8.5079,2.9841,4.8077,2.963,-6.8921,2.97,5.9113,12.372
-3.9179,-9.3968,-14.498,-13.725,-17.733999,-10.886,-21.358999,-7.8317,-9.7735,-13.725,-17.733999,-18.905001,9.5238,6.6032,-1.7778,0.96154,-2.8341,2.7697,-0.82148,6.8966,9.4872
-9.6051,-13.206,-20.323999,-19.608,-20.690001,-16.683001,-24.271999,-8.8026,-4.9191,-19.608,-20.690001,-24.875999,6.6667,2.7937,-7.4921,-2.8846,-7.6651,-3.0274,-1.7694,3.9409,5.641
-3.9179,-11.302,-17.410999,-14.706,-16.749001,-12.818,-19.417,-3.9482,-6.8608,-14.706,-16.749001,-19.9,8.5714,5.6508,-4.6349,-0.96154,-4.7665,-7.8583,-4.613,6.8966,5.641
-1.0742,-8.4444,-14.498,-10.784,-13.793,-6.0548,-13.592,-1.0356,-5.89,-10.784,-13.793,-12.935,10.476,6.6032,-2.7302,0.96154,-2.8341,0.83736,-2.7172,9.8522,6.6026
-1.0742,-7.4921,-11.586,-8.8235,-9.8522,-2.19,-8.7379,1.877,-3.9482,-8.8235,-9.8522,-7.9602,11.429,6.6032,-1.7778,0.0,-1.868,15.33,-3.6651,9.8522,2.7564
0.82148,-6.5397,-8.6731,0.98039,-1.9704,1.6747,-5.8252,5.7605,-1.0356,0.98039,-1.9704,-2.9851,9.5238,3.746,0.12698,-2.8846,-1.868,16.296,-4.613,7.8818,-2.0513
1.7694,-5.5873,-4.7896,7.8431,2.9557,5.5395,-0.97087,5.7605,2.8479,7.8431,2.9557,1.99,7.619,1.8413,0.12698,-4.8077,-1.868,8.5668,-7.4566,5.9113,-5.8974
-1.0742,-3.6825,-2.8479,4.902,5.9113,4.5733,1.9417,1.877,4.7896,4.902,5.9113,3.9801,4.7619,-1.0159,0.12698,-5.7692,-1.868,3.7359,-6.5087,6.8966,-7.8205
-1.0742,0.12698,2.0065,0.98039,5.9113,4.5733,4.8544,0.90615,6.7314,0.98039,5.9113,5.9701,3.8095,-1.0159,1.0794,-3.8462,0.06441,1.8035,-2.7172,1.9704,-4.9359
-0.12638,0.12698,3.9482,-0.98039,5.9113,2.6409,3.8835,-2.0065,5.7605,-0.98039,5.9113,4.9751,2.8571,-0.06349,1.0794,-1.9231,1.9968,-5.9259,-2.7172,-1.9704,-5.8974
-0.12638,1.0794,4.9191,0.0,3.9409,-1.2238,2.9126,-3.9482,5.7605,0.0,3.9409,2.9851,3.8095,1.8413,2.0317,0.96154,3.9291,-7.8583,-1.7694,0.0,-6.859
-2.97,2.0317,2.9773,-4.902,1.9704,-6.0548,0.97087,-7.8317,4.7896,-4.902,1.9704,-2.9851,1.9048,2.7937,0.12698,1.9231,2.963,-3.0274,3.9179,0.0,-3.0128
-4.8657,2.9841,0.06472,-9.8039,0.98522,-6.0548,-1.9417,-5.89,5.7605,-9.8039,0.98522,-3.9801,-0.95238,0.88889,-4.6349,0.0,-0.90177,-10.757,5.8136,-5.9113,-1.0897
