C3,C4,Cz,F1,F2,F3,F4,F7,F8,Fp1,Fp2,Fz,O1,O2,P3,P4,Pz,T3,T4,T5,T6
-13.965,-10.032,-10.407,-2.6409,0.0,-7.9612,-3.252,-6.5056,-4.5955,-2.6409,0.0,-5.2941,-5.0794,-16.013,-7.5556,-16.827999,-14.171,-8.5024,-8.1517,-5.2288,-9.7907
-17.757,-14.476,-15.61,-4.5733,-2.6403,-14.434,-8.4553,-6.5056,-7.1845,-4.5733,-2.6403,-11.83,-4.4444,-14.099,-9.4603,-16.827999,-14.815,-5.9259,-8.7836,-8.4967,-9.7907
-10.806,-14.476,-16.910999,-7.1498,-9.2409,-17.67,-14.309,-6.5056,-11.715,-7.1498,-9.2409,-17.712,-3.8095,-13.461,-6.9206,-16.827999,-13.527,-1.4171,-10.047,-7.1895,-10.435
-13.333,-15.746,-20.163,-8.438,-15.182,-19.612,-21.462999,-3.285,-17.540001,-8.438,-15.182,-24.247999,-5.0794,-12.823,-6.2857,-17.476,-14.171,2.4477,-13.839,-5.8824,-11.079
-8.91,-18.921,-20.813,-11.659,-18.482,-18.316999,-26.667,-1.9968,-18.188,-11.659,-18.482,-26.863001,-6.3492,-10.271,-5.0159,-15.534,-12.882,1.8035,-10.679,-5.8824,-7.8583
-4.4866,-19.556,-18.211,-11.659,-17.822001,-11.845,-26.016001,-0.70853,-16.893,-11.659,-17.822001,-22.941,-8.254,-7.0813,-5.6508,-12.298,-12.238,3.7359,-7.5197,-6.5359,-5.2818
-5.1185,-13.841,-16.26,-7.7939,-13.861,-7.3139,-21.462999,1.868,-16.246,-7.7939,-13.861,-18.365999,-10.159,-4.5295,-7.5556,-8.4142,-12.238,6.3124,-6.8878,-5.2288,-1.4171
-4.4866,-16.381001,-19.511999,-8.438,-14.521,-5.3722,-22.114,-1.3527,-14.951,-8.438,-14.521,-16.405001,-13.968,-5.8054,-10.73,-9.0615,-14.815,5.0242,-4.9921,-7.8431,0.5153
-10.174,-17.650999,-24.715,-9.0821,-13.201,-9.2557,-22.114,-0.70853,-13.657,-9.0821,-13.201,-16.405001,-20.316999,-8.9952,-17.079,-12.298,-19.968,1.1594,-5.624,-13.725,-0.77295
-14.597,-16.381001,-25.365999,-9.7262,-13.201,-12.492,-20.163,-2.6409,-12.362,-9.7262,-13.201,-16.405001,-24.127001,-12.185,-18.983999,-14.239,-21.256001,1.1594,-5.624,-14.379,-1.4171
-8.91,-17.650999,-23.415001,-7.1498,-11.881,-12.492,-18.862,-3.285,-13.01,-7.1498,-11.881,-14.444,-23.492001,-13.461,-13.905,-14.239,-19.323999,1.8035,-6.2559,-11.111,-2.7053
-7.6461,-17.650999,-22.764,-7.7939,-9.901,-12.492,-17.561001,-6.5056,-11.715,-7.7939,-9.901,-14.444,-22.222,-14.099,-10.095,-14.887,-18.035,2.4477,-8.7836,-7.8431,-4.6377
-17.125,-17.650999,-25.365999,-7.7939,-6.6007,-13.139,-14.959,-7.1498,-8.479,-7.7939,-6.6007,-14.444,-23.492001,-16.013,-12.635,-16.827999,-21.256001,2.4477,-10.047,-8.4967,-4.6377
-22.18,-13.206,-23.415001,-2.6409,-5.2805,-10.55,-9.7561,-3.285,-5.2427,-2.6409,-5.2805,-9.2157,-24.127001,-16.650999,-18.983999,-16.827999,-25.121,-0.77295,-4.3602,-10.458,-4.6377
-14.597,-11.937,-13.659,0.57971,-1.3201,-5.3722,-3.252,-1.3527,-2.0065,0.57971,-1.3201,-2.6797,-21.587,-13.461,-17.714001,-13.592,-22.544001,-5.9259,0.06319,-9.1503,-3.3494
-11.438,-10.032,-6.5041,-0.70853,0.0,-3.4304,0.0,-2.6409,0.58252,-0.70853,0.0,-0.06536,-16.507999,-9.6332,-14.54,-12.298,-18.035,-2.0612,-3.0964,-9.8039,-3.9936
6.2559,-3.0476,4.5528,1.868,1.3201,5.6311,7.1545,-0.06441,3.8188,1.868,1.3201,6.4706,-5.7143,-3.8915,0.69841,-8.4142,-7.0853,3.0918,-1.2006,0.0,-2.7053
11.943,-2.4127,7.1545,2.5121,1.9802,6.2783,7.1545,2.5121,2.5243,2.5121,1.9802,7.7778,2.5397,0.57416,10.222,-6.4725,-1.2882,5.0242,-2.4645,6.5359,-2.7053
12.575,-1.1429,5.8537,3.1562,3.3003,5.6311,4.5528,5.0886,-0.06472,3.1562,3.3003,7.1242,7.619,4.4019,12.762,-2.589,2.5765,6.3124,-2.4645,7.8431,-2.0612
10.679,0.12698,2.6016,0.57971,-1.3201,3.0421,0.0,3.1562,-2.0065,0.57971,-1.3201,3.2026,9.5238,6.9537,12.127,3.2362,6.4412,3.0918,-1.8325,6.5359,1.1594
8.1517,7.1111,0.65041,-3.9291,-7.9208,-1.4887,-3.252,-4.5733,-3.9482,-3.9291,-7.9208,-1.3725,9.5238,8.8676,10.222,9.0615,9.6618,-0.77295,0.6951,3.9216,5.0242
1.2006,11.556,1.3008,-2.6409,-4.6205,-4.0777,-0.65041,-3.9291,-0.06472,-2.6409,-4.6205,-2.0261,8.8889,8.8676,8.3175,13.592,12.238,-4.6377,8.278,5.2288,8.2448
-3.8547,14.73,3.252,-1.9968,0.0,-4.7249,3.9024,-3.9291,5.7605,-1.9968,0.0,-0.71895,5.7143,8.2297,2.6032,15.534,12.238,-7.2142,15.861,-1.3072,11.465
-7.0142,17.905001,5.8537,0.57971,4.6205,-2.7832,9.1057,-4.5733,9.644,0.57971,4.6205,1.8954,0.0,5.0399,-6.2857,12.945,9.0177,-9.7907,16.493,-9.8039,11.465
-3.2227,18.540001,11.057,7.6651,9.901,3.0421,13.008,0.57971,14.175,7.6651,9.901,5.1634,-3.1746,-0.0638,-8.8254,7.767,5.7971,-14.944,15.229,-10.458,8.8889
0.56872,13.46,13.008,8.9533,8.5809,3.6893,12.358,-0.06441,12.233,8.9533,8.5809,5.817,-3.1746,-2.6156,-8.1905,2.589,3.2206,-14.3,10.174,-7.1895,5.0242
-3.2227,5.8413,8.4553,5.7327,4.6205,1.7476,6.5041,-0.06441,8.3495,5.7327,4.6205,1.8954,0.0,-0.70175,-7.5556,-1.2945,1.2882,-9.1465,5.1185,-2.6144,3.0918
-5.7504,2.0317,3.9024,5.0886,5.2805,-0.19417,5.8537,1.2238,6.4078,5.0886,5.2805,1.8954,3.8095,1.2121,-6.2857,-2.589,-0.64412,-7.8583,0.6951,0.65359,2.4477
-1.327,3.9365,4.5528,9.5974,6.6007,3.0421,8.4553,3.1562,4.466,9.5974,6.6007,6.4706,8.8889,5.0399,-1.2063,-1.9417,0.0,-7.8583,-0.56872,9.1503,3.0918
-2.5908,0.7619,3.9024,10.242,5.2805,5.6311,7.1545,3.1562,1.877,10.242,5.2805,6.4706,8.254,6.3158,-5.0159,-1.2945,-1.9324,-4.6377,0.6951,4.5752,2.4477
-0.6951,2.6667,4.5528,6.3768,0.0,3.6893,4.5528,2.5121,-0.06472,6.3768,0.0,3.8562,8.8889,8.8676,-6.2857,2.589,-1.2882,-6.57,1.327,1.3072,3.0918
-3.8547,6.4762,5.8537,3.8003,-1.9802,1.1003,3.252,0.57971,-2.6537,3.8003,-1.9802,1.8954,10.794,13.333,-6.2857,9.0615,1.9324,-7.2142,0.6951,2.6144,5.6683
-5.1185,6.4762,0.65041,1.868,-3.9604,-1.4887,1.9512,-1.9968,-4.5955,1.868,-3.9604,0.58824,10.159,16.523001,-8.1905,12.945,2.5765,-11.079,1.9589,0.0,8.8889
-2.5908,7.746,-0.65041,3.1562,-0.66007,1.1003,6.5041,-2.6409,-2.6537,3.1562,-0.66007,5.1634,10.794,18.437,-6.9206,16.181,3.8647,-13.011,4.4866,0.0,10.821
4.9921,12.19,6.5041,8.9533,5.9406,8.8673,13.659,1.2238,0.58252,8.9533,5.9406,14.314,12.063,17.799,-3.746,16.827999,7.0853,-13.011,3.8547,2.6144,10.821
10.679,14.095,16.26,15.395,13.201,18.576,19.511999,7.0209,3.1715,15.395,13.201,23.464001,10.794,14.609,-4.381,14.887,9.0177,-7.8583,5.7504,-2.6144,10.821
2.4645,9.6508,20.163,16.683001,15.182,19.871,18.862,9.5974,3.8188,16.683001,15.182,25.424999,5.7143,8.2297,-11.365,10.356,6.4412,-2.7053,4.4866,-7.8431,7.6006
2.4645,7.746,22.764,14.75,13.201,19.871,18.211,10.242,4.466,14.75,13.201,25.424999,3.8095,5.6778,-13.27,7.1197,5.153,-2.7053,4.4866,-5.8824,7.6006
4.9921,7.1111,19.511999,13.462,11.221,17.282,16.910999,7.6651,4.466,13.462,11.221,23.464001,1.2698,4.4019,-15.175,5.178,1.9324,-6.57,5.1185,-6.5359,7.6006
-1.327,2.6667,10.407,12.174,9.901,11.456,11.707,5.0886,5.1133,12.174,9.901,16.927999,-0.63492,2.488,-18.349001,2.589,-2.5765,-7.8583,5.1185,-7.8431,7.6006
-0.06319,0.7619,2.6016,12.174,7.9208,8.2201,7.8049,6.3768,5.1133,12.174,7.9208,11.699,-1.2698,1.8501,-15.175,1.2945,-5.153,-9.1465,4.4866,-7.1895,6.9565
1.2006,2.0317,-4.5528,5.7327,4.6205,3.0421,2.6016,1.2238,2.5243,5.7327,4.6205,5.1634,1.2698,3.126,-8.1905,1.2945,-4.5089,-9.1465,3.8547,-0.65359,7.6006
-4.4866,1.3968,-11.707,-3.285,-3.3003,-6.0194,-3.9024,-1.3527,-0.71197,-3.285,-3.3003,-4.6405,2.5397,5.0399,-7.5556,1.9417,-5.153,-5.9259,3.2227,-3.268,7.6006
-8.278,-4.3175,-17.561001,-9.7262,-11.881,-14.434,-11.707,-5.2174,-3.9482,-9.7262,-11.881,-14.444,3.8095,7.5917,-8.1905,3.2362,-5.7971,-5.2818,1.9589,-5.2288,6.9565
-9.5419,-6.8571,-18.862,-8.438,-13.861,-13.786,-14.959,-5.2174,-5.2427,-8.438,-13.861,-18.365999,5.0794,10.144,-9.4603,4.5307,-5.7971,-5.2818,3.2227,-3.268,6.9565
-9.5419,-6.8571,-16.910999,-5.8615,-11.221,-13.139,-16.910999,-1.9968,-7.1845,-5.8615,-11.221,-19.02,3.8095,10.781,-12.0,3.8835,-5.7971,-6.57,2.5908,-5.2288,5.6683
-8.278,-6.2222,-11.707,-5.2174,-10.561,-11.845,-14.959,-3.285,-7.8317,-5.2174,-10.561,-16.405001,1.2698,9.5056,-14.54,2.589,-5.153,-7.8583,1.327,-6.5359,5.0242
-13.965,-7.4921,-9.7561,-1.9968,-8.5809,-9.9029,-14.309,-1.9968,-9.1262,-1.9968,-8.5809,-15.098,-3.1746,5.6778,-18.349001,-2.589,-8.3736,-7.2142,-3.0964,-11.111,2.4477
-17.125,-8.127,-7.8049,-1.9968,-6.6007,-12.492,-11.057,-0.70853,-9.1262,-1.9968,-6.6007,-13.791,-6.3492,1.2121,-19.618999,-6.4725,-10.306,-10.435,-4.3602,-13.725,-0.12882
-12.07,-4.9524,-5.2033,-4.5733,-3.9604,-9.2557,-7.1545,-0.06441,-9.1262,-4.5733,-3.9604,-10.523,-8.254,-3.8915,-17.079,-8.4142,-10.95,-10.435,-4.9921,-9.8039,-1.4171
-11.438,-6.8571,-7.1545,-3.285,-6.6007,-6.0194,-7.1545,2.5121,-9.7735,-3.285,-6.6007,-9.2157,-14.603,-10.909,-20.889,-11.003,-15.459,-5.2818,-6.2559,-11.765,-5.2818
-5.7504,-6.8571,-6.5041,1.2238,-7.9208,-0.19417,-5.2033,4.4444,-7.1845,1.2238,-7.9208,-5.9477,-17.143,-13.461,-19.618999,-9.0615,-16.103001,-0.12882,-7.5197,-9.1503,-5.9259
-5.7504,-5.5873,-9.7561,4.4444,-3.9604,1.7476,-2.6016,8.3092,-5.2427,4.4444,-3.9604,-3.3333,-17.143,-15.375,-15.81,-9.0615,-15.459,3.0918,-3.7283,-3.268,-7.2142
-5.7504,-4.3175,-12.358,7.0209,1.9802,2.3948,1.3008,10.242,-3.9482,7.0209,1.9802,-1.3725,-15.238,-17.927,-11.365,-11.003,-14.815,7.6006,-3.7283,0.65359,-9.1465
1.2006,-2.4127,-9.7561,6.3768,1.9802,4.3366,4.5528,7.0209,-2.0065,6.3768,1.9802,1.2418,-10.794,-18.565001,-5.0159,-11.65,-11.594,6.3124,-4.3602,5.8824,-11.079
3.7283,1.3968,-3.9024,9.5974,1.9802,7.5728,7.8049,6.3768,-0.06472,9.5974,1.9802,5.817,-11.429,-19.202999,-5.6508,-11.65,-10.95,3.7359,-3.7283,5.8824,-12.367
-1.327,6.4762,1.3008,7.0209,1.9802,3.6893,8.4553,5.0886,1.2298,7.0209,1.9802,5.1634,-11.429,-17.289,-7.5556,-7.1197,-8.3736,-3.3494,-3.7283,0.0,-12.367
-12.07,2.6667,0.65041,2.5121,1.3201,-2.1359,3.9024,4.4444,-2.6537,2.5121,1.3201,1.2418,-10.794,-15.375,-12.0,-5.178,-7.0853,0.5153,-6.2559,-4.5752,-12.367
-10.806,-3.6825,-0.65041,3.8003,-2.6403,-0.84142,-3.252,5.0886,-6.5372,3.8003,-2.6403,-0.71895,-8.254,-14.099,-10.73,-5.178,-5.153,4.38,-5.624,-3.9216,-11.723
-2.5908,-4.9524,-1.9512,3.8003,-5.2805,1.1003,-6.5041,5.7327,-7.8317,3.8003,-5.2805,-2.0261,-3.8095,-12.823,-4.381,-5.8252,-1.2882,2.4477,-5.624,-3.268,-10.435
10.047,-4.3175,2.6016,0.57971,-3.9604,4.3366,-3.252,3.1562,-4.5955,0.57971,-3.9604,1.2418,0.0,-10.271,3.2381,-4.5307,3.2206,0.5153,-4.9921,-1.9608,-9.1465
7.5197,0.12698,5.8537,1.868,-1.3201,6.2783,3.252,6.3768,-2.0065,1.868,-1.3201,7.1242,0.63492,-7.7193,4.5079,-2.589,4.5089,4.38,-3.0964,-1.9608,-7.2142
8.1517,3.3016,11.057,5.7327,0.66007,11.456,7.8049,10.242,-0.71197,5.7327,0.66007,13.66,0.63492,-5.1675,5.7778,0.0,4.5089,7.6006,-1.2006,1.9608,-5.2818
14.471,3.9365,16.26,8.9533,1.3201,14.693,9.1057,11.53,-2.6537,8.9533,1.3201,17.582001,0.0,-4.5295,8.9524,1.9417,5.7971,8.2448,-2.4645,2.6144,-3.3494
11.943,3.9365,11.057,3.8003,-3.3003,10.809,3.9024,7.0209,-6.5372,3.8003,-3.3003,11.699,2.5397,-0.0638,10.222,5.178,7.0853,8.2448,-4.9921,1.9608,-1.4171
11.311,-1.7778,3.252,0.57971,-3.9604,6.9256,-0.65041,3.1562,-6.5372,0.57971,-3.9604,6.4706,10.794,8.2297,15.302,8.4142,10.95,6.3124,-3.0964,7.8431,2.4477
11.311,-3.6825,1.3008,2.5121,-1.9802,6.2783,-1.3008,3.8003,-5.89,2.5121,-1.9802,5.1634,18.413,14.609,21.016001,10.356,14.815,6.9565,-3.7283,13.725,4.38
6.8878,-0.50794,1.9512,1.868,-0.66007,4.9838,0.0,2.5121,-6.5372,1.868,-0.66007,3.2026,21.587,17.799,21.650999,11.003,17.391001,11.465,-3.7283,15.686,5.6683
-3.2227,-1.1429,-1.9512,-0.70853,-3.9604,-2.7832,-3.252,1.2238,-7.1845,-0.70853,-3.9604,-4.6405,20.316999,17.799,16.570999,11.003,15.459,10.821,-1.2006,13.725,6.3124
-5.7504,-1.7778,-5.8537,1.2238,-2.6403,-6.6667,-7.1545,0.57971,-6.5372,1.2238,-2.6403,-9.8693,13.968,14.609,7.0476,8.4142,8.3736,3.0918,0.06319,10.458,5.6683
-15.861,-6.2222,-15.61,3.8003,1.3201,-7.9612,-10.407,4.4444,-5.2427,3.8003,1.3201,-13.791,2.5397,3.764,-7.5556,-1.9417,-6.4412,2.4477,-2.4645,9.1503,0.5153
-26.603001,-9.3968,-28.618,1.2238,0.0,-10.55,-13.008,1.868,-4.5955,1.2238,0.0,-16.405001,-12.698,-11.547,-24.063,-16.181,-25.121,4.38,-6.8878,-2.6144,-7.8583
-20.284,-15.746,-31.870001,-1.3527,-0.66007,-6.0194,-11.707,0.57971,-3.301,-1.3527,-0.66007,-13.137,-22.222,-25.582001,-27.238001,-28.479,-36.070999,4.38,-10.679,-9.8039,-17.52
-6.3823,-17.650999,-21.462999,2.5121,1.3201,2.3948,-6.5041,5.7327,-0.06472,2.5121,1.3201,-4.6405,-22.857,-32.599998,-17.079,-32.362,-33.493999,6.9565,-11.943,-5.8824,-21.385
3.0964,-13.206,-7.8049,3.8003,1.9802,5.6311,-2.6016,6.3768,-0.71197,3.8003,1.9802,0.58824,-18.413,-31.323999,-4.381,-27.184,-22.544001,6.3124,-9.4155,-2.6144,-18.164
8.1517,-8.7619,3.9024,0.57971,1.3201,4.3366,-2.6016,2.5121,-2.0065,0.57971,1.3201,1.8954,-10.794,-23.030001,5.1429,-16.827999,-9.6618,4.38,-5.624,-1.3072,-11.723
10.047,-3.0476,11.057,-3.9291,-1.3201,1.7476,-3.252,-3.285,-2.6537,-3.9291,-1.3201,1.2418,-2.5397,-12.823,10.857,-5.178,2.5765,6.3124,-3.0964,0.65359,-6.57
8.7836,-0.50794,8.4553,-8.438,-2.6403,-4.0777,-7.1545,-5.8615,-2.6537,-8.438,-2.6403,-4.6405,4.4444,-3.2536,15.937,3.8835,9.6618,6.3124,-1.2006,2.6144,-2.0612
9.4155,0.12698,-0.65041,-14.235,-5.9406,-9.9029,-10.407,-9.0821,-3.9482,-14.235,-5.9406,-11.83,12.698,5.0399,22.285999,7.767,12.882,3.0918,-0.56872,11.111,1.1594
4.9921,-5.5873,-13.659,-16.812,-9.2409,-14.434,-15.61,-12.303,-5.2427,-16.812,-9.2409,-19.673,14.603,8.8676,20.381001,7.1197,10.95,3.7359,-2.4645,8.4967,1.8035
-4.4866,-9.3968,-15.61,-17.455999,-11.881,-17.67,-15.61,-11.014,-3.9482,-17.455999,-11.881,-20.98,13.968,11.419,16.570999,7.1197,10.95,6.3124,-3.7283,5.8824,1.1594
-4.4866,-4.9524,-3.9024,-14.879,-10.561,-13.139,-10.407,-10.37,-2.0065,-14.879,-10.561,-15.098,15.873,15.885,17.205999,10.356,16.103001,5.6683,-1.2006,8.4967,3.0918
-0.06319,-0.50794,4.5528,-11.659,-2.6403,-8.6084,-4.5528,-10.37,0.58252,-11.659,-2.6403,-8.5621,15.873,17.160999,15.937,11.003,18.68,1.1594,1.9589,9.1503,3.0918
-6.3823,0.12698,3.9024,-5.8615,1.3201,-6.0194,0.65041,-6.5056,3.8188,-5.8615,1.3201,-3.9869,12.063,14.609,8.3175,7.1197,14.815,-0.12882,-0.56872,8.4967,1.1594
-12.701,2.0317,3.252,2.5121,5.2805,1.1003,8.4553,-0.70853,7.055,2.5121,5.2805,3.8562,3.8095,10.144,-3.1111,1.2945,6.4412,2.4477,-1.2006,1.9608,-2.0612
-12.07,2.6667,5.8537,5.0886,9.901,4.9838,12.358,-1.3527,8.3495,5.0886,9.901,9.7386,-4.4444,5.0399,-10.73,-3.8835,0.0,1.1594,-0.56872,-1.3072,-3.9936
-3.8547,4.5714,9.7561,5.7327,11.221,7.5728,12.358,-2.6409,7.7023,5.7327,11.221,13.007,-10.794,-1.9777,-10.73,-5.8252,-2.5765,1.1594,0.06319,-5.2288,-5.2818
5.624,10.286,10.407,2.5121,7.9208,6.9256,10.407,-3.9291,5.7605,2.5121,7.9208,11.046,-13.333,-5.1675,-6.9206,-3.2362,-3.2206,-0.12882,0.06319,-6.5359,-3.9936
2.4645,9.0159,9.1057,-0.70853,4.6205,3.0421,4.5528,-5.2174,4.466,-0.70853,4.6205,5.817,-13.333,-6.4434,-3.746,1.2945,-2.5765,-0.12882,3.2227,-4.5752,-1.4171
-2.5908,4.5714,6.5041,-1.3527,3.3003,-0.19417,1.3008,-3.285,3.1715,-1.3527,3.3003,1.8954,-12.698,-7.0813,-1.8413,3.8835,-1.2882,-0.12882,5.7504,-5.8824,-0.12882
-2.5908,2.0317,1.9512,-5.8615,-1.3201,-7.3139,-3.252,-5.8615,2.5243,-5.8615,-1.3201,-3.9869,-9.5238,-4.5295,2.6032,4.5307,0.64412,-3.9936,4.4866,-5.2288,1.8035
0.56872,0.12698,-1.3008,-9.0821,-0.66007,-11.197,-5.2033,-9.0821,2.5243,-9.0821,-0.66007,-7.9085,-3.8095,-0.0638,8.3175,5.178,3.2206,-5.9259,4.4866,-3.268,4.38
-0.06319,1.3968,-3.9024,-9.7262,-1.9802,-12.492,-4.5528,-11.659,5.1133,-9.7262,-1.9802,-9.2157,0.0,4.4019,9.5873,4.5307,3.2206,-4.6377,5.7504,-2.6144,6.3124
-1.327,1.3968,-7.8049,-10.37,1.3201,-13.139,-2.6016,-14.235,8.3495,-10.37,1.3201,-9.8693,0.63492,5.0399,7.0476,2.589,0.64412,-7.2142,4.4866,-3.9216,6.3124
-2.5908,0.12698,-11.057,-7.7939,2.6403,-11.197,-2.6016,-14.235,9.644,-7.7939,2.6403,-9.2157,3.1746,6.9537,5.7778,1.9417,-1.2882,-9.7907,5.1185,-3.9216,6.3124
-3.2227,2.0317,-12.358,1.2238,7.9208,-4.0777,2.6016,-5.2174,10.939,1.2238,7.9208,-3.3333,6.9841,11.419,5.7778,3.8835,1.2882,-2.0612,7.6461,-2.6144,8.2448
9.4155,1.3968,-8.4553,6.3768,15.182,4.9838,11.057,-5.2174,14.822,6.3768,15.182,5.1634,10.159,13.971,8.9524,3.8835,3.2206,-3.9936,7.6461,0.0,8.8889
3.0964,-2.4127,-7.1545,8.9533,20.462,7.5728,16.26,-1.9968,18.705999,8.9533,20.462,11.699,6.3492,10.781,3.873,-1.2945,0.0,-3.3494,5.1185,-3.268,5.0242
4.9921,2.0317,1.3008,14.75,25.083,13.398,22.114,3.1562,21.941999,14.75,25.083,18.889,5.7143,10.144,3.2381,0.64725,1.9324,-5.9259,5.7504,-1.9608,5.0242
5.624,8.381,6.5041,12.818,22.441999,15.34,19.511999,1.868,19.353001,12.818,22.441999,18.889,2.5397,8.8676,-3.1111,5.178,1.9324,-5.9259,6.3823,-7.8431,5.6683
0.56872,13.46,9.1057,9.5974,18.482,15.34,16.26,3.1562,18.705999,9.5974,18.482,15.621,-3.1746,6.3158,-11.365,8.4142,0.0,-4.6377,7.0142,-15.033,6.9565
0.56872,19.809999,11.707,5.0886,13.201,12.104,13.008,-0.06441,16.117001,5.0886,13.201,12.353,-8.254,3.764,-13.27,9.7087,-0.64412,-11.079,11.438,-14.379,9.533
6.2559,14.095,13.659,3.1562,11.881,10.809,9.1057,-4.5733,12.88,3.1562,11.881,11.046,-11.429,0.57416,-10.73,7.767,-1.2882,-13.011,13.333,-13.725,9.533
10.047,10.921,18.211,0.57971,6.6007,10.809,5.2033,-1.9968,8.3495,0.57971,6.6007,9.7386,-8.8889,1.2121,-1.8413,9.0615,3.8647,-8.5024,11.438,-7.1895,9.533
11.311,10.286,18.211,-0.70853,-5.2805,7.5728,-1.3008,1.868,-0.06472,-0.70853,-5.2805,5.817,-3.1746,3.126,6.4127,10.356,9.0177,-2.0612,7.6461,-0.65359,10.177
9.4155,5.2063,12.358,-4.5733,-12.541,3.0421,-8.4553,3.1562,-6.5372,-4.5733,-12.541,-0.06536,0.63492,3.126,10.222,7.767,9.0177,1.1594,3.2227,4.5752,8.8889
8.1517,2.0317,5.8537,-6.5056,-9.2409,0.45307,-9.1057,-0.06441,-5.89,-6.5056,-9.2409,-2.0261,3.8095,3.126,12.762,5.178,7.7295,3.0918,2.5908,9.8039,6.9565
4.9921,-0.50794,-0.65041,-5.2174,-3.9604,0.45307,-7.1545,-0.06441,-2.0065,-5.2174,-3.9604,-2.0261,1.9048,0.57416,6.4127,1.9417,2.5765,4.38,-0.56872,5.8824,3.0918
-0.6951,1.3968,-2.6016,-1.3527,1.3201,1.7476,-1.3008,1.2238,1.2298,-1.3527,1.3201,0.58824,0.0,-0.0638,-1.8413,0.64725,-1.9324,3.7359,-1.2006,1.3072,2.4477
-3.8547,-3.0476,-5.2033,0.57971,5.2805,0.45307,3.9024,-1.9968,5.7605,0.57971,5.2805,2.549,-1.2698,-1.9777,-4.381,-3.8835,-5.153,-2.0612,1.327,-1.3072,0.5153
-7.0142,-10.667,-8.4553,0.57971,10.561,-1.4887,9.1057,-3.285,8.9968,0.57971,10.561,5.1634,-2.5397,-3.8915,-6.9206,-9.0615,-7.7295,-5.9259,-1.2006,-3.9216,-3.3494
-3.2227,-10.032,-6.5041,1.868,11.881,0.45307,10.407,-4.5733,10.291,1.868,11.881,6.4706,-1.2698,-1.9777,-6.2857,-9.0615,-5.153,-9.7907,-2.4645,-5.2288,-4.6377
-11.438,-4.3175,-2.6016,1.868,10.561,-0.19417,9.1057,-2.6409,10.939,1.868,10.561,6.4706,-1.2698,-0.0638,-8.8254,-5.8252,-3.2206,-8.5024,-0.56872,-4.5752,-2.0612
-15.861,0.12698,0.0,-0.70853,7.2607,-0.84142,4.5528,0.57971,8.3495,-0.70853,7.2607,3.8562,-6.9841,-1.9777,-14.54,-3.8835,-4.5089,-6.57,1.9589,-11.765,-1.4171
-8.91,3.9365,2.6016,-3.285,3.9604,-2.1359,0.0,-3.285,5.7605,-3.285,3.9604,1.8954,-14.603,-5.1675,-16.444,-3.2362,-7.0853,-8.5024,4.4866,-15.686,-2.0612
-5.1185,7.746,3.252,-3.9291,2.6403,-3.4304,-1.9512,-2.6409,3.1715,-3.9291,2.6403,-0.06536,-20.952,-10.909,-16.444,-5.178,-11.594,-5.2818,3.2227,-14.379,-3.3494
-3.8547,3.9365,0.0,-5.2174,-1.9802,-4.7249,-5.2033,-1.3527,1.2298,-5.2174,-1.9802,-2.6797,-26.667,-17.927,-17.714001,-11.003,-16.747,-2.0612,-0.56872,-15.033,-7.2142
-0.6951,-2.4127,-5.8537,-8.438,-6.6007,-3.4304,-9.1057,-2.6409,-0.06472,-8.438,-6.6007,-5.2941,-26.667,-21.754,-15.175,-14.887,-19.323999,-0.77295,-1.2006,-11.765,-9.1465
-3.2227,-4.3175,-9.7561,-9.7262,-6.6007,-5.3722,-12.358,-1.3527,-2.6537,-9.7262,-6.6007,-8.5621,-22.857,-21.115999,-12.635,-14.887,-18.68,2.4477,-5.624,-7.1895,-10.435
-2.5908,-6.2222,-7.8049,-9.7262,-5.9406,-6.6667,-11.707,-1.9968,-3.301,-9.7262,-5.9406,-7.9085,-16.507999,-16.013,-8.8254,-11.003,-13.527,1.1594,-2.4645,-3.9216,-7.2142
5.624,-4.9524,0.0,-7.1498,-6.6007,-2.1359,-8.4553,-4.5733,-3.9482,-7.1498,-6.6007,-3.9869,-7.619,-7.7193,0.06349,-5.178,-5.153,1.1594,1.327,1.9608,-2.0612
1.2006,-3.0476,1.3008,-7.1498,-7.9208,-4.7249,-5.2033,-3.285,-5.89,-7.1498,-7.9208,-4.6405,0.63492,-0.70175,3.2381,-2.589,0.0,4.38,-2.4645,5.8824,-0.12882
0.56872,-3.0476,0.0,-8.438,-6.6007,-7.3139,0.0,-0.06441,-5.89,-8.438,-6.6007,-3.9869,8.254,4.4019,7.0476,-1.2945,2.5765,9.533,-7.5197,12.418,-0.77295
3.0964,-11.937,-1.3008,-4.5733,-2.6403,-2.1359,3.9024,3.8003,-5.89,-4.5733,-2.6403,0.58824,13.968,5.0399,8.3175,-5.8252,0.64412,16.618,-12.575,20.915001,-4.6377
-0.6951,-17.650999,-4.5528,-1.3527,0.66007,-0.19417,3.9024,5.0886,-5.89,-1.3527,0.66007,1.8954,15.238,3.126,5.7778,-12.298,-3.2206,19.195,-15.103,20.915001,-9.7907
5.624,-14.476,-3.9024,-2.6409,1.9802,1.7476,3.252,1.2238,-4.5955,-2.6409,1.9802,1.8954,17.143,3.764,8.9524,-11.65,-0.64412,12.754,-13.839,22.222,-8.5024
6.2559,-8.127,-2.6016,-6.5056,-4.6205,-2.1359,-0.65041,-6.5056,-4.5955,-6.5056,-4.6205,-2.6797,18.413,6.9537,12.127,-5.178,4.5089,2.4477,-9.4155,18.954,-2.7053
1.2006,-0.50794,-0.65041,-11.014,-9.901,-9.9029,-4.5528,-12.947,-3.9482,-11.014,-9.901,-8.5621,16.507999,7.5917,10.222,3.2362,8.3736,-4.6377,-3.0964,9.8039,2.4477
-10.174,2.0317,-5.2033,-13.591,-8.5809,-16.375,-9.1057,-14.879,-2.0065,-13.591,-8.5809,-14.444,12.698,5.6778,2.6032,7.1197,6.4412,-7.8583,1.327,0.65359,4.38
-11.438,7.746,-9.7561,-11.659,-3.3003,-15.081,-6.5041,-19.388,0.58252,-11.659,-3.3003,-11.83,9.5238,4.4019,-1.2063,9.7087,4.5089,-16.875999,7.6461,-1.9608,5.6683
-16.493,7.1111,-11.057,-5.2174,1.9802,-11.845,-2.6016,-13.591,3.8188,-5.2174,1.9802,-7.9085,5.0794,-0.70175,-6.2857,7.767,0.0,-14.944,7.0142,-5.8824,1.1594
-13.333,5.8413,-5.2033,-0.70853,3.9604,-6.0194,1.9512,-5.8615,5.7605,-0.70853,3.9604,-2.0261,2.5397,-3.8915,-4.381,5.178,1.2882,-8.5024,4.4866,-3.9216,-3.3494
3.7283,8.381,6.5041,1.868,5.9406,1.7476,5.8537,-2.6409,7.7023,1.868,5.9406,3.8562,3.8095,-4.5295,6.4127,6.4725,8.3736,-5.2818,5.7504,1.9608,-3.9936
8.7836,8.381,10.407,-0.70853,2.6403,0.45307,3.252,-3.9291,5.7605,-0.70853,2.6403,-0.06536,4.4444,-2.6156,14.032,7.767,14.171,-2.0612,6.3823,4.5752,-2.0612
6.8878,7.746,10.407,-7.1498,-1.9802,-5.3722,-0.65041,-7.7939,3.8188,-7.1498,-1.9802,-5.9477,7.619,3.126,20.381001,12.298,19.968,-1.4171,6.3823,9.8039,3.0918
2.4645,7.746,10.407,-7.7939,-4.6205,-7.9612,-1.9512,-5.8615,3.8188,-7.7939,-4.6205,-7.2549,8.254,9.5056,18.476,15.534,21.256001,-1.4171,7.6461,5.8824,8.8889
3.0964,7.746,9.7561,-3.285,0.0,-1.4887,1.9512,-3.9291,5.1133,-3.285,0.0,-1.3725,5.7143,12.695,8.3175,13.592,16.103001,-4.6377,8.278,-1.3072,12.754
1.8325,6.4762,10.407,1.868,1.3201,4.3366,5.8537,-1.3527,4.466,1.868,1.3201,5.817,2.5397,11.419,-1.2063,8.4142,8.3736,-7.2142,7.6461,-3.9216,12.11
-1.9589,2.6667,9.1057,4.4444,-1.9802,5.6311,6.5041,-0.06441,3.1715,4.4444,-1.9802,7.7778,2.5397,12.057,-6.2857,5.178,5.7971,-5.2818,7.0142,-5.2288,12.11
-3.8547,-0.50794,1.3008,1.868,-3.9604,2.3948,1.3008,1.2238,-0.06472,1.868,-3.9604,3.8562,5.7143,12.695,-3.746,3.8835,5.153,-3.3494,4.4866,-3.268,11.465
-1.9589,-1.1429,-5.8537,-0.70853,-6.6007,-2.1359,-3.252,-0.70853,-4.5955,-0.70853,-6.6007,-1.3725,9.5238,13.333,1.9683,3.2362,7.0853,-3.9936,5.7504,1.3072,11.465
2.4645,2.6667,-4.5528,-4.5733,-6.6007,-4.0777,-4.5528,-5.2174,-5.2427,-4.5733,-6.6007,-3.3333,12.063,14.609,8.9524,6.4725,10.95,-5.2818,6.3823,9.1503,12.11
-5.1185,5.8413,-2.6016,-5.8615,-6.6007,-7.3139,-3.252,-6.5056,-4.5955,-5.8615,-6.6007,-3.3333,8.8889,12.057,1.3333,7.1197,9.0177,-6.57,5.1185,2.6144,10.821
-8.91,4.5714,-1.3008,-4.5733,-6.6007,-6.6667,-0.65041,-7.7939,-2.6537,-4.5733,-6.6007,-0.71895,0.63492,6.3158,-10.095,4.5307,0.64412,-11.723,5.1185,-7.1895,8.8889
-5.1185,12.825,9.7561,1.2238,-1.9802,0.45307,9.1057,-3.285,1.2298,1.2238,-1.9802,9.7386,-3.8095,2.488,-15.175,6.4725,-1.9324,-13.011,6.3823,-7.8431,8.2448
-1.9589,16.0,18.211,3.1562,4.6205,6.9256,15.61,0.57971,6.4078,3.1562,4.6205,15.621,-6.3492,-1.3397,-15.81,7.767,-0.64412,-8.5024,8.91,-9.1503,6.3124
5.624,14.73,22.764,3.8003,6.6007,9.5146,16.910999,3.8003,8.9968,3.8003,6.6007,16.275,-3.8095,-3.2536,-7.5556,7.1197,5.153,-5.2818,7.0142,-6.5359,3.7359
16.997999,15.365,27.316999,3.1562,5.9406,10.162,17.561001,2.5121,7.7023,3.1562,5.9406,16.927999,2.5397,-2.6156,5.1429,8.4142,12.238,1.8035,7.0142,-0.65359,2.4477
20.790001,13.46,25.365999,3.8003,5.2805,10.809,14.959,4.4444,5.7605,3.8003,5.2805,15.621,4.4444,-2.6156,12.762,8.4142,14.171,7.6006,7.0142,2.6144,1.1594
20.158001,9.6508,21.462999,5.7327,4.6205,10.809,12.358,9.5974,5.1133,5.7327,4.6205,13.66,8.254,-0.70175,19.746,7.767,14.815,6.9565,5.1185,8.4967,-0.12882
16.997999,2.0317,13.008,7.6651,3.9604,10.809,5.8537,13.462,1.877,7.6651,3.9604,9.7386,10.794,0.57416,19.746,4.5307,12.882,11.465,0.06319,8.4967,-3.3494
14.471,-3.0476,4.5528,8.9533,3.9604,10.809,0.65041,13.462,-1.3592,8.9533,3.9604,5.817,9.5238,-0.70175,16.570999,0.64725,8.3736,11.465,-3.7283,5.2288,-5.2818
6.8878,-1.1429,-1.9512,8.3092,1.3201,7.5728,-1.9512,11.53,-2.0065,8.3092,1.3201,2.549,7.619,-0.0638,10.857,0.0,5.153,7.6006,-4.3602,2.6144,-5.2818
4.9921,-1.7778,-5.2033,9.5974,1.3201,6.9256,-1.9512,9.5974,1.2298,9.5974,1.3201,1.2418,6.3492,1.2121,5.1429,0.64725,3.2206,1.8035,-2.4645,0.65359,-3.3494
1.8325,-3.6825,-8.4553,12.174,1.3201,7.5728,-1.9512,12.174,1.877,12.174,1.3201,1.8954,3.1746,-0.0638,-2.4762,-0.64725,-1.2882,-1.4171,1.327,-1.3072,-3.3494
-1.9589,-3.0476,-7.8049,10.886,1.9802,6.2783,-1.9512,11.53,-0.06472,10.886,1.9802,1.8954,-1.2698,-2.6156,-11.365,-2.589,-6.4412,-0.12882,1.9589,-4.5752,-2.7053
-3.2227,-1.1429,-3.252,6.3768,-2.6403,4.3366,-3.9024,5.0886,-2.0065,6.3768,-2.6403,0.58824,-4.4444,-3.2536,-15.81,-1.9417,-7.7295,1.1594,0.06319,-7.8431,-2.0612
-6.3823,0.7619,-1.3008,-1.9968,-7.9208,-2.1359,-5.2033,1.2238,-4.5955,-1.9968,-7.9208,-3.9869,-5.0794,-2.6156,-13.905,0.0,-7.0853,-0.12882,1.327,-6.5359,0.5153
-3.8547,2.6667,0.65041,-4.5733,-9.901,-7.3139,-5.8537,0.57971,-4.5955,-4.5733,-9.901,-7.9085,-5.0794,-1.3397,-6.9206,0.64725,-4.5089,-1.4171,1.327,-3.9216,1.8035
-0.06319,3.3016,1.3008,-8.438,-10.561,-11.197,-5.2033,-1.3527,-5.89,-8.438,-10.561,-10.523,-3.8095,-0.0638,-0.57143,0.0,-1.9324,2.4477,-0.56872,-2.6144,1.1594
6.8878,0.7619,3.9024,-8.438,-10.561,-6.6667,-4.5528,1.2238,-6.5372,-8.438,-10.561,-8.5621,0.0,1.8501,6.4127,-1.9417,1.9324,6.3124,-6.2559,0.65359,-0.77295
16.997999,-3.0476,10.407,-3.285,-7.9208,-0.84142,-1.3008,3.8003,-4.5955,-3.285,-7.9208,-2.6797,6.9841,5.6778,16.570999,-0.64725,9.0177,4.38,-1.8325,8.4967,-0.77295
14.471,-4.3175,11.707,0.57971,-4.6205,0.45307,1.3008,5.0886,-2.6537,0.57971,-4.6205,-0.06536,8.8889,6.3158,17.205999,0.0,10.306,7.6006,-1.2006,9.1503,-2.0612
8.1517,-2.4127,9.1057,0.57971,-1.3201,1.1003,2.6016,5.0886,-2.6537,0.57971,-1.3201,-0.06536,8.8889,5.6778,13.397,0.0,7.7295,10.821,-5.624,7.1895,-3.9936
3.7283,-0.50794,5.8537,-1.3527,-1.3201,-0.19417,3.252,4.4444,-2.0065,-1.3527,-1.3201,-1.3725,8.8889,5.0399,10.222,1.9417,6.4412,9.533,-5.624,5.2288,-3.9936
6.2559,4.5714,6.5041,2.5121,0.0,2.3948,6.5041,4.4444,1.877,2.5121,0.0,1.2418,10.159,5.0399,10.857,5.8252,6.4412,3.7359,-1.8325,10.458,-2.0612
3.7283,7.746,5.8537,4.4444,3.3003,4.9838,8.4553,4.4444,5.1133,4.4444,3.3003,3.8562,5.0794,1.8501,0.69841,5.178,1.2882,1.1594,1.327,2.6144,-1.4171
-3.8547,5.8413,0.65041,5.0886,4.6205,6.2783,7.1545,5.7327,4.466,5.0886,4.6205,3.8562,-1.9048,-4.5295,-11.365,1.2945,-7.0853,-0.77295,-1.8325,-4.5752,-2.7053
-14.597,1.3968,-7.1545,4.4444,4.6205,1.7476,3.9024,5.7327,1.877,4.4444,4.6205,1.2418,-6.9841,-8.3573,-20.889,-3.2362,-14.815,-1.4171,-0.56872,-7.1895,-3.3494
-17.125,-4.3175,-14.309,2.5121,1.9802,-2.7832,-2.6016,2.5121,-0.71197,2.5121,1.9802,-2.6797,-9.5238,-10.271,-23.429001,-6.4725,-19.323999,-4.6377,0.06319,-7.8431,-3.9936
-8.91,-6.8571,-15.61,1.868,0.66007,-3.4304,-5.8537,0.57971,-1.3592,1.868,0.66007,-4.6405,-8.8889,-10.271,-20.254,-9.0615,-18.68,-9.1465,-1.2006,-7.1895,-3.3494
-10.174,-10.032,-16.26,-1.9968,-2.6403,-5.3722,-9.7561,-0.70853,-3.301,-1.9968,-2.6403,-7.2549,-12.698,-10.909,-20.889,-12.945,-19.323999,-6.57,-3.7283,-9.8039,-3.9936
-12.701,-10.667,-13.659,-1.3527,-2.6403,-6.0194,-9.7561,-1.3527,-4.5955,-1.3527,-2.6403,-6.6013,-15.873,-10.271,-19.618999,-12.945,-17.391001,-3.9936,-5.624,-8.4967,-3.3494
-5.1185,-4.3175,-5.2033,0.57971,-0.66007,-4.0777,-5.2033,-5.2174,-3.9482,0.57971,-0.66007,-2.6797,-15.238,-5.8054,-14.54,-7.1197,-10.306,-5.2818,-4.3602,-13.072,0.5153
-0.6951,-3.0476,1.3008,-0.70853,-1.3201,-4.0777,-2.6016,-5.8615,-3.301,-0.70853,-1.3201,-0.06536,-12.698,-2.6156,-8.1905,-1.9417,-3.2206,-4.6377,-1.8325,-14.379,3.7359
0.56872,0.7619,5.2033,-0.70853,0.66007,-2.7832,2.6016,-3.9291,0.58252,-0.70853,0.66007,3.8562,-6.9841,0.57416,-0.57143,2.589,1.9324,-5.2818,-3.0964,-9.8039,4.38
3.7283,9.0159,9.7561,1.2238,5.9406,1.1003,11.057,-1.9968,6.4078,1.2238,5.9406,9.7386,1.2698,5.6778,5.7778,8.4142,7.7295,-4.6377,5.1185,-7.1895,8.2448
6.8878,12.825,13.008,2.5121,7.9208,2.3948,14.309,-2.6409,8.9968,2.5121,7.9208,11.046,8.8889,10.781,11.492,12.298,11.594,-3.3494,12.07,-1.3072,9.533
10.047,14.73,13.659,3.1562,6.6007,2.3948,14.309,-3.285,8.9968,3.1562,6.6007,9.7386,13.333,12.695,13.397,12.945,13.527,-6.57,10.174,1.9608,8.2448
18.261999,16.0,17.561001,7.0209,9.2409,7.5728,16.26,-1.3527,9.644,7.0209,9.2409,11.699,15.238,13.333,15.302,13.592,15.459,-5.2818,8.278,6.5359,6.9565
4.3602,10.921,11.707,-1.9968,5.9406,0.45307,11.057,-3.285,8.3495,-1.9968,5.9406,4.5098,11.429,8.8676,7.6825,7.767,10.306,0.5153,5.1185,6.5359,3.0918
-6.3823,4.5714,3.9024,-8.438,1.3201,-6.6667,5.8537,-6.5056,6.4078,-8.438,1.3201,-2.6797,5.7143,5.0399,-1.2063,1.9417,3.2206,3.0918,3.2227,0.65359,1.1594
-0.6951,1.3968,-4.5528,-8.438,-2.6403,-7.9612,1.9512,-12.303,4.466,-8.438,-2.6403,-5.9477,3.1746,3.126,-2.4762,-0.64725,-0.64412,-1.4171,0.6951,-0.65359,1.8035
-8.91,-1.7778,-17.561001,-8.438,-4.6205,-13.139,-4.5528,-10.37,-0.06472,-8.438,-4.6205,-12.484,0.0,0.57416,-4.381,-5.178,-7.0853,-2.0612,-1.8325,1.3072,0.5153
-12.701,-6.8571,-22.114,-5.2174,-1.9802,-12.492,-7.8049,-5.2174,-2.0065,-5.2174,-1.9802,-13.137,-3.1746,-2.6156,-6.9206,-7.767,-11.594,-1.4171,-0.56872,0.65359,-0.12882
-10.806,-9.3968,-18.862,-1.3527,1.9802,-4.7249,-7.1545,-0.70853,-1.3592,-1.3527,1.9802,-7.2549,-6.9841,-6.4434,-10.73,-10.356,-14.171,-0.12882,-3.0964,-0.65359,-2.0612
-5.1185,-12.571,-12.358,3.1562,3.9604,4.3366,-5.8537,3.8003,-0.71197,3.1562,3.9604,0.58824,-8.8889,-9.6332,-10.095,-11.65,-13.527,-0.77295,-6.2559,-0.65359,-5.2818
4.9921,-8.7619,-3.252,8.3092,7.9208,10.162,-2.6016,8.3092,-0.06472,8.3092,7.9208,5.817,-6.9841,-8.3573,-3.746,-9.7087,-8.3736,0.5153,-7.5197,2.6144,-5.9259
1.2006,-8.7619,0.0,6.3768,9.901,6.9256,-3.9024,6.3768,0.58252,6.3768,9.901,4.5098,-4.4444,-5.8054,0.69841,-6.4725,-3.8647,3.7359,-6.8878,5.8824,-5.9259
2.4645,-4.3175,5.8537,4.4444,9.2409,6.9256,-1.3008,7.0209,1.877,4.4444,9.2409,4.5098,0.63492,0.57416,5.7778,0.64725,3.8647,8.8889,-2.4645,4.5752,-1.4171
5.624,0.12698,7.1545,1.2238,0.66007,2.3948,-2.6016,5.0886,-1.3592,1.2238,0.66007,0.58824,5.7143,5.0399,10.222,5.8252,9.0177,7.6006,-1.8325,3.268,1.1594
8.1517,2.0317,5.8537,-4.5733,-5.9406,-2.7832,-4.5528,-1.3527,-3.9482,-4.5733,-5.9406,-2.6797,8.254,7.5917,12.762,9.0615,11.594,3.7359,-3.7283,5.8824,3.0918
6.2559,2.0317,0.0,-5.8615,-7.2607,-2.1359,-6.5041,-2.6409,-4.5955,-5.8615,-7.2607,-5.9477,8.8889,8.2297,10.857,9.7087,10.306,3.0918,0.06319,4.5752,4.38
-8.91,0.12698,-12.358,-6.5056,-5.2805,-7.3139,-7.8049,-1.3527,-3.9482,-6.5056,-5.2805,-10.523,5.0794,4.4019,2.6032,3.8835,1.9324,1.8035,1.327,1.3072,2.4477
-13.333,-3.6825,-18.211,-4.5733,-5.2805,-7.9612,-5.8537,-2.6409,-0.06472,-4.5733,-5.2805,-10.523,1.2698,-0.0638,-2.4762,-2.589,-4.5089,-5.2818,0.06319,0.0,-1.4171
-17.125,-5.5873,-16.910999,-1.3527,-1.9802,-4.7249,-1.3008,-1.9968,4.466,-1.3527,-1.9802,-5.2941,-4.4444,-7.0813,-12.635,-9.7087,-12.882,-3.9936,-1.2006,-7.1895,-5.9259
-19.652,-3.0476,-10.407,3.1562,3.9604,0.45307,5.2033,-0.06441,7.7023,3.1562,3.9604,1.8954,-11.429,-14.099,-22.159,-14.239,-18.68,-2.0612,0.06319,-12.418,-9.7907
-15.229,0.12698,-2.6016,6.3768,9.2409,4.3366,9.1057,2.5121,9.644,6.3768,9.2409,7.1242,-14.603,-16.013,-23.429001,-14.239,-19.968,-3.9936,2.5908,-9.1503,-10.435
-9.5419,-0.50794,-0.65041,5.0886,9.2409,6.9256,9.1057,1.868,7.7023,5.0886,9.2409,7.7778,-20.316999,-20.478001,-24.698,-17.476,-23.188,-4.6377,-2.4645,-9.1503,-11.723
-8.91,-4.3175,-3.9024,3.8003,6.6007,4.3366,5.2033,-0.06441,5.1133,3.8003,6.6007,5.1634,-26.667,-23.667999,-24.698,-20.712,-25.764999,-5.9259,-1.8325,-11.111,-11.079
-0.6951,-3.0476,-3.9024,2.5121,3.3003,3.6893,3.252,-0.70853,1.877,2.5121,3.3003,5.1634,-26.032,-18.565001,-15.81,-17.476,-20.612,-5.2818,-1.2006,-7.1895,-8.5024
6.8878,-3.0476,1.9512,3.1562,3.3003,5.6311,2.6016,3.1562,1.2298,3.1562,3.3003,7.1242,-19.683001,-9.6332,-2.4762,-9.0615,-9.6618,-1.4171,-1.8325,-1.3072,-3.3494
13.839,-1.7778,9.1057,5.7327,1.9802,7.5728,1.3008,5.7327,-0.71197,5.7327,1.9802,7.1242,-12.698,-1.3397,7.0476,0.64725,2.5765,5.0242,-0.56872,-0.65359,1.8035
10.679,1.3968,13.008,1.2238,-0.66007,4.9838,-1.9512,4.4444,-2.0065,1.2238,-0.66007,3.8562,-5.0794,6.9537,12.127,10.356,12.238,8.2448,0.06319,0.0,6.3124
8.7836,5.2063,15.61,-2.6409,-2.6403,0.45307,-3.9024,1.2238,-2.6537,-2.6409,-2.6403,-0.06536,5.0794,14.609,18.476,18.122999,20.612,6.3124,1.9589,3.9216,10.177
7.5197,6.4762,11.707,-2.6409,-1.3201,-2.1359,-4.5528,0.57971,-2.0065,-2.6409,-1.3201,-3.3333,14.603,19.075001,21.650999,20.065001,23.833,4.38,1.327,7.1895,12.11
8.1517,5.2063,5.2033,-3.285,0.66007,-2.1359,-1.3008,-5.2174,-0.06472,-3.285,0.66007,-2.6797,22.222,22.903,24.190001,18.77,23.833,2.4477,7.0142,11.111,14.042
8.7836,5.2063,1.3008,-0.06441,0.0,0.45307,0.0,-5.8615,0.58252,-0.06441,0.0,-0.71895,27.302,22.903,26.73,14.239,21.9,1.8035,7.0142,18.301001,12.754
8.1517,3.9365,3.9024,5.0886,1.3201,3.0421,1.9512,-0.70853,1.2298,5.0886,1.3201,1.8954,28.570999,20.989,23.556,9.7087,18.68,-0.12882,3.8547,15.033,9.533
-0.06319,1.3968,7.8049,6.3768,4.6205,4.3366,3.252,3.1562,3.1715,6.3768,4.6205,3.8562,25.396999,19.075001,12.762,8.4142,14.171,2.4477,3.2227,6.5359,7.6006
4.3602,7.1111,17.561001,5.7327,7.9208,7.5728,7.8049,-0.06441,6.4078,5.7327,7.9208,8.4314,22.222,19.075001,7.0476,11.65,14.171,-3.9936,4.4866,3.9216,7.6006
6.2559,14.73,24.715,8.9533,11.881,11.456,13.659,-0.06441,10.291,8.9533,11.881,13.66,16.507999,16.523001,3.2381,14.887,14.171,-5.9259,8.278,1.3072,8.2448
6.2559,19.174999,24.715,12.174,11.221,15.34,16.910999,5.0886,12.88,12.174,11.221,17.582001,11.429,12.695,0.06349,14.887,11.594,-1.4171,10.174,-1.3072,7.6006
8.7836,23.618999,20.813,11.53,11.881,15.34,19.511999,3.8003,12.233,11.53,11.881,19.542,9.5238,8.8676,3.2381,14.239,10.306,-0.12882,8.91,0.65359,6.3124
20.790001,17.905001,20.163,10.886,11.881,17.282,16.26,0.57971,10.939,10.886,11.881,18.889,10.159,6.9537,13.397,13.592,11.594,2.4477,12.701,6.5359,6.9565
14.471,10.286,14.959,10.242,11.221,10.809,7.8049,1.868,5.7605,10.242,11.221,12.353,6.3492,1.8501,13.397,10.356,9.0177,3.7359,10.806,3.268,4.38
10.679,9.0159,13.659,5.7327,3.9604,1.7476,1.3008,-0.70853,1.2298,5.7327,3.9604,5.1634,7.619,2.488,15.937,11.65,12.238,1.1594,6.3823,3.9216,3.7359
10.047,8.381,15.61,4.4444,-1.3201,-0.19417,-1.3008,-0.70853,-2.0065,4.4444,-1.3201,2.549,10.794,4.4019,18.476,13.592,16.747,5.0242,4.4866,9.1503,3.7359
13.207,7.1111,14.959,3.8003,-1.3201,2.3948,-1.9512,1.2238,-2.0065,3.8003,-1.3201,2.549,10.794,3.764,18.476,11.65,17.391001,6.3124,1.9589,9.8039,1.1594
13.207,8.381,15.61,7.0209,1.3201,5.6311,2.6016,5.0886,-0.71197,7.0209,1.3201,5.817,10.159,3.126,18.476,9.7087,16.747,6.9565,1.9589,11.765,1.8035
7.5197,10.921,11.707,8.3092,3.3003,6.9256,7.1545,4.4444,2.5243,8.3092,3.3003,9.085,5.0794,2.488,11.492,8.4142,11.594,7.6006,3.8547,7.1895,1.8035
2.4645,13.46,4.5528,12.818,8.5809,8.8673,12.358,5.7327,4.466,12.818,8.5809,13.007,1.2698,1.8501,3.873,6.4725,5.153,5.0242,5.1185,3.268,2.4477
5.624,4.5714,-5.2033,12.174,11.881,11.456,11.707,5.0886,7.055,12.174,11.881,13.66,0.63492,1.8501,3.873,2.589,0.64412,-0.12882,1.327,5.8824,0.5153
5.624,-1.1429,-6.5041,12.174,11.881,13.398,11.707,7.6651,8.3495,12.174,11.881,13.66,0.0,1.2121,3.873,1.9417,0.64412,3.7359,1.9589,3.9216,-0.12882
13.207,3.9365,4.5528,16.039,12.541,19.223,13.659,7.0209,9.644,16.039,12.541,15.621,2.5397,3.764,8.9524,6.4725,7.7295,5.0242,7.6461,3.268,2.4477
3.7283,5.2063,6.5041,12.174,8.5809,11.456,9.7561,8.9533,6.4078,12.174,8.5809,10.392,0.0,1.8501,5.1429,7.1197,7.0853,5.6683,5.7504,1.3072,1.8035
-3.8547,7.746,5.2033,7.6651,6.6007,4.3366,8.4553,5.7327,5.1133,7.6651,6.6007,6.4706,-5.7143,-1.9777,-2.4762,5.8252,3.2206,3.0918,3.8547,-3.268,0.5153
-3.2227,8.381,3.252,2.5121,5.9406,1.1003,7.1545,2.5121,4.466,2.5121,5.9406,5.1634,-8.8889,-7.0813,-5.6508,1.2945,-1.9324,-0.77295,3.2227,-3.9216,-0.77295
-6.3823,1.3968,-0.65041,-1.9968,2.6403,-1.4887,3.252,3.1562,3.1715,-1.9968,2.6403,1.2418,-10.794,-11.547,-7.5556,-4.5307,-7.7295,3.0918,2.5908,-3.268,-3.3494
-7.6461,-3.6825,-4.5528,-0.70853,0.66007,-3.4304,-0.65041,3.8003,1.877,-0.70853,0.66007,-2.0261,-12.063,-16.013,-8.1905,-9.7087,-12.238,5.6683,-1.2006,-1.9608,-5.9259
-1.327,-2.4127,-4.5528,1.868,0.0,-1.4887,-1.9512,4.4444,-1.3592,1.868,0.0,-2.0261,-9.5238,-16.013,-2.4762,-9.0615,-10.306,6.3124,-0.56872,3.268,-6.57
1.2006,-3.0476,-4.5528,-0.06441,0.0,-2.7832,-5.2033,5.0886,-3.9482,-0.06441,0.0,-3.9869,-6.3492,-13.461,2.6032,-6.4725,-6.4412,7.6006,0.06319,4.5752,-6.57
1.8325,-4.9524,-5.2033,-1.3527,-2.6403,-4.7249,-9.1057,2.5121,-6.5372,-1.3527,-2.6403,-6.6013,-3.1746,-8.9952,5.1429,-4.5307,-3.8647,8.8889,-2.4645,5.2288,-6.57
-3.8547,-5.5873,-5.8537,-0.06441,-3.9604,-4.0777,-9.1057,3.1562,-6.5372,-0.06441,-3.9604,-5.9477,-1.9048,-5.1675,1.9683,-3.2362,-3.2206,8.8889,-3.0964,5.2288,-6.57
-3.8547,-3.6825,-7.1545,3.1562,0.0,0.45307,-5.2033,4.4444,-2.6537,3.1562,0.0,-2.6797,-3.1746,-3.8915,-3.746,-3.2362,-5.7971,2.4477,-1.2006,1.3072,-4.6377
-13.333,0.12698,-14.959,4.4444,1.3201,-0.19417,-3.9024,2.5121,0.58252,4.4444,1.3201,-3.9869,-7.619,-4.5295,-13.905,-5.178,-12.238,-2.0612,-0.56872,-3.9216,-3.9936
-19.652,-5.5873,-24.715,2.5121,-0.66007,-6.0194,-6.5041,3.1562,0.58252,2.5121,-0.66007,-10.523,-10.159,-7.0813,-18.983999,-8.4142,-17.391001,-3.3494,-1.2006,-5.2288,-5.2818
-20.916,-13.841,-32.52,1.868,0.66007,-8.6084,-11.707,4.4444,-0.06472,1.868,0.66007,-16.405001,-13.333,-12.823,-20.889,-14.239,-20.612,-3.9936,-4.9921,-9.8039,-7.8583
-13.965,-15.746,-29.268,1.2238,-1.3201,-6.0194,-12.358,3.1562,-2.0065,1.2238,-1.3201,-15.752,-13.968,-14.737,-18.349001,-16.827999,-18.68,-1.4171,-9.4155,-12.418,-10.435
-3.8547,-13.841,-19.511999,-0.70853,-4.6205,-4.0777,-11.057,5.0886,-5.2427,-0.70853,-4.6205,-13.137,-10.159,-14.737,-10.095,-14.887,-12.882,-3.3494,-10.679,-7.8431,-10.435
2.4645,-12.571,-9.7561,-1.3527,-7.2607,-2.1359,-10.407,4.4444,-7.8317,-1.3527,-7.2607,-9.8693,-7.619,-12.823,-2.4762,-12.945,-7.0853,2.4477,-8.1517,-2.6144,-9.7907
6.2559,-10.032,-3.252,-1.9968,-6.6007,-0.84142,-9.7561,5.0886,-10.421,-1.9968,-6.6007,-7.9085,-3.1746,-10.271,4.5079,-11.003,-1.9324,6.9565,-9.4155,2.6144,-8.5024
4.3602,-8.127,-3.9024,-4.5733,-6.6007,-4.0777,-9.1057,-0.06441,-11.715,-4.5733,-6.6007,-7.9085,1.9048,-7.0813,8.3175,-9.7087,-0.64412,5.6683,-11.943,6.5359,-7.8583
6.8878,-8.127,-3.9024,-8.438,-8.5809,-5.3722,-9.1057,-5.8615,-11.068,-8.438,-8.5809,-8.5621,6.3492,-3.2536,12.127,-6.4725,1.9324,2.4477,-8.7836,8.4967,-5.2818
8.1517,-8.7619,-5.2033,-8.438,-9.901,-5.3722,-10.407,-7.7939,-10.421,-8.438,-9.901,-9.8693,9.5238,-0.0638,15.302,-3.2362,3.2206,-0.12882,-6.8878,13.725,-2.0612
-1.327,-8.127,-10.407,-9.7262,-11.881,-11.845,-11.707,-9.0821,-9.7735,-9.7262,-11.881,-13.137,5.0794,-0.0638,7.0476,-3.8835,-1.2882,-2.0612,-6.2559,7.1895,-0.77295
-12.701,-8.7619,-13.659,-10.37,-10.561,-14.434,-12.358,-7.7939,-9.1262,-10.37,-10.561,-14.444,0.0,1.2121,-3.1111,-3.8835,-5.7971,-2.7053,-5.624,-0.65359,1.1594
-18.389,-9.3968,-16.26,-11.014,-9.2409,-14.434,-12.358,-10.37,-8.479,-11.014,-9.2409,-13.137,-1.9048,5.6778,-9.4603,-3.2362,-8.3736,-10.435,-3.0964,-5.2288,3.0918
-25.972,-11.937,-21.462999,-11.659,-9.2409,-16.375,-12.358,-12.947,-6.5372,-11.659,-9.2409,-14.444,-4.4444,9.5056,-20.254,-4.5307,-14.171,-14.944,-2.4645,-12.418,5.0242
-27.867001,-10.667,-23.415001,-9.0821,-5.2805,-15.081,-7.8049,-13.591,-4.5955,-9.0821,-5.2805,-11.176,-6.3492,12.695,-27.238001,-7.1197,-19.323999,-16.875999,-2.4645,-15.686,6.3124
-27.867001,-14.476,-23.415001,-7.7939,-1.9802,-13.786,-5.8537,-14.235,-3.9482,-7.7939,-1.9802,-7.9085,-8.254,12.057,-30.413,-11.003,-23.188,-17.52,-2.4645,-16.993,5.0242
-23.444,-17.650999,-19.511999,-7.7939,-2.6403,-11.845,-5.2033,-11.659,-3.301,-7.7939,-2.6403,-5.9477,-6.3492,12.695,-26.603001,-11.65,-21.256001,-17.52,-3.7283,-12.418,5.0242
-20.284,-16.381001,-16.910999,-9.7262,-5.9406,-11.845,-8.4553,-11.014,-6.5372,-9.7262,-5.9406,-7.9085,-6.9841,12.057,-24.063,-11.65,-18.035,-13.655,-4.9921,-15.686,4.38
-7.0142,-10.667,-9.1057,-8.438,-5.2805,-8.6084,-5.8537,-11.659,-6.5372,-8.438,-5.2805,-4.6405,-5.7143,12.057,-15.81,-6.4725,-10.306,-13.655,-4.9921,-15.686,5.6683
-0.6951,-6.2222,-3.252,-7.1498,-6.6007,-4.0777,-5.2033,-10.37,-5.89,-7.1498,-6.6007,-2.6797,-1.9048,12.057,-7.5556,-0.64725,-3.8647,-8.5024,-4.3602,-10.458,6.9565
-0.6951,-3.0476,-1.9512,-10.37,-8.5809,-7.3139,-5.8537,-8.438,-8.479,-10.37,-8.5809,-5.2941,3.1746,12.695,-0.57143,2.589,1.2882,-5.9259,-2.4645,-5.8824,6.9565
0.56872,-4.3175,-0.65041,-9.7262,-8.5809,-6.0194,-6.5041,-2.6409,-9.1262,-9.7262,-8.5809,-6.6013,10.159,13.333,6.4127,5.8252,6.4412,1.1594,-1.2006,1.3072,6.3124
6.2559,-3.6825,2.6016,-7.1498,-9.901,-3.4304,-7.1545,-1.3527,-9.1262,-7.1498,-9.901,-6.6013,19.048,14.609,14.032,9.7087,12.882,8.2448,-3.7283,9.8039,6.3124
15.735,1.3968,9.1057,-4.5733,-9.2409,-0.84142,-6.5041,1.2238,-8.479,-4.5733,-9.2409,-6.6013,31.111,19.712999,26.73,16.827999,22.544001,10.821,-1.8325,27.451,7.6006
12.575,4.5714,9.7561,-2.6409,-11.221,3.0421,-7.1545,10.242,-10.421,-2.6409,-11.221,-5.9477,35.556,19.712999,28.635,19.417,25.764999,21.771,-3.0964,32.68,4.38
3.7283,3.9365,6.5041,-3.285,-9.2409,2.3948,-6.5041,10.886,-9.1262,-3.285,-9.2409,-5.9477,29.205999,12.057,20.381001,14.887,19.968,21.771,-4.9921,26.143999,-0.77295
1.8325,4.5714,2.6016,-3.285,-5.9406,2.3948,-3.9024,4.4444,-4.5955,-3.285,-5.9406,-4.6405,20.316999,5.6778,11.492,9.7087,11.594,12.754,-3.7283,16.993,-2.7053
-0.06319,3.3016,0.0,-1.9968,-1.9802,2.3948,0.0,2.5121,-0.06472,-1.9968,-1.9802,-2.0261,10.794,-0.0638,2.6032,3.2362,3.2206,4.38,-3.7283,9.1503,-5.2818
4.9921,5.8413,4.5528,1.868,3.9604,6.2783,5.8537,-0.06441,3.8188,1.868,3.9604,3.2026,5.0794,-4.5295,-0.57143,-1.2945,-0.64412,0.5153,-3.7283,3.9216,-5.2818
3.0964,1.3968,5.8537,-0.06441,5.2805,5.6311,7.1545,1.2238,5.1133,-0.06441,5.2805,5.1634,-1.9048,-8.9952,-3.746,-7.1197,-3.8647,-1.4171,-1.2006,-2.6144,-6.57
-0.06319,-4.3175,5.8537,-3.285,3.3003,1.1003,5.8537,-0.06441,5.7605,-3.285,3.3003,3.2026,-5.7143,-11.547,-4.381,-10.356,-5.7971,-2.0612,0.6951,-3.268,-7.8583
3.7283,-2.4127,7.1545,-0.70853,5.2805,2.3948,7.1545,-1.9968,6.4078,-0.70853,5.2805,4.5098,-10.159,-12.185,-6.2857,-10.356,-7.0853,-1.4171,0.06319,-8.4967,-6.57
4.3602,-1.1429,5.2033,-3.285,1.9802,-0.19417,5.2033,-4.5733,3.8188,-3.285,1.9802,2.549,-13.333,-12.823,-6.2857,-11.003,-8.3736,-3.3494,0.6951,-11.111,-5.2818
0.56872,-0.50794,1.9512,-3.285,0.66007,-0.84142,4.5528,-5.8615,2.5243,-3.285,0.66007,1.8954,-17.778,-15.375,-7.5556,-12.945,-10.95,-6.57,1.327,-11.765,-4.6377
4.3602,3.3016,4.5528,-1.9968,3.3003,2.3948,7.1545,-5.2174,3.8188,-1.9968,3.3003,5.817,-19.683001,-16.013,-8.1905,-11.65,-10.306,-11.079,2.5908,-13.725,-2.7053
5.624,8.381,7.8049,-0.70853,1.3201,4.9838,9.7561,-2.6409,2.5243,-0.70853,1.3201,9.085,-19.048,-14.099,-8.1905,-7.767,-7.0853,-9.7907,3.2227,-12.418,-1.4171
-2.5908,6.4762,4.5528,-1.3527,1.3201,2.3948,8.4553,-3.285,5.7605,-1.3527,1.3201,6.4706,-19.048,-12.185,-11.365,-5.8252,-7.0853,-7.8583,1.9589,-12.418,-1.4171
-3.2227,6.4762,6.5041,-0.70853,7.9208,3.0421,12.358,-7.1498,12.233,-0.70853,7.9208,9.085,-15.873,-7.7193,-10.095,-1.9417,-4.5089,-10.435,5.1185,-9.1503,1.8035
-5.1185,9.6508,8.4553,0.57971,13.201,3.6893,15.61,-5.2174,16.117001,0.57971,13.201,11.699,-12.698,-4.5295,-11.365,2.589,-1.9324,-7.2142,10.174,-12.418,3.7359
-1.327,12.19,9.7561,2.5121,12.541,4.9838,16.26,-1.9968,17.410999,2.5121,12.541,12.353,-7.619,-2.6156,-7.5556,5.178,1.2882,-3.9936,12.07,-10.458,4.38
11.311,16.0,14.309,3.8003,9.2409,9.5146,17.561001,-2.6409,18.705999,3.8003,9.2409,14.314,-0.63492,-0.70175,3.2381,9.7087,7.7295,-2.0612,13.333,-3.268,5.6683
8.1517,13.46,13.008,2.5121,6.6007,6.2783,13.659,1.2238,14.822,2.5121,6.6007,11.046,1.9048,-1.9777,6.4127,8.4142,9.0177,1.8035,10.806,0.0,3.7359
9.4155,11.556,11.707,4.4444,7.2607,8.2201,11.057,8.9533,10.291,4.4444,7.2607,11.699,1.2698,-4.5295,9.5873,7.1197,9.0177,3.7359,7.6461,4.5752,1.8035
10.047,4.5714,6.5041,4.4444,7.2607,6.9256,7.1545,6.3768,8.3495,4.4444,7.2607,8.4314,-3.1746,-10.271,8.9524,1.9417,4.5089,1.1594,5.1185,7.8431,-1.4171
5.624,-1.7778,0.0,0.57971,3.3003,3.0421,1.9512,0.57971,5.1133,0.57971,3.3003,3.2026,-11.429,-17.289,0.69841,-5.8252,-4.5089,1.1594,0.6951,3.9216,-5.9259
-1.9589,-5.5873,-7.1545,-2.6409,-1.9802,-1.4887,-5.2033,0.57971,-0.06472,-2.6409,-1.9802,-3.9869,-18.413,-21.754,-9.4603,-12.298,-13.527,4.38,-4.9921,-0.65359,-9.1465
-9.5419,-11.937,-14.959,-5.8615,-5.9406,-7.9612,-12.358,-0.70853,-3.9482,-5.8615,-5.9406,-11.176,-22.857,-24.306,-16.444,-18.122999,-21.256001,3.0918,-6.2559,-1.9608,-10.435
-12.701,-15.111,-20.163,-9.0821,-8.5809,-10.55,-16.26,-5.8615,-5.89,-9.0821,-8.5809,-15.098,-24.761999,-24.944,-19.618999,-21.358999,-25.764999,-0.77295,-5.624,-2.6144,-9.7907
-12.07,-12.571,-21.462999,-9.0821,-7.2607,-9.9029,-13.008,-6.5056,-6.5372,-9.0821,-7.2607,-13.137,-25.396999,-23.667999,-22.794001,-22.653999,-28.341,-4.6377,-7.5197,-5.2288,-9.7907
-13.333,-13.206,-18.211,-5.8615,-7.2607,-7.9612,-10.407,-2.6409,-4.5955,-5.8615,-7.2607,-9.2157,-20.952,-19.841,-20.889,-21.358999,-25.121,-4.6377,-8.1517,-3.9216,-9.1465
-7.6461,-13.206,-10.407,-7.1498,-7.2607,-6.6667,-9.1057,-3.285,-4.5955,-7.1498,-7.2607,-7.2549,-12.063,-12.185,-12.635,-14.887,-14.815,-3.9936,-4.9921,-3.268,-5.9259
4.9921,-6.8571,-0.65041,-8.438,-8.5809,-5.3722,-7.8049,-5.2174,-6.5372,-8.438,-8.5809,-5.2941,-0.63492,-2.6156,1.9683,-4.5307,-0.64412,-5.2818,-1.8325,1.9608,-0.77295
9.4155,-0.50794,4.5528,-6.5056,-7.9208,-2.7832,-4.5528,-3.9291,-4.5955,-6.5056,-7.9208,-2.0261,8.8889,4.4019,10.222,4.5307,9.0177,-3.3494,1.327,3.9216,3.7359
1.8325,3.3016,3.9024,-7.1498,-3.3003,-4.0777,-1.9512,-5.8615,-0.71197,-7.1498,-3.3003,-1.3725,12.063,6.3158,8.9524,7.767,10.95,1.1594,3.8547,2.6144,5.6683
1.2006,6.4762,3.252,-4.5733,0.66007,-2.1359,2.6016,-7.7939,2.5243,-4.5733,0.66007,2.549,12.063,5.6778,8.3175,8.4142,10.95,-0.12882,7.0142,1.9608,6.3124
-0.06319,8.381,3.252,-2.6409,0.66007,-1.4887,5.2033,-5.2174,5.7605,-2.6409,0.66007,3.8562,10.794,4.4019,7.0476,8.4142,10.306,-2.0612,5.7504,1.3072,5.6683
-0.06319,13.46,4.5528,-0.70853,5.2805,-0.84142,9.1057,-3.9291,8.9968,-0.70853,5.2805,6.4706,7.619,2.488,5.7778,9.0615,9.6618,-3.3494,7.6461,-0.65359,4.38
6.8878,12.19,9.7561,3.1562,10.561,1.1003,13.008,-3.285,12.88,3.1562,10.561,11.046,0.63492,-0.70175,4.5079,8.4142,9.0177,-6.57,10.174,-3.9216,3.7359
4.9921,9.6508,11.057,4.4444,12.541,4.9838,13.659,-1.3527,13.528,4.4444,12.541,12.353,-8.254,-4.5295,-0.57143,4.5307,3.8647,-5.2818,8.278,-4.5752,2.4477
-0.6951,7.746,9.7561,7.0209,9.2409,5.6311,12.358,3.1562,8.9968,7.0209,9.2409,12.353,-19.048,-9.6332,-10.095,-1.9417,-3.8647,-0.77295,2.5908,-13.072,-0.77295
4.3602,3.9365,11.707,7.6651,6.6007,8.2201,11.057,6.3768,5.7605,7.6651,6.6007,12.353,-22.857,-12.185,-10.73,-5.8252,-6.4412,-2.7053,0.6951,-15.686,-2.0612
8.7836,2.0317,8.4553,3.1562,5.2805,6.2783,7.8049,1.868,3.8188,3.1562,5.2805,7.7778,-20.316999,-10.909,-7.5556,-7.1197,-6.4412,-4.6377,0.06319,-12.418,-1.4171
-2.5908,-4.3175,-4.5528,-1.3527,-0.66007,-2.1359,-1.3008,-1.9968,-0.71197,-1.3527,-0.66007,-2.6797,-16.507999,-10.271,-8.8254,-9.7087,-9.6618,-2.0612,-4.3602,-12.418,-2.7053
-7.0142,-6.8571,-13.659,-5.8615,-5.2805,-7.3139,-8.4553,-6.5056,-6.5372,-5.8615,-5.2805,-11.176,-8.8889,-5.8054,-6.9206,-10.356,-9.6618,-1.4171,-5.624,-9.1503,-2.0612
-10.806,-11.937,-18.862,-11.014,-9.2409,-15.728,-15.61,-7.7939,-9.1262,-11.014,-9.2409,-19.02,-0.63492,2.488,-6.2857,-7.1197,-8.3736,-3.9936,-3.7283,-5.8824,-0.12882
-15.861,-15.746,-19.511999,-14.235,-13.861,-21.552999,-19.511999,-7.7939,-10.421,-14.235,-13.861,-23.594999,6.9841,10.144,-6.9206,-3.2362,-5.7971,-4.6377,-3.7283,-2.6144,2.4477
-13.965,-14.476,-13.659,-18.743999,-17.162001,-23.495001,-21.462999,-12.947,-11.068,-18.743999,-17.162001,-24.902,13.968,15.885,-2.4762,-0.64725,-0.64412,-6.57,-3.7283,3.9216,3.0918
-11.438,-12.571,-9.1057,-20.032,-18.482,-23.495001,-20.813,-15.523,-11.068,-20.032,-18.482,-24.247999,17.143,17.799,-0.57143,1.2945,2.5765,-3.9936,-6.2559,3.268,2.4477
-8.278,-10.032,-9.1057,-16.812,-15.182,-18.964001,-17.561001,-11.014,-8.479,-16.812,-15.182,-21.634001,18.413,19.075001,1.9683,1.9417,3.2206,-2.7053,-7.5197,4.5752,1.8035
-1.327,-10.032,-11.057,-14.879,-13.201,-18.964001,-14.309,-9.7262,-7.8317,-14.879,-13.201,-19.02,19.683001,19.075001,7.0476,1.2945,3.2206,-3.9936,-8.7836,8.4967,1.1594
-7.0142,-5.5873,-11.707,-11.659,-9.901,-15.081,-9.7561,-5.8615,-8.479,-11.659,-9.901,-14.444,17.778,17.160999,3.873,2.589,1.9324,3.7359,-10.047,7.8431,2.4477
-8.278,-4.3175,-7.8049,-5.8615,-3.3003,-7.3139,-5.2033,-1.9968,-5.89,-5.8615,-3.3003,-7.2549,12.063,14.609,0.69841,3.8835,0.64412,6.3124,-5.624,6.5359,3.0918
-2.5908,-3.0476,1.9512,1.2238,-0.66007,1.7476,-0.65041,-0.06441,-3.301,1.2238,-0.66007,0.58824,6.3492,12.695,-1.8413,7.767,1.9324,1.8035,-0.56872,1.9608,5.6683
0.56872,2.0317,9.7561,3.8003,1.3201,5.6311,3.252,2.5121,-3.301,3.8003,1.3201,5.817,2.5397,12.057,-1.8413,11.65,4.5089,-1.4171,0.06319,0.0,6.9565
3.0964,5.2063,11.707,5.0886,3.3003,8.2201,5.8537,5.0886,-2.0065,5.0886,3.3003,8.4314,2.5397,12.057,1.3333,13.592,8.3736,-2.0612,1.9589,-2.6144,7.6006
6.2559,5.2063,9.1057,5.0886,2.6403,7.5728,5.2033,3.1562,-1.3592,5.0886,2.6403,7.7778,4.4444,12.057,6.4127,13.592,10.306,-0.12882,0.6951,-3.268,8.2448
11.311,5.2063,6.5041,3.8003,3.9604,7.5728,4.5528,-0.70853,-0.71197,3.8003,3.9604,7.1242,6.9841,12.695,10.857,12.945,11.594,-1.4171,3.2227,-1.3072,8.2448
9.4155,9.0159,5.8537,5.7327,3.9604,9.5146,5.8537,1.868,2.5243,5.7327,3.9604,8.4314,8.254,10.144,10.857,11.003,10.95,2.4477,3.8547,0.65359,6.3124
10.047,9.0159,7.8049,4.4444,2.6403,10.162,8.4553,3.8003,5.1133,4.4444,2.6403,10.392,8.8889,6.9537,9.5873,7.767,9.6618,1.8035,3.8547,0.0,3.0918
3.7283,6.4762,7.8049,2.5121,3.3003,5.6311,7.1545,3.8003,5.7605,2.5121,3.3003,7.1242,9.5238,6.3158,8.3175,6.4725,9.0177,1.8035,4.4866,-0.65359,1.1594
-1.327,5.2063,7.1545,2.5121,3.3003,1.7476,5.2033,2.5121,4.466,2.5121,3.3003,3.8562,9.5238,6.3158,6.4127,7.1197,9.6618,3.0918,2.5908,-0.65359,0.5153
6.8878,3.3016,8.4553,2.5121,2.6403,3.0421,2.6016,-0.06441,3.8188,2.5121,2.6403,3.8562,11.429,7.5917,10.857,8.4142,12.238,-2.0612,0.6951,5.8824,0.5153
4.3602,-0.50794,4.5528,3.8003,2.6403,2.3948,0.65041,0.57971,1.877,3.8003,2.6403,2.549,8.254,5.0399,7.6825,6.4725,9.0177,0.5153,1.9589,1.9608,1.8035
-3.2227,-1.1429,0.0,3.8003,4.6205,-0.19417,-1.9512,1.868,2.5243,3.8003,4.6205,-0.71895,3.1746,2.488,1.9683,4.5307,4.5089,1.1594,1.9589,-1.9608,1.1594
0.56872,3.9365,3.9024,4.4444,9.2409,3.6893,0.65041,3.1562,3.1715,4.4444,9.2409,2.549,1.2698,1.2121,1.3333,5.178,4.5089,-0.77295,1.327,1.3072,0.5153
6.2559,1.3968,7.1545,3.1562,3.3003,3.0421,-1.3008,-0.06441,0.58252,3.1562,3.3003,0.58824,0.63492,-0.0638,4.5079,2.589,5.153,-0.77295,-1.2006,3.268,-0.77295
8.1517,-1.1429,5.8537,1.2238,-1.3201,0.45307,-2.6016,-1.3527,-1.3592,1.2238,-1.3201,-2.0261,1.2698,-1.9777,7.6825,0.0,5.153,1.1594,-3.0964,7.1895,-2.0612
-0.06319,-1.1429,0.65041,-0.70853,-3.3003,-1.4887,-1.9512,-0.06441,-2.0065,-0.70853,-3.3003,-5.2941,0.0,-5.1675,5.1429,-2.589,1.9324,4.38,-0.56872,5.2288,-1.4171
-8.278,0.12698,-2.6016,-3.9291,-4.6205,-6.6667,0.0,-3.9291,-2.0065,-3.9291,-4.6205,-6.6013,-1.2698,-4.5295,1.9683,-3.2362,-1.9324,-0.77295,1.9589,6.5359,1.1594
-7.6461,4.5714,-0.65041,-5.8615,-1.9802,-6.0194,5.2033,-6.5056,0.58252,-5.8615,-1.9802,-2.6797,-1.2698,-0.70175,-3.1111,0.0,-3.2206,-3.3494,3.8547,0.65359,5.0242
-3.8547,10.286,2.6016,-4.5733,0.66007,-2.1359,7.8049,-7.1498,2.5243,-4.5733,0.66007,0.58824,0.0,4.4019,-3.1111,6.4725,0.0,-4.6377,7.6461,-4.5752,9.533
-1.9589,10.286,1.3008,-4.5733,-1.3201,-2.7832,5.8537,-5.8615,1.877,-4.5733,-1.3201,-0.71895,3.1746,9.5056,0.69841,11.003,3.8647,-7.2142,8.91,-2.6144,11.465
-3.8547,3.3016,-3.9024,-4.5733,-1.9802,-4.0777,2.6016,-1.9968,2.5243,-4.5733,-1.9802,-3.3333,3.8095,8.8676,1.3333,9.7087,3.2206,-4.6377,6.3823,-1.9608,9.533
-2.5908,3.9365,-3.9024,-0.06441,1.9802,-0.84142,5.2033,0.57971,5.1133,-0.06441,1.9802,-0.06536,3.1746,6.9537,1.9683,7.1197,2.5765,-1.4171,6.3823,-1.3072,6.9565
4.3602,8.381,1.3008,2.5121,5.2805,3.6893,9.1057,-0.06441,7.055,2.5121,5.2805,5.1634,2.5397,5.0399,3.2381,6.4725,2.5765,-1.4171,9.5419,0.0,6.3124
3.0964,10.286,5.8537,9.5974,9.2409,10.162,12.358,8.9533,7.055,9.5974,9.2409,10.392,-0.63492,1.2121,0.06349,3.2362,0.64412,3.7359,5.7504,-1.3072,2.4477
2.4645,8.381,9.1057,12.174,11.221,13.398,10.407,13.462,4.466,12.174,11.221,13.007,-0.63492,-2.6156,0.69841,-1.2945,0.0,8.2448,0.6951,0.0,-2.7053
8.7836,6.4762,11.707,12.818,11.221,14.693,9.7561,12.174,1.877,12.818,11.221,14.314,0.63492,-5.8054,5.7778,-3.8835,3.2206,11.465,-1.8325,1.9608,-7.2142
13.207,2.0317,9.1057,13.462,7.9208,14.045,5.8537,13.462,-0.71197,13.462,7.9208,11.699,3.1746,-8.9952,12.762,-6.4725,5.153,14.686,-6.2559,6.5359,-11.079
13.207,-5.5873,2.6016,10.886,3.3003,9.5146,-1.3008,12.818,-3.301,10.886,3.3003,4.5098,3.8095,-13.461,16.570999,-9.7087,4.5089,14.042,-6.8878,12.418,-13.011
3.7283,-11.302,-6.5041,6.3768,-2.6403,1.7476,-10.407,11.53,-7.8317,6.3768,-2.6403,-5.2941,-0.63492,-18.565001,8.3175,-14.887,-3.8647,13.398,-8.7836,9.8039,-15.588
-1.9589,-10.032,-7.1545,1.2238,-4.6205,-4.0777,-13.008,5.7327,-9.7735,1.2238,-4.6205,-9.2157,-1.9048,-15.375,2.6032,-12.298,-7.0853,6.3124,-6.2559,7.1895,-11.079
6.2559,-3.6825,1.3008,-1.9968,-5.2805,-3.4304,-10.407,-1.3527,-8.479,-1.9968,-5.2805,-8.5621,5.0794,-3.2536,6.4127,-0.64725,0.64412,-0.12882,-1.2006,9.8039,-2.0612
3.7283,0.7619,5.2033,-4.5733,-9.2409,-4.7249,-9.7561,0.57971,-9.7735,-4.5733,-9.2409,-8.5621,12.063,8.2297,8.3175,9.0615,8.3736,1.8035,0.6951,10.458,5.6683
-7.6461,5.8413,1.9512,-5.2174,-14.521,-8.6084,-7.8049,1.868,-10.421,-5.2174,-14.521,-9.8693,14.603,13.971,5.1429,14.239,10.306,5.6683,1.9589,5.8824,9.533
-2.5908,5.8413,3.252,-3.9291,-12.541,-4.0777,-2.6016,-1.3527,-6.5372,-3.9291,-12.541,-5.2941,17.778,18.437,9.5873,17.476,14.171,4.38,2.5908,7.8431,11.465
5.624,7.1111,8.4553,-2.6409,-5.9406,1.1003,2.6016,-1.9968,-2.0065,-2.6409,-5.9406,1.2418,18.413,19.712999,14.667,19.417,18.68,1.8035,5.1185,9.8039,11.465
6.2559,11.556,14.309,1.2238,-0.66007,4.3366,6.5041,2.5121,-0.06472,1.2238,-0.66007,5.817,17.778,20.351,14.667,22.006001,21.9,2.4477,9.5419,9.1503,12.11
12.575,16.0,22.764,5.7327,2.6403,10.809,9.7561,5.7327,1.877,5.7327,2.6403,11.699,17.778,22.264999,17.205999,25.243,27.052999,3.0918,12.07,9.8039,13.398
21.422001,17.905001,29.268,12.174,7.9208,19.223,13.659,10.886,5.7605,12.174,7.9208,18.235001,15.238,19.712999,19.746,23.301001,28.341,4.38,7.0142,10.458,9.533
21.422001,12.19,27.966999,19.259001,13.861,21.812,16.910999,16.683001,7.7023,19.259001,13.861,22.809999,7.619,10.144,17.205999,12.945,21.256001,8.2448,3.2227,12.418,2.4477
20.158001,10.286,23.415001,21.836,15.182,22.459999,18.211,17.971001,7.055,21.836,15.182,24.118,-3.1746,-1.3397,10.222,0.0,10.306,9.533,-1.8325,3.268,-5.9259
8.7836,3.9365,11.707,21.836,13.861,19.223,16.26,17.971001,6.4078,21.836,13.861,22.157,-14.603,-12.185,-1.2063,-11.65,-3.8647,7.6006,-3.7283,-6.5359,-11.723
-0.6951,0.7619,1.9512,19.903,13.201,15.34,13.659,14.75,7.055,19.903,13.201,19.542,-23.492001,-19.202999,-12.0,-16.827999,-15.459,1.8035,-3.7283,-11.111,-14.3
-3.2227,3.3016,-0.65041,15.395,11.221,12.751,10.407,9.5974,4.466,15.395,11.221,16.927999,-22.857,-19.202999,-15.175,-12.945,-17.391001,-1.4171,-3.0964,-11.111,-11.079
-3.8547,3.3016,-1.9512,7.6651,4.6205,6.9256,2.6016,5.7327,-0.06472,7.6651,4.6205,8.4314,-12.063,-11.547,-8.8254,-5.178,-12.238,-0.77295,-0.56872,-5.2288,-4.6377
3.7283,3.3016,0.0,1.868,-5.9406,2.3948,-4.5528,0.57971,-4.5955,1.868,-5.9406,1.2418,4.4444,-0.0638,7.6825,4.5307,0.0,-2.0612,1.9589,7.8431,1.1594
1.8325,-3.0476,-5.2033,-3.285,-11.881,-7.3139,-13.008,-0.70853,-9.7735,-3.285,-11.881,-6.6013,14.603,5.6778,14.667,5.178,3.8647,1.1594,1.327,13.725,3.0918
9.4155,-4.9524,-5.8537,-4.5733,-11.221,-6.6667,-11.707,-1.3527,-11.715,-4.5733,-11.221,-5.9477,19.048,6.3158,18.476,0.64725,4.5089,5.0242,-3.7283,15.033,1.1594
6.8878,-4.9524,0.0,-1.9968,-3.9604,-1.4887,-3.9024,-0.06441,-7.8317,-1.9968,-3.9604,-0.06536,18.413,5.6778,18.476,-1.2945,5.7971,10.821,-3.7283,15.686,-0.77295
1.2006,-10.032,1.9512,-2.6409,-5.2805,-0.84142,-3.9024,1.868,-5.89,-2.6409,-5.2805,-0.71895,14.603,3.764,14.667,-2.589,6.4412,10.177,-2.4645,13.072,-1.4171
2.4645,-5.5873,4.5528,-2.6409,-6.6007,1.1003,-3.9024,1.2238,-2.6537,-2.6409,-6.6007,-1.3725,11.429,3.764,12.127,1.9417,8.3736,8.8889,0.06319,11.765,-0.77295
1.8325,1.3968,4.5528,-1.9968,-4.6205,3.0421,-3.252,3.8003,0.58252,-1.9968,-4.6205,-0.71895,6.9841,3.764,6.4127,6.4725,8.3736,5.0242,4.4866,5.8824,1.8035
8.7836,6.4762,3.9024,1.868,-2.6403,8.2201,-0.65041,5.0886,1.2298,1.868,-2.6403,2.549,3.8095,2.488,4.5079,7.1197,7.0853,2.4477,4.4866,4.5752,1.8035
4.3602,7.746,-0.65041,5.7327,-1.9802,9.5146,2.6016,10.886,3.8188,5.7327,-1.9802,4.5098,-2.5397,-3.8915,-1.8413,1.9417,0.64412,6.3124,0.06319,0.65359,-2.0612
3.7283,6.4762,-5.2033,8.3092,0.66007,10.809,5.8537,13.462,4.466,8.3092,0.66007,5.817,-9.5238,-9.6332,-7.5556,-5.178,-7.0853,8.2448,1.327,-3.9216,-5.9259
8.1517,5.2063,-3.252,10.242,3.9604,13.398,7.1545,14.75,5.1133,10.242,3.9604,8.4314,-14.603,-16.650999,-9.4603,-12.945,-13.527,8.8889,0.6951,-3.9216,-9.1465
1.2006,-1.1429,-1.9512,10.242,5.2805,12.751,5.8537,15.395,3.1715,10.242,5.2805,8.4314,-21.587,-26.219999,-15.175,-21.358999,-20.612,10.821,-5.624,-7.1895,-14.3
3.0964,-3.6825,1.3008,10.242,4.6205,10.809,4.5528,12.174,1.2298,10.242,4.6205,9.085,-22.857,-28.771999,-14.54,-23.301001,-21.9,6.9565,-8.1517,-6.5359,-16.875999
1.8325,-4.3175,1.3008,7.0209,3.3003,6.9256,2.6016,9.5974,-3.301,7.0209,3.3003,6.4706,-20.952,-23.667999,-13.27,-20.712,-19.968,6.3124,-10.047,-5.8824,-14.944
1.8325,-6.2222,-1.9512,4.4444,1.3201,3.6893,-0.65041,7.6651,-5.89,4.4444,1.3201,1.8954,-15.873,-14.737,-8.1905,-15.534,-15.459,4.38,-8.7836,-2.6144,-11.079
2.4645,-5.5873,-3.9024,4.4444,-0.66007,0.45307,-1.3008,5.0886,-6.5372,4.4444,-0.66007,-0.71895,-10.794,-5.1675,-2.4762,-9.7087,-8.3736,3.0918,-4.9921,-1.3072,-5.9259
-0.6951,-8.7619,-6.5041,4.4444,-2.6403,-0.84142,-4.5528,3.8003,-9.1262,4.4444,-2.6403,-3.3333,-6.9841,1.8501,-2.4762,-5.178,-4.5089,1.8035,-4.3602,-4.5752,-2.7053
-1.9589,-10.032,-7.1545,1.2238,-5.2805,-4.7249,-9.7561,-1.9968,-13.657,1.2238,-5.2805,-7.9085,-1.9048,8.8676,0.06349,0.0,0.64412,-3.3494,-6.8878,-4.5752,0.5153
-10.806,-8.7619,-8.4553,-3.9291,-8.5809,-11.845,-14.959,-5.2174,-13.657,-3.9291,-8.5809,-14.444,1.2698,14.609,-1.2063,6.4725,4.5089,-5.2818,-4.3602,-5.8824,5.0242
-10.806,-6.2222,-5.2033,-7.7939,-9.901,-14.434,-14.309,-9.0821,-9.7735,-7.7939,-9.901,-15.098,3.1746,19.075001,-1.8413,12.945,8.3736,-7.2142,1.9589,-7.8431,10.177
-1.327,-0.50794,0.0,-9.0821,-7.9208,-13.139,-9.1057,-11.659,-4.5955,-9.0821,-7.9208,-11.83,5.0794,20.351,0.69841,16.181,11.594,-13.011,5.1185,-5.8824,12.754
-4.4866,2.6667,1.3008,-5.8615,-7.2607,-8.6084,-5.8537,-7.7939,-2.6537,-5.8615,-7.2607,-9.2157,3.8095,17.160999,-4.381,11.65,7.7295,-7.8583,7.0142,-6.5359,12.11
-8.91,1.3968,1.3008,-3.9291,-5.2805,-4.0777,-3.252,-4.5733,-2.6537,-3.9291,-5.2805,-6.6013,1.2698,10.781,-9.4603,5.8252,1.2882,-4.6377,6.3823,-4.5752,8.8889
-8.91,0.7619,-0.65041,-1.3527,-3.3003,-2.1359,-3.252,-1.9968,-2.6537,-1.3527,-3.3003,-4.6405,-1.9048,5.6778,-12.635,0.64725,-3.8647,-5.9259,3.8547,-5.2288,5.6683
-10.806,-1.7778,-7.8049,0.57971,-4.6205,-1.4887,-5.8537,2.5121,-5.89,0.57971,-4.6205,-5.2941,-8.254,-2.6156,-17.714001,-7.1197,-12.238,-3.3494,-1.2006,-8.4967,-0.12882
-6.3823,-6.2222,-9.7561,1.2238,-2.6403,-0.19417,-5.2033,2.5121,-5.2427,1.2238,-2.6403,-3.3333,-11.429,-8.9952,-16.444,-13.592,-16.103001,-5.9259,-4.3602,-7.1895,-3.9936
-3.2227,-8.7619,-8.4553,4.4444,-0.66007,3.0421,-0.65041,3.1562,-3.301,4.4444,-0.66007,1.8954,-12.063,-14.099,-13.905,-17.476,-18.68,-0.77295,-6.8878,-3.268,-7.2142
-1.9589,-7.4921,-9.1057,7.6651,0.66007,4.9838,1.3008,5.7327,-2.0065,7.6651,0.66007,3.8562,-13.968,-18.565001,-11.365,-20.065001,-21.256001,1.8035,-6.2559,-1.3072,-10.435
2.4645,-3.6825,-5.8537,10.242,5.2805,8.2201,5.8537,8.3092,0.58252,10.242,5.2805,6.4706,-12.698,-19.202999,-7.5556,-15.534,-18.68,-0.77295,-3.7283,-0.65359,-9.1465
-1.327,0.7619,-3.252,9.5974,5.2805,9.5146,6.5041,8.9533,0.58252,9.5974,5.2805,7.7778,-11.429,-17.927,-9.4603,-8.4142,-14.815,1.1594,-3.0964,-2.6144,-7.8583
-1.9589,7.1111,0.0,8.3092,2.6403,9.5146,7.1545,5.7327,-0.71197,8.3092,2.6403,9.085,-6.3492,-10.909,-9.4603,1.2945,-7.7295,0.5153,-1.2006,-2.6144,-4.6377
-1.327,5.8413,1.3008,4.4444,-1.3201,5.6311,3.252,3.8003,-2.0065,4.4444,-1.3201,5.817,-0.63492,-1.9777,-6.9206,7.1197,-1.2882,-1.4171,0.06319,-5.2288,-0.77295
1.2006,2.0317,0.0,-1.3527,-3.9604,-0.19417,-1.3008,-0.06441,-3.301,-1.3527,-3.9604,0.58824,5.7143,5.6778,0.06349,9.7087,4.5089,-2.7053,-0.56872,-2.6144,1.1594
1.8325,-1.7778,-3.9024,-6.5056,-9.901,-5.3722,-7.1545,-4.5733,-4.5955,-6.5056,-9.901,-6.6013,10.794,10.144,6.4127,9.0615,8.3736,-3.9936,1.327,1.9608,3.7359
-3.8547,-8.127,-7.8049,-8.438,-10.561,-9.9029,-11.707,-3.9291,-6.5372,-8.438,-10.561,-11.176,8.8889,9.5056,7.0476,5.178,7.7295,1.8035,1.327,1.9608,2.4477
1.8325,-10.032,-7.1545,-6.5056,-8.5809,-11.197,-13.008,-5.8615,-6.5372,-6.5056,-8.5809,-12.484,6.9841,8.2297,8.9524,4.5307,9.0177,-0.12882,0.06319,1.9608,3.0918
-5.7504,-10.032,-9.1057,-5.8615,-7.9208,-12.492,-14.959,-5.2174,-7.8317,-5.8615,-7.9208,-14.444,3.1746,6.9537,3.873,3.2362,6.4412,-1.4171,-0.56872,2.6144,2.4477
-15.229,-9.3968,-12.358,-5.8615,-7.2607,-12.492,-14.309,-1.3527,-7.1845,-5.8615,-7.2607,-14.444,-3.1746,1.2121,-7.5556,-1.2945,-1.2882,0.5153,-3.7283,-3.268,-1.4171
-13.965,-8.127,-12.358,-3.9291,-5.2805,-9.2557,-11.057,-1.9968,-5.89,-3.9291,-5.2805,-11.176,-8.254,-3.8915,-13.905,-5.8252,-7.0853,-2.0612,-6.2559,-7.8431,-3.3494
-13.333,-10.667,-13.659,2.5121,0.0,-6.0194,-8.4553,1.2238,-5.2427,2.5121,0.0,-7.2549,-9.5238,-5.8054,-15.175,-8.4142,-10.306,-2.0612,-5.624,-7.1895,-3.9936
-8.278,-11.937,-9.7561,3.8003,0.66007,-2.7832,-7.8049,7.6651,-6.5372,3.8003,0.66007,-4.6405,-6.3492,-5.1675,-9.4603,-9.0615,-9.0177,-0.77295,-4.9921,-1.9608,-3.3494
6.2559,-9.3968,-1.9512,3.1562,-2.6403,3.0421,-5.2033,8.3092,-9.1262,3.1562,-2.6403,-0.71895,-3.1746,-3.2536,-1.2063,-8.4142,-5.7971,3.7359,-8.7836,5.2288,-4.6377
8.1517,-6.8571,3.9024,4.4444,-4.6205,6.2783,-3.252,13.462,-12.362,4.4444,-4.6205,1.8954,0.0,-3.2536,2.6032,-7.1197,-3.8647,14.686,-13.207,11.765,-8.5024
15.735,-2.4127,13.008,7.6651,-2.6403,12.104,1.3008,16.039,-13.01,7.6651,-2.6403,7.7778,3.1746,-2.6156,10.222,-5.178,1.2882,15.33,-13.839,18.301001,-9.7907
14.471,2.6667,16.26,5.0886,-5.9406,12.751,3.252,11.53,-11.715,5.0886,-5.9406,8.4314,0.63492,-3.2536,8.9524,-3.8835,2.5765,14.042,-13.207,11.765,-9.7907
8.7836,5.8413,13.008,2.5121,-3.3003,10.162,5.2033,8.3092,-5.2427,2.5121,-3.3003,7.7778,-2.5397,-5.1675,5.7778,-1.9417,0.64412,10.821,-5.624,3.9216,-5.9259
8.7836,5.2063,8.4553,1.2238,-1.3201,7.5728,6.5041,5.7327,1.2298,1.2238,-1.3201,7.1242,-5.7143,-8.3573,5.7778,-2.589,-0.64412,4.38,-0.56872,1.9608,-5.9259
11.311,7.1111,9.1057,2.5121,3.9604,9.5146,12.358,1.868,8.3495,2.5121,3.9604,10.392,-9.5238,-10.909,3.2381,-2.589,-1.2882,-1.4171,2.5908,-3.268,-5.2818
4.9921,9.0159,8.4553,3.1562,6.6007,8.2201,13.659,4.4444,11.586,3.1562,6.6007,11.046,-12.698,-10.909,-1.8413,-2.589,-2.5765,-2.0612,5.7504,-9.1503,-4.6377
-1.327,7.1111,7.1545,3.1562,5.2805,6.9256,11.057,5.0886,10.291,3.1562,5.2805,9.7386,-13.333,-9.6332,-4.381,-1.2945,-1.2882,2.4477,5.7504,-11.111,-3.3494
2.4645,7.1111,9.1057,3.8003,1.9802,6.9256,7.8049,3.8003,7.055,3.8003,1.9802,7.7778,-7.619,-3.8915,0.06349,3.2362,3.8647,1.8035,5.1185,-3.9216,-0.12882
10.047,5.8413,8.4553,3.1562,-1.9802,6.2783,2.6016,5.0886,2.5243,3.1562,-1.9802,3.2026,-1.9048,1.2121,7.0476,7.767,9.0177,1.1594,3.2227,-1.9608,1.8035
14.471,3.9365,5.2033,1.868,-0.66007,6.9256,0.0,5.0886,0.58252,1.868,-0.66007,0.58824,0.63492,4.4019,8.9524,9.7087,9.6618,3.0918,1.327,-2.6144,3.0918
4.3602,2.0317,-1.9512,4.4444,3.3003,5.6311,0.0,10.242,0.58252,4.4444,3.3003,-0.06536,1.2698,4.4019,5.1429,7.767,6.4412,7.6006,1.327,-1.9608,3.0918
1.2006,3.3016,-5.2033,8.3092,7.2607,8.2201,3.252,10.242,-0.06472,8.3092,7.2607,4.5098,1.2698,3.764,2.6032,5.8252,4.5089,7.6006,0.6951,-1.3072,2.4477
9.4155,2.0317,0.65041,13.462,5.2805,14.693,5.8537,12.174,1.2298,13.462,5.2805,9.7386,3.8095,4.4019,5.7778,6.4725,6.4412,1.8035,0.06319,1.9608,3.7359
11.943,0.12698,7.1545,14.106,3.3003,14.693,5.2033,8.9533,-0.71197,14.106,3.3003,10.392,6.9841,6.3158,8.3175,7.1197,9.6618,3.0918,-0.56872,4.5752,3.7359
8.7836,0.7619,9.7561,8.3092,3.3003,11.456,0.65041,5.0886,-2.6537,8.3092,3.3003,7.1242,8.254,5.0399,8.3175,5.178,9.6618,2.4477,0.6951,6.5359,3.0918
0.56872,-1.7778,5.8537,3.8003,0.66007,5.6311,-4.5528,3.1562,-3.301,3.8003,0.66007,0.58824,5.0794,-0.0638,2.6032,-1.2945,4.5089,0.5153,0.06319,3.268,0.5153
2.4645,-2.4127,3.252,3.8003,0.0,3.0421,-4.5528,-0.70853,-0.71197,3.8003,0.0,-0.06536,1.9048,-5.8054,-1.2063,-7.767,-1.9324,-5.2818,-1.8325,1.3072,-3.9936
-4.4866,-3.6825,0.65041,5.7327,3.3003,0.45307,-0.65041,-0.06441,3.8188,5.7327,3.3003,1.8954,-0.63492,-8.3573,-5.0159,-12.298,-7.7295,-6.57,-1.2006,1.9608,-5.2818
-3.8547,-0.50794,1.3008,5.7327,5.9406,-0.19417,3.252,-2.6409,7.055,5.7327,5.9406,2.549,0.0,-5.1675,-3.746,-11.65,-9.0177,-6.57,2.5908,0.65359,-2.7053
-2.5908,-3.0476,-0.65041,2.5121,5.2805,-2.7832,3.9024,-5.2174,8.9968,2.5121,5.2805,0.58824,1.2698,-2.6156,0.06349,-10.356,-9.0177,-8.5024,4.4866,3.9216,-1.4171
-8.278,-6.8571,-7.8049,-1.3527,-0.66007,-7.9612,-2.6016,-4.5733,6.4078,-1.3527,-0.66007,-6.6013,-0.63492,-1.9777,-1.2063,-9.7087,-10.95,-2.7053,3.2227,0.0,-1.4171
-5.1185,-5.5873,-11.057,-3.9291,-3.9604,-9.9029,-8.4553,-5.8615,3.1715,-3.9291,-3.9604,-11.83,-2.5397,-0.70175,-0.57143,-5.8252,-9.6618,-0.77295,1.327,-3.9216,0.5153
-7.6461,-6.8571,-18.211,-7.1498,-6.6007,-15.081,-15.61,-7.1498,-0.06472,-7.1498,-6.6007,-20.327,-5.7143,-0.70175,-4.381,-3.2362,-10.95,-2.7053,1.327,-7.1895,1.8035
-10.806,-7.4921,-22.114,-11.014,-7.9208,-18.316999,-18.211,-7.1498,-3.301,-11.014,-7.9208,-24.247999,-8.8889,-0.0638,-8.1905,-1.9417,-11.594,-5.2818,1.327,-9.1503,3.0918
-8.278,-5.5873,-17.561001,-12.303,-11.881,-17.67,-15.61,-7.1498,-3.9482,-12.303,-11.881,-21.634001,-6.9841,1.2121,-7.5556,0.64725,-7.7295,-5.2818,1.9589,-8.4967,5.0242
-3.8547,-1.1429,-7.8049,-9.0821,-11.881,-13.786,-9.1057,-5.2174,-4.5955,-9.0821,-11.881,-14.444,-3.8095,1.2121,-3.746,1.2945,-3.8647,-3.3494,-0.56872,-5.8824,4.38
-3.8547,-0.50794,-1.9512,-5.8615,-7.2607,-9.9029,-5.2033,-1.3527,-4.5955,-5.8615,-7.2607,-8.5621,-1.9048,-0.70175,-2.4762,0.64725,-1.2882,-2.7053,-0.56872,-3.9216,2.4477
-3.8547,-0.50794,0.0,-3.9291,-3.9604,-7.3139,-2.6016,-2.6409,-2.6537,-3.9291,-3.9604,-6.6013,3.8095,1.8501,1.3333,3.8835,3.2206,-1.4171,1.327,5.2288,3.0918
-4.4866,0.12698,-3.9024,-5.8615,-1.3201,-7.9612,-2.6016,-7.1498,-1.3592,-5.8615,-1.3201,-7.2549,7.619,3.764,0.69841,5.178,5.153,1.1594,1.9589,5.2288,3.0918
-10.806,1.3968,-10.407,-5.8615,-3.3003,-11.197,-3.9024,-7.1498,1.2298,-5.8615,-3.3003,-9.2157,6.3492,3.764,-5.0159,5.8252,2.5765,-3.9936,3.2227,-0.65359,3.0918
-17.125,3.3016,-11.057,-3.285,-3.3003,-11.197,-1.3008,-7.7939,2.5243,-3.285,-3.3003,-7.2549,2.5397,2.488,-11.365,5.178,0.0,-8.5024,3.2227,-5.2288,3.0918
-11.438,7.1111,-1.9512,-0.06441,1.9802,-6.0194,2.6016,-7.7939,5.1133,-0.06441,1.9802,-2.0261,0.63492,2.488,-10.73,5.178,0.64412,-8.5024,4.4866,-5.8824,3.0918
2.4645,7.1111,5.2033,0.57971,5.9406,-2.1359,3.9024,-7.7939,4.466,0.57971,5.9406,0.58824,-0.63492,1.2121,-3.1111,3.8835,1.9324,-9.7907,3.2227,-2.6144,1.1594
8.7836,5.2063,5.8537,1.868,5.9406,2.3948,2.6016,-1.3527,3.1715,1.868,5.9406,1.2418,2.5397,0.57416,6.4127,1.2945,3.2206,-3.3494,1.9589,3.268,-0.77295
8.1517,-2.4127,2.6016,1.868,1.9802,1.1003,0.65041,4.4444,0.58252,1.868,1.9802,-0.71895,6.9841,-0.0638,14.667,-1.9417,3.2206,2.4477,-1.8325,9.1503,-2.7053
6.8878,-8.127,0.65041,-1.3527,0.66007,-1.4887,-1.3008,3.8003,-2.6537,-1.3527,0.66007,-2.0261,11.429,-0.70175,19.111,-4.5307,2.5765,8.2448,-4.9921,15.033,-3.9936
10.679,-7.4921,2.6016,-3.285,-2.6403,-0.84142,-0.65041,1.868,-5.2427,-3.285,-2.6403,-0.71895,12.698,-0.0638,19.746,-4.5307,4.5089,12.11,-6.2559,13.072,-3.3494
12.575,-6.8571,3.252,-3.285,-5.2805,1.7476,0.65041,-0.06441,-5.89,-3.285,-5.2805,0.58824,12.063,-0.70175,17.205999,-3.8835,3.8647,12.11,-5.624,11.111,-3.3494
12.575,-6.2222,3.252,-1.9968,-3.3003,4.9838,3.252,2.5121,-5.89,-1.9968,-3.3003,3.2026,8.8889,-2.6156,12.762,-6.4725,0.64412,10.177,-5.624,11.111,-3.9936
9.4155,-5.5873,3.252,1.2238,-0.66007,6.9256,5.2033,8.3092,-4.5955,1.2238,-0.66007,5.1634,3.8095,-5.8054,4.5079,-9.0615,-3.2206,8.2448,-6.8878,5.8824,-5.2818
12.575,1.3968,5.2033,1.868,1.3201,6.9256,6.5041,5.7327,-5.89,1.868,1.3201,6.4706,3.1746,-4.5295,2.6032,-5.8252,-0.64412,5.6683,-8.1517,4.5752,-5.2818
3.7283,-0.50794,1.3008,1.868,0.66007,1.1003,2.6016,8.3092,-4.5955,1.868,0.66007,0.58824,2.5397,-1.9777,0.69841,-2.589,0.64412,5.6683,-7.5197,3.268,-3.9936
-12.701,-3.6825,-6.5041,0.57971,-1.9802,-7.3139,-2.6016,5.0886,-2.0065,0.57971,-1.9802,-7.2549,-2.5397,-1.9777,-6.9206,-1.2945,-1.9324,2.4477,-1.8325,0.0,-1.4171
-19.021,-1.1429,-11.707,-2.6409,-1.3201,-11.845,-3.252,-1.3527,1.2298,-2.6409,-1.3201,-8.5621,-12.063,-3.8915,-18.983999,-2.589,-8.3736,-5.2818,1.9589,-10.458,0.5153
-20.916,2.6667,-11.057,-0.70853,3.3003,-7.9612,0.0,-2.6409,5.7605,-0.70853,3.3003,-4.6405,-22.857,-7.0813,-32.952,-3.8835,-16.103001,-9.1465,4.4866,-23.528999,1.8035
-24.076,5.8413,-9.7561,3.1562,5.2805,-2.7832,3.252,-1.9968,8.9968,3.1562,5.2805,0.58824,-29.841,-10.271,-42.476002,-5.178,-23.188,-13.655,6.3823,-30.065001,2.4477
-21.548,5.2063,-12.358,4.4444,5.9406,-2.1359,2.6016,-1.9968,10.939,4.4444,5.9406,0.58824,-29.205999,-11.547,-39.937,-5.8252,-24.476999,-17.52,4.4866,-28.105,1.1594
-14.597,2.6667,-14.959,1.868,7.2607,-3.4304,2.6016,-0.06441,10.939,1.868,7.2607,0.58824,-19.048,-9.6332,-26.603001,-5.178,-20.612,-12.367,5.7504,-19.608,0.5153
-3.2227,3.9365,-11.057,-1.3527,5.9406,-2.7832,2.6016,-1.3527,8.9968,-1.3527,5.9406,1.2418,-5.0794,-3.8915,-8.1905,-0.64725,-10.306,-7.8583,8.91,-7.1895,3.7359
4.9921,1.3968,-3.9024,-3.9291,1.9802,-2.7832,1.9512,-4.5733,6.4078,-3.9291,1.9802,1.2418,6.3492,1.2121,5.1429,4.5307,-0.64412,-2.7053,10.806,1.3072,6.9565
12.575,3.3016,6.5041,-4.5733,0.0,-1.4887,4.5528,-6.5056,6.4078,-4.5733,0.0,4.5098,15.238,5.6778,14.667,8.4142,8.3736,-6.57,10.806,10.458,8.2448
18.893999,8.381,15.61,-0.70853,1.9802,5.6311,10.407,-7.1498,6.4078,-0.70853,1.9802,9.7386,20.952,10.144,17.205999,12.298,14.815,-7.2142,8.91,8.4967,8.8889
5.624,7.746,11.707,-1.9968,1.3201,4.9838,6.5041,0.57971,3.8188,-1.9968,1.3201,5.1634,22.857,11.419,11.492,11.65,15.459,1.8035,5.7504,5.2288,6.3124
-1.327,7.746,6.5041,-7.7939,-1.9802,-0.19417,2.6016,-0.70853,1.877,-7.7939,-1.9802,-1.3725,24.761999,13.971,10.857,14.239,17.391001,5.0242,1.9589,5.8824,5.0242
6.8878,9.6508,8.4553,-5.8615,-1.9802,-0.19417,0.65041,-1.9968,-0.71197,-5.8615,-1.9802,-2.6797,29.841,18.437,19.746,18.122999,23.188,5.6683,1.327,11.111,6.3124
10.047,3.9365,9.1057,-2.6409,-3.3003,-0.19417,-1.9512,2.5121,-2.0065,-2.6409,-3.3003,-3.3333,33.651001,20.989,26.73,18.122999,25.764999,9.533,0.6951,16.993,6.9565
9.4155,-1.7778,6.5041,-4.5733,-6.6007,-0.19417,-5.2033,1.868,-3.9482,-4.5733,-6.6007,-3.9869,33.651001,20.989,27.365,16.181,25.121,10.821,-1.8325,18.301001,6.9565
11.943,-1.1429,4.5528,-2.6409,-5.2805,3.0421,-3.9024,5.7327,-3.301,-2.6409,-5.2805,-1.3725,29.841,19.075001,26.73,13.592,21.9,8.2448,-1.2006,19.608,7.6006
5.624,-1.7778,1.9512,3.1562,-2.6403,7.5728,-1.3008,8.3092,-2.0065,3.1562,-2.6403,3.8562,15.873,8.8676,14.667,4.5307,10.306,8.2448,-2.4645,9.8039,5.0242
6.2559,1.3968,2.6016,5.7327,3.3003,12.104,3.252,7.6651,-0.06472,5.7327,3.3003,9.085,-0.63492,-2.6156,2.6032,-2.589,-1.2882,8.8889,0.06319,1.3072,2.4477
0.56872,3.3016,-1.3008,7.0209,3.9604,10.162,4.5528,7.6651,0.58252,7.0209,3.9604,9.085,-13.333,-8.9952,-7.5556,-5.8252,-12.238,5.6683,0.6951,-4.5752,0.5153
-8.91,1.3968,-10.407,7.6651,1.9802,4.9838,2.6016,7.0209,1.2298,7.6651,1.9802,5.1634,-19.683001,-8.9952,-15.81,-5.8252,-20.612,1.1594,1.327,-11.111,0.5153
-5.7504,-1.1429,-17.561001,7.0209,5.9406,3.0421,3.9024,2.5121,4.466,7.0209,5.9406,3.8562,-18.413,-5.1675,-16.444,-6.4725,-22.544001,-5.9259,0.6951,-11.111,-0.12882
-12.701,0.12698,-18.862,7.0209,10.561,3.0421,7.1545,1.868,7.055,7.0209,10.561,5.1634,-14.603,-2.6156,-17.714001,-7.1197,-20.612,-4.6377,2.5908,-9.8039,-1.4171
-12.701,-0.50794,-10.407,9.5974,15.842,5.6311,12.358,3.8003,11.586,9.5974,15.842,9.7386,-10.794,-0.70175,-14.54,-3.8835,-13.527,-4.6377,6.3823,-8.4967,-0.77295
-0.6951,4.5714,5.8537,8.3092,17.162001,8.8673,17.561001,1.868,14.822,8.3092,17.162001,14.314,-5.0794,1.8501,-3.746,3.2362,0.0,-6.57,5.7504,-6.5359,-0.12882
11.943,14.73,22.114,7.6651,15.182,10.809,22.114,-0.06441,14.822,7.6651,15.182,18.235001,1.2698,5.6778,7.6825,14.239,15.459,-6.57,8.278,-1.9608,2.4477
14.471,21.714001,29.268,7.0209,15.182,12.751,23.415001,0.57971,14.822,7.0209,15.182,20.195999,5.0794,9.5056,12.762,22.653999,24.476999,-0.12882,7.0142,0.0,5.0242
13.207,23.618999,29.919001,7.0209,17.162001,12.104,24.065001,-0.06441,16.117001,7.0209,17.162001,20.85,8.8889,13.333,17.841,27.184,30.274,3.7359,10.806,3.9216,7.6006
14.471,23.618999,27.316999,5.7327,13.861,10.809,22.764,-0.70853,16.117001,5.7327,13.861,18.235001,13.333,17.799,22.921,29.773001,33.493999,3.0918,14.597,7.1895,12.754
11.943,22.983999,24.715,4.4444,11.221,6.9256,20.813,-1.3527,14.175,4.4444,11.221,15.621,13.968,19.075001,24.825001,28.479,33.493999,1.8035,14.597,9.1503,14.042
10.047,17.27,23.415001,5.7327,13.861,4.9838,18.211,-3.285,14.175,5.7327,13.861,14.967,10.159,16.523001,20.381001,24.594999,28.341,-0.12882,11.438,7.1895,12.754
7.5197,10.286,18.862,5.0886,11.881,4.3366,13.659,-3.9291,10.939,5.0886,11.881,13.66,5.0794,11.419,13.397,16.827999,19.323999,-2.7053,7.6461,6.5359,9.533
7.5197,6.4762,14.959,8.3092,13.201,6.2783,11.707,1.2238,8.9968,8.3092,13.201,13.66,-2.5397,5.0399,3.2381,9.0615,8.3736,-4.6377,5.1185,0.0,6.3124
4.3602,2.6667,10.407,10.242,11.881,8.2201,10.407,3.1562,7.7023,10.242,11.881,13.007,-9.5238,-1.3397,-5.6508,1.2945,-1.2882,-3.9936,2.5908,-5.2288,2.4477
4.9921,3.9365,7.8049,9.5974,13.201,9.5146,10.407,3.1562,7.7023,9.5974,13.201,13.007,-10.794,-2.6156,-6.9206,0.64725,-3.8647,-3.3494,3.2227,-3.268,2.4477
6.2559,7.1111,6.5041,9.5974,10.561,8.8673,9.7561,3.8003,6.4078,9.5974,10.561,11.699,-8.254,-0.0638,-6.2857,3.8835,-3.8647,-0.77295,7.6461,-3.268,5.0242
7.5197,10.921,7.8049,5.0886,1.9802,9.5146,7.8049,1.2238,1.2298,5.0886,1.9802,11.046,-2.5397,3.764,-2.4762,7.1197,-1.9324,1.8035,6.3823,-0.65359,5.6683
3.0964,5.2063,5.8537,2.5121,-2.6403,6.2783,3.252,0.57971,-2.0065,2.5121,-2.6403,7.1242,3.1746,5.0399,1.3333,6.4725,-0.64412,0.5153,1.9589,1.9608,3.7359
3.0964,-0.50794,2.6016,1.2238,-2.6403,3.6893,-1.3008,-0.06441,-3.301,1.2238,-2.6403,3.2026,9.5238,5.6778,8.3175,2.589,1.2882,-2.0612,-1.8325,6.5359,1.1594
3.7283,-1.7778,1.3008,1.2238,-2.6403,1.7476,-4.5528,-0.06441,-4.5955,1.2238,-2.6403,-0.06536,12.698,5.0399,10.222,-0.64725,2.5765,-0.77295,-3.0964,5.2288,-0.77295
-0.06319,-3.6825,-0.65041,0.57971,-2.6403,-0.19417,-5.8537,1.868,-4.5955,0.57971,-2.6403,-2.6797,11.429,3.126,6.4127,-3.2362,1.9324,-0.12882,-6.2559,1.3072,-3.3494
-0.06319,-4.3175,-1.3008,-2.6409,-3.3003,-1.4887,-7.1545,0.57971,-5.2427,-2.6409,-3.3003,-3.9869,10.159,1.2121,4.5079,-3.8835,0.64412,-3.3494,-5.624,2.6144,-4.6377
1.8325,-4.3175,-0.65041,-3.285,-5.9406,-0.84142,-7.1545,1.2238,-5.2427,-3.285,-5.9406,-3.9869,9.5238,1.8501,1.9683,-2.589,1.2882,-0.12882,-0.56872,2.6144,-2.0612
2.4645,-1.7778,-1.9512,-6.5056,-9.2409,-2.7832,-7.8049,-2.6409,-5.89,-6.5056,-9.2409,-5.9477,5.0794,1.2121,-2.4762,-2.589,-0.64412,-1.4171,-2.4645,0.65359,-2.0612
1.8325,-4.9524,-2.6016,-6.5056,-9.901,-3.4304,-5.8537,-3.9291,-3.301,-6.5056,-9.901,-4.6405,-1.2698,-2.6156,-6.9206,-4.5307,-3.8647,-2.0612,-1.2006,-3.268,-2.0612
-6.3823,-6.8571,-4.5528,-5.2174,-7.9208,-4.0777,-3.252,-3.285,-0.06472,-5.2174,-7.9208,-3.3333,-8.254,-6.4434,-13.27,-9.0615,-9.0177,-1.4171,-0.56872,-5.8824,-2.0612
-15.861,-5.5873,-7.8049,-6.5056,-3.9604,-8.6084,-3.252,-3.9291,1.2298,-6.5056,-3.9604,-4.6405,-13.333,-9.6332,-18.349001,-12.298,-14.171,-4.6377,-2.4645,-5.8824,-2.7053
-17.125,-7.4921,-11.057,-7.7939,-3.3003,-9.2557,-6.5041,-4.5733,0.58252,-7.7939,-3.3003,-6.6013,-14.603,-10.909,-22.159,-13.592,-18.035,-3.3494,-1.2006,-8.4967,-2.0612
-13.333,-11.302,-14.309,-6.5056,-4.6205,-7.9612,-11.707,-1.9968,-2.6537,-6.5056,-4.6205,-9.2157,-13.968,-10.271,-20.889,-14.887,-19.968,-0.77295,-2.4645,-7.8431,-2.7053
-10.806,-13.841,-17.561001,-5.2174,-8.5809,-8.6084,-14.959,1.2238,-6.5372,-5.2174,-8.5809,-12.484,-10.794,-8.3573,-15.175,-15.534,-19.323999,2.4477,-5.624,-2.6144,-2.7053
-7.6461,-13.206,-16.910999,-8.438,-11.881,-11.197,-15.61,-0.70853,-9.1262,-8.438,-11.881,-13.791,-5.7143,-6.4434,-8.8254,-16.181,-17.391001,3.0918,-6.8878,3.268,-4.6377
-1.9589,-12.571,-11.707,-7.7939,-9.2409,-9.2557,-11.057,-0.06441,-10.421,-7.7939,-9.2409,-9.8693,-0.63492,-6.4434,-1.8413,-17.476,-13.527,5.0242,-11.311,7.8431,-8.5024
3.7283,-13.206,-2.6016,-5.2174,-5.9406,-4.7249,-5.8537,-0.06441,-8.479,-5.2174,-5.9406,-3.3333,3.8095,-4.5295,4.5079,-14.887,-7.7295,10.177,-15.735,11.765,-11.079
9.4155,-10.032,5.2033,-3.285,-5.2805,-1.4887,-1.3008,1.2238,-7.1845,-3.285,-5.2805,1.2418,7.619,-1.9777,9.5873,-9.7087,-1.9324,12.754,-12.575,14.379,-11.079
6.8878,-4.9524,5.2033,-3.285,-3.3003,2.3948,-0.65041,5.0886,-5.89,-3.285,-3.3003,2.549,7.619,-3.2536,10.857,-6.4725,0.64412,13.398,-11.311,16.993,-11.079
3.0964,-5.5873,-2.6016,-3.285,-1.9802,-0.84142,-4.5528,3.8003,-5.89,-3.285,-1.9802,-2.0261,3.8095,-7.7193,7.6825,-6.4725,-1.2882,12.11,-11.943,10.458,-12.367
1.8325,-6.2222,-10.407,-1.9968,-3.9604,-4.0777,-10.407,2.5121,-5.89,-1.9968,-3.9604,-8.5621,0.0,-11.547,7.0476,-7.767,-3.2206,11.465,-11.311,7.8431,-13.655
-5.7504,-8.7619,-14.309,-2.6409,-7.2607,-6.6667,-13.659,1.2238,-7.8317,-2.6409,-7.2607,-11.83,-3.8095,-16.013,4.5079,-10.356,-5.7971,11.465,-11.943,7.1895,-15.588
-5.7504,-7.4921,-11.707,-4.5733,-7.9208,-6.0194,-13.659,-1.9968,-9.1262,-4.5733,-7.9208,-11.176,-5.7143,-17.289,0.69841,-13.592,-7.7295,6.3124,-11.943,2.6144,-14.944
-11.438,-11.937,-11.057,-6.5056,-9.901,-6.6667,-14.959,0.57971,-10.421,-6.5056,-9.901,-10.523,-8.8889,-16.650999,-6.2857,-16.827999,-10.306,1.1594,-8.1517,-1.3072,-12.367
-18.389,-12.571,-14.309,-6.5056,-12.541,-8.6084,-15.61,-1.9968,-7.8317,-6.5056,-12.541,-11.83,-12.063,-14.099,-15.175,-14.887,-13.527,-3.9936,-3.0964,-7.1895,-8.5024
-16.493,-7.4921,-16.26,-6.5056,-11.881,-7.9612,-13.008,-6.5056,-5.2427,-6.5056,-11.881,-10.523,-15.238,-10.271,-18.349001,-10.356,-14.815,-8.5024,1.9589,-9.8039,-2.7053
-13.333,-4.9524,-14.959,-9.0821,-11.221,-6.6667,-11.707,-7.7939,-4.5955,-9.0821,-11.221,-9.2157,-18.413,-9.6332,-18.349001,-8.4142,-14.171,-6.57,0.06319,-13.725,-0.12882
-9.5419,-4.3175,-11.707,-10.37,-7.9208,-6.0194,-11.057,-6.5056,-4.5955,-10.37,-7.9208,-9.2157,-16.507999,-7.0813,-12.0,-4.5307,-9.6618,-2.7053,-0.56872,-13.072,1.1594
-7.6461,-4.3175,-7.1545,-7.7939,-8.5809,-7.9612,-11.707,-2.6409,-6.5372,-7.7939,-8.5809,-9.2157,-12.063,-4.5295,-3.1111,-1.2945,-4.5089,-0.12882,1.327,-6.5359,3.0918
-3.2227,-8.127,-5.8537,-7.1498,-12.541,-8.6084,-12.358,-1.9968,-8.479,-7.1498,-12.541,-10.523,-8.8889,-2.6156,1.3333,-1.2945,-2.5765,0.5153,1.327,-3.268,3.0918
-2.5908,-10.032,-6.5041,-7.7939,-10.561,-7.9612,-10.407,-3.285,-9.7735,-7.7939,-10.561,-9.8693,-6.3492,-2.6156,1.3333,-5.8252,-4.5089,1.8035,-2.4645,0.0,1.1594
-2.5908,-10.032,-6.5041,-5.8615,-6.6007,-5.3722,-7.1545,-1.3527,-7.1845,-5.8615,-6.6007,-7.2549,-4.4444,-3.2536,-0.57143,-8.4142,-5.7971,0.5153,-4.9921,0.65359,-0.77295
2.4645,-11.302,-7.1545,-3.285,-3.9604,-3.4304,-4.5528,-2.6409,-5.89,-3.285,-3.9604,-3.9869,-1.2698,-1.9777,1.3333,-9.0615,-5.153,-5.2818,-6.2559,4.5752,-1.4171
-5.7504,-11.302,-13.659,-1.3527,-4.6205,-5.3722,-6.5041,-0.70853,-6.5372,-1.3527,-4.6205,-5.2941,-1.9048,-3.8915,-3.1111,-9.7087,-6.4412,-0.12882,-8.1517,1.9608,-3.3494
-14.597,-8.127,-18.211,-3.9291,-7.2607,-9.2557,-8.4553,-1.9968,-8.479,-3.9291,-7.2607,-8.5621,-1.9048,-3.2536,-6.2857,-7.767,-6.4412,3.0918,-10.047,-3.9216,-3.3494
-2.5908,-3.6825,-13.008,-6.5056,-6.6007,-9.9029,-9.1057,-8.438,-8.479,-6.5056,-6.6007,-8.5621,5.0794,3.126,1.9683,-1.2945,1.2882,-3.9936,-4.3602,-0.65359,0.5153
-7.6461,-3.6825,-8.4553,-3.9291,-3.3003,-9.9029,-7.8049,-4.5733,-7.1845,-3.9291,-3.3003,-6.6013,7.619,3.764,3.2381,0.0,3.2206,-1.4171,-2.4645,1.3072,1.1594
-8.278,-4.3175,-2.6016,-0.70853,-1.3201,-5.3722,-5.8537,-0.70853,-5.2427,-0.70853,-1.3201,-2.0261,5.0794,0.57416,0.69841,-3.8835,1.2882,-0.77295,-3.7283,-0.65359,-3.3494
-4.4866,-3.6825,2.6016,0.57971,1.3201,-0.84142,0.0,0.57971,-2.0065,0.57971,1.3201,3.8562,1.9048,-1.9777,-3.746,-6.4725,-2.5765,-2.7053,-3.7283,-1.9608,-4.6377
-7.6461,-2.4127,3.9024,1.2238,3.9604,0.45307,5.2033,-0.70853,3.8188,1.2238,3.9604,7.7778,-5.7143,-5.8054,-13.905,-8.4142,-9.0177,-7.2142,-2.4645,-7.8431,-5.9259
-11.438,5.8413,9.1057,3.8003,7.9208,2.3948,13.008,-2.6409,8.9968,3.8003,7.9208,13.66,-10.794,-7.0813,-20.889,-4.5307,-10.306,-16.232,0.06319,-9.1503,-4.6377
-12.701,13.46,12.358,1.868,8.5809,3.6893,13.659,-7.1498,10.291,1.868,8.5809,13.66,-12.063,-4.5295,-24.063,2.589,-7.0853,-13.655,4.4866,-15.686,-0.12882
-10.806,11.556,7.8049,-3.285,2.6403,-2.7832,4.5528,-9.0821,7.055,-3.285,2.6403,4.5098,-7.619,1.2121,-15.81,8.4142,-0.64412,-10.435,8.278,-15.033,4.38
-7.6461,6.4762,-0.65041,-7.7939,-1.9802,-8.6084,-3.9024,-9.0821,3.8188,-7.7939,-1.9802,-3.9869,0.63492,6.9537,-4.381,11.003,4.5089,-9.1465,8.91,-6.5359,7.6006
-0.06319,-0.50794,-5.8537,-9.7262,-1.9802,-9.9029,-8.4553,-11.014,1.2298,-9.7262,-1.9802,-7.9085,8.254,10.781,3.873,9.7087,7.7295,-9.7907,3.2227,-1.3072,8.8889
3.7283,-1.1429,-7.1545,-11.014,-5.2805,-9.9029,-8.4553,-11.014,-1.3592,-11.014,-5.2805,-7.9085,13.333,13.333,7.6825,8.4142,10.306,-9.7907,2.5908,-0.65359,10.177
-4.4866,-3.6825,-8.4553,-9.7262,-7.9208,-8.6084,-8.4553,-6.5056,-1.3592,-9.7262,-7.9208,-7.2549,15.238,14.609,5.1429,6.4725,9.6618,-3.9936,1.9589,-0.65359,10.821
-4.4866,-6.8571,-5.8537,-9.7262,-9.901,-6.0194,-9.7561,-5.8615,-3.301,-9.7262,-9.901,-6.6013,15.238,15.247,5.7778,5.178,9.0177,-4.6377,2.5908,4.5752,10.177
3.7283,-3.6825,0.65041,-8.438,-9.2409,-2.7832,-9.7561,-4.5733,-3.9482,-8.438,-9.2409,-4.6405,15.238,15.247,9.5873,7.1197,10.95,-1.4171,3.8547,3.9216,9.533
4.9921,-3.0476,2.6016,-7.1498,-5.2805,-0.84142,-7.8049,-2.6409,-4.5955,-7.1498,-5.2805,-3.3333,10.159,10.144,8.3175,5.8252,9.0177,4.38,-1.2006,0.0,5.0242
6.2559,-1.1429,5.8537,-1.3527,-3.3003,3.0421,-3.252,1.868,-1.3592,-1.3527,-3.3003,1.8954,5.0794,5.6778,8.9524,4.5307,7.7295,6.3124,-1.2006,1.3072,2.4477
8.1517,6.4762,11.707,3.1562,-0.66007,6.9256,4.5528,7.0209,1.877,3.1562,-0.66007,7.7778,3.8095,5.0399,9.5873,7.1197,9.0177,8.8889,2.5908,6.5359,1.8035
12.575,10.921,15.61,1.868,0.0,8.8673,7.1545,6.3768,3.8188,1.868,0.0,9.7386,3.1746,6.3158,9.5873,11.003,9.6618,7.6006,3.8547,7.1895,1.8035
7.5197,8.381,10.407,-1.3527,-2.6403,5.6311,4.5528,3.8003,3.1715,-1.3527,-2.6403,5.817,1.2698,4.4019,6.4127,10.356,7.7295,11.465,1.9589,9.8039,-0.12882
0.56872,2.0317,1.3008,-3.9291,-7.2607,0.45307,-1.9512,5.7327,-0.71197,-3.9291,-7.2607,-1.3725,1.9048,0.57416,5.1429,5.8252,3.2206,18.551001,-3.0964,15.686,-5.2818
1.8325,-2.4127,-5.8537,-5.2174,-8.5809,-2.7832,-5.8537,5.7327,-4.5955,-5.2174,-8.5809,-5.9477,5.0794,-1.3397,8.9524,1.9417,0.64412,19.195,-3.7283,24.837,-6.57
-3.8547,-7.4921,-14.959,-7.7939,-8.5809,-6.6667,-8.4553,3.1562,-4.5955,-7.7939,-8.5809,-9.8693,2.5397,-4.5295,3.873,-2.589,-5.153,14.686,-4.9921,18.954,-7.2142
-3.8547,-6.8571,-15.61,-7.1498,-3.9604,-6.6667,-4.5528,-0.70853,-2.6537,-7.1498,-3.9604,-7.2549,0.0,-6.4434,-1.2063,-5.8252,-8.3736,7.6006,-6.8878,11.111,-7.2142
-6.3823,-4.3175,-8.4553,-3.285,2.6403,-2.7832,0.65041,-5.2174,1.877,-3.285,2.6403,-1.3725,-2.5397,-7.0813,-5.6508,-5.178,-7.7295,5.0242,-2.4645,5.2288,-4.6377
-12.07,-3.0476,-5.8537,-1.3527,4.6205,-4.7249,-0.65041,-3.9291,2.5243,-1.3527,4.6205,-2.6797,-3.1746,-6.4434,-8.1905,-4.5307,-5.153,1.1594,-2.4645,-1.3072,-4.6377
-9.5419,-3.6825,-4.5528,-1.9968,6.6007,-6.0194,-1.3008,-3.285,3.8188,-1.9968,6.6007,-3.9869,-1.9048,-4.5295,-5.0159,-3.2362,-1.2882,-2.7053,-3.7283,-2.6144,-4.6377
-2.5908,-3.6825,-2.6016,-1.3527,5.9406,-3.4304,0.0,-5.2174,6.4078,-1.3527,5.9406,-2.0261,-2.5397,-3.8915,-3.746,-2.589,0.64412,-3.3494,-2.4645,-3.268,-4.6377
8.7836,2.6667,3.9024,2.5121,8.5809,1.7476,6.5041,-7.7939,10.939,2.5121,8.5809,3.8562,-3.1746,-1.3397,-1.8413,0.64725,3.8647,-9.1465,-1.2006,-6.5359,-2.0612
2.4645,9.6508,7.8049,3.8003,10.561,3.0421,10.407,-4.5733,13.528,3.8003,10.561,6.4706,-4.4444,2.488,-5.6508,6.4725,5.7971,-9.7907,6.3823,-10.458,3.0918
-5.1185,12.19,8.4553,1.2238,10.561,-0.19417,9.7561,-6.5056,12.233,1.2238,10.561,5.1634,-6.9841,4.4019,-10.73,11.003,4.5089,-12.367,11.438,-15.033,6.3124
-10.806,14.73,8.4553,-3.285,9.901,-4.0777,8.4553,-12.303,12.233,-3.285,9.901,3.2026,-10.159,4.4019,-15.81,13.592,1.9324,-14.944,12.07,-20.261,8.8889
-10.174,16.0,12.358,-1.9968,12.541,-2.7832,12.358,-12.947,12.88,-1.9968,12.541,7.1242,-8.254,6.9537,-12.635,16.827999,4.5089,-14.944,15.229,-16.993,12.11
-1.9589,18.540001,18.211,2.5121,10.561,1.7476,13.659,-11.014,10.291,2.5121,10.561,11.046,-1.9048,10.781,-3.1111,18.77,10.306,-13.011,15.229,-9.1503,13.398
3.7283,14.095,20.163,-0.70853,5.9406,1.7476,13.659,-12.947,8.3495,-0.70853,5.9406,11.046,3.8095,12.057,4.5079,16.827999,12.238,-10.435,12.07,-1.9608,12.754
8.1517,8.381,20.163,-3.9291,5.9406,1.1003,11.707,-12.303,6.4078,-3.9291,5.9406,9.7386,9.5238,12.695,9.5873,12.945,12.882,-9.1465,6.3823,3.268,10.177
22.686001,7.746,23.415001,-0.70853,7.9208,5.6311,12.358,-12.303,5.7605,-0.70853,7.9208,11.699,17.143,15.247,19.746,11.003,16.103001,-8.5024,4.4866,11.765,10.177
13.839,4.5714,14.309,-0.06441,6.6007,1.7476,8.4553,-9.7262,2.5243,-0.06441,6.6007,7.7778,17.778,13.971,17.841,5.8252,12.238,-0.77295,3.2227,12.418,8.2448
4.3602,2.0317,5.8537,1.868,7.2607,-1.4887,7.1545,-6.5056,2.5243,1.868,7.2607,4.5098,16.507999,12.057,14.032,0.64725,7.0853,5.0242,3.8547,11.765,5.0242
8.7836,3.9365,7.8049,2.5121,8.5809,2.3948,8.4553,-4.5733,6.4078,2.5121,8.5809,6.4706,13.968,10.144,12.762,-0.64725,6.4412,2.4477,4.4866,9.1503,3.0918
11.311,9.6508,13.659,3.1562,7.9208,4.9838,11.057,-3.285,8.9968,3.1562,7.9208,9.085,11.429,10.781,9.5873,2.589,7.7295,-0.12882,4.4866,3.9216,2.4477
13.207,16.635,21.462999,7.6651,11.221,9.5146,15.61,0.57971,10.939,7.6651,11.221,14.314,10.159,12.695,7.6825,10.356,12.882,-2.7053,5.1185,1.3072,5.0242
6.2559,14.73,20.163,8.9533,14.521,9.5146,14.959,1.2238,13.528,8.9533,14.521,13.66,3.8095,11.419,-1.8413,13.592,11.594,-5.2818,8.278,-5.8824,6.3124
0.56872,10.286,10.407,4.4444,12.541,3.6893,9.7561,-3.285,11.586,4.4444,12.541,7.1242,0.0,7.5917,-5.6508,12.298,6.4412,-12.367,8.91,-5.2288,6.3124
-0.06319,4.5714,-1.3008,1.2238,5.9406,0.45307,2.6016,-5.2174,8.9968,1.2238,5.9406,1.2418,-1.9048,3.126,-6.9206,7.767,1.2882,-9.7907,7.6461,-8.4967,5.0242
-6.3823,-0.50794,-10.407,-1.3527,2.6403,-4.0777,-1.3008,-2.6409,7.055,-1.3527,2.6403,-3.9869,-5.0794,-0.70175,-7.5556,1.9417,-3.8647,-4.6377,5.7504,-11.111,3.0918
-8.278,-3.6825,-14.959,-3.285,0.66007,-7.3139,-5.2033,-3.9291,5.1133,-3.285,0.66007,-8.5621,-8.8889,-4.5295,-6.2857,-3.2362,-7.7295,-7.8583,2.5908,-8.4967,0.5153
-5.1185,-6.2222,-14.959,-5.2174,0.0,-10.55,-7.1545,-6.5056,2.5243,-5.2174,0.0,-11.176,-8.8889,-5.8054,-5.6508,-5.8252,-9.0177,-7.8583,-0.56872,-7.1895,-0.12882
-10.806,-10.032,-16.910999,-10.37,-3.9604,-14.434,-11.707,-8.438,-0.71197,-10.37,-3.9604,-16.405001,-8.254,-6.4434,-7.5556,-8.4142,-11.594,-2.0612,-1.8325,-5.2288,-0.77295
-9.5419,-10.667,-15.61,-12.303,-5.9406,-12.492,-12.358,-6.5056,-3.301,-12.303,-5.9406,-17.059,-6.9841,-5.8054,-8.1905,-9.7087,-10.95,-0.12882,-5.624,-3.9216,-2.0612
-4.4866,-9.3968,-11.057,-9.0821,-5.9406,-8.6084,-9.7561,-3.285,-2.6537,-9.0821,-5.9406,-13.137,-3.8095,-3.2536,-3.1111,-8.4142,-8.3736,1.1594,-5.624,2.6144,-1.4171
-3.2227,-13.206,-8.4553,-7.1498,-5.2805,-9.9029,-8.4553,-4.5733,-4.5955,-7.1498,-5.2805,-9.8693,-0.63492,-1.3397,-0.57143,-9.7087,-5.7971,1.8035,-6.8878,2.6144,-2.0612
1.8325,-13.841,-6.5041,-7.1498,-5.2805,-9.9029,-7.8049,-7.1498,-5.89,-7.1498,-5.2805,-9.2157,2.5397,-0.0638,3.873,-9.0615,-2.5765,2.4477,-8.1517,3.268,-3.3494
2.4645,-10.032,-3.9024,-5.2174,-3.3003,-7.9612,-5.8537,-5.8615,-5.89,-5.2174,-3.3003,-7.2549,3.8095,0.57416,6.4127,-7.1197,0.0,5.0242,-7.5197,6.5359,-3.3494
1.8325,-8.127,-1.9512,-5.2174,-1.3201,-6.0194,-5.8537,-8.438,-4.5955,-5.2174,-1.3201,-6.6013,0.63492,-0.0638,1.9683,-3.8835,0.0,2.4477,-6.2559,2.6144,-2.7053
-4.4866,-5.5873,-3.9024,-3.9291,-0.66007,-7.3139,-7.1545,-7.1498,-2.0065,-3.9291,-0.66007,-7.9085,-3.1746,-0.0638,-5.0159,-1.2945,-2.5765,-4.6377,-2.4645,-2.6144,-0.12882
-12.07,-1.7778,-10.407,-3.285,-1.9802,-9.9029,-7.1545,-7.1498,1.2298,-3.285,-1.9802,-9.2157,-6.3492,-1.3397,-10.095,0.0,-5.7971,-5.9259,1.327,-6.5359,3.0918
-15.229,0.7619,-17.561001,-3.285,3.9604,-10.55,-2.6016,-9.0821,7.055,-3.285,3.9604,-7.9085,-12.698,-5.8054,-15.175,-1.9417,-10.95,-8.5024,7.0142,-13.072,3.0918
-13.333,3.9365,-17.561001,-1.9968,9.901,-9.2557,5.2033,-9.7262,14.822,-1.9968,9.901,-3.3333,-17.778,-10.909,-17.079,-3.8835,-14.815,-12.367,10.806,-16.993,1.8035
-11.438,10.286,-11.057,1.2238,14.521,-7.3139,12.358,-7.7939,19.353001,1.2238,14.521,1.2418,-17.778,-10.909,-14.54,-1.2945,-12.882,-11.079,11.438,-15.686,3.0918
-6.3823,16.0,0.0,1.868,15.182,-4.7249,15.61,-6.5056,20.0,1.868,15.182,5.1634,-10.794,-5.8054,-6.9206,5.178,-5.7971,-10.435,14.597,-9.1503,6.3124
-0.06319,16.635,9.7561,0.57971,9.2409,-0.84142,13.659,-3.9291,16.764,0.57971,9.2409,6.4706,-1.9048,1.8501,-1.2063,11.65,3.2206,-4.6377,15.229,-5.2288,8.8889
13.839,14.73,15.61,-0.70853,6.6007,2.3948,9.7561,-5.8615,11.586,-0.70853,6.6007,5.817,7.619,8.8676,7.0476,15.534,10.95,-6.57,12.07,-1.3072,10.177
14.471,10.286,13.659,-1.9968,3.9604,1.7476,4.5528,-3.9291,5.7605,-1.9968,3.9604,3.2026,15.873,14.609,14.032,17.476,16.103001,-3.9936,9.5419,5.2288,10.177
14.471,8.381,13.659,-1.3527,2.6403,4.3366,3.9024,-0.70853,0.58252,-1.3527,2.6403,3.8562,22.857,19.712999,19.746,17.476,20.612,6.3124,7.0142,11.111,10.177
16.997999,9.0159,18.862,-1.9968,0.66007,6.2783,5.2033,0.57971,-2.0065,-1.9968,0.66007,5.817,28.570999,23.541,25.459999,18.122999,25.764999,9.533,2.5908,15.033,9.533
22.686001,11.556,29.268,2.5121,1.3201,12.751,11.707,1.2238,-0.06472,2.5121,1.3201,13.66,31.746,25.455,29.27,20.712,31.562,8.8889,2.5908,16.34,10.177
20.790001,14.73,35.122002,6.3768,5.9406,15.34,14.959,1.868,1.877,6.3768,5.9406,18.235001,29.205999,23.541,27.365,22.006001,32.849998,1.8035,2.5908,15.686,10.177
11.311,17.27,35.771999,7.0209,10.561,14.693,16.910999,3.1562,2.5243,7.0209,10.561,20.85,20.316999,17.799,15.937,20.065001,27.697001,-1.4171,1.327,5.8824,7.6006
6.8878,14.73,27.966999,9.5974,13.861,15.34,16.910999,5.0886,5.7605,9.5974,13.861,21.503,11.429,11.419,5.7778,14.887,17.391001,-0.12882,3.2227,0.0,6.3124
6.8878,7.746,14.309,10.242,13.201,14.693,13.008,7.0209,5.1133,10.242,13.201,18.235001,3.8095,1.2121,2.6032,4.5307,4.5089,0.5153,7.0142,0.0,5.0242
8.1517,1.3968,-2.6016,7.6651,9.901,12.751,8.4553,5.7327,3.8188,7.6651,9.901,13.007,-3.1746,-8.9952,3.2381,-4.5307,-5.7971,3.0918,5.7504,1.9608,0.5153
16.367001,3.3016,-13.659,7.6651,9.901,12.104,9.1057,3.1562,5.7605,7.6651,9.901,11.699,-6.3492,-12.823,7.0476,-7.1197,-9.0177,-0.77295,5.1185,2.6144,-2.0612
11.311,3.9365,-13.008,5.7327,10.561,9.5146,9.7561,1.868,8.3495,5.7327,10.561,10.392,-6.3492,-11.547,7.0476,-3.8835,-6.4412,4.38,7.0142,1.9608,-0.77295
8.1517,7.1111,-1.3008,3.1562,8.5809,6.9256,9.7561,-0.06441,8.9968,3.1562,8.5809,8.4314,-3.8095,-7.7193,7.0476,0.64725,-0.64412,8.2448,6.3823,1.9608,0.5153
15.735,13.46,13.008,2.5121,8.5809,8.2201,11.057,-1.3527,8.9968,2.5121,8.5809,10.392,1.9048,-0.0638,12.127,8.4142,8.3736,1.1594,7.0142,6.5359,3.7359
12.575,13.46,16.26,1.2238,7.2607,9.5146,8.4553,1.2238,8.3495,1.2238,7.2607,9.085,6.3492,6.3158,12.127,12.298,12.882,5.0242,4.4866,6.5359,5.6683
7.5197,7.1111,10.407,-0.70853,2.6403,3.6893,1.9512,0.57971,3.1715,-0.70853,2.6403,1.8954,8.8889,8.8676,12.127,9.7087,12.238,7.6006,3.8547,5.8824,5.0242
6.2559,2.6667,5.8537,-0.06441,-0.66007,-0.19417,-3.9024,0.57971,-1.3592,-0.06441,-0.66007,-3.3333,12.063,12.057,14.032,7.1197,12.238,7.6006,0.06319,8.4967,3.7359
5.624,0.12698,3.9024,-0.70853,-1.9802,-2.1359,-5.8537,1.868,-3.301,-0.70853,-1.9802,-5.9477,14.603,13.971,17.205999,7.767,13.527,8.2448,-3.0964,11.765,2.4477
8.7836,-1.7778,6.5041,-1.9968,-1.3201,-0.84142,-4.5528,1.868,-1.3592,-1.9968,-1.3201,-4.6405,14.603,13.971,17.841,7.767,14.815,4.38,-3.0964,13.072,1.1594
1.8325,-3.6825,7.8049,3.1562,5.9406,3.6893,1.9512,5.0886,1.2298,3.1562,5.9406,1.8954,8.254,6.9537,8.3175,1.9417,9.0177,7.6006,-6.2559,8.4967,-2.7053
-3.8547,-5.5873,7.8049,10.242,9.901,10.809,7.1545,10.886,3.1715,10.242,9.901,10.392,-1.9048,-2.6156,-5.0159,-6.4725,-0.64412,10.821,-9.4155,1.9608,-8.5024
1.2006,-5.5873,7.8049,14.75,11.881,19.223,11.707,14.106,5.7605,14.75,11.881,16.275,-10.159,-10.909,-10.73,-12.945,-9.0177,7.6006,-7.5197,1.3072,-10.435
4.3602,-7.4921,-2.6016,11.53,11.221,17.929001,7.1545,10.886,5.1133,11.53,11.221,11.046,-17.778,-19.841,-15.175,-21.358999,-19.323999,7.6006,-6.8878,-5.2288,-13.011
-1.327,-6.8571,-17.561001,4.4444,5.9406,5.6311,0.0,7.0209,3.1715,4.4444,5.9406,-0.06536,-19.683001,-23.030001,-12.635,-23.301001,-23.833,6.9565,-3.0964,-5.2288,-13.011
-1.327,-6.8571,-24.715,-0.70853,0.66007,-4.0777,-4.5528,1.868,3.8188,-0.70853,0.66007,-8.5621,-14.603,-21.115999,-4.381,-18.77,-21.256001,3.0918,0.6951,-0.65359,-11.079
-2.5908,-8.7619,-27.316999,-3.285,-4.6205,-9.2557,-7.8049,-1.3527,3.1715,-3.285,-4.6205,-13.791,-10.159,-17.289,-0.57143,-14.887,-16.747,3.7359,0.6951,0.65359,-9.1465
1.2006,-5.5873,-23.415001,-5.2174,-4.6205,-9.9029,-8.4553,-3.9291,2.5243,-5.2174,-4.6205,-14.444,-2.5397,-9.6332,5.7778,-7.1197,-9.6618,-0.12882,2.5908,4.5752,-3.3494
-8.91,-5.5873,-22.764,-7.7939,-7.2607,-14.434,-13.008,-5.8615,-0.06472,-7.7939,-7.2607,-19.02,1.9048,-2.6156,3.873,-1.9417,-6.4412,-0.12882,2.5908,4.5752,-0.77295
-15.861,-7.4921,-20.163,-11.014,-11.221,-20.259001,-16.910999,-9.0821,-5.2427,-11.014,-11.221,-21.634001,3.8095,3.126,-1.8413,0.64725,-5.153,2.4477,0.6951,-1.3072,0.5153
-8.91,-4.9524,-9.7561,-12.947,-9.2409,-16.375,-15.61,-10.37,-6.5372,-12.947,-9.2409,-18.365999,5.0794,8.2297,-1.8413,5.178,0.0,-0.12882,-1.8325,-3.9216,1.8035
-2.5908,1.3968,0.65041,-10.37,-8.5809,-10.55,-10.407,-7.1498,-7.1845,-10.37,-8.5809,-11.176,8.254,12.057,1.3333,9.0615,5.153,-0.12882,-1.2006,-1.3072,2.4477
-2.5908,6.4762,5.2033,-7.7939,-9.2409,-6.6667,-7.8049,-4.5733,-7.8317,-7.7939,-9.2409,-6.6013,9.5238,12.057,2.6032,12.298,8.3736,0.5153,-0.56872,0.0,2.4477
-5.1185,2.6667,7.1545,0.57971,-3.9604,-0.19417,-3.9024,1.2238,-5.89,0.57971,-3.9604,1.2418,7.619,7.5917,1.3333,11.003,8.3736,1.8035,-1.2006,1.3072,0.5153
-8.278,-0.50794,10.407,10.886,7.2607,10.162,6.5041,8.9533,1.2298,10.886,7.2607,14.314,-1.2698,-0.0638,-5.6508,4.5307,1.9324,3.7359,-2.4645,-1.9608,-3.3494
-5.1185,1.3968,14.959,19.259001,19.142,20.518,20.163,14.75,7.055,19.259001,19.142,28.039,-11.429,-7.0813,-12.635,-3.2362,-7.0853,0.5153,-3.7283,-6.5359,-5.2818
5.624,3.3016,16.26,21.191999,21.782,26.343,25.365999,15.395,8.3495,21.191999,21.782,33.268002,-15.873,-10.909,-11.365,-7.767,-10.306,0.5153,-3.7283,-3.9216,-7.2142
10.047,1.3968,13.008,16.683001,13.861,23.107,19.511999,13.462,4.466,16.683001,13.861,26.732,-15.238,-9.6332,-8.8254,-7.1197,-7.0853,6.3124,-5.624,-3.9216,-7.2142
6.2559,0.12698,8.4553,6.3768,1.3201,13.398,7.1545,10.242,-2.6537,6.3768,1.3201,13.007,-11.429,-6.4434,-5.6508,-2.589,-3.2206,9.533,-6.2559,-4.5752,-5.2818
1.2006,2.0317,4.5528,-3.285,-7.9208,3.0421,-1.9512,5.7327,-8.479,-3.285,-7.9208,1.8954,-6.3492,-1.9777,-2.4762,2.589,0.64412,8.2448,-3.7283,-1.3072,-1.4171
2.4645,-0.50794,1.3008,-11.014,-16.502001,-4.0777,-11.057,-3.9291,-11.068,-11.014,-16.502001,-7.9085,-2.5397,1.8501,-1.2063,6.4725,3.2206,3.7359,-3.0964,-1.3072,2.4477
-1.9589,-3.6825,-3.252,-16.167,-19.802,-12.492,-17.561001,-9.7262,-13.01,-16.167,-19.802,-15.752,0.63492,5.6778,-0.57143,9.7087,5.153,1.1594,-0.56872,-0.65359,6.3124
-5.1185,-1.7778,-8.4553,-20.676001,-21.782,-18.316999,-22.114,-9.7262,-14.304,-20.676001,-21.782,-22.288,5.0794,10.144,2.6032,12.945,8.3736,-0.77295,0.6951,3.9216,8.2448
-1.327,-4.9524,-12.358,-20.676001,-22.441999,-20.906,-24.715,-10.37,-14.951,-20.676001,-22.441999,-25.556,7.619,10.144,5.1429,10.356,7.0853,-3.3494,-1.2006,3.268,6.3124
-5.7504,-8.7619,-16.910999,-17.455999,-19.142,-19.612,-24.715,-11.014,-15.599,-17.455999,-19.142,-24.902,6.3492,5.6778,2.6032,3.2362,1.9324,0.5153,-4.3602,0.65359,1.1594
-17.757,-10.667,-20.163,-10.37,-11.881,-15.081,-20.813,-5.8615,-13.01,-10.37,-11.881,-19.673,1.2698,0.57416,-5.0159,-3.2362,-4.5089,1.8035,-6.2559,-2.6144,-2.7053
-17.125,-6.2222,-14.959,2.5121,-0.66007,-0.84142,-7.1545,0.57971,-4.5955,2.5121,-0.66007,-3.3333,-2.5397,-1.9777,-12.635,-5.178,-8.3736,-0.12882,-6.2559,-5.2288,-5.2818
-11.438,1.3968,-8.4553,12.818,11.221,9.5146,8.4553,6.3768,5.1133,12.818,11.221,12.353,-7.619,-7.0813,-20.254,-7.767,-13.527,-5.9259,-4.3602,-9.8039,-7.8583
-8.91,-0.50794,-3.9024,17.971001,18.482,15.34,18.211,14.75,11.586,17.971001,18.482,21.503,-13.333,-14.737,-24.063,-15.534,-19.323999,-3.3494,-1.8325,-13.725,-11.079
-2.5908,-5.5873,-1.9512,17.971001,17.822001,17.282,18.211,12.174,12.88,17.971001,17.822001,22.157,-16.507999,-21.754,-18.983999,-22.653999,-21.256001,-0.12882,-2.4645,-8.4967,-14.3
3.7283,-7.4921,1.3008,13.462,13.201,14.045,13.008,7.6651,8.9968,13.462,13.201,18.235001,-17.143,-24.944,-11.365,-24.594999,-18.035,0.5153,-2.4645,-5.8824,-15.588
4.3602,-8.127,3.9024,7.6651,5.9406,5.6311,4.5528,4.4444,5.7605,7.6651,5.9406,9.7386,-17.778,-24.944,-5.6508,-23.301001,-13.527,0.5153,-3.0964,-5.2288,-15.588
4.9921,-7.4921,3.252,1.2238,1.3201,-1.4887,-1.9512,-0.70853,0.58252,1.2238,1.3201,2.549,-15.238,-21.754,-1.2063,-20.712,-9.0177,0.5153,-3.7283,-0.65359,-13.655
-2.5908,-8.127,-3.9024,-4.5733,-3.3003,-7.3139,-8.4553,-3.285,-5.2427,-4.5733,-3.3003,-3.9869,-13.333,-21.115999,-3.1111,-22.653999,-10.95,3.0918,-6.8878,1.3072,-14.3
-4.4866,-13.206,-9.1057,-7.7939,-8.5809,-8.6084,-11.707,-3.9291,-8.479,-7.7939,-8.5809,-7.9085,-9.5238,-18.565001,-3.746,-23.301001,-11.594,4.38,-8.7836,1.9608,-13.011
-1.9589,-19.556,-12.358,-13.591,-16.502001,-11.845,-18.862,-6.5056,-12.362,-13.591,-16.502001,-15.098,-3.1746,-12.185,-0.57143,-21.358999,-9.6618,2.4477,-11.311,3.9216,-11.079
-5.1185,-22.094999,-14.959,-16.812,-18.482,-17.67,-23.415001,-7.1498,-16.246,-16.812,-18.482,-20.98,3.8095,-5.1675,3.2381,-17.476,-6.4412,2.4477,-10.679,6.5359,-6.57
-7.0142,-20.190001,-15.61,-15.523,-17.822001,-17.67,-22.114,-6.5056,-16.246,-15.523,-17.822001,-22.288,10.794,1.2121,8.3175,-13.592,-1.9324,1.8035,-9.4155,11.111,-3.3494
-7.0142,-16.381001,-13.008,-11.659,-14.521,-12.492,-14.959,-6.5056,-13.657,-11.659,-14.521,-16.405001,14.603,6.9537,9.5873,-9.7087,0.64412,1.8035,-9.4155,10.458,-0.77295
-5.1185,-10.032,-7.8049,-3.285,-4.6205,-4.0777,-4.5528,-0.70853,-7.8317,-3.285,-4.6205,-6.6013,17.143,10.781,8.3175,-4.5307,2.5765,3.0918,-8.7836,9.1503,0.5153
6.2559,-3.6825,-3.252,3.1562,0.0,6.2783,4.5528,-0.06441,-3.301,3.1562,0.0,3.2026,17.778,13.971,9.5873,0.0,3.8647,-0.12882,-4.9921,8.4967,2.4477
1.8325,3.3016,-1.9512,7.6651,3.3003,8.8673,9.7561,4.4444,-1.3592,7.6651,3.3003,7.1242,14.603,14.609,5.1429,2.589,1.2882,3.0918,-1.8325,6.5359,5.0242
-12.07,3.9365,-3.9024,6.3768,5.9406,3.6893,7.8049,5.7327,2.5243,6.3768,5.9406,3.2026,5.0794,9.5056,-6.2857,1.9417,-5.153,4.38,0.06319,-1.9608,4.38
-13.333,5.2063,-3.9024,2.5121,2.6403,-2.7832,3.9024,-0.06441,3.8188,2.5121,2.6403,-1.3725,-5.0794,5.0399,-12.635,1.2945,-9.0177,-3.3494,5.1185,-7.8431,4.38
-12.07,8.381,0.0,-0.70853,-1.3201,-4.7249,1.3008,-4.5733,3.8188,-0.70853,-1.3201,-3.3333,-11.429,1.8501,-15.81,2.589,-9.0177,-9.7907,8.91,-13.072,5.6683
-10.806,10.286,5.2033,1.2238,-1.3201,-3.4304,2.6016,-4.5733,3.8188,1.2238,-1.3201,-0.71895,-17.778,-1.9777,-17.714001,1.9417,-8.3736,-14.3,9.5419,-13.072,5.6683
-8.278,10.286,7.8049,3.8003,1.3201,-0.84142,3.9024,-2.6409,5.1133,3.8003,1.3201,2.549,-22.222,-7.0813,-19.618999,-1.2945,-9.0177,-11.723,8.278,-18.301001,2.4477
-4.4866,7.746,6.5041,2.5121,1.9802,-2.1359,3.9024,-1.3527,4.466,2.5121,1.9802,1.2418,-21.587,-10.271,-15.81,-4.5307,-9.6618,-11.079,5.7504,-16.993,-0.77295
-3.8547,0.7619,-0.65041,-0.06441,-1.3201,-6.0194,-2.6016,-3.285,0.58252,-0.06441,-1.3201,-3.3333,-19.048,-12.823,-10.73,-7.767,-11.594,-5.9259,1.327,-11.765,-3.9936
-6.3823,-4.3175,-7.1545,-0.06441,-3.3003,-6.0194,-4.5528,-0.06441,-2.0065,-0.06441,-3.3003,-4.6405,-13.333,-11.547,-5.6508,-7.1197,-10.306,0.5153,-0.56872,-5.8824,-4.6377
-1.327,-1.7778,-7.1545,3.1562,-1.9802,1.1003,-1.3008,3.1562,-2.0065,3.1562,-1.9802,1.2418,-7.619,-8.3573,-1.2063,-3.8835,-8.3736,1.8035,-1.8325,-0.65359,-2.7053
6.8878,2.0317,-1.9512,6.3768,1.9802,10.162,5.8537,7.6651,0.58252,6.3768,1.9802,9.7386,-2.5397,-5.1675,1.9683,-1.2945,-5.7971,1.8035,-2.4645,3.268,-2.0612
10.047,1.3968,0.65041,7.6651,3.3003,14.045,8.4553,12.818,1.2298,7.6651,3.3003,12.353,1.9048,-3.8915,4.5079,-1.9417,-4.5089,4.38,0.06319,7.8431,-2.0612
4.9921,1.3968,1.3008,7.6651,2.6403,14.045,8.4553,14.75,1.2298,7.6651,2.6403,11.699,5.0794,-1.9777,5.1429,-1.2945,-2.5765,6.9565,0.6951,10.458,-0.77295
6.2559,7.746,6.5041,6.3768,1.9802,14.693,10.407,12.818,2.5243,6.3768,1.9802,12.353,8.8889,2.488,7.0476,5.178,3.2206,8.2448,1.327,7.8431,2.4477
10.679,12.825,14.309,5.0886,3.9604,14.693,12.358,12.818,2.5243,5.0886,3.9604,13.66,12.063,5.0399,11.492,9.7087,9.6618,9.533,2.5908,8.4967,3.7359
18.261999,13.46,22.764,5.7327,3.3003,15.987,13.659,14.75,3.8188,5.7327,3.3003,16.275,12.698,5.0399,15.937,11.65,14.171,8.2448,1.327,11.111,3.0918
22.686001,14.095,28.618,7.0209,1.3201,17.282,13.008,13.462,3.8188,7.0209,1.3201,16.927999,12.698,4.4019,17.841,12.298,16.747,8.8889,5.7504,12.418,3.0918
22.054001,14.73,27.966999,6.3768,2.6403,15.34,11.707,8.3092,2.5243,6.3768,2.6403,14.967,12.063,3.764,15.937,11.65,16.747,10.177,7.6461,11.111,3.7359
13.839,12.19,20.813,5.7327,1.3201,9.5146,7.1545,8.3092,1.2298,5.7327,1.3201,8.4314,10.159,1.8501,11.492,11.003,14.815,6.9565,5.7504,9.1503,3.0918
4.3602,9.6508,11.057,1.2238,1.3201,1.7476,1.9512,3.8003,-0.71197,1.2238,1.3201,0.58824,6.3492,-0.0638,6.4127,11.003,11.594,0.5153,5.7504,5.2288,4.38
-1.327,5.8413,3.252,0.57971,-0.66007,-2.1359,0.0,1.868,0.58252,0.57971,-0.66007,-2.6797,3.1746,-2.6156,3.873,8.4142,7.0853,-6.57,5.1185,5.2288,4.38
-8.278,3.9365,-1.3008,4.4444,1.3201,-0.84142,3.9024,3.8003,2.5243,4.4444,1.3201,-0.06536,-1.9048,-5.1675,-4.381,1.2945,0.0,-4.6377,3.8547,-1.9608,2.4477
-10.806,2.0317,-4.5528,8.9533,5.9406,2.3948,6.5041,3.8003,4.466,8.9533,5.9406,3.8562,-5.7143,-5.8054,-10.095,-3.2362,-5.7971,-3.9936,1.327,-6.5359,0.5153
-10.174,-1.1429,-5.2033,6.3768,5.2805,0.45307,5.2033,-0.06441,5.1133,6.3768,5.2805,2.549,-6.3492,-2.6156,-11.365,-2.589,-6.4412,-9.7907,5.1185,-6.5359,3.0918
-9.5419,-2.4127,-6.5041,-1.3527,-0.66007,-4.7249,-2.6016,-5.2174,1.2298,-1.3527,-0.66007,-4.6405,-4.4444,1.2121,-10.095,0.0,-5.153,-12.367,6.3823,-7.1895,4.38
-5.7504,-1.7778,-6.5041,-5.8615,-7.9208,-9.9029,-10.407,-7.1498,-3.301,-5.8615,-7.9208,-11.83,-0.63492,5.0399,-5.0159,3.8835,-0.64412,-9.7907,3.8547,-3.9216,4.38
-10.174,-4.3175,-11.057,-9.7262,-15.182,-15.081,-18.862,-6.5056,-9.1262,-9.7262,-15.182,-20.327,1.2698,5.0399,-3.746,3.8835,0.0,-4.6377,1.327,-3.268,3.0918
-3.8547,-3.0476,-9.7561,-10.37,-17.162001,-12.492,-18.211,-5.2174,-11.068,-10.37,-17.162001,-19.673,5.0794,6.3158,4.5079,4.5307,3.2206,-2.7053,0.06319,5.8824,2.4477
4.3602,0.12698,-5.2033,-7.7939,-16.502001,-7.3139,-14.309,-2.6409,-10.421,-7.7939,-16.502001,-15.098,6.3492,5.6778,7.6825,3.2362,6.4412,0.5153,-2.4645,4.5752,-0.77295
6.8878,-3.0476,0.0,-5.8615,-12.541,-5.3722,-12.358,-1.3527,-10.421,-5.8615,-12.541,-11.176,6.9841,5.0399,8.9524,1.9417,9.0177,1.8035,-7.5197,2.6144,-3.9936
1.2006,-10.032,1.9512,-5.2174,-12.541,-7.3139,-13.659,1.868,-11.715,-5.2174,-12.541,-11.176,10.794,6.9537,10.857,1.9417,12.238,5.6683,-7.5197,6.5359,-4.6377
0.56872,-11.937,2.6016,-5.2174,-15.182,-7.9612,-16.26,3.8003,-13.01,-5.2174,-15.182,-12.484,14.603,8.8676,13.397,3.2362,14.171,9.533,-6.2559,11.111,-5.2818
4.9921,-11.302,1.3008,-5.2174,-13.861,-6.6667,-16.26,3.8003,-14.304,-5.2174,-13.861,-11.83,17.143,8.8676,15.937,3.8835,14.171,8.8889,-7.5197,17.646999,-6.57
4.9921,-10.667,-3.252,-1.9968,-10.561,-2.7832,-12.358,7.6651,-14.304,-1.9968,-10.561,-8.5621,12.698,3.126,13.397,0.64725,9.0177,11.465,-11.311,18.954,-9.7907
3.0964,-10.032,-6.5041,5.0886,-3.3003,4.3366,-4.5528,10.886,-10.421,5.0886,-3.3003,-1.3725,3.1746,-7.0813,4.5079,-6.4725,-0.64412,12.754,-11.943,12.418,-13.655
-0.06319,-6.2222,-5.8537,9.5974,4.6205,10.809,4.5528,12.818,-3.9482,9.5974,4.6205,7.1242,-6.3492,-14.099,-3.1111,-11.003,-7.7295,7.6006,-9.4155,6.5359,-12.367
0.56872,-0.50794,-3.252,10.242,7.2607,14.045,12.358,11.53,0.58252,10.242,7.2607,12.353,-12.698,-15.375,-8.1905,-9.0615,-10.95,1.8035,-4.9921,-2.6144,-7.2142
-3.2227,-2.4127,-7.8049,8.9533,5.9406,10.809,10.407,9.5974,-0.06472,8.9533,5.9406,9.7386,-17.143,-14.099,-12.0,-6.4725,-13.527,-0.12882,-1.8325,-11.111,-3.9936
-1.9589,-1.7778,-8.4553,5.0886,4.6205,8.2201,7.1545,7.0209,-1.3592,5.0886,4.6205,5.817,-15.873,-9.6332,-9.4603,-2.589,-10.306,-2.0612,0.6951,-13.072,-0.77295
15.103,4.5714,-0.65041,1.868,0.66007,9.5146,7.1545,1.2238,-1.3592,1.868,0.66007,5.1634,-8.254,-1.9777,1.9683,5.178,-0.64412,-5.2818,5.1185,-7.1895,4.38
10.679,7.1111,2.6016,1.2238,-3.3003,6.9256,6.5041,3.1562,-2.0065,1.2238,-3.3003,2.549,-3.8095,1.8501,5.1429,6.4725,3.8647,-1.4171,5.7504,-5.2288,6.9565
3.0964,7.746,4.5528,-0.70853,-5.2805,3.6893,5.2033,5.0886,-2.6537,-0.70853,-5.2805,0.58824,-0.63492,3.764,6.4127,5.178,5.7971,3.0918,3.2227,-1.9608,6.3124
0.56872,7.746,7.1545,-3.9291,-3.9604,-0.84142,5.2033,3.8003,-2.6537,-3.9291,-3.9604,-1.3725,2.5397,5.0399,7.6825,3.2362,7.7295,4.38,0.06319,-1.9608,5.0242
2.4645,5.2063,6.5041,-3.9291,-4.6205,-2.1359,1.3008,2.5121,-3.9482,-3.9291,-4.6205,-2.6797,5.0794,5.6778,10.222,1.2945,9.0177,4.38,-1.8325,0.65359,3.7359
7.5197,-1.1429,5.8537,-1.9968,-3.9604,-0.19417,-2.6016,1.2238,-5.2427,-1.9968,-3.9604,-3.3333,5.7143,4.4019,11.492,-1.2945,7.7295,3.0918,-2.4645,1.9608,2.4477
6.2559,-3.6825,2.6016,-2.6409,-5.9406,-0.19417,-5.2033,-0.70853,-4.5955,-2.6409,-5.9406,-4.6405,3.1746,3.126,8.9524,-1.9417,4.5089,-0.77295,-2.4645,1.9608,2.4477
1.8325,-3.6825,-1.9512,-5.2174,-7.9208,-2.1359,-7.1545,-1.9968,-5.2427,-5.2174,-7.9208,-6.6013,-1.2698,1.8501,1.9683,-3.2362,-0.64412,-2.7053,-3.0964,-3.268,3.0918
-1.9589,-4.9524,-5.2033,-5.8615,-7.2607,-3.4304,-5.8537,-5.2174,-3.9482,-5.8615,-7.2607,-6.6013,-3.1746,0.57416,-1.8413,-3.8835,-3.8647,-4.6377,-3.7283,-4.5752,3.0918
-10.174,-4.9524,-9.1057,-3.9291,-4.6205,-6.0194,-2.6016,-7.1498,-0.06472,-3.9291,-4.6205,-6.6013,-5.0794,-0.70175,-6.9206,-3.8835,-7.0853,-9.1465,-1.2006,-5.8824,3.7359
-3.2227,-1.7778,-6.5041,-2.6409,0.66007,-4.0777,1.9512,-11.659,3.1715,-2.6409,0.66007,-2.0261,-7.619,-1.3397,-8.1905,-3.2362,-7.7295,-16.232,1.9589,-7.1895,4.38
-11.438,-1.1429,-7.1545,-3.9291,2.6403,-4.7249,1.9512,-9.7262,3.8188,-3.9291,2.6403,-0.71895,-12.063,-5.1675,-14.54,-4.5307,-11.594,-13.011,2.5908,-9.1503,2.4477
-18.389,-4.9524,-7.1545,-1.9968,0.0,-5.3722,-1.3008,-5.2174,0.58252,-1.9968,0.0,-1.3725,-15.238,-8.3573,-20.889,-6.4725,-14.171,-7.8583,2.5908,-13.725,1.8035
-12.07,-4.9524,-3.252,-1.3527,-5.2805,-4.7249,-5.2033,-2.6409,-2.6537,-1.3527,-5.2805,-2.0261,-13.333,-6.4434,-17.714001,-4.5307,-10.95,-7.2142,3.2227,-11.111,3.7359
-7.6461,-4.3175,-0.65041,-1.3527,-4.6205,-2.7832,-6.5041,-3.285,-5.2427,-1.3527,-4.6205,-1.3725,-7.619,-1.3397,-12.635,-1.9417,-5.7971,-5.9259,1.9589,-7.1895,5.0242
-3.2227,-4.9524,-0.65041,0.57971,-3.9604,-2.1359,-7.1545,-1.9968,-5.89,0.57971,-3.9604,-2.0261,0.63492,3.126,-5.0159,-2.589,-1.9324,-4.6377,-1.2006,1.3072,5.0242
1.8325,-5.5873,-0.65041,3.8003,-1.9802,0.45307,-5.2033,1.868,-5.2427,3.8003,-1.9802,-0.71895,3.8095,5.0399,0.06349,-3.8835,-0.64412,-0.12882,-4.9921,2.6144,3.0918
6.8878,-4.9524,0.65041,7.0209,0.66007,3.6893,-1.9512,7.0209,-3.301,7.0209,0.66007,1.8954,5.7143,6.9537,4.5079,-2.589,1.9324,5.6683,-4.3602,3.268,1.8035
13.207,-2.4127,4.5528,8.9533,5.2805,6.9256,0.65041,7.6651,-2.6537,8.9533,5.2805,4.5098,8.254,10.144,10.857,1.9417,7.0853,8.2448,-2.4645,7.1895,3.0918
17.629999,1.3968,3.9024,10.242,9.901,8.8673,1.9512,9.5974,-2.0065,10.242,9.901,6.4706,7.619,10.144,12.762,3.8835,7.0853,5.6683,-3.7283,7.1895,3.0918
11.311,-1.1429,0.65041,12.174,9.901,8.2201,2.6016,9.5974,0.58252,12.174,9.901,7.1242,3.1746,5.0399,6.4127,0.64725,2.5765,4.38,-3.7283,3.9216,1.1594
6.2559,-5.5873,-1.9512,10.242,9.901,6.2783,2.6016,4.4444,2.5243,10.242,9.901,5.1634,-2.5397,0.57416,0.69841,-3.2362,-2.5765,-0.77295,-3.0964,1.3072,0.5153
-1.9589,-4.3175,-4.5528,5.7327,10.561,1.1003,3.252,-0.06441,4.466,5.7327,10.561,2.549,-8.8889,-3.8915,-6.9206,-5.178,-7.7295,-3.3494,-3.0964,-3.9216,-0.77295
-8.278,-1.7778,-7.8049,4.4444,9.901,-2.7832,4.5528,-1.9968,7.055,4.4444,9.901,1.2418,-13.333,-7.7193,-13.905,-5.8252,-12.238,-5.2818,-1.8325,-9.8039,-1.4171
-7.6461,-1.1429,-9.7561,3.8003,10.561,-2.1359,6.5041,-3.285,9.644,3.8003,10.561,1.2418,-12.063,-7.7193,-13.27,-5.178,-13.527,-9.7907,3.2227,-7.1895,0.5153
-5.1185,-1.1429,-12.358,3.1562,11.881,-2.7832,7.8049,-3.9291,12.88,3.1562,11.881,0.58824,-10.794,-6.4434,-12.635,-5.178,-13.527,-11.723,4.4866,-9.8039,1.1594
-9.5419,2.0317,-12.358,3.1562,12.541,-2.1359,9.7561,-1.9968,16.117001,3.1562,12.541,-0.06536,-9.5238,-3.8915,-14.54,-1.9417,-11.594,-7.2142,3.8547,-13.725,1.1594
-7.0142,9.0159,-6.5041,2.5121,12.541,-0.84142,12.358,-3.285,18.058001,2.5121,12.541,1.2418,-5.7143,2.488,-11.365,4.5307,-5.153,-5.9259,8.91,-12.418,4.38
-5.1185,10.921,-1.3008,0.57971,9.2409,-2.7832,11.707,-4.5733,17.410999,0.57971,9.2409,0.58824,-1.2698,7.5917,-6.9206,9.7087,1.2882,-6.57,10.174,-10.458,6.9565
3.0964,14.73,7.1545,0.57971,9.901,-0.19417,13.659,-5.2174,17.410999,0.57971,9.901,3.2026,5.7143,13.971,1.9683,15.534,10.306,-3.3494,9.5419,-5.8824,8.8889
12.575,19.174999,15.61,2.5121,11.221,2.3948,15.61,-1.9968,16.764,2.5121,11.221,7.1242,13.333,18.437,13.397,20.065001,19.323999,-2.0612,11.438,1.3072,10.177
13.839,17.905001,18.862,2.5121,13.861,4.3366,15.61,0.57971,13.528,2.5121,13.861,9.085,14.603,17.799,16.570999,18.77,21.256001,3.7359,12.701,4.5752,9.533
13.839,14.73,18.211,3.8003,10.561,8.2201,13.008,2.5121,10.291,3.8003,10.561,10.392,13.968,13.971,14.667,14.239,19.323999,7.6006,9.5419,6.5359,5.6683
13.839,9.0159,15.61,3.8003,3.9604,7.5728,7.1545,1.868,5.7605,3.8003,3.9604,7.1242,15.238,11.419,15.937,11.65,18.035,6.3124,5.1185,12.418,3.0918
8.1517,5.8413,9.1057,1.868,2.6403,2.3948,0.65041,0.57971,2.5243,1.868,2.6403,1.8954,12.698,7.5917,10.222,8.4142,12.238,5.0242,2.5908,7.1895,1.1594
16.997999,3.9365,7.1545,-0.70853,5.2805,1.1003,-0.65041,-3.285,3.8188,-0.70853,5.2805,0.58824,12.063,3.764,11.492,5.178,9.0177,-0.12882,0.6951,5.8824,-1.4171
4.3602,-1.1429,1.3008,-0.06441,5.2805,-0.84142,-2.6016,-0.70853,3.8188,-0.06441,5.2805,-2.0261,9.5238,-1.3397,7.0476,-1.2945,2.5765,3.7359,-2.4645,7.1895,-3.9936
-11.438,-8.127,-8.4553,0.57971,0.66007,-4.7249,-7.8049,-1.3527,0.58252,0.57971,0.66007,-7.2549,5.0794,-6.4434,-3.1111,-7.767,-7.7295,4.38,-1.2006,2.6144,-5.2818
-15.229,-12.571,-17.561001,-5.8615,-5.2805,-12.492,-14.959,-7.1498,-3.301,-5.8615,-5.2805,-16.405001,3.8095,-7.7193,-7.5556,-11.003,-13.527,-3.3494,-0.56872,1.3072,-4.6377
-19.021,-17.016001,-24.715,-11.014,-11.881,-18.964001,-22.114,-9.7262,-7.1845,-11.014,-11.881,-24.247999,3.1746,-7.7193,-9.4603,-12.945,-16.747,-6.57,-6.2559,0.0,-5.2818
-16.493,-17.650999,-26.016001,-12.947,-13.201,-21.552999,-24.065001,-12.947,-9.1262,-12.947,-13.201,-26.863001,3.8095,-6.4434,-8.8254,-12.298,-16.103001,-7.8583,-4.9921,0.65359,-3.9936
-14.597,-13.206,-21.462999,-12.947,-13.201,-20.906,-23.415001,-16.812,-9.7735,-12.947,-13.201,-26.863001,5.7143,-2.6156,-6.2857,-8.4142,-10.95,-7.2142,-3.7283,3.268,-2.0612
-12.07,-11.937,-16.26,-11.014,-11.881,-17.67,-18.862,-14.879,-6.5372,-11.014,-11.881,-22.288,4.4444,-0.0638,-8.8254,-5.8252,-8.3736,-4.6377,-2.4645,-1.9608,-0.12882
-12.701,-10.667,-12.358,-9.0821,-5.2805,-15.081,-11.057,-11.014,-1.3592,-9.0821,-5.2805,-17.059,1.2698,-0.70175,-12.635,-5.8252,-8.3736,-5.2818,-2.4645,-7.1895,-0.77295
-1.327,-5.5873,-5.2033,-2.6409,3.9604,-7.3139,-0.65041,-7.1498,3.1715,-2.6409,3.9604,-6.6013,1.2698,-1.3397,-8.8254,-5.8252,-4.5089,-7.2142,-1.2006,-4.5752,-2.0612
2.4645,-2.4127,1.3008,3.1562,9.2409,1.7476,6.5041,-3.285,8.3495,3.1562,9.2409,1.2418,1.2698,-1.3397,-5.0159,-5.178,-0.64412,-1.4171,-1.2006,-1.9608,-3.3494
1.2006,0.7619,5.8537,7.0209,12.541,6.2783,12.358,1.868,8.9968,7.0209,12.541,7.1242,1.2698,-1.9777,-0.57143,-3.8835,3.2206,5.0242,-2.4645,1.9608,-4.6377
7.5197,3.3016,9.7561,8.3092,15.182,10.162,14.959,6.3768,9.644,8.3092,15.182,11.046,0.0,-1.3397,5.1429,-2.589,5.7971,5.6683,-2.4645,2.6144,-5.2818
11.943,7.746,11.707,6.3768,15.842,10.162,16.26,3.8003,8.9968,6.3768,15.842,13.007,-2.5397,-2.6156,8.3175,-2.589,5.153,1.8035,-3.0964,5.2288,-4.6377
13.839,7.1111,11.057,5.0886,11.221,9.5146,13.008,1.2238,7.7023,5.0886,11.221,11.046,-5.0794,-5.8054,6.4127,-4.5307,1.9324,2.4477,0.6951,3.268,-4.6377
6.2559,2.6667,7.1545,0.57971,7.2607,4.9838,8.4553,-2.6409,6.4078,0.57971,7.2607,4.5098,-6.9841,-8.9952,1.9683,-7.1197,-2.5765,8.2448,-0.56872,0.0,-5.9259
3.0964,3.3016,6.5041,-2.6409,5.9406,0.45307,5.8537,-3.9291,5.7605,-2.6409,5.9406,-0.06536,-4.4444,-8.3573,1.9683,-5.178,-2.5765,7.6006,-0.56872,1.9608,-5.2818
6.8878,5.8413,9.1057,-5.8615,3.3003,1.1003,4.5528,-3.285,3.1715,-5.8615,3.3003,-0.06536,-0.63492,-5.8054,5.7778,-1.2945,1.2882,5.0242,2.5908,3.268,-3.3494
16.997999,5.8413,11.057,-5.8615,-0.66007,6.2783,3.9024,-5.2174,1.877,-5.8615,-0.66007,1.8954,3.1746,-2.6156,9.5873,2.589,5.153,2.4477,3.2227,5.2288,-0.77295
6.8878,2.6667,3.9024,-1.3527,-1.3201,4.9838,0.65041,-3.285,-0.06472,-1.3527,-1.3201,1.2418,2.5397,-1.9777,3.2381,0.0,0.0,2.4477,1.9589,3.268,-1.4171
-3.2227,2.0317,1.9512,4.4444,2.6403,5.6311,1.9512,2.5121,-0.71197,4.4444,2.6403,3.8562,1.9048,-0.70175,-3.1111,0.64725,-3.2206,2.4477,0.6951,3.9216,-0.12882
-3.2227,5.2063,3.252,5.0886,7.9208,5.6311,3.9024,0.57971,1.877,5.0886,7.9208,5.1634,0.0,-0.0638,-6.2857,1.2945,-3.8647,-2.0612,-0.56872,0.0,0.5153
-3.8547,1.3968,1.9512,1.868,7.9208,2.3948,1.3008,-2.6409,3.1715,1.868,7.9208,2.549,-0.63492,0.57416,-6.2857,1.2945,-3.2206,-4.6377,0.6951,-2.6144,0.5153
-5.7504,-4.9524,-3.252,-0.70853,0.66007,-2.1359,-5.8537,-3.9291,-0.71197,-0.70853,0.66007,-3.9869,-1.9048,-0.0638,-5.6508,-0.64725,-3.8647,-2.7053,-0.56872,-4.5752,-1.4171
-12.07,-13.841,-14.309,-1.3527,-3.9604,-7.3139,-13.659,-3.9291,-5.2427,-1.3527,-3.9604,-11.83,-4.4444,-2.6156,-8.1905,-7.767,-8.3736,-2.0612,-3.0964,-6.5359,-3.3494
-17.125,-20.825001,-24.065001,-3.285,-3.3003,-12.492,-17.561001,-7.7939,-5.89,-3.285,-3.3003,-17.059,-9.5238,-6.4434,-13.905,-14.239,-16.747,-5.2818,-5.624,-8.4967,-4.6377
-19.652,-18.285999,-24.715,-3.9291,-1.3201,-13.786,-14.959,-9.7262,-4.5955,-3.9291,-1.3201,-14.444,-15.238,-10.271,-20.889,-16.827999,-22.544001,-10.435,-4.3602,-12.418,-4.6377
-25.34,-13.206,-22.114,-4.5733,-3.3003,-13.786,-12.358,-10.37,-2.0065,-4.5733,-3.3003,-13.137,-17.778,-11.547,-25.968,-15.534,-24.476999,-10.435,-5.624,-14.379,-3.9936
-20.916,-7.4921,-16.910999,-7.7939,-6.6007,-14.434,-9.7561,-12.303,-2.6537,-7.7939,-6.6007,-13.137,-13.333,-7.0813,-20.254,-9.0615,-18.035,-11.079,0.06319,-11.765,-0.12882
-13.333,-1.1429,-9.1057,-11.659,-7.9208,-13.139,-6.5041,-14.879,-0.71197,-11.659,-7.9208,-11.83,-6.3492,-0.0638,-8.8254,0.64725,-7.0853,-9.7907,5.7504,-3.9216,5.0242
-10.174,2.0317,-3.9024,-12.947,-5.2805,-11.197,-1.9512,-12.947,2.5243,-12.947,-5.2805,-9.2157,0.0,6.3158,-1.2063,8.4142,2.5765,-5.9259,7.0142,-1.9608,7.6006
-14.597,2.6667,-5.8537,-15.523,-1.3201,-16.375,-1.9512,-13.591,3.8188,-15.523,-1.3201,-11.83,0.63492,7.5917,-1.8413,9.7087,3.2206,-3.3494,7.0142,-3.268,7.6006
-12.07,6.4762,-4.5528,-14.235,-1.3201,-17.023001,0.65041,-14.879,6.4078,-14.235,-1.3201,-11.83,1.2698,6.9537,0.06349,10.356,4.5089,-1.4171,8.278,1.3072,8.2448
-9.5419,5.2063,-3.9024,-14.235,-4.6205,-15.081,-1.9512,-11.659,4.466,-14.235,-4.6205,-13.791,-0.63492,3.764,0.69841,7.767,3.8647,0.5153,6.3823,3.268,6.3124
-3.2227,2.6667,-2.6016,-15.523,-5.9406,-13.139,-5.2033,-10.37,1.877,-15.523,-5.9406,-15.098,-2.5397,-0.0638,3.873,3.2362,2.5765,2.4477,2.5908,7.1895,3.0918
1.2006,0.12698,0.0,-11.014,-1.9802,-8.6084,-3.9024,-6.5056,3.1715,-11.014,-1.9802,-13.137,-2.5397,-3.2536,7.0476,-0.64725,1.9324,6.3124,2.5908,9.1503,2.4477
3.7283,-1.7778,-1.3008,-6.5056,-0.66007,-6.6667,-5.2033,-3.9291,1.2298,-6.5056,-0.66007,-12.484,-1.2698,-5.1675,9.5873,-5.178,0.0,4.38,2.5908,12.418,0.5153
7.5197,-3.6825,-3.252,-7.7939,-2.6403,-7.3139,-7.1545,-3.285,-0.06472,-7.7939,-2.6403,-13.137,3.1746,-5.1675,12.762,-7.1197,0.0,3.0918,1.9589,15.033,-0.77295
-1.327,-8.7619,-9.7561,-13.591,-8.5809,-14.434,-13.008,-9.0821,-3.301,-13.591,-8.5809,-17.712,5.7143,-3.8915,7.0476,-7.767,-2.5765,5.0242,0.6951,11.111,0.5153
-16.493,-10.667,-16.26,-17.455999,-11.881,-20.259001,-17.561001,-13.591,-7.8317,-17.455999,-11.881,-21.634001,6.9841,-0.70175,-1.8413,-5.8252,-6.4412,5.0242,-0.56872,6.5359,1.1594
-17.125,-9.3968,-15.61,-14.879,-9.901,-17.67,-16.910999,-12.947,-8.479,-14.879,-9.901,-18.365999,8.8889,1.8501,-4.381,-3.2362,-6.4412,0.5153,-1.8325,5.2288,1.8035
-10.174,-8.7619,-10.407,-9.0821,-8.5809,-10.55,-13.659,-11.014,-8.479,-9.0821,-8.5809,-11.83,8.254,3.126,-2.4762,-1.9417,-4.5089,-0.77295,-5.624,3.9216,0.5153
-1.9589,-6.2222,-2.6016,-6.5056,-8.5809,-3.4304,-9.7561,-7.7939,-7.8317,-6.5056,-8.5809,-6.6013,9.5238,5.6778,3.2381,2.589,1.9324,0.5153,-1.2006,5.2288,1.8035
1.2006,-1.1429,3.252,-3.9291,-5.2805,-0.84142,-5.2033,-5.8615,-7.8317,-3.9291,-5.2805,-3.3333,8.254,7.5917,5.1429,7.1197,6.4412,-0.12882,1.9589,3.268,3.7359
-0.06319,4.5714,5.8537,-2.6409,-2.6403,-0.19417,-1.9512,-7.1498,-5.89,-2.6409,-2.6403,-1.3725,5.0794,7.5917,2.6032,11.003,8.3736,-3.3494,0.6951,0.0,3.7359
6.2559,9.6508,12.358,1.2238,2.6403,4.3366,5.8537,-5.2174,-0.06472,1.2238,2.6403,5.1634,3.1746,7.5917,5.1429,15.534,11.594,-11.079,3.8547,1.9608,6.3124
2.4645,10.921,13.008,2.5121,4.6205,6.2783,8.4553,-3.285,1.877,2.5121,4.6205,6.4706,-1.9048,5.0399,0.69841,14.239,9.6618,-4.6377,2.5908,-3.9216,5.0242
-3.8547,12.19,11.707,3.8003,5.9406,4.3366,10.407,-0.06441,1.877,3.8003,5.9406,7.1242,-4.4444,3.126,-2.4762,12.945,8.3736,0.5153,2.5908,-8.4967,4.38
1.8325,12.825,12.358,3.1562,4.6205,4.3366,10.407,-2.6409,3.1715,3.1562,4.6205,7.7778,-5.7143,1.2121,0.69841,10.356,8.3736,-5.2818,3.8547,-7.8431,6.3124
4.3602,14.095,13.659,3.8003,6.6007,7.5728,11.707,-2.6409,5.1133,3.8003,6.6007,11.699,-5.7143,-0.70175,2.6032,7.767,8.3736,-2.7053,7.0142,-5.8824,6.9565
10.679,17.27,18.211,6.3768,10.561,15.34,14.309,1.868,6.4078,6.3768,10.561,16.275,-1.9048,-0.0638,7.6825,8.4142,11.594,2.4477,7.6461,-0.65359,6.3124
18.893999,17.27,21.462999,7.6651,10.561,18.576,16.26,3.8003,8.9968,7.6651,10.561,19.542,1.2698,-0.0638,12.127,8.4142,13.527,3.7359,7.6461,0.65359,5.6683
16.997999,9.6508,20.813,9.5974,9.901,17.282,17.561001,6.3768,10.939,9.5974,9.901,20.85,-1.2698,-5.1675,11.492,1.9417,9.6618,3.7359,5.7504,1.9608,1.8035
15.735,4.5714,16.910999,9.5974,13.201,17.929001,18.211,7.6651,12.88,9.5974,13.201,21.503,-5.7143,-10.271,7.6825,-5.178,3.2206,5.0242,0.6951,1.9608,-3.3494
10.047,3.3016,11.057,8.3092,11.881,17.282,17.561001,4.4444,13.528,8.3092,11.881,20.195999,-7.619,-10.271,1.9683,-8.4142,-1.2882,6.3124,2.5908,-0.65359,-5.2818
5.624,2.6667,5.8537,7.0209,12.541,15.987,15.61,7.0209,12.88,7.0209,12.541,17.582001,-6.3492,-6.4434,0.69841,-6.4725,-1.9324,3.0918,4.4866,1.9608,-2.7053
