C3,C4,Cz,F1,F2,F3,F4,F7,F8,Fp1,Fp2,Fz,O1,O2,P3,P4,Pz,T3,T4,T5,T6
1.1321,-3.0476,-1.9512,-9.7735,-10.458,-2.2114,-9.6618,-7.7939,3.8188,-9.7735,-10.458,-9.2409,0.63191,-3.2381,5.2063,-1.2882,1.9324,5.0,-5.6508,3.9216,-2.0513
-1.3836,-5.5873,-4.5528,-6.5372,-12.418,2.9919,-11.594,-9.0821,-7.1845,-6.5372,-12.418,-10.561,-2.5276,-3.2381,2.0317,-2.5765,0.0,-3.3333,-1.8413,-1.3072,-3.3333
-3.8994,2.6667,-2.6016,-13.01,-12.418,-19.771999,-4.5089,-9.0821,-22.718,-13.01,-12.418,-14.521,0.63191,0.57143,2.0317,3.2206,3.2206,-4.6154,-2.4762,2.6144,1.7949
-1.3836,1.3968,-1.3008,-10.421,-5.2288,-19.122,-5.7971,-11.014,2.5243,-10.421,-5.2288,-8.5809,3.1596,3.746,2.0317,6.4412,5.7971,-18.077,2.6032,-0.65359,6.9231
3.0189,4.5714,5.2033,-9.7735,4.5752,-25.625999,7.0853,-13.591,5.7605,-9.7735,4.5752,0.66007,8.2148,7.5556,6.4762,9.6618,9.0177,-15.513,12.127,2.6144,12.692
0.50314,7.746,9.1057,1.2298,7.1895,12.098,9.0177,-5.8615,3.1715,1.2298,7.1895,6.6007,7.5829,8.8254,4.5714,10.95,8.3736,10.769,10.857,4.5752,9.4872
1.761,4.5714,7.8049,19.353001,7.8431,2.3415,7.0853,4.4444,5.7605,19.353001,7.8431,7.2607,2.5276,5.0159,-1.1429,6.4412,3.8647,-2.6923,-0.57143,-2.6144,5.0
-6.4151,1.3968,5.2033,16.117001,7.8431,20.552999,2.5765,-3.9291,0.58252,16.117001,7.8431,8.5809,0.63191,3.1111,-3.6825,2.5765,1.2882,-0.76923,0.06349,-3.9216,5.641
0.50314,6.4762,10.407,10.939,9.8039,29.007999,18.68,9.5974,-16.893,10.939,9.8039,15.182,3.1596,3.746,3.3016,4.5089,4.5089,-2.0513,-1.2063,1.9608,5.641
4.9057,-3.6825,3.9024,14.175,1.3072,-0.26016,0.64412,29.565001,-10.421,14.175,1.3072,5.9406,0.63191,-1.9683,3.3016,-1.2882,0.64412,6.2821,-13.905,-1.3072,-4.6154
1.1321,-14.476,-2.6016,12.88,-1.9608,-19.771999,-16.103001,10.242,-20.777,12.88,-1.9608,-0.66007,-5.0553,-10.222,0.12698,-9.6618,-4.5089,7.5641,-25.968,-4.5752,-14.872
-0.12579,-16.381001,-6.5041,2.5243,-6.5359,13.398,-8.3736,0.57971,-21.424,2.5243,-6.5359,2.6403,-6.951,-10.222,-2.4127,-14.171,-9.6618,5.0,-27.872999,-4.5752,-14.872
6.1635,-12.571,-5.8537,-0.71197,-0.65359,-11.967,-2.5765,10.886,-11.068,-0.71197,-0.65359,5.2805,-3.1596,-6.4127,1.3968,-12.238,-6.4412,-5.2564,-23.429001,0.65359,-10.385
-5.1572,-15.746,-11.057,5.7605,-3.268,4.9431,-16.103001,12.818,-27.896,5.7605,-3.268,-1.3201,-5.0553,-8.3175,-1.7778,-14.171,-9.6618,8.2051,-20.254,-1.9608,-11.667
-4.5283,-15.746,-9.7561,-2.6537,-6.5359,22.504,-10.95,2.5121,-23.365999,-2.6537,-6.5359,-3.3003,-5.6872,-7.0476,-1.7778,-14.815,-10.306,13.974,-17.079,-9.8039,-9.7436
4.9057,2.0317,0.65041,12.233,-0.65359,2.3415,3.8647,5.7327,-2.6537,12.233,-0.65359,1.9802,5.6872,2.4762,7.1111,-1.2882,1.2882,15.897,-1.8413,4.5752,-1.4103
4.9057,2.0317,0.0,8.9968,5.2288,-17.171,2.5765,-0.70853,3.8188,8.9968,5.2288,0.66007,5.6872,2.4762,9.6508,1.9324,2.5765,3.7179,3.2381,8.4967,3.7179
-0.75472,-4.3175,-5.8537,4.466,3.9216,-6.7642,-1.2882,14.75,9.644,4.466,3.9216,-2.6403,3.1596,-0.69841,5.8413,0.64412,-0.64412,-7.1795,5.7778,4.5752,1.1538
-5.1572,1.3968,-5.8537,5.7605,4.5752,-4.813,0.0,10.242,7.7023,5.7605,4.5752,-3.9604,4.4234,3.746,5.8413,3.2206,0.0,5.0,9.5873,5.8824,6.2821
0.50314,-1.1429,-3.9024,-2.0065,9.1503,-4.813,3.8647,7.0209,7.7023,-2.0065,9.1503,0.66007,0.0,-1.3333,1.3968,-1.2882,-3.2206,9.4872,8.9524,3.268,1.7949
-7.673,-4.9524,-9.1057,-7.8317,1.9608,17.951,-1.9324,-12.947,5.1133,-7.8317,1.9608,-3.3003,-6.951,-7.0476,-5.5873,-9.0177,-10.306,-7.8205,-2.4762,-4.5752,-5.8974
-2.6415,-1.7778,-2.6016,-1.3592,8.4967,-9.3659,5.7971,-9.7262,20.0,-1.3592,8.4967,0.66007,-5.6872,-5.1429,-2.4127,-7.0853,-7.0853,-9.1026,12.127,1.3072,-0.12821
-2.0126,2.0317,3.252,-0.06472,7.1895,6.2439,1.9324,-5.8615,6.4078,-0.06472,7.1895,2.6403,-1.2638,0.57143,-2.4127,-0.64412,-1.9324,-5.2564,10.222,-1.9608,3.0769
-6.4151,0.7619,0.65041,-2.6537,3.9216,-19.122,-7.7295,-6.5056,2.5243,-2.6537,3.9216,0.0,-1.8957,-0.69841,-5.5873,1.9324,-1.2882,3.7179,3.2381,-1.9608,1.1538
-5.1572,5.8413,1.3008,5.1133,-3.9216,-10.667,-1.2882,4.4444,19.353001,5.1133,-3.9216,-0.66007,0.0,3.1111,-3.6825,7.7295,1.9324,3.0769,9.5873,0.0,6.2821
-7.673,6.4762,-1.3008,5.7605,1.3072,6.8943,-1.2882,1.2238,-5.89,5.7605,1.3072,-2.6403,-1.8957,1.8413,-6.8571,6.4412,0.0,-14.231,2.6032,-7.1895,3.0769
0.50314,6.4762,4.5528,-11.068,1.3072,11.447,4.5089,-3.285,-14.951,-11.068,1.3072,6.6007,0.0,1.2063,-4.3175,4.5089,0.64412,-11.667,0.06349,2.6144,1.7949
-5.7862,-1.1429,1.3008,8.3495,3.9216,14.699,1.2882,-0.06441,3.1715,8.3495,3.9216,7.2607,-0.63191,-0.06349,-6.2222,1.2882,-1.2882,5.641,3.2381,3.9216,3.0769
-3.8994,0.12698,0.65041,15.469,0.65359,4.9431,-7.0853,17.327,-3.9482,15.469,0.65359,3.9604,-1.8957,1.2063,-4.9524,-1.9324,-3.8647,3.0769,-5.6508,-2.6144,1.1538
2.3899,0.7619,5.8537,8.9968,5.8824,-2.2114,3.8647,9.5974,7.055,8.9968,5.8824,8.5809,-0.63191,2.4762,-0.50794,-1.2882,0.64412,5.0,-6.9206,0.65359,1.1538
1.1321,-7.4921,0.0,-4.5955,-1.3072,4.9431,-4.5089,-9.0821,-9.7735,-4.5955,-1.3072,-0.66007,-4.4234,-4.5079,2.0317,-5.7971,-3.2206,11.41,-12.0,4.5752,-7.1795
4.2767,-13.206,-4.5528,-22.718,-5.2288,0.39024,-12.238,-12.303,-18.834999,-22.718,-5.2288,-1.9802,-6.3191,-7.6825,-1.1429,-12.882,-7.7295,8.8462,-13.27,-4.5752,-11.026
4.2767,-5.5873,-1.9512,2.5243,-3.268,-8.7154,-6.4412,1.868,-6.5372,2.5243,-3.268,-0.66007,-2.5276,-6.4127,3.9365,-10.306,-5.7971,1.1538,-12.635,1.9608,-10.385
-0.12579,-3.0476,-3.252,8.9968,-6.5359,2.9919,0.0,7.6651,-18.188,8.9968,-6.5359,-3.9604,-4.4234,-7.6825,2.0317,-11.594,-7.0853,-15.513,-6.9206,2.6144,-7.8205
7.4214,-8.127,1.3008,-0.71197,0.65359,13.398,-4.5089,-5.2174,-6.5372,-0.71197,0.65359,1.3201,-1.2638,-5.7778,4.5714,-5.7971,-1.9324,-7.1795,3.2381,0.0,-2.0513
8.6792,-1.7778,5.8537,-3.9482,3.9216,1.0407,-3.8647,-5.8615,7.055,-3.9482,3.9216,4.6205,5.0553,6.2857,9.6508,2.5765,4.5089,2.4359,7.0476,6.5359,6.2821
20.0,10.286,9.1057,-24.013,1.9608,3.6423,10.95,-25.829,3.8188,-24.013,1.9608,3.9604,8.2148,9.4603,12.825,8.3736,9.6618,20.385,8.3175,9.1503,8.2051
12.453,8.381,8.4553,-5.2427,3.268,-16.52,6.4412,-16.167,14.175,-5.2427,3.268,2.6403,11.374,10.73,12.825,10.95,11.594,3.7179,11.492,10.458,12.051
5.5346,12.19,8.4553,8.9968,4.5752,6.8943,5.7971,4.4444,12.233,8.9968,4.5752,-0.66007,12.006,12.0,11.556,14.171,12.238,-3.3333,12.127,6.5359,13.333
6.1635,21.714001,12.358,2.5243,6.5359,4.9431,10.306,-3.9291,5.7605,2.5243,6.5359,1.9802,12.638,15.175,10.921,19.323999,15.459,-0.76923,14.032,10.458,16.538
2.3899,13.46,12.358,2.5243,9.8039,-9.3659,7.0853,-6.5056,5.7605,2.5243,9.8039,1.9802,11.374,14.54,7.1111,18.68,14.815,-3.3333,16.570999,3.268,17.179001
-6.4151,9.0159,4.5528,-3.301,5.2288,1.6911,3.2206,2.5121,9.644,-3.301,5.2288,-0.66007,8.8468,12.635,3.3016,15.459,10.95,-5.2564,12.762,3.268,12.692
-7.044,2.0317,-3.252,0.58252,-0.65359,-11.967,-3.2206,-2.6409,-4.5955,0.58252,-0.65359,-7.9208,5.6872,10.095,-2.4127,9.0177,5.153,-0.76923,6.4127,-1.9608,12.051
-8.3019,1.3968,-5.8537,-1.3592,-4.5752,1.6911,-3.2206,-5.8615,8.9968,-1.3592,-4.5752,-9.2409,1.2638,5.6508,-7.4921,3.8647,-0.64412,-0.12821,9.5873,-4.5752,7.5641
-4.5283,3.3016,-1.9512,-5.2427,2.6144,-0.26016,3.2206,-14.235,13.528,-5.2427,2.6144,-1.9802,1.8957,3.746,-5.5873,7.0853,1.9324,0.51282,8.9524,-2.6144,8.2051
-8.3019,0.12698,-1.3008,1.877,0.65359,-30.179001,-4.5089,19.259001,3.8188,1.877,0.65359,-3.3003,2.5276,7.5556,-5.5873,5.7971,1.9324,-0.76923,5.1429,-2.6144,5.0
2.3899,10.921,9.7561,14.822,13.072,23.805,8.3736,25.056,9.644,14.822,13.072,12.541,6.3191,11.365,1.3968,11.594,9.0177,6.2821,8.9524,0.0,13.333
0.50314,1.3968,3.9024,14.175,5.8824,34.862,8.3736,9.5974,-4.5955,14.175,5.8824,8.5809,0.63191,4.381,-3.6825,4.5089,1.9324,7.5641,-1.2063,-3.268,4.359
4.2767,0.12698,1.3008,-5.2427,3.268,-4.1626,-3.8647,7.0209,-7.1845,-5.2427,3.268,6.6007,-6.951,-2.6032,-4.3175,-3.2206,-2.5765,2.4359,-11.365,-5.2288,-5.2564
25.031,0.7619,11.707,-2.0065,9.8039,15.35,7.0853,3.8003,8.9968,-2.0065,9.8039,19.142,0.63191,1.8413,8.381,1.2882,5.153,13.974,-1.2063,0.0,0.51282
9.9371,-0.50794,5.2033,14.822,5.8824,5.5935,2.5765,8.9533,-2.0065,14.822,5.8824,11.221,0.0,1.2063,4.5714,-1.9324,1.2882,10.769,-3.746,5.2288,-1.4103
1.761,-3.6825,-0.65041,17.410999,4.5752,10.146,3.8647,8.9533,-2.0065,17.410999,4.5752,5.2805,-4.4234,-4.5079,-3.6825,-5.7971,-5.153,7.5641,-7.5556,-2.6144,-8.4615
4.9057,0.7619,1.9512,3.8188,13.072,-0.91057,9.0177,-0.06441,6.4078,3.8188,13.072,7.2607,-4.4234,-5.1429,-3.0476,-0.64412,-1.2882,-3.3333,-4.381,-4.5752,-4.6154
9.3082,8.381,6.5041,-7.8317,2.6144,24.455,4.5089,-21.32,0.58252,-7.8317,2.6144,9.2409,0.63191,2.4762,5.8413,5.7971,5.7971,-3.9744,-9.4603,2.6144,-1.4103
6.1635,3.9365,5.8537,-0.71197,-3.9216,8.1951,-0.64412,-1.3527,-12.362,-0.71197,-3.9216,3.3003,2.5276,5.6508,7.1111,7.0853,8.3736,-3.3333,-5.6508,3.9216,-0.76923
-5.7862,5.2063,5.2033,3.1715,5.2288,-7.4146,-1.9324,3.1562,-3.301,3.1715,5.2288,-0.66007,6.951,7.5556,2.6667,11.594,9.6618,-6.5385,-1.2063,6.5359,5.0
6.7925,20.444,13.659,12.233,9.8039,5.5935,18.68,-0.70853,12.88,12.233,9.8039,10.561,13.27,12.0,12.825,17.391001,16.103001,-19.358999,5.7778,11.765,7.5641
3.6478,13.46,6.5041,10.291,7.1895,3.6423,9.6618,3.8003,9.644,10.291,7.1895,3.9604,6.951,5.0159,4.5714,9.6618,8.3736,-1.4103,6.4127,5.8824,3.0769
-4.5283,5.8413,2.6016,3.8188,-2.6144,-4.1626,-2.5765,1.868,2.5243,3.8188,-2.6144,-3.3003,0.63191,-0.06349,-1.1429,5.7971,3.2206,-0.12821,2.6032,-0.65359,-2.0513
11.195,14.095,14.959,12.233,10.458,2.3415,12.238,10.242,14.822,12.233,10.458,11.221,9.4787,6.2857,12.19,14.171,14.171,-0.12821,10.857,11.765,11.41
-0.75472,3.9365,1.3008,-3.9482,-5.2288,4.2927,-7.0853,-6.5056,5.1133,-3.9482,-5.2288,-3.9604,2.5276,3.746,-0.50794,5.153,3.2206,-7.1795,4.5079,0.0,0.51282
5.5346,2.0317,0.0,-6.5372,-3.9216,10.797,3.2206,-16.812,7.055,-6.5372,-3.9216,-3.3003,2.5276,1.2063,2.6667,2.5765,3.2206,1.1538,4.5079,1.3072,1.7949
0.50314,-6.8571,-3.252,-11.715,-12.418,16.65,-10.95,3.1562,-24.66,-11.715,-12.418,-5.9406,-1.8957,-5.7778,-0.50794,-3.8647,-2.5765,15.897,-8.1905,0.65359,-2.6923
-2.0126,-8.7619,-1.9512,-7.1845,-6.5359,-17.820999,-8.3736,7.6651,-2.6537,-7.1845,-6.5359,-5.9406,-2.5276,-3.2381,-1.7778,-5.153,-2.5765,-1.4103,-1.8413,-1.3072,-4.6154
-12.704,-9.3968,-13.008,-11.715,-9.1503,-30.829,-8.3736,-11.014,-4.5955,-11.715,-9.1503,-8.5809,-3.7915,-4.5079,-10.032,-7.7295,-9.0177,-10.385,-4.381,-1.9608,-3.9744
-15.22,-7.4921,-20.163,5.1133,-12.418,-27.577,-11.594,4.4444,-12.362,5.1133,-12.418,-14.521,-4.4234,-5.7778,-13.206,-7.7295,-12.882,-0.12821,-11.365,-1.3072,-5.2564
-13.962,-15.111,-16.26,-1.3592,-14.379,1.6911,-5.7971,1.868,-24.66,-1.3592,-14.379,-15.182,-5.0553,-6.4127,-12.571,-10.306,-12.882,3.0769,-12.635,-5.2288,-7.1795
-8.9308,-15.111,-9.7561,-6.5372,-13.072,1.0407,-18.68,-7.7939,-6.5372,-6.5372,-13.072,-13.201,-4.4234,-5.1429,-4.9524,-10.306,-8.3736,1.7949,-12.635,1.3072,-6.5385
-3.8994,-11.302,-5.8537,-1.3592,-9.8039,5.5935,-14.171,-1.3527,-6.5372,-1.3592,-9.8039,-9.2409,-2.5276,-7.0476,-4.9524,-10.95,-7.7295,-4.6154,-10.73,-1.9608,-7.1795
-2.6415,-1.1429,-5.8537,-0.71197,-1.9608,-4.813,7.0853,-0.06441,5.1133,-0.71197,-1.9608,-3.9604,-1.8957,-3.2381,-4.9524,-9.6618,-9.0177,-10.385,-5.6508,-4.5752,-5.2564
4.2767,-3.0476,-1.3008,-2.0065,0.0,-8.065,-1.9324,-1.3527,1.877,-2.0065,0.0,1.9802,1.8957,-0.06349,0.7619,-9.0177,-5.153,1.7949,-9.4603,1.9608,-7.1795
11.195,2.6667,8.4553,-0.06472,-0.65359,25.756001,1.2882,-7.7939,-12.362,-0.06472,-0.65359,9.2409,5.6872,3.1111,7.746,-3.2206,2.5765,15.256,-8.1905,1.3072,-2.6923
14.969,2.6667,13.659,-6.5372,5.8824,10.146,5.153,-2.6409,1.2298,-6.5372,5.8824,7.9208,13.27,8.8254,14.73,5.153,11.594,6.2821,1.9683,11.111,4.359
8.0503,9.6508,13.659,1.2298,7.8431,1.6911,12.882,8.9533,27.120001,1.2298,7.8431,8.5809,13.27,10.095,12.825,10.306,12.882,-3.3333,7.0476,6.5359,6.2821
14.34,11.556,13.008,8.3495,9.1503,10.797,19.323999,-1.9968,-11.068,8.3495,9.1503,13.201,7.5829,5.6508,11.556,7.7295,10.95,15.897,1.9683,5.8824,3.0769
16.226,5.2063,10.407,0.58252,7.8431,16.0,10.306,6.3768,17.410999,0.58252,7.8431,13.201,6.951,6.2857,9.0159,5.153,7.7295,3.0769,8.9524,4.5752,1.7949
1.761,12.19,5.2033,3.1715,9.1503,18.601999,21.256001,-3.285,17.410999,3.1715,9.1503,11.881,3.7915,3.1111,0.7619,6.4412,2.5765,4.359,5.7778,-0.65359,7.5641
-3.8994,-1.1429,-1.9512,-0.71197,1.9608,-5.4634,0.0,-11.659,3.8188,-0.71197,1.9608,1.9802,0.0,-0.69841,-1.1429,0.0,-3.2206,-2.6923,12.127,1.3072,1.7949
-3.8994,3.3016,0.65041,3.8188,9.1503,-11.967,8.3736,17.327,18.705999,3.8188,9.1503,3.9604,-0.63191,-0.06349,-3.6825,1.9324,-3.2206,-0.76923,12.762,0.65359,1.7949
3.0189,1.3968,-1.9512,-0.71197,1.3072,14.049,10.95,4.4444,-9.7735,-0.71197,1.3072,1.9802,-2.5276,-1.9683,-1.7778,0.64412,-5.153,6.2821,3.873,0.0,1.1538
-1.3836,-7.4921,-5.2033,-3.9482,-1.3072,-2.8618,-5.153,-6.5056,1.2298,-3.9482,-1.3072,-2.6403,-3.1596,-3.873,-4.3175,-1.9324,-6.4412,6.9231,2.6032,-0.65359,-0.12821
2.3899,1.3968,-2.6016,-28.544001,-4.5752,-12.618,4.5089,1.2238,10.939,-28.544001,-4.5752,-3.3003,-4.4234,-1.9683,-2.4127,1.9324,-3.8647,8.2051,6.4127,-3.268,-0.12821
-5.7862,4.5714,-4.5528,10.291,-5.8824,-4.813,-7.7295,-4.5733,-2.0065,10.291,-5.8824,-5.9406,-0.63191,1.8413,0.12698,7.0853,0.64412,0.51282,3.873,1.3072,5.641
-8.9308,1.3968,-5.8537,14.175,-3.268,-1.561,0.0,5.7327,4.466,14.175,-3.268,-9.901,-4.4234,-0.06349,-4.3175,6.4412,-1.9324,-0.12821,5.1429,-1.9608,7.5641
-4.5283,-1.7778,-3.9024,1.877,-2.6144,4.9431,-9.0177,1.868,4.466,1.877,-2.6144,-7.9208,-3.1596,-1.3333,-1.1429,7.7295,2.5765,6.9231,12.127,-0.65359,7.5641
6.7925,5.2063,5.8537,-8.479,-1.9608,-22.374001,-0.64412,8.9533,5.7605,-8.479,-1.9608,-0.66007,1.8957,5.0159,7.1111,10.95,7.7295,-2.6923,8.9524,-1.3072,9.4872
12.453,10.286,12.358,0.58252,-3.9216,17.301001,3.2206,-1.9968,-14.304,0.58252,-3.9216,4.6205,0.63191,5.6508,3.9365,10.95,9.0177,-5.2564,5.7778,-4.5752,5.0
9.9371,8.381,11.057,1.877,3.9216,21.854,7.0853,1.2238,-1.3592,1.877,3.9216,6.6007,3.1596,4.381,5.2063,10.95,9.0177,9.4872,4.5079,0.0,2.4359
0.50314,15.365,14.959,3.8188,4.5752,2.9919,7.7295,12.818,14.822,3.8188,4.5752,10.561,5.0553,8.8254,6.4762,16.747,11.594,8.2051,7.0476,3.268,7.5641
7.4214,20.444,18.211,2.5243,7.8431,27.707001,11.594,-20.676001,8.9968,2.5243,7.8431,11.221,6.951,12.635,6.4762,18.68,14.815,-8.4615,7.6825,1.9608,14.615
1.761,10.286,10.407,-0.06472,-2.6144,-13.919,0.64412,4.4444,-6.5372,-0.06472,-2.6144,0.66007,5.0553,7.5556,3.9365,14.171,11.594,4.359,1.9683,-1.9608,2.4359
4.9057,19.174999,17.561001,14.175,11.111,7.5447,18.68,13.462,3.1715,14.175,11.111,16.502001,10.111,11.365,9.0159,19.323999,18.035,-7.1795,5.1429,4.5752,10.128
3.6478,10.921,12.358,7.055,9.1503,20.552999,10.95,-5.8615,14.822,7.055,9.1503,13.861,5.6872,10.095,8.381,10.95,10.95,-0.76923,4.5079,7.1895,5.641
4.9057,4.5714,9.1057,8.3495,11.765,-4.1626,10.95,2.5121,5.1133,8.3495,11.765,14.521,5.0553,5.6508,3.9365,2.5765,5.7971,-3.9744,-1.2063,3.268,0.51282
14.34,-1.7778,6.5041,-9.7735,2.6144,-6.7642,3.2206,-3.9291,-12.362,-9.7735,2.6144,9.2409,2.5276,-0.06349,5.8413,-2.5765,2.5765,3.7179,-3.746,3.268,-3.9744
2.3899,-8.7619,-0.65041,9.644,0.0,-7.4146,-9.6618,6.3768,-5.2427,9.644,0.0,1.3201,-1.8957,-3.873,-0.50794,-7.7295,-1.9324,0.51282,-10.73,1.3072,-11.026
3.6478,-0.50794,2.6016,15.469,6.5359,16.0,7.0853,12.174,-6.5372,15.469,6.5359,7.9208,-1.2638,-3.2381,2.6667,-3.8647,0.0,-4.6154,-11.365,3.268,-8.4615
7.4214,-3.6825,3.252,0.58252,6.5359,17.301001,4.5089,-0.06441,12.88,0.58252,6.5359,11.221,-5.6872,-6.4127,2.6667,-7.0853,-2.5765,13.333,-2.4762,-3.268,-6.5385
12.453,3.3016,11.707,4.466,11.111,12.098,6.4412,5.0886,-3.301,4.466,11.111,19.802,-6.3191,-10.857,2.6667,-6.4412,0.0,6.9231,-12.0,-6.5359,-12.949
6.7925,8.381,11.707,5.1133,13.725,6.2439,6.4412,15.395,0.58252,5.1133,13.725,15.182,-3.1596,-9.5873,4.5714,-1.2882,4.5089,10.128,-12.0,1.9608,-12.308
-0.12579,0.12698,1.3008,26.472,6.5359,-11.317,-0.64412,21.191999,1.877,26.472,6.5359,0.66007,-6.3191,-12.127,-0.50794,-3.2206,-1.9324,9.4872,-7.5556,-1.3072,-11.667
6.1635,5.2063,1.3008,23.236,5.2288,5.5935,1.9324,17.971001,3.8188,23.236,5.2288,1.9802,-6.3191,-14.032,0.7619,0.64412,0.0,6.2821,0.06349,-1.9608,-10.385
5.5346,-6.8571,0.65041,1.2298,3.9216,10.146,-7.7295,-0.06441,-5.89,1.2298,3.9216,-0.66007,-6.951,-12.127,3.3016,-5.153,-1.2882,10.128,-7.5556,-3.268,-13.59
-6.4151,-5.5873,-1.3008,0.58252,7.8431,14.699,-9.0177,5.0886,3.1715,0.58252,7.8431,0.66007,-10.111,-10.857,-8.127,-6.4412,-5.7971,2.4359,-1.2063,-9.8039,-9.7436
5.5346,7.1111,3.9024,-4.5955,4.5752,12.098,1.9324,0.57971,14.175,-4.5955,4.5752,3.9604,-6.951,-10.222,-1.7778,-1.9324,-2.5765,-11.026,5.1429,-3.268,-4.6154
-3.2704,0.7619,-3.9024,8.9968,0.0,-7.4146,-5.153,2.5121,-4.5955,8.9968,0.0,-3.3003,-3.1596,-4.5079,0.7619,-1.9324,-1.9324,-1.4103,1.9683,-2.6144,-3.9744
-3.2704,-5.5873,-5.8537,-0.06472,-0.65359,-10.667,-3.8647,1.868,1.2298,-0.06472,-0.65359,-6.6007,-3.1596,-4.5079,0.12698,-3.2206,-0.64412,6.9231,0.69841,1.9608,-3.9744
13.711,16.0,8.4553,2.5243,-1.3072,10.146,10.306,11.53,7.7023,2.5243,-1.3072,3.3003,3.7915,0.57143,9.0159,5.153,7.0853,-17.436001,1.9683,1.3072,1.7949
-2.0126,-6.2222,3.252,-13.01,1.9608,-4.813,-4.5089,-17.455999,-9.1262,-13.01,1.9608,0.0,-0.63191,-4.5079,-1.1429,-0.64412,1.9324,5.0,6.4127,-8.4967,0.51282
11.195,3.3016,10.407,3.1715,6.5359,16.65,6.4412,5.0886,22.589001,3.1715,6.5359,7.2607,5.0553,3.746,9.6508,2.5765,6.4412,-0.76923,8.9524,1.9608,0.51282
-1.3836,2.6667,5.2033,17.410999,11.765,-1.561,7.7295,12.818,-1.3592,17.410999,11.765,6.6007,3.7915,3.746,3.9365,0.64412,3.8647,-4.6154,3.2381,2.6144,3.0769
-10.818,-2.4127,-1.3008,10.939,4.5752,10.146,6.4412,-4.5733,-2.0065,10.939,4.5752,0.66007,-1.2638,-0.06349,-4.3175,-1.2882,-0.64412,-9.1026,2.6032,-2.6144,1.7949
0.50314,-3.0476,0.0,3.1715,-0.65359,-11.317,-6.4412,0.57971,15.469,3.1715,-0.65359,-1.3201,-1.8957,-0.69841,-1.1429,-1.9324,0.0,-0.12821,1.3333,-1.9608,-2.6923
-7.673,-6.8571,-5.2033,-2.6537,-3.268,1.0407,-16.747,0.57971,-4.5955,-2.6537,-3.268,-3.9604,-2.5276,-1.3333,-6.8571,-2.5765,-2.5765,8.2051,-6.2857,-3.268,-5.2564
-9.5597,-2.4127,-5.8537,-18.188,-7.1895,-1.561,-6.4412,-13.591,-6.5372,-18.188,-7.1895,-8.5809,-3.1596,-0.69841,-3.6825,-1.2882,-2.5765,-0.12821,-4.381,-5.8824,-3.3333
6.1635,3.3016,3.9024,-9.7735,-1.3072,14.049,0.64412,-1.9968,2.5243,-9.7735,-1.3072,0.66007,2.5276,4.381,5.8413,3.8647,4.5089,-3.9744,3.2381,3.9216,5.641
-2.6415,3.9365,0.0,20.0,2.6144,-6.7642,6.4412,13.462,10.291,20.0,2.6144,-2.6403,1.2638,4.381,4.5714,5.153,4.5089,2.4359,5.1429,3.9216,3.7179
-3.8994,0.12698,-3.9024,3.1715,0.0,-9.3659,-0.64412,2.5121,-11.068,3.1715,0.0,-5.9406,-3.7915,-2.6032,-2.4127,-1.9324,-2.5765,-14.872,2.6032,-4.5752,-0.12821
8.6792,2.6667,3.9024,-5.89,0.0,3.6423,-0.64412,-10.37,1.877,-5.89,0.0,3.9604,3.1596,6.2857,6.4762,1.2882,2.5765,-0.76923,3.873,2.6144,3.7179
6.7925,-7.4921,0.0,-5.2427,-9.1503,3.6423,-9.6618,-9.7262,-3.9482,-5.2427,-9.1503,-1.3201,1.8957,3.746,5.8413,-4.5089,-0.64412,13.333,1.3333,3.268,2.4359
11.195,-1.1429,3.9024,-2.6537,1.3072,-15.22,0.64412,10.886,14.175,-2.6537,1.3072,2.6403,5.6872,5.6508,11.556,-0.64412,3.8647,4.359,8.3175,5.8824,5.641
3.6478,7.1111,1.3008,1.2298,7.8431,1.0407,5.153,4.4444,-1.3592,1.2298,7.8431,3.3003,3.1596,4.381,5.8413,0.64412,1.9324,6.2821,5.1429,3.9216,4.359
1.1321,-6.8571,-1.9512,-8.479,-5.8824,4.9431,-13.527,-3.9291,-11.715,-8.479,-5.8824,-3.9604,-0.63191,-0.06349,-1.1429,-5.7971,-3.8647,-2.0513,-2.4762,-4.5752,-1.4103
5.5346,10.921,9.1057,-3.301,4.5752,4.9431,11.594,3.8003,-9.7735,-3.301,4.5752,6.6007,5.6872,6.2857,5.2063,5.7971,5.153,3.7179,5.7778,3.268,10.128
2.3899,4.5714,0.0,2.5243,-5.8824,-10.016,-1.9324,-3.9291,13.528,2.5243,-5.8824,-4.6205,1.2638,1.2063,-0.50794,1.2882,-1.2882,-3.3333,5.1429,-0.65359,4.359
0.50314,5.2063,-3.252,7.055,5.8824,7.5447,18.035,10.886,-9.7735,7.055,5.8824,0.66007,3.1596,4.381,-1.7778,2.5765,0.0,-2.0513,8.9524,0.0,6.2821
-17.736,-3.0476,-13.008,-7.8317,1.9608,8.1951,-5.7971,-5.8615,13.528,-7.8317,1.9608,-9.2409,-2.5276,-1.3333,-10.667,-1.9324,-7.7295,-1.4103,8.3175,-1.3072,3.0769
-17.107,0.12698,-9.1057,-3.9482,-5.8824,-10.016,-8.3736,-13.591,4.466,-3.9482,-5.8824,-10.561,-5.0553,-4.5079,-13.206,0.0,-7.0853,-20.641001,7.0476,-5.2288,6.2821
-3.2704,9.6508,3.252,-20.129,0.65359,2.9919,7.0853,-2.6409,0.58252,-20.129,0.65359,2.6403,4.4234,8.1905,0.12698,8.3736,3.8647,-3.9744,15.302,0.65359,12.051
-2.6415,7.1111,4.5528,-2.0065,0.65359,-7.4146,1.9324,0.57971,14.175,-2.0065,0.65359,-0.66007,7.5829,10.095,3.9365,7.7295,5.153,1.7949,12.762,6.5359,14.615
-3.2704,9.0159,0.0,10.939,-0.65359,-15.22,4.5089,-4.5733,5.1133,10.939,-0.65359,-1.3201,4.4234,3.746,2.6667,5.7971,3.2206,-16.795,8.3175,2.6144,8.2051
-3.8994,-3.0476,-5.2033,-17.540001,-11.111,-3.5122,-8.3736,-9.0821,-5.2427,-17.540001,-11.111,-8.5809,3.7915,-1.3333,3.3016,0.0,1.2882,-3.3333,-1.8413,3.268,-0.76923
-3.2704,-6.2222,-3.252,-16.246,-14.379,6.8943,-8.3736,-21.32,-18.188,-16.246,-14.379,-7.9208,-0.63191,-6.4127,2.6667,-5.7971,-1.9324,1.7949,-8.8254,4.5752,-4.6154
-6.4151,-17.016001,-5.8537,-18.188,-12.418,-11.967,-21.9,-12.947,-5.2427,-18.188,-12.418,-5.2805,-6.951,-12.127,-4.9524,-12.882,-9.6618,-11.026,-8.8254,-3.268,-15.513
4.9057,-10.667,1.3008,-24.66,-12.418,4.2927,-11.594,-10.37,-13.01,-24.66,-12.418,-0.66007,-0.63191,-8.9524,2.0317,-8.3736,-3.2206,3.7179,-8.1905,0.65359,-8.4615
2.3899,-11.302,-5.8537,8.9968,-6.5359,-2.2114,-9.0177,2.5121,3.1715,8.9968,-6.5359,-4.6205,1.8957,-2.6032,2.0317,-10.306,-3.8647,5.641,-13.905,3.9216,-9.1026
3.6478,-11.937,-4.5528,17.410999,3.9216,10.797,-5.153,14.106,-5.89,17.410999,3.9216,2.6403,0.0,-4.5079,1.3968,-12.882,-4.5089,14.615,-15.175,2.6144,-12.949
13.711,7.746,7.8049,9.644,1.9608,7.5447,7.0853,19.259001,-5.2427,9.644,1.9608,11.221,2.5276,-2.6032,7.1111,-3.2206,1.9324,11.41,-10.095,5.2288,-5.8974
-3.2704,4.5714,0.65041,5.7605,8.4967,27.707001,16.103001,-25.829,-9.7735,5.7605,8.4967,16.502001,-4.4234,-5.7778,-5.5873,-6.4412,-4.5089,6.9231,-9.4603,-1.9608,-11.026
3.0189,7.1111,9.1057,5.7605,7.8431,19.252001,4.5089,7.6651,12.233,5.7605,7.8431,15.182,0.0,-3.873,0.12698,-3.2206,-0.64412,3.7179,-4.381,-2.6144,-4.6154
3.6478,21.079,14.309,8.3495,15.033,4.9431,27.052999,12.818,-1.3592,8.3495,15.033,15.842,1.2638,-0.69841,3.3016,2.5765,5.153,8.8462,3.873,0.65359,-0.76923
-0.12579,-4.3175,-0.65041,3.1715,0.65359,2.3415,-7.0853,-1.9968,-2.6537,3.1715,0.65359,1.3201,-4.4234,-7.0476,-2.4127,-5.7971,-3.2206,-2.0513,-1.8413,-5.2288,-7.8205
-1.3836,2.6667,1.9512,5.7605,3.268,-10.016,-2.5765,11.53,8.9968,5.7605,3.268,5.2805,0.0,-1.9683,0.7619,0.0,1.2882,-5.2564,4.5079,-0.65359,1.7949
3.0189,7.1111,5.8537,3.1715,3.9216,25.106001,3.2206,-1.3527,-14.951,3.1715,3.9216,7.2607,-0.63191,-3.2381,3.9365,2.5765,4.5089,-12.949,3.873,-1.9608,3.0769
1.761,-6.2222,-3.252,-14.951,-3.268,-8.7154,-9.6618,-14.879,8.9968,-14.951,-3.268,-7.2607,-5.6872,-3.873,1.3968,-1.2882,0.64412,0.51282,3.2381,1.3072,0.51282
-3.8994,0.7619,-3.252,1.877,3.9216,-20.423,7.7295,7.6651,-3.301,1.877,3.9216,-9.2409,-1.8957,-0.06349,1.3968,3.2206,2.5765,13.974,7.0476,-0.65359,1.7949
3.6478,12.825,1.9512,-0.71197,-3.9216,24.455,3.2206,-21.32,-4.5955,-0.71197,-3.9216,-3.3003,-2.5276,-0.69841,2.0317,7.0853,4.5089,-3.9744,1.3333,0.65359,3.7179
-7.044,-6.8571,-5.2033,-16.246,-9.8039,-41.886002,-12.882,-8.438,12.88,-16.246,-9.8039,-13.861,-7.5829,-4.5079,-6.2222,0.64412,-2.5765,-9.1026,3.873,-4.5752,1.1538
-9.5597,-7.4921,-3.9024,-7.1845,-3.268,1.6911,-12.238,-4.5733,0.58252,-7.1845,-3.268,-6.6007,-4.4234,-1.3333,-8.127,1.2882,-2.5765,-3.9744,3.873,-3.9216,3.7179
4.9057,9.0159,3.9024,-10.421,0.65359,19.252001,-0.64412,-20.676001,-0.06472,-10.421,0.65359,2.6403,1.8957,4.381,-2.4127,9.6618,3.8647,-2.6923,14.032,-1.9608,8.2051
1.1321,17.905001,7.8049,21.294001,8.4967,-11.967,14.171,0.57971,7.055,21.294001,8.4967,9.901,5.6872,10.095,0.7619,16.103001,9.6618,-9.1026,15.302,0.65359,15.256
8.0503,8.381,8.4553,8.3495,6.5359,12.748,11.594,11.53,16.117001,8.3495,6.5359,8.5809,3.7915,6.2857,-0.50794,9.6618,5.153,-9.7436,10.857,1.9608,12.051
4.2767,19.174999,9.1057,-4.5955,3.9216,7.5447,20.612,16.039,-15.599,-4.5955,3.9216,8.5809,1.2638,4.381,-1.1429,12.238,5.153,1.7949,8.9524,3.9216,9.4872
-13.333,-13.206,-7.8049,9.644,5.2288,4.2927,0.0,-1.9968,7.055,9.644,5.2288,2.6403,-9.4787,-3.873,-17.016001,-9.0177,-11.594,-3.9744,-1.8413,-9.1503,-2.6923
-4.5283,-17.650999,-12.358,-5.2427,-3.268,17.951,-14.171,-0.06441,18.705999,-5.2427,-3.268,-1.3201,-11.374,-5.1429,-13.206,-14.815,-16.103001,-3.3333,-5.0159,-11.111,-6.5385
-3.2704,-6.8571,-11.707,15.469,5.2288,-11.967,2.5765,8.3092,-18.188,15.469,5.2288,1.3201,-9.4787,-6.4127,-11.937,-14.171,-16.103001,12.692,-6.9206,-5.8824,-2.6923
-5.1572,-17.650999,-17.561001,9.644,2.6144,10.146,-10.306,16.039,14.175,9.644,2.6144,-2.6403,-9.4787,-8.3175,-11.302,-18.035,-18.68,12.692,-8.8254,-4.5752,-11.667
-5.1572,-14.476,-13.008,2.5243,-5.2288,2.9919,-5.7971,3.8003,-9.7735,2.5243,-5.2288,-5.2805,-8.8468,-7.0476,-3.0476,-14.815,-12.882,-5.8974,-13.27,-3.9216,-9.1026
-5.1572,-15.111,-11.707,-12.362,-3.9216,5.5935,-7.7295,-2.6409,-3.9482,-12.362,-3.9216,-5.9406,-8.8468,-10.857,-3.0476,-16.103001,-12.882,0.51282,-17.079,-5.2288,-14.231
-3.8994,-20.825001,-15.61,-9.7735,-4.5752,-13.919,-9.6618,4.4444,-11.068,-9.7735,-4.5752,-9.901,-7.5829,-9.5873,-1.1429,-18.035,-12.882,3.7179,-16.444,-1.3072,-12.949
8.0503,-4.3175,-5.8537,17.410999,2.6144,7.5447,8.3736,14.106,-0.06472,17.410999,2.6144,-1.9802,5.6872,3.746,9.0159,-2.5765,0.0,0.51282,-8.8254,9.1503,0.51282
-7.044,-11.302,-13.008,0.58252,-7.8431,-4.1626,-6.4412,0.57971,-13.657,0.58252,-7.8431,-8.5809,1.8957,-1.3333,-2.4127,-7.7295,-7.0853,1.1538,-10.095,0.65359,-7.8205
-12.075,-4.9524,-12.358,-14.304,-14.379,-10.667,-15.459,-12.947,-16.246,-14.304,-14.379,-16.502001,-2.5276,0.57143,-11.302,-9.6618,-10.95,-17.436001,-13.905,-3.9216,-6.5385
-10.818,-6.8571,-7.8049,-7.1845,-9.8039,-17.171,-13.527,-10.37,3.1715,-7.1845,-9.8039,-14.521,1.8957,3.1111,-3.0476,-3.8647,-4.5089,-7.8205,-7.5556,1.9608,-2.0513
-15.22,-11.937,-9.7561,-13.657,-15.686,-14.569,-11.594,-5.2174,-7.8317,-13.657,-15.686,-15.842,-1.2638,-3.2381,-7.4921,-7.0853,-6.4412,-12.308,-11.365,-4.5752,-7.8205
-7.044,-4.9524,-5.8537,-8.479,-12.418,6.2439,-1.9324,-4.5733,1.877,-8.479,-12.418,-9.901,0.63191,1.2063,-6.8571,-1.9324,-2.5765,-9.1026,-10.095,-5.2288,-7.1795
-5.1572,-6.8571,-4.5528,-20.129,-11.111,-17.171,-9.0177,-5.8615,-11.715,-20.129,-11.111,-9.901,0.63191,0.57143,-6.8571,-0.64412,-1.9324,-10.385,-8.1905,-2.6144,-0.76923
-8.9308,-3.0476,-3.252,-15.599,-13.725,-16.52,-5.7971,-1.3527,-32.426998,-15.599,-13.725,-11.881,-1.8957,-0.69841,-6.8571,0.0,-1.2882,-3.3333,-8.1905,-6.5359,-3.3333
-13.962,-7.4921,-5.8537,-7.8317,-9.1503,-26.927,-14.815,-7.1498,-5.89,-7.8317,-9.1503,-15.182,-3.1596,-3.2381,-10.032,-1.9324,-3.8647,-7.1795,-10.73,-5.2288,-5.8974
-4.5283,-3.0476,-3.9024,1.2298,-3.9216,10.146,-9.6618,-12.947,9.644,1.2298,-3.9216,-6.6007,0.0,-3.873,-3.0476,0.0,-1.2882,-9.7436,-5.0159,-0.65359,-3.3333
-0.12579,0.12698,-3.252,5.1133,-1.9608,-21.724001,-8.3736,1.868,-9.7735,5.1133,-1.9608,-4.6205,-3.1596,-3.873,-3.0476,-5.153,-3.8647,-0.76923,-3.1111,-1.3072,-5.8974
-2.6415,-8.127,-7.8049,-6.5372,-8.4967,4.2927,3.2206,3.1562,-12.362,-6.5372,-8.4967,-5.2805,-5.0553,-7.6825,-4.9524,-12.238,-10.306,-2.0513,-12.635,-3.9216,-11.667
6.1635,-6.8571,-4.5528,-0.06472,0.0,10.146,-1.2882,-10.37,-9.1262,-0.06472,0.0,0.66007,-3.7915,-7.0476,-0.50794,-9.0177,-6.4412,9.4872,-11.365,0.0,-7.8205
6.7925,-10.032,-2.6016,4.466,0.0,6.8943,-4.5089,11.53,-3.301,4.466,0.0,4.6205,-5.6872,-9.5873,-1.7778,-10.306,-8.3736,8.8462,-5.0159,-1.3072,-9.1026
8.0503,-4.3175,1.3008,3.8188,3.9216,-19.771999,9.0177,-0.70853,0.58252,3.8188,3.9216,7.9208,-1.8957,-7.0476,4.5714,-9.6618,-5.7971,15.256,-8.8254,4.5752,-9.1026
6.7925,-5.5873,1.3008,13.528,3.268,10.797,1.9324,-0.70853,-7.1845,13.528,3.268,7.2607,-4.4234,-13.397,2.6667,-12.882,-7.0853,-9.1026,-9.4603,0.65359,-17.436001
-2.6415,-11.937,-3.252,-2.0065,-2.6144,3.6423,-7.0853,21.191999,-17.540001,-2.0065,-2.6144,-1.9802,-5.6872,-12.127,0.7619,-12.238,-7.7295,-0.76923,-15.81,0.0,-14.231
6.7925,-6.8571,-1.9512,12.88,2.6144,-15.87,-6.4412,7.6651,6.4078,12.88,2.6144,1.9802,-1.8957,-6.4127,1.3968,-6.4412,-3.2206,17.820999,-5.6508,1.9608,-11.026
1.1321,-8.7619,-7.1545,6.4078,6.5359,21.202999,-3.2206,-0.06441,3.8188,6.4078,6.5359,-4.6205,0.63191,-3.873,0.12698,-3.8647,-2.5765,-7.8205,0.69841,-1.9608,-2.6923
-22.767,-13.841,-15.61,0.58252,-0.65359,4.2927,-7.0853,12.174,-11.715,0.58252,-0.65359,-10.561,-2.5276,-2.6032,-9.3968,-7.7295,-8.3736,-9.1026,-7.5556,-3.9216,-3.9744
-9.5597,-4.9524,-7.8049,-1.3592,-1.3072,-15.87,-4.5089,8.3092,-2.0065,-1.3592,-1.3072,-8.5809,0.63191,-0.06349,-5.5873,-3.2206,-2.5765,0.51282,-6.2857,-1.9608,-5.2564
-2.6415,7.1111,3.9024,1.877,1.3072,-3.5122,5.7971,-9.0821,-7.1845,1.877,1.3072,-0.66007,3.7915,3.1111,-0.50794,5.153,5.153,8.8462,-7.5556,3.268,0.51282
-4.5283,10.286,5.2033,-0.06472,-6.5359,-4.813,1.2882,-7.1498,-14.304,-0.06472,-6.5359,-4.6205,5.0553,4.381,0.7619,7.7295,6.4412,-4.6154,2.6032,3.268,2.4359
-0.12579,-3.6825,2.6016,-12.362,-7.1895,-13.268,-5.7971,-8.438,1.2298,-12.362,-7.1895,-4.6205,5.0553,1.2063,2.6667,3.2206,3.8647,-7.8205,-1.8413,1.9608,-1.4103
8.6792,11.556,11.057,-7.1845,0.65359,4.2927,9.0177,-7.7939,5.1133,-7.1845,0.65359,5.2805,12.638,7.5556,14.095,12.238,12.882,-1.4103,2.6032,11.765,5.0
0.50314,11.556,9.7561,3.8188,0.0,12.098,8.3736,-3.9291,-5.89,3.8188,0.0,1.9802,9.4787,6.2857,9.0159,9.6618,12.238,-2.6923,0.69841,3.9216,3.7179
-0.12579,-2.4127,5.2033,-14.304,-6.5359,-25.625999,-7.7295,-5.8615,-5.89,-14.304,-6.5359,-1.3201,3.7915,-0.69841,5.2063,3.2206,5.153,-9.1026,-1.2063,0.65359,-3.3333
-4.5283,3.3016,-1.3008,7.055,5.2288,6.8943,7.0853,10.242,-4.5955,7.055,5.2288,5.9406,-2.5276,-3.873,0.12698,0.64412,0.0,3.0769,2.6032,1.9608,-2.6923
-12.704,-1.7778,-11.057,3.8188,-7.8431,-27.577,-9.6618,-3.285,-0.06472,3.8188,-7.8431,-7.2607,-5.6872,-7.6825,-6.8571,-3.2206,-7.7295,-4.6154,-8.8254,-4.5752,-9.1026
-7.044,0.7619,-5.8537,3.1715,1.9608,-6.1138,1.2882,14.106,-7.8317,3.1715,1.9608,-3.3003,-0.63191,-3.2381,-3.6825,1.9324,-1.9324,9.4872,2.6032,0.65359,3.7179
-2.6415,-1.7778,-5.2033,-3.301,2.6144,-0.91057,-1.9324,2.5121,3.1715,-3.301,2.6144,-1.9802,-6.951,-5.7778,-5.5873,-2.5765,-5.153,6.2821,3.873,-4.5752,0.51282
-4.5283,-1.1429,-3.252,2.5243,-2.6144,7.5447,-0.64412,-0.06441,-12.362,2.5243,-2.6144,3.3003,-5.6872,-4.5079,-5.5873,-3.2206,-5.7971,-3.9744,5.1429,-3.9216,-5.2564
-7.044,-4.3175,-6.5041,5.7605,0.0,-11.317,2.5765,7.0209,9.644,5.7605,0.0,0.66007,-10.111,-8.3175,-9.3968,-7.0853,-10.306,3.0769,3.873,-5.2288,-2.6923
-6.4151,-6.8571,-11.057,-9.7735,0.0,-31.48,1.9324,-2.6409,19.353001,-9.7735,0.0,-5.2805,-12.638,-8.9524,-11.937,-11.594,-14.815,-11.026,1.3333,-7.1895,-3.3333
-6.4151,-9.3968,-8.4553,-3.301,-2.6144,4.2927,-10.306,-0.06441,-3.301,-3.301,-2.6144,-3.9604,-10.111,-7.6825,-13.206,-11.594,-14.171,1.1538,7.6825,-9.1503,-0.12821
-11.447,-10.667,-10.407,2.5243,-7.1895,7.5447,-11.594,3.8003,-2.6537,2.5243,-7.1895,-5.9406,-9.4787,-5.7778,-13.206,-10.95,-13.527,5.0,1.9683,-9.8039,-1.4103
-12.704,0.12698,-5.8537,-8.479,-3.9216,-10.016,2.5765,-15.523,12.88,-8.479,-3.9216,-5.2805,-9.4787,-6.4127,-10.667,-7.0853,-10.306,-21.282,0.69841,-5.8824,-3.3333
-2.0126,-4.9524,-0.65041,-13.01,-0.65359,-7.4146,-7.7295,14.75,7.7023,-13.01,-0.65359,-4.6205,-3.1596,-0.69841,-1.1429,-1.2882,-1.9324,12.692,7.6825,-2.6144,3.0769
17.483999,6.4762,10.407,3.1715,4.5752,15.35,1.9324,6.3768,1.2298,3.1715,4.5752,3.3003,8.2148,8.8254,15.365,11.594,12.238,12.051,14.032,5.2288,13.974
2.3899,2.0317,0.65041,-0.06472,-3.268,-8.065,-8.3736,4.4444,10.291,-0.06472,-3.268,-7.2607,3.1596,6.9206,7.746,6.4412,7.0853,-8.4615,5.7778,1.9608,8.8462
-0.75472,-10.032,-7.1545,4.466,-4.5752,-13.268,-14.171,-8.438,-0.06472,4.466,-4.5752,-18.482,1.2638,7.5556,3.9365,1.2882,3.8647,-0.12821,6.4127,3.268,10.128
-4.5283,1.3968,-5.8537,4.466,-0.65359,-16.52,-3.8647,-4.5733,14.175,4.466,-0.65359,-12.541,5.0553,9.4603,-0.50794,9.0177,3.8647,-3.9744,8.3175,0.0,10.128
-1.3836,11.556,0.65041,-4.5955,7.1895,1.6911,16.747,-21.965,18.058001,-4.5955,7.1895,5.9406,4.4234,14.54,-6.8571,10.306,1.9324,-1.4103,12.762,-1.9608,21.025999
-10.818,3.3016,-3.252,-4.5955,0.65359,5.5935,-1.9324,5.7327,10.939,-4.5955,0.65359,-1.3201,1.2638,6.9206,-11.302,4.5089,-3.2206,-7.8205,9.5873,-3.268,12.692
-15.849,9.0159,0.65041,-0.06472,5.2288,-6.1138,5.7971,7.0209,3.8188,-0.06472,5.2288,1.3201,3.1596,12.0,-11.937,6.4412,-0.64412,-13.59,5.7778,-1.9608,13.333
-13.333,-4.3175,-5.8537,-6.5372,-7.8431,-7.4146,-1.2882,-16.167,-6.5372,-6.5372,-7.8431,-3.3003,1.2638,8.1905,-15.746,-2.5765,-8.3736,-5.8974,5.1429,-4.5752,8.2051
-7.044,0.12698,-1.3008,-13.01,-4.5752,-7.4146,2.5765,-14.235,-11.715,-13.01,-4.5752,-3.9604,3.7915,10.73,-9.3968,3.8647,-1.9324,-22.563999,9.5873,0.0,13.333
-4.5283,9.0159,5.8537,-14.951,-5.2288,8.1951,-3.8647,-16.167,0.58252,-14.951,-5.2288,2.6403,6.951,12.635,-0.50794,11.594,5.7971,-12.308,10.222,2.6144,13.974
-5.7862,-2.4127,1.9512,-8.479,-8.4967,-21.724001,-9.6618,-12.947,12.233,-8.479,-8.4967,-3.9604,3.1596,4.381,-2.4127,6.4412,3.2206,6.2821,6.4127,2.6144,6.2821
-0.12579,5.2063,2.6016,-10.421,-8.4967,21.854,-0.64412,-14.879,-0.06472,-10.421,-8.4967,-2.6403,3.7915,6.2857,1.3968,4.5089,3.8647,8.2051,0.06349,5.2288,4.359
3.6478,-3.6825,-5.8537,-7.8317,-13.072,-4.813,-11.594,-0.70853,-16.246,-7.8317,-13.072,-13.201,5.6872,5.6508,7.746,0.64412,3.8647,6.2821,0.69841,9.8039,4.359
0.50314,-6.8571,-7.8049,-20.129,-16.34,-27.577,-12.238,-11.659,-9.1262,-20.129,-16.34,-17.822001,3.7915,1.2063,5.2063,0.0,1.9324,3.0769,1.3333,5.2288,1.7949
15.597,1.3968,1.9512,-20.129,-7.1895,7.5447,-5.153,-16.167,12.233,-20.129,-7.1895,-1.9802,6.3191,6.2857,10.921,3.8647,5.7971,-3.3333,4.5079,4.5752,4.359
2.3899,3.3016,-1.3008,0.58252,-2.6144,-6.7642,3.2206,-2.6409,8.9968,0.58252,-2.6144,-3.9604,5.6872,4.381,4.5714,0.64412,0.64412,4.359,1.9683,3.9216,5.641
-3.8994,2.0317,-3.9024,-0.71197,-0.65359,19.252001,4.5089,-6.5056,-2.6537,-0.71197,-0.65359,-1.3201,4.4234,6.2857,2.0317,0.0,-1.9324,-0.12821,5.7778,5.8824,5.0
-0.75472,0.7619,-3.9024,-3.301,3.268,4.2927,-1.2882,-7.7939,12.233,-3.301,3.268,3.3003,5.0553,8.1905,0.12698,2.5765,-1.2882,7.5641,8.3175,3.268,7.5641
-7.673,13.46,-1.9512,-3.9482,-6.5359,-23.024,17.391001,-9.7262,-17.540001,-3.9482,-6.5359,-5.9406,2.5276,7.5556,-2.4127,5.7971,-1.2882,-18.077,0.06349,-1.9608,6.9231
1.761,10.286,6.5041,2.5243,8.4967,7.5447,9.6618,9.5974,-2.6537,2.5243,8.4967,7.9208,8.2148,12.0,6.4762,9.0177,4.5089,-9.1026,5.7778,3.268,13.333
-7.673,-2.4127,1.3008,10.939,1.3072,4.9431,-6.4412,11.53,10.939,10.939,1.3072,0.0,1.8957,7.5556,-4.3175,2.5765,-2.5765,8.8462,8.3175,0.65359,4.359
-7.673,-4.9524,0.0,13.528,2.6144,-26.275999,-1.2882,3.1562,-6.5372,13.528,2.6144,-4.6205,0.63191,9.4603,-4.3175,3.8647,-0.64412,-2.6923,7.6825,2.6144,8.2051
-2.0126,8.381,3.252,-0.71197,1.9608,9.4959,4.5089,-3.9291,5.1133,-0.71197,1.9608,1.3201,3.7915,10.095,1.3968,9.6618,3.8647,-2.6923,3.873,-1.9608,11.41
6.1635,7.1111,8.4553,12.233,5.2288,-0.26016,-1.9324,8.9533,12.88,12.233,5.2288,2.6403,8.2148,13.905,7.746,11.594,10.306,-11.667,12.762,5.2288,13.974
21.257999,22.349001,22.114,8.3495,18.301001,36.813,20.612,5.7327,45.243,8.3495,18.301001,25.083,14.534,19.618999,21.079,21.256001,20.612,8.2051,24.825001,10.458,22.948999
18.742001,14.095,18.862,7.055,18.301001,10.797,22.544001,-22.608999,7.055,7.055,18.301001,22.441999,6.3191,11.365,13.46,10.95,12.238,3.7179,10.857,2.6144,11.41
11.824,11.556,13.008,10.291,15.686,12.098,9.0177,8.3092,7.7023,10.291,15.686,13.201,3.1596,5.6508,11.556,7.0853,10.306,3.0769,3.873,4.5752,5.641
24.403,15.365,21.462999,-0.71197,5.8824,-15.22,14.171,4.4444,-4.5955,-0.71197,5.8824,17.162001,8.8468,12.0,22.349001,12.882,18.68,12.692,7.6825,9.8039,12.051
14.34,1.3968,11.057,11.586,0.65359,7.5447,1.2882,3.8003,-12.362,11.586,0.65359,10.561,-1.2638,-3.873,9.6508,-2.5765,3.8647,15.897,-7.5556,2.6144,-4.6154
0.50314,-6.8571,0.65041,-1.3592,-6.5359,11.447,-9.6618,6.3768,-13.01,-1.3592,-6.5359,2.6403,-7.5829,-9.5873,-1.7778,-10.306,-5.153,5.0,-21.524,-3.268,-12.949
5.5346,-1.7778,3.252,10.939,-3.9216,-0.91057,-5.7971,8.9533,-18.188,10.939,-3.9216,5.9406,-4.4234,-10.857,0.7619,-3.2206,-1.2882,6.2821,-16.444,-3.9216,-7.8205
4.9057,6.4762,3.9024,-3.9482,1.9608,18.601999,-0.64412,20.548,-14.951,-3.9482,1.9608,8.5809,-3.7915,-8.3175,1.3968,0.64412,1.2882,5.0,-14.54,1.9608,-12.308
1.761,-4.3175,0.65041,-0.71197,-3.9216,2.9919,-5.153,5.7327,-5.89,-0.71197,-3.9216,5.2805,-4.4234,-8.3175,-1.1429,-1.9324,-1.2882,17.179001,-19.618999,1.3072,-10.385
1.761,-14.476,-7.1545,2.5243,-11.111,-25.625999,-13.527,7.6651,-25.306999,2.5243,-11.111,-6.6007,-10.111,-15.302,-3.6825,-7.7295,-7.0853,5.0,-17.714001,-1.9608,-14.231
-13.333,-8.7619,-16.26,7.7023,-7.8431,-1.561,-15.459,12.174,-24.66,7.7023,-7.8431,-13.861,-10.111,-15.302,-7.4921,-7.7295,-9.0177,1.1538,-18.349001,-3.9216,-15.513
-13.333,-17.650999,-22.114,-2.6537,-21.569,-10.016,-25.764999,-2.6409,-11.068,-2.6537,-21.569,-28.382999,-8.8468,-14.667,-7.4921,-7.7295,-9.6618,-10.385,-15.175,-1.9608,-14.872
3.0189,-6.8571,-9.1057,-4.5955,-7.1895,-3.5122,-11.594,6.3768,-18.188,-4.5955,-7.1895,-13.201,-1.2638,-3.2381,2.0317,2.5765,1.2882,16.538,-1.8413,2.6144,-0.12821
-0.75472,-2.4127,-8.4553,-9.7735,-9.8039,1.6911,-13.527,8.3092,-0.71197,-9.7735,-9.8039,-11.221,-0.63191,-0.06349,2.0317,2.5765,0.0,8.8462,0.69841,2.6144,1.1538
-12.075,-13.206,-16.26,-5.89,-11.111,6.8943,-18.68,-8.438,-6.5372,-5.89,-11.111,-15.182,-5.0553,-1.3333,-7.4921,-5.153,-6.4412,6.9231,-5.6508,-7.1895,-0.12821
3.0189,-6.2222,-2.6016,-3.301,-5.2288,-23.674999,-11.594,8.3092,-11.068,-3.301,-5.2288,-5.9406,3.7915,4.381,7.1111,1.9324,5.153,-3.9744,-4.381,0.65359,0.51282
11.195,4.5714,7.8049,6.4078,-0.65359,8.1951,1.9324,14.106,-15.599,6.4078,-0.65359,3.3003,8.8468,4.381,12.19,8.3736,12.238,10.128,1.3333,10.458,4.359
-1.3836,-1.1429,5.2033,1.2298,-1.9608,-0.26016,-3.2206,16.039,-2.6537,1.2298,-1.9608,6.6007,6.951,8.8254,3.9365,5.153,8.3736,3.7179,3.2381,-0.65359,5.641
-2.6415,1.3968,5.8537,6.4078,6.5359,-2.2114,3.2206,1.868,8.9968,6.4078,6.5359,8.5809,10.111,12.635,5.8413,7.7295,9.6618,-5.8974,3.873,0.0,10.128
2.3899,-2.4127,2.6016,6.4078,6.5359,14.049,1.2882,2.5121,1.2298,6.4078,6.5359,3.9604,10.742,9.4603,2.6667,0.0,5.153,-0.76923,-5.0159,0.65359,-1.4103
0.50314,-4.9524,3.9024,19.353001,7.8431,0.39024,3.2206,24.412001,8.9968,19.353001,7.8431,1.9802,7.5829,10.73,0.12698,-3.2206,3.2206,-17.436001,-1.8413,-2.6144,-0.12821
6.1635,3.3016,10.407,16.117001,13.072,13.398,12.238,14.75,-5.89,16.117001,13.072,13.861,7.5829,8.1905,4.5714,1.2882,5.153,0.51282,0.69841,0.65359,3.7179
15.597,10.921,16.26,-5.89,11.765,43.966999,14.171,3.8003,12.88,-5.89,11.765,27.063,12.006,12.635,10.286,6.4412,9.0177,8.2051,7.6825,2.6144,3.0769
13.082,9.6508,16.910999,20.0,9.8039,-6.1138,14.171,-2.6409,8.9968,20.0,9.8039,23.761999,8.2148,6.9206,5.8413,3.8647,7.0853,-9.7436,0.69841,2.6144,1.7949
11.824,10.286,16.910999,19.353001,18.301001,16.0,20.612,17.971001,13.528,19.353001,18.301001,21.782,7.5829,5.0159,9.0159,3.8647,8.3736,2.4359,-6.9206,11.765,-3.9744
15.597,10.921,16.26,9.644,14.379,16.65,13.527,7.0209,3.8188,9.644,14.379,21.122,10.111,5.0159,10.921,7.7295,10.306,11.41,-5.6508,12.418,-1.4103
4.2767,6.4762,8.4553,23.236,3.268,1.6911,5.7971,28.277,-6.5372,23.236,3.268,11.221,6.3191,3.746,8.381,6.4412,7.7295,5.641,-8.1905,7.1895,-2.6923
5.5346,2.0317,7.8049,0.58252,1.9608,19.902,1.9324,-4.5733,-6.5372,0.58252,1.9608,9.901,1.2638,-3.2381,7.1111,1.2882,5.153,2.4359,-14.54,6.5359,-13.59
5.5346,3.9365,4.5528,-9.7735,-6.5359,-9.3659,-5.7971,-3.9291,0.58252,-9.7735,-6.5359,-0.66007,3.7915,-1.3333,9.0159,6.4412,7.0853,-8.4615,-13.27,4.5752,-8.4615
-2.0126,-1.7778,-3.252,-9.1262,-7.1895,-11.317,-8.3736,-3.285,-12.362,-9.1262,-7.1895,-9.901,0.0,-0.69841,1.3968,2.5765,2.5765,6.9231,-4.381,3.9216,-2.0513
-6.4151,-4.3175,-11.057,-7.8317,-10.458,-15.87,-16.747,-11.014,-9.1262,-7.8317,-10.458,-16.502001,-1.8957,-3.2381,0.7619,0.0,-2.5765,1.7949,-6.2857,3.9216,-4.6154
-5.7862,-7.4921,-13.659,-19.482,-5.2288,3.6423,-7.7295,-24.541,1.2298,-19.482,-5.2288,-13.861,-3.7915,-1.9683,-4.3175,-1.9324,-4.5089,4.359,5.7778,-0.65359,-0.12821
-8.3019,-3.0476,-11.707,-11.715,-1.3072,-11.967,-4.5089,-3.285,9.644,-11.715,-1.3072,-10.561,-4.4234,-2.6032,-4.9524,-0.64412,-4.5089,-5.2564,11.492,-1.9608,3.7179
-3.8994,-1.1429,-11.707,-6.5372,0.65359,-18.472,1.9324,-3.285,17.410999,-6.5372,0.65359,-13.861,-3.1596,-0.69841,-3.6825,-1.2882,-3.8647,-14.231,13.397,-3.9216,4.359
-10.189,9.0159,-5.8537,-1.3592,0.65359,-8.7154,3.8647,-9.7262,11.586,-1.3592,0.65359,-12.541,-1.2638,3.746,-5.5873,4.5089,-1.2882,-11.667,17.841,-7.1895,13.974
-7.044,7.746,-5.2033,-3.9482,7.8431,-9.3659,21.9,-23.253,21.294001,-3.9482,7.8431,-4.6205,-5.0553,-1.3333,-9.3968,4.5089,-3.2206,1.7949,21.016001,-10.458,10.769
-9.5597,-6.2222,-11.707,-20.777,3.268,-17.820999,-3.8647,-8.438,19.353001,-20.777,3.268,-10.561,-0.63191,3.1111,-6.8571,1.9324,-3.2206,-11.026,20.381001,0.0,6.9231
-19.622999,-3.6825,-14.959,17.410999,-2.6144,-10.016,-11.594,6.3768,8.9968,17.410999,-2.6144,-19.142,-0.63191,8.1905,-10.032,3.8647,-2.5765,-24.487,14.032,-13.072,13.974
-10.189,3.9365,-5.8537,25.177999,5.2288,-4.813,5.7971,5.0886,14.822,25.177999,5.2288,-7.2607,2.5276,10.095,-8.127,9.6618,2.5765,-5.2564,23.556,-6.5359,22.308001
-8.9308,2.0317,-2.6016,-14.304,0.65359,-8.7154,-0.64412,-11.659,16.764,-14.304,0.65359,-5.9406,3.1596,7.5556,-2.4127,5.7971,3.2206,-12.308,14.667,-0.65359,11.41
3.0189,7.746,5.2033,1.2298,5.2288,4.9431,9.6618,-13.591,18.705999,1.2298,5.2288,0.66007,10.111,11.365,6.4762,9.0177,9.0177,-6.5385,17.841,1.9608,15.256
7.4214,13.46,13.659,-16.893,5.8824,-10.667,11.594,-13.591,13.528,-16.893,5.8824,7.9208,15.166,13.905,13.46,13.527,15.459,4.359,18.476,9.8039,17.820999
13.711,16.635,16.910999,3.1715,15.033,16.65,19.323999,1.868,20.646999,3.1715,15.033,17.162001,17.694,17.079,17.27,13.527,15.459,-3.3333,21.650999,11.111,18.462
6.7925,19.174999,13.008,-2.0065,6.5359,16.65,10.306,-3.9291,8.3495,-2.0065,6.5359,12.541,9.4787,6.2857,10.286,7.7295,7.7295,12.051,9.5873,7.1895,3.0769
18.742001,16.635,24.065001,25.177999,20.915001,26.407,39.291,8.9533,4.466,25.177999,20.915001,24.422001,10.742,7.5556,21.714001,9.6618,14.171,-0.76923,9.5873,13.725,5.0
16.855,9.6508,20.163,5.1133,4.5752,6.2439,7.7295,-3.285,10.291,5.1133,4.5752,16.502001,3.7915,-5.1429,10.286,3.8647,7.0853,1.7949,-1.2063,2.6144,-7.1795
14.34,4.5714,14.309,9.644,11.111,21.202999,5.7971,21.191999,11.586,9.644,11.111,19.142,5.0553,-1.3333,10.286,-0.64412,5.153,22.948999,1.3333,7.1895,-6.5385
14.34,2.6667,7.1545,15.469,7.8431,22.504,12.238,30.853001,8.9968,15.469,7.8431,14.521,-0.63191,-4.5079,7.746,-5.153,-1.2882,13.974,-1.8413,5.2288,-8.4615
4.9057,-5.5873,-0.65041,7.7023,3.268,0.39024,-2.5765,16.683001,5.1133,7.7023,3.268,4.6205,-6.3191,-10.222,-3.0476,-8.3736,-7.0853,5.641,-3.746,-0.65359,-9.1026
20.0,2.6667,9.1057,10.291,9.8039,28.358,8.3736,-5.2174,4.466,10.291,9.8039,13.861,-2.5276,-7.0476,5.8413,-2.5765,0.0,15.897,1.9683,6.5359,-9.1026
8.6792,3.9365,5.2033,7.055,7.8431,16.65,4.5089,25.056,2.5243,7.055,7.8431,10.561,-6.951,-11.492,0.12698,-4.5089,-3.8647,-0.76923,-7.5556,-1.9608,-12.949
-2.0126,9.6508,0.0,17.410999,12.418,3.6423,14.171,16.683001,5.1133,17.410999,12.418,7.9208,-9.4787,-11.492,-3.0476,-4.5089,-5.7971,3.7179,-1.2063,-3.9216,-14.231
4.9057,-0.50794,1.3008,23.236,8.4967,13.398,12.238,-1.9968,-5.2427,23.236,8.4967,9.2409,-8.8468,-14.032,-1.1429,-5.7971,-5.153,-7.1795,-3.1111,-3.268,-11.667
-1.3836,-4.3175,-3.252,-9.7735,1.9608,6.8943,4.5089,7.6651,-4.5955,-9.7735,1.9608,1.9802,-12.006,-13.397,-4.3175,-10.306,-8.3736,9.4872,-14.54,-2.6144,-14.231
-0.12579,10.921,5.2033,-0.71197,5.2288,-10.667,13.527,3.1562,-4.5955,-0.71197,5.2288,7.2607,-6.951,-5.7778,0.12698,-1.2882,-0.64412,1.7949,-8.1905,-2.6144,-9.7436
7.4214,2.0317,5.8537,1.2298,3.9216,-28.228001,3.2206,0.57971,-5.2427,1.2298,3.9216,3.9604,-4.4234,-3.873,0.12698,1.9324,1.9324,-6.5385,-7.5556,-3.268,-5.2564
3.0189,12.19,7.1545,13.528,6.5359,20.552999,14.815,2.5121,3.8188,13.528,6.5359,9.2409,-3.1596,-0.69841,-3.0476,2.5765,1.9324,6.2821,0.06349,-1.9608,0.51282
-3.2704,5.2063,8.4553,18.058001,14.379,13.398,19.323999,-4.5733,13.528,18.058001,14.379,7.9208,-0.63191,-1.3333,-2.4127,-0.64412,1.2882,-3.3333,1.9683,1.3072,-2.0513
-15.849,-4.9524,-1.9512,-2.6537,0.65359,-10.016,-3.8647,10.242,-0.71197,-2.6537,0.65359,-6.6007,-2.5276,-0.06349,-8.127,-2.5765,-3.8647,-5.8974,-0.57143,-4.5752,-0.12821
-10.189,-1.1429,-2.6016,-10.421,-0.65359,-2.8618,0.64412,-3.9291,10.939,-10.421,-0.65359,-4.6205,0.0,1.8413,-6.2222,0.0,-1.2882,-0.12821,3.2381,-3.9216,1.7949
1.761,-0.50794,0.65041,-7.1845,-5.2288,2.3415,-10.95,-0.06441,-7.1845,-7.1845,-5.2288,-5.9406,5.0553,5.0159,2.6667,7.0853,3.2206,0.51282,1.3333,2.6144,8.8462
-0.75472,13.46,3.9024,-4.5955,-3.9216,-6.7642,9.0177,0.57971,-19.482,-4.5955,-3.9216,-3.9604,3.1596,7.5556,1.3968,8.3736,3.8647,-5.8974,-1.8413,-2.6144,8.2051
6.1635,-3.0476,1.9512,-3.301,-7.8431,1.0407,-14.815,3.8003,9.644,-3.301,-7.8431,-7.2607,2.5276,4.381,3.9365,4.5089,1.2882,3.0769,-2.4762,5.2288,1.1538
6.7925,-5.5873,0.0,-5.89,-2.6144,1.0407,-7.7295,9.5974,3.1715,-5.89,-2.6144,-3.3003,0.63191,4.381,-0.50794,3.2206,-0.64412,12.051,7.0476,0.65359,8.8462
6.7925,2.0317,-2.6016,8.9968,2.6144,-6.1138,5.153,8.9533,16.117001,8.9968,2.6144,-3.3003,0.0,1.2063,3.9365,1.9324,-0.64412,13.333,1.9683,1.3072,4.359
6.7925,-3.6825,-7.8049,1.877,-0.65359,13.398,-4.5089,9.5974,-0.06472,1.877,-0.65359,-6.6007,-1.8957,-3.873,4.5714,-3.8647,-3.2206,5.0,-5.6508,3.268,-3.3333
9.9371,-3.6825,-4.5528,7.055,3.268,9.4959,-4.5089,-9.0821,4.466,7.055,3.268,0.66007,-1.8957,-5.1429,5.2063,-3.8647,-1.9324,15.897,0.06349,4.5752,-2.0513
-0.75472,-6.8571,-5.8537,0.58252,-7.8431,1.0407,-12.882,12.174,-13.01,0.58252,-7.8431,-5.9406,-6.3191,-8.3175,-1.1429,-9.0177,-7.0853,1.1538,-12.635,1.3072,-9.1026
9.3082,-10.032,-0.65041,-10.421,-2.6144,10.146,-12.882,-2.6409,-14.951,-10.421,-2.6144,-1.3201,-6.951,-12.127,0.12698,-13.527,-7.0853,19.103001,-6.9206,0.0,-13.59
10.566,-1.7778,6.5041,2.5243,2.6144,-0.26016,4.5089,4.4444,0.58252,2.5243,2.6144,7.2607,-1.2638,-9.5873,5.2063,-6.4412,0.0,18.462,-5.6508,3.9216,-12.308
16.226,-5.5873,9.1057,23.236,5.8824,8.1951,-1.2882,22.48,4.466,23.236,5.8824,5.9406,0.0,-5.1429,9.0159,-6.4412,1.9324,1.1538,-10.73,3.9216,-8.4615
16.855,5.2063,12.358,17.410999,9.1503,14.699,14.171,10.886,-15.599,17.410999,9.1503,10.561,-1.2638,-3.873,7.746,-4.5089,2.5765,12.692,-5.0159,9.1503,-3.9744
4.2767,-4.3175,4.5528,10.291,4.5752,20.552999,-1.9324,23.124001,8.9968,10.291,4.5752,10.561,-1.8957,-4.5079,-4.3175,-8.3736,-4.5089,4.359,-10.73,-0.65359,-6.5385
-5.7862,-12.571,-3.9024,-0.71197,-1.3072,-15.87,-14.815,-7.1498,8.3495,-0.71197,-1.3072,0.0,-3.1596,-3.2381,-8.7619,-9.0177,-7.0853,-5.8974,-3.1111,-3.268,-2.6923
-7.673,-10.667,-3.252,-13.657,-3.268,-1.561,-8.3736,-21.965,-17.540001,-13.657,-3.268,5.2805,-3.1596,-5.7778,-9.3968,-11.594,-8.3736,1.1538,-6.9206,-4.5752,-9.1026
-13.333,-9.3968,-6.5041,8.9968,0.0,-5.4634,-7.7295,8.9533,-3.9482,8.9968,0.0,-1.9802,-5.6872,-10.222,-10.032,-12.882,-10.306,-27.691999,-10.73,-8.4967,-14.231
-3.8994,0.12698,-2.6016,18.705999,7.8431,13.398,6.4412,3.1562,0.58252,18.705999,7.8431,5.9406,-5.6872,-6.4127,-8.7619,-5.7971,-7.0853,-5.8974,-5.0159,-5.2288,-5.2564
-8.3019,0.7619,-3.9024,-3.301,-4.5752,-4.813,-2.5765,-3.9291,-3.301,-3.301,-4.5752,-1.9802,-3.1596,-4.5079,-7.4921,-2.5765,-5.7971,3.0769,2.6032,-3.9216,-5.8974
-2.0126,10.921,7.1545,7.7023,5.8824,-16.52,9.6618,-2.6409,7.055,7.7023,5.8824,5.9406,2.5276,-1.9683,2.0317,7.0853,5.7971,-7.8205,1.9683,2.6144,-2.0513
3.6478,27.429001,16.910999,2.5243,7.8431,-13.919,21.9,-1.9968,24.531,2.5243,7.8431,10.561,7.5829,8.1905,11.556,16.747,14.815,-1.4103,12.127,11.111,8.8462
-5.1572,7.746,7.8049,-5.2427,4.5752,8.1951,3.8647,-13.591,-4.5955,-5.2427,4.5752,3.9604,4.4234,3.746,3.9365,7.7295,7.0853,-14.231,8.3175,3.268,3.7179
8.0503,21.079,13.659,2.5243,12.418,18.601999,23.188,11.53,1.2298,2.5243,12.418,13.861,10.742,10.73,10.286,12.238,12.882,-0.12821,15.937,7.8431,10.769
7.4214,1.3968,7.8049,4.466,8.4967,-0.91057,1.9324,-12.303,16.764,4.466,8.4967,7.9208,6.951,7.5556,8.381,3.2206,8.3736,6.9231,8.9524,7.1895,5.641
6.1635,-6.8571,3.9024,-4.5955,2.6144,-11.317,-2.5765,-11.014,17.410999,-4.5955,2.6144,0.66007,1.2638,0.57143,3.9365,-0.64412,4.5089,-2.6923,7.0476,0.0,1.1538
6.1635,0.12698,2.6016,-4.5955,-3.268,5.5935,0.0,-3.9291,-9.7735,-4.5955,-3.268,1.3201,3.1596,2.4762,7.746,2.5765,7.0853,1.7949,-1.2063,5.2288,3.0769
0.50314,-3.0476,1.3008,-0.71197,3.9216,-6.1138,-3.8647,-3.285,10.939,-0.71197,3.9216,0.66007,5.0553,3.1111,8.381,2.5765,5.7971,1.7949,7.0476,4.5752,5.641
1.761,-0.50794,-3.9024,-7.8317,0.65359,11.447,4.5089,-3.9291,-3.301,-7.8317,0.65359,1.3201,-3.1596,-5.1429,0.12698,-5.153,-3.8647,1.7949,3.873,0.0,0.51282
-17.107,-19.556,-18.862,-2.6537,-7.1895,-13.919,-16.103001,9.5974,-0.06472,-2.6537,-7.1895,-15.182,-13.27,-13.397,-14.476,-18.035,-18.68,1.1538,-1.8413,-6.5359,-7.8205
-17.107,-12.571,-18.211,-4.5955,-6.5359,-13.919,-12.238,10.886,-4.5955,-4.5955,-6.5359,-15.842,-11.374,-14.032,-13.841,-13.527,-16.747,-2.6923,-3.746,-9.8039,-6.5385
-10.189,-4.9524,-15.61,0.58252,-7.1895,-10.667,-5.7971,-3.9291,-2.0065,0.58252,-7.1895,-11.881,-6.951,-7.0476,-11.302,-10.95,-13.527,-3.9744,-1.8413,-6.5359,-3.9744
-10.189,-3.0476,-16.26,-2.6537,-10.458,-25.625999,-16.103001,1.868,-17.540001,-2.6537,-10.458,-17.822001,-5.0553,-3.873,-10.667,-7.0853,-12.882,-3.3333,-8.1905,-2.6144,-1.4103
-18.993999,-14.476,-20.813,-12.362,-14.379,-18.472,-18.68,-0.70853,-20.129,-12.362,-14.379,-21.122,-6.951,-6.4127,-15.111,-10.306,-14.815,-6.5385,-1.8413,-7.1895,-4.6154
-25.912001,-27.174999,-30.569,-21.424,-21.569,-9.3659,-28.341,-9.7262,-14.304,-21.424,-21.569,-27.723,-10.742,-8.9524,-23.365,-18.68,-21.9,-16.795,-9.4603,-16.34,-9.7436
-15.22,-7.4921,-14.309,-6.5372,-2.6144,-10.667,-7.7295,3.8003,-11.715,-6.5372,-2.6144,-5.9406,-1.8957,1.8413,-11.937,-3.8647,-7.0853,-5.8974,-1.8413,-5.2288,4.359
-10.818,-10.667,-13.008,10.291,-6.5359,6.2439,-16.747,-0.06441,-4.5955,10.291,-6.5359,-10.561,-8.2148,-3.2381,-13.841,-6.4412,-10.306,-8.4615,-5.0159,-11.765,-3.9744
-4.5283,-6.2222,-5.2033,-7.1845,-2.6144,-7.4146,-9.6618,-9.0821,-0.06472,-7.1845,-2.6144,-4.6205,-3.7915,3.1111,-10.667,-0.64412,-4.5089,7.5641,-6.9206,-7.8431,1.1538
-15.22,-5.5873,-5.8537,4.466,-4.5752,-0.26016,-8.3736,-0.06441,-2.6537,4.466,-4.5752,-4.6205,-6.3191,3.1111,-12.571,-0.64412,-5.153,-3.3333,-3.1111,-9.8039,2.4359
-12.704,-2.4127,-5.2033,10.291,-3.9216,-9.3659,-5.153,21.836,-14.951,10.291,-3.9216,-5.2805,-8.2148,3.746,-12.571,0.0,-5.153,-17.436001,-5.0159,-13.072,3.7179
-7.044,-2.4127,-1.3008,-8.479,-1.9608,-10.016,-9.0177,5.7327,-5.2427,-8.479,-1.9608,0.0,-8.2148,1.8413,-12.571,-1.2882,-4.5089,4.359,-5.6508,-11.111,1.1538
-2.6415,-6.2222,0.65041,1.2298,0.0,17.301001,0.0,1.2238,-2.0065,1.2298,0.0,3.3003,-6.3191,-0.69841,-3.0476,-5.7971,-2.5765,-17.436001,-14.54,-6.5359,-5.8974
18.113001,3.9365,11.707,5.7605,5.8824,14.049,15.459,7.0209,0.58252,5.7605,5.8824,10.561,12.638,12.0,17.27,5.153,11.594,12.051,0.69841,11.111,7.5641
21.886999,3.3016,11.057,8.3495,2.6144,7.5447,7.0853,-5.2174,-7.8317,8.3495,2.6144,7.9208,17.062,11.365,22.349001,3.2206,12.238,5.641,-0.57143,15.033,0.51282
21.257999,-8.127,7.8049,4.466,5.8824,12.748,4.5089,1.2238,10.291,4.466,5.8824,9.2409,18.325001,8.8254,24.889,-2.5765,9.6618,-0.12821,-2.4762,15.033,-0.76923
8.6792,-10.667,3.252,1.2298,7.8431,11.447,3.8647,-0.70853,3.1715,1.2298,7.8431,7.2607,13.902,5.6508,14.73,-7.0853,2.5765,-2.0513,-3.1111,10.458,-0.76923
9.3082,2.0317,5.2033,12.233,14.379,-15.22,16.747,5.0886,-7.8317,12.233,14.379,9.901,14.534,5.6508,16.635,-3.8647,2.5765,-0.76923,-0.57143,10.458,1.1538
14.34,3.3016,3.252,5.7605,9.8039,21.202999,7.0853,0.57971,23.236,5.7605,9.8039,9.901,9.4787,0.57143,14.095,-4.5089,-0.64412,-0.12821,3.2381,7.8431,-5.2564
-2.0126,5.8413,-1.3008,-7.8317,1.9608,-3.5122,3.2206,-2.6409,-5.89,-7.8317,1.9608,3.9604,3.7915,-5.7778,3.9365,-9.0177,-7.0853,-4.6154,-5.0159,3.268,-9.1026
-5.7862,-4.3175,-4.5528,-0.06472,0.0,-6.7642,-1.2882,-9.0821,-0.71197,-0.06472,0.0,-1.9802,-4.4234,-11.492,-4.3175,-12.238,-12.238,5.0,-0.57143,-1.3072,-14.872
-7.673,-2.4127,-3.9024,-5.89,4.5752,-7.4146,5.153,-7.7939,2.5243,-5.89,4.5752,-1.3201,-14.534,-19.746,-13.841,-16.747,-16.103001,2.4359,0.69841,-6.5359,-14.231
-17.107,-10.032,-10.407,-7.8317,-11.111,-9.3659,-12.238,-11.014,-9.1262,-7.8317,-11.111,-11.221,-25.275999,-31.809999,-25.27,-23.188,-25.764999,-17.436001,-7.5556,-17.646999,-21.282
-11.447,-1.1429,-7.1545,10.939,3.9216,16.65,3.2206,7.6651,19.353001,10.939,3.9216,2.6403,-27.172001,-31.174999,-25.27,-16.103001,-21.9,-2.6923,1.9683,-20.915001,-18.718
-22.767,8.381,-11.057,-3.9482,-4.5752,2.3415,1.9324,5.7327,-2.6537,-3.9482,-4.5752,-1.3201,-29.700001,-27.365,-30.983999,-12.882,-22.544001,-1.4103,-3.746,-21.569,-16.153999
-18.365,-10.667,-11.057,-3.301,-2.6144,-10.667,-11.594,-3.9291,-5.2427,-3.301,-2.6144,-5.9406,-25.908001,-21.650999,-27.809999,-11.594,-18.68,-11.667,-1.2063,-23.528999,-9.1026
-3.8994,0.12698,0.0,-6.5372,3.9216,-0.91057,-9.0177,-0.70853,18.705999,-6.5372,3.9216,-2.6403,-18.325001,-10.857,-15.746,1.2882,-5.7971,-0.12821,13.397,-15.033,3.7179
-12.075,12.19,1.3008,3.1715,0.0,-13.268,0.0,2.5121,0.58252,3.1715,0.0,-5.9406,-12.638,-4.5079,-10.667,10.306,1.2882,2.4359,9.5873,-10.458,12.051
-10.189,3.9365,-3.252,-0.71197,-7.1895,-24.325001,-8.3736,-4.5733,-5.89,-0.71197,-7.1895,-11.881,-6.3191,-0.69841,-7.4921,10.95,3.8647,-18.077,8.3175,-11.111,6.2821
9.3082,18.540001,11.057,-2.6537,3.9216,-20.423,16.747,-11.659,7.7023,-2.6537,3.9216,4.6205,5.6872,11.365,10.286,23.833,18.68,6.2821,12.762,3.9216,15.897
7.4214,4.5714,6.5041,-12.362,-3.268,15.35,-5.153,-11.659,-2.0065,-12.362,-3.268,-1.9802,4.4234,7.5556,8.381,14.815,14.815,-0.12821,6.4127,-0.65359,13.333
4.2767,-2.4127,3.252,-15.599,-8.4967,0.39024,-11.594,-1.3527,-12.362,-15.599,-8.4967,-1.3201,7.5829,7.5556,8.381,10.306,12.238,-19.358999,1.9683,3.268,8.8462
2.3899,-6.8571,-0.65041,-18.834999,-11.111,6.2439,-12.882,1.2238,-12.362,-18.834999,-11.111,1.3201,9.4787,8.1905,8.381,4.5089,8.3736,13.974,-7.5556,8.4967,3.7179
4.2767,2.0317,3.252,8.9968,-0.65359,13.398,1.9324,3.1562,5.7605,8.9968,-0.65359,3.3003,12.638,13.27,10.921,5.7971,10.306,8.8462,-1.8413,11.111,9.4872
17.483999,-4.9524,11.707,29.061001,11.111,22.504,8.3736,3.8003,5.1133,29.061001,11.111,15.842,18.325001,13.905,17.905001,3.8647,12.882,2.4359,1.3333,17.646999,6.2821
9.3082,-7.4921,5.2033,-5.89,-5.2288,1.6911,-0.64412,6.3768,-0.06472,-5.89,-5.2288,6.6007,8.8468,5.0159,9.0159,-5.153,3.2206,0.51282,-5.6508,7.1895,-4.6154
3.0189,-3.6825,7.1545,-6.5372,1.3072,-19.122,10.306,-5.8615,-3.9482,-6.5372,1.3072,9.901,13.27,12.635,8.381,1.2882,5.7971,-9.7436,0.69841,11.111,3.0769
12.453,7.746,13.008,8.3495,5.2288,8.1951,15.459,0.57971,3.1715,8.3495,5.2288,15.182,20.221001,18.349001,21.079,12.882,15.459,21.025999,0.69841,21.569,8.2051
20.0,26.159,22.764,10.291,14.379,27.707001,36.070999,4.4444,7.7023,10.291,14.379,21.782,25.908001,24.063,27.429001,23.833,24.476999,14.615,8.3175,20.915001,17.820999
15.597,16.635,17.561001,-2.6537,0.65359,-4.813,11.594,-9.0821,5.1133,-2.6537,0.65359,11.881,17.062,17.714001,21.714001,21.256001,19.968,12.692,8.9524,15.686,12.051
31.950001,32.507999,31.870001,-13.01,13.725,55.023998,32.206001,-3.285,8.3495,-13.01,13.725,29.042999,22.117001,20.889,33.143002,32.849998,31.562,13.333,19.111,20.915001,19.743999
27.547001,42.032001,31.870001,24.531,20.261,14.049,36.070999,12.818,41.359001,24.531,20.261,24.422001,22.749001,26.603001,31.872999,34.783001,31.562,4.359,27.365,20.261,27.436001
4.2767,14.095,8.4553,8.3495,8.4967,-9.3659,10.306,-3.9291,20.646999,8.3495,8.4967,-1.3201,8.2148,14.54,13.46,19.968,15.459,2.4359,17.841,8.4967,11.41
-2.6415,6.4762,-0.65041,-17.540001,-6.5359,-17.820999,0.64412,-14.235,0.58252,-17.540001,-6.5359,-8.5809,3.7915,10.095,3.9365,16.103001,9.0177,-6.5385,17.841,-1.9608,15.256
-6.4151,12.825,-1.9512,-3.301,-5.8824,4.9431,2.5765,-1.9968,6.4078,-3.301,-5.8824,-10.561,3.1596,10.73,-2.4127,14.815,5.7971,0.51282,18.476,0.0,15.897
-12.704,7.746,-1.3008,-5.2427,-4.5752,-2.2114,1.2882,-10.37,6.4078,-5.2427,-4.5752,-11.221,2.5276,9.4603,-6.2222,14.815,4.5089,-14.231,14.667,-4.5752,15.897
-12.075,4.5714,-5.2033,-5.2427,-1.9608,-15.87,3.8647,-0.06441,18.058001,-5.2427,-1.9608,-9.2409,1.2638,7.5556,-9.3968,8.3736,0.64412,-6.5385,11.492,-7.8431,11.41
-11.447,2.0317,-8.4553,7.055,-3.268,4.9431,1.9324,7.6651,-7.1845,7.055,-3.268,-7.9208,0.0,6.9206,-6.2222,6.4412,-1.2882,-4.6154,9.5873,-1.9608,10.769
-23.396,0.7619,-10.407,-5.89,1.9608,-23.674999,3.2206,2.5121,-1.3592,-5.89,1.9608,-8.5809,-1.2638,3.1111,-17.016001,2.5765,-7.0853,-5.2564,3.2381,-11.111,7.5641
-16.478001,-1.7778,-11.057,-9.1262,-0.65359,-25.625999,-7.0853,0.57971,12.233,-9.1262,-0.65359,-9.901,-5.6872,0.57143,-18.285999,-1.2882,-10.95,3.7179,1.9683,-9.1503,3.7179
-10.818,-6.8571,-10.407,-14.304,-9.1503,-14.569,-10.306,6.3768,-3.9482,-14.304,-9.1503,-13.201,-3.7915,1.8413,-12.571,-1.9324,-9.6618,-2.6923,-3.1111,-5.2288,1.1538
-7.673,-6.8571,-12.358,1.877,-8.4967,0.39024,-0.64412,-5.8615,-9.1262,1.877,-8.4967,-14.521,-5.0553,-1.9683,-11.937,-5.7971,-11.594,2.4359,-5.6508,-5.8824,-0.76923
3.6478,-9.3968,-13.659,-10.421,-12.418,7.5447,-14.171,8.9533,5.1133,-10.421,-12.418,-13.861,-3.1596,-1.3333,-0.50794,-3.8647,-7.0853,3.7179,-3.1111,0.65359,-3.3333
1.761,-16.381001,-13.008,-2.6537,-8.4967,-19.771999,-14.815,3.1562,-20.129,-2.6537,-8.4967,-11.881,-6.3191,-3.2381,-3.0476,-6.4412,-7.0853,10.769,-10.73,-2.6144,-4.6154
17.483999,-16.381001,-7.1545,1.2298,-9.8039,1.6911,-18.68,2.5121,-14.304,1.2298,-9.8039,-6.6007,-7.5829,-8.3175,2.0317,-8.3736,-5.7971,-1.4103,-14.54,-3.268,-10.385
10.566,-8.127,-1.9512,4.466,-3.9216,37.463001,-5.7971,15.395,-0.06472,4.466,-3.9216,5.9406,-6.3191,-7.6825,2.6667,-5.153,-2.5765,3.0769,-12.0,-1.3072,-11.026
-5.1572,-8.7619,-7.8049,-2.6537,-7.8431,-8.7154,-16.103001,5.7327,-13.657,-2.6537,-7.8431,-9.901,-8.2148,-9.5873,0.7619,-4.5089,-3.2206,5.0,-12.635,1.3072,-13.59
6.1635,-5.5873,-2.6016,-5.2427,-3.268,-6.1138,0.0,2.5121,-14.951,-5.2427,-3.268,-1.9802,-5.0553,-6.4127,1.3968,-1.2882,0.64412,5.0,-10.095,-1.9608,-7.8205
6.7925,7.1111,3.252,14.175,5.8824,16.0,5.153,13.462,12.88,14.175,5.8824,6.6007,-5.0553,-7.6825,2.0317,1.9324,2.5765,1.1538,-3.1111,-7.1895,-7.1795
3.6478,0.12698,7.8049,4.466,6.5359,16.65,7.7295,7.0209,-11.715,4.466,6.5359,10.561,-6.3191,-5.1429,-4.9524,-1.2882,-0.64412,-2.0513,-3.1111,-5.2288,-5.8974
-2.6415,2.6667,11.057,12.88,8.4967,24.455,6.4412,8.9533,0.58252,12.88,8.4967,17.162001,-6.951,-7.0476,-11.302,-3.8647,-3.2206,2.4359,-7.5556,-5.2288,-9.1026
0.50314,5.2063,15.61,21.294001,18.301001,4.9431,10.306,2.5121,8.3495,21.294001,18.301001,27.723,-5.6872,-4.5079,-10.032,-2.5765,-1.2882,-3.3333,-3.1111,-5.2288,-5.8974
-3.2704,-3.0476,7.8049,-3.301,6.5359,4.2927,11.594,3.1562,-0.71197,-3.301,6.5359,17.162001,-8.8468,-8.3175,-14.476,-8.3736,-6.4412,-9.7436,-6.2857,-12.418,-9.7436
-7.673,-1.1429,3.9024,19.353001,18.301001,6.2439,10.306,6.3768,16.117001,19.353001,18.301001,12.541,-3.7915,-3.873,-11.937,-9.0177,-7.0853,-10.385,0.06349,-5.2288,-6.5385
0.50314,6.4762,6.5041,14.822,20.261,-11.967,16.747,-1.9968,21.294001,14.822,20.261,15.182,0.63191,-1.9683,-3.6825,-7.7295,-3.8647,-3.9744,3.2381,3.9216,-2.6923
1.761,-6.8571,-0.65041,6.4078,8.4967,27.056999,3.8647,-27.761999,23.882999,6.4078,8.4967,5.9406,-0.63191,-3.873,-2.4127,-10.95,-5.7971,3.0769,0.69841,-3.9216,-7.1795
-0.75472,-11.302,-6.5041,-7.1845,-0.65359,-4.813,-3.8647,3.1562,-18.834999,-7.1845,-0.65359,-7.2607,-1.8957,-5.7778,-1.7778,-12.882,-7.0853,6.9231,-8.8254,1.3072,-9.7436
1.761,-6.2222,-3.9024,-11.715,-8.4967,-7.4146,-5.153,1.868,0.58252,-11.715,-8.4967,-10.561,-2.5276,-5.1429,3.3016,-7.7295,-2.5765,1.7949,-3.746,1.3072,-6.5385
3.6478,7.746,0.0,-8.479,-5.2288,7.5447,-3.8647,-9.0821,-13.01,-8.479,-5.2288,-8.5809,0.0,-1.3333,6.4762,1.2882,3.2206,-1.4103,3.2381,1.3072,0.51282
4.9057,-8.7619,-5.2033,-2.6537,-12.418,-30.179001,-22.544001,10.242,0.58252,-2.6537,-12.418,-15.842,-3.1596,-7.0476,4.5714,-5.153,0.0,6.9231,-7.5556,-0.65359,-8.4615
20.0,9.0159,11.057,-0.71197,7.1895,-9.3659,7.7295,8.3092,9.644,-0.71197,7.1895,7.9208,1.8957,1.8413,13.46,4.5089,10.306,11.41,11.492,3.268,1.1538
2.3899,2.6667,0.65041,-9.7735,-4.5752,-2.2114,-7.0853,-6.5056,5.7605,-9.7735,-4.5752,-5.2805,1.2638,0.57143,6.4762,1.2882,3.2206,-6.5385,7.6825,1.9608,1.7949
3.0189,-1.1429,-5.8537,3.8188,-3.9216,3.6423,-5.153,1.2238,8.9968,3.8188,-3.9216,-10.561,3.7915,0.57143,6.4762,-0.64412,3.2206,10.769,3.873,5.8824,5.0
-5.1572,-8.7619,-12.358,-7.8317,-9.8039,-12.618,-12.238,-7.7939,-15.599,-7.8317,-9.8039,-18.482,0.0,-3.873,2.0317,-6.4412,-2.5765,-0.76923,-4.381,2.6144,-6.5385
2.3899,4.5714,-3.252,-19.482,-5.8824,8.1951,8.3736,-8.438,-2.6537,-19.482,-5.8824,-5.9406,1.8957,-1.3333,6.4762,-2.5765,1.2882,10.769,-5.0159,9.1503,-2.6923
-2.6415,-5.5873,-4.5528,-4.5955,-5.8824,-10.667,-6.4412,-16.167,10.291,-4.5955,-5.8824,-7.2607,3.1596,1.2063,-3.6825,-5.7971,-3.2206,0.51282,-0.57143,1.3072,-0.12821
-17.107,-18.285999,-17.561001,-3.301,-7.8431,-6.7642,-21.9,4.4444,-13.657,-3.301,-7.8431,-16.502001,-3.1596,-7.0476,-8.7619,-16.747,-12.238,-7.8205,-16.444,-3.268,-11.667
-8.9308,-20.190001,-16.26,-0.71197,-7.8431,-17.171,-12.882,10.242,-5.89,-0.71197,-7.8431,-14.521,-3.7915,-8.9524,-3.6825,-19.323999,-12.238,0.51282,-17.079,0.65359,-12.308
-7.044,-18.921,-14.309,-11.068,-11.111,-32.779999,-17.391001,-5.8615,-12.362,-11.068,-11.111,-14.521,0.0,-4.5079,-1.1429,-17.391001,-9.0177,-18.718,-19.618999,-1.3072,-12.308
-5.1572,-19.556,-14.309,-12.362,-11.111,-8.7154,-16.103001,-14.879,-9.1262,-12.362,-11.111,-6.6007,-1.2638,-5.7778,-5.5873,-18.035,-11.594,1.1538,-17.714001,-0.65359,-12.308
-11.447,-9.3968,-6.5041,-5.89,-1.9608,-6.7642,-5.153,-11.014,-3.9482,-5.89,-1.9608,1.3201,1.2638,0.57143,-4.9524,-6.4412,-5.153,3.0769,-4.381,-5.2288,-3.3333
-2.0126,10.921,8.4553,15.469,13.072,16.0,20.612,-7.1498,15.469,15.469,13.072,13.201,6.951,5.0159,5.8413,6.4412,6.4412,-2.6923,3.2381,-0.65359,3.7179
4.2767,13.46,11.707,6.4078,10.458,12.098,9.0177,-4.5733,29.709,6.4078,10.458,13.861,11.374,11.365,10.286,10.306,10.95,-7.8205,12.127,5.8824,6.2821
-2.6415,18.540001,14.959,8.9968,13.072,13.398,14.815,-1.9968,19.353001,8.9968,13.072,17.162001,14.534,17.079,9.6508,18.035,16.103001,-2.6923,21.016001,7.8431,17.179001
1.761,17.27,14.309,-1.3592,8.4967,5.5935,9.0177,-9.0821,12.88,-1.3592,8.4967,13.861,9.4787,13.905,6.4762,18.035,14.171,-4.6154,17.841,1.3072,15.256
9.9371,30.603001,19.511999,5.7605,21.569,1.0407,30.274,3.8003,26.472,5.7605,21.569,24.422001,9.4787,15.175,9.6508,24.476999,18.035,-6.5385,29.905001,5.8824,20.385
-1.3836,9.0159,5.2033,9.644,7.1895,6.8943,3.2206,16.039,14.175,9.644,7.1895,7.2607,-1.8957,4.381,-4.3175,11.594,3.8647,3.0769,15.302,-1.9608,8.8462
-4.5283,-0.50794,-1.9512,7.055,2.6144,-8.065,-2.5765,8.3092,2.5243,7.055,2.6144,-1.3201,-8.2148,-0.69841,-8.7619,5.153,-1.2882,-11.667,6.4127,-8.4967,6.2821
-7.044,-3.6825,-8.4553,-2.0065,-3.9216,3.6423,-12.238,-0.06441,-0.06472,-2.0065,-3.9216,-9.2409,-9.4787,-2.6032,-10.032,2.5765,-3.8647,-1.4103,7.0476,-10.458,2.4359
-3.2704,1.3968,-6.5041,-25.306999,-7.1895,-3.5122,-2.5765,-7.1498,-9.7735,-25.306999,-7.1895,-4.6205,-10.742,-3.873,-10.032,4.5089,-3.8647,13.333,3.2381,-9.8039,6.2821
-4.5283,-0.50794,-9.7561,-1.3592,-7.8431,-10.667,-14.815,-3.9291,-14.951,-1.3592,-7.8431,-13.861,-12.638,-2.6032,-8.7619,3.2206,-5.153,-2.6923,5.7778,-5.2288,2.4359
-5.1572,-11.937,-14.309,1.2298,-9.8039,-11.967,-28.986,3.8003,-8.479,1.2298,-9.8039,-22.441999,-8.2148,-0.69841,-6.2222,-0.64412,-6.4412,-3.3333,1.3333,-8.4967,-0.12821
-9.5597,-8.7619,-13.659,-14.951,-15.033,-19.771999,-21.9,-1.9968,-6.5372,-14.951,-15.033,-20.462,-8.2148,-6.4127,-8.7619,-3.2206,-9.0177,-4.6154,-3.746,-8.4967,-0.76923
-2.6415,-7.4921,-7.8049,-7.1845,-11.765,-10.016,-12.882,1.2238,-4.5955,-7.1845,-11.765,-15.182,-5.0553,-1.9683,-1.7778,-3.2206,-5.7971,2.4359,-1.2063,-1.3072,-0.12821
-0.75472,-11.302,-11.707,-17.540001,-14.379,-22.374001,-14.171,-7.7939,-16.246,-17.540001,-14.379,-18.482,-5.0553,-3.873,-1.1429,-10.95,-9.0177,5.641,-8.1905,-0.65359,-3.3333
0.50314,-22.094999,-16.26,-22.718,-15.686,-17.820999,-13.527,-17.455999,-11.715,-22.718,-15.686,-13.201,-10.111,-11.492,-4.9524,-23.833,-16.747,-0.76923,-12.0,-7.1895,-14.872
1.1321,-27.809999,-16.910999,-32.426998,-16.34,-19.771999,-20.612,-17.455999,-27.896,-32.426998,-16.34,-17.162001,-6.3191,-11.492,-2.4127,-27.052999,-15.459,-0.76923,-21.524,2.6144,-17.436001
-2.0126,-17.016001,-11.707,7.055,-10.458,-11.317,-15.459,6.3768,-15.599,7.055,-10.458,-15.842,3.7915,-1.9683,5.8413,-18.035,-6.4412,-1.4103,-15.81,9.1503,-11.026
12.453,-15.746,2.6016,21.941999,-0.65359,25.106001,-4.5089,-2.6409,-12.362,21.941999,-0.65359,4.6205,1.8957,-4.5079,8.381,-13.527,-0.64412,9.4872,-17.714001,5.2288,-12.949
-2.6415,-9.3968,2.6016,3.8188,1.3072,14.049,9.6618,17.971001,-21.424,3.8188,1.3072,7.2607,-4.4234,-7.6825,-4.9524,-14.171,-6.4412,-3.9744,-18.983999,-3.268,-14.231
-8.9308,-1.1429,5.8537,8.3495,10.458,21.202999,11.594,14.106,-0.06472,8.3495,10.458,15.842,-1.8957,-5.7778,-6.8571,-7.0853,-2.5765,-10.385,-7.5556,-3.268,-8.4615
-5.1572,-4.3175,5.8537,-6.5372,5.2288,12.098,-2.5765,-11.659,10.291,-6.5372,5.2288,11.221,-4.4234,-5.7778,-11.302,-9.0177,-6.4412,0.51282,-13.905,-6.5359,-12.308
-0.75472,14.73,16.26,17.410999,18.301001,27.056999,19.323999,-1.3527,4.466,17.410999,18.301001,23.761999,1.2638,1.2063,-3.0476,2.5765,3.2206,-14.872,1.9683,-1.3072,-3.9744
1.1321,23.618999,17.561001,21.941999,17.646999,10.797,25.121,14.75,34.238998,21.941999,17.646999,21.782,7.5829,4.381,2.0317,10.95,7.0853,-5.8974,14.667,5.2288,5.641
6.7925,21.079,14.959,29.709,26.143999,6.2439,20.612,25.056,27.120001,29.709,26.143999,22.441999,8.8468,7.5556,4.5714,12.882,8.3736,6.2821,18.476,5.8824,10.769
-0.12579,14.095,7.8049,13.528,17.646999,16.65,10.306,1.868,18.058001,13.528,17.646999,16.502001,3.7915,2.4762,3.9365,10.306,5.153,-1.4103,22.285999,1.3072,10.769
4.2767,12.825,7.1545,-0.71197,4.5752,-1.561,5.153,-0.70853,5.1133,-0.71197,4.5752,5.9406,-0.63191,-1.9683,5.2063,8.3736,3.8647,-0.76923,12.762,-0.65359,5.0
13.711,12.825,12.358,-14.951,3.268,15.35,3.2206,-7.7939,2.5243,-14.951,3.268,9.2409,-3.1596,-7.0476,10.286,13.527,7.7295,-13.59,9.5873,-0.65359,-1.4103
5.5346,3.3016,-0.65041,-15.599,-9.1503,-8.065,-7.0853,-11.014,2.5243,-15.599,-9.1503,0.0,-7.5829,-10.222,-0.50794,7.7295,-1.2882,12.692,8.3175,-7.8431,-0.12821
6.7925,9.6508,0.0,16.764,-2.6144,-2.8618,7.0853,10.886,1.877,16.764,-2.6144,-1.9802,-5.6872,-4.5079,1.3968,8.3736,-0.64412,16.538,3.873,-3.268,3.7179
11.824,5.2063,2.6016,13.528,-0.65359,6.2439,-1.9324,19.903,-2.0065,13.528,-0.65359,-1.3201,-4.4234,-4.5079,7.1111,9.0177,1.9324,-3.3333,3.2381,1.9608,4.359
-2.0126,-3.6825,-6.5041,-0.71197,-6.5359,5.5935,-10.306,7.6651,-16.246,-0.71197,-6.5359,-6.6007,-8.8468,-10.222,-3.0476,-0.64412,-6.4412,12.692,-5.0159,-3.9216,-2.6923
2.3899,-3.6825,-7.8049,-6.5372,-11.111,-3.5122,-12.238,4.4444,-10.421,-6.5372,-11.111,-9.901,-8.8468,-7.0476,-1.7778,-1.2882,-5.7971,8.8462,-6.2857,-1.9608,-2.0513
4.9057,-8.7619,-8.4553,-9.7735,-12.418,4.2927,-11.594,5.7327,-8.479,-9.7735,-12.418,-8.5809,-6.3191,-4.5079,-0.50794,-1.9324,-5.153,11.41,-4.381,5.2288,-0.12821
-5.1572,-17.016001,-15.61,-1.3592,-12.418,-7.4146,-12.882,3.1562,-5.89,-1.3592,-12.418,-13.861,-11.374,-7.6825,-11.937,-11.594,-14.171,-14.872,-5.0159,-7.1895,-5.8974
-11.447,-7.4921,-9.1057,-3.9482,-4.5752,-19.771999,-6.4412,-4.5733,-3.301,-3.9482,-4.5752,-9.2409,-9.4787,-4.5079,-13.841,-7.7295,-12.238,2.4359,-5.0159,-5.8824,-0.12821
-12.704,-3.0476,-4.5528,-5.2427,-3.268,-3.5122,2.5765,3.8003,-12.362,-5.2427,-3.268,-5.2805,-8.8468,-5.1429,-11.937,-6.4412,-10.95,8.8462,-8.8254,-1.9608,-3.9744
-16.478001,-12.571,-13.008,-8.479,-2.6144,-13.919,-5.153,-3.285,-11.068,-8.479,-2.6144,-11.221,-9.4787,-7.0476,-15.746,-13.527,-14.815,-3.9744,-9.4603,-5.8824,-5.8974
-20.881001,-20.825001,-20.813,-28.544001,-17.646999,-15.87,-27.052999,-27.118,-14.951,-28.544001,-17.646999,-18.482,-13.27,-10.857,-18.285999,-18.68,-19.323999,-4.6154,-13.27,-9.8039,-11.667
-8.9308,-8.7619,-7.8049,-18.188,-8.4967,-23.024,-9.6618,-2.6409,-13.01,-18.188,-8.4967,-9.901,-3.1596,-1.3333,-1.7778,-8.3736,-5.153,-10.385,-17.714001,-0.65359,-7.8205
-0.12579,5.2063,2.6016,-9.1262,-1.9608,13.398,3.8647,-4.5733,-5.89,-9.1262,-1.9608,2.6403,5.6872,4.381,7.746,2.5765,5.153,-2.6923,-3.746,5.2288,-2.6923
9.3082,8.381,3.9024,6.4078,-3.9216,5.5935,0.0,1.868,-9.1262,6.4078,-3.9216,0.0,6.951,3.746,12.19,3.8647,7.7295,-2.6923,-7.5556,6.5359,1.7949
-1.3836,-0.50794,-0.65041,4.466,-1.9608,-6.7642,1.9324,-0.06441,-2.0065,4.466,-1.9608,-1.9802,3.1596,-2.6032,7.1111,-2.5765,3.2206,-14.231,-12.0,1.3072,-7.8205
9.3082,5.8413,8.4553,-0.71197,0.0,-4.1626,2.5765,-11.659,-11.068,-0.71197,0.0,3.9604,6.951,-0.06349,16.0,3.8647,11.594,0.51282,-13.905,3.268,-9.1026
23.774,20.444,24.065001,-6.5372,8.4967,6.2439,13.527,-6.5056,8.3495,-6.5372,8.4967,15.842,22.749001,15.81,31.872999,24.476999,29.629999,-1.4103,-1.2063,19.608,6.9231
22.516001,28.698,32.52,7.055,19.608,10.797,19.968,-7.1498,23.882999,7.055,19.608,24.422001,30.964001,27.238001,36.317001,38.646999,39.291,-5.8974,21.016001,24.837,23.59
38.868,48.381001,47.48,7.7023,27.451,37.463001,48.308998,-3.285,26.472,7.7023,27.451,44.883999,36.651001,33.587002,42.667,48.308998,46.376999,6.2821,31.174999,26.797001,33.205002
27.547001,33.778,35.122002,13.528,26.143999,19.252001,28.341,5.7327,27.120001,13.528,26.143999,31.683001,28.436001,26.603001,33.143002,36.070999,35.426998,-1.4103,22.921,20.915001,26.153999
18.742001,16.0,22.764,13.528,13.072,17.951,14.815,5.7327,16.117001,13.528,13.072,18.482,18.325001,16.444,21.079,22.544001,23.188,10.769,15.937,13.725,15.256
11.824,10.286,15.61,13.528,8.4967,29.007999,10.306,5.0886,5.7605,13.528,8.4967,14.521,12.006,12.0,15.365,15.459,16.103001,10.128,12.762,7.8431,10.769
7.4214,6.4762,7.8049,1.2298,5.2288,-12.618,8.3736,12.818,-7.1845,1.2298,5.2288,9.901,5.6872,5.6508,6.4762,9.6618,9.0177,12.692,7.0476,5.8824,8.2051
1.761,-1.7778,-1.3008,5.1133,-1.3072,9.4959,-3.2206,11.53,8.9968,5.1133,-1.3072,2.6403,3.1596,3.1111,1.3968,5.153,3.2206,10.128,1.3333,2.6144,3.0769
-3.8994,-2.4127,-3.252,3.1715,4.5752,5.5935,-0.64412,2.5121,-2.6537,3.1715,4.5752,-1.3201,1.2638,2.4762,-2.4127,2.5765,2.5765,5.641,6.4127,-0.65359,5.641
-8.9308,-4.9524,-3.9024,1.877,-1.3072,7.5447,-9.6618,2.5121,4.466,1.877,-1.3072,-5.9406,-0.63191,2.4762,-5.5873,2.5765,-0.64412,-2.0513,8.3175,-2.6144,3.0769
-4.5283,19.174999,7.1545,5.1133,0.0,8.1951,15.459,4.4444,-5.2427,5.1133,0.0,4.6205,1.2638,5.0159,-1.1429,12.238,7.0853,12.692,3.2381,1.9608,11.41
-5.1572,0.12698,-0.65041,2.5243,-7.8431,-19.122,-5.153,9.5974,-10.421,2.5243,-7.8431,-5.2805,3.1596,10.095,-0.50794,6.4412,3.2206,7.5641,0.69841,2.6144,10.128
-1.3836,-9.3968,-5.8537,-7.1845,-10.458,-8.065,-25.121,3.8003,-7.8317,-7.1845,-10.458,-13.201,4.4234,8.1905,3.3016,2.5765,3.2206,-8.4615,4.5079,-1.3072,5.641
-3.2704,-2.4127,-2.6016,-0.71197,-6.5359,11.447,-11.594,-5.2174,-6.5372,-0.71197,-6.5359,-7.2607,6.951,8.8254,5.2063,5.153,7.0853,4.359,4.5079,0.0,5.0
6.7925,4.5714,7.1545,3.1715,1.3072,-19.771999,-3.8647,-2.6409,1.877,3.1715,1.3072,-5.2805,13.27,15.175,12.825,10.95,12.882,1.7949,5.7778,1.3072,8.8462
7.4214,10.921,13.659,-0.06472,9.8039,5.5935,3.8647,-1.3527,12.88,-0.06472,9.8039,5.9406,13.902,15.81,9.6508,12.238,14.815,-6.5385,8.3175,-1.9608,12.692
11.195,7.746,13.008,3.1715,12.418,23.805,12.238,7.6651,9.644,3.1715,12.418,14.521,14.534,13.905,13.46,9.0177,13.527,-0.76923,7.0476,0.65359,7.5641
11.195,9.0159,13.008,-0.71197,9.8039,-7.4146,15.459,-2.6409,16.117001,-0.71197,9.8039,7.2607,12.006,12.0,10.921,7.7295,12.238,2.4359,4.5079,2.6144,7.5641
16.855,15.365,22.764,20.646999,12.418,18.601999,13.527,7.6651,13.528,20.646999,12.418,14.521,15.166,15.81,12.19,14.171,18.68,-1.4103,12.127,0.65359,13.974
14.969,14.095,20.813,21.294001,19.608,19.252001,18.68,3.8003,22.589001,21.294001,19.608,19.142,9.4787,10.73,7.1111,9.0177,12.238,-8.4615,10.857,0.0,8.8462
9.3082,12.19,14.309,6.4078,12.418,-15.22,11.594,0.57971,10.939,6.4078,12.418,13.201,3.7915,2.4762,3.3016,4.5089,7.7295,-16.795,3.2381,-0.65359,3.7179
9.3082,-1.1429,16.26,10.291,14.379,25.756001,4.5089,10.242,6.4078,10.291,14.379,18.482,3.7915,4.381,6.4762,3.8647,10.306,12.051,3.2381,2.6144,4.359
19.371,7.746,23.415001,18.705999,18.301001,40.715,7.0853,8.3092,8.3495,18.705999,18.301001,25.083,10.111,12.0,10.921,9.0177,16.103001,7.5641,7.0476,7.1895,8.2051
16.226,6.4762,18.862,21.294001,15.033,25.756001,16.747,12.818,10.291,21.294001,15.033,24.422001,7.5829,5.0159,9.0159,5.153,10.95,-0.12821,0.69841,4.5752,-0.12821
8.0503,-4.3175,7.8049,21.941999,14.379,21.854,21.9,15.395,-3.9482,21.941999,14.379,20.462,1.8957,-3.873,-0.50794,-6.4412,-0.64412,5.641,-1.8413,3.268,-3.9744
15.597,14.095,16.910999,27.767,26.143999,23.805,37.359001,16.683001,15.469,27.767,26.143999,32.342999,5.6872,1.8413,4.5714,0.0,5.153,5.641,7.6825,7.8431,6.2821
14.969,-6.2222,7.8049,6.4078,5.8824,49.171001,2.5765,-1.9968,9.644,6.4078,5.8824,15.842,-4.4234,-10.222,-0.50794,-11.594,-4.5089,5.641,-10.73,1.3072,-14.872
4.9057,-1.1429,7.1545,12.233,10.458,10.146,11.594,14.106,-2.6537,12.233,10.458,11.881,0.63191,-6.4127,0.7619,-7.0853,-2.5765,-5.2564,-5.6508,4.5752,-10.385
3.0189,7.1111,7.1545,-8.479,5.8824,-2.8618,10.95,0.57971,13.528,-8.479,5.8824,14.521,2.5276,-4.5079,2.6667,-0.64412,0.0,3.0769,2.6032,6.5359,-3.3333
-0.75472,8.381,2.6016,18.058001,13.725,10.797,12.882,1.868,18.705999,18.058001,13.725,17.822001,-0.63191,-2.6032,-4.3175,-0.64412,-3.8647,5.641,10.222,0.65359,-3.3333
-1.3836,16.0,3.252,30.356001,15.686,30.959,20.612,9.5974,3.1715,30.356001,15.686,17.822001,-1.8957,-5.1429,-2.4127,-2.5765,-3.8647,0.51282,3.873,2.6144,-6.5385
-0.75472,13.46,1.9512,8.9968,11.765,6.8943,16.103001,-1.9968,7.7023,8.9968,11.765,9.2409,0.0,-7.6825,-1.7778,-0.64412,-1.9324,-8.4615,3.873,-3.9216,-5.8974
-4.5283,2.6667,-1.3008,4.466,8.4967,7.5447,21.256001,-0.06441,-6.5372,4.466,8.4967,9.2409,-5.0553,-7.6825,-7.4921,-7.0853,-7.7295,-11.667,1.3333,-8.4967,-9.1026
-6.4151,7.1111,-0.65041,-0.71197,5.8824,1.6911,10.95,-3.285,20.646999,-0.71197,5.8824,4.6205,-6.951,-6.4127,-11.937,-5.153,-9.6618,-4.6154,1.3333,-7.8431,-7.8205
-15.22,-2.4127,-13.008,-10.421,1.9608,-10.016,0.64412,-6.5056,3.1715,-10.421,1.9608,-1.9802,-10.742,-14.032,-22.094999,-12.238,-19.323999,-12.308,-3.746,-12.418,-14.231
-10.818,-1.1429,-14.309,16.117001,9.8039,-12.618,7.0853,-3.9291,6.4078,16.117001,9.8039,3.9604,-12.006,-11.492,-22.73,-12.238,-21.9,-25.128,-3.746,-13.072,-9.1026
-13.962,2.0317,-11.057,7.7023,12.418,-5.4634,22.544001,4.4444,14.822,7.7023,12.418,4.6205,-13.902,-14.032,-23.365,-16.103001,-24.476999,-9.1026,1.3333,-13.072,-11.026
-22.767,-14.476,-16.910999,-2.6537,-5.2288,0.39024,-12.238,-0.70853,-9.1262,-2.6537,-5.2288,-11.221,-17.062,-18.476,-27.809999,-24.476999,-28.341,-4.6154,-15.81,-15.033,-20.0
-18.365,-32.889,-19.511999,-8.479,-14.379,-28.878,-26.409,-11.014,-22.718,-8.479,-14.379,-23.761999,-18.325001,-21.650999,-25.905001,-32.206001,-28.341,6.9231,-21.524,-13.725,-22.563999
-15.22,-25.27,-16.910999,-18.188,-19.608,-31.48,-20.612,-4.5733,-24.66,-18.188,-19.608,-23.101999,-13.27,-17.205999,-20.190001,-29.629999,-25.121,-5.8974,-17.714001,-10.458,-20.0
-22.767,-34.159,-27.966999,-28.544001,-16.993,-24.976,-20.612,-9.0821,-32.426998,-28.544001,-16.993,-31.023001,-10.742,-16.570999,-19.556,-32.849998,-24.476999,-14.872,-20.254,-6.5359,-17.436001
-19.622999,-32.889,-34.472,-18.188,-26.143999,-6.1138,-32.206001,-12.947,-23.365999,-18.188,-26.143999,-36.964001,-8.8468,-12.127,-13.206,-30.274,-23.188,1.1538,-22.794001,-3.9216,-16.795
-11.447,-23.365,-29.919001,-4.5955,-19.608,-41.886002,-27.697001,-6.5056,-16.246,-4.5955,-19.608,-34.983002,-5.0553,-7.6825,-9.3968,-23.833,-19.323999,1.1538,-15.81,3.268,-9.7436
-8.3019,-19.556,-25.365999,-27.249001,-24.837,-24.976,-28.341,-11.659,-31.780001,-27.249001,-24.837,-37.624001,-1.8957,-6.4127,-3.6825,-17.391001,-14.815,-7.1795,-17.714001,5.8824,-5.8974
-5.1572,-20.825001,-16.910999,-32.426998,-29.412001,-13.919,-32.849998,-26.473,-9.7735,-32.426998,-29.412001,-34.323002,-2.5276,-3.873,0.7619,-12.238,-10.95,6.9231,-6.2857,7.1895,1.1538
-1.3836,-7.4921,-5.2033,-29.837999,-21.569,-27.577,-21.256001,-23.253,-12.362,-29.837999,-21.569,-24.422001,3.1596,1.8413,5.8413,0.0,-0.64412,-1.4103,0.69841,9.8039,6.9231
-15.849,-20.190001,-18.211,-18.188,-25.49,-38.633999,-26.409,-11.659,-25.955,-18.188,-25.49,-33.662998,-3.7915,-4.5079,-2.4127,-6.4412,-7.7295,-3.9744,-6.2857,3.268,0.51282
-12.075,-12.571,-20.813,-20.777,-22.222,-18.472,-28.341,-11.014,-14.951,-20.777,-22.222,-30.363001,-3.1596,0.57143,-0.50794,-0.64412,-6.4412,10.128,-1.8413,2.6144,8.8462
-13.333,-11.302,-23.415001,-33.074001,-23.528999,-25.625999,-27.052999,-21.965,-21.424,-33.074001,-23.528999,-29.042999,-6.951,-5.1429,-3.0476,-1.9324,-7.7295,-12.949,3.2381,-1.3072,6.2821
1.1321,3.3016,-7.8049,-3.301,-7.1895,-13.919,-10.95,-11.659,-14.951,-3.301,-7.1895,-15.842,1.2638,1.2063,7.746,10.306,3.2206,-5.8974,8.9524,8.4967,12.692
-0.12579,6.4762,1.3008,-5.2427,-9.1503,-17.171,-16.103001,-7.7939,7.055,-5.2427,-9.1503,-10.561,6.3191,9.4603,12.19,15.459,9.6618,13.333,12.127,9.8039,17.820999
-2.0126,-1.7778,-1.3008,-25.955,-18.954,-12.618,-2.5765,-4.5733,-17.540001,-25.955,-18.954,-10.561,-3.1596,-1.3333,2.6667,6.4412,1.9324,-2.0513,7.6825,-2.6144,6.9231
-2.6415,1.3968,-0.65041,-5.2427,-11.111,4.9431,-9.0177,-7.1498,-5.2427,-5.2427,-11.111,-5.9406,-2.5276,-0.06349,3.9365,8.3736,2.5765,3.7179,4.5079,3.268,7.5641
-9.5597,0.12698,-5.2033,-2.0065,-5.8824,-6.1138,-4.5089,-0.70853,5.1133,-2.0065,-5.8824,-4.6205,-4.4234,-1.9683,-3.6825,3.8647,-2.5765,-4.6154,3.2381,-6.5359,7.5641
-15.22,-9.3968,-13.659,-3.9482,-9.1503,7.5447,-2.5765,5.7327,-11.068,-3.9482,-9.1503,-5.2805,-8.2148,-5.7778,-10.032,-3.8647,-10.306,-6.5385,2.6032,-5.8824,-0.12821
-12.704,-13.206,-12.358,-0.06472,-3.9216,0.39024,-7.7295,1.868,-5.89,-0.06472,-3.9216,0.66007,-7.5829,-3.2381,-11.937,-9.6618,-12.238,0.51282,0.06349,-4.5752,-0.12821
-8.3019,-5.5873,-7.8049,-8.479,-10.458,-10.667,1.9324,3.8003,-22.070999,-8.479,-10.458,3.3003,-8.2148,-3.2381,-13.841,-8.3736,-13.527,15.256,-8.1905,-8.4967,-2.6923
-15.22,-15.111,-11.057,-8.479,-9.8039,0.39024,-9.6618,-3.9291,8.9968,-8.479,-9.8039,-1.3201,-12.638,-5.1429,-18.921,-9.6618,-14.815,13.974,-1.2063,-13.072,-3.3333
-12.704,-19.556,-17.561001,-3.301,-11.765,8.1951,-12.882,4.4444,-3.9482,-3.301,-11.765,-7.2607,-14.534,-10.857,-17.650999,-14.815,-18.68,1.1538,-1.8413,-9.1503,-10.385
-12.704,-17.650999,-20.163,-0.71197,-5.8824,-22.374001,-10.306,5.0886,-16.893,-0.71197,-5.8824,-10.561,-17.694,-9.5873,-17.016001,-17.391001,-19.968,8.8462,-10.73,-3.9216,-7.8205
-10.818,-15.746,-18.211,-4.5955,-9.8039,-10.016,-11.594,7.0209,-9.1262,-4.5955,-9.8039,-11.221,-10.111,-5.7778,-14.476,-13.527,-16.747,12.692,-5.6508,-7.8431,-7.8205
-7.044,-6.2222,-12.358,-4.5955,-5.2288,-28.878,-1.9324,-0.06441,-11.068,-4.5955,-5.2288,-9.901,-8.2148,-5.7778,-10.032,-9.0177,-13.527,-12.308,-8.8254,-4.5752,-8.4615
-2.6415,2.0317,-5.2033,5.1133,1.3072,-8.7154,7.0853,1.868,-2.0065,5.1133,1.3072,-1.9802,-8.8468,-8.9524,-6.8571,-5.7971,-11.594,7.5641,-7.5556,-1.3072,-10.385
-7.044,-10.032,-11.057,-31.780001,-4.5752,12.748,-12.238,0.57971,4.466,-31.780001,-4.5752,-5.9406,-12.638,-14.032,-11.302,-14.815,-17.391001,16.538,-10.095,-10.458,-14.231
-5.1572,-11.302,-13.659,10.939,-1.9608,-18.472,-10.306,-0.70853,-11.068,10.939,-1.9608,-13.861,-10.111,-13.397,-5.5873,-14.171,-14.815,6.9231,-8.1905,-0.65359,-14.231
-0.12579,1.3968,-6.5041,17.410999,2.6144,-0.26016,3.2206,10.242,-5.2427,17.410999,2.6144,-6.6007,-8.2148,-11.492,0.7619,-7.7295,-8.3736,4.359,-1.2063,-3.268,-11.667
-0.75472,3.9365,-1.9512,-4.5955,2.6144,25.756001,5.7971,2.5121,-1.3592,-4.5955,2.6144,-0.66007,-10.742,-10.857,0.12698,-3.8647,-6.4412,1.1538,-0.57143,0.0,-9.1026
8.6792,9.0159,8.4553,7.055,5.8824,-7.4146,12.238,10.242,8.3495,7.055,5.8824,4.6205,-1.8957,-4.5079,7.746,6.4412,5.7971,3.7179,13.397,0.0,-0.12821
12.453,19.174999,13.008,10.939,9.1503,6.8943,18.035,3.1562,5.7605,10.939,9.1503,5.9406,5.0553,5.0159,12.825,14.171,12.882,1.7949,12.762,0.65359,8.2051
-0.75472,17.905001,7.1545,-3.9482,4.5752,-4.1626,17.391001,-4.5733,4.466,-3.9482,4.5752,3.3003,0.0,3.746,6.4762,14.171,10.306,-7.8205,9.5873,-3.268,5.0
6.7925,24.254,16.26,3.8188,9.8039,-0.26016,12.882,-14.879,14.822,3.8188,9.8039,9.2409,6.3191,7.5556,14.73,22.544001,18.68,3.7179,14.032,2.6144,12.692
8.0503,14.73,15.61,7.055,1.3072,23.153999,-3.2206,-9.0821,0.58252,7.055,1.3072,5.9406,9.4787,10.73,18.540001,24.476999,21.9,-9.7436,12.762,4.5752,9.4872
11.195,9.6508,16.26,1.2298,3.268,-4.1626,6.4412,1.2238,3.8188,1.2298,3.268,3.9604,10.742,12.635,18.540001,24.476999,25.121,0.51282,13.397,3.268,13.974
3.6478,11.556,7.8049,-13.657,-15.686,-8.065,-7.0853,-3.9291,-2.6537,-13.657,-15.686,-10.561,6.951,9.4603,12.19,23.188,18.68,-5.2564,5.1429,5.2288,12.692
-1.3836,12.825,3.9024,-0.06472,-1.9608,-2.2114,3.8647,-3.285,-3.301,-0.06472,-1.9608,-5.9406,4.4234,7.5556,5.2063,21.9,15.459,-5.8974,4.5079,-2.6144,10.128
2.3899,9.6508,5.2033,8.9968,0.65359,-6.1138,-4.5089,10.242,5.7605,8.9968,0.65359,-3.9604,0.0,3.1111,2.6667,17.391001,11.594,-5.2564,0.69841,-7.8431,4.359
9.3082,3.9365,8.4553,-3.9482,-2.6144,29.007999,-1.9324,19.903,-0.06472,-3.9482,-2.6144,5.9406,-1.8957,3.746,2.6667,14.171,10.306,8.8462,1.3333,0.65359,6.2821
-0.75472,-4.3175,1.3008,2.5243,-7.8431,-19.122,-16.747,7.6651,-13.657,2.5243,-7.8431,-8.5809,-10.111,-3.873,-8.7619,6.4412,1.9324,15.897,-11.365,-8.4967,-2.0513
-2.6415,-3.6825,-1.3008,7.7023,-7.1895,-7.4146,-7.0853,13.462,-5.89,7.7023,-7.1895,-3.9604,-10.111,-1.9683,-10.032,2.5765,-2.5765,2.4359,-12.0,-10.458,-2.6923
-10.818,0.12698,-1.9512,-0.06472,-2.6144,21.202999,-1.9324,10.242,-16.893,-0.06472,-2.6144,3.3003,-6.951,1.2063,-10.667,3.2206,-1.9324,4.359,-12.0,-7.1895,-0.12821
-1.3836,2.0317,0.0,3.1715,-7.1895,8.8455,3.8647,7.0209,-6.5372,3.1715,-7.1895,2.6403,-6.951,-2.6032,-6.2222,-0.64412,-1.9324,1.1538,-22.794001,-6.5359,-7.1795
-3.8994,-20.825001,-5.2033,-9.1262,-9.8039,-10.667,-17.391001,0.57971,-16.246,-9.1262,-9.8039,0.66007,-10.111,-6.4127,-8.127,-11.594,-8.3736,-9.7436,-19.618999,-11.111,-11.026
-3.8994,-17.016001,-3.9024,-7.8317,-11.111,-5.4634,-21.9,-1.3527,-18.834999,-7.8317,-11.111,-1.3201,-1.8957,-1.3333,0.7619,-5.7971,-1.9324,10.769,-14.54,1.3072,-7.1795
-0.12579,-4.3175,-3.9024,-4.5955,-11.765,-30.179001,-5.7971,-0.06441,-18.834999,-4.5955,-11.765,-6.6007,1.2638,-0.06349,2.0317,-1.9324,0.64412,17.820999,-15.175,2.6144,-5.8974
-4.5283,-7.4921,-11.057,-7.8317,-9.8039,1.6911,-15.459,-7.1498,-9.1262,-7.8317,-9.8039,-9.2409,-3.7915,-3.873,-3.0476,-6.4412,-4.5089,-0.76923,-15.81,-2.6144,-11.026
1.1321,-5.5873,-3.9024,5.1133,-2.6144,-8.065,-4.5089,0.57971,-21.424,5.1133,-2.6144,-2.6403,-2.5276,-3.873,0.7619,-6.4412,-1.9324,2.4359,-18.349001,0.65359,-5.8974
-1.3836,-10.667,-5.2033,-0.06472,-1.9608,-6.1138,-9.0177,5.7327,-9.1262,-0.06472,-1.9608,-4.6205,-3.7915,-8.3175,2.0317,-11.594,-3.8647,5.0,-15.81,-3.268,-11.667
8.0503,-4.9524,1.9512,14.175,10.458,14.049,10.306,14.106,0.58252,14.175,10.458,7.9208,-2.5276,-3.873,5.8413,-10.95,-1.2882,6.9231,-7.5556,2.6144,-10.385
7.4214,-6.2222,-1.9512,1.877,3.9216,-11.317,0.64412,1.2238,7.055,1.877,3.9216,3.3003,-3.7915,-5.7778,0.7619,-11.594,-4.5089,-7.8205,-10.095,-2.6144,-12.308
9.3082,-3.6825,0.0,3.1715,7.1895,8.8455,3.2206,7.6651,1.2298,3.1715,7.1895,3.9604,1.2638,-2.6032,7.1111,-5.153,2.5765,-9.1026,-1.2063,2.6144,-5.8974
6.7925,-1.1429,1.3008,3.1715,3.268,24.455,-1.2882,6.3768,3.8188,3.1715,3.268,3.9604,2.5276,0.57143,7.746,-2.5765,3.8647,10.769,-3.1111,1.3072,-4.6154
9.3082,7.1111,9.1057,14.175,16.34,10.146,12.238,13.462,12.88,14.175,16.34,15.182,2.5276,0.57143,5.8413,1.2882,6.4412,7.5641,7.6825,1.3072,0.51282
2.3899,3.9365,4.5528,3.8188,8.4967,15.35,12.238,6.3768,-4.5955,3.8188,8.4967,11.881,-4.4234,-5.7778,-3.0476,-4.5089,-0.64412,-3.9744,0.06349,-5.8824,-9.7436
2.3899,6.4762,5.2033,13.528,13.072,-4.813,19.968,8.9533,-16.246,13.528,13.072,10.561,-2.5276,-5.1429,-0.50794,0.64412,1.9324,-0.76923,2.6032,-3.268,-2.6923
1.1321,9.6508,8.4553,8.3495,10.458,14.699,10.306,1.2238,35.534,8.3495,10.458,11.221,0.63191,1.8413,0.12698,5.153,5.7971,-12.949,11.492,-1.9608,3.7179
7.4214,13.46,8.4553,0.58252,3.9216,-7.4146,2.5765,5.0886,3.8188,0.58252,3.9216,9.2409,5.6872,7.5556,7.1111,8.3736,9.0177,20.385,7.0476,3.268,4.359
1.761,0.12698,0.65041,8.9968,5.2288,-0.91057,1.2882,4.4444,-5.89,8.9968,5.2288,1.3201,4.4234,0.57143,2.0317,1.2882,3.2206,11.41,2.6032,5.2288,-0.76923
7.4214,0.7619,5.8537,14.175,1.3072,17.301001,-0.64412,15.395,5.7605,14.175,1.3072,6.6007,5.0553,1.2063,8.381,3.2206,5.7971,-4.6154,0.69841,11.111,-0.12821
13.082,12.825,13.008,8.3495,3.268,14.699,7.0853,3.1562,-3.9482,8.3495,3.268,13.201,7.5829,0.57143,9.6508,7.0853,9.0177,0.51282,0.69841,8.4967,-0.12821
10.566,1.3968,11.057,-1.3592,1.9608,-4.813,2.5765,-4.5733,10.939,-1.3592,1.9608,7.9208,6.951,-0.06349,10.286,3.8647,7.7295,-3.3333,-3.1111,6.5359,-4.6154
12.453,3.9365,13.659,-10.421,0.65359,3.6423,1.9324,-14.879,-2.6537,-10.421,0.65359,6.6007,10.111,4.381,14.095,7.0853,10.95,-9.1026,-1.2063,10.458,1.1538
17.483999,9.6508,18.211,4.466,0.65359,3.6423,1.2882,-3.285,4.466,4.466,0.65359,11.221,18.957001,13.27,22.349001,12.882,18.035,3.0769,-1.2063,16.993,6.2821
18.742001,7.1111,17.561001,8.9968,5.2288,-4.813,10.95,-5.2174,14.175,8.9968,5.2288,8.5809,17.694,12.635,23.618999,9.6618,18.035,12.692,1.3333,18.954,8.2051
8.0503,-5.5873,7.8049,-9.7735,-5.2288,7.5447,-5.153,-5.8615,-5.89,-9.7735,-5.2288,1.3201,11.374,9.4603,14.095,-1.2882,7.7295,5.641,-12.635,14.379,1.1538
-1.3836,-7.4921,0.0,1.2298,2.6144,5.5935,-1.2882,1.868,-10.421,1.2298,2.6144,0.66007,6.951,5.6508,7.746,-6.4412,2.5765,3.0769,-9.4603,12.418,-0.76923
3.6478,-8.7619,-0.65041,-1.3592,-6.5359,-8.7154,-12.238,-1.3527,-3.301,-1.3592,-6.5359,-8.5809,8.2148,3.1111,9.6508,-3.2206,3.8647,-14.231,-8.8254,8.4967,-7.8205
-0.12579,-8.127,-2.6016,-6.5372,-8.4967,-17.171,-15.459,-14.235,-12.362,-6.5372,-8.4967,-11.221,6.951,4.381,7.1111,-3.8647,3.2206,-2.0513,-10.73,3.9216,-2.6923
0.50314,-6.2222,-4.5528,-6.5372,-3.9216,-11.967,-4.5089,-4.5733,-6.5372,-6.5372,-3.9216,-8.5809,9.4787,6.9206,10.286,-1.9324,3.8647,0.51282,-6.2857,9.1503,3.0769
8.0503,-1.7778,-1.9512,-7.8317,-3.268,1.0407,-0.64412,-9.0821,-6.5372,-7.8317,-3.268,-4.6205,13.27,7.5556,17.905001,0.0,7.7295,8.8462,0.69841,12.418,-0.12821
9.9371,2.6667,1.9512,-7.8317,1.9608,-14.569,0.64412,-15.523,3.8188,-7.8317,1.9608,1.3201,12.006,7.5556,16.0,2.5765,8.3736,-1.4103,3.2381,8.4967,1.7949
3.0189,13.46,3.252,4.466,3.268,6.8943,9.6618,-4.5733,15.469,4.466,3.268,1.9802,8.2148,6.2857,10.921,6.4412,7.7295,-10.385,10.857,3.9216,1.7949
6.1635,11.556,6.5041,-6.5372,5.8824,-0.26016,9.6618,-2.6409,23.236,-6.5372,5.8824,1.9802,10.742,5.6508,14.095,7.7295,10.306,-11.026,9.5873,7.1895,6.9231
3.0189,20.444,10.407,7.055,11.765,4.9431,31.562,-7.1498,7.7023,7.055,11.765,10.561,10.742,11.365,12.825,13.527,12.238,-3.9744,21.650999,7.1895,13.333
-3.8994,12.825,3.252,-0.06472,6.5359,9.4959,3.2206,-7.7939,11.586,-0.06472,6.5359,7.2607,6.3191,8.1905,6.4762,9.6618,7.7295,-16.153999,19.111,2.6144,9.4872
9.3082,22.349001,11.057,-3.301,15.033,10.146,9.6618,-7.1498,21.941999,-3.301,15.033,13.861,13.27,15.175,14.73,19.323999,16.103001,-7.8205,21.650999,7.1895,18.462
13.082,20.444,16.26,18.058001,19.608,-9.3659,21.256001,-1.9968,19.353001,18.058001,19.608,17.822001,10.742,12.0,6.4762,19.323999,14.815,-0.12821,23.556,8.4967,15.256
1.1321,14.73,13.659,3.8188,5.2288,2.9919,9.0177,-6.5056,14.175,3.8188,5.2288,12.541,2.5276,6.2857,-0.50794,15.459,8.3736,-14.872,17.841,-3.9216,11.41
1.761,15.365,14.309,2.5243,5.2288,10.797,9.6618,-11.014,1.2298,2.5243,5.2288,9.901,0.63191,5.6508,-1.7778,13.527,7.0853,-16.795,14.032,-1.9608,13.333
7.4214,13.46,16.26,4.466,5.8824,-1.561,4.5089,-8.438,3.8188,4.466,5.8824,11.221,1.2638,5.0159,0.7619,12.238,7.0853,-7.8205,3.873,3.268,8.8462
-1.3836,10.286,11.707,7.7023,5.8824,13.398,14.815,5.7327,3.1715,7.7023,5.8824,12.541,-1.8957,1.8413,-4.3175,6.4412,3.2206,-7.1795,10.857,0.0,11.41
-4.5283,1.3968,4.5528,-0.06472,-0.65359,17.301001,-3.8647,-5.2174,15.469,-0.06472,-0.65359,13.201,-5.6872,-1.9683,-8.7619,0.0,-4.5089,6.9231,4.5079,-5.8824,2.4359
-3.8994,-4.9524,-1.3008,3.8188,1.3072,3.6423,-6.4412,11.53,-4.5955,3.8188,1.3072,5.9406,-8.8468,-5.7778,-9.3968,-6.4412,-7.7295,6.2821,-1.2063,-9.1503,0.51282
-0.12579,-1.7778,3.9024,-0.06472,-5.8824,10.797,5.153,22.48,-3.9482,-0.06472,-5.8824,5.2805,-6.3191,-6.4127,-1.7778,-2.5765,-3.8647,3.0769,3.2381,-1.9608,1.1538
10.566,0.12698,6.5041,0.58252,0.65359,-15.87,6.4412,5.0886,2.5243,0.58252,0.65359,9.901,-8.2148,-5.1429,-1.1429,-4.5089,-3.8647,1.1538,-3.746,-3.268,1.7949
8.6792,-0.50794,-0.65041,5.1133,1.3072,18.601999,10.306,4.4444,4.466,5.1133,1.3072,7.2607,-8.8468,-10.222,0.7619,-10.95,-9.6618,8.2051,-5.6508,0.0,-7.1795
-5.1572,-15.111,-18.211,-2.0065,-7.1895,10.146,-6.4412,2.5121,-10.421,-2.0065,-7.1895,-8.5809,-15.798,-18.476,-11.302,-19.968,-21.256001,5.0,-15.81,-3.9216,-12.949
3.6478,-13.206,-12.358,2.5243,-4.5752,-2.8618,-7.0853,12.818,-8.479,2.5243,-4.5752,-5.9406,-8.2148,-10.857,-3.0476,-16.103001,-14.815,10.769,-13.27,1.9608,-14.872
-0.12579,-17.016001,-10.407,-3.301,-7.8431,-6.7642,-14.171,-8.438,-5.89,-3.301,-7.8431,-10.561,-11.374,-15.302,-6.8571,-18.035,-16.103001,1.1538,-13.27,-1.3072,-16.795
16.855,-4.9524,1.3008,-11.715,-7.1895,-10.016,-5.7971,-12.303,-8.479,-11.715,-7.1895,-3.3003,-8.2148,-10.222,0.7619,-8.3736,-7.0853,6.2821,-5.6508,5.2288,-5.8974
6.7925,-0.50794,1.3008,1.2298,-2.6144,-4.813,0.64412,16.039,1.2298,1.2298,-2.6144,-2.6403,-5.6872,-10.857,-0.50794,-3.8647,-4.5089,11.41,-3.1111,-1.9608,-5.8974
-5.1572,2.0317,0.65041,0.58252,-0.65359,2.3415,9.0177,4.4444,6.4078,0.58252,-0.65359,0.66007,-6.951,-9.5873,-6.8571,-9.6618,-7.7295,-4.6154,-3.746,-4.5752,-11.026
-2.0126,9.6508,3.9024,-1.3592,0.0,-1.561,14.815,-3.285,10.939,-1.3592,0.0,3.3003,-4.4234,-4.5079,-8.7619,-5.153,-5.153,-1.4103,-4.381,-4.5752,-7.1795
-15.22,-11.302,-7.1545,0.58252,0.65359,8.1951,-5.153,6.3768,-2.0065,0.58252,0.65359,-1.9802,-5.6872,-5.7778,-16.381001,-12.238,-10.95,-2.6923,0.06349,-7.1895,-5.2564
-18.993999,-5.5873,-6.5041,-7.1845,-0.65359,-15.22,0.0,-1.3527,1.2298,-7.1845,-0.65359,-3.9604,-2.5276,-1.3333,-18.285999,-9.6618,-10.306,-15.513,0.69841,-5.8824,-4.6154
-10.818,0.7619,0.0,10.939,11.111,1.0407,4.5089,7.0209,16.764,10.939,11.111,5.2805,0.63191,1.8413,-15.746,-4.5089,-4.5089,2.4359,8.3175,-5.8824,3.0769
-20.252001,0.12698,-7.8049,-6.5372,-1.3072,-2.2114,12.238,-12.303,-29.191,-6.5372,-1.3072,-1.3201,-5.0553,-5.7778,-19.556,-10.95,-12.238,-28.333,2.6032,-9.8039,-4.6154
-21.509001,-9.3968,-13.659,2.5243,1.9608,-28.228001,-10.95,-20.676001,11.586,2.5243,1.9608,-9.2409,-3.1596,-1.9683,-17.016001,-12.882,-12.882,-9.7436,3.873,-9.1503,1.1538
-22.138,-13.206,-19.511999,-7.1845,-7.8431,-32.130001,-17.391001,-4.5733,5.7605,-7.1845,-7.8431,-17.822001,-2.5276,-0.69841,-17.016001,-14.815,-16.103001,-21.282,-1.8413,-9.8039,-0.76923
-18.365,1.3968,-14.309,-5.89,-7.1895,1.0407,0.64412,-4.5733,-14.951,-5.89,-7.1895,-13.201,5.0553,5.6508,-9.3968,-8.3736,-9.6618,-14.231,5.1429,-3.9216,5.641
-16.478001,-9.3968,-16.26,-7.1845,-9.8039,-28.878,-13.527,-12.947,0.58252,-7.1845,-9.8039,-15.842,0.63191,2.4762,-12.571,-12.882,-14.171,-7.1795,4.5079,-7.1895,3.0769
-13.962,-15.746,-18.862,-20.777,-5.2288,-32.130001,-5.7971,-4.5733,3.1715,-20.777,-5.2288,-14.521,-3.7915,-3.2381,-16.381001,-17.391001,-19.323999,-7.8205,-1.2063,-7.8431,-2.6923
-9.5597,-15.111,-16.26,-14.951,-10.458,13.398,-16.103001,1.2238,-14.951,-14.951,-10.458,-10.561,0.0,-2.6032,-9.3968,-12.238,-12.882,-14.872,-4.381,-2.6144,1.7949
-8.3019,-11.302,-14.309,-0.71197,-11.111,-6.1138,-15.459,-7.1498,0.58252,-0.71197,-11.111,-19.142,2.5276,3.746,-1.1429,-5.7971,-5.7971,2.4359,-1.2063,5.8824,2.4359
-10.189,-0.50794,-8.4553,-7.1845,-7.1895,-7.4146,0.0,-9.0821,-13.657,-7.1845,-7.1895,-14.521,5.6872,5.6508,-1.7778,3.2206,0.0,7.5641,3.873,2.6144,6.9231
-15.22,-6.2222,-13.659,-17.540001,-15.033,-18.472,-12.882,-5.2174,-5.2427,-17.540001,-15.033,-19.142,1.2638,2.4762,-10.667,-0.64412,-4.5089,-2.6923,-2.4762,-3.268,6.2821
-6.4151,-3.0476,-7.8049,-7.8317,-11.765,-15.87,-12.238,-22.608999,0.58252,-7.8317,-11.765,-14.521,-1.2638,0.57143,-6.2222,2.5765,-2.5765,1.1538,1.9683,0.0,6.9231
-9.5597,-0.50794,0.65041,-25.955,-7.8431,-11.967,-2.5765,-5.8615,-8.479,-25.955,-7.8431,-7.2607,-0.63191,1.2063,-9.3968,6.4412,-0.64412,-6.5385,8.3175,-4.5752,8.8462
1.761,2.0317,5.2033,-0.06472,3.268,23.153999,2.5765,-8.438,26.472,-0.06472,3.268,-1.9802,-2.5276,-0.06349,-8.7619,7.7295,0.64412,-10.385,7.6825,-6.5359,8.2051
-7.044,8.381,1.3008,-0.71197,-1.9608,-5.4634,1.2882,-5.2174,-3.9482,-0.71197,-1.9608,-13.201,-4.4234,3.1111,-11.302,12.882,1.2882,-5.2564,8.9524,-9.1503,13.333
-5.1572,9.6508,1.9512,1.877,1.3072,7.5447,5.153,-7.7939,7.055,1.877,1.3072,-5.9406,-6.3191,-0.06349,-10.032,10.95,0.0,-12.308,8.9524,-11.765,8.8462
4.9057,13.46,5.2033,7.055,15.033,-23.024,25.121,4.4444,7.7023,7.055,15.033,8.5809,-5.0553,-3.873,-5.5873,9.0177,-0.64412,-11.026,15.302,-9.8039,6.9231
15.597,16.635,16.910999,3.1715,17.646999,-4.813,29.629999,9.5974,8.3495,3.1715,17.646999,19.142,-2.5276,-0.69841,5.2063,9.6618,6.4412,6.2821,10.857,-4.5752,4.359
23.774,13.46,22.114,19.353001,18.954,32.910999,16.103001,3.8003,16.764,19.353001,18.954,23.761999,0.63191,1.2063,9.0159,11.594,9.6618,5.0,8.3175,-1.9608,1.7949
11.195,10.286,21.462999,18.058001,23.528999,35.512001,24.476999,14.106,24.531,18.058001,23.528999,29.042999,1.2638,1.8413,9.0159,10.95,11.594,-2.6923,8.3175,-1.9608,4.359
23.145,19.809999,22.764,23.882999,25.49,32.259998,34.138,26.344999,6.4078,23.882999,25.49,36.964001,5.6872,3.1111,17.27,11.594,14.171,14.615,4.5079,5.2288,-0.12821
20.0,3.9365,13.008,18.705999,18.301001,45.918999,12.238,7.0209,19.353001,18.705999,18.301001,31.023001,1.8957,-1.9683,15.365,3.2206,8.3736,10.128,1.9683,7.1895,-6.5385
18.742001,5.8413,16.26,17.410999,15.686,3.6423,14.171,5.0886,6.4078,17.410999,15.686,27.063,7.5829,-1.3333,17.27,6.4412,13.527,10.769,-6.2857,6.5359,-3.9744
13.711,7.746,16.26,34.887001,16.993,15.35,11.594,27.632999,-10.421,34.887001,16.993,20.462,10.111,3.746,17.905001,5.7971,15.459,6.9231,-5.0159,9.8039,-4.6154
6.1635,-1.1429,10.407,19.353001,11.765,12.748,13.527,10.886,21.294001,19.353001,11.765,15.842,8.2148,5.6508,12.19,1.2882,10.95,-2.0513,-0.57143,7.1895,-3.3333
1.1321,-10.032,0.65041,-6.5372,2.6144,10.146,-1.9324,-0.06441,-6.5372,-6.5372,2.6144,9.2409,9.4787,5.6508,9.6508,-1.2882,7.0853,10.769,-7.5556,8.4967,-4.6154
8.6792,-2.4127,1.9512,12.233,1.3072,-3.5122,-4.5089,5.0886,3.1715,12.233,1.3072,1.3201,14.534,9.4603,15.365,3.8647,10.95,10.128,-3.1111,15.686,-1.4103
7.4214,-1.1429,5.2033,-0.71197,-0.65359,8.1951,-6.4412,-3.285,-5.89,-0.71197,-0.65359,-1.3201,14.534,12.0,9.6508,6.4412,10.95,3.7179,1.3333,11.765,1.1538
9.3082,19.174999,11.707,-6.5372,1.3072,0.39024,16.747,-5.2174,-24.013,-6.5372,1.3072,3.9604,15.166,14.54,14.095,11.594,14.815,12.051,3.873,18.301001,6.9231
-4.5283,2.0317,3.252,-7.1845,-1.3072,-19.122,-7.0853,-9.0821,13.528,-7.1845,-1.3072,-7.2607,12.006,12.635,5.2063,7.0853,8.3736,-1.4103,3.873,8.4967,7.5641
-10.818,-8.127,-3.252,-2.6537,0.65359,-10.016,-11.594,-14.879,15.469,-2.6537,0.65359,-8.5809,8.8468,11.365,-4.9524,2.5765,1.9324,-20.641001,3.873,4.5752,6.9231
-7.673,-6.2222,-3.9024,-18.188,-6.5359,1.0407,-14.815,-7.1498,-17.540001,-18.188,-6.5359,-7.9208,5.0553,6.2857,-4.9524,0.64412,-1.2882,6.9231,3.873,5.8824,1.1538
-12.704,-3.6825,-7.1545,-11.068,-3.9216,4.9431,-10.306,-21.965,-22.070999,-11.068,-3.9216,-7.9208,4.4234,8.8254,-8.7619,-1.2882,-5.153,4.359,-4.381,-1.9608,1.1538
-9.5597,-3.0476,-9.7561,-14.951,-9.8039,-24.325001,-9.0177,-16.167,1.2298,-14.951,-9.8039,-16.502001,6.951,9.4603,-3.0476,-0.64412,-4.5089,-11.026,-1.2063,2.6144,-0.76923
15.597,9.6508,0.0,-7.8317,-9.8039,16.0,0.0,-38.712002,-7.1845,-7.8317,-9.8039,-8.5809,12.638,13.905,7.746,6.4412,5.153,-7.1795,7.6825,5.8824,8.8462
-7.673,-2.4127,-9.7561,-13.01,-16.34,-6.1138,-16.747,10.242,2.5243,-13.01,-16.34,-22.441999,4.4234,6.9206,3.3016,-1.9324,-2.5765,-2.0513,-2.4762,7.1895,2.4359
-14.591,-18.921,-17.561001,-20.129,-16.993,-41.886002,-25.764999,-1.3527,-7.8317,-20.129,-16.993,-27.723,-0.63191,1.2063,-7.4921,-12.882,-10.95,2.4359,-4.381,-1.9608,-5.8974
-12.075,-10.032,-16.26,-14.951,-15.686,-10.016,-9.6618,-11.659,-22.070999,-14.951,-15.686,-19.142,-3.7915,-0.69841,-10.032,-10.95,-13.527,-21.923,-8.8254,-8.4967,-9.7436
-16.478001,-6.8571,-14.309,-8.479,-3.268,-4.813,-10.306,3.1562,9.644,-8.479,-3.268,-12.541,-6.951,0.57143,-11.937,-7.7295,-12.238,3.7179,-5.6508,-9.1503,-2.6923
-10.818,0.12698,-9.1057,-8.479,-3.268,2.3415,2.5765,-11.014,-7.1845,-8.479,-3.268,-6.6007,-6.951,1.2063,-13.841,-3.8647,-9.6618,7.5641,4.5079,-8.4967,1.1538
-3.8994,3.9365,-3.9024,-10.421,3.9216,-6.1138,16.747,-7.1498,31.65,-10.421,3.9216,0.66007,-3.7915,3.746,-4.9524,0.0,-3.8647,-3.9744,8.3175,-2.6144,1.1538
-0.75472,-0.50794,-5.2033,-11.068,-1.9608,16.0,3.8647,-25.184999,-11.068,-11.068,-1.9608,-1.3201,-6.3191,-0.69841,-5.5873,-3.2206,-3.8647,12.051,3.2381,-1.9608,1.1538
-13.333,-6.8571,-10.407,-7.8317,-11.765,-37.984001,-12.238,-0.06441,-6.5372,-7.8317,-11.765,-17.162001,-7.5829,-1.9683,-11.937,-5.7971,-8.3736,0.51282,-3.1111,-9.8039,-1.4103
-10.818,-13.841,-10.407,-10.421,-11.765,-11.317,-12.238,8.3092,-3.9482,-10.421,-11.765,-11.881,-6.3191,-1.3333,-12.571,-7.0853,-9.6618,-19.358999,0.06349,-7.1895,-3.9744
-12.704,-11.937,-10.407,-9.1262,-10.458,15.35,-18.035,-3.285,-1.3592,-9.1262,-10.458,-8.5809,-9.4787,-3.873,-13.206,-7.7295,-10.95,1.1538,-0.57143,-7.1895,-3.9744
-2.0126,-5.5873,-5.2033,-14.951,-2.6144,-17.820999,1.2882,-1.9968,-0.06472,-14.951,-2.6144,-2.6403,-10.111,-4.5079,-8.7619,-5.153,-7.7295,7.5641,-0.57143,-7.8431,1.1538
-3.2704,-7.4921,-7.1545,3.8188,-3.268,13.398,-1.9324,-3.285,4.466,3.8188,-3.268,-1.9802,-8.2148,-3.2381,-8.7619,-5.7971,-9.0177,-9.7436,1.9683,-5.2288,-2.6923
-10.189,-7.4921,-9.7561,-9.7735,-1.3072,-31.48,-5.153,-7.7939,-9.1262,-9.7735,-1.3072,-6.6007,-10.111,-6.4127,-13.841,-10.306,-13.527,-9.1026,1.3333,-7.8431,-0.76923
-11.447,-4.9524,-7.1545,-5.2427,-7.1895,-0.91057,-7.7295,-6.5056,-0.06472,-5.2427,-7.1895,-5.2805,-10.111,-7.0476,-11.937,-10.306,-13.527,0.51282,-2.4762,-3.9216,-2.6923
3.0189,7.746,7.1545,10.939,8.4967,12.748,25.764999,-2.6409,-6.5372,10.939,8.4967,11.881,-3.1596,-2.6032,-2.4127,-2.5765,-3.2206,-0.76923,7.0476,-0.65359,3.7179
9.3082,3.9365,9.1057,-5.89,9.8039,-2.8618,1.2882,17.971001,20.646999,-5.89,9.8039,13.201,0.63191,-0.69841,5.8413,-1.9324,1.2882,3.0769,4.5079,1.9608,-2.6923
14.969,4.5714,13.008,-17.540001,3.268,21.202999,0.0,-5.8615,10.291,-17.540001,3.268,21.782,5.0553,0.57143,12.19,3.2206,8.3736,11.41,5.1429,5.8824,6.2821
16.226,20.444,16.910999,22.589001,11.765,15.35,18.035,10.886,2.5243,22.589001,11.765,18.482,5.0553,3.746,12.825,10.306,11.594,3.0769,7.6825,3.9216,5.0
13.711,26.794001,20.163,32.298,20.261,28.358,17.391001,17.971001,17.410999,32.298,20.261,22.441999,5.6872,4.381,16.0,16.103001,16.103001,8.8462,11.492,5.2288,8.2051
14.969,17.905001,20.163,11.586,12.418,21.854,9.6618,0.57971,6.4078,11.586,12.418,22.441999,4.4234,1.8413,14.095,16.103001,16.747,4.359,10.222,3.268,7.5641
14.969,16.0,15.61,18.705999,10.458,-5.4634,5.7971,11.53,3.8188,18.705999,10.458,10.561,1.2638,0.57143,12.825,13.527,14.815,-5.2564,8.3175,2.6144,4.359
17.483999,17.905001,17.561001,3.8188,3.268,10.146,10.306,13.462,16.117001,3.8188,3.268,12.541,2.5276,0.57143,14.73,16.103001,18.035,19.103001,8.9524,7.1895,6.2821
8.0503,11.556,9.1057,1.2298,-1.3072,2.9919,1.9324,-3.9291,-13.657,1.2298,-1.3072,3.3003,-1.2638,-5.1429,5.8413,8.3736,10.95,1.1538,-5.0159,1.9608,-7.8205
8.0503,2.0317,4.5528,-6.5372,-2.6144,8.1951,-6.4412,-3.285,-4.5955,-6.5372,-2.6144,-1.3201,0.63191,-5.7778,5.8413,3.2206,8.3736,10.769,-5.0159,4.5752,-3.9744
11.195,4.5714,7.8049,-2.6537,2.6144,-10.016,3.8647,1.868,8.9968,-2.6537,2.6144,-1.3201,6.3191,-0.69841,10.921,8.3736,12.882,9.4872,1.9683,9.8039,3.7179
-7.673,-3.0476,-3.9024,0.58252,-4.5752,-23.024,-7.7295,-11.014,-0.06472,0.58252,-4.5752,-12.541,1.2638,-3.2381,-2.4127,1.2882,3.2206,5.641,-8.8254,1.3072,-3.3333
-13.962,-5.5873,-8.4553,-14.951,-9.8039,12.748,-9.6618,-17.455999,-23.365999,-14.951,-9.8039,-13.201,6.951,4.381,-1.1429,3.2206,3.8647,-5.2564,-9.4603,7.1895,-0.12821
-10.189,-8.7619,-13.008,-4.5955,-9.1503,-21.724001,-18.68,-7.1498,-14.951,-4.5955,-9.1503,-17.822001,6.951,3.1111,-1.7778,0.64412,1.2882,-2.6923,-9.4603,1.3072,-1.4103
-14.591,-13.206,-17.561001,-0.71197,-8.4967,-42.536999,-3.8647,0.57971,-29.837999,-0.71197,-8.4967,-19.142,1.2638,-5.1429,-4.3175,-6.4412,-3.8647,-3.9744,-15.175,1.3072,-11.026
-9.5597,-18.921,-14.959,-7.1845,-7.8431,-1.561,-21.9,-8.438,-7.8317,-7.1845,-7.8431,-18.482,0.0,-6.4127,-3.6825,-9.0177,-4.5089,-5.8974,-16.444,-0.65359,-11.026
-14.591,-27.174999,-21.462999,-20.777,-20.261,-19.122,-31.562,-10.37,-18.188,-20.777,-20.261,-25.743,-8.2148,-15.937,-10.667,-16.747,-11.594,-25.128,-22.794001,-7.1895,-21.282
-7.673,-17.016001,-11.057,-4.5955,-9.8039,-20.423,-8.3736,-8.438,-19.482,-4.5955,-9.8039,-14.521,-1.8957,-7.6825,-4.9524,-8.3736,-3.2206,6.2821,-18.349001,-3.268,-10.385
-8.3019,-11.302,-9.7561,-3.9482,-15.033,-9.3659,-17.391001,-1.9968,-7.8317,-3.9482,-15.033,-13.861,0.63191,-1.3333,-4.3175,-6.4412,-4.5089,10.128,-12.0,-2.6144,-7.8205
0.50314,-0.50794,-3.252,-2.6537,-0.65359,-6.1138,5.153,10.242,-2.0065,-2.6537,-0.65359,1.3201,0.0,-1.9683,-3.6825,-3.8647,-3.8647,3.0769,-8.1905,-3.9216,-6.5385
-10.818,-6.8571,-11.707,0.58252,-11.111,-4.1626,-9.0177,-1.9968,-10.421,0.58252,-11.111,-7.2607,-10.111,-8.3175,-12.571,-11.594,-12.882,-9.1026,-14.54,-11.111,-12.949
1.1321,-11.937,-4.5528,-2.6537,-10.458,-2.8618,-9.0177,7.0209,-3.9482,-2.6537,-10.458,-4.6205,-6.951,-8.9524,-3.6825,-7.7295,-6.4412,4.359,-13.905,-3.268,-12.308
7.4214,-4.9524,0.65041,-1.3592,-13.072,-2.2114,-10.306,16.039,-13.01,-1.3592,-13.072,-5.9406,-6.3191,-3.873,5.2063,-2.5765,0.0,22.308001,-13.27,3.268,-11.667
5.5346,-4.3175,-3.252,-9.7735,-20.915001,11.447,-12.882,7.0209,-19.482,-9.7735,-20.915001,-8.5809,-9.4787,-5.7778,-1.1429,-3.8647,-2.5765,10.128,-11.365,-5.2288,-11.026
16.855,-7.4921,-4.5528,-9.1262,-7.1895,4.2927,-10.95,-1.9968,-4.5955,-9.1262,-7.1895,-1.9802,-9.4787,-8.3175,1.3968,-5.7971,-2.5765,11.41,-6.2857,-3.268,-7.8205
6.1635,6.4762,-3.252,14.175,1.3072,-6.7642,0.0,28.921,-3.301,14.175,1.3072,1.9802,-9.4787,-6.4127,1.3968,-1.9324,-1.2882,12.692,1.3333,-1.9608,-1.4103
1.761,3.9365,1.3008,20.646999,7.1895,-9.3659,14.815,20.548,21.294001,20.646999,7.1895,13.201,-10.111,-5.1429,-1.7778,-0.64412,-0.64412,5.0,8.3175,-3.9216,1.1538
4.2767,8.381,8.4553,5.1133,3.9216,34.862,5.7971,14.106,20.0,5.1133,3.9216,15.842,-6.951,-1.9683,0.7619,7.0853,4.5089,-3.9744,17.841,-2.6144,6.9231
9.3082,14.095,12.358,-0.06472,5.8824,25.106001,12.882,14.75,-0.06472,-0.06472,5.8824,15.842,-6.3191,-2.6032,4.5714,9.0177,6.4412,13.333,16.570999,3.268,6.2821
11.195,7.746,9.1057,8.9968,5.2288,23.153999,10.95,9.5974,13.528,8.9968,5.2288,18.482,-8.2148,-7.6825,2.6667,5.153,2.5765,-6.5385,12.127,-1.9608,2.4359
20.629,9.6508,13.659,-9.1262,14.379,23.153999,16.747,3.8003,16.117001,-9.1262,14.379,21.122,-1.2638,0.57143,9.0159,7.0853,6.4412,12.692,14.667,1.9608,8.8462
8.0503,4.5714,4.5528,9.644,1.3072,-3.5122,7.0853,10.886,5.1133,9.644,1.3072,8.5809,2.5276,3.1111,7.1111,5.7971,3.8647,10.128,15.302,7.1895,9.4872
0.50314,-1.7778,-1.9512,24.531,12.418,-3.5122,2.5765,12.818,6.4078,24.531,12.418,3.3003,2.5276,1.2063,3.3016,3.2206,1.2882,-1.4103,10.857,7.1895,10.128
-3.2704,2.6667,-6.5041,9.644,11.111,-21.724001,8.3736,-2.6409,-0.06472,9.644,11.111,3.3003,1.8957,2.4762,-4.3175,1.2882,-5.7971,-4.6154,8.3175,2.6144,8.2051
-17.107,-7.4921,-18.862,3.8188,5.2288,-14.569,-4.5089,3.1562,3.8188,3.8188,5.2288,-3.3003,-4.4234,-3.873,-16.381001,-7.0853,-15.459,-9.7436,8.9524,-5.8824,6.9231
-13.333,-15.746,-16.26,3.8188,5.8824,32.259998,-8.3736,2.5121,8.3495,3.8188,5.8824,1.9802,-0.63191,-0.06349,-12.571,-9.0177,-14.815,-0.76923,6.4127,-1.3072,5.0
-23.396,-24.635,-24.065001,1.877,-1.3072,0.39024,-12.882,-7.7939,-11.068,1.877,-1.3072,-11.221,-8.2148,-6.4127,-24.0,-19.323999,-24.476999,-21.282,-11.365,-9.1503,-3.9744
-22.138,-20.190001,-19.511999,7.7023,-6.5359,-18.472,-18.68,5.0886,-7.8317,7.7023,-6.5359,-17.822001,-3.1596,-1.9683,-22.094999,-14.171,-19.323999,1.1538,-7.5556,-4.5752,-0.12821
-15.22,-12.571,-11.707,9.644,1.3072,6.2439,-7.0853,7.0209,-4.5955,9.644,1.3072,-7.9208,-2.5276,-1.3333,-19.556,-13.527,-18.68,0.51282,-8.8254,-5.2288,1.1538
-13.962,-15.746,-13.659,-1.3592,-3.268,-15.22,-14.815,-1.3527,-11.068,-1.3592,-3.268,-13.861,-2.5276,-3.2381,-16.381001,-16.103001,-16.747,-10.385,-8.8254,-5.2288,-2.0513
-1.3836,-12.571,-7.1545,-2.6537,-6.5359,-27.577,-14.815,-10.37,-1.3592,-2.6537,-6.5359,-12.541,1.2638,3.746,-3.0476,-12.882,-9.0177,-7.1795,-6.9206,3.9216,2.4359
-10.818,-17.650999,-10.407,-5.89,-7.8431,13.398,-19.968,1.868,-14.304,-5.89,-7.8431,-13.201,-1.2638,-0.06349,-9.3968,-18.035,-12.882,-3.3333,-13.27,-5.2288,-2.0513
-15.22,-17.016001,-8.4553,-3.9482,-10.458,-8.065,-18.035,-4.5733,-17.540001,-3.9482,-10.458,-14.521,-5.6872,-4.5079,-11.937,-18.68,-13.527,-5.2564,-16.444,-7.8431,-9.1026
-7.673,-7.4921,-1.9512,-20.129,-9.1503,-27.577,-7.0853,-8.438,-2.6537,-20.129,-9.1503,-11.881,-5.0553,-2.6032,-6.8571,-10.95,-9.0177,-9.1026,-9.4603,-5.2288,-2.0513
-13.333,-15.111,-10.407,-9.7735,-17.646999,-16.52,-23.188,-12.947,-15.599,-9.7735,-17.646999,-22.441999,-5.6872,-4.5079,-10.667,-13.527,-9.6618,-20.0,-13.27,-9.8039,-7.1795
2.3899,-0.50794,-3.252,-2.0065,-8.4967,-8.7154,-6.4412,-13.591,-20.129,-2.0065,-8.4967,-13.861,1.2638,0.57143,-0.50794,-4.5089,0.0,-0.12821,-12.0,0.65359,-5.2564
-4.5283,-6.2222,-3.252,-18.188,-11.765,-5.4634,-14.815,-7.7939,-2.0065,-18.188,-11.765,-12.541,3.7915,1.2063,2.6667,-3.2206,1.9324,-1.4103,-6.9206,1.3072,-2.6923
-9.5597,-8.7619,-1.3008,-7.8317,-9.8039,-7.4146,-6.4412,-19.388,-0.71197,-7.8317,-9.8039,-8.5809,1.8957,-2.6032,-1.1429,-5.153,0.64412,1.1538,-8.1905,-1.9608,-9.1026
6.7925,0.12698,9.7561,-21.424,-9.1503,-13.919,-7.0853,-21.965,-5.2427,-21.424,-9.1503,-5.2805,6.3191,1.8413,7.746,1.2882,7.0853,-14.231,-9.4603,2.6144,-3.9744
4.9057,6.4762,12.358,-6.5372,0.65359,-5.4634,0.64412,-11.014,-7.8317,-6.5372,0.65359,3.9604,11.374,6.2857,8.381,8.3736,11.594,0.51282,-8.1905,6.5359,0.51282
-2.0126,3.3016,0.0,-13.01,-9.1503,-11.967,5.153,-13.591,-2.0065,-13.01,-9.1503,-3.3003,10.742,3.746,4.5714,5.7971,7.7295,-4.6154,-4.381,9.8039,-1.4103
-11.447,-6.8571,-9.7561,-16.893,-13.725,-4.813,-13.527,-12.947,-11.715,-16.893,-13.725,-10.561,10.742,8.1905,-1.7778,2.5765,3.2206,-4.6154,-3.746,1.3072,3.0769
-3.8994,2.0317,-0.65041,-7.1845,-5.8824,-0.26016,0.0,-8.438,9.644,-7.1845,-5.8824,-1.9802,9.4787,10.095,0.12698,6.4412,5.153,4.359,1.3333,1.3072,4.359
-3.8994,-0.50794,1.9512,-5.89,-3.9216,8.1951,3.8647,3.8003,12.88,-5.89,-3.9216,3.9604,3.1596,3.746,-2.4127,0.64412,0.64412,-4.6154,-5.6508,-1.3072,-3.3333
-17.107,-5.5873,-11.707,-7.1845,-8.4967,-14.569,-5.7971,-0.70853,-17.540001,-7.1845,-8.4967,-5.9406,-8.8468,-5.7778,-17.016001,-9.0177,-14.171,-16.153999,-13.905,-13.072,-6.5385
-6.4151,-16.381001,-12.358,-7.8317,-6.5359,0.39024,-13.527,-3.285,-10.421,-7.8317,-6.5359,-6.6007,-5.0553,-1.9683,-11.937,-9.6618,-12.882,-6.5385,-6.9206,-10.458,-3.3333
-5.7862,-9.3968,-11.707,0.58252,-3.9216,-2.2114,-2.5765,-0.70853,-12.362,0.58252,-3.9216,-7.2607,-4.4234,-0.06349,-7.4921,-6.4412,-9.6618,-2.6923,1.3333,-7.1895,3.0769
-2.6415,-1.7778,-8.4553,12.233,-0.65359,6.8943,-1.2882,1.2238,5.1133,12.233,-0.65359,0.0,-5.6872,-1.3333,-7.4921,-3.2206,-7.7295,3.7179,-1.8413,-5.8824,-2.0513
8.0503,0.7619,1.3008,8.3495,6.5359,11.447,9.6618,14.106,21.294001,8.3495,6.5359,6.6007,-1.8957,2.4762,-3.0476,0.64412,-3.2206,2.4359,7.6825,-5.2288,5.0
-3.8994,7.746,2.6016,14.822,11.765,2.3415,24.476999,15.395,16.117001,14.822,11.765,6.6007,-5.6872,-1.3333,-8.7619,0.0,-6.4412,-0.76923,8.3175,-10.458,3.7179
0.50314,3.3016,0.65041,7.7023,5.8824,19.252001,6.4412,3.8003,4.466,7.7023,5.8824,4.6205,-5.6872,-5.1429,-9.3968,-5.7971,-9.0177,-2.6923,3.873,-7.1895,-3.9744
-4.5283,1.3968,0.65041,5.1133,7.8431,12.748,7.7295,16.039,17.410999,5.1133,7.8431,5.9406,-7.5829,-4.5079,-11.302,-6.4412,-9.6618,-3.3333,2.6032,-7.8431,-1.4103
6.7925,12.19,12.358,15.469,18.301001,29.659,23.833,3.8003,19.353001,15.469,18.301001,16.502001,-1.8957,1.2063,-2.4127,1.9324,-1.2882,6.2821,13.397,-2.6144,6.2821
0.50314,6.4762,6.5041,1.877,5.8824,-7.4146,12.882,0.57971,5.1133,1.877,5.8824,10.561,-5.0553,-5.7778,-7.4921,-3.8647,-7.7295,-9.7436,4.5079,-5.8824,-5.8974
6.1635,14.73,12.358,7.055,10.458,23.153999,22.544001,-3.285,16.764,7.055,10.458,19.142,-1.2638,0.57143,-1.7778,3.8647,0.64412,-3.3333,9.5873,-3.268,0.51282
5.5346,5.8413,7.1545,11.586,1.9608,27.707001,2.5765,19.903,-7.8317,11.586,1.9608,3.9604,-2.5276,-3.2381,1.3968,0.64412,0.64412,12.692,-4.381,-1.3072,-5.2564
5.5346,-2.4127,3.9024,0.58252,2.6144,7.5447,-4.5089,12.818,-6.5372,0.58252,2.6144,1.3201,-4.4234,-1.9683,2.0317,1.2882,1.9324,5.641,0.69841,-4.5752,-2.0513
-2.6415,3.3016,0.0,14.175,1.9608,-2.8618,-4.5089,3.8003,2.5243,14.175,1.9608,1.3201,-6.3191,-3.873,-0.50794,3.2206,0.0,-4.6154,0.06349,-4.5752,-0.76923
4.9057,11.556,9.1057,9.644,8.4967,6.8943,10.95,8.9533,-0.71197,9.644,8.4967,10.561,-2.5276,-1.9683,3.9365,8.3736,5.7971,0.51282,7.6825,-1.3072,1.7949
10.566,17.27,17.561001,12.88,17.646999,17.301001,16.747,5.0886,5.7605,12.88,17.646999,16.502001,2.5276,5.0159,9.6508,10.95,11.594,6.2821,10.222,0.65359,5.641
14.34,20.444,18.211,15.469,15.033,7.5447,14.815,7.6651,9.644,15.469,15.033,13.201,3.7915,5.6508,12.19,10.306,12.238,-2.6923,9.5873,1.9608,4.359
8.6792,7.746,11.057,0.58252,9.1503,0.39024,11.594,-7.7939,8.9968,0.58252,9.1503,7.9208,1.2638,0.57143,3.9365,2.5765,5.7971,-11.667,8.3175,-1.9608,-1.4103
13.082,9.6508,11.707,5.1133,14.379,10.797,23.833,-1.3527,3.1715,5.1133,14.379,13.201,5.0553,6.2857,7.746,3.8647,6.4412,1.7949,5.1429,0.65359,1.7949
5.5346,12.825,13.659,4.466,17.646999,25.756001,16.747,4.4444,20.0,4.466,17.646999,15.842,3.1596,3.746,6.4762,6.4412,7.0853,-0.76923,10.222,1.3072,3.0769
12.453,14.73,17.561001,7.7023,15.686,-0.26016,18.68,9.5974,17.410999,7.7023,15.686,17.822001,2.5276,5.0159,8.381,8.3736,9.6618,-7.8205,10.222,3.268,5.0
9.9371,8.381,9.7561,1.2298,15.686,1.6911,20.612,6.3768,0.58252,1.2298,15.686,13.861,-2.5276,-3.2381,3.3016,3.8647,3.8647,10.128,8.3175,2.6144,1.7949
5.5346,6.4762,4.5528,7.055,16.34,24.455,10.95,2.5121,19.353001,7.055,16.34,17.162001,-3.7915,-3.873,2.0317,1.2882,1.2882,13.974,5.1429,1.3072,-4.6154
8.6792,2.0317,3.252,18.058001,18.954,15.35,7.0853,6.3768,9.644,18.058001,18.954,18.482,-6.3191,-6.4127,0.12698,-1.2882,-1.2882,3.0769,1.3333,-0.65359,-4.6154
13.082,12.825,9.1057,21.941999,22.222,25.106001,12.238,11.53,5.7605,21.941999,22.222,23.101999,-1.8957,-5.7778,6.4762,7.0853,3.8647,8.8462,5.7778,3.9216,-1.4103
9.9371,7.1111,7.8049,25.177999,20.261,14.699,13.527,19.259001,14.175,25.177999,20.261,21.122,-1.2638,-2.6032,7.1111,3.2206,3.2206,19.103001,9.5873,7.8431,1.1538
1.761,-1.1429,0.65041,21.941999,14.379,20.552999,4.5089,19.259001,9.644,21.941999,14.379,9.901,-2.5276,-6.4127,0.7619,-0.64412,-2.5765,9.4872,8.9524,0.0,-1.4103
8.0503,10.286,4.5528,18.705999,15.686,6.2439,8.3736,17.327,3.1715,18.705999,15.686,11.881,1.8957,-0.69841,4.5714,3.8647,1.9324,4.359,9.5873,3.9216,-0.12821
8.6792,7.1111,4.5528,10.939,14.379,29.007999,16.103001,7.6651,-2.6537,10.939,14.379,15.182,-0.63191,-2.6032,5.8413,2.5765,1.2882,8.2051,0.69841,6.5359,-5.2564
1.1321,3.3016,2.6016,11.586,11.765,14.699,1.9324,-1.9968,4.466,11.586,11.765,5.9406,-2.5276,-5.7778,2.6667,1.9324,-0.64412,1.1538,3.873,0.0,-0.12821
2.3899,8.381,1.9512,7.7023,10.458,0.39024,9.6618,2.5121,32.298,7.7023,10.458,3.9604,1.8957,1.8413,7.1111,4.5089,3.8647,5.0,12.127,1.9608,6.2821
-1.3836,-4.9524,-6.5041,-4.5955,3.268,-6.7642,-6.4412,-16.812,-3.301,-4.5955,3.268,-7.2607,-1.2638,0.57143,3.9365,0.0,1.2882,-24.487,-0.57143,-1.3072,1.1538
4.9057,11.556,6.5041,9.644,7.8431,-23.024,7.7295,-1.9968,-3.301,9.644,7.8431,0.66007,6.3191,6.9206,12.19,12.882,12.238,10.769,5.7778,6.5359,6.2821
8.6792,12.825,14.309,8.3495,11.111,12.098,16.103001,1.2238,21.294001,8.3495,11.111,7.2607,11.374,10.73,15.365,17.391001,17.391001,-3.3333,12.762,9.8039,11.41
10.566,16.635,17.561001,-5.2427,7.8431,9.4959,7.7295,-9.7262,8.9968,-5.2427,7.8431,6.6007,12.006,12.0,16.0,16.747,16.747,-4.6154,4.5079,8.4967,13.333
13.711,10.286,15.61,-13.01,1.3072,-3.5122,4.5089,-13.591,-3.9482,-13.01,1.3072,3.9604,12.006,12.0,15.365,14.815,16.103001,8.2051,1.9683,12.418,10.128
4.2767,-3.6825,3.252,-14.304,-10.458,4.9431,-5.7971,-12.947,2.5243,-14.304,-10.458,-7.9208,3.1596,2.4762,5.8413,2.5765,5.7971,-6.5385,-5.0159,1.9608,-0.12821
3.0189,1.3968,3.252,-5.2427,-5.8824,-21.724001,-1.2882,-2.6409,-7.1845,-5.2427,-5.8824,-7.9208,5.6872,3.746,7.746,3.2206,5.7971,1.7949,-4.381,7.1895,2.4359
-2.0126,-4.3175,1.3008,-8.479,-4.5752,-4.813,-5.153,-3.9291,-10.421,-8.479,-4.5752,-4.6205,-0.63191,-5.1429,2.0317,-2.5765,0.0,5.0,-1.8413,3.9216,-0.76923
-3.8994,3.9365,6.5041,0.58252,1.9608,-8.065,6.4412,-8.438,10.939,0.58252,1.9608,3.9604,-0.63191,-1.3333,3.9365,1.2882,1.9324,5.0,2.6032,3.268,-0.12821
-1.3836,15.365,5.8537,3.1715,5.8824,9.4959,34.138,16.039,-13.657,3.1715,5.8824,10.561,-1.2638,-2.6032,2.0317,4.5089,1.9324,3.0769,1.9683,1.9608,-0.12821
3.0189,2.0317,-2.6016,1.2298,-3.9216,-4.813,-9.6618,11.53,7.7023,1.2298,-3.9216,-5.9406,-5.6872,-8.3175,3.9365,0.0,-1.2882,9.4872,-3.1111,0.65359,-11.026
5.5346,-8.7619,-1.3008,7.055,1.3072,5.5935,-13.527,12.174,4.466,7.055,1.3072,-1.9802,-6.3191,-8.9524,5.2063,-2.5765,0.64412,4.359,3.2381,0.65359,-4.6154
10.566,-2.4127,1.3008,12.88,3.268,14.699,0.64412,21.191999,-2.6537,12.88,3.268,1.3201,-2.5276,-7.6825,11.556,-0.64412,2.5765,8.8462,1.3333,5.2288,-5.2564
8.6792,-8.7619,-5.2033,7.055,5.2288,-10.016,-7.7295,9.5974,-2.6537,7.055,5.2288,-4.6205,-6.951,-10.222,5.8413,-7.7295,-3.2206,24.872,-3.746,0.65359,-8.4615
-3.2704,-17.016001,-15.61,-8.479,-8.4967,-6.1138,-23.188,-4.5733,-7.1845,-8.479,-8.4967,-14.521,-7.5829,-10.857,1.3968,-11.594,-9.0177,5.641,-3.746,1.3072,-8.4615
-4.5283,-13.841,-14.959,-1.3592,-9.1503,-15.87,-16.103001,-0.06441,-10.421,-1.3592,-9.1503,-15.182,-3.7915,-7.6825,0.12698,-9.6618,-7.7295,1.7949,-2.4762,-1.9608,-6.5385
1.1321,-4.3175,-5.2033,-9.7735,-5.8824,-26.927,-9.6618,-3.285,-10.421,-9.7735,-5.8824,-4.6205,0.0,-5.7778,5.2063,-2.5765,-1.2882,1.1538,-0.57143,0.65359,-2.6923
3.0189,2.6667,-2.6016,-5.89,-3.9216,7.5447,5.7971,-9.0821,-13.657,-5.89,-3.9216,-5.9406,-0.63191,-1.3333,5.2063,1.2882,1.2882,-1.4103,0.69841,3.9216,1.7949
-2.0126,3.3016,-0.65041,-7.1845,-10.458,10.797,-7.7295,-1.3527,-6.5372,-7.1845,-10.458,-2.6403,-2.5276,-1.3333,3.3016,1.2882,0.0,-0.76923,3.873,0.65359,1.7949
-5.1572,-6.8571,-1.9512,-2.0065,-9.1503,12.748,-11.594,7.0209,-8.479,-2.0065,-9.1503,0.66007,-5.6872,-7.0476,0.12698,-2.5765,-3.2206,-2.6923,-1.2063,0.65359,-3.3333
3.0189,-1.7778,-1.9512,-0.06472,-3.268,3.6423,3.8647,-4.5733,2.5243,-0.06472,-3.268,3.9604,-5.0553,-3.873,1.3968,-2.5765,-4.5089,-9.7436,4.5079,0.65359,1.7949
-4.5283,-0.50794,-6.5041,-14.304,-5.2288,-6.7642,-7.0853,-16.812,1.877,-14.304,-5.2288,-3.9604,-3.7915,-2.6032,-1.1429,-1.9324,-4.5089,-0.76923,6.4127,0.65359,3.7179
-1.3836,6.4762,-1.3008,-11.715,-0.65359,-5.4634,-1.9324,-10.37,-3.9482,-11.715,-0.65359,-1.3201,0.0,1.8413,0.7619,5.153,1.2882,-0.76923,7.6825,1.9608,5.641
-2.0126,2.0317,-1.9512,-5.2427,-5.2288,-16.52,-8.3736,-14.235,7.055,-5.2427,-5.2288,-5.9406,-1.8957,0.57143,-2.4127,3.2206,-1.2882,-3.3333,6.4127,-1.9608,4.359
-1.3836,5.8413,2.6016,5.7605,4.5752,-14.569,1.9324,-0.70853,6.4078,5.7605,4.5752,-0.66007,-1.2638,0.57143,-0.50794,7.0853,1.9324,-31.538,6.4127,-2.6144,7.5641
-8.3019,1.3968,-3.252,-13.01,-2.6144,-0.91057,-5.7971,-0.70853,3.1715,-13.01,-2.6144,-0.66007,-1.2638,4.381,-3.6825,1.2882,-1.2882,6.2821,7.6825,-1.3072,3.7179
-2.0126,0.12698,0.65041,1.877,7.1895,7.5447,0.64412,-6.5056,20.646999,1.877,7.1895,5.2805,2.5276,2.4762,-1.1429,-1.2882,1.2882,6.9231,5.7778,-0.65359,2.4359
-7.673,5.2063,3.252,8.3495,4.5752,5.5935,6.4412,5.0886,-2.6537,8.3495,4.5752,1.3201,5.0553,3.746,0.12698,2.5765,3.8647,-13.59,3.873,0.65359,2.4359
-7.673,-4.3175,-0.65041,-5.2427,1.9608,-18.472,-1.2882,-11.014,2.5243,-5.2427,1.9608,-3.3003,1.8957,1.2063,-3.0476,-2.5765,1.2882,-10.385,1.9683,-1.9608,-0.12821
-2.0126,5.2063,3.9024,-2.0065,-1.9608,19.902,-1.9324,-10.37,2.5243,-2.0065,-1.9608,3.3003,5.6872,2.4762,0.12698,0.0,3.2206,-6.5385,-6.2857,1.9608,-3.3333
-3.2704,0.7619,7.1545,-8.479,1.9608,-2.2114,9.6618,-21.965,-7.1845,-8.479,1.9608,7.2607,5.0553,0.57143,2.0317,-0.64412,4.5089,-20.641001,-7.5556,1.3072,-4.6154
5.5346,0.7619,9.1057,-11.068,-6.5359,-24.325001,-0.64412,-21.965,4.466,-11.068,-6.5359,0.66007,8.8468,0.57143,12.19,5.7971,10.95,-0.76923,-8.1905,7.1895,-2.6923
6.1635,13.46,13.659,-2.6537,-4.5752,9.4959,0.64412,-0.70853,-4.5955,-2.6537,-4.5752,5.2805,15.166,9.4603,16.635,14.171,17.391001,8.8462,-2.4762,14.379,7.5641
8.6792,5.8413,14.309,-5.2427,-1.9608,2.9919,1.9324,-12.303,-24.66,-5.2427,-1.9608,9.2409,14.534,10.73,18.540001,14.815,19.323999,10.128,-3.1111,11.765,8.2051
18.113001,14.73,20.163,1.2298,-1.3072,7.5447,4.5089,4.4444,-2.6537,1.2298,-1.3072,17.162001,18.325001,15.175,24.889,24.476999,25.764999,3.0769,1.3333,15.686,12.692
9.9371,11.556,14.959,-0.06472,-2.6144,12.098,-1.2882,8.3092,-13.657,-0.06472,-2.6144,11.221,18.957001,16.444,20.444,23.188,22.544001,-16.153999,0.69841,13.725,13.974
10.566,6.4762,11.707,-3.301,-6.5359,6.2439,-3.2206,-3.9291,-11.068,-3.301,-6.5359,7.2607,17.694,14.54,19.809999,23.188,22.544001,13.974,2.6032,13.072,13.974
11.195,4.5714,7.1545,-0.71197,-6.5359,-2.2114,-0.64412,-3.285,-26.601999,-0.71197,-6.5359,1.9802,15.798,15.175,16.0,18.035,17.391001,5.641,-1.2063,11.765,12.051
6.7925,-0.50794,2.6016,-0.71197,-12.418,1.6911,-14.171,-1.9968,-11.068,-0.71197,-12.418,-4.6205,13.27,15.175,10.286,12.238,12.238,4.359,-0.57143,9.1503,8.8462
-3.2704,-0.50794,-3.9024,-1.3592,-7.1895,-2.8618,-9.6618,14.75,-6.5372,-1.3592,-7.1895,-5.2805,10.111,13.27,5.2063,10.95,7.7295,14.615,3.2381,9.1503,12.051
-2.0126,5.8413,-7.1545,2.5243,-9.1503,-13.268,-5.7971,1.2238,-10.421,2.5243,-9.1503,-5.9406,6.951,13.27,3.3016,11.594,5.153,-1.4103,1.3333,3.9216,10.128
-4.5283,-7.4921,-9.7561,-10.421,-12.418,8.8455,-12.238,-8.438,-7.1845,-10.421,-12.418,-9.2409,4.4234,8.8254,1.3968,4.5089,2.5765,-2.6923,0.06349,0.65359,6.9231
-4.5283,-13.206,-12.358,-12.362,-18.301001,-6.7642,-21.256001,-17.455999,-13.01,-12.362,-18.301001,-17.822001,5.0553,7.5556,2.0317,1.2882,1.2882,-1.4103,-5.0159,2.6144,5.0
-3.8994,-4.9524,-6.5041,5.1133,-0.65359,-14.569,-10.306,5.7327,-5.89,5.1133,-0.65359,-5.9406,5.6872,10.095,0.12698,1.9324,2.5765,-12.308,1.9683,1.3072,11.41
-13.962,-11.937,-14.309,-7.1845,-6.5359,-0.91057,-19.968,1.868,-14.304,-7.1845,-6.5359,-13.201,-2.5276,0.57143,-8.127,-7.7295,-7.7295,-3.3333,-3.1111,-7.1895,3.0769
-12.704,-0.50794,-9.7561,-4.5955,-2.6144,-25.625999,-2.5765,-7.7939,1.2298,-4.5955,-2.6144,-9.901,-4.4234,-0.06349,-9.3968,-1.9324,-4.5089,1.7949,2.6032,-5.8824,4.359
-14.591,-4.9524,-13.008,-13.01,-9.8039,-14.569,-2.5765,-5.2174,1.2298,-13.01,-9.8039,-14.521,-5.0553,-2.6032,-10.667,-2.5765,-5.7971,-15.513,-1.2063,-8.4967,-0.76923
-8.3019,-6.2222,-8.4553,-13.01,-11.765,-13.268,-15.459,-7.1498,-7.1845,-13.01,-11.765,-17.822001,-1.2638,-0.69841,-5.5873,0.64412,-1.2882,-1.4103,2.6032,-5.8824,2.4359
4.2767,4.5714,5.8537,-5.89,-5.8824,7.5447,0.0,-8.438,3.1715,-5.89,-5.8824,-1.9802,-0.63191,-5.1429,2.6667,3.8647,5.7971,3.0769,-2.4762,-4.5752,-3.3333
2.3899,2.6667,4.5528,-12.362,0.0,4.2927,-0.64412,-7.1498,0.58252,-12.362,0.0,-6.6007,0.63191,-3.873,3.9365,3.8647,7.0853,-4.6154,-3.1111,-2.6144,-5.8974
5.5346,14.095,9.7561,1.2298,2.6144,-14.569,11.594,-9.0821,20.0,1.2298,2.6144,-4.6205,10.111,3.746,10.286,14.171,16.747,-3.9744,6.4127,3.268,3.0769
9.9371,13.46,14.959,-3.9482,1.3072,-0.91057,10.306,14.75,11.586,-3.9482,1.3072,1.3201,13.902,5.6508,16.0,16.103001,21.256001,1.1538,0.06349,7.1895,0.51282
