C3,C4,Cz,F1,F2,F3,F4,F7,F8,Fp1,Fp2,Fz,O1,O2,P3,P4,Pz,T3,T4,T5,T6
-0.06319,0.7619,4.5528,4.4444,4.6205,6.2783,2.6016,2.5121,2.5243,4.4444,4.6205,6.4706,-1.9048,5.0399,-3.1111,4.5307,2.5765,-0.12882,1.9589,-12.418,3.0918
-0.06319,0.12698,3.9024,5.7327,4.6205,5.6311,1.3008,-0.70853,3.8188,5.7327,4.6205,5.1634,-1.9048,4.4019,-3.1111,2.589,0.0,-5.2818,3.2227,-6.5359,3.7359
-2.5908,7.746,3.252,10.242,5.9406,6.9256,3.9024,5.7327,3.8188,10.242,5.9406,7.1242,-1.9048,3.764,-2.4762,1.9417,-1.2882,-1.4171,4.4866,-6.5359,5.0242
-1.327,2.0317,-1.3008,5.7327,1.3201,4.9838,0.0,5.0886,3.1715,5.7327,1.3201,3.2026,-4.4444,-0.70175,-3.746,-3.8835,-6.4412,-3.9936,3.2227,-3.9216,0.5153
-1.9589,-3.0476,-5.2033,-0.06441,-2.6403,1.1003,-4.5528,-0.70853,0.58252,-0.06441,-2.6403,-1.3725,-8.254,-6.4434,-6.9206,-10.356,-12.238,-4.6377,0.06319,-3.268,-4.6377
-6.3823,-2.4127,-4.5528,-1.3527,-3.9604,-4.0777,-3.252,2.5121,-0.71197,-1.3527,-3.9604,-2.0261,-12.063,-9.6332,-9.4603,-12.945,-14.815,1.8035,-1.2006,-5.8824,-5.9259
5.624,-0.50794,1.9512,1.2238,-0.66007,0.45307,0.65041,1.868,0.58252,1.2238,-0.66007,1.8954,-10.794,-9.6332,-4.381,-9.7087,-9.6618,0.5153,0.06319,-4.5752,-4.6377
6.8878,-1.1429,5.2033,1.868,1.9802,3.0421,2.6016,-0.70853,1.2298,1.868,1.9802,3.8562,-6.9841,-7.7193,1.9683,-4.5307,-3.8647,-3.3494,-0.56872,1.9608,-2.7053
0.56872,6.4762,5.2033,-3.285,0.0,-1.4887,2.6016,-5.2174,-1.3592,-3.285,0.0,1.2418,-2.5397,-4.5295,0.69841,1.2945,0.64412,1.8035,-2.4645,1.3072,-1.4171
-6.3823,4.5714,1.9512,-4.5733,0.66007,-5.3722,1.9512,-4.5733,-0.71197,-4.5733,0.66007,-1.3725,4.4444,1.8501,1.3333,6.4725,5.7971,1.8035,-3.0964,0.65359,-0.12882
-7.6461,7.1111,3.9024,-0.06441,1.9802,-2.7832,6.5041,0.57971,4.466,-0.06441,1.9802,1.8954,12.063,10.144,6.4127,14.887,12.882,1.8035,4.4866,5.2288,6.3124
7.5197,18.540001,11.707,5.0886,5.2805,5.6311,12.358,1.868,5.7605,5.0886,5.2805,7.7778,16.507999,15.247,13.397,20.065001,18.68,-0.12882,7.0142,11.111,9.533
18.893999,10.921,13.659,4.4444,9.901,8.2201,11.057,-7.1498,8.9968,4.4444,9.901,9.085,15.238,16.523001,14.032,19.417,18.68,-1.4171,7.6461,11.765,10.177
3.7283,3.9365,6.5041,1.868,7.2607,1.7476,5.8537,-4.5733,5.1133,1.868,7.2607,4.5098,8.254,12.057,5.1429,14.239,11.594,-2.0612,5.7504,3.268,8.8889
1.2006,3.9365,1.9512,0.57971,1.9802,-0.84142,1.3008,-7.7939,3.8188,0.57971,1.9802,0.58824,3.1746,7.5917,0.69841,10.356,4.5089,-9.1465,5.7504,0.65359,8.8889
-12.07,-1.1429,-6.5041,-3.9291,-2.6403,-7.3139,-3.9024,-7.7939,1.2298,-3.9291,-2.6403,-5.9477,-5.7143,-0.0638,-11.365,1.2945,-6.4412,-5.9259,3.2227,-3.268,5.0242
-16.493,-3.0476,-8.4553,-3.285,1.3201,-4.0777,-2.6016,-1.9968,4.466,-3.285,1.3201,-3.9869,-8.8889,-4.5295,-17.714001,-5.178,-12.882,-0.12882,1.327,-4.5752,0.5153
-10.806,1.3968,-4.5528,0.57971,3.3003,2.3948,3.252,1.2238,5.7605,0.57971,3.3003,2.549,-8.254,-6.4434,-14.54,-9.7087,-14.815,-4.6377,1.9589,-0.65359,-1.4171
6.2559,1.3968,0.0,-0.70853,0.66007,6.2783,3.9024,-4.5733,2.5243,-0.70853,0.66007,5.817,-7.619,-7.7193,-10.73,-12.945,-15.459,-3.9936,1.9589,-3.9216,-3.9936
0.56872,0.7619,0.0,-0.06441,-1.9802,3.0421,1.9512,3.1562,-1.3592,-0.06441,-1.9802,5.1634,-5.0794,-8.3573,-6.2857,-13.592,-14.171,2.4477,-3.0964,3.9216,-7.2142
2.4645,-8.7619,-2.6016,-1.3527,-3.3003,1.1003,-3.9024,-0.06441,-3.9482,-1.3527,-3.3003,1.2418,0.63492,-8.3573,1.9683,-12.945,-9.6618,5.6683,-5.624,5.2288,-8.5024
11.311,-10.032,-1.3008,-1.9968,-2.6403,4.3366,-4.5528,-2.6409,-5.89,-1.9968,-2.6403,1.2418,8.8889,-3.2536,10.222,-7.1197,-1.2882,8.2448,-6.2559,10.458,-7.8583
11.311,-1.7778,1.3008,2.5121,-0.66007,5.6311,0.65041,6.3768,-3.301,2.5121,-0.66007,3.8562,15.873,2.488,14.667,0.0,5.7971,8.2448,-7.5197,18.301001,-5.2818
-2.5908,3.3016,-0.65041,5.0886,1.9802,2.3948,6.5041,7.0209,-1.3592,5.0886,1.9802,5.817,14.603,4.4019,7.0476,2.589,6.4412,5.6683,-3.7283,13.725,-3.3494
-3.2227,4.5714,1.3008,7.0209,7.9208,6.2783,13.659,1.868,2.5243,7.0209,7.9208,11.699,11.429,6.3158,1.3333,5.8252,7.7295,1.8035,0.06319,3.9216,-0.12882
-3.8547,3.9365,3.9024,3.8003,10.561,3.0421,13.659,-0.70853,5.1133,3.8003,10.561,10.392,10.159,8.8676,1.3333,9.0615,10.95,-1.4171,0.6951,0.0,2.4477
-0.06319,8.381,9.1057,-0.70853,6.6007,-2.7832,10.407,-7.7939,6.4078,-0.70853,6.6007,6.4706,11.429,13.333,6.4127,16.181,18.035,-0.12882,5.7504,-0.65359,7.6006
2.4645,11.556,9.1057,-7.7939,0.0,-12.492,3.9024,-14.879,5.7605,-7.7939,0.0,-2.6797,12.063,16.523001,8.9524,22.006001,21.9,-7.2142,9.5419,-2.6144,11.465
-4.4866,7.746,3.252,-12.947,-1.9802,-15.728,-2.6016,-18.1,4.466,-12.947,-1.9802,-9.2157,12.063,15.247,8.9524,20.712,19.323999,-9.1465,7.6461,9.1503,10.177
-17.125,2.0317,-6.5041,-11.659,-3.9604,-15.728,-5.8537,-11.014,-0.06472,-11.659,-3.9604,-11.83,1.2698,6.3158,-5.0159,11.65,5.153,-4.6377,1.9589,-3.268,5.6683
-9.5419,-6.2222,-11.707,-8.438,-4.6205,-11.845,-6.5041,-5.2174,-2.6537,-8.438,-4.6205,-9.8693,-8.254,-5.1675,-12.0,-2.589,-9.6618,-3.3494,-3.7283,-11.111,-0.77295
-10.806,-7.4921,-14.309,-4.5733,-2.6403,-7.3139,-5.2033,-0.70853,-3.301,-4.5733,-2.6403,-6.6013,-14.603,-16.650999,-14.54,-16.181,-21.9,-2.7053,-5.624,-5.8824,-7.2142
-6.3823,-11.937,-13.659,-1.3527,-1.3201,-4.0777,-7.1545,1.868,-3.9482,-1.3527,-1.3201,-6.6013,-17.143,-24.306,-10.73,-25.243,-27.052999,1.8035,-6.2559,-4.5752,-12.367
2.4645,-20.190001,-12.358,0.57971,-1.9802,1.7476,-10.407,5.7327,-3.301,0.57971,-1.9802,-7.2549,-14.603,-26.219999,-5.0159,-27.832001,-25.121,8.8889,-8.1517,-1.3072,-14.3
5.624,-15.746,-12.358,-0.70853,-7.2607,1.7476,-12.358,6.3768,-3.9482,-0.70853,-7.2607,-10.523,-12.063,-23.667999,0.06349,-22.653999,-20.612,0.5153,-8.7836,1.3072,-13.655
-5.1185,-8.7619,-17.561001,-3.285,-11.221,-4.7249,-13.659,3.1562,-5.89,-3.285,-11.221,-14.444,-12.063,-19.841,-6.9206,-18.122999,-20.612,-0.12882,-8.1517,-0.65359,-11.723
-2.5908,-9.3968,-16.910999,-3.9291,-8.5809,-2.7832,-11.707,1.868,-3.301,-3.9291,-8.5809,-13.137,-9.5238,-12.185,-8.8254,-12.298,-16.103001,1.8035,-1.8325,-3.268,-6.57
-6.3823,-10.667,-15.61,-0.70853,-5.9406,-0.19417,-11.707,-0.06441,-2.6537,-0.70853,-5.9406,-12.484,-3.1746,-3.2536,-6.9206,-6.4725,-9.6618,5.0242,-1.8325,-2.6144,-2.7053
-7.0142,-9.3968,-11.707,-1.3527,-5.9406,-6.0194,-12.358,1.868,-5.2427,-1.3527,-5.9406,-14.444,1.9048,3.126,-0.57143,-0.64725,-0.64412,-6.57,-3.7283,-1.9608,-0.77295
-1.9589,-1.1429,-1.9512,-0.06441,-5.9406,-6.0194,-7.1545,2.5121,-4.5955,-0.06441,-5.9406,-10.523,5.7143,8.2297,3.2381,8.4142,10.306,-3.9936,-1.8325,2.6144,3.7359
-7.6461,1.3968,1.3008,1.868,-0.66007,-5.3722,-3.252,-0.70853,-1.3592,1.868,-0.66007,-7.2549,5.0794,8.8676,2.6032,11.65,14.815,-0.77295,-0.56872,-4.5752,4.38
-1.327,1.3968,4.5528,2.5121,1.3201,-4.0777,-1.9512,-0.70853,-0.71197,2.5121,1.3201,-3.3333,6.3492,10.144,7.0476,13.592,18.68,-6.57,1.9589,-5.2288,5.6683
2.4645,0.7619,7.1545,3.1562,1.9802,-0.19417,1.3008,0.57971,-0.06472,3.1562,1.9802,0.58824,5.0794,8.8676,7.6825,12.298,17.391001,-0.77295,4.4866,-6.5359,6.9565
6.2559,2.6667,11.057,4.4444,3.9604,2.3948,5.2033,3.1562,0.58252,4.4444,3.9604,4.5098,2.5397,5.6778,8.9524,9.7087,14.815,1.8035,3.2227,-3.268,5.6683
8.1517,2.0317,11.057,0.57971,0.0,1.1003,4.5528,3.1562,-2.0065,0.57971,0.0,3.2026,-0.63492,1.8501,7.0476,5.8252,10.95,1.8035,0.6951,-5.8824,2.4477
23.948999,11.556,16.910999,4.4444,3.9604,10.162,9.7561,5.7327,0.58252,4.4444,3.9604,9.085,3.8095,2.488,14.032,7.1197,12.238,6.3124,3.2227,0.65359,3.7359
18.261999,4.5714,10.407,3.8003,3.3003,8.2201,3.9024,6.3768,-4.5955,3.8003,3.3003,6.4706,4.4444,-1.9777,14.032,1.9417,7.7295,8.2448,-1.2006,3.9216,-0.77295
13.839,-8.127,2.6016,0.57971,-0.66007,3.0421,-4.5528,4.4444,-7.8317,0.57971,-0.66007,1.8954,5.0794,-6.4434,13.397,-3.8835,3.8647,6.3124,-3.7283,6.5359,-2.7053
9.4155,-9.3968,0.0,2.5121,0.0,3.6893,-5.2033,7.6651,-6.5372,2.5121,0.0,2.549,5.0794,-8.9952,12.762,-6.4725,1.9324,5.0242,-8.1517,9.1503,-7.2142
6.8878,-9.3968,0.65041,3.1562,0.0,4.3366,-3.9024,6.3768,-4.5955,3.1562,0.0,5.1634,3.8095,-8.9952,8.9524,-7.767,1.2882,4.38,-8.1517,5.8824,-9.1465
8.1517,-7.4921,1.3008,0.57971,1.9802,4.9838,-2.6016,4.4444,-2.6537,0.57971,1.9802,4.5098,6.9841,-3.2536,8.3175,-3.8835,3.2206,8.2448,-3.7283,6.5359,-3.9936
2.4645,-4.9524,-1.9512,-2.6409,-1.9802,0.45307,-5.2033,-0.70853,-3.9482,-2.6409,-1.9802,-1.3725,10.159,3.764,5.7778,0.64725,5.7971,5.6683,-4.9921,7.8431,-2.0612
-0.06319,-7.4921,-5.8537,-5.8615,-8.5809,-6.0194,-10.407,-6.5056,-7.1845,-5.8615,-8.5809,-8.5621,11.429,9.5056,1.9683,3.8835,5.7971,-3.9936,-3.0964,0.0,1.1594
4.3602,-4.9524,-3.9024,-7.7939,-9.901,-6.6667,-9.1057,-8.438,-5.89,-7.7939,-9.901,-8.5621,9.5238,12.695,-0.57143,5.8252,4.5089,-5.9259,-2.4645,-1.9608,3.7359
-3.2227,-1.1429,-0.65041,-4.5733,-7.2607,-2.7832,-4.5528,-1.3527,-5.89,-4.5733,-7.2607,-4.6405,6.3492,12.695,-4.381,7.1197,2.5765,-2.7053,-0.56872,-2.6144,5.0242
13.839,11.556,10.407,-0.06441,-1.9802,5.6311,3.252,4.4444,-4.5955,-0.06441,-1.9802,3.8562,6.9841,15.885,5.7778,12.945,7.7295,-13.011,3.8547,0.65359,10.821
10.679,5.2063,11.057,-2.6409,-3.9604,6.2783,2.6016,-4.5733,-1.3592,-2.6409,-3.9604,3.8562,0.63492,12.057,0.06349,11.65,7.0853,-4.6377,5.7504,-3.9216,10.821
-5.7504,0.7619,5.8537,-1.3527,-6.6007,-0.19417,-0.65041,-1.9968,-1.3592,-1.3527,-6.6007,-1.3725,-3.1746,8.8676,-2.4762,9.0615,5.153,4.38,3.8547,-3.9216,7.6006
-2.5908,2.6667,3.9024,0.57971,-3.3003,-2.7832,1.3008,-1.9968,-0.06472,0.57971,-3.3003,-0.71895,-3.1746,4.4019,2.6032,6.4725,4.5089,-2.7053,1.9589,-2.6144,3.7359
1.2006,3.9365,3.9024,3.1562,3.9604,2.3948,6.5041,-1.9968,2.5243,3.1562,3.9604,4.5098,-6.3492,-4.5295,1.3333,-1.2945,0.0,1.1594,-3.0964,-1.9608,-1.4171
2.4645,0.7619,5.8537,9.5974,8.5809,7.5728,11.707,10.242,3.8188,9.5974,8.5809,11.046,-8.254,-9.6332,1.3333,-6.4725,-3.8647,3.0918,-1.8325,-6.5359,-3.9936
4.3602,5.8413,9.7561,11.53,12.541,10.809,18.211,5.7327,8.3495,11.53,12.541,16.927999,-8.8889,-10.271,-1.8413,-3.8835,-4.5089,-2.7053,3.2227,-9.1503,-3.9936
6.2559,10.921,11.707,10.242,12.541,10.809,19.511999,5.7327,10.939,10.242,12.541,16.927999,-6.3492,-6.4434,-2.4762,2.589,-2.5765,-5.2818,4.4866,-9.1503,-0.77295
23.948999,14.73,11.707,7.0209,9.901,13.398,14.959,-1.9968,10.939,7.0209,9.901,14.314,-1.2698,0.57416,1.9683,9.0615,2.5765,-0.77295,7.0142,-7.1895,3.0918
22.054001,10.921,8.4553,5.0886,9.2409,10.162,10.407,3.1562,6.4078,5.0886,9.2409,10.392,7.619,8.8676,14.032,12.298,9.6618,-1.4171,5.7504,5.8824,5.6683
-5.7504,13.46,1.3008,0.57971,1.9802,-0.19417,5.8537,3.8003,-2.6537,0.57971,1.9802,4.5098,8.8889,10.144,7.6825,9.7087,8.3736,5.0242,-1.2006,1.9608,2.4477
8.7836,3.3016,7.8049,0.57971,0.0,7.5728,5.8537,-8.438,0.58252,0.57971,0.0,9.7386,11.429,12.057,8.3175,10.356,11.594,5.6683,1.9589,5.2288,2.4477
8.1517,0.12698,13.008,3.8003,1.3201,6.2783,5.2033,0.57971,0.58252,3.8003,1.3201,11.046,8.254,9.5056,5.1429,9.7087,11.594,1.8035,0.06319,-0.65359,1.1594
-1.9589,10.921,14.959,8.3092,5.2805,6.2783,9.7561,10.242,2.5243,8.3092,5.2805,11.699,6.9841,9.5056,0.69841,12.945,10.95,2.4477,3.2227,-2.6144,6.3124
2.4645,9.0159,11.707,3.8003,3.3003,6.9256,5.8537,2.5121,1.2298,3.8003,3.3003,7.7778,5.7143,7.5917,0.06349,11.003,9.0177,0.5153,4.4866,0.65359,6.3124
6.2559,3.3016,5.2033,-0.06441,-0.66007,3.0421,1.3008,-5.2174,-2.0065,-0.06441,-0.66007,3.8562,-0.63492,1.2121,-1.8413,3.2362,2.5765,-1.4171,-1.8325,-1.3072,1.1594
0.56872,-1.7778,0.0,3.8003,0.0,4.9838,1.9512,2.5121,-3.301,3.8003,0.0,3.8562,-6.9841,-6.4434,-4.381,-6.4725,-4.5089,1.8035,-3.7283,-1.3072,-2.0612
-5.1185,-9.3968,-0.65041,5.7327,3.3003,3.6893,3.252,5.0886,-3.301,5.7327,3.3003,5.1634,-12.698,-15.375,-6.2857,-17.476,-11.594,-0.12882,-5.624,-0.65359,-7.2142
-0.06319,-6.8571,4.5528,7.0209,5.9406,4.9838,7.8049,3.8003,1.2298,7.0209,5.9406,9.7386,-15.873,-18.565001,-5.6508,-17.476,-11.594,-1.4171,-5.624,1.9608,-7.8583
3.0964,-2.4127,5.8537,8.3092,5.2805,7.5728,8.4553,5.7327,3.1715,8.3092,5.2805,10.392,-14.603,-16.650999,-5.0159,-10.356,-8.3736,1.8035,-2.4645,-5.2288,-5.9259
-0.6951,4.5714,1.9512,5.0886,3.9604,5.6311,6.5041,3.1562,4.466,5.0886,3.9604,6.4706,-12.698,-12.185,-6.9206,-1.2945,-5.7971,0.5153,2.5908,-11.765,-2.7053
7.5197,9.0159,1.3008,1.2238,0.66007,2.3948,3.252,0.57971,1.2298,1.2238,0.66007,3.2026,-6.9841,-4.5295,-3.1111,7.1197,-0.64412,-5.9259,4.4866,-9.1503,-0.12882
-0.06319,9.0159,0.65041,-0.06441,3.9604,-1.4887,3.252,0.57971,0.58252,-0.06441,3.9604,1.8954,-2.5397,1.2121,-1.8413,9.0615,2.5765,-3.9936,2.5908,-8.4967,-0.12882
2.4645,8.381,5.2033,5.0886,3.9604,5.6311,3.9024,2.5121,2.5243,5.0886,3.9604,5.817,5.7143,7.5917,5.1429,10.356,7.7295,5.0242,1.327,-2.6144,1.1594
-0.06319,5.8413,4.5528,3.1562,-2.6403,0.45307,-1.9512,4.4444,-2.6537,3.1562,-2.6403,0.58824,7.619,6.9537,7.6825,7.767,7.7295,4.38,-2.4645,0.0,-0.77295
3.0964,0.7619,0.65041,-1.3527,-5.9406,-4.0777,-6.5041,2.5121,-3.9482,-1.3527,-5.9406,-4.6405,8.8889,5.6778,10.857,5.8252,7.7295,5.6683,-2.4645,3.9216,-0.12882
5.624,4.5714,-2.6016,-3.9291,-6.6007,-5.3722,-7.1545,1.2238,-7.1845,-3.9291,-6.6007,-6.6013,8.8889,3.764,14.032,4.5307,7.7295,-2.7053,-1.8325,8.4967,2.4477
1.8325,-6.8571,-8.4553,-5.8615,-4.6205,-7.3139,-11.057,-6.5056,-5.89,-5.8615,-4.6205,-9.8693,2.5397,-1.3397,3.2381,-3.2362,0.0,1.8035,-4.3602,1.9608,-1.4171
-9.5419,-13.841,-12.358,-3.9291,-4.6205,-7.9612,-11.057,-1.3527,-3.301,-3.9291,-4.6205,-9.8693,-1.9048,-5.1675,-5.6508,-9.7087,-7.0853,1.8035,-6.8878,0.65359,-4.6377
-14.597,-12.571,-9.7561,-4.5733,-5.2805,-8.6084,-7.1545,-1.3527,-3.9482,-4.5733,-5.2805,-7.9085,-2.5397,-6.4434,-8.1905,-15.534,-10.95,2.4477,-8.1517,7.1895,-7.8583
-4.4866,-17.016001,-7.1545,-4.5733,-1.9802,-6.0194,-6.5041,-0.70853,-0.71197,-4.5733,-1.9802,-3.9869,-3.8095,-7.7193,-5.6508,-20.712,-12.882,-0.77295,-8.7836,6.5359,-9.1465
2.4645,-17.016001,-6.5041,0.57971,0.66007,-0.84142,-4.5528,-4.5733,0.58252,0.57971,0.66007,-0.71895,-5.7143,-8.9952,-5.6508,-20.712,-13.527,-3.3494,-6.8878,0.65359,-7.2142
-16.493,-11.937,-10.407,0.57971,1.3201,-6.6667,-4.5528,-0.70853,-0.06472,0.57971,1.3201,-3.3333,-11.429,-13.461,-15.81,-20.712,-17.391001,-2.0612,-3.0964,-5.2288,-9.1465
-10.174,-1.1429,-1.3008,-0.70853,2.6403,-4.0777,1.9512,-1.9968,2.5243,-0.70853,2.6403,1.2418,-8.8889,-10.909,-11.365,-12.298,-9.6618,-7.2142,0.06319,-3.9216,-6.57
-6.3823,8.381,10.407,1.2238,5.2805,0.45307,7.8049,-4.5733,5.1133,1.2238,5.2805,7.1242,0.63492,-1.9777,-3.1111,1.9417,3.2206,-3.9936,5.7504,2.6144,1.1594
11.311,26.794001,24.715,7.0209,8.5809,10.809,15.61,-1.9968,8.9968,7.0209,8.5809,15.621,12.698,10.144,11.492,18.77,19.323999,-1.4171,12.07,9.1503,8.8889
10.047,23.618999,20.813,-1.3527,2.6403,3.6893,11.057,-7.7939,5.1133,-1.3527,2.6403,9.085,17.143,13.971,16.570999,23.948,24.476999,-3.3494,10.174,9.8039,10.177
-13.333,7.746,1.9512,-6.5056,-5.9406,-9.9029,0.0,-0.06441,-0.06472,-6.5056,-5.9406,-3.9869,12.698,10.781,5.7778,16.827999,16.103001,3.0918,6.3823,2.6144,7.6006
-3.2227,3.9365,-5.2033,-3.9291,-3.9604,-4.7249,-1.3008,-0.70853,0.58252,-3.9291,-3.9604,-3.3333,11.429,9.5056,5.1429,12.945,10.306,2.4477,5.7504,2.6144,6.9565
-2.5908,6.4762,-8.4553,-1.9968,0.0,-3.4304,0.65041,-0.70853,3.1715,-1.9968,0.0,-2.6797,8.254,7.5917,3.873,10.356,4.5089,-5.9259,5.7504,5.8824,6.3124
4.9921,2.0317,-9.1057,-1.9968,-2.6403,-0.84142,-2.6016,-3.285,1.877,-1.9968,-2.6403,-3.9869,3.8095,3.764,3.2381,4.5307,-1.2882,-8.5024,3.2227,1.9608,1.8035
-1.9589,-1.7778,-9.1057,-0.70853,-1.9802,-0.19417,-3.252,0.57971,-0.71197,-0.70853,-1.9802,-4.6405,2.5397,0.57416,0.69841,-2.589,-5.7971,1.8035,0.6951,1.9608,-2.0612
-7.6461,-12.571,-9.1057,1.2238,-0.66007,-0.19417,-6.5041,8.3092,-2.0065,1.2238,-0.66007,-3.9869,0.0,-3.8915,0.06349,-10.356,-8.3736,7.6006,-6.2559,3.268,-6.57
-9.5419,-18.921,-11.707,0.57971,-0.66007,-2.1359,-7.8049,4.4444,-2.0065,0.57971,-0.66007,-5.2941,-6.9841,-10.909,-5.6508,-18.122999,-14.171,7.6006,-10.047,-2.6144,-12.367
8.7836,-10.667,-5.8537,6.3768,3.3003,5.6311,-1.3008,2.5121,0.58252,6.3768,3.3003,2.549,-10.794,-12.185,-4.381,-18.77,-14.171,3.0918,-4.3602,-3.268,-9.1465
-1.327,-4.9524,-3.252,3.8003,3.9604,1.1003,0.65041,-1.3527,2.5243,3.8003,3.9604,2.549,-17.778,-14.099,-12.635,-18.77,-18.035,-2.0612,-1.2006,-8.4967,-6.57
-19.021,-4.9524,-5.2033,-1.9968,1.3201,-9.2557,-4.5528,-0.06441,-0.06472,-1.9968,1.3201,-4.6405,-24.761999,-15.375,-22.159,-17.476,-20.612,-5.2818,-5.624,-13.072,-6.57
2.4645,4.5714,1.3008,-3.9291,-0.66007,-8.6084,-5.2033,-5.8615,-2.0065,-3.9291,-0.66007,-5.2941,-17.778,-6.4434,-10.095,-6.4725,-10.306,-9.7907,0.06319,-9.1503,1.1594
-1.9589,0.12698,-1.3008,-9.0821,-5.9406,-11.197,-11.707,-14.235,-3.9482,-9.0821,-5.9406,-11.83,-9.5238,1.8501,-4.381,1.2945,-2.5765,-3.9936,3.8547,-7.8431,5.6683
-15.229,-8.127,-7.8049,-11.659,-10.561,-16.375,-18.862,-3.9291,-6.5372,-11.659,-10.561,-19.02,1.2698,10.144,0.06349,7.767,2.5765,0.5153,5.1185,1.3072,9.533
-2.5908,-7.4921,-9.1057,-12.303,-12.541,-11.845,-18.211,-7.7939,-7.8317,-12.303,-12.541,-18.365999,12.063,15.885,8.9524,11.65,7.0853,-3.9936,5.1185,9.1503,11.465
-14.597,-9.3968,-22.114,-15.523,-14.521,-18.964001,-18.211,-11.014,-7.8317,-15.523,-14.521,-22.288,11.429,14.609,0.06349,7.1197,0.64412,-2.0612,-2.4645,5.2288,6.9565
-15.861,-9.3968,-27.966999,-14.879,-15.182,-17.023001,-16.26,-9.0821,-8.479,-14.879,-15.182,-19.673,12.063,13.971,-5.0159,3.2362,-4.5089,1.8035,-2.4645,5.8824,4.38
-8.91,-1.7778,-18.862,-8.438,-8.5809,-7.9612,-7.1545,-7.7939,-5.2427,-8.438,-8.5809,-9.8693,15.238,15.247,-1.2063,3.8835,-1.9324,-9.7907,0.6951,8.4967,6.9565
-13.333,-2.4127,-8.4553,-2.6409,-1.9802,-0.84142,0.65041,-3.9291,-0.06472,-2.6409,-1.9802,-0.71895,11.429,11.419,-8.8254,1.9417,-2.5765,-9.1465,0.6951,4.5752,6.3124
-9.5419,-3.0476,-0.65041,1.868,0.0,4.9838,3.252,3.8003,1.877,1.868,0.0,3.2026,7.619,7.5917,-9.4603,0.0,-2.5765,-1.4171,-1.2006,5.2288,3.0918
-7.0142,-1.7778,2.6016,3.1562,0.0,3.0421,2.6016,3.8003,2.5243,3.1562,0.0,2.549,3.8095,1.8501,-6.2857,-1.9417,-1.9324,4.38,-0.56872,3.9216,-0.12882
-6.3823,-1.1429,3.252,-1.3527,-1.3201,-1.4887,-0.65041,3.8003,1.877,-1.3527,-1.3201,-2.0261,-1.9048,-5.1675,-5.0159,-5.178,-3.8647,3.0918,0.06319,0.0,-3.3494
0.56872,2.0317,3.252,-5.2174,-2.6403,-2.1359,-1.9512,-0.06441,1.877,-5.2174,-2.6403,-3.3333,-2.5397,-6.4434,0.69841,-3.8835,-3.8647,-3.3494,1.9589,7.8431,-0.77295
-1.9589,1.3968,-3.9024,-3.285,-1.9802,-3.4304,-3.252,-0.06441,1.877,-3.285,-1.9802,-4.6405,-5.7143,-8.3573,-1.8413,-5.8252,-8.3736,-3.3494,0.6951,1.3072,-2.0612
16.997999,9.0159,-0.65041,5.0886,6.6007,8.2201,5.8537,3.1562,7.055,5.0886,6.6007,5.817,-3.1746,-5.1675,4.5079,-2.589,-5.153,0.5153,5.1185,1.3072,-1.4171
36.588001,4.5714,1.9512,7.6651,13.861,17.282,11.057,-5.8615,11.586,7.6651,13.861,13.66,-3.1746,-5.1675,8.9524,-3.2362,-5.153,-0.12882,7.0142,3.268,-2.0612
-8.91,-1.7778,-7.8049,9.5974,17.162001,3.0421,9.7561,4.4444,10.939,9.5974,17.162001,7.7778,-12.063,-12.185,-6.2857,-11.65,-14.815,1.8035,3.2227,-9.1503,-7.8583
-31.659,-3.6825,-9.1057,10.242,13.861,-3.4304,7.8049,10.886,9.644,10.242,13.861,4.5098,-15.238,-13.461,-12.0,-11.65,-14.815,0.5153,1.327,-12.418,-9.1465
-1.9589,2.0317,4.5528,13.462,14.521,11.456,11.057,4.4444,8.9968,13.462,14.521,11.699,-8.8889,-3.8915,-2.4762,-1.9417,-2.5765,3.0918,1.9589,-9.1503,-3.3494
1.2006,9.0159,9.1057,13.462,13.861,10.809,11.707,10.886,8.9968,13.462,13.861,11.699,-3.1746,3.764,2.6032,6.4725,5.153,-4.6377,6.3823,-2.6144,2.4477
15.103,14.73,13.008,9.5974,11.221,9.5146,11.707,3.8003,10.291,9.5974,11.221,10.392,0.63492,10.144,7.6825,11.65,10.306,-5.2818,10.806,1.9608,6.3124
4.3602,8.381,5.8537,3.1562,5.9406,4.9838,5.8537,-2.6409,8.3495,3.1562,5.9406,3.2026,-3.1746,8.2297,-1.8413,7.1197,5.7971,1.8035,7.0142,-4.5752,4.38
-6.3823,-1.7778,-0.65041,-1.3527,-2.6403,-0.84142,-1.9512,-1.3527,1.2298,-1.3527,-2.6403,-3.3333,-4.4444,5.0399,-5.6508,0.64725,1.2882,1.8035,1.9589,-4.5752,2.4477
-5.1185,-5.5873,-3.252,-4.5733,-6.6007,-4.7249,-5.8537,-0.70853,-4.5955,-4.5733,-6.6007,-6.6013,-0.63492,4.4019,-0.57143,-3.2362,1.2882,3.0918,-2.4645,2.6144,1.1594
1.2006,-9.3968,-7.8049,-7.1498,-9.901,-4.7249,-12.358,-3.285,-7.8317,-7.1498,-9.901,-11.176,-1.2698,1.2121,0.06349,-6.4725,-1.9324,-2.0612,-4.3602,3.9216,-0.77295
7.5197,-1.7778,-4.5528,-3.9291,-7.9208,-1.4887,-9.1057,1.2238,-6.5372,-3.9291,-7.9208,-9.2157,0.63492,2.488,3.2381,-2.589,-0.64412,-5.2818,-1.2006,10.458,3.0918
-13.333,-1.7778,-9.7561,-9.7262,-15.842,-10.55,-13.008,-0.06441,-11.068,-9.7262,-15.842,-15.752,-6.9841,-3.2536,-12.635,-5.178,-8.3736,-0.77295,-5.624,-2.6144,1.1594
-15.229,-6.8571,-9.7561,-16.167,-18.482,-13.139,-14.959,-12.303,-13.01,-16.167,-18.482,-17.712,-8.254,-5.1675,-16.444,-7.1197,-9.6618,6.9565,-6.2559,-5.8824,-2.0612
-8.278,-8.7619,-5.8537,-14.235,-13.861,-12.492,-12.358,-8.438,-10.421,-14.235,-13.861,-14.444,-2.5397,-1.3397,-5.0159,-4.5307,-3.8647,6.3124,-4.3602,0.65359,-2.0612
-13.965,-8.127,-5.8537,-7.1498,-8.5809,-9.2557,-7.1545,5.0886,-6.5372,-7.1498,-8.5809,-9.2157,0.0,-0.0638,-2.4762,-2.589,-1.9324,5.0242,-3.7283,1.3072,-1.4171
11.943,1.3968,0.0,5.0886,1.3201,11.456,5.2033,5.0886,0.58252,5.0886,1.3201,6.4706,4.4444,3.764,5.7778,2.589,1.2882,5.0242,0.06319,10.458,1.8035
6.2559,3.9365,-1.9512,5.0886,5.2805,11.456,8.4553,9.5974,1.877,5.0886,5.2805,9.085,2.5397,2.488,3.873,3.2362,-1.2882,3.0918,0.06319,9.1503,-0.12882
13.839,5.8413,3.252,1.2238,7.2607,8.8673,8.4553,5.0886,3.8188,1.2238,7.2607,7.7778,3.8095,3.764,7.0476,7.1197,3.8647,1.1594,-1.8325,7.8431,-0.77295
-5.1185,2.0317,1.3008,-1.3527,7.2607,-0.84142,5.2033,5.0886,4.466,-1.3527,7.2607,1.2418,2.5397,3.764,0.69841,5.8252,3.8647,8.2448,-3.7283,-1.3072,-3.3494
-8.91,2.0317,1.9512,-2.6409,2.6403,-6.0194,1.9512,1.868,3.8188,-2.6409,2.6403,-3.3333,3.1746,3.764,1.3333,6.4725,7.0853,5.0242,0.06319,-1.9608,-0.77295
4.3602,0.7619,5.2033,-0.06441,1.9802,-2.1359,1.3008,-1.9968,1.877,-0.06441,1.9802,-2.0261,5.0794,5.6778,7.0476,6.4725,9.6618,-2.7053,0.6951,2.6144,-0.12882
-3.2227,-0.50794,3.252,2.5121,7.2607,1.7476,2.6016,0.57971,6.4078,2.5121,7.2607,1.2418,3.1746,4.4019,0.06349,3.8835,5.153,-0.12882,-0.56872,1.9608,-0.12882
-1.9589,-0.50794,3.9024,5.7327,7.2607,3.0421,1.9512,2.5121,5.7605,5.7327,7.2607,3.2026,-0.63492,0.57416,-3.746,0.0,1.2882,-2.7053,-0.56872,-4.5752,0.5153
-9.5419,-3.6825,-0.65041,1.2238,-3.3003,-3.4304,-4.5528,2.5121,-3.9482,1.2238,-3.3003,-2.6797,-5.7143,-5.1675,-8.1905,-6.4725,-3.8647,-1.4171,-3.7283,-9.1503,-2.0612
-5.1185,-7.4921,-1.3008,-1.9968,-8.5809,-2.7832,-7.1545,0.57971,-5.89,-1.9968,-8.5809,-3.9869,-4.4444,-4.5295,-3.746,-7.767,-2.5765,0.5153,-4.3602,-4.5752,-2.7053
20.790001,-5.5873,5.2033,1.2238,-2.6403,4.3366,-2.6016,-1.3527,-3.301,1.2238,-2.6403,2.549,2.5397,-0.70175,11.492,-4.5307,3.8647,-5.9259,-0.56872,3.9216,1.8035
11.943,-5.5873,2.6016,0.57971,-1.9802,3.0421,-2.6016,1.2238,-5.89,0.57971,-1.9802,1.8954,-0.63492,-5.8054,7.0476,-8.4142,-0.64412,-0.77295,-1.8325,3.268,-0.77295
-4.4866,-4.9524,-0.65041,2.5121,-3.9604,4.3366,-1.3008,8.9533,-5.2427,2.5121,-3.9604,2.549,-3.1746,-10.271,0.06349,-9.7087,-5.153,7.6006,-3.7283,2.6144,-5.2818
-3.2227,8.381,1.9512,-0.06441,-3.9604,2.3948,3.9024,4.4444,-3.301,-0.06441,-3.9604,3.2026,-3.1746,-8.3573,-1.8413,-5.178,-3.2206,6.3124,-2.4645,-1.3072,-4.6377
-3.8547,3.9365,2.6016,-3.285,-2.6403,-2.1359,3.252,-0.70853,-0.06472,-3.285,-2.6403,1.2418,-0.63492,-4.5295,-1.8413,-1.2945,-1.2882,3.0918,0.06319,4.5752,-2.0612
16.997999,5.2063,9.1057,-0.70853,1.9802,6.9256,5.8537,-2.6409,2.5243,-0.70853,1.9802,5.817,7.619,5.6778,8.9524,7.1197,8.3736,4.38,-0.56872,7.8431,1.1594
22.054001,9.0159,11.707,-0.70853,-0.66007,8.8673,7.1545,-1.3527,1.877,-0.70853,-0.66007,7.1242,15.873,15.885,17.841,16.827999,16.747,6.3124,3.2227,13.725,6.9565
5.624,5.8413,3.252,-5.2174,-7.9208,-2.1359,1.3008,3.1562,-4.5955,-5.2174,-7.9208,-1.3725,19.683001,17.799,16.570999,16.181,14.815,6.9565,1.9589,21.569,5.6683
-8.91,3.3016,-3.9024,-4.5733,-7.9208,-6.6667,-1.3008,4.4444,-4.5955,-4.5733,-7.9208,-4.6405,15.238,12.695,5.1429,10.356,7.0853,10.177,-1.8325,15.686,2.4477
-12.07,-0.50794,-7.8049,-4.5733,-1.9802,-4.7249,-1.3008,-1.9968,-0.06472,-4.5733,-1.9802,-4.6405,7.619,5.0399,-6.2857,2.589,-1.9324,6.3124,-4.3602,3.9216,-0.77295
-12.701,-1.7778,-7.8049,-2.6409,0.0,-2.7832,1.3008,-1.3527,1.2298,-2.6409,0.0,-3.3333,3.1746,-0.70175,-8.8254,-3.8835,-7.0853,-2.0612,-1.8325,0.0,-1.4171
-1.9589,2.0317,-1.9512,-0.06441,2.6403,1.1003,6.5041,-4.5733,4.466,-0.06441,2.6403,1.8954,-0.63492,-4.5295,-7.5556,-6.4725,-7.0853,-3.3494,2.5908,-1.9608,-1.4171
-1.327,-1.7778,-1.3008,1.868,4.6205,-0.19417,4.5528,-7.1498,5.7605,1.868,4.6205,1.8954,-6.3492,-8.9952,-8.8254,-10.356,-9.6618,-4.6377,-0.56872,-7.1895,-4.6377
13.207,0.7619,3.9024,3.8003,9.2409,3.0421,6.5041,-5.2174,8.9968,3.8003,9.2409,4.5098,-3.1746,-7.0813,1.3333,-7.1197,-4.5089,-10.435,2.5908,3.9216,-1.4171
-0.6951,2.0317,0.0,3.1562,6.6007,-1.4887,3.252,-1.3527,5.1133,3.1562,6.6007,1.8954,-6.9841,-9.6332,-2.4762,-8.4142,-6.4412,-7.2142,3.8547,-6.5359,-1.4171
-10.806,0.12698,-1.3008,2.5121,1.9802,-2.1359,1.3008,-0.06441,5.1133,2.5121,1.9802,-0.06536,-7.619,-8.3573,-5.0159,-7.767,-5.7971,-0.77295,3.2227,-11.765,-1.4171
3.0964,3.3016,4.5528,1.2238,2.6403,1.1003,3.252,-3.285,6.4078,1.2238,2.6403,3.2026,-3.1746,-1.9777,0.69841,0.0,0.0,-7.2142,4.4866,-5.8824,3.0918
-1.327,15.365,5.2033,1.2238,2.6403,2.3948,5.8537,-2.6409,0.58252,1.2238,2.6403,5.1634,-2.5397,1.2121,-1.8413,5.178,2.5765,-2.0612,5.7504,-4.5752,5.6683
-6.3823,3.3016,0.0,0.57971,-0.66007,3.0421,0.65041,3.1562,0.58252,0.57971,-0.66007,3.2026,-3.1746,-0.0638,-5.0159,2.589,0.0,0.5153,5.7504,-7.1895,4.38
8.1517,-5.5873,-1.3008,-1.3527,-1.9802,5.6311,-1.9512,-7.1498,1.2298,-1.3527,-1.9802,4.5098,1.9048,0.57416,2.6032,0.64725,1.2882,-5.2818,3.2227,0.0,1.8035
4.3602,-4.3175,-6.5041,-1.3527,-4.6205,0.45307,-3.9024,1.868,-2.0065,-1.3527,-4.6205,1.2418,1.9048,-2.6156,1.9683,-3.2362,-0.64412,-0.77295,-0.56872,0.65359,-2.7053
-12.07,-6.2222,-9.1057,-1.9968,-2.6403,-5.3722,-5.2033,6.3768,-4.5955,-1.9968,-2.6403,-1.3725,0.0,-5.1675,-1.8413,-5.178,-3.2206,4.38,-2.4645,1.3072,-5.2818
-13.333,-2.4127,-3.9024,-1.9968,-2.6403,-4.0777,-3.252,2.5121,-3.301,-1.9968,-2.6403,-0.71895,2.5397,-2.6156,-0.57143,-1.9417,-0.64412,2.4477,-3.7283,2.6144,-4.6377
-5.7504,2.0317,-1.9512,-3.285,-2.6403,-3.4304,-1.9512,-1.3527,-0.71197,-3.285,-2.6403,-0.71895,2.5397,-0.70175,-1.2063,-1.9417,-0.64412,2.4477,-3.0964,1.9608,-3.3494
0.56872,-2.4127,-4.5528,-1.9968,0.66007,-2.1359,-2.6016,-3.9291,1.2298,-1.9968,0.66007,-1.3725,1.9048,-0.70175,0.69841,-5.178,-3.8647,0.5153,-0.56872,5.8824,-0.77295
0.56872,-10.667,-9.7561,-1.9968,-0.66007,-2.1359,-4.5528,-2.6409,-0.71197,-1.9968,-0.66007,-3.9869,-1.9048,-3.2536,-1.2063,-11.003,-7.7295,-2.0612,-2.4645,-0.65359,-3.9936
3.0964,-11.302,-6.5041,0.57971,1.9802,2.3948,-2.6016,2.5121,-0.71197,0.57971,1.9802,-1.3725,-1.2698,-2.6156,-0.57143,-9.0615,-5.7971,-1.4171,-3.0964,-3.268,-3.9936
9.4155,-3.6825,3.252,4.4444,1.3201,7.5728,1.3008,2.5121,2.5243,4.4444,1.3201,3.8562,1.9048,2.488,5.1429,0.0,3.2206,-0.12882,0.6951,-1.9608,-0.12882
5.624,1.3968,7.8049,4.4444,1.3201,4.9838,1.9512,4.4444,3.8188,4.4444,1.3201,3.8562,1.9048,5.6778,5.7778,8.4142,9.6618,5.0242,2.5908,-5.2288,3.0918
14.471,9.0159,11.057,-0.70853,1.3201,1.7476,1.3008,-1.9968,3.1715,-0.70853,1.3201,1.2418,3.8095,8.8676,10.857,14.887,14.815,-3.3494,4.4866,-2.6144,6.9565
1.8325,2.0317,-3.252,-3.9291,-0.66007,-8.6084,-3.252,-7.1498,0.58252,-3.9291,-0.66007,-7.9085,-3.8095,2.488,0.06349,7.767,3.8647,-10.435,3.2227,-7.1895,5.0242
-22.18,-7.4921,-18.211,-4.5733,-3.3003,-15.081,-8.4553,-4.5733,-0.71197,-4.5733,-3.3003,-15.098,-12.063,-4.5295,-15.175,-1.9417,-8.3736,-5.2818,1.9589,-15.033,1.8035
-12.07,-6.2222,-14.959,-2.6409,-1.9802,-9.9029,-6.5041,-5.8615,1.2298,-2.6409,-1.9802,-11.83,-10.159,-2.6156,-12.0,-1.9417,-7.7295,-4.6377,1.327,-13.725,2.4477
1.2006,0.12698,-8.4553,0.57971,2.6403,-4.7249,-3.252,-7.1498,2.5243,0.57971,2.6403,-6.6013,-5.7143,0.57416,-7.5556,0.0,-4.5089,-9.7907,3.8547,-3.9216,4.38
-5.7504,1.3968,-9.1057,1.868,2.6403,-5.3722,-3.9024,-2.6409,-0.06472,1.868,2.6403,-6.6013,-7.619,-1.3397,-12.635,-0.64725,-7.7295,-9.1465,4.4866,-9.1503,3.0918
-11.438,-6.8571,-10.407,-1.3527,-1.3201,-2.7832,-7.1545,-11.014,-1.3592,-1.3527,-1.3201,-7.2549,-13.968,-7.0813,-22.159,-4.5307,-14.171,-6.57,1.327,-18.301001,-0.77295
-12.07,-3.6825,-6.5041,2.5121,0.66007,-1.4887,-1.3008,-2.6409,1.877,2.5121,0.66007,-3.9869,-10.159,-6.4434,-16.444,-3.8835,-10.306,-1.4171,1.327,-11.765,0.5153
-0.6951,3.3016,2.6016,4.4444,2.6403,1.7476,4.5528,5.7327,2.5243,4.4444,2.6403,0.58824,-1.9048,-1.9777,-1.8413,-1.2945,-1.9324,0.5153,1.327,-1.3072,1.1594
10.047,1.3968,11.057,2.5121,3.3003,3.0421,5.2033,5.0886,1.877,2.5121,3.3003,3.2026,5.7143,1.8501,11.492,1.2945,6.4412,-0.12882,1.327,6.5359,3.0918
8.1517,2.0317,13.008,-0.70853,-0.66007,1.1003,3.252,3.1562,-1.3592,-0.70853,-0.66007,1.8954,8.8889,3.764,12.127,3.2362,9.6618,5.6683,-1.2006,5.2288,1.8035
18.261999,5.2063,15.61,1.2238,-1.3201,6.2783,4.5528,1.2238,-1.3592,1.2238,-1.3201,4.5098,12.698,7.5917,16.570999,9.0615,15.459,5.6683,-1.8325,5.8824,3.0918
21.422001,4.5714,11.057,-0.70853,-1.3201,4.9838,2.6016,-5.2174,-1.3592,-0.70853,-1.3201,2.549,12.698,7.5917,18.476,10.356,15.459,-2.0612,0.6951,7.1895,3.0918
8.1517,3.3016,3.252,-4.5733,-3.9604,-0.19417,-0.65041,-4.5733,-3.9482,-4.5733,-3.9604,-1.3725,12.063,7.5917,14.032,7.767,9.6618,-0.12882,1.9589,8.4967,5.6683
-3.8547,0.7619,-0.65041,-2.6409,-5.2805,-1.4887,-1.9512,0.57971,-3.9482,-2.6409,-5.2805,-2.0261,9.5238,5.6778,6.4127,3.8835,3.8647,2.4477,0.6951,5.2288,5.0242
1.8325,-3.0476,1.9512,0.57971,-1.3201,1.7476,-0.65041,3.8003,-2.0065,0.57971,-1.3201,2.549,6.9841,4.4019,4.5079,2.589,2.5765,2.4477,1.327,3.9216,3.7359
6.8878,-1.1429,3.9024,5.0886,2.6403,7.5728,4.5528,7.0209,-0.71197,5.0886,2.6403,8.4314,5.0794,5.6778,3.873,3.2362,1.9324,-1.4171,1.327,3.268,3.0918
8.7836,2.6667,4.5528,7.0209,5.2805,15.987,7.8049,3.8003,-0.06472,7.0209,5.2805,13.66,2.5397,4.4019,-2.4762,3.8835,-0.64412,3.7359,0.06319,-1.3072,1.8035
9.4155,3.3016,7.1545,7.6651,8.5809,16.634001,10.407,3.1562,0.58252,7.6651,8.5809,16.275,1.2698,3.126,-5.0159,2.589,-1.9324,-0.12882,-1.2006,-3.9216,-0.12882
15.103,5.8413,13.008,8.3092,6.6007,19.871,11.057,-3.285,1.877,8.3092,6.6007,17.582001,3.8095,4.4019,-1.2063,4.5307,1.9324,4.38,0.6951,0.0,1.1594
6.8878,11.556,11.707,7.6651,2.6403,12.104,7.8049,8.9533,-3.9482,7.6651,2.6403,11.046,3.1746,3.126,3.873,5.178,4.5089,4.38,-0.56872,5.8824,2.4477
10.679,7.1111,11.057,5.7327,1.3201,4.3366,3.9024,5.7327,-2.6537,5.7327,1.3201,4.5098,1.9048,1.2121,10.222,5.178,7.7295,1.8035,1.327,3.268,1.8035
-0.06319,-1.1429,5.2033,0.57971,-1.9802,-2.1359,-0.65041,2.5121,1.877,0.57971,-1.9802,-0.71895,-0.63492,-1.3397,7.0476,4.5307,5.7971,7.6006,2.5908,0.0,-0.77295
-5.7504,0.7619,0.0,1.2238,-0.66007,-4.7249,-2.6016,5.0886,0.58252,1.2238,-0.66007,-3.3333,1.2698,-0.0638,7.6825,5.8252,5.7971,5.6683,2.5908,3.268,1.1594
6.2559,3.3016,2.6016,2.5121,1.9802,-0.84142,-0.65041,2.5121,-0.06472,2.5121,1.9802,-0.71895,4.4444,2.488,12.762,8.4142,9.6618,3.0918,1.327,5.8824,3.0918
6.2559,-1.1429,0.65041,1.868,1.3201,-1.4887,-4.5528,-0.06441,-1.3592,1.868,1.3201,-3.3333,5.0794,1.8501,11.492,5.8252,7.0853,-1.4171,-1.2006,4.5752,2.4477
8.1517,-1.7778,0.0,-0.70853,-1.3201,-2.7832,-5.8537,-2.6409,-3.9482,-0.70853,-1.3201,-5.9477,7.619,3.764,11.492,3.8835,6.4412,2.4477,-1.2006,7.8431,0.5153
-6.3823,-10.032,-8.4553,-8.438,-8.5809,-12.492,-12.358,-3.9291,-8.479,-8.438,-8.5809,-13.791,2.5397,-0.70175,0.06349,-5.178,-2.5765,3.7359,-7.5197,2.6144,-4.6377
-13.965,-15.746,-14.959,-9.0821,-8.5809,-16.375,-14.959,-3.9291,-9.7735,-9.0821,-8.5809,-15.752,-1.9048,-3.8915,-7.5556,-12.298,-10.306,-1.4171,-9.4155,1.3072,-8.5024
-10.174,-15.746,-13.659,-1.9968,-3.9604,-9.9029,-11.057,-3.285,-5.89,-1.9968,-3.9604,-10.523,-6.3492,-7.0813,-12.0,-16.827999,-14.171,-5.9259,-10.679,-7.1895,-11.079
-7.0142,-8.7619,-9.1057,1.2238,1.3201,-3.4304,-3.9024,0.57971,0.58252,1.2238,1.3201,-4.6405,-10.794,-10.271,-17.079,-16.181,-14.815,-7.8583,-8.7836,-14.379,-9.7907
-7.0142,-3.0476,-1.3008,-0.06441,1.9802,-2.7832,1.3008,-2.6409,2.5243,-0.06441,1.9802,-0.71895,-11.429,-8.3573,-18.983999,-9.0615,-10.95,-8.5024,-0.56872,-11.765,-4.6377
8.1517,6.4762,11.057,-0.70853,0.66007,2.3948,5.8537,-10.37,3.8188,-0.70853,0.66007,4.5098,-3.8095,1.2121,-6.9206,3.8835,1.2882,-16.875999,5.7504,-6.5359,5.0242
-9.5419,9.6508,8.4553,-1.3527,-1.3201,-2.7832,6.5041,-3.285,1.2298,-1.3527,-1.3201,2.549,-3.8095,2.488,-13.27,6.4725,1.9324,-10.435,1.9589,-14.379,3.0918
-18.389,12.19,5.8537,0.57971,0.0,-2.7832,9.1057,5.0886,1.877,0.57971,0.0,4.5098,-4.4444,2.488,-15.175,8.4142,0.64412,-2.7053,1.9589,-13.725,1.1594
-2.5908,8.381,5.2033,1.2238,4.6205,1.1003,11.057,-0.70853,5.7605,1.2238,4.6205,8.4314,-2.5397,2.488,-6.9206,7.767,0.64412,-5.9259,3.8547,-8.4967,2.4477
-1.9589,3.9365,0.65041,2.5121,4.6205,3.0421,8.4553,3.8003,3.8188,2.5121,4.6205,7.7778,-3.1746,-0.0638,-5.0159,3.8835,-1.9324,-0.77295,2.5908,-5.8824,0.5153
3.0964,0.12698,0.0,3.1562,3.3003,6.2783,6.5041,3.1562,1.877,3.1562,3.3003,7.1242,-2.5397,-1.9777,-1.2063,1.2945,-0.64412,-2.0612,-0.56872,-2.6144,-0.12882
17.629999,0.12698,6.5041,5.0886,5.2805,11.456,7.1545,3.8003,3.1715,5.0886,5.2805,9.7386,3.1746,-1.3397,10.857,0.64725,4.5089,0.5153,-1.8325,7.1895,-2.0612
20.790001,0.12698,10.407,7.6651,5.2805,15.34,7.8049,6.3768,0.58252,7.6651,5.2805,12.353,3.1746,-3.8915,13.397,-2.589,3.8647,8.8889,-4.3602,8.4967,-4.6377
15.103,3.9365,9.7561,8.3092,5.2805,14.693,7.8049,10.886,0.58252,8.3092,5.2805,12.353,3.1746,-4.5295,13.397,-2.589,1.2882,10.177,-3.7283,9.8039,-4.6377
6.8878,3.3016,8.4553,7.6651,7.9208,9.5146,7.1545,12.174,3.8188,7.6651,7.9208,10.392,4.4444,-2.6156,12.127,1.2945,2.5765,12.11,-0.56872,15.686,-0.77295
11.943,3.3016,9.1057,7.6651,5.2805,8.8673,5.2033,9.5974,3.1715,7.6651,5.2805,8.4314,5.0794,0.57416,12.127,5.8252,6.4412,10.177,0.6951,10.458,1.1594
1.8325,2.0317,3.252,1.2238,-0.66007,1.7476,0.0,3.8003,-2.0065,1.2238,-0.66007,1.2418,1.9048,0.57416,4.5079,5.178,4.5089,6.3124,-4.9921,3.268,-0.77295
-10.174,9.6508,0.0,-5.8615,-1.3201,-4.7249,-0.65041,-4.5733,-2.6537,-5.8615,-1.3201,-3.9869,3.1746,3.764,-1.2063,7.1197,2.5765,3.7359,0.06319,4.5752,1.8035
-7.0142,5.2063,-2.6016,-4.5733,-1.3201,-6.0194,-1.9512,-3.9291,-0.71197,-4.5733,-1.3201,-4.6405,5.0794,6.9537,-1.2063,6.4725,1.2882,0.5153,4.4866,2.6144,3.0918
-3.8547,-1.7778,-5.8537,-2.6409,-1.9802,-3.4304,-4.5528,-4.5733,-1.3592,-2.6409,-1.9802,-5.2941,5.0794,6.3158,-1.8413,3.2362,0.0,-3.3494,2.5908,1.3072,1.8035
-4.4866,-3.0476,-9.7561,-0.06441,0.66007,-4.7249,-3.9024,-3.9291,1.2298,-0.06441,0.66007,-5.2941,3.8095,4.4019,0.06349,0.0,-1.2882,-5.2818,1.327,2.6144,1.8035
-13.333,-11.302,-16.910999,-0.06441,0.66007,-9.9029,-7.8049,3.8003,-0.71197,-0.06441,0.66007,-8.5621,-2.5397,-2.6156,-3.1111,-7.767,-7.0853,-2.0612,-5.624,-3.268,-4.6377
-7.6461,-11.937,-13.008,-0.06441,-0.66007,-5.3722,-7.8049,0.57971,-2.0065,-0.06441,-0.66007,-6.6013,-5.0794,-7.7193,-1.8413,-10.356,-7.7295,1.1594,-8.7836,0.65359,-7.8583
-5.7504,-8.127,-7.8049,-0.06441,0.0,-5.3722,-5.8537,0.57971,-2.0065,-0.06441,0.0,-4.6405,-5.7143,-8.9952,-1.8413,-9.0615,-7.0853,2.4477,-4.9921,-1.9608,-5.9259
-1.327,-5.5873,-0.65041,2.5121,1.9802,-1.4887,-5.8537,-3.285,-2.0065,2.5121,1.9802,-2.6797,-5.7143,-8.9952,-3.1111,-5.178,-5.153,3.7359,-1.8325,-5.8824,-4.6377
-0.06319,0.12698,3.252,-1.9968,-4.6205,-4.7249,-7.8049,-1.9968,-6.5372,-1.9968,-4.6205,-5.9477,-2.5397,-6.4434,-1.2063,-1.9417,-1.9324,1.1594,-3.7283,-1.9608,-3.3494
-5.1185,0.7619,2.6016,-6.5056,-9.901,-11.197,-11.057,-2.6409,-8.479,-6.5056,-9.901,-11.176,1.9048,-1.9777,0.69841,1.2945,1.9324,-5.9259,-3.7283,1.3072,-1.4171
-7.6461,-6.8571,0.0,-7.7939,-11.881,-10.55,-12.358,-1.3527,-7.8317,-7.7939,-11.881,-11.83,5.0794,0.57416,1.3333,1.2945,3.8647,-1.4171,-2.4645,1.9608,-0.77295
4.3602,-9.3968,-0.65041,-6.5056,-10.561,-2.7832,-11.057,-0.70853,-8.479,-6.5056,-10.561,-7.9085,7.619,0.57416,5.1429,0.0,3.2206,-0.12882,-3.7283,6.5359,-1.4171
9.4155,-0.50794,1.3008,-3.9291,-5.2805,3.0421,-4.5528,-2.6409,-7.1845,-3.9291,-5.2805,-1.3725,10.794,1.8501,7.6825,0.64725,3.2206,2.4477,-4.9921,9.8039,-1.4171
-7.0142,-2.4127,-3.252,-3.9291,-1.3201,-4.0777,-3.252,1.2238,-2.0065,-3.9291,-1.3201,-4.6405,6.9841,0.57416,-1.8413,-1.9417,-1.2882,8.2448,-2.4645,2.6144,-3.3494
-10.174,-1.1429,-3.9024,-2.6409,-2.6403,-4.0777,-1.3008,3.1562,-0.71197,-2.6409,-2.6403,-2.6797,3.8095,-1.3397,-6.2857,-3.2362,-3.2206,5.0242,-1.2006,-2.6144,-3.9936
-3.2227,0.7619,-1.9512,-0.70853,-0.66007,1.7476,1.9512,-0.06441,1.877,-0.70853,-0.66007,1.2418,4.4444,-1.3397,-3.746,-1.9417,-1.2882,-0.77295,0.6951,-0.65359,-1.4171
14.471,10.921,3.252,1.868,4.6205,8.2201,9.7561,-4.5733,5.1133,1.868,4.6205,8.4314,6.9841,1.8501,3.873,1.9417,3.8647,-5.2818,5.1185,0.65359,1.8035
11.311,10.921,3.9024,2.5121,8.5809,7.5728,13.659,-3.9291,10.291,2.5121,8.5809,11.046,8.254,2.488,8.3175,3.2362,4.5089,-7.2142,8.278,11.111,3.7359
-15.229,5.2063,-4.5528,-0.70853,4.6205,-3.4304,9.1057,-0.06441,8.3495,-0.70853,4.6205,5.817,-3.1746,-4.5295,-7.5556,-1.2945,-5.7971,-1.4171,7.6461,-9.8039,2.4477
-10.806,6.4762,-2.6016,-0.70853,3.9604,-4.0777,9.1057,-3.9291,8.3495,-0.70853,3.9604,7.1242,-8.8889,-7.7193,-10.73,-0.64725,-8.3736,-3.3494,5.7504,-18.954,2.4477
-4.4866,10.921,2.6016,4.4444,9.901,1.1003,12.358,1.2238,9.644,4.4444,9.901,11.699,-10.159,-6.4434,-8.1905,1.2945,-6.4412,-7.2142,7.6461,-13.725,3.0918
3.7283,8.381,7.1545,5.7327,10.561,7.5728,12.358,0.57971,8.3495,5.7327,10.561,14.314,-8.254,-5.1675,-4.381,1.2945,-3.8647,-5.2818,10.174,-10.458,3.7359
-0.6951,7.1111,4.5528,6.3768,8.5809,8.8673,9.1057,4.4444,5.1133,6.3768,8.5809,11.699,-7.619,-5.1675,-6.2857,0.0,-3.8647,1.8035,7.6461,-8.4967,3.0918
-6.3823,2.0317,0.65041,5.0886,2.6403,3.0421,3.252,5.7327,1.2298,5.0886,2.6403,5.817,-6.9841,-6.4434,-7.5556,-2.589,-5.153,1.8035,2.5908,-6.5359,1.1594
4.3602,-2.4127,0.65041,5.0886,3.3003,1.7476,0.0,3.8003,1.877,5.0886,3.3003,3.2026,-1.2698,-3.8915,3.873,-2.589,-1.2882,-3.3494,0.6951,5.2288,0.5153
-4.4866,-7.4921,-5.2033,0.57971,-1.3201,-2.7832,-7.1545,4.4444,-3.9482,0.57971,-1.3201,-3.9869,-3.1746,-5.8054,0.06349,-5.8252,-3.8647,3.0918,-5.624,2.6144,-4.6377
-2.5908,-8.127,-5.2033,-4.5733,-7.9208,-4.7249,-11.707,-3.285,-5.2427,-4.5733,-7.9208,-8.5621,-1.2698,-4.5295,1.9683,-5.8252,-1.9324,4.38,-5.624,1.3072,-5.2818
-3.8547,-10.667,-5.2033,-5.2174,-9.2409,-6.0194,-13.008,-1.9968,-7.1845,-5.2174,-9.2409,-11.176,1.9048,-2.6156,4.5079,-5.8252,0.64412,5.6683,-4.3602,5.2288,-4.6377
-7.6461,-9.3968,-5.2033,-3.9291,-7.9208,-8.6084,-12.358,1.868,-7.8317,-3.9291,-7.9208,-12.484,5.0794,-1.3397,4.5079,-5.8252,1.2882,4.38,-4.3602,7.8431,-4.6377
-2.5908,-2.4127,-1.3008,-5.8615,-8.5809,-7.9612,-9.1057,-2.6409,-7.1845,-5.8615,-8.5809,-10.523,6.9841,1.2121,5.1429,-1.9417,3.8647,0.5153,-2.4645,8.4967,-2.7053
7.5197,2.0317,3.252,-4.5733,-5.9406,-2.1359,-3.9024,-0.70853,-2.0065,-4.5733,-5.9406,-5.9477,8.8889,3.126,8.9524,1.9417,6.4412,-0.77295,1.327,15.686,1.1594
27.740999,6.4762,10.407,-3.285,-3.3003,6.2783,1.3008,-12.303,3.1715,-3.285,-3.3003,-0.06536,9.5238,3.764,12.762,6.4725,9.6618,-1.4171,1.9589,10.458,3.0918
-0.6951,5.8413,2.6016,-1.9968,-3.3003,-0.19417,-0.65041,-1.3527,1.877,-1.9968,-3.3003,-3.9869,2.5397,-0.70175,1.3333,3.8835,2.5765,5.6683,3.2227,1.3072,1.8035
-16.493,-1.7778,-4.5528,-2.6409,-1.9802,-6.0194,-5.8537,4.4444,-1.3592,-2.6409,-1.9802,-7.9085,-5.0794,-5.8054,-7.5556,-1.9417,-5.7971,6.9565,0.6951,-1.3072,-0.77295
-6.3823,-2.4127,-2.6016,-4.5733,-5.9406,-4.0777,-7.8049,-1.3527,-2.0065,-4.5733,-5.9406,-6.6013,-6.9841,-5.1675,-6.9206,-1.2945,-6.4412,-0.77295,-0.56872,-1.3072,-0.12882
-5.1185,2.0317,0.65041,-3.9291,-7.9208,-2.7832,-4.5528,1.2238,-1.3592,-3.9291,-7.9208,-3.9869,-7.619,-1.9777,-5.0159,1.2945,-4.5089,-0.77295,0.06319,0.0,3.0918
4.9921,3.9365,4.5528,-2.6409,-4.6205,2.3948,-0.65041,-0.06441,-0.71197,-2.6409,-4.6205,0.58824,-5.7143,3.126,0.06349,3.8835,-0.64412,-2.7053,1.9589,-1.3072,5.0242
-0.06319,0.7619,0.65041,-2.6409,-1.9802,-0.84142,0.0,-0.06441,0.58252,-2.6409,-1.9802,-0.06536,-5.7143,3.764,-0.57143,3.2362,-1.9324,-5.2818,2.5908,-2.6144,5.6683
10.679,2.6667,3.9024,1.868,1.9802,2.3948,3.9024,0.57971,3.1715,1.868,1.9802,4.5098,-2.5397,5.6778,1.9683,4.5307,1.2882,-2.7053,3.2227,-1.9608,6.3124
4.3602,3.9365,5.2033,4.4444,2.6403,8.2201,6.5041,3.8003,4.466,4.4444,2.6403,7.1242,-0.63492,4.4019,-1.2063,3.2362,1.9324,4.38,4.4866,-0.65359,4.38
1.8325,9.6508,5.8537,3.1562,4.6205,10.809,8.4553,1.868,1.877,3.1562,4.6205,8.4314,0.63492,1.8501,0.69841,3.2362,3.2206,6.9565,2.5908,-1.3072,0.5153
5.624,10.921,7.1545,1.868,4.6205,8.2201,7.1545,-1.9968,3.1715,1.868,4.6205,7.1242,0.0,0.57416,5.1429,3.8835,6.4412,5.6683,3.8547,-3.268,1.1594
4.3602,6.4762,6.5041,5.0886,5.2805,5.6311,6.5041,7.6651,6.4078,5.0886,5.2805,6.4706,1.2698,-0.0638,11.492,3.8835,9.0177,4.38,7.0142,5.2288,3.0918
0.56872,-4.3175,-1.3008,3.8003,2.6403,-0.19417,0.65041,7.0209,5.7605,3.8003,2.6403,1.2418,-2.5397,-5.8054,7.6825,-3.8835,2.5765,3.0918,1.9589,3.9216,-2.7053
-1.9589,-8.7619,-7.1545,-0.70853,-0.66007,-5.3722,-4.5528,-1.9968,1.2298,-0.70853,-0.66007,-3.3333,-5.0794,-9.6332,4.5079,-9.7087,-3.2206,-5.2818,-3.0964,3.9216,-5.2818
-5.7504,-6.8571,-11.057,1.2238,0.0,-4.7249,-5.8537,2.5121,0.58252,1.2238,0.0,-4.6405,-6.3492,-8.3573,-5.0159,-9.0615,-8.3736,-1.4171,-1.2006,1.3072,-3.9936
-3.2227,-4.9524,-7.8049,0.57971,-2.6403,-0.84142,-7.1545,1.2238,-2.6537,0.57971,-2.6403,-4.6405,-3.8095,-2.6156,-9.4603,-3.8835,-7.7295,2.4477,-1.2006,0.65359,-0.77295
-7.0142,-3.0476,-3.9024,0.57971,-5.9406,-1.4887,-6.5041,2.5121,-3.9482,0.57971,-5.9406,-5.2941,-1.9048,1.8501,-10.73,0.64725,-3.8647,-0.77295,-1.2006,0.65359,1.1594
1.8325,3.9365,1.3008,1.2238,-4.6205,3.6893,-1.9512,-2.6409,-0.71197,1.2238,-4.6205,-1.3725,5.0794,9.5056,-2.4762,7.767,3.8647,5.6683,1.327,5.8824,5.0242
-5.1185,3.9365,0.0,-4.5733,-3.9604,-4.7249,-2.6016,-3.285,-3.301,-4.5733,-3.9604,-5.2941,8.254,10.144,5.1429,5.8252,7.0853,2.4477,-1.2006,11.111,2.4477
-0.6951,0.12698,1.3008,-4.5733,-3.3003,-6.0194,-1.3008,-0.70853,-2.6537,-4.5733,-3.3003,-4.6405,7.619,8.2297,7.6825,1.9417,7.0853,4.38,-3.0964,5.8824,-0.77295
11.943,-0.50794,9.1057,-1.3527,0.0,2.3948,3.9024,3.8003,1.2298,-1.3527,0.0,2.549,8.254,7.5917,10.222,1.9417,8.3736,3.7359,-0.56872,5.2288,0.5153
19.525999,6.4762,15.61,1.2238,1.3201,7.5728,8.4553,-0.06441,2.5243,1.2238,1.3201,7.1242,9.5238,7.5917,14.667,4.5307,11.594,1.1594,1.9589,9.8039,2.4477
5.624,5.2063,9.1057,1.868,1.3201,3.0421,7.1545,3.8003,2.5243,1.868,1.3201,4.5098,6.3492,5.0399,8.3175,3.2362,8.3736,7.6006,1.9589,4.5752,0.5153
-1.9589,2.0317,1.9512,-3.9291,-3.9604,-4.0777,2.6016,3.8003,0.58252,-3.9291,-3.9604,-0.71895,5.7143,3.126,7.0476,2.589,5.153,5.0242,0.6951,7.1895,-0.77295
0.56872,3.3016,-1.3008,-6.5056,-3.9604,-6.0194,1.9512,-3.9291,-2.0065,-6.5056,-3.9604,-1.3725,1.2698,-0.0638,4.5079,0.64725,1.2882,-2.7053,-0.56872,3.9216,-1.4171
4.9921,5.8413,1.9512,-1.9968,0.66007,0.45307,6.5041,-0.70853,3.8188,-1.9968,0.66007,3.8562,-3.8095,-3.2536,-1.2063,1.9417,-1.2882,-0.77295,1.327,0.0,-0.77295
3.0964,7.1111,5.8537,-1.3527,5.2805,3.0421,9.7561,-6.5056,5.7605,-1.3527,5.2805,7.1242,-7.619,-4.5295,-4.381,3.2362,-0.64412,-4.6377,1.9589,-1.3072,1.1594
-12.07,7.746,1.3008,-0.06441,5.2805,-2.1359,7.1545,-0.06441,2.5243,-0.06441,5.2805,3.2026,-12.063,-7.0813,-9.4603,2.589,-3.8647,-9.1465,1.9589,-1.3072,0.5153
-11.438,6.4762,-3.9024,-0.70853,3.9604,-5.3722,5.2033,-1.9968,2.5243,-0.70853,3.9604,0.58824,-15.238,-10.271,-12.0,0.0,-6.4412,-5.9259,1.327,-9.1503,-0.77295
-10.806,3.9365,-6.5041,-0.06441,5.2805,-4.0777,4.5528,-3.9291,4.466,-0.06441,5.2805,0.58824,-15.238,-10.271,-12.635,-2.589,-8.3736,1.8035,0.6951,-13.072,-0.12882
-7.0142,3.3016,-2.6016,5.7327,7.9208,0.45307,5.8537,3.8003,7.055,5.7327,7.9208,3.2026,-8.8889,-4.5295,-5.0159,-1.2945,-3.8647,1.1594,1.327,-3.268,0.5153
3.7283,9.6508,5.8537,8.3092,6.6007,6.2783,7.1545,8.9533,2.5243,8.3092,6.6007,6.4706,-0.63492,3.126,3.2381,3.2362,4.5089,5.0242,0.06319,3.268,1.1594
12.575,-1.1429,10.407,8.3092,4.6205,9.5146,3.9024,7.6651,0.58252,8.3092,4.6205,7.7778,6.9841,9.5056,10.222,4.5307,10.306,6.9565,0.06319,5.2288,1.8035
25.212999,-8.7619,11.057,5.0886,1.3201,12.104,-0.65041,-3.9291,-2.0065,5.0886,1.3201,5.817,17.143,15.885,19.746,6.4725,15.459,8.8889,-2.4645,15.033,1.8035
17.629999,-6.8571,5.2033,5.7327,-2.6403,8.8673,-4.5528,9.5974,-7.8317,5.7327,-2.6403,1.8954,22.857,16.523001,22.285999,3.8835,14.815,15.974,-7.5197,24.183001,-1.4171
1.2006,-11.302,-3.252,2.5121,-8.5809,1.7476,-10.407,13.462,-12.362,2.5121,-8.5809,-3.9869,16.507999,8.8676,12.762,-4.5307,5.7971,19.195,-12.575,20.261,-7.2142
2.4645,-7.4921,-3.252,-1.9968,-6.6007,0.45307,-9.1057,3.8003,-11.068,-1.9968,-6.6007,-5.2941,12.063,4.4019,12.127,-6.4725,1.2882,2.4477,-10.679,21.569,-7.2142
-8.91,-3.0476,-6.5041,-3.9291,-7.2607,-6.0194,-8.4553,1.2238,-12.362,-3.9291,-7.2607,-7.2549,1.2698,-1.9777,-2.4762,-8.4142,-6.4412,2.4477,-10.679,3.9216,-6.57
-19.652,-8.7619,-13.659,-11.014,-12.541,-13.139,-13.008,-8.438,-11.068,-11.014,-12.541,-13.137,-11.429,-10.909,-19.618999,-13.592,-16.103001,-3.3494,-10.679,-13.725,-9.1465
-23.444,-11.302,-18.211,-10.37,-10.561,-14.434,-13.008,-7.7939,-7.1845,-10.37,-10.561,-13.791,-17.778,-14.099,-25.333,-14.239,-20.612,-12.367,-7.5197,-16.34,-7.8583
-15.229,-5.5873,-14.959,-7.1498,-5.9406,-10.55,-7.8049,-11.659,-3.9482,-7.1498,-5.9406,-9.2157,-19.683001,-13.461,-24.063,-9.7087,-19.323999,-17.52,-3.0964,-15.686,-3.9936
-4.4866,-6.8571,-9.7561,-1.9968,-0.66007,-4.0777,-3.252,-9.0821,-2.0065,-1.9968,-0.66007,-3.3333,-19.048,-12.823,-19.618999,-8.4142,-16.103001,-15.588,-3.0964,-15.033,-2.0612
-1.9589,1.3968,-3.252,-0.70853,-0.66007,0.45307,0.0,-0.70853,-5.2427,-0.70853,-0.66007,1.2418,-15.238,-9.6332,-12.0,-4.5307,-10.306,-4.6377,-4.9921,-9.1503,-2.0612
-3.8547,-3.0476,-0.65041,-3.285,-3.9604,-2.7832,-1.3008,-0.06441,-6.5372,-3.285,-3.9604,0.58824,-12.063,-5.8054,-8.1905,-3.2362,-5.7971,-3.3494,-3.7283,-10.458,-2.0612
2.4645,-0.50794,6.5041,-3.9291,-0.66007,-0.19417,3.252,-7.1498,-1.3592,-3.9291,-0.66007,3.8562,-2.5397,1.2121,1.9683,2.589,4.5089,0.5153,0.06319,-4.5752,1.1594
4.3602,6.4762,11.707,-0.70853,1.9802,0.45307,8.4553,-3.9291,3.1715,-0.70853,1.9802,7.1242,4.4444,6.3158,10.222,8.4142,12.882,2.4477,4.4866,0.65359,3.7359
4.3602,7.746,11.707,2.5121,7.9208,-0.19417,11.057,2.5121,6.4078,2.5121,7.9208,7.1242,5.7143,6.9537,11.492,10.356,15.459,-0.77295,5.7504,-1.9608,3.7359
4.3602,10.921,10.407,0.57971,9.2409,-0.84142,11.057,-1.9968,8.9968,0.57971,9.2409,6.4706,3.1746,6.3158,10.857,10.356,14.171,-7.2142,8.91,0.65359,5.0242
7.5197,10.921,13.008,3.1562,10.561,2.3948,11.057,-1.9968,12.233,3.1562,10.561,8.4314,3.1746,7.5917,8.9524,11.65,14.815,-2.7053,12.07,-2.6144,6.9565
8.7836,11.556,13.659,3.1562,9.901,4.3366,11.707,-6.5056,12.233,3.1562,9.901,9.7386,3.8095,8.8676,5.7778,12.298,13.527,-0.12882,11.438,-5.2288,7.6006
-5.7504,9.6508,5.8537,0.57971,3.9604,-2.1359,7.1545,-5.2174,7.055,0.57971,3.9604,3.2026,1.9048,6.9537,0.06349,7.767,7.7295,-4.6377,7.6461,-5.8824,5.6683
-7.6461,6.4762,1.3008,-0.06441,3.9604,-5.3722,2.6016,-5.2174,5.7605,-0.06441,3.9604,-1.3725,2.5397,7.5917,0.06349,6.4725,3.8647,-7.8583,5.7504,-4.5752,6.9565
-4.4866,0.7619,-2.6016,-0.70853,3.3003,-5.3722,-1.3008,-2.6409,5.1133,-0.70853,3.3003,-3.3333,5.7143,10.144,1.9683,6.4725,1.9324,-7.2142,8.278,0.65359,10.821
3.0964,-5.5873,-5.8537,-1.3527,-0.66007,-4.7249,-7.1545,-6.5056,-0.06472,-1.3527,-0.66007,-5.9477,6.3492,10.144,2.6032,5.178,0.64412,-7.8583,6.3823,0.65359,10.177
-3.2227,-6.2222,-8.4553,-1.9968,-3.9604,-4.7249,-9.1057,-2.6409,-4.5955,-1.9968,-3.9604,-7.9085,4.4444,8.2297,-1.2063,3.2362,-1.9324,-5.2818,1.327,-3.268,7.6006
-11.438,-7.4921,-8.4553,-1.9968,-5.9406,-6.6667,-10.407,-0.06441,-4.5955,-1.9968,-5.9406,-9.2157,1.2698,5.6778,-7.5556,0.64725,-3.8647,-5.2818,0.6951,-6.5359,5.0242
6.8878,-3.0476,0.65041,-3.9291,-3.9604,-0.19417,-6.5041,-15.523,-4.5955,-3.9291,-3.9604,-4.6405,2.5397,6.3158,-3.1111,1.9417,0.64412,-3.9936,1.327,-2.6144,5.6683
-2.5908,1.3968,1.9512,-1.9968,-5.9406,-3.4304,-5.8537,-5.8615,-5.89,-1.9968,-5.9406,-5.9477,1.2698,4.4019,-1.8413,1.9417,1.9324,-1.4171,-1.2006,-0.65359,3.0918
0.56872,2.0317,4.5528,1.868,-5.2805,-2.7832,-3.252,7.0209,-2.6537,1.868,-5.2805,-3.3333,3.8095,5.0399,5.1429,4.5307,6.4412,-2.0612,-1.2006,5.8824,0.5153
10.679,2.6667,7.8049,0.57971,-1.9802,2.3948,0.0,5.0886,1.2298,0.57971,-1.9802,-0.06536,6.3492,6.3158,10.857,7.1197,10.95,1.8035,-0.56872,7.1895,0.5153
11.943,13.46,11.057,5.7327,1.9802,8.8673,5.8537,12.174,0.58252,5.7327,1.9802,5.1634,10.159,9.5056,14.032,10.356,16.103001,12.754,1.9589,9.8039,3.0918
4.9921,5.8413,5.8537,3.8003,3.3003,1.1003,2.6016,3.8003,0.58252,3.8003,3.3003,1.2418,8.8889,8.2297,11.492,5.8252,12.238,5.0242,-0.56872,11.765,-1.4171
-1.327,2.0317,1.9512,0.57971,1.9802,-3.4304,2.6016,-1.3527,1.877,0.57971,1.9802,0.58824,5.7143,6.3158,5.1429,3.2362,7.7295,3.7359,1.327,0.0,-1.4171
4.9921,3.3016,1.9512,0.57971,4.6205,-1.4887,5.2033,-5.2174,4.466,0.57971,4.6205,2.549,3.1746,5.0399,1.9683,3.8835,3.8647,1.1594,1.9589,-4.5752,1.1594
1.2006,9.0159,1.3008,2.5121,7.9208,1.1003,9.1057,-3.9291,7.7023,2.5121,7.9208,5.1634,0.0,3.764,-1.8413,5.178,0.64412,-2.7053,5.7504,-3.9216,4.38
10.047,10.921,3.252,4.4444,8.5809,3.6893,11.707,-0.70853,9.644,4.4444,8.5809,6.4706,0.0,3.764,1.9683,7.1197,0.64412,-5.2818,10.174,1.3072,7.6006
-1.9589,1.3968,-1.9512,-0.70853,5.2805,-4.0777,4.5528,-0.06441,5.7605,-0.70853,5.2805,-0.06536,-3.1746,0.57416,-3.746,3.2362,-3.8647,-4.6377,4.4866,-1.3072,4.38
2.4645,-1.1429,0.0,-4.5733,1.3201,-0.19417,1.3008,-9.0821,2.5243,-4.5733,1.3201,-0.06536,-5.0794,-1.3397,-7.5556,1.2945,-5.153,-0.77295,0.6951,-7.1895,1.8035
7.5197,-1.1429,3.252,-1.3527,1.9802,3.0421,3.9024,-3.9291,1.877,-1.3527,1.9802,3.2026,-3.1746,-0.70175,-3.1111,0.0,-3.2206,1.1594,-2.4645,-5.8824,0.5153
-4.4866,-1.1429,-0.65041,-0.06441,1.9802,-0.19417,3.9024,6.3768,1.2298,-0.06441,1.9802,1.2418,-1.9048,-1.3397,-4.381,-1.9417,-4.5089,1.1594,-4.3602,-3.268,-2.0612
-0.6951,5.2063,0.0,1.2238,1.3201,5.6311,5.2033,7.6651,0.58252,1.2238,1.3201,3.2026,1.9048,2.488,-2.4762,1.9417,-0.64412,-0.77295,-0.56872,0.0,0.5153
9.4155,2.6667,3.252,3.8003,1.9802,10.809,4.5528,3.1562,-0.71197,3.8003,1.9802,5.817,5.0794,4.4019,3.873,3.2362,3.8647,1.1594,2.5908,3.9216,1.8035
8.1517,-4.9524,0.65041,5.0886,1.9802,10.162,0.0,4.4444,-0.06472,5.0886,1.9802,4.5098,3.1746,2.488,5.1429,0.0,2.5765,5.6683,1.327,1.9608,0.5153
11.943,-6.8571,-0.65041,3.1562,0.66007,8.8673,-3.252,4.4444,-2.0065,3.1562,0.66007,1.8954,2.5397,1.2121,8.9524,-2.589,1.9324,-3.9936,-1.8325,3.268,-1.4171
-0.06319,-2.4127,-2.6016,-1.9968,-4.6205,1.7476,-5.2033,7.0209,-7.1845,-1.9968,-4.6205,-2.6797,2.5397,-1.3397,5.7778,-3.8835,0.64412,3.0918,-3.7283,7.8431,-3.3494
-3.2227,-8.7619,-3.252,-2.6409,-4.6205,0.45307,-5.8537,5.7327,-5.89,-2.6409,-4.6205,-3.3333,0.63492,-3.2536,1.3333,-5.8252,-1.2882,11.465,-5.624,3.9216,-5.2818
3.0964,-6.8571,-1.9512,2.5121,0.66007,2.3948,-1.9512,3.1562,-1.3592,2.5121,0.66007,-0.06536,-1.2698,-1.9777,0.69841,-3.8835,-1.9324,6.3124,-4.3602,0.65359,-3.3494
-0.6951,-3.6825,-1.9512,2.5121,0.66007,1.7476,1.9512,0.57971,1.2298,2.5121,0.66007,1.8954,-3.8095,-1.9777,-1.8413,-1.9417,-3.8647,3.0918,-1.2006,0.0,-0.77295
1.8325,-4.9524,-1.3008,0.57971,-3.9604,1.7476,0.0,2.5121,-1.3592,0.57971,-3.9604,1.2418,-5.0794,-4.5295,-1.2063,-5.8252,-5.7971,-2.7053,-2.4645,3.268,-3.9936
6.2559,-6.2222,1.3008,0.57971,-1.9802,2.3948,-0.65041,4.4444,-0.71197,0.57971,-1.9802,2.549,-6.9841,-7.0813,-1.8413,-9.0615,-6.4412,-1.4171,-4.3602,-2.6144,-5.9259
16.997999,-4.9524,7.8049,0.57971,2.6403,8.2201,1.9512,-8.438,2.5243,0.57971,2.6403,5.1634,-5.0794,-6.4434,0.69841,-8.4142,-4.5089,-2.7053,-1.8325,-5.8824,-3.9936
3.0964,-5.5873,3.9024,1.2238,1.3201,1.1003,0.65041,-2.6409,-0.06472,1.2238,1.3201,1.2418,-3.8095,-5.8054,-4.381,-9.0615,-7.0853,0.5153,-4.9921,-3.9216,-4.6377
-11.438,0.7619,0.0,3.1562,0.0,-2.1359,2.6016,10.886,0.58252,3.1562,0.0,0.58824,0.0,-1.3397,-8.8254,-3.8835,-7.0853,6.3124,-1.8325,-4.5752,-1.4171
-12.07,0.12698,-5.2033,-1.3527,1.3201,-4.0777,1.3008,5.7327,-0.71197,-1.3527,1.3201,-0.06536,5.0794,2.488,-8.8254,0.0,-6.4412,-0.12882,0.6951,-1.3072,1.1594
-7.6461,-3.0476,-5.8537,-3.285,0.66007,-4.7249,0.0,0.57971,0.58252,-3.285,0.66007,-0.71895,6.9841,3.764,-5.6508,0.64725,-5.153,-3.9936,1.327,1.3072,1.8035
3.0964,-1.7778,1.3008,-2.6409,-2.6403,-0.19417,1.3008,-3.9291,2.5243,-2.6409,-2.6403,0.58824,6.9841,2.488,-3.1111,0.0,-1.2882,-2.0612,1.327,0.65359,0.5153
1.2006,7.746,6.5041,-2.6409,-3.3003,-0.19417,3.9024,0.57971,0.58252,-2.6409,-3.3003,1.2418,4.4444,1.2121,-1.8413,0.64725,1.9324,-0.77295,0.06319,-1.3072,0.5153
7.5197,6.4762,10.407,-1.3527,1.3201,3.6893,5.2033,-0.06441,1.2298,-1.3527,1.3201,3.8562,4.4444,1.8501,3.873,3.2362,6.4412,1.8035,0.06319,1.3072,0.5153
6.2559,0.7619,5.8537,-3.285,0.0,1.1003,1.9512,-3.285,1.2298,-3.285,0.0,1.2418,2.5397,2.488,5.1429,3.2362,5.7971,3.7359,0.6951,0.65359,1.1594
3.7283,2.6667,-1.3008,-1.9968,-3.3003,-0.84142,-1.3008,3.8003,-0.71197,-1.9968,-3.3003,-2.0261,1.9048,2.488,3.873,3.8835,3.2206,5.0242,1.327,1.9608,3.0918
-0.6951,-1.1429,-6.5041,1.2238,-1.9802,1.1003,-2.6016,7.6651,-1.3592,1.2238,-1.9802,-2.0261,1.9048,1.8501,3.2381,1.2945,0.0,6.9565,1.9589,3.9216,3.0918
-3.2227,-5.5873,-8.4553,-2.6409,-3.3003,-2.7832,-3.9024,-1.3527,-0.06472,-2.6409,-3.3003,-4.6405,1.9048,-1.9777,3.2381,-4.5307,-2.5765,2.4477,-0.56872,3.9216,-0.77295
-0.6951,-3.6825,-3.9024,-3.285,-3.3003,-6.0194,-1.9512,-3.285,0.58252,-3.285,-3.3003,-3.3333,3.1746,-1.9777,7.0476,-5.178,-0.64412,-2.0612,-0.56872,6.5359,-1.4171
-0.6951,-2.4127,-3.252,-1.3527,-0.66007,-4.0777,-1.9512,-1.9968,1.2298,-1.3527,-0.66007,-3.9869,2.5397,-0.70175,5.1429,-3.8835,0.0,-0.12882,1.327,1.9608,-0.12882
-12.07,-1.7778,-10.407,-2.6409,0.66007,-10.55,-4.5528,-5.2174,1.877,-2.6409,0.66007,-7.2549,-2.5397,-1.3397,-4.381,-3.2362,-4.5089,-4.6377,2.5908,-3.268,1.1594
-17.757,-1.1429,-13.008,-0.06441,4.6205,-7.3139,-3.252,-0.70853,5.1133,-0.06441,4.6205,-5.9477,-5.0794,-1.3397,-11.365,-1.2945,-7.7295,-2.0612,4.4866,-1.9608,1.1594
-11.438,0.7619,-9.1057,1.2238,1.9802,-4.7249,-2.6016,2.5121,1.877,1.2238,1.9802,-3.9869,-8.8889,-3.8915,-10.73,-1.9417,-8.3736,-2.0612,1.327,-5.2288,-2.0612
-0.06319,0.7619,0.0,-1.3527,-1.9802,-2.1359,-2.6016,-3.285,-1.3592,-1.3527,-1.9802,-2.6797,-7.619,-3.8915,-6.2857,-0.64725,-5.153,-1.4171,0.6951,-5.2288,-2.0612
-0.06319,2.6667,5.8537,-3.285,-3.9604,-2.7832,-1.3008,-4.5733,-1.3592,-3.285,-3.9604,-2.0261,-4.4444,-0.0638,-5.0159,3.8835,-1.2882,-1.4171,2.5908,-4.5752,-0.12882
4.3602,9.6508,9.7561,-2.6409,-0.66007,-2.7832,3.252,-1.9968,1.2298,-2.6409,-0.66007,0.58824,-0.63492,5.6778,-1.8413,11.003,5.153,-4.6377,5.1185,-4.5752,3.7359
8.1517,8.381,7.8049,-5.8615,-1.3201,-1.4887,0.0,-7.1498,1.2298,-5.8615,-1.3201,-2.0261,3.8095,8.8676,2.6032,12.945,9.0177,-1.4171,3.8547,1.3072,5.0242
-11.438,3.3016,-1.3008,-7.1498,-5.9406,-10.55,-6.5041,-2.6409,-2.6537,-7.1498,-5.9406,-9.2157,4.4444,8.8676,-0.57143,9.7087,7.0853,6.3124,0.6951,0.65359,3.7359
-9.5419,3.3016,-2.6016,-4.5733,-1.9802,-9.9029,-4.5528,2.5121,-2.6537,-4.5733,-1.9802,-6.6013,8.254,12.057,4.5079,10.356,8.3736,1.8035,0.6951,0.65359,5.0242
4.3602,3.3016,0.0,-5.2174,-0.66007,-4.7249,-0.65041,-4.5733,-2.0065,-5.2174,-0.66007,-2.0261,12.063,13.333,11.492,9.0615,9.6618,-2.7053,-0.56872,5.8824,6.3124
8.7836,-1.1429,0.0,-7.7939,-3.9604,-6.0194,-1.9512,-15.523,-0.71197,-7.7939,-3.9604,-2.0261,12.698,12.695,12.127,6.4725,9.0177,-2.0612,0.06319,5.8824,5.6683
4.9921,5.8413,1.9512,-3.9291,-1.3201,-3.4304,1.3008,-7.1498,-2.0065,-3.9291,-1.3201,-0.06536,14.603,12.695,11.492,7.1197,9.6618,-0.12882,1.9589,8.4967,5.6683
-2.5908,-0.50794,0.65041,-1.9968,0.66007,-2.7832,-1.3008,-0.06441,-1.3592,-1.9968,0.66007,-0.06536,10.794,8.2297,7.0476,3.2362,6.4412,0.5153,1.327,4.5752,3.0918
-1.327,-4.9524,2.6016,4.4444,0.66007,3.6893,-1.9512,4.4444,0.58252,4.4444,0.66007,3.8562,9.5238,5.6778,5.7778,1.9417,7.7295,2.4477,2.5908,3.268,2.4477
4.9921,3.9365,7.1545,5.0886,2.6403,6.9256,1.3008,1.868,-0.06472,5.0886,2.6403,7.1242,11.429,5.6778,9.5873,3.8835,9.6618,7.6006,0.6951,7.8431,1.8035
3.0964,0.7619,7.8049,3.8003,3.3003,3.6893,1.3008,5.7327,-0.71197,3.8003,3.3003,6.4706,7.619,1.2121,11.492,0.64725,6.4412,3.7359,-2.4645,10.458,-1.4171
-0.6951,0.7619,4.5528,3.8003,2.6403,2.3948,2.6016,6.3768,-2.0065,3.8003,2.6403,5.1634,1.9048,-4.5295,3.873,-4.5307,-1.2882,1.1594,-1.8325,5.2288,-4.6377
4.3602,-0.50794,1.3008,4.4444,1.3201,3.0421,1.9512,-1.3527,-0.71197,4.4444,1.3201,4.5098,-5.7143,-9.6332,-5.0159,-7.767,-9.6618,4.38,-0.56872,-1.9608,-5.2818
-1.327,-1.7778,-3.252,6.3768,3.3003,3.0421,1.3008,-0.06441,1.2298,6.3768,3.3003,3.2026,-13.333,-14.737,-11.365,-11.003,-16.103001,-3.3494,-1.8325,-2.6144,-5.9259
0.56872,0.7619,-5.2033,6.3768,5.2805,6.2783,2.6016,2.5121,0.58252,6.3768,5.2805,3.8562,-15.238,-13.461,-13.905,-9.7087,-16.747,-4.6377,-2.4645,-1.9608,-3.9936
-7.6461,-4.9524,-11.707,5.0886,2.6403,3.0421,-3.9024,1.868,-2.6537,5.0886,2.6403,-1.3725,-14.603,-9.6332,-16.444,-7.767,-15.459,1.8035,-5.624,-7.8431,-3.3494
-8.278,-1.1429,-9.1057,2.5121,-0.66007,-0.19417,-6.5041,5.7327,-5.89,2.5121,-0.66007,-4.6405,-8.8889,-1.3397,-8.8254,-0.64725,-6.4412,3.7359,-4.3602,-7.8431,-1.4171
3.7283,-2.4127,0.0,0.57971,-1.3201,-0.19417,-6.5041,7.0209,-5.2427,0.57971,-1.3201,-3.3333,0.0,6.9537,3.2381,6.4725,5.7971,5.6683,-3.0964,-1.9608,1.1594
6.8878,-6.2222,3.9024,-1.9968,-3.9604,-0.84142,-8.4553,1.2238,-5.89,-1.9968,-3.9604,-4.6405,6.9841,10.781,13.397,9.0615,12.882,0.5153,-3.7283,7.1895,3.0918
6.8878,-3.6825,3.9024,-0.70853,-1.9802,1.7476,-4.5528,2.5121,-5.2427,-0.70853,-1.9802,-1.3725,8.254,10.144,12.127,8.4142,12.882,5.6683,-0.56872,5.8824,4.38
6.2559,7.746,3.9024,1.868,1.9802,4.9838,1.9512,1.868,-2.0065,1.868,1.9802,3.2026,5.0794,7.5917,7.6825,7.1197,10.306,2.4477,1.9589,2.6144,3.7359
6.2559,3.3016,4.5528,4.4444,1.9802,7.5728,1.9512,7.0209,1.2298,4.4444,1.9802,4.5098,4.4444,4.4019,8.3175,3.2362,7.7295,2.4477,5.1185,3.9216,4.38
1.2006,-3.0476,6.5041,3.1562,-1.3201,5.6311,-1.3008,5.0886,0.58252,3.1562,-1.3201,3.2026,4.4444,0.57416,8.9524,0.0,5.7971,8.8889,3.2227,7.1895,1.8035
0.56872,0.7619,7.1545,0.57971,-1.3201,3.0421,0.0,1.2238,-3.301,0.57971,-1.3201,3.8562,0.0,-5.1675,5.7778,-3.8835,2.5765,6.3124,-2.4645,3.268,-3.9936
3.7283,2.6667,6.5041,5.0886,3.3003,8.8673,4.5528,3.8003,1.2298,5.0886,3.3003,7.7778,-1.2698,-6.4434,3.873,-3.2362,0.64412,4.38,0.06319,6.5359,-3.3494
18.893999,7.746,10.407,10.886,9.2409,18.576,12.358,5.0886,8.9968,10.886,9.2409,15.621,-1.9048,-4.5295,7.6825,2.589,2.5765,-2.0612,6.3823,7.1895,0.5153
5.624,10.286,5.2033,9.5974,10.561,12.104,11.707,4.4444,6.4078,9.5974,10.561,13.007,-8.254,-7.0813,-1.8413,2.589,-2.5765,-0.77295,3.8547,-3.268,-0.77295
-9.5419,4.5714,-1.3008,8.3092,7.2607,4.9838,7.1545,6.3768,4.466,8.3092,7.2607,7.7778,-11.429,-8.9952,-10.095,-1.2945,-8.3736,2.4477,3.2227,-5.8824,-2.0612
-5.7504,-1.7778,-4.5528,3.8003,-0.66007,3.6893,0.65041,5.7327,1.2298,3.8003,-0.66007,1.8954,-10.794,-9.6332,-9.4603,-4.5307,-10.95,4.38,-0.56872,-3.9216,-4.6377
-3.8547,-3.6825,-5.8537,3.1562,-0.66007,3.6893,-1.3008,5.0886,-0.06472,3.1562,-0.66007,-0.06536,-6.9841,-5.8054,-6.9206,-3.2362,-8.3736,3.0918,-2.4645,-1.9608,-2.0612
16.997999,9.6508,4.5528,8.3092,8.5809,13.398,9.1057,3.8003,7.7023,8.3092,8.5809,8.4314,5.0794,7.5917,7.0476,9.0615,5.153,1.8035,5.1185,6.5359,7.6006
5.624,14.095,3.252,7.0209,7.9208,8.2201,7.8049,1.2238,5.1133,7.0209,7.9208,6.4706,5.0794,8.2297,3.873,12.298,7.7295,3.7359,5.7504,2.6144,8.8889
-9.5419,4.5714,-0.65041,-0.70853,1.9802,-4.7249,0.0,-1.3527,-0.71197,-0.70853,1.9802,-2.0261,3.1746,4.4019,0.69841,8.4142,7.0853,-2.0612,1.9589,-4.5752,1.1594
-1.327,-1.1429,5.2033,-3.9291,-2.6403,-6.6667,-3.252,-2.6409,-0.71197,-3.9291,-2.6403,-3.9869,5.0794,4.4019,6.4127,8.4142,10.95,-2.7053,2.5908,-1.9608,-0.12882
1.8325,-0.50794,7.1545,-3.285,-3.9604,-6.0194,-3.252,-3.9291,-1.3592,-3.285,-3.9604,-3.3333,4.4444,3.126,7.6825,5.8252,10.95,-0.12882,2.5908,3.268,0.5153
-6.3823,-4.9524,0.0,-3.285,-4.6205,-7.3139,-5.8537,-5.2174,-2.6537,-3.285,-4.6205,-5.9477,-2.5397,-5.1675,0.06349,-4.5307,0.64412,1.1594,-1.2006,0.0,-2.7053
-8.278,-5.5873,-5.2033,-1.9968,-2.6403,-6.0194,-5.2033,-3.285,-1.3592,-1.9968,-2.6403,-6.6013,-5.0794,-8.3573,-3.1111,-10.356,-5.7971,-1.4171,-2.4645,1.3072,-4.6377
-10.806,-2.4127,-10.407,-4.5733,-3.9604,-7.9612,-5.8537,1.2238,-1.3592,-4.5733,-3.9604,-7.9085,-8.8889,-10.909,-8.1905,-12.945,-12.238,-5.2818,-4.3602,-1.3072,-5.2818
-3.8547,-2.4127,-7.1545,-1.9968,-1.9802,-3.4304,-1.9512,-5.8615,2.5243,-1.9968,-1.9802,-3.3333,-10.159,-9.6332,-10.73,-9.7087,-12.882,-7.2142,0.6951,-5.8824,-1.4171
-4.4866,-4.9524,-5.8537,-3.285,-1.9802,-0.84142,-1.3008,-13.591,1.2298,-3.285,-1.9802,-0.71895,-10.794,-9.6332,-15.175,-8.4142,-14.171,-9.7907,1.327,-6.5359,-2.0612
-14.597,-7.4921,-9.7561,-2.6409,-1.9802,-3.4304,-3.252,1.2238,-1.3592,-2.6409,-1.9802,-1.3725,-9.5238,-8.9952,-15.175,-8.4142,-15.459,-3.3494,-2.4645,-6.5359,-2.7053
-12.701,-8.127,-12.358,-1.3527,-1.9802,-3.4304,-5.8537,5.0886,-1.3592,-1.3527,-1.9802,-3.9869,-6.3492,-5.8054,-10.095,-7.1197,-13.527,-0.12882,-2.4645,-6.5359,-2.7053
-3.2227,-4.3175,-9.1057,-2.6409,-2.6403,-1.4887,-4.5528,-0.06441,-0.06472,-2.6409,-2.6403,-4.6405,-1.2698,-1.9777,-2.4762,-3.2362,-7.7295,-0.77295,0.6951,1.3072,-0.12882
-0.06319,-3.0476,-6.5041,-3.285,-4.6205,-3.4304,-5.8537,0.57971,-1.3592,-3.285,-4.6205,-6.6013,-2.5397,-1.3397,-1.2063,-1.2945,-3.2206,2.4477,0.6951,-0.65359,0.5153
-3.8547,0.7619,-4.5528,-5.8615,-5.2805,-7.3139,-3.9024,-2.6409,-2.0065,-5.8615,-5.2805,-7.2549,-6.3492,-1.9777,-3.746,-0.64725,-1.9324,2.4477,-0.56872,-6.5359,-0.12882
-3.8547,-1.7778,-1.9512,-4.5733,-2.6403,-5.3722,-3.9024,0.57971,-0.71197,-4.5733,-2.6403,-5.9477,-1.9048,-0.70175,2.6032,0.0,3.2206,1.1594,-1.2006,2.6144,-0.77295
6.8878,-4.3175,1.9512,-1.9968,0.66007,2.3948,-1.9512,-1.9968,1.2298,-1.9968,0.66007,-0.71895,0.63492,0.57416,5.1429,0.0,5.7971,2.4477,0.06319,1.3072,-1.4171
10.047,-3.0476,5.8537,1.868,3.9604,7.5728,1.9512,1.2238,3.8188,1.868,3.9604,4.5098,1.2698,-0.70175,5.7778,-0.64725,6.4412,2.4477,0.06319,1.9608,-1.4171
4.9921,-2.4127,4.5528,2.5121,6.6007,7.5728,2.6016,5.7327,3.8188,2.5121,6.6007,5.1634,0.0,-3.2536,3.2381,-3.2362,3.2206,3.7359,-3.0964,0.65359,-3.9936
-0.6951,-2.4127,0.0,5.0886,7.2607,5.6311,2.6016,6.3768,3.8188,5.0886,7.2607,3.8562,0.0,-4.5295,1.9683,-5.8252,0.0,-0.77295,-3.0964,7.1895,-5.2818
10.679,0.12698,0.65041,7.0209,5.2805,10.809,3.252,3.1562,4.466,7.0209,5.2805,5.817,-2.5397,-5.8054,0.69841,-5.8252,-2.5765,1.1594,1.327,1.3072,-2.7053
-9.5419,-4.9524,-9.1057,-0.06441,1.9802,-1.4887,-2.6016,1.2238,0.58252,-0.06441,1.9802,-3.3333,-11.429,-11.547,-13.27,-11.65,-13.527,2.4477,-2.4645,-9.1503,-5.9259
-19.021,-6.2222,-13.008,-3.9291,-0.66007,-9.9029,-5.8537,-1.3527,-0.06472,-3.9291,-0.66007,-7.9085,-14.603,-12.185,-17.079,-12.298,-17.391001,-3.9936,-2.4645,-7.1895,-4.6377
-8.91,-7.4921,-8.4553,-1.9968,-3.9604,-6.6667,-5.8537,-2.6409,-1.3592,-1.9968,-3.9604,-5.9477,-15.238,-10.909,-13.905,-10.356,-16.103001,-4.6377,-2.4645,-7.8431,-2.7053
-7.6461,-4.3175,-5.2033,-0.70853,-3.3003,-5.3722,-3.9024,-1.9968,-0.71197,-0.70853,-3.3003,-3.9869,-12.698,-6.4434,-10.73,-5.8252,-12.238,-8.5024,-1.2006,-7.1895,0.5153
7.5197,2.6667,2.6016,1.868,1.3201,1.1003,1.3008,-1.3527,1.2298,1.868,1.3201,1.2418,-3.1746,2.488,-1.2063,4.5307,-1.9324,-7.2142,3.2227,-4.5752,7.6006
2.4645,4.5714,4.5528,-2.6409,1.3201,-0.19417,0.0,-4.5733,1.877,-2.6409,1.3201,-0.71895,2.5397,7.5917,1.3333,10.356,5.7971,-0.77295,3.8547,-3.9216,8.2448
0.56872,7.746,8.4553,-1.9968,0.66007,-0.84142,2.6016,-0.06441,2.5243,-1.9968,0.66007,-0.06536,9.5238,12.695,7.6825,16.827999,14.171,-0.12882,7.0142,-1.3072,10.177
3.0964,7.746,9.7561,-1.9968,-1.9802,-1.4887,1.9512,0.57971,1.877,-1.9968,-1.9802,-0.71895,13.333,13.971,11.492,16.827999,17.391001,2.4477,5.7504,1.3072,8.8889
0.56872,8.381,7.1545,-3.9291,-2.6403,-2.7832,0.65041,-0.06441,-0.06472,-3.9291,-2.6403,-2.6797,13.333,10.781,10.222,12.298,15.459,3.0918,1.9589,3.268,8.2448
5.624,1.3968,1.9512,-5.2174,-2.6403,-2.1359,-0.65041,-3.9291,-0.06472,-5.2174,-2.6403,-3.3333,11.429,5.0399,8.3175,4.5307,9.6618,-2.0612,-0.56872,3.268,3.0918
1.8325,-3.0476,0.0,-1.3527,1.3201,0.45307,0.65041,-0.70853,1.2298,-1.3527,1.3201,-0.71895,7.619,-0.0638,7.0476,-2.589,3.8647,-1.4171,-4.3602,5.8824,-3.9936
8.1517,-1.7778,3.252,3.1562,3.9604,3.6893,2.6016,1.2238,0.58252,3.1562,3.9604,3.2026,3.8095,-5.1675,7.0476,-5.178,1.9324,1.1594,-8.1517,9.1503,-7.8583
1.2006,-1.1429,2.6016,3.8003,2.6403,3.0421,1.9512,5.7327,-0.71197,3.8003,2.6403,2.549,-3.1746,-10.909,0.06349,-10.356,-3.2206,4.38,-7.5197,3.268,-9.7907
3.7283,-4.3175,3.252,5.0886,3.3003,7.5728,1.9512,3.8003,-0.06472,5.0886,3.3003,3.8562,-5.7143,-13.461,-3.1111,-13.592,-5.7971,6.3124,-3.7283,1.3072,-11.723
-0.06319,-2.4127,-0.65041,1.868,2.6403,2.3948,1.3008,4.4444,-2.0065,1.868,2.6403,1.8954,-5.0794,-12.823,-3.746,-13.592,-9.0177,5.0242,-3.7283,5.8824,-11.723
-9.5419,-3.6825,-9.1057,-0.70853,-0.66007,-1.4887,0.0,5.7327,-3.9482,-0.70853,-0.66007,-0.06536,-7.619,-12.185,-10.73,-15.534,-16.747,9.533,-4.9921,5.8824,-9.7907
16.367001,-1.7778,-0.65041,3.1562,0.0,13.398,4.5528,-0.70853,-2.6537,3.1562,0.0,8.4314,-3.1746,-5.1675,-2.4762,-7.767,-13.527,8.2448,-3.7283,13.725,-3.9936
6.2559,1.3968,1.9512,4.4444,-0.66007,10.809,3.9024,7.0209,-3.301,4.4444,-0.66007,8.4314,-5.0794,-0.70175,-6.2857,-2.589,-13.527,7.6006,-0.56872,6.5359,0.5153
1.8325,2.6667,3.9024,3.1562,-3.3003,7.5728,1.3008,7.6651,-4.5955,3.1562,-3.3003,4.5098,-6.9841,3.126,-8.1905,1.9417,-10.306,4.38,0.06319,-1.3072,4.38
1.8325,0.7619,3.9024,-0.70853,-5.9406,4.3366,-1.9512,2.5121,-6.5372,-0.70853,-5.9406,0.58824,-6.3492,5.0399,-5.0159,3.8835,-4.5089,1.1594,-1.8325,-5.2288,3.7359
4.3602,3.3016,3.9024,-1.3527,-3.9604,2.3948,-1.3008,0.57971,-2.6537,-1.3527,-3.9604,-1.3725,0.0,8.2297,3.2381,7.1197,3.8647,-0.12882,-0.56872,-1.9608,3.7359
4.9921,1.3968,0.65041,-0.70853,-1.9802,-0.84142,-2.6016,-4.5733,-1.3592,-0.70853,-1.9802,-3.3333,3.8095,6.9537,8.3175,6.4725,8.3736,-3.3494,-3.0964,-5.2288,0.5153
2.4645,-0.50794,-0.65041,0.57971,-1.3201,-2.1359,-2.6016,-0.06441,0.58252,0.57971,-1.3201,-3.9869,7.619,4.4019,13.397,4.5307,10.306,-8.5024,-2.4645,1.3072,-0.12882
3.0964,-0.50794,3.252,-0.70853,0.0,-0.84142,1.3008,3.1562,3.1715,-0.70853,0.0,-2.0261,6.3492,1.2121,8.9524,2.589,10.306,0.5153,-1.2006,-0.65359,-0.77295
-2.5908,0.7619,3.9024,-3.285,0.0,-4.0777,1.3008,-1.3527,2.5243,-3.285,0.0,-3.3333,1.2698,-2.6156,1.9683,0.0,7.0853,3.0918,-3.7283,-8.4967,-3.9936
-0.06319,0.7619,5.2033,-1.3527,5.9406,-4.0777,3.9024,-0.06441,4.466,-1.3527,5.9406,-1.3725,1.9048,-1.3397,4.5079,0.0,8.3736,-1.4171,-0.56872,-4.5752,-3.3494
3.7283,2.6667,5.8537,5.7327,9.901,4.9838,7.1545,1.868,7.055,5.7327,9.901,4.5098,3.1746,-1.3397,5.7778,-1.9417,8.3736,0.5153,1.9589,-1.9608,-2.7053
3.7283,2.6667,2.6016,9.5974,10.561,7.5728,9.7561,5.0886,8.9968,9.5974,10.561,7.1242,-0.63492,-5.8054,2.6032,-8.4142,1.2882,-2.7053,0.6951,0.0,-5.9259
4.9921,7.1111,3.9024,14.75,12.541,10.809,13.008,6.3768,9.644,14.75,12.541,11.699,-7.619,-12.823,-3.746,-12.945,-7.0853,-3.9936,1.327,-2.6144,-7.2142
11.311,5.8413,7.1545,10.886,11.221,8.8673,12.358,4.4444,10.291,10.886,11.221,12.353,-10.159,-14.737,-2.4762,-13.592,-9.6618,-7.2142,3.8547,-2.6144,-5.2818
-2.5908,2.6667,1.9512,6.3768,7.9208,3.6893,7.1545,7.0209,8.3495,6.3768,7.9208,7.7778,-17.778,-18.565001,-13.27,-15.534,-17.391001,0.5153,1.9589,-11.765,-6.57
-21.548,-1.1429,-9.1057,2.5121,3.9604,-6.0194,0.0,3.8003,5.7605,2.5121,3.9604,-1.3725,-24.761999,-21.754,-25.968,-17.476,-26.409,-2.7053,-1.2006,-18.301001,-8.5024
-13.333,1.3968,-10.407,1.2238,1.9802,-4.0777,-1.3008,-1.9968,3.8188,1.2238,1.9802,-2.6797,-21.587,-15.375,-20.889,-11.003,-23.833,-5.9259,2.5908,-11.111,-3.3494
-5.7504,0.7619,-7.8049,3.1562,-0.66007,3.6893,-1.3008,3.1562,3.1715,3.1562,-0.66007,-0.06536,-15.873,-8.9952,-14.54,-5.178,-16.747,0.5153,5.1185,-7.1895,1.8035
3.7283,0.7619,-2.6016,3.8003,1.3201,5.6311,-1.3008,3.8003,1.877,3.8003,1.3201,1.8954,-5.7143,-1.3397,-3.1111,0.64725,-7.0853,1.8035,3.8547,0.0,3.7359
0.56872,-0.50794,-2.6016,-0.06441,-2.6403,0.45307,-5.2033,3.8003,-2.0065,-0.06441,-2.6403,-2.0261,1.9048,3.764,3.873,3.2362,0.64412,3.0918,0.6951,3.268,3.7359
5.624,-3.6825,-1.9512,-1.3527,-2.6403,-0.19417,-5.2033,-1.3527,-2.6537,-1.3527,-2.6403,-3.3333,8.254,8.2297,9.5873,5.178,7.7295,-2.7053,-0.56872,5.8824,3.7359
6.8878,-2.4127,-0.65041,-4.5733,-2.6403,-1.4887,-5.2033,-6.5056,-2.0065,-4.5733,-2.6403,-5.2941,12.698,13.333,8.9524,9.0615,12.882,0.5153,1.9589,1.3072,5.6683
9.4155,2.0317,3.252,-3.285,-1.9802,-0.19417,-3.9024,-3.285,-0.71197,-3.285,-1.9802,-4.6405,13.968,16.523001,9.5873,14.887,17.391001,0.5153,5.7504,3.9216,10.177
14.471,3.3016,7.1545,1.2238,0.0,4.3366,-1.9512,1.2238,0.58252,1.2238,0.0,-2.0261,12.698,15.247,10.857,14.887,18.035,-2.7053,5.7504,1.3072,10.177
16.997999,5.8413,11.707,5.7327,4.6205,9.5146,3.9024,6.3768,1.2298,5.7327,4.6205,4.5098,10.159,12.057,9.5873,12.945,16.747,6.9565,3.8547,0.65359,7.6006
8.1517,8.381,10.407,7.6651,6.6007,8.8673,7.8049,12.174,1.877,7.6651,6.6007,7.7778,5.0794,6.3158,5.1429,7.1197,10.95,7.6006,1.327,1.9608,3.0918
15.103,5.8413,9.1057,6.3768,8.5809,10.809,9.1057,1.2238,3.8188,6.3768,8.5809,10.392,-1.2698,1.2121,5.1429,1.2945,5.7971,2.4477,0.06319,-1.9608,-0.12882
9.4155,0.7619,3.9024,5.7327,5.2805,5.6311,5.8537,3.8003,3.1715,5.7327,5.2805,6.4706,-5.7143,-1.9777,1.3333,-2.589,0.0,-0.12882,-2.4645,-3.268,-2.0612
-1.9589,0.12698,0.65041,1.868,2.6403,-2.1359,2.6016,7.0209,1.877,1.868,2.6403,1.2418,-5.7143,-1.3397,-1.2063,-0.64725,-1.9324,1.1594,0.06319,0.0,-0.77295
13.839,2.6667,5.2033,1.2238,3.3003,2.3948,3.9024,-2.6409,0.58252,1.2238,3.3003,4.5098,1.9048,5.6778,5.7778,6.4725,3.8647,4.38,4.4866,2.6144,3.7359
10.047,3.3016,1.9512,0.57971,3.9604,-0.19417,2.6016,-4.5733,0.58252,0.57971,3.9604,1.8954,8.254,11.419,8.3175,11.65,7.0853,2.4477,3.8547,3.9216,7.6006
1.2006,3.9365,-2.6016,-1.9968,1.3201,-6.0194,1.3008,-4.5733,-0.06472,-1.9968,1.3201,-2.0261,12.698,13.971,10.857,12.298,8.3736,-0.77295,3.2227,7.1895,8.2448
-10.174,4.5714,-3.252,-3.9291,-3.3003,-10.55,0.0,-0.06441,-2.0065,-3.9291,-3.3003,-4.6405,13.968,13.333,7.0476,12.945,10.306,3.0918,1.9589,3.268,6.3124
-5.1185,4.5714,3.252,-3.285,-3.3003,-6.6667,1.9512,-0.06441,-2.0065,-3.285,-3.3003,-2.0261,15.873,14.609,7.0476,14.887,14.815,4.38,3.2227,2.6144,6.9565
7.5197,2.0317,9.7561,-0.06441,-1.3201,1.1003,1.9512,1.2238,1.2298,-0.06441,-1.3201,2.549,17.778,15.885,10.857,16.181,19.968,0.5153,4.4866,5.2288,7.6006
7.5197,2.0317,9.7561,1.868,1.3201,4.3366,1.9512,1.868,1.2298,1.868,1.3201,4.5098,16.507999,14.609,9.5873,14.239,18.68,-0.12882,2.5908,4.5752,6.9565
4.9921,3.9365,7.8049,3.1562,-1.3201,3.6893,2.6016,3.1562,-0.06472,3.1562,-1.3201,4.5098,13.968,12.695,8.3175,11.65,16.103001,-0.77295,3.8547,3.9216,5.6683
9.4155,5.2063,7.1545,5.7327,2.6403,8.8673,5.8537,1.2238,1.2298,5.7327,2.6403,8.4314,11.429,9.5056,8.3175,7.767,13.527,1.8035,3.8547,3.268,3.7359
7.5197,4.5714,4.5528,5.0886,6.6007,6.9256,6.5041,-1.9968,2.5243,5.0886,6.6007,8.4314,7.619,5.0399,7.6825,2.589,7.7295,-3.3494,2.5908,7.8431,2.4477
-3.2227,-1.7778,-1.3008,6.3768,7.9208,2.3948,4.5528,6.3768,3.8188,6.3768,7.9208,5.1634,-0.63492,-0.70175,-1.8413,-3.8835,-1.2882,2.4477,1.327,-2.6144,-0.77295
1.2006,-8.127,-5.2033,5.0886,7.2607,1.1003,0.65041,6.3768,1.877,5.0886,7.2607,1.8954,-6.9841,-5.8054,-5.6508,-8.4142,-8.3736,1.1594,-3.7283,-7.8431,-3.9936
2.4645,-6.8571,-6.5041,3.1562,1.3201,2.3948,-1.9512,4.4444,-2.0065,3.1562,1.3201,0.58824,-8.254,-6.4434,-6.2857,-7.767,-11.594,0.5153,-5.624,-3.268,-3.9936
-3.8547,-5.5873,-6.5041,1.2238,-3.3003,0.45307,-3.9024,4.4444,-4.5955,1.2238,-3.3003,-1.3725,-10.794,-8.9952,-10.095,-7.767,-14.171,2.4477,-6.2559,-4.5752,-3.9936
-7.6461,-4.3175,-5.8537,-0.06441,-1.3201,-1.4887,-3.252,2.5121,-3.301,-0.06441,-1.3201,-1.3725,-10.794,-9.6332,-11.365,-9.0615,-14.815,1.1594,-3.7283,-5.2288,-4.6377
2.4645,-4.3175,-1.9512,2.5121,-1.9802,2.3948,-2.6016,2.5121,-3.301,2.5121,-1.9802,0.58824,-4.4444,-7.0813,-5.0159,-6.4725,-10.306,-0.77295,-1.8325,0.0,-3.9936
4.3602,-4.3175,-1.3008,1.2238,-2.6403,2.3948,-5.2033,2.5121,-3.9482,1.2238,-2.6403,-0.71895,3.1746,-2.6156,0.69841,-3.8835,-5.153,2.4477,-3.0964,5.2288,-2.0612
-6.3823,-7.4921,-7.1545,-5.8615,-4.6205,-6.6667,-10.407,-5.8615,-5.2427,-5.8615,-4.6205,-7.9085,5.7143,-2.6156,-1.2063,-5.178,-5.153,1.8035,-3.7283,3.9216,-3.3494
-9.5419,-9.3968,-5.2033,-6.5056,-2.6403,-9.9029,-9.1057,-3.9291,-3.9482,-6.5056,-2.6403,-8.5621,8.8889,-0.70175,-0.57143,-4.5307,-1.9324,0.5153,-4.3602,1.3072,-2.0612
4.9921,-3.6825,3.9024,-1.9968,-1.3201,-1.4887,-1.9512,-1.3527,-2.0065,-1.9968,-1.3201,-0.71895,15.238,3.126,8.3175,-0.64725,5.153,0.5153,-2.4645,5.8824,1.1594
10.679,1.3968,7.8049,-1.9968,-1.9802,1.7476,2.6016,-1.9968,0.58252,-1.9968,-1.9802,1.8954,16.507999,5.0399,12.127,1.9417,8.3736,-0.12882,0.06319,7.1895,1.1594
3.0964,0.7619,3.9024,-4.5733,-2.6403,-2.7832,1.9512,-0.70853,-0.71197,-4.5733,-2.6403,-1.3725,12.063,1.2121,8.3175,0.0,5.153,-2.0612,-0.56872,5.8824,-0.77295
-5.7504,2.6667,0.65041,-3.285,-2.6403,-4.0777,2.6016,-0.70853,1.2298,-3.285,-2.6403,-1.3725,7.619,-1.9777,2.6032,-1.9417,1.9324,1.1594,-0.56872,3.9216,-1.4171
-3.2227,5.8413,0.0,-0.70853,-1.9802,-2.1359,5.2033,1.2238,0.58252,-0.70853,-1.9802,-0.06536,3.1746,-4.5295,-0.57143,-2.589,-1.2882,1.8035,1.327,-1.3072,-1.4171
6.8878,2.0317,0.0,-1.9968,0.66007,1.1003,4.5528,-3.285,4.466,-1.9968,0.66007,1.2418,0.0,-8.3573,0.69841,-5.8252,-5.153,-2.7053,1.9589,1.9608,-2.7053
-6.3823,-4.3175,-7.8049,-1.3527,1.9802,-0.84142,1.3008,-1.9968,5.1133,-1.3527,1.9802,-1.3725,-9.5238,-16.013,-11.365,-12.298,-16.103001,-0.77295,-1.2006,-3.268,-6.57
-17.125,-6.2222,-16.910999,-1.3527,4.6205,-6.0194,-0.65041,-1.3527,3.1715,-1.3527,4.6205,-3.9869,-17.143,-21.115999,-22.794001,-16.827999,-27.052999,-5.2818,-5.624,-11.765,-9.1465
-20.284,-4.9524,-20.163,-0.06441,5.2805,-7.9612,0.65041,-1.9968,4.466,-0.06441,5.2805,-3.3333,-17.778,-17.927,-24.698,-14.239,-28.986,-5.9259,-3.0964,-9.8039,-7.2142
-10.806,-3.0476,-17.561001,2.5121,2.6403,-4.7249,1.9512,-1.9968,2.5243,2.5121,2.6403,-0.71895,-14.603,-12.823,-18.983999,-8.4142,-24.476999,-6.57,-1.8325,-7.8431,-5.2818
-6.3823,3.9365,-9.7561,4.4444,6.6007,-0.19417,7.1545,-0.06441,4.466,4.4444,6.6007,4.5098,-10.159,-7.0813,-11.365,-1.9417,-14.815,-3.3494,0.06319,-3.268,-2.7053
4.9921,7.746,2.6016,5.0886,9.2409,5.6311,11.057,0.57971,7.7023,5.0886,9.2409,9.7386,-3.8095,-3.2536,0.69841,3.8835,-1.9324,-0.77295,2.5908,0.65359,-0.77295
5.624,2.6667,7.8049,5.0886,5.2805,8.2201,7.8049,2.5121,4.466,5.0886,5.2805,9.085,0.63492,-2.6156,6.4127,5.178,5.7971,3.7359,1.327,3.9216,-2.0612
15.103,5.8413,12.358,4.4444,5.9406,11.456,7.1545,2.5121,5.1133,4.4444,5.9406,9.7386,7.619,1.2121,12.762,9.0615,14.171,7.6006,4.4866,4.5752,2.4477
4.3602,3.9365,6.5041,0.57971,1.9802,3.0421,-0.65041,5.7327,0.58252,0.57971,1.9802,1.2418,10.159,1.2121,12.127,9.0615,15.459,6.9565,1.9589,1.9608,3.0918
-2.5908,-1.1429,1.9512,-1.9968,-2.6403,-3.4304,-6.5041,1.868,-4.5955,-1.9968,-2.6403,-4.6405,12.063,1.8501,12.127,7.767,15.459,4.38,0.6951,5.2288,1.8035
6.8878,1.3968,5.2033,-3.285,-5.2805,-2.1359,-5.8537,1.2238,-4.5955,-3.285,-5.2805,-4.6405,13.968,3.764,15.937,8.4142,17.391001,-1.4171,1.327,5.2288,3.7359
10.047,1.3968,7.8049,-1.9968,-4.6205,-0.19417,-5.2033,0.57971,-3.9482,-1.9968,-4.6205,-2.6797,13.333,4.4019,15.937,5.8252,16.747,1.8035,-1.2006,9.8039,3.0918
-0.6951,-4.9524,2.6016,1.2238,-5.2805,-1.4887,-7.1545,3.8003,-5.2427,1.2238,-5.2805,-3.9869,10.159,1.8501,10.222,0.0,10.95,5.0242,-3.7283,4.5752,0.5153
4.3602,-11.302,-1.9512,-1.3527,-5.2805,0.45307,-9.1057,-5.8615,-6.5372,-1.3527,-5.2805,-4.6405,5.7143,-0.70175,7.0476,-4.5307,5.153,1.1594,-6.2559,0.65359,-2.0612
-7.0142,-11.937,-10.407,-3.9291,-7.2607,-6.0194,-10.407,-4.5733,-5.89,-3.9291,-7.2607,-8.5621,-1.9048,-5.1675,-4.381,-9.7087,-5.7971,-2.7053,-8.1517,-4.5752,-5.9259
-17.125,-6.2222,-13.008,-3.285,-5.2805,-6.6667,-6.5041,-0.06441,-2.6537,-3.285,-5.2805,-7.2549,-6.9841,-8.9952,-13.27,-12.945,-14.171,0.5153,-3.7283,-6.5359,-5.9259
-12.701,-1.7778,-8.4553,-1.3527,-0.66007,-2.1359,-0.65041,3.8003,1.2298,-1.3527,-0.66007,-2.6797,-10.159,-12.185,-12.635,-14.887,-18.68,0.5153,-1.2006,-3.9216,-5.9259
6.8878,-0.50794,-1.3008,-0.06441,0.0,2.3948,1.3008,-1.9968,1.877,-0.06441,0.0,1.2418,-11.429,-13.461,-6.9206,-13.592,-16.747,-3.9936,-2.4645,-1.3072,-7.8583
-3.2227,-1.1429,-3.252,-4.5733,-2.6403,-2.1359,-1.3008,-1.3527,-2.0065,-4.5733,-2.6403,-1.3725,-15.238,-15.375,-10.095,-14.887,-18.035,-0.12882,-7.5197,-3.9216,-13.011
-7.0142,-1.7778,-1.9512,-4.5733,-1.9802,-3.4304,0.0,-1.3527,0.58252,-4.5733,-1.9802,-1.3725,-12.698,-12.823,-5.6508,-11.003,-12.238,-0.77295,-6.2559,-0.65359,-13.011
10.679,3.3016,7.1545,2.5121,3.3003,6.2783,7.8049,1.2238,7.7023,2.5121,3.3003,7.7778,-6.3492,-6.4434,2.6032,-1.9417,-1.9324,-0.12882,0.06319,0.0,-6.57
6.8878,9.6508,10.407,3.1562,5.9406,4.3366,12.358,1.868,7.7023,3.1562,5.9406,11.046,-3.1746,-0.70175,2.6032,3.8835,3.2206,1.8035,2.5908,-5.2288,-1.4171
1.2006,12.19,13.008,2.5121,6.6007,3.0421,13.659,1.2238,7.7023,2.5121,6.6007,11.046,0.0,6.3158,2.6032,11.65,9.0177,1.1594,8.91,-4.5752,5.0242
3.0964,10.921,14.309,-0.70853,2.6403,3.0421,9.7561,-0.70853,4.466,-0.70853,2.6403,8.4314,0.63492,9.5056,4.5079,15.534,13.527,-1.4171,7.6461,-4.5752,7.6006
8.1517,10.921,14.309,1.2238,3.9604,3.0421,8.4553,-2.6409,3.8188,1.2238,3.9604,7.1242,2.5397,12.695,8.3175,18.77,17.391001,-7.8583,7.0142,-2.6144,9.533
2.4645,8.381,8.4553,0.57971,2.6403,1.7476,5.2033,-1.9968,1.2298,0.57971,2.6403,3.2026,1.9048,12.057,2.6032,16.181,14.171,-3.9936,2.5908,-3.268,9.533
0.56872,-0.50794,3.9024,1.2238,1.3201,2.3948,0.65041,-2.6409,-0.06472,1.2238,1.3201,1.2418,0.63492,10.781,-0.57143,11.65,10.306,2.4477,1.327,-1.3072,7.6006
3.7283,-2.4127,4.5528,3.1562,1.9802,3.6893,-1.3008,-1.9968,-1.3592,3.1562,1.9802,1.2418,1.2698,10.781,0.06349,9.0615,9.6618,0.5153,0.06319,0.65359,5.0242
-3.8547,-5.5873,-0.65041,1.2238,-1.3201,-1.4887,-5.2033,0.57971,-5.89,1.2238,-1.3201,-3.3333,-0.63492,6.9537,-6.2857,3.2362,3.2206,-0.12882,-4.3602,-1.9608,1.1594
-15.229,-7.4921,-7.1545,-1.3527,-3.3003,-6.6667,-9.1057,1.2238,-5.89,-1.3527,-3.3003,-8.5621,-1.9048,4.4019,-11.365,0.64725,-3.2206,-2.0612,-3.7283,-2.6144,-0.12882
-20.284,-6.2222,-13.008,-4.5733,-5.9406,-11.845,-11.057,-0.06441,-5.2427,-4.5733,-5.9406,-13.137,-3.8095,2.488,-13.27,-0.64725,-7.0853,-7.2142,-3.7283,-2.6144,-0.12882
-11.438,-2.4127,-12.358,-5.8615,-7.9208,-7.9612,-10.407,-3.9291,-6.5372,-5.8615,-7.9208,-12.484,-3.8095,2.488,-10.73,0.0,-7.0853,-3.3494,-2.4645,-5.2288,-0.77295
-10.174,-0.50794,-9.1057,-9.7262,-9.2409,-11.197,-8.4553,-5.8615,-6.5372,-9.7262,-9.2409,-11.176,-5.7143,-0.0638,-10.095,0.64725,-7.0853,-1.4171,-1.2006,-4.5752,-1.4171
-5.7504,0.7619,-4.5528,-7.7939,-3.9604,-9.9029,-3.9024,-6.5056,-2.0065,-7.7939,-3.9604,-7.2549,-6.9841,-0.70175,-7.5556,1.9417,-5.7971,-3.3494,0.06319,-3.268,-0.77295
-0.6951,4.5714,0.65041,-3.285,1.3201,-2.1359,1.3008,-7.1498,1.877,-3.285,1.3201,-0.71895,-3.1746,2.488,-1.2063,5.178,-1.9324,-2.0612,3.2227,4.5752,2.4477
-1.9589,3.9365,0.65041,0.57971,-1.3201,1.1003,0.65041,-5.2174,1.2298,0.57971,-1.3201,1.2418,-2.5397,1.8501,-2.4762,3.8835,-2.5765,-0.12882,3.2227,1.3072,3.7359
-4.4866,0.12698,-2.6016,-0.06441,-3.9604,-1.4887,-4.5528,-2.6409,-2.6537,-0.06441,-3.9604,-1.3725,-3.1746,-0.70175,-4.381,0.64725,-3.8647,0.5153,-3.7283,-3.268,-0.12882
1.2006,-4.9524,-2.6016,-5.2174,-5.2805,-3.4304,-8.4553,-7.1498,-5.2427,-5.2174,-5.2805,-3.9869,0.63492,0.57416,0.69841,1.2945,-1.2882,-4.6377,-1.8325,1.3072,0.5153
-1.327,-4.9524,-1.9512,-3.9291,-7.9208,-3.4304,-7.8049,-1.9968,-5.89,-3.9291,-7.9208,-3.9869,4.4444,5.0399,4.5079,2.589,1.9324,-3.3494,1.9589,3.268,4.38
-0.6951,-6.8571,-1.3008,-0.06441,-3.9604,-2.1359,-5.2033,3.1562,-3.301,-0.06441,-3.9604,-0.71895,6.9841,6.3158,7.0476,0.0,2.5765,-0.12882,0.06319,5.8824,3.7359
-5.1185,-13.841,-4.5528,-0.70853,-2.6403,-2.7832,-6.5041,-1.3527,-5.89,-0.70853,-2.6403,-2.0261,3.1746,0.57416,0.69841,-7.767,-1.2882,0.5153,-7.5197,0.65359,-2.7053
-7.0142,-10.667,-3.252,-1.3527,-1.3201,-1.4887,-5.2033,-2.6409,-7.1845,-1.3527,-1.3201,-2.0261,2.5397,0.57416,-1.8413,-7.767,-0.64412,-1.4171,-7.5197,0.0,-3.3494
-7.0142,-6.8571,-4.5528,-1.3527,-2.6403,-2.7832,-3.9024,-5.8615,-3.301,-1.3527,-2.6403,-3.3333,3.8095,2.488,-3.1111,-5.178,0.0,-5.9259,-4.9921,-0.65359,-1.4171
-10.806,-6.8571,-9.7561,-3.285,-2.6403,-7.9612,-5.8537,-5.8615,-3.301,-3.285,-2.6403,-6.6013,1.9048,0.57416,-7.5556,-7.1197,-4.5089,-5.9259,-1.2006,-3.268,-0.12882
-20.916,-8.127,-13.008,-5.2174,-2.6403,-13.139,-7.8049,-7.1498,-4.5955,-5.2174,-2.6403,-9.8693,-1.2698,-2.6156,-13.27,-9.7087,-9.6618,-6.57,-1.2006,-4.5752,-2.0612
-9.5419,-1.7778,-5.2033,-2.6409,1.3201,-8.6084,-1.9512,-6.5056,-1.3592,-2.6409,1.3201,-5.2941,1.9048,-0.0638,-6.9206,-5.178,-5.7971,-7.2142,-0.56872,-0.65359,-1.4171
-2.5908,2.6667,0.0,-3.285,-0.66007,-4.0777,-0.65041,-5.2174,-0.06472,-3.285,-0.66007,-3.3333,3.8095,2.488,-1.2063,-0.64725,-1.9324,-4.6377,1.327,7.8431,-0.77295
-8.278,0.7619,-3.252,-5.2174,-3.3003,-7.3139,-2.6016,-5.2174,-0.71197,-5.2174,-3.3003,-4.6405,0.63492,1.8501,-3.1111,0.0,-2.5765,-0.77295,1.327,1.9608,-0.12882
-9.5419,0.7619,-7.1545,-5.2174,-1.3201,-7.3139,-1.9512,-3.9291,0.58252,-5.2174,-1.3201,-5.2941,-3.8095,-0.0638,-5.6508,-1.2945,-6.4412,-0.77295,0.06319,-3.268,-0.12882
-0.6951,3.3016,-4.5528,-1.3527,-0.66007,-0.19417,1.9512,-1.3527,3.8188,-1.3527,-0.66007,-0.71895,-3.1746,-0.0638,-3.746,-0.64725,-6.4412,-2.7053,0.6951,-0.65359,-0.12882
-2.5908,6.4762,-1.9512,-0.70853,0.66007,1.1003,5.8537,1.2238,3.8188,-0.70853,0.66007,2.549,-2.5397,0.57416,-5.0159,0.0,-6.4412,1.1594,3.8547,-1.9608,1.1594
-4.4866,3.9365,-1.3008,-0.06441,2.6403,-0.19417,5.8537,1.868,3.8188,-0.06441,2.6403,3.8562,-3.8095,-2.6156,-6.2857,-2.589,-8.3736,1.8035,3.2227,-2.6144,2.4477
1.2006,-2.4127,-3.252,-0.70853,1.9802,2.3948,3.252,-1.3527,2.5243,-0.70853,1.9802,3.8562,-5.7143,-7.0813,-6.2857,-7.767,-10.95,-3.9936,1.327,-0.65359,-0.77295
-4.4866,-5.5873,-7.8049,-0.06441,2.6403,-0.19417,0.0,-1.3527,-0.06472,-0.06441,2.6403,0.58824,-5.0794,-8.3573,-6.2857,-11.65,-12.882,-0.77295,0.06319,1.3072,-3.3494
-1.9589,-6.8571,-9.7561,-1.3527,-3.9604,-0.84142,-3.9024,-5.2174,-3.301,-1.3527,-3.9604,-2.6797,-4.4444,-8.3573,-5.0159,-13.592,-11.594,-0.77295,-3.0964,0.0,-3.9936
-3.8547,-8.7619,-7.8049,-1.9968,-6.6007,-0.84142,-5.2033,-0.06441,-4.5955,-1.9968,-6.6007,-3.3333,-5.0794,-8.3573,-5.0159,-13.592,-9.6618,-1.4171,-6.2559,-1.9608,-4.6377
-3.2227,-2.4127,-1.3008,-0.70853,-3.9604,-0.19417,-2.6016,1.2238,-4.5955,-0.70853,-3.9604,-0.71895,-5.0794,-5.1675,-1.8413,-8.4142,-4.5089,-2.7053,-3.7283,0.65359,-2.7053
-0.06319,-0.50794,1.9512,-0.70853,-6.6007,0.45307,-3.9024,-1.3527,-3.9482,-0.70853,-6.6007,-0.71895,-1.9048,-1.3397,0.69841,-2.589,1.2882,0.5153,-3.0964,-0.65359,-1.4171
-2.5908,0.12698,1.9512,-0.06441,-6.6007,-0.84142,-4.5528,3.8003,-3.9482,-0.06441,-6.6007,-2.0261,5.7143,5.6778,7.6825,2.589,8.3736,8.2448,0.06319,6.5359,1.8035
4.3602,-1.1429,1.9512,-2.6409,-6.6007,-2.1359,-5.8537,1.868,-4.5955,-2.6409,-6.6007,-3.9869,11.429,11.419,15.937,7.767,13.527,1.8035,3.8547,11.765,3.0918
4.3602,-0.50794,-0.65041,-6.5056,-7.9208,-4.7249,-6.5041,-3.285,-5.89,-6.5056,-7.9208,-5.9477,10.794,12.695,14.032,9.7087,13.527,1.1594,1.327,8.4967,2.4477
-1.327,2.0317,-1.3008,-4.5733,-6.6007,-4.7249,-3.9024,-1.9968,-3.9482,-4.5733,-6.6007,-3.9869,10.159,13.971,8.3175,12.298,11.594,2.4477,0.06319,7.8431,3.7359
4.3602,2.6667,2.6016,-3.285,-0.66007,-1.4887,0.65041,-5.2174,-0.06472,-3.285,-0.66007,0.58824,11.429,15.885,9.5873,15.534,12.238,-0.12882,3.8547,11.111,8.2448
4.9921,3.3016,3.252,-3.285,0.66007,-0.84142,0.0,-10.37,1.877,-3.285,0.66007,-0.06536,9.5238,14.609,7.0476,14.887,10.95,-0.77295,5.7504,6.5359,8.8889
-8.278,2.6667,-1.9512,-9.7262,-3.3003,-8.6084,-3.9024,-9.0821,-2.0065,-9.7262,-3.3003,-6.6013,5.7143,8.8676,0.69841,9.7087,5.153,1.8035,0.6951,0.65359,5.6683
-12.07,-1.1429,-4.5528,-11.659,-4.6205,-13.786,-7.1545,-7.1498,-3.9482,-11.659,-4.6205,-9.8693,3.1746,2.488,0.69841,1.9417,0.0,-0.77295,-0.56872,1.9608,3.0918
-3.2227,-4.9524,-3.252,-12.303,-8.5809,-13.139,-7.8049,-8.438,-2.6537,-12.303,-8.5809,-9.2157,1.9048,-1.9777,3.873,-3.8835,-1.9324,-6.57,3.2227,3.268,1.8035
-3.8547,-9.3968,-6.5041,-12.947,-13.861,-11.197,-13.008,-7.7939,-5.89,-12.947,-13.861,-11.83,-1.2698,-6.4434,1.3333,-8.4142,-4.5089,-0.12882,-1.2006,2.6144,-1.4171
6.8878,-4.9524,-2.6016,-9.0821,-9.901,-6.0194,-10.407,-5.8615,-5.2427,-9.0821,-9.901,-9.2157,1.9048,-3.2536,7.6825,-3.8835,0.64412,1.8035,-0.56872,5.8824,-0.77295
-1.9589,-4.3175,-5.2033,-10.37,-10.561,-9.9029,-10.407,-3.9291,-4.5955,-10.37,-10.561,-11.83,-1.2698,-3.2536,5.1429,-1.2945,1.2882,-2.0612,-1.2006,3.268,-2.0612
-1.9589,-1.1429,-3.9024,-10.37,-10.561,-9.2557,-9.7561,-5.8615,-4.5955,-10.37,-10.561,-10.523,-1.2698,0.57416,2.6032,3.2362,3.8647,-1.4171,0.6951,1.9608,-0.77295
10.047,7.746,5.2033,-4.5733,-3.9604,2.3948,-1.3008,-3.9291,-0.06472,-4.5733,-3.9604,-1.3725,2.5397,8.8676,6.4127,11.65,10.95,3.0918,5.1185,-0.65359,4.38
6.2559,8.381,6.5041,-3.9291,-2.6403,2.3948,2.6016,-3.9291,1.2298,-3.9291,-2.6403,0.58824,1.9048,10.781,3.873,12.945,11.594,-0.12882,4.4866,-2.6144,3.7359
4.3602,10.286,9.1057,3.8003,5.2805,3.6893,9.1057,3.8003,7.055,3.8003,5.2805,5.817,6.3492,13.971,7.6825,14.887,14.171,-1.4171,5.7504,5.2288,5.0242
4.3602,10.921,9.7561,5.7327,7.9208,7.5728,11.057,5.0886,7.7023,5.7327,7.9208,7.7778,6.3492,12.695,7.0476,13.592,13.527,4.38,5.1185,1.3072,3.7359
6.2559,7.1111,9.7561,5.7327,5.2805,7.5728,9.1057,4.4444,4.466,5.7327,5.2805,7.1242,4.4444,9.5056,5.7778,9.7087,10.95,1.1594,1.9589,-0.65359,1.8035
11.311,7.746,11.707,9.5974,7.9208,12.104,11.057,7.6651,5.1133,9.5974,7.9208,10.392,-0.63492,5.0399,3.873,6.4725,7.7295,-2.7053,3.2227,-1.3072,1.1594
10.047,10.921,13.008,13.462,11.221,15.34,13.659,10.242,5.7605,13.462,11.221,14.314,-5.7143,1.8501,-2.4762,3.2362,2.5765,5.6683,5.1185,-4.5752,1.8035
10.047,12.825,12.358,9.5974,8.5809,14.045,14.309,6.3768,5.1133,9.5974,8.5809,14.967,-9.5238,-1.9777,-5.0159,-0.64725,-3.2206,5.6683,2.5908,-6.5359,1.1594
3.7283,0.12698,5.8537,1.868,-1.3201,6.9256,5.8537,2.5121,-0.71197,1.868,-1.3201,8.4314,-14.603,-8.9952,-7.5556,-8.4142,-10.306,0.5153,-2.4645,-5.2288,-3.9936
2.4645,-6.2222,3.252,-0.70853,-5.9406,3.6893,0.0,3.8003,-4.5955,-0.70853,-5.9406,4.5098,-13.968,-10.909,-6.9206,-11.65,-12.238,1.8035,-7.5197,-1.3072,-7.8583
6.2559,-1.7778,6.5041,1.868,-3.3003,7.5728,1.9512,4.4444,-5.2427,1.868,-3.3003,7.1242,-5.7143,-5.8054,-0.57143,-7.767,-5.7971,9.533,-9.4155,13.725,-7.2142
-1.9589,-5.5873,1.3008,1.2238,-3.3003,3.0421,-1.9512,6.3768,-7.1845,1.2238,-3.3003,2.549,-3.8095,-4.5295,-1.2063,-8.4142,-6.4412,9.533,-10.047,11.765,-8.5024
-0.6951,-5.5873,-2.6016,-0.70853,-3.9604,1.1003,-4.5528,4.4444,-8.479,-0.70853,-3.9604,-0.06536,-3.1746,-2.6156,-1.8413,-7.1197,-6.4412,6.3124,-8.1517,3.9216,-7.8583
6.8878,-3.0476,-1.9512,-3.9291,-5.9406,0.45307,-4.5528,-1.9968,-7.8317,-3.9291,-5.9406,-1.3725,-1.9048,-2.6156,0.06349,-5.178,-4.5089,0.5153,-8.1517,1.3072,-6.57
5.624,-2.4127,0.0,-2.6409,-3.9604,-0.19417,-3.252,-3.285,-4.5955,-2.6409,-3.9604,-1.3725,-1.2698,-3.8915,0.69841,-5.178,-2.5765,1.8035,-4.3602,0.65359,-6.57
-3.8547,-4.3175,0.65041,-1.9968,-1.3201,-1.4887,-1.9512,-0.06441,-2.0065,-1.9968,-1.3201,-1.3725,-1.2698,-5.1675,-1.8413,-5.8252,-1.9324,1.8035,-3.7283,-3.268,-6.57
-2.5908,-1.7778,2.6016,-1.9968,-0.66007,0.45307,1.3008,-1.3527,0.58252,-1.9968,-0.66007,1.2418,-2.5397,-5.1675,-1.8413,-6.4725,-1.9324,-3.3494,-1.8325,-4.5752,-5.9259
11.943,6.4762,7.1545,2.5121,3.9604,6.2783,9.1057,-4.5733,4.466,2.5121,3.9604,7.7778,0.0,-1.9777,4.5079,-2.589,0.64412,-8.5024,2.5908,-0.65359,-0.77295
1.2006,3.9365,1.9512,4.4444,6.6007,4.3366,7.8049,-1.3527,5.7605,4.4444,6.6007,6.4706,-2.5397,-2.6156,-0.57143,-3.2362,-3.2206,-4.6377,1.9589,-1.9608,0.5153
-1.9589,0.12698,0.0,5.7327,5.9406,5.6311,5.2033,4.4444,4.466,5.7327,5.9406,5.817,-4.4444,-1.3397,-6.2857,-3.2362,-5.7971,1.8035,2.5908,-8.4967,2.4477
1.2006,2.0317,1.3008,3.1562,1.3201,3.6893,2.6016,1.2238,1.2298,3.1562,1.3201,3.8562,-3.1746,1.8501,-5.0159,-1.2945,-3.8647,-3.9936,-0.56872,-9.1503,3.7359
4.9921,3.9365,5.2033,5.7327,5.9406,6.2783,5.8537,1.868,3.1715,5.7327,5.9406,7.1242,1.2698,5.0399,0.06349,1.9417,-0.64412,-5.9259,2.5908,1.3072,5.6683
0.56872,2.0317,4.5528,7.0209,5.9406,8.2201,5.8537,4.4444,3.1715,7.0209,5.9406,7.1242,-0.63492,1.8501,-3.746,0.64725,-3.2206,-0.77295,3.2227,-3.9216,4.38
2.4645,5.8413,7.1545,6.3768,8.5809,8.8673,8.4553,5.0886,5.7605,6.3768,8.5809,9.085,-1.2698,-0.0638,-1.8413,0.64725,-1.9324,2.4477,3.8547,-5.8824,3.0918
3.7283,4.5714,5.2033,5.0886,6.6007,4.9838,5.8537,7.0209,6.4078,5.0886,6.6007,5.817,0.0,-1.9777,2.6032,0.64725,0.0,1.8035,3.8547,-2.6144,-0.12882
-2.5908,-0.50794,-3.9024,1.2238,0.66007,-2.1359,-0.65041,2.5121,3.1715,1.2238,0.66007,-0.71895,-1.9048,-7.0813,1.9683,-3.2362,-2.5765,-3.9936,0.06319,-1.9608,-2.7053
3.7283,-1.7778,-5.8537,0.57971,2.6403,-2.7832,-1.9512,-2.6409,3.8188,0.57971,2.6403,-2.6797,-1.2698,-6.4434,3.2381,-2.589,-1.2882,-6.57,0.06319,-1.9608,-2.0612
10.679,3.9365,-1.3008,1.2238,5.9406,1.1003,0.65041,-8.438,3.8188,1.2238,5.9406,-0.06536,1.9048,-1.3397,5.1429,3.2362,3.8647,-0.77295,5.1185,0.65359,1.8035
5.624,5.2063,0.65041,0.57971,1.9802,0.45307,-0.65041,-4.5733,4.466,0.57971,1.9802,-1.3725,2.5397,1.8501,2.6032,5.8252,5.153,-0.77295,7.0142,-0.65359,4.38
-7.6461,1.3968,-1.9512,-1.9968,-4.6205,-4.7249,-5.8537,1.2238,1.2298,-1.9968,-4.6205,-7.2549,1.2698,3.126,-1.8413,3.8835,3.8647,-2.0612,3.8547,-1.9608,4.38
-1.327,-1.7778,0.65041,-0.70853,-3.9604,-2.1359,-5.2033,1.2238,-0.71197,-0.70853,-3.9604,-5.9477,4.4444,5.6778,2.6032,4.5307,6.4412,-5.9259,3.2227,1.3072,6.3124
-7.0142,-4.3175,-2.6016,1.2238,-2.6403,-3.4304,-3.9024,1.2238,-2.6537,1.2238,-2.6403,-5.2941,1.9048,5.0399,-3.1111,1.2945,2.5765,-2.0612,0.6951,-1.3072,5.0242
-12.07,-5.5873,-6.5041,-1.9968,-1.9802,-5.3722,-4.5528,-1.3527,-3.301,-1.9968,-1.9802,-5.9477,-2.5397,2.488,-10.73,-2.589,-2.5765,-1.4171,-1.2006,-9.8039,2.4477
-6.3823,-0.50794,-2.6016,-3.285,-0.66007,-6.0194,-0.65041,-3.9291,-1.3592,-3.285,-0.66007,-5.2941,0.0,3.764,-5.6508,-0.64725,-1.2882,-4.6377,-0.56872,-5.8824,2.4477
-7.0142,1.3968,-1.9512,-2.6409,0.0,-9.2557,-0.65041,-3.9291,-0.71197,-2.6409,0.0,-5.2941,0.0,1.2121,-5.6508,-1.9417,-3.2206,-3.3494,-0.56872,-5.2288,1.1594
6.2559,1.3968,0.65041,0.57971,2.6403,-3.4304,1.9512,-4.5733,3.8188,0.57971,2.6403,-2.0261,1.9048,1.8501,1.3333,0.0,-1.9324,-9.1465,4.4866,1.9608,3.7359
4.3602,-0.50794,-1.9512,1.868,4.6205,-0.19417,2.6016,-10.37,5.1133,1.868,4.6205,-0.71895,-0.63492,1.8501,-2.4762,0.0,-4.5089,-3.9936,5.7504,-3.9216,4.38
-0.6951,2.0317,-4.5528,3.1562,5.9406,0.45307,3.9024,-7.1498,5.7605,3.1562,5.9406,-0.06536,-1.9048,-0.0638,-3.746,-0.64725,-6.4412,-2.7053,4.4866,-7.1895,2.4477
-5.1185,4.5714,-4.5528,3.8003,5.9406,0.45307,5.2033,0.57971,4.466,3.8003,5.9406,-0.06536,-1.9048,-0.70175,-3.746,0.0,-5.153,-0.77295,4.4866,-5.8824,1.1594
-5.7504,7.1111,-0.65041,0.57971,1.9802,-4.0777,2.6016,1.2238,3.1715,0.57971,1.9802,-2.0261,0.63492,1.8501,0.06349,4.5307,1.2882,-2.7053,4.4866,-2.6144,3.0918
-1.327,2.0317,0.65041,-1.9968,-0.66007,-4.7249,-1.9512,-0.06441,2.5243,-1.9968,-0.66007,-4.6405,0.63492,3.126,1.3333,6.4725,4.5089,-3.3494,3.8547,-1.3072,4.38
5.624,2.0317,1.3008,1.868,1.3201,1.1003,-1.3008,3.8003,1.2298,1.868,1.3201,-2.0261,0.63492,4.4019,2.6032,7.1197,6.4412,-2.0612,-0.56872,-2.6144,4.38
4.9921,-3.0476,1.9512,1.868,1.3201,-0.19417,-1.3008,2.5121,0.58252,1.868,1.3201,-1.3725,0.0,4.4019,2.6032,5.178,7.0853,1.1594,-0.56872,-1.3072,3.0918
6.2559,-4.9524,3.252,0.57971,-0.66007,-0.19417,-0.65041,1.868,-0.71197,0.57971,-0.66007,-0.71895,-0.63492,3.126,1.9683,3.8835,8.3736,5.6683,-1.2006,-1.3072,1.1594
8.1517,-2.4127,4.5528,-1.9968,-1.9802,-0.19417,0.0,-4.5733,-2.0065,-1.9968,-1.9802,-0.71895,-1.2698,3.126,3.873,3.2362,8.3736,-1.4171,-3.0964,-0.65359,0.5153
-3.2227,-4.3175,0.65041,-3.9291,-0.66007,-4.7249,-1.9512,-1.9968,-2.6537,-3.9291,-0.66007,-3.9869,-2.5397,0.57416,-1.2063,-0.64725,3.2206,-1.4171,-3.7283,-3.268,-0.77295
-7.6461,-8.127,-4.5528,-3.9291,-3.9604,-6.6667,-5.2033,1.868,-3.9482,-3.9291,-3.9604,-6.6013,-3.1746,-1.9777,-3.1111,-4.5307,-2.5765,0.5153,-3.7283,-0.65359,-2.0612
-0.6951,-6.2222,-4.5528,-0.70853,-3.3003,-3.4304,-2.6016,1.2238,-0.71197,-0.70853,-3.3003,-3.9869,-0.63492,-1.9777,-1.8413,-5.8252,-4.5089,0.5153,-3.0964,-0.65359,-0.77295
2.4645,0.7619,-1.9512,1.2238,1.9802,0.45307,1.9512,3.8003,1.877,1.2238,1.9802,-1.3725,2.5397,-0.70175,-1.2063,-3.8835,-3.8647,1.1594,-2.4645,-0.65359,-1.4171
-0.06319,3.3016,0.65041,-0.70853,1.3201,-3.4304,1.9512,-1.3527,2.5243,-0.70853,1.3201,-2.0261,4.4444,3.126,-1.2063,0.64725,-0.64412,1.1594,3.2227,-1.3072,1.1594
-1.327,3.3016,3.252,-1.3527,-0.66007,-4.7249,1.3008,-1.3527,4.466,-1.3527,-0.66007,-2.6797,8.8889,8.8676,3.873,8.4142,5.7971,-0.12882,7.0142,1.9608,5.6683
6.2559,7.746,6.5041,-1.3527,0.66007,2.3948,3.9024,-0.06441,3.8188,-1.3527,0.66007,1.2418,12.063,13.971,7.6825,12.945,10.95,1.1594,8.278,1.3072,9.533
8.7836,8.381,8.4553,1.2238,2.6403,6.9256,6.5041,-0.06441,4.466,1.2238,2.6403,5.817,13.333,15.885,9.5873,14.239,12.238,3.0918,8.278,2.6144,10.821
11.943,5.2063,7.8049,7.0209,5.2805,11.456,7.8049,6.3768,3.8188,7.0209,5.2805,10.392,10.159,13.333,9.5873,11.65,10.306,2.4477,4.4866,1.9608,6.9565
8.7836,1.3968,3.9024,6.3768,5.2805,8.8673,6.5041,8.3092,1.877,6.3768,5.2805,9.085,4.4444,6.3158,4.5079,6.4725,5.7971,5.0242,-1.2006,-1.9608,1.8035
8.1517,3.9365,3.252,7.0209,7.2607,7.5728,8.4553,7.0209,1.877,7.0209,7.2607,9.085,1.9048,1.8501,5.1429,4.5307,4.5089,5.0242,-1.2006,1.3072,0.5153
1.2006,0.7619,0.65041,5.7327,5.9406,4.9838,5.2033,6.3768,-0.06472,5.7327,5.9406,5.817,-1.2698,-2.6156,1.3333,1.2945,1.9324,5.6683,-1.2006,1.3072,-2.0612
5.624,-1.1429,0.65041,5.7327,4.6205,4.9838,3.252,1.868,1.2298,5.7327,4.6205,4.5098,-5.0794,-5.1675,-0.57143,-0.64725,0.64412,-0.12882,-1.2006,0.0,-2.0612
-4.4866,-6.2222,-7.1545,2.5121,-0.66007,-0.84142,-3.252,2.5121,-2.6537,2.5121,-0.66007,-2.6797,-10.159,-12.185,-7.5556,-9.7087,-7.7295,-0.77295,-4.3602,-1.9608,-5.9259
-10.806,-11.937,-13.008,-1.9968,-5.2805,-6.0194,-8.4553,2.5121,-3.301,-1.9968,-5.2805,-7.9085,-12.063,-17.927,-10.095,-18.77,-15.459,1.1594,-6.8878,-2.6144,-11.723
-7.0142,-10.032,-12.358,-0.06441,-1.9802,-4.7249,-6.5041,3.1562,-0.71197,-0.06441,-1.9802,-6.6013,-12.698,-20.478001,-8.8254,-22.006001,-18.68,0.5153,-6.8878,-0.65359,-13.655
-5.1185,-6.8571,-11.707,-5.2174,-3.3003,-6.6667,-7.1545,-3.9291,-2.6537,-5.2174,-3.3003,-7.9085,-12.063,-19.841,-10.73,-21.358999,-19.323999,4.38,-7.5197,-3.9216,-13.011
1.8325,0.7619,-5.2033,-5.8615,-4.6205,-4.0777,-3.9024,-3.9291,-1.3592,-5.8615,-4.6205,-5.2941,-3.1746,-9.6332,-5.0159,-11.003,-10.306,5.0242,-4.3602,1.3072,-5.9259
4.3602,1.3968,-1.9512,-6.5056,-5.9406,-4.0777,-3.252,-0.06441,-0.71197,-6.5056,-5.9406,-4.6405,3.8095,-0.70175,1.3333,-1.2945,-2.5765,2.4477,0.06319,3.268,-0.77295
-5.1185,-1.7778,-1.3008,-4.5733,-6.6007,-6.6667,-2.6016,0.57971,-1.3592,-4.5733,-6.6007,-3.3333,6.3492,5.6778,0.69841,5.178,1.9324,3.7359,2.5908,0.65359,1.8035
0.56872,3.3016,5.8537,-0.70853,0.66007,-0.19417,3.9024,1.2238,1.877,-0.70853,0.66007,3.8562,11.429,12.695,5.7778,12.945,9.6618,2.4477,3.8547,1.9608,6.9565
4.3602,3.9365,6.5041,-0.70853,1.9802,1.7476,5.2033,2.5121,1.877,-0.70853,1.9802,5.817,13.968,14.609,9.5873,14.239,12.238,0.5153,2.5908,4.5752,6.9565
10.047,4.5714,6.5041,0.57971,1.9802,4.3366,3.9024,-1.3527,0.58252,0.57971,1.9802,5.817,13.968,14.609,11.492,14.239,13.527,0.5153,3.2227,4.5752,9.533
1.8325,5.2063,3.252,5.0886,5.9406,4.3366,2.6016,1.868,1.2298,5.0886,5.9406,4.5098,10.794,12.695,9.5873,12.945,12.238,-0.77295,4.4866,5.8824,8.8889
-5.1185,3.3016,-1.9512,3.8003,1.9802,1.1003,-1.9512,3.1562,-0.71197,3.8003,1.9802,-0.06536,3.8095,5.0399,1.3333,6.4725,5.153,1.1594,1.327,0.0,5.0242
-5.1185,-3.0476,-4.5528,1.868,-0.66007,1.1003,-3.9024,2.5121,-3.301,1.868,-0.66007,-1.3725,-3.8095,-3.8915,-5.0159,-2.589,-3.2206,3.7359,-1.2006,-3.268,-0.77295
-3.2227,-6.2222,-5.8537,4.4444,0.66007,3.0421,-2.6016,3.1562,-0.71197,4.4444,0.66007,-0.06536,-7.619,-9.6332,-6.9206,-8.4142,-9.0177,3.0918,-1.8325,-1.9608,-4.6377
-3.8547,-4.9524,-6.5041,5.7327,2.6403,1.1003,-1.9512,-0.70853,-0.06472,5.7327,2.6403,-1.3725,-11.429,-14.099,-8.8254,-11.65,-12.882,1.1594,-4.3602,-3.268,-7.8583
-0.06319,-3.6825,-6.5041,4.4444,0.66007,-1.4887,-3.9024,0.57971,-0.71197,4.4444,0.66007,-3.9869,-12.698,-16.650999,-6.9206,-12.298,-12.882,-0.77295,-4.3602,-1.9608,-9.1465
6.2559,0.7619,-1.3008,1.868,0.66007,-0.84142,-0.65041,2.5121,0.58252,1.868,0.66007,-2.6797,-6.3492,-14.099,1.9683,-8.4142,-7.0853,-2.7053,0.06319,6.5359,-6.57
5.624,0.12698,2.6016,1.868,2.6403,3.0421,1.9512,3.1562,4.466,1.868,2.6403,0.58824,-3.1746,-11.547,4.5079,-6.4725,-3.2206,5.6683,0.6951,6.5359,-5.2818
-3.8547,-1.7778,0.65041,0.57971,4.6205,3.0421,3.9024,3.8003,3.1715,0.57971,4.6205,2.549,-5.7143,-12.823,-1.8413,-9.7087,-5.7971,5.6683,-3.0964,-0.65359,-6.57
5.624,0.12698,2.6016,1.868,5.9406,7.5728,8.4553,0.57971,4.466,1.868,5.9406,7.1242,-1.2698,-7.7193,3.2381,-6.4725,-1.2882,3.7359,-0.56872,1.9608,-3.9936
1.2006,3.3016,2.6016,3.8003,8.5809,5.6311,9.7561,5.0886,6.4078,3.8003,8.5809,9.085,2.5397,-0.70175,7.0476,-0.64725,4.5089,1.8035,3.2227,5.2288,-1.4171
1.8325,7.746,4.5528,4.4444,7.2607,6.9256,11.057,4.4444,5.7605,4.4444,7.2607,9.085,5.0794,5.0399,7.6825,6.4725,9.0177,1.8035,5.1185,1.9608,2.4477
7.5197,12.825,10.407,6.3768,9.901,10.809,14.959,3.8003,9.644,6.3768,9.901,13.007,10.159,12.057,10.857,14.239,15.459,-0.77295,7.0142,2.6144,5.6683
11.943,15.365,14.959,8.9533,13.201,14.045,19.511999,3.8003,12.88,8.9533,13.201,16.927999,12.063,13.971,10.857,16.827999,16.747,-3.3494,8.91,5.2288,8.2448
14.471,14.095,14.959,8.3092,11.881,12.751,17.561001,-0.70853,12.233,8.3092,11.881,16.927999,8.8889,10.781,8.3175,13.592,12.238,-0.77295,6.3823,2.6144,6.3124
-7.0142,3.9365,2.6016,3.1562,9.2409,2.3948,8.4553,0.57971,7.7023,3.1562,9.2409,7.1242,-2.5397,0.57416,-5.0159,1.2945,-1.2882,1.1594,-0.56872,-6.5359,1.1594
-19.021,-3.6825,-9.1057,0.57971,3.9604,-4.0777,1.3008,3.8003,4.466,0.57971,3.9604,-0.06536,-8.254,-5.8054,-13.27,-6.4725,-10.95,2.4477,0.06319,-9.1503,-2.7053
-14.597,-4.3175,-14.309,1.868,3.3003,-5.3722,-0.65041,-0.70853,4.466,1.868,3.3003,-2.6797,-10.159,-9.6332,-15.81,-11.003,-16.103001,-2.0612,1.327,-9.1503,-4.6377
-12.701,-1.7778,-14.309,2.5121,5.9406,-4.7249,1.3008,-0.70853,4.466,2.5121,5.9406,-2.0261,-13.333,-14.737,-17.079,-15.534,-19.968,-6.57,1.327,-8.4967,-5.2818
-8.91,-2.4127,-12.358,3.1562,8.5809,-1.4887,1.3008,-0.70853,4.466,3.1562,8.5809,-1.3725,-13.968,-17.289,-15.81,-19.417,-21.256001,-3.3494,2.5908,-5.8824,-4.6377
-12.701,-9.3968,-14.959,-0.70853,0.66007,-6.6667,-7.1545,-4.5733,-0.06472,-0.70853,0.66007,-7.9085,-13.333,-18.565001,-13.905,-21.358999,-21.256001,-7.2142,-2.4645,-3.9216,-5.2818
-11.438,-11.302,-11.707,-5.8615,-8.5809,-11.197,-12.358,-6.5056,-4.5955,-5.8615,-8.5809,-13.137,-10.159,-14.099,-8.8254,-14.887,-13.527,-9.1465,-2.4645,-4.5752,-4.6377
-1.9589,-4.9524,-2.6016,-6.5056,-7.2607,-7.9612,-12.358,-3.9291,-6.5372,-6.5056,-7.2607,-12.484,-4.4444,-5.1675,-1.8413,-4.5307,-3.2206,-3.9936,-0.56872,-1.3072,-2.0612
-0.06319,0.7619,3.252,-1.9968,-2.6403,-0.84142,-8.4553,-0.70853,-3.9482,-1.9968,-2.6403,-6.6013,0.0,3.126,0.69841,5.8252,4.5089,1.8035,0.06319,1.9608,1.8035
3.0964,3.9365,6.5041,1.868,0.0,5.6311,-0.65041,5.0886,-1.3592,1.868,0.0,1.2418,6.3492,11.419,6.4127,12.945,10.95,3.7359,1.9589,5.8824,6.3124
10.047,4.5714,7.1545,5.0886,0.66007,11.456,6.5041,5.7327,0.58252,5.0886,0.66007,7.1242,7.619,12.057,8.3175,11.65,10.306,4.38,0.6951,7.1895,4.38
13.839,3.9365,8.4553,6.3768,3.3003,14.693,9.7561,5.0886,1.2298,6.3768,3.3003,10.392,8.8889,10.144,11.492,7.1197,9.0177,3.7359,-3.0964,13.725,1.1594
3.7283,-1.1429,6.5041,3.1562,1.3201,9.5146,4.5528,7.0209,-2.6537,3.1562,1.3201,6.4706,8.254,6.9537,7.6825,3.2362,6.4412,5.6683,-3.0964,11.111,0.5153
-5.1185,-2.4127,5.2033,-0.06441,-3.9604,1.7476,-1.9512,5.7327,-7.1845,-0.06441,-3.9604,-0.06536,5.0794,3.764,1.9683,1.9417,3.8647,6.3124,-2.4645,-1.3072,-0.77295
3.0964,-1.1429,6.5041,-0.70853,-5.2805,1.7476,-3.252,4.4444,-5.89,-0.70853,-5.2805,-2.6797,6.9841,3.126,7.0476,3.2362,5.7971,-0.77295,-3.0964,-0.65359,-0.77295
13.207,1.3968,4.5528,-1.3527,-1.3201,2.3948,-1.9512,-7.7939,-3.301,-1.3527,-1.3201,-2.0261,7.619,2.488,8.9524,2.589,5.153,-2.0612,-1.2006,3.9216,0.5153
-0.06319,-0.50794,-3.252,-4.5733,-2.6403,-4.7249,-5.2033,-6.5056,-2.6537,-4.5733,-2.6403,-7.9085,2.5397,-0.70175,2.6032,-0.64725,-0.64412,-0.77295,-1.8325,0.0,-0.12882
-13.333,-4.3175,-9.7561,-5.2174,-7.2607,-11.197,-9.7561,1.2238,-3.9482,-5.2174,-7.2607,-13.137,0.0,-2.6156,-1.8413,-2.589,-3.8647,0.5153,-2.4645,0.65359,0.5153
-11.438,-3.0476,-9.7561,-9.0821,-6.6007,-14.434,-11.057,-5.8615,-2.6537,-9.0821,-6.6007,-15.098,0.63492,-1.3397,-4.381,-1.2945,-3.8647,-0.77295,-1.8325,-0.65359,1.8035
-8.278,-0.50794,-7.8049,-11.659,-2.6403,-15.081,-9.7561,-9.7262,0.58252,-11.659,-2.6403,-13.791,3.1746,0.57416,-3.1111,0.0,-2.5765,-2.0612,-0.56872,1.9608,2.4477
-6.3823,2.0317,-3.252,-9.7262,-1.3201,-11.845,-6.5041,-8.438,1.2298,-9.7262,-1.3201,-9.8693,5.7143,3.126,-1.2063,1.9417,-0.64412,-3.9936,2.5908,3.268,3.7359
7.5197,7.1111,5.2033,-3.285,0.66007,-2.1359,1.3008,-7.1498,4.466,-3.285,0.66007,0.58824,8.8889,6.9537,5.1429,6.4725,4.5089,-4.6377,6.3823,5.2288,7.6006
2.4645,7.746,6.5041,-0.06441,1.9802,1.1003,6.5041,-2.6409,6.4078,-0.06441,1.9802,5.817,8.254,8.2297,3.873,7.767,5.153,-3.3494,7.6461,2.6144,8.2448
-5.7504,5.8413,3.252,-0.70853,4.6205,-2.1359,6.5041,-2.6409,5.1133,-0.70853,4.6205,5.817,3.1746,4.4019,-1.8413,5.8252,1.9324,-3.3494,5.7504,-0.65359,5.6683
-9.5419,1.3968,0.0,-0.70853,1.3201,-0.84142,2.6016,-1.3527,3.1715,-0.70853,1.3201,3.2026,3.1746,3.126,-4.381,6.4725,2.5765,-0.77295,3.2227,-1.3072,3.0918
-5.7504,0.12698,1.3008,-0.70853,-1.3201,1.7476,-0.65041,1.2238,-1.3592,-0.70853,-1.3201,2.549,6.3492,4.4019,0.69841,8.4142,6.4412,0.5153,0.06319,2.6144,1.8035
5.624,4.5714,9.1057,2.5121,1.3201,8.2201,1.3008,2.5121,-1.3592,2.5121,1.3201,6.4706,8.8889,6.3158,7.0476,12.298,11.594,3.0918,0.06319,6.5359,3.0918
17.629999,7.746,13.659,6.3768,2.6403,13.398,5.2033,5.7327,0.58252,6.3768,2.6403,11.046,12.063,8.8676,14.667,12.945,16.103001,2.4477,1.327,11.765,3.7359
17.629999,2.6667,7.8049,5.7327,-3.9604,12.751,1.3008,4.4444,-2.0065,5.7327,-3.9604,8.4314,11.429,6.9537,14.667,7.1197,13.527,6.3124,-0.56872,9.8039,0.5153
10.047,0.12698,1.3008,5.0886,-4.6205,8.2201,-2.6016,7.0209,-3.9482,5.0886,-4.6205,3.8562,11.429,5.6778,15.302,1.9417,9.0177,6.9565,-2.4645,11.111,-2.0612
6.2559,-3.6825,-3.9024,5.0886,-1.3201,5.6311,-3.252,9.5974,-6.5372,5.0886,-1.3201,1.8954,6.9841,-0.0638,10.222,-5.8252,0.64412,8.8889,-5.624,7.1895,-5.9259
10.679,-6.8571,-4.5528,4.4444,-0.66007,6.2783,-3.252,7.6651,-3.301,4.4444,-0.66007,1.8954,3.8095,-3.2536,5.1429,-9.7087,-4.5089,8.8889,-4.9921,3.9216,-6.57
2.4645,-2.4127,-4.5528,6.3768,0.66007,7.5728,0.65041,11.53,1.2298,6.3768,0.66007,4.5098,1.2698,-3.8915,-0.57143,-8.4142,-8.3736,10.177,-1.2006,3.268,-2.7053
-5.7504,0.12698,-3.9024,8.3092,2.6403,8.8673,5.2033,9.5974,2.5243,8.3092,2.6403,7.1242,-4.4444,-7.7193,-6.9206,-9.0615,-12.238,5.6683,-0.56872,0.0,-3.3494
-5.7504,2.0317,-3.252,5.0886,5.9406,5.6311,7.1545,7.0209,1.877,5.0886,5.9406,6.4706,-9.5238,-10.271,-9.4603,-7.767,-12.238,1.1594,-1.2006,-4.5752,-4.6377
-0.6951,3.3016,-1.9512,1.868,-0.66007,3.6893,3.9024,2.5121,-1.3592,1.868,-0.66007,3.8562,-7.619,-6.4434,-4.381,-0.64725,-5.153,3.0918,-1.2006,-3.268,-2.7053
2.4645,7.746,2.6016,-0.70853,-4.6205,-0.19417,2.6016,1.2238,-0.71197,-0.70853,-4.6205,1.2418,-0.63492,0.57416,3.873,9.7087,5.153,0.5153,3.2227,2.6144,3.0918
4.3602,5.8413,3.252,-3.9291,-2.6403,-0.84142,-0.65041,-0.06441,-1.3592,-3.9291,-2.6403,-2.6797,1.9048,3.126,5.1429,12.945,8.3736,2.4477,2.5908,3.268,3.0918
-3.2227,-1.1429,-1.3008,-7.7939,-2.6403,-6.6667,-6.5041,-3.9291,-3.301,-7.7939,-2.6403,-9.2157,1.9048,3.126,1.3333,10.356,6.4412,-0.77295,-0.56872,1.3072,1.8035
-7.0142,0.12698,-1.3008,-5.8615,-5.2805,-9.2557,-7.1545,-3.9291,-3.301,-5.8615,-5.2805,-10.523,0.63492,3.764,-1.8413,9.0615,5.7971,-3.9936,-1.2006,-1.9608,1.8035
-9.5419,-1.1429,1.3008,-1.3527,-3.3003,-5.3722,-3.252,-1.3527,-1.3592,-1.3527,-3.3003,-5.9477,0.63492,3.126,-0.57143,5.178,5.153,-2.0612,-0.56872,1.9608,1.1594
-0.06319,-5.5873,2.6016,2.5121,0.0,2.3948,1.3008,1.2238,-0.06472,2.5121,0.0,0.58824,0.63492,0.57416,1.9683,-3.2362,2.5765,1.1594,-1.8325,1.3072,-0.12882
12.575,-4.3175,5.8537,7.0209,5.2805,9.5146,7.1545,5.7327,2.5243,7.0209,5.2805,7.7778,1.9048,0.57416,5.1429,-6.4725,1.9324,1.8035,-4.3602,1.3072,-2.0612
5.624,-1.1429,5.8537,6.3768,6.6007,7.5728,7.8049,7.6651,3.1715,6.3768,6.6007,9.085,1.2698,-0.0638,1.9683,-5.8252,0.0,4.38,-1.2006,1.3072,-1.4171
6.2559,5.8413,7.1545,3.8003,3.3003,6.9256,7.1545,5.7327,4.466,3.8003,3.3003,7.1242,0.0,1.2121,1.3333,-0.64725,0.64412,4.38,3.2227,0.65359,1.8035
11.943,7.746,7.8049,-0.06441,0.66007,4.9838,3.9024,-1.3527,2.5243,-0.06441,0.66007,4.5098,-0.63492,1.2121,3.873,4.5307,1.9324,3.7359,5.7504,0.65359,4.38
4.9921,7.746,5.2033,-0.06441,-1.3201,3.0421,1.3008,-3.285,-0.71197,-0.06441,-1.3201,2.549,-1.2698,1.2121,1.3333,7.767,1.9324,1.8035,5.1185,-3.268,5.0242
-5.1185,7.1111,-1.3008,-1.9968,-1.9802,-0.84142,-1.3008,-1.3527,-3.9482,-1.9968,-1.9802,-0.71895,0.0,1.2121,-1.2063,6.4725,-0.64412,-2.7053,1.327,-3.268,3.0918
-5.7504,4.5714,-6.5041,-3.285,-2.6403,-4.7249,-2.6016,-1.9968,-5.2427,-3.285,-2.6403,-2.0261,3.8095,4.4019,1.3333,5.8252,-0.64412,-3.9936,0.6951,4.5752,3.0918
-5.7504,1.3968,-7.1545,-0.06441,-1.9802,-1.4887,-1.9512,0.57971,-3.9482,-0.06441,-1.9802,-0.06536,1.9048,5.0399,-1.8413,3.8835,-1.9324,1.1594,-1.2006,1.9608,2.4477
-7.0142,-2.4127,-5.8537,-0.06441,-2.6403,1.1003,-3.9024,2.5121,-5.2427,-0.06441,-2.6403,-0.71895,-2.5397,3.126,-6.9206,0.64725,-3.2206,1.1594,-4.3602,-2.6144,-0.12882
1.2006,-2.4127,1.3008,-0.70853,-1.9802,2.3948,-1.9512,-5.2174,-5.2427,-0.70853,-1.9802,0.58824,-1.9048,3.126,-2.4762,0.64725,0.64412,-3.9936,-3.0964,-0.65359,-0.77295
-1.327,-8.127,1.3008,-2.6409,0.0,-4.0777,-3.252,-7.1498,-3.301,-2.6409,0.0,-2.6797,-3.1746,1.2121,-1.2063,-3.2362,0.64412,-4.6377,-4.3602,-1.3072,-3.3494
-5.1185,-10.667,-2.6016,-6.5056,-1.9802,-9.2557,-4.5528,-3.9291,-2.0065,-6.5056,-1.9802,-5.9477,-3.8095,-1.3397,0.06349,-5.8252,-0.64412,-5.2818,-4.9921,-1.3072,-5.2818
-1.9589,-7.4921,-3.9024,-3.285,-3.3003,-5.3722,-4.5528,-1.3527,-0.06472,-3.285,-3.3003,-4.6405,-2.5397,-1.9777,0.06349,-5.8252,-1.9324,-0.12882,-0.56872,1.3072,-2.7053
-3.2227,-8.127,-5.8537,-1.3527,-2.6403,-4.0777,-5.8537,-1.9968,-2.6537,-1.3527,-2.6403,-4.6405,-5.7143,-4.5295,-5.6508,-6.4725,-6.4412,-1.4171,-0.56872,-3.9216,-3.3494
2.4645,-2.4127,-1.9512,1.868,2.6403,0.45307,-1.9512,-0.06441,-1.3592,1.868,2.6403,-0.06536,-7.619,-7.0813,-5.6508,-7.1197,-6.4412,-2.0612,-1.8325,-5.8824,-5.2818
-4.4866,-4.3175,-3.252,3.1562,4.6205,1.1003,-1.3008,-0.70853,1.2298,3.1562,4.6205,0.58824,-8.8889,-10.909,-5.6508,-11.003,-7.7295,-0.77295,-2.4645,-5.2288,-6.57
-10.174,-8.127,-7.8049,0.57971,0.0,-5.3722,-4.5528,-1.3527,-0.71197,0.57971,0.0,-3.3333,-8.8889,-12.823,-5.6508,-13.592,-9.6618,-7.2142,-1.2006,-6.5359,-5.9259
-8.91,-5.5873,-8.4553,1.2238,-2.6403,-4.0777,-3.9024,1.868,-2.0065,1.2238,-2.6403,-3.3333,-6.3492,-7.7193,-5.6508,-9.0615,-9.6618,-2.7053,-0.56872,-5.2288,-2.7053
-5.7504,-3.0476,-7.8049,-0.70853,-3.3003,-3.4304,-5.8537,0.57971,-3.9482,-0.70853,-3.3003,-3.3333,-3.8095,-2.6156,-6.2857,-3.2362,-8.3736,1.1594,-1.8325,-3.9216,0.5153
-0.06319,-4.9524,-7.1545,-2.6409,-4.6205,-0.19417,-7.8049,1.2238,-3.9482,-2.6409,-4.6205,-3.9869,-3.1746,-0.70175,-5.0159,-1.9417,-7.0853,2.4477,-3.0964,-3.268,-0.12882
9.4155,-4.3175,-1.3008,1.2238,-0.66007,4.9838,-3.9024,2.5121,-2.6537,1.2238,-0.66007,1.2418,-2.5397,-0.0638,0.69841,-0.64725,-3.2206,-2.0612,-1.8325,-0.65359,-0.12882
3.7283,0.12698,3.9024,3.1562,2.6403,4.3366,0.65041,5.0886,-3.9482,3.1562,2.6403,5.1634,-4.4444,-1.9777,-2.4762,-1.2945,-1.9324,2.4477,-3.7283,-4.5752,-2.0612
1.8325,4.5714,9.7561,4.4444,1.3201,7.5728,7.8049,8.9533,-2.0065,4.4444,1.3201,9.7386,-0.63492,1.8501,-1.2063,1.9417,3.2206,8.8889,-3.0964,-0.65359,-2.0612
12.575,6.4762,16.26,3.1562,1.9802,12.751,11.707,4.4444,1.2298,3.1562,1.9802,14.314,8.8889,8.2297,7.6825,7.767,10.95,12.11,-1.2006,9.8039,-0.77295
20.158001,6.4762,18.211,3.8003,1.3201,14.693,10.407,7.0209,-1.3592,3.8003,1.3201,14.967,15.238,10.781,16.570999,11.003,16.747,8.8889,-3.7283,17.646999,-0.77295
13.207,4.5714,12.358,5.0886,1.3201,11.456,6.5041,12.174,-4.5955,5.0886,1.3201,11.046,13.968,7.5917,14.667,7.767,14.171,13.398,-4.9921,16.993,-2.7053
13.839,2.6667,8.4553,2.5121,0.0,10.162,4.5528,4.4444,-3.301,2.5121,0.0,7.7778,10.159,2.488,14.032,3.2362,10.306,11.465,-1.8325,15.686,-3.9936
3.7283,-2.4127,1.3008,-3.285,-5.2805,0.45307,-0.65041,0.57971,-3.301,-3.285,-5.2805,-0.06536,2.5397,-5.8054,7.0476,-5.178,2.5765,5.0242,-3.7283,7.8431,-7.2142
-0.6951,-2.4127,-1.3008,-3.9291,-3.3003,-3.4304,-0.65041,-3.285,-2.6537,-3.9291,-3.3003,-1.3725,-2.5397,-10.271,0.06349,-7.767,-3.2206,-0.12882,-4.3602,0.65359,-8.5024
1.2006,-1.7778,-1.9512,-0.06441,1.9802,1.1003,1.9512,-0.70853,1.2298,-0.06441,1.9802,1.8954,-6.9841,-11.547,-3.1111,-7.767,-5.7971,-4.6377,-1.8325,-2.6144,-9.1465
-3.2227,-3.6825,-4.5528,1.2238,3.9604,2.3948,2.6016,-0.70853,3.8188,1.2238,3.9604,3.2026,-13.333,-12.823,-9.4603,-9.0615,-10.95,-3.3494,-1.8325,-7.1895,-7.8583
-13.333,-5.5873,-9.7561,-0.06441,1.9802,-2.7832,0.65041,-1.3527,2.5243,-0.06441,1.9802,-0.71895,-15.238,-12.823,-13.905,-12.945,-16.747,-6.57,-1.2006,-9.1503,-5.9259
-14.597,-5.5873,-11.707,-2.6409,-0.66007,-6.6667,-1.9512,-3.9291,-0.06472,-2.6409,-0.66007,-5.2941,-13.333,-9.6332,-12.0,-12.298,-16.103001,-9.7907,0.06319,-9.1503,-3.9936
-10.174,-4.9524,-7.1545,-1.3527,0.66007,-4.7249,-2.6016,-9.7262,-1.3592,-1.3527,0.66007,-3.9869,-11.429,-5.8054,-10.73,-8.4142,-11.594,-7.2142,-1.2006,-9.8039,-2.0612
-1.327,-1.7778,0.0,3.1562,7.2607,4.3366,1.3008,-3.285,2.5243,3.1562,7.2607,1.8954,-6.3492,-0.0638,-3.746,-2.589,-3.8647,-5.9259,1.327,-5.8824,1.8035
0.56872,0.7619,3.252,5.7327,7.2607,6.2783,3.252,4.4444,4.466,5.7327,7.2607,4.5098,-3.8095,3.126,-1.2063,1.2945,1.2882,-7.2142,3.2227,-6.5359,4.38
3.0964,3.3016,4.5528,5.7327,2.6403,6.2783,2.6016,3.8003,1.877,5.7327,2.6403,5.1634,-3.8095,1.8501,-0.57143,3.8835,3.8647,-2.0612,1.327,-8.4967,2.4477
3.0964,3.3016,3.9024,3.8003,2.6403,3.6893,1.9512,2.5121,3.1715,3.8003,2.6403,3.2026,-1.9048,2.488,1.9683,7.1197,7.0853,-0.77295,2.5908,-5.8824,3.7359
11.943,7.746,8.4553,2.5121,7.2607,3.0421,4.5528,-0.06441,7.7023,2.5121,7.2607,3.8562,4.4444,6.9537,11.492,13.592,14.171,-5.9259,7.0142,-0.65359,6.9565
1.8325,9.0159,5.2033,0.57971,7.2607,-0.19417,3.252,-1.3527,5.7605,0.57971,7.2607,1.2418,3.8095,5.6778,5.1429,12.945,10.95,-5.2818,8.91,-1.9608,8.2448
-5.7504,9.6508,3.9024,-0.70853,3.3003,-1.4887,5.2033,-5.2174,5.7605,-0.70853,3.3003,1.2418,1.2698,3.764,-4.381,9.7087,4.5089,-8.5024,10.174,-5.8824,8.2448
-5.1185,7.1111,5.2033,-0.06441,2.6403,0.45307,7.8049,-6.5056,8.3495,-0.06441,2.6403,5.1634,1.9048,4.4019,-6.9206,7.1197,1.2882,-9.7907,9.5419,-3.9216,7.6006
-3.2227,5.8413,6.5041,1.868,5.2805,1.1003,7.8049,-3.285,7.055,1.868,5.2805,6.4706,1.9048,4.4019,-6.2857,4.5307,0.64412,-5.2818,7.0142,-5.2288,5.6683
4.3602,7.746,10.407,1.2238,6.6007,2.3948,9.7561,-7.7939,5.7605,1.2238,6.6007,7.1242,3.1746,5.6778,0.06349,5.178,3.8647,-2.0612,5.1185,-4.5752,6.3124
11.311,7.1111,13.659,-2.6409,7.9208,-0.19417,7.1545,-8.438,5.7605,-2.6409,7.9208,4.5098,8.254,10.144,8.9524,8.4142,10.306,-1.4171,8.278,0.0,8.2448
7.5197,7.1111,13.659,-4.5733,0.66007,-7.3139,2.6016,-1.9968,1.877,-4.5733,0.66007,0.58824,12.698,14.609,15.937,12.945,15.459,-0.77295,7.6461,5.8824,9.533
6.2559,5.2063,9.1057,-5.8615,-7.2607,-6.0194,-3.9024,-2.6409,-2.6537,-5.8615,-7.2607,-3.3333,12.063,12.695,14.032,11.65,14.171,1.8035,2.5908,3.9216,7.6006
4.9921,2.0317,4.5528,-5.2174,-5.9406,-4.0777,-5.2033,0.57971,-3.301,-5.2174,-5.9406,-3.9869,10.794,9.5056,10.222,7.767,10.95,3.7359,-1.2006,4.5752,5.0242
4.3602,1.3968,3.252,-1.3527,-3.3003,-1.4887,-1.9512,3.1562,-2.6537,-1.3527,-3.3003,-0.71895,9.5238,5.6778,7.6825,3.2362,8.3736,2.4477,-3.0964,3.9216,1.8035
3.7283,4.5714,3.252,3.1562,0.66007,1.7476,3.9024,5.7327,-2.0065,3.1562,0.66007,3.8562,7.619,2.488,2.6032,0.0,5.7971,5.6683,-2.4645,1.3072,1.1594
3.0964,6.4762,5.2033,6.3768,3.9604,4.9838,9.1057,4.4444,1.877,6.3768,3.9604,7.7778,6.3492,0.57416,0.06349,0.0,4.5089,3.0918,0.6951,1.3072,1.1594
0.56872,5.8413,7.1545,6.3768,7.2607,5.6311,10.407,-0.06441,3.8188,6.3768,7.2607,9.7386,5.0794,0.57416,-2.4762,2.589,4.5089,-0.12882,3.8547,-1.3072,1.8035
2.4645,8.381,9.7561,6.3768,9.2409,6.9256,11.707,-0.70853,6.4078,6.3768,9.2409,11.699,7.619,5.0399,-1.2063,7.767,7.7295,-1.4171,7.6461,-0.65359,5.6683
5.624,7.1111,8.4553,7.0209,6.6007,7.5728,8.4553,1.868,8.3495,7.0209,6.6007,9.7386,6.3492,6.3158,1.3333,9.0615,7.7295,-3.9936,8.278,-0.65359,6.9565
1.2006,2.0317,1.9512,7.0209,3.9604,5.6311,3.9024,3.1562,6.4078,7.0209,3.9604,5.1634,-0.63492,1.8501,-3.746,1.9417,1.2882,-4.6377,5.1185,-5.2288,4.38
-7.0142,-5.5873,-7.1545,5.0886,3.3003,1.7476,-0.65041,1.2238,4.466,5.0886,3.3003,-0.06536,-7.619,-4.5295,-10.095,-9.0615,-9.0177,-3.9936,0.06319,-7.8431,-0.77295
-5.7504,-12.571,-12.358,4.4444,2.6403,-0.19417,-3.9024,2.5121,1.2298,4.4444,2.6403,-3.9869,-12.063,-8.3573,-10.73,-16.827999,-15.459,-5.2818,-1.2006,-8.4967,-4.6377
-4.4866,-8.7619,-11.707,1.2238,-1.3201,-4.7249,-5.8537,1.868,-2.0065,1.2238,-1.3201,-7.2549,-13.333,-8.3573,-9.4603,-16.181,-17.391001,-2.0612,-1.8325,-9.1503,-5.9259
-6.3823,-11.302,-15.61,-7.1498,-7.9208,-10.55,-14.309,-1.9968,-6.5372,-7.1498,-7.9208,-15.098,-14.603,-8.9952,-12.0,-12.945,-18.035,-0.12882,-5.624,-9.8039,-5.2818
-3.8547,-13.841,-17.561001,-9.0821,-13.201,-11.845,-22.114,-1.9968,-11.715,-9.0821,-13.201,-20.98,-13.968,-8.9952,-10.095,-7.767,-16.103001,0.5153,-8.1517,-7.1895,-4.6377
-0.06319,-8.127,-14.309,-6.5056,-12.541,-9.2557,-20.813,-1.9968,-11.715,-6.5056,-12.541,-20.327,-10.159,-6.4434,-5.0159,-0.64725,-9.6618,0.5153,-8.1517,-3.268,-2.7053
1.2006,-4.9524,-14.309,-5.8615,-9.901,-8.6084,-16.910999,-2.6409,-11.068,-5.8615,-9.901,-18.365999,-7.619,-4.5295,-3.746,3.2362,-6.4412,3.0918,-5.624,-1.3072,-0.12882
-0.06319,-0.50794,-11.057,-1.3527,-3.9604,-4.7249,-7.8049,3.1562,-6.5372,-1.3527,-3.9604,-10.523,-4.4444,-1.9777,-1.2063,5.8252,-3.2206,7.6006,-2.4645,3.268,5.0242
9.4155,0.7619,-3.252,3.8003,1.9802,1.7476,-0.65041,2.5121,-2.0065,3.8003,1.9802,-2.0261,0.0,0.57416,5.1429,7.767,3.2206,5.6683,-2.4645,7.1895,5.0242
6.8878,3.9365,1.3008,5.0886,5.2805,0.45307,4.5528,3.8003,-1.3592,5.0886,5.2805,3.2026,1.2698,1.8501,5.7778,5.8252,5.7971,4.38,-3.7283,5.2288,0.5153
4.9921,-0.50794,5.2033,1.868,5.9406,-3.4304,6.5041,2.5121,1.2298,1.868,5.9406,4.5098,3.8095,3.126,6.4127,3.8835,8.3736,6.3124,-1.8325,5.2288,-0.77295
1.2006,-3.6825,5.8537,-3.9291,1.9802,-7.3139,3.9024,-0.70853,2.5243,-3.9291,1.9802,-0.06536,3.1746,1.8501,5.1429,0.64725,7.7295,8.8889,-2.4645,3.268,-2.7053
-5.7504,-3.0476,3.252,-7.7939,-0.66007,-11.197,-0.65041,-1.9968,1.877,-7.7939,-0.66007,-5.9477,2.5397,3.126,5.1429,0.0,7.7295,6.3124,-3.0964,3.268,-3.3494
-0.6951,-3.0476,2.6016,-9.7262,-4.6205,-9.2557,-6.5041,-3.285,1.877,-9.7262,-4.6205,-9.8693,2.5397,4.4019,3.873,1.9417,7.0853,3.7359,-0.56872,1.3072,-0.77295
1.2006,-3.0476,-0.65041,-10.37,-8.5809,-8.6084,-11.057,-7.7939,-2.6537,-10.37,-8.5809,-12.484,-1.9048,2.488,0.06349,0.64725,3.2206,-0.77295,-0.56872,-1.9608,-1.4171
-1.9589,0.12698,-1.9512,-5.8615,-7.2607,-8.6084,-9.7561,-1.9968,-3.301,-5.8615,-7.2607,-10.523,-3.1746,0.57416,-0.57143,-0.64725,0.0,-4.6377,1.9589,0.65359,0.5153
2.4645,-1.7778,-3.252,-6.5056,-7.9208,-6.6667,-9.1057,-9.7262,-4.5955,-6.5056,-7.9208,-9.2157,-8.8889,-7.0813,-3.1111,-7.767,-7.0853,-4.6377,0.6951,-3.9216,-2.0612
-2.5908,-7.4921,-7.8049,-5.2174,-7.2607,-6.6667,-9.7561,-5.2174,-4.5955,-5.2174,-7.2607,-9.8693,-13.333,-14.737,-5.6508,-15.534,-14.171,-5.9259,-3.7283,-7.1895,-7.2142
-7.6461,-7.4921,-9.7561,0.57971,-3.3003,-4.0777,-7.1545,4.4444,-3.301,0.57971,-3.3003,-7.2549,-12.698,-16.650999,-7.5556,-17.476,-16.103001,-1.4171,-2.4645,-5.2288,-8.5024
-4.4866,-3.0476,-7.1545,3.8003,-0.66007,1.7476,-4.5528,4.4444,-3.9482,3.8003,-0.66007,-4.6405,-10.794,-12.185,-8.1905,-12.945,-14.171,5.0242,-1.8325,-3.268,-6.57
-3.8547,-2.4127,0.0,4.4444,0.0,4.9838,-0.65041,5.0886,-2.0065,4.4444,0.0,0.58824,-7.619,-6.4434,-8.8254,-7.1197,-10.306,5.0242,-3.7283,-1.9608,-4.6377
9.4155,-0.50794,9.7561,4.4444,1.3201,10.162,5.8537,5.7327,1.877,4.4444,1.3201,8.4314,0.63492,0.57416,-0.57143,-1.9417,-1.9324,3.0918,-1.8325,3.268,-2.0612
15.103,5.8413,18.211,8.9533,6.6007,15.34,13.659,9.5974,3.1715,8.9533,6.6007,16.275,9.5238,7.5917,10.857,2.589,7.0853,6.9565,-1.8325,15.033,-0.77295
15.735,7.746,20.813,12.818,11.221,18.576,16.910999,13.462,5.1133,12.818,11.221,20.85,13.333,10.781,15.302,3.8835,12.882,14.042,-3.0964,13.725,-0.77295
15.735,5.8413,19.511999,12.174,7.9208,17.929001,16.910999,11.53,5.1133,12.174,7.9208,20.85,13.333,9.5056,14.667,1.9417,14.171,10.177,-2.4645,7.1895,-2.7053
6.8878,6.4762,14.959,10.242,5.9406,13.398,15.61,9.5974,5.7605,10.242,5.9406,18.235001,10.159,5.6778,9.5873,0.0,11.594,4.38,1.9589,3.9216,-3.3494
3.0964,7.746,9.1057,8.9533,5.9406,10.162,13.008,1.868,7.055,8.9533,5.9406,14.314,6.3492,3.126,5.7778,0.64725,8.3736,-0.12882,3.8547,0.65359,-2.0612
-5.7504,8.381,3.252,5.0886,6.6007,1.1003,9.1057,-3.285,8.9968,5.0886,6.6007,7.7778,4.4444,2.488,0.06349,3.2362,5.7971,-5.2818,5.1185,-3.268,-0.77295
-10.174,9.0159,0.0,-1.3527,6.6007,-6.6667,5.8537,-5.8615,9.644,-1.3527,6.6007,1.8954,1.2698,2.488,-3.746,6.4725,4.5089,-9.1465,7.6461,-5.2288,2.4477
-6.3823,2.6667,-4.5528,-5.8615,0.66007,-11.197,-0.65041,-11.659,6.4078,-5.8615,0.66007,-3.9869,-1.9048,-0.0638,-3.1111,3.8835,0.64412,-11.079,5.1185,-5.2288,2.4477
-16.493,0.12698,-11.057,-5.2174,-1.3201,-15.081,-5.8537,-7.1498,1.877,-5.2174,-1.3201,-8.5621,-2.5397,-1.9777,-3.1111,0.0,-5.153,-9.7907,1.9589,-1.3072,-0.12882
-19.021,-6.8571,-18.862,-5.2174,0.0,-15.728,-7.8049,-7.7939,0.58252,-5.2174,0.0,-9.8693,-5.0794,-4.5295,-8.1905,-5.8252,-13.527,-7.2142,-1.8325,-3.9216,-2.0612
-17.757,-11.302,-22.114,-5.2174,-0.66007,-12.492,-10.407,-4.5733,1.877,-5.2174,-0.66007,-11.83,-5.0794,-3.8915,-10.095,-5.8252,-16.103001,-0.77295,0.06319,-3.9216,-0.77295
-12.701,-12.571,-20.163,-7.7939,-7.9208,-14.434,-14.959,-4.5733,-3.301,-7.7939,-7.9208,-15.752,-3.8095,-3.2536,-6.9206,-4.5307,-12.238,-3.3494,-0.56872,-1.9608,0.5153
-11.438,-13.206,-14.959,-9.0821,-11.881,-17.023001,-18.211,-7.7939,-8.479,-9.0821,-11.881,-19.673,0.0,-1.3397,-0.57143,-2.589,-4.5089,-5.2818,-4.9921,0.65359,-1.4171
-7.0142,-9.3968,-5.2033,-7.7939,-9.2409,-11.197,-14.309,-5.2174,-9.7735,-7.7939,-9.2409,-15.752,7.619,3.764,7.0476,2.589,5.153,6.3124,-6.8878,5.8824,-2.0612
8.1517,-6.2222,1.9512,-4.5733,-6.6007,-2.1359,-11.057,-4.5733,-11.068,-4.5733,-6.6007,-9.8693,11.429,6.3158,14.032,3.8835,10.95,10.177,-7.5197,9.1503,-0.77295
1.8325,-4.3175,0.0,-4.5733,-6.6007,-2.7832,-8.4553,1.868,-9.1262,-4.5733,-6.6007,-7.9085,8.8889,3.764,10.222,2.589,8.3736,5.0242,-6.2559,5.8824,-1.4171
-2.5908,3.3016,-1.9512,-5.2174,-9.2409,-4.0777,-3.252,1.868,-4.5955,-5.2174,-9.2409,-6.6013,6.9841,4.4019,6.4127,3.8835,5.153,0.5153,-1.8325,4.5752,-0.77295
-0.6951,7.1111,-1.3008,-1.9968,-5.2805,0.45307,1.3008,1.2238,2.5243,-1.9968,-5.2805,-3.3333,6.9841,7.5917,1.9683,8.4142,5.7971,-0.12882,2.5908,1.3072,3.7359
-8.278,4.5714,-3.9024,-2.6409,-4.6205,-2.1359,-0.65041,-0.70853,2.5243,-2.6409,-4.6205,-5.2941,3.1746,4.4019,-5.6508,8.4142,3.2206,-3.9936,5.1185,-3.268,4.38
6.8878,7.746,1.3008,-4.5733,-1.3201,2.3948,3.252,-8.438,3.8188,-4.5733,-1.3201,-1.3725,5.7143,5.6778,-0.57143,10.356,5.7971,-11.079,8.91,1.3072,6.3124
-10.806,3.9365,-5.2033,-5.2174,-0.66007,-2.1359,1.9512,-5.2174,6.4078,-5.2174,-0.66007,-2.6797,2.5397,2.488,-9.4603,6.4725,-0.64412,-8.5024,8.91,-3.268,4.38
-22.18,-2.4127,-10.407,-3.9291,-3.3003,-6.6667,-2.6016,-1.9968,3.8188,-3.9291,-3.3003,-5.2941,-0.63492,0.57416,-13.905,1.9417,-5.7971,-4.6377,5.7504,-6.5359,1.8035
-8.278,2.0317,-2.6016,-1.9968,2.6403,-0.19417,2.6016,-3.285,5.7605,-1.9968,2.6403,1.2418,2.5397,5.0399,-5.0159,7.1197,-1.2882,-5.2818,7.6461,0.0,5.0242
-5.1185,7.1111,0.0,-2.6409,3.9604,-0.84142,3.9024,-5.8615,4.466,-2.6409,3.9604,1.8954,1.2698,6.3158,-1.2063,9.7087,-1.2882,-5.2818,7.6461,1.9608,7.6006
