C3,C4,Cz,F1,F2,F3,F4,F7,F8,Fp1,Fp2,Fz,O1,O2,P3,P4,Pz,T3,T4,T5,T6
7.5197,11.492,9.7561,0.0,0.0,1.7476,3.8647,-1.9968,-0.06472,0.0,0.0,4.9505,7.5829,7.5917,13.397,13.527,14.423,1.7863,3.8547,7.8049,9.4872
-0.06319,1.0159,-3.9024,-5.8824,-3.8835,-5.0485,-2.8986,-2.963,-1.0356,-5.8824,-3.8835,-2.9703,0.0,-1.0207,3.873,1.9324,2.8846,-1.0845,0.06319,3.9024,-0.12821
-2.9068,-3.746,-5.8537,-6.8627,-6.7961,-5.0485,-2.8986,-3.9291,-2.0065,-6.8627,-6.7961,-3.9604,1.8957,-1.9777,1.0159,-3.8647,-3.8462,-2.0415,-6.5719,4.878,-3.0128
-7.6461,-3.746,-3.9024,-8.8235,-9.7087,-5.0485,-1.9324,-7.7939,-2.0065,-8.8235,-9.7087,-2.9703,1.8957,-3.8915,-3.746,-5.7971,-7.6923,-2.9984,-4.6761,3.9024,-3.9744
-4.8025,1.9683,1.9512,-12.745,-12.621,-6.0194,-0.96618,-9.7262,-1.0356,-12.745,-12.621,-0.9901,1.8957,-0.0638,-3.746,-0.96618,-3.8462,-2.9984,2.9068,2.9268,0.83333
-3.8547,0.06349,-0.97561,-17.646999,-13.592,-5.0485,-2.8986,-9.7262,-1.0356,-17.646999,-13.592,-2.9703,-3.7915,-1.0207,-6.6032,-4.8309,-5.7692,-2.9984,2.9068,0.0,-1.0897
-7.6461,-6.6032,-11.707,-15.686,-13.592,-6.0194,-5.7971,-7.7939,-1.0356,-15.686,-13.592,-5.9406,-4.7393,-7.7193,-13.27,-13.527,-13.462,-2.9984,0.06319,-2.9268,-7.8205
-10.49,-11.365,-17.561001,-12.745,-12.621,-5.0485,-5.7971,-5.8615,-2.9773,-12.745,-12.621,-5.9406,-7.5829,-10.59,-17.079,-18.357,-17.308001,-3.9553,-6.5719,-6.8293,-11.667
-7.6461,-4.6984,-10.732,-11.765,-12.621,-5.0485,-2.8986,-5.8615,-2.0065,-11.765,-12.621,-2.9703,-3.7915,-6.7624,-13.27,-12.56,-11.538,-3.9553,-5.624,-5.8537,-10.705
-1.9589,6.7302,0.97561,-12.745,-10.68,-3.1068,2.8986,-5.8615,-0.06472,-12.745,-10.68,0.9901,-4.7393,-6.7624,-6.6032,-2.8986,-4.8077,-2.9984,0.06319,-3.9024,-7.8205
-2.9068,4.8254,0.0,-9.8039,-9.7087,-5.0485,-0.96618,-5.8615,-1.0356,-9.8039,-9.7087,-2.9703,-9.4787,-8.6762,-6.6032,-2.8986,-5.7692,-5.8692,0.06319,-11.707,-7.8205
-2.9068,-0.88889,-3.9024,-8.8235,-6.7961,-6.9903,-3.8647,-5.8615,-2.0065,-8.8235,-6.7961,-4.9505,-10.427,-5.8054,-4.6984,-2.8986,-5.7692,-4.9123,-2.7804,-13.659,-6.859
1.8325,0.06349,1.9512,-7.8431,-6.7961,-2.1359,0.0,-4.8953,-2.0065,-7.8431,-6.7961,0.9901,-3.7915,-2.9346,0.06349,0.96618,-2.8846,-4.9123,-0.88468,-10.732,-2.0513
10.363,10.54,14.634,-3.9216,-0.97087,6.6019,9.6618,-2.963,2.8479,-3.9216,-0.97087,12.871,5.6872,5.6778,6.7302,12.56,3.8462,-2.9984,3.8547,-2.9268,8.5256
10.363,15.302,16.584999,0.0,-1.9417,10.485,11.594,-0.06441,1.877,0.0,-1.9417,13.861,5.6872,7.5917,9.5873,17.391001,8.6538,-2.9984,5.7504,0.0,10.449
3.7283,9.5873,6.8293,1.9608,-4.8544,6.6019,4.8309,1.868,-2.0065,1.9608,-4.8544,6.9307,-2.8436,-2.9346,3.873,9.6618,2.8846,-2.0415,-0.88468,-3.9024,-0.12821
0.88468,2.9206,0.0,-1.9608,-3.8835,3.6893,1.9324,2.8341,-2.0065,-1.9608,-3.8835,2.9703,-3.7915,-5.8054,1.0159,1.9324,-1.9231,0.82935,-4.6761,-3.9024,-4.9359
0.88468,-3.746,-2.9268,-3.9216,-4.8544,0.7767,-1.9324,-0.06441,-3.9482,-3.9216,-4.8544,0.0,6.6351,0.89314,1.9683,-1.9324,0.0,0.82935,-6.5719,1.9512,-3.0128
3.7283,-1.8413,0.97561,-3.9216,-2.9126,2.7184,1.9324,2.8341,-2.0065,-3.9216,-2.9126,1.9802,6.6351,2.807,4.8254,-0.96618,2.8846,4.6571,-3.7283,5.8537,-2.0513
7.5197,4.8254,7.8049,2.9412,0.97087,7.5728,8.6957,7.6651,3.8188,2.9412,0.97087,7.9208,1.8957,-0.0638,5.7778,-0.96618,4.8077,7.5279,-2.7804,5.8537,-5.8974
5.624,2.9206,2.9268,0.98039,0.0,6.6019,6.7633,4.7665,3.8188,0.98039,0.0,5.9406,-0.94787,-5.8054,0.06349,-5.7971,0.0,6.571,-3.7283,2.9268,-9.7436
-5.7504,-7.5556,-14.634,-7.8431,-6.7961,-2.1359,-4.8309,-1.9968,-2.9773,-7.8431,-6.7961,-5.9406,-4.7393,-8.6762,-10.413,-15.459,-9.6154,2.7432,-5.624,-4.878,-12.628
-10.49,-12.317,-20.488001,-9.8039,-7.767,-6.0194,-9.6618,-1.9968,-8.8026,-9.8039,-7.767,-10.891,-4.7393,-8.6762,-14.222,-17.391001,-12.5,-1.0845,-6.5719,-6.8293,-11.667
-6.6983,-1.8413,-9.7561,-1.9608,-2.9126,-3.1068,-0.96618,-1.0306,-2.9773,-1.9608,-2.9126,-2.9703,-3.7915,-1.9777,-9.4603,-4.8309,-4.8077,-3.9553,0.06319,-4.878,-2.0513
-1.0111,5.7778,-0.97561,-1.9608,-0.97087,0.7767,2.8986,-0.06441,0.90615,-1.9608,-0.97087,1.9802,-5.6872,-0.0638,-6.6032,5.7971,-0.96154,-2.9984,5.7504,-5.8537,6.6026
-1.0111,1.9683,-3.9024,-3.9216,-5.8252,-1.165,-1.9324,-0.06441,-0.06472,-3.9216,-5.8252,-2.9703,-2.8436,-1.9777,-3.746,6.7633,-2.8846,-1.0845,5.7504,-3.9024,6.6026
-6.6983,-5.6508,-10.732,-9.8039,-8.7379,-6.9903,-8.6957,-2.963,-4.9191,-9.8039,-8.7379,-9.901,0.0,-1.9777,-5.6508,4.8309,-6.7308,-2.9984,-1.8325,-1.9512,4.6795
-5.7504,-8.5079,-7.8049,-6.8627,-8.7379,-6.0194,-9.6618,-1.9968,-8.8026,-6.8627,-8.7379,-9.901,-3.7915,-1.9777,-2.7937,3.8647,-3.8462,-2.0415,-4.6761,-2.9268,2.7564
3.7283,-3.746,2.9268,-1.9608,-1.9417,0.7767,-3.8647,1.868,-3.9482,-1.9608,-1.9417,-3.9604,2.8436,3.764,6.7302,5.7971,2.8846,2.7432,1.0111,1.9512,4.6795
6.5719,-1.8413,4.878,1.9608,-0.97087,1.7476,-2.8986,3.8003,-1.0356,1.9608,-0.97087,-0.9901,3.7915,3.764,7.6825,2.8986,1.9231,4.6571,1.9589,5.8537,3.7179
2.7804,-6.6032,-2.9268,-0.98039,-4.8544,-3.1068,-6.7633,-0.06441,-4.9191,-0.98039,-4.8544,-4.9505,-0.94787,-0.0638,3.873,-2.8986,-2.8846,3.7002,-2.7804,4.878,-0.12821
-1.9589,-10.413,-7.8049,-1.9608,-4.8544,-3.1068,-6.7633,-1.0306,-4.9191,-1.9608,-4.8544,-5.9406,4.7393,0.89314,0.06349,-6.7633,-5.7692,1.7863,-2.7804,5.8537,-0.12821
-4.8025,-9.4603,-3.9024,2.9412,-1.9417,0.7767,-2.8986,2.8341,-1.0356,2.9412,-1.9417,-1.9802,1.8957,-1.9777,-3.746,-8.6957,-7.6923,-1.0845,-0.88468,-0.97561,-4.9359
1.8325,-2.7937,5.8537,6.8627,5.8252,5.6311,2.8986,5.7327,5.7605,6.8627,5.8252,4.9505,-4.7393,-3.8915,-0.88889,-7.7295,-5.7692,-2.0415,1.9589,-3.9024,-6.859
3.7283,1.9683,3.9024,6.8627,3.8835,6.6019,2.8986,5.7327,4.7896,6.8627,3.8835,5.9406,-6.6351,-5.8054,-0.88889,-6.7633,-6.7308,-3.9553,1.0111,-5.8537,-7.8205
0.88468,0.06349,-5.8537,4.902,0.0,2.7184,0.96618,5.7327,-1.0356,4.902,0.0,0.9901,-3.7915,-4.8485,-4.6984,-7.7295,-8.6538,-0.12759,0.06319,-4.878,-6.859
-1.0111,-3.746,-10.732,4.902,0.0,-1.165,-0.96618,2.8341,-0.06472,4.902,0.0,-2.9703,-1.8957,-2.9346,-4.6984,-6.7633,-6.7308,2.7432,0.06319,-0.97561,-3.9744
-3.8547,-2.7937,-5.8537,2.9412,4.8544,-1.165,1.9324,-0.06441,3.8188,2.9412,4.8544,-1.9802,-0.94787,-1.0207,-3.746,-3.8647,-1.9231,-0.12759,1.0111,0.0,-2.0513
-4.8025,3.873,5.8537,0.0,6.7961,-2.1359,2.8986,-3.9291,6.7314,0.0,6.7961,0.0,0.94787,4.7209,-1.8413,7.7295,5.7692,-6.8262,4.8025,-1.9512,5.641
-1.0111,11.492,16.584999,-0.98039,3.8835,-2.1359,3.8647,-3.9291,4.7896,-0.98039,3.8835,2.9703,-1.8957,3.764,1.0159,17.391001,11.538,-7.7831,7.6461,-8.7805,10.449
0.88468,15.302,12.683,2.9412,4.8544,0.7767,7.7295,-1.9968,7.7023,2.9412,4.8544,5.9406,-4.7393,-1.0207,1.0159,15.459,8.6538,-5.8692,7.6461,-10.732,6.6026
3.7283,10.54,3.9024,6.8627,8.7379,3.6893,10.628,0.90177,8.6731,6.8627,8.7379,6.9307,1.8957,0.89314,2.9206,6.7633,1.9231,-3.9553,1.9589,-3.9024,1.7949
1.8325,1.0159,-1.9512,3.9216,4.8544,-0.19417,3.8647,-0.06441,3.8188,3.9216,4.8544,0.0,5.6872,2.807,4.8254,0.0,-0.96154,-1.0845,1.9589,0.97561,0.83333
1.8325,-3.746,3.9024,-1.9608,3.8835,-0.19417,-1.9324,-2.963,3.8188,-1.9608,3.8835,-2.9703,9.4787,7.5917,8.6349,4.8309,5.7692,-2.0415,8.594,4.878,6.6026
4.6761,-1.8413,14.634,5.8824,5.8252,4.6602,0.0,2.8341,3.8188,5.8824,5.8252,1.9802,5.6872,5.6778,9.5873,7.7295,7.6923,-0.12759,6.6983,2.9268,5.641
7.5197,3.873,16.584999,15.686,10.68,8.5437,6.7633,7.6651,5.7605,15.686,10.68,7.9208,-2.8436,-1.9777,5.7778,5.7971,2.8846,2.7432,3.8547,0.0,-1.0897
4.6761,6.7302,5.8537,16.667,17.476,8.5437,11.594,6.6989,8.6731,16.667,17.476,9.901,-5.6872,-3.8915,0.06349,1.9324,-2.8846,1.7863,1.9589,-0.97561,-3.9744
2.7804,3.873,-2.9268,15.686,16.504999,7.5728,7.7295,4.7665,6.7314,15.686,16.504999,6.9307,0.0,-1.0207,1.9683,-1.9324,-3.8462,2.7432,-4.6761,6.8293,-4.9359
1.8325,2.9206,-2.9268,8.8235,10.68,1.7476,1.9324,1.868,3.8188,8.8235,10.68,0.9901,8.5308,5.6778,6.7302,2.8986,2.8846,2.7432,0.06319,11.707,2.7564
-1.9589,1.9683,-1.9512,1.9608,3.8835,-5.0485,-2.8986,-1.9968,0.90615,1.9608,3.8835,-5.9406,10.427,9.5056,5.7778,7.7295,9.6154,-0.12759,4.8025,6.8293,8.5256
-2.9068,1.9683,-1.9512,3.9216,1.9417,-5.0485,-3.8647,-1.0306,-1.0356,3.9216,1.9417,-5.9406,5.6872,8.5486,2.9206,7.7295,9.6154,-1.0845,3.8547,-2.9268,8.5256
-2.9068,0.06349,-2.9268,8.8235,3.8835,-2.1359,-1.9324,0.90177,-1.0356,8.8235,3.8835,-2.9703,4.7393,6.6348,0.06349,4.8309,5.7692,-3.9553,1.0111,-2.9268,7.5641
-3.8547,-1.8413,-5.8537,5.8824,3.8835,-1.165,0.0,0.90177,-0.06472,5.8824,3.8835,-1.9802,1.8957,5.6778,-0.88889,0.96618,1.9231,-1.0845,0.06319,-0.97561,6.6026
-4.8025,-4.6984,-5.8537,2.9412,3.8835,-2.1359,-0.96618,-0.06441,-1.0356,2.9412,3.8835,-2.9703,0.0,2.807,-1.8413,-1.9324,-0.96154,-1.0845,-2.7804,-2.9268,3.7179
1.8325,-5.6508,1.9512,3.9216,5.8252,-0.19417,0.0,3.8003,-2.9773,3.9216,5.8252,0.0,3.7915,-0.0638,2.9206,-2.8986,-0.96154,3.7002,-5.624,2.9268,-2.0513
10.363,1.9683,12.683,11.765,6.7961,5.6311,4.8309,5.7327,-0.06472,11.765,6.7961,6.9307,5.6872,3.764,10.54,3.8647,6.7308,5.614,-3.7283,7.8049,-2.0513
12.259,4.8254,13.659,12.745,8.7379,8.5437,7.7295,5.7327,1.877,12.745,8.7379,9.901,5.6872,5.6778,13.397,6.7633,11.538,5.614,-2.7804,9.7561,-2.0513
8.4676,3.873,10.732,12.745,12.621,9.5146,9.6618,7.6651,3.8188,12.745,12.621,10.891,2.8436,0.89314,9.5873,4.8309,10.577,6.571,-3.7283,8.7805,-3.9744
4.6761,5.7778,9.7561,17.646999,16.504999,11.456,12.56,8.6312,7.7023,17.646999,16.504999,12.871,0.0,-3.8915,2.9206,1.9324,3.8462,4.6571,0.06319,4.878,-4.9359
-0.06319,9.5873,10.732,16.667,13.592,7.5728,13.527,6.6989,9.644,16.667,13.592,11.881,2.8436,-1.0207,0.06349,2.8986,1.9231,4.6571,3.8547,4.878,-2.0513
-3.8547,4.8254,0.97561,9.8039,10.68,1.7476,6.7633,3.8003,6.7314,9.8039,10.68,3.9604,-0.94787,1.8501,-4.6984,-0.96618,-2.8846,4.6571,-2.7804,1.9512,-0.12821
-5.7504,-6.6032,-12.683,7.8431,6.7961,-1.165,-2.8986,1.868,-2.0065,7.8431,6.7961,-2.9703,-4.7393,-1.9777,-9.4603,-11.594,-9.6154,3.7002,-8.4676,-0.97561,-3.9744
-6.6983,-15.175,-19.511999,3.9216,1.9417,-4.0777,-7.7295,-0.06441,-7.8317,3.9216,1.9417,-7.9208,-0.94787,-2.9346,-8.5079,-16.424999,-7.6923,3.7002,-8.4676,1.9512,-6.859
-6.6983,-18.032,-19.511999,0.98039,-1.9417,-6.0194,-9.6618,-1.9968,-6.8608,0.98039,-1.9417,-9.901,2.8436,1.8501,-4.6984,-16.424999,-2.8846,2.7432,-7.5197,3.9024,-5.8974
-2.9068,-13.27,-10.732,0.98039,-2.9126,-5.0485,-8.6957,-1.9968,-4.9191,0.98039,-2.9126,-6.9307,3.7915,0.89314,-1.8413,-14.493,-2.8846,0.82935,-5.624,3.9024,-4.9359
3.7283,-0.88889,0.0,2.9412,0.0,-0.19417,-1.9324,0.90177,-0.06472,2.9412,0.0,0.0,0.94787,1.8501,1.0159,-3.8647,-0.96154,0.82935,-2.7804,4.878,0.83333
6.5719,3.873,2.9268,5.8824,5.8252,2.7184,1.9324,2.8341,0.90615,5.8824,5.8252,2.9703,0.94787,0.89314,5.7778,4.8309,2.8846,0.82935,-0.88468,3.9024,3.7179
9.4155,5.7778,8.7805,4.902,9.7087,4.6602,3.8647,0.90177,1.877,4.902,9.7087,5.9406,6.6351,3.764,11.492,10.628,6.7308,0.82935,5.7504,4.878,7.5641
11.311,7.6825,12.683,5.8824,5.8252,5.6311,2.8986,0.90177,0.90615,5.8824,5.8252,5.9406,4.7393,5.6778,12.444,15.459,8.6538,-2.9984,9.5419,1.9512,12.372
5.624,8.6349,12.683,2.9412,1.9417,2.7184,1.9324,-0.06441,-0.06472,2.9412,1.9417,4.9505,1.8957,5.6778,10.54,15.459,10.577,-2.0415,7.6461,0.97561,12.372
1.8325,11.492,11.707,4.902,1.9417,0.7767,4.8309,-0.06441,4.7896,4.902,1.9417,4.9505,0.94787,4.7209,8.6349,16.424999,12.5,-0.12759,8.594,0.97561,9.4872
2.7804,9.5873,10.732,7.8431,4.8544,2.7184,4.8309,1.868,5.7605,7.8431,4.8544,4.9505,4.7393,7.5917,8.6349,16.424999,13.462,-1.0845,8.594,4.878,10.449
5.624,2.9206,10.732,0.98039,0.0,1.7476,-1.9324,-0.06441,-1.0356,0.98039,0.0,0.9901,9.4787,12.376,10.54,14.493,13.462,1.7863,2.9068,10.732,9.4872
5.624,-0.88889,7.8049,-2.9412,-0.97087,-1.165,-2.8986,-1.9968,-1.0356,-2.9412,-0.97087,-0.9901,6.6351,4.7209,6.7302,6.7633,6.7308,2.7432,0.06319,7.8049,4.6795
0.88468,-0.88889,2.9268,-0.98039,-0.97087,-1.165,0.0,-1.9968,3.8188,-0.98039,-0.97087,0.0,-2.8436,-4.8485,-2.7937,-3.8647,-5.7692,1.7863,1.0111,-1.9512,-2.0513
2.7804,1.9683,1.9512,3.9216,2.9126,4.6602,4.8309,2.8341,7.7023,3.9216,2.9126,6.9307,-3.7915,-7.7193,-3.746,-8.6957,-8.6538,2.7432,-0.88468,-2.9268,-6.859
2.7804,3.873,2.9268,0.0,0.0,2.7184,2.8986,-0.06441,6.7314,0.0,0.0,4.9505,-0.94787,-5.8054,-0.88889,-9.6618,-5.7692,3.7002,-2.7804,-0.97561,-9.7436
-1.0111,1.0159,-2.9268,-10.784,-5.8252,-6.0194,-3.8647,-7.7939,3.8188,-10.784,-5.8252,-4.9505,-0.94787,-0.0638,0.06349,-5.7971,-0.96154,0.82935,-1.8325,1.9512,-3.9744
-10.49,-7.5556,-14.634,-16.667,-10.68,-12.816,-9.6618,-10.692,0.90615,-16.667,-10.68,-12.871,0.0,2.807,-6.6032,-6.7633,-2.8846,-5.8692,-0.88468,-0.97561,0.83333
-14.281,-10.413,-18.537001,-9.8039,-8.7379,-11.845,-6.7633,-9.7262,0.90615,-9.8039,-8.7379,-10.891,-6.6351,-4.8485,-15.175,-11.594,-11.538,-9.697,-3.7283,-10.732,-3.9744
-7.6461,-4.6984,-8.7805,-7.8431,-5.8252,-5.0485,0.0,-6.8277,1.877,-7.8431,-5.8252,-2.9703,-7.5829,-6.7624,-12.317,-7.7295,-10.577,-5.8692,-5.624,-11.707,-5.8974
-4.8025,-2.7937,-2.9268,-8.8235,-6.7961,-5.0485,-3.8647,-4.8953,-1.0356,-8.8235,-6.7961,-4.9505,-2.8436,-3.8915,-5.6508,-1.9324,-4.8077,-2.0415,-2.7804,-5.8537,-3.9744
-2.9068,-4.6984,-5.8537,-9.8039,-8.7379,-8.932,-8.6957,-4.8953,-2.9773,-9.8039,-8.7379,-9.901,0.94787,0.89314,2.9206,2.8986,0.96154,-1.0845,-1.8325,0.97561,0.83333
-5.7504,-7.5556,-10.732,-8.8235,-10.68,-10.874,-10.628,-8.7601,-3.9482,-8.8235,-10.68,-12.871,2.8436,1.8501,4.8254,2.8986,3.8462,-1.0845,-1.8325,4.878,0.83333
-7.6461,-3.746,-4.878,-11.765,-5.8252,-10.874,-4.8309,-10.692,-1.0356,-11.765,-5.8252,-7.9208,4.7393,6.6348,3.873,5.7971,6.7308,-2.0415,3.8547,4.878,4.6795
-6.6983,1.0159,0.97561,-10.784,-3.8835,-7.9612,0.96618,-7.7939,1.877,-10.784,-3.8835,-2.9703,2.8436,6.6348,0.06349,6.7633,5.7692,-2.0415,3.8547,2.9268,6.6026
-6.6983,0.06349,-1.9512,-8.8235,-1.9417,-4.0777,2.8986,-3.9291,1.877,-8.8235,-1.9417,-0.9901,0.0,4.7209,-6.6032,-0.96618,0.96154,-2.0415,1.9589,-1.9512,2.7564
-3.8547,-1.8413,-5.8537,0.0,4.8544,1.7476,6.7633,2.8341,4.7896,0.0,4.8544,3.9604,-0.94787,-0.0638,-8.5079,-9.6618,-4.8077,-2.0415,-0.88468,-4.878,-3.9744
-0.06319,-1.8413,-3.9024,4.902,4.8544,5.6311,6.7633,5.7327,2.8479,4.902,4.8544,6.9307,-3.7915,-5.8054,-9.4603,-13.527,-7.6923,0.82935,-5.624,-5.8537,-10.705
3.7283,1.9683,4.878,0.98039,-1.9417,4.6602,3.8647,2.8341,-1.0356,0.98039,-1.9417,5.9406,-2.8436,-2.9346,-5.6508,-5.7971,-2.8846,-0.12759,-4.6761,-4.878,-8.7821
2.7804,5.7778,8.7805,-4.902,-6.7961,-0.19417,-0.96618,-2.963,-2.9773,-4.902,-6.7961,1.9802,0.94787,1.8501,-2.7937,2.8986,1.9231,-2.9984,-1.8325,-4.878,-1.0897
-1.0111,3.873,1.9512,-3.9216,-6.7961,-4.0777,-0.96618,-4.8953,-1.0356,-3.9216,-6.7961,-1.9802,2.8436,6.6348,-1.8413,2.8986,2.8846,-2.9984,1.0111,-0.97561,2.7564
-7.6461,0.06349,-9.7561,-2.9412,0.0,-6.9903,0.0,-3.9291,3.8188,-2.9412,0.0,-4.9505,0.94787,-0.0638,-2.7937,-0.96618,-0.96154,-3.9553,1.9589,-1.9512,-2.0513
-5.7504,1.0159,-5.8537,-2.9412,0.97087,-5.0485,0.0,-3.9291,3.8188,-2.9412,0.97087,-2.9703,-1.8957,-1.9777,0.06349,1.9324,0.0,-6.8262,3.8547,-2.9268,0.83333
2.7804,4.8254,6.8293,-6.8627,-2.9126,-2.1359,-1.9324,-1.9968,-1.0356,-6.8627,-2.9126,0.0,0.94787,-1.0207,6.7302,9.6618,4.8077,-2.0415,4.8025,1.9512,4.6795
8.4676,5.7778,13.659,-6.8627,-4.8544,-2.1359,-2.8986,-2.963,-4.9191,-6.8627,-4.8544,0.9901,1.8957,0.89314,10.54,9.6618,5.7692,6.571,2.9068,7.8049,3.7179
6.5719,1.9683,9.7561,-4.902,-3.8835,-4.0777,-3.8647,-3.9291,-3.9482,-4.902,-3.8835,-0.9901,3.7915,4.7209,8.6349,5.7971,4.8077,5.614,-1.8325,5.8537,4.6795
-0.06319,-5.6508,-4.878,-8.8235,-7.767,-6.0194,-6.7633,-4.8953,-5.89,-8.8235,-7.767,-6.9307,3.7915,4.7209,3.873,0.0,1.9231,3.7002,-1.8325,1.9512,3.7179
-2.9068,-8.5079,-7.8049,-5.8824,-7.767,-4.0777,-6.7633,-1.0306,-8.8026,-5.8824,-7.767,-7.9208,0.94787,5.6778,1.9683,-1.9324,0.96154,1.7863,-1.8325,0.97561,3.7179
1.8325,-5.6508,3.9024,0.98039,-3.8835,1.7476,-2.8986,3.8003,-7.8317,0.98039,-3.8835,0.0,-0.94787,2.807,1.0159,-3.8647,-4.8077,3.7002,-2.7804,0.97561,-0.12821
7.5197,1.0159,14.634,5.8824,2.9126,9.5146,3.8647,6.6989,-1.0356,5.8824,2.9126,8.9109,-4.7393,-8.6762,-3.746,-8.6957,-13.462,4.6571,-2.7804,1.9512,-8.7821
10.363,4.8254,17.561001,3.9216,5.8252,12.427,8.6957,7.6651,4.7896,3.9216,5.8252,12.871,-7.5829,-12.504,-4.6984,-11.594,-14.423,6.571,-6.5719,0.97561,-12.628
6.5719,3.873,8.7805,0.98039,2.9126,10.485,8.6957,4.7665,3.8188,0.98039,2.9126,11.881,-2.8436,-7.7193,-5.6508,-14.493,-12.5,6.571,-5.624,0.97561,-12.628
-0.06319,0.06349,-3.9024,3.9216,2.9126,8.5437,5.7971,4.7665,-0.06472,3.9216,2.9126,9.901,0.0,-7.7193,-9.4603,-16.424999,-12.5,1.7863,-5.624,0.0,-12.628
-4.8025,0.06349,-9.7561,2.9412,0.97087,6.6019,2.8986,2.8341,-4.9191,2.9412,0.97087,6.9307,0.0,-3.8915,-9.4603,-10.628,-3.8462,-1.0845,-6.5719,-1.9512,-9.7436
-3.8547,0.06349,-6.8293,-1.9608,-3.8835,-0.19417,-0.96618,-0.06441,-6.8608,-1.9608,-3.8835,0.9901,6.6351,4.7209,-1.8413,0.0,8.6538,-2.0415,-3.7283,2.9268,-3.0128
-1.9589,-2.7937,-3.9024,-2.9412,-6.7961,-3.1068,-3.8647,-1.0306,-6.8608,-2.9412,-6.7961,-3.9604,11.374,9.5056,4.8254,6.7633,13.462,-1.0845,-1.8325,5.8537,3.7179
-3.8547,-3.746,-7.8049,-2.9412,-0.97087,-1.165,-1.9324,-1.0306,-2.9773,-2.9412,-0.97087,-2.9703,5.6872,6.6348,1.0159,7.7295,5.7692,2.7432,1.0111,0.97561,6.6026
-4.8025,-3.746,-8.7805,0.0,2.9126,0.7767,1.9324,-0.06441,1.877,0.0,2.9126,0.9901,0.0,1.8501,-4.6984,2.8986,-2.8846,1.7863,1.9589,-1.9512,4.6795
-0.06319,1.0159,0.0,2.9412,4.8544,2.7184,2.8986,1.868,2.8479,2.9412,4.8544,3.9604,-8.5308,-2.9346,-1.8413,4.8309,-3.8462,0.82935,0.06319,-2.9268,3.7179
9.4155,8.6349,15.61,3.9216,5.8252,6.6019,5.7971,4.7665,2.8479,3.9216,5.8252,7.9208,-5.6872,1.8501,10.54,14.493,6.7308,3.7002,4.8025,1.9512,8.5256
11.311,6.7302,16.584999,4.902,3.8835,5.6311,3.8647,3.8003,1.877,4.902,3.8835,6.9307,0.94787,3.764,17.205999,16.424999,11.538,4.6571,5.7504,7.8049,8.5256
7.5197,1.0159,8.7805,1.9608,-1.9417,4.6602,1.9324,3.8003,1.877,1.9608,-1.9417,3.9604,0.94787,1.8501,14.349,11.594,9.6154,6.571,5.7504,7.8049,6.6026
5.624,0.06349,6.8293,2.9412,-0.97087,4.6602,1.9324,3.8003,0.90615,2.9412,-0.97087,2.9703,7.5829,4.7209,11.492,6.7633,7.6923,7.5279,1.0111,9.7561,5.641
6.5719,1.9683,7.8049,5.8824,3.8835,3.6893,1.9324,4.7665,-0.06472,5.8824,3.8835,2.9703,5.6872,2.807,8.6349,4.8309,7.6923,6.571,1.0111,4.878,4.6795
5.624,1.9683,5.8537,5.8824,5.8252,3.6893,1.9324,5.7327,0.90615,5.8824,5.8252,3.9604,-5.6872,-3.8915,3.873,-1.9324,2.8846,3.7002,-0.88468,-0.97561,-1.0897
3.7283,0.06349,0.97561,6.8627,9.7087,6.6019,6.7633,6.6989,6.7314,6.8627,9.7087,6.9307,-9.4787,-7.7193,-0.88889,-11.594,-5.7692,3.7002,0.06319,-1.9512,-5.8974
3.7283,-1.8413,-1.9512,9.8039,7.767,8.5437,6.7633,8.6312,5.7605,9.8039,7.767,7.9208,-6.6351,-7.7193,-5.6508,-16.424999,-12.5,0.82935,1.0111,-2.9268,-9.7436
3.7283,2.9206,2.9268,3.9216,4.8544,9.5146,6.7633,6.6989,3.8188,3.9216,4.8544,8.9109,-2.8436,-6.7624,-8.5079,-13.527,-13.462,2.7432,1.9589,-1.9512,-7.8205
0.88468,5.7778,5.8537,4.902,3.8835,5.6311,4.8309,3.8003,3.8188,4.902,3.8835,5.9406,-4.7393,-5.8054,-11.365,-5.7971,-12.5,-2.9984,4.8025,-5.8537,-3.9744
-1.9589,5.7778,3.9024,1.9608,2.9126,0.7767,1.9324,0.90177,2.8479,1.9608,2.9126,1.9802,-3.7915,-6.7624,-9.4603,0.96618,-7.6923,-2.9984,6.6983,-7.8049,-0.12821
-1.9589,5.7778,1.9512,3.9216,4.8544,-0.19417,2.8986,0.90177,4.7896,3.9216,4.8544,0.9901,-3.7915,-1.0207,-2.7937,7.7295,0.96154,-0.12759,9.5419,-6.8293,7.5641
0.88468,8.6349,4.878,2.9412,4.8544,3.6893,4.8309,1.868,4.7896,2.9412,4.8544,4.9505,-4.7393,4.7209,1.9683,13.527,8.6538,-1.0845,10.49,-2.9268,12.372
5.624,9.5873,7.8049,4.902,1.9417,6.6019,5.7971,5.7327,2.8479,4.902,1.9417,5.9406,-0.94787,4.7209,5.7778,14.493,11.538,2.7432,7.6461,3.9024,8.5256
1.8325,5.7778,3.9024,1.9608,0.0,2.7184,0.96618,3.8003,-0.06472,1.9608,0.0,0.0,4.7393,2.807,4.8254,11.594,10.577,3.7002,4.8025,6.8293,3.7179
-2.9068,-0.88889,-1.9512,-1.9608,-0.97087,-4.0777,-3.8647,-0.06441,-1.0356,-1.9608,-0.97087,-4.9505,2.8436,1.8501,4.8254,8.6957,8.6538,0.82935,3.8547,6.8293,5.641
-1.0111,-3.746,-1.9512,1.9608,-0.97087,-2.1359,-4.8309,0.90177,-2.9773,1.9608,-0.97087,-3.9604,7.5829,7.5917,8.6349,7.7295,8.6538,1.7863,2.9068,8.7805,10.449
3.7283,-1.8413,1.9512,4.902,2.9126,2.7184,-0.96618,2.8341,-2.0065,4.902,2.9126,1.9802,9.4787,8.5486,10.54,4.8309,5.7692,2.7432,2.9068,9.7561,8.5256
3.7283,1.0159,1.9512,5.8824,5.8252,4.6602,2.8986,2.8341,0.90615,5.8824,5.8252,4.9505,3.7915,2.807,2.9206,-1.9324,-0.96154,0.82935,1.0111,2.9268,2.7564
-0.06319,1.0159,-0.97561,0.98039,5.8252,2.7184,3.8647,-0.06441,2.8479,0.98039,5.8252,2.9703,0.94787,1.8501,-3.746,-4.8309,-3.8462,-1.0845,3.8547,-1.9512,0.83333
-3.8547,-0.88889,-2.9268,0.0,1.9417,-1.165,0.96618,-2.963,2.8479,0.0,1.9417,-0.9901,0.94787,-0.0638,-4.6984,-5.7971,-1.9231,-5.8692,5.7504,-4.878,-0.12821
-1.9589,-4.6984,0.0,1.9608,0.0,-0.19417,-3.8647,-1.9968,-2.0065,1.9608,0.0,-1.9802,0.0,-1.0207,-0.88889,-5.7971,1.9231,-5.8692,-0.88468,-6.8293,-2.0513
3.7283,-5.6508,2.9268,5.8824,-2.9126,2.7184,-5.7971,1.868,-6.8608,5.8824,-2.9126,-0.9901,1.8957,2.807,3.873,-0.96618,5.7692,-4.9123,-6.5719,-3.9024,-1.0897
10.363,0.06349,7.8049,3.9216,-2.9126,4.6602,-1.9324,2.8341,-5.89,3.9216,-2.9126,2.9703,1.8957,4.7209,10.54,7.7295,10.577,-0.12759,-4.6761,0.97561,1.7949
10.363,5.7778,9.7561,-2.9412,-0.97087,4.6602,0.0,-0.06441,-2.0065,-2.9412,-0.97087,2.9703,5.6872,4.7209,13.397,14.493,13.462,3.7002,1.0111,5.8537,5.641
4.6761,4.8254,5.8537,-1.9608,-0.97087,2.7184,-0.96618,1.868,-3.9482,-1.9608,-0.97087,0.0,6.6351,4.7209,9.5873,13.527,10.577,4.6571,0.06319,3.9024,6.6026
1.8325,1.0159,0.97561,4.902,-0.97087,0.7767,0.0,3.8003,-3.9482,4.902,-0.97087,0.0,8.5308,7.5917,7.6825,8.6957,7.6923,3.7002,1.0111,6.8293,5.641
3.7283,0.06349,0.0,4.902,1.9417,2.7184,1.9324,4.7665,-3.9482,4.902,1.9417,2.9703,8.5308,5.6778,9.5873,4.8309,8.6538,8.4848,-1.8325,10.732,2.7564
5.624,1.9683,0.97561,0.98039,-0.97087,2.7184,-0.96618,3.8003,-6.8608,0.98039,-0.97087,2.9703,2.8436,4.7209,10.54,3.8647,8.6538,8.4848,-7.5197,10.732,-0.12821
7.5197,3.873,1.9512,0.0,-0.97087,2.7184,-0.96618,2.8341,-7.8317,0.0,-0.97087,0.9901,3.7915,4.7209,9.5873,5.7971,8.6538,7.5279,-7.5197,8.7805,-1.0897
1.8325,1.9683,-1.9512,2.9412,0.0,1.7476,0.0,3.8003,-5.89,2.9412,0.0,0.0,1.8957,0.89314,3.873,2.8986,3.8462,3.7002,-5.624,0.97561,-1.0897
-1.9589,-1.8413,-6.8293,6.8627,3.8835,3.6893,2.8986,4.7665,-1.0356,6.8627,3.8835,2.9703,-2.8436,-0.0638,-3.746,-2.8986,-3.8462,-0.12759,-0.88468,-4.878,-1.0897
2.7804,-0.88889,-1.9512,7.8431,7.767,7.5728,8.6957,3.8003,4.7896,7.8431,7.767,8.9109,-1.8957,-1.9777,-4.6984,-10.628,-7.6923,0.82935,1.9589,-3.9024,-3.0128
11.311,8.6349,11.707,8.8235,10.68,14.369,15.459,5.7327,8.6731,8.8235,10.68,17.822001,-0.94787,-4.8485,-4.6984,-10.628,-9.6154,3.7002,3.8547,-0.97561,-4.9359
9.4155,10.54,14.634,8.8235,10.68,16.311001,14.493,5.7327,6.7314,8.8235,10.68,17.822001,-4.7393,-8.6762,-11.365,-9.6618,-13.462,2.7432,4.8025,-1.9512,-7.8205
4.6761,7.6825,8.7805,12.745,9.7087,14.369,12.56,6.6989,7.7023,12.745,9.7087,14.851,-8.5308,-10.59,-14.222,-7.7295,-13.462,0.82935,2.9068,-5.8537,-7.8205
3.7283,11.492,8.7805,11.765,9.7087,12.427,13.527,9.5974,9.644,11.765,9.7087,14.851,-7.5829,-6.7624,-7.5556,0.96618,-6.7308,0.82935,7.6461,-8.7805,-2.0513
7.5197,18.159,14.634,4.902,5.8252,7.5728,10.628,3.8003,7.7023,4.902,5.8252,10.891,-4.7393,-1.9777,4.8254,14.493,4.8077,0.82935,14.281,-4.878,6.6026
4.6761,14.349,11.707,0.98039,0.0,-1.165,2.8986,-1.9968,1.877,0.98039,0.0,0.0,-0.94787,2.807,9.5873,21.256001,11.538,-0.12759,12.385,-2.9268,12.372
-4.8025,1.9683,-0.97561,0.0,-2.9126,-6.9903,-5.7971,-1.0306,-2.9773,0.0,-2.9126,-9.901,-3.7915,1.8501,2.9206,15.459,7.6923,-2.9984,5.7504,-8.7805,9.4872
-4.8025,-4.6984,-5.8537,1.9608,0.0,-4.0777,-5.7971,0.90177,-2.9773,1.9608,0.0,-7.9208,5.6872,6.6348,2.9206,9.6618,6.7308,-1.0845,0.06319,-1.9512,7.5641
-0.06319,-3.746,-2.9268,4.902,-0.97087,-0.19417,-3.8647,2.8341,-2.9773,4.902,-0.97087,-3.9604,3.7915,4.7209,7.6825,7.7295,9.6154,0.82935,-2.7804,4.878,3.7179
1.8325,-4.6984,-0.97561,-2.9412,-5.8252,-3.1068,-5.7971,0.90177,-5.89,-2.9412,-5.8252,-7.9208,-5.6872,-1.0207,8.6349,3.8647,7.6923,-1.0845,-9.4155,3.9024,-0.12821
-1.9589,-10.413,-6.8293,-7.8431,-8.7379,-10.874,-12.56,-3.9291,-9.7735,-7.8431,-8.7379,-15.842,-4.7393,-1.9777,5.7778,-2.8986,0.0,-1.0845,-12.259,4.878,-2.0513
-7.6461,-15.175,-16.584999,-7.8431,-8.7379,-13.786,-16.424999,-5.8615,-7.8317,-7.8431,-8.7379,-19.802,-1.8957,-2.9346,-0.88889,-11.594,-9.6154,1.7863,-4.6761,3.9024,-3.9744
-14.281,-19.937,-24.389999,-5.8824,-6.7961,-13.786,-16.424999,-6.8277,-3.9482,-5.8824,-6.7961,-19.802,3.7915,-1.9777,-10.413,-20.290001,-17.308001,-2.0415,1.0111,0.0,-5.8974
-18.073,-21.841,-24.389999,-6.8627,-5.8252,-14.757,-13.527,-8.7601,-0.06472,-6.8627,-5.8252,-17.822001,-5.6872,-7.7193,-18.983999,-24.155001,-21.153999,-6.8262,0.06319,-6.8293,-8.7821
-15.229,-18.032,-17.561001,-4.902,-4.8544,-12.816,-8.6957,-8.7601,0.90615,-4.902,-4.8544,-12.871,-9.4787,-12.504,-19.937,-25.121,-18.268999,-8.74,0.06319,-10.732,-11.667
-11.438,-12.317,-11.707,0.0,0.97087,-6.0194,-3.8647,-3.9291,0.90615,0.0,0.97087,-5.9406,-7.5829,-10.59,-19.937,-23.188,-13.462,-5.8692,-1.8325,-11.707,-14.551
-13.333,-8.5079,-12.683,5.8824,3.8835,-1.165,0.0,2.8341,0.90615,5.8824,3.8835,-1.9802,-8.5308,-12.504,-22.794001,-22.222,-16.346001,-0.12759,-2.7804,-12.683,-16.474001
-15.229,-4.6984,-11.707,8.8235,4.8544,-0.19417,2.8986,4.7665,0.90615,8.8235,4.8544,0.0,-14.218,-15.375,-25.650999,-18.357,-21.153999,-1.0845,-3.7283,-14.634,-14.551
-7.6461,1.0159,-0.97561,5.8824,2.9126,0.7767,3.8647,5.7327,-1.0356,5.8824,2.9126,0.9901,-14.218,-12.504,-19.937,-6.7633,-17.308001,2.7432,-1.8325,-14.634,-7.8205
3.7283,6.7302,11.707,6.8627,2.9126,2.7184,0.0,5.7327,-0.06472,6.8627,2.9126,0.9901,-3.7915,-1.0207,-5.6508,8.6957,-3.8462,3.7002,2.9068,-4.878,2.7564
3.7283,5.7778,11.707,0.0,0.0,0.7767,-5.7971,1.868,-1.0356,0.0,0.0,-3.9604,-2.8436,2.807,1.0159,14.493,4.8077,-0.12759,3.8547,-7.8049,8.5256
-0.06319,0.06349,2.9268,0.0,-5.8252,-3.1068,-6.7633,-0.06441,-3.9482,0.0,-5.8252,-6.9307,-1.8957,3.764,3.873,11.594,8.6538,-2.0415,-2.7804,-6.8293,7.5641
-1.0111,-4.6984,0.0,0.0,-3.8835,-5.0485,-5.7971,0.90177,-5.89,0.0,-3.8835,-7.9208,6.6351,10.463,7.6825,6.7633,10.577,-1.0845,-3.7283,3.9024,7.5641
-3.8547,-8.5079,-1.9512,-4.902,-4.8544,-10.874,-10.628,-3.9291,-6.8608,-4.902,-4.8544,-12.871,3.7915,8.5486,6.7302,3.8647,5.7692,-2.0415,-3.7283,1.9512,6.6026
-3.8547,-11.365,-6.8293,-5.8824,-6.7961,-13.786,-13.527,-5.8615,-7.8317,-5.8824,-6.7961,-15.842,0.94787,3.764,3.873,0.96618,0.96154,-1.0845,-5.624,1.9512,5.641
-2.9068,-7.5556,-10.732,-5.8824,-5.8252,-9.9029,-6.7633,-4.8953,-3.9482,-5.8824,-5.8252,-11.881,0.0,0.89314,1.9683,0.0,-2.8846,-2.9984,-2.7804,0.97561,3.7179
0.88468,-1.8413,-5.8537,-3.9216,0.97087,-2.1359,0.96618,-1.9968,1.877,-3.9216,0.97087,-1.9802,-0.94787,-1.9777,1.9683,-1.9324,-5.7692,-5.8692,-0.88468,2.9268,0.83333
2.7804,1.9683,1.9512,2.9412,2.9126,1.7476,4.8309,-1.0306,4.7896,2.9412,2.9126,2.9703,2.8436,2.807,4.8254,1.9324,-1.9231,-3.9553,2.9068,5.8537,2.7564
3.7283,3.873,5.8537,0.98039,2.9126,2.7184,4.8309,-1.0306,4.7896,0.98039,2.9126,3.9604,5.6872,6.6348,6.7302,6.7633,6.7308,-5.8692,5.7504,3.9024,5.641
5.624,5.7778,6.8293,2.9412,10.68,4.6602,6.7633,1.868,9.644,2.9412,10.68,5.9406,11.374,10.463,8.6349,9.6618,13.462,-4.9123,10.49,5.8537,8.5256
4.6761,6.7302,0.97561,9.8039,15.534,6.6019,10.628,4.7665,11.586,9.8039,15.534,8.9109,2.8436,5.6778,3.873,3.8647,9.6154,-1.0845,7.6461,1.9512,4.6795
3.7283,6.7302,-0.97561,13.725,11.65,11.456,11.594,7.6651,9.644,13.725,11.65,12.871,5.6872,1.8501,0.06349,-2.8986,2.8846,2.7432,6.6983,4.878,-3.0128
0.88468,2.9206,-4.878,10.784,7.767,9.5146,6.7633,6.6989,5.7605,10.784,7.767,8.9109,0.94787,-1.0207,-4.6984,-7.7295,-2.8846,3.7002,4.8025,3.9024,-6.859
-4.8025,-5.6508,-12.683,0.98039,0.97087,-0.19417,-1.9324,1.868,-0.06472,0.98039,0.97087,-1.9802,-3.7915,-2.9346,-10.413,-12.56,-8.6538,-1.0845,-1.8325,-0.97561,-8.7821
-8.594,-12.317,-16.584999,-5.8824,-5.8252,-5.0485,-8.6957,-0.06441,-6.8608,-5.8824,-5.8252,-7.9208,0.0,-1.0207,-11.365,-13.527,-9.6154,3.7002,-5.624,1.9512,-7.8205
-12.385,-13.27,-19.511999,-6.8627,-8.7379,-6.0194,-10.628,-0.06441,-8.8026,-6.8627,-8.7379,-9.901,-3.7915,-5.8054,-15.175,-14.493,-13.462,4.6571,-8.4676,-3.9024,-7.8205
-16.177,-11.365,-17.561001,-2.9412,-3.8835,-6.9903,-7.7295,0.90177,-3.9482,-2.9412,-3.8835,-9.901,-9.4787,-5.8054,-16.127001,-14.493,-15.385,1.7863,-7.5197,-8.7805,-6.859
-13.333,-12.317,-14.634,-5.8824,-3.8835,-8.932,-8.6957,-1.9968,-4.9191,-5.8824,-3.8835,-11.881,-10.427,-7.7193,-12.317,-16.424999,-16.346001,0.82935,-9.4155,-6.8293,-7.8205
-9.5419,-15.175,-12.683,-8.8235,-7.767,-10.874,-10.628,-4.8953,-4.9191,-8.8235,-7.767,-12.871,-3.7915,-7.7193,-6.6032,-16.424999,-14.423,-2.0415,-8.4676,-3.9024,-6.859
-6.6983,-14.222,-9.7561,-9.8039,-2.9126,-8.932,-8.6957,-6.8277,-2.9773,-9.8039,-2.9126,-11.881,-5.6872,-3.8915,-4.6984,-11.594,-9.6154,-6.8262,-4.6761,-4.878,-1.0897
-4.8025,-6.6032,-4.878,-5.8824,0.0,-4.0777,-3.8647,-4.8953,-1.0356,-5.8824,0.0,-5.9406,-5.6872,-0.0638,-3.746,-3.8647,-4.8077,-10.654,-1.8325,-6.8293,3.7179
-0.06319,2.9206,2.9268,-2.9412,-0.97087,-0.19417,1.9324,-1.9968,-2.0065,-2.9412,-0.97087,1.9802,2.8436,4.7209,1.9683,1.9324,0.96154,-2.9984,-1.8325,-2.9268,5.641
4.6761,7.6825,8.7805,0.98039,-0.97087,1.7476,5.7971,-1.0306,-2.0065,0.98039,-0.97087,5.9406,3.7915,5.6778,7.6825,3.8647,4.8077,0.82935,1.0111,3.9024,4.6795
7.5197,7.6825,9.7561,3.9216,3.8835,2.7184,5.7971,-1.0306,-0.06472,3.9216,3.8835,6.9307,1.8957,2.807,10.54,3.8647,7.6923,-2.9984,2.9068,3.9024,2.7564
7.5197,5.7778,9.7561,1.9608,2.9126,3.6893,3.8647,-0.06441,-0.06472,1.9608,2.9126,6.9307,2.8436,2.807,11.492,5.7971,8.6538,-0.12759,1.0111,4.878,2.7564
7.5197,3.873,7.8049,0.0,4.8544,3.6893,2.8986,1.868,1.877,0.0,4.8544,4.9505,12.322,8.5486,12.444,9.6618,9.6154,2.7432,-4.6761,10.732,2.7564
3.7283,2.9206,4.878,1.9608,4.8544,2.7184,3.8647,1.868,0.90615,1.9608,4.8544,5.9406,7.5829,3.764,8.6349,6.7633,7.6923,1.7863,-5.624,10.732,-2.0513
5.624,7.6825,5.8537,5.8824,2.9126,4.6602,5.7971,1.868,-1.0356,5.8824,2.9126,7.9208,3.7915,-1.9777,8.6349,8.6957,6.7308,3.7002,-1.8325,13.659,-3.0128
8.4676,8.6349,6.8293,4.902,2.9126,7.5728,8.6957,3.8003,-0.06472,4.902,2.9126,9.901,0.0,-4.8485,6.7302,7.7295,1.9231,3.7002,0.06319,8.7805,-2.0513
5.624,6.7302,2.9268,1.9608,3.8835,6.6019,7.7295,1.868,3.8188,1.9608,3.8835,8.9109,0.94787,-1.0207,1.9683,5.7971,0.96154,-1.0845,4.8025,0.97561,-0.12821
0.88468,3.873,-2.9268,0.0,3.8835,4.6602,5.7971,-1.0306,5.7605,0.0,3.8835,6.9307,7.5829,3.764,-0.88889,6.7633,3.8462,-2.9984,6.6983,-0.97561,3.7179
-1.9589,1.0159,-2.9268,0.0,5.8252,2.7184,4.8309,-1.9968,6.7314,0.0,5.8252,5.9406,1.8957,4.7209,-1.8413,5.7971,5.7692,-2.9984,6.6983,-2.9268,4.6795
-0.06319,0.06349,-0.97561,-2.9412,5.8252,0.7767,3.8647,-1.0306,6.7314,-2.9412,5.8252,3.9604,-0.94787,3.764,-0.88889,1.9324,5.7692,-2.9984,5.7504,-3.9024,4.6795
3.7283,0.06349,0.0,0.98039,3.8835,0.7767,4.8309,0.90177,5.7605,0.98039,3.8835,2.9703,2.8436,0.89314,2.9206,0.0,5.7692,2.7432,4.8025,0.97561,2.7564
2.7804,1.0159,-2.9268,0.98039,1.9417,0.7767,3.8647,0.90177,2.8479,0.98039,1.9417,1.9802,-3.7915,-1.9777,1.0159,0.0,2.8846,5.614,3.8547,-1.9512,-1.0897
-0.06319,1.9683,-4.878,0.0,-0.97087,0.7767,2.8986,0.90177,2.8479,0.0,-0.97087,0.0,-3.7915,-1.0207,1.0159,3.8647,2.8846,4.6571,0.06319,-1.9512,-0.12821
-1.9589,1.0159,-0.97561,-1.9608,-2.9126,-3.1068,-1.9324,-1.9968,-0.06472,-1.9608,-2.9126,-3.9604,0.0,4.7209,3.873,9.6618,6.7308,3.7002,3.8547,0.97561,5.641
-0.06319,0.06349,4.878,-3.9216,-4.8544,-6.9903,-7.7295,-4.8953,-2.9773,-3.9216,-4.8544,-6.9307,5.6872,9.5056,7.6825,13.527,9.6154,0.82935,3.8547,3.9024,9.4872
6.5719,1.9683,7.8049,-3.9216,-1.9417,-1.165,-3.8647,-2.963,-2.9773,-3.9216,-1.9417,-1.9802,7.5829,4.7209,10.54,10.628,7.6923,-1.0845,1.0111,8.7805,6.6026
11.311,6.7302,7.8049,-0.98039,1.9417,5.6311,3.8647,0.90177,1.877,-0.98039,1.9417,4.9505,8.5308,4.7209,13.397,7.7295,6.7308,0.82935,0.06319,11.707,4.6795
11.311,9.5873,8.7805,1.9608,4.8544,8.5437,7.7295,3.8003,3.8188,1.9608,4.8544,9.901,11.374,6.6348,13.397,6.7633,6.7308,7.5279,1.9589,12.683,3.7179
9.4155,11.492,15.61,7.8431,1.9417,7.5728,7.7295,2.8341,1.877,7.8431,1.9417,11.881,7.5829,3.764,12.444,8.6957,8.6538,4.6571,4.8025,8.7805,2.7564
10.363,10.54,18.537001,4.902,1.9417,5.6311,4.8309,-0.06441,-0.06472,4.902,1.9417,9.901,5.6872,5.6778,14.349,11.594,12.5,-0.12759,4.8025,5.8537,4.6795
9.4155,4.8254,11.707,-0.98039,0.97087,2.7184,1.9324,-1.0306,-0.06472,-0.98039,0.97087,4.9505,2.8436,2.807,10.54,6.7633,8.6538,1.7863,4.8025,6.8293,2.7564
7.5197,1.9683,1.9512,-3.9216,-0.97087,2.7184,0.0,-0.06441,0.90615,-3.9216,-0.97087,1.9802,-4.7393,-2.9346,2.9206,2.8986,0.96154,2.7432,2.9068,0.97561,-0.12821
1.8325,2.9206,-2.9268,-0.98039,0.97087,1.7476,0.0,-0.06441,1.877,-0.98039,0.97087,1.9802,-8.5308,-4.8485,-2.7937,2.8986,-2.8846,1.7863,2.9068,-4.878,-0.12821
-1.0111,2.9206,-2.9268,1.9608,1.9417,1.7476,0.96618,1.868,1.877,1.9608,1.9417,2.9703,-7.5829,-2.9346,-2.7937,1.9324,-3.8462,3.7002,0.06319,-3.9024,-0.12821
0.88468,1.0159,1.9512,0.0,0.0,0.7767,1.9324,3.8003,-1.0356,0.0,0.0,2.9703,-1.8957,-1.9777,2.9206,-1.9324,-2.8846,7.5279,-5.624,2.9268,-3.0128
6.5719,0.06349,5.8537,-2.9412,-1.9417,0.7767,0.96618,4.7665,-2.9773,-2.9412,-1.9417,2.9703,1.8957,-2.9346,6.7302,-2.8986,0.96154,11.356,-8.4676,8.7805,-4.9359
8.4676,-1.8413,6.8293,-4.902,-1.9417,0.7767,-1.9324,2.8341,-4.9191,-4.902,-1.9417,1.9802,3.7915,0.89314,6.7302,0.0,4.8077,12.313,-6.5719,8.7805,-1.0897
1.8325,-4.6984,0.0,-3.9216,-3.8835,-1.165,-6.7633,1.868,-6.8608,-3.9216,-3.8835,-2.9703,-0.94787,-2.9346,-1.8413,-0.96618,1.9231,7.5279,-7.5197,3.9024,-3.0128
-2.9068,-3.746,-6.8293,-1.9608,-2.9126,0.7767,-2.8986,3.8003,-2.9773,-1.9608,-2.9126,-0.9901,-1.8957,-5.8054,-8.5079,-3.8647,-3.8462,5.614,-5.624,0.0,-5.8974
-1.9589,0.06349,-5.8537,0.0,0.0,3.6893,2.8986,4.7665,1.877,0.0,0.0,2.9703,-1.8957,-4.8485,-9.4603,-4.8309,-7.6923,3.7002,-2.7804,-2.9268,-5.8974
-1.0111,2.9206,-1.9512,0.98039,2.9126,5.6311,4.8309,4.7665,3.8188,0.98039,2.9126,5.9406,-1.8957,-6.7624,-10.413,-2.8986,-9.6154,0.82935,0.06319,-3.9024,-4.9359
-1.0111,3.873,2.9268,2.9412,3.8835,4.6602,3.8647,1.868,3.8188,2.9412,3.8835,5.9406,-6.6351,-6.7624,-9.4603,0.96618,-7.6923,-3.9553,1.9589,-5.8537,-2.0513
-0.06319,1.9683,2.9268,0.0,1.9417,0.7767,1.9324,-1.9968,1.877,0.0,1.9417,2.9703,-9.4787,-2.9346,-5.6508,3.8647,-2.8846,-9.697,2.9068,-9.7561,1.7949
1.8325,3.873,4.878,2.9412,3.8835,0.7767,4.8309,-1.0306,4.7896,2.9412,3.8835,3.9604,-2.8436,3.764,0.06349,4.8309,0.96154,-7.7831,5.7504,-8.7805,6.6026
2.7804,8.6349,6.8293,5.8824,8.7379,3.6893,8.6957,-0.06441,9.644,5.8824,8.7379,8.9109,-2.8436,2.807,1.9683,7.7295,3.8462,-5.8692,6.6983,-9.7561,7.5641
1.8325,5.7778,4.878,3.9216,5.8252,5.6311,4.8309,3.8003,6.7314,3.9216,5.8252,6.9307,-3.7915,-0.0638,-0.88889,4.8309,1.9231,-4.9123,2.9068,-7.8049,2.7564
2.7804,0.06349,4.878,4.902,0.97087,5.6311,-0.96618,5.7327,-0.06472,4.902,0.97087,2.9703,3.7915,1.8501,1.0159,2.8986,1.9231,0.82935,1.0111,0.97561,0.83333
2.7804,-2.7937,3.9024,0.98039,-1.9417,0.7767,-3.8647,2.8341,-4.9191,0.98039,-1.9417,-0.9901,12.322,6.6348,3.873,0.96618,1.9231,2.7432,-0.88468,4.878,0.83333
-1.9589,-9.4603,-6.8293,-2.9412,-5.8252,-6.0194,-6.7633,-2.963,-5.89,-2.9412,-5.8252,-6.9307,6.6351,1.8501,1.0159,-8.6957,-5.7692,1.7863,-5.624,3.9024,-4.9359
-4.8025,-15.175,-13.659,-5.8824,-6.7961,-8.932,-9.6618,-3.9291,-5.89,-5.8824,-6.7961,-10.891,2.8436,-2.9346,0.06349,-17.391001,-11.538,4.6571,-7.5197,7.8049,-9.7436
-6.6983,-17.079,-12.683,-6.8627,-9.7087,-10.874,-11.594,-3.9291,-5.89,-6.8627,-9.7087,-12.871,-3.7915,-9.6332,-1.8413,-18.357,-11.538,7.5279,-10.363,6.8293,-12.628
-5.7504,-9.4603,-4.878,-0.98039,-1.9417,-4.0777,-5.7971,0.90177,-3.9482,-0.98039,-1.9417,-4.9505,-6.6351,-8.6762,-4.6984,-10.628,-6.7308,4.6571,-7.5197,1.9512,-9.7436
-1.9589,1.9683,1.9512,7.8431,10.68,6.6019,4.8309,5.7327,3.8188,7.8431,10.68,6.9307,0.94787,-3.8915,-5.6508,-3.8647,-4.8077,-0.12759,-3.7283,1.9512,-6.859
-2.9068,5.7778,-3.9024,11.765,11.65,8.5437,10.628,3.8003,5.7605,11.765,11.65,9.901,0.94787,-3.8915,-9.4603,-4.8309,-6.7308,-2.9984,-2.7804,1.9512,-4.9359
-4.8025,3.873,-10.732,12.745,11.65,5.6311,10.628,2.8341,6.7314,12.745,11.65,7.9208,0.0,-1.0207,-8.5079,-1.9324,-5.7692,-4.9123,-2.7804,0.0,-0.12821
-1.0111,5.7778,-4.878,8.8235,13.592,4.6602,11.594,0.90177,6.7314,8.8235,13.592,7.9208,-4.7393,2.807,-4.6984,3.8647,-0.96154,-6.8262,2.9068,-4.878,6.6026
1.8325,5.7778,2.9268,3.9216,6.7961,2.7184,5.7971,-2.963,4.7896,3.9216,6.7961,5.9406,-2.8436,3.764,-0.88889,6.7633,1.9231,-9.697,6.6983,-8.7805,11.41
5.624,2.9206,4.878,4.902,3.8835,4.6602,3.8647,-1.9968,1.877,4.902,3.8835,4.9505,3.7915,5.6778,2.9206,3.8647,2.8846,-7.7831,5.7504,-3.9024,9.4872
4.6761,0.06349,-0.97561,9.8039,3.8835,3.6893,3.8647,0.90177,2.8479,9.8039,3.8835,2.9703,2.8436,2.807,1.9683,0.0,1.9231,-6.8262,4.8025,-2.9268,6.6026
0.88468,1.9683,-3.9024,3.9216,3.8835,-0.19417,4.8309,-1.9968,5.7605,3.9216,3.8835,1.9802,-1.8957,1.8501,1.0159,0.96618,1.9231,-5.8692,5.7504,-6.8293,5.641
0.88468,2.9206,0.0,0.98039,3.8835,-3.1068,4.8309,-3.9291,6.7314,0.98039,3.8835,0.9901,-0.94787,1.8501,4.8254,1.9324,3.8462,-2.9984,6.6983,-2.9268,5.641
0.88468,-0.88889,3.9024,0.98039,3.8835,-3.1068,0.0,-1.9968,2.8479,0.98039,3.8835,-1.9802,0.94787,-0.0638,6.7302,0.0,1.9231,-1.0845,2.9068,2.9268,1.7949
1.8325,-3.746,3.9024,-1.9608,0.0,-4.0777,-2.8986,-1.9968,-0.06472,-1.9608,0.0,-3.9604,3.7915,-0.0638,6.7302,-1.9324,0.96154,2.7432,0.06319,6.8293,-1.0897
3.7283,1.0159,5.8537,-0.98039,-0.97087,-4.0777,0.0,-1.0306,2.8479,-0.98039,-0.97087,-2.9703,8.5308,2.807,12.444,4.8309,9.6154,6.571,1.9589,10.732,2.7564
7.5197,5.7778,9.7561,1.9608,0.0,-0.19417,3.8647,1.868,4.7896,1.9608,0.0,0.9901,8.5308,5.6778,14.349,12.56,16.346001,7.5279,0.06319,10.732,5.641
7.5197,6.7302,10.732,6.8627,2.9126,4.6602,5.7971,3.8003,-0.06472,6.8627,2.9126,6.9307,5.6872,4.7209,10.54,10.628,13.462,3.7002,-4.6761,7.8049,1.7949
6.5719,2.9206,7.8049,3.9216,2.9126,8.5437,3.8647,4.7665,-6.8608,3.9216,2.9126,7.9208,9.4787,5.6778,6.7302,5.7971,9.6154,7.5279,-6.5719,9.7561,-0.12821
0.88468,-4.6984,0.0,0.0,-2.9126,2.7184,-4.8309,0.90177,-10.744,0.0,-2.9126,-0.9901,6.6351,2.807,3.873,-1.9324,3.8462,6.571,-7.5197,10.732,-3.0128
-4.8025,-5.6508,-5.8537,-2.9412,-3.8835,-6.0194,-5.7971,-4.8953,-6.8608,-2.9412,-3.8835,-7.9208,5.6872,-0.0638,-1.8413,-4.8309,-1.9231,-0.12759,-5.624,7.8049,-5.8974
-9.5419,-1.8413,-7.8049,-1.9608,0.0,-8.932,0.96618,-8.7601,3.8188,-1.9608,0.0,-3.9604,4.7393,-2.9346,-10.413,-7.7295,-7.6923,-6.8262,-0.88468,-0.97561,-7.8205
-11.438,1.0159,-4.878,-3.9216,3.8835,-8.932,5.7971,-14.557,10.615,-3.9216,3.8835,1.9802,-0.94787,-2.9346,-16.127001,-10.628,-9.6154,-15.439,-0.88468,-9.7561,-7.8205
-8.594,1.9683,0.0,-4.902,4.8544,-6.0194,5.7971,-14.557,13.528,-4.902,4.8544,4.9505,-5.6872,-1.0207,-14.222,-6.7633,-4.8077,-20.223,1.0111,-16.584999,-6.859
-1.9589,8.6349,5.8537,-5.8824,5.8252,-3.1068,10.628,-14.557,17.410999,-5.8824,5.8252,7.9208,-1.8957,4.7209,-4.6984,2.8986,5.7692,-16.396,9.5419,-11.707,2.7564
3.7283,17.205999,12.683,-3.9216,6.7961,0.7767,14.493,-12.625,22.264999,-3.9216,6.7961,10.891,4.7393,10.463,3.873,15.459,13.462,-12.568,19.968,-8.7805,16.218
1.8325,15.302,8.7805,-0.98039,3.8835,0.7767,10.628,-7.7939,17.410999,-0.98039,3.8835,6.9307,3.7915,8.5486,2.9206,17.391001,9.6154,-8.74,19.021,-8.7805,20.063999
-0.06319,6.7302,4.878,-5.8824,-3.8835,-4.0777,1.9324,-6.8277,7.7023,-5.8824,-3.8835,-0.9901,0.0,3.764,2.9206,11.594,6.7308,-5.8692,14.281,-4.878,15.256
-0.06319,-0.88889,1.9512,-12.745,-8.7379,-7.9612,-3.8647,-8.7601,1.877,-12.745,-8.7379,-6.9307,1.8957,4.7209,5.7778,6.7633,6.7308,-0.12759,8.594,0.97561,11.41
0.88468,-2.7937,0.97561,-11.765,-7.767,-8.932,-5.7971,-9.7262,1.877,-11.765,-7.767,-8.9109,2.8436,3.764,7.6825,2.8986,5.7692,3.7002,6.6983,6.8293,8.5256
-0.06319,-1.8413,0.97561,-11.765,-8.7379,-8.932,-7.7295,-8.7601,0.90615,-11.765,-8.7379,-9.901,7.5829,4.7209,9.5873,5.7971,8.6538,4.6571,4.8025,10.732,5.641
-4.8025,-5.6508,-4.878,-11.765,-11.65,-10.874,-13.527,-8.7601,-4.9191,-11.765,-11.65,-14.851,5.6872,5.6778,7.6825,4.8309,9.6154,6.571,0.06319,7.8049,4.6795
-3.8547,-13.27,-7.8049,-9.8039,-15.534,-9.9029,-17.391001,-4.8953,-11.715,-9.8039,-15.534,-17.822001,7.5829,3.764,7.6825,0.0,7.6923,9.4418,-12.259,9.7561,-0.12821
0.88468,-14.222,-2.9268,-3.9216,-9.7087,-6.0194,-14.493,-1.0306,-10.744,-3.9216,-9.7087,-13.861,8.5308,1.8501,8.6349,-2.8986,6.7308,9.4418,-16.051001,10.732,-5.8974
3.7283,-6.6032,4.878,4.902,-0.97087,-0.19417,-4.8309,1.868,-2.9773,4.902,-0.97087,-3.9604,-2.8436,-3.8915,6.7302,-2.8986,2.8846,6.571,-11.311,6.8293,-10.705
6.5719,4.8254,11.707,7.8431,7.767,4.6602,5.7971,1.868,2.8479,7.8431,7.767,5.9406,0.94787,-1.9777,7.6825,0.96618,3.8462,2.7432,-4.6761,7.8049,-6.859
4.6761,10.54,10.732,8.8235,10.68,4.6602,9.6618,-0.06441,6.7314,8.8235,10.68,7.9208,6.6351,2.807,4.8254,1.9324,1.9231,-2.9984,1.0111,5.8537,-1.0897
-1.0111,8.6349,4.878,7.8431,8.7379,1.7476,10.628,-1.0306,5.7605,7.8431,8.7379,7.9208,2.8436,-1.9777,-4.6984,-2.8986,-5.7692,-4.9123,2.9068,0.0,-3.0128
-1.9589,10.54,7.8049,9.8039,12.621,4.6602,13.527,-1.0306,9.644,9.8039,12.621,11.881,2.8436,-1.0207,-7.5556,0.96618,-3.8462,-5.8692,5.7504,-2.9268,-2.0513
1.8325,13.397,13.659,12.745,19.417,8.5437,18.357,-0.06441,14.498,12.745,19.417,17.822001,1.8957,3.764,-7.5556,5.7971,1.9231,-6.8262,9.5419,-6.8293,2.7564
6.5719,16.254,13.659,18.627001,26.214001,15.34,23.188,3.8003,20.323999,18.627001,26.214001,22.771999,2.8436,8.5486,-2.7937,10.628,5.7692,-5.8692,12.385,-9.7561,7.5641
8.4676,12.444,6.8293,18.627001,25.243,16.311001,21.256001,5.7327,19.353001,18.627001,25.243,20.792,-0.94787,2.807,-0.88889,8.6957,3.8462,-2.0415,14.281,-10.732,5.641
8.4676,7.6825,4.878,14.706,15.534,13.398,12.56,4.7665,13.528,14.706,15.534,13.861,-2.8436,-0.0638,2.9206,7.7295,5.7692,0.82935,12.385,-5.8537,4.6795
7.5197,3.873,5.8537,6.8627,4.8544,9.5146,1.9324,4.7665,5.7605,6.8627,4.8544,4.9505,0.0,4.7209,8.6349,12.56,11.538,7.5279,8.594,3.9024,7.5641
6.5719,0.06349,3.9024,1.9608,-1.9417,4.6602,-3.8647,5.7327,-0.06472,1.9608,-1.9417,-0.9901,4.7393,8.5486,10.54,12.56,11.538,12.313,5.7504,9.7561,11.41
-0.06319,-4.6984,-4.878,-2.9412,-2.9126,-3.1068,-8.6957,0.90177,-2.0065,-2.9412,-2.9126,-8.9109,6.6351,10.463,6.7302,6.7633,6.7308,14.226,1.0111,10.732,9.4872
-9.5419,-15.175,-18.537001,-4.902,-9.7087,-11.845,-15.459,-1.9968,-9.7735,-4.902,-9.7087,-18.812,-1.8957,-0.0638,-0.88889,-5.7971,-2.8846,9.4418,-9.4155,7.8049,-2.0513
-12.385,-20.889,-22.438999,-7.8431,-16.504999,-15.728,-20.290001,-1.9968,-12.686,-7.8431,-16.504999,-24.752001,-8.5308,-9.6332,-5.6508,-15.459,-11.538,9.4418,-15.103,1.9512,-10.705
-8.594,-16.127001,-14.634,-7.8431,-11.65,-12.816,-17.391001,-2.963,-7.8317,-7.8431,-11.65,-20.792,-4.7393,-8.6762,-3.746,-12.56,-11.538,9.4418,-10.363,1.9512,-9.7436
-2.9068,-9.4603,-3.9024,-4.902,-4.8544,-5.0485,-10.628,-1.9968,-2.9773,-4.902,-4.8544,-10.891,0.94787,-4.8485,1.0159,-7.7295,-6.7308,7.5279,-5.624,5.8537,-5.8974
3.7283,-0.88889,1.9512,-0.98039,0.0,3.6893,-0.96618,2.8341,-0.06472,-0.98039,0.0,0.9901,-1.8957,-2.9346,2.9206,-3.8647,-2.8846,7.5279,-2.7804,3.9024,-4.9359
5.624,6.7302,2.9268,0.98039,3.8835,7.5728,7.7295,2.8341,3.8188,0.98039,3.8835,5.9406,-4.7393,-4.8485,2.9206,-0.96618,-1.9231,3.7002,0.06319,0.97561,-5.8974
4.6761,10.54,3.9024,0.0,5.8252,4.6602,10.628,-1.0306,6.7314,0.0,5.8252,7.9208,-2.8436,-0.0638,1.9683,1.9324,0.0,-0.12759,4.8025,1.9512,-2.0513
-1.9589,3.873,-2.9268,-0.98039,1.9417,-0.19417,3.8647,-3.9291,4.7896,-0.98039,1.9417,0.9901,-5.6872,-2.9346,-5.6508,-2.8986,-5.7692,-6.8262,4.8025,-3.9024,-2.0513
-6.6983,-3.746,-7.8049,0.0,0.0,-3.1068,-1.9324,-5.8615,3.8188,0.0,0.0,-1.9802,-8.5308,-8.6762,-12.317,-9.6618,-11.538,-11.611,4.8025,-10.732,-4.9359
-9.5419,-3.746,-8.7805,0.0,0.97087,-3.1068,-0.96618,-6.8277,5.7605,0.0,0.97087,0.0,-14.218,-13.461,-18.032,-12.56,-15.385,-14.482,6.6983,-16.584999,-9.7436
-8.594,2.9206,-5.8537,-1.9608,4.8544,-1.165,7.7295,-6.8277,11.586,-1.9608,4.8544,4.9505,-12.322,-12.504,-18.032,-7.7295,-13.462,-16.396,11.438,-17.561001,-6.859
-6.6983,9.5873,0.0,-4.902,6.7961,-3.1068,10.628,-9.7262,15.469,-4.902,6.7961,4.9505,-10.427,-5.8054,-12.317,1.9324,-6.7308,-16.396,17.125,-17.561001,3.7179
-6.6983,9.5873,1.9512,-5.8824,4.8544,-6.0194,5.7971,-10.692,13.528,-5.8824,4.8544,0.9901,-10.427,-1.9777,-9.4603,6.7633,-4.8077,-17.351999,18.073,-17.561001,9.4872
-4.8025,7.6825,3.9024,-7.8431,0.0,-4.0777,2.8986,-7.7939,10.615,-7.8431,0.0,-0.9901,-4.7393,3.764,-6.6032,6.7633,-2.8846,-17.351999,16.177,-14.634,12.372
-2.9068,1.9683,0.0,-8.8235,-0.97087,-4.0777,0.0,-4.8953,7.7023,-8.8235,-0.97087,-3.9604,-7.5829,4.7209,-7.5556,1.9324,-3.8462,-15.439,11.438,-16.584999,11.41
-0.06319,-3.746,0.0,-8.8235,-2.9126,-4.0777,-3.8647,-2.963,2.8479,-8.8235,-2.9126,-5.9406,-4.7393,6.6348,-1.8413,0.0,0.0,-8.74,3.8547,-10.732,7.5641
4.6761,-3.746,5.8537,-6.8627,-4.8544,-2.1359,-4.8309,-0.06441,-2.0065,-6.8627,-4.8544,-3.9604,2.8436,6.6348,8.6349,3.8647,8.6538,0.82935,-1.8325,0.0,4.6795
8.4676,1.0159,10.732,-3.9216,-4.8544,0.7767,-3.8647,2.8341,-6.8608,-3.9216,-4.8544,0.0,6.6351,1.8501,12.444,5.7971,9.6154,8.4848,-5.624,5.8537,0.83333
11.311,4.8254,13.659,-3.9216,-7.767,2.7184,-2.8986,5.7327,-8.8026,-3.9216,-7.767,0.9901,3.7915,-1.9777,12.444,4.8309,5.7692,14.226,-10.363,8.7805,-3.9744
11.311,2.9206,9.7561,-7.8431,-9.7087,2.7184,-1.9324,6.6989,-9.7735,-7.8431,-9.7087,0.9901,-1.8957,-7.7193,7.6825,-0.96618,-1.9231,15.183,-9.4155,10.732,-7.8205
2.7804,-2.7937,-0.97561,-8.8235,-10.68,-0.19417,-4.8309,5.7327,-8.8026,-8.8235,-10.68,-2.9703,-4.7393,-12.504,-0.88889,-9.6618,-8.6538,14.226,-8.4676,7.8049,-13.59
-3.8547,-6.6032,-6.8293,-8.8235,-8.7379,-3.1068,-6.7633,4.7665,-5.89,-8.8235,-8.7379,-6.9307,-5.6872,-14.418,-7.5556,-13.527,-14.423,11.356,-8.4676,2.9268,-15.513
-1.9589,-5.6508,-2.9268,-8.8235,-10.68,-4.0777,-7.7295,2.8341,-4.9191,-8.8235,-10.68,-6.9307,-7.5829,-14.418,-7.5556,-11.594,-16.346001,7.5279,-6.5719,0.97561,-14.551
-4.8025,-8.5079,-3.9024,-9.8039,-11.65,-5.0485,-8.6957,-0.06441,-2.0065,-9.8039,-11.65,-8.9109,-13.27,-15.375,-12.317,-14.493,-21.153999,5.614,-5.624,-5.8537,-13.59
-12.385,-13.27,-13.659,-8.8235,-8.7379,-6.9903,-9.6618,-1.9968,1.877,-8.8235,-8.7379,-10.891,-17.062,-12.504,-20.889,-18.357,-24.038,-2.0415,-4.6761,-12.683,-12.628
-14.281,-11.365,-17.561001,-6.8627,-4.8544,-6.0194,-6.7633,-1.9968,1.877,-6.8627,-4.8544,-8.9109,-10.427,-12.504,-18.983999,-18.357,-18.268999,-4.9123,-5.624,-11.707,-16.474001
-8.594,-0.88889,-9.7561,-7.8431,-4.8544,-5.0485,-1.9324,-3.9291,2.8479,-7.8431,-4.8544,-4.9505,1.8957,-5.8054,-6.6032,-5.7971,-4.8077,-3.9553,-0.88468,-3.9024,-10.705
-2.9068,8.6349,1.9512,-8.8235,-3.8835,-4.0777,0.0,-7.7939,2.8479,-8.8235,-3.8835,-1.9802,0.0,1.8501,-0.88889,8.6957,4.8077,-6.8262,1.9589,-4.878,2.7564
-2.9068,7.6825,2.9268,-7.8431,-5.8252,-4.0777,0.96618,-4.8953,2.8479,-7.8431,-5.8252,-0.9901,-3.7915,0.89314,-4.6984,11.594,1.9231,-6.8262,4.8025,-6.8293,10.449
-4.8025,3.873,-3.9024,-6.8627,-4.8544,-3.1068,0.96618,-1.9968,3.8188,-6.8627,-4.8544,-1.9802,1.8957,2.807,-4.6984,6.7633,-1.9231,-3.9553,6.6983,-0.97561,12.372
-1.0111,2.9206,0.0,-5.8824,-3.8835,-1.165,0.96618,-0.06441,0.90615,-5.8824,-3.8835,-0.9901,6.6351,7.5917,1.9683,4.8309,1.9231,-0.12759,4.8025,3.9024,12.372
5.624,6.7302,10.732,-4.902,-4.8544,-0.19417,0.0,-0.06441,-1.0356,-4.902,-4.8544,-0.9901,12.322,11.419,10.54,10.628,11.538,1.7863,6.6983,6.8293,14.295
5.624,2.9206,8.7805,-5.8824,-7.767,-3.1068,-6.7633,-1.9968,-4.9191,-5.8824,-7.767,-5.9406,5.6872,7.5917,7.6825,7.7295,8.6538,-0.12759,2.9068,2.9268,9.4872
-1.9589,-8.5079,-4.878,-3.9216,-13.592,-5.0485,-13.527,0.90177,-8.8026,-3.9216,-13.592,-11.881,-3.7915,-1.9777,-1.8413,-3.8647,-2.8846,2.7432,-6.5719,0.0,-1.0897
-8.594,-15.175,-14.634,-1.9608,-11.65,-4.0777,-12.56,2.8341,-9.7735,-1.9608,-11.65,-11.881,-6.6351,-6.7624,-9.4603,-11.594,-11.538,2.7432,-10.363,-2.9268,-7.8205
-10.49,-17.079,-13.659,-4.902,-8.7379,-4.0777,-14.493,2.8341,-11.715,-4.902,-8.7379,-10.891,-10.427,-7.7193,-11.365,-15.459,-14.423,1.7863,-11.311,-2.9268,-8.7821
-3.8547,-15.175,-5.8537,-6.8627,-8.7379,-4.0777,-15.459,0.90177,-12.686,-6.8627,-8.7379,-9.901,-7.5829,-7.7193,-3.746,-14.493,-12.5,4.6571,-9.4155,4.878,-7.8205
0.88468,-15.175,-4.878,-4.902,-11.65,-3.1068,-14.493,1.868,-12.686,-4.902,-11.65,-8.9109,0.0,-6.7624,1.0159,-14.493,-9.6154,7.5279,-8.4676,8.7805,-8.7821
-1.0111,-14.222,-11.707,-1.9608,-6.7961,-4.0777,-10.628,2.8341,-8.8026,-1.9608,-6.7961,-7.9208,-3.7915,-7.7193,-3.746,-14.493,-9.6154,5.614,-7.5197,3.9024,-11.667
-0.06319,-5.6508,-7.8049,2.9412,-3.8835,-1.165,-3.8647,3.8003,-4.9191,2.9412,-3.8835,-1.9802,-3.7915,-3.8915,-3.746,-7.7295,-6.7308,3.7002,-10.363,1.9512,-8.7821
2.7804,4.8254,5.8537,3.9216,-1.9417,1.7476,0.96618,2.8341,-6.8608,3.9216,-1.9417,2.9703,4.7393,0.89314,1.0159,2.8986,1.9231,3.7002,-5.624,4.878,-1.0897
4.6761,6.7302,12.683,3.9216,-1.9417,2.7184,0.0,2.8341,-5.89,3.9216,-1.9417,2.9703,6.6351,8.5486,3.873,9.6618,8.6538,2.7432,4.8025,0.97561,7.5641
9.4155,5.7778,13.659,1.9608,2.9126,4.6602,1.9324,0.90177,-0.06472,1.9608,2.9126,3.9604,6.6351,15.247,10.54,12.56,13.462,2.7432,8.594,0.0,13.333
11.311,7.6825,12.683,3.9216,4.8544,7.5728,5.7971,1.868,1.877,3.9216,4.8544,7.9208,11.374,16.204,15.302,13.527,16.346001,-0.12759,8.594,1.9512,15.256
11.311,13.397,15.61,7.8431,4.8544,10.485,10.628,3.8003,2.8479,7.8431,4.8544,13.861,6.6351,14.29,12.444,13.527,14.423,-1.0845,9.5419,1.9512,17.179001
9.4155,13.397,16.584999,9.8039,4.8544,9.5146,12.56,1.868,5.7605,9.8039,4.8544,14.851,8.5308,12.376,10.54,11.594,13.462,-0.12759,10.49,6.8293,17.179001
6.5719,8.6349,12.683,9.8039,8.7379,8.5437,10.628,3.8003,4.7896,9.8039,8.7379,11.881,8.5308,10.463,10.54,9.6618,14.423,0.82935,7.6461,8.7805,12.372
7.5197,1.0159,6.8293,8.8235,9.7087,9.5146,8.6957,4.7665,2.8479,8.8235,9.7087,10.891,9.4787,8.5486,10.54,3.8647,12.5,1.7863,1.9589,10.732,5.641
5.624,-2.7937,0.97561,9.8039,3.8835,8.5437,5.7971,5.7327,-0.06472,9.8039,3.8835,8.9109,13.27,5.6778,6.7302,-1.9324,5.7692,2.7432,-5.624,9.7561,-2.0513
-0.06319,-2.7937,-3.9024,6.8627,4.8544,5.6311,3.8647,6.6989,-2.9773,6.8627,4.8544,6.9307,2.8436,-3.8915,-1.8413,-8.6957,-3.8462,-0.12759,-11.311,-0.97561,-11.667
-1.9589,0.06349,-1.9512,6.8627,4.8544,2.7184,4.8309,6.6989,-4.9191,6.8627,4.8544,6.9307,-0.94787,-4.8485,-2.7937,-7.7295,-4.8077,2.7432,-11.311,-2.9268,-13.59
-1.9589,4.8254,1.9512,4.902,4.8544,2.7184,6.7633,5.7327,-3.9482,4.902,4.8544,7.9208,-2.8436,-1.9777,1.0159,0.0,0.0,5.614,-6.5719,0.97561,-8.7821
-3.8547,4.8254,0.97561,5.8824,1.9417,1.7476,5.7971,2.8341,-5.89,5.8824,1.9417,5.9406,-0.94787,-1.0207,1.0159,3.8647,2.8846,3.7002,-3.7283,2.9268,-5.8974
0.88468,6.7302,1.9512,4.902,2.9126,2.7184,6.7633,1.868,-2.9773,4.902,2.9126,6.9307,0.0,-2.9346,3.873,6.7633,4.8077,2.7432,0.06319,2.9268,-1.0897
1.8325,4.8254,0.0,3.9216,1.9417,3.6893,4.8309,-0.06441,-1.0356,3.9216,1.9417,5.9406,-2.8436,-4.8485,2.9206,3.8647,0.96154,-1.0845,1.0111,2.9268,-0.12821
1.8325,1.9683,-0.97561,5.8824,2.9126,2.7184,6.7633,-1.0306,0.90615,5.8824,2.9126,4.9505,3.7915,2.807,3.873,3.8647,3.8462,-2.0415,2.9068,7.8049,5.641
4.6761,3.873,2.9268,6.8627,3.8835,4.6602,5.7971,-1.0306,0.90615,6.8627,3.8835,6.9307,9.4787,10.463,9.5873,9.6618,12.5,-0.12759,4.8025,10.732,11.41
11.311,7.6825,10.732,3.9216,7.767,9.5146,5.7971,1.868,0.90615,3.9216,7.767,8.9109,12.322,17.160999,15.302,15.459,20.191999,3.7002,6.6983,11.707,18.141001
12.259,8.6349,10.732,5.8824,7.767,8.5437,3.8647,4.7665,0.90615,5.8824,7.767,6.9307,6.6351,17.160999,14.349,17.391001,21.153999,3.7002,5.7504,7.8049,19.103001
7.5197,4.8254,3.9024,11.765,8.7379,6.6019,4.8309,7.6651,2.8479,11.765,8.7379,4.9505,4.7393,9.5056,9.5873,12.56,16.346001,3.7002,4.8025,1.9512,14.295
2.7804,1.9683,0.97561,13.725,8.7379,7.5728,5.7971,9.5974,4.7896,13.725,8.7379,4.9505,5.6872,6.6348,5.7778,7.7295,9.6154,5.614,5.7504,1.9512,10.449
0.88468,1.0159,0.97561,7.8431,2.9126,4.6602,1.9324,7.6651,1.877,7.8431,2.9126,2.9703,0.94787,4.7209,1.9683,4.8309,3.8462,3.7002,5.7504,1.9512,7.5641
-0.06319,-2.7937,0.97561,1.9608,-4.8544,0.7767,-4.8309,5.7327,-5.89,1.9608,-4.8544,-1.9802,-7.5829,-1.0207,-1.8413,-0.96618,-1.9231,1.7863,-0.88468,-6.8293,0.83333
1.8325,-4.6984,-1.9512,1.9608,-1.9417,-1.165,-5.7971,5.7327,-7.8317,1.9608,-1.9417,-3.9604,-7.5829,-7.7193,-2.7937,-5.7971,-4.8077,3.7002,-6.5719,-7.8049,-5.8974
-2.9068,-9.4603,-10.732,0.0,0.0,-4.0777,-7.7295,1.868,-6.8608,0.0,0.0,-5.9406,-1.8957,-7.7193,-4.6984,-11.594,-9.6154,3.7002,-9.4155,-0.97561,-9.7436
-9.5419,-15.175,-16.584999,-1.9608,-3.8835,-7.9612,-12.56,-0.06441,-8.8026,-1.9608,-3.8835,-10.891,1.8957,-7.7193,-6.6032,-14.493,-12.5,2.7432,-12.259,1.9512,-8.7821
-11.438,-14.222,-15.61,-7.8431,-9.7087,-11.845,-16.424999,-3.9291,-12.686,-7.8431,-9.7087,-15.842,-6.6351,-10.59,-9.4603,-12.56,-14.423,-1.0845,-8.4676,-2.9268,-6.859
-9.5419,-10.413,-7.8049,-11.765,-11.65,-13.786,-15.459,-8.7601,-12.686,-11.765,-11.65,-16.832001,-12.322,-9.6332,-8.5079,-9.6618,-13.462,-3.9553,-4.6761,-3.9024,-3.9744
-4.8025,-4.6984,-1.9512,-11.765,-8.7379,-11.845,-10.628,-8.7601,-6.8608,-11.765,-8.7379,-11.881,-0.94787,-1.0207,-2.7937,-2.8986,-4.8077,-4.9123,-3.7283,1.9512,0.83333
-9.5419,-6.6032,-7.8049,-5.8824,-3.8835,-10.874,-8.6957,-6.8277,-4.9191,-5.8824,-3.8835,-9.901,5.6872,1.8501,-6.6032,-4.8309,-6.7308,-4.9123,-5.624,2.9268,-2.0513
-9.5419,-9.4603,-12.683,-1.9608,0.0,-6.0194,-5.7971,-6.8277,-2.9773,-1.9608,0.0,-5.9406,6.6351,2.807,-9.4603,-10.628,-11.538,-2.9984,-3.7283,5.8537,-4.9359
-1.0111,-3.746,-4.878,-1.9608,0.0,-0.19417,0.0,-3.9291,-0.06472,-1.9608,0.0,0.0,4.7393,1.8501,-4.6984,-8.6957,-8.6538,0.82935,1.9589,5.8537,-3.9744
6.5719,5.7778,7.8049,-1.9608,2.9126,2.7184,4.8309,-2.963,3.8188,-1.9608,2.9126,5.9406,3.7915,2.807,1.0159,-0.96618,-1.9231,1.7863,4.8025,4.878,-1.0897
4.6761,4.8254,7.8049,1.9608,2.9126,0.7767,2.8986,-2.963,3.8188,1.9608,2.9126,2.9703,3.7915,3.764,1.9683,0.96618,1.9231,-3.9553,2.9068,0.97561,-2.0513
-3.8547,-1.8413,-3.9024,3.9216,1.9417,-2.1359,0.96618,-1.0306,-0.06472,3.9216,1.9417,0.0,3.7915,1.8501,0.06349,0.0,1.9231,-2.0415,-0.88468,-0.97561,-3.0128
-5.7504,0.06349,-6.8293,7.8431,5.8252,3.6893,5.7971,6.6989,1.877,7.8431,5.8252,4.9505,6.6351,0.89314,-2.7937,0.96618,1.9231,-0.12759,-0.88468,0.0,-3.0128
0.88468,5.7778,2.9268,10.784,7.767,11.456,10.628,12.496,0.90615,10.784,7.767,11.881,3.7915,1.8501,-2.7937,2.8986,1.9231,0.82935,-1.8325,-4.878,-2.0513
2.7804,7.6825,6.8293,6.8627,7.767,9.5146,8.6957,11.53,0.90615,6.8627,7.767,10.891,-5.6872,2.807,-3.746,1.9324,0.0,1.7863,-1.8325,-8.7805,-2.0513
-1.9589,3.873,0.97561,2.9412,7.767,1.7476,4.8309,5.7327,2.8479,2.9412,7.767,3.9604,-2.8436,3.764,-3.746,2.8986,0.96154,1.7863,1.0111,-7.8049,-0.12821
-1.9589,2.9206,-1.9512,3.9216,3.8835,-0.19417,5.7971,-0.06441,1.877,3.9216,3.8835,3.9604,1.8957,4.7209,1.0159,4.8309,4.8077,2.7432,1.9589,-0.97561,3.7179
-1.0111,0.06349,-3.9024,3.9216,0.97087,3.6893,3.8647,4.7665,-2.9773,3.9216,0.97087,4.9505,1.8957,2.807,1.9683,0.96618,2.8846,5.614,-0.88468,0.97561,1.7949
1.8325,-2.7937,-2.9268,2.9412,-0.97087,3.6893,0.0,8.6312,-7.8317,2.9412,-0.97087,1.9802,-1.8957,-2.9346,2.9206,-3.8647,0.0,8.4848,-4.6761,1.9512,-4.9359
7.5197,-3.746,2.9268,3.9216,-4.8544,2.7184,-2.8986,9.5974,-9.7735,3.9216,-4.8544,0.0,-5.6872,-5.8054,7.6825,-4.8309,0.96154,11.356,-7.5197,3.9024,-9.7436
4.6761,-6.6032,-3.9024,2.9412,-4.8544,2.7184,-5.7971,10.564,-9.7735,2.9412,-4.8544,-1.9802,-7.5829,-10.59,2.9206,-7.7295,-4.8077,10.399,-8.4676,2.9268,-13.59
-5.7504,-10.413,-15.61,0.98039,-8.7379,-2.1359,-8.6957,5.7327,-9.7735,0.98039,-8.7379,-6.9307,-4.7393,-9.6332,-6.6032,-9.6618,-10.577,3.7002,-4.6761,0.0,-9.7436
-11.438,-8.5079,-14.634,-4.902,-10.68,-3.1068,-7.7295,1.868,-9.7735,-4.902,-10.68,-7.9208,-4.7393,-6.7624,-13.27,-6.7633,-11.538,-2.9984,0.06319,-4.878,-3.0128
-7.6461,-2.7937,-3.9024,-4.902,-10.68,-1.165,-4.8309,-0.06441,-8.8026,-4.902,-10.68,-3.9604,-7.5829,-5.8054,-12.317,-1.9324,-8.6538,-4.9123,1.0111,-6.8293,-1.0897
-2.9068,-3.746,0.0,-4.902,-7.767,-1.165,-3.8647,1.868,-8.8026,-4.902,-7.767,-1.9802,-9.4787,-6.7624,-9.4603,-4.8309,-8.6538,-2.0415,-2.7804,-7.8049,-3.9744
-1.9589,-9.4603,-5.8537,-0.98039,-5.8252,-1.165,-7.7295,3.8003,-7.8317,-0.98039,-5.8252,-3.9604,-8.5308,-10.59,-10.413,-10.628,-12.5,-1.0845,-8.4676,-8.7805,-6.859
-4.8025,-10.413,-11.707,-0.98039,-9.7087,-1.165,-9.6618,3.8003,-9.7735,-0.98039,-9.7087,-6.9307,-8.5308,-7.7193,-12.317,-10.628,-14.423,-2.0415,-6.5719,-6.8293,-4.9359
-2.9068,-0.88889,-2.9268,0.98039,-4.8544,2.7184,-2.8986,7.6651,-3.9482,0.98039,-4.8544,-0.9901,-5.6872,-5.8054,-8.5079,-0.96618,-7.6923,-1.0845,1.0111,-4.878,-2.0513
1.8325,9.5873,8.7805,7.8431,3.8835,9.5146,8.6957,11.53,2.8479,7.8431,3.8835,9.901,-7.5829,-4.8485,-3.746,6.7633,-0.96154,-0.12759,4.8025,-7.8049,-0.12821
6.5719,8.6349,12.683,10.784,5.8252,12.427,9.6618,13.462,2.8479,10.784,5.8252,11.881,-8.5308,-4.8485,1.0159,7.7295,1.9231,1.7863,2.9068,-6.8293,-1.0897
6.5719,-2.7937,2.9268,1.9608,0.0,6.6019,0.0,7.6651,-2.9773,1.9608,0.0,1.9802,-2.8436,-2.9346,5.7778,2.8986,0.96154,4.6571,0.06319,-0.97561,-1.0897
2.7804,-11.365,-5.8537,-7.8431,-12.621,-1.165,-12.56,1.868,-10.744,-7.8431,-12.621,-10.891,1.8957,0.89314,7.6825,-0.96618,3.8462,4.6571,-4.6761,1.9512,-1.0897
4.6761,-8.5079,0.0,-12.745,-14.563,-5.0485,-14.493,1.868,-13.657,-12.745,-14.563,-12.871,10.427,7.5917,13.397,4.8309,12.5,6.571,-5.624,8.7805,1.7949
5.624,-5.6508,4.878,-8.8235,-11.65,-5.0485,-11.594,1.868,-11.715,-8.8235,-11.65,-11.881,9.4787,6.6348,15.302,5.7971,14.423,6.571,-6.5719,8.7805,1.7949
1.8325,-8.5079,0.0,-3.9216,-10.68,-8.932,-13.527,-0.06441,-11.715,-3.9216,-10.68,-13.861,1.8957,3.764,11.492,1.9324,8.6538,5.614,-5.624,6.8293,0.83333
-4.8025,-12.317,-9.7561,-7.8431,-12.621,-12.816,-15.459,-5.8615,-11.715,-7.8431,-12.621,-17.822001,7.5829,5.6778,6.7302,-0.96618,3.8462,2.7432,-4.6761,8.7805,0.83333
-12.385,-16.127001,-13.659,-8.8235,-13.592,-13.786,-15.459,-5.8615,-11.715,-8.8235,-13.592,-17.822001,7.5829,6.6348,-1.8413,-4.8309,0.0,-2.0415,-5.624,3.9024,-0.12821
-11.438,-12.317,-6.8293,-7.8431,-9.7087,-9.9029,-13.527,-2.963,-11.715,-7.8431,-9.7087,-11.881,9.4787,4.7209,-5.6508,-5.7971,0.0,-2.9984,-8.4676,1.9512,-3.9744
-3.8547,-2.7937,2.9268,-3.9216,-2.9126,-2.1359,-2.8986,-0.06441,-8.8026,-3.9216,-2.9126,-0.9901,4.7393,-1.0207,-4.6984,-3.8647,2.8846,-2.0415,-10.363,-1.9512,-8.7821
4.6761,4.8254,10.732,3.9216,3.8835,3.6893,4.8309,2.8341,-4.9191,3.9216,3.8835,6.9307,1.8957,-0.0638,1.9683,0.0,7.6923,-2.0415,-5.624,-0.97561,-6.859
6.5719,2.9206,9.7561,5.8824,0.97087,2.7184,0.96618,-0.06441,-3.9482,5.8824,0.97087,3.9604,5.6872,1.8501,3.873,0.96618,7.6923,-5.8692,-2.7804,1.9512,-2.0513
1.8325,-2.7937,4.878,0.0,-2.9126,-0.19417,-2.8986,-1.0306,-3.9482,0.0,-2.9126,-0.9901,3.7915,0.89314,0.06349,-1.9324,0.96154,-6.8262,-1.8325,-0.97561,-2.0513
1.8325,0.06349,6.8293,-1.9608,-3.8835,1.7476,-1.9324,-1.0306,-1.0356,-1.9608,-3.8835,0.9901,5.6872,2.807,-0.88889,0.96618,0.0,-5.8692,1.0111,-0.97561,1.7949
5.624,5.7778,10.732,1.9608,-2.9126,4.6602,2.8986,1.868,0.90615,1.9608,-2.9126,4.9505,5.6872,8.5486,2.9206,6.7633,3.8462,-2.0415,4.8025,1.9512,9.4872
4.6761,6.7302,8.7805,0.98039,-0.97087,1.7476,1.9324,-1.0306,0.90615,0.98039,-0.97087,3.9604,3.7915,9.5056,3.873,9.6618,5.7692,-2.0415,4.8025,3.9024,12.372
5.624,7.6825,8.7805,-2.9412,1.9417,0.7767,2.8986,-1.9968,1.877,-2.9412,1.9417,2.9703,7.5829,12.376,8.6349,13.527,12.5,-0.12759,2.9068,3.9024,11.41
5.624,4.8254,6.8293,-3.9216,0.0,-0.19417,0.96618,-1.0306,-0.06472,-3.9216,0.0,0.0,9.4787,9.5056,12.444,12.56,16.346001,2.7432,1.0111,5.8537,6.6026
-0.06319,-1.8413,0.0,-2.9412,-2.9126,-5.0485,-5.7971,-1.9968,-5.89,-2.9412,-2.9126,-7.9208,10.427,6.6348,9.5873,7.7295,10.577,2.7432,-1.8325,8.7805,3.7179
-4.8025,-6.6032,-6.8293,-7.8431,-8.7379,-9.9029,-10.628,-4.8953,-7.8317,-7.8431,-8.7379,-13.861,0.94787,2.807,1.0159,-1.9324,0.96154,0.82935,-5.624,3.9024,0.83333
-3.8547,-7.5556,-4.878,-5.8824,-5.8252,-6.0194,-7.7295,-3.9291,-5.89,-5.8824,-5.8252,-9.901,1.8957,4.7209,-1.8413,-8.6957,-3.8462,-0.12759,-7.5197,3.9024,-2.0513
-2.9068,-7.5556,-3.9024,-1.9608,-0.97087,-0.19417,-2.8986,-1.0306,-3.9482,-1.9608,-0.97087,-2.9703,0.0,-1.0207,-5.6508,-10.628,-7.6923,-1.0845,-9.4155,0.97561,-7.8205
-4.8025,-9.4603,-4.878,2.9412,0.97087,0.7767,-3.8647,-0.06441,-4.9191,2.9412,0.97087,-1.9802,-4.7393,-6.7624,-8.5079,-11.594,-6.7308,-2.9984,-10.363,-3.9024,-11.667
-4.8025,-6.6032,-5.8537,1.9608,0.97087,-0.19417,-3.8647,0.90177,-4.9191,1.9608,0.97087,-1.9802,-5.6872,-8.6762,-4.6984,-9.6618,-4.8077,-3.9553,-9.4155,-5.8537,-13.59
0.88468,1.0159,0.0,0.98039,2.9126,-1.165,0.0,0.90177,-1.0356,0.98039,2.9126,0.9901,-1.8957,-3.8915,1.9683,-2.8986,-0.96154,-2.9984,-9.4155,-0.97561,-8.7821
2.7804,4.8254,2.9268,2.9412,4.8544,-0.19417,2.8986,-0.06441,2.8479,2.9412,4.8544,1.9802,3.7915,3.764,3.873,2.8986,1.9231,-2.9984,-2.7804,2.9268,-0.12821
-2.9068,1.9683,-0.97561,0.0,0.97087,-2.1359,2.8986,-1.9968,3.8188,0.0,0.97087,0.0,6.6351,5.6778,-1.8413,5.7971,0.96154,-5.8692,2.9068,1.9512,4.6795
-5.7504,-3.746,-3.9024,-0.98039,0.97087,-2.1359,1.9324,-1.0306,1.877,-0.98039,0.97087,0.9901,0.0,0.89314,-6.6032,2.8986,-3.8462,-4.9123,5.7504,-1.9512,5.641
-3.8547,-3.746,-3.9024,-1.9608,1.9417,0.7767,3.8647,-1.0306,3.8188,-1.9608,1.9417,3.9604,-5.6872,-3.8915,-7.5556,-0.96618,-8.6538,-2.0415,6.6983,-3.9024,3.7179
3.7283,4.8254,0.97561,-1.9608,10.68,5.6311,11.594,0.90177,10.615,-1.9608,10.68,9.901,-7.5829,-3.8915,-4.6984,0.96618,-5.7692,-0.12759,10.49,-1.9512,5.641
4.6761,6.7302,0.0,4.902,7.767,4.6602,11.594,0.90177,11.586,4.902,7.767,8.9109,-6.6351,-2.9346,-2.7937,0.0,-3.8462,2.7432,9.5419,-1.9512,5.641
0.88468,0.06349,-7.8049,3.9216,3.8835,0.7767,6.7633,1.868,5.7605,3.9216,3.8835,2.9703,-4.7393,-3.8915,-0.88889,-4.8309,-5.7692,6.571,4.8025,0.97561,-0.12821
-3.8547,-4.6984,-10.732,0.98039,3.8835,-2.1359,1.9324,-0.06441,5.7605,0.98039,3.8835,-0.9901,-0.94787,-2.9346,-2.7937,-8.6957,-8.6538,4.6571,1.9589,3.9024,-3.9744
-3.8547,-1.8413,-4.878,0.0,3.8835,0.7767,5.7971,-1.0306,9.644,0.0,3.8835,2.9703,-8.5308,-7.7193,-7.5556,-6.7633,-10.577,1.7863,2.9068,-2.9268,-5.8974
-2.9068,1.9683,-0.97561,3.9216,7.767,5.6311,8.6957,1.868,11.586,3.9216,7.767,6.9307,-8.5308,-8.6762,-10.413,-4.8309,-10.577,1.7863,5.7504,-6.8293,-4.9359
-1.0111,1.9683,-2.9268,7.8431,8.7379,7.5728,5.7971,4.7665,8.6731,7.8431,8.7379,6.9307,-5.6872,-7.7193,-11.365,-4.8309,-11.538,1.7863,5.7504,-6.8293,-3.0128
-1.0111,2.9206,-4.878,2.9412,5.8252,4.6602,4.8309,1.868,6.7314,2.9412,5.8252,3.9604,-11.374,-11.547,-11.365,-4.8309,-13.462,-0.12759,3.8547,-8.7805,-5.8974
-5.7504,1.0159,-8.7805,2.9412,1.9417,-2.1359,2.8986,-1.9968,5.7605,2.9412,1.9417,-0.9901,-13.27,-10.59,-11.365,-5.7971,-14.423,-2.9984,2.9068,-9.7561,-5.8974
-6.6983,-3.746,-7.8049,-0.98039,1.9417,-6.9903,0.0,-3.9291,6.7314,-0.98039,1.9417,-4.9505,-8.5308,-1.0207,-6.6032,-3.8647,-6.7308,-4.9123,4.8025,-8.7805,0.83333
-4.8025,-5.6508,-6.8293,-3.9216,-1.9417,-6.9903,-3.8647,-4.8953,4.7896,-3.9216,-1.9417,-7.9208,0.94787,1.8501,-0.88889,-2.8986,-1.9231,-2.9984,3.8547,-3.9024,4.6795
-3.8547,-3.746,-7.8049,-4.902,-2.9126,-6.0194,-4.8309,-4.8953,2.8479,-4.902,-2.9126,-6.9307,-0.94787,-1.0207,-1.8413,-4.8309,-6.7308,0.82935,2.9068,-1.9512,3.7179
-4.8025,-0.88889,-9.7561,-6.8627,-4.8544,-8.932,-5.7971,-5.8615,2.8479,-6.8627,-4.8544,-8.9109,-6.6351,-1.9777,-4.6984,-3.8647,-9.6154,-1.0845,3.8547,-1.9512,3.7179
-9.5419,-3.746,-11.707,-10.784,-6.7961,-11.845,-6.7633,-8.7601,0.90615,-10.784,-6.7961,-13.861,-6.6351,-1.9777,-8.5079,-4.8309,-8.6538,-4.9123,-2.7804,-4.878,2.7564
-11.438,-1.8413,-7.8049,-6.8627,-4.8544,-10.874,-3.8647,-9.7262,1.877,-6.8627,-4.8544,-10.891,1.8957,1.8501,-6.6032,-2.8986,-4.8077,-5.8692,-0.88468,-0.97561,2.7564
-6.6983,1.9683,0.97561,-2.9412,-0.97087,-5.0485,1.9324,-4.8953,3.8188,-2.9412,-0.97087,-3.9604,6.6351,0.89314,0.06349,0.96618,0.0,-2.9984,4.8025,1.9512,1.7949
-0.06319,1.9683,3.9024,0.98039,2.9126,1.7476,1.9324,-0.06441,3.8188,0.98039,2.9126,1.9802,1.8957,-2.9346,1.9683,0.0,2.8846,0.82935,1.9589,1.9512,-1.0897
7.5197,2.9206,7.8049,6.8627,6.7961,8.5437,5.7971,2.8341,5.7605,6.8627,6.7961,7.9208,-2.8436,-1.0207,3.873,1.9324,6.7308,0.82935,2.9068,-2.9268,-1.0897
11.311,6.7302,13.659,13.725,8.7379,13.398,10.628,5.7327,6.7314,13.725,8.7379,12.871,3.7915,0.89314,6.7302,4.8309,9.6154,0.82935,1.9589,-0.97561,-1.0897
12.259,9.5873,14.634,9.8039,9.7087,12.427,9.6618,4.7665,5.7605,9.8039,9.7087,12.871,9.4787,3.764,10.54,6.7633,9.6154,1.7863,1.9589,5.8537,-0.12821
9.4155,8.6349,10.732,4.902,6.7961,7.5728,8.6957,0.90177,5.7605,4.902,6.7961,7.9208,13.27,7.5917,11.492,8.6957,10.577,1.7863,3.8547,8.7805,4.6795
5.624,8.6349,5.8537,2.9412,1.9417,4.6602,6.7633,-0.06441,4.7896,2.9412,1.9417,5.9406,7.5829,6.6348,5.7778,9.6618,7.6923,-1.0845,4.8025,3.9024,6.6026
2.7804,7.6825,4.878,1.9608,3.8835,3.6893,5.7971,-1.0306,3.8188,1.9608,3.8835,5.9406,-1.8957,-1.0207,-1.8413,5.7971,1.9231,-5.8692,2.9068,-4.878,3.7179
3.7283,10.54,9.7561,6.8627,11.65,5.6311,9.6618,0.90177,7.7023,6.8627,11.65,10.891,0.0,1.8501,0.06349,7.7295,3.8462,-8.74,3.8547,-4.878,4.6795
7.5197,13.397,12.683,11.765,12.621,9.5146,12.56,3.8003,8.6731,11.765,12.621,14.851,0.0,4.7209,2.9206,11.594,5.7692,-4.9123,4.8025,-2.9268,6.6026
9.4155,11.492,13.659,5.8824,7.767,7.5728,8.6957,1.868,3.8188,5.8824,7.767,11.881,5.6872,4.7209,6.7302,11.594,5.7692,0.82935,1.9589,1.9512,8.5256
6.5719,6.7302,12.683,1.9608,5.8252,2.7184,5.7971,-2.963,3.8188,1.9608,5.8252,6.9307,5.6872,4.7209,8.6349,9.6618,8.6538,2.7432,3.8547,3.9024,9.4872
0.88468,0.06349,7.8049,0.98039,0.0,-4.0777,0.96618,-5.8615,0.90615,0.98039,0.0,0.9901,4.7393,5.6778,4.8254,6.7633,10.577,-2.0415,1.9589,1.9512,8.5256
-1.0111,-1.8413,5.8537,-3.9216,-3.8835,-5.0485,-3.8647,-4.8953,-3.9482,-3.9216,-3.8835,-0.9901,5.6872,7.5917,1.9683,3.8647,8.6538,-4.9123,-0.88468,0.0,9.4872
4.6761,2.9206,10.732,-2.9412,-6.7961,0.7767,-2.8986,-3.9291,-6.8608,-2.9412,-6.7961,3.9604,4.7393,7.5917,6.7302,3.8647,10.577,-0.12759,-1.8325,2.9268,6.6026
13.207,9.5873,16.584999,-1.9608,-6.7961,5.6311,2.8986,-1.0306,-3.9482,-1.9608,-6.7961,8.9109,9.4787,7.5917,15.302,7.7295,13.462,6.571,0.06319,10.732,3.7179
12.259,11.492,13.659,0.0,1.9417,6.6019,6.7633,0.90177,4.7896,0.0,1.9417,8.9109,4.7393,3.764,12.444,10.628,10.577,6.571,4.8025,6.8293,1.7949
14.155,15.302,16.584999,-0.98039,6.7961,6.6019,11.594,-1.9968,13.528,-0.98039,6.7961,11.881,2.8436,4.7209,13.397,17.391001,12.5,5.614,10.49,5.8537,7.5641
10.363,15.302,15.61,-1.9608,0.97087,2.7184,9.6618,-5.8615,13.528,-1.9608,0.97087,9.901,3.7915,3.764,13.397,16.424999,9.6154,2.7432,10.49,7.8049,9.4872
1.8325,15.302,9.7561,-8.8235,-0.97087,-0.19417,8.6957,-7.7939,12.557,-8.8235,-0.97087,7.9208,0.94787,-1.0207,6.7302,12.56,1.9231,-2.0415,8.594,4.878,5.641
0.88468,11.492,6.8293,-14.706,-6.7961,-2.1359,6.7633,-8.7601,8.6731,-14.706,-6.7961,4.9505,0.0,-1.0207,3.873,10.628,1.9231,-4.9123,6.6983,0.97561,5.641
0.88468,3.873,0.0,-14.706,-8.7379,-4.0777,0.0,-11.659,9.644,-14.706,-8.7379,-1.9802,0.94787,1.8501,3.873,6.7633,4.8077,-3.9553,6.6983,0.0,4.6795
0.88468,-3.746,-1.9512,-12.745,-8.7379,-5.0485,-2.8986,-9.7262,8.6731,-12.745,-8.7379,-3.9604,2.8436,2.807,4.8254,0.0,4.8077,0.82935,5.7504,2.9268,2.7564
-0.06319,-2.7937,0.0,-8.8235,-3.8835,-4.0777,0.96618,-4.8953,8.6731,-8.8235,-3.8835,0.0,3.7915,0.89314,4.8254,-1.9324,2.8846,5.614,4.8025,4.878,0.83333
-1.0111,0.06349,0.97561,-7.8431,-3.8835,-2.1359,2.8986,-3.9291,5.7605,-7.8431,-3.8835,2.9703,1.8957,-0.0638,3.873,0.96618,3.8462,5.614,-0.88468,5.8537,0.83333
-6.6983,-4.6984,-3.9024,-11.765,-11.65,-5.0485,-5.7971,-5.8615,0.90615,-11.765,-11.65,-4.9505,-2.8436,-2.9346,-3.746,-0.96618,-0.96154,1.7863,1.0111,0.97561,-0.12821
-6.6983,-3.746,-5.8537,-9.8039,-6.7961,-7.9612,-4.8309,-8.7601,5.7605,-9.8039,-6.7961,-6.9307,-5.6872,-4.8485,-8.5079,-1.9324,-4.8077,-1.0845,6.6983,-6.8293,-0.12821
-4.8025,2.9206,-3.9024,-9.8039,-3.8835,-8.932,0.96618,-10.692,9.644,-9.8039,-3.8835,-3.9604,-2.8436,-2.9346,-7.5556,0.96618,-6.7308,-2.9984,8.594,-5.8537,2.7564
-9.5419,4.8254,-6.8293,-14.706,-7.767,-11.845,-0.96618,-12.625,5.7605,-14.706,-7.767,-6.9307,-2.8436,-1.0207,-9.4603,1.9324,-7.6923,-3.9553,8.594,-3.9024,3.7179
-8.594,6.7302,-4.878,-11.765,-6.7961,-10.874,-1.9324,-10.692,4.7896,-11.765,-6.7961,-7.9208,-1.8957,0.89314,-4.6984,4.8309,-2.8846,-2.0415,8.594,0.0,4.6795
-2.9068,2.9206,-1.9512,-9.8039,-10.68,-8.932,-3.8647,-9.7262,1.877,-9.8039,-10.68,-7.9208,2.8436,2.807,1.9683,3.8647,0.0,-0.12759,4.8025,2.9268,1.7949
0.88468,-4.6984,0.0,-7.8431,-12.621,-6.9903,-8.6957,-6.8277,-2.9773,-7.8431,-12.621,-8.9109,-1.8957,-2.9346,2.9206,-0.96618,-0.96154,-0.12759,-2.7804,1.9512,-3.9744
4.6761,-1.8413,6.8293,-3.9216,-5.8252,-0.19417,-5.7971,-1.9968,-1.0356,-3.9216,-5.8252,-1.9802,0.94787,-1.9777,4.8254,1.9324,3.8462,-0.12759,1.0111,1.9512,-2.0513
-1.9589,2.9206,1.9512,0.98039,-0.97087,0.7767,0.0,-0.06441,4.7896,0.98039,-0.97087,1.9802,-0.94787,-0.0638,-2.7937,1.9324,2.8846,-2.9984,4.8025,-4.878,0.83333
-8.594,-0.88889,-5.8537,-2.9412,-0.97087,-3.1068,1.9324,-2.963,5.7605,-2.9412,-0.97087,-0.9901,0.94787,0.89314,-8.5079,-4.8309,-0.96154,-2.9984,1.9589,-7.8049,-1.0897
-5.7504,-6.6032,-4.878,-4.902,-3.8835,-3.1068,-0.96618,-2.963,1.877,-4.902,-3.8835,-2.9703,0.94787,0.89314,-6.6032,-11.594,-2.8846,-2.0415,-3.7283,-4.878,-4.9359
0.88468,-7.5556,-1.9512,-2.9412,-1.9417,-0.19417,-3.8647,-0.06441,-0.06472,-2.9412,-1.9417,-2.9703,2.8436,0.89314,-2.7937,-9.6618,-1.9231,-0.12759,-4.6761,0.97561,-3.9744
-0.06319,-5.6508,-2.9268,0.98039,-3.8835,-0.19417,-5.7971,-0.06441,-2.9773,0.98039,-3.8835,-3.9604,-0.94787,1.8501,-4.6984,-6.7633,-4.8077,0.82935,-3.7283,-0.97561,-2.0513
-4.8025,-2.7937,-5.8537,0.98039,-2.9126,-2.1359,-5.7971,-0.06441,-2.9773,0.98039,-2.9126,-4.9505,-7.5829,-2.9346,-8.5079,-5.7971,-9.6154,-1.0845,-3.7283,-6.8293,-3.0128
-3.8547,-3.746,-4.878,0.0,-0.97087,-1.165,-5.7971,0.90177,-2.0065,0.0,-0.97087,-4.9505,-1.8957,-1.9777,-5.6508,-5.7971,-9.6154,1.7863,-3.7283,-0.97561,-3.0128
2.7804,-3.746,-0.97561,1.9608,-1.9417,1.7476,-2.8986,2.8341,-1.0356,1.9608,-1.9417,-2.9703,0.94787,-1.9777,1.0159,-0.96618,-3.8462,3.7002,-2.7804,1.9512,-2.0513
6.5719,-1.8413,3.9024,0.98039,-2.9126,3.6893,-2.8986,1.868,-2.0065,0.98039,-2.9126,-0.9901,-1.8957,-1.0207,4.8254,4.8309,2.8846,3.7002,-1.8325,1.9512,1.7949
4.6761,-1.8413,3.9024,0.0,-2.9126,1.7476,-2.8986,2.8341,-2.0065,0.0,-2.9126,-1.9802,-2.8436,-1.0207,5.7778,4.8309,3.8462,1.7863,-1.8325,3.9024,1.7949
-1.0111,-3.746,-1.9512,0.0,-1.9417,-2.1359,-1.9324,0.90177,-1.0356,0.0,-1.9417,-3.9604,0.0,-1.9777,5.7778,-1.9324,0.96154,3.7002,-1.8325,6.8293,-2.0513
-2.9068,-7.5556,-4.878,2.9412,0.0,-3.1068,-2.8986,-0.06441,-1.0356,2.9412,0.0,-4.9505,0.0,-1.0207,4.8254,-4.8309,1.9231,1.7863,-0.88468,5.8537,-2.0513
0.88468,-9.4603,-2.9268,3.9216,3.8835,-1.165,-2.8986,1.868,-0.06472,3.9216,3.8835,-2.9703,3.7915,0.89314,4.8254,-4.8309,3.8462,2.7432,0.06319,4.878,0.83333
-1.0111,-5.6508,-4.878,-0.98039,0.97087,-1.165,-0.96618,-0.06441,-2.0065,-0.98039,0.97087,0.0,0.0,0.89314,-0.88889,-3.8647,1.9231,1.7863,-1.8325,-1.9512,0.83333
-7.6461,-1.8413,-10.732,-3.9216,1.9417,-1.165,2.8986,-1.0306,0.90615,-3.9216,1.9417,1.9802,-7.5829,-1.9777,-10.413,-8.6957,-6.7308,-2.9984,-3.7283,-6.8293,-1.0897
-11.438,-3.746,-14.634,4.902,5.8252,-1.165,3.8647,-0.06441,3.8188,4.902,5.8252,0.9901,-5.6872,0.89314,-14.222,-10.628,-11.538,-3.9553,-0.88468,-8.7805,-2.0513
-7.6461,-2.7937,-7.8049,9.8039,6.7961,1.7476,2.8986,3.8003,1.877,9.8039,6.7961,2.9703,-2.8436,-3.8915,-12.317,-7.7295,-9.6154,-2.9984,0.06319,-7.8049,-3.9744
0.88468,4.8254,2.9268,6.8627,1.9417,5.6311,4.8309,3.8003,-0.06472,6.8627,1.9417,6.9307,1.8957,-6.7624,-6.6032,0.0,-4.8077,-0.12759,1.0111,-1.9512,-4.9359
4.6761,12.444,8.7805,0.98039,0.97087,5.6311,6.7633,2.8341,-1.0356,0.98039,0.97087,7.9208,6.6351,1.8501,-1.8413,8.6957,2.8846,1.7863,1.0111,0.0,-0.12821
1.8325,10.54,6.8293,0.0,1.9417,3.6893,4.8309,2.8341,0.90615,0.0,1.9417,4.9505,3.7915,6.6348,1.0159,11.594,8.6538,0.82935,1.9589,-1.9512,2.7564
-1.9589,2.9206,0.97561,2.9412,2.9126,0.7767,0.96618,2.8341,1.877,2.9412,2.9126,0.0,4.7393,5.6778,0.06349,8.6957,6.7308,-0.12759,2.9068,-1.9512,3.7179
-0.06319,-0.88889,2.9268,1.9608,1.9417,-0.19417,-0.96618,2.8341,0.90615,1.9608,1.9417,-1.9802,6.6351,6.6348,1.0159,5.7971,2.8846,0.82935,5.7504,1.9512,6.6026
7.5197,0.06349,7.8049,0.98039,-0.97087,0.7767,-1.9324,0.90177,-2.0065,0.98039,-0.97087,0.0,4.7393,1.8501,5.7778,3.8647,0.0,3.7002,3.8547,6.8293,6.6026
8.4676,1.0159,8.7805,0.0,-0.97087,1.7476,-0.96618,1.868,-2.9773,0.0,-0.97087,0.9901,-3.7915,-5.8054,5.7778,0.0,-2.8846,4.6571,-1.8325,1.9512,-1.0897
9.4155,3.873,8.7805,4.902,2.9126,7.5728,3.8647,5.7327,0.90615,4.902,2.9126,5.9406,-3.7915,-3.8915,8.6349,1.9324,0.96154,4.6571,-2.7804,0.97561,-3.9744
5.624,0.06349,2.9268,4.902,4.8544,7.5728,2.8986,6.6989,-0.06472,4.902,4.8544,4.9505,1.8957,0.89314,8.6349,2.8986,3.8462,3.7002,-0.88468,3.9024,-0.12821
-0.06319,-6.6032,-0.97561,4.902,0.0,0.7767,-3.8647,2.8341,-4.9191,4.902,0.0,0.0,3.7915,1.8501,5.7778,-0.96618,0.96154,2.7432,0.06319,7.8049,2.7564
1.8325,-3.746,3.9024,4.902,-0.97087,-0.19417,-2.8986,2.8341,-3.9482,4.902,-0.97087,1.9802,0.94787,0.89314,2.9206,-2.8986,-1.9231,2.7432,1.0111,4.878,1.7949
0.88468,2.9206,4.878,9.8039,3.8835,4.6602,3.8647,4.7665,1.877,9.8039,3.8835,6.9307,-0.94787,-1.0207,-3.746,-4.8309,-7.6923,1.7863,0.06319,-2.9268,-3.9744
-1.0111,3.873,0.97561,11.765,10.68,8.5437,10.628,7.6651,4.7896,11.765,10.68,10.891,-7.5829,-8.6762,-11.365,-11.594,-12.5,0.82935,-2.7804,-8.7805,-11.667
-1.0111,-1.8413,-3.9024,11.765,6.7961,9.5146,4.8309,9.5974,-0.06472,11.765,6.7961,8.9109,-7.5829,-10.59,-11.365,-13.527,-10.577,1.7863,-10.363,-6.8293,-12.628
-1.0111,-6.6032,-7.8049,5.8824,0.0,6.6019,-1.9324,8.6312,-5.89,5.8824,0.0,3.9604,-4.7393,-5.8054,-9.4603,-12.56,-7.6923,1.7863,-7.5197,-4.878,-8.7821
-2.9068,-4.6984,-10.732,1.9608,0.97087,4.6602,-1.9324,3.8003,-3.9482,1.9608,0.97087,0.0,-3.7915,-1.9777,-8.5079,-8.6957,-4.8077,-0.12759,0.06319,-2.9268,-4.9359
-4.8025,-1.8413,-12.683,4.902,2.9126,0.7767,-0.96618,1.868,-2.0065,4.902,2.9126,-1.9802,0.0,-1.0207,-8.5079,-3.8647,-3.8462,-0.12759,1.0111,1.9512,-2.0513
-5.7504,-1.8413,-11.707,-1.9608,0.0,-4.0777,-1.9324,-1.0306,-1.0356,-1.9608,0.0,-4.9505,0.94787,1.8501,-4.6984,0.96618,0.0,-0.12759,0.06319,4.878,0.83333
-3.8547,-3.746,-6.8293,-4.902,-1.9417,-8.932,-6.7633,-1.0306,-3.9482,-4.902,-1.9417,-7.9208,-1.8957,-0.0638,1.9683,4.8309,3.8462,0.82935,-1.8325,6.8293,1.7949
-0.06319,-5.6508,-0.97561,-2.9412,-5.8252,-8.932,-7.7295,-1.9968,-6.8608,-2.9412,-5.8252,-8.9109,0.0,1.8501,7.6825,5.7971,5.7692,2.7432,-0.88468,6.8293,5.641
4.6761,-3.746,1.9512,-0.98039,-0.97087,-5.0485,-5.7971,-1.9968,-2.0065,-0.98039,-0.97087,-6.9307,4.7393,5.6778,12.444,8.6957,8.6538,3.7002,2.9068,9.7561,8.5256
5.624,-1.8413,1.9512,2.9412,4.8544,-0.19417,-1.9324,-0.06441,3.8188,2.9412,4.8544,-2.9703,9.4787,5.6778,14.349,6.7633,8.6538,1.7863,2.9068,11.707,6.6026
2.7804,-3.746,-0.97561,1.9608,3.8835,-1.165,-0.96618,0.90177,1.877,1.9608,3.8835,-1.9802,4.7393,0.89314,9.5873,0.0,2.8846,-1.0845,-3.7283,3.9024,-1.0897
4.6761,-2.7937,3.9024,0.0,1.9417,-0.19417,0.0,2.8341,-1.0356,0.0,1.9417,0.9901,1.8957,-1.0207,7.6825,-1.9324,2.8846,-1.0845,-6.5719,0.97561,-6.859
11.311,3.873,15.61,6.8627,6.7961,5.6311,5.7971,5.7327,-1.0356,6.8627,6.7961,6.9307,1.8957,1.8501,10.54,1.9324,7.6923,-0.12759,-3.7283,-0.97561,-5.8974
11.311,6.7302,16.584999,9.8039,13.592,7.5728,8.6957,6.6989,2.8479,9.8039,13.592,8.9109,-0.94787,1.8501,7.6825,3.8647,6.7308,-2.9984,1.0111,-1.9512,-3.0128
5.624,2.9206,5.8537,13.725,13.592,7.5728,7.7295,6.6989,6.7314,13.725,13.592,7.9208,-3.7915,-1.0207,-0.88889,-0.96618,-0.96154,-2.0415,1.9589,-3.9024,-2.0513
0.88468,-0.88889,-1.9512,10.784,9.7087,8.5437,7.7295,5.7327,3.8188,10.784,9.7087,8.9109,-3.7915,-1.9777,-9.4603,-6.7633,-7.6923,-1.0845,-0.88468,-7.8049,-2.0513
1.8325,-1.8413,-0.97561,6.8627,3.8835,10.485,3.8647,6.6989,-2.0065,6.8627,3.8835,7.9208,-0.94787,0.89314,-10.413,-5.7971,-5.7692,-0.12759,-4.6761,-6.8293,-1.0897
-1.0111,-3.746,-0.97561,1.9608,-0.97087,2.7184,-2.8986,3.8003,-8.8026,1.9608,-0.97087,0.9901,-3.7915,0.89314,-6.6032,-0.96618,0.0,1.7863,-8.4676,-2.9268,-1.0897
-6.6983,-2.7937,-5.8537,0.0,-2.9126,-6.0194,-5.7971,-0.06441,-8.8026,0.0,-2.9126,-6.9307,0.0,2.807,-0.88889,3.8647,6.7308,1.7863,-9.4155,-0.97561,0.83333
-6.6983,-0.88889,-9.7561,0.98039,1.9417,-6.0194,-0.96618,-0.06441,-6.8608,0.98039,1.9417,-4.9505,5.6872,3.764,3.873,6.7633,10.577,2.7432,-6.5719,2.9268,1.7949
-2.9068,0.06349,-6.8293,-1.9608,0.0,-3.1068,-1.9324,-1.9968,-5.89,-1.9608,0.0,-3.9604,8.5308,2.807,6.7302,6.7633,9.6154,3.7002,-3.7283,7.8049,0.83333
1.8325,-2.7937,0.0,-4.902,-4.8544,-4.0777,-8.6957,-1.9968,-8.8026,-4.902,-4.8544,-6.9307,8.5308,3.764,7.6825,7.7295,7.6923,2.7432,1.0111,10.732,3.7179
-1.0111,-10.413,-0.97561,-7.8431,-8.7379,-8.932,-15.459,-4.8953,-8.8026,-7.8431,-8.7379,-13.861,7.5829,3.764,5.7778,3.8647,3.8462,-1.0845,-1.8325,10.732,3.7179
-2.9068,-12.317,-5.8537,-7.8431,-6.7961,-10.874,-12.56,-5.8615,-4.9191,-7.8431,-6.7961,-15.842,6.6351,4.7209,4.8254,0.0,1.9231,-2.0415,-2.7804,5.8537,0.83333
0.88468,-8.5079,-4.878,0.0,-0.97087,-5.0485,-5.7971,-0.06441,-3.9482,0.0,-0.97087,-7.9208,3.7915,2.807,7.6825,-3.8647,4.8077,-1.0845,-5.624,4.878,-4.9359
6.5719,-0.88889,3.9024,5.8824,5.8252,2.7184,1.9324,3.8003,-2.0065,5.8824,5.8252,2.9703,6.6351,6.6348,13.397,0.96618,11.538,2.7432,-5.624,7.8049,-2.0513
7.5197,0.06349,9.7561,2.9412,6.7961,5.6311,1.9324,5.7327,-4.9191,2.9412,6.7961,4.9505,7.5829,6.6348,11.492,1.9324,7.6923,3.7002,-5.624,6.8293,-0.12821
5.624,-4.6984,6.8293,2.9412,1.9417,5.6311,-2.8986,6.6989,-5.89,2.9412,1.9417,0.9901,1.8957,0.89314,3.873,-2.8986,-2.8846,3.7002,-6.5719,3.9024,-2.0513
2.7804,-4.6984,0.0,7.8431,3.8835,4.6602,-1.9324,7.6651,-1.0356,7.8431,3.8835,0.0,-3.7915,-2.9346,-3.746,-4.8309,-10.577,2.7432,-1.8325,0.0,-0.12821
0.88468,2.9206,-1.9512,12.745,4.8544,8.5437,2.8986,8.6312,1.877,12.745,4.8544,3.9604,-8.5308,-2.9346,-6.6032,-0.96618,-11.538,2.7432,5.7504,-2.9268,5.641
1.8325,12.444,1.9512,9.8039,6.7961,9.5146,10.628,5.7327,4.7896,9.8039,6.7961,9.901,0.0,2.807,-3.746,6.7633,-1.9231,2.7432,10.49,1.9512,11.41
6.5719,18.159,10.732,4.902,10.68,9.5146,15.459,4.7665,9.644,4.902,10.68,13.861,6.6351,9.5056,4.8254,16.424999,12.5,3.7002,14.281,3.9024,16.218
10.363,16.254,12.683,6.8627,6.7961,9.5146,14.493,6.6989,5.7605,6.8627,6.7961,12.871,4.7393,9.5056,7.6825,17.391001,19.231001,5.614,10.49,1.9512,14.295
0.88468,5.7778,-0.97561,6.8627,4.8544,6.6019,8.6957,4.7665,4.7896,6.8627,4.8544,5.9406,3.7915,4.7209,0.06349,5.7971,9.6154,2.7432,3.8547,-0.97561,5.641
-6.6983,1.0159,-11.707,0.98039,3.8835,0.7767,4.8309,0.90177,6.7314,0.98039,3.8835,-0.9901,-1.8957,-1.0207,-7.5556,-1.9324,-1.9231,-1.0845,1.9589,-3.9024,0.83333
-9.5419,1.0159,-10.732,-6.8627,-0.97087,-5.0485,1.9324,-4.8953,6.7314,-6.8627,-0.97087,-3.9604,-8.5308,-1.9777,-9.4603,-1.9324,-5.7692,-4.9123,4.8025,-5.8537,-0.12821
-6.6983,-0.88889,-4.878,-8.8235,0.0,-6.0194,0.96618,-8.7601,9.644,-8.8235,0.0,-4.9505,-4.7393,-1.0207,-4.6984,0.0,-4.8077,-5.8692,5.7504,-3.9024,-1.0897
-1.9589,-2.7937,-1.9512,-7.8431,-0.97087,-3.1068,0.0,-6.8277,8.6731,-7.8431,-0.97087,-1.9802,0.0,-3.8915,1.9683,-0.96618,-3.8462,-2.0415,1.9589,1.9512,-4.9359
-1.0111,-0.88889,-3.9024,-4.902,-0.97087,1.7476,3.8647,-2.963,5.7605,-4.902,-0.97087,2.9703,-5.6872,-11.547,-0.88889,-5.7971,-9.6154,-0.12759,-3.7283,-1.9512,-10.705
-0.06319,3.873,-1.9512,3.9216,6.7961,6.6019,8.6957,1.868,7.7023,3.9216,6.7961,7.9208,-6.6351,-8.6762,-3.746,-3.8647,-10.577,-1.0845,-0.88468,-4.878,-7.8205
1.8325,3.873,1.9512,-3.9216,1.9417,2.7184,2.8986,-1.9968,3.8188,-3.9216,1.9417,1.9802,0.94787,2.807,1.9683,5.7971,-2.8846,-0.12759,2.9068,0.97561,4.6795
2.7804,1.0159,3.9024,-9.8039,-5.8252,-3.1068,-4.8309,-3.9291,0.90615,-9.8039,-5.8252,-4.9505,7.5829,10.463,8.6349,10.628,4.8077,-1.0845,5.7504,4.878,13.333
1.8325,0.06349,-0.97561,-2.9412,-1.9417,-4.0777,-2.8986,-3.9291,5.7605,-2.9412,-1.9417,-4.9505,0.94787,5.6778,6.7302,7.7295,2.8846,-2.9984,11.438,0.97561,11.41
-0.06319,0.06349,-3.9024,0.98039,0.0,-1.165,0.96618,-1.0306,7.7023,0.98039,0.0,-0.9901,-4.7393,-1.9777,1.0159,0.0,-0.96154,-2.0415,9.5419,-2.9268,3.7179
-2.9068,-1.8413,-3.9024,0.0,-4.8544,-0.19417,-1.9324,-0.06441,1.877,0.0,-4.8544,-0.9901,-6.6351,-1.9777,-3.746,-4.8309,-3.8462,-1.0845,-2.7804,-3.9024,-1.0897
-3.8547,-3.746,-3.9024,0.0,-0.97087,-0.19417,-2.8986,-0.06441,-1.0356,0.0,-0.97087,-1.9802,-4.7393,-2.9346,-7.5556,-8.6957,-10.577,1.7863,-5.624,-2.9268,-4.9359
-3.8547,-9.4603,-7.8049,-5.8824,0.0,-0.19417,-4.8309,-0.06441,-2.0065,-5.8824,0.0,-4.9505,-5.6872,-8.6762,-11.365,-16.424999,-18.268999,1.7863,-6.5719,-3.9024,-11.667
-1.0111,-11.365,-7.8049,-1.9608,-0.97087,2.7184,-2.8986,2.8341,-2.0065,-1.9608,-0.97087,-2.9703,-4.7393,-12.504,-9.4603,-23.188,-19.231001,3.7002,-11.311,-1.9512,-19.358999
1.8325,-8.5079,-4.878,3.9216,0.0,2.7184,0.0,3.8003,-1.0356,3.9216,0.0,0.9901,-4.7393,-13.461,-7.5556,-25.121,-19.231001,1.7863,-13.207,-3.9024,-22.243999
-0.06319,-1.8413,-1.9512,1.9608,4.8544,0.7767,3.8647,1.868,3.8188,1.9608,4.8544,3.9604,-4.7393,-8.6762,-8.5079,-16.424999,-14.423,-1.0845,-7.5197,-6.8293,-14.551
-2.9068,4.8254,-0.97561,-0.98039,6.7961,-2.1359,7.7295,-1.0306,11.586,-0.98039,6.7961,2.9703,-3.7915,-1.0207,-8.5079,-3.8647,-5.7692,-5.8692,2.9068,-8.7805,-3.9744
-4.8025,4.8254,-0.97561,-3.9216,1.9417,-4.0777,4.8309,-3.9291,8.6731,-3.9216,1.9417,-0.9901,-4.7393,1.8501,-7.5556,3.8647,0.96154,-10.654,6.6983,-10.732,1.7949
-2.9068,1.0159,0.97561,-2.9412,-1.9417,-3.1068,-1.9324,-2.963,0.90615,-2.9412,-1.9417,-3.9604,0.0,7.5917,-1.8413,7.7295,7.6923,-8.74,5.7504,-7.8049,6.6026
-1.9589,-0.88889,0.97561,-5.8824,-1.9417,-3.1068,-4.8309,-2.963,-2.9773,-5.8824,-1.9417,-5.9406,5.6872,9.5056,3.873,8.6957,12.5,-4.9123,3.8547,-0.97561,9.4872
-4.8025,-0.88889,0.0,-6.8627,-5.8252,-5.0485,-4.8309,-5.8615,-2.9773,-6.8627,-5.8252,-4.9505,7.5829,9.5056,5.7778,7.7295,12.5,-4.9123,3.8547,0.97561,10.449
-4.8025,-0.88889,-0.97561,-0.98039,-1.9417,-5.0485,-2.8986,-4.8953,-0.06472,-0.98039,-1.9417,-3.9604,3.7915,7.5917,4.8254,5.7971,7.6923,-2.9984,3.8547,-1.9512,10.449
-2.9068,-5.6508,-3.9024,0.0,-0.97087,-6.0194,-3.8647,-1.9968,-0.06472,0.0,-0.97087,-6.9307,1.8957,2.807,1.9683,0.96618,0.96154,-0.12759,1.9589,-0.97561,7.5641
-6.6983,-12.317,-10.732,-6.8627,-6.7961,-10.874,-10.628,-4.8953,-2.0065,-6.8627,-6.7961,-13.861,-1.8957,-3.8915,-1.8413,-5.7971,-5.7692,1.7863,0.06319,0.97561,1.7949
-8.594,-12.317,-13.659,-7.8431,-4.8544,-11.845,-9.6618,-7.7939,-1.0356,-7.8431,-4.8544,-14.851,1.8957,-3.8915,-1.8413,-8.6957,-8.6538,2.7432,0.06319,4.878,-3.0128
-2.9068,-3.746,-4.878,2.9412,3.8835,-6.0194,0.96618,-1.9968,2.8479,2.9412,3.8835,-2.9703,7.5829,1.8501,1.9683,-6.7633,-5.7692,2.7432,0.06319,8.7805,-4.9359
-1.9589,-0.88889,-1.9512,2.9412,7.767,-2.1359,4.8309,-0.06441,1.877,2.9412,7.767,2.9703,-3.7915,-5.8054,-1.8413,-6.7633,-6.7308,0.82935,-4.6761,2.9268,-10.705
-1.0111,-0.88889,-1.9512,0.98039,3.8835,-0.19417,1.9324,-0.06441,-0.06472,0.98039,3.8835,1.9802,-4.7393,-5.8054,-1.8413,-4.8309,-4.8077,-2.0415,-6.5719,0.0,-10.705
1.8325,0.06349,0.97561,3.9216,1.9417,2.7184,0.0,2.8341,-2.0065,3.9216,1.9417,0.9901,4.7393,1.8501,1.0159,0.0,0.96154,-2.0415,-1.8325,0.97561,-2.0513
-1.0111,1.9683,2.9268,5.8824,-0.97087,3.6893,0.0,3.8003,-0.06472,5.8824,-0.97087,1.9802,0.94787,0.89314,-1.8413,1.9324,0.96154,-2.9984,-2.7804,-2.9268,-0.12821
-1.9589,3.873,5.8537,3.9216,-2.9126,3.6893,1.9324,2.8341,0.90615,3.9216,-2.9126,3.9604,-6.6351,-1.9777,-6.6032,0.0,-2.8846,-2.0415,-0.88468,-7.8049,-0.12821
-2.9068,0.06349,2.9268,0.98039,0.97087,1.7476,-0.96618,2.8341,1.877,0.98039,0.97087,1.9802,-6.6351,-3.8915,-9.4603,-2.8986,-5.7692,-0.12759,0.06319,-8.7805,-2.0513
-5.7504,-6.6032,-4.878,-1.9608,3.8835,-2.1359,-6.7633,0.90177,-2.0065,-1.9608,3.8835,-2.9703,-5.6872,-2.9346,-11.365,-5.7971,-5.7692,-2.0415,-1.8325,-8.7805,-3.0128
-7.6461,-11.365,-8.7805,2.9412,0.97087,-3.1068,-8.6957,0.90177,-4.9191,2.9412,0.97087,-6.9307,-4.7393,-2.9346,-10.413,-5.7971,-4.8077,-2.9984,-5.624,-7.8049,-3.9744
-3.8547,-10.413,-8.7805,3.9216,-0.97087,-3.1068,-5.7971,0.90177,-4.9191,3.9216,-0.97087,-5.9406,-3.7915,-4.8485,-6.6032,-6.7633,-5.7692,1.7863,-5.624,-2.9268,-5.8974
-3.8547,-8.5079,-8.7805,0.98039,-1.9417,-4.0777,-4.8309,0.90177,-2.9773,0.98039,-1.9417,-4.9505,-9.4787,-9.6332,-6.6032,-8.6957,-9.6154,-2.0415,-4.6761,-3.9024,-4.9359
-8.594,-6.6032,-12.683,-1.9608,-2.9126,-5.0485,-5.7971,-1.9968,-1.0356,-1.9608,-2.9126,-5.9406,-9.4787,-7.7193,-12.317,-8.6957,-12.5,-2.0415,-1.8325,-6.8293,-3.9744
-12.385,-6.6032,-13.659,-0.98039,-3.8835,-5.0485,-5.7971,-2.963,-1.0356,-0.98039,-3.8835,-5.9406,-8.5308,-6.7624,-18.032,-9.6618,-17.308001,-2.9984,-0.88468,-9.7561,-3.9744
-6.6983,-1.8413,-2.9268,1.9608,0.97087,-3.1068,-0.96618,-1.9968,-1.0356,1.9608,0.97087,0.0,-5.6872,-3.8915,-11.365,-5.7971,-12.5,-1.0845,-0.88468,-5.8537,-3.0128
1.8325,2.9206,8.7805,0.98039,3.8835,-0.19417,2.8986,-1.0306,-1.0356,0.98039,3.8835,4.9505,-1.8957,-1.0207,2.9206,1.9324,1.9231,-0.12759,-1.8325,0.97561,-1.0897
2.7804,4.8254,10.732,0.0,1.9417,-2.1359,1.9324,-2.963,-1.0356,0.0,1.9417,2.9703,2.8436,2.807,10.54,8.6957,11.538,-2.0415,2.9068,0.97561,3.7179
5.624,6.7302,10.732,-1.9608,-2.9126,-3.1068,0.0,-4.8953,-1.0356,-1.9608,-2.9126,1.9802,9.4787,6.6348,15.302,11.594,15.385,-1.0845,5.7504,6.8293,7.5641
9.4155,7.6825,13.659,0.98039,-3.8835,2.7184,0.96618,-0.06441,-0.06472,0.98039,-3.8835,4.9505,15.166,8.5486,16.254,9.6618,15.385,4.6571,2.9068,12.683,4.6795
12.259,5.7778,15.61,4.902,2.9126,7.5728,1.9324,4.7665,1.877,4.902,2.9126,7.9208,12.322,7.5917,16.254,7.7295,14.423,4.6571,1.9589,11.707,3.7179
10.363,1.9683,11.707,4.902,5.8252,5.6311,0.0,3.8003,0.90615,4.902,5.8252,5.9406,6.6351,7.5917,15.302,6.7633,14.423,4.6571,2.9068,8.7805,5.641
7.5197,4.8254,7.8049,4.902,4.8544,5.6311,3.8647,4.7665,2.8479,4.902,4.8544,6.9307,2.8436,6.6348,14.349,7.7295,15.385,3.7002,6.6983,7.8049,8.5256
4.6761,9.5873,6.8293,5.8824,4.8544,6.6019,7.7295,3.8003,6.7314,5.8824,4.8544,8.9109,0.0,3.764,6.7302,4.8309,8.6538,-0.12759,8.594,3.9024,5.641
0.88468,6.7302,3.9024,5.8824,3.8835,6.6019,5.7971,3.8003,2.8479,5.8824,3.8835,7.9208,-5.6872,-5.8054,-6.6032,-4.8309,-7.6923,-2.0415,3.8547,-1.9512,-4.9359
-1.0111,2.9206,0.0,5.8824,2.9126,5.6311,2.8986,5.7327,0.90615,5.8824,2.9126,5.9406,-5.6872,-6.7624,-12.317,-8.6957,-15.385,-2.0415,-0.88468,-6.8293,-7.8205
-3.8547,-3.746,-6.8293,1.9608,-2.9126,1.7476,-3.8647,1.868,-3.9482,1.9608,-2.9126,-0.9901,-7.5829,-4.8485,-14.222,-11.594,-15.385,-2.9984,-3.7283,-10.732,-6.859
-6.6983,-4.6984,-9.7561,0.98039,-6.7961,-1.165,-4.8309,-0.06441,-2.9773,0.98039,-6.7961,-3.9604,-3.7915,-3.8915,-12.317,-8.6957,-11.538,-5.8692,-5.624,-9.7561,-4.9359
-2.9068,-0.88889,-3.9024,0.0,-1.9417,-1.165,-1.9324,-1.9968,-2.9773,0.0,-1.9417,-1.9802,1.8957,-1.9777,-4.6984,-2.8986,-0.96154,-4.9123,-3.7283,-4.878,-2.0513
-0.06319,-0.88889,1.9512,-1.9608,-1.9417,-3.1068,-2.8986,-1.9968,-5.89,-1.9608,-1.9417,-1.9802,6.6351,5.6778,2.9206,2.8986,8.6538,-2.0415,-3.7283,1.9512,1.7949
0.88468,-1.8413,2.9268,-0.98039,-4.8544,-3.1068,-4.8309,-0.06441,-7.8317,-0.98039,-4.8544,-1.9802,6.6351,6.6348,5.7778,4.8309,10.577,0.82935,-4.6761,8.7805,1.7949
-3.8547,-3.746,-0.97561,-0.98039,-4.8544,-4.0777,-5.7971,-2.963,-5.89,-0.98039,-4.8544,-2.9703,1.8957,4.7209,1.9683,1.9324,5.7692,-1.0845,0.06319,5.8537,2.7564
-5.7504,-0.88889,-3.9024,-3.9216,-0.97087,-6.9903,-3.8647,-5.8615,-1.0356,-3.9216,-0.97087,-4.9505,0.94787,3.764,1.9683,3.8647,3.8462,-3.9553,3.8547,1.9512,4.6795
-0.06319,3.873,1.9512,-2.9412,1.9417,-5.0485,0.96618,-5.8615,1.877,-2.9412,1.9417,-0.9901,3.7915,1.8501,8.6349,5.7971,7.6923,-1.0845,4.8025,5.8537,4.6795
10.363,5.7778,13.659,3.9216,2.9126,3.6893,4.8309,-0.06441,1.877,3.9216,2.9126,5.9406,10.427,5.6778,18.159,6.7633,13.462,3.7002,2.9068,11.707,6.6026
10.363,3.873,16.584999,1.9608,1.9417,3.6893,1.9324,2.8341,-2.0065,1.9608,1.9417,4.9505,6.6351,4.7209,17.205999,7.7295,13.462,6.571,1.0111,11.707,5.641
0.88468,2.9206,7.8049,0.0,0.97087,-1.165,0.96618,-1.0306,-1.0356,0.0,0.97087,0.0,1.8957,2.807,6.7302,7.7295,5.7692,2.7432,1.9589,5.8537,6.6026
-1.9589,5.7778,0.97561,-4.902,-1.9417,-3.1068,1.9324,-1.9968,-1.0356,-4.902,-1.9417,-1.9802,2.8436,1.8501,-0.88889,6.7633,-0.96154,1.7863,2.9068,3.9024,6.6026
-0.06319,4.8254,0.97561,-0.98039,-0.97087,1.7476,0.0,0.90177,-0.06472,-0.98039,-0.97087,0.0,-2.8436,-1.9777,-4.6984,3.8647,-2.8846,2.7432,1.0111,1.9512,3.7179
-2.9068,-0.88889,-0.97561,-2.9412,0.97087,-0.19417,-3.8647,-0.06441,-2.9773,-2.9412,0.97087,-1.9802,-5.6872,-1.9777,-5.6508,1.9324,-0.96154,0.82935,-1.8325,-1.9512,0.83333
-7.6461,-7.5556,-2.9268,-0.98039,0.0,-6.0194,-6.7633,-3.9291,-5.89,-0.98039,0.0,-5.9406,-0.94787,3.764,-2.7937,0.96618,3.8462,-1.0845,-4.6761,-0.97561,0.83333
-3.8547,-4.6984,0.0,0.98039,1.9417,-6.0194,-1.9324,-2.963,-2.9773,0.98039,1.9417,-3.9604,1.8957,6.6348,2.9206,2.8986,8.6538,-3.9553,-1.8325,0.97561,3.7179
0.88468,-0.88889,0.97561,3.9216,0.97087,-4.0777,0.96618,-0.06441,-1.0356,3.9216,0.97087,-0.9901,0.94787,3.764,5.7778,1.9324,8.6538,-2.0415,1.0111,1.9512,3.7179
0.88468,1.0159,-1.9512,-0.98039,-1.9417,-3.1068,0.0,-1.9968,-2.0065,-0.98039,-1.9417,-1.9802,3.7915,2.807,3.873,0.96618,5.7692,-2.0415,1.9589,2.9268,3.7179
-3.8547,0.06349,-3.9024,-0.98039,-0.97087,-4.0777,-2.8986,-2.963,-1.0356,-0.98039,-0.97087,-3.9604,3.7915,2.807,-0.88889,2.8986,2.8846,-3.9553,3.8547,0.0,5.641
-4.8025,-1.8413,-4.878,0.98039,1.9417,-2.1359,-0.96618,-1.9968,-0.06472,0.98039,1.9417,-2.9703,1.8957,-0.0638,-1.8413,0.96618,-0.96154,-0.12759,1.0111,0.97561,3.7179
-2.9068,-1.8413,-4.878,-0.98039,0.0,-0.19417,0.0,-1.0306,-0.06472,-0.98039,0.0,-1.9802,9.4787,0.89314,1.0159,-3.8647,-2.8846,3.7002,0.06319,8.7805,-2.0513
2.7804,1.0159,-0.97561,-1.9608,-0.97087,1.7476,0.96618,1.868,-3.9482,-1.9608,-0.97087,0.0,-1.8957,-2.9346,1.9683,-4.8309,-4.8077,7.5279,-1.8325,8.7805,-5.8974
8.4676,4.8254,6.8293,0.98039,0.0,4.6602,3.8647,3.8003,-4.9191,0.98039,0.0,4.9505,-2.8436,-4.8485,4.8254,0.96618,-1.9231,9.4418,-3.7283,9.7561,-4.9359
2.7804,1.9683,3.9024,1.9608,0.0,2.7184,0.96618,0.90177,-2.0065,1.9608,0.0,1.9802,0.94787,-3.8915,1.0159,2.8986,-2.8846,4.6571,-1.8325,5.8537,0.83333
-3.8547,-4.6984,-3.9024,2.9412,0.0,-1.165,-3.8647,-1.0306,-1.0356,2.9412,0.0,-2.9703,1.8957,0.89314,-2.7937,0.96618,-2.8846,0.82935,0.06319,1.9512,3.7179
-1.9589,-4.6984,-3.9024,0.0,-2.9126,-1.165,-3.8647,0.90177,-3.9482,0.0,-2.9126,-2.9703,3.7915,4.7209,0.06349,-0.96618,-1.9231,1.7863,-0.88468,2.9268,2.7564
3.7283,3.873,1.9512,-0.98039,0.0,4.6602,2.8986,4.7665,-1.0356,-0.98039,0.0,3.9604,1.8957,1.8501,1.9683,0.0,-0.96154,3.7002,-0.88468,2.9268,-0.12821
7.5197,7.6825,4.878,2.9412,3.8835,6.6019,8.6957,4.7665,3.8188,2.9412,3.8835,7.9208,-2.8436,-1.9777,1.9683,1.9324,0.96154,2.7432,0.06319,0.0,-2.0513
1.8325,1.9683,-0.97561,3.9216,3.8835,3.6893,5.7971,1.868,1.877,3.9216,3.8835,2.9703,-0.94787,-1.9777,-1.8413,-0.96618,-0.96154,-0.12759,-0.88468,-2.9268,-2.0513
-2.9068,-3.746,-3.9024,6.8627,3.8835,1.7476,0.0,2.8341,-1.0356,6.8627,3.8835,0.9901,-1.8957,-2.9346,-3.746,-2.8986,-1.9231,-1.0845,-2.7804,-1.9512,-2.0513
-0.06319,0.06349,1.9512,6.8627,4.8544,3.6893,1.9324,4.7665,-2.0065,6.8627,4.8544,3.9604,0.0,-1.0207,-0.88889,0.96618,0.96154,1.7863,-1.8325,0.97561,0.83333
3.7283,4.8254,3.9024,4.902,4.8544,4.6602,4.8309,4.7665,0.90615,4.902,4.8544,5.9406,0.94787,-0.0638,1.0159,2.8986,1.9231,5.614,-0.88468,1.9512,1.7949
4.6761,-0.88889,-1.9512,4.902,3.8835,3.6893,1.9324,4.7665,-0.06472,4.902,3.8835,2.9703,-1.8957,-4.8485,1.0159,-5.7971,-3.8462,4.6571,-5.624,1.9512,-5.8974
1.8325,-10.413,-10.732,4.902,2.9126,0.7767,-2.8986,2.8341,-1.0356,4.902,2.9126,-2.9703,-4.7393,-6.7624,0.06349,-13.527,-5.7692,3.7002,-8.4676,1.9512,-9.7436
-2.9068,-12.317,-13.659,3.9216,2.9126,-1.165,-5.7971,0.90177,-0.06472,3.9216,2.9126,-7.9208,2.8436,-0.0638,0.06349,-11.594,-3.8462,1.7863,-6.5719,1.9512,-6.859
-3.8547,-3.746,-5.8537,4.902,4.8544,0.7767,0.96618,2.8341,2.8479,4.902,4.8544,-0.9901,5.6872,2.807,-0.88889,-3.8647,-0.96154,-0.12759,-0.88468,0.97561,-2.0513
2.7804,10.54,7.8049,9.8039,9.7087,8.5437,14.493,5.7327,7.7023,9.8039,9.7087,12.871,0.94787,0.89314,1.0159,5.7971,4.8077,-0.12759,5.7504,-2.9268,3.7179
10.363,17.205999,16.584999,13.725,13.592,13.398,19.323999,5.7327,10.615,13.725,13.592,19.802,2.8436,4.7209,6.7302,12.56,9.6154,2.7432,8.594,-1.9512,7.5641
12.259,14.349,16.584999,12.745,14.563,13.398,15.459,5.7327,11.586,12.745,14.563,16.832001,3.7915,3.764,11.492,14.493,13.462,3.7002,6.6983,-0.97561,5.641
10.363,10.54,9.7561,12.745,15.534,12.427,13.527,8.6312,10.615,12.745,15.534,13.861,4.7393,-0.0638,9.5873,12.56,11.538,2.7432,4.8025,-0.97561,2.7564
12.259,16.254,12.683,15.686,16.504999,16.311001,18.357,9.5974,14.498,15.686,16.504999,18.812,2.8436,-0.0638,8.6349,14.493,10.577,2.7432,10.49,0.97561,6.6026
16.051001,21.016001,15.61,14.706,16.504999,18.252001,21.256001,8.6312,16.440001,14.706,16.504999,21.782,0.0,0.89314,7.6825,15.459,9.6154,2.7432,14.281,0.97561,10.449
10.363,8.6349,2.9268,6.8627,11.65,13.398,9.6618,6.6989,11.586,6.8627,11.65,11.881,-4.7393,-1.9777,1.9683,6.7633,1.9231,1.7863,8.594,-0.97561,7.5641
5.624,-1.8413,-6.8293,3.9216,7.767,7.5728,0.96618,3.8003,7.7023,3.9216,7.767,2.9703,-5.6872,-0.0638,-2.7937,0.0,-2.8846,2.7432,4.8025,-0.97561,7.5641
2.7804,-5.6508,-7.8049,5.8824,2.9126,3.6893,-1.9324,2.8341,3.8188,5.8824,2.9126,0.9901,-3.7915,-2.9346,-2.7937,-3.8647,-6.7308,3.7002,-2.7804,0.97561,1.7949
1.8325,-7.5556,-7.8049,2.9412,-0.97087,0.7767,-1.9324,2.8341,-0.06472,2.9412,-0.97087,-0.9901,-2.8436,-2.9346,-0.88889,-8.6957,-6.7308,2.7432,-3.7283,0.0,-3.9744
0.88468,-6.6032,-4.878,2.9412,0.0,0.7767,-1.9324,2.8341,1.877,2.9412,0.0,0.0,-7.5829,-7.7193,-0.88889,-9.6618,-5.7692,2.7432,-2.7804,-2.9268,-7.8205
3.7283,-1.8413,0.0,5.8824,7.767,6.6019,3.8647,5.7327,7.7023,5.8824,7.767,6.9307,-5.6872,-7.7193,-0.88889,-3.8647,-0.96154,4.6571,-0.88468,-4.878,-7.8205
8.4676,4.8254,6.8293,12.745,11.65,12.427,9.6618,9.5974,10.615,12.745,11.65,12.871,-1.8957,-1.9777,3.873,7.7295,5.7692,7.5279,4.8025,-3.9024,-1.0897
9.4155,8.6349,9.7561,12.745,10.68,10.485,8.6957,10.564,10.615,12.745,10.68,10.891,3.7915,-1.0207,5.7778,9.6618,4.8077,5.614,7.6461,-0.97561,0.83333
3.7283,5.7778,4.878,8.8235,5.8252,3.6893,2.8986,6.6989,8.6731,8.8235,5.8252,2.9703,-3.7915,-6.7624,-0.88889,1.9324,-2.8846,2.7432,3.8547,-5.8537,-4.9359
1.8325,9.5873,3.9024,2.9412,10.68,1.7476,4.8309,4.7665,10.615,2.9412,10.68,3.9604,1.8957,-0.0638,-0.88889,5.7971,0.0,1.7863,5.7504,-0.97561,-1.0897
-0.06319,9.5873,1.9512,4.902,11.65,0.7767,6.7633,3.8003,10.615,4.902,11.65,4.9505,4.7393,6.6348,1.9683,11.594,7.6923,0.82935,5.7504,0.0,7.5641
0.88468,5.7778,0.97561,5.8824,9.7087,1.7476,9.6618,1.868,10.615,5.8824,9.7087,5.9406,1.8957,8.5486,1.0159,10.628,9.6154,-0.12759,6.6983,-2.9268,7.5641
4.6761,9.5873,6.8293,6.8627,10.68,5.6311,12.56,4.7665,12.557,6.8627,10.68,10.891,0.0,4.7209,-1.8413,7.7295,3.8462,-0.12759,6.6983,-4.878,3.7179
2.7804,9.5873,5.8537,7.8431,11.65,7.5728,10.628,6.6989,11.586,7.8431,11.65,10.891,-5.6872,-6.7624,-5.6508,0.96618,-6.7308,1.7863,5.7504,-6.8293,-3.9744
0.88468,5.7778,0.97561,8.8235,9.7087,4.6602,5.7971,6.6989,6.7314,8.8235,9.7087,5.9406,-6.6351,-11.547,-4.6984,-1.9324,-8.6538,2.7432,1.9589,-4.878,-6.859
0.88468,1.9683,1.9512,0.98039,4.8544,-3.1068,0.0,2.8341,3.8188,0.98039,4.8544,-0.9901,2.8436,-1.0207,5.7778,1.9324,2.8846,2.7432,1.9589,4.878,-0.12821
2.7804,-3.746,2.9268,-4.902,2.9126,-7.9612,-2.8986,-2.963,1.877,-4.902,2.9126,-5.9406,6.6351,3.764,11.492,2.8986,9.6154,0.82935,1.9589,8.7805,2.7564
1.8325,-3.746,0.97561,-2.9412,0.0,-6.0194,-1.9324,-3.9291,0.90615,-2.9412,0.0,-3.9604,6.6351,4.7209,5.7778,-0.96618,7.6923,0.82935,-0.88468,5.8537,-1.0897
2.7804,1.9683,2.9268,0.98039,2.9126,1.7476,2.8986,1.868,0.90615,0.98039,2.9126,2.9703,1.8957,3.764,-0.88889,0.96618,3.8462,3.7002,-1.8325,0.97561,-2.0513
3.7283,6.7302,3.9024,6.8627,3.8835,6.6019,5.7971,2.8341,1.877,6.8627,3.8835,6.9307,0.94787,0.89314,-0.88889,4.8309,3.8462,1.7863,-0.88468,-1.9512,-1.0897
1.8325,5.7778,3.9024,3.9216,2.9126,2.7184,3.8647,-0.06441,2.8479,3.9216,2.9126,3.9604,-1.8957,0.89314,2.9206,8.6957,7.6923,-3.9553,2.9068,0.0,3.7179
3.7283,4.8254,9.7561,-2.9412,2.9126,-1.165,0.0,-3.9291,3.8188,-2.9412,2.9126,-0.9901,0.0,6.6348,9.5873,15.459,12.5,-5.8692,7.6461,0.97561,12.372
10.363,8.6349,15.61,0.0,1.9417,0.7767,1.9324,-1.9968,2.8479,0.0,1.9417,2.9703,-0.94787,4.7209,11.492,16.424999,10.577,-2.9984,8.594,0.97561,13.333
10.363,10.54,11.707,1.9608,1.9417,4.6602,3.8647,1.868,3.8188,1.9608,1.9417,6.9307,0.94787,4.7209,10.54,11.594,5.7692,0.82935,2.9068,1.9512,10.449
1.8325,7.6825,2.9268,0.98039,2.9126,1.7476,4.8309,-0.06441,3.8188,0.98039,2.9126,5.9406,2.8436,3.764,4.8254,5.7971,2.8846,-1.0845,2.9068,0.97561,6.6026
-4.8025,1.9683,-0.97561,-0.98039,0.97087,-1.165,2.8986,0.90177,2.8479,-0.98039,0.97087,0.9901,3.7915,2.807,1.0159,0.96618,2.8846,-0.12759,3.8547,2.9268,2.7564
-3.8547,-9.4603,-0.97561,-4.902,-4.8544,-4.0777,-5.7971,-1.0306,-3.9482,-4.902,-4.8544,-6.9307,5.6872,2.807,1.9683,-4.8309,2.8846,1.7863,-2.7804,4.878,-1.0897
-2.9068,-20.889,-3.9024,-11.765,-13.592,-8.932,-17.391001,-3.9291,-13.657,-11.765,-13.592,-14.851,2.8436,0.89314,1.9683,-11.594,0.0,1.7863,-8.4676,5.8537,-4.9359
-2.9068,-18.032,-7.8049,-7.8431,-8.7379,-6.9903,-14.493,-2.963,-12.686,-7.8431,-8.7379,-10.891,-1.8957,-2.9346,-2.7937,-12.56,-5.7692,0.82935,-8.4676,3.9024,-5.8974
-5.7504,-3.746,-6.8293,-2.9412,-1.9417,-1.165,0.0,-1.0306,-2.9773,-2.9412,-1.9417,0.0,-0.94787,-2.9346,-9.4603,-9.6618,-11.538,-1.0845,-4.6761,0.0,-5.8974
-6.6983,7.6825,0.0,1.9608,1.9417,1.7476,9.6618,1.868,3.8188,1.9608,1.9417,4.9505,-4.7393,-4.8485,-11.365,-4.8309,-12.5,-3.9553,1.0111,-4.878,-3.0128
-3.8547,9.5873,4.878,-0.98039,1.9417,-0.19417,5.7971,-0.06441,3.8188,-0.98039,1.9417,1.9802,-11.374,-3.8915,-7.5556,4.8309,-5.7692,-4.9123,2.9068,-8.7805,2.7564
0.88468,4.8254,6.8293,-1.9608,-2.9126,-2.1359,-1.9324,-1.9968,-1.0356,-1.9608,-2.9126,-1.9802,-10.427,0.89314,0.06349,12.56,3.8462,-2.9984,4.8025,-6.8293,10.449
8.4676,3.873,6.8293,-2.9412,-5.8252,-0.19417,-2.8986,-1.9968,-4.9191,-2.9412,-5.8252,-0.9901,0.0,5.6778,7.6825,17.391001,11.538,-1.0845,6.6983,0.97561,17.179001
11.311,7.6825,9.7561,-4.902,-4.8544,2.7184,0.0,-2.963,-3.9482,-4.902,-4.8544,0.9901,7.5829,8.5486,14.349,18.357,14.423,-1.0845,6.6983,8.7805,16.218
5.624,9.5873,10.732,-2.9412,2.9126,1.7476,4.8309,-2.963,0.90615,-2.9412,2.9126,2.9703,12.322,10.463,13.397,12.56,11.538,-2.0415,4.8025,8.7805,10.449
-1.9589,1.0159,5.8537,-1.9608,0.0,-1.165,0.96618,-2.963,-2.9773,-1.9608,0.0,0.0,3.7915,3.764,6.7302,0.96618,1.9231,-3.9553,-0.88468,1.9512,0.83333
-3.8547,-8.5079,-0.97561,-3.9216,-6.7961,-3.1068,-5.7971,-2.963,-8.8026,-3.9216,-6.7961,-3.9604,0.94787,2.807,1.9683,-5.7971,-2.8846,-4.9123,-4.6761,2.9268,-1.0897
-3.8547,-10.413,-2.9268,-5.8824,-8.7379,-3.1068,-8.6957,-1.9968,-10.744,-5.8824,-8.7379,-5.9406,7.5829,4.7209,0.06349,-5.7971,-1.9231,1.7863,-5.624,7.8049,-0.12821
-0.06319,-6.6032,-0.97561,-3.9216,-3.8835,-1.165,-5.7971,-0.06441,-8.8026,-3.9216,-3.8835,-2.9703,11.374,5.6778,1.0159,-5.7971,0.0,6.571,-5.624,11.707,-1.0897
-0.06319,-9.4603,-4.878,0.98039,-2.9126,-0.19417,-6.7633,1.868,-7.8317,0.98039,-2.9126,-4.9505,6.6351,3.764,0.06349,-11.594,-2.8846,5.614,-13.207,8.7805,-4.9359
-0.06319,-12.317,-8.7805,3.9216,-2.9126,-1.165,-7.7295,1.868,-6.8608,3.9216,-2.9126,-6.9307,-0.94787,-0.0638,-1.8413,-15.459,-5.7692,4.6571,-11.311,2.9268,-8.7821
5.624,-4.6984,-4.878,9.8039,-1.9417,6.6019,1.9324,4.7665,-1.0356,9.8039,-1.9417,1.9802,-4.7393,-1.0207,1.0159,-11.594,-2.8846,3.7002,-3.7283,0.97561,-9.7436
8.4676,3.873,0.97561,4.902,2.9126,9.5146,7.7295,5.7327,1.877,4.902,2.9126,7.9208,2.8436,1.8501,4.8254,-1.9324,2.8846,6.571,-0.88468,4.878,-6.859
3.7283,5.7778,2.9268,-2.9412,0.97087,2.7184,1.9324,1.868,-3.9482,-2.9412,0.97087,1.9802,8.5308,7.5917,6.7302,7.7295,9.6154,3.7002,1.0111,6.8293,2.7564
-1.9589,0.06349,-1.9512,-2.9412,-2.9126,-2.1359,-3.8647,0.90177,-6.8608,-2.9412,-2.9126,-4.9505,2.8436,5.6778,4.8254,7.7295,8.6538,0.82935,-0.88468,0.0,5.641
-1.9589,-0.88889,-3.9024,0.98039,-0.97087,-0.19417,-1.9324,1.868,-4.9191,0.98039,-0.97087,-2.9703,-0.94787,-1.0207,2.9206,3.8647,4.8077,0.82935,-0.88468,-2.9268,2.7564
1.8325,3.873,-0.97561,4.902,2.9126,3.6893,4.8309,2.8341,0.90615,4.902,2.9126,3.9604,1.8957,1.8501,5.7778,5.7971,5.7692,1.7863,2.9068,0.0,4.6795
1.8325,8.6349,-1.9512,0.98039,0.97087,2.7184,7.7295,-1.0306,0.90615,0.98039,0.97087,4.9505,2.8436,4.7209,5.7778,8.6957,6.7308,2.7432,4.8025,2.9268,8.5256
0.88468,8.6349,0.97561,-0.98039,-4.8544,-0.19417,4.8309,-1.9968,-2.0065,-0.98039,-4.8544,1.9802,2.8436,6.6348,4.8254,9.6618,5.7692,2.7432,3.8547,4.878,9.4872
-0.06319,0.06349,1.9512,-2.9412,-2.9126,-1.165,0.0,-0.06441,-2.9773,-2.9412,-2.9126,-2.9703,0.94787,2.807,1.9683,3.8647,0.96154,3.7002,-0.88468,6.8293,4.6795
-1.0111,-8.5079,-1.9512,2.9412,1.9417,1.7476,-1.9324,2.8341,-1.0356,2.9412,1.9417,-2.9703,4.7393,-1.9777,-0.88889,-5.7971,-4.8077,2.7432,-4.6761,3.9024,-3.9744
0.88468,-11.365,-4.878,7.8431,0.97087,4.6602,0.96618,6.6989,-0.06472,7.8431,0.97087,0.0,6.6351,-1.9777,-0.88889,-16.424999,-6.7308,5.614,-5.624,0.97561,-11.667
-0.06319,-6.6032,-6.8293,5.8824,0.0,3.6893,3.8647,3.8003,-0.06472,5.8824,0.0,1.9802,2.8436,-4.8485,-2.7937,-19.323999,-8.6538,2.7432,-4.6761,0.97561,-15.513
-1.9589,0.06349,-7.8049,4.902,5.8252,4.6602,6.7633,1.868,2.8479,4.902,5.8252,4.9505,-8.5308,-11.547,-10.413,-20.290001,-14.423,-2.9984,-1.8325,-4.878,-16.474001
-4.8025,1.9683,-6.8293,5.8824,9.7087,4.6602,7.7295,0.90177,4.7896,5.8824,9.7087,5.9406,-11.374,-10.59,-15.175,-18.357,-15.385,-5.8692,-0.88468,-10.732,-15.513
-8.594,-1.8413,-7.8049,5.8824,7.767,0.7767,4.8309,-1.0306,4.7896,5.8824,7.767,1.9802,-6.6351,-5.8054,-18.032,-12.56,-11.538,-7.7831,-2.7804,-12.683,-11.667
-9.5419,-7.5556,-8.7805,5.8824,2.9126,-1.165,-1.9324,-0.06441,0.90615,5.8824,2.9126,-2.9703,-7.5829,-2.9346,-16.127001,-6.7633,-5.7692,-9.697,-6.5719,-12.683,-4.9359
-3.8547,-6.6032,-4.878,5.8824,2.9126,1.7476,-0.96618,0.90177,0.90615,5.8824,2.9126,-1.9802,0.0,4.7209,-6.6032,1.9324,2.8846,-7.7831,1.0111,-3.9024,5.641
-5.7504,-2.7937,-5.8537,4.902,2.9126,-0.19417,0.96618,-1.0306,2.8479,4.902,2.9126,-0.9901,3.7915,7.5917,-2.7937,6.7633,5.7692,-8.74,6.6983,-1.9512,10.449
-5.7504,1.9683,-4.878,8.8235,5.8252,-2.1359,3.8647,-1.9968,3.8188,8.8235,5.8252,0.9901,0.94787,7.5917,-1.8413,8.6957,4.8077,-6.8262,6.6983,-2.9268,10.449
-4.8025,4.8254,-1.9512,3.9216,5.8252,-2.1359,3.8647,-2.963,3.8188,3.9216,5.8252,1.9802,7.5829,11.419,-1.8413,10.628,2.8846,-5.8692,5.7504,0.0,11.41
-1.9589,4.8254,2.9268,-2.9412,-1.9417,-3.1068,-0.96618,-3.9291,-2.0065,-2.9412,-1.9417,0.0,11.374,14.29,0.06349,9.6618,3.8462,-4.9123,2.9068,1.9512,11.41
-3.8547,2.9206,2.9268,-7.8431,-7.767,-6.0194,-2.8986,-7.7939,-5.89,-7.8431,-7.767,-0.9901,1.8957,3.764,0.06349,3.8647,0.96154,-5.8692,-2.7804,-0.97561,3.7179
-6.6983,0.06349,-0.97561,-4.902,-6.7961,-8.932,-1.9324,-6.8277,-2.0065,-4.902,-6.7961,-2.9703,-1.8957,-6.7624,0.06349,-4.8309,-3.8462,-4.9123,-3.7283,-0.97561,-5.8974
-4.8025,-0.88889,-0.97561,-0.98039,-2.9126,-7.9612,0.96618,-5.8615,1.877,-0.98039,-2.9126,-2.9703,3.7915,-3.8915,1.0159,-7.7295,-3.8462,-2.0415,-0.88468,2.9268,-6.859
-0.06319,1.0159,3.9024,0.98039,0.97087,-4.0777,2.8986,-2.963,4.7896,0.98039,0.97087,0.9901,3.7915,-0.0638,1.0159,-6.7633,-1.9231,-1.0845,1.9589,0.0,-6.859
6.5719,2.9206,8.7805,-1.9608,4.8544,3.6893,6.7633,-1.0306,4.7896,-1.9608,4.8544,7.9208,-3.7915,-2.9346,0.06349,-7.7295,-2.8846,-1.0845,1.9589,-2.9268,-6.859
8.4676,3.873,9.7561,2.9412,8.7379,7.5728,9.6618,2.8341,8.6731,2.9412,8.7379,11.881,-5.6872,-5.8054,0.06349,-5.7971,-3.8462,-1.0845,2.9068,-1.9512,-8.7821
6.5719,3.873,7.8049,8.8235,6.7961,6.6019,8.6957,2.8341,6.7314,8.8235,6.7961,11.881,2.8436,-1.9777,1.0159,-3.8647,0.0,-3.9553,1.9589,2.9268,-7.8205
5.624,4.8254,6.8293,7.8431,1.9417,5.6311,4.8309,-1.0306,2.8479,7.8431,1.9417,8.9109,3.7915,3.764,2.9206,1.9324,5.7692,-2.0415,1.0111,0.97561,-2.0513
3.7283,4.8254,3.9024,1.9608,-0.97087,0.7767,0.96618,-2.963,1.877,1.9608,-0.97087,3.9604,3.7915,4.7209,1.9683,5.7971,6.7308,0.82935,5.7504,-0.97561,3.7179
0.88468,3.873,2.9268,1.9608,-2.9126,-1.165,0.96618,-2.963,2.8479,1.9608,-2.9126,0.0,0.0,4.7209,-0.88889,7.7295,5.7692,1.7863,9.5419,-3.9024,8.5256
-0.06319,1.9683,0.97561,0.98039,-1.9417,-2.1359,-1.9324,-0.06441,2.8479,0.98039,-1.9417,-2.9703,0.0,4.7209,-1.8413,8.6957,3.8462,2.7432,8.594,-4.878,8.5256
-2.9068,-1.8413,-1.9512,0.98039,-2.9126,-3.1068,-5.7971,0.90177,-2.0065,0.98039,-2.9126,-6.9307,0.94787,1.8501,0.06349,5.7971,1.9231,1.7863,2.9068,0.97561,6.6026
-4.8025,-4.6984,-2.9268,-0.98039,-7.767,-3.1068,-10.628,0.90177,-8.8026,-0.98039,-7.767,-7.9208,2.8436,0.89314,0.06349,2.8986,1.9231,2.7432,-2.7804,1.9512,3.7179
-4.8025,-6.6032,-2.9268,-0.98039,-8.7379,-2.1359,-9.6618,-0.06441,-10.744,-0.98039,-8.7379,-5.9406,-1.8957,-1.0207,-2.7937,-2.8986,-3.8462,2.7432,-6.5719,0.0,-2.0513
-5.7504,-8.5079,-4.878,-2.9412,-6.7961,-4.0777,-8.6957,-2.963,-7.8317,-2.9412,-6.7961,-6.9307,0.0,-1.9777,-5.6508,-9.6618,-8.6538,1.7863,-7.5197,0.97561,-5.8974
-5.7504,-12.317,-7.8049,-7.8431,-8.7379,-9.9029,-11.594,-4.8953,-9.7735,-7.8431,-8.7379,-10.891,-0.94787,-1.9777,-6.6032,-14.493,-12.5,1.7863,-11.311,0.0,-8.7821
-2.9068,-14.222,-7.8049,-6.8627,-10.68,-9.9029,-12.56,-3.9291,-10.744,-6.8627,-10.68,-11.881,-5.6872,-8.6762,-4.6984,-18.357,-14.423,2.7432,-15.103,1.9512,-15.513
0.88468,-13.27,-7.8049,-6.8627,-8.7379,-6.0194,-9.6618,-1.0306,-7.8317,-6.8627,-8.7379,-7.9208,2.8436,-8.6762,-1.8413,-16.424999,-12.5,5.614,-12.259,6.8293,-14.551
-2.9068,-9.4603,-9.7561,-9.8039,-10.68,-5.0485,-8.6957,-3.9291,-5.89,-9.8039,-10.68,-5.9406,1.8957,-5.8054,-4.6984,-13.527,-10.577,2.7432,-7.5197,2.9268,-11.667
-9.5419,-7.5556,-10.732,-11.765,-11.65,-6.9903,-5.7971,-4.8953,-3.9482,-11.765,-11.65,-5.9406,-10.427,-8.6762,-11.365,-12.56,-11.538,-2.9984,-6.5719,-6.8293,-11.667
-11.438,-3.746,-5.8537,-10.784,-9.7087,-6.0194,-4.8309,-4.8953,-2.0065,-10.784,-9.7087,-3.9604,-4.7393,-5.8054,-10.413,-7.7295,-7.6923,-2.0415,-6.5719,-5.8537,-9.7436
-9.5419,-2.7937,-0.97561,-8.8235,-4.8544,-6.9903,-4.8309,-7.7939,-1.0356,-8.8235,-4.8544,-4.9505,1.8957,-0.0638,-3.746,-1.9324,0.96154,-2.0415,-1.8325,-1.9512,-3.0128
-8.594,-3.746,0.0,-9.8039,-5.8252,-10.874,-7.7295,-10.692,-2.9773,-9.8039,-5.8252,-8.9109,3.7915,4.7209,1.0159,3.8647,6.7308,-6.8262,2.9068,-2.9268,3.7179
-7.6461,-2.7937,-0.97561,-13.725,-5.8252,-11.845,-6.7633,-13.591,-3.9482,-13.725,-5.8252,-8.9109,6.6351,6.6348,-0.88889,3.8647,4.8077,-7.7831,1.9589,-0.97561,3.7179
-4.8025,0.06349,-0.97561,-10.784,-4.8544,-10.874,-4.8309,-11.659,-1.0356,-10.784,-4.8544,-6.9307,2.8436,2.807,-2.7937,0.96618,0.0,-8.74,1.0111,0.97561,0.83333
-2.9068,3.873,0.97561,-9.8039,-1.9417,-7.9612,-1.9324,-8.7601,2.8479,-9.8039,-1.9417,-3.9604,5.6872,7.5917,1.0159,3.8647,2.8846,-4.9123,3.8547,5.8537,5.641
-3.8547,-3.746,-1.9512,-11.765,-8.7379,-9.9029,-5.7971,-8.7601,-3.9482,-11.765,-8.7379,-6.9307,7.5829,10.463,1.9683,1.9324,4.8077,-1.0845,-0.88468,4.878,8.5256
-1.9589,-6.6032,-0.97561,-11.765,-8.7379,-9.9029,-6.7633,-8.7601,-6.8608,-11.765,-8.7379,-7.9208,4.7393,8.5486,3.873,2.8986,7.6923,-1.0845,-2.7804,-0.97561,5.641
-1.0111,-5.6508,1.9512,-8.8235,-5.8252,-6.9903,-5.7971,-6.8277,-6.8608,-8.8235,-5.8252,-6.9307,3.7915,6.6348,4.8254,3.8647,9.6154,-0.12759,-4.6761,-2.9268,2.7564
-1.0111,-3.746,0.0,-7.8431,-8.7379,-5.0485,-8.6957,-3.9291,-10.744,-7.8431,-8.7379,-6.9307,9.4787,11.419,6.7302,5.7971,9.6154,1.7863,-5.624,1.9512,5.641
-3.8547,-0.88889,-2.9268,-8.8235,-5.8252,-5.0485,-6.7633,-3.9291,-6.8608,-8.8235,-5.8252,-6.9307,6.6351,9.5056,3.873,4.8309,6.7308,-0.12759,-1.8325,0.0,7.5641
-9.5419,-0.88889,-6.8293,-6.8627,-3.8835,-7.9612,-5.7971,-5.8615,-2.0065,-6.8627,-3.8835,-6.9307,2.8436,6.6348,-0.88889,1.9324,0.0,-2.0415,1.9589,-2.9268,7.5641
-11.438,-3.746,-5.8537,-4.902,-1.9417,-7.9612,-2.8986,-5.8615,1.877,-4.902,-1.9417,-5.9406,0.0,1.8501,-3.746,-0.96618,-4.8077,-4.9123,4.8025,-1.9512,4.6795
-8.594,-4.6984,-2.9268,-5.8824,-0.97087,-6.0194,-2.8986,-5.8615,0.90615,-5.8824,-0.97087,-3.9604,0.0,-0.0638,-4.6984,-1.9324,-4.8077,-7.7831,3.8547,0.0,3.7179
-8.594,-6.6032,-7.8049,-8.8235,-5.8252,-7.9612,-6.7633,-8.7601,-3.9482,-8.8235,-5.8252,-5.9406,1.8957,-0.0638,-8.5079,-3.8647,-6.7308,-10.654,0.06319,-3.9024,1.7949
-12.385,-7.5556,-15.61,-11.765,-7.767,-12.816,-9.6618,-12.625,-2.9773,-11.765,-7.767,-10.891,-4.7393,-4.8485,-12.317,-6.7633,-13.462,-12.568,0.06319,-6.8293,-3.0128
-11.438,-7.5556,-14.634,-14.706,-7.767,-14.757,-9.6618,-13.591,-1.0356,-14.706,-7.767,-12.871,-10.427,-8.6762,-11.365,-7.7295,-14.423,-10.654,0.06319,-6.8293,-6.859
-5.7504,-5.6508,-3.9024,-10.784,-3.8835,-9.9029,-5.7971,-10.692,-0.06472,-10.784,-3.8835,-7.9208,-7.5829,-7.7193,-3.746,-1.9324,-6.7308,-4.9123,1.0111,-0.97561,-4.9359
3.7283,-2.7937,6.8293,-3.9216,1.9417,-0.19417,0.0,-4.8953,-0.06472,-3.9216,1.9417,0.9901,2.8436,-1.9777,5.7778,0.96618,3.8462,0.82935,0.06319,7.8049,-2.0513
7.5197,-1.8413,3.9024,-1.9608,-0.97087,1.7476,0.96618,-1.9968,-2.0065,-1.9608,-0.97087,2.9703,6.6351,0.89314,10.54,0.0,4.8077,4.6571,-2.7804,12.683,-2.0513
3.7283,0.06349,-2.9268,-8.8235,-3.8835,-3.1068,-0.96618,-3.9291,-3.9482,-8.8235,-3.8835,-1.9802,-0.94787,-1.0207,4.8254,0.96618,-0.96154,2.7432,-1.8325,5.8537,-1.0897
-2.9068,2.9206,-3.9024,-8.8235,-4.8544,-3.1068,-0.96618,-1.0306,-3.9482,-8.8235,-4.8544,-1.9802,-6.6351,-3.8915,-5.6508,1.9324,-6.7308,-0.12759,-0.88468,-7.8049,1.7949
-2.9068,3.873,1.9512,-3.9216,-0.97087,2.7184,2.8986,2.8341,-2.0065,-3.9216,-0.97087,3.9604,-7.5829,-2.9346,-8.5079,2.8986,-7.6923,2.7432,-2.7804,-10.732,2.7564
1.8325,1.0159,3.9024,0.98039,0.0,5.6311,3.8647,5.7327,-1.0356,0.98039,0.0,6.9307,-1.8957,-1.0207,-4.6984,-1.9324,-5.7692,5.614,-3.7283,-5.8537,-1.0897
1.8325,-1.8413,0.0,1.9608,-1.9417,2.7184,0.96618,4.7665,-0.06472,1.9608,-1.9417,2.9703,-1.8957,-3.8915,-0.88889,-4.8309,-2.8846,5.614,-1.8325,-3.9024,-5.8974
-1.9589,-3.746,-6.8293,-6.8627,-4.8544,-2.1359,-3.8647,-0.06441,-0.06472,-6.8627,-4.8544,-2.9703,-5.6872,-1.9777,-1.8413,-4.8309,-1.9231,3.7002,1.0111,-4.878,-3.9744
-4.8025,-5.6508,-9.7561,-9.8039,-4.8544,-5.0485,-6.7633,-1.0306,-0.06472,-9.8039,-4.8544,-5.9406,-3.7915,-4.8485,-1.8413,-6.7633,-5.7692,2.7432,-0.88468,0.0,-3.9744
-3.8547,-8.5079,-8.7805,-8.8235,-6.7961,-6.0194,-9.6618,-0.06441,-3.9482,-8.8235,-6.7961,-8.9109,-5.6872,-10.59,-3.746,-9.6618,-10.577,3.7002,-3.7283,0.97561,-7.8205
-3.8547,-12.317,-6.8293,-7.8431,-11.65,-6.0194,-13.527,0.90177,-6.8608,-7.8431,-11.65,-10.891,-7.5829,-11.547,-5.6508,-11.594,-12.5,3.7002,-7.5197,-0.97561,-10.705
-1.9589,-12.317,-5.8537,-7.8431,-8.7379,-2.1359,-8.6957,1.868,-5.89,-7.8431,-8.7379,-6.9307,-8.5308,-11.547,-8.5079,-11.594,-14.423,3.7002,-7.5197,-1.9512,-8.7821
-4.8025,-10.413,-8.7805,-6.8627,-7.767,-0.19417,-5.7971,2.8341,-3.9482,-6.8627,-7.767,-3.9604,-9.4787,-10.59,-13.27,-13.527,-17.308001,1.7863,-6.5719,-5.8537,-5.8974
-10.49,-12.317,-15.61,-5.8824,-8.7379,-3.1068,-6.7633,-0.06441,-6.8608,-5.8824,-8.7379,-5.9406,-2.8436,-7.7193,-13.27,-16.424999,-19.231001,-1.0845,-6.5719,-1.9512,-6.859
-8.594,-10.413,-15.61,-3.9216,-7.767,-4.0777,-6.7633,-0.06441,-7.8317,-3.9216,-7.767,-6.9307,-9.4787,-8.6762,-13.27,-17.391001,-20.191999,-2.9984,-7.5197,-2.9268,-9.7436
-1.9589,-1.8413,-4.878,-0.98039,-2.9126,-0.19417,-1.9324,-0.06441,-3.9482,-0.98039,-2.9126,-0.9901,-18.009001,-11.547,-10.413,-10.628,-17.308001,-2.0415,-4.6761,-6.8293,-10.705
2.7804,8.6349,6.8293,0.98039,0.0,2.7184,3.8647,-0.06441,1.877,0.98039,0.0,3.9604,-12.322,-11.547,-5.6508,1.9324,-7.6923,-1.0845,0.06319,-7.8049,-5.8974
4.6761,13.397,8.7805,-2.9412,0.0,1.7476,5.7971,0.90177,3.8188,-2.9412,0.0,2.9703,0.0,-1.9777,4.8254,12.56,5.7692,1.7863,5.7504,0.0,4.6795
4.6761,10.54,6.8293,-6.8627,-3.8835,-1.165,1.9324,0.90177,0.90615,-6.8627,-3.8835,-0.9901,12.322,10.463,12.444,16.424999,14.423,5.614,6.6983,9.7561,11.41
13.207,14.349,16.584999,-1.9608,1.9417,5.6311,8.6957,4.7665,3.8188,-1.9608,1.9417,6.9307,13.27,13.333,17.205999,23.188,20.191999,9.4418,8.594,12.683,14.295
19.841999,17.205999,25.365999,2.9412,0.0,13.398,11.594,8.6312,2.8479,2.9412,0.0,13.861,9.4787,8.5486,18.159,23.188,20.191999,11.356,7.6461,12.683,11.41
17.945999,15.302,24.389999,0.0,-3.8835,10.485,5.7971,6.6989,-0.06472,0.0,-3.8835,9.901,6.6351,8.5486,17.205999,21.256001,16.346001,10.399,6.6983,10.732,9.4872
13.207,14.349,19.511999,-3.9216,-1.9417,3.6893,3.8647,1.868,3.8188,-3.9216,-1.9417,3.9604,3.7915,3.764,17.205999,22.222,14.423,5.614,9.5419,7.8049,8.5256
8.4676,9.5873,14.634,-2.9412,-0.97087,-0.19417,0.96618,0.90177,4.7896,-2.9412,-0.97087,0.0,11.374,5.6778,16.254,21.256001,14.423,3.7002,9.5419,10.732,9.4872
3.7283,1.0159,7.8049,-2.9412,0.0,-2.1359,-2.8986,-0.06441,1.877,-2.9412,0.0,-2.9703,6.6351,6.6348,8.6349,11.594,8.6538,2.7432,5.7504,5.8537,8.5256
-1.0111,-0.88889,4.878,2.9412,0.0,2.7184,0.96618,1.868,2.8479,2.9412,0.0,1.9802,-7.5829,-1.0207,0.06349,2.8986,0.96154,-1.0845,2.9068,-1.9512,2.7564
0.88468,5.7778,4.878,8.8235,4.8544,7.5728,7.7295,4.7665,6.7314,8.8235,4.8544,8.9109,-8.5308,-1.0207,-2.7937,2.8986,-0.96154,-3.9553,4.8025,-4.878,1.7949
1.8325,8.6349,2.9268,8.8235,6.7961,6.6019,9.6618,1.868,8.6731,8.8235,6.7961,8.9109,-0.94787,0.89314,-0.88889,1.9324,0.0,-1.0845,5.7504,-0.97561,2.7564
2.7804,4.8254,-0.97561,0.0,5.8252,3.6893,5.7971,-1.9968,3.8188,0.0,5.8252,5.9406,0.94787,0.89314,0.06349,-3.8647,-2.8846,0.82935,4.8025,1.9512,-0.12821
9.4155,5.7778,4.878,0.98039,4.8544,6.6019,5.7971,-0.06441,3.8188,0.98039,4.8544,8.9109,1.8957,1.8501,2.9206,-2.8986,-0.96154,2.7432,6.6983,0.97561,2.7564
12.259,9.5873,9.7561,4.902,4.8544,10.485,9.6618,2.8341,6.7314,4.902,4.8544,12.871,1.8957,1.8501,3.873,0.0,-0.96154,4.6571,7.6461,0.97561,4.6795
8.4676,7.6825,7.8049,1.9608,1.9417,6.6019,6.7633,0.90177,4.7896,1.9608,1.9417,8.9109,-2.8436,1.8501,1.9683,2.8986,-1.9231,1.7863,6.6983,-1.9512,4.6795
4.6761,2.9206,3.9024,-4.902,-2.9126,-0.19417,-0.96618,-1.9968,-1.0356,-4.902,-2.9126,0.0,-9.4787,-1.9777,1.0159,3.8647,0.0,-2.0415,1.0111,-5.8537,1.7949
4.6761,3.873,3.9024,-3.9216,-2.9126,-1.165,-0.96618,-1.0306,-0.06472,-3.9216,-2.9126,-2.9703,-0.94787,-1.0207,6.7302,8.6957,4.8077,-1.0845,2.9068,-0.97561,1.7949
9.4155,6.7302,8.7805,-1.9608,1.9417,2.7184,3.8647,-0.06441,2.8479,-1.9608,1.9417,1.9802,5.6872,3.764,15.302,15.459,12.5,4.6571,6.6983,5.8537,8.5256
11.311,7.6825,15.61,1.9608,2.9126,5.6311,4.8309,1.868,1.877,1.9608,2.9126,5.9406,11.374,12.376,20.063,21.256001,21.153999,6.571,5.7504,10.732,13.333
14.155,11.492,19.511999,3.9216,6.7961,8.5437,7.7295,4.7665,3.8188,3.9216,6.7961,9.901,15.166,15.247,22.921,24.155001,25.0,6.571,6.6983,11.707,13.333
16.051001,13.397,18.537001,6.8627,8.7379,10.485,9.6618,6.6989,5.7605,6.8627,8.7379,10.891,8.5308,9.5056,19.111,21.256001,20.191999,4.6571,8.594,6.8293,8.5256
16.051001,13.397,14.634,3.9216,6.7961,13.398,9.6618,6.6989,4.7896,3.9216,6.7961,10.891,0.94787,1.8501,13.397,16.424999,11.538,5.614,6.6983,4.878,7.5641
7.5197,5.7778,2.9268,2.9412,3.8835,9.5146,3.8647,8.6312,0.90615,2.9412,3.8835,5.9406,-3.7915,-3.8915,2.9206,7.7295,0.96154,2.7432,1.9589,-0.97561,3.7179
-3.8547,-8.5079,-7.8049,8.8235,-1.9417,2.7184,-6.7633,10.564,-5.89,8.8235,-1.9417,-4.9505,-4.7393,-5.8054,-5.6508,-4.8309,-7.6923,-0.12759,-4.6761,-4.878,-3.9744
-5.7504,-19.937,-13.659,8.8235,-1.9417,1.7476,-10.628,12.496,-8.8026,8.8235,-1.9417,-7.9208,-5.6872,-9.6332,-9.4603,-17.391001,-14.423,0.82935,-9.4155,-5.8537,-12.628
-7.6461,-25.650999,-20.488001,9.8039,-0.97087,2.7184,-9.6618,13.462,-10.744,9.8039,-0.97087,-6.9307,-8.5308,-13.461,-16.127001,-28.986,-21.153999,0.82935,-14.155,-10.732,-17.436001
-10.49,-18.032,-21.462999,4.902,-0.97087,0.7767,-5.7971,10.564,-8.8026,4.902,-0.97087,-3.9604,-10.427,-10.59,-19.937,-26.087,-22.115,-1.0845,-10.363,-14.634,-12.628
-11.438,-9.4603,-19.511999,-2.9412,-6.7961,-3.1068,-5.7971,4.7665,-9.7735,-2.9412,-6.7961,-4.9505,-9.4787,-9.6332,-18.983999,-21.256001,-21.153999,-2.0415,-6.5719,-11.707,-8.7821
-12.385,-9.4603,-20.488001,-1.9608,-8.7379,-4.0777,-6.7633,3.8003,-9.7735,-1.9608,-8.7379,-7.9208,-8.5308,-11.547,-17.079,-20.290001,-21.153999,-2.0415,-8.4676,-7.8049,-11.667
-9.5419,-8.5079,-18.537001,2.9412,-2.9126,-4.0777,-5.7971,3.8003,-5.89,2.9412,-2.9126,-7.9208,-7.5829,-10.59,-12.317,-14.493,-17.308001,-2.0415,-6.5719,-5.8537,-10.705
-6.6983,-5.6508,-12.683,0.98039,0.97087,-6.0194,-4.8309,0.90177,-2.9773,0.98039,0.97087,-8.9109,-5.6872,-3.8915,-7.5556,-3.8647,-8.6538,-2.9984,-2.7804,-4.878,-3.0128
-6.6983,-0.88889,-7.8049,-5.8824,-4.8544,-8.932,-5.7971,-3.9291,-2.9773,-5.8824,-4.8544,-11.881,2.8436,6.6348,-1.8413,6.7633,1.9231,-2.9984,2.9068,-0.97561,8.5256
-7.6461,-3.746,-6.8293,-7.8431,-14.563,-9.9029,-11.594,-1.0306,-9.7735,-7.8431,-14.563,-15.842,4.7393,5.6778,1.0159,6.7633,5.7692,-2.9984,-0.88468,1.9512,6.6026
-6.6983,-8.5079,-7.8049,-0.98039,-9.7087,-6.0194,-12.56,1.868,-10.744,-0.98039,-9.7087,-12.871,0.94787,-1.9777,-0.88889,-1.9324,1.9231,-2.0415,-7.5197,1.9512,-3.9744
-0.06319,-5.6508,-2.9268,4.902,3.8835,1.7476,-2.8986,4.7665,-2.0065,4.902,3.8835,-2.9703,-2.8436,-2.9346,-0.88889,-1.9324,0.0,1.7863,-3.7283,-1.9512,-5.8974
7.5197,-0.88889,7.8049,5.8824,4.8544,6.6019,2.8986,8.6312,-1.0356,5.8824,4.8544,5.9406,-5.6872,-4.8485,1.0159,0.0,0.96154,6.571,-1.8325,-2.9268,-4.9359
10.363,0.06349,12.683,5.8824,-0.97087,6.6019,0.0,6.6989,-4.9191,5.8824,-0.97087,5.9406,-2.8436,-4.8485,2.9206,-1.9324,-0.96154,5.614,-3.7283,-1.9512,-5.8974
4.6761,-3.746,5.8537,3.9216,-4.8544,2.7184,-3.8647,3.8003,-6.8608,3.9216,-4.8544,1.9802,-5.6872,-10.59,-1.8413,-10.628,-11.538,3.7002,-6.5719,-3.9024,-12.628
-0.06319,-4.6984,-0.97561,5.8824,0.97087,1.7476,-1.9324,4.7665,-4.9191,5.8824,0.97087,0.0,-9.4787,-12.504,-5.6508,-12.56,-14.423,2.7432,-7.5197,-4.878,-14.551
-0.06319,-1.8413,-1.9512,6.8627,2.9126,0.7767,1.9324,3.8003,-2.0065,6.8627,2.9126,0.0,-0.94787,-4.8485,-0.88889,-5.7971,-4.8077,3.7002,-6.5719,0.97561,-6.859
2.7804,1.0159,0.97561,4.902,0.97087,-0.19417,1.9324,3.8003,-2.9773,4.902,0.97087,0.9901,4.7393,1.8501,1.0159,-1.9324,0.96154,4.6571,-4.6761,4.878,-1.0897
1.8325,2.9206,1.9512,4.902,0.0,1.7476,1.9324,5.7327,-3.9482,4.902,0.0,2.9703,1.8957,1.8501,-2.7937,-2.8986,-0.96154,2.7432,-1.8325,0.0,-1.0897
-1.0111,1.0159,0.0,2.9412,0.97087,3.6893,0.96618,3.8003,-2.0065,2.9412,0.97087,3.9604,-7.5829,0.89314,-7.5556,-4.8309,-4.8077,-2.0415,-4.6761,-7.8049,-0.12821
-1.9589,-0.88889,-2.9268,0.98039,3.8835,1.7476,1.9324,2.8341,-0.06472,0.98039,3.8835,0.9901,-5.6872,2.807,-6.6032,-0.96618,-2.8846,-2.0415,-2.7804,-7.8049,0.83333
0.88468,1.9683,-0.97561,6.8627,3.8835,1.7476,3.8647,4.7665,5.7605,6.8627,3.8835,1.9802,4.7393,7.5917,1.0159,7.7295,5.7692,-2.9984,4.8025,-2.9268,5.641
3.7283,5.7778,3.9024,2.9412,2.9126,3.6893,4.8309,2.8341,6.7314,2.9412,2.9126,4.9505,8.5308,7.5917,7.6825,11.594,11.538,-3.9553,6.6983,1.9512,7.5641
5.624,7.6825,8.7805,0.0,0.97087,4.6602,4.8309,-0.06441,7.7023,0.0,0.97087,5.9406,12.322,7.5917,13.397,11.594,15.385,-2.0415,6.6983,6.8293,6.6026
2.7804,6.7302,8.7805,-1.9608,1.9417,0.7767,3.8647,-3.9291,6.7314,-1.9608,1.9417,2.9703,14.218,8.5486,13.397,11.594,18.268999,-1.0845,4.8025,8.7805,7.5641
-3.8547,1.0159,1.9512,-0.98039,-0.97087,-4.0777,0.0,-3.9291,2.8479,-0.98039,-0.97087,-2.9703,8.5308,9.5056,5.7778,7.7295,12.5,-4.9123,2.9068,3.9024,7.5641
-6.6983,-2.7937,-1.9512,0.0,-0.97087,-6.0194,-2.8986,-3.9291,-0.06472,0.0,-0.97087,-4.9505,-3.7915,1.8501,-0.88889,1.9324,2.8846,-6.8262,1.9589,-0.97561,3.7179
-2.9068,1.0159,2.9268,1.9608,0.0,-1.165,0.0,-2.963,0.90615,1.9608,0.0,0.9901,-6.6351,-1.9777,-3.746,-0.96618,-2.8846,-4.9123,1.0111,-3.9024,-1.0897
0.88468,6.7302,7.8049,-0.98039,1.9417,-0.19417,4.8309,-3.9291,4.7896,-0.98039,1.9417,4.9505,-5.6872,-3.8915,-3.746,0.0,-4.8077,-4.9123,1.9589,-8.7805,-3.0128
2.7804,9.5873,8.7805,0.0,4.8544,0.7767,8.6957,-4.8953,8.6731,0.0,4.8544,5.9406,-3.7915,-1.0207,0.06349,0.96618,-2.8846,-4.9123,4.8025,-6.8293,0.83333
3.7283,5.7778,5.8537,0.0,1.9417,-0.19417,4.8309,-3.9291,3.8188,0.0,1.9417,2.9703,4.7393,2.807,5.7778,2.8986,1.9231,-3.9553,3.8547,0.97561,3.7179
1.8325,-2.7937,2.9268,-0.98039,-2.9126,-2.1359,-1.9324,-3.9291,-2.0065,-0.98039,-2.9126,-2.9703,4.7393,1.8501,6.7302,1.9324,2.8846,-3.9553,0.06319,3.9024,1.7949
-0.06319,-7.5556,-0.97561,3.9216,-2.9126,0.7767,-2.8986,-1.9968,-0.06472,3.9216,-2.9126,-1.9802,0.94787,-1.9777,2.9206,-1.9324,-0.96154,-2.9984,-0.88468,3.9024,-0.12821
