C3,C4,Cz,F1,F2,F3,F4,F7,F8,Fp1,Fp2,Fz,O1,O2,P3,P4,Pz,T3,T4,T5,T6
21.891001,21.039,22.753,11.823,12.557,20.764,21.32,10.719,10.152,11.823,12.557,21.674999,23.253,23.711,21.0,24.686001,26.865999,25.059,9.626,17.691,21.698999
16.915001,18.023001,18.773001,10.837,10.615,16.597,18.274,8.7582,9.1371,10.837,10.615,18.719,24.219,25.681,20.0,22.705999,24.875999,7.9732,6.6992,18.667,20.719
13.93,15.008,15.788,12.808,11.586,15.556,15.228,8.7582,7.1066,12.808,11.586,15.764,24.219,28.636999,18.0,21.716,21.891001,9.9832,6.6992,19.642,20.719
10.945,11.993,13.798,12.808,12.557,14.514,14.213,2.8758,5.0761,12.808,12.557,16.749001,22.287001,28.636999,13.0,19.736,17.91,5.9631,3.7724,8.9106,16.797001
8.9552,9.9832,14.793,10.837,11.586,14.514,14.213,-2.0261,3.0457,10.837,11.586,17.733999,15.523,21.740999,7.0,15.776,12.935,-10.117,-0.13008,-2.7967,12.876
12.935,10.988,17.778,10.837,11.586,17.639,14.213,0.91503,5.0761,10.837,11.586,19.704,12.625,15.829,9.0,13.795,10.945,-1.072,-0.13008,4.0325,11.895
10.945,7.9732,14.793,7.8818,6.7314,13.472,13.198,4.8366,7.1066,7.8818,6.7314,15.764,11.659,10.903,8.0,9.835,5.9701,12.998,0.84553,5.0081,8.9542
7.9602,6.9682,12.803,0.98522,1.877,8.2639,11.168,0.91503,6.0914,0.98522,1.877,11.823,8.7601,9.9179,5.0,6.8647,2.9851,11.993,-0.13008,4.0325,8.9542
13.93,11.993,16.783001,3.9409,4.7896,10.347,12.183,3.8562,10.152,3.9409,4.7896,13.793,13.591,15.829,11.0,13.795,9.9502,6.9682,8.6504,11.837,18.757999
13.93,11.993,15.788,2.9557,4.7896,8.2639,9.1371,1.8954,7.1066,2.9557,4.7896,11.823,14.557,13.859,12.0,13.795,11.94,8.9782,7.6748,12.813,17.778
11.94,11.993,15.788,0.0,1.877,5.1389,7.1066,-0.06536,3.0457,0.0,1.877,9.8522,13.591,9.9179,12.0,11.815,11.94,8.9782,3.7724,12.813,9.9346
10.945,11.993,14.793,0.0,1.877,3.0556,6.0914,-1.0458,3.0457,0.0,1.877,8.867,13.591,9.9179,12.0,12.805,10.945,-0.067,9.626,15.74,11.895
8.9552,10.988,13.798,0.0,2.8479,2.0139,5.0761,-2.0261,4.0609,0.0,2.8479,6.8966,13.591,8.9327,11.0,10.825,7.9602,4.9581,5.7236,12.813,7.9739
7.9602,9.9832,10.813,0.98522,3.8188,2.0139,7.1066,-0.06536,5.0761,0.98522,3.8188,6.8966,13.591,6.9622,13.0,8.8449,4.9751,9.9832,4.748,16.715,5.0327
8.9552,9.9832,9.8176,0.0,2.8479,3.0556,7.1066,0.91503,6.0914,0.0,2.8479,5.9113,13.591,6.9622,13.0,8.8449,2.9851,16.013,7.6748,15.74,7.9739
7.9602,10.988,7.8275,-1.9704,-1.0356,3.0556,6.0914,0.91503,3.0457,-1.9704,-1.0356,4.9261,13.591,6.9622,11.0,7.8548,1.99,16.013,4.748,12.813,6.9935
6.9652,11.993,8.8226,0.0,-0.06472,5.1389,6.0914,3.8562,7.1066,0.0,-0.06472,6.8966,13.591,7.9475,10.0,8.8449,0.99502,9.9832,8.6504,12.813,12.876
7.9602,16.013,10.813,4.9261,4.7896,11.389,12.183,6.7974,14.213,4.9261,4.7896,12.808,15.523,15.829,11.0,15.776,5.9701,5.9631,14.504,15.74,22.68
2.9851,14.003,7.8275,4.9261,5.7605,10.347,14.213,4.8366,16.243999,4.9261,5.7605,13.793,8.7601,15.829,4.0,15.776,6.9652,-7.1022,15.48,7.935,21.698999
-0.99502,8.9782,1.8574,1.9704,4.7896,5.1389,12.183,-1.0458,13.198,1.9704,4.7896,9.8522,3.9291,14.844,-2.0,13.795,4.9751,-3.0821,13.528,-2.7967,15.817
0.99502,9.9832,2.8524,1.9704,4.7896,4.0972,12.183,0.91503,12.183,1.9704,4.7896,7.8818,6.8277,16.813999,2.0,13.795,8.9552,15.008,18.407,1.1057,15.817
1.99,7.9732,2.8524,1.9704,4.7896,3.0556,10.152,-0.06536,10.152,1.9704,4.7896,5.9113,10.692,14.844,7.0,10.825,9.9502,10.988,13.528,6.9593,12.876
2.9851,7.9732,4.8425,4.9261,7.7023,3.0556,13.198,1.8954,13.198,4.9261,7.7023,8.867,17.455999,14.844,14.0,10.825,10.945,7.9732,9.626,15.74,11.895
2.9851,6.9682,4.8425,2.9557,5.7605,-0.06944,11.168,-1.0458,12.183,2.9557,5.7605,6.8966,22.287001,17.799999,17.0,13.795,13.93,2.9481,4.748,19.642,13.856
1.99,3.9531,2.8524,-0.98522,1.877,-4.2361,5.0761,-5.9477,5.0761,-0.98522,1.877,1.9704,23.253,19.77,17.0,15.776,14.925,0.93802,0.84553,14.764,12.876
0.99502,1.943,0.86235,-2.9557,-0.06472,-5.2778,1.0152,-7.9085,1.0152,-2.9557,-0.06472,0.0,21.32,16.813999,16.0,12.805,13.93,2.9481,-0.13008,12.813,9.9346
-0.99502,-3.0821,-3.1177,-3.9409,-1.0356,-9.4444,-5.0761,-8.8889,-4.0609,-3.9409,-1.0356,-4.9261,16.49,10.903,12.0,6.8647,8.9552,6.9682,-0.13008,16.715,3.0719
-1.99,-5.0921,-5.1078,-4.9261,-2.9773,-10.486,-11.168,-9.8693,-7.1066,-4.9261,-2.9773,-8.867,13.591,8.9327,10.0,4.8845,5.9701,14.003,-1.1057,13.789,3.0719
-1.99,-6.0972,-4.1128,-6.8966,-7.8317,-9.4444,-12.183,-8.8889,-9.1371,-6.8966,-7.8317,-9.8522,12.625,7.9475,9.0,2.9043,2.9851,10.988,-4.0325,8.9106,0.13072
-3.9801,-8.1072,-5.1078,-5.9113,-7.8317,-6.3194,-10.152,-4.9673,-9.1371,-5.9113,-7.8317,-6.8966,8.7601,4.0066,7.0,-0.06601,-0.99502,-0.067,-9.8862,10.862,-0.84967
-7.9602,-4.0871,-2.1227,-0.98522,-2.0065,-0.06944,-2.0305,-2.0261,-4.0609,-0.98522,-2.0065,0.98522,5.8615,3.0213,3.0,0.92409,-3.9801,-18.157,-1.1057,10.862,2.0915
-12.935,-4.0871,-4.1128,0.98522,0.90615,-0.06944,0.0,-2.0261,-1.0152,0.98522,0.90615,0.98522,1.9968,0.06568,-3.0,-0.06601,-5.9701,-19.162001,0.84553,5.0081,0.13072
-12.935,-3.0821,-6.1028,-2.9557,-0.06472,-3.1944,-1.0152,-2.0261,0.0,-2.9557,-0.06472,-0.98522,0.06441,0.06568,-4.0,-0.06601,-6.9652,1.943,0.84553,1.1057,2.0915
-10.945,0.93802,-5.1078,-4.9261,-2.0065,-2.1528,-1.0152,-0.06536,1.0152,-4.9261,-2.0065,0.0,0.06441,1.0509,-2.0,1.9142,-3.9801,7.9732,5.7236,5.0081,6.9935
-9.9502,1.943,-3.1177,-5.9113,-4.9191,0.97222,0.0,0.91503,-1.0152,-5.9113,-4.9191,1.9704,-0.90177,-0.91954,-2.0,0.92409,-2.9851,-7.1022,9.626,1.1057,3.0719
-7.9602,4.9581,-0.13267,-4.9261,-4.9191,4.0972,2.0305,0.91503,1.0152,-4.9261,-4.9191,4.9261,-0.90177,0.06568,-1.0,1.9142,-0.99502,-19.162001,9.626,-2.7967,4.0523
-9.9502,4.9581,-1.1277,-4.9261,-6.8608,0.97222,2.0305,1.8954,1.0152,-4.9261,-6.8608,2.9557,-3.8003,-2.89,-4.0,-0.06601,-2.9851,-10.117,8.6504,-3.7724,4.0523
-13.93,0.93802,-7.0978,-7.8818,-11.715,-3.1944,0.0,-0.06536,-1.0152,-7.8818,-11.715,-1.9704,-7.6651,-9.7865,-9.0,-6.9967,-8.9552,-3.0821,4.748,-6.6992,-2.8105
-12.935,-2.0771,-8.0929,-8.867,-11.715,-3.1944,0.0,0.91503,-1.0152,-8.867,-11.715,-1.9704,-9.5974,-11.757,-10.0,-9.967,-10.945,3.9531,0.84553,-7.6748,-7.7124
-9.9502,0.93802,-5.1078,-5.9113,-7.8317,-1.1111,0.0,-0.06536,-1.0152,-5.9113,-7.8317,0.0,-10.564,-10.772,-9.0,-6.9967,-9.9502,3.9531,2.7967,-6.6992,-4.7712
-7.9602,3.9531,-2.1227,-4.9261,-5.89,-2.1528,2.0305,-3.0065,-1.0152,-4.9261,-5.89,1.9704,-12.496,-11.757,-10.0,-5.0165,-8.9552,1.943,3.7724,-7.6748,-2.8105
-6.9652,4.9581,-0.13267,-3.9409,-2.9773,-1.1111,4.0609,-3.0065,2.0305,-3.9409,-2.9773,2.9557,-10.564,-9.7865,-8.0,-4.0264,-7.9602,-9.1122,2.7967,-4.748,-3.7908
-5.9701,1.943,-2.1227,-2.9557,-2.9773,0.97222,4.0609,-1.0458,1.0152,-2.9557,-2.9773,4.9261,-9.5974,-6.8309,-8.0,-4.0264,-6.9652,-19.162001,-1.1057,-5.7236,-6.732
-11.94,-0.067,-5.1078,-2.9557,-3.9482,0.97222,4.0609,-3.0065,0.0,-2.9557,-3.9482,3.9409,-15.395,-7.8161,-14.0,-6.0066,-9.9502,-15.142,-1.1057,-13.528,-7.7124
-15.92,0.93802,-4.1128,-1.9704,-2.0065,3.0556,4.0609,-3.0065,0.0,-1.9704,-2.0065,4.9261,-18.292999,-8.8013,-20.0,-5.0165,-10.945,-7.1022,2.7967,-22.309,-4.7712
-15.92,2.9481,-2.1227,-3.9409,0.90615,2.0139,6.0914,-4.9673,4.0609,-3.9409,0.90615,5.9113,-14.428,-5.8456,-18.0,-3.0363,-6.9652,-9.1122,3.7724,-22.309,-3.7908
-14.925,-1.072,-3.1177,-7.8818,-2.9773,-1.1111,6.0914,-8.8889,5.0761,-7.8818,-2.9773,4.9261,-9.5974,-5.8456,-12.0,-6.0066,-4.9751,-24.188,-3.0569,-15.48,-6.732
-9.9502,-5.0921,-3.1177,-7.8818,-5.89,-1.1111,3.0457,-7.9085,3.0457,-7.8818,-5.89,2.9557,-2.8341,-3.8752,-5.0,-6.9967,-2.9851,-23.183001,-6.9593,-5.7236,-9.6732
-7.9602,-8.1072,-4.1128,-6.8966,-6.8608,0.97222,-2.0305,-3.9869,-1.0152,-6.8966,-6.8608,-0.98522,-3.8003,-7.8161,-3.0,-10.957,-2.9851,-7.1022,-10.862,-6.6992,-17.516001
-7.9602,-11.122,-4.1128,-3.9409,-5.89,4.0972,-4.0609,-0.06536,-3.0457,-3.9409,-5.89,-0.98522,-11.53,-14.713,-6.0,-15.908,-4.9751,-1.072,-14.764,-9.626,-24.379
-8.9552,-15.142,-5.1078,-2.9557,-5.89,4.0972,-5.0761,-0.06536,-6.0914,-2.9557,-5.89,-0.98522,-18.292999,-19.639,-10.0,-21.848,-8.9552,-1.072,-14.764,-13.528,-26.34
-11.94,-14.137,-7.0978,-4.9261,-7.8317,0.97222,-5.0761,-3.0065,-5.0761,-4.9261,-7.8317,-2.9557,-20.225,-22.594,-14.0,-24.818001,-13.93,-4.0871,-9.8862,-15.48,-22.417999
-14.925,-11.122,-7.0978,-6.8966,-8.8026,-2.1528,-5.0761,-3.0065,-3.0457,-6.8966,-8.8026,-3.9409,-20.225,-23.58,-15.0,-23.827999,-17.91,-16.146999,-5.0081,-14.504,-18.497
-17.91,-6.0972,-5.1078,-6.8966,-8.8026,-4.2361,-4.0609,-4.9673,-3.0457,-6.8966,-8.8026,-3.9409,-20.225,-20.624001,-17.0,-18.878,-17.91,-26.198,-3.0569,-9.626,-12.614
-14.925,-3.0821,-3.1177,-2.9557,-6.8608,-2.1528,-3.0457,-3.9869,-5.0761,-2.9557,-6.8608,-0.98522,-20.225,-17.667999,-18.0,-13.927,-14.925,-14.137,-6.9593,-13.528,-9.6732
-8.9552,-1.072,-1.1277,0.98522,-2.9773,3.0556,-1.0152,-1.0458,-2.0305,0.98522,-2.9773,1.9704,-21.191999,-18.653999,-16.0,-9.967,-12.935,-16.146999,-5.9837,-13.528,-6.732
-5.9701,-1.072,-0.13267,1.9704,-2.0065,5.1389,1.0152,-1.0458,2.0305,1.9704,-2.0065,1.9704,-20.225,-18.653999,-14.0,-9.967,-11.94,-13.132,-2.0813,-10.602,-8.6928
-4.9751,-5.0921,-5.1078,0.0,-2.0065,2.0139,0.0,-3.0065,2.0305,0.0,-2.0065,0.0,-16.361,-15.698,-10.0,-10.957,-11.94,-1.072,-4.0325,-7.6748,-13.595
-7.9602,-9.1122,-8.0929,-2.9557,-1.0356,-4.2361,-4.0609,-4.9673,-2.0305,-2.9557,-1.0356,-3.9409,-13.462,-12.742,-8.0,-11.947,-10.945,-0.067,-7.935,-6.6992,-10.654
-12.935,-12.127,-11.078,-4.9261,-3.9482,-10.486,-8.1218,-10.85,-4.0609,-4.9261,-3.9482,-6.8966,-14.428,-16.683001,-12.0,-15.908,-12.935,-17.152,-8.9106,-12.553,-15.556
-13.93,-14.137,-13.068,-4.9261,-3.9482,-9.4444,-7.1066,-12.81,-4.0609,-4.9261,-3.9482,-6.8966,-17.327,-18.653999,-16.0,-19.868,-16.915001,-27.202999,-8.9106,-18.407,-20.458
-9.9502,-14.137,-12.073,-2.9557,-1.0356,-6.3194,-6.0914,-8.8889,-4.0609,-2.9557,-1.0356,-6.8966,-17.327,-17.667999,-16.0,-19.868,-17.91,-15.142,-10.862,-16.455,-19.476999
-11.94,-16.146999,-13.068,-2.9557,-2.9773,-8.4028,-9.1371,-8.8889,-6.0914,-2.9557,-2.9773,-9.8522,-16.361,-19.639,-15.0,-21.848,-19.9,-7.1022,-11.837,-15.48,-18.497
-12.935,-17.152,-14.063,-4.9261,-2.9773,-11.528,-11.168,-11.83,-6.0914,-4.9261,-2.9773,-11.823,-12.496,-17.667999,-11.0,-20.858,-19.9,-11.122,-5.9837,-11.577,-13.595
-16.915001,-21.173,-17.048,-5.9113,-2.9773,-12.569,-12.183,-13.791,-5.0761,-5.9113,-2.9773,-13.793,-12.496,-17.667999,-12.0,-24.818001,-21.891001,-19.162001,-6.9593,-11.577,-13.595
-18.905001,-24.188,-19.038,-4.9261,-2.0065,-10.486,-11.168,-13.791,-4.0609,-4.9261,-2.0065,-12.808,-14.428,-18.653999,-14.0,-25.809,-23.881001,-15.142,-13.789,-12.553,-15.556
-21.891001,-25.193001,-24.013,-4.9261,-2.0065,-12.569,-12.183,-12.81,-5.0761,-4.9261,-2.0065,-14.778,-15.395,-17.667999,-19.0,-26.799,-25.871,-17.152,-16.715,-18.407,-17.516001
-24.875999,-21.173,-25.007999,-5.9113,-3.9482,-13.611,-14.213,-10.85,-6.0914,-5.9113,-3.9482,-16.749001,-14.428,-13.727,-21.0,-22.837999,-23.881001,-18.157,-11.837,-20.358,-14.575
-22.886,-21.173,-24.013,-7.8818,-6.8608,-13.611,-17.259001,-10.85,-7.1066,-7.8818,-6.8608,-19.704,-10.564,-10.772,-18.0,-18.878,-19.9,-21.173,-6.9593,-13.528,-10.654
-20.896,-24.188,-23.018,-8.867,-8.8026,-13.611,-20.305,-7.9085,-11.168,-8.867,-8.8026,-21.674999,-7.6651,-12.742,-15.0,-20.858,-18.905001,-20.167999,-9.8862,-9.626,-13.595
-16.915001,-25.193001,-22.023001,-7.8818,-7.8317,-11.528,-19.289,-6.9281,-10.152,-7.8818,-7.8317,-19.704,-8.6312,-15.698,-13.0,-22.837999,-17.91,-13.132,-12.813,-9.626,-14.575
-13.93,-26.198,-21.028,-5.9113,-7.8317,-9.4444,-18.274,-3.9869,-10.152,-5.9113,-7.8317,-16.749001,-9.5974,-15.698,-11.0,-21.848,-15.92,-8.1072,-9.8862,-8.6504,-16.535999
-11.94,-26.198,-19.038,-4.9261,-8.8026,-5.2778,-19.289,-1.0458,-12.183,-4.9261,-8.8026,-13.793,-7.6651,-12.742,-7.0,-19.868,-12.935,-1.072,-9.8862,-9.626,-16.535999
-13.93,-26.198,-18.042999,-3.9409,-6.8608,-6.3194,-17.259001,-1.0458,-11.168,-3.9409,-6.8608,-12.808,-6.6989,-11.757,-7.0,-18.878,-11.94,-6.0972,-12.813,-11.577,-17.516001
-17.91,-27.202999,-20.033001,-3.9409,-8.8026,-9.4444,-17.259001,-3.9869,-12.183,-3.9409,-8.8026,-15.764,-9.5974,-13.727,-11.0,-20.858,-13.93,-12.127,-17.691,-11.577,-19.476999
-13.93,-24.188,-16.052999,-0.98522,-6.8608,-6.3194,-14.213,1.8954,-7.1066,-0.98522,-6.8608,-12.808,-7.6651,-10.772,-9.0,-18.878,-12.935,-8.1072,-15.74,-8.6504,-20.458
-9.9502,-18.157,-13.068,0.0,-3.9482,-6.3194,-10.152,0.91503,-5.0761,0.0,-3.9482,-10.837,-4.7665,-6.8309,-7.0,-14.917,-9.9502,-12.127,-11.837,-6.6992,-16.535999
-7.9602,-10.117,-9.0879,-0.98522,-3.9482,-7.3611,-8.1218,-1.0458,-6.0914,-0.98522,-3.9482,-8.867,0.06441,0.06568,-3.0,-7.9868,-4.9751,-1.072,-7.935,-2.7967,-9.6732
-6.9652,-7.1022,-8.0929,-2.9557,-6.8608,-8.4028,-9.1371,-2.0261,-8.1218,-2.9557,-6.8608,-7.8818,1.0306,3.0213,0.0,-4.0264,-2.9851,4.9581,-5.9837,-3.7724,-3.7908
-3.9801,-5.0921,-6.1028,-0.98522,-3.9482,-5.2778,-7.1066,-0.06536,-6.0914,-0.98522,-3.9482,-4.9261,2.963,5.977,3.0,-0.06601,0.0,5.9631,-5.0081,1.1057,2.0915
-0.99502,-4.0871,-2.1227,1.9704,-1.0356,-1.1111,-3.0457,2.8758,-4.0609,1.9704,-1.0356,0.0,2.963,3.0213,4.0,-0.06601,0.0,4.9581,-4.0325,4.0325,3.0719
-4.9751,-7.1022,-3.1177,-0.98522,-2.0065,-4.2361,-2.0305,-1.0458,-4.0609,-0.98522,-2.0065,-0.98522,-2.8341,-4.8604,-2.0,-6.9967,-5.9701,-3.0821,-6.9593,1.1057,-6.732
-8.9552,-13.132,-7.0978,-1.9704,-1.0356,-5.2778,-2.0305,-3.0065,-4.0609,-1.9704,-1.0356,0.0,-7.6651,-10.772,-9.0,-13.927,-12.935,-8.1072,-8.9106,-3.7724,-11.634
-3.9801,-10.117,-5.1078,0.0,1.877,-1.1111,0.0,-0.06536,-4.0609,0.0,1.877,3.9409,-7.6651,-7.8161,-8.0,-12.937,-11.94,-8.1072,-5.0081,-2.7967,-6.732
-3.9801,-11.122,-7.0978,-1.9704,-0.06472,-3.1944,-3.0457,-1.0458,-5.0761,-1.9704,-0.06472,1.9704,-8.6312,-9.7865,-8.0,-13.927,-12.935,3.9531,-11.837,-2.7967,-9.6732
-7.9602,-15.142,-13.068,-2.9557,-2.0065,-5.2778,-6.0914,-3.0065,-6.0914,-2.9557,-2.0065,-1.9704,-13.462,-13.727,-12.0,-17.888,-15.92,11.993,-12.813,-5.7236,-18.497
-7.9602,-12.127,-14.063,0.98522,1.877,-2.1528,-4.0609,-2.0261,-4.0609,0.98522,1.877,0.0,-10.564,-10.772,-12.0,-17.888,-14.925,0.93802,-8.9106,-7.6748,-18.497
-3.9801,-9.1122,-10.083,3.9409,3.8188,0.97222,-1.0152,-0.06536,-3.0457,3.9409,3.8188,3.9409,-4.7665,-7.8161,-9.0,-13.927,-9.9502,-10.117,-10.862,-7.6748,-15.556
-4.9751,-8.1072,-6.1028,0.98522,1.877,-0.06944,-2.0305,-0.06536,-3.0457,0.98522,1.877,2.9557,-3.8003,-7.8161,-8.0,-11.947,-7.9602,-13.132,-9.8862,-7.6748,-13.595
-3.9801,-9.1122,-3.1177,-1.9704,-0.06472,-1.1111,-5.0761,-1.0458,-5.0761,-1.9704,-0.06472,0.98522,-6.6989,-11.757,-8.0,-11.947,-5.9701,-11.122,-8.9106,-5.7236,-13.595
-0.99502,-4.0871,1.8574,0.0,1.877,2.0139,-1.0152,2.8758,-3.0457,0.0,1.877,3.9409,-7.6651,-12.742,-6.0,-9.967,-4.9751,-4.0871,-3.0569,-1.8211,-10.654
0.0,-4.0871,1.8574,-0.98522,-1.0356,4.0972,-1.0152,-0.06536,-3.0457,-0.98522,-1.0356,4.9261,-11.53,-15.698,-9.0,-12.937,-8.9552,4.9581,-3.0569,-3.7724,-12.614
4.9751,-2.0771,5.8375,1.9704,1.877,10.347,3.0457,3.8562,-3.0457,1.9704,1.877,8.867,-8.6312,-12.742,-6.0,-9.967,-6.9652,15.008,-3.0569,-2.7967,-10.654
6.9652,1.943,8.8226,6.8966,6.7314,14.514,7.1066,6.7974,2.0305,6.8966,6.7314,13.793,-6.6989,-8.8013,-3.0,-6.9967,-4.9751,18.023001,-0.13008,3.0569,-4.7712
1.99,1.943,4.8425,4.9261,5.7605,9.3056,6.0914,4.8366,3.0457,4.9261,5.7605,8.867,-5.7327,-5.8456,-5.0,-6.0066,-4.9751,-2.0771,1.8211,-2.7967,-2.8105
1.99,3.9531,3.8474,2.9557,3.8188,5.1389,4.0609,4.8366,4.0609,2.9557,3.8188,5.9113,0.06441,-1.9048,-1.0,-2.0462,-0.99502,-11.122,0.84553,-3.7724,-0.84967
2.9851,0.93802,1.8574,0.0,0.90615,4.0972,2.0305,3.8562,2.0305,0.0,0.90615,3.9409,1.0306,-3.8752,0.0,-3.0363,-2.9851,-3.0821,-3.0569,-4.748,-3.7908
4.9751,-2.0771,0.86235,1.9704,2.8479,8.2639,4.0609,2.8758,1.0152,1.9704,2.8479,6.8966,-3.8003,-7.8161,-1.0,-5.0165,-4.9751,-0.067,-5.0081,-6.6992,-3.7908
6.9652,-0.067,4.8425,6.8966,6.7314,12.431,9.1371,3.8562,7.1066,6.8966,6.7314,12.808,-3.8003,-6.8309,2.0,-3.0363,-2.9851,-7.1022,-3.0569,-2.7967,-2.8105
5.9701,1.943,4.8425,5.9113,8.6731,11.389,12.183,5.817,10.152,5.9113,8.6731,12.808,-2.8341,-4.8604,1.0,-3.0363,-2.9851,-5.0921,2.7967,0.13008,-2.8105
0.0,-1.072,-0.13267,2.9557,6.7314,5.1389,9.1371,1.8954,8.1218,2.9557,6.7314,8.867,-0.90177,-3.8752,-1.0,-5.0165,-4.9751,-0.067,2.7967,-2.7967,-0.84967
-2.9851,-4.0871,-4.1128,-0.98522,1.877,-1.1111,4.0609,-4.9673,4.0609,-0.98522,1.877,2.9557,0.06441,-2.89,-1.0,-5.0165,-5.9701,-11.122,-1.1057,-1.8211,1.1111
-0.99502,-4.0871,-4.1128,-2.9557,-0.06472,-1.1111,1.0152,-4.9673,0.0,-2.9557,-0.06472,0.98522,0.06441,-0.91954,1.0,-5.0165,-6.9652,-11.122,-3.0569,3.0569,2.0915
6.9652,-2.0771,-0.13267,-0.98522,-0.06472,4.0972,2.0305,2.8758,2.0305,-0.98522,-0.06472,3.9409,3.9291,4.0066,6.0,-2.0462,-3.9801,12.998,-0.13008,5.9837,4.0523
11.94,-1.072,2.8524,0.0,-0.06472,7.2222,4.0609,6.7974,3.0457,0.0,-0.06472,5.9113,6.8277,5.977,9.0,0.92409,-0.99502,17.018,-1.1057,5.9837,2.0915
7.9602,-5.0921,0.86235,-0.98522,-1.0356,4.0972,0.0,4.8366,-1.0152,-0.98522,-1.0356,3.9409,1.9968,2.0361,6.0,-2.0462,-2.9851,5.9631,-5.0081,5.9837,-0.84967
5.9701,-6.0972,-0.13267,0.0,-2.9773,3.0556,-2.0305,5.817,-3.0457,0.0,-2.9773,1.9704,-2.8341,-3.8752,3.0,-6.0066,-4.9751,6.9682,-6.9593,5.9837,-5.7516
7.9602,-4.0871,2.8524,2.9557,-1.0356,6.1806,1.0152,8.7582,-3.0457,2.9557,-1.0356,4.9261,-2.8341,-8.8013,3.0,-9.967,-5.9701,8.9782,-8.9106,1.1057,-10.654
9.9502,-5.0921,2.8524,4.9261,2.8479,8.2639,4.0609,10.719,0.0,4.9261,2.8479,7.8818,-2.8341,-11.757,2.0,-13.927,-7.9602,8.9782,-8.9106,1.1057,-12.614
6.9652,-8.1072,-2.1227,3.9409,3.8188,7.2222,3.0457,11.699,3.0457,3.9409,3.8188,4.9261,-3.8003,-12.742,0.0,-16.898001,-10.945,5.9631,-8.9106,2.0813,-16.535999
0.99502,-9.1122,-6.1028,0.0,0.90615,0.97222,0.0,6.7974,1.0152,0.0,0.90615,-0.98522,-4.7665,-13.727,-4.0,-15.908,-11.94,0.93802,-9.8862,-4.748,-15.556
-1.99,-5.0921,-5.1078,-2.9557,-2.9773,-6.3194,-2.0305,1.8954,-1.0152,-2.9557,-2.9773,-4.9261,-0.90177,-7.8161,-3.0,-8.9769,-6.9652,0.93802,-3.0569,-3.7724,-7.7124
-2.9851,-6.0972,-7.0978,-3.9409,-4.9191,-8.4028,-5.0761,2.8758,-3.0457,-3.9409,-4.9191,-9.8522,-1.868,-5.8456,-1.0,-6.9967,-3.9801,-0.067,-5.9837,-2.7967,-8.6928
-3.9801,-9.1122,-10.083,-4.9261,-6.8608,-9.4444,-8.1218,0.91503,-4.0609,-4.9261,-6.8608,-11.823,-6.6989,-5.8456,-3.0,-6.9967,-4.9751,-0.067,-10.862,-3.7724,-9.6732
-1.99,-9.1122,-9.0879,-5.9113,-6.8608,-9.4444,-10.152,-0.06536,-5.0761,-5.9113,-6.8608,-13.793,-10.564,-8.8013,-4.0,-7.9868,-6.9652,0.93802,-9.8862,-6.6992,-10.654
2.9851,-5.0921,-5.1078,-3.9409,-3.9482,-6.3194,-6.0914,0.91503,-1.0152,-3.9409,-3.9482,-9.8522,-10.564,-9.7865,-3.0,-6.0066,-4.9751,-1.072,-5.9837,-4.748,-8.6928
3.9801,-2.0771,-3.1177,-2.9557,-2.0065,-4.2361,-2.0305,1.8954,2.0305,-2.9557,-2.0065,-6.8966,-9.5974,-10.772,-2.0,-4.0264,-3.9801,2.9481,0.84553,-4.748,-7.7124
-2.9851,-3.0821,-7.0978,-4.9261,-3.9482,-6.3194,-3.0457,-1.0458,2.0305,-4.9261,-3.9482,-7.8818,-11.53,-12.742,-4.0,-4.0264,-4.9751,6.9682,1.8211,-6.6992,-7.7124
-5.9701,-1.072,-8.0929,-2.9557,-2.9773,-4.2361,-2.0305,-1.0458,2.0305,-2.9557,-2.9773,-5.9113,-8.6312,-9.7865,-3.0,-2.0462,-2.9851,0.93802,6.6992,-6.6992,-2.8105
-8.9552,-2.0771,-9.0879,-2.9557,-4.9191,-5.2778,-4.0609,-3.0065,1.0152,-2.9557,-4.9191,-6.8966,-6.6989,-8.8013,-4.0,-1.0561,-3.9801,-9.1122,6.6992,-11.577,-0.84967
-7.9602,-5.0921,-10.083,-2.9557,-4.9191,-5.2778,-5.0761,-4.9673,-1.0152,-2.9557,-4.9191,-6.8966,-7.6651,-5.8456,-4.0,-1.0561,-3.9801,-19.162001,-1.1057,-13.528,-0.84967
-5.9701,-4.0871,-9.0879,1.9704,0.90615,-1.1111,-3.0457,-3.0065,2.0305,1.9704,0.90615,-3.9409,-7.6651,-1.9048,-4.0,1.9142,-2.9851,-17.152,-0.13008,-10.602,1.1111
-0.99502,1.943,-4.1128,6.8966,6.7314,6.1806,5.0761,1.8954,9.1371,6.8966,6.7314,3.9409,-1.868,5.977,1.0,8.8449,2.9851,-6.0972,6.6992,-2.7967,6.0131
-1.99,2.9481,-2.1227,6.8966,6.7314,7.2222,5.0761,1.8954,9.1371,6.8966,6.7314,4.9261,-5.7327,1.0509,-2.0,6.8647,0.0,1.943,7.6748,0.13008,4.0523
-10.945,-5.0921,-8.0929,1.9704,2.8479,-0.06944,-2.0305,-3.9869,2.0305,1.9704,2.8479,-1.9704,-18.292999,-14.713,-14.0,-6.0066,-10.945,3.9531,-1.1057,-12.553,-9.6732
-13.93,-6.0972,-6.1028,-0.98522,-0.06472,-2.1528,-3.0457,-6.9281,-2.0305,-0.98522,-0.06472,-2.9557,-21.191999,-18.653999,-19.0,-9.967,-14.925,-12.127,-3.0569,-20.358,-13.595
-5.9701,-0.067,2.8524,-0.98522,2.8479,0.97222,2.0305,-3.9869,4.0609,-0.98522,2.8479,2.9557,-16.361,-15.698,-12.0,-6.0066,-8.9552,-13.132,3.7724,-17.431,-6.732
-3.9801,-1.072,3.8474,-1.9704,0.90615,-0.06944,1.0152,-3.0065,5.0761,-1.9704,0.90615,1.9704,-16.361,-16.683001,-12.0,-6.9967,-7.9602,-2.0771,0.84553,-17.431,-8.6928
-5.9701,-4.0871,0.86235,-4.9261,-2.9773,-4.2361,-2.0305,-2.0261,0.0,-4.9261,-2.9773,-1.9704,-21.191999,-19.639,-15.0,-10.957,-9.9502,-2.0771,-4.0325,-17.431,-12.614
-6.9652,-3.0821,-0.13267,-5.9113,-2.9773,-5.2778,-2.0305,-3.9869,0.0,-5.9113,-2.9773,-2.9557,-18.292999,-15.698,-12.0,-8.9769,-7.9602,-11.122,-1.1057,-15.48,-8.6928
-2.9851,0.93802,2.8524,-5.9113,-2.9773,-5.2778,0.0,-3.0065,2.0305,-5.9113,-2.9773,-2.9557,-7.6651,-5.8456,-5.0,-2.0462,-2.9851,-14.137,4.748,-8.6504,0.13072
-4.9751,-1.072,-0.13267,-8.867,-5.89,-8.4028,-4.0609,-3.9869,-1.0152,-8.867,-5.89,-6.8966,-8.6312,-5.8456,-6.0,-2.0462,-4.9751,-5.0921,2.7967,-5.7236,0.13072
-10.945,-9.1122,-8.0929,-12.808,-9.7735,-14.653,-12.183,-6.9281,-6.0914,-12.808,-9.7735,-15.764,-15.395,-13.727,-13.0,-8.9769,-13.93,-2.0771,-4.0325,-12.553,-5.7516
-15.92,-12.127,-14.063,-11.823,-10.744,-16.736,-14.213,-5.9477,-6.0914,-11.823,-10.744,-18.719,-17.327,-17.667999,-19.0,-13.927,-19.9,-6.0972,-2.0813,-17.431,-8.6928
-17.91,-11.122,-17.048,-10.837,-10.744,-16.736,-14.213,-3.9869,-6.0914,-10.837,-10.744,-17.733999,-18.292999,-17.667999,-21.0,-14.917,-21.891001,-1.072,0.84553,-20.358,-9.6732
-16.915001,-10.117,-18.042999,-13.793,-12.686,-16.736,-17.259001,-3.9869,-9.1371,-13.793,-12.686,-19.704,-18.292999,-18.653999,-20.0,-15.908,-20.896,-3.0821,-1.1057,-18.407,-11.634
-15.92,-12.127,-20.033001,-11.823,-12.686,-16.736,-19.289,-4.9673,-11.168,-11.823,-12.686,-20.690001,-14.428,-15.698,-16.0,-14.917,-16.915001,-15.142,-4.0325,-14.504,-10.654
-15.92,-15.142,-22.023001,-9.8522,-11.715,-16.736,-21.32,-4.9673,-12.183,-9.8522,-11.715,-21.674999,-8.6312,-9.7865,-11.0,-11.947,-13.93,-19.162001,-5.9837,-9.626,-7.7124
-14.925,-16.146999,-22.023001,-8.867,-10.744,-15.694,-20.305,-3.0065,-11.168,-8.867,-10.744,-19.704,-1.868,-3.8752,-7.0,-9.967,-9.9502,-4.0871,-5.0081,-2.7967,-5.7516
-13.93,-17.152,-22.023001,-9.8522,-11.715,-14.653,-19.289,-3.9869,-11.168,-9.8522,-11.715,-18.719,5.8615,1.0509,-5.0,-10.957,-7.9602,0.93802,-7.935,-4.748,-9.6732
-13.93,-19.162001,-23.018,-9.8522,-13.657,-14.653,-19.289,-5.9477,-14.213,-9.8522,-13.657,-17.733999,6.8277,0.06568,-8.0,-12.937,-8.9552,-0.067,-9.8862,-7.6748,-13.595
-14.925,-16.146999,-19.038,-8.867,-11.715,-12.569,-17.259001,-7.9085,-14.213,-8.867,-11.715,-14.778,4.8953,-0.91954,-11.0,-11.947,-9.9502,-11.122,-5.9837,-8.6504,-11.634
-15.92,-16.146999,-18.042999,-9.8522,-12.686,-13.611,-16.243999,-7.9085,-15.228,-9.8522,-12.686,-13.793,-1.868,-5.8456,-14.0,-14.917,-12.935,-15.142,-12.813,-8.6504,-16.535999
-10.945,-11.122,-12.073,-3.9409,-5.89,-7.3611,-10.152,-3.0065,-11.168,-3.9409,-5.89,-6.8966,-1.868,-4.8604,-9.0,-11.947,-10.945,-1.072,-9.8862,-1.8211,-12.614
-2.9851,-0.067,-1.1277,0.98522,-0.06472,-1.1111,-2.0305,0.91503,-3.0457,0.98522,-0.06472,0.98522,0.06441,-2.89,-2.0,-5.0165,-3.9801,-3.0821,-4.0325,3.0569,-4.7712
0.0,4.9581,5.8375,-0.98522,-0.06472,-2.1528,0.0,-1.0458,0.0,-0.98522,-0.06472,0.98522,-3.8003,-4.8604,-1.0,-2.0462,-0.99502,-3.0821,-4.0325,2.0813,-2.8105
0.99502,3.9531,6.8325,-4.9261,-2.9773,-6.3194,-1.0152,-4.9673,-2.0305,-4.9261,-2.9773,-1.9704,-8.6312,-8.8013,-4.0,-2.0462,-0.99502,4.9581,0.84553,-0.84553,-0.84967
3.9801,4.9581,7.8275,-5.9113,-4.9191,-6.3194,-1.0152,-2.0261,-3.0457,-5.9113,-4.9191,-0.98522,-8.6312,-4.8604,-2.0,-0.06601,0.0,11.993,4.748,1.1057,0.13072
4.9751,3.9531,6.8325,-4.9261,-4.9191,-4.2361,0.0,-1.0458,-3.0457,-4.9261,-4.9191,-0.98522,-3.8003,-3.8752,0.0,-0.06601,-0.99502,8.9782,3.7724,3.0569,-2.8105
2.9851,1.943,2.8524,-4.9261,-2.9773,-3.1944,0.0,-0.06536,0.0,-4.9261,-2.9773,-0.98522,-0.90177,-3.8752,0.0,-0.06601,-2.9851,17.018,3.7724,4.0325,-1.8301
0.99502,-3.0821,-1.1277,-4.9261,-2.9773,-3.1944,-1.0152,-3.0065,-1.0152,-4.9261,-2.9773,-1.9704,-4.7665,-4.8604,-3.0,-1.0561,-4.9751,17.018,2.7967,2.0813,-0.84967
0.99502,-1.072,-0.13267,-2.9557,0.90615,-0.06944,1.0152,-1.0458,2.0305,-2.9557,0.90615,1.9704,-5.7327,-4.8604,-2.0,-0.06601,-3.9801,-4.0871,7.6748,5.0081,4.0523
2.9851,-1.072,1.8574,0.0,0.90615,2.0139,1.0152,0.91503,3.0457,0.0,0.90615,3.9409,-7.6651,-8.8013,-2.0,-1.0561,-3.9801,-6.0972,6.6992,4.0325,3.0719
4.9751,-4.0871,1.8574,0.98522,0.90615,3.0556,-1.0152,0.91503,-2.0305,0.98522,0.90615,3.9409,-8.6312,-11.757,-2.0,-4.0264,-3.9801,2.9481,-1.1057,-0.84553,-1.8301
2.9851,-7.1022,-2.1227,0.98522,-2.0065,2.0139,-4.0609,2.8758,-7.1066,0.98522,-2.0065,0.98522,-8.6312,-13.727,-3.0,-6.9967,-5.9701,14.003,-6.9593,-2.7967,-7.7124
0.0,-9.1122,-6.1028,-2.9557,-5.89,-1.1111,-8.1218,-1.0458,-9.1371,-2.9557,-5.89,-2.9557,-10.564,-16.683001,-5.0,-9.967,-9.9502,10.988,-4.0325,-3.7724,-11.634
0.99502,-4.0871,-5.1078,-3.9409,-7.8317,-0.06944,-6.0914,-3.0065,-9.1371,-3.9409,-7.8317,-0.98522,-10.564,-14.713,-4.0,-8.9769,-7.9602,3.9531,1.8211,-3.7724,-8.6928
10.945,6.9682,4.8425,8.867,5.7605,11.389,6.0914,7.7778,0.0,8.867,5.7605,10.837,1.0306,-2.89,7.0,-0.06601,0.99502,10.988,4.748,2.0813,-2.8105
7.9602,6.9682,3.8474,12.808,10.615,12.431,11.168,8.7582,2.0305,12.808,10.615,13.793,3.9291,-2.89,7.0,-2.0462,0.99502,6.9682,-3.0569,5.9837,-6.732
0.0,0.93802,-3.1177,7.8818,4.7896,7.2222,6.0914,3.8562,-4.0609,7.8818,4.7896,7.8818,-3.8003,-5.8456,0.0,-5.0165,-4.9751,4.9581,-7.935,6.9593,-6.732
0.0,-1.072,-4.1128,6.8966,2.8479,7.2222,1.0152,3.8562,-8.1218,6.8966,2.8479,5.9113,-6.6989,-2.89,-4.0,-3.0363,-5.9701,5.9631,-4.0325,2.0813,-0.84967
-0.99502,-2.0771,-4.1128,4.9261,0.90615,6.1806,-1.0152,1.8954,-8.1218,4.9261,0.90615,3.9409,-5.7327,1.0509,-6.0,-0.06601,-3.9801,-4.0871,2.7967,-3.7724,4.0523
3.9801,0.93802,-1.1277,7.8818,3.8188,8.2639,2.0305,5.817,-3.0457,7.8818,3.8188,6.8966,0.06441,5.977,-1.0,4.8845,0.0,-3.0821,7.6748,1.1057,7.9739
1.99,-2.0771,-4.1128,5.9113,1.877,6.1806,1.0152,7.7778,-4.0609,5.9113,1.877,2.9557,0.06441,5.977,-2.0,0.92409,-0.99502,1.943,-0.13008,1.1057,1.1111
1.99,-3.0821,-6.1028,2.9557,-0.06472,6.1806,1.0152,5.817,-6.0914,2.9557,-0.06472,1.9704,1.9968,5.977,-3.0,0.92409,0.0,7.9732,-6.9593,-2.7967,0.13072
2.9851,-1.072,-5.1078,1.9704,-2.0065,6.1806,1.0152,3.8562,-6.0914,1.9704,-2.0065,2.9557,4.8953,7.9475,1.0,3.8944,2.9851,5.9631,-6.9593,-3.7724,2.0915
4.9751,5.9631,-0.13267,2.9557,-0.06472,6.1806,3.0457,4.8366,-4.0609,2.9557,-0.06472,4.9261,9.7262,10.903,7.0,9.835,9.9502,-1.072,1.8211,1.1057,5.0327
9.9502,9.9832,6.8325,6.8966,4.7896,9.3056,6.0914,8.7582,-1.0152,6.8966,4.7896,9.8522,9.7262,9.9179,11.0,12.805,12.935,-0.067,5.7236,5.9837,4.0523
8.9552,7.9732,6.8325,8.867,6.7314,10.347,7.1066,5.817,0.0,8.867,6.7314,11.823,3.9291,2.0361,8.0,8.8449,9.9502,-0.067,2.7967,5.9837,0.13072
12.935,10.988,10.813,12.808,9.644,14.514,11.168,6.7974,5.0761,12.808,9.644,15.764,5.8615,3.0213,11.0,9.835,11.94,7.9732,3.7724,9.8862,5.0327
15.92,10.988,11.808,12.808,8.6731,16.597,10.152,10.719,5.0761,12.808,8.6731,13.793,6.8277,4.9918,13.0,11.815,13.93,18.023001,5.7236,12.813,8.9542
13.93,9.9832,9.8176,10.837,7.7023,12.431,7.1066,6.7974,3.0457,10.837,7.7023,10.837,6.8277,4.9918,12.0,11.815,14.925,10.988,4.748,8.9106,11.895
9.9502,6.9682,5.8375,7.8818,6.7314,9.3056,5.0761,2.8758,1.0152,7.8818,6.7314,7.8818,3.9291,5.977,9.0,11.815,11.94,-0.067,6.6992,7.935,12.876
6.9652,4.9581,1.8574,5.9113,3.8188,8.2639,2.0305,0.91503,-3.0457,5.9113,3.8188,5.9113,3.9291,7.9475,7.0,11.815,10.945,-7.1022,5.7236,10.862,12.876
6.9652,4.9581,3.8474,7.8818,5.7605,11.389,4.0609,5.817,0.0,7.8818,5.7605,7.8818,5.8615,8.9327,7.0,13.795,10.945,-7.1022,2.7967,12.813,12.876
5.9701,2.9481,1.8574,9.8522,7.7023,9.3056,4.0609,7.7778,3.0457,9.8522,7.7023,6.8966,4.8953,5.977,5.0,9.835,6.9652,3.9531,3.7724,13.789,13.856
3.9801,-0.067,-0.13267,8.867,7.7023,7.2222,4.0609,8.7582,5.0761,8.867,7.7023,4.9261,6.8277,4.9918,6.0,6.8647,4.9751,19.028,7.6748,13.789,10.915
5.9701,-1.072,1.8574,6.8966,6.7314,8.2639,4.0609,7.7778,5.0761,6.8966,6.7314,4.9261,7.7939,4.0066,8.0,4.8845,4.9751,23.049,7.6748,13.789,6.9935
4.9751,-5.0921,1.8574,5.9113,6.7314,8.2639,3.0457,4.8366,3.0457,5.9113,6.7314,4.9261,5.8615,3.0213,6.0,1.9142,2.9851,15.008,1.8211,12.813,3.0719
5.9701,-5.0921,-0.13267,9.8522,9.644,11.389,5.0761,7.7778,6.0914,9.8522,9.644,7.8818,6.8277,5.977,6.0,3.8944,4.9751,12.998,2.7967,12.813,6.9935
1.99,-2.0771,-3.1177,9.8522,8.6731,11.389,8.1218,7.7778,9.1371,9.8522,8.6731,7.8818,9.7262,8.9327,6.0,6.8647,5.9701,5.9631,9.626,13.789,14.837
-0.99502,1.943,-3.1177,8.867,7.7023,9.3056,10.152,5.817,11.168,8.867,7.7023,6.8966,11.659,13.859,6.0,11.815,8.9552,-4.0871,11.577,8.9106,16.797001
2.9851,5.9631,-0.13267,9.8522,10.615,9.3056,12.183,6.7974,13.198,9.8522,10.615,7.8818,15.523,17.799999,11.0,15.776,13.93,10.988,13.528,12.813,14.837
5.9701,8.9782,0.86235,9.8522,11.586,10.347,12.183,8.7582,11.168,9.8522,11.586,7.8818,15.523,17.799999,13.0,17.756001,15.92,34.104,13.528,15.74,16.797001
5.9701,9.9832,2.8524,7.8818,9.644,9.3056,11.168,7.7778,9.1371,7.8818,9.644,5.9113,14.557,18.785,14.0,19.736,17.91,26.063999,8.6504,16.715,20.719
4.9751,12.998,6.8325,6.8966,9.644,9.3056,13.198,7.7778,12.183,6.8966,9.644,6.8966,17.455999,22.726,16.0,22.705999,20.896,3.9531,9.626,18.667,24.641001
1.99,10.988,5.8375,5.9113,7.7023,7.2222,12.183,6.7974,12.183,5.9113,7.7023,5.9113,16.49,22.726,14.0,21.716,19.9,0.93802,12.553,13.789,24.641001
4.9751,10.988,6.8325,7.8818,9.644,5.1389,12.183,5.817,11.168,7.8818,9.644,6.8966,15.523,19.77,13.0,18.746,16.915001,10.988,13.528,15.74,21.698999
5.9701,11.993,7.8275,8.867,11.586,5.1389,14.213,5.817,14.213,8.867,11.586,8.867,12.625,13.859,11.0,15.776,13.93,10.988,16.455,14.764,19.739
4.9751,7.9732,5.8375,6.8966,9.644,5.1389,12.183,7.7778,13.198,6.8966,9.644,5.9113,6.8277,7.9475,7.0,10.825,9.9502,26.063999,12.553,12.813,14.837
5.9701,5.9631,5.8375,5.9113,4.7896,5.1389,8.1218,9.7386,8.1218,5.9113,4.7896,2.9557,5.8615,5.977,9.0,10.825,9.9502,7.9732,6.6992,11.837,13.856
12.935,9.9832,12.803,9.8522,7.7023,10.347,9.1371,13.66,9.1371,9.8522,7.7023,5.9113,13.591,11.888,17.0,14.785,15.92,-1.072,7.6748,17.691,16.797001
16.915001,10.988,14.793,11.823,10.615,13.472,12.183,14.641,13.198,11.823,10.615,8.867,14.557,13.859,20.0,15.776,16.915001,10.988,8.6504,21.593,14.837
12.935,5.9631,9.8176,8.867,9.644,10.347,9.1371,11.699,12.183,8.867,9.644,5.9113,9.7262,8.9327,14.0,10.825,10.945,8.9782,5.7236,13.789,10.915
8.9552,2.9481,2.8524,6.8966,6.7314,8.2639,5.0761,8.7582,9.1371,6.8966,6.7314,2.9557,4.8953,5.977,9.0,8.8449,4.9751,3.9531,9.626,9.8862,13.856
9.9502,3.9531,1.8574,5.9113,5.7605,8.2639,3.0457,9.7386,5.0761,5.9113,5.7605,0.98522,6.8277,5.977,12.0,8.8449,6.9652,11.993,10.602,13.789,13.856
12.935,0.93802,3.8474,5.9113,4.7896,8.2639,0.0,10.719,3.0457,5.9113,4.7896,0.0,11.659,8.9327,16.0,8.8449,9.9502,22.044001,3.7724,17.691,10.915
14.925,-1.072,5.8375,7.8818,4.7896,9.3056,1.0152,13.66,2.0305,7.8818,4.7896,2.9557,14.557,9.9179,15.0,5.8746,10.945,24.054001,3.7724,16.715,6.0131
12.935,-5.0921,6.8325,7.8818,3.8188,11.389,3.0457,11.699,2.0305,7.8818,3.8188,6.8966,12.625,5.977,11.0,1.9142,7.9602,17.018,-5.0081,17.691,1.1111
7.9602,-7.1022,7.8275,6.8966,4.7896,11.389,2.0305,10.719,-1.0152,6.8966,4.7896,7.8818,8.7601,1.0509,7.0,-1.0561,3.9801,6.9682,-11.837,15.74,-3.7908
0.99502,-10.117,6.8325,4.9261,3.8188,8.2639,-1.0152,7.7778,-4.0609,4.9261,3.8188,6.8966,3.9291,-1.9048,-1.0,-6.0066,-1.99,-7.1022,-8.9106,5.9837,-5.7516
2.9851,-6.0972,8.8226,7.8818,4.7896,11.389,0.0,8.7582,-1.0152,7.8818,4.7896,8.867,3.9291,1.0509,0.0,-3.0363,-1.99,-4.0871,-3.0569,4.0325,1.1111
9.9502,-2.0771,12.803,10.837,5.7605,13.472,3.0457,12.68,1.0152,10.837,5.7605,10.837,5.8615,5.977,3.0,1.9142,1.99,7.9732,-2.0813,6.9593,5.0327
8.9552,-3.0821,10.813,8.867,5.7605,9.3056,2.0305,8.7582,0.0,8.867,5.7605,7.8818,0.06441,2.0361,-1.0,0.92409,0.0,5.9631,-4.0325,4.0325,0.13072
5.9701,-4.0871,6.8325,5.9113,4.7896,5.1389,-1.0152,4.8366,-3.0457,5.9113,4.7896,4.9261,-5.7327,-3.8752,-6.0,-2.0462,-3.9801,-5.0921,-6.9593,-0.84553,-4.7712
5.9701,-1.072,7.8275,1.9704,0.90615,0.97222,-3.0457,0.91503,-4.0609,1.9704,0.90615,1.9704,-7.6651,-7.8161,-6.0,-4.0264,-3.9801,-6.0972,-5.9837,-5.7236,-6.732
8.9552,4.9581,10.813,2.9557,2.8479,0.97222,1.0152,-0.06536,0.0,2.9557,2.8479,2.9557,-6.6989,-5.8456,-2.0,-1.0561,0.0,7.9732,-3.0569,-0.84553,-3.7908
11.94,6.9682,11.808,6.8966,6.7314,5.1389,5.0761,4.8366,3.0457,6.8966,6.7314,6.8966,-5.7327,-4.8604,0.0,-0.06601,1.99,3.9531,-2.0813,5.0081,0.13072
9.9502,2.9481,7.8275,7.8818,7.7023,6.1806,4.0609,5.817,3.0457,7.8818,7.7023,5.9113,-6.6989,-6.8309,-3.0,-3.0363,-0.99502,6.9682,-1.1057,1.1057,-0.84967
0.99502,-8.1072,-0.13267,3.9409,1.877,-0.06944,-5.0761,1.8954,-2.0305,3.9409,1.877,-1.9704,-10.564,-9.7865,-10.0,-8.9769,-5.9701,-1.072,-5.0081,-9.626,-3.7908
-5.9701,-16.146999,-8.0929,2.9557,0.90615,-4.2361,-10.152,2.8758,-6.0914,2.9557,0.90615,-7.8818,-9.5974,-7.8161,-11.0,-11.947,-8.9552,-0.067,-9.8862,-9.626,-8.6928
-5.9701,-14.137,-6.1028,4.9261,3.8188,-3.1944,-5.0761,0.91503,-3.0457,4.9261,3.8188,-4.9261,-4.7665,-0.91954,-5.0,-7.9868,-4.9751,8.9782,-6.9593,-4.748,-6.732
-8.9552,-13.132,-5.1078,3.9409,3.8188,-2.1528,-2.0305,-2.0261,-1.0152,3.9409,3.8188,-3.9409,-5.7327,-1.9048,-6.0,-8.9769,-5.9701,7.9732,-6.9593,-2.7967,-7.7124
-13.93,-18.157,-9.0879,1.9704,-0.06472,-4.2361,-7.1066,-0.06536,-8.1218,1.9704,-0.06472,-7.8818,-11.53,-9.7865,-12.0,-16.898001,-10.945,-2.0771,-11.837,-7.6748,-17.516001
-10.945,-16.146999,-6.1028,3.9409,-2.0065,-2.1528,-10.152,5.817,-11.168,3.9409,-2.0065,-8.867,-11.53,-14.713,-10.0,-16.898001,-9.9502,-6.0972,-10.862,-3.7724,-19.476999
-2.9851,-10.117,-0.13267,4.9261,-2.0065,0.97222,-10.152,9.7386,-8.1218,4.9261,-2.0065,-6.8966,-8.6312,-13.727,-4.0,-10.957,-5.9701,2.9481,-5.9837,4.0325,-10.654
1.99,-4.0871,2.8524,3.9409,-2.9773,2.0139,-10.152,7.7778,-5.0761,3.9409,-2.9773,-6.8966,-7.6651,-12.742,-3.0,-6.0066,-3.9801,8.9782,-3.0569,2.0813,-3.7908
0.0,-2.0771,0.86235,1.9704,-3.9482,-0.06944,-10.152,2.8758,-4.0609,1.9704,-3.9482,-8.867,-12.496,-12.742,-6.0,-3.0363,-4.9751,-2.0771,-0.13008,-3.7724,-0.84967
0.0,3.9531,0.86235,2.9557,-0.06472,2.0139,-7.1066,0.91503,-4.0609,2.9557,-0.06472,-6.8966,-12.496,-9.7865,-6.0,0.92409,-1.99,-1.072,6.6992,-4.748,2.0915
0.99502,4.9581,0.86235,2.9557,-1.0356,2.0139,-6.0914,-0.06536,-4.0609,2.9557,-1.0356,-4.9261,-10.564,-8.8013,-5.0,0.92409,-0.99502,-1.072,9.626,-3.7724,1.1111
2.9851,4.9581,1.8574,2.9557,-1.0356,0.97222,-4.0609,-0.06536,-2.0305,2.9557,-1.0356,-2.9557,-6.6989,-2.89,-2.0,1.9142,0.0,9.9832,8.6504,0.13008,1.1111
4.9751,4.9581,1.8574,1.9704,-1.0356,0.97222,-3.0457,-0.06536,0.0,1.9704,-1.0356,-2.9557,-5.7327,-0.91954,-1.0,1.9142,0.99502,6.9682,10.602,-1.8211,4.0523
2.9851,6.9682,2.8524,0.98522,-1.0356,0.97222,-3.0457,-0.06536,1.0152,0.98522,-1.0356,-0.98522,-7.6651,-2.89,-3.0,1.9142,1.99,7.9732,15.48,-3.7724,6.9935
3.9801,11.993,6.8325,0.98522,-0.06472,2.0139,-1.0152,-2.0261,0.0,0.98522,-0.06472,0.98522,-2.8341,2.0361,-1.0,6.8647,6.9652,1.943,11.577,-4.748,6.9935
4.9751,14.003,9.8176,0.98522,1.877,2.0139,0.0,-2.0261,0.0,0.98522,1.877,0.98522,1.0306,6.9622,2.0,10.825,10.945,-14.137,6.6992,-7.6748,6.0131
0.99502,7.9732,5.8375,-0.98522,-0.06472,-3.1944,-5.0761,-3.9869,-4.0609,-0.98522,-0.06472,-3.9409,-1.868,3.0213,-1.0,7.8548,7.9602,-19.162001,0.84553,-5.7236,4.0523
0.99502,4.9581,3.8474,-0.98522,-0.06472,-4.2361,-7.1066,-5.9477,-6.0914,-0.98522,-0.06472,-3.9409,1.9968,4.0066,0.0,6.8647,5.9701,-3.0821,1.8211,-0.84553,6.9935
3.9801,1.943,5.8375,0.98522,0.90615,-2.1528,-6.0914,-5.9477,-4.0609,0.98522,0.90615,-0.98522,7.7939,7.9475,3.0,6.8647,4.9751,3.9531,4.748,3.0569,7.9739
3.9801,-0.067,7.8275,-0.98522,-1.0356,-3.1944,-6.0914,-6.9281,-4.0609,-0.98522,-1.0356,-1.9704,8.7601,8.9327,5.0,6.8647,6.9652,9.9832,5.7236,3.0569,6.0131
3.9801,0.93802,9.8176,-1.9704,-2.0065,-2.1528,-8.1218,-3.9869,-6.0914,-1.9704,-2.0065,-3.9409,10.692,9.9179,7.0,7.8548,9.9502,8.9782,4.748,7.935,6.0131
4.9751,4.9581,12.803,1.9704,-1.0356,-0.06944,-7.1066,1.8954,-4.0609,1.9704,-1.0356,-3.9409,14.557,13.859,13.0,10.825,13.93,-8.1072,6.6992,13.789,9.9346
4.9751,6.9682,12.803,2.9557,-2.9773,2.0139,-6.0914,3.8562,-4.0609,2.9557,-2.9773,-2.9557,15.523,14.844,14.0,11.815,14.925,-8.1072,6.6992,17.691,10.915
4.9751,6.9682,11.808,1.9704,-2.9773,0.97222,-3.0457,1.8954,-4.0609,1.9704,-2.9773,-0.98522,13.591,13.859,12.0,12.805,14.925,8.9782,5.7236,16.715,11.895
3.9801,6.9682,11.808,0.0,-2.9773,0.97222,0.0,-2.0261,-1.0152,0.0,-2.9773,1.9704,8.7601,9.9179,9.0,10.825,12.935,6.9682,6.6992,11.837,9.9346
1.99,6.9682,11.808,-0.98522,-1.0356,-0.06944,2.0305,-3.9869,0.0,-0.98522,-1.0356,3.9409,4.8953,4.9918,5.0,7.8548,10.945,5.9631,10.602,5.0081,6.9935
0.99502,6.9682,12.803,0.98522,1.877,0.97222,5.0761,-3.9869,3.0457,0.98522,1.877,5.9113,3.9291,4.9918,4.0,7.8548,11.94,5.9631,9.626,5.0081,4.0523
0.0,7.9732,13.798,2.9557,2.8479,3.0556,8.1218,-3.0065,3.0457,2.9557,2.8479,8.867,6.8277,7.9475,2.0,8.8449,12.935,0.93802,9.626,3.0569,6.0131
-3.9801,4.9581,11.808,1.9704,0.90615,2.0139,6.0914,-3.0065,0.0,1.9704,0.90615,7.8818,5.8615,5.977,-1.0,5.8746,8.9552,-4.0871,4.748,-3.7724,6.9935
-2.9851,-1.072,8.8226,1.9704,-1.0356,0.97222,3.0457,-3.0065,-3.0457,1.9704,-1.0356,8.867,2.963,3.0213,-3.0,1.9142,4.9751,1.943,0.84553,-4.748,2.0915
-8.9552,-6.0972,2.8524,0.0,-2.9773,-2.1528,-1.0152,-4.9673,-7.1066,0.0,-2.9773,5.9113,-2.8341,0.06568,-8.0,-3.0363,-1.99,-2.0771,-4.0325,-9.626,-2.8105
-14.925,-9.1122,-5.1078,-0.98522,-2.9773,-5.2778,-3.0457,-7.9085,-6.0914,-0.98522,-2.9773,1.9704,-8.6312,-3.8752,-15.0,-6.9967,-9.9502,-11.122,-2.0813,-13.528,-3.7908
-15.92,-9.1122,-7.0978,0.98522,-2.0065,-3.1944,-3.0457,-4.9673,-5.0761,0.98522,-2.0065,1.9704,-13.462,-6.8309,-18.0,-9.967,-12.935,-13.132,-0.13008,-15.48,-6.732
-12.935,-9.1122,-6.1028,1.9704,-1.0356,-0.06944,-3.0457,-2.0261,-5.0761,1.9704,-1.0356,1.9704,-14.428,-10.772,-18.0,-10.957,-12.935,-12.127,-3.0569,-15.48,-8.6928
-12.935,-13.132,-9.0879,0.98522,-2.0065,-0.06944,-5.0761,-1.0458,-5.0761,0.98522,-2.0065,0.0,-19.259001,-17.667999,-20.0,-14.917,-14.925,-17.152,-6.9593,-15.48,-13.595
-11.94,-16.146999,-12.073,2.9557,-2.9773,0.97222,-6.0914,0.91503,-7.1066,2.9557,-2.9773,-0.98522,-20.225,-17.667999,-22.0,-16.898001,-16.915001,-12.127,-8.9106,-12.553,-12.614
-7.9602,-15.142,-12.073,2.9557,-2.9773,2.0139,-8.1218,3.8562,-8.1218,2.9557,-2.9773,-2.9557,-16.361,-11.757,-19.0,-12.937,-15.92,-5.0921,-8.9106,-11.577,-4.7712
-5.9701,-14.137,-11.078,1.9704,-2.9773,0.97222,-9.1371,0.91503,-9.1371,1.9704,-2.9773,-3.9409,-16.361,-9.7865,-19.0,-11.947,-16.915001,3.9531,-5.9837,-12.553,-3.7908
-8.9552,-15.142,-11.078,0.0,-2.9773,-2.1528,-11.168,-0.06536,-9.1371,0.0,-2.9773,-6.8966,-19.259001,-13.727,-18.0,-14.917,-19.9,10.988,-6.9593,-3.7724,-7.7124
-12.935,-16.146999,-13.068,-0.98522,-3.9482,-3.1944,-11.168,-1.0458,-9.1371,-0.98522,-3.9482,-6.8966,-23.124001,-17.667999,-21.0,-18.878,-20.896,7.9732,-14.764,-10.602,-11.634
-13.93,-13.132,-10.083,0.0,-2.0065,-5.2778,-7.1066,-2.0261,-8.1218,0.0,-2.0065,-4.9261,-25.056,-19.639,-23.0,-19.868,-20.896,-8.1072,-14.764,-18.407,-13.595
-14.925,-11.122,-9.0879,1.9704,-0.06472,-8.4028,-7.1066,-2.0261,-5.0761,1.9704,-0.06472,-6.8966,-23.124001,-16.683001,-21.0,-16.898001,-18.905001,-21.173,-7.935,-19.382,-11.634
-16.915001,-12.127,-11.078,1.9704,1.877,-9.4444,-8.1218,-5.9477,-2.0305,1.9704,1.877,-8.867,-18.292999,-10.772,-19.0,-11.947,-13.93,-23.183001,-4.0325,-17.431,-7.7124
-15.92,-10.117,-10.083,2.9557,4.7896,-8.4028,-4.0609,-5.9477,2.0305,2.9557,4.7896,-6.8966,-12.496,-2.89,-14.0,-3.0363,-6.9652,-12.127,-2.0813,-14.504,0.13072
-14.925,-9.1122,-9.0879,0.0,0.90615,-12.569,-4.0609,-8.8889,2.0305,0.0,0.90615,-9.8522,-10.564,-0.91954,-11.0,-1.0561,-4.9751,-10.117,-1.1057,-10.602,2.0915
-8.9552,-3.0821,-2.1227,0.0,1.877,-10.486,1.0152,-8.8889,5.0761,0.0,1.877,-6.8966,-3.8003,4.0066,-6.0,2.9043,0.99502,-7.1022,-0.13008,-5.7236,5.0327
-5.9701,-0.067,1.8574,0.98522,2.8479,-8.4028,4.0609,-4.9673,5.0761,0.98522,2.8479,-4.9261,1.9968,7.9475,-2.0,4.8845,3.9801,-6.0972,0.84553,-0.84553,6.9935
-6.9652,-1.072,0.86235,1.9704,2.8479,-7.3611,3.0457,-3.0065,6.0914,1.9704,2.8479,-5.9113,0.06441,5.977,-5.0,2.9043,1.99,-16.146999,1.8211,-0.84553,4.0523
-5.9701,-2.0771,-0.13267,1.9704,0.90615,-5.2778,2.0305,-1.0458,6.0914,1.9704,0.90615,-5.9113,-5.7327,2.0361,-10.0,-0.06601,-1.99,-18.157,0.84553,-7.6748,1.1111
-6.9652,-2.0771,-0.13267,0.0,-2.0065,-4.2361,0.0,-3.0065,2.0305,0.0,-2.0065,-4.9261,-8.6312,1.0509,-14.0,-2.0462,-4.9751,-17.152,-0.13008,-14.504,-0.84967
-6.9652,-2.0771,-1.1277,-0.98522,-1.0356,-4.2361,-1.0152,-3.9869,0.0,-0.98522,-1.0356,-3.9409,-7.6651,-0.91954,-11.0,-1.0561,-4.9751,-11.122,-1.1057,-12.553,-1.8301
-3.9801,-0.067,-0.13267,0.0,0.90615,-1.1111,0.0,-2.0261,1.0152,0.0,0.90615,-1.9704,-2.8341,1.0509,-6.0,1.9142,-0.99502,-2.0771,-2.0813,-4.748,1.1111
-1.99,-0.067,-2.1227,1.9704,2.8479,-0.06944,0.0,-0.06536,2.0305,1.9704,2.8479,-1.9704,-0.90177,0.06568,-2.0,0.92409,0.99502,-5.0921,-4.0325,2.0813,3.0719
-6.9652,-4.0871,-6.1028,1.9704,1.877,-2.1528,-3.0457,0.91503,-2.0305,1.9704,1.877,-3.9409,-1.868,-4.8604,-3.0,-3.0363,-2.9851,-9.1122,-6.9593,-2.7967,-0.84967
-11.94,-11.122,-11.078,0.0,-2.9773,-5.2778,-7.1066,0.91503,-7.1066,0.0,-2.9773,-6.8966,-6.6989,-12.742,-9.0,-11.947,-9.9502,-16.146999,-11.837,-10.602,-11.634
-8.9552,-13.132,-11.078,0.0,-4.9191,-3.1944,-7.1066,0.91503,-6.0914,0.0,-4.9191,-6.8966,-7.6651,-13.727,-8.0,-13.927,-10.945,-9.1122,-11.837,-9.626,-15.556
-1.99,-10.117,-9.0879,0.98522,-1.0356,0.97222,-6.0914,3.8562,-2.0305,0.98522,-1.0356,-4.9261,-4.7665,-11.757,-3.0,-10.957,-8.9552,0.93802,-4.0325,-2.7967,-11.634
0.0,-11.122,-10.083,0.0,-2.9773,-0.06944,-8.1218,4.8366,-3.0457,0.0,-2.9773,-4.9261,-5.7327,-15.698,-4.0,-12.937,-10.945,7.9732,-3.0569,-1.8211,-11.634
-6.9652,-15.142,-15.058,-3.9409,-6.8608,-5.2778,-12.183,-0.06536,-8.1218,-3.9409,-6.8608,-9.8522,-11.53,-19.639,-9.0,-17.888,-17.91,-6.0972,-10.862,-6.6992,-14.575
-10.945,-18.157,-19.038,-3.9409,-7.8317,-8.4028,-12.183,-1.0458,-9.1371,-3.9409,-7.8317,-11.823,-13.462,-17.667999,-11.0,-17.888,-19.9,-8.1072,-10.862,-8.6504,-14.575
-13.93,-21.173,-24.013,-3.9409,-8.8026,-8.4028,-15.228,0.91503,-9.1371,-3.9409,-8.8026,-14.778,-11.53,-11.757,-9.0,-13.927,-16.915001,-5.0921,-8.9106,-7.6748,-11.634
-15.92,-22.177999,-26.003,-3.9409,-9.7735,-10.486,-16.243999,-1.0458,-10.152,-3.9409,-9.7735,-15.764,-5.7327,-0.91954,-9.0,-6.9967,-11.94,-6.0972,-9.8862,-9.626,-5.7516
-17.91,-20.167999,-25.007999,-2.9557,-8.8026,-11.528,-15.228,-2.0261,-14.213,-2.9557,-8.8026,-13.793,-7.6651,0.06568,-12.0,-6.0066,-11.94,-0.067,-9.8862,-12.553,-4.7712
-15.92,-16.146999,-20.033001,-0.98522,-2.9773,-9.4444,-10.152,-1.0458,-10.152,-0.98522,-2.9773,-9.8522,-8.6312,-1.9048,-12.0,-6.0066,-9.9502,-2.0771,-6.9593,-6.6992,-2.8105
-16.915001,-14.137,-17.048,-1.9704,-2.0065,-10.486,-10.152,-3.9869,-7.1066,-1.9704,-2.0065,-8.867,-10.564,-4.8604,-13.0,-6.9967,-11.94,-14.137,-6.9593,-9.626,-5.7516
-13.93,-12.127,-14.063,-2.9557,-3.9482,-9.4444,-11.168,-5.9477,-7.1066,-2.9557,-3.9482,-7.8818,-9.5974,-6.8309,-13.0,-9.967,-12.935,-18.157,-6.9593,-16.455,-14.575
-5.9701,-11.122,-10.083,0.98522,-1.0356,-3.1944,-8.1218,-1.0458,-4.0609,0.98522,-1.0356,-2.9557,-9.5974,-8.8013,-9.0,-10.957,-10.945,-10.117,-7.935,-15.48,-16.535999
-3.9801,-13.132,-9.0879,2.9557,-1.0356,-1.1111,-7.1066,0.91503,-3.0457,2.9557,-1.0356,-1.9704,-13.462,-11.757,-10.0,-13.927,-12.935,6.9682,-8.9106,-11.577,-15.556
-3.9801,-14.137,-8.0929,0.0,-2.9773,-4.2361,-8.1218,-0.06536,-4.0609,0.0,-2.9773,-4.9261,-12.496,-13.727,-9.0,-14.917,-12.935,1.943,-8.9106,-8.6504,-14.575
-3.9801,-11.122,-7.0978,-2.9557,-5.89,-7.3611,-9.1371,-2.0261,-4.0609,-2.9557,-5.89,-6.8966,-11.53,-11.757,-7.0,-13.927,-11.94,-0.067,-5.9837,-6.6992,-10.654
-3.9801,-8.1072,-6.1028,-5.9113,-9.7735,-9.4444,-10.152,-2.0261,-5.0761,-5.9113,-9.7735,-8.867,-9.5974,-9.7865,-8.0,-11.947,-11.94,2.9481,-4.0325,-5.7236,-5.7516
-2.9851,-6.0972,-5.1078,-5.9113,-10.744,-8.4028,-10.152,-3.0065,-7.1066,-5.9113,-10.744,-7.8818,-8.6312,-7.8161,-7.0,-8.9769,-9.9502,8.9782,-1.1057,-2.7967,-4.7712
-2.9851,-4.0871,-1.1277,-3.9409,-6.8608,-4.2361,-8.1218,-0.06536,-6.0914,-3.9409,-6.8608,-3.9409,-8.6312,-6.8309,-7.0,-6.9967,-8.9552,2.9481,2.7967,-2.7967,-2.8105
-9.9502,-7.1022,-2.1227,-4.9261,-6.8608,-5.2778,-9.1371,-1.0458,-8.1218,-4.9261,-6.8608,-4.9261,-11.53,-11.757,-11.0,-9.967,-10.945,-13.132,2.7967,-10.602,-4.7712
-12.935,-10.117,-6.1028,-5.9113,-9.7735,-8.4028,-13.198,-2.0261,-12.183,-5.9113,-9.7735,-7.8818,-13.462,-13.727,-15.0,-12.937,-13.93,-10.117,-5.0081,-16.455,-8.6928
-9.9502,-11.122,-7.0978,-5.9113,-10.744,-7.3611,-13.198,0.91503,-11.168,-5.9113,-10.744,-8.867,-9.5974,-8.8013,-11.0,-11.947,-13.93,-1.072,-9.8862,-9.626,-7.7124
-6.9652,-9.1122,-6.1028,-7.8818,-11.715,-9.4444,-12.183,-0.06536,-11.168,-7.8818,-11.715,-9.8522,-8.6312,-6.8309,-9.0,-8.9769,-12.935,7.9732,-2.0813,-3.7724,-1.8301
-6.9652,-10.117,-7.0978,-9.8522,-11.715,-12.569,-13.198,-2.0261,-10.152,-9.8522,-11.715,-10.837,-8.6312,-7.8161,-8.0,-8.9769,-13.93,8.9782,-0.13008,-0.84553,2.0915
-8.9552,-15.142,-12.073,-9.8522,-9.7735,-13.611,-14.213,-3.0065,-11.168,-9.8522,-9.7735,-12.808,-5.7327,-4.8604,-7.0,-9.967,-15.92,4.9581,-2.0813,-1.8211,0.13072
-8.9552,-15.142,-14.063,-8.867,-7.8317,-14.653,-14.213,-4.9673,-7.1066,-8.867,-7.8317,-12.808,-5.7327,-4.8604,-6.0,-11.947,-15.92,8.9782,-3.0569,0.13008,0.13072
-11.94,-18.157,-17.048,-9.8522,-9.7735,-15.694,-15.228,-4.9673,-5.0761,-9.8522,-9.7735,-14.778,-9.5974,-9.7865,-10.0,-15.908,-18.905001,-3.0821,-6.9593,-5.7236,-8.6928
-15.92,-20.167999,-18.042999,-10.837,-10.744,-16.736,-15.228,-3.9869,-7.1066,-10.837,-10.744,-15.764,-13.462,-12.742,-13.0,-18.878,-18.905001,-9.1122,-9.8862,-12.553,-16.535999
-16.915001,-20.167999,-19.038,-9.8522,-8.8026,-16.736,-14.213,-5.9477,-4.0609,-9.8522,-8.8026,-14.778,-15.395,-13.727,-14.0,-19.868,-19.9,-5.0921,-10.862,-12.553,-18.497
-19.9,-19.162001,-21.028,-8.867,-4.9191,-17.778,-11.168,-9.8693,0.0,-8.867,-4.9191,-13.793,-15.395,-15.698,-18.0,-21.848,-22.886,-16.146999,-11.837,-16.455,-17.516001
-22.886,-17.152,-22.023001,-8.867,-2.9773,-19.861,-7.1066,-10.85,2.0305,-8.867,-2.9773,-12.808,-15.395,-14.713,-21.0,-20.858,-23.881001,-17.152,-8.9106,-20.358,-15.556
-24.875999,-16.146999,-21.028,-8.867,-2.9773,-19.861,-6.0914,-10.85,0.0,-8.867,-2.9773,-11.823,-13.462,-13.727,-21.0,-17.888,-21.891001,-14.137,-5.0081,-21.333,-15.556
-21.891001,-13.132,-19.038,-7.8818,-3.9482,-17.778,-6.0914,-9.8693,-2.0305,-7.8818,-3.9482,-9.8522,-11.53,-10.772,-19.0,-14.917,-18.905001,-12.127,-5.0081,-17.431,-12.614
-16.915001,-12.127,-16.052999,-7.8818,-5.89,-16.736,-7.1066,-7.9085,-2.0305,-7.8818,-5.89,-10.837,-8.6312,-6.8309,-16.0,-11.947,-15.92,-10.117,-6.9593,-14.504,-8.6928
-15.92,-13.132,-15.058,-11.823,-7.8317,-17.778,-9.1371,-8.8889,-4.0609,-11.823,-7.8317,-12.808,-5.7327,-3.8752,-15.0,-10.957,-13.93,-11.122,-3.0569,-12.553,-7.7124
-18.905001,-14.137,-14.063,-12.808,-10.744,-17.778,-11.168,-8.8889,-6.0914,-12.808,-10.744,-12.808,-7.6651,-4.8604,-18.0,-10.957,-14.925,-14.137,-4.0325,-12.553,-2.8105
-22.886,-16.146999,-14.063,-12.808,-9.7735,-16.736,-12.183,-9.8693,-6.0914,-12.808,-9.7735,-11.823,-14.428,-9.7865,-21.0,-12.937,-16.915001,-17.152,-9.8862,-13.528,-8.6928
-18.905001,-13.132,-9.0879,-6.8966,-4.9191,-9.4444,-8.1218,-5.9477,-3.0457,-6.8966,-4.9191,-5.9113,-13.462,-9.7865,-18.0,-10.957,-13.93,-13.132,-7.935,-16.455,-11.634
-12.935,-6.0972,-2.1227,-1.9704,-2.0065,-2.1528,-1.0152,-1.0458,0.0,-1.9704,-2.0065,1.9704,-9.5974,-8.8013,-16.0,-7.9868,-12.935,-11.122,-2.0813,-20.358,-4.7712
-13.93,-4.0871,-1.1277,-3.9409,-2.9773,-3.1944,0.0,-3.0065,0.0,-3.9409,-2.9773,2.9557,-13.462,-13.727,-19.0,-8.9769,-14.925,-8.1072,-3.0569,-24.26,-7.7124
-10.945,0.93802,0.86235,-3.9409,-1.0356,-4.2361,4.0609,-4.9673,3.0457,-3.9409,-1.0356,4.9261,-15.395,-15.698,-18.0,-7.9868,-13.93,-3.0821,1.8211,-22.309,-8.6928
-4.9751,7.9732,5.8375,0.0,3.8188,-1.1111,10.152,-1.0458,9.1371,0.0,3.8188,9.8522,-9.5974,-8.8013,-11.0,-3.0363,-6.9652,-7.1022,6.6992,-12.553,-2.8105
-2.9851,8.9782,6.8325,4.9261,6.7314,2.0139,13.198,1.8954,10.152,4.9261,6.7314,11.823,-5.7327,-3.8752,-7.0,-0.06601,-3.9801,-16.146999,5.7236,-10.602,-2.8105
-1.99,6.9682,7.8275,6.8966,8.6731,4.0972,13.198,1.8954,9.1371,6.8966,8.6731,12.808,-5.7327,-3.8752,-8.0,-1.0561,-2.9851,-12.127,4.748,-15.48,-3.7908
-2.9851,0.93802,3.8474,4.9261,5.7605,3.0556,10.152,0.91503,7.1066,4.9261,5.7605,9.8522,-8.6312,-5.8456,-11.0,-6.0066,-6.9652,-10.117,-2.0813,-18.407,-8.6928
-6.9652,-6.0972,-2.1227,0.0,0.90615,-1.1111,5.0761,-3.0065,0.0,0.0,0.90615,4.9261,-9.5974,-7.8161,-13.0,-9.967,-9.9502,-14.137,-8.9106,-16.455,-10.654
-7.9602,-8.1072,-5.1078,-2.9557,-1.0356,-4.2361,2.0305,-3.9869,-1.0152,-2.9557,-1.0356,0.98522,-6.6989,-6.8309,-11.0,-8.9769,-9.9502,-9.1122,-8.9106,-10.602,-7.7124
-6.9652,-6.0972,-4.1128,-3.9409,-2.9773,-3.1944,3.0457,-2.0261,-2.0305,-3.9409,-2.9773,0.98522,0.06441,0.06568,-5.0,-4.0264,-5.9701,-10.117,-3.0569,-2.7967,-2.8105
-6.9652,-5.0921,-4.1128,-1.9704,-0.06472,-4.2361,3.0457,-2.0261,0.0,-1.9704,-0.06472,0.98522,3.9291,4.0066,-3.0,-0.06601,-1.99,-6.0972,-2.0813,-4.748,-2.8105
-5.9701,-4.0871,-2.1227,0.98522,2.8479,-4.2361,2.0305,-2.0261,2.0305,0.98522,2.8479,0.98522,5.8615,4.9918,1.0,0.92409,1.99,-6.0972,-3.0569,-3.7724,-1.8301
-5.9701,-7.1022,-3.1177,-0.98522,0.90615,-6.3194,-2.0305,-3.0065,-1.0152,-0.98522,0.90615,-2.9557,3.9291,0.06568,3.0,-3.0363,0.99502,-8.1072,-3.0569,0.13008,-0.84967
-4.9751,-10.117,-6.1028,-4.9261,-1.0356,-9.4444,-6.0914,-6.9281,-4.0609,-4.9261,-1.0356,-6.8966,-0.90177,-5.8456,0.0,-7.9868,-2.9851,-8.1072,-6.9593,-2.7967,-4.7712
-1.99,-10.117,-8.0929,-8.867,-3.9482,-12.569,-8.1218,-6.9281,-4.0609,-8.867,-3.9482,-8.867,-4.7665,-7.8161,-1.0,-11.947,-5.9701,-5.0921,-9.8862,-2.7967,-7.7124
0.99502,-9.1122,-7.0978,-9.8522,-4.9191,-12.569,-8.1218,-4.9673,-3.0457,-9.8522,-4.9191,-9.8522,-6.6989,-7.8161,-1.0,-11.947,-6.9652,-1.072,-6.9593,-0.84553,-9.6732
4.9751,-5.0921,-1.1277,-5.9113,-2.0065,-9.4444,-6.0914,-3.0065,-3.0457,-5.9113,-2.0065,-6.8966,-4.7665,-2.89,3.0,-6.9967,-2.9851,-1.072,-3.0569,4.0325,-6.732
3.9801,0.93802,1.8574,-5.9113,-2.0065,-8.4028,-6.0914,-3.9869,-2.0305,-5.9113,-2.0065,-5.9113,-1.868,2.0361,6.0,-0.06601,2.9851,-4.0871,1.8211,4.0325,-0.84967
2.9851,4.9581,3.8474,-7.8818,-2.9773,-9.4444,-5.0761,-6.9281,0.0,-7.8818,-2.9773,-6.8966,3.9291,5.977,8.0,4.8845,6.9652,0.93802,3.7724,5.9837,4.0523
3.9801,7.9732,4.8425,-8.867,-3.9482,-10.486,-5.0761,-9.8693,0.0,-8.867,-3.9482,-6.8966,6.8277,6.9622,9.0,6.8647,9.9502,8.9782,1.8211,10.862,6.9935
6.9652,10.988,8.8226,-7.8818,-2.0065,-10.486,-1.0152,-8.8889,0.0,-7.8818,-2.0065,-4.9261,8.7601,10.903,10.0,11.815,12.935,6.9682,3.7724,11.837,10.915
5.9701,10.988,8.8226,-8.867,-3.9482,-10.486,-1.0152,-7.9085,0.0,-8.867,-3.9482,-5.9113,10.692,12.874,10.0,12.805,12.935,0.93802,3.7724,8.9106,12.876
6.9652,15.008,10.813,-4.9261,-2.9773,-7.3611,2.0305,-3.9869,2.0305,-4.9261,-2.9773,-2.9557,14.557,16.813999,14.0,15.776,16.915001,0.93802,6.6992,11.837,16.797001
6.9652,15.008,11.808,-5.9113,-2.9773,-7.3611,2.0305,-4.9673,1.0152,-5.9113,-2.9773,-2.9557,12.625,11.888,14.0,13.795,14.925,-3.0821,6.6992,10.862,15.817
6.9652,11.993,8.8226,-8.867,-4.9191,-10.486,-2.0305,-6.9281,-2.0305,-8.867,-4.9191,-5.9113,10.692,9.9179,15.0,12.805,12.935,0.93802,4.748,13.789,15.817
11.94,9.9832,7.8275,-7.8818,-4.9191,-7.3611,0.0,-4.9673,-1.0152,-7.8818,-4.9191,-2.9557,14.557,13.859,17.0,14.785,13.93,10.988,4.748,15.74,18.757999
10.945,5.9631,5.8375,-7.8818,-5.89,-7.3611,-2.0305,-3.9869,-3.0457,-7.8818,-5.89,-2.9557,18.422001,18.785,17.0,14.785,13.93,10.988,5.7236,18.667,15.817
9.9502,3.9531,3.8474,-7.8818,-7.8317,-8.4028,-4.0609,-3.0065,-3.0457,-7.8818,-7.8317,-4.9261,18.422001,18.785,16.0,13.795,15.92,5.9631,7.6748,17.691,11.895
6.9652,3.9531,6.8325,-8.867,-7.8317,-10.486,-4.0609,-3.0065,-3.0457,-8.867,-7.8317,-5.9113,13.591,16.813999,14.0,12.805,16.915001,2.9481,1.8211,10.862,9.9346
8.9552,4.9581,9.8176,-9.8522,-6.8608,-12.569,-4.0609,-3.9869,-4.0609,-9.8522,-6.8608,-7.8818,13.591,16.813999,17.0,13.795,18.905001,-0.067,-2.0813,12.813,8.9542
9.9502,6.9682,9.8176,-9.8522,-7.8317,-14.653,-4.0609,-3.9869,-4.0609,-9.8522,-7.8317,-9.8522,15.523,17.799999,20.0,13.795,20.896,4.9581,-1.1057,19.642,9.9346
5.9701,5.9631,6.8325,-13.793,-10.744,-19.861,-8.1218,-6.9281,-5.0761,-13.793,-10.744,-16.749001,16.49,15.829,18.0,11.815,19.9,10.988,-1.1057,13.789,7.9739
0.99502,5.9631,5.8375,-16.749001,-15.599,-24.028,-9.1371,-10.85,-3.0457,-16.749001,-15.599,-19.704,15.523,14.844,16.0,11.815,19.9,2.9481,1.8211,8.9106,8.9542
3.9801,8.9782,8.8226,-14.778,-13.657,-21.944,-6.0914,-10.85,-3.0457,-14.778,-13.657,-15.764,12.625,11.888,16.0,11.815,19.9,4.9581,4.748,7.935,9.9346
7.9602,10.988,12.803,-11.823,-8.8026,-16.736,-1.0152,-6.9281,0.0,-11.823,-8.8026,-10.837,12.625,10.903,17.0,11.815,18.905001,3.9531,8.6504,11.837,8.9542
9.9502,11.993,11.808,-9.8522,-4.9191,-12.569,2.0305,-3.9869,3.0457,-9.8522,-4.9191,-7.8818,13.591,12.874,14.0,10.825,15.92,3.9531,11.577,7.935,9.9346
7.9602,11.993,10.813,-8.867,-3.9482,-9.4444,4.0609,-3.0065,7.1066,-8.867,-3.9482,-5.9113,13.591,12.874,9.0,8.8449,11.94,-8.1072,10.602,-0.84553,6.9935
5.9701,10.988,11.808,-9.8522,-4.9191,-9.4444,3.0457,-5.9477,7.1066,-9.8522,-4.9191,-4.9261,11.659,11.888,8.0,7.8548,10.945,-11.122,7.6748,-1.8211,6.9935
8.9552,9.9832,13.798,-10.837,-2.9773,-7.3611,2.0305,-7.9085,7.1066,-10.837,-2.9773,-2.9557,12.625,12.874,11.0,8.8449,12.935,-0.067,8.6504,3.0569,8.9542
13.93,10.988,17.778,-6.8966,-0.06472,0.97222,5.0761,-3.0065,7.1066,-6.8966,-0.06472,1.9704,16.49,14.844,18.0,11.815,17.91,1.943,12.553,7.935,12.876
16.915001,11.993,18.773001,-2.9557,1.877,7.2222,8.1218,2.8758,8.1218,-2.9557,1.877,5.9113,16.49,12.874,19.0,12.805,19.9,9.9832,11.577,12.813,11.895
12.935,10.988,16.783001,-0.98522,1.877,8.2639,9.1371,4.8366,11.168,-0.98522,1.877,7.8818,12.625,9.9179,14.0,11.815,15.92,15.008,8.6504,14.764,10.915
9.9502,9.9832,11.808,0.0,3.8188,6.1806,7.1066,1.8954,9.1371,0.0,3.8188,6.8966,10.692,5.977,11.0,8.8449,10.945,16.013,8.6504,12.813,11.895
15.92,18.023001,13.798,1.9704,5.7605,8.2639,11.168,3.8562,15.228,1.9704,5.7605,10.837,17.455999,14.844,19.0,16.766001,15.92,15.008,18.407,22.569,21.698999
15.92,17.018,10.813,0.0,3.8188,8.2639,11.168,0.91503,12.183,0.0,3.8188,10.837,18.422001,17.799999,19.0,17.756001,14.925,19.028,21.333,21.593,22.68
10.945,11.993,5.8375,1.9704,3.8188,8.2639,9.1371,3.8562,6.0914,1.9704,3.8188,8.867,15.523,14.844,14.0,12.805,9.9502,5.9631,11.577,12.813,13.856
11.94,8.9782,4.8425,7.8818,6.7314,13.472,11.168,7.7778,8.1218,7.8818,6.7314,13.793,12.625,14.844,12.0,10.825,7.9602,-0.067,3.7724,14.764,11.895
10.945,8.9782,5.8375,9.8522,8.6731,16.597,14.213,6.7974,10.152,9.8522,8.6731,17.733999,9.7262,11.888,10.0,8.8449,6.9652,5.9631,5.7236,11.837,11.895
9.9502,9.9832,5.8375,8.867,7.7023,14.514,13.198,5.817,8.1218,8.867,7.7023,17.733999,7.7939,8.9327,7.0,8.8449,4.9751,10.988,5.7236,8.9106,13.856
4.9751,5.9631,2.8524,5.9113,5.7605,10.347,9.1371,5.817,6.0914,5.9113,5.7605,13.793,5.8615,7.9475,5.0,6.8647,1.99,14.003,2.7967,9.8862,11.895
-3.9801,-0.067,-3.1177,3.9409,2.8479,5.1389,6.0914,3.8562,3.0457,3.9409,2.8479,8.867,2.963,6.9622,-1.0,3.8944,-1.99,6.9682,1.8211,1.1057,5.0327
-6.9652,-3.0821,-6.1028,3.9409,2.8479,2.0139,3.0457,1.8954,2.0305,3.9409,2.8479,5.9113,2.963,7.9475,-4.0,2.9043,-1.99,-0.067,2.7967,-3.7724,5.0327
-5.9701,-5.0921,-8.0929,2.9557,-0.06472,-1.1111,0.0,0.91503,-1.0152,2.9557,-0.06472,0.98522,3.9291,6.9622,-3.0,0.92409,-2.9851,-2.0771,3.7724,-1.8211,6.0131
-3.9801,-4.0871,-8.0929,2.9557,-1.0356,-0.06944,0.0,2.8758,-2.0305,2.9557,-1.0356,0.0,1.9968,3.0213,-3.0,-2.0462,-3.9801,-3.0821,0.84553,-0.84553,3.0719
-5.9701,-7.1022,-12.073,0.98522,-1.0356,-2.1528,-1.0152,3.8562,-2.0305,0.98522,-1.0356,-2.9557,0.06441,0.06568,-5.0,-6.0066,-7.9602,4.9581,-5.9837,-3.7724,1.1111
-5.9701,-9.1122,-16.052999,-0.98522,-1.0356,-3.1944,-3.0457,2.8758,-1.0152,-0.98522,-1.0356,-4.9261,1.9968,2.0361,-3.0,-5.0165,-8.9552,15.008,-6.9593,-0.84553,3.0719
-3.9801,-6.0972,-17.048,-0.98522,-1.0356,-3.1944,-4.0609,3.8562,-1.0152,-0.98522,-1.0356,-5.9113,6.8277,6.9622,1.0,-1.0561,-5.9701,7.9732,-2.0813,6.9593,6.0131
-3.9801,-4.0871,-16.052999,-0.98522,-2.9773,-2.1528,-5.0761,4.8366,-6.0914,-0.98522,-2.9773,-7.8818,13.591,12.874,3.0,2.9043,-2.9851,-0.067,-0.13008,6.9593,6.9935
-0.99502,-0.067,-12.073,0.0,-1.0356,-1.1111,-3.0457,1.8954,-3.0457,0.0,-1.0356,-5.9113,20.354,20.754999,6.0,8.8449,2.9851,2.9481,2.7967,5.9837,11.895
1.99,4.9581,-6.1028,0.98522,1.877,3.0556,1.0152,1.8954,1.0152,0.98522,1.877,0.0,25.184999,25.681,7.0,12.805,5.9701,5.9631,4.748,9.8862,13.856
1.99,7.9732,-2.1227,3.9409,2.8479,8.2639,4.0609,2.8758,1.0152,3.9409,2.8479,3.9409,24.219,22.726,5.0,10.825,4.9751,6.9682,5.7236,8.9106,11.895
6.9652,17.018,6.8325,5.9113,5.7605,12.431,10.152,5.817,7.1066,5.9113,5.7605,7.8818,26.150999,22.726,11.0,15.776,10.945,14.003,12.553,15.74,19.739
10.945,19.028,10.813,2.9557,3.8188,10.347,10.152,4.8366,7.1066,2.9557,3.8188,5.9113,27.118,21.740999,15.0,17.756001,13.93,26.063999,14.504,17.691,17.778
11.94,16.013,9.8176,-2.9557,-2.0065,3.0556,3.0457,-1.0458,1.0152,-2.9557,-2.0065,-0.98522,23.253,20.754999,15.0,15.776,12.935,8.9782,12.553,18.667,14.837
18.905001,23.049,15.788,0.98522,1.877,7.2222,6.0914,2.8758,3.0457,0.98522,1.877,3.9409,23.253,25.681,17.0,20.726,16.915001,7.9732,18.407,17.691,23.66
22.886,28.073999,22.753,5.9113,6.7314,11.389,12.183,5.817,7.1066,5.9113,6.7314,10.837,20.354,27.652,18.0,22.705999,18.905001,18.023001,20.358,16.715,20.719
18.905001,25.059,22.753,4.9261,5.7605,8.2639,13.198,4.8366,10.152,4.9261,5.7605,10.837,13.591,20.754999,13.0,17.756001,14.925,10.988,20.358,10.862,14.837
12.935,21.039,18.773001,2.9557,1.877,4.0972,10.152,3.8562,12.183,2.9557,1.877,7.8818,7.7939,14.844,7.0,14.785,10.945,4.9581,22.309,5.9837,14.837
12.935,19.028,17.778,1.9704,1.877,6.1806,10.152,3.8562,12.183,1.9704,1.877,8.867,7.7939,13.859,8.0,12.805,8.9552,9.9832,15.48,7.935,11.895
15.92,20.034,17.778,3.9409,4.7896,12.431,13.198,7.7778,14.213,3.9409,4.7896,12.808,9.7262,13.859,9.0,12.805,8.9552,20.034,12.553,9.8862,15.817
13.93,14.003,12.803,5.9113,4.7896,13.472,11.168,10.719,11.168,5.9113,4.7896,12.808,6.8277,8.9327,6.0,7.8548,3.9801,24.054001,11.577,10.862,12.876
9.9502,6.9682,6.8325,3.9409,1.877,10.347,7.1066,8.7582,6.0914,3.9409,1.877,9.8522,1.9968,2.0361,3.0,1.9142,-0.99502,7.9732,4.748,8.9106,5.0327
10.945,6.9682,5.8375,2.9557,-1.0356,11.389,7.1066,8.7582,3.0457,2.9557,-1.0356,8.867,1.9968,0.06568,5.0,0.92409,-0.99502,7.9732,1.8211,8.9106,4.0523
14.925,8.9782,7.8275,5.9113,2.8479,13.472,8.1218,12.68,5.0761,5.9113,2.8479,9.8522,5.8615,5.977,10.0,5.8746,3.9801,20.034,2.7967,13.789,8.9542
14.925,7.9732,8.8226,5.9113,4.7896,13.472,8.1218,12.68,6.0914,5.9113,4.7896,8.867,11.659,10.903,14.0,7.8548,8.9552,18.023001,2.7967,13.789,8.9542
12.935,3.9531,4.8425,4.9261,1.877,13.472,4.0609,13.66,0.0,4.9261,1.877,6.8966,13.591,10.903,15.0,5.8746,9.9502,20.034,1.8211,16.715,8.9542
7.9602,1.943,0.86235,2.9557,-1.0356,11.389,2.0305,12.68,0.0,2.9557,-1.0356,3.9409,9.7262,8.9327,9.0,2.9043,4.9751,19.028,0.84553,12.813,5.0327
3.9801,5.9631,2.8524,1.9704,-1.0356,10.347,5.0761,8.7582,3.0457,1.9704,-1.0356,4.9261,5.8615,9.9179,3.0,4.8845,3.9801,10.988,3.7724,5.9837,7.9739
1.99,8.9782,4.8425,4.9261,2.8479,11.389,8.1218,7.7778,8.1218,4.9261,2.8479,6.8966,5.8615,11.888,0.0,8.8449,3.9801,0.93802,4.748,4.0325,12.876
-0.99502,6.9682,3.8474,6.8966,5.7605,11.389,9.1371,8.7582,7.1066,6.8966,5.7605,8.867,5.8615,10.903,-2.0,8.8449,3.9801,1.943,1.8211,4.0325,10.915
-3.9801,3.9531,2.8524,7.8818,5.7605,11.389,8.1218,5.817,4.0609,7.8818,5.7605,8.867,1.9968,4.9918,-5.0,2.9043,0.99502,7.9732,-2.0813,-3.7724,3.0719
-0.99502,4.9581,4.8425,6.8966,3.8188,12.431,9.1371,3.8562,4.0609,6.8966,3.8188,11.823,1.0306,2.0361,-4.0,0.92409,1.99,5.9631,-1.1057,-2.7967,0.13072
2.9851,4.9581,7.8275,5.9113,1.877,13.472,9.1371,6.7974,5.0761,5.9113,1.877,12.808,-1.868,1.0509,-1.0,0.92409,2.9851,0.93802,-0.13008,-2.7967,0.13072
6.9652,5.9631,8.8226,6.8966,4.7896,13.472,10.152,7.7778,7.1066,6.8966,4.7896,13.793,-3.8003,3.0213,2.0,2.9043,4.9751,5.9631,4.748,2.0813,3.0719
9.9502,9.9832,10.813,7.8818,7.7023,14.514,12.183,9.7386,7.1066,7.8818,7.7023,14.778,1.0306,6.9622,8.0,5.8746,8.9552,11.993,6.6992,8.9106,5.0327
10.945,10.988,10.813,7.8818,8.6731,13.472,12.183,9.7386,7.1066,7.8818,8.6731,13.793,6.8277,9.9179,12.0,9.835,12.935,16.013,5.7236,13.789,6.0131
10.945,8.9782,11.808,6.8966,6.7314,12.431,10.152,9.7386,4.0609,6.8966,6.7314,11.823,7.7939,9.9179,12.0,10.825,13.93,14.003,0.84553,10.862,3.0719
6.9652,6.9682,10.813,4.9261,3.8188,12.431,7.1066,8.7582,1.0152,4.9261,3.8188,9.8522,2.963,5.977,7.0,8.8449,10.945,9.9832,-2.0813,2.0813,1.1111
1.99,3.9531,6.8325,6.8966,3.8188,11.389,7.1066,7.7778,5.0761,6.8966,3.8188,7.8818,-3.8003,0.06568,0.0,4.8845,3.9801,-1.072,-0.13008,-0.84553,3.0719
0.0,2.9481,3.8474,6.8966,3.8188,10.347,8.1218,8.7582,9.1371,6.8966,3.8188,6.8966,-7.6651,-5.8456,-5.0,-1.0561,-1.99,-3.0821,1.8211,-2.7967,1.1111
0.99502,1.943,2.8524,6.8966,4.7896,9.3056,7.1066,8.7582,9.1371,6.8966,4.7896,5.9113,-9.5974,-7.8161,-5.0,-6.0066,-3.9801,4.9581,-0.13008,-0.84553,-4.7712
1.99,-0.067,1.8574,5.9113,4.7896,9.3056,6.0914,6.7974,8.1218,5.9113,4.7896,6.8966,-9.5974,-6.8309,-5.0,-6.9967,-4.9751,4.9581,-0.13008,0.13008,-4.7712
-0.99502,-2.0771,-1.1277,1.9704,3.8188,5.1389,4.0609,3.8562,6.0914,1.9704,3.8188,2.9557,-7.6651,-5.8456,-4.0,-6.9967,-4.9751,1.943,-1.1057,-0.84553,-6.732
2.9851,-0.067,-2.1227,1.9704,5.7605,5.1389,6.0914,5.817,7.1066,1.9704,5.7605,3.9409,0.06441,1.0509,1.0,-3.0363,-0.99502,14.003,0.84553,5.9837,-2.8105
9.9502,5.9631,4.8425,3.9409,6.7314,10.347,10.152,8.7582,10.152,3.9409,6.7314,8.867,9.7262,10.903,7.0,6.8647,6.9652,19.028,8.6504,10.862,6.9935
6.9652,0.93802,0.86235,-0.98522,-0.06472,6.1806,4.0609,5.817,7.1066,-0.98522,-0.06472,1.9704,5.8615,6.9622,5.0,3.8944,3.9801,4.9581,1.8211,5.9837,2.0915
2.9851,-3.0821,-3.1177,-5.9113,-5.89,2.0139,-2.0305,0.91503,2.0305,-5.9113,-5.89,-3.9409,0.06441,0.06568,3.0,-0.06601,1.99,-1.072,-5.0081,4.0325,-0.84967
8.9552,5.9631,3.8474,-0.98522,-2.0065,9.3056,3.0457,5.817,4.0609,-0.98522,-2.0065,2.9557,7.7939,7.9475,11.0,8.8449,9.9502,5.9631,4.748,10.862,10.915
7.9602,11.993,5.8375,1.9704,0.90615,12.431,8.1218,10.719,8.1218,1.9704,0.90615,6.8966,13.591,14.844,13.0,16.766001,14.925,8.9782,8.6504,9.8862,17.778
2.9851,9.9832,2.8524,2.9557,1.877,10.347,8.1218,6.7974,9.1371,2.9557,1.877,6.8966,7.7939,10.903,8.0,14.785,12.935,6.9682,7.6748,3.0569,15.817
0.99502,7.9732,0.86235,3.9409,2.8479,9.3056,10.152,4.8366,9.1371,3.9409,2.8479,6.8966,0.06441,5.977,3.0,11.815,8.9552,8.9782,1.8211,1.1057,7.9739
4.9751,8.9782,1.8574,6.8966,3.8188,11.389,11.168,8.7582,8.1218,6.8966,3.8188,7.8818,-0.90177,5.977,4.0,10.825,8.9552,21.039,1.8211,4.0325,6.0131
5.9701,7.9732,1.8574,3.9409,0.90615,8.2639,7.1066,6.7974,4.0609,3.9409,0.90615,5.9113,-0.90177,6.9622,3.0,9.835,6.9652,7.9732,3.7724,3.0569,7.9739
4.9751,8.9782,2.8524,0.98522,-1.0356,6.1806,6.0914,3.8562,3.0457,0.98522,-1.0356,4.9261,1.9968,11.888,3.0,11.815,7.9602,-4.0871,11.577,0.13008,14.837
7.9602,9.9832,3.8474,3.9409,1.877,8.2639,9.1371,5.817,7.1066,3.9409,1.877,8.867,7.7939,15.829,6.0,12.805,8.9552,-2.0771,16.455,3.0569,18.757999
6.9652,5.9631,1.8574,3.9409,2.8479,6.1806,9.1371,4.8366,9.1371,3.9409,2.8479,8.867,2.963,10.903,3.0,8.8449,3.9801,6.9682,10.602,2.0813,13.856
3.9801,4.9581,-0.13267,3.9409,4.7896,5.1389,8.1218,5.817,10.152,3.9409,4.7896,6.8966,0.06441,7.9475,0.0,6.8647,1.99,10.988,8.6504,-0.84553,13.856
0.0,3.9531,-3.1177,3.9409,4.7896,5.1389,5.0761,4.8366,7.1066,3.9409,4.7896,2.9557,2.963,8.9327,-3.0,6.8647,1.99,14.003,5.7236,-3.7724,9.9346
-0.99502,4.9581,-2.1227,5.9113,4.7896,6.1806,3.0457,5.817,6.0914,5.9113,4.7896,2.9557,12.625,16.813999,-2.0,8.8449,2.9851,4.9581,7.6748,-2.7967,10.915
-4.9751,-1.072,-6.1028,4.9261,0.90615,3.0556,-1.0152,4.8366,1.0152,4.9261,0.90615,-0.98522,16.49,16.813999,-3.0,4.8845,-0.99502,-2.0771,8.6504,-2.7967,10.915
-5.9701,-6.0972,-10.083,2.9557,-2.9773,2.0139,-6.0914,3.8562,-3.0457,2.9557,-2.9773,-3.9409,16.49,12.874,-1.0,0.92409,-4.9751,-1.072,4.748,2.0813,9.9346
-2.9851,-4.0871,-8.0929,1.9704,-2.0065,3.0556,-6.0914,3.8562,-1.0152,1.9704,-2.0065,-2.9557,13.591,10.903,1.0,0.92409,-4.9751,-6.0972,5.7236,4.0325,6.9935
-1.99,-1.072,-4.1128,2.9557,-0.06472,3.0556,-2.0305,3.8562,1.0152,2.9557,-0.06472,0.0,13.591,12.874,1.0,3.8944,-0.99502,-4.0871,3.7724,1.1057,6.9935
-0.99502,-2.0771,-3.1177,4.9261,3.8188,4.0972,1.0152,2.8758,5.0761,4.9261,3.8188,2.9557,17.455999,15.829,1.0,4.8845,0.99502,-0.067,5.7236,-0.84553,8.9542
1.99,-4.0871,-2.1227,4.9261,4.7896,6.1806,1.0152,5.817,6.0914,4.9261,4.7896,4.9261,17.455999,16.813999,1.0,5.8746,2.9851,0.93802,7.6748,2.0813,9.9346
3.9801,-2.0771,-2.1227,2.9557,2.8479,6.1806,-2.0305,3.8562,5.0761,2.9557,2.8479,0.98522,15.523,16.813999,4.0,7.8548,5.9701,3.9531,9.626,4.0325,9.9346
3.9801,1.943,-2.1227,1.9704,0.90615,3.0556,-2.0305,1.8954,4.0609,1.9704,0.90615,-1.9704,10.692,15.829,4.0,11.815,8.9552,-2.0771,10.602,3.0569,11.895
-1.99,-0.067,-6.1028,0.0,-1.0356,-0.06944,-4.0609,-0.06536,2.0305,0.0,-1.0356,-5.9113,4.8953,7.9475,2.0,9.835,5.9701,-5.0921,6.6992,-0.84553,10.915
-0.99502,0.93802,-6.1028,0.98522,-1.0356,0.97222,-3.0457,1.8954,0.0,0.98522,-1.0356,-4.9261,2.963,2.0361,5.0,6.8647,5.9701,2.9481,4.748,5.0081,8.9542
7.9602,7.9732,-0.13267,2.9557,0.90615,7.2222,4.0609,5.817,6.0914,2.9557,0.90615,0.0,8.7601,5.977,15.0,9.835,9.9502,10.988,8.6504,15.74,10.915
11.94,8.9782,3.8474,0.98522,1.877,9.3056,6.0914,6.7974,8.1218,0.98522,1.877,2.9557,11.659,6.9622,19.0,8.8449,11.94,19.028,7.6748,20.618,8.9542
9.9502,4.9581,2.8524,-3.9409,-1.0356,7.2222,4.0609,4.8366,4.0609,-3.9409,-1.0356,1.9704,4.8953,-0.91954,14.0,2.9043,6.9652,16.013,2.7967,16.715,1.1111
11.94,5.9631,3.8474,0.98522,2.8479,11.389,8.1218,5.817,4.0609,0.98522,2.8479,6.8966,4.8953,2.0361,14.0,5.8746,6.9652,5.9631,1.8211,16.715,3.0719
13.93,9.9832,5.8375,5.9113,8.6731,16.597,15.228,5.817,10.152,5.9113,8.6731,12.808,7.7939,8.9327,14.0,8.8449,9.9502,3.9531,1.8211,18.667,6.9935
8.9552,5.9631,2.8524,4.9261,8.6731,14.514,14.213,3.8562,6.0914,4.9261,8.6731,11.823,2.963,5.977,6.0,4.8845,4.9751,3.9531,-1.1057,10.862,1.1111
0.99502,-1.072,-3.1177,3.9409,6.7314,10.347,9.1371,1.8954,2.0305,3.9409,6.7314,6.8966,0.06441,0.06568,-1.0,-1.0561,-2.9851,0.93802,-3.0569,2.0813,-2.8105
-0.99502,-3.0821,-6.1028,3.9409,8.6731,7.2222,9.1371,0.91503,6.0914,3.9409,8.6731,4.9261,1.9968,-1.9048,-2.0,-4.0264,-6.9652,14.003,-2.0813,3.0569,-1.8301
-0.99502,-3.0821,-9.0879,3.9409,9.644,5.1389,8.1218,-1.0458,7.1066,3.9409,9.644,3.9409,3.9291,-0.91954,0.0,-4.0264,-5.9701,14.003,-0.13008,6.9593,0.13072
3.9801,2.9481,-4.1128,5.9113,11.586,4.0972,9.1371,-0.06536,8.1218,5.9113,11.586,4.9261,7.7939,4.9918,5.0,1.9142,0.99502,2.9481,3.7724,12.813,4.0523
7.9602,9.9832,4.8425,4.9261,10.615,2.0139,9.1371,-1.0458,8.1218,4.9261,10.615,3.9409,12.625,10.903,9.0,9.835,8.9552,1.943,6.6992,15.74,6.9935
4.9751,10.988,5.8375,0.98522,7.7023,-2.1528,7.1066,-3.9869,7.1066,0.98522,7.7023,0.98522,12.625,11.888,8.0,10.825,9.9502,2.9481,6.6992,12.813,10.915
0.0,8.9782,3.8474,-0.98522,4.7896,-4.2361,5.0761,-5.9477,8.1218,-0.98522,4.7896,-1.9704,9.7262,11.888,5.0,11.815,8.9552,-1.072,4.748,7.935,15.817
0.0,8.9782,4.8425,0.0,3.8188,-0.06944,5.0761,-4.9673,8.1218,0.0,3.8188,0.0,8.7601,12.874,6.0,11.815,10.945,2.9481,6.6992,10.862,14.837
2.9851,10.988,8.8226,0.0,2.8479,0.97222,6.0914,-3.9869,7.1066,0.0,2.8479,1.9704,10.692,12.874,7.0,10.825,10.945,14.003,7.6748,9.8862,12.876
7.9602,14.003,14.793,0.98522,2.8479,4.0972,7.1066,-0.06536,6.0914,0.98522,2.8479,4.9261,13.591,12.874,10.0,11.815,12.935,12.998,10.602,11.837,13.856
7.9602,14.003,15.788,0.98522,3.8188,4.0972,5.0761,2.8758,4.0609,0.98522,3.8188,2.9557,15.523,13.859,14.0,12.805,13.93,-3.0821,11.577,14.764,13.856
1.99,10.988,11.808,0.0,0.90615,-0.06944,1.0152,1.8954,0.0,0.0,0.90615,-0.98522,13.591,11.888,10.0,9.835,10.945,-8.1072,10.602,9.8862,10.915
-0.99502,10.988,10.813,0.98522,1.877,0.97222,3.0457,0.91503,3.0457,0.98522,1.877,0.98522,10.692,12.874,7.0,8.8449,8.9552,-0.067,10.602,5.0081,9.9346
-0.99502,15.008,13.798,3.9409,5.7605,4.0972,7.1066,-0.06536,7.1066,3.9409,5.7605,4.9261,10.692,15.829,6.0,11.815,9.9502,-5.0921,12.553,4.0325,13.856
0.0,14.003,13.798,4.9261,4.7896,4.0972,6.0914,0.91503,2.0305,4.9261,4.7896,4.9261,8.7601,13.859,5.0,12.805,9.9502,-12.127,11.577,3.0569,16.797001
2.9851,15.008,14.793,5.9113,3.8188,6.1806,6.0914,1.8954,1.0152,5.9113,3.8188,5.9113,7.7939,12.874,6.0,14.785,11.94,-8.1072,8.6504,2.0813,11.895
8.9552,20.034,18.773001,7.8818,4.7896,6.1806,12.183,2.8758,6.0914,7.8818,4.7896,9.8522,8.7601,14.844,10.0,19.736,16.915001,0.93802,9.626,4.0325,13.856
13.93,25.059,22.753,8.867,6.7314,6.1806,19.289,0.91503,10.152,8.867,6.7314,13.793,12.625,20.754999,14.0,25.677,21.891001,3.9531,12.553,5.9837,22.68
16.915001,25.059,22.753,5.9113,5.7605,7.2222,19.289,-0.06536,9.1371,5.9113,5.7605,13.793,15.523,20.754999,16.0,25.677,22.886,4.9581,10.602,5.0081,20.719
17.91,23.049,20.763,5.9113,6.7314,11.389,18.274,-1.0458,8.1218,5.9113,6.7314,13.793,17.455999,21.740999,19.0,25.677,24.875999,1.943,11.577,8.9106,18.757999
19.9,28.073999,22.753,10.837,10.615,16.597,22.334999,1.8954,10.152,10.837,10.615,18.719,21.32,23.711,22.0,28.646999,27.861,4.9581,15.48,10.862,24.641001
21.891001,33.098999,27.728001,13.793,13.528,20.764,24.365,7.7778,11.168,13.793,13.528,20.690001,25.184999,25.681,25.0,31.617001,31.841,-0.067,17.431,14.764,26.601
25.871,34.104,31.708,14.778,11.586,22.847,24.365,9.7386,12.183,14.778,11.586,22.66,28.084,31.593,31.0,34.587002,36.816002,5.9631,15.48,23.545,28.562
27.861,36.113998,32.702999,12.808,7.7023,25.972,24.365,9.7386,13.198,12.808,7.7023,23.645,30.016001,35.534,33.0,35.577999,36.816002,8.9782,17.431,25.496,31.503
27.861,35.109001,29.718,12.808,8.6731,28.056,25.381001,10.719,13.198,12.808,8.6731,25.615999,30.982,33.563,33.0,32.606998,33.831001,4.9581,21.333,27.447001,32.484001
25.871,29.079,24.743,13.793,10.615,29.097,21.32,12.68,11.168,13.793,10.615,23.645,26.150999,28.636999,30.0,26.667,27.861,15.008,17.431,25.496,26.601
19.9,16.013,15.788,12.808,6.7314,22.847,11.168,9.7386,3.0457,12.808,6.7314,14.778,21.32,20.754999,25.0,17.756001,19.9,14.003,7.6748,21.593,15.817
16.915001,10.988,12.803,10.837,3.8188,17.639,6.0914,7.7778,-1.0152,10.837,3.8188,9.8522,19.388,15.829,23.0,13.795,17.91,3.9531,5.7236,19.642,11.895
18.905001,14.003,16.783001,13.793,8.6731,21.806,11.168,8.7582,5.0761,13.793,8.6731,15.764,19.388,14.844,26.0,16.766001,20.896,9.9832,10.602,25.496,16.797001
18.905001,14.003,19.768,17.733999,11.586,27.014,13.198,10.719,3.0457,17.733999,11.586,21.674999,16.49,11.888,24.0,14.785,18.905001,18.023001,5.7236,26.472,13.856
15.92,10.988,16.783001,17.733999,10.615,27.014,11.168,11.699,0.0,17.733999,10.615,22.66,14.557,10.903,20.0,10.825,14.925,11.993,-0.13008,17.691,8.9542
10.945,4.9581,10.813,13.793,8.6731,22.847,7.1066,9.7386,-3.0457,13.793,8.6731,18.719,8.7601,6.9622,12.0,4.8845,8.9552,6.9682,-5.9837,8.9106,4.0523
6.9652,1.943,6.8325,11.823,7.7023,19.722,6.0914,8.7582,-3.0457,11.823,7.7023,15.764,3.9291,4.0066,7.0,1.9142,4.9751,9.9832,-5.0081,7.935,2.0915
1.99,-3.0821,0.86235,8.867,6.7314,13.472,3.0457,4.8366,-2.0305,8.867,6.7314,10.837,1.0306,3.0213,3.0,-0.06601,1.99,9.9832,-4.0325,7.935,1.1111
-2.9851,-7.1022,-4.1128,8.867,6.7314,8.2639,3.0457,1.8954,1.0152,8.867,6.7314,6.8966,-0.90177,1.0509,0.0,-4.0264,-0.99502,-3.0821,-4.0325,6.9593,-1.8301
-1.99,-7.1022,-4.1128,9.8522,7.7023,8.2639,5.0761,3.8562,4.0609,9.8522,7.7023,6.8966,1.9968,1.0509,2.0,-4.0264,0.0,-10.117,-0.13008,5.9837,-1.8301
1.99,-5.0921,-0.13267,9.8522,6.7314,7.2222,6.0914,5.817,5.0761,9.8522,6.7314,6.8966,3.9291,2.0361,8.0,-1.0561,2.9851,-2.0771,-3.0569,5.9837,0.13072
10.945,4.9581,9.8176,11.823,8.6731,11.389,10.152,7.7778,8.1218,11.823,8.6731,10.837,11.659,6.9622,17.0,6.8647,11.94,5.9631,-0.13008,9.8862,6.9935
13.93,7.9732,10.813,10.837,9.644,11.389,9.1371,8.7582,6.0914,10.837,9.644,7.8818,11.659,6.9622,18.0,9.835,13.93,7.9732,2.7967,11.837,5.0327
13.93,8.9782,10.813,9.8522,6.7314,9.3056,6.0914,6.7974,1.0152,9.8522,6.7314,4.9261,8.7601,3.0213,14.0,8.8449,11.94,10.988,-1.1057,6.9593,0.13072
17.91,14.003,15.788,10.837,6.7314,9.3056,8.1218,6.7974,2.0305,10.837,6.7314,6.8966,12.625,5.977,18.0,13.795,15.92,20.034,1.8211,10.862,5.0327
11.94,11.993,11.808,7.8818,2.8479,5.1389,5.0761,3.8562,0.0,7.8818,2.8479,3.9409,9.7262,5.977,15.0,12.805,13.93,15.008,2.7967,12.813,4.0523
2.9851,4.9581,3.8474,4.9261,0.90615,0.97222,0.0,-2.0261,-3.0457,4.9261,0.90615,0.0,4.8953,4.0066,8.0,8.8449,8.9552,-6.0972,0.84553,5.0081,2.0915
0.99502,1.943,0.86235,5.9113,2.8479,4.0972,1.0152,-1.0458,-3.0457,5.9113,2.8479,1.9704,2.963,3.0213,4.0,6.8647,4.9751,-12.127,0.84553,0.13008,4.0523
3.9801,3.9531,3.8474,6.8966,5.7605,7.2222,5.0761,1.8954,0.0,6.8966,5.7605,4.9261,5.8615,4.9918,6.0,8.8449,6.9652,-9.1122,4.748,2.0813,6.0131
7.9602,5.9631,4.8425,4.9261,4.7896,9.3056,5.0761,1.8954,-1.0152,4.9261,4.7896,6.8966,7.7939,5.977,9.0,9.835,6.9652,0.93802,2.7967,8.9106,6.0131
8.9552,7.9732,4.8425,3.9409,1.877,9.3056,5.0761,2.8758,-3.0457,3.9409,1.877,8.867,9.7262,6.9622,10.0,8.8449,6.9652,8.9782,-1.1057,7.935,6.9935
11.94,9.9832,6.8325,5.9113,2.8479,11.389,7.1066,3.8562,-1.0152,5.9113,2.8479,10.837,14.557,10.903,12.0,9.835,9.9502,11.993,0.84553,8.9106,8.9542
12.935,7.9732,7.8275,8.867,4.7896,12.431,6.0914,6.7974,2.0305,8.867,4.7896,8.867,17.455999,12.874,14.0,9.835,10.945,4.9581,2.7967,13.789,6.0131
7.9602,0.93802,1.8574,5.9113,1.877,8.2639,1.0152,2.8758,-1.0152,5.9113,1.877,1.9704,11.659,8.9327,10.0,5.8746,5.9701,0.93802,-1.1057,7.935,1.1111
1.99,-4.0871,-5.1078,1.9704,0.90615,2.0139,-3.0457,-1.0458,0.0,1.9704,0.90615,-2.9557,5.8615,4.0066,2.0,-2.0462,-0.99502,7.9732,-6.9593,1.1057,-3.7908
0.99502,-2.0771,-4.1128,1.9704,0.90615,-0.06944,-1.0152,-1.0458,1.0152,1.9704,0.90615,-2.9557,7.7939,4.9918,1.0,-3.0363,-1.99,-5.0921,-5.0081,4.0325,-2.8105
-2.9851,-2.0771,-6.1028,0.98522,-2.0065,-3.1944,-3.0457,-1.0458,-1.0152,0.98522,-2.0065,-3.9409,11.659,6.9622,0.0,-5.0165,-2.9851,-13.132,-4.0325,7.935,-0.84967
-5.9701,-7.1022,-11.078,0.0,-2.9773,-4.2361,-5.0761,-1.0458,-1.0152,0.0,-2.9773,-5.9113,12.625,4.9918,-1.0,-6.9967,-5.9701,-2.0771,-5.0081,8.9106,-2.8105
-5.9701,-12.127,-14.063,0.0,-1.0356,-4.2361,-8.1218,0.91503,-1.0152,0.0,-1.0356,-8.867,12.625,4.0066,-1.0,-7.9868,-5.9701,8.9782,-5.9837,8.9106,-4.7712
-6.9652,-14.137,-16.052999,-1.9704,-3.9482,-6.3194,-12.183,1.8954,-1.0152,-1.9704,-3.9482,-11.823,10.692,5.977,-3.0,-6.9967,-5.9701,8.9782,-3.0569,5.9837,-3.7908
-9.9502,-12.127,-16.052999,-2.9557,-2.9773,-10.486,-13.198,-2.0261,-2.0305,-2.9557,-2.9773,-11.823,8.7601,6.9622,-5.0,-5.0165,-6.9652,0.93802,2.7967,2.0813,-3.7908
-17.91,-13.132,-19.038,-5.9113,-4.9191,-14.653,-15.228,-6.9281,-6.0914,-5.9113,-4.9191,-14.778,0.06441,2.0361,-15.0,-8.9769,-13.93,-7.1022,0.84553,-12.553,-4.7712
-19.9,-16.146999,-22.023001,-4.9261,-4.9191,-12.569,-15.228,-6.9281,-6.0914,-4.9261,-4.9191,-13.793,-5.7327,-0.91954,-19.0,-12.937,-17.91,-9.1122,-6.9593,-14.504,-7.7124
-14.925,-16.146999,-19.038,-3.9409,-2.9773,-9.4444,-12.183,-2.0261,-4.0609,-3.9409,-2.9773,-10.837,-4.7665,-0.91954,-14.0,-11.947,-15.92,-3.0821,-9.8862,-9.626,-8.6928
-8.9552,-11.122,-13.068,-3.9409,-2.0065,-8.4028,-9.1371,1.8954,-1.0152,-3.9409,-2.0065,-8.867,-1.868,1.0509,-8.0,-6.9967,-8.9552,7.9732,-5.9837,-4.748,-4.7712
-4.9751,-5.0921,-6.1028,-5.9113,-4.9191,-8.4028,-8.1218,1.8954,0.0,-5.9113,-4.9191,-7.8818,-1.868,1.0509,-4.0,-0.06601,-2.9851,12.998,-3.0569,-1.8211,3.0719
-6.9652,-4.0871,-6.1028,-5.9113,-3.9482,-9.4444,-7.1066,0.91503,-1.0152,-5.9113,-3.9482,-7.8818,-6.6989,-5.8456,-7.0,-0.06601,-2.9851,10.988,-3.0569,-2.7967,2.0915
-5.9701,-5.0921,-5.1078,-1.9704,-0.06472,-7.3611,-4.0609,1.8954,-1.0152,-1.9704,-0.06472,-2.9557,-3.8003,-6.8309,-4.0,-1.0561,-1.99,8.9782,-3.0569,2.0813,-3.7908
-2.9851,-3.0821,-3.1177,-0.98522,-0.06472,-5.2778,-1.0152,2.8758,0.0,-0.98522,-0.06472,0.0,1.9968,-4.8604,1.0,-0.06601,0.0,7.9732,-2.0813,9.8862,-5.7516
0.0,-0.067,0.86235,-1.9704,-2.0065,-4.2361,0.0,1.8954,-1.0152,-1.9704,-2.0065,0.98522,6.8277,-0.91954,5.0,3.8944,4.9751,3.9531,-4.0325,12.813,0.13072
6.9652,3.9531,5.8375,0.0,-1.0356,2.0139,2.0305,4.8366,-2.0305,0.0,-1.0356,5.9113,10.692,3.0213,12.0,6.8647,10.945,14.003,-5.9837,15.74,1.1111
5.9701,2.9481,4.8425,1.9704,1.877,4.0972,4.0609,4.8366,1.0152,1.9704,1.877,6.8966,6.8277,0.06568,8.0,4.8845,6.9652,12.998,-5.9837,12.813,-1.8301
3.9801,-0.067,-0.13267,0.98522,1.877,4.0972,4.0609,5.817,2.0305,0.98522,1.877,6.8966,1.0306,-4.8604,3.0,0.92409,0.0,11.993,-3.0569,9.8862,-2.8105
1.99,-1.072,-4.1128,2.9557,1.877,4.0972,3.0457,5.817,1.0152,2.9557,1.877,5.9113,-3.8003,-5.8456,-3.0,-1.0561,-4.9751,10.988,-0.13008,4.0325,0.13072
0.99502,-2.0771,-6.1028,3.9409,0.90615,4.0972,0.0,2.8758,-3.0457,3.9409,0.90615,3.9409,-5.7327,-5.8456,-3.0,-1.0561,-4.9751,10.988,-0.13008,0.13008,3.0719
2.9851,-2.0771,-4.1128,4.9261,0.90615,7.2222,-3.0457,5.817,-6.0914,4.9261,0.90615,2.9557,-4.7665,-5.8456,-2.0,-1.0561,-2.9851,2.9481,-4.0325,-0.84553,0.13072
1.99,-5.0921,-5.1078,1.9704,-1.0356,5.1389,-5.0761,2.8758,-5.0761,1.9704,-1.0356,0.0,-5.7327,-10.772,-3.0,-4.0264,-4.9751,-6.0972,-6.9593,-0.84553,-4.7712
0.99502,-5.0921,-5.1078,0.98522,-0.06472,3.0556,-3.0457,-0.06536,-4.0609,0.98522,-0.06472,0.0,-7.6651,-10.772,-3.0,-4.0264,-4.9751,-5.0921,-4.0325,-1.8211,-2.8105
1.99,-5.0921,-3.1177,3.9409,3.8188,5.1389,-2.0305,2.8758,-2.0305,3.9409,3.8188,2.9557,-10.564,-11.757,-4.0,-6.0066,-5.9701,-3.0821,-4.0325,-1.8211,-3.7908
0.99502,-6.0972,-4.1128,5.9113,2.8479,4.0972,-3.0457,4.8366,-1.0152,5.9113,2.8479,2.9557,-14.428,-16.683001,-6.0,-8.9769,-7.9602,-4.0871,-6.9593,-0.84553,-9.6732
-3.9801,-8.1072,-4.1128,3.9409,0.90615,-0.06944,-4.0609,1.8954,-2.0305,3.9409,0.90615,0.0,-16.361,-22.594,-8.0,-12.937,-8.9552,-5.0921,-7.935,-4.748,-14.575
-8.9552,-10.117,-8.0929,0.0,-2.9773,-4.2361,-9.1371,-0.06536,-7.1066,0.0,-2.9773,-3.9409,-18.292999,-25.549999,-11.0,-15.908,-12.935,-4.0871,-7.935,-8.6504,-16.535999
-9.9502,-9.1122,-9.0879,-2.9557,-7.8317,-7.3611,-13.198,-2.0261,-11.168,-2.9557,-7.8317,-7.8818,-20.225,-25.549999,-13.0,-15.908,-14.925,-3.0821,-7.935,-8.6504,-12.614
-7.9602,-8.1072,-8.0929,-0.98522,-6.8608,-5.2778,-14.213,0.91503,-10.152,-0.98522,-6.8608,-6.8966,-22.158001,-24.565001,-14.0,-16.898001,-16.915001,4.9581,-8.9106,-9.626,-12.614
-10.945,-12.127,-10.083,1.9704,-2.9773,-5.2778,-14.213,3.8562,-12.183,1.9704,-2.9773,-7.8818,-24.09,-24.565001,-17.0,-19.868,-18.905001,-10.117,-13.789,-14.504,-15.556
-15.92,-17.152,-14.063,0.98522,-3.9482,-8.4028,-15.228,2.8758,-12.183,0.98522,-3.9482,-10.837,-26.989,-26.535,-21.0,-22.837999,-21.891001,-11.122,-20.618,-17.431,-19.476999
-17.91,-18.157,-18.042999,-1.9704,-4.9191,-12.569,-18.274,-1.0458,-13.198,-1.9704,-4.9191,-15.764,-27.955,-25.549999,-23.0,-20.858,-22.886,-10.117,-21.593,-18.407,-18.497
-15.92,-14.137,-15.058,-2.9557,-2.9773,-12.569,-16.243999,-3.9869,-9.1371,-2.9557,-2.9773,-14.778,-23.124001,-19.639,-20.0,-15.908,-18.905001,-14.137,-16.715,-12.553,-15.556
-14.925,-12.127,-11.078,-2.9557,-2.0065,-10.486,-11.168,-4.9673,-6.0914,-2.9557,-2.0065,-10.837,-23.124001,-18.653999,-19.0,-12.937,-14.925,-10.117,-12.813,-14.504,-13.595
-10.945,-9.1122,-5.1078,0.0,0.90615,-5.2778,-6.0914,-3.0065,-2.0305,0.0,0.90615,-4.9261,-22.158001,-18.653999,-16.0,-9.967,-10.945,-10.117,-6.9593,-14.504,-8.6928
-7.9602,-8.1072,-1.1277,3.9409,5.7605,-1.1111,-1.0152,1.8954,3.0457,3.9409,5.7605,-0.98522,-17.327,-17.667999,-11.0,-7.9868,-8.9552,-7.1022,-5.0081,-6.6992,-5.7516
-12.935,-12.127,-6.1028,4.9261,6.7314,-2.1528,0.0,1.8954,6.0914,4.9261,6.7314,0.0,-17.327,-19.639,-14.0,-12.937,-12.935,-3.0821,-6.9593,-8.6504,-11.634
-10.945,-12.127,-8.0929,6.8966,8.6731,0.97222,2.0305,1.8954,4.0609,6.8966,8.6731,2.9557,-18.292999,-18.653999,-13.0,-13.927,-12.935,5.9631,-6.9593,-9.626,-14.575
-1.99,-4.0871,-2.1227,12.808,14.498,6.1806,9.1371,2.8758,10.152,12.808,14.498,10.837,-13.462,-16.683001,-5.0,-9.967,-5.9701,-1.072,-4.0325,-4.748,-10.654
-0.99502,-3.0821,-3.1177,12.808,16.440001,7.2222,13.198,0.91503,13.198,12.808,16.440001,12.808,-15.395,-20.624001,-5.0,-10.957,-6.9652,-18.157,-5.9837,-5.7236,-12.614
-1.99,-4.0871,-4.1128,12.808,17.410999,9.3056,15.228,0.91503,13.198,12.808,17.410999,15.764,-15.395,-20.624001,-6.0,-12.937,-8.9552,-16.146999,-4.0325,-7.6748,-15.556
-2.9851,-5.0921,-5.1078,12.808,17.410999,11.389,15.228,1.8954,12.183,12.808,17.410999,16.749001,-18.292999,-21.608999,-10.0,-14.917,-11.94,-12.127,-5.0081,-9.626,-15.556
-3.9801,-9.1122,-8.0929,11.823,16.440001,11.389,11.168,1.8954,9.1371,11.823,16.440001,12.808,-24.09,-26.535,-14.0,-20.858,-17.91,-3.0821,-10.862,-12.553,-22.417999
-3.9801,-10.117,-9.0879,12.808,17.410999,11.389,8.1218,2.8758,8.1218,12.808,17.410999,10.837,-25.056,-28.506001,-16.0,-22.837999,-19.9,-4.0871,-9.8862,-15.48,-22.417999
0.0,-10.117,-8.0929,12.808,16.440001,12.431,7.1066,5.817,6.0914,12.808,16.440001,10.837,-24.09,-26.535,-14.0,-19.868,-18.905001,-0.067,-7.935,-14.504,-18.497
4.9751,-9.1122,-6.1028,12.808,15.469,11.389,9.1371,3.8562,8.1218,12.808,15.469,11.823,-18.292999,-22.594,-7.0,-14.917,-11.94,1.943,-6.9593,-5.7236,-11.634
1.99,-8.1072,-4.1128,8.867,10.615,7.2222,8.1218,-1.0458,7.1066,8.867,10.615,9.8522,-15.395,-19.639,-7.0,-10.957,-8.9552,-1.072,-8.9106,-3.7724,-10.654
1.99,-4.0871,-1.1277,6.8966,9.644,5.1389,6.0914,-1.0458,5.0761,6.8966,9.644,6.8966,-9.5974,-14.713,-3.0,-6.9967,-5.9701,-8.1072,-3.0569,-3.7724,-8.6928
4.9751,-0.067,1.8574,8.867,9.644,5.1389,6.0914,-0.06536,5.0761,8.867,9.644,7.8818,-4.7665,-9.7865,1.0,-4.0264,-3.9801,-4.0871,0.84553,-2.7967,-4.7712
2.9851,-1.072,0.86235,6.8966,6.7314,5.1389,5.0761,-1.0458,1.0152,6.8966,6.7314,6.8966,-7.6651,-12.742,-1.0,-7.9868,-6.9652,-2.0771,-1.1057,-2.7967,-7.7124
2.9851,-0.067,1.8574,5.9113,4.7896,6.1806,5.0761,0.91503,1.0152,5.9113,4.7896,7.8818,-10.564,-14.713,-3.0,-9.967,-6.9652,-1.072,-1.1057,-1.8211,-10.654
8.9552,5.9631,8.8226,7.8818,5.7605,11.389,10.152,7.7778,3.0457,7.8818,5.7605,11.823,-7.6651,-9.7865,1.0,-6.9967,-1.99,2.9481,-0.13008,1.1057,-7.7124
10.945,6.9682,11.808,8.867,6.7314,13.472,12.183,9.7386,7.1066,8.867,6.7314,13.793,-7.6651,-6.8309,2.0,-4.0264,1.99,4.9581,-2.0813,-1.8211,-4.7712
7.9602,3.9531,8.8226,6.8966,5.7605,11.389,12.183,6.7974,9.1371,6.8966,5.7605,12.808,-11.53,-8.8013,-2.0,-5.0165,0.99502,3.9531,-5.9837,-7.6748,-8.6928
8.9552,5.9631,8.8226,6.8966,8.6731,10.347,13.198,4.8366,6.0914,6.8966,8.6731,13.793,-9.5974,-6.8309,0.0,-2.0462,3.9801,9.9832,-5.0081,-4.748,-8.6928
12.935,10.988,12.803,8.867,11.586,11.389,15.228,7.7778,6.0914,8.867,11.586,15.764,-0.90177,-2.89,7.0,2.9043,9.9502,4.9581,0.84553,3.0569,-5.7516
17.91,16.013,15.788,10.837,14.498,14.514,20.305,10.719,10.152,10.837,14.498,18.719,6.8277,2.0361,13.0,10.825,15.92,12.998,10.602,10.862,4.0523
19.9,19.028,16.783001,11.823,16.440001,16.597,24.365,12.68,15.228,11.823,16.440001,22.66,10.692,5.977,16.0,15.776,18.905001,17.018,16.455,13.789,8.9542
18.905001,19.028,14.793,9.8522,14.498,17.639,25.381001,11.699,17.259001,9.8522,14.498,23.645,10.692,5.977,14.0,15.776,17.91,5.9631,16.455,8.9106,7.9739
19.9,19.028,14.793,10.837,12.557,18.681,24.365,9.7386,17.259001,10.837,12.557,25.615999,9.7262,4.9918,15.0,14.785,15.92,12.998,12.553,12.813,9.9346
22.886,20.034,16.783001,12.808,14.498,20.764,23.35,10.719,14.213,12.808,14.498,25.615999,13.591,7.9475,19.0,14.785,16.915001,17.018,11.577,18.667,12.876
26.865999,23.049,20.763,14.778,16.440001,23.889,24.365,13.66,14.213,14.778,16.440001,27.586,18.422001,11.888,24.0,17.756001,21.891001,12.998,16.455,19.642,14.837
18.905001,18.023001,15.788,15.764,16.440001,19.722,22.334999,10.719,15.228,15.764,16.440001,23.645,12.625,5.977,18.0,12.805,16.915001,8.9782,10.602,13.789,7.9739
5.9701,6.9682,3.8474,10.837,10.615,9.3056,14.213,3.8562,10.152,10.837,10.615,13.793,2.963,-3.8752,7.0,3.8944,6.9652,4.9581,6.6992,4.0325,-0.84967
5.9701,5.9631,1.8574,11.823,11.586,7.2222,11.168,2.8758,7.1066,11.823,11.586,11.823,4.8953,0.06568,7.0,4.8845,4.9751,6.9682,11.577,5.9837,5.0327
8.9552,7.9732,4.8425,14.778,14.498,10.347,12.183,8.7582,8.1218,14.778,14.498,13.793,8.7601,4.9918,9.0,6.8647,6.9652,7.9732,14.504,7.935,7.9739
8.9552,8.9782,6.8325,14.778,14.498,10.347,12.183,8.7582,8.1218,14.778,14.498,13.793,6.8277,3.0213,7.0,4.8845,6.9652,9.9832,12.553,5.0081,2.0915
8.9552,7.9732,5.8375,13.793,12.557,10.347,11.168,7.7778,8.1218,13.793,12.557,11.823,6.8277,1.0509,9.0,3.8944,7.9602,11.993,8.6504,5.9837,0.13072
7.9602,2.9481,1.8574,11.823,11.586,9.3056,6.0914,5.817,4.0609,11.823,11.586,6.8966,4.8953,-2.89,9.0,0.92409,5.9701,8.9782,2.7967,6.9593,-3.7908
9.9502,-2.0771,-0.13267,8.867,8.6731,7.2222,1.0152,7.7778,3.0457,8.867,8.6731,1.9704,1.9968,-3.8752,9.0,-1.0561,3.9801,9.9832,-3.0569,10.862,-6.732
8.9552,-1.072,0.86235,8.867,8.6731,7.2222,1.0152,8.7582,5.0761,8.867,8.6731,1.9704,-1.868,-3.8752,3.0,-1.0561,0.99502,7.9732,-1.1057,6.9593,-3.7908
5.9701,0.93802,1.8574,9.8522,10.615,9.3056,2.0305,8.7582,7.1066,9.8522,10.615,3.9409,-2.8341,-3.8752,-2.0,-0.06601,-0.99502,10.988,1.8211,-1.8211,1.1111
4.9751,1.943,2.8524,9.8522,11.586,10.347,6.0914,8.7582,11.168,9.8522,11.586,4.9261,-3.8003,-3.8752,-3.0,-0.06601,-2.9851,1.943,7.6748,-4.748,3.0719
2.9851,2.9481,2.8524,6.8966,10.615,9.3056,7.1066,5.817,12.183,6.8966,10.615,5.9113,-3.8003,-2.89,-5.0,-0.06601,-4.9751,0.93802,11.577,-4.748,6.9935
0.0,2.9481,1.8574,3.9409,5.7605,6.1806,6.0914,2.8758,9.1371,3.9409,5.7605,4.9261,0.06441,3.0213,-6.0,1.9142,-3.9801,-3.0821,6.6992,-5.7236,8.9542
-0.99502,0.93802,-1.1277,1.9704,3.8188,2.0139,3.0457,0.91503,7.1066,1.9704,3.8188,1.9704,7.7939,6.9622,-5.0,1.9142,-0.99502,-11.122,3.7724,-2.7967,6.0131
0.0,-0.067,-3.1177,1.9704,2.8479,-1.1111,1.0152,0.91503,8.1218,1.9704,2.8479,-0.98522,13.591,10.903,-2.0,0.92409,0.99502,-4.0871,6.6992,3.0569,5.0327
-0.99502,-1.072,-5.1078,2.9557,4.7896,-3.1944,1.0152,-0.06536,9.1371,2.9557,4.7896,-2.9557,13.591,10.903,-1.0,-0.06601,0.99502,-3.0821,7.6748,1.1057,3.0719
-3.9801,-4.0871,-8.0929,2.9557,6.7314,-5.2778,2.0305,-3.9869,13.198,2.9557,6.7314,-3.9409,13.591,12.874,-2.0,0.92409,0.0,-2.0771,6.6992,0.13008,3.0719
-5.9701,-5.0921,-10.083,1.9704,8.6731,-6.3194,2.0305,-4.9673,14.213,1.9704,8.6731,-3.9409,14.557,14.844,0.0,0.92409,0.0,0.93802,5.7236,1.1057,6.9935
-6.9652,-3.0821,-7.0978,-0.98522,7.7023,-9.4444,0.0,-4.9673,9.1371,-0.98522,7.7023,-5.9113,16.49,13.859,2.0,1.9142,1.99,-9.1122,6.6992,-0.84553,6.9935
-7.9602,-3.0821,-6.1028,-6.8966,-0.06472,-14.653,-5.0761,-8.8889,3.0457,-6.8966,-0.06472,-11.823,14.557,9.9179,2.0,-0.06601,0.0,-9.1122,3.7724,-0.84553,1.1111
-4.9751,-3.0821,-4.1128,-8.867,-3.9482,-13.611,-6.0914,-6.9281,0.0,-8.867,-3.9482,-12.808,11.659,9.9179,3.0,0.92409,0.0,7.9732,2.7967,5.9837,2.0915
-1.99,0.93802,-4.1128,-8.867,-2.9773,-12.569,-5.0761,-6.9281,1.0152,-8.867,-2.9773,-10.837,9.7262,11.888,4.0,5.8746,1.99,15.008,9.626,7.935,10.915
-1.99,3.9531,-7.0978,-13.793,-6.8608,-14.653,-6.0914,-7.9085,3.0457,-13.793,-6.8608,-13.793,5.8615,12.874,2.0,9.835,1.99,4.9581,14.504,7.935,14.837
-2.9851,5.9631,-7.0978,-17.733999,-10.744,-16.736,-6.0914,-8.8889,3.0457,-17.733999,-10.744,-14.778,0.06441,8.9327,0.0,8.8449,0.99502,-2.0771,15.48,2.0813,12.876
0.0,6.9682,-2.1227,-17.733999,-12.686,-14.653,-4.0609,-9.8693,2.0305,-17.733999,-12.686,-13.793,0.06441,5.977,2.0,8.8449,1.99,4.9581,10.602,3.0569,12.876
5.9701,9.9832,3.8474,-15.764,-11.715,-10.486,-3.0457,-6.9281,2.0305,-15.764,-11.715,-9.8522,2.963,4.9918,6.0,8.8449,4.9751,10.988,9.626,5.9837,11.895
6.9652,7.9732,1.8574,-16.749001,-13.657,-11.528,-5.0761,-7.9085,-2.0305,-16.749001,-13.657,-11.823,-0.90177,0.06568,4.0,4.8845,3.9801,21.039,8.6504,1.1057,6.0131
2.9851,3.9531,-0.13267,-17.733999,-14.628,-14.653,-8.1218,-8.8889,-5.0761,-17.733999,-14.628,-12.808,-1.868,-3.8752,3.0,3.8944,3.9801,9.9832,3.7724,0.13008,4.0523
4.9751,6.9682,4.8425,-13.793,-10.744,-10.486,-5.0761,-5.9477,-3.0457,-13.793,-10.744,-7.8818,0.06441,-1.9048,9.0,6.8647,8.9552,1.943,5.7236,5.0081,4.0523
6.9652,6.9682,9.8176,-10.837,-8.8026,-6.3194,-3.0457,-4.9673,-3.0457,-10.837,-8.8026,-2.9557,1.9968,-2.89,11.0,5.8746,9.9502,-1.072,3.7724,10.862,-0.84967
7.9602,0.93802,9.8176,-7.8818,-6.8608,-2.1528,-3.0457,-2.0261,-5.0761,-7.8818,-6.8608,0.98522,1.0306,-3.8752,10.0,0.92409,6.9652,-4.0871,-0.13008,6.9593,-4.7712
4.9751,-6.0972,4.8425,-6.8966,-8.8026,-1.1111,-5.0761,-1.0458,-6.0914,-6.8966,-8.8026,0.0,-2.8341,-7.8161,5.0,-5.0165,0.99502,-0.067,-2.0813,-2.7967,-9.6732
0.0,-11.122,-0.13267,-7.8818,-10.744,-2.1528,-8.1218,-3.0065,-6.0914,-7.8818,-10.744,-1.9704,-6.6989,-13.727,-1.0,-9.967,-3.9801,-1.072,-5.0081,-8.6504,-14.575
-7.9602,-12.127,-3.1177,-8.867,-9.7735,-5.2778,-9.1371,-3.9869,-6.0914,-8.867,-9.7735,-3.9409,-8.6312,-14.713,-6.0,-11.947,-8.9552,-2.0771,-6.9593,-8.6504,-13.595
-14.925,-11.122,-7.0978,-10.837,-8.8026,-10.486,-10.152,-4.9673,-6.0914,-10.837,-8.8026,-8.867,-10.564,-14.713,-10.0,-11.947,-11.94,-4.0871,-7.935,-10.602,-10.654
-17.91,-10.117,-10.083,-9.8522,-7.8317,-11.528,-10.152,-4.9673,-6.0914,-9.8522,-7.8317,-10.837,-10.564,-15.698,-13.0,-13.927,-13.93,-7.1022,-6.9593,-15.48,-14.575
-17.91,-9.1122,-12.073,-8.867,-7.8317,-11.528,-12.183,-3.9869,-6.0914,-8.867,-7.8317,-11.823,-10.564,-16.683001,-11.0,-13.927,-11.94,-18.157,-5.9837,-16.455,-18.497
-17.91,-11.122,-15.058,-9.8522,-9.7735,-12.569,-13.198,-5.9477,-6.0914,-9.8522,-9.7735,-13.793,-13.462,-18.653999,-12.0,-14.917,-11.94,-25.193001,-7.935,-15.48,-18.497
-17.91,-12.127,-17.048,-9.8522,-10.744,-11.528,-13.198,-5.9477,-7.1066,-9.8522,-10.744,-13.793,-16.361,-19.639,-13.0,-14.917,-13.93,-23.183001,-8.9106,-15.48,-14.575
-22.886,-16.146999,-23.018,-13.793,-15.599,-16.736,-16.243999,-8.8889,-10.152,-13.793,-15.599,-18.719,-21.191999,-19.639,-18.0,-16.898001,-17.91,-22.177999,-9.8862,-19.382,-13.595
-24.875999,-18.157,-26.997999,-17.733999,-16.57,-21.944,-18.274,-14.771,-11.168,-17.733999,-16.57,-22.66,-21.191999,-18.653999,-20.0,-15.908,-17.91,-16.146999,-9.8862,-23.285,-13.595
-19.9,-15.142,-23.018,-15.764,-13.657,-19.861,-14.213,-13.791,-11.168,-15.764,-13.657,-19.704,-15.395,-14.713,-15.0,-11.947,-12.935,-21.173,-5.9837,-16.455,-11.634
-16.915001,-12.127,-18.042999,-13.793,-12.686,-17.778,-11.168,-12.81,-9.1371,-13.793,-12.686,-16.749001,-16.361,-18.653999,-14.0,-13.927,-12.935,-22.177999,-3.0569,-14.504,-12.614
-13.93,-9.1122,-14.063,-14.778,-13.657,-17.778,-10.152,-16.732,-8.1218,-14.778,-13.657,-14.778,-15.395,-20.624001,-12.0,-11.947,-12.935,-22.177999,-3.0569,-8.6504,-10.654
-10.945,-4.0871,-11.078,-15.764,-13.657,-19.861,-10.152,-17.712,-7.1066,-15.764,-13.657,-15.764,-9.5974,-13.727,-6.0,-5.0165,-7.9602,-20.167999,-5.0081,-2.7967,-8.6928
-10.945,-1.072,-11.078,-18.719,-14.628,-21.944,-13.198,-17.712,-7.1066,-18.719,-14.628,-18.719,-2.8341,-6.8309,-3.0,-0.06601,-2.9851,-20.167999,-5.9837,-1.8211,-6.732
-10.945,-1.072,-12.073,-19.704,-17.540001,-24.028,-15.228,-17.712,-7.1066,-19.704,-17.540001,-20.690001,-0.90177,-4.8604,-3.0,-0.06601,-3.9801,-20.167999,-5.0081,-1.8211,-3.7908
-11.94,-6.0972,-14.063,-19.704,-16.57,-21.944,-16.243999,-16.732,-9.1371,-19.704,-16.57,-20.690001,-4.7665,-8.8013,-6.0,-3.0363,-8.9552,-16.146999,-8.9106,-1.8211,-3.7908
-17.91,-13.132,-19.038,-21.674999,-18.511,-24.028,-21.32,-16.732,-11.168,-21.674999,-18.511,-24.631001,-10.564,-10.772,-11.0,-6.9967,-12.935,-15.142,-10.862,-6.6992,-6.732
-16.915001,-14.137,-17.048,-19.704,-16.57,-24.028,-21.32,-15.752,-9.1371,-19.704,-16.57,-25.615999,-9.5974,-5.8456,-10.0,-6.0066,-10.945,-16.146999,-5.0081,-6.6992,-4.7712
-14.925,-12.127,-13.068,-16.749001,-13.657,-21.944,-20.305,-15.752,-6.0914,-16.749001,-13.657,-23.645,-7.6651,-3.8752,-7.0,-5.0165,-6.9652,-14.137,-2.0813,-6.6992,-3.7908
-16.915001,-16.146999,-14.063,-17.733999,-16.57,-24.028,-23.35,-15.752,-12.183,-17.733999,-16.57,-25.615999,-12.496,-10.772,-11.0,-9.967,-11.94,-11.122,-10.862,-9.626,-8.6928
-19.9,-23.183001,-19.038,-21.674999,-20.452999,-27.153,-27.410999,-19.673,-18.274,-21.674999,-20.452999,-30.542,-21.191999,-18.653999,-17.0,-17.888,-19.9,-24.188,-19.642,-15.48,-15.556
-16.915001,-23.183001,-18.042999,-17.733999,-17.540001,-24.028,-24.365,-18.693001,-16.243999,-17.733999,-17.540001,-26.601,-22.158001,-20.624001,-15.0,-18.878,-20.896,-14.137,-14.764,-11.577,-14.575
-15.92,-20.167999,-17.048,-14.778,-12.686,-20.903,-21.32,-13.791,-12.183,-14.778,-12.686,-23.645,-19.259001,-16.683001,-13.0,-14.917,-18.905001,-10.117,-8.9106,-6.6992,-11.634
-20.896,-18.157,-19.038,-17.733999,-13.657,-26.111,-22.334999,-16.732,-10.152,-17.733999,-13.657,-25.615999,-20.225,-17.667999,-16.0,-14.917,-20.896,-15.142,-6.9593,-11.577,-13.595
-20.896,-19.162001,-21.028,-17.733999,-12.686,-27.153,-22.334999,-20.653999,-13.198,-17.733999,-12.686,-26.601,-20.225,-19.639,-16.0,-15.908,-19.9,-7.1022,-13.789,-14.504,-15.556
-17.91,-18.157,-21.028,-15.764,-8.8026,-25.069,-19.289,-18.693001,-10.152,-15.764,-8.8026,-24.631001,-17.327,-18.653999,-13.0,-16.898001,-16.915001,-8.1072,-18.667,-13.528,-17.516001
-16.915001,-18.157,-20.033001,-14.778,-8.8026,-22.986,-15.228,-14.771,-3.0457,-14.778,-8.8026,-22.66,-15.395,-19.639,-11.0,-17.888,-15.92,-18.157,-16.715,-11.577,-19.476999
-18.905001,-18.157,-21.028,-13.793,-8.8026,-22.986,-12.183,-13.791,1.0152,-13.793,-8.8026,-21.674999,-16.361,-23.58,-11.0,-19.868,-17.91,-17.152,-10.862,-5.7236,-20.458
-22.886,-19.162001,-23.018,-16.749001,-8.8026,-26.111,-12.183,-18.693001,1.0152,-16.749001,-8.8026,-21.674999,-18.292999,-26.535,-14.0,-21.848,-21.891001,-14.137,-5.0081,-10.602,-19.476999
-24.875999,-21.173,-25.007999,-17.733999,-7.8317,-26.111,-13.198,-21.634001,0.0,-17.733999,-7.8317,-20.690001,-21.191999,-25.549999,-18.0,-21.848,-22.886,-16.146999,-7.935,-20.358,-17.516001
-21.891001,-20.167999,-25.007999,-16.749001,-5.89,-22.986,-12.183,-19.673,-1.0152,-16.749001,-5.89,-17.733999,-18.292999,-21.608999,-16.0,-17.888,-20.896,-9.1122,-9.8862,-16.455,-12.614
-17.91,-16.146999,-23.018,-13.793,-5.89,-19.861,-10.152,-17.712,-3.0457,-13.793,-5.89,-14.778,-15.395,-19.639,-15.0,-14.917,-18.905001,-3.0821,-3.0569,-9.626,-4.7712
-16.915001,-10.117,-18.042999,-11.823,-7.8317,-16.736,-9.1371,-14.771,-6.0914,-11.823,-7.8317,-10.837,-15.395,-16.683001,-16.0,-11.947,-15.92,-2.0771,-3.0569,-11.577,-5.7516
-12.935,-5.0921,-13.068,-9.8522,-5.89,-12.569,-6.0914,-10.85,-5.0761,-9.8522,-5.89,-6.8966,-13.462,-13.727,-13.0,-8.9769,-12.935,-12.127,-2.0813,-10.602,-6.732
-7.9602,-1.072,-7.0978,-6.8966,-1.0356,-7.3611,-2.0305,-7.9085,-3.0457,-6.8966,-1.0356,-1.9704,-7.6651,-8.8013,-7.0,-5.0165,-7.9602,-11.122,-3.0569,-6.6992,-3.7908
-6.9652,-3.0821,-7.0978,-6.8966,-2.0065,-9.4444,-4.0609,-8.8889,-6.0914,-6.8966,-2.0065,-2.9557,-8.6312,-8.8013,-8.0,-6.0066,-8.9552,-6.0972,-5.0081,-8.6504,-3.7908
-2.9851,-2.0771,-6.1028,-4.9261,-1.0356,-6.3194,-3.0457,-7.9085,-5.0761,-4.9261,-1.0356,-0.98522,-3.8003,-4.8604,-4.0,-4.0264,-5.9701,-6.0972,-1.1057,-4.748,-1.8301
-1.99,0.93802,-5.1078,0.0,0.90615,-0.06944,1.0152,-2.0261,-1.0152,0.0,0.90615,1.9704,-0.90177,1.0509,-2.0,-0.06601,-3.9801,0.93802,4.748,-3.7724,4.0523
-2.9851,1.943,-6.1028,-0.98522,1.877,0.97222,1.0152,-3.0065,1.0152,-0.98522,1.877,1.9704,-2.8341,0.06568,-3.0,0.92409,-4.9751,0.93802,8.6504,-3.7724,4.0523
-2.9851,1.943,-6.1028,-0.98522,1.877,-0.06944,1.0152,-3.9869,2.0305,-0.98522,1.877,1.9704,-2.8341,-0.91954,-3.0,-1.0561,-4.9751,-5.0921,7.6748,-4.748,0.13072
-2.9851,-2.0771,-6.1028,-2.9557,0.90615,-1.1111,1.0152,-4.9673,3.0457,-2.9557,0.90615,0.98522,-2.8341,-1.9048,-2.0,-4.0264,-6.9652,-1.072,7.6748,-5.7236,-0.84967
-2.9851,-4.0871,-5.1078,-4.9261,-2.0065,-3.1944,-2.0305,-6.9281,0.0,-4.9261,-2.0065,0.0,-3.8003,-0.91954,-2.0,-5.0165,-6.9652,-6.0972,5.7236,-2.7967,2.0915
-1.99,0.93802,0.86235,-3.9409,-2.9773,-4.2361,-1.0152,-5.9477,1.0152,-3.9409,-2.9773,0.0,-0.90177,4.0066,1.0,-0.06601,-2.9851,-11.122,10.602,0.13008,8.9542
-1.99,2.9481,1.8574,-5.9113,-3.9482,-5.2778,-2.0305,-6.9281,0.0,-5.9113,-3.9482,-1.9704,-2.8341,3.0213,-1.0,-0.06601,-0.99502,-4.0871,9.626,-3.7724,6.0131
-1.99,2.9481,3.8474,-3.9409,-1.0356,-3.1944,1.0152,-5.9477,4.0609,-3.9409,-1.0356,0.0,-6.6989,-2.89,-4.0,-2.0462,-0.99502,0.93802,4.748,-6.6992,0.13072
1.99,2.9481,6.8325,0.0,-1.0356,-1.1111,4.0609,-5.9477,5.0761,0.0,-1.0356,2.9557,-7.6651,-5.8456,-1.0,-2.0462,0.99502,1.943,6.6992,-3.7724,-3.7908
5.9701,2.9481,10.813,1.9704,-0.06472,0.97222,6.0914,-4.9673,6.0914,1.9704,-0.06472,5.9113,-5.7327,-4.8604,3.0,-1.0561,3.9801,-6.0972,8.6504,-1.8211,-1.8301
8.9552,3.9531,13.798,2.9557,2.8479,5.1389,8.1218,-3.9869,6.0914,2.9557,2.8479,8.867,-1.868,-1.9048,6.0,0.92409,6.9652,2.9481,2.7967,0.13008,-0.84967
6.9652,1.943,11.808,0.98522,4.7896,4.0972,8.1218,-3.9869,3.0457,0.98522,4.7896,6.8966,-0.90177,0.06568,5.0,0.92409,5.9701,4.9581,1.8211,-0.84553,-4.7712
5.9701,2.9481,9.8176,0.0,5.7605,3.0556,7.1066,-3.9869,3.0457,0.0,5.7605,5.9113,1.0306,2.0361,5.0,2.9043,4.9751,4.9581,2.7967,2.0813,-0.84967
3.9801,1.943,5.8375,-0.98522,2.8479,-0.06944,4.0609,-3.0065,2.0305,-0.98522,2.8479,1.9704,-1.868,-0.91954,1.0,-0.06601,0.99502,-3.0821,-0.13008,1.1057,-1.8301
0.0,0.93802,3.8474,-2.9557,-1.0356,-2.1528,0.0,-3.0065,0.0,-2.9557,-1.0356,-0.98522,-4.7665,-4.8604,-2.0,-4.0264,-2.9851,-8.1072,1.8211,-3.7724,-3.7908
0.99502,1.943,3.8474,-2.9557,-0.06472,0.97222,-1.0152,-2.0261,-3.0457,-2.9557,-0.06472,0.0,-2.8341,-2.89,-1.0,-4.0264,-2.9851,-8.1072,3.7724,-6.6992,-2.8105
1.99,1.943,2.8524,0.0,0.90615,3.0556,-3.0457,-0.06536,-4.0609,0.0,0.90615,0.98522,0.06441,-1.9048,2.0,-2.0462,-2.9851,-8.1072,6.6992,-3.7724,1.1111
0.99502,1.943,0.86235,1.9704,3.8188,3.0556,-2.0305,0.91503,-3.0457,1.9704,3.8188,1.9704,1.9968,0.06568,4.0,-1.0561,-0.99502,-0.067,7.6748,-1.8211,5.0327
0.0,0.93802,-0.13267,2.9557,3.8188,2.0139,-1.0152,-1.0458,-1.0152,2.9557,3.8188,3.9409,1.0306,1.0509,4.0,-1.0561,0.0,5.9631,4.748,-1.8211,3.0719
0.99502,2.9481,2.8524,2.9557,3.8188,3.0556,1.0152,-3.0065,1.0152,2.9557,3.8188,5.9113,1.0306,2.0361,4.0,0.92409,0.99502,7.9732,7.6748,0.13008,2.0915
-1.99,0.93802,0.86235,1.9704,3.8188,-0.06944,-1.0152,-3.9869,-1.0152,1.9704,3.8188,4.9261,-0.90177,-1.9048,1.0,-2.0462,-1.99,2.9481,7.6748,-0.84553,0.13072
-4.9751,-2.0771,-4.1128,-0.98522,2.8479,-3.1944,-2.0305,-7.9085,-1.0152,-0.98522,2.8479,2.9557,1.9968,-2.89,2.0,-3.0363,-2.9851,-5.0921,5.7236,1.1057,-1.8301
-1.99,-0.067,-1.1277,2.9557,8.6731,-0.06944,3.0457,-5.9477,3.0457,2.9557,8.6731,6.8966,11.659,3.0213,9.0,1.9142,4.9751,-2.0771,4.748,5.9837,3.0719
0.99502,-0.067,0.86235,6.8966,13.528,5.1389,8.1218,-2.0261,6.0914,6.8966,13.528,10.837,13.591,4.9918,11.0,2.9043,7.9602,0.93802,3.7724,6.9593,2.0915
1.99,-2.0771,-0.13267,5.9113,11.586,6.1806,8.1218,-1.0458,8.1218,5.9113,11.586,8.867,11.659,5.977,11.0,-0.06601,5.9701,1.943,6.6992,7.935,-1.8301
2.9851,-0.067,-0.13267,6.8966,11.586,6.1806,7.1066,-0.06536,8.1218,6.8966,11.586,7.8818,11.659,7.9475,12.0,1.9142,6.9652,-0.067,9.626,13.789,3.0719
2.9851,3.9531,1.8574,4.9261,8.6731,5.1389,6.0914,-1.0458,6.0914,4.9261,8.6731,6.8966,8.7601,6.9622,9.0,1.9142,5.9701,-4.0871,10.602,10.862,6.9935
6.9652,5.9631,6.8325,3.9409,6.7314,8.2639,5.0761,2.8758,5.0761,3.9409,6.7314,6.8966,5.8615,6.9622,6.0,2.9043,2.9851,-1.072,8.6504,6.9593,9.9346
13.93,7.9732,11.808,5.9113,7.7023,11.389,7.1066,7.7778,4.0609,5.9113,7.7023,7.8818,7.7939,10.903,9.0,5.8746,3.9801,28.073999,8.6504,8.9106,9.9346
14.925,7.9732,12.803,2.9557,4.7896,10.347,5.0761,7.7778,1.0152,2.9557,4.7896,5.9113,6.8277,8.9327,8.0,5.8746,2.9851,25.059,4.748,8.9106,5.0327
13.93,9.9832,15.788,0.98522,0.90615,5.1389,4.0609,2.8758,0.0,0.98522,0.90615,3.9409,5.8615,7.9475,9.0,7.8548,5.9701,9.9832,4.748,5.0081,6.9935
19.9,21.039,26.733,5.9113,5.7605,10.347,11.168,3.8562,6.0914,5.9113,5.7605,9.8522,12.625,15.829,18.0,17.756001,15.92,2.9481,14.504,10.862,16.797001
24.875999,28.073999,34.693001,9.8522,9.644,15.556,13.198,7.7778,8.1218,9.8522,9.644,13.793,20.354,22.726,26.0,26.667,25.871,5.9631,17.431,19.642,20.719
24.875999,29.079,36.682999,7.8818,6.7314,13.472,11.168,6.7974,6.0914,7.8818,6.7314,12.808,21.32,23.711,27.0,28.646999,28.856001,9.9832,13.528,22.569,22.68
22.886,28.073999,35.688,4.9261,1.877,9.3056,12.183,4.8366,3.0457,4.9261,1.877,12.808,16.49,20.754999,22.0,26.667,26.865999,8.9782,14.504,19.642,20.719
20.896,27.069,34.693001,3.9409,1.877,6.1806,12.183,2.8758,3.0457,3.9409,1.877,11.823,13.591,14.844,18.0,21.716,22.886,12.998,13.528,13.789,16.797001
21.891001,23.049,32.702999,4.9261,2.8479,7.2222,11.168,3.8562,4.0609,4.9261,2.8479,11.823,12.625,10.903,17.0,17.756001,20.896,16.013,11.577,12.813,12.876
23.881001,18.023001,27.728001,7.8818,6.7314,9.3056,10.152,5.817,3.0457,7.8818,6.7314,11.823,14.557,10.903,17.0,14.785,18.905001,26.063999,10.602,14.764,10.915
20.896,15.008,20.763,6.8966,7.7023,8.2639,9.1371,6.7974,4.0609,6.8966,7.7023,10.837,15.523,11.888,16.0,12.805,14.925,14.003,11.577,16.715,11.895
18.905001,14.003,17.778,3.9409,6.7314,5.1389,9.1371,3.8562,6.0914,3.9409,6.7314,8.867,17.455999,15.829,17.0,12.805,12.935,5.9631,10.602,16.715,15.817
20.896,17.018,21.757999,2.9557,6.7314,8.2639,11.168,2.8758,6.0914,2.9557,6.7314,10.837,18.422001,20.754999,18.0,16.766001,14.925,14.003,10.602,15.74,22.68
21.891001,18.023001,22.753,2.9557,4.7896,9.3056,9.1371,0.91503,1.0152,2.9557,4.7896,11.823,12.625,19.77,15.0,17.756001,14.925,14.003,12.553,10.862,23.66
24.875999,21.039,24.743,5.9113,6.7314,12.431,10.152,4.8366,1.0152,5.9113,6.7314,14.778,11.659,18.785,17.0,20.726,16.915001,23.049,15.48,11.837,25.621
27.861,25.059,27.728001,6.8966,7.7023,16.597,14.213,6.7974,4.0609,6.8966,7.7023,18.719,10.692,17.799999,18.0,21.716,19.9,20.034,17.431,18.667,23.66
24.875999,26.063999,28.723,3.9409,6.7314,14.514,16.243999,5.817,2.0305,3.9409,6.7314,18.719,10.692,15.829,19.0,20.726,20.896,10.988,14.504,15.74,18.757999
25.871,27.069,28.723,2.9557,7.7023,14.514,17.259001,8.7582,5.0761,2.9557,7.7023,17.733999,14.557,15.829,22.0,20.726,23.881001,18.023001,11.577,15.74,13.856
24.875999,25.059,26.733,1.9704,6.7314,13.472,14.213,7.7778,6.0914,1.9704,6.7314,14.778,15.523,13.859,22.0,18.746,21.891001,28.073999,10.602,18.667,12.876
18.905001,21.039,20.763,0.0,2.8479,7.2222,9.1371,3.8562,1.0152,0.0,2.8479,9.8522,15.523,14.844,20.0,17.756001,17.91,17.018,12.553,22.569,12.876
13.93,19.028,15.788,-0.98522,2.8479,5.1389,8.1218,1.8954,1.0152,-0.98522,2.8479,6.8966,18.422001,17.799999,18.0,17.756001,16.915001,11.993,12.553,20.618,12.876
11.94,19.028,12.803,0.98522,3.8188,6.1806,10.152,1.8954,7.1066,0.98522,3.8188,6.8966,21.32,20.754999,18.0,17.756001,17.91,10.988,13.528,17.691,13.856
12.935,19.028,12.803,1.9704,3.8188,8.2639,11.168,0.91503,10.152,1.9704,3.8188,9.8522,21.32,20.754999,18.0,18.746,18.905001,6.9682,15.48,18.667,15.817
15.92,20.034,15.788,2.9557,6.7314,11.389,14.213,3.8562,11.168,2.9557,6.7314,13.793,23.253,20.754999,20.0,18.746,18.905001,8.9782,16.455,22.569,14.837
14.925,17.018,14.793,4.9261,7.7023,13.472,14.213,5.817,9.1371,4.9261,7.7023,15.764,21.32,16.813999,19.0,15.776,14.925,23.049,14.504,22.569,12.876
12.935,10.988,9.8176,2.9557,2.8479,12.431,10.152,2.8758,4.0609,2.9557,2.8479,10.837,14.557,7.9475,15.0,7.8548,7.9602,26.063999,8.6504,18.667,6.9935
11.94,9.9832,7.8275,2.9557,2.8479,11.389,9.1371,0.91503,1.0152,2.9557,2.8479,11.823,10.692,4.9918,15.0,5.8746,5.9701,17.018,0.84553,20.618,4.0523
12.935,12.998,8.8226,3.9409,5.7605,11.389,12.183,1.8954,3.0457,3.9409,5.7605,14.778,12.625,6.9622,16.0,9.835,8.9552,14.003,2.7967,19.642,10.915
13.93,12.998,8.8226,0.98522,5.7605,8.2639,12.183,-0.06536,5.0761,0.98522,5.7605,12.808,15.523,13.859,16.0,14.785,13.93,19.028,5.7236,16.715,13.856
10.945,9.9832,4.8425,-1.9704,4.7896,4.0972,11.168,-2.0261,8.1218,-1.9704,4.7896,9.8522,17.455999,18.785,13.0,15.776,13.93,8.9782,2.7967,11.837,8.9542
9.9502,11.993,5.8375,0.0,6.7314,5.1389,11.168,-0.06536,7.1066,0.0,6.7314,9.8522,20.354,24.695999,13.0,17.756001,15.92,5.9631,6.6992,11.837,9.9346
7.9602,11.993,4.8425,0.0,4.7896,5.1389,9.1371,-0.06536,5.0761,0.0,4.7896,7.8818,17.455999,20.754999,11.0,16.766001,13.93,8.9782,5.7236,11.837,9.9346
5.9701,8.9782,0.86235,-0.98522,1.877,5.1389,7.1066,0.91503,3.0457,-0.98522,1.877,5.9113,11.659,12.874,5.0,12.805,8.9552,9.9832,2.7967,6.9593,8.9542
9.9502,10.988,1.8574,2.9557,3.8188,9.3056,9.1371,4.8366,5.0761,2.9557,3.8188,9.8522,11.659,9.9179,6.0,11.815,7.9602,11.993,4.748,7.935,9.9346
10.945,11.993,2.8524,7.8818,6.7314,14.514,11.168,7.7778,7.1066,7.8818,6.7314,13.793,6.8277,4.0066,4.0,7.8548,4.9751,11.993,7.6748,8.9106,9.9346
8.9552,5.9631,1.8574,9.8522,7.7023,16.597,10.152,9.7386,8.1218,9.8522,7.7023,12.808,-0.90177,-5.8456,-1.0,-1.0561,-2.9851,6.9682,5.7236,6.9593,2.0915
9.9502,2.9481,1.8574,11.823,8.6731,19.722,10.152,13.66,9.1371,11.823,8.6731,13.793,-5.7327,-10.772,-4.0,-7.9868,-9.9502,4.9581,0.84553,3.0569,-1.8301
10.945,1.943,3.8474,11.823,7.7023,20.764,11.168,12.68,8.1218,11.823,7.7023,14.778,-10.564,-14.713,-5.0,-10.957,-13.93,6.9682,-0.13008,-0.84553,-3.7908
12.935,2.9481,6.8325,10.837,5.7605,22.847,11.168,11.699,6.0914,10.837,5.7605,16.749001,-9.5974,-12.742,-3.0,-10.957,-13.93,16.013,5.7236,2.0813,-3.7908
14.925,6.9682,10.813,10.837,5.7605,23.889,13.198,11.699,7.1066,10.837,5.7605,17.733999,-4.7665,-6.8309,2.0,-6.9967,-7.9602,12.998,7.6748,5.9837,-0.84967
13.93,8.9782,11.808,8.867,4.7896,20.764,15.228,9.7386,8.1218,8.867,4.7896,17.733999,-3.8003,-3.8752,3.0,-2.0462,-2.9851,12.998,4.748,5.0081,2.0915
14.925,14.003,13.798,8.867,4.7896,21.806,18.274,12.68,11.168,8.867,4.7896,18.719,1.0306,4.9918,7.0,7.8548,4.9751,15.008,6.6992,7.935,6.9935
15.92,17.018,17.778,9.8522,5.7605,22.847,19.289,14.641,11.168,9.8522,5.7605,18.719,7.7939,13.859,9.0,15.776,10.945,14.003,7.6748,6.9593,9.9346
12.935,16.013,18.773001,6.8966,3.8188,17.639,14.213,11.699,6.0914,6.8966,3.8188,15.764,7.7939,17.799999,7.0,19.736,14.925,1.943,6.6992,4.0325,10.915
8.9552,12.998,14.793,4.9261,0.90615,11.389,10.152,7.7778,4.0609,4.9261,0.90615,10.837,8.7601,19.77,5.0,20.726,13.93,-0.067,7.6748,4.0325,12.876
5.9701,8.9782,10.813,1.9704,-2.9773,8.2639,7.1066,7.7778,1.0152,1.9704,-2.9773,6.8966,9.7262,17.799999,5.0,15.776,8.9552,0.93802,8.6504,6.9593,13.856
6.9652,4.9581,6.8325,0.98522,-3.9482,6.1806,3.0457,10.719,-3.0457,0.98522,-3.9482,3.9409,11.659,15.829,7.0,11.815,5.9701,9.9832,4.748,10.862,12.876
10.945,2.9481,6.8325,2.9557,-0.06472,6.1806,3.0457,10.719,-3.0457,2.9557,-0.06472,4.9261,12.625,13.859,9.0,8.8449,4.9751,14.003,-3.0569,11.837,10.915
12.935,3.9531,8.8226,5.9113,3.8188,9.3056,7.1066,10.719,2.0305,5.9113,3.8188,8.867,13.591,12.874,12.0,7.8548,4.9751,20.034,-1.1057,13.789,9.9346
11.94,6.9682,10.813,6.8966,3.8188,9.3056,10.152,5.817,6.0914,6.8966,3.8188,10.837,13.591,14.844,12.0,7.8548,5.9701,15.008,4.748,11.837,8.9542
9.9502,7.9732,11.808,6.8966,3.8188,7.2222,8.1218,6.7974,4.0609,6.8966,3.8188,8.867,11.659,13.859,8.0,6.8647,5.9701,-3.0821,7.6748,6.9593,6.9935
8.9552,10.988,11.808,7.8818,3.8188,8.2639,6.0914,10.719,4.0609,7.8818,3.8188,7.8818,9.7262,12.874,4.0,5.8746,5.9701,-5.0921,8.6504,2.0813,6.0131
5.9701,10.988,10.813,6.8966,1.877,6.1806,6.0914,10.719,5.0761,6.8966,1.877,5.9113,4.8953,6.9622,0.0,3.8944,4.9751,5.9631,7.6748,0.13008,4.0523
2.9851,9.9832,8.8226,3.9409,-2.0065,3.0556,2.0305,8.7582,1.0152,3.9409,-2.0065,0.98522,-1.868,1.0509,-3.0,4.8845,4.9751,2.9481,5.7236,-0.84553,5.0327
1.99,11.993,9.8176,3.9409,-1.0356,-0.06944,0.0,8.7582,1.0152,3.9409,-1.0356,-1.9704,1.9968,5.977,1.0,10.825,9.9502,-1.072,6.6992,-0.84553,8.9542
4.9751,15.008,9.8176,7.8818,1.877,0.97222,4.0609,7.7778,3.0457,7.8818,1.877,0.98522,11.659,12.874,8.0,15.776,13.93,6.9682,9.626,4.0325,12.876
12.935,18.023001,13.798,8.867,3.8188,5.1389,7.1066,9.7386,3.0457,8.867,3.8188,4.9261,22.287001,20.754999,19.0,18.746,19.9,11.993,9.626,14.764,12.876
19.9,18.023001,14.793,8.867,2.8479,8.2639,8.1218,11.699,2.0305,8.867,2.8479,6.8966,27.118,22.726,25.0,17.756001,22.886,6.9682,10.602,19.642,9.9346
21.891001,18.023001,14.793,7.8818,2.8479,9.3056,7.1066,11.699,3.0457,7.8818,2.8479,5.9113,28.084,24.695999,25.0,16.766001,22.886,21.039,11.577,19.642,9.9346
18.905001,16.013,13.798,8.867,2.8479,10.347,9.1371,10.719,6.0914,8.867,2.8479,8.867,26.150999,25.681,20.0,13.795,18.905001,12.998,13.528,14.764,8.9542
13.93,9.9832,11.808,8.867,4.7896,11.389,9.1371,10.719,4.0609,8.867,4.7896,9.8522,19.388,18.785,12.0,7.8548,11.94,14.003,12.553,8.9106,4.0523
9.9502,2.9481,6.8325,7.8818,3.8188,9.3056,8.1218,8.7582,2.0305,7.8818,3.8188,7.8818,12.625,10.903,7.0,-0.06601,4.9751,6.9682,5.7236,5.9837,1.1111
10.945,1.943,3.8474,6.8966,2.8479,9.3056,9.1371,6.7974,5.0761,6.8966,2.8479,7.8818,10.692,8.9327,8.0,-3.0363,2.9851,6.9682,4.748,8.9106,0.13072
11.94,6.9682,6.8325,8.867,6.7314,12.431,14.213,8.7582,8.1218,8.867,6.7314,11.823,13.591,11.888,10.0,-1.0561,3.9801,24.054001,8.6504,9.8862,6.9935
6.9652,8.9782,5.8375,11.823,9.644,13.472,15.228,11.699,10.152,11.823,9.644,13.793,14.557,13.859,7.0,0.92409,3.9801,9.9832,10.602,6.9593,5.0327
2.9851,9.9832,4.8425,10.837,8.6731,13.472,13.198,9.7386,7.1066,10.837,8.6731,13.793,15.523,17.799999,7.0,6.8647,7.9602,-1.072,11.577,8.9106,6.0131
8.9552,15.008,10.813,9.8522,9.644,13.472,15.228,7.7778,8.1218,9.8522,9.644,14.778,22.287001,25.681,13.0,17.756001,16.915001,3.9531,11.577,13.789,13.856
11.94,19.028,15.788,12.808,14.498,15.556,20.305,7.7778,13.198,12.808,14.498,17.733999,26.150999,28.636999,15.0,23.695999,22.886,4.9581,11.577,12.813,16.797001
14.925,22.044001,18.773001,13.793,15.469,16.597,22.334999,9.7386,14.213,13.793,15.469,19.704,28.084,28.636999,19.0,26.667,26.865999,5.9631,10.602,13.789,14.837
20.896,23.049,21.757999,10.837,10.615,16.597,18.274,12.68,12.183,10.837,10.615,16.749001,30.016001,27.652,25.0,27.657,30.846001,16.013,10.602,18.667,13.856
26.865999,24.054001,24.743,11.823,9.644,17.639,16.243999,14.641,10.152,11.823,9.644,17.733999,33.881001,31.593,29.0,28.646999,33.831001,22.044001,15.48,21.593,16.797001
25.871,20.034,23.747999,11.823,8.6731,15.556,15.228,12.68,9.1371,11.823,8.6731,15.764,30.016001,28.636999,26.0,22.705999,28.856001,25.059,11.577,18.667,13.856
23.881001,17.018,22.753,10.837,8.6731,15.556,14.213,15.621,9.1371,10.837,8.6731,14.778,21.32,23.711,21.0,17.756001,21.891001,25.059,7.6748,20.618,15.817
22.886,18.023001,22.753,10.837,7.7023,13.472,13.198,15.621,8.1218,10.837,7.7023,12.808,16.49,20.754999,18.0,15.776,18.905001,17.018,10.602,19.642,16.797001
20.896,17.018,22.753,10.837,7.7023,12.431,12.183,11.699,5.0761,10.837,7.7023,11.823,14.557,18.785,16.0,14.785,16.915001,8.9782,10.602,13.789,13.856
16.915001,16.013,23.747999,10.837,8.6731,13.472,12.183,10.719,2.0305,10.837,8.6731,13.793,16.49,20.754999,15.0,15.776,17.91,6.9682,5.7236,10.862,11.895
11.94,11.993,21.757999,9.8522,6.7314,13.472,11.168,8.7582,2.0305,9.8522,6.7314,13.793,17.455999,20.754999,14.0,13.795,16.915001,9.9832,1.8211,10.862,11.895
8.9552,9.9832,18.773001,8.867,7.7023,11.389,9.1371,6.7974,3.0457,8.867,7.7023,12.808,20.354,22.726,14.0,13.795,16.915001,17.018,2.7967,12.813,12.876
5.9701,8.9782,13.798,6.8966,5.7605,6.1806,7.1066,7.7778,3.0457,6.8966,5.7605,7.8818,18.422001,20.754999,12.0,12.805,15.92,10.988,5.7236,13.789,11.895
-1.99,5.9631,5.8375,3.9409,-0.06472,-1.1111,0.0,2.8758,0.0,3.9409,-0.06472,0.0,12.625,15.829,6.0,11.815,11.94,-1.072,3.7724,5.9837,10.915
-1.99,5.9631,1.8574,2.9557,-2.0065,-0.06944,-1.0152,1.8954,-1.0152,2.9557,-2.0065,-1.9704,11.659,15.829,5.0,14.785,12.935,-3.0821,-0.13008,2.0813,10.915
4.9751,10.988,6.8325,5.9113,0.90615,7.2222,3.0457,8.7582,3.0457,5.9113,0.90615,3.9409,15.523,20.754999,11.0,20.726,18.905001,-2.0771,2.7967,4.0325,11.895
9.9502,12.998,8.8226,6.8966,3.8188,10.347,5.0761,9.7386,5.0761,6.8966,3.8188,7.8818,18.422001,21.740999,14.0,20.726,21.891001,0.93802,5.7236,6.9593,10.915
7.9602,9.9832,7.8275,7.8818,5.7605,10.347,6.0914,9.7386,6.0914,7.8818,5.7605,8.867,15.523,13.859,12.0,13.795,16.915001,3.9531,6.6992,5.9837,6.0131
0.99502,2.9481,0.86235,6.8966,4.7896,7.2222,3.0457,8.7582,4.0609,6.8966,4.7896,6.8966,7.7939,7.9475,5.0,3.8944,5.9701,9.9832,-0.13008,3.0569,0.13072
-7.9602,-5.0921,-6.1028,3.9409,0.90615,3.0556,-2.0305,3.8562,-1.0152,3.9409,0.90615,1.9704,1.9968,4.9918,-4.0,-4.0264,-4.9751,5.9631,-5.9837,1.1057,-2.8105
-13.93,-9.1122,-11.078,1.9704,-2.0065,-1.1111,-7.1066,1.8954,-5.0761,1.9704,-2.0065,-2.9557,-0.90177,2.0361,-9.0,-8.9769,-12.935,-6.0972,-5.0081,-2.7967,-2.8105
-18.905001,-10.117,-13.068,0.0,-2.9773,-2.1528,-7.1066,1.8954,-4.0609,0.0,-2.9773,-3.9409,-2.8341,-1.9048,-12.0,-10.957,-15.92,-9.1122,-5.9837,-4.748,-4.7712
-14.925,-5.0921,-8.0929,1.9704,0.90615,-0.06944,-2.0305,4.8366,-1.0152,1.9704,0.90615,0.0,-1.868,-2.89,-10.0,-7.9868,-10.945,-4.0871,-3.0569,-4.748,-2.8105
-5.9701,1.943,-0.13267,2.9557,3.8188,2.0139,2.0305,6.7974,0.0,2.9557,3.8188,4.9261,1.9968,-0.91954,-3.0,-1.0561,-2.9851,-2.0771,5.7236,-3.7724,1.1111
0.99502,5.9631,4.8425,4.9261,2.8479,4.0972,3.0457,4.8366,-1.0152,4.9261,2.8479,8.867,1.0306,-0.91954,0.0,2.9043,1.99,6.9682,8.6504,-3.7724,4.0523
5.9701,7.9732,9.8176,7.8818,4.7896,9.3056,7.1066,5.817,5.0761,7.8818,4.7896,14.778,0.06441,2.0361,0.0,6.8647,4.9751,7.9732,8.6504,-0.84553,10.915
1.99,4.9581,6.8325,6.8966,3.8188,7.2222,5.0761,4.8366,4.0609,6.8966,3.8188,12.808,-3.8003,2.0361,-7.0,6.8647,1.99,5.9631,7.6748,-6.6992,9.9346
-4.9751,-1.072,-1.1277,2.9557,-2.9773,-0.06944,-2.0305,2.8758,-1.0152,2.9557,-2.9773,4.9261,-10.564,-0.91954,-15.0,1.9142,-4.9751,-8.1072,-0.13008,-15.48,4.0523
-4.9751,-3.0821,-2.1227,1.9704,-2.0065,-1.1111,-3.0457,2.8758,-1.0152,1.9704,-2.0065,3.9409,-9.5974,0.06568,-12.0,-0.06601,-4.9751,-6.0972,-3.0569,-4.748,0.13072
-3.9801,-5.0921,-2.1227,2.9557,0.90615,0.97222,-1.0152,5.817,0.0,2.9557,0.90615,4.9261,-3.8003,1.0509,-9.0,-4.0264,-4.9751,-1.072,-4.0325,-5.7236,-5.7516
-3.9801,-8.1072,-1.1277,2.9557,1.877,2.0139,-3.0457,5.817,-1.0152,2.9557,1.877,3.9409,0.06441,-3.8752,-9.0,-8.9769,-5.9701,-10.117,0.84553,-11.577,-13.595
-7.9602,-10.117,-3.1177,0.98522,-0.06472,-0.06944,-5.0761,6.7974,-1.0152,0.98522,-0.06472,-0.98522,-1.868,-9.7865,-11.0,-15.908,-9.9502,-19.162001,-0.13008,-10.602,-17.516001
-12.935,-14.137,-9.0879,-0.98522,-3.9482,-4.2361,-10.152,4.8366,-4.0609,-0.98522,-3.9482,-5.9113,-7.6651,-17.667999,-14.0,-20.858,-15.92,-6.0972,-5.9837,-8.6504,-16.535999
-16.915001,-13.132,-12.073,-1.9704,-2.9773,-6.3194,-9.1371,1.8954,-3.0457,-1.9704,-2.9773,-6.8966,-8.6312,-16.683001,-14.0,-18.878,-15.92,-18.157,-3.0569,-7.6748,-13.595
-18.905001,-15.142,-17.048,-3.9409,-2.9773,-9.4444,-10.152,-0.06536,-2.0305,-3.9409,-2.9773,-7.8818,-12.496,-15.698,-16.0,-16.898001,-18.905001,-12.127,-0.13008,-5.7236,-13.595
-18.905001,-18.157,-20.033001,-4.9261,-4.9191,-11.528,-12.183,0.91503,-5.0761,-4.9261,-4.9191,-9.8522,-14.428,-14.713,-19.0,-17.888,-20.896,-5.0921,-2.0813,-9.626,-10.654
-16.915001,-19.162001,-19.038,-3.9409,-4.9191,-11.528,-14.213,1.8954,-7.1066,-3.9409,-4.9191,-11.823,-12.496,-9.7865,-17.0,-14.917,-18.905001,-9.1122,-2.0813,-6.6992,-8.6928
-11.94,-16.146999,-16.052999,-0.98522,-2.9773,-8.4028,-11.168,2.8758,-6.0914,-0.98522,-2.9773,-7.8818,-3.8003,-2.89,-10.0,-10.957,-11.94,-5.0921,-3.0569,-3.7724,-6.732
-7.9602,-12.127,-13.068,2.9557,-0.06472,-3.1944,-6.0914,3.8562,-2.0305,2.9557,-0.06472,-1.9704,1.9968,2.0361,-6.0,-6.0066,-7.9602,-3.0821,-1.1057,-5.7236,-4.7712
-9.9502,-13.132,-14.063,4.9261,1.877,-3.1944,-6.0914,5.817,-2.0305,4.9261,1.877,-1.9704,-1.868,-0.91954,-8.0,-5.0165,-7.9602,-3.0821,-2.0813,-7.6748,-5.7516
-7.9602,-16.146999,-14.063,3.9409,0.90615,-5.2778,-8.1218,2.8758,-4.0609,3.9409,0.90615,-4.9261,-3.8003,-2.89,-5.0,-5.0165,-5.9701,14.003,-10.862,-6.6992,-7.7124
-1.99,-11.122,-6.1028,7.8818,4.7896,-0.06944,-4.0609,7.7778,-6.0914,7.8818,4.7896,0.0,1.9968,2.0361,2.0,-1.0561,0.0,12.998,-8.9106,-2.7967,-2.8105
-2.9851,-8.1072,-3.1177,10.837,5.7605,4.0972,-1.0152,10.719,-7.1066,10.837,5.7605,3.9409,3.9291,3.0213,2.0,-0.06601,0.0,-7.1022,-4.0325,1.1057,-2.8105
-3.9801,-10.117,-4.1128,9.8522,4.7896,4.0972,-3.0457,9.7386,-7.1066,9.8522,4.7896,4.9261,2.963,3.0213,-1.0,-1.0561,-1.99,-10.117,-5.0081,1.1057,-1.8301
-4.9751,-17.152,-8.0929,9.8522,1.877,3.0556,-8.1218,8.7582,-10.152,9.8522,1.877,1.9704,-0.90177,-0.91954,-5.0,-6.0066,-5.9701,-4.0871,-11.837,0.13008,-7.7124
-3.9801,-16.146999,-5.1078,9.8522,4.7896,4.0972,-7.1066,8.7582,-12.183,9.8522,4.7896,1.9704,-1.868,-3.8752,-8.0,-8.9769,-8.9552,-0.067,-13.789,-4.748,-9.6732
-0.99502,-15.142,-5.1078,6.8966,3.8188,-0.06944,-7.1066,3.8562,-9.1371,6.8966,3.8188,-0.98522,-3.8003,-5.8456,-11.0,-12.937,-10.945,-1.072,-12.813,-9.626,-10.654
-8.9552,-19.162001,-10.083,5.9113,2.8479,-3.1944,-9.1371,2.8758,-7.1066,5.9113,2.8479,-4.9261,-5.7327,-7.8161,-15.0,-15.908,-13.93,-5.0921,-11.837,-13.528,-14.575
-15.92,-25.193001,-16.052999,6.8966,2.8479,-4.2361,-11.168,4.8366,-6.0914,6.8966,2.8479,-7.8818,-9.5974,-10.772,-19.0,-19.868,-17.91,-16.146999,-14.764,-14.504,-19.476999
-18.905001,-27.202999,-18.042999,2.9557,-0.06472,-9.4444,-14.213,-1.0458,-7.1066,2.9557,-0.06472,-12.808,-17.327,-16.683001,-24.0,-24.818001,-20.896,-25.193001,-17.691,-15.48,-22.417999
-15.92,-20.167999,-15.058,2.9557,1.877,-11.528,-13.198,-3.9869,-4.0609,2.9557,1.877,-12.808,-11.53,-9.7865,-20.0,-18.878,-15.92,-18.157,-13.789,-17.431,-15.556
-11.94,-14.137,-11.078,2.9557,2.8479,-10.486,-12.183,-2.0261,-4.0609,2.9557,2.8479,-12.808,-4.7665,-3.8752,-15.0,-12.937,-9.9502,-11.122,-11.837,-18.407,-12.614
-6.9652,-11.122,-9.0879,2.9557,4.7896,-7.3611,-10.152,-1.0458,-4.0609,2.9557,4.7896,-10.837,-1.868,-0.91954,-11.0,-10.957,-7.9602,9.9832,-6.9593,-11.577,-9.6732
-6.9652,-12.127,-9.0879,2.9557,3.8188,-7.3611,-9.1371,-1.0458,-4.0609,2.9557,3.8188,-9.8522,-0.90177,-0.91954,-10.0,-10.957,-8.9552,-2.0771,-5.9837,-6.6992,-8.6928
-11.94,-13.132,-9.0879,0.0,-0.06472,-8.4028,-10.152,-0.06536,-7.1066,0.0,-0.06472,-10.837,-0.90177,0.06568,-12.0,-8.9769,-8.9552,-26.198,-10.862,-11.577,-8.6928
-9.9502,-11.122,-8.0929,-0.98522,0.90615,-7.3611,-7.1066,-0.06536,-4.0609,-0.98522,0.90615,-8.867,2.963,4.0066,-9.0,-6.0066,-5.9701,-21.173,-7.935,-10.602,-5.7516
-6.9652,-11.122,-9.0879,-2.9557,1.877,-8.4028,-6.0914,-3.0065,-1.0152,-2.9557,1.877,-8.867,7.7939,5.977,-4.0,-4.0264,-2.9851,-7.1022,-7.935,-4.748,-3.7908
-3.9801,-10.117,-7.0978,-0.98522,3.8188,-5.2778,-4.0609,-1.0458,-3.0457,-0.98522,3.8188,-5.9113,10.692,8.9327,-1.0,-2.0462,0.0,8.9782,-8.9106,0.13008,1.1111
-1.99,-7.1022,-4.1128,0.98522,4.7896,-0.06944,-2.0305,3.8562,-1.0152,0.98522,4.7896,-2.9557,12.625,8.9327,2.0,-1.0561,2.9851,6.9682,-7.935,5.9837,0.13072
-2.9851,-7.1022,-2.1227,0.98522,2.8479,2.0139,-2.0305,2.8758,-1.0152,0.98522,2.8479,-1.9704,7.7939,4.9918,0.0,-3.0363,1.99,-0.067,-5.9837,2.0813,-3.7908
-7.9602,-4.0871,-1.1277,0.0,1.877,2.0139,-1.0152,3.8562,0.0,0.0,1.877,-0.98522,0.06441,0.06568,-6.0,-2.0462,0.99502,-0.067,-5.0081,-4.748,-0.84967
-12.935,-3.0821,-5.1078,-1.9704,-1.0356,-3.1944,-4.0609,-0.06536,0.0,-1.9704,-1.0356,-3.9409,-6.6989,-3.8752,-10.0,-2.0462,-2.9851,-2.0771,-5.0081,-9.626,-1.8301
-10.945,-1.072,-3.1177,-0.98522,-0.06472,-3.1944,-3.0457,-3.0065,0.0,-0.98522,-0.06472,-2.9557,-7.6651,-2.89,-10.0,-0.06601,-3.9801,-12.127,-5.0081,-3.7724,1.1111
-3.9801,3.9531,3.8474,0.98522,0.90615,2.0139,1.0152,-0.06536,0.0,0.98522,0.90615,1.9704,-2.8341,3.0213,-5.0,3.8944,-1.99,-10.117,0.84553,5.0081,5.0327
-0.99502,3.9531,4.8425,3.9409,1.877,5.1389,2.0305,2.8758,0.0,3.9409,1.877,2.9557,2.963,8.9327,-4.0,5.8746,-0.99502,5.9631,2.7967,-0.84553,6.9935
0.99502,4.9581,6.8325,8.867,6.7314,9.3056,6.0914,5.817,4.0609,8.867,6.7314,8.867,5.8615,11.888,-3.0,8.8449,0.99502,-9.1122,0.84553,-6.6992,10.915
4.9751,8.9782,10.813,12.808,9.644,14.514,11.168,7.7778,6.0914,12.808,9.644,13.793,2.963,10.903,-1.0,10.825,4.9751,-8.1072,-0.13008,-3.7724,11.895
8.9552,12.998,13.798,12.808,9.644,16.597,10.152,12.68,3.0457,12.808,9.644,14.778,2.963,8.9327,3.0,13.795,7.9602,4.9581,0.84553,1.1057,12.876
14.925,16.013,17.778,12.808,7.7023,16.597,10.152,14.641,3.0457,12.808,7.7023,14.778,7.7939,12.874,9.0,19.736,12.935,4.9581,6.6992,5.9837,15.817
15.92,15.008,17.778,9.8522,3.8188,14.514,10.152,11.699,1.0152,9.8522,3.8188,11.823,12.625,15.829,12.0,20.726,15.92,12.998,8.6504,9.8862,13.856
