C3,C4,Cz,F1,F2,F3,F4,F7,F8,Fp1,Fp2,Fz,O1,O2,P3,P4,Pz,T3,T4,T5,T6
12.196,0.12759,7.8049,0.97561,0.98039,-0.2589,1.9417,-7.8317,4.7896,0.97561,0.98039,4.9261,12.322,3.746,14.344,0.96618,11.659,10.399,5.8413,11.823,0.82935
7.4566,3.9553,5.8537,0.97561,-0.98039,-2.2006,-0.97087,-3.9482,8.6731,0.97561,-0.98039,1.9704,6.6351,-1.0159,8.6572,0.0,5.8615,11.356,4.8889,5.9113,0.82935
5.5608,9.697,5.8537,0.0,0.98039,1.6828,-0.97087,0.90615,7.7023,0.0,0.98039,3.9409,2.8436,-1.9683,4.8657,0.0,2.963,6.571,11.556,0.0,0.82935
5.5608,16.396,11.707,2.9268,3.9216,11.392,7.767,4.7896,5.7605,2.9268,3.9216,9.8522,-1.8957,-2.9206,2.97,1.9324,2.963,0.82935,7.746,-3.9409,-0.12759
5.5608,20.223,15.61,10.732,6.8627,16.246,16.504999,9.644,7.7023,10.732,6.8627,14.778,-3.7915,-1.9683,2.97,7.7295,5.8615,-5.8692,6.7937,-4.9261,3.7002
6.5087,20.223,13.659,11.707,11.765,13.333,19.417,8.6731,8.6731,11.707,11.765,14.778,0.94787,7.5556,3.9179,18.357,12.625,-0.12759,10.603,-0.98522,13.27
3.6651,9.697,2.9268,7.8049,5.8824,6.5372,6.7961,8.6731,0.90615,7.8049,5.8824,4.9261,4.7393,15.175,3.9179,21.256001,16.49,-3.9553,3.9365,-1.9704,15.183
1.7694,2.9984,-2.9268,7.8049,4.902,0.71197,-2.9126,8.6731,-6.8608,7.8049,4.902,0.0,5.6872,14.222,2.0221,19.323999,15.523,-1.0845,-7.4921,-5.9113,13.27
5.5608,2.9984,0.97561,7.8049,2.9412,7.5081,-5.8252,9.644,-5.89,7.8049,2.9412,3.9409,5.6872,11.365,3.9179,15.459,13.591,7.5279,-12.254,-2.9557,8.4848
8.4044,-1.7863,6.8293,9.7561,2.9412,8.479,-4.8544,7.7023,-7.8317,9.7561,2.9412,6.8966,3.7915,5.6508,4.8657,5.7971,7.7939,11.356,-5.5873,3.9409,4.6571
7.4566,-4.6571,5.8537,6.8293,0.98039,7.5081,-7.767,4.7896,-9.7735,6.8293,0.98039,3.9409,1.8957,-0.06349,4.8657,-1.9324,1.9968,10.399,-7.4921,3.9409,-2.0415
5.5608,-5.614,-0.97561,0.0,-2.9412,6.5372,-10.68,0.90615,-8.8026,0.0,-2.9412,-0.98522,0.0,-4.8254,5.8136,-6.7633,0.06441,4.6571,-6.5397,6.8966,-5.8692
2.7172,-5.614,-8.7805,-0.97561,-3.9216,1.6828,-9.7087,2.8479,-4.9191,-0.97561,-3.9216,-4.9261,-3.7915,-10.54,4.8657,-11.594,-3.8003,3.7002,-0.8254,7.8818,-9.697
5.5608,-1.7863,-5.8537,1.9512,1.9608,5.5663,-0.97087,7.7023,-4.9191,1.9512,1.9608,-0.98522,-0.94787,-8.6349,5.8136,-8.6957,-1.868,11.356,-2.7302,13.793,-11.611
12.196,4.9123,4.878,6.8293,3.9216,9.4498,5.8252,11.586,-2.9773,6.8293,3.9216,6.8966,3.7915,-2.9206,10.553,0.96618,5.8615,8.4848,-0.8254,17.733999,-9.697
11.248,10.654,11.707,3.9024,2.9412,8.479,7.767,8.6731,-2.9773,3.9024,2.9412,8.867,2.8436,-1.9683,8.6572,7.7295,8.7601,6.571,-0.8254,12.808,-4.9123
6.5087,13.525,14.634,3.9024,1.9608,9.4498,7.767,6.7314,0.90615,3.9024,1.9608,10.837,3.7915,1.8413,4.8657,11.594,10.692,11.356,4.8889,3.9409,-0.12759
1.7694,17.351999,11.707,7.8049,4.902,7.5081,14.563,4.7896,6.7314,7.8049,4.902,12.808,2.8436,3.746,1.0742,13.527,9.7262,8.4848,9.6508,-1.9704,2.7432
-3.9179,17.351999,2.9268,2.9268,3.9216,1.6828,16.504999,0.90615,-0.06472,2.9268,3.9216,8.867,-3.7915,0.88889,-6.5087,10.628,3.9291,8.4848,6.7937,-5.9113,6.571
-3.9179,13.525,-3.9024,0.97561,1.9608,3.6246,10.68,0.90615,-2.0065,0.97561,1.9608,5.9113,-3.7915,3.746,-7.4566,6.7633,-1.868,5.614,-1.7778,-7.8818,9.4418
-3.9179,1.0845,-7.8049,0.97561,0.0,5.5663,1.9417,2.8479,-5.89,0.97561,0.0,0.98522,-1.8957,4.6984,-7.4566,0.0,-4.7665,-4.9123,-2.7302,-6.8966,7.5279
-2.97,-3.7002,-4.878,3.9024,0.0,2.6537,-4.8544,5.7605,-2.0065,3.9024,0.0,0.0,0.0,6.6032,-4.613,1.9324,-0.90177,-2.0415,6.7937,-4.9261,7.5279
0.82148,2.9984,4.878,4.878,0.0,7.5081,0.0,4.7896,-8.8026,4.878,0.0,2.9557,1.8957,6.6032,2.0221,8.6957,5.8615,-9.697,-1.7778,-0.98522,9.4418
3.6651,4.9123,10.732,0.97561,-3.9216,6.5372,1.9417,0.90615,-8.8026,0.97561,-3.9216,2.9557,2.8436,4.6984,5.8136,9.6618,7.7939,-12.568,4.8889,2.9557,8.4848
2.7172,-0.82935,7.8049,-2.9268,-5.8824,-5.1133,-4.8544,-2.0065,-6.8608,-2.9268,-5.8824,-1.9704,2.8436,0.88889,6.7615,3.8647,4.8953,-6.8262,5.8413,7.8818,2.7432
1.7694,-8.4848,-1.9512,-6.8293,-9.8039,-8.9968,-13.592,0.90615,-12.686,-6.8293,-9.8039,-7.8818,1.8957,-4.8254,6.7615,-5.7971,-1.868,10.399,-8.4444,18.719,-4.9123
1.7694,-11.356,-8.7805,-7.8049,-9.8039,-7.055,-14.563,3.8188,-14.628,-7.8049,-9.8039,-10.837,1.8957,-4.8254,4.8657,-7.7295,-2.8341,13.27,-12.254,14.778,-5.8692
-0.12638,-10.399,-10.732,-8.7805,-11.765,-6.0841,-12.621,1.877,-15.599,-8.7805,-11.765,-11.823,-0.94787,-4.8254,1.0742,-7.7295,-3.8003,9.4418,-12.254,2.9557,-4.9123
-3.9179,-5.614,-5.8537,-4.878,-6.8627,-5.1133,-6.7961,-0.06472,-16.57,-4.878,-6.8627,-7.8818,-2.8436,-3.873,-3.6651,-2.8986,-2.8341,10.399,-7.4921,-0.98522,-0.12759
-10.553,-3.7002,-4.878,-10.732,-12.745,-6.0841,-10.68,-4.9191,-3.9482,-10.732,-12.745,-10.837,-4.7393,-2.9206,-10.3,0.96618,-3.8003,-4.9123,-3.6825,-3.9409,1.7863
-9.6051,-3.7002,-4.878,-11.707,-13.725,-3.1715,-10.68,-2.9773,-0.06472,-11.707,-13.725,-12.808,-2.8436,-1.0159,-9.3523,0.96618,-3.8003,-2.9984,-7.4921,-3.9409,2.7432
-3.9179,-4.6571,-2.9268,-6.8293,-9.8039,-0.2589,-4.8544,1.877,-3.9482,-6.8293,-9.8039,-9.8522,-2.8436,-1.0159,-4.613,-0.96618,-1.868,-3.9553,-7.4921,-7.8818,-0.12759
1.7694,-2.7432,2.9268,-3.9024,-2.9412,5.5663,0.97087,-1.0356,2.8479,-3.9024,-2.9412,-1.9704,-0.94787,0.88889,2.0221,-1.9324,1.9968,-2.0415,-0.8254,-10.837,0.82935
2.7172,-5.614,5.8537,-2.9268,-0.98039,3.6246,1.9417,-4.9191,4.7896,-2.9268,-0.98039,2.9557,-3.7915,-1.0159,0.12638,-6.7633,0.06441,-2.0415,8.6984,-12.808,-0.12759
4.613,-2.7432,6.8293,0.97561,1.9608,4.5955,3.8835,-6.8608,5.7605,0.97561,1.9608,7.8818,0.0,1.8413,2.0221,-4.8309,1.0306,-13.525,12.508,-10.837,1.7863
2.7172,2.0415,0.97561,-0.97561,0.98039,2.6537,8.7379,-11.715,7.7023,-0.97561,0.98039,9.8522,6.6351,8.5079,2.97,1.9324,2.963,-22.136999,13.46,-5.9113,4.6571
-2.0221,2.9984,-9.7561,-6.8293,-2.9412,-1.2298,6.7961,-16.57,12.557,-6.8293,-2.9412,4.9261,9.4787,11.365,4.8657,6.7633,2.963,-17.351999,10.603,3.9409,7.5279
-3.9179,3.9553,-11.707,-8.7805,-2.9412,-4.1424,0.97087,-17.540001,8.6731,-8.7805,-2.9412,-0.98522,12.322,12.317,7.7093,9.6618,6.8277,-12.568,5.8413,7.8818,10.399
-3.9179,3.9553,-7.8049,-10.732,-5.8824,-6.0841,-3.8835,-12.686,5.7605,-10.732,-5.8824,-4.9261,12.322,12.317,7.7093,10.628,8.7601,-8.74,2.9841,7.8818,9.4418
1.7694,6.8262,1.9512,-5.8537,-3.9216,-1.2298,-2.9126,-5.89,3.8188,-5.8537,-3.9216,-1.9704,11.374,9.4603,10.553,11.594,12.625,-2.9984,-10.349,14.778,7.5279
8.4044,11.611,10.732,-0.97561,-2.9412,5.5663,1.9417,-0.06472,-2.0065,-0.97561,-2.9412,4.9261,9.4787,6.6032,11.501,13.527,14.557,4.6571,-8.4444,16.749001,3.7002
8.4044,8.74,10.732,2.9268,0.0,11.392,5.8252,4.7896,-2.0065,2.9268,0.0,7.8818,2.8436,-0.06349,6.7615,6.7633,7.7939,6.571,2.0317,10.837,-2.0415
5.5608,1.0845,9.7561,1.9512,-0.98039,8.479,6.7961,3.8188,3.8188,1.9512,-0.98039,6.8966,-1.8957,-3.873,4.8657,0.96618,2.963,2.7432,0.12698,4.9261,-7.7831
6.5087,-1.7863,10.732,3.9024,4.902,8.479,9.7087,5.7605,4.7896,3.9024,4.902,9.8522,0.0,0.88889,5.8136,0.0,4.8953,3.7002,-7.4921,2.9557,-7.7831
4.613,-4.6571,8.7805,4.878,1.9608,7.5081,8.7379,6.7314,1.877,4.878,1.9608,9.8522,1.8957,3.746,2.97,0.0,3.9291,-5.8692,-1.7778,0.98522,-4.9123
3.6651,0.12759,8.7805,3.9024,2.9412,8.479,6.7961,7.7023,4.7896,3.9024,2.9412,8.867,0.0,0.88889,-0.82148,2.8986,1.0306,5.614,5.8413,-2.9557,-2.0415
6.5087,10.654,9.7561,3.9024,3.9216,11.392,5.8252,9.644,1.877,3.9024,3.9216,8.867,-0.94787,-1.0159,-1.7694,7.7295,-0.90177,18.054001,2.0317,-3.9409,0.82935
4.613,9.697,1.9512,0.97561,0.98039,6.5372,1.9417,7.7023,-2.0065,0.97561,0.98039,2.9557,-2.8436,-3.873,-3.6651,2.8986,-4.7665,10.399,3.9365,-2.9557,-2.0415
-0.12638,0.12759,-6.8293,-3.9024,-5.8824,-0.2589,-2.9126,3.8188,0.90615,-3.9024,-5.8824,-3.9409,-6.6351,-8.6349,-4.613,-4.8309,-8.6312,11.356,2.9841,-6.8966,-5.8692
-5.8136,-9.4418,-9.7561,-5.8537,-6.8627,-1.2298,-2.9126,-1.0356,0.90615,-5.8537,-6.8627,-4.9261,-9.4787,-12.444,-6.5087,-12.56,-11.53,8.4848,1.0794,-12.808,-7.7831
-10.553,-12.313,-7.8049,-5.8537,-6.8627,-0.2589,-3.8835,-6.8608,-0.06472,-5.8537,-6.8627,-3.9409,-10.427,-11.492,-10.3,-18.357,-14.428,3.7002,-8.4444,-7.8818,-9.697
-13.397,-14.226,-8.7805,-10.732,-8.8235,-6.0841,-6.7961,-9.7735,-2.0065,-10.732,-8.8235,-8.867,-6.6351,-6.7302,-9.3523,-16.424999,-12.496,-3.9553,-7.4921,-0.98522,-5.8692
-20.032,-19.011,-18.537001,-21.462999,-13.725,-23.559999,-14.563,-18.511,-3.9482,-21.462999,-13.725,-20.690001,-6.6351,-5.7778,-10.3,-15.459,-12.496,-7.7831,2.0317,1.9704,-2.9984
-18.136,-13.27,-18.537001,-18.537001,-12.745,-30.356001,-13.592,-17.540001,-2.0065,-18.537001,-12.745,-20.690001,-4.7393,-2.9206,-6.5087,-7.7295,-8.6312,-0.12759,2.0317,4.9261,-2.0415
-10.553,-3.7002,-10.732,-9.7561,-4.902,-17.735001,-4.8544,-15.599,-1.0356,-9.7561,-4.902,-11.823,-0.94787,1.8413,-1.7694,1.9324,-2.8341,-13.525,-0.8254,3.9409,2.7432
-4.8657,3.9553,-5.8537,-3.9024,-0.98039,-6.0841,0.97087,-14.628,6.7314,-3.9024,-0.98039,-2.9557,1.8957,4.6984,1.0742,8.6957,1.0306,-18.309,1.0794,1.9704,4.6571
-0.12638,8.74,0.0,-2.9268,2.9412,-2.2006,5.8252,-11.715,12.557,-2.9268,2.9412,1.9704,4.7393,5.6508,2.97,8.6957,3.9291,-0.12759,5.8413,2.9557,4.6571
0.82148,5.8692,2.9268,-0.97561,0.98039,1.6828,4.8544,-4.9191,10.615,-0.97561,0.98039,2.9557,2.8436,2.7937,2.97,1.9324,1.0306,3.7002,6.7937,5.9113,1.7863
1.7694,-1.7863,4.878,3.9024,3.9216,5.5663,6.7961,2.8479,7.7023,3.9024,3.9216,4.9261,0.0,-1.9683,2.0221,-8.6957,-0.90177,1.7863,2.9841,-1.9704,-4.9123
5.5608,-2.7432,8.7805,4.878,3.9216,6.5372,7.767,8.6731,0.90615,4.878,3.9216,6.8966,1.8957,-1.9683,5.8136,-8.6957,1.9968,-0.12759,-10.349,-4.9261,-8.74
8.4044,1.0845,9.7561,7.8049,5.8824,9.4498,6.7961,9.644,-1.0356,7.8049,5.8824,7.8818,6.6351,2.7937,10.553,1.9324,8.7601,1.7863,-3.6825,-0.98522,-2.9984
4.613,-0.82935,4.878,4.878,3.9216,8.479,-0.97087,8.6731,3.8188,4.878,3.9216,4.9261,3.7915,1.8413,5.8136,9.6618,7.7939,7.5279,7.746,-2.9557,3.7002
0.82148,-2.7432,-1.9512,1.9512,3.9216,5.5663,-1.9417,4.7896,3.8188,1.9512,3.9216,1.9704,-5.6872,-4.8254,-2.7172,7.7295,1.9968,6.571,9.6508,-5.9113,3.7002
-1.0742,-1.7863,-6.8293,0.97561,1.9608,-1.2298,0.97087,3.8188,-0.06472,0.97561,1.9608,0.98522,-11.374,-10.54,-6.5087,-0.96618,-4.7665,-1.0845,11.556,-4.9261,-1.0845
-2.0221,-5.614,-6.8293,-0.97561,-0.98039,-0.2589,-0.97087,2.8479,-1.0356,-0.97561,-0.98039,-1.9704,-10.427,-9.5873,-3.6651,-6.7633,-5.7327,-12.568,2.0317,-0.98522,-4.9123
-5.8136,-7.5279,-5.8537,-4.878,-5.8824,-3.1715,-6.7961,-2.0065,-4.9191,-4.878,-5.8824,-6.8966,-7.5829,-4.8254,-2.7172,-6.7633,-5.7327,5.614,-3.6825,4.9261,-4.9123
-8.6572,-9.4418,-8.7805,-8.7805,-7.8431,-7.055,-14.563,-3.9482,-5.89,-8.7805,-7.8431,-11.823,-4.7393,-1.9683,-0.82148,-5.7971,-6.6989,21.882,-15.111,14.778,-3.9553
-9.6051,-13.27,-12.683,-6.8293,-6.8627,-6.0841,-16.504999,-2.9773,-10.744,-6.8293,-6.8627,-12.808,-3.7915,-0.06349,-4.613,-7.7295,-10.564,13.27,-6.5397,6.8966,-1.0845
-5.8136,-11.356,-14.634,0.97561,-1.9608,-5.1133,-6.7961,-1.0356,-7.8317,0.97561,-1.9608,-5.9113,0.94787,1.8413,-5.5608,-8.6957,-10.564,0.82935,3.9365,-0.98522,0.82935
-2.97,-5.614,-9.7561,2.9268,5.8824,-2.2006,2.9126,1.877,1.877,2.9268,5.8824,0.98522,1.8957,0.88889,-2.7172,-6.7633,-6.6989,3.7002,5.8413,0.0,-0.12759
-2.97,-1.7863,-3.9024,4.878,5.8824,-1.2298,3.8835,-0.06472,7.7023,4.878,5.8824,1.9704,1.8957,1.8413,0.12638,-3.8647,-0.90177,6.571,-4.6349,0.0,-3.9553
-4.8657,1.0845,-0.97561,7.8049,9.8039,-3.1715,5.8252,-1.0356,7.7023,7.8049,9.8039,0.98522,3.7915,3.746,2.0221,-1.9324,1.9968,-3.9553,-5.5873,-0.98522,-3.9553
-4.8657,3.9553,0.97561,9.7561,11.765,-3.1715,9.7087,-0.06472,6.7314,9.7561,11.765,3.9409,3.7915,2.7937,2.0221,-0.96618,1.0306,-10.654,1.0794,-2.9557,-3.9553
-4.8657,2.9984,-0.97561,9.7561,12.745,-4.1424,12.621,-1.0356,5.7605,9.7561,12.745,4.9261,1.8957,0.88889,-0.82148,-1.9324,-1.868,-16.396,2.9841,-0.98522,-5.8692
-4.8657,2.9984,-1.9512,5.8537,8.8235,-3.1715,9.7087,-1.0356,3.8188,5.8537,8.8235,1.9704,3.7915,2.7937,-0.82148,0.96618,0.06441,-8.74,3.9365,3.9409,-2.9984
-6.7615,3.9553,0.97561,0.0,5.8824,-4.1424,4.8544,-4.9191,6.7314,0.0,5.8824,-2.9557,-0.94787,-0.06349,-3.6651,1.9324,1.0306,-6.8262,8.6984,1.9704,-2.0415
-7.7093,2.0415,3.9024,-8.7805,0.0,-7.055,-0.97087,-6.8608,7.7023,-8.7805,0.0,-7.8818,-7.5829,-5.7778,-6.5087,1.9324,1.0306,-2.0415,11.556,-1.9704,2.7432
-5.8136,1.0845,1.9512,-8.7805,-6.8627,-8.0259,-4.8544,-7.8317,0.90615,-8.7805,-6.8627,-10.837,-9.4787,-6.7302,-6.5087,2.8986,1.0306,4.6571,2.0317,-7.8818,7.5279
-2.97,-2.7432,-5.8537,-7.8049,-7.8431,-9.9676,-6.7961,-3.9482,-0.06472,-7.8049,-7.8431,-12.808,-9.4787,-7.6825,-4.613,0.0,-1.868,0.82935,2.9841,-9.8522,7.5279
-3.9179,-6.571,-14.634,-4.878,-2.9412,-10.939,-8.7379,-1.0356,2.8479,-4.878,-2.9412,-13.793,-8.5308,-8.6349,-2.7172,-4.8309,-5.7327,0.82935,2.0317,-4.9261,3.7002
-4.8657,-8.4848,-17.561001,-3.9024,-3.9216,-12.88,-10.68,-1.0356,-3.9482,-3.9024,-3.9216,-11.823,-8.5308,-9.5873,-4.613,-9.6618,-12.496,-1.0845,-2.7302,-2.9557,-3.9553
-0.12638,-5.614,-6.8293,-0.97561,-2.9412,-3.1715,-6.7961,3.8188,-5.89,-0.97561,-2.9412,-3.9409,-4.7393,-4.8254,-1.7694,-8.6957,-10.564,9.4418,-1.7778,3.9409,-5.8692
8.4044,-0.82935,7.8049,4.878,2.9412,9.4498,3.8835,10.615,-14.628,4.878,2.9412,6.8966,7.5829,4.6984,5.8136,-2.8986,-0.90177,9.4418,-8.4444,11.823,-5.8692
13.144,2.0415,15.61,10.732,7.8431,15.275,8.7379,14.498,-2.9773,10.732,7.8431,13.793,17.062,12.317,12.449,0.0,7.7939,7.5279,-15.111,20.690001,-7.7831
14.092,4.9123,17.561001,13.659,10.784,14.304,11.65,13.528,4.7896,13.659,10.784,15.764,21.801001,17.079,16.24,1.9324,11.659,14.226,-18.921,24.631001,-2.9984
10.3,8.74,11.707,6.8293,3.9216,8.479,8.7379,6.7314,0.90615,6.8293,3.9216,9.8522,18.957001,18.032,13.397,6.7633,10.692,15.183,-2.7302,16.749001,3.7002
3.6651,5.8692,1.9512,0.0,-0.98039,3.6246,0.0,-2.0065,-0.06472,0.0,-0.98039,0.98522,10.427,11.365,6.7615,9.6618,6.8277,5.614,9.6508,4.9261,7.5279
-1.0742,1.0845,-5.8537,-6.8293,-5.8824,1.6828,-6.7961,-5.89,-0.06472,-6.8293,-5.8824,-5.9113,0.94787,2.7937,0.12638,9.6618,1.9968,-6.8262,4.8889,-3.9409,6.571
-6.7615,-4.6571,-11.707,-11.707,-8.8235,-7.055,-9.7087,-7.8317,-1.0356,-11.707,-8.8235,-10.837,-5.6872,-3.873,-5.5608,4.8309,-2.8341,-8.74,6.7937,-7.8818,5.614
-7.7093,-4.6571,-9.7561,-8.7805,-10.784,-8.9968,-4.8544,-3.9482,-6.8608,-8.7805,-10.784,-9.8522,-7.5829,-7.6825,-4.613,-0.96618,-3.8003,-11.611,5.8413,-4.9261,1.7863
-4.8657,-2.7432,-3.9024,-0.97561,-0.98039,-6.0841,1.9417,1.877,0.90615,-0.97561,-0.98039,-4.9261,-8.5308,-9.5873,-2.7172,-3.8647,-2.8341,-8.74,2.9841,-10.837,-1.0845
-9.6051,-6.571,-6.8293,-2.9268,-0.98039,-7.055,-3.8835,-1.0356,10.615,-2.9268,-0.98039,-7.8818,-14.218,-13.397,-7.4566,-9.6618,-9.5974,-2.9984,1.0794,-15.764,-6.8262
-11.501,-6.571,-9.7561,-0.97561,1.9608,-8.9968,-4.8544,-2.0065,6.7314,-0.97561,1.9608,-8.867,-14.218,-14.349,-12.196,-10.628,-14.428,2.7432,0.12698,-10.837,-8.74
-10.553,-3.7002,-10.732,3.9024,2.9412,-7.055,-0.97087,1.877,3.8188,3.9024,2.9412,-4.9261,-8.5308,-10.54,-11.248,-6.7633,-14.428,-2.0415,-0.8254,-6.8966,-6.8262
-8.6572,1.0845,-8.7805,5.8537,3.9216,-8.0259,2.9126,2.8479,0.90615,5.8537,3.9216,-0.98522,-3.7915,-5.7778,-8.4044,-4.8309,-10.564,-6.8262,-4.6349,-3.9409,-7.7831
-3.9179,3.9553,0.97561,5.8537,6.8627,-4.1424,5.8252,4.7896,-1.0356,5.8537,6.8627,3.9409,1.8957,0.88889,-2.7172,-1.9324,-1.868,0.82935,0.12698,-2.9557,-5.8692
-1.0742,4.9123,11.707,5.8537,6.8627,3.6246,8.7379,2.8479,1.877,5.8537,6.8627,8.867,4.7393,7.5556,2.0221,-1.9324,4.8953,2.7432,0.12698,-2.9557,1.7863
1.7694,8.74,14.634,6.8293,6.8627,13.333,14.563,4.7896,-2.9773,6.8293,6.8627,11.823,6.6351,11.365,2.97,0.96618,7.7939,-0.12759,-6.5397,-1.9704,8.4848
2.7172,3.9553,7.8049,7.8049,4.902,8.479,10.68,5.7605,0.90615,7.8049,4.902,8.867,6.6351,13.27,2.0221,2.8986,5.8615,2.7432,0.12698,-1.9704,11.356
-1.0742,-3.7002,-4.878,5.8537,2.9412,-2.2006,0.0,2.8479,-1.0356,5.8537,2.9412,0.0,3.7915,8.5079,0.12638,0.96618,1.0306,-5.8692,4.8889,2.9557,9.4418
-2.97,-8.4848,-13.659,0.0,0.0,-3.1715,-7.767,0.90615,-3.9482,0.0,0.0,-7.8818,3.7915,5.6508,-1.7694,1.9324,-0.90177,-1.0845,-0.8254,0.98522,6.571
-1.0742,-3.7002,-11.707,0.97561,1.9608,1.6828,-4.8544,4.7896,-2.0065,0.97561,1.9608,-4.9261,6.6351,6.6032,2.0221,4.8309,1.9968,7.5279,-0.8254,0.0,5.614
-0.12638,0.12759,-5.8537,5.8537,3.9216,1.6828,-1.9417,3.8188,1.877,5.8537,3.9216,0.0,6.6351,2.7937,3.9179,4.8309,2.963,3.7002,-1.7778,1.9704,2.7432
4.613,8.74,5.8537,9.7561,8.8235,2.6537,2.9126,3.8188,3.8188,9.7561,8.8235,5.9113,6.6351,-0.06349,5.8136,4.8309,4.8953,-5.8692,-2.7302,2.9557,0.82935
9.3523,15.439,15.61,9.7561,9.8039,5.5663,7.767,4.7896,3.8188,9.7561,9.8039,10.837,1.8957,-4.8254,8.6572,4.8309,6.8277,-10.654,2.9841,1.9704,-4.9123
12.196,14.482,20.488001,10.732,13.725,16.246,10.68,6.7314,4.7896,10.732,13.725,13.793,-0.94787,-6.7302,9.6051,5.7971,8.7601,-0.12759,9.6508,1.9704,-8.74
13.144,11.611,19.511999,11.707,10.784,16.246,7.767,9.644,8.6731,11.707,10.784,14.778,1.8957,-3.873,11.501,5.7971,10.692,11.356,5.8413,4.9261,-8.74
13.144,7.7831,16.584999,9.7561,3.9216,8.479,6.7961,8.6731,4.7896,9.7561,3.9216,13.793,4.7393,1.8413,10.553,5.7971,11.659,9.4418,-3.6825,7.8818,-4.9123
8.4044,5.8692,8.7805,0.97561,-2.9412,1.6828,-0.97087,0.90615,-9.7735,0.97561,-2.9412,5.9113,4.7393,6.6032,7.7093,3.8647,8.7601,-0.12759,1.0794,5.9113,0.82935
4.613,1.0845,0.97561,-2.9268,-6.8627,-3.1715,-5.8252,-1.0356,-9.7735,-2.9268,-6.8627,-0.98522,2.8436,7.5556,3.9179,0.96618,3.9291,1.7863,1.0794,6.8966,8.4848
0.82148,-3.7002,-5.8537,-4.878,-8.8235,-4.1424,-6.7961,-1.0356,-2.9773,-4.878,-8.8235,-4.9261,-0.94787,6.6032,-0.82148,-1.9324,-2.8341,2.7432,-2.7302,1.9704,12.313
-2.97,-4.6571,-5.8537,-4.878,-3.9216,-7.055,-3.8835,-2.0065,-0.06472,-4.878,-3.9216,-5.9113,1.8957,8.5079,-3.6651,-1.9324,-2.8341,-10.654,-8.4444,-6.8966,14.226
-3.9179,-8.4848,-6.8293,-3.9024,-4.902,-9.9676,-5.8252,-2.9773,-2.9773,-3.9024,-4.902,-6.8966,3.7915,9.4603,-4.613,-1.9324,-1.868,-8.74,2.0317,-8.867,13.27
-1.0742,-8.4848,-8.7805,-2.9268,-2.9412,-8.9968,-9.7087,-2.9773,-2.9773,-2.9268,-2.9412,-7.8818,4.7393,9.4603,0.12638,0.0,1.0306,-8.74,2.9841,-5.9113,10.399
3.6651,-1.7863,-6.8293,-1.9512,-1.9608,-3.1715,-7.767,-1.0356,-2.9773,-1.9512,-1.9608,-4.9261,7.5829,11.365,4.8657,6.7633,5.8615,-3.9553,-4.6349,-1.9704,10.399
5.5608,6.8262,0.97561,1.9512,1.9608,3.6246,-0.97087,2.8479,-0.06472,1.9512,1.9608,0.98522,5.6872,9.4603,5.8136,9.6618,6.8277,-2.0415,2.9841,4.9261,5.614
5.5608,10.654,8.7805,4.878,4.902,4.5955,6.7961,3.8188,0.90615,4.878,4.902,6.8966,-2.8436,-0.06349,2.0221,6.7633,4.8953,-1.0845,5.8413,2.9557,1.7863
8.4044,12.568,13.659,6.8293,4.902,2.6537,10.68,6.7314,3.8188,6.8293,4.902,10.837,-8.5308,-7.6825,2.0221,5.7971,1.9968,9.4418,6.7937,3.9409,-0.12759
12.196,17.351999,21.462999,9.7561,8.8235,7.5081,14.563,8.6731,8.6731,9.7561,8.8235,15.764,-6.6351,-7.6825,5.8136,6.7633,4.8953,14.226,1.0794,6.8966,-1.0845
9.3523,14.482,19.511999,10.732,7.8431,11.392,12.621,8.6731,6.7314,10.732,7.8431,15.764,-4.7393,-4.8254,3.9179,3.8647,2.963,5.614,1.0794,5.9113,-4.9123
4.613,5.8692,11.707,11.707,9.8039,14.304,11.65,9.644,0.90615,11.707,9.8039,14.778,-2.8436,-1.0159,0.12638,0.0,1.0306,1.7863,0.12698,0.0,-8.74
10.3,1.0845,10.732,19.511999,12.745,19.159,12.621,13.528,2.8479,19.511999,12.745,19.704,4.7393,3.746,5.8136,-0.96618,5.8615,10.399,-1.7778,5.9113,-8.74
20.726999,4.9123,13.659,20.488001,16.667,27.896,16.504999,15.469,5.7605,20.488001,16.667,26.601,13.27,11.365,15.292,5.7971,15.523,12.313,0.12698,9.8522,-4.9123
19.778999,12.568,17.561001,12.683,11.765,18.188,12.621,12.557,-1.0356,12.683,11.765,21.674999,14.218,12.317,16.24,9.6618,17.455999,-2.9984,-11.302,-0.98522,-6.8262
13.144,15.439,15.61,6.8293,11.765,2.6537,7.767,6.7314,-0.06472,6.8293,11.765,11.823,11.374,11.365,11.501,9.6618,14.557,1.7863,-1.7778,-3.9409,-2.0415
5.5608,8.74,7.8049,3.9024,7.8431,-2.2006,0.0,0.90615,3.8188,3.9024,7.8431,2.9557,8.5308,11.365,7.7093,7.7295,9.7262,11.356,3.9365,2.9557,5.614
-0.12638,1.0845,2.9268,0.97561,3.9216,-6.0841,-4.8544,-3.9482,-1.0356,0.97561,3.9216,-2.9557,6.6351,10.413,6.7615,6.7633,8.7601,6.571,2.0317,5.9113,12.313
-1.0742,-3.7002,0.0,0.0,1.9608,-7.055,-6.7961,-7.8317,-0.06472,0.0,1.9608,-3.9409,3.7915,8.5079,5.8136,7.7295,8.7601,-6.8262,-1.7778,5.9113,15.183
0.82148,-3.7002,-1.9512,-0.97561,1.9608,-3.1715,-6.7961,-6.8608,0.90615,-0.97561,1.9608,-1.9704,-3.7915,3.746,1.0742,6.7633,2.963,-13.525,2.0317,0.98522,16.139999
1.7694,1.0845,-1.9512,1.9512,0.0,-3.1715,-5.8252,-2.9773,-1.0356,1.9512,0.0,0.0,-6.6351,0.88889,-3.6651,6.7633,-0.90177,-3.9553,6.7937,-0.98522,15.183
0.82148,2.9984,-3.9024,1.9512,-0.98039,-5.1133,-6.7961,-1.0356,-1.0356,1.9512,-0.98039,-2.9557,-6.6351,-1.0159,-5.5608,3.8647,-2.8341,3.7002,5.8413,1.9704,8.4848
-0.12638,1.0845,-6.8293,-0.97561,0.98039,-7.055,-3.8835,-2.0065,-0.06472,-0.97561,0.98039,-3.9409,-5.6872,-2.9206,-4.613,-1.9324,-5.7327,-3.9553,2.9841,2.9557,2.7432
2.7172,0.12759,-6.8293,0.0,0.98039,-5.1133,-1.9417,-2.0065,4.7896,0.0,0.98039,-0.98522,-1.8957,-3.873,0.12638,-5.7971,-3.8003,-15.439,-3.6825,0.98522,-6.8262
5.5608,-4.6571,-1.9512,0.0,1.9608,-3.1715,-2.9126,-1.0356,2.8479,0.0,1.9608,1.9704,2.8436,-4.8254,4.8657,-9.6618,-1.868,0.82935,-2.7302,3.9409,-16.396
9.3523,-1.7863,6.8293,2.9268,1.9608,6.5372,0.0,5.7605,1.877,2.9268,1.9608,8.867,6.6351,-0.06349,7.7093,-6.7633,1.9968,22.839001,-11.302,9.8522,-15.439
13.144,6.8262,17.561001,10.732,7.8431,22.070999,7.767,10.615,4.7896,10.732,7.8431,18.719,6.6351,1.8413,6.7615,0.0,5.8615,16.139999,-1.7778,4.9261,-8.74
13.144,12.568,21.462999,10.732,6.8627,25.955,11.65,9.644,3.8188,10.732,6.8627,21.674999,0.94787,0.88889,3.9179,7.7295,8.7601,9.4418,11.556,-3.9409,-2.0415
12.196,12.568,15.61,11.707,7.8431,16.246,9.7087,7.7023,3.8188,11.707,7.8431,19.704,-0.94787,1.8413,2.97,12.56,9.7262,6.571,7.746,-7.8818,1.7863
10.3,7.7831,5.8537,11.707,5.8824,12.362,9.7087,6.7314,2.8479,11.707,5.8824,15.764,0.0,3.746,2.97,10.628,7.7939,-0.12759,2.0317,-9.8522,3.7002
7.4566,6.8262,-1.9512,6.8293,3.9216,9.4498,8.7379,-0.06472,-2.9773,6.8293,3.9216,11.823,-1.8957,2.7937,0.12638,4.8309,2.963,-10.654,2.9841,-11.823,2.7432
3.6651,3.9553,-0.97561,-0.97561,-2.9412,2.6537,6.7961,-6.8608,-2.9773,-0.97561,-2.9412,7.8818,-4.7393,-1.9683,0.12638,-1.9324,-0.90177,-17.351999,5.8413,-2.9557,-0.12759
-3.9179,1.0845,0.97561,-6.8293,-3.9216,-1.2298,5.8252,-9.7735,0.90615,-6.8293,-3.9216,2.9557,-6.6351,-5.7778,-5.5608,-6.7633,-6.6989,-8.74,4.8889,-4.9261,-0.12759
-10.553,-4.6571,-6.8293,-8.7805,-4.902,-2.2006,-3.8835,-8.8026,1.877,-8.7805,-4.902,-3.9409,-5.6872,-6.7302,-11.248,-7.7295,-10.564,-3.9553,2.9841,-4.9261,1.7863
-12.449,-10.399,-17.561001,-6.8293,-3.9216,-10.939,-13.592,-8.8026,0.90615,-6.8293,-3.9216,-10.837,-7.5829,-9.5873,-12.196,-8.6957,-13.462,3.7002,-1.7778,0.0,-0.12759
-9.6051,-12.313,-16.584999,-1.9512,-3.9216,-9.9676,-12.621,-2.9773,-3.9482,-1.9512,-3.9216,-9.8522,-7.5829,-9.5873,-11.248,-8.6957,-12.496,9.4418,-7.4921,1.9704,-2.9984
-7.7093,-6.571,-5.8537,-1.9512,-0.98039,-5.1133,-8.7379,-0.06472,-6.8608,-1.9512,-0.98039,-5.9113,-6.6351,-7.6825,-9.3523,-6.7633,-8.6312,5.614,-12.254,1.9704,-2.0415
-4.8657,-1.7863,1.9512,-2.9268,0.0,-3.1715,-1.9417,-2.0065,-6.8608,-2.9268,0.0,-1.9704,-4.7393,-5.7778,-6.5087,-4.8309,-4.7665,3.7002,-4.6349,5.9113,-0.12759
-2.97,-0.82935,2.9268,-3.9024,0.0,-6.0841,0.0,-3.9482,-0.06472,-3.9024,0.0,-1.9704,0.0,-1.9683,-2.7172,-1.9324,-0.90177,-8.74,-12.254,3.9409,-0.12759
-2.0221,1.0845,-3.9024,-1.9512,-0.98039,-5.1133,2.9126,-2.9773,-1.0356,-1.9512,-0.98039,-2.9557,2.8436,0.88889,-0.82148,2.8986,1.0306,-4.9123,1.0794,-0.98522,0.82935
-4.8657,2.0415,-15.61,-0.97561,-1.9608,-4.1424,1.9417,0.90615,3.8188,-0.97561,-1.9608,-4.9261,-0.94787,-0.06349,-4.613,5.7971,1.0306,0.82935,17.27,-5.9113,-1.0845
-1.0742,6.8262,-9.7561,3.9024,5.8824,-3.1715,3.8835,2.8479,9.644,3.9024,5.8824,0.0,-0.94787,1.8413,-1.7694,10.628,5.8615,-1.0845,13.46,-5.9113,-0.12759
7.4566,12.568,9.7561,6.8293,8.8235,6.5372,6.7961,6.7314,7.7023,6.8293,8.8235,7.8818,4.7393,3.746,8.6572,13.527,13.591,4.6571,9.6508,0.98522,-3.9553
14.092,12.568,21.462999,8.7805,13.725,14.304,12.621,8.6731,6.7314,8.7805,13.725,11.823,6.6351,2.7937,13.397,9.6618,12.625,14.226,4.8889,2.9557,-5.8692
12.196,2.9984,14.634,0.97561,7.8431,7.5081,7.767,4.7896,6.7314,0.97561,7.8431,5.9113,3.7915,-1.9683,8.6572,0.0,3.9291,7.5279,2.9841,0.98522,-8.74
4.613,-7.5279,3.9024,-4.878,-0.98039,-1.2298,-2.9126,-0.06472,-0.06472,-4.878,-0.98039,-2.9557,0.0,-4.8254,2.0221,-7.7295,-4.7665,3.7002,-4.6349,1.9704,-6.8262
-2.97,-9.4418,-4.878,-4.878,-6.8627,-7.055,-9.7087,-3.9482,-4.9191,-4.878,-6.8627,-9.8522,-1.8957,-3.873,-3.6651,-9.6618,-8.6312,6.571,-6.5397,1.9704,-1.0845
-10.553,-12.313,-10.732,-11.707,-12.745,-11.909,-13.592,-9.7735,-13.657,-11.707,-12.745,-14.778,-2.8436,-3.873,-8.4044,-12.56,-12.496,3.7002,-8.4444,4.9261,0.82935
-18.136,-13.27,-15.61,-15.61,-12.745,-19.676001,-19.417,-11.715,-7.8317,-15.61,-12.745,-17.733999,-8.5308,-6.7302,-16.934999,-15.459,-19.259001,-4.9123,-12.254,-2.9557,0.82935
-24.771,-16.139999,-23.415001,-12.683,-9.8039,-21.618,-18.447001,-12.686,-4.9191,-12.683,-9.8039,-17.733999,-14.218,-10.54,-23.57,-17.391001,-24.09,-15.439,-8.4444,-9.8522,-0.12759
-24.771,-18.054001,-28.292999,-10.732,-9.8039,-14.822,-14.563,-8.8026,-5.89,-10.732,-9.8039,-15.764,-12.322,-9.5873,-23.57,-14.493,-19.259001,-14.482,-1.7778,-9.8522,-0.12759
-18.136,-12.313,-24.389999,-6.8293,-6.8627,-9.9676,-8.7379,-6.8608,-7.8317,-6.8293,-6.8627,-10.837,-7.5829,-4.8254,-14.092,-9.6618,-9.5974,-17.351999,-1.7778,-3.9409,-1.0845
-2.97,-7.5279,-10.732,0.0,-0.98039,-1.2298,-4.8544,-1.0356,-5.89,0.0,-0.98039,-3.9409,1.8957,0.88889,2.0221,-2.8986,2.963,-4.9123,-0.8254,3.9409,-4.9123
10.3,-2.7432,3.9024,3.9024,1.9608,8.479,0.0,4.7896,-3.9482,3.9024,1.9608,3.9409,8.5308,4.6984,12.449,1.9324,11.659,9.4418,-0.8254,0.0,-5.8692
13.144,2.9984,12.683,4.878,0.98039,11.392,6.7961,3.8188,-4.9191,4.878,0.98039,7.8818,6.6351,1.8413,13.397,3.8647,13.591,10.399,-3.6825,-5.9113,-6.8262
14.092,9.697,18.537001,4.878,4.902,11.392,9.7087,4.7896,1.877,4.878,4.902,11.823,1.8957,-0.06349,10.553,6.7633,11.659,13.27,2.0317,-3.9409,-4.9123
15.987,16.396,21.462999,7.8049,8.8235,13.333,12.621,5.7605,7.7023,7.8049,8.8235,14.778,0.0,-0.06349,10.553,10.628,10.692,8.4848,5.8413,-1.9704,0.82935
17.882999,19.266001,20.488001,8.7805,7.8431,18.188,15.534,5.7605,8.6731,8.7805,7.8431,16.749001,0.0,-1.0159,12.449,11.594,11.659,0.82935,9.6508,1.9704,-1.0845
14.092,18.309,20.488001,8.7805,7.8431,11.392,19.417,4.7896,7.7023,8.7805,7.8431,17.733999,-0.94787,-2.9206,10.553,10.628,11.659,-0.12759,5.8413,0.98522,-1.0845
4.613,13.525,14.634,5.8537,4.902,7.5081,15.534,2.8479,6.7314,5.8537,4.902,12.808,-1.8957,-2.9206,4.8657,9.6618,8.7601,2.7432,-1.7778,1.9704,-2.0415
-3.9179,5.8692,7.8049,5.8537,6.8627,7.5081,8.7379,0.90615,5.7605,5.8537,6.8627,7.8818,-3.7915,-2.9206,-2.7172,7.7295,3.9291,-2.0415,-3.6825,1.9704,-2.9984
-4.8657,2.9984,4.878,2.9268,2.9412,3.6246,0.97087,0.90615,2.8479,2.9268,2.9412,3.9409,-0.94787,-0.06349,-3.6651,6.7633,1.0306,-8.74,3.9365,2.9557,-0.12759
-2.0221,2.0415,1.9512,-0.97561,0.0,2.6537,-1.9417,-0.06472,5.7605,-0.97561,0.0,-1.9704,1.8957,5.6508,0.12638,6.7633,1.0306,-10.654,13.46,4.9261,8.4848
-5.8136,-6.571,-7.8049,-8.7805,-9.8039,-7.055,-9.7087,-8.8026,1.877,-8.7805,-9.8039,-13.793,0.94787,2.7937,-0.82148,0.0,-2.8341,-0.12759,6.7937,4.9261,7.5279
-9.6051,-12.313,-14.634,-12.683,-11.765,-14.822,-11.65,-12.686,-8.8026,-12.683,-11.765,-18.719,0.0,-1.0159,-3.6651,-8.6957,-6.6989,3.7002,1.0794,-2.9557,0.82935
-8.6572,-12.313,-14.634,-11.707,-12.745,-15.793,-11.65,-7.8317,-9.7735,-11.707,-12.745,-16.749001,-0.94787,-2.9206,-5.5608,-10.628,-9.5974,-2.0415,0.12698,-9.8522,-2.0415
-7.7093,-10.399,-8.7805,-6.8293,-8.8235,-11.909,-11.65,-3.9482,-8.8026,-6.8293,-8.8235,-13.793,-3.7915,-6.7302,-6.5087,-10.628,-8.6312,-2.0415,2.0317,-10.837,-2.0415
-7.7093,-5.614,0.0,-2.9268,-0.98039,-5.1133,-5.8252,-2.9773,-2.0065,-2.9268,-0.98039,-7.8818,-3.7915,-7.6825,-7.4566,-7.7295,-6.6989,-0.12759,-0.8254,-8.867,-0.12759
-5.8136,-3.7002,3.9024,0.0,0.0,-2.2006,0.0,-1.0356,0.90615,0.0,0.0,0.0,0.0,-1.9683,-5.5608,-6.7633,-3.8003,-4.9123,1.0794,-4.9261,-0.12759
-3.9179,-6.571,2.9268,0.97561,0.0,2.6537,2.9126,-1.0356,1.877,0.97561,0.0,2.9557,0.94787,-0.06349,-4.613,-8.6957,-3.8003,-3.9553,-4.6349,-1.9704,-2.0415
1.7694,-2.7432,3.9024,4.878,4.902,9.4498,6.7961,2.8479,2.8479,4.878,4.902,5.9113,1.8957,1.8413,0.12638,-1.9324,1.9968,-0.12759,-11.302,0.0,0.82935
4.613,0.12759,3.9024,0.0,3.9216,4.5955,4.8544,-0.06472,0.90615,0.0,3.9216,3.9409,0.94787,0.88889,4.8657,1.9324,4.8953,-10.654,-1.7778,0.98522,2.7432
4.613,3.9553,3.9024,-2.9268,-3.9216,0.71197,0.97087,-2.9773,-2.0065,-2.9268,-3.9216,-0.98522,0.0,-1.0159,7.7093,6.7633,7.7939,-2.9984,7.746,0.98522,0.82935
5.5608,7.7831,5.8537,-3.9024,-0.98039,-0.2589,1.9417,-3.9482,3.8188,-3.9024,-0.98039,-0.98522,1.8957,-0.06349,9.6051,8.6957,7.7939,5.614,10.603,4.9261,3.7002
4.613,4.9123,6.8293,-2.9268,-1.9608,-1.2298,2.9126,-3.9482,3.8188,-2.9268,-1.9608,-0.98522,2.8436,-0.06349,8.6572,6.7633,6.8277,2.7432,6.7937,6.8966,4.6571
2.7172,-0.82935,5.8537,-2.9268,-0.98039,-0.2589,1.9417,-2.9773,-0.06472,-2.9268,-0.98039,0.0,4.7393,0.88889,5.8136,0.96618,3.9291,-1.0845,1.0794,9.8522,-1.0845
-0.12638,-8.4848,0.0,-3.9024,-3.9216,-0.2589,-1.9417,0.90615,-2.0065,-3.9024,-3.9216,-0.98522,1.8957,0.88889,2.97,-5.7971,0.06441,7.5279,-4.6349,11.823,-4.9123
-2.0221,-10.399,-1.9512,-2.9268,-2.9412,-1.2298,-3.8835,4.7896,-5.89,-2.9268,-2.9412,-1.9704,-1.8957,-1.0159,1.0742,-6.7633,-2.8341,17.097,-9.3968,12.808,-5.8692
-2.0221,-5.614,1.9512,0.0,-1.9608,2.6537,-1.9417,9.644,-10.744,0.0,-1.9608,0.0,-2.8436,-1.0159,-2.7172,-4.8309,-3.8003,10.399,-3.6825,0.98522,-2.9984
-0.12638,1.0845,5.8537,1.9512,0.98039,3.6246,0.0,8.6731,-3.9482,1.9512,0.98039,1.9704,0.0,1.8413,-2.7172,0.96618,-1.868,0.82935,0.12698,-4.9261,2.7432
-0.12638,0.12759,3.9024,-0.97561,-2.9412,1.6828,-1.9417,5.7605,-2.0065,-0.97561,-2.9412,0.0,1.8957,1.8413,-1.7694,0.96618,-1.868,-0.12759,-1.7778,-4.9261,3.7002
-6.7615,-5.614,-4.878,-5.8537,-6.8627,-2.2006,-5.8252,0.90615,-9.7735,-5.8537,-6.8627,-3.9409,-5.6872,-6.7302,-7.4566,-5.7971,-7.6651,-2.9984,-4.6349,-10.837,-0.12759
-10.553,-4.6571,-9.7561,-3.9024,-6.8627,-3.1715,-4.8544,-1.0356,-6.8608,-3.9024,-6.8627,-4.9261,-7.5829,-9.5873,-8.4044,-6.7633,-8.6312,-2.0415,-12.254,-9.8522,-1.0845
-6.7615,-1.7863,-8.7805,-0.97561,-1.9608,-1.2298,-1.9417,-0.06472,1.877,-0.97561,-1.9608,-2.9557,-4.7393,-5.7778,-3.6651,-3.8647,-3.8003,3.7002,-10.349,-4.9261,1.7863
-2.97,-1.7863,-3.9024,0.0,-1.9608,-0.2589,0.97087,-0.06472,-1.0356,0.0,-1.9608,-2.9557,-1.8957,-1.9683,0.12638,-2.8986,-1.868,-1.0845,2.9841,-1.9704,-0.12759
1.7694,-0.82935,0.97561,-1.9512,-0.98039,2.6537,0.0,-1.0356,-3.9482,-1.9512,-0.98039,-1.9704,-0.94787,-1.0159,2.0221,-2.8986,0.06441,-1.0845,7.746,0.98522,-3.9553
3.6651,1.0845,2.9268,0.97561,0.98039,1.6828,-0.97087,0.90615,3.8188,0.97561,0.98039,-0.98522,4.7393,3.746,6.7615,2.8986,4.8953,-1.0845,3.9365,4.9261,-1.0845
-1.0742,2.9984,-2.9268,4.878,0.98039,1.6828,0.0,2.8479,5.7605,4.878,0.98039,-1.9704,6.6351,5.6508,2.0221,2.8986,1.0306,-4.9123,0.12698,3.9409,-4.9123
-5.8136,-2.7432,-6.8293,4.878,2.9412,0.71197,0.97087,1.877,-1.0356,4.878,2.9412,-1.9704,0.94787,0.88889,-3.6651,-2.8986,-4.7665,-4.9123,-2.7302,-0.98522,-7.7831
-2.0221,-8.4848,-4.878,5.8537,1.9608,1.6828,-1.9417,6.7314,-2.9773,5.8537,1.9608,-1.9704,1.8957,-1.9683,0.12638,-4.8309,-1.868,10.399,-1.7778,4.9261,-8.74
0.82148,-12.313,-6.8293,2.9268,0.98039,-2.2006,-7.767,6.7314,-2.0065,2.9268,0.98039,-4.9261,2.8436,-1.9683,3.9179,-5.7971,0.06441,7.5279,-6.5397,2.9557,-6.8262
2.7172,-10.399,-7.8049,-0.97561,-2.9412,-3.1715,-7.767,2.8479,1.877,-0.97561,-2.9412,-7.8818,3.7915,0.88889,3.9179,-3.8647,-0.90177,5.614,-3.6825,0.98522,-2.9984
-0.12638,-8.4848,-11.707,-7.8049,-5.8824,-3.1715,-3.8835,-1.0356,0.90615,-7.8049,-5.8824,-10.837,2.8436,3.746,-0.82148,-3.8647,-5.7327,4.6571,0.12698,0.98522,3.7002
-5.8136,-9.4418,-15.61,-8.7805,-6.8627,-6.0841,-3.8835,-2.9773,4.7896,-8.7805,-6.8627,-11.823,0.0,2.7937,-5.5608,-3.8647,-7.6651,-2.0415,2.9841,-2.9557,6.571
-5.8136,-5.614,-9.7561,-4.878,0.0,-7.055,0.0,-4.9191,6.7314,-4.878,0.0,-7.8818,2.8436,5.6508,-1.7694,0.96618,-0.90177,-2.9984,4.8889,1.9704,7.5279
-3.9179,2.9984,1.9512,-2.9268,1.9608,-7.055,1.9417,-7.8317,9.644,-2.9268,1.9608,-2.9557,3.7915,4.6984,3.9179,7.7295,5.8615,-2.0415,3.9365,3.9409,9.4418
-6.7615,6.8262,7.8049,0.97561,5.8824,-7.055,4.8544,-9.7735,12.557,0.97561,5.8824,0.0,-0.94787,-0.06349,2.0221,7.7295,4.8953,-5.8692,0.12698,-0.98522,10.399
-4.8657,12.568,12.683,9.7561,15.686,-1.2298,13.592,-3.9482,17.410999,9.7561,15.686,7.8818,0.0,1.8413,2.97,9.6618,5.8615,-2.0415,8.6984,0.98522,9.4418
-3.9179,15.439,9.7561,14.634,18.627001,6.5372,18.447001,-2.0065,18.382,14.634,18.627001,11.823,-0.94787,0.88889,0.12638,7.7295,3.9291,-14.482,14.413,0.98522,6.571
-3.9179,9.697,1.9512,13.659,16.667,5.5663,12.621,-2.9773,13.528,13.659,16.667,9.8522,-3.7915,-1.9683,-2.7172,0.96618,-0.90177,-10.654,5.8413,-0.98522,-0.12759
-2.97,-0.82935,-1.9512,16.584999,17.646999,3.6246,9.7087,4.7896,12.557,16.584999,17.646999,7.8818,-0.94787,-0.06349,-0.82148,-3.8647,-2.8341,2.7432,2.0317,2.9557,-4.9123
-6.7615,-13.27,-7.8049,16.584999,16.667,-3.1715,5.8252,8.6731,0.90615,16.584999,16.667,4.9261,-2.8436,-1.0159,-4.613,-11.594,-8.6312,2.7432,2.0317,0.0,-8.74
-7.7093,-16.139999,-9.7561,15.61,16.667,-0.2589,0.97087,10.615,-0.06472,15.61,16.667,2.9557,-3.7915,-3.873,-7.4566,-13.527,-11.53,2.7432,-1.7778,0.0,-10.654
-7.7093,-11.356,-12.683,15.61,14.706,4.5955,0.97087,8.6731,1.877,15.61,14.706,0.98522,-6.6351,-4.8254,-11.248,-10.628,-12.496,-1.0845,-4.6349,0.0,-8.74
-9.6051,-9.4418,-17.561001,8.7805,4.902,4.5955,-2.9126,3.8188,-1.0356,8.7805,4.902,-4.9261,-10.427,-6.7302,-15.039,-6.7633,-13.462,-2.9984,-9.3968,-9.8522,-5.8692
-7.7093,-10.399,-15.61,2.9268,1.9608,1.6828,-7.767,2.8479,-1.0356,2.9268,1.9608,-5.9113,-9.4787,-4.8254,-11.248,-3.8647,-9.5974,-0.12759,-3.6825,-7.8818,-0.12759
-4.8657,-7.5279,-10.732,1.9512,0.98039,-5.1133,-6.7961,0.90615,1.877,1.9512,0.98039,-5.9113,-3.7915,-1.9683,-5.5608,0.0,-4.7665,-3.9553,-0.8254,-3.9409,2.7432
-4.8657,-4.6571,-8.7805,0.0,1.9608,-12.88,-5.8252,-2.9773,3.8188,0.0,1.9608,-6.8966,-3.7915,-4.8254,-3.6651,-0.96618,-2.8341,-1.0845,-0.8254,-4.9261,0.82935
-1.0742,-1.7863,-3.9024,-1.9512,0.98039,-6.0841,-2.9126,-3.9482,2.8479,-1.9512,0.98039,-3.9409,-0.94787,-3.873,1.0742,-1.9324,-0.90177,2.7432,4.8889,0.98522,-3.9553
5.5608,4.9123,2.9268,2.9268,4.902,3.6246,5.8252,-0.06472,6.7314,2.9268,4.902,2.9557,1.8957,-1.0159,4.8657,0.0,3.9291,7.5279,6.7937,2.9557,-0.12759
9.3523,9.697,8.7805,4.878,4.902,5.5663,7.767,3.8188,12.557,4.878,4.902,6.8966,3.7915,2.7937,7.7093,3.8647,7.7939,4.6571,8.6984,4.9261,4.6571
12.196,12.568,12.683,6.8293,8.8235,7.5081,8.7379,5.7605,7.7023,6.8293,8.8235,10.837,9.4787,7.5556,10.553,6.7633,9.7262,-1.0845,1.0794,10.837,3.7002
10.3,13.525,13.659,6.8293,7.8431,13.333,13.592,6.7314,5.7605,6.8293,7.8431,12.808,13.27,11.365,10.553,9.6618,9.7262,-1.0845,0.12698,14.778,3.7002
13.144,20.223,21.462999,5.8537,6.8627,16.246,17.476,4.7896,5.7605,5.8537,6.8627,15.764,19.905001,20.889,14.344,17.391001,15.523,5.614,3.9365,17.733999,11.356
14.092,22.136999,25.365999,3.9024,1.9608,12.362,14.563,-1.0356,2.8479,3.9024,1.9608,14.778,24.645,27.556,19.084,22.222,21.32,8.4848,7.746,15.764,15.183
11.248,11.611,20.488001,-0.97561,0.0,4.5955,5.8252,-3.9482,-1.0356,-0.97561,0.0,8.867,20.853001,22.794001,17.188,16.424999,20.354,1.7863,2.0317,8.867,9.4418
8.4044,2.0415,15.61,-4.878,-1.9608,2.6537,0.0,-3.9482,-9.7735,-4.878,-1.9608,3.9409,14.218,10.413,13.397,6.7633,14.557,-1.0845,-10.349,7.8818,-0.12759
3.6651,-7.5279,9.7561,-5.8537,-5.8824,-2.2006,-7.767,-2.9773,-13.657,-5.8537,-5.8824,-0.98522,7.5829,-1.0159,8.6572,-1.9324,7.7939,-5.8692,-11.302,2.9557,-5.8692
0.82148,-8.4848,5.8537,-3.9024,-6.8627,-5.1133,-11.65,-2.0065,-13.657,-3.9024,-6.8627,-4.9261,0.94787,-5.7778,4.8657,-2.8986,3.9291,-0.12759,-6.5397,-2.9557,-4.9123
-4.8657,-5.614,-3.9024,-5.8537,-9.8039,-8.0259,-13.592,-1.0356,-12.686,-5.8537,-9.8039,-9.8522,-2.8436,-5.7778,-2.7172,-2.8986,-1.868,4.6571,-4.6349,-3.9409,-3.9553
-12.449,-8.4848,-15.61,-9.7561,-11.765,-13.851,-13.592,-2.9773,-9.7735,-9.7561,-11.765,-13.793,-4.7393,-3.873,-9.3523,-4.8309,-7.6651,-2.0415,-1.7778,-4.9261,-3.9553
-15.292,-9.4418,-17.561001,-10.732,-12.745,-6.0841,-11.65,-3.9482,-9.7735,-10.732,-12.745,-12.808,-3.7915,1.8413,-11.248,-4.8309,-7.6651,1.7863,-3.6825,-3.9409,-2.0415
-11.501,-8.4848,-6.8293,-6.8293,-5.8824,-1.2298,-2.9126,-2.9773,-4.9191,-6.8293,-5.8824,-5.9113,-0.94787,5.6508,-6.5087,-6.7633,-3.8003,-0.12759,-2.7302,-0.98522,-1.0845
-8.6572,-8.4848,-1.9512,-6.8293,-7.8431,-5.1133,0.97087,-2.9773,-5.89,-6.8293,-7.8431,-3.9409,0.0,4.6984,-5.5608,-6.7633,-3.8003,3.7002,-1.7778,-1.9704,-2.0415
-9.6051,-6.571,-6.8293,-10.732,-9.8039,-10.939,-2.9126,-5.89,-3.9482,-10.732,-9.8039,-6.8966,-2.8436,0.88889,-8.4044,-4.8309,-7.6651,-1.0845,-5.5873,-4.9261,-2.0415
-10.553,-7.5279,-13.659,-11.707,-9.8039,-16.764,-13.592,-7.8317,1.877,-11.707,-9.8039,-12.808,-6.6351,-4.8254,-11.248,-3.8647,-9.5974,-5.8692,-3.6825,-9.8522,-3.9553
-6.7615,-7.5279,-16.584999,-10.732,-6.8627,-12.88,-11.65,-8.8026,0.90615,-10.732,-6.8627,-12.808,-9.4787,-10.54,-9.3523,-5.7971,-10.564,-7.7831,-0.8254,-8.867,-6.8262
0.82148,-4.6571,-9.7561,-8.7805,-6.8627,-4.1424,-3.8835,-3.9482,-1.0356,-8.7805,-6.8627,-6.8966,-7.5829,-10.54,-2.7172,-8.6957,-7.6651,-7.7831,0.12698,0.98522,-7.7831
3.6651,-2.7432,-1.9512,-7.8049,-4.902,-5.1133,-0.97087,-5.89,0.90615,-7.8049,-4.902,-2.9557,-3.7915,-9.5873,2.0221,-8.6957,-3.8003,-4.9123,-2.7302,0.98522,-7.7831
2.7172,-1.7863,3.9024,-9.7561,-6.8627,-10.939,-1.9417,-8.8026,-0.06472,-9.7561,-6.8627,-1.9704,0.0,-4.8254,5.8136,-2.8986,1.0306,-5.8692,-1.7778,-2.9557,-2.0415
4.613,4.9123,10.732,-7.8049,-4.902,-5.1133,0.97087,-7.8317,-2.0065,-7.8049,-4.902,1.9704,5.6872,2.7937,10.553,8.6957,8.7601,-5.8692,6.7937,0.0,8.4848
6.5087,7.7831,12.683,-4.878,-3.9216,5.5663,4.8544,-4.9191,-5.89,-4.878,-3.9216,4.9261,6.6351,8.5079,11.501,14.493,12.625,-8.74,10.603,0.98522,13.27
10.3,10.654,10.732,-2.9268,-0.98039,10.421,2.9126,-1.0356,-2.0065,-2.9268,-0.98039,6.8966,7.5829,12.317,12.449,18.357,14.557,0.82935,10.603,0.98522,17.097
10.3,7.7831,3.9024,-3.9024,-2.9412,4.5955,-1.9417,-0.06472,-1.0356,-3.9024,-2.9412,2.9557,7.5829,11.365,9.6051,15.459,10.692,-0.12759,6.7937,3.9409,15.183
5.5608,-1.7863,-4.878,-7.8049,-9.8039,0.71197,-8.7379,-0.06472,-6.8608,-7.8049,-9.8039,-5.9113,1.8957,7.5556,2.97,6.7633,1.9968,1.7863,1.0794,0.98522,10.399
5.5608,-2.7432,-2.9268,-3.9024,-7.8431,0.71197,-7.767,4.7896,-8.8026,-3.9024,-7.8431,-6.8966,1.8957,7.5556,2.0221,2.8986,0.06441,14.226,-0.8254,2.9557,6.571
2.7172,-7.5279,-3.9024,-2.9268,-8.8235,-4.1424,-7.767,4.7896,-6.8608,-2.9268,-8.8235,-6.8966,0.0,3.746,0.12638,-5.7971,-2.8341,5.614,-1.7778,1.9704,-2.0415
-0.12638,-11.356,-9.7561,-3.9024,-5.8824,-2.2006,-5.8252,4.7896,-2.9773,-3.9024,-5.8824,-5.9113,-2.8436,-2.9206,-4.613,-11.594,-7.6651,2.7432,-5.5873,0.0,-4.9123
-2.0221,-10.399,-12.683,-3.9024,-4.902,-3.1715,-3.8835,4.7896,-2.0065,-3.9024,-4.902,-3.9409,-5.6872,-6.7302,-5.5608,-13.527,-9.5974,-2.0415,-7.4921,0.0,-5.8692
-0.12638,-2.7432,-3.9024,-0.97561,-0.98039,-2.2006,1.9417,2.8479,-0.06472,-0.97561,-0.98039,0.98522,-3.7915,-6.7302,-1.7694,-8.6957,-4.7665,2.7432,-7.4921,1.9704,-6.8262
1.7694,0.12759,2.9268,-4.878,-3.9216,2.6537,0.0,-1.0356,-0.06472,-4.878,-3.9216,1.9704,-3.7915,-6.7302,1.0742,-2.8986,1.0306,3.7002,-1.7778,2.9557,-6.8262
2.7172,2.0415,4.878,-4.878,-3.9216,-0.2589,-1.9417,-2.0065,-1.0356,-4.878,-3.9216,0.98522,-2.8436,-2.9206,2.0221,1.9324,3.9291,-5.8692,4.8889,2.9557,-1.0845
-0.12638,2.9984,3.9024,-3.9024,-5.8824,-6.0841,-3.8835,-2.0065,-1.0356,-3.9024,-5.8824,0.0,0.0,1.8413,2.97,4.8309,3.9291,-13.525,3.9365,6.8966,2.7432
-2.97,3.9553,2.9268,0.0,-0.98039,-6.0841,-0.97087,-3.9482,-1.0356,0.0,-0.98039,0.98522,0.0,1.8413,1.0742,2.8986,1.9968,-5.8692,1.0794,3.9409,3.7002
-1.0742,4.9123,5.8537,2.9268,1.9608,1.6828,3.8835,-2.0065,2.8479,2.9268,1.9608,3.9409,-0.94787,0.88889,2.97,2.8986,4.8953,4.6571,4.8889,-3.9409,0.82935
1.7694,7.7831,8.7805,0.0,2.9412,5.5663,8.7379,-1.0356,6.7314,0.0,2.9412,5.9113,0.0,1.8413,3.9179,3.8647,7.7939,3.7002,7.746,-5.9113,-0.12759
2.7172,8.74,6.8293,-0.97561,0.98039,0.71197,7.767,-0.06472,0.90615,-0.97561,0.98039,5.9113,0.94787,2.7937,2.0221,2.8986,3.9291,0.82935,3.9365,-3.9409,-2.0415
8.4044,5.8692,7.8049,3.9024,2.9412,4.5955,6.7961,4.7896,5.7605,3.9024,2.9412,6.8966,5.6872,6.6032,4.8657,4.8309,5.8615,1.7863,-2.7302,0.0,0.82935
13.144,2.9984,10.732,6.8293,3.9216,13.333,4.8544,7.7023,5.7605,6.8293,3.9216,8.867,7.5829,7.5556,6.7615,4.8309,6.8277,10.399,2.0317,6.8966,3.7002
6.5087,1.0845,6.8293,3.9024,3.9216,11.392,2.9126,4.7896,3.8188,3.9024,3.9216,6.8966,2.8436,3.746,2.0221,1.9324,1.9968,6.571,2.0317,2.9557,0.82935
0.82148,3.9553,3.9024,1.9512,4.902,2.6537,3.8835,0.90615,7.7023,1.9512,4.902,5.9113,1.8957,4.6984,-1.7694,1.9324,0.06441,-4.9123,-3.6825,0.98522,5.614
-3.9179,0.12759,-1.9512,-0.97561,-0.98039,-2.2006,1.9417,-2.0065,3.8188,-0.97561,-0.98039,1.9704,-0.94787,3.746,-6.5087,-0.96618,-5.7327,-13.525,-1.7778,-0.98522,4.6571
-5.8136,-2.7432,-6.8293,0.97561,-0.98039,-1.2298,1.9417,-1.0356,1.877,0.97561,-0.98039,0.0,-2.8436,1.8413,-8.4044,-3.8647,-7.6651,-0.12759,6.7937,-1.9704,4.6571
-6.7615,-4.6571,-12.683,0.0,-1.9608,-3.1715,-4.8544,1.877,-2.9773,0.0,-1.9608,-2.9557,-5.6872,-0.06349,-7.4566,-6.7633,-8.6312,8.4848,5.8413,-2.9557,2.7432
-2.97,-2.7432,-11.707,-2.9268,-1.9608,-7.055,-2.9126,0.90615,0.90615,-2.9268,-1.9608,-4.9261,-7.5829,-3.873,-3.6651,-3.8647,-2.8341,-1.0845,2.9841,-3.9409,1.7863
0.82148,2.0415,-4.878,-4.878,-4.902,-4.1424,-2.9126,-2.0065,5.7605,-4.878,-4.902,-3.9409,-2.8436,-1.9683,2.0221,3.8647,5.8615,0.82935,3.9365,-2.9557,3.7002
3.6651,2.9984,1.9512,-3.9024,-2.9412,-3.1715,-2.9126,-3.9482,2.8479,-3.9024,-2.9412,-1.9704,1.8957,0.88889,6.7615,4.8309,8.7601,2.7432,6.7937,5.9113,-1.0845
0.82148,1.0845,3.9024,-0.97561,-2.9412,-2.2006,-0.97087,-2.0065,0.90615,-0.97561,-2.9412,0.0,3.7915,-0.06349,6.7615,-0.96618,5.8615,-4.9123,-0.8254,2.9557,-5.8692
-4.8657,2.0415,4.878,0.97561,0.98039,-2.2006,3.8835,-1.0356,0.90615,0.97561,0.98039,3.9409,0.0,-4.8254,0.12638,-2.8986,1.0306,-14.482,-9.3968,-5.9113,-5.8692
-5.8136,1.0845,2.9268,0.97561,1.9608,-3.1715,2.9126,-1.0356,-2.9773,0.97561,1.9608,2.9557,-4.7393,-6.7302,-5.5608,-4.8309,-4.7665,-4.9123,-2.7302,-5.9113,-7.7831
2.7172,3.9553,5.8537,2.9268,2.9412,3.6246,0.0,3.8188,-6.8608,2.9268,2.9412,4.9261,-1.8957,-2.9206,-1.7694,0.96618,-0.90177,4.6571,1.0794,-1.9704,-3.9553
8.4044,2.9984,7.8049,5.8537,1.9608,6.5372,-1.9417,7.7023,1.877,5.8537,1.9608,4.9261,-2.8436,-1.0159,0.12638,3.8647,1.0306,6.571,1.0794,-0.98522,-1.0845
7.4566,2.0415,5.8537,7.8049,2.9412,6.5372,1.9417,7.7023,6.7314,7.8049,2.9412,4.9261,-7.5829,-4.8254,-4.613,1.9324,1.0306,7.5279,-3.6825,-4.9261,-2.0415
4.613,3.9553,6.8293,8.7805,4.902,8.479,5.8252,7.7023,3.8188,8.7805,4.902,8.867,-11.374,-9.5873,-10.3,-2.8986,-2.8341,6.571,1.0794,-6.8966,-3.9553
3.6651,3.9553,5.8537,9.7561,8.8235,10.421,9.7087,9.644,4.7896,9.7561,8.8235,11.823,-11.374,-10.54,-10.3,-6.7633,-4.7665,6.571,5.8413,-3.9409,-6.8262
3.6651,0.12759,2.9268,9.7561,6.8627,7.5081,6.7961,9.644,4.7896,9.7561,6.8627,7.8818,-9.4787,-10.54,-7.4566,-8.6957,-4.7665,5.614,-0.8254,0.0,-6.8262
0.82148,-6.571,-0.97561,5.8537,0.0,0.71197,-2.9126,2.8479,-1.0356,5.8537,0.0,-0.98522,-8.5308,-9.5873,-6.5087,-7.7295,-4.7665,0.82935,-0.8254,-2.9557,-4.9123
-0.12638,-5.614,-0.97561,0.97561,-2.9412,-0.2589,-6.7961,-2.9773,-4.9191,0.97561,-2.9412,-3.9409,-3.7915,-3.873,-2.7172,-2.8986,0.06441,-10.654,-1.7778,-1.9704,0.82935
0.82148,-1.7863,-0.97561,-0.97561,-3.9216,1.6828,-6.7961,-2.0065,-1.0356,-0.97561,-3.9216,-2.9557,1.8957,2.7937,0.12638,0.0,2.963,-19.266001,-1.7778,0.98522,1.7863
2.7172,-2.7432,-3.9024,2.9268,2.9412,2.6537,-3.8835,0.90615,2.8479,2.9268,2.9412,-0.98522,5.6872,6.6032,2.0221,0.0,1.9968,1.7863,0.12698,8.867,2.7432
2.7172,1.0845,-5.8537,1.9512,1.9608,2.6537,-2.9126,0.90615,-2.0065,1.9512,1.9608,-0.98522,7.5829,8.5079,2.0221,2.8986,1.0306,11.356,-4.6349,4.9261,3.7002
2.7172,7.7831,-1.9512,1.9512,1.9608,-1.2298,0.0,-2.9773,-2.9773,1.9512,1.9608,-0.98522,6.6351,8.5079,1.0742,7.7295,4.8953,2.7432,-6.5397,-1.9704,2.7432
3.6651,13.525,9.7561,2.9268,0.98039,-3.1715,2.9126,-7.8317,0.90615,2.9268,0.98039,1.9704,7.5829,9.4603,2.97,13.527,10.692,-0.12759,2.0317,-0.98522,5.614
5.5608,18.309,17.561001,2.9268,3.9216,0.71197,8.7379,-4.9191,1.877,2.9268,3.9216,8.867,9.4787,10.413,5.8136,15.459,15.523,1.7863,2.0317,2.9557,4.6571
4.613,12.568,13.659,-1.9512,-0.98039,6.5372,6.7961,-2.9773,0.90615,-1.9512,-0.98039,6.8966,4.7393,4.6984,2.0221,8.6957,8.7601,1.7863,0.12698,1.9704,-0.12759
0.82148,-0.82935,-0.97561,-2.9268,-2.9412,0.71197,0.97087,-1.0356,2.8479,-2.9268,-2.9412,0.98522,-0.94787,-1.0159,-4.613,-2.8986,-3.8003,-2.0415,3.9365,-0.98522,-2.0415
-1.0742,-4.6571,-7.8049,0.97561,0.98039,-1.2298,0.0,3.8188,6.7314,0.97561,0.98039,-0.98522,-2.8436,-1.9683,-6.5087,-6.7633,-9.5974,-0.12759,6.7937,0.0,-0.12759
-6.7615,-2.7432,-5.8537,0.0,0.0,1.6828,0.0,1.877,5.7605,0.0,0.0,-1.9704,-6.6351,-2.9206,-10.3,-5.7971,-9.5974,2.7432,6.7937,-1.9704,-2.0415
-7.7093,2.0415,-1.9512,-2.9268,-3.9216,0.71197,-0.97087,-0.06472,1.877,-2.9268,-3.9216,-2.9557,-5.6872,-1.9683,-10.3,-0.96618,-4.7665,-2.0415,2.9841,-0.98522,-2.0415
-2.97,6.8262,3.9024,-3.9024,-2.9412,-3.1715,0.0,-1.0356,-0.06472,-3.9024,-2.9412,-0.98522,0.0,3.746,-1.7694,6.7633,4.8953,-2.9984,1.0794,2.9557,2.7432
1.7694,7.7831,4.878,-5.8537,-4.902,-4.1424,1.9417,-2.0065,-5.89,-5.8537,-4.902,-0.98522,1.8957,3.746,2.97,9.6618,7.7939,-3.9553,-6.5397,2.9557,6.571
3.6651,4.9123,1.9512,-3.9024,-2.9412,0.71197,0.0,-0.06472,-5.89,-3.9024,-2.9412,-0.98522,2.8436,2.7937,2.97,6.7633,3.9291,8.4848,-4.6349,1.9704,4.6571
-2.0221,1.0845,-3.9024,-0.97561,2.9412,0.71197,0.97087,0.90615,2.8479,-0.97561,2.9412,0.98522,0.0,-0.06349,-2.7172,1.9324,-1.868,12.313,2.0317,3.9409,0.82935
-7.7093,-2.7432,-7.8049,1.9512,2.9412,1.6828,0.97087,1.877,2.8479,1.9512,2.9412,0.0,-6.6351,-5.7778,-10.3,-0.96618,-5.7327,-1.0845,0.12698,-3.9409,-2.0415
-2.97,-0.82935,-4.878,6.8293,8.8235,1.6828,1.9417,1.877,2.8479,6.8293,8.8235,1.9704,-7.5829,-6.7302,-7.4566,0.96618,-1.868,-0.12759,-6.5397,-10.837,-1.0845
3.6651,-0.82935,-1.9512,9.7561,8.8235,3.6246,0.97087,1.877,0.90615,9.7561,8.8235,3.9409,-7.5829,-6.7302,-1.7694,0.96618,2.963,0.82935,-1.7778,-9.8522,-0.12759
9.3523,0.12759,6.8293,9.7561,8.8235,7.5081,5.8252,-1.0356,-1.0356,9.7561,8.8235,9.8522,-2.8436,-3.873,4.8657,1.9324,6.8277,0.82935,5.8413,-2.9557,0.82935
6.5087,3.9553,10.732,7.8049,5.8824,8.479,8.7379,-2.9773,3.8188,7.8049,5.8824,14.778,0.0,-1.9683,5.8136,-0.96618,3.9291,-4.9123,1.0794,-0.98522,-4.9123
-2.97,2.9984,5.8537,6.8293,5.8824,5.5663,5.8252,-4.9191,-0.06472,6.8293,5.8824,9.8522,-0.94787,-3.873,-1.7694,-8.6957,-5.7327,-11.611,0.12698,1.9704,-7.7831
-5.8136,-2.7432,-1.9512,5.8537,2.9412,2.6537,2.9126,-2.0065,-1.0356,5.8537,2.9412,1.9704,0.0,-2.9206,-4.613,-12.56,-9.5974,-15.439,2.9841,1.9704,-4.9123
-0.12638,-9.4418,-7.8049,4.878,5.8824,-2.2006,-0.97087,2.8479,4.7896,4.878,5.8824,-1.9704,4.7393,2.7937,0.12638,-7.7295,-3.8003,2.7432,4.8889,4.9261,2.7432
1.7694,-10.399,-6.8293,0.97561,1.9608,-1.2298,-5.8252,0.90615,3.8188,0.97561,1.9608,-5.9113,6.6351,8.5079,3.9179,0.96618,3.9291,10.399,2.9841,3.9409,5.614
6.5087,0.12759,4.878,1.9512,1.9608,1.6828,1.9417,0.90615,1.877,1.9512,1.9608,-0.98522,6.6351,10.413,8.6572,9.6618,12.625,4.6571,-3.6825,2.9557,5.614
10.3,10.654,12.683,5.8537,5.8824,1.6828,7.767,4.7896,2.8479,5.8537,5.8824,5.9113,7.5829,9.4603,12.449,13.527,15.523,10.399,-4.6349,3.9409,4.6571
9.3523,7.7831,9.7561,7.8049,4.902,4.5955,6.7961,6.7314,3.8188,7.8049,4.902,6.8966,5.6872,5.6508,9.6051,9.6618,10.692,11.356,-1.7778,4.9261,2.7432
6.5087,2.0415,1.9512,6.8293,5.8824,9.4498,3.8835,9.644,2.8479,6.8293,5.8824,6.8966,0.94787,-0.06349,2.0221,3.8647,1.0306,4.6571,0.12698,5.9113,0.82935
1.7694,2.0415,-3.9024,5.8537,7.8431,10.421,4.8544,7.7023,3.8188,5.8537,7.8431,6.8966,-1.8957,-2.9206,-4.613,1.9324,-3.8003,-3.9553,2.9841,1.9704,-0.12759
-2.97,3.9553,-5.8537,3.9024,4.902,4.5955,5.8252,2.8479,-2.0065,3.9024,4.902,2.9557,-2.8436,-2.9206,-4.613,3.8647,-1.868,-9.697,2.9841,-1.9704,-0.12759
-2.97,5.8692,-1.9512,3.9024,1.9608,1.6828,1.9417,-1.0356,3.8188,3.9024,1.9608,0.0,0.0,-0.06349,1.0742,7.7295,3.9291,-9.697,6.7937,2.9557,2.7432
-5.8136,2.0415,-0.97561,0.0,1.9608,-6.0841,-2.9126,-4.9191,3.8188,0.0,1.9608,-3.9409,0.0,0.88889,2.97,5.7971,4.8953,-6.8262,4.8889,0.98522,3.7002
-6.7615,1.0845,0.97561,0.0,-1.9608,-8.9968,-3.8835,-6.8608,-2.9773,0.0,-1.9608,-3.9409,0.0,-0.06349,2.0221,1.9324,1.9968,-2.9984,-0.8254,-4.9261,1.7863
-2.97,3.9553,2.9268,3.9024,2.9412,-5.1133,0.0,-3.9482,-1.0356,3.9024,2.9412,0.98522,0.94787,-0.06349,1.0742,0.96618,0.06441,3.7002,2.0317,-3.9409,-0.12759
-4.8657,0.12759,-2.9268,-0.97561,0.0,-3.1715,-3.8835,-4.9191,-1.0356,-0.97561,0.0,0.98522,2.8436,2.7937,-0.82148,-0.96618,-2.8341,4.6571,2.0317,0.0,-2.9984
-9.6051,-3.7002,-10.732,-3.9024,0.0,-7.055,-4.8544,-7.8317,-7.8317,-3.9024,0.0,-2.9557,1.8957,1.8413,-5.5608,-1.9324,-4.7665,-2.9984,-8.4444,-2.9557,-2.9984
-6.7615,-3.7002,-8.7805,0.97561,1.9608,-6.0841,-4.8544,-2.9773,-3.9482,0.97561,1.9608,-2.9557,0.0,-1.0159,-5.5608,-1.9324,-3.8003,-5.8692,-9.3968,-1.9704,-2.9984
3.6651,-5.614,-1.9512,5.8537,5.8824,2.6537,-0.97087,2.8479,2.8479,5.8537,5.8824,1.9704,-1.8957,-3.873,-1.7694,-4.8309,-2.8341,3.7002,1.0794,-0.98522,-5.8692
10.3,-7.5279,0.97561,9.7561,6.8627,11.392,5.8252,7.7023,3.8188,9.7561,6.8627,5.9113,-3.7915,-5.7778,2.0221,-11.594,-6.6989,12.313,3.9365,2.9557,-6.8262
12.196,-10.399,0.0,10.732,4.902,9.4498,8.7379,9.644,-1.0356,10.732,4.902,4.9261,-8.5308,-10.54,1.0742,-18.357,-13.462,5.614,2.0317,4.9261,-6.8262
9.3523,-12.313,0.97561,6.8293,2.9412,9.4498,0.0,8.6731,-2.9773,6.8293,2.9412,1.9704,-10.427,-13.397,-1.7694,-16.424999,-14.428,2.7432,-0.8254,2.9557,-6.8262
1.7694,-8.4848,1.9512,3.9024,4.902,9.4498,-3.8835,2.8479,-2.9773,3.9024,4.902,0.0,-7.5829,-11.492,-6.5087,-9.6618,-10.564,-1.0845,-5.5873,-0.98522,-3.9553
-8.6572,-0.82935,-2.9268,-0.97561,0.0,2.6537,-0.97087,-1.0356,-2.0065,-0.97561,0.0,-1.9704,-6.6351,-7.6825,-13.144,-4.8309,-8.6312,-12.568,-2.7302,-5.9113,-1.0845
-17.188,4.9123,-9.7561,-1.9512,0.0,-5.1133,3.8835,-3.9482,-2.9773,-1.9512,0.0,-1.9704,-2.8436,-1.9683,-15.987,-1.9324,-6.6989,-13.525,0.12698,-8.867,2.7432
-13.397,8.74,-6.8293,1.9512,3.9216,-2.2006,9.7087,-0.06472,-4.9191,1.9512,3.9216,0.0,2.8436,3.746,-7.4566,1.9324,0.06441,-7.7831,-1.7778,1.9704,2.7432
-2.0221,8.74,2.9268,5.8537,7.8431,0.71197,10.68,5.7605,2.8479,5.8537,7.8431,2.9557,7.5829,6.6032,5.8136,4.8309,7.7939,-0.12759,-1.7778,2.9557,-1.0845
3.6651,2.9984,4.878,1.9512,5.8824,3.6246,3.8835,4.7896,3.8188,1.9512,5.8824,0.0,7.5829,4.6984,9.6051,3.8647,8.7601,0.82935,-2.7302,-1.9704,-3.9553
11.248,1.0845,6.8293,-0.97561,2.9412,5.5663,0.97087,6.7314,-2.0065,-0.97561,2.9412,-0.98522,10.427,5.6508,13.397,6.7633,11.659,4.6571,1.0794,1.9704,-2.9984
15.987,1.0845,5.8537,-0.97561,0.0,0.71197,-1.9417,9.644,-2.9773,-0.97561,0.0,-0.98522,12.322,6.6032,15.292,9.6618,12.625,5.614,2.0317,6.8966,-0.12759
13.144,0.12759,1.9512,2.9268,-0.98039,6.5372,-0.97087,10.615,1.877,2.9268,-0.98039,0.98522,7.5829,5.6508,7.7093,8.6957,6.8277,13.27,2.0317,5.9113,4.6571
7.4566,0.12759,-0.97561,6.8293,4.902,8.479,0.97087,13.528,7.7023,6.8293,4.902,3.9409,0.94787,0.88889,-2.7172,0.96618,-2.8341,18.054001,6.7937,1.9704,6.571
-5.8136,-4.6571,-6.8293,-0.97561,-2.9412,-4.1424,-3.8835,2.8479,1.877,-0.97561,-2.9412,-2.9557,-8.5308,-6.7302,-14.092,-10.628,-15.395,12.313,2.9841,-3.9409,0.82935
-9.6051,-6.571,-3.9024,-3.9024,-2.9412,-4.1424,-1.9417,-3.9482,-6.8608,-3.9024,-2.9412,-4.9261,-10.427,-8.6349,-15.987,-14.493,-16.361,7.5279,1.0794,-4.9261,-2.9984
-9.6051,-11.356,0.97561,-3.9024,-4.902,0.71197,-3.8835,-5.89,-1.0356,-3.9024,-4.902,-4.9261,-6.6351,-6.7302,-10.3,-15.459,-10.564,-2.9984,-5.5873,-7.8818,-3.9553
-7.7093,-12.313,0.97561,-4.878,-1.9608,-8.9968,-3.8835,-6.8608,1.877,-4.878,-1.9608,-6.8966,0.94787,-1.0159,-0.82148,-10.628,-1.868,-2.0415,-6.5397,-2.9557,-3.9553
-7.7093,-8.4848,-3.9024,-7.8049,-3.9216,-17.735001,-0.97087,-8.8026,2.8479,-7.8049,-3.9216,-8.867,3.7915,-1.0159,2.97,-4.8309,1.9968,-6.8262,-1.7778,-0.98522,-4.9123
-3.9179,2.9984,-4.878,-6.8293,-2.9412,-8.0259,3.8835,-5.89,2.8479,-6.8293,-2.9412,-4.9261,3.7915,-1.0159,4.8657,1.9324,1.9968,-8.74,-5.5873,1.9704,-2.0415
-2.0221,10.654,-2.9268,-2.9268,0.98039,1.6828,5.8252,-4.9191,8.6731,-2.9268,0.98039,-0.98522,5.6872,2.7937,3.9179,7.7295,1.0306,-22.136999,3.9365,7.8818,1.7863
-4.8657,7.7831,-1.9512,-3.9024,-0.98039,2.6537,2.9126,-6.8608,6.7314,-3.9024,-0.98039,-2.9557,3.7915,2.7937,-0.82148,6.7633,-0.90177,-22.136999,14.413,0.0,5.614
-3.9179,3.9553,3.9024,-0.97561,1.9608,2.6537,2.9126,-2.9773,5.7605,-0.97561,1.9608,0.0,3.7915,2.7937,-1.7694,5.7971,0.06441,-8.74,10.603,-3.9409,4.6571
2.7172,1.0845,8.7805,5.8537,4.902,6.5372,5.8252,6.7314,9.644,5.8537,4.902,4.9261,6.6351,5.6508,1.0742,3.8647,2.963,1.7863,6.7937,-2.9557,0.82935
8.4044,1.0845,10.732,11.707,9.8039,9.4498,8.7379,15.469,6.7314,11.707,9.8039,7.8818,9.4787,9.4603,5.8136,2.8986,5.8615,15.183,1.0794,-2.9557,-2.0415
6.5087,-0.82935,0.97561,11.707,9.8039,5.5663,6.7961,17.410999,4.7896,11.707,9.8039,4.9261,6.6351,6.6032,6.7615,-0.96618,2.963,18.054001,-7.4921,-2.9557,-4.9123
7.4566,0.12759,-1.9512,7.8049,4.902,5.5663,4.8544,14.498,2.8479,7.8049,4.902,3.9409,1.8957,2.7937,7.7093,-1.9324,1.9968,18.054001,-8.4444,-1.9704,-4.9123
13.144,4.9123,7.8049,1.9512,-0.98039,11.392,4.8544,14.498,-0.06472,1.9512,-0.98039,5.9113,0.0,1.8413,10.553,1.9324,3.9291,17.097,-4.6349,2.9557,-2.0415
15.987,4.9123,16.584999,-3.9024,-6.8627,9.4498,2.9126,9.644,-2.0065,-3.9024,-6.8627,5.9113,-1.8957,-0.06349,11.501,3.8647,5.8615,17.097,-6.5397,4.9261,-1.0845
15.987,-0.82935,16.584999,-9.7561,-14.706,4.5955,-6.7961,6.7314,-4.9191,-9.7561,-14.706,0.0,-0.94787,0.88889,10.553,4.8309,6.8277,13.27,-4.6349,9.8522,-1.0845
8.4044,-2.7432,8.7805,-12.683,-16.667,-3.1715,-11.65,-1.0356,-7.8317,-12.683,-16.667,-7.8818,-0.94787,0.88889,3.9179,3.8647,1.9968,-1.0845,-3.6825,10.837,0.82935
-2.97,-0.82935,-2.9268,-11.707,-13.725,-6.0841,-8.7379,-6.8608,-4.9191,-11.707,-13.725,-8.867,-3.7915,-2.9206,-6.5087,0.0,-5.7327,-2.9984,4.8889,7.8818,2.7432
-12.449,1.0845,-13.659,-11.707,-5.8824,-9.9676,-2.9126,-11.715,-1.0356,-11.707,-5.8824,-5.9113,-4.7393,-6.7302,-14.092,-3.8647,-11.53,-1.0845,8.6984,2.9557,2.7432
-13.397,2.0415,-12.683,-10.732,-2.9412,-9.9676,0.97087,-16.57,6.7314,-10.732,-2.9412,-4.9261,-5.6872,-6.7302,-13.144,-3.8647,-9.5974,0.82935,7.746,-0.98522,5.614
-6.7615,6.8262,2.9268,-2.9268,4.902,-3.1715,8.7379,-12.686,12.557,-2.9268,4.902,2.9557,0.94787,-1.0159,-2.7172,0.96618,1.0306,2.7432,7.746,5.9113,7.5279
-2.97,2.0415,12.683,0.0,6.8627,1.6828,7.767,-7.8317,9.644,0.0,6.8627,7.8818,2.8436,0.88889,1.0742,0.0,4.8953,-2.0415,7.746,0.98522,0.82935
-2.97,-1.7863,12.683,0.97561,3.9216,3.6246,4.8544,-3.9482,3.8188,0.97561,3.9216,5.9113,2.8436,2.7937,2.0221,0.96618,4.8953,-3.9553,6.7937,-8.867,0.82935
-3.9179,-0.82935,6.8293,0.97561,2.9412,0.71197,3.8835,0.90615,0.90615,0.97561,2.9412,3.9409,1.8957,3.746,0.12638,4.8309,3.9291,-4.9123,2.9841,-9.8522,1.7863
-2.97,1.0845,0.0,1.9512,4.902,-0.2589,1.9417,3.8188,0.90615,1.9512,4.902,-0.98522,-0.94787,2.7937,0.12638,6.7633,3.9291,-14.482,-3.6825,-8.867,-1.0845
0.82148,1.0845,-1.9512,0.97561,3.9216,-1.2298,0.0,2.8479,-2.9773,0.97561,3.9216,-4.9261,-1.8957,1.8413,2.97,8.6957,4.8953,-7.7831,-5.5873,-2.9557,-0.12759
1.7694,2.0415,-2.9268,1.9512,1.9608,-3.1715,0.0,3.8188,0.90615,1.9512,1.9608,-3.9409,1.8957,-0.06349,5.8136,7.7295,3.9291,8.4848,-0.8254,1.9704,-1.0845
1.7694,2.0415,-5.8537,5.8537,4.902,-0.2589,0.97087,6.7314,6.7314,5.8537,4.902,-0.98522,2.8436,-1.0159,6.7615,5.7971,1.0306,12.313,2.0317,4.9261,-1.0845
-1.0742,0.12759,-5.8537,5.8537,2.9412,-3.1715,0.97087,7.7023,2.8479,5.8537,2.9412,-0.98522,2.8436,-1.0159,4.8657,1.9324,-1.868,5.614,-3.6825,4.9261,-2.0415
-1.0742,-1.7863,-0.97561,2.9268,0.98039,-2.2006,0.0,3.8188,-3.9482,2.9268,0.98039,-0.98522,0.0,-4.8254,1.0742,-1.9324,-3.8003,5.614,-11.302,1.9704,-3.9553
-2.97,-4.6571,-1.9512,-6.8293,-6.8627,-3.1715,-6.7961,-4.9191,-3.9482,-6.8293,-6.8627,-4.9261,-4.7393,-8.6349,-3.6651,-5.7971,-4.7665,-0.12759,-3.6825,-2.9557,-3.9553
-1.0742,-10.399,-5.8537,-12.683,-8.8235,-8.9968,-10.68,-10.744,-3.9482,-12.683,-8.8235,-9.8522,-4.7393,-7.6825,-2.7172,-8.6957,-5.7327,-1.0845,3.9365,3.9409,-0.12759
0.82148,-15.183,-9.7561,-13.659,-11.765,-11.909,-12.621,-7.8317,-4.9191,-13.659,-11.765,-11.823,-0.94787,-2.9206,1.0742,-10.628,-3.8003,-9.697,-1.7778,5.9113,1.7863
-0.12638,-13.27,-5.8537,-10.732,-7.8431,-2.2006,-7.767,-4.9191,-7.8317,-10.732,-7.8431,-7.8818,3.7915,0.88889,2.0221,-10.628,-2.8341,-2.0415,-0.8254,3.9409,0.82935
-2.0221,-4.6571,1.9512,-6.8293,-4.902,-0.2589,-1.9417,-3.9482,-2.0065,-6.8293,-4.902,-2.9557,5.6872,1.8413,2.0221,-8.6957,-2.8341,-1.0845,1.0794,1.9704,-2.9984
1.7694,3.9553,8.7805,-3.9024,-1.9608,-5.1133,2.9126,-4.9191,1.877,-3.9024,-1.9608,0.98522,2.8436,0.88889,2.97,-0.96618,0.06441,0.82935,2.9841,0.98522,0.82935
6.5087,7.7831,8.7805,-7.8049,-4.902,-7.055,1.9417,-9.7735,0.90615,-7.8049,-4.902,-1.9704,0.94787,-1.0159,6.7615,5.7971,2.963,-3.9553,-2.7302,-0.98522,6.571
12.196,9.697,9.7561,-4.878,-2.9412,-3.1715,2.9126,-10.744,-0.06472,-4.878,-2.9412,0.0,2.8436,0.88889,13.397,11.594,9.7262,-10.654,1.0794,0.0,6.571
16.934999,14.482,15.61,1.9512,0.98039,6.5372,7.767,-5.89,2.8479,1.9512,0.98039,5.9113,8.5308,5.6508,19.084,15.459,16.49,-3.9553,7.746,0.98522,6.571
14.092,22.136999,20.488001,3.9024,3.9216,9.4498,15.534,-5.89,3.8188,3.9024,3.9216,11.823,14.218,14.222,18.136,19.323999,20.354,-5.8692,3.9365,4.9261,11.356
3.6651,22.136999,21.462999,1.9512,3.9216,8.479,13.592,-9.7735,3.8188,1.9512,3.9216,11.823,14.218,18.983999,9.6051,19.323999,19.388,-11.611,9.6508,2.9557,15.183
-3.9179,15.439,17.561001,4.878,4.902,11.392,10.68,-11.715,1.877,4.878,4.902,11.823,10.427,18.032,3.9179,17.391001,15.523,-19.266001,9.6508,1.9704,17.097
-2.97,9.697,10.732,4.878,4.902,12.362,6.7961,-10.744,6.7314,4.878,4.902,8.867,8.5308,17.079,4.8657,17.391001,13.591,-16.396,5.8413,6.8966,17.097
7.4566,8.74,6.8293,4.878,6.8627,7.5081,7.767,-5.89,5.7605,4.878,6.8627,8.867,10.427,16.127001,12.449,18.357,13.591,2.7432,7.746,12.808,13.27
14.092,11.611,8.7805,5.8537,9.8039,1.6828,10.68,-2.0065,-0.06472,5.8537,9.8039,9.8522,7.5829,12.317,14.344,15.459,8.7601,10.399,0.12698,8.867,8.4848
14.092,8.74,12.683,2.9268,3.9216,0.71197,7.767,-1.0356,-0.06472,2.9268,3.9216,7.8818,1.8957,4.6984,7.7093,6.7633,1.9968,5.614,-2.7302,3.9409,3.7002
6.5087,1.0845,8.7805,1.9512,1.9608,4.5955,3.8835,1.877,-0.06472,1.9512,1.9608,4.9261,-4.7393,-3.873,-3.6651,-5.7971,-7.6651,1.7863,1.0794,1.9704,0.82935
-2.0221,-7.5279,-2.9268,1.9512,0.0,6.5372,-1.9417,2.8479,2.8479,1.9512,0.0,0.98522,-9.4787,-8.6349,-12.196,-12.56,-15.395,0.82935,4.8889,-1.9704,0.82935
-6.7615,-15.183,-16.584999,0.0,3.9216,6.5372,-2.9126,2.8479,4.7896,0.0,3.9216,-2.9557,-11.374,-10.54,-15.987,-13.527,-17.327,1.7863,0.12698,-4.9261,-0.12759
-9.6051,-9.4418,-18.537001,-0.97561,0.98039,-0.2589,-1.9417,0.90615,5.7605,-0.97561,0.98039,-5.9113,-9.4787,-8.6349,-13.144,-7.7295,-14.428,-2.9984,4.8889,-6.8966,0.82935
-7.7093,1.0845,-9.7561,1.9512,4.902,-4.1424,-0.97087,-1.0356,6.7314,1.9512,4.902,-7.8818,-4.7393,-4.8254,-8.4044,1.9324,-6.6989,-14.482,12.508,-8.867,3.7002
-6.7615,6.8262,-4.878,0.0,1.9608,-7.055,-6.7961,-1.0356,3.8188,0.0,1.9608,-10.837,-3.7915,-3.873,-5.5608,5.7971,-1.868,-6.8262,2.9841,-11.823,-0.12759
-8.6572,2.9984,-7.8049,-2.9268,-0.98039,-9.9676,-11.65,0.90615,-1.0356,-2.9268,-0.98039,-14.778,-5.6872,-3.873,-5.5608,1.9324,-3.8003,9.4418,-1.7778,-10.837,-5.8692
-4.8657,-6.571,-11.707,-2.9268,-3.9216,-8.0259,-14.563,4.7896,-1.0356,-2.9268,-3.9216,-15.764,-5.6872,-2.9206,-3.6651,-2.8986,-4.7665,14.226,1.0794,-8.867,-8.74
-0.12638,-9.4418,-8.7805,-0.97561,-1.9608,-1.2298,-5.8252,5.7605,-2.0065,-0.97561,-1.9608,-8.867,-3.7915,-1.0159,2.0221,-6.7633,-0.90177,11.356,-7.4921,1.9704,-8.74
2.7172,-4.6571,0.0,3.9024,3.9216,-1.2298,4.8544,4.7896,-2.9773,3.9024,3.9216,1.9704,2.8436,5.6508,8.6572,-5.7971,5.8615,9.4418,-12.254,1.9704,-6.8262
-0.12638,-2.7432,5.8537,4.878,2.9412,-0.2589,2.9126,2.8479,-3.9482,4.878,2.9412,3.9409,6.6351,6.6032,8.6572,-2.8986,7.7939,5.614,-6.5397,-3.9409,-2.0415
-5.8136,-5.614,0.97561,-4.878,-3.9216,-6.0841,-4.8544,-2.9773,-11.715,-4.878,-3.9216,-3.9409,5.6872,2.7937,2.0221,-3.8647,1.9968,-1.0845,-8.4444,-0.98522,-0.12759
-8.6572,-6.571,-5.8537,-10.732,-10.784,-12.88,-14.563,-5.89,-15.599,-10.732,-10.784,-12.808,4.7393,1.8413,-2.7172,-1.9324,-2.8341,-4.9123,-14.159,5.9113,0.82935
-7.7093,-4.6571,-10.732,-11.707,-11.765,-14.822,-18.447001,-8.8026,-14.628,-11.707,-11.765,-15.764,0.94787,-1.0159,-5.5608,0.0,-5.7327,-3.9553,-6.5397,7.8818,0.82935
-7.7093,-6.571,-12.683,-11.707,-12.745,-16.764,-14.563,-12.686,-9.7735,-11.707,-12.745,-16.749001,-0.94787,-5.7778,-6.5087,-1.9324,-7.6651,-0.12759,2.0317,7.8818,-2.9984
0.82148,-4.6571,-5.8537,-5.8537,-2.9412,-9.9676,-2.9126,-5.89,-4.9191,-5.8537,-2.9412,-7.8818,4.7393,-2.9206,2.97,-1.9324,-2.8341,-1.0845,5.8413,11.823,-2.9984
10.3,1.0845,0.0,-1.9512,0.98039,-2.2006,4.8544,-2.9773,2.8479,-1.9512,0.98039,2.9557,4.7393,-2.9206,9.6051,-4.8309,-0.90177,0.82935,3.9365,11.823,-3.9553
16.934999,2.9984,8.7805,-0.97561,3.9216,11.392,10.68,1.877,5.7605,-0.97561,3.9216,10.837,3.7915,-4.8254,10.553,-6.7633,-0.90177,16.139999,5.8413,7.8818,-2.0415
15.987,2.9984,12.683,0.0,2.9412,17.216999,8.7379,6.7314,3.8188,0.0,2.9412,13.793,2.8436,-1.9683,7.7093,-4.8309,0.06441,19.011,6.7937,1.9704,0.82935
9.3523,6.8262,10.732,2.9268,4.902,16.246,8.7379,7.7023,7.7023,2.9268,4.902,10.837,2.8436,4.6984,1.0742,1.9324,1.0306,13.27,-1.7778,-1.9704,4.6571
-0.12638,7.7831,6.8293,3.9024,-0.98039,10.421,6.7961,4.7896,9.644,3.9024,-0.98039,7.8818,1.8957,8.5079,-5.5608,6.7633,0.06441,-0.12759,5.8413,-5.9113,6.571
-5.8136,7.7831,2.9268,0.97561,0.98039,-1.2298,4.8544,-2.0065,0.90615,0.97561,0.98039,3.9409,2.8436,12.317,-8.4044,10.628,1.9968,-19.266001,14.413,-15.764,9.4418
-6.7615,6.8262,1.9512,-0.97561,0.0,-1.2298,-2.9126,-7.8317,-2.0065,-0.97561,0.0,0.98522,4.7393,14.222,-5.5608,12.56,4.8953,-25.965,9.6508,-19.704,13.27
-1.0742,3.9553,0.97561,0.97561,-1.9608,-0.2589,-2.9126,-5.89,-3.9482,0.97561,-1.9608,0.98522,12.322,18.983999,5.8136,15.459,13.591,-14.482,6.7937,-8.867,16.139999
1.7694,-1.7863,-4.878,4.878,-1.9608,-3.1715,-6.7961,-2.0065,-5.89,4.878,-1.9608,0.98522,17.062,18.032,12.449,10.628,14.557,-12.568,1.0794,0.98522,9.4418
2.7172,-3.7002,-4.878,7.8049,-0.98039,2.6537,-7.767,2.8479,-11.715,7.8049,-0.98039,0.98522,16.114,13.27,14.344,2.8986,9.7262,-17.351999,-5.5873,9.8522,1.7863
4.613,-0.82935,1.9512,4.878,0.0,5.5663,-4.8544,2.8479,-9.7735,4.878,0.0,0.98522,15.166,11.365,14.344,0.96618,7.7939,-6.8262,-16.063,15.764,-1.0845
1.7694,-2.7432,1.9512,-0.97561,-3.9216,-4.1424,-8.7379,-2.0065,-3.9482,-0.97561,-3.9216,-2.9557,11.374,5.6508,10.553,-1.9324,2.963,4.6571,-14.159,19.704,-3.9553
1.7694,1.0845,2.9268,-5.8537,-7.8431,-9.9676,-6.7961,-2.9773,-4.9191,-5.8537,-7.8431,-1.9704,7.5829,3.746,5.8136,-1.9324,1.9968,2.7432,-5.5873,21.674999,-2.9984
1.7694,3.9553,0.97561,-8.7805,-9.8039,-7.055,-1.9417,-4.9191,-4.9191,-8.7805,-9.8039,0.0,4.7393,3.746,1.0742,-3.8647,-0.90177,7.5279,-3.6825,20.690001,-3.9553
-0.12638,1.0845,-5.8537,-9.7561,-9.8039,-7.055,-1.9417,-8.8026,-5.89,-9.7561,-9.8039,-2.9557,-0.94787,-1.0159,-3.6651,-5.7971,-5.7327,11.356,2.9841,19.704,-4.9123
-3.9179,-1.7863,-9.7561,-10.732,-9.8039,-9.9676,-2.9126,-8.8026,-3.9482,-10.732,-9.8039,-7.8818,-7.5829,-8.6349,-8.4044,-7.7295,-10.564,11.356,8.6984,7.8818,-6.8262
-12.449,-7.5279,-12.683,-10.732,-8.8235,-17.735001,-9.7087,-10.744,-0.06472,-10.732,-8.8235,-12.808,-14.218,-14.349,-15.039,-10.628,-15.395,6.571,3.9365,-5.9113,-3.9553
-15.292,-8.4848,-14.634,-11.707,-10.784,-19.676001,-13.592,-11.715,-2.9773,-11.707,-10.784,-15.764,-13.27,-10.54,-14.092,-6.7633,-14.428,-2.0415,1.0794,-8.867,3.7002
-13.397,-7.5279,-15.61,-9.7561,-10.784,-13.851,-13.592,-8.8026,-2.0065,-9.7561,-10.784,-14.778,-9.4787,-4.8254,-14.092,-2.8986,-11.53,-0.12759,0.12698,-8.867,6.571
-12.449,-7.5279,-16.584999,-9.7561,-11.765,-12.88,-16.504999,-6.8608,-3.9482,-9.7561,-11.765,-16.749001,-8.5308,-0.06349,-14.092,0.0,-9.5974,4.6571,-1.7778,-5.9113,11.356
-8.6572,-3.7002,-10.732,-6.8293,-6.8627,-10.939,-8.7379,-8.8026,-6.8608,-6.8293,-6.8627,-12.808,-4.7393,4.6984,-11.248,3.8647,-5.7327,-5.8692,-9.3968,-7.8818,14.226
-0.12638,-3.7002,-0.97561,-4.878,-1.9608,-4.1424,-1.9417,-6.8608,-2.0065,-4.878,-1.9608,-5.9113,-0.94787,3.746,-2.7172,4.8309,-0.90177,-9.697,-4.6349,-7.8818,9.4418
10.3,0.12759,10.732,0.97561,4.902,4.5955,2.9126,-2.0065,2.8479,0.97561,4.902,3.9409,2.8436,2.7937,7.7093,4.8309,6.8277,-2.9984,-0.8254,-2.9557,2.7432
16.934999,4.9123,19.511999,7.8049,6.8627,7.5081,8.7379,-0.06472,1.877,7.8049,6.8627,12.808,8.5308,1.8413,14.344,3.8647,11.659,5.614,-0.8254,2.9557,-6.8262
15.987,7.7831,16.584999,7.8049,9.8039,10.421,10.68,-1.0356,4.7896,7.8049,9.8039,14.778,8.5308,-1.0159,14.344,0.96618,10.692,7.5279,-4.6349,5.9113,-9.697
12.196,8.74,12.683,4.878,6.8627,7.5081,10.68,-3.9482,7.7023,4.878,6.8627,12.808,3.7915,-4.8254,8.6572,-0.96618,4.8953,8.4848,2.0317,9.8522,-11.611
10.3,10.654,16.584999,7.8049,6.8627,9.4498,10.68,-2.0065,8.6731,7.8049,6.8627,14.778,0.0,-1.9683,2.97,1.9324,2.963,6.571,9.6508,5.9113,-8.74
6.5087,10.654,14.634,9.7561,8.8235,13.333,12.621,-1.0356,12.557,9.7561,8.8235,16.749001,-5.6872,-4.8254,-1.7694,2.8986,1.9968,3.7002,12.508,-3.9409,-4.9123
2.7172,5.8692,4.878,5.8537,5.8824,10.421,9.7087,-2.9773,12.557,5.8537,5.8824,11.823,-10.427,-9.5873,-6.5087,0.0,-1.868,-6.8262,10.603,-8.867,-2.9984
-1.0742,2.0415,-2.9268,2.9268,5.8824,4.5955,4.8544,-1.0356,9.644,2.9268,5.8824,6.8966,-11.374,-6.7302,-7.4566,0.0,-2.8341,-3.9553,7.746,-9.8522,1.7863
-2.97,2.9984,-8.7805,3.9024,4.902,-1.2298,0.97087,1.877,7.7023,3.9024,4.902,0.98522,-8.5308,-1.9683,-6.5087,3.8647,-1.868,-6.8262,4.8889,-10.837,3.7002
-4.8657,2.9984,-7.8049,9.7561,8.8235,-4.1424,0.0,4.7896,9.644,9.7561,8.8235,-2.9557,-2.8436,0.88889,-3.6651,4.8309,-0.90177,2.7432,1.0794,-8.867,7.5279
-14.344,-2.7432,-8.7805,13.659,8.8235,-5.1133,-2.9126,3.8188,1.877,13.659,8.8235,-5.9113,-2.8436,-0.06349,-9.3523,0.96618,-6.6989,4.6571,2.0317,-13.793,7.5279
-15.292,-3.7002,-4.878,28.292999,21.569,1.6828,0.97087,7.7023,5.7605,28.292999,21.569,0.0,-0.94787,3.746,-12.196,1.9324,-7.6651,0.82935,3.9365,-14.778,11.356
-4.8657,4.9123,5.8537,44.877998,37.255001,12.362,10.68,16.440001,19.353001,44.877998,37.255001,9.8522,6.6351,13.27,-4.613,11.594,1.9968,-0.12759,7.746,-11.823,16.139999
7.4566,13.525,14.634,60.487999,55.882,19.159,22.33,21.294001,26.149,60.487999,55.882,19.704,11.374,18.032,3.9179,18.357,11.659,1.7863,11.556,-3.9409,19.011
17.882999,18.309,17.561001,73.170998,67.647003,22.070999,31.068001,26.149,28.091,73.170998,67.647003,26.601,13.27,18.983999,14.344,18.357,17.455999,1.7863,12.508,5.9113,19.011
24.518,19.266001,16.584999,84.877998,79.412003,25.955,36.893002,33.916,31.003,84.877998,79.412003,30.542,10.427,12.317,20.032,14.493,16.49,7.5279,12.508,5.9113,16.139999
23.57,15.439,13.659,87.805,79.412003,31.780001,33.009998,40.712002,31.974001,87.805,79.412003,30.542,-0.94787,-2.9206,16.24,5.7971,6.8277,6.571,19.174999,-8.867,6.571
24.518,10.654,13.659,86.829002,76.471001,36.633999,27.184,47.507999,29.061001,86.829002,76.471001,29.556999,-8.5308,-11.492,11.501,0.0,0.06441,5.614,12.508,-9.8522,-0.12759
22.622,7.7831,11.707,81.950996,69.608002,37.605,22.33,50.421001,21.294001,81.950996,69.608002,26.601,-9.4787,-12.444,6.7615,-2.8986,-4.7665,16.139999,-5.5873,-0.98522,-10.654
15.987,2.9984,5.8537,69.267998,55.882,35.662998,15.534,45.566002,8.6731,69.267998,55.882,19.704,-7.5829,-9.5873,2.97,-6.7633,-7.6651,27.624001,-11.302,3.9409,-19.266001
6.5087,-4.6571,-1.9512,56.584999,44.118,24.983999,5.8252,34.887001,13.528,56.584999,44.118,14.778,-4.7393,-6.7302,-1.7694,-10.628,-10.564,25.709999,-3.6825,7.8818,-19.266001
0.82148,-8.4848,-3.9024,41.951,37.255001,18.188,5.8252,27.120001,18.382,41.951,37.255001,13.793,0.0,-4.8254,-3.6651,-11.594,-7.6651,19.968,-0.8254,10.837,-13.525
-0.12638,-4.6571,2.9268,31.219999,31.372999,11.392,9.7087,21.294001,14.498,31.219999,31.372999,12.808,4.7393,-1.0159,1.0742,-6.7633,1.0306,14.226,-4.6349,14.778,-13.525
-2.0221,2.0415,7.8049,20.488001,17.646999,0.71197,6.7961,16.440001,10.615,20.488001,17.646999,7.8818,5.6872,-1.0159,2.0221,-0.96618,4.8953,12.313,0.12698,14.778,-11.611
-4.8657,2.9984,5.8537,9.7561,5.8824,-4.1424,1.9417,13.528,-3.9482,9.7561,5.8824,2.9557,1.8957,-2.9206,-0.82148,0.0,2.963,7.5279,1.0794,10.837,-5.8692
-8.6572,-1.7863,0.0,-1.9512,-7.8431,-3.1715,-3.8835,9.644,-5.89,-1.9512,-7.8431,-1.9704,-2.8436,-2.9206,-4.613,-3.8647,-2.8341,-2.9984,0.12698,4.9261,-1.0845
-9.6051,-6.571,-6.8293,-10.732,-13.725,-3.1715,-8.7379,4.7896,-10.744,-10.732,-13.725,-2.9557,-9.4787,-4.8254,-8.4044,-5.7971,-8.6312,-4.9123,2.0317,0.98522,5.614
-5.8136,-3.7002,-10.732,-12.683,-16.667,-3.1715,-6.7961,1.877,-7.8317,-12.683,-16.667,-0.98522,-12.322,-5.7778,-7.4566,-2.8986,-10.564,-0.12759,-4.6349,-7.8818,9.4418
-3.9179,-1.7863,-8.7805,-13.659,-14.706,-3.1715,-2.9126,-1.0356,-4.9191,-13.659,-14.706,0.98522,-14.218,-6.7302,-9.3523,-0.96618,-11.53,2.7432,-3.6825,-7.8818,8.4848
-6.7615,-2.7432,-7.8049,-14.634,-13.725,-1.2298,-0.97087,-5.89,-0.06472,-14.634,-13.725,0.98522,-14.218,-7.6825,-13.144,-1.9324,-13.462,-4.9123,2.9841,-7.8818,3.7002
-4.8657,-2.7432,-7.8049,-14.634,-13.725,-4.1424,0.0,-8.8026,-2.9773,-14.634,-13.725,0.98522,-10.427,-5.7778,-10.3,-1.9324,-10.564,-8.74,2.9841,-10.837,0.82935
-1.0742,-4.6571,-9.7561,-20.488001,-20.587999,-10.939,-3.8835,-10.744,-7.8317,-20.488001,-20.587999,-3.9409,-3.7915,-3.873,-0.82148,-2.8986,-5.7327,-7.7831,-5.5873,-6.8966,-6.8262
-1.0742,-6.571,-14.634,-25.365999,-22.549,-12.88,-5.8252,-7.8317,-12.686,-25.365999,-22.549,-9.8522,1.8957,-1.9683,3.9179,-2.8986,-2.8341,-12.568,-3.6825,-6.8966,-6.8262
-2.0221,-7.5279,-10.732,-25.365999,-26.471001,-9.9676,-11.65,-0.06472,-11.715,-25.365999,-26.471001,-12.808,8.5308,4.6984,5.8136,1.9324,2.963,1.7863,1.0794,-3.9409,-2.9984
2.7172,-0.82935,1.9512,-25.365999,-26.471001,-3.1715,-10.68,7.7023,-13.657,-25.365999,-26.471001,-9.8522,10.427,9.4603,6.7615,8.6957,8.7601,13.27,-1.7778,0.0,-0.12759
1.7694,1.0845,8.7805,-30.243999,-31.372999,0.71197,-9.7087,8.6731,-19.482,-30.243999,-31.372999,-6.8966,2.8436,5.6508,0.12638,8.6957,6.8277,8.4848,-3.6825,1.9704,-1.0845
-2.0221,-3.7002,9.7561,-34.146,-35.293999,-2.2006,-11.65,6.7314,-24.337,-34.146,-35.293999,-7.8818,-2.8436,-0.06349,-6.5087,1.9324,0.06441,1.7863,-12.254,0.0,-5.8692
-8.6572,-14.226,0.97561,-35.122002,-35.293999,-11.909,-19.417,0.90615,-28.219999,-35.122002,-35.293999,-10.837,-7.5829,-7.6825,-12.196,-10.628,-9.5974,-2.0415,-14.159,-4.9261,-10.654
-9.6051,-18.054001,-3.9024,-35.122002,-35.293999,-13.851,-20.388,-2.0065,-26.278,-35.122002,-35.293999,-12.808,-6.6351,-9.5873,-8.4044,-13.527,-10.564,5.614,-10.349,-3.9409,-9.697
-9.6051,-13.27,-3.9024,-36.098,-33.333,-11.909,-13.592,-2.9773,-19.482,-36.098,-33.333,-10.837,-4.7393,-10.54,-3.6651,-11.594,-5.7327,10.399,-7.4921,-2.9557,-12.568
-11.501,-8.4848,-6.8293,-35.122002,-32.353001,-12.88,-9.7087,0.90615,-11.715,-35.122002,-32.353001,-7.8818,-8.5308,-15.302,-6.5087,-12.56,-5.7327,4.6571,-10.349,-8.867,-17.351999
-9.6051,-7.5279,-8.7805,-30.243999,-28.431,-7.055,-7.767,3.8188,-8.8026,-30.243999,-28.431,-4.9261,-13.27,-17.205999,-11.248,-13.527,-8.6312,-7.7831,-12.254,-13.793,-16.396
-8.6572,-7.5279,-10.732,-29.268,-32.353001,-3.1715,-11.65,1.877,-11.715,-29.268,-32.353001,-4.9261,-15.166,-14.349,-11.248,-10.628,-9.5974,-2.9984,-11.302,-15.764,-11.611
-11.501,-16.139999,-17.561001,-35.122002,-36.275002,-8.0259,-20.388,-3.9482,-18.511,-35.122002,-36.275002,-10.837,-16.114,-15.302,-13.144,-16.424999,-14.428,-2.0415,-8.4444,-16.749001,-13.525
-12.449,-21.882,-16.584999,-36.098,-39.216,-10.939,-21.358999,-6.8608,-21.424,-36.098,-39.216,-10.837,-18.957001,-16.254,-14.092,-20.290001,-18.292999,-7.7831,-9.3968,-19.704,-14.482
-11.501,-19.011,-8.7805,-30.243999,-31.372999,-7.055,-14.563,-8.8026,-20.452999,-30.243999,-31.372999,-4.9261,-13.27,-12.444,-13.144,-16.424999,-15.395,-5.8692,-4.6349,-17.733999,-10.654
-16.24,-17.097,-11.707,-32.195,-32.353001,-10.939,-11.65,-17.540001,-17.540001,-32.195,-32.353001,-5.9113,-6.6351,-5.7778,-13.144,-12.56,-12.496,-11.611,-7.4921,-15.764,-6.8262
-18.136,-12.313,-17.561001,-37.073002,-30.392,-19.676001,-12.621,-25.306999,-7.8317,-37.073002,-30.392,-12.808,1.8957,2.7937,-9.3523,-6.7633,-6.6989,-23.094,-3.6825,-9.8522,-1.0845
-13.397,-5.614,-16.584999,-40.0,-31.372999,-23.559999,-11.65,-25.306999,-4.9191,-40.0,-31.372999,-16.749001,12.322,13.27,-0.82148,1.9324,1.9968,-17.351999,2.9841,0.98522,3.7002
-12.449,-4.6571,-15.61,-41.951,-31.372999,-27.443001,-12.621,-24.337,-7.8317,-41.951,-31.372999,-21.674999,19.905001,18.032,3.9179,5.7971,5.8615,-12.568,2.0317,1.9704,5.614
-13.397,-6.571,-15.61,-40.976002,-32.353001,-28.414,-16.504999,-22.395,-10.744,-40.976002,-32.353001,-23.645,19.905001,15.175,1.0742,2.8986,1.9968,-6.8262,-0.8254,1.9704,3.7002
-12.449,-10.399,-14.634,-37.073002,-33.333,-17.735001,-19.417,-11.715,-18.511,-37.073002,-33.333,-21.674999,15.166,9.4603,-1.7694,-3.8647,-1.868,1.7863,-7.4921,4.9261,-0.12759
-5.8136,-13.27,-10.732,-30.243999,-33.333,-6.0841,-17.476,-3.9482,-22.395,-30.243999,-33.333,-17.733999,10.427,3.746,-0.82148,-7.7295,-2.8341,7.5279,-16.063,8.867,-1.0845
3.6651,-11.356,-3.9024,-21.462999,-27.451,4.5955,-9.7087,4.7896,-20.452999,-21.462999,-27.451,-11.823,6.6351,-0.06349,3.9179,-6.7633,0.06441,15.183,-18.921,15.764,-0.12759
7.4566,-9.4418,1.9512,-17.561001,-18.627001,6.5372,-4.8544,11.586,-20.452999,-17.561001,-18.627001,-7.8818,0.0,-6.7302,4.8657,-4.8309,0.06441,19.968,-14.159,15.764,-0.12759
9.3523,-3.7002,5.8537,-13.659,-13.725,3.6246,-2.9126,14.498,-14.628,-13.659,-13.725,-4.9261,-3.7915,-8.6349,4.8657,-1.9324,-0.90177,21.882,-13.206,14.778,-4.9123
9.3523,1.0845,5.8537,-12.683,-13.725,0.71197,0.0,12.557,-13.657,-12.683,-13.725,-4.9261,-7.5829,-9.5873,2.97,-0.96618,-3.8003,16.139999,-9.3968,9.8522,-5.8692
1.7694,-2.7432,-3.9024,-18.537001,-21.569,-9.9676,-5.8252,4.7896,-16.57,-18.537001,-21.569,-10.837,-14.218,-10.54,-4.613,-3.8647,-12.496,3.7002,-10.349,0.98522,-9.697
-3.9179,-8.4848,-13.659,-19.511999,-21.569,-9.9676,-11.65,0.90615,-18.511,-19.511999,-21.569,-13.793,-10.427,-5.7778,-7.4566,-6.7633,-13.462,0.82935,-10.349,2.9557,-12.568
-5.8136,-16.139999,-18.537001,-17.561001,-21.569,-7.055,-13.592,0.90615,-21.424,-17.561001,-21.569,-14.778,-2.8436,-1.0159,-5.5608,-9.6618,-12.496,7.5279,-9.3968,4.9261,-13.525
-6.7615,-19.968,-15.61,-12.683,-15.686,-4.1424,-12.621,-2.0065,-14.628,-12.683,-15.686,-11.823,0.0,0.88889,-2.7172,-14.493,-11.53,0.82935,-12.254,0.0,-9.697
-6.7615,-17.097,-10.732,-7.8049,-9.8039,-0.2589,-4.8544,-4.9191,-9.7735,-7.8049,-9.8039,-5.9113,-0.94787,-0.06349,-1.7694,-16.424999,-11.53,-8.74,-9.3968,-3.9409,-7.7831
-8.6572,-12.313,-8.7805,-8.7805,-6.8627,-3.1715,2.9126,-7.8317,-0.06472,-8.7805,-6.8627,-3.9409,-3.7915,-1.9683,-5.5608,-15.459,-11.53,-16.396,-9.3968,-2.9557,-7.7831
-16.24,-10.399,-13.659,-12.683,-6.8627,-9.9676,-2.9126,-13.657,3.8188,-12.683,-6.8627,-6.8966,-7.5829,-3.873,-13.144,-11.594,-13.462,-18.309,-5.5873,-7.8818,-2.9984
-20.979,-10.399,-18.537001,-13.659,-3.9216,-8.9968,-7.767,-17.540001,3.8188,-13.659,-3.9216,-8.867,-9.4787,-5.7778,-18.830999,-7.7295,-13.462,-16.396,-10.349,-8.867,-0.12759
-20.979,-9.4418,-18.537001,-13.659,-6.8627,-13.851,-10.68,-20.452999,1.877,-13.659,-6.8627,-8.867,-9.4787,-7.6825,-18.830999,-5.7971,-12.496,-20.223,2.0317,-8.867,4.6571
-13.397,-3.7002,-8.7805,-12.683,-5.8824,-8.9968,-6.7961,-17.540001,-4.9191,-12.683,-5.8824,-3.9409,-5.6872,-1.9683,-14.092,-1.9324,-6.6989,-20.223,14.413,-3.9409,7.5279
0.82148,2.0415,4.878,-9.7561,-5.8824,2.6537,1.9417,-11.715,-3.9482,-9.7561,-5.8824,4.9261,0.94787,4.6984,-3.6651,1.9324,1.0306,-3.9553,9.6508,4.9261,5.614
11.248,4.9123,11.707,-2.9268,-3.9216,5.5663,5.8252,-6.8608,-15.599,-2.9268,-3.9216,8.867,6.6351,8.5079,7.7093,6.7633,9.7262,12.313,6.7937,13.793,6.571
13.144,6.8262,11.707,0.97561,-1.9608,6.5372,5.8252,-2.0065,-10.744,0.97561,-1.9608,10.837,6.6351,8.5079,11.501,12.56,13.591,11.356,2.0317,10.837,6.571
8.4044,6.8262,5.8537,1.9512,-2.9412,4.5955,0.97087,-1.0356,-7.8317,1.9512,-2.9412,5.9113,6.6351,8.5079,11.501,15.459,13.591,13.27,-5.5873,9.8522,3.7002
2.7172,1.0845,-4.878,-4.878,-7.8431,-4.1424,-5.8252,-7.8317,-8.8026,-4.878,-7.8431,-3.9409,4.7393,5.6508,10.553,9.6618,7.7939,8.4848,-6.5397,10.837,2.7432
2.7172,-2.7432,-3.9024,-11.707,-10.784,-8.0259,-6.7961,-10.744,-2.9773,-11.707,-10.784,-8.867,7.5829,4.6984,12.449,3.8647,5.8615,6.571,-3.6825,9.8522,0.82935
3.6651,-0.82935,4.878,-13.659,-5.8824,-12.88,-6.7961,-14.628,-3.9482,-13.659,-5.8824,-6.8966,6.6351,1.8413,11.501,0.0,5.8615,-8.74,-8.4444,8.867,-2.0415
-2.97,0.12759,6.8293,-13.659,-4.902,-13.851,-3.8835,-18.511,-2.9773,-13.659,-4.902,-5.9113,2.8436,-1.9683,4.8657,-2.8986,1.0306,-21.18,-3.6825,8.867,-2.0415
-10.553,-1.7863,-1.9512,-11.707,-0.98039,-11.909,-0.97087,-20.452999,-1.0356,-11.707,-0.98039,-6.8966,2.8436,-0.06349,-1.7694,-2.8986,-2.8341,-16.396,7.746,5.9113,3.7002
-12.449,-6.571,-4.878,-6.8293,-3.9216,-15.793,-2.9126,-18.511,3.8188,-6.8293,-3.9216,-9.8522,10.427,7.5556,1.0742,1.9324,1.9968,-9.697,7.746,7.8818,7.5279
-5.8136,-3.7002,-0.97561,-3.9024,-2.9412,-12.88,-6.7961,-14.628,1.877,-3.9024,-2.9412,-10.837,18.009001,14.222,6.7615,6.7633,11.659,-12.568,2.0317,10.837,7.5279
0.82148,-2.7432,1.9512,-4.878,-2.9412,-5.1133,-9.7087,-14.628,3.8188,-4.878,-2.9412,-11.823,22.749001,18.032,10.553,9.6618,15.523,-19.266001,7.746,10.837,10.399
2.7172,-2.7432,2.9268,-8.7805,-2.9412,-4.1424,-9.7087,-18.511,6.7314,-8.7805,-2.9412,-11.823,16.114,14.222,7.7093,5.7971,12.625,-15.439,13.46,7.8818,10.399
5.5608,1.0845,-0.97561,-10.732,-6.8627,-6.0841,-5.8252,-19.482,4.7896,-10.732,-6.8627,-8.867,7.5829,8.5079,3.9179,2.8986,3.9291,-6.8262,8.6984,5.9113,8.4848
14.092,8.74,2.9268,-8.7805,-2.9412,-0.2589,7.767,-15.599,4.7896,-8.7805,-2.9412,0.98522,9.4787,10.413,9.6051,5.7971,4.8953,-6.8262,9.6508,7.8818,8.4848
19.778999,13.525,13.659,-3.9024,2.9412,4.5955,13.592,-16.57,9.644,-3.9024,2.9412,8.867,9.4787,11.365,14.344,11.594,11.659,-8.74,11.556,13.793,8.4848
15.987,17.351999,21.462999,-0.97561,4.902,5.5663,13.592,-15.599,8.6731,-0.97561,4.902,11.823,7.5829,10.413,14.344,19.323999,17.455999,-6.8262,5.8413,9.8522,12.313
6.5087,18.309,20.488001,-0.97561,3.9216,4.5955,8.7379,-14.628,7.7023,-0.97561,3.9216,9.8522,4.7393,11.365,8.6572,26.087,19.388,-7.7831,5.8413,0.98522,16.139999
-0.12638,13.525,12.683,-0.97561,4.902,0.71197,6.7961,-11.715,11.586,-0.97561,4.902,7.8818,0.0,9.4603,1.0742,23.188,14.557,-1.0845,5.8413,-0.98522,14.226
1.7694,6.8262,4.878,3.9024,9.8039,5.5663,9.7087,-5.89,11.586,3.9024,9.8039,10.837,-0.94787,6.6032,1.0742,10.628,4.8953,4.6571,6.7937,5.9113,8.4848
7.4566,2.9984,1.9512,9.7561,15.686,12.362,13.592,-2.0065,12.557,9.7561,15.686,15.764,0.94787,2.7937,4.8657,-1.9324,-0.90177,1.7863,8.6984,11.823,-0.12759
6.5087,9.697,1.9512,12.683,19.608,14.304,20.388,-2.0065,14.498,12.683,19.608,17.733999,2.8436,0.88889,7.7093,-2.8986,1.0306,-8.74,6.7937,12.808,-2.0415
-0.12638,10.654,0.0,7.8049,15.686,10.421,18.447001,-9.7735,9.644,7.8049,15.686,12.808,2.8436,-0.06349,6.7615,0.96618,4.8953,-11.611,12.508,7.8818,-0.12759
-4.8657,8.74,0.97561,-1.9512,10.784,1.6828,7.767,-16.57,11.586,-1.9512,10.784,5.9113,2.8436,-0.06349,4.8657,4.8309,6.8277,-2.0415,13.46,5.9113,5.614
-1.0742,11.611,8.7805,0.97561,10.784,-1.2298,3.8835,-14.628,21.294001,0.97561,10.784,4.9261,7.5829,5.6508,6.7615,8.6957,8.7601,-4.9123,10.603,11.823,11.356
6.5087,12.568,15.61,7.8049,16.667,-1.2298,8.7379,-13.657,26.149,7.8049,16.667,9.8522,11.374,11.365,9.6051,9.6618,11.659,-5.8692,17.27,10.837,15.183
14.092,16.396,19.511999,6.8293,15.686,-1.2298,15.534,-9.7735,24.207001,6.8293,15.686,13.793,17.062,15.175,15.292,11.594,15.523,6.571,19.174999,10.837,18.054001
14.092,23.094,16.584999,8.7805,16.667,-0.2589,17.476,-6.8608,21.294001,8.7805,16.667,12.808,15.166,14.222,15.292,15.459,16.49,8.4848,12.508,9.8522,18.054001
9.3523,27.879,13.659,6.8293,14.706,4.5955,18.447001,-8.8026,22.264999,6.8293,14.706,10.837,8.5308,10.413,10.553,20.290001,16.49,-2.0415,10.603,-1.9704,17.097
8.4044,28.836,16.584999,8.7805,15.686,8.479,18.447001,-7.8317,16.440001,8.7805,15.686,8.867,3.7915,8.5079,7.7093,27.052999,20.354,-14.482,22.032,-8.867,18.054001
9.3523,26.922001,21.462999,13.659,16.667,12.362,13.592,-2.9773,19.353001,13.659,16.667,9.8522,4.7393,11.365,7.7093,30.917999,22.287001,-11.611,15.365,-8.867,14.226
3.6651,22.136999,18.537001,14.634,18.627001,11.392,11.65,-0.06472,16.440001,14.634,18.627001,10.837,2.8436,8.5079,2.97,24.155001,16.49,-0.12759,5.8413,-6.8966,6.571
-1.0742,13.525,8.7805,11.707,15.686,5.5663,10.68,0.90615,13.528,11.707,15.686,7.8818,-2.8436,1.8413,-2.7172,8.6957,4.8953,5.614,7.746,-4.9261,-1.0845
-2.97,-0.82935,0.97561,7.8049,12.745,-0.2589,6.7961,-0.06472,13.528,7.8049,12.745,2.9557,-8.5308,-6.7302,-4.613,-11.594,-7.6651,-0.12759,6.7937,-2.9557,-7.7831
-4.8657,-7.5279,-4.878,4.878,9.8039,-8.0259,2.9126,-2.0065,8.6731,4.878,9.8039,-2.9557,-13.27,-16.254,-4.613,-21.256001,-14.428,0.82935,1.0794,-4.9261,-9.697
-3.9179,-2.7432,-6.8293,0.97561,3.9216,-8.9968,0.0,-1.0356,5.7605,0.97561,3.9216,-6.8966,-11.374,-16.254,-1.7694,-12.56,-9.5974,-2.9984,-1.7778,-3.9409,-7.7831
1.7694,5.8692,-0.97561,3.9024,5.8824,-3.1715,0.97087,2.8479,1.877,3.9024,5.8824,-4.9261,0.0,-2.9206,5.8136,4.8309,4.8953,-2.9984,2.0317,3.9409,0.82935
4.613,5.8692,1.9512,6.8293,4.902,0.71197,-2.9126,4.7896,-0.06472,6.8293,4.902,-2.9557,8.5308,6.6032,9.6051,9.6618,11.659,-1.0845,-7.4921,1.9704,4.6571
9.3523,5.8692,6.8293,11.707,6.8627,9.4498,0.0,7.7023,4.7896,11.707,6.8627,1.9704,10.427,10.413,11.501,8.6957,12.625,-1.0845,-6.5397,0.0,4.6571
10.3,3.9553,10.732,13.659,10.784,8.479,4.8544,10.615,7.7023,13.659,10.784,6.8966,6.6351,8.5079,9.6051,3.8647,9.7262,-1.0845,5.8413,1.9704,3.7002
3.6651,-0.82935,3.9024,14.634,12.745,6.5372,6.7961,12.557,11.586,14.634,12.745,5.9113,-1.8957,0.88889,-1.7694,-4.8309,0.06441,3.7002,2.9841,-8.867,-2.0415
-3.9179,1.0845,-0.97561,11.707,8.8235,3.6246,5.8252,14.498,13.528,11.707,8.8235,4.9261,-7.5829,-4.8254,-9.3523,-4.8309,-6.6989,10.399,0.12698,-13.793,-1.0845
-5.8136,6.8262,0.0,7.8049,6.8627,1.6828,7.767,15.469,10.615,7.8049,6.8627,2.9557,-9.4787,-6.7302,-9.3523,0.0,-5.7327,16.139999,6.7937,-14.778,1.7863
-2.97,8.74,1.9512,4.878,1.9608,2.6537,1.9417,15.469,5.7605,4.878,1.9608,0.98522,-7.5829,-5.7778,-4.613,1.9324,-3.8003,19.011,7.746,-11.823,-0.12759
3.6651,2.9984,0.0,3.9024,-1.9608,-0.2589,-4.8544,16.440001,-7.8317,3.9024,-1.9608,0.0,-2.8436,-1.0159,2.0221,1.9324,-2.8341,20.924999,2.0317,-3.9409,1.7863
8.4044,-5.614,-3.9024,3.9024,-4.902,-1.2298,-11.65,17.410999,-12.686,3.9024,-4.902,-2.9557,-0.94787,0.88889,4.8657,-0.96618,-2.8341,11.356,-4.6349,8.867,1.7863
11.248,-10.399,-7.8049,5.8537,-1.9608,3.6246,-11.65,19.353001,-12.686,5.8537,-1.9608,-2.9557,-0.94787,0.88889,4.8657,-3.8647,-2.8341,17.097,-12.254,6.8966,-1.0845
13.144,-9.4418,-6.8293,8.7805,5.8824,10.421,-4.8544,26.149,-4.9191,8.7805,5.8824,1.9704,1.8957,2.7937,4.8657,-6.7633,-2.8341,27.624001,-18.921,6.8966,-2.9984
8.4044,-13.27,-4.878,9.7561,8.8235,12.362,0.0,25.177999,-0.06472,9.7561,8.8235,2.9557,-3.7915,-5.7778,-0.82148,-20.290001,-11.53,23.796,-16.063,8.867,-9.697
0.82148,-19.968,-6.8293,10.732,4.902,7.5081,-0.97087,22.264999,-1.0356,10.732,4.902,1.9704,-13.27,-17.205999,-9.3523,-33.816002,-22.158001,15.183,-17.016001,0.98522,-19.266001
-2.97,-19.968,-6.8293,11.707,3.9216,7.5081,-1.9417,21.294001,-2.0065,11.707,3.9216,2.9557,-17.062,-21.968,-12.196,-33.816002,-24.09,6.571,-12.254,-0.98522,-20.223
-2.0221,-10.399,-2.9268,9.7561,2.9412,10.421,-0.97087,16.440001,-4.9191,9.7561,2.9412,4.9261,-16.114,-20.063,-8.4044,-23.188,-17.327,-4.9123,-12.254,-1.9704,-15.439
0.82148,3.9553,1.9512,11.707,3.9216,9.4498,1.9417,14.498,-2.9773,11.707,3.9216,7.8818,-10.427,-15.302,-0.82148,-6.7633,-6.6989,-0.12759,-9.3968,0.98522,-9.697
-3.9179,6.8262,-2.9268,12.683,4.902,-0.2589,1.9417,8.6731,-0.06472,12.683,4.902,5.9113,-8.5308,-12.444,-0.82148,0.0,-3.8003,6.571,-0.8254,0.98522,-8.74
-5.8136,6.8262,-4.878,9.7561,3.9216,0.71197,1.9417,6.7314,-3.9482,9.7561,3.9216,5.9113,-4.7393,-5.7778,-0.82148,3.8647,0.06441,3.7002,0.12698,0.0,-5.8692
-1.0742,4.9123,-0.97561,6.8293,5.8824,8.479,7.767,8.6731,-3.9482,6.8293,5.8824,6.8966,-4.7393,-3.873,-0.82148,3.8647,1.9968,2.7432,0.12698,-1.9704,-1.0845
-1.0742,1.0845,-1.9512,2.9268,-2.9412,6.5372,5.8252,10.615,-2.9773,2.9268,-2.9412,2.9557,-8.5308,-5.7778,-4.613,0.96618,-1.868,3.7002,-5.5873,-0.98522,-1.0845
-0.12638,2.9984,-0.97561,6.8293,0.98039,6.5372,4.8544,16.440001,-1.0356,6.8293,0.98039,3.9409,-3.7915,-1.0159,-3.6651,2.8986,-1.868,15.183,-1.7778,-5.9113,0.82935
-1.0742,2.0415,-4.878,5.8537,1.9608,6.5372,-0.97087,19.353001,-1.0356,5.8537,1.9608,-0.98522,-1.8957,-1.0159,-1.7694,2.8986,-2.8341,19.011,4.8889,-7.8818,0.82935
-4.8657,-9.4418,-16.584999,0.97561,-3.9216,-5.1133,-13.592,15.469,-5.89,0.97561,-3.9216,-12.808,-6.6351,-5.7778,-4.613,-4.8309,-9.5974,15.183,-2.7302,-1.9704,-2.0415
-4.8657,-20.924999,-21.462999,0.0,-5.8824,-14.822,-22.33,14.498,-8.8026,0.0,-5.8824,-19.704,-4.7393,-5.7778,-3.6651,-10.628,-12.496,12.313,-8.4444,2.9557,-6.8262
-4.8657,-26.667,-21.462999,-0.97561,-7.8431,-12.88,-28.155001,11.586,-13.657,-0.97561,-7.8431,-23.645,-5.6872,-6.7302,-2.7172,-15.459,-14.428,1.7863,-15.111,6.8966,-9.697
-10.553,-28.580999,-25.365999,-2.9268,-9.8039,-15.793,-29.125999,7.7023,-12.686,-2.9268,-9.8039,-27.586,-13.27,-14.349,-10.3,-25.121,-23.124001,-4.9123,-17.968,-0.98522,-13.525
-12.449,-27.624001,-25.365999,-5.8537,-8.8235,-16.764,-21.358999,5.7605,-5.89,-5.8537,-8.8235,-24.631001,-20.853001,-21.968,-15.987,-31.884001,-28.921,-1.0845,-11.302,-9.8522,-15.439
-12.449,-19.968,-20.488001,-6.8293,-7.8431,-11.909,-11.65,1.877,-2.0065,-6.8293,-7.8431,-17.733999,-22.749001,-23.872999,-19.778999,-32.849998,-27.955,-5.8692,-3.6825,-15.764,-15.439
-11.501,-8.4848,-13.659,-1.9512,-2.9412,-8.9968,-2.9126,-1.0356,-2.9773,-1.9512,-2.9412,-10.837,-18.957001,-20.063,-16.934999,-25.121,-20.225,-7.7831,-4.6349,-15.764,-14.482
-11.501,-3.7002,-6.8293,-1.9512,-2.9412,-10.939,-4.8544,-4.9191,0.90615,-1.9512,-2.9412,-8.867,-14.218,-14.349,-15.039,-14.493,-12.496,-13.525,0.12698,-19.704,-8.74
-12.449,-1.7863,-1.9512,-4.878,-6.8627,-10.939,-11.65,-4.9191,-2.9773,-4.878,-6.8627,-8.867,-12.322,-9.5873,-14.092,-7.7295,-9.5974,-15.439,1.0794,-18.719,-6.8262
-5.8136,5.8692,7.8049,1.9512,-2.9412,-6.0841,-6.7961,-0.06472,-2.0065,1.9512,-2.9412,-3.9409,-4.7393,-1.0159,-5.5608,1.9324,-0.90177,-2.9984,-3.6825,-7.8818,-2.0415
-2.0221,3.9553,10.732,1.9512,-3.9216,-1.2298,-8.7379,1.877,-2.0065,1.9512,-3.9216,-2.9557,-2.8436,1.8413,-2.7172,4.8309,1.9968,6.571,-3.6825,-5.9113,1.7863
2.7172,2.0415,11.707,4.878,0.0,0.71197,-5.8252,5.7605,-4.9191,4.878,0.0,0.0,0.94787,0.88889,2.97,3.8647,5.8615,7.5279,-3.6825,-2.9557,-0.12759
6.5087,2.0415,9.7561,6.8293,0.98039,6.5372,1.9417,8.6731,-4.9191,6.8293,0.98039,3.9409,5.6872,2.7937,9.6051,1.9324,8.7601,7.5279,-5.5873,0.0,-1.0845
8.4044,2.9984,4.878,8.7805,4.902,9.4498,6.7961,12.557,-8.8026,8.7805,4.902,4.9261,8.5308,3.746,11.501,1.9324,10.692,5.614,-2.7302,4.9261,-2.0415
6.5087,1.0845,-0.97561,9.7561,3.9216,7.5081,2.9126,12.557,-0.06472,9.7561,3.9216,2.9557,6.6351,1.8413,8.6572,0.96618,6.8277,9.4418,-3.6825,7.8818,-3.9553
-0.12638,-7.5279,-13.659,4.878,0.0,1.6828,-4.8544,7.7023,2.8479,4.878,0.0,-5.9113,-2.8436,-5.7778,-1.7694,-6.7633,-4.7665,12.313,-0.8254,7.8818,-2.9984
-2.97,-11.356,-20.488001,0.0,-6.8627,-5.1133,-9.7087,2.8479,0.90615,0.0,-6.8627,-10.837,-7.5829,-7.6825,-6.5087,-8.6957,-10.564,12.313,-1.7778,9.8522,-0.12759
-3.9179,-7.5279,-18.537001,-0.97561,-3.9216,-6.0841,-7.767,-1.0356,2.8479,-0.97561,-3.9216,-9.8522,-7.5829,-5.7778,-8.4044,-8.6957,-11.53,6.571,-0.8254,10.837,1.7863
-9.6051,-3.7002,-17.561001,-0.97561,-0.98039,-7.055,-2.9126,-6.8608,2.8479,-0.97561,-0.98039,-9.8522,-10.427,-8.6349,-13.144,-8.6957,-14.428,-12.568,-3.6825,-1.9704,-1.0845
-12.449,2.9984,-13.659,0.0,1.9608,-11.909,-1.9417,-10.744,6.7314,0.0,1.9608,-6.8966,-12.322,-8.6349,-16.934999,-3.8647,-13.462,-17.351999,1.0794,-11.823,0.82935
-13.397,5.8692,-9.7561,-1.9512,0.98039,-8.9968,-0.97087,-13.657,5.7605,-1.9512,0.98039,-3.9409,-16.114,-10.54,-19.778999,-2.8986,-13.462,-17.351999,8.6984,-16.749001,-2.0415
-9.6051,4.9123,-4.878,-1.9512,2.9412,-0.2589,2.9126,-10.744,8.6731,-1.9512,2.9412,0.0,-11.374,-5.7778,-15.039,-1.9324,-8.6312,-13.525,11.556,-17.733999,-2.9984
-2.0221,4.9123,0.0,6.8293,7.8431,4.5955,8.7379,-4.9191,7.7023,6.8293,7.8431,5.9113,-4.7393,-1.9683,-7.4566,0.96618,-2.8341,-5.8692,4.8889,-13.793,-4.9123
2.7172,4.9123,2.9268,8.7805,6.8627,9.4498,9.7087,-0.06472,5.7605,8.7805,6.8627,7.8818,0.94787,2.7937,-0.82148,3.8647,2.963,-7.7831,2.9841,-10.837,-3.9553
3.6651,0.12759,2.9268,6.8293,6.8627,12.362,6.7961,2.8479,3.8188,6.8293,6.8627,8.867,5.6872,6.6032,2.0221,6.7633,6.8277,-16.396,1.0794,-9.8522,-1.0845
-0.12638,-4.6571,-0.97561,5.8537,3.9216,12.362,0.0,2.8479,-2.9773,5.8537,3.9216,5.9113,7.5829,7.5556,0.12638,3.8647,5.8615,-14.482,-8.4444,-6.8966,0.82935
-2.0221,-8.4848,0.97561,5.8537,0.0,3.6246,-4.8544,1.877,-6.8608,5.8537,0.0,1.9704,7.5829,4.6984,-0.82148,-1.9324,3.9291,4.6571,-11.302,-4.9261,-2.0415
2.7172,-3.7002,8.7805,4.878,-1.9608,-0.2589,-1.9417,0.90615,-9.7735,4.878,-1.9608,1.9704,2.8436,-0.06349,2.0221,-4.8309,4.8953,2.7432,-4.6349,-2.9557,-4.9123
10.3,3.9553,15.61,5.8537,2.9412,4.5955,6.7961,2.8479,-2.0065,5.8537,2.9412,5.9113,1.8957,-0.06349,6.7615,-1.9324,6.8277,8.4848,-2.7302,3.9409,-0.12759
8.4044,2.9984,8.7805,2.9268,1.9608,3.6246,1.9417,0.90615,3.8188,2.9268,1.9608,1.9704,0.0,-1.0159,5.8136,-0.96618,2.963,12.313,3.9365,7.8818,2.7432
2.7172,1.0845,4.878,1.9512,4.902,3.6246,0.0,-3.9482,5.7605,1.9512,4.902,1.9704,-1.8957,-2.9206,-0.82148,-1.9324,-3.8003,2.7432,11.556,0.0,2.7432
-3.9179,3.9553,6.8293,0.97561,3.9216,4.5955,6.7961,-9.7735,7.7023,0.97561,3.9216,4.9261,-1.8957,-1.9683,-5.5608,-0.96618,-4.7665,-10.654,11.556,-5.9113,3.7002
-5.8136,10.654,15.61,-0.97561,4.902,-1.2298,11.65,-14.628,9.644,-0.97561,4.902,7.8818,-0.94787,-1.9683,-4.613,2.8986,1.9968,-23.094,7.746,-6.8966,3.7002
1.7694,17.351999,26.341,-1.9512,3.9216,-3.1715,14.563,-16.57,8.6731,-1.9512,3.9216,10.837,2.8436,2.7937,1.0742,8.6957,11.659,-23.094,6.7937,-9.8522,2.7432
6.5087,18.309,26.341,0.0,6.8627,-8.0259,14.563,-17.540001,9.644,0.0,6.8627,11.823,8.5308,10.413,6.7615,15.459,17.455999,-17.351999,8.6984,-6.8966,8.4848
1.7694,14.482,10.732,-1.9512,2.9412,-7.055,3.8835,-21.424,6.7314,-1.9512,2.9412,2.9557,11.374,15.175,6.7615,19.323999,16.49,-19.266001,5.8413,-5.9113,16.139999
-2.97,3.9553,-4.878,-8.7805,-4.902,-4.1424,-5.8252,-25.306999,-2.9773,-8.7805,-4.902,-6.8966,15.166,17.079,6.7615,17.391001,11.659,-18.309,2.0317,-0.98522,16.139999
-4.8657,-3.7002,-11.707,-11.707,-8.8235,-8.0259,-11.65,-27.249001,-7.8317,-11.707,-8.8235,-11.823,15.166,16.127001,3.9179,12.56,4.8953,-23.094,2.9841,0.0,11.356
-2.0221,-5.614,-8.7805,-9.7561,-9.8039,-7.055,-12.621,-21.424,-4.9191,-9.7561,-9.8039,-10.837,17.062,16.127001,6.7615,9.6618,5.8615,-6.8262,-3.6825,5.9113,6.571
3.6651,-8.4848,0.0,-9.7561,-8.8235,-4.1424,-13.592,-14.628,-8.8026,-9.7561,-8.8235,-8.867,18.957001,18.983999,11.501,8.6957,11.659,13.27,-2.7302,15.764,5.614
8.4044,-5.614,9.7561,-6.8293,-8.8235,-3.1715,-12.621,-8.8026,-8.8026,-6.8293,-8.8235,-5.9113,16.114,17.079,13.397,9.6618,15.523,10.399,-3.6825,11.823,3.7002
13.144,-0.82935,17.561001,-1.9512,-3.9216,3.6246,-5.8252,-1.0356,-4.9191,-1.9512,-3.9216,0.98522,13.27,14.222,17.188,13.527,20.354,2.7432,1.0794,5.9113,4.6571
13.144,5.8692,12.683,0.0,-3.9216,4.5955,-1.9417,2.8479,-2.9773,0.0,-3.9216,2.9557,12.322,12.317,18.136,15.459,20.354,1.7863,8.6984,6.8966,6.571
9.3523,6.8262,-0.97561,0.97561,-1.9608,2.6537,1.9417,4.7896,-1.0356,0.97561,-1.9608,0.0,9.4787,10.413,13.397,14.493,13.591,7.5279,10.603,9.8522,8.4848
0.82148,1.0845,-10.732,0.0,-2.9412,3.6246,1.9417,5.7605,-2.9773,0.0,-2.9412,-1.9704,2.8436,2.7937,4.8657,4.8309,2.963,13.27,7.746,8.867,4.6571
-6.7615,-5.614,-16.584999,0.0,0.0,0.71197,-1.9417,2.8479,-2.9773,0.0,0.0,-6.8966,-3.7915,-3.873,-4.613,-2.8986,-5.7327,9.4418,-2.7302,5.9113,0.82935
-3.9179,1.0845,-7.8049,3.9024,1.9608,-1.2298,2.9126,4.7896,4.7896,3.9024,1.9608,-3.9409,0.94787,0.88889,1.0742,0.96618,0.06441,3.7002,-2.7302,10.837,1.7863
5.5608,9.697,7.8049,9.7561,7.8431,5.5663,10.68,7.7023,5.7605,9.7561,7.8431,5.9113,4.7393,3.746,9.6051,5.7971,7.7939,0.82935,-2.7302,13.793,1.7863
9.3523,13.525,15.61,6.8293,5.8824,6.5372,12.621,3.8188,7.7023,6.8293,5.8824,11.823,5.6872,3.746,11.501,8.6957,9.7262,-5.8692,2.0317,6.8966,4.6571
10.3,15.439,19.511999,5.8537,7.8431,8.479,16.504999,-0.06472,8.6731,5.8537,7.8431,13.793,6.6351,4.6984,11.501,9.6618,12.625,-4.9123,8.6984,1.9704,6.571
6.5087,7.7831,18.537001,4.878,4.902,7.5081,11.65,-2.9773,4.7896,4.878,4.902,11.823,4.7393,4.6984,6.7615,8.6957,9.7262,-3.9553,8.6984,1.9704,6.571
3.6651,1.0845,16.584999,2.9268,2.9412,0.71197,2.9126,-3.9482,-0.06472,2.9268,2.9412,6.8966,2.8436,4.6984,2.0221,6.7633,7.7939,-2.9984,9.6508,-4.9261,5.614
0.82148,-1.7863,10.732,-0.97561,0.98039,-1.2298,-0.97087,-3.9482,0.90615,-0.97561,0.98039,1.9704,1.8957,4.6984,2.0221,6.7633,6.8277,0.82935,4.8889,-10.837,0.82935
3.6651,-3.7002,11.707,0.97561,1.9608,5.5663,0.0,-1.0356,1.877,0.97561,1.9608,3.9409,3.7915,4.6984,4.8657,5.7971,6.8277,7.5279,-1.7778,-5.9113,0.82935
9.3523,-0.82935,13.659,3.9024,4.902,10.421,3.8835,1.877,-3.9482,3.9024,4.902,8.867,4.7393,4.6984,7.7093,4.8309,5.8615,9.4418,-1.7778,0.98522,1.7863
13.144,0.12759,11.707,6.8293,6.8627,12.362,10.68,6.7314,-0.06472,6.8293,6.8627,13.793,5.6872,3.746,12.449,2.8986,5.8615,15.183,2.0317,11.823,-3.9553
13.144,1.0845,5.8537,10.732,11.765,13.333,15.534,8.6731,3.8188,10.732,11.765,14.778,6.6351,1.8413,13.397,-0.96618,4.8953,12.313,-3.6825,17.733999,-7.7831
4.613,0.12759,-3.9024,5.8537,5.8824,8.479,9.7087,5.7605,1.877,5.8537,5.8824,7.8818,1.8957,-2.9206,4.8657,-2.8986,-0.90177,9.4418,-13.206,13.793,-5.8692
-0.12638,-2.7432,-6.8293,3.9024,3.9216,3.6246,3.8835,0.90615,-1.0356,3.9024,3.9216,3.9409,-4.7393,-7.6825,-1.7694,-0.96618,-2.8341,12.313,-1.7778,8.867,-1.0845
1.7694,-0.82935,-0.97561,2.9268,1.9608,5.5663,1.9417,0.90615,-5.89,2.9268,1.9608,2.9557,-3.7915,-5.7778,-0.82148,2.8986,1.0306,6.571,2.9841,5.9113,-1.0845
4.613,4.9123,9.7561,0.0,4.902,4.5955,2.9126,-0.06472,-2.9773,0.0,4.902,4.9261,1.8957,-1.0159,4.8657,8.6957,8.7601,4.6571,-2.7302,10.837,1.7863
0.82148,9.697,14.634,-3.9024,-1.9608,-1.2298,0.97087,-2.9773,-1.0356,-3.9024,-1.9608,2.9557,0.94787,-1.9683,2.97,10.628,8.7601,-3.9553,3.9365,0.0,2.7432
-3.9179,8.74,11.707,-5.8537,-4.902,-7.055,0.97087,-3.9482,-7.8317,-5.8537,-4.902,0.0,-0.94787,-1.0159,-0.82148,10.628,6.8277,-12.568,5.8413,-9.8522,4.6571
-6.7615,2.9984,3.9024,-6.8293,-6.8627,-5.1133,-1.9417,-4.9191,-0.06472,-6.8293,-6.8627,-3.9409,-0.94787,-1.9683,-2.7172,6.7633,3.9291,-6.8262,4.8889,-7.8818,1.7863
-7.7093,-1.7863,-3.9024,-1.9512,-0.98039,-4.1424,0.97087,-2.0065,3.8188,-1.9512,-0.98039,-3.9409,-1.8957,-0.06349,-4.613,2.8986,0.06441,1.7863,1.0794,-8.867,0.82935
-6.7615,-6.571,-7.8049,0.0,0.0,-3.1715,1.9417,-1.0356,1.877,0.0,0.0,-1.9704,0.0,3.746,-3.6651,-0.96618,-2.8341,0.82935,-6.5397,-6.8966,0.82935
-2.0221,-4.6571,-1.9512,1.9512,3.9216,0.71197,3.8835,1.877,2.8479,1.9512,3.9216,0.98522,4.7393,6.6032,1.0742,-0.96618,-0.90177,-3.9553,-2.7302,-0.98522,1.7863
0.82148,-5.614,-2.9268,3.9024,3.9216,2.6537,0.97087,5.7605,-3.9482,3.9024,3.9216,0.0,6.6351,4.6984,3.9179,-1.9324,-0.90177,-2.9984,1.0794,3.9409,-0.12759
0.82148,-8.4848,-9.7561,0.97561,0.0,-0.2589,-2.9126,6.7314,-2.9773,0.97561,0.0,-4.9261,7.5829,4.6984,4.8657,-2.8986,-1.868,10.399,-3.6825,7.8818,-2.0415
-2.97,-18.054001,-20.488001,-0.97561,-2.9412,-8.9968,-8.7379,3.8188,-0.06472,-0.97561,-2.9412,-10.837,1.8957,-1.9683,-0.82148,-11.594,-9.5974,11.356,0.12698,11.823,-5.8692
-5.8136,-19.968,-20.488001,1.9512,-3.9216,-4.1424,-8.7379,2.8479,-2.0065,1.9512,-3.9216,-8.867,-6.6351,-10.54,-7.4566,-16.424999,-14.428,2.7432,2.9841,1.9704,-6.8262
-3.9179,-11.356,-5.8537,7.8049,1.9608,6.5372,-0.97087,4.7896,-0.06472,7.8049,1.9608,0.98522,-13.27,-15.302,-10.3,-13.527,-13.462,-7.7831,2.0317,-6.8966,-7.7831
-1.0742,2.0415,8.7805,10.732,4.902,10.421,8.7379,4.7896,1.877,10.732,4.902,8.867,-16.114,-16.254,-7.4566,-6.7633,-8.6312,-8.74,5.8413,-4.9261,-9.697
2.7172,10.654,12.683,4.878,6.8627,6.5372,18.447001,0.90615,6.7314,4.878,6.8627,9.8522,-12.322,-11.492,0.12638,2.8986,-1.868,5.614,2.9841,0.0,-2.9984
2.7172,8.74,5.8537,-1.9512,0.98039,-5.1133,12.621,-4.9191,7.7023,-1.9512,0.98039,3.9409,-6.6351,-4.8254,4.8657,7.7295,1.9968,3.7002,3.9365,3.9409,4.6571
5.5608,7.7831,2.9268,-3.9024,2.9412,-3.1715,7.767,-2.0065,1.877,-3.9024,2.9412,1.9704,1.8957,2.7937,9.6051,12.56,7.7939,-2.0415,-1.7778,6.8966,9.4418
6.5087,11.611,3.9024,-1.9512,2.9412,3.6246,4.8544,1.877,4.7896,-1.9512,2.9412,2.9557,11.374,9.4603,14.344,17.391001,15.523,4.6571,1.0794,8.867,11.356
4.613,10.654,3.9024,3.9024,5.8824,7.5081,4.8544,2.8479,5.7605,3.9024,5.8824,5.9113,12.322,7.5556,10.553,11.594,14.557,6.571,6.7937,6.8966,7.5279
-0.12638,4.9123,2.9268,8.7805,5.8824,9.4498,8.7379,5.7605,3.8188,8.7805,5.8824,10.837,10.427,4.6984,2.97,2.8986,6.8277,3.7002,2.9841,0.98522,3.7002
-0.12638,0.12759,1.9512,12.683,12.745,10.421,16.504999,9.644,6.7314,12.683,12.745,15.764,10.427,5.6508,-1.7694,-3.8647,1.0306,0.82935,-0.8254,1.9704,-1.0845
-3.9179,-8.4848,-1.9512,9.7561,10.784,6.5372,10.68,7.7023,7.7023,9.7561,10.784,9.8522,3.7915,1.8413,-7.4566,-10.628,-4.7665,-4.9123,1.0794,0.98522,-9.697
-6.7615,-12.313,1.9512,6.8293,8.8235,4.5955,3.8835,5.7605,4.7896,6.8293,8.8235,6.8966,-2.8436,-1.0159,-11.248,-10.628,-4.7665,-2.9984,3.9365,-5.9113,-9.697
-2.97,-11.356,6.8293,5.8537,5.8824,3.6246,0.97087,5.7605,-0.06472,5.8537,5.8824,6.8966,-7.5829,-4.8254,-10.3,-8.6957,-4.7665,-1.0845,2.0317,-12.808,-7.7831
0.82148,-12.313,0.97561,1.9512,1.9608,0.71197,-4.8544,5.7605,-2.0065,1.9512,1.9608,2.9557,-10.427,-8.6349,-6.5087,-8.6957,-6.6989,-2.0415,-3.6825,-9.8522,-9.697
0.82148,-14.226,-6.8293,-0.97561,-2.9412,-2.2006,-10.68,1.877,-5.89,-0.97561,-2.9412,-2.9557,-12.322,-11.492,-4.613,-9.6618,-9.5974,-1.0845,-5.5873,-3.9409,-9.697
0.82148,-11.356,-5.8537,-1.9512,-4.902,-1.2298,-8.7379,-0.06472,-4.9191,-1.9512,-4.902,-3.9409,-11.374,-9.5873,-1.7694,-4.8309,-7.6651,4.6571,-3.6825,-1.9704,-4.9123
1.7694,0.12759,0.0,-2.9268,-1.9608,-0.2589,-0.97087,-2.0065,-1.0356,-2.9268,-1.9608,-2.9557,-6.6351,-4.8254,2.97,2.8986,-2.8341,1.7863,-2.7302,4.9261,-1.0845
-4.8657,5.8692,-0.97561,-9.7561,-3.9216,-8.0259,0.97087,-8.8026,3.8188,-9.7561,-3.9216,-3.9409,-3.7915,-3.873,-1.7694,4.8309,-3.8003,-3.9553,3.9365,0.0,1.7863
-11.501,8.74,-6.8293,-10.732,-1.9608,-9.9676,2.9126,-10.744,7.7023,-10.732,-1.9608,-5.9113,0.0,-1.0159,-5.5608,7.7295,-2.8341,-6.8262,9.6508,-3.9409,7.5279
-11.501,8.74,-12.683,-5.8537,-0.98039,-8.9968,1.9417,-5.89,4.7896,-5.8537,-0.98039,-5.9113,7.5829,5.6508,-1.7694,12.56,1.9968,-7.7831,10.603,-0.98522,10.399
-7.7093,5.8692,-11.707,-4.878,-1.9608,-9.9676,-0.97087,-7.8317,0.90615,-4.878,-1.9608,-7.8818,9.4787,7.5556,2.97,13.527,6.8277,-10.654,2.0317,0.98522,10.399
-4.8657,2.9984,-5.8537,-4.878,-3.9216,-8.9968,-0.97087,-7.8317,2.8479,-4.878,-3.9216,-5.9113,4.7393,4.6984,2.97,9.6618,5.8615,-10.654,-1.7778,0.98522,7.5279
-2.0221,-1.7863,-1.9512,-3.9024,-1.9608,-10.939,-3.8835,-5.89,-2.9773,-3.9024,-1.9608,-3.9409,1.8957,2.7937,-0.82148,0.96618,1.0306,-0.12759,3.9365,3.9409,4.6571
-2.97,-4.6571,-2.9268,-7.8049,-5.8824,-8.0259,-5.8252,-5.89,-6.8608,-7.8049,-5.8824,-4.9261,-1.8957,-1.0159,-3.6651,-6.7633,-5.7327,5.614,2.0317,0.0,1.7863
-6.7615,-6.571,-7.8049,-6.8293,-3.9216,-5.1133,-3.8835,-3.9482,-6.8608,-6.8293,-3.9216,-4.9261,-4.7393,-3.873,-8.4044,-11.594,-9.5974,1.7863,-1.7778,-5.9113,-3.9553
-9.6051,-8.4848,-7.8049,0.97561,0.98039,-2.2006,0.0,1.877,-0.06472,0.97561,0.98039,-0.98522,-1.8957,-3.873,-6.5087,-11.594,-5.7327,0.82935,-3.6825,-1.9704,-10.654
-6.7615,-12.313,-0.97561,6.8293,6.8627,2.6537,0.0,6.7314,-2.0065,6.8293,6.8627,1.9704,-0.94787,-6.7302,-2.7172,-11.594,-0.90177,-2.0415,-6.5397,0.98522,-17.351999
6.5087,-4.6571,13.659,9.7561,9.8039,11.392,1.9417,13.528,-1.0356,9.7561,9.8039,8.867,2.8436,-1.9683,5.8136,-2.8986,6.8277,2.7432,-10.349,3.9409,-16.396
17.882999,2.9984,22.438999,12.683,11.765,18.188,5.8252,18.382,-7.8317,12.683,11.765,14.778,6.6351,3.746,13.397,5.7971,12.625,13.27,-9.3968,9.8522,-8.74
18.830999,1.0845,19.511999,11.707,6.8627,17.216999,0.0,16.440001,-3.9482,11.707,6.8627,11.823,7.5829,6.6032,14.344,6.7633,11.659,12.313,-0.8254,10.837,-2.9984
19.778999,0.12759,15.61,12.683,4.902,14.304,-3.8835,14.498,-4.9191,12.683,4.902,8.867,9.4787,8.5079,15.292,7.7295,8.7601,9.4418,2.9841,11.823,3.7002
16.934999,2.0415,7.8049,10.732,5.8824,11.392,-1.9417,12.557,-5.89,10.732,5.8824,7.8818,7.5829,8.5079,14.344,5.7971,5.8615,4.6571,0.12698,10.837,6.571
8.4044,5.8692,-2.9268,6.8293,3.9216,2.6537,1.9417,6.7314,-2.9773,6.8293,3.9216,5.9113,5.6872,6.6032,9.6051,4.8309,1.9968,-3.9553,-4.6349,4.9261,8.4848
1.7694,5.8692,-4.878,3.9024,4.902,2.6537,6.7961,-0.06472,-0.06472,3.9024,4.902,3.9409,6.6351,7.5556,7.7093,8.6957,5.8615,0.82935,-0.8254,0.98522,13.27
-2.0221,3.9553,0.0,-0.97561,2.9412,1.6828,4.8544,-5.89,1.877,-0.97561,2.9412,2.9557,4.7393,7.5556,3.9179,9.6618,6.8277,-2.9984,6.7937,1.9704,13.27
-2.0221,2.9984,6.8293,0.97561,6.8627,2.6537,4.8544,-5.89,0.90615,0.97561,6.8627,4.9261,0.0,4.6984,-1.7694,7.7295,4.8953,-6.8262,8.6984,-3.9409,9.4418
-2.0221,-1.7863,5.8537,4.878,4.902,1.6828,2.9126,-2.0065,-0.06472,4.878,4.902,3.9409,-3.7915,1.8413,-5.5608,1.9324,0.06441,-9.697,5.8413,-10.837,6.571
-0.12638,-3.7002,0.97561,4.878,3.9216,-0.2589,6.7961,2.8479,-2.0065,4.878,3.9216,3.9409,-4.7393,-1.9683,-3.6651,-1.9324,-1.868,-11.611,-0.8254,-3.9409,-1.0845
1.7694,-3.7002,-1.9512,2.9268,0.0,2.6537,3.8835,5.7605,-5.89,2.9268,0.0,0.98522,-2.8436,-1.0159,-1.7694,-1.9324,-1.868,7.5279,-8.4444,2.9557,-7.7831
0.82148,-1.7863,-2.9268,2.9268,1.9608,5.5663,0.0,5.7605,-2.9773,2.9268,1.9608,-1.9704,0.0,-1.0159,-2.7172,-0.96618,-2.8341,20.924999,-6.5397,6.8966,-8.74
-2.0221,-1.7863,-0.97561,0.0,0.0,-0.2589,-2.9126,3.8188,-3.9482,0.0,0.0,-3.9409,6.6351,2.7937,0.12638,0.0,-0.90177,18.054001,-6.5397,12.808,-7.7831
-2.0221,-1.7863,2.9268,0.0,2.9412,-4.1424,0.0,0.90615,-2.0065,0.0,2.9412,-1.9704,13.27,6.6032,3.9179,0.96618,2.963,7.5279,-2.7302,13.793,-5.8692
-4.8657,0.12759,2.9268,0.0,2.9412,-4.1424,4.8544,-2.0065,-2.0065,0.0,2.9412,1.9704,11.374,4.6984,2.97,-2.8986,1.0306,-1.0845,0.12698,7.8818,-6.8262
-3.9179,3.9553,1.9512,3.9024,9.8039,3.6246,13.592,-0.06472,-0.06472,3.9024,9.8039,7.8818,5.6872,2.7937,-0.82148,-3.8647,-0.90177,1.7863,-1.7778,-2.9557,-3.9553
-2.0221,8.74,1.9512,9.7561,11.765,6.5372,16.504999,3.8188,7.7023,9.7561,11.765,9.8522,-2.8436,-0.06349,-6.5087,-2.8986,-2.8341,-0.12759,-1.7778,-11.823,-2.0415
-1.0742,11.611,2.9268,13.659,11.765,4.5955,15.534,7.7023,6.7314,13.659,11.765,10.837,-10.427,-3.873,-13.144,-0.96618,-6.6989,-5.8692,3.9365,-18.719,0.82935
-0.12638,13.525,5.8537,9.7561,9.8039,9.4498,16.504999,8.6731,7.7023,9.7561,9.8039,12.808,-13.27,-2.9206,-14.092,1.9324,-6.6989,-14.482,6.7937,-19.704,4.6571
1.7694,6.8262,2.9268,5.8537,6.8627,8.479,13.592,6.7314,12.557,5.8537,6.8627,8.867,-10.427,-1.0159,-6.5087,2.8986,-2.8341,-17.351999,8.6984,-14.778,7.5279
2.7172,-0.82935,-3.9024,1.9512,3.9216,0.71197,6.7961,1.877,6.7314,1.9512,3.9216,1.9704,-5.6872,-1.0159,2.0221,2.8986,1.0306,-15.439,6.7937,0.0,9.4418
2.7172,-4.6571,-8.7805,0.0,-1.9608,-4.1424,-1.9417,2.8479,3.8188,0.0,-1.9608,-4.9261,-0.94787,-0.06349,5.8136,1.9324,1.9968,-2.0415,-0.8254,0.98522,9.4418
2.7172,-5.614,-6.8293,-0.97561,-1.9608,-9.9676,-2.9126,3.8188,-2.9773,-0.97561,-1.9608,-5.9113,2.8436,-0.06349,7.7093,-0.96618,1.0306,9.4418,2.9841,1.9704,3.7002
1.7694,1.0845,1.9512,0.97561,2.9412,-7.055,2.9126,4.7896,2.8479,0.97561,2.9412,-0.98522,6.6351,3.746,7.7093,2.8986,3.9291,8.4848,4.8889,5.9113,-0.12759
-0.12638,8.74,9.7561,0.97561,4.902,-0.2589,6.7961,1.877,7.7023,0.97561,4.902,1.9704,6.6351,5.6508,5.8136,7.7295,8.7601,6.571,4.8889,2.9557,0.82935
-3.9179,16.396,14.634,-0.97561,1.9608,-0.2589,5.8252,-0.06472,-0.06472,-0.97561,1.9608,1.9704,6.6351,7.5556,2.97,11.594,11.659,6.571,1.0794,2.9557,1.7863
-8.6572,14.482,13.659,0.0,0.98039,-4.1424,6.7961,-0.06472,1.877,0.0,0.98039,1.9704,5.6872,6.6032,-3.6651,9.6618,8.7601,6.571,-0.8254,0.0,2.7432
-12.449,10.654,6.8293,-3.9024,-2.9412,-1.2298,6.7961,-2.0065,4.7896,-3.9024,-2.9412,0.0,0.94787,3.746,-10.3,4.8309,1.9968,-1.0845,-6.5397,-4.9261,3.7002
-12.449,2.9984,-2.9268,-8.7805,-3.9216,-2.2006,0.0,-4.9191,-0.06472,-8.7805,-3.9216,-3.9409,-3.7915,-0.06349,-14.092,-2.8986,-5.7327,-10.654,-1.7778,-6.8966,0.82935
-14.344,-7.5279,-14.634,-13.659,-8.8235,-13.851,-7.767,-10.744,-3.9482,-13.659,-8.8235,-10.837,-7.5829,-3.873,-15.039,-8.6957,-10.564,-14.482,3.9365,-7.8818,-2.9984
-10.553,-12.313,-21.462999,-9.7561,-8.8235,-19.676001,-10.68,-11.715,-3.9482,-9.7561,-8.8235,-14.778,-7.5829,-1.9683,-11.248,-7.7295,-10.564,-1.0845,2.9841,-5.9113,-0.12759
-5.8136,-19.011,-23.415001,-6.8293,-8.8235,-15.793,-14.563,-8.8026,-12.686,-6.8293,-8.8235,-14.778,-9.4787,-4.8254,-8.4044,-10.628,-11.53,0.82935,-2.7302,-4.9261,-2.9984
2.7172,-14.226,-12.683,0.0,-1.9608,-2.2006,-7.767,-1.0356,-7.8317,0.0,-1.9608,-5.9113,-4.7393,-2.9206,0.12638,-8.6957,-6.6989,5.614,-12.254,0.0,-1.0845
6.5087,-9.4418,-3.9024,2.9268,1.9608,7.5081,-2.9126,1.877,0.90615,2.9268,1.9608,0.98522,-1.8957,-3.873,3.9179,-7.7295,-2.8341,-1.0845,-4.6349,0.98522,-0.12759
11.248,1.0845,7.8049,9.7561,8.8235,9.4498,5.8252,6.7314,5.7605,9.7561,8.8235,10.837,0.94787,-3.873,10.553,-2.8986,3.9291,-1.0845,2.0317,4.9261,1.7863
15.039,11.611,18.537001,15.61,13.725,15.275,16.504999,10.615,8.6731,15.61,13.725,19.704,4.7393,-1.9683,16.24,4.8309,10.692,-2.0415,7.746,9.8522,2.7432
15.039,16.396,20.488001,13.659,13.725,16.246,19.417,11.586,15.469,13.659,13.725,20.690001,3.7915,-2.9206,14.344,9.6618,12.625,-6.8262,11.556,5.9113,4.6571
9.3523,18.309,15.61,8.7805,9.8039,11.392,17.476,5.7605,19.353001,8.7805,9.8039,15.764,0.0,-4.8254,7.7093,8.6957,7.7939,-2.9984,9.6508,-4.9261,2.7432
-0.12638,14.482,4.878,-1.9512,1.9608,2.6537,10.68,-0.06472,16.440001,-1.9512,1.9608,5.9113,-2.8436,-1.9683,-0.82148,4.8309,1.9968,-9.697,8.6984,-11.823,-1.0845
-3.9179,11.611,0.97561,-5.8537,1.9608,-4.1424,5.8252,-2.0065,11.586,-5.8537,1.9608,0.98522,-3.7915,0.88889,-4.613,1.9324,-0.90177,-6.8262,2.9841,-10.837,-1.0845
-4.8657,5.8692,0.97561,-3.9024,1.9608,-6.0841,1.9417,-0.06472,9.644,-3.9024,1.9608,-1.9704,-6.6351,0.88889,-7.4566,-0.96618,-2.8341,-2.0415,9.6508,-10.837,-1.0845
-5.8136,-2.7432,-0.97561,-0.97561,1.9608,-2.2006,-2.9126,3.8188,9.644,-0.97561,1.9608,-3.9409,-9.4787,-1.0159,-12.196,-3.8647,-3.8003,-1.0845,8.6984,-12.808,-3.9553
-10.553,-8.4848,-3.9024,-4.878,-3.9216,-4.1424,-6.7961,2.8479,8.6731,-4.878,-3.9216,-7.8818,-10.427,-1.9683,-16.934999,-5.7971,-5.7327,6.571,3.9365,-13.793,-4.9123
-13.397,-10.399,-5.8537,-4.878,-6.8627,-8.0259,-7.767,0.90615,-1.0356,-4.878,-6.8627,-8.867,-9.4787,-5.7778,-17.882999,-7.7295,-6.6989,3.7002,-2.7302,-7.8818,-2.0415
-15.292,-10.399,-11.707,-9.7561,-12.745,-12.88,-11.65,-0.06472,-5.89,-9.7561,-12.745,-12.808,-9.4787,-11.492,-16.934999,-11.594,-10.564,-7.7831,-9.3968,-3.9409,-4.9123
-12.449,-3.7002,-11.707,-8.7805,-8.8235,-8.9968,-9.7087,0.90615,-7.8317,-8.7805,-8.8235,-11.823,-3.7915,-8.6349,-11.248,-7.7295,-8.6312,3.7002,-6.5397,3.9409,-3.9553
-8.6572,2.0415,-5.8537,-2.9268,-2.9412,-2.2006,-5.8252,1.877,-5.89,-2.9268,-2.9412,-8.867,1.8957,-2.9206,-4.613,-1.9324,-0.90177,10.399,-1.7778,9.8522,2.7432
-6.7615,-0.82935,-1.9512,0.0,0.98039,-4.1424,-7.767,-2.9773,-2.0065,0.0,0.98039,-6.8966,1.8957,-1.0159,1.0742,0.96618,3.9291,5.614,1.0794,8.867,4.6571
0.82148,-4.6571,0.0,0.0,1.9608,-2.2006,-8.7379,-4.9191,-6.8608,0.0,1.9608,-3.9409,5.6872,2.7937,8.6572,2.8986,8.7601,-0.12759,-2.7302,10.837,-0.12759
11.248,-8.4848,-2.9268,0.97561,-1.9608,-0.2589,-6.7961,-2.9773,-5.89,0.97561,-1.9608,-1.9704,8.5308,3.746,16.24,0.96618,7.7939,8.4848,-6.5397,20.690001,-2.9984
7.4566,-14.226,-11.707,2.9268,-0.98039,1.6828,-6.7961,1.877,2.8479,2.9268,-0.98039,-4.9261,0.0,-3.873,6.7615,-9.6618,-4.7665,10.399,-9.3968,12.808,-6.8262
4.613,-11.356,-6.8293,2.9268,0.98039,6.5372,-5.8252,4.7896,5.7605,2.9268,0.98039,-1.9704,-5.6872,-7.6825,0.12638,-13.527,-11.53,2.7432,-7.4921,-2.9557,-6.8262
5.5608,-4.6571,3.9024,1.9512,1.9608,6.5372,-2.9126,4.7896,8.6731,1.9512,1.9608,0.98522,-2.8436,-4.8254,1.0742,-13.527,-8.6312,-5.8692,1.0794,-5.9113,-2.0415
4.613,-2.7432,1.9512,0.97561,1.9608,0.71197,-1.9417,1.877,10.615,0.97561,1.9608,-0.98522,-1.8957,-1.9683,-0.82148,-13.527,-7.6651,-21.18,2.9841,-7.8818,1.7863
3.6651,-6.571,-7.8049,1.9512,2.9412,-1.2298,-3.8835,0.90615,7.7023,1.9512,2.9412,-4.9261,-1.8957,1.8413,-4.613,-12.56,-9.5974,-11.611,7.746,-9.8522,4.6571
-2.0221,-13.27,-21.462999,-2.9268,-2.9412,-4.1424,-9.7087,-3.9482,7.7023,-2.9268,-2.9412,-11.823,-4.7393,2.7937,-10.3,-9.6618,-13.462,-1.0845,11.556,-8.867,4.6571
-6.7615,-11.356,-23.415001,-7.8049,-6.8627,-7.055,-12.621,-8.8026,7.7023,-7.8049,-6.8627,-16.749001,-10.427,-1.0159,-15.987,-3.8647,-14.428,1.7863,8.6984,-10.837,3.7002
-9.6051,-6.571,-20.488001,-15.61,-14.706,-14.822,-14.563,-11.715,4.7896,-15.61,-14.706,-21.674999,-13.27,-6.7302,-16.934999,-2.8986,-13.462,4.6571,4.8889,-7.8818,-2.0415
-9.6051,-7.5279,-17.561001,-19.511999,-17.646999,-19.676001,-17.476,-14.628,-2.0065,-19.511999,-17.646999,-22.66,-8.5308,-8.6349,-14.092,-8.6957,-13.462,0.82935,2.0317,0.98522,-5.8692
-9.6051,-14.226,-18.537001,-20.488001,-19.608,-17.735001,-22.33,-12.686,-5.89,-20.488001,-19.608,-22.66,-8.5308,-13.397,-13.144,-20.290001,-17.327,1.7863,-1.7778,5.9113,-10.654
-9.6051,-19.011,-19.511999,-16.584999,-18.627001,-16.764,-22.33,-7.8317,-10.744,-16.584999,-18.627001,-20.690001,-11.374,-17.205999,-15.039,-26.087,-21.191999,10.399,-14.159,6.8966,-14.482
-5.8136,-18.054001,-15.61,-10.732,-19.608,-12.88,-22.33,-2.9773,-16.57,-10.732,-19.608,-15.764,-6.6351,-10.54,-11.248,-18.357,-15.395,3.7002,-20.825001,8.867,-12.568
2.7172,-10.399,-3.9024,-4.878,-12.745,-3.1715,-16.504999,-0.06472,-20.452999,-4.878,-12.745,-7.8818,-1.8957,-0.06349,-6.5087,-2.8986,-4.7665,-0.12759,-15.111,7.8818,-3.9553
11.248,1.0845,5.8537,2.9268,-7.8431,11.392,-9.7087,1.877,-20.452999,2.9268,-7.8431,1.9704,3.7915,8.5079,0.12638,11.594,4.8953,11.356,-11.302,7.8818,3.7002
20.726999,13.525,19.511999,11.707,0.98039,24.983999,3.8835,1.877,-9.7735,11.707,0.98039,15.764,13.27,18.983999,11.501,23.188,18.422001,7.5279,0.12698,13.793,12.313
22.622,24.051001,29.268,12.683,7.8431,25.955,17.476,-1.0356,-0.06472,12.683,7.8431,24.631001,15.166,18.032,17.188,26.087,26.150999,-0.12759,4.8889,3.9409,12.313
18.830999,28.836,30.243999,9.7561,10.784,19.159,17.476,-7.8317,10.615,9.7561,10.784,24.631001,12.322,12.317,17.188,22.222,25.184999,-5.8692,11.556,-6.8966,9.4418
15.039,26.922001,26.341,5.8537,12.745,8.479,19.417,-14.628,21.294001,5.8537,12.745,21.674999,7.5829,6.6032,16.24,15.459,19.388,-17.351999,20.127001,-8.867,8.4848
14.092,22.136999,21.462999,2.9268,11.765,6.5372,19.417,-12.686,20.323999,2.9268,11.765,16.749001,8.5308,7.5556,16.24,10.628,15.523,-13.525,16.316999,-4.9261,6.571
10.3,9.697,11.707,2.9268,7.8431,2.6537,11.65,-4.9191,13.528,2.9268,7.8431,7.8818,9.4787,9.4603,13.397,3.8647,8.7601,-0.12759,11.556,1.9704,1.7863
2.7172,-9.4418,-3.9024,0.97561,0.0,-6.0841,-0.97087,2.8479,5.7605,0.97561,0.0,-2.9557,4.7393,7.5556,2.97,-5.7971,-1.868,6.571,1.0794,1.9704,-2.0415
-6.7615,-22.839001,-21.462999,-1.9512,-2.9412,-9.9676,-13.592,6.7314,-2.0065,-1.9512,-2.9412,-13.793,0.94787,6.6032,-9.3523,-12.56,-12.496,7.5279,-11.302,0.0,-1.0845
-14.344,-26.667,-32.195,-5.8537,-7.8431,-15.793,-22.33,6.7314,-10.744,-5.8537,-7.8431,-22.66,0.0,7.5556,-15.987,-12.56,-16.361,11.356,-13.206,-0.98522,0.82935
-15.292,-26.667,-30.243999,-8.7805,-10.784,-16.764,-23.301001,4.7896,-18.511,-8.7805,-10.784,-23.645,1.8957,8.5079,-16.934999,-10.628,-16.361,5.614,-9.3968,0.98522,-1.0845
-7.7093,-24.753,-21.462999,-10.732,-14.706,-10.939,-20.388,3.8188,-13.657,-10.732,-14.706,-16.749001,2.8436,6.6032,-9.3523,-8.6957,-10.564,6.571,-11.302,7.8818,-5.8692
3.6651,-18.054001,-7.8049,-5.8537,-9.8039,-4.1424,-11.65,4.7896,-12.686,-5.8537,-9.8039,-6.8966,5.6872,4.6984,0.12638,-4.8309,-1.868,16.139999,-16.063,12.808,-8.74
9.3523,-9.4418,0.0,-0.97561,-4.902,3.6246,-5.8252,5.7605,-16.57,-0.97561,-4.902,0.0,2.8436,-2.9206,6.7615,-2.8986,1.0306,16.139999,-22.73,11.823,-10.654
7.4566,0.12759,2.9268,4.878,1.9608,3.6246,1.9417,3.8188,-9.7735,4.878,1.9608,4.9261,-3.7915,-12.444,4.8657,-1.9324,1.0306,9.4418,-17.968,6.8966,-8.74
3.6651,10.654,10.732,8.7805,3.9216,1.6828,10.68,2.8479,-2.9773,8.7805,3.9216,9.8522,-6.6351,-12.444,2.97,4.8309,2.963,6.571,-2.7302,0.98522,-5.8692
8.4044,16.396,21.462999,9.7561,7.8431,5.5663,16.504999,6.7314,3.8188,9.7561,7.8431,16.749001,-0.94787,-4.8254,6.7615,10.628,8.7601,2.7432,3.9365,2.9557,-2.9984
11.248,16.396,25.365999,11.707,8.8235,8.479,11.65,8.6731,3.8188,11.707,8.8235,16.749001,4.7393,2.7937,10.553,13.527,13.591,1.7863,6.7937,-4.9261,-1.0845
7.4566,12.568,20.488001,7.8049,2.9412,3.6246,4.8544,4.7896,-0.06472,7.8049,2.9412,9.8522,8.5308,6.6032,10.553,13.527,15.523,-4.9123,6.7937,-13.793,2.7432
1.7694,8.74,10.732,0.97561,-3.9216,0.71197,0.97087,-1.0356,-3.9482,0.97561,-3.9216,2.9557,13.27,10.413,7.7093,11.594,14.557,-15.439,5.8413,-11.823,5.614
-3.9179,5.8692,8.7805,-4.878,-8.8235,-0.2589,-4.8544,-7.8317,-2.0065,-4.878,-8.8235,0.98522,12.322,10.413,2.0221,9.6618,15.523,-15.439,2.9841,-11.823,6.571
-5.8136,2.9984,9.7561,-3.9024,-7.8431,0.71197,-7.767,-9.7735,-2.9773,-3.9024,-7.8431,4.9261,5.6872,6.6032,-2.7172,4.8309,12.625,-19.266001,8.6984,-13.793,8.4848
2.7172,-1.7863,11.707,-0.97561,-6.8627,8.479,-4.8544,-9.7735,-0.06472,-0.97561,-6.8627,8.867,6.6351,8.5079,1.0742,2.8986,10.692,-18.309,12.508,-4.9261,9.4418
11.248,-4.6571,8.7805,-4.878,-5.8824,11.392,-3.8835,-9.7735,0.90615,-4.878,-5.8824,5.9113,11.374,13.27,10.553,2.8986,10.692,-5.8692,10.603,7.8818,8.4848
9.3523,-13.27,-5.8537,-14.634,-19.608,2.6537,-16.504999,-11.715,-9.7735,-14.634,-19.608,-8.867,10.427,13.27,12.449,-1.9324,3.9291,6.571,4.8889,14.778,4.6571
8.4044,-18.054001,-17.561001,-16.584999,-23.528999,-6.0841,-25.243,-6.8608,-14.628,-16.584999,-23.528999,-19.704,9.4787,10.413,13.397,-5.7971,-0.90177,19.011,-11.302,20.690001,1.7863
9.3523,-14.226,-17.561001,-15.61,-25.49,-10.939,-26.214001,-1.0356,-18.511,-15.61,-25.49,-21.674999,7.5829,5.6508,11.501,-4.8309,-4.7665,19.968,-15.111,23.645,-0.12759
12.196,-5.614,-8.7805,-14.634,-22.549,-6.0841,-18.447001,2.8479,-19.482,-14.634,-22.549,-16.749001,9.4787,4.6984,12.449,0.0,-2.8341,22.839001,-8.4444,24.631001,0.82935
11.248,1.0845,1.9512,-14.634,-23.528999,-8.0259,-16.504999,2.8479,-17.540001,-14.634,-23.528999,-11.823,8.5308,3.746,13.397,6.7633,1.9968,15.183,-6.5397,26.601,1.7863
10.3,7.7831,11.707,-13.659,-20.587999,-3.1715,-16.504999,0.90615,-8.8026,-13.659,-20.587999,-6.8966,2.8436,-1.9683,9.6051,13.527,5.8615,13.27,0.12698,13.793,4.6571
6.5087,5.8692,14.634,-12.683,-20.587999,-0.2589,-17.476,-2.9773,-8.8026,-12.683,-20.587999,-8.867,-1.8957,-4.8254,2.0221,17.391001,6.8277,10.399,3.9365,-0.98522,5.614
0.82148,-2.7432,9.7561,-13.659,-20.587999,-7.055,-23.301001,-7.8317,-14.628,-13.659,-20.587999,-13.793,-6.6351,-5.7778,-3.6651,15.459,4.8953,-2.0415,-0.8254,-6.8966,2.7432
2.7172,-3.7002,12.683,-9.7561,-18.627001,0.71197,-22.33,-7.8317,-17.540001,-9.7561,-18.627001,-8.867,-1.8957,-1.0159,0.12638,14.493,7.7939,-21.18,-0.8254,-6.8966,0.82935
8.4044,7.7831,20.488001,-1.9512,-9.8039,11.392,-10.68,-4.9191,-15.599,-1.9512,-9.8039,1.9704,5.6872,5.6508,9.6051,15.459,16.49,-10.654,1.0794,-2.9557,-1.0845
8.4044,12.568,21.462999,-0.97561,-6.8627,8.479,-5.8252,-6.8608,-8.8026,-0.97561,-6.8627,5.9113,8.5308,7.5556,13.397,12.56,18.422001,-2.0415,-9.3968,-1.9704,-0.12759
4.613,9.697,18.537001,-1.9512,-6.8627,1.6828,-7.767,-10.744,-5.89,-1.9512,-6.8627,2.9557,12.322,10.413,12.449,9.6618,17.455999,-12.568,-9.3968,0.98522,4.6571
2.7172,8.74,14.634,2.9268,-2.9412,0.71197,-4.8544,-8.8026,-2.9773,2.9268,-2.9412,2.9557,17.062,16.127001,11.501,8.6957,15.523,-8.74,0.12698,5.9113,10.399
-3.9179,0.12759,0.97561,1.9512,0.0,-5.1133,-7.767,-8.8026,-2.0065,1.9512,0.0,-0.98522,15.166,16.127001,3.9179,0.96618,6.8277,-8.74,-0.8254,6.8966,9.4418
-7.7093,-7.5279,-10.732,0.0,1.9608,-5.1133,-7.767,-8.8026,-0.06472,0.0,1.9608,-1.9704,14.218,14.222,0.12638,-6.7633,-0.90177,-8.74,-1.7778,7.8818,8.4848
-3.9179,-6.571,-9.7561,-0.97561,0.0,-3.1715,-2.9126,-7.8317,3.8188,-0.97561,0.0,-0.98522,16.114,15.175,4.8657,-5.7971,0.06441,-2.0415,0.12698,8.867,8.4848
1.7694,-1.7863,-2.9268,-2.9268,0.0,-6.0841,0.0,-7.8317,-1.0356,-2.9268,0.0,-0.98522,17.062,15.175,9.6051,-3.8647,1.9968,0.82935,-2.7302,13.793,4.6571
6.5087,-3.7002,2.9268,-1.9512,-1.9608,1.6828,-0.97087,-0.06472,-2.9773,-1.9512,-1.9608,0.98522,13.27,8.5079,10.553,-5.7971,0.06441,11.356,-4.6349,15.764,-5.8692
12.196,-7.5279,6.8293,4.878,0.98039,9.4498,-0.97087,8.6731,-2.9773,4.878,0.98039,4.9261,6.6351,0.88889,9.6051,-6.7633,-0.90177,19.011,-4.6349,12.808,-14.482
15.039,-5.614,7.8049,8.7805,1.9608,13.333,1.9417,12.557,-2.9773,8.7805,1.9608,7.8818,0.0,-5.7778,9.6051,-4.8309,0.06441,23.796,-3.6825,10.837,-14.482
14.092,1.0845,8.7805,9.7561,4.902,13.333,5.8252,14.498,0.90615,9.7561,4.902,10.837,-4.7393,-9.5873,7.7093,0.0,1.9968,29.537001,0.12698,10.837,-11.611
8.4044,4.9123,6.8293,3.9024,0.0,5.5663,2.9126,8.6731,2.8479,3.9024,0.0,7.8818,-7.5829,-10.54,3.9179,2.8986,1.9968,14.226,-2.7302,2.9557,-7.7831
-2.0221,2.0415,1.9512,-3.9024,-1.9608,2.6537,-1.9417,0.90615,-1.0356,-3.9024,-1.9608,2.9557,-8.5308,-7.6825,-2.7172,2.8986,0.06441,2.7432,-6.5397,-1.9704,-0.12759
-13.397,-3.7002,-5.8537,-3.9024,-3.9216,-1.2298,-6.7961,-3.9482,-9.7735,-3.9024,-3.9216,-2.9557,-7.5829,-4.8254,-8.4044,-0.96618,-1.868,-2.9984,-2.7302,-7.8818,3.7002
-18.136,-6.571,-9.7561,0.97561,0.98039,-7.055,-5.8252,-3.9482,-5.89,0.97561,0.98039,-3.9409,-4.7393,-1.9683,-9.3523,-3.8647,-2.8341,-11.611,1.0794,-9.8522,5.614
-24.771,-14.226,-18.537001,4.878,2.9412,-11.909,-6.7961,-3.9482,-1.0356,4.878,2.9412,-8.867,-6.6351,-4.8254,-15.039,-12.56,-11.53,-19.266001,3.9365,-13.793,1.7863
-26.667,-17.097,-25.365999,7.8049,6.8627,-10.939,-3.8835,1.877,-2.0065,7.8049,6.8627,-7.8818,-14.218,-11.492,-24.518,-21.256001,-23.124001,-18.309,2.0317,-17.733999,-4.9123
-21.927,-15.183,-23.415001,5.8537,9.8039,-5.1133,1.9417,5.7605,-1.0356,5.8537,9.8039,-2.9557,-18.957001,-14.349,-29.257999,-25.121,-28.921,-8.74,-0.8254,-18.719,-11.611
-16.24,-7.5279,-16.584999,0.97561,8.8235,-5.1133,2.9126,6.7314,6.7314,0.97561,8.8235,-0.98522,-19.905001,-16.254,-27.362,-18.357,-26.023001,-4.9123,-0.8254,-17.733999,-12.568
-6.7615,5.8692,-4.878,-0.97561,8.8235,-1.2298,6.7961,8.6731,8.6731,-0.97561,8.8235,0.98522,-16.114,-13.397,-12.196,-1.9324,-12.496,-4.9123,-0.8254,-6.8966,-7.7831
3.6651,15.439,4.878,1.9512,7.8431,2.6537,11.65,11.586,9.644,1.9512,7.8431,3.9409,-7.5829,-9.5873,3.9179,10.628,1.9968,6.571,-1.7778,-4.9261,-6.8262
10.3,17.351999,12.683,6.8293,11.765,12.362,16.504999,17.410999,12.557,6.8293,11.765,11.823,-2.8436,-8.6349,13.397,15.459,10.692,17.097,2.9841,-3.9409,-5.8692
12.196,17.351999,15.61,8.7805,12.745,15.275,22.33,16.440001,10.615,8.7805,12.745,18.719,2.8436,-6.7302,18.136,16.424999,14.557,18.054001,4.8889,3.9409,-5.8692
15.987,18.309,19.511999,11.707,15.686,19.159,25.243,13.528,8.6731,11.707,15.686,20.690001,8.5308,-0.06349,21.927,15.459,19.388,12.313,1.0794,9.8522,-2.0415
14.092,10.654,16.584999,8.7805,9.8039,14.304,18.447001,7.7023,1.877,8.7805,9.8039,13.793,11.374,2.7937,20.979,8.6957,17.455999,0.82935,-8.4444,13.793,-2.9984
4.613,-5.614,4.878,0.97561,1.9608,-0.2589,5.8252,-1.0356,-5.89,0.97561,1.9608,2.9557,8.5308,0.88889,13.397,-2.8986,8.7601,-3.9553,-9.3968,8.867,-4.9123
