C3,C4,Cz,F1,F2,F3,F4,F7,F8,Fp1,Fp2,Fz,O1,O2,P3,P4,Pz,T3,T4,T5,T6
-1.0111,-3.746,0.97561,-14.706,-15.534,-3.1068,-10.628,-6.8277,-19.482,-14.706,-15.534,-5.9406,-2.8436,-2.9346,-2.7937,-4.8309,-7.6923,1.7863,-5.624,0.0,-0.12821
0.88468,-0.88889,1.9512,-17.646999,-7.767,1.7476,-8.6957,-4.8953,-14.628,-17.646999,-7.767,-2.9703,1.8957,-0.0638,1.0159,-0.96618,-0.96154,3.7002,-4.6761,1.9512,1.7949
4.6761,3.873,6.8293,6.8627,-8.7379,-4.0777,-0.96618,1.868,-10.744,6.8627,-8.7379,1.9802,8.5308,0.89314,6.7302,1.9324,4.8077,-0.12759,-6.5719,5.8537,-1.0897
6.5719,6.7302,12.683,8.8235,-12.621,-1.165,5.7971,4.7665,-10.744,8.8235,-12.621,6.9307,-2.8436,-1.9777,5.7778,0.96618,3.8462,-2.0415,-6.5719,-0.97561,-6.859
9.4155,6.7302,17.561001,0.98039,-13.592,5.6311,2.8986,2.8341,-10.744,0.98039,-13.592,8.9109,-5.6872,-2.9346,5.7778,0.96618,1.9231,-1.0845,-4.6761,0.97561,-5.8974
6.5719,5.7778,12.683,-11.765,-12.621,4.6602,-3.8647,-2.963,-12.686,-11.765,-12.621,2.9703,0.94787,-1.9777,4.8254,3.8647,0.96154,3.7002,-2.7804,5.8537,-3.0128
1.8325,5.7778,4.878,-12.745,-11.65,-2.1359,-4.8309,-5.8615,-11.715,-12.745,-11.65,-3.9604,3.7915,2.807,1.9683,6.7633,0.0,8.4848,-2.7804,6.8293,3.7179
4.6761,1.9683,0.97561,-3.9216,-7.767,-4.0777,-6.7633,-2.963,-11.715,-3.9216,-7.767,-5.9406,5.6872,8.5486,5.7778,7.7295,3.8462,4.6571,-0.88468,8.7805,7.5641
6.5719,-5.6508,0.97561,-4.902,-9.7087,-0.19417,-10.628,-4.8953,-12.686,-4.902,-9.7087,-6.9307,6.6351,7.5917,10.54,3.8647,6.7308,-0.12759,-4.6761,9.7561,6.6026
-0.06319,-5.6508,2.9268,-0.98039,-8.7379,-6.0194,-6.7633,-3.9291,-10.744,-0.98039,-8.7379,-3.9604,9.4787,8.5486,8.6349,4.8309,10.577,-6.8262,-2.7804,4.878,6.6026
-3.8547,5.7778,7.8049,0.0,-1.9417,-6.9903,5.7971,-1.9968,-1.0356,0.0,-1.9417,2.9703,5.6872,10.463,2.9206,14.493,13.462,-9.697,7.6461,-4.878,10.449
-1.9589,14.349,7.8049,0.0,-1.9417,2.7184,13.527,-1.9968,4.7896,0.0,-1.9417,9.901,-2.8436,2.807,-2.7937,15.459,7.6923,-2.9984,7.6461,-8.7805,8.5256
1.8325,9.5873,3.9024,-4.902,1.9417,11.456,11.594,2.8341,2.8479,-4.902,1.9417,8.9109,-8.5308,-6.7624,-5.6508,2.8986,-3.8462,3.7002,0.06319,-4.878,-1.0897
2.7804,-2.7937,-0.97561,3.9216,0.97087,2.7184,0.0,4.7665,-2.9773,3.9216,0.97087,0.9901,-7.5829,-6.7624,-4.6984,-7.7295,-7.6923,1.7863,-5.624,-3.9024,-4.9359
1.8325,-6.6032,0.0,6.8627,0.97087,-3.1068,-4.8309,2.8341,-4.9191,6.8627,0.97087,-3.9604,-5.6872,-4.8485,-1.8413,-9.6618,-6.7308,-1.0845,-3.7283,-6.8293,-4.9359
1.8325,1.0159,3.9024,10.784,4.8544,-4.0777,2.8986,2.8341,2.8479,10.784,4.8544,0.9901,-6.6351,-2.9346,-1.8413,-0.96618,-2.8846,-2.9984,2.9068,-8.7805,-2.0513
2.7804,7.6825,1.9512,2.9412,3.8835,1.7476,9.6618,0.90177,7.7023,2.9412,3.8835,5.9406,-6.6351,-1.9777,-1.8413,4.8309,-1.9231,-2.0415,7.6461,-8.7805,-0.12821
0.88468,2.9206,-4.878,-9.8039,-4.8544,7.5728,2.8986,-0.06441,2.8479,-9.8039,-4.8544,0.9901,-5.6872,-5.8054,-3.746,0.96618,-7.6923,-0.12759,1.9589,-8.7805,-7.8205
2.7804,-6.6032,-7.8049,-1.9608,-1.9417,2.7184,-5.7971,2.8341,-6.8608,-1.9608,-1.9417,-4.9505,-2.8436,-8.6762,-2.7937,-6.7633,-11.538,4.6571,-5.624,-2.9268,-8.7821
8.4676,-8.5079,0.0,4.902,-1.9417,2.7184,-5.7971,6.6989,-9.7735,4.902,-1.9417,-2.9703,3.7915,-1.0207,5.7778,-1.9324,-0.96154,1.7863,-3.7283,7.8049,-2.0513
8.4676,-1.8413,9.7561,8.8235,-2.9126,3.6893,-3.8647,6.6989,-7.8317,8.8235,-2.9126,0.0,0.94787,1.8501,8.6349,5.7971,7.6923,3.7002,-2.7804,5.8537,0.83333
2.7804,6.7302,15.61,6.8627,1.9417,2.7184,2.8986,4.7665,-1.0356,6.8627,1.9417,5.9406,-1.8957,0.89314,7.6825,11.594,11.538,0.82935,-2.7804,2.9268,1.7949
3.7283,16.254,16.584999,11.765,9.7087,7.5728,13.527,4.7665,8.6731,11.765,9.7087,11.881,5.6872,10.463,10.54,19.323999,18.268999,-2.0415,8.594,5.8537,12.372
3.7283,12.444,5.8537,0.98039,5.8252,13.398,11.594,-0.06441,9.644,0.98039,5.8252,10.891,7.5829,10.463,6.7302,13.527,14.423,-2.9984,13.333,6.8293,13.333
5.624,4.8254,-2.9268,0.98039,6.7961,12.427,8.6957,3.8003,8.6731,0.98039,6.7961,7.9208,6.6351,7.5917,2.9206,1.9324,5.7692,3.7002,13.333,3.9024,5.641
7.5197,3.873,1.9512,11.765,11.65,8.5437,10.628,5.7327,9.644,11.765,11.65,8.9109,3.7915,3.764,1.0159,-5.7971,0.0,-1.0845,5.7504,-5.8537,-2.0513
6.5719,2.9206,8.7805,11.765,9.7087,3.6893,7.7295,6.6989,5.7605,11.765,9.7087,7.9208,-0.94787,-0.0638,1.9683,-8.6957,-0.96154,1.7863,-2.7804,-6.8293,-7.8205
7.5197,1.0159,10.732,0.98039,7.767,-1.165,2.8986,6.6989,1.877,0.98039,7.767,2.9703,5.6872,4.7209,8.6349,-1.9324,4.8077,3.7002,-1.8325,1.9512,-3.0128
5.624,-0.88889,4.878,-21.569,0.0,1.7476,0.0,-0.06441,0.90615,-21.569,0.0,-1.9802,13.27,10.463,12.444,4.8309,9.6154,-1.0845,-0.88468,8.7805,5.641
-0.06319,-3.746,-4.878,-17.646999,0.97087,1.7476,0.96618,-3.9291,6.7314,-17.646999,0.97087,-4.9505,5.6872,8.5486,5.7778,6.7633,5.7692,0.82935,5.7504,4.878,9.4872
-6.6983,-4.6984,-10.732,2.9412,10.68,-3.1068,0.96618,-2.963,11.586,2.9412,10.68,-4.9505,-4.7393,4.7209,-5.6508,2.8986,-1.9231,2.7432,8.594,-2.9268,8.5256
-10.49,-5.6508,-12.683,2.9412,6.7961,-7.9612,-1.9324,-0.06441,7.7023,2.9412,6.7961,-5.9406,-6.6351,-1.9777,-13.27,-2.8986,-8.6538,0.82935,1.9589,-2.9268,2.7564
-6.6983,-5.6508,-10.732,1.9608,2.9126,-4.0777,-5.7971,3.8003,2.8479,1.9608,2.9126,-4.9505,-2.8436,-2.9346,-8.5079,-3.8647,-6.7308,2.7432,0.06319,-0.97561,-1.0897
-1.0111,-1.8413,-4.878,-1.9608,5.8252,1.7476,0.96618,2.8341,2.8479,-1.9608,5.8252,-0.9901,0.0,0.89314,-1.8413,0.0,-0.96154,2.7432,3.8547,0.97561,-1.0897
-0.06319,4.8254,-1.9512,-7.8431,7.767,1.7476,7.7295,2.8341,6.7314,-7.8431,7.767,2.9703,5.6872,6.6348,2.9206,5.7971,3.8462,-1.0845,7.6461,4.878,5.641
1.8325,4.8254,0.0,-2.9412,10.68,3.6893,9.6618,4.7665,7.7023,-2.9412,10.68,5.9406,6.6351,9.5056,5.7778,4.8309,5.7692,2.7432,4.8025,9.7561,8.5256
3.7283,-0.88889,1.9512,2.9412,4.8544,7.5728,4.8309,6.6989,4.7896,2.9412,4.8544,5.9406,0.94787,3.764,2.9206,-3.8647,1.9231,7.5279,1.0111,8.7805,1.7949
7.5197,-5.6508,1.9512,1.9608,8.7379,12.427,2.8986,4.7665,4.7896,1.9608,8.7379,6.9307,-1.8957,-5.8054,-0.88889,-12.56,-6.7308,1.7863,-5.624,6.8293,-6.859
12.259,0.06349,5.8537,10.784,13.592,19.223,9.6618,11.53,10.615,10.784,13.592,12.871,-4.7393,-9.6332,-0.88889,-12.56,-10.577,1.7863,-1.8325,0.97561,-10.705
12.259,5.7778,8.7805,14.706,18.447001,12.427,12.56,13.462,15.469,14.706,18.447001,13.861,-8.5308,-9.6332,-0.88889,-8.6957,-11.538,9.4418,-0.88468,-5.8537,-10.705
6.5719,7.6825,9.7561,14.706,15.534,1.7476,11.594,10.564,15.469,14.706,15.534,11.881,-5.6872,-6.7624,-0.88889,-5.7971,-7.6923,7.5279,-0.88468,-5.8537,-7.8205
-1.0111,8.6349,10.732,10.784,4.8544,-2.1359,8.6957,5.7327,8.6731,10.784,4.8544,8.9109,-1.8957,-1.9777,-1.8413,1.9324,-0.96154,-0.12759,6.6983,-4.878,-2.0513
-3.8547,9.5873,12.683,-8.8235,0.97087,3.6893,3.8647,-1.0306,5.7605,-8.8235,0.97087,5.9406,0.94787,4.7209,-1.8413,11.594,7.6923,-4.9123,16.177,-5.8537,6.6026
-0.06319,10.54,13.659,-1.9608,1.9417,5.6311,1.9324,-1.9968,6.7314,-1.9608,1.9417,5.9406,3.7915,11.419,1.0159,16.424999,12.5,-7.7831,20.916,-1.9512,17.179001
-0.06319,5.7778,5.8537,11.765,6.7961,-1.165,0.0,0.90177,6.7314,11.765,6.7961,1.9802,3.7915,15.247,1.9683,15.459,12.5,-2.0415,15.229,-0.97561,19.103001
-0.06319,2.9206,-2.9268,9.8039,5.8252,-1.165,1.9324,2.8341,4.7896,9.8039,5.8252,0.9901,2.8436,15.247,1.9683,12.56,10.577,1.7863,10.49,0.0,17.179001
3.7283,1.9683,-2.9268,4.902,3.8835,3.6893,1.9324,4.7665,-0.06472,4.902,3.8835,2.9703,0.0,6.6348,2.9206,5.7971,6.7308,-2.9984,1.0111,3.9024,11.41
11.311,1.0159,4.878,4.902,-0.97087,11.456,0.96618,4.7665,-3.9482,4.902,-0.97087,4.9505,2.8436,3.764,9.5873,2.8986,6.7308,-2.0415,-2.7804,1.9512,3.7179
16.051001,-4.6984,9.7561,1.9608,-1.9417,10.485,-2.8986,5.7327,-6.8608,1.9608,-1.9417,2.9703,7.5829,3.764,15.302,0.0,8.6538,6.571,-1.8325,6.8293,0.83333
8.4676,-11.365,1.9512,-2.9412,-0.97087,-1.165,-8.6957,2.8341,-4.9191,-2.9412,-0.97087,-3.9604,10.427,0.89314,11.492,-8.6957,1.9231,7.5279,-2.7804,11.707,-4.9359
-1.0111,-11.365,-6.8293,-3.9216,4.8544,1.7476,-4.8309,-1.9968,1.877,-3.9216,4.8544,-2.9703,0.94787,-4.8485,1.0159,-15.459,-8.6538,-0.12759,-4.6761,4.878,-11.667
-8.594,-8.5079,-12.683,11.765,6.7961,-0.19417,-0.96618,-0.06441,2.8479,11.765,6.7961,-0.9901,-6.6351,-11.547,-10.413,-20.290001,-19.231001,-4.9123,-11.311,-0.97561,-20.320999
-10.49,-4.6984,-10.732,14.706,2.9126,-7.9612,0.0,2.8341,0.90615,14.706,2.9126,-0.9901,-6.6351,-11.547,-14.222,-17.391001,-19.231001,-2.9984,-8.4676,-7.8049,-18.396999
-10.49,-2.7937,-6.8293,2.9412,0.0,-5.0485,-3.8647,-2.963,-2.0065,2.9412,0.0,-3.9604,-5.6872,-4.8485,-11.365,-7.7295,-10.577,-7.7831,-4.6761,-8.7805,-7.8205
-12.385,-4.6984,-10.732,-16.667,0.0,-3.1068,-4.8309,-6.8277,-1.0356,-16.667,0.0,-6.9307,-1.8957,0.89314,-11.365,-2.8986,-6.7308,-7.7831,-2.7804,-6.8293,-3.9744
-16.177,-9.4603,-17.561001,0.0,3.8835,-12.816,-8.6957,-2.963,-1.0356,0.0,3.8835,-10.891,-1.8957,-0.0638,-16.127001,-6.7633,-10.577,-3.9553,-7.5197,-6.8293,-3.9744
-17.125,-10.413,-18.537001,11.765,-1.9417,-16.698999,-11.594,-2.963,-3.9482,11.765,-1.9417,-12.871,-5.6872,0.89314,-23.746,-9.6618,-16.346001,-8.74,0.06319,-16.584999,-1.0897
-11.438,-7.5556,-13.659,3.9216,-10.68,-11.845,-10.628,-4.8953,-7.8317,3.9216,-10.68,-9.901,-4.7393,3.764,-21.841,-9.6618,-16.346001,-5.8692,4.8025,-21.462999,1.7949
-7.6461,-2.7937,-8.7805,-6.8627,-15.534,-6.0194,-7.7295,-5.8615,-5.89,-6.8627,-15.534,-7.9208,1.8957,7.5917,-14.222,-4.8309,-9.6154,-1.0845,2.9068,-11.707,5.641
-6.6983,-1.8413,-7.8049,-18.627001,-7.767,-3.1068,-7.7295,-7.7939,-1.0356,-18.627001,-7.767,-8.9109,5.6872,13.333,-8.5079,0.96618,-0.96154,-6.8262,2.9068,-5.8537,11.41
-7.6461,-6.6032,-10.732,-7.8431,-4.8544,-10.874,-11.594,-4.8953,-3.9482,-7.8431,-4.8544,-10.891,1.8957,10.463,-4.6984,-1.9324,0.96154,-9.697,-2.7804,2.9268,10.449
-8.594,-11.365,-11.707,6.8627,-6.7961,-13.786,-14.493,-0.06441,-7.8317,6.8627,-6.7961,-10.891,2.8436,9.5056,-4.6984,-3.8647,0.0,-2.9984,-2.7804,1.9512,6.6026
-1.9589,-5.6508,-2.9268,5.8824,-6.7961,-4.0777,-7.7295,1.868,-2.9773,5.8824,-6.7961,-4.9505,5.6872,11.419,0.06349,0.96618,2.8846,5.614,7.6461,-0.97561,6.6026
5.624,-0.88889,5.8537,-4.902,-8.7379,2.7184,-0.96618,-0.06441,-1.0356,-4.902,-8.7379,-0.9901,5.6872,7.5917,6.7302,3.8647,5.7692,6.571,6.6983,1.9512,3.7179
9.4155,1.0159,11.707,-16.667,-7.767,7.5728,-1.9324,-2.963,-2.0065,-16.667,-7.767,0.9901,2.8436,8.5486,9.5873,6.7633,8.6538,5.614,0.06319,2.9268,5.641
7.5197,1.0159,13.659,-10.784,-2.9126,4.6602,-6.7633,-2.963,-6.8608,-10.784,-2.9126,0.0,9.4787,13.333,9.5873,9.6618,11.538,0.82935,-2.7804,9.7561,8.5256
-1.9589,-2.7937,2.9268,0.98039,-5.8252,-8.932,-9.6618,-2.963,-8.8026,0.98039,-5.8252,-6.9307,11.374,14.29,8.6349,9.6618,12.5,-1.0845,-4.6761,11.707,13.333
-7.6461,-8.5079,-7.8049,-1.9608,-7.767,-14.757,-9.6618,-3.9291,-7.8317,-1.9608,-7.767,-12.871,7.5829,12.376,6.7302,4.8309,10.577,-3.9553,-4.6761,6.8293,10.449
-5.7504,-10.413,-9.7561,-2.9412,-7.767,-6.0194,-7.7295,-2.963,-5.89,-2.9412,-7.767,-10.891,2.8436,2.807,2.9206,-1.9324,5.7692,-3.9553,-6.5719,7.8049,1.7949
-2.9068,-4.6984,-3.9024,-0.98039,-4.8544,0.7767,-2.8986,-0.06441,-1.0356,-0.98039,-4.8544,-4.9505,0.94787,-2.9346,1.0159,0.0,1.9231,8.4848,-4.6761,8.7805,-1.0897
-2.9068,-0.88889,0.97561,0.0,-2.9126,-3.1068,-2.8986,-0.06441,-0.06472,0.0,-2.9126,-4.9505,0.0,-0.0638,0.06349,3.8647,0.0,12.313,-0.88468,8.7805,5.641
-7.6461,0.06349,0.0,0.98039,0.97087,-10.874,-3.8647,0.90177,1.877,0.98039,0.97087,-7.9208,0.0,-1.0207,-3.746,3.8647,-2.8846,5.614,10.49,3.9024,7.5641
-8.594,1.9683,-1.9512,0.0,3.8835,-6.0194,1.9324,-0.06441,3.8188,0.0,3.8835,-2.9703,-7.5829,-2.9346,-7.5556,0.0,-5.7692,4.6571,13.333,-0.97561,2.7564
-1.0111,6.7302,1.9512,8.8235,3.8835,4.6602,7.7295,5.7327,5.7605,8.8235,3.8835,6.9307,-11.374,-4.8485,-5.6508,0.0,-4.8077,6.571,6.6983,0.97561,-0.12821
7.5197,9.5873,4.878,15.686,5.8252,10.485,7.7295,11.53,5.7605,15.686,5.8252,13.861,-7.5829,-7.7193,1.0159,5.7971,-0.96154,6.571,3.8547,3.9024,-1.0897
9.4155,8.6349,4.878,13.725,2.9126,14.369,6.7633,6.6989,6.7314,13.725,2.9126,12.871,-6.6351,-8.6762,5.7778,8.6957,0.96154,6.571,2.9068,8.7805,-2.0513
7.5197,6.7302,1.9512,3.9216,2.9126,13.398,10.628,3.8003,8.6731,3.9216,2.9126,9.901,-7.5829,-6.7624,4.8254,6.7633,0.0,4.6571,-1.8325,-2.9268,-2.0513
6.5719,8.6349,6.8293,1.9608,8.7379,7.5728,13.527,4.7665,10.615,1.9608,8.7379,9.901,-3.7915,-6.7624,5.7778,5.7971,0.96154,3.7002,6.6983,-8.7805,-0.12821
5.624,11.492,9.7561,4.902,13.592,3.6893,11.594,3.8003,9.644,4.902,13.592,10.891,-4.7393,-4.8485,4.8254,7.7295,1.9231,0.82935,8.594,-6.8293,3.7179
5.624,14.349,11.707,5.8824,13.592,3.6893,7.7295,0.90177,8.6731,5.8824,13.592,7.9208,0.0,5.6778,3.873,13.527,7.6923,-4.9123,4.8025,-7.8049,10.449
4.6761,6.7302,7.8049,0.98039,5.8252,1.7476,0.96618,-2.963,4.7896,0.98039,5.8252,0.9901,3.7915,7.5917,4.8254,9.6618,8.6538,-9.697,6.6983,-0.97561,8.5256
1.8325,-4.6984,0.97561,-2.9412,-1.9417,1.7476,-5.7971,-1.0306,-1.0356,-2.9412,-1.9417,-5.9406,0.0,-2.9346,1.9683,-3.8647,-0.96154,-1.0845,-3.7283,1.9512,-4.9359
-0.06319,-10.413,-2.9268,-4.902,-6.7961,-0.19417,-5.7971,0.90177,-4.9191,-4.902,-6.7961,-4.9505,-1.8957,-10.59,-1.8413,-14.493,-6.7308,8.4848,-12.259,4.878,-13.59
-1.0111,-14.222,-3.9024,3.9216,-5.8252,-4.0777,-5.7971,2.8341,-4.9191,3.9216,-5.8252,-4.9505,-2.8436,-12.504,-0.88889,-17.391001,-7.6923,4.6571,-16.997999,5.8537,-15.513
1.8325,-13.27,-1.9512,6.8627,0.0,-6.0194,-3.8647,3.8003,-4.9191,6.8627,0.0,-4.9505,0.94787,-10.59,2.9206,-14.493,-4.8077,5.614,-21.738001,8.7805,-13.59
2.7804,-6.6032,0.97561,5.8824,0.0,-4.0777,-1.9324,-1.0306,-4.9191,5.8824,0.0,-2.9703,0.94787,-4.8485,3.873,-7.7295,-1.9231,4.6571,-4.6761,7.8049,-8.7821
2.7804,-2.7937,0.97561,-5.8824,0.0,7.5728,-3.8647,-1.0306,-3.9482,-5.8824,0.0,-0.9901,-0.94787,-6.7624,1.9683,-3.8647,-1.9231,4.6571,1.0111,4.878,-5.8974
3.7283,-2.7937,0.97561,-1.9608,-2.9126,4.6602,-2.8986,2.8341,-2.9773,-1.9608,-2.9126,0.9901,-1.8957,-9.6332,1.9683,-3.8647,-2.8846,10.399,-8.4676,7.8049,-8.7821
8.4676,1.0159,7.8049,6.8627,-9.7087,1.7476,2.8986,0.90177,-1.0356,6.8627,-9.7087,1.9802,0.94787,-2.9346,9.5873,1.9324,3.8462,9.4418,-2.7804,11.707,-6.859
14.155,4.8254,16.584999,3.9216,0.0,-0.19417,0.0,-0.06441,-0.06472,3.9216,0.0,0.9901,9.4787,5.6778,20.063,8.6957,13.462,12.313,-0.88468,22.438999,-2.0513
11.311,4.8254,15.61,-1.9608,8.7379,2.7184,-1.9324,-0.06441,-0.06472,-1.9608,8.7379,-0.9901,8.5308,4.7209,19.111,8.6957,15.385,5.614,-6.5719,15.61,0.83333
6.5719,3.873,7.8049,-3.9216,1.9417,1.7476,0.96618,-1.0306,-1.0356,-3.9216,1.9417,-0.9901,7.5829,3.764,13.397,7.7295,13.462,1.7863,-0.88468,2.9268,3.7179
2.7804,3.873,2.9268,-2.9412,-0.97087,-5.0485,1.9324,0.90177,-0.06472,-2.9412,-0.97087,0.9901,6.6351,-0.0638,6.7302,4.8309,8.6538,1.7863,1.0111,1.9512,1.7949
7.5197,9.5873,9.7561,10.784,3.8835,3.6893,8.6957,2.8341,5.7605,10.784,3.8835,11.881,0.94787,1.8501,4.8254,8.6957,7.6923,-2.0415,2.9068,1.9512,4.6795
13.207,14.349,18.537001,14.706,6.7961,14.369,12.56,5.7327,7.7023,14.706,6.7961,17.822001,-1.8957,3.764,5.7778,12.56,8.6538,-0.12759,7.6461,-2.9268,6.6026
8.4676,11.492,15.61,7.8431,12.621,8.5437,10.628,3.8003,7.7023,7.8431,12.621,12.871,-0.94787,-0.0638,2.9206,8.6957,3.8462,-1.0845,9.5419,-2.9268,7.5641
-1.9589,5.7778,3.9024,7.8431,9.7087,-3.1068,6.7633,-1.0306,7.7023,7.8431,9.7087,2.9703,2.8436,1.8501,-1.8413,4.8309,0.96154,-2.9984,9.5419,-0.97561,7.5641
-7.6461,-0.88889,-5.8537,0.0,-0.97087,-6.0194,0.0,-4.8953,0.90615,0.0,-0.97087,-3.9604,5.6872,2.807,-5.6508,0.0,-0.96154,-3.9553,3.8547,-0.97561,4.6795
-4.8025,0.06349,-3.9024,-6.8627,-2.9126,1.7476,0.0,-6.8277,-1.0356,-6.8627,-2.9126,-0.9901,0.0,4.7209,-4.6984,0.96618,0.0,-7.7831,-0.88468,-2.9268,3.7179
-0.06319,4.8254,2.9268,-11.765,-4.8544,5.6311,2.8986,-6.8277,-0.06472,-11.765,-4.8544,2.9703,-4.7393,1.8501,0.06349,6.7633,3.8462,-3.9553,-3.7283,-0.97561,5.641
-1.9589,6.7302,4.878,-5.8824,-6.7961,1.7476,0.96618,-5.8615,-0.06472,-5.8824,-6.7961,1.9802,1.8957,1.8501,2.9206,9.6618,8.6538,-6.8262,-5.624,5.8537,5.641
-1.9589,5.7778,2.9268,5.8824,1.9417,-5.0485,1.9324,-1.9968,-0.06472,5.8824,1.9417,0.0,7.5829,5.6778,6.7302,9.6618,10.577,1.7863,5.7504,11.707,7.5641
-1.0111,1.9683,-2.9268,0.98039,2.9126,-3.1068,0.0,-1.9968,-0.06472,0.98039,2.9126,-1.9802,0.94787,0.89314,5.7778,2.8986,6.7308,6.571,7.6461,5.8537,3.7179
4.6761,2.9206,-0.97561,0.98039,3.8835,1.7476,2.8986,1.868,2.8479,0.98039,3.8835,1.9802,3.7915,-0.0638,6.7302,1.9324,6.7308,3.7002,1.9589,5.8537,0.83333
8.4676,6.7302,7.8049,0.98039,4.8544,2.7184,6.7633,3.8003,2.8479,0.98039,4.8544,6.9307,6.6351,3.764,7.6825,5.7971,9.6154,6.571,1.9589,4.878,0.83333
5.624,7.6825,11.707,-5.8824,2.9126,5.6311,9.6618,0.90177,2.8479,-5.8824,2.9126,10.891,7.5829,5.6778,3.873,4.8309,7.6923,1.7863,1.0111,1.9512,1.7949
-2.9068,5.7778,6.8293,2.9412,4.8544,3.6893,8.6957,-1.0306,3.8188,2.9412,4.8544,7.9208,0.94787,4.7209,-2.7937,2.8986,3.8462,-8.74,2.9068,0.97561,3.7179
-7.6461,1.9683,-1.9512,8.8235,0.97087,-5.0485,1.9324,-2.963,-0.06472,8.8235,0.97087,0.0,-6.6351,-1.9777,-7.5556,-0.96618,-0.96154,-8.74,-7.5197,-4.878,-2.0513
2.7804,7.6825,3.9024,2.9412,0.0,3.6893,8.6957,-0.06441,3.8188,2.9412,0.0,5.9406,-8.5308,-3.8915,-1.8413,4.8309,0.96154,2.7432,2.9068,-4.878,-2.0513
5.624,11.492,9.7561,4.902,6.7961,4.6602,8.6957,2.8341,7.7023,4.902,6.7961,8.9109,-3.7915,-1.9777,1.9683,6.7633,2.8846,2.7432,13.333,-8.7805,-0.12821
1.8325,5.7778,7.8049,-11.765,10.68,0.7767,1.9324,-2.963,6.7314,-11.765,10.68,3.9604,0.0,-1.9777,0.06349,3.8647,0.96154,-2.0415,4.8025,-10.732,-1.0897
-1.0111,1.9683,3.9024,-3.9216,0.97087,-5.0485,-0.96618,-5.8615,3.8188,-3.9216,0.97087,-1.9802,2.8436,1.8501,1.9683,3.8647,2.8846,-2.0415,2.9068,-4.878,1.7949
-1.9589,-0.88889,0.0,1.9608,-2.9126,-8.932,-1.9324,-4.8953,-0.06472,1.9608,-2.9126,-5.9406,1.8957,2.807,1.9683,3.8647,2.8846,-1.0845,2.9068,0.0,2.7564
-2.9068,-2.7937,-3.9024,0.98039,-2.9126,-6.0194,-5.7971,-3.9291,-3.9482,0.98039,-2.9126,-6.9307,1.8957,0.89314,0.06349,1.9324,0.96154,-3.9553,0.06319,2.9268,2.7564
-1.9589,-4.6984,-5.8537,-3.9216,-8.7379,-5.0485,-6.7633,-1.0306,-5.89,-3.9216,-8.7379,-5.9406,2.8436,1.8501,1.0159,-0.96618,0.96154,-4.9123,-9.4155,4.878,-0.12821
-0.06319,-4.6984,-4.878,-10.784,-5.8252,-1.165,-4.8309,-1.9968,-2.9773,-10.784,-5.8252,-5.9406,10.427,4.7209,6.7302,0.0,4.8077,0.82935,-5.624,7.8049,1.7949
0.88468,-2.7937,-3.9024,-9.8039,0.97087,-1.165,-1.9324,-3.9291,-1.0356,-9.8039,0.97087,-5.9406,6.6351,0.89314,3.873,0.0,2.8846,4.6571,2.9068,3.9024,-0.12821
-3.8547,-2.7937,-3.9024,0.98039,-3.8835,-6.9903,-3.8647,-2.963,-1.0356,0.98039,-3.8835,-6.9307,-3.7915,-4.8485,-2.7937,-1.9324,-1.9231,1.7863,0.06319,0.0,-3.9744
-7.6461,-1.8413,-5.8537,-1.9608,-4.8544,-7.9612,-0.96618,-3.9291,-2.0065,-1.9608,-4.8544,-5.9406,-3.7915,-4.8485,-6.6032,-1.9324,-4.8077,0.82935,-3.7283,0.0,-3.9744
-9.5419,-3.746,-11.707,-2.9412,-4.8544,-7.9612,0.96618,-1.0306,-0.06472,-2.9412,-4.8544,-3.9604,1.8957,-2.9346,-7.5556,-4.8309,-7.6923,-2.9984,-1.8325,3.9024,-2.0513
-8.594,-0.88889,-10.732,4.902,5.8252,-4.0777,-1.9324,0.90177,4.7896,4.902,5.8252,-1.9802,1.8957,1.8501,-9.4603,-1.9324,-6.7308,-4.9123,1.9589,1.9512,1.7949
-1.9589,1.0159,-5.8537,2.9412,9.7087,0.7767,-2.8986,1.868,6.7314,2.9412,9.7087,0.0,0.94787,3.764,-7.5556,0.96618,-3.8462,-3.9553,2.9068,1.9512,2.7564
2.7804,1.0159,-2.9268,-8.8235,1.9417,10.485,1.9324,1.868,4.7896,-8.8235,1.9417,1.9802,-4.7393,-1.9777,-6.6032,0.0,-4.8077,2.7432,5.7504,-6.8293,0.83333
4.6761,2.9206,-0.97561,3.9216,-1.9417,10.485,5.7971,1.868,2.8479,3.9216,-1.9417,5.9406,-4.7393,-3.8915,-3.746,0.0,-2.8846,3.7002,5.7504,-9.7561,1.7949
2.7804,2.9206,-1.9512,0.98039,-3.8835,4.6602,4.8309,0.90177,1.877,0.98039,-3.8835,3.9604,-3.7915,-0.0638,0.06349,2.8986,2.8846,-1.0845,1.0111,-7.8049,3.7179
-1.0111,1.0159,-1.9512,-1.9608,2.9126,-6.0194,0.0,-1.9968,1.877,-1.9608,2.9126,-1.9802,-2.8436,-0.0638,1.9683,2.8986,3.8462,-5.8692,1.9589,-5.8537,2.7564
-1.0111,0.06349,0.97561,0.98039,-2.9126,-9.9029,-2.8986,-1.0306,-2.9773,0.98039,-2.9126,-5.9406,3.7915,3.764,3.873,3.8647,3.8462,-1.0845,-0.88468,-3.9024,1.7949
-2.9068,-3.746,-2.9268,-7.8431,-4.8544,-7.9612,-6.7633,-1.0306,-5.89,-7.8431,-4.8544,-8.9109,0.0,1.8501,-0.88889,0.96618,0.96154,1.7863,-8.4676,-4.878,1.7949
-4.8025,-6.6032,-6.8293,-11.765,-1.9417,0.7767,-9.6618,-4.8953,-3.9482,-11.765,-1.9417,-7.9208,4.7393,3.764,-1.8413,0.0,-0.96154,1.7863,-3.7283,0.97561,3.7179
-5.7504,-9.4603,-8.7805,-2.9412,-2.9126,-3.1068,-7.7295,-6.8277,-2.0065,-2.9412,-2.9126,-5.9406,8.5308,6.6348,-1.8413,-6.7633,-2.8846,-3.9553,-1.8325,1.9512,0.83333
-4.8025,-9.4603,-8.7805,3.9216,0.0,-6.9903,-2.8986,-2.963,-1.0356,3.9216,0.0,-2.9703,6.6351,1.8501,-0.88889,-14.493,-6.7308,-3.9553,-5.624,2.9268,-6.859
-4.8025,-7.5556,-7.8049,1.9608,-2.9126,-3.1068,3.8647,-0.06441,-1.0356,1.9608,-2.9126,0.9901,0.94787,-4.8485,-5.6508,-15.459,-10.577,-3.9553,-12.259,-0.97561,-10.705
-6.6983,0.06349,-4.878,-3.9216,0.0,2.7184,7.7295,-1.9968,3.8188,-3.9216,0.0,2.9703,-6.6351,-4.8485,-12.317,-7.7295,-9.6154,-6.8262,1.0111,-8.7805,-5.8974
-8.594,5.7778,-4.878,0.98039,8.7379,-0.19417,7.7295,-1.0306,7.7023,0.98039,8.7379,0.9901,-2.8436,-0.0638,-12.317,-0.96618,-6.7308,-2.0415,7.6461,-4.878,-1.0897
-9.5419,1.0159,-6.8293,-4.902,5.8252,-2.1359,-0.96618,-6.8277,5.7605,-4.902,5.8252,-4.9505,5.6872,4.7209,-8.5079,-0.96618,-3.8462,-6.8262,7.6461,-5.8537,-0.12821
-6.6983,-5.6508,-7.8049,-2.9412,1.9417,-5.0485,-7.7295,-6.8277,2.8479,-2.9412,1.9417,-9.901,7.5829,5.6778,-3.746,-0.96618,0.0,-8.74,3.8547,-6.8293,-0.12821
-5.7504,-5.6508,-5.8537,2.9412,-1.9417,-8.932,-5.7971,-1.0306,1.877,2.9412,-1.9417,-7.9208,0.94787,-2.9346,-1.8413,-1.9324,0.0,-5.8692,-0.88468,-1.9512,-3.0128
-1.0111,-2.7937,-0.97561,6.8627,-2.9126,-6.0194,1.9324,1.868,0.90615,6.8627,-2.9126,-0.9901,-1.8957,-5.8054,0.06349,-3.8647,-0.96154,-5.8692,-4.6761,-3.9024,-3.9744
4.6761,-0.88889,0.0,4.902,0.0,5.6311,6.7633,2.8341,2.8479,4.902,0.0,4.9505,0.94787,-2.9346,3.873,-4.8309,0.0,1.7863,-3.7283,0.97561,-3.9744
5.624,-6.6032,-1.9512,-8.8235,7.767,15.34,0.0,0.90177,2.8479,-8.8235,7.767,3.9604,-4.7393,-8.6762,1.9683,-8.6957,-1.9231,1.7863,-0.88468,-4.878,-6.859
3.7283,-12.317,-2.9268,2.9412,8.7379,5.6311,-5.7971,2.8341,-0.06472,2.9412,8.7379,-0.9901,-4.7393,-7.7193,-0.88889,-8.6957,-0.96154,-0.12759,0.06319,-8.7805,-6.859
1.8325,-8.5079,0.0,17.646999,5.8252,-5.0485,-1.9324,5.7327,0.90615,17.646999,5.8252,-1.9802,-1.8957,-3.8915,-0.88889,-5.7971,0.96154,3.7002,-3.7283,-2.9268,-5.8974
1.8325,-0.88889,1.9512,11.765,4.8544,-0.19417,4.8309,7.6651,4.7896,11.765,4.8544,3.9604,0.94787,0.89314,-1.8413,-3.8647,0.0,4.6571,-6.5719,-0.97561,-3.9744
-0.06319,2.9206,-0.97561,6.8627,0.97087,5.6311,7.7295,5.7327,6.7314,6.8627,0.97087,5.9406,-0.94787,-0.0638,-4.6984,-1.9324,-3.8462,2.7432,0.06319,-0.97561,-3.0128
-1.9589,-0.88889,-6.8293,0.0,3.8835,5.6311,3.8647,1.868,2.8479,0.0,3.8835,1.9802,0.0,0.89314,-6.6032,-2.8986,-6.7308,-0.12759,2.9068,0.97561,-1.0897
-1.9589,-6.6032,-9.7561,-4.902,1.9417,3.6893,-4.8309,-1.0306,-2.9773,-4.902,1.9417,-3.9604,-1.8957,-1.9777,-4.6984,-3.8647,-8.6538,-4.9123,-6.5719,0.97561,-2.0513
3.7283,-2.7937,-0.97561,0.0,6.7961,5.6311,-2.8986,1.868,-2.9773,0.0,6.7961,0.0,-4.7393,-3.8915,-0.88889,-1.9324,-6.7308,1.7863,-1.8325,-3.9024,-3.0128
5.624,4.8254,6.8293,1.9608,8.7379,7.5728,6.7633,0.90177,3.8188,1.9608,8.7379,7.9208,-7.5829,-6.7624,-0.88889,0.0,-5.7692,1.7863,5.7504,-3.9024,-0.12821
6.5719,10.54,9.7561,12.745,4.8544,3.6893,11.594,5.7327,7.7023,12.745,4.8544,10.891,-6.6351,-7.7193,1.0159,4.8309,-2.8846,1.7863,8.594,-0.97561,0.83333
2.7804,7.6825,4.878,20.587999,4.8544,-1.165,8.6957,5.7327,6.7314,20.587999,4.8544,5.9406,-1.8957,-1.9777,1.9683,6.7633,2.8846,4.6571,3.8547,-3.9024,3.7179
1.8325,6.7302,0.0,3.9216,8.7379,-0.19417,7.7295,-0.06441,6.7314,3.9216,8.7379,3.9604,4.7393,7.5917,7.6825,12.56,11.538,2.7432,7.6461,1.9512,13.333
3.7283,5.7778,2.9268,-3.9216,4.8544,2.7184,5.7971,-0.06441,4.7896,-3.9216,4.8544,4.9505,10.427,11.419,13.397,13.527,16.346001,-4.9123,7.6461,9.7561,17.179001
4.6761,1.0159,2.9268,8.8235,3.8835,3.6893,3.8647,3.8003,1.877,8.8235,3.8835,4.9505,10.427,9.5056,13.397,3.8647,11.538,0.82935,4.8025,11.707,10.449
8.4676,2.9206,4.878,8.8235,8.7379,11.456,11.594,8.6312,5.7605,8.8235,8.7379,11.881,5.6872,0.89314,8.6349,-4.8309,1.9231,10.399,5.7504,14.634,2.7564
8.4676,5.7778,6.8293,5.8824,9.7087,13.398,13.527,8.6312,7.7023,5.8824,9.7087,13.861,4.7393,-2.9346,5.7778,-4.8309,-2.8846,5.614,2.9068,11.707,-1.0897
3.7283,6.7302,5.8537,9.8039,13.592,5.6311,9.6618,6.6989,7.7023,9.8039,13.592,8.9109,-0.94787,-1.9777,1.9683,2.8986,-0.96154,2.7432,4.8025,1.9512,-0.12821
4.6761,10.54,7.8049,4.902,7.767,7.5728,11.594,2.8341,7.7023,4.902,7.767,10.891,-5.6872,-2.9346,0.06349,8.6957,0.0,5.614,6.6983,-4.878,2.7564
7.5197,9.5873,7.8049,4.902,4.8544,8.5437,12.56,1.868,3.8188,4.902,4.8544,10.891,-7.5829,-2.9346,1.0159,6.7633,0.96154,5.614,-1.8325,-5.8537,-0.12821
6.5719,2.9206,4.878,13.725,8.7379,-2.1359,4.8309,6.6989,3.8188,13.725,8.7379,4.9505,-5.6872,-1.0207,4.8254,3.8647,3.8462,-0.12759,0.06319,-1.9512,-3.0128
5.624,-3.746,0.0,10.784,7.767,-1.165,-0.96618,6.6989,3.8188,10.784,7.767,0.9901,-1.8957,-0.0638,5.7778,-0.96618,1.9231,1.7863,1.0111,2.9268,-1.0897
1.8325,-8.5079,-5.8537,0.98039,-2.9126,5.6311,-2.8986,1.868,1.877,0.98039,-2.9126,-2.9703,0.0,1.8501,1.9683,-5.7971,-3.8462,2.7432,5.7504,1.9512,0.83333
-1.0111,-10.413,-8.7805,-8.8235,-3.8835,4.6602,-3.8647,-0.06441,-1.0356,-8.8235,-3.8835,-4.9505,-0.94787,-1.9777,-1.8413,-8.6957,-8.6538,2.7432,3.8547,0.97561,0.83333
-3.8547,-12.317,-9.7561,-3.9216,-1.9417,-4.0777,-9.6618,-0.06441,-4.9191,-3.9216,-1.9417,-8.9109,-6.6351,-6.7624,-7.5556,-11.594,-14.423,6.571,-4.6761,-1.9512,-2.0513
-3.8547,-10.413,-7.8049,-4.902,-7.767,-9.9029,-12.56,0.90177,-7.8317,-4.902,-7.767,-10.891,-5.6872,-6.7624,-6.6032,-8.6957,-12.5,6.571,-5.624,0.97561,-3.9744
-2.9068,-8.5079,-5.8537,-3.9216,-7.767,-5.0485,-10.628,1.868,-6.8608,-3.9216,-7.767,-9.901,-1.8957,0.89314,-2.7937,-4.8309,-4.8077,5.614,-3.7283,5.8537,-1.0897
-2.9068,-8.5079,-6.8293,0.0,1.9417,-0.19417,-7.7295,2.8341,-3.9482,0.0,1.9417,-5.9406,-0.94787,-1.9777,-0.88889,-9.6618,-5.7692,5.614,-3.7283,3.9024,-6.859
-1.0111,-4.6984,-1.9512,9.8039,3.8835,0.7767,0.96618,4.7665,-1.0356,9.8039,3.8835,0.9901,-0.94787,-3.8915,0.06349,-10.628,-6.7308,4.6571,-4.6761,0.0,-9.7436
2.7804,1.9683,4.878,12.745,1.9417,3.6893,7.7295,5.7327,2.8479,12.745,1.9417,6.9307,-1.8957,-0.0638,-1.8413,-5.7971,-5.7692,0.82935,-0.88468,-4.878,-8.7821
-1.0111,1.9683,1.9512,5.8824,2.9126,5.6311,5.7971,2.8341,2.8479,5.8824,2.9126,4.9505,-3.7915,-3.8915,-9.4603,-6.7633,-11.538,3.7002,-2.7804,-2.9268,-10.705
-6.6983,-2.7937,-2.9268,-4.902,2.9126,-1.165,-1.9324,2.8341,-0.06472,-4.902,2.9126,-0.9901,-10.427,-10.59,-13.27,-10.628,-15.385,2.7432,-6.5719,-6.8293,-12.628
-3.8547,-0.88889,1.9512,0.98039,4.8544,-5.0485,-1.9324,4.7665,-1.0356,0.98039,4.8544,-0.9901,-9.4787,-9.6332,-6.6032,-7.7295,-7.6923,1.7863,-4.6761,-7.8049,-11.667
3.7283,1.9683,7.8049,5.8824,5.8252,1.7476,0.96618,4.7665,-1.0356,5.8824,5.8252,1.9802,0.0,-0.0638,1.9683,0.96618,4.8077,4.6571,-2.7804,-4.878,-3.9744
5.624,5.7778,5.8537,1.9608,2.9126,11.456,3.8647,-0.06441,0.90615,1.9608,2.9126,4.9505,4.7393,5.6778,4.8254,7.7295,10.577,0.82935,0.06319,-0.97561,3.7179
0.88468,4.8254,-0.97561,2.9412,-4.8544,0.7767,0.96618,-1.9968,0.90615,2.9412,-4.8544,0.9901,1.8957,5.6778,1.9683,9.6618,8.6538,-3.9553,2.9068,0.97561,8.5256
-1.9589,4.8254,-1.9512,-4.902,-1.9417,-6.9903,-0.96618,-2.963,-0.06472,-4.902,-1.9417,-0.9901,-0.94787,5.6778,1.9683,8.6957,5.7692,-4.9123,6.6983,0.97561,15.256
2.7804,5.7778,3.9024,-9.8039,-1.9417,3.6893,1.9324,-3.9291,1.877,-9.8039,-1.9417,1.9802,-2.8436,5.6778,3.873,9.6618,5.7692,-5.8692,9.5419,-2.9268,17.179001
8.4676,6.7302,12.683,-1.9608,0.97087,9.5146,3.8647,0.90177,0.90615,-1.9608,0.97087,4.9505,0.0,4.7209,7.6825,9.6618,7.6923,2.7432,11.438,2.9268,12.372
8.4676,4.8254,13.659,14.706,4.8544,-0.19417,0.96618,1.868,1.877,14.706,4.8544,2.9703,4.7393,1.8501,9.5873,8.6957,7.6923,5.614,7.6461,9.7561,4.6795
5.624,4.8254,9.7561,13.725,2.9126,-2.1359,0.96618,-1.9968,2.8479,13.725,2.9126,2.9703,4.7393,1.8501,10.54,5.7971,6.7308,2.7432,1.9589,10.732,0.83333
1.8325,5.7778,5.8537,1.9608,2.9126,1.7476,3.8647,1.868,3.8188,1.9608,2.9126,4.9505,-3.7915,-2.9346,4.8254,0.0,0.96154,0.82935,1.0111,5.8537,-3.0128
-1.0111,7.6825,6.8293,3.9216,9.7087,2.7184,6.7633,4.7665,4.7896,3.9216,9.7087,8.9109,-11.374,-12.504,-4.6984,-4.8309,-8.6538,-1.0845,1.9589,-4.878,-9.7436
2.7804,9.5873,13.659,-3.9216,6.7961,13.398,9.6618,5.7327,5.7605,-3.9216,6.7961,14.851,-7.5829,-12.504,-5.6508,-2.8986,-9.6154,2.7432,-1.8325,-3.9024,-10.705
4.6761,11.492,15.61,0.98039,8.7379,15.34,12.56,6.6989,8.6731,0.98039,8.7379,17.822001,-6.6351,-6.7624,-4.6984,1.9324,-5.7692,1.7863,0.06319,-3.9024,-7.8205
4.6761,13.397,12.683,18.627001,11.65,10.485,15.459,8.6312,13.528,18.627001,11.65,15.842,-11.374,-9.6332,-2.7937,2.8986,-1.9231,-0.12759,2.9068,0.0,-6.859
4.6761,15.302,7.8049,20.587999,15.534,6.6019,16.424999,4.7665,17.410999,20.587999,15.534,14.851,-0.94787,-3.8915,1.9683,6.7633,4.8077,-1.0845,12.385,-2.9268,-2.0513
1.8325,11.492,1.9512,1.9608,9.7087,3.6893,12.56,1.868,12.557,1.9608,9.7087,9.901,0.94787,0.89314,0.06349,8.6957,7.6923,-3.9553,12.385,-11.707,3.7179
2.7804,5.7778,2.9268,0.0,0.0,3.6893,6.7633,1.868,4.7896,0.0,0.0,7.9208,-1.8957,1.8501,-0.88889,8.6957,6.7308,-5.8692,6.6983,-9.7561,6.6026
6.5719,5.7778,8.7805,0.98039,3.8835,8.5437,6.7633,3.8003,0.90615,0.98039,3.8835,9.901,0.94787,3.764,1.0159,7.7295,5.7692,4.6571,4.8025,-3.9024,6.6026
2.7804,1.9683,5.8537,-9.8039,0.97087,6.6019,0.96618,2.8341,-0.06472,-9.8039,0.97087,4.9505,0.0,3.764,-0.88889,3.8647,0.96154,8.4848,1.9589,0.0,7.5641
-2.9068,-4.6984,-2.9268,-16.667,-6.7961,1.7476,-3.8647,-1.0306,-2.0065,-16.667,-6.7961,-3.9604,0.94787,-0.0638,-1.8413,-0.96618,-2.8846,0.82935,-3.7283,3.9024,7.5641
-6.6983,-6.6032,-8.7805,-0.98039,-6.7961,-8.932,-7.7295,-5.8615,0.90615,-0.98039,-6.7961,-11.881,0.0,-1.9777,0.06349,-2.8986,-3.8462,-0.12759,4.8025,10.732,4.6795
-2.9068,-2.7937,-3.9024,7.8431,-2.9126,-11.845,-1.9324,-4.8953,4.7896,7.8431,-2.9126,-7.9208,-1.8957,-2.9346,2.9206,-1.9324,-0.96154,0.82935,7.6461,6.8293,-0.12821
7.5197,4.8254,7.8049,2.9412,5.8252,2.7184,10.628,0.90177,8.6731,2.9412,5.8252,6.9307,0.94787,-1.0207,7.6825,1.9324,2.8846,2.7432,3.8547,6.8293,-3.9744
10.363,2.9206,8.7805,4.902,5.8252,14.369,10.628,4.7665,5.7605,4.902,5.8252,11.881,-3.7915,-5.8054,2.9206,-2.8986,-2.8846,-2.9984,-8.4676,4.878,-8.7821
4.6761,-4.6984,0.0,1.9608,3.8835,12.427,1.9324,7.6651,-0.06472,1.9608,3.8835,6.9307,-12.322,-11.547,-6.6032,-10.628,-12.5,-3.9553,-9.4155,-7.8049,-13.59
-1.0111,-9.4603,-8.7805,-0.98039,6.7961,-0.19417,-3.8647,5.7327,-2.9773,-0.98039,6.7961,0.0,-20.853001,-20.159,-11.365,-15.459,-18.268999,2.7432,-8.4676,-11.707,-16.474001
-5.7504,-6.6032,-12.683,5.8824,6.7961,-8.932,-2.8986,-0.06441,1.877,5.8824,6.7961,-3.9604,-14.218,-18.246,-10.413,-14.493,-16.346001,-0.12759,-1.8325,-10.732,-13.59
-8.594,-1.8413,-9.7561,4.902,0.97087,-11.845,-0.96618,-5.8615,3.8188,4.902,0.97087,-4.9505,-6.6351,-9.6332,-6.6032,-5.7971,-7.6923,-4.9123,5.7504,-7.8049,-5.8974
-7.6461,4.8254,-2.9268,-4.902,-3.8835,-6.0194,2.8986,-7.7939,5.7605,-4.902,-3.8835,0.0,2.8436,2.807,-1.8413,6.7633,3.8462,-5.8692,9.5419,0.97561,5.641
-8.594,5.7778,-1.9512,-8.8235,-8.7379,3.6893,2.8986,-6.8277,1.877,-8.8235,-8.7379,2.9703,1.8957,2.807,-2.7937,11.594,8.6538,-7.7831,7.6461,-2.9268,7.5641
-10.49,1.9683,-4.878,-7.8431,-4.8544,-0.19417,0.96618,-2.963,0.90615,-7.8431,-4.8544,-0.9901,-5.6872,-0.0638,-6.6032,7.7295,4.8077,-3.9553,5.7504,-11.707,5.641
-14.281,-1.8413,-9.7561,-6.8627,-5.8252,-10.874,-4.8309,-2.963,-0.06472,-6.8627,-5.8252,-6.9307,-4.7393,-0.0638,-11.365,-0.96618,-0.96154,-10.654,-0.88468,-17.561001,4.6795
-8.594,-1.8413,-5.8537,-4.902,0.0,-7.9612,-5.7971,-2.963,3.8188,-4.902,0.0,-5.9406,-4.7393,1.8501,-8.5079,-1.9324,-1.9231,-6.8262,5.7504,-16.584999,6.6026
-5.7504,-6.6032,-6.8293,-1.9608,-2.9126,-10.874,-10.628,-3.9291,-0.06472,-1.9608,-2.9126,-11.881,-1.8957,2.807,-3.746,-6.7633,-5.7692,-3.9553,3.8547,-8.7805,7.5641
-5.7504,-17.079,-12.683,-6.8627,-11.65,-10.874,-17.391001,-5.8615,-8.8026,-6.8627,-11.65,-17.822001,0.0,1.8501,-3.746,-13.527,-9.6154,-5.8692,-11.311,-0.97561,0.83333
-3.8547,-18.983999,-14.634,-5.8824,-18.447001,-2.1359,-17.391001,-4.8953,-12.686,-5.8824,-18.447001,-17.822001,5.6872,5.6778,-1.8413,-13.527,-7.6923,-3.9553,-10.363,2.9268,-2.0513
-5.7504,-18.032,-17.561001,-14.706,-22.33,-7.9612,-12.56,-3.9291,-12.686,-14.706,-22.33,-16.832001,12.322,5.6778,-0.88889,-12.56,-5.7692,-1.0845,-2.7804,8.7805,-3.9744
-4.8025,-13.27,-15.61,-7.8431,-12.621,-12.816,-10.628,-1.0306,-8.8026,-7.8431,-12.621,-12.871,12.322,1.8501,-0.88889,-9.6618,-5.7692,4.6571,-4.6761,11.707,-7.8205
-2.9068,-6.6032,-9.7561,-9.8039,-1.9417,-7.9612,-5.7971,-1.0306,-5.89,-9.8039,-1.9417,-6.9307,3.7915,-0.0638,-3.746,-4.8309,-5.7692,1.7863,-2.7804,4.878,-5.8974
-2.9068,-1.8413,-4.878,-9.8039,-2.9126,0.7767,-4.8309,-2.963,-5.89,-9.8039,-2.9126,-1.9802,0.94787,-0.0638,-5.6508,0.0,-2.8846,-2.0415,-11.311,0.0,-3.9744
-1.0111,-0.88889,-0.97561,0.98039,-1.9417,6.6019,-2.8986,-2.963,-7.8317,0.98039,-1.9417,0.0,6.6351,3.764,-3.746,1.9324,0.96154,2.7432,-11.311,4.878,-4.9359
-2.9068,-4.6984,-0.97561,8.8235,-3.8835,-1.165,-2.8986,2.8341,-7.8317,8.8235,-3.8835,-2.9703,6.6351,2.807,-0.88889,-2.8986,0.96154,6.571,-7.5197,10.732,-7.8205
-1.9589,-8.5079,-0.97561,-9.8039,-13.592,-6.0194,-0.96618,0.90177,-5.89,-9.8039,-13.592,-3.9604,1.8957,-4.8485,-0.88889,-9.6618,-3.8462,7.5279,-8.4676,12.683,-9.7436
-1.9589,-9.4603,0.97561,-9.8039,-7.767,-5.0485,0.0,-2.963,-2.9773,-9.8039,-7.767,-2.9703,-6.6351,-11.547,-5.6508,-16.424999,-12.5,5.614,-13.207,1.9512,-14.551
0.88468,-6.6032,0.97561,0.0,11.65,0.7767,-2.8986,1.868,2.8479,0.0,11.65,0.9901,-9.4787,-11.547,-6.6032,-16.424999,-12.5,0.82935,-5.624,-6.8293,-14.551
4.6761,-1.8413,0.97561,9.8039,10.68,9.5146,-0.96618,5.7327,3.8188,9.8039,10.68,5.9406,-4.7393,-7.7193,-2.7937,-9.6618,-5.7692,0.82935,0.06319,-8.7805,-7.8205
6.5719,4.8254,2.9268,13.725,8.7379,12.427,1.9324,6.6989,5.7605,13.725,8.7379,8.9109,1.8957,3.764,1.9683,2.8986,4.8077,-0.12759,-2.7804,-9.7561,4.6795
8.4676,13.397,12.683,3.9216,7.767,7.5728,6.7633,0.90177,8.6731,3.9216,7.767,10.891,6.6351,10.463,10.54,19.323999,18.268999,-1.0845,13.333,-1.9512,18.141001
7.5197,16.254,18.537001,-10.784,0.0,0.7767,7.7295,-7.7939,6.7314,-10.784,0.0,5.9406,10.427,15.247,16.254,26.087,24.038,-0.12759,21.864,5.8537,22.948999
0.88468,8.6349,11.707,-21.569,-17.476,-12.816,0.0,-14.557,-1.0356,-21.569,-17.476,-5.9406,10.427,17.160999,13.397,23.188,20.191999,-3.9553,15.229,9.7561,21.987
-4.8025,-1.8413,-0.97561,-19.608,-20.388,-13.786,-9.6618,-14.557,-7.8317,-19.608,-20.388,-13.861,11.374,15.247,8.6349,15.459,14.423,-2.9984,9.5419,15.61,20.063999
-4.8025,-5.6508,-6.8293,-17.646999,-8.7379,-10.874,-13.527,-10.692,-8.8026,-17.646999,-8.7379,-12.871,11.374,11.419,5.7778,9.6618,9.6154,-0.12759,1.9589,13.659,18.141001
-1.0111,-2.7937,-2.9268,-9.8039,-9.7087,-9.9029,-8.6957,-7.7939,-10.744,-9.8039,-9.7087,-5.9406,8.5308,7.5917,5.7778,5.7971,7.6923,4.6571,-0.88468,8.7805,9.4872
0.88468,0.06349,6.8293,-6.8627,-13.592,-9.9029,-4.8309,-6.8277,-14.628,-6.8627,-13.592,-4.9505,8.5308,8.5486,7.6825,3.8647,6.7308,8.4848,-6.5719,8.7805,1.7949
-1.9589,-2.7937,6.8293,-12.745,-13.592,-10.874,-11.594,-6.8277,-15.599,-12.745,-13.592,-9.901,8.5308,4.7209,6.7302,0.0,2.8846,4.6571,-14.155,8.7805,-1.0897
-3.8547,-3.746,2.9268,-12.745,-9.7087,-6.9903,-9.6618,-4.8953,-10.744,-12.745,-9.7087,-7.9208,8.5308,1.8501,2.9206,-2.8986,-0.96154,1.7863,-10.363,8.7805,-4.9359
-1.0111,0.06349,0.97561,-2.9412,-7.767,-1.165,0.0,2.8341,-5.89,-2.9412,-7.767,0.0,11.374,2.807,2.9206,-1.9324,0.0,1.7863,-7.5197,12.683,-5.8974
4.6761,8.6349,4.878,0.98039,7.767,6.6019,7.7295,4.7665,1.877,0.98039,7.767,9.901,9.4787,3.764,2.9206,2.8986,2.8846,-6.8262,-3.7283,10.732,-3.0128
5.624,10.54,8.7805,1.9608,8.7379,9.5146,8.6957,1.868,4.7896,1.9608,8.7379,11.881,-1.8957,-2.9346,2.9206,2.8986,0.96154,-5.8692,1.0111,0.97561,-1.0897
0.88468,1.9683,4.878,6.8627,0.0,-3.1068,0.0,-1.0306,1.877,6.8627,0.0,0.0,-3.7915,-2.9346,3.873,2.8986,0.96154,-0.12759,5.7504,-3.9024,1.7949
-4.8025,-6.6032,-2.9268,1.9608,-8.7379,-9.9029,-7.7295,-4.8953,-2.0065,1.9608,-8.7379,-9.901,0.0,2.807,1.0159,2.8986,0.0,-1.0845,2.9068,-2.9268,2.7564
-6.6983,-6.6032,-6.8293,-10.784,-6.7961,-4.0777,-7.7295,-1.9968,-3.9482,-10.784,-6.7961,-8.9109,-0.94787,2.807,-5.6508,1.9324,-2.8846,-0.12759,-5.624,-4.878,4.6795
-1.9589,-0.88889,-4.878,-2.9412,0.0,1.7476,0.96618,5.7327,-2.0065,-2.9412,0.0,0.0,2.8436,2.807,-4.6984,1.9324,0.0,-1.0845,4.8025,0.0,4.6795
5.624,2.9206,1.9512,10.784,1.9417,1.7476,1.9324,6.6989,-1.0356,10.784,1.9417,2.9703,4.7393,-0.0638,2.9206,-0.96618,1.9231,3.7002,7.6461,4.878,-1.0897
10.363,-1.8413,4.878,6.8627,-1.9417,1.7476,-5.7971,3.8003,-7.8317,6.8627,-1.9417,0.0,-2.8436,-3.8915,4.8254,-5.7971,-1.9231,9.4418,-4.6761,3.9024,-4.9359
6.5719,-12.317,0.0,-7.8431,-12.621,0.7767,-14.493,-0.06441,-17.540001,-7.8431,-12.621,-6.9307,-4.7393,-5.8054,1.0159,-11.594,-7.6923,11.356,-12.259,4.878,-10.705
-0.06319,-15.175,-6.8293,-20.587999,-14.563,2.7184,-14.493,-1.9968,-19.482,-20.587999,-14.563,-9.901,0.94787,-1.9777,-0.88889,-13.527,-7.6923,13.27,-13.207,9.7561,-11.667
-7.6461,-12.317,-14.634,-8.8235,-13.592,-3.1068,-9.6618,-0.06441,-12.686,-8.8235,-13.592,-8.9109,4.7393,-0.0638,-2.7937,-12.56,-6.7308,8.4848,-12.259,3.9024,-6.859
-12.385,-5.6508,-16.584999,12.745,-5.8252,-8.932,-2.8986,0.90177,-5.89,12.745,-5.8252,-4.9505,-0.94787,-4.8485,-10.413,-11.594,-9.6154,-0.12759,-7.5197,-6.8293,-6.859
-4.8025,5.7778,-5.8537,12.745,4.8544,-2.1359,5.7971,0.90177,-1.0356,12.745,4.8544,4.9505,-0.94787,-1.9777,-7.5556,-0.96618,-4.8077,-6.8262,-6.5719,-9.7561,-3.9744
2.7804,13.397,2.9268,6.8627,11.65,6.6019,9.6618,1.868,-0.06472,6.8627,11.65,8.9109,0.94787,2.807,0.06349,12.56,5.7692,-2.0415,2.9068,-3.9024,4.6795
5.624,9.5873,6.8293,0.0,9.7087,13.398,4.8309,1.868,-0.06472,0.0,9.7087,7.9208,3.7915,10.463,6.7302,19.323999,14.423,3.7002,9.5419,0.0,12.372
6.5719,3.873,7.8049,-2.9412,4.8544,9.5146,4.8309,-1.0306,0.90615,-2.9412,4.8544,6.9307,9.4787,11.419,11.492,15.459,18.268999,-1.0845,7.6461,2.9268,12.372
7.5197,7.6825,11.707,7.8431,1.9417,0.7767,10.628,0.90177,5.7605,7.8431,1.9417,8.9109,9.4787,8.5486,13.397,14.493,19.231001,-0.12759,10.49,10.732,13.333
6.5719,15.302,13.659,6.8627,3.8835,2.7184,12.56,2.8341,8.6731,6.8627,3.8835,12.871,-0.94787,4.7209,8.6349,13.527,13.462,-1.0845,12.385,1.9512,10.449
4.6761,15.302,12.683,4.902,6.7961,3.6893,9.6618,1.868,7.7023,4.902,6.7961,11.881,-4.7393,3.764,4.8254,11.594,7.6923,-1.0845,7.6461,-6.8293,5.641
3.7283,7.6825,4.878,-3.9216,4.8544,1.7476,0.96618,-0.06441,3.8188,-3.9216,4.8544,1.9802,2.8436,8.5486,7.6825,10.628,7.6923,2.7432,3.8547,1.9512,7.5641
2.7804,-3.746,-3.9024,-5.8824,-1.9417,-2.1359,-5.7971,0.90177,-0.06472,-5.8824,-1.9417,-6.9307,4.7393,5.6778,9.5873,6.7633,6.7308,2.7432,4.8025,10.732,6.6026
8.4676,-4.6984,-0.97561,6.8627,-0.97087,0.7767,-1.9324,9.5974,1.877,6.8627,-0.97087,-2.9703,0.94787,-0.0638,10.54,2.8986,3.8462,12.313,6.6983,12.683,3.7179
13.207,-0.88889,6.8293,1.9608,-0.97087,14.369,3.8647,8.6312,1.877,1.9608,-0.97087,4.9505,-3.7915,-3.8915,10.54,0.96618,1.9231,20.924999,1.0111,9.7561,-1.0897
10.363,-0.88889,7.8049,2.9412,-3.8835,11.456,0.96618,6.6989,-3.9482,2.9412,-3.8835,4.9505,-7.5829,-8.6762,5.7778,-3.8647,-3.8462,17.097,-6.5719,8.7805,-9.7436
8.4676,-0.88889,1.9512,11.765,3.8835,4.6602,1.9324,12.496,-3.9482,11.765,3.8835,5.9406,-9.4787,-13.461,-0.88889,-7.7295,-10.577,14.226,-8.4676,4.878,-12.628
3.7283,-4.6984,-9.7561,10.784,9.7087,7.5728,0.96618,13.462,-2.9773,10.784,9.7087,4.9505,-11.374,-15.375,-5.6508,-10.628,-16.346001,9.4418,-6.5719,0.0,-14.551
-1.9589,-9.4603,-15.61,5.8824,3.8835,4.6602,-5.7971,7.6651,-3.9482,5.8824,3.8835,-2.9703,-5.6872,-9.6332,-6.6032,-9.6618,-13.462,1.7863,-5.624,-0.97561,-10.705
0.88468,-8.5079,-4.878,4.902,0.0,1.7476,-8.6957,2.8341,-5.89,4.902,0.0,-5.9406,-2.8436,-2.9346,0.06349,-1.9324,-2.8846,-0.12759,-9.4155,-0.97561,-5.8974
5.624,0.06349,7.8049,11.765,-1.9417,1.7476,-1.9324,0.90177,-4.9191,11.765,-1.9417,0.0,3.7915,3.764,9.5873,7.7295,8.6538,-0.12759,-7.5197,3.9024,0.83333
2.7804,1.0159,3.9024,1.9608,-5.8252,0.7767,-2.8986,-0.06441,-3.9482,1.9608,-5.8252,-0.9901,7.5829,7.5917,10.54,10.628,11.538,-4.9123,-1.8325,2.9268,6.6026
-1.9589,-3.746,-7.8049,-1.9608,-0.97087,-0.19417,-3.8647,1.868,-2.0065,-1.9608,-0.97087,-3.9604,6.6351,7.5917,2.9206,3.8647,6.7308,-12.568,1.9589,-2.9268,4.6795
-6.6983,-2.7937,-11.707,12.745,3.8835,-3.1068,-0.96618,1.868,0.90615,12.745,3.8835,-1.9802,0.0,6.6348,-6.6032,-0.96618,-0.96154,-15.439,4.8025,-11.707,1.7949
-4.8025,3.873,-2.9268,9.8039,7.767,0.7767,4.8309,-1.0306,3.8188,9.8039,7.767,3.9604,-3.7915,11.419,-10.413,1.9324,-1.9231,-13.525,5.7504,-15.61,9.4872
-7.6461,1.0159,-0.97561,-5.8824,0.0,-1.165,2.8986,-3.9291,3.8188,-5.8824,0.0,0.0,-1.8957,12.376,-11.365,2.8986,-1.9231,-13.525,9.5419,-14.634,14.295
-9.5419,-9.4603,-8.7805,-9.8039,-1.9417,-3.1068,-4.8309,-4.8953,0.90615,-9.8039,-1.9417,-7.9208,0.0,10.463,-7.5556,-1.9324,-2.8846,-9.697,6.6983,-0.97561,11.41
-4.8025,-14.222,-12.683,-9.8039,0.0,-2.1359,-7.7295,-4.8953,0.90615,-9.8039,0.0,-8.9109,2.8436,8.5486,-1.8413,-6.7633,-2.8846,-2.9984,3.8547,0.97561,6.6026
0.88468,-6.6032,-3.9024,2.9412,-2.9126,-1.165,-2.8986,0.90177,1.877,2.9412,-2.9126,-1.9802,-0.94787,0.89314,0.06349,-8.6957,-2.8846,2.7432,0.06319,-11.707,-3.0128
6.5719,6.7302,10.732,13.725,4.8544,-0.19417,3.8647,5.7327,4.7896,13.725,4.8544,5.9406,0.94787,-0.0638,2.9206,-2.8986,2.8846,5.614,0.06319,-9.7561,-7.8205
9.4155,14.349,18.537001,7.8431,10.68,3.6893,9.6618,4.7665,5.7605,7.8431,10.68,10.891,1.8957,1.8501,7.6825,5.7971,8.6538,3.7002,0.06319,-1.9512,-3.0128
7.5197,10.54,14.634,-1.9608,5.8252,5.6311,7.7295,0.90177,3.8188,-1.9608,5.8252,7.9208,4.7393,5.6778,9.5873,9.6618,10.577,-1.0845,1.0111,5.8537,-0.12821
5.624,3.873,7.8049,-10.784,-0.97087,7.5728,3.8647,-2.963,2.8479,-10.784,-0.97087,1.9802,7.5829,9.5056,8.6349,8.6957,12.5,-5.8692,-0.88468,9.7561,3.7179
3.7283,5.7778,8.7805,-3.9216,-0.97087,2.7184,4.8309,-4.8953,3.8188,-3.9216,-0.97087,0.9901,9.4787,14.29,7.6825,11.594,15.385,-1.0845,-0.88468,3.9024,9.4872
1.8325,7.6825,12.683,-1.9608,2.9126,-6.0194,5.7971,-4.8953,0.90615,-1.9608,2.9126,0.0,7.5829,11.419,5.7778,11.594,12.5,-2.9984,-2.7804,-0.97561,7.5641
2.7804,4.8254,12.683,8.8235,3.8835,-6.0194,3.8647,-0.06441,-0.06472,8.8235,3.8835,1.9802,11.374,7.5917,6.7302,5.7971,7.6923,-2.9984,-0.88468,4.878,5.641
-3.8547,-8.5079,-0.97561,0.98039,-1.9417,-3.1068,-6.7633,-0.06441,-4.9191,0.98039,-1.9417,-3.9604,4.7393,1.8501,0.06349,-3.8647,-1.9231,-4.9123,-5.624,5.8537,-0.12821
-10.49,-15.175,-14.634,-10.784,-0.97087,-3.1068,-12.56,-1.9968,-7.8317,-10.784,-0.97087,-11.881,3.7915,0.89314,-6.6032,-8.6957,-7.6923,-4.9123,1.0111,4.878,-0.12821
-9.5419,-9.4603,-12.683,0.98039,-0.97087,-6.0194,-10.628,-2.963,-6.8608,0.98039,-0.97087,-9.901,7.5829,2.807,-4.6984,-6.7633,-5.7692,-4.9123,1.9589,7.8049,1.7949
-2.9068,-1.8413,-3.9024,0.0,-7.767,-5.0485,-1.9324,-4.8953,-6.8608,0.0,-7.767,-2.9703,7.5829,1.8501,1.0159,-4.8309,-2.8846,-5.8692,-8.4676,11.707,-0.12821
-1.9589,0.06349,-0.97561,4.902,-4.8544,-6.0194,2.8986,-3.9291,-3.9482,4.902,-4.8544,0.0,6.6351,-0.0638,1.9683,-5.7971,-1.9231,-0.12759,-4.6761,7.8049,-2.0513
-6.6983,-0.88889,-6.8293,5.8824,2.9126,-6.9903,1.9324,-1.9968,1.877,5.8824,2.9126,0.0,1.8957,-1.9777,-6.6032,-7.7295,-6.7308,1.7863,2.9068,-2.9268,-3.0128
-5.7504,1.0159,-6.8293,-5.8824,8.7379,4.6602,4.8309,-1.0306,8.6731,-5.8824,8.7379,3.9604,-4.7393,-1.9777,-10.413,-4.8309,-7.6923,-2.9984,1.9589,-6.8293,-2.0513
5.624,11.492,4.878,1.9608,17.476,14.369,12.56,4.7665,14.498,1.9608,17.476,12.871,-2.8436,-1.9777,-3.746,5.7971,-1.9231,0.82935,8.594,-0.97561,1.7949
9.4155,15.302,9.7561,18.627001,14.563,9.5146,15.459,7.6651,15.469,18.627001,14.563,13.861,-7.5829,-6.7624,-0.88889,9.6618,-0.96154,-0.12759,12.385,-7.8049,-1.0897
9.4155,18.159,9.7561,21.569,16.504999,7.5728,22.222,7.6651,18.382,21.569,16.504999,14.851,-4.7393,-4.8485,3.873,13.527,3.8462,-2.9984,15.229,-13.659,0.83333
12.259,21.016001,11.707,9.8039,15.534,15.34,28.986,7.6651,20.323999,9.8039,15.534,20.792,2.8436,1.8501,11.492,18.357,12.5,2.7432,15.229,-4.878,6.6026
14.155,17.205999,13.659,10.784,12.621,21.165001,23.188,9.5974,13.528,10.784,12.621,19.802,5.6872,6.6348,17.205999,19.323999,19.231001,9.4418,7.6461,2.9268,11.41
12.259,5.7778,9.7561,12.745,10.68,14.369,9.6618,10.564,5.7605,12.745,10.68,9.901,7.5829,5.6778,14.349,11.594,14.423,10.399,1.9589,3.9024,9.4872
5.624,-5.6508,0.0,10.784,12.621,6.6019,0.0,7.6651,3.8188,10.784,12.621,1.9802,0.0,-0.0638,3.873,-2.8986,-0.96154,6.571,-5.624,1.9512,1.7949
-6.6983,-10.413,-11.707,4.902,6.7961,-6.0194,-2.8986,1.868,0.90615,4.902,6.7961,-5.9406,-9.4787,-7.7193,-8.5079,-12.56,-14.423,-2.0415,-11.311,-2.9268,-3.0128
-13.333,-11.365,-17.561001,3.9216,-1.9417,-11.845,-6.7633,-2.963,-1.0356,3.9216,-1.9417,-10.891,-7.5829,-4.8485,-11.365,-14.493,-15.385,-4.9123,-11.311,0.0,-4.9359
-15.229,-11.365,-18.537001,-6.8627,-4.8544,-8.932,-9.6618,-8.7601,-3.9482,-6.8627,-4.8544,-11.881,-2.8436,-1.9777,-13.27,-12.56,-12.5,-9.697,-8.4676,0.0,-4.9359
-13.333,-8.5079,-13.659,-4.902,-5.8252,-7.9612,-7.7295,-7.7939,-0.06472,-4.902,-5.8252,-9.901,-0.94787,-3.8915,-14.222,-7.7295,-10.577,-9.697,2.9068,-2.9268,-3.9744
-10.49,-5.6508,-5.8537,6.8627,0.0,-9.9029,-1.9324,-2.963,4.7896,6.8627,0.0,-6.9307,-2.8436,-6.7624,-13.27,-4.8309,-11.538,-3.9553,10.49,-5.8537,-3.0128
-7.6461,-1.8413,-1.9512,4.902,4.8544,-8.932,0.0,-1.9968,5.7605,4.902,4.8544,-4.9505,-6.6351,-9.6332,-9.4603,-2.8986,-12.5,-2.9984,9.5419,-4.878,-3.9744
-1.0111,5.7778,3.9024,0.98039,8.7379,-2.1359,6.7633,-1.0306,8.6731,0.98039,8.7379,0.9901,-7.5829,-9.6332,-2.7937,1.9324,-6.7308,-2.0415,7.6461,0.0,-3.9744
2.7804,12.444,7.8049,4.902,12.621,4.6602,8.6957,2.8341,9.644,4.902,12.621,7.9208,-6.6351,-6.7624,1.0159,6.7633,1.9231,-2.9984,5.7504,-6.8293,-2.0513
8.4676,16.254,13.659,7.8431,15.534,13.398,13.527,4.7665,13.528,7.8431,15.534,14.851,-1.8957,-0.0638,6.7302,13.527,11.538,-2.9984,7.6461,-6.8293,2.7564
9.4155,12.444,16.584999,9.8039,10.68,15.34,14.493,5.7327,14.498,9.8039,10.68,14.851,4.7393,5.6778,8.6349,14.493,14.423,2.7432,6.6983,-1.9512,6.6026
7.5197,6.7302,13.659,16.667,11.65,8.5437,14.493,6.6989,14.498,16.667,11.65,10.891,7.5829,4.7209,8.6349,10.628,13.462,5.614,7.6461,0.0,7.5641
5.624,1.9683,8.7805,15.686,15.534,2.7184,8.6957,6.6989,9.644,15.686,15.534,6.9307,3.7915,0.89314,7.6825,4.8309,11.538,2.7432,0.06319,0.97561,1.7949
6.5719,0.06349,3.9024,-0.98039,7.767,6.6019,2.8986,5.7327,5.7605,-0.98039,7.767,4.9505,-3.7915,-1.9777,6.7302,-0.96618,5.7692,3.7002,-0.88468,0.0,-1.0897
1.8325,-3.746,-5.8537,0.98039,-3.8835,3.6893,0.0,4.7665,1.877,0.98039,-3.8835,0.0,-6.6351,-5.8054,-0.88889,-6.7633,-4.8077,3.7002,-1.8325,0.0,-3.0128
-4.8025,-10.413,-11.707,10.784,-0.97087,-3.1068,-9.6618,3.8003,-3.9482,10.784,-0.97087,-7.9208,-6.6351,-8.6762,-5.6508,-12.56,-10.577,1.7863,-6.5719,3.9024,-3.9744
-9.5419,-15.175,-10.732,4.902,0.97087,-4.0777,-13.527,-0.06441,-7.8317,4.902,0.97087,-9.901,-5.6872,-9.6332,-9.4603,-14.493,-10.577,-0.12759,-12.259,0.0,-8.7821
-7.6461,-12.317,-4.878,-6.8627,-4.8544,-3.1068,-10.628,-1.0306,-10.744,-6.8627,-4.8544,-6.9307,-1.8957,-6.7624,-6.6032,-9.6618,-5.7692,-8.74,-17.945999,0.0,-10.705
2.7804,-5.6508,3.9024,-17.646999,-9.7087,10.485,-4.8309,0.90177,-12.686,-17.646999,-9.7087,0.0,0.94787,-1.0207,-0.88889,-1.9324,-0.96154,2.7432,-24.580999,3.9024,-7.8205
6.5719,-0.88889,5.8537,-8.8235,-10.68,6.6019,-0.96618,2.8341,-8.8026,-8.8235,-10.68,2.9703,-3.7915,-7.7193,2.9206,0.96618,-0.96154,14.226,-15.103,6.8293,-8.7821
3.7283,0.06349,3.9024,8.8235,-3.8835,-8.932,-1.9324,0.90177,-3.9482,8.8235,-3.8835,0.0,-1.8957,-8.6762,4.8254,0.0,0.0,10.399,0.06319,3.9024,-9.7436
-0.06319,-1.8413,-0.97561,7.8431,4.8544,-7.9612,-5.7971,-1.0306,-0.06472,7.8431,4.8544,-2.9703,-2.8436,-7.7193,1.9683,-3.8647,-2.8846,2.7432,2.9068,-4.878,-10.705
-4.8025,-5.6508,-6.8293,-3.9216,0.97087,-8.932,-9.6618,-3.9291,-0.06472,-3.9216,0.97087,-6.9307,-2.8436,-4.8485,-4.6984,-8.6957,-6.7308,-1.0845,2.9068,-6.8293,-6.859
-6.6983,-5.6508,-7.8049,-13.725,-5.8252,-3.1068,-5.7971,-8.7601,3.8188,-13.725,-5.8252,-4.9505,-0.94787,-2.9346,-7.5556,-6.7633,-5.7692,-5.8692,7.6461,-6.8293,-2.0513
-5.7504,-0.88889,-3.9024,-12.745,-1.9417,-0.19417,0.0,-4.8953,5.7605,-12.745,-1.9417,-0.9901,5.6872,0.89314,-6.6032,-2.8986,0.0,-10.654,10.49,-3.9024,-1.0897
-1.0111,5.7778,2.9268,-2.9412,4.8544,0.7767,8.6957,1.868,8.6731,-2.9412,4.8544,5.9406,-2.8436,-2.9346,-2.7937,-0.96618,1.9231,-4.9123,7.6461,-6.8293,-3.9744
3.7283,8.6349,6.8293,4.902,12.621,3.6893,11.594,4.7665,9.644,4.902,12.621,10.891,-4.7393,-2.9346,-0.88889,0.96618,1.9231,1.7863,3.8547,-7.8049,-2.0513
3.7283,8.6349,6.8293,14.706,10.68,2.7184,7.7295,5.7327,5.7605,14.706,10.68,9.901,-0.94787,2.807,0.06349,2.8986,2.8846,0.82935,-0.88468,-10.732,2.7564
5.624,8.6349,7.8049,11.765,3.8835,5.6311,4.8309,4.7665,2.8479,11.765,3.8835,5.9406,5.6872,9.5056,3.873,8.6957,9.6154,3.7002,1.0111,-5.8537,5.641
6.5719,9.5873,8.7805,-4.902,1.9417,9.5146,3.8647,1.868,0.90615,-4.902,1.9417,3.9604,6.6351,9.5056,8.6349,12.56,13.462,4.6571,1.9589,4.878,7.5641
3.7283,4.8254,6.8293,-6.8627,-0.97087,0.7767,0.0,3.8003,-2.0065,-6.8627,-0.97087,0.9901,2.8436,6.6348,7.6825,7.7295,8.6538,3.7002,-3.7283,8.7805,4.6795
3.7283,-2.7937,2.9268,1.9608,-2.9126,-3.1068,-2.8986,6.6989,-6.8608,1.9608,-2.9126,0.0,5.6872,4.7209,5.7778,0.0,3.8462,5.614,-8.4676,8.7805,1.7949
6.5719,-3.746,4.878,7.8431,-5.8252,2.7184,-2.8986,8.6312,-8.8026,7.8431,-5.8252,1.9802,-1.8957,-1.0207,4.8254,-1.9324,0.96154,13.27,-5.624,5.8537,-2.0513
9.4155,1.0159,9.7561,7.8431,-1.9417,7.5728,1.9324,8.6312,-7.8317,7.8431,-1.9417,6.9307,-2.8436,-1.9777,6.7302,-0.96618,0.96154,13.27,-5.624,9.7561,-5.8974
4.6761,2.9206,6.8293,5.8824,0.97087,7.5728,4.8309,3.8003,-1.0356,5.8824,0.97087,6.9307,2.8436,1.8501,5.7778,1.9324,2.8846,5.614,-1.8325,9.7561,-1.0897
-6.6983,-6.6032,-7.8049,-5.8824,-0.97087,-3.1068,-6.7633,-2.963,-2.9773,-5.8824,-0.97087,-5.9406,4.7393,8.5486,0.06349,0.0,3.8462,-2.0415,-4.6761,5.8537,3.7179
-15.229,-17.079,-21.462999,-16.667,-7.767,-9.9029,-16.424999,-8.7601,-5.89,-16.667,-7.767,-18.812,1.8957,6.6348,-6.6032,-5.7971,0.0,-6.8262,-7.5197,0.0,2.7564
-11.438,-14.222,-18.537001,-18.627001,-9.7087,-3.1068,-11.594,-8.7601,-3.9482,-18.627001,-9.7087,-14.851,-2.8436,-2.9346,-7.5556,-7.7295,-4.8077,-3.9553,-2.7804,-1.9512,-1.0897
-11.438,-9.4603,-11.707,-10.784,-6.7961,-9.9029,-7.7295,-6.8277,-2.9773,-10.784,-6.7961,-9.901,-6.6351,-5.8054,-9.4603,-10.628,-7.6923,-13.525,-2.7804,-6.8293,-4.9359
-9.5419,-5.6508,-5.8537,0.0,-2.9126,-12.816,-2.8986,-2.963,-0.06472,0.0,-2.9126,-5.9406,-1.8957,-1.0207,-8.5079,-8.6957,-4.8077,-5.8692,-5.624,-4.878,-3.0128
-10.49,-6.6032,-6.8293,-4.902,-3.8835,-8.932,-3.8647,-4.8953,-0.06472,-4.902,-3.8835,-6.9307,-1.8957,-0.0638,-7.5556,-5.7971,-3.8462,-2.0415,1.0111,-4.878,1.7949
-11.438,-11.365,-13.659,-15.686,-15.534,-7.9612,-7.7295,-8.7601,-2.0065,-15.686,-15.534,-9.901,-1.8957,2.807,-8.5079,-5.7971,-5.7692,-5.8692,1.9589,-3.9024,3.7179
-8.594,-11.365,-15.61,-18.627001,-18.447001,-5.0485,-7.7295,-10.692,-5.89,-18.627001,-18.447001,-10.891,10.427,12.376,-2.7937,-2.8986,0.0,-0.12759,-1.8325,0.97561,5.641
-4.8025,-4.6984,-8.7805,-15.686,-6.7961,-6.0194,-5.7971,-11.659,-5.89,-15.686,-6.7961,-7.9208,14.218,15.247,4.8254,2.8986,7.6923,3.7002,1.0111,3.9024,8.5256
-1.9589,1.0159,-0.97561,-5.8824,-0.97087,-12.816,-3.8647,-8.7601,-2.0065,-5.8824,-0.97087,-5.9406,11.374,10.463,5.7778,4.8309,7.6923,-3.9553,1.0111,7.8049,9.4872
4.6761,7.6825,6.8293,-0.98039,1.9417,-4.0777,2.8986,-0.06441,2.8479,-0.98039,1.9417,2.9703,8.5308,9.5056,6.7302,6.7633,5.7692,4.6571,1.0111,9.7561,9.4872
4.6761,5.7778,3.9024,-6.8627,-1.9417,2.7184,2.8986,1.868,2.8479,-6.8627,-1.9417,3.9604,0.94787,0.89314,1.0159,3.8647,-1.9231,5.614,3.8547,2.9268,1.7949
-1.0111,0.06349,-0.97561,-9.8039,-7.767,0.7767,-0.96618,-2.963,-0.06472,-9.8039,-7.767,-0.9901,-0.94787,-1.9777,-4.6984,0.0,-6.7308,1.7863,2.9068,-2.9268,-3.9744
-5.7504,-0.88889,0.97561,-2.9412,-9.7087,-4.0777,-1.9324,-6.8277,-2.9773,-2.9412,-9.7087,-4.9505,0.94787,4.7209,-5.6508,2.8986,-1.9231,-2.9984,0.06319,-8.7805,-0.12821
-6.6983,-2.7937,1.9512,4.902,-3.8835,-13.786,-5.7971,-6.8277,-4.9191,4.902,-3.8835,-8.9109,2.8436,5.6778,-3.746,1.9324,0.96154,-8.74,-0.88468,-3.9024,0.83333
-5.7504,-5.6508,-1.9512,-7.8431,-4.8544,-15.728,-10.628,-10.692,-7.8317,-7.8431,-4.8544,-10.891,6.6351,2.807,-1.8413,-3.8647,-0.96154,-0.12759,-3.7283,2.9268,-3.0128
-1.9589,-6.6032,-4.878,-23.528999,-16.504999,-5.0485,-10.628,-8.7601,-9.7735,-23.528999,-16.504999,-9.901,6.6351,-2.9346,1.0159,-6.7633,-0.96154,5.614,-7.5197,6.8293,-7.8205
-3.8547,-8.5079,-6.8293,-9.8039,-12.621,-6.0194,-11.594,-4.8953,-9.7735,-9.8039,-12.621,-9.901,0.0,-6.7624,-0.88889,-9.6618,-2.8846,-2.0415,-8.4676,1.9512,-10.705
-4.8025,-5.6508,-1.9512,-5.8824,-6.7961,-9.9029,-9.6618,-4.8953,-6.8608,-5.8824,-6.7961,-8.9109,3.7915,-1.0207,0.06349,-5.7971,0.0,-2.0415,-6.5719,3.9024,-6.859
-1.9589,-3.746,1.9512,-10.784,-6.7961,-5.0485,-8.6957,-9.7262,-3.9482,-10.784,-6.7961,-4.9505,1.8957,-1.0207,1.9683,-1.9324,2.8846,-1.0845,-1.8325,3.9024,-1.0897
-5.7504,-8.5079,-6.8293,-4.902,-17.476,-6.9903,-7.7295,-7.7939,-4.9191,-4.902,-17.476,-6.9307,-5.6872,-6.7624,-1.8413,-6.7633,-3.8462,-6.8262,-2.7804,-4.878,-4.9359
-8.594,-8.5079,-13.659,0.0,-5.8252,-11.845,-5.7971,-4.8953,-2.9773,0.0,-5.8252,-9.901,0.0,-7.7193,-2.7937,-9.6618,-7.6923,-4.9123,-3.7283,-2.9268,-5.8974
-6.6983,-2.7937,-8.7805,-2.9412,7.767,-8.932,-2.8986,-5.8615,0.90615,-2.9412,7.767,-7.9208,-0.94787,-1.9777,0.06349,-3.8647,-4.8077,-3.9553,3.8547,0.0,0.83333
-2.9068,1.9683,-2.9268,-13.725,4.8544,2.7184,2.8986,-7.7939,3.8188,-13.725,4.8544,-0.9901,0.0,2.807,1.9683,0.96618,-0.96154,-6.8262,8.594,2.9268,7.5641
-3.8547,-2.7937,-5.8537,-10.784,-2.9126,3.6893,0.96618,-5.8615,1.877,-10.784,-2.9126,-1.9802,-3.7915,1.8501,-1.8413,-3.8647,-2.8846,-8.74,-1.8325,0.0,1.7949
-6.6983,-6.6032,-10.732,-3.9216,-6.7961,-4.0777,-0.96618,-3.9291,-1.0356,-3.9216,-6.7961,-3.9604,-5.6872,-1.9777,-6.6032,-4.8309,-3.8462,-8.74,-4.6761,-1.9512,-1.0897
-7.6461,-2.7937,-8.7805,-3.9216,-2.9126,-6.0194,-0.96618,-2.963,-1.0356,-3.9216,-2.9126,-3.9604,-1.8957,-0.0638,-5.6508,0.0,0.0,0.82935,1.0111,0.0,1.7949
-8.594,-0.88889,-6.8293,3.9216,0.0,-8.932,-1.9324,-1.9968,-2.0065,3.9216,0.0,-4.9505,0.0,2.807,-5.6508,1.9324,0.0,3.7002,2.9068,-2.9268,1.7949
-4.8025,-0.88889,-2.9268,2.9412,-0.97087,-6.9903,-2.8986,-1.9968,-2.9773,2.9412,-0.97087,-4.9505,-0.94787,-0.0638,-4.6984,0.96618,-0.96154,-0.12759,-0.88468,0.0,0.83333
-2.9068,1.9683,0.0,-1.9608,-4.8544,-3.1068,-0.96618,-2.963,-1.0356,-1.9608,-4.8544,-3.9604,0.0,-1.0207,-3.746,0.0,-2.8846,-4.9123,3.8547,-1.9512,0.83333
-3.8547,0.06349,-0.97561,-12.745,-9.7087,-1.165,-0.96618,-3.9291,-3.9482,-12.745,-9.7087,-3.9604,-4.7393,-5.8054,-6.6032,-3.8647,-7.6923,-7.7831,1.9589,-9.7561,-2.0513
-1.9589,-2.7937,-1.9512,-13.725,-1.9417,0.7767,0.0,-1.9968,-2.9773,-13.725,-1.9417,-1.9802,-2.8436,-3.8915,-2.7937,-3.8647,-5.7692,-1.0845,0.06319,-4.878,-1.0897
-1.0111,-7.5556,-4.878,-12.745,-2.9126,2.7184,-2.8986,-3.9291,-5.89,-12.745,-2.9126,-3.9604,9.4787,4.7209,1.9683,-2.8986,-1.9231,-6.8262,1.0111,7.8049,1.7949
-8.594,-11.365,-11.707,4.902,-4.8544,-9.9029,-10.628,-5.8615,-7.8317,4.902,-4.8544,-12.871,2.8436,2.807,-3.746,-4.8309,-5.7692,-5.8692,-5.624,0.0,0.83333
-11.438,-10.413,-15.61,7.8431,-2.9126,-20.583,-10.628,-1.9968,-8.8026,7.8431,-2.9126,-14.851,-1.8957,0.89314,-8.5079,-5.7971,-9.6154,-2.0415,-5.624,-4.878,-1.0897
-11.438,-9.4603,-15.61,-2.9412,-11.65,-14.757,-9.6618,-1.9968,-10.744,-2.9412,-11.65,-12.871,1.8957,2.807,-10.413,-6.7633,-10.577,-2.0415,-9.4155,-3.9024,-0.12821
-7.6461,-6.6032,-10.732,-9.8039,-9.7087,-4.0777,-7.7295,-2.963,-8.8026,-9.8039,-9.7087,-5.9406,1.8957,0.89314,-9.4603,-7.7295,-11.538,-2.9984,-6.5719,-7.8049,-1.0897
-4.8025,-2.7937,-4.878,-17.646999,-6.7961,5.6311,-1.9324,-3.9291,-4.9191,-17.646999,-6.7961,0.9901,0.94787,1.8501,-9.4603,-6.7633,-11.538,-5.8692,-0.88468,-5.8537,-3.9744
-3.8547,-1.8413,-3.9024,0.0,3.8835,1.7476,-0.96618,-1.0306,-1.0356,0.0,3.8835,0.0,-0.94787,4.7209,-11.365,-5.7971,-10.577,-4.9123,2.9068,-2.9268,-1.0897
-3.8547,-1.8413,-3.9024,13.725,1.9417,-2.1359,-2.8986,1.868,-0.06472,13.725,1.9417,-0.9901,8.5308,8.5486,-10.413,-6.7633,-8.6538,-3.9553,2.9068,3.9024,1.7949
-1.0111,-3.746,-6.8293,5.8824,-2.9126,-0.19417,-3.8647,2.8341,-3.9482,5.8824,-2.9126,-1.9802,6.6351,7.5917,-5.6508,-6.7633,-5.7692,2.7432,1.0111,4.878,3.7179
-1.9589,-6.6032,-10.732,-1.9608,-1.9417,-0.19417,-5.7971,1.868,-5.89,-1.9608,-1.9417,-4.9505,1.8957,7.5917,-0.88889,-4.8309,0.96154,0.82935,-2.7804,0.97561,3.7179
3.7283,1.9683,-0.97561,-4.902,0.0,5.6311,0.0,2.8341,-2.0065,-4.902,0.0,0.9901,8.5308,14.29,9.5873,8.6957,13.462,0.82935,-2.7804,6.8293,8.5256
11.311,10.54,14.634,1.9608,2.9126,4.6602,8.6957,5.7327,0.90615,1.9608,2.9126,6.9307,10.427,15.247,17.205999,16.424999,21.153999,5.614,-2.7804,11.707,10.449
14.155,8.6349,20.488001,3.9216,-3.8835,5.6311,4.8309,1.868,-4.9191,3.9216,-3.8835,6.9307,8.5308,7.5917,19.111,11.594,17.308001,4.6571,-5.624,13.659,4.6795
13.207,3.873,16.584999,4.902,-0.97087,5.6311,-0.96618,2.8341,-5.89,4.902,-0.97087,3.9604,11.374,4.7209,17.205999,5.7971,10.577,7.5279,-7.5197,15.61,-0.12821
9.4155,2.9206,10.732,4.902,2.9126,1.7476,0.0,3.8003,-0.06472,4.902,2.9126,2.9703,6.6351,-0.0638,10.54,1.9324,3.8462,2.7432,-2.7804,9.7561,-3.0128
4.6761,4.8254,4.878,-1.9608,-0.97087,0.7767,2.8986,2.8341,3.8188,-1.9608,-0.97087,2.9703,1.8957,-3.8915,2.9206,0.0,-2.8846,-2.0415,2.9068,1.9512,-3.0128
4.6761,5.7778,3.9024,9.8039,0.97087,1.7476,3.8647,4.7665,2.8479,9.8039,0.97087,3.9604,-0.94787,-3.8915,1.9683,-0.96618,-3.8462,2.7432,2.9068,-2.9268,-2.0513
6.5719,1.9683,5.8537,7.8431,0.0,-0.19417,1.9324,4.7665,-2.0065,7.8431,0.0,1.9802,0.94787,-3.8915,6.7302,0.0,0.0,6.571,-1.8325,1.9512,-1.0897
7.5197,1.9683,9.7561,2.9412,1.9417,-2.1359,-0.96618,1.868,-2.0065,2.9412,1.9417,0.9901,7.5829,4.7209,11.492,4.8309,6.7308,7.5279,0.06319,9.7561,3.7179
11.311,8.6349,16.584999,2.9412,9.7087,5.6311,5.7971,4.7665,3.8188,2.9412,9.7087,7.9208,9.4787,8.5486,14.349,11.594,12.5,9.4418,1.9589,12.683,7.5641
11.311,13.397,17.561001,1.9608,7.767,13.398,11.594,6.6989,6.7314,1.9608,7.767,13.861,9.4787,6.6348,12.444,14.493,12.5,5.614,5.7504,11.707,6.6026
11.311,14.349,13.659,1.9608,6.7961,16.311001,13.527,3.8003,7.7023,1.9608,6.7961,14.851,0.94787,-5.8054,6.7302,11.594,4.8077,-0.12759,7.6461,5.8537,1.7949
13.207,19.111,15.61,0.98039,11.65,16.311001,17.391001,5.7327,11.586,0.98039,11.65,15.842,-6.6351,-8.6762,6.7302,11.594,2.8846,1.7863,14.281,1.9512,3.7179
12.259,16.254,14.634,13.725,8.7379,8.5437,16.424999,7.6651,9.644,13.725,8.7379,14.851,-5.6872,-2.9346,6.7302,11.594,4.8077,-1.0845,10.49,0.97561,5.641
9.4155,7.6825,11.707,12.745,2.9126,6.6019,13.527,8.6312,5.7605,12.745,2.9126,13.861,-6.6351,-0.0638,6.7302,5.7971,3.8462,1.7863,0.06319,2.9268,4.6795
9.4155,3.873,11.707,14.706,8.7379,8.5437,10.628,8.6312,6.7314,14.706,8.7379,12.871,-6.6351,-1.9777,6.7302,2.8986,2.8846,10.399,4.8025,2.9268,4.6795
11.311,3.873,10.732,11.765,12.621,13.398,7.7295,8.6312,7.7023,11.765,12.621,11.881,-1.8957,-4.8485,6.7302,0.96618,0.96154,8.4848,6.6983,2.9268,-0.12821
10.363,3.873,4.878,3.9216,14.563,12.427,5.7971,9.5974,7.7023,3.9216,14.563,10.891,-3.7915,-6.7624,3.873,-1.9324,-1.9231,5.614,1.9589,-0.97561,-4.9359
7.5197,4.8254,3.9024,9.8039,9.7087,10.485,7.7295,8.6312,6.7314,9.8039,9.7087,9.901,-1.8957,-5.8054,1.9683,-0.96618,-0.96154,7.5279,-4.6761,-2.9268,-5.8974
4.6761,6.7302,6.8293,10.784,4.8544,11.456,9.6618,4.7665,7.7023,10.784,4.8544,8.9109,-0.94787,-5.8054,1.0159,1.9324,0.96154,7.5279,4.8025,-1.9512,-4.9359
7.5197,7.6825,10.732,8.8235,7.767,4.6602,8.6957,7.6651,7.7023,8.8235,7.767,7.9208,-6.6351,-9.6332,1.9683,4.8309,0.0,8.4848,15.229,-1.9512,-1.0897
7.5197,3.873,5.8537,0.98039,2.9126,6.6019,4.8309,7.6651,3.8188,0.98039,2.9126,5.9406,-10.427,-5.8054,0.06349,3.8647,-2.8846,6.571,10.49,-1.9512,2.7564
2.7804,-2.7937,-5.8537,-0.98039,-1.9417,6.6019,1.9324,4.7665,-1.0356,-0.98039,-1.9417,1.9802,-14.218,-10.59,-5.6508,-3.8647,-8.6538,0.82935,3.8547,-2.9268,-1.0897
-0.06319,-3.746,-3.9024,6.8627,0.0,3.6893,-0.96618,5.7327,-0.06472,6.8627,0.0,0.0,-7.5829,-11.547,-3.746,-2.8986,-7.6923,2.7432,1.0111,-2.9268,-2.0513
3.7283,1.0159,7.8049,6.8627,4.8544,1.7476,-0.96618,5.7327,1.877,6.8627,4.8544,2.9703,-1.8957,-5.8054,2.9206,2.8986,0.96154,5.614,1.9589,0.0,0.83333
5.624,4.8254,12.683,4.902,5.8252,5.6311,0.0,2.8341,2.8479,4.902,5.8252,4.9505,-1.8957,-2.9346,5.7778,6.7633,6.7308,3.7002,-4.6761,-1.9512,-0.12821
4.6761,4.8254,6.8293,2.9412,4.8544,3.6893,1.9324,0.90177,4.7896,2.9412,4.8544,2.9703,2.8436,2.807,6.7302,9.6618,9.6154,3.7002,1.0111,2.9268,5.641
2.7804,1.0159,-2.9268,-5.8824,0.0,1.7476,-0.96618,1.868,2.8479,-5.8824,0.0,-0.9901,6.6351,5.6778,4.8254,7.7295,8.6538,-1.0845,7.6461,-1.9512,6.6026
-1.0111,-1.8413,-6.8293,-2.9412,-2.9126,-2.1359,-0.96618,-1.9968,1.877,-2.9412,-2.9126,-2.9703,0.0,2.807,0.06349,2.8986,5.7692,-4.9123,1.9589,-7.8049,1.7949
-7.6461,-0.88889,-6.8293,8.8235,-1.9417,-7.9612,-0.96618,-2.963,2.8479,8.8235,-1.9417,-2.9703,-7.5829,-3.8915,-7.5556,-2.8986,-0.96154,-7.7831,3.8547,-12.683,-3.0128
-8.594,1.9683,-2.9268,-1.9608,3.8835,0.7767,2.8986,-3.9291,3.8188,-1.9608,3.8835,-0.9901,-6.6351,-8.6762,-10.413,-3.8647,-5.7692,-3.9553,-0.88468,-10.732,-4.9359
-7.6461,1.9683,-2.9268,5.8824,7.767,-6.0194,2.8986,-2.963,5.7605,5.8824,7.767,-2.9703,-2.8436,-6.7624,-3.746,-0.96618,-1.9231,-1.0845,2.9068,-1.9512,-3.9744
-2.9068,-3.746,-5.8537,10.784,2.9126,-10.874,0.96618,1.868,5.7605,10.784,2.9126,-5.9406,0.94787,-3.8915,4.8254,-1.9324,1.9231,2.7432,2.9068,4.878,-3.9744
0.88468,-10.413,-9.7561,-0.98039,0.97087,-2.1359,-1.9324,5.7327,0.90615,-0.98039,0.97087,-3.9604,-0.94787,-6.7624,1.9683,-11.594,-4.8077,8.4848,-10.363,4.878,-9.7436
1.8325,-11.365,-8.7805,-1.9608,6.7961,5.6311,-6.7633,6.6989,0.90615,-1.9608,6.7961,0.0,0.94787,-6.7624,-0.88889,-15.459,-6.7308,10.399,-12.259,6.8293,-11.667
1.8325,-1.8413,-2.9268,0.98039,4.8544,6.6019,0.96618,1.868,3.8188,0.98039,4.8544,4.9505,1.8957,-1.0207,0.06349,-4.8309,0.0,4.6571,1.0111,1.9512,-5.8974
-3.8547,-0.88889,-3.9024,4.902,0.97087,0.7767,0.96618,-0.06441,1.877,4.902,0.97087,1.9802,-7.5829,-4.8485,-6.6032,-0.96618,-2.8846,-3.9553,1.0111,-5.8537,-3.0128
-8.594,-4.6984,-12.683,4.902,1.9417,3.6893,1.9324,0.90177,0.90615,4.902,1.9417,-0.9901,-13.27,-8.6762,-15.175,-5.7971,-9.6154,-7.7831,1.9589,-12.683,-3.9744
-7.6461,-4.6984,-14.634,10.784,4.8544,2.7184,5.7971,4.7665,4.7896,10.784,4.8544,0.0,-8.5308,-6.7624,-14.222,-5.7971,-10.577,-2.0415,3.8547,-9.7561,-3.0128
-4.8025,-2.7937,-11.707,1.9608,-0.97087,4.6602,4.8309,0.90177,4.7896,1.9608,-0.97087,2.9703,-3.7915,-3.8915,-9.4603,-5.7971,-6.7308,-1.0845,1.0111,-5.8537,-3.9744
-1.0111,1.9683,-3.9024,0.0,5.8252,5.6311,5.7971,0.90177,8.6731,0.0,5.8252,6.9307,-4.7393,-3.8915,-4.6984,-3.8647,-2.8846,-1.0845,1.0111,-9.7561,-3.0128
0.88468,5.7778,3.9024,13.725,18.447001,-3.1068,7.7295,3.8003,8.6731,13.725,18.447001,8.9109,-2.8436,-5.8054,-1.8413,-2.8986,0.0,-0.12759,-0.88468,-6.8293,-3.0128
-0.06319,2.9206,3.9024,15.686,11.65,-4.0777,4.8309,4.7665,7.7023,15.686,11.65,5.9406,0.0,-4.8485,-0.88889,-1.9324,1.9231,-3.9553,2.9068,-2.9268,-3.0128
-1.0111,-2.7937,-2.9268,0.0,0.97087,2.7184,0.0,2.8341,2.8479,0.0,0.97087,0.9901,-1.8957,-1.0207,-1.8413,-0.96618,1.9231,-3.9553,5.7504,-5.8537,-1.0897
-1.9589,-1.8413,-3.9024,-7.8431,-7.767,9.5146,0.96618,0.90177,-1.0356,-7.8431,-7.767,0.9901,-3.7915,2.807,-5.6508,0.96618,-0.96154,-3.9553,2.9068,-6.8293,3.7179
-4.8025,1.9683,-1.9512,-1.9608,0.0,4.6602,1.9324,-0.06441,-0.06472,-1.9608,0.0,0.9901,-6.6351,1.8501,-8.5079,5.7971,-2.8846,-0.12759,1.0111,-7.8049,6.6026
-5.7504,2.9206,0.0,2.9412,2.9126,-6.9903,0.0,-2.963,-0.06472,2.9412,2.9126,0.0,0.0,2.807,-9.4603,4.8309,-4.8077,0.82935,-4.6761,-4.878,5.641
-3.8547,0.06349,-0.97561,9.8039,-0.97087,-10.874,-1.9324,-1.9968,-0.06472,9.8039,-0.97087,-2.9703,-4.7393,-2.9346,-8.5079,0.0,-8.6538,-2.0415,1.9589,-2.9268,0.83333
1.8325,-2.7937,-1.9512,3.9216,3.8835,-5.0485,-2.8986,3.8003,-0.06472,3.9216,3.8835,-1.9802,0.0,-3.8915,-0.88889,-1.9324,-5.7692,-0.12759,6.6983,2.9268,-2.0513
5.624,-2.7937,0.0,-6.8627,1.9417,7.5728,-2.8986,3.8003,-1.0356,-6.8627,1.9417,0.9901,-4.7393,-6.7624,3.873,0.0,0.0,6.571,2.9068,0.0,-2.0513
4.6761,0.06349,5.8537,-9.8039,-5.8252,5.6311,-0.96618,-1.0306,-1.0356,-9.8039,-5.8252,1.9802,-5.6872,-4.8485,7.6825,4.8309,4.8077,6.571,2.9068,0.97561,1.7949
3.7283,-1.8413,5.8537,-5.8824,-4.8544,-1.165,-5.7971,-1.9968,-2.9773,-5.8824,-4.8544,-1.9802,5.6872,-0.0638,10.54,1.9324,6.7308,2.7432,-2.7804,9.7561,-0.12821
1.8325,-6.6032,2.9268,6.8627,-4.8544,-6.9903,-7.7295,-1.0306,-4.9191,6.8627,-4.8544,-5.9406,0.94787,-2.9346,5.7778,-4.8309,1.9231,1.7863,-5.624,3.9024,-7.8205
3.7283,-1.8413,5.8537,7.8431,1.9417,-3.1068,-4.8309,1.868,-1.0356,7.8431,1.9417,-0.9901,0.0,-0.0638,4.8254,-0.96618,1.9231,2.7432,-1.8325,1.9512,-3.0128
3.7283,5.7778,7.8049,-2.9412,7.767,2.7184,-0.96618,-0.06441,1.877,-2.9412,7.767,3.9604,3.7915,4.7209,4.8254,5.7971,3.8462,1.7863,-2.7804,2.9268,2.7564
-1.0111,8.6349,6.8293,0.98039,3.8835,1.7476,1.9324,-1.0306,3.8188,0.98039,3.8835,3.9604,3.7915,4.7209,2.9206,9.6618,3.8462,-5.8692,3.8547,1.9512,5.641
-0.06319,9.5873,8.7805,-5.8824,-4.8544,4.6602,7.7295,-1.0306,2.8479,-5.8824,-4.8544,4.9505,3.7915,2.807,1.9683,8.6957,3.8462,-4.9123,10.49,0.97561,6.6026
4.6761,6.7302,10.732,2.9412,-6.7961,6.6019,7.7295,4.7665,2.8479,2.9412,-6.7961,6.9307,-1.8957,-1.0207,1.0159,4.8309,1.9231,-4.9123,5.7504,-2.9268,1.7949
7.5197,3.873,9.7561,15.686,13.592,9.5146,5.7971,9.5974,4.7896,15.686,13.592,8.9109,-6.6351,-3.8915,0.06349,-0.96618,-1.9231,0.82935,-0.88468,-4.878,-5.8974
3.7283,1.0159,2.9268,13.725,16.504999,4.6602,3.8647,9.5974,3.8188,13.725,16.504999,5.9406,-2.8436,-4.8485,-2.7937,-8.6957,-7.6923,5.614,-5.624,-0.97561,-9.7436
0.88468,-1.8413,-2.9268,5.8824,6.7961,-0.19417,0.0,4.7665,0.90615,5.8824,6.7961,0.9901,-7.5829,-8.6762,-4.6984,-9.6618,-11.538,6.571,-11.311,0.97561,-9.7436
-0.06319,-0.88889,-4.878,-4.902,-4.8544,2.7184,-0.96618,-1.9968,-2.0065,-4.902,-4.8544,-0.9901,-6.6351,-7.7193,-1.8413,-6.7633,-8.6538,7.5279,-4.6761,3.9024,-7.8205
0.88468,1.9683,-3.9024,0.0,-2.9126,-0.19417,0.0,-0.06441,-2.0065,0.0,-2.9126,-0.9901,-0.94787,-5.8054,1.0159,-3.8647,-4.8077,9.4418,1.9589,8.7805,-4.9359
-0.06319,2.9206,0.0,5.8824,-0.97087,-7.9612,-0.96618,-0.06441,-2.0065,5.8824,-0.97087,-3.9604,-0.94787,-3.8915,1.9683,0.96618,-0.96154,6.571,1.0111,12.683,-1.0897
0.88468,5.7778,5.8537,-3.9216,-4.8544,-5.0485,1.9324,-4.8953,1.877,-3.9216,-4.8544,-2.9703,4.7393,8.5486,4.8254,9.6618,7.6923,1.7863,-0.88468,1.9512,6.6026
1.8325,8.6349,9.7561,-9.8039,2.9126,1.7476,6.7633,-5.8615,6.7314,-9.8039,2.9126,0.9901,13.27,16.204,7.6825,14.493,13.462,-7.7831,6.6983,-3.9024,13.333
-1.0111,7.6825,8.7805,0.98039,5.8252,-0.19417,4.8309,-3.9291,6.7314,0.98039,5.8252,2.9703,9.4787,7.5917,5.7778,11.594,12.5,-10.654,6.6983,-4.878,10.449
-0.06319,6.7302,12.683,4.902,10.68,-3.1068,3.8647,-1.9968,5.7605,4.902,10.68,5.9406,1.8957,4.7209,3.873,9.6618,12.5,-10.654,4.8025,-10.732,6.6026
6.5719,9.5873,18.537001,5.8824,10.68,5.6311,8.6957,1.868,5.7605,5.8824,10.68,11.881,-2.8436,3.764,3.873,8.6957,11.538,-7.7831,1.9589,-9.7561,7.5641
12.259,10.54,20.488001,2.9412,6.7961,16.311001,11.594,3.8003,6.7314,2.9412,6.7961,15.842,-2.8436,3.764,4.8254,5.7971,8.6538,0.82935,7.6461,-5.8537,3.7179
12.259,7.6825,15.61,7.8431,5.8252,12.427,7.7295,1.868,7.7023,7.8431,5.8252,12.871,2.8436,3.764,5.7778,4.8309,6.7308,7.5279,12.385,2.9268,0.83333
4.6761,1.9683,3.9024,1.9608,-0.97087,0.7767,1.9324,-2.963,1.877,1.9608,-0.97087,4.9505,0.94787,-0.0638,1.9683,-0.96618,0.0,5.614,5.7504,4.878,-1.0897
-0.06319,-0.88889,-2.9268,-3.9216,-8.7379,-0.19417,0.0,-3.9291,-2.9773,-3.9216,-8.7379,1.9802,-5.6872,-3.8915,-3.746,-5.7971,-10.577,-1.0845,1.0111,0.0,-5.8974
3.7283,3.873,4.878,-3.9216,-5.8252,5.6311,0.0,-1.0306,-4.9191,-3.9216,-5.8252,3.9604,-0.94787,-1.0207,-2.7937,-1.9324,-7.6923,-0.12759,-4.6761,-2.9268,-4.9359
6.5719,8.6349,11.707,-7.8431,-0.97087,6.6019,1.9324,0.90177,-1.0356,-7.8431,-0.97087,5.9406,2.8436,5.6778,2.9206,9.6618,2.8846,1.7863,-5.624,0.97561,4.6795
3.7283,8.6349,5.8537,-4.902,1.9417,0.7767,1.9324,-1.0306,1.877,-4.902,1.9417,2.9703,3.7915,10.463,4.8254,16.424999,9.6154,-0.12759,1.9589,4.878,14.295
-1.9589,2.9206,-4.878,1.9608,0.0,-6.0194,-0.96618,-3.9291,0.90615,1.9608,0.0,-1.9802,4.7393,9.5056,2.9206,12.56,9.6154,-4.9123,12.385,4.878,14.295
-4.8025,-1.8413,-7.8049,3.9216,-0.97087,-9.9029,-2.8986,-5.8615,-0.06472,3.9216,-0.97087,-4.9505,-3.7915,0.89314,0.06349,6.7633,3.8462,-8.74,12.385,-1.9512,8.5256
1.8325,1.9683,2.9268,0.98039,-3.8835,-1.165,3.8647,-3.9291,-0.06472,0.98039,-3.8835,1.9802,-3.7915,-3.8915,2.9206,5.7971,2.8846,-2.0415,12.385,0.97561,7.5641
3.7283,4.8254,5.8537,-4.902,-10.68,4.6602,5.7971,-1.9968,0.90615,-4.902,-10.68,4.9505,3.7915,0.89314,6.7302,6.7633,5.7692,1.7863,9.5419,7.8049,8.5256
0.88468,0.06349,-1.9512,-4.902,-4.8544,1.7476,0.96618,-1.0306,0.90615,-4.902,-4.8544,1.9802,2.8436,2.807,3.873,0.96618,2.8846,-0.12759,2.9068,2.9268,3.7179
-0.06319,-4.6984,-7.8049,0.98039,7.767,-1.165,-0.96618,0.90177,1.877,0.98039,7.767,0.9901,3.7915,0.89314,1.9683,-5.7971,-0.96154,-2.9984,-1.8325,1.9512,-4.9359
5.624,-2.7937,-4.878,6.8627,7.767,4.6602,0.96618,1.868,1.877,6.8627,7.767,4.9505,4.7393,-2.9346,2.9206,-7.7295,-2.8846,4.6571,-12.259,4.878,-10.705
5.624,1.9683,0.0,1.9608,0.97087,9.5146,2.8986,-0.06441,-1.0356,1.9608,0.97087,4.9505,2.8436,-2.9346,1.9683,-2.8986,-3.8462,7.5279,-9.4155,5.8537,-8.7821
-1.9589,3.873,-1.9512,-7.8431,0.0,3.6893,1.9324,-0.06441,-2.9773,-7.8431,0.0,1.9802,-5.6872,-3.8915,-4.6984,0.96618,-5.7692,2.7432,-0.88468,6.8293,-3.0128
-8.594,1.9683,-5.8537,5.8824,0.97087,-8.932,1.9324,4.7665,0.90615,5.8824,0.97087,0.0,-6.6351,-4.8485,-11.365,0.96618,-5.7692,0.82935,2.9068,-4.878,-2.0513
-6.6983,-2.7937,-7.8049,11.765,5.8252,-6.0194,3.8647,6.6989,4.7896,11.765,5.8252,1.9802,-6.6351,-2.9346,-12.317,-2.8986,-7.6923,0.82935,3.8547,-14.634,-2.0513
-1.0111,-1.8413,-2.9268,12.745,6.7961,-1.165,3.8647,5.7327,3.8188,12.745,6.7961,3.9604,-4.7393,-2.9346,-7.5556,-1.9324,-4.8077,-1.0845,4.8025,-8.7805,-0.12821
-0.06319,0.06349,0.97561,10.784,0.97087,0.7767,0.96618,1.868,-2.0065,10.784,0.97087,0.9901,-0.94787,3.764,-3.746,0.96618,0.0,-3.9553,1.0111,-5.8537,3.7179
-5.7504,1.0159,-1.9512,-8.8235,-6.7961,1.7476,-0.96618,-3.9291,0.90615,-8.8235,-6.7961,-2.9703,3.7915,4.7209,-2.7937,0.0,1.9231,-2.9984,-1.8325,-2.9268,2.7564
-6.6983,-3.746,-4.878,-10.784,-0.97087,-2.1359,-2.8986,-1.9968,1.877,-10.784,-0.97087,-4.9505,1.8957,1.8501,-4.6984,-4.8309,-1.9231,0.82935,-1.8325,-1.9512,-2.0513
-1.9589,-12.317,-6.8293,4.902,4.8544,-2.1359,-7.7295,1.868,-2.0065,4.902,4.8544,-5.9406,-1.8957,-3.8915,-3.746,-13.527,-7.6923,5.614,-6.5719,1.9512,-9.7436
3.7283,-13.27,-3.9024,10.784,2.9126,2.7184,-4.8309,3.8003,-2.9773,10.784,2.9126,-1.9802,-7.5829,-10.59,-1.8413,-17.391001,-12.5,3.7002,-13.207,1.9512,-13.59
4.6761,-7.5556,0.0,0.0,-1.9417,5.6311,-0.96618,3.8003,-2.0065,0.0,-1.9417,1.9802,-10.427,-10.59,-2.7937,-14.493,-12.5,3.7002,-16.051001,0.97561,-11.667
0.88468,-3.746,0.0,-5.8824,-12.621,-0.19417,-0.96618,0.90177,-2.9773,-5.8824,-12.621,0.0,-2.8436,-6.7624,-3.746,-8.6957,-10.577,-0.12759,-7.5197,4.878,-9.7436
-3.8547,-2.7937,-3.9024,-4.902,-6.7961,-6.0194,-3.8647,-1.0306,-2.9773,-4.902,-6.7961,-4.9505,-5.6872,-4.8485,-5.6508,-6.7633,-11.538,-1.0845,1.9589,2.9268,-6.859
-4.8025,-2.7937,-3.9024,-1.9608,0.97087,-4.0777,-5.7971,-1.9968,-1.0356,-1.9608,0.97087,-5.9406,-6.6351,-2.9346,-7.5556,-3.8647,-9.6154,0.82935,3.8547,-5.8537,-3.0128
-2.9068,-1.8413,-2.9268,0.0,1.9417,-4.0777,-2.8986,-2.963,-0.06472,0.0,1.9417,-3.9604,-4.7393,-2.9346,-6.6032,-0.96618,-4.8077,2.7432,1.0111,-7.8049,0.83333
-3.8547,-3.746,-5.8537,1.9608,-2.9126,-7.9612,-2.8986,-5.8615,-0.06472,1.9608,-2.9126,-4.9505,-5.6872,-2.9346,-5.6508,-3.8647,-4.8077,-0.12759,-1.8325,-2.9268,0.83333
-2.9068,-1.8413,-4.878,-8.8235,-0.97087,-5.0485,-1.9324,-4.8953,2.8479,-8.8235,-0.97087,-2.9703,-2.8436,0.89314,-2.7937,-1.9324,-0.96154,-2.9984,1.9589,-0.97561,-0.12821
-1.0111,2.9206,1.9512,-5.8824,4.8544,0.7767,1.9324,-5.8615,4.7896,-5.8824,4.8544,1.9802,10.427,9.5056,4.8254,4.8309,7.6923,-6.8262,1.0111,0.97561,3.7179
-0.06319,6.7302,8.7805,5.8824,8.7379,-0.19417,6.7633,-5.8615,4.7896,5.8824,8.7379,5.9406,11.374,9.5056,7.6825,5.7971,10.577,-11.611,2.9068,-0.97561,4.6795
-1.9589,3.873,7.8049,10.784,5.8252,-6.9903,1.9324,-4.8953,2.8479,10.784,5.8252,2.9703,6.6351,6.6348,2.9206,0.96618,5.7692,-13.525,1.0111,-3.9024,-0.12821
-1.9589,-0.88889,2.9268,0.98039,1.9417,-6.0194,-1.9324,-3.9291,-2.0065,0.98039,1.9417,-0.9901,6.6351,8.5486,0.06349,-0.96618,3.8462,-15.439,-4.6761,-2.9268,-1.0897
3.7283,-0.88889,0.97561,-2.9412,-1.9417,2.7184,-2.8986,-1.0306,-2.0065,-2.9412,-1.9417,0.0,15.166,12.376,3.873,3.8647,5.7692,-1.0845,-0.88468,4.878,3.7179
-1.0111,-3.746,-2.9268,-8.8235,-6.7961,-0.19417,-6.7633,-3.9291,-5.89,-8.8235,-6.7961,-5.9406,7.5829,10.463,1.0159,3.8647,3.8462,4.6571,-0.88468,0.97561,6.6026
-3.8547,-3.746,-1.9512,-7.8431,-6.7961,-1.165,-6.7633,-3.9291,-9.7735,-7.8431,-6.7961,-6.9307,0.0,4.7209,0.06349,2.8986,2.8846,1.7863,-5.624,-1.9512,2.7564
2.7804,3.873,8.7805,8.8235,-1.9417,-5.0485,1.9324,2.8341,-2.9773,8.8235,-1.9417,0.0,6.6351,8.5486,4.8254,5.7971,7.6923,5.614,-2.7804,1.9512,2.7564
5.624,6.7302,13.659,8.8235,-4.8544,-5.0485,2.8986,3.8003,-2.9773,8.8235,-4.8544,2.9703,9.4787,7.5917,5.7778,6.7633,8.6538,5.614,4.8025,4.878,4.6795
5.624,2.9206,8.7805,-5.8824,-7.767,-1.165,-5.7971,0.90177,-6.8608,-5.8824,-7.767,-0.9901,8.5308,7.5917,7.6825,10.628,10.577,3.7002,3.8547,9.7561,8.5256
1.8325,-4.6984,2.9268,-11.765,-9.7087,-5.0485,-14.493,-4.8953,-11.715,-11.765,-9.7087,-8.9109,10.427,7.5917,9.5873,8.6957,11.538,-0.12759,-4.6761,11.707,7.5641
1.8325,-4.6984,3.9024,-14.706,-10.68,-4.0777,-9.6618,-6.8277,-12.686,-14.706,-10.68,-7.9208,7.5829,2.807,7.6825,3.8647,9.6154,-2.9984,-7.5197,3.9024,1.7949
6.5719,5.7778,10.732,-8.8235,-3.8835,6.6019,2.8986,-6.8277,-3.9482,-8.8235,-3.8835,2.9703,4.7393,3.764,6.7302,5.7971,7.6923,-0.12759,-2.7804,0.0,2.7564
6.5719,11.492,12.683,3.9216,1.9417,1.7476,5.7971,-1.0306,0.90615,3.9216,1.9417,6.9307,4.7393,4.7209,6.7302,6.7633,8.6538,-5.8692,5.7504,1.9512,4.6795
3.7283,6.7302,5.8537,8.8235,-1.9417,-9.9029,1.9324,0.90177,-0.06472,8.8235,-1.9417,0.9901,9.4787,6.6348,7.6825,7.7295,8.6538,-5.8692,0.06319,6.8293,6.6026
0.88468,-1.8413,-3.9024,-8.8235,-3.8835,-6.0194,-1.9324,-3.9291,-2.0065,-8.8235,-3.8835,-3.9604,9.4787,7.5917,7.6825,5.7971,7.6923,-4.9123,0.06319,6.8293,8.5256
-0.06319,-2.7937,-4.878,-12.745,0.97087,5.6311,-0.96618,-8.7601,-2.0065,-12.745,0.97087,-1.9802,8.5308,9.5056,5.7778,5.7971,6.7308,0.82935,5.7504,3.9024,10.449
-0.06319,-1.8413,-1.9512,-3.9216,0.0,3.6893,-0.96618,-4.8953,-1.0356,-3.9216,0.0,-0.9901,3.7915,5.6778,2.9206,3.8647,1.9231,5.614,3.8547,3.9024,7.5641
2.7804,-0.88889,1.9512,5.8824,-4.8544,-4.0777,-1.9324,3.8003,-3.9482,5.8824,-4.8544,-0.9901,3.7915,1.8501,2.9206,0.96618,-1.9231,7.5279,1.9589,9.7561,2.7564
3.7283,-3.746,-1.9512,6.8627,-7.767,-6.0194,-3.8647,5.7327,-5.89,6.8627,-7.767,-3.9604,-0.94787,-1.0207,1.9683,-2.8986,-5.7692,3.7002,-0.88468,8.7805,-0.12821
2.7804,-6.6032,-5.8537,-9.8039,-5.8252,-4.0777,-4.8309,2.8341,-6.8608,-9.8039,-5.8252,-6.9307,-1.8957,-1.9777,3.873,-2.8986,-3.8462,6.571,-5.624,10.732,0.83333
1.8325,-6.6032,-5.8537,-16.667,-10.68,2.7184,-6.7633,-1.0306,-5.89,-16.667,-10.68,-6.9307,0.94787,0.89314,7.6825,0.96618,3.8462,11.356,-5.624,12.683,2.7564
-0.06319,-7.5556,-4.878,-3.9216,-10.68,0.7767,-10.628,0.90177,-7.8317,-3.9216,-10.68,-9.901,6.6351,1.8501,6.7302,0.0,4.8077,11.356,-3.7283,16.584999,2.7564
-2.9068,-5.6508,-2.9268,0.0,-5.8252,-6.9903,-11.594,2.8341,-9.7735,0.0,-5.8252,-9.901,2.8436,-0.0638,-1.8413,-3.8647,-0.96154,8.4848,-13.207,10.732,-2.0513
-1.9589,0.06349,0.0,0.98039,0.0,-6.9903,-4.8309,0.90177,-4.9191,0.98039,0.0,-5.9406,-1.8957,-1.9777,-3.746,-1.9324,-1.9231,4.6571,-6.5719,2.9268,-4.9359
-1.0111,-3.746,-4.878,-6.8627,-6.7961,-0.19417,-2.8986,-2.963,-3.9482,-6.8627,-6.7961,-5.9406,4.7393,-1.0207,0.06349,-4.8309,-1.9231,4.6571,-1.8325,2.9268,-5.8974
-2.9068,-11.365,-9.7561,-15.686,-6.7961,1.7476,-6.7633,-3.9291,-5.89,-15.686,-6.7961,-7.9208,0.94787,-0.0638,0.06349,-6.7633,-1.9231,-1.0845,-5.624,0.0,-3.9744
-3.8547,-10.413,-5.8537,-6.8627,0.0,0.7767,-7.7295,-2.963,-5.89,-6.8627,0.0,-4.9505,-7.5829,-6.7624,-4.6984,-6.7633,-5.7692,-8.74,-2.7804,-9.7561,-3.9744
-1.9589,-2.7937,0.97561,1.9608,0.0,-2.1359,-2.8986,-1.0306,-3.9482,1.9608,0.0,-1.9802,-6.6351,-8.6762,-3.746,-5.7971,-4.8077,-9.697,-2.7804,-10.732,-4.9359
-1.0111,1.0159,1.9512,2.9412,-3.8835,-6.9903,0.96618,-0.06441,-2.0065,2.9412,-3.8835,-1.9802,-7.5829,-4.8485,-0.88889,-2.8986,-1.9231,-6.8262,1.9589,-6.8293,-3.0128
-1.9589,1.0159,-0.97561,6.8627,-5.8252,-3.1068,1.9324,-1.9968,-1.0356,6.8627,-5.8252,-2.9703,-6.6351,-2.9346,-2.7937,-2.8986,-1.9231,-8.74,-0.88468,-10.732,-0.12821
-1.9589,1.9683,-1.9512,0.98039,0.0,2.7184,1.9324,-1.9968,1.877,0.98039,0.0,-1.9802,-0.94787,-1.9777,-1.8413,0.96618,0.0,-5.8692,5.7504,-9.7561,1.7949
-0.06319,2.9206,0.97561,-6.8627,0.0,3.6893,0.0,1.868,3.8188,-6.8627,0.0,0.0,2.8436,-0.0638,1.9683,4.8309,2.8846,-2.9984,11.438,-3.9024,3.7179
3.7283,1.9683,1.9512,2.9412,6.7961,1.7476,-0.96618,7.6651,0.90615,2.9412,6.7961,1.9802,0.0,1.8501,2.9206,3.8647,2.8846,1.7863,5.7504,0.0,3.7179
3.7283,0.06349,-2.9268,10.784,4.8544,2.7184,-2.8986,8.6312,-3.9482,10.784,4.8544,-0.9901,1.8957,4.7209,2.9206,0.0,-0.96154,2.7432,-1.8325,7.8049,4.6795
1.8325,-1.8413,-6.8293,0.0,-7.767,1.7476,-0.96618,4.7665,-4.9191,0.0,-7.767,-4.9505,7.5829,7.5917,2.9206,0.0,0.0,8.4848,-1.8325,7.8049,5.641
-0.06319,-2.7937,-6.8293,0.0,-8.7379,1.7476,-3.8647,4.7665,-3.9482,0.0,-8.7379,-5.9406,9.4787,5.6778,2.9206,0.96618,2.8846,11.356,-3.7283,3.9024,0.83333
-0.06319,-6.6032,-3.9024,-12.745,-5.8252,6.6019,-3.8647,1.868,-3.9482,-12.745,-5.8252,-3.9604,8.5308,4.7209,4.8254,0.0,3.8462,10.399,-7.5197,9.7561,-1.0897
-1.0111,-6.6032,-0.97561,0.0,2.9126,-0.19417,-6.7633,0.90177,-2.0065,0.0,2.9126,-2.9703,6.6351,2.807,2.9206,-0.96618,3.8462,3.7002,-2.7804,5.8537,-2.0513
-2.9068,-4.6984,-0.97561,15.686,4.8544,-6.0194,-8.6957,1.868,-2.9773,15.686,4.8544,-2.9703,4.7393,1.8501,-1.8413,-1.9324,0.96154,0.82935,-2.7804,-0.97561,-0.12821
-6.6983,-5.6508,-8.7805,4.902,-5.8252,-5.0485,-7.7295,-1.0306,-2.9773,4.902,-5.8252,-5.9406,1.8957,4.7209,-7.5556,-2.8986,-2.8846,-4.9123,-2.7804,-1.9512,3.7179
-7.6461,-1.8413,-9.7561,0.0,-5.8252,-4.0777,-3.8647,-1.0306,-0.06472,0.0,-5.8252,-4.9505,1.8957,9.5056,-6.6032,0.96618,-0.96154,-5.8692,7.6461,-2.9268,7.5641
-4.8025,-1.8413,-5.8537,-4.902,-5.8252,3.6893,0.0,-1.0306,0.90615,-4.902,-5.8252,-0.9901,0.94787,7.5917,-4.6984,0.0,0.96154,-4.9123,3.8547,-9.7561,5.641
1.8325,0.06349,0.0,-3.9216,6.7961,10.485,5.7971,1.868,5.7605,-3.9216,6.7961,7.9208,-1.8957,3.764,-2.7937,-2.8986,0.96154,-7.7831,3.8547,-8.7805,1.7949
-1.9589,-1.8413,-3.9024,-1.9608,3.8835,4.6602,5.7971,2.8341,5.7605,-1.9608,3.8835,5.9406,-5.6872,-2.9346,-7.5556,-6.7633,-3.8462,-6.8262,4.8025,-9.7561,-3.9744
-8.594,-5.6508,-11.707,9.8039,-1.9417,-6.0194,-0.96618,-0.06441,1.877,9.8039,-1.9417,-3.9604,-12.322,-7.7193,-12.317,-8.6957,-10.577,-6.8262,-4.6761,-14.634,-3.9744
-6.6983,-3.746,-10.732,5.8824,1.9417,-6.9903,-6.7633,-0.06441,-0.06472,5.8824,1.9417,-7.9208,-8.5308,-2.9346,-7.5556,-2.8986,-6.7308,-3.9553,0.06319,-13.659,0.83333
-3.8547,-4.6984,-7.8049,-1.9608,-0.97087,-5.0485,-7.7295,1.868,-2.0065,-1.9608,-0.97087,-7.9208,-1.8957,1.8501,-1.8413,0.0,-0.96154,-0.12759,2.9068,-5.8537,0.83333
-2.9068,-8.5079,-7.8049,-9.8039,-1.9417,-0.19417,-3.8647,-1.0306,-2.9773,-9.8039,-1.9417,-5.9406,0.0,-0.0638,-1.8413,-1.9324,-2.8846,3.7002,-3.7283,0.97561,-1.0897
-5.7504,-13.27,-10.732,-16.667,-6.7961,2.7184,-8.6957,-3.9291,-4.9191,-16.667,-6.7961,-7.9208,-5.6872,-5.8054,-5.6508,-8.6957,-8.6538,0.82935,-4.6761,-0.97561,-3.9744
-10.49,-19.937,-15.61,-3.9216,-11.65,-9.9029,-16.424999,-1.0306,-8.8026,-3.9216,-11.65,-14.851,-2.8436,-4.8485,-7.5556,-16.424999,-11.538,1.7863,-9.4155,0.97561,-6.859
-7.6461,-18.032,-14.634,8.8235,-4.8544,-10.874,-9.6618,3.8003,-7.8317,8.8235,-4.8544,-12.871,2.8436,-4.8485,-2.7937,-15.459,-6.7308,8.4848,-10.363,4.878,-9.7436
-0.06319,-9.4603,-7.8049,7.8431,4.8544,-4.0777,-4.8309,5.7327,-3.9482,7.8431,4.8544,-4.9505,0.94787,-5.8054,1.9683,-10.628,-2.8846,8.4848,-8.4676,3.9024,-8.7821
2.7804,-2.7937,-3.9024,2.9412,4.8544,0.7767,-1.9324,4.7665,-2.0065,2.9412,4.8544,-0.9901,-0.94787,-6.7624,1.9683,-6.7633,-2.8846,4.6571,-4.6761,3.9024,-6.859
0.88468,-0.88889,-3.9024,0.98039,1.9417,2.7184,1.9324,4.7665,-0.06472,0.98039,1.9417,1.9802,-6.6351,-10.59,-4.6984,-6.7633,-7.6923,2.7432,-1.8325,0.0,-7.8205
-3.8547,1.9683,-1.9512,-9.8039,-2.9126,3.6893,4.8309,0.90177,0.90615,-9.8039,-2.9126,3.9604,-8.5308,-10.59,-11.365,-5.7971,-11.538,-5.8692,-1.8325,-4.878,-5.8974
-0.06319,10.54,5.8537,5.8824,8.7379,10.485,13.527,2.8341,7.7023,5.8824,8.7379,11.881,-3.7915,-4.8485,-9.4603,1.9324,-6.7308,-4.9123,-4.6761,-1.9512,-1.0897
4.6761,14.349,11.707,17.646999,15.534,13.398,18.357,4.7665,11.586,17.646999,15.534,17.822001,-1.8957,-3.8915,-5.6508,3.8647,-1.9231,-3.9553,-1.8325,-4.878,2.7564
10.363,17.205999,15.61,13.725,19.417,16.311001,21.256001,4.7665,13.528,13.725,19.417,21.782,-0.94787,-2.9346,1.9683,7.7295,2.8846,-3.9553,10.49,-5.8537,6.6026
10.363,14.349,14.634,11.765,11.65,12.427,19.323999,3.8003,11.586,11.765,11.65,19.802,-1.8957,-2.9346,6.7302,8.6957,6.7308,0.82935,12.385,-3.9024,-0.12821
5.624,11.492,12.683,3.9216,7.767,1.7476,12.56,0.90177,5.7605,3.9216,7.767,11.881,3.7915,1.8501,8.6349,9.6618,9.6154,4.6571,7.6461,0.97561,-3.0128
2.7804,11.492,11.707,-2.9412,4.8544,0.7767,10.628,-3.9291,5.7605,-2.9412,4.8544,7.9208,6.6351,3.764,6.7302,10.628,7.6923,1.7863,8.594,4.878,2.7564
-0.06319,5.7778,6.8293,-2.9412,-2.9126,-4.0777,2.8986,-3.9291,3.8188,-2.9412,-2.9126,2.9703,3.7915,1.8501,2.9206,4.8309,1.9231,2.7432,2.9068,6.8293,3.7179
-0.06319,-0.88889,0.0,-5.8824,-2.9126,-5.0485,-1.9324,-1.0306,-1.0356,-5.8824,-2.9126,-0.9901,5.6872,0.89314,0.06349,-2.8986,-2.8846,4.6571,1.0111,6.8293,1.7949
-1.0111,-3.746,-4.878,-0.98039,1.9417,0.7767,0.0,-0.06441,-2.0065,-0.98039,1.9417,-0.9901,-3.7915,-3.8915,-5.6508,-8.6957,-8.6538,1.7863,-8.4676,-3.9024,-4.9359
-2.9068,0.06349,-3.9024,2.9412,6.7961,-1.165,3.8647,0.90177,3.8188,2.9412,6.7961,0.0,-12.322,-6.7624,-8.5079,-7.7295,-11.538,-2.0415,-6.5719,-8.7805,-7.8205
-6.6983,1.9683,-3.9024,-4.902,1.9417,-4.0777,4.8309,-1.9968,6.7314,-4.902,1.9417,-1.9802,-7.5829,-4.8485,-7.5556,-4.8309,-11.538,-5.8692,1.0111,-4.878,-5.8974
-5.7504,1.9683,-0.97561,-1.9608,-2.9126,-3.1068,1.9324,-2.963,2.8479,-1.9608,-2.9126,-2.9703,0.94787,-2.9346,-4.6984,0.96618,-4.8077,1.7863,8.594,1.9512,1.7949
-4.8025,-0.88889,-0.97561,1.9608,-3.8835,-5.0485,-1.9324,-1.9968,1.877,1.9608,-3.8835,-1.9802,-1.8957,-0.0638,-6.6032,1.9324,-2.8846,3.7002,4.8025,-0.97561,4.6795
-3.8547,-0.88889,-3.9024,-5.8824,-1.9417,-4.0777,0.96618,-1.0306,1.877,-5.8824,-1.9417,0.9901,-9.4787,-3.8915,-11.365,-3.8647,-7.6923,-2.0415,1.0111,-9.7561,-1.0897
1.8325,6.7302,2.9268,3.9216,1.9417,0.7767,8.6957,0.90177,5.7605,3.9216,1.9417,5.9406,-6.6351,-5.8054,-4.6984,-1.9324,-4.8077,-1.0845,1.9589,-7.8049,-3.9744
4.6761,13.397,12.683,2.9412,9.7087,6.6019,11.594,-1.0306,8.6731,2.9412,9.7087,8.9109,0.0,0.89314,3.873,8.6957,5.7692,-2.0415,2.9068,-0.97561,1.7949
1.8325,10.54,12.683,0.0,8.7379,2.7184,1.9324,-2.963,6.7314,0.0,8.7379,3.9604,4.7393,6.6348,7.6825,14.493,14.423,-7.7831,6.6983,3.9024,9.4872
-1.0111,2.9206,7.8049,1.9608,3.8835,-5.0485,-0.96618,-5.8615,4.7896,1.9608,3.8835,-0.9901,0.94787,5.6778,3.873,11.594,9.6154,-11.611,2.9068,0.0,10.449
0.88468,2.9206,6.8293,-6.8627,0.97087,0.7767,2.8986,-4.8953,4.7896,-6.8627,0.97087,1.9802,-0.94787,5.6778,2.9206,7.7295,3.8462,-11.611,10.49,-2.9268,11.41
5.624,5.7778,5.8537,5.8824,2.9126,1.7476,3.8647,2.8341,5.7605,5.8824,2.9126,4.9505,0.0,2.807,4.8254,3.8647,1.9231,-0.12759,10.49,0.97561,6.6026
3.7283,3.873,2.9268,12.745,1.9417,-1.165,2.8986,3.8003,2.8479,12.745,1.9417,2.9703,0.0,0.89314,1.9683,-1.9324,0.96154,5.614,6.6983,-0.97561,-0.12821
1.8325,-2.7937,0.0,0.0,-5.8252,0.7767,-0.96618,-1.9968,-1.0356,0.0,-5.8252,0.9901,0.0,-1.9777,1.9683,-5.7971,-0.96154,2.7432,2.9068,0.0,-3.0128
3.7283,-3.746,0.0,-6.8627,0.0,3.6893,1.9324,-0.06441,-0.06472,-6.8627,0.0,0.9901,1.8957,-0.0638,2.9206,-4.8309,-0.96154,3.7002,0.06319,2.9268,0.83333
2.7804,0.06349,2.9268,-1.9608,4.8544,2.7184,0.0,3.8003,-1.0356,-1.9608,4.8544,0.9901,-0.94787,-0.0638,2.9206,0.96618,0.0,4.6571,1.0111,1.9512,0.83333
4.6761,5.7778,6.8293,0.0,-1.9417,0.7767,-0.96618,5.7327,-3.9482,0.0,-1.9417,1.9802,-1.8957,-2.9346,4.8254,6.7633,0.96154,6.571,-1.8325,5.8537,2.7564
5.624,5.7778,4.878,-0.98039,-7.767,2.7184,0.0,4.7665,-3.9482,-0.98039,-7.767,2.9703,1.8957,-1.9777,4.8254,4.8309,0.96154,8.4848,-7.5197,9.7561,-1.0897
0.88468,2.9206,0.97561,-0.98039,-0.97087,2.7184,2.8986,2.8341,0.90615,-0.98039,-0.97087,2.9703,-1.8957,-1.9777,0.06349,0.96618,0.0,8.4848,-3.7283,3.9024,-2.0513
-1.0111,1.0159,2.9268,6.8627,7.767,2.7184,2.8986,3.8003,6.7314,6.8627,7.767,3.9604,-1.8957,-0.0638,-1.8413,-0.96618,0.0,10.399,5.7504,1.9512,-2.0513
3.7283,2.9206,9.7561,-0.98039,3.8835,6.6019,2.8986,3.8003,3.8188,-0.98039,3.8835,6.9307,-7.5829,-3.8915,-0.88889,-0.96618,0.0,5.614,-3.7283,-3.9024,-5.8974
9.4155,8.6349,12.683,-4.902,-2.9126,14.369,9.6618,1.868,3.8188,-4.902,-2.9126,11.881,-11.374,-5.8054,2.9206,1.9324,0.96154,3.7002,1.0111,-1.9512,-3.9744
5.624,3.873,2.9268,-6.8627,-3.8835,9.5146,6.7633,-1.0306,2.8479,-6.8627,-3.8835,4.9505,-4.7393,-3.8915,3.873,0.96618,-0.96154,-1.0845,6.6983,5.8537,-2.0513
-7.6461,-6.6032,-10.732,0.98039,-0.97087,-10.874,-4.8309,-5.8615,1.877,0.98039,-0.97087,-9.901,4.7393,4.7209,-0.88889,-0.96618,-1.9231,-6.8262,5.7504,0.97561,4.6795
-14.281,-10.413,-12.683,5.8824,-0.97087,-19.612,-8.6957,-7.7939,1.877,5.8824,-0.97087,-15.842,3.7915,4.7209,-5.6508,-1.9324,-2.8846,-7.7831,2.9068,-5.8537,5.641
-7.6461,-5.6508,-0.97561,0.0,-1.9417,-9.9029,-3.8647,-6.8277,2.8479,0.0,-1.9417,-8.9109,0.94787,1.8501,-3.746,0.0,-0.96154,-10.654,-2.7804,-6.8293,5.641
-1.0111,0.06349,5.8537,-3.9216,1.9417,-2.1359,-2.8986,-2.963,1.877,-3.9216,1.9417,-2.9703,-3.7915,-1.0207,-1.8413,0.0,0.96154,-7.7831,-1.8325,-10.732,0.83333
-3.8547,-0.88889,-2.9268,-7.8431,2.9126,-3.1068,-1.9324,-1.9968,3.8188,-7.8431,2.9126,-3.9604,-2.8436,0.89314,-1.8413,-0.96618,1.9231,-7.7831,3.8547,-7.8049,-2.0513
-6.6983,-4.6984,-14.634,-7.8431,0.97087,-2.1359,-3.8647,-5.8615,6.7314,-7.8431,0.97087,-6.9307,1.8957,2.807,-2.7937,-0.96618,0.0,-3.9553,3.8547,-0.97561,-2.0513
-10.49,-8.5079,-16.584999,-2.9412,-1.9417,-5.0485,-6.7633,-5.8615,4.7896,-2.9412,-1.9417,-10.891,0.0,0.89314,-7.5556,-2.8986,-3.8462,-2.0415,2.9068,-0.97561,-2.0513
-14.281,-9.4603,-13.659,2.9412,-0.97087,-11.845,-5.7971,-3.9291,-0.06472,2.9412,-0.97087,-10.891,-2.8436,1.8501,-12.317,-5.7971,-4.8077,-4.9123,-1.8325,-4.878,-1.0897
-11.438,-8.5079,-7.8049,-2.9412,-7.767,-10.874,-5.7971,-2.963,-7.8317,-2.9412,-7.767,-8.9109,-2.8436,1.8501,-11.365,-7.7295,-4.8077,-1.0845,-6.5719,-4.878,-2.0513
-3.8547,-4.6984,1.9512,-5.8824,-11.65,-1.165,-6.7633,-1.9968,-8.8026,-5.8824,-11.65,-3.9604,2.8436,3.764,-5.6508,-5.7971,-2.8846,6.571,-12.259,1.9512,-4.9359
0.88468,-1.8413,4.878,-4.902,-3.8835,1.7476,-4.8309,-1.9968,-6.8608,-4.902,-3.8835,0.0,8.5308,4.7209,0.06349,-3.8647,-2.8846,3.7002,-16.051001,9.7561,-4.9359
-1.0111,-5.6508,-3.9024,-8.8235,-1.9417,-2.1359,-8.6957,-2.963,-5.89,-8.8235,-1.9417,-3.9604,8.5308,2.807,1.0159,-3.8647,-4.8077,-0.12759,-8.4676,11.707,-2.0513
-5.7504,-9.4603,-16.584999,0.0,-1.9417,-7.9612,-7.7295,-1.9968,-3.9482,0.0,-1.9417,-8.9109,3.7915,0.89314,-4.6984,-5.7971,-7.6923,2.7432,-0.88468,5.8537,0.83333
-5.7504,-7.5556,-18.537001,5.8824,-3.8835,-6.9903,0.0,-1.0306,-0.06472,5.8824,-3.8835,-4.9505,-3.7915,-1.0207,-7.5556,-5.7971,-7.6923,2.7432,2.9068,0.97561,-0.12821
-1.0111,-2.7937,-7.8049,3.9216,4.8544,-1.165,4.8309,3.8003,3.8188,3.9216,4.8544,1.9802,-4.7393,-1.9777,-4.6984,-3.8647,-3.8462,2.7432,4.8025,0.0,-3.0128
1.8325,1.9683,6.8293,0.0,5.8252,1.7476,3.8647,3.8003,3.8188,0.0,5.8252,5.9406,-4.7393,-3.8915,1.0159,0.0,1.9231,-2.0415,1.0111,2.9268,-3.9744
4.6761,5.7778,13.659,1.9608,4.8544,5.6311,1.9324,0.90177,2.8479,1.9608,4.8544,6.9307,0.0,1.8501,7.6825,6.7633,9.6154,-0.12759,1.0111,0.97561,0.83333
1.8325,1.9683,4.878,2.9412,1.9417,2.7184,0.96618,-1.0306,-1.0356,2.9412,1.9417,1.9802,0.94787,4.7209,5.7778,5.7971,7.6923,-2.0415,-3.7283,0.0,5.641
2.7804,1.9683,0.0,2.9412,0.97087,2.7184,5.7971,-1.0306,1.877,2.9412,0.97087,3.9604,0.0,0.89314,3.873,3.8647,3.8462,-0.12759,-0.88468,-0.97561,7.5641
9.4155,8.6349,6.8293,8.8235,9.7087,5.6311,13.527,3.8003,7.7023,8.8235,9.7087,11.881,2.8436,0.89314,5.7778,3.8647,2.8846,4.6571,8.594,-6.8293,1.7949
10.363,12.444,8.7805,4.902,10.68,9.5146,13.527,4.7665,11.586,4.902,10.68,12.871,3.7915,2.807,4.8254,5.7971,1.9231,5.614,13.333,-7.8049,-2.0513
3.7283,8.6349,1.9512,0.0,7.767,5.6311,6.7633,1.868,10.615,0.0,7.767,6.9307,4.7393,0.89314,1.9683,1.9324,-2.8846,-0.12759,10.49,0.0,-1.0897
-1.0111,6.7302,0.0,1.9608,3.8835,2.7184,6.7633,-1.9968,6.7314,1.9608,3.8835,3.9604,1.8957,-1.9777,-0.88889,0.0,-3.8462,-6.8262,3.8547,0.0,-3.9744
2.7804,10.54,4.878,5.8824,3.8835,7.5728,7.7295,-2.963,4.7896,5.8824,3.8835,6.9307,-1.8957,-1.9777,1.0159,4.8309,0.0,-2.9984,2.9068,2.9268,-1.0897
7.5197,10.54,12.683,11.765,7.767,2.7184,7.7295,3.8003,4.7896,11.765,7.767,9.901,-5.6872,-6.7624,3.873,7.7295,1.9231,-1.0845,4.8025,1.9512,-1.0897
9.4155,7.6825,17.561001,0.98039,5.8252,6.6019,10.628,4.7665,5.7605,0.98039,5.8252,12.871,-13.27,-9.6332,2.9206,5.7971,0.96154,-7.7831,4.8025,-2.9268,-1.0897
7.5197,1.0159,16.584999,0.98039,4.8544,6.6019,4.8309,4.7665,0.90615,0.98039,4.8544,8.9109,-10.427,-9.6332,1.9683,0.0,-1.9231,-3.9553,-1.8325,-4.878,-3.0128
6.5719,-1.8413,14.634,13.725,6.7961,1.7476,-0.96618,5.7327,-2.0065,13.725,6.7961,5.9406,-0.94787,-3.8915,4.8254,-2.8986,0.0,-3.9553,-5.624,0.97561,-2.0513
7.5197,3.873,12.683,8.8235,1.9417,5.6311,2.8986,0.90177,2.8479,8.8235,1.9417,4.9505,7.5829,4.7209,10.54,4.8309,8.6538,-5.8692,5.7504,4.878,4.6795
9.4155,13.397,10.732,1.9608,4.8544,10.485,12.56,-0.06441,8.6731,1.9608,4.8544,9.901,6.6351,10.463,10.54,13.527,14.423,-5.8692,14.281,4.878,10.449
7.5197,16.254,6.8293,5.8824,4.8544,8.5437,16.424999,2.8341,10.615,5.8824,4.8544,14.851,6.6351,6.6348,6.7302,13.527,10.577,-6.8262,9.5419,3.9024,10.449
6.5719,11.492,1.9512,-4.902,5.8252,12.427,10.628,3.8003,6.7314,-4.902,5.8252,11.881,0.0,2.807,2.9206,10.628,5.7692,-0.12759,3.8547,1.9512,9.4872
4.6761,3.873,-0.97561,-9.8039,5.8252,5.6311,0.96618,2.8341,1.877,-9.8039,5.8252,1.9802,0.94787,4.7209,4.8254,9.6618,6.7308,5.614,1.0111,6.8293,9.4872
6.5719,1.9683,0.97561,-3.9216,-1.9417,0.7767,-0.96618,3.8003,-2.0065,-3.9216,-1.9417,-2.9703,0.0,1.8501,8.6349,9.6618,7.6923,16.139999,5.7504,10.732,6.6026
7.5197,1.0159,4.878,7.8431,-3.8835,-3.1068,-0.96618,1.868,-1.0356,7.8431,-3.8835,-1.9802,2.8436,1.8501,9.5873,5.7971,5.7692,13.27,-1.8325,9.7561,3.7179
5.624,-3.746,1.9512,13.725,1.9417,-3.1068,-1.9324,4.7665,-1.0356,13.725,1.9417,0.0,-0.94787,-4.8485,5.7778,-3.8647,-0.96154,11.356,-11.311,6.8293,-3.9744
2.7804,-6.6032,-2.9268,1.9608,-0.97087,4.6602,-1.9324,5.7327,-3.9482,1.9608,-0.97087,1.9802,-3.7915,-9.6332,2.9206,-5.7971,-3.8462,10.399,-6.5719,2.9268,-8.7821
0.88468,-8.5079,-5.8537,-2.9412,-6.7961,2.7184,-5.7971,2.8341,-9.7735,-2.9412,-6.7961,-1.9802,5.6872,-1.0207,5.7778,-3.8647,-0.96154,7.5279,-3.7283,3.9024,-4.9359
3.7283,-7.5556,-1.9512,-13.725,-5.8252,0.7767,-5.7971,-0.06441,-11.715,-13.725,-5.8252,-1.9802,12.322,0.89314,7.6825,-2.8986,1.9231,6.571,-5.624,9.7561,-4.9359
0.88468,-7.5556,-1.9512,-4.902,-11.65,-4.0777,-4.8309,0.90177,-10.744,-4.902,-11.65,-1.9802,1.8957,-2.9346,2.9206,-6.7633,-1.9231,0.82935,-8.4676,2.9268,-6.859
-2.9068,-5.6508,-3.9024,-9.8039,-3.8835,-6.0194,-2.8986,-2.963,-5.89,-9.8039,-3.8835,-3.9604,5.6872,2.807,1.0159,-4.8309,0.0,-5.8692,-3.7283,-0.97561,-3.0128
-4.8025,-0.88889,-2.9268,1.9608,3.8835,-3.1068,0.0,-2.963,-0.06472,1.9608,3.8835,-1.9802,4.7393,4.7209,-1.8413,-0.96618,0.96154,-6.8262,-2.7804,-5.8537,0.83333
-0.06319,2.9206,-0.97561,7.8431,3.8835,9.5146,4.8309,1.868,0.90615,7.8431,3.8835,5.9406,-4.7393,-1.0207,-3.746,-1.9324,-0.96154,-4.9123,-2.7804,-8.7805,-0.12821
2.7804,2.9206,0.97561,5.8824,0.97087,9.5146,2.8986,1.868,-0.06472,5.8824,0.97087,6.9307,-2.8436,1.8501,-1.8413,-2.8986,0.0,-5.8692,-3.7283,-6.8293,-0.12821
0.88468,-0.88889,-0.97561,-0.98039,-4.8544,-5.0485,-2.8986,-0.06441,-2.9773,-0.98039,-4.8544,-2.9703,1.8957,3.764,1.0159,-0.96618,4.8077,-2.0415,-1.8325,0.0,0.83333
-1.0111,-1.8413,-0.97561,-14.706,-10.68,-6.9903,-2.8986,-4.8953,-2.0065,-14.706,-10.68,-6.9307,4.7393,5.6778,4.8254,6.7633,9.6154,-0.12759,4.8025,5.8537,7.5641
-1.0111,1.0159,2.9268,-11.765,-5.8252,-3.1068,-4.8309,-2.963,-2.9773,-11.765,-5.8252,-4.9505,5.6872,9.5056,4.8254,10.628,9.6154,2.7432,7.6461,5.8537,13.333
-1.9589,1.9683,2.9268,1.9608,2.9126,3.6893,-3.8647,-2.963,-1.0356,1.9608,2.9126,-0.9901,-3.7915,-1.9777,-0.88889,4.8309,1.9231,3.7002,8.594,-2.9268,6.6026
-2.9068,-0.88889,-0.97561,1.9608,0.97087,-1.165,-2.8986,-4.8953,-0.06472,1.9608,0.97087,-2.9703,-6.6351,-7.7193,-1.8413,-0.96618,-4.8077,5.614,5.7504,-0.97561,0.83333
-4.8025,-7.5556,-6.8293,-2.9412,-9.7087,-14.757,-8.6957,-2.963,-2.9773,-2.9412,-9.7087,-10.891,-2.8436,-3.8915,0.06349,-3.8647,-4.8077,9.4418,1.0111,7.8049,0.83333
-5.7504,-10.413,-9.7561,-10.784,-11.65,-20.583,-13.527,-3.9291,-6.8608,-10.784,-11.65,-16.832001,1.8957,0.89314,3.873,-2.8986,-0.96154,11.356,0.06319,13.659,2.7564
-7.6461,-12.317,-11.707,-15.686,-12.621,-18.641001,-16.424999,-6.8277,-9.7735,-15.686,-12.621,-16.832001,1.8957,2.807,1.0159,-4.8309,-0.96154,7.5279,-4.6761,10.732,2.7564
-7.6461,-12.317,-10.732,-11.765,-12.621,-10.874,-13.527,-7.7939,-9.7735,-11.765,-12.621,-13.861,0.0,-2.9346,-1.8413,-10.628,-3.8462,-0.12759,-11.311,3.9024,-4.9359
-3.8547,-8.5079,-4.878,-8.8235,-5.8252,-0.19417,-6.7633,-4.8953,-2.9773,-8.8235,-5.8252,-6.9307,8.5308,1.8501,1.0159,-6.7633,0.0,-4.9123,-2.7804,2.9268,-2.0513
-1.0111,1.0159,1.9512,2.9412,3.8835,3.6893,0.96618,-2.963,5.7605,2.9412,3.8835,0.0,9.4787,8.5486,1.9683,2.8986,5.7692,-8.74,5.7504,0.0,3.7179
-1.9589,5.7778,1.9512,5.8824,4.8544,1.7476,7.7295,-5.8615,9.644,5.8824,4.8544,3.9604,0.94787,1.8501,-1.8413,1.9324,2.8846,-12.568,3.8547,-7.8049,-2.0513
-2.9068,4.8254,-0.97561,5.8824,6.7961,4.6602,10.628,-3.9291,6.7314,5.8824,6.7961,6.9307,-4.7393,-1.9777,-6.6032,-1.9324,-1.9231,-11.611,1.9589,-14.634,-6.859
1.8325,7.6825,2.9268,8.8235,12.621,6.6019,11.594,5.7327,3.8188,8.8235,12.621,12.871,-8.5308,-0.0638,-4.6984,3.8647,0.96154,-7.7831,0.06319,-13.659,-1.0897
10.363,13.397,11.707,8.8235,18.447001,10.485,11.594,9.5974,6.7314,8.8235,18.447001,15.842,0.0,8.5486,4.8254,15.459,11.538,-4.9123,4.8025,-5.8537,10.449
11.311,14.349,13.659,9.8039,15.534,9.5146,10.628,7.6651,7.7023,9.8039,15.534,12.871,13.27,13.333,12.444,19.323999,17.308001,-2.0415,10.49,3.9024,17.179001
5.624,9.5873,5.8537,9.8039,0.97087,3.6893,9.6618,3.8003,5.7605,9.8039,0.97087,6.9307,12.322,11.419,11.492,13.527,13.462,3.7002,19.021,6.8293,17.179001
1.8325,1.9683,-1.9512,-2.9412,-5.8252,-0.19417,4.8309,-0.06441,0.90615,-2.9412,-5.8252,0.9901,3.7915,2.807,4.8254,3.8647,2.8846,2.7432,14.281,6.8293,11.41
-0.06319,-6.6032,-6.8293,-8.8235,-5.8252,-1.165,-5.7971,-1.0306,-4.9191,-8.8235,-5.8252,-4.9505,-6.6351,-7.7193,1.0159,-6.7633,-6.7308,9.4418,1.9589,9.7561,-3.0128
0.88468,-10.413,-5.8537,-1.9608,-6.7961,-3.1068,-10.628,0.90177,-5.89,-1.9608,-6.7961,-7.9208,-1.8957,-7.7193,2.9206,-10.628,-7.6923,16.139999,-0.88468,10.732,-8.7821
-3.8547,-12.317,-6.8293,-7.8431,-6.7961,-8.932,-10.628,-1.9968,-5.89,-7.8431,-6.7961,-9.901,3.7915,-5.8054,1.0159,-13.527,-7.6923,5.614,-7.5197,5.8537,-10.705
-2.9068,-9.4603,-4.878,-7.8431,-0.97087,-5.0485,-8.6957,-1.0306,-2.9773,-7.8431,-0.97087,-5.9406,0.0,-3.8915,-2.7937,-11.594,-5.7692,5.614,-16.051001,-0.97561,-10.705
-1.0111,-1.8413,0.97561,7.8431,2.9126,1.7476,-1.9324,2.8341,-2.0065,7.8431,2.9126,1.9802,0.0,-4.8485,-3.746,-6.7633,-2.8846,6.571,-15.103,-2.9268,-10.705
0.88468,1.0159,2.9268,9.8039,3.8835,6.6019,2.8986,4.7665,-2.9773,9.8039,3.8835,5.9406,-1.8957,-4.8485,-4.6984,-2.8986,-2.8846,1.7863,-8.4676,-1.9512,-7.8205
1.8325,0.06349,0.97561,7.8431,3.8835,6.6019,3.8647,4.7665,-2.0065,7.8431,3.8835,4.9505,0.0,-3.8915,-2.7937,-3.8647,-4.8077,-1.0845,-6.5719,0.0,-6.859
-0.06319,1.9683,-3.9024,7.8431,4.8544,1.7476,5.7971,3.8003,5.7605,7.8431,4.8544,3.9604,-1.8957,-4.8485,-4.6984,-4.8309,-9.6154,-0.12759,0.06319,2.9268,-5.8974
0.88468,9.5873,0.97561,-1.9608,7.767,6.6019,7.7295,-0.06441,11.586,-1.9608,7.767,7.9208,3.7915,-1.0207,-3.746,2.8986,-5.7692,-1.0845,10.49,3.9024,4.6795
2.7804,15.302,9.7561,-18.627001,2.9126,14.369,12.56,-3.9291,10.615,-18.627001,2.9126,14.851,0.0,6.6348,-0.88889,11.594,3.8462,-5.8692,10.49,0.0,10.449
3.7283,16.254,14.634,1.9608,13.592,9.5146,16.424999,-4.8953,12.557,1.9608,13.592,16.832001,-1.8957,6.6348,2.9206,14.493,10.577,-10.654,14.281,-1.9512,6.6026
1.8325,7.6825,9.7561,21.569,9.7087,-2.1359,8.6957,-3.9291,10.615,21.569,9.7087,7.9208,5.6872,5.6778,7.6825,9.6618,12.5,-10.654,8.594,3.9024,5.641
-4.8025,-5.6508,-1.9512,9.8039,4.8544,-6.0194,0.0,-9.7262,4.7896,9.8039,4.8544,-1.9802,9.4787,6.6348,1.9683,-0.96618,7.6923,-12.568,4.8025,0.0,4.6795
-7.6461,-4.6984,-5.8537,4.902,7.767,-6.9903,-0.96618,-7.7939,6.7314,4.902,7.767,-2.9703,3.7915,10.463,-4.6984,-1.9324,1.9231,-14.482,12.385,-7.8049,8.5256
-6.6983,3.873,-1.9512,-2.9412,5.8252,-4.0777,3.8647,-4.8953,6.7314,-2.9412,5.8252,0.9901,-4.7393,10.463,-9.4603,1.9324,-0.96154,-16.396,9.5419,-12.683,11.41
-3.8547,4.8254,0.97561,-5.8824,5.8252,1.7476,0.0,-1.0306,1.877,-5.8824,5.8252,1.9802,-0.94787,6.6348,-8.5079,0.96618,-3.8462,-12.568,0.06319,-10.732,7.5641
0.88468,2.9206,0.97561,0.98039,1.9417,1.7476,-0.96618,4.7665,-3.9482,0.98039,1.9417,2.9703,-0.94787,1.8501,-4.6984,-0.96618,-4.8077,-1.0845,-3.7283,-5.8537,-0.12821
1.8325,-0.88889,-1.9512,4.902,0.0,1.7476,-0.96618,4.7665,-6.8608,4.902,0.0,0.0,-6.6351,-3.8915,-3.746,-3.8647,-6.7308,8.4848,-9.4155,-1.9512,-6.859
2.7804,-4.6984,-4.878,4.902,-3.8835,5.6311,-3.8647,4.7665,-4.9191,4.902,-3.8835,-1.9802,-5.6872,-7.7193,-4.6984,-4.8309,-9.6154,12.313,-10.363,3.9024,-6.859
-0.06319,-7.5556,-2.9268,8.8235,-4.8544,2.7184,-3.8647,8.6312,-5.89,8.8235,-4.8544,-0.9901,-2.8436,-2.9346,-4.6984,-4.8309,-8.6538,13.27,-9.4155,1.9512,-3.9744
-0.06319,-5.6508,-0.97561,4.902,0.0,-3.1068,-2.8986,9.5974,-6.8608,4.902,0.0,-0.9901,-0.94787,-0.0638,-2.7937,-2.8986,-4.8077,10.399,-8.4676,-0.97561,-3.0128
-0.06319,-2.7937,-1.9512,-2.9412,1.9417,-2.1359,-3.8647,5.7327,-6.8608,-2.9412,1.9417,-0.9901,-1.8957,-3.8915,1.0159,-0.96618,-1.9231,8.4848,-10.363,0.97561,-5.8974
-1.9589,-2.7937,-6.8293,-12.745,-4.8544,5.6311,-4.8309,2.8341,-3.9482,-12.745,-4.8544,-2.9703,-0.94787,-4.8485,1.9683,0.96618,0.96154,9.4418,-3.7283,5.8537,-7.8205
-6.6983,-4.6984,-10.732,-7.8431,-10.68,-1.165,-5.7971,0.90177,-1.0356,-7.8431,-10.68,-6.9307,1.8957,-1.9777,-2.7937,0.96618,-0.96154,3.7002,3.8547,3.9024,-3.0128
-9.5419,-5.6508,-7.8049,1.9608,-2.9126,-6.0194,-2.8986,-2.963,1.877,1.9608,-2.9126,-5.9406,-4.7393,-2.9346,-9.4603,-0.96618,-4.8077,-1.0845,1.9589,-8.7805,-2.0513
-3.8547,1.0159,3.9024,9.8039,5.8252,-2.1359,1.9324,-1.0306,3.8188,9.8039,5.8252,1.9802,-4.7393,-3.8915,-7.5556,0.96618,-2.8846,0.82935,2.9068,-11.707,-3.9744
-3.8547,3.873,7.8049,5.8824,4.8544,-6.0194,1.9324,-1.9968,4.7896,5.8824,4.8544,2.9703,-1.8957,-1.9777,-6.6032,2.8986,-0.96154,-6.8262,10.49,-8.7805,-2.0513
-6.6983,1.9683,2.9268,-5.8824,1.9417,-5.0485,2.8986,-1.9968,2.8479,-5.8824,1.9417,0.9901,-1.8957,-0.0638,-8.5079,2.8986,-0.96154,-6.8262,7.6461,-11.707,0.83333
-3.8547,-4.6984,-2.9268,0.98039,0.0,0.7767,-4.8309,1.868,-2.9773,0.98039,0.0,-2.9703,-2.8436,-0.0638,-6.6032,-0.96618,-0.96154,-2.9984,-1.8325,-10.732,-0.12821
4.6761,-8.5079,-2.9268,5.8824,1.9417,4.6602,-5.7971,9.5974,-4.9191,5.8824,1.9417,-1.9802,-0.94787,1.8501,1.0159,-3.8647,0.96154,2.7432,-3.7283,-3.9024,-2.0513
9.4155,-9.4603,-2.9268,6.8627,-2.9126,5.6311,-6.7633,12.496,-7.8317,6.8627,-2.9126,-1.9802,0.0,1.8501,5.7778,-5.7971,0.96154,4.6571,-7.5197,0.97561,-3.9744
6.5719,-10.413,-6.8293,-0.98039,-5.8252,2.7184,-9.6618,8.6312,-11.715,-0.98039,-5.8252,-5.9406,2.8436,2.807,6.7302,-6.7633,0.0,1.7863,-7.5197,5.8537,-3.9744
-0.06319,-8.5079,-9.7561,-6.8627,-13.592,0.7767,-9.6618,3.8003,-10.744,-6.8627,-13.592,-7.9208,0.0,-5.8054,3.873,-6.7633,-3.8462,9.4418,-9.4155,6.8293,-5.8974
-0.06319,-4.6984,-5.8537,2.9412,-2.9126,3.6893,-5.7971,4.7665,-5.89,2.9412,-2.9126,-3.9604,2.8436,-4.8485,5.7778,-2.8986,-2.8846,14.226,-6.5719,12.683,-2.0513
3.7283,-4.6984,-2.9268,4.902,-4.8544,5.6311,-4.8309,4.7665,-8.8026,4.902,-4.8544,-1.9802,2.8436,1.8501,10.54,-1.9324,0.0,17.097,-4.6761,22.438999,1.7949
-0.06319,-15.175,-9.7561,-2.9412,-16.504999,-6.0194,-15.459,2.8341,-17.540001,-2.9412,-16.504999,-12.871,0.94787,-2.9346,4.8254,-8.6957,-4.8077,18.054001,-14.155,9.7561,-4.9359
-6.6983,-23.746,-16.584999,-9.8039,-14.563,-16.698999,-22.222,-1.0306,-19.482,-9.8039,-14.563,-21.782,7.5829,-1.9777,0.06349,-14.493,-7.6923,7.5279,-14.155,4.878,-9.7436
-8.594,-21.841,-17.561001,-12.745,-8.7379,-11.845,-18.357,-0.06441,-12.686,-12.745,-8.7379,-17.822001,5.6872,-1.9777,-1.8413,-14.493,-5.7692,6.571,-12.259,7.8049,-11.667
-8.594,-11.365,-12.683,-2.9412,-3.8835,-4.0777,-9.6618,1.868,-6.8608,-2.9412,-3.8835,-7.9208,1.8957,-2.9346,-5.6508,-12.56,-5.7692,4.6571,-9.4155,5.8537,-10.705
-5.7504,-1.8413,-1.9512,3.9216,-3.8835,-0.19417,-1.9324,1.868,-3.9482,3.9216,-3.8835,0.0,1.8957,2.807,-6.6032,-6.7633,-2.8846,1.7863,-1.8325,4.878,-5.8974
-1.0111,2.9206,5.8537,4.902,-3.8835,3.6893,0.96618,0.90177,-1.0356,4.902,-3.8835,2.9703,6.6351,11.419,-4.6984,1.9324,3.8462,-3.9553,1.0111,1.9512,3.7179
-2.9068,0.06349,6.8293,-3.9216,-1.9417,1.7476,-0.96618,-6.8277,-1.0356,-3.9216,-1.9417,0.0,11.374,15.247,-2.7937,6.7633,11.538,-10.654,-1.8325,-2.9268,6.6026
-7.6461,-0.88889,3.9024,-10.784,-1.9417,-6.0194,-1.9324,-12.625,0.90615,-10.784,-1.9417,-5.9406,12.322,20.032,-0.88889,10.628,16.346001,-15.439,0.06319,-6.8293,11.41
-6.6983,2.9206,4.878,-3.9216,-3.8835,-10.874,0.0,-11.659,3.8188,-3.9216,-3.8835,-4.9505,10.427,20.989,2.9206,13.527,18.268999,-14.482,5.7504,-5.8537,16.218
-1.0111,3.873,6.8293,-7.8431,-0.97087,-10.874,-1.9324,-11.659,2.8479,-7.8431,-0.97087,-3.9604,5.6872,15.247,7.6825,13.527,18.268999,-13.525,8.594,0.0,17.179001
6.5719,7.6825,12.683,-0.98039,7.767,-1.165,1.9324,-9.7262,6.7314,-0.98039,7.767,1.9802,9.4787,18.118,14.349,15.459,21.153999,-9.697,9.5419,5.8537,16.218
7.5197,9.5873,12.683,-1.9608,5.8252,1.7476,8.6957,-10.692,6.7314,-1.9608,5.8252,6.9307,12.322,16.204,16.254,10.628,18.268999,-2.9984,3.8547,6.8293,12.372
1.8325,4.8254,4.878,0.0,5.8252,-4.0777,7.7295,-7.7939,5.7605,0.0,5.8252,2.9703,8.5308,5.6778,13.397,2.8986,11.538,-4.9123,0.06319,8.7805,0.83333
2.7804,3.873,5.8537,8.8235,8.7379,-1.165,5.7971,-2.963,5.7605,8.8235,8.7379,2.9703,8.5308,4.7209,11.492,2.8986,8.6538,-1.0845,2.9068,8.7805,-2.0513
-0.06319,-2.7937,2.9268,0.98039,-4.8544,-1.165,-1.9324,-2.963,-1.0356,0.98039,-4.8544,-1.9802,0.94787,4.7209,3.873,-0.96618,0.96154,-1.0845,-4.6761,-1.9512,-0.12821
-1.0111,-7.5556,-2.9268,-0.98039,-7.767,-4.0777,-8.6957,2.8341,-5.89,-0.98039,-7.767,-6.9307,-3.7915,-2.9346,-1.8413,-6.7633,-6.7308,2.7432,-9.4155,-1.9512,-4.9359
-1.0111,-8.5079,-10.732,-0.98039,-5.8252,-0.19417,-7.7295,7.6651,-5.89,-0.98039,-5.8252,-4.9505,-0.94787,-3.8915,-2.7937,-11.594,-7.6923,5.614,-5.624,2.9268,-8.7821
-3.8547,-9.4603,-17.561001,3.9216,0.0,1.7476,-5.7971,7.6651,-2.9773,3.9216,0.0,-3.9604,-3.7915,-5.8054,-4.6984,-13.527,-8.6538,8.4848,-9.4155,2.9268,-9.7436
-4.8025,-3.746,-8.7805,10.784,5.8252,1.7476,0.96618,6.6989,0.90615,10.784,5.8252,0.9901,-4.7393,-6.7624,-5.6508,-9.6618,-6.7308,6.571,-5.624,0.0,-10.705
-1.9589,0.06349,1.9512,-0.98039,2.9126,7.5728,4.8309,1.868,2.8479,-0.98039,2.9126,4.9505,-1.8957,-8.6762,-4.6984,-5.7971,-3.8462,3.7002,-2.7804,0.97561,-8.7821
-1.0111,-2.7937,0.97561,0.98039,1.9417,0.7767,-1.9324,2.8341,-0.06472,0.98039,1.9417,0.9901,0.94787,-4.8485,-3.746,-3.8647,-1.9231,0.82935,-1.8325,1.9512,-4.9359
-2.9068,-3.746,0.0,1.9608,2.9126,-4.0777,-4.8309,-0.06441,-0.06472,1.9608,2.9126,-1.9802,4.7393,4.7209,-1.8413,-1.9324,0.0,-5.8692,-1.8325,3.9024,-0.12821
-5.7504,1.0159,-0.97561,0.98039,2.9126,-4.0777,0.96618,-4.8953,3.8188,0.98039,2.9126,-0.9901,0.0,3.764,-4.6984,1.9324,-0.96154,-12.568,-4.6761,-1.9512,4.6795
-2.9068,5.7778,0.97561,-5.8824,-1.9417,-0.19417,4.8309,-3.9291,7.7023,-5.8824,-1.9417,1.9802,0.0,1.8501,-3.746,3.8647,0.0,-10.654,4.8025,-4.878,5.641
-2.9068,3.873,-0.97561,-9.8039,0.97087,-0.19417,3.8647,-8.7601,7.7023,-9.8039,0.97087,1.9802,-7.5829,-2.9346,-7.5556,0.0,-2.8846,-10.654,10.49,-12.683,3.7179
-8.594,0.06349,-6.8293,-6.8627,0.97087,-6.9903,0.96618,-8.7601,6.7314,-6.8627,0.97087,-1.9802,-8.5308,-1.0207,-11.365,-2.8986,-4.8077,-9.697,5.7504,-16.584999,0.83333
-3.8547,3.873,0.97561,1.9608,1.9417,-9.9029,2.8986,-5.8615,4.7896,1.9608,1.9417,0.0,-3.7915,0.89314,-4.6984,2.8986,0.0,-6.8262,3.8547,-6.8293,4.6795
0.88468,6.7302,8.7805,0.98039,2.9126,-6.9903,1.9324,-6.8277,2.8479,0.98039,2.9126,0.9901,1.8957,3.764,2.9206,6.7633,3.8462,-6.8262,4.8025,-2.9268,4.6795
-1.0111,2.9206,6.8293,0.98039,4.8544,-4.0777,0.0,-3.9291,0.90615,0.98039,4.8544,0.0,5.6872,2.807,-0.88889,1.9324,0.0,-5.8692,1.0111,-7.8049,-0.12821
-4.8025,1.0159,3.9024,-1.9608,2.9126,-3.1068,0.0,-0.06441,1.877,-1.9608,2.9126,0.9901,-2.8436,-0.0638,-6.6032,0.0,-2.8846,-7.7831,-2.7804,-14.634,0.83333
-2.9068,2.9206,2.9268,-11.765,0.0,1.7476,2.8986,2.8341,2.8479,-11.765,0.0,2.9703,-8.5308,-0.0638,-8.5079,4.8309,-0.96154,-4.9123,-2.7804,-15.61,5.641
1.8325,6.7302,4.878,-1.9608,1.9417,4.6602,7.7295,4.7665,4.7896,-1.9608,1.9417,5.9406,-5.6872,-1.0207,-3.746,6.7633,1.9231,3.7002,6.6983,-6.8293,2.7564
7.5197,5.7778,5.8537,5.8824,1.9417,4.6602,5.7971,5.7327,4.7896,5.8824,1.9417,5.9406,-2.8436,-5.8054,0.06349,2.8986,-0.96154,11.356,4.8025,0.97561,-3.0128
6.5719,-3.746,-0.97561,5.8824,-3.8835,2.7184,-1.9324,8.6312,-0.06472,5.8824,-3.8835,0.0,-7.5829,-11.547,-1.8413,-8.6957,-10.577,9.4418,-5.624,1.9512,-7.8205
4.6761,-8.5079,-5.8537,2.9412,-6.7961,4.6602,-8.6957,12.496,-6.8608,2.9412,-6.7961,-4.9505,-6.6351,-12.504,-0.88889,-11.594,-12.5,15.183,-3.7283,6.8293,-11.667
3.7283,-7.5556,-4.878,-4.902,-10.68,0.7767,-11.594,8.6312,-8.8026,-4.902,-10.68,-7.9208,-5.6872,-9.6332,2.9206,-5.7971,-6.7308,14.226,-3.7283,7.8049,-5.8974
3.7283,-6.6032,-3.9024,-12.745,-7.767,0.7767,-8.6957,4.7665,-6.8608,-12.745,-7.767,-6.9307,1.8957,-2.9346,7.6825,-0.96618,0.0,12.313,-9.4155,9.7561,-2.0513
-1.9589,-6.6032,-9.7561,2.9412,-2.9126,-5.0485,-5.7971,4.7665,-3.9482,2.9412,-2.9126,-7.9208,1.8957,-1.9777,1.9683,-4.8309,-2.8846,10.399,-5.624,4.878,-3.0128
-4.8025,-4.6984,-9.7561,15.686,0.97087,-5.0485,-0.96618,8.6312,-0.06472,15.686,0.97087,-2.9703,-6.6351,-7.7193,-6.6032,-8.6957,-10.577,9.4418,3.8547,-1.9512,-3.9744
-1.0111,1.0159,-0.97561,6.8627,4.8544,3.6893,4.8309,8.6312,0.90615,6.8627,4.8544,4.9505,-8.5308,-11.547,-6.6032,-6.7633,-9.6154,6.571,2.9068,0.97561,-6.859
7.5197,5.7778,9.7561,0.98039,4.8544,14.369,9.6618,4.7665,0.90615,0.98039,4.8544,11.881,-0.94787,-8.6762,2.9206,0.96618,-0.96154,1.7863,-5.624,5.8537,-6.859
14.155,9.5873,15.61,4.902,10.68,18.252001,13.527,6.6989,6.7314,4.902,10.68,16.832001,-0.94787,-0.0638,9.5873,7.7295,7.6923,3.7002,1.9589,2.9268,-1.0897
8.4676,11.492,11.707,4.902,11.65,12.427,12.56,2.8341,10.615,4.902,11.65,13.861,1.8957,2.807,7.6825,9.6618,9.6154,-2.0415,7.6461,0.97561,3.7179
6.5719,13.397,10.732,9.8039,8.7379,6.6019,14.493,-1.0306,10.615,9.8039,8.7379,12.871,1.8957,-0.0638,8.6349,8.6957,9.6154,-6.8262,3.8547,3.9024,6.6026
11.311,15.302,14.634,17.646999,10.68,6.6019,14.493,2.8341,9.644,17.646999,10.68,15.842,4.7393,4.7209,12.444,10.628,11.538,-2.0415,6.6983,4.878,6.6026
15.103,12.444,15.61,2.9412,9.7087,14.369,11.594,-2.963,5.7605,2.9412,9.7087,17.822001,1.8957,1.8501,9.5873,11.594,9.6154,-4.9123,2.9068,-0.97561,4.6795
12.259,4.8254,9.7561,0.98039,0.97087,12.427,7.7295,-1.9968,-0.06472,0.98039,0.97087,11.881,-3.7915,-2.9346,4.8254,7.7295,3.8462,-4.9123,4.8025,-3.9024,1.7949
9.4155,6.7302,10.732,15.686,4.8544,-1.165,5.7971,4.7665,2.8479,15.686,4.8544,6.9307,-0.94787,1.8501,5.7778,9.6618,5.7692,1.7863,9.5419,-1.9512,2.7564
5.624,8.6349,9.7561,5.8824,1.9417,-1.165,5.7971,4.7665,2.8479,5.8824,1.9417,5.9406,-0.94787,-1.0207,4.8254,7.7295,5.7692,1.7863,2.9068,0.0,2.7564
4.6761,5.7778,3.9024,0.0,1.9417,4.6602,4.8309,5.7327,-0.06472,0.0,1.9417,4.9505,2.8436,-2.9346,3.873,1.9324,1.9231,1.7863,3.8547,2.9268,-2.0513
0.88468,-3.746,-3.9024,0.98039,-0.97087,-0.19417,-4.8309,1.868,-5.89,0.98039,-0.97087,-2.9703,2.8436,-0.0638,1.0159,-3.8647,-0.96154,5.614,-3.7283,5.8537,-3.0128
-1.9589,-5.6508,-0.97561,-5.8824,-5.8252,-3.1068,-9.6618,-2.963,-8.8026,-5.8824,-5.8252,-7.9208,3.7915,4.7209,1.0159,2.8986,3.8462,2.7432,-4.6761,3.9024,3.7179
3.7283,2.9206,9.7561,-13.725,-5.8252,0.7767,-2.8986,-1.9968,-6.8608,-13.725,-5.8252,-1.9802,13.27,11.419,8.6349,14.493,15.385,-0.12759,1.0111,7.8049,12.372
2.7804,7.6825,9.7561,0.98039,-1.9417,1.7476,3.8647,-1.0306,1.877,0.98039,-1.9417,1.9802,10.427,9.5056,8.6349,12.56,12.5,1.7863,7.6461,11.707,10.449
-0.06319,4.8254,0.0,3.9216,1.9417,-4.0777,4.8309,-3.9291,5.7605,3.9216,1.9417,0.0,0.94787,1.8501,1.0159,3.8647,0.96154,3.7002,2.9068,4.878,2.7564
1.8325,5.7778,0.0,-2.9412,-1.9417,-3.1068,4.8309,-4.8953,4.7896,-2.9412,-1.9417,0.0,3.7915,6.6348,1.9683,5.7971,0.96154,0.82935,4.8025,2.9268,5.641
4.6761,8.6349,4.878,-13.725,-4.8544,0.7767,4.8309,-6.8277,2.8479,-13.725,-4.8544,0.9901,5.6872,8.5486,5.7778,10.628,4.8077,2.7432,10.49,6.8293,11.41
-0.06319,3.873,1.9512,-19.608,-7.767,-2.1359,-0.96618,-10.692,-1.0356,-19.608,-7.767,-1.9802,2.8436,1.8501,1.9683,4.8309,0.0,-1.0845,3.8547,4.878,6.6026
-4.8025,-1.8413,-5.8537,-16.667,-0.97087,-4.0777,-2.8986,-10.692,-2.0065,-16.667,-0.97087,-5.9406,4.7393,3.764,-2.7937,-1.9324,-1.9231,-3.9553,0.06319,1.9512,5.641
-3.8547,-1.8413,-6.8293,0.98039,-1.9417,-10.874,-2.8986,-5.8615,-0.06472,0.98039,-1.9417,-5.9406,9.4787,12.376,1.9683,5.7971,6.7308,-6.8262,6.6983,0.0,10.449
-0.06319,2.9206,-1.9512,6.8627,-4.8544,-10.874,0.0,-2.963,1.877,6.8627,-4.8544,-0.9901,6.6351,12.376,4.8254,11.594,8.6538,-8.74,12.385,-5.8537,13.333
2.7804,5.7778,2.9268,-5.8824,-6.7961,-0.19417,4.8309,-5.8615,1.877,-5.8824,-6.7961,3.9604,0.0,7.5917,1.9683,8.6957,4.8077,-7.7831,0.06319,-11.707,6.6026
1.8325,4.8254,4.878,-16.667,-1.9417,3.6893,4.8309,-4.8953,-0.06472,-16.667,-1.9417,5.9406,-1.8957,0.89314,-0.88889,4.8309,1.9231,-2.0415,1.9589,-8.7805,-0.12821
-1.0111,0.06349,1.9512,1.9608,-0.97087,0.7767,0.96618,-1.9968,-1.0356,1.9608,-0.97087,1.9802,-5.6872,-1.9777,-1.8413,1.9324,0.0,-0.12759,1.9589,-2.9268,-1.0897
-1.9589,-2.7937,-2.9268,9.8039,-2.9126,-5.0485,-2.8986,0.90177,-2.0065,9.8039,-2.9126,-0.9901,-3.7915,-1.0207,-2.7937,-2.8986,-2.8846,0.82935,-0.88468,0.97561,-0.12821
-3.8547,-6.6032,-7.8049,2.9412,-2.9126,-7.9612,-5.7971,0.90177,-5.89,2.9412,-2.9126,-3.9604,0.0,-1.9777,-6.6032,-11.594,-9.6154,5.614,-0.88468,2.9268,-4.9359
-7.6461,-8.5079,-11.707,0.0,-3.8835,-6.9903,-4.8309,2.8341,-5.89,0.0,-3.8835,-5.9406,3.7915,-1.0207,-10.413,-14.493,-13.462,6.571,-4.6761,5.8537,-8.7821
-8.594,-7.5556,-11.707,-8.8235,-6.7961,-2.1359,-5.7971,-0.06441,-2.9773,-8.8235,-6.7961,-5.9406,4.7393,-2.9346,-11.365,-10.628,-13.462,4.6571,-4.6761,4.878,-8.7821
-5.7504,-7.5556,-6.8293,-15.686,-9.7087,-0.19417,-7.7295,-1.9968,-3.9482,-15.686,-9.7087,-4.9505,-1.8957,-5.8054,-8.5079,-7.7295,-10.577,3.7002,-11.311,0.0,-5.8974
-2.9068,-4.6984,-5.8537,-14.706,-4.8544,0.7767,-1.9324,-1.9968,-2.9773,-14.706,-4.8544,-2.9703,-9.4787,-8.6762,-6.6032,-6.7633,-10.577,0.82935,-8.4676,-1.9512,-3.0128
-2.9068,-2.7937,-9.7561,4.902,-1.9417,-0.19417,1.9324,-0.06441,0.90615,4.902,-1.9417,-1.9802,-7.5829,-8.6762,-5.6508,-7.7295,-11.538,4.6571,1.0111,-2.9268,-3.0128
-2.9068,-4.6984,-10.732,4.902,-1.9417,1.7476,4.8309,-1.0306,2.8479,4.902,-1.9417,0.0,-6.6351,-9.6332,-5.6508,-9.6618,-11.538,1.7863,0.06319,-6.8293,-7.8205
3.7283,0.06349,0.97561,4.902,5.8252,5.6311,9.6618,5.7327,8.6731,4.902,5.8252,6.9307,-8.5308,-9.6332,-1.8413,-3.8647,-6.7308,-0.12759,2.9068,-5.8537,-6.859
3.7283,3.873,5.8537,5.8824,11.65,5.6311,11.594,4.7665,9.644,5.8824,11.65,7.9208,-4.7393,-5.8054,-2.7937,0.96618,-3.8462,-2.9984,3.8547,-5.8537,-1.0897
0.88468,2.9206,1.9512,5.8824,10.68,0.7767,4.8309,-1.0306,7.7023,5.8824,10.68,1.9802,-1.8957,-3.8915,-1.8413,0.96618,-5.7692,-5.8692,4.8025,0.97561,-2.0513
0.88468,1.9683,-2.9268,-3.9216,9.7087,-0.19417,2.8986,-2.963,7.7023,-3.9216,9.7087,0.9901,2.8436,-1.0207,1.9683,0.0,-2.8846,-3.9553,0.06319,1.9512,-2.0513
4.6761,3.873,-1.9512,-4.902,9.7087,6.6019,5.7971,-2.963,9.644,-4.902,9.7087,4.9505,5.6872,3.764,7.6825,4.8309,2.8846,-7.7831,-3.7283,4.878,5.641
10.363,7.6825,5.8537,9.8039,6.7961,6.6019,9.6618,0.90177,10.615,9.8039,6.7961,9.901,8.5308,6.6348,11.492,9.6618,8.6538,-0.12759,7.6461,7.8049,10.449
9.4155,12.444,13.659,13.725,6.7961,5.6311,10.628,-1.0306,9.644,13.725,6.7961,10.891,-2.8436,4.7209,6.7302,12.56,7.6923,-3.9553,15.229,-0.97561,11.41
0.88468,8.6349,8.7805,0.98039,5.8252,-0.19417,3.8647,-4.8953,6.7314,0.98039,5.8252,3.9604,-3.7915,3.764,1.0159,9.6618,2.8846,-8.74,13.333,-3.9024,12.372
-2.9068,3.873,0.97561,-2.9412,2.9126,-6.0194,0.0,-5.8615,6.7314,-2.9412,2.9126,-1.9802,2.8436,3.764,1.0159,3.8647,0.0,-5.8692,11.438,1.9512,7.5641
1.8325,1.0159,-1.9512,-6.8627,1.9417,-0.19417,3.8647,-4.8953,4.7896,-6.8627,1.9417,0.0,3.7915,-0.0638,1.9683,-0.96618,-1.9231,1.7863,6.6983,10.732,0.83333
3.7283,-3.746,-5.8537,-7.8431,-0.97087,0.7767,-2.8986,-1.0306,-2.0065,-7.8431,-0.97087,-3.9604,2.8436,0.89314,1.9683,-2.8986,-0.96154,7.5279,1.9589,12.683,1.7949
1.8325,-7.5556,-5.8537,4.902,-4.8544,-4.0777,-10.628,1.868,-7.8317,4.902,-4.8544,-8.9109,4.7393,4.7209,3.873,-0.96618,2.8846,8.4848,-4.6761,9.7561,1.7949
5.624,-2.7937,1.9512,7.8431,-2.9126,1.7476,-4.8309,3.8003,-2.9773,7.8431,-2.9126,-2.9703,5.6872,3.764,7.6825,1.9324,4.8077,9.4418,-10.363,5.8537,2.7564
9.4155,5.7778,9.7561,0.98039,-1.9417,7.5728,6.7633,4.7665,1.877,0.98039,-1.9417,4.9505,4.7393,2.807,10.54,3.8647,3.8462,4.6571,-1.8325,2.9268,2.7564
8.4676,5.7778,8.7805,1.9608,2.9126,2.7184,8.6957,4.7665,-0.06472,1.9608,2.9126,4.9505,-1.8957,-3.8915,8.6349,0.96618,0.96154,1.7863,0.06319,-0.97561,-0.12821
4.6761,1.9683,4.878,0.0,3.8835,0.7767,0.0,0.90177,-1.0356,0.0,3.8835,0.9901,-4.7393,-4.8485,2.9206,-1.9324,-1.9231,1.7863,-1.8325,-5.8537,-4.9359
2.7804,1.0159,1.9512,-6.8627,2.9126,6.6019,-0.96618,-1.9968,1.877,-6.8627,2.9126,1.9802,-3.7915,-3.8915,-1.8413,-2.8986,-3.8462,-2.9984,1.0111,-4.878,-1.0897
-0.06319,2.9206,0.97561,5.8824,5.8252,5.6311,6.7633,1.868,5.7605,5.8824,5.8252,6.9307,-4.7393,-3.8915,-5.6508,-2.8986,-6.7308,-4.9123,4.8025,0.97561,-2.0513
-2.9068,8.6349,5.8537,16.667,10.68,-1.165,11.594,1.868,9.644,16.667,10.68,9.901,-4.7393,-0.0638,-6.6032,0.96618,-4.8077,-4.9123,8.594,-4.878,-0.12821
-1.0111,14.349,12.683,9.8039,8.7379,3.6893,14.493,0.90177,10.615,9.8039,8.7379,12.871,0.94787,4.7209,-1.8413,8.6957,2.8846,-6.8262,4.8025,-7.8049,5.641
5.624,14.349,14.634,10.784,12.621,7.5728,12.56,3.8003,5.7605,10.784,12.621,13.861,-0.94787,-0.0638,5.7778,10.628,7.6923,-2.0415,4.8025,-0.97561,3.7179
10.363,7.6825,8.7805,7.8431,13.592,8.5437,5.7971,7.6651,3.8188,7.8431,13.592,10.891,-0.94787,-3.8915,7.6825,3.8647,4.8077,3.7002,1.9589,3.9024,-2.0513
6.5719,-3.746,-3.9024,-4.902,3.8835,12.427,0.96618,6.6989,2.8479,-4.902,3.8835,4.9505,6.6351,-2.9346,1.9683,-6.7633,-2.8846,4.6571,-2.7804,3.9024,-7.8205
-3.8547,-13.27,-12.683,1.9608,-2.9126,3.6893,-3.8647,2.8341,-2.0065,1.9608,-2.9126,-2.9703,-6.6351,-7.7193,-10.413,-15.459,-11.538,-0.12759,-6.5719,-9.7561,-8.7821
-8.594,-9.4603,-10.732,8.8235,-0.97087,-1.165,-3.8647,-0.06441,-2.0065,8.8235,-0.97087,-4.9505,-14.218,-11.547,-14.222,-12.56,-13.462,-0.12759,-3.7283,-17.561001,-7.8205
-8.594,-5.6508,-8.7805,1.9608,-3.8835,-4.0777,-4.8309,-1.9968,-4.9191,1.9608,-3.8835,-6.9307,-10.427,-8.6762,-10.413,-5.7971,-11.538,0.82935,-3.7283,-12.683,-3.0128
-7.6461,-4.6984,-9.7561,-1.9608,-11.65,-10.874,-6.7633,-3.9291,-4.9191,-1.9608,-11.65,-9.901,-4.7393,-4.8485,-3.746,-0.96618,-7.6923,-0.12759,1.9589,-1.9512,2.7564
-8.594,-6.6032,-11.707,-8.8235,-8.7379,-14.757,-6.7633,-3.9291,-2.0065,-8.8235,-8.7379,-12.871,2.8436,1.8501,-0.88889,0.0,-3.8462,1.7863,6.6983,4.878,4.6795
-8.594,-11.365,-10.732,-17.646999,-3.8835,-8.932,-5.7971,-3.9291,-3.9482,-17.646999,-3.8835,-8.9109,1.8957,-4.8485,-2.7937,-8.6957,-5.7692,-2.9984,-6.5719,6.8293,-5.8974
-1.0111,-10.413,-1.9512,0.0,2.9126,-3.1068,-4.8309,0.90177,-2.0065,0.0,2.9126,-2.9703,-6.6351,-10.59,-0.88889,-10.628,-4.8077,4.6571,-7.5197,7.8049,-9.7436
0.88468,-6.6032,0.97561,12.745,1.9417,-3.1068,-5.7971,1.868,0.90615,12.745,1.9417,-1.9802,-8.5308,-8.6762,-2.7937,-8.6957,-3.8462,7.5279,-0.88468,1.9512,-9.7436
-5.7504,-3.746,-4.878,2.9412,0.97087,-5.0485,-2.8986,-1.9968,3.8188,2.9412,0.97087,-4.9505,-6.6351,-3.8915,-9.4603,-4.8309,-4.8077,-1.0845,1.9589,-8.7805,-3.0128
-7.6461,-0.88889,-5.8537,-0.98039,1.9417,-0.19417,-1.9324,-5.8615,5.7605,-0.98039,1.9417,-3.9604,-0.94787,4.7209,-7.5556,0.0,-2.8846,-4.9123,7.6461,-5.8537,6.6026
0.88468,2.9206,1.9512,5.8824,2.9126,3.6893,2.8986,3.8003,5.7605,5.8824,2.9126,2.9703,3.7915,6.6348,1.9683,4.8309,2.8846,-0.12759,6.6983,-0.97561,10.449
7.5197,6.7302,11.707,4.902,1.9417,5.6311,3.8647,10.564,3.8188,4.902,1.9417,5.9406,6.6351,4.7209,9.5873,10.628,10.577,3.7002,4.8025,2.9268,7.5641
6.5719,6.7302,12.683,-1.9608,1.9417,6.6019,1.9324,7.6651,0.90615,-1.9608,1.9417,4.9505,2.8436,5.6778,9.5873,12.56,15.385,2.7432,3.8547,4.878,6.6026
1.8325,3.873,4.878,-4.902,-1.9417,7.5728,2.8986,6.6989,0.90615,-4.902,-1.9417,3.9604,1.8957,3.764,6.7302,9.6618,15.385,-2.9984,-4.6761,6.8293,3.7179
-4.8025,-0.88889,-4.878,1.9608,-3.8835,1.7476,0.0,4.7665,-2.9773,1.9608,-3.8835,-0.9901,0.0,0.89314,1.0159,0.96618,5.7692,1.7863,-8.4676,3.9024,-5.8974
-8.594,-9.4603,-10.732,8.8235,-5.8252,-5.0485,-8.6957,1.868,-8.8026,8.8235,-5.8252,-8.9109,-0.94787,-4.8485,-2.7937,-10.628,-5.7692,3.7002,-10.363,2.9268,-14.551
-7.6461,-13.27,-9.7561,1.9608,-6.7961,-6.9903,-15.459,-0.06441,-13.657,1.9608,-6.7961,-12.871,-2.8436,-8.6762,-4.6984,-12.56,-9.6154,-1.0845,-7.5197,-0.97561,-12.628
-7.6461,-13.27,-8.7805,-1.9608,-9.7087,-6.0194,-16.424999,1.868,-14.628,-1.9608,-9.7087,-11.881,-1.8957,-9.6332,-6.6032,-11.594,-11.538,-2.9984,-6.5719,-3.9024,-7.8205
-9.5419,-9.4603,-10.732,-6.8627,-10.68,-6.0194,-7.7295,0.90177,-7.8317,-6.8627,-10.68,-7.9208,-7.5829,-9.6332,-11.365,-8.6957,-12.5,-7.7831,-4.6761,-7.8049,-3.9744
-12.385,-5.6508,-15.61,-1.9608,-6.7961,-6.0194,-0.96618,-0.06441,-2.0065,-1.9608,-6.7961,-4.9505,-3.7915,-1.9777,-15.175,-7.7295,-9.6154,-9.697,0.06319,-9.7561,-3.0128
-8.594,-7.5556,-15.61,0.0,-3.8835,-2.1359,-0.96618,-0.06441,-2.0065,0.0,-3.8835,-2.9703,-2.8436,0.89314,-12.317,-8.6957,-4.8077,-1.0845,-1.8325,-7.8049,-4.9359
-1.9589,-8.5079,-6.8293,-1.9608,-5.8252,0.7767,0.0,-1.0306,-3.9482,-1.9608,-5.8252,0.0,0.0,-0.0638,-3.746,-7.7295,-0.96154,2.7432,-5.624,3.9024,-4.9359
-1.0111,-7.5556,-1.9512,3.9216,-3.8835,-1.165,-2.8986,-1.9968,-2.0065,3.9216,-3.8835,-1.9802,0.94787,1.8501,-2.7937,-4.8309,-1.9231,0.82935,-6.5719,4.878,-3.0128
-4.8025,-6.6032,-6.8293,3.9216,2.9126,-4.0777,-6.7633,-3.9291,0.90615,3.9216,2.9126,-6.9307,2.8436,6.6348,-6.6032,-2.8986,-6.7308,-0.12759,-2.7804,0.0,3.7179
-6.6983,-4.6984,-10.732,0.0,3.8835,-5.0485,-6.7633,-5.8615,2.8479,0.0,3.8835,-8.9109,3.7915,5.6778,-7.5556,-3.8647,-8.6538,-4.9123,5.7504,-0.97561,6.6026
-6.6983,-2.7937,-10.732,-9.8039,0.97087,-7.9612,-4.8309,-3.9291,-0.06472,-9.8039,0.97087,-6.9307,-1.8957,1.8501,-6.6032,-5.7971,-7.6923,-2.0415,1.0111,-2.9268,0.83333
-3.8547,-0.88889,-4.878,-4.902,0.0,-4.0777,0.0,0.90177,-1.0356,-4.902,0.0,-0.9901,4.7393,4.7209,-4.6984,-3.8647,-0.96154,1.7863,-6.5719,0.0,-5.8974
-1.9589,-1.8413,0.0,4.902,1.9417,-2.1359,1.9324,6.6989,-3.9482,4.902,1.9417,0.9901,-0.94787,3.764,-2.7937,-0.96618,4.8077,0.82935,-6.5719,-1.9512,-5.8974
