C3,C4,Cz,F1,F2,F3,F4,F7,F8,Fp1,Fp2,Fz,O1,O2,P3,P4,Pz,T3,T4,T5,T6
-7.6461,-11.365,-0.91057,-10.732,-11.823,-8.0,-5.7971,-2.0065,-1.0407,-10.732,-11.823,-7.8818,-6.6667,-21.016001,1.0159,-14.423,-4.7665,-3.0274,-7.4566,-0.98522,-19.358999
-9.5419,-9.4603,0.06504,-7.8049,-9.8522,-8.9756,-4.8309,-7.8317,-0.06504,-7.8049,-9.8522,-6.8966,-9.5238,-17.205999,-1.8413,-11.538,-4.7665,-8.8245,0.12638,-7.8818,-14.551
-7.6461,-9.4603,2.0163,-7.8049,-5.9113,-7.0244,-3.8647,-10.744,-0.06504,-7.8049,-5.9113,-3.9409,-6.6667,-12.444,-1.8413,-8.6538,-1.868,-5.9259,8.6572,-5.9113,-7.8205
-4.8025,-3.746,4.9431,-5.8537,-0.98522,-3.122,1.9324,-8.8026,-0.06504,-5.8537,-0.98522,0.0,-3.8095,-8.6349,0.06349,-4.8077,1.9968,-7.8583,-2.7172,-3.9409,-3.0128
-3.8547,2.9206,7.8699,-6.8293,-0.98522,-5.0732,0.96618,-10.744,0.91057,-6.8293,-0.98522,0.98522,-1.9048,-7.6825,1.0159,-0.96154,3.9291,-16.554001,-4.613,-1.9704,-2.0513
-6.6983,1.0159,2.9919,-14.634,-7.8818,-8.9756,-6.7633,-19.482,-3.9675,-14.634,-7.8818,-2.9557,-8.5714,-10.54,-3.746,-4.8077,-0.90177,-23.316999,0.12638,-6.8966,-7.8205
-4.8025,6.7302,5.9187,-21.462999,-19.704,0.78049,3.8647,-26.278,-1.0407,-21.462999,-19.704,1.9704,-5.7143,-6.7302,-2.7937,-1.9231,1.0306,-17.52,2.0221,-5.9113,-6.859
-2.9068,9.5873,7.8699,-14.634,-5.9113,-8.9756,6.7633,-18.511,2.8618,-14.634,-5.9113,2.9557,-0.95238,-5.7778,1.0159,1.9231,2.963,-23.316999,9.6051,-1.9704,-2.0513
-1.9589,8.6349,7.8699,-8.7805,3.9409,-11.902,6.7633,-9.7735,4.813,-8.7805,3.9409,1.9704,0.95238,-1.9683,1.9683,2.8846,3.9291,-17.52,19.084,-5.9113,3.7179
-1.0111,18.159,10.797,-9.7561,-0.98522,-6.0488,7.7295,-15.599,7.7398,-9.7561,-0.98522,3.9409,1.9048,4.6984,2.9206,8.6538,5.8615,-14.622,13.397,-6.8966,7.5641
-1.9589,17.205999,9.8211,-17.561001,-6.8966,-5.0732,13.527,-28.219999,12.618,-17.561001,-6.8966,4.9261,0.0,2.7937,0.06349,6.7308,3.9291,-25.25,12.449,-4.9261,6.6026
-10.49,10.54,1.0407,-22.438999,-10.837,-10.927,3.8647,-31.132999,9.6911,-22.438999,-10.837,0.0,-7.619,-4.8254,-7.5556,0.0,-4.7665,-32.979,1.0742,-13.793,3.7179
-15.229,7.6825,-3.8374,-25.365999,-11.823,-18.732,0.96618,-30.162001,3.8374,-25.365999,-11.823,-3.9409,-11.429,-7.6825,-13.27,-2.8846,-10.564,-52.303001,9.6051,-22.66,4.6795
-14.281,8.6349,-4.813,-18.537001,-1.9704,-14.829,7.7295,-31.132999,6.7642,-18.537001,-1.9704,-1.9704,-9.5238,-5.7778,-14.222,-1.9231,-10.564,-46.506001,20.032,-22.66,7.5641
-22.812,3.873,-10.667,-17.561001,0.98522,-15.805,-2.8986,-38.900002,11.642,-17.561001,0.98522,-6.8966,-13.333,-6.7302,-20.889,-5.7692,-15.395,-51.337002,25.719,-25.615999,4.6795
-25.656,-2.7937,-14.569,-24.389999,1.9704,-19.707001,-3.8647,-38.900002,15.545,-24.389999,1.9704,-11.823,-14.286,-6.7302,-22.794001,-6.7308,-16.361,-51.337002,20.032,-26.601,3.7179
-24.708,1.0159,-13.593,-21.462999,0.98522,-19.707001,1.9324,-35.015999,13.593,-21.462999,0.98522,-10.837,-8.5714,-1.9683,-19.937,-2.8846,-11.53,-42.640999,19.084,-19.704,6.6026
-22.812,2.9206,-12.618,-17.561001,-5.9113,-24.584999,2.8986,-34.044998,13.593,-17.561001,-5.9113,-11.823,-3.8095,0.88889,-18.032,-0.96154,-7.6651,-41.674999,9.6051,-18.719,8.5256
-17.125,1.0159,-9.6911,-21.462999,-10.837,-14.829,3.8647,-37.929001,9.6911,-21.462999,-10.837,-10.837,-0.95238,-0.06349,-15.175,-1.9231,-4.7665,-43.606998,8.6572,-14.778,4.6795
-13.333,5.7778,-1.8862,-17.561001,-0.98522,-13.854,1.9324,-26.278,11.642,-17.561001,-0.98522,-8.867,0.0,-1.0159,-9.4603,2.8846,0.06441,-41.674999,12.449,-10.837,2.7564
-7.6461,8.6349,5.9187,-9.7561,11.823,-10.927,0.96618,-17.540001,10.667,-9.7561,11.823,-3.9409,4.7619,3.746,-1.8413,8.6538,7.7939,-26.216,8.6572,-11.823,3.7179
-1.0111,14.349,12.748,6.8293,17.733999,-3.122,9.6618,-13.657,10.667,6.8293,17.733999,2.9557,7.619,0.88889,2.9206,11.538,11.659,-16.554001,-3.6651,-6.8966,4.6795
4.6761,16.254,17.625999,10.732,17.733999,2.7317,19.323999,-5.89,9.6911,10.732,17.733999,8.867,8.5714,-1.9683,5.7778,11.538,13.591,-10.757,7.7093,-0.98522,2.7564
6.5719,11.492,17.625999,6.8293,11.823,2.7317,17.391001,-2.0065,8.7154,6.8293,11.823,9.8522,9.5238,-3.873,7.6825,9.6154,13.591,-3.0274,11.501,1.9704,2.7564
1.8325,9.5873,13.724,4.878,7.8818,-0.19512,11.594,-5.89,8.7154,4.878,7.8818,7.8818,2.8571,-6.7302,2.9206,5.7692,7.7939,-9.7907,2.97,-1.9704,-0.12821
2.7804,12.444,13.724,4.878,3.9409,4.6829,14.493,-7.8317,4.813,4.878,3.9409,8.867,-0.95238,-4.8254,-0.88889,7.6923,4.8953,-16.554001,-1.7694,-4.9261,5.641
5.624,15.302,15.675,2.9268,9.8522,11.512,12.56,-2.9773,9.6911,2.9268,9.8522,12.808,0.0,-1.9683,-0.88889,7.6923,3.9291,-10.757,0.12638,-4.9261,3.7179
5.624,12.444,16.65,9.7561,19.704,14.439,15.459,0.90615,16.52,9.7561,19.704,15.764,-0.95238,-1.0159,-1.8413,5.7692,2.963,-2.0612,3.9179,-9.8522,-2.0513
2.7804,11.492,15.675,16.584999,19.704,6.6341,20.290001,7.7023,17.496,16.584999,19.704,17.733999,0.0,1.8413,-3.746,4.8077,1.0306,-7.8583,13.397,-13.793,-1.0897
2.7804,11.492,14.699,13.659,16.749001,6.6341,21.256001,8.6731,14.569,13.659,16.749001,17.733999,-3.8095,4.6984,-5.6508,3.8462,-0.90177,-4.9597,22.875,-14.778,3.7179
8.4676,15.302,18.601999,10.732,15.764,15.415,17.391001,5.7605,12.618,10.732,15.764,21.674999,-2.8571,-0.06349,-1.8413,3.8462,-1.868,-3.0274,6.7615,-15.764,1.7949
18.893999,24.825001,27.382,20.488001,18.719,21.268,28.986,11.586,19.447001,20.488001,18.719,29.556999,1.9048,2.7937,7.6825,10.577,4.8953,-3.9936,8.6572,-8.867,8.5256
19.841999,19.111,24.455,20.488001,16.749001,26.146,27.052999,2.8479,22.374001,20.488001,16.749001,27.586,-2.8571,-0.06349,11.492,7.6923,4.8953,-3.9936,20.032,-5.9113,3.7179
17.945999,11.492,18.601999,6.8293,13.793,11.512,17.391001,7.7023,12.618,6.8293,13.793,18.719,-6.6667,-9.5873,12.444,2.8846,1.9968,1.8035,15.292,-1.9704,-2.0513
19.841999,10.54,16.65,3.9024,9.8522,7.6098,12.56,8.6731,7.7398,3.9024,9.8522,13.793,-5.7143,-13.397,16.254,3.8462,2.963,11.465,10.553,4.9261,-1.0897
18.893999,4.8254,14.699,-5.8537,1.9704,9.561,3.8647,-0.06472,5.7886,-5.8537,1.9704,10.837,-5.7143,-14.349,18.159,2.8846,3.9291,9.533,7.7093,5.9113,-1.0897
16.997999,2.9206,11.772,-3.9024,0.0,9.561,-1.9324,-3.9482,-0.06504,-3.9024,0.0,7.8818,-5.7143,-12.444,19.111,4.8077,5.8615,6.6345,3.9179,8.867,2.7564
13.207,8.6349,8.8455,0.97561,0.0,3.7073,1.9324,-5.89,-2.0163,0.97561,0.0,4.9261,-3.8095,-9.5873,19.111,8.6538,7.7939,-1.095,1.0742,12.808,6.6026
12.259,9.5873,7.8699,-1.9512,-5.9113,-0.19512,2.8986,-4.9191,1.8862,-1.9512,-5.9113,1.9704,-0.95238,-7.6825,20.063,10.577,9.7262,1.8035,-2.7172,16.749001,12.372
10.363,2.9206,5.9187,-9.7561,-6.8966,-0.19512,-5.7971,-7.8317,2.8618,-9.7561,-6.8966,-0.98522,0.95238,-6.7302,19.111,6.7308,8.7601,5.6683,11.501,19.704,6.6026
7.5197,-0.88889,4.9431,-11.707,-3.9409,-2.1463,-3.8647,-5.89,-2.0163,-11.707,-3.9409,-1.9704,3.8095,-1.9683,17.205999,5.7692,8.7601,-3.0274,14.344,16.749001,4.6795
3.7283,-0.88889,3.9675,-7.8049,-8.867,-3.122,-0.96618,-2.9773,-3.9675,-7.8049,-8.867,-1.9704,5.7143,-0.06349,14.349,4.8077,6.8277,-1.095,2.0221,13.793,4.6795
5.624,1.0159,6.8943,-4.878,-3.9409,4.6829,6.7633,-1.0356,-1.0407,-4.878,-3.9409,3.9409,5.7143,-0.06349,9.5873,2.8846,4.8953,3.7359,1.0742,13.793,0.83333
5.624,3.873,7.8699,-1.9512,7.8818,2.7317,6.7633,7.7023,1.8862,-1.9512,7.8818,7.8818,3.8095,0.88889,4.8254,1.9231,1.9968,6.6345,-16.934999,10.837,0.83333
6.5719,3.873,9.8211,9.7561,13.793,7.6098,9.6618,5.7605,4.813,9.7561,13.793,12.808,2.8571,-0.06349,1.0159,-0.96154,0.06441,2.7697,-12.196,1.9704,-4.9359
6.5719,4.8254,9.8211,12.683,11.823,8.5854,10.628,7.7023,1.8862,12.683,11.823,12.808,3.8095,-1.9683,-0.88889,-1.9231,-1.868,3.7359,1.0742,0.0,-12.628
8.4676,7.6825,11.772,4.878,4.9261,7.6098,14.493,9.644,-0.06504,4.878,4.9261,12.808,2.8571,-1.9683,-0.88889,0.0,-0.90177,-0.12882,2.97,1.9704,-15.513
13.207,9.5873,15.675,6.8293,4.9261,13.463,18.357,5.7605,2.8618,6.8293,4.9261,17.733999,3.8095,-1.0159,1.9683,1.9231,1.0306,-6.8921,-15.987,0.98522,-14.551
16.997999,11.492,19.577,10.732,8.867,14.439,14.493,7.7023,3.8374,10.732,8.867,19.704,9.5238,2.7937,7.6825,3.8462,3.9291,6.6345,-14.092,6.8966,-10.705
16.051001,10.54,18.601999,11.707,9.8522,18.341,16.424999,-0.06472,1.8862,11.707,9.8522,18.719,9.5238,3.746,8.6349,3.8462,4.8953,9.533,-5.5608,7.8818,-6.859
11.311,4.8254,12.748,2.9268,5.9113,9.561,11.594,4.7896,-0.06504,2.9268,5.9113,10.837,6.6667,2.7937,4.8254,1.9231,1.9968,1.8035,-3.6651,4.9261,-5.8974
8.4676,3.873,7.8699,-4.878,4.9261,4.6829,0.96618,4.7896,-1.0407,-4.878,4.9261,5.9113,1.9048,-1.9683,0.06349,0.96154,-0.90177,2.7697,-15.039,-1.9704,-3.0128
3.7283,1.0159,2.0163,1.9512,2.9557,-0.19512,-4.8309,0.90615,-6.8943,1.9512,2.9557,0.0,-1.9048,-7.6825,-5.6508,-2.8846,-5.7327,1.8035,-8.4044,-5.9113,-3.9744
-1.9589,-3.746,-2.8618,7.8049,0.0,-8.0,-5.7971,1.877,-6.8943,7.8049,0.0,-4.9261,-5.7143,-9.5873,-8.5079,-7.6923,-9.5974,-3.0274,-0.82148,-4.9261,-9.7436
-6.6983,-11.365,-8.7154,0.0,-4.9261,-8.9756,-10.628,-3.9482,-2.9919,0.0,-4.9261,-10.837,-8.5714,-8.6349,-11.365,-9.6154,-10.564,-9.7907,2.97,-6.8966,-9.7436
-13.333,-15.175,-12.618,-4.878,0.0,-13.854,-20.290001,-8.8026,-2.0163,-4.878,0.0,-14.778,-11.429,-8.6349,-15.175,-10.577,-12.496,-7.8583,2.97,-10.837,-5.8974
-19.968,-17.079,-15.545,-3.9024,-3.9409,-13.854,-16.424999,-16.57,-1.0407,-3.9024,-3.9409,-15.764,-12.381,-9.5873,-18.983999,-12.5,-15.395,-8.8245,-2.7172,-16.749001,-4.9359
-19.021,-12.317,-12.618,2.9268,0.98522,-8.9756,-11.594,-6.8608,-4.9431,2.9268,0.98522,-10.837,-8.5714,-1.9683,-17.079,-9.6154,-12.496,-6.8921,2.0221,-11.823,1.7949
-24.708,-17.079,-20.423,-3.9024,0.0,-17.756001,-21.256001,0.90615,-0.06504,-3.9024,0.0,-16.749001,-16.190001,-4.8254,-23.746,-16.346001,-19.259001,-6.8921,-13.144,-14.778,-3.0128
-28.499001,-24.698,-27.252001,-9.7561,-7.8818,-22.634001,-18.357,-1.0356,3.8374,-9.7561,-7.8818,-21.674999,-19.048,-4.8254,-28.507999,-22.115,-25.056,-7.8583,-2.7172,-17.733999,-3.0128
-28.499001,-23.746,-27.252001,1.9512,-2.9557,-18.732,-13.527,-2.0065,4.813,1.9512,-2.9557,-20.690001,-17.143,-2.9206,-29.459999,-21.153999,-26.023001,-5.9259,3.9179,-17.733999,0.83333
-31.343,-19.937,-27.252001,0.0,-1.9704,-19.707001,-17.391001,-4.9191,4.813,0.0,-1.9704,-21.674999,-21.905001,-6.7302,-35.174999,-24.038,-31.82,-12.689,3.9179,-26.601,-3.9744
-31.343,-16.127001,-27.252001,-5.8537,-7.8818,-20.683001,-15.459,-7.8317,1.8862,-5.8537,-7.8818,-21.674999,-23.809999,-6.7302,-38.984001,-24.038,-34.717999,-15.588,11.501,-29.556999,-7.8205
-25.656,-4.6984,-20.423,-5.8537,-5.9113,-13.854,-8.6957,-11.715,4.813,-5.8537,-5.9113,-14.778,-23.809999,-5.7778,-36.126999,-17.308001,-30.853001,-17.52,8.6572,-25.615999,-4.9359
-19.968,1.0159,-14.569,-13.659,-9.8522,-4.0976,-4.8309,-2.9773,3.8374,-13.659,-9.8522,-10.837,-20.0,-3.873,-31.365,-11.538,-26.989,-7.8583,6.7615,-20.690001,-0.12821
-13.333,5.7778,-10.667,-7.8049,-10.837,-2.1463,-3.8647,9.644,2.8618,-7.8049,-10.837,-6.8966,-15.238,1.8413,-25.650999,-5.7692,-21.191999,0.83736,-0.82148,-13.793,3.7179
-9.5419,8.6349,-6.7642,1.9512,2.9557,-3.122,0.96618,5.7605,5.7886,1.9512,2.9557,-3.9409,-15.238,2.7937,-21.841,-1.9231,-17.327,-7.8583,15.292,-13.793,7.5641
-7.6461,6.7302,-4.813,4.878,1.9704,-1.1707,0.96618,3.8188,6.7642,4.878,1.9704,-2.9557,-19.048,-1.0159,-20.889,-0.96154,-15.395,-5.9259,20.032,-16.749001,7.5641
-8.594,7.6825,-3.8374,3.9024,-4.9261,-2.1463,2.8986,-1.0356,4.813,3.9024,-4.9261,-2.9557,-20.952,-2.9206,-20.889,0.96154,-13.462,-4.9597,11.501,-22.66,8.5256
-6.6983,7.6825,-1.8862,-2.9268,-7.8818,-3.122,3.8647,-1.0356,1.8862,-2.9268,-7.8818,-2.9557,-16.190001,0.88889,-15.175,5.7692,-7.6651,-3.0274,10.553,-15.764,13.333
-0.06319,10.54,3.9675,-3.9024,-3.9409,6.6341,5.7971,-7.8317,0.91057,-3.9024,-3.9409,0.98522,-9.5238,0.88889,-5.6508,8.6538,1.0306,0.83736,-0.82148,-3.9409,6.6026
-1.0111,2.9206,2.0163,-8.7805,-6.8966,1.7561,-3.8647,1.877,-0.06504,-8.7805,-6.8966,-3.9409,-6.6667,-1.0159,-1.8413,4.8077,2.963,1.8035,11.501,-3.9409,-1.0897
-5.7504,-8.5079,-1.8862,-8.7805,-9.8522,-7.0244,-12.56,5.7605,-2.0163,-8.7805,-9.8522,-9.8522,-4.7619,-0.06349,-2.7937,-0.96154,1.0306,7.6006,5.8136,-2.9557,-0.12821
-6.6983,-7.5556,-1.8862,-10.732,-5.9113,-10.927,-5.7971,-0.06472,-1.0407,-10.732,-5.9113,-8.867,-1.9048,2.7937,-1.8413,-0.96154,1.9968,1.8035,1.0742,0.98522,2.7564
-9.5419,-6.6032,-1.8862,-8.7805,-6.8966,-16.780001,-0.96618,-7.8317,-1.0407,-8.7805,-6.8966,-6.8966,-0.95238,5.6508,-2.7937,-0.96154,1.9968,-7.8583,-8.4044,0.0,8.5256
-12.385,-12.317,-6.7642,-8.7805,-7.8818,-12.878,-5.7971,-16.57,-0.06504,-8.7805,-7.8818,-6.8966,-5.7143,3.746,-7.5556,-7.6923,-2.8341,-13.655,-5.5608,-7.8818,1.7949
-12.385,-12.317,-9.6911,-14.634,-3.9409,-12.878,-10.628,-14.628,0.91057,-14.634,-3.9409,-7.8818,-1.9048,9.4603,-6.6032,-7.6923,-2.8341,-15.588,9.6051,-7.8818,2.7564
-12.385,-7.5556,-10.667,-17.561001,0.98522,-12.878,-5.7971,-15.599,-1.0407,-17.561001,0.98522,-8.867,1.9048,9.4603,-3.746,-2.8846,-0.90177,-12.689,4.8657,-6.8966,7.5641
-14.281,-2.7937,-9.6911,-14.634,0.0,-18.732,3.8647,-10.744,1.8862,-14.634,0.0,-9.8522,0.95238,4.6984,-2.7937,0.96154,1.0306,-7.8583,3.9179,-8.867,3.7179
-13.333,-0.88889,-6.7642,-7.8049,0.98522,-17.756001,0.96618,-8.8026,4.813,-7.8049,0.98522,-7.8818,1.9048,5.6508,-2.7937,3.8462,1.9968,-10.757,0.12638,-6.8966,2.7564
-8.594,4.8254,-1.8862,-4.878,4.9261,-7.0244,5.7971,-9.7735,6.7642,-4.878,4.9261,-0.98522,2.8571,7.5556,-1.8413,7.6923,3.9291,-15.588,-5.5608,-4.9261,4.6795
-5.7504,10.54,1.0407,1.9512,0.98522,-5.0732,8.6957,-11.715,5.7886,1.9512,0.98522,0.98522,4.7619,12.317,1.0159,14.423,7.7939,-19.452,5.8136,-9.8522,11.41
-4.8025,13.397,1.0407,-2.9268,2.9557,-8.0,8.6957,-7.8317,2.8618,-2.9268,2.9557,-0.98522,0.95238,14.222,1.0159,19.231001,8.7601,-13.655,-1.7694,-17.733999,18.141001
-4.8025,6.7302,-3.8374,-10.732,0.98522,-8.9756,0.0,-3.9482,0.91057,-10.732,0.98522,-5.9113,-4.7619,4.6984,-2.7937,13.462,3.9291,-14.622,2.97,-16.749001,7.5641
-2.9068,2.9206,-7.7398,-3.9024,-0.98522,-6.0488,-12.56,-7.8317,-2.0163,-3.9024,-0.98522,-7.8818,0.0,2.7937,-1.8413,9.6154,2.963,-6.8921,0.12638,-6.8966,1.7949
-1.9589,3.873,-6.7642,2.9268,-3.9409,-3.122,-6.7633,-3.9482,-3.9675,2.9268,-3.9409,-6.8966,1.9048,4.6984,0.06349,11.538,4.8953,5.6683,-2.7172,-2.9557,2.7564
1.8325,1.0159,-1.8862,-2.9268,-0.98522,-1.1707,-6.7633,6.7314,-1.0407,-2.9268,-0.98522,-3.9409,3.8095,4.6984,4.8254,12.5,8.7601,1.8035,2.97,1.9704,1.7949
5.624,1.0159,2.0163,4.878,0.0,0.78049,-6.7633,8.6731,-7.8699,4.878,0.0,0.0,9.5238,9.4603,9.5873,13.462,12.625,7.6006,-13.144,8.867,6.6026
10.363,0.06349,5.9187,6.8293,-2.9557,3.7073,0.0,11.586,-10.797,6.8293,-2.9557,2.9557,12.381,5.6508,13.397,13.462,13.591,7.6006,-15.039,15.764,3.7179
15.103,-1.8413,10.797,3.9024,1.9704,9.561,0.0,9.644,-9.8211,3.9024,1.9704,6.8966,15.238,3.746,17.205999,10.577,14.557,-0.12882,-12.196,16.749001,-3.9744
15.103,0.06349,14.699,10.732,1.9704,11.512,1.9324,5.7605,-8.8455,10.732,1.9704,10.837,19.048,7.5556,20.063,10.577,16.49,12.432,-18.830999,17.733999,-3.9744
21.738001,4.8254,20.552999,13.659,1.9704,17.365999,8.6957,5.7605,-7.8699,13.659,1.9704,17.733999,22.857,10.413,24.825001,12.5,21.32,15.33,-16.934999,21.674999,-2.0513
28.372999,4.8254,24.455,9.7561,5.9113,20.292999,8.6957,8.6731,-8.8455,9.7561,5.9113,21.674999,28.570999,15.175,31.492001,15.385,27.118,10.499,-8.4044,28.570999,-1.0897
33.112,3.873,27.382,12.683,5.9113,30.049,14.493,3.8188,-9.8211,12.683,5.9113,24.631001,28.570999,17.079,33.396999,15.385,30.016001,7.6006,-12.196,21.674999,0.83333
30.268999,2.9206,25.431,12.683,3.9409,22.243999,13.527,6.7314,-5.9187,12.683,3.9409,21.674999,29.524,16.127001,32.444,13.462,30.016001,1.8035,-21.674999,18.719,-3.0128
25.528999,0.06349,19.577,4.878,3.9409,15.415,11.594,9.644,-4.9431,4.878,3.9409,16.749001,26.667,13.27,27.683001,10.577,28.084,-7.8583,-21.674999,18.719,-2.0513
17.945999,-3.746,10.797,2.9268,-1.9704,16.389999,-1.9324,0.90615,-8.8455,2.9268,-1.9704,8.867,20.0,11.365,21.016001,4.8077,22.287001,-6.8921,-7.4566,14.778,1.7949
5.624,-11.365,-0.91057,0.0,-10.837,5.6585,-10.628,-2.9773,-9.8211,0.0,-10.837,-2.9557,14.286,8.5079,9.5873,-3.8462,12.625,2.7697,0.12638,7.8818,-4.9359
-0.06319,-10.413,-6.7642,-2.9268,-5.9113,0.78049,-8.6957,-1.0356,-5.9187,-2.9268,-5.9113,-5.9113,6.6667,6.6032,0.06349,-6.7308,4.8953,-2.0612,2.97,2.9557,-4.9359
-8.594,-9.4603,-14.569,-6.8293,-7.8818,-4.0976,-8.6957,-6.8608,-4.9431,-6.8293,-7.8818,-8.867,-8.5714,-1.9683,-15.175,-11.538,-8.6312,-11.723,2.0221,-11.823,-3.9744
-19.021,-6.6032,-21.398001,-8.7805,-13.793,-7.0244,-10.628,-13.657,-4.9431,-8.7805,-13.793,-11.823,-23.809999,-10.54,-28.507999,-14.423,-21.191999,-19.452,-4.613,-26.601,-3.9744
-21.864,-0.88889,-22.374001,-16.584999,-9.8522,-13.854,-13.527,-6.8608,-6.8943,-16.584999,-9.8522,-14.778,-24.761999,-6.7302,-30.413,-10.577,-24.09,-23.316999,-0.82148,-29.556999,3.7179
-19.968,-3.746,-20.423,-19.511999,-10.837,-15.805,-10.628,-2.9773,1.8862,-19.511999,-10.837,-15.764,-17.143,-1.9683,-25.650999,-7.6923,-21.191999,-10.757,3.9179,-21.674999,10.449
-20.916,-8.5079,-21.398001,-14.634,-13.793,-17.756001,-15.459,-8.8026,-2.9919,-14.634,-13.793,-19.704,-13.333,-1.0159,-22.794001,-10.577,-21.191999,-24.283001,5.8136,-17.733999,4.6795
-20.916,-7.5556,-21.398001,-14.634,-19.704,-20.683001,-16.424999,-15.599,-9.8211,-14.634,-19.704,-22.66,-4.7619,2.7937,-16.127001,-8.6538,-17.327,-10.757,5.8136,-6.8966,3.7179
-16.177,-5.6508,-17.496,-16.584999,-17.733999,-19.707001,-17.391001,-18.511,-9.8211,-16.584999,-17.733999,-22.66,5.7143,9.4603,-7.5556,-1.9231,-8.6312,1.8035,-13.144,-3.9409,10.449
-11.438,-8.5079,-13.593,-22.438999,-21.674999,-24.584999,-20.290001,-10.744,-14.699,-22.438999,-21.674999,-24.631001,17.143,18.032,1.9683,3.8462,1.0306,-0.12882,-11.248,1.9704,16.218
-5.7504,-6.6032,-7.7398,-22.438999,-26.601,-24.584999,-18.357,-11.715,-17.625999,-22.438999,-26.601,-24.631001,29.524,22.794001,14.349,9.6154,13.591,-3.9936,1.0742,15.764,20.063999
0.88468,-2.7937,-0.91057,-25.365999,-21.674999,-18.732,-15.459,-13.657,-16.65,-25.365999,-21.674999,-20.690001,40.0,29.459999,25.778,16.346001,25.184999,3.7359,0.12638,27.586,21.025999
10.363,1.0159,7.8699,-21.462999,-13.793,-6.0488,-11.594,-14.628,-12.748,-21.462999,-13.793,-11.823,51.429001,35.174999,39.111,25.0,38.712002,4.7021,-6.5087,37.438,24.872
17.945999,3.873,17.625999,-5.8537,-5.9113,-2.1463,-3.8647,-10.744,-7.8699,-5.8537,-5.9113,-3.9409,60.0,43.745998,50.540001,30.768999,50.306,5.6683,-6.5087,44.334999,26.795
19.841999,4.8254,21.528,0.97561,-0.98522,2.7317,-1.9324,-6.8608,-2.0163,0.97561,-0.98522,0.98522,61.904999,43.745998,54.348999,30.768999,54.171001,14.364,0.12638,48.276001,21.987
24.580999,4.8254,23.48,1.9512,2.9557,6.6341,5.7971,0.90615,3.8374,1.9512,2.9557,4.9261,60.952,43.745998,54.348999,29.808001,55.137001,16.296,6.7615,48.276001,19.103001
25.528999,8.6349,22.504,0.97561,0.98522,6.6341,3.8647,4.7896,2.8618,0.97561,0.98522,4.9261,55.237999,39.937,51.492001,28.846001,52.237999,11.465,8.6572,44.334999,20.063999
27.424999,12.444,22.504,1.9512,-1.9704,11.512,7.7295,5.7605,-0.06504,1.9512,-1.9704,7.8818,51.429001,32.317001,49.587002,28.846001,50.306,12.432,2.97,41.379002,17.179001
31.216,17.205999,26.407,4.878,3.9409,17.365999,8.6957,11.586,2.8618,4.878,3.9409,12.808,50.476002,31.365,50.540001,31.731001,51.271999,24.025999,4.8657,45.32,20.063999
32.164001,21.968,28.358,3.9024,7.8818,20.292999,11.594,14.498,1.8862,3.9024,7.8818,15.764,49.523998,29.459999,47.682999,30.768999,49.34,24.025999,6.7615,45.32,16.218
27.424999,17.205999,23.48,8.7805,6.8966,18.341,15.459,10.615,5.7886,8.7805,6.8966,15.764,40.952,25.650999,38.159,25.0,40.644001,10.499,13.397,28.570999,12.372
15.103,12.444,12.748,11.707,12.808,15.415,8.6957,1.877,7.7398,11.707,12.808,11.823,28.570999,20.889,21.968,16.346001,26.150999,10.499,20.979,17.733999,13.333
8.4676,9.5873,6.8943,10.732,11.823,12.488,11.594,-1.0356,3.8374,10.732,11.823,11.823,16.190001,17.079,10.54,9.6154,15.523,7.6006,16.24,12.808,11.41
5.624,8.6349,2.9919,7.8049,4.9261,6.6341,15.459,3.8188,9.6911,7.8049,4.9261,11.823,11.429,18.983999,2.9206,4.8077,7.7939,4.7021,10.553,10.837,12.372
-3.8547,6.7302,-4.813,3.9024,5.9113,0.78049,17.391001,-0.06472,9.6911,3.9024,5.9113,8.867,2.8571,15.175,-9.4603,-3.8462,-3.8003,0.83736,3.9179,1.9704,10.449
-11.438,6.7302,-8.7154,6.8293,3.9409,-1.1707,11.594,-6.8608,10.667,6.8293,3.9409,7.8818,-4.7619,14.222,-20.889,-5.7692,-11.53,-4.9597,3.9179,-11.823,12.372
-18.073,1.9683,-11.642,-7.8049,7.8818,-6.0488,2.8986,-8.8026,6.7642,-7.8049,7.8818,3.9409,-9.5238,13.27,-28.507999,-8.6538,-17.327,-18.486,6.7615,-17.733999,12.372
-21.864,-2.7937,-14.569,-4.878,5.9113,-7.0244,0.96618,-14.628,1.8862,-4.878,5.9113,0.0,-15.238,5.6508,-34.222,-17.308001,-24.09,-28.148001,13.397,-20.690001,0.83333
-21.864,-7.5556,-14.569,4.878,7.8818,-8.9756,2.8986,-6.8608,3.8374,4.878,7.8818,0.98522,-17.143,2.7937,-34.222,-22.115,-26.989,-29.114,9.6051,-22.66,-4.9359
-24.708,-10.413,-14.569,-1.9512,3.9409,-12.878,6.7633,-5.89,6.7642,-1.9512,3.9409,0.0,-20.952,-1.0159,-35.174999,-24.038,-28.921,-10.757,-6.5087,-24.631001,-5.8974
-20.916,-13.27,-13.593,-1.9512,1.9704,-7.0244,0.96618,-13.657,4.813,-1.9512,1.9704,-0.98522,-20.952,-5.7778,-31.365,-25.0,-27.955,-4.9597,-9.3523,-20.690001,-9.7436
-15.229,-18.032,-12.618,9.7561,10.837,-2.1463,-8.6957,-9.7735,4.813,9.7561,10.837,0.0,-22.857,-11.492,-26.603001,-27.885,-26.989,-12.689,-6.5087,-25.615999,-14.551
-9.5419,-18.983999,-10.667,15.61,14.778,6.6341,-4.8309,-4.9191,5.7886,15.61,14.778,2.9557,-27.618999,-19.111,-23.746,-29.808001,-26.989,-3.9936,-6.5087,-26.601,-21.282
-5.7504,-18.032,-8.7154,10.732,14.778,3.7073,-0.96618,14.498,4.813,10.732,14.778,3.9409,-34.285999,-29.587,-24.698,-33.653999,-29.886999,4.7021,-10.3,-24.631001,-28.974001
1.8325,-14.222,-3.8374,11.707,11.823,11.512,1.9324,21.294001,9.6911,11.707,11.823,9.8522,-36.189999,-36.254002,-18.983999,-34.615002,-29.886999,0.83736,-9.3523,-22.66,-32.820999
5.624,-9.4603,1.0407,23.415001,14.778,19.316999,11.594,24.207001,11.642,23.415001,14.778,14.778,-38.095001,-42.921001,-17.079,-34.615002,-29.886999,18.229,-4.613,-20.690001,-34.743999
6.5719,-3.746,2.9919,33.171001,18.719,18.341,18.357,32.945,12.618,33.171001,18.719,18.719,-38.095001,-44.825001,-17.079,-32.692001,-29.886999,30.789,-1.7694,-17.733999,-32.820999
5.624,-1.8413,3.9675,26.341,17.733999,20.292999,19.323999,27.120001,14.569,26.341,17.733999,19.704,-41.904999,-48.634998,-19.937,-30.768999,-31.82,24.992001,3.9179,-21.674999,-37.627998
7.5197,4.8254,7.8699,21.462999,18.719,21.268,18.357,26.149,13.593,21.462999,18.719,19.704,-39.048,-47.682999,-17.079,-24.038,-27.955,18.229,4.8657,-19.704,-36.667
8.4676,11.492,10.797,20.488001,19.704,19.316999,13.527,26.149,13.593,20.488001,19.704,18.719,-35.237999,-41.967999,-15.175,-16.346001,-24.09,15.33,1.0742,-14.778,-29.936001
8.4676,12.444,8.8455,14.634,11.823,20.292999,12.56,17.410999,6.7642,14.634,11.823,15.764,-36.189999,-41.015999,-15.175,-13.462,-24.09,12.432,-1.7694,-15.764,-27.051001
14.155,16.254,13.724,9.7561,9.8522,25.171,19.323999,24.207001,8.7154,9.7561,9.8522,18.719,-27.618999,-34.348999,-8.5079,-5.7692,-17.327,26.924,1.0742,-7.8818,-15.513
14.155,17.205999,13.724,12.683,9.8522,16.389999,18.357,31.003,13.593,12.683,9.8522,15.764,-22.857,-27.683001,-3.746,-1.9231,-13.462,32.721001,16.24,-2.9557,-11.667
8.4676,12.444,7.8699,13.659,5.9113,8.5854,15.459,20.323999,7.7398,13.659,5.9113,8.867,-25.714001,-27.683001,-6.6032,-2.8846,-15.395,20.160999,13.397,-6.8966,-12.628
6.5719,6.7302,2.9919,7.8049,9.8522,5.6585,8.6957,10.615,6.7642,7.8049,9.8522,3.9409,-23.809999,-27.683001,-5.6508,-3.8462,-15.395,16.296,1.0742,-9.8522,-12.628
4.6761,1.9683,0.06504,3.9024,11.823,0.78049,2.8986,7.7023,9.6911,3.9024,11.823,-0.98522,-19.048,-23.872999,-4.6984,-2.8846,-12.496,9.533,8.6572,-3.9409,-8.7821
2.7804,-1.8413,-3.8374,0.0,4.9261,-2.1463,-2.8986,4.7896,8.7154,0.0,4.9261,-3.9409,-15.238,-21.968,-2.7937,-3.8462,-10.564,5.6683,14.344,0.98522,-6.859
-0.06319,-3.746,-7.7398,-5.8537,0.0,-1.1707,-12.56,-1.0356,3.8374,-5.8537,0.0,-7.8818,-15.238,-21.968,-3.746,-4.8077,-10.564,10.499,6.7615,0.0,-7.8205
-1.9589,-3.746,-6.7642,-9.7561,-6.8966,-5.0732,-6.7633,2.8479,-2.0163,-9.7561,-6.8966,-7.8818,-10.476,-16.254,-1.8413,-1.9231,-6.6989,9.533,-4.613,3.9409,-5.8974
-1.9589,-8.5079,-5.7886,-5.8537,-4.9261,-4.0976,-7.7295,2.8479,-0.06504,-5.8537,-4.9261,-6.8966,-2.8571,-6.7302,1.0159,0.0,-2.8341,6.6345,-7.4566,10.837,0.83333
-4.8025,-12.317,-6.7642,-2.9268,-12.808,-1.1707,-7.7295,-2.0065,-2.0163,-2.9268,-12.808,-7.8818,-3.8095,-5.7778,0.06349,-1.9231,-3.8003,9.533,-1.7694,9.8522,3.7179
-6.6983,-11.365,-7.7398,0.97561,-4.9261,-8.9756,-7.7295,0.90615,-4.9431,0.97561,-4.9261,-6.8966,-5.7143,-11.492,-0.88889,-3.8462,-5.7327,11.465,0.12638,3.9409,-4.9359
-1.0111,-7.5556,-2.8618,0.97561,4.9261,-6.0488,-7.7295,-1.0356,-2.0163,0.97561,4.9261,-1.9704,-3.8095,-8.6349,1.9683,-1.9231,-2.8341,-0.12882,4.8657,3.9409,-7.8205
-0.06319,-12.317,-2.8618,-0.97561,0.98522,-0.19512,-6.7633,0.90615,-0.06504,-0.97561,0.98522,-0.98522,-6.6667,-10.54,0.06349,-4.8077,-4.7665,-6.8921,2.97,4.9261,-8.7821
-2.9068,-17.079,-4.813,-0.97561,-1.9704,0.78049,-5.7971,-2.9773,-2.0163,-0.97561,-1.9704,-2.9557,-10.476,-14.349,-1.8413,-10.577,-8.6312,-3.0274,-12.196,-0.98522,-14.551
1.8325,-7.5556,0.06504,0.0,-0.98522,3.7073,-4.8309,0.90615,-1.0407,0.0,-0.98522,0.98522,-6.6667,-11.492,1.9683,-5.7692,-4.7665,-1.095,-14.092,0.0,-12.628
5.624,0.06349,3.9675,0.97561,-0.98522,2.7317,0.96618,2.8479,0.91057,0.97561,-0.98522,2.9557,0.0,-6.7302,8.6349,1.9231,2.963,5.6683,-7.4566,8.867,-3.9744
4.6761,3.873,2.9919,-6.8293,-12.808,-2.1463,0.0,4.7896,-6.8943,-6.8293,-12.808,-2.9557,1.9048,-7.6825,11.492,4.8077,5.8615,11.465,5.8136,10.837,-5.8974
4.6761,6.7302,4.9431,-5.8537,-6.8966,-4.0976,-2.8986,1.877,-6.8943,-5.8537,-6.8966,-4.9261,0.95238,-3.873,13.397,8.6538,9.7262,5.6683,4.8657,8.867,-3.9744
8.4676,12.444,9.8211,2.9268,3.9409,-0.19512,-2.8986,1.877,-0.06504,2.9268,3.9409,0.98522,7.619,4.6984,18.159,19.231001,17.455999,12.432,1.0742,13.793,7.5641
12.259,22.921,17.625999,4.878,-2.9557,6.6341,7.7295,7.7023,1.8862,4.878,-2.9557,7.8818,10.476,10.413,20.063,27.885,23.253,7.6006,-1.7694,14.778,15.256
16.051001,26.73,21.528,3.9024,5.9113,10.537,12.56,5.7605,3.8374,3.9024,5.9113,12.808,9.5238,12.317,21.016001,31.731001,24.219,6.6345,2.0221,14.778,22.948999
20.790001,25.778,26.407,4.878,5.9113,15.415,18.357,-0.06472,3.8374,4.878,5.9113,17.733999,8.5714,14.222,21.968,32.692001,25.184999,4.7021,12.449,12.808,22.948999
21.738001,25.778,28.358,3.9024,2.9557,9.561,20.290001,7.7023,1.8862,3.9024,2.9557,19.704,10.476,18.032,24.825001,33.653999,28.084,12.432,21.927,14.778,21.987
21.738001,21.968,26.407,0.0,0.98522,8.5854,19.323999,12.557,4.813,0.0,0.98522,18.719,10.476,13.27,25.778,28.846001,27.118,11.465,16.24,15.764,16.218
25.528999,20.063,26.407,1.9512,0.0,15.415,13.527,5.7605,3.8374,1.9512,0.0,19.704,15.238,13.27,27.683001,27.885,30.016001,9.533,-2.7172,11.823,16.218
22.686001,12.444,23.48,1.9512,-0.98522,15.415,4.8309,2.8479,0.91057,1.9512,-0.98522,15.764,19.048,17.079,27.683001,26.923,30.982,12.432,-0.82148,14.778,16.218
16.051001,5.7778,19.577,0.0,-0.98522,9.561,0.0,-3.9482,-2.9919,0.0,-0.98522,9.8522,19.048,17.079,23.872999,23.077,29.049999,2.7697,0.12638,16.749001,15.256
6.5719,-1.8413,8.8455,-3.9024,-9.8522,-3.122,-5.7971,-8.8026,-5.9187,-3.9024,-9.8522,-0.98522,15.238,12.317,15.302,15.385,21.32,-16.554001,-3.6651,10.837,14.295
-1.9589,-11.365,-3.8374,-11.707,-12.808,-5.0732,-9.6618,-25.306999,-9.8211,-11.707,-12.808,-8.867,7.619,4.6984,5.7778,2.8846,8.7601,-20.419001,3.9179,3.9409,1.7949
-3.8547,-12.317,-8.7154,-17.561001,-9.8522,-9.9512,-13.527,-9.7735,-5.9187,-17.561001,-9.8522,-10.837,9.5238,1.8413,2.9206,-3.8462,3.9291,-11.723,-8.4044,0.98522,-8.7821
-3.8547,-16.127001,-9.6911,-10.732,-7.8818,-10.927,-13.527,-3.9482,-1.0407,-10.732,-7.8818,-10.837,7.619,-1.0159,1.9683,-7.6923,-0.90177,-12.689,-13.144,0.98522,-10.705
-9.5419,-21.841,-15.545,-5.8537,-4.9261,-11.902,-15.459,-17.540001,-4.9431,-5.8537,-4.9261,-14.778,0.0,-7.6825,-4.6984,-14.423,-9.5974,-18.486,-5.5608,-1.9704,-12.628
-14.281,-19.937,-20.423,-6.8293,-4.9261,-14.829,-10.628,-18.511,-0.06504,-6.8293,-4.9261,-16.749001,-4.7619,-11.492,-11.365,-17.308001,-17.327,-18.486,-7.4566,-8.867,-12.628
-20.916,-16.127001,-25.301001,-9.7561,-6.8966,-19.707001,-14.493,-17.540001,1.8862,-9.7561,-6.8966,-20.690001,-10.476,-13.397,-18.032,-16.346001,-22.158001,-19.452,-15.987,-11.823,-8.7821
-19.968,-9.4603,-23.35,-9.7561,-6.8966,-19.707001,-13.527,-17.540001,-5.9187,-9.7561,-6.8966,-21.674999,-9.5238,-10.54,-17.079,-11.538,-20.225,-22.351,0.12638,-7.8818,-5.8974
-15.229,-5.6508,-18.472,-17.561001,-14.778,-15.805,-10.628,-22.395,-6.8943,-17.561001,-14.778,-20.690001,-5.7143,-5.7778,-12.317,-3.8462,-14.428,-17.52,2.97,-4.9261,-0.12821
-14.281,-4.6984,-16.52,-16.584999,-12.808,-10.927,-12.56,-25.306999,-2.9919,-16.584999,-12.808,-19.704,-3.8095,-0.06349,-10.413,2.8846,-8.6312,-8.8245,-2.7172,-0.98522,7.5641
-19.021,-3.746,-18.472,-17.561001,-8.867,-19.707001,-17.391001,-16.57,-3.9675,-17.561001,-8.867,-22.66,-5.7143,3.746,-11.365,5.7692,-7.6651,-14.622,3.9179,-5.9113,14.295
-22.812,-1.8413,-17.496,-12.683,-9.8522,-27.511999,-16.424999,-10.744,-10.797,-12.683,-9.8522,-25.615999,-4.7619,8.5079,-10.413,10.577,-1.868,-28.148001,-0.82148,-11.823,18.141001
-21.864,1.9683,-14.569,-7.8049,-10.837,-27.511999,-14.493,-15.599,-11.772,-7.8049,-10.837,-25.615999,1.9048,18.032,-5.6508,17.308001,5.8615,-17.52,-7.4566,-7.8818,24.872
-22.812,-2.7937,-14.569,-14.634,-19.704,-27.511999,-15.459,-14.628,-14.699,-14.634,-19.704,-27.586,5.7143,22.794001,-2.7937,18.268999,9.7262,-9.7907,5.8136,-4.9261,27.756001
-19.968,-3.746,-11.642,-15.61,-18.719,-28.488001,-17.391001,-17.540001,-19.577,-15.61,-18.719,-27.586,10.476,28.507999,1.0159,21.153999,16.49,-17.52,7.7093,-2.9557,32.563999
-19.021,-2.7937,-8.7154,-10.732,-13.793,-26.537001,-21.256001,-13.657,-18.601999,-10.732,-13.793,-25.615999,18.094999,30.413,4.8254,20.191999,20.354,-3.9936,5.8136,2.9557,26.795
-17.125,-7.5556,-10.667,-15.61,-13.793,-25.561001,-24.155001,-8.8026,-17.625999,-15.61,-13.793,-25.615999,21.905001,30.413,5.7778,13.462,17.455999,-1.095,3.9179,7.8818,20.063999
-13.333,-10.413,-13.593,-21.462999,-19.704,-28.488001,-26.087,-4.9191,-17.625999,-21.462999,-19.704,-27.586,23.809999,34.222,6.7302,9.6154,15.523,-3.0274,-10.3,11.823,20.063999
-6.6983,-11.365,-11.642,-20.488001,-15.764,-17.756001,-22.222,-3.9482,-13.724,-20.488001,-15.764,-20.690001,28.570999,34.222,12.444,9.6154,18.422001,4.7021,-14.092,17.733999,22.948999
-0.06319,-14.222,-8.7154,-13.659,-12.808,-7.0244,-14.493,-2.0065,-10.797,-13.659,-12.808,-15.764,30.476,31.365,16.254,7.6923,20.354,-0.12882,-7.4566,21.674999,16.218
2.7804,-15.175,-7.7398,-9.7561,-15.764,-5.0732,-12.56,-5.89,-14.699,-9.7561,-15.764,-12.808,29.524,25.650999,17.205999,4.8077,19.388,9.533,-3.6651,23.645,6.6026
3.7283,-15.175,-5.7886,-0.97561,-7.8818,-2.1463,-20.290001,8.6731,-16.65,-0.97561,-7.8818,-7.8818,27.618999,22.794001,17.205999,3.8462,19.388,15.33,-7.4566,16.749001,2.7564
9.4155,-10.413,-0.91057,1.9512,0.98522,3.7073,-10.628,21.294001,-8.8455,1.9512,0.98522,-0.98522,23.809999,18.983999,16.254,3.8462,18.422001,14.364,-15.039,8.867,1.7949
9.4155,-12.317,-1.8862,5.8537,-2.9557,8.5854,-2.8986,15.469,-2.9919,5.8537,-2.9557,2.9557,20.952,14.222,11.492,0.96154,12.625,11.465,-4.613,4.9261,-2.0513
1.8325,-12.317,-5.7886,2.9268,-2.9557,5.6585,-4.8309,5.7605,-12.748,2.9268,-2.9557,0.0,17.143,6.6032,5.7778,-3.8462,5.8615,0.83736,-7.4566,3.9409,-5.8974
-1.9589,-13.27,-8.7154,-3.9024,-3.9409,3.7073,-9.6618,3.8188,-9.8211,-3.9024,-3.9409,-1.9704,14.286,2.7937,2.9206,-7.6923,1.9968,0.83736,-8.4044,3.9409,-6.859
-0.06319,-8.5079,-5.7886,5.8537,-3.9409,9.561,-5.7971,-8.8026,-3.9675,5.8537,-3.9409,2.9557,10.476,3.746,2.9206,-4.8077,0.06441,-15.588,-8.4044,1.9704,0.83333
-2.9068,-4.6984,-6.7642,-0.97561,0.0,6.6341,2.8986,-2.9773,-3.9675,-0.97561,0.0,3.9409,1.9048,-3.873,-1.8413,-6.7308,-5.7327,-7.8583,-5.5608,-2.9557,-3.0128
-7.6461,-2.7937,-6.7642,1.9512,1.9704,-3.122,3.8647,1.877,-6.8943,1.9512,1.9704,0.0,-2.8571,-6.7302,-5.6508,-8.6538,-9.5974,-4.9597,0.12638,-1.9704,-6.859
-3.8547,4.8254,-1.8862,13.659,2.9557,-3.122,6.7633,4.7896,-2.9919,13.659,2.9557,4.9261,-1.9048,-3.873,-4.6984,-3.8462,-8.6312,-5.9259,10.553,-2.9557,-0.12821
-3.8547,4.8254,-2.8618,11.707,12.808,1.7561,5.7971,-2.9773,4.813,11.707,12.808,6.8966,-7.619,-6.7302,-9.4603,-4.8077,-12.496,-7.8583,6.7615,-9.8522,3.7179
-10.49,0.06349,-8.7154,1.9512,11.823,-5.0732,5.7971,-2.9773,1.8862,1.9512,11.823,0.98522,-10.476,-9.5873,-15.175,-10.577,-18.292999,-9.7907,-2.7172,-12.808,0.83333
-12.385,-0.88889,-9.6911,0.0,0.98522,-5.0732,7.7295,-0.06472,-3.9675,0.0,0.98522,0.0,-13.333,-7.6825,-18.983999,-12.5,-21.191999,-19.452,9.6051,-14.778,4.6795
-16.177,-3.746,-10.667,0.97561,-0.98522,-7.0244,1.9324,-0.06472,-1.0407,0.97561,-0.98522,-2.9557,-14.286,-4.8254,-20.889,-13.462,-22.158001,-16.554001,11.501,-16.749001,5.641
-19.021,0.06349,-11.642,-4.878,-0.98522,-6.0488,-1.9324,-5.89,0.91057,-4.878,-0.98522,-3.9409,-11.429,1.8413,-22.794001,-10.577,-21.191999,-4.9597,0.12638,-19.704,11.41
-24.708,1.9683,-16.52,-2.9268,-14.778,-16.780001,0.0,-6.8608,-6.8943,-2.9268,-14.778,-9.8522,-15.238,-1.0159,-29.459999,-14.423,-26.023001,-11.723,2.0221,-22.66,6.6026
-23.76,-0.88889,-17.496,1.9512,-3.9409,-18.732,-3.8647,-2.0065,-2.9919,1.9512,-3.9409,-11.823,-16.190001,-1.0159,-30.413,-16.346001,-27.955,-10.757,2.97,-19.704,1.7949
-18.073,-4.6984,-14.569,3.9024,7.8818,-8.9756,-6.7633,0.90615,0.91057,3.9024,7.8818,-9.8522,-11.429,-0.06349,-26.603001,-16.346001,-25.056,-11.723,-3.6651,-18.719,-0.12821
-17.125,-8.5079,-14.569,7.8049,1.9704,-8.9756,-5.7971,-1.0356,-0.06504,7.8049,1.9704,-8.867,-11.429,0.88889,-27.556,-19.231001,-26.023001,-10.757,-3.6651,-16.749001,0.83333
-16.177,-9.4603,-12.618,0.0,-0.98522,-5.0732,0.0,-2.0065,0.91057,0.0,-0.98522,-5.9113,-8.5714,2.7937,-25.650999,-20.191999,-25.056,1.8035,-5.5608,-13.793,-0.12821
-15.229,-12.317,-15.545,-1.9512,-1.9704,-4.0976,-4.8309,3.8188,-3.9675,-1.9512,-1.9704,-7.8818,-9.5238,0.88889,-26.603001,-22.115,-26.023001,-4.9597,-4.613,-13.793,-3.9744
-20.916,-15.175,-21.398001,-1.9512,-5.9113,-11.902,-8.6957,-4.9191,-7.8699,-1.9512,-5.9113,-12.808,-12.381,-4.8254,-30.413,-26.923,-28.921,-10.757,-3.6651,-15.764,-15.513
-19.968,-13.27,-21.398001,-2.9268,-12.808,-12.878,-13.527,-2.0065,-4.9431,-2.9268,-12.808,-12.808,-6.6667,-2.9206,-27.556,-24.038,-25.056,-4.9597,-13.144,-13.793,-16.474001
-17.125,-9.4603,-20.423,-4.878,-12.808,-7.0244,-16.424999,-3.9482,-3.9675,-4.878,-12.808,-10.837,-3.8095,-2.9206,-23.746,-20.191999,-21.191999,-2.0612,-15.039,-10.837,-12.628
-15.229,-7.5556,-17.496,-4.878,-3.9409,-6.0488,-10.628,-8.8026,-3.9675,-4.878,-3.9409,-10.837,-0.95238,-2.9206,-18.032,-16.346001,-16.361,-3.9936,1.0742,-6.8966,-9.7436
-10.49,-5.6508,-15.545,-4.878,-3.9409,-4.0976,-10.628,-5.89,-2.9919,-4.878,-3.9409,-10.837,3.8095,-3.873,-12.317,-11.538,-11.53,-8.8245,2.0221,-2.9557,-6.859
-8.594,-1.8413,-15.545,-10.732,-5.9113,-5.0732,-6.7633,-2.9773,-5.9187,-10.732,-5.9113,-10.837,3.8095,-2.9206,-9.4603,-9.6154,-8.6312,-5.9259,4.8657,0.0,-3.0128
-3.8547,1.0159,-8.7154,-8.7805,-2.9557,6.6341,-3.8647,-6.8608,2.8618,-8.7805,-2.9557,-4.9261,8.5714,2.7937,-2.7937,-0.96154,-0.90177,3.7359,-7.4566,0.0,5.641
-1.0111,3.873,-4.813,-2.9268,-0.98522,3.7073,-0.96618,-2.9773,-1.0407,-2.9268,-0.98522,-2.9557,12.381,5.6508,0.06349,1.9231,2.963,2.7697,-7.4566,2.9557,6.6026
-1.0111,1.9683,-2.8618,-1.9512,-8.867,-5.0732,-3.8647,2.8479,-2.0163,-1.9512,-8.867,-3.9409,14.286,6.6032,2.9206,0.96154,3.9291,2.7697,2.97,8.867,3.7179
2.7804,1.0159,0.06504,-1.9512,-6.8966,-5.0732,-2.8986,1.877,-0.06504,-1.9512,-6.8966,-1.9704,15.238,8.5079,6.7302,2.8846,6.8277,-3.9936,10.553,10.837,6.6026
6.5719,3.873,5.9187,-5.8537,0.98522,0.78049,0.96618,-7.8317,-0.06504,-5.8537,0.98522,0.98522,17.143,13.27,10.54,5.7692,9.7262,3.7359,10.553,14.778,10.449
7.5197,6.7302,10.797,-1.9512,1.9704,10.537,1.9324,-12.686,-1.0407,-1.9512,1.9704,5.9113,20.0,17.079,13.397,6.7308,11.659,11.465,6.7615,17.733999,13.333
10.363,8.6349,14.699,0.0,0.0,7.6098,7.7295,-0.06472,-2.0163,0.0,0.0,8.867,20.952,20.889,16.254,8.6538,13.591,12.432,-6.5087,18.719,18.141001
13.207,5.7778,16.65,-3.9024,0.98522,5.6585,12.56,8.6731,-1.0407,-3.9024,0.98522,8.867,20.0,19.937,16.254,4.8077,12.625,7.6006,-10.3,15.764,10.449
15.103,2.9206,16.65,0.0,5.9113,10.537,8.6957,6.7314,-2.0163,0.0,5.9113,11.823,20.0,14.222,18.159,-0.96154,10.692,12.432,-5.5608,19.704,0.83333
18.893999,-0.88889,19.577,6.8293,3.9409,12.488,10.628,6.7314,2.8618,6.8293,3.9409,14.778,19.048,10.413,19.111,-2.8846,9.7262,4.7021,-0.82148,18.719,-1.0897
16.997999,-4.6984,16.65,4.878,-1.9704,10.537,3.8647,4.7896,-0.06504,4.878,-1.9704,11.823,13.333,1.8413,15.302,-6.7308,5.8615,1.8035,-6.5087,10.837,-6.859
18.893999,-0.88889,16.65,5.8537,4.9261,12.488,3.8647,6.7314,2.8618,5.8537,4.9261,11.823,12.381,-1.9683,14.349,-3.8462,4.8953,17.261999,-16.934999,10.837,-4.9359
19.841999,1.0159,15.675,5.8537,6.8966,19.316999,9.6618,3.8188,7.7398,5.8537,6.8966,13.793,9.5238,-4.8254,12.444,-1.9231,4.8953,23.059999,1.0742,13.793,-6.859
15.103,-0.88889,10.797,2.9268,1.9704,14.439,5.7971,14.498,6.7642,2.9268,1.9704,10.837,0.95238,-15.302,7.6825,-5.7692,-0.90177,23.059999,11.501,12.808,-14.551
17.945999,1.0159,8.8455,5.8537,8.867,16.389999,1.9324,17.410999,6.7642,5.8537,8.867,10.837,-3.8095,-21.968,7.6825,-5.7692,-1.868,23.059999,1.0742,8.867,-17.436001
18.893999,4.8254,8.8455,8.7805,7.8818,20.292999,6.7633,16.440001,4.813,8.7805,7.8818,11.823,-4.7619,-18.159,9.5873,-0.96154,0.06441,5.6683,3.9179,9.8522,-13.59
17.945999,10.54,8.8455,13.659,2.9557,17.365999,10.628,18.382,5.7886,13.659,2.9557,11.823,-6.6667,-15.302,9.5873,6.7308,2.963,6.6345,-0.82148,5.9113,-5.8974
12.259,11.492,5.9187,13.659,6.8966,16.389999,4.8309,8.6731,7.7398,13.659,6.8966,7.8818,-9.5238,-14.349,6.7302,8.6538,1.9968,18.229,6.7615,1.9704,-4.9359
12.259,16.254,5.9187,12.683,10.837,12.488,5.7971,7.7023,7.7398,12.683,10.837,5.9113,-9.5238,-10.54,7.6825,11.538,2.963,19.195,14.344,4.9261,-0.12821
14.155,16.254,7.8699,11.707,7.8818,10.537,5.7971,13.528,13.593,11.707,7.8818,4.9261,-7.619,-5.7778,10.54,14.423,4.8953,18.229,8.6572,6.8966,6.6026
10.363,15.302,6.8943,3.9024,3.9409,5.6585,8.6957,8.6731,10.667,3.9024,3.9409,1.9704,-9.5238,-6.7302,7.6825,13.462,2.963,8.5668,8.6572,4.9261,7.5641
8.4676,17.205999,8.8455,0.0,2.9557,7.6098,11.594,1.877,6.7642,0.0,2.9557,2.9557,-13.333,-6.7302,4.8254,13.462,1.0306,4.7021,13.397,-1.9704,5.641
5.624,14.349,10.797,-1.9512,2.9557,6.6341,11.594,-3.9482,7.7398,-1.9512,2.9557,4.9261,-17.143,-1.9683,3.873,13.462,1.0306,-3.0274,13.397,-6.8966,9.4872
9.4155,15.302,14.699,1.9512,2.9557,14.439,12.56,-13.657,5.7886,1.9512,2.9557,10.837,-15.238,0.88889,4.8254,14.423,1.0306,-18.486,12.449,-10.837,13.333
16.051001,17.205999,21.528,3.9024,6.8966,14.439,20.290001,-0.06472,9.6911,3.9024,6.8966,19.704,-11.429,-0.06349,9.5873,15.385,4.8953,-3.9936,9.6051,-8.867,14.295
17.945999,15.302,24.455,13.659,14.778,11.512,22.222,5.7605,11.642,13.659,14.778,24.631001,-9.5238,-1.9683,9.5873,11.538,5.8615,-0.12882,2.0221,-10.837,7.5641
14.155,13.397,22.504,17.561001,22.66,13.463,24.155001,-2.9773,16.52,17.561001,22.66,27.586,-12.381,-3.873,3.873,7.6923,4.8953,-12.689,10.553,-18.719,0.83333
14.155,13.397,20.552999,14.634,19.704,17.365999,25.121,1.877,17.496,14.634,19.704,28.570999,-5.7143,-3.873,3.873,5.7692,4.8953,-5.9259,2.97,-9.8522,-1.0897
12.259,5.7778,13.724,13.659,22.66,18.341,21.256001,3.8188,14.569,13.659,22.66,23.645,-0.95238,-9.5873,3.873,-1.9231,2.963,2.7697,1.0742,-3.9409,-9.7436
11.311,-2.7937,6.8943,11.707,15.764,16.389999,13.527,6.7314,6.7642,11.707,15.764,15.764,0.0,-12.444,5.7778,-6.7308,2.963,5.6683,-1.7694,2.9557,-10.705
5.624,-10.413,-1.8862,4.878,5.9113,7.6098,0.0,9.644,0.91057,4.878,5.9113,6.8966,3.8095,-11.492,7.6825,-8.6538,3.9291,9.533,1.0742,12.808,-14.551
4.6761,-12.317,-5.7886,-4.878,-0.98522,13.463,-5.7971,-0.06472,-1.0407,-4.878,-0.98522,1.9704,7.619,-8.6349,8.6349,-6.7308,5.8615,21.127001,0.12638,14.778,-14.551
4.6761,-10.413,-6.7642,1.9512,-5.9113,4.6829,-11.594,6.7314,-1.0407,1.9512,-5.9113,-1.9704,10.476,-4.8254,9.5873,-1.9231,8.7601,18.229,-15.987,17.733999,-12.628
-1.9589,-14.222,-10.667,3.9024,0.0,-8.9756,-16.424999,10.615,-2.9919,3.9024,0.0,-8.867,8.5714,-4.8254,6.7302,-2.8846,8.7601,13.398,-17.882999,19.704,-15.513
-1.0111,-10.413,-5.7886,3.9024,-1.9704,-6.0488,-9.6618,6.7314,-4.9431,3.9024,-1.9704,-7.8818,11.429,2.7937,9.5873,2.8846,13.591,14.364,-15.987,15.764,-7.8205
1.8325,-5.6508,0.06504,2.9268,-6.8966,-3.122,-9.6618,0.90615,-8.8455,2.9268,-6.8966,-5.9113,14.286,10.413,12.444,10.577,20.354,5.6683,-3.6651,15.764,0.83333
-1.0111,-4.6984,1.0407,-3.9024,-2.9557,-5.0732,-19.323999,-1.0356,-7.8699,-3.9024,-2.9557,-9.8522,13.333,12.317,10.54,13.462,22.287001,-4.9597,-5.5608,15.764,3.7179
5.624,1.0159,7.8699,-1.9512,-5.9113,-1.1707,-8.6957,-2.9773,-8.8455,-1.9512,-5.9113,-6.8966,17.143,19.937,16.254,20.191999,28.084,4.7021,-12.196,20.690001,13.333
11.311,2.9206,13.724,-0.97561,-11.823,5.6585,-2.8986,0.90615,-10.797,-0.97561,-11.823,-2.9557,20.0,22.794001,20.063,21.153999,31.948,14.364,0.12638,22.66,12.372
12.259,7.6825,18.601999,-5.8537,-10.837,2.7317,-3.8647,1.877,-7.8699,-5.8537,-10.837,-1.9704,17.143,19.937,18.159,21.153999,31.948,6.6345,-0.82148,14.778,8.5256
16.051001,15.302,25.431,-1.9512,-1.9704,5.6585,3.8647,-1.0356,-3.9675,-1.9512,-1.9704,2.9557,17.143,21.841,19.111,25.962,34.847,-2.0612,3.9179,11.823,11.41
12.259,17.205999,24.455,-3.9024,-5.9113,2.7317,13.527,-8.8026,-1.0407,-3.9024,-5.9113,1.9704,12.381,19.937,12.444,25.962,31.948,-14.622,12.449,5.9113,11.41
6.5719,20.063,21.528,-2.9268,-5.9113,-0.19512,11.594,-13.657,0.91057,-2.9268,-5.9113,1.9704,7.619,18.983999,7.6825,25.962,29.049999,-23.316999,6.7615,0.0,14.295
3.7283,19.111,19.577,-3.9024,4.9261,-1.1707,7.7295,-15.599,6.7642,-3.9024,4.9261,1.9704,0.95238,13.27,2.9206,23.077,24.219,-28.148001,-1.7694,-8.867,11.41
2.7804,21.016001,21.528,-2.9268,7.8818,-1.1707,12.56,-10.744,9.6911,-2.9268,7.8818,3.9409,-2.8571,9.4603,1.0159,21.153999,21.32,-10.757,10.553,-11.823,6.6026
2.7804,18.159,18.601999,-3.9024,6.8966,-1.1707,11.594,-10.744,11.642,-3.9024,6.8966,3.9409,-7.619,3.746,-1.8413,16.346001,16.49,-8.8245,19.084,-14.778,0.83333
3.7283,16.254,16.65,-0.97561,1.9704,3.7073,13.527,-9.7735,16.52,-0.97561,1.9704,6.8966,-7.619,1.8413,-1.8413,15.385,13.591,-5.9259,10.553,-10.837,0.83333
-1.9589,12.444,8.8455,-8.7805,0.0,-1.1707,10.628,-4.9191,12.618,-8.7805,0.0,3.9409,-14.286,-1.9683,-6.6032,11.538,5.8615,-4.9597,11.501,-18.719,-0.12821
-4.8025,9.5873,2.9919,-8.7805,13.793,-7.0244,9.6618,2.8479,11.642,-8.7805,13.793,3.9409,-20.0,-6.7302,-10.413,7.6923,-1.868,-8.8245,6.7615,-25.615999,-1.0897
-1.0111,14.349,2.9919,10.732,18.719,-2.1463,14.493,0.90615,18.472,10.732,18.719,7.8818,-18.094999,-6.7302,-9.4603,8.6538,-4.7665,-8.8245,7.7093,-21.674999,1.7949
-1.9589,16.254,2.0163,14.634,9.8522,-4.0976,12.56,1.877,14.569,14.634,9.8522,7.8818,-16.190001,-5.7778,-8.5079,7.6923,-7.6651,-5.9259,13.397,-17.733999,5.641
-8.594,5.7778,-5.7886,5.8537,6.8966,-2.1463,4.8309,-3.9482,13.593,5.8537,6.8966,4.9261,-25.714001,-13.397,-14.222,-1.9231,-16.361,-3.9936,17.188,-25.615999,-3.0128
-9.5419,2.9206,-6.7642,4.878,10.837,0.78049,11.594,1.877,14.569,4.878,10.837,6.8966,-26.667,-10.54,-15.175,-2.8846,-18.292999,3.7359,15.292,-23.645,-2.0513
-9.5419,1.9683,-8.7154,0.97561,8.867,-3.122,8.6957,4.7896,12.618,0.97561,8.867,6.8966,-27.618999,-10.54,-17.079,-3.8462,-20.225,4.7021,9.6051,-19.704,-0.12821
-6.6983,2.9206,-6.7642,4.878,6.8966,-0.19512,11.594,10.615,9.6911,4.878,6.8966,8.867,-28.570999,-12.444,-16.127001,-3.8462,-20.225,2.7697,0.12638,-17.733999,-0.12821
-3.8547,4.8254,-1.8862,8.7805,10.837,7.6098,15.459,12.557,10.667,8.7805,10.837,15.764,-23.809999,-7.6825,-13.27,-0.96154,-16.361,-3.9936,1.0742,-14.778,5.641
-1.9589,6.7302,1.0407,6.8293,18.719,10.537,20.290001,9.644,10.667,6.8293,18.719,20.690001,-26.667,-12.444,-14.222,-3.8462,-17.327,-2.0612,19.084,-17.733999,-1.0897
7.5197,14.349,10.797,25.365999,27.586,19.316999,28.018999,15.469,19.447001,25.365999,27.586,32.512001,-21.905001,-8.6349,-9.4603,0.0,-11.53,12.432,15.292,-13.793,-3.0128
9.4155,17.205999,14.699,30.243999,21.674999,23.219999,33.816002,11.586,22.374001,30.243999,21.674999,36.452999,-20.952,-9.5873,-7.5556,2.8846,-8.6312,9.533,12.449,-11.823,-2.0513
8.4676,14.349,13.724,22.438999,16.749001,30.049,30.917999,8.6731,17.496,22.438999,16.749001,35.467999,-24.761999,-13.397,-9.4603,0.96154,-9.5974,0.83736,12.449,-19.704,-5.8974
12.259,14.349,15.675,20.488001,23.645,25.171,28.986,17.410999,15.545,20.488001,23.645,34.483002,-20.0,-12.444,-5.6508,2.8846,-5.7327,1.8035,1.0742,-22.66,-3.0128
15.103,15.302,16.65,18.537001,23.645,24.195,23.188,12.557,13.593,18.537001,23.645,32.512001,-17.143,-10.54,-1.8413,4.8077,-2.8341,-0.12882,3.9179,-17.733999,0.83333
15.103,12.444,14.699,14.634,16.749001,24.195,21.256001,7.7023,5.7886,14.634,16.749001,28.570999,-17.143,-16.254,0.06349,1.9231,-2.8341,-3.0274,13.397,-16.749001,-1.0897
14.155,8.6349,11.772,9.7561,11.823,18.341,18.357,5.7605,2.8618,9.7561,11.823,22.66,-14.286,-18.159,2.9206,0.96154,-2.8341,2.7697,7.7093,-13.793,-1.0897
16.997999,6.7302,11.772,19.511999,13.793,19.316999,14.493,9.644,5.7886,19.511999,13.793,19.704,-8.5714,-12.444,8.6349,1.9231,1.0306,16.296,-2.7172,-1.9704,1.7949
17.945999,3.873,9.8211,20.488001,12.808,18.341,5.7971,14.498,4.813,20.488001,12.808,15.764,-6.6667,-11.492,11.492,0.96154,1.0306,21.127001,2.0221,2.9557,3.7179
11.311,-2.7937,4.9431,4.878,1.9704,6.6341,-1.9324,10.615,1.8862,4.878,1.9704,4.9261,-5.7143,-8.6349,8.6349,-3.8462,-1.868,11.465,9.6051,2.9557,-3.0128
13.207,0.06349,7.8699,4.878,1.9704,7.6098,1.9324,11.586,-2.0163,4.878,1.9704,3.9409,1.9048,-0.06349,14.349,1.9231,4.8953,14.364,6.7615,10.837,1.7949
12.259,-1.8413,5.9187,4.878,-0.98522,9.561,0.96618,12.557,-3.9675,4.878,-0.98522,1.9704,2.8571,1.8413,14.349,1.9231,5.8615,9.533,0.12638,12.808,1.7949
7.5197,-5.6508,2.0163,7.8049,-0.98522,5.6585,0.0,9.644,-6.8943,7.8049,-0.98522,-0.98522,0.0,-1.0159,11.492,-1.9231,3.9291,9.533,-3.6651,8.867,-5.8974
11.311,3.873,8.8455,5.8537,0.0,6.6341,-0.96618,9.644,-7.8699,5.8537,0.0,0.0,4.7619,3.746,17.205999,5.7692,11.659,-1.095,-14.092,9.8522,-3.0128
16.997999,7.6825,18.601999,6.8293,2.9557,9.561,2.8986,15.469,-1.0407,6.8293,2.9557,3.9409,18.094999,6.6032,25.778,12.5,21.32,21.127001,1.0742,21.674999,-0.12821
14.155,2.9206,20.552999,-0.97561,-2.9557,10.537,-0.96618,-1.0356,-0.06504,-0.97561,-2.9557,2.9557,23.809999,9.4603,26.73,14.423,24.219,28.857,5.8136,26.601,2.7564
7.5197,3.873,16.65,-9.7561,-1.9704,2.7317,-1.9324,1.877,-2.0163,-9.7561,-1.9704,-2.9557,19.048,9.4603,21.016001,14.423,22.287001,13.398,4.8657,20.690001,2.7564
-0.06319,3.873,9.8211,-6.8293,0.0,-9.9512,-9.6618,0.90615,-6.8943,-6.8293,0.0,-9.8522,14.286,5.6508,14.349,11.538,17.455999,-3.0274,2.0221,11.823,1.7949
-13.333,-3.746,-1.8862,-6.8293,-6.8966,-23.610001,-20.290001,-10.744,-11.772,-6.8293,-6.8966,-20.690001,8.5714,2.7937,2.9206,1.9231,7.7939,-20.419001,-17.882999,3.9409,-2.0513
-19.021,-5.6508,-2.8618,-10.732,-10.837,-26.537001,-16.424999,-16.57,-8.8455,-10.732,-10.837,-20.690001,8.5714,2.7937,0.06349,0.0,4.8953,-8.8245,-15.987,2.9557,1.7949
-19.021,-8.5079,-0.91057,-14.634,-11.823,-27.511999,-13.527,-14.628,-7.8699,-14.634,-11.823,-18.719,9.5238,-1.0159,2.9206,-3.8462,4.8953,-4.9597,-3.6651,5.9113,-3.0128
-18.073,-15.175,-2.8618,-18.537001,-17.733999,-23.610001,-11.594,-23.365999,-12.748,-18.537001,-17.733999,-18.719,6.6667,-6.7302,0.06349,-11.538,-0.90177,-10.757,-3.6651,0.98522,-10.705
-15.229,-18.032,-5.7886,-13.659,-18.719,-24.584999,-21.256001,-16.57,-10.797,-13.659,-18.719,-19.704,7.619,-3.873,0.06349,-15.385,-4.7665,-14.622,-14.092,2.9557,-12.628
-13.333,-20.889,-7.7398,-24.389999,-18.719,-27.511999,-26.087,-4.9191,-14.699,-24.389999,-18.719,-19.704,9.5238,-6.7302,-0.88889,-22.115,-11.53,-11.723,-23.57,10.837,-17.436001
-5.7504,-22.794001,-7.7398,-12.683,-14.778,-18.732,-22.222,-0.06472,-17.625999,-12.683,-14.778,-15.764,11.429,-4.8254,0.06349,-26.923,-15.395,-11.723,-32.101002,14.778,-17.436001
2.7804,-21.841,-6.7642,5.8537,-4.9261,-7.0244,-13.527,3.8188,-12.748,5.8537,-4.9261,-7.8818,14.286,-3.873,2.9206,-26.923,-16.361,-2.0612,-30.205,18.719,-13.59
4.6761,-22.794001,-11.642,4.878,-5.9113,0.78049,-10.628,9.644,-10.797,4.878,-5.9113,-5.9113,4.7619,-16.254,-1.8413,-32.692001,-24.09,9.533,-16.934999,8.867,-25.128
4.6761,-24.698,-16.52,5.8537,0.0,3.7073,-12.56,17.410999,-10.797,5.8537,0.0,-4.9261,-5.7143,-25.778,-6.6032,-37.5,-29.886999,16.296,-5.5608,0.98522,-34.743999
0.88468,-21.841,-19.447001,1.9512,-4.9261,3.7073,-9.6618,13.528,-10.797,1.9512,-4.9261,-6.8966,-11.429,-34.348999,-11.365,-38.462002,-32.785999,17.261999,-7.4566,1.9704,-38.59
-1.0111,-19.937,-21.398001,-4.878,-5.9113,-1.1707,-7.7295,16.440001,-2.9919,-4.878,-5.9113,-7.8818,-18.094999,-36.254002,-13.27,-37.5,-34.717999,14.364,-10.3,0.98522,-36.667
-6.6983,-16.127001,-25.301001,-4.878,3.9409,-7.0244,-10.628,18.382,1.8862,-4.878,3.9409,-10.837,-24.761999,-38.159,-17.079,-35.577,-37.617001,18.229,-16.934999,-2.9557,-33.782001
-13.333,-13.27,-27.252001,-2.9268,2.9557,-8.0,-9.6618,13.528,6.7642,-2.9268,2.9557,-12.808,-28.570999,-41.967999,-19.937,-33.653999,-38.583,15.33,-11.248,-6.8966,-30.896999
-13.333,-6.6032,-22.374001,1.9512,5.9113,-6.0488,-1.9324,13.528,11.642,1.9512,5.9113,-8.867,-25.714001,-37.206001,-18.983999,-26.923,-34.717999,15.33,-5.5608,-8.867,-23.205
-15.229,-4.6984,-20.423,-1.9512,2.9557,-8.0,-1.9324,10.615,7.7398,-1.9512,2.9557,-8.867,-21.905001,-29.587,-19.937,-23.077,-30.853001,1.8035,5.8136,-7.8818,-17.436001
-19.021,-12.317,-22.374001,-2.9268,-1.9704,-8.0,-3.8647,-3.9482,2.8618,-2.9268,-1.9704,-10.837,-22.857,-29.587,-22.794001,-25.962,-31.82,-6.8921,12.449,-10.837,-19.358999
-15.229,-12.317,-17.496,0.97561,-3.9409,-1.1707,2.8986,-1.0356,-0.06504,0.97561,-3.9409,-4.9261,-15.238,-20.063,-19.937,-21.153999,-25.056,2.7697,5.8136,-7.8818,-13.59
-8.594,-5.6508,-9.6911,-2.9268,-0.98522,-1.1707,2.8986,7.7023,-2.0163,-2.9268,-0.98522,0.0,-2.8571,-6.7302,-10.413,-12.5,-13.462,10.499,-4.613,0.98522,-4.9359
-3.8547,-1.8413,-2.8618,-0.97561,-0.98522,-4.0976,-1.9324,13.528,-3.9675,-0.97561,-0.98522,0.98522,3.8095,1.8413,-4.6984,-6.7308,-7.6651,12.432,-14.092,4.9261,3.7179
-1.0111,0.06349,2.0163,0.0,-2.9557,-2.1463,0.96618,1.877,-9.8211,0.0,-2.9557,2.9557,10.476,3.746,-1.8413,-5.7692,-3.8003,5.6683,-1.7694,2.9557,0.83333
0.88468,1.0159,2.9919,-0.97561,-1.9704,-0.19512,3.8647,-2.9773,-7.8699,-0.97561,-1.9704,3.9409,13.333,10.413,-1.8413,-4.8077,-0.90177,1.8035,2.0221,2.9557,0.83333
-1.9589,-1.8413,-1.8862,0.0,-5.9113,-2.1463,3.8647,-9.7735,-5.9187,0.0,-5.9113,2.9557,10.476,10.413,-6.6032,-5.7692,-4.7665,-15.588,-10.3,1.9704,2.7564
-8.594,-8.5079,-9.6911,-5.8537,-8.867,-6.0488,1.9324,-10.744,-9.8211,-5.8537,-8.867,-3.9409,6.6667,9.4603,-12.317,-9.6154,-8.6312,-12.689,-12.196,-5.9113,-2.0513
-6.6983,-6.6032,-8.7154,-3.9024,-3.9409,2.7317,0.96618,-10.744,-7.8699,-3.9024,-3.9409,-2.9557,9.5238,9.4603,-9.4603,-5.7692,-5.7327,-2.0612,-7.4566,-2.9557,-2.0513
-9.5419,-11.365,-13.593,1.9512,0.0,-2.1463,-8.6957,-2.9773,-0.06504,1.9512,0.0,-6.8966,10.476,3.746,-9.4603,-5.7692,-5.7327,-4.9597,1.0742,-2.9557,-4.9359
-15.229,-16.127001,-24.325001,0.0,-8.867,-10.927,-15.459,-0.06472,2.8618,0.0,-8.867,-14.778,8.5714,-1.0159,-13.27,-10.577,-9.5974,-3.9936,-1.7694,-0.98522,-6.859
-19.021,-21.841,-33.105999,-6.8293,-7.8818,-14.829,-28.018999,-5.89,-0.06504,-6.8293,-7.8818,-23.645,1.9048,-10.54,-15.175,-16.346001,-15.395,-2.0612,-12.196,0.98522,-10.705
-23.76,-28.507999,-39.935001,-13.659,-7.8818,-22.634001,-35.749001,-9.7735,-9.8211,-13.659,-7.8818,-32.512001,-0.95238,-16.254,-18.032,-21.153999,-19.259001,-4.9597,-11.248,2.9557,-13.59
-26.603001,-34.222,-44.813,-22.438999,-22.66,-25.561001,-40.580002,-18.511,-12.748,-22.438999,-22.66,-37.438,-2.8571,-18.159,-18.983999,-25.962,-23.124001,-15.588,-11.248,2.9557,-16.474001
-25.656,-34.222,-44.813,-21.462999,-30.542,-27.511999,-36.715,-18.511,-11.772,-21.462999,-30.542,-39.409,-3.8095,-15.302,-17.079,-24.038,-22.158001,-10.757,-0.82148,5.9113,-10.705
-25.656,-30.413,-42.862,-22.438999,-36.452999,-25.561001,-36.715,-31.132999,-14.699,-22.438999,-36.452999,-38.424,-4.7619,-10.54,-15.175,-19.231001,-19.259001,-4.9597,-3.6651,5.9113,-3.0128
-20.916,-24.698,-35.056999,-29.268,-33.498001,-26.537001,-37.681,-22.395,-16.65,-29.268,-33.498001,-36.452999,-0.95238,-1.9683,-8.5079,-12.5,-11.53,-6.8921,-3.6651,4.9261,2.7564
-16.177,-19.937,-27.252001,-26.341,-23.645,-25.561001,-34.783001,-11.715,-13.724,-26.341,-23.645,-32.512001,5.7143,10.413,-1.8413,-4.8077,-3.8003,-4.9597,4.8657,7.8818,15.256
-18.073,-17.079,-24.325001,-19.511999,-18.719,-21.659,-36.715,-18.511,-12.748,-19.511999,-18.719,-28.570999,7.619,12.317,-0.88889,-5.7692,-3.8003,-7.8583,10.553,3.9409,10.449
-14.281,-13.27,-16.52,-21.462999,-17.733999,-15.805,-23.188,-20.452999,-7.8699,-21.462999,-17.733999,-21.674999,8.5714,10.413,-0.88889,-4.8077,-2.8341,-12.689,5.8136,0.98522,4.6795
-7.6461,-3.746,-2.8618,-16.584999,-13.793,-8.0,-5.7971,-11.715,-4.9431,-16.584999,-13.793,-9.8522,13.333,11.365,4.8254,0.0,1.9968,-7.8583,-11.248,5.9113,5.641
-2.9068,1.9683,5.9187,-11.707,-12.808,0.78049,3.8647,-18.511,-3.9675,-11.707,-12.808,0.98522,14.286,10.413,7.6825,0.0,3.9291,-4.9597,-3.6651,6.8966,4.6795
4.6761,5.7778,15.675,-6.8293,-6.8966,-1.1707,12.56,-7.8317,0.91057,-6.8293,-6.8966,7.8818,19.048,7.5556,13.397,1.9231,8.7601,-9.7907,1.0742,12.808,2.7564
8.4676,14.349,21.528,-1.9512,7.8818,3.7073,15.459,-2.9773,1.8862,-1.9512,7.8818,14.778,19.048,6.6032,15.302,4.8077,11.659,-2.0612,11.501,13.793,1.7949
7.5197,19.111,21.528,-2.9268,9.8522,2.7317,19.323999,-10.744,4.813,-2.9268,9.8522,15.764,12.381,0.88889,9.5873,5.7692,9.7262,-8.8245,6.7615,4.9261,-3.0128
8.4676,17.205999,21.528,-2.9268,13.793,2.7317,14.493,-11.715,6.7642,-2.9268,13.793,15.764,8.5714,-5.7778,6.7302,6.7308,7.7939,-10.757,3.9179,1.9704,-5.8974
11.311,16.254,22.504,0.97561,13.793,6.6341,13.527,-6.8608,5.7886,0.97561,13.793,15.764,6.6667,-9.5873,6.7302,9.6154,9.7262,-2.0612,9.6051,5.9113,0.83333
8.4676,11.492,14.699,-3.9024,4.9261,2.7317,13.527,-11.715,2.8618,-3.9024,4.9261,10.837,1.9048,-11.492,1.0159,8.6538,5.8615,-10.757,5.8136,1.9704,4.6795
6.5719,8.6349,8.8455,-7.8049,-5.9113,1.7561,8.6957,-4.9191,0.91057,-7.8049,-5.9113,5.9113,0.0,-3.873,-1.8413,11.538,6.8277,-12.689,-0.82148,0.98522,9.4872
11.311,15.302,14.699,-0.97561,-3.9409,11.512,16.424999,-4.9191,2.8618,-0.97561,-3.9409,10.837,8.5714,12.317,4.8254,23.077,16.49,4.7021,2.97,8.867,18.141001
9.4155,18.159,15.675,-0.97561,0.98522,5.6585,12.56,-2.0065,-2.0163,-0.97561,0.98522,9.8522,16.190001,26.603001,9.5873,30.768999,24.219,7.6006,-4.613,14.778,27.756001
4.6761,9.5873,9.8211,0.97561,6.8966,-3.122,-0.96618,-0.06472,-3.9675,0.97561,6.8966,1.9704,19.048,31.365,11.492,28.846001,27.118,0.83736,0.12638,16.749001,24.872
1.8325,0.06349,4.9431,0.0,5.9113,-8.0,-12.56,-4.9191,-7.8699,0.0,5.9113,-4.9261,17.143,32.317001,11.492,25.0,29.049999,2.7697,4.8657,11.823,21.987
1.8325,-2.7937,3.9675,-1.9512,-1.9704,-6.0488,-13.527,-10.744,-6.8943,-1.9512,-1.9704,-5.9113,21.905001,38.032001,15.302,25.962,32.915001,-2.0612,-0.82148,12.808,24.872
-1.0111,-4.6984,2.0163,-7.8049,-8.867,-8.9756,-13.527,-11.715,-7.8699,-7.8049,-8.867,-9.8522,24.761999,40.889,16.254,24.038,33.881001,-2.0612,-9.3523,11.823,24.872
-2.9068,-9.4603,-1.8862,-7.8049,-13.793,-8.9756,-12.56,-20.452999,-10.797,-7.8049,-13.793,-11.823,20.952,38.984001,12.444,17.308001,29.049999,-16.554001,-10.3,5.9113,21.025999
-1.0111,-9.4603,-0.91057,2.9268,-4.9261,1.7561,-1.9324,-11.715,-6.8943,2.9268,-4.9261,-4.9261,20.952,30.413,11.492,11.538,25.184999,-3.0274,-10.3,4.9261,10.449
2.7804,-6.6032,0.06504,10.732,3.9409,4.6829,0.96618,7.7023,-4.9431,10.732,3.9409,0.98522,19.048,23.746,10.54,6.7308,21.32,-0.12882,-25.466,2.9557,-0.12821
4.6761,-1.8413,3.9675,15.61,7.8818,7.6098,2.8986,14.498,-2.9919,15.61,7.8818,6.8966,14.286,21.841,10.54,4.8077,19.388,1.8035,-19.778999,-0.98522,-1.0897
6.5719,1.0159,8.8455,21.462999,16.749001,16.389999,5.7971,9.644,4.813,21.462999,16.749001,11.823,11.429,15.175,11.492,1.9231,16.49,6.6345,0.12638,-1.9704,-5.8974
6.5719,3.873,9.8211,15.61,9.8522,12.488,10.628,4.7896,5.7886,15.61,9.8522,12.808,-0.95238,5.6508,4.8254,-1.9231,10.692,-7.8583,2.97,-12.808,-9.7436
0.88468,5.7778,6.8943,7.8049,8.867,4.6829,13.527,-5.89,3.8374,7.8049,8.867,9.8522,-10.476,-2.9206,-3.746,-2.8846,1.9968,-24.283001,0.12638,-20.690001,-9.7436
-0.06319,15.302,8.8455,2.9268,14.778,7.6098,12.56,-7.8317,6.7642,2.9268,14.778,11.823,-12.381,-6.7302,-4.6984,3.8462,1.0306,-17.52,2.97,-19.704,-3.9744
1.8325,19.111,11.772,8.7805,10.837,12.488,14.493,-12.686,8.7154,8.7805,10.837,12.808,-15.238,-9.5873,-4.6984,7.6923,1.0306,-11.723,1.0742,-16.749001,-1.0897
8.4676,21.016001,19.577,11.707,9.8522,12.488,23.188,3.8188,11.642,11.707,9.8522,16.749001,-10.476,-6.7302,2.9206,17.308001,7.7939,0.83736,-2.7172,-5.9113,8.5256
14.155,24.825001,26.407,16.584999,14.778,18.341,20.290001,14.498,7.7398,16.584999,14.778,21.674999,-3.8095,-1.9683,10.54,23.077,14.557,14.364,20.979,3.9409,11.41
16.051001,22.921,25.431,15.61,15.764,23.219999,21.256001,14.498,9.6911,15.61,15.764,22.66,-2.8571,-1.9683,12.444,25.962,17.455999,13.398,31.406,5.9113,13.333
16.997999,23.872999,23.48,10.732,7.8818,16.389999,20.290001,19.353001,13.593,10.732,7.8818,19.704,0.0,2.7937,13.397,29.808001,19.388,10.499,12.449,2.9557,18.141001
13.207,23.872999,20.552999,3.9024,2.9557,10.537,15.459,8.6731,10.667,3.9024,2.9557,14.778,2.8571,9.4603,10.54,30.768999,19.388,3.7359,16.24,3.9409,22.948999
10.363,17.205999,15.675,0.97561,3.9409,5.6585,6.7633,2.8479,3.8374,0.97561,3.9409,8.867,3.8095,8.5079,7.6825,24.038,15.523,5.6683,15.292,6.8966,21.025999
10.363,11.492,11.772,-1.9512,-1.9704,7.6098,0.96618,-0.06472,0.91057,-1.9512,-1.9704,5.9113,7.619,12.317,9.5873,20.191999,15.523,10.499,14.344,9.8522,20.063999
3.7283,0.06349,2.9919,-3.9024,-8.867,-1.1707,-5.7971,4.7896,-2.9919,-3.9024,-8.867,-0.98522,5.7143,8.5079,4.8254,10.577,9.7262,8.5668,9.6051,5.9113,11.41
1.8325,-5.6508,-2.8618,-5.8537,-10.837,-4.0976,-6.7633,6.7314,-2.0163,-5.8537,-10.837,-3.9409,6.6667,9.4603,2.9206,7.6923,7.7939,13.398,-4.613,5.9113,11.41
0.88468,-12.317,-7.7398,-7.8049,-13.793,-4.0976,-6.7633,1.877,-1.0407,-7.8049,-13.793,-6.8966,8.5714,14.222,2.9206,2.8846,5.8615,6.6345,0.12638,5.9113,9.4872
-3.8547,-16.127001,-13.593,-13.659,-7.8818,-6.0488,-15.459,-2.0065,-5.9187,-13.659,-7.8818,-11.823,6.6667,12.317,0.06349,-2.8846,1.0306,1.8035,7.7093,3.9409,4.6795
-5.7504,-15.175,-16.52,-10.732,-3.9409,-8.9756,-17.391001,-6.8608,-10.797,-10.732,-3.9409,-13.793,4.7619,10.413,-1.8413,-4.8077,-1.868,-4.9597,-5.5608,0.98522,2.7564
-6.6983,-13.27,-17.496,-3.9024,-5.9113,-9.9512,-12.56,-7.8317,-2.0163,-3.9024,-5.9113,-10.837,0.95238,8.5079,-5.6508,-6.7308,-5.7327,-20.419001,-0.82148,-9.8522,2.7564
-7.6461,-7.5556,-17.496,-6.8293,0.98522,-8.0,-7.7295,-10.744,7.7398,-6.8293,0.98522,-6.8966,0.95238,6.6032,-8.5079,-8.6538,-8.6312,-13.655,13.397,-10.837,0.83333
-9.5419,-5.6508,-15.545,4.878,5.9113,-6.0488,-1.9324,-8.8026,18.472,4.878,5.9113,-1.9704,-7.619,-3.873,-13.27,-12.5,-14.428,-4.9597,14.344,-12.808,-8.7821
-8.594,-1.8413,-11.642,17.561001,18.719,-3.122,12.56,-2.0065,24.325001,17.561001,18.719,3.9409,-12.381,-8.6349,-16.127001,-12.5,-17.327,-6.8921,6.7615,-13.793,-8.7821
-6.6983,2.9206,-9.6911,16.584999,24.631001,-2.1463,13.527,4.7896,20.423,16.584999,24.631001,6.8966,-17.143,-14.349,-20.889,-13.462,-23.124001,-3.0274,6.7615,-21.674999,-15.513
-4.8025,8.6349,-6.7642,12.683,21.674999,3.7073,15.459,8.6731,20.423,12.683,21.674999,8.867,-21.905001,-20.063,-21.841,-12.5,-26.023001,-3.0274,3.9179,-23.645,-18.396999
1.8325,16.254,1.0407,13.659,18.719,12.488,21.256001,8.6731,18.472,13.659,18.719,14.778,-20.0,-16.254,-16.127001,-3.8462,-20.225,3.7359,10.553,-16.749001,-8.7821
5.624,19.111,5.9187,15.61,19.704,16.389999,24.155001,10.615,18.472,15.61,19.704,17.733999,-19.048,-12.444,-11.365,2.8846,-14.428,2.7697,18.136,-12.808,-1.0897
10.363,22.921,12.748,16.584999,20.690001,19.316999,25.121,10.615,22.374001,16.584999,20.690001,19.704,-16.190001,-1.9683,-4.6984,13.462,-4.7665,7.6006,10.553,-10.837,13.333
13.207,22.921,17.625999,11.707,16.749001,13.463,21.256001,16.440001,16.52,11.707,16.749001,17.733999,-14.286,5.6508,0.06349,20.191999,2.963,4.7021,22.875,-11.823,18.141001
15.103,23.872999,23.48,11.707,4.9261,11.512,17.391001,5.7605,11.642,11.707,4.9261,18.719,-11.429,12.317,5.7778,23.077,8.7601,4.7021,29.51,-10.837,18.141001
19.841999,23.872999,27.382,12.683,10.837,11.512,15.459,4.7896,11.642,12.683,10.837,18.719,-2.8571,20.889,12.444,25.962,16.49,11.465,7.7093,-2.9557,21.987
19.841999,23.872999,28.358,8.7805,14.778,12.488,18.357,10.615,10.667,8.7805,14.778,17.733999,-2.8571,19.937,13.397,24.038,17.455999,7.6006,8.6572,-3.9409,21.987
21.738001,20.063,30.309,5.8537,2.9557,16.389999,18.357,4.7896,7.7398,5.8537,2.9557,19.704,-1.9048,19.937,15.302,21.153999,17.455999,-2.0612,16.24,-0.98522,21.025999
19.841999,18.159,30.309,2.9268,5.9113,14.439,18.357,8.6731,0.91057,2.9268,5.9113,17.733999,0.0,18.032,14.349,18.268999,17.455999,5.6683,12.449,1.9704,19.103001
17.945999,20.063,31.285,5.8537,5.9113,13.463,16.424999,15.469,7.7398,5.8537,5.9113,17.733999,5.7143,23.746,16.254,21.153999,20.354,10.499,1.0742,3.9409,22.948999
10.363,11.492,21.528,-0.97561,0.0,7.6098,11.594,4.7896,5.7886,-0.97561,0.0,10.837,2.8571,18.032,10.54,14.423,15.523,5.6683,7.7093,0.98522,14.295
6.5719,8.6349,13.724,-1.9512,0.0,4.6829,11.594,-2.9773,4.813,-1.9512,0.0,7.8818,-1.9048,8.5079,6.7302,8.6538,9.7262,1.8035,16.24,-2.9557,4.6795
7.5197,6.7302,10.797,4.878,3.9409,4.6829,12.56,1.877,9.6911,4.878,3.9409,7.8818,-3.8095,4.6984,5.7778,5.7692,7.7939,-1.095,8.6572,-2.9557,1.7949
4.6761,8.6349,7.8699,5.8537,9.8522,3.7073,12.56,1.877,10.667,5.8537,9.8522,7.8818,-9.5238,-2.9206,1.9683,1.9231,2.963,0.83736,2.0221,-10.837,-3.9744
7.5197,12.444,9.8211,17.561001,16.749001,8.5854,16.424999,3.8188,13.593,17.561001,16.749001,13.793,-11.429,-10.54,0.06349,1.9231,1.0306,-7.8583,2.0221,-12.808,-6.859
8.4676,14.349,11.772,19.511999,20.690001,19.316999,21.256001,1.877,13.593,19.511999,20.690001,18.719,-14.286,-14.349,-2.7937,0.96154,-2.8341,1.8035,-6.5087,-12.808,-9.7436
4.6761,11.492,9.8211,17.561001,17.733999,14.439,17.391001,17.410999,10.667,17.561001,17.733999,17.733999,-20.0,-21.968,-6.6032,-1.9231,-5.7327,8.5668,1.0742,-15.764,-18.396999
4.6761,2.9206,4.9431,13.659,10.837,11.512,7.7295,21.294001,5.7886,13.659,10.837,11.823,-24.761999,-31.492001,-10.413,-7.6923,-11.53,9.533,0.12638,-13.793,-26.09
0.88468,-2.7937,0.06504,15.61,13.793,10.537,0.0,16.440001,3.8374,15.61,13.793,6.8966,-25.714001,-28.635,-11.365,-11.538,-15.395,12.432,-5.5608,-12.808,-24.167
-1.9589,-8.5079,-4.813,11.707,8.867,6.6341,-2.8986,14.498,-0.06504,11.707,8.867,2.9557,-25.714001,-24.825001,-15.175,-15.385,-19.259001,4.7021,-10.3,-14.778,-21.282
-9.5419,-13.27,-13.593,3.9024,-8.867,-0.19512,-5.7971,5.7605,-7.8699,3.9024,-8.867,-5.9113,-28.570999,-20.063,-22.794001,-19.231001,-25.056,2.7697,-15.039,-21.674999,-15.513
-17.125,-16.127001,-20.423,0.97561,-12.808,-8.9756,-14.493,2.8479,-8.8455,0.97561,-12.808,-14.778,-27.618999,-15.302,-27.556,-21.153999,-28.921,-7.8583,-8.4044,-21.674999,-9.7436
-23.76,-24.698,-27.252001,-6.8293,-10.837,-12.878,-27.052999,-8.8026,-4.9431,-6.8293,-10.837,-21.674999,-25.714001,-10.54,-30.413,-24.038,-30.853001,-20.419001,-4.613,-23.645,-4.9359
-33.238998,-28.507999,-34.081001,-23.415001,-24.631001,-29.462999,-36.715,-20.452999,-16.65,-23.415001,-24.631001,-32.512001,-27.618999,-13.397,-35.174999,-28.846001,-34.717999,-25.25,-7.4566,-27.586,-9.7436
-40.820999,-27.556,-38.959,-19.511999,-27.586,-38.243999,-35.749001,-20.452999,-13.724,-19.511999,-27.586,-37.438,-30.476,-16.254,-40.889,-33.653999,-40.514999,-24.283001,-1.7694,-32.512001,-12.628
-44.612999,-28.507999,-40.910999,-4.878,-5.9113,-36.292999,-31.884001,-22.395,0.91057,-4.878,-5.9113,-34.483002,-29.524,-17.205999,-44.698002,-37.5,-45.346001,-33.945,-5.5608,-30.542,-12.628
-40.820999,-24.698,-36.033001,-1.9512,0.0,-34.341,-23.188,-18.511,2.8618,-1.9512,0.0,-29.556999,-25.714001,-16.254,-40.889,-35.577,-43.414001,-28.148001,-14.092,-26.601,-11.667
-32.291,-21.841,-27.252001,7.8049,8.867,-20.683001,-9.6618,-18.511,7.7398,7.8049,8.867,-18.719,-20.952,-13.397,-35.174999,-32.692001,-38.583,-19.452,-6.5087,-22.66,-7.8205
-26.603001,-21.841,-24.325001,7.8049,12.808,-15.805,-4.8309,-8.8026,9.6911,7.8049,12.808,-12.808,-19.048,-15.302,-32.317001,-31.731001,-36.651001,-22.351,1.0742,-17.733999,-9.7436
-14.281,-10.413,-13.593,21.462999,18.719,-1.1707,1.9324,-5.89,12.618,21.462999,18.719,-0.98522,-10.476,-7.6825,-19.937,-19.231001,-25.056,-13.655,-5.5608,-11.823,-0.12821
-2.9068,1.9683,-3.8374,28.292999,23.645,3.7073,11.594,3.8188,12.618,28.292999,23.645,6.8966,0.0,-1.9683,-8.5079,-7.6923,-11.53,-1.095,0.12638,0.0,0.83333
4.6761,5.7778,3.9675,23.415001,23.645,4.6829,13.527,10.615,10.667,23.415001,23.645,9.8522,10.476,4.6984,2.9206,1.9231,0.06441,-1.095,6.7615,9.8522,0.83333
10.363,7.6825,9.8211,22.438999,22.66,13.463,12.56,4.7896,9.6911,22.438999,22.66,14.778,17.143,8.5079,9.5873,9.6154,9.7262,2.7697,5.8136,12.808,5.641
11.311,8.6349,11.772,14.634,17.733999,11.512,9.6618,-1.0356,7.7398,14.634,17.733999,12.808,19.048,9.4603,14.349,13.462,15.523,6.6345,-4.613,11.823,6.6026
11.311,9.5873,12.748,10.732,11.823,7.6098,5.7971,-11.715,4.813,10.732,11.823,10.837,19.048,6.6032,16.254,15.385,18.422001,-0.12882,-2.7172,13.793,7.5641
14.155,11.492,16.65,6.8293,9.8522,9.561,12.56,-13.657,1.8862,6.8293,9.8522,11.823,20.952,6.6032,19.111,16.346001,21.32,3.7359,3.9179,18.719,5.641
13.207,9.5873,13.724,0.97561,9.8522,9.561,10.628,-1.0356,0.91057,0.97561,9.8522,10.837,21.905001,7.5556,17.205999,13.462,17.455999,10.499,-6.5087,22.66,5.641
4.6761,-0.88889,0.06504,0.97561,0.98522,-2.1463,1.9324,6.7314,-2.9919,0.97561,0.98522,0.0,21.905001,8.5079,9.5873,3.8462,7.7939,9.533,-4.613,15.764,4.6795
-6.6983,-13.27,-12.618,-1.9512,-8.867,-13.854,-12.56,-0.06472,-8.8455,-1.9512,-8.867,-13.793,23.809999,10.413,3.873,-5.7692,-0.90177,11.465,-2.7172,12.808,0.83333
-8.594,-19.937,-16.52,-13.659,-7.8818,-15.805,-24.155001,-2.0065,-6.8943,-13.659,-7.8818,-19.704,25.714001,11.365,3.873,-10.577,-2.8341,1.8035,-2.7172,17.733999,-0.12821
-10.49,-20.889,-17.496,-16.584999,-8.867,-14.829,-20.290001,-5.89,-8.8455,-16.584999,-8.867,-20.690001,24.761999,12.317,3.873,-13.462,-4.7665,5.6683,0.12638,17.733999,0.83333
-17.125,-22.794001,-23.35,-15.61,-13.793,-19.707001,-23.188,-12.686,-8.8455,-15.61,-13.793,-23.645,21.905001,11.365,-1.8413,-18.268999,-10.564,6.6345,-3.6651,13.793,-1.0897
-19.021,-20.889,-27.252001,-19.511999,-14.778,-23.610001,-25.121,-13.657,-7.8699,-19.511999,-14.778,-26.601,21.905001,13.27,-2.7937,-16.346001,-10.564,-8.8245,-11.248,15.764,3.7179
-20.916,-20.889,-30.179001,-32.195,-27.586,-21.659,-26.087,-18.511,-9.8211,-32.195,-27.586,-28.570999,13.333,8.5079,-5.6508,-16.346001,-12.496,-10.757,-10.3,8.867,-0.12821
-18.073,-17.079,-28.228001,-31.219999,-35.467999,-22.634001,-23.188,-14.628,-13.724,-31.219999,-35.467999,-30.542,6.6667,4.6984,-5.6508,-14.423,-12.496,-14.622,-6.5087,4.9261,-3.0128
-13.333,-14.222,-22.374001,-24.389999,-27.586,-23.610001,-22.222,-8.8026,-10.797,-24.389999,-27.586,-27.586,4.7619,2.7937,-3.746,-9.6154,-9.5974,-2.0612,0.12638,6.8966,-0.12821
-11.438,-12.317,-18.472,-25.365999,-19.704,-19.707001,-25.121,-11.715,-9.8211,-25.365999,-19.704,-24.631001,-1.9048,-1.9683,-5.6508,-5.7692,-9.5974,1.8035,6.7615,3.9409,-0.12821
-10.49,-6.6032,-13.593,-27.316999,-19.704,-14.829,-21.256001,-10.744,-10.797,-27.316999,-19.704,-21.674999,-4.7619,-3.873,-3.746,-0.96154,-5.7327,1.8035,2.97,5.9113,2.7564
-2.9068,0.06349,-3.8374,-19.511999,-22.66,-8.9756,-9.6618,-6.8608,-12.748,-19.511999,-22.66,-13.793,1.9048,-4.8254,3.873,3.8462,1.0306,7.6006,2.0221,8.867,2.7564
3.7283,2.9206,2.0163,-19.511999,-18.719,-4.0976,-6.7633,-4.9191,-12.748,-19.511999,-18.719,-9.8522,9.5238,-1.0159,9.5873,7.6923,7.7939,5.6683,-4.613,15.764,6.6026
5.624,3.873,4.9431,-21.462999,-22.66,-1.1707,-2.8986,-8.8026,-13.724,-21.462999,-22.66,-7.8818,14.286,1.8413,15.302,8.6538,12.625,2.7697,-5.5608,25.615999,4.6795
12.259,6.7302,12.748,-21.462999,-22.66,-4.0976,1.9324,3.8188,-10.797,-21.462999,-22.66,-2.9557,23.809999,9.4603,25.778,15.385,24.219,9.533,1.0742,31.527,6.6026
16.997999,10.54,18.601999,-16.584999,-13.793,0.78049,5.7971,7.7023,-12.748,-16.584999,-13.793,2.9557,31.429001,22.794001,34.348999,25.0,33.881001,8.5668,10.553,32.512001,18.141001
17.945999,7.6825,19.577,-10.732,-4.9261,4.6829,3.8647,-1.0356,-9.8211,-10.732,-4.9261,5.9113,31.429001,21.841,34.348999,23.077,33.881001,16.296,5.8136,34.483002,15.256
13.207,2.9206,17.625999,-7.8049,-6.8966,1.7561,-2.8986,-3.9482,-7.8699,-7.8049,-6.8966,4.9261,29.524,18.983999,30.540001,19.231001,30.982,21.127001,0.12638,32.512001,12.372
16.997999,7.6825,21.528,-6.8293,-3.9409,5.6585,-0.96618,-2.0065,-6.8943,-6.8293,-3.9409,9.8522,31.429001,24.698,31.492001,22.115,32.915001,13.398,-7.4566,31.527,19.103001
15.103,12.444,21.528,-0.97561,-0.98522,8.5854,6.7633,-7.8317,-4.9431,-0.97561,-0.98522,13.793,26.667,18.983999,27.683001,19.231001,28.084,7.6006,-8.4044,23.645,8.5256
15.103,12.444,19.577,3.9024,6.8966,5.6585,16.424999,5.7605,0.91057,3.9024,6.8966,17.733999,15.238,9.4603,20.063,11.538,19.388,4.7021,4.8657,10.837,-3.0128
16.997999,12.444,19.577,8.7805,5.9113,11.512,25.121,15.469,2.8618,8.7805,5.9113,21.674999,9.5238,0.88889,15.302,8.6538,14.557,1.8035,10.553,2.9557,-6.859
16.997999,7.6825,16.65,4.878,9.8522,12.488,20.290001,9.644,3.8374,4.878,9.8522,20.690001,6.6667,-5.7778,11.492,4.8077,9.7262,1.8035,-2.7172,1.9704,-9.7436
18.893999,11.492,18.601999,10.732,21.674999,14.439,18.357,14.498,7.7398,10.732,21.674999,21.674999,4.7619,-5.7778,11.492,7.6923,9.7262,10.499,0.12638,-3.9409,-7.8205
16.051001,15.302,17.625999,16.584999,22.66,19.316999,21.256001,16.440001,14.569,16.584999,22.66,22.66,0.95238,-4.8254,7.6825,10.577,8.7601,12.432,-7.4566,-10.837,-3.9744
12.259,12.444,12.748,16.584999,16.749001,20.292999,19.323999,14.498,9.6911,16.584999,16.749001,20.690001,-3.8095,-13.397,2.9206,6.7308,3.9291,11.465,2.0221,-9.8522,-9.7436
9.4155,9.5873,7.8699,13.659,11.823,14.439,12.56,14.498,6.7642,13.659,11.823,13.793,-9.5238,-20.063,-0.88889,2.8846,-0.90177,1.8035,12.449,-7.8818,-13.59
3.7283,5.7778,2.9919,14.634,-0.98522,12.488,3.8647,11.586,2.8618,14.634,-0.98522,6.8966,-13.333,-19.111,-3.746,1.9231,-2.8341,11.465,7.7093,-8.867,-11.667
3.7283,6.7302,2.9919,13.659,-1.9704,16.389999,5.7971,4.7896,-1.0407,13.659,-1.9704,5.9113,-10.476,-16.254,-0.88889,5.7692,1.0306,19.195,-4.613,-0.98522,-4.9359
5.624,5.7778,5.9187,8.7805,4.9261,10.537,0.0,6.7314,3.8374,8.7805,4.9261,1.9704,-5.7143,-7.6825,2.9206,10.577,4.8953,13.398,-7.4566,1.9704,6.6026
6.5719,1.9683,3.9675,2.9268,-2.9557,6.6341,-7.7295,8.6731,-4.9431,2.9268,-2.9557,-2.9557,-5.7143,-5.7778,3.873,8.6538,4.8953,8.5668,2.97,2.9557,6.6026
10.363,1.0159,5.9187,-1.9512,-4.9261,11.512,-3.8647,7.7023,-11.772,-1.9512,-4.9261,-1.9704,-3.8095,-1.0159,5.7778,5.7692,5.8615,4.7021,7.7093,6.8966,3.7179
11.311,-1.8413,5.9187,0.97561,-2.9557,5.6585,-2.8986,6.7314,-11.772,0.97561,-2.9557,-1.9704,1.9048,4.6984,9.5873,3.8462,7.7939,9.533,-1.7694,7.8818,5.641
11.311,-4.6984,6.8943,0.97561,-6.8966,1.7561,-6.7633,4.7896,-11.772,0.97561,-6.8966,-2.9557,4.7619,5.6508,12.444,1.9231,8.7601,7.6006,-5.5608,7.8818,5.641
13.207,-7.5556,7.8699,2.9268,-12.808,6.6341,-7.7295,4.7896,-11.772,2.9268,-12.808,0.0,8.5714,6.6032,13.397,-0.96154,8.7601,3.7359,-8.4044,13.793,4.6795
14.155,-8.5079,6.8943,10.732,-6.8966,16.389999,-7.7295,5.7605,-9.8211,10.732,-6.8966,4.9261,10.476,9.4603,13.397,-4.8077,6.8277,15.33,-14.092,13.793,3.7179
9.4155,-9.4603,2.9919,8.7805,3.9409,11.512,-6.7633,14.498,-9.8211,8.7805,3.9409,3.9409,11.429,9.4603,12.444,-8.6538,5.8615,22.093,-20.726999,13.793,-0.12821
9.4155,-13.27,1.0407,2.9268,3.9409,5.6585,-5.7971,16.440001,-9.8211,2.9268,3.9409,1.9704,13.333,10.413,12.444,-10.577,6.8277,17.261999,-10.3,14.778,-0.12821
8.4676,-18.032,-2.8618,1.9512,-5.9113,6.6341,-8.6957,8.6731,-5.9187,1.9512,-5.9113,-1.9704,14.286,8.5079,10.54,-12.5,5.8615,2.7697,-5.5608,11.823,-6.859
2.7804,-18.983999,-6.7642,0.0,-8.867,-2.1463,-11.594,-1.0356,-6.8943,0.0,-8.867,-7.8818,11.429,8.5079,5.7778,-11.538,3.9291,-6.8921,-5.5608,6.8966,-8.7821
-1.0111,-11.365,-7.7398,-12.683,-20.690001,-8.9756,-8.6957,-3.9482,-8.8455,-12.683,-20.690001,-9.8522,9.5238,5.6508,3.873,-5.7692,4.8953,-13.655,-13.144,0.98522,-8.7821
-1.9589,-2.7937,-0.91057,-9.7561,-15.764,-4.0976,-2.8986,1.877,-1.0407,-9.7561,-15.764,-5.9113,9.5238,3.746,3.873,2.8846,8.7601,-2.0612,-2.7172,-0.98522,-6.859
-7.6461,1.9683,-1.8862,-3.9024,-0.98522,-9.9512,-5.7971,-3.9482,-1.0407,-3.9024,-0.98522,-6.8966,4.7619,-0.06349,-0.88889,5.7692,6.8277,0.83736,4.8657,-3.9409,-3.0128
-13.333,2.9206,-5.7886,-11.707,-2.9557,-13.854,-9.6618,-8.8026,-1.0407,-11.707,-2.9557,-9.8522,-0.95238,-3.873,-5.6508,5.7692,1.9968,-6.8921,0.12638,-7.8818,-1.0897
-17.125,1.9683,-8.7154,-15.61,-6.8966,-16.780001,-11.594,-8.8026,-2.9919,-15.61,-6.8966,-12.808,-3.8095,-4.8254,-9.4603,4.8077,-1.868,-7.8583,-1.7694,-7.8818,2.7564
-13.333,4.8254,-6.7642,-11.707,-7.8818,-12.878,-4.8309,-7.8317,-2.9919,-11.707,-7.8818,-9.8522,-8.5714,-4.8254,-10.413,4.8077,-3.8003,-14.622,9.6051,-9.8522,0.83333
-7.6461,8.6349,-1.8862,-6.8293,-8.867,-7.0244,1.9324,0.90615,0.91057,-6.8293,-8.867,-4.9261,-10.476,-1.9683,-7.5556,7.6923,-1.868,-9.7907,5.8136,-12.808,4.6795
-2.9068,10.54,2.0163,-9.7561,-7.8818,-4.0976,7.7295,1.877,5.7886,-9.7561,-7.8818,0.98522,-10.476,-0.06349,-4.6984,11.538,-0.90177,-3.0274,3.9179,-7.8818,10.449
0.88468,11.492,5.9187,-2.9268,-3.9409,3.7073,14.493,1.877,2.8618,-2.9268,-3.9409,6.8966,-14.286,2.7937,-4.6984,12.5,-0.90177,-1.095,11.501,-6.8966,15.256
9.4155,15.302,10.797,10.732,13.793,17.365999,8.6957,-0.06472,6.7642,10.732,13.793,14.778,-18.094999,3.746,-3.746,13.462,-0.90177,5.6683,12.449,-7.8818,18.141001
13.207,14.349,11.772,13.659,18.719,16.389999,8.6957,8.6731,11.642,13.659,18.719,17.733999,-20.0,-0.06349,-2.7937,10.577,-1.868,5.6683,7.7093,-5.9113,12.372
16.051001,12.444,14.699,14.634,17.733999,21.268,17.391001,19.353001,13.593,14.634,17.733999,21.674999,-16.190001,2.7937,-0.88889,9.6154,0.06441,8.5668,0.12638,-2.9557,12.372
11.311,11.492,11.772,10.732,12.808,22.243999,18.357,11.586,8.7154,10.732,12.808,21.674999,-18.094999,-0.06349,-4.6984,3.8462,-3.8003,7.6006,-2.7172,-5.9113,6.6026
13.207,6.7302,10.797,9.7561,8.867,22.243999,20.290001,11.586,8.7154,9.7561,8.867,20.690001,-16.190001,-4.8254,-2.7937,-1.9231,-4.7665,0.83736,9.6051,-2.9557,-3.9744
21.738001,7.6825,13.724,20.488001,16.749001,28.098,29.952,12.557,15.545,20.488001,16.749001,26.601,-13.333,-6.7302,3.873,-1.9231,-1.868,6.6345,10.553,0.98522,-4.9359
21.738001,8.6349,11.772,19.511999,20.690001,25.171,24.155001,16.440001,15.545,19.511999,20.690001,23.645,-10.476,-6.7302,7.6825,-2.8846,0.06441,9.533,5.8136,4.9261,-7.8205
16.051001,-0.88889,4.9431,15.61,14.778,17.365999,14.493,18.382,9.6911,15.61,14.778,15.764,-7.619,-10.54,7.6825,-7.6923,-0.90177,17.261999,-2.7172,1.9704,-11.667
13.207,-1.8413,2.0163,16.584999,15.764,14.439,7.7295,17.410999,8.7154,16.584999,15.764,11.823,-2.8571,-11.492,6.7302,-7.6923,0.06441,18.229,-12.196,1.9704,-12.628
8.4676,-2.7937,-0.91057,12.683,17.733999,11.512,6.7633,11.586,5.7886,12.683,17.733999,8.867,-0.95238,-10.54,4.8254,-9.6154,-0.90177,7.6006,-12.196,4.9261,-16.474001
1.8325,-8.5079,-5.7886,5.8537,7.8818,6.6341,1.9324,-4.9191,1.8862,5.8537,7.8818,2.9557,-1.9048,-8.6349,1.0159,-13.462,-3.8003,-0.12882,3.9179,2.9557,-16.474001
-5.7504,-14.222,-9.6911,-0.97561,-4.9261,-5.0732,-1.9324,-2.0065,-0.06504,-0.97561,-4.9261,-4.9261,-3.8095,-10.54,-2.7937,-14.423,-5.7327,-2.0612,3.9179,0.0,-14.551
-12.385,-6.6032,-8.7154,-5.8537,-3.9409,-13.854,-0.96618,0.90615,-1.0407,-5.8537,-3.9409,-8.867,-2.8571,-7.6825,-6.6032,-10.577,-4.7665,-4.9597,-5.5608,-1.9704,-9.7436
-13.333,-0.88889,-7.7398,-7.8049,0.0,-13.854,-0.96618,-5.89,-2.9919,-7.8049,0.0,-9.8522,0.95238,-0.06349,-6.6032,-4.8077,-1.868,-5.9259,-1.7694,0.98522,-1.0897
-15.229,-2.7937,-7.7398,-5.8537,0.98522,-13.854,-4.8309,-8.8026,-1.0407,-5.8537,0.98522,-9.8522,0.95238,-0.06349,-8.5079,-5.7692,-2.8341,-7.8583,-5.5608,-0.98522,-3.0128
-16.177,-0.88889,-4.813,-7.8049,0.0,-11.902,-1.9324,-10.744,0.91057,-7.8049,0.0,-5.9113,-1.9048,-1.0159,-11.365,-3.8462,-3.8003,-12.689,-1.7694,-4.9261,-1.0897
-15.229,4.8254,1.0407,-3.9024,-3.9409,-8.0,2.8986,-18.511,-0.06504,-3.9024,-3.9409,0.0,-3.8095,3.746,-13.27,0.0,-3.8003,-16.554001,2.0221,-11.823,6.6026
-18.073,3.873,0.06504,-1.9512,-3.9409,-13.854,-3.8647,-14.628,0.91057,-1.9512,-3.9409,-1.9704,-10.476,2.7937,-19.937,-1.9231,-8.6312,-20.419001,5.8136,-18.719,7.5641
-27.551001,-0.88889,-9.6911,-5.8537,-2.9557,-19.707001,-7.7295,-12.686,-0.06504,-5.8537,-2.9557,-7.8818,-20.952,-3.873,-33.27,-9.6154,-21.191999,-29.114,2.97,-26.601,6.6026
-28.499001,0.06349,-12.618,-3.9024,0.98522,-13.854,-2.8986,-8.8026,3.8374,-3.9024,0.98522,-5.9113,-28.570999,-10.54,-42.793999,-14.423,-30.853001,-21.385,2.97,-32.512001,1.7949
-30.395,-2.7937,-16.52,-4.878,0.0,-15.805,0.0,-8.8026,1.8862,-4.878,0.0,-5.9113,-37.143002,-15.302,-48.507999,-20.191999,-39.549,-13.655,2.0221,-34.483002,-0.12821
-29.447001,-4.6984,-18.472,-2.9268,-1.9704,-14.829,-1.9324,-11.715,-4.9431,-2.9268,-1.9704,-8.867,-42.856998,-20.063,-49.459999,-23.077,-43.414001,-14.622,-9.3523,-36.452999,-0.12821
-18.073,-7.5556,-14.569,0.0,-2.9557,-1.1707,-4.8309,-11.715,-2.0163,0.0,-2.9557,-4.9261,-36.189999,-21.016001,-39.937,-22.115,-36.651001,-14.622,-0.82148,-34.483002,-4.9359
-14.281,-17.079,-15.545,3.9024,-4.9261,-4.0976,-7.7295,4.7896,3.8374,3.9024,-4.9261,-5.9113,-26.667,-21.968,-31.365,-24.038,-31.82,-6.8921,8.6572,-21.674999,-15.513
-12.385,-18.983999,-16.52,1.9512,0.98522,-7.0244,-11.594,8.6731,2.8618,1.9512,0.98522,-8.867,-21.905001,-21.016001,-23.746,-24.038,-27.955,0.83736,-4.613,-11.823,-17.436001
-7.6461,-19.937,-15.545,-2.9268,-5.9113,-6.0488,-14.493,7.7023,-3.9675,-2.9268,-5.9113,-8.867,-15.238,-21.016001,-15.175,-24.038,-23.124001,-0.12882,-5.5608,-4.9261,-16.474001
0.88468,-15.175,-8.7154,0.0,-11.823,-2.1463,-12.56,3.8188,-6.8943,0.0,-11.823,-7.8818,-4.7619,-18.159,-2.7937,-17.308001,-13.462,7.6006,-12.196,3.9409,-15.513
5.624,-6.6032,-2.8618,0.97561,-5.9113,0.78049,-16.424999,4.7896,-5.9187,0.97561,-5.9113,-5.9113,4.7619,-8.6349,6.7302,-7.6923,-2.8341,16.296,-3.6651,7.8818,-8.7821
6.5719,-6.6032,-0.91057,0.0,3.9409,1.7561,-6.7633,3.8188,0.91057,0.0,3.9409,-1.9704,10.476,-5.7778,11.492,-4.8077,2.963,12.432,2.0221,13.793,-9.7436
8.4676,-2.7937,1.0407,0.97561,4.9261,0.78049,2.8986,3.8188,2.8618,0.97561,4.9261,0.0,15.238,-0.06349,15.302,0.96154,7.7939,13.398,-4.613,17.733999,-3.9744
8.4676,-0.88889,-0.91057,1.9512,0.0,-1.1707,3.8647,-1.0356,-2.0163,1.9512,0.0,-1.9704,15.238,4.6984,15.302,1.9231,8.7601,-1.095,-0.82148,13.793,-3.0128
5.624,3.873,-0.91057,-7.8049,0.0,0.78049,0.96618,-10.744,-2.9919,-7.8049,0.0,-1.9704,13.333,11.365,12.444,4.8077,8.7601,-7.8583,2.0221,8.867,0.83333
5.624,11.492,2.9919,-7.8049,-2.9557,-2.1463,0.0,-2.0065,-0.06504,-7.8049,-2.9557,-1.9704,17.143,21.841,15.302,14.423,14.557,-4.9597,-3.6651,9.8522,13.333
7.5197,13.397,5.9187,-6.8293,-10.837,1.7561,5.7971,-2.0065,-2.0163,-6.8293,-10.837,-0.98522,20.952,22.794001,19.111,19.231001,18.422001,2.7697,5.8136,11.823,14.295
7.5197,12.444,4.9431,-6.8293,-6.8966,0.78049,1.9324,-6.8608,-2.0163,-6.8293,-6.8966,-2.9557,20.0,25.650999,19.111,20.191999,19.388,-1.095,11.501,6.8966,17.179001
8.4676,13.397,4.9431,0.97561,-0.98522,-2.1463,-0.96618,-2.0065,-2.0163,0.97561,-0.98522,-3.9409,23.809999,25.650999,21.968,24.038,22.287001,0.83736,1.0742,9.8522,22.948999
1.8325,8.6349,1.0407,-8.7805,-9.8522,-8.9756,-5.7971,-3.9482,-2.9919,-8.7805,-9.8522,-8.867,20.952,21.841,18.159,23.077,19.388,0.83736,4.8657,9.8522,18.141001
-0.06319,6.7302,-1.8862,-10.732,-9.8522,-8.9756,-10.628,-5.89,-9.8211,-10.732,-9.8522,-11.823,17.143,19.937,15.302,20.191999,14.557,0.83736,2.0221,4.9261,13.333
2.7804,4.8254,-1.8862,-3.9024,-8.867,-2.1463,-9.6618,0.90615,-10.797,-3.9024,-8.867,-7.8818,17.143,16.127001,15.302,18.268999,12.625,4.7021,-2.7172,8.867,13.333
7.5197,3.873,-0.91057,-2.9268,-4.9261,5.6585,-0.96618,6.7314,-7.8699,-2.9268,-4.9261,0.0,15.238,13.27,17.205999,16.346001,11.659,4.7021,2.0221,13.793,12.372
7.5197,0.06349,-1.8862,-2.9268,-4.9261,6.6341,-2.8986,12.557,-5.9187,-2.9268,-4.9261,1.9704,11.429,5.6508,15.302,10.577,6.8277,16.296,1.0742,14.778,7.5641
9.4155,-1.8413,1.0407,-2.9268,-7.8818,11.512,-1.9324,8.6731,-2.0163,-2.9268,-7.8818,5.9113,7.619,0.88889,14.349,4.8077,3.9291,24.025999,-1.7694,14.778,2.7564
15.103,1.0159,6.8943,7.8049,0.0,13.463,3.8647,7.7023,-1.0407,7.8049,0.0,10.837,7.619,-2.9206,16.254,1.9231,3.9291,17.261999,-2.7172,13.793,-3.0128
18.893999,3.873,11.772,7.8049,10.837,12.488,10.628,18.382,1.8862,7.8049,10.837,15.764,10.476,-2.9206,19.111,1.9231,7.7939,24.025999,-9.3523,16.749001,-3.0128
16.997999,0.06349,12.748,5.8537,8.867,17.365999,9.6618,14.498,5.7886,5.8537,8.867,15.764,8.5714,-8.6349,17.205999,-1.9231,6.8277,23.059999,-13.144,13.793,-10.705
17.945999,1.0159,14.699,12.683,8.867,20.292999,10.628,11.586,12.618,12.683,8.867,17.733999,6.6667,-18.159,16.254,-2.8846,7.7939,1.8035,-3.6651,5.9113,-21.282
16.051001,4.8254,15.675,9.7561,7.8818,16.389999,15.459,10.615,11.642,9.7561,7.8818,15.764,3.8095,-21.016001,14.349,0.0,8.7601,0.83736,5.8136,-0.98522,-22.243999
7.5197,5.7778,11.772,2.9268,2.9557,13.463,6.7633,-2.9773,10.667,2.9268,2.9557,9.8522,-0.95238,-19.111,6.7302,0.0,5.8615,0.83736,10.553,-8.867,-16.474001
-1.9589,1.9683,3.9675,-5.8537,0.98522,-0.19512,-3.8647,-3.9482,8.7154,-5.8537,0.98522,-2.9557,-5.7143,-14.349,-0.88889,-0.96154,0.06441,-11.723,10.553,-12.808,-7.8205
-6.6983,2.9206,-0.91057,-8.7805,2.9557,-11.902,-7.7295,-2.9773,3.8374,-8.7805,2.9557,-11.823,-8.5714,-4.8254,-5.6508,2.8846,-1.868,-7.8583,1.0742,-12.808,4.6795
-14.281,-2.7937,-8.7154,-6.8293,0.0,-18.732,-13.527,-16.57,-0.06504,-6.8293,0.0,-18.719,-9.5238,0.88889,-11.365,0.0,-5.7327,-8.8245,-0.82148,-12.808,7.5641
-15.229,-7.5556,-10.667,-13.659,-3.9409,-21.659,-18.357,-16.57,-0.06504,-13.659,-3.9409,-20.690001,-4.7619,6.6032,-10.413,-0.96154,-4.7665,-9.7907,6.7615,-9.8522,6.6026
-14.281,-8.5079,-10.667,-12.683,-5.9113,-20.683001,-19.323999,-19.482,-1.0407,-12.683,-5.9113,-20.690001,1.9048,13.27,-8.5079,-0.96154,-3.8003,-8.8245,7.7093,-1.9704,8.5256
-14.281,-6.6032,-12.618,-12.683,-12.808,-23.610001,-13.527,-20.452999,-2.9919,-12.683,-12.808,-21.674999,5.7143,16.127001,-8.5079,-0.96154,-3.8003,-16.554001,-3.6651,5.9113,11.41
-13.333,-7.5556,-13.593,-22.438999,-23.645,-24.584999,-6.7633,-17.540001,-6.8943,-22.438999,-23.645,-22.66,4.7619,17.079,-8.5079,-3.8462,-5.7327,-11.723,-2.7172,0.98522,12.372
-12.385,-8.5079,-13.593,-21.462999,-12.808,-24.584999,-9.6618,-8.8026,-10.797,-21.462999,-12.808,-20.690001,8.5714,16.127001,-6.6032,-5.7692,-4.7665,-0.12882,-8.4044,4.9261,10.449
-6.6983,-3.746,-8.7154,-11.707,1.9704,-20.683001,-5.7971,-3.9482,-3.9675,-11.707,1.9704,-14.778,13.333,18.983999,-1.8413,-2.8846,-0.90177,0.83736,-12.196,14.778,11.41
-0.06319,-1.8413,-4.813,-1.9512,3.9409,-6.0488,1.9324,-2.9773,-1.0407,-1.9512,3.9409,-3.9409,16.190001,17.079,2.9206,-0.96154,2.963,6.6345,-1.7694,17.733999,9.4872
5.624,0.06349,2.9919,5.8537,2.9557,0.78049,11.594,4.7896,-0.06504,5.8537,2.9557,2.9557,19.048,15.175,8.6349,1.9231,8.7601,12.432,-2.7172,18.719,3.7179
7.5197,5.7778,8.8455,13.659,4.9261,3.7073,12.56,5.7605,4.813,13.659,4.9261,8.867,19.048,16.127001,11.492,8.6538,14.557,6.6345,-11.248,12.808,4.6795
4.6761,6.7302,8.8455,15.61,9.8522,2.7317,12.56,3.8188,7.7398,15.61,9.8522,8.867,14.286,11.365,7.6825,9.6154,14.557,-5.9259,-7.4566,2.9557,-2.0513
-0.06319,10.54,8.8455,13.659,7.8818,2.7317,17.391001,1.877,8.7154,13.659,7.8818,8.867,9.5238,1.8413,4.8254,11.538,14.557,0.83736,-6.5087,-1.9704,-8.7821
-5.7504,11.492,6.8943,3.9024,11.823,2.7317,18.357,-1.0356,9.6911,3.9024,11.823,6.8966,4.7619,-1.0159,1.9683,14.423,14.557,-0.12882,3.9179,-6.8966,-5.8974
-1.9589,21.016001,12.748,9.7561,23.645,6.6341,12.56,3.8188,15.545,9.7561,23.645,10.837,4.7619,2.7937,3.873,24.038,21.32,-9.7907,10.553,-9.8522,1.7949
-2.9068,21.016001,14.699,14.634,22.66,1.7561,13.527,3.8188,19.447001,14.634,22.66,11.823,0.0,-0.06349,1.9683,25.0,21.32,-14.622,19.084,-12.808,1.7949
-4.8025,17.205999,12.748,12.683,16.749001,2.7317,16.424999,-2.0065,17.496,12.683,16.749001,12.808,-4.7619,-3.873,-1.8413,20.191999,15.523,-17.52,24.771,-16.749001,-1.0897
-4.8025,15.302,10.797,8.7805,8.867,7.6098,13.527,-6.8608,13.593,8.7805,8.867,13.793,-8.5714,-6.7302,-5.6508,16.346001,9.7262,-28.148001,13.397,-20.690001,0.83333
-7.6461,10.54,7.8699,1.9512,0.98522,2.7317,10.628,-5.89,3.8374,1.9512,0.98522,8.867,-12.381,-5.7778,-9.4603,11.538,2.963,-10.757,14.344,-15.764,7.5641
-9.5419,4.8254,3.9675,-2.9268,-2.9557,2.7317,1.9324,-4.9191,-3.9675,-2.9268,-2.9557,3.9409,-12.381,1.8413,-11.365,7.6923,-1.868,1.8035,5.8136,-12.808,12.372
-4.8025,-0.88889,1.0407,3.9024,0.0,8.5854,-0.96618,-8.8026,-5.9187,3.9024,0.0,1.9704,-8.5714,9.4603,-9.4603,2.8846,-3.8003,-3.0274,4.8657,-5.9113,16.218
-4.8025,-8.5079,-7.7398,6.8293,-1.9704,0.78049,-12.56,5.7605,-10.797,6.8293,-1.9704,-3.9409,-5.7143,10.413,-10.413,-5.7692,-9.5974,-3.9936,3.9179,1.9704,13.333
-2.9068,-11.365,-15.545,4.878,-6.8966,-1.1707,-20.290001,7.7023,-15.675,4.878,-6.8966,-7.8818,0.95238,10.413,-8.5079,-12.5,-13.462,-5.9259,-1.7694,7.8818,9.4872
-0.06319,-16.127001,-15.545,2.9268,-9.8522,3.7073,-19.323999,7.7023,-15.675,2.9268,-9.8522,-6.8966,9.5238,12.317,-3.746,-15.385,-12.496,8.5668,-15.039,15.764,7.5641
1.8325,-18.032,-15.545,2.9268,-9.8522,4.6829,-12.56,4.7896,-13.724,2.9268,-9.8522,-5.9113,14.286,13.27,-2.7937,-18.268999,-12.496,15.33,-12.196,19.704,0.83333
-1.0111,-21.841,-19.447001,-2.9268,-17.733999,2.7317,-12.56,0.90615,-12.748,-2.9268,-17.733999,-8.867,13.333,9.4603,-4.6984,-23.077,-14.428,7.6006,-10.3,18.719,-5.8974
-3.8547,-24.698,-20.423,-9.7561,-15.764,-0.19512,-14.493,-6.8608,-6.8943,-9.7561,-15.764,-10.837,10.476,2.7937,-5.6508,-21.153999,-13.462,6.6345,-7.4566,13.793,-8.7821
-1.0111,-15.175,-12.618,-1.9512,0.0,2.7317,-9.6618,-3.9482,-0.06504,-1.9512,0.0,-6.8966,12.381,5.6508,-0.88889,-9.6154,-3.8003,-8.8245,4.8657,11.823,-3.0128
-0.06319,-0.88889,-0.91057,4.878,8.867,-3.122,1.9324,3.8188,3.8374,4.878,8.867,-0.98522,15.238,12.317,6.7302,4.8077,7.7939,-4.9597,8.6572,4.9261,4.6795
-3.8547,5.7778,3.9675,-4.878,5.9113,-9.9512,0.0,-2.9773,4.813,-4.878,5.9113,-0.98522,14.286,10.413,6.7302,12.5,12.625,-5.9259,12.449,0.0,5.641
-2.9068,11.492,8.8455,-3.9024,3.9409,-6.0488,0.96618,-7.8317,2.8618,-3.9024,3.9409,1.9704,11.429,9.4603,8.6349,19.231001,17.455999,-4.9597,3.9179,-1.9704,10.449
-4.8025,10.54,9.8211,-4.878,-0.98522,-11.902,1.9324,-10.744,0.91057,-4.878,-0.98522,-0.98522,8.5714,6.6032,7.6825,17.308001,17.455999,-5.9259,3.9179,-2.9557,3.7179
-6.6983,3.873,9.8211,-9.7561,-13.793,-17.756001,-0.96618,-19.482,0.91057,-9.7561,-13.793,-3.9409,10.476,4.6984,7.6825,13.462,17.455999,-8.8245,14.344,-1.9704,-1.0897
-3.8547,1.0159,11.772,-14.634,-11.823,-13.854,2.8986,-17.540001,-1.0407,-14.634,-11.823,-3.9409,6.6667,0.88889,8.6349,11.538,16.49,-11.723,12.449,-4.9261,-1.0897
-0.06319,1.0159,13.724,-19.511999,0.98522,-5.0732,-0.96618,-9.7735,-2.0163,-19.511999,0.98522,-1.9704,5.7143,-1.9683,10.54,6.7308,15.523,-7.8583,3.9179,-4.9261,-3.9744
4.6761,7.6825,20.552999,-5.8537,2.9557,-7.0244,7.7295,2.8479,-5.9187,-5.8537,2.9557,5.9113,11.429,3.746,15.302,9.6154,19.388,-0.12882,-7.4566,1.9704,3.7179
4.6761,9.5873,20.552999,5.8537,3.9409,-8.0,9.6618,3.8188,-3.9675,5.8537,3.9409,8.867,10.476,5.6508,12.444,6.7308,17.455999,4.7021,-8.4044,-1.9704,-1.0897
4.6761,7.6825,18.601999,3.9024,8.867,-3.122,12.56,-1.0356,-2.9919,3.9024,8.867,10.837,6.6667,3.746,7.6825,1.9231,11.659,4.7021,0.12638,-4.9261,-5.8974
3.7283,10.54,17.625999,0.0,0.0,-2.1463,19.323999,2.8479,1.8862,0.0,0.0,13.793,1.9048,3.746,1.9683,-0.96154,4.8953,0.83736,1.0742,-10.837,-3.0128
-1.0111,4.8254,11.772,0.0,2.9557,-0.19512,18.357,-1.0356,0.91057,0.0,2.9557,12.808,-7.619,-5.7778,-8.5079,-10.577,-6.6989,-12.689,4.8657,-15.764,-6.859
-7.6461,0.06349,2.9919,-8.7805,-0.98522,-1.1707,5.7971,-2.9773,2.8618,-8.7805,-0.98522,5.9113,-15.238,-12.444,-17.079,-18.268999,-17.327,-5.9259,3.9179,-24.631001,-9.7436
-10.49,-1.8413,-3.8374,-10.732,5.9113,1.7561,0.0,-9.7735,11.642,-10.732,5.9113,1.9704,-23.809999,-13.397,-24.698,-23.077,-25.056,-12.689,1.0742,-33.498001,-8.7821
-14.281,-5.6508,-10.667,-0.97561,10.837,-10.927,0.96618,-5.89,12.618,-0.97561,10.837,-3.9409,-29.524,-19.111,-29.459999,-27.885,-32.785999,-18.486,-0.82148,-33.498001,-9.7436
-15.229,-6.6032,-14.569,0.0,4.9261,-16.780001,0.0,-1.0356,12.618,0.0,4.9261,-7.8818,-33.333,-23.872999,-32.317001,-29.808001,-37.617001,-8.8245,-2.7172,-31.527,-12.628
-10.49,-3.746,-11.642,-0.97561,4.9261,-3.122,1.9324,-2.0065,13.593,-0.97561,4.9261,-3.9409,-32.381001,-21.968,-29.459999,-25.0,-34.717999,-6.8921,7.7093,-31.527,-10.705
-12.385,-5.6508,-12.618,-6.8293,-0.98522,-0.19512,1.9324,-1.0356,9.6911,-6.8293,-0.98522,-2.9557,-36.189999,-25.778,-32.317001,-25.0,-36.651001,-10.757,12.449,-33.498001,-13.59
-15.229,-10.413,-14.569,-8.7805,-3.9409,3.7073,-2.8986,-10.744,7.7398,-8.7805,-3.9409,-4.9261,-45.714001,-31.492001,-35.174999,-25.962,-38.583,-20.419001,15.292,-38.424,-13.59
-10.49,-5.6508,-8.7154,0.0,0.98522,-0.19512,-3.8647,3.8188,11.642,0.0,0.98522,-2.9557,-40.0,-32.444,-27.556,-20.191999,-31.82,-10.757,10.553,-30.542,-11.667
-3.8547,-2.7937,-4.813,3.9024,7.8818,-3.122,-5.7971,10.615,6.7642,3.9024,7.8818,-1.9704,-34.285999,-29.587,-19.937,-15.385,-25.056,-1.095,-2.7172,-24.631001,-8.7821
-0.06319,-6.6032,-3.8374,7.8049,6.8966,3.7073,-9.6618,4.7896,4.813,7.8049,6.8966,-2.9557,-29.524,-26.73,-14.222,-14.423,-20.225,-2.0612,8.6572,-21.674999,-9.7436
5.624,-13.27,-2.8618,11.707,0.0,9.561,-15.459,9.644,2.8618,11.707,0.0,-1.9704,-21.905001,-30.540001,-8.5079,-17.308001,-17.327,4.7021,12.449,-11.823,-17.436001
3.7283,-20.889,-6.7642,4.878,-7.8818,5.6585,-18.357,5.7605,-2.9919,4.878,-7.8818,-7.8818,-20.0,-33.396999,-7.5556,-23.077,-18.292999,10.499,-5.5608,-6.8966,-21.282
3.7283,-24.698,-10.667,0.97561,-13.793,3.7073,-21.256001,6.7314,-6.8943,0.97561,-13.793,-10.837,-19.048,-29.587,-7.5556,-25.962,-19.259001,-5.9259,-27.362,-5.9113,-22.243999
6.5719,-20.889,-7.7398,4.878,-6.8966,4.6829,-16.424999,4.7896,-11.772,4.878,-6.8966,-4.9261,-11.429,-16.254,-2.7937,-23.077,-14.428,6.6345,-20.726999,0.98522,-15.513
5.624,-17.079,-4.813,5.8537,1.9704,9.561,-15.459,7.7023,-6.8943,5.8537,1.9704,-0.98522,-10.476,-9.5873,-1.8413,-21.153999,-12.496,13.398,-6.5087,0.98522,-14.551
1.8325,-16.127001,-7.7398,8.7805,3.9409,6.6341,-13.527,19.353001,-3.9675,8.7805,3.9409,-1.9704,-11.429,-8.6349,-5.6508,-22.115,-13.462,4.7021,-10.3,-5.9113,-15.513
-0.06319,-12.317,-8.7154,16.584999,9.8522,5.6585,-1.9324,20.323999,-2.9919,16.584999,9.8522,0.98522,-9.5238,-4.8254,-7.5556,-18.268999,-13.462,1.8035,-12.196,-5.9113,-7.8205
-4.8025,-13.27,-14.569,21.462999,11.823,6.6341,-4.8309,7.7023,0.91057,21.462999,11.823,0.98522,-12.381,-7.6825,-13.27,-22.115,-19.259001,-1.095,-3.6651,-8.867,-13.59
-7.6461,-14.222,-16.52,19.511999,8.867,3.7073,1.9324,8.6731,3.8374,19.511999,8.867,1.9704,-14.286,-9.5873,-15.175,-23.077,-22.158001,1.8035,1.0742,-5.9113,-15.513
-10.49,-13.27,-16.52,17.561001,5.9113,0.78049,7.7295,5.7605,2.8618,17.561001,5.9113,1.9704,-16.190001,-11.492,-16.127001,-20.191999,-23.124001,3.7359,-5.5608,-3.9409,-13.59
-8.594,-7.5556,-14.569,12.683,8.867,4.6829,3.8647,5.7605,1.8862,12.683,8.867,2.9557,-13.333,-14.349,-13.27,-16.346001,-22.158001,-4.9597,-11.248,0.0,-13.59
-1.9589,0.06349,-8.7154,15.61,12.808,14.439,6.7633,0.90615,2.8618,15.61,12.808,9.8522,-10.476,-12.444,-7.5556,-6.7308,-16.361,-2.0612,-11.248,6.8966,-4.9359
-0.06319,5.7778,-3.8374,17.561001,18.719,8.5854,9.6618,6.7314,6.7642,17.561001,18.719,11.823,-9.5238,-12.444,-0.88889,-0.96154,-10.564,12.432,7.7093,7.8818,-2.0513
3.7283,7.6825,2.0163,12.683,18.719,3.7073,15.459,8.6731,3.8374,12.683,18.719,11.823,-7.619,-14.349,4.8254,2.8846,-5.7327,12.432,18.136,8.867,-4.9359
8.4676,9.5873,6.8943,6.8293,13.793,13.463,23.188,8.6731,5.7886,6.8293,13.793,15.764,-3.8095,-17.205999,10.54,6.7308,1.0306,10.499,9.6051,12.808,-7.8205
11.311,12.444,11.772,9.7561,11.823,16.389999,23.188,7.7023,6.7642,9.7561,11.823,18.719,-1.9048,-15.302,14.349,11.538,5.8615,11.465,9.6051,16.749001,-4.9359
9.4155,12.444,11.772,9.7561,5.9113,11.512,18.357,-0.06472,2.8618,9.7561,5.9113,16.749001,0.0,-14.349,15.302,12.5,7.7939,10.499,3.9179,19.704,-3.9744
13.207,12.444,13.724,4.878,6.8966,11.512,8.6957,-0.06472,0.91057,4.878,6.8966,13.793,1.9048,-15.302,18.159,12.5,9.7262,-2.0612,-9.3523,19.704,-3.9744
11.311,8.6349,10.797,1.9512,3.9409,7.6098,0.96618,-6.8608,-3.9675,1.9512,3.9409,7.8818,3.8095,-14.349,16.254,10.577,8.7601,1.8035,-1.7694,14.778,-3.9744
8.4676,6.7302,10.797,0.0,-2.9557,0.78049,2.8986,-1.0356,-6.8943,0.0,-2.9557,2.9557,10.476,-1.9683,17.205999,15.385,13.591,15.33,-2.7172,15.764,8.5256
9.4155,6.7302,11.772,-5.8537,-8.867,-0.19512,-4.8309,-1.0356,-9.8211,-5.8537,-8.867,0.98522,14.286,4.6984,16.254,15.385,13.591,9.533,-0.82148,18.719,8.5256
10.363,1.9683,10.797,-7.8049,-13.793,5.6585,-1.9324,-2.9773,-12.748,-7.8049,-13.793,0.98522,12.381,3.746,12.444,11.538,9.7262,3.7359,-2.7172,16.749001,1.7949
17.945999,8.6349,17.625999,-0.97561,-1.9704,14.439,8.6957,5.7605,-8.8455,-0.97561,-1.9704,8.867,17.143,6.6032,18.159,16.346001,14.557,11.465,-15.039,23.645,5.641
27.424999,16.254,25.431,2.9268,5.9113,24.195,12.56,10.615,-1.0407,2.9268,5.9113,16.749001,24.761999,16.127001,24.825001,24.038,21.32,5.6683,-14.092,25.615999,10.449
28.372999,21.016001,27.382,3.9024,3.9409,21.268,13.527,11.586,-0.06504,3.9024,3.9409,17.733999,25.714001,22.794001,25.778,26.923,23.253,10.499,-2.7172,24.631001,14.295
28.372999,21.968,28.358,5.8537,6.8966,25.171,13.527,5.7605,1.8862,5.8537,6.8966,17.733999,22.857,23.746,26.73,27.885,24.219,23.059999,-0.82148,23.645,17.179001
29.320999,21.016001,26.407,3.9024,3.9409,21.268,10.628,10.615,-1.0407,3.9024,3.9409,16.749001,23.809999,19.937,27.683001,25.0,23.253,24.025999,2.0221,23.645,12.372
28.372999,20.063,23.48,5.8537,1.9704,19.316999,14.493,13.528,4.813,5.8537,1.9704,14.778,22.857,19.937,27.683001,22.115,22.287001,16.296,9.6051,21.674999,10.449
25.528999,15.302,18.601999,7.8049,-1.9704,18.341,12.56,7.7023,4.813,7.8049,-1.9704,10.837,20.952,18.032,25.778,19.231001,20.354,10.499,-0.82148,23.645,10.449
26.476999,13.397,17.625999,0.97561,-8.867,12.488,9.6618,7.7023,-3.9675,0.97561,-8.867,8.867,24.761999,19.937,29.587,21.153999,24.219,14.364,1.0742,31.527,14.295
20.790001,10.54,11.772,5.8537,6.8966,14.439,8.6957,7.7023,5.7886,5.8537,6.8966,7.8818,17.143,13.27,22.921,15.385,17.455999,16.296,2.97,29.556999,12.372
12.259,9.5873,4.9431,5.8537,12.808,12.488,4.8309,1.877,11.642,5.8537,12.808,3.9409,7.619,2.7937,12.444,9.6154,7.7939,11.465,5.8136,14.778,7.5641
7.5197,9.5873,2.9919,-2.9268,0.98522,4.6829,4.8309,-3.9482,5.7886,-2.9268,0.98522,1.9704,4.7619,-6.7302,8.6349,4.8077,3.9291,9.533,16.24,11.823,-1.0897
4.6761,5.7778,-1.8862,-4.878,-0.98522,6.6341,2.8986,-7.8317,8.7154,-4.878,-0.98522,1.9704,0.0,-10.54,3.873,-0.96154,-1.868,3.7359,10.553,10.837,-4.9359
3.7283,0.06349,-5.7886,-2.9268,-0.98522,0.78049,4.8309,-1.0356,8.7154,-2.9268,-0.98522,0.98522,-3.8095,-18.159,1.0159,-6.7308,-5.7327,-0.12882,2.0221,7.8818,-9.7436
1.8325,-4.6984,-5.7886,1.9512,-3.9409,-3.122,4.8309,2.8479,5.7886,1.9512,-3.9409,0.0,-4.7619,-19.111,0.06349,-7.6923,-5.7327,6.6345,-5.5608,5.9113,-12.628
0.88468,-5.6508,-5.7886,-4.878,-5.9113,-0.19512,0.96618,-4.9191,-1.0407,-4.878,-5.9113,0.0,-3.8095,-12.444,0.06349,-3.8462,-2.8341,7.6006,-15.039,4.9261,-7.8205
-1.9589,-7.5556,-9.6911,-3.9024,-7.8818,-5.0732,-5.7971,-2.9773,-3.9675,-3.9024,-7.8818,-3.9409,2.8571,-2.9206,0.06349,-1.9231,-0.90177,-2.0612,-8.4044,3.9409,-2.0513
-7.6461,-13.27,-16.52,-9.7561,-12.808,-11.902,-14.493,-4.9191,-7.8699,-9.7561,-12.808,-12.808,5.7143,5.6508,-3.746,-1.9231,0.06441,-6.8921,0.12638,2.9557,2.7564
-8.594,-13.27,-16.52,-13.659,-15.764,-14.829,-19.323999,-6.8608,-10.797,-13.659,-15.764,-16.749001,5.7143,10.413,-2.7937,0.96154,3.9291,-0.12882,-11.248,0.98522,7.5641
-4.8025,-8.5079,-11.642,-11.707,-16.749001,-11.902,-19.323999,-7.8317,-7.8699,-11.707,-16.749001,-14.778,8.5714,15.175,1.9683,5.7692,11.659,1.8035,-1.7694,1.9704,5.641
-3.8547,-8.5079,-9.6911,-17.561001,-20.690001,-7.0244,-17.391001,-7.8317,-5.9187,-17.561001,-20.690001,-14.778,8.5714,19.937,4.8254,9.6154,15.523,-0.12882,7.7093,2.9557,7.5641
-2.9068,-9.4603,-8.7154,-14.634,-18.719,-5.0732,-11.594,-6.8608,-6.8943,-14.634,-18.719,-11.823,11.429,20.889,7.6825,11.538,18.422001,6.6345,2.0221,5.9113,11.41
-8.594,-10.413,-11.642,-13.659,-21.674999,-14.829,-13.527,-7.8317,-8.8455,-13.659,-21.674999,-15.764,11.429,19.937,5.7778,9.6154,15.523,4.7021,-2.7172,1.9704,12.372
-8.594,-9.4603,-11.642,-10.732,-19.704,-16.780001,-16.424999,-4.9191,-9.8211,-10.732,-19.704,-15.764,16.190001,21.841,7.6825,8.6538,15.523,4.7021,-15.039,7.8818,16.218
-8.594,-13.27,-11.642,-15.61,-20.690001,-14.829,-23.188,-1.0356,-11.772,-15.61,-20.690001,-16.749001,14.286,14.222,6.7302,3.8462,12.625,0.83736,-9.3523,10.837,10.449
-8.594,-16.127001,-13.593,-17.561001,-16.749001,-11.902,-25.121,-2.0065,-13.724,-17.561001,-16.749001,-17.733999,7.619,3.746,1.0159,-2.8846,5.8615,-2.0612,-3.6651,7.8818,0.83333
-9.5419,-12.317,-14.569,-11.707,-20.690001,-10.927,-17.391001,-6.8608,-17.625999,-11.707,-20.690001,-17.733999,0.0,-5.7778,-3.746,-4.8077,0.06441,-0.12882,-3.6651,3.9409,-2.0513
-10.49,-12.317,-14.569,-15.61,-28.570999,-12.878,-15.459,-5.89,-14.699,-15.61,-28.570999,-18.719,-5.7143,-15.302,-6.6032,-6.7308,-2.8341,-1.095,-0.82148,-2.9557,-3.0128
-1.9589,-8.5079,-4.813,-9.7561,-8.867,2.7317,-9.6618,-10.744,-2.9919,-9.7561,-8.867,-9.8522,0.0,-13.397,1.9683,0.0,4.8953,3.7359,1.0742,3.9409,-2.0513
-0.06319,-4.6984,1.0407,-7.8049,-3.9409,-4.0976,-11.594,-2.0065,-1.0407,-7.8049,-3.9409,-8.867,6.6667,-3.873,7.6825,7.6923,13.591,6.6345,-0.82148,11.823,2.7564
-1.0111,-3.746,2.0163,-14.634,-7.8818,-10.927,-8.6957,-2.0065,-5.9187,-14.634,-7.8818,-12.808,13.333,8.5079,9.5873,12.5,18.422001,3.7359,0.12638,13.793,7.5641
-1.0111,-0.88889,2.9919,-17.561001,-13.793,-9.9512,-9.6618,-12.686,-10.797,-17.561001,-13.793,-14.778,20.952,19.937,14.349,19.231001,25.184999,-2.0612,-2.7172,13.793,13.333
-0.06319,0.06349,5.9187,-20.488001,-19.704,-11.902,-14.493,-16.57,-12.748,-20.488001,-19.704,-17.733999,24.761999,28.507999,18.159,24.038,31.948,-6.8921,-0.82148,13.793,20.063999
-1.9589,3.873,7.8699,-18.537001,-19.704,-16.780001,-10.628,-16.57,-11.772,-18.537001,-19.704,-16.749001,27.618999,35.174999,20.063,28.846001,36.778999,-4.9597,-13.144,15.764,25.833
-1.9589,9.5873,9.8211,-25.365999,-24.631001,-21.659,-7.7295,-22.395,-9.8211,-25.365999,-24.631001,-14.778,30.476,41.841,21.016001,31.731001,39.678001,-22.351,-2.7172,14.778,30.641001
1.8325,9.5873,12.748,-33.171001,-21.674999,-18.732,-10.628,-19.482,-8.8455,-33.171001,-21.674999,-12.808,30.476,45.651001,22.921,31.731001,41.610001,-19.452,6.7615,8.867,28.718
1.8325,15.302,18.601999,-25.365999,-12.808,-17.756001,-1.9324,-17.540001,-3.9675,-25.365999,-12.808,-7.8818,29.524,48.507999,23.872999,35.577,45.474998,-13.655,9.6051,1.9704,30.641001
-3.8547,18.159,18.601999,-17.561001,-11.823,-18.732,5.7971,-23.365999,-2.9919,-17.561001,-11.823,-5.9113,26.667,47.556,19.111,34.615002,42.576,-18.486,7.7093,-1.9704,29.679001
-1.0111,19.111,15.675,-11.707,-1.9704,-13.854,7.7295,-25.306999,2.8618,-11.707,-1.9704,0.0,25.714001,44.698002,15.302,31.731001,37.745998,-18.486,-2.7172,-1.9704,28.718
-3.8547,20.063,11.772,-7.8049,7.8818,-10.927,13.527,-23.365999,4.813,-7.8049,7.8818,4.9261,18.094999,38.032001,6.7302,25.0,28.084,-29.114,8.6572,-9.8522,24.872
-10.49,13.397,3.9675,-13.659,4.9261,-12.878,9.6618,-21.424,3.8374,-13.659,4.9261,0.98522,3.8095,22.794001,-6.6032,10.577,10.692,-39.742001,5.8136,-19.704,11.41
-11.438,7.6825,0.06504,-8.7805,4.9261,-11.902,5.7971,-19.482,5.7886,-8.7805,4.9261,0.98522,-5.7143,14.222,-12.317,0.96154,-0.90177,-33.945,1.0742,-21.674999,7.5641
-11.438,3.873,-5.7886,-3.9024,2.9557,-11.902,0.0,-18.511,6.7642,-3.9024,2.9557,0.98522,-13.333,8.5079,-17.079,-4.8077,-9.5974,-26.216,7.7093,-25.615999,9.4872
-9.5419,1.0159,-8.7154,-7.8049,3.9409,-2.1463,6.7633,-22.395,4.813,-7.8049,3.9409,2.9557,-13.333,5.6508,-18.032,-6.7308,-12.496,-22.351,9.6051,-24.631001,9.4872
-8.594,-3.746,-9.6911,-9.7561,3.9409,-1.1707,4.8309,-10.744,4.813,-9.7561,3.9409,0.0,-9.5238,4.6984,-16.127001,-7.6923,-10.564,-14.622,8.6572,-18.719,11.41
-8.594,-7.5556,-12.618,8.7805,6.8966,-2.1463,3.8647,3.8188,8.7154,8.7805,6.8966,0.98522,-12.381,2.7937,-18.032,-10.577,-12.496,-10.757,2.0221,-18.719,8.5256
-6.6983,-7.5556,-11.642,13.659,15.764,1.7561,2.8986,7.7023,11.642,13.659,15.764,3.9409,-7.619,6.6032,-16.127001,-6.7308,-10.564,-6.8921,1.0742,-11.823,12.372
-7.6461,-6.6032,-9.6911,8.7805,9.8522,0.78049,-0.96618,1.877,7.7398,8.7805,9.8522,1.9704,-3.8095,7.5556,-14.222,-4.8077,-7.6651,3.7359,9.6051,-9.8522,8.5256
-8.594,-6.6032,-7.7398,13.659,12.808,2.7317,0.0,-6.8608,6.7642,13.659,12.808,2.9557,-3.8095,6.6032,-15.175,-4.8077,-7.6651,-0.12882,4.8657,-12.808,4.6795
-6.6983,-3.746,-2.8618,16.584999,20.690001,2.7317,0.96618,4.7896,12.618,16.584999,20.690001,3.9409,2.8571,10.413,-11.365,-0.96154,-3.8003,-1.095,3.9179,-6.8966,8.5256
-4.8025,0.06349,1.0407,12.683,12.808,5.6585,6.7633,7.7023,11.642,12.683,12.808,6.8966,5.7143,10.413,-10.413,-0.96154,-3.8003,3.7359,5.8136,-1.9704,6.6026
-4.8025,1.9683,2.0163,13.659,9.8522,6.6341,12.56,5.7605,11.642,13.659,9.8522,9.8522,3.8095,3.746,-11.365,-3.8462,-6.6989,1.8035,1.0742,-2.9557,1.7949
-5.7504,3.873,3.9675,16.584999,11.823,2.7317,16.424999,8.6731,17.496,16.584999,11.823,9.8522,4.7619,2.7937,-11.365,-3.8462,-7.6651,1.8035,-1.7694,-1.9704,3.7179
-7.6461,2.9206,2.9919,17.561001,19.704,1.7561,13.527,7.7023,19.447001,17.561001,19.704,8.867,9.5238,8.5079,-11.365,-4.8077,-8.6312,1.8035,11.501,1.9704,2.7564
-12.385,1.0159,-0.91057,11.707,16.749001,-1.1707,10.628,-3.9482,11.642,11.707,16.749001,3.9409,5.7143,2.7937,-15.175,-9.6154,-12.496,3.7359,9.6051,0.0,-4.9359
-14.281,2.9206,-4.813,5.8537,6.8966,-8.0,6.7633,-7.8317,7.7398,5.8537,6.8966,-1.9704,1.9048,0.88889,-17.079,-8.6538,-13.462,-5.9259,2.0221,-6.8966,-5.8974
-12.385,-2.7937,-4.813,5.8537,0.98522,-2.1463,-1.9324,-16.57,7.7398,5.8537,0.98522,-2.9557,3.8095,2.7937,-15.175,-7.6923,-11.53,-15.588,8.6572,-6.8966,-3.9744
-15.229,-9.4603,-10.667,-2.9268,0.0,-10.927,-5.7971,-11.715,2.8618,-2.9268,0.0,-9.8522,3.8095,1.8413,-16.127001,-9.6154,-13.462,-8.8245,4.8657,-2.9557,-3.9744
-13.333,-9.4603,-11.642,-5.8537,0.98522,-13.854,-6.7633,-2.0065,-0.06504,-5.8537,0.98522,-11.823,4.7619,6.6032,-13.27,-6.7308,-12.496,-1.095,2.0221,2.9557,2.7564
-14.281,-11.365,-15.545,-9.7561,-12.808,-13.854,-17.391001,-4.9191,-8.8455,-9.7561,-12.808,-15.764,1.9048,5.6508,-14.222,-7.6923,-15.395,-1.095,-3.6651,1.9704,3.7179
-15.229,-12.317,-19.447001,-14.634,-17.733999,-15.805,-18.357,-5.89,-14.699,-14.634,-17.733999,-18.719,-2.8571,-0.06349,-16.127001,-10.577,-18.292999,4.7021,-15.039,2.9557,1.7949
-12.385,-15.175,-20.423,-4.878,-11.823,-8.9756,-20.290001,-3.9482,-9.8211,-4.878,-11.823,-17.733999,-1.9048,-0.06349,-13.27,-10.577,-18.292999,11.465,-6.5087,8.867,2.7564
-10.49,-16.127001,-21.398001,-2.9268,-15.764,-10.927,-21.256001,0.90615,-16.65,-2.9268,-15.764,-19.704,0.0,2.7937,-8.5079,-10.577,-16.361,15.33,0.12638,12.808,0.83333
-7.6461,-16.127001,-19.447001,-7.8049,-17.733999,-7.0244,-26.087,-1.0356,-19.577,-7.8049,-17.733999,-17.733999,1.9048,3.746,-5.6508,-9.6154,-15.395,5.6683,1.0742,11.823,1.7949
-6.6983,-18.032,-18.472,-10.732,-18.719,-9.9512,-22.222,5.7605,-22.504,-10.732,-18.719,-18.719,-0.95238,1.8413,-4.6984,-8.6538,-15.395,13.398,-1.7694,13.793,4.6795
-5.7504,-18.983999,-17.496,-14.634,-22.66,-12.878,-19.323999,10.615,-18.601999,-14.634,-22.66,-16.749001,-0.95238,-1.0159,-1.8413,-9.6154,-14.428,20.160999,-12.196,15.764,0.83333
-3.8547,-13.27,-13.593,-16.584999,-19.704,-13.854,-15.459,6.7314,-12.748,-16.584999,-19.704,-13.793,-0.95238,-3.873,1.0159,-6.7308,-11.53,16.296,-13.144,16.749001,-0.12821
-8.594,-9.4603,-14.569,-16.584999,-11.823,-17.756001,-8.6957,3.8188,-10.797,-16.584999,-11.823,-15.764,-6.6667,-12.444,-1.8413,-8.6538,-13.462,17.261999,-14.092,9.8522,-8.7821
-10.49,-8.5079,-13.593,-3.9024,-5.9113,-8.9756,-3.8647,-8.8026,-2.9919,-3.9024,-5.9113,-11.823,-9.5238,-18.159,-4.6984,-9.6154,-15.395,9.533,2.97,3.9409,-13.59
-13.333,-8.5079,-11.642,0.0,-1.9704,-16.780001,-7.7295,5.7605,5.7886,0.0,-1.9704,-10.837,-13.333,-21.968,-7.5556,-9.6154,-15.395,6.6345,10.553,0.0,-12.628
-7.6461,1.0159,-3.8374,0.0,10.837,-10.927,0.0,11.586,11.642,0.0,10.837,-1.9704,-11.429,-21.968,-2.7937,-4.8077,-11.53,2.7697,2.97,0.98522,-9.7436
-2.9068,9.5873,3.9675,5.8537,8.867,-5.0732,14.493,9.644,14.569,5.8537,8.867,6.8966,-12.381,-26.73,0.06349,-3.8462,-9.5974,3.7359,9.6051,0.0,-14.551
-0.06319,14.349,6.8943,4.878,14.778,0.78049,16.424999,9.644,12.618,4.878,14.778,11.823,-19.048,-26.73,-1.8413,-3.8462,-10.564,-3.0274,9.6051,-8.867,-17.436001
2.7804,19.111,10.797,8.7805,16.749001,7.6098,22.222,9.644,9.6911,8.7805,16.749001,16.749001,-19.048,-23.872999,-1.8413,0.0,-8.6312,2.7697,6.7615,-12.808,-13.59
4.6761,17.205999,12.748,12.683,9.8522,13.463,23.188,11.586,11.642,12.683,9.8522,17.733999,-22.857,-27.683001,-2.7937,-3.8462,-10.564,4.7021,-7.4566,-14.778,-18.396999
14.155,16.254,17.625999,13.659,14.778,24.195,27.052999,22.264999,14.569,13.659,14.778,23.645,-20.952,-26.73,2.9206,-2.8846,-7.6651,7.6006,7.7093,-8.867,-18.396999
15.103,15.302,18.601999,18.537001,18.719,29.073,28.018999,17.410999,12.618,18.537001,18.719,25.615999,-20.952,-21.016001,3.873,0.0,-4.7665,20.160999,13.397,-15.764,-16.474001
15.103,13.397,16.65,21.462999,20.690001,21.268,22.222,21.294001,14.569,21.462999,20.690001,20.690001,-20.0,-20.063,2.9206,0.96154,-3.8003,10.499,1.0742,-16.749001,-15.513
15.103,15.302,17.625999,22.438999,17.733999,16.389999,18.357,29.061001,14.569,22.438999,17.733999,19.704,-16.190001,-15.302,4.8254,2.8846,-1.868,15.33,-3.6651,-10.837,-9.7436
16.997999,13.397,17.625999,20.488001,16.749001,21.268,12.56,22.264999,12.618,20.488001,16.749001,18.719,-18.094999,-14.349,4.8254,0.96154,-2.8341,19.195,-5.5608,-12.808,-9.7436
14.155,4.8254,10.797,12.683,11.823,19.316999,5.7971,12.557,5.7886,12.683,11.823,12.808,-20.0,-16.254,0.06349,-4.8077,-5.7327,5.6683,-7.4566,-14.778,-16.474001
8.4676,0.06349,7.8699,6.8293,2.9557,15.415,5.7971,8.6731,4.813,6.8293,2.9557,7.8818,-17.143,-16.254,-2.7937,-5.7692,-5.7327,1.8035,-3.6651,-16.749001,-16.474001
8.4676,-3.746,5.9187,4.878,2.9557,8.5854,2.8986,5.7605,5.7886,4.878,2.9557,4.9261,-10.476,-8.6349,-0.88889,-3.8462,-2.8341,-11.723,4.8657,-12.808,-9.7436
6.5719,-4.6984,5.9187,5.8537,10.837,3.7073,-0.96618,7.7023,5.7886,5.8537,10.837,2.9557,-5.7143,-2.9206,0.06349,-2.8846,1.0306,-2.0612,3.9179,-8.867,-3.0128
0.88468,0.06349,4.9431,5.8537,-1.9704,0.78049,-2.8986,1.877,-3.9675,5.8537,-1.9704,-0.98522,-5.7143,-4.8254,-3.746,-1.9231,0.06441,-2.0612,-1.7694,-7.8818,-1.0897
-2.9068,-2.7937,2.9919,-0.97561,-2.9557,2.7317,-6.7633,-3.9482,-3.9675,-0.97561,-2.9557,-3.9409,-4.7619,-2.9206,-5.6508,-2.8846,0.06441,-9.7907,-3.6651,-8.867,-6.859
-2.9068,-0.88889,4.9431,-0.97561,-0.98522,-2.1463,-3.8647,-10.744,-1.0407,-0.97561,-0.98522,-3.9409,0.95238,0.88889,-3.746,-0.96154,2.963,-4.9597,-11.248,-7.8818,-5.8974
-3.8547,-1.8413,3.9675,-5.8537,-9.8522,-7.0244,-4.8309,-10.744,-7.8699,-5.8537,-9.8522,-5.9113,3.8095,6.6032,-2.7937,-0.96154,4.8953,-12.689,-2.7172,-4.9261,1.7949
-2.9068,-4.6984,3.9675,-14.634,-18.719,-8.9756,-9.6618,-15.599,-14.699,-14.634,-18.719,-8.867,5.7143,10.413,-0.88889,0.0,6.8277,-18.486,-1.7694,-6.8966,5.641
-1.9589,-4.6984,5.9187,-14.634,-11.823,-8.9756,-12.56,-25.306999,-15.675,-14.634,-11.823,-8.867,6.6667,10.413,1.9683,1.9231,9.7262,-28.148001,-4.613,-7.8818,6.6026
-0.06319,1.0159,7.8699,-13.659,-6.8966,-10.927,-12.56,-18.511,-14.699,-13.659,-6.8966,-6.8966,9.5238,14.222,5.7778,4.8077,14.557,-25.25,0.12638,-2.9557,8.5256
0.88468,4.8254,9.8211,-13.659,-13.793,-9.9512,-9.6618,-17.540001,-14.699,-13.659,-13.793,-4.9261,11.429,17.079,7.6825,5.7692,15.523,-22.351,-12.196,0.0,9.4872
-1.9589,3.873,8.8455,-10.732,-20.690001,-8.0,-2.8986,-19.482,-15.675,-10.732,-20.690001,-6.8966,8.5714,15.175,5.7778,3.8462,13.591,-21.385,-18.830999,-0.98522,8.5256
-7.6461,0.06349,2.9919,-7.8049,-14.778,-9.9512,-7.7295,-14.628,-14.699,-7.8049,-14.778,-8.867,3.8095,9.4603,0.06349,-0.96154,7.7939,-19.452,-1.7694,-4.9261,1.7949
-10.49,-6.6032,-3.8374,-10.732,-7.8818,-11.902,-10.628,-17.540001,-12.748,-10.732,-7.8818,-11.823,0.0,6.6032,-3.746,-6.7308,1.9968,-20.419001,3.9179,-9.8522,-2.0513
-5.7504,-7.5556,-2.8618,-8.7805,-7.8818,-8.0,-8.6957,-15.599,-8.8455,-8.7805,-7.8818,-9.8522,0.95238,4.6984,0.06349,-7.6923,1.9968,-16.554001,-2.7172,-5.9113,-2.0513
-0.06319,-4.6984,3.9675,-7.8049,-6.8966,-2.1463,-8.6957,-15.599,-7.8699,-7.8049,-6.8966,-5.9113,-2.8571,2.7937,3.873,-6.7308,3.9291,-15.588,-3.6651,-6.8966,-3.0128
2.7804,1.0159,7.8699,-12.683,-2.9557,-7.0244,-3.8647,-8.8026,-3.9675,-12.683,-2.9557,-4.9261,0.0,4.6984,7.6825,-0.96154,7.7939,-9.7907,-8.4044,-2.9557,2.7564
-1.0111,0.06349,1.0407,-15.61,-11.823,-11.902,-5.7971,-12.686,-5.9187,-15.61,-11.823,-9.8522,-0.95238,2.7937,1.9683,-3.8462,2.963,-15.588,-8.4044,-1.9704,-2.0513
-7.6461,-3.746,-8.7154,-11.707,-5.9113,-13.854,-10.628,-20.452999,-7.8699,-11.707,-5.9113,-13.793,-5.7143,-2.9206,-5.6508,-7.6923,-2.8341,-25.25,2.97,-7.8818,-5.8974
-6.6983,-1.8413,-6.7642,-5.8537,-0.98522,-12.878,-9.6618,-15.599,1.8862,-5.8537,-0.98522,-10.837,-0.95238,-1.0159,-3.746,-0.96154,0.06441,-15.588,13.397,-7.8818,0.83333
-4.8025,2.9206,-1.8862,-10.732,-3.9409,-6.0488,-3.8647,-15.599,2.8618,-10.732,-3.9409,-7.8818,0.95238,-0.06349,-1.8413,4.8077,3.9291,-9.7907,13.397,-3.9409,5.641
-5.7504,3.873,-0.91057,-21.462999,-3.9409,-8.9756,-2.8986,-19.482,3.8374,-21.462999,-3.9409,-7.8818,0.95238,0.88889,-0.88889,6.7308,4.8953,-14.622,10.553,-2.9557,6.6026
-1.9589,7.6825,2.9919,-14.634,-1.9704,-6.0488,5.7971,-21.424,6.7642,-14.634,-1.9704,-2.9557,4.7619,1.8413,1.0159,10.577,7.7939,-10.757,14.344,-3.9409,7.5641
-0.06319,15.302,5.9187,-7.8049,0.0,-8.0,9.6618,-9.7735,8.7154,-7.8049,0.0,-0.98522,8.5714,4.6984,2.9206,15.385,11.659,-16.554001,11.501,-0.98522,10.449
-1.0111,16.254,4.9431,-6.8293,4.9261,-12.878,6.7633,-6.8608,6.7642,-6.8293,4.9261,-2.9557,12.381,6.6032,3.873,17.308001,12.625,-17.52,8.6572,3.9409,11.41
-0.06319,21.968,9.8211,-0.97561,11.823,-9.9512,12.56,-7.8317,12.618,-0.97561,11.823,2.9557,16.190001,13.27,6.7302,25.0,18.422001,-5.9259,6.7615,4.9261,19.103001
-3.8547,22.921,11.772,-8.7805,8.867,-12.878,15.459,-9.7735,12.618,-8.7805,8.867,4.9261,16.190001,14.222,4.8254,24.038,17.455999,-10.757,19.084,4.9261,16.218
-6.6983,20.063,8.8455,-9.7561,2.9557,-9.9512,16.424999,-17.540001,8.7154,-9.7561,2.9557,6.8966,8.5714,8.5079,-0.88889,18.268999,10.692,-14.622,27.615,0.98522,8.5256
-4.8025,21.016001,10.797,-5.8537,9.8522,-3.122,25.121,-11.715,4.813,-5.8537,9.8522,11.823,6.6667,4.6984,-1.8413,16.346001,8.7601,-9.7907,12.449,0.0,6.6026
-1.0111,20.063,13.724,-2.9268,15.764,1.7561,25.121,-6.8608,10.667,-2.9268,15.764,16.749001,2.8571,6.6032,-2.7937,17.308001,7.7939,-14.622,16.24,-3.9409,9.4872
7.5197,20.063,17.625999,8.7805,24.631001,11.512,27.052999,1.877,17.496,8.7805,24.631001,24.631001,0.95238,6.6032,1.0159,18.268999,8.7601,-0.12882,10.553,-5.9113,13.333
7.5197,15.302,15.675,18.537001,24.631001,11.512,21.256001,14.498,15.545,18.537001,24.631001,22.66,-2.8571,0.88889,1.0159,11.538,4.8953,4.7021,9.6051,-4.9261,5.641
8.4676,7.6825,11.772,20.488001,19.704,9.561,19.323999,18.382,12.618,20.488001,19.704,19.704,-3.8095,-1.0159,0.06349,4.8077,1.0306,11.465,11.501,-0.98522,-2.0513
15.103,0.06349,9.8211,22.438999,17.733999,19.316999,17.391001,20.323999,9.6911,22.438999,17.733999,23.645,-1.9048,-4.8254,3.873,0.96154,-0.90177,22.093,8.6572,6.8966,-6.859
18.893999,-8.5079,5.9187,25.365999,12.808,24.195,12.56,24.207001,5.7886,25.365999,12.808,22.66,0.0,-3.873,6.7302,-2.8846,-1.868,25.958,-4.613,12.808,-6.859
19.841999,-18.032,-0.91057,25.365999,12.808,30.049,-0.96618,26.149,0.91057,25.365999,12.808,16.749001,-1.9048,-4.8254,6.7302,-10.577,-5.7327,25.958,-14.092,14.778,-8.7821
20.790001,-18.983999,-3.8374,23.415001,16.749001,32.976002,-11.594,33.916,-7.8699,23.415001,16.749001,16.749001,0.95238,-8.6349,9.5873,-16.346001,-8.6312,32.721001,-25.466,19.704,-11.667
22.686001,-18.983999,-2.8618,32.195,18.719,34.926998,-2.8986,36.827999,-4.9431,32.195,18.719,20.690001,2.8571,-8.6349,11.492,-18.268999,-9.5974,40.451,-23.57,22.66,-8.7821
24.580999,-18.983999,-2.8618,40.976002,17.733999,32.976002,-4.8309,42.653999,-1.0407,40.976002,17.733999,20.690001,4.7619,-8.6349,11.492,-22.115,-12.496,44.316002,-10.3,26.601,-7.8205
24.580999,-19.937,-2.8618,38.049,10.837,28.098,3.8647,41.682999,-1.0407,38.049,10.837,19.704,3.8095,-13.397,10.54,-27.885,-17.327,39.485001,-8.4044,30.542,-16.474001
21.738001,-19.937,-3.8374,32.195,12.808,27.122,5.7971,33.916,-2.9919,32.195,12.808,18.719,2.8571,-14.349,7.6825,-29.808001,-21.191999,35.619999,-13.144,30.542,-18.396999
16.997999,-18.032,-8.7154,26.341,10.837,27.122,0.96618,28.091,-5.9187,26.341,10.837,15.764,-0.95238,-15.302,2.9206,-28.846001,-25.056,28.857,-14.092,25.615999,-13.59
16.051001,-11.365,-6.7642,25.365999,5.9113,27.122,1.9324,24.207001,-5.9187,25.365999,5.9113,13.793,-0.95238,-14.349,1.9683,-22.115,-22.158001,21.127001,-16.934999,21.674999,-10.705
15.103,0.06349,-1.8862,21.462999,16.749001,25.171,4.8309,30.032,-2.9919,21.462999,16.749001,14.778,-1.9048,-9.5873,2.9206,-11.538,-15.395,24.025999,-10.3,12.808,-4.9359
9.4155,1.9683,-1.8862,25.365999,16.749001,23.219999,0.96618,30.032,-0.06504,25.365999,16.749001,10.837,-6.6667,-12.444,-0.88889,-6.7308,-14.428,20.160999,-3.6651,3.9409,-4.9359
9.4155,1.9683,0.06504,32.195,10.837,29.073,3.8647,24.207001,0.91057,32.195,10.837,10.837,-11.429,-17.205999,-4.6984,-2.8846,-12.496,18.229,3.9179,0.0,-3.9744
3.7283,-0.88889,-2.8618,23.415001,4.9261,17.365999,1.9324,26.149,-2.0163,23.415001,4.9261,4.9261,-13.333,-17.205999,-6.6032,-1.9231,-10.564,21.127001,8.6572,-1.9704,-7.8205
4.6761,1.0159,2.0163,19.511999,10.837,9.561,6.7633,33.916,2.8618,19.511999,10.837,4.9261,-9.5238,-14.349,-0.88889,4.8077,-1.868,22.093,11.501,0.0,-7.8205
6.5719,1.9683,4.9431,14.634,1.9704,13.463,1.9324,29.061001,3.8374,14.634,1.9704,3.9409,-5.7143,-10.54,5.7778,9.6154,5.8615,25.958,-7.4566,3.9409,-4.9359
3.7283,-2.7937,2.0163,7.8049,-0.98522,12.488,-2.8986,25.177999,-1.0407,7.8049,-0.98522,0.98522,-4.7619,-12.444,6.7302,7.6923,7.7939,28.857,-9.3523,4.9261,-5.8974
-0.06319,-3.746,-0.91057,6.8293,4.9261,3.7073,-8.6957,20.323999,-2.9919,6.8293,4.9261,-3.9409,-3.8095,-8.6349,5.7778,7.6923,8.7601,17.261999,-4.613,5.9113,-3.0128
-0.06319,-1.8413,-1.8862,5.8537,-3.9409,1.7561,-4.8309,15.469,0.91057,5.8537,-3.9409,-4.9261,-2.8571,-5.7778,6.7302,7.6923,9.7262,15.33,2.0221,4.9261,-3.9744
0.88468,-2.7937,0.06504,7.8049,-1.9704,2.7317,-3.8647,14.498,4.813,7.8049,-1.9704,-3.9409,4.7619,1.8413,9.5873,8.6538,12.625,27.889999,-1.7694,11.823,1.7949
-1.9589,-2.7937,-3.8374,1.9512,-2.9557,-2.1463,-3.8647,14.498,-1.0407,1.9512,-2.9557,-7.8818,1.9048,1.8413,4.8254,3.8462,7.7939,24.025999,-1.7694,9.8522,-3.0128
-4.8025,-4.6984,-6.7642,-6.8293,-9.8522,-2.1463,-4.8309,1.877,-2.0163,-6.8293,-9.8522,-9.8522,-4.7619,-2.9206,-0.88889,-2.8846,1.0306,20.160999,-2.7172,4.9261,-9.7436
0.88468,1.0159,-1.8862,-13.659,-15.764,-3.122,-3.8647,10.615,-2.0163,-13.659,-15.764,-8.867,-1.9048,-0.06349,2.9206,0.0,2.963,19.195,-15.987,9.8522,-8.7821
4.6761,1.9683,2.9919,-17.561001,-13.793,-6.0488,1.9324,18.382,-0.06504,-17.561001,-13.793,-6.8966,-1.9048,1.8413,4.8254,0.96154,3.9291,14.364,-10.3,7.8818,-4.9359
5.624,1.9683,3.9675,-14.634,-9.8522,-3.122,0.96618,12.557,-2.0163,-14.634,-9.8522,-3.9409,-2.8571,1.8413,1.9683,0.0,1.9968,15.33,-8.4044,1.9704,-3.9744
4.6761,1.0159,3.9675,-11.707,-8.867,0.78049,-2.8986,8.6731,-2.0163,-11.707,-8.867,-3.9409,-3.8095,4.6984,1.0159,0.0,0.06441,12.432,-7.4566,2.9557,-2.0513
6.5719,4.8254,5.9187,-8.7805,-6.8966,2.7317,-0.96618,6.7314,-0.06504,-8.7805,-6.8966,-0.98522,-3.8095,6.6032,2.9206,2.8846,1.9968,10.499,-11.248,2.9557,2.7564
10.363,4.8254,6.8943,-3.9024,-11.823,6.6341,4.8309,2.8479,0.91057,-3.9024,-11.823,1.9704,-4.7619,-0.06349,3.873,0.0,1.0306,13.398,-3.6651,3.9409,-5.8974
5.624,2.9206,2.9919,-6.8293,-5.9113,4.6829,2.8986,0.90615,-4.9431,-6.8293,-5.9113,-1.9704,-7.619,-3.873,1.9683,-4.8077,-3.8003,14.364,5.8136,2.9557,-9.7436
5.624,-0.88889,1.0407,-10.732,0.98522,2.7317,-1.9324,3.8188,3.8374,-10.732,0.98522,-3.9409,-9.5238,-4.8254,1.9683,-5.7692,-3.8003,-3.9936,-1.7694,-2.9557,-7.8205
6.5719,-5.6508,-0.91057,-9.7561,0.0,3.7073,-3.8647,-2.0065,6.7642,-9.7561,0.0,-6.8966,-8.5714,-8.6349,2.9206,-7.6923,-4.7665,-4.9597,-4.613,-1.9704,-8.7821
1.8325,-9.4603,-4.813,-11.707,-6.8966,-8.0,-11.594,1.877,1.8862,-11.707,-6.8966,-13.793,-8.5714,-11.492,1.9683,-10.577,-6.6989,1.8035,-6.5087,-0.98522,-7.8205
0.88468,-11.365,-5.7886,-13.659,-18.719,-11.902,-18.357,4.7896,-3.9675,-13.659,-18.719,-16.749001,-8.5714,-13.397,1.0159,-12.5,-8.6312,1.8035,-8.4044,-3.9409,-10.705
3.7283,-11.365,-3.8374,-13.659,-14.778,-4.0976,-17.391001,4.7896,-7.8699,-13.659,-14.778,-12.808,-5.7143,-12.444,2.9206,-14.423,-8.6312,6.6345,0.12638,-0.98522,-10.705
2.7804,-16.127001,-4.813,-5.8537,-3.9409,-2.1463,-17.391001,3.8188,-6.8943,-5.8537,-3.9409,-11.823,-3.8095,-11.492,1.0159,-17.308001,-11.53,6.6345,2.0221,1.9704,-8.7821
-1.0111,-15.175,-8.7154,1.9512,-3.9409,0.78049,-11.594,0.90615,-5.9187,1.9512,-3.9409,-8.867,-3.8095,-13.397,-2.7937,-23.077,-16.361,8.5668,2.97,3.9409,-10.705
1.8325,-13.27,-7.7398,-1.9512,-3.9409,1.7561,-2.8986,8.6731,-5.9187,-1.9512,-3.9409,-4.9261,1.9048,-11.492,-2.7937,-25.962,-17.327,3.7359,2.97,7.8818,-14.551
2.7804,-8.5079,-2.8618,4.878,1.9704,0.78049,2.8986,10.615,0.91057,4.878,1.9704,2.9557,6.6667,-6.7302,-1.8413,-21.153999,-14.428,-6.8921,-5.5608,4.9261,-11.667
-6.6983,-7.5556,-7.7398,5.8537,1.9704,-4.0976,2.8986,2.8479,2.8618,5.8537,1.9704,0.98522,0.95238,-4.8254,-10.413,-22.115,-17.327,-9.7907,-6.5087,-9.8522,-9.7436
-16.177,-8.5079,-15.545,3.9024,-0.98522,-8.0,0.0,-2.9773,0.91057,3.9024,-0.98522,-1.9704,-9.5238,-10.54,-21.841,-25.0,-25.056,-13.655,-1.7694,-20.690001,-10.705
-16.177,-3.746,-14.569,3.9024,11.823,-4.0976,3.8647,-7.8317,6.7642,3.9024,11.823,0.98522,-7.619,-10.54,-21.841,-22.115,-24.09,-16.554001,6.7615,-16.749001,-7.8205
-19.021,-5.6508,-16.52,-2.9268,7.8818,-7.0244,4.8309,-7.8317,6.7642,-2.9268,7.8818,-2.9557,-9.5238,-12.444,-22.794001,-21.153999,-23.124001,-19.452,12.449,-20.690001,-12.628
-21.864,-7.5556,-20.423,2.9268,11.823,-8.0,1.9324,-12.686,3.8374,2.9268,11.823,-5.9113,-12.381,-15.302,-25.650999,-19.231001,-24.09,-24.283001,9.6051,-27.586,-15.513
-21.864,-3.746,-21.398001,4.878,7.8818,-14.829,-3.8647,-13.657,6.7642,4.878,7.8818,-5.9113,-12.381,-13.397,-25.650999,-15.385,-22.158001,-30.080999,10.553,-29.556999,-10.705
-20.916,-0.88889,-19.447001,6.8293,6.8966,-15.805,1.9324,-14.628,7.7398,6.8293,6.8966,-4.9261,-10.476,-11.492,-22.794001,-12.5,-18.292999,-31.047001,13.397,-28.570999,-7.8205
-18.073,-2.7937,-16.52,11.707,13.793,-4.0976,5.7971,-11.715,7.7398,11.707,13.793,-0.98522,-6.6667,-7.6825,-18.983999,-10.577,-15.395,-27.181999,11.501,-24.631001,-3.0128
-18.073,-8.5079,-15.545,3.9024,4.9261,-8.9756,3.8647,-2.0065,8.7154,3.9024,4.9261,-2.9557,-6.6667,-9.5873,-18.983999,-12.5,-17.327,-23.316999,7.7093,-21.674999,-6.859
-13.333,-8.5079,-12.618,8.7805,9.8522,-9.9512,-1.9324,4.7896,7.7398,8.7805,9.8522,-0.98522,-3.8095,-7.6825,-14.222,-8.6538,-12.496,-8.8245,-2.7172,-16.749001,-3.0128
-14.281,-8.5079,-13.593,7.8049,11.823,-5.0732,-7.7295,-2.9773,-0.06504,7.8049,11.823,-0.98522,-3.8095,-4.8254,-12.317,-6.7308,-10.564,-5.9259,-5.5608,-18.719,0.83333
-13.333,-9.4603,-13.593,1.9512,4.9261,-5.0732,-4.8309,-3.9482,-1.0407,1.9512,4.9261,-0.98522,-0.95238,-3.873,-10.413,-7.6923,-9.5974,-10.757,0.12638,-12.808,-2.0513
