C3,C4,Cz,F1,F2,F3,F4,F7,F8,Fp1,Fp2,Fz,O1,O2,P3,P4,Pz,T3,T4,T5,T6
16.997999,7.6825,10.732,-0.98039,-0.98522,6.5691,6.7633,-2.9773,0.90615,-0.98039,-0.98522,2.9412,12.381,8.5079,20.916,13.527,17.455999,6.6345,1.0159,8.8235,-2.0612
16.997999,6.7302,12.683,0.0,0.98522,2.6667,0.96618,-1.0356,0.90615,0.0,0.98522,2.9412,16.190001,8.5079,21.864,13.527,18.422001,5.6683,-1.8413,12.745,-0.12882
16.051001,4.8254,13.659,-5.8824,-2.9557,-0.26016,0.0,-4.9191,-1.0356,-5.8824,-2.9557,1.9608,17.143,11.365,20.916,13.527,18.422001,6.6345,-2.7937,17.646999,6.6345
12.259,4.8254,13.659,-19.608,-13.793,-4.1626,-1.9324,-12.686,-9.7735,-19.608,-13.793,-0.98039,16.190001,15.175,17.125,14.493,17.455999,2.7697,-3.746,19.608,10.499
0.88468,1.0159,4.878,-15.686,-19.704,-9.0407,-9.6618,-8.8026,-11.715,-15.686,-19.704,-8.8235,6.6667,10.413,3.8547,9.6618,7.7939,-1.095,-2.7937,5.8824,7.6006
-8.594,-3.746,-1.9512,-19.608,-20.690001,-10.992,-14.493,-4.9191,-14.628,-19.608,-20.690001,-13.725,-0.95238,2.7937,-10.363,1.9324,-1.868,-7.8583,-7.5556,-8.8235,3.7359
-17.125,-5.6508,-4.878,-25.49,-22.66,-11.967,-12.56,-7.8317,-14.628,-25.49,-22.66,-12.745,-9.5238,-1.0159,-23.632999,-1.9324,-9.5974,-20.419001,-5.6508,-20.587999,4.7021
-21.864,-1.8413,-4.878,-9.8039,-13.793,-6.1138,-2.8986,-2.9773,-2.0065,-9.8039,-13.793,-4.902,-16.190001,-3.873,-31.216,-3.8647,-15.395,-25.25,1.9683,-28.431,4.7021
-21.864,2.9206,-2.9268,-4.902,-9.8522,-4.1626,2.8986,-1.0356,1.877,-4.902,-9.8522,0.0,-16.190001,-2.9206,-31.216,-4.8309,-16.361,-23.316999,5.7778,-28.431,8.5668
-21.864,2.9206,-7.8049,-10.784,-8.867,-5.1382,0.96618,-4.9191,-2.0065,-10.784,-8.867,-1.9608,-21.905001,-8.6349,-30.268999,-8.6957,-19.259001,-22.351,5.7778,-29.412001,1.8035
-17.125,2.9206,-6.8293,-15.686,-6.8966,-5.1382,0.96618,-3.9482,-2.9773,-15.686,-6.8966,-2.9412,-20.952,-16.254,-21.738001,-9.6618,-16.361,-20.419001,1.0159,-24.51,-7.8583
-7.6461,6.7302,-1.9512,-0.98039,0.98522,0.71545,5.7971,2.8479,4.7896,-0.98039,0.98522,3.9216,-14.286,-17.205999,-11.311,-6.7633,-7.6651,-11.723,1.9683,-18.627001,-13.655
3.7283,11.492,4.878,4.902,2.9557,11.447,11.594,8.6731,10.615,4.902,2.9557,9.8039,-7.619,-10.54,1.0111,0.96618,1.9968,0.83736,5.7778,-8.8235,-12.689
14.155,13.397,10.732,3.9216,6.8966,15.35,14.493,10.615,8.6731,3.9216,6.8966,13.725,0.95238,-3.873,12.385,8.6957,10.692,9.533,8.6349,1.9608,-5.9259
17.945999,8.6349,10.732,8.8235,1.9704,14.374,11.594,13.528,1.877,8.8235,1.9704,11.765,4.7619,0.88889,16.177,10.628,13.591,15.33,4.8254,11.765,-0.12882
26.476999,11.492,17.561001,23.528999,10.837,22.179001,15.459,21.294001,9.644,23.528999,10.837,18.627001,13.333,10.413,24.708,17.391001,21.32,24.992001,5.7778,21.569,6.6345
25.528999,7.6825,13.659,15.686,11.823,20.228001,11.594,21.294001,9.644,15.686,11.823,15.686,14.286,16.127001,24.708,18.357,20.354,26.924,4.8254,21.569,8.5668
16.051001,-0.88889,4.878,5.8824,2.9557,7.5447,0.96618,12.557,-0.06472,5.8824,2.9557,3.9216,10.476,16.127001,17.125,10.628,13.591,21.127001,-1.8413,19.608,11.465
7.5197,-8.5079,-1.9512,-1.9608,-3.9409,2.6667,-6.7633,6.7314,-4.9191,-1.9608,-3.9409,-3.9216,5.7143,7.5556,9.5419,1.9324,4.8953,14.364,-6.6032,13.725,1.8035
-0.06319,-12.317,-7.8049,-4.902,-8.867,-2.2114,-11.594,5.7605,-8.8026,-4.902,-8.867,-9.8039,-0.95238,-1.0159,-0.88468,-4.8309,-3.8003,5.6683,-5.6508,3.9216,-3.0274
-2.9068,-4.6984,-4.878,-1.9608,-8.867,-3.187,-7.7295,1.877,-4.9191,-1.9608,-8.867,-7.8431,-3.8095,2.7937,-5.624,0.0,-3.8003,-1.095,2.9206,-7.8431,6.6345
-2.9068,3.873,-0.97561,-0.98039,0.0,1.6911,0.0,0.90615,1.877,-0.98039,0.0,-1.9608,-6.6667,0.88889,-10.363,1.9324,-3.8003,-6.8921,5.7778,-14.706,8.5668
-5.7504,4.8254,-0.97561,0.98039,3.9409,2.6667,2.8986,0.90615,5.7605,0.98039,3.9409,1.9608,-12.381,-5.7778,-15.103,-1.9324,-7.6651,-7.8583,3.873,-14.706,1.8035
-8.594,0.06349,-3.9024,-2.9412,-0.98522,-1.2358,1.9324,-0.06472,5.7605,-2.9412,-0.98522,0.0,-15.238,-9.5873,-16.051001,-7.7295,-11.53,-8.8245,5.7778,-13.725,1.8035
-14.281,-7.5556,-9.7561,3.9216,-1.9704,-7.0894,-0.96618,-5.89,2.8479,3.9216,-1.9704,-4.902,-18.094999,-14.349,-17.945999,-14.493,-16.361,-11.723,4.8254,-17.646999,-1.095
-12.385,-3.746,-6.8293,10.784,3.9409,-5.1382,3.8647,-7.8317,8.6731,10.784,3.9409,-2.9412,-8.5714,-6.7302,-12.259,-9.6618,-10.564,-12.689,8.6349,-13.725,2.7697
-5.7504,1.0159,-3.9024,2.9412,5.9113,-2.2114,4.8309,-4.9191,8.6731,2.9412,5.9113,0.0,2.8571,2.7937,-0.88468,-2.8986,-2.8341,-3.9936,6.7302,-0.98039,4.7021
2.7804,1.9683,0.97561,6.8627,7.8818,0.71545,3.8647,0.90615,4.7896,6.8627,7.8818,1.9608,9.5238,5.6508,12.385,0.96618,3.9291,6.6345,0.06349,12.745,-2.0612
9.4155,2.9206,3.9024,4.902,6.8966,3.6423,3.8647,4.7896,1.877,4.902,6.8966,2.9412,12.381,8.5079,18.073,4.8309,8.7601,7.6006,0.06349,18.627001,-0.12882
10.363,-3.746,-0.97561,6.8627,-2.9557,-0.26016,-7.7295,1.877,-3.9482,6.8627,-2.9557,-3.9216,10.476,6.6032,17.125,0.96618,6.8277,7.6006,-5.6508,18.627001,-3.0274
10.363,-10.413,-5.8537,2.9412,-5.9113,-1.2358,-12.56,-0.06472,-7.8317,2.9412,-5.9113,-8.8235,10.476,6.6032,17.125,-1.9324,4.8953,9.533,-7.5556,19.608,-4.9597
9.4155,-9.4603,-6.8293,0.0,-2.9557,-1.2358,-9.6618,0.90615,-5.89,0.0,-2.9557,-8.8235,10.476,6.6032,16.177,-2.8986,3.9291,10.499,-6.6032,21.569,-2.0612
0.88468,-17.079,-13.659,-5.8824,-7.8818,-8.065,-15.459,-2.0065,-12.686,-5.8824,-7.8818,-13.725,2.8571,-6.7302,5.7504,-13.527,-6.6989,8.5668,-13.27,17.646999,-10.757
-5.7504,-19.937,-16.584999,-7.8431,-5.9113,-11.967,-19.323999,-2.9773,-15.599,-7.8431,-5.9113,-14.706,-1.9048,-13.397,-1.8325,-19.323999,-13.462,6.6345,-18.032,11.765,-13.655
-3.8547,-11.365,-9.7561,-2.9412,-3.9409,-7.0894,-12.56,-0.06472,-12.686,-2.9412,-3.9409,-7.8431,0.0,-7.6825,-2.7804,-12.56,-9.5974,5.6683,-12.317,7.8431,1.8035
-0.06319,-3.746,-2.9268,6.8627,-2.9557,-0.26016,-3.8647,2.8479,-7.8317,6.8627,-2.9557,-0.98039,2.8571,-2.9206,1.0111,-6.7633,-4.7665,2.7697,-7.5556,11.765,4.7021
-1.0111,-2.7937,-0.97561,5.8824,3.9409,0.71545,-1.9324,1.877,-2.9773,5.8824,3.9409,1.9608,0.0,0.88889,-0.88468,-2.8986,-2.8341,1.8035,-6.6032,6.8627,0.83736
0.88468,3.873,4.878,4.902,8.867,5.5935,0.96618,-0.06472,0.90615,4.902,8.867,5.8824,0.95238,5.6508,1.0111,4.8309,1.9968,0.83736,0.06349,2.9412,2.7697
2.7804,13.397,10.732,3.9216,5.9113,7.5447,7.7295,-0.06472,2.8479,3.9216,5.9113,7.8431,2.8571,10.413,1.9589,12.56,5.8615,-3.0274,4.8254,-1.9608,9.533
5.624,20.063,15.61,5.8824,8.867,6.5691,12.56,-0.06472,7.7023,5.8824,8.867,11.765,5.7143,14.222,5.7504,20.290001,11.659,-3.0274,10.54,-2.9412,18.229
6.5719,22.921,18.537001,13.725,12.808,8.5203,15.459,-0.06472,11.586,13.725,12.808,14.706,9.5238,16.127001,7.6461,24.155001,15.523,-3.0274,13.397,-4.902,14.364
9.4155,19.111,18.537001,13.725,13.793,7.5447,15.459,0.90615,11.586,13.725,13.793,13.725,14.286,17.079,11.438,22.222,18.422001,-1.095,12.444,0.98039,11.465
7.5197,11.492,14.634,12.745,13.793,8.5203,10.628,0.90615,8.6731,12.745,13.793,11.765,11.429,11.365,8.594,14.493,13.591,-3.0274,8.6349,-1.9608,6.6345
10.363,8.6349,15.61,19.608,18.719,13.398,14.493,8.6731,14.498,19.608,18.719,17.646999,8.5714,6.6032,9.5419,8.6957,11.659,-1.095,7.6825,0.0,-1.095
7.5197,4.8254,9.7561,19.608,16.749001,12.423,14.493,6.7314,15.469,19.608,16.749001,13.725,6.6667,-0.06349,7.6461,0.96618,5.8615,2.7697,6.7302,4.902,-9.7907
-1.0111,-1.8413,-0.97561,12.745,11.823,-0.26016,6.7633,-4.9191,7.7023,12.745,11.823,3.9216,3.8095,-1.9683,1.9589,-5.7971,-1.868,2.7697,3.873,2.9412,-5.9259
-0.06319,-2.7937,-1.9512,7.8431,12.808,-2.2114,0.96618,-1.0356,7.7023,7.8431,12.808,0.98039,5.7143,-0.06349,2.9068,-6.7633,-2.8341,6.6345,1.0159,8.8235,-3.0274
2.7804,-10.413,-4.878,13.725,5.9113,3.6423,-6.7633,3.8188,0.90615,13.725,5.9113,-1.9608,4.7619,-3.873,3.8547,-12.56,-4.7665,5.6683,-3.746,10.784,-6.8921
-4.8025,-22.794001,-15.61,2.9412,-5.9113,-3.187,-19.323999,-5.89,-8.8026,2.9412,-5.9113,-13.725,-1.9048,-10.54,-4.6761,-22.222,-12.496,-2.0612,-11.365,1.9608,-11.723
-5.7504,-24.698,-17.561001,0.98039,-7.8818,-3.187,-18.357,-2.9773,-9.7735,0.98039,-7.8818,-15.686,-4.7619,-9.5873,-5.624,-20.290001,-12.496,-2.0612,-11.365,1.9608,-8.8245
-5.7504,-19.937,-14.634,-4.902,-4.9261,-3.187,-17.391001,-2.9773,-10.744,-4.902,-4.9261,-13.725,-4.7619,-5.7778,-6.5719,-14.493,-8.6312,1.8035,-9.4603,-2.9412,-6.8921
-9.5419,-13.27,-12.683,-2.9412,-4.9261,-8.065,-12.56,-3.9482,-7.8317,-2.9412,-4.9261,-12.745,-6.6667,-4.8254,-11.311,-7.7295,-8.6312,-3.9936,-2.7937,-7.8431,-3.0274
-12.385,-5.6508,-10.732,-0.98039,-5.9113,-14.894,-13.527,-5.89,-4.9191,-0.98039,-5.9113,-13.725,-7.619,-2.9206,-14.155,-0.96618,-8.6312,-11.723,0.06349,-8.8235,1.8035
-7.6461,8.6349,-1.9512,1.9608,1.9704,-13.919,-3.8647,-5.89,2.8479,1.9608,1.9704,-6.8627,-2.8571,3.746,-5.624,11.594,0.06441,-9.7907,6.7302,-0.98039,10.499
-3.8547,18.159,3.9024,11.765,7.8818,-7.0894,7.7295,-2.9773,7.7023,11.765,7.8818,0.0,2.8571,9.4603,0.06319,19.323999,6.8277,0.83736,10.54,-2.9412,11.465
-2.9068,17.205999,6.8293,8.8235,9.8522,-3.187,7.7295,-2.0065,8.6731,8.8235,9.8522,3.9216,2.8571,8.5079,0.06319,18.357,7.7939,0.83736,7.6825,-6.8627,4.7021
-0.06319,14.349,8.7805,9.8039,16.749001,-1.2358,13.527,-0.06472,11.586,9.8039,16.749001,9.8039,1.9048,5.6508,1.0111,14.493,8.7601,-1.095,6.7302,-5.8824,2.7697
7.5197,13.397,12.683,11.765,16.749001,6.5691,17.391001,3.8188,14.498,11.765,16.749001,14.706,1.9048,3.746,5.7504,13.527,10.692,2.7697,7.6825,-8.8235,8.5668
10.363,15.302,15.61,13.725,17.733999,10.472,21.256001,2.8479,14.498,13.725,17.733999,17.646999,3.8095,3.746,6.6983,12.56,12.625,4.7021,7.6825,-2.9412,2.7697
6.5719,12.444,11.707,11.765,16.749001,7.5447,18.357,0.90615,12.557,11.765,16.749001,13.725,6.6667,5.6508,7.6461,9.6618,10.692,1.8035,6.7302,1.9608,0.83736
-1.0111,1.0159,1.9512,1.9608,14.778,-0.26016,10.628,-3.9482,7.7023,1.9608,14.778,5.8824,2.8571,-0.06349,2.9068,0.0,2.963,-2.0612,1.0159,4.902,0.83736
-6.6983,-8.5079,-4.878,-1.9608,2.9557,-6.1138,-0.96618,-8.8026,2.8479,-1.9608,2.9557,-2.9412,-0.95238,-4.8254,-2.7804,-8.6957,-3.8003,-3.9936,-4.6984,6.8627,-3.9936
-5.7504,-14.222,-7.8049,-2.9412,-0.98522,-3.187,-6.7633,-7.8317,-2.0065,-2.9412,-0.98522,-4.902,-0.95238,-5.7778,-4.6761,-12.56,-7.6651,-2.0612,-7.5556,6.8627,-6.8921
-1.0111,-12.317,-4.878,5.8824,5.9113,2.6667,-1.9324,-2.0065,2.8479,5.8824,5.9113,0.98039,1.9048,-0.06349,-2.7804,-9.6618,-4.7665,-1.095,-5.6508,4.902,-3.9936
2.7804,-8.5079,-2.9268,8.8235,9.8522,3.6423,0.0,0.90615,4.7896,8.8235,9.8522,4.902,4.7619,7.5556,-0.88468,-2.8986,-1.868,2.7697,-0.88889,4.902,1.8035
-2.9068,-13.27,-9.7561,1.9608,2.9557,2.6667,-10.628,-2.0065,-1.0356,1.9608,2.9557,-2.9412,-0.95238,0.88889,-6.5719,-5.7971,-6.6989,-3.0274,-3.746,-0.98039,1.8035
-4.8025,-12.317,-10.732,6.8627,1.9704,-1.2358,-11.594,-0.06472,-3.9482,6.8627,1.9704,-4.902,-3.8095,-3.873,-6.5719,-5.7971,-7.6651,-0.12882,-5.6508,1.9608,0.83736
-9.5419,-11.365,-12.683,12.745,1.9704,-6.1138,-12.56,4.7896,-3.9482,12.745,1.9704,-8.8235,-7.619,-2.9206,-10.363,-7.7295,-11.53,0.83736,-3.746,-0.98039,1.8035
-16.177,-18.032,-19.511999,-2.9412,-6.8966,-10.016,-20.290001,2.8479,-7.8317,-2.9412,-6.8966,-15.686,-8.5714,-9.5873,-15.103,-15.459,-17.327,-2.0612,-7.5556,-6.8627,-3.0274
-14.281,-19.937,-17.561001,-9.8039,-9.8522,-10.992,-21.256001,-2.9773,-9.7735,-9.8039,-9.8522,-15.686,-2.8571,-9.5873,-9.4155,-17.391001,-15.395,0.83736,-7.5556,-4.902,-5.9259
-7.6461,-18.032,-12.683,0.0,-4.9261,-7.0894,-16.424999,-0.06472,-3.9482,0.0,-4.9261,-10.784,0.95238,-7.6825,-1.8325,-16.424999,-9.5974,7.6006,-7.5556,0.0,-6.8921
-1.9589,-15.175,-6.8293,5.8824,-5.9113,-3.187,-10.628,0.90615,0.90615,5.8824,-5.9113,-6.8627,2.8571,-7.6825,2.9068,-17.391001,-5.7327,8.5668,-4.6984,2.9412,-7.8583
-0.06319,-14.222,-4.878,-1.9608,-7.8818,-3.187,-8.6957,-1.0356,-2.0065,-1.9608,-7.8818,-5.8824,0.95238,-13.397,2.9068,-20.290001,-5.7327,2.7697,-4.6984,2.9412,-15.588
2.7804,-8.5079,-0.97561,-6.8627,-3.9409,-2.2114,-4.8309,-5.89,-0.06472,-6.8627,-3.9409,-2.9412,1.9048,-10.54,5.7504,-17.391001,-2.8341,1.8035,-5.6508,4.902,-16.554001
5.624,-0.88889,5.8537,-8.8235,-3.9409,-1.2358,0.96618,-6.8608,1.877,-8.8235,-3.9409,0.0,9.5238,-1.0159,13.333,-6.7633,5.8615,4.7021,-4.6984,14.706,-12.689
0.88468,1.0159,3.9024,-8.8235,-5.9113,-7.0894,1.9324,-8.8026,0.90615,-8.8235,-5.9113,0.0,10.476,1.8413,9.5419,-1.9324,3.9291,4.7021,0.06349,17.646999,-5.9259
2.7804,4.8254,7.8049,-5.8824,0.0,-3.187,6.7633,-7.8317,4.7896,-5.8824,0.0,4.902,15.238,9.4603,11.438,6.7633,7.7939,6.6345,1.9683,19.608,1.8035
6.5719,8.6349,10.732,-2.9412,-1.9704,-0.26016,11.594,-8.8026,3.8188,-2.9412,-1.9704,6.8627,15.238,12.317,10.49,12.56,10.692,4.7021,-0.88889,18.627001,3.7359
2.7804,9.5873,7.8049,-3.9216,-5.9113,-2.2114,6.7633,-8.8026,1.877,-3.9216,-5.9113,3.9216,9.5238,9.4603,2.9068,14.493,7.7939,1.8035,0.06349,7.8431,1.8035
2.7804,13.397,10.732,-5.8824,0.98522,-0.26016,4.8309,-4.9191,3.8188,-5.8824,0.98522,7.8431,4.7619,11.365,0.06319,18.357,7.7939,-0.12882,5.7778,0.0,7.6006
6.5719,15.302,15.61,0.0,7.8818,7.5447,11.594,4.7896,8.6731,0.0,7.8818,13.725,4.7619,10.413,1.0111,18.357,9.7262,2.7697,4.8254,1.9608,2.7697
6.5719,8.6349,11.707,7.8431,7.8818,8.5203,11.594,8.6731,5.7605,7.8431,7.8818,13.725,-1.9048,3.746,-3.7283,9.6618,3.9291,-2.0612,1.9683,-0.98039,-4.9597
-1.0111,-1.8413,0.0,1.9608,0.98522,2.6667,1.9324,1.877,-2.0065,1.9608,0.98522,4.902,-12.381,-3.873,-12.259,-3.8647,-7.6651,-3.9936,-2.7937,-9.8039,-8.8245
-5.7504,-6.6032,-7.8049,1.9608,-0.98522,-3.187,-1.9324,-2.9773,-3.9482,1.9608,-0.98522,-0.98039,-18.094999,-13.397,-16.997999,-11.594,-14.428,2.7697,0.06349,-18.627001,-3.9936
-9.5419,-8.5079,-11.707,0.98039,-0.98522,-7.0894,-2.8986,-5.89,-1.0356,0.98039,-0.98522,-4.902,-18.094999,-21.016001,-18.893999,-18.357,-19.259001,-3.9936,-0.88889,-22.549,-2.0612
-12.385,-11.365,-11.707,-5.8824,-3.9409,-7.0894,-1.9324,-2.9773,-0.06472,-5.8824,-3.9409,-6.8627,-14.286,-21.016001,-17.945999,-22.222,-19.259001,-8.8245,-1.8413,-18.627001,-5.9259
-13.333,-12.317,-13.659,-4.902,-1.9704,-8.065,-2.8986,-2.9773,0.90615,-4.902,-1.9704,-7.8431,-13.333,-17.205999,-16.051001,-22.222,-18.292999,-11.723,-0.88889,-16.667,-5.9259
-16.177,-14.222,-16.584999,-5.8824,-0.98522,-10.992,-6.7633,-6.8608,0.90615,-5.8824,-0.98522,-10.784,-13.333,-15.302,-16.051001,-21.256001,-18.292999,-11.723,0.06349,-16.667,-6.8921
-14.281,-9.4603,-12.683,-7.8431,-3.9409,-5.1382,-0.96618,-3.9482,-2.0065,-7.8431,-3.9409,-8.8235,-6.6667,-7.6825,-10.363,-14.493,-12.496,-5.9259,0.06349,-9.8039,-3.0274
-18.073,-6.6032,-11.707,-0.98039,-8.867,-12.943,-8.6957,-6.8608,-3.9482,-0.98039,-8.867,-13.725,-5.7143,-2.9206,-11.311,-9.6618,-10.564,-11.723,0.06349,-8.8235,-0.12882
-12.385,-2.7937,-4.878,9.8039,0.98522,-10.992,-8.6957,-2.0065,2.8479,9.8039,0.98522,-8.8235,0.0,4.6984,-4.6761,-2.8986,-2.8341,-9.7907,1.9683,0.0,2.7697
-9.5419,-3.746,-1.9512,-3.9216,0.0,-10.992,-8.6957,-3.9482,1.877,-3.9216,0.0,-8.8235,2.8571,3.746,-1.8325,-1.9324,0.06441,-8.8245,0.06349,0.0,1.8035
-9.5419,-6.6032,-4.878,-15.686,-3.9409,-13.919,-12.56,-10.744,-4.9191,-15.686,-3.9409,-12.745,0.0,3.746,-3.7283,-1.9324,-1.868,-5.9259,-2.7937,-2.9412,5.6683
-7.6461,-4.6984,-2.9268,-9.8039,-6.8966,-9.0407,-12.56,-9.7735,-6.8608,-9.8039,-6.8966,-10.784,-0.95238,2.7937,-3.7283,0.0,-1.868,-5.9259,-3.746,-6.8627,1.8035
-3.8547,-2.7937,0.97561,-1.9608,-7.8818,-3.187,-8.6957,-4.9191,-8.8026,-1.9608,-7.8818,-5.8824,-1.9048,-1.0159,-5.624,0.0,-2.8341,-7.8583,-5.6508,-10.784,-2.0612
0.88468,-3.746,1.9512,1.9608,-6.8966,-0.26016,-10.628,-2.0065,-10.744,1.9608,-6.8966,-3.9216,-6.6667,-2.9206,-5.624,-0.96618,-3.8003,-6.8921,-3.746,-7.8431,6.6345
7.5197,-4.6984,2.9268,-2.9412,-7.8818,5.5935,-7.7295,-2.0065,-9.7735,-2.9412,-7.8818,-0.98039,-5.7143,-3.873,0.06319,-2.8986,-1.868,-0.12882,-2.7937,-0.98039,2.7697
7.5197,-5.6508,1.9512,-10.784,-0.98522,7.5447,-2.8986,-0.06472,-5.89,-10.784,-0.98522,1.9608,-8.5714,-6.7302,-0.88468,-4.8309,-2.8341,-2.0612,1.0159,-1.9608,-1.095
11.311,1.0159,6.8293,-8.8235,-0.98522,13.398,7.7295,3.8188,-2.9773,-8.8235,-0.98522,9.8039,-2.8571,1.8413,4.8025,0.0,2.963,2.7697,3.873,1.9608,7.6006
17.945999,6.7302,15.61,12.745,5.9113,18.275999,13.527,10.615,3.8188,12.745,5.9113,17.646999,5.7143,6.6032,13.333,5.7971,10.692,12.432,2.9206,8.8235,6.6345
15.103,7.6825,15.61,19.608,9.8522,16.325001,12.56,9.644,4.7896,19.608,9.8522,18.627001,7.619,1.8413,11.438,3.8647,9.7262,11.465,1.0159,5.8824,-3.0274
6.5719,7.6825,10.732,9.8039,10.837,13.398,8.6957,3.8188,3.8188,9.8039,10.837,14.706,2.8571,0.88889,4.8025,1.9324,4.8953,2.7697,1.0159,0.98039,-3.9936
3.7283,13.397,11.707,7.8431,13.793,11.447,12.56,4.7896,4.7896,7.8431,13.793,15.686,1.9048,2.7937,1.9589,6.7633,4.8953,-3.0274,1.0159,-0.98039,0.83736
0.88468,11.492,8.7805,9.8039,7.8818,3.6423,10.628,1.877,5.7605,9.8039,7.8818,10.784,0.95238,3.746,1.9589,8.6957,4.8953,-1.095,1.9683,-2.9412,0.83736
-2.9068,7.6825,1.9512,4.902,3.9409,-1.2358,9.6618,1.877,3.8188,4.902,3.9409,5.8824,0.0,3.746,-0.88468,7.7295,2.963,-3.9936,1.0159,-6.8627,-1.095
-3.8547,9.5873,0.97561,7.8431,8.867,2.6667,14.493,0.90615,7.7023,7.8431,8.867,6.8627,0.95238,8.5079,-1.8325,8.6957,2.963,-4.9597,4.8254,-5.8824,1.8035
-10.49,5.7778,-3.9024,2.9412,6.8966,-2.2114,9.6618,-2.9773,5.7605,2.9412,6.8966,2.9412,-6.6667,3.746,-8.4676,3.8647,-3.8003,-6.8921,4.8254,-9.8039,6.6345
-8.594,6.7302,-0.97561,1.9608,11.823,-1.2358,11.594,-2.9773,5.7605,1.9608,11.823,5.8824,-9.5238,-0.06349,-7.5197,3.8647,-2.8341,-7.8583,4.8254,-9.8039,5.6683
-4.8025,2.9206,-0.97561,2.9412,9.8522,-0.26016,8.6957,-1.0356,9.644,2.9412,9.8522,5.8824,-7.619,-2.9206,-5.624,1.9324,-1.868,-3.9936,2.9206,-10.784,-3.9936
-2.9068,-4.6984,-5.8537,0.0,3.9409,-4.1626,4.8309,-1.0356,5.7605,0.0,3.9409,0.0,-6.6667,-4.8254,-3.7283,-4.8309,-4.7665,-3.9936,1.0159,-4.902,-3.9936
-3.8547,-14.222,-13.659,1.9608,-0.98522,-10.016,-3.8647,-3.9482,-2.0065,1.9608,-0.98522,-9.8039,-6.6667,-6.7302,-1.8325,-10.628,-6.6989,-3.9936,-1.8413,-1.9608,-0.12882
-5.7504,-21.841,-19.511999,-14.706,-10.837,-18.797001,-16.424999,-8.8026,-10.744,-14.706,-10.837,-20.587999,-5.7143,-10.54,-0.88468,-17.391001,-9.5974,-1.095,-7.5556,2.9412,-3.0274
3.7283,-14.222,-9.7561,-17.646999,-10.837,-13.919,-16.424999,-2.9773,-10.744,-17.646999,-10.837,-16.667,3.8095,-5.7778,11.438,-8.6957,0.06441,9.533,-6.6032,14.706,-3.9936
10.363,-2.7937,0.0,-9.8039,-8.867,-7.0894,-9.6618,-5.89,-7.8317,-9.8039,-8.867,-8.8235,8.5714,2.7937,18.073,2.8986,9.7262,8.5668,1.9683,19.608,2.7697
15.103,5.7778,8.7805,0.0,-4.9261,3.6423,-2.8986,-2.0065,-4.9191,0.0,-4.9261,-0.98039,12.381,3.746,19.021,10.628,14.557,7.6006,1.9683,18.627001,6.6345
21.738001,9.5873,14.634,3.9216,0.0,13.398,2.8986,6.7314,-3.9482,3.9216,0.0,6.8627,12.381,4.6984,18.073,14.493,17.455999,12.432,-3.746,16.667,0.83736
20.790001,13.397,15.61,5.8824,-2.9557,12.423,3.8647,8.6731,-2.9773,5.8824,-2.9557,7.8431,7.619,8.5079,13.333,17.391001,15.523,8.5668,-1.8413,9.8039,-3.0274
22.686001,20.063,19.511999,21.569,8.867,23.153999,11.594,12.557,2.8479,21.569,8.867,16.667,3.8095,7.5556,7.6461,22.222,15.523,1.8035,2.9206,1.9608,5.6683
20.790001,25.778,24.389999,22.549,19.704,29.007999,22.222,14.498,10.615,22.549,19.704,26.471001,-0.95238,3.746,2.9068,22.222,13.591,-0.12882,7.6825,-5.8824,7.6006
16.997999,27.683001,26.341,13.725,24.631001,28.033001,29.952,14.498,17.410999,13.725,24.631001,33.333,-2.8571,5.6508,-0.88468,21.256001,11.659,-1.095,10.54,-9.8039,4.7021
12.259,24.825001,23.415001,20.587999,29.556999,26.080999,34.783001,17.410999,19.353001,20.587999,29.556999,33.333,-3.8095,6.6032,-4.6761,17.391001,7.7939,0.83736,9.5873,-11.765,5.6683
3.7283,13.397,10.732,32.353001,20.690001,20.228001,26.087,16.440001,15.469,32.353001,20.690001,24.51,-5.7143,2.7937,-9.4155,6.7633,-0.90177,1.8035,8.6349,-12.745,0.83736
-1.0111,0.06349,-2.9268,17.646999,12.808,10.472,12.56,10.615,9.644,17.646999,12.808,10.784,-8.5714,-1.0159,-10.363,-4.8309,-8.6312,1.8035,6.7302,-9.8039,0.83736
-5.7504,-11.365,-10.732,7.8431,6.8966,3.6423,-0.96618,5.7605,3.8188,7.8431,6.8966,0.98039,-7.619,-5.7778,-8.4676,-13.527,-11.53,2.7697,-0.88889,-4.902,-3.0274
-10.49,-20.889,-16.584999,-0.98039,0.0,-4.1626,-14.493,-5.89,-4.9191,-0.98039,0.0,-7.8431,-3.8095,-8.6349,-4.6761,-20.290001,-13.462,-1.095,-8.5079,0.98039,-6.8921
-13.333,-28.507999,-18.537001,-9.8039,-4.9261,-11.967,-20.290001,-4.9191,-9.7735,-9.8039,-4.9261,-13.725,-1.9048,-11.492,1.0111,-23.188,-11.53,-0.12882,-12.317,3.9216,-12.689
-13.333,-25.650999,-14.634,-5.8824,-5.9113,-20.747999,-18.357,-3.9482,-7.8317,-5.8824,-5.9113,-16.667,3.8095,-8.6349,6.6983,-15.459,-3.8003,1.8035,-7.5556,9.8039,-7.8583
-11.438,-17.079,-11.707,-7.8431,-14.778,-23.674999,-20.290001,-11.715,-7.8317,-7.8431,-14.778,-21.569,9.5238,-0.06349,13.333,-3.8647,3.9291,1.8035,0.06349,16.667,4.7021
-7.6461,-10.413,-8.7805,-7.8431,-17.733999,-20.747999,-20.290001,-12.686,-11.715,-7.8431,-17.733999,-22.549,13.333,3.746,14.281,3.8647,7.7939,-0.12882,-1.8413,18.627001,1.8035
-1.9589,0.06349,-3.9024,-15.686,-15.764,-17.820999,-15.459,-10.744,-12.686,-15.686,-15.764,-18.627001,15.238,8.5079,15.229,13.527,12.625,-0.12882,-1.8413,18.627001,3.7359
7.5197,14.349,6.8293,-10.784,-7.8818,-8.065,-1.9324,-5.89,-4.9191,-10.784,-7.8818,-6.8627,16.190001,19.937,15.229,26.087,18.422001,3.7359,6.7302,15.686,15.33
13.207,19.111,12.683,-3.9216,-1.9704,2.6667,4.8309,-1.0356,1.877,-3.9216,-1.9704,0.98039,11.429,18.983999,10.49,28.986,18.422001,2.7697,8.6349,7.8431,16.296
18.893999,26.73,20.488001,4.902,5.9113,13.398,10.628,5.7605,10.615,4.902,5.9113,11.765,8.5714,17.079,7.6461,32.849998,20.354,5.6683,11.492,0.0,15.33
20.790001,31.492001,25.365999,9.8039,10.837,16.325001,15.459,9.644,13.528,9.8039,10.837,16.667,5.7143,19.937,5.7504,34.783001,20.354,3.7359,16.254,-3.9216,15.33
17.945999,31.492001,24.389999,13.725,10.837,14.374,18.357,7.7023,11.586,13.725,10.837,16.667,6.6667,18.032,4.8025,29.952,19.388,-3.9936,10.54,-5.8824,16.296
16.997999,25.778,21.462999,16.667,15.764,16.325001,23.188,6.7314,12.557,16.667,15.764,18.627001,5.7143,11.365,7.6461,20.290001,15.523,-2.0612,7.6825,-1.9608,12.432
16.051001,15.302,16.584999,15.686,18.719,19.252001,22.222,12.557,14.498,15.686,18.719,19.608,3.8095,5.6508,8.594,9.6618,9.7262,3.7359,4.8254,1.9608,7.6006
18.893999,9.5873,15.61,12.745,16.749001,24.129999,19.323999,17.410999,13.528,12.745,16.749001,20.587999,7.619,3.746,11.438,1.9324,7.7939,12.432,4.8254,9.8039,7.6006
19.841999,6.7302,15.61,15.686,17.733999,26.080999,16.424999,19.353001,15.469,15.686,17.733999,22.549,11.429,3.746,13.333,-1.9324,7.7939,15.33,7.6825,13.725,1.8035
11.311,-1.8413,6.8293,20.587999,17.733999,21.202999,11.594,18.382,10.615,20.587999,17.733999,17.646999,6.6667,-3.873,7.6461,-12.56,0.06441,15.33,1.9683,11.765,-9.7907
-0.06319,-11.365,-4.878,14.706,11.823,12.423,3.8647,13.528,3.8188,14.706,11.823,8.8235,0.0,-13.397,1.0111,-22.222,-9.5974,10.499,-4.6984,9.8039,-15.588
-11.438,-18.983999,-15.61,4.902,2.9557,-0.26016,-3.8647,5.7605,-2.0065,4.902,2.9557,-1.9608,-7.619,-19.111,-7.5197,-28.018999,-17.327,4.7021,-7.5556,1.9608,-18.486
-13.333,-20.889,-17.561001,3.9216,-0.98522,-5.1382,-6.7633,1.877,-2.9773,3.9216,-0.98522,-7.8431,-6.6667,-21.968,-6.5719,-25.121,-15.395,6.6345,-7.5556,2.9412,-25.25
-13.333,-19.937,-16.584999,-2.9412,0.0,-9.0407,-7.7295,-0.06472,-2.9773,-2.9412,0.0,-10.784,-7.619,-19.111,-7.5197,-18.357,-11.53,6.6345,-9.4603,-3.9216,-20.419001
-16.177,-18.032,-16.584999,-11.765,-8.867,-12.943,-12.56,-5.89,-8.8026,-11.765,-8.867,-15.686,-11.429,-10.54,-11.311,-9.6618,-9.5974,-3.9936,-6.6032,-12.745,-8.8245
-9.5419,-7.5556,-8.7805,2.9412,-1.9704,-10.016,-8.6957,-5.89,-3.9482,2.9412,-1.9704,-9.8039,-7.619,-2.9206,-6.5719,3.8647,-0.90177,-4.9597,1.0159,-15.686,3.7359
-1.9589,-2.7937,-1.9512,7.8431,0.98522,-5.1382,-4.8309,-0.06472,1.877,7.8431,0.98522,-5.8824,-1.9048,3.746,-2.7804,10.628,4.8953,-4.9597,2.9206,-16.667,-1.095
1.8325,-2.7937,-0.97561,-1.9608,-3.9409,-3.187,-8.6957,-1.0356,0.90615,-1.9608,-3.9409,-5.8824,4.7619,10.413,1.0111,14.493,8.7601,-1.095,3.873,-9.8039,5.6683
0.88468,-3.746,-2.9268,-4.902,-5.9113,-5.1382,-10.628,-2.9773,-4.9191,-4.902,-5.9113,-10.784,7.619,17.079,2.9068,16.424999,8.7601,-3.9936,2.9206,-4.902,14.364
1.8325,-1.8413,-0.97561,-4.902,-8.867,-8.065,-9.6618,-3.9482,-8.8026,-4.902,-8.867,-10.784,6.6667,17.079,4.8025,16.424999,9.7262,-6.8921,0.06349,-1.9608,15.33
1.8325,0.06349,0.97561,-12.745,-10.837,-8.065,-8.6957,-5.89,-6.8608,-12.745,-10.837,-9.8039,6.6667,13.27,1.9589,13.527,7.7939,-12.689,1.0159,-4.902,15.33
5.624,3.873,5.8537,-10.784,-9.8522,-0.26016,-5.7971,-4.9191,-5.89,-10.784,-9.8522,-4.902,8.5714,12.317,1.9589,13.527,8.7601,-8.8245,0.06349,0.98039,10.499
13.207,12.444,14.634,-0.98039,-3.9409,9.4959,2.8986,1.877,-2.9773,-0.98039,-3.9409,5.8824,14.286,15.175,9.5419,17.391001,14.557,0.83736,1.9683,12.745,13.398
13.207,16.254,17.561001,4.902,0.0,12.423,10.628,3.8188,-2.9773,4.902,0.0,12.745,14.286,14.222,8.594,16.424999,12.625,4.7021,3.873,9.8039,14.364
16.997999,20.063,21.462999,4.902,9.8522,21.202999,21.256001,7.7023,2.8479,4.902,9.8522,23.528999,12.381,10.413,12.385,14.493,13.591,11.465,5.7778,11.765,10.499
16.051001,20.063,18.537001,12.745,7.8818,22.179001,22.222,11.586,5.7605,12.745,7.8818,24.51,7.619,3.746,10.49,9.6618,8.7601,12.432,6.7302,11.765,6.6345
11.311,16.254,13.659,20.587999,11.823,18.275999,20.290001,16.440001,7.7023,20.587999,11.823,23.528999,2.8571,1.8413,4.8025,5.7971,2.963,9.533,7.6825,3.9216,6.6345
6.5719,9.5873,7.8049,20.587999,17.733999,18.275999,18.357,18.382,9.644,20.587999,17.733999,21.569,-4.7619,-6.7302,-3.7283,-1.9324,-4.7665,14.364,2.9206,-3.9216,-5.9259
-0.06319,6.7302,2.9268,21.569,17.733999,16.325001,20.290001,18.382,10.615,21.569,17.733999,20.587999,-14.286,-15.302,-14.155,-9.6618,-13.462,9.533,2.9206,-15.686,-16.554001
0.88468,9.5873,5.8537,21.569,21.674999,18.275999,26.087,19.353001,15.469,21.569,21.674999,25.49,-14.286,-11.492,-13.207,-8.6957,-11.53,7.6006,4.8254,-15.686,-15.588
-0.06319,6.7302,5.8537,20.587999,22.66,16.325001,22.222,15.469,14.498,20.587999,22.66,24.51,-16.190001,-14.349,-11.311,-10.628,-10.564,5.6683,1.0159,-14.706,-12.689
-3.8547,1.9683,0.97561,20.587999,18.719,10.472,12.56,11.586,9.644,20.587999,18.719,14.706,-13.333,-14.349,-9.4155,-11.594,-9.5974,5.6683,-4.6984,-10.784,-13.655
-8.594,-2.7937,-6.8293,7.8431,6.8966,-0.26016,1.9324,4.7896,5.7605,7.8431,6.8966,2.9412,-5.7143,-7.6825,-6.5719,-8.6957,-8.6312,-2.0612,-2.7937,-3.9216,-6.8921
-11.438,-8.5079,-12.683,-9.8039,-5.9113,-12.943,-9.6618,-7.8317,-2.9773,-9.8039,-5.9113,-9.8039,-0.95238,-3.873,-3.7283,-8.6957,-7.6651,-6.8921,-2.7937,-3.9216,-4.9597
-1.0111,-6.6032,-5.8537,-11.765,-5.9113,-8.065,-6.7633,-5.89,-6.8608,-11.765,-5.9113,-9.8039,9.5238,2.7937,10.49,-0.96618,3.9291,-0.12882,-1.8413,10.784,2.7697
1.8325,-8.5079,-5.8537,-9.8039,-9.8522,-9.0407,-12.56,-2.9773,-11.715,-9.8039,-9.8522,-12.745,16.190001,4.6984,17.125,0.0,6.8277,5.6683,-3.746,22.549,2.7697
-2.9068,-15.175,-12.683,-14.706,-16.749001,-14.894,-25.121,-4.9191,-15.599,-14.706,-16.749001,-20.587999,18.094999,5.6508,15.229,-1.9324,3.9291,7.6006,-5.6508,30.392,-2.0612
-3.8547,-14.222,-14.634,-23.528999,-22.66,-18.797001,-28.018999,-9.7735,-19.482,-23.528999,-22.66,-25.49,17.143,9.4603,12.385,0.0,2.963,4.7021,-3.746,29.412001,0.83736
4.6761,-5.6508,-3.9024,-13.725,-16.749001,-9.0407,-18.357,-2.9773,-16.57,-13.725,-16.749001,-16.667,20.0,10.413,15.229,5.7971,7.7939,12.432,-5.6508,30.392,3.7359
8.4676,1.0159,2.9268,-5.8824,-12.808,-7.0894,-10.628,1.877,-14.628,-5.8824,-12.808,-9.8039,19.048,9.4603,12.385,8.6957,8.7601,16.296,-7.5556,29.412001,5.6683
8.4676,6.7302,6.8293,0.0,-1.9704,-4.1626,0.0,6.7314,-6.8608,0.0,-1.9704,-2.9412,13.333,9.4603,5.7504,10.628,6.8277,14.364,-4.6984,20.587999,8.5668
3.7283,10.54,6.8293,1.9608,0.0,-0.26016,5.7971,3.8188,-4.9191,1.9608,0.0,1.9608,1.9048,3.746,-8.4676,8.6957,0.06441,4.7021,-3.746,3.9216,4.7021
5.624,20.063,13.659,2.9412,3.9409,7.5447,12.56,5.7605,1.877,2.9412,3.9409,8.8235,-2.8571,6.6032,-10.363,13.527,1.9968,-1.095,4.8254,-1.9608,6.6345
8.4676,24.825001,19.511999,11.765,13.793,15.35,22.222,7.7023,9.644,11.765,13.793,19.608,-4.7619,7.5556,-8.4676,16.424999,4.8953,-1.095,8.6349,-10.784,12.432
7.5197,22.921,19.511999,13.725,15.764,17.301001,24.155001,10.615,13.528,13.725,15.764,22.549,-6.6667,-0.06349,-6.5719,12.56,3.9291,0.83736,4.8254,-14.706,2.7697
5.624,18.159,14.634,12.745,20.690001,13.398,21.256001,12.557,11.586,12.745,20.690001,20.587999,-6.6667,-3.873,-3.7283,8.6957,2.963,-0.12882,1.9683,-8.8235,-6.8921
-0.06319,15.302,9.7561,5.8824,12.808,6.5691,13.527,4.7896,9.644,5.8824,12.808,10.784,-5.7143,-1.0159,-3.7283,8.6957,2.963,-9.7907,1.0159,-14.706,-5.9259
2.7804,14.349,9.7561,0.98039,6.8966,5.5935,12.56,4.7896,10.615,0.98039,6.8966,7.8431,-0.95238,8.5079,4.8025,12.56,8.7601,-4.9597,6.7302,-14.706,-0.12882
0.88468,10.54,5.8537,0.98039,4.9261,0.71545,3.8647,1.877,7.7023,0.98039,4.9261,2.9412,1.9048,8.5079,8.594,10.628,8.7601,-0.12882,7.6825,-13.725,7.6006
-3.8547,3.873,0.0,-3.9216,1.9704,-8.065,-0.96618,-4.9191,4.7896,-3.9216,1.9704,-4.902,3.8095,5.6508,6.6983,5.7971,5.8615,-8.8245,4.8254,-12.745,6.6345
-9.5419,-3.746,-7.8049,-8.8235,-4.9261,-15.87,-5.7971,-5.89,1.877,-8.8235,-4.9261,-11.765,3.8095,3.746,2.9068,-1.9324,-0.90177,-6.8921,3.873,-10.784,4.7021
-17.125,-18.032,-20.488001,-21.569,-12.808,-20.747999,-18.357,-10.744,-7.8317,-21.569,-12.808,-21.569,-2.8571,-6.7302,-4.6761,-16.424999,-12.496,-4.9597,0.06349,-9.8039,-3.9936
-17.125,-28.507999,-27.316999,-15.686,-14.778,-16.846001,-27.052999,-14.628,-12.686,-15.686,-14.778,-24.51,-4.7619,-9.5873,-6.5719,-24.155001,-17.327,-1.095,-4.6984,-0.98039,-3.9936
-19.968,-37.078999,-31.219999,-10.784,-17.733999,-15.87,-31.884001,-9.7735,-16.57,-10.784,-17.733999,-27.451,-7.619,-13.397,-12.259,-30.917999,-23.124001,-0.12882,-13.27,0.0,-12.689
-22.812,-40.889,-34.146,-10.784,-20.690001,-21.724001,-34.783001,-6.8608,-18.511,-10.784,-20.690001,-30.392,-14.286,-21.016001,-19.841999,-38.646999,-29.886999,-0.12882,-16.127001,0.0,-18.486
-22.812,-41.841,-34.146,-14.706,-21.674999,-22.698999,-35.749001,-9.7735,-22.395,-14.706,-21.674999,-29.412001,-21.905001,-27.683001,-24.580999,-44.444,-35.683998,-1.095,-17.079,-1.9608,-15.588
-16.177,-38.032001,-28.292999,-9.8039,-18.719,-10.992,-29.952,-4.9191,-21.424,-9.8039,-18.719,-21.569,-26.667,-34.348999,-24.580999,-44.444,-34.717999,-2.0612,-17.079,-5.8824,-18.486
-8.594,-27.556,-17.561001,-2.9412,-9.8522,-1.2358,-19.323999,1.877,-12.686,-2.9412,-9.8522,-10.784,-21.905001,-28.635,-20.790001,-33.816002,-26.023001,-1.095,-12.317,-4.902,-12.689
1.8325,-16.127001,-6.8293,7.8431,-1.9704,6.5691,-8.6957,6.7314,-6.8608,7.8431,-1.9704,-0.98039,-14.286,-18.159,-12.259,-21.256001,-14.428,1.8035,-7.5556,-2.9412,-7.8583
1.8325,-9.4603,-2.9268,0.98039,-6.8966,6.5691,-5.7971,-2.9773,-6.8608,0.98039,-6.8966,0.98039,-12.381,-12.444,-10.363,-12.56,-9.5974,-5.9259,-6.6032,-7.8431,-2.0612
3.7283,0.06349,4.878,0.0,0.0,6.5691,3.8647,-3.9482,0.90615,0.0,0.0,7.8431,-6.6667,-5.7778,-4.6761,-2.8986,-0.90177,-6.8921,-1.8413,-7.8431,-2.0612
8.4676,13.397,13.659,4.902,7.8818,11.447,13.527,0.90615,8.6731,4.902,7.8818,14.706,1.9048,4.6984,2.9068,10.628,8.7601,-1.095,6.7302,-4.902,2.7697
9.4155,25.778,18.537001,4.902,14.778,13.398,22.222,-0.06472,17.410999,4.902,14.778,18.627001,7.619,18.032,6.6983,26.087,17.455999,-7.8583,21.016001,-2.9412,18.229
4.6761,23.872999,14.634,4.902,17.733999,8.5203,21.256001,-1.0356,20.323999,4.902,17.733999,15.686,9.5238,18.983999,5.7504,25.121,16.49,-12.689,20.063,-4.902,16.296
-3.8547,17.205999,5.8537,6.8627,15.764,-0.26016,19.323999,-2.9773,17.410999,6.8627,15.764,10.784,7.619,15.175,1.0111,16.424999,8.7601,-10.757,14.349,-9.8039,9.533
-14.281,8.6349,-3.9024,-8.8235,7.8818,-10.992,11.594,-10.744,15.469,-8.8235,7.8818,2.9412,0.95238,6.6032,-4.6761,3.8647,-2.8341,-13.655,13.397,-8.8235,4.7021
-17.125,2.9206,-8.7805,-14.706,2.9557,-15.87,6.7633,-14.628,14.498,-14.706,2.9557,-1.9608,-3.8095,-0.06349,-7.5197,-4.8309,-10.564,-10.757,12.444,-0.98039,5.6683
-20.916,-4.6984,-14.634,-15.686,0.0,-18.797001,1.9324,-15.599,7.7023,-15.686,0.0,-7.8431,-10.476,-8.6349,-15.103,-14.493,-20.225,-10.757,7.6825,-6.8627,4.7021
-21.864,-10.413,-17.561001,-13.725,-0.98522,-17.820999,-1.9324,-20.452999,1.877,-13.725,-0.98522,-10.784,-14.286,-15.302,-19.841999,-22.222,-24.09,-12.689,2.9206,-8.8235,-0.12882
-15.229,-5.6508,-11.707,0.0,0.98522,-11.967,2.8986,-9.7735,3.8188,0.0,0.98522,-4.902,-10.476,-10.54,-16.051001,-17.391001,-18.292999,-8.8245,1.9683,-0.98039,-4.9597
-9.5419,-4.6984,-9.7561,-8.8235,-3.9409,-10.992,0.96618,-3.9482,1.877,-8.8235,-3.9409,-5.8824,-7.619,-7.6825,-8.4676,-11.594,-11.53,-3.9936,-2.7937,2.9412,-4.9597
-2.9068,-1.8413,-3.9024,-19.608,-5.9113,-10.992,-3.8647,-9.7735,-1.0356,-19.608,-5.9113,-6.8627,-0.95238,-1.9683,-0.88468,-1.9324,-1.868,-6.8921,-3.746,0.0,0.83736
2.7804,1.0159,1.9512,-17.646999,-9.8522,-7.0894,-8.6957,-10.744,-5.89,-17.646999,-9.8522,-7.8431,4.7619,5.6508,4.8025,6.7633,7.7939,-7.8583,-4.6984,-0.98039,4.7021
5.624,2.9206,5.8537,-12.745,-10.837,-4.1626,-7.7295,-10.744,-6.8608,-12.745,-10.837,-7.8431,6.6667,10.413,9.5419,12.56,12.625,-4.9597,-1.8413,0.98039,14.364
9.4155,3.873,6.8293,-12.745,-8.867,-4.1626,-5.7971,-9.7735,-6.8608,-12.745,-8.867,-5.8824,8.5714,11.365,15.229,15.459,16.49,-0.12882,-2.7937,4.902,6.6345
11.311,3.873,8.7805,-16.667,-8.867,-1.2358,-2.8986,-9.7735,-7.8317,-16.667,-8.867,-4.902,8.5714,13.27,17.125,15.459,18.422001,5.6683,-3.746,5.8824,1.8035
17.945999,9.5873,17.561001,2.9412,-1.9704,5.5935,1.9324,-0.06472,-2.0065,2.9412,-1.9704,3.9216,14.286,18.032,20.916,19.323999,25.184999,12.432,-0.88889,10.784,1.8035
17.945999,10.54,19.511999,14.706,0.98522,10.472,3.8647,-2.0065,-0.06472,14.706,0.98522,8.8235,10.476,9.4603,16.177,15.459,21.32,6.6345,2.9206,9.8039,-6.8921
17.945999,10.54,18.537001,10.784,9.8522,17.301001,8.6957,3.8188,6.7314,10.784,9.8522,13.725,4.7619,9.4603,11.438,13.527,16.49,4.7021,3.873,5.8824,-3.9936
12.259,6.7302,12.683,17.646999,14.778,15.35,9.6618,11.586,11.586,17.646999,14.778,15.686,0.0,0.88889,4.8025,5.7971,7.7939,0.83736,3.873,-0.98039,1.8035
3.7283,0.06349,4.878,19.608,16.749001,14.374,11.594,13.528,11.586,19.608,16.749001,13.725,-8.5714,-12.444,-6.5719,-7.7295,-4.7665,-1.095,2.9206,-9.8039,-5.9259
3.7283,-3.746,2.9268,24.51,18.719,20.228001,16.424999,17.410999,14.498,24.51,18.719,17.646999,-17.143,-21.016001,-14.155,-15.459,-13.462,2.7697,2.9206,-13.725,-9.7907
1.8325,-7.5556,-0.97561,20.587999,13.793,20.228001,9.6618,19.353001,11.586,20.587999,13.793,13.725,-21.905001,-25.778,-16.051001,-19.323999,-18.292999,7.6006,1.0159,-8.8235,-11.723
-4.8025,-10.413,-8.7805,14.706,7.8818,9.4959,1.9324,10.615,4.7896,14.706,7.8818,3.9216,-19.048,-23.872999,-16.051001,-19.323999,-19.259001,1.8035,-3.746,-2.9412,-14.622
-12.385,-11.365,-15.61,2.9412,-0.98522,-4.1626,-5.7971,-0.06472,-3.9482,2.9412,-0.98522,-7.8431,-14.286,-18.159,-16.051001,-18.357,-18.292999,-3.9936,-10.413,-0.98039,-13.655
-15.229,-10.413,-17.561001,-12.745,-7.8818,-16.846001,-11.594,-11.715,-10.744,-12.745,-7.8818,-15.686,-8.5714,-11.492,-13.207,-15.459,-15.395,-8.8245,-11.365,-1.9608,-5.9259
-9.5419,-0.88889,-10.732,-17.646999,-9.8522,-16.846001,-8.6957,-12.686,-7.8317,-17.646999,-9.8522,-13.725,2.8571,1.8413,-0.88468,-2.8986,-2.8341,-5.9259,-0.88889,5.8824,1.8035
-5.7504,-1.8413,-8.7805,-16.667,-15.764,-15.87,-12.56,-11.715,-8.8026,-16.667,-15.764,-14.706,11.429,13.27,6.6983,2.8986,4.8953,-3.0274,-3.746,11.765,11.465
-2.9068,-4.6984,-6.8293,-20.587999,-16.749001,-12.943,-14.493,-10.744,-9.7735,-20.587999,-16.749001,-14.706,16.190001,16.127001,11.438,6.7633,9.7262,-0.12882,-5.6508,13.725,11.465
2.7804,-0.88889,-1.9512,-8.8235,-15.764,-8.065,-14.493,-8.8026,-11.715,-8.8235,-15.764,-10.784,18.094999,18.983999,16.177,11.594,13.591,9.533,-2.7937,12.745,10.499
7.5197,7.6825,3.9024,-8.8235,-9.8522,-6.1138,-6.7633,-7.8317,-9.7735,-8.8235,-9.8522,-3.9216,16.190001,18.983999,17.125,17.391001,16.49,3.7359,1.9683,10.784,19.195
10.363,15.302,12.683,-10.784,-7.8818,-2.2114,3.8647,-7.8317,-5.89,-10.784,-7.8818,3.9216,14.286,18.032,14.281,22.222,18.422001,-4.9597,6.7302,2.9412,20.160999
17.945999,21.016001,21.462999,-4.902,-1.9704,6.5691,13.527,1.877,0.90615,-4.902,-1.9704,14.706,13.333,18.032,14.281,24.155001,19.388,3.7359,6.7302,2.9412,4.7021
20.790001,21.016001,25.365999,-0.98039,7.8818,15.35,20.290001,4.7896,6.7314,-0.98039,7.8818,23.528999,7.619,11.365,12.385,20.290001,17.455999,4.7021,5.7778,0.98039,-3.0274
19.841999,19.111,25.365999,16.667,10.837,22.179001,19.323999,6.7314,10.615,16.667,10.837,29.412001,2.8571,6.6032,9.5419,15.459,13.591,5.6683,9.5873,-1.9608,-0.12882
16.051001,15.302,22.438999,19.608,15.764,24.129999,21.256001,12.557,13.528,19.608,15.764,31.372999,-0.95238,-0.06349,5.7504,7.7295,8.7601,0.83736,6.7302,-1.9608,-2.0612
11.311,11.492,16.584999,20.587999,23.645,22.179001,28.018999,12.557,15.469,20.587999,23.645,31.372999,-3.8095,-1.0159,0.06319,1.9324,1.0306,-0.12882,5.7778,-4.902,-0.12882
5.624,7.6825,9.7561,19.608,19.704,14.374,27.052999,9.644,18.382,19.608,19.704,25.49,-4.7619,-4.8254,-3.7283,-2.8986,-5.7327,-3.0274,9.5873,-6.8627,2.7697
1.8325,5.7778,4.878,16.667,16.749001,11.447,22.222,7.7023,16.440001,16.667,16.749001,18.627001,-1.9048,-1.9683,-1.8325,-1.9324,-4.7665,-2.0612,9.5873,0.0,7.6006
-8.594,-4.6984,-5.8537,4.902,6.8966,-1.2358,8.6957,1.877,10.615,4.902,6.8966,2.9412,0.0,-1.0159,-2.7804,-4.8309,-6.6989,-0.12882,4.8254,2.9412,-0.12882
-16.177,-16.127001,-15.61,-3.9216,-3.9409,-11.967,-5.7971,-2.9773,2.8479,-3.9216,-3.9409,-12.745,3.8095,-1.0159,-2.7804,-7.7295,-7.6651,1.8035,-3.746,6.8627,-11.723
-16.177,-22.794001,-19.511999,-9.8039,-10.837,-18.797001,-14.493,-7.8317,-6.8608,-9.8039,-10.837,-20.587999,3.8095,1.8413,-0.88468,-8.6957,-6.6989,-1.095,-9.4603,6.8627,-6.8921
-10.49,-19.937,-17.561001,-15.686,-16.749001,-16.846001,-20.290001,-4.9191,-14.628,-15.686,-16.749001,-24.51,5.7143,5.6508,1.9589,-5.7971,-3.8003,-0.12882,-11.365,6.8627,-3.0274
-1.0111,-12.317,-10.732,-10.784,-17.733999,-11.967,-20.290001,-0.06472,-15.599,-10.784,-17.733999,-21.569,9.5238,7.5556,9.5419,0.96618,2.963,9.533,-10.413,13.725,4.7021
-1.0111,-4.6984,-7.8049,-13.725,-20.690001,-12.943,-18.357,-1.0356,-14.628,-13.725,-20.690001,-22.549,8.5714,10.413,10.49,6.7633,5.8615,10.499,-7.5556,12.745,12.432
-3.8547,2.9206,-5.8537,-20.587999,-17.733999,-16.846001,-11.594,-4.9191,-10.744,-20.587999,-17.733999,-21.569,4.7619,10.413,4.8025,9.6618,4.8953,3.7359,-1.8413,0.98039,12.432
-3.8547,5.7778,-4.878,-14.706,-14.778,-13.919,-10.628,-5.89,-7.8317,-14.706,-14.778,-19.608,2.8571,5.6508,1.0111,9.6618,3.9291,-2.0612,1.9683,0.0,8.5668
0.88468,7.6825,0.0,-6.8627,-9.8522,-6.1138,-8.6957,-4.9191,-3.9482,-6.8627,-9.8522,-12.745,3.8095,6.6032,1.0111,11.594,3.9291,-2.0612,4.8254,3.9216,12.432
7.5197,14.349,7.8049,-3.9216,-4.9261,-0.26016,-2.8986,-0.06472,-0.06472,-3.9216,-4.9261,-3.9216,5.7143,10.413,5.7504,16.424999,7.7939,4.7021,6.7302,7.8431,13.398
12.259,15.302,12.683,-3.9216,-6.8966,2.6667,0.96618,-2.0065,-2.0065,-3.9216,-6.8966,1.9608,3.8095,6.6032,8.594,16.424999,9.7262,5.6683,5.7778,3.9216,10.499
16.051001,20.063,17.561001,-5.8824,-3.9409,9.4959,6.7633,-3.9482,2.8479,-5.8824,-3.9409,9.8039,6.6667,10.413,11.438,18.357,12.625,4.7021,6.7302,1.9608,7.6006
15.103,20.063,18.537001,2.9412,0.98522,12.423,11.594,1.877,4.7896,2.9412,0.98522,16.667,7.619,9.4603,10.49,16.424999,13.591,1.8035,6.7302,-1.9608,3.7359
16.051001,21.968,22.438999,16.667,11.823,19.252001,21.256001,11.586,9.644,16.667,11.823,24.51,10.476,7.5556,14.281,18.357,15.523,-2.0612,7.6825,4.902,7.6006
11.311,17.205999,19.511999,16.667,15.764,18.275999,21.256001,10.615,11.586,16.667,15.764,22.549,10.476,8.5079,12.385,16.424999,14.557,-3.0274,4.8254,3.9216,3.7359
1.8325,2.9206,6.8293,6.8627,8.867,3.6423,6.7633,1.877,4.7896,6.8627,8.867,9.8039,7.619,7.5556,5.7504,6.7633,7.7939,-3.9936,-1.8413,0.0,-3.0274
-1.9589,-3.746,-0.97561,1.9608,5.9113,-2.2114,0.96618,0.90615,3.8188,1.9608,5.9113,0.98039,6.6667,7.5556,3.8547,2.8986,3.9291,1.8035,1.0159,3.9216,-4.9597
-6.6983,-9.4603,-6.8293,7.8431,4.9261,-4.1626,-2.8986,1.877,2.8479,7.8431,4.9261,-1.9608,6.6667,7.5556,2.9068,-0.96618,0.06441,3.7359,-3.746,12.745,-3.9936
-14.281,-17.079,-13.659,12.745,0.98522,-7.0894,-6.7633,3.8188,-2.0065,12.745,0.98522,-6.8627,1.9048,-1.9683,-4.6761,-8.6957,-7.6651,3.7359,-9.4603,5.8824,-7.8583
-15.229,-18.983999,-15.61,2.9412,0.0,-7.0894,-11.594,4.7896,-4.9191,2.9412,0.0,-8.8235,0.0,-6.7302,-9.4155,-11.594,-10.564,6.6345,-10.413,1.9608,-6.8921
-7.6461,-18.032,-12.683,2.9412,0.98522,-1.2358,-12.56,6.7314,-3.9482,2.9412,0.98522,-6.8627,0.0,-7.6825,-8.4676,-12.56,-10.564,4.7021,-9.4603,3.9216,-3.9936
0.88468,-13.27,-5.8537,8.8235,5.9113,5.5935,-7.7295,6.7314,-0.06472,8.8235,5.9113,-0.98039,0.0,-8.6349,-4.6761,-11.594,-7.6651,7.6006,-5.6508,1.9608,-10.757
10.363,-4.6984,2.9268,10.784,5.9113,13.398,0.0,12.557,2.8479,10.784,5.9113,6.8627,1.9048,-6.7302,1.9589,-5.7971,-1.868,14.364,-3.746,6.8627,-14.622
18.893999,3.873,11.707,11.765,10.837,17.301001,10.628,15.469,6.7314,11.765,10.837,14.706,5.7143,-1.9683,8.594,1.9324,4.8953,15.33,1.9683,11.765,-5.9259
18.893999,3.873,10.732,4.902,5.9113,13.398,6.7633,12.557,2.8479,4.902,5.9113,10.784,4.7619,-1.0159,8.594,2.8986,4.8953,14.364,2.9206,9.8039,0.83736
16.051001,4.8254,9.7561,10.784,1.9704,11.447,4.8309,10.615,1.877,10.784,1.9704,6.8627,4.7619,5.6508,10.49,5.7971,6.8277,17.261999,4.8254,11.765,4.7021
8.4676,7.6825,8.7805,11.765,7.8818,7.5447,4.8309,11.586,4.7896,11.765,7.8818,4.902,4.7619,1.8413,10.49,8.6957,7.7939,16.296,5.7778,11.765,6.6345
-3.8547,8.6349,3.9024,8.8235,2.9557,1.6911,3.8647,3.8188,1.877,8.8235,2.9557,1.9608,3.8095,-0.06349,3.8547,8.6957,4.8953,4.7021,3.873,2.9412,8.5668
-7.6461,11.492,2.9268,-3.9216,0.0,-4.1626,3.8647,-2.0065,-0.06472,-3.9216,0.0,-0.98039,4.7619,5.6508,-1.8325,12.56,3.9291,-3.0274,4.8254,-0.98039,13.398
-4.8025,8.6349,1.9512,-9.8039,0.98522,-4.1626,2.8986,-7.8317,-2.0065,-9.8039,0.98522,-0.98039,4.7619,8.5079,-3.7283,10.628,2.963,-8.8245,3.873,0.0,9.533
-4.8025,-0.88889,-0.97561,-7.8431,-3.9409,-6.1138,-0.96618,-11.715,-4.9191,-7.8431,-3.9409,-2.9412,4.7619,10.413,-4.6761,5.7971,1.0306,-12.689,-0.88889,-0.98039,7.6006
-8.594,-12.317,-8.7805,-3.9216,-6.8966,-9.0407,-6.7633,-13.657,-5.89,-3.9216,-6.8966,-6.8627,-0.95238,3.746,-9.4155,-3.8647,-4.7665,-11.723,-1.8413,-2.9412,1.8035
-9.5419,-17.079,-10.732,-2.9412,-4.9261,-10.992,-3.8647,-10.744,-2.0065,-2.9412,-4.9261,-7.8431,-1.9048,-0.06349,-8.4676,-9.6618,-6.6989,-9.7907,-4.6984,-2.9412,-2.0612
-10.49,-18.983999,-11.707,-12.745,-0.98522,-14.894,-7.7295,-11.715,-3.9482,-12.745,-0.98522,-10.784,-1.9048,-4.8254,-7.5197,-14.493,-7.6651,-12.689,-8.5079,-3.9216,-4.9597
-13.333,-16.127001,-11.707,-17.646999,-3.9409,-16.846001,-12.56,-13.657,-8.8026,-17.646999,-3.9409,-13.725,-1.9048,-4.8254,-5.624,-13.527,-6.6989,-11.723,-8.5079,-2.9412,-7.8583
-21.864,-15.175,-16.584999,-11.765,-3.9409,-20.747999,-12.56,-11.715,-1.0356,-11.765,-3.9409,-17.646999,-6.6667,-11.492,-11.311,-18.357,-12.496,-12.689,-4.6984,-12.745,-4.9597
-27.551001,-20.889,-23.415001,-9.8039,-9.8522,-24.65,-15.459,-11.715,3.8188,-9.8039,-9.8522,-22.549,-17.143,-21.968,-17.945999,-26.087,-19.259001,-12.689,-3.746,-20.587999,-10.757
-16.177,-16.127001,-15.61,-9.8039,-12.808,-17.820999,-11.594,-5.89,6.7314,-9.8039,-12.808,-17.646999,-17.143,-19.111,-11.311,-21.256001,-13.462,-2.0612,-0.88889,-17.646999,-12.689
-9.5419,-12.317,-11.707,-13.725,-12.808,-11.967,-10.628,0.90615,7.7023,-13.725,-12.808,-13.725,-17.143,-19.111,-8.4676,-18.357,-11.53,-0.12882,0.06349,-13.725,-8.8245
-6.6983,-10.413,-10.732,-15.686,-20.690001,-9.0407,-13.527,0.90615,3.8188,-15.686,-20.690001,-14.706,-14.286,-15.302,-7.5197,-15.459,-10.564,-1.095,-2.7937,-11.765,-9.7907
-1.0111,-3.746,-5.8537,-16.667,-25.615999,-8.065,-12.56,-1.0356,1.877,-16.667,-25.615999,-13.725,-10.476,-10.54,-4.6761,-7.7295,-6.6989,-0.12882,1.9683,-10.784,-8.8245
-1.9589,0.06349,-4.878,-20.587999,-22.66,-9.0407,-13.527,-5.89,-0.06472,-20.587999,-22.66,-15.686,-10.476,-9.5873,-4.6761,-2.8986,-5.7327,-3.9936,4.8254,-7.8431,-7.8583
2.7804,7.6825,0.97561,-12.745,-22.66,-2.2114,-8.6957,-2.9773,0.90615,-12.745,-22.66,-10.784,-1.9048,0.88889,1.0111,6.7633,1.0306,-0.12882,7.6825,-0.98039,1.8035
0.88468,6.7302,0.0,-24.51,-28.570999,-5.1382,-11.594,-7.8317,-2.0065,-24.51,-28.570999,-11.765,0.95238,2.7937,2.9068,7.7295,1.9968,-1.095,4.8254,0.0,1.8035
-0.06319,1.9683,-0.97561,-27.451,-19.704,-10.016,-9.6618,-13.657,-5.89,-27.451,-19.704,-10.784,1.9048,-0.06349,2.9068,2.8986,1.0306,-3.0274,2.9206,5.8824,0.83736
-0.06319,-1.8413,0.0,-16.667,-17.733999,-5.1382,-5.7971,-13.657,-2.9773,-16.667,-17.733999,-6.8627,0.95238,-1.9683,-0.88468,-0.96618,-0.90177,-2.0612,1.9683,0.0,2.7697
-1.0111,-5.6508,-0.97561,-10.784,-11.823,0.71545,-1.9324,-10.744,-0.06472,-10.784,-11.823,-1.9608,0.0,-1.0159,-3.7283,-3.8647,-1.868,-2.0612,1.0159,-3.9216,-1.095
-4.8025,-6.6032,-1.9512,-15.686,-12.808,-0.26016,-2.8986,-9.7735,-2.0065,-15.686,-12.808,-2.9412,-2.8571,-2.9206,-4.6761,-5.7971,-3.8003,-5.9259,0.06349,-0.98039,-3.0274
-4.8025,-3.746,0.0,-19.608,-13.793,-2.2114,-1.9324,-7.8317,-2.9773,-19.608,-13.793,-0.98039,-3.8095,-4.8254,-5.624,-4.8309,-2.8341,-7.8583,-0.88889,-4.902,0.83736
-4.8025,-4.6984,-1.9512,-10.784,-12.808,-5.1382,-0.96618,-9.7735,-3.9482,-10.784,-12.808,-2.9412,-4.7619,-3.873,-6.5719,-5.7971,-3.8003,-10.757,-6.6032,-11.765,-2.0612
-1.9589,0.06349,-1.9512,-7.8431,-8.867,-7.0894,0.96618,-9.7735,-1.0356,-7.8431,-8.867,-3.9216,-3.8095,-0.06349,-2.7804,0.0,1.0306,-7.8583,-1.8413,-11.765,0.83736
2.7804,1.0159,0.0,-13.725,-5.9113,-3.187,0.0,-7.8317,-2.0065,-13.725,-5.9113,-3.9216,-0.95238,5.6508,3.8547,3.8647,4.8953,-4.9597,-1.8413,-3.9216,5.6683
-0.06319,-1.8413,-0.97561,-12.745,-3.9409,-5.1382,-2.8986,-6.8608,-1.0356,-12.745,-3.9409,-5.8824,0.0,9.4603,3.8547,2.8986,3.9291,-4.9597,-3.746,-1.9608,4.7021
-2.9068,-2.7937,-2.9268,-8.8235,-5.9113,-9.0407,-4.8309,-5.89,0.90615,-8.8235,-5.9113,-6.8627,1.9048,8.5079,1.0111,2.8986,2.963,-4.9597,0.06349,-0.98039,6.6345
-3.8547,-4.6984,-4.878,-6.8627,-9.8522,-10.992,-7.7295,-5.89,-1.0356,-6.8627,-9.8522,-9.8039,2.8571,5.6508,0.06319,0.0,1.0306,-8.8245,0.06349,1.9608,2.7697
-6.6983,-8.5079,-8.7805,-2.9412,-13.793,-10.992,-9.6618,-6.8608,-4.9191,-2.9412,-13.793,-12.745,-2.8571,-0.06349,-5.624,-5.7971,-5.7327,-5.9259,-1.8413,-5.8824,-2.0612
-9.5419,-9.4603,-11.707,-3.9216,-9.8522,-9.0407,-10.628,-5.89,-4.9191,-3.9216,-9.8522,-11.765,-7.619,-3.873,-10.363,-9.6618,-10.564,-3.9936,-3.746,-8.8235,0.83736
-6.6983,-8.5079,-10.732,-3.9216,1.9704,-6.1138,-5.7971,-1.0356,-0.06472,-3.9216,1.9704,-7.8431,-4.7619,-4.8254,-6.5719,-9.6618,-8.6312,0.83736,-3.746,-4.902,-6.8921
-8.594,-12.317,-13.659,-4.902,0.0,-6.1138,-7.7295,2.8479,0.90615,-4.902,0.0,-8.8235,-5.7143,-7.6825,-7.5197,-12.56,-10.564,-2.0612,-4.6984,-6.8627,-12.689
-7.6461,-11.365,-12.683,-0.98039,-1.9704,-5.1382,-6.7633,5.7605,0.90615,-0.98039,-1.9704,-7.8431,-1.9048,-6.7302,-5.624,-12.56,-9.5974,-3.0274,-2.7937,-2.9412,-10.757
-2.9068,-8.5079,-11.707,5.8824,0.0,-2.2114,-5.7971,5.7605,0.90615,5.8824,0.0,-5.8824,0.95238,-6.7302,-0.88468,-9.6618,-6.6989,1.8035,-0.88889,5.8824,-1.095
-4.8025,-10.413,-13.659,0.98039,-5.9113,-3.187,-4.8309,1.877,-2.0065,0.98039,-5.9113,-7.8431,-2.8571,-10.54,-3.7283,-12.56,-9.5974,1.8035,-4.6984,3.9216,-5.9259
-9.5419,-13.27,-14.634,-9.8039,-9.8522,-5.1382,-10.628,-2.9773,-6.8608,-9.8039,-9.8522,-9.8039,-6.6667,-11.492,-8.4676,-14.493,-12.496,0.83736,-10.413,-2.9412,-17.52
-4.8025,-6.6032,-7.8049,-3.9216,-0.98522,0.71545,-8.6957,-1.0356,-4.9191,-3.9216,-0.98522,-2.9412,-5.7143,-4.8254,-4.6761,-7.7295,-6.6989,0.83736,-7.5556,-2.9412,-9.7907
2.7804,2.9206,2.9268,-1.9608,6.8966,9.4959,0.0,0.90615,-2.9773,-1.9608,6.8966,4.902,-1.9048,-0.06349,3.8547,1.9324,1.9968,2.7697,-1.8413,2.9412,-1.095
3.7283,5.7778,5.8537,1.9608,4.9261,6.5691,1.9324,1.877,-2.0065,1.9608,4.9261,4.902,-0.95238,5.6508,5.7504,5.7971,5.8615,2.7697,-0.88889,-0.98039,4.7021
-0.06319,5.7778,4.878,13.725,0.0,-2.2114,1.9324,-0.06472,-1.0356,13.725,0.0,1.9608,-2.8571,3.746,2.9068,6.7633,5.8615,-0.12882,-0.88889,-7.8431,5.6683
-5.7504,5.7778,0.97561,8.8235,-0.98522,-6.1138,2.8986,-2.0065,-1.0356,8.8235,-0.98522,0.0,-2.8571,2.7937,0.06319,6.7633,2.963,-4.9597,1.0159,-6.8627,4.7021
-3.8547,8.6349,1.9512,3.9216,7.8818,-0.26016,7.7295,2.8479,2.8479,3.9216,7.8818,4.902,-1.9048,0.88889,-0.88468,5.7971,1.9968,-3.9936,1.0159,-2.9412,1.8035
-0.06319,11.492,5.8537,6.8627,14.778,3.6423,12.56,7.7023,6.7314,6.8627,14.778,9.8039,-0.95238,-0.06349,0.06319,5.7971,2.963,-3.0274,3.873,0.98039,1.8035
-1.0111,8.6349,2.9268,8.8235,13.793,2.6667,10.628,4.7896,3.8188,8.8235,13.793,7.8431,-4.7619,-4.8254,-3.7283,0.96618,-0.90177,-3.9936,3.873,-2.9412,3.7359
-5.7504,1.0159,-4.878,7.8431,0.0,-3.187,1.9324,0.90615,-0.06472,7.8431,0.0,-0.98039,-8.5714,-9.5873,-9.4155,-4.8309,-7.6651,-8.8245,0.06349,-6.8627,-3.9936
-2.9068,1.9683,-3.9024,0.0,5.9113,-3.187,5.7971,1.877,4.7896,0.0,5.9113,0.0,-4.7619,-7.6825,-4.6761,-3.8647,-5.7327,-1.095,1.0159,0.98039,-3.9936
-0.06319,4.8254,-1.9512,0.0,10.837,1.6911,7.7295,2.8479,5.7605,0.0,10.837,2.9412,-3.8095,-3.873,-4.6761,-2.8986,-5.7327,4.7021,3.873,0.98039,-0.12882
-1.0111,2.9206,-2.9268,1.9608,8.867,3.6423,5.7971,3.8188,3.8188,1.9608,8.867,2.9412,-4.7619,-3.873,-7.5197,-3.8647,-7.6651,-0.12882,3.873,-2.9412,-0.12882
-1.0111,1.0159,-2.9268,5.8824,1.9704,3.6423,0.96618,4.7896,-2.9773,5.8824,1.9704,0.98039,-3.8095,1.8413,-5.624,-2.8986,-6.6989,0.83736,1.9683,0.98039,3.7359
2.7804,-0.88889,-0.97561,5.8824,3.9409,5.5935,-0.96618,4.7896,-4.9191,5.8824,3.9409,1.9608,-1.9048,1.8413,-3.7283,-1.9324,-3.8003,5.6683,1.0159,-1.9608,4.7021
11.311,1.0159,7.8049,8.8235,11.823,12.423,0.0,10.615,-0.06472,8.8235,11.823,7.8431,4.7619,5.6508,4.8025,2.8986,3.9291,12.432,-1.8413,2.9412,0.83736
16.051001,3.873,11.707,13.725,10.837,15.35,1.9324,12.557,0.90615,13.725,10.837,10.784,8.5714,8.5079,10.49,5.7971,9.7262,13.398,-0.88889,8.8235,0.83736
13.207,4.8254,11.707,12.745,7.8818,15.35,4.8309,9.644,-0.06472,12.745,7.8818,10.784,4.7619,5.6508,7.6461,4.8309,8.7601,8.5668,1.0159,0.98039,-1.095
10.363,3.873,10.732,4.902,9.8522,14.374,5.7971,7.7023,2.8479,4.902,9.8522,9.8039,1.9048,3.746,3.8547,2.8986,6.8277,6.6345,3.873,-4.902,-0.12882
7.5197,1.0159,9.7561,9.8039,9.8522,12.423,3.8647,5.7605,2.8479,9.8039,9.8522,9.8039,0.0,-0.06349,1.9589,0.0,3.9291,3.7359,2.9206,-3.9216,2.7697
7.5197,1.0159,9.7561,15.686,10.837,10.472,3.8647,6.7314,1.877,15.686,10.837,8.8235,0.95238,-0.06349,2.9068,0.0,3.9291,1.8035,2.9206,-0.98039,4.7021
0.88468,-1.8413,2.9268,10.784,4.9261,4.6179,-0.96618,1.877,-2.0065,10.784,4.9261,1.9608,0.95238,-0.06349,-0.88468,-2.8986,0.06441,-7.8583,1.9683,0.98039,-3.0274
-9.5419,-7.5556,-6.8293,-3.9216,-2.9557,-7.0894,-5.7971,-5.89,-3.9482,-3.9216,-2.9557,-6.8627,-2.8571,-5.7778,-7.5197,-8.6957,-7.6651,-11.723,-3.746,-3.9216,-9.7907
-13.333,-6.6032,-8.7805,-9.8039,-1.9704,-12.943,-5.7971,-9.7735,-5.89,-9.8039,-1.9704,-7.8431,-3.8095,-7.6825,-10.363,-7.7295,-8.6312,-9.7907,-6.6032,-3.9216,-6.8921
-12.385,-6.6032,-8.7805,-0.98039,-4.9261,-11.967,-7.7295,-11.715,-8.8026,-0.98039,-4.9261,-7.8431,-1.9048,-4.8254,-7.5197,-4.8309,-6.6989,-7.8583,-6.6032,-0.98039,-3.0274
-2.9068,0.06349,-1.9512,6.8627,4.9261,-5.1382,-2.8986,-4.9191,-3.9482,6.8627,4.9261,-1.9608,8.5714,6.6032,2.9068,4.8309,3.9291,1.8035,-1.8413,9.8039,6.6345
-1.0111,3.873,0.0,0.0,5.9113,-5.1382,0.0,-2.0065,0.90615,0.0,5.9113,-0.98039,9.5238,7.5556,4.8025,8.6957,6.8277,1.8035,1.9683,6.8627,4.7021
-0.06319,2.9206,0.0,-1.9608,3.9409,-7.0894,1.9324,-4.9191,-1.0356,-1.9608,3.9409,-0.98039,7.619,5.6508,2.9068,6.7633,4.8953,1.8035,-0.88889,3.9216,2.7697
3.7283,5.7778,3.9024,6.8627,9.8522,1.6911,3.8647,-0.06472,2.8479,6.8627,9.8522,5.8824,7.619,6.6032,3.8547,7.7295,4.8953,5.6683,2.9206,3.9216,3.7359
6.5719,8.6349,7.8049,17.646999,14.778,10.472,10.628,5.7605,6.7314,17.646999,14.778,13.725,3.8095,8.5079,1.9589,6.7633,4.8953,3.7359,9.5873,0.0,3.7359
3.7283,6.7302,5.8537,13.725,10.837,11.447,10.628,6.7314,3.8188,13.725,10.837,13.725,0.0,10.413,-3.7283,3.8647,0.06441,-3.9936,5.7778,-6.8627,0.83736
3.7283,3.873,3.9024,11.765,12.808,12.423,8.6957,7.7023,0.90615,11.765,12.808,13.725,-4.7619,-0.06349,-5.624,-1.9324,-2.8341,-1.095,-1.8413,-9.8039,0.83736
6.5719,1.9683,3.9024,15.686,13.793,14.374,8.6957,13.528,1.877,15.686,13.793,13.725,-8.5714,-11.492,-2.7804,-5.7971,-3.8003,9.533,-3.746,-7.8431,-2.0612
11.311,4.8254,7.8049,28.431,17.733999,21.202999,14.493,18.382,8.6731,28.431,17.733999,19.608,-7.619,-11.492,1.9589,-4.8309,-0.90177,12.432,2.9206,-4.902,-3.9936
9.4155,4.8254,8.7805,13.725,18.719,18.275999,14.493,13.528,7.7023,13.725,18.719,18.627001,-6.6667,-7.6825,0.06319,-4.8309,-0.90177,7.6006,3.873,-3.9216,-4.9597
9.4155,7.6825,12.683,7.8431,16.749001,17.301001,15.459,10.615,8.6731,7.8431,16.749001,20.587999,-2.8571,-2.9206,1.9589,0.0,2.963,4.7021,3.873,-0.98039,0.83736
10.363,6.7302,11.707,13.725,10.837,14.374,13.527,9.644,4.7896,13.725,10.837,16.667,-0.95238,-1.9683,6.6983,0.96618,4.8953,8.5668,-0.88889,5.8824,-3.9936
3.7283,0.06349,3.9024,8.8235,5.9113,4.6179,3.8647,2.8479,1.877,8.8235,5.9113,5.8824,3.8095,-1.0159,5.7504,-0.96618,2.963,5.6683,-2.7937,6.8627,-8.8245
-5.7504,-0.88889,-0.97561,12.745,8.867,-0.26016,1.9324,1.877,3.8188,12.745,8.867,0.98039,6.6667,2.7937,0.06319,0.96618,1.0306,-4.9597,1.0159,4.902,0.83736
-12.385,-0.88889,-3.9024,7.8431,5.9113,-3.187,-0.96618,1.877,3.8188,7.8431,5.9113,-2.9412,6.6667,5.6508,-2.7804,0.96618,-0.90177,-4.9597,1.0159,7.8431,2.7697
-15.229,-3.746,-6.8293,-5.8824,-1.9704,-11.967,-4.8309,-2.9773,-2.9773,-5.8824,-1.9704,-7.8431,3.8095,3.746,-4.6761,-0.96618,-3.8003,-2.0612,-1.8413,6.8627,2.7697
-17.125,-6.6032,-9.7561,-10.784,-6.8966,-16.846001,-10.628,-8.8026,-6.8608,-10.784,-6.8966,-11.765,0.95238,1.8413,-8.4676,-2.8986,-7.6651,-7.8583,-1.8413,0.98039,5.6683
-14.281,-9.4603,-11.707,-9.8039,-6.8966,-16.846001,-16.424999,-8.8026,-10.744,-9.8039,-6.8966,-14.706,-0.95238,-1.0159,-10.363,-6.7633,-10.564,-9.7907,-3.746,-1.9608,5.6683
-11.438,-11.365,-12.683,-4.902,-12.808,-16.846001,-18.357,-3.9482,-10.744,-4.902,-12.808,-17.646999,-4.7619,-5.7778,-10.363,-9.6618,-12.496,-1.095,-5.6508,-0.98039,-0.12882
-9.5419,-10.413,-11.707,0.0,-11.823,-12.943,-13.527,0.90615,-8.8026,0.0,-11.823,-15.686,-5.7143,-2.9206,-9.4155,-7.7295,-11.53,0.83736,-1.8413,0.98039,4.7021
-7.6461,-8.5079,-8.7805,-4.902,0.0,-6.1138,-9.6618,-0.06472,-8.8026,-4.902,0.0,-9.8039,-9.5238,-8.6349,-9.4155,-8.6957,-10.564,-1.095,-3.746,-5.8824,-2.0612
3.7283,-2.7937,2.9268,1.9608,5.9113,4.6179,0.0,5.7605,-3.9482,1.9608,5.9113,2.9412,-10.476,-11.492,-0.88468,-6.7633,-2.8341,8.5668,-4.6984,-4.902,-8.8245
11.311,2.9206,10.732,17.646999,5.9113,11.447,5.7971,8.6731,-1.0356,17.646999,5.9113,10.784,-8.5714,-9.5873,3.8547,-1.9324,2.963,9.533,-1.8413,-2.9412,-6.8921
11.311,2.9206,8.7805,15.686,3.9409,10.472,3.8647,5.7605,-2.0065,15.686,3.9409,8.8235,-6.6667,-10.54,2.9068,-1.9324,2.963,-1.095,-3.746,-4.902,-6.8921
15.103,4.8254,10.732,0.0,5.9113,10.472,6.7633,5.7605,2.8479,0.0,5.9113,8.8235,-0.95238,-5.7778,7.6461,0.96618,6.8277,4.7021,-2.7937,0.98039,-5.9259
16.997999,8.6349,13.659,4.902,8.867,10.472,11.594,6.7314,8.6731,4.902,8.867,12.745,5.7143,3.746,12.385,6.7633,11.659,4.7021,4.8254,7.8431,0.83736
15.103,7.6825,13.659,20.587999,12.808,13.398,10.628,8.6731,8.6731,20.587999,12.808,14.706,8.5714,8.5079,10.49,7.7295,11.659,0.83736,5.7778,10.784,3.7359
10.363,2.9206,10.732,11.765,13.793,16.325001,8.6957,7.7023,5.7605,11.765,13.793,13.725,8.5714,6.6032,5.7504,3.8647,6.8277,-0.12882,2.9206,9.8039,4.7021
5.624,1.0159,6.8293,11.765,10.837,16.325001,9.6618,10.615,4.7896,11.765,10.837,13.725,7.619,6.6032,2.9068,0.96618,1.9968,7.6006,2.9206,7.8431,6.6345
-5.7504,0.06349,0.0,15.686,9.8522,9.4959,9.6618,11.586,4.7896,15.686,9.8522,9.8039,6.6667,4.6984,-0.88468,-2.8986,-1.868,8.5668,0.06349,4.902,-3.0274
-16.177,0.06349,-3.9024,4.902,0.98522,-3.187,3.8647,0.90615,-2.0065,4.902,0.98522,1.9608,7.619,2.7937,-3.7283,-2.8986,-3.8003,-1.095,-2.7937,1.9608,-4.9597
-19.968,-2.7937,-8.7805,-2.9412,-2.9557,-10.016,-3.8647,0.90615,-6.8608,-2.9412,-2.9557,-6.8627,0.0,-0.06349,-9.4155,-4.8309,-8.6312,-0.12882,-2.7937,-2.9412,-0.12882
-16.177,-10.413,-14.634,-3.9216,-2.9557,-10.992,-11.594,0.90615,-10.744,-3.9216,-2.9557,-11.765,-7.619,-3.873,-15.103,-9.6618,-14.428,-7.8583,-3.746,-10.784,1.8035
-4.8025,-10.413,-8.7805,-3.9216,-6.8966,-6.1138,-12.56,2.8479,-14.628,-3.9216,-6.8966,-8.8235,-5.7143,-5.7778,-11.311,-8.6957,-10.564,-8.8245,-4.6984,-8.8235,2.7697
7.5197,-6.6032,0.0,0.0,-7.8818,-0.26016,-6.7633,4.7896,-11.715,0.0,-7.8818,-1.9608,-4.7619,-11.492,-1.8325,-6.7633,-3.8003,5.6683,-3.746,0.0,-5.9259
12.259,-0.88889,4.878,0.98039,-6.8966,4.6179,-0.96618,5.7605,-6.8608,0.98039,-6.8966,2.9412,-1.9048,-6.7302,6.6983,-1.9324,2.963,5.6683,-3.746,5.8824,-4.9597
14.155,5.7778,10.732,-5.8824,-6.8966,5.5935,1.9324,5.7605,-7.8317,-5.8824,-6.8966,5.8824,5.7143,0.88889,12.385,6.7633,11.659,2.7697,-2.7937,10.784,4.7021
14.155,6.7302,9.7561,-8.8235,-10.837,3.6423,0.0,2.8479,-11.715,-8.8235,-10.837,1.9608,10.476,6.6032,15.229,9.6618,14.557,5.6683,-4.6984,14.706,1.8035
20.790001,9.5873,13.659,-9.8039,-9.8522,8.5203,0.96618,2.8479,-12.686,-9.8039,-9.8522,3.9216,18.094999,14.222,20.916,15.459,19.388,14.364,-3.746,18.627001,2.7697
23.632999,7.6825,14.634,-7.8431,-10.837,11.447,-0.96618,2.8479,-12.686,-7.8431,-10.837,4.902,20.952,17.079,23.76,15.459,21.32,18.229,-5.6508,22.549,4.7021
22.686001,4.8254,15.61,-4.902,-7.8818,12.423,0.96618,6.7314,-6.8608,-4.902,-7.8818,7.8431,21.905001,20.889,21.864,15.459,21.32,12.432,-5.6508,21.569,4.7021
15.103,1.9683,13.659,1.9608,-1.9704,8.5203,3.8647,7.7023,-5.89,1.9608,-1.9704,8.8235,19.048,17.079,14.281,11.594,15.523,9.533,-7.5556,15.686,2.7697
7.5197,0.06349,12.683,4.902,0.0,3.6423,0.96618,7.7023,-6.8608,4.902,0.0,8.8235,12.381,10.413,6.6983,7.7295,9.7262,8.5668,-8.5079,12.745,-5.9259
5.624,6.7302,16.584999,8.8235,3.9409,7.5447,6.7633,9.644,-2.0065,8.8235,3.9409,13.725,10.476,11.365,3.8547,9.6618,9.7262,7.6006,-3.746,10.784,-3.0274
-2.9068,3.873,8.7805,8.8235,-0.98522,3.6423,2.8986,0.90615,-2.9773,8.8235,-0.98522,6.8627,3.8095,6.6032,-3.7283,3.8647,2.963,-0.12882,-1.8413,1.9608,0.83736
-13.333,-2.7937,-3.9024,-12.745,-8.867,-4.1626,0.96618,-4.9191,-2.9773,-12.745,-8.867,-0.98039,-7.619,-4.8254,-15.103,-6.7633,-9.5974,-5.9259,1.0159,-11.765,-1.095
-12.385,1.0159,-4.878,-17.646999,-0.98522,1.6911,4.8309,-1.0356,2.8479,-17.646999,-0.98522,2.9412,-9.5238,-2.9206,-16.051001,-7.7295,-12.496,-1.095,8.6349,-18.627001,2.7697
-14.281,-2.7937,-6.8293,-7.8431,0.98522,-1.2358,0.96618,1.877,0.90615,-7.8431,0.98522,1.9608,-16.190001,-16.254,-19.841999,-14.493,-18.292999,-4.9597,7.6825,-19.608,-3.9936
-13.333,-5.6508,-5.8537,6.8627,4.9261,-3.187,0.0,-0.06472,-1.0356,6.8627,4.9261,0.98039,-16.190001,-21.016001,-17.945999,-14.493,-17.327,-9.7907,2.9206,-15.686,-9.7907
-3.8547,1.9683,2.9268,14.706,8.867,-2.2114,2.8986,2.8479,3.8188,14.706,8.867,3.9216,-6.6667,-9.5873,-4.6761,-2.8986,-4.7665,-4.9597,2.9206,-8.8235,-2.0612
-1.0111,6.7302,3.9024,2.9412,-0.98522,-5.1382,-1.9324,-0.06472,2.8479,2.9412,-0.98522,0.98039,-0.95238,-1.0159,3.8547,5.7971,2.963,-4.9597,3.873,-4.902,4.7021
0.88468,8.6349,2.9268,-2.9412,-2.9557,-8.065,2.8986,-3.9482,0.90615,-2.9412,-2.9557,-0.98039,4.7619,7.5556,9.5419,11.594,8.7601,-6.8921,6.7302,1.9608,12.432
5.624,8.6349,4.878,0.98039,2.9557,-4.1626,5.7971,-2.9773,2.8479,0.98039,2.9557,1.9608,10.476,14.222,14.281,16.424999,13.591,-0.12882,4.8254,7.8431,10.499
9.4155,2.9206,4.878,1.9608,1.9704,-4.1626,4.8309,-2.9773,2.8479,1.9608,1.9704,0.98039,10.476,11.365,17.125,12.56,14.557,4.7021,1.9683,10.784,10.499
14.155,-0.88889,5.8537,-3.9216,-0.98522,0.71545,1.9324,-2.0065,1.877,-3.9216,-0.98522,-0.98039,9.5238,10.413,19.968,8.6957,14.557,11.465,-0.88889,13.725,8.5668
13.207,-2.7937,4.878,-4.902,-1.9704,2.6667,-1.9324,0.90615,-0.06472,-4.902,-1.9704,-1.9608,9.5238,7.5556,18.073,5.7971,13.591,14.364,-1.8413,14.706,-3.0274
9.4155,-5.6508,0.97561,-0.98039,-4.9261,-0.26016,-8.6957,2.8479,-2.9773,-0.98039,-4.9261,-6.8627,9.5238,3.746,12.385,3.8647,9.7262,8.5668,-5.6508,13.725,-9.7907
2.7804,-10.413,-5.8537,-7.8431,-7.8818,-2.2114,-14.493,-2.9773,-7.8317,-7.8431,-7.8818,-12.745,0.0,-3.873,3.8547,-1.9324,1.9968,3.7359,-6.6032,9.8039,-9.7907
-0.06319,-10.413,-7.8049,-7.8431,-4.9261,-0.26016,-9.6618,-3.9482,-3.9482,-7.8431,-4.9261,-9.8039,-7.619,-12.444,-6.5719,-8.6957,-6.6989,0.83736,-5.6508,0.98039,-13.655
-3.8547,-4.6984,-6.8293,0.98039,1.9704,2.6667,0.0,0.90615,3.8188,0.98039,1.9704,-1.9608,-14.286,-16.254,-14.155,-12.56,-12.496,-3.0274,-0.88889,-9.8039,-8.8245
-11.438,-3.746,-10.732,-0.98039,2.9557,-0.26016,1.9324,-2.9773,2.8479,-0.98039,2.9557,-0.98039,-20.0,-15.302,-22.686001,-14.493,-19.259001,-16.554001,4.8254,-21.569,-1.095
-19.968,-2.7937,-13.659,-5.8824,-0.98522,-5.1382,1.9324,-8.8026,3.8188,-5.8824,-0.98522,-2.9412,-20.0,-13.397,-25.528999,-12.56,-20.225,-23.316999,8.6349,-26.471001,4.7021
-18.073,7.6825,-7.8049,-1.9608,6.8966,-4.1626,5.7971,-5.89,11.586,-1.9608,6.8966,0.98039,-10.476,-2.9206,-17.945999,0.96618,-9.5974,-19.452,14.349,-20.587999,8.5668
-10.49,11.492,-1.9512,-5.8824,6.8966,-2.2114,5.7971,-5.89,10.615,-5.8824,6.8966,2.9412,-0.95238,8.5079,-5.624,11.594,1.0306,-9.7907,14.349,-9.8039,13.398
-6.6983,6.7302,0.0,-8.8235,-4.9261,-7.0894,-1.9324,-8.8026,2.8479,-8.8235,-4.9261,-0.98039,0.95238,12.317,1.0111,13.527,6.8277,-8.8245,9.5873,-7.8431,17.261999
-0.06319,1.9683,3.9024,-6.8627,-12.808,-10.992,-5.7971,-12.686,0.90615,-6.8627,-12.808,-4.902,6.6667,16.127001,10.49,16.424999,13.591,-5.9259,4.8254,-1.9608,16.296
9.4155,5.7778,11.707,-7.8431,1.9704,-6.1138,1.9324,-7.8317,5.7605,-7.8431,1.9704,0.0,14.286,23.746,22.812,24.155001,25.184999,1.8035,6.7302,3.9216,17.261999
10.363,4.8254,7.8049,-14.706,-3.9409,-6.1138,0.96618,-5.89,2.8479,-14.706,-3.9409,-3.9216,15.238,18.032,22.812,21.256001,25.184999,0.83736,5.7778,5.8824,14.364
11.311,1.9683,2.9268,-8.8235,-6.8966,-3.187,-1.9324,-7.8317,0.90615,-8.8235,-6.8966,-5.8824,12.381,9.4603,20.916,14.493,19.388,6.6345,2.9206,9.8039,10.499
16.051001,3.873,4.878,10.784,2.9557,2.6667,-0.96618,2.8479,2.8479,10.784,2.9557,0.0,8.5714,3.746,19.968,9.6618,16.49,9.533,1.0159,12.745,-2.0612
16.051001,-0.88889,3.9024,5.8824,2.9557,2.6667,-2.8986,8.6731,1.877,5.8824,2.9557,-0.98039,0.0,-7.6825,13.333,-1.9324,7.7939,14.364,-3.746,11.765,-15.588
12.259,-5.6508,1.9512,-1.9608,-0.98522,3.6423,-2.8986,4.7896,2.8479,-1.9608,-0.98522,-2.9412,-8.5714,-15.302,5.7504,-11.594,0.06441,14.364,-1.8413,6.8627,-17.52
12.259,-7.5556,1.9512,-0.98039,1.9704,3.6423,0.0,6.7314,4.7896,-0.98039,1.9704,0.98039,-13.333,-22.921,1.9589,-18.357,-5.7327,13.398,-1.8413,3.9216,-23.316999
9.4155,-11.365,0.0,1.9608,5.9113,9.4959,0.96618,3.8188,3.8188,1.9608,5.9113,3.9216,-16.190001,-25.778,-5.624,-23.188,-11.53,7.6006,-5.6508,-2.9412,-28.148001
8.4676,-6.6032,1.9512,9.8039,6.8966,13.398,2.8986,3.8188,4.7896,9.8039,6.8966,5.8824,-13.333,-21.016001,-6.5719,-15.459,-8.6312,1.8035,-4.6984,-4.902,-16.554001
5.624,4.8254,5.8537,3.9216,9.8522,9.4959,8.6957,0.90615,4.7896,3.9216,9.8522,6.8627,-4.7619,-7.6825,-2.7804,1.9324,0.06441,-2.0612,1.9683,-2.9412,0.83736
-3.8547,9.5873,0.97561,-3.9216,0.98522,-2.2114,2.8986,-7.8317,-1.0356,-3.9216,0.98522,-1.9608,1.9048,8.5079,-1.8325,12.56,3.9291,-8.8245,3.873,0.98039,12.432
-7.6461,10.54,-0.97561,-0.98039,-7.8818,-7.0894,-0.96618,-10.744,-4.9191,-0.98039,-7.8818,-6.8627,7.619,18.983999,-1.8325,20.290001,7.7939,-7.8583,2.9206,-0.98039,19.195
-3.8547,15.302,3.9024,6.8627,-2.9557,-4.1626,3.8647,-2.0065,2.8479,6.8627,-2.9557,-0.98039,14.286,27.556,1.0111,29.952,14.557,-8.8245,8.6349,-0.98039,26.924
-7.6461,12.444,0.0,-3.9216,-0.98522,-10.016,-0.96618,-5.89,-0.06472,-3.9216,-0.98522,-4.902,10.476,28.507999,0.06319,28.018999,12.625,-12.689,6.7302,0.98039,22.093
-10.49,10.54,-4.878,-13.725,-1.9704,-10.992,-0.96618,-10.744,-0.06472,-13.725,-1.9704,-5.8824,6.6667,18.983999,-3.7283,20.290001,7.7939,-15.588,1.0159,-3.9216,8.5668
-9.5419,6.7302,-6.8293,2.9412,5.9113,-5.1382,4.8309,-4.9191,5.7605,2.9412,5.9113,-1.9608,1.9048,10.413,-4.6761,13.527,3.9291,-4.9597,2.9206,-4.902,3.7359
-12.385,-0.88889,-11.707,-0.98039,0.98522,-7.0894,0.0,-2.0065,3.8188,-0.98039,0.98522,-5.8824,-3.8095,2.7937,-6.5719,4.8309,-1.868,-3.0274,1.9683,-3.9216,4.7021
-16.177,-9.4603,-14.634,-4.902,0.0,-11.967,-3.8647,-5.89,0.90615,-4.902,0.0,-9.8039,-7.619,-3.873,-10.363,-4.8309,-7.6651,0.83736,-2.7937,-6.8627,1.8035
-15.229,-10.413,-11.707,-2.9412,6.8966,-9.0407,-1.9324,-3.9482,2.8479,-2.9412,6.8966,-6.8627,-11.429,-9.5873,-12.259,-9.6618,-10.564,-2.0612,1.0159,-10.784,-2.0612
-5.7504,-8.5079,-3.9024,6.8627,3.9409,-1.2358,1.9324,0.90615,5.7605,6.8627,3.9409,0.98039,-13.333,-19.111,-5.624,-12.56,-8.6312,-4.9597,-0.88889,-2.9412,-7.8583
3.7283,-6.6032,0.97561,8.8235,6.8966,4.6179,6.7633,3.8188,11.586,8.8235,6.8966,6.8627,-10.476,-17.205999,1.9589,-13.527,-5.7327,8.5668,-1.8413,4.902,-16.554001
9.4155,-5.6508,1.9512,11.765,14.778,7.5447,6.7633,5.7605,14.498,11.765,14.778,8.8235,-8.5714,-21.016001,5.7504,-16.424999,-5.7327,15.33,0.06349,8.8235,-19.452
10.363,-3.746,0.97561,10.784,12.808,5.5935,4.8309,3.8188,10.615,10.784,12.808,6.8627,-5.7143,-20.063,7.6461,-15.459,-4.7665,13.398,0.06349,4.902,-17.52
13.207,0.06349,6.8293,4.902,7.8818,3.6423,8.6957,1.877,6.7314,4.902,7.8818,6.8627,0.95238,-8.6349,9.5419,-9.6618,0.06441,5.6683,0.06349,1.9608,-17.52
20.790001,10.54,20.488001,7.8431,5.9113,11.447,13.527,3.8188,10.615,7.8431,5.9113,14.706,10.476,3.746,15.229,3.8647,10.692,5.6683,3.873,6.8627,-8.8245
20.790001,20.063,26.341,3.9216,5.9113,12.423,14.493,-0.06472,6.7314,3.9216,5.9113,15.686,16.190001,17.079,19.968,17.391001,18.422001,3.7359,5.7778,14.706,8.5668
17.945999,23.872999,24.389999,0.0,4.9261,9.4959,13.527,-3.9482,4.7896,0.0,4.9261,12.745,18.094999,19.937,21.864,22.222,21.32,3.7359,8.6349,18.627001,15.33
14.155,21.016001,20.488001,-5.8824,-1.9704,6.5691,7.7295,-5.89,-2.0065,-5.8824,-1.9704,7.8431,16.190001,22.794001,19.021,23.188,20.354,9.533,4.8254,14.706,17.261999
10.363,21.016001,19.511999,-7.8431,-1.9704,2.6667,5.7971,-8.8026,-4.9191,-7.8431,-1.9704,5.8824,16.190001,24.698,13.333,25.121,19.388,3.7359,5.7778,7.8431,25.958
0.88468,12.444,9.7561,-2.9412,-7.8818,-6.1138,0.0,-9.7735,-0.06472,-2.9412,-7.8818,-2.9412,11.429,18.032,4.8025,19.323999,11.659,-7.8583,5.7778,3.9216,22.093
-7.6461,2.9206,-4.878,-5.8824,-8.867,-12.943,-5.7971,-10.744,-0.06472,-5.8824,-8.867,-10.784,4.7619,11.365,-2.7804,10.628,2.963,-9.7907,4.8254,0.0,16.296
-16.177,-2.7937,-16.584999,-13.725,-5.9113,-17.820999,-6.7633,-12.686,3.8188,-13.725,-5.9113,-16.667,-1.9048,5.6508,-8.4676,2.8986,-5.7327,-10.757,4.8254,-1.9608,11.465
-27.551001,-9.4603,-25.365999,-6.8627,-3.9409,-18.797001,-7.7295,-12.686,5.7605,-6.8627,-3.9409,-17.646999,-9.5238,-0.06349,-19.841999,-5.7971,-14.428,-18.486,1.9683,-13.725,3.7359
-22.812,-4.6984,-18.537001,4.902,-1.9704,-11.967,-2.8986,-6.8608,9.644,4.902,-1.9704,-10.784,-5.7143,-0.06349,-18.893999,-3.8647,-12.496,-15.588,3.873,-14.706,4.7021
-12.385,1.9683,-9.7561,2.9412,0.0,-5.1382,0.0,-2.0065,9.644,2.9412,0.0,-2.9412,-2.8571,2.7937,-11.311,0.0,-7.6651,-6.8921,5.7778,-9.8039,3.7359
-7.6461,-5.6508,-9.7561,-0.98039,1.9704,-2.2114,-2.8986,-1.0356,3.8188,-0.98039,1.9704,-3.9216,-3.8095,-1.9683,-10.363,-5.7971,-9.5974,-3.0274,-1.8413,-11.765,-1.095
-1.0111,-11.365,-9.7561,3.9216,6.8966,0.71545,-2.8986,3.8188,6.7314,3.9216,6.8966,-3.9216,-2.8571,-4.8254,-3.7283,-8.6957,-6.6989,1.8035,-2.7937,-8.8235,-3.9936
3.7283,-16.127001,-9.7561,2.9412,3.9409,1.6911,-3.8647,5.7605,8.6731,2.9412,3.9409,-4.902,0.0,-5.7778,5.7504,-10.628,-4.7665,8.5668,-3.746,3.9216,-14.622
3.7283,-18.032,-9.7561,5.8824,2.9557,-1.2358,-4.8309,3.8188,4.7896,5.8824,2.9557,-6.8627,-1.9048,-9.5873,5.7504,-12.56,-4.7665,9.533,-3.746,0.98039,-13.655
8.4676,-10.413,0.0,11.765,6.8966,3.6423,0.0,7.7023,1.877,11.765,6.8966,0.0,0.0,-8.6349,8.594,-5.7971,1.0306,10.499,-3.746,4.902,-12.689
10.363,-0.88889,7.8049,3.9216,3.9409,7.5447,1.9324,5.7605,1.877,3.9216,3.9409,3.9216,2.8571,-1.0159,10.49,1.9324,5.8615,8.5668,-0.88889,6.8627,-9.7907
13.207,2.9206,11.707,-2.9412,3.9409,11.447,4.8309,4.7896,-1.0356,-2.9412,3.9409,7.8431,2.8571,1.8413,9.5419,3.8647,6.8277,9.533,-2.7937,6.8627,-8.8245
12.259,5.7778,14.634,11.765,7.8818,14.374,6.7633,2.8479,3.8188,11.765,7.8818,12.745,1.9048,-1.0159,5.7504,2.8986,4.8953,5.6683,-1.8413,8.8235,-4.9597
3.7283,1.9683,10.732,20.587999,10.837,11.447,4.8309,1.877,4.7896,20.587999,10.837,12.745,-3.8095,-7.6825,-4.6761,-3.8647,-2.8341,-3.0274,-1.8413,1.9608,-4.9597
-4.8025,1.9683,3.9024,8.8235,3.9409,5.5935,3.8647,0.90615,2.8479,8.8235,3.9409,7.8431,-8.5714,-10.54,-11.311,-6.7633,-9.5974,-6.8921,3.873,-0.98039,2.7697
-6.6983,5.7778,1.9512,-2.9412,4.9261,1.6911,7.7295,-3.9482,5.7605,-2.9412,4.9261,7.8431,-7.619,-5.7778,-13.207,-3.8647,-10.564,-3.0274,7.6825,-2.9412,4.7021
-4.8025,6.7302,0.97561,-2.9412,3.9409,-1.2358,5.7971,-1.0356,6.7314,-2.9412,3.9409,6.8627,-6.6667,-2.9206,-12.259,-3.8647,-10.564,-3.0274,5.7778,-6.8627,0.83736
-6.6983,3.873,-1.9512,1.9608,-2.9557,-2.2114,1.9324,-5.89,-0.06472,1.9608,-2.9557,4.902,-9.5238,-5.7778,-15.103,-5.7971,-12.496,-11.723,4.8254,-12.745,5.6683
-0.06319,5.7778,0.97561,3.9216,1.9704,4.6179,6.7633,-0.06472,1.877,3.9216,1.9704,9.8039,-7.619,-5.7778,-8.4676,-3.8647,-8.6312,-5.9259,1.9683,-8.8235,1.8035
4.6761,9.5873,3.9024,8.8235,11.823,9.4959,14.493,4.7896,7.7023,8.8235,11.823,15.686,-0.95238,2.7937,-1.8325,2.8986,-0.90177,-3.9936,4.8254,-4.902,8.5668
1.8325,3.873,0.0,2.9412,4.9261,7.5447,9.6618,-2.9773,4.7896,2.9412,4.9261,8.8235,0.95238,4.6984,-0.88468,0.96618,0.06441,-4.9597,2.9206,-4.902,7.6006
-1.9589,-1.8413,-3.9024,-1.9608,0.0,-0.26016,3.8647,-3.9482,2.8479,-1.9608,0.0,1.9608,0.95238,2.7937,-3.7283,-0.96618,-0.90177,-7.8583,-1.8413,-9.8039,1.8035
-1.0111,-2.7937,-2.9268,6.8627,3.9409,-2.2114,2.8986,2.8479,5.7605,6.8627,3.9409,0.0,1.9048,-0.06349,-0.88468,0.0,1.9968,-8.8245,-0.88889,-8.8235,-0.12882
6.5719,-1.8413,-0.97561,15.686,11.823,2.6667,3.8647,7.7023,8.6731,15.686,11.823,1.9608,6.6667,0.88889,8.594,2.8986,8.7601,4.7021,3.873,5.8824,5.6683
-0.06319,-7.5556,-9.7561,4.902,6.8966,-0.26016,-1.9324,3.8188,1.877,4.902,6.8966,-4.902,3.8095,-5.7778,4.8025,-5.7971,1.9968,8.5668,0.06349,1.9608,-2.0612
-4.8025,-7.5556,-9.7561,2.9412,0.98522,-1.2358,0.96618,3.8188,-0.06472,2.9412,0.98522,-5.8824,0.0,-7.6825,-0.88468,-10.628,-2.8341,6.6345,-4.6984,0.0,-11.723
-3.8547,-4.6984,-6.8293,7.8431,1.9704,2.6667,0.96618,3.8188,2.8479,7.8431,1.9704,-2.9412,-0.95238,-7.6825,-0.88468,-9.6618,-3.8003,2.7697,-1.8413,6.8627,-6.8921
-5.7504,-7.5556,-9.7561,4.902,-0.98522,1.6911,-7.7295,7.7023,-1.0356,4.902,-0.98522,-4.902,-5.7143,-11.492,-5.624,-12.56,-10.564,8.5668,0.06349,3.9216,-4.9597
-12.385,-9.4603,-15.61,0.98039,-8.867,-3.187,-9.6618,5.7605,-5.89,0.98039,-8.867,-7.8431,-10.476,-9.5873,-15.103,-14.493,-18.292999,5.6683,1.0159,-1.9608,-1.095
-18.073,-11.365,-20.488001,-8.8235,-14.778,-8.065,-16.424999,-2.0065,-12.686,-8.8235,-14.778,-15.686,-12.381,-9.5873,-19.841999,-15.459,-23.124001,-3.9936,-7.5556,-4.902,-5.9259
-17.125,-8.5079,-16.584999,-15.686,-11.823,-11.967,-18.357,-2.9773,-15.599,-15.686,-11.823,-17.646999,-8.5714,-3.873,-17.945999,-10.628,-20.225,-7.8583,-8.5079,-3.9216,-3.0274
-4.8025,1.9683,-2.9268,-3.9216,-5.9113,-6.1138,-7.7295,-0.06472,-7.8317,-3.9216,-5.9113,-6.8627,1.9048,4.6984,-6.5719,2.8986,-5.7327,2.7697,0.06349,2.9412,9.533
12.259,14.349,16.584999,11.765,1.9704,8.5203,4.8309,8.6731,-0.06472,11.765,1.9704,8.8235,11.429,18.032,10.49,17.391001,11.659,12.432,4.8254,13.725,13.398
23.632999,15.302,27.316999,15.686,0.0,19.252001,4.8309,10.615,-5.89,15.686,0.0,18.627001,17.143,19.937,19.021,20.290001,21.32,15.33,-3.746,13.725,9.533
29.320999,12.444,32.195,18.627001,5.9113,21.202999,5.7971,9.644,-9.7735,18.627001,5.9113,22.549,20.952,18.032,23.76,20.290001,26.150999,13.398,-7.5556,13.725,10.499
34.060001,17.205999,35.122002,14.706,8.867,24.129999,12.56,11.586,-3.9482,14.706,8.867,25.49,26.667,22.794001,30.395,26.087,32.915001,16.296,0.06349,20.587999,14.364
28.372999,10.54,27.316999,8.8235,2.9557,21.202999,8.6957,8.6731,-2.0065,8.8235,2.9557,19.608,21.905001,16.127001,25.656,20.290001,27.118,12.432,-0.88889,12.745,17.261999
13.207,-1.8413,11.707,2.9412,1.9704,9.4959,0.0,8.6731,-3.9482,2.9412,1.9704,10.784,14.286,4.6984,13.333,4.8309,14.557,-0.12882,-4.6984,5.8824,0.83736
8.4676,-9.4603,4.878,11.765,13.793,8.5203,4.8309,9.644,-2.0065,11.765,13.793,11.765,10.476,-3.873,7.6461,-7.7295,5.8615,-1.095,-8.5079,8.8235,-13.655
5.624,-15.175,-1.9512,11.765,10.837,9.4959,0.96618,13.528,-2.0065,11.765,10.837,8.8235,1.9048,-13.397,4.8025,-18.357,-2.8341,10.499,-10.413,8.8235,-20.419001
-0.06319,-11.365,-7.8049,4.902,5.9113,6.5691,0.96618,13.528,-0.06472,4.902,5.9113,4.902,-4.7619,-13.397,-2.7804,-19.323999,-10.564,11.465,-3.746,5.8824,-13.655
-9.5419,-9.4603,-15.61,-1.9608,-0.98522,-1.2358,0.0,2.8479,-3.9482,-1.9608,-0.98522,-3.9216,-8.5714,-15.302,-8.4676,-19.323999,-16.361,8.5668,-4.6984,5.8824,-15.588
-17.125,-8.5079,-19.511999,-6.8627,-4.9261,-8.065,-3.8647,-6.8608,-6.8608,-6.8627,-4.9261,-10.784,-7.619,-12.444,-14.155,-14.493,-18.292999,1.8035,-7.5556,-5.8824,-17.52
-17.125,-0.88889,-16.584999,-8.8235,-4.9261,-10.016,-2.8986,-5.89,-3.9482,-8.8235,-4.9261,-10.784,-6.6667,-5.7778,-15.103,-4.8309,-13.462,-3.9936,1.0159,-12.745,-4.9597
-13.333,1.9683,-11.707,-4.902,-1.9704,-8.065,-0.96618,-0.06472,-0.06472,-4.902,-1.9704,-7.8431,-3.8095,-4.8254,-9.4155,0.0,-8.6312,-7.8583,1.9683,-5.8824,-4.9597
-9.5419,2.9206,-7.8049,-5.8824,-2.9557,-11.967,-2.8986,-1.0356,-0.06472,-5.8824,-2.9557,-8.8235,-1.9048,-0.06349,-3.7283,2.8986,-2.8341,-5.9259,4.8254,-3.9216,-0.12882
-7.6461,2.9206,-4.878,-10.784,-7.8818,-13.919,-2.8986,-6.8608,-1.0356,-10.784,-7.8818,-10.784,-2.8571,1.8413,-1.8325,5.7971,0.06441,-6.8921,7.6825,-7.8431,8.5668
-1.0111,6.7302,3.9024,-11.765,-9.8522,-10.992,-0.96618,-12.686,-5.89,-11.765,-9.8522,-5.8824,0.95238,6.6032,4.8025,10.628,6.8277,-3.9936,8.6349,-3.9216,13.398
-1.9589,6.7302,3.9024,-12.745,-10.837,-10.016,-3.8647,-9.7735,-2.9773,-12.745,-10.837,-6.8627,-0.95238,9.4603,2.9068,11.594,6.8277,-3.0274,10.54,-2.9412,22.093
0.88468,3.873,3.9024,-11.765,-8.867,-4.1626,-3.8647,1.877,-2.9773,-11.765,-8.867,-2.9412,-1.9048,8.5079,1.0111,8.6957,5.8615,-0.12882,6.7302,-3.9216,16.296
-1.9589,-2.7937,2.9268,-11.765,-10.837,1.6911,-6.7633,2.8479,-7.8317,-11.765,-10.837,-0.98039,-4.7619,-1.9683,-4.6761,0.96618,1.0306,-8.8245,1.0159,-11.765,3.7359
-1.0111,-12.317,0.97561,-11.765,-14.778,2.6667,-8.6957,2.8479,-11.715,-11.765,-14.778,-0.98039,-8.5714,-10.54,-7.5197,-9.6618,-5.7327,-8.8245,-4.6984,-14.706,-1.095
5.624,-16.127001,4.878,-3.9216,-13.793,9.4959,-8.6957,8.6731,-11.715,-3.9216,-13.793,1.9608,-2.8571,-8.6349,1.0111,-12.56,-2.8341,-0.12882,-9.4603,-2.9412,-8.8245
7.5197,-25.650999,-0.97561,-7.8431,-11.823,8.5203,-13.527,8.6731,-14.628,-7.8431,-11.823,-0.98039,0.0,-13.397,4.8025,-21.256001,-5.7327,5.6683,-15.175,5.8824,-14.622
4.6761,-28.507999,-7.8049,-12.745,-12.808,5.5935,-16.424999,4.7896,-14.628,-12.745,-12.808,-5.8824,-0.95238,-14.349,4.8025,-25.121,-9.5974,3.7359,-13.27,8.8235,-11.723
0.88468,-23.746,-12.683,-6.8627,-9.8522,0.71545,-14.493,3.8188,-13.657,-6.8627,-9.8522,-6.8627,-0.95238,-10.54,1.9589,-23.188,-11.53,3.7359,-11.365,10.784,-14.622
-4.8025,-17.079,-15.61,-15.686,-13.793,-5.1382,-10.628,-2.0065,-14.628,-15.686,-13.793,-9.8039,0.95238,-4.8254,1.0111,-17.391001,-11.53,-1.095,-7.5556,14.706,-12.689
-5.7504,-2.7937,-10.732,-18.627001,-14.778,-5.1382,-5.7971,-2.9773,-10.744,-18.627001,-14.778,-8.8235,2.8571,2.7937,1.0111,-2.8986,-4.7665,1.8035,1.0159,8.8235,1.8035
-7.6461,1.9683,-9.7561,-9.8039,-11.823,-7.0894,-7.7295,-2.9773,-9.7735,-9.8039,-11.823,-10.784,2.8571,5.6508,-1.8325,5.7971,-1.868,-0.12882,2.9206,0.0,0.83736
-4.8025,7.6825,-6.8293,-4.902,-9.8522,-7.0894,-6.7633,0.90615,-5.89,-4.902,-9.8522,-9.8039,4.7619,13.27,1.9589,13.527,3.9291,-2.0612,3.873,2.9412,6.6345
-3.8547,13.397,-3.9024,0.0,-5.9113,-7.0894,-1.9324,0.90615,-2.9773,0.0,-5.9113,-5.8824,2.8571,16.127001,1.9589,19.323999,6.8277,-1.095,6.7302,1.9608,16.296
-7.6461,19.111,-1.9512,-4.902,-2.9557,-10.016,1.9324,-2.0065,1.877,-4.902,-2.9557,-4.902,-0.95238,14.222,-3.7283,22.222,6.8277,-4.9597,10.54,-4.902,22.093
-7.6461,23.872999,2.9268,-4.902,0.0,-5.1382,9.6618,-1.0356,4.7896,-4.902,0.0,0.98039,-4.7619,14.222,-7.5197,23.188,5.8615,-3.0274,14.349,-9.8039,26.924
-7.6461,22.921,6.8293,0.98039,4.9261,0.71545,12.56,1.877,6.7314,0.98039,4.9261,7.8431,-8.5714,11.365,-9.4155,20.290001,2.963,0.83736,13.397,-14.706,20.160999
-5.7504,20.063,10.732,7.8431,13.793,4.6179,15.459,3.8188,7.7023,7.8431,13.793,12.745,-6.6667,8.5079,-9.4155,17.391001,1.9968,-1.095,9.5873,-16.667,13.398
-4.8025,10.54,9.7561,5.8824,10.837,7.5447,8.6957,4.7896,7.7023,5.8824,10.837,11.765,-7.619,1.8413,-10.363,6.7633,-1.868,-3.0274,6.7302,-16.667,9.533
-3.8547,1.9683,6.8293,3.9216,7.8818,6.5691,8.6957,4.7896,6.7314,3.9216,7.8818,11.765,-8.5714,-2.9206,-8.4676,-2.8986,-5.7327,-8.8245,3.873,-13.725,1.8035
-1.9589,-4.6984,4.878,7.8431,4.9261,8.5203,7.7295,3.8188,1.877,7.8431,4.9261,10.784,-4.7619,-7.6825,-3.7283,-8.6957,-4.7665,-7.8583,-4.6984,-6.8627,-12.689
-1.0111,-9.4603,3.9024,0.98039,3.9409,3.6423,6.7633,0.90615,0.90615,0.98039,3.9409,7.8431,0.95238,-8.6349,1.0111,-13.527,-2.8341,-4.9597,-8.5079,-1.9608,-16.554001
-1.0111,-16.127001,2.9268,1.9608,1.9704,-2.2114,-1.9324,0.90615,-0.06472,1.9608,1.9704,2.9412,3.8095,-9.5873,4.8025,-17.391001,-1.868,-3.9936,-10.413,2.9412,-18.486
5.624,-18.983999,3.9024,5.8824,2.9557,2.6667,-3.8647,3.8188,-1.0356,5.8824,2.9557,2.9412,6.6667,-8.6349,9.5419,-17.391001,1.0306,3.7359,-11.365,9.8039,-17.52
8.4676,-21.841,0.0,-2.9412,-4.9261,0.71545,-9.6618,1.877,-8.8026,-2.9412,-4.9261,-4.902,6.6667,-4.8254,12.385,-12.56,1.9968,8.5668,-11.365,12.745,-14.622
8.4676,-18.032,-2.9268,-6.8627,-10.837,-4.1626,-14.493,1.877,-9.7735,-6.8627,-10.837,-10.784,6.6667,0.88889,11.438,-5.7971,4.8953,9.533,-8.5079,9.8039,-7.8583
9.4155,-13.27,-0.97561,-6.8627,-11.823,-3.187,-12.56,1.877,-6.8608,-6.8627,-11.823,-9.8039,6.6667,2.7937,10.49,-0.96618,5.8615,7.6006,-4.6984,12.745,-3.0274
6.5719,-9.4603,-1.9512,-1.9608,-9.8522,-1.2358,-8.6957,1.877,-2.9773,-1.9608,-9.8522,-8.8235,0.95238,1.8413,7.6461,1.9324,3.9291,10.499,-0.88889,6.8627,-1.095
5.624,-6.6032,-4.878,-1.9608,-3.9409,5.5935,-2.8986,1.877,-0.06472,-1.9608,-3.9409,-6.8627,-4.7619,3.746,1.0111,1.9324,0.06441,10.499,0.06349,-0.98039,-0.12882
3.7283,-9.4603,-6.8293,-3.9216,-0.98522,4.6179,-7.7295,5.7605,-0.06472,-3.9216,-0.98522,-5.8824,-13.333,-2.9206,-4.6761,-4.8309,-6.6989,3.7359,-1.8413,-0.98039,-8.8245
-1.0111,-8.5079,-7.8049,2.9412,-1.9704,-0.26016,-7.7295,7.7023,2.8479,2.9412,-1.9704,-4.902,-15.238,-9.5873,-10.363,-7.7295,-10.564,3.7359,-0.88889,-4.902,-7.8583
-7.6461,-4.6984,-9.7561,3.9216,-2.9557,-4.1626,-4.8309,5.7605,4.7896,3.9216,-2.9557,-5.8824,-15.238,-8.6349,-14.155,-5.7971,-13.462,4.7021,1.0159,-5.8824,0.83736
-11.438,1.9683,-10.732,3.9216,3.9409,-4.1626,0.96618,-1.0356,4.7896,3.9216,3.9409,-1.9608,-10.476,-1.9683,-15.103,-1.9324,-13.462,-2.0612,2.9206,-4.902,10.499
-15.229,7.6825,-9.7561,0.0,-0.98522,-4.1626,3.8647,-4.9191,3.8188,0.0,-0.98522,-0.98039,-3.8095,3.746,-11.311,2.8986,-9.5974,-4.9597,2.9206,-5.8824,11.465
-17.125,10.54,-5.8537,-4.902,0.98522,-8.065,5.7971,-6.8608,4.7896,-4.902,0.98522,-0.98039,2.8571,8.5079,-8.4676,6.7633,-3.8003,-9.7907,2.9206,-7.8431,12.432
-12.385,13.397,1.9512,1.9608,6.8966,-6.1138,9.6618,-5.89,8.6731,1.9608,6.8966,2.9412,10.476,11.365,-1.8325,10.628,1.9968,-9.7907,3.873,-5.8824,14.364
-7.6461,15.302,5.8537,4.902,6.8966,-2.2114,11.594,-3.9482,7.7023,4.902,6.8966,6.8627,11.429,11.365,1.9589,10.628,4.8953,-7.8583,6.7302,-3.9216,14.364
-1.9589,12.444,7.8049,6.8627,11.823,0.71545,10.628,-3.9482,5.7605,6.8627,11.823,9.8039,7.619,6.6032,2.9068,4.8309,3.9291,-7.8583,1.9683,-0.98039,0.83736
6.5719,7.6825,9.7561,17.646999,16.749001,7.5447,12.56,1.877,5.7605,17.646999,16.749001,14.706,8.5714,-1.0159,8.594,-0.96618,4.8953,-3.0274,-3.746,3.9216,-11.723
15.103,2.9206,11.707,15.686,15.764,12.423,14.493,3.8188,7.7023,15.686,15.764,15.686,6.6667,-5.7778,13.333,-3.8647,6.8277,2.7697,-2.7937,11.765,-13.655
18.893999,-0.88889,12.683,7.8431,14.778,12.423,12.56,3.8188,6.7314,7.8431,14.778,14.706,2.8571,-5.7778,14.281,-7.7295,5.8615,9.533,-0.88889,17.646999,-14.622
15.103,-8.5079,7.8049,6.8627,12.808,9.4959,3.8647,5.7605,3.8188,6.8627,12.808,10.784,-3.8095,-12.444,8.594,-14.493,0.06441,12.432,-4.6984,12.745,-15.588
8.4676,-16.127001,0.97561,8.8235,8.867,3.6423,-3.8647,6.7314,2.8479,8.8235,8.867,2.9412,-9.5238,-16.254,1.0111,-18.357,-5.7327,8.5668,-4.6984,5.8824,-16.554001
7.5197,-16.127001,-0.97561,13.725,6.8966,4.6179,-5.7971,9.644,4.7896,13.725,6.8966,0.0,-7.619,-14.349,1.0111,-12.56,-3.8003,10.499,-2.7937,6.8627,-15.588
2.7804,-8.5079,-2.9268,8.8235,5.9113,3.6423,-5.7971,6.7314,7.7023,8.8235,5.9113,-2.9412,-8.5714,-10.54,-3.7283,-2.8986,-3.8003,6.6345,2.9206,-0.98039,-4.9597
-0.06319,-2.7937,-4.878,0.0,5.9113,-0.26016,-5.7971,-2.0065,4.7896,0.0,5.9113,-4.902,-13.333,-6.7302,-10.363,2.8986,-5.7327,0.83736,7.6825,-8.8235,3.7359
-3.8547,-0.88889,-4.878,-0.98039,0.0,-3.187,-8.6957,-7.8317,-0.06472,-0.98039,0.0,-7.8431,-14.286,-1.9683,-14.155,5.7971,-6.6989,-6.8921,6.7302,-15.686,14.364
-4.8025,1.9683,-1.9512,-0.98039,2.9557,-7.0894,-4.8309,-5.89,0.90615,-0.98039,2.9557,-4.902,-8.5714,6.6032,-13.207,9.6618,-2.8341,-6.8921,6.7302,-17.646999,12.432
-5.7504,4.8254,-1.9512,-4.902,-0.98522,-8.065,-1.9324,-5.89,-0.06472,-4.902,-0.98522,-4.902,-1.9048,5.6508,-7.5197,9.6618,0.06441,-5.9259,3.873,-13.725,6.6345
-6.6983,7.6825,-1.9512,-7.8431,-5.9113,-7.0894,0.0,-11.715,-1.0356,-7.8431,-5.9113,-3.9216,4.7619,10.413,-3.7283,9.6618,2.963,-9.7907,1.9683,-8.8235,2.7697
-8.594,14.349,0.97561,-10.784,-6.8966,-11.967,2.8986,-15.599,-1.0356,-10.784,-6.8966,-3.9216,11.429,17.079,-0.88468,14.493,6.8277,-11.723,1.0159,-5.8824,11.465
-5.7504,21.016001,5.8537,-1.9608,-0.98522,-13.919,6.7633,-13.657,0.90615,-1.9608,-0.98522,-0.98039,15.238,18.983999,5.7504,19.323999,12.625,-8.8245,2.9206,-1.9608,20.160999
-3.8547,26.73,10.732,-4.902,1.9704,-12.943,9.6618,-13.657,4.7896,-4.902,1.9704,1.9608,17.143,22.794001,7.6461,23.188,14.557,-8.8245,8.6349,0.0,24.992001
-1.0111,26.73,12.683,-6.8627,5.9113,-6.1138,16.424999,-12.686,6.7314,-6.8627,5.9113,6.8627,15.238,16.127001,5.7504,20.290001,14.557,-11.723,5.7778,-0.98039,11.465
5.624,23.872999,14.634,-7.8431,6.8966,1.6911,19.323999,-5.89,6.7314,-7.8431,6.8966,9.8039,12.381,7.5556,7.6461,15.459,13.591,-6.8921,1.9683,2.9412,2.7697
11.311,19.111,14.634,-1.9608,6.8966,8.5203,15.459,-1.0356,6.7314,-1.9608,6.8966,11.765,10.476,3.746,8.594,9.6618,12.625,-2.0612,3.873,5.8824,1.8035
12.259,12.444,11.707,14.706,9.8522,10.472,11.594,2.8479,5.7605,14.706,9.8522,11.765,2.8571,-2.9206,3.8547,0.96618,5.8615,1.8035,3.873,6.8627,-1.095
12.259,10.54,10.732,11.765,13.793,8.5203,11.594,4.7896,5.7605,11.765,13.793,12.745,-3.8095,-6.7302,2.9068,-3.8647,1.9968,7.6006,1.9683,3.9216,-6.8921
16.051001,11.492,11.707,10.784,13.793,12.423,17.391001,8.6731,10.615,10.784,13.793,16.667,-4.7619,-9.5873,4.8025,-2.8986,1.9968,8.5668,2.9206,1.9608,-6.8921
14.155,3.873,6.8293,15.686,10.837,14.374,11.594,11.586,9.644,15.686,10.837,12.745,-8.5714,-14.349,3.8547,-7.7295,-0.90177,10.499,-0.88889,0.0,-15.588
12.259,-4.6984,2.9268,10.784,10.837,11.447,5.7971,9.644,6.7314,10.784,10.837,7.8431,-12.381,-17.205999,1.0111,-12.56,-4.7665,9.533,-1.8413,-1.9608,-17.52
10.363,-11.365,1.9512,11.765,10.837,10.472,1.9324,10.615,7.7023,11.765,10.837,5.8824,-12.381,-19.111,1.0111,-15.459,-6.6989,10.499,-3.746,0.0,-21.385
0.88468,-18.032,-6.8293,8.8235,5.9113,1.6911,-6.7633,3.8188,2.8479,8.8235,5.9113,-2.9412,-12.381,-17.205999,-2.7804,-17.391001,-9.5974,4.7021,-4.6984,0.0,-21.385
-8.594,-21.841,-15.61,-1.9608,-1.9704,-8.065,-15.459,-4.9191,-0.06472,-1.9608,-1.9704,-13.725,-8.5714,-7.6825,-5.624,-11.594,-10.564,0.83736,-0.88889,-4.902,-5.9259
-15.229,-19.937,-20.488001,-12.745,-6.8966,-14.894,-22.222,-12.686,-2.9773,-12.745,-6.8966,-21.569,-3.8095,-0.06349,-6.5719,-4.8309,-7.6651,-3.9936,2.9206,-2.9412,6.6345
-21.864,-18.032,-22.438999,-17.646999,-9.8522,-21.724001,-22.222,-17.540001,-4.9191,-17.646999,-9.8522,-25.49,-0.95238,3.746,-11.311,-1.9324,-7.6651,-13.655,4.8254,-9.8039,14.364
-21.864,-12.317,-16.584999,-19.608,-8.867,-19.771999,-17.391001,-16.57,-5.89,-19.608,-8.867,-22.549,1.9048,5.6508,-12.259,0.96618,-6.6989,-14.622,3.873,-8.8235,15.33
-19.021,-7.5556,-11.707,-15.686,-9.8522,-18.797001,-15.459,-17.540001,-3.9482,-15.686,-9.8522,-18.627001,3.8095,5.6508,-9.4155,1.9324,-5.7327,-14.622,2.9206,-0.98039,15.33
-14.281,-0.88889,-6.8293,-4.902,-1.9704,-17.820999,-7.7295,-16.57,-0.06472,-4.902,-1.9704,-12.745,3.8095,4.6984,-3.7283,4.8309,-2.8341,-10.757,9.5873,2.9412,13.398
-12.385,1.9683,-6.8293,-3.9216,-2.9557,-17.820999,-7.7295,-18.511,-2.0065,-3.9216,-2.9557,-11.765,2.8571,3.746,-1.8325,5.7971,-1.868,-9.7907,5.7778,0.98039,10.499
-7.6461,7.6825,-1.9512,-11.765,-3.9409,-14.894,-4.8309,-15.599,-2.0065,-11.765,-3.9409,-8.8235,6.6667,12.317,1.0111,10.628,2.963,-14.622,2.9206,2.9412,17.261999
3.7283,13.397,7.8049,-4.902,1.9704,-5.1382,5.7971,-4.9191,0.90615,-4.902,1.9704,0.0,9.5238,12.317,10.49,13.527,9.7262,-4.9597,2.9206,10.784,13.398
16.051001,17.205999,17.561001,6.8627,5.9113,4.6179,9.6618,4.7896,-0.06472,6.8627,5.9113,9.8039,9.5238,6.6032,17.125,13.527,13.591,8.5668,1.0159,16.667,9.533
23.632999,17.205999,21.462999,5.8824,8.867,9.4959,9.6618,5.7605,-1.0356,5.8824,8.867,14.706,9.5238,3.746,19.968,11.594,14.557,18.229,-0.88889,18.627001,3.7359
23.632999,13.397,17.561001,10.784,10.837,15.35,12.56,10.615,8.6731,10.784,10.837,14.706,8.5714,2.7937,18.073,4.8309,10.692,21.127001,-1.8413,14.706,-10.757
19.841999,8.6349,11.707,19.608,9.8522,17.301001,13.527,12.557,9.644,19.608,9.8522,14.706,6.6667,-0.06349,13.333,-1.9324,5.8615,19.195,-4.6984,9.8039,-17.52
16.051001,1.9683,6.8293,14.706,8.867,16.325001,10.628,11.586,8.6731,14.706,8.867,11.765,5.7143,-1.0159,9.5419,-6.7633,1.9968,21.127001,-5.6508,12.745,-13.655
12.259,-10.413,1.9512,5.8824,6.8966,15.35,5.7971,12.557,9.644,5.8824,6.8966,8.8235,3.8095,-1.0159,2.9068,-14.493,-2.8341,16.296,-7.5556,3.9216,-16.554001
6.5719,-19.937,-2.9268,0.0,0.98522,11.447,-4.8309,8.6731,2.8479,0.0,0.98522,3.9216,1.9048,-5.7778,-1.8325,-21.256001,-7.6651,10.499,-12.317,2.9412,-15.588
0.88468,-22.794001,-6.8293,3.9216,-2.9557,9.4959,-5.7971,10.615,-1.0356,3.9216,-2.9557,0.98039,2.8571,-10.54,-5.624,-24.155001,-10.564,15.33,-15.175,6.8627,-18.486
-7.6461,-21.841,-13.659,4.902,-8.867,0.71545,-12.56,5.7605,-2.0065,4.902,-8.867,-7.8431,1.9048,-10.54,-8.4676,-20.290001,-12.496,9.533,-14.222,5.8824,-16.554001
-18.073,-22.794001,-20.488001,-10.784,-12.808,-13.919,-17.391001,-5.89,-6.8608,-10.784,-12.808,-17.646999,-0.95238,-10.54,-13.207,-18.357,-14.428,-3.0274,-13.27,3.9216,-10.757
-16.177,-14.222,-13.659,-11.765,-5.9113,-15.87,-12.56,-8.8026,-1.0356,-11.765,-5.9113,-13.725,4.7619,-0.06349,-7.5197,-7.7295,-6.6989,-8.8245,-4.6984,6.8627,-1.095
-13.333,-6.6032,-5.8537,-8.8235,-2.9557,-14.894,-7.7295,-13.657,-0.06472,-8.8235,-2.9557,-9.8039,8.5714,4.6984,-0.88468,0.96618,1.0306,-4.9597,-1.8413,9.8039,7.6006
-11.438,1.0159,-2.9268,-11.765,-4.9261,-16.846001,-5.7971,-17.540001,0.90615,-11.765,-4.9261,-8.8235,10.476,7.5556,2.9068,6.7633,3.9291,-7.8583,1.9683,9.8039,11.465
-5.7504,11.492,1.9512,-10.784,-6.8966,-17.820999,0.96618,-15.599,4.7896,-10.784,-6.8966,-6.8627,14.286,16.127001,9.5419,17.391001,10.692,-11.723,7.6825,10.784,20.160999
-3.8547,14.349,1.9512,-13.725,-10.837,-13.919,-1.9324,-15.599,1.877,-13.725,-10.837,-8.8235,9.5238,16.127001,9.5419,21.256001,11.659,-15.588,9.5873,4.902,20.160999
5.624,20.063,8.7805,-12.745,-4.9261,-4.1626,2.8986,-10.744,4.7896,-12.745,-4.9261,-0.98039,8.5714,15.175,13.333,24.155001,14.557,-2.0612,8.6349,3.9216,14.364
10.363,21.016001,13.659,-10.784,1.9704,2.6667,9.6618,-2.9773,7.7023,-10.784,1.9704,4.902,8.5714,17.079,16.177,22.222,15.523,5.6683,10.54,3.9216,15.33
10.363,13.397,9.7561,5.8824,4.9261,6.5691,8.6957,4.7896,4.7896,5.8824,4.9261,6.8627,3.8095,6.6032,10.49,12.56,8.7601,7.6006,5.7778,0.0,4.7021
7.5197,7.6825,5.8537,16.667,4.9261,8.5203,5.7971,9.644,5.7605,16.667,4.9261,8.8235,-0.95238,-2.9206,2.9068,2.8986,1.9968,10.499,2.9206,-1.9608,-5.9259
-2.9068,-4.6984,-5.8537,9.8039,-5.9113,3.6423,-3.8647,6.7314,-3.9482,9.8039,-5.9113,0.0,-9.5238,-10.54,-8.4676,-11.594,-10.564,4.7021,-3.746,-11.765,-11.723
-1.0111,-11.365,-7.8049,-0.98039,-2.9557,5.5935,-7.7295,5.7605,-4.9191,-0.98039,-2.9557,-1.9608,-11.429,-12.444,-10.363,-18.357,-13.462,5.6683,-3.746,-10.784,-4.9597
1.8325,-21.841,-8.7805,2.9412,0.0,7.5447,-9.6618,6.7314,-2.9773,2.9412,0.0,-1.9608,-13.333,-18.159,-9.4155,-27.052999,-16.361,5.6683,-7.5556,-9.8039,-14.622
3.7283,-27.556,-9.7561,18.627001,7.8818,12.423,-5.7971,14.498,-0.06472,18.627001,7.8818,1.9608,-16.190001,-24.825001,-10.363,-31.884001,-17.327,5.6683,-11.365,-11.765,-24.283001
-1.9589,-28.507999,-13.659,12.745,3.9409,6.5691,-7.7295,12.557,-2.0065,12.745,3.9409,-1.9608,-18.094999,-22.921,-12.259,-28.986,-18.292999,-1.095,-12.317,-12.745,-20.419001
-6.6983,-22.794001,-13.659,3.9216,0.0,0.71545,-7.7295,2.8479,-4.9191,3.9216,0.0,-4.902,-14.286,-17.205999,-11.311,-20.290001,-13.462,-13.655,-8.5079,-15.686,-10.757
-4.8025,-8.5079,-4.878,0.0,2.9557,2.6667,0.96618,-2.9773,-1.0356,0.0,2.9557,0.98039,-7.619,-10.54,-7.5197,-6.7633,-4.7665,-15.588,-1.8413,-14.706,-7.8583
-2.9068,-0.88889,0.0,0.98039,5.9113,4.6179,5.7971,-2.9773,3.8188,0.98039,5.9113,4.902,-3.8095,-5.7778,-4.6761,-0.96618,0.06441,-13.655,2.9206,-9.8039,-7.8583
-3.8547,1.0159,0.0,4.902,0.98522,4.6179,3.8647,-2.9773,2.8479,4.902,0.98522,3.9216,-1.9048,-4.8254,-1.8325,0.0,1.9968,-9.7907,4.8254,-3.9216,-3.9936
-3.8547,3.873,1.9512,6.8627,3.9409,2.6667,6.7633,-1.0356,3.8188,6.8627,3.9409,5.8824,1.9048,-0.06349,3.8547,3.8647,5.8615,-6.8921,6.7302,1.9608,3.7359
-2.9068,5.7778,3.9024,3.9216,1.9704,1.6911,7.7295,-1.0356,2.8479,3.9216,1.9704,4.902,3.8095,6.6032,6.6983,6.7633,7.7939,-2.0612,7.6825,3.9216,8.5668
0.88468,6.7302,2.9268,-0.98039,-2.9557,-2.2114,5.7971,-2.0065,-0.06472,-0.98039,-2.9557,1.9608,3.8095,9.4603,5.7504,8.6957,7.7939,0.83736,4.8254,6.8627,7.6006
-0.06319,2.9206,-1.9512,-7.8431,-5.9113,-4.1626,0.0,-4.9191,-3.9482,-7.8431,-5.9113,-3.9216,0.0,8.5079,0.06319,4.8309,2.963,0.83736,1.0159,0.0,7.6006
-0.06319,1.0159,-6.8293,-11.765,-2.9557,-7.0894,-3.8647,-5.89,-5.89,-11.765,-2.9557,-6.8627,-3.8095,4.6984,-1.8325,1.9324,-1.868,-1.095,0.06349,-0.98039,5.6683
-3.8547,1.0159,-9.7561,-13.725,-5.9113,-12.943,-2.8986,-7.8317,-4.9191,-13.725,-5.9113,-8.8235,-6.6667,3.746,-5.624,0.96618,-3.8003,-1.095,-0.88889,-5.8824,7.6006
-4.8025,4.8254,-6.8293,-12.745,-14.778,-12.943,-1.9324,-8.8026,-6.8608,-12.745,-14.778,-7.8431,-7.619,2.7937,-7.5197,2.8986,-3.8003,-1.095,-1.8413,-11.765,6.6345
-2.9068,3.873,-0.97561,-7.8431,-10.837,-9.0407,-2.8986,-5.89,-6.8608,-7.8431,-10.837,-4.902,-6.6667,-0.06349,-6.5719,1.9324,-2.8341,-3.9936,-0.88889,-12.745,-3.0274
2.7804,6.7302,6.8293,-2.9412,-1.9704,-0.26016,-0.96618,0.90615,-2.9773,-2.9412,-1.9704,0.98039,-0.95238,-1.9683,-1.8325,4.8309,1.9968,-3.0274,3.873,-7.8431,2.7697
6.5719,5.7778,11.707,-0.98039,5.9113,5.5935,4.8309,1.877,0.90615,-0.98039,5.9113,6.8627,0.95238,-1.9683,3.8547,3.8647,4.8953,-2.0612,4.8254,-1.9608,2.7697
3.7283,1.9683,8.7805,3.9216,5.9113,5.5935,4.8309,2.8479,3.8188,3.9216,5.9113,6.8627,0.95238,-0.06349,1.9589,0.96618,3.9291,-4.9597,2.9206,-0.98039,-3.0274
2.7804,2.9206,7.8049,15.686,3.9409,8.5203,8.6957,6.7314,4.7896,15.686,3.9409,9.8039,2.8571,2.7937,3.8547,2.8986,5.8615,-1.095,2.9206,4.902,-2.0612
0.88468,1.0159,5.8537,11.765,5.9113,7.5447,7.7295,8.6731,5.7605,11.765,5.9113,7.8431,3.8095,2.7937,2.9068,3.8647,6.8277,0.83736,1.0159,3.9216,-3.0274
-3.8547,-0.88889,3.9024,9.8039,8.867,1.6911,5.7971,6.7314,3.8188,9.8039,8.867,3.9216,1.9048,3.746,-1.8325,5.7971,5.8615,-3.9936,2.9206,-0.98039,0.83736
-12.385,-4.6984,-1.9512,6.8627,3.9409,-5.1382,-0.96618,2.8479,2.8479,6.8627,3.9409,-3.9216,0.95238,2.7937,-7.5197,3.8647,1.0306,-14.622,1.9683,-4.902,-0.12882
-14.281,-4.6984,-5.8537,3.9216,7.8818,-5.1382,-0.96618,1.877,4.7896,3.9216,7.8818,-3.9216,-3.8095,0.88889,-9.4155,1.9324,-2.8341,-10.757,3.873,-6.8627,1.8035
-15.229,-0.88889,-6.8293,0.0,7.8818,-3.187,0.96618,-2.0065,2.8479,0.0,7.8818,-2.9412,-5.7143,2.7937,-9.4155,3.8647,-3.8003,-3.0274,3.873,-5.8824,6.6345
-14.281,-0.88889,-10.732,-7.8431,-0.98522,-8.065,-0.96618,-5.89,-2.0065,-7.8431,-0.98522,-6.8627,-4.7619,4.6984,-8.4676,4.8309,-4.7665,-0.12882,-0.88889,-4.902,5.6683
-13.333,-0.88889,-11.707,-7.8431,-12.808,-13.919,-6.7633,-8.8026,-7.8317,-7.8431,-12.808,-12.745,-5.7143,4.6984,-8.4676,4.8309,-4.7665,-0.12882,-2.7937,-6.8627,6.6345
-11.438,1.0159,-11.707,-15.686,-16.749001,-17.820999,-8.6957,-10.744,-14.628,-15.686,-16.749001,-14.706,-8.5714,0.88889,-10.363,2.8986,-5.7327,-1.095,-4.6984,-4.902,8.5668
0.88468,8.6349,0.0,-12.745,-10.837,-8.065,-3.8647,-3.9482,-6.8608,-12.745,-10.837,-6.8627,0.0,6.6032,1.9589,9.6618,2.963,6.6345,1.0159,2.9412,12.432
10.363,13.397,9.7561,-7.8431,-9.8522,1.6911,0.0,0.90615,-2.9773,-7.8431,-9.8522,0.0,9.5238,13.27,13.333,15.459,12.625,12.432,1.9683,11.765,11.465
15.103,11.492,10.732,-4.902,-6.8966,5.5935,-0.96618,1.877,-5.89,-4.902,-6.8966,0.98039,11.429,8.5079,17.125,11.594,14.557,16.296,-2.7937,15.686,-0.12882
18.893999,7.6825,9.7561,-4.902,-9.8522,7.5447,-1.9324,1.877,-9.7735,-4.902,-9.8522,0.0,10.476,4.6984,21.864,8.6957,14.557,17.261999,-5.6508,17.646999,-5.9259
23.632999,11.492,16.584999,-2.9412,-9.8522,8.5203,4.8309,6.7314,-6.8608,-2.9412,-9.8522,6.8627,12.381,5.6508,23.76,11.594,19.388,15.33,-0.88889,17.646999,-0.12882
29.320999,19.111,28.292999,8.8235,7.8818,18.275999,14.493,11.586,0.90615,8.8235,7.8818,17.646999,14.286,5.6508,25.656,16.424999,24.219,15.33,1.9683,16.667,0.83736
28.372999,20.063,31.219999,10.784,10.837,24.129999,18.357,8.6731,1.877,10.784,10.837,23.528999,9.5238,3.746,19.968,12.56,20.354,13.398,-0.88889,15.686,-2.0612
15.103,17.205999,24.389999,10.784,10.837,19.252001,19.323999,7.7023,4.7896,10.784,10.837,23.528999,3.8095,1.8413,6.6983,8.6957,10.692,4.7021,2.9206,5.8824,-1.095
-1.9589,8.6349,6.8293,12.745,11.823,12.423,15.459,4.7896,5.7605,12.745,11.823,18.627001,-3.8095,-1.0159,-10.363,0.96618,-1.868,-4.9597,4.8254,-9.8039,1.8035
-12.385,1.9683,-1.9512,16.667,12.808,7.5447,14.493,1.877,9.644,16.667,12.808,13.725,-8.5714,-0.06349,-21.738001,0.0,-8.6312,-15.588,5.7778,-17.646999,5.6683
-10.49,4.8254,0.0,20.587999,17.733999,10.472,15.459,2.8479,12.557,20.587999,17.733999,12.745,-5.7143,7.5556,-19.841999,5.7971,-5.7327,-16.554001,10.54,-15.686,9.533
-13.333,-1.8413,-9.7561,10.784,4.9261,0.71545,0.0,-1.0356,4.7896,10.784,4.9261,0.0,-10.476,1.8413,-18.893999,0.96618,-10.564,-15.588,7.6825,-14.706,12.432
-10.49,-6.6032,-14.634,0.98039,0.98522,-7.0894,-3.8647,0.90615,-0.06472,0.98039,0.98522,-5.8824,-5.7143,-1.9683,-9.4155,-1.9324,-9.5974,-5.9259,1.0159,-3.9216,2.7697
-9.5419,-5.6508,-13.659,-5.8824,-1.9704,-9.0407,-5.7971,3.8188,1.877,-5.8824,-1.9704,-8.8235,1.9048,-0.06349,1.0111,0.0,-4.7665,1.8035,2.9206,1.9608,-3.0274
-14.281,-7.5556,-12.683,0.0,-3.9409,-11.967,-10.628,-1.0356,2.8479,0.0,-3.9409,-11.765,-1.9048,-1.9683,-0.88468,-2.8986,-4.7665,-3.0274,4.8254,-3.9216,-5.9259
-12.385,-9.4603,-9.7561,3.9216,-2.9557,-10.016,-8.6957,-1.0356,-0.06472,3.9216,-2.9557,-9.8039,-5.7143,-9.5873,-2.7804,-8.6957,-7.6651,-9.7907,1.0159,-7.8431,-9.7907
-3.8547,-5.6508,-3.9024,3.9216,-2.9557,-5.1382,-4.8309,-0.06472,-2.0065,3.9216,-2.9557,-5.8824,-1.9048,-9.5873,2.9068,-7.7295,-3.8003,1.8035,0.06349,-4.902,-3.9936
5.624,0.06349,1.9512,-3.9216,0.98522,-1.2358,0.96618,2.8479,-0.06472,-3.9216,0.98522,-1.9608,3.8095,-5.7778,9.5419,-2.8986,1.9968,13.398,-0.88889,3.9216,-4.9597
9.4155,1.0159,1.9512,-8.8235,-8.867,-1.2358,-3.8647,2.8479,-5.89,-8.8235,-8.867,-1.9608,2.8571,-4.8254,10.49,-1.9324,2.963,13.398,-4.6984,8.8235,-3.0274
16.051001,1.9683,5.8537,-3.9216,-10.837,6.5691,-3.8647,7.7023,-5.89,-3.9216,-10.837,0.98039,5.7143,1.8413,14.281,1.9324,6.8277,17.261999,-3.746,15.686,1.8035
25.528999,6.7302,16.584999,-0.98039,-3.9409,15.35,3.8647,9.644,-1.0356,-0.98039,-3.9409,8.8235,12.381,11.365,21.864,10.628,14.557,21.127001,-0.88889,20.587999,5.6683
25.528999,8.6349,19.511999,5.8824,-1.9704,15.35,4.8309,4.7896,-3.9482,5.8824,-1.9704,11.765,13.333,17.079,19.968,13.527,17.455999,17.261999,-0.88889,17.646999,7.6006
18.893999,2.9206,14.634,-0.98039,-4.9261,10.472,1.9324,0.90615,-7.8317,-0.98039,-4.9261,8.8235,12.381,11.365,15.229,7.7295,11.659,10.499,-2.7937,16.667,7.6006
14.155,0.06349,11.707,-4.902,-0.98522,9.4959,2.8986,2.8479,-5.89,-4.902,-0.98522,9.8039,12.381,11.365,9.5419,2.8986,6.8277,4.7021,-2.7937,11.765,1.8035
16.051001,1.9683,14.634,2.9412,5.9113,16.325001,7.7295,8.6731,4.7896,2.9412,5.9113,14.706,13.333,13.27,10.49,2.8986,8.7601,1.8035,0.06349,13.725,0.83736
9.4155,-0.88889,11.707,8.8235,5.9113,13.398,8.6957,2.8479,5.7605,8.8235,5.9113,14.706,5.7143,4.6984,1.9589,-2.8986,1.9968,-2.0612,0.06349,0.98039,-2.0612
-1.0111,-11.365,1.9512,7.8431,4.9261,6.5691,1.9324,-4.9191,-1.0356,7.8431,4.9261,8.8235,-4.7619,-6.7302,-11.311,-13.527,-8.6312,-10.757,-4.6984,-11.765,-4.9597
-4.8025,-18.032,-3.9024,7.8431,8.867,6.5691,0.0,-2.9773,1.877,7.8431,8.867,4.902,-8.5714,-11.492,-13.207,-16.424999,-10.564,-6.8921,-3.746,-10.784,-3.9936
-13.333,-20.889,-12.683,1.9608,5.9113,-1.2358,-4.8309,0.90615,5.7605,1.9608,5.9113,-3.9216,-9.5238,-10.54,-14.155,-15.459,-12.496,-5.9259,0.06349,-8.8235,-1.095
-20.916,-19.937,-20.488001,-0.98039,1.9704,-12.943,-8.6957,0.90615,5.7605,-0.98039,1.9704,-12.745,-10.476,-13.397,-16.051001,-16.424999,-14.428,-8.8245,2.9206,-10.784,-4.9597
-26.603001,-18.032,-22.438999,0.0,-1.9704,-22.698999,-11.594,-6.8608,2.8479,0.0,-1.9704,-20.587999,-10.476,-12.444,-16.997999,-15.459,-14.428,-12.689,2.9206,-14.706,-1.095
-19.021,-12.317,-14.634,1.9608,2.9557,-15.87,-6.7633,-4.9191,5.7605,1.9608,2.9557,-15.686,-6.6667,-9.5873,-10.363,-8.6957,-7.6651,-11.723,3.873,-11.765,3.7359
-9.5419,-10.413,-11.707,0.98039,1.9704,-5.1382,-3.8647,2.8479,5.7605,0.98039,1.9704,-11.765,-6.6667,-11.492,-2.7804,-7.7295,-5.7327,-0.12882,2.9206,-7.8431,-11.723
-8.594,-11.365,-14.634,-4.902,0.0,-7.0894,-7.7295,2.8479,3.8188,-4.902,0.0,-14.706,-7.619,-14.349,-3.7283,-10.628,-9.5974,-5.9259,1.0159,-8.8235,-22.351
-2.9068,-8.5079,-12.683,-0.98039,-0.98522,-5.1382,-7.7295,3.8188,0.90615,-0.98039,-0.98522,-11.765,-3.8095,-10.54,-0.88468,-7.7295,-6.6989,-2.0612,1.9683,-7.8431,-9.7907
12.259,1.9683,0.0,4.902,-0.98522,4.6179,0.0,8.6731,1.877,4.902,-0.98522,-1.9608,4.7619,1.8413,12.385,3.8647,4.8953,11.465,3.873,5.8824,-4.9597
19.841999,9.5873,9.7561,1.9608,-1.9704,8.5203,4.8309,9.644,2.8479,1.9608,-1.9704,4.902,11.429,7.5556,17.125,9.6618,10.692,14.364,1.9683,12.745,-3.0274
22.686001,18.159,17.561001,-0.98039,-1.9704,11.447,8.6957,7.7023,1.877,-0.98039,-1.9704,9.8039,12.381,15.175,18.073,16.424999,14.557,17.261999,2.9206,14.706,12.432
28.372999,25.778,25.365999,5.8824,0.0,16.325001,12.56,8.6731,-2.0065,5.8824,0.0,16.667,15.238,16.127001,21.864,22.222,19.388,19.195,2.9206,18.627001,12.432
26.476999,23.872999,25.365999,8.8235,-0.98522,18.275999,8.6957,6.7314,-2.0065,8.8235,-0.98522,16.667,12.381,13.27,17.125,19.323999,16.49,13.398,0.06349,11.765,10.499
17.945999,19.111,19.511999,-1.9608,-3.9409,11.447,7.7295,1.877,-2.9773,-1.9608,-3.9409,11.765,8.5714,8.5079,7.6461,12.56,9.7262,2.7697,0.06349,4.902,13.398
10.363,16.254,16.584999,0.98039,0.98522,9.4959,10.628,3.8188,0.90615,0.98039,0.98522,12.745,2.8571,5.6508,-1.8325,7.7295,3.9291,-5.9259,1.9683,-0.98039,11.465
3.7283,14.349,15.61,10.784,12.808,9.4959,17.391001,5.7605,6.7314,10.784,12.808,18.627001,-4.7619,-1.0159,-10.363,3.8647,-1.868,-2.0612,2.9206,-2.9412,5.6683
-4.8025,11.492,11.707,6.8627,11.823,7.5447,14.493,0.90615,6.7314,6.8627,11.823,18.627001,-14.286,-7.6825,-19.841999,-0.96618,-9.5974,-3.0274,3.873,-12.745,-0.12882
-8.594,8.6349,7.8049,16.667,10.837,8.5203,12.56,3.8188,6.7314,16.667,10.837,17.646999,-17.143,-9.5873,-23.632999,-3.8647,-13.462,-12.689,2.9206,-17.646999,3.7359
-15.229,3.873,0.0,17.646999,11.823,4.6179,9.6618,3.8188,4.7896,17.646999,11.823,11.765,-14.286,-6.7302,-22.686001,-5.7971,-15.395,-13.655,0.06349,-17.646999,-2.0612
-20.916,-5.6508,-12.683,3.9216,6.8966,-7.0894,0.96618,-3.9482,1.877,3.9216,6.8966,0.0,-10.476,-7.6825,-19.841999,-9.6618,-15.395,-6.8921,-3.746,-12.745,-7.8583
-23.76,-17.079,-18.537001,-3.9216,7.8818,-11.967,-6.7633,-3.9482,1.877,-3.9216,7.8818,-8.8235,-5.7143,-9.5873,-15.103,-14.493,-15.395,-7.8583,-8.5079,-6.8627,-11.723
-21.864,-25.650999,-22.438999,-4.902,0.0,-13.919,-17.391001,-2.0065,-2.9773,-4.902,0.0,-16.667,0.95238,-8.6349,-8.4676,-16.424999,-13.462,-9.7907,-10.413,-3.9216,-13.655
-25.656,-31.365,-32.195,-9.8039,-13.793,-26.601999,-27.052999,-6.8608,-10.744,-9.8039,-13.793,-31.372999,6.6667,-1.9683,-3.7283,-16.424999,-12.496,-4.9597,-9.4603,4.902,-12.689
-27.551001,-31.365,-37.073002,-17.646999,-19.704,-37.333,-32.849998,-13.657,-17.540001,-17.646999,-19.704,-42.157001,12.381,3.746,1.0111,-13.527,-8.6312,-5.9259,-11.365,10.784,-11.723
-21.864,-28.507999,-33.171001,-23.528999,-19.704,-35.382,-32.849998,-11.715,-17.540001,-23.528999,-19.704,-40.195999,19.048,7.5556,7.6461,-8.6957,-2.8341,2.7697,-13.27,21.569,-3.9936
-19.968,-25.650999,-29.268,-17.646999,-16.749001,-29.528,-32.849998,-6.8608,-18.511,-17.646999,-16.749001,-36.275002,18.094999,7.5556,6.6983,-6.7633,-2.8341,10.499,-12.317,24.51,-3.9936
-11.438,-14.222,-18.537001,-9.8039,-10.837,-14.894,-22.222,0.90615,-12.686,-9.8039,-10.837,-23.528999,14.286,9.4603,5.7504,-1.9324,0.06441,16.296,-8.5079,21.569,1.8035
-4.8025,-5.6508,-7.8049,1.9608,-9.8522,-5.1382,-11.594,6.7314,-5.89,1.9608,-9.8522,-11.765,7.619,5.6508,4.8025,0.0,0.06441,16.296,-4.6984,16.667,5.6683
-3.8547,1.0159,-1.9512,0.0,-6.8966,-2.2114,-3.8647,3.8188,-5.89,0.0,-6.8966,-2.9412,1.9048,1.8413,-3.7283,-0.96618,-2.8341,4.7021,-4.6984,7.8431,1.8035
-2.9068,6.7302,3.9024,-3.9216,-0.98522,3.6423,2.8986,-1.0356,-5.89,-3.9216,-0.98522,4.902,-4.7619,-0.06349,-9.4155,-0.96618,-5.7327,-2.0612,-4.6984,0.0,3.7359
3.7283,9.5873,11.707,-0.98039,1.9704,12.423,7.7295,-1.0356,-5.89,-0.98039,1.9704,13.725,-7.619,-0.06349,-7.5197,-0.96618,-3.8003,-2.0612,-1.8413,-1.9608,14.364
11.311,13.397,17.561001,2.9412,4.9261,19.252001,11.594,3.8188,-2.9773,2.9412,4.9261,19.608,-8.5714,-0.06349,-5.624,1.9324,0.06441,-2.0612,1.0159,-5.8824,7.6006
17.945999,20.063,25.365999,18.627001,10.837,20.228001,17.391001,9.644,0.90615,18.627001,10.837,25.49,-5.7143,1.8413,-3.7283,6.7633,4.8953,1.8035,0.06349,-5.8824,0.83736
18.893999,23.872999,27.316999,17.646999,11.823,18.275999,17.391001,7.7023,2.8479,17.646999,11.823,23.528999,-5.7143,2.7937,-2.7804,11.594,6.8277,1.8035,1.9683,-11.765,0.83736
16.051001,22.921,24.389999,3.9216,4.9261,12.423,13.527,2.8479,2.8479,3.9216,4.9261,18.627001,-4.7619,2.7937,-0.88468,11.594,6.8277,-5.9259,4.8254,-13.725,3.7359
11.311,19.111,19.511999,1.9608,2.9557,9.4959,12.56,0.90615,1.877,1.9608,2.9557,14.706,-0.95238,2.7937,2.9068,10.628,5.8615,-6.8921,2.9206,-8.8235,3.7359
8.4676,12.444,13.659,-1.9608,0.98522,8.5203,7.7295,-0.06472,-2.0065,-1.9608,0.98522,11.765,4.7619,4.6984,7.6461,7.7295,6.8277,-1.095,0.06349,0.0,2.7697
10.363,7.6825,11.707,5.8824,10.837,12.423,9.6618,1.877,3.8188,5.8824,10.837,12.745,10.476,9.4603,13.333,7.7295,9.7262,0.83736,3.873,5.8824,2.7697
10.363,-1.8413,6.8293,13.725,10.837,13.398,5.7971,2.8479,6.7314,13.725,10.837,10.784,12.381,5.6508,16.177,2.8986,7.7939,4.7021,3.873,10.784,3.7359
-1.9589,-14.222,-10.732,-3.9216,-2.9557,-1.2358,-5.7971,-7.8317,-2.0065,-3.9216,-2.9557,-4.902,8.5714,0.88889,8.594,-5.7971,0.06441,-3.0274,-2.7937,4.902,-3.0274
-17.125,-19.937,-28.292999,-18.627001,-15.764,-17.820999,-15.459,-15.599,-9.7735,-18.627001,-15.764,-23.528999,7.619,-0.06349,1.9589,-8.6957,-5.7327,-6.8921,-4.6984,3.9216,-11.723
-28.499001,-24.698,-41.951,-18.627001,-14.778,-30.504,-24.155001,-9.7735,-9.7735,-18.627001,-14.778,-36.275002,3.8095,-3.873,-4.6761,-12.56,-11.53,-2.0612,-6.6032,5.8824,-13.655
-32.291,-27.556,-43.902,-18.627001,-18.719,-38.308998,-32.849998,-6.8608,-12.686,-18.627001,-18.719,-44.118,-0.95238,-5.7778,-8.4676,-13.527,-14.428,-3.0274,-7.5556,-0.98039,-6.8921
-28.499001,-25.650999,-38.049,-26.471001,-24.631001,-38.308998,-33.816002,-8.8026,-18.511,-26.471001,-24.631001,-43.137001,-6.6667,-5.7778,-11.311,-11.594,-13.462,-4.9597,-8.5079,-3.9216,-3.9936
-22.812,-18.983999,-29.268,-21.569,-21.674999,-32.455002,-30.917999,-7.8317,-16.57,-21.569,-21.674999,-37.255001,-8.5714,-2.9206,-11.311,-6.7633,-10.564,-8.8245,-3.746,-5.8824,3.7359
-9.5419,-4.6984,-12.683,-6.8627,-12.808,-18.797001,-18.357,-2.9773,-11.715,-6.8627,-12.808,-22.549,-1.9048,6.6032,-0.88468,4.8309,0.06441,-1.095,1.9683,2.9412,13.398
-1.0111,8.6349,0.97561,3.9216,-1.9704,-6.1138,-8.6957,0.90615,-7.8317,3.9216,-1.9704,-8.8235,-0.95238,12.317,1.0111,13.527,4.8953,0.83736,6.7302,1.9608,22.093
5.624,13.397,10.732,15.686,8.867,4.6179,0.0,1.877,-2.9773,15.686,8.867,2.9412,-3.8095,10.413,-0.88468,14.493,5.8615,-0.12882,8.6349,-6.8627,21.127001
14.155,20.063,21.462999,26.471001,24.631001,15.35,10.628,7.7023,3.8188,26.471001,24.631001,14.706,-1.9048,10.413,1.9589,16.424999,9.7262,-3.0274,8.6349,-7.8431,17.261999
19.841999,27.683001,29.268,37.255001,37.438,24.129999,21.256001,11.586,10.615,37.255001,37.438,25.49,3.8095,12.317,5.7504,19.323999,14.557,-4.9597,13.397,-5.8824,15.33
23.632999,28.635,31.219999,39.216,36.452999,27.056999,27.052999,12.557,16.440001,39.216,36.452999,28.431,6.6667,9.4603,9.5419,19.323999,17.455999,2.7697,14.349,-2.9412,10.499
30.268999,28.635,35.122002,36.275002,34.483002,31.934999,29.952,17.410999,13.528,36.275002,34.483002,33.333,8.5714,6.6032,16.177,17.391001,20.354,2.7697,10.54,0.98039,-1.095
28.372999,22.921,33.171001,29.412001,31.527,29.007999,29.952,12.557,12.557,29.412001,31.527,32.353001,7.619,2.7937,15.229,10.628,17.455999,4.7021,7.6825,-1.9608,-9.7907
26.476999,15.302,29.268,26.471001,29.556999,29.007999,28.018999,8.6731,14.498,26.471001,29.556999,32.353001,5.7143,-0.06349,14.281,3.8647,12.625,11.465,6.7302,3.9216,-6.8921
16.997999,4.8254,16.584999,24.51,23.645,21.202999,18.357,6.7314,12.557,24.51,23.645,24.51,1.9048,-5.7778,6.6983,-5.7971,3.9291,6.6345,2.9206,2.9412,-3.9936
2.7804,-9.4603,-4.878,6.8627,4.9261,2.6667,4.8309,2.8479,2.8479,6.8627,4.9261,4.902,-6.6667,-13.397,-2.7804,-16.424999,-8.6312,3.7359,-2.7937,-5.8824,-12.689
-1.9589,-18.032,-14.634,-0.98039,-7.8818,-7.0894,-5.7971,0.90615,-2.9773,-0.98039,-7.8818,-7.8431,-10.476,-14.349,-4.6761,-18.357,-11.53,1.8035,-6.6032,-2.9412,-19.452
-10.49,-21.841,-21.462999,-11.765,-15.764,-15.87,-17.391001,-4.9191,-7.8317,-11.765,-15.764,-17.646999,-12.381,-12.444,-9.4155,-17.391001,-13.462,-1.095,-10.413,-3.9216,-13.655
-7.6461,-18.032,-18.537001,-12.745,-22.66,-12.943,-17.391001,-2.0065,-8.8026,-12.745,-22.66,-17.646999,-6.6667,-2.9206,-4.6761,-7.7295,-7.6651,5.6683,-7.5556,3.9216,-3.0274
-7.6461,-21.841,-22.438999,-25.49,-28.570999,-13.919,-23.188,-6.8608,-12.686,-25.49,-28.570999,-23.528999,-5.7143,-5.7778,-1.8325,-8.6957,-7.6651,-0.12882,-10.413,5.8824,-6.8921
-9.5419,-23.746,-29.268,-28.431,-26.601,-17.820999,-25.121,-8.8026,-13.657,-28.431,-26.601,-27.451,-4.7619,-3.873,-2.7804,-8.6957,-7.6651,-4.9597,-7.5556,3.9216,-2.0612
-11.438,-18.983999,-29.268,-32.353001,-30.542,-18.797001,-24.155001,-7.8317,-12.686,-32.353001,-30.542,-29.412001,-4.7619,-1.9683,-0.88468,-4.8309,-5.7327,-2.0612,-2.7937,0.98039,5.6683
-9.5419,-9.4603,-21.462999,-29.412001,-28.570999,-16.846001,-20.290001,-7.8317,-9.7735,-29.412001,-28.570999,-24.51,-0.95238,1.8413,1.0111,0.96618,-0.90177,-0.12882,0.06349,-0.98039,9.533
-1.9589,0.06349,-7.8049,-17.646999,-23.645,-7.0894,-11.594,-2.9773,-5.89,-17.646999,-23.645,-13.725,2.8571,6.6032,3.8547,5.7971,4.8953,-1.095,1.9683,0.98039,10.499
7.5197,4.8254,2.9268,-13.725,-18.719,-1.2358,-1.9324,1.877,-4.9191,-13.725,-18.719,-1.9608,0.95238,2.7937,5.7504,4.8309,6.8277,-2.0612,2.9206,-1.9608,5.6683
11.311,9.5873,10.732,-15.686,-14.778,5.5935,4.8309,0.90615,-1.0356,-15.686,-14.778,5.8824,-2.8571,-3.873,2.9068,2.8986,6.8277,-3.9936,2.9206,-7.8431,3.7359
8.4676,7.6825,10.732,-12.745,-9.8522,8.5203,6.7633,-2.0065,-0.06472,-12.745,-9.8522,9.8039,-7.619,-10.54,-3.7283,-1.9324,1.9968,-4.9597,1.0159,-11.765,0.83736
5.624,3.873,10.732,-7.8431,-6.8966,8.5203,6.7633,-0.06472,2.8479,-7.8431,-6.8966,11.765,-10.476,-13.397,-7.5197,-7.7295,-2.8341,-3.9936,0.06349,-13.725,-5.9259
12.259,9.5873,19.511999,2.9412,1.9704,15.35,14.493,10.615,8.6731,2.9412,1.9704,20.587999,-3.8095,-8.6349,-0.88468,-4.8309,1.9968,0.83736,0.06349,-3.9216,-6.8921
16.997999,10.54,23.415001,5.8824,0.98522,15.35,15.459,12.557,8.6731,5.8824,0.98522,21.569,4.7619,0.88889,8.594,-0.96618,7.7939,8.5668,-0.88889,10.784,-3.9936
11.311,2.9206,15.61,-5.8824,-4.9261,11.447,6.7633,1.877,0.90615,-5.8824,-4.9261,12.745,2.8571,-0.06349,6.6983,-3.8647,4.8953,9.533,-3.746,10.784,-4.9597
6.5719,-1.8413,10.732,-8.8235,-12.808,2.6667,-0.96618,-2.0065,-2.9773,-8.8235,-12.808,3.9216,4.7619,0.88889,6.6983,-0.96618,4.8953,3.7359,-3.746,5.8824,0.83736
5.624,-6.6032,8.7805,-14.706,-18.719,-3.187,-10.628,-3.9482,-7.8317,-14.706,-18.719,-3.9216,6.6667,3.746,11.438,0.0,5.8615,-2.0612,-5.6508,12.745,-8.8245
12.259,-2.7937,14.634,-7.8431,-7.8818,1.6911,-0.96618,1.877,-2.9773,-7.8431,-7.8818,1.9608,12.381,6.6032,19.021,4.8309,12.625,9.533,-8.5079,23.528999,-9.7907
6.5719,-3.746,9.7561,-11.765,-4.9261,-2.2114,-0.96618,-0.06472,-1.0356,-11.765,-4.9261,-0.98039,11.429,6.6032,14.281,4.8309,10.692,10.499,-8.5079,16.667,-9.7907
-3.8547,-8.5079,-4.878,-15.686,-8.867,-10.016,-6.7633,-9.7735,-2.9773,-15.686,-8.867,-8.8235,4.7619,1.8413,1.9589,-0.96618,0.06441,2.7697,-7.5556,5.8824,-6.8921
-10.49,-6.6032,-11.707,-14.706,-9.8522,-15.87,-7.7295,-15.599,-1.0356,-14.706,-9.8522,-12.745,0.95238,2.7937,-5.624,1.9324,-2.8341,-3.9936,0.06349,-1.9608,7.6006
-10.49,-2.7937,-10.732,-19.608,-8.867,-15.87,-2.8986,-14.628,-1.0356,-19.608,-8.867,-12.745,0.0,3.746,-6.5719,4.8309,-1.868,-7.8583,6.7302,-5.8824,8.5668
-10.49,-2.7937,-10.732,-17.646999,-10.837,-13.919,-3.8647,-9.7735,-0.06472,-17.646999,-10.837,-11.765,-2.8571,-1.0159,-7.5197,1.9324,-2.8341,-9.7907,2.9206,-13.725,4.7021
-14.281,-7.5556,-14.634,-10.784,-5.9113,-10.992,-5.7971,-7.8317,0.90615,-10.784,-5.9113,-9.8039,-9.5238,-6.7302,-15.103,-6.7633,-9.5974,-15.588,-1.8413,-23.528999,-1.095
-16.177,-7.5556,-17.561001,-11.765,-0.98522,-10.992,-3.8647,-7.8317,3.8188,-11.765,-0.98522,-9.8039,-14.286,-7.6825,-18.893999,-8.6957,-13.462,-20.419001,3.873,-26.471001,3.7359
-14.281,-5.6508,-16.584999,-9.8039,-3.9409,-8.065,0.0,-8.8026,4.7896,-9.8039,-3.9409,-7.8431,-13.333,-7.6825,-17.945999,-8.6957,-12.496,-16.554001,1.9683,-23.528999,2.7697
-8.594,-0.88889,-9.7561,0.0,1.9704,-3.187,4.8309,-4.9191,7.7023,0.0,1.9704,-1.9608,-7.619,-4.8254,-12.259,-4.8309,-7.6651,-10.757,1.9683,-14.706,-3.9936
-1.0111,8.6349,0.0,1.9608,6.8966,1.6911,9.6618,-0.06472,8.6731,1.9608,6.8966,5.8824,0.95238,4.6984,-0.88468,3.8647,1.0306,-0.12882,6.7302,2.9412,0.83736
1.8325,11.492,5.8537,-3.9216,5.9113,3.6423,10.628,-1.0356,4.7896,-3.9216,5.9113,7.8431,8.5714,10.413,4.8025,7.7295,5.8615,0.83736,4.8254,10.784,4.7021
1.8325,10.54,7.8049,-1.9608,2.9557,0.71545,6.7633,-2.9773,0.90615,-1.9608,2.9557,7.8431,10.476,9.4603,6.6983,9.6618,7.7939,-1.095,4.8254,12.745,8.5668
5.624,8.6349,10.732,-0.98039,0.98522,2.6667,3.8647,0.90615,0.90615,-0.98039,0.98522,6.8627,14.286,12.317,10.49,12.56,10.692,5.6683,4.8254,18.627001,6.6345
6.5719,5.7778,11.707,3.9216,0.98522,5.5935,2.8986,4.7896,1.877,3.9216,0.98522,5.8824,16.190001,15.175,11.438,13.527,12.625,8.5668,4.8254,14.706,6.6345
3.7283,-6.6032,2.9268,-1.9608,-2.9557,2.6667,-4.8309,-0.06472,-4.9191,-1.9608,-2.9557,-1.9608,8.5714,4.6984,5.7504,2.8986,4.8953,5.6683,-4.6984,9.8039,0.83736
-3.8547,-15.175,-4.878,-11.765,-10.837,-2.2114,-11.594,-6.8608,-7.8317,-11.765,-10.837,-8.8235,-0.95238,-2.9206,-2.7804,-6.7633,-4.7665,-5.9259,-9.4603,4.902,-5.9259
-9.5419,-11.365,-5.8537,-9.8039,-7.8818,-3.187,-6.7633,-8.8026,-4.9191,-9.8039,-7.8818,-6.8627,-10.476,-9.5873,-10.363,-10.628,-11.53,-6.8921,-3.746,-2.9412,-8.8245
-14.281,-8.5079,-9.7561,-12.745,-8.867,-11.967,-6.7633,-9.7735,-5.89,-12.745,-8.867,-8.8235,-15.238,-11.492,-14.155,-12.56,-15.395,-4.9597,-2.7937,-7.8431,-3.9936
-16.177,-5.6508,-10.732,-13.725,-10.837,-16.846001,-6.7633,-14.628,-7.8317,-13.725,-10.837,-11.765,-13.333,-5.7778,-15.103,-7.7295,-13.462,-7.8583,0.06349,-12.745,4.7021
-8.594,-0.88889,-3.9024,-9.8039,-7.8818,-8.065,-8.6957,-11.715,-6.8608,-9.8039,-7.8818,-8.8235,-4.7619,3.746,-7.5197,1.9324,-3.8003,-6.8921,1.9683,-12.745,9.533
1.8325,4.8254,2.9268,-2.9412,-5.9113,-1.2358,-4.8309,-4.9191,-5.89,-2.9412,-5.9113,-2.9412,2.8571,6.6032,1.0111,8.6957,4.8953,-3.0274,0.06349,-7.8431,14.364
4.6761,11.492,6.8293,-4.902,-1.9704,-2.2114,0.0,-4.9191,-3.9482,-4.902,-1.9704,0.0,5.7143,10.413,6.6983,14.493,9.7262,0.83736,1.0159,-9.8039,18.229
2.7804,13.397,5.8537,-7.8431,-0.98522,-5.1382,2.8986,-9.7735,-2.9773,-7.8431,-0.98522,0.98039,8.5714,13.27,5.7504,15.459,9.7262,-6.8921,1.9683,-6.8627,16.296
5.624,17.205999,9.7561,1.9608,2.9557,0.71545,6.7633,-2.9773,2.8479,1.9608,2.9557,4.902,12.381,15.175,13.333,18.357,14.557,-6.8921,2.9206,5.8824,7.6006
11.311,19.111,13.659,8.8235,6.8966,8.5203,10.628,3.8188,4.7896,8.8235,6.8966,9.8039,19.048,16.127001,20.916,21.256001,20.354,2.7697,6.7302,17.646999,0.83736
11.311,14.349,11.707,9.8039,9.8522,7.5447,11.594,6.7314,4.7896,9.8039,9.8522,9.8039,22.857,16.127001,24.708,17.391001,20.354,13.398,1.9683,28.431,-0.12882
9.4155,9.5873,8.7805,9.8039,14.778,9.4959,16.424999,8.6731,7.7023,9.8039,14.778,13.725,18.094999,11.365,18.073,10.628,15.523,15.33,0.06349,23.528999,1.8035
9.4155,8.6349,8.7805,14.706,16.749001,12.423,20.290001,10.615,12.557,14.706,16.749001,17.646999,9.5238,2.7937,12.385,3.8647,8.7601,15.33,5.7778,11.765,-3.0274
9.4155,4.8254,7.8049,20.587999,19.704,12.423,19.323999,14.498,14.498,20.587999,19.704,16.667,3.8095,-1.9683,7.6461,-1.9324,4.8953,12.432,3.873,8.8235,-1.095
10.363,1.9683,7.8049,16.667,18.719,12.423,17.391001,14.498,13.528,16.667,18.719,16.667,-1.9048,-7.6825,5.7504,-5.7971,1.9968,12.432,4.8254,8.8235,1.8035
7.5197,1.0159,6.8293,10.784,14.778,11.447,12.56,11.586,9.644,10.784,14.778,13.725,-7.619,-13.397,0.06319,-8.6957,-2.8341,6.6345,2.9206,0.98039,-7.8583
6.5719,2.9206,6.8293,9.8039,11.823,12.423,9.6618,10.615,7.7023,9.8039,11.823,12.745,-10.476,-13.397,-2.7804,-7.7295,-4.7665,4.7021,1.0159,-4.902,-11.723
8.4676,5.7778,6.8293,17.646999,13.793,15.35,8.6957,13.528,10.615,17.646999,13.793,12.745,-11.429,-11.492,-2.7804,-1.9324,-2.8341,1.8035,2.9206,-6.8627,-10.757
11.311,6.7302,7.8049,17.646999,17.733999,15.35,8.6957,13.528,11.586,17.646999,17.733999,12.745,-8.5714,-6.7302,1.0111,3.8647,1.0306,5.6683,8.6349,-5.8824,-5.9259
12.259,6.7302,9.7561,20.587999,15.764,14.374,6.7633,13.528,9.644,20.587999,15.764,11.765,-1.9048,0.88889,4.8025,9.6618,6.8277,10.499,6.7302,-0.98039,2.7697
8.4676,5.7778,10.732,23.528999,18.719,11.447,5.7971,7.7023,8.6731,23.528999,18.719,10.784,2.8571,3.746,5.7504,11.594,7.7939,4.7021,4.8254,-4.902,3.7359
5.624,7.6825,10.732,22.549,19.704,8.5203,5.7971,2.8479,5.7605,22.549,19.704,8.8235,7.619,6.6032,4.8025,13.527,9.7262,1.8035,4.8254,-4.902,5.6683
2.7804,5.7778,5.8537,32.353001,26.601,6.5691,3.8647,2.8479,4.7896,32.353001,26.601,6.8627,6.6667,9.4603,3.8547,12.56,6.8277,3.7359,3.873,0.0,8.5668
-1.9589,3.873,-0.97561,39.216,32.512001,4.6179,3.8647,1.877,6.7314,39.216,32.512001,3.9216,4.7619,7.5556,1.0111,10.628,2.963,0.83736,4.8254,0.98039,11.465
-5.7504,1.0159,-6.8293,45.098,36.452999,2.6667,2.8986,2.8479,6.7314,45.098,36.452999,2.9412,7.619,8.5079,-0.88468,8.6957,1.0306,-0.12882,1.9683,5.8824,5.6683
-6.6983,1.0159,-5.8537,45.098,40.394001,4.6179,5.7971,6.7314,9.644,45.098,40.394001,3.9216,10.476,9.4603,1.9589,5.7971,1.9968,-0.12882,1.0159,12.745,1.8035
-6.6983,-7.5556,-7.8049,37.255001,35.467999,5.5935,3.8647,9.644,6.7314,37.255001,35.467999,2.9412,7.619,0.88889,1.0111,-6.7633,-3.8003,5.6683,-5.6508,14.706,-5.9259
-3.8547,-17.079,-10.732,36.275002,25.615999,9.4959,-2.8986,16.440001,-2.0065,36.275002,25.615999,0.98039,1.9048,-8.6349,-0.88468,-21.256001,-10.564,11.465,-15.175,17.646999,-14.622
-0.06319,-21.841,-9.7561,30.392,13.793,8.5203,-5.7971,16.440001,-9.7735,30.392,13.793,0.98039,0.0,-8.6349,0.06319,-26.087,-12.496,15.33,-18.032,21.569,-19.452
-0.06319,-25.650999,-12.683,8.8235,2.9557,3.6423,-8.6957,11.586,-11.715,8.8235,2.9557,-1.9608,-6.6667,-17.205999,-2.7804,-30.917999,-16.361,20.160999,-19.937,12.745,-19.452
-2.9068,-20.889,-12.683,5.8824,-1.9704,2.6667,-4.8309,10.615,-4.9191,5.8824,-1.9704,-1.9608,-9.5238,-19.111,-8.4676,-28.986,-18.292999,9.533,-14.222,0.98039,-15.588
-2.9068,-14.222,-11.707,4.902,0.98522,2.6667,0.96618,11.586,3.8188,4.902,0.98522,0.0,-7.619,-17.205999,-7.5197,-22.222,-14.428,2.7697,-6.6032,0.0,-16.554001
-1.0111,-11.365,-9.7561,-6.8627,-8.867,0.71545,-0.96618,6.7314,1.877,-6.8627,-8.867,-3.9216,-4.7619,-13.397,-3.7283,-15.459,-9.5974,4.7021,-3.746,0.0,-12.689
0.88468,-2.7937,0.0,-11.765,-15.764,-1.2358,-1.9324,0.90615,-2.9773,-11.765,-15.764,-1.9608,-2.8571,-7.6825,-2.7804,-3.8647,-2.8341,0.83736,1.9683,-5.8824,-8.8245
1.8325,8.6349,9.7561,-13.725,-14.778,-0.26016,0.0,-0.06472,-2.0065,-13.725,-14.778,1.9608,-0.95238,0.88889,-0.88468,8.6957,3.9291,0.83736,7.6825,-6.8627,-3.9936
-0.06319,15.302,13.659,-24.51,-18.719,-2.2114,1.9324,-3.9482,-2.9773,-24.51,-18.719,1.9608,0.95238,8.5079,-1.8325,16.424999,7.7939,-6.8921,9.5873,-10.784,9.533
-4.8025,12.444,7.8049,-28.431,-26.601,-9.0407,-1.9324,-7.8317,-3.9482,-28.431,-26.601,-3.9216,0.95238,8.5079,-4.6761,15.459,4.8953,-14.622,8.6349,-10.784,12.432
-10.49,5.7778,-1.9512,-28.431,-28.570999,-15.87,-7.7295,-12.686,-10.744,-28.431,-28.570999,-11.765,-0.95238,7.5556,-7.5197,10.628,0.06441,-12.689,3.873,-9.8039,15.33
-15.229,1.0159,-7.8049,-33.333,-31.527,-20.747999,-12.56,-15.599,-10.744,-33.333,-31.527,-17.646999,-4.7619,2.7937,-10.363,5.7971,-3.8003,-8.8245,1.9683,-8.8235,11.465
-16.177,0.06349,-8.7805,-23.528999,-31.527,-21.724001,-13.527,-14.628,-9.7735,-23.528999,-31.527,-17.646999,-6.6667,0.88889,-13.207,2.8986,-6.6989,-9.7907,1.0159,-10.784,10.499
-15.229,-5.6508,-12.683,-34.313999,-28.570999,-21.724001,-16.424999,-16.57,-12.686,-34.313999,-28.570999,-19.608,-10.476,-1.0159,-13.207,-5.7971,-12.496,-9.7907,-3.746,-8.8235,5.6683
-17.125,-15.175,-19.511999,-40.195999,-28.570999,-21.724001,-17.391001,-16.57,-10.744,-40.195999,-28.570999,-21.569,-13.333,-5.7778,-16.051001,-16.424999,-20.225,-4.9597,-7.5556,-6.8627,-1.095
-22.812,-27.556,-30.243999,-34.313999,-30.542,-25.625999,-22.222,-19.482,-13.657,-34.313999,-30.542,-27.451,-20.0,-16.254,-23.632999,-30.917999,-29.886999,-9.7907,-11.365,-13.725,-5.9259
-18.073,-28.507999,-30.243999,-26.471001,-27.586,-14.894,-21.256001,-14.628,-10.744,-26.471001,-27.586,-22.549,-22.857,-23.872999,-22.686001,-31.884001,-28.921,-17.52,-8.5079,-14.706,-10.757
-7.6461,-17.079,-18.537001,-25.49,-16.749001,-6.1138,-10.628,-4.9191,-2.9773,-25.49,-16.749001,-10.784,-15.238,-17.205999,-11.311,-20.290001,-16.361,-8.8245,-3.746,-8.8235,-10.757
-1.0111,-9.4603,-10.732,-15.686,-13.793,-5.1382,-5.7971,0.90615,-0.06472,-15.686,-13.793,-5.8824,-7.619,-11.492,-2.7804,-12.56,-6.6989,1.8035,-4.6984,-3.9216,-9.7907
-2.9068,-9.4603,-10.732,-4.902,-9.8522,-7.0894,-5.7971,-3.9482,-2.0065,-4.902,-9.8522,-6.8627,-4.7619,-9.5873,-1.8325,-9.6618,-4.7665,-5.9259,-5.6508,-5.8824,-11.723
-1.9589,-8.5079,-7.8049,-9.8039,-9.8522,-4.1626,-6.7633,-2.9773,-2.0065,-9.8039,-9.8522,-6.8627,-1.9048,-7.6825,1.0111,-6.7633,-1.868,0.83736,-6.6032,-0.98039,-12.689
-0.06319,-2.7937,-1.9512,-2.9412,-5.9113,0.71545,0.0,0.90615,4.7896,-2.9412,-5.9113,-0.98039,-2.8571,-4.8254,-0.88468,-1.9324,1.0306,-2.0612,0.06349,-5.8824,-10.757
-0.06319,3.873,4.878,0.0,-0.98522,2.6667,5.7971,3.8188,9.644,0.0,-0.98522,3.9216,-3.8095,-1.0159,-4.6761,4.8309,2.963,-6.8921,6.7302,-11.765,-2.0612
4.6761,13.397,12.683,-0.98039,3.9409,5.5935,11.594,4.7896,11.586,-0.98039,3.9409,9.8039,0.0,6.6032,0.06319,12.56,8.7601,-2.0612,13.397,-6.8627,5.6683
2.7804,13.397,11.707,-4.902,-0.98522,3.6423,10.628,2.8479,10.615,-4.902,-0.98522,6.8627,0.95238,5.6508,1.9589,12.56,9.7262,-2.0612,14.349,-4.902,2.7697
