C3,C4,Cz,F1,F2,F3,F4,F7,F8,Fp1,Fp2,Fz,O1,O2,P3,P4,Pz,T3,T4,T5,T6
-0.9901,1.9529,5.8667,5.9406,3.8188,7.1478,11.168,11.699,8.0808,5.9406,3.8188,8.8235,6.8277,8.9327,1.0101,1.9237,4.0201,10.933,5.7886,4.0523,2.0813
3.9604,-0.06734,6.8667,1.9802,3.8188,3.0241,10.152,6.7974,6.0606,1.9802,3.8188,5.8824,5.8615,8.9327,3.0303,1.9237,3.0151,11.933,8.7154,7.9739,6.9593
11.881,-1.0774,5.8667,-0.9901,5.7605,-2.1306,4.0609,2.8758,2.0202,-0.9901,5.7605,0.0,10.692,8.9327,13.131,6.8988,9.0452,-13.067,1.8862,14.837,9.8862
15.842,-1.0774,3.8667,-1.9802,-2.9773,-4.1924,0.0,3.8562,-6.0606,-1.9802,-2.9773,-3.9216,21.32,14.844,22.222,10.879,15.075,2.9333,2.8618,21.698999,15.74
12.871,1.9529,2.8667,-1.9802,-5.89,-6.2543,-1.0152,4.8366,-6.0606,-1.9802,-5.89,-5.8824,21.32,11.888,21.212,10.879,16.08,21.933001,10.667,21.698999,14.764
10.891,4.9832,4.8667,0.9901,7.7023,-5.2234,-3.0457,4.8366,1.0101,0.9901,7.7023,-3.9216,14.557,4.9918,16.162001,10.879,15.075,12.933,-2.9919,16.797001,7.935
10.891,7.0034,4.8667,1.9802,13.528,-4.1924,-5.0761,2.8758,6.0606,1.9802,13.528,-3.9216,11.659,4.9918,13.131,11.874,14.07,10.933,-4.9431,12.876,5.9837
2.9703,9.0236,-0.13333,-0.9901,6.7314,-9.3471,-5.0761,-3.0065,5.0505,-0.9901,6.7314,-5.8824,7.7939,4.0066,8.0808,10.879,11.055,5.9333,11.642,6.0131,6.9593
-0.9901,11.044,-1.1333,-0.9901,3.8188,-9.3471,2.0305,-2.0261,7.0707,-0.9901,3.8188,-3.9216,7.7939,6.9622,6.0606,10.879,9.0452,3.9333,17.496,6.0131,8.9106
0.0,14.074,3.8667,2.9703,8.6731,-3.1615,12.183,1.8954,11.111,2.9703,8.6731,3.9216,11.659,11.888,9.0909,11.874,11.055,9.9333,15.545,9.9346,12.813
-2.9703,13.064,6.8667,2.9703,11.586,-3.1615,11.168,-0.06536,9.0909,2.9703,11.586,6.8627,8.7601,9.9179,6.0606,9.8839,10.05,-6.0667,17.496,7.9739,8.9106
0.9901,13.064,11.867,1.9802,8.6731,0.9622,11.168,1.8954,6.0606,1.9802,8.6731,11.765,4.8953,4.9918,3.0303,8.8889,9.0452,-14.067,17.496,1.1111,5.9837
4.9505,12.054,14.867,2.9703,4.7896,7.1478,14.213,2.8758,6.0606,2.9703,4.7896,16.667,5.8615,4.9918,3.0303,8.8889,9.0452,16.933001,6.7642,0.13072,6.9593
11.881,13.064,17.867001,4.9505,6.7314,11.271,22.334999,5.817,5.0505,4.9505,6.7314,21.569,10.692,8.9327,10.101,11.874,13.065,24.933001,-0.06504,10.915,5.9837
17.822001,11.044,17.867001,3.9604,7.7023,12.302,16.243999,6.7974,4.0404,3.9604,7.7023,17.646999,13.591,12.874,15.152,12.869,16.08,4.9333,-2.9919,16.797001,5.0081
10.891,-1.0774,8.8667,-1.9802,-1.0356,3.0241,-5.0761,-1.0458,-3.0303,-1.9802,-1.0356,3.9216,10.692,11.888,10.101,6.8988,11.055,8.9333,-2.0163,8.9542,3.0569
3.9604,-7.138,0.86667,-1.9802,-4.9191,-4.1924,-4.0609,-3.0065,-4.0404,-1.9802,-4.9191,-1.9608,11.659,16.813999,7.0707,5.9038,7.0352,6.9333,10.667,6.9935,10.862
6.9307,-3.0976,-0.13333,1.9802,1.877,-2.1306,1.0152,0.91503,1.0101,1.9802,1.877,0.0,20.354,28.636999,10.101,11.874,9.0452,23.933001,21.398001,14.837,18.667
6.9307,2.963,0.86667,0.0,1.877,-3.1615,2.0305,-0.06536,7.0707,0.0,1.877,1.9608,18.422001,19.77,7.0707,12.869,9.0452,18.933001,13.593,6.0131,13.789
7.9208,12.054,5.8667,0.9901,4.7896,-0.06873,6.0914,0.91503,9.0909,0.9901,4.7896,3.9216,14.557,14.844,10.101,14.859,12.06,-32.067001,12.618,2.0915,16.715
7.9208,11.044,5.8667,0.0,3.8188,-0.06873,3.0457,-1.0458,2.0202,0.0,3.8188,2.9412,6.8277,9.9179,9.0909,10.879,11.055,-13.067,6.7642,5.0327,9.8862
4.9505,7.0034,3.8667,0.0,0.90615,-1.0997,3.0457,1.8954,-2.0202,0.0,0.90615,2.9412,2.963,-2.89,7.0707,4.9088,8.0402,20.933001,-7.8699,7.9739,2.0813
6.9307,8.0135,6.8667,4.9505,5.7605,5.0859,9.1371,4.8366,2.0202,4.9505,5.7605,7.8431,5.8615,-0.91954,8.0808,3.9138,7.0352,17.933001,-2.9919,9.9346,5.0081
0.0,2.963,1.8667,6.9307,12.557,5.0859,7.1066,-0.06536,6.0606,6.9307,12.557,7.8431,2.963,2.0361,2.0202,-2.0564,0.0,2.9333,9.6911,4.0523,1.1057
-1.9802,-4.1077,-3.1333,8.9109,12.557,3.0241,4.0609,-3.0065,10.101,8.9109,12.557,5.8824,-1.868,0.06568,-2.0202,-5.0415,-4.0201,2.9333,8.7154,1.1111,-2.7967
0.9901,-10.168,-5.1333,2.9703,3.8188,-3.1615,-1.0152,-4.9673,3.0303,2.9703,3.8188,0.0,-9.5974,-8.8013,-4.0404,-9.0216,-6.0302,-3.0667,-7.8699,-4.7712,-4.748
1.9802,-11.178,-3.1333,0.9901,-5.89,-3.1615,0.0,-3.0065,2.0202,0.9901,-5.89,0.0,-6.6989,-7.8161,-6.0606,-8.0265,-6.0302,-0.06667,-14.699,-7.7124,-5.7236
6.9307,-8.1481,-0.13333,-1.9802,1.877,-1.0997,4.0609,-3.9869,3.0303,-1.9802,1.877,1.9608,3.9291,2.0361,0.0,-5.0415,-3.0151,-30.066999,-1.0407,-3.7908,-6.6992
3.9604,-7.138,-3.1333,-5.9406,3.8188,-6.2543,-3.0457,-7.9085,0.0,-5.9406,3.8188,-4.902,11.659,10.903,5.0505,-0.06634,0.0,-15.067,9.6911,2.0915,1.1057
0.9901,-10.168,-11.133,-6.9307,-2.0065,-10.378,-15.228,-3.9869,-3.0303,-6.9307,-2.0065,-13.725,8.7601,3.0213,4.0404,-2.0564,-2.0101,5.9333,8.7154,6.0131,1.1057
3.9604,-8.1481,-11.133,-3.9604,-4.9191,-7.2852,-17.259001,-1.0458,-3.0303,-3.9604,-4.9191,-13.725,7.7939,-0.91954,6.0606,-2.0564,-1.005,18.933001,2.8618,13.856,2.0813
8.9109,-0.06734,-6.1333,3.9604,2.8479,-1.0997,-10.152,1.8954,2.0202,3.9604,2.8479,-7.8431,11.659,6.9622,11.111,4.9088,3.0151,23.933001,7.7398,15.817,9.8862
7.9208,1.9529,-5.1333,4.9505,2.8479,-0.06873,-7.1066,1.8954,3.0303,4.9505,2.8479,-4.902,13.591,12.874,11.111,6.8988,5.0251,16.933001,9.6911,12.876,9.8862
11.881,8.0135,-0.13333,5.9406,2.8479,5.0859,2.0305,3.8562,1.0101,5.9406,2.8479,0.0,21.32,28.636999,13.131,13.864,10.05,4.9333,4.813,13.856,19.642
7.9208,11.044,3.8667,7.9208,7.7023,7.1478,4.0609,2.8758,1.0101,7.9208,7.7023,3.9216,19.388,22.726,10.101,13.864,11.055,-20.066999,-2.0163,10.915,13.789
1.9802,3.9731,-0.13333,4.9505,5.7605,3.0241,-5.0761,-0.06536,-1.0101,4.9505,5.7605,-0.98039,5.8615,3.0213,1.0101,3.9138,2.0101,-1.0667,-5.9187,1.1111,-0.84553
0.0,-6.1279,-4.1333,2.9703,5.7605,1.9931,-8.1218,-0.06536,-2.0202,2.9703,5.7605,-1.9608,-0.90177,-5.8456,-3.0303,-5.0415,-4.0201,7.9333,-3.9675,-2.8105,-7.6748
0.0,-4.1077,-3.1333,3.9604,9.644,0.9622,3.0457,-3.0065,-2.0202,3.9604,9.644,3.9216,0.06441,-3.8752,-3.0303,-5.0415,-4.0201,1.9333,-0.06504,-0.84967,-4.748
1.9802,-2.0875,0.86667,1.9802,2.8479,-0.06873,9.1371,-8.8889,-2.0202,1.9802,2.8479,6.8627,1.9968,4.9918,-1.0101,-2.0564,-3.0151,-12.067,-10.797,-0.84967,0.13008
-0.9901,-8.1481,-2.1333,0.0,-2.0065,-0.06873,7.1066,-7.9085,0.0,0.0,-2.0065,5.8824,-0.90177,4.9918,-6.0606,-5.0415,-5.0251,-5.0667,-7.8699,-0.84967,-1.8211
-3.9604,-12.189,-7.1333,1.9802,4.7896,-1.0997,2.0305,-3.9869,5.0505,1.9802,4.7896,0.98039,-7.6651,-5.8456,-10.101,-6.0365,-6.0302,7.9333,-1.0407,-3.7908,4.0325
-5.9406,-11.178,-12.133,0.0,7.7023,-6.2543,-1.0152,-4.9673,3.0303,0.0,7.7023,-5.8824,-11.53,-8.8013,-11.111,-6.0365,-7.0352,0.93333,-1.0407,-12.614,1.1057
-10.891,-6.1279,-16.132999,-2.9703,0.90615,-11.409,-6.0914,-6.9281,-7.0707,-2.9703,0.90615,-10.784,-11.53,-13.727,-11.111,-10.017,-11.055,-29.066999,-1.0407,-13.595,-9.626
-8.9109,7.0034,-10.133,3.9604,0.90615,-7.2852,2.0305,-2.0261,-1.0101,3.9604,0.90615,-3.9216,-7.6651,-10.772,-8.0808,-6.0365,-9.0452,-10.067,1.8862,-5.7516,-5.7236
-5.9406,12.054,-5.1333,5.9406,6.7314,-1.0997,7.1066,-0.06536,7.0707,5.9406,6.7314,3.9216,-1.868,-2.89,-6.0606,-1.0614,-6.0302,9.9333,10.667,-0.84967,0.13008
-5.9406,5.9933,-9.1333,9.901,15.469,0.9622,-1.0152,0.91503,4.0404,9.901,15.469,0.98039,1.9968,1.0509,-6.0606,-0.06634,-7.0352,9.9333,-5.9187,1.1111,4.0325
-4.9505,3.9731,-11.133,8.9109,12.557,0.9622,-4.0609,-4.9673,1.0101,8.9109,12.557,0.0,1.9968,4.0066,-7.0707,0.92869,-7.0352,0.93333,-19.577,-1.8301,5.0081
-1.9802,5.9933,-6.1333,8.9109,9.644,0.9622,5.0761,-4.9673,6.0606,8.9109,9.644,3.9216,2.963,6.9622,-6.0606,0.92869,-6.0302,-5.0667,-9.8211,1.1111,5.9837
-1.9802,1.9529,-6.1333,7.9208,8.6731,-1.0997,6.0914,-3.9869,10.101,7.9208,8.6731,2.9412,6.8277,6.9622,-3.0303,-5.0415,-7.0352,-9.0667,5.7886,5.0327,2.0813
-3.9604,-5.1178,-8.1333,6.9307,8.6731,-3.1615,9.1371,-3.9869,7.0707,6.9307,8.6731,2.9412,-2.8341,-3.8752,-5.0505,-14.992,-13.065,-1.0667,4.813,1.1111,-7.6748
0.0,-8.1481,-6.1333,5.9406,14.498,3.0241,11.168,-3.9869,1.0101,5.9406,14.498,7.8431,-9.5974,-15.698,-3.0303,-18.972,-14.07,-13.067,-10.797,2.0915,-8.6504
6.9307,-9.1582,0.86667,7.9208,13.528,9.2096,8.1218,-0.06536,-1.0101,7.9208,13.528,11.765,-0.90177,-8.8013,6.0606,-13.002,-5.0251,-0.06667,-20.552999,10.915,-4.748
6.9307,-17.239,1.8667,4.9505,11.586,5.0859,3.0457,1.8954,0.0,4.9505,11.586,8.8235,2.963,-4.8604,7.0707,-7.0315,1.005,9.9333,-13.724,6.0131,-6.6992
2.9703,-23.299999,-2.1333,8.9109,12.557,-0.06873,-1.0152,5.817,4.0404,8.9109,12.557,2.9412,3.9291,1.0509,6.0606,-0.06634,4.0201,7.9333,-0.06504,3.0719,-2.7967
0.9901,-15.219,-7.1333,11.881,9.644,-1.0997,3.0457,1.8954,7.0707,11.881,9.644,-0.98039,7.7939,11.888,7.0707,4.9088,4.0201,14.933,10.667,6.0131,1.1057
-3.9604,-7.138,-11.133,7.9208,7.7023,-4.1924,6.0914,-4.9673,6.0606,7.9208,7.7023,-3.9216,4.8953,1.0509,1.0101,-0.06634,-1.005,6.9333,2.8618,1.1111,-2.7967
-9.901,-3.0976,-12.133,1.9802,1.877,-8.3162,-2.0305,-8.8889,3.0303,1.9802,1.877,-7.8431,1.0306,-4.8604,-4.0404,-5.0415,-6.0302,0.93333,-7.8699,-2.8105,-2.7967
-10.891,-1.0774,-11.133,-3.9604,-1.0356,-10.378,-8.1218,-8.8889,0.0,-3.9604,-1.0356,-9.8039,2.963,-0.91954,-5.0505,-4.0464,-5.0251,-2.0667,0.91057,-0.84967,0.13008
-3.9604,5.9933,-6.1333,-3.9604,5.7605,-7.2852,-4.0609,-3.0065,4.0404,-3.9604,5.7605,-6.8627,7.7939,3.0213,1.0101,-1.0614,0.0,-31.066999,2.8618,5.0327,2.0813
3.9604,11.044,1.8667,6.9307,17.410999,-2.1306,7.1066,6.7974,12.121,6.9307,17.410999,2.9412,8.7601,4.9918,6.0606,0.92869,4.0201,1.9333,-6.8943,11.895,4.0325
0.0,4.9832,-0.13333,8.9109,14.498,-1.0997,11.168,2.8758,10.101,8.9109,14.498,6.8627,3.9291,2.0361,4.0404,-4.0464,1.005,12.933,-5.9187,7.9739,-2.7967
-5.9406,1.9529,-3.1333,4.9505,7.7023,-4.1924,12.183,-3.9869,7.0707,4.9505,7.7023,5.8824,0.06441,-1.9048,0.0,-6.0365,-3.0151,4.9333,8.7154,5.0327,-6.6992
0.0,11.044,4.8667,2.9703,10.615,-1.0997,16.243999,-0.06536,7.0707,2.9703,10.615,8.8235,7.7939,7.9475,5.0505,3.9138,6.0302,11.933,9.6911,6.0131,6.9593
1.9802,9.0236,5.8667,3.9604,5.7605,-3.1615,9.1371,-1.0458,-1.0101,3.9604,5.7605,6.8627,7.7939,8.9327,6.0606,7.8939,9.0452,1.9333,-9.8211,2.0915,6.9593
0.0,-0.06734,2.8667,6.9307,9.644,-4.1924,2.0305,0.91503,0.0,6.9307,9.644,1.9608,2.963,2.0361,4.0404,4.9088,7.0352,1.9333,-8.8455,-0.84967,-0.84553
-3.9604,-6.1279,-1.1333,3.9604,10.615,-6.2543,-3.0457,0.91503,3.0303,3.9604,10.615,-3.9216,-1.868,-3.8752,-1.0101,0.92869,3.0151,1.9333,3.8374,2.0915,-2.7967
-7.9208,-10.168,-6.1333,0.9901,3.8188,-10.378,1.0152,-5.9477,1.0101,0.9901,3.8188,-5.8824,-2.8341,-4.8604,-7.0707,-4.0464,-5.0251,-20.066999,0.91057,0.13072,-4.748
-10.891,-12.189,-12.133,1.9802,5.7605,-12.44,7.1066,-7.9085,4.0404,1.9802,5.7605,-4.902,-0.90177,-0.91954,-10.101,-11.012,-12.06,-16.066999,-3.9675,-1.8301,-2.7967
-13.861,-8.1481,-14.133,3.9604,12.557,-12.44,4.0609,-6.9281,9.0909,3.9604,12.557,-4.902,-6.6989,-3.8752,-12.121,-14.992,-16.08,-14.067,4.813,-10.654,-3.7724
-8.9109,-5.1178,-10.133,0.9901,12.557,-10.378,0.0,-9.8693,11.111,0.9901,12.557,-4.902,-11.53,-8.8013,-11.111,-13.002,-14.07,-11.067,1.8862,-14.575,-6.6992
-5.9406,0.94276,-5.1333,-1.9802,5.7605,-9.3471,-3.0457,-5.9477,7.0707,-1.9802,5.7605,-4.902,-9.5974,-5.8456,-8.0808,-5.0415,-7.0352,2.9333,3.8374,-10.654,-0.84553
-9.901,4.9832,-3.1333,-1.9802,3.8188,-8.3162,-2.0305,-4.9673,-1.0101,-1.9802,3.8188,-5.8824,-11.53,-5.8456,-11.111,-2.0564,-5.0251,-3.0667,11.642,-15.556,0.13008
-9.901,3.9731,-2.1333,2.9703,4.7896,-6.2543,3.0457,-3.0065,1.0101,2.9703,4.7896,-2.9412,-13.462,-8.8013,-9.0909,-3.0514,-4.0201,-23.066999,4.813,-11.634,-2.7967
-3.9604,-0.06734,0.86667,10.891,10.615,-0.06873,7.1066,-1.0458,3.0303,10.891,10.615,5.8824,-6.6989,-4.8604,-5.0505,-4.0464,-2.0101,-19.066999,-9.8211,-6.732,-7.6748
-2.9703,-0.06734,2.8667,13.861,16.440001,5.0859,11.168,-0.06536,7.0707,13.861,16.440001,11.765,-5.7327,-5.8456,-4.0404,-4.0464,-1.005,-14.067,-0.06504,-5.7516,-8.6504
-2.9703,-1.0774,0.86667,9.901,15.469,1.9931,12.183,-1.0458,7.0707,9.901,15.469,8.8235,-4.7665,-3.8752,-3.0303,-3.0514,-1.005,-10.067,-2.0163,-3.7908,-6.6992
-2.9703,-5.1178,-3.1333,4.9505,6.7314,-0.06873,9.1371,-3.9869,-1.0101,4.9505,6.7314,4.902,-3.8003,4.9918,-4.0404,-0.06634,-3.0151,-2.0667,-11.772,-4.7712,2.0813
-7.9208,-13.199,-9.1333,4.9505,2.8479,-1.0997,-1.0152,0.91503,-4.0404,4.9505,2.8479,0.0,-7.6651,2.0361,-11.111,-5.0415,-10.05,5.9333,-5.9187,-12.614,5.9837
-10.891,-14.209,-11.133,3.9604,6.7314,-2.1306,1.0152,-0.06536,-1.0101,3.9604,6.7314,0.0,-6.6989,-2.89,-12.121,-10.017,-14.07,-8.0667,0.91057,-13.595,-1.8211
-6.9307,-6.1279,-7.1333,5.9406,12.557,-1.0997,12.183,-3.0065,4.0404,5.9406,12.557,5.8824,-5.7327,-8.8013,-7.0707,-10.017,-10.05,-10.067,4.813,-6.732,-12.553
-2.9703,0.94276,-2.1333,8.9109,15.469,1.9931,15.228,-1.0458,3.0303,8.9109,15.469,10.784,-7.6651,-11.757,-2.0202,-6.0365,-5.0251,-20.066999,-7.8699,-3.7908,-10.602
-2.9703,5.9933,-1.1333,8.9109,11.586,3.0241,11.168,-2.0261,3.0303,8.9109,11.586,10.784,-4.7665,-10.772,0.0,-2.0564,-1.005,-5.0667,-8.8455,-2.8105,-6.6992
-1.9802,11.044,1.8667,7.9208,10.615,1.9931,8.1218,0.91503,5.0505,7.9208,10.615,9.8039,2.963,0.06568,5.0505,3.9138,5.0251,-9.0667,-6.8943,-0.84967,-3.7724
0.0,8.0135,2.8667,3.9604,6.7314,-4.1924,6.0914,-3.9869,1.0101,3.9604,6.7314,4.902,1.0306,0.06568,4.0404,1.9237,5.0251,-30.066999,-2.0163,-3.7908,-1.8211
-0.9901,1.9529,0.86667,0.9901,1.877,-6.2543,1.0152,-7.9085,-5.0505,0.9901,1.877,1.9608,-2.8341,-7.8161,2.0202,-3.0514,1.005,-3.0667,9.6911,-2.8105,-4.748
-4.9505,1.9529,-0.13333,1.9802,6.7314,-4.1924,1.0152,-5.9477,-4.0404,1.9802,6.7314,3.9216,1.0306,-3.8752,2.0202,-1.0614,1.005,7.9333,-1.0407,1.1111,1.1057
-2.9703,5.9933,1.8667,3.9604,7.7023,-3.1615,3.0457,-3.9869,2.0202,3.9604,7.7023,5.8824,2.963,2.0361,3.0303,2.9187,3.0151,-1.0667,-8.8455,3.0719,0.13008
1.9802,7.0034,2.8667,5.9406,8.6731,-2.1306,6.0914,0.91503,3.0303,5.9406,8.6731,6.8627,5.8615,3.0213,7.0707,5.9038,5.0251,8.9333,-6.8943,6.9935,0.13008
0.9901,0.94276,-2.1333,3.9604,7.7023,-5.2234,5.0761,-2.0261,1.0101,3.9604,7.7023,1.9608,6.8277,5.977,7.0707,5.9038,4.0201,12.933,-2.0163,6.9935,4.0325
1.9802,-3.0976,-5.1333,0.0,0.90615,-7.2852,0.0,-4.9673,-3.0303,0.0,0.90615,-2.9412,11.659,10.903,9.0909,8.8889,7.0352,5.9333,10.667,8.9542,8.9106
2.9703,1.9529,-1.1333,1.9802,2.8479,-3.1615,3.0457,-1.0458,-1.0101,1.9802,2.8479,0.98039,8.7601,10.903,7.0707,10.879,7.0352,0.93333,5.7886,4.0523,11.837
6.9307,10.034,5.8667,5.9406,4.7896,4.055,9.1371,0.91503,2.0202,5.9406,4.7896,7.8431,1.0306,4.9918,3.0303,8.8889,6.0302,5.9333,-1.0407,0.13072,10.862
6.9307,10.034,6.8667,0.9901,6.7314,3.0241,9.1371,-0.06536,1.0101,0.9901,6.7314,5.8824,-5.7327,-4.8604,0.0,1.9237,2.0101,-13.067,0.91057,-2.8105,1.1057
6.9307,9.0236,6.8667,2.9703,8.6731,7.1478,9.1371,6.7974,5.0505,2.9703,8.6731,5.8824,-0.90177,0.06568,1.0101,0.92869,2.0101,-0.06667,5.7886,0.13072,0.13008
4.9505,8.0135,4.8667,4.9505,7.7023,7.1478,3.0457,4.8366,3.0303,4.9505,7.7023,4.902,2.963,2.0361,2.0202,1.9237,1.005,4.9333,10.667,5.0327,-0.84553
-0.9901,0.94276,-1.1333,1.9802,4.7896,-1.0997,-3.0457,-2.0261,-5.0505,1.9802,4.7896,-0.98039,-8.6312,-12.742,-6.0606,-6.0365,-7.0352,2.9333,-3.9675,-2.8105,-10.602
0.9901,1.9529,2.8667,1.9802,-1.0356,1.9931,8.1218,1.8954,-7.0707,1.9802,-1.0356,4.902,-13.462,-14.713,-6.0606,-5.0415,-6.0302,13.933,-12.748,-4.7712,-9.626
6.9307,3.9731,8.8667,4.9505,6.7314,9.2096,11.168,5.817,-4.0404,4.9505,6.7314,11.765,-9.5974,-9.7865,-3.0303,-1.0614,-3.0151,10.933,-6.8943,-3.7908,1.1057
6.9307,2.963,7.8667,7.9208,13.528,10.241,5.0761,5.817,-3.0303,7.9208,13.528,10.784,-7.6651,-3.8752,-1.0101,-0.06634,-2.0101,4.9333,-6.8943,-8.6928,-2.7967
9.901,8.0135,10.867,12.871,16.440001,11.271,6.0914,5.817,7.0707,12.871,16.440001,12.745,-3.8003,-0.91954,2.0202,4.9088,3.0151,2.9333,-5.9187,-7.7124,-2.7967
8.9109,11.044,10.867,13.861,19.353001,10.241,12.183,6.7974,9.0909,13.861,19.353001,15.686,0.06441,-1.9048,4.0404,7.8939,6.0302,-21.066999,-2.0163,-2.8105,4.0325
9.901,11.044,11.867,13.861,20.323999,10.241,15.228,4.8366,3.0303,13.861,20.323999,15.686,3.9291,2.0361,5.0505,8.8889,7.0352,-12.067,-0.06504,3.0719,7.935
8.9109,12.054,10.867,8.9109,13.528,10.241,12.183,-1.0458,-2.0202,8.9109,13.528,13.725,2.963,6.9622,5.0505,8.8889,6.0302,-5.0667,-2.0163,2.0915,6.9593
3.9604,9.0236,6.8667,3.9604,6.7314,5.0859,14.213,-3.0065,1.0101,3.9604,6.7314,9.8039,1.0306,3.0213,2.0202,4.9088,3.0151,3.9333,-9.8211,1.1111,5.0081
3.9604,12.054,7.8667,4.9505,4.7896,4.055,22.334999,-0.06536,5.0505,4.9505,4.7896,10.784,6.8277,7.9475,4.0404,7.8939,4.0201,21.933001,-0.06504,5.0327,6.9593
5.9406,12.054,7.8667,5.9406,10.615,5.0859,12.183,0.91503,3.0303,5.9406,10.615,9.8039,6.8277,14.844,4.0404,8.8889,4.0201,10.933,-0.06504,4.0523,9.8862
14.851,16.094,14.867,5.9406,15.469,13.333,2.0305,4.8366,2.0202,5.9406,15.469,13.725,8.7601,12.874,9.0909,13.864,9.0452,4.9333,7.7398,8.9542,17.691
12.871,16.094,15.867,5.9406,7.7023,11.271,1.0152,2.8758,0.0,5.9406,7.7023,12.745,12.625,13.859,9.0909,15.854,12.06,9.9333,12.618,10.915,14.764
4.9505,11.044,9.8667,3.9604,0.90615,1.9931,6.0914,0.91503,1.0101,3.9604,0.90615,8.8235,5.8615,6.9622,3.0303,10.879,6.0302,-10.067,20.423,5.0327,11.837
3.9604,12.054,9.8667,5.9406,5.7605,4.055,11.168,3.8562,4.0404,5.9406,5.7605,11.765,4.8953,3.0213,1.0101,7.8939,3.0151,0.93333,19.447001,4.0523,11.837
-1.9802,4.9832,3.8667,2.9703,-1.0356,5.0859,3.0457,3.8562,-2.0202,2.9703,-1.0356,8.8235,1.9968,4.9918,-6.0606,-0.06634,-4.0201,8.9333,-8.8455,-1.8301,2.0813
0.9901,2.963,2.8667,3.9604,-0.06472,10.241,3.0457,4.8366,0.0,3.9604,-0.06472,10.784,1.9968,7.9475,-7.0707,-1.0614,-6.0302,15.933,-9.8211,0.13072,0.13008
3.9604,7.0034,2.8667,4.9505,6.7314,10.241,6.0914,6.7974,6.0606,4.9505,6.7314,11.765,0.06441,1.0509,-6.0606,1.9237,-5.0251,14.933,-4.9431,0.13072,1.1057
-2.9703,3.9731,-0.13333,1.9802,10.615,1.9931,2.0305,6.7974,5.0505,1.9802,10.615,5.8824,-0.90177,-1.9048,-6.0606,2.9187,-5.0251,12.933,0.91057,0.13072,8.9106
-9.901,4.9832,-2.1333,-0.9901,3.8188,-4.1924,1.0152,3.8562,7.0707,-0.9901,3.8188,0.98039,-3.8003,-2.89,-8.0808,0.92869,-6.0302,-11.067,11.642,-2.8105,5.9837
-11.881,4.9832,-1.1333,-1.9802,-1.0356,-4.1924,1.0152,-1.0458,7.0707,-1.9802,-1.0356,2.9412,-4.7665,-1.9048,-9.0909,-2.0564,-7.0352,-11.067,4.813,-6.732,1.1057
-7.9208,1.9529,-1.1333,0.9901,4.7896,-2.1306,3.0457,-6.9281,2.0202,0.9901,4.7896,4.902,-4.7665,-2.89,-9.0909,-4.0464,-8.0402,-28.066999,-2.0163,-8.6928,-0.84553
-8.9109,-0.06734,-3.1333,4.9505,9.644,-3.1615,3.0457,-8.8889,-3.0303,4.9505,9.644,4.902,-3.8003,-0.91954,-12.121,-5.0415,-9.0452,-21.066999,-1.0407,-12.614,-3.7724
-7.9208,-1.0774,-3.1333,6.9307,14.498,-1.0997,2.0305,-3.9869,-3.0303,6.9307,14.498,4.902,1.9968,7.9475,-11.111,-4.0464,-8.0402,14.933,-1.0407,-11.634,-0.84553
-4.9505,8.0135,7.8667,10.891,17.410999,4.055,12.183,-1.0458,7.0707,10.891,17.410999,13.725,2.963,6.9622,-6.0606,0.92869,-1.005,1.9333,-8.8455,-6.732,-0.84553
-3.9604,18.114,18.867001,11.881,12.557,9.2096,22.334999,-3.9869,9.0909,11.881,12.557,22.549,0.06441,-0.91954,-4.0404,6.8988,5.0251,-11.067,-4.9431,-3.7908,-3.7724
7.9208,28.215,27.867001,16.832001,21.294001,18.488001,28.426001,-0.06536,10.101,16.832001,21.294001,30.392,6.8277,6.9622,5.0505,17.844,15.075,-1.0667,-7.8699,3.0719,10.862
13.861,22.155001,25.867001,10.891,22.264999,14.364,17.259001,-1.0458,5.0505,10.891,22.264999,23.528999,8.7601,12.874,8.0808,19.834,17.084999,7.9333,-7.8699,3.0719,12.813
13.861,18.114,20.867001,4.9505,13.528,4.055,13.198,-6.9281,5.0505,4.9505,13.528,15.686,9.7262,16.813999,9.0909,19.834,16.08,8.9333,18.472,3.0719,14.764
10.891,18.114,16.867001,4.9505,8.6731,-1.0997,16.243999,-5.9477,8.0808,4.9505,8.6731,11.765,10.692,14.844,8.0808,19.834,15.075,1.9333,18.472,6.0131,18.667
3.9604,13.064,8.8667,4.9505,8.6731,-1.0997,11.168,-4.9673,7.0707,4.9505,8.6731,7.8431,5.8615,7.9475,2.0202,13.864,9.0452,-26.066999,6.7642,-0.84967,15.74
0.9901,10.034,8.8667,6.9307,11.586,5.0859,9.1371,-3.0065,6.0606,6.9307,11.586,10.784,5.8615,6.9622,1.0101,8.8889,6.0302,-10.067,3.8374,-2.8105,10.862
-4.9505,8.0135,11.867,4.9505,11.586,4.055,10.152,-7.9085,0.0,4.9505,11.586,14.706,3.9291,5.977,-4.0404,2.9187,3.0151,0.93333,4.813,-5.7516,4.0325
-3.9604,11.044,16.867001,10.891,15.469,3.0241,13.198,-7.9085,0.0,10.891,15.469,19.608,0.06441,7.9475,-7.0707,1.9237,3.0151,-15.067,2.8618,-9.6732,5.0081
0.0,13.064,15.867,12.871,14.498,6.1168,18.274,-2.0261,3.0303,12.871,14.498,21.569,-3.8003,3.0213,-8.0808,0.92869,1.005,-1.0667,-5.9187,-10.654,-1.8211
0.9901,10.034,8.8667,6.9307,9.644,4.055,16.243999,-3.0065,4.0404,6.9307,9.644,16.667,-1.868,2.0361,-8.0808,0.92869,-1.005,-7.0667,-12.748,-10.654,-4.748
-4.9505,4.9832,2.8667,2.9703,8.6731,-2.1306,13.198,-6.9281,2.0202,2.9703,8.6731,9.8039,-0.90177,1.0509,-9.0909,1.9237,-3.0151,-12.067,-2.9919,-5.7516,1.1057
-9.901,4.9832,1.8667,2.9703,8.6731,-3.1615,12.183,-4.9673,3.0303,2.9703,8.6731,7.8431,-0.90177,-0.91954,-8.0808,4.9088,-2.0101,-18.066999,18.472,-5.7516,7.935
-7.9208,7.0034,5.8667,4.9505,5.7605,-0.06873,8.1218,-3.9869,5.0505,4.9505,5.7605,7.8431,6.8277,5.977,-1.0101,9.8839,5.0251,-19.066999,14.569,1.1111,11.837
-4.9505,7.0034,5.8667,-0.9901,1.877,-3.1615,2.0305,-6.9281,3.0303,-0.9901,1.877,2.9412,10.692,16.813999,2.0202,14.859,9.0452,6.9333,10.667,4.0523,19.642
-2.9703,5.9933,2.8667,-4.9505,-2.9773,-3.1615,1.0152,-8.8889,1.0101,-4.9505,-2.9773,0.98039,7.7939,14.844,3.0303,14.859,9.0452,-0.06667,11.642,1.1111,18.667
0.0,1.9529,0.86667,-1.9802,-3.9482,0.9622,2.0305,-6.9281,-2.0202,-1.9802,-3.9482,2.9412,1.9968,5.977,0.0,6.8988,3.0151,-26.066999,9.6911,-3.7908,12.813
-0.9901,-3.0976,1.8667,1.9802,1.877,7.1478,5.0761,-3.0065,-7.0707,1.9802,1.877,7.8431,-3.8003,-2.89,-6.0606,-3.0514,-3.0151,-12.067,6.7642,-5.7516,-1.8211
2.9703,3.9731,11.867,8.9109,8.6731,17.457001,17.259001,4.8366,0.0,8.9109,8.6731,18.627001,0.06441,-1.9048,-2.0202,-2.0564,2.0101,1.9333,-7.8699,0.13072,-4.748
8.9109,12.054,20.867001,11.881,7.7023,23.643,18.274,13.66,0.0,11.881,7.7023,23.528999,6.8277,4.0066,6.0606,3.9138,11.055,9.9333,-11.772,6.9935,-3.7724
19.802,17.104,25.867001,13.861,9.644,26.735001,14.213,16.601,-2.0202,13.861,9.644,24.51,14.557,12.874,16.162001,12.869,19.094999,5.9333,-15.675,12.876,3.0569
19.802,14.074,21.867001,10.891,6.7314,25.704,9.1371,13.66,2.0202,10.891,6.7314,19.608,15.523,20.754999,17.172001,16.849001,20.101,23.933001,-6.8943,10.915,6.9593
14.851,9.0236,11.867,5.9406,-5.89,17.457001,7.1066,9.7386,-1.0101,5.9406,-5.89,13.725,12.625,17.799999,11.111,15.854,15.075,31.933001,8.7154,6.9935,10.862
11.881,10.034,8.8667,1.9802,1.877,10.241,1.0152,9.7386,7.0707,1.9802,1.877,7.8431,6.8277,4.9918,10.101,16.849001,13.065,15.933,7.7398,6.9935,18.667
9.901,12.054,9.8667,0.9901,10.615,7.1478,-7.1066,4.8366,13.131,0.9901,10.615,4.902,5.8615,3.0213,9.0909,18.839001,14.07,6.9333,15.545,5.0327,15.74
9.901,10.034,8.8667,1.9802,3.8188,9.2096,-5.0761,5.817,10.101,1.9802,3.8188,6.8627,2.963,3.0213,7.0707,13.864,12.06,-5.0667,28.228001,6.9935,10.862
7.9208,9.0236,8.8667,2.9703,-3.9482,11.271,2.0305,5.817,6.0606,2.9703,-3.9482,9.8039,-0.90177,-1.9048,7.0707,8.8889,9.0452,-1.0667,24.325001,7.9739,5.9837
1.9802,1.9529,5.8667,2.9703,-6.8608,11.271,6.0914,4.8366,-1.0101,2.9703,-6.8608,10.784,-3.8003,-3.8752,1.0101,-2.0564,2.0101,-17.066999,6.7642,-3.7908,-3.7724
2.9703,-4.1077,4.8667,7.9208,2.8479,16.426001,7.1066,7.7778,-3.0303,7.9208,2.8479,14.706,-0.90177,-5.8456,-1.0101,-9.0216,-3.0151,-4.0667,-13.724,-6.732,-6.6992
0.9901,-5.1178,2.8667,9.901,6.7314,18.488001,8.1218,11.699,-3.0303,9.901,6.7314,16.667,3.9291,0.06568,-2.0202,-8.0265,-3.0151,26.933001,-19.577,-0.84967,-3.7724
-1.9802,-3.0976,2.8667,10.891,4.7896,16.426001,11.168,12.68,1.0101,10.891,4.7896,15.686,4.8953,4.9918,-3.0303,-4.0464,-1.005,15.933,-9.8211,-2.8105,-7.6748
-3.9604,-6.1279,2.8667,9.901,-1.0356,15.395,7.1066,13.66,-4.0404,9.901,-1.0356,12.745,-2.8341,-6.8309,-5.0505,-6.0365,-2.0101,3.9333,-22.504,-3.7908,-17.431
-1.9802,-5.1178,4.8667,10.891,5.7605,17.457001,1.0152,13.66,-6.0606,10.891,5.7605,11.765,-6.6989,-3.8752,-4.0404,-3.0514,0.0,2.9333,-32.259998,-6.732,-10.602
2.9703,-1.0774,5.8667,8.9109,6.7314,16.426001,3.0457,10.719,-6.0606,8.9109,6.7314,11.765,-6.6989,-1.9048,-2.0202,-0.06634,1.005,-10.067,-16.65,-3.7908,-4.748
2.9703,0.94276,1.8667,5.9406,0.90615,13.333,3.0457,6.7974,-2.0202,5.9406,0.90615,8.8235,-8.6312,-5.8456,-1.0101,-1.0614,0.0,-10.067,4.813,-2.8105,-4.748
3.9604,-1.0774,-1.1333,3.9604,-0.06472,10.241,-2.0305,6.7974,6.0606,3.9604,-0.06472,2.9412,-12.496,-10.772,-2.0202,-2.0564,-2.0101,-7.0667,5.7886,-5.7516,0.13008
4.9505,-2.0875,-0.13333,4.9505,-2.0065,8.1787,0.0,8.7582,10.101,4.9505,-2.0065,1.9608,-3.8003,-3.8752,1.0101,-0.06634,2.0101,0.93333,1.8862,0.13072,5.0081
0.9901,-5.1178,-4.1333,4.9505,-1.0356,7.1478,0.0,6.7974,7.0707,4.9505,-1.0356,0.0,1.9968,2.0361,2.0202,-2.0564,1.005,-0.06667,2.8618,6.9935,2.0813
-0.9901,-9.1582,-6.1333,5.9406,-1.0356,10.241,0.0,6.7974,4.0404,5.9406,-1.0356,2.9412,-1.868,-11.757,-2.0202,-13.002,-6.0302,-8.0667,10.667,-0.84967,-8.6504
-4.9505,-13.199,-10.133,3.9604,-1.0356,9.2096,0.0,8.7582,0.0,3.9604,-1.0356,2.9412,-8.6312,-19.639,-7.0707,-19.966999,-13.065,-5.0667,-8.8455,-8.6928,-14.504
-10.891,-16.229,-12.133,0.0,-0.06472,5.0859,-3.0457,7.7778,-3.0303,0.0,-0.06472,-0.98039,-10.564,-12.742,-12.121,-18.972,-15.075,14.933,-8.8455,-10.654,-12.553
-9.901,-11.178,-7.1333,1.9802,1.877,7.1478,-1.0152,7.7778,3.0303,1.9802,1.877,0.98039,-6.6989,-3.8752,-11.111,-11.012,-11.055,7.9333,4.813,-4.7712,-5.7236
-7.9208,-5.1178,-1.1333,5.9406,6.7314,13.333,1.0152,10.719,9.0909,5.9406,6.7314,5.8824,-5.7327,-0.91954,-9.0909,-4.0464,-6.0302,4.9333,6.7642,-2.8105,-2.7967
-8.9109,-3.0976,-0.13333,6.9307,5.7605,10.241,-1.0152,8.7582,5.0505,6.9307,5.7605,4.902,-4.7665,-1.9048,-4.0404,-1.0614,-2.0101,5.9333,-3.9675,-4.7712,-1.8211
-8.9109,-3.0976,-1.1333,2.9703,0.90615,4.055,-3.0457,7.7778,-1.0101,2.9703,0.90615,0.0,1.9968,4.9918,5.0505,3.9138,5.0251,2.9333,-10.797,0.13072,2.0813
-5.9406,-4.1077,-3.1333,2.9703,-4.9191,0.9622,-1.0152,3.8562,1.0101,2.9703,-4.9191,-0.98039,-0.90177,2.0361,3.0303,2.9187,4.0201,-11.067,1.8862,-0.84967,4.0325
0.0,-4.1077,-4.1333,2.9703,-3.9482,0.9622,1.0152,2.8758,5.0505,2.9703,-3.9482,0.0,-4.7665,-4.8604,0.0,-1.0614,-1.005,-19.066999,3.8374,-0.84967,4.0325
-2.9703,-10.168,-8.1333,-0.9901,-1.0356,-3.1615,-8.1218,-1.0458,-1.0101,-0.9901,-1.0356,-5.8824,-11.53,-12.742,-9.0909,-10.017,-9.0452,8.9333,-2.9919,-6.732,-1.8211
-6.9307,-13.199,-10.133,0.0,-1.0356,-1.0997,-14.213,0.91503,-6.0606,0.0,-1.0356,-6.8627,-14.428,-16.683001,-13.131,-14.992,-13.065,12.933,8.7154,-7.7124,-4.748
-10.891,-19.259001,-12.133,-0.9901,-12.686,-1.0997,-9.1371,2.8758,-7.0707,-0.9901,-12.686,-6.8627,-16.361,-22.594,-17.172001,-21.957001,-19.094999,-12.067,-4.9431,-10.654,-13.528
-5.9406,-20.268999,-6.1333,3.9604,-3.9482,3.0241,-4.0609,3.8562,-5.0505,3.9604,-3.9482,0.0,-12.496,-17.667999,-15.152,-23.947001,-19.094999,-5.0667,-14.699,-11.634,-12.553
0.9901,-12.189,4.8667,8.9109,7.7023,8.1787,-4.0609,4.8366,-3.0303,8.9109,7.7023,5.8824,-8.6312,-12.742,-7.0707,-14.992,-9.0452,3.9333,-24.455,-5.7516,-12.553
-0.9901,-0.06734,9.8667,7.9208,5.7605,6.1168,-3.0457,5.817,-3.0303,7.9208,5.7605,4.902,-3.8003,-3.8752,-2.0202,-0.06634,2.0101,6.9333,-19.577,-7.7124,-10.602
-5.9406,8.0135,6.8667,4.9505,0.90615,4.055,-1.0152,5.817,-3.0303,4.9505,0.90615,0.98039,0.06441,4.9918,-2.0202,7.8939,6.0302,9.9333,-9.8211,-6.732,-5.7236
-10.891,4.9832,1.8667,3.9604,-1.0356,-0.06873,-3.0457,3.8562,-1.0101,3.9604,-1.0356,-1.9608,0.06441,3.0213,-3.0303,8.8889,5.0251,3.9333,-18.601999,-5.7516,-2.7967
-5.9406,2.963,2.8667,5.9406,4.7896,-1.0997,-8.1218,0.91503,-1.0101,5.9406,4.7896,-2.9412,3.9291,1.0509,5.0505,9.8839,9.0452,0.93333,-12.748,1.1111,2.0813
-11.881,-4.1077,-4.1333,0.9901,-1.0356,-8.3162,-15.228,-1.0458,-5.0505,0.9901,-1.0356,-10.784,3.9291,4.0066,5.0505,6.8988,7.0352,-3.0667,-5.9187,3.0719,8.9106
-6.9307,-3.0976,-5.1333,1.9802,-5.89,-3.1615,-8.1218,4.8366,-3.0303,1.9802,-5.89,-7.8431,8.7601,17.799999,6.0606,8.8889,7.0352,-20.066999,5.7886,2.0915,10.862
3.9604,4.9832,1.8667,9.901,0.90615,9.2096,2.0305,14.641,3.0303,9.901,0.90615,2.9412,9.7262,13.859,9.0909,11.874,11.055,9.9333,15.545,6.0131,12.813
1.9802,-1.0774,-0.13333,7.9208,4.7896,6.1168,0.0,6.7974,4.0404,7.9208,4.7896,0.98039,1.9968,1.0509,3.0303,2.9187,4.0201,13.933,-0.06504,2.0915,3.0569
-3.9604,-15.219,-7.1333,1.9802,3.8188,-1.0997,-8.1218,-2.0261,-2.0202,1.9802,3.8188,-6.8627,-7.6651,-14.713,-8.0808,-12.007,-9.0452,-7.0667,-11.772,-10.654,-10.602
-2.9703,-14.209,-2.1333,5.9406,1.877,3.0241,-2.0305,4.8366,0.0,5.9406,1.877,0.0,-10.564,-11.757,-9.0909,-10.017,-9.0452,-9.0667,-2.0163,-15.556,-8.6504
-3.9604,-9.1582,-0.13333,9.901,-0.06472,3.0241,1.0152,2.8758,-3.0303,9.901,-0.06472,4.902,-9.5974,-6.8309,-7.0707,-5.0415,-5.0251,-8.0667,-4.9431,-12.614,0.13008
-14.851,-4.1077,-3.1333,6.9307,-1.0356,-2.1306,1.0152,-4.9673,-6.0606,6.9307,-1.0356,0.98039,-7.6651,-2.89,-11.111,-1.0614,-5.0251,-10.067,-10.797,-11.634,5.0081
-15.842,1.9529,-3.1333,5.9406,6.7314,-3.1615,0.0,-5.9477,-5.0505,5.9406,6.7314,-0.98039,-4.7665,4.0066,-10.101,3.9138,-2.0101,-9.0667,-4.9431,-8.6928,2.0813
-12.871,2.963,-2.1333,5.9406,7.7023,-1.0997,-2.0305,-3.9869,-1.0101,5.9406,7.7023,0.0,-7.6651,-4.8604,-10.101,2.9187,-3.0151,-23.066999,9.6911,-11.634,-3.7724
-17.822001,8.0135,-0.13333,7.9208,7.7023,-2.1306,0.0,-3.0065,6.0606,7.9208,7.7023,1.9608,-4.7665,-2.89,-8.0808,6.8988,2.0101,-0.06667,22.374001,-15.556,5.9837
-17.822001,12.054,1.8667,10.891,10.615,-1.0997,4.0609,0.91503,7.0707,10.891,10.615,5.8824,1.9968,2.0361,0.0,9.8839,5.0251,-4.0667,18.472,-5.7516,10.862
-4.9505,8.0135,3.8667,12.871,8.6731,6.1168,5.0761,4.8366,2.0202,12.871,8.6731,8.8235,1.9968,-1.9048,6.0606,4.9088,4.0201,-9.0667,3.8374,0.13072,8.9106
11.881,4.9832,7.8667,12.871,6.7314,11.271,7.1066,3.8562,1.0101,12.871,6.7314,11.765,2.963,3.0213,9.0909,0.92869,4.0201,5.9333,0.91057,-2.8105,1.1057
13.861,-0.06734,6.8667,11.881,10.615,11.271,8.1218,-1.0458,-1.0101,11.881,10.615,11.765,-0.90177,-0.91954,4.0404,-4.0464,0.0,12.933,5.7886,-3.7908,-4.748
6.9307,-7.138,0.86667,13.861,10.615,16.426001,9.1371,3.8562,-1.0101,13.861,10.615,13.725,-4.7665,-9.7865,-2.0202,-10.017,-6.0302,5.9333,-3.9675,-3.7908,-11.577
6.9307,-12.189,2.8667,19.802,12.557,23.643,14.213,12.68,-1.0101,19.802,12.557,19.608,-5.7327,-13.727,-2.0202,-13.002,-6.0302,-3.0667,-20.552999,-4.7712,-14.504
9.901,-12.189,6.8667,24.752001,22.264999,27.766001,15.228,15.621,4.0404,24.752001,22.264999,23.528999,0.06441,-4.8604,1.0101,-10.017,-3.0151,0.93333,-24.455,-2.8105,-10.602
3.9604,-5.1178,4.8667,23.761999,22.264999,23.643,10.152,13.66,8.0808,23.761999,22.264999,19.608,0.06441,-0.91954,-3.0303,-6.0365,-4.0201,-9.0667,-16.65,-4.7712,-0.84553
-9.901,-1.0774,-3.1333,16.832001,13.528,13.333,7.1066,3.8562,8.0808,16.832001,13.528,10.784,-10.564,-9.7865,-12.121,-7.0315,-10.05,-33.067001,-2.0163,-13.595,-4.748
-19.802,-4.1077,-13.133,11.881,10.615,7.1478,2.0305,-1.0458,4.0404,11.881,10.615,4.902,-20.225,-18.653999,-21.212,-11.012,-18.09,-21.066999,-11.772,-16.535999,-10.602
-22.771999,-6.1279,-17.132999,9.901,9.644,6.1168,3.0457,-2.0261,10.101,9.901,9.644,2.9412,-23.124001,-20.624001,-25.253,-14.992,-23.115999,-5.0667,1.8862,-16.535999,-12.553
-31.683001,-11.178,-22.132999,4.9505,2.8479,-3.1615,-3.0457,-5.9477,5.0505,4.9505,2.8479,-4.902,-26.023001,-19.639,-29.292999,-17.976999,-27.136,-12.067,14.569,-23.399,-9.626
-34.653,-12.189,-22.132999,-0.9901,-2.0065,-10.378,-11.168,-8.8889,-3.0303,-0.9901,-2.0065,-13.725,-22.158001,-13.727,-24.242001,-14.992,-22.111,-11.067,8.7154,-25.358999,-3.7724
-31.683001,-9.1582,-18.132999,-4.9505,-1.0356,-11.409,-5.0761,-9.8693,-3.0303,-4.9505,-1.0356,-12.745,-11.53,-3.8752,-12.121,-9.0216,-12.06,-19.066999,8.7154,-17.516001,2.0813
-19.802,-7.138,-11.133,0.9901,5.7605,-7.2852,5.0761,-7.9085,7.0707,0.9901,5.7605,-4.902,-4.7665,-4.8604,-3.0303,-8.0265,-6.0302,-8.0667,8.7154,-6.732,-6.6992
-8.9109,-13.199,-9.1333,3.9604,7.7023,-5.2234,-4.0609,-3.0065,3.0303,3.9604,7.7023,-2.9412,-10.564,-18.653999,-1.0101,-12.007,-7.0352,-1.0667,-15.675,0.13072,-13.528
-4.9505,-18.249001,-8.1333,0.9901,-1.0356,-6.2543,-14.213,-5.9477,-7.0707,0.9901,-1.0356,-4.902,-17.327,-23.58,-6.0606,-13.002,-9.0452,4.9333,-20.552999,-8.6928,-10.602
0.9901,-14.209,-4.1333,0.9901,-2.0065,-0.06873,-3.0457,-3.0065,-1.0101,0.9901,-2.0065,0.0,-12.496,-13.727,-6.0606,-7.0315,-8.0402,-9.0667,3.8374,-10.654,-0.84553
-0.9901,-9.1582,-4.1333,0.9901,2.8479,4.055,11.168,3.8562,11.111,0.9901,2.8479,3.9216,-8.6312,-8.8013,-9.0909,-5.0415,-11.055,-4.0667,9.6911,-9.6732,6.9593
-10.891,-8.1481,-13.133,-2.9703,3.8188,-0.06873,5.0761,-1.0458,13.131,-2.9703,3.8188,-0.98039,-10.564,-6.8309,-15.152,-8.0265,-18.09,-0.06667,12.618,-10.654,7.935
-7.9208,-4.1077,-14.133,-2.9703,-0.06472,-0.06873,-1.0152,-0.06536,13.131,-2.9703,-0.06472,-1.9608,-10.564,-3.8752,-11.111,-8.0265,-16.08,-1.0667,26.275999,-8.6928,2.0813
1.9802,3.9731,-7.1333,2.9703,1.877,4.055,4.0609,4.8366,13.131,2.9703,1.877,2.9412,-9.5974,-6.8309,-2.0202,-5.0415,-9.0452,13.933,22.374001,-2.8105,-1.8211
-0.9901,1.9529,-8.1333,0.9901,2.8479,-0.06873,-4.0609,3.8562,5.0505,0.9901,2.8479,-2.9412,-11.53,-9.7865,-1.0101,-7.0315,-10.05,-11.067,8.7154,-1.8301,-4.748
-3.9604,-4.1077,-14.133,-5.9406,-6.8608,-6.2543,-13.198,-4.9673,-2.0202,-5.9406,-6.8608,-10.784,-9.5974,-13.727,-1.0101,-9.0216,-11.055,-11.067,2.8618,-2.8105,-7.6748
-0.9901,-2.0875,-12.133,-3.9604,-8.8026,-3.1615,-8.1218,-3.9869,0.0,-3.9604,-8.8026,-9.8039,-10.564,-10.772,-3.0303,-7.0315,-9.0452,7.9333,-1.0407,-6.732,-6.6992
4.9505,-3.0976,-6.1333,3.9604,-2.9773,3.0241,3.0457,1.8954,1.0101,3.9604,-2.9773,-0.98039,-17.327,-19.639,-4.0404,-9.0216,-9.0452,-10.067,-9.8211,-9.6732,-12.553
4.9505,-5.1178,-2.1333,5.9406,4.7896,5.0859,5.0761,3.8562,0.0,5.9406,4.7896,3.9216,-19.259001,-25.549999,-6.0606,-13.002,-11.055,7.9333,-10.797,-12.614,-14.504
-0.9901,-10.168,-3.1333,1.9802,3.8188,-0.06873,3.0457,-0.06536,-2.0202,1.9802,3.8188,0.98039,-20.225,-26.535,-11.111,-18.972,-17.084999,8.9333,-11.772,-9.6732,-18.407
-8.9109,-20.268999,-11.133,-1.9802,-3.9482,-7.2852,-6.0914,-1.0458,-8.0808,-1.9802,-3.9482,-7.8431,-19.259001,-21.608999,-14.141,-21.957001,-21.106001,-8.0667,-13.724,-13.595,-17.431
-9.901,-29.360001,-18.132999,-3.9604,-2.9773,-12.44,-18.274,-2.0261,-9.0909,-3.9604,-2.9773,-16.667,-8.6312,-8.8013,-10.101,-18.972,-19.094999,-0.06667,-6.8943,-5.7516,-11.577
-11.881,-33.401001,-20.132999,-9.901,-6.8608,-15.533,-21.32,-6.9281,-10.101,-9.901,-6.8608,-21.569,-14.428,-13.727,-15.152,-19.966999,-21.106001,-5.0667,-5.9187,-9.6732,-11.577
-19.802,-29.360001,-20.132999,-10.891,-9.7735,-13.471,-14.213,-3.9869,-5.0505,-10.891,-9.7735,-19.608,-24.09,-24.565001,-25.253,-22.952,-27.136,3.9333,-2.0163,-20.458,-9.626
-29.702999,-24.309999,-22.132999,-9.901,-15.599,-18.625,-15.228,-6.9281,-3.0303,-9.901,-15.599,-20.587999,-21.191999,-17.667999,-27.273001,-21.957001,-27.136,-2.0667,7.7398,-21.438,-7.6748
-31.683001,-19.259001,-26.132999,-15.842,-20.452999,-27.903999,-20.305,-16.732,-4.0404,-15.842,-20.452999,-29.412001,-18.292999,-17.667999,-21.212,-18.972,-22.111,-22.066999,-1.0407,-20.458,-13.528
-16.832001,-10.168,-19.132999,-12.871,-9.7735,-21.718,-14.213,-10.85,-5.0505,-12.871,-9.7735,-24.51,-12.496,-15.698,-7.0707,-12.007,-12.06,-26.066999,-2.0163,-10.654,-7.6748
-2.9703,-1.0774,-7.1333,-6.9307,0.90615,-9.3471,-10.152,-1.0458,-1.0101,-6.9307,0.90615,-13.725,-5.7327,-5.8456,1.0101,-3.0514,-3.0151,5.9333,6.7642,-2.8105,-4.748
-0.9901,-4.1077,-5.1333,-0.9901,-0.06472,-5.2234,-12.183,0.91503,-3.0303,-0.9901,-0.06472,-10.784,-11.53,-11.757,-3.0303,-5.0415,-5.0251,13.933,5.7886,-3.7908,-14.504
-0.9901,-11.178,-8.1333,2.9703,-3.9482,-3.1615,-10.152,0.91503,-3.0303,2.9703,-3.9482,-7.8431,-19.259001,-22.594,-7.0707,-13.997,-13.065,-14.067,-15.675,-8.6928,-20.358
-1.9802,-15.219,-10.133,0.9901,-3.9482,-1.0997,-1.0152,-1.0458,-3.0303,0.9901,-3.9482,-4.902,-24.09,-26.535,-12.121,-19.966999,-20.101,-6.0667,-25.431,-13.595,-16.455
-6.9307,-15.219,-9.1333,0.0,-1.0356,-1.0997,-1.0152,-2.0261,-1.0101,0.0,-1.0356,-1.9608,-28.921,-28.506001,-19.191999,-22.952,-25.125999,2.9333,-14.699,-15.556,-13.528
-8.9109,-13.199,-4.1333,3.9604,2.8479,3.0241,1.0152,-1.0458,0.0,3.9604,2.8479,2.9412,-27.955,-27.521,-21.212,-20.962,-23.115999,1.9333,1.8862,-21.438,-16.455
-9.901,-15.219,1.8667,5.9406,1.877,8.1787,5.0761,0.91503,-3.0303,5.9406,1.877,8.8235,-29.886999,-26.535,-22.222,-19.966999,-19.094999,-11.067,5.7886,-25.358999,-22.309
-1.9802,-16.229,8.8667,9.901,6.7314,16.426001,11.168,4.8366,-1.0101,9.901,6.7314,13.725,-22.158001,-16.683001,-13.131,-14.992,-11.055,-33.067001,1.8862,-20.458,-17.431
-9.901,-23.299999,0.86667,7.9208,10.615,9.2096,0.0,0.91503,2.0202,7.9208,10.615,5.8824,-21.191999,-22.594,-15.152,-17.976999,-14.07,-17.066999,-6.8943,-20.458,-15.48
-26.733,-22.290001,-10.133,1.9802,3.8188,-1.0997,-8.1218,-3.0065,3.0303,1.9802,3.8188,-3.9216,-18.292999,-27.521,-20.202,-20.962,-18.09,-2.0667,-16.65,-18.497,-19.382
-21.782,-8.1481,-8.1333,-3.9604,-8.8026,-4.1924,-3.0457,-4.9673,1.0101,-3.9604,-8.8026,-3.9216,-11.53,-15.698,-11.111,-13.002,-11.055,1.9333,-23.48,-11.634,-16.455
-3.9604,5.9933,-0.13333,-0.9901,-2.0065,1.9931,2.0305,0.91503,0.0,-0.9901,-2.0065,0.0,-7.6651,-6.8309,0.0,-1.0614,-2.0101,-3.0667,-17.625999,-3.7908,-2.7967
7.9208,8.0135,1.8667,1.9802,7.7023,5.0859,0.0,3.8562,-7.0707,1.9802,7.7023,0.98039,-5.7327,-5.8456,4.0404,0.92869,1.005,-0.06667,-2.9919,-0.84967,-7.6748
11.881,2.963,0.86667,4.9505,4.7896,8.1787,1.0152,7.7778,-6.0606,4.9505,4.7896,2.9412,1.9968,-4.8604,7.0707,-3.0514,-1.005,13.933,-2.9919,6.9935,-15.48
14.851,4.9832,5.8667,9.901,4.7896,15.395,9.1371,7.7778,4.0404,9.901,4.7896,11.765,5.8615,0.06568,9.0909,-3.0514,0.0,14.933,-1.0407,11.895,-9.626
13.861,5.9933,11.867,12.871,7.7023,18.488001,13.198,6.7974,5.0505,12.871,7.7023,17.646999,1.0306,-4.8604,6.0606,-1.0614,1.005,-3.0667,-4.9431,4.0523,-6.6992
8.9109,2.963,11.867,7.9208,2.8479,14.364,10.152,3.8562,1.0101,7.9208,2.8479,14.706,-2.8341,-6.8309,1.0101,-2.0564,1.005,-31.066999,-5.9187,-5.7516,-6.6992
8.9109,2.963,10.867,4.9505,3.8188,13.333,11.168,-3.0065,-1.0101,4.9505,3.8188,13.725,-6.6989,-6.8309,0.0,-1.0614,2.0101,-15.067,-2.9919,-5.7516,-2.7967
5.9406,-1.0774,11.867,12.871,10.615,16.426001,11.168,2.8758,-3.0303,12.871,10.615,14.706,-8.6312,-5.8456,-2.0202,0.92869,3.0151,15.933,-2.9919,-7.7124,-1.8211
-7.9208,-12.189,4.8667,12.871,2.8479,8.1787,0.0,2.8758,-13.131,12.871,2.8479,6.8627,-7.6651,-2.89,-6.0606,-0.06634,-1.005,-3.0667,-9.8211,-3.7908,-3.7724
-17.822001,-16.229,-3.1333,4.9505,-3.9482,-4.1924,-12.183,-4.9673,-15.152,4.9505,-3.9482,-5.8824,-6.6989,-0.91954,-7.0707,-0.06634,-3.0151,-17.066999,-7.8699,-5.7516,-2.7967
-15.842,-9.1582,-6.1333,0.0,-3.9482,-10.378,-14.213,-7.9085,-6.0606,0.0,-3.9482,-9.8039,-1.868,-1.9048,-2.0202,1.9237,-3.0151,-6.0667,2.8618,1.1111,0.13008
-2.9703,0.94276,-5.1333,0.9901,0.90615,-5.2234,-10.152,-5.9477,-2.0202,0.9901,0.90615,-6.8627,1.0306,1.0509,2.0202,4.9088,0.0,6.9333,10.667,2.0915,7.935
6.9307,4.9832,-4.1333,-2.9703,1.877,-6.2543,-9.1371,-4.9673,-3.0303,-2.9703,1.877,-8.8235,4.8953,6.9622,7.0707,8.8889,5.0251,13.933,7.7398,2.0915,10.862
13.861,2.963,-6.1333,-8.9109,-7.8317,-10.378,-13.198,-7.9085,-7.0707,-8.9109,-7.8317,-14.706,8.7601,9.9179,13.131,8.8889,7.0352,-10.067,9.6911,7.9739,6.9593
8.9109,-1.0774,-7.1333,-6.9307,-11.715,-4.1924,-13.198,-4.9673,-6.0606,-6.9307,-11.715,-11.765,3.9291,5.977,7.0707,3.9138,3.0151,-1.0667,13.593,3.0719,4.0325
3.9604,-5.1178,-5.1333,-0.9901,-13.657,3.0241,-2.0305,0.91503,-4.0404,-0.9901,-13.657,-2.9412,-6.6989,-4.8604,-3.0303,-5.0415,-6.0302,6.9333,4.813,-3.7908,-2.7967
7.9208,-0.06734,3.8667,5.9406,-1.0356,11.271,3.0457,5.817,-2.0202,5.9406,-1.0356,7.8431,-7.6651,-14.713,-3.0303,-7.0315,-6.0302,2.9333,2.8618,-0.84967,-5.7236
14.851,7.0034,13.867,10.891,12.557,21.580999,4.0609,7.7778,4.0404,10.891,12.557,16.667,-5.7327,-15.698,0.0,-1.0614,-1.005,-0.06667,9.6911,-0.84967,1.1057
16.832001,7.0034,15.867,8.9109,8.6731,22.612,8.1218,8.7582,6.0606,8.9109,8.6731,18.627001,-5.7327,-8.8013,1.0101,2.9187,2.0101,5.9333,-7.8699,-2.8105,2.0813
15.842,4.9832,14.867,6.9307,-0.06472,20.549999,9.1371,8.7582,1.0101,6.9307,-0.06472,16.667,-3.8003,-0.91954,3.0303,3.9138,3.0151,9.9333,-6.8943,-0.84967,-3.7724
7.9208,3.9731,13.867,6.9307,0.90615,19.518999,11.168,8.7582,1.0101,6.9307,0.90615,16.667,-4.7665,0.06568,2.0202,5.9038,5.0251,9.9333,-6.8943,-1.8301,-5.7236
-7.9208,-0.06734,7.8667,8.9109,-1.0356,16.426001,5.0761,9.7386,0.0,8.9109,-1.0356,13.725,-2.8341,1.0509,2.0202,6.8988,4.0201,7.9333,-3.9675,0.13072,0.13008
-9.901,0.94276,4.8667,8.9109,-2.9773,17.457001,2.0305,15.621,-3.0303,8.9109,-2.9773,10.784,2.963,5.977,6.0606,8.8889,6.0302,12.933,6.7642,4.0523,5.0081
2.9703,7.0034,5.8667,7.9208,-2.0065,15.395,5.0761,16.601,1.0101,7.9208,-2.0065,8.8235,8.7601,12.874,13.131,10.879,9.0452,-3.0667,3.8374,9.9346,12.813
12.871,8.0135,2.8667,2.9703,-1.0356,8.1787,3.0457,6.7974,2.0202,2.9703,-1.0356,4.902,10.692,10.903,15.152,9.8839,9.0452,-0.06667,13.593,11.895,13.789
11.881,5.9933,-1.1333,-1.9802,-2.9773,3.0241,-1.0152,-2.0261,1.0101,-1.9802,-2.9773,-0.98039,12.625,13.859,15.152,9.8839,8.0402,4.9333,24.325001,11.895,11.837
10.891,1.9529,-1.1333,-0.9901,-8.8026,5.0859,-4.0609,-0.06536,-2.0202,-0.9901,-8.8026,-0.98039,8.7601,8.9327,10.101,4.9088,4.0201,9.9333,15.545,8.9542,5.0081
11.881,-0.06734,3.8667,3.9604,-7.8317,11.271,-1.0152,4.8366,-1.0101,3.9604,-7.8317,6.8627,-2.8341,1.0509,0.0,-2.0564,-2.0101,14.933,11.642,-4.7712,1.1057
7.9208,-5.1178,3.8667,8.9109,-0.06472,11.271,3.0457,5.817,1.0101,8.9109,-0.06472,8.8235,-17.327,-12.742,-11.111,-12.007,-12.06,-1.0667,-9.8211,-13.595,-8.6504
0.0,-11.178,-3.1333,3.9604,1.877,4.055,-5.0761,2.8758,-2.0202,3.9604,1.877,0.98039,-18.292999,-13.727,-17.172001,-16.982,-19.094999,6.9333,-19.577,-14.575,-8.6504
-9.901,-13.199,-11.133,-4.9505,-7.8317,-3.1615,-12.183,-0.06536,-8.0808,-4.9505,-7.8317,-7.8431,-18.292999,-10.772,-20.202,-14.992,-21.106001,-0.06667,-9.8211,-16.535999,-8.6504
-20.792,-10.168,-11.133,-5.9406,-13.657,-6.2543,-12.183,-3.9869,-11.111,-5.9406,-13.657,-8.8235,-17.327,-5.8456,-22.222,-8.0265,-16.08,-9.0667,-2.9919,-13.595,-4.748
-26.733,-12.189,-11.133,-5.9406,-11.715,-8.3162,-15.228,-6.9281,-9.0909,-5.9406,-11.715,-12.745,-16.361,-11.757,-21.212,-4.0464,-11.055,-32.067001,0.91057,-17.516001,-2.7967
-15.842,-7.138,-8.1333,-6.9307,-5.89,-7.2852,-13.198,-3.9869,-4.0404,-6.9307,-5.89,-12.745,-6.6989,-7.8161,-7.0707,-0.06634,-4.0201,-19.066999,5.7886,-5.7516,-0.84553
-3.9604,-1.0774,-6.1333,-7.9208,-9.7735,-6.2543,-10.152,-1.0458,-3.0303,-7.9208,-9.7735,-11.765,0.06441,-2.89,0.0,-2.0564,-2.0101,10.933,6.7642,2.0915,1.1057
0.0,-0.06734,-9.1333,-7.9208,-14.628,-7.2852,-11.168,-1.0458,-6.0606,-7.9208,-14.628,-13.725,1.0306,1.0509,0.0,-4.0464,-5.0251,13.933,15.545,1.1111,2.0813
1.9802,-5.1178,-13.133,-8.9109,-17.540001,-11.409,-15.228,-3.9869,-7.0707,-8.9109,-17.540001,-15.686,1.0306,0.06568,1.0101,-6.0365,-8.0402,1.9333,11.642,4.0523,3.0569
0.0,-12.189,-17.132999,-8.9109,-18.511,-10.378,-17.259001,-5.9477,-9.0909,-8.9109,-18.511,-14.706,-0.90177,-2.89,-2.0202,-11.012,-13.065,-0.06667,-8.8455,5.0327,4.0325
0.0,-12.189,-16.132999,-6.9307,-15.599,-8.3162,-13.198,-3.9869,-15.152,-6.9307,-15.599,-9.8039,-2.8341,-1.9048,-3.0303,-12.007,-14.07,6.9333,-16.65,6.0131,-2.7967
0.9901,-10.168,-11.133,-2.9703,-7.8317,-7.2852,-7.1066,-4.9673,-13.131,-2.9703,-7.8317,-5.8824,-1.868,1.0509,-3.0303,-11.012,-12.06,14.933,-17.625999,5.0327,-10.602
2.9703,-9.1582,-6.1333,-0.9901,-6.8608,-6.2543,-6.0914,-3.9869,-12.121,-0.9901,-6.8608,-3.9216,3.9291,0.06568,1.0101,-8.0265,-6.0302,0.93333,-16.65,8.9542,-8.6504
-0.9901,-10.168,-5.1333,-1.9802,-7.8317,-6.2543,-9.1371,-3.0065,-12.121,-1.9802,-7.8317,-4.902,6.8277,0.06568,2.0202,-6.0365,-3.0151,-25.066999,-22.504,9.9346,-6.6992
-11.881,-11.178,-11.133,-5.9406,-8.8026,-11.409,-11.168,-7.9085,-10.101,-5.9406,-8.8026,-9.8039,3.9291,1.0509,-4.0404,-6.0365,-6.0302,-18.066999,-17.625999,7.9739,-1.8211
-42.574001,-16.229,-25.132999,-11.881,-15.599,-21.718,-17.259001,-13.791,-11.111,-11.881,-15.599,-20.587999,-7.6651,-5.8456,-26.263,-12.007,-20.101,-7.0667,-4.9431,-9.6732,-5.7236
-61.386002,-27.34,-38.132999,-18.812,-21.424,-33.057999,-29.441999,-19.673,-16.162001,-18.812,-21.424,-33.333,-13.462,-4.8604,-38.383999,-16.982,-29.146,-13.067,-2.9919,-26.34,-5.7236
-36.633999,-23.299999,-32.132999,-18.812,-15.599,-26.872999,-34.518002,-12.81,-8.0808,-18.812,-15.599,-33.333,-6.6989,0.06568,-20.202,-12.007,-19.094999,-16.066999,2.8618,-13.595,-1.8211
-11.881,-14.209,-25.132999,-17.822001,-11.715,-21.718,-32.487,-13.791,-3.0303,-17.822001,-11.715,-30.392,-3.8003,-0.91954,-7.0707,-9.0216,-13.065,-14.067,12.618,-5.7516,-4.748
0.0,-8.1481,-20.132999,-13.861,-12.686,-16.563999,-23.35,-11.83,-8.0808,-13.861,-12.686,-23.528999,-0.90177,-4.8604,-2.0202,-9.0216,-10.05,-7.0667,2.8618,1.1111,-4.748
9.901,-7.138,-15.133,-11.881,-18.511,-9.3471,-17.259001,-7.9085,-12.121,-11.881,-18.511,-16.667,1.0306,-6.8309,3.0303,-9.0216,-5.0251,5.9333,-5.9187,6.9935,-4.748
14.851,-0.06734,-6.1333,-10.891,-20.452999,-4.1924,-10.152,-3.9869,-9.0909,-10.891,-20.452999,-9.8039,5.8615,1.0509,9.0909,-4.0464,1.005,20.933001,5.7886,11.895,-5.7236
17.822001,4.9832,2.8667,-5.9406,-9.7735,1.9931,-1.0152,-1.0458,-3.0303,-5.9406,-9.7735,-0.98039,7.7939,7.9475,9.0909,-1.0614,3.0151,-16.066999,10.667,8.9542,-4.748
14.851,-1.0774,3.8667,-2.9703,-5.89,4.055,1.0152,-3.9869,-3.0303,-2.9703,-5.89,3.9216,0.06441,4.9918,1.0101,-6.0365,-3.0151,-15.067,-18.601999,1.1111,-3.7724
5.9406,-10.168,-1.1333,-6.9307,-12.686,1.9931,-5.0761,-7.9085,-10.101,-6.9307,-12.686,0.0,-7.6651,-5.8456,-7.0707,-11.012,-8.0402,6.9333,-26.407,-9.6732,-4.748
5.9406,-6.1279,-0.13333,-10.891,-15.599,-2.1306,-6.0914,-8.8889,-6.0606,-10.891,-15.599,-2.9412,3.9291,4.9918,2.0202,-2.0564,0.0,0.93333,-0.06504,-1.8301,1.1057
-2.9703,1.9529,0.86667,-12.871,-16.57,-8.3162,-4.0609,-8.8889,-5.0505,-12.871,-16.57,-6.8627,8.7601,9.9179,7.0707,5.9038,7.0352,2.9333,19.447001,6.9935,5.9837
-24.752001,-2.0875,-4.1333,-14.851,-14.628,-11.409,-6.0914,-9.8693,-3.0303,-14.851,-14.628,-9.8039,-2.8341,1.0509,-8.0808,0.92869,-2.0101,-8.0667,18.472,-6.732,4.0325
-37.624001,-6.1279,-10.133,-14.851,-6.8608,-9.3471,-8.1218,-14.771,5.0505,-14.851,-6.8608,-9.8039,-16.361,-12.742,-28.283001,-9.0216,-16.08,-6.0667,14.569,-19.476999,-1.8211
-27.723,0.94276,-11.133,-10.891,-5.89,-4.1924,-7.1066,-6.9281,7.0707,-10.891,-5.89,-5.8824,-9.5974,-11.757,-25.253,-9.0216,-16.08,-5.0667,17.496,-10.654,-0.84553
-9.901,3.9731,-10.133,-11.881,-12.686,-6.2543,-8.1218,-3.9869,-4.0404,-11.881,-12.686,-10.784,-0.90177,-1.9048,-10.101,-5.0415,-9.0452,0.93333,15.545,-2.8105,3.0569
3.9604,2.963,-8.1333,-14.851,-16.57,-11.409,-12.183,-7.9085,-11.111,-14.851,-16.57,-14.706,4.8953,5.977,3.0303,-0.06634,0.0,-16.066999,4.813,4.0523,2.0813
8.9109,2.963,-5.1333,-14.851,-13.657,-12.44,-7.1066,-9.8693,-8.0808,-14.851,-13.657,-10.784,1.0306,5.977,7.0707,1.9237,4.0201,-8.0667,-14.699,6.9935,-2.7967
1.9802,-4.1077,-10.133,-11.881,-12.686,-12.44,-4.0609,-5.9477,-5.0505,-11.881,-12.686,-8.8235,-9.5974,-4.8604,-4.0404,-7.0315,-5.0251,6.9333,-24.455,-4.7712,-11.577
0.9901,-6.1279,-9.1333,-7.9208,-10.744,-9.3471,4.0609,-3.9869,-3.0303,-7.9208,-10.744,-4.902,-14.428,-14.713,-9.0909,-13.997,-11.055,7.9333,-17.625999,-8.6928,-13.528
2.9703,-9.1582,-4.1333,-7.9208,-2.0065,-5.2234,3.0457,-7.9085,-4.0404,-7.9208,-2.0065,-2.9412,-15.395,-15.698,-9.0909,-17.976999,-12.06,7.9333,-1.0407,-4.7712,-10.602
-0.9901,-14.209,-6.1333,-10.891,-3.9482,-7.2852,-10.152,-7.9085,-9.0909,-10.891,-3.9482,-7.8431,-14.428,-14.713,-10.101,-20.962,-13.065,2.9333,5.7886,-2.8105,-13.528
0.9901,-16.229,-7.1333,-15.842,-19.482,-12.44,-11.168,-5.9477,-12.121,-15.842,-19.482,-13.725,-3.8003,-7.8161,1.0101,-16.982,-7.0352,0.93333,-4.9431,6.0131,-12.553
-0.9901,-19.259001,-11.133,-17.822001,-14.628,-20.687,-14.213,-3.9869,-4.0404,-17.822001,-14.628,-22.549,10.692,4.9918,10.101,-8.0265,1.005,16.933001,-7.8699,14.837,0.13008
-24.752001,-25.32,-22.132999,-19.802,-15.599,-28.934999,-18.274,-6.9281,0.0,-19.802,-15.599,-30.392,7.7939,8.9327,-2.0202,-5.0415,-3.0151,7.9333,8.7154,6.9935,5.9837
-49.505001,-24.309999,-28.132999,-21.782,-20.452999,-32.027,-21.32,-11.83,-6.0606,-21.782,-20.452999,-34.313999,-3.8003,1.0509,-21.212,-5.0415,-12.06,-11.067,4.813,-7.7124,6.9593
-47.525002,-10.168,-21.132999,-20.792,-16.57,-27.903999,-24.365,-15.752,-7.0707,-20.792,-16.57,-31.372999,-11.53,-0.91954,-28.283001,-0.06634,-12.06,-35.067001,-2.9919,-12.614,6.9593
-22.771999,4.9832,-11.133,-20.792,-20.452999,-23.780001,-19.289,-13.791,-6.0606,-20.792,-20.452999,-25.49,-6.6989,2.0361,-19.191999,3.9138,-6.0302,-26.066999,1.8862,-7.7124,3.0569
-3.9604,10.034,-6.1333,-20.792,-25.306999,-19.656,-14.213,-7.9085,-9.0909,-20.792,-25.306999,-22.549,1.9968,3.0213,-4.0404,5.9038,1.005,10.933,-2.9919,0.13072,5.9837
4.9505,8.0135,-2.1333,-19.802,-24.337,-16.563999,-14.213,-3.9869,-10.101,-19.802,-24.337,-19.608,10.692,6.9622,8.0808,5.9038,7.0352,26.933001,2.8618,9.9346,9.8862
6.9307,-0.06734,-4.1333,-19.802,-18.511,-15.533,-16.243999,-4.9673,-10.101,-19.802,-18.511,-19.608,8.7601,4.0066,8.0808,-3.0514,3.0151,10.933,4.813,10.915,3.0569
5.9406,-4.1077,-1.1333,-15.842,-14.628,-9.3471,-8.1218,-3.9869,-8.0808,-15.842,-14.628,-11.765,6.8277,3.0213,5.0505,-8.0265,1.005,-6.0667,2.8618,12.876,-3.7724
5.9406,-7.138,0.86667,-11.881,-12.686,-6.2543,-4.0609,-5.9477,-10.101,-11.881,-12.686,-4.902,2.963,3.0213,2.0202,-10.017,0.0,-3.0667,-10.797,11.895,-7.6748
3.9604,-10.168,-1.1333,-12.871,-10.744,-8.3162,-4.0609,-3.0065,-9.0909,-12.871,-10.744,-4.902,-2.8341,1.0509,-2.0202,-9.0216,-3.0151,15.933,-17.625999,3.0719,-5.7236
0.9901,-9.1582,-7.1333,-14.851,-18.511,-12.44,-6.0914,-4.9673,-10.101,-14.851,-18.511,-8.8235,-8.6312,-7.8161,-4.0404,-9.0216,-5.0251,-1.0667,-3.9675,2.0915,-3.7724
-5.9406,-13.199,-15.133,-16.832001,-20.452999,-18.625,-15.228,-8.8889,-15.152,-16.832001,-20.452999,-15.686,-8.6312,-9.7865,-5.0505,-9.0216,-7.0352,-19.066999,0.91057,-0.84967,1.1057
-13.861,-20.268999,-18.132999,-18.812,-17.540001,-20.687,-24.365,-8.8889,-19.191999,-18.812,-17.540001,-20.587999,-0.90177,-5.8456,-2.0202,-6.0365,-4.0201,0.93333,-3.9675,7.9739,2.0813
-16.832001,-16.229,-11.133,-16.832001,-15.599,-15.533,-17.259001,-7.9085,-14.141,-16.832001,-15.599,-13.725,2.963,0.06568,-1.0101,-0.06634,0.0,23.933001,-6.8943,12.876,4.0325
-16.832001,-8.1481,-5.1333,-13.861,-11.715,-7.2852,-8.1218,-2.0261,-10.101,-13.861,-11.715,-6.8627,1.0306,0.06568,-6.0606,-0.06634,-1.005,11.933,-18.601999,3.0719,-4.748
-3.9604,0.94276,-1.1333,-8.9109,-6.8608,-3.1615,-7.1066,2.8758,-7.0707,-8.9109,-6.8608,-3.9216,5.8615,8.9327,2.0202,1.9237,2.0101,-4.0667,-14.699,5.0327,-3.7724
11.881,3.9731,0.86667,-8.9109,-8.8026,-2.1306,-6.0914,3.8562,-3.0303,-8.9109,-8.8026,-4.902,4.8953,9.9179,7.0707,0.92869,3.0151,12.933,5.7886,10.915,5.9837
13.861,0.94276,-0.13333,-14.851,-18.511,-3.1615,-6.0914,3.8562,-7.0707,-14.851,-18.511,-7.8431,-3.8003,0.06568,4.0404,-6.0365,-3.0151,21.933001,15.545,13.856,0.13008
8.9109,-4.1077,0.86667,-17.822001,-21.424,-4.1924,-2.0305,0.91503,-11.111,-17.822001,-21.424,-4.902,-7.6651,-5.8456,-2.0202,-10.017,-6.0302,17.933001,1.8862,2.0915,-5.7236
18.812,0.94276,13.867,-11.881,-8.8026,4.055,1.0152,8.7582,-8.0808,-11.881,-8.8026,4.902,0.06441,3.0213,8.0808,-2.0564,5.0251,5.9333,-13.724,4.0523,-2.7967
16.832001,2.963,16.867001,-12.871,-7.8317,0.9622,-3.0457,3.8562,-9.0909,-12.871,-7.8317,4.902,4.8953,6.9622,12.121,1.9237,11.055,-7.0667,-20.552999,7.9739,-0.84553
17.822001,8.0135,18.867001,-11.881,-11.715,-0.06873,5.0761,0.91503,-7.0707,-11.881,-11.715,5.8824,9.7262,12.874,16.162001,6.8988,17.084999,3.9333,-10.797,13.856,8.9106
7.9208,5.9933,12.867,-12.871,-14.628,-5.2234,2.0305,-1.0458,-11.111,-12.871,-14.628,-0.98039,6.8277,1.0509,12.121,2.9187,15.075,31.933001,2.8618,11.895,2.0813
-11.881,-3.0976,-0.13333,-15.842,-15.599,-13.471,-12.183,-7.9085,-13.131,-15.842,-15.599,-13.725,3.9291,-1.9048,1.0101,0.92869,8.0402,10.933,8.7154,2.0915,-3.7724
-11.881,-3.0976,-4.1333,-12.871,-14.628,-12.44,-19.289,-6.9281,-8.0808,-12.871,-14.628,-14.706,4.8953,6.9622,-1.0101,8.8889,8.0402,-12.067,-1.0407,-4.7712,3.0569
5.9406,7.0034,1.8667,-5.9406,-14.628,-1.0997,-9.1371,1.8954,-3.0303,-5.9406,-14.628,-3.9216,11.659,20.754999,9.0909,18.839001,15.075,6.9333,-3.9675,6.0131,15.74
14.851,7.0034,0.86667,-9.901,-15.599,-0.06873,-4.0609,0.91503,-10.101,-9.901,-15.599,-3.9216,13.591,22.726,14.141,17.844,14.07,17.933001,5.7886,15.817,19.642
19.802,4.9832,-2.1333,-13.861,-12.686,-1.0997,-3.0457,1.8954,-7.0707,-13.861,-12.686,-3.9216,11.659,16.813999,13.131,9.8839,9.0452,16.933001,11.642,15.817,9.8862
11.881,-1.0774,-5.1333,-11.881,-11.715,-4.1924,-7.1066,0.91503,-6.0606,-11.881,-11.715,-5.8824,8.7601,9.9179,7.0707,-0.06634,2.0101,4.9333,-6.8943,7.9739,-0.84553
11.881,-5.1178,-2.1333,-10.891,-15.599,-3.1615,-6.0914,1.8954,-7.0707,-10.891,-15.599,-4.902,0.06441,-4.8604,5.0505,-8.0265,-1.005,-12.067,-6.8943,4.0523,-6.6992
10.891,-0.06734,3.8667,-9.901,-10.744,1.9931,0.0,1.8954,-1.0101,-9.901,-10.744,0.98039,-5.7327,-11.757,0.0,-9.0216,-3.0151,2.9333,2.8618,2.0915,-3.7724
6.9307,4.9832,3.8667,-9.901,-6.8608,0.9622,4.0609,-3.0065,3.0303,-9.901,-6.8608,2.9412,-4.7665,-0.91954,-5.0505,-5.0415,-3.0151,18.933001,3.8374,2.0915,3.0569
7.9208,3.9731,1.8667,-12.871,-7.8317,-2.1306,-3.0457,-2.0261,-1.0101,-12.871,-7.8317,-1.9608,1.0306,6.9622,-3.0303,0.92869,0.0,7.9333,8.7154,-1.8301,9.8862
3.9604,-4.1077,-1.1333,-18.812,-19.482,-7.2852,-10.152,-0.06536,-11.111,-18.812,-19.482,-9.8039,6.8277,11.888,2.0202,2.9187,4.0201,-4.0667,-4.9431,2.0915,11.837
-20.792,-16.229,-16.132999,-20.792,-22.395,-19.656,-17.259001,-1.0458,-9.0909,-20.792,-22.395,-21.569,3.9291,8.9327,-4.0404,-3.0514,-2.0101,-0.06667,-11.772,1.1111,1.1057
-45.544998,-20.268999,-30.132999,-24.752001,-21.424,-28.934999,-28.426001,-9.8693,-10.101,-24.752001,-21.424,-31.372999,-3.8003,-0.91954,-21.212,-9.0216,-13.065,2.9333,-3.9675,-8.6928,-4.748
-39.604,-7.138,-22.132999,-21.782,-19.482,-20.687,-26.396,-7.9085,-9.0909,-21.782,-19.482,-25.49,1.0306,4.0066,-18.181999,-0.06634,-8.0402,-3.0667,4.813,-4.7712,5.9837
-15.842,2.963,-12.133,-17.822001,-23.365999,-12.44,-19.289,-4.9673,-8.0808,-17.822001,-23.365999,-18.627001,9.7262,14.844,-5.0505,7.8939,1.005,-0.06667,13.593,2.0915,11.837
3.9604,3.9731,-7.1333,-13.861,-17.540001,-8.3162,-8.1218,-0.06536,-6.0606,-13.861,-17.540001,-14.706,4.8953,7.9475,5.0505,3.9138,4.0201,9.9333,13.593,7.9739,6.9593
8.9109,-2.0875,-8.1333,-12.871,-15.599,-12.44,-10.152,-3.0065,-6.0606,-12.871,-15.599,-15.686,0.06441,2.0361,3.0303,-2.0564,0.0,-10.067,-3.9675,2.0915,1.1057
11.881,-4.1077,-5.1333,-13.861,-11.715,-10.378,-13.198,-5.9477,-9.0909,-13.861,-11.715,-13.725,5.8615,10.903,1.0101,-2.0564,1.005,-7.0667,-9.8211,-1.8301,2.0813
17.822001,1.9529,4.8667,-9.901,-8.8026,1.9931,-3.0457,0.91503,-6.0606,-9.901,-8.8026,-1.9608,8.7601,10.903,5.0505,-1.0614,4.0201,12.933,23.35,1.1111,6.9593
19.802,9.0236,13.867,-0.9901,-6.8608,14.364,14.213,8.7582,1.0101,-0.9901,-6.8608,12.745,6.8277,1.0509,7.0707,-2.0564,6.0302,17.933001,3.8374,2.0915,4.0325
18.812,1.9529,12.867,-0.9901,-1.0356,14.364,5.0761,9.7386,-5.0505,-0.9901,-1.0356,10.784,0.06441,-4.8604,5.0505,-4.0464,5.0251,14.933,-30.309,-0.84967,-9.626
18.812,-2.0875,8.8667,-3.9604,-2.9773,7.1478,-12.183,8.7582,-4.0404,-3.9604,-2.9773,0.98039,4.8953,3.0213,10.101,2.9187,9.0452,6.9333,-18.601999,6.9935,-3.7724
2.9703,-9.1582,-4.1333,-10.891,-13.657,-3.1615,-17.259001,1.8954,-4.0404,-10.891,-13.657,-8.8235,1.9968,9.9179,6.0606,4.9088,5.0251,2.9333,-2.9919,1.1111,5.9837
-20.792,-15.219,-16.132999,-9.901,-15.599,-5.2234,-12.183,-1.0458,-3.0303,-9.901,-15.599,-11.765,-6.6989,0.06568,-7.0707,-1.0614,-5.0251,13.933,13.593,-4.7712,4.0325
-28.712999,-12.189,-16.132999,-4.9505,-11.715,0.9622,-7.1066,-3.0065,-1.0101,-4.9505,-11.715,-7.8431,-11.53,-8.8013,-15.152,-5.0415,-10.05,-30.066999,14.569,-8.6928,2.0813
-12.871,-0.06734,-1.1333,-2.9703,-9.7735,9.2096,-2.0305,-3.9869,-2.0202,-2.9703,-9.7735,0.98039,-6.6989,-1.9048,-9.0909,-0.06634,-1.005,-33.067001,-1.0407,-2.8105,0.13008
8.9109,9.0236,7.8667,-5.9406,-15.599,6.1168,3.0457,-3.0065,-1.0101,-5.9406,-15.599,0.98039,2.963,3.0213,7.0707,5.9038,11.055,2.9333,0.91057,3.0719,3.0569
22.771999,12.054,10.867,-0.9901,0.90615,5.0859,0.0,6.7974,8.0808,-0.9901,0.90615,0.0,16.49,9.9179,21.212,7.8939,18.09,25.933001,11.642,9.9346,8.9106
21.782,2.963,5.8667,-0.9901,6.7314,3.0241,-6.0914,5.817,2.0202,-0.9901,6.7314,-2.9412,10.692,4.0066,17.172001,-2.0564,11.055,17.933001,7.7398,6.9935,0.13008
18.812,-4.1077,5.8667,-1.9802,-2.0065,4.055,-2.0305,4.8366,-7.0707,-1.9802,-2.0065,0.98039,1.0306,0.06568,9.0909,-9.0216,2.0101,-5.0667,-15.675,4.0523,-10.602
19.802,-1.0774,11.867,2.9703,-5.89,11.271,10.152,5.817,1.0101,2.9703,-5.89,11.765,2.963,7.9475,7.0707,-6.0365,1.005,2.9333,-5.9187,7.9739,-1.8211
17.822001,0.94276,13.867,4.9505,-0.06472,14.364,17.259001,6.7974,3.0303,4.9505,-0.06472,15.686,1.0306,1.0509,1.0101,-6.0365,-2.0101,11.933,-3.9675,7.9739,0.13008
16.832001,-4.1077,8.8667,0.9901,0.90615,10.241,6.0914,9.7386,-4.0404,0.9901,0.90615,6.8627,-3.8003,-6.8309,1.0101,-7.0315,-3.0151,22.933001,-8.8455,8.9542,-5.7236
14.851,-7.138,2.8667,-4.9505,-6.8608,3.0241,-5.0761,6.7974,-6.0606,-4.9505,-6.8608,-0.98039,-5.7327,-11.757,3.0303,-6.0365,-1.005,11.933,-2.9919,7.9739,-2.7967
2.9703,-9.1582,-6.1333,-9.901,-21.424,-4.1924,-4.0609,1.8954,-10.101,-9.901,-21.424,-6.8627,-5.7327,-6.8309,1.0101,-3.0514,-1.005,4.9333,5.7886,5.0327,0.13008
-12.871,-12.189,-17.132999,-10.891,-22.395,-6.2543,1.0152,-1.0458,-10.101,-10.891,-22.395,-11.765,-2.8341,-0.91954,-4.0404,-2.0564,-4.0201,-14.067,-0.06504,1.1111,4.0325
-21.782,-12.189,-18.132999,-5.9406,-2.9773,-3.1615,-7.1066,-0.06536,-3.0303,-5.9406,-2.9773,-10.784,-4.7665,-7.8161,-10.101,-7.0315,-8.0402,-17.066999,-15.675,-2.8105,-2.7967
-16.832001,3.9731,-5.1333,1.9802,6.7314,7.1478,-7.1066,7.7778,6.0606,1.9802,6.7314,0.0,-5.7327,-3.8752,-13.131,-0.06634,-4.0201,0.93333,-5.9187,-6.732,5.9837
-5.9406,11.044,3.8667,0.9901,-1.0356,7.1478,-5.0761,3.8562,2.0202,0.9901,-1.0356,4.902,-0.90177,8.9327,-8.0808,5.9038,2.0101,12.933,12.618,-8.6928,6.9593
6.9307,12.054,5.8667,-3.9604,-2.9773,4.055,-6.0914,-3.0065,1.0101,-3.9604,-2.9773,3.9216,6.8277,11.888,2.0202,6.8988,6.0302,4.9333,13.593,-0.84967,2.0813
16.832001,17.104,10.867,-0.9901,-4.9191,7.1478,3.0457,2.8758,5.0505,-0.9901,-4.9191,10.784,10.692,11.888,10.101,9.8839,10.05,5.9333,9.6911,6.9935,9.8862
19.802,14.074,12.867,-2.9703,-3.9482,8.1787,7.1066,4.8366,0.0,-2.9703,-3.9482,11.765,10.692,8.9327,13.131,6.8988,9.0452,12.933,-1.0407,18.757999,8.9106
23.761999,13.064,17.867001,0.0,-0.06472,11.271,10.152,6.7974,-1.0101,0.0,-0.06472,15.686,12.625,8.9327,15.152,5.9038,11.055,20.933001,6.7642,17.778,10.862
25.743,15.084,19.867001,0.0,-5.89,13.333,12.183,5.817,-2.0202,0.0,-5.89,16.667,12.625,11.888,15.152,9.8839,13.065,13.933,8.7154,11.895,10.862
27.723,16.094,21.867001,0.9901,-7.8317,15.395,12.183,8.7582,-3.0303,0.9901,-7.8317,16.667,15.523,14.844,22.222,15.854,18.09,-8.0667,14.569,19.739,13.789
18.812,8.0135,13.867,0.0,-6.8608,12.302,8.1218,8.7582,0.0,0.0,-6.8608,10.784,15.523,12.874,19.191999,17.844,18.09,7.9333,4.813,18.757999,20.618
-2.9703,-7.138,-5.1333,-5.9406,-5.89,-3.1615,-7.1066,0.91503,0.0,-5.9406,-5.89,-5.8824,9.7262,7.9475,6.0606,8.8889,6.0302,19.933001,-5.9187,6.9935,6.9593
-8.9109,-11.178,-14.133,-10.891,-5.89,-8.3162,-21.32,-1.0458,-4.0404,-10.891,-5.89,-15.686,5.8615,4.0066,-1.0101,0.92869,-3.0151,3.9333,-3.9675,2.0915,3.0569
-3.9604,-4.1077,-12.133,-10.891,-13.657,-8.3162,-21.32,-1.0458,-8.0808,-10.891,-13.657,-15.686,6.8277,5.977,-1.0101,-1.0614,-4.0201,4.9333,0.91057,3.0719,3.0569
-1.9802,-0.06734,-11.133,-11.881,-15.599,-9.3471,-17.259001,-3.9869,-11.111,-11.881,-15.599,-14.706,6.8277,7.9475,-1.0101,-0.06634,-3.0151,1.9333,7.7398,2.0915,5.9837
8.9109,7.0034,-3.1333,-7.9208,-13.657,-3.1615,-9.1371,0.91503,-1.0101,-7.9208,-13.657,-6.8627,12.625,15.829,7.0707,6.8988,6.0302,18.933001,16.52,9.9346,14.764
17.822001,14.074,6.8667,-1.9802,-10.744,3.0241,0.0,7.7778,5.0505,-1.9802,-10.744,0.0,17.455999,24.695999,13.131,14.859,14.07,27.933001,16.52,9.9346,21.593
10.891,7.0034,4.8667,-5.9406,-10.744,-1.0997,1.0152,5.817,-2.0202,-5.9406,-10.744,-2.9412,6.8277,7.9475,7.0707,6.8988,9.0452,-0.06667,24.325001,-0.84967,5.9837
10.891,3.9731,3.8667,-4.9505,-6.8608,0.9622,6.0914,3.8562,-1.0101,-4.9505,-6.8608,0.98039,6.8277,9.9179,5.0505,4.9088,7.0352,-7.0667,6.7642,0.13072,1.1057
8.9109,2.963,5.8667,-1.9802,-3.9482,4.055,4.0609,7.7778,-1.0101,-1.9802,-3.9482,3.9216,4.8953,2.0361,3.0303,1.9237,6.0302,-13.067,-16.65,2.0915,0.13008
-0.9901,-7.138,-3.1333,-8.9109,-8.8026,-5.2234,-10.152,-3.9869,-10.101,-8.9109,-8.8026,-6.8627,-8.6312,-17.667999,-6.0606,-8.0265,-3.0151,-3.0667,-19.577,-1.8301,-10.602
-8.9109,-10.168,-9.1333,-9.901,-11.715,-10.378,-13.198,-7.9085,-11.111,-9.901,-11.715,-10.784,-3.8003,-8.8013,-4.0404,-5.0415,-2.0101,-0.06667,-1.0407,-0.84967,-5.7236
-13.861,-8.1481,-12.133,-5.9406,-11.715,-8.3162,-4.0609,-0.06536,-9.0909,-5.9406,-11.715,-8.8235,2.963,1.0509,-2.0202,1.9237,2.0101,-0.06667,13.593,2.0915,2.0813
-18.812,-12.189,-16.132999,-5.9406,-6.8608,-9.3471,-6.0914,0.91503,-7.0707,-5.9406,-6.8608,-11.765,1.0306,-1.9048,-5.0505,0.92869,1.005,5.9333,2.8618,-0.84967,-2.7967
-13.861,-17.239,-16.132999,-7.9208,-4.9191,-9.3471,-12.183,1.8954,-6.0606,-7.9208,-4.9191,-14.706,-0.90177,-0.91954,-4.0404,-4.0464,-1.005,14.933,-5.9187,-1.8301,-5.7236
-0.9901,-14.209,-14.133,-11.881,-5.89,-9.3471,-13.198,0.91503,-6.0606,-11.881,-5.89,-13.725,4.8953,4.0066,2.0202,-5.0415,0.0,-8.0667,-11.772,3.0719,-2.7967
3.9604,-5.1178,-10.133,-12.871,-13.657,-11.409,-13.198,-3.0065,-10.101,-12.871,-13.657,-11.765,9.7262,9.9179,7.0707,-1.0614,3.0151,-15.067,-6.8943,7.9739,5.0081
6.9307,1.9529,-5.1333,-6.9307,-10.744,-7.2852,-6.0914,-0.06536,-10.101,-6.9307,-10.744,-6.8627,8.7601,9.9179,9.0909,3.9138,6.0302,0.93333,10.667,3.0719,7.935
6.9307,2.963,-0.13333,-4.9505,-7.8317,-4.1924,-5.0761,0.91503,-6.0606,-4.9505,-7.8317,-1.9608,6.8277,7.9475,7.0707,3.9138,5.0251,-12.067,4.813,2.0915,2.0813
7.9208,-0.06734,4.8667,-6.9307,-4.9191,-3.1615,-3.0457,-3.9869,-1.0101,-6.9307,-4.9191,1.9608,1.9968,0.06568,2.0202,-0.06634,4.0201,-0.06667,-5.9187,-1.8301,-2.7967
9.901,4.9832,13.867,-4.9505,1.877,0.9622,4.0609,-3.0065,-2.0202,-4.9505,1.877,8.8235,1.0306,-1.9048,1.0101,1.9237,8.0402,11.933,-9.8211,-6.732,-2.7967
11.881,12.054,20.867001,0.9901,2.8479,8.1787,11.168,4.8366,-1.0101,0.9901,2.8479,15.686,5.8615,3.0213,8.0808,5.9038,14.07,2.9333,-5.9187,1.1111,-6.6992
0.0,4.9832,11.867,-2.9703,-4.9191,3.0241,9.1371,-0.06536,-1.0101,-2.9703,-4.9191,9.8039,0.06441,-4.8604,0.0,-1.0614,5.0251,-1.0667,-2.9919,1.1111,-9.626
-16.832001,-6.1279,-2.1333,-7.9208,-9.7735,-5.2234,1.0152,-6.9281,-6.0606,-7.9208,-9.7735,-0.98039,-10.564,-10.772,-15.152,-9.0216,-8.0402,-7.0667,-7.8699,-11.634,-11.577
-21.782,-5.1178,-4.1333,-6.9307,-7.8317,-10.378,-5.0761,-7.9085,-8.0808,-6.9307,-7.8317,-3.9216,-12.496,-5.8456,-18.181999,-6.0365,-7.0352,-9.0667,8.7154,-14.575,-1.8211
-20.792,1.9529,-3.1333,-4.9505,-2.9773,-7.2852,-7.1066,-3.9869,-7.0707,-4.9505,-2.9773,-2.9412,-7.6651,-4.8604,-14.141,-2.0564,-3.0151,-16.066999,4.813,-11.634,1.1057
-6.9307,0.94276,-4.1333,-3.9604,-2.9773,-3.1615,-10.152,2.8758,-6.0606,-3.9604,-2.9773,-4.902,1.9968,4.9918,-4.0404,2.9187,2.0101,-3.0667,-11.772,-4.7712,5.0081
10.891,-2.0875,-3.1333,-3.9604,-1.0356,-1.0997,-15.228,6.7974,-6.0606,-3.9604,-1.0356,-8.8235,10.692,10.903,10.101,6.8988,9.0452,7.9333,-15.675,5.0327,5.0081
17.822001,-3.0976,-2.1333,-0.9901,0.90615,-0.06873,-13.198,6.7974,-6.0606,-0.9901,0.90615,-6.8627,13.591,10.903,18.181999,6.8988,12.06,-5.0667,-7.8699,10.915,2.0813
6.9307,-9.1582,-9.1333,-5.9406,-8.8026,-6.2543,-9.1371,-0.06536,-8.0808,-5.9406,-8.8026,-8.8235,4.8953,3.0213,5.0505,-3.0514,1.005,-5.0667,-0.06504,-1.8301,-3.7724
1.9802,-9.1582,-10.133,-4.9505,-6.8608,-4.1924,-5.0761,-3.9869,-5.0505,-4.9505,-6.8608,-4.902,-2.8341,-2.89,-3.0303,-9.0216,-7.0352,-14.067,-0.06504,-3.7908,-3.7724
10.891,-1.0774,2.8667,2.9703,0.90615,7.1478,10.152,0.91503,1.0101,2.9703,0.90615,7.8431,-8.6312,-7.8161,0.0,-8.0265,-4.0201,-9.0667,4.813,0.13072,-7.6748
17.822001,4.9832,15.867,5.9406,5.7605,12.302,18.274,5.817,1.0101,5.9406,5.7605,13.725,-5.7327,-0.91954,7.0707,-1.0614,6.0302,13.933,-9.8211,2.0915,-8.6504
9.901,-1.0774,14.867,4.9505,11.586,6.1168,9.1371,4.8366,-2.0202,4.9505,11.586,9.8039,-2.8341,-2.89,6.0606,-0.06634,8.0402,9.9333,-19.577,-1.8301,-9.626
-3.9604,-3.0976,7.8667,6.9307,12.557,4.055,3.0457,3.8562,3.0303,6.9307,12.557,5.8824,-4.7665,-8.8013,2.0202,-2.0564,5.0251,8.9333,3.8374,-5.7516,-11.577
-11.881,5.9933,5.8667,9.901,10.615,4.055,8.1218,4.8366,7.0707,9.901,10.615,8.8235,-4.7665,-7.8161,-3.0303,1.9237,3.0151,-1.0667,11.642,-7.7124,-6.6992
-17.822001,11.044,2.8667,4.9505,4.7896,0.9622,6.0914,-0.06536,2.0202,4.9505,4.7896,6.8627,-1.868,2.0361,-8.0808,5.9038,1.005,-19.066999,7.7398,-9.6732,6.9593
-14.851,10.034,-1.1333,-0.9901,1.877,-5.2234,2.0305,-4.9673,-1.0101,-0.9901,1.877,0.0,0.06441,3.0213,-7.0707,5.9038,1.005,-15.067,14.569,-4.7712,4.0325
-0.9901,12.054,-1.1333,1.9802,3.8188,-4.1924,7.1066,-5.9477,6.0606,1.9802,3.8188,0.0,5.8615,5.977,2.0202,7.8939,6.0302,-18.066999,3.8374,3.0719,4.0325
13.861,12.054,3.8667,9.901,8.6731,4.055,9.1371,1.8954,7.0707,9.901,8.6731,6.8627,4.8953,7.9475,9.0909,9.8839,10.05,5.9333,-14.699,5.0327,6.9593
26.733,13.064,11.867,15.842,15.469,14.364,9.1371,9.7386,5.0505,15.842,15.469,15.686,9.7262,13.859,17.172001,12.869,16.08,18.933001,-5.9187,10.915,4.0325
25.743,8.0135,11.867,10.891,10.615,15.395,9.1371,8.7582,2.0202,10.891,10.615,14.706,4.8953,4.9918,17.172001,4.9088,13.065,8.9333,-3.9675,6.9935,-0.84553
25.743,7.0034,13.867,8.9109,10.615,15.395,13.198,8.7582,5.0505,8.9109,10.615,16.667,0.06441,-4.8604,14.141,-0.06634,9.0452,18.933001,-2.0163,4.0523,-6.6992
23.761999,7.0034,17.867001,10.891,10.615,16.426001,18.274,14.641,8.0808,10.891,10.615,18.627001,3.9291,-3.8752,13.131,-0.06634,10.05,2.9333,1.8862,4.0523,-2.7967
21.782,3.9731,19.867001,10.891,11.586,16.426001,15.228,11.699,4.0404,10.891,11.586,16.667,15.523,8.9327,18.181999,5.9038,17.084999,0.93333,2.8618,11.895,2.0813
7.9208,-7.138,7.8667,5.9406,8.6731,7.1478,1.0152,5.817,-1.0101,5.9406,8.6731,4.902,15.523,10.903,16.162001,5.9038,13.065,8.9333,4.813,14.837,0.13008
-7.9208,-7.138,-2.1333,0.0,2.8479,-4.1924,-3.0457,-3.9869,-2.0202,0.0,2.8479,-2.9412,6.8277,9.9179,7.0707,4.9088,7.0352,6.9333,-3.9675,8.9542,5.0081
-8.9109,5.9933,0.86667,3.9604,4.7896,-2.1306,6.0914,-3.0065,2.0202,3.9604,4.7896,0.98039,3.9291,2.0361,5.0505,7.8939,7.0352,-9.0667,-2.9919,3.0719,8.9106
3.9604,23.165001,13.867,10.891,11.586,8.1787,13.198,1.8954,8.0808,10.891,11.586,11.765,10.692,8.9327,14.141,17.844,17.084999,-11.067,1.8862,5.0327,11.837
15.842,31.246,23.867001,12.871,19.353001,12.302,12.183,1.8954,9.0909,12.871,19.353001,15.686,20.354,20.754999,22.222,23.813999,26.131001,3.9333,13.593,8.9542,12.813
23.761999,28.215,23.867001,10.891,21.294001,9.2096,9.1371,1.8954,6.0606,10.891,21.294001,12.745,22.287001,17.799999,27.273001,22.819,28.141001,8.9333,15.545,15.817,12.813
30.693001,27.205,22.867001,9.901,16.440001,8.1787,11.168,7.7778,4.0404,9.901,16.440001,11.765,22.287001,14.844,32.323002,21.823999,28.141001,17.933001,15.545,24.641001,11.837
26.733,23.165001,17.867001,2.9703,5.7605,4.055,13.198,1.8954,1.0101,2.9703,5.7605,9.8039,15.523,8.9327,25.253,14.859,22.111,13.933,17.496,19.739,8.9106
25.743,19.125,18.867001,3.9604,-0.06472,7.1478,14.213,6.7974,7.0707,3.9604,-0.06472,10.784,14.557,9.9179,21.212,10.879,19.094999,10.933,9.6911,16.797001,6.9593
19.802,7.0034,15.867,3.9604,0.90615,8.1787,12.183,4.8366,6.0606,3.9604,0.90615,10.784,10.692,5.977,11.111,1.9237,10.05,3.9333,-5.9187,10.915,-2.7967
8.9109,-3.0976,9.8667,5.9406,13.528,6.1168,5.0761,3.8562,2.0202,5.9406,13.528,7.8431,1.9968,-0.91954,0.0,-7.0315,1.005,8.9333,-15.675,0.13072,-7.6748
5.9406,-9.1582,7.8667,8.9109,18.382,4.055,-2.0305,4.8366,1.0101,8.9109,18.382,6.8627,-2.8341,-5.8456,-1.0101,-8.0265,0.0,-7.0667,-29.333,-9.6732,-12.553
5.9406,-5.1178,12.867,11.881,15.469,7.1478,3.0457,5.817,4.0404,11.881,15.469,10.784,5.8615,2.0361,6.0606,1.9237,9.0452,-8.0667,-18.601999,-3.7908,-6.6992
-6.9307,-3.0976,7.8667,12.871,15.469,7.1478,5.0761,1.8954,5.0505,12.871,15.469,8.8235,2.963,4.9918,2.0202,3.9138,8.0402,-15.067,-5.9187,-3.7908,-7.6748
-16.832001,1.9529,4.8667,13.861,16.440001,6.1168,12.183,-4.9673,5.0505,13.861,16.440001,10.784,-3.8003,3.0213,-8.0808,3.9138,2.0101,-24.066999,1.8862,-9.6732,-5.7236
-6.9307,18.114,12.867,16.832001,24.207001,10.241,20.305,-4.9673,11.111,16.832001,24.207001,17.646999,-0.90177,6.9622,-3.0303,12.869,9.0452,-6.0667,14.569,-8.6928,2.0813
10.891,32.256001,19.867001,18.812,22.264999,13.333,21.32,-2.0261,14.141,18.812,22.264999,20.587999,9.7262,8.9327,11.111,23.813999,20.101,1.9333,29.202999,2.0915,10.862
24.752001,34.276001,20.867001,16.832001,17.410999,13.333,22.334999,1.8954,15.152,16.832001,17.410999,19.608,16.49,16.813999,22.222,27.794001,26.131001,7.9333,14.569,11.895,17.691
27.723,25.184999,14.867,13.861,15.469,12.302,20.305,4.8366,13.131,13.861,15.469,15.686,14.557,13.859,22.222,21.823999,22.111,19.933001,-0.06504,18.757999,11.837
27.723,18.114,15.867,14.851,20.323999,13.333,17.259001,7.7778,11.111,14.851,20.323999,15.686,7.7939,5.977,19.191999,14.859,19.094999,14.933,-0.06504,14.837,11.837
26.733,18.114,20.867001,16.832001,21.294001,14.364,17.259001,5.817,11.111,16.832001,21.294001,18.627001,4.8953,10.903,16.162001,13.864,19.094999,-16.066999,7.7398,8.9542,8.9106
22.771999,17.104,22.867001,19.802,17.410999,17.457001,17.259001,4.8366,10.101,19.802,17.410999,20.587999,4.8953,5.977,14.141,9.8839,18.09,-12.067,14.569,0.13072,-3.7724
18.812,13.064,19.867001,16.832001,11.586,13.333,18.274,3.8562,5.0505,16.832001,11.586,17.646999,10.692,3.0213,16.162001,7.8939,18.09,19.933001,-2.9919,3.0719,-4.748
16.832001,4.9832,16.867001,12.871,12.557,7.1478,15.228,5.817,2.0202,12.871,12.557,12.745,16.49,6.9622,20.202,6.8988,18.09,10.933,-19.577,15.817,-0.84553
7.9208,-3.0976,7.8667,7.9208,16.440001,-1.0997,3.0457,1.8954,3.0303,7.9208,16.440001,2.9412,15.523,10.903,16.162001,5.9038,14.07,9.9333,-24.455,18.757999,0.13008
-13.861,-5.1178,-2.1333,2.9703,11.586,-10.378,-7.1066,-4.9673,4.0404,2.9703,11.586,-6.8627,9.7262,9.9179,1.0101,2.9187,5.0251,-4.0667,-7.8699,7.9739,-0.84553
-23.761999,2.963,-2.1333,4.9505,2.8479,-5.2234,-3.0457,-5.9477,-1.0101,4.9505,2.8479,-2.9412,1.0306,6.9622,-10.101,1.9237,0.0,-6.0667,-1.0407,-2.8105,2.0813
-21.782,11.044,0.86667,7.9208,5.7605,-3.1615,2.0305,-5.9477,0.0,7.9208,5.7605,1.9608,-4.7665,4.9918,-13.131,5.9038,0.0,-9.0667,-4.9431,-9.6732,6.9593
-8.9109,13.064,0.86667,4.9505,13.528,-4.1924,4.0609,-5.9477,6.0606,4.9505,13.528,0.98039,0.06441,5.977,-4.0404,8.8889,5.0251,-30.066999,5.7886,-4.7712,9.8862
2.9703,17.104,4.8667,8.9109,18.382,-3.1615,6.0914,-3.0065,12.121,8.9109,18.382,3.9216,10.692,11.888,8.0808,13.864,12.06,-15.067,20.423,6.9935,15.74
10.891,15.084,6.8667,11.881,19.353001,-1.0997,2.0305,-3.9869,9.0909,11.881,19.353001,4.902,12.625,11.888,11.111,12.869,15.075,-1.0667,10.667,6.0131,9.8862
15.842,14.074,11.867,12.871,16.440001,4.055,10.152,-4.9673,8.0808,12.871,16.440001,9.8039,3.9291,2.0361,11.111,9.8839,14.07,-8.0667,1.8862,-1.8301,0.13008
16.832001,19.125,17.867001,12.871,16.440001,9.2096,21.32,-3.0065,11.111,12.871,16.440001,17.646999,-3.8003,-1.9048,8.0808,8.8889,12.06,-9.0667,-9.8211,-7.7124,-0.84553
17.822001,20.135,22.867001,16.832001,22.264999,15.395,24.365,-1.0458,17.172001,16.832001,22.264999,24.51,-4.7665,0.06568,8.0808,5.9038,10.05,-17.066999,-8.8455,-3.7908,-3.7724
22.771999,15.084,22.867001,16.832001,14.498,16.426001,22.334999,1.8954,14.141,16.832001,14.498,22.549,0.06441,1.0509,11.111,4.9088,10.05,-17.066999,-1.0407,0.13072,3.0569
21.782,12.054,20.867001,14.851,9.644,18.488001,22.334999,9.7386,10.101,14.851,9.644,19.608,10.692,7.9475,14.141,8.8889,13.065,15.933,0.91057,9.9346,10.862
0.0,-0.06734,12.867,8.9109,15.469,10.241,9.1371,4.8366,4.0404,8.9109,15.469,10.784,6.8277,7.9475,2.0202,3.9138,7.0352,10.933,-7.8699,4.0523,0.13008
-11.881,-1.0774,10.867,11.881,23.236,8.1787,5.0761,4.8366,13.131,11.881,23.236,10.784,5.8615,6.9622,-4.0404,2.9187,4.0201,-8.0667,-8.8455,1.1111,-3.7724
-8.9109,-0.06734,6.8667,6.9307,14.498,8.1787,12.183,6.7974,17.172001,6.9307,14.498,10.784,1.9968,-2.89,-5.0505,-1.0614,-1.005,-4.0667,-2.9919,0.13072,-5.7236
1.9802,4.9832,2.8667,4.9505,4.7896,9.2096,17.259001,2.8758,14.141,4.9505,4.7896,9.8039,1.0306,-0.91954,-2.0202,-1.0614,-1.005,-7.0667,-0.06504,-2.8105,-1.8211
10.891,9.0236,0.86667,10.891,6.7314,10.241,12.183,3.8562,8.0808,10.891,6.7314,8.8235,1.0306,5.977,4.0404,3.9138,3.0151,-3.0667,4.813,0.13072,3.0569
16.832001,14.074,3.8667,16.832001,21.294001,11.271,8.1218,4.8366,7.0707,16.832001,21.294001,11.765,0.06441,3.0213,10.101,7.8939,8.0402,-14.067,-5.9187,2.0915,0.13008
19.802,19.125,10.867,15.842,25.177999,13.333,10.152,2.8758,7.0707,15.842,25.177999,14.706,0.06441,-2.89,14.141,10.879,14.07,-10.067,-12.748,1.1111,-4.748
17.822001,24.174999,15.867,17.822001,19.353001,14.364,16.243999,5.817,6.0606,17.822001,19.353001,15.686,2.963,0.06568,13.131,13.864,17.084999,5.9333,-13.724,1.1111,-6.6992
8.9109,15.084,9.8667,15.842,13.528,12.302,14.213,7.7778,5.0505,15.842,13.528,12.745,0.06441,-1.9048,7.0707,9.8839,12.06,7.9333,-11.772,-0.84967,-9.626
0.9901,3.9731,-0.13333,9.901,7.7023,5.0859,8.1218,3.8562,3.0303,9.901,7.7023,5.8824,-5.7327,-5.8456,-1.0101,1.9237,3.0151,-9.0667,-3.9675,-4.7712,-9.626
-3.9604,-4.1077,-7.1333,4.9505,2.8479,-3.1615,-1.0152,-1.0458,2.0202,4.9505,2.8479,-2.9412,-8.6312,-7.8161,-7.0707,-3.0514,-3.0151,-3.0667,6.7642,-8.6928,-0.84553
-7.9208,-7.138,-9.1333,1.9802,0.90615,-9.3471,-5.0761,-3.0065,-2.0202,1.9802,0.90615,-8.8235,-5.7327,-5.8456,-5.0505,-4.0464,-3.0151,-7.0667,10.667,-1.8301,0.13008
-25.743,-9.1582,-11.133,0.0,4.7896,-15.533,-8.1218,-8.8889,-3.0303,0.0,4.7896,-10.784,-5.7327,-3.8752,-9.0909,-3.0514,-6.0302,-19.066999,3.8374,-3.7908,-1.8211
-35.644001,-0.06734,-6.1333,4.9505,10.615,-11.409,1.0152,-5.9477,7.0707,4.9505,10.615,-1.9608,-3.8003,1.0509,-15.152,4.9088,-4.0201,-13.067,3.8374,-8.6928,7.935
-31.683001,4.9832,-1.1333,3.9604,7.7023,-9.3471,6.0914,-10.85,10.101,3.9604,7.7023,0.0,-7.6651,0.06568,-18.181999,6.8988,-3.0151,-33.067001,10.667,-14.575,7.935
-16.832001,10.034,3.8667,1.9802,9.644,-8.3162,7.1066,-15.752,8.0808,1.9802,9.644,0.0,-4.7665,6.9622,-10.101,9.8839,4.0201,-21.066999,4.813,-14.575,6.9593
2.9703,13.064,8.8667,6.9307,15.469,-0.06873,8.1218,-3.0065,10.101,6.9307,15.469,4.902,4.8953,7.9475,8.0808,13.864,14.07,-1.0667,0.91057,-1.8301,5.0081
15.842,10.034,9.8667,6.9307,12.557,3.0241,5.0761,0.91503,6.0606,6.9307,12.557,6.8627,10.692,4.9918,19.191999,12.869,19.094999,-9.0667,-11.772,9.9346,0.13008
18.812,5.9933,9.8667,6.9307,8.6731,1.9931,7.1066,-1.0458,3.0303,6.9307,8.6731,6.8627,5.8615,1.0509,13.131,6.8988,14.07,0.93333,-11.772,6.0131,-3.7724
14.851,3.9731,6.8667,6.9307,9.644,3.0241,7.1066,1.8954,5.0505,6.9307,9.644,4.902,-0.90177,-4.8604,2.0202,-0.06634,5.0251,22.933001,0.91057,-2.8105,-6.6992
8.9109,2.963,1.8667,4.9505,10.615,5.0859,4.0609,5.817,8.0808,4.9505,10.615,2.9412,-3.8003,-5.8456,-4.0404,-3.0514,-3.0151,-2.0667,16.52,-5.7516,-2.7967
8.9109,-1.0774,1.8667,5.9406,12.557,9.2096,5.0761,14.641,14.141,5.9406,12.557,4.902,-2.8341,-3.8752,-2.0202,-3.0514,-3.0151,-7.0667,17.496,-3.7908,2.0813
6.9307,-5.1178,0.86667,2.9703,2.8479,5.0859,6.0914,8.7582,9.0909,2.9703,2.8479,3.9216,1.9968,3.0213,0.0,-3.0514,-1.005,1.9333,5.7886,1.1111,2.0813
6.9307,-4.1077,2.8667,2.9703,2.8479,5.0859,12.183,3.8562,8.0808,2.9703,2.8479,4.902,5.8615,4.0066,5.0505,0.92869,4.0201,21.933001,-0.06504,1.1111,1.1057
-3.9604,-3.0976,1.8667,4.9505,10.615,3.0241,6.0914,2.8758,6.0606,4.9505,10.615,3.9216,1.9968,-1.9048,4.0404,3.9138,6.0302,-12.067,-9.8211,-2.8105,-1.8211
-23.761999,1.9529,-0.13333,4.9505,8.6731,-3.1615,4.0609,-4.9673,2.0202,4.9505,8.6731,1.9608,-1.868,4.0066,-5.0505,8.8889,5.0251,-22.066999,-2.0163,-5.7516,-0.84553
-25.743,9.0236,2.8667,8.9109,10.615,-1.0997,9.1371,-5.9477,6.0606,8.9109,10.615,7.8431,-7.6651,1.0509,-12.121,10.879,3.0151,-27.066999,-7.8699,-13.595,1.1057
-6.9307,15.084,12.867,13.861,18.382,7.1478,13.198,-4.9673,9.0909,13.861,18.382,14.706,-3.8003,0.06568,-4.0404,12.869,8.0402,-27.066999,-15.675,-15.556,6.9593
7.9208,15.084,15.867,12.871,19.353001,9.2096,12.183,-4.9673,7.0707,12.871,19.353001,14.706,1.0306,4.0066,6.0606,12.869,13.065,-10.067,-6.8943,-9.6732,2.0813
17.822001,12.054,16.867001,11.881,14.498,9.2096,11.168,0.91503,9.0909,11.881,14.498,12.745,1.9968,-0.91954,15.152,8.8889,15.075,-3.0667,4.813,0.13072,-7.6748
16.832001,8.0135,12.867,7.9208,7.7023,3.0241,7.1066,1.8954,9.0909,7.9208,7.7023,6.8627,2.963,-0.91954,15.152,5.9038,13.065,5.9333,5.7886,3.0719,-6.6992
10.891,7.0034,8.8667,4.9505,1.877,-2.1306,6.0914,0.91503,6.0606,4.9505,1.877,3.9216,5.8615,4.9918,11.111,5.9038,11.055,4.9333,-3.9675,6.0131,0.13008
5.9406,4.9832,4.8667,0.9901,2.8479,-4.1924,3.0457,-0.06536,5.0505,0.9901,2.8479,0.98039,5.8615,2.0361,7.0707,2.9187,7.0352,-4.0667,1.8862,6.0131,4.0325
-4.9505,-1.0774,-2.1333,-1.9802,2.8479,-7.2852,1.0152,-1.0458,-1.0101,-1.9802,2.8479,-3.9216,-0.90177,-4.8604,-2.0202,-2.0564,-2.0101,8.9333,-5.9187,0.13072,-3.7724
-12.871,-3.0976,-2.1333,-1.9802,2.8479,-8.3162,3.0457,-3.0065,-3.0303,-1.9802,2.8479,-1.9608,1.0306,2.0361,-6.0606,0.92869,-3.0151,-4.0667,-7.8699,-4.7712,-3.7724
-15.842,-0.06734,-0.13333,-0.9901,1.877,-11.409,4.0609,-5.9477,4.0404,-0.9901,1.877,0.0,2.963,9.9179,-6.0606,4.9088,0.0,-20.066999,-4.9431,-3.7908,3.0569
-11.881,2.963,0.86667,-2.9703,0.90615,-15.533,-1.0152,-11.83,8.0808,-2.9703,0.90615,-3.9216,2.963,10.903,-4.0404,8.8889,4.0201,-8.0667,-0.06504,-5.7516,6.9593
-8.9109,5.9933,1.8667,-0.9901,0.90615,-11.409,-2.0305,-11.83,7.0707,-0.9901,0.90615,-2.9412,1.0306,9.9179,-3.0303,11.874,7.0352,-10.067,18.472,-11.634,13.789
0.0,13.064,6.8667,3.9604,6.7314,-3.1615,5.0761,-4.9673,7.0707,3.9604,6.7314,3.9216,2.963,8.9327,0.0,12.869,8.0402,-22.066999,12.618,-7.7124,11.837
4.9505,11.044,6.8667,1.9802,6.7314,-4.1924,5.0761,-5.9477,5.0505,1.9802,6.7314,2.9412,0.06441,-0.91954,0.0,5.9038,3.0151,-24.066999,9.6911,-5.7516,4.0325
6.9307,5.9933,2.8667,1.9802,3.8188,-4.1924,2.0305,-3.0065,5.0505,1.9802,3.8188,0.98039,-4.7665,-5.8456,2.0202,0.92869,-1.005,10.933,-2.9919,-3.7908,0.13008
4.9505,0.94276,-3.1333,2.9703,-0.06472,-3.1615,-1.0152,-0.06536,1.0101,2.9703,-0.06472,-0.98039,-8.6312,-6.8309,1.0101,-2.0564,-4.0201,22.933001,0.91057,0.13072,-0.84553
0.9901,-3.0976,-6.1333,2.9703,-2.0065,-3.1615,0.0,-0.06536,-1.0101,2.9703,-2.0065,-0.98039,-6.6989,-1.9048,-3.0303,-5.0415,-6.0302,4.9333,3.8374,0.13072,-1.8211
2.9703,-1.0774,-3.1333,2.9703,1.877,-0.06873,6.0914,4.8366,4.0404,2.9703,1.877,2.9412,0.06441,4.0066,-1.0101,-2.0564,-3.0151,0.93333,9.6911,2.0915,5.0081
2.9703,-5.1178,-4.1333,0.0,4.7896,-5.2234,2.0305,-2.0261,4.0404,0.0,4.7896,-0.98039,1.9968,3.0213,0.0,-4.0464,-4.0201,2.9333,6.7642,1.1111,-0.84553
0.9901,-8.1481,-7.1333,-3.9604,-0.06472,-10.378,-5.0761,-6.9281,2.0202,-3.9604,-0.06472,-6.8627,-0.90177,-2.89,1.0101,-6.0365,-5.0251,2.9333,4.813,-2.8105,-5.7236
2.9703,0.94276,-2.1333,-2.9703,-2.9773,-6.2543,-3.0457,-2.0261,3.0303,-2.9703,-2.9773,-2.9412,5.8615,4.0066,8.0808,1.9237,3.0151,-6.0667,-4.9431,6.0131,2.0813
-5.9406,-1.0774,-3.1333,-4.9505,-3.9482,-8.3162,-3.0457,-6.9281,-1.0101,-4.9505,-3.9482,-5.8824,8.7601,8.9327,4.0404,2.9187,4.0201,-15.067,-6.8943,2.0915,8.9106
-13.861,-10.168,-8.1333,-6.9307,-5.89,-13.471,-7.1066,-10.85,-4.0404,-6.9307,-5.89,-12.745,1.0306,4.0066,-5.0505,-4.0464,-4.0201,-34.067001,-1.0407,-6.732,2.0813
-10.891,-9.1582,-10.133,-5.9406,-4.9191,-14.502,-7.1066,-7.9085,0.0,-5.9406,-4.9191,-14.706,3.9291,4.0066,-2.0202,-4.0464,-5.0251,-11.067,10.667,-0.84967,4.0325
-6.9307,-7.138,-14.133,-13.861,-10.744,-17.594999,-8.1218,-13.791,-2.0202,-13.861,-10.744,-20.587999,5.8615,6.9622,-1.0101,-3.0514,-5.0251,12.933,12.618,1.1111,8.9106
2.9703,-3.0976,-13.133,-13.861,-14.628,-16.563999,-11.168,-11.83,-3.0303,-13.861,-14.628,-20.587999,8.7601,7.9475,4.0404,1.9237,0.0,9.9333,5.7886,6.9935,7.935
4.9505,-0.06734,-10.133,-9.901,-6.8608,-14.502,-15.228,-4.9673,0.0,-9.901,-6.8608,-19.608,6.8277,4.0066,9.0909,3.9138,3.0151,7.9333,-5.9187,10.915,1.1057
8.9109,0.94276,-7.1333,-1.9802,0.90615,-11.409,-11.168,1.8954,7.0707,-1.9802,0.90615,-14.706,6.8277,1.0509,11.111,3.9138,5.0251,10.933,-11.772,10.915,-1.8211
9.901,-0.06734,-3.1333,0.9901,8.6731,-9.3471,-6.0914,2.8758,9.0909,0.9901,8.6731,-9.8039,8.7601,4.0066,10.101,1.9237,6.0302,6.9333,-6.8943,6.0131,-4.748
7.9208,-1.0774,-1.1333,-2.9703,3.8188,-10.378,-4.0609,-3.0065,8.0808,-2.9703,3.8188,-9.8039,6.8277,1.0509,10.101,-0.06634,5.0251,-29.066999,-2.9919,6.0131,-5.7236
5.9406,-2.0875,-0.13333,-3.9604,-2.9773,-10.378,-1.0152,-2.0261,3.0303,-3.9604,-2.9773,-9.8039,11.659,5.977,13.131,0.92869,5.0251,-7.0667,-0.06504,11.895,1.1057
0.9901,-4.1077,-1.1333,-3.9604,-4.9191,-9.3471,-4.0609,-1.0458,0.0,-3.9604,-4.9191,-8.8235,10.692,11.888,8.0808,0.92869,2.0101,16.933001,-4.9431,7.9739,2.0813
-8.9109,-7.138,-1.1333,-3.9604,-3.9482,-10.378,-6.0914,-3.9869,0.0,-3.9604,-3.9482,-6.8627,2.963,8.9327,-1.0101,-1.0614,-3.0151,0.93333,-5.9187,0.13072,1.1057
-18.812,-9.1582,-3.1333,-1.9802,-0.06472,-9.3471,-4.0609,-10.85,5.0505,-1.9802,-0.06472,-3.9216,-3.8003,3.0213,-12.121,-1.0614,-7.0352,-25.066999,-0.06504,-6.732,1.1057
-22.771999,-5.1178,-5.1333,1.9802,3.8188,-4.1924,6.0914,-7.9085,8.0808,1.9802,3.8188,0.0,-7.6651,-2.89,-15.152,-0.06634,-7.0352,-24.066999,16.52,-8.6928,1.1057
-11.881,3.9731,-2.1333,2.9703,3.8188,0.9622,13.198,-1.0458,9.0909,2.9703,3.8188,3.9216,-0.90177,4.0066,-5.0505,7.8939,1.005,-8.0667,7.7398,-5.7516,13.789
3.9604,9.0236,2.8667,0.0,5.7605,-0.06873,2.0305,1.8954,4.0404,0.0,5.7605,0.98039,8.7601,12.874,7.0707,13.864,9.0452,5.9333,7.7398,4.0523,18.667
17.822001,17.104,10.867,3.9604,10.615,1.9931,1.0152,4.8366,12.121,3.9604,10.615,5.8824,17.455999,22.726,19.191999,18.839001,18.09,-2.0667,19.447001,15.817,21.593
12.871,7.0034,0.86667,0.0,5.7605,-6.2543,-7.1066,-3.9869,7.0707,0.0,5.7605,-3.9216,8.7601,5.977,12.121,4.9088,8.0402,6.9333,-0.06504,8.9542,-1.8211
7.9208,0.94276,-5.1333,-1.9802,-1.0356,-8.3162,-8.1218,-6.9281,1.0101,-1.9802,-1.0356,-8.8235,1.9968,-6.8309,8.0808,-4.0464,0.0,17.933001,-4.9431,3.0719,-12.553
12.871,10.034,2.8667,4.9505,-2.9773,-1.0997,12.183,-3.0065,6.0606,4.9505,-2.9773,1.9608,6.8277,-2.89,12.121,0.92869,3.0151,4.9333,9.6911,6.9935,0.13008
5.9406,5.9933,1.8667,3.9604,2.8479,-2.1306,12.183,-5.9477,2.0202,3.9604,2.8479,4.902,-2.8341,-1.9048,3.0303,-1.0614,-3.0151,1.9333,0.91057,-1.8301,1.1057
0.9901,-1.0774,-1.1333,1.9802,7.7023,-0.06873,4.0609,-6.9281,6.0606,1.9802,7.7023,2.9412,-3.8003,4.9918,-2.0202,-1.0614,-5.0251,-7.0667,-1.0407,-2.8105,-0.84553
2.9703,-0.06734,2.8667,4.9505,4.7896,0.9622,1.0152,-3.9869,9.0909,4.9505,4.7896,4.902,0.06441,9.9179,2.0202,2.9187,-1.005,-15.067,5.7886,5.0327,4.0325
0.9901,2.963,6.8667,6.9307,3.8188,0.9622,3.0457,-0.06536,6.0606,6.9307,3.8188,5.8824,-1.868,2.0361,-1.0101,5.9038,2.0101,-3.0667,-0.06504,4.0523,10.862
-5.9406,0.94276,8.8667,2.9703,-0.06472,1.9931,2.0305,-1.0458,0.0,2.9703,-0.06472,5.8824,-6.6989,-5.8456,-6.0606,1.9237,0.0,-26.066999,-2.9919,-6.732,0.13008
-9.901,-2.0875,6.8667,2.9703,0.90615,3.0241,-1.0152,1.8954,1.0101,2.9703,0.90615,3.9216,-4.7665,-3.8752,-10.101,-0.06634,-1.005,-1.0667,2.8618,-9.6732,3.0569
-9.901,1.9529,3.8667,5.9406,0.90615,4.055,-3.0457,7.7778,7.0707,5.9406,0.90615,0.98039,2.963,2.0361,-6.0606,4.9088,2.0101,8.9333,25.301001,0.13072,13.789
-7.9208,2.963,-5.1333,-0.9901,-5.89,-5.2234,-3.0457,-1.0458,1.0101,-0.9901,-5.89,-7.8431,10.692,9.9179,-1.0101,4.9088,0.0,4.9333,27.252001,7.9739,13.789
-1.9802,0.94276,-12.133,-2.9703,-5.89,-9.3471,-10.152,-3.0065,-3.0303,-2.9703,-5.89,-13.725,15.523,12.874,6.0606,-0.06634,-3.0151,12.933,7.7398,15.817,8.9106
2.9703,-1.0774,-14.133,-4.9505,-2.0065,-9.3471,-18.274,0.91503,-2.0202,-4.9505,-2.0065,-15.686,9.7262,6.9622,9.0909,-4.0464,-5.0251,2.9333,-2.9919,12.876,5.9837
11.881,3.9731,-7.1333,0.9901,1.877,-3.1615,-9.1371,2.8758,2.0202,0.9901,1.877,-6.8627,9.7262,7.9475,13.131,2.9187,2.0101,14.933,0.91057,9.9346,15.74
15.842,7.0034,-1.1333,7.9208,6.7314,4.055,0.0,6.7974,7.0707,7.9208,6.7314,3.9216,12.625,10.903,16.162001,7.8939,7.0352,34.932999,-0.06504,16.797001,16.715
13.861,10.034,1.8667,8.9109,5.7605,8.1787,5.0761,6.7974,8.0808,8.9109,5.7605,8.8235,13.591,13.859,14.141,10.879,9.0452,17.933001,9.6911,17.778,11.837
8.9109,7.0034,1.8667,6.9307,6.7314,13.333,10.152,2.8758,3.0303,6.9307,6.7314,10.784,13.591,18.785,8.0808,8.8889,5.0251,-30.066999,15.545,10.915,6.9593
0.9901,-7.138,-3.1333,5.9406,8.6731,8.1787,5.0761,0.91503,1.0101,5.9406,8.6731,7.8431,-2.8341,-3.8752,-5.0505,-8.0265,-8.0402,-21.066999,-10.797,0.13072,-9.626
-9.901,-19.259001,-8.1333,4.9505,5.7605,3.0241,1.0152,-2.0261,-1.0101,4.9505,5.7605,4.902,-15.395,-22.594,-17.172001,-22.952,-19.094999,-13.067,-22.504,-7.7124,-17.431
-8.9109,-8.1481,-0.13333,7.9208,9.644,10.241,9.1371,2.8758,7.0707,7.9208,9.644,12.745,-1.868,-3.8752,-7.0707,-8.0265,-8.0402,-6.0667,-6.8943,4.0523,7.935
-13.861,-3.0976,-1.1333,5.9406,4.7896,7.1478,10.152,1.8954,11.111,5.9406,4.7896,9.8039,1.9968,1.0509,-4.0404,-1.0614,-4.0201,9.9333,1.8862,5.0327,8.9106
-11.881,-3.0976,-7.1333,3.9604,3.8188,0.9622,2.0305,0.91503,12.121,3.9604,3.8188,0.0,7.7939,4.9918,-1.0101,-0.06634,-3.0151,13.933,19.447001,3.0719,4.0325
3.9604,4.9832,-3.1333,3.9604,5.7605,-0.06873,3.0457,1.8954,11.111,3.9604,5.7605,-0.98039,19.388,21.740999,14.141,10.879,7.0352,-4.0667,25.301001,12.876,17.691
9.901,8.0135,-3.1333,0.9901,1.877,-7.2852,-5.0761,-5.9477,0.0,0.9901,1.877,-5.8824,14.557,12.874,18.181999,11.874,9.0452,0.93333,10.667,19.739,14.764
18.812,13.064,0.86667,0.0,-0.06472,-6.2543,-6.0914,-4.9673,-3.0303,0.0,-0.06472,-4.902,14.557,9.9179,21.212,11.874,12.06,19.933001,9.6911,23.66,10.862
25.743,25.184999,12.867,5.9406,2.8479,3.0241,4.0609,3.8562,9.0909,5.9406,2.8479,5.8824,20.354,14.844,25.253,19.834,20.101,17.933001,17.496,27.582001,14.764
16.832001,20.135,10.867,0.9901,-3.9482,0.9622,4.0609,-0.06536,4.0404,0.9901,-3.9482,3.9216,10.692,10.903,14.141,13.864,11.055,-3.0667,5.7886,14.837,7.935
17.822001,19.125,14.867,5.9406,4.7896,13.333,18.274,3.8562,5.0505,5.9406,4.7896,15.686,10.692,13.859,13.131,9.8839,9.0452,3.9333,3.8374,13.856,12.813
9.901,4.9832,8.8667,7.9208,11.586,14.364,19.289,3.8562,11.111,7.9208,11.586,17.646999,4.8953,0.06568,6.0606,-4.0464,-1.005,15.933,6.7642,10.915,-2.7967
8.9109,1.9529,7.8667,9.901,10.615,13.333,21.32,3.8562,20.202,9.901,10.615,19.608,2.963,-7.8161,4.0404,-11.012,-5.0251,16.933001,3.8374,9.9346,-10.602
12.871,10.034,18.867001,16.832001,8.6731,23.643,31.472,11.699,20.202,16.832001,8.6731,30.392,10.692,4.9918,10.101,-0.06634,6.0302,20.933001,2.8618,13.856,-0.84553
-2.9703,-0.06734,15.867,9.901,8.6731,16.426001,17.259001,0.91503,2.0202,9.901,8.6731,23.528999,6.8277,4.9918,-1.0101,0.92869,3.0151,-7.0667,-6.8943,6.9935,-0.84553
-22.771999,-11.178,6.8667,7.9208,17.410999,6.1168,3.0457,-5.9477,-4.0404,7.9208,17.410999,13.725,-0.90177,1.0509,-13.131,-0.06634,-2.0101,-22.066999,-9.8211,-7.7124,2.0813
-26.733,-18.249001,-3.1333,3.9604,7.7023,-4.1924,-5.0761,-8.8889,-1.0101,3.9604,7.7023,3.9216,-1.868,-2.89,-14.141,-3.0514,-4.0201,-12.067,-10.797,-10.654,-5.7236
-8.9109,-9.1582,-3.1333,1.9802,-1.0356,-5.2234,-1.0152,-3.9869,2.0202,1.9802,-1.0356,0.98039,6.8277,6.9622,0.0,3.9138,3.0151,-2.0667,-0.06504,1.1111,-5.7236
8.9109,1.9529,-0.13333,0.9901,-0.06472,-3.1615,2.0305,-2.0261,5.0505,0.9901,-0.06472,-0.98039,13.591,14.844,13.131,10.879,11.055,-0.06667,4.813,12.876,3.0569
15.842,15.084,5.8667,1.9802,4.7896,-2.1306,5.0761,-1.0458,7.0707,1.9802,4.7896,0.0,15.523,15.829,17.172001,17.844,16.08,16.933001,14.569,15.817,10.862
21.782,30.236,15.867,6.9307,10.615,0.9622,13.198,6.7974,15.152,6.9307,10.615,7.8431,30.016001,29.622,25.253,30.778999,27.136,34.932999,31.153999,22.68,28.423
16.832001,31.246,13.867,0.9901,-2.9773,-2.1306,22.334999,3.8562,8.0808,0.9901,-2.9773,4.902,25.184999,28.636999,20.202,28.789,23.115999,24.933001,39.935001,16.797001,27.447001
6.9307,17.104,4.8667,-7.9208,-6.8608,-4.1924,14.213,-7.9085,2.0202,-7.9208,-6.8608,-0.98039,9.7262,12.874,8.0808,14.859,10.05,3.9333,2.8618,12.876,10.862
5.9406,4.9832,3.8667,-2.9703,2.8479,-1.0997,-1.0152,-3.0065,8.0808,-2.9703,2.8479,0.98039,6.8277,4.9918,7.0707,5.9038,6.0302,-1.0667,-15.675,8.9542,6.9593
4.9505,-4.1077,4.8667,-2.9703,2.8479,-4.1924,-4.0609,-1.0458,8.0808,-2.9703,2.8479,0.98039,5.8615,3.0213,7.0707,-0.06634,4.0201,4.9333,-3.9675,3.0719,5.0081
-0.9901,-4.1077,8.8667,0.9901,0.90615,-2.1306,6.0914,-1.0458,4.0404,0.9901,0.90615,4.902,4.8953,3.0213,3.0303,1.9237,7.0352,-3.0667,-5.9187,0.13072,0.13008
-14.851,-3.0976,9.8667,0.0,-2.9773,-2.1306,7.1066,-3.0065,-5.0505,0.0,-2.9773,3.9216,-0.90177,4.0066,-7.0707,5.9038,7.0352,-5.0667,-7.8699,-11.634,-4.748
-20.792,2.963,8.8667,0.0,-3.9482,-2.1306,0.0,-0.06536,-4.0404,0.0,-3.9482,0.98039,-1.868,0.06568,-8.0808,8.8889,8.0402,-19.066999,-1.0407,-8.6928,-2.7967
-9.901,10.034,8.8667,0.9901,-1.0356,-2.1306,0.0,-3.0065,3.0303,0.9901,-1.0356,-0.98039,3.9291,6.9622,2.0202,13.864,12.06,-0.06667,24.325001,2.0915,7.935
-4.9505,1.9529,-1.1333,-8.9109,-9.7735,-12.44,-7.1066,-16.732,-8.0808,-8.9109,-9.7735,-11.765,2.963,7.9475,3.0303,9.8839,8.0402,-0.06667,10.667,-2.8105,5.9837
8.9109,3.9731,2.8667,-8.9109,-4.9191,-10.378,-9.1371,-11.83,-4.0404,-8.9109,-4.9191,-9.8039,15.523,19.77,16.162001,16.849001,16.08,3.9333,2.8618,8.9542,18.667
12.871,5.9933,4.8667,-10.891,-2.9773,-13.471,-11.168,-12.81,-1.0101,-10.891,-2.9773,-9.8039,14.557,17.799999,17.172001,15.854,16.08,6.9333,2.8618,11.895,9.8862
6.9307,4.9832,2.8667,-12.871,-9.7735,-15.533,-8.1218,-16.732,-5.0505,-12.871,-9.7735,-9.8039,5.8615,7.9475,10.101,9.8839,9.0452,5.9333,-2.0163,6.9935,0.13008
8.9109,10.034,6.8667,-6.9307,-7.8317,-7.2852,5.0761,-9.8693,-1.0101,-6.9307,-7.8317,-0.98039,4.8953,5.977,10.101,10.879,10.05,-2.0667,16.52,12.876,7.935
3.9604,7.0034,4.8667,-7.9208,-4.9191,-3.1615,1.0152,-9.8693,-8.0808,-7.9208,-4.9191,0.0,-1.868,2.0361,2.0202,5.9038,5.0251,-6.0667,8.7154,4.0523,4.0325
4.9505,-1.0774,2.8667,-5.9406,-2.0065,0.9622,-3.0457,-7.9085,-10.101,-5.9406,-2.0065,1.9608,-3.8003,1.0509,1.0101,0.92869,2.0101,-8.0667,-21.528,-2.8105,-0.84553
4.9505,-5.1178,5.8667,-0.9901,-0.06472,4.055,5.0761,-6.9281,-2.0202,-0.9901,-0.06472,6.8627,-2.8341,-2.89,5.0505,-1.0614,4.0201,7.9333,-23.48,0.13072,-5.7236
-2.9703,-6.1279,8.8667,-0.9901,-3.9482,3.0241,9.1371,-7.9085,-5.0505,-0.9901,-3.9482,8.8235,-4.7665,-5.8456,-2.0202,-4.0464,2.0101,-18.066999,-17.625999,-6.732,-14.504
-13.861,-5.1178,13.867,1.9802,-1.0356,7.1478,9.1371,-6.9281,-10.101,1.9802,-1.0356,12.745,-4.7665,-3.8752,-7.0707,-2.0564,4.0201,-24.066999,-13.724,-9.6732,-11.577
-26.733,-10.168,4.8667,-3.9604,-2.0065,-3.1615,-7.1066,-14.771,-15.152,-3.9604,-2.0065,1.9608,-6.6989,-6.8309,-10.101,-5.0415,0.0,-13.067,-11.772,-12.614,-10.602
-20.792,-11.178,-5.1333,-8.9109,-7.8317,-11.409,-12.183,-14.771,-9.0909,-8.9109,-7.8317,-5.8824,-4.7665,-13.727,-5.0505,-7.0315,-3.0151,-4.0667,9.6911,-5.7516,-9.626
-7.9208,-11.178,-11.133,-13.861,-17.540001,-15.533,-14.213,-13.791,-9.0909,-13.861,-17.540001,-10.784,-3.8003,-15.698,0.0,-9.0216,-5.0251,5.9333,1.8862,6.0131,-0.84553
2.9703,-8.1481,-10.133,-16.832001,-17.540001,-16.563999,-19.289,-10.85,-12.121,-16.832001,-17.540001,-15.686,4.8953,-2.89,6.0606,-4.0464,-3.0151,5.9333,-2.9919,10.915,1.1057
7.9208,-3.0976,-7.1333,-15.842,-14.628,-14.502,-17.259001,-7.9085,-10.101,-15.842,-14.628,-14.706,11.659,7.9475,11.111,2.9187,4.0201,6.9333,-0.06504,10.915,-3.7724
4.9505,2.963,-8.1333,-13.861,-14.628,-13.471,-10.152,-8.8889,-11.111,-13.861,-14.628,-10.784,4.8953,2.0361,8.0808,4.9088,3.0151,10.933,11.642,6.9935,-4.748
0.9901,3.9731,-9.1333,-17.822001,-17.540001,-14.502,-3.0457,-13.791,-10.101,-17.822001,-17.540001,-9.8039,-1.868,-2.89,1.0101,3.9138,-2.0101,6.9333,7.7398,1.1111,-0.84553
-4.9505,-2.0875,-9.1333,-19.802,-16.57,-16.563999,-8.1218,-14.771,-8.0808,-19.802,-16.57,-12.745,-4.7665,-3.8752,-4.0404,-1.0614,-5.0251,-15.067,-19.577,-5.7516,-1.8211
-3.9604,-7.138,-8.1333,-14.851,-8.8026,-16.563999,-13.198,-10.85,-4.0404,-14.851,-8.8026,-13.725,-0.90177,0.06568,0.0,-1.0614,-2.0101,-25.066999,-20.552999,0.13072,-1.8211
-1.9802,-9.1582,-4.1333,-9.901,-10.744,-13.471,-7.1066,-6.9281,-7.0707,-9.901,-10.744,-10.784,1.0306,3.0213,5.0505,-0.06634,3.0151,-7.0667,-15.675,4.0523,-0.84553
-8.9109,-10.168,-1.1333,-12.871,-16.57,-14.502,-13.198,-13.791,-16.162001,-12.871,-16.57,-12.745,5.8615,4.9918,5.0505,-1.0614,5.0251,2.9333,-19.577,2.0915,-6.6992
-14.851,-6.1279,4.8667,-17.822001,-13.657,-13.471,-14.213,-13.791,-14.141,-17.822001,-13.657,-10.784,5.8615,8.9327,2.0202,4.9088,10.05,-14.067,-6.8943,-2.8105,-2.7967
-15.842,-4.1077,4.8667,-12.871,-10.744,-11.409,-12.183,-12.81,-6.0606,-12.871,-10.744,-8.8235,0.06441,1.0509,-3.0303,6.8988,8.0402,-1.0667,9.6911,-5.7516,5.9837
-12.871,-8.1481,-3.1333,-7.9208,-9.7735,-11.409,-14.213,-13.791,-4.0404,-7.9208,-9.7735,-12.745,-5.7327,-11.757,-6.0606,0.92869,2.0101,-5.0667,17.496,-7.7124,-0.84553
-3.9604,-13.199,-9.1333,-8.9109,-9.7735,-11.409,-17.259001,-10.85,-6.0606,-8.9109,-9.7735,-15.686,-7.6651,-9.7865,-5.0505,-4.0464,-3.0151,-7.0667,5.7886,-6.732,-5.7236
4.9505,-5.1178,-7.1333,-8.9109,-8.8026,-7.2852,-14.213,-7.9085,-7.0707,-8.9109,-8.8026,-11.765,-3.8003,-3.8752,1.0101,-2.0564,-3.0151,-2.0667,18.472,1.1111,2.0813
13.861,8.0135,0.86667,-5.9406,-6.8608,1.9931,-3.0457,-1.0458,-8.0808,-5.9406,-6.8608,-0.98039,3.9291,5.977,6.0606,4.9088,1.005,9.9333,1.8862,0.13072,7.935
9.901,4.9832,-0.13333,-6.9307,-7.8317,0.9622,-6.0914,-1.0458,-10.101,-6.9307,-7.8317,-2.9412,1.9968,8.9327,3.0303,6.8988,2.0101,2.9333,-19.577,-4.7712,5.0081
3.9604,0.94276,-3.1333,-9.901,-9.7735,-2.1306,-12.183,-3.9869,-11.111,-9.901,-9.7735,-5.8824,1.9968,6.9622,1.0101,6.8988,1.005,-11.067,-12.748,-4.7712,2.0813
4.9505,1.9529,-0.13333,-7.9208,-14.628,0.9622,-5.0761,-3.9869,-9.0909,-7.9208,-14.628,-0.98039,5.8615,6.9622,4.0404,6.8988,3.0151,-6.0667,-6.8943,0.13072,0.13008
2.9703,1.9529,1.8667,-4.9505,-15.599,1.9931,8.1218,0.91503,-11.111,-4.9505,-15.599,2.9412,-0.90177,-0.91954,4.0404,0.92869,2.0101,19.933001,-6.8943,0.13072,-2.7967
-0.9901,0.94276,5.8667,-3.9604,-8.8026,3.0241,7.1066,-0.06536,-11.111,-3.9604,-8.8026,2.9412,-5.7327,-2.89,4.0404,-3.0514,2.0101,2.9333,-10.797,-1.8301,-2.7967
-2.9703,-6.1279,4.8667,-6.9307,-1.0356,0.9622,-9.1371,-3.0065,-6.0606,-6.9307,-1.0356,-2.9412,-1.868,2.0361,6.0606,-1.0614,4.0201,-5.0667,-7.8699,3.0719,-0.84553
-6.9307,-20.268999,-8.1333,-12.871,-10.744,-6.2543,-21.32,-7.9085,-8.0808,-12.871,-10.744,-13.725,-1.868,-3.8752,1.0101,-8.0265,-3.0151,-3.0667,-4.9431,9.9346,-7.6748
3.9604,-12.189,-8.1333,-13.861,-15.599,-4.1924,-14.213,-5.9477,-7.0707,-13.861,-15.599,-12.745,6.8277,0.06568,7.0707,-2.0564,0.0,14.933,12.618,13.856,4.0325
5.9406,-11.178,-11.133,-14.851,-14.628,-8.3162,-16.243999,-3.0065,-8.0808,-14.851,-14.628,-17.646999,6.8277,1.0509,5.0505,-1.0614,-1.005,8.9333,2.8618,5.0327,8.9106
2.9703,-15.219,-12.133,-14.851,-10.744,-11.409,-23.35,-5.9477,-13.131,-14.851,-10.744,-22.549,1.9968,5.977,0.0,-6.0365,-4.0201,-6.0667,-17.625999,-5.7516,-3.7724
12.871,-3.0976,-0.13333,-3.9604,-2.0065,0.9622,-11.168,-0.06536,-6.0606,-3.9604,-2.0065,-6.8627,-3.8003,1.0509,1.0101,-3.0514,-3.0151,-2.0667,-6.8943,-5.7516,-4.748
11.881,7.0034,3.8667,0.9901,-1.0356,6.1168,6.0914,2.8758,-1.0101,0.9901,-1.0356,6.8627,-16.361,-14.713,-5.0505,-5.0415,-10.05,-7.0667,2.8618,-8.6928,-5.7236
3.9604,15.084,1.8667,0.9901,1.877,7.1478,13.198,6.7974,1.0101,0.9901,1.877,8.8235,-14.428,-10.772,-9.0909,-3.0514,-13.065,11.933,5.7886,-7.7124,1.1057
0.0,16.094,1.8667,0.9901,2.8479,7.1478,10.152,10.719,6.0606,0.9901,2.8479,7.8431,-8.6312,0.06568,-9.0909,2.9187,-9.0452,10.933,-6.8943,-6.732,3.0569
-3.9604,9.0236,1.8667,-0.9901,1.877,3.0241,0.0,5.817,4.0404,-0.9901,1.877,3.9216,-5.7327,3.0213,-9.0909,2.9187,-6.0302,-13.067,-9.8211,-8.6928,0.13008
-14.851,-5.1178,-4.1333,-5.9406,-7.8317,-5.2234,-5.0761,-4.9673,-5.0505,-5.9406,-7.8317,-1.9608,-6.6989,0.06568,-16.162001,-6.0365,-11.055,1.9333,-7.8699,-15.556,-3.7724
-18.812,-11.178,-5.1333,-1.9802,-1.0356,-3.1615,-3.0457,-3.9869,-3.0303,-1.9802,-1.0356,0.0,-4.7665,2.0361,-15.152,-9.0216,-11.055,-9.0667,8.7154,-12.614,-5.7236
-9.901,-12.189,1.8667,0.9901,-2.0065,5.0859,2.0305,-0.06536,0.0,0.9901,-2.0065,5.8824,-3.8003,0.06568,-7.0707,-10.017,-6.0302,1.9333,18.472,-1.8301,-7.6748
-7.9208,-21.278999,-4.1333,-9.901,-12.686,0.9622,-6.0914,-4.9673,-9.0909,-9.901,-12.686,-1.9608,-18.292999,-20.624001,-12.121,-20.962,-13.065,-1.0667,-20.552999,-13.595,-14.504
-1.9802,-24.309999,-10.133,-8.9109,-3.9482,-5.2234,-16.243999,-4.9673,-8.0808,-8.9109,-3.9482,-10.784,-20.225,-27.521,-12.121,-25.937,-17.084999,-10.067,-34.210999,-16.535999,-19.382
8.9109,-20.268999,-12.133,-2.9703,1.877,-2.1306,-22.334999,5.817,-6.0606,-2.9703,1.877,-13.725,-11.53,-20.624001,-6.0606,-22.952,-16.08,-22.066999,-14.699,-7.7124,-20.358
3.9604,-21.278999,-19.132999,-5.9406,-9.7735,-2.1306,-24.365,4.8366,-13.131,-5.9406,-9.7735,-17.646999,-14.428,-21.608999,-12.121,-26.931999,-22.111,-0.06667,-9.8211,-9.6732,-25.236
6.9307,-4.1077,-9.1333,0.0,-8.8026,5.0859,-6.0914,5.817,-3.0303,0.0,-8.8026,-4.902,-6.6989,-11.757,-4.0404,-15.987,-14.07,21.933001,0.91057,-3.7908,-17.431
20.792,25.184999,10.867,10.891,-1.0356,17.457001,22.334999,15.621,10.101,10.891,-1.0356,14.706,12.625,11.888,14.141,8.8889,6.0302,12.933,13.593,13.856,5.0081
13.861,26.195,8.8667,8.9109,8.6731,11.271,23.35,13.66,15.152,8.9109,8.6731,11.765,4.8953,6.9622,8.0808,11.874,5.0251,5.9333,7.7398,6.9935,7.935
-0.9901,5.9933,-5.1333,0.9901,7.7023,-1.0997,2.0305,-1.0458,13.131,0.9901,7.7023,-1.9608,-12.496,-9.7865,-8.0808,-3.0514,-10.05,1.9333,-1.0407,-5.7516,-3.7724
-13.861,-11.178,-15.133,-4.9505,-2.9773,-5.2234,-11.168,-7.9085,5.0505,-4.9505,-2.9773,-6.8627,-22.158001,-17.667999,-21.212,-15.987,-21.106001,-7.0667,-2.9919,-21.438,-15.48
-16.832001,-9.1582,-9.1333,1.9802,-3.9482,3.0241,2.0305,0.91503,4.0404,1.9802,-3.9482,3.9216,-24.09,-18.653999,-26.263,-19.966999,-22.111,-4.0667,2.8618,-29.281,-16.455
-11.881,-1.0774,3.8667,6.9307,2.8479,13.333,15.228,5.817,6.0606,6.9307,2.8479,15.686,-26.023001,-27.521,-27.273001,-20.962,-20.101,-11.067,-1.0407,-25.358999,-15.48
-7.9208,-7.138,3.8667,2.9703,-2.0065,7.1478,9.1371,1.8954,-1.0101,2.9703,-2.0065,10.784,-29.886999,-35.402,-27.273001,-26.931999,-23.115999,-29.066999,-8.8455,-20.458,-23.285
-1.9802,-14.209,-4.1333,-3.9604,-8.8026,-2.1306,1.0152,-2.0261,-6.0606,-3.9604,-8.8026,-0.98039,-24.09,-27.521,-21.212,-25.937,-22.111,-9.0667,-4.9431,-16.535999,-25.236
4.9505,-10.168,-9.1333,-1.9802,-5.89,-1.0997,0.0,1.8954,0.0,-1.9802,-5.89,-3.9216,-10.564,-12.742,-7.0707,-13.997,-12.06,10.933,2.8618,-2.8105,-9.626
2.9703,-10.168,-18.132999,-6.9307,-2.9773,-7.2852,-7.1066,0.91503,-1.0101,-6.9307,-2.9773,-13.725,-9.5974,-11.757,-2.0202,-12.007,-10.05,11.933,-7.8699,0.13072,-8.6504
1.9802,-4.1077,-17.132999,-7.9208,-1.0356,-11.409,-11.168,-2.0261,-3.0303,-7.9208,-1.0356,-15.686,-7.6651,-12.742,2.0202,-8.0265,-8.0402,10.933,-23.48,2.0915,-10.602
0.0,4.9832,-13.133,-6.9307,-6.8608,-12.44,-12.183,-2.0261,-4.0404,-6.9307,-6.8608,-14.706,-0.90177,-1.9048,3.0303,-0.06634,-4.0201,10.933,-11.772,5.0327,1.1057
0.9901,8.0135,-10.133,-4.9505,-9.7735,-8.3162,-7.1066,-0.06536,-2.0202,-4.9505,-9.7735,-10.784,9.7262,17.799999,5.0505,6.8988,-1.005,9.9333,9.6911,7.9739,7.935
-2.9703,-0.06734,-16.132999,-5.9406,-11.715,-10.378,-7.1066,-2.0261,1.0101,-5.9406,-11.715,-11.765,2.963,5.977,-2.0202,-0.06634,-9.0452,-4.0667,10.667,2.0915,3.0569
-5.9406,-6.1279,-15.133,-9.901,-12.686,-13.471,-10.152,-6.9281,-3.0303,-9.901,-12.686,-13.725,-3.8003,-6.8309,-8.0808,-8.0265,-13.065,-10.067,17.496,-1.8301,-0.84553
0.9901,2.963,-1.1333,-0.9901,0.90615,-0.06873,-4.0609,4.8366,0.0,-0.9901,0.90615,0.0,1.0306,3.0213,-2.0202,-2.0564,-3.0151,4.9333,13.593,-0.84967,5.0081
-4.9505,1.9529,4.8667,4.9505,6.7314,8.1787,2.0305,8.7582,2.0202,4.9505,6.7314,8.8235,-5.7327,-1.9048,-9.0909,-5.0415,-4.0201,5.9333,-10.797,-6.732,-4.748
-8.9109,-0.06734,7.8667,5.9406,8.6731,13.333,11.168,4.8366,5.0505,5.9406,8.6731,15.686,-22.158001,-21.608999,-18.181999,-12.007,-11.055,6.9333,-20.552999,-15.556,-14.504
-4.9505,-1.0774,8.8667,2.9703,6.7314,11.271,10.152,1.8954,4.0404,2.9703,6.7314,14.706,-27.955,-29.490999,-17.172001,-13.997,-12.06,-19.066999,-8.8455,-19.476999,-12.553
-2.9703,-10.168,0.86667,-3.9604,-3.9482,3.0241,-2.0305,-0.06536,-5.0505,-3.9604,-3.9482,2.9412,-21.191999,-25.549999,-12.121,-15.987,-10.05,-13.067,1.8862,-12.614,-17.431
1.9802,-10.168,-2.1333,0.0,-4.9191,1.9931,0.0,4.8366,-7.0707,0.0,-4.9191,1.9608,-9.5974,-13.727,-3.0303,-10.017,-4.0201,4.9333,0.91057,-2.8105,-16.455
4.9505,-8.1481,-6.1333,0.0,-4.9191,-1.0997,5.0761,4.8366,-3.0303,0.0,-4.9191,0.98039,-6.6989,-6.8309,1.0101,-7.0315,-4.0201,-4.0667,-5.9187,3.0719,-10.602
3.9604,-5.1178,-9.1333,-5.9406,-3.9482,-6.2543,-1.0152,-3.9869,-1.0101,-5.9406,-3.9482,-5.8824,-2.8341,-2.89,5.0505,-4.0464,-2.0101,1.9333,-11.772,2.0915,-3.7724
2.9703,-4.1077,-12.133,-6.9307,-6.8608,-9.3471,-10.152,-3.0065,-7.0707,-6.9307,-6.8608,-10.784,1.0306,1.0509,5.0505,-0.06634,-2.0101,-1.0667,-9.8211,-0.84967,2.0813
-2.9703,-6.1279,-14.133,-1.9802,-4.9191,-6.2543,-12.183,-0.06536,-7.0707,-1.9802,-4.9191,-9.8039,-0.90177,1.0509,-4.0404,-0.06634,-8.0402,-9.0667,-2.9919,-1.8301,8.9106
1.9802,2.963,-6.1333,5.9406,1.877,1.9931,1.0152,5.817,1.0101,5.9406,1.877,0.0,3.9291,11.888,-1.0101,5.9038,-5.0251,1.9333,14.569,0.13072,9.8862
2.9703,13.064,2.8667,6.9307,4.7896,6.1168,12.183,5.817,10.101,6.9307,4.7896,6.8627,12.625,19.77,5.0505,13.864,4.0201,7.9333,13.593,5.0327,9.8862
-0.9901,15.084,6.8667,5.9406,0.90615,5.0859,14.213,2.8758,8.0808,5.9406,0.90615,8.8235,17.455999,18.785,8.0808,15.854,10.05,-12.067,15.545,8.9542,12.813
-2.9703,11.044,8.8667,9.901,1.877,7.1478,12.183,6.7974,3.0303,9.901,1.877,9.8039,12.625,15.829,6.0606,12.869,11.055,1.9333,17.496,5.0327,11.837
-2.9703,5.9933,11.867,9.901,9.644,9.2096,8.1218,9.7386,4.0404,9.901,9.644,9.8039,-0.90177,2.0361,-1.0101,7.8939,10.05,14.933,-6.8943,-1.8301,1.1057
0.9901,1.9529,13.867,0.9901,1.877,5.0859,6.0914,7.7778,-6.0606,0.9901,1.877,3.9216,-0.90177,-0.91954,-1.0101,8.8889,12.06,6.9333,-17.625999,-3.7908,-3.7724
6.9307,-0.06734,11.867,-4.9505,-7.8317,-5.2234,-1.0152,8.7582,-11.111,-4.9505,-7.8317,-5.8824,4.8953,2.0361,7.0707,8.8889,15.075,31.933001,-2.9919,6.0131,-1.8211
11.881,-0.06734,8.8667,-2.9703,-1.0356,-6.2543,-8.1218,12.68,-1.0101,-2.9703,-1.0356,-8.8235,-0.90177,-3.8752,11.111,4.9088,13.065,19.933001,1.8862,7.9739,0.13008
4.9505,-9.1582,-2.1333,-5.9406,-8.8026,-11.409,-13.198,3.8562,4.0404,-5.9406,-8.8026,-14.706,-8.6312,-16.683001,4.0404,-6.0365,2.0101,-4.0667,0.91057,1.1111,-5.7236
0.9901,-9.1582,-6.1333,-5.9406,-7.8317,-13.471,-12.183,0.91503,5.0505,-5.9406,-7.8317,-14.706,-9.5974,-19.639,-2.0202,-9.0216,-5.0251,-6.0667,-2.0163,-2.8105,-10.602
-3.9604,-6.1279,-7.1333,-5.9406,-4.9191,-12.44,-6.0914,-1.0458,-5.0505,-5.9406,-4.9191,-9.8039,-15.395,-12.742,-11.111,-8.0265,-12.06,-7.0667,-2.9919,-9.6732,-7.6748
-5.9406,4.9832,-2.1333,-4.9505,-1.0356,-9.3471,-1.0152,-3.0065,-6.0606,-4.9505,-1.0356,-4.902,-9.5974,1.0509,-12.121,1.9237,-9.0452,-17.066999,13.593,-6.732,5.0081
-0.9901,12.054,4.8667,-7.9208,-2.0065,-6.2543,-3.0457,-3.9869,0.0,-7.9208,-2.0065,-2.9412,0.06441,13.859,-3.0303,10.879,0.0,-6.0667,20.423,-0.84967,10.862
-4.9505,9.0236,2.8667,-7.9208,-6.8608,-6.2543,-2.0305,-1.0458,4.0404,-7.9208,-6.8608,-4.902,-0.90177,7.9475,-2.0202,7.8939,3.0151,7.9333,-0.06504,-1.8301,9.8862
-7.9208,4.9832,2.8667,-2.9703,-4.9191,-4.1924,0.0,3.8562,0.0,-2.9703,-4.9191,-2.9412,-6.6989,-6.8309,-4.0404,2.9187,3.0151,0.93333,-12.748,-7.7124,-6.6992
-7.9208,-1.0774,2.8667,-2.9703,-8.8026,0.9622,0.0,5.817,-10.101,-2.9703,-8.8026,1.9608,-14.428,-13.727,-7.0707,-3.0514,0.0,3.9333,-8.8455,-14.575,-18.407
-9.901,-9.1582,-0.13333,-1.9802,-5.89,1.9931,1.0152,4.8366,-15.152,-1.9802,-5.89,2.9412,-14.428,-18.653999,-9.0909,-10.017,-3.0151,6.9333,-12.748,-10.654,-21.333
-7.9208,-10.168,0.86667,4.9505,2.8479,1.9931,1.0152,4.8366,-7.0707,4.9505,2.8479,5.8824,-9.5974,-17.667999,-5.0505,-9.0216,-1.005,-12.067,0.91057,-6.732,-16.455
-5.9406,-11.178,-2.1333,4.9505,3.8188,-3.1615,-10.152,1.8954,-6.0606,4.9505,3.8188,0.0,-5.7327,-14.713,-4.0404,-8.0265,-1.005,-13.067,-3.9675,-4.7712,-15.48
-2.9703,-7.138,-2.1333,4.9505,0.90615,-3.1615,-8.1218,-0.06536,-6.0606,4.9505,0.90615,-0.98039,-6.6989,-13.727,-4.0404,-5.0415,-1.005,-3.0667,-18.601999,-6.732,-15.48
-3.9604,-2.0875,-0.13333,2.9703,-4.9191,-2.1306,0.0,-0.06536,-7.0707,2.9703,-4.9191,0.98039,-16.361,-14.713,-10.101,-5.0415,-5.0251,-1.0667,-22.504,-11.634,-12.553
-0.9901,4.9832,1.8667,2.9703,-2.9773,-0.06873,1.0152,5.817,-2.0202,2.9703,-2.9773,1.9608,-19.259001,-9.7865,-12.121,-2.0564,-6.0302,-9.0667,-1.0407,-18.497,-4.748
12.871,17.104,10.867,6.9307,5.7605,7.1478,8.1218,13.66,9.0909,6.9307,5.7605,8.8235,-6.6989,2.0361,-1.0101,10.879,3.0151,-7.0667,18.472,-8.6928,8.9106
5.9406,15.084,8.8667,5.9406,6.7314,4.055,7.1066,13.66,8.0808,5.9406,6.7314,5.8824,-6.6989,2.0361,-4.0404,13.864,3.0151,6.9333,12.618,-11.634,5.9837
-2.9703,7.0034,1.8667,4.9505,2.8479,-2.1306,0.0,8.7582,3.0303,4.9505,2.8479,-0.98039,-9.5974,-0.91954,-8.0808,10.879,1.005,10.933,-5.9187,-14.575,5.0081
0.9901,7.0034,4.8667,7.9208,3.8188,-0.06873,1.0152,9.7386,0.0,7.9208,3.8188,-0.98039,-7.6651,0.06568,-1.0101,12.869,8.0402,2.9333,0.91057,-7.7124,6.9593
-3.9604,0.94276,0.86667,1.9802,1.877,-3.1615,-2.0305,3.8562,-4.0404,1.9802,1.877,-5.8824,-12.496,-10.772,-4.0404,4.9088,5.0251,-4.0667,2.8618,-9.6732,-6.6992
-0.9901,-5.1178,0.86667,-2.9703,-0.06472,-0.06873,-5.0761,2.8758,-4.0404,-2.9703,-0.06472,-4.902,-15.395,-17.667999,-3.0303,-1.0614,2.0101,-6.0667,6.7642,-11.634,-15.48
2.9703,-5.1178,4.8667,-0.9901,-0.06472,4.055,-6.0914,3.8562,-6.0606,-0.9901,-0.06472,-0.98039,-13.462,-18.653999,0.0,-4.0464,4.0201,6.9333,-2.9919,-9.6732,-16.455
7.9208,0.94276,11.867,3.9604,0.90615,5.0859,0.0,5.817,-4.0404,3.9604,0.90615,3.9216,-4.7665,-6.8309,7.0707,-0.06634,10.05,17.933001,-12.748,-0.84967,-4.748
6.9307,1.9529,11.867,3.9604,-0.06472,0.9622,1.0152,4.8366,-2.0202,3.9604,-0.06472,1.9608,-1.868,-3.8752,8.0808,1.9237,11.055,12.933,-9.8211,3.0719,0.13008
-0.9901,-8.1481,-3.1333,-0.9901,-0.06472,-6.2543,-12.183,2.8758,-8.0808,-0.9901,-0.06472,-8.8235,-11.53,-13.727,-2.0202,-6.0365,-2.0101,1.9333,-3.9675,-5.7516,-10.602
-0.9901,-6.1279,-9.1333,1.9802,2.8479,-2.1306,-11.168,6.7974,-7.0707,1.9802,2.8479,-8.8235,-13.462,-14.713,-4.0404,-6.0365,-7.0352,-27.066999,5.7886,-5.7516,-11.577
-4.9505,-1.0774,-9.1333,3.9604,4.7896,0.9622,-6.0914,6.7974,-1.0101,3.9604,4.7896,-3.9216,-14.428,-12.742,-9.0909,-3.0514,-10.05,-16.066999,3.8374,-7.7124,-6.6992
-10.891,4.9832,-7.1333,6.9307,6.7314,-0.06873,-2.0305,5.817,4.0404,6.9307,6.7314,-0.98039,-14.428,-5.8456,-13.131,4.9088,-10.05,8.9333,-2.0163,-13.595,5.9837
-14.851,-0.06734,-9.1333,6.9307,4.7896,-1.0997,-1.0152,6.7974,1.0101,6.9307,4.7896,-1.9608,-14.428,-0.91954,-17.172001,6.8988,-10.05,2.9333,-2.0163,-20.458,6.9593
-15.842,-9.1582,-13.133,5.9406,0.90615,-1.0997,3.0457,6.7974,-1.0101,5.9406,0.90615,-3.9216,-16.361,-4.8604,-21.212,0.92869,-12.06,6.9333,-8.8455,-25.358999,-3.7724
-10.891,-5.1178,-9.1333,0.9901,2.8479,1.9931,6.0914,4.8366,-2.0202,0.9901,2.8479,-0.98039,-17.327,-5.8456,-16.162001,-1.0614,-7.0352,-3.0667,-6.8943,-20.458,-5.7236
-10.891,-5.1178,-6.1333,0.9901,7.7023,0.9622,-6.0914,-0.06536,-6.0606,0.9901,7.7023,-3.9216,-18.292999,-15.698,-13.131,-4.0464,-5.0251,-16.066999,-3.9675,-17.516001,-11.577
-10.891,-6.1279,-4.1333,5.9406,9.644,-0.06873,-11.168,-2.0261,-6.0606,5.9406,9.644,-3.9216,-20.225,-21.608999,-14.141,-7.0315,-5.0251,-10.067,-4.9431,-18.497,-11.577
-6.9307,-7.138,-4.1333,10.891,11.586,4.055,-5.0761,2.8758,-3.0303,10.891,11.586,0.98039,-16.361,-16.683001,-10.101,-8.0265,-5.0251,3.9333,-10.797,-14.575,-9.626
-2.9703,-13.199,-11.133,7.9208,3.8188,0.9622,-6.0914,-0.06536,-4.0404,7.9208,3.8188,-3.9216,-18.292999,-22.594,-7.0707,-15.987,-10.05,-20.066999,-13.724,-11.634,-21.333
-0.9901,-10.168,-10.133,4.9505,-2.9773,-1.0997,-10.152,0.91503,-8.0808,4.9505,-2.9773,-5.8824,-14.428,-20.624001,-3.0303,-15.987,-8.0402,-11.067,-8.8455,-4.7712,-23.285
-0.9901,-3.0976,-3.1333,10.891,0.90615,5.0859,0.0,10.719,-4.0404,10.891,0.90615,0.0,-9.5974,-9.7865,-3.0303,-9.0216,-5.0251,18.933001,7.7398,-5.7516,-11.577
-10.891,-5.1178,-10.133,9.901,9.644,5.0859,1.0152,8.7582,0.0,9.901,9.644,-1.9608,-20.225,-11.757,-18.181999,-10.017,-17.084999,6.9333,-7.8699,-21.438,-10.602
-16.832001,-9.1582,-18.132999,8.9109,10.615,1.9931,-10.152,8.7582,1.0101,8.9109,10.615,-8.8235,-25.056,-18.653999,-25.253,-11.012,-24.121,-8.0667,-20.552999,-24.379,-8.6504
-13.861,-9.1582,-17.132999,6.9307,0.90615,-0.06873,-11.168,4.8366,-2.0202,6.9307,0.90615,-9.8039,-16.361,-11.757,-18.181999,-5.0415,-17.084999,-16.066999,-7.8699,-17.516001,-5.7236
-5.9406,-5.1178,-8.1333,6.9307,1.877,1.9931,-4.0609,2.8758,-5.0505,6.9307,1.877,-4.902,-6.6989,-6.8309,-6.0606,-1.0614,-5.0251,-9.0667,0.91057,-9.6732,-7.6748
4.9505,3.9731,2.8667,14.851,11.586,13.333,4.0609,12.68,2.0202,14.851,11.586,4.902,-2.8341,-5.8456,3.0303,2.9187,5.0251,10.933,2.8618,-4.7712,-9.626
6.9307,4.9832,4.8667,9.901,11.586,11.271,2.0305,9.7386,2.0202,9.901,11.586,3.9216,-5.7327,-8.8013,2.0202,-0.06634,5.0251,15.933,-7.8699,-5.7516,-8.6504
-2.9703,-3.0976,-3.1333,1.9802,3.8188,-1.0997,-5.0761,2.8758,-2.0202,1.9802,3.8188,-5.8824,-11.53,-18.653999,-4.0404,-7.0315,-2.0101,6.9333,-9.8211,-10.654,-17.431
-3.9604,-6.1279,-4.1333,2.9703,-0.06472,-2.1306,-7.1066,5.817,-3.0303,2.9703,-0.06472,-7.8431,-11.53,-19.639,-2.0202,-9.0216,-3.0151,-9.0667,-8.8455,-7.7124,-17.431
0.0,-9.1582,-4.1333,6.9307,0.90615,0.9622,-5.0761,9.7386,0.0,6.9307,0.90615,-4.902,-6.6989,-10.772,3.0303,-9.0216,-1.005,-26.066999,-9.8211,-0.84967,-10.602
-5.9406,-16.229,-12.133,1.9802,-2.9773,-3.1615,-6.0914,2.8758,-2.0202,1.9802,-2.9773,-8.8235,-8.6312,-15.698,-4.0404,-18.972,-10.05,4.9333,-4.9431,-2.8105,-18.407
-13.861,-18.249001,-19.132999,-2.9703,-2.9773,-6.2543,-11.168,0.91503,-5.0505,-2.9703,-2.9773,-11.765,-13.462,-20.624001,-13.131,-25.937,-18.09,12.933,-11.772,-7.7124,-25.236
-16.832001,-17.239,-20.132999,-0.9901,-0.06472,-6.2543,-12.183,-0.06536,-6.0606,-0.9901,-0.06472,-11.765,-14.428,-15.698,-17.172001,-21.957001,-21.106001,-9.0667,-14.699,-13.595,-18.407
-17.822001,-15.219,-21.132999,-0.9901,-1.0356,-8.3162,-10.152,-5.9477,-2.0202,-0.9901,-1.0356,-11.765,-14.428,-6.8309,-21.212,-13.997,-23.115999,-14.067,-5.9187,-15.556,-3.7724
-21.782,-15.219,-27.132999,-2.9703,-3.9482,-9.3471,-3.0457,-3.9869,-1.0101,-2.9703,-3.9482,-13.725,-10.564,-1.9048,-24.242001,-9.0216,-28.141001,3.9333,0.91057,-13.595,5.9837
-20.792,-13.199,-28.132999,4.9505,4.7896,-6.2543,-1.0152,5.817,2.0202,4.9505,4.7896,-10.784,-7.6651,-4.8604,-20.202,-8.0265,-27.136,5.9333,1.8862,-7.7124,1.1057
-13.861,-6.1279,-19.132999,10.891,12.557,-1.0997,-3.0457,6.7974,4.0404,10.891,12.557,-4.902,-10.564,-11.757,-15.152,-7.0315,-21.106001,-3.0667,-4.9431,-8.6928,-3.7724
-8.9109,-3.0976,-11.133,4.9505,7.7023,-4.1924,-4.0609,0.91503,2.0202,4.9505,7.7023,-5.8824,-11.53,-11.757,-10.101,-8.0265,-13.065,-4.0667,-1.0407,-7.7124,-5.7236
-10.891,-12.189,-15.133,-1.9802,-1.0356,-10.378,-10.152,-3.9869,-1.0101,-1.9802,-1.0356,-12.745,-13.462,-17.667999,-7.0707,-14.992,-13.065,-21.066999,3.8374,-2.8105,-13.528
-11.881,-17.239,-16.132999,-2.9703,-2.0065,-10.378,-9.1371,0.91503,2.0202,-2.9703,-2.0065,-13.725,-17.327,-24.565001,-9.0909,-21.957001,-15.075,-8.0667,-2.9919,-8.6928,-22.309
-8.9109,-14.209,-12.133,-2.9703,0.90615,-6.2543,-6.0914,0.91503,5.0505,-2.9703,0.90615,-8.8235,-15.395,-22.594,-9.0909,-22.952,-13.065,-2.0667,-9.8211,-8.6928,-27.187
-7.9208,-12.189,-10.133,-5.9406,-4.9191,-7.2852,-7.1066,-3.9869,1.0101,-5.9406,-4.9191,-8.8235,-13.462,-22.594,-9.0909,-22.952,-14.07,-4.0667,-18.601999,-2.8105,-20.358
-9.901,-7.138,-10.133,-4.9505,-2.0065,-9.3471,-5.0761,-3.0065,-1.0101,-4.9505,-2.0065,-7.8431,-9.5974,-14.713,-11.111,-18.972,-13.065,-0.06667,-7.8699,-8.6928,-16.455
-22.771999,-8.1481,-18.132999,-1.9802,4.7896,-13.471,-3.0457,-4.9673,4.0404,-1.9802,4.7896,-9.8039,-13.462,-14.713,-21.212,-17.976999,-20.101,-5.0667,8.7154,-18.497,-14.504
-24.752001,-8.1481,-22.132999,2.9703,9.644,-8.3162,-4.0609,-1.0458,12.121,2.9703,9.644,-8.8235,-17.327,-14.713,-24.242001,-15.987,-26.131001,-18.066999,-0.06504,-17.516001,-5.7236
-25.743,-10.168,-27.132999,-0.9901,2.8479,-8.3162,-9.1371,-1.0458,6.0606,-0.9901,2.8479,-11.765,-25.056,-19.639,-30.302999,-15.987,-33.166,-25.066999,-8.8455,-21.438,-3.7724
-21.782,-10.168,-22.132999,-4.9505,-3.9482,-7.2852,-10.152,-2.0261,-4.0404,-4.9505,-3.9482,-10.784,-17.327,-9.7865,-26.263,-11.012,-29.146,-22.066999,3.8374,-20.458,3.0569
-10.891,-9.1582,-15.133,-0.9901,-0.06472,-2.1306,-5.0761,-1.0458,-1.0101,-0.9901,-0.06472,-4.902,-6.6989,-4.8604,-13.131,-8.0265,-18.09,-4.0667,3.8374,-9.6732,-2.7967
0.0,-4.1077,-7.1333,5.9406,3.8188,6.1168,8.1218,3.8562,6.0606,5.9406,3.8188,3.9216,-0.90177,-6.8309,0.0,-5.0415,-5.0251,7.9333,3.8374,-3.7908,-8.6504
1.9802,-2.0875,-4.1333,4.9505,2.8479,7.1478,9.1371,5.817,5.0505,4.9505,2.8479,4.902,-1.868,-9.7865,2.0202,-4.0464,-1.005,0.93333,-11.772,-2.8105,-9.626
0.9901,-0.06734,-1.1333,2.9703,-0.06472,5.0859,1.0152,-0.06536,-3.0303,2.9703,-0.06472,0.98039,-7.6651,-10.772,-2.0202,-3.0514,-1.005,-6.0667,-13.724,-4.7712,-4.748
6.9307,2.963,2.8667,4.9505,2.8479,6.1168,-1.0152,0.91503,-4.0404,4.9505,2.8479,2.9412,-6.6989,-6.8309,-1.0101,-1.0614,0.0,13.933,5.7886,-0.84967,-0.84553
-2.9703,-3.0976,-5.1333,2.9703,-2.9773,3.0241,3.0457,-0.06536,-1.0101,2.9703,-2.9773,0.0,-7.6651,-2.89,-8.0808,-6.0365,-8.0402,-1.0667,7.7398,0.13072,-3.7724
-15.842,-13.199,-17.132999,0.0,0.90615,-0.06873,1.0152,3.8562,-1.0101,0.0,0.90615,-3.9216,-4.7665,-8.8013,-15.152,-13.997,-18.09,0.93333,3.8374,0.13072,-3.7724
-9.901,-9.1582,-12.133,8.9109,15.469,7.1478,1.0152,10.719,5.0505,8.9109,15.469,2.9412,-6.6989,-7.8161,-11.111,-13.002,-16.08,0.93333,1.8862,-1.8301,0.13008
-5.9406,-2.0875,-5.1333,10.891,14.498,8.1787,8.1218,7.7778,7.0707,10.891,14.498,7.8431,-7.6651,-4.8604,-9.0909,-9.0216,-13.065,0.93333,-2.9919,-7.7124,-4.748
2.9703,3.9731,-1.1333,6.9307,5.7605,6.1168,11.168,6.7974,8.0808,6.9307,5.7605,6.8627,0.06441,1.0509,1.0101,-2.0564,-8.0402,-11.067,-1.0407,1.1111,-0.84553
-0.9901,-3.0976,-12.133,0.0,-1.0356,-1.0997,-1.0152,3.8562,3.0303,0.0,-1.0356,-3.9216,1.0306,0.06568,2.0202,-1.0614,-10.05,1.9333,5.7886,6.0131,0.13008
-7.9208,-5.1178,-16.132999,0.9901,1.877,-2.1306,-2.0305,2.8758,2.0202,0.9901,1.877,-6.8627,6.8277,5.977,3.0303,3.9138,-8.0402,14.933,17.496,10.915,8.9106
-5.9406,-1.0774,-11.133,0.0,-1.0356,-3.1615,3.0457,0.91503,1.0101,0.0,-1.0356,-4.902,10.692,9.9179,5.0505,8.8889,-3.0151,16.933001,8.7154,14.837,11.837
-5.9406,2.963,-4.1333,-5.9406,-8.8026,-5.2234,7.1066,-1.0458,4.0404,-5.9406,-8.8026,-3.9216,5.8615,3.0213,3.0303,5.9038,-1.005,13.933,-1.0407,11.895,3.0569
-2.9703,2.963,-0.13333,-3.9604,-3.9482,-5.2234,4.0609,4.8366,7.0707,-3.9604,-3.9482,-4.902,1.0306,-2.89,1.0101,0.92869,0.0,0.93333,-1.0407,3.0719,-1.8211
5.9406,3.9731,4.8667,-0.9901,1.877,-1.0997,-2.0305,6.7974,5.0505,-0.9901,1.877,-3.9216,8.7601,5.977,8.0808,2.9187,6.0302,0.93333,0.91057,9.9346,3.0569
-2.9703,-3.0976,-0.13333,-4.9505,-2.9773,-4.1924,-5.0761,3.8562,-2.0202,-4.9505,-2.9773,-6.8627,5.8615,-0.91954,2.0202,-2.0564,1.005,4.9333,8.7154,7.9739,3.0569
-0.9901,-2.0875,3.8667,0.9901,-0.06472,3.0241,1.0152,10.719,-2.0202,0.9901,-0.06472,1.9608,3.9291,-2.89,2.0202,-3.0514,1.005,-10.067,8.7154,9.9346,1.1057
13.861,4.9832,14.867,8.9109,7.7023,15.395,12.183,14.641,6.0606,8.9109,7.7023,13.725,6.8277,1.0509,11.111,0.92869,8.0402,11.933,-2.9919,13.856,-4.748
15.842,12.054,19.867001,12.871,12.557,17.457001,16.243999,15.621,9.0909,12.871,12.557,16.667,4.8953,-1.9048,13.131,4.9088,10.05,24.933001,9.6911,11.895,-0.84553
7.9208,11.044,11.867,7.9208,5.7605,11.271,9.1371,12.68,3.0303,7.9208,5.7605,10.784,2.963,4.0066,9.0909,8.8889,7.0352,17.933001,16.52,6.0131,12.813
2.9703,7.0034,5.8667,4.9505,0.90615,9.2096,6.0914,10.719,0.0,4.9505,0.90615,7.8431,1.9968,7.9475,7.0707,11.874,4.0201,7.9333,5.7886,5.0327,12.813
1.9802,1.9529,5.8667,1.9802,0.90615,11.271,6.0914,5.817,-1.0101,1.9802,0.90615,9.8039,1.0306,4.9918,5.0505,10.879,1.005,5.9333,-4.9431,5.0327,3.0569
10.891,4.9832,13.867,5.9406,4.7896,16.426001,9.1371,7.7778,1.0101,5.9406,4.7896,14.706,4.8953,4.9918,7.0707,10.879,7.0352,8.9333,-3.9675,6.9935,2.0813
14.851,4.9832,17.867001,7.9208,4.7896,15.395,8.1218,10.719,-2.0202,7.9208,4.7896,13.725,4.8953,4.0066,9.0909,8.8889,10.05,12.933,2.8618,11.895,3.0569
9.901,-1.0774,9.8667,3.9604,2.8479,6.1168,3.0457,6.7974,-7.0707,3.9604,2.8479,5.8824,2.963,-0.91954,8.0808,2.9187,7.0352,2.9333,-1.0407,12.876,-3.7724
0.9901,-4.1077,4.8667,2.9703,1.877,1.9931,3.0457,3.8562,-6.0606,2.9703,1.877,3.9216,1.9968,-3.8752,7.0707,0.92869,6.0302,-1.0667,-6.8943,3.0719,-3.7724
2.9703,0.94276,11.867,7.9208,2.8479,9.2096,8.1218,5.817,-2.0202,7.9208,2.8479,12.745,6.8277,4.0066,11.111,4.9088,12.06,-13.067,-4.9431,0.13072,-0.84553
5.9406,0.94276,14.867,4.9505,0.90615,13.333,9.1371,7.7778,-3.0303,4.9505,0.90615,14.706,1.0306,-3.8752,10.101,1.9237,9.0452,2.9333,-13.724,-1.8301,-3.7724
5.9406,-0.06734,7.8667,2.9703,6.7314,10.241,5.0761,6.7974,-1.0101,2.9703,6.7314,8.8235,-6.6989,-17.667999,7.0707,-5.0415,2.0101,14.933,-2.9919,1.1111,-9.626
2.9703,-8.1481,-3.1333,-0.9901,4.7896,0.9622,-7.1066,3.8562,-6.0606,-0.9901,4.7896,0.98039,-13.462,-20.624001,2.0202,-13.002,-9.0452,-0.06667,-12.748,3.0719,-13.528
-0.9901,-13.199,-11.133,0.9901,-1.0356,-5.2234,-13.198,-0.06536,-11.111,0.9901,-1.0356,-3.9216,-13.462,-17.667999,-4.0404,-14.992,-17.084999,-2.0667,-23.48,1.1111,-15.48
-6.9307,-10.168,-13.133,6.9307,0.90615,-3.1615,-5.0761,1.8954,-7.0707,6.9307,0.90615,-1.9608,-7.6651,-9.7865,-5.0505,-11.012,-17.084999,-4.0667,-8.8455,2.0915,-11.577
-18.812,-12.189,-15.133,0.9901,0.90615,-4.1924,-3.0457,2.8758,-9.0909,0.9901,0.90615,-3.9216,-8.6312,-5.8456,-15.152,-11.012,-19.094999,5.9333,-2.9919,-6.732,-6.6992
-20.792,-13.199,-12.133,-4.9505,-2.9773,-7.2852,-7.1066,-2.0261,-11.111,-4.9505,-2.9773,-4.902,-9.5974,-2.89,-20.202,-9.0216,-17.084999,-6.0667,-4.9431,-16.535999,-2.7967
-11.881,-7.138,-5.1333,0.0,1.877,-3.1615,-3.0457,-2.0261,-3.0303,0.0,1.877,0.0,-9.5974,1.0509,-16.162001,-3.0514,-10.05,-7.0667,11.642,-18.497,-1.8211
-2.9703,0.94276,0.86667,4.9505,5.7605,-0.06873,3.0457,2.8758,4.0404,4.9505,5.7605,2.9412,-3.8003,5.977,-7.0707,5.9038,-1.005,-7.0667,9.6911,-11.634,6.9593
-3.9604,-8.1481,-7.1333,-2.9703,-2.9773,-6.2543,-6.0914,-0.06536,-3.0303,-2.9703,-2.9773,-5.8824,-2.8341,0.06568,-5.0505,0.92869,-3.0151,-19.066999,-9.8211,-3.7908,5.9837
-14.851,-18.249001,-16.132999,-7.9208,-9.7735,-11.409,-17.259001,-3.0065,-11.111,-7.9208,-9.7735,-14.706,-13.462,-18.653999,-12.121,-12.007,-11.055,-2.0667,-20.552999,-8.6928,-8.6504
-19.802,-11.178,-14.133,-0.9901,-2.9773,-6.2543,-13.198,1.8954,-6.0606,-0.9901,-2.9773,-9.8039,-6.6989,-15.698,-7.0707,-11.012,-8.0402,-0.06667,-9.8211,-5.7516,-15.48
-8.9109,-1.0774,-5.1333,2.9703,4.7896,-0.06873,-2.0305,6.7974,5.0505,2.9703,4.7896,-0.98039,9.7262,-3.8752,7.0707,-5.0415,2.0101,-4.0667,-1.0407,6.9935,-14.504
0.0,-5.1178,-6.1333,-2.9703,1.877,-3.1615,0.0,2.8758,1.0101,-2.9703,1.877,-3.9216,5.8615,-9.7865,8.0808,-8.0265,-1.005,8.9333,-3.9675,9.9346,-14.504
0.9901,-13.199,-14.133,-6.9307,-5.89,-5.2234,-8.1218,0.91503,-4.0404,-6.9307,-5.89,-9.8039,0.06441,-9.7865,0.0,-11.012,-9.0452,12.933,-2.0163,1.1111,-10.602
0.9901,-15.219,-16.132999,0.0,0.90615,-2.1306,-6.0914,3.8562,3.0303,0.0,0.90615,-6.8627,2.963,-4.8604,-4.0404,-11.012,-14.07,10.933,4.813,1.1111,-2.7967
-17.822001,-21.278999,-24.132999,-4.9505,-1.0356,-11.409,-9.1371,-4.9673,-3.0303,-4.9505,-1.0356,-12.745,-2.8341,-1.9048,-18.181999,-18.972,-26.131001,-19.066999,-6.8943,-9.6732,-4.748
-21.782,-21.278999,-22.132999,-8.9109,-5.89,-12.44,-6.0914,-8.8889,-3.0303,-8.9109,-5.89,-11.765,-7.6651,-4.8604,-22.222,-22.952,-28.141001,-16.066999,-10.797,-10.654,-9.626
-9.901,-17.239,-13.133,-2.9703,-1.0356,-3.1615,0.0,-1.0458,4.0404,-2.9703,-1.0356,-3.9216,-7.6651,-8.8013,-13.131,-18.972,-20.101,-21.066999,-10.797,-6.732,-5.7236
