C3,C4,Cz,F1,F2,F3,F4,F7,F8,Fp1,Fp2,Fz,O1,O2,P3,P4,Pz,T3,T4,T5,T6
-5.9406,-14.209,-8.0929,-8.867,-10.744,-6.2867,-6.0914,-13.927,-4.0404,-8.867,-10.744,-5.9113,-13.333,-37.373001,-10.05,-28.778999,-16.08,-0.06667,-11.837,-2.8243,-34.992001
-14.851,-12.189,-13.068,-14.778,-14.628,-11.468,-9.1371,-14.917,-4.0404,-14.778,-14.628,-11.823,-24.872,-30.476,-16.08,-22.837999,-19.094999,-7.0667,-7.935,-11.691,-22.309
-9.901,-5.1178,-9.0879,-13.793,-15.599,-13.541,-9.1371,-15.908,-4.0404,-13.793,-15.599,-11.823,-25.833,-12.742,-14.07,-8.9769,-12.06,-10.067,-0.13008,-15.632,-3.7724
1.9802,5.9933,2.8524,-13.793,-14.628,-6.2867,-3.0457,-12.937,-5.0505,-13.793,-14.628,-6.8966,-10.449,9.9179,2.0101,8.8449,5.0251,-8.0667,5.7236,-5.78,11.837
20.792,20.135,19.768,-5.9113,-8.8026,5.1123,5.0761,-4.0264,-1.0101,-5.9113,-8.8026,6.8966,13.59,28.636999,23.115999,27.657,28.141001,7.9333,14.504,12.939,27.447001
28.712999,26.195,26.733,-7.8818,-6.8608,9.2573,10.152,-8.9769,4.0404,-7.8818,-6.8608,10.837,31.858999,37.504002,36.181,37.557999,41.206001,12.933,18.407,28.702999,34.276001
21.782,22.155001,22.753,-6.8966,-6.8608,5.1123,6.0914,-7.9868,3.0303,-6.8966,-6.8608,9.8522,32.820999,29.622,31.156,33.597,37.186001,10.933,13.528,27.718,29.398001
12.871,13.064,13.798,-9.8522,-10.744,-0.06909,2.0305,-7.9868,-4.0404,-9.8522,-10.744,3.9409,28.013,19.77,22.111,22.705999,25.125999,7.9333,4.748,22.791,17.691
13.861,13.064,13.798,-4.9261,-5.89,-1.1054,2.0305,-6.0066,0.0,-4.9261,-5.89,6.8966,24.167,12.874,15.075,16.766001,17.084999,4.9333,6.6992,20.820999,12.813
7.9208,11.044,10.813,-3.9409,-2.9773,0.96718,3.0457,-3.0363,-1.0101,-3.9409,-2.9773,6.8966,9.7436,-2.89,4.0201,5.8746,7.0352,5.9333,5.7236,13.924,2.0813
5.9406,5.9933,7.8275,-4.9261,-7.8317,-2.1416,0.0,1.9142,-4.0404,-4.9261,-7.8317,4.9261,-7.5641,-20.624001,-3.0151,-6.0066,-1.005,7.9333,1.8211,6.0427,-11.577
8.9109,3.9731,5.8375,-5.9113,-6.8608,-3.1779,0.0,-6.0066,-3.0303,-5.9113,-6.8608,3.9409,-17.179001,-25.549999,-2.0101,-9.967,-3.0151,7.9333,1.8211,2.1018,-15.48
19.802,16.094,14.793,-2.9557,-3.9482,4.076,5.0761,-0.06601,1.0101,-2.9557,-3.9482,9.8522,-4.6795,-3.8752,14.07,3.8944,12.06,15.933,12.553,12.939,2.0813
24.752001,23.165001,20.763,-1.9704,-0.06472,8.2211,9.1371,-2.0462,7.0707,-1.9704,-0.06472,11.823,12.628,19.77,25.125999,19.736,24.121,16.933001,18.407,19.836,18.667
14.851,18.114,13.798,-7.8818,-4.9191,-2.1416,1.0152,-6.0066,5.0505,-7.8818,-4.9191,2.9557,22.243999,32.577999,26.131001,25.677,27.136,9.9333,10.602,17.865,23.545
22.771999,26.195,21.757999,-5.9113,-3.9482,2.0035,5.0761,0.92409,4.0404,-5.9113,-3.9482,7.8818,41.473999,48.341999,37.186001,41.518002,41.206001,13.933,13.528,28.702999,37.202999
25.743,30.236,26.733,-2.9557,-0.06472,5.1123,10.152,4.8845,9.0909,-2.9557,-0.06472,11.823,45.320999,47.355999,40.201,44.487999,44.221001,16.933001,17.431,33.629002,39.153999
6.9307,16.094,12.803,-6.8966,-4.9191,-8.3592,1.0152,-7.9868,2.0202,-6.8966,-4.9191,1.9704,23.205,18.785,18.09,25.677,24.121,4.9333,5.7236,14.91,18.667
-3.9604,9.0236,5.8375,-11.823,-6.8608,-10.432,-1.0152,-14.917,0.0,-11.823,-6.8608,-1.9704,-1.7949,-7.8161,1.005,6.8647,7.0352,-8.0667,-0.13008,0.13136,0.13008
2.9703,13.064,9.8176,0.0,3.8188,-1.1054,8.1218,-11.947,10.101,0.0,3.8188,9.8522,-15.256,-22.594,-5.0251,-1.0561,-1.005,-10.067,9.626,-5.78,-6.6992
-4.9505,5.9933,1.8574,-4.9261,2.8479,-1.1054,8.1218,-9.967,13.131,-4.9261,2.8479,6.8966,-29.679001,-35.402,-20.101,-13.927,-16.08,-7.0667,8.6504,-14.647,-18.407
-13.861,-3.0976,-7.0978,-9.8522,-2.9773,-11.468,1.0152,-20.858,17.172001,-9.8522,-2.9773,1.9704,-34.487,-37.373001,-31.156,-22.837999,-25.125999,-9.0667,1.8211,-22.528999,-25.236
-15.842,-7.138,-13.068,-16.749001,-6.8608,-17.686001,-3.0457,-29.768999,10.101,-16.749001,-6.8608,-6.8966,-30.641001,-27.521,-28.141001,-22.837999,-26.131001,-15.067,-4.0325,-22.528999,-25.236
-11.881,-1.0774,-7.0978,-14.778,-6.8608,-15.613,-4.0609,-18.878,7.0707,-14.778,-6.8608,-3.9409,-17.179001,-6.8309,-14.07,-9.967,-13.065,-10.067,-0.13008,-14.647,-12.553
1.9802,12.054,4.8425,-11.823,-2.9773,-6.2867,6.0914,-16.898001,13.131,-11.823,-2.9773,2.9557,3.0128,17.799999,7.0352,10.825,7.0352,-4.0667,12.553,0.13136,8.9106
6.9307,17.104,9.8176,-13.793,-4.9191,-7.323,6.0914,-20.858,13.131,-13.793,-4.9191,4.9261,12.628,25.681,14.07,21.716,16.08,-3.0667,15.48,5.0575,20.618
7.9208,18.114,11.808,-17.733999,-8.8026,-6.2867,6.0914,-23.827999,9.0909,-17.733999,-8.8026,2.9557,23.205,30.608,19.094999,26.667,21.106001,-1.0667,15.48,8.9984,26.472
6.9307,17.104,12.803,-14.778,-7.8317,-5.2504,5.0761,-20.858,7.0707,-14.778,-7.8317,3.9409,24.167,24.695999,17.084999,25.677,20.101,-4.0667,12.553,9.9836,23.545
8.9109,13.064,11.808,-9.8522,-5.89,-0.06909,7.1066,-15.908,3.0303,-9.8522,-5.89,5.9113,20.320999,11.888,14.07,16.766001,15.075,3.9333,5.7236,11.954,13.789
7.9208,2.963,4.8425,-12.808,-7.8317,-0.06909,2.0305,-13.927,1.0101,-12.808,-7.8317,2.9557,3.9744,-11.757,4.0201,-2.0462,0.0,5.9333,-3.0569,7.0279,-6.6992
-5.9406,-11.178,-9.0879,-19.704,-14.628,-10.432,-8.1218,-20.858,-7.0707,-19.704,-14.628,-7.8818,-25.833,-37.373001,-20.101,-24.818001,-24.121,-6.0667,-13.789,-12.677,-30.114
-9.901,-11.178,-11.078,-18.719,-14.628,-10.432,-7.1066,-15.908,-6.0606,-18.719,-14.628,-8.867,-41.217999,-45.255001,-30.150999,-30.759001,-33.166,-7.0667,-11.837,-21.544001,-34.992001
-6.9307,-4.1077,-6.1028,-11.823,-7.8317,-7.323,-2.0305,-16.898001,-1.0101,-11.823,-7.8317,-2.9557,-39.294998,-36.388,-28.141001,-22.837999,-27.136,-7.0667,-5.9837,-23.514,-27.187
0.0,-0.06734,-3.1177,-14.778,-9.7735,-5.2504,-1.0152,-18.878,-3.0303,-14.778,-9.7735,-3.9409,-25.833,-13.727,-15.075,-10.957,-14.07,-8.0667,-4.0325,-15.632,-13.528
2.9703,3.9731,0.86235,-17.733999,-14.628,-7.323,-3.0457,-18.878,-4.0404,-17.733999,-14.628,-4.9261,-4.6795,13.859,0.0,3.8944,1.005,-4.0667,-0.13008,-4.7947,4.0325
5.9406,7.0034,1.8574,-22.66,-17.540001,-9.3955,-5.0761,-22.837999,-5.0505,-22.66,-17.540001,-9.8522,18.396999,34.548,16.08,16.766001,14.07,0.93333,2.7967,8.9984,16.715
8.9109,10.034,5.8375,-19.704,-15.599,-10.432,-5.0761,-20.858,-4.0404,-19.704,-15.599,-6.8966,37.627998,43.415001,27.136,26.667,25.125999,4.9333,5.7236,18.851,25.496
10.891,14.074,9.8176,-19.704,-12.686,-7.323,0.0,-22.837999,-2.0202,-19.704,-12.686,-4.9261,39.550999,38.488998,30.150999,31.617001,29.146,3.9333,7.6748,21.806,27.447001
11.881,17.104,12.803,-20.690001,-14.628,-8.3592,0.0,-27.789,-2.0202,-20.690001,-14.628,-1.9704,30.896999,23.711,25.125999,28.646999,27.136,-2.0667,8.6504,17.865,23.545
7.9208,15.084,11.808,-20.690001,-11.715,-5.2504,4.0609,-20.858,4.0404,-20.690001,-11.715,-0.98522,20.320999,10.903,18.09,20.726,19.094999,1.9333,9.626,12.939,15.74
-0.9901,7.0034,3.8474,-20.690001,-13.657,-10.432,-1.0152,-19.868,3.0303,-20.690001,-13.657,-3.9409,5.8974,-3.8752,5.0251,6.8647,4.0201,-1.0667,5.7236,3.087,4.0325
-0.9901,-0.06734,-2.1227,-22.66,-14.628,-11.468,-4.0609,-26.799,-3.0303,-22.66,-14.628,-7.8818,-7.5641,-16.683001,-3.0151,-6.9967,-8.0402,-11.067,-0.13008,-2.8243,-8.6504
-2.9703,-1.0774,-2.1227,-19.704,-13.657,-10.432,-4.0609,-25.809,-3.0303,-19.704,-13.657,-4.9261,-12.372,-20.624001,-8.0402,-11.947,-12.06,-7.0667,-3.0569,-4.7947,-15.48
-5.9406,3.9731,1.8574,-17.733999,-12.686,-7.323,-1.0152,-21.848,-1.0101,-17.733999,-12.686,-2.9557,-14.295,-12.742,-12.06,-5.0165,-9.0452,-3.0667,-0.13008,-8.7356,-8.6504
-8.9109,8.0135,3.8474,-18.719,-14.628,-10.432,-1.0152,-26.799,-3.0303,-18.719,-14.628,-3.9409,-15.256,-2.89,-14.07,2.9043,-6.0302,-8.0667,2.7967,-13.662,0.13008
-5.9406,11.044,5.8375,-18.719,-16.57,-10.432,-1.0152,-25.809,-5.0505,-18.719,-16.57,-3.9409,-11.41,7.9475,-12.06,9.835,-2.0101,-13.067,4.748,-15.632,8.9106
0.0,16.094,9.8176,-17.733999,-10.744,-8.3592,4.0609,-18.878,0.0,-17.733999,-10.744,0.0,2.0513,20.754999,1.005,19.736,9.0452,-5.0667,9.626,-7.7504,18.667
8.9109,18.114,15.788,-13.793,-6.8608,-4.2142,7.1066,-16.898001,4.0404,-13.793,-6.8608,3.9409,23.205,30.608,18.09,26.667,22.111,1.9333,10.602,7.0279,23.545
7.9208,9.0236,11.808,-21.674999,-15.599,-9.3955,-1.0152,-20.858,-3.0303,-21.674999,-15.599,-4.9261,29.936001,27.652,23.115999,21.716,24.121,-3.0667,3.7724,12.939,15.74
9.901,7.0034,8.8226,-20.690001,-18.511,-13.541,-6.0914,-24.818001,-5.0505,-20.690001,-18.511,-6.8966,28.974001,21.740999,23.115999,19.736,22.111,-5.0667,1.8211,15.895,13.789
0.9901,1.9529,2.8524,-25.615999,-21.424,-15.613,-8.1218,-28.778999,-8.0808,-25.615999,-21.424,-11.823,17.436001,10.903,15.075,12.805,13.065,-4.0667,-1.1057,11.954,6.9593
0.0,2.963,1.8574,-21.674999,-18.511,-13.541,-5.0761,-23.827999,-4.0404,-21.674999,-18.511,-6.8966,7.8205,1.0509,7.0352,7.8548,5.0251,2.9333,0.84553,8.0131,4.0325
0.9901,1.9529,0.86235,-22.66,-15.599,-8.3592,-2.0305,-24.818001,-1.0101,-22.66,-15.599,-6.8966,-0.83333,-3.8752,0.0,2.9043,-1.005,1.9333,2.7967,2.1018,2.0813
0.0,1.9529,0.86235,-18.719,-15.599,-8.3592,-3.0457,-15.908,0.0,-18.719,-15.599,-4.9261,-3.7179,-2.89,-6.0302,0.92409,-5.0251,-0.06667,3.7724,-2.8243,3.0569
-4.9505,-3.0976,-4.1128,-25.615999,-19.482,-11.468,-7.1066,-19.868,-4.0404,-25.615999,-19.482,-10.837,-8.5256,-0.91954,-12.06,-3.0363,-9.0452,-9.0667,-1.1057,-9.7209,0.13008
-12.871,-5.1178,-8.0929,-25.615999,-19.482,-17.686001,-10.152,-23.827999,-3.0303,-25.615999,-19.482,-13.793,-14.295,0.06568,-18.09,-5.0165,-12.06,-15.067,-2.0813,-18.587999,-0.84553
-19.802,-7.138,-14.063,-28.570999,-22.395,-20.794001,-12.183,-30.759001,-5.0505,-28.570999,-22.395,-17.733999,-17.179001,1.0509,-22.111,-5.0165,-15.075,-18.066999,-3.0569,-23.514,0.13008
-21.782,-6.1279,-17.048,-28.570999,-23.365999,-23.903,-15.228,-30.759001,-6.0606,-28.570999,-23.365999,-19.704,-8.5256,6.9622,-18.09,0.92409,-13.065,-19.066999,0.84553,-18.587999,5.9837
-12.871,-4.1077,-15.058,-26.601,-20.452999,-18.722,-11.168,-29.768999,-5.0505,-26.601,-20.452999,-18.719,2.0513,10.903,-8.0402,6.8647,-5.0251,-17.066999,1.8211,-9.7209,7.935
-6.9307,0.94276,-7.0978,-23.645,-18.511,-14.577,-9.1371,-27.789,-3.0303,-23.645,-18.511,-13.793,14.551,14.844,6.0302,12.805,6.0302,-7.0667,1.8211,4.0722,11.837
-6.9307,-4.1077,-8.0929,-26.601,-22.395,-16.649,-12.183,-27.789,-7.0707,-26.601,-22.395,-17.733999,12.628,6.9622,7.0352,6.8647,5.0251,-5.0667,-3.0569,6.0427,5.9837
-6.9307,-8.1481,-9.0879,-24.631001,-21.424,-17.686001,-13.198,-23.827999,-8.0808,-24.631001,-21.424,-17.733999,3.9744,-2.89,5.0251,-1.0561,-1.005,-6.0667,-4.0325,4.0722,0.13008
-7.9208,-15.219,-16.052999,-24.631001,-21.424,-17.686001,-15.228,-21.848,-15.152,-24.631001,-21.424,-19.704,-10.449,-16.683001,-5.0251,-11.947,-13.065,-12.067,-8.9106,-3.8095,-9.626
-6.9307,-16.229,-18.042999,-26.601,-21.424,-17.686001,-16.243999,-20.858,-9.0909,-26.601,-21.424,-21.674999,-12.372,-15.698,-7.0352,-15.908,-18.09,-10.067,-7.935,-2.8243,-8.6504
-11.881,-14.209,-19.038,-26.601,-21.424,-19.757999,-17.259001,-22.837999,-6.0606,-26.601,-21.424,-21.674999,-5.641,-6.8309,-10.05,-13.927,-19.094999,-8.0667,-5.9837,-3.8095,-3.7724
-15.842,-14.209,-19.038,-29.556999,-23.365999,-20.794001,-16.243999,-26.799,-9.0909,-29.556999,-23.365999,-22.66,-3.7179,1.0509,-13.065,-10.957,-19.094999,-9.0667,-5.0081,-5.78,0.13008
-16.832001,-10.168,-16.052999,-25.615999,-23.365999,-20.794001,-15.228,-29.768999,-10.101,-25.615999,-23.365999,-19.704,-0.83333,7.9475,-17.084999,-6.0066,-17.084999,-11.067,-3.0569,-10.706,6.9593
-11.881,-5.1178,-10.083,-27.586,-22.395,-17.686001,-13.198,-26.799,-12.121,-27.586,-22.395,-17.733999,6.859,16.813999,-10.05,1.9142,-9.0452,-15.067,0.84553,-7.7504,12.813
-7.9208,-4.1077,-7.0978,-26.601,-24.337,-19.757999,-15.228,-23.827999,-13.131,-26.601,-24.337,-16.749001,11.667,15.829,-4.0201,5.8746,-2.0101,-15.067,-3.0569,-3.8095,11.837
-3.9604,-2.0875,-4.1128,-23.645,-18.511,-12.504,-10.152,-22.837999,-8.0808,-23.645,-18.511,-13.793,14.551,13.859,4.0201,9.835,5.0251,-6.0667,-0.13008,2.1018,10.862
1.9802,0.94276,-0.13267,-20.690001,-17.540001,-11.468,-8.1218,-21.848,-6.0606,-20.690001,-17.540001,-9.8522,15.513,10.903,9.0452,12.805,10.05,-6.0667,0.84553,7.0279,10.862
3.9604,2.963,1.8574,-22.66,-18.511,-5.2504,-3.0457,-17.888,-6.0606,-22.66,-18.511,-6.8966,9.7436,6.9622,11.055,11.815,10.05,-5.0667,-0.13008,7.0279,9.8862
1.9802,1.9529,3.8474,-17.733999,-15.599,-5.2504,-3.0457,-14.917,-4.0404,-17.733999,-15.599,-2.9557,3.0128,0.06568,9.0452,6.8647,5.0251,-3.0667,-0.13008,7.0279,5.9837
-0.9901,-5.1178,-2.1227,-17.733999,-14.628,-8.3592,-6.0914,-23.827999,-7.0707,-17.733999,-14.628,-8.867,-3.7179,-3.8752,2.0101,-2.0462,-4.0201,-0.06667,-4.0325,5.0575,3.0569
-4.9505,-13.199,-9.0879,-18.719,-16.57,-14.577,-14.213,-23.827999,-12.121,-18.719,-16.57,-15.764,-5.641,-4.8604,-4.0201,-9.967,-12.06,-3.0667,-7.935,0.13136,-0.84553
-8.9109,-16.229,-12.073,-21.674999,-18.511,-15.613,-15.228,-20.858,-14.141,-21.674999,-18.511,-18.719,-2.7564,-1.9048,-6.0302,-12.937,-13.065,-8.0667,-10.862,-2.8243,-3.7724
-6.9307,-9.1582,-5.1078,-18.719,-15.599,-12.504,-11.168,-15.908,-9.0909,-18.719,-15.599,-11.823,1.0897,4.0066,-1.005,-5.0165,-6.0302,-6.0667,-7.935,-3.8095,-1.8211
-2.9703,-0.06734,1.8574,-15.764,-11.715,-8.3592,-5.0761,-17.888,-4.0404,-15.764,-11.715,-7.8818,5.8974,9.9179,1.005,4.8845,2.0101,-9.0667,-3.0569,-3.8095,4.0325
-4.9505,1.9529,1.8574,-19.704,-12.686,-12.504,-6.0914,-23.827999,-8.0808,-19.704,-12.686,-9.8522,9.7436,12.874,1.005,9.835,4.0201,-14.067,-1.1057,-3.8095,7.935
-4.9505,1.9529,0.86235,-18.719,-13.657,-13.541,-7.1066,-24.818001,-7.0707,-18.719,-13.657,-9.8522,12.628,11.888,1.005,10.825,5.0251,-11.067,-2.0813,-3.8095,8.9106
0.0,4.9832,4.8425,-17.733999,-10.744,-7.323,-2.0305,-18.878,-5.0505,-17.733999,-10.744,-6.8966,12.628,12.874,6.0302,13.795,9.0452,-7.0667,1.8211,0.13136,10.862
8.9109,11.044,13.798,-9.8522,-7.8317,-1.1054,2.0305,-12.937,0.0,-9.8522,-7.8317,0.0,10.705,11.888,12.06,18.746,17.084999,-5.0667,5.7236,4.0722,14.764
15.842,15.084,19.768,-10.837,-6.8608,4.076,7.1066,-10.957,1.0101,-10.837,-6.8608,3.9409,7.8205,12.874,18.09,21.716,22.111,-3.0667,6.6992,9.9836,15.74
14.851,17.104,19.768,-3.9409,-1.0356,7.1848,9.1371,-6.0066,1.0101,-3.9409,-1.0356,8.867,6.859,10.903,19.094999,19.736,21.106001,4.9333,7.6748,13.924,14.764
10.891,15.084,15.788,-4.9261,-1.0356,7.1848,10.152,-6.9967,2.0202,-4.9261,-1.0356,6.8966,6.859,12.874,17.084999,17.756001,17.084999,7.9333,8.6504,12.939,14.764
4.9505,9.0236,7.8275,-8.867,-5.89,-3.1779,3.0457,-12.937,2.0202,-8.867,-5.89,0.98522,6.859,13.859,8.0402,13.795,9.0452,-0.06667,5.7236,7.0279,14.764
4.9505,7.0034,5.8375,-11.823,-4.9191,-1.1054,4.0609,-17.888,4.0404,-11.823,-4.9191,-0.98522,13.59,19.77,10.05,13.795,9.0452,0.93333,7.6748,8.9984,16.715
11.881,11.044,9.8176,-8.867,-3.9482,3.0397,6.0914,-17.888,8.0808,-8.867,-3.9482,4.9261,27.051001,27.652,19.094999,18.746,16.08,3.9333,15.48,18.851,23.545
18.812,10.034,10.813,-4.9261,-4.9191,9.2573,6.0914,1.9142,2.0202,-4.9261,-4.9191,4.9261,30.896999,27.652,22.111,19.736,19.094999,11.933,13.528,22.791,22.569
0.9901,-4.1077,-3.1177,-3.9409,-8.8026,-0.06909,-8.1218,5.8746,-9.0909,-3.9409,-8.8026,-4.9261,10.705,6.9622,4.0201,2.9043,3.0151,5.9333,-1.1057,6.0427,5.0081
-7.9208,-10.168,-10.083,-6.8966,-7.8317,-3.1779,-9.1371,-2.0462,-14.141,-6.8966,-7.8317,-8.867,-2.7564,-3.8752,-5.0251,-5.0165,-5.0251,-1.0667,-7.935,-3.8095,-5.7236
-6.9307,-10.168,-10.083,-6.8966,-8.8026,-5.2504,-9.1371,-1.0561,-6.0606,-6.8966,-8.8026,-7.8818,-6.6026,-6.8309,-5.0251,-5.0165,-5.0251,-3.0667,-7.935,-6.7652,-7.6748
-3.9604,-9.1582,-11.078,-5.9113,-7.8317,-4.2142,-8.1218,-3.0363,-8.0808,-5.9113,-7.8317,-7.8818,-9.4872,-7.8161,-4.0201,-5.0165,-4.0201,-3.0667,-7.935,-8.7356,-6.6992
9.901,4.9832,1.8574,2.9557,2.8479,8.2211,5.0761,0.92409,0.0,2.9557,2.8479,4.9261,0.12821,4.0066,12.06,6.8647,8.0402,4.9333,4.748,4.0722,6.9593
11.881,5.9933,4.8425,1.9704,1.877,10.294,7.1066,2.9043,5.0505,1.9704,1.877,7.8818,0.12821,4.0066,13.065,7.8548,9.0452,5.9333,5.7236,6.0427,7.935
5.9406,-5.1178,-4.1128,-4.9261,-3.9482,5.1123,-1.0152,5.8746,-3.0303,-4.9261,-3.9482,0.0,-9.4872,-6.8309,3.0151,-3.0363,-1.005,0.93333,-4.0325,0.13136,-2.7967
-5.9406,-12.189,-12.073,-2.9557,-2.9773,-1.1054,-4.0609,1.9142,-5.0505,-2.9557,-2.9773,-3.9409,-14.295,-12.742,-6.0302,-11.947,-11.055,-4.0667,-7.935,-5.78,-8.6504
-15.842,-17.239,-20.033001,-6.8966,-6.8608,-9.3955,-8.1218,-6.9967,-7.0707,-6.8966,-6.8608,-10.837,-11.41,-11.757,-12.06,-15.908,-17.084999,-3.0667,-8.9106,-8.7356,-12.553
-12.871,-15.219,-20.033001,-5.9113,-7.8317,-12.504,-10.152,-5.0165,-8.0808,-5.9113,-7.8317,-11.823,-2.7564,-5.8456,-9.0452,-12.937,-15.075,-2.0667,-7.935,-7.7504,-9.626
-9.901,-12.189,-17.048,-11.823,-12.686,-10.432,-11.168,-5.0165,-8.0808,-11.823,-12.686,-13.793,0.12821,0.06568,-5.0251,-6.9967,-9.0452,-4.0667,-4.0325,-6.7652,-5.7236
1.9802,-0.06734,-3.1177,-0.98522,-3.9482,3.0397,-3.0457,4.8845,0.0,-0.98522,-3.9482,-0.98522,11.667,10.903,4.0201,5.8746,4.0201,1.9333,6.6992,0.13136,6.9593
2.9703,3.9731,2.8524,1.9704,2.8479,9.2573,4.0609,-0.06601,4.0404,1.9704,2.8479,3.9409,10.705,8.9327,6.0302,6.8647,7.0352,-1.0667,6.6992,3.087,6.9593
-3.9604,-2.0875,-1.1277,-2.9557,-1.0356,-0.06909,-1.0152,-2.0462,-1.0101,-2.9557,-1.0356,0.0,-6.6026,-7.8161,-5.0251,-2.0462,-1.005,-11.067,-2.0813,-8.7356,-4.748
-3.9604,-0.06734,1.8574,-3.9409,-1.0356,-1.1054,2.0305,-2.0462,-1.0101,-3.9409,-1.0356,-0.98522,-13.333,-10.772,-3.0151,-1.0561,0.0,-5.0667,-2.0813,-8.7356,-3.7724
0.9901,2.963,5.8375,-0.98522,-2.0065,-0.06909,1.0152,2.9043,-1.0101,-0.98522,-2.0065,0.98522,-15.256,-11.757,0.0,0.92409,3.0151,-1.0667,-1.1057,-7.7504,-4.748
2.9703,-0.06734,3.8474,0.0,-2.0065,3.0397,0.0,8.8449,-3.0303,0.0,-2.0065,0.0,-22.948999,-17.667999,-3.0151,-4.0264,-1.005,-3.0667,-4.0325,-12.677,-9.626
-4.9505,-6.1279,-2.1227,-3.9409,-4.9191,-3.1779,-3.0457,0.92409,-9.0909,-3.9409,-4.9191,-3.9409,-30.641001,-25.549999,-11.055,-11.947,-10.05,-4.0667,-9.8862,-18.587999,-17.431
-4.9505,-8.1481,-4.1128,-2.9557,-3.9482,0.96718,-1.0152,1.9142,-5.0505,-2.9557,-3.9482,-2.9557,-22.948999,-18.653999,-13.065,-12.937,-12.06,-6.0667,-7.935,-14.647,-12.553
-2.9703,-2.0875,-0.13267,0.0,0.90615,5.1123,2.0305,3.8944,1.0101,0.0,0.90615,1.9704,-6.6026,-2.89,-7.0352,-5.0165,-6.0302,-0.06667,-1.1057,-5.78,-1.8211
-7.9208,-2.0875,-1.1277,-4.9261,-2.0065,-1.1054,1.0152,-0.06601,-1.0101,-4.9261,-2.0065,0.0,5.8974,4.9918,-5.0251,-3.0363,-4.0201,-1.0667,-2.0813,-2.8243,1.1057
-7.9208,-3.0976,-3.1177,-6.8966,-4.9191,-2.1416,-1.0152,-1.0561,-3.0303,-6.8966,-4.9191,-0.98522,15.513,9.9179,0.0,-1.0561,-1.005,-4.0667,-3.0569,1.1166,1.1057
0.0,-4.1077,-3.1177,-1.9704,-3.9482,-0.06909,-1.0152,0.92409,-4.0404,-1.9704,-3.9482,0.0,14.551,6.9622,1.005,-1.0561,0.0,-4.0667,-5.0081,1.1166,-0.84553
0.0,-5.1178,-3.1177,-3.9409,-2.0065,3.0397,0.0,4.8845,-5.0505,-3.9409,-2.0065,0.0,4.9359,-0.91954,1.005,-3.0363,0.0,-1.0667,-5.9837,-2.8243,-4.748
-3.9604,-5.1178,-2.1227,-0.98522,-1.0356,-0.06909,-1.0152,-0.06601,-5.0505,-0.98522,-1.0356,0.98522,-4.6795,-8.8013,-2.0101,-4.0264,0.0,-2.0667,-3.0569,-5.78,-6.6992
-0.9901,0.94276,1.8574,0.0,2.8479,5.1123,6.0914,1.9142,0.0,0.0,2.8479,5.9113,-20.063999,-15.698,-3.0151,-3.0363,0.0,1.9333,0.84553,-8.7356,-6.6992
2.9703,0.94276,3.8474,2.9557,3.8188,8.2211,6.0914,6.8647,-3.0303,2.9557,3.8188,8.867,-37.372002,-24.565001,-9.0452,-6.0066,-4.0201,-0.06667,-4.0325,-14.647,-9.626
1.9802,-2.0875,0.86235,2.9557,2.8479,9.2573,6.0914,6.8647,-6.0606,2.9557,2.8479,6.8966,-38.333,-26.535,-9.0452,-8.9769,-7.0352,0.93333,-7.935,-11.691,-11.577
-1.9802,-6.1279,-2.1227,4.9261,0.90615,5.1123,1.0152,7.8548,-8.0808,4.9261,0.90615,4.9261,-25.833,-21.608999,-7.0352,-9.967,-8.0402,2.9333,-11.837,-6.7652,-10.602
6.9307,-4.1077,-0.13267,2.9557,0.90615,8.2211,2.0305,4.8845,-9.0909,2.9557,0.90615,3.9409,-1.7949,-3.8752,6.0302,-4.0264,1.005,1.9333,-7.935,6.0427,-2.7967
11.881,2.963,5.8375,7.8818,4.7896,11.33,5.0761,17.756001,-2.0202,7.8818,4.7896,8.867,24.167,15.829,17.084999,6.8647,12.06,14.933,1.8211,18.851,8.9106
5.9406,-4.1077,-0.13267,6.8966,1.877,8.2211,0.0,17.756001,-9.0909,6.8966,1.877,1.9704,25.128,12.874,11.055,1.9142,8.0402,18.933001,-3.0569,15.895,2.0813
2.9703,-7.138,-4.1128,9.8522,4.7896,6.1485,-3.0457,10.825,-8.0808,9.8522,4.7896,0.98522,12.628,0.06568,4.0201,-5.0165,1.005,11.933,-5.9837,7.0279,-7.6748
4.9505,-3.0976,-2.1227,14.778,12.557,11.33,4.0609,12.805,1.0101,14.778,12.557,4.9261,6.859,-2.89,5.0251,-3.0363,3.0151,11.933,-0.13008,7.0279,-5.7236
6.9307,-2.0875,-1.1277,17.733999,14.498,13.402,6.0914,25.677,4.0404,17.733999,14.498,6.8966,-1.7949,-8.8013,4.0201,-4.0264,3.0151,13.933,0.84553,7.0279,-5.7236
-8.9109,-15.219,-14.063,8.867,7.7023,3.0397,-2.0305,21.716,-7.0707,8.867,7.7023,-2.9557,-24.872,-27.521,-12.06,-17.888,-12.06,5.9333,-13.789,-5.78,-18.407
-11.881,-18.249001,-17.048,5.9113,5.7605,-4.2142,-6.0914,7.8548,-8.0808,5.9113,5.7605,-6.8966,-32.563999,-31.461,-14.07,-20.858,-16.08,-6.0667,-17.691,-6.7652,-21.333
-6.9307,-10.168,-10.083,10.837,10.615,-1.1054,-2.0305,5.8746,-3.0303,10.837,10.615,-0.98522,-28.718,-26.535,-9.0452,-14.917,-11.055,-3.0667,-12.813,-3.8095,-13.528
-6.9307,-5.1178,-6.1028,10.837,11.586,2.0035,1.0152,9.835,2.0202,10.837,11.586,0.0,-21.987,-16.683001,-8.0402,-8.9769,-7.0352,6.9333,-5.9837,-3.8095,-6.6992
-5.9406,-9.1582,-9.0879,10.837,8.6731,2.0035,-2.0305,8.8449,2.0202,10.837,8.6731,-1.9704,-11.41,-7.8161,-9.0452,-7.9868,-7.0352,5.9333,-4.0325,-4.7947,-4.748
-3.9604,-12.189,-12.073,7.8818,8.6731,5.1123,-2.0305,10.825,-3.0303,7.8818,8.6731,-2.9557,-0.83333,-0.91954,-4.0201,-8.9769,-7.0352,1.9333,-5.0081,-0.85386,-5.7236
-3.9604,-10.168,-11.078,10.837,8.6731,3.0397,-1.0152,12.805,-4.0404,10.837,8.6731,0.0,8.7821,4.9918,-1.005,-6.9967,-4.0201,4.9333,-5.0081,3.087,-3.7724
0.9901,-8.1481,-9.0879,8.867,7.7023,6.1485,0.0,12.805,-1.0101,8.867,7.7023,0.98522,14.551,4.9918,3.0151,-6.9967,-2.0101,1.9333,-4.0325,8.0131,-5.7236
0.0,-5.1178,-7.0978,10.837,8.6731,5.1123,1.0152,17.756001,0.0,10.837,8.6731,2.9557,13.59,-2.89,2.0101,-7.9868,-1.005,8.9333,-3.0569,8.0131,-8.6504
-2.9703,-6.1279,-8.0929,7.8818,8.6731,6.1485,3.0457,16.766001,1.0101,7.8818,8.6731,2.9557,1.0897,-17.667999,-3.0151,-12.937,-5.0251,8.9333,-5.9837,4.0722,-16.455
0.0,-4.1077,-4.1128,13.793,12.557,8.2211,6.0914,17.756001,2.0202,13.793,12.557,7.8818,-14.295,-30.476,-9.0452,-15.908,-8.0402,6.9333,-9.8862,-4.7947,-22.309
-2.9703,-8.1481,-7.0978,11.823,11.586,6.1485,4.0609,10.825,-4.0404,11.823,11.586,5.9113,-39.294998,-44.269001,-20.101,-22.837999,-17.084999,-6.0667,-14.764,-20.558001,-29.138
-1.9802,-3.0976,-4.1128,13.793,13.528,5.1123,6.0914,10.825,-1.0101,13.793,13.528,8.867,-46.987,-39.342999,-20.101,-17.888,-16.08,-6.0667,-5.9837,-23.514,-19.382
2.9703,3.9731,-0.13267,13.793,15.469,9.2573,10.152,14.785,5.0505,13.793,15.469,11.823,-43.140999,-26.535,-16.08,-8.9769,-11.055,-1.0667,3.7724,-20.558001,-8.6504
2.9703,7.0034,2.8524,16.749001,16.440001,10.294,12.183,18.746,11.111,16.749001,16.440001,14.778,-33.526001,-15.698,-14.07,-5.0165,-7.0352,3.9333,6.6992,-18.587999,-3.7724
1.9802,5.9933,1.8574,12.808,13.528,8.2211,9.1371,20.726,9.0909,12.808,13.528,11.823,-12.372,0.06568,-8.0402,-1.0561,-4.0201,5.9333,6.6992,-9.7209,1.1057
-0.9901,-0.06734,-5.1078,5.9113,5.7605,-1.1054,-2.0305,11.815,-1.0101,5.9113,5.7605,2.9557,8.7821,11.888,-3.0151,-1.0561,-2.0101,-1.0667,1.8211,-0.85386,3.0569
0.0,-3.0976,-8.0929,4.9261,2.8479,-3.1779,-6.0914,14.785,-7.0707,4.9261,2.8479,-0.98522,24.167,18.785,2.0101,-0.06601,0.0,3.9333,0.84553,8.0131,5.9837
0.0,-5.1178,-9.0879,1.9704,0.90615,-2.1416,-9.1371,15.776,-6.0606,1.9704,0.90615,-3.9409,26.09,12.874,4.0201,-2.0462,0.0,7.9333,-2.0813,11.954,1.1057
-2.9703,-7.138,-9.0879,3.9409,1.877,-4.2142,-8.1218,12.805,-6.0606,3.9409,1.877,-3.9409,10.705,-7.8161,-4.0201,-10.957,-6.0302,6.9333,-9.8862,2.1018,-13.528
-1.9802,-3.0976,-4.1128,4.9261,2.8479,-1.1054,-3.0457,15.776,-4.0404,4.9261,2.8479,0.0,-5.641,-22.594,-9.0452,-13.927,-7.0352,6.9333,-9.8862,-4.7947,-22.309
-2.9703,-1.0774,-1.1277,5.9113,4.7896,-3.1779,-1.0152,11.815,-2.0202,5.9113,4.7896,1.9704,-24.872,-35.402,-16.08,-15.908,-10.05,-2.0667,-6.9593,-16.617001,-24.26
-8.9109,-2.0875,-4.1128,2.9557,6.7314,-5.2504,0.0,5.8746,3.0303,2.9557,6.7314,0.0,-46.026001,-43.284,-25.125999,-19.868,-17.084999,-7.0667,-2.0813,-27.455,-22.309
-6.9307,0.94276,-4.1128,5.9113,9.644,-3.1779,2.0305,4.8845,8.0808,5.9113,9.644,3.9409,-48.91,-37.373001,-26.131001,-17.888,-20.101,-8.0667,5.7236,-27.455,-11.577
-6.9307,0.94276,-5.1078,0.98522,6.7314,-3.1779,2.0305,4.8845,8.0808,0.98522,6.7314,0.98522,-35.449001,-19.639,-20.101,-12.937,-18.09,-2.0667,8.6504,-17.603001,-0.84553
-1.9802,-0.06734,-5.1078,-0.98522,3.8188,-6.2867,-3.0457,5.8746,1.0101,-0.98522,3.8188,-2.9557,-11.41,1.0509,-9.0452,-6.0066,-11.055,-3.0667,5.7236,-5.78,5.9837
0.0,1.9529,-1.1277,-0.98522,2.8479,-4.2142,-2.0305,9.835,2.0202,-0.98522,2.8479,-2.9557,9.7436,17.799999,2.0101,1.9142,-1.005,1.9333,4.748,6.0427,9.8862
0.0,2.963,1.8574,0.0,-0.06472,-5.2504,-4.0609,8.8449,2.0202,0.0,-0.06472,-0.98522,17.436001,19.77,6.0302,5.8746,5.0251,3.9333,2.7967,6.0427,5.9837
4.9505,2.963,3.8474,1.9704,2.8479,3.0397,-1.0152,10.825,1.0101,1.9704,2.8479,1.9704,20.320999,12.874,9.0452,4.8845,7.0352,1.9333,0.84553,6.0427,-2.7967
7.9208,5.9933,6.8325,9.8522,10.615,7.1848,4.0609,15.776,8.0808,9.8522,10.615,8.867,19.358999,4.9918,10.05,3.8944,8.0402,5.9333,1.8211,8.0131,-6.6992
-0.9901,-2.0875,-2.1227,6.8966,7.7023,0.96718,0.0,9.835,3.0303,6.8966,7.7023,1.9704,-1.7949,-13.727,-4.0201,-7.9868,-5.0251,-2.0667,-5.0081,-4.7947,-17.431
-12.871,-13.199,-14.063,1.9704,2.8479,-9.3955,-8.1218,3.8944,-1.0101,1.9704,2.8479,-4.9261,-28.718,-33.431999,-21.106001,-23.827999,-21.106001,-13.067,-13.789,-19.573,-27.187
-17.822001,-19.259001,-20.033001,0.0,0.90615,-11.468,-11.168,1.9142,-4.0404,0.0,0.90615,-8.867,-43.140999,-45.255001,-29.146,-30.759001,-31.156,-13.067,-13.789,-24.499001,-29.138
-15.842,-18.249001,-19.038,-2.9557,-2.0065,-9.3955,-12.183,0.92409,-6.0606,-2.9557,-2.0065,-8.867,-46.026001,-45.255001,-28.141001,-29.768999,-31.156,-14.067,-9.8862,-24.499001,-24.26
-12.871,-9.1582,-12.073,1.9704,3.8188,-6.2867,-6.0914,1.9142,-2.0202,1.9704,3.8188,-2.9557,-34.487,-30.476,-22.111,-18.878,-23.115999,-9.0667,-3.0569,-19.573,-12.553
-11.881,-6.1279,-10.083,0.98522,3.8188,-7.323,-5.0761,1.9142,-2.0202,0.98522,3.8188,-3.9409,-21.987,-14.713,-16.08,-10.957,-16.08,-10.067,-3.0569,-15.632,-8.6504
-7.9208,-4.1077,-8.0929,3.9409,2.8479,-5.2504,-5.0761,6.8647,-3.0303,3.9409,2.8479,-2.9557,-13.333,-3.8752,-11.055,-5.0165,-9.0452,-12.067,-5.0081,-14.647,-7.6748
-3.9604,-0.06734,-1.1277,6.8966,7.7023,0.96718,2.0305,13.795,0.0,6.8966,7.7023,1.9704,-3.7179,7.9475,-3.0151,2.9043,0.0,-8.0667,-3.0569,-11.691,-3.7724
0.0,3.9731,4.8425,9.8522,8.6731,3.0397,3.0457,13.795,1.0101,9.8522,8.6731,5.9113,7.8205,14.844,3.0151,6.8647,6.0302,-2.0667,-3.0569,-5.78,-0.84553
-3.9604,0.94276,0.86235,0.98522,2.8479,-0.06909,0.0,4.8845,-5.0505,0.98522,2.8479,0.0,10.705,9.9179,1.005,1.9142,2.0101,-2.0667,-8.9106,-3.8095,-7.6748
-4.9505,-3.0976,-4.1128,4.9261,4.7896,-2.1416,-2.0305,6.8647,-5.0505,4.9261,4.7896,-0.98522,3.9744,-3.8752,-5.0251,-6.0066,-7.0352,-3.0667,-11.837,-4.7947,-15.48
-11.881,-15.219,-18.042999,0.0,1.877,-5.2504,-8.1218,4.8845,-7.0707,0.0,1.877,-9.8522,-19.103001,-26.535,-19.094999,-23.827999,-24.121,-6.0667,-17.691,-14.647,-28.163
-23.761999,-25.32,-28.988001,-1.9704,-1.0356,-14.577,-16.243999,1.9142,-8.0808,-1.9704,-1.0356,-15.764,-42.179001,-46.240002,-32.160999,-36.700001,-38.191002,-13.067,-19.642,-28.440001,-34.992001
-23.761999,-23.299999,-28.988001,-1.9704,-0.06472,-12.504,-13.198,-5.0165,-7.0707,-1.9704,-0.06472,-14.778,-52.756001,-51.166,-33.166,-35.709999,-40.201,-17.066999,-15.74,-31.396,-30.114
-22.771999,-20.268999,-25.007999,-3.9409,-1.0356,-15.613,-14.213,-6.0066,-5.0505,-3.9409,-1.0356,-13.793,-54.679001,-49.195,-32.160999,-30.759001,-36.181,-19.066999,-11.837,-31.396,-23.285
-16.832001,-14.209,-20.033001,-0.98522,3.8188,-9.3955,-8.1218,2.9043,-2.0202,-0.98522,3.8188,-9.8522,-40.256001,-31.461,-24.121,-19.868,-27.136,-14.067,-6.9593,-22.528999,-14.504
-14.851,-10.168,-17.048,2.9557,4.7896,-6.2867,-8.1218,6.8647,-3.0303,2.9557,4.7896,-6.8966,-17.179001,-9.7865,-15.075,-9.967,-18.09,-8.0667,-5.0081,-14.647,-7.6748
-5.9406,-7.138,-14.063,2.9557,4.7896,-3.1779,-6.0914,3.8944,-1.0101,2.9557,4.7896,-4.9261,5.8974,9.9179,-7.0352,-2.0462,-9.0452,-11.067,-3.0569,-7.7504,-1.8211
-8.9109,-6.1279,-13.068,3.9409,5.7605,-3.1779,-4.0609,4.8845,3.0303,3.9409,5.7605,-3.9409,18.396999,15.829,-3.0151,-0.06601,-6.0302,-7.0667,-2.0813,-3.8095,-2.7967
-9.901,-9.1582,-13.068,1.9704,4.7896,-8.3592,-6.0914,0.92409,-4.0404,1.9704,4.7896,-5.9113,18.396999,8.9327,-2.0101,-5.0165,-8.0402,-2.0667,-6.9593,-2.8243,-9.626
-3.9604,-11.178,-12.073,-1.9704,1.877,-8.3592,-8.1218,-0.06601,-10.101,-1.9704,1.877,-7.8818,10.705,-0.91954,-3.0151,-10.957,-10.05,-0.06667,-12.813,-2.8243,-17.431
-2.9703,-14.209,-13.068,0.98522,0.90615,-6.2867,-8.1218,3.8944,-11.111,0.98522,0.90615,-5.9113,-13.333,-19.639,-14.07,-18.878,-19.094999,-4.0667,-16.715,-13.662,-25.236
-9.901,-16.229,-16.052999,-0.98522,0.90615,-4.2142,-7.1066,7.8548,-10.101,-0.98522,0.90615,-5.9113,-41.217999,-40.327999,-26.131001,-27.789,-30.150999,-6.0667,-17.691,-24.499001,-30.114
-14.851,-18.249001,-19.038,3.9409,2.8479,-3.1779,-6.0914,5.8746,-10.101,3.9409,2.8479,-2.9557,-64.294998,-61.018002,-35.175999,-34.719002,-39.195999,-6.0667,-19.642,-32.381001,-34.015999
-8.9109,-13.199,-15.058,6.8966,7.7023,0.96718,-2.0305,5.8746,-12.121,6.8966,7.7023,-0.98522,-60.449001,-60.033001,-28.141001,-30.759001,-35.175999,-8.0667,-12.813,-25.483999,-28.163
-9.901,-11.178,-13.068,0.98522,-0.06472,-6.2867,-7.1066,4.8845,-8.0808,0.98522,-0.06472,-4.9261,-35.449001,-38.358002,-16.08,-20.858,-25.125999,-4.0667,-6.9593,-13.662,-17.431
-6.9307,-7.138,-9.0879,-6.8966,-3.9482,-10.432,-9.1371,1.9142,-3.0303,-6.8966,-3.9482,-10.837,-2.7564,-3.8752,-1.005,-5.0165,-9.0452,-3.0667,-1.1057,1.1166,-0.84553
-3.9604,-3.0976,-5.1078,-5.9113,-3.9482,-14.577,-11.168,-4.0264,-4.0404,-5.9113,-3.9482,-11.823,21.282,20.754999,9.0452,6.8647,2.0101,-2.0667,3.7724,9.9836,10.862
-5.9406,-4.1077,-6.1028,-6.8966,-2.9773,-13.541,-10.152,-1.0561,-5.0505,-6.8966,-2.9773,-12.808,29.936001,27.652,9.0452,8.8449,4.0201,0.93333,0.84553,8.0131,8.9106
-4.9505,-8.1481,-7.0978,-0.98522,-1.0356,-9.3955,-10.152,6.8647,-8.0808,-0.98522,-1.0356,-7.8818,25.128,15.829,3.0151,1.9142,-1.005,-1.0667,-5.9837,2.1018,-2.7967
-5.9406,-9.1582,-7.0978,4.9261,3.8188,0.96718,-5.0761,4.8845,-8.0808,4.9261,3.8188,-2.9557,15.513,1.0509,-2.0101,-6.9967,-8.0402,-1.0667,-8.9106,-1.8391,-14.504
-3.9604,-9.1582,-6.1028,7.8818,4.7896,3.0397,-4.0609,6.8647,-3.0303,7.8818,4.7896,0.98522,-0.83333,-14.713,-9.0452,-14.917,-15.075,-6.0667,-8.9106,-7.7504,-20.358
-8.9109,-13.199,-10.083,-0.98522,-1.0356,-2.1416,-7.1066,-2.0462,-5.0505,-0.98522,-1.0356,-4.9261,-19.103001,-31.461,-15.075,-23.827999,-24.121,-11.067,-10.862,-11.691,-24.26
-17.822001,-18.249001,-15.058,-5.9113,-4.9191,-8.3592,-13.198,-4.0264,-9.0909,-5.9113,-4.9191,-10.837,-38.333,-48.209999,-23.115999,-30.759001,-32.160999,-11.067,-13.789,-18.587999,-28.163
-14.851,-12.189,-11.078,-1.9704,-0.06472,-5.2504,-7.1066,2.9043,-5.0505,-1.9704,-0.06472,-5.9113,-45.063999,-46.240002,-21.106001,-22.837999,-28.141001,-8.0667,-5.9837,-18.587999,-17.431
-12.871,-6.1279,-8.0929,-1.9704,-0.06472,-7.323,-4.0609,-1.0561,-5.0505,-1.9704,-0.06472,-3.9409,-40.256001,-30.476,-16.08,-11.947,-19.094999,-8.0667,1.8211,-16.617001,-5.7236
-11.881,-3.0976,-6.1028,0.98522,1.877,-7.323,-3.0457,-0.06601,-3.0303,0.98522,1.877,-3.9409,-23.91,-11.757,-10.05,-4.0264,-12.06,-10.067,3.7724,-12.677,0.13008
-6.9307,0.94276,-2.1227,-0.98522,1.877,-7.323,-1.0152,-4.0264,8.0808,-0.98522,1.877,-3.9409,-1.7949,9.9179,-1.005,4.8845,-2.0101,-8.0667,5.7236,-3.8095,5.9837
-2.9703,1.9529,0.86235,2.9557,1.877,-3.1779,-1.0152,-1.0561,1.0101,2.9557,1.877,-0.98522,14.551,20.754999,4.0201,8.8449,3.0151,-0.06667,1.8211,2.1018,6.9593
1.9802,3.9731,4.8425,4.9261,2.8479,7.1848,3.0457,5.8746,0.0,4.9261,2.8479,4.9261,29.936001,27.652,10.05,12.805,8.0402,7.9333,6.6992,9.9836,9.8862
-3.9604,-1.0774,-2.1227,5.9113,4.7896,3.0397,1.0152,3.8944,5.0505,5.9113,4.7896,2.9557,19.358999,11.888,0.0,2.9043,-2.0101,-3.0667,5.7236,1.1166,2.0813
-0.9901,-0.06734,-1.1277,6.8966,8.6731,6.1485,7.1066,6.8647,9.0909,6.8966,8.6731,5.9113,8.7821,-2.89,0.0,-3.0363,-6.0302,1.9333,6.6992,4.0722,-2.7967
-0.9901,-4.1077,-3.1177,10.837,10.615,5.1123,5.0761,10.825,10.101,10.837,10.615,4.9261,-7.5641,-23.58,-5.0251,-12.937,-14.07,6.9333,0.84553,2.1018,-14.504
-10.891,-14.209,-13.068,4.9261,6.7314,-3.1779,-3.0457,-1.0561,-3.0303,4.9261,6.7314,-4.9261,-27.756001,-42.299,-15.075,-24.818001,-25.125999,-0.06667,-9.8862,-6.7652,-28.163
-5.9406,-9.1582,-10.083,3.9409,6.7314,-7.323,-3.0457,-5.0165,-2.0202,3.9409,6.7314,-4.9261,-27.756001,-35.402,-10.05,-17.888,-19.094999,-2.0667,-7.935,-5.78,-20.358
2.9703,-0.06734,-1.1277,8.867,12.557,4.076,5.0761,-1.0561,10.101,8.867,12.557,2.9557,-19.103001,-16.683001,0.0,-5.0165,-7.0352,1.9333,-1.1057,-2.8243,-7.6748
0.9901,1.9529,1.8574,13.793,13.528,5.1123,6.0914,6.8647,8.0808,13.793,13.528,5.9113,-13.333,-0.91954,1.005,2.9043,0.0,3.9333,1.8211,-4.7947,2.0813
2.9703,5.9933,5.8375,14.778,13.528,9.2573,10.152,9.835,8.0808,14.778,13.528,8.867,0.12821,14.844,6.0302,10.825,7.0352,2.9333,5.7236,-0.85386,8.9106
6.9307,11.044,9.8176,17.733999,16.440001,13.402,13.198,8.8449,11.111,17.733999,16.440001,13.793,16.474001,25.681,13.065,16.766001,12.06,7.9333,5.7236,7.0279,13.789
0.9901,3.9731,2.8524,14.778,12.557,9.2573,7.1066,7.8548,4.0404,14.778,12.557,6.8966,13.59,20.754999,6.0302,8.8449,5.0251,2.9333,0.84553,2.1018,6.9593
-2.9703,0.94276,-1.1277,6.8966,8.6731,2.0035,4.0609,1.9142,4.0404,6.8966,8.6731,2.9557,6.859,8.9327,0.0,1.9142,-3.0151,0.93333,-1.1057,-0.85386,0.13008
-1.9802,1.9529,0.86235,10.837,10.615,6.1485,8.1218,3.8944,7.0707,10.837,10.615,5.9113,0.12821,-3.8752,-5.0251,-4.0264,-8.0402,2.9333,-0.13008,-1.8391,-4.748
-3.9604,-3.0976,-3.1177,7.8818,9.644,2.0035,6.0914,-0.06601,5.0505,7.8818,9.644,2.9557,-12.372,-22.594,-11.055,-13.927,-16.08,0.93333,-5.0081,-5.78,-13.528
-5.9406,-8.1481,-5.1078,9.8522,6.7314,-1.1054,2.0305,2.9043,2.0202,9.8522,6.7314,0.98522,-21.025999,-35.402,-15.075,-19.868,-21.106001,-1.0667,-9.8862,-9.7209,-22.309
-3.9604,-9.1582,-4.1128,6.8966,5.7605,0.96718,1.0152,2.9043,1.0101,6.8966,5.7605,0.98522,-21.987,-31.461,-11.055,-17.888,-17.084999,-2.0667,-11.837,-8.7356,-22.309
-2.9703,-4.1077,-0.13267,8.867,7.7023,0.96718,4.0609,0.92409,-4.0404,8.867,7.7023,3.9409,-14.295,-17.667999,-5.0251,-7.9868,-8.0402,-2.0667,-8.9106,-6.7652,-14.504
-1.9802,2.963,2.8524,6.8966,8.6731,3.0397,8.1218,2.9043,-3.0303,6.8966,8.6731,4.9261,-8.5256,-2.89,-1.005,0.92409,0.0,0.93333,-4.0325,-4.7947,-3.7724
4.9505,9.0236,10.813,12.808,12.557,9.2573,11.168,8.8449,9.0909,12.808,12.557,10.837,0.12821,10.903,5.0251,9.835,8.0402,3.9333,3.7724,-1.8391,6.9593
2.9703,7.0034,8.8226,8.867,13.528,7.1848,11.168,5.8746,10.101,8.867,13.528,7.8818,2.0513,16.813999,4.0201,10.825,8.0402,-1.0667,4.748,-1.8391,9.8862
-8.9109,-3.0976,-1.1277,4.9261,6.7314,-4.2142,2.0305,-4.0264,3.0303,4.9261,6.7314,0.98522,-3.7179,6.9622,-9.0452,0.92409,-4.0201,-8.0667,-4.0325,-10.706,2.0813
-15.842,-9.1582,-9.0879,2.9557,4.7896,-4.2142,1.0152,-5.0165,0.0,2.9557,4.7896,-2.9557,-7.5641,-4.8604,-17.084999,-9.967,-14.07,-4.0667,-6.9593,-13.662,-6.6992
-18.812,-16.229,-14.063,2.9557,0.90615,-7.323,-5.0761,-2.0462,-3.0303,2.9557,0.90615,-4.9261,-16.218,-20.624001,-23.115999,-20.858,-24.121,-6.0667,-11.837,-14.647,-17.431
-14.851,-20.268999,-17.048,3.9409,-0.06472,-2.1416,-6.0914,2.9043,-12.121,3.9409,-0.06472,-5.9113,-21.987,-30.476,-22.111,-27.789,-30.150999,-7.0667,-17.691,-9.7209,-22.309
-19.802,-26.33,-23.018,2.9557,-4.9191,-5.2504,-14.213,-1.0561,-14.141,2.9557,-4.9191,-9.8522,-21.025999,-34.417,-21.106001,-31.749001,-32.160999,-7.0667,-21.593,-6.7652,-26.211
-19.802,-25.32,-23.018,0.98522,-5.89,-5.2504,-15.228,3.8944,-9.0909,0.98522,-5.89,-10.837,-12.372,-24.565001,-15.075,-26.799,-27.136,-3.0667,-18.667,-2.8243,-22.309
-14.851,-19.259001,-17.048,2.9557,-2.9773,-2.1416,-10.152,10.825,-8.0808,2.9557,-2.9773,-6.8966,-6.6026,-16.683001,-8.0402,-18.878,-18.09,-6.0667,-13.789,0.13136,-18.407
-14.851,-19.259001,-17.048,1.9704,-4.9191,-4.2142,-10.152,0.92409,-10.101,1.9704,-4.9191,-7.8818,-8.5256,-14.713,-10.05,-17.888,-17.084999,-5.0667,-14.764,-4.7947,-18.407
-10.891,-15.219,-14.063,3.9409,-2.9773,-3.1779,-8.1218,1.9142,-10.101,3.9409,-2.9773,-6.8966,-7.5641,-6.8309,-7.0352,-11.947,-12.06,-0.06667,-12.813,-5.78,-11.577
-9.901,-13.199,-14.063,4.9261,-2.0065,-2.1416,-7.1066,3.8944,-7.0707,4.9261,-2.0065,-5.9113,-8.5256,-0.91954,-9.0452,-7.9868,-10.05,-0.06667,-11.837,-9.7209,-5.7236
-13.861,-15.219,-15.058,0.98522,-2.0065,-2.1416,-7.1066,-2.0462,-8.0808,0.98522,-2.0065,-5.9113,-13.333,-4.8604,-13.065,-10.957,-13.065,-4.0667,-14.764,-13.662,-9.626
-9.901,-11.178,-13.068,3.9409,0.90615,-3.1779,-4.0609,0.92409,-4.0404,3.9409,0.90615,-3.9409,-11.41,-6.8309,-12.06,-10.957,-13.065,-5.0667,-11.837,-9.7209,-8.6504
-13.861,-15.219,-17.048,-1.9704,-2.9773,-8.3592,-7.1066,-3.0363,-3.0303,-1.9704,-2.9773,-9.8522,-13.333,-15.698,-15.075,-16.898001,-19.094999,-8.0667,-14.764,-8.7356,-15.48
-17.822001,-20.268999,-24.013,-2.9557,-6.8608,-12.504,-13.198,-1.0561,-8.0808,-2.9557,-6.8608,-14.778,-18.141001,-25.549999,-20.101,-24.818001,-27.136,-10.067,-18.667,-10.706,-22.309
-20.792,-22.290001,-27.993,-4.9261,-6.8608,-13.541,-12.183,-1.0561,-9.0909,-4.9261,-6.8608,-17.733999,-21.025999,-29.490999,-20.101,-27.789,-29.146,-10.067,-16.715,-11.691,-25.236
-23.761999,-20.268999,-26.997999,-4.9261,-6.8608,-18.722,-13.198,-2.0462,-1.0101,-4.9261,-6.8608,-17.733999,-21.025999,-27.521,-21.106001,-25.809,-28.141001,-12.067,-16.715,-15.632,-23.285
-21.782,-13.199,-22.023001,-8.867,-7.8317,-18.722,-10.152,-14.917,0.0,-8.867,-7.8317,-16.749001,-18.141001,-17.667999,-18.09,-16.898001,-19.094999,-11.067,-9.8862,-16.617001,-16.455
-17.822001,-6.1279,-13.068,-3.9409,-4.9191,-16.649,-6.0914,-15.908,0.0,-3.9409,-4.9191,-10.837,-10.449,-7.8161,-12.06,-7.9868,-10.05,-11.067,-3.0569,-14.647,-7.6748
-7.9208,-0.06734,-5.1078,1.9704,2.8479,-5.2504,2.0305,-14.917,8.0808,1.9704,2.8479,-2.9557,-7.5641,-2.89,-8.0402,-2.0462,-4.0201,-9.0667,1.8211,-9.7209,-2.7967
-10.891,-2.0875,-5.1078,0.0,0.90615,-8.3592,0.0,-11.947,6.0606,0.0,0.90615,-3.9409,-10.449,-6.8309,-10.05,-5.0165,-6.0302,-10.067,-1.1057,-11.691,-5.7236
-6.9307,-3.0976,-3.1177,-2.9557,-1.0356,-5.2504,0.0,-3.0363,6.0606,-2.9557,-1.0356,-3.9409,-10.449,-6.8309,-10.05,-5.0165,-6.0302,-18.066999,-1.1057,-11.691,-5.7236
-5.9406,2.963,4.8425,0.98522,3.8188,-1.1054,6.0914,-2.0462,10.101,0.98522,3.8188,4.9261,-8.5256,-3.8752,-7.0352,-0.06601,-1.005,-11.067,1.8211,-8.7356,-2.7967
-2.9703,5.9933,9.8176,2.9557,4.7896,2.0035,10.152,-8.9769,8.0808,2.9557,4.7896,9.8522,-4.6795,-5.8456,-4.0201,-0.06601,1.005,-7.0667,0.84553,-5.78,-3.7724
-2.9703,2.963,10.813,1.9704,4.7896,3.0397,9.1371,-6.9967,7.0707,1.9704,4.7896,9.8522,-0.83333,-5.8456,-1.005,-2.0462,1.005,-5.0667,0.84553,-2.8243,-5.7236
-3.9604,-1.0774,6.8325,0.0,1.877,0.96718,5.0761,-7.9868,0.0,0.0,1.877,4.9261,2.0513,-5.8456,-1.005,-4.0264,0.0,-3.0667,-2.0813,0.13136,-5.7236
1.9802,0.94276,8.8226,1.9704,2.8479,5.1123,6.0914,0.92409,10.101,1.9704,2.8479,6.8966,9.7436,3.0213,8.0402,0.92409,5.0251,5.9333,3.7724,10.969,0.13008
6.9307,2.963,10.813,0.98522,1.877,4.076,7.1066,-2.0462,13.131,0.98522,1.877,8.867,10.705,4.9918,12.06,4.8845,10.05,7.9333,5.7236,13.924,2.0813
5.9406,-0.06734,8.8226,-3.9409,-1.0356,4.076,5.0761,-0.06601,7.0707,-3.9409,-1.0356,5.9113,8.7821,3.0213,13.065,3.8944,9.0452,7.9333,0.84553,13.924,-1.8211
2.9703,-4.1077,3.8474,2.9557,2.8479,2.0035,3.0457,0.92409,7.0707,2.9557,2.8479,5.9113,4.9359,-0.91954,6.0302,-0.06601,5.0251,8.9333,-4.0325,8.9984,-5.7236
-5.9406,-12.189,-5.1078,-1.9704,0.90615,-1.1054,1.0152,4.8845,-1.0101,-1.9704,0.90615,0.0,-8.5256,-9.7865,-5.0251,-8.9769,-5.0251,5.9333,-7.935,-0.85386,-11.577
-9.901,-13.199,-7.0978,1.9704,1.877,0.96718,-1.0152,5.8746,1.0101,1.9704,1.877,0.98522,-13.333,-10.772,-10.05,-11.947,-10.05,2.9333,-3.0569,-6.7652,-10.602
-10.891,-11.178,-8.0929,0.0,2.8479,-1.1054,2.0305,-0.06601,5.0505,0.0,2.8479,0.98522,-12.372,-7.8161,-11.055,-10.957,-9.0452,0.93333,1.8211,-6.7652,-6.6992
-14.851,-13.199,-11.078,-2.9557,-1.0356,-7.323,-3.0457,-4.0264,6.0606,-2.9557,-1.0356,-1.9704,-8.5256,-7.8161,-10.05,-12.937,-10.05,-3.0667,-0.13008,-3.8095,-5.7236
-11.881,-19.259001,-17.048,-7.8818,-6.8608,-6.2867,-8.1218,-0.06601,2.0202,-7.8818,-6.8608,-9.8522,-5.641,-7.8161,-10.05,-16.898001,-14.07,-11.067,-4.0325,-2.8243,-6.6992
-19.802,-22.290001,-22.023001,-7.8818,-8.8026,-12.504,-13.198,-1.0561,-4.0404,-7.8818,-8.8026,-13.793,-4.6795,-8.8013,-12.06,-16.898001,-16.08,-2.0667,-7.935,-2.8243,-5.7236
-24.752001,-23.299999,-25.007999,-11.823,-9.7735,-16.649,-14.213,-11.947,-5.0505,-11.823,-9.7735,-17.733999,-6.6026,-7.8161,-14.07,-15.908,-17.084999,-0.06667,-9.8862,-4.7947,-5.7236
-12.871,-13.199,-16.052999,-1.9704,-1.0356,-9.3955,-8.1218,-8.9769,-3.0303,-1.9704,-1.0356,-8.867,-0.83333,4.0066,-5.0251,-5.0165,-7.0352,3.9333,-1.1057,0.13136,5.0081
-7.9208,-9.1582,-10.083,-1.9704,-2.9773,-5.2504,-4.0609,-2.0462,-3.0303,-1.9704,-2.9773,-6.8966,4.9359,7.9475,1.005,-1.0561,0.0,6.9333,1.8211,5.0575,4.0325
-1.9802,-8.1481,-6.1028,-7.8818,-9.7735,-4.2142,-5.0761,4.8845,-4.0404,-7.8818,-9.7735,-6.8966,6.859,4.9918,4.0201,-2.0462,2.0101,5.9333,-1.1057,7.0279,-1.8211
-2.9703,-8.1481,-4.1128,-4.9261,-7.8317,-3.1779,-5.0761,0.92409,-5.0505,-4.9261,-7.8317,-4.9261,6.859,0.06568,2.0101,-3.0363,2.0101,4.9333,-3.0569,6.0427,-5.7236
-4.9505,-4.1077,-2.1227,-2.9557,-6.8608,-4.2142,-3.0457,-2.0462,-6.0606,-2.9557,-6.8608,-3.9409,7.8205,2.0361,2.0101,-2.0462,3.0151,5.9333,0.84553,7.0279,-2.7967
-0.9901,-1.0774,0.86235,-1.9704,-5.89,-3.1779,-5.0761,-5.0165,-3.0303,-1.9704,-5.89,-3.9409,3.9744,2.0361,1.005,-1.0561,2.0101,-0.06667,2.7967,5.0575,1.1057
-1.9802,-1.0774,1.8574,-4.9261,-8.8026,-1.1054,-5.0761,-7.9868,-8.0808,-4.9261,-8.8026,-5.9113,-0.83333,0.06568,1.005,-2.0462,1.005,1.9333,-0.13008,4.0722,0.13008
7.9208,9.0236,11.808,1.9704,-2.0065,5.1123,3.0457,-0.06601,-1.0101,1.9704,-2.0065,3.9409,3.0128,5.977,8.0402,5.8746,9.0452,10.933,6.6992,8.9984,9.8862
15.842,11.044,17.778,1.9704,-0.06472,11.33,6.0914,5.8746,9.0909,1.9704,-0.06472,7.8818,8.7821,12.874,15.075,11.815,16.08,11.933,11.577,13.924,15.74
15.842,10.034,16.783001,0.98522,-3.9482,9.2573,3.0457,3.8944,3.0303,0.98522,-3.9482,7.8818,13.59,16.813999,16.08,13.795,17.084999,11.933,11.577,13.924,17.691
13.861,10.034,15.788,-2.9557,-6.8608,9.2573,2.0305,1.9142,0.0,-2.9557,-6.8608,4.9261,21.282,21.740999,18.09,14.785,19.094999,13.933,11.577,18.851,16.715
13.861,8.0135,14.793,-1.9704,-6.8608,6.1485,0.0,2.9043,-4.0404,-1.9704,-6.8608,2.9557,27.051001,23.711,17.084999,14.785,19.094999,11.933,9.626,19.836,14.764
13.861,9.0236,14.793,-3.9409,-5.89,7.1848,2.0305,-0.06601,0.0,-3.9409,-5.89,1.9704,28.013,24.695999,19.094999,16.766001,21.106001,12.933,10.602,19.836,12.813
12.871,11.044,15.788,-2.9557,-5.89,7.1848,2.0305,6.8647,3.0303,-2.9557,-5.89,3.9409,22.243999,18.785,18.09,16.766001,23.115999,20.933001,10.602,18.851,11.837
13.861,10.034,14.793,0.98522,-2.0065,11.33,6.0914,12.805,2.0202,0.98522,-2.0065,5.9113,13.59,11.888,15.075,13.795,20.101,21.933001,10.602,16.879999,10.862
10.891,7.0034,12.803,4.9261,-0.06472,9.2573,5.0761,13.795,3.0303,4.9261,-0.06472,6.8966,3.9744,4.0066,9.0452,8.8449,14.07,14.933,8.6504,9.9836,6.9593
5.9406,2.963,6.8325,0.0,-3.9482,7.1848,2.0305,6.8647,3.0303,0.0,-3.9482,1.9704,-6.6026,-2.89,1.005,2.9043,6.0302,10.933,7.6748,3.087,4.0325
-0.9901,-0.06734,1.8574,-2.9557,-4.9191,2.0035,-1.0152,4.8845,0.0,-2.9557,-4.9191,-0.98522,-10.449,-4.8604,-3.0151,-1.0561,1.005,7.9333,2.7967,0.13136,1.1057
4.9505,4.9832,4.8425,0.0,-1.0356,5.1123,3.0457,7.8548,-5.0505,0.0,-1.0356,0.98522,6.859,6.9622,6.0302,4.8845,7.0352,10.933,4.748,8.9984,5.0081
9.901,7.0034,6.8325,0.98522,-1.0356,6.1485,2.0305,6.8647,0.0,0.98522,-1.0356,1.9704,20.320999,18.785,13.065,10.825,14.07,8.9333,8.6504,15.895,11.837
9.901,4.9832,5.8375,0.98522,-1.0356,4.076,0.0,6.8647,5.0505,0.98522,-1.0356,1.9704,24.167,23.711,14.07,13.795,16.08,12.933,8.6504,15.895,17.691
11.881,5.9933,7.8275,0.98522,0.90615,6.1485,4.0609,6.8647,4.0404,0.98522,0.90615,4.9261,25.128,24.695999,16.08,15.776,18.09,13.933,7.6748,16.879999,17.691
10.891,9.0236,9.8176,6.8966,3.8188,7.1848,6.0914,10.825,7.0707,6.8966,3.8188,8.867,21.282,18.785,13.065,13.795,18.09,14.933,7.6748,13.924,13.789
9.901,5.9933,10.813,6.8966,3.8188,9.2573,5.0761,15.776,6.0606,6.8966,3.8188,8.867,9.7436,8.9327,10.05,8.8449,15.075,15.933,3.7724,9.9836,5.0081
13.861,3.9731,10.813,7.8818,2.8479,10.294,3.0457,12.805,0.0,7.8818,2.8479,10.837,3.0128,1.0509,9.0452,5.8746,13.065,13.933,-1.1057,8.9984,-1.8211
11.881,-0.06734,7.8275,5.9113,2.8479,10.294,1.0152,10.825,-2.0202,5.9113,2.8479,7.8818,-3.7179,-6.8309,7.0352,0.92409,9.0452,5.9333,-5.0081,7.0279,-7.6748
9.901,0.94276,6.8325,4.9261,1.877,2.0035,-1.0152,9.835,1.0101,4.9261,1.877,5.9113,-1.7949,-6.8309,5.0251,0.92409,7.0352,6.9333,-2.0813,6.0427,-4.748
12.871,4.9832,9.8176,2.9557,1.877,3.0397,1.0152,5.8746,3.0303,2.9557,1.877,4.9261,4.9359,3.0213,7.0352,4.8845,9.0452,3.9333,4.748,7.0279,3.0569
2.9703,1.9529,5.8375,0.0,-2.0065,-3.1779,-4.0609,1.9142,0.0,0.0,-2.0065,0.98522,3.9744,3.0213,-1.005,-0.06601,5.0251,2.9333,1.8211,0.13136,1.1057
8.9109,4.9832,8.8226,0.0,-1.0356,3.0397,-1.0152,8.8449,4.0404,0.0,-1.0356,2.9557,16.474001,14.844,7.0352,4.8845,11.055,11.933,3.7724,8.0131,5.0081
20.792,13.064,16.783001,5.9113,4.7896,9.2573,5.0761,15.776,11.111,5.9113,4.7896,9.8522,27.051001,25.681,18.09,14.785,21.106001,12.933,10.602,15.895,12.813
17.822001,11.044,12.803,2.9557,1.877,8.2211,3.0457,9.835,2.0202,2.9557,1.877,5.9113,23.205,23.711,17.084999,13.795,20.101,10.933,8.6504,14.91,10.862
10.891,7.0034,8.8226,0.0,-1.0356,-0.06909,-2.0305,6.8647,2.0202,0.0,-1.0356,1.9704,15.513,18.785,13.065,11.815,16.08,11.933,6.6992,13.924,10.862
6.9307,2.963,5.8375,-1.9704,-1.0356,-2.1416,-3.0457,3.8944,7.0707,-1.9704,-1.0356,0.0,2.0513,6.9622,3.0151,4.8845,7.0352,5.9333,3.7724,7.0279,5.9837
0.0,1.9529,4.8425,-2.9557,-2.0065,-3.1779,-2.0305,-0.06601,2.0202,-2.9557,-2.0065,1.9704,-10.449,-8.8013,-6.0302,-5.0165,-1.005,1.9333,0.84553,-1.8391,-4.748
1.9802,4.9832,9.8176,0.0,0.90615,0.96718,2.0305,0.92409,1.0101,0.0,0.90615,5.9113,-15.256,-22.594,-8.0402,-9.967,-3.0151,-0.06667,-0.13008,-6.7652,-14.504
9.901,14.074,17.778,0.98522,3.8188,6.1485,9.1371,6.8647,6.0606,0.98522,3.8188,10.837,-4.6795,-17.667999,2.0101,-2.0462,7.0352,4.9333,5.7236,0.13136,-10.602
15.842,18.114,19.768,0.98522,0.90615,7.1848,10.152,7.8548,6.0606,0.98522,0.90615,12.808,12.628,2.0361,13.065,10.825,17.084999,10.933,9.626,8.9984,3.0569
15.842,15.084,15.788,-1.9704,-2.9773,7.1848,6.0914,8.8449,2.0202,-1.9704,-2.9773,7.8818,26.09,20.754999,20.101,17.756001,22.111,14.933,10.602,16.879999,12.813
18.812,11.044,11.808,0.0,-3.9482,5.1123,2.0305,7.8548,-1.0101,0.0,-3.9482,6.8966,34.743999,34.548,23.115999,19.736,22.111,7.9333,6.6992,22.791,19.642
11.881,4.9832,7.8275,-3.9409,-4.9191,2.0035,0.0,0.92409,-4.0404,-3.9409,-4.9191,1.9704,30.896999,34.548,17.084999,13.795,15.075,9.9333,3.7724,19.836,17.691
4.9505,1.9529,5.8375,-1.9704,-2.9773,-1.1054,-1.0152,-3.0363,0.0,-1.9704,-2.9773,1.9704,16.474001,20.754999,8.0402,6.8647,7.0352,11.933,5.7236,11.954,11.837
1.9802,0.94276,3.8474,-4.9261,-2.9773,-1.1054,0.0,-0.06601,3.0303,-4.9261,-2.9773,0.0,-7.5641,-1.9048,-2.0101,-2.0462,-2.0101,5.9333,6.6992,1.1166,2.0813
4.9505,4.9832,5.8375,-0.98522,-1.0356,2.0035,2.0305,4.8845,7.0707,-0.98522,-1.0356,3.9409,-20.063999,-17.667999,-7.0352,-6.9967,-6.0302,3.9333,6.6992,-5.78,-5.7236
6.9307,9.0236,8.8226,-1.9704,-1.0356,5.1123,5.0761,5.8746,6.0606,-1.9704,-1.0356,3.9409,-18.141001,-17.667999,-4.0201,-5.0165,-3.0151,4.9333,8.6504,-4.7947,-5.7236
8.9109,11.044,10.813,-0.98522,-0.06472,5.1123,5.0761,5.8746,-1.0101,-0.98522,-0.06472,5.9113,-8.5256,-9.7865,2.0101,2.9043,3.0151,4.9333,6.6992,-0.85386,-0.84553
12.871,11.044,12.803,-0.98522,-0.06472,7.1848,6.0914,4.8845,3.0303,-0.98522,-0.06472,5.9113,7.8205,4.9918,13.065,11.815,11.055,6.9333,8.6504,9.9836,7.935
8.9109,4.9832,6.8325,-2.9557,-3.9482,3.0397,-2.0305,10.825,5.0505,-2.9557,-3.9482,0.98522,14.551,10.903,13.065,10.825,9.0452,11.933,5.7236,12.939,7.935
6.9307,0.94276,4.8425,-1.9704,-2.9773,4.076,-3.0457,12.805,4.0404,-1.9704,-2.9773,-0.98522,15.513,10.903,9.0452,5.8746,5.0251,11.933,2.7967,10.969,3.0569
10.891,9.0236,11.808,1.9704,2.8479,8.2211,4.0609,13.795,7.0707,1.9704,2.8479,5.9113,16.474001,15.829,9.0452,6.8647,7.0352,12.933,7.6748,10.969,5.0081
15.842,13.064,15.788,3.9409,3.8188,12.366,9.1371,12.805,10.101,3.9409,3.8188,8.867,9.7436,13.859,7.0352,7.8548,8.0402,13.933,10.602,8.0131,5.0081
11.881,11.044,13.798,0.98522,0.90615,9.2573,6.0914,11.815,11.111,0.98522,0.90615,5.9113,0.12821,7.9475,4.0201,5.8746,7.0352,12.933,10.602,5.0575,4.0325
11.881,9.0236,10.813,0.98522,-1.0356,7.1848,2.0305,11.815,5.0505,0.98522,-1.0356,2.9557,-2.7564,4.9918,5.0251,5.8746,6.0302,11.933,10.602,3.087,6.9593
12.871,8.0135,8.8226,-2.9557,-2.9773,8.2211,2.0305,12.805,1.0101,-2.9557,-2.9773,1.9704,-0.83333,4.9918,9.0452,7.8548,6.0302,12.933,7.6748,7.0279,9.8862
8.9109,0.94276,0.86235,-4.9261,-5.89,0.96718,-5.0761,5.8746,-2.0202,-4.9261,-5.89,-3.9409,0.12821,3.0213,5.0251,4.8845,0.0,8.9333,1.8211,5.0575,7.935
7.9208,0.94276,0.86235,-4.9261,-4.9191,2.0035,-4.0609,9.835,0.0,-4.9261,-4.9191,-3.9409,5.8974,5.977,5.0251,4.8845,0.0,9.9333,3.7724,8.0131,7.935
7.9208,5.9933,4.8425,0.98522,-1.0356,4.076,1.0152,7.8548,6.0606,0.98522,-1.0356,1.9704,11.667,6.9622,6.0302,7.8548,3.0151,5.9333,9.626,8.9984,7.935
7.9208,13.064,9.8176,5.9113,5.7605,9.2573,8.1218,8.8449,14.141,5.9113,5.7605,5.9113,16.474001,12.874,9.0452,12.805,10.05,6.9333,15.48,10.969,8.9106
13.861,16.094,16.783001,10.837,8.6731,12.366,9.1371,13.795,14.141,10.837,8.6731,10.837,15.513,14.844,12.06,15.776,15.075,6.9333,13.528,7.0279,7.935
19.802,16.094,20.763,10.837,9.644,16.511,11.168,14.785,11.111,10.837,9.644,11.823,13.59,16.813999,17.084999,16.766001,20.101,10.933,8.6504,7.0279,6.9593
25.743,22.155001,27.728001,16.749001,13.528,21.693001,15.228,15.776,8.0808,16.749001,13.528,19.704,19.358999,25.681,23.115999,24.686001,27.136,17.933001,12.553,12.939,17.691
21.782,17.104,21.757999,13.793,13.528,20.656,14.213,13.795,8.0808,13.793,13.528,16.749001,10.705,19.77,15.075,19.736,18.09,11.933,10.602,8.0131,16.715
15.842,13.064,15.788,15.764,16.440001,14.439,11.168,13.795,14.141,15.764,16.440001,14.778,3.0128,14.844,7.0352,13.795,9.0452,7.9333,8.6504,5.0575,16.715
11.881,11.044,10.813,12.808,15.469,11.33,9.1371,5.8746,12.121,12.808,15.469,7.8818,0.12821,8.9327,3.0151,9.835,3.0151,0.93333,11.577,3.087,14.764
10.891,15.084,11.808,10.837,12.557,8.2211,11.168,6.8647,14.141,10.837,12.557,8.867,4.9359,8.9327,6.0302,10.825,3.0151,3.9333,18.407,8.0131,16.715
4.9505,13.064,9.8176,10.837,14.498,8.2211,12.183,1.9142,12.121,10.837,14.498,8.867,6.859,7.9475,5.0251,8.8449,3.0151,4.9333,13.528,7.0279,11.837
9.901,14.074,14.793,14.778,18.382,14.439,13.198,5.8746,12.121,14.778,18.382,12.808,7.8205,5.977,10.05,9.835,10.05,5.9333,7.6748,5.0575,5.9837
17.822001,16.094,20.763,18.719,21.294001,17.547001,15.228,12.805,14.141,18.719,21.294001,15.764,11.667,5.977,17.084999,13.795,19.094999,5.9333,5.7236,7.0279,2.0813
12.871,12.054,16.783001,10.837,15.469,8.2211,10.152,6.8647,8.0808,10.837,15.469,8.867,7.8205,0.06568,15.075,11.815,17.084999,1.9333,0.84553,2.1018,-6.6992
8.9109,12.054,15.788,9.8522,13.528,8.2211,11.168,5.8746,8.0808,9.8522,13.528,8.867,3.0128,-0.91954,9.0452,11.815,13.065,3.9333,4.748,-0.85386,-2.7967
3.9604,13.064,12.803,9.8522,14.498,10.294,12.183,6.8647,12.121,9.8522,14.498,9.8522,-9.4872,-2.89,0.0,8.8449,4.0201,3.9333,10.602,-5.78,2.0813
6.9307,11.044,7.8275,7.8818,9.644,7.1848,8.1218,5.8746,12.121,7.8818,9.644,7.8818,-20.063999,-8.8013,-6.0302,2.9043,-5.0251,0.93333,11.577,-7.7504,5.0081
0.9901,2.963,-1.1277,0.0,3.8188,4.076,2.0305,4.8845,7.0707,0.0,3.8188,0.0,-23.91,-11.757,-9.0452,-5.0165,-15.075,4.9333,8.6504,-4.7947,3.0569
-2.9703,-2.0875,-7.0978,1.9704,2.8479,-1.1054,-2.0305,5.8746,2.0202,1.9704,2.8479,-1.9704,-13.333,-6.8309,-7.0352,-7.9868,-16.08,6.9333,4.748,1.1166,3.0569
-2.9703,-5.1178,-8.0929,2.9557,4.7896,0.96718,-1.0152,2.9043,1.0101,2.9557,4.7896,-2.9557,1.0897,1.0509,0.0,-6.0066,-10.05,4.9333,0.84553,7.0279,3.0569
-3.9604,-5.1178,-6.1028,5.9113,4.7896,0.96718,-3.0457,8.8449,0.0,5.9113,4.7896,-0.98522,7.8205,4.0066,1.005,-3.0363,-6.0302,2.9333,-3.0569,6.0427,1.1057
1.9802,-3.0976,-2.1227,3.9409,2.8479,3.0397,-1.0152,8.8449,-2.0202,3.9409,2.8479,0.0,13.59,6.9622,7.0352,2.9043,2.0101,-1.0667,-3.0569,7.0279,0.13008
2.9703,0.94276,1.8574,6.8966,4.7896,3.0397,1.0152,6.8647,0.0,6.8966,4.7896,3.9409,12.628,4.0066,7.0352,5.8746,5.0251,1.9333,-1.1057,2.1018,-3.7724
5.9406,2.963,3.8474,8.867,8.6731,10.294,6.0914,11.815,3.0303,8.867,8.6731,7.8818,2.0513,-3.8752,4.0201,3.8944,3.0151,4.9333,-0.13008,-3.8095,-8.6504
6.9307,2.963,4.8425,11.823,8.6731,11.33,6.0914,13.795,4.0404,11.823,8.6731,9.8522,-8.5256,-12.742,0.0,-1.0561,-1.005,5.9333,-0.13008,-8.7356,-13.528
11.881,1.9529,4.8425,12.808,9.644,13.402,7.1066,10.825,8.0808,12.808,9.644,9.8522,-21.987,-19.639,-5.0251,-7.9868,-8.0402,4.9333,-0.13008,-9.7209,-12.553
5.9406,-2.0875,-0.13267,10.837,8.6731,10.294,6.0914,8.8449,7.0707,10.837,8.6731,7.8818,-34.487,-28.506001,-11.055,-16.898001,-16.08,4.9333,-0.13008,-11.691,-15.48
-0.9901,-6.1279,-5.1078,6.8966,4.7896,7.1848,3.0457,4.8845,-4.0404,6.8966,4.7896,1.9704,-32.563999,-30.476,-12.06,-22.837999,-20.101,5.9333,-4.0325,-7.7504,-19.382
3.9604,-4.1077,-3.1177,1.9704,2.8479,4.076,0.0,9.835,-1.0101,1.9704,2.8479,-0.98522,-12.372,-13.727,-1.005,-16.898001,-14.07,8.9333,-3.0569,5.0575,-9.626
4.9505,-4.1077,-5.1078,-2.9557,-3.9482,-3.1779,-6.0914,4.8845,0.0,-2.9557,-3.9482,-5.9113,6.859,5.977,4.0201,-7.9868,-8.0402,8.9333,-0.13008,11.954,2.0813
7.9208,0.94276,-1.1277,-2.9557,-2.0065,0.96718,-3.0457,1.9142,3.0303,-2.9557,-2.0065,-4.9261,21.282,21.740999,10.05,5.8746,1.005,6.9333,4.748,13.924,11.837
15.842,14.074,10.813,8.867,6.7314,11.33,7.1066,10.825,7.0707,8.867,6.7314,6.8966,31.858999,30.608,18.09,19.736,14.07,10.933,10.602,16.879999,19.642
15.842,18.114,15.788,9.8522,9.644,13.402,11.168,10.825,8.0808,9.8522,9.644,8.867,28.974001,27.652,19.094999,23.695999,20.101,12.933,10.602,13.924,16.715
17.822001,15.084,16.783001,10.837,8.6731,14.439,10.152,5.8746,5.0505,10.837,8.6731,10.837,14.551,11.888,13.065,17.756001,16.08,8.9333,6.6992,5.0575,7.935
16.832001,12.054,14.793,9.8522,8.6731,16.511,11.168,11.815,5.0505,9.8522,8.6731,10.837,-0.83333,-3.8752,9.0452,10.825,11.055,10.933,4.748,0.13136,2.0813
9.901,8.0135,9.8176,10.837,8.6731,10.294,7.1066,12.805,5.0505,10.837,8.6731,9.8522,-19.103001,-17.667999,-3.0151,2.9043,1.005,4.9333,6.6992,-9.7209,-0.84553
10.891,9.0236,8.8226,5.9113,7.7023,11.33,9.1371,5.8746,7.0707,5.9113,7.7023,7.8818,-26.795,-18.653999,-4.0201,0.92409,-3.0151,3.9333,11.577,-9.7209,2.0813
12.871,14.074,12.803,8.867,8.6731,11.33,10.152,8.8449,8.0808,8.867,8.6731,11.823,-23.91,-12.742,-2.0101,3.8944,-2.0101,6.9333,13.528,-4.7947,9.8862
10.891,16.094,13.798,7.8818,9.644,13.402,13.198,6.8647,10.101,7.8818,9.644,11.823,-14.295,-2.89,0.0,7.8548,0.0,8.9333,16.455,-0.85386,14.764
12.871,18.114,17.778,7.8818,7.7023,11.33,11.168,6.8647,8.0808,7.8818,7.7023,11.823,6.859,15.829,10.05,16.766001,11.055,8.9333,18.407,8.0131,22.569
21.782,22.155001,21.757999,9.8522,9.644,17.547001,14.213,13.795,7.0707,9.8522,9.644,13.793,26.09,32.577999,22.111,25.677,23.115999,12.933,20.358,18.851,28.423
25.743,21.145,22.753,8.867,8.6731,17.547001,14.213,9.835,8.0808,8.867,8.6731,13.793,30.896999,33.563,25.125999,25.677,26.131001,8.9333,17.431,19.836,25.496
20.792,17.104,18.773001,5.9113,8.6731,13.402,12.183,5.8746,10.101,5.9113,8.6731,10.837,26.09,25.681,22.111,21.716,23.115999,11.933,14.504,16.879999,19.642
13.861,18.114,18.773001,5.9113,6.7314,10.294,11.168,8.8449,11.111,5.9113,6.7314,8.867,21.282,18.785,21.106001,22.705999,23.115999,16.933001,16.455,16.879999,17.691
16.832001,20.135,20.763,6.8966,7.7023,13.402,13.198,11.815,13.131,6.8966,7.7023,11.823,16.474001,13.859,18.09,22.705999,23.115999,17.933001,18.407,14.91,16.715
10.891,13.064,15.788,4.9261,3.8188,12.366,9.1371,11.815,10.101,4.9261,3.8188,8.867,4.9359,4.0066,10.05,13.795,14.07,14.933,14.504,10.969,11.837
1.9802,2.963,4.8425,1.9704,0.90615,6.1485,4.0609,6.8647,3.0303,1.9704,0.90615,2.9557,-9.4872,-8.8013,-3.0151,0.92409,-1.005,8.9333,7.6748,0.13136,5.0081
0.0,-4.1077,-2.1227,-2.9557,-3.9482,3.0397,-1.0152,1.9142,-3.0303,-2.9557,-3.9482,-1.9704,-16.218,-10.772,-6.0302,-6.9967,-9.0452,5.9333,1.8211,-0.85386,4.0325
3.9604,-5.1178,-1.1277,0.0,-3.9482,3.0397,-3.0457,5.8746,-4.0404,0.0,-3.9482,-0.98522,-11.41,-5.8456,-3.0151,-7.9868,-10.05,6.9333,3.7724,3.087,7.935
10.891,-1.0774,4.8425,0.0,-2.0065,9.2573,2.0305,4.8845,-3.0303,0.0,-2.0065,2.9557,0.12821,7.9475,5.0251,-1.0561,-1.005,7.9333,7.6748,8.9984,12.813
16.832001,10.034,12.803,3.9409,-0.06472,12.366,9.1371,11.815,4.0404,3.9409,-0.06472,9.8522,20.320999,26.667,16.08,13.795,13.065,12.933,13.528,16.879999,22.569
10.891,10.034,10.813,0.0,-2.9773,9.2573,7.1066,5.8746,6.0606,0.0,-2.9773,4.9261,30.896999,33.563,19.094999,19.736,18.09,12.933,11.577,19.836,22.569
9.901,7.0034,7.8275,1.9704,-4.9191,5.1123,0.0,4.8845,-1.0101,1.9704,-4.9191,1.9704,33.782001,30.608,20.101,19.736,19.094999,12.933,7.6748,19.836,17.691
12.871,4.9832,5.8375,0.98522,-3.9482,9.2573,1.0152,5.8746,-4.0404,0.98522,-3.9482,1.9704,28.013,21.740999,19.094999,15.776,18.09,12.933,5.7236,17.865,9.8862
6.9307,1.9529,2.8524,1.9704,-2.9773,6.1485,0.0,4.8845,1.0101,1.9704,-2.9773,0.98522,12.628,7.9475,11.055,7.8548,11.055,8.9333,3.7724,8.9984,1.1057
-3.9604,-3.0976,-4.1128,-0.98522,-5.89,2.0035,-1.0152,-4.0264,0.0,-0.98522,-5.89,-3.9409,-6.6026,-6.8309,-4.0201,-4.0264,-2.0101,1.9333,1.8211,-2.8243,-5.7236
-8.9109,-2.0875,-6.1028,0.98522,-2.9773,-1.1054,-1.0152,1.9142,2.0202,0.98522,-2.9773,-2.9557,-16.218,-10.772,-12.06,-8.9769,-9.0452,1.9333,4.748,-7.7504,-2.7967
-5.9406,-0.06734,-7.0978,4.9261,0.90615,2.0035,0.0,4.8845,1.0101,4.9261,0.90615,-0.98522,-16.218,-6.8309,-14.07,-6.0066,-12.06,1.9333,7.6748,-6.7652,6.9593
-2.9703,1.9529,-7.0978,6.8966,3.8188,3.0397,1.0152,4.8845,8.0808,6.8966,3.8188,-0.98522,-10.449,0.06568,-10.05,-2.0462,-11.055,2.9333,12.553,-1.8391,14.764
1.9802,7.0034,-4.1128,6.8966,5.7605,4.076,3.0457,5.8746,9.0909,6.8966,5.7605,-0.98522,1.0897,11.888,0.0,5.8746,-4.0201,8.9333,17.431,8.0131,23.545
0.9901,5.9933,-2.1227,6.8966,6.7314,2.0035,3.0457,4.8845,9.0909,6.8966,6.7314,-1.9704,3.9744,16.813999,4.0201,8.8449,1.005,7.9333,14.504,8.9984,19.642
-3.9604,-2.0875,-5.1078,3.9409,3.8188,-2.1416,0.0,-1.0561,4.0404,3.9409,3.8188,-4.9261,-1.7949,7.9475,-3.0151,0.92409,-3.0151,-3.0667,5.7236,-0.85386,6.9593
0.0,0.94276,0.86235,5.9113,4.7896,3.0397,4.0609,-2.0462,9.0909,5.9113,4.7896,0.0,5.8974,6.9622,4.0201,2.9043,5.0251,1.9333,7.6748,5.0575,2.0813
3.9604,8.0135,9.8176,13.793,12.557,7.1848,10.152,7.8548,20.202,13.793,12.557,7.8818,13.59,4.9918,11.055,6.8647,13.065,8.9333,10.602,10.969,1.1057
4.9505,11.044,11.808,11.823,14.498,7.1848,12.183,6.8647,21.212,11.823,14.498,7.8818,10.705,2.0361,12.06,8.8449,15.075,6.9333,10.602,9.9836,1.1057
1.9802,7.0034,8.8226,12.808,12.557,3.0397,7.1066,0.92409,13.131,12.808,12.557,5.9113,2.0513,1.0509,6.0302,7.8548,11.055,3.9333,5.7236,3.087,2.0813
15.842,11.044,14.793,14.778,16.440001,11.33,11.168,1.9142,15.152,14.778,16.440001,9.8522,7.8205,11.888,16.08,14.785,17.084999,5.9333,10.602,10.969,13.789
21.782,20.135,22.753,19.704,19.353001,16.511,16.243999,8.8449,17.172001,19.704,19.353001,16.749001,22.243999,24.695999,24.121,23.695999,24.121,18.933001,20.358,23.777,29.398001
2.9703,8.0135,9.8176,10.837,10.615,6.1485,7.1066,3.8944,8.0808,10.837,10.615,3.9409,7.8205,9.9179,8.0402,8.8449,8.0402,11.933,11.577,13.924,17.691
-1.9802,4.9832,6.8325,8.867,8.6731,-1.1054,2.0305,-3.0363,5.0505,8.867,8.6731,0.98522,2.0513,2.0361,2.0101,2.9043,2.0101,3.9333,6.6992,7.0279,11.837
-0.9901,5.9933,7.8275,6.8966,10.615,2.0035,4.0609,-3.0363,4.0404,6.8966,10.615,0.98522,-0.83333,4.0066,1.005,4.8845,4.0201,-4.0667,6.6992,3.087,11.837
5.9406,11.044,12.803,11.823,15.469,5.1123,9.1371,-2.0462,9.0909,11.823,15.469,7.8818,6.859,13.859,6.0302,12.805,10.05,-3.0667,9.626,5.0575,17.691
15.842,21.145,21.757999,19.704,22.264999,15.475,19.289,3.8944,19.191999,19.704,22.264999,16.749001,19.358999,25.681,17.084999,24.686001,22.111,5.9333,17.431,13.924,25.496
10.891,17.104,18.773001,18.719,19.353001,12.366,16.243999,4.8845,19.191999,18.719,19.353001,14.778,8.7821,12.874,11.055,18.746,17.084999,-0.06667,11.577,5.0575,14.764
7.9208,11.044,13.798,16.749001,18.382,11.33,16.243999,-0.06601,13.131,16.749001,18.382,13.793,-3.7179,-4.8604,4.0201,8.8449,10.05,-1.0667,2.7967,-0.85386,1.1057
0.0,2.963,6.8325,13.793,16.440001,6.1485,11.168,-0.06601,7.0707,13.793,16.440001,8.867,-13.333,-21.608999,-4.0201,-4.0264,1.005,0.93333,-4.0325,-4.7947,-14.504
1.9802,2.963,6.8325,13.793,15.469,7.1848,11.168,-0.06601,8.0808,13.793,15.469,9.8522,-15.256,-24.565001,-4.0201,-6.9967,-1.005,-2.0667,-3.0569,-6.7652,-15.48
-0.9901,4.9832,5.8375,13.793,15.469,7.1848,12.183,-0.06601,13.131,13.793,15.469,8.867,-12.372,-15.698,-6.0302,-6.0066,-1.005,-1.0667,1.8211,-6.7652,-7.6748
-4.9505,0.94276,-1.1277,10.837,12.557,2.0035,8.1218,0.92409,12.121,10.837,12.557,4.9261,-8.5256,-4.8604,-11.055,-6.0066,-7.0352,-6.0667,3.7724,-8.7356,1.1057
-11.881,-4.1077,-10.083,3.9409,7.7023,-2.1416,4.0609,-4.0264,11.111,3.9409,7.7023,-1.9704,-7.5641,1.0509,-13.065,-7.9868,-13.065,-8.0667,4.748,-8.7356,5.9837
-13.861,-9.1582,-15.058,2.9557,5.7605,-8.3592,-1.0152,-11.947,6.0606,2.9557,5.7605,-5.9113,-12.372,-2.89,-18.09,-11.947,-20.101,-17.066999,1.8211,-12.677,5.0081
-14.851,-7.138,-14.063,0.0,5.7605,-7.323,3.0457,-13.927,9.0909,0.0,5.7605,-5.9113,-10.449,-1.9048,-15.075,-10.957,-17.084999,-15.067,1.8211,-11.691,3.0569
-12.871,-3.0976,-7.0978,2.9557,6.7314,-5.2504,5.0761,-5.0165,13.131,2.9557,6.7314,0.0,-6.6026,-0.91954,-10.05,-6.9967,-10.05,-13.067,2.7967,-9.7209,2.0813
0.0,8.0135,5.8375,10.837,14.498,11.33,17.259001,6.8647,22.222,10.837,14.498,10.837,5.8974,7.9475,5.0251,5.8746,6.0302,-3.0667,10.602,2.1018,7.935
0.9901,8.0135,6.8325,14.778,16.440001,11.33,17.259001,7.8548,20.202,14.778,16.440001,14.778,1.0897,-3.8752,3.0151,2.9043,7.0352,-2.0667,6.6992,0.13136,-2.7967
0.0,3.9731,4.8425,12.808,16.440001,12.366,17.259001,7.8548,17.172001,12.808,16.440001,12.808,-6.6026,-17.667999,-2.0101,-3.0363,3.0151,-4.0667,-2.0813,-5.78,-15.48
0.0,4.9832,6.8325,13.793,15.469,9.2573,15.228,6.8647,14.141,13.793,15.469,12.808,-8.5256,-17.667999,-1.005,-1.0561,6.0302,-1.0667,-0.13008,-7.7504,-13.528
-4.9505,0.94276,2.8524,3.9409,10.615,3.0397,11.168,-5.0165,13.131,3.9409,10.615,4.9261,-16.218,-16.683001,-7.0352,-1.0561,2.0101,-4.0667,0.84553,-13.662,-11.577
-2.9703,-0.06734,-2.1227,1.9704,6.7314,-1.1054,7.1066,-3.0363,11.111,1.9704,6.7314,1.9704,-20.063999,-9.7865,-10.05,-1.0561,-3.0151,-6.0667,3.7724,-13.662,-0.84553
-10.891,-10.168,-14.063,-0.98522,4.7896,-5.2504,1.0152,-5.0165,8.0808,-0.98522,4.7896,-5.9113,-21.987,-7.8161,-18.09,-9.967,-16.08,-4.0667,1.8211,-13.662,2.0813
-14.851,-15.219,-20.033001,1.9704,6.7314,-5.2504,-1.0152,-6.9967,6.0606,1.9704,6.7314,-6.8966,-17.179001,-8.8013,-18.09,-16.898001,-22.111,-4.0667,-1.1057,-7.7504,0.13008
-12.871,-13.199,-17.048,2.9557,6.7314,-5.2504,-1.0152,0.92409,5.0505,2.9557,6.7314,-4.9261,-8.5256,-5.8456,-12.06,-15.908,-18.09,-3.0667,-1.1057,-0.85386,1.1057
-4.9505,-4.1077,-7.0978,2.9557,5.7605,-1.1054,2.0305,2.9043,8.0808,2.9557,5.7605,-1.9704,4.9359,6.9622,1.005,-4.0264,-4.0201,-1.0667,3.7724,8.9984,6.9593
3.9604,4.9832,2.8524,8.867,10.615,4.076,7.1066,4.8845,15.152,8.867,10.615,4.9261,13.59,15.829,9.0452,6.8647,8.0402,0.93333,9.626,11.954,12.813
2.9703,7.0034,4.8425,5.9113,11.586,3.0397,10.152,-4.0264,18.181999,5.9113,11.586,5.9113,11.667,10.903,10.05,9.835,12.06,0.93333,11.577,8.9984,8.9106
4.9505,5.9933,3.8474,5.9113,10.615,-0.06909,8.1218,-5.0165,17.172001,5.9113,10.615,4.9261,1.0897,-2.89,5.0251,5.8746,9.0452,-7.0667,9.626,2.1018,1.1057
6.9307,8.0135,4.8425,4.9261,11.586,2.0035,10.152,-3.0363,17.172001,4.9261,11.586,5.9113,-6.6026,-12.742,4.0201,3.8944,9.0452,-5.0667,8.6504,-0.85386,-4.748
2.9703,7.0034,3.8474,7.8818,11.586,-0.06909,7.1066,-7.9868,12.121,7.8818,11.586,6.8966,-12.372,-19.639,-3.0151,-0.06601,4.0201,-2.0667,4.748,-5.78,-6.6992
-0.9901,-0.06734,-2.1227,5.9113,10.615,-0.06909,4.0609,-0.06601,2.0202,5.9113,10.615,2.9557,-12.372,-16.683001,-7.0352,-5.0165,-3.0151,-2.0667,1.8211,-4.7947,-5.7236
-6.9307,-10.168,-13.068,6.8966,7.7023,-6.2867,-6.0914,4.8845,1.0101,6.8966,7.7023,-1.9704,-13.333,-16.683001,-14.07,-12.937,-14.07,-3.0667,-4.0325,-5.78,-7.6748
-3.9604,-11.178,-14.063,8.867,9.644,-3.1779,-5.0761,6.8647,3.0303,8.867,9.644,-0.98522,-5.641,-7.8161,-10.05,-11.947,-14.07,2.9333,-4.0325,2.1018,-2.7967
-2.9703,-7.138,-10.083,9.8522,8.6731,-4.2142,-4.0609,2.9043,1.0101,9.8522,8.6731,0.98522,1.0897,-0.91954,-5.0251,-8.9769,-10.05,1.9333,-5.0081,7.0279,0.13008
2.9703,0.94276,-2.1227,8.867,11.586,-0.06909,5.0761,-5.0165,7.0707,8.867,11.586,6.8966,11.667,12.874,3.0151,-1.0561,0.0,-3.0667,-3.0569,12.939,5.9837
15.842,16.094,13.798,16.749001,19.353001,10.294,14.213,1.9142,12.121,16.749001,19.353001,19.704,28.974001,33.563,18.09,16.766001,18.09,10.933,8.6504,21.806,21.593
11.881,13.064,11.808,16.749001,18.382,10.294,13.198,8.8449,9.0909,16.749001,18.382,16.749001,23.205,30.608,14.07,16.766001,19.094999,8.9333,7.6748,12.939,17.691
6.9307,11.044,8.8226,16.749001,20.323999,7.1848,11.168,11.815,11.111,16.749001,20.323999,15.764,11.667,17.799999,5.0251,11.815,14.07,0.93333,4.748,2.1018,7.935
7.9208,16.094,12.803,19.704,24.207001,10.294,18.274,7.8548,15.152,19.704,24.207001,19.704,7.8205,10.903,5.0251,12.805,16.08,4.9333,7.6748,1.1166,5.0081
10.891,17.104,17.778,24.631001,28.091,15.475,22.334999,16.766001,15.152,24.631001,28.091,23.645,4.9359,1.0509,8.0402,10.825,16.08,4.9333,6.6992,4.0722,-0.84553
11.881,11.044,15.788,22.66,24.207001,14.439,18.274,9.835,14.141,22.66,24.207001,21.674999,2.0513,-7.8161,6.0302,4.8845,12.06,3.9333,-3.0569,4.0722,-7.6748
8.9109,2.963,9.8176,15.764,16.440001,9.2573,10.152,3.8944,6.0606,15.764,16.440001,15.764,1.0897,-12.742,1.005,-4.0264,3.0151,-1.0667,-9.8862,4.0722,-12.553
-1.9802,-1.0774,1.8574,15.764,15.469,4.076,7.1066,5.8746,1.0101,15.764,15.469,11.823,-1.7949,-12.742,-7.0352,-9.967,-6.0302,-6.0667,-12.813,-2.8243,-12.553
2.9703,9.0236,6.8325,19.704,23.236,11.33,15.228,12.805,12.121,19.704,23.236,17.733999,3.0128,2.0361,0.0,1.9142,0.0,-0.06667,1.8211,3.087,3.0569
9.901,15.084,12.803,21.674999,22.264999,13.402,16.243999,11.815,12.121,21.674999,22.264999,20.690001,4.9359,10.903,4.0201,10.825,7.0352,2.9333,6.6992,3.087,11.837
14.851,20.135,19.768,16.749001,18.382,13.402,17.259001,8.8449,9.0909,16.749001,18.382,18.719,10.705,23.711,11.055,18.746,16.08,6.9333,10.602,4.0722,17.691
17.822001,24.174999,24.743,16.749001,16.440001,13.402,17.259001,14.785,11.111,16.749001,16.440001,21.674999,19.358999,32.577999,17.084999,24.686001,24.121,6.9333,13.528,7.0279,23.545
18.812,25.184999,23.747999,16.749001,18.382,17.547001,20.305,19.736,14.141,16.749001,18.382,21.674999,27.051001,35.534,21.106001,27.657,28.141001,10.933,15.48,13.924,22.569
15.842,21.145,19.768,15.764,15.469,13.402,16.243999,16.766001,10.101,15.764,15.469,19.704,23.205,27.652,17.084999,22.705999,25.125999,5.9333,8.6504,10.969,13.789
12.871,14.074,14.793,11.823,12.557,12.366,13.198,8.8449,4.0404,11.823,12.557,15.764,15.513,14.844,13.065,14.785,18.09,2.9333,-1.1057,8.0131,3.0569
10.891,10.034,13.798,14.778,14.498,11.33,11.168,10.825,1.0101,14.778,14.498,15.764,7.8205,-0.91954,10.05,6.8647,13.065,4.9333,-7.935,5.0575,-6.6992
10.891,7.0034,10.813,14.778,17.410999,13.402,13.198,8.8449,-1.0101,14.778,17.410999,13.793,-0.83333,-16.683001,5.0251,-2.0462,5.0251,5.9333,-15.74,1.1166,-16.455
4.9505,0.94276,2.8524,8.867,10.615,5.1123,5.0761,10.825,-1.0101,8.867,10.615,7.8818,-14.295,-30.476,-6.0302,-10.957,-7.0352,2.9333,-13.789,-7.7504,-19.382
3.9604,4.9832,2.8524,6.8966,7.7023,4.076,5.0761,8.8449,3.0303,6.8966,7.7023,5.9113,-16.218,-25.549999,-7.0352,-7.9868,-9.0452,2.9333,-1.1057,-8.7356,-7.6748
5.9406,9.0236,3.8474,3.9409,4.7896,4.076,5.0761,5.8746,3.0303,3.9409,4.7896,5.9113,-14.295,-14.713,-5.0251,-2.0462,-7.0352,2.9333,6.6992,-7.7504,2.0813
4.9505,9.0236,4.8425,0.98522,-0.06472,3.0397,5.0761,4.8845,1.0101,0.98522,-0.06472,4.9261,-13.333,-4.8604,-2.0101,1.9142,-4.0201,2.9333,6.6992,-4.7947,5.9837
6.9307,14.074,11.808,5.9113,6.7314,7.1848,12.183,5.8746,8.0808,5.9113,6.7314,10.837,0.12821,12.874,7.0352,11.815,7.0352,10.933,8.6504,4.0722,12.813
8.9109,13.064,12.803,12.808,11.586,11.33,14.213,5.8746,10.101,12.808,11.586,13.793,10.705,22.726,9.0452,12.805,10.05,7.9333,2.7967,7.0279,10.862
4.9505,4.9832,6.8325,8.867,6.7314,7.1848,7.1066,4.8845,2.0202,8.867,6.7314,6.8966,12.628,18.785,7.0352,4.8845,7.0352,0.93333,-7.935,7.0279,0.13008
3.9604,-0.06734,3.8474,4.9261,-0.06472,2.0035,1.0152,4.8845,-6.0606,4.9261,-0.06472,3.9409,18.396999,15.829,8.0402,1.9142,7.0352,2.9333,-13.789,8.9984,-4.748
0.9901,-3.0976,0.86235,-1.9704,-3.9482,-0.06909,-3.0457,0.92409,-11.111,-1.9704,-3.9482,-0.98522,17.436001,8.9327,7.0352,-0.06601,6.0302,-1.0667,-16.715,6.0427,-7.6748
-2.9703,-4.1077,-1.1277,1.9704,-2.0065,-3.1779,-4.0609,0.92409,-10.101,1.9704,-2.0065,0.0,7.8205,-4.8604,0.0,-3.0363,1.005,-4.0667,-16.715,-0.85386,-9.626
-4.9505,-7.138,-5.1078,-1.9704,-2.9773,-4.2142,-5.0761,-3.0363,-8.0808,-1.9704,-2.9773,-3.9409,-2.7564,-18.653999,-6.0302,-6.9967,-6.0302,-4.0667,-14.764,-5.78,-12.553
-2.9703,-3.0976,-1.1277,4.9261,1.877,-1.1054,-3.0457,2.9043,-9.0909,4.9261,1.877,0.98522,-5.641,-20.624001,-7.0352,-6.0066,-7.0352,-0.06667,-10.862,-5.78,-9.626
0.0,-1.0774,-0.13267,7.8818,5.7605,5.1123,2.0305,4.8845,-10.101,7.8818,5.7605,4.9261,-6.6026,-14.713,-8.0402,-5.0165,-8.0402,0.93333,-6.9593,-3.8095,-5.7236
-9.901,-8.1481,-9.0879,3.9409,1.877,-4.2142,-5.0761,1.9142,-8.0808,3.9409,1.877,-0.98522,-14.295,-13.727,-15.075,-9.967,-15.075,-5.0667,-10.862,-7.7504,-7.6748
-9.901,-11.178,-11.078,5.9113,3.8188,-2.1416,-5.0761,-0.06601,-4.0404,5.9113,3.8188,-3.9409,-13.333,-5.8456,-12.06,-8.9769,-14.07,-5.0667,-12.813,-5.78,-4.748
-2.9703,-6.1279,-6.1028,8.867,6.7314,0.96718,-3.0457,1.9142,0.0,8.867,6.7314,0.98522,1.0897,11.888,1.005,0.92409,-3.0151,-0.06667,-5.0081,4.0722,5.9837
0.9901,-4.1077,-4.1128,5.9113,2.8479,2.0035,-3.0457,8.8449,-1.0101,5.9113,2.8479,0.0,13.59,21.740999,7.0352,5.8746,4.0201,-0.06667,-3.0569,8.9984,9.8862
-2.9703,-3.0976,-5.1078,2.9557,0.90615,-3.1779,-6.0914,3.8944,-4.0404,2.9557,0.90615,-3.9409,14.551,18.785,4.0201,5.8746,4.0201,-6.0667,-3.0569,3.087,8.9106
-8.9109,-1.0774,-6.1028,-1.9704,-1.0356,-9.3955,-7.1066,-8.9769,-3.0303,-1.9704,-1.0356,-7.8818,11.667,13.859,0.0,6.8647,4.0201,-8.0667,-1.1057,-3.8095,5.9837
-3.9604,4.9832,-0.13267,1.9704,3.8188,-5.2504,0.0,-4.0264,3.0303,1.9704,3.8188,-1.9704,12.628,8.9327,5.0251,9.835,9.0452,-7.0667,4.748,-1.8391,5.9837
6.9307,11.044,6.8325,11.823,13.528,6.1485,9.1371,4.8845,12.121,11.823,13.528,8.867,10.705,3.0213,7.0352,11.815,10.05,-4.0667,10.602,-0.85386,7.935
0.9901,4.9832,1.8574,8.867,12.557,4.076,6.0914,0.92409,6.0606,8.867,12.557,3.9409,0.12821,-9.7865,0.0,3.8944,2.0101,-9.0667,5.7236,-4.7947,0.13008
-4.9505,0.94276,-3.1177,5.9113,6.7314,-3.1779,0.0,-0.06601,0.0,5.9113,6.7314,-0.98522,-0.83333,-8.8013,-4.0201,0.92409,-3.0151,-8.0667,0.84553,-5.78,1.1057
0.0,-0.06734,-4.1128,2.9557,5.7605,-3.1779,-1.0152,1.9142,1.0101,2.9557,5.7605,-2.9557,1.0897,3.0213,-1.005,2.9043,-2.0101,-4.0667,-0.13008,-1.8391,7.935
7.9208,4.9832,2.8524,10.837,11.586,4.076,5.0761,6.8647,-1.0101,10.837,11.586,4.9261,8.7821,15.829,6.0302,9.835,5.0251,1.9333,2.7967,5.0575,13.789
10.891,10.034,7.8275,6.8966,9.644,6.1485,7.1066,0.92409,2.0202,6.8966,9.644,5.9113,21.282,30.608,16.08,17.756001,13.065,8.9333,6.6992,15.895,22.569
16.832001,18.114,16.783001,8.867,8.6731,10.294,10.152,-0.06601,7.0707,8.867,8.6731,12.808,34.743999,43.415001,25.125999,27.657,23.115999,14.933,12.553,23.777,31.35
23.761999,23.165001,20.763,17.733999,17.410999,19.620001,17.259001,16.766001,12.121,17.733999,17.410999,17.733999,39.550999,48.341999,31.156,31.617001,29.146,17.933001,15.48,28.702999,33.300999
20.792,20.135,19.768,20.690001,14.498,17.547001,13.198,19.736,8.0808,20.690001,14.498,16.749001,34.743999,38.488998,28.141001,27.657,27.136,13.933,12.553,22.791,25.496
29.702999,21.145,22.753,15.764,11.586,22.729,16.243999,13.795,7.0707,15.764,11.586,18.719,32.820999,33.563,31.156,26.667,29.146,4.9333,13.528,21.806,21.593
10.891,4.9832,8.8226,7.8818,2.8479,9.2573,2.0305,8.8449,-4.0404,7.8818,2.8479,6.8966,10.705,7.9475,10.05,8.8449,11.055,-3.0667,-1.1057,3.087,2.0813
2.9703,-3.0976,-0.13267,4.9261,0.90615,5.1123,-1.0152,10.825,-9.0909,4.9261,0.90615,0.98522,3.9744,-2.89,3.0151,0.92409,2.0101,-0.06667,-3.0569,0.13136,-2.7967
0.9901,0.94276,0.86235,1.9704,1.877,2.0035,0.0,0.92409,-10.101,1.9704,1.877,1.9704,4.9359,-3.8752,3.0151,1.9142,1.005,0.93333,0.84553,3.087,2.0813
-5.9406,-3.0976,-5.1078,-7.8818,-6.8608,-6.2867,-6.0914,-10.957,-8.0808,-7.8818,-6.8608,-6.8966,-2.7564,-5.8456,-6.0302,-2.0462,-6.0302,-5.0667,1.8211,-2.8243,2.0813
0.0,2.963,-0.13267,-4.9261,-3.9482,-3.1779,-4.0609,-10.957,-1.0101,-4.9261,-3.9482,-2.9557,3.9744,6.9622,-1.005,6.8647,-1.005,-4.0667,9.626,4.0722,12.813
2.9703,2.963,2.8524,-1.9704,-2.0065,-0.06909,-2.0305,-6.0066,-3.0303,-1.9704,-2.0065,0.0,10.705,17.799999,4.0201,10.825,4.0201,-1.0667,7.6748,9.9836,17.691
4.9505,1.9529,4.8425,0.0,-2.0065,5.1123,0.0,-3.0363,-5.0505,0.0,-2.0065,2.9557,14.551,21.740999,9.0452,10.825,7.0352,3.9333,4.748,13.924,13.789
8.9109,1.9529,6.8325,7.8818,1.877,9.2573,2.0305,7.8548,-5.0505,7.8818,1.877,6.8966,9.7436,17.799999,10.05,8.8449,8.0402,5.9333,2.7967,10.969,8.9106
6.9307,-4.1077,1.8574,1.9704,-1.0356,5.1123,-4.0609,8.8449,-10.101,1.9704,-1.0356,0.0,3.9744,9.9179,6.0302,2.9043,4.0201,3.9333,-3.0569,7.0279,1.1057
0.9901,-9.1582,-4.1128,-4.9261,-10.744,-4.2142,-12.183,4.8845,-15.152,-4.9261,-10.744,-8.867,5.8974,6.9622,2.0101,-0.06601,1.005,2.9333,-7.935,4.0722,-2.7967
0.9901,-6.1279,-3.1177,-3.9409,-8.8026,-1.1054,-8.1218,2.9043,-9.0909,-3.9409,-8.8026,-8.867,10.705,8.9327,5.0251,2.9043,4.0201,0.93333,-4.0325,5.0575,0.13008
2.9703,-5.1178,-2.1227,0.0,-3.9482,-0.06909,-6.0914,2.9043,-7.0707,0.0,-3.9482,-3.9409,15.513,7.9475,7.0352,2.9043,5.0251,4.9333,-3.0569,8.0131,2.0813
-1.9802,-11.178,-8.0929,-6.8966,-7.8317,-2.1416,-10.152,-1.0561,-12.121,-6.8966,-7.8317,-9.8522,11.667,2.0361,2.0101,-3.0363,-1.005,6.9333,-5.0081,8.0131,-2.7967
-11.881,-18.249001,-15.058,-7.8818,-11.715,-9.3955,-18.274,-5.0165,-17.172001,-7.8818,-11.715,-15.764,1.0897,-8.8013,-8.0402,-9.967,-11.055,-0.06667,-13.789,0.13136,-7.6748
-10.891,-18.249001,-17.048,-10.837,-13.657,-11.468,-19.289,-5.0165,-18.181999,-10.837,-13.657,-19.704,-7.5641,-8.8013,-13.065,-10.957,-14.07,-7.0667,-10.862,-4.7947,-5.7236
-14.851,-16.229,-16.052999,-13.793,-17.540001,-16.649,-21.32,-4.0264,-16.162001,-13.793,-17.540001,-19.704,-14.295,-9.7865,-17.084999,-10.957,-16.08,-8.0667,-6.9593,-9.7209,-5.7236
-9.901,-13.199,-13.068,-9.8522,-12.686,-11.468,-15.228,-6.9967,-13.131,-9.8522,-12.686,-15.764,-10.449,-5.8456,-12.06,-9.967,-14.07,-5.0667,-5.0081,-5.78,-5.7236
-7.9208,-12.189,-11.078,-9.8522,-11.715,-10.432,-15.228,-6.9967,-11.111,-9.8522,-11.715,-13.793,-0.83333,0.06568,-6.0302,-6.9967,-10.05,-1.0667,-5.0081,0.13136,-3.7724
-5.9406,-9.1582,-8.0929,-12.808,-14.628,-8.3592,-12.183,-6.0066,-10.101,-12.808,-14.628,-12.808,9.7436,6.9622,1.005,-3.0363,-4.0201,0.93333,-5.0081,6.0427,-0.84553
1.9802,-1.0774,0.86235,-7.8818,-9.7735,-3.1779,-6.0914,-4.0264,-5.0505,-7.8818,-9.7735,-5.9113,20.320999,15.829,10.05,5.8746,7.0352,3.9333,-2.0813,13.924,5.0081
0.9901,-0.06734,2.8524,-10.837,-10.744,-5.2504,-6.0914,-6.9967,-3.0303,-10.837,-10.744,-6.8966,16.474001,12.874,9.0452,7.8548,9.0452,0.93333,-0.13008,9.9836,5.0081
-2.9703,-4.1077,-3.1177,-14.778,-14.628,-10.432,-12.183,-7.9868,-6.0606,-14.778,-14.628,-12.808,8.7821,6.9622,4.0201,3.8944,5.0251,-5.0667,-0.13008,3.087,2.0813
-6.9307,-5.1178,-7.0978,-10.837,-11.715,-9.3955,-11.168,-7.9868,-7.0707,-10.837,-11.715,-12.808,3.0128,1.0509,-3.0151,0.92409,-1.005,-12.067,1.8211,-3.8095,2.0813
-14.851,-10.168,-14.063,-13.793,-12.686,-9.3955,-12.183,-4.0264,-7.0707,-13.793,-12.686,-13.793,-5.641,-1.9048,-12.06,-4.0264,-9.0452,-13.067,0.84553,-10.706,3.0569
-23.761999,-19.259001,-23.018,-15.764,-17.540001,-16.649,-17.259001,-6.9967,-14.141,-15.764,-17.540001,-18.719,-16.218,-10.772,-24.121,-13.927,-20.101,-14.067,-8.9106,-20.558001,-3.7724
-14.851,-14.209,-16.052999,-11.823,-13.657,-9.3955,-12.183,-6.9967,-9.0909,-11.823,-13.657,-13.793,-13.333,-4.8604,-15.075,-10.957,-15.075,-4.0667,-6.9593,-9.7209,-1.8211
-9.901,-12.189,-12.073,-8.867,-11.715,-9.3955,-11.168,-8.9769,-9.0909,-8.867,-11.715,-10.837,-10.449,-1.9048,-10.05,-7.9868,-12.06,-3.0667,-6.9593,-3.8095,0.13008
-9.901,-12.189,-14.063,-13.793,-13.657,-11.468,-13.198,-4.0264,-11.111,-13.793,-13.657,-15.764,-9.4872,-1.9048,-8.0402,-7.9868,-12.06,-4.0667,-6.9593,-0.85386,-1.8211
-5.9406,-9.1582,-12.073,-11.823,-13.657,-11.468,-13.198,-3.0363,-8.0808,-11.823,-13.657,-13.793,-0.83333,2.0361,-3.0151,-4.0264,-8.0402,-3.0667,-2.0813,5.0575,0.13008
-0.9901,-6.1279,-7.0978,-10.837,-8.8026,-5.2504,-7.1066,-2.0462,-5.0505,-10.837,-8.8026,-9.8522,12.628,8.9327,6.0302,0.92409,0.0,3.9333,0.84553,11.954,3.0569
1.9802,-0.06734,-0.13267,-2.9557,-5.89,-2.1416,-3.0457,4.8845,-3.0303,-2.9557,-5.89,-1.9704,25.128,13.859,13.065,6.8647,8.0402,9.9333,1.8211,17.865,6.9593
0.0,-0.06734,0.86235,-5.9113,-6.8608,-2.1416,-2.0305,-5.0165,-7.0707,-5.9113,-6.8608,-2.9557,21.282,9.9179,11.055,5.8746,9.0452,1.9333,0.84553,11.954,3.0569
-2.9703,1.9529,1.8574,-5.9113,-6.8608,-4.2142,-3.0457,-6.9967,-7.0707,-5.9113,-6.8608,-1.9704,5.8974,0.06568,2.0101,3.8944,5.0251,-4.0667,-1.1057,-1.8391,1.1057
-5.9406,1.9529,0.86235,-5.9113,-4.9191,-2.1416,-1.0152,-3.0363,-1.0101,-5.9113,-4.9191,-2.9557,-8.5256,-4.8604,-6.0302,1.9142,0.0,-8.0667,0.84553,-13.662,1.1057
-7.9208,-0.06734,-2.1227,-6.8966,-4.9191,-7.323,-2.0305,-5.0165,-1.0101,-6.8966,-4.9191,-3.9409,-12.372,-2.89,-11.055,1.9142,-3.0151,-13.067,2.7967,-15.632,5.0081
-9.901,-4.1077,-7.0978,-5.9113,-4.9191,-6.2867,-3.0457,-6.0066,-4.0404,-5.9113,-4.9191,-4.9261,-18.141001,-3.8752,-14.07,-1.0561,-7.0352,-9.0667,0.84553,-14.647,5.0081
-9.901,-4.1077,-6.1028,-3.9409,-4.9191,-5.2504,-3.0457,-5.0165,-6.0606,-3.9409,-4.9191,-3.9409,-21.025999,-4.8604,-11.055,-2.0462,-8.0402,-4.0667,-1.1057,-10.706,3.0569
-0.9901,2.963,1.8574,1.9704,-0.06472,0.96718,3.0457,-2.0462,-5.0505,1.9704,-0.06472,2.9557,-13.333,4.0066,-3.0151,3.8944,-1.005,0.93333,-1.1057,-0.85386,7.935
14.851,16.094,16.783001,7.8818,7.7023,10.294,14.213,2.9043,2.0202,7.8818,7.7023,12.808,8.7821,22.726,15.075,16.766001,15.075,12.933,12.553,17.865,18.667
18.812,15.084,18.773001,13.793,10.615,13.402,14.213,5.8746,9.0909,13.793,10.615,15.764,19.358999,24.695999,17.084999,17.756001,18.09,15.933,15.48,21.806,17.691
0.9901,-1.0774,2.8524,7.8818,5.7605,5.1123,2.0305,-2.0462,5.0505,7.8818,5.7605,2.9557,11.667,8.9327,3.0151,2.9043,4.0201,0.93333,2.7967,6.0427,2.0813
-3.9604,-3.0976,-1.1277,6.8966,5.7605,-1.1054,0.0,-0.06601,3.0303,6.8966,5.7605,0.0,14.551,4.9918,1.005,-0.06601,1.005,-3.0667,0.84553,2.1018,2.0813
-8.9109,-4.1077,-5.1078,0.98522,1.877,-5.2504,-2.0305,-3.0363,-1.0101,0.98522,1.877,-4.9261,11.667,-1.9048,-2.0101,-4.0264,-2.0101,-8.0667,-1.1057,-2.8243,-1.8211
-9.901,-4.1077,-6.1028,0.98522,-0.06472,-7.323,-4.0609,-6.0066,-3.0303,0.98522,-0.06472,-3.9409,3.0128,-8.8013,-7.0352,-6.0066,-4.0201,-10.067,-0.13008,-7.7504,-1.8211
0.9901,7.0034,2.8524,2.9557,5.7605,3.0397,5.0761,-5.0165,6.0606,2.9557,5.7605,2.9557,6.859,3.0213,1.005,4.8845,4.0201,-3.0667,9.626,-0.85386,9.8862
3.9604,8.0135,5.8375,10.837,10.615,5.1123,6.0914,-2.0462,5.0505,10.837,10.615,5.9113,3.0128,10.903,0.0,8.8449,6.0302,1.9333,10.602,1.1166,16.715
0.0,-0.06734,-2.1227,9.8522,7.7023,2.0035,2.0305,0.92409,0.0,9.8522,7.7023,0.0,-3.7179,14.844,-3.0151,6.8647,2.0101,2.9333,8.6504,0.13136,17.691
-3.9604,-6.1279,-6.1028,4.9261,2.8479,-2.1416,-4.0609,-5.0165,-1.0101,4.9261,2.8479,-2.9557,-5.641,13.859,-3.0151,3.8944,0.0,-1.0667,2.7967,0.13136,13.789
-3.9604,-10.168,-8.0929,0.98522,0.90615,-2.1416,-5.0761,-4.0264,-6.0606,0.98522,0.90615,-5.9113,-10.449,3.0213,-4.0201,-3.0363,-4.0201,-4.0667,-5.9837,-1.8391,0.13008
7.9208,3.9731,5.8375,9.8522,9.644,7.1848,6.0914,5.8746,3.0303,9.8522,9.644,6.8966,4.9359,5.977,11.055,4.8845,7.0352,7.9333,-0.13008,12.939,3.0569
7.9208,4.9832,6.8325,8.867,6.7314,8.2211,7.1066,2.9043,0.0,8.867,6.7314,6.8966,12.628,2.0361,13.065,4.8845,9.0452,7.9333,-0.13008,16.879999,1.1057
2.9703,-0.06734,1.8574,4.9261,2.8479,3.0397,2.0305,0.92409,-3.0303,4.9261,2.8479,1.9704,13.59,-0.91954,9.0452,0.92409,5.0251,8.9333,-1.1057,14.91,-2.7967
8.9109,2.963,5.8375,7.8818,7.7023,8.2211,7.1066,6.8647,2.0202,7.8818,7.7023,6.8966,23.205,7.9475,15.075,6.8647,12.06,16.933001,4.748,18.851,5.0081
13.861,7.0034,10.813,5.9113,6.7314,11.33,8.1218,10.825,2.0202,5.9113,6.7314,7.8818,22.243999,10.903,20.101,11.815,18.09,15.933,5.7236,17.865,7.935
12.871,7.0034,10.813,5.9113,2.8479,9.2573,5.0761,4.8845,1.0101,5.9113,2.8479,7.8818,8.7821,3.0213,12.06,9.835,14.07,9.9333,3.7724,7.0279,5.9837
3.9604,4.9832,6.8325,-0.98522,0.90615,3.0397,3.0457,-7.9868,-2.0202,-0.98522,0.90615,2.9557,-3.7179,-0.91954,4.0201,6.8647,8.0402,-0.06667,0.84553,-3.8095,5.0081
-0.9901,7.0034,4.8425,0.0,0.90615,3.0397,4.0609,-7.9868,0.0,0.0,0.90615,3.9409,-3.7179,5.977,1.005,9.835,7.0352,-1.0667,5.7236,-3.8095,12.813
0.9901,13.064,7.8275,3.9409,6.7314,7.1848,12.183,0.92409,14.141,3.9409,6.7314,8.867,3.0128,18.785,5.0251,16.766001,12.06,3.9333,15.48,5.0575,22.569
0.0,7.0034,2.8524,2.9557,4.7896,0.96718,7.1066,1.9142,8.0808,2.9557,4.7896,5.9113,-1.7949,14.844,-1.005,8.8449,5.0251,2.9333,10.602,3.087,15.74
-0.9901,-3.0976,-2.1227,-5.9113,-2.9773,-1.1054,0.0,-6.0066,-3.0303,-5.9113,-2.9773,-0.98522,-9.4872,4.9918,-4.0201,-1.0561,-3.0151,0.93333,-0.13008,1.1166,3.0569
5.9406,-3.0976,1.8574,-0.98522,-2.9773,2.0035,-1.0152,4.8845,-6.0606,-0.98522,-2.9773,1.9704,-2.7564,3.0213,2.0101,-2.0462,0.0,6.9333,-3.0569,7.0279,-0.84553
6.9307,-1.0774,4.8425,-3.9409,-4.9191,3.0397,-1.0152,-1.0561,-9.0909,-3.9409,-4.9191,0.0,7.8205,3.0213,10.05,-0.06601,6.0302,10.933,-4.0325,11.954,-3.7724
11.881,3.9731,10.813,0.98522,-2.9773,6.1485,1.0152,-4.0264,-2.0202,0.98522,-2.9773,5.9113,15.513,-0.91954,16.08,2.9043,12.06,6.9333,-2.0813,13.924,-5.7236
6.9307,1.9529,7.8275,0.0,-2.0065,5.1123,2.0305,-1.0561,-2.0202,0.0,-2.0065,2.9557,13.59,-7.8161,11.055,1.9142,11.055,2.9333,-5.0081,8.0131,-9.626
8.9109,8.0135,10.813,6.8966,2.8479,5.1123,6.0914,3.8944,3.0303,6.8966,2.8479,7.8818,21.282,2.0361,12.06,8.8449,16.08,1.9333,0.84553,8.9984,1.1057
2.9703,5.9933,6.8325,0.98522,-0.06472,3.0397,4.0609,-1.0561,1.0101,0.98522,-0.06472,4.9261,16.474001,6.9622,5.0251,7.8548,12.06,-3.0667,2.7967,4.0722,6.9593
4.9505,10.034,8.8226,1.9704,-0.06472,4.076,5.0761,0.92409,-1.0101,1.9704,-0.06472,7.8818,12.628,13.859,5.0251,10.825,12.06,-2.0667,9.626,2.1018,14.764
9.901,12.054,10.813,0.0,-2.9773,4.076,4.0609,2.9043,0.0,0.0,-2.9773,6.8966,7.8205,18.785,6.0302,13.795,14.07,-2.0667,12.553,-0.85386,17.691
12.871,18.114,14.793,-2.9557,-2.0065,3.0397,5.0761,3.8944,6.0606,-2.9557,-2.0065,6.8966,9.7436,26.667,12.06,19.736,20.101,6.9333,16.455,5.0575,24.52
5.9406,13.064,10.813,-0.98522,-1.0356,-1.1054,3.0457,-5.0165,4.0404,-0.98522,-1.0356,4.9261,2.0513,20.754999,6.0302,15.776,15.075,0.93333,10.602,2.1018,19.642
0.9901,7.0034,5.8375,-0.98522,-2.9773,-1.1054,-1.0152,-7.9868,0.0,-0.98522,-2.9773,2.9557,-7.5641,10.903,0.0,8.8449,8.0402,-5.0667,1.8211,-2.8243,8.9106
3.9604,5.9933,5.8375,3.9409,0.90615,2.0035,0.0,0.92409,-3.0303,3.9409,0.90615,6.8966,-1.7949,5.977,3.0151,5.8746,6.0302,1.9333,-1.1057,4.0722,4.0325
-2.9703,-4.1077,-3.1177,-4.9261,-6.8608,-4.2142,-6.0914,-2.0462,-15.152,-4.9261,-6.8608,-0.98522,-1.7949,-7.8161,-1.005,-5.0165,-1.005,-3.0667,-10.862,3.087,-10.602
-2.9703,-4.1077,-4.1128,-2.9557,-6.8608,-5.2504,-7.1066,-0.06601,-7.0707,-2.9557,-6.8608,0.0,4.9359,-10.772,-1.005,-5.0165,-1.005,-3.0667,-8.9106,2.1018,-13.528
-0.9901,2.963,1.8574,-0.98522,-2.9773,-2.1416,0.0,-1.0561,1.0101,-0.98522,-2.9773,3.9409,17.436001,-0.91954,6.0302,1.9142,7.0352,-0.06667,-2.0813,7.0279,-6.6992
-0.9901,4.9832,3.8474,0.0,-1.0356,-3.1779,0.0,-2.0462,-1.0101,0.0,-1.0356,5.9113,19.358999,4.0066,5.0251,4.8845,10.05,-3.0667,-5.0081,5.0575,-1.8211
2.9703,8.0135,7.8275,-2.9557,-1.0356,-1.1054,2.0305,-6.0066,-1.0101,-2.9557,-1.0356,5.9113,18.396999,11.888,8.0402,9.835,13.065,-5.0667,-0.13008,6.0427,6.9593
4.9505,10.034,9.8176,-2.9557,-1.0356,-1.1054,2.0305,-7.9868,-1.0101,-2.9557,-1.0356,7.8818,13.59,11.888,9.0452,11.815,14.07,-0.06667,3.7724,8.0131,10.862
6.9307,12.054,10.813,0.0,2.8479,5.1123,6.0914,2.9043,-2.0202,0.0,2.8479,10.837,4.9359,9.9179,10.05,11.815,13.065,7.9333,2.7967,10.969,9.8862
10.891,18.114,16.783001,7.8818,8.6731,10.294,12.183,10.825,6.0606,7.8818,8.6731,17.733999,3.9744,14.844,13.065,16.766001,17.084999,14.933,8.6504,12.939,12.813
6.9307,12.054,12.803,3.9409,4.7896,8.2211,9.1371,4.8845,3.0303,3.9409,4.7896,12.808,-1.7949,10.903,8.0402,9.835,12.06,8.9333,1.8211,7.0279,5.0081
11.881,9.0236,13.798,7.8818,6.7314,9.2573,7.1066,7.8548,2.0202,7.8818,6.7314,14.778,3.9744,10.903,10.05,6.8647,12.06,5.9333,-2.0813,7.0279,-0.84553
12.871,8.0135,11.808,13.793,11.586,13.402,9.1371,12.805,2.0202,13.793,11.586,15.764,8.7821,4.9918,10.05,3.8944,11.055,4.9333,-3.0569,7.0279,-6.6992
10.891,8.0135,11.808,12.808,10.615,13.402,8.1218,9.835,1.0101,12.808,10.615,15.764,14.551,0.06568,13.065,4.8845,12.06,7.9333,-3.0569,10.969,-7.6748
17.822001,12.054,15.788,12.808,9.644,14.439,9.1371,6.8647,2.0202,12.808,9.644,16.749001,24.167,4.0066,19.094999,11.815,19.094999,8.9333,0.84553,18.851,-0.84553
10.891,5.9933,9.8176,7.8818,3.8188,8.2211,2.0305,6.8647,-4.0404,7.8818,3.8188,8.867,23.205,1.0509,15.075,8.8449,14.07,6.9333,-2.0813,17.865,-2.7967
6.9307,4.9832,5.8375,9.8522,4.7896,6.1485,2.0305,11.815,-5.0505,9.8522,4.7896,7.8818,19.358999,4.0066,11.055,7.8548,11.055,11.933,-2.0813,13.924,2.0813
7.9208,7.0034,6.8325,6.8966,4.7896,7.1848,3.0457,9.835,-3.0303,6.8966,4.7896,7.8818,12.628,9.9179,11.055,9.835,11.055,11.933,-0.13008,9.9836,6.9593
4.9505,7.0034,7.8275,7.8818,2.8479,5.1123,2.0305,6.8647,-4.0404,7.8818,2.8479,7.8818,4.9359,11.888,8.0402,9.835,10.05,5.9333,-1.1057,3.087,9.8862
1.9802,3.9731,6.8325,4.9261,2.8479,5.1123,3.0457,2.9043,-9.0909,4.9261,2.8479,5.9113,-2.7564,8.9327,5.0251,6.8647,8.0402,-1.0667,-5.0081,-0.85386,4.0325
13.861,9.0236,14.793,10.837,4.7896,11.33,6.0914,10.825,-5.0505,10.837,4.7896,13.793,-3.7179,10.903,11.055,9.835,12.06,2.9333,-0.13008,4.0722,5.0081
15.842,13.064,18.773001,12.808,11.586,16.511,13.198,5.8746,5.0505,12.808,11.586,17.733999,-3.7179,12.874,12.06,10.825,13.065,7.9333,3.7724,6.0427,4.0325
12.871,12.054,17.778,12.808,11.586,13.402,12.183,4.8845,2.0202,12.808,11.586,17.733999,2.0513,10.903,10.05,9.835,12.06,5.9333,-1.1057,6.0427,1.1057
19.802,9.0236,17.778,11.823,8.6731,16.511,11.168,6.8647,-2.0202,11.823,8.6731,16.749001,15.513,11.888,17.084999,10.825,15.075,3.9333,-3.0569,11.954,-0.84553
14.851,3.9731,12.803,7.8818,3.8188,10.294,5.0761,6.8647,-4.0404,7.8818,3.8188,10.837,22.243999,3.0213,18.09,6.8647,13.065,7.9333,-6.9593,12.939,-5.7236
10.891,-1.0774,5.8375,0.98522,-0.06472,6.1485,2.0305,-0.06601,-6.0606,0.98522,-0.06472,3.9409,26.09,-5.8456,16.08,1.9142,10.05,5.9333,-8.9106,11.954,-11.577
10.891,4.9832,7.8275,3.9409,1.877,7.1848,4.0609,4.8845,0.0,3.9409,1.877,7.8818,31.858999,1.0509,19.094999,6.8647,12.06,9.9333,-0.13008,16.879999,-1.8211
1.9802,3.9731,2.8524,-0.98522,-1.0356,3.0397,2.0305,-4.0264,0.0,-0.98522,-1.0356,1.9704,21.282,1.0509,8.0402,3.8944,5.0251,4.9333,1.8211,8.9984,1.1057
-2.9703,3.9731,1.8574,-2.9557,-3.9482,-2.1416,-1.0152,-6.0066,-3.0303,-2.9557,-3.9482,-0.98522,8.7821,4.9918,2.0101,3.8944,2.0101,-0.06667,0.84553,2.1018,5.0081
-6.9307,0.94276,-2.1227,-5.9113,-5.89,-6.2867,-4.0609,-11.947,-3.0303,-5.9113,-5.89,-4.9261,-3.7179,7.9475,-4.0201,2.9043,-1.005,-7.0667,-2.0813,-5.78,3.0569
-5.9406,2.963,-1.1277,-2.9557,-2.0065,-4.2142,-1.0152,-15.908,1.0101,-2.9557,-2.0065,-2.9557,-7.5641,11.888,-4.0201,4.8845,0.0,-9.0667,-1.1057,-6.7652,4.0325
-4.9505,1.9529,-1.1277,0.0,0.90615,-2.1416,0.0,-10.957,1.0101,0.0,0.90615,-0.98522,-13.333,8.9327,-5.0251,2.9043,-2.0101,-6.0667,-3.0569,-6.7652,2.0813
-2.9703,-2.0875,-2.1227,-1.9704,-1.0356,-1.1054,-2.0305,-6.0066,-1.0101,-1.9704,-1.0356,-1.9704,-16.218,4.0066,-4.0201,-3.0363,-5.0251,-10.067,-5.0081,-4.7947,-3.7724
-0.9901,-7.138,-8.0929,-3.9409,-6.8608,-5.2504,-8.1218,-8.9769,-6.0606,-3.9409,-6.8608,-4.9261,-7.5641,1.0509,-3.0151,-7.9868,-9.0452,-7.0667,-10.862,-0.85386,-7.6748
-4.9505,-8.1481,-9.0879,-5.9113,-6.8608,-6.2867,-9.1371,-6.9967,-9.0909,-5.9113,-6.8608,-6.8966,8.7821,3.0213,4.0201,-6.9967,-6.0302,1.9333,-9.8862,6.0427,-7.6748
-3.9604,-8.1481,-8.0929,0.0,-3.9482,-5.2504,-10.152,-6.0066,-9.0909,0.0,-3.9482,-4.9261,13.59,-5.8456,4.0201,-6.9967,-5.0251,-1.0667,-7.935,5.0575,-11.577
-4.9505,-8.1481,-8.0929,-4.9261,-6.8608,-4.2142,-9.1371,-6.9967,-10.101,-4.9261,-6.8608,-6.8966,15.513,-16.683001,2.0101,-9.967,-6.0302,-4.0667,-9.8862,4.0722,-19.382
-1.9802,-1.0774,-2.1227,1.9704,-0.06472,-1.1054,-3.0457,-6.0066,-8.0808,1.9704,-0.06472,0.98522,18.396999,-18.653999,5.0251,-6.0066,-3.0151,2.9333,-6.9593,6.0427,-17.431
0.0,-1.0774,-1.1277,0.0,-1.0356,0.96718,-1.0152,-6.0066,-6.0606,0.0,-1.0356,0.98522,7.8205,-17.667999,2.0101,-6.0066,-4.0201,1.9333,-6.9593,1.1166,-16.455
-5.9406,-6.1279,-4.1128,-3.9409,-7.8317,-6.2867,-7.1066,-7.9868,-9.0909,-3.9409,-7.8317,-1.9704,-11.41,-18.653999,-8.0402,-9.967,-10.05,-7.0667,-13.789,-10.706,-16.455
2.9703,-0.06734,1.8574,0.98522,-0.06472,4.076,0.0,-4.0264,-3.0303,0.98522,-0.06472,3.9409,-20.063999,-8.8013,-5.0251,-4.0264,-6.0302,-7.0667,-6.9593,-11.691,-7.6748
2.9703,1.9529,2.8524,2.9557,-0.06472,3.0397,-1.0152,-1.0561,-3.0303,2.9557,-0.06472,3.9409,-20.063999,0.06568,-4.0201,-1.0561,-4.0201,-4.0667,-5.0081,-10.706,-2.7967
-0.9901,-1.0774,-0.13267,-0.98522,-2.9773,2.0035,-1.0152,-6.0066,-6.0606,-0.98522,-2.9773,0.98522,-15.256,5.977,-4.0201,-2.0462,-6.0302,-4.0667,-7.935,-7.7504,-1.8211
1.9802,-1.0774,0.86235,2.9557,0.90615,5.1123,1.0152,-9.967,-6.0606,2.9557,0.90615,5.9113,-8.5256,6.9622,0.0,-1.0561,-5.0251,-2.0667,-7.935,-1.8391,-0.84553
6.9307,0.94276,4.8425,7.8818,3.8188,11.33,4.0609,3.8944,-3.0303,7.8818,3.8188,8.867,5.8974,12.874,7.0352,1.9142,-1.005,6.9333,-5.0081,7.0279,2.0813
5.9406,0.94276,3.8474,2.9557,0.90615,6.1485,1.0152,4.8845,-5.0505,2.9557,0.90615,5.9113,15.513,13.859,11.055,4.8845,3.0151,5.9333,-5.9837,9.9836,2.0813
8.9109,3.9731,5.8375,1.9704,0.90615,5.1123,3.0457,-3.0363,-3.0303,1.9704,0.90615,5.9113,23.205,10.903,14.07,8.8449,8.0402,1.9333,-3.0569,9.9836,2.0813
8.9109,11.044,9.8176,0.98522,3.8188,5.1123,8.1218,-6.0066,4.0404,0.98522,3.8188,7.8818,29.936001,6.9622,18.09,12.805,13.065,2.9333,0.84553,12.939,3.0569
12.871,16.094,13.798,6.8966,9.644,9.2573,13.198,-3.0363,9.0909,6.8966,9.644,11.823,29.936001,2.0361,18.09,14.785,15.075,8.9333,6.6992,14.91,4.0325
5.9406,10.034,8.8226,6.8966,8.6731,9.2573,9.1371,-0.06601,5.0505,6.8966,8.6731,8.867,12.628,-8.8013,7.0352,5.8746,7.0352,3.9333,1.8211,6.0427,-4.748
2.9703,3.9731,5.8375,10.837,7.7023,5.1123,6.0914,-3.0363,-1.0101,10.837,7.7023,7.8818,-4.6795,-15.698,-3.0151,-1.0561,-1.005,-7.0667,-7.935,-5.78,-9.626
-1.9802,2.963,3.8474,10.837,10.615,6.1485,8.1218,-4.0264,-1.0101,10.837,10.615,6.8966,-15.256,-12.742,-6.0302,-3.0363,-4.0201,-7.0667,-6.9593,-8.7356,-7.6748
-7.9208,-0.06734,-1.1277,6.8966,4.7896,-0.06909,4.0609,-9.967,-1.0101,6.8966,4.7896,2.9557,-24.872,-9.7865,-11.055,-5.0165,-9.0452,-10.067,-7.935,-15.632,-5.7236
1.9802,10.034,6.8325,8.867,9.644,9.2573,13.198,-3.0363,10.101,8.867,9.644,8.867,-20.063999,4.9918,-2.0101,6.8647,0.0,-4.0667,5.7236,-9.7209,6.9593
5.9406,14.074,9.8176,16.749001,13.528,11.33,13.198,9.835,12.121,16.749001,13.528,12.808,-9.4872,13.859,2.0101,11.815,5.0251,0.93333,9.626,-3.8095,13.789
1.9802,3.9731,1.8574,12.808,10.615,8.2211,7.1066,6.8647,5.0505,12.808,10.615,4.9261,-2.7564,14.844,2.0101,8.8449,2.0101,-4.0667,2.7967,-0.85386,9.8862
2.9703,0.94276,1.8574,9.8522,5.7605,5.1123,3.0457,3.8944,1.0101,9.8522,5.7605,3.9409,10.705,14.844,6.0302,8.8449,5.0251,-1.0667,2.7967,5.0575,8.9106
0.0,1.9529,0.86235,5.9113,2.8479,6.1485,4.0609,4.8845,-1.0101,5.9113,2.8479,1.9704,15.513,8.9327,6.0302,6.8647,5.0251,2.9333,2.7967,5.0575,5.0081
0.0,3.9731,1.8574,5.9113,2.8479,4.076,4.0609,1.9142,2.0202,5.9113,2.8479,2.9557,13.59,-0.91954,4.0201,3.8944,3.0151,0.93333,2.7967,1.1166,-0.84553
-2.9703,-5.1178,-5.1078,-1.9704,-3.9482,-1.1054,-2.0305,-6.0066,-6.0606,-1.9704,-3.9482,-3.9409,7.8205,-14.713,-2.0101,-5.0165,-4.0201,-11.067,-7.935,-4.7947,-15.48
0.9901,-3.0976,-1.1277,3.9409,-1.0356,5.1123,2.0305,0.92409,-1.0101,3.9409,-1.0356,1.9704,-0.83333,-22.594,-1.005,-6.9967,-4.0201,-2.0667,-4.0325,-3.8095,-18.407
3.9604,0.94276,2.8524,8.867,5.7605,9.2573,8.1218,9.835,5.0505,8.867,5.7605,6.8966,-14.295,-27.521,-3.0151,-6.0066,-4.0201,2.9333,2.7967,-5.78,-16.455
2.9703,1.9529,3.8474,6.8966,4.7896,5.1123,7.1066,7.8548,7.0707,6.8966,4.7896,5.9113,-21.025999,-18.653999,-3.0151,-4.0264,-4.0201,0.93333,2.7967,-5.78,-8.6504
4.9505,1.9529,2.8524,4.9261,0.90615,4.076,5.0761,-0.06601,4.0404,4.9261,0.90615,4.9261,-21.987,-4.8604,-4.0201,-2.0462,-4.0201,1.9333,2.7967,-4.7947,1.1057
0.9901,0.94276,0.86235,-0.98522,-4.9191,3.0397,2.0305,2.9043,-1.0101,-0.98522,-4.9191,0.98522,-20.063999,4.9918,-1.005,0.92409,-4.0201,3.9333,-0.13008,-3.8095,5.9837
2.9703,0.94276,0.86235,-0.98522,-7.8317,3.0397,0.0,5.8746,-6.0606,-0.98522,-7.8317,0.0,-9.4872,10.903,3.0151,4.8845,0.0,2.9333,-1.1057,0.13136,8.9106
6.9307,2.963,1.8574,-3.9409,-6.8608,2.0035,1.0152,2.9043,-6.0606,-3.9409,-6.8608,-0.98522,6.859,14.844,12.06,9.835,6.0302,6.9333,0.84553,8.9984,9.8862
3.9604,2.963,0.86235,-4.9261,-6.8608,-3.1779,-1.0152,-6.0066,-3.0303,-4.9261,-6.8608,-2.9557,13.59,9.9179,10.05,7.8548,6.0302,4.9333,-1.1057,8.0131,4.0325
-0.9901,-3.0976,-3.1177,-7.8818,-6.8608,-4.2142,-2.0305,-6.9967,-4.0404,-7.8818,-6.8608,-6.8966,8.7821,-2.89,2.0101,-2.0462,-1.005,-0.06667,-7.935,0.13136,-7.6748
2.9703,-4.1077,-1.1277,-2.9557,-2.9773,-0.06909,-1.0152,1.9142,-4.0404,-2.9557,-2.9773,-0.98522,6.859,-11.757,-1.005,-7.9868,-4.0201,0.93333,-9.8862,-3.8095,-14.504
5.9406,-2.0875,0.86235,0.0,-2.0065,6.1485,4.0609,2.9043,-2.0202,0.0,-2.0065,2.9557,1.0897,-17.667999,-2.0101,-9.967,-6.0302,1.9333,-5.9837,-5.78,-16.455
3.9604,-0.06734,1.8574,4.9261,0.90615,7.1848,5.0761,8.8449,-1.0101,4.9261,0.90615,6.8966,-10.449,-25.549999,-8.0402,-11.947,-10.05,5.9333,-5.9837,-10.706,-16.455
2.9703,0.94276,0.86235,3.9409,0.90615,9.2573,7.1066,7.8548,-1.0101,3.9409,0.90615,5.9113,-21.025999,-28.506001,-12.06,-11.947,-13.065,5.9333,-3.0569,-12.677,-14.504
-3.9604,-5.1178,-6.1028,-0.98522,-4.9191,-2.1416,0.0,-3.0363,-7.0707,-0.98522,-4.9191,-0.98522,-37.372002,-29.490999,-20.101,-13.927,-20.101,-6.0667,-6.9593,-18.587999,-13.528
-3.9604,-4.1077,-6.1028,-4.9261,-4.9191,-1.1054,1.0152,-10.957,-5.0505,-4.9261,-4.9191,-2.9557,-35.449001,-13.727,-15.075,-7.9868,-16.08,-8.0667,-4.0325,-14.647,-3.7724
0.9901,-0.06734,-0.13267,-1.9704,-2.9773,2.0035,4.0609,-5.0165,-3.0303,-1.9704,-2.9773,1.9704,-20.063999,4.0066,-4.0201,0.92409,-5.0251,-3.0667,-1.1057,-5.78,5.0081
-2.9703,-2.0875,-1.1277,-5.9113,-6.8608,-3.1779,3.0457,-6.9967,-5.0505,-5.9113,-6.8608,-0.98522,-12.372,7.9475,-3.0151,-0.06601,-2.0101,-2.0667,-5.0081,-3.8095,2.0813
0.0,-1.0774,0.86235,-5.9113,-6.8608,-4.2142,2.0305,-6.0066,-6.0606,-5.9113,-6.8608,-0.98522,-5.641,5.977,0.0,-0.06601,1.005,-4.0667,-5.9837,-1.8391,-1.8211
2.9703,4.9832,3.8474,0.0,-1.0356,0.96718,6.0914,-3.0363,-4.0404,0.0,-1.0356,3.9409,7.8205,7.9475,5.0251,4.8845,5.0251,2.9333,-0.13008,3.087,2.0813
0.9901,3.9731,1.8574,0.0,-1.0356,2.0035,5.0761,-3.0363,-3.0303,0.0,-1.0356,2.9557,14.551,3.0213,6.0302,4.8845,5.0251,-3.0667,-0.13008,6.0427,0.13008
3.9604,3.9731,3.8474,1.9704,0.90615,2.0035,5.0761,-6.0066,0.0,1.9704,0.90615,2.9557,18.396999,-0.91954,5.0251,3.8944,5.0251,-3.0667,0.84553,5.0575,-0.84553
1.9802,1.9529,3.8474,0.0,-1.0356,3.0397,4.0609,-7.9868,-3.0303,0.0,-1.0356,1.9704,17.436001,-2.89,5.0251,0.92409,5.0251,1.9333,-1.1057,7.0279,-1.8211
0.0,-2.0875,0.86235,0.0,-3.9482,-1.1054,-1.0152,-6.0066,-9.0909,0.0,-3.9482,-0.98522,2.0513,-12.742,-2.0101,-5.0165,-1.005,-3.0667,-7.935,-1.8391,-8.6504
0.0,-2.0875,1.8574,0.0,-1.0356,0.96718,2.0305,-3.0363,-8.0808,0.0,-1.0356,0.0,-8.5256,-16.683001,-3.0151,-6.9967,-3.0151,-3.0667,-8.9106,-0.85386,-10.602
-3.9604,-4.1077,0.86235,2.9557,-0.06472,-2.1416,0.0,-4.0264,-10.101,2.9557,-0.06472,0.0,-16.218,-18.653999,-6.0302,-7.9868,-6.0302,-3.0667,-11.837,-2.8243,-13.528
-4.9505,-6.1279,-3.1177,-2.9557,-2.9773,-4.2142,-4.0609,-7.9868,-11.111,-2.9557,-2.9773,-4.9261,-24.872,-15.698,-8.0402,-7.9868,-8.0402,-9.0667,-13.789,-6.7652,-12.553
12.871,12.054,12.803,7.8818,5.7605,6.1485,8.1218,-2.0462,3.0303,7.8818,5.7605,7.8818,-10.449,6.9622,8.0402,10.825,10.05,1.9333,6.6992,4.0722,7.935
16.832001,20.135,18.773001,11.823,12.557,14.439,17.259001,2.9043,11.111,11.823,12.557,12.808,-1.7949,18.785,14.07,19.736,18.09,8.9333,15.48,6.0427,14.764
3.9604,10.034,10.813,4.9261,4.7896,5.1123,7.1066,-2.0462,3.0303,4.9261,4.7896,4.9261,-3.7179,11.888,3.0151,10.825,10.05,0.93333,4.748,-4.7947,5.9837
0.0,2.963,5.8375,0.0,-0.06472,0.96718,2.0305,-4.0264,-5.0505,0.0,-0.06472,-1.9704,-3.7179,4.9918,-2.0101,2.9043,5.0251,-5.0667,-3.0569,-9.7209,0.13008
-7.9208,-5.1178,-1.1277,-3.9409,-2.9773,-8.3592,-5.0761,-10.957,-10.101,-3.9409,-2.9773,-6.8966,-0.83333,-3.8752,-5.0251,-5.0165,-1.005,-11.067,-7.935,-11.691,-3.7724
2.9703,1.9529,3.8474,2.9557,3.8188,3.0397,3.0457,-1.0561,-1.0101,2.9557,3.8188,0.0,12.628,-0.91954,5.0251,0.92409,5.0251,-4.0667,1.8211,1.1166,4.0325
8.9109,10.034,9.8176,8.867,7.7023,7.1848,8.1218,8.8449,5.0505,8.867,7.7023,6.8966,22.243999,1.0509,11.055,6.8647,10.05,9.9333,10.602,12.939,10.862
-2.9703,-0.06734,-1.1277,4.9261,2.8479,2.0035,2.0305,5.8746,-4.0404,4.9261,2.8479,-0.98522,3.9744,-16.683001,-4.0201,-5.0165,-4.0201,5.9333,-0.13008,0.13136,-5.7236
-9.901,-12.189,-13.068,0.98522,-0.06472,-3.1779,-4.0609,0.92409,-9.0909,0.98522,-0.06472,-6.8966,-26.795,-36.388,-20.101,-19.868,-20.101,-10.067,-9.8862,-17.603001,-21.333
-16.832001,-17.239,-19.038,-0.98522,-2.0065,-5.2504,-7.1066,-3.0363,-10.101,-0.98522,-2.0065,-8.867,-46.987,-42.299,-28.141001,-26.799,-28.141001,-14.067,-14.764,-26.469999,-27.187
-16.832001,-18.249001,-18.042999,-3.9409,-3.9482,-5.2504,-9.1371,-4.0264,-14.141,-3.9409,-3.9482,-9.8522,-49.872002,-32.446999,-25.125999,-23.827999,-25.125999,-11.067,-16.715,-24.499001,-24.26
-12.871,-14.209,-13.068,0.98522,-1.0356,-4.2142,-7.1066,-3.0363,-12.121,0.98522,-1.0356,-5.9113,-46.987,-19.639,-21.106001,-15.908,-18.09,-9.0667,-13.789,-23.514,-16.455
-9.901,-9.1582,-9.0879,0.98522,0.90615,-0.06909,-2.0305,0.92409,-4.0404,0.98522,0.90615,-3.9409,-33.526001,-6.8309,-14.07,-9.967,-11.055,-6.0667,-9.8862,-16.617001,-10.602
-10.891,-11.178,-10.083,0.98522,-1.0356,-4.2142,-3.0457,1.9142,-5.0505,0.98522,-1.0356,-3.9409,-11.41,1.0509,-9.0452,-7.9868,-7.0352,-7.0667,-9.8862,-10.706,-8.6504
-7.9208,-12.189,-9.0879,-1.9704,-2.0065,-2.1416,-2.0305,-4.0264,-8.0808,-1.9704,-2.0065,-5.9113,7.8205,5.977,-3.0151,-6.0066,-3.0151,-3.0667,-7.935,-3.8095,-5.7236
-8.9109,-11.178,-9.0879,-1.9704,-3.9482,-4.2142,-4.0609,-2.0462,-8.0808,-1.9704,-3.9482,-5.9113,16.474001,1.0509,-4.0201,-7.9868,-4.0201,-2.0667,-5.9837,-2.8243,-6.6992
-8.9109,-9.1582,-10.083,-1.9704,-1.0356,-1.1054,-1.0152,2.9043,-3.0303,-1.9704,-1.0356,-4.9261,19.358999,-2.89,-4.0201,-9.967,-5.0251,-4.0667,-3.0569,-0.85386,-6.6992
-7.9208,-5.1178,-8.0929,4.9261,1.877,0.96718,2.0305,8.8449,1.0101,4.9261,1.877,0.0,13.59,-8.8013,-5.0251,-9.967,-7.0352,0.93333,-1.1057,0.13136,-5.7236
-8.9109,-10.168,-12.073,0.98522,-2.0065,0.96718,1.0152,7.8548,-4.0404,0.98522,-2.0065,-2.9557,-7.5641,-25.549999,-13.065,-18.878,-16.08,0.93333,-6.9593,-5.78,-16.455
-6.9307,-14.209,-13.068,0.0,-4.9191,-0.06909,-3.0457,2.9043,-9.0909,0.0,-4.9191,-3.9409,-24.872,-34.417,-17.084999,-23.827999,-21.106001,1.9333,-11.837,-8.7356,-22.309
-7.9208,-20.268999,-16.052999,-3.9409,-10.744,-0.06909,-9.1371,4.8845,-15.152,-3.9409,-10.744,-8.867,-35.449001,-34.417,-19.094999,-25.809,-23.115999,1.9333,-16.715,-11.691,-25.236
-1.9802,-17.239,-12.073,-1.9704,-11.715,3.0397,-11.168,10.825,-13.131,-1.9704,-11.715,-7.8818,-33.526001,-19.639,-14.07,-18.878,-17.084999,-3.0667,-14.764,-9.7209,-17.431
3.9604,-3.0976,-2.1227,0.98522,-4.9191,7.1848,-1.0152,15.776,-2.0202,0.98522,-4.9191,-0.98522,-11.41,10.903,0.0,-1.0561,1.005,6.9333,-0.13008,3.087,3.0569
1.9802,2.963,1.8574,-0.98522,-3.9482,3.0397,1.0152,9.835,1.0101,-0.98522,-3.9482,-0.98522,6.859,29.622,8.0402,10.825,12.06,6.9333,6.6992,8.0131,15.74
2.9703,-0.06734,-0.13267,-3.9409,-7.8317,-0.06909,-3.0457,0.92409,-3.0303,-3.9409,-7.8317,-5.9113,18.396999,32.577999,11.055,12.805,15.075,1.9333,4.748,7.0279,15.74
-0.9901,-4.1077,-4.1128,-8.867,-9.7735,-3.1779,-6.0914,-1.0561,-6.0606,-8.867,-9.7735,-9.8522,19.358999,19.77,7.0352,6.8647,11.055,-1.0667,1.8211,2.1018,8.9106
-4.9505,-7.138,-8.0929,-9.8522,-10.744,-7.323,-8.1218,-7.9868,-5.0505,-9.8522,-10.744,-10.837,12.628,1.0509,-1.005,-3.0363,2.0101,-10.067,-2.0813,-5.78,1.1057
-0.9901,-4.1077,-6.1028,-6.8966,-8.8026,-0.06909,-4.0609,0.92409,-2.0202,-6.8966,-8.8026,-6.8966,10.705,-7.8161,-1.005,-5.0165,0.0,-4.0667,-0.13008,-4.7947,-1.8211
-0.9901,-7.138,-8.0929,-2.9557,-5.89,-1.1054,-6.0914,2.9043,-5.0505,-2.9557,-5.89,-6.8966,0.12821,-15.698,-7.0352,-9.967,-6.0302,-1.0667,-2.0813,-7.7504,-7.6748
-5.9406,-10.168,-11.078,-3.9409,-4.9191,-4.2142,-7.1066,3.8944,-6.0606,-3.9409,-4.9191,-9.8522,-9.4872,-15.698,-9.0452,-11.947,-9.0452,-1.0667,-3.0569,-4.7947,-8.6504
-8.9109,-10.168,-13.068,-5.9113,-6.8608,-9.3955,-9.1371,3.8944,-6.0606,-5.9113,-6.8608,-11.823,-14.295,-13.727,-9.0452,-9.967,-10.05,1.9333,-3.0569,-0.85386,-6.6992
-2.9703,-7.138,-12.073,-8.867,-8.8026,-7.323,-8.1218,2.9043,-6.0606,-8.867,-8.8026,-11.823,-12.372,-4.8604,-4.0201,-6.9967,-9.0452,2.9333,-3.0569,5.0575,-2.7967
-3.9604,-2.0875,-9.0879,-10.837,-9.7735,-11.468,-8.1218,-3.0363,-3.0303,-10.837,-9.7735,-10.837,-4.6795,7.9475,0.0,-0.06601,-3.0151,2.9333,-0.13008,8.0131,5.0081
5.9406,8.0135,1.8574,-8.867,-4.9191,-3.1779,-1.0152,-4.0264,3.0303,-8.867,-4.9191,-3.9409,3.9744,19.77,9.0452,11.815,9.0452,2.9333,5.7236,11.954,13.789
7.9208,13.064,8.8226,-3.9409,-2.0065,-2.1416,1.0152,0.92409,5.0505,-3.9409,-2.0065,0.98522,11.667,21.740999,12.06,15.776,16.08,2.9333,8.6504,10.969,15.74
7.9208,5.9933,6.8325,-10.837,-8.8026,-6.2867,-3.0457,-2.0462,-1.0101,-10.837,-8.8026,-3.9409,15.513,16.813999,10.05,10.825,14.07,-5.0667,3.7724,5.0575,10.862
7.9208,8.0135,10.813,-4.9261,-3.9482,-4.2142,-2.0305,6.8647,0.0,-4.9261,-3.9482,0.0,22.243999,16.813999,12.06,10.825,15.075,0.93333,5.7236,6.0427,13.789
5.9406,10.034,11.808,-3.9409,-3.9482,-4.2142,-1.0152,1.9142,0.0,-3.9409,-3.9482,0.0,23.205,15.829,11.055,11.815,15.075,5.9333,7.6748,6.0427,14.764
7.9208,11.044,12.803,-5.9113,-6.8608,-5.2504,-2.0305,-4.0264,0.0,-5.9113,-6.8608,-0.98522,18.396999,10.903,8.0402,9.835,13.065,2.9333,6.6992,5.0575,10.862
4.9505,7.0034,9.8176,-10.837,-9.7735,-7.323,-5.0761,-3.0363,-3.0303,-10.837,-9.7735,-4.9261,7.8205,2.0361,2.0101,4.8845,7.0352,2.9333,1.8211,2.1018,2.0813
2.9703,5.9933,7.8275,-13.793,-11.715,-9.3955,-7.1066,-5.0165,-6.0606,-13.793,-11.715,-6.8966,-4.6795,-3.8752,-1.005,0.92409,3.0151,2.9333,-1.1057,1.1166,-2.7967
15.842,10.034,13.798,-3.9409,-4.9191,-1.1054,-3.0457,5.8746,-3.0303,-3.9409,-4.9191,1.9704,-8.5256,-0.91954,2.0101,3.8944,5.0251,0.93333,0.84553,4.0722,1.1057
12.871,10.034,13.798,-2.9557,-2.9773,0.96718,-1.0152,7.8548,-3.0303,-2.9557,-2.9773,1.9704,-3.7179,6.9622,6.0302,6.8647,8.0402,6.9333,-0.13008,8.9984,4.0325
6.9307,7.0034,11.808,-5.9113,-6.8608,-3.1779,-5.0761,2.9043,-5.0505,-5.9113,-6.8608,-0.98522,6.859,14.844,10.05,9.835,12.06,11.933,-3.0569,13.924,6.9593
2.9703,3.9731,6.8325,-10.837,-10.744,-8.3592,-8.1218,-3.0363,-6.0606,-10.837,-10.744,-7.8818,13.59,19.77,12.06,9.835,13.065,3.9333,-3.0569,13.924,6.9593
2.9703,4.9832,4.8425,-8.867,-10.744,-8.3592,-8.1218,-3.0363,-4.0404,-8.867,-10.744,-5.9113,22.243999,21.740999,12.06,9.835,13.065,2.9333,-0.13008,12.939,10.862
1.9802,4.9832,2.8524,-8.867,-5.89,-5.2504,-4.0609,3.8944,-1.0101,-8.867,-5.89,-4.9261,19.358999,15.829,7.0352,6.8647,8.0402,4.9333,2.7967,8.0131,10.862
5.9406,4.9832,3.8474,-2.9557,-1.0356,-1.1054,-4.0609,9.835,-1.0101,-2.9557,-1.0356,0.0,9.7436,7.9475,1.005,4.8845,5.0251,-3.0667,2.7967,-2.8243,10.862
2.9703,2.963,2.8524,-1.9704,-1.0356,3.0397,-3.0457,7.8548,-4.0404,-1.9704,-1.0356,0.0,2.0513,3.0213,-4.0201,2.9043,1.005,-3.0667,0.84553,-8.7356,6.9593
4.9505,3.9731,3.8474,1.9704,0.90615,4.076,-2.0305,5.8746,-1.0101,1.9704,0.90615,3.9409,-1.7949,-0.91954,-4.0201,1.9142,1.005,-3.0667,-0.13008,-6.7652,3.0569
2.9703,1.9529,0.86235,-0.98522,-0.06472,4.076,-1.0152,0.92409,-4.0404,-0.98522,-0.06472,2.9557,-7.5641,-7.8161,-4.0201,-1.0561,-1.005,-1.0667,-1.1057,-2.8243,-2.7967
-6.9307,-5.1178,-6.1028,-6.8966,-6.8608,-6.2867,-9.1371,-5.0165,-9.0909,-6.8966,-6.8608,-3.9409,-16.218,-15.698,-11.055,-8.9769,-9.0452,-3.0667,-5.0081,-4.7947,-9.626
-10.891,-13.199,-15.058,-9.8522,-8.8026,-10.432,-14.213,-6.9967,-10.101,-9.8522,-8.8026,-10.837,-18.141001,-12.742,-15.075,-13.927,-16.08,-6.0667,-8.9106,-5.78,-11.577
-6.9307,-6.1279,-11.078,-4.9261,-2.9773,-7.323,-9.1371,2.9043,-3.0303,-4.9261,-2.9773,-5.9113,0.12821,4.9918,-5.0251,-5.0165,-9.0452,0.93333,-0.13008,5.0575,0.13008
-6.9307,-5.1178,-13.068,-6.8966,-5.89,-9.3955,-8.1218,-1.0561,-1.0101,-6.8966,-5.89,-8.867,5.8974,7.9475,-5.0251,-5.0165,-9.0452,-4.0667,0.84553,2.1018,-0.84553
-8.9109,-6.1279,-14.063,-9.8522,-7.8317,-11.468,-11.168,-3.0363,-3.0303,-9.8522,-7.8317,-10.837,4.9359,4.9918,-5.0251,-6.9967,-9.0452,-7.0667,0.84553,-0.85386,-1.8211
-8.9109,-5.1178,-12.073,-2.9557,-2.0065,-7.323,-8.1218,-2.0462,-2.0202,-2.9557,-2.0065,-5.9113,5.8974,3.0213,-6.0302,-6.0066,-9.0452,-6.0667,4.748,-2.8243,2.0813
-15.842,-11.178,-18.042999,-7.8818,-4.9191,-11.468,-12.183,-3.0363,-4.0404,-7.8818,-4.9191,-11.823,3.0128,-0.91954,-11.055,-9.967,-13.065,-12.067,2.7967,-9.7209,0.13008
-20.792,-17.239,-24.013,-9.8522,-6.8608,-16.649,-16.243999,-5.0165,-5.0505,-9.8522,-6.8608,-15.764,-6.6026,-8.8013,-19.094999,-14.917,-19.094999,-22.066999,-1.1057,-18.587999,-4.748
-16.832001,-16.229,-22.023001,-6.8966,-2.9773,-11.468,-11.168,-1.0561,-1.0101,-6.8966,-2.9773,-13.793,-13.333,-13.727,-21.106001,-16.898001,-20.101,-18.066999,-2.0813,-21.544001,-8.6504
-21.782,-20.268999,-25.007999,-3.9409,-3.9482,-13.541,-14.213,-1.0561,-4.0404,-3.9409,-3.9482,-13.793,-24.872,-22.594,-28.141001,-20.858,-27.136,-14.067,-6.9593,-24.499001,-15.48
-18.812,-19.259001,-26.003,-5.9113,-3.9482,-11.468,-13.198,-0.06601,-5.0505,-5.9113,-3.9482,-14.778,-27.756001,-23.58,-27.136,-21.848,-28.141001,-13.067,-6.9593,-19.573,-17.431
-25.743,-24.309999,-31.973,-8.867,-3.9482,-21.830999,-17.259001,-9.967,-6.0606,-8.867,-3.9482,-17.733999,-31.603001,-28.506001,-31.156,-26.799,-35.175999,-17.066999,-10.862,-19.573,-21.333
-21.782,-21.278999,-29.983,-5.9113,-0.06472,-15.613,-13.198,-6.0066,-1.0101,-5.9113,-0.06472,-16.749001,-23.91,-19.639,-23.115999,-22.837999,-31.156,-12.067,-7.935,-10.706,-15.48
-23.761999,-24.309999,-31.973,-3.9409,-2.0065,-18.722,-17.259001,-6.0066,-3.0303,-3.9409,-2.0065,-17.733999,-23.91,-18.653999,-22.111,-23.827999,-32.160999,-13.067,-10.862,-12.677,-14.504
-19.802,-23.299999,-29.983,-3.9409,-0.06472,-13.541,-15.228,-9.967,-5.0505,-3.9409,-0.06472,-16.749001,-18.141001,-14.713,-17.084999,-22.837999,-28.141001,-18.066999,-10.862,-11.691,-11.577
-22.771999,-21.278999,-27.993,-2.9557,0.90615,-16.649,-14.213,-7.9868,-1.0101,-2.9557,0.90615,-15.764,-12.372,-11.757,-18.09,-20.858,-27.136,-17.066999,-8.9106,-13.662,-9.626
-19.802,-19.259001,-26.997999,-4.9261,1.877,-13.541,-11.168,-4.0264,1.0101,-4.9261,1.877,-14.778,-8.5256,-10.772,-18.09,-19.868,-26.131001,-15.067,-6.9593,-13.662,-6.6992
-17.822001,-16.229,-24.013,-3.9409,2.8479,-14.577,-11.168,-5.0165,-1.0101,-3.9409,2.8479,-12.808,-6.6026,-8.8013,-17.084999,-15.908,-22.111,-14.067,-5.9837,-13.662,-6.6992
-22.771999,-18.249001,-26.003,-4.9261,1.877,-17.686001,-13.198,-7.9868,-1.0101,-4.9261,1.877,-15.764,-12.372,-14.713,-20.101,-16.898001,-23.115999,-18.066999,-10.862,-17.603001,-13.528
-20.792,-19.259001,-24.013,-4.9261,0.90615,-15.613,-14.213,-8.9769,0.0,-4.9261,0.90615,-15.764,-21.025999,-23.58,-21.106001,-17.888,-23.115999,-18.066999,-13.789,-21.544001,-21.333
-18.812,-16.229,-20.033001,-0.98522,3.8188,-9.3955,-11.168,-6.0066,1.0101,-0.98522,3.8188,-9.8522,-26.795,-27.521,-24.121,-18.878,-25.125999,-14.067,-10.862,-21.544001,-21.333
-13.861,-13.199,-14.063,0.0,5.7605,-5.2504,-7.1066,1.9142,1.0101,0.0,5.7605,-5.9113,-26.795,-24.565001,-23.115999,-17.888,-25.125999,-8.0667,-7.935,-17.603001,-18.407
-12.871,-12.189,-14.063,-2.9557,1.877,-9.3955,-8.1218,-5.0165,-1.0101,-2.9557,1.877,-6.8966,-27.756001,-19.639,-25.125999,-18.878,-26.131001,-9.0667,-7.935,-18.587999,-14.504
-12.871,-9.1582,-12.073,-3.9409,2.8479,-8.3592,-4.0609,-6.0066,1.0101,-3.9409,2.8479,-5.9113,-25.833,-15.698,-20.101,-15.908,-23.115999,-9.0667,-6.9593,-13.662,-11.577
-10.891,-11.178,-12.073,-3.9409,1.877,-10.432,-5.0761,-9.967,-5.0505,-3.9409,1.877,-4.9261,-28.718,-20.624001,-20.101,-17.888,-24.121,-19.066999,-12.813,-15.632,-15.48
-1.9802,-2.0875,-2.1227,-2.9557,4.7896,-2.1416,0.0,-3.0363,3.0303,-2.9557,4.7896,0.0,-12.372,-5.8456,-5.0251,-6.0066,-12.06,-4.0667,-3.0569,-3.8095,-4.748
4.9505,3.9731,5.8375,3.9409,8.6731,3.0397,3.0457,3.8944,10.101,3.9409,8.6731,5.9113,4.9359,4.9918,4.0201,1.9142,-3.0151,0.93333,4.748,2.1018,5.0081
0.9901,0.94276,2.8524,0.0,6.7314,3.0397,3.0457,-0.06601,6.0606,0.0,6.7314,1.9704,4.9359,2.0361,-1.005,-2.0462,-5.0251,-9.0667,2.7967,-5.78,0.13008
-3.9604,1.9529,1.8574,1.9704,7.7023,-1.1054,4.0609,-4.0264,9.0909,1.9704,7.7023,3.9409,2.0513,-3.8752,-5.0251,-3.0363,-6.0302,-10.067,2.7967,-10.706,-3.7724
-3.9604,-0.06734,-0.13267,-3.9409,3.8188,-3.1779,4.0609,-12.937,6.0606,-3.9409,3.8188,0.98522,-9.4872,-14.713,-10.05,-6.9967,-8.0402,-18.066999,-1.1057,-17.603001,-10.602
-2.9703,-0.06734,1.8574,-0.98522,5.7605,-0.06909,3.0457,-4.0264,6.0606,-0.98522,5.7605,2.9557,-20.063999,-25.549999,-14.07,-7.9868,-10.05,-13.067,-4.0325,-20.558001,-16.455
-3.9604,-3.0976,-1.1277,-1.9704,4.7896,-0.06909,2.0305,1.9142,4.0404,-1.9704,4.7896,0.0,-31.603001,-33.431999,-16.08,-12.937,-15.075,-11.067,-6.9593,-20.558001,-23.285
-7.9208,-7.138,-6.1028,-0.98522,3.8188,-2.1416,-1.0152,0.92409,3.0303,-0.98522,3.8188,-1.9704,-46.026001,-40.327999,-25.125999,-20.858,-25.125999,-12.067,-8.9106,-27.455,-28.163
-10.891,-8.1481,-10.083,0.98522,6.7314,0.96718,2.0305,0.92409,8.0808,0.98522,6.7314,-0.98522,-47.949001,-36.388,-29.146,-23.827999,-31.156,-10.067,-5.9837,-26.469999,-23.285
-8.9109,-12.189,-16.052999,-3.9409,1.877,-5.2504,-3.0457,-2.0462,4.0404,-3.9409,1.877,-4.9261,-33.526001,-24.565001,-24.121,-23.827999,-32.160999,-14.067,-5.9837,-17.603001,-17.431
-5.9406,-9.1582,-15.058,-1.9704,2.8479,-4.2142,-2.0305,-1.0561,7.0707,-1.9704,2.8479,-5.9113,-5.641,-4.8604,-10.05,-14.917,-23.115999,-7.0667,-0.13008,-1.8391,-3.7724
-10.891,-11.178,-18.042999,-9.8522,-5.89,-12.504,-10.152,-6.0066,3.0303,-9.8522,-5.89,-12.808,9.7436,4.9918,-5.0251,-8.9769,-17.084999,-9.0667,-1.1057,3.087,2.0813
-11.881,-10.168,-17.048,-6.8966,-3.9482,-12.504,-10.152,-4.0264,2.0202,-6.8966,-3.9482,-12.808,12.628,4.9918,-5.0251,-5.0165,-13.065,-9.0667,-0.13008,-1.8391,4.0325
-14.851,-9.1582,-16.052999,-6.8966,-3.9482,-10.432,-8.1218,-6.0066,0.0,-6.8966,-3.9482,-10.837,7.8205,1.0509,-7.0352,-4.0264,-12.06,-8.0667,0.84553,-5.78,1.1057
-15.842,-12.189,-19.038,-6.8966,-4.9191,-13.541,-10.152,-9.967,-2.0202,-6.8966,-4.9191,-11.823,-0.83333,-9.7865,-13.065,-9.967,-16.08,-14.067,-4.0325,-11.691,-7.6748
-13.861,-10.168,-15.058,-3.9409,-1.0356,-8.3592,-4.0609,-6.0066,1.0101,-3.9409,-1.0356,-6.8966,-14.295,-23.58,-15.075,-14.917,-17.084999,-12.067,-4.0325,-15.632,-17.431
-5.9406,-4.1077,-6.1028,4.9261,5.7605,-0.06909,3.0457,3.8944,8.0808,4.9261,5.7605,2.9557,-21.987,-28.506001,-12.06,-13.927,-13.065,-9.0667,-1.1057,-15.632,-19.382
0.9901,-3.0976,-3.1177,4.9261,7.7023,5.1123,7.1066,2.9043,8.0808,4.9261,7.7023,4.9261,-25.833,-24.565001,-7.0352,-11.947,-10.05,-11.067,-0.13008,-10.706,-13.528
1.9802,-3.0976,-4.1128,8.867,8.6731,5.1123,5.0761,-2.0462,8.0808,8.867,8.6731,4.9261,-28.718,-19.639,-9.0452,-8.9769,-11.055,-7.0667,1.8211,-9.7209,-5.7236
-9.901,-10.168,-13.068,2.9557,4.7896,-0.06909,0.0,-8.9769,6.0606,2.9557,4.7896,-3.9409,-31.603001,-16.683001,-19.094999,-11.947,-19.094999,-4.0667,-1.1057,-15.632,-3.7724
-16.832001,-12.189,-16.052999,-0.98522,-0.06472,-8.3592,-5.0761,-1.0561,-1.0101,-0.98522,-0.06472,-6.8966,-24.872,-11.757,-21.106001,-10.957,-21.106001,-6.0667,-5.0081,-16.617001,-0.84553
-17.822001,-14.209,-18.042999,-5.9113,-2.9773,-9.3955,-5.0761,-0.06601,-10.101,-5.9113,-2.9773,-9.8522,-16.218,-8.8013,-19.094999,-11.947,-21.106001,-12.067,-8.9106,-15.632,-4.748
-7.9208,-9.1582,-11.078,2.9557,4.7896,-2.1416,-2.0305,3.8944,0.0,2.9557,4.7896,-1.9704,2.0513,1.0509,-7.0352,-6.9967,-11.055,-9.0667,-5.0081,-5.78,-2.7967
0.9901,-12.189,-12.073,2.9557,4.7896,-0.06909,-3.0457,0.92409,4.0404,2.9557,4.7896,-3.9409,11.667,4.9918,1.005,-6.9967,-8.0402,-14.067,-4.0325,1.1166,-4.748
-10.891,-14.209,-16.052999,-1.9704,-0.06472,-8.3592,-8.1218,-3.0363,1.0101,-1.9704,-0.06472,-9.8522,9.7436,1.0509,-1.005,-8.9769,-10.05,-10.067,-4.0325,-1.8391,-8.6504
-8.9109,-3.0976,-6.1028,2.9557,7.7023,-3.1779,3.0457,-2.0462,12.121,2.9557,7.7023,-1.9704,10.705,3.0213,0.0,-1.0561,-3.0151,-1.0667,6.6992,0.13136,0.13008
0.0,5.9933,6.8325,5.9113,12.557,3.0397,11.168,-5.0165,16.162001,5.9113,12.557,6.8966,5.8974,-0.91954,3.0151,5.8746,5.0251,-2.0667,12.553,-0.85386,5.0081
2.9703,3.9731,7.8275,7.8818,12.557,7.1848,11.168,1.9142,11.111,7.8818,12.557,7.8818,-11.41,-15.698,-3.0151,1.9142,1.005,-0.06667,7.6748,-7.7504,-2.7967
0.9901,-3.0976,0.86235,9.8522,9.644,8.2211,4.0609,13.795,6.0606,9.8522,9.644,2.9557,-30.641001,-31.461,-12.06,-9.967,-10.05,-1.0667,-1.1057,-13.662,-13.528
5.9406,-2.0875,0.86235,11.823,8.6731,9.2573,3.0457,16.766001,4.0404,11.823,8.6731,3.9409,-36.41,-28.506001,-11.055,-9.967,-12.06,-3.0667,-1.1057,-11.691,-8.6504
6.9307,1.9529,3.8474,9.8522,10.615,10.294,7.1066,12.805,2.0202,9.8522,10.615,5.9113,-24.872,-6.8309,-1.005,-1.0561,-5.0251,7.9333,5.7236,-2.8243,5.0081
1.9802,-3.0976,-1.1277,9.8522,6.7314,5.1123,1.0152,1.9142,1.0101,9.8522,6.7314,1.9704,-9.4872,9.9179,1.005,1.9142,-2.0101,9.9333,0.84553,1.1166,6.9593
7.9208,1.9529,4.8425,8.867,8.6731,7.1848,5.0761,7.8548,6.0606,8.867,8.6731,3.9409,13.59,28.636999,13.065,10.825,9.0452,10.933,2.7967,12.939,12.813
10.891,11.044,10.813,11.823,12.557,7.1848,9.1371,9.835,9.0909,11.823,12.557,8.867,31.858999,38.488998,22.111,19.736,18.09,12.933,8.6504,19.836,17.691
13.861,12.054,10.813,5.9113,8.6731,7.1848,10.152,3.8944,12.121,5.9113,8.6731,5.9113,37.627998,36.519001,22.111,18.746,18.09,4.9333,11.577,20.820999,16.715
7.9208,11.044,6.8325,5.9113,5.7605,6.1485,9.1371,7.8548,12.121,5.9113,5.7605,5.9113,33.782001,21.740999,16.08,11.815,9.0452,6.9333,15.48,17.865,10.862
-7.9208,-1.0774,-6.1028,3.9409,4.7896,-0.06909,3.0457,-4.0264,9.0909,3.9409,4.7896,-1.9704,4.9359,-8.8013,-4.0201,-5.0165,-9.0452,1.9333,9.626,0.13136,-4.748
-9.901,-6.1279,-9.0879,4.9261,6.7314,-0.06909,1.0152,-0.06601,10.101,4.9261,6.7314,-0.98522,-21.025999,-32.446999,-15.075,-13.927,-16.08,-4.0667,5.7236,-15.632,-14.504
-4.9505,1.9529,0.86235,9.8522,14.498,8.2211,13.198,5.8746,15.152,9.8522,14.498,9.8522,-36.41,-44.269001,-14.07,-10.957,-11.055,0.93333,6.6992,-18.587999,-18.407
-3.9604,5.9933,5.8375,13.793,19.353001,10.294,18.274,2.9043,16.162001,13.793,19.353001,16.749001,-59.487,-58.062,-20.101,-13.927,-13.065,-3.0667,4.748,-28.440001,-26.211
1.9802,9.0236,7.8275,13.793,20.323999,14.439,22.334999,5.8746,19.191999,13.793,20.323999,18.719,-66.218002,-52.151001,-21.106001,-11.947,-15.075,-4.0667,6.6992,-28.440001,-20.358
0.9901,12.054,6.8325,12.808,18.382,12.366,21.32,11.815,23.232,12.808,18.382,16.749001,-43.140999,-18.653999,-11.055,-3.0363,-10.05,4.9333,14.504,-12.677,0.13008
-7.9208,2.963,-5.1078,7.8818,10.615,3.0397,9.1371,6.8647,8.0808,7.8818,10.615,4.9261,-11.41,12.874,-7.0352,0.92409,-12.06,5.9333,11.577,0.13136,12.813
-15.842,-11.178,-17.048,-1.9704,-0.06472,-7.323,-6.0914,2.9043,0.0,-1.9704,-0.06472,-8.867,12.628,26.667,-5.0251,-2.0462,-14.07,1.9333,5.7236,7.0279,12.813
-9.901,-12.189,-15.058,-1.9704,0.90615,-6.2867,-6.0914,-4.0264,4.0404,-1.9704,0.90615,-8.867,28.974001,29.622,4.0201,-0.06601,-6.0302,-3.0667,4.748,9.9836,11.837
-3.9604,-8.1481,-8.0929,-4.9261,1.877,-7.323,-3.0457,-8.9769,3.0303,-4.9261,1.877,-6.8966,33.782001,24.695999,11.055,1.9142,1.005,-4.0667,1.8211,9.9836,7.935
-3.9604,-8.1481,-5.1078,-3.9409,-0.06472,-6.2867,-2.0305,-6.0066,-3.0303,-3.9409,-0.06472,-4.9261,25.128,11.888,7.0352,-1.0561,2.0101,-3.0667,-5.0081,3.087,1.1057
-5.9406,-7.138,-5.1078,-2.9557,-0.06472,-3.1779,0.0,-1.0561,-3.0303,-2.9557,-0.06472,-2.9557,5.8974,-6.8309,0.0,-5.0165,-3.0151,-1.0667,-5.9837,-2.8243,-6.6992
-17.822001,-12.189,-13.068,-5.9113,-5.89,-11.468,-6.0914,-3.0363,-7.0707,-5.9113,-5.89,-6.8966,-23.91,-32.446999,-18.09,-17.888,-18.09,-3.0667,-6.9593,-16.617001,-20.358
-17.822001,-10.168,-13.068,-4.9261,-2.0065,-8.3592,-4.0609,-2.0462,2.0202,-4.9261,-2.0065,-6.8966,-40.256001,-43.284,-24.121,-21.848,-23.115999,-1.0667,-0.13008,-18.587999,-24.26
-12.871,-10.168,-11.078,-2.9557,1.877,-9.3955,-5.0761,0.92409,2.0202,-2.9557,1.877,-5.9113,-52.756001,-53.136002,-25.125999,-23.827999,-25.125999,-3.0667,3.7724,-20.558001,-27.187
-8.9109,-10.168,-11.078,-5.9113,3.8188,-8.3592,-2.0305,-6.9967,1.0101,-5.9113,3.8188,-6.8966,-61.41,-57.077,-23.115999,-23.827999,-25.125999,-4.0667,4.748,-23.514,-26.211
-5.9406,-2.0875,-6.1028,0.98522,7.7023,-4.2142,4.0609,-1.0561,8.0808,0.98522,7.7023,0.0,-46.026001,-38.358002,-15.075,-13.927,-17.084999,0.93333,9.626,-16.617001,-13.528
-3.9604,-1.0774,-6.1028,-3.9409,1.877,-3.1779,5.0761,-6.0066,5.0505,-3.9409,1.877,-0.98522,-15.256,-4.8604,-5.0251,-6.0066,-10.05,-2.0667,8.6504,-5.78,1.1057
-6.9307,-4.1077,-8.0929,-10.837,-6.8608,-10.432,-2.0305,-9.967,0.0,-10.837,-6.8608,-4.9261,16.474001,26.667,4.0201,0.92409,-4.0201,-2.0667,5.7236,5.0575,12.813
-6.9307,-5.1178,-9.0879,-9.8522,-7.8317,-8.3592,-4.0609,-6.9967,-2.0202,-9.8522,-7.8317,-6.8966,42.436001,48.341999,13.065,7.8548,3.0151,3.9333,4.748,16.879999,22.569
-0.9901,-4.1077,-7.0978,-5.9113,-6.8608,-6.2867,-5.0761,-2.0462,-2.0202,-5.9113,-6.8608,-4.9261,53.013,54.252998,19.094999,12.805,11.055,1.9333,3.7724,22.791,24.52
1.9802,-0.06734,-3.1177,-4.9261,-4.9191,-3.1779,-3.0457,1.9142,-1.0101,-4.9261,-4.9191,-3.9409,53.013,48.341999,23.115999,17.756001,18.09,6.9333,6.6992,22.791,22.569
4.9505,4.9832,3.8474,-2.9557,-1.0356,-0.06909,0.0,-2.0462,3.0303,-2.9557,-1.0356,0.0,34.743999,29.622,19.094999,15.776,19.094999,6.9333,10.602,14.91,13.789
4.9505,3.9731,3.8474,-0.98522,-1.0356,-1.1054,3.0457,-6.0066,4.0404,-0.98522,-1.0356,0.98522,3.9744,-3.8752,5.0251,2.9043,8.0402,-5.0667,8.6504,-1.8391,-4.748
-6.9307,-0.06734,-2.1227,0.0,-2.9773,0.96718,4.0609,3.8944,2.0202,0.0,-2.9773,1.9704,-25.833,-36.388,-14.07,-13.927,-10.05,-6.0667,4.748,-18.587999,-21.333
-12.871,-8.1481,-9.0879,1.9704,-4.9191,-0.06909,-1.0152,-0.06601,0.0,1.9704,-4.9191,0.0,-46.026001,-60.033001,-25.125999,-27.789,-24.121,-8.0667,-0.13008,-25.483999,-33.041
-6.9307,-6.1279,-6.1028,-0.98522,-6.8608,4.076,-2.0305,-4.0264,1.0101,-0.98522,-6.8608,0.98522,-47.949001,-61.018002,-18.09,-25.809,-21.106001,-4.0667,-0.13008,-17.603001,-31.089001
18.812,17.104,16.783001,5.9113,2.8479,16.511,14.213,4.8845,13.131,5.9113,2.8479,17.733999,-12.372,-23.58,12.06,2.9043,6.0302,14.933,18.407,12.939,-0.84553
