C3,C4,Cz,F1,F2,F3,F4,F7,F8,Fp1,Fp2,Fz,O1,O2,P3,P4,Pz,T3,T4,T5,T6
-3.8994,-11.365,-3.8374,-42.512001,-39.409,-6.1138,-7.8049,-25.184999,-15.675,-42.512001,-39.409,-9.8522,-1.9139,-5.7504,-7.5197,-13.527,-7.6651,-0.12821,-18.830999,-3.9216,-13.59
-13.333,-22.794001,-11.642,-27.052999,-41.379002,-19.771999,-27.316999,-19.388,-27.382,-27.052999,-41.379002,-23.645,-5.7416,-5.7504,-13.207,-19.323999,-15.395,-5.8974,-22.622,-5.8824,-15.513
-11.447,-15.175,-9.6911,-34.783001,-47.291,-17.820999,-50.731998,-17.455999,-19.577,-34.783001,-47.291,-23.645,0.0,-5.7504,-9.4155,-11.594,-9.5974,-2.0513,-11.248,-7.8431,-7.8205
-3.8994,-5.6508,-1.8862,-23.188,-21.674999,-11.967,-13.659,-1.9968,-5.9187,-23.188,-21.674999,-9.8522,3.8278,-0.06319,-1.8325,-3.8647,-3.8003,-0.12821,5.8136,-3.9216,-3.9744
-5.7862,-11.365,-7.7398,-23.188,-31.527,-19.771999,-9.7561,-9.7262,-11.772,-23.188,-31.527,-15.764,-11.483,-3.8547,-9.4155,-7.7295,-9.5974,-0.12821,3.9179,-5.8824,-5.8974
-0.12579,-1.8413,0.06504,-11.594,-11.823,-13.919,-13.659,15.395,-3.9675,-11.594,-11.823,-7.8818,-3.8278,-0.06319,0.06319,0.0,-1.868,11.41,0.12638,1.9608,1.7949
7.4214,7.6825,3.9675,-9.6618,-5.9113,11.447,3.9024,-3.9291,-2.0163,-9.6618,-5.9113,0.0,-5.7416,-0.06319,-1.8325,5.7971,-1.868,9.4872,3.9179,0.0,3.7179
-32.201,-26.603001,-35.056999,-63.768002,-80.788002,-39.285,-39.023998,-36.778999,-35.187,-63.768002,-80.788002,-37.438,-34.450001,-30.395,-35.956001,-28.986,-38.583,-25.128,-22.622,-29.412001,-25.128
-2.0126,0.06349,0.06504,-3.8647,0.0,-2.2114,9.7561,-9.7262,-11.772,-3.8647,0.0,1.9704,-1.9139,-1.9589,-5.624,-1.9324,-7.6651,5.641,7.7093,-3.9216,-0.12821
22.516001,19.111,23.48,21.256001,23.645,19.252001,19.511999,19.259001,17.496,21.256001,23.645,27.586,11.483,16.997999,15.229,17.391001,15.523,19.103001,19.084,7.8431,15.256
1.761,1.9683,2.0163,-9.6618,-17.733999,-0.26016,-1.9512,7.6651,3.8374,-9.6618,-17.733999,5.9113,-11.483,-11.438,-5.624,-3.8647,-5.7327,7.5641,-3.6651,-5.8824,-7.8205
-2.0126,0.06349,-5.7886,-21.256001,-31.527,-0.26016,-9.7561,-7.7939,-11.772,-21.256001,-31.527,-3.9409,-3.8278,-9.5419,-3.7283,-5.7971,-7.6651,1.7949,-7.4566,-1.9608,-7.8205
3.6478,7.6825,0.06504,-15.459,-17.733999,-4.1626,11.707,-23.253,-3.9675,-15.459,-17.733999,-1.9704,-9.5694,-5.7504,0.06319,3.8647,0.06441,3.7179,3.9179,-7.8431,1.7949
20.629,17.205999,13.724,9.6618,13.793,13.398,5.8537,19.259001,-5.9187,9.6618,13.793,11.823,1.9139,7.5197,17.125,15.459,15.523,17.179001,7.7093,-7.8431,11.41
24.403,24.825001,19.577,27.052999,9.8522,23.153999,15.61,9.5974,13.593,27.052999,9.8522,21.674999,15.311,16.997999,22.812,25.121,23.253,19.103001,3.9179,9.8039,15.256
7.4214,13.397,3.9675,3.8647,-15.764,13.398,25.365999,5.7327,5.7886,3.8647,-15.764,9.8522,1.9139,1.8325,3.8547,7.7295,5.8615,7.5641,9.6051,7.8431,3.7179
11.195,7.6825,3.9675,-9.6618,-1.9704,25.106001,-3.9024,21.191999,-5.9187,-9.6618,-1.9704,11.823,-5.7416,-7.6461,5.7504,1.9324,1.9968,5.641,-3.6651,9.8039,-3.9744
14.969,11.492,11.772,11.594,-5.9113,23.153999,9.7561,17.327,-3.9675,11.594,-5.9113,15.764,1.9139,-1.9589,11.438,3.8647,9.7262,11.41,-9.3523,9.8039,-2.0513
-5.7862,-7.5556,-9.6911,5.7971,11.823,-8.065,-1.9512,-3.9291,-23.48,5.7971,11.823,-3.9409,-7.6555,-9.5419,-3.7283,-9.6618,-7.6651,-0.12821,-18.830999,-3.9216,-9.7436
5.5346,3.873,2.0163,15.459,33.498001,5.5935,9.7561,5.7327,9.6911,15.459,33.498001,7.8818,5.7416,7.5197,11.438,3.8647,7.7939,1.7949,11.501,9.8039,7.5641
13.082,7.6825,7.8699,13.527,7.8818,27.056999,11.707,21.191999,9.6911,13.527,7.8818,13.793,17.225,13.207,17.125,5.7971,13.591,7.5641,0.12638,17.646999,7.5641
7.4214,-1.8413,3.9675,1.9324,-35.467999,15.35,5.8537,19.259001,-11.772,1.9324,-35.467999,5.9113,11.483,3.7283,11.438,-5.7971,7.7939,15.256,-16.934999,15.686,-5.8974
-5.7862,-13.27,-5.7886,1.9324,-1.9704,-6.1138,-13.659,9.5974,-3.9675,1.9324,-1.9704,-9.8522,-3.8278,-5.7504,-1.8325,-9.6618,-3.8003,-0.12821,-16.934999,0.0,-9.7436
-5.7862,-17.079,-11.642,1.9324,31.527,-10.016,-19.511999,3.8003,-5.9187,1.9324,31.527,-9.8522,-9.5694,-9.5419,-7.5197,-11.594,-9.5974,5.641,-7.4566,-5.8824,-9.7436
-3.8994,-17.079,-15.545,9.6618,-1.9704,3.6423,-15.61,5.7327,-11.772,9.6618,-1.9704,-11.823,-7.6555,-9.5419,-3.7283,-13.527,-9.5974,1.7949,-9.3523,0.0,-9.7436
-3.8994,-9.4603,-17.496,7.7295,-7.8818,7.5447,3.9024,1.868,-3.9675,7.7295,-7.8818,-7.8818,3.8278,-0.06319,0.06319,-3.8647,-5.7327,1.7949,-1.7694,9.8039,3.7179
7.4214,7.6825,-5.7886,5.7971,-23.645,19.252001,-1.9512,1.868,7.7398,5.7971,-23.645,5.9113,13.397,7.5197,9.5419,7.7295,5.8615,13.333,7.7093,13.725,5.641
-2.0126,-3.746,-11.642,-1.9324,7.8818,-2.2114,1.9512,11.53,1.8862,-1.9324,7.8818,-1.9704,0.0,1.8325,-1.8325,-1.9324,-3.8003,-5.8974,0.12638,0.0,1.7949
-20.881001,-18.983999,-25.301001,1.9324,17.733999,-27.577,-11.707,-3.9291,3.8374,1.9324,17.733999,-19.704,-7.6555,-5.7504,-13.207,-13.527,-13.462,-7.8205,2.0221,-1.9608,-0.12821
-15.22,-22.794001,-21.398001,-1.9324,-11.823,-10.016,-13.659,-0.06441,-11.772,-1.9324,-11.823,-17.733999,-7.6555,-11.438,-9.4155,-17.391001,-11.53,-2.0513,-20.726999,0.0,-11.667
1.761,1.9683,2.0163,3.8647,-3.9409,9.4959,11.707,5.7327,-5.9187,3.8647,-3.9409,3.9409,9.5694,7.5197,7.6461,3.8647,9.7262,7.5641,-1.7694,13.725,7.5641
7.4214,7.6825,7.8699,-13.527,-31.527,7.5447,0.0,5.7327,9.6911,-13.527,-31.527,5.9113,13.397,15.103,13.333,11.594,13.591,7.5641,13.397,13.725,11.41
-2.0126,1.9683,3.9675,13.527,23.645,-15.87,-3.9024,13.462,5.7886,13.527,23.645,1.9704,15.311,15.103,3.8547,7.7295,9.7262,3.7179,9.6051,3.9216,15.256
-7.673,-5.6508,-7.7398,11.594,19.704,-10.016,-3.9024,-5.8615,1.8862,11.594,19.704,-3.9409,-3.8278,-1.9589,-7.5197,-1.9324,-3.8003,-5.8974,0.12638,-5.8824,1.7949
-9.5597,-7.5556,-9.6911,-17.391001,-43.349998,1.6911,-15.61,-21.32,-17.625999,-17.391001,-43.349998,-5.9113,-1.9139,-0.06319,-7.5197,-3.8647,-3.8003,1.7949,-11.248,-5.8824,-9.7436
-7.673,-1.8413,-5.7886,3.8647,5.9113,3.6423,1.9512,17.327,-0.06504,3.8647,5.9113,-1.9704,7.6555,5.624,0.06319,3.8647,1.9968,1.7949,2.0221,0.0,1.7949
-9.5597,0.06349,-5.7886,1.9324,15.764,-4.1626,-3.9024,-3.9291,3.8374,1.9324,15.764,-1.9704,3.8278,9.4155,-3.7283,5.7971,1.9968,-7.8205,11.501,0.0,13.333
-9.5597,-1.8413,-3.8374,13.527,-3.9409,-10.016,-13.659,15.395,-0.06504,13.527,-3.9409,-3.9409,3.8278,9.4155,-1.8325,5.7971,3.9291,-5.8974,-3.6651,-1.9608,11.41
-5.7862,-1.8413,-5.7886,7.7295,9.8522,-8.065,7.8049,7.6651,1.8862,7.7295,9.8522,-5.9113,1.9139,5.624,-1.8325,3.8647,1.9968,-2.0513,2.0221,-3.9216,9.4872
-7.673,-15.175,-15.545,-25.121,-27.586,-0.26016,-13.659,-19.388,-7.8699,-25.121,-27.586,-17.733999,3.8278,1.8325,-3.7283,-3.8647,-1.868,-7.8205,-3.6651,0.0,-0.12821
1.761,5.7778,0.06504,-11.594,-31.527,-10.016,5.8537,5.7327,1.8862,-11.594,-31.527,-1.9704,19.139,18.893999,13.333,15.459,15.523,5.641,5.8136,13.725,21.025999
-17.107,-13.27,-19.447001,1.9324,11.823,-37.333,-29.268,-23.253,-3.9675,1.9324,11.823,-27.586,11.483,11.311,-1.8325,1.9324,1.9968,-7.8205,-5.5608,0.0,7.5641
-24.653999,-34.222,-35.056999,-7.7295,-3.9409,-27.577,-37.073002,-32.915001,-27.382,-7.7295,-3.9409,-39.409,-13.397,-15.229,-18.893999,-21.256001,-19.259001,-19.358999,-13.144,-13.725,-15.513
-5.7862,0.06349,-1.8862,-3.8647,-5.9113,-15.87,1.9512,9.5974,1.8862,-3.8647,-5.9113,-9.8522,-1.9139,5.624,3.8547,5.7971,5.8615,-2.0513,5.8136,1.9608,11.41
3.6478,3.873,5.9187,-21.256001,-1.9704,5.5935,7.8049,-0.06441,11.642,-21.256001,-1.9704,-1.9704,11.483,11.311,9.5419,9.6618,9.7262,7.5641,5.8136,7.8431,11.41
5.5346,11.492,11.772,1.9324,7.8818,-10.016,1.9512,-0.06441,13.593,1.9324,7.8818,5.9113,19.139,18.893999,13.333,17.391001,17.455999,1.7949,17.188,13.725,17.179001
-5.7862,0.06349,0.06504,23.188,23.645,-11.967,7.8049,5.7327,7.7398,23.188,23.645,0.0,11.483,9.4155,1.9589,3.8647,3.9291,-3.9744,9.6051,9.8039,7.5641
-18.993999,-28.507999,-23.35,-3.8647,-9.8522,-11.967,-21.462999,-7.7939,-11.772,-3.8647,-9.8522,-17.733999,-13.397,-20.916,-18.893999,-27.052999,-25.056,-11.667,-16.934999,-9.8039,-19.358999
-0.12579,-11.365,-3.8374,0.0,-27.586,11.447,-7.8049,-30.982,-7.8699,0.0,-27.586,-5.9113,-7.6555,-5.7504,-9.4155,-11.594,-13.462,-5.8974,-20.726999,-11.765,-7.8205
18.742001,11.492,19.577,-7.7295,5.9113,25.106001,3.9024,15.395,-3.9675,-7.7295,5.9113,13.793,13.397,13.207,11.438,11.594,11.659,15.256,13.397,1.9608,9.4872
3.6478,1.9683,5.9187,13.527,7.8818,-8.065,-9.7561,26.989,-0.06504,13.527,7.8818,1.9704,-1.9139,-1.9589,1.9589,1.9324,-1.868,5.641,9.6051,0.0,-2.0513
-3.8994,0.06349,-5.7886,27.052999,23.645,-8.065,11.707,5.7327,11.642,27.052999,23.645,3.9409,-3.8278,-1.9589,-5.624,-1.9324,-7.6651,-5.8974,9.6051,0.0,-2.0513
-13.333,-11.365,-17.496,0.0,11.823,-10.016,-1.9512,-0.06441,1.8862,0.0,11.823,-3.9409,-7.6555,-11.438,-9.4155,-11.594,-15.395,-7.8205,2.0221,-3.9216,-5.8974
-20.881001,-30.413,-31.153999,-19.323999,-21.674999,-23.674999,-13.659,-21.32,-25.431,-19.323999,-21.674999,-17.733999,-22.966999,-26.603001,-22.686001,-32.849998,-32.785999,-11.667,-22.622,-13.725,-27.051001
5.5346,-1.8413,0.06504,-17.391001,-33.498001,32.910999,-7.8049,7.6651,-11.772,-17.391001,-33.498001,11.823,-9.5694,-7.6461,-3.7283,-7.7295,-11.53,5.641,-11.248,-3.9216,-11.667
11.195,19.111,15.675,25.121,9.8522,21.202999,29.268,13.462,3.8374,25.121,9.8522,23.645,7.6555,9.4155,3.8547,13.527,3.9291,5.641,19.084,0.0,11.41
1.761,13.397,9.8211,25.121,29.556999,-2.2114,17.561001,7.6651,23.35,25.121,29.556999,11.823,5.7416,9.4155,3.8547,13.527,3.9291,-3.9744,26.667,7.8431,13.333
5.5346,9.5873,7.8699,15.459,41.379002,15.35,-1.9512,7.6651,23.35,15.459,41.379002,9.8522,5.7416,9.4155,1.9589,9.6618,1.9968,-2.0513,11.501,1.9608,11.41
-17.107,-9.4603,-15.545,-28.986,-35.467999,-6.1138,-7.8049,-13.591,-15.675,-28.986,-35.467999,-9.8522,-24.879999,-19.021,-24.580999,-19.323999,-26.989,-13.59,-20.726999,-17.646999,-17.436001
-15.22,-7.5556,-11.642,-15.459,-13.793,-0.26016,-5.8537,-15.523,-15.675,-15.459,-13.793,-5.9113,-24.879999,-20.916,-22.686001,-15.459,-23.124001,-13.59,-11.248,-21.569,-17.436001
-0.12579,11.492,5.9187,23.188,1.9704,7.5447,7.8049,-15.523,7.7398,23.188,1.9704,5.9113,0.0,1.8325,-3.7283,7.7295,0.06441,-3.9744,9.6051,-13.725,7.5641
11.195,21.016001,15.675,21.256001,35.467999,1.6911,17.561001,28.921,27.252001,21.256001,35.467999,13.793,17.225,18.893999,17.125,21.256001,19.388,13.333,22.875,9.8039,17.179001
-0.12579,1.9683,-1.8862,13.527,31.527,-4.1626,5.8537,11.53,13.593,13.527,31.527,-3.9409,17.225,7.5197,5.7504,3.8647,7.7939,1.7949,5.8136,13.725,-0.12821
-15.22,-15.175,-17.496,-3.8647,-19.704,-4.1626,-5.8537,-5.8615,-11.772,-3.8647,-19.704,-13.793,-9.5694,-13.333,-13.207,-17.391001,-13.462,-7.8205,-11.248,-3.9216,-17.436001
-11.447,-13.27,-15.545,-17.391001,-23.645,5.5935,-1.9512,-13.591,-19.577,-17.391001,-23.645,-9.8522,-11.483,-11.438,-15.103,-15.459,-15.395,-2.0513,-11.248,-7.8431,-15.513
1.761,1.9683,-3.8374,11.594,3.9409,7.5447,5.8537,9.5974,-0.06504,11.594,3.9409,1.9704,0.0,-0.06319,0.06319,0.0,0.06441,1.7949,-1.7694,1.9608,-3.9744
1.761,5.7778,-1.8862,13.527,15.764,-15.87,5.8537,15.395,15.545,13.527,15.764,-5.9113,1.9139,5.624,7.6461,3.8647,7.7939,3.7179,5.8136,7.8431,5.641
-13.333,-9.4603,-13.593,-5.7971,-9.8522,-25.625999,-23.415001,-5.8615,-0.06504,-5.7971,-9.8522,-25.615999,-7.6555,-5.7504,-3.7283,-9.6618,-3.8003,-11.667,-1.7694,-1.9608,-5.8974
7.4214,1.9683,5.9187,3.8647,-5.9113,-6.1138,-3.9024,1.868,-7.8699,3.8647,-5.9113,-3.9409,3.8278,-0.06319,11.438,-3.8647,7.7939,7.5641,2.0221,15.686,-3.9744
11.195,1.9683,7.8699,-5.7971,-7.8818,13.398,0.0,-3.9291,1.8862,-5.7971,-7.8818,-1.9704,7.6555,1.8325,11.438,-3.8647,7.7939,5.641,-7.4566,9.8039,-11.667
14.969,13.397,17.625999,-5.7971,7.8818,9.4959,7.8049,-1.9968,11.642,-5.7971,7.8818,5.9113,1.9139,1.8325,13.333,7.7295,15.523,3.7179,9.6051,3.9216,1.7949
7.4214,7.6825,11.772,9.6618,0.0,-0.26016,-9.7561,-21.32,1.8862,9.6618,0.0,1.9704,1.9139,-0.06319,9.5419,1.9324,7.7939,3.7179,7.7093,5.8824,-0.12821
-2.0126,-7.5556,-1.8862,-7.7295,1.9704,-11.967,-1.9512,-3.9291,-5.9187,-7.7295,1.9704,-7.8818,-5.7416,-9.5419,-1.8325,-11.594,-5.7327,-7.8205,-7.4566,3.9216,-9.7436
-0.12579,0.06349,7.8699,-9.6618,-7.8818,-10.016,9.7561,7.6651,-0.06504,-9.6618,-7.8818,-1.9704,-9.5694,-7.6461,0.06319,-1.9324,0.06441,-2.0513,-11.248,0.0,-2.0513
22.516001,24.825001,29.333,17.391001,15.764,21.202999,13.659,9.5974,23.35,17.391001,15.764,19.704,19.139,16.997999,20.916,21.256001,23.253,11.41,11.501,15.686,19.103001
7.4214,13.397,15.675,-1.9324,11.823,-4.1626,-5.8537,-0.06441,5.7886,-1.9324,11.823,5.9113,13.397,15.103,9.5419,13.527,11.659,1.7949,13.397,7.8431,19.103001
1.761,9.5873,7.8699,11.594,-3.9409,-0.26016,5.8537,-15.523,-3.9675,11.594,-3.9409,3.9409,-1.9139,5.624,1.9589,9.6618,5.8615,-3.9744,2.0221,1.9608,11.41
5.5346,11.492,9.8211,1.9324,-5.9113,7.5447,7.8049,-1.9968,9.6911,1.9324,-5.9113,7.8818,1.9139,11.311,5.7504,13.527,7.7939,-3.9744,3.9179,3.9216,17.179001
-3.8994,0.06349,2.0163,-23.188,-1.9704,-19.771999,-7.8049,1.868,3.8374,-23.188,-1.9704,-3.9409,3.8278,1.8325,3.8547,3.8647,3.9291,-0.12821,-5.5608,5.8824,3.7179
9.3082,9.5873,11.772,15.459,23.645,-0.26016,5.8537,-3.9291,15.545,15.459,23.645,9.8522,7.6555,7.5197,11.438,13.527,13.591,1.7949,13.397,9.8039,19.103001
-7.673,0.06349,-3.8374,-15.459,-13.793,-11.967,-7.8049,-25.184999,-2.0163,-15.459,-13.793,-7.8818,-3.8278,5.624,0.06319,5.7971,1.9968,-9.7436,11.501,1.9608,13.333
-13.333,-1.8413,-9.6911,-7.7295,-17.733999,-21.724001,-11.707,-27.118,-13.724,-7.7295,-17.733999,-7.8818,-5.7416,-3.8547,-5.624,0.0,-1.868,-5.8974,-5.5608,0.0,-7.8205
5.5346,9.5873,11.772,-7.7295,7.8818,-0.26016,15.61,1.868,7.7398,-7.7295,7.8818,7.8818,15.311,15.103,13.333,19.323999,17.455999,3.7179,5.8136,15.686,17.179001
13.082,22.921,23.48,17.391001,25.615999,5.5935,25.365999,1.868,5.7886,17.391001,25.615999,19.704,13.397,22.686001,15.229,27.052999,21.32,3.7179,11.501,7.8431,30.641001
-0.12579,1.9683,5.9187,7.7295,7.8818,-0.26016,-5.8537,19.259001,9.6911,7.7295,7.8818,3.9409,1.9139,3.7283,1.9589,3.8647,1.9968,-3.9744,-9.3523,7.8431,5.641
-13.333,-18.983999,-15.545,-17.391001,-25.615999,-8.065,-17.561001,-7.7939,-11.772,-17.391001,-25.615999,-13.793,-15.311,-13.333,-15.103,-15.459,-17.327,-7.8205,-20.726999,-5.8824,-11.667
-7.673,-9.4603,-11.642,-7.7295,-21.674999,-11.967,-19.511999,-0.06441,-25.431,-7.7295,-21.674999,-9.8522,0.0,1.8325,-3.7283,-5.7971,-5.7327,-0.12821,-7.4566,-1.9608,-2.0513
9.3082,3.873,5.9187,-5.7971,-23.645,13.398,1.9512,17.327,-11.772,-5.7971,-23.645,3.9409,15.311,13.207,9.5419,5.7971,9.7262,11.41,5.8136,11.765,7.5641
7.4214,-1.8413,2.0163,-28.986,-23.645,7.5447,-13.659,7.6651,-15.675,-28.986,-23.645,-3.9409,7.6555,-1.9589,9.5419,-1.9324,5.8615,7.5641,-11.248,9.8039,-7.8205
-2.0126,-9.4603,-3.8374,-7.7295,-19.704,-8.065,-19.511999,5.7327,-25.431,-7.7295,-19.704,-5.9113,-13.397,-13.333,-1.8325,-11.594,-1.868,-2.0513,-15.039,-5.8824,-13.59
7.4214,0.06349,5.9187,-1.9324,-11.823,9.4959,-13.659,5.7327,-7.8699,-1.9324,-11.823,-1.9704,-11.483,-5.7504,3.8547,-1.9324,3.9291,1.7949,5.8136,-3.9216,-3.9744
7.4214,0.06349,3.9675,-21.256001,-23.645,-2.2114,3.9024,-3.9291,-13.724,-21.256001,-23.645,-5.9113,-3.8278,-5.7504,5.7504,-3.8647,3.9291,3.7179,-7.4566,1.9608,-5.8974
7.4214,7.6825,11.772,5.7971,-23.645,-2.2114,-3.9024,1.868,-13.724,5.7971,-23.645,1.9704,9.5694,9.4155,15.229,7.7295,11.659,5.641,7.7093,11.765,5.641
3.6478,7.6825,7.8699,-3.8647,-3.9409,-0.26016,5.8537,-0.06441,-2.0163,-3.8647,-3.9409,0.0,3.8278,5.624,7.6461,7.7295,7.7939,3.7179,5.8136,5.8824,3.7179
-2.0126,1.9683,2.0163,-5.7971,5.9113,-15.87,-7.8049,1.868,-5.9187,-5.7971,5.9113,-5.9113,17.225,7.5197,3.8547,3.8647,1.9968,3.7179,-5.5608,7.8431,-2.0513
-2.0126,3.873,5.9187,-15.459,-11.823,-10.016,-11.707,-0.06441,1.8862,-15.459,-11.823,-5.9113,5.7416,5.624,0.06319,5.7971,0.06441,-2.0513,11.501,3.9216,3.7179
1.761,0.06349,0.06504,3.8647,-3.9409,7.5447,1.9512,-9.7262,-2.0163,3.8647,-3.9409,-5.9113,-1.9139,-0.06319,0.06319,3.8647,-1.868,-0.12821,11.501,0.0,7.5641
-9.5597,-3.746,-5.7886,-9.6618,-31.527,-19.771999,-9.7561,5.7327,-13.724,-9.6618,-31.527,-11.823,-3.8278,-3.8547,-1.8325,0.0,-3.8003,-3.9744,2.0221,-1.9608,-2.0513
3.6478,5.7778,7.8699,-13.527,-19.704,9.4959,-5.8537,-11.659,-0.06504,-13.527,-19.704,0.0,7.6555,7.5197,3.8547,9.6618,7.7939,-3.9744,7.7093,5.8824,9.4872
-9.5597,-1.8413,-1.8862,-7.7295,-3.9409,-10.016,-19.511999,-15.523,-5.9187,-7.7295,-3.9409,-7.8818,-3.8278,-0.06319,-7.5197,1.9324,0.06441,-9.7436,0.12638,-7.8431,-0.12821
-9.5597,1.9683,-1.8862,-19.323999,-3.9409,-17.820999,-3.9024,3.8003,-3.9675,-19.323999,-3.9409,-3.9409,-3.8278,-0.06319,-5.624,1.9324,1.9968,-3.9744,-5.5608,-3.9216,-3.9744
-5.7862,1.9683,-3.8374,7.7295,1.9704,-6.1138,5.8537,9.5974,15.545,7.7295,1.9704,-1.9704,3.8278,5.624,-1.8325,3.8647,3.9291,1.7949,3.9179,-1.9608,3.7179
3.6478,15.302,9.8211,11.594,17.733999,5.5935,33.171001,-1.9968,13.593,11.594,17.733999,9.8522,17.225,18.893999,7.6461,17.391001,17.455999,1.7949,9.6051,3.9216,13.333
-15.22,-3.746,-7.7398,-7.7295,-7.8818,-17.820999,-9.7561,-7.7939,-5.9187,-7.7295,-7.8818,-9.8522,0.0,-1.9589,-9.4155,-1.9324,-1.868,-11.667,-5.5608,-11.765,-2.0513
-7.673,-3.746,-3.8374,-19.323999,-15.764,-0.26016,0.0,-9.7262,-7.8699,-19.323999,-15.764,-7.8818,1.9139,-3.8547,-9.4155,-3.8647,-3.8003,-5.8974,-5.5608,-7.8431,-7.8205
5.5346,9.5873,11.772,7.7295,11.823,-4.1626,7.8049,17.327,13.593,7.7295,11.823,7.8818,3.8278,7.5197,1.9589,9.6618,9.7262,5.641,9.6051,-3.9216,5.641
-5.7862,-1.8413,-1.8862,21.256001,13.793,-15.87,-1.9512,-0.06441,11.642,21.256001,13.793,1.9704,-7.6555,-1.9589,-7.5197,-1.9324,-3.8003,-5.8974,5.8136,-9.8039,-2.0513
-11.447,-7.5556,-11.642,0.0,5.9113,-0.26016,1.9512,-11.659,5.7886,0.0,5.9113,-3.9409,-15.311,-13.333,-16.997999,-11.594,-15.395,-7.8205,-3.6651,-13.725,-11.667
-7.673,-9.4603,-9.6911,3.8647,5.9113,-6.1138,-1.9512,1.868,-0.06504,3.8647,5.9113,0.0,-19.139,-15.229,-15.103,-13.527,-15.395,-0.12821,-7.4566,-13.725,-13.59
13.082,7.6825,11.772,17.391001,23.645,17.301001,13.659,17.327,13.593,17.391001,23.645,17.733999,9.5694,5.624,5.7504,3.8647,3.9291,7.5641,9.6051,5.8824,3.7179
7.4214,0.06349,2.0163,23.188,13.793,23.153999,3.9024,9.5974,11.642,23.188,13.793,11.823,-7.6555,-5.7504,-3.7283,-5.7971,-7.6651,3.7179,5.8136,-5.8824,-3.9744
1.761,-13.27,-11.642,13.527,3.9409,-2.2114,-7.8049,5.7327,-15.675,13.527,3.9409,-1.9704,-11.483,-17.125,-9.4155,-17.391001,-15.395,3.7179,-13.144,-7.8431,-19.358999
18.742001,9.5873,11.772,17.391001,17.733999,15.35,11.707,13.462,13.593,17.391001,17.733999,17.733999,5.7416,3.7283,11.438,5.7971,7.7939,11.41,-5.5608,7.8431,-0.12821
5.5346,-3.746,-1.8862,23.188,11.823,3.6423,0.0,5.7327,-3.9675,23.188,11.823,3.9409,-3.8278,-5.7504,0.06319,-5.7971,-3.8003,1.7949,-16.934999,3.9216,-9.7436
-7.673,-9.4603,-5.7886,13.527,3.9409,-11.967,-9.7561,9.5974,-9.8211,13.527,3.9409,-5.9113,-5.7416,-9.5419,-7.5197,-9.6618,-7.6651,-11.667,-3.6651,-7.8431,-13.59
9.3082,13.397,15.675,28.986,33.498001,19.252001,9.7561,9.5974,13.593,28.986,33.498001,15.764,3.8278,9.4155,5.7504,13.527,11.659,3.7179,11.501,-3.9216,7.5641
13.082,19.111,19.577,32.849998,27.586,23.153999,19.511999,13.462,17.496,32.849998,27.586,23.645,11.483,16.997999,13.333,17.391001,15.523,11.41,9.6051,-5.8824,11.41
-0.12579,3.873,3.9675,25.121,-15.764,7.5447,7.8049,9.5974,1.8862,25.121,-15.764,9.8522,-5.7416,-1.9589,-5.624,-1.9324,-1.868,3.7179,-9.3523,-25.49,-3.9744
-0.12579,9.5873,7.8699,48.308998,47.291,1.6911,9.7561,15.395,5.7886,48.308998,47.291,11.823,9.5694,7.5197,0.06319,5.7971,3.9291,1.7949,2.0221,0.0,-2.0513
7.4214,3.873,3.9675,30.917999,57.143002,29.007999,13.659,11.53,7.7398,30.917999,57.143002,11.823,-5.7416,-5.7504,-3.7283,-1.9324,0.06441,5.641,-1.7694,-9.8039,-5.8974
1.761,0.06349,-1.8862,38.646999,35.467999,9.4959,5.8537,5.7327,9.6911,38.646999,35.467999,5.9113,-11.483,-9.5419,-5.624,-1.9324,-3.8003,5.641,-11.248,-19.608,-5.8974
14.969,9.5873,5.9187,57.971001,41.379002,5.5935,21.462999,19.259001,7.7398,57.971001,41.379002,11.823,13.397,9.4155,7.6461,7.7295,5.8615,11.41,7.7093,-5.8824,-3.9744
16.855,1.9683,7.8699,52.174,37.438,34.862,0.0,-1.9968,19.447001,52.174,37.438,17.733999,5.7416,3.7283,3.8547,0.0,1.9968,11.41,11.501,-7.8431,1.7949
11.195,9.5873,9.8211,30.917999,27.586,21.202999,7.8049,36.651001,27.252001,30.917999,27.586,13.793,7.6555,3.7283,3.8547,7.7295,0.06441,13.333,19.084,9.8039,11.41
1.761,-3.746,-5.7886,19.323999,15.764,7.5447,-3.9024,7.6651,3.8374,19.323999,15.764,0.0,0.0,-5.7504,-7.5197,-11.594,-15.395,7.5641,2.0221,1.9608,-13.59
-13.333,-26.603001,-25.301001,5.7971,19.704,-6.1138,-7.8049,-21.32,-13.724,5.7971,19.704,-9.8522,-19.139,-26.603001,-20.790001,-34.783001,-34.717999,-9.7436,-35.893002,-5.8824,-32.820999
20.629,15.302,15.675,40.580002,33.498001,32.910999,39.023998,15.395,37.007999,40.580002,33.498001,25.615999,13.397,13.207,13.333,5.7971,5.8615,21.025999,9.6051,17.646999,9.4872
14.969,11.492,13.724,17.391001,31.527,9.4959,0.0,3.8003,31.153999,17.391001,31.527,13.793,13.397,9.4155,17.125,5.7971,7.7939,13.333,7.7093,21.569,1.7949
-0.12579,-5.6508,-1.8862,0.0,15.764,-10.016,7.8049,1.868,-2.0163,0.0,15.764,-3.9409,-1.9139,-7.6461,0.06319,-13.527,-7.6651,-9.7436,-9.3523,7.8431,-11.667
20.629,17.205999,19.577,-7.7295,9.8522,19.252001,25.365999,5.7327,19.447001,-7.7295,9.8522,15.764,19.139,13.207,22.812,11.594,15.523,13.333,17.188,21.569,11.41
24.403,17.205999,21.528,17.391001,5.9113,17.301001,19.511999,-1.9968,15.545,17.391001,5.9113,19.704,19.139,13.207,24.708,9.6618,17.455999,15.256,15.292,1.9608,9.4872
14.969,13.397,17.625999,15.459,5.9113,11.447,11.707,1.868,17.496,15.459,5.9113,17.733999,1.9139,3.7283,15.229,9.6618,11.659,-2.0513,15.292,3.9216,5.641
5.5346,1.9683,9.8211,-1.9324,27.586,-2.2114,-3.9024,-1.9968,9.6911,-1.9324,27.586,5.9113,-9.5694,-9.5419,7.6461,-1.9324,3.9291,1.7949,-1.7694,9.8039,-2.0513
11.195,7.6825,13.724,-13.527,-5.9113,9.4959,1.9512,-1.9968,9.6911,-13.527,-5.9113,9.8522,5.7416,5.624,15.229,5.7971,11.659,9.4872,3.9179,5.8824,3.7179
5.5346,11.492,9.8211,-1.9324,-5.9113,3.6423,5.8537,-5.8615,9.6911,-1.9324,-5.9113,11.823,3.8278,3.7283,9.5419,9.6618,9.7262,-2.0513,11.501,11.765,5.641
-5.7862,-1.8413,-1.8862,0.0,-3.9409,-11.967,1.9512,-9.7262,-5.9187,0.0,-3.9409,-3.9409,-11.483,-11.438,-1.8325,-3.8647,-3.8003,-9.7436,-7.4566,0.0,-2.0513
16.855,22.921,25.431,17.391001,19.704,13.398,25.365999,5.7327,23.35,17.391001,19.704,23.645,15.311,16.997999,19.021,21.256001,23.253,7.5641,11.501,15.686,24.872
9.3082,15.302,17.625999,-5.7971,19.704,3.6423,13.659,-1.9968,13.593,-5.7971,19.704,11.823,15.311,16.997999,15.229,21.256001,19.388,1.7949,15.292,13.725,22.948999
-17.107,-17.079,-13.593,-30.917999,-5.9113,-19.771999,-9.7561,-25.184999,-17.625999,-30.917999,-5.9113,-17.733999,-15.311,-15.229,-13.207,-11.594,-13.462,-11.667,-13.144,-15.686,-9.7436
-0.12579,7.6825,3.9675,-5.7971,-9.8522,-2.2114,11.707,-3.9291,7.7398,-5.7971,-9.8522,3.9409,-1.9139,5.624,1.9589,9.6618,7.7939,-3.9744,7.7093,0.0,11.41
-2.0126,7.6825,3.9675,1.9324,-3.9409,-10.016,1.9512,-5.8615,11.642,1.9324,-3.9409,1.9704,1.9139,9.4155,3.8547,13.527,9.7262,-2.0513,9.6051,-1.9608,15.256
3.6478,13.397,9.8211,-11.594,0.0,-2.2114,19.511999,-1.9968,15.545,-11.594,0.0,9.8522,1.9139,9.4155,1.9589,13.527,9.7262,-0.12821,13.397,-1.9608,15.256
5.5346,11.492,9.8211,3.8647,13.793,7.5447,15.61,-5.8615,17.496,3.8647,13.793,7.8818,5.7416,11.311,1.9589,15.459,9.7262,-7.8205,17.188,1.9608,17.179001
-2.0126,5.7778,2.0163,-3.8647,13.793,-15.87,3.9024,-5.8615,13.593,-3.8647,13.793,-1.9704,-1.9139,3.7283,-3.7283,11.594,3.9291,-3.9744,17.188,-5.8824,13.333
-13.333,1.9683,-7.7398,-25.121,-21.674999,-25.625999,-7.8049,-27.118,-0.06504,-25.121,-21.674999,-15.764,-5.7416,3.7283,-11.311,5.7971,-3.8003,-9.7436,9.6051,-13.725,7.5641
1.761,5.7778,0.06504,-7.7295,3.9409,-8.065,1.9512,-3.9291,9.6911,-7.7295,3.9409,-1.9704,-5.7416,-1.9589,-3.7283,7.7295,3.9291,-0.12821,5.8136,-7.8431,3.7179
-3.8994,11.492,3.9675,-21.256001,-5.9113,-19.771999,11.707,-7.7939,17.496,-21.256001,-5.9113,-5.9113,15.311,11.311,3.8547,15.459,11.659,-5.8974,11.501,9.8039,13.333
-3.8994,11.492,7.8699,-15.459,-1.9704,-15.87,21.462999,-23.253,13.593,-15.459,-1.9704,0.0,5.7416,13.207,1.9589,13.527,9.7262,-7.8205,9.6051,5.8824,13.333
5.5346,15.302,13.724,-7.7295,-1.9704,-0.26016,21.462999,1.868,11.642,-7.7295,-1.9704,3.9409,5.7416,9.4155,9.5419,17.391001,15.523,-0.12821,9.6051,3.9216,17.179001
1.761,17.205999,9.8211,1.9324,9.8522,-8.065,11.707,-3.9291,19.447001,1.9324,9.8522,5.9113,7.6555,11.311,5.7504,15.459,11.659,-0.12821,15.292,3.9216,19.103001
5.5346,15.302,9.8211,-13.527,-3.9409,13.398,19.511999,-1.9968,25.301001,-13.527,-3.9409,11.823,0.0,5.624,5.7504,15.459,11.659,3.7179,15.292,3.9216,11.41
-15.22,-11.365,-17.496,-32.849998,-9.8522,-25.625999,-9.7561,-27.118,-5.9187,-32.849998,-9.8522,-13.793,-11.483,-13.333,-13.207,-11.594,-11.53,-13.59,-9.3523,-1.9608,-13.59
-5.7862,-1.8413,-5.7886,-11.594,1.9704,-13.919,-3.9024,-17.455999,1.8862,-11.594,1.9704,-5.9113,0.0,-5.7504,-1.8325,-3.8647,-3.8003,-7.8205,-1.7694,3.9216,-3.9744
13.082,17.205999,11.772,0.0,-1.9704,21.202999,27.316999,-11.659,17.496,0.0,-1.9704,15.764,5.7416,7.5197,9.5419,11.594,7.7939,7.5641,13.397,7.8431,11.41
1.761,7.6825,2.0163,-5.7971,9.8522,3.6423,9.7561,-1.9968,7.7398,-5.7971,9.8522,5.9113,1.9139,3.7283,-1.8325,1.9324,0.06441,1.7949,0.12638,3.9216,1.7949
-3.8994,5.7778,-1.8862,-1.9324,7.8818,1.6911,3.9024,9.5974,15.545,-1.9324,7.8818,5.9113,1.9139,1.8325,-3.7283,0.0,-3.8003,-3.9744,7.7093,1.9608,3.7179
3.6478,3.873,2.0163,15.459,7.8818,7.5447,0.0,7.6651,11.642,15.459,7.8818,9.8522,-1.9139,1.8325,0.06319,0.0,0.06441,5.641,5.8136,3.9216,5.641
-2.0126,-3.746,-7.7398,-23.188,-13.793,-2.2114,-1.9512,3.8003,-3.9675,-23.188,-13.793,-3.9409,-5.7416,-7.6461,-7.5197,-9.6618,-9.5974,7.5641,-13.144,-11.765,-13.59
1.761,1.9683,-3.8374,-9.6618,-23.645,13.398,17.561001,-15.523,-2.0163,-9.6618,-23.645,0.0,1.9139,-1.9589,-5.624,-3.8647,-3.8003,1.7949,-3.6651,-13.725,-3.9744
-3.8994,0.06349,-1.8862,-7.7295,-3.9409,-0.26016,1.9512,-7.7939,-0.06504,-7.7295,-3.9409,5.9113,-5.7416,-3.8547,-5.624,-3.8647,-1.868,-0.12821,3.9179,1.9608,-2.0513
9.3082,9.5873,11.772,11.594,17.733999,5.5935,1.9512,17.327,5.7886,11.594,17.733999,15.764,1.9139,5.624,3.8547,5.7971,5.8615,11.41,9.6051,9.8039,7.5641
5.5346,5.7778,7.8699,25.121,27.586,1.6911,0.0,9.5974,11.642,25.121,27.586,7.8818,5.7416,3.7283,1.9589,5.7971,1.9968,5.641,7.7093,-5.8824,9.4872
-13.333,-15.175,-13.593,-9.6618,-13.793,-2.2114,1.9512,-3.9291,-19.577,-9.6618,-13.793,-7.8818,-15.311,-11.438,-20.790001,-15.459,-19.259001,-3.9744,-16.934999,-17.646999,-17.436001
-9.5597,-13.27,-11.642,-15.459,-23.645,9.4959,-13.659,-19.388,-15.675,-15.459,-23.645,-5.9113,-11.483,-7.6461,-16.997999,-13.527,-17.327,-5.8974,-13.144,-15.686,-9.7436
-11.447,-9.4603,-13.593,-19.323999,-13.793,-8.065,0.0,-11.659,-2.0163,-19.323999,-13.793,-9.8522,-1.9139,-0.06319,-13.207,-5.7971,-11.53,-7.8205,-1.7694,-5.8824,3.7179
-7.673,-5.6508,-7.7398,-5.7971,-5.9113,-6.1138,-21.462999,-0.06441,-0.06504,-5.7971,-5.9113,-3.9409,3.8278,7.5197,-5.624,0.0,-5.7327,1.7949,5.8136,0.0,5.641
9.3082,5.7778,11.772,15.459,7.8818,13.398,-1.9512,17.327,5.7886,15.459,7.8818,13.793,5.7416,5.624,7.6461,9.6618,5.8615,13.333,9.6051,15.686,9.4872
-0.12579,-1.8413,2.0163,-1.9324,1.9704,3.6423,-19.511999,3.8003,1.8862,-1.9324,1.9704,0.0,-9.5694,-5.7504,-1.8325,0.0,-1.868,1.7949,-5.5608,-1.9608,-2.0513
-9.5597,-13.27,-13.593,-17.391001,-3.9409,-8.065,1.9512,-7.7939,-7.8699,-17.391001,-3.9409,-11.823,-17.225,-11.438,-11.311,-13.527,-13.462,-7.8205,-18.830999,-9.8039,-9.7436
-7.673,-7.5556,-7.7398,-9.6618,-3.9409,-15.87,1.9512,-9.7262,-3.9675,-9.6618,-3.9409,-11.823,-3.8278,-0.06319,-5.624,-5.7971,-7.6651,-7.8205,0.12638,-1.9608,-0.12821
-2.0126,-11.365,-7.7398,-11.594,-41.379002,-2.2114,-19.511999,-19.388,-17.625999,-11.594,-41.379002,-11.823,-7.6555,-7.6461,-1.8325,-11.594,-7.6651,-0.12821,-5.5608,-3.9216,-7.8205
-3.8994,-18.983999,-13.593,15.459,0.0,1.6911,-9.7561,7.6651,-15.675,15.459,0.0,-7.8818,0.0,-7.6461,-5.624,-15.459,-13.462,-3.9744,-16.934999,1.9608,-11.667
-13.333,-13.27,-17.496,-15.459,-1.9704,-15.87,-19.511999,-5.8615,-0.06504,-15.459,-1.9704,-17.733999,0.0,-1.9589,-9.4155,-9.6618,-13.462,-5.8974,-5.5608,0.0,-2.0513
-0.12579,3.873,-3.8374,0.0,-5.9113,7.5447,-1.9512,-0.06441,15.545,0.0,-5.9113,-1.9704,-7.6555,-5.7504,-3.7283,-1.9324,-9.5974,5.641,9.6051,3.9216,5.641
-3.8994,-5.6508,-5.7886,-3.8647,3.9409,-6.1138,-1.9512,15.395,9.6911,-3.8647,3.9409,-1.9704,-11.483,-5.7504,-7.5197,-7.7295,-15.395,-0.12821,0.12638,5.8824,1.7949
-17.107,-17.079,-19.447001,-19.323999,-3.9409,-19.771999,-9.7561,-11.659,-2.0163,-19.323999,-3.9409,-15.764,-11.483,-15.229,-18.893999,-21.256001,-26.989,-11.667,-5.5608,0.0,-13.59
-2.0126,0.06349,-5.7886,19.323999,17.733999,-0.26016,-1.9512,13.462,11.642,19.323999,17.733999,0.0,1.9139,-1.9589,-3.7283,-5.7971,-11.53,1.7949,3.9179,5.8824,-0.12821
1.761,9.5873,2.0163,17.391001,17.733999,-4.1626,21.462999,9.5974,5.7886,17.391001,17.733999,5.9113,0.0,-1.9589,0.06319,0.0,-5.7327,11.41,7.7093,0.0,-2.0513
7.4214,11.492,9.8211,5.7971,-19.704,21.202999,1.9512,17.327,21.398001,5.7971,-19.704,11.823,-5.7416,-7.6461,1.9589,0.0,-3.8003,5.641,-3.6651,5.8824,-11.667
7.4214,5.7778,9.8211,32.849998,43.349998,15.35,19.511999,19.259001,19.447001,32.849998,43.349998,11.823,-5.7416,-13.333,0.06319,-5.7971,-3.8003,5.641,5.8136,9.8039,-13.59
22.516001,40.063,25.431,46.376999,59.112999,30.959,87.805,36.651001,52.618,46.376999,59.112999,35.467999,3.8278,5.624,19.021,17.391001,19.388,13.333,30.458,13.725,9.4872
1.761,0.06349,-1.8862,9.6618,11.823,11.447,-9.7561,13.462,29.202999,9.6618,11.823,1.9704,-13.397,-15.229,0.06319,-5.7971,0.06441,11.41,9.6051,3.9216,-5.8974
3.6478,-1.8413,2.0163,23.188,19.704,7.5447,-13.659,38.583,23.35,23.188,19.704,7.8818,-7.6555,-17.125,5.7504,-5.7971,1.9968,11.41,7.7093,5.8824,-13.59
18.742001,24.825001,23.48,28.986,17.733999,25.106001,31.219999,34.717999,42.862,28.986,17.733999,33.498001,-1.9139,1.8325,15.229,13.527,17.455999,19.103001,19.084,7.8431,7.5641
7.4214,13.397,13.724,28.986,49.261002,9.4959,5.8537,25.056,40.910999,28.986,49.261002,21.674999,-5.7416,-0.06319,9.5419,11.594,11.659,9.4872,24.771,5.8824,9.4872
13.082,17.205999,11.772,32.849998,45.32,15.35,23.415001,21.191999,21.398001,32.849998,45.32,21.674999,3.8278,3.7283,13.333,13.527,13.591,19.103001,9.6051,1.9608,7.5641
11.195,15.302,15.675,25.121,13.793,17.301001,17.561001,13.462,15.545,25.121,13.793,19.704,0.0,7.5197,9.5419,15.459,15.523,13.333,5.8136,-1.9608,9.4872
18.742001,22.921,27.382,28.986,33.498001,23.153999,35.122002,21.191999,19.447001,28.986,33.498001,29.556999,-5.7416,5.624,9.5419,19.323999,17.455999,7.5641,20.979,0.0,15.256
14.969,21.016001,25.431,32.849998,45.32,11.447,25.365999,19.259001,46.764,32.849998,45.32,27.586,-9.5694,-3.8547,7.6461,15.459,13.591,1.7949,26.667,1.9608,13.333
20.629,30.540001,31.285,34.783001,49.261002,17.301001,29.268,26.989,46.764,34.783001,49.261002,29.556999,9.5694,13.207,20.916,27.052999,27.118,7.5641,30.458,13.725,21.025999
13.082,21.016001,19.577,11.594,7.8818,1.6911,29.268,7.6651,23.35,11.594,7.8818,15.764,3.8278,7.5197,19.021,17.391001,21.32,9.4872,11.501,13.725,13.333
5.5346,9.5873,5.9187,3.8647,27.586,3.6423,13.659,-0.06441,25.301001,3.8647,27.586,9.8522,-7.6555,-1.9589,7.6461,7.7295,7.7939,7.5641,5.8136,3.9216,5.641
14.969,22.921,15.675,11.594,35.467999,25.106001,27.316999,11.53,27.252001,11.594,35.467999,25.615999,0.0,3.7283,11.438,19.323999,11.659,9.4872,28.562,5.8824,19.103001
14.969,21.016001,17.625999,13.527,17.733999,23.153999,17.561001,11.53,27.252001,13.527,17.733999,19.704,-1.9139,1.8325,11.438,19.323999,11.659,5.641,19.084,9.8039,11.41
9.3082,7.6825,9.8211,13.527,-1.9704,1.6911,3.9024,-0.06441,15.545,13.527,-1.9704,7.8818,-3.8278,-1.9589,9.5419,5.7971,7.7939,9.4872,-5.5608,9.8039,1.7949
26.289,19.111,25.431,32.849998,17.733999,29.007999,25.365999,32.785999,27.252001,32.849998,17.733999,19.704,11.483,11.311,26.603001,21.256001,23.253,15.256,11.501,17.646999,13.333
16.855,13.397,17.625999,7.7295,29.556999,-2.2114,5.8537,3.8003,13.593,7.7295,29.556999,3.9409,11.483,11.311,22.812,19.323999,21.32,13.333,15.292,17.646999,17.179001
5.5346,-1.8413,2.0163,-7.7295,-9.8522,-0.26016,-17.561001,5.7327,-2.0163,-7.7295,-9.8522,-5.9113,5.7416,5.624,13.333,5.7971,9.7262,1.7949,3.9179,17.646999,7.5641
7.4214,0.06349,2.0163,-11.594,-5.9113,7.5447,3.9024,-0.06441,-7.8699,-11.594,-5.9113,-1.9704,0.0,-1.9589,11.438,5.7971,7.7939,-3.9744,2.0221,13.725,1.7949
-0.12579,-1.8413,0.06504,-19.323999,-39.409,-10.016,-11.707,-13.591,-9.8211,-19.323999,-39.409,-5.9113,9.5694,7.5197,13.333,5.7971,9.7262,1.7949,-5.5608,9.8039,7.5641
-9.5597,-15.175,-9.6911,3.8647,0.0,-15.87,-19.511999,-15.523,-5.9187,3.8647,0.0,-9.8522,-3.8278,-5.7504,1.9589,-5.7971,0.06441,-5.8974,-9.3523,1.9608,-5.8974
3.6478,-1.8413,0.06504,-13.527,-11.823,15.35,-11.707,3.8003,-7.8699,-13.527,-11.823,0.0,3.8278,-0.06319,13.333,1.9324,7.7939,5.641,0.12638,7.8431,-0.12821
1.761,-7.5556,-5.7886,-3.8647,-11.823,-2.2114,-3.9024,3.8003,-15.675,-3.8647,-11.823,-5.9113,3.8278,1.8325,13.333,1.9324,9.7262,3.7179,-5.5608,1.9608,-5.8974
7.4214,1.9683,7.8699,13.527,3.9409,-8.065,-1.9512,11.53,-0.06504,13.527,3.9409,1.9704,13.397,9.4155,17.125,9.6618,21.32,3.7179,5.8136,11.765,-0.12821
-3.8994,-11.365,0.06504,-25.121,-13.793,-10.016,-15.61,-19.388,-7.8699,-25.121,-13.793,-9.8522,-1.9139,-3.8547,1.9589,-5.7971,5.8615,-5.8974,-16.934999,1.9608,-7.8205
-0.12579,3.873,7.8699,-1.9324,-1.9704,-4.1626,-13.659,-5.8615,-11.772,-1.9324,-1.9704,1.9704,3.8278,9.4155,1.9589,7.7295,11.659,-5.8974,0.12638,1.9608,5.641
3.6478,9.5873,11.772,0.0,-7.8818,-0.26016,0.0,5.7327,-13.724,0.0,-7.8818,7.8818,15.311,15.103,7.6461,13.527,17.455999,3.7179,0.12638,5.8824,11.41
-9.5597,-7.5556,-3.8374,-11.594,-33.498001,-13.919,-11.707,-5.8615,-13.724,-11.594,-33.498001,-9.8522,-1.9139,-1.9589,-9.4155,-3.8647,-1.868,-11.667,-3.6651,-7.8431,-0.12821
-5.7862,-1.8413,0.06504,-19.323999,-33.498001,-6.1138,-5.8537,-11.659,-9.8211,-19.323999,-33.498001,-9.8522,-1.9139,1.8325,-7.5197,-1.9324,-1.868,-9.7436,-9.3523,-11.765,-0.12821
-7.673,-18.983999,-5.7886,-30.917999,-15.764,-17.820999,-31.219999,-9.7262,-27.382,-30.917999,-15.764,-19.704,1.9139,-1.9589,-9.4155,-11.594,-5.7327,-3.9744,-28.309999,-9.8039,-13.59
-5.7862,-11.365,-1.8862,-17.391001,-7.8818,-17.820999,-27.316999,-3.9291,-19.577,-17.391001,-7.8818,-11.823,3.8278,3.7283,-5.624,-3.8647,-1.868,-5.8974,-7.4566,-7.8431,-2.0513
-9.5597,-9.4603,-5.7886,7.7295,-1.9704,-21.724001,-17.561001,-3.9291,-19.577,7.7295,-1.9704,-7.8818,-13.397,-3.8547,-13.207,-5.7971,-7.6651,-7.8205,-3.6651,-13.725,1.7949
-13.333,-9.4603,-11.642,-19.323999,-47.291,-17.820999,-23.415001,-13.591,-19.577,-19.323999,-47.291,-15.764,-7.6555,-0.06319,-13.207,-5.7971,-9.5974,-13.59,-7.4566,-13.725,-5.8974
-20.881001,-26.603001,-21.398001,-40.580002,-45.32,-27.577,-21.462999,-19.388,-41.041,-40.580002,-45.32,-25.615999,-7.6555,-9.5419,-20.790001,-17.391001,-17.327,-11.667,-15.039,-19.608,-11.667
-11.447,-9.4603,-3.8374,-19.323999,-9.8522,-19.771999,-27.316999,-13.591,-7.8699,-19.323999,-9.8522,-17.733999,0.0,5.624,-9.4155,1.9324,-5.7327,-11.667,7.7093,-9.8039,3.7179
-3.8994,-3.746,0.06504,-15.459,-43.349998,-10.016,-15.61,-17.455999,-25.431,-15.459,-43.349998,-7.8818,-1.9139,1.8325,-7.5197,-1.9324,-5.7327,-3.9744,-5.5608,-5.8824,-3.9744
-2.0126,-3.746,2.0163,-27.052999,-33.498001,-4.1626,-19.511999,-13.591,-37.138,-27.052999,-33.498001,-7.8818,7.6555,11.311,-1.8325,3.8647,0.06441,-3.9744,-11.248,0.0,15.256
-15.22,-11.365,-13.593,1.9324,9.8522,-23.674999,-19.511999,-1.9968,-9.8211,1.9324,9.8522,-19.704,7.6555,7.5197,-13.207,-1.9324,-11.53,-7.8205,2.0221,-11.765,-0.12821
-20.881001,-18.983999,-23.35,-5.7971,-5.9113,-25.625999,-23.415001,-17.455999,-9.8211,-5.7971,-5.9113,-19.704,-19.139,-13.333,-24.580999,-19.323999,-23.124001,-11.667,-9.3523,-21.569,-17.436001
-39.748001,-36.126999,-40.910999,-54.105999,-65.025002,-35.382,-40.976002,-46.441002,-41.041,-54.105999,-65.025002,-39.409,-36.363998,-26.603001,-39.747002,-38.646999,-40.514999,-34.743999,-28.309999,-33.333,-27.051001
-5.7862,-3.746,-9.6911,-30.917999,-25.615999,-4.1626,0.0,-23.253,-2.0163,-30.917999,-25.615999,-9.8522,1.9139,9.4155,-9.4155,-3.8647,-7.6651,-15.513,5.8136,-5.8824,3.7179
-0.12579,-1.8413,-1.8862,-15.459,0.0,-6.1138,-5.8537,-11.659,-2.0163,-15.459,0.0,0.0,-1.9139,-3.8547,-3.7283,-5.7971,-3.8003,-3.9744,-7.4566,-9.8039,-9.7436
-3.8994,7.6825,3.9675,5.7971,17.733999,-6.1138,5.8537,-9.7262,3.8374,5.7971,17.733999,1.9704,-7.6555,-0.06319,-5.624,0.0,-1.868,-5.8974,7.7093,-17.646999,-3.9744
-2.0126,1.9683,3.9675,7.7295,1.9704,1.6911,9.7561,-9.7262,-2.0163,7.7295,1.9704,3.9409,-3.8278,1.8325,-5.624,-1.9324,-3.8003,-3.9744,5.8136,-11.765,1.7949
-9.5597,-5.6508,-7.7398,-17.391001,-3.9409,-2.2114,3.9024,-23.253,-17.625999,-17.391001,-3.9409,-5.9113,-11.483,-11.438,-13.207,-9.6618,-13.462,-7.8205,-7.4566,-19.608,-11.667
-2.0126,0.06349,0.06504,-5.7971,-1.9704,3.6423,3.9024,-21.32,-0.06504,-5.7971,-1.9704,1.9704,-5.7416,-0.06319,-3.7283,-3.8647,-1.868,-0.12821,-5.5608,-9.8039,-5.8974
22.516001,17.205999,23.48,25.121,17.733999,25.106001,19.511999,32.785999,17.496,25.121,17.733999,23.645,9.5694,16.997999,17.125,15.459,19.388,13.333,9.6051,13.725,15.256
7.4214,0.06349,7.8699,15.459,17.733999,3.6423,9.7561,19.259001,5.7886,15.459,17.733999,7.8818,-5.7416,-3.8547,3.8547,-3.8647,1.9968,7.5641,0.12638,0.0,-5.8974
-5.7862,-15.175,-7.7398,11.594,5.9113,1.6911,-3.9024,-5.8615,-2.0163,11.594,5.9113,0.0,-15.311,-15.229,-9.4155,-21.256001,-13.462,-3.9744,-15.039,-5.8824,-15.513
5.5346,-3.746,0.06504,9.6618,9.8522,17.301001,11.707,11.53,13.593,9.6618,9.8522,5.9113,-9.5694,-7.6461,-1.8325,-11.594,-7.6651,3.7179,2.0221,-5.8824,-9.7436
20.629,13.397,15.675,23.188,15.764,50.472,13.659,15.395,19.447001,23.188,15.764,25.615999,5.7416,1.8325,7.6461,0.0,3.9291,17.179001,7.7093,5.8824,-5.8974
9.3082,11.492,9.8211,27.052999,35.467999,15.35,29.268,19.259001,17.496,27.052999,35.467999,21.674999,3.8278,-0.06319,0.06319,-1.9324,0.06441,9.4872,3.9179,3.9216,-5.8974
5.5346,11.492,7.8699,36.715,47.291,3.6423,29.268,38.583,31.153999,36.715,47.291,17.733999,-5.7416,-9.5419,-9.4155,-1.9324,-7.6651,9.4872,15.292,-1.9608,-3.9744
7.4214,19.111,11.772,30.917999,17.733999,21.202999,42.926998,21.191999,31.153999,30.917999,17.733999,19.704,-11.483,-7.6461,-11.311,0.0,-9.5974,13.333,13.397,-7.8431,-0.12821
-2.0126,1.9683,-5.7886,13.527,11.823,13.398,17.561001,-0.06441,23.35,13.527,11.823,7.8818,-28.708,-20.916,-22.686001,-13.527,-23.124001,-2.0513,-15.039,-27.451,-15.513
5.5346,9.5873,0.06504,34.783001,43.349998,-0.26016,9.7561,21.191999,33.105999,34.783001,43.349998,7.8818,-5.7416,-3.8547,-5.624,0.0,-9.5974,5.641,20.979,-1.9608,3.7179
14.969,19.111,11.772,27.052999,23.645,13.398,9.7561,34.717999,29.202999,27.052999,23.645,11.823,15.311,11.311,9.5419,11.594,1.9968,13.333,28.562,13.725,15.256
-2.0126,0.06349,-3.8374,27.052999,21.674999,-4.1626,5.8537,17.327,15.545,27.052999,21.674999,0.0,1.9139,-0.06319,-1.8325,-1.9324,-11.53,5.641,5.8136,3.9216,3.7179
-0.12579,1.9683,-5.7886,19.323999,0.0,3.6423,-1.9512,13.462,9.6911,19.323999,0.0,1.9704,-3.8278,-3.8547,1.9589,1.9324,-9.5974,5.641,9.6051,9.8039,5.641
-3.8994,0.06349,-13.593,9.6618,17.733999,-4.1626,7.8049,-5.8615,15.545,9.6618,17.733999,-1.9704,-1.9139,-3.8547,0.06319,0.0,-11.53,1.7949,2.0221,15.686,7.5641
9.3082,19.111,2.0163,-5.7971,1.9704,11.447,15.61,9.5974,15.545,-5.7971,1.9704,9.8522,7.6555,7.5197,13.333,13.527,0.06441,7.5641,13.397,25.49,19.103001
5.5346,5.7778,2.0163,3.8647,-1.9704,-8.065,1.9512,1.868,-9.8211,3.8647,-1.9704,1.9704,5.7416,5.624,13.333,7.7295,3.9291,5.641,0.12638,23.528999,11.41
1.761,-1.8413,0.06504,0.0,-1.9704,-8.065,-9.7561,3.8003,-0.06504,0.0,-1.9704,-7.8818,0.0,1.8325,11.438,3.8647,3.9291,1.7949,-3.6651,21.569,9.4872
7.4214,-1.8413,2.0163,-1.9324,0.0,1.6911,-3.9024,3.8003,-21.528,-1.9324,0.0,-3.9409,-3.8278,-3.8547,13.333,3.8647,5.8615,11.41,-9.3523,21.569,3.7179
11.195,3.873,7.8699,0.0,-15.764,3.6423,-13.659,-0.06441,-7.8699,0.0,-15.764,-1.9704,13.397,7.5197,22.812,11.594,17.455999,5.641,-7.4566,29.412001,9.4872
16.855,19.111,19.577,11.594,-17.733999,1.6911,5.8537,1.868,3.8374,11.594,-17.733999,7.8818,22.966999,22.686001,28.499001,25.121,30.982,5.641,9.6051,29.412001,26.795
13.082,19.111,21.528,-27.052999,-49.261002,9.4959,-1.9512,-7.7939,-11.772,-27.052999,-49.261002,3.9409,22.966999,24.580999,28.499001,27.052999,32.915001,9.4872,7.7093,25.49,28.718
13.082,13.397,15.675,-9.6618,15.764,7.5447,7.8049,-5.8615,-0.06504,-9.6618,15.764,1.9704,22.966999,18.893999,28.499001,27.052999,30.982,13.333,13.397,25.49,21.025999
-2.0126,-3.746,0.06504,-7.7295,1.9704,-21.724001,-9.7561,-3.9291,-9.8211,-7.7295,1.9704,-11.823,1.9139,1.8325,11.438,7.7295,13.591,-0.12821,-5.5608,3.9216,-7.8205
-20.881001,-24.698,-21.398001,-34.783001,-63.054001,-27.577,-31.219999,-29.049999,-39.089001,-34.783001,-63.054001,-31.527,-7.6555,-5.7504,-9.4155,-13.527,-5.7327,-19.358999,-22.622,-1.9608,-13.59
-2.0126,-5.6508,-3.8374,-32.849998,-29.556999,-4.1626,-29.268,-36.778999,-27.382,-32.849998,-29.556999,-11.823,19.139,16.997999,13.333,7.7295,13.591,-5.8974,-5.5608,21.569,11.41
7.4214,0.06349,3.9675,-9.6618,-17.733999,9.4959,-15.61,-1.9968,-19.577,-9.6618,-17.733999,-3.9409,24.879999,18.893999,17.125,13.527,19.388,-0.12821,3.9179,17.646999,11.41
-5.7862,-15.175,-7.7398,-27.052999,-27.586,-8.065,-7.8049,-9.7262,-35.187,-27.052999,-27.586,-11.823,-1.9139,1.8325,-1.8325,-3.8647,0.06441,-9.7436,-13.144,1.9608,-3.9744
-11.447,-13.27,-13.593,-19.323999,-53.202,-27.577,-35.122002,-15.523,-35.187,-19.323999,-53.202,-21.674999,3.8278,1.8325,-1.8325,-1.9324,0.06441,-7.8205,-16.934999,3.9216,-3.9744
-9.5597,-11.365,-13.593,-11.594,-29.556999,-10.016,-17.561001,-5.8615,-25.431,-11.594,-29.556999,-15.764,13.397,9.4155,1.9589,1.9324,5.8615,5.641,-20.726999,-1.9608,-3.9744
-5.7862,-9.4603,-7.7398,-30.917999,-15.764,-11.967,-3.9024,-19.388,-23.48,-30.917999,-15.764,-11.823,0.0,1.8325,0.06319,0.0,3.9291,-3.9744,-16.934999,-11.765,-2.0513
-3.8994,-3.746,-3.8374,-9.6618,-21.674999,-6.1138,-19.511999,-21.32,-17.625999,-9.6618,-21.674999,-7.8818,5.7416,9.4155,3.8547,5.7971,9.7262,-5.8974,-1.7694,1.9608,7.5641
-11.447,-11.365,-11.642,-15.459,-7.8818,-19.771999,-11.707,-0.06441,-19.577,-15.459,-7.8818,-15.764,7.6555,5.624,-1.8325,0.0,3.9291,-11.667,-11.248,0.0,-3.9744
-13.333,-20.889,-13.593,-28.986,-29.556999,-27.577,-27.316999,1.868,-33.236,-28.986,-29.556999,-21.674999,5.7416,5.624,-3.7283,-7.7295,0.06441,-3.9744,-24.518,1.9608,-5.8974
-17.107,-20.889,-17.496,-23.188,-39.409,-23.674999,-37.073002,-11.659,-27.382,-23.188,-39.409,-21.674999,5.7416,1.8325,-3.7283,-9.6618,-1.868,-7.8205,-18.830999,-1.9608,-11.667
-3.8994,-13.27,-9.6911,-11.594,-37.438,-6.1138,-25.365999,-11.659,-33.236,-11.594,-37.438,-13.793,7.6555,1.8325,0.06319,-7.7295,1.9968,-5.8974,-20.726999,-5.8824,-11.667
-5.7862,-11.365,-7.7398,-1.9324,-25.615999,-6.1138,-17.561001,-21.32,-44.943001,-1.9324,-25.615999,-5.9113,7.6555,3.7283,0.06319,-7.7295,0.06441,-5.8974,-24.518,-3.9216,-9.7436
7.4214,3.873,13.724,-5.7971,-11.823,-2.2114,0.0,-1.9968,-15.675,-5.7971,-11.823,3.9409,15.311,16.997999,13.333,11.594,17.455999,-2.0513,3.9179,7.8431,5.641
1.761,-7.5556,5.9187,-19.323999,-11.823,-2.2114,-19.511999,-3.9291,-5.9187,-19.323999,-11.823,-5.9113,9.5694,9.4155,5.7504,0.0,9.7262,-9.7436,-3.6651,1.9608,-0.12821
-18.993999,-34.222,-23.35,-27.052999,-35.467999,-21.724001,-40.976002,-9.7262,-52.748001,-27.052999,-35.467999,-25.615999,-9.5694,-15.229,-16.997999,-28.986,-17.327,-9.7436,-33.997002,-17.646999,-23.205
-3.8994,-11.365,-5.7886,0.0,-15.764,-8.065,-17.561001,11.53,-9.8211,0.0,-15.764,-5.9113,13.397,9.4155,1.9589,-5.7971,3.9291,5.641,-3.6651,1.9608,-0.12821
-7.673,-20.889,-15.545,-15.459,-23.645,-6.1138,-27.316999,15.395,-31.285,-15.459,-23.645,-15.764,0.0,-1.9589,-7.5197,-15.459,-7.6651,7.5641,-18.830999,-25.49,-5.8974
-32.201,-45.651001,-38.959,-42.512001,-66.995003,-39.285,-58.536999,-17.455999,-74.210999,-42.512001,-66.995003,-47.291,-17.225,-24.708,-28.372999,-38.646999,-30.853001,-13.59,-41.580002,-35.293999,-36.667
-7.673,-11.365,-7.7398,-15.459,-45.32,-4.1626,-15.61,-9.7262,-50.797001,-15.459,-45.32,-15.764,5.7416,-1.9589,-7.5197,-11.594,-7.6651,-5.8974,-16.934999,-3.9216,-19.358999
-2.0126,-9.4603,-5.7886,-5.7971,-35.467999,-2.2114,-15.61,7.6651,-25.431,-5.7971,-35.467999,-9.8522,-5.7416,-7.6461,-7.5197,-9.6618,-7.6651,-2.0513,-20.726999,-11.765,-27.051001
-3.8994,-7.5556,-5.7886,-11.594,-15.764,-10.016,5.8537,15.395,-15.675,-11.594,-15.764,-7.8818,-7.6555,-3.8547,-7.5197,-11.594,-9.5974,5.641,-22.622,-23.528999,-13.59
11.195,3.873,5.9187,13.527,7.8818,9.4959,7.8049,9.5974,-13.724,13.527,7.8818,3.9409,1.9139,3.7283,1.9589,-1.9324,-1.868,17.179001,-5.5608,-49.02,-3.9744
5.5346,3.873,7.8699,3.8647,-7.8818,9.4959,-17.561001,23.124001,-9.8211,3.8647,-7.8818,3.9409,11.483,7.5197,0.06319,0.0,0.06441,-3.9744,2.0221,-7.8431,-5.8974
-11.447,-13.27,-11.642,-27.052999,-27.586,-0.26016,3.9024,-11.659,-25.431,-27.052999,-27.586,-9.8522,-3.8278,-11.438,-16.997999,-21.256001,-17.327,-9.7436,-24.518,-3.9216,-15.513
-5.7862,-9.4603,-9.6911,-27.052999,-29.556999,-0.26016,-9.7561,1.868,-9.8211,-27.052999,-29.556999,-11.823,1.9139,-0.06319,-11.311,-9.6618,-11.53,-3.9744,0.12638,-15.686,-5.8974
5.5346,0.06349,3.9675,23.188,15.764,3.6423,-1.9512,30.853001,5.7886,23.188,15.764,1.9704,5.7416,13.207,-5.624,3.8647,-3.8003,-3.9744,11.501,1.9608,7.5641
-5.7862,-5.6508,-7.7398,7.7295,0.0,-4.1626,-9.7561,1.868,-13.724,7.7295,0.0,-7.8818,-1.9139,-3.8547,-11.311,-7.7295,-15.395,-0.12821,-5.5608,-7.8431,-7.8205
-7.673,-7.5556,-9.6911,3.8647,-5.9113,-6.1138,0.0,-3.9291,-17.625999,3.8647,-5.9113,-5.9113,-5.7416,-9.5419,-13.207,-13.527,-19.259001,1.7949,-16.934999,5.8824,-9.7436
-18.993999,-24.698,-27.252001,-11.594,-39.409,-10.016,-31.219999,-3.9291,-23.48,-11.594,-39.409,-23.645,-26.794001,-28.499001,-26.476999,-30.917999,-36.651001,-9.7436,-18.830999,-13.725,-25.128
1.761,-7.5556,-7.7398,-17.391001,-9.8522,19.252001,-29.268,7.6651,-2.0163,-17.391001,-9.8522,0.0,-5.7416,-9.5419,-7.5197,-11.594,-11.53,9.4872,-13.144,7.8431,-7.8205
13.082,13.397,11.772,19.323999,9.8522,9.4959,33.171001,28.921,9.6911,19.323999,9.8522,19.704,7.6555,3.7283,5.7504,7.7295,5.8615,13.333,15.292,21.569,11.41
-2.0126,-9.4603,-5.7886,15.459,5.9113,5.5935,-3.9024,3.8003,1.8862,15.459,5.9113,-1.9704,-7.6555,-13.333,-9.4155,-9.6618,-11.53,1.7949,3.9179,-1.9608,-5.8974
-2.0126,-5.6508,-5.7886,5.7971,13.793,5.5935,-5.8537,5.7327,3.8374,5.7971,13.793,-1.9704,-9.5694,-7.6461,-13.207,-11.594,-13.462,-0.12821,-11.248,-1.9608,-3.9744
1.761,1.9683,2.0163,17.391001,11.823,11.447,9.7561,15.395,-3.9675,17.391001,11.823,9.8522,3.8278,3.7283,-5.624,-1.9324,-3.8003,7.5641,0.12638,0.0,-0.12821
3.6478,1.9683,3.9675,-7.7295,-13.793,21.202999,-3.9024,17.327,11.642,-7.7295,-13.793,13.793,5.7416,3.7283,-9.4155,-1.9324,-3.8003,7.5641,15.292,-1.9608,3.7179
-0.12579,-3.746,-1.8862,23.188,-3.9409,5.5935,-1.9512,-3.9291,17.496,23.188,-3.9409,5.9113,-11.483,-7.6461,-16.997999,-11.594,-13.462,5.641,5.8136,-17.646999,-5.8974
3.6478,9.5873,7.8699,23.188,27.586,-0.26016,23.415001,11.53,11.642,23.188,27.586,11.823,-3.8278,-3.8547,-7.5197,0.0,-5.7327,5.641,13.397,-3.9216,-0.12821
-13.333,-5.6508,-11.642,3.8647,23.645,-8.065,-1.9512,21.191999,9.6911,3.8647,23.645,-5.9113,-15.311,-15.229,-24.580999,-19.323999,-26.989,-0.12821,3.9179,-15.686,-13.59
-26.541,-30.413,-37.007999,-1.9324,-9.8522,-10.016,-19.511999,-5.8615,-9.8211,-1.9324,-9.8522,-23.645,-22.966999,-26.603001,-41.643002,-38.646999,-46.312,-7.8205,-13.144,-19.608,-23.205
-18.993999,-20.889,-27.252001,-17.391001,-19.704,-10.016,-23.415001,5.7327,-9.8211,-17.391001,-19.704,-19.704,-22.966999,-19.021,-28.372999,-28.986,-38.583,-0.12821,-7.4566,-11.765,-15.513
-5.7862,-1.8413,-11.642,1.9324,-1.9704,-11.967,11.707,15.395,1.8862,1.9324,-1.9704,-3.9409,-7.6555,-9.5419,-11.311,-13.527,-21.191999,11.41,9.6051,3.9216,-0.12821
-17.107,-9.4603,-21.398001,-5.7971,-19.704,-13.919,9.7561,-7.7939,-13.724,-5.7971,-19.704,-15.764,-15.311,-17.125,-18.893999,-19.323999,-28.921,-7.8205,-1.7694,0.0,-7.8205
-3.8994,-5.6508,-9.6911,-5.7971,11.823,-10.016,-1.9512,3.8003,3.8374,-5.7971,11.823,-9.8522,-5.7416,-5.7504,-5.624,-7.7295,-13.462,3.7179,5.8136,13.725,5.641
-13.333,-17.079,-19.447001,-15.459,-5.9113,-19.771999,-27.316999,-1.9968,-11.772,-15.459,-5.9113,-25.615999,0.0,-1.9589,-7.5197,-11.594,-15.395,-2.0513,-3.6651,13.725,1.7949
-11.447,-17.079,-17.496,-23.188,-55.172001,-17.820999,-37.073002,-7.7939,-19.577,-23.188,-55.172001,-27.586,1.9139,-7.6461,-3.7283,-9.6618,-11.53,1.7949,-13.144,15.686,-3.9744
9.3082,1.9683,5.9187,-28.986,-11.823,1.6911,-1.9512,5.7327,-5.9187,-28.986,-11.823,-9.8522,17.225,16.997999,19.021,13.527,13.591,13.333,0.12638,21.569,21.025999
13.082,13.397,13.724,19.323999,23.645,3.6423,19.511999,1.868,21.398001,19.323999,23.645,1.9704,15.311,26.476999,22.812,27.052999,25.184999,9.4872,17.188,25.49,24.872
-5.7862,-7.5556,-7.7398,-1.9324,-9.8522,-11.967,-13.659,-17.455999,-7.8699,-1.9324,-9.8522,-17.733999,-5.7416,-3.8547,5.7504,1.9324,3.9291,3.7179,2.0221,13.725,1.7949
9.3082,3.873,5.9187,3.8647,0.0,13.398,-5.8537,-13.591,-13.724,3.8647,0.0,0.0,9.5694,9.4155,19.021,11.594,15.523,5.641,0.12638,19.608,15.256
9.3082,13.397,9.8211,-19.323999,-19.704,-0.26016,0.0,3.8003,-0.06504,-19.323999,-19.704,3.9409,9.5694,9.4155,20.916,17.391001,15.523,5.641,0.12638,13.725,15.256
16.855,21.016001,21.528,1.9324,0.0,13.398,21.462999,17.327,13.593,1.9324,0.0,13.793,17.225,22.686001,28.499001,30.917999,29.049999,11.41,13.397,25.49,22.948999
11.195,13.397,15.675,32.849998,23.645,3.6423,13.659,7.6651,9.6911,32.849998,23.645,11.823,24.879999,26.476999,24.708,27.052999,27.118,3.7179,5.8136,23.528999,26.795
18.742001,24.825001,21.528,19.323999,35.467999,15.35,21.462999,11.53,23.35,19.323999,35.467999,17.733999,24.879999,28.372999,26.603001,36.715,32.915001,9.4872,28.562,23.528999,30.641001
16.855,19.111,19.577,21.256001,17.733999,13.398,19.511999,1.868,31.153999,21.256001,17.733999,17.733999,9.5694,13.207,22.812,34.783001,30.982,11.41,19.084,0.0,17.179001
22.516001,24.825001,29.333,27.052999,31.527,13.398,1.9512,15.395,17.496,27.052999,31.527,19.704,22.966999,28.372999,34.186001,36.715,44.508999,5.641,15.292,9.8039,32.563999
26.289,32.444,37.138,25.121,35.467999,15.35,39.023998,19.259001,25.301001,25.121,35.467999,27.586,9.5694,20.790001,34.186001,40.580002,48.374001,9.4872,34.25,19.608,34.487
1.761,9.5873,9.8211,11.594,9.8522,-8.065,13.659,-9.7262,1.8862,11.594,9.8522,1.9704,-1.9139,-0.06319,11.438,17.391001,21.32,-5.8974,-11.248,1.9608,9.4872
7.4214,17.205999,17.625999,19.323999,31.527,-0.26016,9.7561,19.259001,27.252001,19.323999,31.527,7.8818,3.8278,7.5197,11.438,28.986,25.184999,-0.12821,15.292,1.9608,22.948999
7.4214,17.205999,19.577,27.052999,33.498001,9.4959,1.9512,-0.06441,19.447001,27.052999,33.498001,15.764,-3.8278,5.624,5.7504,21.256001,17.455999,-0.12821,15.292,-3.9216,1.7949
16.855,28.635,29.333,28.986,29.556999,27.056999,25.365999,26.989,29.202999,28.986,29.556999,25.615999,15.311,13.207,15.229,23.188,23.253,11.41,11.501,15.686,7.5641
9.3082,22.921,21.528,21.256001,29.556999,19.252001,39.023998,17.327,21.398001,21.256001,29.556999,25.615999,5.7416,9.4155,3.8547,17.391001,13.591,1.7949,20.979,-5.8824,11.41
-3.8994,1.9683,3.9675,30.917999,15.764,1.6911,-7.8049,17.327,13.593,30.917999,15.764,11.823,-7.6555,-3.8547,-11.311,-1.9324,-3.8003,-0.12821,3.9179,-13.725,-5.8974
-9.5597,-1.8413,-1.8862,25.121,37.438,-11.967,13.659,13.462,25.301001,25.121,37.438,9.8522,-17.225,-13.333,-16.997999,-9.6618,-11.53,-3.9744,3.9179,-11.765,-9.7436
1.761,3.873,5.9187,21.256001,31.527,7.5447,0.0,15.395,37.007999,21.256001,31.527,13.793,-15.311,-5.7504,-11.311,-1.9324,-7.6651,5.641,19.084,-33.333,1.7949
7.4214,9.5873,11.772,32.849998,31.527,30.959,9.7561,3.8003,25.301001,32.849998,31.527,21.674999,-7.6555,-1.9589,-5.624,1.9324,-5.7327,3.7179,5.8136,-3.9216,3.7179
7.4214,17.205999,13.724,19.323999,39.409,21.202999,39.023998,17.327,23.35,19.323999,39.409,23.645,-5.7416,-0.06319,-3.7283,7.7295,0.06441,5.641,7.7093,-1.9608,1.7949
3.6478,9.5873,7.8699,32.849998,23.645,13.398,11.707,25.056,19.447001,32.849998,23.645,19.704,-5.7416,-5.7504,-7.5197,0.0,-3.8003,9.4872,19.084,-9.8039,-0.12821
-0.12579,3.873,3.9675,5.7971,-3.9409,9.4959,15.61,13.462,-5.9187,5.7971,-3.9409,13.793,-11.483,-13.333,-15.103,-11.594,-13.462,1.7949,-7.4566,-5.8824,-15.513
-5.7862,3.873,2.0163,15.459,25.615999,-8.065,3.9024,7.6651,19.447001,15.459,25.615999,5.9113,-17.225,-17.125,-15.103,-9.6618,-13.462,3.7179,3.9179,-11.765,-9.7436
-7.673,5.7778,2.0163,15.459,3.9409,-2.2114,9.7561,-0.06441,21.398001,15.459,3.9409,5.9113,-21.052999,-13.333,-16.997999,-7.7295,-13.462,-2.0513,7.7093,-13.725,-5.8974
-2.0126,5.7778,2.0163,0.0,7.8818,7.5447,25.365999,-1.9968,1.8862,0.0,7.8818,7.8818,-9.5694,-9.5419,-13.207,-7.7295,-11.53,3.7179,0.12638,-5.8824,-13.59
13.082,11.492,13.724,7.7295,13.793,29.007999,3.9024,23.124001,27.252001,7.7295,13.793,17.733999,7.6555,7.5197,1.9589,3.8647,3.9291,7.5641,5.8136,7.8431,3.7179
7.4214,3.873,5.9187,5.7971,13.793,17.301001,19.511999,-21.32,-7.8699,5.7971,13.793,11.823,-11.483,-11.438,-7.5197,-7.7295,-5.7327,-2.0513,2.0221,-9.8039,-0.12821
-3.8994,-3.746,-1.8862,-7.7295,-7.8818,-11.967,7.8049,5.7327,1.8862,-7.7295,-7.8818,-3.9409,-5.7416,-9.5419,-5.624,-13.527,-9.5974,-2.0513,-5.5608,0.0,-11.667
16.855,1.9683,11.772,1.9324,1.9704,21.202999,3.9024,9.5974,5.7886,1.9324,1.9704,11.823,7.6555,3.7283,9.5419,-1.9324,5.8615,13.333,5.8136,13.725,-2.0513
-5.7862,-9.4603,-5.7886,11.594,0.0,-15.87,-11.707,-7.7939,-9.8211,11.594,0.0,-5.9113,-1.9139,-3.8547,-3.7283,-11.594,-5.7327,-3.9744,-3.6651,-1.9608,-5.8974
-15.22,-20.889,-19.447001,-27.052999,-41.379002,-23.674999,-25.365999,-11.659,-19.577,-27.052999,-41.379002,-21.674999,-15.311,-20.916,-16.997999,-25.121,-21.191999,-9.7436,-20.726999,-7.8431,-23.205
11.195,1.9683,5.9187,0.0,0.0,19.252001,1.9512,-21.32,7.7398,0.0,0.0,5.9113,1.9139,-1.9589,5.7504,0.0,0.06441,1.7949,3.9179,11.765,-0.12821
9.3082,5.7778,9.8211,-13.527,-23.645,9.4959,-3.9024,9.5974,3.8374,-13.527,-23.645,1.9704,5.7416,3.7283,11.438,3.8647,5.8615,5.641,3.9179,9.8039,5.641
5.5346,1.9683,0.06504,-7.7295,-15.764,1.6911,-13.659,-1.9968,-15.675,-7.7295,-15.764,-3.9409,0.0,-3.8547,5.7504,-3.8647,1.9968,1.7949,-9.3523,5.8824,-5.8974
1.761,0.06349,0.06504,-13.527,-17.733999,-11.967,0.0,-5.8615,-11.772,-13.527,-17.733999,-5.9113,11.483,1.8325,11.438,0.0,5.8615,3.7179,-1.7694,11.765,-3.9744
-0.12579,-9.4603,-5.7886,7.7295,-5.9113,-4.1626,-27.316999,1.868,-15.675,7.7295,-5.9113,-7.8818,1.9139,-5.7504,3.8547,-5.7971,0.06441,-0.12821,-13.144,0.0,-9.7436
-9.5597,-17.079,-15.545,-7.7295,-7.8818,-15.87,-21.462999,-7.7939,-29.333,-7.7295,-7.8818,-15.764,-9.5694,-9.5419,-7.5197,-13.527,-11.53,-3.9744,-11.248,-15.686,-9.7436
7.4214,-1.8413,2.0163,-9.6618,-3.9409,11.447,1.9512,3.8003,-15.675,-9.6618,-3.9409,3.9409,13.397,9.4155,9.5419,1.9324,3.9291,11.41,2.0221,-1.9608,-3.9744
1.761,-1.8413,-1.8862,0.0,0.0,7.5447,-7.8049,3.8003,-9.8211,0.0,0.0,3.9409,3.8278,1.8325,1.9589,-3.8647,-1.868,5.641,-13.144,1.9608,-5.8974
-11.447,-20.889,-19.447001,11.594,-9.8522,-8.065,-9.7561,1.868,-7.8699,11.594,-9.8522,-11.823,-13.397,-7.6461,-15.103,-21.256001,-21.191999,-11.667,-16.934999,-7.8431,-9.7436
-17.107,-15.175,-21.398001,1.9324,-15.764,-21.724001,-21.462999,-5.8615,-5.9187,1.9324,-15.764,-13.793,-3.8278,-1.9589,-16.997999,-11.594,-21.191999,-11.667,0.12638,-9.8039,-7.8205
-2.0126,-9.4603,-9.6911,-7.7295,3.9409,1.6911,-11.707,-1.9968,3.8374,-7.7295,3.9409,-1.9704,-7.6555,-1.9589,-11.311,-7.7295,-15.395,9.4872,-3.6651,-19.608,-3.9744
-20.881001,-26.603001,-25.301001,-21.256001,-17.733999,-17.820999,-17.561001,-13.591,-9.8211,-21.256001,-17.733999,-17.733999,-19.139,-15.229,-24.580999,-27.052999,-28.921,-19.358999,-11.248,-21.569,-15.513
-24.653999,-28.507999,-33.105999,-17.391001,-7.8818,-27.577,-23.415001,-17.455999,-19.577,-17.391001,-7.8818,-25.615999,-17.225,-15.229,-26.476999,-21.256001,-30.853001,-17.436001,-1.7694,-15.686,-25.128
-7.673,-9.4603,-11.642,7.7295,3.9409,-6.1138,-7.8049,-3.9291,-2.0163,7.7295,3.9409,-7.8818,1.9139,-0.06319,-9.4155,-9.6618,-13.462,-0.12821,-5.5608,-5.8824,-15.513
-0.12579,-9.4603,-5.7886,9.6618,-1.9704,3.6423,-7.8049,-0.06441,-0.06504,9.6618,-1.9704,0.0,13.397,7.5197,-5.624,-11.594,-9.5974,-0.12821,-7.4566,1.9608,1.7949
-13.333,-11.365,-15.545,-5.7971,5.9113,-17.820999,-13.659,-7.7939,-3.9675,-5.7971,5.9113,-11.823,-17.225,-5.7504,-18.893999,-13.527,-21.191999,-3.9744,-9.3523,-33.333,-3.9744
-18.993999,-11.365,-19.447001,-28.986,-11.823,-17.820999,-3.9024,-13.591,-15.675,-28.986,-11.823,-17.733999,-19.139,-15.229,-22.686001,-19.323999,-25.056,-13.59,-13.144,-9.8039,-19.358999
-28.427999,-22.794001,-29.202999,-32.849998,-31.527,-37.333,-21.462999,-29.049999,-3.9675,-32.849998,-31.527,-29.556999,-7.6555,-3.8547,-22.686001,-23.188,-26.989,-21.282,-9.3523,-5.8824,-17.436001
5.5346,1.9683,-3.8374,-5.7971,-5.9113,9.4959,-5.8537,-3.9291,17.496,-5.7971,-5.9113,-3.9409,-1.9139,-0.06319,0.06319,1.9324,-3.8003,9.4872,20.979,-29.412001,-3.9744
3.6478,3.873,-1.8862,11.594,9.8522,1.6911,7.8049,5.7327,11.642,11.594,9.8522,3.9409,11.483,15.103,3.8547,0.0,-1.868,3.7179,20.979,-1.9608,-0.12821
-7.673,0.06349,-9.6911,-1.9324,-9.8522,-11.967,-5.8537,-11.659,9.6911,-1.9324,-9.8522,-5.9113,7.6555,9.4155,-3.7283,-3.8647,-7.6651,-2.0513,0.12638,-3.9216,-3.9744
-7.673,-1.8413,-7.7398,9.6618,31.527,-11.967,21.462999,-1.9968,15.545,9.6618,31.527,-3.9409,9.5694,7.5197,-3.7283,-5.7971,-7.6651,-7.8205,3.9179,7.8431,5.641
3.6478,13.397,7.8699,1.9324,11.823,-0.26016,29.268,11.53,17.496,1.9324,11.823,5.9113,28.708,24.580999,13.333,11.594,7.7939,-0.12821,0.12638,31.372999,21.025999
18.742001,15.302,11.772,-1.9324,9.8522,27.056999,15.61,-11.659,21.398001,-1.9324,9.8522,11.823,1.9139,1.8325,17.125,9.6618,7.7939,24.872,7.7093,-27.451,1.7949
-3.8994,1.9683,-1.8862,15.459,31.527,-4.1626,23.415001,5.7327,5.7886,15.459,31.527,3.9409,-3.8278,-5.7504,3.8547,-3.8647,-1.868,-2.0513,-1.7694,11.765,1.7949
-9.5597,1.9683,-7.7398,0.0,-3.9409,-13.919,0.0,-7.7939,13.593,0.0,-3.9409,-7.8818,-1.9139,-3.8547,-1.8325,1.9324,-3.8003,-11.667,3.9179,29.412001,9.4872
3.6478,11.492,3.9675,-5.7971,-3.9409,-0.26016,9.7561,-9.7262,21.398001,-5.7971,-3.9409,1.9704,5.7416,7.5197,11.438,11.594,9.7262,1.7949,13.397,17.646999,11.41
9.3082,11.492,9.8211,19.323999,25.615999,-4.1626,13.659,3.8003,19.447001,19.323999,25.615999,7.8818,7.6555,5.624,17.125,11.594,13.591,1.7949,13.397,33.333,15.256
-2.0126,0.06349,-3.8374,-3.8647,0.0,-11.967,0.0,-7.7939,11.642,-3.8647,0.0,-9.8522,-3.8278,-7.6461,5.7504,0.0,0.06441,-5.8974,3.9179,17.646999,5.641
3.6478,5.7778,0.06504,-9.6618,1.9704,-6.1138,7.8049,5.7327,9.6911,-9.6618,1.9704,-1.9704,7.6555,5.624,11.438,7.7295,5.8615,7.5641,11.501,23.528999,11.41
9.3082,15.302,11.772,15.459,13.793,1.6911,7.8049,9.5974,23.35,15.459,13.793,5.9113,7.6555,3.7283,19.021,13.527,11.659,11.41,15.292,27.451,15.256
3.6478,1.9683,2.0163,11.594,9.8522,1.6911,3.9024,3.8003,-9.8211,11.594,9.8522,1.9704,-11.483,-7.6461,7.6461,0.0,0.06441,7.5641,-3.6651,19.608,-2.0513
13.082,19.111,13.724,17.391001,13.793,13.398,1.9512,3.8003,13.593,17.391001,13.793,11.823,3.8278,5.624,17.125,11.594,11.659,13.333,7.7093,25.49,13.333
14.969,9.5873,7.8699,21.256001,15.764,23.153999,3.9024,-3.9291,13.593,21.256001,15.764,9.8522,11.483,5.624,19.021,7.7295,11.659,5.641,-3.6651,27.451,9.4872
13.082,1.9683,5.9187,-7.7295,-25.615999,1.6911,13.659,7.6651,-17.625999,-7.7295,-25.615999,5.9113,7.6555,1.8325,19.021,5.7971,13.591,7.5641,-15.039,27.451,3.7179
5.5346,5.7778,3.9675,9.6618,17.733999,7.5447,-13.659,-27.118,-5.9187,9.6618,17.733999,3.9409,0.0,-5.7504,15.229,7.7295,11.659,-7.8205,-1.7694,13.725,5.641
18.742001,22.921,21.528,46.376999,39.409,3.6423,15.61,23.124001,25.301001,46.376999,39.409,19.704,24.879999,22.686001,34.186001,30.917999,34.847,11.41,26.667,27.451,30.641001
11.195,24.825001,17.625999,27.052999,29.556999,7.5447,21.462999,9.5974,3.8374,27.052999,29.556999,13.793,11.483,9.4155,26.603001,27.052999,27.118,3.7179,11.501,21.569,22.948999
5.5346,13.397,9.8211,42.512001,41.379002,5.5935,21.462999,-13.591,5.7886,42.512001,41.379002,9.8522,9.5694,7.5197,19.021,19.323999,21.32,-5.8974,-3.6651,15.686,17.179001
20.629,26.73,23.48,46.376999,53.202,19.252001,13.659,11.53,25.301001,46.376999,53.202,23.645,24.879999,26.476999,34.186001,36.715,38.712002,11.41,26.667,23.528999,32.563999
24.403,28.635,25.431,54.105999,53.202,21.202999,13.659,23.124001,17.496,54.105999,53.202,27.586,19.139,18.893999,30.395,34.783001,36.778999,13.333,20.979,11.765,22.948999
7.4214,17.205999,15.675,27.052999,13.793,7.5447,13.659,9.5974,15.545,27.052999,13.793,19.704,7.6555,13.207,19.021,25.121,27.118,-2.0513,11.501,9.8039,19.103001
7.4214,11.492,11.772,25.121,49.261002,9.4959,23.415001,1.868,9.6911,25.121,49.261002,9.8522,1.9139,5.624,13.333,17.391001,19.388,5.641,-5.5608,1.9608,7.5641
18.742001,21.016001,21.528,42.512001,47.291,27.056999,31.219999,13.462,17.496,42.512001,47.291,27.586,17.225,20.790001,24.708,25.121,30.982,13.333,15.292,-1.9608,22.948999
-2.0126,7.6825,7.8699,32.849998,29.556999,-0.26016,15.61,-11.659,1.8862,32.849998,29.556999,11.823,13.397,13.207,5.7504,11.594,15.523,-5.8974,0.12638,9.8039,15.256
1.761,11.492,9.8211,25.121,13.793,5.5935,9.7561,-0.06441,-2.0163,25.121,13.793,15.764,11.483,11.311,7.6461,17.391001,17.455999,-5.8974,2.0221,13.725,11.41
22.516001,17.205999,25.431,11.594,53.202,25.106001,27.316999,25.056,13.593,11.594,53.202,23.645,19.139,20.790001,22.812,25.121,27.118,21.025999,7.7093,0.0,9.4872
-5.7862,-9.4603,-1.8862,3.8647,0.0,-0.26016,-9.7561,-5.8615,1.8862,3.8647,0.0,-5.9113,-3.8278,-0.06319,-1.8325,-5.7971,1.9968,-9.7436,-13.144,-11.765,-5.8974
-2.0126,-11.365,-5.7886,23.188,7.8818,-13.919,-15.61,3.8003,-17.625999,23.188,7.8818,-1.9704,-5.7416,1.8325,-1.8325,-5.7971,0.06441,-3.9744,-15.039,-7.8431,-3.9744
24.403,9.5873,19.577,25.121,35.467999,23.153999,13.659,13.462,15.545,25.121,35.467999,17.733999,21.052999,28.372999,20.916,17.391001,23.253,13.333,3.9179,11.765,19.103001
5.5346,-3.746,5.9187,0.0,-15.764,1.6911,-9.7561,9.5974,-0.06504,0.0,-15.764,3.9409,7.6555,11.311,5.7504,1.9324,9.7262,-2.0513,-9.3523,-1.9608,5.641
7.4214,0.06349,7.8699,7.7295,-3.9409,9.4959,-5.8537,11.53,-9.8211,7.7295,-3.9409,9.8522,0.0,-3.8547,9.5419,0.0,11.659,7.5641,-5.5608,7.8431,-3.9744
5.5346,-3.746,7.8699,7.7295,1.9704,9.4959,-5.8537,9.5974,-9.8211,7.7295,1.9704,5.9113,1.9139,-1.9589,7.6461,0.0,9.7262,3.7179,-9.3523,-5.8824,-3.9744
-2.0126,-3.746,5.9187,-3.8647,15.764,-10.016,7.8049,7.6651,-9.8211,-3.8647,15.764,0.0,1.9139,1.8325,1.9589,0.0,7.7939,-3.9744,-5.5608,-7.8431,1.7949
11.195,-3.746,9.8211,-3.8647,-13.793,7.5447,-19.511999,-1.9968,-0.06504,-3.8647,-13.793,0.0,-7.6555,-5.7504,5.7504,1.9324,7.7939,11.41,-1.7694,-29.412001,-5.8974
7.4214,-3.746,9.8211,0.0,-13.793,-0.26016,-7.8049,3.8003,-9.8211,0.0,-13.793,0.0,-3.8278,-5.7504,1.9589,0.0,7.7939,-0.12821,-13.144,-7.8431,-7.8205
7.4214,-5.6508,5.9187,3.8647,-5.9113,1.6911,-5.8537,3.8003,-9.8211,3.8647,-5.9113,0.0,1.9139,3.7283,3.8547,-1.9324,7.7939,1.7949,-5.5608,11.765,-2.0513
3.6478,-3.746,3.9675,-13.527,-25.615999,1.6911,-7.8049,-0.06441,-3.9675,-13.527,-25.615999,-3.9409,5.7416,3.7283,3.8547,-3.8647,5.8615,-0.12821,-1.7694,7.8431,-2.0513
1.761,-5.6508,2.0163,-19.323999,-29.556999,-2.2114,-17.561001,7.6651,-2.0163,-19.323999,-29.556999,-7.8818,3.8278,-1.9589,3.8547,-1.9324,5.8615,-0.12821,-5.5608,0.0,-7.8205
-0.12579,-1.8413,2.0163,-1.9324,-27.586,-13.919,-15.61,-7.7939,-5.9187,-1.9324,-27.586,-5.9113,3.8278,1.8325,1.9589,1.9324,5.8615,7.5641,0.12638,0.0,1.7949
-15.22,-9.4603,-7.7398,-32.849998,-27.586,-23.674999,-13.659,-17.455999,-5.9187,-32.849998,-27.586,-17.733999,-17.225,-11.438,-11.311,-5.7971,-5.7327,-5.8974,2.0221,-17.646999,-3.9744
-2.0126,-3.746,2.0163,-15.459,-5.9113,-6.1138,-9.7561,-0.06441,5.7886,-15.459,-5.9113,-5.9113,-5.7416,-3.8547,-3.7283,-1.9324,1.9968,-5.8974,7.7093,3.9216,-2.0513
-3.8994,-3.746,-1.8862,-28.986,-23.645,-8.065,-1.9512,-5.8615,-11.772,-28.986,-23.645,-7.8818,1.9139,-0.06319,-3.7283,-5.7971,-3.8003,1.7949,-7.4566,13.725,-7.8205
-0.12579,-9.4603,-3.8374,-25.121,-35.467999,-0.26016,-23.415001,-9.7262,-21.528,-25.121,-35.467999,-9.8522,-9.5694,-13.333,-9.4155,-15.459,-13.462,5.641,-11.248,-9.8039,-15.513
-2.0126,-7.5556,-1.8862,-17.391001,-37.438,-4.1626,-19.511999,-9.7262,-23.48,-17.391001,-37.438,-7.8818,-9.5694,-11.438,-11.311,-11.594,-13.462,-0.12821,-13.144,-9.8039,-15.513
13.082,11.492,15.675,-13.527,-25.615999,9.4959,15.61,5.7327,-15.675,-13.527,-25.615999,7.8818,1.9139,-0.06319,1.9589,1.9324,0.06441,11.41,-5.5608,0.0,-2.0513
5.5346,3.873,7.8699,-25.121,-49.261002,3.6423,-21.462999,-0.06441,-25.431,-25.121,-49.261002,3.9409,-3.8278,-7.6461,-5.624,-9.6618,-9.5974,3.7179,-5.5608,3.9216,-5.8974
-2.0126,-1.8413,-1.8862,-32.849998,-23.645,-4.1626,1.9512,-7.7939,-17.625999,-32.849998,-23.645,-1.9704,-21.052999,-17.125,-11.311,-9.6618,-15.395,-0.12821,2.0221,1.9608,-9.7436
9.3082,-3.746,0.06504,-11.594,3.9409,17.301001,5.8537,-9.7262,-9.8211,-11.594,3.9409,3.9409,-7.6555,-7.6461,-1.8325,-7.7295,-9.5974,13.333,-5.5608,-15.686,-7.8205
-0.12579,-5.6508,-3.8374,-17.391001,-27.586,-4.1626,-17.561001,-1.9968,-7.8699,-17.391001,-27.586,-3.9409,-3.8278,-11.438,-7.5197,-11.594,-11.53,5.641,-9.3523,-27.451,-17.436001
-7.673,0.06349,2.0163,-9.6618,-21.674999,-6.1138,13.659,1.868,-17.625999,-9.6618,-21.674999,3.9409,-15.311,-11.438,-15.103,-5.7971,-11.53,-5.8974,-7.4566,-11.765,-7.8205
-5.7862,-7.5556,-3.8374,-13.527,-29.556999,3.6423,-25.365999,3.8003,-21.528,-13.527,-29.556999,-5.9113,-9.5694,-11.438,-11.311,-11.594,-11.53,-7.8205,-11.248,3.9216,-7.8205
9.3082,9.5873,9.8211,-5.7971,-19.704,9.4959,0.0,3.8003,-7.8699,-5.7971,-19.704,5.9113,11.483,1.8325,5.7504,3.8647,1.9968,9.4872,7.7093,3.9216,-3.9744
7.4214,5.7778,7.8699,-5.7971,-17.733999,23.153999,11.707,-7.7939,-0.06504,-5.7971,-17.733999,7.8818,5.7416,5.624,0.06319,3.8647,0.06441,7.5641,3.9179,-3.9216,-0.12821
-5.7862,-11.365,-11.642,-19.323999,-1.9704,-0.26016,-19.511999,1.868,-17.625999,-19.323999,-1.9704,-3.9409,-11.483,-7.6461,-15.103,-11.594,-15.395,1.7949,-5.5608,-21.569,-5.8974
-26.541,-24.698,-31.153999,-21.256001,-29.556999,-29.528,-31.219999,-15.523,-25.431,-21.256001,-29.556999,-21.674999,-24.879999,-28.499001,-28.372999,-30.917999,-34.717999,-7.8205,-15.039,-21.569,-27.051001
-7.673,-9.4603,-9.6911,5.7971,-7.8818,1.6911,-3.9024,-5.8615,-5.9187,5.7971,-7.8818,-1.9704,-7.6555,-3.8547,-15.103,-11.594,-15.395,-3.9744,-18.830999,-21.569,-11.667
-5.7862,5.7778,0.06504,-5.7971,13.793,11.447,15.61,3.8003,7.7398,-5.7971,13.793,7.8818,5.7416,5.624,-5.624,1.9324,-3.8003,-3.9744,3.9179,5.8824,11.41
-13.333,-3.746,-11.642,-38.646999,-55.172001,-6.1138,1.9512,-9.7262,-9.8211,-38.646999,-55.172001,-3.9409,0.0,-3.8547,-11.311,-9.6618,-9.5974,-3.9744,2.0221,9.8039,-3.9744
-9.5597,-5.6508,-11.642,-7.7295,-5.9113,-8.065,5.8537,-3.9291,1.8862,-7.7295,-5.9113,-7.8818,5.7416,5.624,-7.5197,-5.7971,-9.5974,-2.0513,5.8136,-5.8824,3.7179
-13.333,-5.6508,-11.642,19.323999,33.498001,-11.967,-5.8537,5.7327,15.545,19.323999,33.498001,-7.8818,-3.8278,1.8325,-11.311,-3.8647,-11.53,-7.8205,13.397,1.9608,3.7179
-22.767,-20.889,-25.301001,-30.917999,-27.586,-31.48,-27.316999,-11.659,-19.577,-30.917999,-27.586,-29.556999,-22.966999,-19.021,-24.580999,-21.256001,-25.056,-13.59,-16.934999,-17.646999,-13.59
-11.447,1.9683,-9.6911,-28.986,-23.645,-17.820999,3.9024,-17.455999,9.6911,-28.986,-23.645,-13.793,-3.8278,-0.06319,-9.4155,0.0,-7.6651,-5.8974,13.397,-1.9608,-0.12821
1.761,11.492,3.9675,1.9324,9.8522,-4.1626,13.659,-5.8615,17.496,1.9324,9.8522,1.9704,9.5694,15.103,5.7504,13.527,5.8615,-2.0513,17.188,13.725,17.179001
-7.673,-3.746,-9.6911,-11.594,-13.793,-17.820999,-9.7561,-3.9291,-0.06504,-11.594,-13.793,-13.793,11.483,5.624,-1.8325,-1.9324,-3.8003,-3.9744,2.0221,15.686,1.7949
3.6478,5.7778,2.0163,-17.391001,-3.9409,-4.1626,13.659,-13.591,5.7886,-17.391001,-3.9409,-3.9409,11.483,9.4155,3.8547,7.7295,3.9291,-7.8205,15.292,11.765,11.41
1.761,7.6825,2.0163,-17.391001,0.0,-0.26016,-17.561001,-9.7262,15.545,-17.391001,0.0,-3.9409,3.8278,5.624,3.8547,7.7295,1.9968,-5.8974,15.292,21.569,15.256
-7.673,-5.6508,-9.6911,-21.256001,-39.409,-17.820999,-9.7561,-9.7262,-5.9187,-21.256001,-39.409,-15.764,-9.5694,-9.5419,-7.5197,-9.6618,-13.462,-0.12821,-18.830999,1.9608,-2.0513
-17.107,-9.4603,-17.496,-27.052999,-27.586,-27.577,-7.8049,-17.455999,-19.577,-27.052999,-27.586,-21.674999,-17.225,-15.229,-18.893999,-13.527,-23.124001,-13.59,-11.248,-19.608,-9.7436
-0.12579,3.873,0.06504,-21.256001,1.9704,-6.1138,15.61,-15.523,1.8862,-21.256001,1.9704,-3.9409,1.9139,3.7283,-5.624,5.7971,-5.7327,-9.7436,24.771,-1.9608,7.5641
-0.12579,13.397,11.772,-11.594,-17.733999,-8.065,3.9024,-0.06441,15.545,-11.594,-17.733999,-1.9704,21.052999,18.893999,7.6461,19.323999,9.7262,-2.0513,22.875,19.608,28.718
-3.8994,0.06349,3.9675,9.6618,5.9113,-11.967,-7.8049,-7.7939,1.8862,9.6618,5.9113,-3.9409,11.483,13.207,-1.8325,1.9324,1.9968,3.7179,-7.4566,0.0,7.5641
-20.881001,-13.27,-15.545,-25.121,-11.823,-23.674999,-21.462999,-21.32,-15.675,-25.121,-11.823,-19.704,-15.311,-7.6461,-20.790001,-11.594,-17.327,-15.513,-7.4566,-21.569,-7.8205
-5.7862,7.6825,3.9675,-21.256001,-21.674999,-10.016,5.8537,-21.32,-3.9675,-21.256001,-21.674999,-1.9704,-3.8278,3.7283,-5.624,7.7295,0.06441,-7.8205,11.501,3.9216,15.256
-9.5597,-3.746,-3.8374,-9.6618,-9.8522,-15.87,-15.61,-9.7262,3.8374,-9.6618,-9.8522,-7.8818,5.7416,9.4155,-3.7283,1.9324,0.06441,-5.8974,2.0221,7.8431,9.4872
-13.333,-13.27,-11.642,-1.9324,1.9704,-8.065,-7.8049,-11.659,-9.8211,-1.9324,1.9704,-9.8522,7.6555,-1.9589,-7.5197,-11.594,-7.6651,-3.9744,-26.414,7.8431,-9.7436
1.761,1.9683,3.9675,-17.391001,-19.704,15.35,0.0,17.327,-7.8699,-17.391001,-19.704,0.0,13.397,7.5197,5.7504,3.8647,3.9291,3.7179,2.0221,25.49,5.641
-5.7862,-5.6508,-3.8374,3.8647,-13.793,-15.87,-15.61,28.921,-11.772,3.8647,-13.793,-9.8522,17.225,9.4155,3.8547,0.0,0.06441,-0.12821,-1.7694,13.725,-0.12821
-22.767,-32.317001,-29.202999,-17.391001,-33.498001,-29.528,-33.171001,-17.455999,-50.797001,-17.391001,-33.498001,-31.527,-21.052999,-24.708,-22.686001,-30.917999,-30.853001,-9.7436,-32.101002,-19.608,-30.896999
-11.447,-13.27,-17.496,-27.052999,-37.438,-6.1138,-7.8049,1.868,-21.528,-27.052999,-37.438,-15.764,-5.7416,-7.6461,-11.311,-17.391001,-17.327,3.7179,-7.4566,-1.9608,-9.7436
-11.447,-17.079,-19.447001,-13.527,-45.32,-8.065,-15.61,1.868,-21.528,-13.527,-45.32,-13.793,-13.397,-17.125,-15.103,-21.256001,-23.124001,-3.9744,-7.4566,-1.9608,-15.513
1.761,-9.4603,-5.7886,-15.459,-9.8522,7.5447,-21.462999,-1.9968,-3.9675,-15.459,-9.8522,-5.9113,9.5694,1.8325,1.9589,-5.7971,-5.7327,3.7179,7.7093,19.608,-7.8205
-11.447,-18.983999,-19.447001,-17.391001,-5.9113,-17.820999,-27.316999,-0.06441,-11.772,-17.391001,-5.9113,-19.704,-11.483,-17.125,-9.4155,-17.391001,-17.327,-0.12821,-11.248,-5.8824,-19.358999
-3.8994,-1.8413,-7.7398,-9.6618,-19.704,-10.016,9.7561,9.5974,-13.724,-9.6618,-19.704,-7.8818,1.9139,-3.8547,3.8547,-3.8647,-1.868,5.641,-5.5608,0.0,-5.8974
22.516001,24.825001,19.577,13.527,-21.674999,42.667,23.415001,13.462,-0.06504,13.527,-21.674999,21.674999,15.311,15.103,19.021,19.323999,17.455999,9.4872,11.501,15.686,13.333
-11.447,0.06349,-3.8374,-32.849998,-33.498001,-15.87,-5.8537,-1.9968,-11.772,-32.849998,-33.498001,-9.8522,-3.8278,-1.9589,-3.7283,1.9324,-1.868,-7.8205,-3.6651,-3.9216,1.7949
-5.7862,1.9683,0.06504,5.7971,19.704,-11.967,-1.9512,-11.659,-7.8699,5.7971,19.704,-5.9113,0.0,-0.06319,1.9589,9.6618,5.8615,-3.9744,15.292,-1.9608,3.7179
-11.447,-7.5556,-9.6911,1.9324,-11.823,-15.87,-17.561001,-5.8615,-5.9187,1.9324,-11.823,-13.793,-9.5694,-11.438,-3.7283,-1.9324,-1.868,-5.8974,-3.6651,1.9608,-9.7436
-5.7862,-3.746,-3.8374,-19.323999,-29.556999,-8.065,-11.707,-7.7939,-13.724,-19.323999,-29.556999,-9.8522,1.9139,1.8325,1.9589,5.7971,5.8615,-2.0513,-5.5608,7.8431,3.7179
1.761,1.9683,2.0163,-17.391001,-25.615999,11.447,-5.8537,5.7327,-11.772,-17.391001,-25.615999,-3.9409,7.6555,13.207,7.6461,13.527,13.591,-2.0513,5.8136,1.9608,13.333
-2.0126,7.6825,5.9187,-15.459,1.9704,-4.1626,7.8049,11.53,1.8862,-15.459,1.9704,0.0,11.483,15.103,7.6461,17.391001,19.388,1.7949,5.8136,7.8431,19.103001
-5.7862,1.9683,2.0163,9.6618,3.9409,-8.065,-3.9024,-9.7262,-7.8699,9.6618,3.9409,-5.9113,9.5694,7.5197,0.06319,11.594,11.659,-7.8205,7.7093,7.8431,11.41
-5.7862,0.06349,0.06504,5.7971,-7.8818,-0.26016,-19.511999,1.868,-7.8699,5.7971,-7.8818,-5.9113,-3.8278,1.8325,-5.624,5.7971,3.9291,-11.667,2.0221,-7.8431,11.41
-3.8994,0.06349,3.9675,-9.6618,-15.764,-4.1626,7.8049,-3.9291,3.8374,-9.6618,-15.764,0.0,-1.9139,7.5197,-1.8325,5.7971,9.7262,-3.9744,-1.7694,-9.8039,9.4872
11.195,9.5873,13.724,15.459,23.645,13.398,19.511999,13.462,11.642,15.459,23.645,11.823,17.225,16.997999,13.333,17.391001,23.253,5.641,7.7093,11.765,22.948999
3.6478,-3.746,0.06504,5.7971,0.0,3.6423,-19.511999,5.7327,-2.0163,5.7971,0.0,-1.9704,1.9139,5.624,1.9589,3.8647,9.7262,-2.0513,-13.144,0.0,7.5641
-5.7862,-13.27,-7.7398,5.7971,-5.9113,-13.919,-17.561001,1.868,-15.675,5.7971,-5.9113,-13.793,0.0,5.624,-1.8325,0.0,3.9291,-3.9744,-9.3523,-5.8824,5.641
-11.447,-22.794001,-13.593,-9.6618,-7.8818,-19.771999,-39.023998,-3.9291,-17.625999,-9.6618,-7.8818,-19.704,0.0,-3.8547,-3.7283,-7.7295,0.06441,-5.8974,-13.144,-5.8824,-2.0513
-7.673,-17.079,-9.6911,-34.783001,-29.556999,-6.1138,-7.8049,-30.982,-27.382,-34.783001,-29.556999,-17.733999,-5.7416,-3.8547,-3.7283,-5.7971,0.06441,-3.9744,-16.934999,-11.765,-7.8205
7.4214,0.06349,3.9675,-11.594,-39.409,7.5447,-19.511999,13.462,-11.772,-11.594,-39.409,0.0,1.9139,5.624,7.6461,7.7295,11.659,1.7949,-9.3523,1.9608,5.641
3.6478,-5.6508,0.06504,25.121,1.9704,1.6911,-11.707,3.8003,-5.9187,25.121,1.9704,-3.9409,3.8278,1.8325,9.5419,1.9324,7.7939,-2.0513,-18.830999,9.8039,-0.12821
1.761,-7.5556,2.0163,15.459,21.674999,-13.919,-1.9512,5.7327,1.8862,15.459,21.674999,-7.8818,15.311,9.4155,9.5419,3.8647,9.7262,-2.0513,3.9179,11.765,3.7179
-3.8994,-15.175,-5.7886,-11.594,-11.823,-4.1626,-35.122002,-7.7939,-9.8211,-11.594,-11.823,-15.764,9.5694,5.624,5.7504,-3.8647,1.9968,-3.9744,-7.4566,7.8431,-0.12821
-0.12579,-1.8413,0.06504,-23.188,-7.8818,-0.26016,-9.7561,-1.9968,-11.772,-23.188,-7.8818,-5.9113,0.0,5.624,3.8547,3.8647,1.9968,1.7949,-7.4566,0.0,5.641
-2.0126,-5.6508,-1.8862,-1.9324,-33.498001,-6.1138,-13.659,5.7327,-21.528,-1.9324,-33.498001,-3.9409,3.8278,7.5197,0.06319,-1.9324,0.06441,1.7949,-7.4566,0.0,-2.0513
1.761,7.6825,7.8699,27.052999,29.556999,-10.016,17.561001,-9.7262,7.7398,27.052999,29.556999,5.9113,3.8278,3.7283,3.8547,5.7971,5.8615,1.7949,5.8136,0.0,5.641
7.4214,9.5873,9.8211,9.6618,17.733999,17.301001,-1.9512,9.5974,15.545,9.6618,17.733999,9.8522,1.9139,5.624,5.7504,7.7295,5.8615,7.5641,9.6051,3.9216,5.641
1.761,-7.5556,-3.8374,1.9324,-13.793,3.6423,-9.7561,-3.9291,1.8862,1.9324,-13.793,0.0,-5.7416,-3.8547,-1.8325,-9.6618,-7.6651,7.5641,-13.144,-13.725,-11.667
11.195,17.205999,11.772,27.052999,33.498001,15.35,25.365999,13.462,35.056999,27.052999,33.498001,17.733999,7.6555,9.4155,7.6461,13.527,9.7262,9.4872,13.397,1.9608,11.41
9.3082,15.302,13.724,11.594,23.645,11.447,23.415001,25.056,11.642,11.594,23.645,11.823,11.483,9.4155,7.6461,9.6618,9.7262,5.641,11.501,9.8039,1.7949
-0.12579,-9.4603,0.06504,1.9324,-7.8818,-0.26016,-11.707,1.868,-3.9675,1.9324,-7.8818,-1.9704,-13.397,-9.5419,-7.5197,-11.594,-7.6651,-0.12821,-11.248,-9.8039,-15.513
5.5346,-3.746,2.0163,23.188,11.823,9.4959,9.7561,-1.9968,3.8374,23.188,11.823,7.8818,-11.483,-3.8547,-3.7283,-5.7971,-3.8003,5.641,-5.5608,-5.8824,-5.8974
16.855,13.397,13.724,23.188,19.704,19.252001,25.365999,23.124001,-2.0163,23.188,19.704,19.704,9.5694,9.4155,11.438,5.7971,7.7939,15.256,3.9179,9.8039,1.7949
7.4214,-5.6508,-1.8862,-3.8647,-15.764,29.007999,-19.511999,-23.253,-0.06504,-3.8647,-15.764,7.8818,-13.397,-19.021,-7.5197,-15.459,-11.53,-0.12821,-18.830999,-7.8431,-21.282
9.3082,-1.8413,5.9187,13.527,17.733999,9.4959,-1.9512,19.259001,19.447001,13.527,17.733999,13.793,-13.397,-13.333,-3.7283,-5.7971,-5.7327,3.7179,-3.6651,-3.9216,-7.8205
16.855,15.302,17.625999,44.444,45.32,15.35,29.268,36.651001,31.153999,44.444,45.32,25.615999,-1.9139,1.8325,5.7504,7.7295,5.8615,13.333,15.292,-3.9216,-0.12821
14.969,3.873,11.772,27.052999,35.467999,27.056999,23.415001,11.53,13.593,27.052999,35.467999,21.674999,-1.9139,-1.9589,1.9589,-5.7971,0.06441,7.5641,-1.7694,-3.9216,-9.7436
7.4214,7.6825,5.9187,19.323999,13.793,13.398,17.561001,19.259001,9.6911,19.323999,13.793,15.764,-5.7416,-0.06319,-1.8325,0.0,-3.8003,5.641,-5.5608,-3.9216,-5.8974
13.082,17.205999,13.724,21.256001,15.764,25.106001,23.415001,7.6651,29.202999,21.256001,15.764,21.674999,1.9139,1.8325,1.9589,1.9324,0.06441,5.641,2.0221,1.9608,-3.9744
1.761,0.06349,2.0163,25.121,21.674999,9.4959,9.7561,-13.591,15.545,25.121,21.674999,9.8522,-9.5694,-11.438,-5.624,-9.6618,-9.5974,-0.12821,13.397,-7.8431,-9.7436
-11.447,-13.27,-13.593,0.0,11.823,-13.919,-11.707,-1.9968,7.7398,0.0,11.823,-5.9113,-19.139,-20.916,-13.207,-19.323999,-19.259001,-0.12821,-5.5608,-11.765,-19.358999
-7.673,-1.8413,-3.8374,-7.7295,1.9704,-8.065,-9.7561,-3.9291,7.7398,-7.7295,1.9704,-3.9409,1.9139,-1.9589,-3.7283,-5.7971,-5.7327,-3.9744,0.12638,1.9608,-3.9744
9.3082,13.397,9.8211,27.052999,23.645,5.5935,25.365999,1.868,25.301001,27.052999,23.645,13.793,9.5694,7.5197,9.5419,7.7295,5.8615,9.4872,24.771,7.8431,11.41
-0.12579,1.9683,-3.8374,13.527,17.733999,1.6911,0.0,11.53,15.545,13.527,17.733999,-1.9704,-1.9139,-7.6461,0.06319,-3.8647,-5.7327,3.7179,15.292,7.8431,-2.0513
-2.0126,0.06349,-5.7886,0.0,-1.9704,-8.065,-3.9024,-1.9968,11.642,0.0,-1.9704,-3.9409,0.0,-3.8547,0.06319,-1.9324,-5.7327,7.5641,-1.7694,7.8431,1.7949
-9.5597,-5.6508,-11.642,0.0,11.823,-13.919,1.9512,-9.7262,3.8374,0.0,11.823,-1.9704,-5.7416,-11.438,-5.624,-7.7295,-13.462,-5.8974,2.0221,-1.9608,-7.8205
-5.7862,3.873,-5.7886,-3.8647,9.8522,-8.065,3.9024,-7.7939,13.593,-3.8647,9.8522,0.0,1.9139,-3.8547,-1.8325,0.0,-7.6651,-3.9744,9.6051,3.9216,1.7949
5.5346,5.7778,2.0163,-15.459,-19.704,1.6911,-3.9024,-9.7262,9.6911,-15.459,-19.704,3.9409,1.9139,-5.7504,3.8547,3.8647,-1.868,1.7949,0.12638,-9.8039,-11.667
7.4214,22.921,11.772,21.256001,25.615999,-4.1626,31.219999,-3.9291,19.447001,21.256001,25.615999,13.793,0.0,1.8325,9.5419,15.459,5.8615,7.5641,20.979,-9.8039,-2.0513
-3.8994,5.7778,0.06504,-3.8647,17.733999,-15.87,9.7561,-17.455999,3.8374,-3.8647,17.733999,-3.9409,-3.8278,1.8325,0.06319,3.8647,-1.868,1.7949,7.7093,-7.8431,9.4872
7.4214,13.397,9.8211,-23.188,1.9704,-0.26016,17.561001,-17.455999,3.8374,-23.188,1.9704,3.9409,9.5694,9.4155,5.7504,9.6618,7.7939,-2.0513,7.7093,-1.9608,9.4872
11.195,22.921,19.577,9.6618,15.764,-2.2114,27.316999,-0.06441,19.447001,9.6618,15.764,15.764,7.6555,9.4155,9.5419,17.391001,13.591,5.641,11.501,0.0,13.333
13.082,24.825001,19.577,11.594,19.704,15.35,25.365999,3.8003,23.35,11.594,19.704,17.733999,5.7416,9.4155,9.5419,21.256001,13.591,5.641,15.292,-9.8039,17.179001
1.761,17.205999,7.8699,-3.8647,7.8818,-8.065,31.219999,-11.659,7.7398,-3.8647,7.8818,5.9113,-5.7416,1.8325,0.06319,13.527,3.9291,-9.7436,-5.5608,-13.725,-3.9744
5.5346,13.397,7.8699,-11.594,-23.645,15.35,13.659,-11.659,11.642,-11.594,-23.645,7.8818,0.0,-0.06319,3.8547,3.8647,5.8615,-5.8974,3.9179,0.0,-0.12821
24.403,22.921,27.382,23.188,39.409,27.056999,11.707,17.327,33.105999,23.188,39.409,27.586,17.225,18.893999,19.021,17.391001,21.32,11.41,26.667,17.646999,22.948999
13.082,17.205999,19.577,15.459,23.645,-0.26016,27.316999,3.8003,21.398001,15.459,23.645,17.733999,15.311,11.311,15.229,9.6618,15.523,7.5641,9.6051,9.8039,1.7949
-7.673,-15.175,-9.6911,-13.527,-9.8522,-10.016,-9.7561,-21.32,-5.9187,-13.527,-9.8522,-11.823,0.0,-9.5419,-7.5197,-17.391001,-7.6651,-9.7436,-20.726999,-5.8824,-13.59
5.5346,3.873,3.9675,7.7295,13.793,9.4959,-5.8537,7.6651,3.8374,7.7295,13.793,7.8818,-3.8278,-3.8547,1.9589,-1.9324,0.06441,-0.12821,15.292,1.9608,1.7949
3.6478,-1.8413,-1.8862,-5.7971,-5.9113,1.6911,3.9024,5.7327,-7.8699,-5.7971,-5.9113,0.0,-1.9139,-7.6461,5.7504,-5.7971,0.06441,9.4872,3.9179,3.9216,-11.667
-0.12579,0.06349,-3.8374,-7.7295,5.9113,-4.1626,5.8537,-1.9968,13.593,-7.7295,5.9113,-3.9409,-7.6555,-11.438,1.9589,-3.8647,0.06441,5.641,2.0221,-7.8431,-5.8974
-3.8994,3.873,-1.8862,7.7295,0.0,-10.016,15.61,-7.7939,11.642,7.7295,0.0,1.9704,1.9139,1.8325,0.06319,1.9324,1.9968,-3.9744,5.8136,5.8824,7.5641
-3.8994,9.5873,-1.8862,0.0,0.0,1.6911,23.415001,-3.9291,-0.06504,0.0,0.0,3.9409,3.8278,3.7283,-1.8325,1.9324,0.06441,-2.0513,3.9179,9.8039,5.641
7.4214,7.6825,3.9675,13.527,31.527,5.5935,0.0,7.6651,31.153999,13.527,31.527,7.8818,5.7416,5.624,7.6461,7.7295,5.8615,7.5641,15.292,11.765,9.4872
-2.0126,-5.6508,-5.7886,7.7295,17.733999,-8.065,-9.7561,5.7327,15.545,7.7295,17.733999,-7.8818,-1.9139,-5.7504,0.06319,0.0,-1.868,3.7179,7.7093,7.8431,-0.12821
-2.0126,1.9683,-5.7886,-5.7971,-11.823,1.6911,-1.9512,-1.9968,3.8374,-5.7971,-11.823,-3.9409,-5.7416,-3.8547,-1.8325,3.8647,-1.868,1.7949,7.7093,3.9216,3.7179
-13.333,-17.079,-21.398001,-25.121,-35.467999,-10.016,-21.462999,-11.659,-9.8211,-25.121,-35.467999,-17.733999,-17.225,-17.125,-13.207,-13.527,-17.327,-2.0513,-1.7694,-1.9608,-15.513
-2.0126,0.06349,-5.7886,3.8647,7.8818,-2.2114,-11.707,-1.9968,3.8374,3.8647,7.8818,-1.9704,1.9139,3.7283,0.06319,3.8647,0.06441,-2.0513,11.501,9.8039,9.4872
-3.8994,-3.746,-7.7398,7.7295,5.9113,-8.065,-3.9024,-1.9968,1.8862,7.7295,5.9113,-7.8818,0.0,3.7283,-1.8325,5.7971,-1.868,-3.9744,5.8136,5.8824,15.256
-13.333,-9.4603,-17.496,-9.6618,-3.9409,-15.87,-19.511999,-9.7262,-9.8211,-9.6618,-3.9409,-21.674999,-9.5694,-9.5419,-11.311,0.0,-13.462,3.7179,0.12638,-19.608,1.7949
-3.8994,0.06349,-9.6911,-5.7971,-7.8818,-8.065,-13.659,-7.7939,-3.9675,-5.7971,-7.8818,-9.8522,0.0,1.8325,-7.5197,1.9324,-5.7327,5.641,3.9179,-21.569,1.7949
-0.12579,11.492,5.9187,-1.9324,-9.8522,-0.26016,13.659,1.868,11.642,-1.9324,-9.8522,5.9113,9.5694,18.893999,1.9589,17.391001,9.7262,-3.9744,9.6051,7.8431,26.795
-9.5597,0.06349,-1.8862,-7.7295,13.793,-15.87,5.8537,-7.7939,-19.577,-7.7295,13.793,-5.9113,-1.9139,3.7283,-11.311,5.7971,-1.868,-17.436001,-1.7694,0.0,11.41
-7.673,3.873,0.06504,1.9324,3.9409,-6.1138,1.9512,-9.7262,11.642,1.9324,3.9409,-5.9113,-7.6555,3.7283,-11.311,9.6618,0.06441,-19.358999,13.397,-1.9608,19.103001
-15.22,-7.5556,-11.642,-11.594,-21.674999,-8.065,-15.61,-21.32,-3.9675,-11.594,-21.674999,-9.8522,-13.397,-3.8547,-18.893999,0.0,-9.5974,-15.513,-7.4566,-13.725,7.5641
3.6478,17.205999,13.724,-5.7971,-7.8818,7.5447,25.365999,-5.8615,3.8374,-5.7971,-7.8818,11.823,13.397,18.893999,3.8547,25.121,15.523,-3.9744,9.6051,5.8824,26.795
18.742001,32.444,27.382,25.121,27.586,29.007999,35.122002,13.462,11.642,25.121,27.586,31.527,7.6555,16.997999,9.5419,28.986,19.388,3.7179,19.084,1.9608,17.179001
3.6478,5.7778,11.772,-11.594,17.733999,-0.26016,-1.9512,1.868,25.301001,-11.594,17.733999,5.9113,3.8278,7.5197,1.9589,9.6618,7.7939,-0.12821,3.9179,-1.9608,13.333
5.5346,1.9683,7.8699,0.0,-5.9113,9.4959,-1.9512,-7.7939,11.642,0.0,-5.9113,3.9409,9.5694,16.997999,1.9589,9.6618,9.7262,-7.8205,-1.7694,5.8824,21.025999
-7.673,-9.4603,-7.7398,0.0,-3.9409,-4.1626,0.0,-23.253,-15.675,0.0,-3.9409,-7.8818,-9.5694,-5.7504,-11.311,-5.7971,-5.7327,-9.7436,-11.248,-11.765,-2.0513
14.969,15.302,15.675,7.7295,29.556999,13.398,15.61,-13.591,33.105999,7.7295,29.556999,15.764,9.5694,18.893999,15.229,19.323999,17.455999,5.641,11.501,5.8824,22.948999
-0.12579,3.873,5.9187,-7.7295,3.9409,-4.1626,-3.9024,-3.9291,5.7886,-7.7295,3.9409,0.0,7.6555,7.5197,5.7504,5.7971,7.7939,-2.0513,-3.6651,9.8039,5.641
-13.333,-15.175,-11.642,-15.459,-15.764,-23.674999,-17.561001,-7.7939,-11.772,-15.459,-15.764,-15.764,-5.7416,-7.6461,-7.5197,-11.594,-7.6651,-13.59,-16.934999,3.9216,-11.667
-7.673,-9.4603,-11.642,-25.121,-11.823,-6.1138,-9.7561,-13.591,-27.382,-25.121,-11.823,-9.8522,-1.9139,-3.8547,-3.7283,-9.6618,-5.7327,-9.7436,-7.4566,1.9608,-7.8205
7.4214,9.5873,7.8699,19.323999,0.0,7.5447,9.7561,17.327,15.545,19.323999,0.0,9.8522,15.311,15.103,11.438,9.6618,13.591,3.7179,13.397,9.8039,11.41
16.855,11.492,17.625999,38.646999,29.556999,17.301001,7.8049,-1.9968,25.301001,38.646999,29.556999,17.733999,11.483,13.207,17.125,13.527,17.455999,9.4872,15.292,15.686,17.179001
5.5346,1.9683,5.9187,-7.7295,1.9704,13.398,-15.61,-5.8615,1.8862,-7.7295,1.9704,1.9704,9.5694,9.4155,5.7504,3.8647,5.8615,-0.12821,2.0221,9.8039,-2.0513
-2.0126,-3.746,2.0163,5.7971,11.823,-8.065,-1.9512,3.8003,7.7398,5.7971,11.823,-1.9704,1.9139,1.8325,-3.7283,-1.9324,-1.868,-0.12821,-1.7694,0.0,-3.9744
-13.333,-20.889,-15.545,-3.8647,-5.9113,-13.919,-15.61,-0.06441,-17.625999,-3.8647,-5.9113,-13.793,-13.397,-17.125,-13.207,-19.323999,-13.462,-2.0513,-22.622,-1.9608,-19.358999
7.4214,7.6825,7.8699,17.391001,27.586,-0.26016,15.61,17.327,17.496,17.391001,27.586,9.8522,7.6555,9.4155,9.5419,7.7295,11.659,11.41,7.7093,15.686,5.641
-11.447,-13.27,-9.6911,15.459,3.9409,-11.967,-9.7561,-7.7939,-11.772,15.459,3.9409,-7.8818,-5.7416,-11.438,-9.4155,-11.594,-7.6651,-2.0513,-11.248,-1.9608,-13.59
-0.12579,0.06349,2.0163,17.391001,1.9704,-0.26016,-9.7561,5.7327,7.7398,17.391001,1.9704,1.9704,5.7416,1.8325,0.06319,0.0,3.9291,3.7179,2.0221,1.9608,-0.12821
9.3082,7.6825,9.8211,19.323999,25.615999,13.398,5.8537,11.53,19.447001,19.323999,25.615999,11.823,19.139,15.103,11.438,9.6618,13.591,5.641,9.6051,1.9608,11.41
5.5346,-9.4603,0.06504,25.121,11.823,7.5447,-3.9024,-5.8615,-13.724,25.121,11.823,5.9113,-3.8278,-1.9589,1.9589,-9.6618,0.06441,7.5641,-18.830999,-35.293999,-13.59
13.082,3.873,9.8211,36.715,3.9409,32.910999,1.9512,-9.7262,-0.06504,36.715,3.9409,21.674999,-1.9139,-1.9589,5.7504,-5.7971,5.8615,-0.12821,-9.3523,0.0,-7.8205
16.855,15.302,17.625999,21.256001,17.733999,38.764,33.171001,21.191999,25.301001,21.256001,17.733999,29.556999,7.6555,7.5197,15.229,7.7295,15.523,5.641,3.9179,23.528999,3.7179
7.4214,5.7778,11.772,40.580002,65.025002,-0.26016,23.415001,23.124001,19.447001,40.580002,65.025002,21.674999,1.9139,7.5197,11.438,0.0,9.7262,11.41,0.12638,3.9216,-2.0513
13.082,7.6825,15.675,52.174,61.084,19.252001,27.316999,1.868,13.593,52.174,61.084,21.674999,5.7416,9.4155,13.333,3.8647,13.591,-2.0513,5.8136,9.8039,7.5641
3.6478,-1.8413,3.9675,30.917999,11.823,5.5935,19.511999,7.6651,-13.724,30.917999,11.823,7.8818,-3.8278,-9.5419,3.8547,-9.6618,0.06441,5.641,-28.309999,-1.9608,-15.513
20.629,11.492,19.577,13.527,13.793,25.106001,-25.365999,11.53,13.593,13.527,13.793,17.733999,17.225,11.311,20.916,9.6618,17.455999,5.641,9.6051,15.686,7.5641
26.289,26.73,27.382,38.646999,51.231998,34.862,37.073002,11.53,40.910999,38.646999,51.231998,31.527,21.052999,18.893999,24.708,21.256001,23.253,17.179001,36.145,23.528999,19.103001
-2.0126,3.873,0.06504,21.256001,25.615999,-6.1138,21.462999,1.868,17.496,21.256001,25.615999,5.9113,-11.483,-7.6461,-1.8325,-5.7971,-5.7327,5.641,7.7093,-3.9216,-7.8205
1.761,3.873,2.0163,11.594,-9.8522,1.6911,13.659,5.7327,15.545,11.594,-9.8522,3.9409,-13.397,-5.7504,-3.7283,-3.8647,-5.7327,5.641,-1.7694,-3.9216,-3.9744
13.082,15.302,15.675,30.917999,39.409,15.35,21.462999,13.462,29.202999,30.917999,39.409,19.704,5.7416,7.5197,13.333,13.527,11.659,9.4872,13.397,9.8039,7.5641
7.4214,7.6825,3.9675,3.8647,33.498001,11.447,9.7561,3.8003,1.8862,3.8647,33.498001,7.8818,9.5694,1.8325,9.5419,3.8647,5.8615,9.4872,5.8136,11.765,-0.12821
-13.333,-11.365,-17.496,-28.986,-27.586,-10.016,0.0,-7.7939,-7.8699,-28.986,-27.586,-13.793,-17.225,-19.021,-15.103,-17.391001,-17.327,-19.358999,-11.248,-7.8431,-17.436001
-13.333,-5.6508,-13.593,-17.391001,-3.9409,-13.919,-15.61,-17.455999,1.8862,-17.391001,-3.9409,-11.823,-17.225,-17.125,-15.103,-9.6618,-15.395,-11.667,-3.6651,-21.569,-9.7436
-3.8994,5.7778,0.06504,-3.8647,-1.9704,-10.016,9.7561,-0.06441,9.6911,-3.8647,-1.9704,0.0,5.7416,1.8325,-1.8325,3.8647,-1.868,-0.12821,17.188,-3.9216,-2.0513
3.6478,15.302,9.8211,5.7971,7.8818,5.5935,23.415001,-3.9291,23.35,5.7971,7.8818,9.8522,0.0,5.624,-3.7283,9.6618,1.9968,-0.12821,20.979,-7.8431,13.333
-3.8994,7.6825,-1.8862,-13.527,-5.9113,5.5935,1.9512,-7.7939,13.593,-13.527,-5.9113,1.9704,-17.225,-7.6461,-11.311,1.9324,-7.6651,3.7179,13.397,-39.216,3.7179
-17.107,-1.8413,-9.6911,-15.459,-5.9113,-15.87,7.8049,-13.591,3.8374,-15.459,-5.9113,-3.9409,-17.225,-9.5419,-20.790001,-5.7971,-13.462,-13.59,9.6051,-25.49,-9.7436
-3.8994,9.5873,5.9187,-3.8647,21.674999,-13.919,7.8049,-7.7939,7.7398,-3.8647,21.674999,3.9409,7.6555,9.4155,-3.7283,7.7295,5.8615,-7.8205,15.292,-5.8824,5.641
-11.447,-3.746,-5.7886,-17.391001,-25.615999,-17.820999,-15.61,-9.7262,1.8862,-17.391001,-25.615999,-13.793,-1.9139,-0.06319,-9.4155,-3.8647,-3.8003,-13.59,-1.7694,-9.8039,-5.8974
-5.7862,0.06349,0.06504,-23.188,-27.586,-8.065,-1.9512,-9.7262,3.8374,-23.188,-27.586,-5.9113,3.8278,7.5197,-5.624,3.8647,3.9291,-9.7436,9.6051,3.9216,7.5641
-0.12579,5.7778,5.9187,-21.256001,-41.379002,-4.1626,-9.7561,-0.06441,-9.8211,-21.256001,-41.379002,-5.9113,1.9139,7.5197,-3.7283,9.6618,5.8615,-13.59,9.6051,0.0,11.41
-2.0126,9.5873,7.8699,-5.7971,-7.8818,-10.016,1.9512,-5.8615,-5.9187,-5.7971,-7.8818,-1.9704,5.7416,13.207,-3.7283,13.527,5.8615,-11.667,9.6051,1.9608,17.179001
-3.8994,3.873,3.9675,-27.052999,-13.793,-8.065,1.9512,-7.7939,-3.9675,-27.052999,-13.793,-7.8818,11.483,15.103,0.06319,9.6618,5.8615,-7.8205,7.7093,1.9608,11.41
-17.107,-15.175,-15.545,-36.715,-47.291,-27.577,-21.462999,-30.982,-25.431,-36.715,-47.291,-25.615999,-13.397,-9.5419,-13.207,-11.594,-11.53,-21.282,-5.5608,-11.765,-5.8974
-5.7862,-9.4603,-9.6911,-25.121,-31.527,-17.820999,-21.462999,-11.659,-15.675,-25.121,-31.527,-19.704,-1.9139,-0.06319,0.06319,-1.9324,0.06441,-3.9744,-5.5608,-3.9216,-2.0513
-2.0126,-7.5556,-3.8374,-11.594,-39.409,-13.919,-25.365999,5.7327,-17.625999,-11.594,-39.409,-17.733999,0.0,1.8325,0.06319,-1.9324,0.06441,-3.9744,-7.4566,-1.9608,-2.0513
-18.993999,-13.27,-9.6911,-32.849998,-39.409,-33.431,-27.316999,-19.388,-15.675,-32.849998,-39.409,-27.586,-3.8278,-1.9589,-7.5197,-7.7295,-5.7327,-19.358999,3.9179,0.0,-0.12821
-9.5597,-11.365,-5.7886,-42.512001,-27.586,-23.674999,-27.316999,-17.455999,-11.772,-42.512001,-27.586,-21.674999,-3.8278,-1.9589,-5.624,-9.6618,-5.7327,-5.8974,-3.6651,-1.9608,-3.9744
-9.5597,-11.365,-7.7398,-50.242001,-47.291,-21.724001,-27.316999,-17.455999,-27.382,-50.242001,-47.291,-23.645,-7.6555,-5.7504,-5.624,-5.7971,-7.6651,-9.7436,-9.3523,-5.8824,-5.8974
-5.7862,-15.175,-5.7886,-15.459,-41.379002,-15.87,-29.268,-0.06441,-27.382,-15.459,-41.379002,-17.733999,9.5694,3.7283,1.9589,-9.6618,-3.8003,-0.12821,-3.6651,7.8431,-9.7436
-7.673,-13.27,-9.6911,-1.9324,-15.764,-15.87,-17.561001,-3.9291,-13.724,-1.9324,-15.764,-13.793,-15.311,-13.333,-7.5197,-11.594,-9.5974,1.7949,0.12638,-7.8431,-17.436001
-2.0126,-7.5556,-3.8374,-21.256001,-27.586,-13.919,-15.61,-3.9291,-0.06504,-21.256001,-27.586,-13.793,-5.7416,-3.8547,-1.8325,-7.7295,-5.7327,-0.12821,3.9179,1.9608,-3.9744
-5.7862,-13.27,-9.6911,-19.323999,-21.674999,-4.1626,-17.561001,-7.7939,-11.772,-19.323999,-21.674999,-11.823,3.8278,-1.9589,-3.7283,-17.391001,-13.462,1.7949,-24.518,1.9608,-13.59
-11.447,-9.4603,-9.6911,-9.6618,-3.9409,-11.967,0.0,-3.9291,-27.382,-9.6618,-3.9409,-7.8818,-26.794001,-11.438,-20.790001,-17.391001,-23.124001,-7.8205,-13.144,-27.451,-7.8205
11.195,13.397,13.724,0.0,-1.9704,17.301001,11.707,17.327,23.35,0.0,-1.9704,17.733999,-9.5694,9.4155,0.06319,7.7295,0.06441,13.333,24.771,-21.569,17.179001
-2.0126,7.6825,3.9675,13.527,27.586,1.6911,0.0,19.259001,35.056999,13.527,27.586,7.8818,-11.483,-3.8547,-7.5197,1.9324,-5.7327,3.7179,15.292,-3.9216,1.7949
-0.12579,1.9683,0.06504,19.323999,33.498001,5.5935,21.462999,9.5974,17.496,19.323999,33.498001,9.8522,-9.5694,-5.7504,-9.4155,-3.8647,-9.5974,-0.12821,7.7093,3.9216,5.641
7.4214,3.873,2.0163,19.323999,17.733999,9.4959,19.511999,26.989,15.545,19.323999,17.733999,13.793,-15.311,-11.438,-3.7283,-1.9324,-11.53,13.333,15.292,0.0,-0.12821
11.195,22.921,13.724,32.849998,45.32,15.35,40.976002,30.853001,17.496,32.849998,45.32,25.615999,-11.483,-11.438,0.06319,9.6618,-3.8003,9.4872,2.0221,9.8039,-2.0513
22.516001,22.921,21.528,30.917999,27.586,36.813,33.171001,32.785999,23.35,30.917999,27.586,31.527,1.9139,3.7283,11.438,13.527,5.8615,17.179001,19.084,13.725,17.179001
22.516001,15.302,15.675,30.917999,9.8522,44.618,29.268,32.785999,27.252001,30.917999,9.8522,33.498001,-7.6555,-3.8547,5.7504,5.7971,0.06441,22.948999,5.8136,3.9216,5.641
13.082,7.6825,3.9675,15.459,25.615999,25.106001,7.8049,28.921,33.105999,15.459,25.615999,17.733999,-3.8278,-5.7504,5.7504,1.9324,-1.868,21.025999,3.9179,0.0,-5.8974
31.950001,26.73,23.48,46.376999,49.261002,36.813,46.828999,25.056,19.447001,46.376999,49.261002,39.409,1.9139,3.7283,20.916,17.391001,13.591,32.563999,20.979,9.8039,17.179001
24.403,22.921,23.48,44.444,37.438,30.959,33.171001,34.717999,15.545,44.444,37.438,33.498001,0.0,1.8325,15.229,15.459,9.7262,21.025999,5.8136,13.725,13.333
26.289,13.397,17.625999,32.849998,27.586,44.618,17.561001,28.921,19.447001,32.849998,27.586,27.586,-7.6555,-1.9589,9.5419,7.7295,5.8615,13.333,9.6051,7.8431,3.7179
14.969,1.9683,7.8699,23.188,7.8818,30.959,-3.9024,15.395,17.496,23.188,7.8818,15.764,-9.5694,-0.06319,5.7504,3.8647,3.9291,17.179001,9.6051,-5.8824,3.7179
1.761,-1.8413,-1.8862,1.9324,0.0,1.6911,0.0,25.056,11.642,1.9324,0.0,7.8818,-17.225,-11.438,-1.8325,-3.8647,-3.8003,9.4872,-16.934999,-15.686,-7.8205
5.5346,3.873,5.9187,11.594,19.704,1.6911,11.707,17.327,-7.8699,11.594,19.704,11.823,-5.7416,-0.06319,3.8547,1.9324,1.9968,5.641,-3.6651,0.0,-2.0513
16.855,13.397,17.625999,42.512001,27.586,23.153999,21.462999,36.651001,-3.9675,42.512001,27.586,17.733999,1.9139,-0.06319,13.333,7.7295,11.659,13.333,7.7093,3.9216,3.7179
9.3082,5.7778,13.724,21.256001,5.9113,15.35,5.8537,26.989,5.7886,21.256001,5.9113,11.823,-13.397,-7.6461,5.7504,3.8647,3.9291,7.5641,5.8136,1.9608,-2.0513
7.4214,5.7778,5.9187,-5.7971,0.0,5.5935,-1.9512,-3.9291,11.642,-5.7971,0.0,3.9409,-13.397,-9.5419,3.8547,7.7295,3.9291,1.7949,2.0221,5.8824,-2.0513
1.761,-1.8413,-5.7886,0.0,15.764,5.5935,-5.8537,28.921,5.7886,0.0,15.764,-3.9409,5.7416,1.8325,5.7504,3.8647,3.9291,15.256,-15.039,5.8824,1.7949
-9.5597,-15.175,-17.496,-9.6618,-1.9704,-10.016,-13.659,7.6651,-19.577,-9.6618,-1.9704,-15.764,-17.225,-17.125,-9.4155,-17.391001,-15.395,13.333,-16.934999,-43.137001,-17.436001
-13.333,-20.889,-15.545,-23.188,-21.674999,-15.87,-21.462999,-13.591,-29.333,-23.188,-21.674999,-23.645,-17.225,-17.125,-15.103,-17.391001,-17.327,-5.8974,-7.4566,-23.528999,-17.436001
-7.673,-7.5556,-7.7398,-9.6618,-33.498001,-21.724001,-15.61,11.53,-25.431,-9.6618,-33.498001,-19.704,7.6555,5.624,3.8547,-5.7971,0.06441,5.641,-15.039,13.725,-9.7436
-11.447,-18.983999,-15.545,-28.986,-47.291,-25.625999,-25.365999,-7.7939,-31.285,-28.986,-47.291,-27.586,3.8278,1.8325,-1.8325,-7.7295,-3.8003,-0.12821,-13.144,-7.8431,-5.8974
-7.673,-11.365,-11.642,-30.917999,-35.467999,-8.065,-27.316999,-15.523,-29.333,-30.917999,-35.467999,-21.674999,9.5694,5.624,0.06319,-1.9324,1.9968,-0.12821,-9.3523,-21.569,-5.8974
-2.0126,-9.4603,-11.642,-34.783001,-33.498001,-19.771999,-31.219999,-13.591,-29.333,-34.783001,-33.498001,-19.704,7.6555,3.7283,1.9589,-3.8647,0.06441,3.7179,0.12638,-41.175999,-7.8205
-13.333,0.06349,-3.8374,-21.256001,-7.8818,-21.724001,7.8049,-23.253,-5.9187,-21.256001,-7.8818,-5.9113,13.397,15.103,1.9589,5.7971,7.7939,-17.436001,11.501,23.528999,1.7949
-9.5597,-1.8413,0.06504,-15.459,13.793,-17.820999,-1.9512,-9.7262,-0.06504,-15.459,13.793,-11.823,9.5694,13.207,3.8547,11.594,9.7262,-13.59,9.6051,31.372999,17.179001
1.761,-5.6508,2.0163,-27.052999,-25.615999,-4.1626,-11.707,-11.659,-33.236,-27.052999,-25.615999,-11.823,13.397,16.997999,5.7504,1.9324,9.7262,-0.12821,-15.039,-1.9608,-2.0513
-7.673,-15.175,-7.7398,-30.917999,-39.409,-10.016,-11.707,-23.253,-21.528,-30.917999,-39.409,-15.764,15.311,11.311,0.06319,-5.7971,3.9291,-9.7436,-18.830999,9.8039,-5.8974
-17.107,-22.794001,-19.447001,-28.986,-33.498001,-23.674999,-29.268,-9.7262,-23.48,-28.986,-33.498001,-21.674999,5.7416,3.7283,-9.4155,-11.594,-5.7327,-15.513,-9.3523,7.8431,-3.9744
-11.447,-15.175,-15.545,-1.9324,-3.9409,-17.820999,-21.462999,-13.591,-19.577,-1.9324,-3.9409,-13.793,1.9139,-0.06319,-5.624,-5.7971,-3.8003,-7.8205,2.0221,11.765,-2.0513
1.761,5.7778,0.06504,-19.323999,5.9113,1.6911,13.659,-1.9968,-7.8699,-19.323999,5.9113,0.0,3.8278,3.7283,3.8547,5.7971,3.9291,5.641,2.0221,5.8824,1.7949
20.629,15.302,13.724,-7.7295,-11.823,29.007999,15.61,-3.9291,-13.724,-7.7295,-11.823,15.764,11.483,11.311,15.229,13.527,13.591,13.333,-11.248,0.0,7.5641
9.3082,3.873,7.8699,3.8647,15.764,5.5935,11.707,3.8003,3.8374,3.8647,15.764,7.8818,24.879999,9.4155,15.229,5.7971,13.591,1.7949,7.7093,27.451,3.7179
-15.22,-11.365,-13.593,-7.7295,-3.9409,-19.771999,-5.8537,-1.9968,-15.675,-7.7295,-3.9409,-13.793,-17.225,-20.916,-11.311,-13.527,-11.53,-11.667,-9.3523,11.765,-21.282
7.4214,7.6825,9.8211,25.121,13.793,3.6423,17.561001,15.395,1.8862,25.121,13.793,11.823,5.7416,7.5197,11.438,5.7971,9.7262,9.4872,3.9179,29.412001,7.5641
11.195,5.7778,9.8211,7.7295,13.793,13.398,5.8537,1.868,9.6911,7.7295,13.793,13.793,13.397,7.5197,13.333,7.7295,11.659,11.41,13.397,23.528999,7.5641
1.761,-11.365,-5.7886,-3.8647,-7.8818,-2.2114,-9.7561,9.5974,-21.528,-3.8647,-7.8818,-1.9704,-7.6555,-13.333,1.9589,-13.527,-5.7327,13.333,-20.726999,13.725,-17.436001
-9.5597,-17.079,-13.593,-1.9324,-19.704,-8.065,-11.707,7.6651,-17.625999,-1.9324,-19.704,-9.8522,-13.397,-20.916,-3.7283,-23.188,-13.462,-2.0513,-26.414,7.8431,-25.128
11.195,0.06349,2.0163,11.594,7.8818,13.398,-7.8049,7.6651,5.7886,11.594,7.8818,3.9409,3.8278,-0.06319,13.333,0.0,7.7939,19.103001,-5.5608,11.765,1.7949
9.3082,-5.6508,0.06504,13.527,-3.9409,7.5447,-21.462999,17.327,-3.9675,13.527,-3.9409,-1.9704,9.5694,1.8325,15.229,0.0,9.7262,13.333,-1.7694,19.608,-2.0513
-0.12579,-7.5556,-5.7886,1.9324,-15.764,-0.26016,0.0,5.7327,-27.382,1.9324,-15.764,-3.9409,-3.8278,-7.6461,0.06319,-9.6618,-3.8003,3.7179,-7.4566,11.765,-9.7436
-2.0126,-13.27,-9.6911,-11.594,-11.823,-4.1626,-21.462999,-3.9291,-23.48,-11.594,-11.823,-15.764,0.0,-1.9589,-1.8325,-9.6618,-7.6651,5.641,-22.622,7.8431,-7.8205
13.082,0.06349,3.9675,11.594,-5.9113,11.447,-3.9024,15.395,-5.9187,11.594,-5.9113,1.9704,11.483,7.5197,11.438,3.8647,5.8615,13.333,-13.144,19.608,1.7949
1.761,-9.4603,-5.7886,13.527,-1.9704,3.6423,-3.9024,13.462,-27.382,13.527,-1.9704,-3.9409,-7.6555,-9.5419,-3.7283,-9.6618,-9.5974,9.4872,-13.144,3.9216,-3.9744
1.761,-3.746,-3.8374,1.9324,-7.8818,-4.1626,-13.659,5.7327,-2.0163,1.9324,-7.8818,-5.9113,7.6555,7.5197,0.06319,3.8647,-1.868,-3.9744,7.7093,11.765,9.4872
-0.12579,5.7778,2.0163,15.459,-11.823,-4.1626,0.0,-1.9968,1.8862,15.459,-11.823,0.0,5.7416,7.5197,0.06319,7.7295,1.9968,-0.12821,5.8136,9.8039,3.7179
-15.22,-15.175,-15.545,-19.323999,-11.823,-8.065,-13.659,-9.7262,-33.236,-19.323999,-11.823,-19.704,-21.052999,-22.812,-18.893999,-17.391001,-21.191999,-9.7436,-22.622,-3.9216,-17.436001
11.195,17.205999,17.625999,-5.7971,11.823,1.6911,7.8049,-0.06441,17.496,-5.7971,11.823,7.8818,19.139,16.997999,15.229,21.256001,17.455999,3.7179,28.562,17.646999,15.256
16.855,22.921,21.528,-1.9324,13.793,1.6911,13.659,1.868,31.153999,-1.9324,13.793,11.823,22.966999,24.580999,19.021,21.256001,23.253,7.5641,26.667,1.9608,19.103001
1.761,9.5873,5.9187,23.188,11.823,-6.1138,7.8049,13.462,-3.9675,23.188,11.823,5.9113,5.7416,5.624,3.8547,3.8647,5.8615,-0.12821,-3.6651,3.9216,9.4872
-5.7862,0.06349,-1.8862,0.0,-3.9409,-0.26016,0.0,-9.7262,9.6911,0.0,-3.9409,-3.9409,-11.483,-3.8547,-5.624,0.0,-3.8003,-13.59,9.6051,-3.9216,1.7949
-3.8994,-3.746,-1.8862,0.0,-17.733999,-11.967,-3.9024,-1.9968,-9.8211,0.0,-17.733999,-5.9113,-1.9139,-5.7504,-1.8325,-3.8647,-1.868,-2.0513,-15.039,-1.9608,-3.9744
9.3082,11.492,7.8699,5.7971,-23.645,11.447,0.0,15.395,-7.8699,5.7971,-23.645,7.8818,9.5694,5.624,7.6461,13.527,7.7939,3.7179,-3.6651,-5.8824,5.641
3.6478,13.397,7.8699,-1.9324,23.645,7.5447,21.462999,-0.06441,-0.06504,-1.9324,23.645,9.8522,19.139,20.790001,9.5419,17.391001,15.523,-3.9744,20.979,15.686,19.103001
-15.22,-5.6508,-15.545,-9.6618,-13.793,-19.771999,7.8049,-15.523,-19.577,-9.6618,-13.793,-11.823,3.8278,1.8325,-5.624,-1.9324,-1.868,-15.513,-5.5608,7.8431,-3.9744
-2.0126,1.9683,-3.8374,-3.8647,-1.9704,-4.1626,-1.9512,-1.9968,1.8862,-3.8647,-1.9704,-3.9409,5.7416,7.5197,1.9589,9.6618,5.8615,1.7949,-1.7694,1.9608,9.4872
-5.7862,3.873,-1.8862,9.6618,13.793,-6.1138,-1.9512,15.395,-2.0163,9.6618,13.793,-1.9704,7.6555,11.311,1.9589,13.527,7.7939,1.7949,5.8136,5.8824,13.333
-20.881001,-17.079,-23.35,-9.6618,-15.764,-11.967,-27.316999,-42.576,-25.431,-9.6618,-15.764,-21.674999,-5.7416,-1.9589,-13.207,-7.7295,-7.6651,-19.358999,-16.934999,-1.9608,-7.8205
-11.447,-11.365,-15.545,-46.376999,-72.905998,-4.1626,-35.122002,-3.9291,-23.48,-46.376999,-72.905998,-15.764,7.6555,5.624,-5.624,-5.7971,-1.868,-3.9744,-13.144,-5.8824,3.7179
1.761,3.873,-1.8862,1.9324,9.8522,-4.1626,7.8049,3.8003,-13.724,1.9324,9.8522,-1.9704,15.311,7.5197,7.6461,11.594,7.7939,3.7179,15.292,7.8431,7.5641
-2.0126,-5.6508,-5.7886,1.9324,17.733999,-11.967,-15.61,-15.523,-7.8699,1.9324,17.733999,-9.8522,-7.6555,3.7283,-1.8325,3.8647,0.06441,-3.9744,7.7093,-17.646999,7.5641
-2.0126,-3.746,-1.8862,-15.459,-17.733999,-6.1138,-3.9024,1.868,-27.382,-15.459,-17.733999,-3.9409,15.311,15.103,7.6461,3.8647,7.7939,-0.12821,-20.726999,13.725,15.256
3.6478,-1.8413,2.0163,-5.7971,-13.793,5.5935,-1.9512,-7.7939,-13.724,-5.7971,-13.793,-1.9704,24.879999,20.790001,13.333,7.7295,11.659,5.641,7.7093,1.9608,7.5641
5.5346,1.9683,5.9187,-5.7971,-13.793,-2.2114,-5.8537,-9.7262,-17.625999,-5.7971,-13.793,-1.9704,13.397,24.580999,9.5419,11.594,11.659,3.7179,-1.7694,-33.333,21.025999
-7.673,-3.746,-3.8374,-19.323999,-29.556999,-11.967,-33.171001,-23.253,-21.528,-19.323999,-29.556999,-9.8522,5.7416,5.624,-3.7283,3.8647,0.06441,-17.436001,-11.248,-5.8824,-3.9744
-7.673,-9.4603,-5.7886,-21.256001,-37.438,-10.016,-21.462999,-15.523,-31.285,-21.256001,-37.438,-11.823,19.139,16.997999,1.9589,0.0,3.9291,-11.667,-11.248,15.686,9.4872
-20.881001,-26.603001,-21.398001,-36.715,-29.556999,-27.577,-25.365999,-29.049999,-52.748001,-36.715,-29.556999,-27.586,9.5694,11.311,-7.5197,-13.527,-7.6651,-19.358999,-18.830999,9.8039,3.7179
-22.767,-30.413,-27.252001,-44.444,-47.291,-31.48,-44.877998,-36.778999,-52.748001,-44.444,-47.291,-39.409,13.397,1.8325,-11.311,-17.391001,-13.462,-23.205,-32.101002,0.0,-9.7436
-13.333,-24.698,-17.496,-50.242001,-74.876999,-17.820999,-56.584999,-36.778999,-60.553001,-50.242001,-74.876999,-33.498001,13.397,9.4155,-5.624,-15.459,-5.7327,-5.8974,-37.787998,0.0,-7.8205
-20.881001,-17.079,-19.447001,-46.376999,-59.112999,-27.577,-37.073002,-44.508999,-50.797001,-46.376999,-59.112999,-33.498001,9.5694,3.7283,-11.311,-5.7971,-9.5974,-15.513,-22.622,-17.646999,-5.8974
-22.767,-24.698,-25.301001,-40.580002,-47.291,-33.431,-35.122002,-34.847,-41.041,-40.580002,-47.291,-33.498001,-3.8278,1.8325,-20.790001,-19.323999,-19.259001,-9.7436,-24.518,-19.608,-9.7436
-18.993999,-20.889,-19.447001,-30.917999,-47.291,-21.724001,-40.976002,-21.32,-41.041,-30.917999,-47.291,-29.556999,17.225,16.997999,-9.4155,-11.594,-7.6651,-13.59,-16.934999,13.725,-3.9744
-17.107,-28.507999,-21.398001,-44.444,-49.261002,-27.577,-31.219999,-27.118,-42.992001,-44.444,-49.261002,-31.527,11.483,7.5197,-11.311,-17.391001,-11.53,-7.8205,-24.518,3.9216,-3.9744
-26.541,-32.317001,-25.301001,-30.917999,-35.467999,-37.333,-39.023998,-30.982,-37.138,-30.917999,-35.467999,-35.467999,1.9139,5.624,-16.997999,-21.256001,-17.327,-11.667,-20.726999,-9.8039,-3.9744
-26.541,-34.222,-29.202999,-30.917999,-43.349998,-33.431,-37.073002,-27.118,-41.041,-30.917999,-43.349998,-37.438,-5.7416,-3.8547,-20.790001,-23.188,-23.124001,-15.513,-20.726999,-1.9608,-5.8974
-28.427999,-38.032001,-35.056999,-54.105999,-63.054001,-35.382,-54.633999,-29.049999,-46.894001,-54.105999,-63.054001,-41.379002,-1.9139,-11.438,-22.686001,-30.917999,-30.853001,-7.8205,-30.205,-3.9216,-15.513
-26.541,-36.126999,-37.007999,-52.174,-59.112999,-37.333,-40.976002,-25.184999,-44.943001,-52.174,-59.112999,-39.409,-11.483,-15.229,-22.686001,-28.986,-30.853001,-11.667,-30.205,0.0,-17.436001
-7.673,-13.27,-13.593,-5.7971,-19.704,-2.2114,-17.561001,-17.455999,-15.675,-5.7971,-19.704,-13.793,-3.8278,-1.9589,-9.4155,-11.594,-17.327,-2.0513,0.12638,7.8431,-5.8974
-0.12579,-5.6508,-5.7886,-1.9324,-5.9113,-4.1626,-1.9512,-3.9291,-7.8699,-1.9324,-5.9113,-5.9113,5.7416,9.4155,-3.7283,-3.8647,-11.53,1.7949,-1.7694,0.0,1.7949
-17.107,-28.507999,-25.301001,-27.052999,-29.556999,-31.48,-27.316999,-23.253,-23.48,-27.052999,-29.556999,-27.586,-3.8278,-17.125,-18.893999,-28.986,-28.921,-2.0513,-24.518,1.9608,-21.282
-13.333,-17.079,-17.496,-38.646999,-19.704,-17.820999,-15.61,-21.32,-5.9187,-38.646999,-19.704,-19.704,-13.397,-17.125,-20.790001,-21.256001,-28.921,-9.7436,-1.7694,-23.528999,-15.513
5.5346,3.873,3.9675,7.7295,3.9409,11.447,-1.9512,5.7327,15.545,7.7295,3.9409,9.8522,5.7416,3.7283,-5.624,-3.8647,-11.53,3.7179,-1.7694,-1.9608,7.5641
-9.5597,-1.8413,-5.7886,7.7295,3.9409,-13.919,-7.8049,1.868,21.398001,7.7295,3.9409,1.9704,-9.5694,-7.6461,-15.103,-11.594,-19.259001,-5.8974,3.9179,-5.8824,-3.9744
-17.107,-7.5556,-15.545,-11.594,-5.9113,-15.87,3.9024,-19.388,3.8374,-11.594,-5.9113,-9.8522,-22.966999,-17.125,-22.686001,-15.459,-23.124001,-9.7436,17.188,-21.569,-7.8205
-0.12579,9.5873,5.9187,9.6618,19.704,-0.26016,19.511999,1.868,21.398001,9.6618,19.704,7.8818,9.5694,7.5197,5.7504,5.7971,3.9291,1.7949,11.501,11.765,9.4872
13.082,22.921,19.577,32.849998,45.32,7.5447,35.122002,17.327,38.959,32.849998,45.32,21.674999,7.6555,7.5197,17.125,17.391001,15.523,5.641,28.562,21.569,17.179001
3.6478,0.06349,0.06504,7.7295,23.645,5.5935,0.0,-3.9291,17.496,7.7295,23.645,1.9704,-17.225,-15.229,5.7504,-3.8647,1.9968,1.7949,3.9179,-1.9608,-3.9744
13.082,15.302,13.724,19.323999,9.8522,9.4959,7.8049,-5.8615,13.593,19.323999,9.8522,11.823,7.6555,3.7283,15.229,9.6618,17.455999,5.641,7.7093,11.765,1.7949
22.516001,30.540001,27.382,30.917999,29.556999,36.813,35.122002,15.395,35.056999,30.917999,29.556999,31.527,-3.8278,-3.8547,20.916,21.256001,27.118,9.4872,15.292,13.725,-0.12821
30.063,34.348999,29.333,32.849998,45.32,27.056999,54.633999,30.853001,46.764,32.849998,45.32,33.498001,0.0,-3.8547,28.499001,23.188,30.982,24.872,22.875,9.8039,7.5641
30.063,38.159,37.138,44.444,47.291,34.862,46.828999,30.853001,66.276001,44.444,47.291,35.467999,7.6555,11.311,30.395,32.849998,36.778999,21.025999,32.354,-3.9216,22.948999
35.723,43.873001,42.992001,38.646999,55.172001,44.618,46.828999,44.380001,62.374001,38.646999,55.172001,45.32,32.535999,26.476999,39.874001,36.715,44.508999,24.872,26.667,21.569,28.718
20.629,22.921,25.431,56.039001,72.905998,32.910999,44.877998,19.259001,50.667,56.039001,72.905998,35.467999,3.8278,3.7283,19.021,17.391001,23.253,13.333,15.292,25.49,9.4872
13.082,19.111,17.625999,61.835999,57.143002,29.007999,35.122002,34.717999,21.398001,61.835999,57.143002,29.556999,-13.397,-15.229,11.438,9.6618,11.659,9.4872,-1.7694,13.725,-5.8974
9.3082,19.111,17.625999,36.715,47.291,15.35,39.023998,44.380001,33.105999,36.715,47.291,27.586,-11.483,-15.229,5.7504,11.594,9.7262,13.333,13.397,1.9608,1.7949
26.289,32.444,31.285,50.242001,45.32,38.764,44.877998,30.853001,40.910999,50.242001,45.32,37.438,-1.9139,-1.9589,15.229,19.323999,19.388,22.948999,24.771,-3.9216,1.7949
16.855,22.921,21.528,30.917999,35.467999,19.252001,35.122002,17.327,29.202999,30.917999,35.467999,25.615999,-21.052999,-15.229,3.8547,7.7295,7.7939,15.256,7.7093,-39.216,-17.436001
30.063,34.348999,33.236,54.105999,57.143002,36.813,48.779999,52.110001,60.423,54.105999,57.143002,43.349998,-7.6555,7.5197,17.125,23.188,23.253,21.025999,22.875,-33.333,13.333
11.195,21.016001,21.528,44.444,45.32,19.252001,23.415001,38.583,35.056999,44.444,45.32,25.615999,7.6555,9.4155,7.6461,15.459,15.523,5.641,19.084,19.608,15.256
11.195,17.205999,17.625999,28.986,31.527,13.398,17.561001,21.191999,25.301001,28.986,31.527,15.764,-7.6555,-7.6461,1.9589,9.6618,5.8615,9.4872,9.6051,-9.8039,-7.8205
30.063,45.778,39.089001,40.580002,39.409,29.007999,35.122002,26.989,42.862,40.580002,39.409,39.409,0.0,-3.8547,17.125,42.512001,21.32,22.948999,49.415001,-17.646999,5.641
11.195,7.6825,19.577,34.783001,31.527,13.398,1.9512,26.989,27.252001,34.783001,31.527,21.674999,11.483,7.5197,9.5419,0.0,11.659,5.641,-22.622,13.725,-13.59
24.403,1.9683,17.625999,34.783001,33.498001,21.202999,11.707,25.056,21.398001,34.783001,33.498001,23.645,-15.311,-1.9589,7.6461,-5.7971,5.8615,28.718,2.0221,-27.451,1.7949
26.289,26.73,29.333,0.0,-1.9704,17.301001,15.61,15.395,5.7886,0.0,-1.9704,25.615999,3.8278,9.4155,17.125,28.986,19.388,21.025999,28.562,-29.412001,9.4872
9.3082,11.492,19.577,28.986,27.586,11.447,19.511999,13.462,25.301001,28.986,27.586,21.674999,0.0,-0.06319,-1.8325,1.9324,5.8615,-0.12821,2.0221,1.9608,-15.513
20.629,22.921,21.528,32.849998,37.438,25.106001,27.316999,21.191999,31.153999,32.849998,37.438,25.615999,-7.6555,-7.6461,0.06319,17.391001,0.06441,21.025999,38.041,-70.587997,7.5641
-7.673,5.7778,3.9675,5.7971,3.9409,-2.2114,13.659,-9.7262,25.301001,5.7971,3.9409,9.8522,-19.139,-9.5419,-18.893999,-7.7295,-13.462,-13.59,-20.726999,-5.8824,-25.128
1.761,-11.365,-3.8374,-1.9324,7.8818,-6.1138,-13.659,-9.7262,11.642,-1.9324,7.8818,-1.9704,-11.483,-13.333,-11.311,-19.323999,-15.395,11.41,-20.726999,-19.608,-5.8974
-0.12579,-3.746,2.0163,-11.594,13.793,-0.26016,0.0,-13.591,19.447001,-11.594,13.793,1.9704,5.7416,-1.9589,-5.624,-5.7971,-7.6651,-2.0513,5.8136,-13.725,-0.12821
13.082,15.302,17.625999,38.646999,59.112999,23.153999,37.073002,5.7327,42.862,38.646999,59.112999,25.615999,5.7416,3.7283,0.06319,1.9324,0.06441,1.7949,22.875,5.8824,-17.436001
3.6478,-1.8413,0.06504,46.376999,41.379002,23.153999,15.61,-21.32,17.496,46.376999,41.379002,17.733999,-7.6555,-3.8547,-9.4155,-9.6618,-11.53,-7.8205,11.501,9.8039,13.333
-0.12579,-5.6508,-7.7398,3.8647,-15.764,15.35,11.707,-0.06441,19.447001,3.8647,-15.764,1.9704,-13.397,-15.229,-7.5197,-17.391001,-13.462,15.256,-3.6651,-3.9216,-13.59
13.082,22.921,13.724,15.459,29.556999,9.4959,17.561001,25.056,38.959,15.459,29.556999,17.733999,-1.9139,-1.9589,7.6461,15.459,5.8615,15.256,28.562,0.0,13.333
-2.0126,5.7778,3.9675,7.7295,19.704,1.6911,25.365999,-13.591,23.35,7.7295,19.704,9.8522,-13.397,-13.333,-9.4155,-9.6618,-7.6651,-11.667,-5.5608,-7.8431,-9.7436
-2.0126,1.9683,2.0163,0.0,11.823,5.5935,17.561001,-9.7262,11.642,0.0,11.823,7.8818,-5.7416,-11.438,-7.5197,-9.6618,-9.5974,-15.513,-1.7694,23.528999,-7.8205
20.629,28.635,21.528,17.391001,9.8522,30.959,11.707,11.53,37.007999,17.391001,9.8522,27.586,-1.9139,-3.8547,9.5419,11.594,5.8615,17.179001,-5.5608,-21.569,-3.9744
13.082,15.302,13.724,17.391001,21.674999,15.35,40.976002,30.853001,40.910999,17.391001,21.674999,19.704,3.8278,1.8325,7.6461,1.9324,1.9968,9.4872,17.188,9.8039,3.7179
13.082,0.06349,9.8211,17.391001,39.409,21.202999,17.561001,13.462,37.007999,17.391001,39.409,17.733999,-1.9139,-5.7504,1.9589,-5.7971,-3.8003,3.7179,19.084,41.175999,3.7179
14.969,30.540001,21.528,27.052999,35.467999,21.202999,48.779999,17.327,40.910999,27.052999,35.467999,31.527,-7.6555,-11.438,5.7504,3.8647,0.06441,5.641,-7.4566,9.8039,-11.667
5.5346,13.397,11.772,28.986,23.645,19.252001,25.365999,5.7327,17.496,28.986,23.645,21.674999,-11.483,-7.6461,-1.8325,0.0,-1.868,1.7949,26.667,11.765,1.7949
5.5346,21.016001,11.772,5.7971,27.586,13.398,31.219999,23.124001,48.715,5.7971,27.586,17.733999,3.8278,3.7283,5.7504,11.594,9.7262,9.4872,22.875,11.765,11.41
7.4214,38.159,11.772,25.121,45.32,9.4959,64.389999,3.8003,-3.9675,25.121,45.32,21.674999,3.8278,-0.06319,1.9589,7.7295,7.7939,-3.9744,-5.5608,5.8824,-0.12821
-13.333,-9.4603,-9.6911,7.7295,-11.823,-15.87,-5.8537,-9.7262,27.252001,7.7295,-11.823,-9.8522,-3.8278,-5.7504,-13.207,-11.594,-9.5974,-17.436001,26.667,0.0,-0.12821
-9.5597,-11.365,-7.7398,-7.7295,9.8522,-2.2114,-19.511999,-3.9291,42.862,-7.7295,9.8522,-9.8522,-3.8278,-3.8547,-13.207,-7.7295,-11.53,-15.513,17.188,1.9608,1.7949
5.5346,21.016001,13.724,17.391001,7.8818,11.447,31.219999,11.53,19.447001,17.391001,7.8818,15.764,5.7416,11.311,0.06319,9.6618,5.8615,-3.9744,24.771,1.9608,17.179001
3.6478,28.635,13.724,17.391001,21.674999,13.398,48.779999,3.8003,-3.9675,17.391001,21.674999,25.615999,3.8278,5.624,0.06319,15.459,5.8615,-3.9744,20.979,-3.9216,9.4872
-17.107,-1.8413,-9.6911,3.8647,17.733999,-17.820999,-9.7561,11.53,35.056999,3.8647,17.733999,-3.9409,-13.397,1.8325,-20.790001,-3.8647,-13.462,-13.59,5.8136,-11.765,11.41
-9.5597,-1.8413,-1.8862,21.256001,13.793,-6.1138,-27.316999,13.462,42.862,21.256001,13.793,5.9113,-9.5694,-0.06319,-15.103,0.0,-9.5974,-7.8205,36.145,-9.8039,13.333
-22.767,-18.983999,-19.447001,-7.7295,-11.823,-17.820999,-25.365999,-15.523,1.8862,-7.7295,-11.823,-13.793,-22.966999,-15.229,-28.372999,-17.391001,-26.989,-23.205,17.188,-11.765,-2.0513
-18.993999,-11.365,-15.545,-46.376999,-7.8818,-21.724001,-1.9512,-9.7262,13.593,-46.376999,-7.8818,-15.764,-7.6555,-3.8547,-18.893999,-7.7295,-21.191999,-9.7436,-7.4566,-1.9608,7.5641
-20.881001,-15.175,-19.447001,-28.986,-31.527,-33.431,-23.415001,-19.388,-13.724,-28.986,-31.527,-23.645,7.6555,3.7283,-16.997999,-5.7971,-21.191999,-11.667,20.979,7.8431,13.333
-18.993999,-11.365,-23.35,0.0,-35.467999,-25.625999,-5.8537,-23.253,-17.625999,0.0,-35.467999,-19.704,1.9139,-0.06319,-16.997999,-9.6618,-25.056,-9.7436,0.12638,7.8431,1.7949
-26.541,-34.222,-38.959,-36.715,-35.467999,-27.577,-44.877998,-27.118,-33.236,-36.715,-35.467999,-37.438,-9.5694,-11.438,-26.476999,-25.121,-38.583,-13.59,-15.039,-3.9216,-7.8205
-37.862,-30.413,-40.910999,-65.699997,-66.995003,-41.236,-52.682999,-29.049999,-41.041,-65.699997,-66.995003,-43.349998,1.9139,-3.8547,-28.372999,-21.256001,-38.583,-25.128,-24.518,3.9216,1.7949
-24.653999,-28.507999,-29.202999,-28.986,-35.467999,-35.382,-37.073002,-11.659,-33.236,-28.986,-35.467999,-33.498001,-11.483,-3.8547,-22.686001,-15.459,-28.921,-9.7436,-15.039,-3.9216,-3.9744
-37.862,-41.841,-42.862,-59.903,-55.172001,-49.041,-46.828999,-30.982,-52.748001,-59.903,-55.172001,-49.261002,-15.311,-17.125,-22.686001,-30.917999,-32.785999,-17.436001,-24.518,0.0,-15.513
-15.22,-26.603001,-29.202999,-32.849998,-57.143002,-17.820999,-54.633999,-25.184999,-37.138,-32.849998,-57.143002,-37.438,15.311,7.5197,0.06319,-9.6618,-7.6651,-7.8205,-22.622,15.686,3.7179
-3.8994,-11.365,-11.642,-32.849998,-35.467999,-15.87,-39.023998,-7.7939,-17.625999,-32.849998,-35.467999,-25.615999,24.879999,20.790001,17.125,9.6618,13.591,1.7949,0.12638,29.412001,17.179001
-9.5597,-17.079,-11.642,-34.783001,-66.995003,-27.577,-23.415001,-15.523,-48.846001,-34.783001,-66.995003,-29.556999,15.311,15.103,15.229,5.7971,15.523,-3.9744,-5.5608,23.528999,11.41
-3.8994,-17.079,-3.8374,-25.121,-35.467999,-21.724001,-52.682999,-17.455999,-33.236,-25.121,-35.467999,-27.586,5.7416,3.7283,13.333,3.8647,13.591,-0.12821,-13.144,15.686,-0.12821
3.6478,-5.6508,2.0163,-36.715,-37.438,1.6911,-19.511999,-36.778999,-35.187,-36.715,-37.438,-13.793,9.5694,1.8325,15.229,3.8647,17.455999,-2.0513,-28.309999,19.608,-9.7436
-2.0126,-17.079,-11.642,-21.256001,-35.467999,-4.1626,-33.171001,-7.7939,-29.333,-21.256001,-35.467999,-25.615999,9.5694,1.8325,11.438,0.0,9.7262,-5.8974,-20.726999,17.646999,1.7949
-11.447,-30.413,-21.398001,-42.512001,-39.409,-31.48,-56.584999,-3.9291,-37.138,-42.512001,-39.409,-37.438,5.7416,-3.8547,5.7504,-11.594,1.9968,-2.0513,-30.205,11.765,-15.513
5.5346,-13.27,-3.8374,-25.121,-68.966003,-11.967,-23.415001,-23.253,-44.943001,-25.121,-68.966003,-15.764,5.7416,3.7283,15.229,-3.8647,11.659,11.41,-24.518,-21.569,-5.8974
5.5346,-13.27,2.0163,-23.188,-25.615999,3.6423,-23.415001,-13.591,-31.285,-23.188,-25.615999,-11.823,15.311,9.4155,13.333,-1.9324,13.591,-5.8974,-11.248,17.646999,-2.0513
9.3082,1.9683,9.8211,-17.391001,-17.733999,-0.26016,-7.8049,-7.7939,-11.772,-17.391001,-17.733999,0.0,24.879999,20.790001,19.021,11.594,21.32,-2.0513,5.8136,31.372999,9.4872
7.4214,5.7778,7.8699,-11.594,-27.586,3.6423,-19.511999,-25.184999,-3.9675,-11.594,-27.586,-3.9409,7.6555,11.311,13.333,11.594,17.455999,-3.9744,11.501,5.8824,11.41
1.761,0.06349,2.0163,-13.527,-3.9409,-8.065,-3.9024,-9.7262,-29.333,-13.527,-3.9409,-7.8818,3.8278,7.5197,7.6461,7.7295,13.591,-13.59,-9.3523,5.8824,9.4872
-5.7862,3.873,2.0163,-11.594,-17.733999,-21.724001,0.0,-9.7262,-21.528,-11.594,-17.733999,-7.8818,11.483,13.207,5.7504,9.6618,15.523,-13.59,-9.3523,5.8824,7.5641
1.761,1.9683,5.9187,-17.391001,-9.8522,-6.1138,-1.9512,-21.32,-27.382,-17.391001,-9.8522,-3.9409,1.9139,3.7283,5.7504,5.7971,11.659,-7.8205,-3.6651,3.9216,-2.0513
9.3082,7.6825,13.724,-3.8647,-3.9409,11.447,11.707,-9.7262,-0.06504,-3.8647,-3.9409,5.9113,13.397,7.5197,13.333,11.594,17.455999,-5.8974,3.9179,11.765,1.7949
13.082,22.921,21.528,1.9324,0.0,9.4959,17.561001,5.7327,7.7398,1.9324,0.0,15.764,24.879999,22.686001,17.125,21.256001,23.253,1.7949,20.979,13.725,21.025999
-7.673,5.7778,2.0163,1.9324,3.9409,-15.87,0.0,1.868,-9.8211,1.9324,3.9409,0.0,3.8278,7.5197,-3.7283,5.7971,3.9291,-11.667,5.8136,-3.9216,7.5641
-7.673,7.6825,-1.8862,9.6618,5.9113,-17.820999,5.8537,-0.06441,15.545,9.6618,5.9113,1.9704,-7.6555,-0.06319,-5.624,5.7971,1.9968,-11.667,9.6051,-5.8824,5.641
-11.447,1.9683,-5.7886,7.7295,9.8522,-11.967,-1.9512,-11.659,-5.9187,7.7295,9.8522,-1.9704,-5.7416,-0.06319,-7.5197,3.8647,-1.868,-19.358999,3.9179,-7.8431,5.641
-7.673,0.06349,-3.8374,9.6618,5.9113,-15.87,-3.9024,-0.06441,-0.06504,9.6618,5.9113,-1.9704,7.6555,5.624,-3.7283,1.9324,1.9968,-7.8205,3.9179,-3.9216,5.641
-0.12579,7.6825,5.9187,21.256001,17.733999,-2.2114,7.8049,-1.9968,-3.9675,21.256001,17.733999,5.9113,1.9139,5.624,0.06319,5.7971,3.9291,-2.0513,-1.7694,3.9216,5.641
-3.8994,1.9683,0.06504,30.917999,15.764,-6.1138,1.9512,-3.9291,-2.0163,30.917999,15.764,1.9704,-13.397,-7.6461,-7.5197,0.0,-7.6651,-2.0513,-3.6651,-9.8039,-5.8974
-3.8994,-3.746,-3.8374,21.256001,15.764,-4.1626,-3.9024,-3.9291,1.8862,21.256001,15.764,1.9704,-3.8278,-7.6461,-9.4155,-5.7971,-7.6651,-3.9744,5.8136,-13.725,-7.8205
14.969,9.5873,7.8699,42.512001,41.379002,32.910999,15.61,9.5974,1.8862,42.512001,41.379002,21.674999,15.311,13.207,3.8547,3.8647,3.9291,3.7179,2.0221,0.0,-5.8974
11.195,9.5873,3.9675,36.715,11.823,23.153999,21.462999,21.191999,-2.0163,36.715,11.823,19.704,-1.9139,-3.8547,-3.7283,0.0,-5.7327,22.948999,3.9179,-64.706001,-19.358999
-0.12579,5.7778,2.0163,56.039001,51.231998,3.6423,23.415001,28.921,11.642,56.039001,51.231998,17.733999,-5.7416,-5.7504,-9.4155,-5.7971,-7.6651,1.7949,-3.6651,-41.175999,-32.820999
-5.7862,0.06349,-1.8862,57.971001,65.025002,-2.2114,1.9512,17.327,7.7398,57.971001,65.025002,9.8522,-15.311,-11.438,-18.893999,-13.527,-15.395,7.5641,-20.726999,-41.175999,-21.282
-0.12579,-5.6508,0.06504,19.323999,17.733999,15.35,-1.9512,21.191999,-7.8699,19.323999,17.733999,7.8818,-11.483,-5.7504,-11.311,-17.391001,-11.53,11.41,-22.622,-60.784,-5.8974
31.950001,11.492,11.772,48.308998,41.379002,32.910999,17.561001,25.056,5.7886,48.308998,41.379002,29.556999,-5.7416,-0.06319,11.438,7.7295,-1.868,51.794998,3.9179,-105.879997,-9.7436
1.761,13.397,3.9675,50.242001,47.291,13.398,25.365999,23.124001,21.398001,50.242001,47.291,17.733999,5.7416,7.5197,-3.7283,-1.9324,-1.868,1.7949,11.501,-7.8431,-30.896999
-13.333,-9.4603,-9.6911,9.6618,5.9113,-0.26016,1.9512,9.5974,-2.0163,9.6618,5.9113,0.0,0.0,-3.8547,-18.893999,-17.391001,-15.395,-28.974001,5.8136,17.646999,-17.436001
11.195,-1.8413,5.9187,44.444,29.556999,13.398,1.9512,21.191999,13.593,44.444,29.556999,11.823,17.225,13.207,9.5419,-7.7295,3.9291,9.4872,-35.893002,9.8039,5.641
22.516001,17.205999,19.577,32.849998,47.291,30.959,29.268,21.191999,15.545,32.849998,47.291,25.615999,9.5694,11.311,15.229,11.594,11.659,17.179001,9.6051,-29.412001,3.7179
3.6478,0.06349,3.9675,19.323999,21.674999,17.301001,7.8049,28.921,3.8374,19.323999,21.674999,11.823,0.0,1.8325,-3.7283,-9.6618,-1.868,-2.0513,5.8136,0.0,-3.9744
-2.0126,0.06349,2.0163,23.188,5.9113,9.4959,11.707,7.6651,3.8374,23.188,5.9113,9.8522,-1.9139,1.8325,-3.7283,-1.9324,-1.868,-9.7436,-3.6651,37.255001,7.5641
