C3,C4,Cz,F1,F2,F3,F4,F7,F8,Fp1,Fp2,Fz,O1,O2,P3,P4,Pz,T3,T4,T5,T6
-11.438,-9.4603,-18.472,-15.61,-11.823,-14.829,-15.459,-15.599,-9.8211,-15.61,-11.823,-19.704,16.190001,25.650999,-2.7937,0.96154,-0.90177,-11.723,-3.6651,9.8522,18.141001
-11.438,-8.5079,-14.569,-11.707,-8.867,-20.683001,-14.493,-8.8026,-9.8211,-11.707,-8.867,-18.719,20.0,27.556,0.06349,2.8846,2.963,-14.622,-11.248,14.778,19.103001
-3.8547,-4.6984,-8.7154,-9.7561,-2.9557,-9.9512,-10.628,-13.657,-6.8943,-9.7561,-2.9557,-12.808,22.857,30.413,4.8254,6.7308,6.8277,-10.757,-1.7694,10.837,20.063999
-1.0111,0.06349,-4.813,-9.7561,-1.9704,-2.1463,-6.7633,-19.482,-2.9919,-9.7561,-1.9704,-8.867,24.761999,33.27,8.6349,11.538,11.659,-9.7907,1.0742,8.867,25.833
-8.594,-1.8413,-5.7886,-13.659,-6.8966,-11.902,-4.8309,-13.657,-4.9431,-13.659,-6.8966,-10.837,20.952,28.507999,4.8254,7.6923,9.7262,-18.486,-2.7172,9.8522,20.063999
-4.8025,2.9206,-2.8618,-5.8537,-5.9113,-5.0732,-2.8986,-18.511,-3.9675,-5.8537,-5.9113,-5.9113,17.143,22.794001,4.8254,7.6923,9.7262,-16.554001,3.9179,7.8818,13.333
-1.9589,3.873,2.9919,-0.97561,0.98522,-8.0,1.9324,-8.8026,-2.0163,-0.97561,0.98522,-1.9704,16.190001,18.983999,8.6349,9.6154,12.625,-7.8583,-6.5087,8.867,9.4872
5.624,4.8254,9.8211,-1.9512,6.8966,0.78049,7.7295,-2.0065,0.91057,-1.9512,6.8966,4.9261,15.238,13.27,12.444,11.538,15.523,-6.8921,-3.6651,5.9113,6.6026
16.997999,13.397,20.552999,5.8537,16.749001,15.415,19.323999,-0.06472,6.7642,5.8537,16.749001,16.749001,17.143,11.365,20.063,17.308001,22.287001,0.83736,-0.82148,9.8522,7.5641
20.790001,14.349,24.455,11.707,10.837,22.243999,20.290001,-3.9482,7.7398,11.707,10.837,20.690001,13.333,3.746,20.063,14.423,20.354,4.7021,2.97,7.8818,0.83333
14.155,14.349,20.552999,12.683,10.837,14.439,17.391001,4.7896,7.7398,12.683,10.837,17.733999,4.7619,-6.7302,14.349,8.6538,13.591,-1.095,4.8657,1.9704,-9.7436
10.363,14.349,19.577,11.707,16.749001,7.6098,14.493,14.498,11.642,11.707,16.749001,15.764,-0.95238,-13.397,10.54,6.7308,9.7262,1.8035,6.7615,-5.9113,-11.667
8.4676,11.492,16.65,7.8049,9.8522,6.6341,12.56,7.7023,10.667,7.8049,9.8522,13.793,-9.5238,-22.921,3.873,2.8846,3.9291,-3.0274,2.97,-12.808,-14.551
14.155,15.302,20.552999,11.707,8.867,16.389999,18.357,5.7605,10.667,11.707,8.867,17.733999,-11.429,-23.872999,5.7778,4.8077,2.963,2.7697,5.8136,-7.8818,-11.667
15.103,16.254,21.528,12.683,8.867,22.243999,16.424999,2.8479,9.6911,12.683,8.867,17.733999,-12.381,-21.016001,5.7778,7.6923,1.9968,-0.12882,1.0742,-7.8818,-3.9744
11.311,9.5873,14.699,2.9268,7.8818,9.561,6.7633,6.7314,6.7642,2.9268,7.8818,10.837,-17.143,-23.872999,0.06349,0.96154,-5.7327,-0.12882,6.7615,-12.808,-7.8205
9.4155,9.5873,12.748,3.9024,4.9261,4.6829,10.628,9.644,8.7154,3.9024,4.9261,8.867,-16.190001,-15.302,-0.88889,2.8846,-6.6989,5.6683,16.24,-12.808,-2.0513
3.7283,7.6825,9.8211,0.0,0.98522,3.7073,9.6618,-1.0356,4.813,0.0,0.98522,5.9113,-15.238,-5.7778,-3.746,5.7692,-5.7327,1.8035,11.501,-8.867,7.5641
1.8325,5.7778,5.9187,-4.878,-4.9261,3.7073,2.8986,-7.8317,-1.0407,-4.878,-4.9261,1.9704,-11.429,0.88889,-3.746,5.7692,-5.7327,-3.0274,7.7093,-5.9113,10.449
-2.9068,1.0159,0.06504,-7.8049,-5.9113,-4.0976,-6.7633,-4.9191,-5.9187,-7.8049,-5.9113,-3.9409,-8.5714,6.6032,-5.6508,3.8462,-5.7327,-4.9597,-5.5608,-4.9261,11.41
-6.6983,-4.6984,-1.8862,-11.707,-9.8522,-13.854,-6.7633,-2.9773,-7.8699,-11.707,-9.8522,-9.8522,-2.8571,12.317,-3.746,2.8846,-3.8003,-4.9597,-8.4044,0.98522,12.372
-1.9589,-3.746,0.06504,-9.7561,-12.808,-10.927,0.0,-4.9191,-5.9187,-9.7561,-12.808,-8.867,4.7619,17.079,1.0159,5.7692,1.9968,-1.095,-5.5608,5.9113,16.218
-5.7504,-4.6984,-2.8618,-12.683,-8.867,-10.927,-8.6957,-10.744,-5.9187,-12.683,-8.867,-10.837,7.619,19.937,1.0159,3.8462,3.9291,-3.9936,4.8657,4.9261,11.41
-2.9068,-5.6508,-2.8618,-10.732,-4.9261,-8.0,-6.7633,-8.8026,-2.9919,-10.732,-4.9261,-8.867,9.5238,18.032,1.9683,1.9231,4.8953,-3.9936,2.97,5.9113,5.641
0.88468,-2.7937,1.0407,-3.9024,-0.98522,0.78049,-0.96618,-10.744,-0.06504,-3.9024,-0.98522,-2.9557,13.333,20.889,5.7778,4.8077,8.7601,-3.9936,-1.7694,7.8818,7.5641
0.88468,0.06349,3.9675,-3.9024,0.98522,-4.0976,0.0,-0.06472,2.8618,-3.9024,0.98522,-2.9557,13.333,18.032,6.7302,7.6923,12.625,-4.9597,-13.144,7.8818,6.6026
-1.0111,5.7778,5.9187,-0.97561,2.9557,-8.0,3.8647,5.7605,5.7886,-0.97561,2.9557,-0.98522,9.5238,14.222,6.7302,9.6154,13.591,-3.9936,0.12638,2.9557,6.6026
-1.9589,1.9683,2.9919,-5.8537,-0.98522,-6.0488,0.0,-0.06472,1.8862,-5.8537,-0.98522,-3.9409,2.8571,5.6508,3.873,4.8077,8.7601,-1.095,7.7093,-3.9409,-2.0513
-3.8547,1.0159,1.0407,-6.8293,-3.9409,-6.0488,0.96618,-0.06472,0.91057,-6.8293,-3.9409,-4.9261,-0.95238,-3.873,1.0159,0.96154,4.8953,2.7697,10.553,-5.9113,-7.8205
-1.9589,1.9683,2.0163,-3.9024,-1.9704,-0.19512,0.96618,-7.8317,4.813,-3.9024,-1.9704,-1.9704,-4.7619,-9.5873,0.06349,0.96154,3.9291,1.8035,12.449,-7.8818,-7.8205
-3.8547,2.9206,2.0163,-2.9268,-2.9557,-7.0244,-1.9324,5.7605,5.7886,-2.9268,-2.9557,-3.9409,-8.5714,-19.111,-2.7937,-0.96154,0.06441,1.8035,6.7615,-12.808,-12.628
-3.8547,5.7778,3.9675,0.97561,-2.9557,-6.0488,2.8986,13.528,6.7642,0.97561,-2.9557,-0.98522,-8.5714,-20.063,-1.8413,0.96154,0.06441,-0.12882,-0.82148,-16.749001,-8.7821
1.8325,6.7302,5.9187,0.97561,1.9704,0.78049,1.9324,4.7896,4.813,0.97561,1.9704,2.9557,-5.7143,-19.111,-0.88889,0.0,0.06441,-3.0274,5.8136,-10.837,-10.705
1.8325,4.8254,2.9919,-0.97561,0.0,2.7317,-0.96618,2.8479,3.8374,-0.97561,0.0,1.9704,-2.8571,-16.254,-0.88889,-0.96154,-1.868,-0.12882,1.0742,-4.9261,-9.7436
4.6761,4.8254,3.9675,0.0,-3.9409,11.512,9.6618,3.8188,3.8374,0.0,-3.9409,5.9113,1.9048,-5.7778,1.0159,1.9231,1.0306,3.7359,-0.82148,1.9704,-1.0897
0.88468,2.9206,2.0163,-0.97561,-6.8966,1.7561,5.7971,11.586,-0.06504,-0.97561,-6.8966,1.9704,4.7619,4.6984,-0.88889,1.9231,0.06441,3.7359,5.8136,1.9704,6.6026
-1.0111,-1.8413,-4.813,-4.878,-8.867,-1.1707,0.0,0.90615,-5.9187,-4.878,-8.867,-2.9557,0.0,11.365,-5.6508,-0.96154,-4.7665,-3.0274,1.0742,-3.9409,10.449
-7.6461,-4.6984,-12.618,-9.7561,-7.8818,-8.0,-6.7633,-2.9773,-8.8455,-9.7561,-7.8818,-7.8818,-3.8095,16.127001,-10.413,-2.8846,-8.6312,-7.8583,-3.6651,-2.9557,14.295
-12.385,-10.413,-17.496,-7.8049,-9.8522,-10.927,-14.493,0.90615,-11.772,-7.8049,-9.8522,-12.808,-6.6667,14.222,-13.27,-8.6538,-12.496,-3.0274,0.12638,-1.9704,7.5641
-6.6983,-14.222,-17.496,-3.9024,-9.8522,-0.19512,-14.493,-3.9482,-11.772,-3.9024,-9.8522,-10.837,-7.619,7.5556,-12.317,-12.5,-13.462,2.7697,-13.144,0.0,-2.0513
-1.0111,-11.365,-12.618,-1.9512,-7.8818,0.78049,-11.594,2.8479,-7.8699,-1.9512,-7.8818,-6.8966,-3.8095,6.6032,-6.6032,-9.6154,-9.5974,3.7359,-13.144,1.9704,-1.0897
-0.06319,-8.5079,-9.6911,-0.97561,-6.8966,-4.0976,-9.6618,9.644,-6.8943,-0.97561,-6.8966,-5.9113,1.9048,11.365,-1.8413,-4.8077,-4.7665,6.6345,-6.5087,5.9113,5.641
-3.8547,-8.5079,-8.7154,0.0,-4.9261,-2.1463,-8.6957,6.7314,-4.9431,0.0,-4.9261,-4.9261,0.95238,9.4603,-2.7937,-4.8077,-3.8003,3.7359,-4.613,5.9113,2.7564
-1.0111,-9.4603,-6.7642,0.0,-4.9261,2.7317,-1.9324,-3.9482,-4.9431,0.0,-4.9261,-2.9557,0.95238,5.6508,-3.746,-5.7692,-5.7327,4.7021,1.0742,7.8818,-1.0897
-5.7504,-8.5079,-8.7154,-0.97561,-1.9704,1.7561,-5.7971,-4.9191,-2.9919,-0.97561,-1.9704,-4.9261,-0.95238,1.8413,-6.6032,-6.7308,-6.6989,1.8035,0.12638,0.98522,-2.0513
-10.49,-7.5556,-13.593,-5.8537,-2.9557,-8.9756,-7.7295,3.8188,-2.9919,-5.8537,-2.9557,-8.867,-2.8571,-1.0159,-9.4603,-8.6538,-8.6312,-1.095,-9.3523,-5.9113,-3.0128
-6.6983,-2.7937,-9.6911,-6.8293,-4.9261,-7.0244,-3.8647,4.7896,-0.06504,-6.8293,-4.9261,-6.8966,-0.95238,-1.9683,-7.5556,-4.8077,-5.7327,2.7697,-10.3,0.0,-0.12821
-7.6461,-0.88889,-7.7398,-0.97561,1.9704,-2.1463,-1.9324,-2.0065,-0.06504,-0.97561,1.9704,-5.9113,-4.7619,-5.7778,-8.5079,-4.8077,-5.7327,-1.095,9.6051,-2.9557,-3.9744
-9.5419,-2.7937,-9.6911,1.9512,2.9557,-1.1707,-3.8647,-10.744,4.813,1.9512,2.9557,-5.9113,-8.5714,-7.6825,-10.413,-5.7692,-7.6651,-8.8245,12.449,-7.8818,-8.7821
-11.438,-2.7937,-11.642,0.97561,3.9409,-8.9756,-1.9324,-3.9482,6.7642,0.97561,3.9409,-5.9113,-9.5238,-8.6349,-11.365,-5.7692,-8.6312,-8.8245,4.8657,-11.823,-5.8974
-6.6983,0.06349,-8.7154,1.9512,5.9113,-4.0976,-0.96618,-4.9191,7.7398,1.9512,5.9113,-2.9557,-9.5238,-7.6825,-10.413,-2.8846,-7.6651,-6.8921,5.8136,-9.8522,-3.9744
-5.7504,0.06349,-5.7886,0.97561,3.9409,-1.1707,4.8309,-2.9773,5.7886,0.97561,3.9409,-1.9704,-6.6667,-8.6349,-7.5556,-2.8846,-6.6989,-2.0612,1.0742,-3.9409,-3.9744
-9.5419,-3.746,-9.6911,-2.9268,1.9704,-8.0,1.9324,2.8479,2.8618,-2.9268,1.9704,-4.9261,-8.5714,-14.349,-11.365,-8.6538,-12.496,-3.0274,-5.5608,-6.8966,-9.7436
-8.594,-2.7937,-8.7154,-6.8293,0.98522,-0.19512,2.8986,-7.8317,-1.0407,-6.8293,0.98522,-1.9704,-10.476,-15.302,-13.27,-9.6154,-15.395,-3.9936,-14.092,-8.867,-7.8205
-11.438,-4.6984,-10.667,-5.8537,-2.9557,-8.0,-5.7971,-2.9773,-2.0163,-5.8537,-2.9557,-4.9261,-11.429,-13.397,-16.127001,-10.577,-17.327,-4.9597,-0.82148,-8.867,-8.7821
-7.6461,-2.7937,-5.7886,2.9268,0.98522,-8.0,-0.96618,-2.0065,-1.0407,2.9268,0.98522,-1.9704,-7.619,-8.6349,-12.317,-5.7692,-12.496,-3.9936,12.449,-3.9409,-5.8974
-4.8025,0.06349,-0.91057,5.8537,3.9409,-4.0976,0.96618,-5.89,0.91057,5.8537,3.9409,0.98522,-3.8095,-3.873,-7.5556,0.0,-6.6989,-5.9259,8.6572,-1.9704,0.83333
0.88468,5.7778,4.9431,4.878,7.8818,1.7561,2.8986,-3.9482,1.8862,4.878,7.8818,4.9261,3.8095,3.746,0.06349,8.6538,1.9968,-3.0274,-4.613,2.9557,7.5641
3.7283,7.6825,7.8699,1.9512,0.0,3.7073,5.7971,-0.06472,-0.06504,1.9512,0.0,4.9261,13.333,10.413,5.7778,14.423,8.7601,1.8035,1.0742,6.8966,12.372
2.7804,4.8254,5.9187,-0.97561,-1.9704,-4.0976,0.0,3.8188,-2.0163,-0.97561,-1.9704,1.9704,16.190001,11.365,8.6349,13.462,11.659,2.7697,3.9179,11.823,8.5256
6.5719,3.873,7.8699,-3.9024,-1.9704,-3.122,0.96618,1.877,-2.0163,-3.9024,-1.9704,2.9557,21.905001,14.222,14.349,14.423,17.455999,3.7359,2.97,17.733999,7.5641
13.207,9.5873,12.748,0.0,-0.98522,5.6585,4.8309,-4.9191,-5.9187,0.0,-0.98522,6.8966,25.714001,14.222,21.016001,16.346001,22.287001,-0.12882,-3.6651,18.719,8.5256
16.997999,9.5873,15.675,2.9268,0.98522,8.5854,4.8309,-2.0065,-1.0407,2.9268,0.98522,7.8818,28.570999,13.27,25.778,16.346001,26.150999,5.6683,0.12638,22.66,8.5256
18.893999,6.7302,17.625999,3.9024,1.9704,16.389999,8.6957,-9.7735,1.8862,3.9024,1.9704,11.823,31.429001,16.127001,28.635,16.346001,29.049999,7.6006,0.12638,25.615999,9.4872
17.945999,8.6349,18.601999,4.878,-1.9704,9.561,11.594,3.8188,1.8862,4.878,-1.9704,12.808,27.618999,12.317,26.73,15.385,27.118,4.7021,0.12638,20.690001,6.6026
19.841999,9.5873,21.528,6.8293,2.9557,9.561,13.527,14.498,4.813,6.8293,2.9557,16.749001,22.857,7.5556,25.778,13.462,25.184999,12.432,9.6051,21.674999,-0.12821
16.997999,8.6349,20.552999,6.8293,8.867,10.537,12.56,3.8188,2.8618,6.8293,8.867,16.749001,14.286,-1.0159,20.063,7.6923,18.422001,10.499,2.97,12.808,-7.8205
7.5197,3.873,12.748,2.9268,3.9409,3.7073,5.7971,2.8479,0.91057,2.9268,3.9409,10.837,0.95238,-10.54,8.6349,0.0,6.8277,1.8035,-11.248,0.98522,-12.628
6.5719,0.06349,8.8455,0.0,2.9557,9.561,6.7633,1.877,0.91057,0.0,2.9557,10.837,-6.6667,-14.349,1.9683,-5.7692,-1.868,1.8035,-3.6651,-1.9704,-12.628
5.624,1.0159,7.8699,2.9268,6.8966,11.512,6.7633,2.8479,1.8862,2.9268,6.8966,10.837,-9.5238,-8.6349,-1.8413,-4.8077,-4.7665,4.7021,-5.5608,-1.9704,-3.9744
4.6761,0.06349,5.9187,0.97561,0.98522,7.6098,4.8309,-2.0065,-2.0163,0.97561,0.98522,5.9113,-10.476,-4.8254,-4.6984,-4.8077,-7.6651,0.83736,-2.7172,-1.9704,-0.12821
-2.9068,-2.7937,0.06504,-6.8293,-5.9113,-6.0488,-2.8986,-0.06472,-8.8455,-6.8293,-5.9113,-1.9704,-8.5714,-1.0159,-8.5079,-5.7692,-9.5974,-3.0274,5.8136,-5.9113,0.83333
-3.8547,-4.6984,-0.91057,-8.7805,-8.867,0.78049,-7.7295,-9.7735,-7.8699,-8.7805,-8.867,-2.9557,-1.9048,5.6508,-6.6032,-2.8846,-5.7327,-5.9259,0.12638,-2.9557,4.6795
-0.06319,-2.7937,1.0407,-5.8537,-7.8818,-4.0976,-8.6957,-0.06472,-4.9431,-5.8537,-7.8818,-2.9557,5.7143,12.317,1.0159,1.9231,1.0306,-3.0274,-3.6651,0.98522,9.4872
0.88468,2.9206,5.9187,-5.8537,0.0,-6.0488,-1.9324,4.7896,-2.0163,-5.8537,0.0,-1.9704,14.286,18.983999,7.6825,9.6154,10.692,2.7697,-12.196,5.9113,18.141001
1.8325,1.0159,4.9431,-6.8293,-6.8966,-5.0732,-1.9324,-2.9773,-2.9919,-6.8293,-6.8966,-3.9409,18.094999,19.937,10.54,10.577,13.591,-0.12882,-2.7172,9.8522,16.218
3.7283,0.06349,2.9919,-6.8293,-9.8522,-2.1463,-1.9324,-8.8026,-3.9675,-6.8293,-9.8522,-3.9409,19.048,19.937,13.397,9.6154,15.523,-3.9936,5.8136,11.823,12.372
6.5719,4.8254,5.9187,-1.9512,0.0,3.7073,0.96618,-10.744,-2.0163,-1.9512,0.0,0.0,22.857,18.032,16.254,11.538,18.422001,-8.8245,2.97,14.778,11.41
3.7283,1.9683,5.9187,1.9512,1.9704,1.7561,-0.96618,-2.0065,-2.9919,1.9512,1.9704,-0.98522,20.952,12.317,16.254,8.6538,16.49,-3.9936,5.8136,11.823,6.6026
6.5719,1.0159,7.8699,4.878,3.9409,-2.1463,0.0,7.7023,0.91057,4.878,3.9409,0.0,23.809999,11.365,20.063,9.6154,18.422001,6.6345,0.12638,16.749001,6.6026
5.624,1.0159,5.9187,7.8049,2.9557,-1.1707,2.8986,8.6731,3.8374,7.8049,2.9557,1.9704,23.809999,10.413,19.111,8.6538,17.455999,4.7021,-2.7172,17.733999,3.7179
8.4676,2.9206,5.9187,11.707,9.8522,4.6829,6.7633,3.8188,5.7886,11.707,9.8522,5.9113,18.094999,5.6508,17.205999,4.8077,15.523,4.7021,-0.82148,12.808,-3.0128
9.4155,6.7302,7.8699,12.683,11.823,10.537,10.628,1.877,7.7398,12.683,11.823,9.8522,14.286,-1.0159,16.254,4.8077,14.557,3.7359,-2.7172,10.837,-6.859
9.4155,4.8254,9.8211,8.7805,12.808,9.561,12.56,5.7605,5.7886,8.7805,12.808,9.8522,10.476,-4.8254,13.397,2.8846,10.692,2.7697,0.12638,7.8818,-8.7821
7.5197,2.9206,8.8455,8.7805,9.8522,4.6829,8.6957,13.528,3.8374,8.7805,9.8522,7.8818,3.8095,-10.54,8.6349,-0.96154,5.8615,3.7359,0.12638,0.98522,-10.705
9.4155,5.7778,10.797,11.707,14.778,12.488,14.493,8.6731,1.8862,11.707,14.778,11.823,0.95238,-9.5873,6.7302,1.9231,4.8953,0.83736,-7.4566,-0.98522,-5.8974
0.88468,4.8254,5.9187,6.8293,3.9409,5.6585,9.6618,5.7605,2.8618,6.8293,3.9409,7.8818,-7.619,-9.5873,-1.8413,-1.9231,-1.868,-3.9936,-3.6651,-9.8522,-7.8205
-4.8025,4.8254,1.0407,8.7805,4.9261,3.7073,5.7971,-2.9773,5.7886,8.7805,4.9261,4.9261,-16.190001,-9.5873,-10.413,-4.8077,-8.6312,-5.9259,0.12638,-17.733999,-8.7821
-7.6461,0.06349,-2.8618,4.878,7.8818,-3.122,1.9324,0.90615,6.7642,4.878,7.8818,0.98522,-23.809999,-5.7778,-17.079,-6.7308,-15.395,-8.8245,7.7093,-25.615999,-2.0513
-13.333,-2.7937,-6.7642,-1.9512,0.0,-10.927,-1.9324,-1.0356,2.8618,-1.9512,0.0,-3.9409,-30.476,-3.873,-24.698,-8.6538,-20.225,-19.452,10.553,-32.512001,-0.12821
-12.385,1.9683,-6.7642,-0.97561,0.98522,-4.0976,-1.9324,-14.628,6.7642,-0.97561,0.98522,-1.9704,-35.237999,-1.9683,-28.507999,-7.6923,-23.124001,-21.385,4.8657,-33.498001,1.7949
-17.125,-0.88889,-9.6911,-4.878,0.98522,-8.0,-1.9324,-11.715,7.7398,-4.878,0.98522,-3.9409,-39.048,-2.9206,-33.27,-10.577,-28.921,-20.419001,2.0221,-38.424,3.7179
-21.864,-4.6984,-13.593,-8.7805,-3.9409,-14.829,0.0,-10.744,2.8618,-8.7805,-3.9409,-9.8522,-41.904999,-7.6825,-38.032001,-16.346001,-34.717999,-20.419001,4.8657,-41.379002,-3.0128
-18.073,-7.5556,-15.545,-4.878,-1.9704,-6.0488,-5.7971,-17.540001,0.91057,-4.878,-1.9704,-10.837,-39.048,-10.54,-37.078999,-19.231001,-36.651001,-18.486,3.9179,-36.452999,-6.859
-17.125,-8.5079,-16.52,-1.9512,-1.9704,-9.9512,-9.6618,-2.0065,0.91057,-1.9512,-1.9704,-11.823,-31.429001,-11.492,-32.317001,-18.268999,-34.717999,-11.723,-4.613,-26.601,-4.9359
-19.968,-5.6508,-17.496,-1.9512,-3.9409,-18.732,-16.424999,3.8188,-0.06504,-1.9512,-3.9409,-14.778,-25.714001,-11.492,-28.507999,-17.308001,-31.82,-8.8245,-3.6651,-19.704,-4.9359
-15.229,-8.5079,-15.545,0.0,-2.9557,-10.927,-7.7295,2.8479,0.91057,0.0,-2.9557,-12.808,-20.952,-12.444,-21.841,-14.423,-26.989,-5.9259,-2.7172,-10.837,-2.0513
-10.49,-10.413,-13.593,-4.878,-4.9261,-9.9512,-4.8309,-0.06472,-0.06504,-4.878,-4.9261,-11.823,-17.143,-14.349,-15.175,-13.462,-22.158001,-1.095,4.8657,-5.9113,-5.8974
-5.7504,-9.4603,-8.7154,-9.7561,-9.8522,-4.0976,-7.7295,-8.8026,-2.0163,-9.7561,-9.8522,-8.867,-11.429,-17.205999,-8.5079,-11.538,-16.361,3.7359,0.12638,1.9704,-12.628
-1.9589,-8.5079,-5.7886,-5.8537,-4.9261,-4.0976,-9.6618,4.7896,-4.9431,-5.8537,-4.9261,-8.867,-4.7619,-17.205999,-0.88889,-8.6538,-8.6312,13.398,-6.5087,10.837,-13.59
-1.0111,-7.5556,-4.813,1.9512,0.98522,-7.0244,-8.6957,13.528,-7.8699,1.9512,0.98522,-8.867,-1.9048,-16.254,2.9206,-5.7692,-4.7665,20.160999,-13.144,15.764,-13.59
2.7804,-6.6032,-1.8862,3.9024,-0.98522,-0.19512,-9.6618,1.877,-3.9675,3.9024,-0.98522,-6.8966,1.9048,-14.349,6.7302,-2.8846,0.06441,17.261999,-19.778999,16.749001,-13.59
5.624,-1.8413,3.9675,3.9024,4.9261,0.78049,-7.7295,7.7023,2.8618,3.9024,4.9261,-2.9557,8.5714,-6.7302,11.492,4.8077,7.7939,20.160999,-11.248,17.733999,-7.8205
10.363,-2.7937,6.8943,4.878,7.8818,9.561,-3.8647,-5.89,4.813,4.878,7.8818,1.9704,10.476,-2.9206,13.397,6.7308,11.659,14.364,-0.82148,17.733999,-6.859
5.624,-0.88889,4.9431,-0.97561,2.9557,1.7561,0.96618,-1.0356,2.8618,-0.97561,2.9557,0.0,7.619,-1.0159,10.54,4.8077,9.7262,8.5668,4.8657,15.764,-9.7436
-0.06319,0.06349,2.0163,-6.8293,-4.9261,-4.0976,-0.96618,4.7896,3.8374,-6.8293,-4.9261,-1.9704,5.7143,0.88889,5.7778,0.96154,4.8953,3.7359,2.97,12.808,-8.7821
-0.06319,1.0159,2.0163,-4.878,-2.9557,-3.122,-1.9324,-1.0356,4.813,-4.878,-2.9557,0.0,3.8095,4.6984,2.9206,0.0,1.0306,-0.12882,2.97,5.9113,-0.12821
-1.0111,3.873,1.0407,-0.97561,2.9557,1.7561,3.8647,-11.715,5.7886,-0.97561,2.9557,1.9704,0.0,6.6032,-1.8413,-0.96154,-2.8341,-0.12882,-1.7694,-2.9557,3.7179
-6.6983,1.9683,-5.7886,-3.9024,0.0,-8.0,5.7971,-4.9191,-0.06504,-3.9024,0.0,-1.9704,-4.7619,4.6984,-8.5079,-3.8462,-9.5974,-0.12882,0.12638,-6.8966,6.6026
-6.6983,-0.88889,-9.6911,-7.8049,0.98522,-5.0732,2.8986,-10.744,-1.0407,-7.8049,0.98522,-2.9557,-7.619,7.5556,-11.365,-3.8462,-10.564,-3.0274,2.97,-9.8522,10.449
-9.5419,-0.88889,-9.6911,-7.8049,2.9557,-0.19512,2.8986,-4.9191,1.8862,-7.8049,2.9557,-1.9704,-4.7619,13.27,-11.365,0.0,-8.6312,-2.0612,-1.7694,-7.8818,17.179001
-10.49,-2.7937,-10.667,-4.878,-1.9704,-4.0976,-0.96618,2.8479,-2.0163,-4.878,-1.9704,-3.9409,-2.8571,12.317,-10.413,-1.9231,-7.6651,-1.095,10.553,-5.9113,13.333
-5.7504,-4.6984,-8.7154,-2.9268,-3.9409,3.7073,-5.7971,-0.06472,-3.9675,-2.9268,-3.9409,-0.98522,-0.95238,13.27,-6.6032,-0.96154,-4.7665,1.8035,10.553,-6.8966,10.449
-1.9589,-6.6032,-7.7398,0.0,-3.9409,-1.1707,-4.8309,8.6731,-4.9431,0.0,-3.9409,-0.98522,-0.95238,8.5079,-3.746,-0.96154,-2.8341,3.7359,-1.7694,-4.9261,8.5256
1.8325,-7.5556,-5.7886,5.8537,-4.9261,-0.19512,-5.7971,13.528,-4.9431,5.8537,-4.9261,0.0,0.0,4.6984,-0.88889,-1.9231,-0.90177,-0.12882,-6.5087,0.0,4.6795
10.363,-0.88889,2.9919,12.683,2.9557,11.512,-1.9324,12.557,-2.9919,12.683,2.9557,7.8818,2.8571,5.6508,5.7778,2.8846,4.8953,7.6006,-10.3,3.9409,7.5641
11.311,-1.8413,4.9431,12.683,0.98522,15.415,0.96618,9.644,-2.9919,12.683,0.98522,9.8522,0.0,1.8413,6.7302,1.9231,4.8953,10.499,-8.4044,2.9557,0.83333
12.259,-1.8413,7.8699,14.634,6.8966,22.243999,2.8986,10.615,-2.0163,14.634,6.8966,11.823,-0.95238,-1.9683,7.6825,1.9231,5.8615,10.499,-7.4566,2.9557,-5.8974
13.207,-0.88889,9.8211,13.659,13.793,13.463,2.8986,19.353001,0.91057,13.659,13.793,9.8522,0.0,-3.873,9.5873,1.9231,7.7939,8.5668,2.0221,7.8818,-8.7821
13.207,0.06349,12.748,12.683,9.8522,8.5854,4.8309,15.469,5.7886,12.683,9.8522,8.867,1.9048,-6.7302,11.492,3.8462,8.7601,8.5668,4.8657,9.8522,-9.7436
14.155,7.6825,17.625999,8.7805,10.837,11.512,7.7295,5.7605,4.813,8.7805,10.837,10.837,2.8571,-6.7302,15.302,7.6923,13.591,7.6006,0.12638,9.8522,-8.7821
16.051001,11.492,19.577,5.8537,11.823,7.6098,10.628,-0.06472,7.7398,5.8537,11.823,11.823,5.7143,-0.06349,18.159,13.462,19.388,1.8035,2.0221,5.9113,-3.0128
16.051001,12.444,19.577,9.7561,8.867,11.512,9.6618,-7.8317,12.618,9.7561,8.867,10.837,6.6667,0.88889,18.159,15.385,21.32,-8.8245,1.0742,0.98522,0.83333
9.4155,7.6825,12.748,5.8537,6.8966,5.6585,3.8647,-11.715,9.6911,5.8537,6.8966,4.9261,3.8095,-1.0159,12.444,10.577,17.455999,-11.723,9.6051,-4.9261,-2.0513
-0.06319,2.9206,5.9187,-3.9024,0.0,-10.927,-1.9324,-5.89,7.7398,-3.9024,0.0,-4.9261,0.95238,-0.06349,4.8254,5.7692,11.659,-6.8921,13.397,-6.8966,-3.0128
-8.594,2.9206,-0.91057,-13.659,-7.8818,-17.756001,-8.6957,-4.9191,3.8374,-13.659,-7.8818,-12.808,-3.8095,-1.0159,-2.7937,2.8846,5.8615,-9.7907,7.7093,-13.793,0.83333
-9.5419,6.7302,-0.91057,-14.634,-0.98522,-9.9512,-6.7633,-14.628,1.8862,-14.634,-0.98522,-10.837,-4.7619,3.746,-6.6032,4.8077,3.9291,-16.554001,1.0742,-18.719,9.4872
-15.229,2.9206,-3.8374,-13.659,-0.98522,-19.707001,-4.8309,-11.715,4.813,-13.659,-0.98522,-13.793,-3.8095,3.746,-10.413,3.8462,0.06441,-17.52,7.7093,-18.719,10.449
-21.864,0.06349,-7.7398,-16.584999,-7.8818,-28.488001,-1.9324,-10.744,-0.06504,-16.584999,-7.8818,-17.733999,-6.6667,-0.06349,-17.079,0.0,-5.7327,-13.655,12.449,-17.733999,6.6026
-21.864,1.9683,-7.7398,-17.561001,-10.837,-24.584999,-1.9324,-18.511,-2.9919,-17.561001,-10.837,-16.749001,-9.5238,0.88889,-18.983999,0.96154,-9.5974,-15.588,6.7615,-13.793,9.4872
-17.125,4.8254,-6.7642,-10.732,-4.9261,-15.805,0.0,-16.57,-1.0407,-10.732,-4.9261,-10.837,-7.619,5.6508,-17.079,1.9231,-9.5974,-8.8245,-6.5087,-6.8966,14.295
-16.177,3.873,-4.813,-8.7805,-4.9261,-12.878,0.0,-12.686,0.91057,-8.7805,-4.9261,-7.8818,-4.7619,8.5079,-13.27,1.9231,-8.6312,-4.9597,3.9179,-2.9557,14.295
-9.5419,3.873,0.06504,-5.8537,-1.9704,-12.878,0.96618,-7.8317,-0.06504,-5.8537,-1.9704,-4.9261,-1.9048,6.6032,-7.5556,2.8846,-3.8003,-8.8245,5.8136,0.98522,8.5256
-1.9589,3.873,4.9431,-2.9268,3.9409,-9.9512,0.96618,-2.0065,-2.9919,-2.9268,3.9409,-1.9704,0.95238,4.6984,0.06349,4.8077,1.0306,-3.0274,0.12638,3.9409,4.6795
11.311,8.6349,12.748,4.878,9.8522,5.6585,5.7971,0.90615,-1.0407,4.878,9.8522,6.8966,7.619,6.6032,10.54,10.577,10.692,4.7021,2.97,9.8522,5.641
16.997999,7.6825,16.65,9.7561,3.9409,16.389999,11.594,4.7896,-2.9919,9.7561,3.9409,12.808,10.476,3.746,18.159,11.538,16.49,8.5668,-5.5608,13.793,0.83333
20.790001,13.397,24.455,15.61,9.8522,18.341,18.357,8.6731,0.91057,15.61,9.8522,17.733999,13.333,-1.9683,24.825001,14.423,22.287001,13.398,-3.6651,15.764,-3.0128
23.632999,14.349,25.431,17.561001,21.674999,20.292999,18.357,6.7314,4.813,17.561001,21.674999,20.690001,16.190001,-5.7778,27.683001,14.423,24.219,17.261999,2.0221,19.704,-6.859
20.790001,13.397,21.528,17.561001,20.690001,11.512,16.424999,11.586,6.7642,17.561001,20.690001,16.749001,19.048,-2.9206,27.683001,13.462,24.219,11.465,-8.4044,18.719,-3.9744
18.893999,12.444,19.577,16.584999,14.778,9.561,14.493,10.615,7.7398,16.584999,14.778,14.778,23.809999,-0.06349,27.683001,12.5,24.219,5.6683,-7.4566,17.733999,-2.0513
13.207,6.7302,14.699,12.683,9.8522,10.537,13.527,-0.06472,7.7398,12.683,9.8522,13.793,25.714001,-0.06349,23.872999,7.6923,20.354,-4.9597,2.97,16.749001,-4.9359
7.5197,1.9683,8.8455,2.9268,6.8966,9.561,6.7633,-8.8026,5.7886,2.9268,6.8966,8.867,23.809999,1.8413,16.254,2.8846,14.557,-7.8583,5.8136,11.823,-4.9359
3.7283,1.0159,1.0407,-0.97561,7.8818,8.5854,0.0,-6.8608,2.8618,-0.97561,7.8818,4.9261,23.809999,9.4603,10.54,1.9231,10.692,-5.9259,0.12638,8.867,0.83333
3.7283,1.0159,-2.8618,3.9024,4.9261,6.6341,0.0,3.8188,-2.0163,3.9024,4.9261,3.9409,21.905001,13.27,5.7778,-0.96154,5.8615,-3.9936,2.0221,6.8966,5.641
1.8325,-0.88889,-4.813,7.8049,0.98522,4.6829,-0.96618,4.7896,0.91057,7.8049,0.98522,1.9704,17.143,15.175,1.0159,-0.96154,1.9968,1.8035,0.12638,2.9557,9.4872
-2.9068,-5.6508,-8.7154,9.7561,1.9704,5.6585,-3.8647,1.877,-1.0407,9.7561,1.9704,-0.98522,5.7143,12.317,-7.5556,-5.7692,-4.7665,1.8035,6.7615,-6.8966,5.641
-1.0111,-1.8413,-7.7398,6.8293,-0.98522,6.6341,-7.7295,6.7314,-6.8943,6.8293,-0.98522,0.98522,0.0,12.317,-8.5079,-3.8462,-5.7327,-0.12882,10.553,-13.793,6.6026
-2.9068,-4.6984,-10.667,0.97561,-4.9261,0.78049,-6.7633,9.644,-2.0163,0.97561,-4.9261,-1.9704,-5.7143,5.6508,-10.413,-5.7692,-9.5974,3.7359,-2.7172,-14.778,4.6795
-1.9589,-6.6032,-10.667,0.0,-0.98522,0.78049,-2.8986,3.8188,3.8374,0.0,-0.98522,-2.9557,-7.619,2.7937,-8.5079,-5.7692,-9.5974,1.8035,-2.7172,-10.837,3.7179
1.8325,-4.6984,-6.7642,-1.9512,-0.98522,5.6585,-4.8309,-8.8026,2.8618,-1.9512,-0.98522,-1.9704,-1.9048,5.6508,-2.7937,-1.9231,-4.7665,5.6683,-1.7694,-0.98522,4.6795
1.8325,-6.6032,-7.7398,-2.9268,-2.9557,1.7561,-7.7295,-4.9191,3.8374,-2.9268,-2.9557,-4.9261,-0.95238,1.8413,-0.88889,-2.8846,-2.8341,6.6345,0.12638,3.9409,1.7949
-1.0111,-4.6984,-7.7398,-2.9268,-3.9409,-1.1707,-7.7295,1.877,4.813,-2.9268,-3.9409,-4.9261,-0.95238,-1.0159,0.06349,0.0,0.06441,3.7359,-4.613,4.9261,-0.12821
0.88468,1.0159,-0.91057,-4.878,-5.9113,-1.1707,0.0,-4.9191,1.8862,-4.878,-5.9113,-1.9704,3.8095,-2.9206,5.7778,5.7692,5.8615,-3.0274,-14.092,7.8818,0.83333
5.624,2.9206,3.9675,-6.8293,-4.9261,1.7561,2.8986,-10.744,0.91057,-6.8293,-4.9261,0.98522,8.5714,-5.7778,11.492,6.7308,10.692,-3.0274,0.12638,9.8522,-3.9744
2.7804,-1.8413,1.0407,-6.8293,-2.9557,-7.0244,-2.8986,-7.8317,3.8374,-6.8293,-2.9557,-2.9557,9.5238,-6.7302,10.54,0.96154,9.7262,0.83736,-0.82148,13.793,-9.7436
-1.9589,-4.6984,-1.8862,-6.8293,-1.9704,-10.927,1.9324,-13.657,3.8374,-6.8293,-1.9704,-3.9409,11.429,-1.0159,8.6349,-0.96154,8.7601,-3.0274,-5.5608,11.823,-7.8205
-4.8025,-5.6508,-2.8618,-10.732,-5.9113,-8.9756,3.8647,-17.540001,1.8862,-10.732,-5.9113,-3.9409,10.476,3.746,5.7778,-1.9231,7.7939,-7.8583,1.0742,7.8818,-6.859
-10.49,-8.5079,-7.7398,-12.683,-9.8522,-8.9756,-0.96618,-21.424,3.8374,-12.683,-9.8522,-4.9261,5.7143,4.6984,0.06349,-5.7692,3.9291,-8.8245,-6.5087,3.9409,-7.8205
-10.49,-6.6032,-8.7154,-8.7805,-1.9704,-8.9756,-1.9324,-17.540001,4.813,-8.7805,-1.9704,-4.9261,3.8095,7.5556,-3.746,-6.7308,0.06441,-8.8245,-13.144,3.9409,-3.0128
-13.333,-11.365,-12.618,-7.8049,3.9409,-15.805,-3.8647,-4.9191,4.813,-7.8049,3.9409,-6.8966,-1.9048,6.6032,-10.413,-11.538,-7.6651,-7.8583,-2.7172,0.0,-4.9359
-15.229,-11.365,-14.569,-2.9268,4.9261,-14.829,-0.96618,-1.0356,4.813,-2.9268,4.9261,-5.9113,-7.619,4.6984,-15.175,-13.462,-13.462,-9.7907,10.553,-8.867,-6.859
-16.177,-7.5556,-14.569,-5.8537,-0.98522,-8.9756,-5.7971,-7.8317,4.813,-5.8537,-0.98522,-5.9113,-14.286,-0.06349,-19.937,-13.462,-18.292999,-12.689,4.8657,-12.808,-4.9359
-14.281,-4.6984,-12.618,-2.9268,-0.98522,-7.0244,-4.8309,-5.89,6.7642,-2.9268,-0.98522,-2.9557,-18.094999,-1.9683,-21.841,-12.5,-22.158001,-11.723,5.8136,-11.823,-2.0513
-14.281,-3.746,-10.667,1.9512,3.9409,-4.0976,0.96618,-5.89,8.7154,1.9512,3.9409,0.0,-18.094999,-0.06349,-21.841,-9.6154,-23.124001,-3.9936,5.8136,-11.823,3.7179
-14.281,-1.8413,-11.642,0.97561,4.9261,-8.9756,3.8647,5.7605,4.813,0.97561,4.9261,0.0,-20.0,0.88889,-22.794001,-7.6923,-24.09,0.83736,-1.7694,-14.778,8.5256
-9.5419,1.0159,-9.6911,0.97561,3.9409,-0.19512,0.0,3.8188,3.8374,0.97561,3.9409,2.9557,-21.905001,-2.9206,-21.841,-6.7308,-23.124001,2.7697,8.6572,-17.733999,5.641
-8.594,0.06349,-8.7154,0.97561,2.9557,0.78049,1.9324,3.8188,3.8374,0.97561,2.9557,2.9557,-24.761999,-7.6825,-21.841,-6.7308,-22.158001,3.7359,12.449,-16.749001,2.7564
-4.8025,-0.88889,-5.7886,0.97561,-6.8966,1.7561,4.8309,10.615,1.8862,0.97561,-6.8966,2.9557,-23.809999,-10.54,-18.032,-5.7692,-18.292999,6.6345,5.8136,-12.808,1.7949
-0.06319,-0.88889,-4.813,1.9512,-4.9261,14.439,3.8647,2.8479,3.8374,1.9512,-4.9261,4.9261,-20.952,-15.302,-13.27,-5.7692,-15.395,11.465,2.0221,-8.867,-3.0128
1.8325,-0.88889,-4.813,2.9268,0.0,11.512,1.9324,13.528,4.813,2.9268,0.0,4.9261,-15.238,-17.205999,-10.413,-4.8077,-10.564,15.33,-4.613,-6.8966,-6.859
-2.9068,-4.6984,-7.7398,2.9268,-4.9261,1.7561,-2.8986,14.498,0.91057,2.9268,-4.9261,0.0,-14.286,-21.968,-11.365,-8.6538,-11.53,5.6683,-4.613,-5.9113,-11.667
-4.8025,-10.413,-10.667,-1.9512,-5.9113,-1.1707,-10.628,4.7896,-5.9187,-1.9512,-5.9113,-4.9261,-16.190001,-26.73,-12.317,-14.423,-14.428,-1.095,-3.6651,-4.9261,-16.474001
-1.0111,-12.317,-10.667,-0.97561,-2.9557,2.7317,-15.459,1.877,-4.9431,-0.97561,-2.9557,-4.9261,-4.7619,-18.159,-4.6984,-12.5,-8.6312,2.7697,-6.5087,5.9113,-14.551
0.88468,-12.317,-10.667,0.0,-4.9261,4.6829,-11.594,4.7896,-3.9675,0.0,-4.9261,-4.9261,5.7143,-7.6825,2.9206,-7.6923,-2.8341,13.398,-6.5087,15.764,-5.8974
-5.7504,-17.079,-17.496,-6.8293,-8.867,-8.0,-13.527,12.557,-5.9187,-6.8293,-8.867,-12.808,9.5238,-3.873,1.0159,-11.538,-4.7665,17.261999,2.97,13.793,-8.7821
-8.594,-16.127001,-19.447001,-8.7805,-10.837,-9.9512,-17.391001,5.7605,-10.797,-8.7805,-10.837,-15.764,9.5238,0.88889,-0.88889,-12.5,-6.6989,13.398,-1.7694,12.808,-10.705
-8.594,-15.175,-16.52,-8.7805,-17.733999,-10.927,-13.527,0.90615,-14.699,-8.7805,-17.733999,-14.778,15.238,8.5079,0.06349,-10.577,-4.7665,11.465,-12.196,17.733999,-5.8974
-10.49,-16.127001,-16.52,-8.7805,-16.749001,-11.902,-13.527,-0.06472,-13.724,-8.7805,-16.749001,-14.778,15.238,11.365,-0.88889,-10.577,-3.8003,3.7359,-15.987,14.778,-3.0128
-7.6461,-13.27,-12.618,-5.8537,-6.8966,-8.0,-13.527,-3.9482,-8.8455,-5.8537,-6.8966,-10.837,14.286,14.222,1.0159,-7.6923,0.06441,-3.0274,-6.5087,13.793,0.83333
-0.06319,-6.6032,-3.8374,-2.9268,-0.98522,1.7561,-5.7971,-2.9773,-7.8699,-2.9268,-0.98522,-3.9409,16.190001,17.079,5.7778,-0.96154,5.8615,-1.095,-5.5608,10.837,8.5256
-1.0111,-0.88889,-0.91057,-3.9024,-6.8966,0.78049,-4.8309,-5.89,-11.772,-3.9024,-6.8966,-3.9409,10.476,14.222,4.8254,2.8846,5.8615,-2.0612,-5.5608,4.9261,7.5641
-1.0111,1.9683,0.06504,-2.9268,-3.9409,-2.1463,-3.8647,0.90615,-11.772,-2.9268,-3.9409,-2.9557,5.7143,12.317,2.9206,5.7692,5.8615,-3.0274,-1.7694,0.98522,5.641
1.8325,7.6825,3.9675,2.9268,0.98522,3.7073,-1.9324,-0.06472,-8.8455,2.9268,0.98522,0.98522,0.95238,7.5556,1.9683,10.577,6.8277,-10.757,-0.82148,-2.9557,6.6026
-1.9589,11.492,5.9187,0.0,-2.9557,-0.19512,0.0,-1.0356,-2.9919,0.0,-2.9557,0.98522,-4.7619,2.7937,-0.88889,13.462,5.8615,-9.7907,-0.82148,-7.8818,8.5256
-2.9068,13.397,5.9187,-0.97561,-5.9113,1.7561,5.7971,-11.715,-1.0407,-0.97561,-5.9113,0.0,-9.5238,-1.0159,-2.7937,14.423,3.9291,-12.689,2.97,-14.778,8.5256
-5.7504,7.6825,2.0163,-3.9024,-2.9557,-5.0732,5.7971,-8.8026,1.8862,-3.9024,-2.9557,-3.9409,-14.286,-6.7302,-6.6032,11.538,1.0306,-16.554001,15.292,-21.674999,5.641
-4.8025,4.8254,2.9919,-6.8293,0.98522,-8.9756,0.96618,-4.9191,4.813,-6.8293,0.98522,-3.9409,-12.381,-6.7302,-3.746,10.577,1.9968,-15.588,14.344,-18.719,4.6795
2.7804,9.5873,7.8699,-6.8293,-1.9704,-0.19512,1.9324,-13.657,3.8374,-6.8293,-1.9704,1.9704,-9.5238,-6.7302,1.0159,12.5,5.8615,-16.554001,11.501,-11.823,4.6795
7.5197,9.5873,13.724,-4.878,-2.9557,2.7317,6.7633,-6.8608,-0.06504,-4.878,-2.9557,5.9113,-4.7619,-7.6825,6.7302,13.462,10.692,-10.757,13.397,-4.9261,2.7564
9.4155,10.54,17.625999,0.0,0.0,6.6341,8.6957,-2.9773,-1.0407,0.0,0.0,6.8966,-1.9048,-4.8254,10.54,15.385,13.591,-6.8921,1.0742,0.0,6.6026
10.363,11.492,19.577,-2.9268,0.98522,9.561,7.7295,-14.628,-1.0407,-2.9268,0.98522,7.8818,-0.95238,-2.9206,12.444,13.462,13.591,-13.655,3.9179,-0.98522,3.7179
9.4155,8.6349,17.625999,-6.8293,-1.9704,-2.1463,2.8986,-11.715,-2.9919,-6.8293,-1.9704,2.9557,0.0,-1.9683,11.492,9.6154,13.591,-9.7907,10.553,0.98522,1.7949
6.5719,5.7778,15.675,-8.7805,-3.9409,-7.0244,1.9324,-7.8317,-2.9919,-8.7805,-3.9409,0.0,0.95238,1.8413,10.54,9.6154,13.591,-0.12882,13.397,2.9557,6.6026
6.5719,6.7302,15.675,-5.8537,-5.9113,-4.0976,0.96618,-6.8608,-2.0163,-5.8537,-5.9113,0.0,2.8571,5.6508,10.54,9.6154,13.591,-3.0274,7.7093,5.9113,8.5256
7.5197,6.7302,13.724,-4.878,-4.9261,-3.122,1.9324,-3.9482,-2.0163,-4.878,-4.9261,0.0,1.9048,6.6032,9.5873,7.6923,11.659,2.7697,0.12638,4.9261,8.5256
7.5197,2.9206,10.797,-4.878,-4.9261,2.7317,0.96618,-1.0356,-2.0163,-4.878,-4.9261,0.98522,1.9048,7.5556,8.6349,5.7692,7.7939,7.6006,-8.4044,5.9113,7.5641
15.103,4.8254,13.724,4.878,-3.9409,10.537,5.7971,1.877,-2.9919,4.878,-3.9409,5.9113,8.5714,12.317,13.397,6.7308,8.7601,10.499,-9.3523,12.808,11.41
14.155,4.8254,10.797,2.9268,-2.9557,7.6098,7.7295,14.498,-4.9431,2.9268,-2.9557,6.8966,5.7143,10.413,11.492,1.9231,2.963,16.296,2.97,15.764,5.641
9.4155,3.873,7.8699,3.9024,4.9261,5.6585,6.7633,18.382,-2.9919,3.9024,4.9261,7.8818,0.95238,3.746,7.6825,-1.9231,-2.8341,14.364,6.7615,11.823,0.83333
13.207,4.8254,8.8455,7.8049,9.8522,9.561,6.7633,10.615,-0.06504,7.8049,9.8522,11.823,1.9048,-0.06349,8.6349,-0.96154,-1.868,12.432,1.0742,4.9261,-0.12821
20.790001,9.5873,15.675,7.8049,5.9113,18.341,12.56,10.615,1.8862,7.8049,5.9113,17.733999,4.7619,-1.9683,13.397,1.9231,2.963,11.465,2.97,8.867,-1.0897
16.997999,9.5873,15.675,6.8293,5.9113,19.316999,14.493,3.8188,3.8374,6.8293,5.9113,17.733999,2.8571,-10.54,12.444,0.96154,1.9968,12.432,-2.7172,10.837,-5.8974
13.207,11.492,16.65,3.9024,8.867,12.488,15.459,9.644,9.6911,3.9024,8.867,16.749001,0.95238,-16.254,10.54,0.96154,1.9968,10.499,-3.6651,7.8818,-9.7436
17.945999,18.159,22.504,4.878,15.764,15.415,20.290001,14.498,13.593,4.878,15.764,21.674999,0.95238,-19.111,13.397,5.7692,4.8953,6.6345,-9.3523,6.8966,-6.859
16.051001,16.254,22.504,10.732,13.793,16.389999,21.256001,13.528,11.642,10.732,13.793,21.674999,-0.95238,-22.921,12.444,2.8846,2.963,6.6345,4.8657,3.9409,-12.628
16.051001,8.6349,18.601999,10.732,12.808,21.268,18.357,0.90615,11.642,10.732,12.808,21.674999,-6.6667,-26.73,8.6349,-0.96154,-0.90177,6.6345,17.188,0.0,-17.436001
16.051001,7.6825,16.65,9.7561,14.778,16.389999,18.357,5.7605,9.6911,9.7561,14.778,20.690001,-7.619,-23.872999,6.7302,-0.96154,-1.868,2.7697,13.397,-0.98522,-14.551
15.103,6.7302,15.675,15.61,14.778,18.341,20.290001,10.615,10.667,15.61,14.778,21.674999,-7.619,-17.205999,5.7778,-0.96154,-2.8341,6.6345,9.6051,0.0,-7.8205
14.155,3.873,9.8211,15.61,14.778,17.365999,15.459,13.528,11.642,15.61,14.778,18.719,-12.381,-13.397,1.0159,-3.8462,-6.6989,8.5668,-3.6651,0.0,-3.9744
4.6761,0.06349,1.0407,11.707,8.867,10.537,3.8647,14.498,6.7642,11.707,8.867,10.837,-18.094999,-12.444,-7.5556,-9.6154,-14.428,7.6006,-3.6651,-9.8522,-4.9359
-2.9068,-5.6508,-7.7398,6.8293,0.0,7.6098,-4.8309,-0.06472,2.8618,6.8293,0.0,2.9557,-23.809999,-13.397,-16.127001,-17.308001,-23.124001,-0.12882,2.0221,-15.764,-10.705
-8.594,-11.365,-13.593,-0.97561,-0.98522,3.7073,-12.56,-11.715,-2.0163,-0.97561,-0.98522,-2.9557,-29.524,-11.492,-22.794001,-21.153999,-27.955,-7.8583,3.9179,-19.704,-9.7436
-13.333,-12.317,-14.569,-1.9512,-4.9261,-4.0976,-11.594,-4.9191,-4.9431,-1.9512,-4.9261,-6.8966,-26.667,-7.6825,-21.841,-18.268999,-25.056,-3.9936,0.12638,-15.764,-4.9359
-10.49,-13.27,-14.569,2.9268,-5.9113,-7.0244,-10.628,5.7605,-5.9187,2.9268,-5.9113,-8.867,-16.190001,-3.873,-16.127001,-14.423,-18.292999,-0.12882,-5.5608,-6.8966,-4.9359
-2.9068,-11.365,-11.642,5.8537,-3.9409,3.7073,-12.56,8.6731,-7.8699,5.8537,-3.9409,-6.8966,-7.619,1.8413,-7.5556,-11.538,-11.53,8.5668,-13.144,0.0,-2.0513
1.8325,-7.5556,-8.7154,2.9268,-5.9113,1.7561,-14.493,18.382,-9.8211,2.9268,-5.9113,-6.8966,-2.8571,4.6984,-0.88889,-6.7308,-5.7327,17.261999,-13.144,1.9704,-1.0897
4.6761,-5.6508,-5.7886,1.9512,-9.8522,-0.19512,-11.594,20.323999,-9.8211,1.9512,-9.8522,-6.8966,5.7143,7.5556,5.7778,-0.96154,2.963,21.127001,-4.613,7.8818,3.7179
4.6761,-3.746,-2.8618,-1.9512,-5.9113,0.78049,-12.56,13.528,-7.8699,-1.9512,-5.9113,-6.8966,11.429,10.413,9.5873,5.7692,8.7601,17.261999,-3.6651,9.8522,9.4872
4.6761,-5.6508,-2.8618,-2.9268,-6.8966,-3.122,-11.594,9.644,-6.8943,-2.9268,-6.8966,-7.8818,12.381,7.5556,10.54,6.7308,10.692,14.364,-1.7694,9.8522,5.641
9.4155,-5.6508,0.06504,0.0,-3.9409,4.6829,-3.8647,3.8188,-2.9919,0.0,-3.9409,-3.9409,14.286,5.6508,14.349,7.6923,13.591,15.33,3.9179,12.808,1.7949
6.5719,-1.8413,0.06504,-1.9512,-2.9557,5.6585,-1.9324,4.7896,-3.9675,-1.9512,-2.9557,-2.9557,15.238,3.746,13.397,7.6923,12.625,10.499,4.8657,10.837,0.83333
-1.0111,-1.8413,-2.8618,-3.9024,-5.9113,-7.0244,-4.8309,10.615,-0.06504,-3.9024,-5.9113,-6.8966,13.333,0.88889,8.6349,5.7692,8.7601,7.6006,-0.82148,4.9261,0.83333
-4.8025,-1.8413,-4.813,-1.9512,-5.9113,-10.927,0.0,14.498,1.8862,-1.9512,-5.9113,-8.867,12.381,-1.0159,3.873,3.8462,5.8615,11.465,-14.092,5.9113,-1.0897
-4.8025,-0.88889,-6.7642,-2.9268,-0.98522,-9.9512,-1.9324,7.7023,0.91057,-2.9268,-0.98522,-8.867,12.381,2.7937,1.9683,3.8462,3.9291,7.6006,-2.7172,7.8818,1.7949
-4.8025,-1.8413,-6.7642,-4.878,3.9409,-6.0488,-1.9324,0.90615,2.8618,-4.878,3.9409,-6.8966,9.5238,1.8413,-0.88889,1.9231,1.0306,3.7359,6.7615,1.9704,-1.0897
-5.7504,-0.88889,-5.7886,-7.8049,0.0,-3.122,0.0,2.8479,5.7886,-7.8049,0.0,-5.9113,4.7619,0.88889,-4.6984,0.96154,-1.868,2.7697,4.8657,-3.9409,-1.0897
-9.5419,1.9683,-4.813,-5.8537,-4.9261,-8.9756,2.8986,6.7314,2.8618,-5.8537,-4.9261,-5.9113,-1.9048,0.88889,-11.365,-1.9231,-6.6989,-0.12882,12.449,-10.837,-3.0128
-12.385,1.0159,-7.7398,-4.878,-2.9557,-8.0,5.7971,-3.9482,4.813,-4.878,-2.9557,-5.9113,-9.5238,-1.9683,-18.032,-7.6923,-13.462,-5.9259,12.449,-16.749001,-4.9359
-19.021,-0.88889,-13.593,-12.683,0.0,-14.829,1.9324,-10.744,4.813,-12.683,0.0,-9.8522,-17.143,-5.7778,-23.746,-11.538,-20.225,-12.689,2.0221,-21.674999,-3.0128
-20.916,1.0159,-13.593,-12.683,-0.98522,-19.707001,-3.8647,-11.715,0.91057,-12.683,-0.98522,-11.823,-22.857,-9.5873,-26.603001,-11.538,-23.124001,-16.554001,-4.613,-25.615999,-2.0513
-16.177,3.873,-8.7154,-4.878,0.98522,-9.9512,3.8647,-9.7735,3.8374,-4.878,0.98522,-7.8818,-21.905001,-7.6825,-24.698,-5.7692,-19.259001,-11.723,3.9179,-22.66,4.6795
-19.968,1.9683,-12.618,-7.8049,-3.9409,-8.9756,0.0,-5.89,2.8618,-7.8049,-3.9409,-9.8522,-20.952,-3.873,-26.603001,-2.8846,-19.259001,-7.8583,12.449,-17.733999,9.4872
-24.708,0.06349,-16.52,-10.732,-6.8966,-18.732,-7.7295,-2.0065,-1.0407,-10.732,-6.8966,-14.778,-19.048,-2.9206,-26.603001,-1.9231,-18.292999,-11.723,5.8136,-15.764,9.4872
-18.073,1.0159,-11.642,-6.8293,-5.9113,-15.805,-6.7633,2.8479,-1.0407,-6.8293,-5.9113,-12.808,-10.476,3.746,-18.983999,3.8462,-8.6312,-7.8583,2.97,-8.867,14.295
-10.49,1.9683,-8.7154,-4.878,-9.8522,-8.0,-2.8986,-4.9191,-2.9919,-4.878,-9.8522,-7.8818,0.0,9.4603,-8.5079,6.7308,1.0306,-0.12882,1.0742,-3.9409,15.256
-2.9068,0.06349,-6.7642,-6.8293,-9.8522,-2.1463,-4.8309,-5.89,-5.9187,-6.8293,-9.8522,-5.9113,10.476,14.222,1.9683,8.6538,9.7262,0.83736,5.8136,2.9557,11.41
-1.0111,-2.7937,-5.7886,-6.8293,-7.8818,-5.0732,-7.7295,4.7896,-7.8699,-6.8293,-7.8818,-6.8966,17.143,13.27,8.6349,8.6538,14.557,4.7021,-6.5087,8.867,5.641
1.8325,-4.6984,-1.8862,0.97561,-3.9409,-7.0244,-3.8647,11.586,-3.9675,0.97561,-3.9409,-3.9409,23.809999,16.127001,16.254,10.577,20.354,8.5668,-7.4566,13.793,7.5641
3.7283,-6.6032,1.0407,4.878,0.98522,1.7561,-2.8986,-0.06472,-3.9675,4.878,0.98522,0.0,27.618999,17.079,20.063,9.6154,23.253,5.6683,1.0742,17.733999,5.641
3.7283,-6.6032,1.0407,1.9512,1.9704,1.7561,-0.96618,1.877,-2.9919,1.9512,1.9704,1.9704,29.524,18.032,21.016001,10.577,24.219,6.6345,-8.4044,16.749001,7.5641
6.5719,-4.6984,0.06504,9.7561,3.9409,9.561,2.8986,-1.0356,0.91057,9.7561,3.9409,4.9261,31.429001,19.937,21.016001,10.577,25.184999,4.7021,-3.6651,15.764,4.6795
8.4676,-5.6508,1.0407,11.707,6.8966,3.7073,0.96618,4.7896,-0.06504,11.707,6.8966,4.9261,32.381001,15.175,21.968,7.6923,25.184999,3.7359,-1.7694,16.749001,-3.0128
8.4676,-3.746,2.9919,5.8537,0.0,-2.1463,-4.8309,7.7023,-2.9919,5.8537,0.0,2.9557,29.524,9.4603,21.016001,5.7692,23.253,5.6683,-6.5087,13.793,-6.859
4.6761,-1.8413,3.9675,1.9512,-1.9704,-2.1463,-3.8647,2.8479,-3.9675,1.9512,-1.9704,0.0,25.714001,8.5079,17.205999,4.8077,20.354,2.7697,-17.882999,6.8966,-4.9359
4.6761,-3.746,2.9919,4.878,0.98522,1.7561,-2.8986,0.90615,-2.9919,4.878,0.98522,0.98522,23.809999,8.5079,13.397,3.8462,17.455999,0.83736,-7.4566,5.9113,-3.0128
3.7283,-7.5556,0.06504,7.8049,-4.9261,5.6585,-7.7295,-8.8026,-4.9431,7.8049,-4.9261,0.0,21.905001,9.4603,10.54,0.96154,13.591,-0.12882,2.0221,8.867,-1.0897
5.624,-9.4603,-0.91057,4.878,-2.9557,4.6829,-7.7295,-5.89,-7.8699,4.878,-2.9557,-0.98522,22.857,12.317,9.5873,-0.96154,11.659,-2.0612,-0.82148,12.808,0.83333
4.6761,-6.6032,-0.91057,-4.878,-0.98522,2.7317,-7.7295,-5.89,-6.8943,-4.878,-0.98522,-2.9557,20.952,10.413,8.6349,-1.9231,7.7939,-0.12882,-3.6651,13.793,2.7564
-1.9589,-8.5079,-5.7886,-3.9024,-5.9113,-4.0976,-10.628,-0.06472,-9.8211,-3.9024,-5.9113,-6.8966,15.238,6.6032,3.873,-5.7692,1.9968,-2.0612,-5.5608,8.867,0.83333
-4.8025,-6.6032,-7.7398,0.0,-9.8522,-6.0488,-10.628,4.7896,-7.8699,0.0,-9.8522,-7.8818,11.429,4.6984,0.06349,-5.7692,-1.868,-1.095,-10.3,4.9261,4.6795
-7.6461,-9.4603,-10.667,-3.9024,-7.8818,-8.0,-10.628,-1.0356,-4.9431,-3.9024,-7.8818,-9.8522,-0.95238,-3.873,-8.5079,-9.6154,-10.564,-3.9936,-11.248,-4.9261,-2.0513
-6.6983,-7.5556,-7.7398,-0.97561,-1.9704,-4.0976,-5.7971,-2.9773,-3.9675,-0.97561,-1.9704,-6.8966,-8.5714,-5.7778,-12.317,-9.6154,-13.462,-2.0612,-6.5087,-6.8966,-3.9744
1.8325,-4.6984,-1.8862,1.9512,4.9261,7.6098,-2.8986,-2.0065,-0.06504,1.9512,4.9261,0.0,-6.6667,-1.0159,-7.5556,-3.8462,-9.5974,4.7021,5.8136,-4.9261,0.83333
2.7804,-5.6508,-1.8862,1.9512,-1.9704,7.6098,-2.8986,5.7605,1.8862,1.9512,-1.9704,1.9704,-5.7143,3.746,-5.6508,-0.96154,-7.6651,3.7359,9.6051,-2.9557,5.641
1.8325,-1.8413,-1.8862,2.9268,3.9409,3.7073,0.0,7.7023,1.8862,2.9268,3.9409,2.9557,-5.7143,5.6508,-2.7937,0.0,-4.7665,0.83736,0.12638,-0.98522,6.6026
6.5719,2.9206,2.0163,8.7805,9.8522,7.6098,6.7633,3.8188,3.8374,8.7805,9.8522,4.9261,-0.95238,8.5079,5.7778,4.8077,1.9968,3.7359,-6.5087,3.9409,9.4872
4.6761,-1.8413,0.06504,5.8537,1.9704,3.7073,4.8309,-4.9191,-0.06504,5.8537,1.9704,0.98522,0.95238,6.6032,6.7302,0.96154,1.9968,-2.0612,-7.4566,3.9409,4.6795
-2.9068,-0.88889,-1.8862,-3.9024,-4.9261,-9.9512,-1.9324,-4.9191,-5.9187,-3.9024,-4.9261,-4.9261,2.8571,6.6032,6.7302,1.9231,3.9291,-9.7907,-0.82148,0.98522,0.83333
-6.6983,1.9683,-1.8862,-5.8537,0.98522,-11.902,2.8986,-6.8608,0.91057,-5.8537,0.98522,-5.9113,5.7143,7.5556,5.7778,3.8462,6.8277,-17.52,-0.82148,1.9704,0.83333
-6.6983,5.7778,2.9919,-5.8537,6.8966,-7.0244,5.7971,-19.482,7.7398,-5.8537,6.8966,-2.9557,6.6667,11.365,5.7778,7.6923,9.7262,-17.52,3.9179,0.0,5.641
-5.7504,7.6825,7.8699,-7.8049,2.9557,-11.902,3.8647,-16.57,6.7642,-7.8049,2.9557,-2.9557,6.6667,14.222,6.7302,10.577,12.625,-17.52,6.7615,0.0,9.4872
-4.8025,8.6349,8.8455,-4.878,2.9557,-11.902,7.7295,-15.599,12.618,-4.878,2.9557,-2.9557,9.5238,13.27,8.6349,11.538,13.591,-16.554001,1.0742,0.98522,10.449
-4.8025,8.6349,6.8943,-6.8293,3.9409,-9.9512,7.7295,-16.57,12.618,-6.8293,3.9409,-2.9557,8.5714,9.4603,6.7302,10.577,11.659,-11.723,1.0742,2.9557,9.4872
-1.9589,7.6825,5.9187,-9.7561,0.0,-8.0,1.9324,-12.686,4.813,-9.7561,0.0,-3.9409,9.5238,9.4603,7.6825,10.577,9.7262,-6.8921,2.97,8.867,9.4872
5.624,3.873,5.9187,-6.8293,-3.9409,0.78049,-0.96618,-18.511,2.8618,-6.8293,-3.9409,-2.9557,13.333,10.413,12.444,10.577,10.692,-0.12882,-2.7172,16.749001,12.372
7.5197,1.9683,4.9431,-8.7805,-9.8522,-5.0732,-5.7971,-4.9191,-0.06504,-8.7805,-9.8522,-4.9261,10.476,7.5556,12.444,8.6538,8.7601,5.6683,2.0221,16.749001,10.449
4.6761,-2.7937,2.0163,-9.7561,-6.8966,-9.9512,-5.7971,2.8479,0.91057,-9.7561,-6.8966,-4.9261,4.7619,-1.0159,9.5873,1.9231,4.8953,2.7697,8.6572,12.808,0.83333
8.4676,-0.88889,5.9187,-6.8293,2.9557,-2.1463,0.0,-4.9191,2.8618,-6.8293,2.9557,0.98522,3.8095,-1.0159,11.492,2.8846,5.8615,9.533,7.7093,12.808,-0.12821
12.259,4.8254,9.8211,-5.8537,0.98522,4.6829,6.7633,0.90615,5.7886,-5.8537,0.98522,5.9113,2.8571,-1.9683,13.397,4.8077,7.7939,7.6006,3.9179,12.808,1.7949
14.155,7.6825,10.797,-3.9024,1.9704,6.6341,8.6957,-1.0356,7.7398,-3.9024,1.9704,7.8818,-2.8571,-5.7778,12.444,4.8077,6.8277,6.6345,3.9179,10.837,-0.12821
16.997999,8.6349,11.772,-3.9024,6.8966,13.463,7.7295,1.877,11.642,-3.9024,6.8966,10.837,-6.6667,-9.5873,13.397,4.8077,5.8615,10.499,5.8136,9.8522,-1.0897
12.259,7.6825,9.8211,3.9024,7.8818,9.561,11.594,5.7605,12.618,3.9024,7.8818,12.808,-12.381,-16.254,6.7302,0.0,1.0306,5.6683,1.0742,1.9704,-6.859
10.363,11.492,11.772,13.659,13.793,8.5854,13.527,0.90615,14.569,13.659,13.793,16.749001,-14.286,-15.302,1.9683,1.9231,-1.868,2.7697,2.97,-0.98522,-2.0513
7.5197,9.5873,8.8455,8.7805,12.808,10.537,17.391001,-1.0356,11.642,8.7805,12.808,15.764,-17.143,-13.397,-3.746,-0.96154,-6.6989,-0.12882,18.136,-4.9261,-3.9744
0.88468,5.7778,2.9919,1.9512,-0.98522,4.6829,10.628,-3.9482,8.7154,1.9512,-0.98522,9.8522,-21.905001,-12.444,-10.413,-4.8077,-12.496,-9.7907,13.397,-12.808,-6.859
-1.0111,6.7302,0.06504,2.9268,0.0,8.5854,10.628,-15.599,5.7886,2.9268,0.0,8.867,-20.952,-8.6349,-13.27,-2.8846,-12.496,-14.622,6.7615,-19.704,-3.9744
-2.9068,7.6825,2.0163,6.8293,6.8966,1.7561,9.6618,-6.8608,4.813,6.8293,6.8966,7.8818,-16.190001,-2.9206,-11.365,0.0,-9.5974,-10.757,1.0742,-19.704,-2.0513
2.7804,6.7302,6.8943,9.7561,10.837,1.7561,10.628,0.90615,4.813,9.7561,10.837,10.837,-10.476,0.88889,-6.6032,1.9231,-5.7327,-3.9936,1.0742,-14.778,-1.0897
4.6761,4.8254,7.8699,3.9024,9.8522,5.6585,8.6957,-1.0356,3.8374,3.9024,9.8522,10.837,-9.5238,-1.0159,-4.6984,0.0,-5.7327,-3.9936,-11.248,-12.808,-3.0128
5.624,4.8254,6.8943,3.9024,8.867,8.5854,2.8986,-9.7735,1.8862,3.9024,8.867,9.8522,-9.5238,-2.9206,-4.6984,-1.9231,-6.6989,-4.9597,-1.7694,-11.823,-6.859
0.88468,0.06349,1.0407,7.8049,3.9409,2.7317,-1.9324,-2.9773,-0.06504,7.8049,3.9409,3.9409,-11.429,-5.7778,-8.5079,-6.7308,-9.5974,-2.0612,5.8136,-13.793,-11.667
-1.0111,-0.88889,1.0407,5.8537,-0.98522,1.7561,6.7633,-2.9773,-2.0163,5.8537,-0.98522,2.9557,-10.476,-4.8254,-7.5556,-4.8077,-7.6651,-2.0612,-2.7172,-12.808,-8.7821
1.8325,1.0159,4.9431,5.8537,-3.9409,2.7317,5.7971,6.7314,-2.0163,5.8537,-3.9409,3.9409,-8.5714,-1.0159,-3.746,0.96154,-2.8341,2.7697,-0.82148,-5.9113,-1.0897
3.7283,1.0159,3.9675,1.9512,-10.837,1.7561,-0.96618,11.586,-4.9431,1.9512,-10.837,0.98522,-11.429,-1.9683,-3.746,0.96154,-3.8003,0.83736,-5.5608,-5.9113,0.83333
5.624,1.0159,4.9431,0.0,-3.9409,7.6098,0.0,2.8479,-4.9431,0.0,-3.9409,1.9704,-14.286,-5.7778,-3.746,0.0,-5.7327,1.8035,-4.613,-5.9113,1.7949
1.8325,-1.8413,2.0163,0.97561,-0.98522,2.7317,-6.7633,-3.9482,-3.9675,0.97561,-0.98522,-1.9704,-13.333,-5.7778,-3.746,-2.8846,-7.6651,2.7697,-2.7172,-5.9113,0.83333
0.88468,-5.6508,-0.91057,-4.878,-2.9557,-1.1707,-7.7295,-8.8026,-5.9187,-4.878,-2.9557,-4.9261,-10.476,-3.873,-3.746,-4.8077,-6.6989,5.6683,2.0221,-3.9409,0.83333
-4.8025,-10.413,-5.7886,-6.8293,-4.9261,-4.0976,-8.6957,-0.06472,-3.9675,-6.8293,-4.9261,-8.867,-6.6667,-1.9683,-4.6984,-5.7692,-5.7327,0.83736,1.0742,-1.9704,1.7949
-10.49,-12.317,-10.667,-6.8293,-7.8818,-10.927,-16.424999,5.7605,-3.9675,-6.8293,-7.8818,-12.808,-4.7619,-2.9206,-7.5556,-8.6538,-5.7327,-0.12882,0.12638,0.0,-3.9744
-13.333,-13.27,-15.545,-4.878,-7.8818,-12.878,-10.628,-0.06472,-3.9675,-4.878,-7.8818,-14.778,-5.7143,-3.873,-11.365,-11.538,-7.6651,-4.9597,3.9179,-5.9113,-9.7436
-17.125,-14.222,-20.423,-3.9024,-10.837,-14.829,-11.594,-6.8608,-6.8943,-3.9024,-10.837,-16.749001,-5.7143,-1.9683,-14.222,-14.423,-8.6312,-9.7907,-5.5608,-6.8966,-9.7436
-17.125,-11.365,-19.447001,-6.8293,-15.764,-13.854,-10.628,-5.89,-2.9919,-6.8293,-15.764,-15.764,-3.8095,-0.06349,-14.222,-12.5,-7.6651,-12.689,-3.6651,-6.8966,-8.7821
-14.281,-9.4603,-14.569,-3.9024,-9.8522,-8.9756,-6.7633,-9.7735,-2.0163,-3.9024,-9.8522,-10.837,-3.8095,-4.8254,-14.222,-10.577,-7.6651,-11.723,-4.613,-8.867,-8.7821
-12.385,-6.6032,-11.642,2.9268,5.9113,-4.0976,-7.7295,-6.8608,0.91057,2.9268,5.9113,-6.8966,-7.619,-9.5873,-16.127001,-10.577,-8.6312,-8.8245,2.0221,-10.837,-11.667
-16.177,-4.6984,-9.6911,2.9268,9.8522,-8.9756,-1.9324,2.8479,2.8618,2.9268,9.8522,-4.9261,-11.429,-11.492,-18.983999,-11.538,-10.564,-4.9597,2.0221,-12.808,-16.474001
-17.125,-4.6984,-8.7154,-0.97561,5.9113,-9.9512,-4.8309,3.8188,0.91057,-0.97561,5.9113,-5.9113,-12.381,-18.159,-18.983999,-10.577,-11.53,-4.9597,-3.6651,-14.778,-20.320999
-9.5419,-1.8413,-4.813,2.9268,3.9409,-1.1707,-1.9324,-8.8026,0.91057,2.9268,3.9409,-1.9704,-14.286,-22.921,-16.127001,-8.6538,-11.53,-9.7907,-9.3523,-16.749001,-16.474001
-8.594,-2.7937,-4.813,3.9024,2.9557,-3.122,-0.96618,-2.0065,-1.0407,3.9024,2.9557,-1.9704,-16.190001,-22.921,-15.175,-9.6154,-13.462,-7.8583,-7.4566,-13.793,-13.59
-3.8547,-4.6984,-4.813,2.9268,-1.9704,3.7073,-1.9324,0.90615,-0.06504,2.9268,-1.9704,0.0,-16.190001,-17.205999,-11.365,-8.6538,-13.462,-4.9597,-0.82148,-12.808,-6.859
-1.9589,-3.746,-1.8862,1.9512,-1.9704,-1.1707,-2.8986,6.7314,0.91057,1.9512,-1.9704,-0.98522,-11.429,-7.6825,-6.6032,-2.8846,-7.6651,-0.12882,-1.7694,-7.8818,3.7179
-1.9589,-2.7937,-1.8862,-0.97561,-2.9557,-5.0732,-5.7971,6.7314,-0.06504,-0.97561,-2.9557,-3.9409,-8.5714,-4.8254,-3.746,-0.96154,-4.7665,-4.9597,-1.7694,-7.8818,2.7564
1.8325,-1.8413,2.0163,-1.9512,-7.8818,0.78049,-0.96618,2.8479,-1.0407,-1.9512,-7.8818,0.0,-6.6667,-1.9683,0.06349,1.9231,0.06441,-2.0612,4.8657,-5.9113,1.7949
5.624,2.9206,6.8943,2.9268,-0.98522,5.6585,2.8986,4.7896,-0.06504,2.9268,-0.98522,5.9113,-0.95238,3.746,5.7778,5.7692,4.8953,7.6006,-8.4044,1.9704,5.641
12.259,5.7778,12.748,4.878,4.9261,17.365999,7.7295,-2.0065,1.8862,4.878,4.9261,14.778,0.95238,5.6508,10.54,7.6923,7.7939,6.6345,-0.82148,1.9704,6.6026
12.259,3.873,13.724,3.9024,9.8522,14.439,10.628,9.644,4.813,3.9024,9.8522,16.749001,0.0,1.8413,9.5873,4.8077,5.8615,3.7359,2.0221,1.9704,4.6795
15.103,4.8254,14.699,11.707,13.793,14.439,17.391001,13.528,8.7154,11.707,13.793,20.690001,0.95238,-0.06349,9.5873,3.8462,3.9291,7.6006,1.0742,2.9557,4.6795
12.259,5.7778,12.748,11.707,9.8522,18.341,17.391001,9.644,8.7154,11.707,9.8522,21.674999,-3.8095,-7.6825,3.873,-1.9231,-2.8341,5.6683,5.8136,-1.9704,-3.0128
9.4155,4.8254,8.8455,9.7561,10.837,17.365999,18.357,17.410999,6.7642,9.7561,10.837,19.704,-5.7143,-13.397,1.0159,-6.7308,-7.6651,8.5668,6.7615,0.98522,-7.8205
8.4676,2.9206,5.9187,12.683,11.823,15.415,13.527,10.615,2.8618,12.683,11.823,16.749001,-3.8095,-10.54,1.0159,-8.6538,-7.6651,3.7359,-1.7694,3.9409,-6.859
10.363,1.9683,6.8943,13.659,11.823,18.341,6.7633,5.7605,-0.06504,13.659,11.823,15.764,1.9048,-3.873,3.873,-6.7308,-3.8003,3.7359,-6.5087,6.8966,-3.9744
12.259,2.9206,7.8699,10.732,6.8966,17.365999,8.6957,13.528,-0.06504,10.732,6.8966,14.778,5.7143,-0.06349,6.7302,-2.8846,1.0306,11.465,-7.4566,10.837,-2.0513
9.4155,1.9683,6.8943,7.8049,0.0,10.537,7.7295,17.410999,-0.06504,7.8049,0.0,10.837,7.619,0.88889,7.6825,0.0,3.9291,11.465,3.9179,14.778,-2.0513
7.5197,4.8254,6.8943,5.8537,-3.9409,9.561,6.7633,12.557,-0.06504,5.8537,-3.9409,8.867,8.5714,1.8413,7.6825,2.8846,5.8615,9.533,3.9179,13.793,1.7949
7.5197,4.8254,4.9431,4.878,-2.9557,11.512,3.8647,2.8479,-2.9919,4.878,-2.9557,6.8966,6.6667,0.88889,5.7778,2.8846,5.8615,6.6345,2.97,9.8522,0.83333
3.7283,1.0159,2.0163,-0.97561,1.9704,6.6341,1.9324,-0.06472,-5.9187,-0.97561,1.9704,1.9704,2.8571,-1.0159,3.873,0.96154,3.9291,2.7697,4.8657,2.9557,-2.0513
6.5719,1.9683,2.0163,-0.97561,-1.9704,11.512,-2.8986,-11.715,-5.9187,-0.97561,-1.9704,1.9704,3.8095,0.88889,4.8254,3.8462,4.8953,-1.095,2.0221,1.9704,0.83333
-1.0111,2.9206,-1.8862,-5.8537,-4.9261,-5.0732,-4.8309,-0.06472,-4.9431,-5.8537,-4.9261,-2.9557,1.9048,0.88889,1.0159,5.7692,2.963,-3.0274,-11.248,2.9557,3.7179
-6.6983,4.8254,-3.8374,-6.8293,2.9557,-11.902,-0.96618,7.7023,-2.0163,-6.8293,2.9557,-5.9113,2.8571,6.6032,-0.88889,8.6538,2.963,-1.095,-3.6651,4.9261,9.4872
-3.8547,3.873,-2.8618,-0.97561,2.9557,-4.0976,0.96618,-0.06472,-2.0163,-0.97561,2.9557,-3.9409,3.8095,14.222,1.0159,11.538,5.8615,1.8035,7.7093,5.9113,15.256
-3.8547,0.06349,-1.8862,-3.9024,-1.9704,-0.19512,-6.7633,-7.8317,-3.9675,-3.9024,-1.9704,-4.9261,6.6667,17.079,1.0159,11.538,7.7939,-6.8921,2.97,1.9704,15.256
-1.9589,1.0159,-1.8862,-5.8537,-4.9261,-3.122,-5.7971,-4.9191,-3.9675,-5.8537,-4.9261,-5.9113,9.5238,19.937,1.9683,13.462,8.7601,-3.9936,-5.5608,1.9704,18.141001
-5.7504,2.9206,-2.8618,-7.8049,-11.823,-11.902,-1.9324,-0.06472,-5.9187,-7.8049,-11.823,-8.867,6.6667,18.032,-0.88889,10.577,6.8277,-1.095,3.9179,0.0,13.333
-6.6983,2.9206,-2.8618,-7.8049,-12.808,-11.902,1.9324,-3.9482,-6.8943,-7.8049,-12.808,-8.867,7.619,16.127001,-2.7937,7.6923,4.8953,-6.8921,-2.7172,-5.9113,6.6026
-6.6983,-0.88889,-2.8618,-7.8049,-10.837,-8.9756,-2.8986,-14.628,-5.9187,-7.8049,-10.837,-7.8818,10.476,15.175,-3.746,4.8077,1.9968,-7.8583,-3.6651,-5.9113,5.641
-7.6461,-0.88889,-3.8374,-11.707,-3.9409,-8.9756,-12.56,-10.744,-6.8943,-11.707,-3.9409,-10.837,13.333,13.27,-6.6032,1.9231,-0.90177,-3.9936,4.8657,-0.98522,7.5641
-13.333,-3.746,-8.7154,-15.61,-3.9409,-15.805,-16.424999,-6.8608,-9.8211,-15.61,-3.9409,-15.764,13.333,8.5079,-10.413,-1.9231,-4.7665,-3.9936,2.97,2.9557,6.6026
-14.281,-6.6032,-11.642,-15.61,-12.808,-15.805,-15.459,-13.657,-10.797,-15.61,-12.808,-17.733999,13.333,2.7937,-8.5079,-5.7692,-7.6651,-8.8245,1.0742,9.8522,4.6795
-10.49,-9.4603,-11.642,-15.61,-14.778,-14.829,-13.527,-7.8317,-9.8211,-15.61,-14.778,-16.749001,15.238,-1.0159,-3.746,-6.7308,-5.7327,-3.9936,-6.5087,11.823,7.5641
-7.6461,-6.6032,-8.7154,-14.634,-14.778,-17.756001,-7.7295,0.90615,-8.8455,-14.634,-14.778,-14.778,19.048,-1.0159,1.9683,-4.8077,-2.8341,2.7697,-2.7172,16.749001,5.641
-4.8025,-2.7937,-5.7886,-13.659,-12.808,-12.878,-11.594,-3.9482,-8.8455,-13.659,-12.808,-12.808,21.905001,5.6508,6.7302,-0.96154,1.9968,5.6683,3.9179,18.719,4.6795
-4.8025,-2.7937,-4.813,-11.707,-15.764,-12.878,-10.628,-5.89,-9.8211,-11.707,-15.764,-12.808,21.905001,12.317,10.54,3.8462,7.7939,3.7359,3.9179,18.719,10.449
-0.06319,-1.8413,-1.8862,-11.707,-15.764,-4.0976,-5.7971,-19.482,-7.8699,-11.707,-15.764,-9.8522,25.714001,19.937,15.302,9.6154,15.523,4.7021,3.9179,21.674999,15.256
3.7283,1.0159,0.06504,-10.732,-9.8522,-3.122,-5.7971,-11.715,-6.8943,-10.732,-9.8522,-6.8966,29.524,24.698,19.111,11.538,19.388,6.6345,4.8657,24.631001,17.179001
-1.0111,1.0159,-0.91057,-7.8049,-8.867,-13.854,-5.7971,0.90615,-6.8943,-7.8049,-8.867,-8.867,25.714001,22.794001,17.205999,10.577,19.388,-3.0274,1.0742,17.733999,12.372
-1.0111,1.9683,1.0407,-9.7561,-9.8522,-11.902,-8.6957,-2.0065,-4.9431,-9.7561,-9.8522,-5.9113,24.761999,24.698,15.302,12.5,19.388,-8.8245,0.12638,14.778,14.295
0.88468,1.9683,2.0163,-6.8293,-0.98522,-5.0732,-1.9324,-3.9482,-2.9919,-6.8293,-0.98522,-1.9704,18.094999,18.983999,11.492,8.6538,16.49,-3.0274,-2.7172,9.8522,6.6026
4.6761,4.8254,5.9187,1.9512,6.8966,2.7317,6.7633,2.8479,2.8618,1.9512,6.8966,4.9261,12.381,13.27,10.54,8.6538,15.523,2.7697,1.0742,6.8966,-0.12821
9.4155,8.6349,9.8211,7.8049,10.837,12.488,12.56,3.8188,4.813,7.8049,10.837,11.823,7.619,10.413,7.6825,9.6154,15.523,1.8035,5.8136,0.0,0.83333
10.363,6.7302,11.772,14.634,13.793,18.341,14.493,8.6731,7.7398,14.634,13.793,16.749001,0.95238,3.746,3.873,6.7308,11.659,-0.12882,6.7615,-7.8818,-3.9744
13.207,9.5873,13.724,19.511999,15.764,20.292999,16.424999,19.353001,9.6911,19.511999,15.764,20.690001,-4.7619,-2.9206,1.0159,3.8462,7.7939,10.499,6.7615,-10.837,-6.859
16.997999,10.54,15.675,21.462999,16.749001,26.146,19.323999,15.469,11.642,21.462999,16.749001,23.645,-9.5238,-5.7778,1.0159,2.8846,5.8615,11.465,2.0221,-10.837,-7.8205
19.841999,8.6349,16.65,21.462999,16.749001,28.098,20.290001,20.323999,11.642,21.462999,16.749001,23.645,-11.429,-7.6825,3.873,3.8462,5.8615,11.465,-2.7172,-7.8818,-6.859
13.207,2.9206,11.772,13.659,8.867,25.171,12.56,16.440001,8.7154,13.659,8.867,17.733999,-14.286,-10.54,1.0159,0.0,1.0306,10.499,1.0742,-7.8818,-11.667
9.4155,1.0159,7.8699,10.732,9.8522,15.415,7.7295,14.498,7.7398,10.732,9.8522,10.837,-11.429,-11.492,0.06349,-1.9231,-1.868,10.499,-3.6651,-10.837,-12.628
7.5197,1.9683,3.9675,7.8049,6.8966,7.6098,1.9324,15.469,3.8374,7.8049,6.8966,4.9261,-4.7619,-9.5873,1.9683,-0.96154,-1.868,12.432,-3.6651,-2.9557,-6.859
6.5719,-3.746,0.06504,0.0,2.9557,5.6585,-6.7633,6.7314,-0.06504,0.0,2.9557,-1.9704,1.9048,-6.7302,3.873,-1.9231,-0.90177,10.499,6.7615,6.8966,-3.0128
2.7804,-6.6032,-1.8862,-2.9268,0.0,-0.19512,-10.628,4.7896,-2.9919,-2.9268,0.0,-5.9113,6.6667,-3.873,4.8254,-1.9231,1.0306,8.5668,1.0742,8.867,-0.12821
0.88468,-2.7937,-0.91057,-2.9268,-1.9704,-2.1463,-5.7971,-0.06472,-2.9919,-2.9268,-1.9704,-6.8966,13.333,-0.06349,7.6825,0.96154,3.9291,3.7359,-4.613,9.8522,5.641
-1.0111,-3.746,-2.8618,-5.8537,-9.8522,-4.0976,-6.7633,-2.9773,-3.9675,-5.8537,-9.8522,-9.8522,16.190001,-0.06349,7.6825,0.0,3.9291,4.7021,2.0221,12.808,3.7179
-9.5419,-5.6508,-7.7398,-9.7561,-11.823,-16.780001,-16.424999,-2.0065,-6.8943,-9.7561,-11.823,-16.749001,16.190001,1.8413,2.9206,-1.9231,0.06441,-2.0612,4.8657,13.793,-0.12821
-13.333,-6.6032,-9.6911,-11.707,-13.793,-21.659,-10.628,-9.7735,-4.9431,-11.707,-13.793,-16.749001,12.381,2.7937,-3.746,-3.8462,-4.7665,-13.655,-5.5608,7.8818,1.7949
-13.333,-12.317,-11.642,-10.732,-5.9113,-13.854,-9.6618,-19.482,-3.9675,-10.732,-5.9113,-13.793,3.8095,-1.0159,-11.365,-8.6538,-11.53,-14.622,-9.3523,0.0,-2.0513
-17.125,-12.317,-13.593,-9.7561,4.9261,-16.780001,-10.628,-15.599,-2.9919,-9.7561,4.9261,-12.808,-0.95238,-2.9206,-17.079,-12.5,-16.361,-13.655,-2.7172,-7.8818,-3.0128
-22.812,-12.317,-16.52,-2.9268,5.9113,-16.780001,-10.628,-11.715,-2.0163,-2.9268,5.9113,-12.808,-10.476,-5.7778,-24.698,-16.346001,-22.158001,-15.588,1.0742,-17.733999,-6.859
-19.021,-12.317,-15.545,0.0,2.9557,-8.0,-6.7633,-12.686,0.91057,0.0,2.9557,-7.8818,-17.143,-10.54,-24.698,-17.308001,-23.124001,-14.622,2.97,-21.674999,-10.705
-13.333,-9.4603,-11.642,1.9512,0.98522,-8.0,-6.7633,-0.06472,2.8618,1.9512,0.98522,-5.9113,-15.238,-12.444,-18.032,-13.462,-18.292999,-4.9597,-8.4044,-16.749001,-9.7436
-7.6461,-7.5556,-7.7398,5.8537,-0.98522,-7.0244,-6.7633,7.7023,-0.06504,5.8537,-0.98522,-4.9261,-14.286,-21.016001,-11.365,-13.462,-15.395,4.7021,0.12638,-10.837,-19.358999
0.88468,-0.88889,0.06504,9.7561,0.0,2.7317,1.9324,2.8479,3.8374,9.7561,0.0,2.9557,-12.381,-26.73,-4.6984,-8.6538,-9.5974,9.533,3.9179,-8.867,-22.243999
1.8325,1.9683,2.9919,9.7561,6.8966,1.7561,5.7971,8.6731,8.7154,9.7561,6.8966,4.9261,-13.333,-33.396999,-0.88889,-4.8077,-5.7327,8.5668,-5.5608,-7.8818,-18.396999
-0.06319,1.9683,2.0163,6.8293,11.823,-2.1463,0.96618,9.644,4.813,6.8293,11.823,1.9704,-13.333,-35.301998,0.06349,-3.8462,-5.7327,7.6006,2.0221,-3.9409,-14.551
-0.06319,1.9683,1.0407,3.9024,9.8522,-3.122,2.8986,2.8479,5.7886,3.9024,9.8522,0.98522,-10.476,-25.778,1.9683,-0.96154,-3.8003,6.6345,4.8657,-0.98522,-3.9744
1.8325,3.873,1.0407,4.878,6.8966,0.78049,4.8309,-2.9773,4.813,4.878,6.8966,0.98522,-5.7143,-6.7302,4.8254,5.7692,1.0306,4.7021,-2.7172,4.9261,11.41
-2.9068,2.9206,-1.8862,0.0,0.98522,-8.9756,0.0,1.877,-2.9919,0.0,0.98522,-4.9261,-0.95238,9.4603,4.8254,8.6538,2.963,4.7021,-2.7172,0.0,16.218
-9.5419,1.0159,-5.7886,-10.732,-5.9113,-15.805,-6.7633,-2.0065,-5.9187,-10.732,-5.9113,-10.837,0.95238,20.889,2.9206,9.6154,4.8953,2.7697,5.8136,0.0,17.179001
-10.49,1.0159,-7.7398,-12.683,-12.808,-12.878,-5.7971,-10.744,-5.9187,-12.683,-12.808,-12.808,0.0,27.556,1.9683,8.6538,5.8615,-1.095,2.0221,1.9704,18.141001
-14.281,-2.7937,-11.642,-12.683,-14.778,-17.756001,-4.8309,-10.744,-5.9187,-12.683,-14.778,-14.778,-4.7619,26.603001,-2.7937,5.7692,2.963,-8.8245,4.8657,-5.9113,16.218
-10.49,-4.6984,-10.667,-10.732,-10.837,-13.854,-6.7633,-15.599,-2.0163,-10.732,-10.837,-11.823,-5.7143,25.650999,-2.7937,5.7692,2.963,-11.723,7.7093,-7.8818,16.218
-4.8025,-2.7937,-4.813,-2.9268,3.9409,-7.0244,0.0,-11.715,1.8862,-2.9268,3.9409,-4.9261,-1.9048,26.603001,-0.88889,7.6923,4.8953,-11.723,2.97,-8.867,16.218
-2.9068,3.873,0.06504,-3.9024,13.793,-3.122,4.8309,-10.744,2.8618,-3.9024,13.793,0.98522,0.0,25.650999,0.06349,7.6923,5.8615,-17.52,-1.7694,-7.8818,15.256
-2.9068,4.8254,0.06504,1.9512,10.837,-3.122,7.7295,-12.686,4.813,1.9512,10.837,3.9409,-2.8571,19.937,-4.6984,1.9231,1.9968,-17.52,-1.7694,-8.867,6.6026
-2.9068,3.873,1.0407,1.9512,6.8966,-1.1707,12.56,-13.657,2.8618,1.9512,6.8966,5.9113,-3.8095,16.127001,-5.6508,-2.8846,-0.90177,-17.52,-2.7172,-9.8522,-0.12821
4.6761,6.7302,5.9187,4.878,8.867,5.6585,13.527,-2.9773,2.8618,4.878,8.867,11.823,0.95238,16.127001,-0.88889,-1.9231,1.9968,-7.8583,-9.3523,-3.9409,-0.12821
14.155,5.7778,11.772,16.584999,10.837,14.439,16.424999,12.557,4.813,16.584999,10.837,17.733999,4.7619,12.317,3.873,-2.8846,2.963,4.7021,-2.7172,2.9557,-3.0128
21.738001,3.873,15.675,27.316999,12.808,24.195,20.290001,22.264999,8.7154,27.316999,12.808,22.66,6.6667,8.5079,9.5873,-1.9231,4.8953,15.33,-3.6651,4.9261,-4.9359
20.790001,0.06349,11.772,21.462999,12.808,25.171,10.628,16.440001,3.8374,21.462999,12.808,19.704,2.8571,-1.0159,8.6349,-5.7692,1.0306,16.296,-10.3,3.9409,-9.7436
21.738001,4.8254,11.772,21.462999,8.867,27.122,12.56,17.410999,3.8374,21.462999,8.867,18.719,2.8571,-2.9206,9.5873,-1.9231,1.0306,12.432,-10.3,8.867,-5.8974
13.207,2.9206,2.9919,20.488001,11.823,23.219999,7.7295,10.615,3.8374,20.488001,11.823,12.808,0.0,-8.6349,3.873,-4.8077,-2.8341,8.5668,-4.613,3.9409,-9.7436
4.6761,-0.88889,-4.813,11.707,15.764,7.6098,1.9324,13.528,0.91057,11.707,15.764,0.98522,-3.8095,-14.349,-0.88889,-7.6923,-6.6989,2.7697,-1.7694,0.98522,-13.59
4.6761,-3.746,-6.7642,6.8293,8.867,6.6341,-2.8986,8.6731,2.8618,6.8293,8.867,-1.9704,-2.8571,-15.302,-0.88889,-5.7692,-4.7665,0.83736,3.9179,1.9704,-12.628
-1.9589,-5.6508,-8.7154,4.878,3.9409,2.7317,-10.628,-2.9773,0.91057,4.878,3.9409,-5.9113,-1.9048,-16.254,-1.8413,-3.8462,-2.8341,0.83736,7.7093,3.9409,-9.7436
-4.8025,-1.8413,-6.7642,3.9024,-0.98522,-4.0976,-7.7295,-2.0065,-0.06504,3.9024,-0.98522,-8.867,1.9048,-13.397,1.9683,2.8846,3.9291,1.8035,-0.82148,5.9113,-3.9744
-1.9589,0.06349,-2.8618,3.9024,0.0,-6.0488,-3.8647,-4.9191,2.8618,3.9024,0.0,-7.8818,4.7619,-11.492,5.7778,5.7692,7.7939,-1.095,-0.82148,6.8966,-3.0128
-2.9068,-2.7937,-1.8862,0.97561,1.9704,-5.0732,-5.7971,-9.7735,1.8862,0.97561,1.9704,-8.867,0.95238,-12.444,3.873,3.8462,6.8277,-2.0612,1.0742,6.8966,-6.859
-4.8025,-0.88889,0.06504,-1.9512,0.98522,-7.0244,-11.594,-6.8608,1.8862,-1.9512,0.98522,-7.8818,2.8571,-6.7302,4.8254,6.7308,8.7601,-10.757,-0.82148,1.9704,-3.0128
-5.7504,1.9683,3.9675,-4.878,0.0,-7.0244,-6.7633,-11.715,-0.06504,-4.878,0.0,-6.8966,4.7619,-1.9683,4.8254,8.6538,11.659,-11.723,-2.7172,-0.98522,0.83333
-0.06319,1.9683,8.8455,-8.7805,-3.9409,-3.122,-4.8309,-15.599,-6.8943,-8.7805,-3.9409,-3.9409,3.8095,-1.0159,7.6825,9.6154,13.591,-5.9259,-12.196,-0.98522,0.83333
8.4676,3.873,16.65,-5.8537,-1.9704,4.6829,0.0,-19.482,-7.8699,-5.8537,-1.9704,1.9704,7.619,5.6508,14.349,15.385,20.354,-4.9597,-3.6651,3.9409,7.5641
8.4676,7.6825,18.601999,-6.8293,-0.98522,-2.1463,0.0,-11.715,-6.8943,-6.8293,-0.98522,1.9704,7.619,8.5079,16.254,17.308001,21.32,-6.8921,1.0742,4.9261,9.4872
11.311,8.6349,20.552999,-5.8537,-1.9704,-3.122,3.8647,-11.715,-2.9919,-5.8537,-1.9704,3.9409,4.7619,6.6032,15.302,15.385,20.354,-8.8245,-1.7694,1.9704,4.6795
13.207,9.5873,22.504,0.97561,-0.98522,0.78049,10.628,-6.8608,-0.06504,0.97561,-0.98522,8.867,0.95238,5.6508,13.397,13.462,17.455999,-4.9597,0.12638,-0.98522,0.83333
11.311,9.5873,20.552999,2.9268,0.98522,5.6585,13.527,-3.9482,3.8374,2.9268,0.98522,10.837,-4.7619,-1.0159,10.54,9.6154,12.625,-3.9936,-1.7694,-0.98522,-1.0897
9.4155,6.7302,17.625999,5.8537,3.9409,10.537,7.7295,-8.8026,5.7886,5.8537,3.9409,11.823,-7.619,-6.7302,7.6825,3.8462,7.7939,-11.723,2.97,-0.98522,-5.8974
11.311,5.7778,16.65,11.707,11.823,9.561,9.6618,1.877,9.6911,11.707,11.823,12.808,-2.8571,-3.873,8.6349,2.8846,6.8277,-1.095,2.0221,5.9113,-2.0513
5.624,-1.8413,6.8943,8.7805,9.8522,-1.1707,3.8647,9.644,4.813,8.7805,9.8522,5.9113,-5.7143,-12.444,2.9206,-6.7308,-0.90177,9.533,-4.613,4.9261,-12.628
2.7804,-5.6508,2.0163,3.9024,4.9261,1.7561,-1.9324,2.8479,-0.06504,3.9024,4.9261,3.9409,-6.6667,-17.205999,0.06349,-12.5,-5.7327,2.7697,-5.5608,1.9704,-19.358999
0.88468,-8.5079,0.06504,6.8293,5.9113,5.6585,-1.9324,1.877,-2.9919,6.8293,5.9113,3.9409,-3.8095,-19.111,-0.88889,-13.462,-6.6989,2.7697,-10.3,0.98522,-18.396999
-0.06319,-12.317,-2.8618,7.8049,2.9557,3.7073,-7.7295,11.586,-6.8943,7.8049,2.9557,1.9704,0.0,-16.254,-1.8413,-13.462,-6.6989,9.533,-11.248,6.8966,-15.513
3.7283,-8.5079,-2.8618,6.8293,-4.9261,5.6585,-6.7633,9.644,-8.8455,6.8293,-4.9261,0.98522,3.8095,-11.492,0.06349,-8.6538,-4.7665,7.6006,-8.4044,11.823,-9.7436
0.88468,-7.5556,-2.8618,0.0,-8.867,-2.1463,-8.6957,9.644,-11.772,0.0,-8.867,-2.9557,3.8095,-10.54,0.06349,-4.8077,-3.8003,8.5668,-10.3,10.837,-3.9744
2.7804,-2.7937,0.06504,-3.9024,-12.808,-3.122,-7.7295,9.644,-13.724,-3.9024,-12.808,-0.98522,1.9048,-11.492,0.06349,-3.8462,-3.8003,1.8035,-3.6651,6.8966,-4.9359
3.7283,-1.8413,2.0163,-4.878,-13.793,2.7317,-10.628,1.877,-13.724,-4.878,-13.793,0.98522,0.95238,-12.444,-0.88889,-4.8077,-5.7327,-1.095,-10.3,4.9261,-8.7821
5.624,2.9206,5.9187,-4.878,-8.867,2.7317,0.96618,7.7023,-8.8455,-4.878,-8.867,4.9261,2.8571,-6.7302,0.06349,0.0,-1.868,6.6345,-8.4044,6.8966,-1.0897
9.4155,9.5873,11.772,0.97561,-1.9704,9.561,8.6957,7.7023,-0.06504,0.97561,-1.9704,10.837,4.7619,-0.06349,3.873,6.7308,1.9968,8.5668,1.0742,7.8818,8.5256
10.363,10.54,13.724,3.9024,-0.98522,15.415,9.6618,-3.9482,4.813,3.9024,-0.98522,13.793,3.8095,-0.06349,4.8254,6.7308,3.9291,1.8035,14.344,2.9557,7.5641
8.4676,14.349,15.675,3.9024,1.9704,14.439,13.527,-2.0065,9.6911,3.9024,1.9704,16.749001,1.9048,1.8413,4.8254,7.6923,4.8953,-1.095,19.084,-0.98522,5.641
7.5197,19.111,16.65,5.8537,11.823,8.5854,18.357,6.7314,15.545,5.8537,11.823,17.733999,-0.95238,2.7937,3.873,9.6154,4.8953,-2.0612,19.084,-4.9261,7.5641
3.7283,19.111,12.748,7.8049,17.733999,2.7317,16.424999,3.8188,15.545,7.8049,17.733999,14.778,-6.6667,1.8413,0.06349,8.6538,1.9968,-7.8583,18.136,-9.8522,9.4872
-0.06319,15.302,8.8455,6.8293,11.823,0.78049,20.290001,-1.0356,16.52,6.8293,11.823,13.793,-9.5238,-0.06349,-3.746,5.7692,0.06441,-7.8583,5.8136,-14.778,7.5641
0.88468,9.5873,6.8943,6.8293,14.778,6.6341,19.323999,-6.8608,15.545,6.8293,14.778,13.793,-8.5714,0.88889,-4.6984,1.9231,-1.868,-10.757,10.553,-15.764,7.5641
1.8325,4.8254,2.9919,12.683,15.764,12.488,15.459,-4.9191,14.569,12.683,15.764,13.793,-10.476,-1.9683,-8.5079,-2.8846,-4.7665,-9.7907,16.24,-18.719,4.6795
-5.7504,2.9206,-0.91057,14.634,14.778,0.78049,13.527,7.7023,12.618,14.634,14.778,9.8522,-14.286,-4.8254,-13.27,-5.7692,-8.6312,-4.9597,8.6572,-22.66,6.6026
-9.5419,1.0159,-4.813,11.707,16.749001,-1.1707,9.6618,10.615,8.7154,11.707,16.749001,6.8966,-16.190001,-8.6349,-16.127001,-9.6154,-12.496,-3.9936,11.501,-21.674999,1.7949
-9.5419,-3.746,-7.7398,16.584999,17.733999,3.7073,6.7633,10.615,7.7398,16.584999,17.733999,4.9261,-14.286,-7.6825,-17.079,-12.5,-15.395,-1.095,1.0742,-16.749001,-1.0897
-9.5419,-6.6032,-11.642,20.488001,12.808,1.7561,3.8647,15.469,4.813,20.488001,12.808,2.9557,-10.476,-2.9206,-18.032,-13.462,-16.361,4.7021,-6.5087,-13.793,1.7949
-5.7504,-8.5079,-11.642,23.415001,16.749001,6.6341,0.96618,17.410999,1.8862,23.415001,16.749001,3.9409,-5.7143,2.7937,-16.127001,-12.5,-16.361,15.33,-0.82148,-6.8966,5.641
-7.6461,-12.317,-15.545,21.462999,16.749001,0.78049,-4.8309,24.207001,0.91057,21.462999,16.749001,-0.98522,-0.95238,3.746,-16.127001,-13.462,-17.327,13.398,2.97,-3.9409,4.6795
-8.594,-16.127001,-19.447001,21.462999,12.808,1.7561,-7.7295,9.644,-3.9675,21.462999,12.808,-4.9261,0.0,1.8413,-17.079,-16.346001,-21.191999,13.398,-1.7694,-1.9704,0.83333
-10.49,-13.27,-18.472,23.415001,12.808,2.7317,-7.7295,11.586,-1.0407,23.415001,12.808,-4.9261,0.95238,2.7937,-17.079,-14.423,-21.191999,16.296,-4.613,-4.9261,1.7949
-16.177,-11.365,-19.447001,20.488001,10.837,-5.0732,-5.7971,14.498,-2.9919,20.488001,10.837,-7.8818,0.95238,1.8413,-18.983999,-13.462,-22.158001,11.465,-1.7694,-4.9261,-1.0897
-15.229,-8.5079,-16.52,21.462999,13.793,-2.1463,-3.8647,10.615,0.91057,21.462999,13.793,-5.9113,-0.95238,-0.06349,-18.983999,-11.538,-21.191999,12.432,-6.5087,0.0,-4.9359
-9.5419,-4.6984,-10.667,25.365999,24.631001,3.7073,3.8647,9.644,13.593,25.365999,24.631001,0.0,-0.95238,-2.9206,-15.175,-7.6923,-17.327,11.465,2.0221,0.98522,-3.9744
-1.9589,1.0159,-3.8374,27.316999,31.527,6.6341,9.6618,16.440001,19.447001,27.316999,31.527,5.9113,2.8571,-1.9683,-7.5556,-0.96154,-10.564,14.364,7.7093,7.8818,0.83333
2.7804,6.7302,1.0407,36.098,30.542,7.6098,10.628,16.440001,20.423,36.098,30.542,7.8818,4.7619,-0.06349,-1.8413,3.8462,-4.7665,10.499,12.449,6.8966,3.7179
5.624,4.8254,1.0407,37.073002,23.645,12.488,9.6618,1.877,15.545,37.073002,23.645,5.9113,4.7619,-1.0159,0.06349,3.8462,-2.8341,-0.12882,15.292,7.8818,1.7949
5.624,3.873,1.0407,29.268,23.645,10.537,11.594,4.7896,13.593,29.268,23.645,3.9409,6.6667,3.746,3.873,4.8077,1.0306,3.7359,4.8657,12.808,4.6795
1.8325,1.9683,0.06504,20.488001,21.674999,7.6098,3.8647,5.7605,12.618,20.488001,21.674999,0.0,7.619,8.5079,4.8254,3.8462,1.9968,11.465,2.0221,13.793,7.5641
2.7804,1.0159,2.0163,10.732,11.823,-0.19512,-3.8647,10.615,5.7886,10.732,11.823,-3.9409,10.476,10.413,7.6825,4.8077,5.8615,14.364,-5.5608,15.764,8.5256
8.4676,4.8254,6.8943,7.8049,4.9261,4.6829,-2.8986,3.8188,0.91057,7.8049,4.9261,-1.9704,13.333,16.127001,12.444,9.6154,11.659,14.364,-4.613,20.690001,12.372
10.363,6.7302,8.8455,4.878,-0.98522,5.6585,-2.8986,3.8188,-2.9919,4.878,-0.98522,0.0,12.381,18.032,13.397,10.577,12.625,14.364,2.97,21.674999,11.41
8.4676,6.7302,7.8699,0.0,-2.9557,-1.1707,-2.8986,12.557,-2.0163,0.0,-2.9557,-0.98522,9.5238,17.079,13.397,10.577,11.659,19.195,6.7615,18.719,10.449
6.5719,3.873,6.8943,-7.8049,-3.9409,-2.1463,-1.9324,4.7896,3.8374,-7.8049,-3.9409,-2.9557,5.7143,16.127001,11.492,9.6154,9.7262,10.499,3.9179,16.749001,11.41
8.4676,5.7778,6.8943,-4.878,-4.9261,-2.1463,2.8986,6.7314,6.7642,-4.878,-4.9261,-1.9704,1.9048,14.222,9.5873,10.577,7.7939,8.5668,-7.4566,3.9409,13.333
4.6761,7.6825,4.9431,0.97561,2.9557,0.78049,-3.8647,6.7314,8.7154,0.97561,2.9557,-1.9704,-1.9048,12.317,6.7302,10.577,4.8953,12.432,1.0742,0.98522,15.256
1.8325,4.8254,-1.8862,-0.97561,2.9557,-1.1707,-2.8986,0.90615,8.7154,-0.97561,2.9557,-6.8966,-2.8571,9.4603,4.8254,5.7692,2.963,9.533,10.553,4.9261,10.449
-2.9068,-0.88889,-9.6911,-5.8537,-2.9557,-4.0976,-2.8986,-7.8317,7.7398,-5.8537,-2.9557,-9.8522,-2.8571,4.6984,3.873,1.9231,0.06441,7.6006,9.6051,3.9409,6.6026
-5.7504,-4.6984,-13.593,-10.732,-6.8966,-10.927,-5.7971,-2.9773,7.7398,-10.732,-6.8966,-11.823,-2.8571,-1.0159,1.9683,-0.96154,-0.90177,4.7021,3.9179,-1.9704,5.641
-10.49,-6.6032,-16.52,-13.659,-5.9113,-16.780001,-9.6618,0.90615,3.8374,-13.659,-5.9113,-14.778,-0.95238,-4.8254,0.06349,-3.8462,-3.8003,2.7697,-2.7172,-2.9557,1.7949
-7.6461,-2.7937,-12.618,-13.659,2.9557,-7.0244,-3.8647,-13.657,6.7642,-13.659,2.9557,-8.867,0.95238,-3.873,1.9683,-1.9231,-0.90177,-1.095,-6.5087,0.98522,1.7949
-5.7504,-0.88889,-10.667,-11.707,0.98522,-8.0,-2.8986,-9.7735,8.7154,-11.707,0.98522,-6.8966,5.7143,-1.9683,4.8254,0.96154,1.9968,-6.8921,6.7615,3.9409,2.7564
-1.9589,-3.746,-8.7154,-12.683,-3.9409,-5.0732,-0.96618,-7.8317,7.7398,-12.683,-3.9409,-3.9409,5.7143,-3.873,5.7778,-0.96154,2.963,-3.0274,15.292,4.9261,-4.9359
0.88468,-0.88889,-2.8618,-5.8537,-3.9409,1.7561,2.8986,-1.0356,8.7154,-5.8537,-3.9409,1.9704,7.619,-1.9683,7.6825,0.0,5.8615,4.7021,10.553,3.9409,-7.8205
0.88468,3.873,0.06504,1.9512,-2.9557,-1.1707,0.0,7.7023,4.813,1.9512,-2.9557,3.9409,6.6667,-1.0159,6.7302,1.9231,4.8953,8.5668,6.7615,3.9409,-4.9359
4.6761,1.9683,2.0163,-0.97561,-3.9409,2.7317,3.8647,5.7605,3.8374,-0.97561,-3.9409,6.8966,3.8095,-2.9206,3.873,0.96154,1.9968,9.533,4.8657,3.9409,-4.9359
11.311,4.8254,4.9431,0.97561,-5.9113,14.439,11.594,2.8479,4.813,0.97561,-5.9113,12.808,2.8571,-1.9683,4.8254,3.8462,2.963,8.5668,-11.248,1.9704,-1.0897
11.311,4.8254,7.8699,-0.97561,-7.8818,10.537,9.6618,5.7605,1.8862,-0.97561,-7.8818,13.793,-0.95238,-6.7302,2.9206,1.9231,1.0306,7.6006,2.0221,-0.98522,-7.8205
8.4676,2.9206,7.8699,-2.9268,-7.8818,3.7073,2.8986,9.644,0.91057,-2.9268,-7.8818,11.823,-4.7619,-10.54,0.06349,-0.96154,-1.868,2.7697,7.7093,-6.8966,-11.667
8.4676,3.873,9.8211,-5.8537,-2.9557,6.6341,5.7971,6.7314,-1.0407,-5.8537,-2.9557,11.823,-5.7143,-11.492,-0.88889,-0.96154,-1.868,-3.9936,-2.7172,-9.8522,-9.7436
0.88468,-0.88889,4.9431,-9.7561,-8.867,4.6829,0.96618,5.7605,-2.9919,-9.7561,-8.867,6.8966,-12.381,-19.111,-6.6032,-4.8077,-5.7327,-15.588,-3.6651,-14.778,-11.667
-1.9589,-3.746,2.0163,-3.9024,-4.9261,10.537,2.8986,-7.8317,-2.9919,-3.9024,-4.9261,5.9113,-16.190001,-20.063,-10.413,-7.6923,-7.6651,-8.8245,-13.144,-18.719,-8.7821
-5.7504,-9.4603,-2.8618,-4.878,-9.8522,-1.1707,-1.9324,-2.0065,-4.9431,-4.878,-9.8522,-0.98522,-15.238,-14.349,-12.317,-10.577,-10.564,-5.9259,-15.039,-18.719,-4.9359
-9.5419,-12.317,-6.7642,-10.732,-14.778,-8.9756,-8.6957,2.8479,-7.8699,-10.732,-14.778,-7.8818,-14.286,-3.873,-14.222,-11.538,-10.564,-9.7907,-12.196,-16.749001,-3.0128
-8.594,-17.079,-9.6911,-11.707,-14.778,-7.0244,-13.527,-6.8608,-8.8455,-11.707,-14.778,-10.837,-11.429,4.6984,-13.27,-13.462,-10.564,-9.7907,-5.5608,-13.793,-3.9744
-11.438,-15.175,-11.642,-7.8049,-9.8522,-9.9512,-11.594,-2.0065,-6.8943,-7.8049,-9.8522,-10.837,-7.619,12.317,-13.27,-11.538,-8.6312,-9.7907,3.9179,-9.8522,-2.0513
-12.385,-12.317,-12.618,-8.7805,-11.823,-8.0,-16.424999,-8.8026,-7.8699,-8.7805,-11.823,-11.823,-4.7619,18.983999,-13.27,-8.6538,-7.6651,-11.723,1.0742,-7.8818,1.7949
-11.438,-13.27,-13.593,-15.61,-12.808,-8.9756,-18.357,-2.9773,-7.8699,-15.61,-12.808,-13.793,-0.95238,20.889,-11.365,-4.8077,-4.7665,-14.622,-6.5087,-7.8818,8.5256
-10.49,-14.222,-14.569,-18.537001,-16.749001,-8.0,-17.391001,-5.89,-8.8455,-18.537001,-16.749001,-14.778,-0.95238,18.983999,-11.365,-3.8462,-3.8003,-11.723,-5.5608,-9.8522,5.641
-4.8025,-10.413,-10.667,-12.683,-22.66,2.7317,-18.357,-15.599,-11.772,-12.683,-22.66,-11.823,2.8571,20.889,-6.6032,0.96154,1.0306,-11.723,-0.82148,-5.9113,5.641
-6.6983,-5.6508,-8.7154,-16.584999,-18.719,-8.9756,-17.391001,-3.9482,-12.748,-16.584999,-18.719,-15.764,5.7143,22.794001,-1.8413,5.7692,6.8277,-3.0274,6.7615,1.9704,9.4872
-5.7504,-4.6984,-8.7154,-23.415001,-17.733999,-16.780001,-16.424999,-3.9482,-14.699,-23.415001,-17.733999,-19.704,4.7619,20.889,1.0159,8.6538,8.7601,-0.12882,14.344,3.9409,11.41
4.6761,-0.88889,-1.8862,-20.488001,-21.674999,-6.0488,-9.6618,-15.599,-13.724,-20.488001,-21.674999,-15.764,7.619,19.937,7.6825,12.5,13.591,1.8035,5.8136,6.8966,10.449
9.4155,1.9683,2.9919,-21.462999,-18.719,-3.122,-6.7633,-4.9191,-10.797,-21.462999,-18.719,-11.823,9.5238,16.127001,14.349,15.385,18.422001,5.6683,2.97,9.8522,8.5256
13.207,9.5873,11.772,-19.511999,-13.793,1.7561,-7.7295,-0.06472,-10.797,-19.511999,-13.793,-5.9113,13.333,14.222,21.016001,21.153999,26.150999,9.533,-0.82148,16.749001,11.41
14.155,10.54,15.675,-21.462999,-15.764,6.6341,-6.7633,-9.7735,-11.772,-21.462999,-15.764,-3.9409,12.381,10.413,24.825001,22.115,29.049999,5.6683,-14.092,18.719,5.641
15.103,8.6349,15.675,-21.462999,-20.690001,1.7561,-1.9324,-3.9482,-15.675,-21.462999,-20.690001,-3.9409,10.476,5.6508,25.778,17.308001,27.118,9.533,-3.6651,17.733999,-0.12821
12.259,4.8254,11.772,-20.488001,-25.615999,-7.0244,-5.7971,-2.0065,-16.65,-20.488001,-25.615999,-6.8966,8.5714,0.88889,22.921,12.5,22.287001,7.6006,5.8136,14.778,-3.0128
5.624,-0.88889,6.8943,-22.438999,-26.601,-10.927,-5.7971,-7.8317,-17.625999,-22.438999,-26.601,-8.867,4.7619,-6.7302,17.205999,4.8077,15.523,0.83736,1.0742,12.808,-7.8205
1.8325,-3.746,3.9675,-25.365999,-16.749001,-10.927,-3.8647,-12.686,-10.797,-25.365999,-16.749001,-7.8818,0.95238,-11.492,11.492,0.0,8.7601,-2.0612,-5.5608,9.8522,-9.7436
2.7804,-1.8413,3.9675,-24.389999,-11.823,-5.0732,0.96618,-23.365999,-7.8699,-24.389999,-11.823,-3.9409,-0.95238,-13.397,8.6349,-1.9231,4.8953,-7.8583,-7.4566,9.8522,-9.7436
4.6761,1.9683,6.8943,-17.561001,-6.8966,0.78049,0.0,-20.452999,-5.9187,-17.561001,-6.8966,1.9704,1.9048,-11.492,8.6349,0.0,4.8953,-10.757,-7.4566,5.9113,-11.667
4.6761,4.8254,10.797,-11.707,0.0,-4.0976,1.9324,-7.8317,-1.0407,-11.707,0.0,6.8966,7.619,-8.6349,9.5873,0.96154,5.8615,-13.655,-1.7694,7.8818,-9.7436
1.8325,2.9206,8.8455,-16.584999,-4.9261,-8.9756,9.6618,-9.7735,-2.0163,-16.584999,-4.9261,6.8966,6.6667,-8.6349,6.7302,0.0,2.963,-12.689,5.8136,8.867,-6.859
-1.0111,1.9683,5.9187,-20.488001,-5.9113,-7.0244,8.6957,-17.540001,0.91057,-20.488001,-5.9113,5.9113,1.9048,-9.5873,1.0159,-0.96154,-0.90177,-14.622,7.7093,2.9557,-4.9359
-1.0111,1.0159,2.9919,-14.634,-2.9557,-5.0732,2.8986,-17.540001,6.7642,-14.634,-2.9557,5.9113,-6.6667,-13.397,-4.6984,-2.8846,-5.7327,-17.52,-0.82148,-2.9557,-2.0513
-4.8025,0.06349,-0.91057,-8.7805,-4.9261,-0.19512,3.8647,-21.424,3.8374,-8.7805,-4.9261,5.9113,-14.286,-18.159,-10.413,-5.7692,-12.496,-15.588,4.8657,-12.808,-3.9744
-8.594,0.06349,-2.8618,-6.8293,-12.808,-6.0488,2.8986,-6.8608,-0.06504,-6.8293,-12.808,1.9704,-18.094999,-21.016001,-15.175,-9.6154,-17.327,-11.723,2.0221,-14.778,-8.7821
-5.7504,0.06349,-0.91057,-3.9024,0.0,-4.0976,2.8986,2.8479,-1.0407,-3.9024,0.0,3.9409,-18.094999,-21.016001,-15.175,-10.577,-20.225,-3.9936,2.0221,-9.8522,-7.8205
-9.5419,-3.746,-4.813,-6.8293,-4.9261,-6.0488,1.9324,2.8479,-2.0163,-6.8293,-4.9261,1.9704,-19.048,-21.016001,-19.937,-14.423,-25.056,-1.095,5.8136,-7.8818,-6.859
-13.333,-8.5079,-12.618,-6.8293,-5.9113,-0.19512,-1.9324,-6.8608,-3.9675,-6.8293,-5.9113,-0.98522,-23.809999,-24.825001,-25.650999,-21.153999,-31.82,-4.9597,0.12638,-10.837,-11.667
-17.125,-10.413,-16.52,-5.8537,3.9409,-8.9756,-3.8647,-0.06472,-2.9919,-5.8537,3.9409,-3.9409,-24.761999,-26.73,-29.459999,-23.077,-35.683998,-5.9259,-1.7694,-14.778,-12.628
-17.125,-6.6032,-14.569,-1.9512,4.9261,-11.902,-2.8986,4.7896,-0.06504,-1.9512,4.9261,-2.9557,-21.905001,-21.968,-29.459999,-20.191999,-33.751999,-4.9597,-4.613,-14.778,-7.8205
-16.177,-3.746,-11.642,0.97561,2.9557,-5.0732,-2.8986,-3.9482,0.91057,0.97561,2.9557,-0.98522,-19.048,-21.016001,-27.556,-18.268999,-31.82,-6.8921,-0.82148,-12.808,-11.667
-17.125,-1.8413,-8.7154,3.9024,4.9261,-6.0488,1.9324,-3.9482,4.813,3.9024,4.9261,-0.98522,-18.094999,-19.111,-25.650999,-16.346001,-26.989,-8.8245,-5.5608,-12.808,-14.551
-13.333,-1.8413,-6.7642,5.8537,9.8522,-3.122,5.7971,-8.8026,6.7642,5.8537,9.8522,0.0,-15.238,-15.302,-20.889,-11.538,-21.191999,-8.8245,-4.613,-13.793,-9.7436
-9.5419,-0.88889,-3.8374,6.8293,9.8522,2.7317,2.8986,-8.8026,6.7642,6.8293,9.8522,0.98522,-10.476,-11.492,-15.175,-7.6923,-14.428,-10.757,8.6572,-13.793,-5.8974
-4.8025,-1.8413,-1.8862,8.7805,1.9704,-1.1707,4.8309,2.8479,6.7642,8.7805,1.9704,0.98522,-6.6667,-5.7778,-9.4603,-3.8462,-8.6312,-12.689,1.0742,-10.837,-0.12821
-5.7504,-6.6032,-2.8618,7.8049,0.0,-2.1463,-1.9324,1.877,1.8862,7.8049,0.0,-1.9704,-6.6667,-4.8254,-7.5556,-3.8462,-7.6651,-13.655,0.12638,-10.837,-3.0128
-1.9589,-2.7937,0.06504,4.878,3.9409,-0.19512,-6.7633,-6.8608,0.91057,4.878,3.9409,-1.9704,-3.8095,1.8413,-1.8413,0.96154,-0.90177,-16.554001,0.12638,-8.867,-0.12821
-0.06319,1.0159,3.9675,0.97561,3.9409,-1.1707,-2.8986,-10.744,1.8862,0.97561,3.9409,-0.98522,-0.95238,8.5079,3.873,7.6923,5.8615,-14.622,-2.7172,-8.867,6.6026
0.88468,7.6825,6.8943,0.0,2.9557,6.6341,0.0,-19.482,0.91057,0.0,2.9557,2.9557,0.95238,9.4603,4.8254,11.538,8.7601,-12.689,-9.3523,-9.8522,7.5641
3.7283,9.5873,9.8211,9.7561,2.9557,7.6098,4.8309,-7.8317,4.813,9.7561,2.9557,4.9261,2.8571,9.4603,6.7302,13.462,10.692,-10.757,-0.82148,-5.9113,9.4872
1.8325,9.5873,7.8699,16.584999,5.9113,4.6829,4.8309,7.7023,4.813,16.584999,5.9113,5.9113,0.95238,4.6984,3.873,9.6154,6.8277,-5.9259,10.553,-6.8966,8.5256
-1.9589,10.54,5.9187,16.584999,6.8966,3.7073,6.7633,12.557,2.8618,16.584999,6.8966,5.9113,0.0,2.7937,0.06349,6.7308,2.963,-12.689,18.136,-9.8522,4.6795
-1.0111,9.5873,5.9187,13.659,0.98522,8.5854,13.527,15.469,2.8618,13.659,0.98522,9.8522,-3.8095,-6.7302,-0.88889,2.8846,-0.90177,-1.095,5.8136,-10.837,-3.9744
2.7804,11.492,7.8699,17.561001,5.9113,16.389999,21.256001,13.528,4.813,17.561001,5.9113,13.793,-3.8095,-11.492,0.06349,2.8846,-1.868,6.6345,2.97,-10.837,-3.9744
5.624,10.54,7.8699,18.537001,7.8818,11.512,14.493,18.382,6.7642,18.537001,7.8818,12.808,0.0,-8.6349,1.9683,3.8462,-1.868,4.7021,12.449,-5.9113,-2.0513
6.5719,10.54,5.9187,13.659,7.8818,7.6098,10.628,20.323999,5.7886,13.659,7.8818,10.837,4.7619,-2.9206,4.8254,5.7692,1.0306,12.432,1.0742,2.9557,6.6026
6.5719,4.8254,1.0407,11.707,3.9409,10.537,4.8309,12.557,2.8618,11.707,3.9409,7.8818,6.6667,-1.0159,4.8254,2.8846,1.0306,12.432,8.6572,6.8966,3.7179
6.5719,1.9683,-0.91057,6.8293,-5.9113,11.512,1.9324,4.7896,-2.0163,6.8293,-5.9113,3.9409,11.429,5.6508,5.7778,2.8846,1.9968,12.432,12.449,7.8818,4.6795
1.8325,1.0159,-3.8374,1.9512,-10.837,2.7317,-1.9324,6.7314,-4.9431,1.9512,-10.837,-2.9557,16.190001,9.4603,5.7778,2.8846,3.9291,9.533,3.9179,7.8818,8.5256
1.8325,-2.7937,-4.813,-3.9024,-6.8966,-3.122,-8.6957,1.877,-9.8211,-3.9024,-6.8966,-7.8818,20.0,12.317,7.6825,4.8077,6.8277,2.7697,-3.6651,13.793,9.4872
1.8325,-4.6984,-5.7886,-7.8049,-11.823,-8.0,-11.594,4.7896,-12.748,-7.8049,-11.823,-10.837,28.570999,18.983999,13.397,7.6923,12.625,10.499,-10.3,22.66,12.372
3.7283,-3.746,-1.8862,-8.7805,-15.764,-8.0,-12.56,7.7023,-14.699,-8.7805,-15.764,-11.823,37.143002,26.603001,20.063,12.5,19.388,20.160999,-9.3523,32.512001,18.141001
1.8325,-8.5079,-3.8374,-16.584999,-23.645,-8.9756,-20.290001,-5.89,-21.528,-16.584999,-23.645,-15.764,36.189999,25.650999,19.111,7.6923,17.455999,11.465,-4.613,28.570999,11.41
-1.0111,-9.4603,-4.813,-22.438999,-25.615999,-15.805,-19.323999,-10.744,-20.552999,-22.438999,-25.615999,-18.719,38.095001,24.698,20.063,5.7692,19.388,9.533,-4.613,30.542,6.6026
5.624,-5.6508,1.0407,-18.537001,-18.719,-3.122,-12.56,-26.278,-15.675,-18.537001,-18.719,-11.823,41.904999,28.507999,24.825001,9.6154,24.219,9.533,-15.987,33.498001,8.5256
1.8325,-7.5556,2.0163,-21.462999,-10.837,-10.927,-12.56,-20.452999,-14.699,-21.462999,-10.837,-10.837,37.143002,28.507999,21.016001,8.6538,23.253,0.83736,-13.144,27.586,7.5641
-1.0111,-6.6032,2.0163,-23.415001,-10.837,-21.659,-10.628,-14.628,-11.772,-23.415001,-10.837,-11.823,31.429001,28.507999,17.205999,7.6923,21.32,-7.8583,-12.196,22.66,8.5256
-1.9589,-6.6032,-0.91057,-21.462999,-10.837,-19.707001,-10.628,-17.540001,-3.9675,-21.462999,-10.837,-10.837,23.809999,21.841,13.397,3.8462,17.455999,-3.9936,-1.7694,16.749001,0.83333
-1.0111,-6.6032,-1.8862,-20.488001,-8.867,-15.805,-8.6957,-19.482,-2.0163,-20.488001,-8.867,-9.8522,16.190001,17.079,9.5873,0.96154,12.625,2.7697,-5.5608,12.808,-4.9359
1.8325,-3.746,1.0407,-16.584999,-7.8818,-10.927,-2.8986,-10.744,-1.0407,-16.584999,-7.8818,-3.9409,6.6667,13.27,6.7302,0.0,9.7262,4.7021,-4.613,8.867,-4.9359
2.7804,-1.8413,2.9919,-12.683,-5.9113,-0.19512,4.8309,-10.744,2.8618,-12.683,-5.9113,3.9409,-2.8571,5.6508,1.0159,-1.9231,4.8953,3.7359,1.0742,-2.9557,-6.859
1.8325,2.9206,2.0163,-9.7561,-0.98522,0.78049,9.6618,-2.9773,5.7886,-9.7561,-0.98522,5.9113,-9.5238,-0.06349,-5.6508,-1.9231,0.06441,-0.12882,-8.4044,-9.8522,-1.0897
-2.9068,1.9683,-0.91057,-8.7805,2.9557,-4.0976,2.8986,4.7896,2.8618,-8.7805,2.9557,4.9261,-15.238,-3.873,-10.413,-5.7692,-4.7665,-6.8921,8.6572,-18.719,-2.0513
-0.06319,0.06349,-1.8862,-12.683,-4.9261,-0.19512,5.7971,-8.8026,0.91057,-12.683,-4.9261,3.9409,-16.190001,-5.7778,-11.365,-8.6538,-8.6312,-8.8245,10.553,-17.733999,-3.9744
-1.0111,-0.88889,-2.8618,-13.659,-5.9113,-1.1707,3.8647,-4.9191,-2.9919,-13.659,-5.9113,1.9704,-10.476,-0.06349,-9.4603,-4.8077,-7.6651,0.83736,2.97,-8.867,3.7179
-1.9589,1.0159,-3.8374,-16.584999,-6.8966,-5.0732,-5.7971,4.7896,-6.8943,-16.584999,-6.8966,-1.9704,-3.8095,7.5556,-5.6508,0.96154,-4.7665,6.6345,-1.7694,-1.9704,10.449
-1.9589,-0.88889,-5.7886,-18.537001,-11.823,-7.0244,-10.628,1.877,-9.8211,-18.537001,-11.823,-6.8966,-1.9048,8.5079,-3.746,0.96154,-3.8003,6.6345,-3.6651,1.9704,11.41
0.88468,-1.8413,-4.813,-15.61,-17.733999,-4.0976,-15.459,3.8188,-9.8211,-15.61,-17.733999,-7.8818,2.8571,13.27,1.0159,3.8462,0.06441,8.5668,-11.248,7.8818,15.256
3.7283,-0.88889,-1.8862,-16.584999,-16.749001,-5.0732,-12.56,3.8188,-13.724,-16.584999,-16.749001,-9.8522,6.6667,18.032,5.7778,5.7692,4.8953,8.5668,-3.6651,12.808,14.295
5.624,-5.6508,-0.91057,-10.732,-11.823,-0.19512,-7.7295,1.877,-12.748,-10.732,-11.823,-7.8818,10.476,18.032,9.5873,6.7308,8.7601,5.6683,6.7615,16.749001,10.449
8.4676,-4.6984,3.9675,-5.8537,-13.793,1.7561,-3.8647,5.7605,-9.8211,-5.8537,-13.793,-4.9261,15.238,19.937,15.302,10.577,14.557,8.5668,1.0742,22.66,12.372
10.363,-1.8413,6.8943,-3.9024,-5.9113,6.6341,-5.7971,-1.0356,-8.8455,-3.9024,-5.9113,-2.9557,15.238,17.079,19.111,12.5,18.422001,15.33,-0.82148,20.690001,11.41
8.4676,1.0159,8.8455,2.9268,-0.98522,4.6829,-4.8309,11.586,-6.8943,2.9268,-0.98522,0.0,15.238,13.27,18.159,11.538,19.388,21.127001,-14.092,12.808,7.5641
9.4155,5.7778,13.724,7.8049,4.9261,5.6585,3.8647,20.323999,-0.06504,7.8049,4.9261,5.9113,16.190001,10.413,20.063,14.423,22.287001,17.261999,-9.3523,10.837,5.641
11.311,8.6349,17.625999,15.61,9.8522,7.6098,4.8309,15.469,3.8374,15.61,9.8522,11.823,11.429,0.88889,18.159,12.5,21.32,14.364,2.97,10.837,-1.0897
11.311,5.7778,17.625999,16.584999,9.8522,13.463,12.56,11.586,4.813,16.584999,9.8522,14.778,2.8571,-9.5873,13.397,7.6923,15.523,11.465,8.6572,0.98522,-10.705
9.4155,5.7778,14.699,23.415001,15.764,21.268,16.424999,13.528,9.6911,23.415001,15.764,18.719,-6.6667,-17.205999,5.7778,2.8846,8.7601,-4.9597,5.8136,-9.8522,-15.513
11.311,11.492,14.699,28.292999,16.749001,24.195,19.323999,20.323999,13.593,28.292999,16.749001,21.674999,-11.429,-15.302,1.9683,1.9231,3.9291,4.7021,1.0742,-9.8522,-10.705
4.6761,12.444,8.8455,24.389999,17.733999,17.365999,15.459,25.177999,14.569,24.389999,17.733999,19.704,-17.143,-13.397,-7.5556,-1.9231,-4.7665,9.533,-6.5087,-14.778,-9.7436
0.88468,9.5873,4.9431,26.341,22.66,20.292999,16.424999,14.498,15.545,26.341,22.66,18.719,-23.809999,-14.349,-16.127001,-6.7308,-13.462,4.7021,6.7615,-21.674999,-10.705
-1.9589,5.7778,1.0407,22.438999,17.733999,23.219999,14.493,7.7023,12.618,22.438999,17.733999,15.764,-30.476,-15.302,-21.841,-8.6538,-18.292999,-0.12882,16.24,-30.542,-9.7436
-3.8547,7.6825,0.06504,17.561001,9.8522,12.488,12.56,15.469,8.7154,17.561001,9.8522,11.823,-29.524,-10.54,-22.794001,-6.7308,-18.292999,-5.9259,6.7615,-34.483002,-3.9744
-6.6983,7.6825,-2.8618,12.683,8.867,2.7317,9.6618,9.644,8.7154,12.683,8.867,7.8818,-25.714001,-5.7778,-22.794001,-4.8077,-18.292999,-11.723,8.6572,-32.512001,1.7949
-11.438,6.7302,-7.7398,8.7805,9.8522,-1.1707,9.6618,-0.06472,6.7642,8.7805,9.8522,2.9557,-23.809999,-4.8254,-25.650999,-4.8077,-20.225,-16.554001,10.553,-31.527,6.6026
-13.333,3.873,-10.667,4.878,0.0,-3.122,3.8647,-9.7735,5.7886,4.878,0.0,-0.98522,-24.761999,-4.8254,-28.507999,-5.7692,-23.124001,-25.25,0.12638,-29.556999,9.4872
-17.125,-0.88889,-14.569,-0.97561,-1.9704,-7.0244,-8.6957,-9.7735,2.8618,-0.97561,-1.9704,-5.9113,-21.905001,-1.0159,-27.556,-7.6923,-24.09,-18.486,8.6572,-27.586,8.5256
-20.916,-6.6032,-20.423,-7.8049,-4.9261,-17.756001,-11.594,-8.8026,-1.0407,-7.8049,-4.9261,-13.793,-20.0,0.88889,-28.507999,-9.6154,-24.09,-16.554001,4.8657,-25.615999,7.5641
-22.812,-8.5079,-23.35,-11.707,-10.837,-19.707001,-15.459,-25.306999,-5.9187,-11.707,-10.837,-19.704,-15.238,6.6032,-26.603001,-7.6923,-21.191999,-20.419001,-1.7694,-22.66,12.372
-27.551001,-12.317,-25.301001,-15.61,-12.808,-26.537001,-19.323999,-22.395,-8.8455,-15.61,-12.808,-26.601,-8.5714,9.4603,-22.794001,-7.6923,-18.292999,-19.452,1.0742,-14.778,13.333
-24.708,-15.175,-24.325001,-20.488001,-21.674999,-27.511999,-21.256001,-17.540001,-10.797,-20.488001,-21.674999,-28.570999,-2.8571,10.413,-16.127001,-7.6923,-13.462,-13.655,-4.613,-1.9704,12.372
-22.812,-19.937,-23.35,-22.438999,-23.645,-23.610001,-22.222,-24.337,-13.724,-22.438999,-23.645,-28.570999,-1.9048,4.6984,-12.317,-10.577,-12.496,-8.8245,-12.196,1.9704,5.641
-16.177,-17.079,-19.447001,-16.584999,-18.719,-23.610001,-21.256001,-9.7735,-11.772,-16.584999,-18.719,-25.615999,-0.95238,-1.9683,-7.5556,-11.538,-10.564,-10.757,-14.092,6.8966,-1.0897
-12.385,-17.079,-18.472,-10.732,-8.867,-18.732,-20.290001,-2.0065,-6.8943,-10.732,-8.867,-21.674999,-4.7619,-11.492,-5.6508,-14.423,-12.496,-0.12882,-9.3523,8.867,-11.667
-4.8025,-17.079,-14.569,-7.8049,-3.9409,-7.0244,-14.493,-6.8608,-2.0163,-7.8049,-3.9409,-15.764,-5.7143,-17.205999,-1.8413,-15.385,-11.53,7.6006,-2.7172,9.8522,-16.474001
0.88468,-12.317,-7.7398,-0.97561,0.98522,-2.1463,-8.6957,2.8479,1.8862,-0.97561,0.98522,-8.867,-3.8095,-17.205999,1.9683,-13.462,-7.6651,8.5668,-3.6651,11.823,-16.474001
-0.06319,-11.365,-5.7886,0.97561,1.9704,-1.1707,-5.7971,11.586,4.813,0.97561,1.9704,-5.9113,-4.7619,-17.205999,1.9683,-12.5,-7.6651,16.296,-4.613,10.837,-19.358999
1.8325,-7.5556,-2.8618,2.9268,1.9704,4.6829,-2.8986,10.615,4.813,2.9268,1.9704,-1.9704,-4.7619,-15.302,1.9683,-10.577,-5.7327,16.296,-8.4044,9.8522,-19.358999
9.4155,0.06349,3.9675,5.8537,5.9113,12.488,1.9324,10.615,4.813,5.8537,5.9113,4.9261,0.0,-8.6349,5.7778,-3.8462,-0.90177,16.296,-15.987,10.837,-14.551
11.311,1.9683,7.8699,9.7561,5.9113,8.5854,10.628,22.264999,2.8618,9.7561,5.9113,6.8966,3.8095,-1.9683,7.6825,0.0,2.963,17.261999,-6.5087,10.837,-8.7821
12.259,0.06349,7.8699,6.8293,-1.9704,10.537,7.7295,21.294001,0.91057,6.8293,-1.9704,7.8818,6.6667,2.7937,8.6349,0.96154,4.8953,7.6006,3.9179,3.9409,-7.8205
12.259,2.9206,6.8943,2.9268,-4.9261,14.439,6.7633,11.586,-2.9919,2.9268,-4.9261,8.867,7.619,5.6508,7.6825,2.8846,5.8615,11.465,2.0221,1.9704,-5.8974
13.207,5.7778,10.797,7.8049,7.8818,18.341,8.6957,6.7314,-1.0407,7.8049,7.8818,12.808,9.5238,11.365,9.5873,7.6923,9.7262,14.364,-0.82148,3.9409,1.7949
14.155,10.54,14.699,8.7805,15.764,14.439,9.6618,13.528,1.8862,8.7805,15.764,14.778,12.381,16.127001,13.397,12.5,14.557,13.398,-14.092,4.9261,10.449
18.893999,11.492,14.699,5.8537,7.8818,15.415,13.527,9.644,2.8618,5.8537,7.8818,17.733999,10.476,13.27,14.349,11.538,14.557,9.533,2.0221,3.9409,9.4872
12.259,3.873,7.8699,1.9512,2.9557,14.439,7.7295,-1.0356,0.91057,1.9512,2.9557,13.793,3.8095,5.6508,7.6825,3.8462,6.8277,6.6345,8.6572,-1.9704,1.7949
7.5197,1.0159,6.8943,2.9268,4.9261,5.6585,10.628,8.6731,-0.06504,2.9268,4.9261,12.808,2.8571,1.8413,6.7302,0.96154,3.9291,4.7021,3.9179,3.9409,1.7949
10.363,2.9206,8.8455,8.7805,9.8522,8.5854,11.594,9.644,-0.06504,8.7805,9.8522,15.764,0.0,-1.9683,6.7302,0.0,1.9968,5.6683,1.0742,4.9261,1.7949
16.051001,5.7778,12.748,10.732,6.8966,13.463,15.459,7.7023,3.8374,10.732,6.8966,17.733999,0.0,-1.9683,10.54,1.9231,3.9291,10.499,4.8657,6.8966,2.7564
16.051001,7.6825,14.699,11.707,7.8818,17.365999,15.459,4.7896,4.813,11.707,7.8818,18.719,0.0,-2.9206,12.444,2.8846,5.8615,5.6683,6.7615,9.8522,2.7564
12.259,9.5873,12.748,10.732,8.867,14.439,10.628,-2.0065,4.813,10.732,8.867,15.764,-0.95238,-5.7778,9.5873,2.8846,4.8953,4.7021,2.97,10.837,4.6795
8.4676,5.7778,7.8699,9.7561,11.823,9.561,5.7971,2.8479,7.7398,9.7561,11.823,10.837,-2.8571,-8.6349,5.7778,0.0,1.0306,6.6345,1.0742,7.8818,-0.12821
6.5719,1.0159,2.0163,3.9024,4.9261,5.6585,0.96618,10.615,3.8374,3.9024,4.9261,5.9113,-4.7619,-12.444,2.9206,-5.7692,-2.8341,7.6006,5.8136,6.8966,-7.8205
5.624,-0.88889,1.0407,8.7805,2.9557,3.7073,0.96618,12.557,1.8862,8.7805,2.9557,3.9409,0.0,-8.6349,3.873,-3.8462,-0.90177,11.465,5.8136,11.823,-3.0128
5.624,-4.6984,-0.91057,11.707,5.9113,3.7073,0.0,13.528,1.8862,11.707,5.9113,1.9704,3.8095,-5.7778,4.8254,-3.8462,1.0306,12.432,9.6051,12.808,-5.8974
0.88468,-6.6032,-4.813,7.8049,2.9557,3.7073,-9.6618,7.7023,2.8618,7.8049,2.9557,-3.9409,1.9048,-9.5873,1.9683,-4.8077,-0.90177,6.6345,2.97,6.8966,-10.705
1.8325,-2.7937,-3.8374,2.9268,-3.9409,3.7073,-4.8309,6.7314,2.8618,2.9268,-3.9409,-3.9409,2.8571,-7.6825,1.9683,-0.96154,0.06441,6.6345,-8.4044,5.9113,-7.8205
2.7804,-1.8413,-2.8618,2.9268,-4.9261,4.6829,-0.96618,7.7023,1.8862,2.9268,-4.9261,-1.9704,3.8095,-7.6825,1.9683,0.0,1.0306,7.6006,-3.6651,5.9113,-7.8205
4.6761,0.06349,1.0407,10.732,5.9113,9.561,0.0,6.7314,1.8862,10.732,5.9113,0.98522,7.619,-4.8254,4.8254,2.8846,3.9291,9.533,3.9179,7.8818,-5.8974
1.8325,-0.88889,0.06504,8.7805,2.9557,0.78049,-2.8986,13.528,0.91057,8.7805,2.9557,-1.9704,6.6667,-8.6349,3.873,0.96154,3.9291,12.432,-4.613,3.9409,-8.7821
5.624,0.06349,1.0407,2.9268,1.9704,3.7073,-0.96618,9.644,-2.0163,2.9268,1.9704,-0.98522,5.7143,-9.5873,3.873,0.96154,4.8953,12.432,0.12638,2.9557,-8.7821
3.7283,-2.7937,1.0407,3.9024,5.9113,1.7561,-1.9324,8.6731,1.8862,3.9024,5.9113,-1.9704,3.8095,-8.6349,2.9206,3.8462,5.8615,8.5668,-5.5608,1.9704,-3.0128
-1.9589,-4.6984,-1.8862,0.0,-0.98522,-3.122,-5.7971,1.877,-0.06504,0.0,-0.98522,-6.8966,-0.95238,-6.7302,0.06349,2.8846,4.8953,-2.0612,-1.7694,-4.9261,-4.9359
-1.0111,-0.88889,-0.91057,-4.878,-4.9261,-3.122,-4.8309,-2.0065,-2.9919,-4.878,-4.9261,-6.8966,-1.9048,-2.9206,1.0159,5.7692,6.8277,-3.9936,2.0221,-4.9261,-3.0128
-0.06319,7.6825,3.9675,-11.707,-6.8966,-8.0,-2.8986,0.90615,-1.0407,-11.707,-6.8966,-5.9113,0.0,5.6508,3.873,13.462,11.659,-5.9259,-2.7172,-0.98522,7.5641
1.8325,9.5873,4.9431,-13.659,-9.8522,-8.0,-0.96618,-8.8026,-2.0163,-13.659,-9.8522,-3.9409,0.0,7.5556,3.873,14.423,11.659,-8.8245,6.7615,-1.9704,11.41
-1.0111,9.5873,4.9431,-13.659,-3.9409,-8.0,1.9324,-22.395,0.91057,-13.659,-3.9409,-3.9409,1.9048,11.365,4.8254,16.346001,12.625,-9.7907,3.9179,0.98522,19.103001
-2.9068,5.7778,2.9919,-16.584999,-3.9409,-14.829,3.8647,-18.511,-2.0163,-16.584999,-3.9409,-7.8818,3.8095,11.365,6.7302,13.462,12.625,-12.689,6.7615,3.9409,15.256
6.5719,5.7778,6.8943,-12.683,-3.9409,-5.0732,1.9324,-14.628,-1.0407,-12.683,-3.9409,-2.9557,11.429,12.317,14.349,14.423,17.455999,-5.9259,9.6051,10.837,10.449
14.155,9.5873,12.748,-6.8293,4.9261,3.7073,5.7971,-3.9482,-1.0407,-6.8293,4.9261,3.9409,20.0,14.222,21.968,16.346001,21.32,1.8035,4.8657,23.645,11.41
17.945999,11.492,16.65,1.9512,4.9261,9.561,7.7295,4.7896,0.91057,1.9512,4.9261,9.8522,23.809999,11.365,25.778,14.423,22.287001,6.6345,0.12638,24.631001,10.449
14.155,6.7302,12.748,2.9268,4.9261,5.6585,5.7971,5.7605,0.91057,2.9268,4.9261,7.8818,17.143,2.7937,21.016001,6.7308,15.523,5.6683,2.0221,18.719,4.6795
15.103,4.8254,11.772,0.0,0.98522,13.463,5.7971,-2.9773,1.8862,0.0,0.98522,9.8522,15.238,1.8413,20.063,4.8077,12.625,-0.12882,1.0742,15.764,6.6026
15.103,2.9206,9.8211,1.9512,3.9409,10.537,9.6618,4.7896,1.8862,1.9512,3.9409,8.867,14.286,0.88889,20.063,2.8846,11.659,-0.12882,2.0221,12.808,2.7564
9.4155,-2.7937,5.9187,2.9268,6.8966,3.7073,5.7971,6.7314,0.91057,2.9268,6.8966,5.9113,12.381,-4.8254,16.254,-3.8462,7.7939,4.7021,1.0742,11.823,-6.859
8.4676,-0.88889,8.8455,5.8537,7.8818,2.7317,6.7633,8.6731,2.8618,5.8537,7.8818,7.8818,14.286,-1.0159,16.254,-0.96154,8.7601,7.6006,-7.4566,5.9113,-5.8974
10.363,3.873,11.772,9.7561,10.837,9.561,7.7295,-0.06472,3.8374,9.7561,10.837,10.837,13.333,1.8413,14.349,3.8462,10.692,3.7359,2.97,2.9557,-0.12821
4.6761,4.8254,10.797,12.683,10.837,8.5854,6.7633,4.7896,4.813,12.683,10.837,9.8522,8.5714,0.88889,8.6349,3.8462,8.7601,0.83736,2.0221,0.0,0.83333
0.88468,4.8254,9.8211,10.732,4.9261,3.7073,6.7633,6.7314,5.7886,10.732,4.9261,7.8818,2.8571,-4.8254,2.9206,0.96154,2.963,-3.0274,2.0221,-3.9409,-5.8974
-1.0111,3.873,7.8699,3.9024,1.9704,8.5854,7.7295,-5.89,6.7642,3.9024,1.9704,7.8818,-4.7619,-7.6825,-1.8413,-0.96154,-1.868,-5.9259,5.8136,-11.823,-8.7821
-1.0111,6.7302,7.8699,5.8537,6.8966,6.6341,11.594,1.877,9.6911,5.8537,6.8966,9.8522,-8.5714,-8.6349,-4.6984,0.96154,-2.8341,-5.9259,-0.82148,-16.749001,-3.0128
-4.8025,9.5873,5.9187,5.8537,2.9557,-0.19512,11.594,2.8479,7.7398,5.8537,2.9557,7.8818,-13.333,-8.6349,-8.5079,1.9231,-4.7665,-10.757,-2.7172,-19.704,-1.0897
-8.594,8.6349,2.9919,8.7805,9.8522,-1.1707,3.8647,-0.06472,9.6911,8.7805,9.8522,4.9261,-14.286,-5.7778,-11.365,3.8462,-5.7327,-8.8245,8.6572,-18.719,3.7179
-12.385,8.6349,-0.91057,3.9024,12.808,-6.0488,1.9324,-2.0065,8.7154,3.9024,12.808,0.98522,-19.048,-6.7302,-14.222,2.8846,-8.6312,-8.8245,14.344,-20.690001,3.7179
-12.385,8.6349,-2.8618,1.9512,4.9261,-3.122,8.6957,-12.686,4.813,1.9512,4.9261,0.0,-22.857,-7.6825,-17.079,0.96154,-10.564,-12.689,10.553,-25.615999,3.7179
-11.438,4.8254,-5.7886,4.878,5.9113,-4.0976,8.6957,-12.686,7.7398,4.878,5.9113,0.0,-22.857,-6.7302,-17.079,-0.96154,-12.496,-13.655,4.8657,-22.66,6.6026
-9.5419,0.06349,-5.7886,5.8537,6.8966,-7.0244,6.7633,1.877,6.7642,5.8537,6.8966,-0.98522,-20.0,-8.6349,-14.222,-3.8462,-12.496,-9.7907,3.9179,-14.778,3.7179
-14.281,-0.88889,-9.6911,2.9268,-0.98522,-8.9756,-1.9324,-2.0065,1.8862,2.9268,-0.98522,-4.9261,-22.857,-14.349,-18.032,-7.6923,-16.361,-9.7907,-2.7172,-16.749001,-4.9359
-15.229,-0.88889,-10.667,0.0,1.9704,-7.0244,1.9324,-10.744,1.8862,0.0,1.9704,-4.9261,-19.048,-11.492,-18.983999,-6.7308,-16.361,-15.588,2.97,-15.764,-4.9359
-8.594,-0.88889,-7.7398,3.9024,6.8966,1.7561,5.7971,0.90615,2.8618,3.9024,6.8966,0.0,-10.476,-8.6349,-13.27,-3.8462,-10.564,-6.8921,12.449,-11.823,-0.12821
-6.6983,-5.6508,-7.7398,2.9268,3.9409,-5.0732,-1.9324,8.6731,-1.0407,2.9268,3.9409,-1.9704,-6.6667,-7.6825,-9.4603,-6.7308,-8.6312,0.83736,0.12638,-4.9261,-2.0513
-3.8547,-3.746,-5.7886,5.8537,4.9261,-4.0976,-3.8647,2.8479,-2.9919,5.8537,4.9261,-0.98522,-0.95238,-4.8254,-4.6984,-5.7692,-5.7327,0.83736,-3.6651,1.9704,-1.0897
-1.0111,-7.5556,-6.7642,8.7805,2.9557,4.6829,-2.8986,-7.8317,-3.9675,8.7805,2.9557,0.0,0.0,-8.6349,-2.7937,-9.6154,-6.6989,0.83736,-3.6651,2.9557,-8.7821
-0.06319,-7.5556,-4.813,8.7805,4.9261,3.7073,4.8309,1.877,-3.9675,8.7805,4.9261,2.9557,2.8571,-7.6825,-0.88889,-9.6154,-4.7665,4.7021,-10.3,7.8818,-10.705
3.7283,-0.88889,0.06504,9.7561,8.867,4.6829,7.7295,11.586,-2.0163,9.7561,8.867,4.9261,4.7619,-4.8254,4.8254,-3.8462,0.06441,5.6683,-13.144,11.823,-6.859
1.8325,-1.8413,2.0163,7.8049,6.8966,0.78049,2.8986,7.7023,-4.9431,7.8049,6.8966,3.9409,1.9048,-4.8254,3.873,-2.8846,1.0306,-1.095,-6.5087,0.98522,-6.859
6.5719,-0.88889,3.9675,8.7805,9.8522,7.6098,1.9324,-1.0356,0.91057,8.7805,9.8522,7.8818,3.8095,-2.9206,6.7302,0.96154,3.9291,3.7359,-2.7172,2.9557,-1.0897
-1.0111,-5.6508,-0.91057,0.0,2.9557,-1.1707,-2.8986,-5.89,-0.06504,0.0,2.9557,0.98522,0.0,-4.8254,1.9683,-1.9231,1.0306,3.7359,4.8657,3.9409,-4.9359
-2.9068,-3.746,-0.91057,-5.8537,-3.9409,-6.0488,-2.8986,-7.8317,-1.0407,-5.8537,-3.9409,-2.9557,-2.8571,-2.9206,1.0159,-0.96154,1.0306,-3.0274,0.12638,0.0,-4.9359
0.88468,1.9683,2.0163,-4.878,-2.9557,-6.0488,-0.96618,-6.8608,0.91057,-4.878,-2.9557,-0.98522,-1.9048,2.7937,2.9206,2.8846,2.963,-0.12882,-1.7694,1.9704,2.7564
-2.9068,0.06349,-1.8862,-5.8537,-1.9704,-7.0244,-3.8647,-13.657,-1.0407,-5.8537,-1.9704,-2.9557,-3.8095,6.6032,0.06349,0.96154,1.0306,-2.0612,5.8136,-3.9409,5.641
-5.7504,-3.746,-4.813,-10.732,-2.9557,-10.927,-1.9324,-15.599,-2.0163,-10.732,-2.9557,-6.8966,-4.7619,10.413,-3.746,1.9231,-0.90177,-3.9936,-6.5087,-6.8966,8.5256
-12.385,-4.6984,-8.7154,-18.537001,-6.8966,-19.707001,-6.7633,-15.599,-3.9675,-18.537001,-6.8966,-13.793,-5.7143,10.413,-8.5079,1.9231,-2.8341,-18.486,-5.5608,-6.8966,7.5641
-11.438,-5.6508,-7.7398,-19.511999,-10.837,-18.732,-11.594,-15.599,-4.9431,-19.511999,-10.837,-14.778,-8.5714,10.413,-9.4603,1.9231,-3.8003,-16.554001,-5.5608,-4.9261,9.4872
-12.385,-10.413,-9.6911,-18.537001,-11.823,-17.756001,-16.424999,-14.628,-2.9919,-18.537001,-11.823,-14.778,-9.5238,6.6032,-12.317,-1.9231,-6.6989,-9.7907,-2.7172,-9.8522,4.6795
-10.49,-5.6508,-6.7642,-16.584999,-5.9113,-11.902,-11.594,-17.540001,-2.0163,-16.584999,-5.9113,-10.837,-6.6667,4.6984,-11.365,-1.9231,-5.7327,-8.8245,-1.7694,-9.8522,-1.0897
-8.594,-1.8413,-4.813,-18.537001,-7.8818,-14.829,-6.7633,-12.686,-0.06504,-18.537001,-7.8818,-9.8522,-1.9048,4.6984,-8.5079,-0.96154,-3.8003,-7.8583,-2.7172,-4.9261,-3.0128
-9.5419,-1.8413,-3.8374,-12.683,-4.9261,-18.732,-3.8647,-8.8026,-0.06504,-12.683,-4.9261,-9.8522,4.7619,8.5079,-3.746,1.9231,1.9968,-5.9259,2.97,2.9557,-0.12821
-3.8547,1.0159,0.06504,-5.8537,1.9704,-9.9512,-2.8986,-8.8026,-1.0407,-5.8537,1.9704,-6.8966,12.381,8.5079,2.9206,4.8077,7.7939,-4.9597,-3.6651,9.8522,-0.12821
3.7283,1.9683,3.9675,-3.9024,1.9704,-1.1707,-1.9324,-10.744,-3.9675,-3.9024,1.9704,-2.9557,18.094999,7.5556,8.6349,5.7692,11.659,-7.8583,-5.5608,6.8966,-1.0897
6.5719,0.06349,6.8943,0.0,0.98522,2.7317,1.9324,-3.9482,-3.9675,0.0,0.98522,0.98522,22.857,7.5556,11.492,3.8462,13.591,0.83736,-8.4044,10.837,-5.8974
9.4155,-3.746,5.9187,2.9268,0.0,6.6341,0.96618,0.90615,-2.9919,2.9268,0.0,2.9557,22.857,5.6508,13.397,0.0,12.625,11.465,-4.613,18.719,-8.7821
11.311,-5.6508,3.9675,3.9024,-3.9409,1.7561,0.0,8.6731,-4.9431,3.9024,-3.9409,1.9704,20.0,4.6984,14.349,-2.8846,10.692,12.432,-1.7694,17.733999,-6.859
16.051001,1.0159,10.797,0.97561,-3.9409,8.5854,2.8986,11.586,-9.8211,0.97561,-3.9409,6.8966,21.905001,5.6508,18.159,1.9231,13.591,13.398,-3.6651,20.690001,-3.9744
16.997999,6.7302,15.675,5.8537,3.9409,20.292999,8.6957,6.7314,-2.9919,5.8537,3.9409,12.808,18.094999,1.8413,15.302,1.9231,10.692,7.6006,-7.4566,15.764,-3.9744
10.363,7.6825,12.748,12.683,13.793,15.415,11.594,3.8188,13.593,12.683,13.793,11.823,10.476,-2.9206,8.6349,0.0,3.9291,-1.095,-20.726999,7.8818,-3.0128
4.6761,4.8254,9.8211,7.8049,6.8966,5.6585,10.628,-0.06472,13.593,7.8049,6.8966,9.8522,6.6667,-5.7778,3.873,-3.8462,-0.90177,0.83736,-2.7172,3.9409,-3.9744
-0.06319,-1.8413,3.9675,0.97561,2.9557,7.6098,4.8309,-11.715,11.642,0.97561,2.9557,6.8966,0.95238,-12.444,-2.7937,-10.577,-8.6312,-1.095,12.449,1.9704,-9.7436
1.8325,-1.8413,2.0163,5.8537,5.9113,8.5854,7.7295,-7.8317,16.52,5.8537,5.9113,7.8818,-5.7143,-15.302,-5.6508,-14.423,-13.462,-3.0274,1.0742,0.0,-10.705
3.7283,-4.6984,-0.91057,5.8537,1.9704,5.6585,3.8647,4.7896,15.545,5.8537,1.9704,6.8966,-9.5238,-18.159,-6.6032,-18.268999,-18.292999,3.7359,-0.82148,-0.98522,-12.628
2.7804,-4.6984,-4.813,6.8293,2.9557,9.561,1.9324,8.6731,11.642,6.8293,2.9557,4.9261,-15.238,-18.159,-9.4603,-17.308001,-20.225,5.6683,-1.7694,-2.9557,-11.667
0.88468,-3.746,-7.7398,4.878,0.98522,10.537,-0.96618,4.7896,8.7154,4.878,0.98522,1.9704,-17.143,-13.397,-11.365,-11.538,-18.292999,2.7697,-2.7172,-11.823,-6.859
1.8325,-0.88889,-4.813,0.97561,-1.9704,14.439,-1.9324,-0.06472,10.667,0.97561,-1.9704,2.9557,-15.238,-4.8254,-9.4603,-3.8462,-12.496,0.83736,-10.3,-11.823,1.7949
0.88468,-5.6508,-4.813,5.8537,0.98522,10.537,-4.8309,5.7605,8.7154,5.8537,0.98522,0.98522,-16.190001,-2.9206,-8.5079,-3.8462,-9.5974,6.6345,2.97,-6.8966,-1.0897
1.8325,-6.6032,-3.8374,8.7805,1.9704,2.7317,-2.8986,11.586,4.813,8.7805,1.9704,-0.98522,-14.286,-0.06349,-4.6984,-1.9231,-5.7327,12.432,14.344,-2.9557,-3.0128
-0.06319,-5.6508,-4.813,0.97561,-1.9704,-0.19512,-5.7971,3.8188,4.813,0.97561,-1.9704,-2.9557,-14.286,1.8413,-4.6984,1.9231,-3.8003,6.6345,2.97,-4.9261,0.83333
-1.0111,-2.7937,-3.8374,0.0,-3.9409,0.78049,-9.6618,-1.0356,1.8862,0.0,-3.9409,-3.9409,-10.476,6.6032,-2.7937,4.8077,-0.90177,4.7021,2.97,-1.9704,6.6026
1.8325,1.0159,0.06504,-0.97561,-5.9113,5.6585,-7.7295,-8.8026,-0.06504,-0.97561,-5.9113,0.0,-4.7619,10.413,-0.88889,6.7308,1.0306,1.8035,-6.5087,2.9557,11.41
1.8325,0.06349,2.0163,-2.9268,-3.9409,-0.19512,-3.8647,3.8188,-0.06504,-2.9268,-3.9409,-0.98522,1.9048,12.317,1.9683,5.7692,1.9968,1.8035,-8.4044,6.8966,10.449
1.8325,-0.88889,2.9919,-4.878,-4.9261,-2.1463,-0.96618,5.7605,1.8862,-4.878,-4.9261,-0.98522,7.619,13.27,4.8254,3.8462,2.963,-1.095,6.7615,8.867,7.5641
-1.0111,-1.8413,2.0163,-11.707,-2.9557,-7.0244,-0.96618,-6.8608,4.813,-11.707,-2.9557,-1.9704,13.333,14.222,5.7778,2.8846,4.8953,-3.9936,11.501,7.8818,6.6026
-3.8547,0.06349,0.06504,-13.659,1.9704,-11.902,4.8309,-22.395,4.813,-13.659,1.9704,-3.9409,16.190001,15.175,5.7778,2.8846,5.8615,-8.8245,4.8657,4.9261,8.5256
-12.385,4.8254,-0.91057,-13.659,-3.9409,-11.902,4.8309,-44.724998,7.7398,-13.659,-3.9409,-6.8966,16.190001,17.079,1.0159,3.8462,5.8615,-28.148001,11.501,0.98522,11.41
-19.968,8.6349,-1.8862,-22.438999,-6.8966,-20.683001,-3.8647,-47.638,5.7886,-22.438999,-6.8966,-11.823,15.238,18.032,-5.6508,3.8462,4.8953,-39.742001,2.97,-5.9113,12.372
-22.812,8.6349,-2.8618,-24.389999,-6.8966,-30.438999,-3.8647,-29.191,6.7642,-24.389999,-6.8966,-13.793,13.333,16.127001,-9.4603,3.8462,2.963,-38.776001,3.9179,-9.8522,12.372
-18.073,5.7778,-4.813,-17.561001,-5.9113,-27.511999,0.96618,-17.540001,5.7886,-17.561001,-5.9113,-12.808,6.6667,6.6032,-11.365,1.9231,-0.90177,-29.114,12.449,-9.8522,9.4872
-14.281,1.0159,-8.7154,-18.537001,-1.9704,-20.683001,-5.7971,-11.715,5.7886,-18.537001,-1.9704,-12.808,0.0,-1.9683,-12.317,-1.9231,-4.7665,-15.588,17.188,-19.704,0.83333
-5.7504,1.9683,-3.8374,-14.634,0.98522,-10.927,-0.96618,-3.9482,8.7154,-14.634,0.98522,-7.8818,-2.8571,-5.7778,-9.4603,0.0,-3.8003,-0.12882,14.344,-19.704,-2.0513
3.7283,5.7778,3.9675,-3.9024,0.98522,-3.122,7.7295,1.877,5.7886,-3.9024,0.98522,-0.98522,-3.8095,-9.5873,-2.7937,2.8846,-1.868,7.6006,2.0221,-10.837,-0.12821
6.5719,8.6349,6.8943,2.9268,1.9704,2.7317,10.628,3.8188,3.8374,2.9268,1.9704,2.9557,-8.5714,-12.444,-0.88889,3.8462,-1.868,10.499,9.6051,-8.867,1.7949
6.5719,6.7302,2.9919,0.0,1.9704,4.6829,4.8309,4.7896,2.8618,0.0,1.9704,0.98522,-11.429,-8.6349,-1.8413,4.8077,-3.8003,10.499,7.7093,-6.8966,7.5641
-2.9068,-1.8413,-6.7642,-5.8537,0.98522,-3.122,-4.8309,4.7896,0.91057,-5.8537,0.98522,-6.8966,-14.286,-4.8254,-7.5556,0.0,-9.5974,7.6006,-0.82148,-6.8966,5.641
-7.6461,-7.5556,-9.6911,-5.8537,-2.9557,-6.0488,-6.7633,3.8188,-0.06504,-5.8537,-2.9557,-9.8522,-10.476,0.88889,-8.5079,-4.8077,-11.53,5.6683,5.8136,-1.9704,1.7949
-9.5419,-9.4603,-11.642,-7.8049,-3.9409,-15.805,-14.493,9.644,-2.9919,-7.8049,-3.9409,-15.764,-1.9048,6.6032,-5.6508,-4.8077,-8.6312,6.6345,2.0221,4.9261,-0.12821
-10.49,-12.317,-13.593,-11.707,-4.9261,-16.780001,-19.323999,2.8479,-3.9675,-11.707,-4.9261,-20.690001,1.9048,11.365,-5.6508,-3.8462,-4.7665,11.465,-8.4044,7.8818,0.83333
-15.229,-13.27,-20.423,-12.683,-7.8818,-16.780001,-24.155001,-1.0356,-4.9431,-12.683,-7.8818,-24.631001,3.8095,12.317,-7.5556,-5.7692,-4.7665,11.465,-9.3523,7.8818,0.83333
-17.125,-18.032,-26.275999,-12.683,-9.8522,-18.732,-23.188,-4.9191,-4.9431,-12.683,-9.8522,-26.601,5.7143,13.27,-8.5079,-8.6538,-5.7327,4.7021,-0.82148,5.9113,0.83333
-16.177,-18.032,-24.325001,-9.7561,-12.808,-18.732,-17.391001,-4.9191,-4.9431,-9.7561,-12.808,-25.615999,8.5714,15.175,-7.5556,-8.6538,-3.8003,2.7697,-3.6651,5.9113,2.7564
-11.438,-13.27,-15.545,-5.8537,-11.823,-9.9512,-17.391001,-7.8317,-5.9187,-5.8537,-11.823,-18.719,7.619,11.365,-5.6508,-6.7308,-2.8341,0.83736,-5.5608,3.9409,-0.12821
-12.385,-10.413,-11.642,-3.9024,-4.9261,-6.0488,-15.459,-9.7735,-4.9431,-3.9024,-4.9261,-11.823,2.8571,4.6984,-10.413,-8.6538,-7.6651,-12.689,-2.7172,-3.9409,-5.8974
-15.229,-12.317,-12.618,-1.9512,-1.9704,-13.854,-9.6618,-1.0356,-5.9187,-1.9512,-1.9704,-9.8522,1.9048,2.7937,-14.222,-11.538,-11.53,-17.52,1.0742,-7.8818,-5.8974
-19.021,-11.365,-13.593,0.97561,-2.9557,-14.829,-6.7633,0.90615,-2.9919,0.97561,-2.9557,-7.8818,2.8571,3.746,-14.222,-8.6538,-11.53,-7.8583,4.8657,-5.9113,-1.0897
-15.229,-3.746,-8.7154,2.9268,3.9409,-7.0244,-2.8986,-5.89,-1.0407,2.9268,3.9409,-0.98522,2.8571,3.746,-12.317,-4.8077,-10.564,-4.9597,0.12638,-1.9704,2.7564
-8.594,-1.8413,-5.7886,6.8293,8.867,0.78049,0.0,-0.06472,0.91057,6.8293,8.867,5.9113,-0.95238,-1.0159,-10.413,-7.6923,-12.496,-3.0274,5.8136,-4.9261,-3.0128
-3.8547,0.06349,-4.813,15.61,12.808,10.537,9.6618,3.8188,2.8618,15.61,12.808,13.793,-2.8571,-4.8254,-9.4603,-10.577,-14.428,-0.12882,-0.82148,-7.8818,-6.859
3.7283,2.9206,0.06504,26.341,17.733999,15.415,17.391001,8.6731,5.7886,26.341,17.733999,19.704,-1.9048,-6.7302,-5.6508,-5.7692,-10.564,-0.12882,-4.613,-4.9261,-4.9359
7.5197,5.7778,6.8943,28.292999,16.749001,17.365999,18.357,20.323999,7.7398,28.292999,16.749001,22.66,-0.95238,-13.397,0.06349,-1.9231,-3.8003,-3.0274,0.12638,-2.9557,-8.7821
16.051001,15.302,20.552999,33.171001,20.690001,26.146,22.222,27.120001,14.569,33.171001,20.690001,31.527,1.9048,-14.349,10.54,7.6923,7.7939,7.6006,11.501,2.9557,-5.8974
23.632999,18.159,26.407,33.171001,28.570999,30.049,24.155001,20.323999,15.545,33.171001,28.570999,33.498001,0.95238,-20.063,18.159,10.577,14.557,12.432,15.292,0.98522,-10.705
22.686001,15.302,25.431,35.122002,26.601,27.122,23.188,17.410999,12.618,35.122002,26.601,28.570999,-5.7143,-25.778,18.159,10.577,14.557,12.432,7.7093,-1.9704,-11.667
21.738001,16.254,22.504,31.219999,15.764,20.292999,18.357,21.294001,8.7154,31.219999,15.764,21.674999,-9.5238,-21.016001,19.111,14.423,15.523,7.6006,0.12638,-3.9409,-3.0128
18.893999,14.349,17.625999,21.462999,13.793,15.415,12.56,19.353001,3.8374,21.462999,13.793,13.793,-10.476,-14.349,18.159,16.346001,15.523,6.6345,6.7615,-2.9557,5.641
12.259,12.444,10.797,16.584999,11.823,6.6341,4.8309,11.586,-0.06504,16.584999,11.823,4.9261,-9.5238,-1.9683,14.349,19.231001,13.591,2.7697,9.6051,0.0,13.333
4.6761,9.5873,4.9431,14.634,0.98522,10.537,0.96618,-15.599,-4.9431,14.634,0.98522,-0.98522,-3.8095,12.317,8.6349,20.191999,12.625,-8.8245,4.8657,-1.9704,20.063999
-2.9068,7.6825,2.0163,6.8293,-4.9261,-2.1463,-9.6618,-4.9191,-9.8211,6.8293,-4.9261,-8.867,4.7619,22.794001,7.6825,21.153999,15.523,-11.723,-7.4566,0.0,23.91
-4.8025,7.6825,1.0407,0.0,-6.8966,-12.878,-7.7295,2.8479,-12.748,0.0,-6.8966,-13.793,16.190001,33.27,10.54,23.077,20.354,-5.9259,-9.3523,5.9113,25.833
1.8325,4.8254,2.0163,2.9268,-5.9113,-5.0732,-4.8309,-4.9191,-10.797,2.9268,-5.9113,-10.837,28.570999,41.841,17.205999,23.077,26.150999,-3.0274,3.9179,10.837,25.833
2.7804,2.9206,2.9919,6.8293,-2.9557,-3.122,-5.7971,-5.89,-10.797,6.8293,-2.9557,-7.8818,32.381001,44.698002,16.254,21.153999,26.150999,-6.8921,-3.6651,12.808,22.948999
1.8325,2.9206,4.9431,10.732,2.9557,-0.19512,1.9324,-4.9191,-10.797,10.732,2.9557,-3.9409,30.476,42.793999,13.397,18.268999,24.219,-10.757,-6.5087,13.793,21.987
1.8325,1.0159,6.8943,6.8293,3.9409,5.6585,3.8647,-12.686,-7.8699,6.8293,3.9409,-0.98522,21.905001,33.27,7.6825,14.423,18.422001,-20.419001,-14.092,1.9704,14.295
4.6761,1.9683,6.8943,6.8293,3.9409,7.6098,0.96618,-10.744,-7.8699,6.8293,3.9409,3.9409,19.048,27.556,4.8254,10.577,15.523,-22.351,-16.934999,-0.98522,8.5256
5.624,1.0159,5.9187,20.488001,11.823,6.6341,4.8309,-2.9773,-4.9431,20.488001,11.823,6.8966,18.094999,23.746,5.7778,7.6923,13.591,-19.452,-3.6651,0.0,6.6026
6.5719,-1.8413,4.9431,24.389999,12.808,6.6341,4.8309,-5.89,-4.9431,24.389999,12.808,6.8966,12.381,14.222,3.873,0.96154,7.7939,-12.689,1.0742,1.9704,-4.9359
5.624,-4.6984,2.9919,24.389999,16.749001,9.561,2.8986,-2.0065,-0.06504,24.389999,16.749001,7.8818,5.7143,3.746,1.0159,-6.7308,1.0306,-4.9597,-1.7694,2.9557,-15.513
0.88468,-9.4603,0.06504,18.537001,15.764,4.6829,1.9324,1.877,-1.0407,18.537001,15.764,3.9409,0.95238,-0.06349,-1.8413,-10.577,-4.7665,-4.9597,-13.144,0.0,-15.513
-0.06319,-6.6032,-1.8862,14.634,11.823,7.6098,-0.96618,-11.715,-1.0407,14.634,11.823,2.9557,-3.8095,-1.9683,-5.6508,-9.6154,-6.6989,-5.9259,-12.196,-2.9557,-12.628
-2.9068,-5.6508,-4.813,8.7805,9.8522,0.78049,-5.7971,-2.9773,1.8862,8.7805,9.8522,0.0,-9.5238,-6.7302,-9.4603,-8.6538,-8.6312,-9.7907,-12.196,-9.8522,-8.7821
-10.49,-7.5556,-10.667,3.9024,4.9261,-8.0,-6.7633,0.90615,2.8618,3.9024,4.9261,-6.8966,-17.143,-15.302,-14.222,-14.423,-14.428,-10.757,-2.7172,-13.793,-14.551
-4.8025,-5.6508,-4.813,4.878,2.9557,-5.0732,-2.8986,8.6731,7.7398,4.878,2.9557,-2.9557,-14.286,-18.159,-7.5556,-11.538,-10.564,3.7359,6.7615,-4.9261,-15.513
8.4676,2.9206,8.8455,7.8049,3.9409,5.6585,1.9324,11.586,10.667,7.8049,3.9409,6.8966,-5.7143,-17.205999,5.7778,-1.9231,0.06441,11.465,6.7615,5.9113,-10.705
16.997999,13.397,17.625999,15.61,14.778,11.512,12.56,16.440001,14.569,15.61,14.778,14.778,-0.95238,-14.349,15.302,6.7308,7.7939,19.195,7.7093,11.823,-5.8974
21.738001,16.254,21.528,12.683,11.823,17.365999,15.459,10.615,16.52,12.683,11.823,15.764,3.8095,-6.7302,21.016001,13.462,14.557,22.093,10.553,10.837,2.7564
18.893999,13.397,20.552999,-1.9512,1.9704,10.537,11.594,0.90615,10.667,-1.9512,1.9704,10.837,3.8095,-4.8254,21.968,14.423,15.523,17.261999,5.8136,12.808,5.641
16.051001,14.349,18.601999,-2.9268,0.98522,8.5854,9.6618,0.90615,8.7154,-2.9268,0.98522,9.8522,2.8571,-0.06349,21.968,14.423,15.523,18.229,4.8657,15.764,10.449
13.207,10.54,14.699,-5.8537,-0.98522,0.78049,6.7633,4.7896,3.8374,-5.8537,-0.98522,5.9113,0.95238,3.746,19.111,12.5,12.625,9.533,12.449,14.778,10.449
8.4676,10.54,10.797,-9.7561,-2.9557,-4.0976,0.96618,3.8188,-0.06504,-9.7561,-2.9557,1.9704,0.95238,8.5079,16.254,13.462,11.659,8.5668,17.188,11.823,11.41
5.624,10.54,10.797,-15.61,-4.9261,-4.0976,2.8986,-0.06472,0.91057,-15.61,-4.9261,0.0,5.7143,16.127001,15.302,17.308001,15.523,11.465,9.6051,10.837,17.179001
4.6761,6.7302,8.8455,-17.561001,-9.8522,1.7561,4.8309,-12.686,-1.0407,-17.561001,-9.8522,0.98522,9.5238,18.032,13.397,14.423,15.523,4.7021,-8.4044,13.793,15.256
6.5719,5.7778,9.8211,-9.7561,-9.8522,2.7317,8.6957,-4.9191,-2.0163,-9.7561,-9.8522,3.9409,14.286,22.794001,15.302,15.385,19.388,5.6683,-2.7172,16.749001,15.256
11.311,6.7302,13.724,0.0,5.9113,1.7561,13.527,0.90615,2.8618,0.0,5.9113,9.8522,20.0,24.698,19.111,16.346001,24.219,11.465,2.97,20.690001,15.256
8.4676,4.8254,9.8211,-0.97561,11.823,0.78049,10.628,-2.0065,3.8374,-0.97561,11.823,10.837,18.094999,18.032,14.349,11.538,19.388,10.499,0.12638,18.719,7.5641
3.7283,1.0159,3.9675,0.0,12.808,1.7561,7.7295,-1.0356,2.8618,0.0,12.808,10.837,11.429,8.5079,6.7302,2.8846,11.659,-0.12882,2.0221,12.808,-3.0128
4.6761,2.9206,1.0407,1.9512,8.867,5.6585,5.7971,0.90615,3.8374,1.9512,8.867,9.8522,5.7143,2.7937,2.9206,-3.8462,4.8953,4.7021,0.12638,7.8818,-7.8205
1.8325,1.0159,-2.8618,3.9024,6.8966,4.6829,9.6618,7.7023,8.7154,3.9024,6.8966,8.867,-3.8095,-4.8254,-3.746,-9.6154,-2.8341,7.6006,-7.4566,-5.9113,-9.7436
0.88468,-0.88889,-3.8374,0.0,9.8522,6.6341,9.6618,14.498,12.618,0.0,9.8522,9.8522,-7.619,-11.492,-7.5556,-12.5,-6.6989,7.6006,-0.82148,-7.8818,-11.667
3.7283,-1.8413,-2.8618,5.8537,8.867,11.512,9.6618,6.7314,11.642,5.8537,8.867,12.808,-13.333,-20.063,-9.4603,-15.385,-10.564,-0.12882,15.292,-10.837,-18.396999
3.7283,-1.8413,0.06504,14.634,6.8966,12.488,12.56,3.8188,11.642,14.634,6.8966,14.778,-18.094999,-24.825001,-11.365,-15.385,-13.462,-0.12882,7.7093,-15.764,-23.205
1.8325,2.9206,3.9675,16.584999,10.837,9.561,11.594,17.410999,10.667,16.584999,10.837,15.764,-20.0,-22.921,-12.317,-10.577,-13.462,7.6006,6.7615,-13.793,-16.474001
-0.06319,1.9683,2.9919,13.659,7.8818,5.6585,3.8647,18.382,7.7398,13.659,7.8818,10.837,-22.857,-21.968,-14.222,-8.6538,-15.395,7.6006,2.0221,-14.778,-12.628
-1.0111,-4.6984,-1.8862,6.8293,5.9113,5.6585,-2.8986,5.7605,2.8618,6.8293,5.9113,4.9261,-25.714001,-24.825001,-15.175,-12.5,-19.259001,-2.0612,2.0221,-13.793,-11.667
7.5197,-6.6032,1.0407,8.7805,12.808,13.463,1.9324,9.644,3.8374,8.7805,12.808,9.8522,-21.905001,-21.016001,-8.5079,-14.423,-18.292999,7.6006,1.0742,-7.8818,-9.7436
13.207,-5.6508,5.9187,14.634,13.793,21.268,5.7971,13.528,0.91057,14.634,13.793,15.764,-18.094999,-19.111,-3.746,-16.346001,-17.327,16.296,-3.6651,-4.9261,-5.8974
12.259,-6.6032,6.8943,14.634,8.867,25.171,7.7295,7.7023,1.8862,14.634,8.867,16.749001,-20.0,-20.063,-5.6508,-16.346001,-19.259001,13.398,2.97,-7.8818,-8.7821
2.7804,-6.6032,2.9919,11.707,5.9113,11.512,6.7633,13.528,-0.06504,11.707,5.9113,8.867,-20.952,-18.159,-11.365,-12.5,-21.191999,0.83736,-5.5608,-15.764,-9.7436
1.8325,1.9683,4.9431,16.584999,9.8522,6.6341,5.7971,18.382,-2.0163,16.584999,9.8522,7.8818,-13.333,-9.5873,-7.5556,-1.9231,-13.462,4.7021,-6.5087,-9.8522,-2.0513
5.624,6.7302,9.8211,20.488001,7.8818,7.6098,5.7971,14.498,-4.9431,20.488001,7.8818,8.867,-5.7143,-4.8254,-0.88889,4.8077,-4.7665,9.533,-2.7172,-1.9704,0.83333
14.155,9.5873,15.675,20.488001,9.8522,19.316999,9.6618,7.7023,-2.9919,20.488001,9.8522,15.764,1.9048,-1.0159,6.7302,10.577,2.963,11.465,-6.5087,0.98522,4.6795
16.051001,12.444,17.625999,24.389999,17.733999,21.268,15.459,12.557,2.8618,24.389999,17.733999,20.690001,5.7143,1.8413,9.5873,12.5,6.8277,11.465,-14.092,4.9261,6.6026
14.155,12.444,15.675,33.171001,25.615999,21.268,17.391001,20.323999,2.8618,33.171001,25.615999,23.645,2.8571,-3.873,7.6825,7.6923,3.9291,18.229,-7.4566,5.9113,1.7949
15.103,8.6349,13.724,37.073002,28.570999,22.243999,16.424999,22.264999,3.8374,37.073002,28.570999,23.645,1.9048,-9.5873,6.7302,2.8846,1.9968,22.093,-7.4566,7.8818,-7.8205
17.945999,7.6825,14.699,40.0,29.556999,30.049,20.290001,24.207001,5.7886,40.0,29.556999,27.586,-1.9048,-15.302,8.6349,2.8846,2.963,22.093,-8.4044,6.8966,-11.667
22.686001,11.492,15.675,40.0,34.483002,27.122,21.256001,30.032,9.6911,40.0,34.483002,28.570999,-4.7619,-18.159,9.5873,3.8462,3.9291,22.093,-0.82148,2.9557,-9.7436
19.841999,10.54,9.8211,29.268,34.483002,23.219999,24.155001,25.177999,12.618,29.268,34.483002,25.615999,-6.6667,-19.111,6.7302,2.8846,2.963,24.025999,2.0221,1.9704,-8.7821
14.155,6.7302,2.0163,23.415001,28.570999,22.243999,23.188,15.469,18.472,23.415001,28.570999,22.66,-7.619,-17.205999,3.873,1.9231,1.0306,20.160999,-5.5608,2.9557,-4.9359
6.5719,2.9206,-4.813,22.438999,26.601,11.512,17.391001,14.498,16.52,22.438999,26.601,13.793,-7.619,-14.349,0.06349,-1.9231,-1.868,17.261999,2.0221,3.9409,-8.7821
-2.9068,-4.6984,-13.593,12.683,18.719,5.6585,7.7295,6.7314,12.618,12.683,18.719,3.9409,-9.5238,-8.6349,-6.6032,-6.7308,-7.6651,9.533,2.0221,-2.9557,-10.705
-9.5419,-9.4603,-19.447001,-0.97561,1.9704,-8.0,-4.8309,9.644,6.7642,-0.97561,1.9704,-6.8966,-8.5714,-0.06349,-11.365,-8.6538,-9.5974,7.6006,-5.5608,-2.9557,-4.9359
-13.333,-12.317,-22.374001,-2.9268,0.0,-12.878,-6.7633,9.644,4.813,-2.9268,0.0,-11.823,-6.6667,7.5556,-14.222,-8.6538,-12.496,11.465,0.12638,-2.9557,0.83333
-17.125,-11.365,-23.35,-11.707,-0.98522,-11.902,-10.628,-1.0356,4.813,-11.707,-0.98522,-13.793,-8.5714,5.6508,-18.032,-11.538,-17.327,4.7021,5.8136,-4.9261,0.83333
-17.125,-12.317,-20.423,-16.584999,-6.8966,-14.829,-14.493,-4.9191,2.8618,-16.584999,-6.8966,-13.793,-11.429,-0.06349,-18.983999,-14.423,-20.225,-3.9936,0.12638,-4.9261,-2.0513
-15.229,-11.365,-18.472,-11.707,-10.837,-8.9756,-9.6618,-13.657,4.813,-11.707,-10.837,-9.8522,-12.381,-2.9206,-18.983999,-16.346001,-21.191999,-4.9597,-6.5087,-7.8818,-2.0513
-13.333,-9.4603,-16.52,-18.537001,-6.8966,-12.878,-4.8309,-13.657,9.6911,-18.537001,-6.8966,-8.867,-12.381,-9.5873,-18.983999,-18.268999,-23.124001,-3.9936,0.12638,-7.8818,-7.8205
-13.333,-5.6508,-12.618,-15.61,-7.8818,-13.854,-6.7633,-17.540001,9.6911,-15.61,-7.8818,-7.8818,-11.429,-11.492,-18.983999,-16.346001,-21.191999,-12.689,2.0221,-7.8818,-9.7436
-13.333,-0.88889,-6.7642,-13.659,-8.867,-14.829,-0.96618,-18.511,8.7154,-13.659,-8.867,-6.8966,-8.5714,-11.492,-16.127001,-9.6154,-15.395,-17.52,-0.82148,-5.9113,-3.9744
-11.438,1.9683,-1.8862,-18.537001,-9.8522,-15.805,0.0,-16.57,11.642,-18.537001,-9.8522,-6.8966,-2.8571,-11.492,-9.4603,-3.8462,-7.6651,-13.655,10.553,-4.9261,-0.12821
-10.49,2.9206,0.06504,-24.389999,-12.808,-16.780001,-6.7633,-23.365999,7.7398,-24.389999,-12.808,-9.8522,2.8571,-7.6825,-4.6984,0.96154,0.06441,-17.52,9.6051,-4.9261,2.7564
-11.438,1.0159,-0.91057,-26.341,-19.704,-20.683001,-9.6618,-30.162001,4.813,-26.341,-19.704,-14.778,4.7619,-3.873,-1.8413,4.8077,3.9291,-24.283001,-3.6651,-2.9557,7.5641
-13.333,0.06349,0.06504,-25.365999,-20.690001,-18.732,-8.6957,-32.104,5.7886,-25.365999,-20.690001,-14.778,4.7619,-1.0159,-0.88889,5.7692,6.8277,-25.25,3.9179,-5.9113,7.5641
-14.281,0.06349,-0.91057,-29.268,-17.733999,-22.634001,-14.493,-26.278,4.813,-29.268,-17.733999,-17.733999,4.7619,1.8413,-1.8413,6.7308,7.7939,-24.283001,13.397,-11.823,6.6026
-16.177,0.06349,-2.8618,-31.219999,-15.764,-28.488001,-16.424999,-16.57,2.8618,-31.219999,-15.764,-21.674999,4.7619,6.6032,0.06349,8.6538,8.7601,-24.283001,7.7093,-10.837,10.449
-10.49,-0.88889,-3.8374,-28.292999,-19.704,-21.659,-16.424999,-14.628,1.8862,-28.292999,-19.704,-22.66,7.619,11.365,4.8254,10.577,10.692,-14.622,7.7093,-3.9409,14.295
-8.594,-4.6984,-6.7642,-26.341,-24.631001,-16.780001,-17.391001,-25.306999,-2.0163,-26.341,-24.631001,-24.631001,6.6667,12.317,4.8254,8.6538,8.7601,-12.689,10.553,-2.9557,15.256
-12.385,-3.746,-9.6911,-24.389999,-19.704,-19.707001,-16.424999,-19.482,-2.9919,-24.389999,-19.704,-24.631001,0.95238,8.5079,0.06349,5.7692,2.963,-12.689,7.7093,-4.9261,13.333
-13.333,-0.88889,-10.667,-24.389999,-19.704,-16.780001,-14.493,-19.482,-0.06504,-24.389999,-19.704,-22.66,-1.9048,4.6984,-0.88889,4.8077,1.9968,-7.8583,0.12638,-4.9261,13.333
-18.073,-5.6508,-18.472,-27.316999,-22.66,-22.634001,-22.222,-15.599,-8.8455,-27.316999,-22.66,-26.601,-4.7619,-2.9206,-5.6508,-0.96154,-2.8341,-8.8245,2.0221,-5.9113,3.7179
-18.073,-8.5079,-21.398001,-30.243999,-26.601,-26.537001,-20.290001,-5.89,-15.675,-30.243999,-26.601,-28.570999,-3.8095,-4.8254,-5.6508,-2.8846,-2.8341,0.83736,2.0221,-0.98522,-3.0128
-11.438,-6.6032,-15.545,-24.389999,-27.586,-21.659,-13.527,-3.9482,-11.772,-24.389999,-27.586,-22.66,3.8095,2.7937,3.873,3.8462,6.8277,0.83736,-0.82148,10.837,1.7949
-5.7504,-6.6032,-10.667,-23.415001,-24.631001,-11.902,-11.594,-5.89,-12.748,-23.415001,-24.631001,-17.733999,7.619,5.6508,10.54,6.7308,13.591,5.6683,2.97,15.764,3.7179
-1.0111,-2.7937,-5.7886,-18.537001,-22.66,-8.0,-9.6618,-2.0065,-10.797,-18.537001,-22.66,-12.808,10.476,7.5556,13.397,9.6154,16.49,15.33,-8.4044,20.690001,8.5256
