C3,C4,Cz,F1,F2,F3,F4,F7,F8,Fp1,Fp2,Fz,O1,O2,P3,P4,Pz,T3,T4,T5,T6
2.7804,-3.7915,1.8123,2.8341,4.7665,0.89744,4.7209,5.6778,3.8647,2.8341,4.7665,2.7967,-7.7193,0.95694,-4.7847,-1.0207,-0.19231,9.5694,-1.9048,-1.9968,-1.9777
0.88468,0.94787,-0.12945,-1.0306,0.90177,-2.9487,1.8501,0.89314,-2.8986,-1.0306,0.90177,-0.13008,-13.461,-2.8708,-6.6986,-0.0638,-3.0769,1.9139,-8.5714,-5.8615,1.8501
0.88468,-0.94787,-1.1003,-5.8615,-1.0306,-1.9872,-1.0207,-1.9777,-0.96618,-5.8615,-1.0306,-2.0813,-19.202999,-10.526,-8.6124,-1.9777,-6.9231,-4.7847,-2.8571,-5.8615,-7.7193
-1.9589,-5.6872,-3.0421,-4.8953,-2.963,-4.8718,-4.8485,-2.9346,1.9324,-4.8953,-2.963,-4.0325,-20.159,-11.483,-8.6124,-4.8485,-7.8846,0.0,4.7619,-3.9291,-9.6332
2.7804,-5.6872,0.84142,3.8003,0.90177,-1.9872,-2.9346,-0.0638,1.9324,3.8003,0.90177,-3.0569,-12.504,-6.6986,-2.8708,-1.0207,-3.0769,1.9139,3.8095,-4.8953,-1.9777
15.103,11.374,12.492,9.5974,9.5974,6.6667,9.5056,7.5917,3.8647,9.5974,9.5974,7.6748,-1.0207,1.9139,11.483,13.333,11.346,9.5694,0.0,3.8003,2.807
6.5719,10.427,9.5793,2.8341,4.7665,3.7821,4.7209,2.807,0.0,2.8341,4.7665,4.748,-1.9777,-0.95694,8.6124,8.5486,8.4615,1.9139,1.9048,1.868,1.8501
-0.06319,6.6351,5.6958,2.8341,3.8003,1.859,5.6778,2.807,1.9324,2.8341,3.8003,4.748,-4.8485,-4.7847,1.9139,0.89314,1.7308,-0.95694,-3.8095,-6.8277,-0.0638
6.5719,15.166,10.55,6.6989,9.5974,9.5513,15.247,9.5056,4.8309,6.6989,9.5974,12.553,-2.9346,-1.9139,0.95694,4.7209,3.6538,-1.9139,0.0,-7.7939,2.807
2.7804,6.6351,7.6375,5.7327,8.6312,5.7051,9.5056,4.7209,8.6957,5.7327,8.6312,8.6504,-4.8485,-1.9139,-1.9139,2.807,2.6923,-9.5694,8.5714,-4.8953,3.764
-1.0111,8.5308,4.7249,0.90177,3.8003,-1.0256,3.764,-2.9346,5.7971,0.90177,3.8003,0.84553,-5.8054,-0.95694,-4.7847,7.5917,2.6923,0.0,8.5714,-0.06441,2.807
-1.0111,2.8436,0.84142,-4.8953,-1.9968,-6.7949,-1.9777,-5.8054,-3.8647,-4.8953,-1.9968,-5.9837,-5.8054,-1.9139,-5.7416,8.5486,0.76923,9.5694,4.7619,-2.963,2.807
7.5197,-6.6351,-3.0421,-8.7601,-5.8615,-5.8333,-7.7193,-3.8915,-4.8309,-8.7601,-5.8615,-8.9106,-4.8485,-4.7847,-0.95694,4.7209,0.76923,-1.9139,0.0,-0.06441,-1.9777
7.5197,2.8436,-0.12945,-5.8615,-3.9291,-4.8718,-5.8054,-2.9346,1.9324,-5.8615,-3.9291,-6.9593,-1.0207,-1.9139,3.8278,9.5056,3.6538,-2.8708,-5.7143,0.90177,2.807
-3.8547,-3.7915,-4.0129,-5.8615,-5.8615,-6.7949,-8.6762,-4.8485,-15.459,-5.8615,-5.8615,-8.9106,-2.9346,-5.7416,0.0,2.807,-1.1538,1.9139,2.8571,-0.06441,-1.9777
-1.9589,-4.7393,-3.0421,-1.9968,-2.963,-4.8718,-3.8915,-1.9777,-4.8309,-1.9968,-2.963,-5.0081,2.807,-4.7847,4.7847,-2.9346,-1.1538,4.7847,6.6667,11.53,-10.59
4.6761,-7.5829,-0.12945,1.868,0.90177,1.859,-1.0207,3.764,9.6618,1.868,0.90177,1.8211,7.5917,-2.8708,6.6986,-6.7624,-0.19231,15.311,3.8095,7.6651,-1.0207
4.6761,-5.6872,-1.1003,3.8003,1.868,4.7436,2.807,5.6778,0.0,3.8003,1.868,4.748,11.419,1.9139,6.6986,-4.8485,-1.1538,10.526,-0.95238,12.496,2.807
-4.8025,-5.6872,-7.8964,0.90177,-2.963,-1.9872,-2.9346,-3.8915,-0.96618,0.90177,-2.963,-2.0813,7.5917,4.7847,-0.95694,-4.8485,-4.0385,0.0,0.95238,4.7665,4.7209
-12.385,-4.7393,-10.809,-4.8953,-3.9291,-7.7564,-5.8054,-7.7193,-2.8986,-4.8953,-3.9291,-6.9593,-0.0638,2.8708,-8.6124,-3.8915,-6.9231,-11.483,-0.95238,-6.8277,5.6778
-12.385,-2.8436,-5.9547,-3.9291,0.90177,-5.8333,-2.9346,-4.8485,2.8986,-3.9291,0.90177,-5.0081,-3.8915,0.95694,-10.526,-3.8915,-5.9615,-17.225,-1.9048,-12.625,2.807
-2.9068,6.6351,4.7249,1.868,5.7327,2.8205,6.6348,1.8501,7.7295,1.868,5.7327,4.748,-1.0207,0.95694,-3.8278,1.8501,0.76923,0.0,-9.5238,-5.8615,2.807
-1.0111,3.7915,0.84142,-1.0306,0.90177,-0.0641,2.807,-5.8054,7.7295,-1.0306,0.90177,0.84553,-4.8485,-3.8278,-4.7847,-1.9777,-3.0769,1.9139,5.7143,-1.9968,-0.0638
4.6761,9.4787,1.8123,0.90177,0.90177,0.89744,3.764,-4.8485,-7.7295,0.90177,0.90177,0.84553,-1.0207,-0.95694,0.0,1.8501,-1.1538,-1.9139,0.95238,-0.06441,5.6778
6.5719,6.6351,-3.0421,-2.963,-1.0306,-1.9872,-1.0207,-1.9777,-4.8309,-2.963,-1.0306,-3.0569,-0.0638,-3.8278,2.8708,-1.0207,-2.1154,-3.8278,-0.95238,3.8003,2.807
-1.0111,-6.6351,-10.809,-9.7262,-6.8277,-9.6795,-11.547,-3.8915,2.8986,-9.7262,-6.8277,-11.837,-1.0207,-6.6986,-0.95694,-6.7624,-6.9231,-6.6986,0.0,-0.06441,-5.8054
-9.5419,-5.6872,-10.809,-8.7601,-6.8277,-11.603,-10.59,-6.7624,4.8309,-8.7601,-6.8277,-12.813,-0.0638,-2.8708,-4.7847,-5.8054,-7.8846,0.0,-4.7619,-1.9968,-1.0207
-7.6461,-1.8957,-4.9838,-5.8615,-5.8615,-5.8333,-4.8485,-1.9777,-3.8647,-5.8615,-5.8615,-5.9837,4.7209,1.9139,-1.9139,-0.0638,-3.0769,1.9139,-2.8571,2.8341,-0.0638
-1.0111,-1.8957,-0.12945,-1.0306,-1.9968,-1.0256,-0.0638,-1.9777,-0.96618,-1.0306,-1.9968,-1.1057,10.463,3.8278,3.8278,4.7209,1.7308,1.9139,5.7143,2.8341,-1.0207
5.624,0.94787,0.84142,0.90177,-1.0306,0.89744,-2.9346,-1.0207,3.8647,0.90177,-1.0306,-3.0569,13.333,6.6986,8.6124,5.6778,4.6154,2.8708,1.9048,9.5974,6.6348
0.88468,-8.5308,-4.9838,-5.8615,-6.8277,-4.8718,-9.6332,-4.8485,-0.96618,-5.8615,-6.8277,-7.935,8.5486,2.8708,4.7847,-1.0207,-0.19231,4.7847,2.8571,8.6312,5.6778
-0.06319,-7.5829,-4.9838,-4.8953,-7.7939,-4.8718,-9.6332,-1.9777,-6.7633,-4.8953,-7.7939,-6.9593,3.764,-4.7847,-0.95694,-5.8054,-5.0,4.7847,0.0,-1.0306,-1.0207
-0.06319,-10.427,-4.0129,-2.963,-3.9291,-1.9872,-6.7624,-1.9777,-3.8647,-2.963,-3.9291,-4.0325,0.89314,-6.6986,-2.8708,-9.6332,-5.9615,2.8708,0.0,-1.0306,-7.7193
-1.9589,-7.5829,-3.0421,-5.8615,-1.9968,-1.0256,-1.0207,-2.9346,-3.8647,-5.8615,-1.9968,-2.0813,1.8501,-2.8708,-3.8278,-8.6762,-5.0,-7.6555,0.0,2.8341,-6.7624
-7.6461,-4.7393,-4.9838,-2.963,-1.0306,-2.9487,0.89314,-4.8485,-2.8986,-2.963,-1.0306,-2.0813,2.807,0.95694,-6.6986,-9.6332,-5.9615,-12.44,-3.8095,-2.963,-2.9346
-9.5419,-6.6351,-5.9547,1.868,-0.06441,-3.9103,-0.0638,-3.8915,5.7971,1.868,-0.06441,-1.1057,1.8501,3.8278,-9.5694,-8.6762,-5.9615,-9.5694,-0.95238,-2.963,-2.9346
-8.594,-9.4787,-5.9547,0.90177,-0.06441,-4.8718,-0.0638,-4.8485,6.7633,0.90177,-0.06441,-0.13008,2.807,4.7847,-8.6124,-8.6762,-5.0,-13.397,-1.9048,-1.9968,-1.0207
-4.8025,0.94787,0.84142,3.8003,3.8003,2.8205,6.6348,-1.0207,6.7633,3.8003,3.8003,5.7236,8.5486,11.483,0.95694,-1.0207,3.6538,0.95694,-11.429,1.868,4.7209
-1.0111,1.8957,5.6958,2.8341,3.8003,6.6667,9.5056,-1.0207,6.7633,2.8341,3.8003,8.6504,9.5056,11.483,4.7847,2.807,6.5385,11.483,1.9048,4.7665,4.7209
12.259,11.374,11.521,4.7665,3.8003,9.5513,9.5056,5.6778,1.9324,4.7665,3.8003,10.602,9.5056,12.44,10.526,9.5056,9.4231,1.9139,-3.8095,5.7327,5.6778
12.259,7.5829,5.6958,-0.06441,-0.06441,6.6667,2.807,1.8501,2.8986,-0.06441,-0.06441,3.7724,6.6348,11.483,7.6555,7.5917,5.5769,-1.9139,-7.619,2.8341,2.807
-1.0111,-3.7915,-2.0712,-1.9968,-2.963,-1.9872,-1.9777,-1.9777,-1.9324,-1.9968,-2.963,-3.0569,1.8501,6.6986,0.0,2.807,0.76923,-0.95694,1.9048,-3.9291,3.764
2.7804,14.218,3.754,4.7665,2.8341,0.89744,7.5917,2.807,-1.9324,4.7665,2.8341,1.8211,5.6778,8.6124,7.6555,10.463,8.4615,6.6986,0.95238,6.6989,3.764
8.4676,15.166,2.7832,0.90177,0.90177,0.89744,4.7209,-1.0207,8.6957,0.90177,0.90177,-0.13008,7.5917,7.6555,10.526,9.5056,9.4231,0.0,-0.95238,8.6312,3.764
-4.8025,-9.4787,-8.8673,-3.9291,-5.8615,-7.7564,-7.7193,-8.6762,4.8309,-3.9291,-5.8615,-9.8862,2.807,2.8708,-0.95694,-4.8485,-0.19231,-0.95694,4.7619,2.8341,1.8501
-10.49,-20.853001,-11.78,-6.8277,-9.7262,-8.7179,-12.504,-6.7624,-4.8309,-6.8277,-9.7262,-10.862,1.8501,0.0,-2.8708,-10.59,-5.0,-5.7416,5.7143,8.6312,-0.0638
-3.8547,-7.5829,-5.9547,-0.06441,-7.7939,0.89744,-4.8485,2.807,-6.7633,-0.06441,-7.7939,-2.0813,5.6778,2.8708,1.9139,-4.8485,-1.1538,6.6986,-5.7143,8.6312,-1.9777
-1.9589,-3.7915,-2.0712,4.7665,-3.9291,2.8205,-1.0207,5.6778,-12.56,4.7665,-3.9291,0.84553,5.6778,2.8708,2.8708,-1.0207,1.7308,17.225,1.9048,3.8003,-4.8485
-2.9068,-5.6872,-4.0129,-0.06441,-4.8953,-4.8718,-6.7624,1.8501,-3.8647,-0.06441,-4.8953,-5.0081,0.89314,0.0,0.95694,-1.9777,-0.19231,4.7847,3.8095,4.7665,-1.9777
-5.7504,-8.5308,-7.8964,-4.8953,-5.8615,-8.7179,-10.59,-2.9346,2.8986,-4.8953,-5.8615,-8.9106,-3.8915,-2.8708,-2.8708,-3.8915,-3.0769,-8.6124,1.9048,-4.8953,0.89314
-0.06319,-0.94787,-5.9547,-3.9291,-5.8615,-5.8333,-9.6332,0.89314,-2.8986,-3.9291,-5.8615,-7.935,-2.9346,-1.9139,0.95694,1.8501,0.76923,-4.7847,0.0,-6.8277,1.8501
6.5719,1.8957,-2.0712,-3.9291,-6.8277,-1.9872,-7.7193,1.8501,-1.9324,-3.9291,-6.8277,-6.9593,-1.9777,-2.8708,5.7416,1.8501,2.6923,6.6986,-5.7143,-3.9291,-1.9777
-0.06319,-2.8436,-3.0421,-7.7939,-9.7262,-3.9103,-7.7193,-0.0638,-5.7971,-7.7939,-9.7262,-6.9593,-5.8054,-5.7416,1.9139,-1.0207,-1.1538,4.7847,-5.7143,-4.8953,-2.9346
4.6761,-1.8957,-1.1003,-2.963,-4.8953,-0.0641,-1.9777,-1.9777,-0.96618,-2.963,-4.8953,-2.0813,-1.9777,-1.9139,3.8278,-0.0638,-2.1154,0.0,-2.8571,2.8341,6.6348
0.88468,-7.5829,-7.8964,0.90177,-3.9291,-2.9487,-2.9346,-1.9777,-7.7295,0.90177,-3.9291,-4.0325,0.89314,-0.95694,2.8708,-5.8054,-5.9615,-0.95694,-1.9048,10.564,3.764
3.7283,1.8957,-4.9838,2.8341,-0.06441,-0.0641,0.89314,0.89314,-0.96618,2.8341,-0.06441,-0.13008,5.6778,5.7416,5.7416,0.89314,-1.1538,1.9139,-2.8571,14.428,4.7209
7.5197,7.5829,2.7832,4.7665,3.8003,4.7436,5.6778,2.807,0.96618,4.7665,3.8003,5.7236,10.463,8.6124,5.7416,5.6778,3.6538,2.8708,-3.8095,10.564,5.6778
-5.7504,-2.8436,-1.1003,1.868,1.868,0.89744,1.8501,-0.0638,1.9324,1.868,1.868,0.84553,3.764,0.95694,-6.6986,-1.9777,-4.0385,-8.6124,-2.8571,-2.963,-4.8485
-3.8547,3.7915,1.8123,2.8341,4.7665,3.7821,4.7209,-0.0638,6.7633,2.8341,4.7665,3.7724,-1.9777,-3.8278,-7.6555,-2.9346,-5.0,-1.9139,-2.8571,-6.8277,-6.7624
1.8325,0.0,1.8123,4.7665,5.7327,4.7436,4.7209,3.764,6.7633,4.7665,5.7327,5.7236,-5.8054,-7.6555,-3.8278,-5.8054,-4.0385,6.6986,4.7619,-2.963,-6.7624
4.6761,0.0,1.8123,4.7665,3.8003,6.6667,5.6778,7.5917,0.0,4.7665,3.8003,5.7236,-5.8054,-4.7847,-0.95694,-0.0638,-1.1538,0.0,-4.7619,-7.7939,-3.8915
8.4676,-3.7915,-1.1003,5.7327,0.90177,7.6282,1.8501,6.6348,-1.9324,5.7327,0.90177,3.7724,-6.7624,-4.7847,-1.9139,-1.0207,-3.0769,-0.95694,-8.5714,-3.9291,-1.9777
2.7804,-10.427,-5.9547,4.7665,0.90177,1.859,-2.9346,3.764,4.8309,4.7665,0.90177,-1.1057,-6.7624,-6.6986,-3.8278,-9.6332,-7.8846,0.0,0.95238,0.90177,-3.8915
8.4676,-0.94787,-3.0421,5.7327,4.7665,3.7821,3.764,2.807,13.527,5.7327,4.7665,1.8211,1.8501,-0.95694,2.8708,-3.8915,-2.1154,-0.95694,5.7143,4.7665,0.89314
9.4155,0.0,-0.12945,4.7665,1.868,3.7821,1.8501,2.807,1.9324,4.7665,1.868,1.8211,4.7209,-0.95694,6.6986,-4.8485,0.76923,10.526,5.7143,4.7665,-3.8915
3.7283,-3.7915,1.8123,1.868,-0.06441,3.7821,-1.0207,3.764,-5.7971,1.868,-0.06441,2.7967,2.807,-0.95694,2.8708,-4.8485,0.76923,7.6555,1.9048,-0.06441,-2.9346
5.624,0.94787,4.7249,6.6989,4.7665,6.6667,3.764,2.807,0.0,6.6989,4.7665,6.6992,4.7209,3.8278,3.8278,0.89314,2.6923,-1.9139,-0.95238,3.8003,3.764
10.363,2.8436,4.7249,4.7665,5.7327,5.7051,5.6778,0.89314,-10.628,4.7665,5.7327,6.6992,2.807,1.9139,8.6124,3.764,2.6923,-1.9139,-0.95238,7.6651,5.6778
2.7804,1.8957,-0.12945,-2.963,0.90177,-1.0256,1.8501,-6.7624,-4.8309,-2.963,0.90177,0.84553,-3.8915,-0.95694,3.8278,1.8501,-1.1538,-5.7416,7.619,3.8003,4.7209
-6.6983,2.8436,-2.0712,-5.8615,1.868,-5.8333,0.89314,-10.59,11.594,-5.8615,1.868,-2.0813,-5.8054,0.95694,-0.95694,4.7209,-3.0769,-6.6986,12.381,-1.0306,6.6348
-10.49,8.5308,-0.12945,-4.8953,2.8341,-6.7949,4.7209,-8.6762,9.6618,-4.8953,2.8341,-1.1057,-4.8485,3.8278,-2.8708,9.5056,-1.1538,-7.6555,4.7619,-11.659,9.5056
-8.594,8.5308,-1.1003,-2.963,1.868,-9.6795,3.764,-9.6332,6.7633,-2.963,1.868,-2.0813,-6.7624,0.95694,-2.8708,7.5917,-2.1154,-12.44,2.8571,-10.692,3.764
6.5719,20.853001,6.6667,2.8341,9.5974,0.89744,14.29,-1.9777,11.594,2.8341,9.5974,7.6748,-3.8915,0.95694,7.6555,9.5056,4.6154,-6.6986,2.8571,3.8003,-0.0638
10.363,5.6872,4.7249,4.7665,10.564,6.6667,9.5056,1.8501,13.527,4.7665,10.564,7.6748,-6.7624,-0.95694,3.8278,2.807,1.7308,5.7416,7.619,0.90177,-5.8054
5.624,-2.8436,1.8123,2.8341,6.6989,4.7436,1.8501,4.7209,11.594,2.8341,6.6989,4.748,-7.7193,-1.9139,-3.8278,-1.9777,-2.1154,-0.95694,-0.95238,-3.9291,-1.9777
0.88468,-5.6872,0.84142,-2.963,-1.0306,-1.0256,-2.9346,0.89314,-6.7633,-2.963,-1.0306,-0.13008,-10.59,-5.7416,-5.7416,-5.8054,-3.0769,-0.95694,0.0,-3.9291,-4.8485
7.5197,1.8957,8.6084,2.8341,2.8341,7.6282,1.8501,5.6778,-1.9324,2.8341,2.8341,4.748,-7.7193,-2.8708,0.0,1.8501,2.6923,7.6555,-9.5238,0.90177,-0.0638
-0.06319,7.5829,9.5793,6.6989,6.6989,7.6282,7.5917,5.6778,-2.8986,6.6989,6.6989,7.6748,-8.6762,-3.8278,-4.7847,4.7209,2.6923,-3.8278,0.0,-9.7262,-1.9777
-9.5419,0.0,3.754,6.6989,7.6651,0.89744,2.807,1.8501,4.8309,6.6989,7.6651,3.7724,-10.59,-7.6555,-9.5694,-0.0638,-1.1538,-4.7847,17.143,-12.625,-7.7193
-6.6983,-3.7915,1.8123,3.8003,6.6989,-0.0641,-1.0207,-1.0207,5.7971,3.8003,6.6989,0.84553,-6.7624,-5.7416,-6.6986,0.89314,0.76923,-0.95694,12.381,-8.7601,-5.8054
-0.06319,3.7915,5.6958,2.8341,4.7665,-0.0641,0.89314,-1.0207,5.7971,2.8341,4.7665,0.84553,1.8501,1.9139,4.7847,9.5056,8.4615,-2.8708,0.95238,2.8341,4.7209
-1.0111,-2.8436,1.8123,-5.8615,-2.963,-6.7949,-3.8915,-6.7624,-16.424999,-5.8615,-2.963,-5.0081,3.764,3.8278,4.7847,6.6348,7.5,-5.7416,8.5714,4.7665,6.6348
-1.9589,-0.94787,-2.0712,-4.8953,-2.963,-8.7179,-4.8485,-11.547,0.96618,-4.8953,-2.963,-6.9593,5.6778,6.6986,1.9139,4.7209,3.6538,-0.95694,2.8571,2.8341,6.6348
-4.8025,1.8957,-3.0421,2.8341,3.8003,-5.8333,-0.0638,-6.7624,16.424999,2.8341,3.8003,-3.0569,3.764,7.6555,-0.95694,3.764,-0.19231,3.8278,-2.8571,-0.06441,8.5486
-7.6461,0.94787,-3.0421,2.8341,3.8003,-1.9872,1.8501,-3.8915,6.7633,2.8341,3.8003,-0.13008,1.8501,4.7847,-2.8708,1.8501,-2.1154,0.95694,3.8095,-1.0306,1.8501
-2.9068,1.8957,-1.1003,2.8341,4.7665,0.89744,2.807,-2.9346,4.8309,2.8341,4.7665,2.7967,0.89314,1.9139,-2.8708,-1.0207,-3.0769,-4.7847,4.7619,7.6651,-1.0207
6.5719,5.6872,5.6958,5.7327,9.5974,6.6667,7.5917,-1.9777,5.7971,5.7327,9.5974,6.6992,1.8501,0.95694,-0.95694,2.807,1.7308,-8.6124,-0.95238,3.8003,0.89314
2.7804,5.6872,4.7249,4.7665,5.7327,4.7436,4.7209,1.8501,5.7971,4.7665,5.7327,4.748,-1.0207,-1.9139,-5.7416,0.89314,-0.19231,-3.8278,-2.8571,-6.8277,-8.6762
9.4155,15.166,7.6375,4.7665,5.7327,7.6282,6.6348,9.5056,1.9324,4.7665,5.7327,5.7236,3.764,3.8278,0.95694,7.5917,5.5769,3.8278,-2.8571,0.90177,-1.9777
2.7804,2.8436,-1.1003,-2.963,-2.963,1.859,-1.9777,3.764,-3.8647,-2.963,-2.963,-3.0569,-0.0638,1.9139,-1.9139,2.807,1.7308,9.5694,-2.8571,-2.963,-0.0638
-2.9068,0.94787,-3.0421,-4.8953,-3.9291,-2.9487,-1.0207,0.89314,-2.8986,-4.8953,-3.9291,-5.0081,-1.9777,2.8708,-3.8278,5.6778,1.7308,14.354,-0.95238,-4.8953,-1.9777
5.624,19.905001,4.7249,5.7327,3.8003,2.8205,12.376,4.7209,-3.8647,5.7327,3.8003,3.7724,6.6348,11.483,5.7416,16.204,9.4231,9.5694,-4.7619,7.6651,10.463
-0.06319,-1.8957,-3.0421,0.90177,-1.0306,-0.0641,-0.0638,-0.0638,2.8986,0.90177,-1.0306,-2.0813,-1.0207,2.8708,-0.95694,1.8501,-1.1538,-2.8708,0.0,4.7665,5.6778
-2.9068,-12.322,-6.9256,-1.0306,-2.963,-0.0641,-7.7193,-2.9346,4.8309,-1.0306,-2.963,-4.0325,-5.8054,-4.7847,-6.6986,-7.7193,-7.8846,-9.5694,0.95238,-2.963,-4.8485
6.5719,0.94787,2.7832,6.6989,3.8003,8.5897,1.8501,8.5486,5.7971,6.6989,3.8003,4.748,-0.0638,-2.8708,1.9139,-1.9777,-1.1538,12.44,8.5714,-0.06441,-1.9777
4.6761,3.7915,2.7832,2.8341,-0.06441,7.6282,-1.0207,7.5917,2.8986,2.8341,-0.06441,3.7724,1.8501,-4.7847,0.95694,-3.8915,-2.1154,13.397,6.6667,0.90177,-4.8485
2.7804,-2.8436,-1.1003,2.8341,-1.9968,4.7436,-1.9777,3.764,-4.8309,2.8341,-1.9968,0.84553,-0.0638,-3.8278,-2.8708,-6.7624,-4.0385,5.7416,3.8095,2.8341,-10.59
-0.06319,0.94787,1.8123,-0.06441,-0.06441,1.859,1.8501,0.89314,0.96618,-0.06441,-0.06441,2.7967,2.807,3.8278,-0.95694,-1.0207,0.76923,1.9139,3.8095,0.90177,-4.8485
-3.8547,4.7393,5.6958,-1.0306,0.90177,-1.9872,2.807,-2.9346,0.96618,-1.0306,0.90177,2.7967,3.764,6.6986,-1.9139,4.7209,4.6154,-9.5694,0.95238,-5.8615,-1.0207
-1.0111,6.6351,7.6375,2.8341,1.868,-0.0641,4.7209,-2.9346,0.96618,2.8341,1.868,5.7236,2.807,7.6555,-0.95694,7.5917,6.5385,-6.6986,-1.9048,-3.9291,2.807
10.363,6.6351,10.55,3.8003,3.8003,6.6667,7.5917,-2.9346,1.9324,3.8003,3.8003,8.6504,3.764,9.5694,1.9139,8.5486,6.5385,-9.5694,1.9048,-4.8953,7.5917
4.6761,6.6351,7.6375,-2.963,1.868,6.6667,4.7209,-2.9346,1.9324,-2.963,1.868,6.6992,-0.0638,6.6986,-2.8708,3.764,0.76923,-0.95694,-2.8571,-13.591,3.764
-4.8025,7.5829,2.7832,-3.9291,1.868,2.8205,5.6778,0.89314,-6.7633,-3.9291,1.868,3.7724,-4.8485,4.7847,-8.6124,-0.0638,-5.9615,11.483,-2.8571,-10.692,2.807
-1.9589,10.427,0.84142,3.8003,3.8003,2.8205,8.5486,6.6348,1.9324,3.8003,3.8003,5.7236,-3.8915,5.7416,-8.6124,2.807,-5.9615,4.7847,0.0,-2.963,5.6778
-8.594,0.0,-7.8964,0.90177,-0.06441,-0.0641,0.89314,1.8501,3.8647,0.90177,-0.06441,1.8211,-7.7193,0.0,-13.397,-4.8485,-11.731,2.8708,1.9048,-3.9291,1.8501
-3.8547,-2.8436,-7.8964,5.7327,1.868,5.7051,1.8501,10.463,0.96618,5.7327,1.868,3.7724,-4.8485,-1.9139,-9.5694,-4.8485,-10.769,-0.95694,4.7619,0.90177,-0.0638
-1.0111,4.7393,-1.1003,4.7665,3.8003,4.7436,1.8501,5.6778,1.9324,4.7665,3.8003,3.7724,0.89314,3.8278,-0.95694,1.8501,-2.1154,-6.6986,-14.286,4.7665,12.376
-0.06319,-12.322,-4.9838,-8.7601,-7.7939,-2.9487,-10.59,-8.6762,-6.7633,-8.7601,-7.7939,-5.9837,-1.0207,-3.8278,1.9139,-7.7193,-2.1154,-6.6986,-0.95238,4.7665,-1.9777
4.6761,-15.166,-0.12945,-4.8953,-3.9291,1.859,-8.6762,-0.0638,-7.7295,-4.8953,-3.9291,-2.0813,2.807,-1.9139,7.6555,-5.8054,2.6923,14.354,3.8095,2.8341,-7.7193
3.7283,-9.4787,2.7832,-3.9291,-2.963,-2.9487,-5.8054,-2.9346,-9.6618,-3.9291,-2.963,-2.0813,4.7209,1.9139,10.526,-0.0638,6.5385,4.7847,0.0,4.7665,-5.8054
0.88468,-0.94787,5.6958,-1.0306,0.90177,-4.8718,-1.0207,-2.9346,-2.8986,-1.0306,0.90177,-2.0813,7.5917,5.7416,10.526,6.6348,10.385,0.95694,8.5714,-1.0306,-1.9777
0.88468,5.6872,9.5793,-1.0306,1.868,-3.9103,1.8501,-0.0638,-8.6957,-1.0306,1.868,-0.13008,9.5056,7.6555,9.5694,11.419,11.346,2.8708,0.95238,3.8003,3.764
-1.0111,4.7393,4.7249,-3.9291,-1.0306,-1.9872,-1.9777,-2.9346,-4.8309,-3.9291,-1.0306,-1.1057,3.764,4.7847,1.9139,8.5486,5.5769,-2.8708,-1.9048,3.8003,7.5917
-6.6983,0.94787,-4.0129,-0.06441,-0.06441,0.89744,-2.9346,2.807,-2.8986,-0.06441,-0.06441,-3.0569,1.8501,2.8708,-6.6986,2.807,-3.0769,-4.7847,-7.619,-1.9968,4.7209
-17.125,-14.218,-16.634001,-3.9291,-4.8953,-4.8718,-8.6762,0.89314,-11.594,-3.9291,-4.8953,-7.935,-4.8485,-3.8278,-16.268,-11.547,-14.615,-3.8278,-8.5714,-12.625,-2.9346
-12.385,-23.697001,-18.576,-1.0306,-3.9291,-8.7179,-10.59,0.89314,-2.8986,-1.0306,-3.9291,-9.8862,-8.6762,-11.483,-13.397,-22.073,-18.462,2.8708,-4.7619,-6.8277,-8.6762
-1.9589,-16.114,-11.78,-3.9291,-5.8615,-7.7564,-9.6332,-0.0638,-4.8309,-3.9291,-5.8615,-8.9106,-1.9777,-8.6124,-0.95694,-19.202999,-9.8077,-1.9139,-4.7619,0.90177,-3.8915
12.259,2.8436,2.7832,-3.9291,-2.963,-2.9487,-2.9346,1.8501,-2.8986,-3.9291,-2.963,-3.0569,8.5486,1.9139,14.354,-1.0207,5.5769,3.8278,-15.238,12.496,6.6348
14.155,23.697001,14.434,-1.9968,-0.06441,0.89744,3.764,3.764,-13.527,-1.9968,-0.06441,1.8211,13.333,9.5694,19.139,17.160999,15.192,3.8278,-19.048,12.496,6.6348
-6.6983,1.8957,-0.12945,-14.557,-12.625,-10.641,-12.504,-11.547,-12.56,-14.557,-12.625,-11.837,1.8501,-1.9139,0.95694,3.764,1.7308,-5.7416,1.9048,-1.9968,-3.8915
-13.333,-18.009001,-9.8382,-17.455999,-15.523,-15.449,-19.202999,-15.375,-5.7971,-17.455999,-15.523,-16.715,-2.9346,-7.6555,-4.7847,-7.7193,-6.9231,-3.8278,0.95238,1.868,-3.8915
-8.594,0.94787,-3.0421,-9.7262,-5.8615,-8.7179,-4.8485,-6.7624,6.7633,-9.7262,-5.8615,-5.9837,1.8501,-1.9139,-1.9139,1.8501,-3.0769,-5.7416,-1.9048,3.8003,1.8501
-15.229,-13.27,-11.78,-16.49,-12.625,-12.564,-14.418,-10.59,-6.7633,-16.49,-12.625,-11.837,-3.8915,-10.526,-11.483,-13.461,-13.654,-17.225,9.5238,4.7665,-11.547
-19.021,-17.062,-13.722,-11.659,-9.7262,-9.6795,-11.547,-3.8915,-14.493,-11.659,-9.7262,-7.935,-3.8915,-6.6986,-17.225,-18.246,-19.423,-3.8278,-1.9048,-4.8953,-2.9346
-24.708,-17.062,-17.605,-10.692,-9.7262,-13.526,-10.59,-7.7193,-8.6957,-10.692,-9.7262,-9.8862,-7.7193,-7.6555,-25.837,-22.073,-25.191999,-3.8278,-3.8095,-11.659,2.807
-17.125,-16.114,-18.576,-11.659,-10.692,-12.564,-11.547,-8.6762,-8.6957,-11.659,-10.692,-11.837,-6.7624,-6.6986,-22.01,-21.115999,-23.268999,-2.8708,-9.5238,-7.7939,-0.0638
-11.438,-10.427,-14.693,-10.692,-10.692,-10.641,-9.6332,-1.0207,-7.7295,-10.692,-10.692,-11.837,-4.8485,-5.7416,-14.354,-13.461,-14.615,-1.9139,-4.7619,-7.7939,-0.0638
-1.0111,-7.5829,-7.8964,-12.625,-9.7262,-10.641,-9.6332,-3.8915,-6.7633,-12.625,-9.7262,-11.837,-3.8915,-7.6555,-5.7416,-7.7193,-6.9231,-5.7416,2.8571,-5.8615,-2.9346
0.88468,0.0,-1.1003,-10.692,-8.7601,-11.603,-6.7624,-6.7624,-6.7633,-10.692,-8.7601,-10.862,0.89314,-6.6986,2.8708,0.89314,0.76923,-8.6124,-4.7619,3.8003,-2.9346
-5.7504,-0.94787,0.84142,-9.7262,-10.692,-13.526,-9.6332,-1.9777,-2.8986,-9.7262,-10.692,-12.813,0.89314,-7.6555,0.95694,3.764,1.7308,8.6124,4.7619,0.90177,-0.0638
-4.8025,-3.7915,0.84142,-11.659,-10.692,-12.564,-9.6332,-4.8485,-4.8309,-11.659,-10.692,-12.813,-0.0638,-4.7847,0.0,6.6348,3.6538,2.8708,9.5238,0.90177,0.89314
9.4155,18.957001,14.434,0.90177,1.868,3.7821,8.5486,5.6778,0.0,0.90177,1.868,2.7967,9.5056,5.7416,13.397,21.945999,17.115,6.6986,-8.5714,5.7327,9.5056
6.5719,14.218,10.55,1.868,3.8003,5.7051,8.5486,4.7209,5.7971,1.868,3.8003,2.7967,4.7209,0.95694,9.5694,15.247,13.269,10.526,-0.95238,0.90177,-1.9777
-1.0111,-1.8957,-1.1003,-0.06441,-1.9968,-0.0641,-1.9777,-0.0638,-6.7633,-0.06441,-1.9968,-4.0325,-1.0207,-3.8278,1.9139,3.764,2.6923,-3.8278,5.7143,-1.9968,-7.7193
9.4155,15.166,7.6375,8.6312,7.6651,9.5513,11.419,12.376,7.7295,8.6312,7.6651,6.6992,6.6348,7.6555,10.526,15.247,10.385,0.95694,-8.5714,10.564,10.463
6.5719,9.4787,3.754,3.8003,1.868,4.7436,5.6778,3.764,3.8647,3.8003,1.868,1.8211,8.5486,6.6986,13.397,9.5056,10.385,2.8708,0.0,8.6312,3.764
-1.9589,-10.427,-6.9256,-1.9968,-5.8615,-3.9103,-4.8485,-6.7624,2.8986,-1.9968,-5.8615,-6.9593,3.764,2.8708,8.6124,-1.9777,3.6538,-4.7847,10.476,-1.0306,-0.0638
2.7804,-6.6351,-4.9838,5.7327,1.868,2.8205,-0.0638,4.7209,-3.8647,5.7327,1.868,-2.0813,4.7209,5.7416,9.5694,-0.0638,5.5769,-1.9139,-0.95238,3.8003,3.764
3.7283,-8.5308,-4.0129,3.8003,-1.0306,4.7436,-3.8915,3.764,-4.8309,3.8003,-1.0306,-2.0813,4.7209,4.7847,10.526,-0.0638,6.5385,2.8708,-7.619,-0.06441,-1.0207
5.624,-5.6872,2.7832,-1.9968,-4.8953,7.6282,-2.9346,2.807,-0.96618,-1.9968,-4.8953,1.8211,6.6348,9.5694,12.44,6.6348,12.308,11.483,0.95238,0.90177,3.764
11.311,0.0,6.6667,7.6651,-1.0306,9.5513,-1.9777,7.5917,0.0,7.6651,-1.0306,3.7724,9.5056,12.44,16.268,13.333,16.153999,5.7416,0.0,6.6989,10.463
13.207,0.94787,4.7249,10.564,1.868,6.6667,-1.0207,6.6348,3.8647,10.564,1.868,1.8211,11.419,15.311,18.181999,15.247,17.115,1.9139,0.95238,6.6989,8.5486
5.624,-1.8957,-1.1003,5.7327,-1.9968,2.8205,-2.9346,1.8501,1.9324,5.7327,-1.9968,-2.0813,10.463,14.354,14.354,12.376,14.231,-4.7847,5.7143,2.8341,1.8501
-1.9589,-9.4787,-4.9838,-1.9968,-4.8953,-1.0256,-7.7193,-0.0638,-6.7633,-1.9968,-4.8953,-5.0081,10.463,12.44,10.526,6.6348,10.385,3.8278,-0.95238,3.8003,1.8501
2.7804,-8.5308,-2.0712,0.90177,-4.8953,3.7821,-6.7624,1.8501,-4.8309,0.90177,-4.8953,-1.1057,10.463,12.44,11.483,4.7209,8.4615,7.6555,-1.9048,8.6312,2.807
2.7804,-9.4787,-4.9838,4.7665,-4.8953,3.7821,-6.7624,0.89314,-6.7633,4.7665,-4.8953,-2.0813,5.6778,7.6555,5.7416,-0.0638,2.6923,0.95694,-1.9048,-1.0306,1.8501
2.7804,-5.6872,-5.9547,1.868,-2.963,1.859,-2.9346,1.8501,-1.9324,1.868,-2.963,-1.1057,1.8501,4.7847,4.7847,-2.9346,0.76923,5.7416,-6.6667,1.868,-1.0207
5.624,-0.94787,-3.0421,1.868,-0.06441,4.7436,3.764,4.7209,1.9324,1.868,-0.06441,3.7724,0.89314,1.9139,4.7847,-7.7193,-2.1154,8.6124,-12.381,2.8341,-3.8915
10.363,5.6872,1.8123,4.7665,3.8003,8.5897,8.5486,6.6348,9.6618,4.7665,3.8003,6.6992,1.8501,0.95694,4.7847,-6.7624,-3.0769,8.6124,-2.8571,2.8341,-0.0638
10.363,2.8436,1.8123,3.8003,2.8341,5.7051,5.6778,5.6778,0.0,3.8003,2.8341,3.7724,-1.0207,-0.95694,3.8278,-7.7193,-5.0,-2.8708,6.6667,5.7327,0.89314
-1.0111,-2.8436,-4.0129,-3.9291,-1.9968,-1.9872,-3.8915,-1.9777,0.0,-3.9291,-1.9968,-4.0325,-4.8485,-1.9139,-3.8278,-3.8915,-6.9231,-1.9139,-1.9048,-1.0306,4.7209
-1.0111,2.8436,-2.0712,-1.0306,-0.06441,0.89744,-1.0207,0.89314,8.6957,-1.0306,-0.06441,-3.0569,-1.0207,2.8708,-1.9139,2.807,-4.0385,-4.7847,8.5714,0.90177,3.764
-1.0111,2.8436,-2.0712,1.868,0.90177,-1.0256,1.8501,-1.0207,1.9324,1.868,0.90177,-1.1057,-1.0207,2.8708,-2.8708,1.8501,-3.0769,1.9139,6.6667,2.8341,0.89314
-8.594,4.7393,-3.0421,-0.06441,0.90177,-5.8333,4.7209,-3.8915,5.7971,-0.06441,0.90177,-1.1057,-2.9346,1.9139,-5.7416,0.89314,-3.0769,3.8278,-11.429,-4.8953,-4.8485
2.7804,2.8436,-1.1003,-4.8953,1.868,-1.9872,5.6778,-4.8485,-7.7295,-4.8953,1.868,1.8211,-3.8915,0.0,-0.95694,-3.8915,-2.1154,-8.6124,-2.8571,-1.0306,-6.7624
-2.9068,0.0,-2.0712,-2.963,0.90177,-4.8718,1.8501,-4.8485,1.9324,-2.963,0.90177,-2.0813,-4.8485,0.0,-0.95694,-3.8915,-4.0385,-0.95694,8.5714,0.90177,-1.0207
-9.5419,-11.374,-8.8673,-4.8953,-2.963,-10.641,-6.7624,-6.7624,10.628,-4.8953,-2.963,-7.935,-7.7193,-2.8708,-10.526,-10.59,-10.769,4.7847,10.476,-4.8953,-0.0638
-12.385,-12.322,-12.751,-6.8277,-2.963,-9.6795,-5.8054,-9.6332,2.8986,-6.8277,-2.963,-7.935,-11.547,-5.7416,-18.181999,-15.375,-17.5,-3.8278,4.7619,-14.557,-2.9346
-10.49,3.7915,-4.0129,0.90177,5.7327,-1.9872,6.6348,-2.9346,12.56,0.90177,5.7327,2.7967,-9.6332,-0.95694,-14.354,-4.8485,-12.692,0.95694,7.619,-7.7939,3.764
4.6761,16.114,6.6667,9.5974,11.53,7.6282,13.333,5.6778,14.493,9.5974,11.53,10.602,-4.8485,2.8708,-2.8708,6.6348,-2.1154,1.9139,2.8571,2.8341,6.6348
-1.0111,8.5308,4.7249,5.7327,8.6312,-0.0641,6.6348,0.89314,3.8647,5.7327,8.6312,4.748,-6.7624,-3.8278,-0.95694,4.7209,-1.1538,0.95694,-0.95238,-0.06441,-0.0638
0.88468,-0.94787,1.8123,3.8003,4.7665,-1.0256,0.89314,-0.0638,1.9324,3.8003,4.7665,0.84553,-7.7193,-8.6124,0.95694,-3.8915,-2.1154,4.7847,-3.8095,1.868,-3.8915
8.4676,-1.8957,4.7249,7.6651,7.6651,5.7051,3.764,3.764,6.7633,7.6651,7.6651,4.748,-2.9346,-5.7416,8.6124,-3.8915,2.6923,1.9139,1.9048,12.496,-1.0207
1.8325,0.94787,4.7249,8.6312,7.6651,5.7051,4.7209,5.6778,6.7633,8.6312,7.6651,5.7236,-4.8485,-6.6986,0.95694,-3.8915,-0.19231,0.95694,0.0,-0.06441,-3.8915
-3.8547,1.8957,3.754,4.7665,3.8003,2.8205,2.807,4.7209,-2.8986,4.7665,3.8003,3.7724,-9.6332,-6.6986,-7.6555,-2.9346,-4.0385,8.6124,-5.7143,-8.7601,-10.59
7.5197,10.427,11.521,11.53,8.6312,10.513,11.419,9.5056,-1.9324,11.53,8.6312,11.577,-6.7624,-0.95694,-2.8708,6.6348,1.7308,0.0,3.8095,-3.9291,-1.0207
8.4676,21.801001,17.346001,16.361,16.361,15.321,19.075001,7.5917,16.424999,16.361,16.361,17.431,-2.9346,0.95694,0.0,15.247,8.4615,-7.6555,16.190001,-0.06441,2.807
4.6761,16.114,12.492,9.5974,9.5974,12.436,11.419,6.6348,13.527,9.5974,9.5974,12.553,-4.8485,-1.9139,-0.95694,9.5056,6.5385,0.0,8.5714,1.868,1.8501
4.6761,11.374,8.6084,9.5974,4.7665,10.513,8.5486,9.5056,-1.9324,9.5974,4.7665,8.6504,-3.8915,-2.8708,-1.9139,6.6348,4.6154,9.5694,-1.9048,3.8003,6.6348
1.8325,0.94787,3.754,7.6651,2.8341,5.7051,2.807,4.7209,0.96618,7.6651,2.8341,4.748,-1.9777,-2.8708,-1.9139,3.764,2.6923,5.7416,-0.95238,0.90177,0.89314
-1.9589,-10.427,-3.0421,0.90177,0.90177,-1.0256,-2.9346,-1.9777,0.0,0.90177,0.90177,-1.1057,-1.9777,-8.6124,0.0,-5.8054,-1.1538,-0.95694,-0.95238,0.90177,-4.8485
3.7283,-5.6872,-1.1003,3.8003,0.90177,0.89744,-1.9777,0.89314,-1.9324,3.8003,0.90177,-0.13008,1.8501,-8.6124,3.8278,-5.8054,0.76923,-0.95694,-3.8095,-2.963,-3.8915
2.7804,-4.7393,0.84142,4.7665,-0.06441,-0.0641,-2.9346,3.764,-3.8647,4.7665,-0.06441,-1.1057,1.8501,-5.7416,4.7847,-1.0207,1.7308,-3.8278,10.476,3.8003,-12.504
9.4155,0.0,5.6958,4.7665,2.8341,3.7821,3.764,1.8501,-5.7971,4.7665,2.8341,3.7724,6.6348,3.8278,8.6124,5.6778,6.5385,2.8708,4.7619,6.6989,-2.9346
4.6761,2.8436,4.7249,0.90177,2.8341,2.8205,3.764,-0.0638,1.9324,0.90177,2.8341,3.7724,7.5917,8.6124,4.7847,7.5917,4.6154,4.7847,2.8571,1.868,5.6778
2.7804,4.7393,4.7249,1.868,3.8003,2.8205,5.6778,-1.9777,8.6957,1.868,3.8003,4.748,9.5056,10.526,2.8708,8.5486,3.6538,0.95694,6.6667,0.90177,0.89314
-0.06319,4.7393,6.6667,-1.9968,3.8003,1.859,4.7209,-3.8915,4.8309,-1.9968,3.8003,5.7236,9.5056,11.483,3.8278,8.5486,5.5769,-1.9139,5.7143,10.564,5.6778
-2.9068,2.8436,7.6375,-1.9968,0.90177,-1.0256,0.89314,-1.9777,-3.8647,-1.9968,0.90177,3.7724,6.6348,7.6555,0.95694,4.7209,4.6154,-0.95694,-4.7619,2.8341,9.5056
4.6761,10.427,11.521,1.868,4.7665,3.7821,6.6348,-1.9777,3.8647,1.868,4.7665,7.6748,4.7209,2.8708,1.9139,5.6778,5.5769,-5.7416,-10.476,-5.8615,1.8501
-0.06319,0.0,2.7832,2.8341,2.8341,-0.0641,1.8501,-3.8915,0.96618,2.8341,2.8341,2.7967,-3.8915,-6.6986,-4.7847,-3.8915,-2.1154,-7.6555,0.95238,-9.7262,-3.8915
-0.06319,-0.94787,1.8123,5.7327,5.7327,0.89744,4.7209,1.8501,5.7971,5.7327,5.7327,3.7724,-5.8054,-10.526,-2.8708,-6.7624,-4.0385,-6.6986,15.238,-1.9968,-2.9346
3.7283,0.94787,4.7249,3.8003,7.6651,3.7821,6.6348,3.764,4.8309,3.8003,7.6651,7.6748,-3.8915,-10.526,0.95694,-5.8054,-1.1538,1.9139,3.8095,4.7665,-1.0207
11.311,13.27,11.521,6.6989,10.564,11.474,11.419,9.5056,0.96618,6.6989,10.564,13.528,0.89314,-8.6124,4.7847,-0.0638,3.6538,6.6986,-12.381,3.8003,-6.7624
12.259,17.062,12.492,9.5974,11.53,10.513,15.247,7.5917,0.0,9.5974,11.53,13.528,-1.0207,-11.483,5.7416,-1.0207,3.6538,0.0,3.8095,3.8003,-4.8485
7.5197,3.7915,4.7249,5.7327,3.8003,1.859,4.7209,-0.0638,4.8309,5.7327,3.8003,3.7724,-6.7624,-16.268,-0.95694,-7.7193,-3.0769,-0.95694,6.6667,-0.06441,-8.6762
11.311,2.8436,5.6958,5.7327,7.6651,6.6667,7.5917,5.6778,5.7971,5.7327,7.6651,7.6748,-1.9777,-9.5694,0.95694,-3.8915,-1.1538,-9.5694,1.9048,-3.9291,-2.9346
1.8325,5.6872,5.6958,1.868,6.6989,5.7051,8.5486,6.6348,5.7971,1.868,6.6989,8.6504,-1.9777,-4.7847,-1.9139,-1.0207,-2.1154,-2.8708,-0.95238,-4.8953,5.6778
-10.49,2.8436,-0.12945,-2.963,0.90177,-1.0256,1.8501,-2.9346,0.96618,-2.963,0.90177,1.8211,-7.7193,-9.5694,-8.6124,-2.9346,-5.9615,8.6124,0.0,-3.9291,0.89314
-12.385,-1.8957,-1.1003,-1.9968,0.90177,-5.8333,0.89314,-5.8054,3.8647,-1.9968,0.90177,0.84553,-10.59,-10.526,-11.483,-2.9346,-6.9231,1.9139,8.5714,-1.9968,-2.9346
-7.6461,-1.8957,-0.12945,-1.0306,-0.06441,-4.8718,1.8501,-1.9777,-8.6957,-1.0306,-0.06441,0.84553,-8.6762,-7.6555,-8.6124,-1.9777,-4.0385,-0.95694,6.6667,-1.9968,-2.9346
-5.7504,-2.8436,-2.0712,-2.963,-0.06441,-3.9103,-0.0638,-2.9346,-0.96618,-2.963,-0.06441,-0.13008,-5.8054,-4.7847,-6.6986,-1.9777,-4.0385,0.0,0.0,-4.8953,-3.8915
-4.8025,0.94787,-0.12945,0.90177,1.868,-1.9872,0.89314,-1.0207,5.7971,0.90177,1.868,0.84553,-5.8054,-2.8708,-2.8708,-0.0638,-1.1538,-5.7416,-1.9048,-1.9968,-1.0207
2.7804,2.8436,4.7249,-1.0306,3.8003,2.8205,3.764,-0.0638,4.8309,-1.0306,3.8003,4.748,-3.8915,-0.95694,1.9139,0.89314,3.6538,-3.8278,6.6667,-1.9968,6.6348
4.6761,4.7393,5.6958,-0.06441,3.8003,3.7821,3.764,0.89314,6.7633,-0.06441,3.8003,5.7236,-1.9777,-1.9139,4.7847,-0.0638,3.6538,5.7416,5.7143,0.90177,3.764
6.5719,7.5829,7.6375,6.6989,6.6989,2.8205,4.7209,2.807,5.7971,6.6989,6.6989,6.6992,0.89314,2.8708,8.6124,4.7209,6.5385,4.7847,7.619,8.6312,3.764
1.8325,4.7393,3.754,3.8003,2.8341,-0.0641,1.8501,1.8501,2.8986,3.8003,2.8341,2.7967,-0.0638,1.9139,3.8278,3.764,1.7308,-2.8708,9.5238,4.7665,4.7209
1.8325,9.4787,3.754,2.8341,2.8341,0.89744,3.764,1.8501,7.7295,2.8341,2.8341,2.7967,0.89314,4.7847,0.0,8.5486,2.6923,3.8278,-7.619,-5.8615,8.5486
0.88468,17.062,1.8123,-4.8953,-2.963,-1.0256,2.807,-1.0207,-10.628,-4.8953,-2.963,-0.13008,0.89314,6.6986,0.0,9.5056,1.7308,-2.8708,-11.429,-5.8615,5.6778
3.7283,8.5308,-1.1003,-3.9291,-0.06441,-2.9487,0.89314,-2.9346,0.96618,-3.9291,-0.06441,-1.1057,-1.0207,4.7847,-1.9139,2.807,-2.1154,-5.7416,3.8095,-2.963,6.6348
-9.5419,-12.322,-9.8382,-2.963,-2.963,-8.7179,-9.6332,-3.8915,2.8986,-2.963,-2.963,-7.935,-6.7624,-2.8708,-9.5694,-9.6332,-9.8077,0.0,3.8095,-2.963,4.7209
-8.594,-14.218,-7.8964,-5.8615,-5.8615,-6.7949,-11.547,-4.8485,-0.96618,-5.8615,-5.8615,-7.935,-3.8915,-5.7416,-6.6986,-10.59,-7.8846,-8.6124,-1.9048,-3.9291,-1.0207
3.7283,-3.7915,0.84142,-0.06441,-2.963,0.89744,-3.8915,0.89314,-0.96618,-0.06441,-2.963,-1.1057,4.7209,0.95694,4.7847,-1.0207,0.76923,-0.95694,1.9048,1.868,3.764
-3.8547,-12.322,-4.9838,-5.8615,-9.7262,-4.8718,-11.547,-1.9777,-8.6957,-5.8615,-9.7262,-6.9593,-0.0638,-0.95694,0.95694,-4.8485,-3.0769,2.8708,4.7619,-2.963,0.89314
2.7804,-11.374,-4.9838,-7.7939,-9.7262,-3.9103,-12.504,-1.9777,-9.6618,-7.7939,-9.7262,-6.9593,-1.0207,-0.95694,2.8708,-3.8915,-3.0769,-7.6555,-1.9048,-1.9968,-4.8485
1.8325,0.0,-2.0712,-1.0306,-2.963,-1.0256,-4.8485,-0.0638,-3.8647,-1.0306,-2.963,-3.0569,1.8501,5.7416,4.7847,4.7209,2.6923,7.6555,-1.9048,2.8341,4.7209
-9.5419,-8.5308,-10.809,-7.7939,-9.7262,-8.7179,-10.59,-9.6332,-12.56,-7.7939,-9.7262,-9.8862,-4.8485,-1.9139,-6.6986,-5.8054,-6.9231,2.8708,4.7619,-4.8953,2.807
-10.49,-12.322,-11.78,-8.7601,-8.7601,-8.7179,-11.547,-5.8054,-7.7295,-8.7601,-8.7601,-9.8862,-4.8485,-4.7847,-8.6124,-8.6762,-9.8077,0.95694,-6.6667,-0.06441,-0.0638
-1.9589,-7.5829,-3.0421,0.90177,-1.9968,-1.0256,-4.8485,0.89314,3.8647,0.90177,-1.9968,-3.0569,5.6778,0.95694,0.95694,-1.9777,-0.19231,1.9139,0.95238,7.6651,0.89314
0.88468,-1.8957,0.84142,-1.9968,-2.963,0.89744,-1.9777,0.89314,-3.8647,-1.9968,-2.963,-1.1057,9.5056,5.7416,3.8278,-0.0638,3.6538,-3.8278,-2.8571,6.6989,1.8501
-2.9068,-2.8436,-2.0712,-5.8615,-5.8615,-1.9872,-4.8485,-0.0638,-5.7971,-5.8615,-5.8615,-3.0569,7.5917,6.6986,0.0,0.89314,1.7308,7.6555,-10.476,-0.06441,-0.0638
-1.0111,1.8957,-1.1003,0.90177,-2.963,-1.0256,-1.9777,1.8501,-2.8986,0.90177,-2.963,-2.0813,8.5486,8.6124,0.95694,4.7209,2.6923,4.7847,-1.9048,6.6989,-4.8485
-4.8025,-2.8436,-4.0129,-3.9291,-3.9291,-2.9487,-3.8915,-0.0638,-6.7633,-3.9291,-3.9291,-4.0325,3.764,6.6986,-2.8708,1.8501,-1.1538,0.95694,0.0,-1.9968,-1.0207
-3.8547,-3.7915,-4.9838,-7.7939,-3.9291,0.89744,-2.9346,0.89314,-2.8986,-7.7939,-3.9291,-1.1057,1.8501,4.7847,-3.8278,-1.9777,-3.0769,2.8708,-0.95238,-1.0306,9.5056
1.8325,-7.5829,-4.9838,-0.06441,-0.06441,2.8205,-1.0207,-0.0638,1.9324,-0.06441,-0.06441,-1.1057,2.807,5.7416,-0.95694,-2.9346,-2.1154,-1.9139,7.619,0.90177,7.5917
3.7283,12.322,-0.12945,8.6312,5.7327,0.89744,6.6348,-0.0638,8.6957,8.6312,5.7327,1.8211,7.5917,10.526,3.8278,6.6348,5.5769,-5.7416,-5.7143,-0.06441,3.764
1.8325,4.7393,-2.0712,0.90177,0.90177,1.859,2.807,2.807,-6.7633,0.90177,0.90177,-0.13008,5.6778,6.6986,0.95694,3.764,2.6923,-5.7416,-7.619,-1.0306,0.89314
-1.0111,-11.374,-5.9547,-2.963,-1.9968,-1.0256,-5.8054,0.89314,-2.8986,-2.963,-1.9968,-5.0081,-0.0638,1.9139,-2.8708,-2.9346,-2.1154,-1.9139,-2.8571,-4.8953,4.7209
3.7283,-6.6351,-2.0712,2.8341,-0.06441,1.859,-2.9346,1.8501,4.8309,2.8341,-0.06441,-2.0813,1.8501,3.8278,0.95694,-1.0207,0.76923,2.8708,-0.95238,-1.0306,1.8501
5.624,6.6351,4.7249,5.7327,4.7665,8.5897,6.6348,1.8501,7.7295,5.7327,4.7665,4.748,5.6778,7.6555,5.7416,6.6348,6.5385,4.7847,1.9048,1.868,0.89314
-1.0111,1.8957,-1.1003,2.8341,1.868,2.8205,0.89314,1.8501,-1.9324,2.8341,1.868,0.84553,1.8501,1.9139,0.95694,2.807,2.6923,0.95694,2.8571,4.7665,0.89314
-0.06319,-3.7915,-3.0421,-1.0306,1.868,3.7821,-0.0638,2.807,-2.8986,-1.0306,1.868,-0.13008,0.89314,-0.95694,0.0,-0.0638,0.76923,0.0,-2.8571,4.7665,-6.7624
5.624,4.7393,1.8123,-0.06441,3.8003,6.6667,2.807,4.7209,1.9324,-0.06441,3.8003,2.7967,4.7209,1.9139,2.8708,4.7209,4.6154,4.7847,-4.7619,-2.963,-1.9777
-1.0111,-1.8957,-1.1003,-1.9968,-1.0306,-1.9872,-2.9346,0.89314,-2.8986,-1.9968,-1.0306,-3.0569,1.8501,-3.8278,-0.95694,-1.0207,1.7308,6.6986,2.8571,-3.9291,-7.7193
-4.8025,-11.374,-2.0712,0.90177,-2.963,-3.9103,-4.8485,0.89314,0.96618,0.90177,-2.963,-4.0325,1.8501,-5.7416,0.0,-6.7624,0.76923,6.6986,7.619,3.8003,-2.9346
3.7283,-1.8957,3.754,5.7327,1.868,2.8205,0.89314,3.764,1.9324,5.7327,1.868,1.8211,5.6778,-2.8708,7.6555,-1.0207,4.6154,3.8278,-3.8095,8.6312,2.807
-1.9589,-5.6872,-3.0421,0.90177,-1.0306,-1.0256,-1.0207,1.8501,-7.7295,0.90177,-1.0306,-3.0569,1.8501,-4.7847,0.95694,-4.8485,-0.19231,-6.6986,-6.6667,-2.963,-3.8915
-2.9068,-3.7915,-4.0129,-1.0306,-0.06441,-1.9872,-1.0207,-0.0638,-4.8309,-1.0306,-0.06441,-4.0325,3.764,0.95694,1.9139,-1.9777,0.76923,0.95694,-2.8571,-1.0306,-1.9777
0.88468,-2.8436,-1.1003,-1.0306,-0.06441,0.89744,-2.9346,-0.0638,1.9324,-1.0306,-0.06441,-2.0813,3.764,3.8278,0.95694,0.89314,0.76923,2.8708,5.7143,1.868,-2.9346
-0.06319,2.8436,0.84142,-1.0306,0.90177,3.7821,-0.0638,3.764,4.8309,-1.0306,0.90177,0.84553,2.807,2.8708,0.0,1.8501,-0.19231,-1.9139,0.0,-3.9291,2.807
10.363,15.166,7.6375,5.7327,6.6989,10.513,9.5056,11.419,0.0,5.7327,6.6989,7.6748,6.6348,3.8278,6.6986,7.5917,5.5769,6.6986,-11.429,6.6989,7.5917
4.6761,-2.8436,0.84142,0.90177,2.8341,2.8205,0.89314,3.764,3.8647,0.90177,2.8341,0.84553,0.89314,-2.8708,1.9139,-1.9777,-1.1538,4.7847,-4.7619,2.8341,-1.9777
-1.0111,-12.322,-3.0421,-3.9291,-2.963,-2.9487,-3.8915,-1.9777,-4.8309,-3.9291,-2.963,-3.0569,-1.0207,-3.8278,-0.95694,-5.8054,-5.0,0.0,2.8571,-1.9968,-5.8054
3.7283,-1.8957,2.7832,1.868,0.90177,3.7821,2.807,4.7209,3.8647,1.868,0.90177,2.7967,2.807,-0.95694,3.8278,-1.0207,-0.19231,5.7416,1.9048,9.5974,-1.9777
-5.7504,0.0,-0.12945,-1.0306,-1.0306,0.89744,-1.9777,-1.0207,7.7295,-1.0306,-1.0306,-0.13008,1.8501,0.0,-2.8708,-1.0207,-3.0769,-0.95694,-3.8095,4.7665,-1.0207
-11.438,0.0,-4.0129,-4.8953,-1.9968,-4.8718,-2.9346,-3.8915,2.8986,-4.8953,-1.9968,-3.0569,-0.0638,0.95694,-6.6986,-3.8915,-5.9615,-5.7416,-4.7619,-0.06441,-3.8915
-2.9068,-4.7393,-3.0421,-1.0306,-0.06441,-1.9872,-0.0638,0.89314,-0.96618,-1.0306,-0.06441,-1.1057,-1.9777,-1.9139,-3.8278,-7.7193,-5.9615,-3.8278,-7.619,5.7327,-4.8485
13.207,8.5308,8.6084,6.6989,6.6989,9.5513,8.5486,7.5917,5.7971,6.6989,6.6989,8.6504,3.764,3.8278,5.7416,3.764,3.6538,11.483,-4.7619,7.6651,1.8501
7.5197,0.0,6.6667,0.90177,1.868,5.7051,1.8501,3.764,-0.96618,0.90177,1.868,4.748,0.89314,0.95694,0.95694,1.8501,1.7308,7.6555,7.619,-5.8615,0.89314
-5.7504,-6.6351,-0.12945,-4.8953,-4.8953,-2.9487,-5.8054,-1.9777,-9.6618,-4.8953,-4.8953,-2.0813,-1.9777,-1.9139,-3.8278,0.89314,-2.1154,1.9139,5.7143,-8.7601,-3.8915
-4.8025,-1.8957,0.84142,-1.0306,-2.963,-1.0256,-1.9777,2.807,-8.6957,-1.0306,-2.963,-0.13008,1.8501,3.8278,-0.95694,3.764,0.76923,1.9139,0.0,-0.06441,0.89314
2.7804,0.0,3.754,4.7665,3.8003,5.7051,4.7209,5.6778,3.8647,4.7665,3.8003,5.7236,5.6778,6.6986,1.9139,2.807,2.6923,5.7416,-4.7619,9.5974,2.807
4.6761,1.8957,4.7249,8.6312,8.6312,9.5513,9.5056,4.7209,8.6957,8.6312,8.6312,9.626,4.7209,5.7416,0.0,0.89314,0.76923,3.8278,-7.619,4.7665,1.8501
-1.0111,1.8957,3.754,7.6651,7.6651,7.6282,6.6348,4.7209,8.6957,7.6651,7.6651,8.6504,-1.0207,-0.95694,-4.7847,-1.0207,-1.1538,-7.6555,0.0,-1.0306,-5.8054
-2.9068,-0.94787,3.754,2.8341,3.8003,3.7821,3.764,2.807,0.0,2.8341,3.8003,4.748,-4.8485,-5.7416,-2.8708,-2.9346,-3.0769,0.95694,3.8095,-2.963,-6.7624
4.6761,-0.94787,4.7249,-1.9968,0.90177,2.8205,0.89314,-0.0638,3.8647,-1.9968,0.90177,2.7967,-3.8915,-4.7847,2.8708,-1.9777,-0.19231,4.7847,0.95238,-3.9291,0.89314
15.103,4.7393,6.6667,4.7665,3.8003,6.6667,5.6778,5.6778,3.8647,4.7665,3.8003,6.6992,-0.0638,0.95694,8.6124,3.764,3.6538,-0.95694,4.7619,4.7665,8.5486
20.790001,21.801001,10.55,12.496,10.564,11.474,14.29,10.463,11.594,12.496,10.564,11.577,7.5917,10.526,16.268,16.204,11.346,11.483,-7.619,14.428,12.376
-0.06319,12.322,-3.0421,-1.0306,1.868,-1.9872,1.8501,-1.9777,4.8309,-1.0306,1.868,-2.0813,-1.0207,4.7847,2.8708,10.463,1.7308,1.9139,0.95238,1.868,-1.9777
-10.49,-6.6351,-13.722,-8.7601,-5.8615,-12.564,-7.7193,-9.6332,-17.391001,-8.7601,-5.8615,-12.813,-4.8485,-0.95694,-5.7416,-4.8485,-5.9615,-3.8278,4.7619,-8.7601,-2.9346
-6.6983,-11.374,-8.8673,-4.8953,-2.963,-8.7179,-4.8485,-5.8054,-2.8986,-4.8953,-2.963,-8.9106,1.8501,3.8278,-3.8278,-7.7193,-3.0769,-1.9139,-0.95238,-5.8615,5.6778
3.7283,11.374,2.7832,3.8003,4.7665,2.8205,5.6778,0.89314,10.628,3.8003,4.7665,3.7724,6.6348,6.6986,1.9139,1.8501,3.6538,1.9139,1.9048,2.8341,3.764
-2.9068,-0.94787,-2.0712,-1.0306,-0.06441,-0.0641,-1.0207,-1.0207,-13.527,-1.0306,-0.06441,-0.13008,-1.9777,-0.95694,-5.7416,-6.7624,-5.0,-2.8708,-1.9048,-2.963,-1.0207
-14.281,-14.218,-8.8673,-3.9291,-3.9291,-6.7949,-10.59,-4.8485,-7.7295,-3.9291,-3.9291,-6.9593,-10.59,-6.6986,-12.44,-9.6332,-10.769,-9.5694,2.8571,-5.8615,-5.8054
-13.333,-7.5829,-5.9547,-1.0306,-1.9968,-5.8333,-5.8054,-2.9346,8.6957,-1.0306,-1.9968,-5.0081,-10.59,-5.7416,-12.44,-5.8054,-7.8846,-4.7847,-0.95238,-5.8615,-5.8054
-13.333,-11.374,-9.8382,-4.8953,-5.8615,-9.6795,-7.7193,-7.7193,0.96618,-4.8953,-5.8615,-7.935,-11.547,-5.7416,-15.311,-6.7624,-10.769,0.0,0.0,-7.7939,-1.0207
-8.594,-10.427,-8.8673,-5.8615,-4.8953,-5.8333,-7.7193,-4.8485,-1.9324,-5.8615,-4.8953,-6.9593,-7.7193,-4.7847,-11.483,-5.8054,-10.769,-0.95694,4.7619,-1.0306,-8.6762
-8.594,-9.4787,-10.809,-5.8615,-6.8277,-6.7949,-9.6332,-3.8915,-10.628,-5.8615,-6.8277,-7.935,-5.8054,-7.6555,-6.6986,-10.59,-9.8077,0.95694,-6.6667,2.8341,-8.6762
-7.6461,-10.427,-7.8964,-5.8615,-5.8615,-6.7949,-9.6332,-3.8915,-1.9324,-5.8615,-5.8615,-6.9593,-6.7624,-7.6555,-6.6986,-13.461,-8.8462,2.8708,-4.7619,-4.8953,-1.0207
1.8325,-2.8436,1.8123,-4.8953,-1.9968,-1.0256,-2.9346,-1.9777,-3.8647,-4.8953,-1.9968,-0.13008,-5.8054,-7.6555,-5.7416,-9.6332,-5.0,0.95694,0.0,-7.7939,-1.9777
-0.06319,-1.8957,5.6958,-0.06441,-0.06441,-1.9872,-0.0638,-1.9777,2.8986,-0.06441,-0.06441,0.84553,-7.7193,-10.526,-6.6986,-8.6762,-5.0,-4.7847,2.8571,-2.963,-4.8485
-5.7504,-5.6872,1.8123,-1.9968,-3.9291,-5.8333,-1.9777,-5.8054,-0.96618,-1.9968,-3.9291,-4.0325,-9.6332,-10.526,-8.6124,-7.7193,-5.0,-1.9139,5.7143,-1.0306,-6.7624
-0.06319,5.6872,3.754,-4.8953,-1.9968,-2.9487,1.8501,-4.8485,-2.8986,-4.8953,-1.9968,-2.0813,0.89314,0.95694,-1.9139,2.807,1.7308,-4.7847,1.9048,0.90177,2.807
1.8325,7.5829,1.8123,-1.9968,1.868,0.89744,4.7209,0.89314,5.7971,-1.9968,1.868,0.84553,9.5056,8.6124,2.8708,6.6348,4.6154,2.8708,0.0,0.90177,4.7209
-0.06319,1.8957,-1.1003,0.90177,2.8341,0.89744,4.7209,3.764,11.594,0.90177,2.8341,0.84553,6.6348,3.8278,1.9139,-1.0207,1.7308,4.7847,-4.7619,4.7665,-1.0207
3.7283,-4.7393,-1.1003,3.8003,-0.06441,3.7821,2.807,0.89314,-1.9324,3.8003,-0.06441,3.7724,3.764,-0.95694,1.9139,-8.6762,-2.1154,0.0,-3.8095,5.7327,1.8501
6.5719,2.8436,4.7249,5.7327,-0.06441,6.6667,3.764,4.7209,-1.9324,5.7327,-0.06441,5.7236,3.764,-0.95694,1.9139,-4.8485,-1.1538,-1.9139,-1.9048,3.8003,0.89314
3.7283,1.8957,4.7249,4.7665,1.868,5.7051,1.8501,4.7209,6.7633,4.7665,1.868,5.7236,-1.0207,-2.8708,-3.8278,-1.9777,-2.1154,5.7416,1.9048,-3.9291,-3.8915
5.624,4.7393,3.754,5.7327,2.8341,7.6282,5.6778,2.807,-7.7295,5.7327,2.8341,6.6992,-1.0207,0.95694,-2.8708,4.7209,0.76923,5.7416,10.476,-2.963,-1.9777
-4.8025,9.4787,-3.0421,-0.06441,-1.0306,-0.0641,1.8501,0.89314,-1.9324,-0.06441,-1.0306,0.84553,-1.9777,0.95694,-5.7416,4.7209,-0.19231,-6.6986,-0.95238,-4.8953,2.807
-13.333,4.7393,-7.8964,-1.9968,-3.9291,-6.7949,-4.8485,-1.9777,-2.8986,-1.9968,-3.9291,-5.9837,-2.9346,0.0,-6.6986,2.807,-0.19231,-1.9139,0.95238,-6.8277,-0.0638
-6.6983,-7.5829,-4.9838,-1.9968,-3.9291,-4.8718,-8.6762,-5.8054,1.9324,-1.9968,-3.9291,-6.9593,-0.0638,0.95694,-1.9139,1.8501,3.6538,-0.95694,5.7143,3.8003,3.764
-0.06319,-7.5829,0.84142,-0.06441,-2.963,-0.0641,-4.8485,-3.8915,4.8309,-0.06441,-2.963,-2.0813,2.807,0.0,1.9139,-1.9777,4.6154,0.95694,0.95238,6.6989,2.807
7.5197,-11.374,0.84142,2.8341,-0.06441,5.7051,-2.9346,1.8501,-1.9324,2.8341,-0.06441,1.8211,2.807,-1.9139,3.8278,-8.6762,2.6923,1.9139,-1.9048,1.868,-1.9777
7.5197,-8.5308,-0.12945,6.6989,2.8341,7.6282,-0.0638,4.7209,5.7971,6.6989,2.8341,3.7724,1.8501,-1.9139,5.7416,-9.6332,1.7308,0.95694,-5.7143,2.8341,-7.7193
11.311,-0.94787,3.754,11.53,3.8003,11.474,2.807,10.463,1.9324,11.53,3.8003,6.6992,8.5486,5.7416,9.5694,-0.0638,7.5,9.5694,-1.9048,1.868,-1.0207
13.207,3.7915,6.6667,5.7327,1.868,10.513,3.764,3.764,2.8986,5.7327,1.868,6.6992,10.463,9.5694,9.5694,6.6348,10.385,8.6124,3.8095,1.868,10.463
1.8325,0.0,-2.0712,-1.0306,-1.0306,0.89744,-1.9777,-2.9346,0.96618,-1.0306,-1.0306,-1.1057,-0.0638,2.8708,0.0,0.89314,0.76923,0.0,1.9048,-2.963,2.807
-5.7504,0.0,-6.9256,-0.06441,1.868,-4.8718,-1.0207,-1.0207,4.8309,-0.06441,1.868,-3.0569,-4.8485,-0.95694,-4.7847,-0.0638,-5.0,-5.7416,2.8571,-8.7601,-5.8054
5.624,11.374,-0.12945,6.6989,7.6651,1.859,9.5056,2.807,-2.8986,6.6989,7.6651,3.7724,1.8501,5.7416,5.7416,9.5056,4.6154,3.8278,-9.5238,1.868,-1.0207
5.624,14.218,2.7832,1.868,4.7665,2.8205,6.6348,0.89314,0.96618,1.868,4.7665,2.7967,5.6778,6.6986,8.6124,8.5486,7.5,-5.7416,-10.476,2.8341,4.7209
5.624,1.8957,1.8123,0.90177,0.90177,3.7821,0.89314,-0.0638,7.7295,0.90177,0.90177,0.84553,4.7209,4.7847,5.7416,4.7209,6.5385,-1.9139,7.619,3.8003,4.7209
-1.9589,-8.5308,-3.0421,-2.963,-5.8615,-5.8333,-5.8054,-3.8915,-1.9324,-2.963,-5.8615,-6.9593,-1.0207,1.9139,-0.95694,1.8501,1.7308,9.5694,8.5714,3.8003,-1.0207
-0.06319,2.8436,0.84142,-6.8277,-5.8615,-7.7564,-1.9777,-6.7624,1.9324,-6.8277,-5.8615,-5.0081,0.89314,2.8708,5.7416,4.7209,4.6154,6.6986,0.95238,10.564,-1.9777
8.4676,11.374,7.6375,-1.9968,1.868,-0.0641,7.5917,0.89314,5.7971,-1.9968,1.868,3.7724,5.6778,7.6555,12.44,9.5056,9.4231,3.8278,-2.8571,1.868,2.807
-7.6461,-5.6872,-1.1003,0.90177,-1.0306,-5.8333,0.89314,-1.0207,-3.8647,0.90177,-1.0306,-1.1057,0.89314,2.8708,0.95694,-1.0207,0.76923,-2.8708,1.9048,-12.625,1.8501
-7.6461,-5.6872,-0.12945,1.868,-1.9968,-1.0256,0.89314,-1.0207,-8.6957,1.868,-1.9968,1.8211,1.8501,3.8278,-0.95694,-2.9346,-1.1538,-9.5694,1.9048,-4.8953,3.764
-2.9068,-1.8957,0.84142,-0.06441,-2.963,3.7821,-0.0638,-1.0207,0.0,-0.06441,-2.963,2.7967,3.764,3.8278,0.95694,-2.9346,-1.1538,1.9139,-4.7619,1.868,2.807
-1.0111,-3.7915,-1.1003,-3.9291,-6.8277,0.89744,-3.8915,-2.9346,-1.9324,-3.9291,-6.8277,-1.1057,-0.0638,0.95694,-0.95694,-3.8915,-3.0769,-2.8708,0.0,-0.06441,2.807
2.7804,1.8957,0.84142,-3.9291,-1.0306,-0.0641,2.807,-1.9777,0.96618,-3.9291,-1.0306,1.8211,3.764,3.8278,2.8708,0.89314,0.76923,0.95694,2.8571,2.8341,5.6778
-0.06319,6.6351,-0.12945,-1.0306,-1.0306,0.89744,2.807,-1.0207,5.7971,-1.0306,-1.0306,1.8211,3.764,4.7847,3.8278,3.764,0.76923,4.7847,-0.95238,5.7327,7.5917
-0.06319,3.7915,-0.12945,-1.0306,-3.9291,-0.0641,0.89314,-4.8485,0.0,-1.0306,-3.9291,0.84553,2.807,4.7847,0.95694,3.764,-1.1538,-1.9139,4.7619,0.90177,6.6348
-0.06319,-5.6872,0.84142,-4.8953,-4.8953,-2.9487,-1.9777,-7.7193,0.96618,-4.8953,-4.8953,-1.1057,0.89314,4.7847,-1.9139,0.89314,-2.1154,-2.8708,8.5714,3.8003,0.89314
-0.06319,-1.8957,3.754,-3.9291,-1.0306,-1.9872,1.8501,-3.8915,3.8647,-3.9291,-1.0306,0.84553,2.807,5.7416,-0.95694,2.807,-1.1538,-1.9139,-3.8095,0.90177,1.8501
-0.06319,3.7915,2.7832,-1.0306,1.868,-1.0256,3.764,-1.0207,2.8986,-1.0306,1.868,1.8211,3.764,5.7416,-1.9139,3.764,-1.1538,-4.7847,-6.6667,-4.8953,0.89314
-1.0111,2.8436,2.7832,0.90177,4.7665,-0.0641,6.6348,0.89314,8.6957,0.90177,4.7665,2.7967,4.7209,3.8278,0.0,3.764,0.76923,2.8708,6.6667,0.90177,0.89314
14.155,15.166,10.55,4.7665,8.6312,10.513,13.333,6.6348,-3.8647,4.7665,8.6312,10.602,9.5056,8.6124,10.526,14.29,9.4231,0.95694,-2.8571,5.7327,8.5486
9.4155,11.374,5.6958,-0.06441,1.868,6.6667,4.7209,2.807,-1.9324,-0.06441,1.868,5.7236,1.8501,2.8708,3.8278,9.5056,3.6538,-0.95694,-3.8095,-4.8953,5.6778
-1.0111,4.7393,2.7832,-3.9291,-1.9968,-1.0256,-1.0207,-4.8485,3.8647,-3.9291,-1.9968,-0.13008,-1.9777,0.0,-0.95694,6.6348,-0.19231,4.7847,11.429,-5.8615,4.7209
1.8325,5.6872,5.6958,-6.8277,-1.9968,-1.9872,0.89314,-5.8054,-1.9324,-6.8277,-1.9968,-0.13008,0.89314,1.9139,4.7847,9.5056,3.6538,-4.7847,7.619,-0.06441,5.6778
2.7804,9.4787,7.6375,2.8341,3.8003,1.859,4.7209,0.89314,7.7295,2.8341,3.8003,1.8211,1.8501,2.8708,4.7847,11.419,5.5769,-5.7416,1.9048,1.868,6.6348
5.624,13.27,7.6375,8.6312,6.6989,5.7051,8.5486,4.7209,7.7295,8.6312,6.6989,5.7236,2.807,0.95694,3.8278,8.5486,4.6154,0.0,0.95238,3.8003,2.807
5.624,7.5829,4.7249,5.7327,6.6989,6.6667,10.463,6.6348,-3.8647,5.7327,6.6989,6.6992,0.89314,-2.8708,2.8708,0.89314,0.76923,1.9139,0.0,0.90177,-1.0207
1.8325,-8.5308,-2.0712,1.868,2.8341,3.7821,1.8501,6.6348,2.8986,1.868,2.8341,1.8211,-3.8915,-6.6986,-0.95694,-8.6762,-5.0,8.6124,4.7619,-1.0306,-3.8915
-0.06319,-7.5829,-2.0712,2.8341,0.90177,0.89744,-0.0638,1.8501,1.9324,2.8341,0.90177,0.84553,-5.8054,-9.5694,-2.8708,-7.7193,-6.9231,2.8708,-1.9048,-2.963,-4.8485
4.6761,4.7393,4.7249,9.5974,4.7665,5.7051,7.5917,5.6778,-1.9324,9.5974,4.7665,5.7236,-1.9777,-5.7416,0.95694,-0.0638,-2.1154,4.7847,2.8571,1.868,-0.0638
10.363,11.374,9.5793,7.6651,4.7665,8.5897,9.5056,2.807,3.8647,7.6651,4.7665,9.626,3.764,0.0,4.7847,8.5486,2.6923,12.44,8.5714,8.6312,2.807
2.7804,5.6872,5.6958,-1.0306,-2.963,2.8205,0.89314,-3.8915,-2.8986,-1.0306,-2.963,3.7724,1.8501,-1.9139,0.0,8.5486,1.7308,-3.8278,3.8095,-1.9968,0.89314
-2.9068,0.0,-0.12945,-7.7939,-7.7939,-3.9103,-6.7624,-3.8915,-5.7971,-7.7939,-7.7939,-4.0325,-1.9777,-2.8708,-2.8708,4.7209,-2.1154,-12.44,0.0,-3.9291,1.8501
-1.9589,-0.94787,-4.0129,-5.8615,-4.8953,-3.9103,-6.7624,-4.8485,-6.7633,-5.8615,-4.8953,-5.9837,-3.8915,-3.8278,-4.7847,-1.0207,-5.9615,-9.5694,-6.6667,0.90177,-0.0638
0.88468,-0.94787,-3.0421,2.8341,-0.06441,-0.0641,-0.0638,2.807,-1.9324,2.8341,-0.06441,-2.0813,-4.8485,-4.7847,-3.8278,-3.8915,-5.9615,-0.95694,-10.476,0.90177,-1.0207
0.88468,-8.5308,-4.0129,3.8003,-0.06441,-0.0641,-1.0207,4.7209,-1.9324,3.8003,-0.06441,-0.13008,-4.8485,-5.7416,-2.8708,-10.59,-5.9615,0.95694,-2.8571,-1.0306,-2.9346
1.8325,-6.6351,-4.0129,-1.0306,-1.9968,-1.9872,-1.9777,-0.0638,-0.96618,-1.0306,-1.9968,-1.1057,-5.8054,-6.6986,0.0,-10.59,-4.0385,1.9139,-0.95238,-0.06441,-4.8485
3.7283,7.5829,0.84142,-5.8615,1.868,-1.0256,3.764,-1.9777,4.8309,-5.8615,1.868,0.84553,-1.9777,0.0,2.8708,0.89314,1.7308,-1.9139,-4.7619,3.8003,0.89314
-1.0111,1.8957,-3.0421,-5.8615,-1.0306,-3.9103,0.89314,-1.9777,-9.6618,-5.8615,-1.0306,-3.0569,-1.9777,-0.95694,-0.95694,-1.9777,-0.19231,-2.8708,-2.8571,-1.0306,-0.0638
-3.8547,-10.427,-7.8964,-1.0306,-3.9291,-5.8333,-6.7624,0.89314,-7.7295,-1.0306,-3.9291,-6.9593,-5.8054,-4.7847,-2.8708,-5.8054,-3.0769,-2.8708,1.9048,-5.8615,-1.0207
-0.06319,0.0,0.84142,2.8341,1.868,-0.0641,-0.0638,4.7209,10.628,2.8341,1.868,-0.13008,-1.9777,0.95694,2.8708,3.764,2.6923,3.8278,1.9048,-1.0306,3.764
2.7804,-3.7915,-0.12945,-1.0306,-1.9968,-1.9872,-3.8915,0.89314,0.96618,-1.0306,-1.9968,-3.0569,-4.8485,-2.8708,0.0,-1.9777,0.76923,2.8708,3.8095,0.90177,-2.9346
2.7804,-12.322,-3.0421,-2.963,-4.8953,-2.9487,-8.6762,-0.0638,-9.6618,-2.963,-4.8953,-6.9593,-5.8054,-6.6986,-1.9139,-6.7624,-1.1538,0.95694,0.95238,-1.0306,-4.8485
6.5719,0.0,3.754,0.90177,0.90177,0.89744,-0.0638,3.764,-17.391001,0.90177,0.90177,-1.1057,-1.0207,-3.8278,4.7847,-0.0638,5.5769,0.95694,-1.9048,-1.0306,-3.8915
0.88468,1.8957,4.7249,1.868,0.90177,0.89744,0.89314,3.764,-5.7971,1.868,0.90177,0.84553,1.8501,-1.9139,4.7847,1.8501,7.5,3.8278,-6.6667,-2.963,-4.8485
1.8325,-3.7915,2.7832,-1.0306,-1.0306,0.89744,-1.9777,0.89314,0.0,-1.0306,-1.0306,-2.0813,2.807,-1.9139,5.7416,0.89314,7.5,-0.95694,0.0,2.8341,-5.8054
9.4155,5.6872,7.6375,2.8341,3.8003,5.7051,4.7209,6.6348,5.7971,2.8341,3.8003,2.7967,10.463,4.7847,14.354,8.5486,14.231,8.6124,1.9048,14.428,-0.0638
2.7804,-0.94787,1.8123,-0.06441,2.8341,-0.0641,0.89314,2.807,5.7971,-0.06441,2.8341,-1.1057,11.419,5.7416,8.6124,2.807,10.385,2.8708,0.95238,1.868,0.89314
3.7283,-1.8957,-0.12945,-1.0306,0.90177,-0.0641,-1.0207,2.807,4.8309,-1.0306,0.90177,-3.0569,13.333,6.6986,6.6986,1.8501,8.4615,1.9139,0.95238,-4.8953,-0.0638
3.7283,3.7915,0.84142,-2.963,0.90177,-1.0256,1.8501,1.8501,-9.6618,-2.963,0.90177,-2.0813,12.376,7.6555,10.526,5.6778,8.4615,1.9139,-6.6667,8.6312,1.8501
-1.0111,0.0,-4.0129,-1.9968,-1.9968,-4.8718,-2.9346,-2.9346,-3.8647,-1.9968,-1.9968,-5.9837,3.764,1.9139,2.8708,-0.0638,0.76923,0.95694,-4.7619,1.868,-3.8915
0.88468,-3.7915,-4.0129,0.90177,-0.06441,-2.9487,-3.8915,-1.9777,7.7295,0.90177,-0.06441,-5.0081,-1.0207,-1.9139,0.0,-3.8915,-2.1154,0.0,5.7143,-7.7939,-0.0638
1.8325,-1.8957,-1.1003,0.90177,-0.06441,-0.0641,-1.9777,3.764,0.96618,0.90177,-0.06441,-3.0569,-0.0638,0.95694,1.9139,-0.0638,0.76923,0.95694,6.6667,-0.06441,5.6778
1.8325,-3.7915,-2.0712,-1.9968,-1.0306,-1.0256,-2.9346,2.807,-3.8647,-1.9968,-1.0306,-5.0081,-3.8915,-0.95694,-0.95694,-1.0207,-2.1154,2.8708,1.9048,-1.9968,-0.0638
-0.06319,3.7915,-1.1003,-4.8953,-0.06441,-2.9487,-2.9346,-1.9777,4.8309,-4.8953,-0.06441,-4.0325,-4.8485,0.0,-1.9139,1.8501,-2.1154,-3.8278,-8.5714,-1.9968,-1.0207
12.259,26.540001,8.6084,3.8003,10.564,9.5513,10.463,4.7209,22.222,3.8003,10.564,7.6748,2.807,10.526,8.6124,14.29,7.5,0.95694,-7.619,11.53,6.6348
-1.0111,-0.94787,-1.1003,-0.06441,-0.06441,0.89744,-2.9346,2.807,0.0,-0.06441,-0.06441,-2.0813,-4.8485,0.0,-0.95694,-0.0638,-1.1538,6.6986,8.5714,4.7665,1.8501
-8.594,-14.218,-6.9256,-7.7939,-8.7601,-5.8333,-11.547,-1.0207,-12.56,-7.7939,-8.7601,-8.9106,-10.59,-6.6986,-8.6124,-5.8054,-6.9231,4.7847,6.6667,-4.8953,-2.9346
1.8325,-2.8436,-0.12945,-2.963,-2.963,-1.0256,-4.8485,3.764,-9.6618,-2.963,-2.963,-3.0569,-5.8054,-2.8708,-2.8708,1.8501,-1.1538,1.9139,5.7143,-5.8615,-5.8054
5.624,-2.8436,0.84142,-3.9291,-1.9968,1.859,-4.8485,4.7209,2.8986,-3.9291,-1.9968,-2.0813,-3.8915,-0.95694,0.0,2.807,1.7308,-0.95694,1.9048,-0.06441,-2.9346
5.624,0.0,1.8123,1.868,1.868,3.7821,-0.0638,2.807,7.7295,1.868,1.868,1.8211,-0.0638,0.95694,3.8278,2.807,2.6923,0.95694,0.0,1.868,-1.0207
1.8325,-0.94787,1.8123,5.7327,2.8341,2.8205,2.807,-1.9777,2.8986,5.7327,2.8341,1.8211,-1.9777,-2.8708,0.0,0.89314,0.76923,4.7847,-1.9048,-0.06441,-2.9346
-4.8025,-1.8957,-0.12945,-0.06441,-0.06441,-1.9872,-0.0638,-1.9777,0.0,-0.06441,-0.06441,-0.13008,-5.8054,-5.7416,-4.7847,-0.0638,-2.1154,1.9139,-2.8571,1.868,-6.7624
-1.0111,14.218,7.6375,1.868,1.868,3.7821,5.6778,2.807,2.8986,1.868,1.868,6.6992,1.8501,3.8278,1.9139,12.376,6.5385,2.8708,1.9048,6.6989,-2.9346
0.88468,13.27,9.5793,3.8003,3.8003,5.7051,9.5056,2.807,2.8986,3.8003,3.8003,9.626,2.807,6.6986,1.9139,12.376,7.5,-3.8278,6.6667,-6.8277,5.6778
-0.06319,3.7915,4.7249,1.868,2.8341,4.7436,5.6778,-0.0638,8.6957,1.868,2.8341,5.7236,0.89314,4.7847,0.0,5.6778,3.6538,-0.95694,5.7143,-10.692,14.29
3.7283,1.8957,2.7832,4.7665,6.6989,3.7821,3.764,-1.9777,11.594,4.7665,6.6989,4.748,-1.0207,0.95694,1.9139,1.8501,2.6923,-2.8708,-0.95238,0.90177,5.6778
3.7283,4.7393,2.7832,-0.06441,2.8341,1.859,3.764,-1.0207,-8.6957,-0.06441,2.8341,3.7724,-1.9777,0.0,3.8278,2.807,2.6923,1.9139,-4.7619,-0.06441,1.8501
1.8325,2.8436,-0.12945,0.90177,1.868,1.859,5.6778,2.807,0.0,0.90177,1.868,2.7967,-1.9777,-0.95694,0.0,2.807,0.76923,-3.8278,-4.7619,-4.8953,-0.0638
-1.0111,-0.94787,-2.0712,-1.9968,-1.9968,-0.0641,0.89314,-3.8915,0.96618,-1.9968,-1.9968,-0.13008,-2.9346,-2.8708,-1.9139,1.8501,-1.1538,-10.526,-2.8571,-2.963,-5.8054
9.4155,16.114,10.55,7.6651,7.6651,8.5897,10.463,4.7209,18.357,7.6651,7.6651,9.626,9.5056,8.6124,10.526,13.333,10.385,2.8708,-6.6667,8.6312,10.463
2.7804,2.8436,6.6667,5.7327,4.7665,4.7436,4.7209,2.807,0.96618,5.7327,4.7665,5.7236,7.5917,4.7847,5.7416,5.6778,7.5,4.7847,3.8095,1.868,7.5917
-5.7504,-13.27,-4.0129,-1.9968,-5.8615,-4.8718,-5.8054,-6.7624,-13.527,-1.9968,-5.8615,-3.0569,-1.0207,-2.8708,-1.9139,-4.8485,-2.1154,-0.95694,9.5238,-0.06441,-4.8485
1.8325,-3.7915,-2.0712,-4.8953,-1.0306,-1.0256,-1.0207,-4.8485,0.96618,-4.8953,-1.0306,-0.13008,-1.0207,-1.9139,0.0,-1.9777,-0.19231,0.95694,3.8095,1.868,-0.0638
-2.9068,-5.6872,-5.9547,-7.7939,-2.963,-2.9487,-3.8915,-6.7624,3.8647,-7.7939,-2.963,-3.0569,-2.9346,-1.9139,-2.8708,-3.8915,-3.0769,-9.5694,-0.95238,-0.06441,-1.9777
-4.8025,-1.8957,-4.9838,-1.9968,-4.8953,-4.8718,-4.8485,-2.9346,-6.7633,-1.9968,-4.8953,-4.0325,-0.0638,0.0,-3.8278,-1.0207,-3.0769,-9.5694,-11.429,-2.963,-2.9346
-0.06319,6.6351,0.84142,3.8003,-1.0306,-1.0256,-1.0207,-1.0207,2.8986,3.8003,-1.0306,-0.13008,3.764,3.8278,0.95694,5.6778,0.76923,0.0,-1.9048,-2.963,2.807
-9.5419,-2.8436,-4.0129,0.90177,-3.9291,-5.8333,-5.8054,-6.7624,0.96618,0.90177,-3.9291,-4.0325,1.8501,0.0,-4.7847,-1.9777,-5.0,1.9139,11.429,-0.06441,0.89314
-16.177,-16.114,-10.809,-6.8277,-8.7601,-10.641,-11.547,-9.6332,-8.6957,-6.8277,-8.7601,-8.9106,-1.0207,-3.8278,-9.5694,-12.504,-10.769,-0.95694,0.0,-5.8615,-3.8915
-14.281,-18.009001,-8.8673,-6.8277,-7.7939,-9.6795,-7.7193,-9.6332,-10.628,-6.8277,-7.7939,-5.9837,-1.0207,-2.8708,-5.7416,-14.418,-8.8462,-4.7847,-9.5238,-3.9291,-2.9346
-0.06319,-7.5829,0.84142,-1.9968,-1.9968,-1.9872,-0.0638,-5.8054,-1.9324,-1.9968,-1.9968,1.8211,5.6778,2.8708,2.8708,-5.8054,-1.1538,0.0,-4.7619,1.868,3.764
0.88468,-2.8436,2.7832,1.868,-0.06441,-0.0641,-0.0638,-2.9346,0.96618,1.868,-0.06441,2.7967,9.5056,5.7416,3.8278,-1.0207,-0.19231,-3.8278,4.7619,1.868,4.7209
5.624,3.7915,1.8123,2.8341,1.868,2.8205,0.89314,-2.9346,3.8647,2.8341,1.868,2.7967,9.5056,6.6986,3.8278,2.807,-0.19231,-1.9139,-2.8571,1.868,3.764
0.88468,7.5829,-0.12945,-0.06441,0.90177,0.89744,2.807,-3.8915,0.0,-0.06441,0.90177,0.84553,1.8501,1.9139,-2.8708,-1.0207,-4.0385,-4.7847,-3.8095,1.868,-1.9777
-6.6983,0.0,-4.9838,-1.9968,-1.0306,-1.9872,-1.0207,-2.9346,1.9324,-1.9968,-1.0306,-2.0813,-4.8485,-4.7847,-8.6124,-8.6762,-8.8462,-1.9139,4.7619,-1.0306,-3.8915
-10.49,-2.8436,-4.9838,-0.06441,-3.9291,-5.8333,-4.8485,-6.7624,2.8986,-0.06441,-3.9291,-5.0081,-1.0207,-2.8708,-5.7416,-7.7193,-6.9231,0.0,4.7619,-0.06441,-6.7624
-14.281,-9.4787,-7.8964,-1.9968,-5.8615,-8.7179,-5.8054,-7.7193,0.96618,-1.9968,-5.8615,-5.9837,-3.8915,-4.7847,-9.5694,-11.547,-10.769,-1.9139,1.9048,-5.8615,-9.6332
-13.333,-15.166,-8.8673,-4.8953,-2.963,-3.9103,-4.8485,-5.8054,-0.96618,-4.8953,-2.963,-2.0813,-5.8054,-8.6124,-11.483,-16.332001,-14.615,-2.8708,-6.6667,-6.8277,-2.9346
-6.6983,-7.5829,-4.0129,4.7665,3.8003,2.8205,1.8501,2.807,1.9324,4.7665,3.8003,3.7724,-4.8485,-4.7847,-8.6124,-11.547,-12.692,-6.6986,-1.9048,-4.8953,2.807
0.88468,2.8436,-0.12945,4.7665,3.8003,3.7821,4.7209,-1.9777,5.7971,4.7665,3.8003,4.748,-2.9346,0.0,-5.7416,-4.8485,-9.8077,-9.5694,0.95238,-1.9968,5.6778
-0.06319,-7.5829,-6.9256,-6.8277,-2.963,-4.8718,-4.8485,-7.7193,-1.9324,-6.8277,-2.963,-5.0081,-5.8054,-3.8278,-6.6986,-8.6762,-10.769,0.95694,0.95238,-1.0306,2.807
-9.5419,-12.322,-12.751,-9.7262,-7.7939,-13.526,-10.59,-4.8485,-1.9324,-9.7262,-7.7939,-11.837,-8.6762,-9.5694,-9.5694,-13.461,-12.692,-3.8278,0.0,-8.7601,-4.8485
-0.06319,12.322,-3.0421,0.90177,1.868,-3.9103,5.6778,2.807,4.8309,0.90177,1.868,-1.1057,1.8501,0.95694,0.95694,0.89314,-1.1538,2.8708,2.8571,1.868,2.807
-2.9068,12.322,-1.1003,0.90177,2.8341,-1.0256,5.6778,5.6778,2.8986,0.90177,2.8341,-0.13008,3.764,2.8708,2.8708,5.6778,1.7308,11.483,0.95238,7.6651,4.7209
-14.281,-5.6872,-8.8673,-6.8277,-5.8615,-9.6795,-6.7624,-1.9777,3.8647,-6.8277,-5.8615,-9.8862,-4.8485,-4.7847,-5.7416,-2.9346,-5.0,6.6986,-0.95238,4.7665,-1.0207
-15.229,-18.957001,-11.78,-10.692,-10.692,-13.526,-15.375,-8.6762,-1.9324,-10.692,-10.692,-14.764,-8.6762,-12.44,-7.6555,-12.504,-9.8077,-4.7847,0.95238,-1.9968,-14.418
-3.8547,-14.218,-3.0421,-3.9291,-1.9968,-4.8718,-5.8054,-0.0638,1.9324,-3.9291,-1.9968,-5.0081,-4.8485,-6.6986,-1.9139,-11.547,-5.0,-2.8708,0.95238,-4.8953,-10.59
10.363,-1.8957,4.7249,3.8003,2.8341,5.7051,2.807,2.807,5.7971,3.8003,2.8341,2.7967,0.89314,-0.95694,4.7847,-5.8054,0.76923,2.8708,4.7619,-1.0306,0.89314
14.155,0.94787,2.7832,2.8341,0.90177,3.7821,0.89314,0.89314,0.96618,2.8341,0.90177,0.84553,-0.0638,-1.9139,3.8278,-3.8915,-1.1538,-5.7416,-2.8571,-1.9968,0.89314
1.8325,-3.7915,-3.0421,-3.9291,-4.8953,-4.8718,-4.8485,-1.0207,-8.6957,-3.9291,-4.8953,-4.0325,-5.8054,-4.7847,-2.8708,-2.9346,-4.0385,-1.9139,-3.8095,-2.963,-4.8485
-4.8025,3.7915,1.8123,-4.8953,-1.9968,-4.8718,-0.0638,-1.9777,4.8309,-4.8953,-1.9968,-1.1057,-1.9777,0.95694,-0.95694,5.6778,1.7308,6.6986,5.7143,2.8341,4.7209
-5.7504,7.5829,3.754,0.90177,0.90177,-2.9487,1.8501,1.8501,9.6618,0.90177,0.90177,-0.13008,2.807,5.7416,1.9139,8.5486,3.6538,9.5694,6.6667,4.7665,8.5486
-3.8547,3.7915,2.7832,4.7665,0.90177,-0.0641,2.807,4.7209,4.8309,4.7665,0.90177,0.84553,-1.9777,1.9139,-1.9139,4.7209,0.76923,3.8278,8.5714,0.90177,0.89314
-5.7504,-1.8957,-1.1003,4.7665,0.90177,-0.0641,1.8501,3.764,1.9324,4.7665,0.90177,1.8211,-8.6762,-5.7416,-8.6124,-2.9346,-5.9615,-4.7847,-1.9048,-4.8953,-4.8485
6.5719,10.427,6.6667,7.6651,9.5974,9.5513,13.333,11.419,2.8986,7.6651,9.5974,11.577,-1.9777,-0.95694,-0.95694,1.8501,-0.19231,0.0,-10.476,-1.9968,0.89314
10.363,10.427,6.6667,12.496,12.496,10.513,14.29,11.419,15.459,12.496,12.496,11.577,0.89314,4.7847,3.8278,6.6348,4.6154,6.6986,-4.7619,1.868,3.764
2.7804,-0.94787,-2.0712,4.7665,4.7665,1.859,1.8501,-0.0638,10.628,4.7665,4.7665,0.84553,-3.8915,-0.95694,-1.9139,-2.9346,-2.1154,1.9139,4.7619,-2.963,-0.0638
2.7804,-4.7393,-4.0129,-2.963,0.90177,-1.0256,-2.9346,-1.9777,0.0,-2.963,0.90177,-2.0813,-5.8054,-5.7416,-4.7847,-8.6762,-5.0,-5.7416,8.5714,-6.8277,-4.8485
1.8325,-0.94787,2.7832,3.8003,3.8003,3.7821,0.89314,5.6778,0.0,3.8003,3.8003,2.7967,-3.8915,-3.8278,-1.9139,-1.9777,-1.1538,4.7847,-2.8571,-0.06441,-4.8485
7.5197,13.27,11.521,12.496,9.5974,10.513,9.5056,10.463,8.6957,12.496,9.5974,9.626,3.764,3.8278,8.6124,9.5056,7.5,5.7416,-3.8095,15.395,-3.8915
3.7283,12.322,6.6667,9.5974,7.6651,9.5513,5.6778,5.6778,7.7295,9.5974,7.6651,5.7236,3.764,5.7416,5.7416,13.333,7.5,4.7847,3.8095,4.7665,-1.9777
-5.7504,-0.94787,-1.1003,2.8341,1.868,0.89744,-1.0207,2.807,2.8986,2.8341,1.868,-1.1057,-0.0638,5.7416,-1.9139,6.6348,2.6923,3.8278,5.7143,-7.7939,6.6348
-6.6983,-5.6872,-4.0129,-2.963,-1.9968,-3.9103,-5.8054,-0.0638,0.0,-2.963,-1.9968,-5.0081,-4.8485,0.95694,-3.8278,1.8501,-0.19231,-0.95694,-2.8571,-9.7262,2.807
3.7283,-2.8436,0.84142,-1.9968,-0.06441,-1.9872,-2.9346,-3.8915,0.96618,-1.9968,-0.06441,-2.0813,-3.8915,-0.95694,-0.95694,0.89314,0.76923,-7.6555,-0.95238,-6.8277,-0.0638
6.5719,3.7915,7.6375,0.90177,4.7665,3.7821,4.7209,1.8501,-0.96618,0.90177,4.7665,4.748,1.8501,2.8708,3.8278,2.807,4.6154,-4.7847,4.7619,1.868,4.7209
-0.06319,5.6872,5.6958,2.8341,4.7665,2.8205,3.764,4.7209,3.8647,2.8341,4.7665,3.7724,1.8501,0.95694,4.7847,1.8501,4.6154,4.7847,2.8571,8.6312,4.7209
-2.9068,-5.6872,-3.0421,0.90177,1.868,-1.9872,-0.0638,-0.0638,-3.8647,0.90177,1.868,-1.1057,-1.9777,-3.8278,0.0,-5.8054,-2.1154,3.8278,1.9048,6.6989,1.8501
-5.7504,-11.374,-9.8382,-3.9291,-0.06441,-3.9103,-3.8915,-4.8485,-6.7633,-3.9291,-0.06441,-4.0325,-5.8054,-7.6555,-4.7847,-9.6332,-7.8846,1.9139,2.8571,-4.8953,-5.8054
-1.9589,-2.8436,-5.9547,-0.06441,2.8341,-0.0641,-0.0638,1.8501,8.6957,-0.06441,2.8341,-1.1057,-1.9777,-3.8278,-0.95694,-1.9777,-4.0385,5.7416,0.95238,-2.963,-3.8915
5.624,12.322,3.754,4.7665,4.7665,2.8205,5.6778,5.6778,12.56,4.7665,4.7665,2.7967,1.8501,0.95694,3.8278,7.5917,2.6923,0.95694,-0.95238,7.6651,0.89314
-1.0111,3.7915,-0.12945,-1.9968,-1.0306,-4.8718,-1.0207,-4.8485,-1.9324,-1.9968,-1.0306,-3.0569,-5.8054,-2.8708,-2.8708,1.8501,-2.1154,-9.5694,-7.619,-1.9968,-4.8485
-4.8025,-2.8436,-1.1003,-1.9968,-1.0306,-1.9872,-1.9777,-0.0638,-4.8309,-1.9968,-1.0306,-2.0813,-4.8485,-2.8708,-3.8278,-1.0207,-0.19231,-2.8708,-2.8571,-11.659,-2.9346
6.5719,2.8436,2.7832,6.6989,3.8003,5.7051,3.764,1.8501,0.96618,6.6989,3.8003,4.748,1.8501,3.8278,5.7416,5.6778,7.5,-1.9139,0.95238,-6.8277,2.807
9.4155,8.5308,4.7249,7.6651,3.8003,7.6282,5.6778,4.7209,0.96618,7.6651,3.8003,5.7236,8.5486,9.5694,11.483,11.419,11.346,2.8708,-3.8095,6.6989,4.7209
5.624,12.322,6.6667,6.6989,3.8003,6.6667,7.5917,6.6348,-1.9324,6.6989,3.8003,6.6992,12.376,12.44,10.526,11.419,11.346,4.7847,-2.8571,14.428,9.5056
2.7804,-1.8957,0.84142,0.90177,-1.0306,3.7821,-0.0638,0.89314,1.9324,0.90177,-1.0306,0.84553,5.6778,2.8708,5.7416,-1.0207,3.6538,2.8708,7.619,10.564,0.89314
-3.8547,-10.427,-3.0421,-5.8615,-3.9291,-3.9103,-4.8485,-4.8485,-2.8986,-5.8615,-3.9291,-4.0325,-0.0638,-1.9139,0.0,-7.7193,-1.1538,4.7847,6.6667,4.7665,-1.0207
-4.8025,-6.6351,-3.0421,-1.9968,-3.9291,-2.9487,-3.8915,-4.8485,-2.8986,-1.9968,-3.9291,-3.0569,-1.9777,-0.95694,-1.9139,-5.8054,-2.1154,-4.7847,0.0,-5.8615,0.89314
-1.9589,-1.8957,-0.12945,-1.0306,2.8341,1.859,2.807,1.8501,4.8309,-1.0306,2.8341,2.7967,-0.0638,2.8708,0.0,0.89314,1.7308,-11.483,0.0,-2.963,3.764
1.8325,4.7393,3.754,1.868,7.6651,6.6667,7.5917,1.8501,4.8309,1.868,7.6651,7.6748,0.89314,3.8278,0.95694,8.5486,4.6154,0.0,4.7619,1.868,-2.9346
4.6761,7.5829,2.7832,8.6312,5.7327,3.7821,4.7209,1.8501,1.9324,8.6312,5.7327,4.748,2.807,5.7416,2.8708,8.5486,5.5769,3.8278,-0.95238,2.8341,-0.0638
-1.0111,-1.8957,-0.12945,6.6989,0.90177,-1.0256,-2.9346,2.807,-4.8309,6.6989,0.90177,-1.1057,1.8501,1.9139,2.8708,1.8501,1.7308,10.526,-2.8571,1.868,0.89314
2.7804,0.94787,2.7832,2.8341,1.868,2.8205,-0.0638,-1.0207,2.8986,2.8341,1.868,1.8211,3.764,0.95694,3.8278,4.7209,3.6538,4.7847,-0.95238,4.7665,-3.8915
-3.8547,0.0,-0.12945,-1.9968,-2.963,-3.9103,-3.8915,-3.8915,-5.7971,-1.9968,-2.963,-3.0569,0.89314,-0.95694,-1.9139,0.89314,-0.19231,-13.397,-0.95238,-6.8277,-10.59
-3.8547,-6.6351,-3.0421,-3.9291,-3.9291,-6.7949,-5.8054,-2.9346,-5.7971,-3.9291,-3.9291,-5.9837,0.89314,0.0,-0.95694,-4.8485,-2.1154,-1.9139,1.9048,-8.7601,-1.9777
0.88468,-2.8436,-1.1003,-1.0306,0.90177,-1.9872,-1.9777,-0.0638,0.96618,-1.0306,0.90177,-1.1057,3.764,1.9139,3.8278,-2.9346,-0.19231,3.8278,7.619,3.8003,4.7209
-0.06319,-0.94787,0.84142,1.868,1.868,1.859,-0.0638,1.8501,1.9324,1.868,1.868,0.84553,0.89314,0.95694,1.9139,-1.0207,-0.19231,0.95694,7.619,-0.06441,2.807
5.624,11.374,8.6084,7.6651,9.5974,9.5513,9.5056,6.6348,11.594,7.6651,9.5974,8.6504,2.807,6.6986,4.7847,9.5056,6.5385,5.7416,2.8571,1.868,4.7209
13.207,23.697001,13.463,8.6312,10.564,15.321,14.29,7.5917,0.0,8.6312,10.564,13.528,5.6778,8.6124,8.6124,14.29,10.385,0.0,-7.619,2.8341,9.5056
8.4676,10.427,5.6958,6.6989,4.7665,7.6282,5.6778,2.807,2.8986,6.6989,4.7665,5.7236,5.6778,5.7416,8.6124,7.5917,5.5769,-8.6124,0.0,5.7327,7.5917
3.7283,-7.5829,-4.9838,0.90177,-1.9968,-1.0256,-4.8485,-0.0638,6.7633,0.90177,-1.9968,-3.0569,0.89314,-1.9139,1.9139,-3.8915,-1.1538,0.95694,9.5238,3.8003,-3.8915
-2.9068,-14.218,-8.8673,-3.9291,-5.8615,-3.9103,-7.7193,-1.9777,-5.7971,-3.9291,-5.8615,-5.9837,-3.8915,-6.6986,-5.7416,-8.6762,-6.9231,2.8708,2.8571,-6.8277,-2.9346
20.790001,19.905001,11.521,8.6312,8.6312,13.397,13.333,9.5056,4.8309,8.6312,8.6312,11.577,9.5056,8.6124,12.44,14.29,10.385,7.6555,-8.5714,4.7665,6.6348
11.311,14.218,10.55,3.8003,5.7327,10.513,8.5486,7.5917,2.8986,3.8003,5.7327,7.6748,6.6348,5.7416,9.5694,10.463,9.4231,14.354,-0.95238,11.53,0.89314
-5.7504,-10.427,-0.12945,-3.9291,-4.8953,-1.0256,-8.6762,-1.0207,-5.7971,-3.9291,-4.8953,-3.0569,-1.0207,-2.8708,0.95694,-3.8915,0.76923,6.6986,3.8095,5.7327,-1.9777
2.7804,-1.8957,3.754,-1.9968,-3.9291,2.8205,-2.9346,-2.9346,-4.8309,-1.9968,-3.9291,0.84553,-0.0638,0.0,3.8278,1.8501,3.6538,-5.7416,2.8571,-0.06441,-3.8915
7.5197,0.0,5.6958,0.90177,-0.06441,6.6667,0.89314,-1.0207,0.0,0.90177,-0.06441,4.748,1.8501,1.9139,4.7847,2.807,3.6538,-3.8278,8.5714,-1.0306,-2.9346
6.5719,1.8957,3.754,1.868,3.8003,6.6667,6.6348,-0.0638,2.8986,1.868,3.8003,6.6992,4.7209,3.8278,4.7847,2.807,2.6923,-3.8278,-0.95238,0.90177,-1.9777
-0.06319,3.7915,3.754,-2.963,6.6989,4.7436,7.5917,0.89314,6.7633,-2.963,6.6989,5.7236,5.6778,6.6986,5.7416,5.6778,5.5769,5.7416,0.0,-0.06441,3.764
-3.8547,-1.8957,0.84142,-1.9968,-0.06441,-0.0641,-0.0638,-1.9777,0.0,-1.9968,-0.06441,-0.13008,4.7209,4.7847,5.7416,1.8501,3.6538,0.95694,2.8571,-0.06441,2.807
-0.06319,-3.7915,0.84142,1.868,-2.963,-1.0256,-3.8915,-1.9777,-4.8309,1.868,-2.963,-2.0813,3.764,3.8278,5.7416,0.89314,3.6538,-3.8278,0.95238,4.7665,3.764
5.624,5.6872,6.6667,5.7327,1.868,5.7051,2.807,3.764,3.8647,5.7327,1.868,4.748,7.5917,7.6555,6.6986,7.5917,6.5385,6.6986,4.7619,3.8003,8.5486
6.5719,13.27,8.6084,8.6312,6.6989,10.513,9.5056,9.5056,6.7633,8.6312,6.6989,9.626,7.5917,10.526,6.6986,11.419,7.5,11.483,1.9048,1.868,12.376
6.5719,11.374,5.6958,6.6989,4.7665,9.5513,7.5917,9.5056,-0.96618,6.6989,4.7665,6.6992,4.7209,7.6555,5.7416,9.5056,5.5769,3.8278,-4.7619,7.6651,5.6778
6.5719,4.7393,4.7249,2.8341,0.90177,5.7051,2.807,3.764,0.0,2.8341,0.90177,2.7967,2.807,4.7847,3.8278,5.6778,4.6154,0.0,-0.95238,7.6651,2.807
0.88468,1.8957,2.7832,-0.06441,-2.963,0.89744,-2.9346,1.8501,3.8647,-0.06441,-2.963,-1.1057,1.8501,1.9139,0.0,1.8501,2.6923,8.6124,4.7619,-1.0306,0.89314
1.8325,0.0,4.7249,0.90177,-1.9968,3.7821,-1.9777,1.8501,0.0,0.90177,-1.9968,1.8211,4.7209,2.8708,3.8278,1.8501,4.6154,3.8278,1.9048,2.8341,1.8501
6.5719,-2.8436,4.7249,-0.06441,-1.9968,4.7436,-0.0638,-2.9346,-4.8309,-0.06441,-1.9968,3.7724,-0.0638,-0.95694,3.8278,0.89314,2.6923,-6.6986,-2.8571,1.868,-3.8915
2.7804,8.5308,7.6375,0.90177,1.868,4.7436,7.5917,1.8501,-7.7295,0.90177,1.868,7.6748,-0.0638,1.9139,2.8708,6.6348,4.6154,-2.8708,-0.95238,1.868,-0.0638
-8.594,4.7393,-0.12945,-4.8953,-3.9291,-2.9487,-0.0638,-4.8485,-5.7971,-4.8953,-3.9291,-0.13008,-4.8485,-4.7847,-3.8278,-1.9777,-2.1154,1.9139,2.8571,0.90177,-1.0207
-0.06319,-0.94787,-0.12945,-2.963,-1.9968,-1.0256,-1.0207,-4.8485,8.6957,-2.963,-1.9968,-0.13008,-4.8485,-3.8278,-2.8708,-1.9777,-2.1154,-7.6555,3.8095,-1.9968,-1.9777
-1.9589,-1.8957,0.84142,-2.963,-2.963,-1.9872,-1.9777,-5.8054,5.7971,-2.963,-2.963,-0.13008,-1.0207,0.95694,-2.8708,-0.0638,-2.1154,-6.6986,2.8571,-0.06441,-0.0638
-8.594,-0.94787,-3.0421,-4.8953,-7.7939,-4.8718,-5.8054,-3.8915,-4.8309,-4.8953,-7.7939,-4.0325,-1.9777,2.8708,-6.6986,0.89314,-3.0769,2.8708,-5.7143,-2.963,-0.0638
-1.9589,-4.7393,-3.0421,-3.9291,-8.7601,-4.8718,-7.7193,-1.9777,-7.7295,-3.9291,-8.7601,-5.0081,-0.0638,2.8708,-1.9139,-1.0207,-1.1538,-0.95694,-10.476,-1.9968,-2.9346
-6.6983,-11.374,-6.9256,-6.8277,-9.7262,-9.6795,-10.59,-5.8054,-9.6618,-6.8277,-9.7262,-8.9106,-1.0207,2.8708,-2.8708,-3.8915,-2.1154,0.0,2.8571,-7.7939,-1.9777
-3.8547,-6.6351,-6.9256,-5.8615,-8.7601,-6.7949,-9.6332,-2.9346,-1.9324,-5.8615,-8.7601,-7.935,-1.9777,0.95694,-2.8708,-3.8915,-3.0769,0.95694,1.9048,-4.8953,4.7209
-3.8547,-7.5829,-7.8964,-4.8953,-8.7601,-5.8333,-8.6762,-1.0207,-9.6618,-4.8953,-8.7601,-6.9593,-4.8485,-1.9139,-5.7416,-7.7193,-6.9231,-2.8708,-1.9048,-1.0306,5.6778
-4.8025,-3.7915,-5.9547,-3.9291,-4.8953,-4.8718,-3.8915,-0.0638,-7.7295,-3.9291,-4.8953,-4.0325,-4.8485,-3.8278,-6.6986,-5.8054,-7.8846,1.9139,-4.7619,-2.963,-0.0638
-4.8025,-7.5829,-5.9547,-5.8615,-3.9291,-4.8718,-4.8485,-1.9777,-4.8309,-5.8615,-3.9291,-4.0325,-6.7624,-8.6124,-7.6555,-9.6332,-9.8077,0.95694,-14.286,-6.8277,-5.8054
-3.8547,-6.6351,-5.9547,-2.963,-1.0306,-3.9103,-1.9777,-2.9346,-2.8986,-2.963,-1.0306,-3.0569,-5.8054,-7.6555,-8.6124,-9.6332,-9.8077,-4.7847,-7.619,-1.0306,-7.7193
-1.9589,7.5829,-4.0129,1.868,-0.06441,0.89744,4.7209,-1.9777,-22.222,1.868,-0.06441,0.84553,-1.9777,-2.8708,-3.8278,-1.9777,-6.9231,-3.8278,-3.8095,10.564,-0.0638
-3.8547,-4.7393,-9.8382,-2.963,-3.9291,-2.9487,-1.9777,-7.7193,-6.7633,-2.963,-3.9291,-4.0325,-6.7624,-7.6555,-10.526,-9.6332,-11.731,-12.44,3.8095,-4.8953,-2.9346
-2.9068,-7.5829,-7.8964,-1.0306,0.90177,-0.0641,-0.0638,-1.9777,20.290001,-1.0306,0.90177,-1.1057,-5.8054,-6.6986,-10.526,-7.7193,-9.8077,-9.5694,9.5238,-7.7939,-4.8485
-0.06319,2.8436,-3.0421,4.7665,4.7665,2.8205,3.764,9.5056,13.527,4.7665,4.7665,2.7967,-2.9346,-0.95694,-5.7416,-0.0638,-5.0,0.95694,-3.8095,-2.963,5.6778
6.5719,5.6872,-1.1003,4.7665,2.8341,3.7821,2.807,7.5917,-1.9324,4.7665,2.8341,2.7967,-4.8485,-2.8708,-2.8708,-1.9777,-5.0,3.8278,-8.5714,-2.963,4.7209
-9.5419,-13.27,-10.809,-4.8953,-5.8615,-7.7564,-7.7193,-5.8054,-8.6957,-4.8953,-5.8615,-6.9593,-14.418,-13.397,-14.354,-16.332001,-15.577,-2.8708,0.95238,-10.692,-5.8054
-12.385,-16.114,-10.809,-8.7601,-6.8277,-8.7179,-9.6332,-5.8054,-6.7633,-8.7601,-6.8277,-9.8862,-14.418,-10.526,-14.354,-12.504,-14.615,-1.9139,5.7143,-9.7262,-4.8485
6.5719,0.0,0.84142,-0.06441,3.8003,4.7436,3.764,-1.0207,7.7295,-0.06441,3.8003,2.7967,-4.8485,0.0,0.0,0.89314,-3.0769,3.8278,3.8095,7.6651,1.8501
-5.7504,-2.8436,-3.0421,1.868,4.7665,-0.0641,4.7209,1.8501,-2.8986,1.868,4.7665,1.8211,-10.59,-6.6986,-6.6986,-5.8054,-8.8462,-0.95694,3.8095,-0.06441,-7.7193
-4.8025,1.8957,-1.1003,5.7327,6.6989,1.859,5.6778,4.7209,7.7295,5.7327,6.6989,3.7724,-7.7193,-3.8278,-8.6124,-3.8915,-7.8846,0.95694,1.9048,-10.692,-5.8054
-5.7504,-7.5829,-6.9256,-1.9968,-0.06441,-3.9103,-3.8915,-3.8915,6.7633,-1.9968,-0.06441,-4.0325,-5.8054,-1.9139,-9.5694,-6.7624,-8.8462,-5.7416,0.0,-10.692,0.89314
-12.385,-15.166,-12.751,-9.7262,-7.7939,-10.641,-13.461,-6.7624,-7.7295,-9.7262,-7.7939,-12.813,-7.7193,-4.7847,-10.526,-9.6332,-10.769,-5.7416,-6.6667,-3.9291,-1.0207
-7.6461,-7.5829,-7.8964,-5.8615,-4.8953,-7.7564,-6.7624,-4.8485,-1.9324,-5.8615,-4.8953,-8.9106,-3.8915,-2.8708,-4.7847,-6.7624,-5.9615,0.0,-7.619,-2.963,-0.0638
-2.9068,-3.7915,-4.0129,-3.9291,-4.8953,-2.9487,-3.8915,0.89314,-3.8647,-3.9291,-4.8953,-4.0325,0.89314,0.95694,-0.95694,-3.8915,-1.1538,8.6124,-1.9048,-1.9968,1.8501
4.6761,-1.8957,-2.0712,2.8341,-0.06441,-0.0641,-1.9777,1.8501,-2.8986,2.8341,-0.06441,-1.1057,2.807,1.9139,3.8278,-1.9777,1.7308,7.6555,-4.7619,0.90177,-0.0638
8.4676,3.7915,0.84142,6.6989,6.6989,3.7821,0.89314,3.764,1.9324,6.6989,6.6989,0.84553,5.6778,3.8278,6.6986,5.6778,5.5769,-4.7847,-6.6667,9.5974,3.764
10.363,6.6351,1.8123,3.8003,4.7665,3.7821,2.807,3.764,4.8309,3.8003,4.7665,-0.13008,5.6778,5.7416,7.6555,7.5917,7.5,-4.7847,-10.476,11.53,2.807
-4.8025,-3.7915,-6.9256,-9.7262,-7.7939,-5.8333,-8.6762,-1.9777,-2.8986,-9.7262,-7.7939,-7.935,-2.9346,-1.9139,-2.8708,-4.8485,-2.1154,0.0,1.9048,0.90177,-3.8915
-16.177,-18.009001,-12.751,-12.625,-10.692,-13.526,-15.375,-5.8054,-11.594,-12.625,-10.692,-13.789,-8.6762,-8.6124,-10.526,-12.504,-9.8077,3.8278,10.476,-9.7262,-10.59
-4.8025,-11.374,-6.9256,-4.8953,-2.963,-7.7564,-7.7193,-1.9777,-6.7633,-4.8953,-2.963,-8.9106,-2.9346,-2.8708,-2.8708,-6.7624,-5.0,11.483,-3.8095,-5.8615,-5.8054
-6.6983,-7.5829,-8.8673,-5.8615,-4.8953,-6.7949,-6.7624,-2.9346,-3.8647,-5.8615,-4.8953,-8.9106,-1.9777,-1.9139,-4.7847,-5.8054,-5.0,1.9139,-5.7143,-2.963,-0.0638
-1.9589,-7.5829,-8.8673,-7.7939,-7.7939,-7.7564,-9.6332,-7.7193,-0.96618,-7.7939,-7.7939,-10.862,0.89314,0.0,0.0,-2.9346,-2.1154,-16.268,-1.9048,1.868,-1.9777
0.88468,-2.8436,-4.0129,-2.963,-4.8953,-6.7949,-5.8054,-0.0638,-4.8309,-2.963,-4.8953,-8.9106,3.764,2.8708,4.7847,2.807,3.6538,0.95694,-2.8571,5.7327,-3.8915
-1.9589,-12.322,-4.0129,-5.8615,-4.8953,-8.7179,-6.7624,-3.8915,-3.8647,-5.8615,-4.8953,-6.9593,-1.9777,-1.9139,-0.95694,-4.8485,-0.19231,0.0,0.0,0.90177,-4.8485
-2.9068,-6.6351,0.84142,-0.06441,2.8341,-3.9103,-0.0638,-1.9777,0.0,-0.06441,2.8341,-1.1057,-0.0638,0.95694,0.95694,-2.9346,1.7308,2.8708,-4.7619,2.8341,1.8501
-0.06319,2.8436,3.754,4.7665,5.7327,0.89744,4.7209,1.8501,3.8647,4.7665,5.7327,1.8211,5.6778,7.6555,2.8708,3.764,5.5769,9.5694,2.8571,-1.0306,7.5917
-4.8025,0.94787,-1.1003,-1.0306,2.8341,-1.9872,1.8501,0.89314,2.8986,-1.0306,2.8341,-1.1057,5.6778,6.6986,0.95694,1.8501,3.6538,2.8708,4.7619,4.7665,-0.0638
-2.9068,-3.7915,-4.0129,-3.9291,-1.0306,-3.9103,-2.9346,-1.9777,0.0,-3.9291,-1.0306,-4.0325,6.6348,6.6986,0.0,0.89314,0.76923,0.0,1.9048,6.6989,-0.0638
2.7804,2.8436,-1.1003,-1.9968,0.90177,1.859,1.8501,0.89314,-6.7633,-1.9968,0.90177,-0.13008,10.463,9.5694,2.8708,5.6778,3.6538,6.6986,-1.9048,0.90177,3.764
6.5719,4.7393,-1.1003,-1.9968,0.90177,1.859,0.89314,-1.0207,-1.9324,-1.9968,0.90177,-1.1057,9.5056,8.6124,5.7416,2.807,2.6923,0.95694,-4.7619,2.8341,5.6778
0.88468,-5.6872,-4.0129,-2.963,-1.9968,-1.9872,-4.8485,1.8501,0.96618,-2.963,-1.9968,-4.0325,7.5917,7.6555,0.95694,-3.8915,-1.1538,2.8708,-0.95238,1.868,0.89314
6.5719,-1.8957,1.8123,1.868,1.868,3.7821,1.8501,5.6778,1.9324,1.868,1.868,1.8211,10.463,10.526,3.8278,0.89314,3.6538,0.95694,0.0,6.6989,0.89314
4.6761,4.7393,4.7249,3.8003,4.7665,4.7436,5.6778,4.7209,5.7971,3.8003,4.7665,3.7724,8.5486,10.526,3.8278,5.6778,5.5769,-2.8708,-4.7619,6.6989,3.764
5.624,20.853001,7.6375,5.7327,8.6312,6.6667,11.419,6.6348,11.594,5.7327,8.6312,7.6748,7.5917,12.44,5.7416,14.29,7.5,7.6555,-16.190001,7.6651,8.5486
-0.06319,4.7393,-0.12945,-0.06441,0.90177,1.859,0.89314,-1.0207,3.8647,-0.06441,0.90177,-0.13008,-1.0207,0.95694,-2.8708,-1.0207,-2.1154,-2.8708,2.8571,-4.8953,1.8501
-2.9068,-15.166,-4.0129,-1.0306,-0.06441,-0.0641,-2.9346,-2.9346,1.9324,-1.0306,-0.06441,-1.1057,-6.7624,-7.6555,-8.6124,-12.504,-8.8462,0.95694,16.190001,-9.7262,-5.8054
0.88468,-5.6872,1.8123,0.90177,4.7665,4.7436,4.7209,3.764,-9.6618,0.90177,4.7665,4.748,-3.8915,-3.8278,-3.8278,-5.8054,-4.0385,8.6124,5.7143,-0.06441,-1.9777
-7.6461,-1.8957,-0.12945,-3.9291,-0.06441,-0.0641,-0.0638,-1.0207,-6.7633,-3.9291,-0.06441,1.8211,-7.7193,-6.6986,-8.6124,-4.8485,-5.9615,0.95694,-5.7143,-6.8277,-1.0207
-6.6983,-6.6351,-1.1003,-1.0306,-1.0306,-0.0641,-2.9346,-2.9346,2.8986,-1.0306,-1.0306,0.84553,-6.7624,-4.7847,-7.6555,-2.9346,-5.0,0.0,0.0,-5.8615,-1.0207
-3.8547,-0.94787,-0.12945,-2.963,-2.963,0.89744,-1.9777,-1.9777,3.8647,-2.963,-2.963,1.8211,-2.9346,-0.95694,-1.9139,2.807,-1.1538,-2.8708,-1.9048,-0.06441,0.89314
0.88468,1.8957,2.7832,-1.0306,-1.0306,1.859,0.89314,-0.0638,1.9324,-1.0306,-1.0306,3.7724,0.89314,-0.95694,3.8278,1.8501,0.76923,-7.6555,0.95238,0.90177,2.807
6.5719,3.7915,5.6958,2.8341,2.8341,3.7821,2.807,-0.0638,3.8647,2.8341,2.8341,4.748,-1.0207,-2.8708,5.7416,1.8501,1.7308,-4.7847,7.619,5.7327,2.807
1.8325,4.7393,4.7249,-1.0306,1.868,-0.0641,1.8501,-0.0638,2.8986,-1.0306,1.868,1.8211,-1.9777,-4.7847,2.8708,2.807,0.76923,5.7416,0.0,2.8341,-1.9777
-1.0111,3.7915,2.7832,-5.8615,1.868,-1.9872,2.807,-1.0207,4.8309,-5.8615,1.868,0.84553,-0.0638,-4.7847,1.9139,0.89314,0.76923,10.526,0.95238,-1.9968,-7.7193
3.7283,1.8957,4.7249,-1.0306,6.6989,0.89744,5.6778,-1.9777,7.7295,-1.0306,6.6989,2.7967,2.807,-2.8708,7.6555,-0.0638,3.6538,0.0,2.8571,2.8341,0.89314
9.4155,3.7915,6.6667,4.7665,6.6989,4.7436,6.6348,2.807,6.7633,4.7665,6.6989,5.7236,2.807,0.0,8.6124,3.764,6.5385,3.8278,-1.9048,5.7327,7.5917
7.5197,10.427,6.6667,4.7665,4.7665,2.8205,6.6348,3.764,-3.8647,4.7665,4.7665,4.748,2.807,1.9139,7.6555,10.463,7.5,5.7416,-4.7619,2.8341,4.7209
5.624,9.4787,4.7249,-1.0306,1.868,0.89744,3.764,3.764,2.8986,-1.0306,1.868,2.7967,3.764,2.8708,7.6555,8.5486,7.5,0.95694,-2.8571,2.8341,3.764
5.624,6.6351,8.6084,2.8341,4.7665,3.7821,7.5917,5.6778,8.6957,2.8341,4.7665,5.7236,7.5917,6.6986,9.5694,10.463,10.385,-0.95694,1.9048,4.7665,8.5486
2.7804,9.4787,9.5793,0.90177,3.8003,1.859,5.6778,-1.9777,6.7633,0.90177,3.8003,5.7236,5.6778,6.6986,5.7416,11.419,9.4231,1.9139,4.7619,5.7327,5.6778
1.8325,2.8436,4.7249,-4.8953,-2.963,-1.9872,-1.0207,-4.8485,-1.9324,-4.8953,-2.963,1.8211,4.7209,5.7416,2.8708,6.6348,5.5769,5.7416,5.7143,5.7327,7.5917
-5.7504,-2.8436,0.84142,-5.8615,-5.8615,-4.8718,-4.8485,-3.8915,-9.6618,-5.8615,-5.8615,-3.0569,1.8501,5.7416,-0.95694,3.764,1.7308,4.7847,1.9048,-1.0306,4.7209
-2.9068,-0.94787,1.8123,-3.9291,-3.9291,-3.9103,-2.9346,-5.8054,-4.8309,-3.9291,-3.9291,-2.0813,0.89314,2.8708,2.8708,2.807,3.6538,-6.6986,4.7619,1.868,1.8501
0.88468,-3.7915,0.84142,-4.8953,-3.9291,-1.9872,-2.9346,-4.8485,0.0,-4.8953,-3.9291,-4.0325,1.8501,0.95694,5.7416,-0.0638,3.6538,-8.6124,3.8095,5.7327,-0.0638
-1.0111,0.0,1.8123,-8.7601,-2.963,-1.0256,-1.9777,-2.9346,-2.8986,-8.7601,-2.963,-2.0813,2.807,2.8708,3.8278,1.8501,4.6154,-9.5694,-4.7619,0.90177,0.89314
5.624,3.7915,6.6667,-0.06441,1.868,4.7436,3.764,2.807,0.96618,-0.06441,1.868,2.7967,3.764,3.8278,5.7416,4.7209,6.5385,0.95694,3.8095,-3.9291,3.764
0.88468,1.8957,5.6958,0.90177,0.90177,2.8205,4.7209,3.764,1.9324,0.90177,0.90177,3.7724,0.89314,0.95694,3.8278,1.8501,2.6923,0.95694,2.8571,-1.0306,-1.0207
0.88468,3.7915,4.7249,1.868,3.8003,2.8205,6.6348,0.89314,6.7633,1.868,3.8003,4.748,-0.0638,-0.95694,1.9139,0.89314,1.7308,4.7847,0.95238,2.8341,-3.8915
9.4155,5.6872,6.6667,5.7327,3.8003,5.7051,8.5486,-0.0638,14.493,5.7327,3.8003,5.7236,1.8501,2.8708,3.8278,4.7209,3.6538,0.95694,4.7619,4.7665,2.807
6.5719,4.7393,6.6667,4.7665,2.8341,5.7051,6.6348,5.6778,1.9324,4.7665,2.8341,5.7236,2.807,3.8278,2.8708,5.6778,4.6154,-1.9139,0.0,1.868,7.5917
-2.9068,0.0,1.8123,1.868,-0.06441,0.89744,-0.0638,3.764,-6.7633,1.868,-0.06441,1.8211,-0.0638,0.95694,-2.8708,1.8501,-0.19231,0.95694,0.95238,-7.7939,-0.0638
-1.0111,-1.8957,-1.1003,1.868,-0.06441,-1.0256,-1.9777,-1.0207,-5.7971,1.868,-0.06441,-1.1057,0.89314,-0.95694,-1.9139,-0.0638,-1.1538,0.95694,4.7619,-5.8615,-2.9346
11.311,15.166,8.6084,8.6312,9.5974,11.474,13.333,8.5486,4.8309,8.6312,9.5974,11.577,7.5917,4.7847,9.5694,6.6348,6.5385,10.526,-8.5714,8.6312,1.8501
7.5197,7.5829,9.5793,3.8003,4.7665,11.474,9.5056,7.5917,2.8986,3.8003,4.7665,11.577,4.7209,1.9139,6.6986,3.764,5.5769,0.0,-7.619,10.564,-2.9346
8.4676,17.062,13.463,3.8003,5.7327,12.436,14.29,8.5486,5.7971,3.8003,5.7327,13.528,3.764,3.8278,6.6986,9.5056,7.5,-1.9139,-6.6667,6.6989,7.5917
5.624,15.166,10.55,2.8341,2.8341,6.6667,10.463,2.807,5.7971,2.8341,2.8341,10.602,0.89314,2.8708,2.8708,8.5486,5.5769,-3.8278,5.7143,-2.963,10.463
-1.0111,14.218,5.6958,5.7327,4.7665,4.7436,7.5917,4.7209,6.7633,5.7327,4.7665,6.6992,2.807,4.7847,1.9139,9.5056,4.6154,-7.6555,6.6667,-4.8953,3.764
-1.0111,-3.7915,-0.12945,2.8341,0.90177,1.859,-0.0638,0.89314,1.9324,2.8341,0.90177,1.8211,1.8501,2.8708,0.0,2.807,1.7308,5.7416,4.7619,-3.9291,4.7209
-3.8547,-13.27,-4.9838,-6.8277,-6.8277,-4.8718,-8.6762,-6.7624,-2.8986,-6.8277,-6.8277,-5.9837,-0.0638,-3.8278,-1.9139,-5.8054,-2.1154,7.6555,12.381,-1.9968,-1.0207
-2.9068,-1.8957,0.84142,-3.9291,-1.9968,-1.0256,-0.0638,-1.9777,-2.8986,-3.9291,-1.9968,-0.13008,6.6348,0.0,3.8278,-0.0638,4.6154,9.5694,6.6667,-0.06441,-1.0207
-1.9589,0.0,2.7832,-1.9968,-0.06441,2.8205,2.807,3.764,-0.96618,-1.9968,-0.06441,3.7724,3.764,-1.9139,0.0,-2.9346,2.6923,4.7847,-0.95238,4.7665,-6.7624
0.88468,-1.8957,2.7832,2.8341,0.90177,5.7051,4.7209,7.5917,0.96618,2.8341,0.90177,6.6992,2.807,-3.8278,-1.9139,-6.7624,-1.1538,-2.8708,-0.95238,6.6989,-10.59
1.8325,-6.6351,-1.1003,-3.9291,-1.0306,2.8205,-0.0638,-1.9777,0.0,-3.9291,-1.0306,2.7967,0.89314,-4.7847,-3.8278,-11.547,-5.0,-4.7847,-9.5238,-1.9968,-7.7193
0.88468,-8.5308,-4.0129,-2.963,-2.963,-1.9872,-2.9346,-4.8485,-3.8647,-2.963,-2.963,-3.0569,0.89314,-2.8708,-2.8708,-10.59,-5.9615,-4.7847,-15.238,-2.963,-4.8485
-4.8025,-2.8436,-4.0129,-2.963,-4.8953,-7.7564,-2.9346,-5.8054,-0.96618,-2.963,-4.8953,-5.9837,2.807,0.95694,-1.9139,-2.9346,-4.0385,0.0,6.6667,-0.06441,-1.9777
-7.6461,-2.8436,-5.9547,-8.7601,-9.7262,-9.6795,-6.7624,-8.6762,0.0,-8.7601,-9.7262,-9.8862,5.6778,4.7847,-0.95694,0.89314,-1.1538,-5.7416,10.476,4.7665,2.807
-4.8025,4.7393,-2.0712,-9.7262,-7.7939,-5.8333,-4.8485,-5.8054,-1.9324,-9.7262,-7.7939,-5.0081,11.419,12.44,1.9139,9.5056,4.6154,-7.6555,0.95238,2.8341,11.419
-10.49,2.8436,-4.9838,-4.8953,-7.7939,-6.7949,-7.7193,-1.9777,-11.594,-4.8953,-7.7939,-6.9593,8.5486,9.5694,-1.9139,6.6348,2.6923,-2.8708,-6.6667,-1.9968,10.463
-1.9589,3.7915,-4.9838,-0.06441,-4.8953,-4.8718,-2.9346,-0.0638,-5.7971,-0.06441,-4.8953,-5.0081,6.6348,7.6555,2.8708,5.6778,1.7308,-4.7847,-1.9048,7.6651,2.807
2.7804,1.8957,-5.9547,-2.963,-6.8277,-4.8718,-4.8485,-2.9346,-1.9324,-2.963,-6.8277,-5.9837,6.6348,5.7416,4.7847,1.8501,-0.19231,4.7847,3.8095,4.7665,0.89314
-5.7504,-9.4787,-13.722,-8.7601,-14.557,-10.641,-14.418,-5.8054,-6.7633,-8.7601,-14.557,-12.813,-1.9777,-1.9139,-3.8278,-10.59,-9.8077,0.95694,-4.7619,-6.8277,-1.0207
-2.9068,-0.94787,-9.8382,-9.7262,-11.659,-5.8333,-10.59,-6.7624,-4.8309,-9.7262,-11.659,-9.8862,-0.0638,2.8708,-1.9139,-4.8485,-5.9615,-7.6555,-14.286,-6.8277,4.7209
-3.8547,2.8436,-4.0129,-2.963,-5.8615,-2.9487,-6.7624,-3.8915,-9.6618,-2.963,-5.8615,-5.9837,1.8501,5.7416,-2.8708,2.807,-2.1154,0.0,2.8571,-0.06441,7.5917
-8.594,-10.427,-6.9256,-1.9968,-7.7939,-6.7949,-11.547,-3.8915,-3.8647,-1.9968,-7.7939,-9.8862,-2.9346,-1.9139,-7.6555,-5.8054,-5.9615,-10.526,10.476,-4.8953,-1.0207
-3.8547,-12.322,-5.9547,-2.963,-3.9291,-3.9103,-4.8485,-1.0207,6.7633,-2.963,-3.9291,-5.0081,-4.8485,-3.8278,-6.6986,-6.7624,-5.9615,-6.6986,5.7143,-1.0306,-7.7193
4.6761,0.0,0.84142,0.90177,1.868,3.7821,3.764,1.8501,3.8647,0.90177,1.868,2.7967,-0.0638,0.95694,0.95694,0.89314,-0.19231,5.7416,2.8571,3.8003,-3.8915
-3.8547,1.8957,-2.0712,-0.06441,-1.0306,-2.9487,2.807,-1.0207,-4.8309,-0.06441,-1.0306,-1.1057,-2.9346,0.0,0.0,-1.0207,-2.1154,5.7416,-1.9048,0.90177,1.8501
-1.0111,-3.7915,-3.0421,-3.9291,-5.8615,-6.7949,-4.8485,-7.7193,-0.96618,-3.9291,-5.8615,-5.9837,-3.8915,-1.9139,1.9139,-2.9346,-2.1154,1.9139,-2.8571,3.8003,3.764
-1.0111,-7.5829,-4.0129,-6.8277,-7.7939,-6.7949,-8.6762,-10.59,3.8647,-6.8277,-7.7939,-8.9106,-4.8485,-4.7847,0.0,-3.8915,-1.1538,-5.7416,0.95238,-3.9291,-1.0207
0.88468,-0.94787,-1.1003,-5.8615,-4.8953,-4.8718,-3.8915,-7.7193,0.0,-5.8615,-4.8953,-5.0081,-1.9777,-0.95694,0.0,0.89314,1.7308,-3.8278,-9.5238,-15.523,1.8501
-6.6983,0.0,-3.0421,-3.9291,-2.963,-4.8718,-0.0638,-5.8054,2.8986,-3.9291,-2.963,-2.0813,-2.9346,-2.8708,-4.7847,-1.0207,-1.1538,-2.8708,1.9048,-8.7601,-0.0638
-13.333,-4.7393,-6.9256,-1.9968,-1.9968,-3.9103,-0.0638,-1.9777,2.8986,-1.9968,-1.9968,-2.0813,-7.7193,-8.6124,-13.397,-7.7193,-8.8462,-4.7847,7.619,-12.625,-8.6762
2.7804,8.5308,2.7832,3.8003,5.7327,6.6667,8.5486,5.6778,14.493,3.8003,5.7327,7.6748,-1.0207,-2.8708,-3.8278,1.8501,-2.1154,0.0,8.5714,-3.9291,-4.8485
16.051001,22.749001,14.434,15.395,11.53,16.282,17.160999,15.247,0.0,15.395,11.53,15.48,4.7209,4.7847,9.5694,13.333,8.4615,10.526,1.9048,7.6651,8.5486
7.5197,4.7393,6.6667,8.6312,0.90177,5.7051,2.807,5.6778,-0.96618,8.6312,0.90177,4.748,-1.9777,-0.95694,4.7847,3.764,3.6538,-0.95694,-1.9048,0.90177,2.807
9.4155,1.8957,8.6084,2.8341,-1.9968,1.859,0.89314,-2.9346,11.594,2.8341,-1.9968,1.8211,-1.0207,1.9139,9.5694,6.6348,8.4615,2.8708,-3.8095,7.6651,2.807
12.259,10.427,6.6667,1.868,0.90177,-0.0641,3.764,-3.8915,4.8309,1.868,0.90177,-0.13008,-1.0207,3.8278,10.526,9.5056,10.385,-7.6555,-6.6667,2.8341,3.764
-1.0111,0.0,-3.0421,-1.0306,0.90177,-5.8333,-4.8485,-1.9777,4.8309,-1.0306,0.90177,-5.9837,-2.9346,0.0,1.9139,5.6778,2.6923,-5.7416,-0.95238,-3.9291,-0.0638
-3.8547,-7.5829,-4.0129,2.8341,1.868,-1.0256,-4.8485,-1.9777,8.6957,2.8341,1.868,-3.0569,-0.0638,0.95694,-0.95694,2.807,-0.19231,5.7416,11.429,0.90177,-1.9777
-4.8025,1.8957,-1.1003,4.7665,2.8341,2.8205,0.89314,-0.0638,-8.6957,4.7665,2.8341,0.84553,0.89314,1.9139,-2.8708,0.89314,-0.19231,2.8708,3.8095,4.7665,-1.0207
-8.594,2.8436,-2.0712,2.8341,2.8341,-1.0256,-1.0207,-1.0207,-2.8986,2.8341,2.8341,0.84553,-1.9777,2.8708,-7.6555,-1.0207,-4.0385,-3.8278,0.95238,5.7327,3.764
1.8325,1.8957,5.6958,11.53,12.496,7.6282,9.5056,6.6348,17.391001,11.53,12.496,10.602,1.8501,6.6986,-1.9139,3.764,-1.1538,2.8708,6.6667,-1.9968,1.8501
2.7804,-3.7915,3.754,10.564,8.6312,6.6667,6.6348,2.807,5.7971,10.564,8.6312,8.6504,0.89314,2.8708,0.0,-0.0638,-3.0769,-4.7847,4.7619,-8.7601,-2.9346
5.624,3.7915,6.6667,8.6312,7.6651,5.7051,7.5917,2.807,-0.96618,8.6312,7.6651,7.6748,3.764,2.8708,4.7847,3.764,1.7308,-3.8278,2.8571,-3.9291,3.764
5.624,3.7915,4.7249,2.8341,3.8003,0.89744,0.89314,-2.9346,1.9324,2.8341,3.8003,1.8211,4.7209,3.8278,9.5694,6.6348,5.5769,5.7416,1.9048,0.90177,4.7209
4.6761,0.94787,2.7832,2.8341,1.868,-1.9872,-2.9346,-6.7624,5.7971,2.8341,1.868,-2.0813,6.6348,4.7847,11.483,6.6348,7.5,0.95694,1.9048,2.8341,2.807
5.624,0.0,2.7832,4.7665,3.8003,2.8205,-0.0638,-0.0638,3.8647,4.7665,3.8003,2.7967,9.5056,6.6986,11.483,5.6778,8.4615,-4.7847,5.7143,6.6989,6.6348
1.8325,-3.7915,-0.12945,5.7327,1.868,1.859,-2.9346,1.8501,0.96618,5.7327,1.868,0.84553,7.5917,3.8278,4.7847,1.8501,4.6154,-2.8708,5.7143,3.8003,7.5917
0.88468,-3.7915,-2.0712,6.6989,3.8003,-0.0641,-2.9346,-0.0638,-0.96618,6.6989,3.8003,-0.13008,4.7209,1.9139,0.95694,4.7209,2.6923,11.483,3.8095,2.8341,1.8501
-2.9068,2.8436,-0.12945,3.8003,3.8003,-0.0641,-0.0638,-0.0638,2.8986,3.8003,3.8003,-0.13008,-0.0638,0.95694,-2.8708,8.5486,1.7308,7.6555,5.7143,-3.9291,1.8501
-1.9589,13.27,7.6375,3.8003,7.6651,3.7821,10.463,3.764,-3.8647,3.8003,7.6651,5.7236,-1.0207,5.7416,-0.95694,14.29,6.5385,-4.7847,2.8571,-1.0306,7.5917
6.5719,16.114,13.463,6.6989,7.6651,7.6282,12.376,2.807,3.8647,6.6989,7.6651,10.602,3.764,12.44,5.7416,18.118,11.346,-0.95694,-5.7143,3.8003,10.463
5.624,13.27,11.521,4.7665,4.7665,5.7051,7.5917,2.807,9.6618,4.7665,4.7665,7.6748,6.6348,13.397,7.6555,16.204,11.346,4.7847,-0.95238,6.6989,6.6348
-1.0111,1.8957,5.6958,1.868,0.90177,-0.0641,-1.0207,2.807,2.8986,1.868,0.90177,0.84553,4.7209,13.397,3.8278,11.419,7.5,-0.95694,7.619,-1.9968,1.8501
6.5719,0.94787,2.7832,-1.9968,-1.0306,-1.0256,-1.9777,-1.0207,3.8647,-1.9968,-1.0306,-2.0813,5.6778,11.483,6.6986,5.6778,4.6154,-7.6555,5.7143,0.90177,2.807
9.4155,9.4787,5.6958,0.90177,1.868,1.859,4.7209,0.89314,9.6618,0.90177,1.868,1.8211,9.5056,11.483,11.483,5.6778,6.5385,7.6555,7.619,13.462,9.5056
11.311,9.4787,9.5793,1.868,-0.06441,4.7436,3.764,-2.9346,-12.56,1.868,-0.06441,3.7724,10.463,7.6555,12.44,6.6348,8.4615,0.95694,-3.8095,9.5974,4.7209
3.7283,-4.7393,2.7832,-5.8615,-6.8277,-1.0256,-6.7624,-7.7193,-7.7295,-5.8615,-6.8277,-3.0569,3.764,2.8708,2.8708,-0.0638,1.7308,-16.268,1.9048,-0.06441,3.764
-13.333,-10.427,-5.9547,-10.692,-11.659,-9.6795,-10.59,-10.59,-13.527,-10.692,-11.659,-9.8862,-4.8485,-2.8708,-10.526,-3.8915,-6.9231,-6.6986,1.9048,-4.8953,-0.0638
-9.5419,-1.8957,-2.0712,-5.8615,-7.7939,-8.7179,-7.7193,-4.8485,-6.7633,-5.8615,-7.7939,-7.935,-3.8915,-1.9139,-6.6986,2.807,-4.0385,7.6555,-2.8571,-1.0306,-0.0638
-1.9589,0.0,0.84142,-1.0306,-3.9291,-4.8718,-4.8485,-1.9777,2.8986,-1.0306,-3.9291,-5.0081,1.8501,1.9139,-0.95694,5.6778,1.7308,8.6124,-0.95238,-1.0306,4.7209
3.7283,-4.7393,0.84142,-2.963,-3.9291,-1.9872,-4.8485,1.8501,-4.8309,-2.963,-3.9291,-3.0569,3.764,-0.95694,4.7847,0.89314,1.7308,1.9139,0.0,1.868,2.807
12.259,-7.5829,0.84142,-1.0306,-2.963,1.859,-4.8485,4.7209,-5.7971,-1.0306,-2.963,-1.1057,1.8501,-5.7416,8.6124,-5.8054,-0.19231,-1.9139,-1.9048,10.564,-2.9346
9.4155,-7.5829,0.84142,1.868,-1.0306,2.8205,-3.8915,5.6778,-3.8647,1.868,-1.0306,-0.13008,-1.0207,-6.6986,5.7416,-7.7193,-2.1154,0.95694,-5.7143,8.6312,-5.8054
9.4155,-4.7393,2.7832,8.6312,2.8341,6.6667,0.89314,7.5917,-1.9324,8.6312,2.8341,3.7724,-2.9346,-5.7416,5.7416,-4.8485,-1.1538,11.483,-2.8571,8.6312,-8.6762
12.259,-2.8436,2.7832,12.496,6.6989,9.5513,3.764,9.5056,-4.8309,12.496,6.6989,7.6748,-6.7624,-8.6124,4.7847,-6.7624,-2.1154,12.44,-3.8095,11.53,-3.8915
8.4676,3.7915,5.6958,14.428,11.53,12.436,11.419,9.5056,-3.8647,14.428,11.53,12.553,-6.7624,-7.6555,3.8278,-2.9346,-0.19231,11.483,-6.6667,1.868,3.764
2.7804,8.5308,5.6958,14.428,11.53,10.513,11.419,11.419,5.7971,14.428,11.53,11.577,-8.6762,-8.6124,-0.95694,-2.9346,-2.1154,11.483,-0.95238,-5.8615,-4.8485
-2.9068,2.8436,-0.12945,7.6651,6.6989,5.7051,3.764,7.5917,4.8309,7.6651,6.6989,6.6992,-11.547,-14.354,-7.6555,-8.6762,-5.9615,8.6124,-6.6667,-3.9291,-11.547
4.6761,0.0,5.6958,9.5974,11.53,12.436,8.5486,9.5056,6.7633,9.5974,11.53,11.577,-5.8054,-9.5694,0.0,-2.9346,1.7308,3.8278,-5.7143,1.868,-2.9346
9.4155,-1.8957,4.7249,9.5974,10.564,12.436,9.5056,8.5486,6.7633,9.5974,10.564,10.602,-5.8054,-8.6124,0.95694,-2.9346,1.7308,-6.6986,-4.7619,-1.9968,-5.8054
3.7283,3.7915,1.8123,8.6312,8.6312,6.6667,7.5917,8.5486,3.8647,8.6312,8.6312,6.6992,-7.7193,-11.483,0.0,-5.8054,-1.1538,1.9139,-7.619,-1.9968,-5.8054
15.103,5.6872,5.6958,11.53,11.53,12.436,10.463,11.419,8.6957,11.53,11.53,10.602,-2.9346,-6.6986,7.6555,-1.0207,4.6154,3.8278,0.95238,7.6651,-1.0207
15.103,2.8436,3.754,12.496,7.6651,11.474,5.6778,13.333,8.6957,12.496,7.6651,8.6504,-3.8915,-4.7847,3.8278,-1.9777,2.6923,7.6555,9.5238,3.8003,-5.8054
-8.594,-15.166,-6.9256,2.8341,-1.9968,-1.9872,-7.7193,6.6348,-1.9324,2.8341,-1.9968,-3.0569,-12.504,-12.44,-9.5694,-13.461,-8.8462,7.6555,2.8571,-12.625,-16.332001
-3.8547,-12.322,-4.0129,-0.06441,-1.0306,-1.0256,-4.8485,2.807,-8.6957,-0.06441,-1.0306,-1.1057,-9.6332,-10.526,-4.7847,-10.59,-5.9615,0.0,-9.5238,1.868,-7.7193
-7.6461,-8.5308,-3.0421,0.90177,-1.0306,-2.9487,-3.8915,-1.0207,-5.7971,0.90177,-1.0306,-1.1057,-9.6332,-9.5694,-9.5694,-7.7193,-5.9615,2.8708,-0.95238,-1.0306,-6.7624
-9.5419,-1.8957,-4.0129,2.8341,-1.9968,-2.9487,-1.9777,0.89314,-3.8647,2.8341,-1.9968,-1.1057,-8.6762,-8.6124,-13.397,-3.8915,-5.0,0.95694,2.8571,-10.692,-7.7193
0.88468,1.8957,1.8123,1.868,-0.06441,0.89744,3.764,2.807,-5.7971,1.868,-0.06441,1.8211,-0.0638,-1.9139,-1.9139,-0.0638,0.76923,6.6986,3.8095,-0.06441,0.89314
1.8325,0.0,1.8123,-1.0306,-1.0306,-0.0641,0.89314,0.89314,0.96618,-1.0306,-1.0306,-0.13008,1.8501,-0.95694,0.95694,-1.0207,1.7308,-0.95694,1.9048,1.868,-1.0207
-1.9589,-4.7393,-1.1003,0.90177,-2.963,-1.0256,-6.7624,0.89314,0.96618,0.90177,-2.963,-4.0325,-1.9777,-3.8278,-3.8278,-3.8915,-2.1154,-0.95694,-1.9048,-7.7939,-1.9777
0.88468,-0.94787,2.7832,4.7665,-0.06441,2.8205,-3.8915,7.5917,-1.9324,4.7665,-0.06441,-0.13008,0.89314,-0.95694,-0.95694,-0.0638,1.7308,6.6986,-7.619,-2.963,-4.8485
2.7804,0.0,3.754,5.7327,2.8341,4.7436,0.89314,6.6348,0.96618,5.7327,2.8341,1.8211,6.6348,2.8708,4.7847,1.8501,5.5769,4.7847,0.95238,4.7665,-3.8915
3.7283,7.5829,3.754,5.7327,2.8341,3.7821,5.6778,4.7209,-0.96618,5.7327,2.8341,4.748,6.6348,6.6986,2.8708,5.6778,5.5769,3.8278,2.8571,0.90177,0.89314
2.7804,7.5829,2.7832,2.8341,0.90177,3.7821,4.7209,1.8501,0.96618,2.8341,0.90177,4.748,3.764,2.8708,1.9139,3.764,3.6538,0.0,-4.7619,-1.0306,1.8501
-2.9068,-0.94787,-1.1003,-1.0306,-1.9968,1.859,-1.0207,-0.0638,3.8647,-1.0306,-1.9968,0.84553,-0.0638,-1.9139,-1.9139,-3.8915,-2.1154,-1.9139,-9.5238,-4.8953,-0.0638
-1.0111,-6.6351,-3.0421,-2.963,-1.9968,0.89744,-2.9346,0.89314,-2.8986,-2.963,-1.9968,-2.0813,-1.9777,-2.8708,-3.8278,-6.7624,-5.0,-2.8708,-11.429,-1.0306,-1.9777
13.207,14.218,8.6084,2.8341,7.6651,11.474,11.419,5.6778,12.56,2.8341,7.6651,9.626,5.6778,6.6986,4.7847,9.5056,4.6154,1.9139,3.8095,9.5974,8.5486
-0.06319,11.374,3.754,4.7665,7.6651,8.5897,8.5486,5.6778,14.493,4.7665,7.6651,6.6992,0.89314,3.8278,-0.95694,6.6348,0.76923,-6.6986,19.048,3.8003,2.807
-5.7504,-2.8436,-2.0712,0.90177,2.8341,-0.0641,-0.0638,1.8501,-0.96618,0.90177,2.8341,0.84553,-4.8485,0.0,-7.6555,-1.9777,-5.9615,-5.7416,15.238,-5.8615,2.807
-0.06319,-1.8957,-0.12945,2.8341,3.8003,-0.0641,0.89314,-1.0207,4.8309,2.8341,3.8003,0.84553,-2.9346,-0.95694,-3.8278,-0.0638,-3.0769,-7.6555,3.8095,-3.9291,4.7209
-5.7504,-0.94787,-1.1003,0.90177,2.8341,-2.9487,-0.0638,-1.9777,2.8986,0.90177,2.8341,-1.1057,-3.8915,-1.9139,-6.6986,0.89314,-3.0769,4.7847,-6.6667,-7.7939,0.89314
-7.6461,-1.8957,-4.0129,-5.8615,-1.0306,-4.8718,-0.0638,-3.8915,-9.6618,-5.8615,-1.0306,-3.0569,-9.6332,-8.6124,-9.5694,-3.8915,-6.9231,3.8278,-6.6667,-6.8277,-4.8485
-4.8025,-12.322,-7.8964,-7.7939,-2.963,-4.8718,-8.6762,-6.7624,-1.9324,-7.7939,-2.963,-6.9593,-13.461,-15.311,-11.483,-11.547,-11.731,-3.8278,-2.8571,-8.7601,-12.504
0.88468,-6.6351,-3.0421,3.8003,4.7665,1.859,-1.0207,1.8501,2.8986,3.8003,4.7665,-0.13008,-10.59,-11.483,-8.6124,-5.8054,-7.8846,0.95694,-0.95238,-9.7262,-6.7624
2.7804,-2.8436,-1.1003,4.7665,5.7327,5.7051,2.807,7.5917,3.8647,4.7665,5.7327,4.748,-7.7193,-8.6124,-4.7847,-2.9346,-5.9615,3.8278,0.95238,-2.963,-1.9777
3.7283,-2.8436,-2.0712,0.90177,1.868,3.7821,-0.0638,4.7209,3.8647,0.90177,1.868,1.8211,-3.8915,-6.6986,0.0,-2.9346,-4.0385,-2.8708,2.8571,1.868,-0.0638
3.7283,-2.8436,-2.0712,-1.9968,-0.06441,2.8205,-1.9777,5.6778,-0.96618,-1.9968,-0.06441,-0.13008,-1.0207,-6.6986,2.8708,-1.9777,-2.1154,0.0,3.8095,4.7665,-4.8485
6.5719,-1.8957,-0.12945,0.90177,1.868,0.89744,-1.0207,3.764,2.8986,0.90177,1.868,-0.13008,3.764,-3.8278,6.6986,-0.0638,1.7308,9.5694,1.9048,11.53,-5.8054
5.624,-0.94787,-0.12945,4.7665,3.8003,-1.0256,0.89314,1.8501,0.0,4.7665,3.8003,-0.13008,7.5917,0.95694,7.6555,3.764,4.6154,11.483,-2.8571,7.6651,1.8501
4.6761,11.374,-1.1003,-1.0306,-0.06441,-3.9103,1.8501,-1.0207,-5.7971,-1.0306,-0.06441,-3.0569,6.6348,2.8708,6.6986,7.5917,5.5769,2.8708,-20.952,-1.0306,4.7209
3.7283,8.5308,-3.0421,-10.692,-2.963,-3.9103,-1.0207,-3.8915,4.8309,-10.692,-2.963,-4.0325,5.6778,3.8278,5.7416,4.7209,2.6923,-4.7847,-13.333,2.8341,5.6778
5.624,5.6872,-1.1003,-4.8953,-0.06441,2.8205,-0.0638,-0.0638,13.527,-4.8953,-0.06441,-0.13008,6.6348,5.7416,4.7847,4.7209,2.6923,-3.8278,6.6667,6.6989,4.7209
-1.9589,1.8957,-2.0712,0.90177,2.8341,1.859,1.8501,2.807,4.8309,0.90177,2.8341,-1.1057,5.6778,4.7847,0.0,1.8501,0.76923,-0.95694,4.7619,2.8341,-2.9346
-3.8547,-10.427,-5.9547,-3.9291,-3.9291,-3.9103,-5.8054,-2.9346,-0.96618,-3.9291,-3.9291,-5.0081,4.7209,1.9139,-1.9139,-1.9777,-2.1154,0.95694,11.429,-1.0306,-4.8485
-2.9068,-13.27,-8.8673,-6.8277,-8.7601,-7.7564,-9.6332,-10.59,-11.594,-6.8277,-8.7601,-7.935,4.7209,0.95694,-1.9139,-4.8485,-4.0385,-9.5694,8.5714,-2.963,-0.0638
-6.6983,-11.374,-11.78,-6.8277,-8.7601,-8.7179,-8.6762,-7.7193,-11.594,-6.8277,-8.7601,-10.862,2.807,0.95694,-2.8708,-7.7193,-6.9231,-1.9139,-2.8571,-0.06441,0.89314
-9.5419,-11.374,-12.751,-7.7939,-4.8953,-10.641,-7.7193,-6.7624,0.96618,-7.7939,-4.8953,-10.862,2.807,0.95694,0.0,-7.7193,-5.9615,3.8278,-1.9048,4.7665,1.8501
-3.8547,-2.8436,-7.8964,-6.8277,-2.963,-6.7949,-3.8915,-6.7624,12.56,-6.8277,-2.963,-8.9106,4.7209,5.7416,3.8278,-0.0638,-0.19231,-11.483,-5.7143,7.6651,3.764
-3.8547,-2.8436,-7.8964,-11.659,-7.7939,-6.7949,-5.8054,-9.6332,-5.7971,-11.659,-7.7939,-8.9106,5.6778,8.6124,0.95694,2.807,0.76923,-0.95694,-12.381,-1.9968,4.7209
-11.438,-8.5308,-11.78,-13.591,-10.692,-11.603,-9.6332,-8.6762,-8.6957,-13.591,-10.692,-10.862,2.807,4.7847,-0.95694,-1.0207,-2.1154,6.6986,-8.5714,-4.8953,-0.0638
-7.6461,-8.5308,-9.8382,-4.8953,-6.8277,-9.6795,-3.8915,-3.8915,-4.8309,-4.8953,-6.8277,-5.9837,1.8501,4.7847,0.0,-1.0207,-2.1154,-2.8708,5.7143,-0.06441,1.8501
-3.8547,-2.8436,-4.9838,-1.9968,-2.963,-5.8333,1.8501,-4.8485,-1.9324,-1.9968,-2.963,-2.0813,1.8501,7.6555,0.0,-0.0638,-1.1538,-1.9139,6.6667,-3.9291,7.5917
-1.9589,-2.8436,-3.0421,-4.8953,-4.8953,-4.8718,-1.0207,-5.8054,-2.8986,-4.8953,-4.8953,-3.0569,-1.0207,4.7847,0.0,-1.9777,-1.1538,-8.6124,0.95238,1.868,4.7209
-0.06319,-3.7915,-3.0421,-4.8953,-5.8615,-2.9487,-3.8915,-6.7624,-2.8986,-4.8953,-5.8615,-4.0325,-0.0638,2.8708,0.0,-1.0207,-1.1538,-0.95694,0.0,-1.0306,-0.0638
2.7804,0.94787,-3.0421,-2.963,-1.0306,2.8205,0.89314,-2.9346,-20.290001,-2.963,-1.0306,-1.1057,4.7209,6.6986,3.8278,0.89314,-0.19231,6.6986,0.95238,5.7327,3.764
0.88468,12.322,-3.0421,0.90177,2.8341,5.7051,5.6778,1.8501,-1.9324,0.90177,2.8341,2.7967,4.7209,6.6986,2.8708,1.8501,-2.1154,-1.9139,-13.333,4.7665,6.6348
9.4155,20.853001,3.754,6.6989,5.7327,7.6282,10.463,5.6778,13.527,6.6989,5.7327,6.6992,7.5917,9.5694,7.6555,8.5486,3.6538,9.5694,-10.476,6.6989,13.333
5.624,2.8436,3.754,2.8341,1.868,3.7821,2.807,3.764,12.56,2.8341,1.868,2.7967,6.6348,5.7416,7.6555,4.7209,3.6538,6.6986,10.476,9.5974,8.5486
-2.9068,-3.7915,1.8123,-0.06441,-1.9968,0.89744,-1.0207,-1.0207,7.7295,-0.06441,-1.9968,-0.13008,3.764,2.8708,0.95694,1.8501,1.7308,0.95694,9.5238,-1.0306,-3.8915
-0.06319,6.6351,3.754,1.868,1.868,1.859,4.7209,-0.0638,-6.7633,1.868,1.868,2.7967,5.6778,4.7847,3.8278,6.6348,5.5769,-5.7416,3.8095,-1.0306,-6.7624
-4.8025,-9.4787,-5.9547,-4.8953,-3.9291,-2.9487,-5.8054,-6.7624,-3.8647,-4.8953,-3.9291,-4.0325,1.8501,0.95694,-2.8708,-4.8485,-2.1154,-17.225,-2.8571,-2.963,-3.8915
-1.9589,-8.5308,-4.9838,-2.963,-3.9291,-1.0256,-4.8485,-4.8485,2.8986,-2.963,-3.9291,-2.0813,3.764,4.7847,-1.9139,-4.8485,-3.0769,0.0,-1.9048,4.7665,-1.0207
-0.06319,-0.94787,-2.0712,0.90177,-1.0306,-1.0256,1.8501,-2.9346,-0.96618,0.90177,-1.0306,0.84553,6.6348,7.6555,0.0,-2.9346,-2.1154,10.526,-5.7143,3.8003,4.7209
-11.438,-15.166,-10.809,-4.8953,-5.8615,-9.6795,-6.7624,-9.6332,-2.8986,-4.8953,-5.8615,-7.935,-1.9777,-0.95694,-11.483,-16.332001,-14.615,-2.8708,-3.8095,-8.7601,0.89314
-9.5419,-8.5308,-9.8382,-3.9291,-4.8953,-7.7564,-6.7624,-6.7624,-5.7971,-3.9291,-4.8953,-6.9593,-4.8485,-2.8708,-11.483,-14.418,-16.538,-1.9139,2.8571,-5.8615,-1.9777
-4.8025,1.8957,-3.0421,-1.9968,-1.9968,-2.9487,-1.9777,-1.0207,-1.9324,-1.9968,-1.9968,-2.0813,-3.8915,0.95694,-5.7416,-3.8915,-9.8077,0.0,1.9048,0.90177,0.89314
-0.06319,6.6351,1.8123,0.90177,-0.06441,0.89744,2.807,1.8501,2.8986,0.90177,-0.06441,1.8211,-3.8915,0.95694,-2.8708,2.807,-5.0,-1.9139,3.8095,-0.06441,-0.0638
-1.9589,4.7393,4.7249,0.90177,-1.9968,0.89744,2.807,-2.9346,3.8647,0.90177,-1.9968,3.7724,-3.8915,1.9139,-4.7847,2.807,-2.1154,-6.6986,4.7619,-9.7262,0.89314
1.8325,6.6351,12.492,5.7327,3.8003,6.6667,9.5056,1.8501,6.7633,5.7327,3.8003,10.602,2.807,7.6555,0.95694,7.5917,4.6154,5.7416,1.9048,-1.9968,6.6348
9.4155,11.374,16.375,12.496,8.6312,12.436,14.29,9.5056,1.9324,12.496,8.6312,14.504,6.6348,6.6986,9.5694,9.5056,11.346,11.483,-5.7143,10.564,8.5486
14.155,15.166,17.346001,12.496,8.6312,12.436,14.29,10.463,-1.9324,12.496,8.6312,13.528,4.7209,1.9139,11.483,9.5056,12.308,5.7416,-8.5714,9.5974,-1.0207
7.5197,7.5829,13.463,7.6651,4.7665,9.5513,6.6348,6.6348,14.493,7.6651,4.7665,9.626,0.89314,0.0,4.7847,5.6778,8.4615,9.5694,3.8095,3.8003,-2.9346
10.363,6.6351,12.492,7.6651,4.7665,9.5513,5.6778,9.5056,6.7633,7.6651,4.7665,10.602,1.8501,0.0,4.7847,3.764,6.5385,1.9139,8.5714,-0.06441,3.764
13.207,12.322,11.521,4.7665,6.6989,9.5513,8.5486,3.764,4.8309,4.7665,6.6989,11.577,4.7209,0.95694,7.6555,7.5917,6.5385,-5.7416,3.8095,2.8341,5.6778
2.7804,5.6872,4.7249,-0.06441,1.868,2.8205,3.764,-1.0207,-2.8986,-0.06441,1.868,5.7236,0.89314,1.9139,0.0,6.6348,1.7308,-1.9139,-4.7619,-1.0306,0.89314
1.8325,1.8957,3.754,1.868,-0.06441,1.859,0.89314,-1.9777,1.9324,1.868,-0.06441,2.7967,0.89314,5.7416,1.9139,6.6348,0.76923,3.8278,5.7143,0.90177,4.7209
-2.9068,4.7393,-1.1003,-1.9968,-2.963,-4.8718,-3.8915,-8.6762,-4.8309,-1.9968,-2.963,-3.0569,-4.8485,-0.95694,-4.7847,0.89314,-5.0,-5.7416,5.7143,-2.963,0.89314
-5.7504,-1.8957,-4.0129,-2.963,-1.9968,-3.9103,-3.8915,-3.8915,2.8986,-2.963,-1.9968,-4.0325,-9.6332,-7.6555,-10.526,-6.7624,-10.769,-0.95694,1.9048,-3.9291,-5.8054
-10.49,-11.374,-6.9256,0.90177,0.90177,-2.9487,-2.9346,0.89314,4.8309,0.90177,0.90177,-3.0569,-10.59,-8.6124,-13.397,-12.504,-13.654,7.6555,3.8095,-1.9968,-6.7624
-14.281,-14.218,-8.8673,-3.9291,-2.963,-8.7179,-5.8054,-5.8054,-5.7971,-3.9291,-2.963,-6.9593,-12.504,-11.483,-15.311,-15.375,-13.654,-11.483,-5.7143,-7.7939,-3.8915
-6.6983,-6.6351,-4.0129,-1.9968,-1.0306,-4.8718,-1.9777,-4.8485,3.8647,-1.9968,-1.0306,-3.0569,-9.6332,-8.6124,-11.483,-7.7193,-8.8462,-10.526,0.0,-10.692,-1.0207
-3.8547,-0.94787,-3.0421,1.868,3.8003,-0.0641,2.807,-2.9346,6.7633,1.868,3.8003,0.84553,-7.7193,-7.6555,-9.5694,-3.8915,-7.8846,0.0,5.7143,-7.7939,-3.8915
-8.594,-2.8436,-7.8964,-3.9291,-0.06441,-3.9103,-1.0207,-3.8915,2.8986,-3.9291,-0.06441,-3.0569,-11.547,-8.6124,-11.483,-7.7193,-11.731,-0.95694,5.7143,-1.0306,-1.9777
-10.49,-7.5829,-9.8382,-6.8277,-1.9968,-7.7564,-3.8915,-1.9777,-3.8647,-6.8277,-1.9968,-5.0081,-10.59,-6.6986,-11.483,-9.6332,-11.731,4.7847,1.9048,-6.8277,-1.0207
1.8325,0.0,-1.1003,1.868,2.8341,1.859,2.807,6.6348,4.8309,1.868,2.8341,2.7967,-1.9777,0.0,-1.9139,-2.9346,-3.0769,1.9139,-11.429,-2.963,-0.0638
0.88468,-1.8957,-3.0421,-1.0306,-2.963,-1.0256,-2.9346,-1.0207,-5.7971,-1.0306,-2.963,-1.1057,-3.8915,-2.8708,-2.8708,-3.8915,-3.0769,-2.8708,-12.381,-2.963,-1.0207
-1.9589,-2.8436,-2.0712,-6.8277,-3.9291,-3.9103,-3.8915,-4.8485,-9.6618,-6.8277,-3.9291,-3.0569,-2.9346,-0.95694,-0.95694,-0.0638,-0.19231,2.8708,8.5714,-0.06441,1.8501
0.88468,0.94787,1.8123,-3.9291,0.90177,-1.0256,2.807,-1.9777,-1.9324,-3.9291,0.90177,0.84553,0.89314,3.8278,2.8708,4.7209,3.6538,5.7416,6.6667,0.90177,5.6778
-1.0111,14.218,3.754,-1.9968,1.868,-2.9487,5.6778,-1.0207,7.7295,-1.9968,1.868,0.84553,0.89314,3.8278,0.95694,7.5917,3.6538,2.8708,0.95238,-1.0306,5.6778
-0.06319,4.7393,1.8123,-5.8615,-1.0306,-2.9487,0.89314,-5.8054,0.0,-5.8615,-1.0306,-0.13008,-1.0207,-0.95694,-0.95694,0.89314,0.76923,-4.7847,4.7619,0.90177,-1.9777
0.88468,-6.6351,-0.12945,-4.8953,-3.9291,-1.0256,-2.9346,-2.9346,-2.8986,-4.8953,-3.9291,-0.13008,-0.0638,-1.9139,0.0,-3.8915,-1.1538,-6.6986,-3.8095,-0.06441,-3.8915
6.5719,-3.7915,0.84142,-0.06441,-2.963,3.7821,-4.8485,3.764,-3.8647,-0.06441,-2.963,0.84553,1.8501,0.0,3.8278,-1.9777,1.7308,-4.7847,-8.5714,-0.06441,-1.0207
-0.06319,-3.7915,-1.1003,0.90177,-1.0306,-1.0256,-3.8915,8.5486,-15.459,0.90177,-1.0306,-1.1057,-1.9777,-4.7847,0.0,-4.8485,-1.1538,2.8708,-6.6667,2.8341,-1.9777
-2.9068,0.94787,1.8123,1.868,-0.06441,-1.9872,-1.9777,6.6348,-0.96618,1.868,-0.06441,-1.1057,-1.9777,-6.6986,0.95694,-2.9346,0.76923,7.6555,1.9048,8.6312,-9.6332
5.624,-3.7915,4.7249,2.8341,0.90177,1.859,-1.9777,5.6778,1.9324,2.8341,0.90177,1.8211,1.8501,-4.7847,2.8708,-1.9777,3.6538,-0.95694,0.95238,3.8003,-8.6762
6.5719,-4.7393,3.754,-1.0306,0.90177,3.7821,-1.0207,4.7209,1.9324,-1.0306,0.90177,1.8211,0.89314,-2.8708,0.95694,-1.9777,2.6923,1.9139,-0.95238,-3.9291,3.764
2.7804,0.0,4.7249,-1.0306,-0.06441,4.7436,0.89314,1.8501,3.8647,-1.0306,-0.06441,2.7967,0.89314,-2.8708,3.8278,1.8501,6.5385,6.6986,0.0,-6.8277,1.8501
-2.9068,-7.5829,2.7832,-2.963,-2.963,-0.0641,-4.8485,-1.0207,-6.7633,-2.963,-2.963,-1.1057,3.764,-1.9139,3.8278,1.8501,7.5,8.6124,0.95238,-1.9968,-8.6762
0.88468,-1.8957,2.7832,-1.9968,-2.963,-1.9872,-2.9346,-0.0638,-9.6618,-1.9968,-2.963,-1.1057,4.7209,0.95694,3.8278,-0.0638,6.5385,-1.9139,-1.9048,7.6651,-1.0207
5.624,-9.4787,-0.12945,-2.963,-2.963,-1.0256,-5.8054,-1.0207,-6.7633,-2.963,-2.963,-2.0813,1.8501,-0.95694,2.8708,-5.8054,2.6923,-4.7847,-3.8095,4.7665,-1.9777
-3.8547,-9.4787,-4.0129,-1.0306,-3.9291,-2.9487,-5.8054,-0.0638,-5.7971,-1.0306,-3.9291,-4.0325,-1.0207,-1.9139,-3.8278,-6.7624,-3.0769,4.7847,-1.9048,1.868,-4.8485
-6.6983,-6.6351,-4.9838,-2.963,-6.8277,-2.9487,-5.8054,-0.0638,-2.8986,-2.963,-6.8277,-5.0081,0.89314,-1.9139,-2.8708,-5.8054,-3.0769,2.8708,-3.8095,-1.9968,-3.8915
0.88468,0.94787,-1.1003,0.90177,-1.9968,0.89744,-1.0207,4.7209,-1.9324,0.90177,-1.9968,-1.1057,5.6778,0.0,2.8708,-1.9777,0.76923,0.95694,-5.7143,5.7327,-4.8485
8.4676,12.322,6.6667,6.6989,3.8003,7.6282,7.5917,8.5486,-3.8647,6.6989,3.8003,4.748,9.5056,4.7847,7.6555,6.6348,7.5,6.6986,-9.5238,13.462,-0.0638
0.88468,4.7393,1.8123,3.8003,-1.0306,0.89744,-0.0638,1.8501,4.8309,3.8003,-1.0306,-1.1057,5.6778,2.8708,1.9139,2.807,3.6538,-2.8708,-7.619,0.90177,2.807
-5.7504,-10.427,-4.0129,-1.9968,-4.8953,-1.9872,-8.6762,-1.0207,4.8309,-1.9968,-4.8953,-5.0081,0.89314,0.95694,-4.7847,-4.8485,-3.0769,-3.8278,7.619,-7.7939,-0.0638
-0.06319,-3.7915,0.84142,-1.9968,-0.06441,1.859,0.89314,-0.0638,5.7971,-1.9968,-0.06441,0.84553,3.764,5.7416,0.0,0.89314,0.76923,0.95694,6.6667,-1.0306,3.764
0.88468,5.6872,-0.12945,-0.06441,-1.0306,-0.0641,0.89314,-0.0638,-4.8309,-0.06441,-1.0306,0.84553,4.7209,6.6986,1.9139,2.807,0.76923,0.0,-6.6667,6.6989,4.7209
-2.9068,1.8957,-4.9838,-1.0306,-4.8953,-4.8718,-1.0207,-1.9777,-7.7295,-1.0306,-4.8953,-4.0325,2.807,3.8278,-1.9139,-1.9777,-3.0769,-5.7416,0.95238,-1.9968,-0.0638
-2.9068,-10.427,-7.8964,-3.9291,-7.7939,-5.8333,-5.8054,-2.9346,-10.628,-3.9291,-7.7939,-6.9593,1.8501,1.9139,-3.8278,-5.8054,-5.9615,-5.7416,8.5714,0.90177,0.89314
-3.8547,-8.5308,-6.9256,-6.8277,-4.8953,-4.8718,-5.8054,-1.9777,-6.7633,-6.8277,-4.8953,-5.9837,-1.0207,1.9139,-5.7416,-3.8915,-7.8846,-1.9139,0.95238,-1.0306,5.6778
-0.06319,3.7915,-2.0712,-2.963,0.90177,0.89744,0.89314,2.807,14.493,-2.963,0.90177,-1.1057,0.89314,5.7416,-2.8708,2.807,-4.0385,3.8278,-11.429,0.90177,10.463
-14.281,-12.322,-11.78,-7.7939,-5.8615,-7.7564,-7.7193,-7.7193,2.8986,-7.7939,-5.8615,-8.9106,-10.59,-3.8278,-12.44,-7.7193,-12.692,-2.8708,0.95238,-7.7939,-6.7624
-18.073,-20.853001,-14.693,-5.8615,-9.7262,-11.603,-12.504,-9.6332,-8.6957,-5.8615,-9.7262,-12.813,-12.504,-5.7416,-14.354,-12.504,-13.654,-9.5694,6.6667,-12.625,-11.547
-4.8025,-8.5308,-5.9547,-0.06441,-7.7939,-4.8718,-5.8054,-0.0638,-2.8986,-0.06441,-7.7939,-7.935,-1.9777,-1.9139,-0.95694,-2.9346,-3.0769,0.0,-0.95238,3.8003,-2.9346
-0.06319,-2.8436,-1.1003,-1.9968,-5.8615,-2.9487,-2.9346,0.89314,0.96618,-1.9968,-5.8615,-4.0325,3.764,0.95694,4.7847,1.8501,1.7308,6.6986,1.9048,8.6312,2.807
0.88468,0.94787,-2.0712,-1.0306,-3.9291,-1.0256,-1.0207,1.8501,2.8986,-1.0306,-3.9291,-4.0325,3.764,0.95694,2.8708,1.8501,0.76923,4.7847,1.9048,9.5974,3.764
-3.8547,-8.5308,-7.8964,-2.963,-5.8615,-2.9487,-4.8485,-1.0207,0.0,-2.963,-5.8615,-6.9593,-2.9346,-4.7847,-3.8278,-7.7193,-6.9231,0.0,3.8095,4.7665,-1.9777
-4.8025,-11.374,-5.9547,1.868,-2.963,-1.0256,-4.8485,-0.0638,0.96618,1.868,-2.963,-4.0325,-3.8915,-4.7847,-5.7416,-8.6762,-7.8846,-8.6124,2.8571,-5.8615,-0.0638
-1.0111,-0.94787,0.84142,4.7665,-0.06441,2.8205,0.89314,5.6778,-1.9324,4.7665,-0.06441,1.8211,-1.9777,0.0,-2.8708,-0.0638,-1.1538,2.8708,-5.7143,-9.7262,3.764
-2.9068,-1.8957,0.84142,0.90177,-1.9968,0.89744,-1.0207,1.8501,2.8986,0.90177,-1.9968,-0.13008,-1.0207,0.0,-1.9139,0.89314,-1.1538,5.7416,-5.7143,-1.9968,0.89314
-4.8025,-0.94787,-2.0712,-0.06441,-4.8953,-3.9103,-2.9346,-1.9777,-4.8309,-0.06441,-4.8953,-5.0081,-0.0638,0.95694,-3.8278,0.89314,-1.1538,1.9139,2.8571,-3.9291,1.8501
10.363,10.427,5.6958,4.7665,2.8341,4.7436,6.6348,2.807,8.6957,4.7665,2.8341,2.7967,7.5917,8.6124,6.6986,10.463,6.5385,-4.7847,-1.9048,5.7327,5.6778
4.6761,8.5308,2.7832,3.8003,2.8341,1.859,6.6348,-0.0638,12.56,3.8003,2.8341,2.7967,3.764,5.7416,2.8708,5.6778,2.6923,-12.44,0.95238,-1.0306,3.764
-6.6983,-3.7915,-4.9838,-0.06441,-1.9968,-3.9103,-2.9346,-1.9777,-4.8309,-0.06441,-1.9968,-2.0813,-3.8915,-4.7847,-5.7416,-7.7193,-6.9231,-6.6986,-4.7619,-3.9291,-2.9346
0.88468,0.94787,1.8123,1.868,0.90177,-0.0641,5.6778,1.8501,-5.7971,1.868,0.90177,3.7724,-1.0207,-2.8708,0.0,-3.8915,-2.1154,13.397,-3.8095,4.7665,-3.8915
3.7283,4.7393,5.6958,1.868,-1.0306,0.89744,3.764,1.8501,-2.8986,1.868,-1.0306,1.8211,-1.9777,-1.9139,2.8708,-1.0207,0.76923,10.526,1.9048,1.868,-2.9346
0.88468,-3.7915,4.7249,1.868,-3.9291,0.89744,-2.9346,2.807,2.8986,1.868,-3.9291,-0.13008,-5.8054,-2.8708,-1.9139,-2.9346,-2.1154,0.95694,5.7143,-4.8953,1.8501
-1.0111,0.0,3.754,0.90177,-1.9968,-0.0641,-0.0638,1.8501,4.8309,0.90177,-1.9968,0.84553,-3.8915,0.95694,-3.8278,0.89314,-1.1538,-1.9139,2.8571,-5.8615,6.6348
-4.8025,0.0,-3.0421,-9.7262,-7.7939,-5.8333,-6.7624,-6.7624,-8.6957,-9.7262,-7.7939,-5.0081,-4.8485,-2.8708,-4.7847,-0.0638,-5.0,-3.8278,3.8095,-1.0306,-3.8915
-1.9589,1.8957,-3.0421,-6.8277,-5.8615,-4.8718,-3.8915,-5.8054,-1.9324,-6.8277,-5.8615,-5.0081,-0.0638,0.95694,-0.95694,2.807,-2.1154,-1.9139,-2.8571,-1.0306,3.764
1.8325,7.5829,-0.12945,0.90177,-1.0306,-1.9872,0.89314,-2.9346,3.8647,0.90177,-1.0306,-1.1057,2.807,3.8278,1.9139,4.7209,-0.19231,3.8278,0.0,-0.06441,6.6348
-6.6983,-1.8957,-4.9838,-2.963,-2.963,-2.9487,-2.9346,-5.8054,-0.96618,-2.963,-2.963,-3.0569,-5.8054,-3.8278,-6.6986,-4.8485,-7.8846,-1.9139,6.6667,-3.9291,-3.8915
-5.7504,-8.5308,-4.0129,-3.9291,-3.9291,-1.9872,-2.9346,-2.9346,-2.8986,-3.9291,-3.9291,-1.1057,-7.7193,-5.7416,-8.6124,-7.7193,-6.9231,-10.526,6.6667,-13.591,-2.9346
2.7804,0.0,4.7249,4.7665,3.8003,5.7051,4.7209,4.7209,0.96618,4.7665,3.8003,5.7236,-1.0207,-0.95694,0.95694,-0.0638,1.7308,0.0,3.8095,-3.9291,-0.0638
8.4676,12.322,11.521,11.53,8.6312,12.436,11.419,9.5056,6.7633,11.53,8.6312,11.577,4.7209,4.7847,7.6555,7.5917,9.4231,10.526,-1.9048,3.8003,-0.0638
7.5197,7.5829,10.55,9.5974,6.6989,7.6282,7.5917,5.6778,5.7971,9.5974,6.6989,6.6992,4.7209,3.8278,8.6124,6.6348,9.4231,2.8708,0.95238,1.868,1.8501
4.6761,7.5829,7.6375,2.8341,1.868,1.859,4.7209,1.8501,-4.8309,2.8341,1.868,1.8211,5.6778,5.7416,6.6986,8.5486,9.4231,4.7847,-2.8571,0.90177,5.6778
8.4676,21.801001,10.55,0.90177,4.7665,2.8205,11.419,0.89314,6.7633,0.90177,4.7665,4.748,9.5056,10.526,11.483,19.075001,13.269,1.9139,-9.5238,5.7327,12.376
4.6761,5.6872,1.8123,-3.9291,-0.06441,-4.8718,-0.0638,-3.8915,8.6957,-3.9291,-0.06441,-3.0569,0.89314,1.9139,5.7416,7.5917,3.6538,-4.7847,7.619,3.8003,-0.0638
4.6761,7.5829,3.754,0.90177,4.7665,-1.0256,2.807,-0.0638,0.96618,0.90177,4.7665,0.84553,-1.9777,-0.95694,5.7416,5.6778,3.6538,-5.7416,12.381,1.868,-1.9777
3.7283,9.4787,3.754,1.868,3.8003,2.8205,3.764,0.89314,1.9324,1.868,3.8003,3.7724,-2.9346,0.0,4.7847,5.6778,3.6538,-3.8278,0.0,3.8003,8.5486
-0.06319,0.94787,0.84142,-3.9291,0.90177,1.859,-0.0638,-1.9777,8.6957,-3.9291,0.90177,0.84553,-4.8485,0.0,1.9139,1.8501,0.76923,4.7847,-2.8571,0.90177,2.807
4.6761,4.7393,4.7249,-1.0306,6.6989,5.7051,5.6778,2.807,4.8309,-1.0306,6.6989,5.7236,3.764,4.7847,7.6555,7.5917,5.5769,0.0,1.9048,9.5974,3.764
-1.0111,-5.6872,-3.0421,2.8341,2.8341,-0.0641,-2.9346,-0.0638,7.7295,2.8341,2.8341,-2.0813,-1.9777,-2.8708,-0.95694,-2.9346,-3.0769,-0.95694,2.8571,2.8341,0.89314
-3.8547,-3.7915,-3.0421,5.7327,4.7665,-2.9487,-1.0207,-2.9346,8.6957,5.7327,4.7665,-2.0813,-4.8485,-1.9139,-5.7416,-1.9777,-4.0385,2.8708,2.8571,-6.8277,-1.0207
-7.6461,-4.7393,-5.9547,-2.963,-1.0306,-6.7949,-5.8054,-6.7624,-7.7295,-2.963,-1.0306,-5.9837,-5.8054,-2.8708,-6.6986,-1.0207,-4.0385,-0.95694,0.0,-3.9291,-1.9777
-5.7504,-7.5829,-5.9547,-4.8953,-1.0306,-5.8333,-6.7624,-5.8054,-4.8309,-4.8953,-1.0306,-5.0081,-3.8915,-1.9139,-4.7847,-1.0207,-2.1154,-5.7416,4.7619,-2.963,-3.8915
-2.9068,0.0,-2.0712,0.90177,3.8003,-1.9872,-0.0638,-1.9777,2.8986,0.90177,3.8003,-0.13008,-0.0638,2.8708,-1.9139,0.89314,0.76923,-3.8278,-1.9048,-4.8953,2.807
5.624,4.7393,1.8123,8.6312,6.6989,2.8205,4.7209,-0.0638,3.8647,8.6312,6.6989,2.7967,5.6778,6.6986,5.7416,3.764,4.6154,-0.95694,0.0,5.7327,1.8501
0.88468,-0.94787,0.84142,7.6651,6.6989,2.8205,2.807,0.89314,6.7633,7.6651,6.6989,1.8211,5.6778,3.8278,3.8278,1.8501,4.6154,3.8278,-1.9048,2.8341,-0.0638
-4.8025,-3.7915,-1.1003,1.868,3.8003,-0.0641,-0.0638,-0.0638,1.9324,1.868,3.8003,0.84553,3.764,0.0,0.95694,-0.0638,2.6923,6.6986,-5.7143,-3.9291,-5.8054
-7.6461,-5.6872,-5.9547,-5.8615,-2.963,-6.7949,-5.8054,-5.8054,-7.7295,-5.8615,-2.963,-4.0325,1.8501,0.0,-3.8278,-4.8485,-1.1538,-1.9139,-3.8095,-7.7939,-3.8915
-4.8025,0.94787,-2.0712,-6.8277,-1.0306,-3.9103,1.8501,-4.8485,-12.56,-6.8277,-1.0306,-1.1057,4.7209,2.8708,-2.8708,-1.0207,0.76923,2.8708,-3.8095,-3.9291,-2.9346
2.7804,18.009001,5.6958,5.7327,6.6989,1.859,10.463,4.7209,8.6957,5.7327,6.6989,3.7724,11.419,11.483,4.7847,8.5486,8.4615,5.7416,-5.7143,3.8003,8.5486
-1.9589,9.4787,0.84142,2.8341,-0.06441,-2.9487,0.89314,0.89314,7.7295,2.8341,-0.06441,-1.1057,9.5056,10.526,2.8708,6.6348,5.5769,-3.8278,-2.8571,1.868,9.5056
-7.6461,-10.427,-6.9256,-8.7601,-7.7939,-10.641,-10.59,-10.59,-1.9324,-8.7601,-7.7939,-9.8862,5.6778,6.6986,-1.9139,0.89314,1.7308,-15.311,14.286,1.868,1.8501
-0.06319,7.5829,1.8123,-5.8615,-0.06441,-1.0256,1.8501,-6.7624,0.0,-5.8615,-0.06441,-0.13008,10.463,10.526,3.8278,8.5486,7.5,-2.8708,-1.9048,6.6989,7.5917
-5.7504,0.0,-1.1003,-8.7601,-4.8953,-4.8718,-1.9777,-5.8054,-6.7633,-8.7601,-4.8953,-2.0813,3.764,1.9139,0.0,-0.0638,1.7308,1.9139,-6.6667,5.7327,-0.0638
-3.8547,-6.6351,-0.12945,-2.963,-1.9968,-2.9487,-2.9346,-1.0207,1.9324,-2.963,-1.9968,-1.1057,2.807,0.95694,0.0,-3.8915,0.76923,2.8708,7.619,3.8003,-1.9777
3.7283,1.8957,3.754,2.8341,4.7665,4.7436,2.807,-0.0638,4.8309,2.8341,4.7665,4.748,5.6778,0.95694,1.9139,-1.9777,1.7308,-0.95694,-1.9048,-3.9291,-2.9346
5.624,-0.94787,1.8123,1.868,2.8341,4.7436,-0.0638,-3.8915,0.0,1.868,2.8341,3.7724,1.8501,-3.8278,0.95694,-5.8054,-1.1538,-2.8708,-0.95238,-8.7601,-3.8915
4.6761,1.8957,0.84142,2.8341,1.868,4.7436,0.89314,1.8501,2.8986,2.8341,1.868,4.748,-1.0207,-4.7847,0.95694,-3.8915,-1.1538,-0.95694,1.9048,-1.9968,-1.9777
0.88468,0.0,-1.1003,-0.06441,1.868,3.7821,0.89314,1.8501,-2.8986,-0.06441,1.868,4.748,-1.0207,-4.7847,0.0,-4.8485,-3.0769,1.9139,-2.8571,1.868,-3.8915
-0.06319,-7.5829,-2.0712,3.8003,0.90177,2.8205,-1.9777,2.807,-1.9324,3.8003,0.90177,1.8211,1.8501,-3.8278,1.9139,-4.8485,-2.1154,0.95694,8.5714,1.868,-2.9346
1.8325,-0.94787,0.84142,3.8003,-1.0306,2.8205,-1.0207,2.807,-3.8647,3.8003,-1.0306,1.8211,2.807,-3.8278,2.8708,-0.0638,1.7308,2.8708,-2.8571,1.868,-5.8054
1.8325,-6.6351,-2.0712,-0.06441,-1.9968,1.859,-3.8915,-1.9777,-1.9324,-0.06441,-1.9968,0.84553,-0.0638,-6.6986,1.9139,-4.8485,-0.19231,-0.95694,-2.8571,2.8341,-5.8054
4.6761,-4.7393,-1.1003,5.7327,2.8341,3.7821,-1.0207,3.764,0.0,5.7327,2.8341,2.7967,-0.0638,-3.8278,2.8708,-1.9777,0.76923,0.95694,-2.8571,1.868,-1.9777
12.259,6.6351,6.6667,10.564,8.6312,10.513,6.6348,10.463,5.7971,10.564,8.6312,8.6504,4.7209,0.0,10.526,4.7209,7.5,14.354,-7.619,10.564,1.8501
7.5197,4.7393,5.6958,8.6312,7.6651,6.6667,4.7209,6.6348,2.8986,8.6312,7.6651,6.6992,0.89314,-1.9139,7.6555,2.807,6.5385,11.483,1.9048,4.7665,-0.0638
5.624,9.4787,9.5793,11.53,13.462,9.5513,13.333,9.5056,9.6618,11.53,13.462,11.577,-1.9777,-0.95694,5.7416,3.764,6.5385,0.0,3.8095,3.8003,2.807
17.945999,11.374,12.492,6.6989,13.462,14.359,15.247,7.5917,-0.96618,6.6989,13.462,14.504,-0.0638,0.95694,10.526,7.5917,7.5,-2.8708,-1.9048,4.7665,1.8501
0.88468,-1.8957,-0.12945,1.868,1.868,0.89744,-0.0638,-1.0207,0.96618,1.868,1.868,0.84553,-8.6762,-3.8278,-4.7847,-1.0207,-2.1154,-3.8278,1.9048,-7.7939,-5.8054
-7.6461,-6.6351,-5.9547,0.90177,-1.0306,-4.8718,-5.8054,0.89314,8.6957,0.90177,-1.0306,-5.0081,-10.59,-4.7847,-9.5694,-3.8915,-5.0,5.7416,-1.9048,-7.7939,-8.6762
-1.0111,0.0,-2.0712,0.90177,2.8341,-1.0256,-0.0638,0.89314,3.8647,0.90177,2.8341,-1.1057,-2.9346,0.95694,-0.95694,2.807,1.7308,10.526,-0.95238,2.8341,1.8501
11.311,16.114,8.6084,11.53,12.496,9.5513,10.463,7.5917,16.424999,11.53,12.496,10.602,4.7209,7.6555,7.6555,14.29,9.4231,12.44,0.95238,3.8003,5.6778
3.7283,2.8436,4.7249,7.6651,8.6312,7.6282,5.6778,5.6778,4.8309,7.6651,8.6312,7.6748,-1.0207,-0.95694,2.8708,2.807,2.6923,-1.9139,6.6667,-3.9291,-2.9346
-4.8025,-11.374,-2.0712,3.8003,0.90177,-1.0256,-2.9346,0.89314,-8.6957,3.8003,0.90177,-0.13008,-5.8054,-6.6986,-1.9139,-7.7193,-3.0769,-4.7847,0.0,-5.8615,-2.9346
3.7283,-5.6872,0.84142,7.6651,3.8003,2.8205,-0.0638,7.5917,-7.7295,7.6651,3.8003,1.8211,-1.9777,-3.8278,1.9139,-2.9346,0.76923,-2.8708,-4.7619,1.868,-2.9346
7.5197,-0.94787,4.7249,6.6989,6.6989,7.6282,2.807,7.5917,5.7971,6.6989,6.6989,3.7724,1.8501,1.9139,5.7416,1.8501,4.6154,3.8278,1.9048,2.8341,2.807
6.5719,0.0,3.754,2.8341,4.7665,8.5897,0.89314,5.6778,1.9324,2.8341,4.7665,3.7724,0.89314,0.95694,3.8278,3.764,4.6154,10.526,-3.8095,2.8341,1.8501
6.5719,-3.7915,0.84142,5.7327,3.8003,7.6282,0.89314,7.5917,1.9324,5.7327,3.8003,1.8211,0.89314,0.95694,3.8278,2.807,2.6923,10.526,-1.9048,1.868,0.89314
1.8325,-1.8957,-2.0712,8.6312,2.8341,0.89744,-1.0207,4.7209,-0.96618,8.6312,2.8341,-1.1057,0.89314,0.0,2.8708,1.8501,-0.19231,0.0,-1.9048,3.8003,-1.9777
-0.06319,0.94787,-2.0712,0.90177,1.868,-2.9487,-1.0207,-0.0638,-4.8309,0.90177,1.868,-3.0569,0.89314,0.95694,1.9139,2.807,-0.19231,5.7416,-0.95238,6.6989,-1.9777
-1.0111,-0.94787,-0.12945,-1.9968,0.90177,-1.0256,-2.9346,-1.0207,0.0,-1.9968,0.90177,-5.0081,-0.0638,1.9139,0.0,4.7209,1.7308,-6.6986,0.95238,1.868,4.7209
-0.06319,3.7915,1.8123,-1.0306,3.8003,1.859,0.89314,0.89314,-3.8647,-1.0306,3.8003,-1.1057,-0.0638,2.8708,0.95694,6.6348,3.6538,-9.5694,2.8571,-3.9291,6.6348
0.88468,5.6872,2.7832,1.868,5.7327,-0.0641,4.7209,-0.0638,-3.8647,1.868,5.7327,0.84553,1.8501,3.8278,1.9139,6.6348,3.6538,4.7847,3.8095,-7.7939,6.6348
0.88468,6.6351,5.6958,5.7327,7.6651,0.89744,5.6778,0.89314,10.628,5.7327,7.6651,3.7724,3.764,3.8278,4.7847,7.5917,5.5769,9.5694,4.7619,-1.0306,7.5917
14.155,21.801001,17.346001,16.361,18.292999,12.436,16.204,15.247,20.290001,16.361,18.292999,15.48,10.463,8.6124,13.397,18.118,14.231,1.9139,-6.6667,8.6312,5.6778
11.311,12.322,10.55,6.6989,7.6651,5.7051,6.6348,9.5056,1.9324,6.6989,7.6651,5.7236,2.807,0.95694,9.5694,9.5056,7.5,-3.8278,-0.95238,10.564,-5.8054
-6.6983,-10.427,-4.9838,-4.8953,-2.963,-5.8333,-7.7193,-1.0207,-3.8647,-4.8953,-2.963,-6.9593,-7.7193,-8.6124,-6.6986,-7.7193,-6.9231,2.8708,12.381,-2.963,-3.8915
-1.0111,-0.94787,0.84142,0.90177,3.8003,-0.0641,2.807,4.7209,6.7633,0.90177,3.8003,1.8211,-2.9346,-2.8708,-1.9139,-0.0638,-2.1154,8.6124,1.9048,-0.06441,2.807
12.259,2.8436,5.6958,2.8341,1.868,8.5897,3.764,6.6348,-11.594,2.8341,1.868,6.6992,0.89314,0.0,4.7847,2.807,1.7308,2.8708,6.6667,7.6651,-0.0638
5.624,4.7393,4.7249,2.8341,1.868,6.6667,3.764,2.807,-10.628,2.8341,1.868,5.7236,-0.0638,0.0,1.9139,1.8501,1.7308,7.6555,0.95238,-0.06441,1.8501
-2.9068,0.94787,0.84142,-1.9968,0.90177,-1.0256,1.8501,-1.0207,5.7971,-1.9968,0.90177,0.84553,-1.0207,0.0,1.9139,0.89314,0.76923,-0.95694,-2.8571,2.8341,2.807
-5.7504,-3.7915,-2.0712,-5.8615,-1.9968,-5.8333,-2.9346,-3.8915,0.96618,-5.8615,-1.9968,-3.0569,-3.8915,-1.9139,-3.8278,-1.9777,-3.0769,-9.5694,3.8095,-1.9968,1.8501
-1.9589,5.6872,4.7249,-0.06441,2.8341,-0.0641,4.7209,0.89314,2.8986,-0.06441,2.8341,3.7724,-2.9346,-0.95694,-2.8708,2.807,0.76923,2.8708,-1.9048,-4.8953,5.6778
-1.9589,0.94787,3.754,-1.9968,-0.06441,-0.0641,0.89314,-1.0207,-0.96618,-1.9968,-0.06441,2.7967,-3.8915,-1.9139,-2.8708,0.89314,-0.19231,-0.95694,0.95238,-1.0306,3.764
