C3,C4,Cz,F1,F2,F3,F4,F7,F8,Fp1,Fp2,Fz,O1,O2,P3,P4,Pz,T3,T4,T5,T6
-1.9589,1.9048,-3.0569,-4.8953,-2.0065,-6.8262,-8.6762,-1.9872,-1.9872,-4.8953,-2.0065,-3.9675,2.807,2.8708,-2.8571,-1.0207,-1.0897,-11.547,-20.853001,0.0,3.764
-4.8025,0.95238,-3.0569,-1.0306,-0.06472,-4.9123,-5.8054,0.89744,0.89744,-1.0306,-0.06472,-2.9919,1.8501,3.8278,-0.95238,0.89314,-0.12821,0.89314,-13.27,7.7295,6.6348
-1.9589,-0.95238,-4.0325,-1.9968,-2.0065,-2.0415,3.764,-0.0641,-0.0641,-1.9968,-2.0065,-2.0163,-0.0638,4.7847,1.9048,2.807,0.83333,1.8501,21.801001,2.8986,11.419
-1.9589,0.0,-6.9593,-3.9291,-2.9773,-3.9553,10.463,-2.9487,-1.9872,-3.9291,-2.9773,-4.9431,2.807,8.6124,2.8571,4.7209,1.7949,6.6348,0.94787,1.9324,7.5917
0.88468,-4.7619,-6.9593,-7.7939,-5.89,-3.9553,-3.8915,-5.8333,-1.9872,-7.7939,-5.89,-5.9187,5.6778,9.5694,2.8571,3.764,2.7564,7.5917,3.7915,0.96618,1.8501
1.8325,1.9048,-1.1057,-3.9291,-1.0356,-1.0845,-1.9777,-1.9872,4.7436,-3.9291,-1.0356,-1.0407,7.5917,9.5694,5.7143,6.6348,5.641,3.764,7.5829,-0.96618,1.8501
1.8325,6.6667,-0.13008,-3.9291,-2.9773,0.82935,6.6348,-1.0256,4.7436,-3.9291,-2.9773,1.8862,5.6778,5.7416,5.7143,5.6778,5.641,-14.418,-9.4787,3.8647,-4.8485
9.4155,9.5238,5.7236,-1.0306,3.8188,5.614,14.29,3.7821,8.5897,-1.0306,3.8188,9.6911,8.5486,7.6555,10.476,8.5486,9.4872,-3.8915,16.114,12.56,2.807
3.7283,9.5238,2.7967,0.90177,2.8479,1.7863,-1.0207,0.89744,0.89744,0.90177,2.8479,7.7398,4.7209,5.7416,2.8571,7.5917,5.641,20.032,-7.5829,2.8986,10.463
3.7283,2.8571,-1.1057,-1.0306,-2.9773,-0.12759,-3.8915,-3.9103,-4.8718,-1.0306,-2.9773,0.91057,0.89314,1.9139,-3.8095,0.89314,-1.0897,-1.9777,-2.8436,-8.6957,-1.9777
4.6761,-1.9048,-0.13008,0.90177,-3.9482,1.7863,3.764,-1.0256,-1.9872,0.90177,-3.9482,-0.06504,2.807,2.8708,-1.9048,0.89314,-1.0897,-7.7193,5.6872,-3.8647,-6.7624
1.8325,1.9048,1.8211,4.7665,-0.06472,1.7863,8.5486,6.6667,0.89744,4.7665,-0.06472,0.91057,7.5917,6.6986,2.8571,5.6778,4.6795,7.5917,13.27,5.7971,10.463
1.8325,2.8571,-0.13008,0.90177,0.90615,0.82935,-1.0207,4.7436,-0.0641,0.90177,0.90615,-3.9675,6.6348,4.7847,4.7619,5.6778,5.641,3.764,6.6351,9.6618,-1.0207
-2.9068,4.7619,-5.0081,-2.963,-1.0356,0.82935,-0.0638,5.7051,1.859,-2.963,-1.0356,-4.9431,1.8501,0.95694,1.9048,3.764,1.7949,-0.0638,-18.957001,4.8309,-9.6332
-4.8025,1.9048,-6.9593,-1.9968,-6.8608,-3.9553,-2.9346,5.7051,1.859,-1.9968,-6.8608,-8.8455,-1.9777,0.0,-0.95238,3.764,-0.12821,10.463,-35.070999,-0.96618,-4.8485
-9.5419,-11.429,-11.837,-5.8615,-10.744,-10.654,-17.289,-0.0641,-4.8718,-5.8615,-10.744,-16.65,-7.7193,-3.8278,-5.7143,-1.0207,-3.9744,5.6778,-7.5829,-7.7295,7.5917
-13.333,-18.094999,-16.715,-6.8277,-14.628,-15.439,-16.332001,-1.9872,-10.641,-6.8277,-14.628,-19.577,-9.6332,-4.7847,-6.6667,-4.8485,-6.859,-6.7624,14.218,-0.96618,7.5917
-7.6461,-9.5238,-11.837,-0.06441,-3.9482,-7.7831,-10.59,4.7436,-1.0256,-0.06441,-3.9482,-10.797,-1.9777,4.7847,-1.9048,-1.0207,-2.0513,-6.7624,3.7915,-2.8986,-1.9777
-5.7504,-3.8095,-9.8862,3.8003,2.8479,-2.0415,-4.8485,8.5897,5.7051,3.8003,2.8479,-4.9431,-1.0207,3.8278,-4.7619,-1.9777,-3.0128,-10.59,0.94787,-7.7295,-5.8054
-1.0111,-4.7619,-11.837,-0.06441,-1.0356,-3.9553,-2.9346,6.6667,-1.9872,-0.06441,-1.0356,-4.9431,-7.7193,-5.7416,-11.429,-9.6332,-10.705,4.7209,5.6872,-6.7633,-7.7193
-7.6461,-7.619,-10.862,-0.06441,-4.9191,-3.9553,-4.8485,8.5897,-3.9103,-0.06441,-4.9191,-5.9187,-13.461,-9.5694,-17.143,-14.418,-16.474001,3.764,-11.374,-11.594,-11.547
-11.438,-2.8571,-6.9593,0.90177,-3.9482,0.82935,-0.0638,7.6282,-2.9487,0.90177,-3.9482,-2.9919,-15.375,-9.5694,-16.190001,-13.461,-16.474001,4.7209,-9.4787,-13.527,-7.7193
-13.333,-8.5714,-7.935,-0.06441,-3.9482,-3.9553,-4.8485,2.8205,-8.7179,-0.06441,-3.9482,-4.9431,-16.332001,-10.526,-13.333,-14.418,-15.513,0.89314,0.94787,-8.6957,-4.8485
-9.5419,-12.381,-6.9593,4.7665,-1.0356,-2.9984,-16.332001,4.7436,-3.9103,4.7665,-1.0356,-3.9675,-11.547,-8.6124,-9.5238,-11.547,-10.705,-12.504,-12.322,-8.6957,-8.6762
-12.385,-13.333,-8.9106,3.8003,-2.9773,-2.0415,-9.6332,5.7051,-4.8718,3.8003,-2.9773,-6.8943,-10.59,-10.526,-9.5238,-11.547,-10.705,-1.0207,-0.94787,-10.628,-5.8054
-7.6461,-5.7143,-5.9837,2.8341,-2.0065,-3.9553,-5.8054,6.6667,-2.9487,2.8341,-2.0065,-3.9675,-5.8054,-6.6986,-5.7143,-6.7624,-6.859,-10.59,2.8436,-1.9324,6.6348
-13.333,-13.333,-11.837,-5.8615,-13.657,-14.482,-13.461,0.89744,-9.6795,-5.8615,-13.657,-11.772,-12.504,-11.483,-14.286,-13.461,-13.59,-5.8054,-9.4787,-5.7971,-7.7193
-15.229,-18.094999,-13.789,-7.7939,-14.628,-13.525,-25.900999,-1.0256,-12.564,-7.7939,-14.628,-13.724,-13.461,-12.44,-18.094999,-16.332001,-15.513,12.376,-0.94787,-12.56,-19.202999
-9.5419,-8.5714,-9.8862,-3.9291,-7.8317,-2.9984,-11.547,-0.0641,-7.7564,-3.9291,-7.8317,-8.8455,-9.6332,-4.7847,-15.238,-8.6762,-11.667,3.764,-4.7393,-13.527,-2.9346
-0.06319,-6.6667,-6.9593,-0.06441,-5.89,0.82935,-3.8915,2.8205,-4.8718,-0.06441,-5.89,-4.9431,-9.6332,-2.8708,-11.429,-4.8485,-8.7821,-1.9777,-23.697001,-10.628,-5.8054
-5.7504,-8.5714,-5.9837,-1.0306,-2.9773,1.7863,-10.59,6.6667,-5.8333,-1.0306,-2.9773,-4.9431,-9.6332,-2.8708,-11.429,-4.8485,-6.859,-1.0207,-13.27,-10.628,-9.6332
-12.385,-18.094999,-8.9106,-2.963,-10.744,-3.9553,-22.073,5.7051,-7.7564,-2.963,-10.744,-10.797,-13.461,-6.6986,-14.286,-7.7193,-11.667,0.89314,12.322,-10.628,1.8501
-5.7504,-17.143,-5.9837,0.90177,-5.89,-5.8692,-9.6332,6.6667,-6.7949,0.90177,-5.89,-6.8943,-11.547,-3.8278,-12.381,-5.8054,-10.705,-9.6332,11.374,-13.527,6.6348
-3.8547,-10.476,-5.0081,1.868,-2.9773,-0.12759,-1.0207,7.6282,-2.9487,1.868,-2.9773,-2.0163,-8.6762,-3.8278,-12.381,-8.6762,-10.705,-1.9777,15.166,-16.424999,-3.8915
6.5719,0.0,0.84553,5.7327,0.90615,10.399,-6.7624,13.397,1.859,5.7327,0.90615,4.813,-8.6762,-3.8278,-7.619,-7.7193,-8.7821,4.7209,5.6872,-8.6957,-8.6762
12.259,5.7143,3.7724,9.5974,1.877,15.183,7.5917,16.282,4.7436,9.5974,1.877,8.7154,-7.7193,-4.7847,-1.9048,-5.8054,-4.9359,1.8501,-17.062,-3.8647,-4.8485
1.8325,4.7619,-1.1057,6.6989,4.7896,11.356,10.463,14.359,2.8205,6.6989,4.7896,7.7398,-11.547,-9.5694,-4.7619,-6.7624,-6.859,11.419,-40.757999,-3.8647,-2.9346
4.6761,0.0,1.8211,12.496,10.615,16.139999,1.8501,18.205,4.7436,12.496,10.615,10.667,-7.7193,-5.7416,0.95238,-4.8485,-3.0128,-1.0207,12.322,0.0,6.6348
9.4155,0.95238,2.7967,12.496,10.615,14.226,9.5056,15.321,6.6667,12.496,10.615,11.642,-5.8054,-5.7416,0.95238,-5.8054,-2.0513,1.8501,29.384001,-2.8986,3.764
5.624,2.8571,2.7967,13.462,7.7023,7.5279,7.5917,14.359,10.513,13.462,7.7023,10.667,-4.8485,-4.7847,-2.8571,-5.8054,-3.9744,-0.0638,-14.218,-8.6957,1.8501
0.88468,-5.7143,-2.0813,10.564,4.7896,6.571,1.8501,13.397,1.859,10.564,4.7896,5.7886,-6.7624,-8.6124,-6.6667,-9.6332,-8.7821,15.247,-6.6351,-4.8309,-9.6332
-6.6983,-11.429,-8.9106,9.5974,2.8479,5.614,0.89314,16.282,-1.0256,9.5974,2.8479,1.8862,-9.6332,-12.44,-10.476,-15.375,-14.551,18.118,2.8436,-4.8309,-23.987
-3.8547,-9.5238,-9.8862,9.5974,5.7605,7.5279,3.764,15.321,0.89744,9.5974,5.7605,2.8618,-9.6332,-12.44,-9.5238,-14.418,-14.551,8.5486,-0.94787,-3.8647,-22.073
-1.0111,-1.9048,-8.9106,10.564,7.7023,8.4848,6.6348,11.474,2.8205,10.564,7.7023,3.8374,-11.547,-13.397,-6.6667,-11.547,-12.628,4.7209,-27.488001,-4.8309,-11.547
5.624,-0.95238,-4.0325,13.462,10.615,11.356,2.807,9.5513,1.859,13.462,10.615,6.7642,-6.7624,-9.5694,-3.8095,-7.7193,-8.7821,-1.9777,-8.5308,-1.9324,-9.6332
2.7804,-1.9048,-2.0813,14.428,10.615,5.614,7.5917,13.397,3.7821,14.428,10.615,5.7886,-3.8915,-5.7416,-0.95238,-3.8915,-3.9744,0.89314,5.6872,7.7295,0.89314
-6.6983,0.0,-6.9593,8.6312,4.7896,-4.9123,-4.8485,4.7436,0.89744,8.6312,4.7896,-2.9919,-5.8054,-7.6555,-4.7619,-3.8915,-4.9359,3.764,-5.6872,-0.96618,-5.8054
-7.6461,-3.8095,-5.9837,2.8341,3.8188,-6.8262,-2.9346,-0.0641,-1.9872,2.8341,3.8188,-3.9675,-4.8485,-6.6986,-6.6667,-2.9346,-4.9359,9.5056,-3.7915,-6.7633,-8.6762
-4.8025,-9.5238,-5.0081,5.7327,3.8188,-2.9984,-1.0207,1.859,-1.9872,5.7327,3.8188,-0.06504,-4.8485,-3.8278,-5.7143,-1.0207,-3.9744,5.6778,-0.94787,-0.96618,2.807
-0.06319,-6.6667,-5.0081,6.6989,7.7023,-2.0415,0.89314,-6.7949,0.89744,6.6989,7.7023,0.91057,-5.8054,-3.8278,-7.619,-1.9777,-6.859,-4.8485,5.6872,-4.8309,-2.9346
-4.8025,-0.95238,-6.9593,1.868,10.615,-4.9123,3.764,-6.7949,1.859,1.868,10.615,-1.0407,-1.9777,-3.8278,-5.7143,-2.9346,-4.9359,-7.7193,9.4787,-8.6957,-13.461
-14.281,6.6667,-4.0325,1.868,12.557,-8.74,4.7209,-5.8333,4.7436,1.868,12.557,0.91057,3.764,0.0,0.95238,3.764,2.7564,-4.8485,-13.27,-1.9324,-2.9346
-14.281,3.8095,-4.0325,-0.06441,4.7896,-8.74,2.807,-9.6795,8.5897,-0.06441,4.7896,-2.0163,2.807,0.95694,1.9048,3.764,2.7564,-7.7193,-4.7393,2.8986,10.463
-9.5419,-3.8095,-6.9593,-5.8615,2.8479,-11.611,3.764,-12.564,7.6282,-5.8615,2.8479,-4.9431,-4.8485,-2.8708,-2.8571,-1.0207,-3.9744,-2.9346,16.114,1.9324,10.463
0.88468,5.7143,0.84553,-1.9968,6.7314,-2.9984,-2.9346,-8.7179,5.7051,-1.9968,6.7314,-1.0407,-1.0207,0.95694,-1.9048,2.807,-1.0897,-2.9346,2.8436,0.96618,5.6778
-4.8025,0.95238,-3.0569,-4.8953,1.877,-5.8692,-4.8485,-14.487,-1.0256,-4.8953,1.877,-5.9187,0.89314,0.95694,-4.7619,0.89314,-2.0513,-5.8054,-4.7393,3.8647,-1.0207
-16.177,-13.333,-11.837,-10.692,-5.89,-16.396,-9.6332,-13.526,-7.7564,-10.692,-5.89,-13.724,-3.8915,-3.8278,-9.5238,-3.8915,-6.859,-0.0638,9.4787,-5.7971,-0.0638
-6.6983,-5.7143,-5.9837,-9.7262,-3.9482,-8.74,-4.8485,-8.7179,-1.9872,-9.7262,-3.9482,-6.8943,0.89314,0.0,-3.8095,1.8501,-2.0513,1.8501,-17.062,-4.8309,-1.0207
3.7283,3.8095,0.84553,-7.7939,-2.0065,0.82935,-2.9346,-8.7179,-1.0256,-7.7939,-2.0065,0.91057,0.89314,-0.95694,-1.9048,0.89314,-2.0513,-9.6332,1.8957,0.0,-2.9346
4.6761,2.8571,3.7724,-1.9968,-0.06472,2.7432,6.6348,-4.8718,4.7436,-1.9968,-0.06472,4.813,2.807,0.0,-0.95238,-1.9777,-2.0513,-3.8915,19.905001,-0.96618,4.7209
5.624,3.8095,3.7724,-2.963,-0.06472,1.7863,12.376,-7.7564,5.7051,-2.963,-0.06472,3.8374,4.7209,1.9139,5.7143,-1.9777,1.7949,-12.504,13.27,0.96618,6.6348
12.259,7.619,4.748,-7.7939,-3.9482,-1.0845,8.5486,-10.641,2.8205,-7.7939,-3.9482,1.8862,3.764,-0.95694,8.5714,-3.8915,1.7949,-2.9346,15.166,0.96618,5.6778
13.207,7.619,7.6748,-8.7601,-5.89,1.7863,0.89314,-7.7564,0.89744,-8.7601,-5.89,3.8374,3.764,0.0,11.429,-2.9346,2.7564,4.7209,7.5829,6.7633,4.7209
12.259,11.429,12.553,-5.8615,-2.9773,4.6571,6.6348,-2.9487,0.89744,-5.8615,-2.9773,5.7886,9.5056,5.7416,15.238,3.764,7.5641,6.6348,4.7393,11.594,5.6778
6.5719,10.476,11.577,-5.8615,-4.9191,-0.12759,4.7209,-1.0256,-1.9872,-5.8615,-4.9191,3.8374,11.419,5.7416,14.286,6.6348,9.4872,8.5486,10.427,16.424999,6.6348
6.5719,8.5714,7.6748,-9.7262,-6.8608,-4.9123,-1.0207,-8.7179,-3.9103,-9.7262,-6.8608,-1.0407,11.419,7.6555,11.429,12.376,11.41,3.764,-4.7393,9.6618,14.29
2.7804,4.7619,5.7236,-7.7939,-5.89,-6.8262,-12.504,-5.8333,-4.8718,-7.7939,-5.89,-2.9919,13.333,11.483,11.429,14.29,12.372,4.7209,9.4787,4.8309,10.463
1.8325,0.95238,4.748,-2.963,-8.8026,-1.0845,-7.7193,0.89744,-10.641,-2.963,-8.8026,-1.0407,11.419,9.5694,11.429,11.419,10.449,2.807,9.4787,7.7295,2.807
5.624,1.9048,7.6748,-1.9968,-6.8608,2.7432,-1.9777,1.859,-10.641,-1.9968,-6.8608,1.8862,7.5917,5.7416,9.5238,12.376,8.5256,-0.0638,0.0,8.6957,3.764
6.5719,7.619,12.553,3.8003,-2.0065,11.356,4.7209,7.6282,-5.8333,3.8003,-2.0065,6.7642,11.419,8.6124,13.333,17.160999,14.295,-5.8054,-0.94787,7.7295,6.6348
11.311,7.619,15.48,12.496,2.8479,18.054001,7.5917,12.436,-2.9487,12.496,2.8479,12.618,17.160999,16.268,19.048,19.075001,20.063999,3.764,0.0,12.56,17.160999
12.259,13.333,13.528,9.5974,-1.0356,16.139999,4.7209,6.6667,2.8205,9.5974,-1.0356,11.642,12.376,9.5694,18.094999,13.333,15.256,15.247,-17.062,20.290001,19.075001
10.363,12.381,10.602,6.6989,2.8479,11.356,0.89314,4.7436,-2.9487,6.6989,2.8479,10.667,2.807,2.8708,10.476,5.6778,7.5641,16.204,-6.6351,4.8309,-1.9777
8.4676,7.619,10.602,9.5974,7.7023,10.399,8.5486,5.7051,-0.0641,9.5974,7.7023,12.618,-1.9777,0.95694,4.7619,3.764,4.6795,1.8501,27.488001,-1.9324,-10.59
3.7283,6.6667,7.6748,11.53,9.644,11.356,10.463,6.6667,3.7821,11.53,9.644,14.569,-0.0638,0.95694,-0.95238,3.764,2.7564,2.807,16.114,-1.9324,-0.0638
3.7283,4.7619,5.7236,12.496,10.615,12.313,16.204,5.7051,1.859,12.496,10.615,12.618,1.8501,2.8708,-3.8095,3.764,1.7949,-1.9777,-7.5829,-5.7971,-3.8915
10.363,10.476,10.602,9.5974,8.6731,10.399,15.247,3.7821,-0.0641,9.5974,8.6731,11.642,5.6778,7.6555,4.7619,11.419,8.5256,-16.332001,-41.706001,-1.9324,0.89314
12.259,5.7143,8.6504,3.8003,5.7605,4.6571,4.7209,-1.9872,-1.9872,3.8003,5.7605,5.7886,7.5917,13.397,9.5238,13.333,11.41,-0.0638,4.7393,1.9324,12.376
1.8325,5.7143,4.748,0.90177,4.7896,1.7863,0.89314,-3.9103,0.89744,0.90177,4.7896,2.8618,6.6348,9.5694,6.6667,8.5486,7.5641,8.5486,25.591999,3.8647,6.6348
-5.7504,7.619,4.748,0.90177,6.7314,2.7432,5.6778,-1.9872,0.89744,0.90177,6.7314,4.813,4.7209,4.7847,1.9048,4.7209,4.6795,3.764,0.0,-0.96618,-3.8915
-0.06319,4.7619,7.6748,-1.0306,3.8188,0.82935,9.5056,-7.7564,0.89744,-1.0306,3.8188,4.813,5.6778,5.7416,2.8571,4.7209,4.6795,9.5056,-7.5829,3.8647,-1.0207
5.624,5.7143,12.553,1.868,9.644,-1.0845,13.333,-3.9103,8.5897,1.868,9.644,7.7398,12.376,13.397,7.619,9.5056,9.4872,4.7209,-18.957001,8.6957,0.89314
9.4155,9.5238,13.528,3.8003,12.557,-0.12759,14.29,1.859,8.5897,3.8003,12.557,7.7398,11.419,12.44,8.5714,9.5056,9.4872,-0.0638,-1.8957,6.7633,-2.9346
12.259,9.5238,13.528,-1.0306,5.7605,2.7432,9.5056,-1.0256,2.8205,-1.0306,5.7605,5.7886,6.6348,7.6555,8.5714,7.5917,7.5641,-11.547,18.957001,5.7971,2.807
9.4155,7.619,14.504,-2.963,2.8479,2.7432,4.7209,-1.0256,3.7821,-2.963,2.8479,2.8618,10.463,10.526,10.476,8.5486,11.41,9.5056,17.062,8.6957,-1.0207
5.624,4.7619,7.6748,-3.9291,-0.06472,-0.12759,9.5056,-3.9103,1.859,-3.9291,-0.06472,1.8862,7.5917,8.6124,6.6667,4.7209,8.5256,15.247,-6.6351,3.8647,-5.8054
8.4676,2.8571,4.748,-1.9968,2.8479,6.571,8.5486,-0.0641,1.859,-1.9968,2.8479,6.7642,5.6778,5.7416,4.7619,-0.0638,3.7179,-1.9777,-9.4787,2.8986,-2.9346
11.311,7.619,11.577,3.8003,7.7023,11.356,4.7209,5.7051,2.8205,3.8003,7.7023,10.667,8.5486,8.6124,7.619,2.807,6.6026,8.5486,-6.6351,8.6957,4.7209
19.841999,11.429,20.358,8.6312,8.6731,14.226,5.6778,2.8205,7.6282,8.6312,8.6731,14.569,8.5486,13.397,9.5238,9.5056,11.41,4.7209,-8.5308,1.9324,10.463
12.259,11.429,15.48,5.7327,1.877,10.399,11.419,2.8205,8.5897,5.7327,1.877,11.642,3.764,11.483,5.7143,10.463,9.4872,3.764,-10.427,-3.8647,8.5486
-1.9589,4.7619,3.7724,-1.0306,-1.0356,-0.12759,0.89314,-0.0641,-2.9487,-1.0306,-1.0356,2.8618,-1.0207,6.6986,0.0,5.6778,3.7179,0.89314,25.591999,-1.9324,5.6778
-1.9589,-1.9048,0.84553,1.868,0.90615,-0.12759,-14.418,3.7821,-1.0256,1.868,0.90615,-0.06504,-4.8485,4.7847,-2.8571,4.7209,1.7949,-13.461,18.957001,-3.8647,4.7209
5.624,-6.6667,-2.0813,1.868,1.877,7.5279,-7.7193,4.7436,-0.0641,1.868,1.877,-2.0163,-3.8915,4.7847,-4.7619,3.764,1.7949,-5.8054,-16.114,-9.6618,-6.7624
3.7283,-5.7143,-0.13008,5.7327,4.7896,9.4418,9.5056,2.8205,1.859,5.7327,4.7896,0.91057,-0.0638,4.7847,-0.95238,5.6778,5.641,2.807,-18.009001,-7.7295,-5.8054
7.5197,-3.8095,4.748,7.6651,2.8479,3.7002,2.807,4.7436,-0.0641,7.6651,2.8479,3.8374,3.764,5.7416,5.7143,6.6348,9.4872,-1.9777,-12.322,0.0,2.807
8.4676,0.0,10.602,7.6651,2.8479,6.571,-2.9346,5.7051,-1.0256,7.6651,2.8479,5.7886,7.5917,8.6124,11.429,9.5056,13.333,4.7209,4.7393,6.7633,7.5917
5.624,0.95238,7.6748,4.7665,-2.0065,5.614,-12.504,3.7821,-5.8333,4.7665,-2.0065,1.8862,5.6778,1.9139,10.476,1.8501,6.6026,-5.8054,6.6351,8.6957,-6.7624
6.5719,-10.476,-2.0813,2.8341,-2.0065,0.82935,-8.6762,1.859,-4.8718,2.8341,-2.0065,-3.9675,3.764,-6.6986,6.6667,-7.7193,-1.0897,-4.8485,0.0,3.8647,-12.504
8.4676,-4.7619,-1.1057,2.8341,3.8188,5.614,-3.8915,4.7436,3.7821,2.8341,3.8188,-2.0163,6.6348,-1.9139,6.6667,-2.9346,0.83333,22.903,-1.8957,8.6957,-2.9346
-1.0111,-0.95238,-2.0813,0.90177,1.877,-0.12759,0.89314,4.7436,5.7051,0.90177,1.877,-3.9675,3.764,-0.95694,1.9048,-1.0207,-2.0513,15.247,-22.749001,7.7295,-0.0638
-3.8547,0.95238,1.8211,-0.06441,4.7896,-2.0415,12.376,2.8205,6.6667,-0.06441,4.7896,-0.06504,0.89314,-1.9139,-1.9048,-0.0638,-3.0128,7.5917,-15.166,6.7633,3.764
8.4676,8.5714,9.626,6.6989,12.557,4.6571,5.6778,5.7051,8.5897,6.6989,12.557,9.6911,2.807,1.9139,1.9048,3.764,0.83333,-4.8485,18.009001,3.8647,7.5917
7.5197,1.9048,2.7967,7.6651,7.7023,3.7002,12.376,6.6667,8.5897,7.6651,7.7023,8.7154,-1.0207,0.0,0.0,-3.8915,-2.0513,-14.418,15.166,5.7971,-3.8915
3.7283,-1.9048,-5.9837,1.868,2.8479,1.7863,5.6778,2.8205,6.6667,1.868,2.8479,2.8618,-4.8485,-4.7847,-4.7619,-8.6762,-6.859,17.160999,1.8957,3.8647,-10.59
-0.06319,-2.8571,-8.9106,0.90177,2.8479,-0.12759,2.807,3.7821,4.7436,0.90177,2.8479,-0.06504,-5.8054,-5.7416,-6.6667,-7.7193,-6.859,13.333,8.5308,-4.8309,-6.7624
-2.9068,-1.9048,-5.0081,1.868,3.8188,4.6571,4.7209,4.7436,7.6282,1.868,3.8188,1.8862,-3.8915,-3.8278,-1.9048,-1.0207,-2.0513,5.6778,-10.427,-4.8309,-4.8485
-1.9589,1.9048,-1.1057,4.7665,3.8188,6.571,16.204,5.7051,11.474,4.7665,3.8188,5.7886,-0.0638,-3.8278,4.7619,3.764,3.7179,9.5056,-7.5829,-2.8986,-6.7624
3.7283,4.7619,-0.13008,2.8341,5.7605,2.7432,18.118,2.8205,9.5513,2.8341,5.7605,5.7886,1.8501,-1.9139,8.5714,4.7209,4.6795,-8.6762,-0.94787,0.96618,-3.8915
1.8325,1.9048,-3.0569,-0.06441,8.6731,-1.0845,1.8501,1.859,12.436,-0.06441,8.6731,0.91057,-1.9777,-4.7847,2.8571,-0.0638,-1.0897,3.764,10.427,1.9324,-2.9346
-6.6983,1.9048,-5.9837,0.90177,9.644,-2.9984,-1.0207,3.7821,14.359,0.90177,9.644,-0.06504,-4.8485,-5.7416,-6.6667,-3.8915,-6.859,-2.9346,30.332001,-2.8986,2.807
-5.7504,12.381,-3.0569,7.6651,11.586,0.82935,10.463,8.5897,18.205,7.6651,11.586,4.813,0.89314,0.0,-2.8571,1.8501,-1.0897,-7.7193,6.6351,0.96618,12.376
-3.8547,12.381,-3.0569,7.6651,10.615,-0.12759,13.333,2.8205,13.397,7.6651,10.615,4.813,0.89314,0.0,-0.95238,3.764,0.83333,1.8501,7.5829,0.0,12.376
-6.6983,0.95238,-6.9593,1.868,4.7896,-2.9984,-0.0638,1.859,6.6667,1.868,4.7896,-2.0163,-1.9777,-4.7847,-3.8095,-2.9346,-3.0128,9.5056,13.27,-2.8986,-1.9777
-1.9589,-8.5714,-4.0325,-0.06441,4.7896,-2.0415,11.419,4.7436,4.7436,-0.06441,4.7896,-1.0407,-1.0207,-6.6986,-0.95238,-6.7624,-3.9744,3.764,-14.218,2.8986,-12.504
4.6761,-7.619,-1.1057,0.90177,3.8188,0.82935,11.419,3.7821,3.7821,0.90177,3.8188,1.8862,-1.0207,-6.6986,-2.8571,-7.7193,-5.8974,-1.9777,-13.27,-3.8647,-16.332001
-6.6983,-3.8095,-5.9837,1.868,4.7896,-0.12759,-1.0207,6.6667,1.859,1.868,4.7896,-1.0407,-3.8915,-11.483,-9.5238,-11.547,-10.705,-3.8915,-13.27,-5.7971,-15.375
-13.333,-10.476,-11.837,-1.0306,0.90615,-4.9123,-7.7193,4.7436,-1.9872,-1.0306,0.90615,-6.8943,-1.9777,-15.311,-10.476,-17.289,-13.59,4.7209,14.218,-0.96618,-10.59
1.8325,-8.5714,-5.0081,-1.9968,-3.9482,1.7863,-8.6762,1.859,-3.9103,-1.9968,-3.9482,-2.9919,-0.0638,-11.483,-1.9048,-15.375,-8.7821,17.160999,13.27,2.8986,-5.8054
5.624,-1.9048,-2.0813,8.6312,2.8479,8.4848,1.8501,10.513,6.6667,8.6312,2.8479,2.8618,-2.9346,-12.44,0.95238,-11.547,-5.8974,-9.6332,0.0,0.96618,-3.8915
-1.9589,0.0,-5.9837,1.868,2.8479,0.82935,-9.6332,4.7436,3.7821,1.868,2.8479,-2.0163,-5.8054,-12.44,-1.9048,-11.547,-6.859,-0.0638,-3.7915,-1.9324,-9.6332
-1.9589,-2.8571,-7.935,-9.7262,-2.9773,-5.8692,-8.6762,-4.8718,0.89744,-9.7262,-2.9773,-6.8943,-5.8054,-10.526,-1.9048,-9.6332,-7.8205,6.6348,-0.94787,-1.9324,-8.6762
-3.8547,-9.5238,-8.9106,-6.8277,-3.9482,-6.8262,-1.9777,-4.8718,3.7821,-6.8277,-3.9482,-5.9187,-4.8485,-10.526,-3.8095,-10.59,-8.7821,-0.0638,-6.6351,-1.9324,0.89314
-2.9068,-12.381,-10.862,-3.9291,-4.9191,-3.9553,-1.9777,-3.9103,3.7821,-3.9291,-4.9191,-4.9431,-1.9777,-10.526,-5.7143,-13.461,-11.667,1.8501,-27.488001,1.9324,-11.547
-6.6983,-11.429,-11.837,-5.8615,-4.9191,-4.9123,-8.6762,-3.9103,-3.9103,-5.8615,-4.9191,-6.8943,-1.0207,-8.6124,-7.619,-13.461,-11.667,-4.8485,26.540001,-3.8647,0.89314
-5.7504,-6.6667,-8.9106,-7.7939,-2.9773,-3.9553,-9.6332,-2.9487,0.89744,-7.7939,-2.9773,-4.9431,-1.9777,-8.6124,-5.7143,-9.6332,-8.7821,-3.8915,37.915001,-0.96618,3.764
-8.594,0.95238,-6.9593,-3.9291,-2.9773,-5.8692,1.8501,-3.9103,5.7051,-3.9291,-2.9773,-2.0163,-4.8485,-10.526,-7.619,-6.7624,-8.7821,-7.7193,11.374,-2.8986,-1.9777
-14.281,-4.7619,-10.862,-4.8953,-5.89,-9.697,-3.8915,-9.6795,1.859,-4.8953,-5.89,-3.9675,-8.6762,-9.5694,-12.381,-7.7193,-11.667,-5.8054,-2.8436,-9.6618,-3.8915
-4.8025,-8.5714,-10.862,-3.9291,-5.89,-3.9553,-10.59,-11.603,-1.0256,-3.9291,-5.89,-5.9187,-7.7193,-5.7416,-9.5238,-6.7624,-10.705,-12.504,-9.4787,-7.7295,-4.8485
-7.6461,-12.381,-14.764,-4.8953,-6.8608,-6.8262,-16.332001,-5.8333,-6.7949,-4.8953,-6.8608,-11.772,-7.7193,-6.6986,-11.429,-6.7624,-10.705,-1.0207,-0.94787,-10.628,-7.7193
-19.021,-7.619,-18.667,-10.692,-10.744,-16.396,-17.289,-5.8333,-7.7564,-10.692,-10.744,-17.625999,-6.7624,-5.7416,-12.381,-5.8054,-11.667,5.6778,-6.6351,-7.7295,-1.0207
-13.333,-5.7143,-14.764,-8.7601,-8.8026,-10.654,-2.9346,-3.9103,-0.0641,-8.7601,-8.8026,-12.748,-0.0638,0.0,-5.7143,-1.0207,-4.9359,-6.7624,-0.94787,0.96618,2.807
-4.8025,-10.476,-9.8862,-2.963,-6.8608,-1.0845,-6.7624,-3.9103,0.89744,-2.963,-6.8608,-8.8455,3.764,4.7847,0.0,-0.0638,-0.12821,-12.504,-5.6872,-0.96618,1.8501
-3.8547,-5.7143,-7.935,-2.963,-2.9773,-3.9553,-13.461,-1.0256,1.859,-2.963,-2.9773,-7.8699,3.764,6.6986,-1.9048,-2.9346,-1.0897,-11.547,2.8436,-2.8986,3.764
-10.49,-6.6667,-11.837,-7.7939,-8.8026,-11.611,-0.0638,-3.9103,-0.0641,-7.7939,-8.8026,-10.797,-3.8915,0.95694,-9.5238,-9.6332,-7.8205,-6.7624,0.0,-5.7971,1.8501
-9.5419,-9.5238,-11.837,-9.7262,-10.744,-10.654,-3.8915,-6.7949,1.859,-9.7262,-10.744,-9.8211,-6.7624,-0.95694,-11.429,-9.6332,-10.705,-3.8915,21.801001,-13.527,11.419
-1.0111,-1.9048,-5.0081,-5.8615,-3.9482,-2.9984,-7.7193,-6.7949,3.7821,-5.8615,-3.9482,-3.9675,-4.8485,-0.95694,-6.6667,-8.6762,-8.7821,-7.7193,13.27,-16.424999,5.6778
1.8325,0.95238,-0.13008,-0.06441,0.90615,2.7432,-0.0638,-5.8333,2.8205,-0.06441,0.90615,0.91057,-1.9777,0.95694,0.0,-4.8485,-3.9744,0.89314,-0.94787,0.0,-5.8054
-5.7504,-1.9048,-5.0081,-3.9291,-2.9773,-4.9123,-1.0207,-6.7949,4.7436,-3.9291,-2.9773,-3.9675,-2.9346,2.8708,-3.8095,-3.8915,-3.9744,-0.0638,11.374,-4.8309,-6.7624
-11.438,-0.95238,-12.813,-9.7262,-8.8026,-9.697,2.807,-7.7564,2.8205,-9.7262,-8.8026,-10.797,-1.9777,7.6555,-9.5238,-3.8915,-6.859,-11.547,7.5829,-8.6957,2.807
-11.438,-5.7143,-13.789,-10.692,-10.744,-9.697,-2.9346,-4.8718,-4.8718,-10.692,-10.744,-13.724,2.807,9.5694,-6.6667,-3.8915,-3.9744,-3.8915,-7.5829,-2.8986,7.5917
-8.594,-4.7619,-6.9593,-5.8615,-4.9191,-7.7831,-1.9777,-2.9487,0.89744,-5.8615,-4.9191,-9.8211,3.764,9.5694,-3.8095,-1.0207,0.83333,-4.8485,0.94787,-2.8986,9.5056
-4.8025,-1.9048,-5.0081,-6.8277,-0.06472,-8.74,-1.9777,-2.9487,0.89744,-6.8277,-0.06472,-4.9431,0.89314,9.5694,-2.8571,0.89314,0.83333,-16.332001,7.5829,-1.9324,14.29
-3.8547,-1.9048,-6.9593,-9.7262,-7.8317,-10.654,-6.7624,-9.6795,-3.9103,-9.7262,-7.8317,-7.8699,1.8501,5.7416,-3.8095,1.8501,-1.0897,-19.202999,3.7915,-2.8986,9.5056
-10.49,-2.8571,-8.9106,-7.7939,-6.8608,-13.525,-20.159,-6.7949,-6.7949,-7.7939,-6.8608,-9.8211,6.6348,8.6124,-1.9048,3.764,2.7564,8.5486,3.7915,-1.9324,0.89314
-11.438,-5.7143,-7.935,-6.8277,-7.8317,-9.697,-23.987,-7.7564,-12.564,-6.8277,-7.8317,-9.8211,9.5056,9.5694,2.8571,4.7209,5.641,7.5917,-2.8436,2.8986,4.7209
-1.0111,-5.7143,-3.0569,-8.7601,-11.715,-3.9553,-3.8915,-4.8718,-10.641,-8.7601,-11.715,-6.8943,9.5056,8.6124,5.7143,3.764,4.6795,8.5486,0.94787,9.6618,13.333
-0.06319,-2.8571,-3.0569,-8.7601,-9.7735,-2.9984,2.807,-1.0256,-7.7564,-8.7601,-9.7735,-6.8943,9.5056,8.6124,2.8571,1.8501,2.7564,1.8501,12.322,9.6618,12.376
-1.0111,-3.8095,-4.0325,-9.7262,-7.8317,-4.9123,-1.0207,-1.9872,-8.7179,-9.7262,-7.8317,-6.8943,7.5917,8.6124,1.9048,2.807,1.7949,-7.7193,-8.5308,3.8647,16.204
1.8325,-9.5238,-5.0081,-9.7262,-10.744,-5.8692,-6.7624,-6.7949,-9.6795,-9.7262,-10.744,-6.8943,6.6348,6.6986,2.8571,0.89314,0.83333,-2.9346,-5.6872,1.9324,14.29
0.88468,-3.8095,-4.0325,-5.8615,-8.8026,-3.9553,-14.418,-2.9487,-8.7179,-5.8615,-8.8026,-3.9675,6.6348,6.6986,3.8095,0.89314,1.7949,-5.8054,-2.8436,4.8309,7.5917
0.88468,-1.9048,0.84553,-3.9291,-8.8026,-5.8692,-4.8485,1.859,-4.8718,-3.9291,-8.8026,-2.0163,0.89314,1.9139,2.8571,-0.0638,-0.12821,-1.9777,-9.4787,0.0,-1.0207
7.5197,6.6667,9.626,-5.8615,-9.7735,0.82935,-7.7193,2.8205,-6.7949,-5.8615,-9.7735,2.8618,-2.9346,0.95694,3.8095,4.7209,2.7564,7.5917,-8.5308,0.96618,-0.0638
11.311,6.6667,13.528,-9.7262,-9.7735,6.571,-6.7624,-1.9872,-10.641,-9.7262,-9.7735,4.813,-0.0638,4.7847,8.5714,9.5056,6.6026,1.8501,11.374,10.628,16.204
4.6761,5.7143,12.553,-5.8615,-8.8026,3.7002,4.7209,-1.0256,-7.7564,-5.8615,-8.8026,3.8374,5.6778,8.6124,13.333,12.376,13.333,14.29,13.27,19.323999,13.333
8.4676,16.190001,14.504,0.90177,-3.9482,4.6571,6.6348,-0.0641,-3.9103,0.90177,-3.9482,6.7642,9.5056,11.483,17.143,16.204,18.141001,13.333,-9.4787,11.594,10.463
15.103,14.286,13.528,1.868,-2.0065,1.7863,10.463,-1.0256,-2.9487,1.868,-2.0065,7.7398,7.5917,9.5694,15.238,14.29,15.256,-1.0207,0.0,3.8647,9.5056
-0.06319,8.5714,9.626,-0.06441,-2.9773,2.7432,6.6348,-0.0641,-3.9103,-0.06441,-2.9773,7.7398,4.7209,7.6555,5.7143,13.333,10.449,-3.8915,-10.427,0.0,-1.9777
-4.8025,4.7619,7.6748,-0.06441,-1.0356,6.571,-1.0207,-0.0641,-3.9103,-0.06441,-1.0356,6.7642,6.6348,10.526,3.8095,14.29,10.449,-6.7624,-4.7393,3.8647,7.5917
8.4676,8.5714,12.553,0.90177,1.877,10.399,1.8501,-1.9872,-4.8718,0.90177,1.877,9.6911,12.376,15.311,10.476,18.118,15.256,-1.0207,-1.8957,7.7295,16.204
3.7283,8.5714,11.577,4.7665,-2.9773,4.6571,14.29,-1.0256,-2.9487,4.7665,-2.9773,6.7642,12.376,16.268,8.5714,19.075001,14.295,3.764,13.27,5.7971,17.160999
1.8325,5.7143,7.6748,4.7665,0.90615,-3.9553,12.376,-3.9103,-1.0256,4.7665,0.90615,3.8374,11.419,15.311,6.6667,16.204,12.372,2.807,18.957001,3.8647,8.5486
7.5197,11.429,9.626,6.6989,8.6731,1.7863,7.5917,-1.0256,-0.0641,6.6989,8.6731,5.7886,17.160999,15.311,15.238,19.075001,16.218,1.8501,-2.8436,15.459,8.5486
1.8325,10.476,5.7236,2.8341,7.7023,1.7863,4.7209,3.7821,-1.0256,2.8341,7.7023,2.8618,16.204,10.526,11.429,14.29,11.41,-2.9346,-12.322,9.6618,6.6348
-3.8547,9.5238,1.8211,-0.06441,1.877,0.82935,-13.461,1.859,-4.8718,-0.06441,1.877,0.91057,11.419,6.6986,3.8095,6.6348,3.7179,-0.0638,-27.488001,-2.8986,-6.7624
3.7283,6.6667,3.7724,4.7665,4.7896,5.614,1.8501,2.8205,-1.9872,4.7665,4.7896,2.8618,9.5056,4.7847,5.7143,4.7209,3.7179,0.89314,0.94787,3.8647,-5.8054
3.7283,-3.8095,3.7724,5.7327,2.8479,5.614,17.160999,0.89744,0.89744,5.7327,2.8479,2.8618,3.764,0.0,3.8095,0.89314,0.83333,2.807,17.062,4.8309,4.7209
6.5719,3.8095,7.6748,6.6989,8.6731,3.7002,14.29,3.7821,4.7436,6.6989,8.6731,6.7642,3.764,0.95694,7.619,4.7209,4.6795,15.247,-15.166,4.8309,4.7209
8.4676,2.8571,4.748,0.90177,5.7605,-1.0845,3.764,1.859,1.859,0.90177,5.7605,1.8862,-0.0638,-0.95694,7.619,2.807,2.7564,2.807,-5.6872,4.8309,-0.0638
5.624,-1.9048,1.8211,-3.9291,-1.0356,-0.12759,-1.9777,4.7436,-0.0641,-3.9291,-1.0356,-0.06504,-1.0207,-3.8278,7.619,-0.0638,2.7564,-0.0638,-1.8957,7.7295,-7.7193
1.8325,2.8571,1.8211,-1.0306,1.877,3.7002,-1.0207,5.7051,0.89744,-1.0306,1.877,0.91057,-1.9777,-6.6986,5.7143,-0.0638,2.7564,-1.9777,-34.123001,9.6618,-8.6762
3.7283,1.9048,3.7724,4.7665,3.8188,6.571,-2.9346,7.6282,-1.0256,4.7665,3.8188,2.8618,-4.8485,-8.6124,0.95238,-2.9346,-0.12821,-9.6332,-6.6351,-3.8647,-6.7624
11.311,4.7619,3.7724,6.6989,3.8188,9.4418,-2.9346,7.6282,-0.0641,6.6989,3.8188,5.7886,-1.9777,-6.6986,0.95238,-4.8485,-1.0897,7.5917,25.591999,-4.8309,-7.7193
0.88468,-2.8571,0.84553,6.6989,4.7896,5.614,7.5917,6.6667,3.7821,6.6989,4.7896,2.8618,-0.0638,-3.8278,0.95238,-5.8054,-2.0513,9.5056,16.114,2.8986,-3.8915
-2.9068,-7.619,1.8211,3.8003,4.7896,2.7432,12.376,3.7821,4.7436,3.8003,4.7896,1.8862,-0.0638,-1.9139,0.95238,-3.8915,-1.0897,7.5917,-1.8957,3.8647,-1.9777
-1.0111,0.95238,2.7967,2.8341,0.90615,4.6571,4.7209,4.7436,1.859,2.8341,0.90615,2.8618,-1.9777,-0.95694,-0.95238,-1.9777,-2.0513,5.6778,-20.853001,5.7971,-9.6332
3.7283,-7.619,-0.13008,2.8341,-2.0065,9.4418,0.89314,-1.0256,-1.0256,2.8341,-2.0065,1.8862,-4.8485,-5.7416,-5.7143,-6.7624,-5.8974,-2.9346,0.0,-0.96618,-11.547
1.8325,-8.5714,1.8211,3.8003,-2.0065,6.571,0.89314,-0.0641,-1.0256,3.8003,-2.0065,0.91057,-2.9346,-6.6986,-4.7619,-5.8054,-3.9744,-14.418,13.27,-5.7971,-4.8485
1.8325,2.8571,5.7236,4.7665,0.90615,4.6571,-5.8054,2.8205,-1.0256,4.7665,0.90615,3.8374,-1.0207,-0.95694,-0.95238,0.89314,1.7949,-9.6332,-8.5308,-3.8647,1.8501
-0.06319,8.5714,5.7236,4.7665,4.7896,5.614,-5.8054,2.8205,1.859,4.7665,4.7896,4.813,-2.9346,-0.95694,-1.9048,2.807,2.7564,-1.0207,-18.009001,-6.7633,-0.0638
0.88468,4.7619,5.7236,3.8003,6.7314,4.6571,3.764,-0.0641,4.7436,3.8003,6.7314,4.813,-7.7193,-2.8708,-3.8095,2.807,1.7949,-0.0638,-3.7915,-8.6957,-2.9346
6.5719,1.9048,10.602,1.868,4.7896,3.7002,10.463,0.89744,4.7436,1.868,4.7896,5.7886,-7.7193,-0.95694,0.0,5.6778,3.7179,-3.8915,17.062,-4.8309,6.6348
15.103,3.8095,12.553,0.90177,2.8479,5.614,13.333,0.89744,4.7436,0.90177,2.8479,6.7642,-5.8054,0.95694,2.8571,6.6348,4.6795,-14.418,9.4787,-5.7971,4.7209
0.88468,-0.95238,4.748,4.7665,-0.06472,2.7432,3.764,0.89744,-1.0256,4.7665,-0.06472,2.8618,-5.8054,-1.9139,0.95238,-0.0638,0.83333,-1.0207,-1.8957,-0.96618,-9.6332
-0.06319,3.8095,3.7724,8.6312,-0.06472,3.7002,2.807,2.8205,-3.9103,8.6312,-0.06472,3.8374,1.8501,0.95694,3.8095,-0.0638,2.7564,9.5056,-14.218,3.8647,-7.7193
6.5719,2.8571,7.6748,4.7665,-2.0065,6.571,-1.0207,3.7821,-4.8718,4.7665,-2.0065,3.8374,5.6778,2.8708,6.6667,0.89314,5.641,9.5056,-16.114,5.7971,-11.547
9.4155,-5.7143,10.602,4.7665,0.90615,5.614,-16.332001,1.859,-6.7949,4.7665,0.90615,3.8374,6.6348,4.7847,8.5714,1.8501,7.5641,4.7209,-2.8436,6.7633,-1.9777
6.5719,-9.5238,3.7724,2.8341,-1.0356,0.82935,-9.6332,-0.0641,-6.7949,2.8341,-1.0356,-0.06504,3.764,1.9139,4.7619,-1.0207,2.7564,-2.9346,7.5829,0.0,11.419
0.88468,-11.429,-4.0325,3.8003,-2.9773,-2.0415,2.807,5.7051,-7.7564,3.8003,-2.9773,-1.0407,-1.9777,0.95694,-1.9048,-5.8054,-3.9744,-1.0207,-4.7393,-4.8309,-5.8054
1.8325,-4.7619,-0.13008,1.868,-1.0356,0.82935,-8.6762,3.7821,-5.8333,1.868,-1.0356,0.91057,-2.9346,1.9139,-0.95238,-3.8915,-3.9744,2.807,-20.853001,-1.9324,-14.418
10.363,0.0,7.6748,5.7327,1.877,3.7002,3.764,7.6282,-1.9872,5.7327,1.877,4.813,-2.9346,0.0,5.7143,-1.0207,-0.12821,13.333,1.8957,12.56,0.89314
12.259,0.0,7.6748,5.7327,1.877,6.571,10.463,5.7051,-1.0256,5.7327,1.877,4.813,-7.7193,-4.7847,3.8095,-1.0207,-2.0513,11.419,9.4787,6.7633,-0.0638
7.5197,4.7619,4.748,1.868,0.90615,7.5279,6.6348,2.8205,-3.9103,1.868,0.90615,4.813,-10.59,-7.6555,0.95238,0.89314,-2.0513,1.8501,-5.6872,-1.9324,-6.7624
3.7283,4.7619,5.7236,4.7665,0.90615,8.4848,-13.461,6.6667,-8.7179,4.7665,0.90615,5.7886,-9.6332,-9.5694,-0.95238,1.8501,-2.0513,5.6778,-5.6872,-3.8647,-8.6762
11.311,6.6667,11.577,7.6651,2.8479,14.226,-8.6762,7.6282,-2.9487,7.6651,2.8479,8.7154,-5.8054,-7.6555,0.95238,2.807,-0.12821,10.463,-37.915001,-4.8309,-3.8915
4.6761,1.9048,8.6504,3.8003,1.877,4.6571,8.5486,10.513,-0.0641,3.8003,1.877,7.7398,-3.8915,-6.6986,0.95238,-0.0638,-0.12821,7.5917,1.8957,2.8986,-1.9777
4.6761,-0.95238,4.748,2.8341,0.90615,-3.9553,11.419,4.7436,2.8205,2.8341,0.90615,4.813,0.89314,-1.9139,1.9048,0.89314,0.83333,-13.461,32.227001,0.0,-0.0638
-1.0111,2.8571,4.748,1.868,1.877,0.82935,14.29,-1.9872,4.7436,1.868,1.877,5.7886,0.89314,0.0,0.0,1.8501,0.83333,-9.6332,0.94787,-3.8647,5.6778
-1.0111,7.619,9.626,5.7327,8.6731,7.5279,13.333,1.859,4.7436,5.7327,8.6731,9.6911,0.89314,-2.8708,0.95238,0.89314,0.83333,2.807,6.6351,-1.9324,4.7209
4.6761,4.7619,9.626,3.8003,8.6731,10.399,3.764,-1.0256,1.859,3.8003,8.6731,9.6911,-3.8915,-4.7847,-0.95238,-1.9777,-2.0513,13.333,-10.427,0.0,-5.8054
3.7283,0.95238,5.7236,-0.06441,5.7605,4.6571,0.89314,-0.0641,-0.0641,-0.06441,5.7605,5.7886,-5.8054,-4.7847,-3.8095,-2.9346,-3.0128,15.247,-6.6351,3.8647,-6.7624
2.7804,2.8571,3.7724,1.868,3.8188,0.82935,-1.9777,0.89744,0.89744,1.868,3.8188,3.8374,-3.8915,-3.8278,-1.9048,-1.0207,-1.0897,-1.9777,-13.27,-1.9324,-7.7193
-6.6983,-0.95238,-1.1057,1.868,-0.06472,-3.9553,1.8501,-3.9103,-3.9103,1.868,-0.06472,0.91057,-7.7193,-5.7416,-6.6667,-4.8485,-3.9744,2.807,-2.8436,-7.7295,-1.9777
-0.06319,4.7619,3.7724,5.7327,3.8188,5.614,5.6778,-1.0256,-2.9487,5.7327,3.8188,5.7886,-3.8915,-5.7416,-2.8571,-1.9777,-1.0897,2.807,17.062,1.9324,8.5486
5.624,6.6667,9.626,4.7665,1.877,6.571,9.5056,2.8205,3.7821,4.7665,1.877,6.7642,-1.0207,-1.9139,0.95238,4.7209,2.7564,-16.332001,7.5829,1.9324,7.5917
6.5719,7.619,8.6504,1.868,2.8479,3.7002,3.764,-1.0256,2.8205,1.868,2.8479,4.813,-0.0638,0.0,0.95238,7.5917,3.7179,-8.6762,-3.7915,-1.9324,-1.9777
-1.0111,-1.9048,-3.0569,-3.9291,2.8479,-2.9984,-0.0638,-0.0641,-2.9487,-3.9291,2.8479,-2.9919,-3.8915,-3.8278,-2.8571,1.8501,-1.0897,3.764,-6.6351,0.0,-6.7624
-2.9068,-4.7619,-5.0081,0.90177,6.7314,-2.9984,-4.8485,1.859,0.89744,0.90177,6.7314,-3.9675,-1.9777,-3.8278,-0.95238,0.89314,-0.12821,2.807,6.6351,8.6957,0.89314
3.7283,1.9048,3.7724,5.7327,9.644,0.82935,-4.8485,0.89744,5.7051,5.7327,9.644,1.8862,3.764,2.8708,1.9048,6.6348,5.641,9.5056,10.427,4.8309,4.7209
-3.8547,0.0,1.8211,2.8341,2.8479,-4.9123,9.5056,-4.8718,0.89744,2.8341,2.8479,-2.0163,-0.0638,0.95694,-2.8571,3.764,1.7949,-2.9346,-21.801001,-7.7295,-1.0207
-1.9589,0.95238,-0.13008,-0.06441,-0.06472,-2.9984,-10.59,-2.9487,-3.9103,-0.06441,-0.06472,-3.9675,-1.9777,0.95694,-5.7143,2.807,-1.0897,-8.6762,-21.801001,-11.594,1.8501
-1.9589,2.8571,-1.1057,2.8341,0.90615,2.7432,-7.7193,0.89744,-1.9872,2.8341,0.90615,-2.0163,-1.9777,3.8278,-5.7143,1.8501,-1.0897,3.764,-2.8436,-7.7295,2.807
-3.8547,-5.7143,-2.0813,3.8003,3.8188,4.6571,10.463,4.7436,1.859,3.8003,3.8188,1.8862,-0.0638,2.8708,-0.95238,-1.9777,-0.12821,5.6778,14.218,4.8309,-5.8054
7.5197,-1.9048,3.7724,7.6651,5.7605,6.571,13.333,6.6667,3.7821,7.6651,5.7605,6.7642,1.8501,1.9139,7.619,0.89314,4.6795,2.807,1.8957,9.6618,1.8501
10.363,0.95238,7.6748,5.7327,5.7605,7.5279,-1.0207,5.7051,-0.0641,5.7327,5.7605,7.7398,-1.0207,-3.8278,6.6667,-0.0638,3.7179,-6.7624,-11.374,1.9324,-1.0207
10.363,6.6667,10.602,6.6989,6.7314,6.571,3.764,4.7436,3.7821,6.6989,6.7314,6.7642,3.764,0.95694,8.5714,4.7209,6.6026,6.6348,-1.8957,4.8309,-7.7193
3.7283,9.5238,5.7236,5.7327,3.8188,-0.12759,4.7209,1.859,4.7436,5.7327,3.8188,0.91057,3.764,3.8278,6.6667,7.5917,5.641,9.5056,16.114,11.594,-0.0638
-3.8547,4.7619,-2.0813,-1.9968,1.877,-7.7831,-6.7624,-4.8718,8.5897,-1.9968,1.877,-4.9431,2.807,2.8708,-0.95238,3.764,-0.12821,0.89314,12.322,-4.8309,1.8501
-8.594,1.9048,-5.9837,-3.9291,0.90615,-6.8262,-0.0638,-2.9487,6.6667,-3.9291,0.90615,-4.9431,-0.0638,1.9139,-8.5714,-1.0207,-5.8974,-1.0207,-7.5829,-14.493,-2.9346
-3.8547,-1.9048,-7.935,-2.963,-0.06472,-1.0845,9.5056,-0.0641,4.7436,-2.963,-0.06472,-2.9919,-4.8485,-0.95694,-11.429,-5.8054,-9.7436,0.89314,-1.8957,-8.6957,-2.9346
2.7804,1.9048,-5.9837,1.868,2.8479,0.82935,5.6778,1.859,5.7051,1.868,2.8479,-1.0407,-7.7193,-3.8278,-7.619,-5.8054,-8.7821,-7.7193,-11.374,3.8647,0.89314
-6.6983,-2.8571,-6.9593,4.7665,4.7896,-2.0415,-9.6332,4.7436,5.7051,4.7665,4.7896,-1.0407,-8.6762,-3.8278,-8.5714,-8.6762,-10.705,-9.6332,-13.27,-2.8986,-0.0638
-12.385,-16.190001,-13.789,4.7665,-0.06472,-7.7831,-7.7193,1.859,3.7821,4.7665,-0.06472,-4.9431,-9.6332,-7.6555,-13.333,-18.246,-14.551,-1.0207,14.218,-13.527,-10.59
-14.281,-12.381,-13.789,-1.9968,0.90615,-9.697,7.5917,1.859,2.8205,-1.9968,0.90615,-4.9431,-3.8915,-7.6555,-8.5714,-16.332001,-10.705,6.6348,18.009001,-4.8309,0.89314
-10.49,-8.5714,-9.8862,-0.06441,2.8479,-4.9123,-3.8915,2.8205,2.8205,-0.06441,2.8479,-3.9675,-1.9777,-6.6986,-3.8095,-11.547,-5.8974,7.5917,1.8957,-0.96618,-3.8915
-2.9068,-6.6667,-6.9593,-0.06441,1.877,-1.0845,0.89314,-0.0641,2.8205,-0.06441,1.877,-3.9675,-3.8915,-4.7847,-2.8571,-8.6762,-3.9744,1.8501,-4.7393,-0.96618,-8.6762
-5.7504,0.0,-10.862,-1.0306,-0.06472,-1.0845,2.807,-1.9872,0.89744,-1.0306,-0.06472,-4.9431,-5.8054,-3.8278,-6.6667,-6.7624,-6.859,-13.461,-57.82,-2.8986,8.5486
-12.385,-14.286,-21.593,-1.9968,1.877,-6.8262,-9.6332,-0.0641,-3.9103,-1.9968,1.877,-11.772,-8.6762,-8.6124,-13.333,-15.375,-14.551,0.89314,-9.4787,-6.7633,-8.6762
-8.594,-19.048,-19.642,-2.963,-2.0065,-7.7831,-9.6332,-1.9872,-2.9487,-2.963,-2.0065,-11.772,-7.7193,-7.6555,-13.333,-16.332001,-14.551,-4.8485,16.114,-11.594,-19.202999
-3.8547,-13.333,-12.813,-2.963,-1.0356,-2.9984,-15.375,-6.7949,1.859,-2.963,-1.0356,-6.8943,-4.8485,-2.8708,-11.429,-7.7193,-9.7436,0.89314,12.322,-5.7971,-9.6332
-4.8025,-4.7619,-7.935,-0.06441,6.7314,-1.0845,-1.0207,-4.8718,7.6282,-0.06441,6.7314,-2.9919,-1.0207,0.95694,-6.6667,1.8501,-3.9744,0.89314,13.27,-0.96618,8.5486
-12.385,-1.9048,-10.862,-0.06441,4.7896,-6.8262,10.463,-3.9103,6.6667,-0.06441,4.7896,-2.9919,-3.8915,0.0,-7.619,0.89314,-3.0128,-18.246,-15.166,-9.6618,23.860001
-12.385,-2.8571,-8.9106,-1.9968,3.8188,-8.74,4.7209,-5.8333,2.8205,-1.9968,3.8188,-5.9187,-5.8054,-0.95694,-5.7143,-3.8915,-3.0128,-12.504,-9.4787,-9.6618,0.89314
-1.9589,0.95238,-0.13008,-2.963,6.7314,-2.0415,5.6778,-5.8333,2.8205,-2.963,6.7314,-2.0163,-1.0207,1.9139,2.8571,-0.0638,0.83333,-12.504,18.957001,4.8309,-4.8485
-6.6983,-2.8571,-3.0569,-6.8277,0.90615,-9.697,4.7209,-13.526,0.89744,-6.8277,0.90615,-5.9187,-4.8485,-1.9139,-1.9048,-0.0638,-2.0513,-11.547,22.749001,-4.8309,1.8501
-6.6983,-3.8095,-3.0569,-9.7262,-0.06472,-12.568,-2.9346,-14.487,0.89744,-9.7262,-0.06472,-8.8455,-1.9777,0.95694,-3.8095,2.807,-1.0897,4.7209,0.0,-6.7633,2.807
-3.8547,8.5714,-4.0325,-10.692,-2.0065,-14.482,-12.504,-13.526,3.7821,-10.692,-2.0065,-9.8211,2.807,3.8278,0.0,6.6348,0.83333,5.6778,-16.114,4.8309,5.6778
-7.6461,-7.619,-9.8862,-9.7262,-9.7735,-17.351999,-11.547,-16.41,-2.9487,-9.7262,-9.7735,-15.675,2.807,0.0,-0.95238,-3.8915,-3.9744,-10.59,7.5829,-0.96618,-4.8485
-6.6983,-16.190001,-9.8862,-8.7601,-8.8026,-11.611,-13.461,-15.449,-1.9872,-8.7601,-8.8026,-13.724,7.5917,3.8278,0.95238,-3.8915,-2.0513,-14.418,31.280001,0.96618,7.5917
-8.594,-8.5714,-9.8862,-6.8277,-3.9482,-12.568,-12.504,-13.526,-1.0256,-6.8277,-3.9482,-11.772,4.7209,5.7416,1.9048,-1.9777,-3.0128,-5.8054,8.5308,6.7633,22.903
-7.6461,-2.8571,-5.9837,-7.7939,-2.9773,-7.7831,0.89314,-6.7949,3.7821,-7.7939,-2.9773,-5.9187,-0.0638,3.8278,-1.9048,-1.0207,-3.9744,-6.7624,-9.4787,1.9324,16.204
-0.06319,2.8571,0.84553,-1.9968,4.7896,1.7863,10.463,-1.0256,12.436,-1.9968,4.7896,-0.06504,1.8501,7.6555,-1.9048,3.764,-0.12821,-17.289,0.94787,-5.7971,2.807
-4.8025,1.9048,-3.0569,-3.9291,0.90615,-3.9553,2.807,-6.7949,6.6667,-3.9291,0.90615,-3.9675,-4.8485,3.8278,-6.6667,0.89314,-3.9744,-1.9777,18.009001,-11.594,7.5917
-2.9068,5.7143,-3.0569,-3.9291,-2.9773,-2.9984,-7.7193,-8.7179,4.7436,-3.9291,-2.9773,-3.9675,-7.7193,1.9139,-4.7619,0.89314,-3.9744,1.8501,13.27,-3.8647,4.7209
-0.06319,7.619,2.7967,-0.06441,0.90615,-2.9984,-8.6762,-3.9103,6.6667,-0.06441,0.90615,0.91057,-7.7193,1.9139,-0.95238,4.7209,-0.12821,-3.8915,21.801001,-5.7971,9.5056
1.8325,5.7143,3.7724,1.868,-1.0356,0.82935,3.764,-1.9872,8.5897,1.868,-1.0356,1.8862,-7.7193,-2.8708,0.95238,2.807,-1.0897,-7.7193,-2.8436,-7.7295,4.7209
8.4676,4.7619,7.6748,6.6989,4.7896,9.4418,14.29,3.7821,13.397,6.6989,4.7896,6.7642,-5.8054,-2.8708,6.6667,4.7209,1.7949,-2.9346,0.94787,6.7633,8.5486
4.6761,2.8571,0.84553,-0.06441,0.90615,4.6571,-1.9777,-4.8718,8.5897,-0.06441,0.90615,2.8618,-9.6332,-5.7416,-0.95238,0.89314,-3.0128,-29.729,9.4787,-4.8309,12.376
-5.7504,5.7143,-5.0081,-3.9291,-2.0065,-0.12759,4.7209,-7.7564,5.7051,-3.9291,-2.0065,-0.06504,-12.504,-7.6555,-9.5238,-2.9346,-8.7821,-4.8485,21.801001,-17.391001,3.764
-3.8547,2.8571,-5.0081,0.90177,0.90615,-2.0415,10.463,-1.9872,7.6282,0.90177,0.90615,1.8862,-11.547,-10.526,-7.619,-5.8054,-10.705,15.247,10.427,-9.6618,0.89314
-5.7504,-0.95238,-5.0081,4.7665,5.7605,-1.0845,4.7209,0.89744,7.6282,4.7665,5.7605,0.91057,-4.8485,-9.5694,-2.8571,-5.8054,-7.8205,1.8501,9.4787,-0.96618,-0.0638
-3.8547,0.0,-4.0325,4.7665,7.7023,-2.9984,-13.461,1.859,6.6667,4.7665,7.7023,-2.0163,1.8501,-4.7847,2.8571,-2.9346,-1.0897,-1.9777,5.6872,10.628,-1.0207
0.88468,0.95238,-1.1057,1.868,4.7896,1.7863,0.89314,2.8205,5.7051,1.868,4.7896,-1.0407,4.7209,-0.95694,5.7143,1.8501,2.7564,-12.504,-9.4787,5.7971,6.6348
2.7804,4.7619,1.8211,0.90177,0.90615,5.614,10.463,1.859,1.859,0.90177,0.90615,1.8862,5.6778,-0.95694,4.7619,2.807,3.7179,-7.7193,-8.5308,0.0,-5.8054
-0.06319,-4.7619,0.84553,-0.06441,-2.9773,-0.12759,-6.7624,2.8205,-4.8718,-0.06441,-2.9773,-2.0163,1.8501,-3.8278,1.9048,-1.9777,-0.12821,8.5486,-2.8436,0.96618,-13.461
-4.8025,-8.5714,-4.0325,-1.9968,-2.9773,-4.9123,-1.0207,-1.0256,-2.9487,-1.9968,-2.9773,-2.9919,-4.8485,-4.7847,-3.8095,-6.7624,-4.9359,15.247,-21.801001,-7.7295,-9.6332
1.8325,-7.619,-2.0813,-1.0306,-4.9191,-2.9984,-4.8485,-1.9872,-2.9487,-1.0306,-4.9191,-1.0407,-3.8915,-0.95694,0.0,-3.8915,-2.0513,4.7209,18.957001,-2.8986,0.89314
5.624,-7.619,-1.1057,-0.06441,-2.9773,0.82935,-13.461,2.8205,-4.8718,-0.06441,-2.9773,-0.06504,-1.9777,1.9139,1.9048,-3.8915,-2.0513,5.6778,20.853001,4.8309,-1.0207
15.103,-0.95238,-3.0569,-1.9968,-0.06472,3.7002,-3.8915,5.7051,-1.9872,-1.9968,-0.06472,1.8862,2.807,4.7847,4.7619,-1.9777,-1.0897,-3.8915,-18.957001,14.493,-7.7193
0.88468,-6.6667,-8.9106,-6.8277,-3.9482,-2.9984,0.89314,3.7821,-1.9872,-6.8277,-3.9482,-3.9675,-0.0638,3.8278,-1.9048,-6.7624,-4.9359,3.764,-7.5829,4.8309,-1.9777
-17.125,-15.238,-12.813,-9.7262,-10.744,-10.654,-4.8485,3.7821,-5.8333,-9.7262,-10.744,-11.772,-7.7193,-4.7847,-8.5714,-13.461,-11.667,13.333,-5.6872,-3.8647,-9.6332
-6.6983,-9.5238,-8.9106,-10.692,-9.7735,-6.8262,-9.6332,-1.0256,-7.7564,-10.692,-9.7735,-8.8455,-8.6762,-7.6555,-5.7143,-12.504,-11.667,0.89314,11.374,-1.9324,-6.7624
2.7804,-9.5238,-5.9837,-2.963,-7.8317,1.7863,-12.504,0.89744,-6.7949,-2.963,-7.8317,-3.9675,-5.8054,-6.6986,-1.9048,-10.59,-8.7821,19.075001,9.4787,-0.96618,-7.7193
4.6761,-4.7619,-5.0081,0.90177,-4.9191,6.571,-0.0638,7.6282,1.859,0.90177,-4.9191,0.91057,-3.8915,-0.95694,0.95238,-5.8054,-6.859,0.89314,-12.322,3.8647,4.7209
-2.9068,1.9048,-5.9837,-2.963,-7.8317,-0.12759,-7.7193,2.8205,-0.0641,-2.963,-7.8317,-0.06504,-4.8485,-3.8278,-1.9048,-5.8054,-8.7821,-5.8054,-18.009001,6.7633,4.7209
-8.594,-0.95238,-6.9593,-9.7262,-13.657,-6.8262,-3.8915,-1.9872,-4.8718,-9.7262,-13.657,-2.9919,-7.7193,-8.6124,-6.6667,-8.6762,-10.705,12.376,-10.427,1.9324,-11.547
-5.7504,-6.6667,-6.9593,-7.7939,-8.8026,-5.8692,0.89314,-1.0256,-2.9487,-7.7939,-8.8026,-2.9919,-6.7624,-5.7416,-4.7619,-8.6762,-10.705,-0.0638,26.540001,0.96618,-1.9777
-1.9589,-5.7143,-8.9106,-2.963,-3.9482,-5.8692,-1.0207,0.89744,-0.0641,-2.963,-3.9482,-4.9431,-5.8054,-3.8278,-5.7143,-8.6762,-11.667,-0.0638,25.591999,5.7971,-0.0638
-5.7504,-0.95238,-10.862,-3.9291,-3.9482,-4.9123,-2.9346,-1.0256,-0.0641,-3.9291,-3.9482,-4.9431,-6.7624,-2.8708,-10.476,-7.7193,-12.628,5.6778,0.0,-7.7295,0.89314
-4.8025,0.0,-9.8862,-2.963,-3.9482,-1.0845,-2.9346,-1.0256,-3.9103,-2.963,-3.9482,-4.9431,-3.8915,0.0,-8.5714,-4.8485,-7.8205,5.6778,-17.062,-9.6618,10.463
-3.8547,-6.6667,-9.8862,-2.963,-5.89,-5.8692,-14.418,-0.0641,-3.9103,-2.963,-5.89,-8.8455,-6.7624,0.0,-6.6667,-5.8054,-6.859,-4.8485,-29.384001,-1.9324,3.764
-11.438,-10.476,-8.9106,-1.0306,-7.8317,-8.74,-15.375,-1.0256,-6.7949,-1.0306,-7.8317,-8.8455,-5.8054,0.0,-7.619,-4.8485,-6.859,-3.8915,9.4787,0.0,-5.8054
-9.5419,-4.7619,-4.0325,-6.8277,-8.8026,-5.8692,-15.375,-5.8333,-9.6795,-6.8277,-8.8026,-6.8943,-2.9346,0.95694,-7.619,-1.9777,-3.9744,3.764,8.5308,-4.8309,-5.8054
-4.8025,0.95238,0.84553,-4.8953,-8.8026,-5.8692,2.807,-2.9487,-1.9872,-4.8953,-8.8026,-3.9675,-4.8485,0.95694,-7.619,1.8501,-3.0128,0.89314,9.4787,-8.6957,2.807
-2.9068,2.8571,0.84553,-0.06441,-2.9773,-2.0415,10.463,2.8205,-1.0256,-0.06441,-2.9773,-2.0163,-2.9346,1.9139,-4.7619,3.764,-1.0897,-1.9777,7.5829,1.9324,5.6778
-3.8547,4.7619,-3.0569,0.90177,-3.9482,-1.0845,0.89314,-0.0641,-4.8718,0.90177,-3.9482,-2.9919,-2.9346,2.8708,-3.8095,6.6348,-0.12821,-1.9777,-14.218,-1.9324,6.6348
-1.9589,6.6667,-1.1057,-1.0306,-2.0065,-2.0415,-0.0638,0.89744,-2.9487,-1.0306,-2.0065,-3.9675,-3.8915,2.8708,-0.95238,10.463,4.6795,-2.9346,-29.384001,-7.7295,7.5917
-3.8547,1.9048,1.8211,-2.963,0.90615,-4.9123,-2.9346,-1.9872,-1.9872,-2.963,0.90615,-5.9187,-2.9346,3.8278,0.95238,11.419,7.5641,-0.0638,10.427,-8.6957,10.463
-9.5419,-5.7143,-0.13008,-5.8615,-2.0065,-10.654,-13.461,-4.8718,-1.0256,-5.8615,-2.0065,-8.8455,-2.9346,2.8708,-1.9048,7.5917,5.641,-0.0638,35.070999,-6.7633,1.8501
-3.8547,0.95238,2.7967,-7.7939,-1.0356,-4.9123,-5.8054,-1.9872,-1.9872,-7.7939,-1.0356,-5.9187,1.8501,5.7416,0.0,9.5056,6.6026,5.6778,25.591999,1.9324,0.89314
6.5719,5.7143,3.7724,-2.963,-0.06472,0.82935,8.5486,-1.9872,-3.9103,-2.963,-0.06472,-0.06504,6.6348,8.6124,2.8571,10.463,8.5256,4.7209,14.218,11.594,16.204
0.88468,1.9048,1.8211,2.8341,-0.06472,2.7432,3.764,-1.9872,-3.9103,2.8341,-0.06472,0.91057,7.5917,6.6986,0.95238,6.6348,6.6026,-16.332001,-2.8436,10.628,10.463
0.88468,0.0,3.7724,1.868,0.90615,2.7432,-3.8915,-4.8718,-0.0641,1.868,0.90615,1.8862,8.5486,6.6986,0.95238,6.6348,5.641,-11.547,3.7915,-1.9324,8.5486
1.8325,6.6667,5.7236,-2.963,-2.9773,1.7863,7.5917,-1.9872,-1.0256,-2.963,-2.9773,2.8618,7.5917,2.8708,0.95238,6.6348,4.6795,5.6778,-3.7915,-0.96618,17.160999
-3.8547,1.9048,4.748,-5.8615,-1.0356,-0.12759,-1.9777,-2.9487,-1.9872,-5.8615,-1.0356,2.8618,3.764,-0.95694,-3.8095,0.89314,-0.12821,0.89314,-20.853001,-7.7295,3.764
-1.0111,5.7143,5.7236,-2.963,3.8188,3.7002,8.5486,-1.0256,-1.9872,-2.963,3.8188,7.7398,6.6348,0.95694,0.0,0.89314,1.7949,1.8501,-18.957001,-0.96618,-9.6332
-4.8025,0.95238,-0.13008,-1.0306,0.90615,-2.0415,11.419,-1.0256,-3.9103,-1.0306,0.90615,3.8374,7.5917,3.8278,0.0,0.89314,3.7179,-2.9346,9.4787,3.8647,-3.8915
-2.9068,-3.8095,-3.0569,-3.9291,-1.0356,-2.9984,7.5917,-5.8333,-6.7949,-3.9291,-1.0356,0.91057,7.5917,7.6555,-1.9048,1.8501,2.7564,-5.8054,24.645,0.96618,0.89314
2.7804,4.7619,1.8211,-1.0306,-0.06472,2.7432,13.333,-3.9103,0.89744,-1.0306,-0.06472,3.8374,9.5056,8.6124,1.9048,5.6778,5.641,-5.8054,4.7393,2.8986,-1.0207
0.88468,7.619,2.7967,-3.9291,-1.0356,0.82935,9.5056,-4.8718,1.859,-3.9291,-1.0356,3.8374,9.5056,7.6555,2.8571,7.5917,7.5641,-5.8054,10.427,0.0,2.807
-1.9589,13.333,4.748,-6.8277,-2.0065,-0.12759,5.6778,-7.7564,-1.0256,-6.8277,-2.0065,4.813,13.333,11.483,4.7619,13.333,13.333,0.89314,2.8436,1.9324,11.419
16.051001,20.952,14.504,0.90177,-0.06472,9.4418,9.5056,-7.7564,-0.0641,0.90177,-0.06472,9.6911,18.118,15.311,12.381,20.989,19.103001,-1.9777,-29.384001,11.594,13.333
16.997999,18.094999,20.358,10.564,6.7314,13.27,6.6348,3.7821,2.8205,10.564,6.7314,11.642,19.075001,15.311,17.143,22.903,21.987,-1.9777,0.94787,13.527,11.419
6.5719,15.238,13.528,8.6312,5.7605,8.4848,6.6348,9.5513,-0.0641,8.6312,5.7605,7.7398,17.160999,13.397,13.333,20.032,18.141001,11.419,-5.6872,12.56,16.204
-0.06319,4.7619,3.7724,0.90177,-1.0356,-0.12759,2.807,0.89744,-1.9872,0.90177,-1.0356,1.8862,12.376,9.5694,6.6667,10.463,10.449,4.7209,3.7915,8.6957,0.89314
7.5197,2.8571,8.6504,0.90177,2.8479,6.571,8.5486,0.89744,-1.9872,0.90177,2.8479,5.7886,12.376,9.5694,8.5714,9.5056,12.372,-17.289,29.384001,4.8309,-4.8485
12.259,9.5238,16.455,4.7665,2.8479,12.313,20.989,1.859,2.8205,4.7665,2.8479,13.593,13.333,7.6555,8.5714,11.419,13.333,-1.0207,0.94787,-1.9324,0.89314
12.259,9.5238,16.455,5.7327,0.90615,13.27,11.419,4.7436,-1.0256,5.7327,0.90615,12.618,12.376,4.7847,10.476,8.5486,12.372,15.247,-20.853001,5.7971,-0.0638
14.155,13.333,16.455,9.5974,2.8479,13.27,1.8501,8.5897,-1.9872,9.5974,2.8479,13.593,12.376,4.7847,12.381,7.5917,12.372,9.5056,-15.166,11.594,3.764
18.893999,13.333,20.358,10.564,3.8188,16.139999,6.6348,9.5513,4.7436,10.564,3.8188,17.496,10.463,3.8278,13.333,8.5486,14.295,5.6778,10.427,13.527,3.764
16.051001,8.5714,21.333,6.6989,7.7023,17.097,-1.0207,2.8205,4.7436,6.6989,7.7023,17.496,5.6778,2.8708,11.429,7.5917,13.333,6.6348,8.5308,5.7971,-0.0638
20.790001,10.476,20.358,4.7665,10.615,13.27,8.5486,-0.0641,5.7051,4.7665,10.615,17.496,5.6778,1.9139,13.333,5.6778,11.41,7.5917,3.7915,5.7971,-1.9777
11.311,7.619,15.48,3.8003,8.6731,9.4418,17.160999,10.513,4.7436,3.8003,8.6731,13.593,3.764,-2.8708,8.5714,1.8501,8.5256,6.6348,-17.062,5.7971,-9.6332
11.311,5.7143,13.528,9.5974,5.7605,16.139999,20.989,16.282,5.7051,9.5974,5.7605,14.569,2.807,0.0,6.6667,-0.0638,7.5641,2.807,-8.5308,-0.96618,-18.246
13.207,5.7143,14.504,17.327,10.615,19.968,19.075001,18.205,11.474,17.327,10.615,17.496,2.807,1.9139,7.619,1.8501,7.5641,16.204,-3.7915,2.8986,-6.7624
12.259,8.5714,13.528,17.327,16.440001,16.139999,5.6778,17.243999,11.474,17.327,16.440001,16.52,3.764,3.8278,9.5238,4.7209,6.6026,14.29,-29.384001,14.493,6.6348
14.155,10.476,9.626,11.53,15.469,12.313,6.6348,14.359,7.6282,11.53,15.469,13.593,3.764,3.8278,8.5714,2.807,4.6795,-4.8485,0.0,5.7971,1.8501
2.7804,-1.9048,2.7967,10.564,7.7023,9.4418,1.8501,6.6667,4.7436,10.564,7.7023,6.7642,-0.0638,0.0,0.95238,-1.9777,-0.12821,-8.6762,16.114,-7.7295,-10.59
-3.8547,-10.476,-5.0081,7.6651,4.7896,6.571,-3.8915,-1.9872,-0.0641,7.6651,4.7896,0.91057,-6.7624,-6.6986,-6.6667,-7.7193,-7.8205,-10.59,4.7393,-4.8309,-8.6762
3.7283,0.0,1.8211,12.496,9.644,10.399,7.5917,7.6282,4.7436,12.496,9.644,6.7642,-2.9346,-0.95694,0.0,-0.0638,-2.0513,12.376,4.7393,2.8986,8.5486
-2.9068,-4.7619,-2.0813,5.7327,6.7314,4.6571,7.5917,8.5897,7.6282,5.7327,6.7314,2.8618,-7.7193,-5.7416,-3.8095,-7.7193,-4.9359,16.204,-1.8957,-9.6618,-2.9346
-5.7504,-13.333,-4.0325,0.90177,1.877,-2.9984,-1.0207,1.859,2.8205,0.90177,1.877,-0.06504,-11.547,-11.483,-4.7619,-13.461,-7.8205,0.89314,-4.7393,-9.6618,-17.289
1.8325,-6.6667,2.7967,4.7665,6.7314,4.6571,-5.8054,4.7436,0.89744,4.7665,6.7314,6.7642,-7.7193,-9.5694,-0.95238,-7.7193,-2.0513,-0.0638,7.5829,-3.8647,-5.8054
4.6761,10.476,4.748,6.6989,7.7023,9.4418,-1.0207,1.859,-0.0641,6.6989,7.7023,8.7154,-5.8054,-7.6555,-2.8571,-3.8915,-3.0128,-6.7624,-28.436001,0.0,5.6778
-3.8547,0.0,-0.13008,6.6989,10.615,6.571,0.89314,0.89744,1.859,6.6989,10.615,4.813,-1.9777,-1.9139,-6.6667,-3.8915,-3.0128,-13.461,-6.6351,-4.8309,-2.9346
-11.438,-12.381,-6.9593,3.8003,6.7314,0.82935,-9.6332,0.89744,1.859,3.8003,6.7314,-1.0407,-1.0207,-0.95694,-13.333,-3.8915,-3.0128,-14.418,14.218,-17.391001,-8.6762
-2.9068,-7.619,-7.935,0.90177,1.877,-2.9984,-2.9346,-4.8718,-0.0641,0.90177,1.877,-3.9675,-1.9777,0.0,-12.381,-1.0207,-3.0128,-8.6762,-0.94787,-16.424999,-1.0207
-4.8025,-2.8571,-5.9837,-0.06441,1.877,-2.9984,1.8501,-3.9103,3.7821,-0.06441,1.877,-4.9431,-1.0207,3.8278,-5.7143,0.89314,-0.12821,-4.8485,-3.7915,-7.7295,9.5056
-10.49,-5.7143,-5.9837,-1.9968,-2.0065,-4.9123,-5.8054,0.89744,-0.0641,-1.9968,-2.0065,-8.8455,-0.0638,3.8278,-3.8095,-1.0207,-1.0897,3.764,6.6351,-4.8309,7.5917
-6.6983,-7.619,-5.0081,-3.9291,-3.9482,-6.8262,-17.289,1.859,-2.9487,-3.9291,-3.9482,-10.797,1.8501,3.8278,-0.95238,-1.9777,-0.12821,-16.332001,10.427,-2.8986,4.7209
-6.6983,-8.5714,-9.8862,-1.0306,-1.0356,-7.7831,-6.7624,-1.0256,3.7821,-1.0306,-1.0356,-12.748,-0.0638,1.9139,-3.8095,-3.8915,-3.9744,-10.59,6.6351,-4.8309,4.7209
-8.594,-4.7619,-13.789,-5.8615,-7.8317,-8.74,-4.8485,-5.8333,0.89744,-5.8615,-7.8317,-14.699,-4.8485,-3.8278,-9.5238,-8.6762,-9.7436,5.6778,-31.280001,-4.8309,-7.7193
-2.9068,-5.7143,-5.9837,-3.9291,-7.8317,-3.9553,-10.59,-2.9487,-2.9487,-3.9291,-7.8317,-9.8211,-6.7624,-4.7847,-5.7143,-7.7193,-7.8205,7.5917,-9.4787,-6.7633,-4.8485
2.7804,-5.7143,1.8211,-0.06441,-2.9773,-2.0415,-13.461,1.859,2.8205,-0.06441,-2.9773,-3.9675,-4.8485,-3.8278,0.0,-5.8054,-3.0128,6.6348,24.645,-1.9324,-0.0638
-1.0111,-5.7143,1.8211,-5.8615,-10.744,-5.8692,-1.9777,0.89744,-0.0641,-5.8615,-10.744,-2.9919,-5.8054,-5.7416,-0.95238,-5.8054,-3.9744,4.7209,11.374,2.8986,-6.7624
2.7804,-1.9048,0.84553,-4.8953,-11.715,-3.9553,7.5917,1.859,-1.9872,-4.8953,-11.715,-1.0407,-5.8054,-4.7847,-1.9048,-1.9777,-3.0128,-8.6762,-20.853001,0.96618,-3.8915
3.7283,-6.6667,-1.1057,-3.9291,-4.9191,2.7432,-1.9777,-1.9872,-2.9487,-3.9291,-4.9191,-2.0163,-2.9346,-3.8278,-1.9048,-3.8915,-3.0128,-9.6332,7.5829,-9.6618,-6.7624
2.7804,-2.8571,3.7724,0.90177,-2.0065,6.571,1.8501,0.89744,-3.9103,0.90177,-2.0065,1.8862,1.8501,1.9139,2.8571,-1.9777,0.83333,-4.8485,-0.94787,-2.8986,-5.8054
6.5719,1.9048,5.7236,-0.06441,-5.89,5.614,6.6348,4.7436,-1.0256,-0.06441,-5.89,3.8374,4.7209,6.6986,5.7143,-0.0638,1.7949,9.5056,-25.591999,2.8986,-6.7624
2.7804,-4.7619,-0.13008,-1.0306,-8.8026,-0.12759,-2.9346,1.859,-8.7179,-1.0306,-8.8026,-2.0163,-0.0638,1.9139,0.0,-4.8485,-3.0128,10.463,-0.94787,-3.8647,-4.8485
1.8325,0.0,1.8211,4.7665,-6.8608,4.6571,-4.8485,3.7821,-7.7564,4.7665,-6.8608,0.91057,1.8501,0.0,2.8571,-0.0638,0.83333,8.5486,10.427,0.96618,7.5917
8.4676,1.9048,5.7236,10.564,-1.0356,11.356,2.807,9.5513,-2.9487,10.564,-1.0356,7.7398,3.764,1.9139,6.6667,3.764,5.641,-4.8485,13.27,2.8986,4.7209
8.4676,0.0,6.6992,7.6651,-2.0065,5.614,-11.547,10.513,-6.7949,7.6651,-2.0065,6.7642,0.89314,-0.95694,7.619,4.7209,5.641,-12.504,-11.374,3.8647,-11.547
3.7283,4.7619,7.6748,0.90177,-4.9191,3.7002,-1.9777,4.7436,-5.8333,0.90177,-4.9191,3.8374,-2.9346,-2.8708,3.8095,5.6778,4.6795,5.6778,-13.27,-0.96618,-14.418
4.6761,1.9048,10.602,-1.0306,-2.9773,2.7432,13.333,-4.8718,-4.8718,-1.0306,-2.9773,4.813,-2.9346,0.0,-0.95238,5.6778,4.6795,11.419,0.0,-7.7295,-13.461
8.4676,7.619,14.504,2.8341,3.8188,6.571,12.376,-1.0256,1.859,2.8341,3.8188,6.7642,5.6778,8.6124,2.8571,13.333,10.449,0.89314,3.7915,-6.7633,6.6348
-5.7504,0.95238,0.84553,-0.06441,-3.9482,-2.9984,0.89314,-1.0256,-0.0641,-0.06441,-3.9482,-2.0163,2.807,4.7847,-0.95238,8.5486,4.6795,-1.9777,-6.6351,-1.9324,4.7209
-13.333,1.9048,-11.837,-4.8953,-7.8317,-9.697,-16.332001,-2.9487,-5.8333,-4.8953,-7.8317,-11.772,-1.9777,0.95694,-1.9048,3.764,-0.12821,-7.7193,-23.697001,2.8986,1.8501
-6.6983,-1.9048,-12.813,-6.8277,-7.8317,-9.697,-18.246,-1.9872,-7.7564,-6.8277,-7.8317,-14.699,-1.0207,2.8708,0.0,2.807,-1.0897,-15.375,-11.374,-2.8986,5.6778
-2.9068,-10.476,-10.862,-4.8953,-6.8608,-9.697,-17.289,-1.0256,-0.0641,-4.8953,-6.8608,-13.724,-0.0638,2.8708,0.0,-1.0207,-2.0513,-8.6762,17.062,-1.9324,-1.0207
-1.9589,-10.476,-10.862,-3.9291,-4.9191,-5.8692,-6.7624,-1.9872,3.7821,-3.9291,-4.9191,-11.772,-2.9346,0.95694,-2.8571,-3.8915,-4.9359,1.8501,33.174999,8.6957,3.764
-1.0111,-12.381,-14.764,-7.7939,-9.7735,-5.8692,-8.6762,-7.7564,-0.0641,-7.7939,-9.7735,-13.724,-2.9346,0.0,-6.6667,-7.7193,-7.8205,4.7209,18.009001,-7.7295,-1.9777
-15.229,-10.476,-18.667,-7.7939,-7.8317,-11.611,-10.59,-6.7949,0.89744,-7.7939,-7.8317,-15.675,-1.0207,1.9139,-10.476,-9.6332,-7.8205,0.89314,-18.009001,-17.391001,-9.6332
-10.49,-2.8571,-11.837,-3.9291,-3.9482,-9.697,-3.8915,-2.9487,2.8205,-3.9291,-3.9482,-10.797,1.8501,4.7847,-6.6667,-7.7193,-5.8974,-7.7193,-15.166,-1.9324,-5.8054
-2.9068,-5.7143,-4.0325,-2.963,-2.0065,-4.9123,-1.0207,-1.0256,3.7821,-2.963,-2.0065,-3.9675,0.89314,1.9139,-6.6667,-7.7193,-6.859,-21.115999,-2.8436,-4.8309,0.89314
-16.177,-7.619,-10.862,-5.8615,-2.9773,-8.74,-14.418,-3.9103,2.8205,-5.8615,-2.9773,-7.8699,-7.7193,-9.5694,-20.0,-15.375,-16.474001,-13.461,5.6872,-13.527,-3.8915
-19.968,-12.381,-17.691,-11.659,-5.89,-16.396,-20.159,-8.7179,1.859,-11.659,-5.89,-11.772,-13.461,-14.354,-22.857,-17.289,-20.320999,2.807,8.5308,-13.527,-4.8485
-4.8025,-6.6667,-6.9593,-4.8953,0.90615,-10.654,2.807,-5.8333,9.5513,-4.8953,0.90615,-2.9919,-4.8485,-6.6986,-4.7619,-5.8054,-6.859,9.5056,-12.322,2.8986,1.8501
-2.9068,-5.7143,-5.9837,-8.7601,-2.0065,-9.697,5.6778,-6.7949,6.6667,-8.7601,-2.0065,-7.8699,-10.59,-12.44,-0.95238,-7.7193,-7.8205,2.807,-3.7915,0.96618,-8.6762
-1.9589,-8.5714,-10.862,-11.659,-2.0065,-9.697,-4.8485,-10.641,4.7436,-11.659,-2.0065,-9.8211,-14.418,-14.354,-1.9048,-8.6762,-9.7436,1.8501,21.801001,-2.8986,-10.59
-0.06319,-1.9048,-8.9106,-5.8615,-0.06472,-7.7831,-4.8485,-9.6795,9.5513,-5.8615,-0.06472,-3.9675,-10.59,-10.526,0.95238,-2.9346,-6.859,-15.375,6.6351,-4.8309,-6.7624
-6.6983,9.5238,-5.0081,-1.9968,6.7314,-9.697,2.807,-11.603,9.5513,-1.9968,6.7314,-0.06504,-1.0207,-2.8708,2.8571,1.8501,-0.12821,-8.6762,-2.8436,-2.8986,3.764
-7.6461,7.619,-5.0081,-2.963,8.6731,-10.654,6.6348,-12.564,6.6667,-2.963,8.6731,-1.0407,6.6348,3.8278,6.6667,4.7209,3.7179,-1.9777,-18.957001,7.7295,8.5486
0.88468,0.0,-5.9837,-4.8953,3.8188,-8.74,3.764,-11.603,2.8205,-4.8953,3.8188,-3.9675,2.807,0.95694,2.8571,1.8501,0.83333,-1.9777,-13.27,4.8309,-1.0207
-12.385,-8.5714,-10.862,-3.9291,-0.06472,-10.654,-0.0638,-11.603,-1.9872,-3.9291,-0.06472,-6.8943,2.807,0.0,-3.8095,-1.9777,-3.0128,5.6778,12.322,5.7971,-1.0207
-13.333,-11.429,-8.9106,-1.0306,1.877,-4.9123,-1.9777,-4.8718,-0.0641,-1.0306,1.877,-6.8943,10.463,6.6986,0.0,2.807,4.6795,7.5917,23.697001,11.594,3.764
-5.7504,-7.619,-2.0813,3.8003,2.8479,1.7863,-3.8915,-3.9103,-1.0256,3.8003,2.8479,-3.9675,15.247,8.6124,5.7143,6.6348,10.449,1.8501,10.427,6.7633,1.8501
-0.06319,0.0,0.84553,6.6989,1.877,2.7432,-9.6332,-1.0256,-2.9487,6.6989,1.877,0.91057,14.29,9.5694,7.619,6.6348,11.41,-1.9777,-0.94787,5.7971,1.8501
14.155,0.95238,4.748,7.6651,-0.06472,4.6571,-10.59,-1.0256,-7.7564,7.6651,-0.06472,2.8618,13.333,7.6555,13.333,4.7209,10.449,4.7209,-18.009001,13.527,-2.9346
6.5719,-1.9048,0.84553,6.6989,1.877,4.6571,-1.0207,4.7436,-6.7949,6.6989,1.877,0.91057,11.419,6.6986,12.381,-0.0638,7.5641,17.160999,-5.6872,22.222,-2.9346
2.7804,-4.7619,-2.0813,4.7665,0.90615,5.614,-9.6332,7.6282,-3.9103,4.7665,0.90615,-1.0407,11.419,4.7847,8.5714,-4.8485,2.7564,2.807,-4.7393,11.594,-1.0207
5.624,0.0,-2.0813,4.7665,2.8479,3.7002,1.8501,5.7051,-3.9103,4.7665,2.8479,-1.0407,14.29,5.7416,8.5714,-2.9346,3.7179,2.807,-24.645,0.96618,-1.9777
3.7283,-0.95238,-3.0569,9.5974,5.7605,7.5279,9.5056,5.7051,-0.0641,9.5974,5.7605,1.8862,13.333,7.6555,5.7143,-1.0207,3.7179,10.463,2.8436,5.7971,-1.9777
7.5197,-6.6667,-1.1057,13.462,6.7314,11.356,2.807,11.474,0.89744,13.462,6.7314,4.813,9.5056,5.7416,1.9048,-1.9777,1.7949,8.5486,19.905001,3.8647,3.764
2.7804,-8.5714,-1.1057,9.5974,4.7896,12.313,3.764,7.6282,-3.9103,9.5974,4.7896,4.813,6.6348,3.8278,-2.8571,-3.8915,-2.0513,-1.0207,17.062,0.96618,9.5056
-1.9589,-9.5238,-5.0081,7.6651,0.90615,8.4848,-5.8054,5.7051,-5.8333,7.6651,0.90615,0.91057,-1.0207,-1.9139,-8.5714,-7.7193,-8.7821,-6.7624,-13.27,-3.8647,-9.6332
-3.8547,-8.5714,-9.8862,5.7327,2.8479,0.82935,-24.944,9.5513,-4.8718,5.7327,2.8479,-3.9675,-6.7624,-2.8708,-12.381,-8.6762,-12.628,10.463,-23.697001,-3.8647,-9.6332
-11.438,-12.381,-15.74,0.90177,-7.8317,-6.8262,-23.987,8.5897,-9.6795,0.90177,-7.8317,-10.797,-9.6332,-3.8278,-14.286,-10.59,-16.474001,7.5917,-18.009001,-5.7971,-11.547
-5.7504,-14.286,-12.813,-1.0306,-4.9191,-2.0415,2.807,4.7436,-5.8333,-1.0306,-4.9191,-7.8699,-7.7193,-6.6986,-8.5714,-9.6332,-14.551,2.807,5.6872,-5.7971,-18.246
-1.9589,-6.6667,-6.9593,-1.9968,3.8188,1.7863,7.5917,2.8205,-1.9872,-1.9968,3.8188,-2.9919,-7.7193,-8.6124,-4.7619,-6.7624,-10.705,-4.8485,-10.427,0.0,-15.375
-4.8025,1.9048,-3.0569,-1.9968,2.8479,0.82935,5.6778,-1.0256,-1.0256,-1.9968,2.8479,0.91057,-7.7193,-8.6124,-7.619,-3.8915,-9.7436,-3.8915,-31.280001,-0.96618,-11.547
-10.49,-2.8571,-6.9593,-1.0306,-2.0065,-2.9984,1.8501,-3.9103,-1.9872,-1.0306,-2.0065,-2.0163,-6.7624,-10.526,-9.5238,-4.8485,-9.7436,5.6778,15.166,-5.7971,2.807
-7.6461,-5.7143,-8.9106,-4.8953,-2.0065,-5.8692,-2.9346,-1.9872,-3.9103,-4.8953,-2.0065,-2.0163,-3.8915,-5.7416,-5.7143,-4.8485,-6.859,0.89314,4.7393,-4.8309,8.5486
-5.7504,-2.8571,-3.0569,-6.8277,-1.0356,-8.74,1.8501,-2.9487,0.89744,-6.8277,-1.0356,2.8618,-0.0638,-3.8278,0.0,-1.9777,-2.0513,-2.9346,0.94787,3.8647,9.5056
-3.8547,1.9048,3.7724,-6.8277,3.8188,-4.9123,6.6348,-5.8333,3.7821,-6.8277,3.8188,7.7398,-1.0207,-1.9139,1.9048,-0.0638,-0.12821,-5.8054,19.905001,4.8309,3.764
-5.7504,6.6667,9.626,-5.8615,0.90615,-2.0415,4.7209,-6.7949,0.89744,-5.8615,0.90615,9.6911,-1.9777,-1.9139,2.8571,4.7209,2.7564,-7.7193,13.27,3.8647,-3.8915
-2.9068,9.5238,11.577,-7.7939,1.877,-3.9553,4.7209,-10.641,-1.9872,-7.7939,1.877,7.7398,-1.0207,0.95694,5.7143,11.419,7.5641,-1.9777,-2.8436,5.7971,0.89314
1.8325,9.5238,9.626,-6.8277,2.8479,-3.9553,1.8501,-12.564,-0.0641,-6.8277,2.8479,4.813,-1.0207,4.7847,6.6667,15.247,8.5256,-16.332001,-29.384001,3.8647,11.419
-1.9589,-0.95238,-2.0813,-6.8277,-1.0356,-11.611,-3.8915,-15.449,-1.9872,-6.8277,-1.0356,-2.0163,-1.0207,3.8278,2.8571,7.5917,1.7949,-4.8485,2.8436,4.8309,7.5917
-9.5419,-9.5238,-10.862,-13.591,-5.89,-12.568,-3.8915,-15.449,-9.6795,-13.591,-5.89,-7.8699,-1.9777,0.95694,-0.95238,-0.0638,-3.0128,10.463,34.123001,9.6618,6.6348
-6.6983,-2.8571,-5.9837,-13.591,-0.06472,-11.611,-1.9777,-12.564,-7.7564,-13.591,-0.06472,-8.8455,3.764,6.6986,2.8571,3.764,-0.12821,10.463,-5.6872,8.6957,8.5486
-0.06319,7.619,-0.13008,-12.625,-0.06472,-15.439,-9.6332,-10.641,-4.8718,-12.625,-0.06472,-7.8699,6.6348,8.6124,6.6667,5.6778,4.6795,-3.8915,-11.374,3.8647,11.419
3.7283,3.8095,5.7236,-12.625,-5.89,-11.611,-12.504,-16.41,-5.8333,-12.625,-5.89,-6.8943,8.5486,12.44,9.5238,8.5486,11.41,-18.246,15.166,7.7295,18.118
4.6761,1.9048,13.528,-6.8277,0.90615,-0.12759,6.6348,-16.41,-1.0256,-6.8277,0.90615,1.8862,13.333,16.268,12.381,14.29,18.141001,-18.246,29.384001,5.7971,17.160999
9.4155,9.5238,15.48,1.868,6.7314,6.571,15.247,-3.9103,4.7436,1.868,6.7314,7.7398,16.204,15.311,12.381,14.29,17.179001,3.764,10.427,3.8647,13.333
11.311,11.429,14.504,2.8341,5.7605,7.5279,1.8501,5.7051,2.8205,2.8341,5.7605,7.7398,12.376,12.44,10.476,11.419,13.333,2.807,12.322,1.9324,9.5056
13.207,12.381,15.48,4.7665,4.7896,11.356,9.5056,4.7436,3.7821,4.7665,4.7896,8.7154,14.29,11.483,14.286,14.29,14.295,-4.8485,7.5829,6.7633,14.29
19.841999,20.952,20.358,2.8341,2.8479,13.27,14.29,-1.0256,4.7436,2.8341,2.8479,12.618,19.075001,16.268,20.952,20.032,19.103001,-4.8485,0.94787,9.6618,19.075001
16.997999,21.905001,21.333,-0.06441,2.8479,3.7002,8.5486,-1.9872,1.859,-0.06441,2.8479,12.618,17.160999,15.311,20.0,20.032,17.179001,-2.9346,13.27,7.7295,26.73
18.893999,24.761999,24.26,3.8003,8.6731,9.4418,16.204,1.859,5.7051,3.8003,8.6731,16.52,16.204,15.311,20.0,20.989,17.179001,-1.0207,12.322,13.527,30.558001
29.320999,28.570999,24.26,1.868,7.7023,17.097,17.160999,-1.9872,2.8205,1.868,7.7023,17.496,13.333,15.311,18.094999,20.032,17.179001,3.764,9.4787,13.527,19.075001
16.051001,14.286,16.455,1.868,2.8479,9.4418,5.6778,-0.0641,0.89744,1.868,2.8479,10.667,8.5486,7.6555,13.333,13.333,12.372,8.5486,3.7915,8.6957,0.89314
5.624,10.476,15.48,2.8341,1.877,9.4418,10.463,8.5897,3.7821,2.8341,1.877,10.667,8.5486,6.6986,14.286,15.247,14.295,9.5056,-5.6872,7.7295,-0.0638
15.103,20.952,23.285,10.564,6.7314,18.054001,14.29,11.474,7.6282,10.564,6.7314,17.496,8.5486,8.6124,19.048,21.945999,18.141001,-5.8054,14.218,13.527,4.7209
19.841999,26.667,27.187,12.496,7.7023,19.011,16.204,8.5897,1.859,12.496,7.7023,21.398001,8.5486,7.6555,19.048,23.860001,20.063999,7.5917,12.322,10.628,13.333
24.580999,22.857,26.211,13.462,7.7023,18.054001,21.945999,9.5513,2.8205,13.462,7.7023,23.35,10.463,7.6555,19.048,22.903,20.063999,12.376,15.166,8.6957,14.29
23.632999,20.952,20.358,12.496,8.6731,19.968,10.463,11.474,4.7436,12.496,8.6731,22.374001,8.5486,4.7847,17.143,19.075001,18.141001,-7.7193,17.062,9.6618,15.247
13.207,18.094999,14.504,8.6312,5.7605,19.968,-1.9777,8.5897,-0.0641,8.6312,5.7605,17.496,4.7209,5.7416,9.5238,15.247,15.256,7.5917,-22.749001,7.7295,10.463
12.259,11.429,11.577,7.6651,2.8479,17.097,8.5486,4.7436,-0.0641,7.6651,2.8479,13.593,3.764,8.6124,5.7143,11.419,11.41,13.333,-13.27,2.8986,-2.9346
12.259,11.429,12.553,11.53,5.7605,14.226,25.774,5.7051,8.5897,11.53,5.7605,14.569,8.5486,9.5694,7.619,10.463,11.41,-1.0207,0.94787,3.8647,6.6348
1.8325,11.429,8.6504,9.5974,7.7023,9.4418,20.989,5.7051,10.513,9.5974,7.7023,12.618,10.463,10.526,6.6667,8.5486,10.449,-0.0638,25.591999,0.0,12.376
-1.0111,6.6667,2.7967,6.6989,4.7896,4.6571,9.5056,2.8205,7.6282,6.6989,4.7896,6.7642,9.5056,9.5694,3.8095,5.6778,7.5641,-14.418,18.957001,-4.8309,5.6778
8.4676,3.8095,2.7967,2.8341,6.7314,4.6571,-1.9777,6.6667,4.7436,2.8341,6.7314,5.7886,10.463,11.483,3.8095,4.7209,8.5256,-12.504,-8.5308,-1.9324,4.7209
0.88468,-3.8095,0.84553,-1.0306,3.8188,0.82935,2.807,1.859,-2.9487,-1.0306,3.8188,0.91057,5.6778,7.6555,0.95238,-0.0638,3.7179,7.5917,-6.6351,2.8986,1.8501
-0.06319,-4.7619,0.84553,-0.06441,-2.0065,-2.0415,4.7209,-2.9487,-4.8718,-0.06441,-2.0065,-2.0163,3.764,4.7847,0.95238,-3.8915,0.83333,11.419,9.4787,5.7971,-1.0207
-0.06319,-4.7619,-0.13008,-2.963,-8.8026,-0.12759,-12.504,-1.0256,-5.8333,-2.963,-8.8026,-4.9431,4.7209,5.7416,1.9048,-5.8054,-1.0897,-2.9346,-11.374,1.9324,-8.6762
1.8325,-4.7619,-0.13008,-0.06441,-8.8026,1.7863,-5.8054,0.89744,-5.8333,-0.06441,-8.8026,-2.0163,8.5486,5.7416,2.8571,-3.8915,-0.12821,6.6348,-10.427,4.8309,-7.7193
8.4676,-2.8571,0.84553,-2.963,-5.89,-1.0845,-1.0207,-1.0256,-3.9103,-2.963,-5.89,-0.06504,9.5056,2.8708,3.8095,-1.9777,-1.0897,0.89314,-16.114,7.7295,-7.7193
2.7804,-7.619,-2.0813,-9.7262,-5.89,-5.8692,-17.289,-2.9487,-8.7179,-9.7262,-5.89,-3.9675,3.764,-1.9139,0.95238,-4.8485,-3.9744,-7.7193,-2.8436,7.7295,-8.6762
0.88468,-3.8095,0.84553,-3.9291,-3.9482,-2.9984,-6.7624,0.89744,-9.6795,-3.9291,-3.9482,-2.9919,3.764,-1.9139,0.0,-2.9346,-3.0128,14.29,8.5308,2.8986,-3.8915
4.6761,1.9048,3.7724,1.868,-2.9773,-0.12759,2.807,4.7436,-10.641,1.868,-2.9773,0.91057,0.89314,-5.7416,0.0,-2.9346,-2.0513,12.376,-15.166,0.96618,-0.0638
1.8325,-0.95238,2.7967,-0.06441,-1.0356,-1.0845,1.8501,1.859,-5.8333,-0.06441,-1.0356,0.91057,-4.8485,-8.6124,-1.9048,-6.7624,-5.8974,6.6348,-9.4787,0.0,-9.6332
1.8325,0.0,0.84553,0.90177,-2.0065,0.82935,-5.8054,-1.9872,-1.0256,0.90177,-2.0065,-0.06504,-8.6762,-10.526,-3.8095,-8.6762,-7.8205,5.6778,-21.801001,-2.8986,-10.59
-1.0111,-15.238,-8.9106,-1.0306,-4.9191,-2.9984,-7.7193,1.859,-6.7949,-1.0306,-4.9191,-4.9431,-9.6332,-9.5694,-5.7143,-13.461,-9.7436,-7.7193,-5.6872,-6.7633,-4.8485
-9.5419,-25.714001,-15.74,-3.9291,-7.8317,-7.7831,-14.418,0.89744,-8.7179,-3.9291,-7.8317,-12.748,-10.59,-13.397,-7.619,-19.202999,-11.667,-5.8054,3.7915,-4.8309,-20.159
-7.6461,-21.905001,-11.837,-5.8615,-12.686,-6.8262,-18.246,-1.9872,-9.6795,-5.8615,-12.686,-13.724,-13.461,-17.225,-9.5238,-20.159,-12.628,7.5917,1.8957,-4.8309,-17.289
-1.9589,-14.286,-5.0081,-1.0306,-8.8026,-5.8692,-15.375,2.8205,-7.7564,-1.0306,-8.8026,-8.8455,-7.7193,-9.5694,-6.6667,-15.375,-8.7821,-1.9777,-1.8957,-0.96618,-7.7193
-12.385,-12.381,-8.9106,-3.9291,-6.8608,-9.697,-17.289,-1.9872,-9.6795,-3.9291,-6.8608,-11.772,-9.6332,-7.6555,-12.381,-16.332001,-11.667,-6.7624,-22.749001,-3.8647,-11.547
-23.76,-13.333,-19.642,-10.692,-8.8026,-19.266001,-8.6762,-5.8333,-8.7179,-10.692,-8.8026,-19.577,-14.418,-13.397,-19.048,-19.202999,-18.396999,-5.8054,-33.174999,1.9324,-9.6332
-21.864,-14.286,-26.472,-13.591,-8.8026,-21.18,-4.8485,-5.8333,-3.9103,-13.591,-8.8026,-21.528,-15.375,-14.354,-21.905001,-20.159,-22.243999,-1.0207,-13.27,-2.8986,-10.59
-19.968,-19.048,-26.472,-9.7262,-7.8317,-19.266001,-24.944,-4.8718,-1.9872,-9.7262,-7.8317,-22.504,-16.332001,-12.44,-23.809999,-22.073,-25.128,1.8501,20.853001,-15.459,-8.6762
-14.281,-13.333,-17.691,-4.8953,-3.9482,-13.525,-14.418,-1.9872,1.859,-4.8953,-3.9482,-16.65,-16.332001,-10.526,-19.048,-18.246,-22.243999,-1.9777,6.6351,-11.594,-7.7193
-4.8025,2.8571,-5.0081,-0.06441,0.90615,-2.9984,3.764,2.8205,5.7051,-0.06441,0.90615,-5.9187,-10.59,-6.6986,-8.5714,-7.7193,-11.667,0.89314,7.5829,-3.8647,-2.9346
-1.0111,3.8095,0.84553,2.8341,3.8188,-2.9984,2.807,5.7051,12.436,2.8341,3.8188,-2.0163,-8.6762,-5.7416,-2.8571,-1.9777,-4.9359,-8.6762,5.6872,0.96618,3.764
-4.8025,-2.8571,-5.0081,-9.7262,-3.9482,-12.568,-5.8054,-5.8333,5.7051,-9.7262,-3.9482,-9.8211,-12.504,-9.5694,-6.6667,-6.7624,-9.7436,2.807,-8.5308,-1.9324,-0.0638
0.88468,-0.95238,-6.9593,-5.8615,-2.0065,-6.8262,4.7209,-1.9872,4.7436,-5.8615,-2.0065,-4.9431,-14.418,-8.6124,-7.619,-8.6762,-11.667,14.29,-28.436001,2.8986,-1.9777
5.624,-4.7619,-7.935,4.7665,-0.06472,5.614,5.6778,7.6282,5.7051,4.7665,-0.06472,-0.06504,-16.332001,-10.526,-5.7143,-10.59,-12.628,15.247,0.94787,7.7295,-5.8054
-4.8025,-7.619,-8.9106,5.7327,2.8479,3.7002,-2.9346,12.436,3.7821,5.7327,2.8479,-0.06504,-20.159,-14.354,-9.5238,-12.504,-14.551,18.118,19.905001,-5.7971,-9.6332
-2.9068,-1.9048,-3.0569,2.8341,5.7605,4.6571,0.89314,9.5513,3.7821,2.8341,5.7605,3.8374,-20.159,-14.354,-10.476,-7.7193,-12.628,0.89314,17.062,-16.424999,-4.8485
0.88468,5.7143,-0.13008,3.8003,4.7896,4.6571,0.89314,6.6667,5.7051,3.8003,4.7896,4.813,-18.246,-11.483,-9.5238,-2.9346,-10.705,-8.6762,7.5829,-11.594,6.6348
-1.0111,8.5714,1.8211,5.7327,8.6731,2.7432,1.8501,10.513,10.513,5.7327,8.6731,6.7642,-15.375,-9.5694,-9.5238,-1.9777,-9.7436,-1.0207,-35.070999,-7.7295,-3.8915
-3.8547,-1.9048,-4.0325,0.90177,1.877,-0.12759,11.419,4.7436,7.6282,0.90177,1.877,1.8862,-17.289,-12.44,-14.286,-9.6332,-15.513,13.333,-10.427,-14.493,-20.159
-5.7504,-12.381,-9.8862,0.90177,-1.0356,-1.0845,7.5917,1.859,3.7821,0.90177,-1.0356,-1.0407,-19.202999,-17.225,-15.238,-17.289,-19.358999,15.247,23.697001,-11.594,-12.504
-0.06319,-4.7619,-6.9593,8.6312,8.6731,3.7002,1.8501,11.474,5.7051,8.6312,8.6731,2.8618,-16.332001,-15.311,-7.619,-14.418,-15.513,17.160999,7.5829,3.8647,-2.9346
2.7804,4.7619,-5.9837,5.7327,11.586,4.6571,1.8501,12.436,5.7051,5.7327,11.586,4.813,-13.461,-12.44,-6.6667,-9.6332,-12.628,12.376,-8.5308,-2.8986,-1.9777
7.5197,0.95238,-4.0325,1.868,7.7023,-0.12759,4.7209,7.6282,7.6282,1.868,7.7023,3.8374,-9.6332,-8.6124,-3.8095,-5.8054,-7.8205,4.7209,-3.7915,-6.7633,-5.8054
-2.9068,-7.619,-9.8862,-1.9968,0.90615,-4.9123,-1.9777,10.513,2.8205,-1.9968,0.90615,-2.0163,-11.547,-9.5694,-8.5714,-6.7624,-9.7436,4.7209,-1.8957,-9.6618,-6.7624
-17.125,-13.333,-16.715,-0.06441,-2.9773,-9.697,-8.6762,7.6282,-4.8718,-0.06441,-2.9773,-8.8455,-13.461,-10.526,-14.286,-7.7193,-11.667,15.247,-19.905001,-12.56,-9.6332
-8.594,-13.333,-16.715,1.868,-1.0356,-6.8262,-0.0638,6.6667,-4.8718,1.868,-1.0356,-9.8211,-13.461,-11.483,-12.381,-5.8054,-9.7436,-3.8915,-1.8957,-9.6618,-14.418
-9.5419,-7.619,-11.837,1.868,-2.0065,-2.0415,-1.0207,11.474,-2.9487,1.868,-2.0065,-7.8699,-16.332001,-15.311,-10.476,-5.8054,-11.667,-0.0638,10.427,-8.6957,-13.461
-9.5419,-2.8571,-7.935,2.8341,-1.0356,-1.0845,-12.504,12.436,-2.9487,2.8341,-1.0356,-5.9187,-22.073,-19.139,-12.381,-9.6332,-15.513,4.7209,0.94787,-7.7295,-9.6332
5.624,-2.8571,-2.0813,2.8341,4.7896,6.571,-6.7624,10.513,-0.0641,2.8341,4.7896,-0.06504,-17.289,-16.268,-7.619,-7.7193,-10.705,-1.9777,-3.7915,-6.7633,1.8501
4.6761,-11.429,-4.0325,5.7327,4.7896,5.614,-10.59,11.474,2.8205,5.7327,4.7896,-3.9675,-11.547,-11.483,-5.7143,-9.6332,-9.7436,12.376,-0.94787,-5.7971,-1.9777
-1.0111,-18.094999,-7.935,4.7665,-1.0356,-2.0415,-7.7193,11.474,-1.9872,4.7665,-1.0356,-8.8455,-8.6762,-12.44,-5.7143,-13.461,-9.7436,20.989,-18.957001,-3.8647,-19.202999
-1.0111,-13.333,-5.9837,0.90177,-4.9191,-5.8692,-14.418,7.6282,-5.8333,0.90177,-4.9191,-11.772,-9.6332,-12.44,-2.8571,-11.547,-7.8205,9.5056,-6.6351,-0.96618,-9.6332
2.7804,-5.7143,-1.1057,-1.0306,-5.89,0.82935,-1.9777,7.6282,-1.9872,-1.0306,-5.89,-8.8455,-4.8485,-6.6986,0.95238,-6.7624,-3.9744,0.89314,-5.6872,-0.96618,-8.6762
3.7283,-0.95238,1.8211,0.90177,-3.9482,5.614,8.5486,6.6667,-2.9487,0.90177,-3.9482,-3.9675,0.89314,-1.9139,3.8095,-2.9346,0.83333,-17.289,-0.94787,1.9324,-6.7624
4.6761,0.95238,2.7967,5.7327,3.8188,6.571,-2.9346,8.5897,1.859,5.7327,3.8188,0.91057,7.5917,5.7416,4.7619,5.6778,8.5256,-11.547,16.114,0.0,6.6348
-1.0111,0.0,-2.0813,2.8341,-1.0356,3.7002,-3.8915,3.7821,-0.0641,2.8341,-1.0356,-2.0163,10.463,9.5694,0.95238,9.5056,11.41,7.5917,5.6872,-7.7295,5.6778
-3.8547,3.8095,-3.0569,-0.06441,-1.0356,-1.0845,-11.547,-1.0256,-0.0641,-0.06441,-1.0356,-3.9675,9.5056,7.6555,0.0,13.333,12.372,10.463,-14.218,-5.7971,6.6348
-1.9589,0.95238,-4.0325,-0.06441,-1.0356,-1.0845,-10.59,2.8205,0.89744,-0.06441,-1.0356,-3.9675,6.6348,4.7847,0.0,9.5056,9.4872,0.89314,21.801001,-1.9324,0.89314
-4.8025,-1.9048,-3.0569,-0.06441,-2.9773,1.7863,8.5486,8.5897,0.89744,-0.06441,-2.9773,-2.0163,9.5056,7.6555,0.0,8.5486,9.4872,0.89314,21.801001,0.96618,-1.0207
4.6761,4.7619,3.7724,1.868,-1.0356,6.571,9.5056,-0.0641,5.7051,1.868,-1.0356,1.8862,12.376,12.44,4.7619,11.419,11.41,-21.115999,-9.4787,7.7295,11.419
6.5719,6.6667,6.6992,6.6989,2.8479,6.571,4.7209,3.7821,8.5897,6.6989,2.8479,4.813,10.463,10.526,4.7619,10.463,9.4872,-8.6762,2.8436,6.7633,9.5056
0.88468,13.333,3.7724,1.868,1.877,1.7863,12.376,0.89744,4.7436,1.868,1.877,3.8374,5.6778,4.7847,0.95238,7.5917,2.7564,10.463,9.4787,2.8986,13.333
-1.0111,12.381,-0.13008,-1.9968,-1.0356,-0.12759,15.247,-7.7564,6.6667,-1.9968,-1.0356,3.8374,1.8501,1.9139,-2.8571,4.7209,-1.0897,2.807,0.0,3.8647,17.160999
-11.438,0.0,-5.9837,-1.9968,0.90615,-3.9553,8.5486,-5.8333,5.7051,-1.9968,0.90615,-0.06504,-2.9346,-2.8708,-8.5714,-3.8915,-6.859,-4.8485,23.697001,-3.8647,9.5056
-11.438,-1.9048,-4.0325,-3.9291,3.8188,-9.697,-2.9346,-1.0256,2.8205,-3.9291,3.8188,-1.0407,-2.9346,-0.95694,-8.5714,-6.7624,-8.7821,-8.6762,24.645,-7.7295,-1.9777
-6.6983,2.8571,1.8211,-7.7939,-0.06472,-7.7831,-3.8915,-6.7949,1.859,-7.7939,-0.06472,-1.0407,-0.0638,1.9139,-4.7619,-3.8915,-5.8974,-3.8915,9.4787,-3.8647,1.8501
-1.0111,6.6667,6.6992,-4.8953,-2.0065,-3.9553,7.5917,-10.641,4.7436,-4.8953,-2.0065,-0.06504,1.8501,4.7847,0.95238,1.8501,-1.0897,-6.7624,-9.4787,-1.9324,4.7209
-1.0111,8.5714,11.577,-1.9968,0.90615,-5.8692,9.5056,-6.7949,6.6667,-1.9968,0.90615,2.8618,0.89314,7.6555,2.8571,7.5917,1.7949,-18.246,-10.427,0.0,15.247
5.624,14.286,17.431,-0.06441,2.8479,0.82935,-0.0638,-1.0256,3.7821,-0.06441,2.8479,8.7154,-3.8915,6.6986,0.95238,10.463,1.7949,-9.6332,-0.94787,-2.8986,7.5917
19.841999,18.094999,23.285,6.6989,6.7314,14.226,12.376,2.8205,5.7051,6.6989,6.7314,18.472,-1.9777,3.8278,2.8571,10.463,4.6795,5.6778,15.166,-5.7971,1.8501
6.5719,15.238,15.48,6.6989,2.8479,11.356,18.118,5.7051,4.7436,6.6989,2.8479,16.52,-0.0638,-0.95694,2.8571,7.5917,3.7179,6.6348,21.801001,-2.8986,1.8501
-4.8025,6.6667,9.626,4.7665,5.7605,4.6571,13.333,5.7051,3.7821,4.7665,5.7605,12.618,0.89314,-3.8278,2.8571,5.6778,3.7179,12.376,4.7393,1.9324,-3.8915
2.7804,9.5238,13.528,9.5974,8.6731,6.571,2.807,5.7051,4.7436,9.5974,8.6731,14.569,3.764,0.0,6.6667,12.376,8.5256,4.7209,-18.009001,6.7633,4.7209
8.4676,18.094999,16.455,15.395,10.615,15.183,14.29,10.513,6.6667,15.395,10.615,19.447001,5.6778,6.6986,8.5714,16.204,12.372,1.8501,-25.591999,7.7295,8.5486
7.5197,9.5238,11.577,16.361,12.557,19.011,20.989,8.5897,6.6667,16.361,12.557,18.472,6.6348,8.6124,6.6667,9.5056,9.4872,-10.59,18.009001,-2.8986,1.8501
4.6761,4.7619,6.6992,15.395,12.557,14.226,10.463,3.7821,7.6282,15.395,12.557,17.496,11.419,12.44,8.5714,4.7209,9.4872,-3.8915,21.801001,4.8309,8.5486
1.8325,2.8571,0.84553,6.6989,13.528,3.7002,12.376,-0.0641,6.6667,6.6989,13.528,10.667,8.5486,7.6555,6.6667,-0.0638,4.6795,12.376,-13.27,12.56,3.764
-6.6983,-1.9048,-6.9593,3.8003,6.7314,-2.0415,7.5917,-0.0641,-1.9872,3.8003,6.7314,2.8618,6.6348,5.7416,0.95238,-5.8054,0.83333,9.5056,-14.218,0.96618,-16.332001
-2.9068,-1.9048,-7.935,7.6651,1.877,0.82935,1.8501,0.89744,-1.9872,7.6651,1.877,-0.06504,8.5486,7.6555,3.8095,-1.9777,4.6795,-1.0207,10.427,0.96618,-12.504
10.363,3.8095,-0.13008,10.564,-0.06472,5.614,-0.0638,6.6667,-4.8718,10.564,-0.06472,2.8618,14.29,12.44,14.286,9.5056,15.256,-1.0207,-17.062,12.56,-4.8485
-0.06319,-10.476,-3.0569,3.8003,-2.9773,1.7863,-9.6332,5.7051,-13.526,3.8003,-2.9773,-3.9675,7.5917,8.6124,8.5714,7.5917,10.449,7.5917,-22.749001,8.6957,0.89314
4.6761,-10.476,-0.13008,0.90177,-2.0065,4.6571,-12.504,4.7436,-15.449,0.90177,-2.0065,-4.9431,0.89314,3.8278,4.7619,4.7209,4.6795,8.5486,-14.218,6.7633,2.807
13.207,3.8095,12.553,8.6312,3.8188,13.27,-7.7193,12.436,-6.7949,8.6312,3.8188,3.8374,2.807,5.7416,10.476,10.463,9.4872,20.989,-37.915001,5.7971,3.764
13.207,3.8095,13.528,9.5974,2.8479,10.399,6.6348,6.6667,-1.9872,9.5974,2.8479,4.813,4.7209,2.8708,11.429,8.5486,9.4872,11.419,-5.6872,3.8647,-5.8054
15.103,4.7619,11.577,6.6989,4.7896,3.7002,6.6348,-0.0641,2.8205,6.6989,4.7896,2.8618,3.764,-0.95694,12.381,6.6348,9.4872,4.7209,15.166,8.6957,-15.375
9.4155,1.9048,10.602,0.90177,1.877,2.7432,0.89314,0.89744,-0.0641,0.90177,1.877,0.91057,0.89314,-5.7416,8.5714,2.807,5.641,4.7209,9.4787,4.8309,-11.547
13.207,2.8571,13.528,-2.963,-1.0356,8.4848,3.764,1.859,1.859,-2.963,-1.0356,3.8374,1.8501,-5.7416,7.619,2.807,5.641,4.7209,-10.427,1.9324,-0.0638
14.155,13.333,17.431,2.8341,2.8479,10.399,5.6778,4.7436,7.6282,2.8341,2.8479,7.7398,6.6348,0.95694,10.476,7.5917,10.449,11.419,-19.905001,6.7633,2.807
1.8325,8.5714,6.6992,1.868,-0.06472,4.6571,-6.7624,-0.0641,-1.9872,1.868,-0.06472,1.8862,6.6348,1.9139,2.8571,6.6348,6.6026,3.764,13.27,0.0,1.8501
-13.333,-6.6667,-7.935,-3.9291,-1.0356,-7.7831,-2.9346,-9.6795,-2.9487,-3.9291,-1.0356,-4.9431,-0.0638,0.95694,-9.5238,-0.0638,-3.0128,-8.6762,12.322,-10.628,-1.9777
-9.5419,-1.9048,-4.0325,-4.8953,9.644,-8.74,15.247,-16.41,15.321,-4.8953,9.644,-0.06504,3.764,3.8278,-9.5238,-1.0207,-1.0897,-13.461,-11.374,-9.6618,3.764
-9.5419,2.8571,-3.0569,-9.7262,0.90615,-17.351999,7.5917,-21.218,13.397,-9.7262,0.90615,-2.9919,4.7209,8.6124,-8.5714,-1.0207,-1.0897,-16.332001,16.114,-11.594,11.419
-17.125,-3.8095,-6.9593,-10.692,-4.9191,-16.396,-8.6762,-20.256001,1.859,-10.692,-4.9191,-6.8943,1.8501,8.6124,-4.7619,-1.9777,-2.0513,-12.504,-0.94787,0.0,-1.9777
-17.125,-0.95238,-8.9106,-7.7939,-2.9773,-3.9553,-0.0638,-13.526,5.7051,-7.7939,-2.9773,-4.9431,3.764,8.6124,-2.8571,-0.0638,-1.0897,-6.7624,-12.322,4.8309,-6.7624
-20.916,-0.95238,-15.74,-9.7262,-4.9191,-10.654,-4.8485,-18.333,7.6282,-9.7262,-4.9191,-8.8455,-1.0207,7.6555,-11.429,-1.0207,-3.9744,-20.159,33.174999,-9.6618,6.6348
-22.812,-1.9048,-17.691,-14.557,-12.686,-19.266001,-11.547,-21.218,6.6667,-14.557,-12.686,-11.772,-2.9346,4.7847,-14.286,-1.9777,-5.8974,-13.461,32.227001,-10.628,15.247
-9.5419,1.9048,-9.8862,-15.523,-11.715,-16.396,-6.7624,-22.179001,3.7821,-15.523,-11.715,-7.8699,0.89314,7.6555,-5.7143,0.89314,-2.0513,-21.115999,-13.27,-1.9324,6.6348
-12.385,-3.8095,-5.9837,-11.659,-7.8317,-13.525,-3.8915,-13.526,3.7821,-11.659,-7.8317,-6.8943,1.8501,10.526,-3.8095,-1.0207,-1.0897,-23.030001,-9.4787,-2.8986,2.807
-9.5419,-12.381,-8.9106,-9.7262,-4.9191,-10.654,-6.7624,-12.564,2.8205,-9.7262,-4.9191,-6.8943,4.7209,9.5694,-2.8571,-4.8485,-2.0513,0.89314,-29.384001,1.9324,13.333
-1.9589,-19.048,-14.764,-9.7262,-5.89,-6.8262,-5.8054,-15.449,-1.9872,-9.7262,-5.89,-8.8455,8.5486,5.7416,4.7619,-7.7193,-0.12821,2.807,15.166,7.7295,4.7209
-0.06319,-20.952,-10.862,-8.7601,-10.744,-3.9553,-5.8054,-7.7564,-9.6795,-8.7601,-10.744,-10.797,8.5486,3.8278,10.476,-3.8915,4.6795,-5.8054,36.966999,4.8309,-8.6762
6.5719,-10.476,1.8211,-4.8953,-8.8026,-2.0415,-7.7193,-3.9103,-8.7179,-4.8953,-8.8026,-4.9431,5.6778,2.8708,11.429,4.7209,7.5641,-6.7624,17.062,0.0,2.807
8.4676,0.0,11.577,-0.06441,-4.9191,3.7002,-14.418,-0.0641,-3.9103,-0.06441,-4.9191,0.91057,4.7209,3.8278,11.429,8.5486,7.5641,-1.0207,16.114,0.96618,9.5056
15.103,16.190001,20.358,2.8341,-2.0065,11.356,-2.9346,3.7821,-1.0256,2.8341,-2.0065,9.6911,6.6348,1.9139,13.333,12.376,11.41,1.8501,-25.591999,7.7295,3.764
14.155,20.952,21.333,4.7665,-2.0065,13.27,7.5917,0.89744,0.89744,4.7665,-2.0065,12.618,4.7209,0.95694,11.429,16.204,12.372,-3.8915,-49.289001,2.8986,0.89314
10.363,10.476,14.504,1.868,-2.9773,8.4848,8.5486,-4.8718,1.859,1.868,-2.9773,10.667,0.89314,-0.95694,6.6667,13.333,8.5256,4.7209,24.645,-1.9324,12.376
4.6761,1.9048,5.7236,1.868,1.877,3.7002,-1.9777,-2.9487,-4.8718,1.868,1.877,5.7886,0.89314,-1.9139,3.8095,3.764,3.7179,-7.7193,48.341,-0.96618,6.6348
1.8325,-3.8095,-2.0813,-0.06441,1.877,2.7432,1.8501,-4.8718,-9.6795,-0.06441,1.877,3.8374,5.6778,0.95694,4.7619,-4.8485,2.7564,-9.6332,3.7915,8.6957,-4.8485
2.7804,-11.429,-2.0813,-1.9968,-2.0065,-0.12759,6.6348,-1.9872,-4.8718,-1.9968,-2.0065,0.91057,11.419,4.7847,6.6667,-12.504,2.7564,-3.8915,-24.645,3.8647,-9.6332
1.8325,-15.238,-1.1057,-5.8615,-6.8608,-1.0845,-4.8485,-2.9487,-8.7179,-5.8615,-6.8608,-3.9675,9.5056,2.8708,6.6667,-15.375,1.7949,7.5917,-26.540001,1.9324,-3.8915
0.88468,-12.381,-5.0081,-11.659,-11.715,-3.9553,-13.461,-10.641,-11.603,-11.659,-11.715,-7.8699,6.6348,3.8278,4.7619,-11.547,0.83333,-3.8915,8.5308,4.8309,1.8501
3.7283,0.95238,-2.0813,-11.659,-10.744,-6.8262,-10.59,-14.487,-7.7564,-11.659,-10.744,-7.8699,8.5486,7.6555,4.7619,-1.9777,2.7564,-2.9346,5.6872,8.6957,1.8501
-7.6461,6.6667,-2.0813,-5.8615,-2.0065,-6.8262,-1.9777,-7.7564,-3.9103,-5.8615,-2.0065,-3.9675,5.6778,7.6555,-0.95238,4.7209,2.7564,3.764,-10.427,-0.96618,-0.0638
-13.333,-0.95238,-3.0569,-4.8953,-3.9482,-7.7831,1.8501,-5.8333,-5.8333,-4.8953,-3.9482,-4.9431,-0.0638,4.7847,-8.5714,5.6778,-1.0897,-16.332001,12.322,-11.594,-3.8915
-6.6983,6.6667,0.84553,-6.8277,-4.9191,-6.8262,-1.0207,-8.7179,-4.8718,-6.8277,-4.9191,-3.9675,1.8501,8.6124,-8.5714,10.463,1.7949,-21.115999,-15.166,-9.6618,8.5486
-4.8025,14.286,7.6748,-4.8953,-2.9773,-5.8692,3.764,-5.8333,-4.8718,-4.8953,-2.9773,1.8862,5.6778,11.483,-6.6667,13.333,4.6795,-3.8915,-12.322,-3.8647,9.5056
3.7283,18.094999,16.455,-4.8953,-0.06472,1.7863,11.419,-1.9872,-2.9487,-4.8953,-0.06472,9.6911,10.463,12.44,4.7619,14.29,9.4872,3.764,0.0,4.8309,3.764
13.207,15.238,25.236,0.90177,3.8188,10.399,10.463,-0.0641,0.89744,0.90177,3.8188,15.545,16.204,13.397,18.094999,17.160999,17.179001,2.807,23.697001,16.424999,10.463
16.997999,5.7143,18.407,2.8341,-0.06472,10.399,10.463,-1.0256,-1.9872,2.8341,-0.06472,13.593,15.247,9.5694,18.094999,11.419,14.295,0.89314,28.436001,15.459,14.29
24.580999,7.619,12.553,5.7327,-0.06472,11.356,4.7209,1.859,-1.9872,5.7327,-0.06472,11.642,16.204,7.6555,17.143,10.463,13.333,4.7209,-2.8436,7.7295,16.204
17.945999,7.619,14.504,8.6312,4.7896,12.313,3.764,9.5513,-1.0256,8.6312,4.7896,11.642,12.376,1.9139,12.381,7.5917,12.372,-1.0207,-14.218,1.9324,11.419
10.363,6.6667,20.358,8.6312,5.7605,16.139999,10.463,14.359,-0.0641,8.6312,5.7605,15.545,8.5486,-0.95694,10.476,2.807,10.449,7.5917,-19.905001,0.96618,-12.504
10.363,0.95238,16.455,5.7327,5.7605,15.183,15.247,7.6282,4.7436,5.7327,5.7605,14.569,7.5917,0.95694,5.7143,0.89314,6.6026,13.333,4.7393,0.0,-9.6332
1.8325,0.95238,4.748,5.7327,1.877,5.614,4.7209,7.6282,-0.0641,5.7327,1.877,5.7886,3.764,-1.9139,1.9048,2.807,3.7179,9.5056,-6.6351,4.8309,3.764
-1.0111,-0.95238,-7.935,4.7665,1.877,1.7863,-15.375,6.6667,-1.9872,4.7665,1.877,-1.0407,1.8501,-3.8278,0.95238,0.89314,0.83333,5.6778,-16.114,9.6618,-0.0638
-1.0111,-3.8095,-10.862,-0.06441,-0.06472,0.82935,-9.6332,3.7821,-6.7949,-0.06441,-0.06472,-4.9431,-1.0207,-4.7847,0.0,-2.9346,-3.9744,-6.7624,12.322,4.8309,7.5917
4.6761,-9.5238,-6.9593,-0.06441,-0.06472,3.7002,-1.0207,2.8205,-1.0256,-0.06441,-0.06472,-2.9919,-2.9346,-4.7847,1.9048,-5.8054,-4.9359,-4.8485,7.5829,3.8647,4.7209
3.7283,-7.619,-5.9837,2.8341,1.877,3.7002,3.764,2.8205,5.7051,2.8341,1.877,-0.06504,-1.0207,-0.95694,2.8571,-5.8054,-4.9359,3.764,-2.8436,5.7971,1.8501
0.88468,-4.7619,-9.8862,6.6989,5.7605,1.7863,9.5056,5.7051,7.6282,6.6989,5.7605,0.91057,1.8501,-0.95694,1.9048,-5.8054,-4.9359,7.5917,9.4787,12.56,0.89314
1.8325,-3.8095,-8.9106,4.7665,5.7605,-0.12759,8.5486,4.7436,5.7051,4.7665,5.7605,-0.06504,-1.9777,-4.7847,0.0,-3.8915,-4.9359,10.463,-40.757999,2.8986,-4.8485
-3.8547,-7.619,-6.9593,-1.0306,-2.0065,-0.12759,-0.0638,-0.0641,-0.0641,-1.0306,-2.0065,-3.9675,-5.8054,-7.6555,-0.95238,-4.8485,-5.8974,7.5917,-7.5829,-1.9324,2.807
-8.594,-12.381,-6.9593,-2.963,-1.0356,-7.7831,-3.8915,0.89744,-1.0256,-2.963,-1.0356,-7.8699,-7.7193,-7.6555,-1.9048,-5.8054,-5.8974,-1.0207,36.966999,0.96618,2.807
-0.06319,-5.7143,-4.0325,-2.963,5.7605,-6.8262,-6.7624,-0.0641,0.89744,-2.963,5.7605,-4.9431,-9.6332,-8.6124,0.95238,-1.9777,-3.0128,9.5056,13.27,5.7971,-8.6762
1.8325,3.8095,1.8211,0.90177,8.6731,-0.12759,-1.9777,-1.0256,3.7821,0.90177,8.6731,1.8862,-8.6762,-7.6555,0.0,0.89314,-2.0513,-1.0207,5.6872,8.6957,-6.7624
6.5719,15.238,11.577,9.5974,14.498,8.4848,1.8501,8.5897,13.397,9.5974,14.498,11.642,-0.0638,0.0,6.6667,9.5056,4.6795,-0.0638,-16.114,11.594,12.376
-5.7504,7.619,0.84553,-0.06441,2.8479,-1.0845,8.5486,2.8205,6.6667,-0.06441,2.8479,2.8618,-5.8054,-6.6986,-0.95238,-1.0207,-3.0128,15.247,-52.132999,-1.9324,-1.0207
-10.49,-9.5238,-12.813,-9.7262,-9.7735,-10.654,6.6348,-5.8333,-3.9103,-9.7262,-9.7735,-7.8699,-13.461,-15.311,-10.476,-14.418,-13.59,9.5056,2.8436,-10.628,-11.547
-1.0111,-20.0,-10.862,-7.7939,-7.8317,-1.0845,-4.8485,-1.0256,-4.8718,-7.7939,-7.8317,-7.8699,-8.6762,-14.354,-6.6667,-17.289,-11.667,11.419,36.019001,-2.8986,-11.547
9.4155,-14.286,-1.1057,0.90177,-4.9191,6.571,0.89314,5.7051,-4.8718,0.90177,-4.9191,-2.0163,-5.8054,-7.6555,-0.95238,-11.547,-6.859,10.463,18.957001,4.8309,-9.6332
3.7283,-2.8571,4.748,7.6651,-0.06472,5.614,-1.0207,12.436,-1.0256,7.6651,-0.06472,2.8618,-2.9346,-1.9139,1.9048,-4.8485,-3.0128,-10.59,8.5308,8.6957,1.8501
1.8325,1.9048,1.8211,6.6989,-2.0065,5.614,-8.6762,11.474,-1.9872,6.6989,-2.0065,0.91057,1.8501,0.0,5.7143,-1.9777,-0.12821,-4.8485,-53.081001,2.8986,0.89314
6.5719,-6.6667,-5.0081,1.868,-5.89,7.5279,-10.59,9.5513,-10.641,1.868,-5.89,-3.9675,2.807,-2.8708,7.619,-7.7193,-3.0128,12.376,-17.062,-0.96618,-7.7193
4.6761,-10.476,-7.935,0.90177,-5.89,9.4418,-1.9777,11.474,-11.603,0.90177,-5.89,-4.9431,1.8501,-9.5694,5.7143,-10.59,-4.9359,21.945999,11.374,2.8986,-13.461
1.8325,-5.7143,-5.0081,0.90177,-2.9773,-0.12759,-4.8485,10.513,-4.8718,0.90177,-2.9773,-5.9187,3.764,-4.7847,4.7619,-3.8915,0.83333,17.160999,0.94787,9.6618,-5.8054
5.624,8.5714,3.7724,1.868,-1.0356,-4.9123,-8.6762,6.6667,0.89744,1.868,-1.0356,-4.9431,4.7209,4.7847,6.6667,7.5917,7.5641,12.376,-10.427,12.56,-4.8485
10.363,6.6667,4.748,-0.06441,-4.9191,0.82935,1.8501,6.6667,-0.0641,-0.06441,-4.9191,-4.9431,4.7209,4.7847,7.619,9.5056,9.4872,-1.0207,-30.332001,5.7971,0.89314
5.624,-10.476,-3.0569,-3.9291,-7.8317,-0.12759,-6.7624,4.7436,-10.641,-3.9291,-7.8317,-8.8455,-1.0207,0.95694,3.8095,3.764,3.7179,-14.418,19.905001,0.0,5.6778
-0.06319,-13.333,-5.0081,-2.963,-10.744,-0.12759,-8.6762,7.6282,-10.641,-2.963,-10.744,-8.8455,-4.8485,-4.7847,0.95238,-1.9777,-1.0897,7.5917,29.384001,-7.7295,-0.0638
13.207,-5.7143,2.7967,3.8003,-3.9482,8.4848,-11.547,13.397,-8.7179,3.8003,-3.9482,-1.0407,2.807,0.0,6.6667,-2.9346,1.7949,29.601,-5.6872,-4.8309,-9.6332
16.051001,2.8571,7.6748,7.6651,-1.0356,16.139999,-2.9346,19.167,-7.7564,7.6651,-1.0356,3.8374,6.6348,3.8278,8.5714,-1.9777,4.6795,17.160999,-7.5829,4.8309,-8.6762
2.7804,5.7143,0.84553,7.6651,-1.0356,10.399,6.6348,16.282,-1.0256,7.6651,-1.0356,-1.0407,-1.0207,-5.7416,0.95238,-8.6762,-3.9744,13.333,-62.558998,0.96618,-10.59
-1.9589,-6.6667,-6.9593,2.8341,0.90615,-1.0845,-4.8485,3.7821,-3.9103,2.8341,0.90615,-6.8943,-3.8915,-10.526,-2.8571,-19.202999,-11.667,-6.7624,-6.6351,-1.9324,-18.246
-2.9068,-10.476,-11.837,-2.963,0.90615,-5.8692,0.89314,-0.0641,-5.8333,-2.963,0.90615,-7.8699,0.89314,-4.7847,-3.8095,-19.202999,-10.705,-6.7624,35.070999,-1.9324,-9.6332
-10.49,-14.286,-15.74,-1.0306,2.8479,-9.697,0.89314,-1.0256,0.89744,-1.0306,2.8479,-10.797,1.8501,0.95694,-5.7143,-14.418,-10.705,-12.504,17.062,1.9324,5.6778
-14.281,-13.333,-17.691,-3.9291,2.8479,-10.654,-9.6332,-1.0256,5.7051,-3.9291,2.8479,-11.772,-1.0207,1.9139,-9.5238,-10.59,-9.7436,6.6348,4.7393,3.8647,3.764
-21.864,-16.190001,-21.593,-9.7262,-2.0065,-16.396,-1.9777,-6.7949,1.859,-9.7262,-2.0065,-16.65,-7.7193,-4.7847,-16.190001,-10.59,-12.628,3.764,-23.697001,-3.8647,-10.59
-25.656,-16.190001,-23.545,-11.659,-2.9773,-18.309,-15.375,-13.526,-1.9872,-11.659,-2.9773,-20.552999,-12.504,-6.6986,-20.952,-9.6332,-13.59,-6.7624,-18.009001,-11.594,-6.7624
-21.864,-13.333,-19.642,-9.7262,-1.0356,-17.351999,-2.9346,-12.564,5.7051,-9.7262,-1.0356,-16.65,-15.375,-5.7416,-23.809999,-8.6762,-15.513,-23.987,-3.7915,-20.290001,-5.8054
-23.76,-8.5714,-16.715,-13.591,-1.0356,-19.266001,4.7209,-14.487,5.7051,-13.591,-1.0356,-14.699,-16.332001,-3.8278,-22.857,-6.7624,-14.551,-26.858,25.591999,-19.323999,-2.9346
-26.603001,-7.619,-20.618,-15.523,-0.06472,-21.18,-1.9777,-17.372,5.7051,-15.523,-0.06472,-16.65,-14.418,-2.8708,-22.857,-4.8485,-15.513,-15.375,23.697001,-15.459,7.5917
-22.812,-8.5714,-23.545,-17.455999,1.877,-20.223,-5.8054,-17.372,2.8205,-17.455999,1.877,-18.601999,-17.289,-3.8278,-27.618999,-9.6332,-21.282,-15.375,11.374,-15.459,3.764
-14.281,-5.7143,-12.813,-11.659,1.877,-12.568,-5.8054,-13.526,6.6667,-11.659,1.877,-10.797,-17.289,-3.8278,-24.761999,-6.7624,-18.396999,-8.6762,18.009001,-15.459,4.7209
-10.49,0.0,-4.0325,-1.0306,0.90615,-5.8692,-18.246,-9.6795,7.6282,-1.0306,0.90615,-6.8943,-8.6762,2.8708,-18.094999,1.8501,-8.7821,-9.6332,2.8436,-17.391001,13.333
-4.8025,1.9048,-1.1057,-2.963,0.90615,-4.9123,-1.0207,-4.8718,2.8205,-2.963,0.90615,-4.9431,1.8501,11.483,-7.619,7.5917,1.7949,-12.504,-13.27,-8.6957,11.419
-8.594,-4.7619,-6.9593,-8.7601,-10.744,-8.74,-2.9346,-7.7564,-2.9487,-8.7601,-10.744,-10.797,-1.0207,6.6986,-7.619,-0.0638,-2.0513,-6.7624,-13.27,-6.7633,2.807
-4.8025,-9.5238,-5.0081,-9.7262,-7.8317,-8.74,-18.246,-7.7564,-4.8718,-9.7262,-7.8317,-8.8455,-0.0638,5.7416,-2.8571,-1.9777,-3.0128,-5.8054,31.280001,0.96618,2.807
1.8325,-5.7143,-1.1057,0.90177,-1.0356,-0.12759,-3.8915,0.89744,1.859,0.90177,-1.0356,-2.9919,5.6778,8.6124,2.8571,1.8501,0.83333,3.764,32.227001,6.7633,0.89314
7.5197,-3.8095,-2.0813,3.8003,-2.0065,-0.12759,-0.0638,0.89744,-0.0641,3.8003,-2.0065,-3.9675,5.6778,5.7416,1.9048,1.8501,0.83333,-1.0207,-3.7915,5.7971,5.6778
-5.7504,-1.9048,-8.9106,-1.0306,-9.7735,-5.8692,-12.504,-3.9103,-5.8333,-1.0306,-9.7735,-9.8211,1.8501,2.8708,-1.9048,-1.0207,-2.0513,-19.202999,-21.801001,5.7971,-7.7193
-17.125,-6.6667,-11.837,-3.9291,-10.744,-9.697,-28.771999,-4.8718,-6.7949,-3.9291,-10.744,-13.724,0.89314,0.0,-6.6667,-2.9346,-3.9744,4.7209,-19.905001,1.9324,-12.504
-9.5419,-15.238,-9.8862,-2.963,-10.744,-10.654,-22.073,-1.9872,-5.8333,-2.963,-10.744,-14.699,0.89314,-1.9139,-5.7143,-5.8054,-4.9359,12.376,19.905001,3.8647,-1.9777
-0.06319,-15.238,-6.9593,-0.06441,-11.715,-2.9984,-11.547,1.859,-7.7564,-0.06441,-11.715,-11.772,3.764,-0.95694,-1.9048,-5.8054,-3.0128,-2.9346,-4.7393,2.8986,-1.9777
-8.594,-17.143,-11.837,-0.06441,-11.715,-4.9123,-16.332001,3.7821,-7.7564,-0.06441,-11.715,-13.724,1.8501,-2.8708,-3.8095,-10.59,-6.859,6.6348,-5.6872,0.0,-8.6762
-4.8025,-13.333,-11.837,-1.0306,-10.744,-3.9553,-10.59,3.7821,-4.8718,-1.0306,-10.744,-12.748,0.89314,-4.7847,-1.9048,-12.504,-8.7821,-3.8915,0.94787,5.7971,-9.6332
-1.0111,-2.8571,-3.0569,1.868,-6.8608,2.7432,-3.8915,5.7051,1.859,1.868,-6.8608,-5.9187,1.8501,-4.7847,0.0,-9.6332,-6.859,12.376,-4.7393,5.7971,1.8501
4.6761,2.8571,4.748,7.6651,0.90615,4.6571,-11.547,6.6667,8.5897,7.6651,0.90615,1.8862,5.6778,-3.8278,2.8571,-7.7193,-3.9744,-4.8485,12.322,3.8647,-1.0207
1.8325,4.7619,1.8211,0.90177,-2.9773,2.7432,-3.8915,5.7051,9.5513,0.90177,-2.9773,2.8618,-2.9346,-8.6124,-2.8571,-10.59,-9.7436,-10.59,1.8957,-5.7971,-2.9346
3.7283,0.95238,-3.0569,1.868,-2.9773,-0.12759,5.6778,1.859,2.8205,1.868,-2.9773,0.91057,-11.547,-12.44,-6.6667,-13.461,-12.628,-6.7624,-3.7915,-5.7971,2.807
12.259,-3.8095,-1.1057,4.7665,3.8188,6.571,-0.0638,0.89744,4.7436,4.7665,3.8188,3.8374,-7.7193,-8.6124,-3.8095,-11.547,-7.8205,-1.9777,30.332001,-3.8647,-4.8485
-1.0111,-0.95238,2.7967,3.8003,2.8479,13.27,-4.8485,4.7436,9.5513,3.8003,2.8479,8.7154,-6.7624,-7.6555,-4.7619,-7.7193,-4.9359,0.89314,34.123001,-8.6957,-5.8054
-8.594,6.6667,4.748,0.90177,1.877,9.4418,13.333,4.7436,9.5513,0.90177,1.877,11.642,-9.6332,-9.5694,-3.8095,-4.8485,-4.9359,-0.0638,3.7915,-8.6957,-1.0207
-1.9589,13.333,6.6992,5.7327,9.644,6.571,16.204,3.7821,15.321,5.7327,9.644,15.545,-8.6762,-7.6555,-2.8571,-1.0207,-3.9744,-1.9777,-5.6872,-8.6957,-3.8915
0.88468,20.0,6.6992,8.6312,16.440001,8.4848,13.333,5.7051,20.128,8.6312,16.440001,17.496,-6.7624,-2.8708,-3.8095,4.7209,-0.12821,6.6348,3.7915,-6.7633,3.764
1.8325,17.143,4.748,11.53,12.557,7.5279,23.860001,5.7051,15.321,11.53,12.557,16.52,-8.6762,-3.8278,-7.619,4.7209,-1.0897,-2.9346,19.905001,-9.6618,5.6778
3.7283,20.952,7.6748,11.53,12.557,8.4848,26.73,11.474,14.359,11.53,12.557,16.52,-3.8915,2.8708,-4.7619,10.463,3.7179,-12.504,2.8436,-4.8309,15.247
-0.06319,15.238,6.6992,4.7665,5.7605,3.7002,20.989,6.6667,11.474,4.7665,5.7605,10.667,-0.0638,3.8278,-1.9048,11.419,6.6026,10.463,1.8957,-1.9324,2.807
-4.8025,5.7143,0.84553,-1.0306,6.7314,1.7863,12.376,-1.0256,10.513,-1.0306,6.7314,5.7886,1.8501,1.9139,-2.8571,8.5486,4.6795,9.5056,14.218,-1.9324,-0.0638
0.88468,9.5238,1.8211,0.90177,10.615,3.7002,15.247,-1.9872,8.5897,0.90177,10.615,5.7886,3.764,2.8708,1.9048,11.419,5.641,-4.8485,9.4787,3.8647,12.376
1.8325,13.333,8.6504,9.5974,14.498,6.571,18.118,9.5513,8.5897,9.5974,14.498,11.642,9.5056,8.6124,8.5714,15.247,10.449,4.7209,15.166,9.6618,10.463
-1.0111,11.429,6.6992,4.7665,12.557,2.7432,9.5056,8.5897,3.7821,4.7665,12.557,9.6911,5.6778,4.7847,3.8095,9.5056,6.6026,7.5917,-5.6872,-2.8986,-1.9777
0.88468,11.429,2.7967,0.90177,8.6731,-4.9123,20.989,1.859,4.7436,0.90177,8.6731,5.7886,2.807,2.8708,2.8571,7.5917,4.6795,-4.8485,-12.322,-4.8309,-6.7624
0.88468,10.476,0.84553,-0.06441,7.7023,-2.9984,18.118,1.859,7.6282,-0.06441,7.7023,7.7398,1.8501,2.8708,3.8095,8.5486,3.7179,-2.9346,4.7393,5.7971,-3.8915
0.88468,13.333,2.7967,2.8341,7.7023,4.6571,7.5917,0.89744,6.6667,2.8341,7.7023,8.7154,2.807,4.7847,4.7619,11.419,4.6795,10.463,4.7393,8.6957,9.5056
10.363,14.286,10.602,9.5974,8.6731,8.4848,15.247,3.7821,8.5897,9.5974,8.6731,12.618,4.7209,4.7847,8.5714,14.29,7.5641,11.419,-4.7393,10.628,15.247
13.207,4.7619,11.577,7.6651,4.7896,8.4848,10.463,3.7821,0.89744,7.6651,4.7896,11.642,-0.0638,0.0,6.6667,10.463,5.641,9.5056,12.322,2.8986,6.6348
9.4155,1.9048,5.7236,2.8341,8.6731,5.614,-0.0638,2.8205,-2.9487,2.8341,8.6731,7.7398,-4.8485,-4.7847,1.9048,6.6348,1.7949,-9.6332,12.322,-1.9324,4.7209
13.207,2.8571,5.7236,8.6312,13.528,8.4848,9.5056,7.6282,0.89744,8.6312,13.528,11.642,0.89314,-2.8708,6.6667,7.5917,4.6795,-3.8915,-7.5829,2.8986,-1.0207
13.207,8.5714,13.528,10.564,13.528,12.313,19.075001,8.5897,5.7051,10.564,13.528,15.545,10.463,3.8278,12.381,10.463,10.449,11.419,-21.801001,10.628,-1.9777
1.8325,5.7143,11.577,3.8003,6.7314,7.5279,6.6348,3.7821,1.859,3.8003,6.7314,7.7398,7.5917,4.7847,7.619,8.5486,7.5641,10.463,1.8957,0.96618,2.807
6.5719,10.476,12.553,2.8341,3.8188,8.4848,1.8501,2.8205,-6.7949,2.8341,3.8188,6.7642,5.6778,2.8708,5.7143,10.463,8.5256,2.807,5.6872,-0.96618,-3.8915
7.5197,8.5714,9.626,4.7665,4.7896,4.6571,-5.8054,0.89744,-4.8718,4.7665,4.7896,4.813,7.5917,3.8278,6.6667,8.5486,8.5256,-4.8485,5.6872,3.8647,-0.0638
11.311,-2.8571,4.748,5.7327,4.7896,4.6571,10.463,4.7436,2.8205,5.7327,4.7896,5.7886,11.419,5.7416,11.429,3.764,8.5256,11.419,3.7915,11.594,-1.0207
13.207,0.0,7.6748,5.7327,5.7605,5.614,2.807,9.5513,0.89744,5.7327,5.7605,6.7642,10.463,2.8708,15.238,2.807,8.5256,14.29,-9.4787,18.357,-1.9777
17.945999,9.5238,14.504,5.7327,7.7023,10.399,4.7209,9.5513,4.7436,5.7327,7.7023,10.667,10.463,2.8708,17.143,9.5056,11.41,6.6348,0.94787,9.6618,9.5056
18.893999,11.429,13.528,6.6989,5.7605,12.313,10.463,2.8205,5.7051,6.6989,5.7605,9.6911,7.5917,1.9139,12.381,8.5486,8.5256,2.807,-14.218,2.8986,8.5486
4.6761,0.95238,3.7724,1.868,1.877,3.7002,-0.0638,1.859,-1.0256,1.868,1.877,0.91057,-1.9777,-5.7416,0.0,-1.9777,-1.0897,0.89314,-28.436001,-3.8647,-4.8485
-1.0111,-4.7619,2.7967,6.6989,3.8188,4.6571,1.8501,6.6667,-1.0256,6.6989,3.8188,0.91057,-9.6332,-9.5694,-3.8095,-7.7193,-3.9744,0.89314,15.166,-5.7971,-4.8485
1.8325,7.619,7.6748,10.564,8.6731,9.4418,7.5917,10.513,3.7821,10.564,8.6731,8.7154,-14.418,-10.526,-1.9048,-5.8054,-3.9744,14.29,12.322,-6.7633,-1.9777
2.7804,18.094999,9.626,11.53,14.498,13.27,-2.9346,9.5513,7.6282,11.53,14.498,14.569,-15.375,-11.483,-3.8095,-3.8915,-3.0128,6.6348,9.4787,-9.6618,-6.7624
11.311,10.476,13.528,11.53,13.528,17.097,14.29,4.7436,13.397,11.53,13.528,19.447001,-14.418,-7.6555,-3.8095,-1.0207,-1.0897,-3.8915,10.427,-15.459,-11.547
2.7804,5.7143,11.577,7.6651,15.469,11.356,32.472,0.89744,16.282,7.6651,15.469,18.472,-14.418,-3.8278,-4.7619,0.89314,-0.12821,-3.8915,-11.374,-20.290001,-2.9346
-5.7504,6.6667,1.8211,6.6989,11.586,3.7002,20.032,-1.9872,10.513,6.6989,11.586,10.667,-11.547,-2.8708,-5.7143,-1.9777,-3.0128,-14.418,7.5829,-8.6957,-0.0638
-0.06319,4.7619,-3.0569,7.6651,13.528,2.7432,11.419,-1.9872,14.359,7.6651,13.528,7.7398,-3.8915,-0.95694,-2.8571,-3.8915,-3.9744,-16.332001,14.218,-1.9324,-1.0207
3.7283,4.7619,-1.1057,5.7327,14.498,4.6571,7.5917,-4.8718,13.397,5.7327,14.498,8.7154,1.8501,2.8708,-0.95238,-2.9346,-2.0513,-1.0207,-7.5829,3.8647,0.89314
-7.6461,2.8571,-4.0325,-0.06441,4.7896,-1.0845,-2.9346,-9.6795,1.859,-0.06441,4.7896,3.8374,-0.0638,0.95694,-4.7619,-2.9346,-3.9744,0.89314,-6.6351,1.9324,2.807
-10.49,2.8571,-4.0325,-4.8953,0.90615,-6.8262,-3.8915,-12.564,-5.8333,-4.8953,0.90615,-1.0407,2.807,3.8278,-2.8571,0.89314,-2.0513,-2.9346,4.7393,3.8647,7.5917
-5.7504,0.95238,-4.0325,-7.7939,-2.0065,-7.7831,6.6348,-12.564,-4.8718,-7.7939,-2.0065,-4.9431,7.5917,5.7416,2.8571,2.807,2.7564,6.6348,-18.009001,6.7633,10.463
-5.7504,-10.476,-6.9593,-9.7262,-7.8317,-12.568,4.7209,-16.41,-8.7179,-9.7262,-7.8317,-11.772,4.7209,2.8708,-0.95238,-1.9777,-0.12821,-2.9346,-29.384001,-0.96618,4.7209
-7.6461,-12.381,-5.9837,-9.7262,-5.89,-11.611,-0.0638,-14.487,-7.7564,-9.7262,-5.89,-10.797,4.7209,6.6986,-3.8095,-1.9777,-0.12821,-20.159,13.27,-6.7633,7.5917
-6.6983,-3.8095,-1.1057,-6.8277,-0.06472,-4.9123,-2.9346,-9.6795,-2.9487,-6.8277,-0.06472,-4.9431,9.5056,12.44,0.0,2.807,4.6795,-28.771999,25.591999,5.7971,10.463
-0.06319,-4.7619,-2.0813,-7.7939,-0.06472,-8.74,-14.418,-10.641,-5.8333,-7.7939,-0.06472,-4.9431,6.6348,13.397,0.0,3.764,6.6026,-1.9777,5.6872,5.7971,4.7209
-6.6983,-7.619,-4.0325,-11.659,-11.715,-10.654,-28.771999,-10.641,-12.564,-11.659,-11.715,-9.8211,1.8501,8.6124,-3.8095,0.89314,0.83333,12.376,-2.8436,-1.9324,1.8501
-2.9068,-3.8095,1.8211,-8.7601,-14.628,-6.8262,-7.7193,-6.7949,-12.564,-8.7601,-14.628,-6.8943,0.89314,4.7847,0.95238,1.8501,0.83333,4.7209,-17.062,5.7971,1.8501
0.88468,-4.7619,2.7967,-9.7262,-15.599,-9.697,-1.9777,-12.564,-16.41,-9.7262,-15.599,-7.8699,-0.0638,4.7847,2.8571,0.89314,1.7949,0.89314,-8.5308,2.8986,7.5917
-1.9589,-3.8095,-1.1057,-11.659,-20.452999,-6.8262,-14.418,-13.526,-21.218,-11.659,-20.452999,-7.8699,1.8501,3.8278,0.0,-1.9777,-0.12821,-12.504,-5.6872,-2.8986,4.7209
-0.06319,-6.6667,-0.13008,-9.7262,-14.628,-3.9553,-12.504,-2.9487,-16.41,-9.7262,-14.628,-5.9187,4.7209,6.6986,1.9048,1.8501,1.7949,-17.289,0.0,1.9324,6.6348
-0.06319,-11.429,-1.1057,-7.7939,-10.744,-4.9123,-11.547,-0.0641,-11.603,-7.7939,-10.744,-6.8943,3.764,4.7847,5.7143,0.89314,2.7564,-9.6332,-16.114,8.6957,4.7209
0.88468,-9.5238,-0.13008,-5.8615,-14.628,-2.9984,-24.944,-1.0256,-14.487,-5.8615,-14.628,-6.8943,-1.0207,0.95694,3.8095,-1.9777,0.83333,14.29,-14.218,6.7633,-0.0638
6.5719,-8.5714,2.7967,-1.0306,-9.7735,-1.0845,-29.729,-1.0256,-11.603,-1.0306,-9.7735,-4.9431,-4.8485,0.0,1.9048,-2.9346,-0.12821,13.333,3.7915,-0.96618,-1.9777
9.4155,-7.619,5.7236,0.90177,-5.89,0.82935,-3.8915,0.89744,-6.7949,0.90177,-5.89,1.8862,-2.9346,0.95694,1.9048,-1.9777,0.83333,0.89314,-3.7915,-1.9324,-0.0638
14.155,-1.9048,9.626,-1.0306,-6.8608,2.7432,7.5917,0.89744,-9.6795,-1.0306,-6.8608,4.813,-1.0207,-0.95694,4.7619,0.89314,3.7179,-0.0638,-4.7393,8.6957,1.8501
12.259,6.6667,16.455,1.868,-2.0065,10.399,1.8501,2.8205,-5.8333,1.868,-2.0065,9.6911,2.807,3.8278,9.5238,8.5486,10.449,-7.7193,-14.218,3.8647,0.89314
6.5719,6.6667,13.528,0.90177,-0.06472,11.356,2.807,-0.0641,-6.7949,0.90177,-0.06472,8.7154,0.89314,0.95694,8.5714,6.6348,9.4872,3.764,-5.6872,-2.8986,3.764
3.7283,-0.95238,8.6504,-1.9968,-3.9482,1.7863,1.8501,-1.0256,-8.7179,-1.9968,-3.9482,5.7886,-3.8915,-4.7847,3.8095,-0.0638,3.7179,6.6348,20.853001,-3.8647,1.8501
4.6761,-3.8095,7.6748,2.8341,-0.06472,0.82935,1.8501,1.859,-1.0256,2.8341,-0.06472,4.813,-1.0207,-2.8708,4.7619,0.89314,3.7179,3.764,18.957001,-0.96618,-8.6762
4.6761,0.0,7.6748,3.8003,3.8188,2.7432,-15.375,-0.0641,-1.0256,3.8003,3.8188,3.8374,4.7209,1.9139,9.5238,5.6778,8.5256,-4.8485,-5.6872,2.8986,-6.7624
5.624,5.7143,5.7236,6.6989,6.7314,3.7002,-3.8915,1.859,0.89744,6.6989,6.7314,2.8618,10.463,6.6986,11.429,9.5056,11.41,-5.8054,-28.436001,2.8986,-1.0207
-4.8025,4.7619,-1.1057,-1.0306,3.8188,-4.9123,4.7209,-1.9872,0.89744,-1.0306,3.8188,-1.0407,3.764,0.95694,1.9048,3.764,3.7179,0.89314,-16.114,-2.8986,1.8501
-6.6983,12.381,-1.1057,-2.963,6.7314,-4.9123,11.419,-2.9487,5.7051,-2.963,6.7314,0.91057,1.8501,3.8278,-1.9048,6.6348,2.7564,1.8501,-24.645,-2.8986,6.6348
-3.8547,7.619,0.84553,3.8003,5.7605,-0.12759,17.160999,0.89744,4.7436,3.8003,5.7605,1.8862,7.5917,9.5694,2.8571,10.463,7.5641,2.807,15.166,4.8309,8.5486
-1.9589,2.8571,0.84553,2.8341,5.7605,1.7863,5.6778,-1.9872,6.6667,2.8341,5.7605,0.91057,8.5486,10.526,6.6667,9.5056,8.5256,7.5917,43.602001,8.6957,5.6778
-0.06319,-1.9048,-1.1057,-0.06441,2.8479,-2.9984,1.8501,-4.8718,7.6282,-0.06441,2.8479,-1.0407,4.7209,7.6555,5.7143,7.5917,6.6026,-14.418,17.062,6.7633,3.764
-0.06319,0.0,-1.1057,-1.9968,-1.0356,-2.9984,-1.0207,-1.0256,1.859,-1.9968,-1.0356,-0.06504,2.807,7.6555,3.8095,8.5486,5.641,-27.815001,6.6351,5.7971,5.6778
-1.9589,5.7143,1.8211,1.868,4.7896,2.7432,6.6348,7.6282,5.7051,1.868,4.7896,5.7886,4.7209,11.483,4.7619,10.463,5.641,2.807,-5.6872,3.8647,11.419
-3.8547,1.9048,-4.0325,5.7327,4.7896,2.7432,1.8501,6.6667,2.8205,5.7327,4.7896,1.8862,4.7209,6.6986,0.0,2.807,0.83333,12.376,-18.009001,-0.96618,-1.0207
-6.6983,-6.6667,-13.789,3.8003,-4.9191,-1.0845,-3.8915,1.859,-2.9487,3.8003,-4.9191,-4.9431,-1.9777,0.0,-8.5714,-6.7624,-8.7821,4.7209,-15.166,-8.6957,-5.8054
-3.8547,-5.7143,-10.862,6.6989,1.877,5.614,9.5056,3.7821,4.7436,6.6989,1.877,0.91057,-1.9777,0.0,-9.5238,-6.7624,-9.7436,8.5486,13.27,0.96618,11.419
1.8325,5.7143,-2.0813,7.6651,9.644,11.356,4.7209,11.474,7.6282,7.6651,9.644,8.7154,-0.0638,3.8278,-6.6667,-3.8915,-5.8974,0.89314,32.227001,3.8647,10.463
0.88468,-0.95238,-2.0813,1.868,4.7896,7.5279,-2.9346,9.5513,3.7821,1.868,4.7896,6.7642,-2.9346,-3.8278,-6.6667,-6.7624,-6.859,-8.6762,7.5829,-2.8986,-9.6332
3.7283,-9.5238,-3.0569,-1.9968,0.90615,1.7863,0.89314,2.8205,2.8205,-1.9968,0.90615,2.8618,-7.7193,-9.5694,-7.619,-10.59,-10.705,2.807,-18.957001,-10.628,-20.159
4.6761,-4.7619,-3.0569,5.7327,4.7896,1.7863,2.807,3.7821,0.89744,5.7327,4.7896,3.8374,-7.7193,-7.6555,-8.5714,-8.6762,-10.705,7.5917,-18.009001,-12.56,-15.375
-1.9589,-0.95238,-2.0813,12.496,4.7896,5.614,9.5056,12.436,6.6667,12.496,4.7896,7.7398,0.89314,-2.8708,-5.7143,-5.8054,-6.859,-1.0207,11.374,-4.8309,-4.8485
-4.8025,-2.8571,-3.0569,7.6651,2.8479,5.614,10.463,11.474,1.859,7.6651,2.8479,6.7642,-1.0207,-5.7416,-5.7143,-5.8054,-5.8974,2.807,-18.957001,-4.8309,-4.8485
3.7283,1.9048,1.8211,2.8341,6.7314,3.7002,2.807,4.7436,0.89744,2.8341,6.7314,6.7642,-7.7193,-8.6124,-3.8095,-1.0207,-2.0513,-2.9346,-13.27,-8.6957,-0.0638
6.5719,9.5238,11.577,6.6989,11.586,9.4418,-0.0638,8.5897,8.5897,6.6989,11.586,13.593,-1.0207,-3.8278,5.7143,5.6778,5.641,-1.0207,11.374,0.96618,-3.8915
0.88468,13.333,12.553,10.564,12.557,5.614,3.764,6.6667,8.5897,10.564,12.557,13.593,0.89314,-1.9139,4.7619,5.6778,5.641,5.6778,-1.8957,-3.8647,-2.9346
3.7283,7.619,9.626,7.6651,5.7605,0.82935,12.376,0.89744,4.7436,7.6651,5.7605,8.7154,0.89314,-7.6555,0.95238,3.764,1.7949,3.764,-9.4787,-2.8986,-1.0207
0.88468,-2.8571,5.7236,3.8003,2.8479,-2.0415,10.463,-1.9872,-0.0641,3.8003,2.8479,5.7886,-0.0638,-9.5694,-0.95238,-1.0207,-1.0897,10.463,11.374,0.0,-7.7193
0.88468,-0.95238,3.7724,1.868,1.877,-2.9984,6.6348,-4.8718,2.8205,1.868,1.877,3.8374,-1.9777,-8.6124,1.9048,-0.0638,-2.0513,-1.9777,2.8436,7.7295,-7.7193
-3.8547,1.9048,0.84553,-3.9291,-0.06472,-3.9553,6.6348,-4.8718,2.8205,-3.9291,-0.06472,0.91057,-1.9777,-7.6555,1.9048,-0.0638,-2.0513,-3.8915,0.0,2.8986,-3.8915
-17.125,-4.7619,-7.935,-9.7262,-7.8317,-14.482,-3.8915,-7.7564,-6.7949,-9.7262,-7.8317,-6.8943,-7.7193,-9.5694,-9.5238,-3.8915,-6.859,-1.9777,-20.853001,-13.527,-2.9346
-14.281,6.6667,-4.0325,-1.0306,2.8479,-9.697,-11.547,-3.9103,0.89744,-1.0306,2.8479,-2.9919,-1.0207,1.9139,-8.5714,4.7209,1.7949,-4.8485,-9.4787,-4.8309,-1.0207
-6.6983,7.619,-3.0569,4.7665,4.7896,-3.9553,-3.8915,-3.9103,6.6667,4.7665,4.7896,-1.0407,0.89314,3.8278,-5.7143,7.5917,4.6795,-21.115999,26.540001,0.96618,5.6778
-10.49,-5.7143,-8.9106,0.90177,-2.9773,-8.74,1.8501,-3.9103,0.89744,0.90177,-2.9773,-5.9187,-2.9346,0.0,-6.6667,-0.0638,-2.0513,3.764,11.374,-2.8986,2.807
4.6761,-4.7619,-7.935,-0.06441,-4.9191,-3.9553,-1.9777,-2.9487,-0.0641,-0.06441,-4.9191,-5.9187,0.89314,0.95694,0.0,-1.9777,-3.9744,6.6348,-3.7915,-1.9324,6.6348
-1.9589,-5.7143,-12.813,-3.9291,-6.8608,-4.9123,-7.7193,-1.9872,-4.8718,-3.9291,-6.8608,-9.8211,-1.9777,-2.8708,-1.9048,-7.7193,-9.7436,4.7209,-18.957001,1.9324,-4.8485
-7.6461,-12.381,-16.715,-5.8615,-10.744,-3.9553,-5.8054,-1.0256,-5.8333,-5.8615,-10.744,-12.748,-2.9346,-4.7847,-1.9048,-11.547,-10.705,8.5486,-17.062,2.8986,-14.418
-12.385,-16.190001,-18.667,-3.9291,-9.7735,-5.8692,-11.547,2.8205,-3.9103,-3.9291,-9.7735,-14.699,-3.8915,-7.6555,-4.7619,-12.504,-9.7436,-1.0207,10.427,-2.8986,-10.59
-13.333,-9.5238,-16.715,0.90177,-7.8317,-7.7831,-15.375,6.6667,-3.9103,0.90177,-7.8317,-13.724,-2.9346,-6.6986,-6.6667,-8.6762,-7.8205,-0.0638,-0.94787,4.8309,-3.8915
-1.9589,-1.9048,-8.9106,3.8003,-8.8026,-1.0845,-13.461,4.7436,2.8205,3.8003,-8.8026,-7.8699,0.89314,0.95694,-0.95238,-1.0207,-2.0513,-16.332001,-9.4787,7.7295,13.333
3.7283,-0.95238,-5.0081,5.7327,-4.9191,0.82935,-4.8485,3.7821,-7.7564,5.7327,-4.9191,-5.9187,-0.0638,0.95694,2.8571,-0.0638,0.83333,7.5917,2.8436,5.7971,1.8501
-0.06319,-14.286,-10.862,-1.9968,-7.8317,-0.12759,-12.504,3.7821,-15.449,-1.9968,-7.8317,-11.772,-1.0207,-2.8708,-0.95238,-6.7624,-4.9359,20.032,-11.374,-0.96618,-14.418
3.7283,-15.238,-10.862,-1.9968,-5.89,0.82935,-11.547,2.8205,-8.7179,-1.9968,-5.89,-7.8699,3.764,4.7847,-1.9048,-4.8485,-4.9359,8.5486,-7.5829,-2.8986,-5.8054
-7.6461,-8.5714,-12.813,-1.0306,-6.8608,-3.9553,-4.8485,0.89744,-5.8333,-1.0306,-6.8608,-9.8211,1.8501,3.8278,-6.6667,-5.8054,-7.8205,6.6348,-8.5308,0.0,-3.8915
-12.385,-9.5238,-13.789,-4.8953,-7.8317,-6.8262,-6.7624,-4.8718,-2.9487,-4.8953,-7.8317,-11.772,-1.9777,0.95694,-10.476,-7.7193,-9.7436,-9.6332,-0.94787,-6.7633,2.807
-9.5419,-2.8571,-8.9106,-1.9968,-4.9191,-5.8692,-16.332001,-6.7949,-3.9103,-1.9968,-4.9191,-8.8455,-1.9777,3.8278,-9.5238,-3.8915,-6.859,-13.461,-8.5308,-11.594,5.6778
-5.7504,-3.8095,-4.0325,-1.9968,-4.9191,-7.7831,-3.8915,-4.8718,-3.9103,-1.9968,-4.9191,-6.8943,0.89314,5.7416,-2.8571,-4.8485,-3.9744,-9.6332,-0.94787,-3.8647,-4.8485
3.7283,-7.619,-2.0813,-4.8953,-2.9773,-4.9123,12.376,-4.8718,-4.8718,-4.8953,-2.9773,-5.9187,6.6348,11.483,4.7619,-2.9346,-1.0897,2.807,16.114,6.7633,-2.9346
1.8325,3.8095,2.7967,-3.9291,1.877,-1.0845,7.5917,-2.9487,-1.9872,-3.9291,1.877,-2.9919,10.463,14.354,9.5238,4.7209,4.6795,11.419,3.7915,8.6957,6.6348
6.5719,15.238,8.6504,-2.963,-0.06472,-3.9553,6.6348,-6.7949,2.8205,-2.963,-0.06472,-0.06504,12.376,13.397,12.381,12.376,11.41,12.376,-26.540001,11.594,10.463
-1.0111,0.95238,2.7967,-13.591,-9.7735,-12.568,-8.6762,-12.564,-5.8333,-13.591,-9.7735,-7.8699,4.7209,7.6555,5.7143,7.5917,6.6026,-9.6332,6.6351,4.8309,5.6778
-4.8025,-3.8095,2.7967,-14.557,-8.8026,-13.525,-11.547,-12.564,-6.7949,-14.557,-8.8026,-9.8211,1.8501,9.5694,1.9048,6.6348,5.641,-6.7624,26.540001,1.9324,7.5917
14.155,6.6667,11.577,-11.659,-4.9191,-6.8262,-6.7624,-8.7179,-3.9103,-11.659,-4.9191,-3.9675,5.6778,13.397,6.6667,13.333,9.4872,-16.332001,0.0,6.7633,14.29
10.363,10.476,15.48,-8.7601,-3.9482,-3.9553,4.7209,-5.8333,-2.9487,-8.7601,-3.9482,-1.0407,7.5917,12.44,8.5714,14.29,9.4872,1.8501,-21.801001,12.56,22.903
-1.0111,4.7619,10.602,-4.8953,-2.0065,-3.9553,-2.9346,-6.7949,-4.8718,-4.8953,-2.0065,-2.0163,6.6348,10.526,7.619,8.5486,7.5641,23.860001,-2.8436,10.628,12.376
-7.6461,-3.8095,0.84553,-9.7262,-9.7735,-11.611,-8.6762,-6.7949,-6.7949,-9.7262,-9.7735,-8.8455,2.807,3.8278,2.8571,-1.0207,0.83333,7.5917,7.5829,-0.96618,-4.8485
-0.06319,-1.9048,-2.0813,-8.7601,-8.8026,-6.8262,-3.8915,-4.8718,-2.9487,-8.7601,-8.8026,-8.8455,-1.9777,0.95694,2.8571,-1.0207,-1.0897,-1.9777,-13.27,0.96618,-0.0638
2.7804,-1.9048,-1.1057,-5.8615,-10.744,-1.0845,-1.9777,0.89744,-4.8718,-5.8615,-10.744,-6.8943,-5.8054,-3.8278,0.95238,-1.9777,-3.0128,-10.59,7.5829,1.9324,-4.8485
6.5719,0.95238,5.7236,-1.9968,-4.9191,3.7002,-1.0207,4.7436,1.859,-1.9968,-4.9191,-0.06504,-1.0207,0.95694,3.8095,-0.0638,1.7949,1.8501,28.436001,2.8986,-3.8915
7.5197,8.5714,8.6504,0.90177,2.8479,5.614,-1.0207,2.8205,6.6667,0.90177,2.8479,4.813,-2.9346,3.8278,0.95238,2.807,1.7949,11.419,-21.801001,-6.7633,0.89314
2.7804,5.7143,0.84553,-2.963,-2.9773,2.7432,-18.246,-1.9872,-1.0256,-2.963,-2.9773,0.91057,-9.6332,-6.6986,-2.8571,-2.9346,-3.9744,-2.9346,-18.009001,-2.8986,-2.9346
-0.06319,0.95238,-2.0813,-0.06441,-1.0356,3.7002,-5.8054,-3.9103,-0.0641,-0.06441,-1.0356,1.8862,-9.6332,-8.6124,-2.8571,-3.8915,-4.9359,1.8501,20.853001,0.0,1.8501
0.88468,1.9048,-0.13008,2.8341,4.7896,3.7002,9.5056,-0.0641,7.6282,2.8341,4.7896,3.8374,-7.7193,-6.6986,-0.95238,-1.9777,-4.9359,-1.9777,10.427,-3.8647,2.807
-3.8547,-0.95238,-2.0813,1.868,3.8188,0.82935,12.376,-1.0256,11.474,1.868,3.8188,4.813,-10.59,-10.526,-5.7143,-8.6762,-10.705,5.6778,12.322,-5.7971,-4.8485
1.8325,8.5714,3.7724,5.7327,8.6731,9.4418,24.816999,5.7051,15.321,5.7327,8.6731,11.642,-2.9346,-5.7416,-2.8571,-2.9346,-6.859,-5.8054,18.957001,1.9324,8.5486
0.88468,7.619,0.84553,3.8003,5.7605,10.399,10.463,0.89744,6.6667,3.8003,5.7605,7.7398,-4.8485,-7.6555,-9.5238,-4.8485,-9.7436,-17.289,-0.94787,-0.96618,0.89314
-6.6983,1.9048,-5.0081,2.8341,3.8188,3.7002,-7.7193,-6.7949,-2.9487,2.8341,3.8188,1.8862,-7.7193,-8.6124,-13.333,-6.7624,-11.667,-3.8915,-5.6872,-5.7971,-1.0207
-1.0111,0.0,-2.0813,5.7327,6.7314,3.7002,-4.8485,-1.9872,0.89744,5.7327,6.7314,1.8862,-4.8485,-6.6986,-5.7143,-2.9346,-6.859,4.7209,-18.009001,-2.8986,-1.0207
0.88468,-4.7619,-2.0813,5.7327,4.7896,4.6571,-1.9777,2.8205,3.7821,5.7327,4.7896,-0.06504,-4.8485,-6.6986,-1.9048,-3.8915,-4.9359,-1.0207,12.322,-1.9324,-6.7624
6.5719,-3.8095,-2.0813,7.6651,1.877,4.6571,-1.9777,4.7436,0.89744,7.6651,1.877,0.91057,-2.9346,-3.8278,0.0,-2.9346,-3.0128,4.7209,26.540001,-0.96618,3.764
6.5719,2.8571,2.7967,5.7327,6.7314,6.571,7.5917,2.8205,2.8205,5.7327,6.7314,4.813,-1.0207,-2.8708,0.95238,0.89314,-0.12821,-3.8915,1.8957,1.9324,8.5486
11.311,3.8095,5.7236,1.868,7.7023,8.4848,10.463,-1.9872,3.7821,1.868,7.7023,5.7886,0.89314,-1.9139,3.8095,1.8501,2.7564,-3.8915,-5.6872,1.9324,-0.0638
-4.8025,-1.9048,-1.1057,-3.9291,-3.9482,-4.9123,2.807,-0.0641,-1.9872,-3.9291,-3.9482,-4.9431,2.807,-0.95694,2.8571,1.8501,2.7564,9.5056,-7.5829,8.6957,-3.8915
-12.385,2.8571,-2.0813,-9.7262,-10.744,-12.568,-8.6762,-3.9103,-7.7564,-9.7262,-10.744,-10.797,7.5917,3.8278,5.7143,5.6778,7.5641,-3.8915,0.94787,8.6957,-1.9777
0.88468,3.8095,5.7236,-1.9968,-0.06472,-4.9123,-3.8915,-2.9487,2.8205,-1.9968,-0.06472,-3.9675,12.376,8.6124,11.429,10.463,13.333,-3.8915,15.166,5.7971,8.5486
3.7283,-1.9048,8.6504,-0.06441,1.877,-5.8692,-2.9346,-1.0256,3.7821,-0.06441,1.877,-1.0407,11.419,8.6124,10.476,9.5056,13.333,5.6778,12.322,7.7295,3.764
3.7283,-2.8571,7.6748,-8.7601,-5.89,-6.8262,2.807,-9.6795,-0.0641,-8.7601,-5.89,-3.9675,1.8501,3.8278,3.8095,7.5917,6.6026,0.89314,-13.27,1.9324,-5.8054
11.311,0.0,10.602,-5.8615,-4.9191,-3.9553,-2.9346,-7.7564,0.89744,-5.8615,-4.9191,0.91057,-1.0207,5.7416,4.7619,9.5056,5.641,4.7209,-13.27,1.9324,-1.0207
15.103,10.476,14.504,-1.0306,2.8479,3.7002,-7.7193,0.89744,-0.0641,-1.0306,2.8479,7.7398,7.5917,8.6124,12.381,12.376,10.449,13.333,11.374,12.56,14.29
16.051001,8.5714,14.504,3.8003,-0.06472,10.399,5.6778,8.5897,-1.0256,3.8003,-0.06472,8.7154,10.463,7.6555,16.190001,11.419,11.41,8.5486,18.957001,17.391001,8.5486
19.841999,12.381,19.382,7.6651,0.90615,15.183,14.29,10.513,-1.0256,7.6651,0.90615,14.569,8.5486,8.6124,14.286,13.333,12.372,14.29,-8.5308,7.7295,8.5486
9.4155,2.8571,9.626,3.8003,-3.9482,8.4848,4.7209,6.6667,-5.8333,3.8003,-3.9482,9.6911,-0.0638,1.9139,3.8095,3.764,4.6795,-4.8485,-38.862999,-2.8986,8.5486
4.6761,0.95238,5.7236,0.90177,-4.9191,-1.0845,-20.159,3.7821,-8.7179,0.90177,-4.9191,3.8374,2.807,3.8278,5.7143,0.89314,5.641,0.89314,1.8957,2.8986,-1.0207
3.7283,-5.7143,3.7724,-2.963,-6.8608,-0.12759,-9.6332,-0.0641,-11.603,-2.963,-6.8608,-1.0407,6.6348,7.6555,7.619,1.8501,8.5256,7.5917,24.645,4.8309,-1.0207
8.4676,-6.6667,1.8211,0.90177,-2.9773,9.4418,-1.0207,-0.0641,-1.9872,0.90177,-2.9773,0.91057,7.5917,9.5694,9.5238,5.6778,10.449,11.419,4.7393,13.527,4.7209
5.624,1.9048,0.84553,8.6312,4.7896,12.313,-0.0638,9.5513,2.8205,8.6312,4.7896,4.813,9.5056,13.397,8.5714,9.5056,11.41,11.419,-16.114,8.6957,0.89314
6.5719,2.8571,1.8211,12.496,8.6731,13.27,10.463,18.205,1.859,12.496,8.6731,7.7398,8.5486,14.354,7.619,9.5056,11.41,1.8501,-8.5308,0.96618,2.807
3.7283,0.95238,1.8211,7.6651,4.7896,8.4848,6.6348,7.6282,-1.0256,7.6651,4.7896,4.813,3.764,8.6124,0.95238,3.764,6.6026,-13.461,-6.6351,-7.7295,-1.9777
-0.06319,0.0,1.8211,3.8003,-0.06472,4.6571,6.6348,0.89744,2.8205,3.8003,-0.06472,1.8862,3.764,5.7416,-2.8571,-0.0638,3.7179,-2.9346,-4.7393,-3.8647,-8.6762
4.6761,-1.9048,-1.1057,-0.06441,-0.06472,5.614,-5.8054,1.859,-1.0256,-0.06441,-0.06472,1.8862,3.764,1.9139,-1.9048,-4.8485,0.83333,25.774,-11.374,5.7971,-9.6332
11.311,0.95238,-1.1057,6.6989,6.7314,7.5279,-3.8915,3.7821,-2.9487,6.6989,6.7314,2.8618,5.6778,1.9139,4.7619,-1.9777,3.7179,19.075001,4.7393,11.594,-1.9777
16.051001,2.8571,3.7724,13.462,12.557,13.27,9.5056,10.513,5.7051,13.462,12.557,8.7154,10.463,9.5694,12.381,4.7209,10.449,-0.0638,9.4787,6.7633,4.7209
1.8325,-0.95238,2.7967,8.6312,7.7023,12.313,6.6348,10.513,5.7051,8.6312,7.7023,5.7886,3.764,1.9139,4.7619,0.89314,5.641,-4.8485,-22.749001,-8.6957,-1.0207
5.624,-3.8095,4.748,6.6989,7.7023,14.226,12.376,7.6282,5.7051,6.6989,7.7023,6.7642,2.807,0.95694,0.95238,-1.0207,2.7564,-2.9346,-2.8436,-6.7633,-2.9346
9.4155,-0.95238,3.7724,5.7327,4.7896,11.356,3.764,6.6667,1.859,5.7327,4.7896,6.7642,5.6778,3.8278,3.8095,-1.9777,4.6795,15.247,4.7393,-0.96618,-7.7193
9.4155,3.8095,3.7724,-2.963,-2.9773,5.614,-1.9777,3.7821,-5.8333,-2.963,-2.9773,4.813,9.5056,3.8278,8.5714,-0.0638,6.6026,15.247,-17.062,5.7971,-2.9346
10.363,8.5714,6.6992,3.8003,6.7314,5.614,7.5917,4.7436,5.7051,3.8003,6.7314,9.6911,9.5056,4.7847,9.5238,2.807,6.6026,3.764,-12.322,7.7295,-0.0638
6.5719,3.8095,2.7967,2.8341,9.644,1.7863,8.5486,-4.8718,9.5513,2.8341,9.644,6.7642,2.807,0.0,0.95238,-2.9346,-0.12821,-0.0638,4.7393,-0.96618,-12.504
6.5719,8.5714,7.6748,4.7665,8.6731,-0.12759,22.903,-3.9103,17.243999,4.7665,8.6731,9.6911,8.5486,5.7416,3.8095,2.807,4.6795,3.764,0.94787,3.8647,-6.7624
2.7804,15.238,9.626,0.90177,9.644,-0.12759,20.032,-2.9487,14.359,0.90177,9.644,10.667,9.5056,7.6555,1.9048,6.6348,5.641,-1.0207,-23.697001,0.0,-5.8054
7.5197,7.619,8.6504,-2.963,10.615,5.614,6.6348,-3.9103,9.5513,-2.963,10.615,10.667,5.6778,3.8278,0.95238,2.807,0.83333,-19.202999,16.114,2.8986,-1.0207
5.624,-4.7619,4.748,-1.0306,5.7605,5.614,10.463,-0.0641,7.6282,-1.0306,5.7605,8.7154,3.764,0.95694,0.95238,-2.9346,-3.0128,4.7209,24.645,3.8647,1.8501
-1.9589,-0.95238,2.7967,1.868,4.7896,-0.12759,8.5486,-0.0641,5.7051,1.868,4.7896,3.8374,3.764,0.0,0.0,-1.9777,-3.0128,3.764,0.94787,2.8986,3.764
-1.9589,1.9048,0.84553,-0.06441,0.90615,-5.8692,-4.8485,-6.7949,6.6667,-0.06441,0.90615,-1.0407,-1.9777,-2.8708,-1.9048,-1.0207,-4.9359,-1.9777,0.0,0.0,-1.9777
-5.7504,-0.95238,-4.0325,-6.8277,-7.8317,-12.568,-14.418,-10.641,1.859,-6.8277,-7.8317,-10.797,-7.7193,-9.5694,-7.619,-6.7624,-11.667,-1.0207,-38.862999,-0.96618,-5.8054
-11.438,-6.6667,-6.9593,-7.7939,-12.686,-12.568,-11.547,-5.8333,-1.9872,-7.7939,-12.686,-12.748,-6.7624,-10.526,-9.5238,-11.547,-14.551,-8.6762,1.8957,-1.9324,-3.8915
-9.5419,-15.238,-9.8862,-13.591,-18.511,-9.697,-10.59,-5.8333,-10.641,-13.591,-18.511,-13.724,-9.6332,-15.311,-13.333,-15.375,-16.474001,-2.9346,21.801001,-9.6618,-7.7193
-9.5419,-10.476,-5.0081,-10.692,-21.424,-6.8262,-20.159,-1.9872,-8.7179,-10.692,-21.424,-11.772,-7.7193,-10.526,-8.5714,-10.59,-10.705,-2.9346,16.114,-3.8647,-3.8915
-5.7504,-7.619,-5.0081,-6.8277,-20.452999,-5.8692,-16.332001,-1.0256,-6.7949,-6.8277,-20.452999,-10.797,-7.7193,-8.6124,-6.6667,-9.6332,-9.7436,-13.461,11.374,-5.7971,-4.8485
-5.7504,-12.381,-12.813,-6.8277,-21.424,-5.8692,-27.815001,-1.9872,-16.41,-6.8277,-21.424,-17.625999,-10.59,-10.526,-7.619,-15.375,-14.551,-0.0638,-5.6872,-1.9324,-11.547
-3.8547,-17.143,-15.74,-6.8277,-24.337,-7.7831,-35.470001,5.7051,-16.41,-6.8277,-24.337,-21.528,-4.8485,-5.7416,-5.7143,-15.375,-11.667,12.376,-41.706001,3.8647,-12.504
-9.5419,-24.761999,-23.545,-10.692,-31.132999,-12.568,-29.729,4.7436,-16.41,-10.692,-31.132999,-26.407,-6.7624,-8.6124,-9.5238,-20.159,-15.513,-0.0638,-2.8436,-1.9324,-8.6762
-16.177,-26.667,-25.496,-11.659,-31.132999,-12.568,-24.944,5.7051,-17.372,-11.659,-31.132999,-25.431,-9.6332,-11.483,-10.476,-23.030001,-16.474001,1.8501,18.009001,0.0,0.89314
-17.125,-25.714001,-24.52,-6.8277,-24.337,-7.7831,-19.202999,10.513,-10.641,-6.8277,-24.337,-22.504,-9.6332,-10.526,-8.5714,-21.115999,-13.59,-1.9777,-11.374,-6.7633,-2.9346
-13.333,-25.714001,-25.496,-3.9291,-24.337,-8.74,-31.643,10.513,-18.333,-3.9291,-24.337,-23.48,-10.59,-10.526,-8.5714,-21.115999,-13.59,1.8501,12.322,-7.7295,-13.461
-1.9589,-18.094999,-18.667,2.8341,-21.424,-0.12759,-21.115999,7.6282,-13.526,2.8341,-21.424,-15.675,-6.7624,-7.6555,-1.9048,-14.418,-8.7821,-1.0207,8.5308,-2.8986,-3.8915
4.6761,-9.5238,-13.789,1.868,-19.482,6.571,-13.461,8.5897,-3.9103,1.868,-19.482,-9.8211,-5.8054,-4.7847,0.0,-8.6762,-5.8974,-0.0638,-30.332001,-4.8309,-0.0638
4.6761,-4.7619,-8.9106,3.8003,-17.540001,5.614,-12.504,9.5513,-8.7179,3.8003,-17.540001,-9.8211,-4.8485,-2.8708,-0.95238,-2.9346,-3.9744,13.333,5.6872,-3.8647,4.7209
1.8325,-7.619,-5.9837,0.90177,-15.599,-1.0845,-8.6762,9.5513,-12.564,0.90177,-15.599,-9.8211,-1.9777,1.9139,-2.8571,0.89314,-0.12821,5.6778,37.915001,-0.96618,4.7209
-1.0111,-7.619,-4.0325,-3.9291,-18.511,-2.0415,-11.547,7.6282,-9.6795,-3.9291,-18.511,-8.8455,-1.0207,0.95694,-3.8095,0.89314,1.7949,0.89314,-12.322,-0.96618,-0.0638
2.7804,0.95238,1.8211,-1.0306,-11.715,2.7432,-11.547,2.8205,-8.7179,-1.0306,-11.715,-2.0163,1.8501,0.0,-1.9048,1.8501,2.7564,-3.8915,-7.5829,-0.96618,4.7209
1.8325,0.0,5.7236,-0.06441,-6.8608,4.6571,-2.9346,-1.0256,-2.9487,-0.06441,-6.8608,3.8374,4.7209,0.95694,-2.8571,-0.0638,2.7564,-2.9346,10.427,-6.7633,0.89314
-2.9068,-3.8095,6.6992,-7.7939,-8.8026,2.7432,-4.8485,-12.564,-5.8333,-7.7939,-8.8026,3.8374,2.807,-0.95694,-3.8095,-2.9346,-0.12821,-5.8054,4.7393,-6.7633,-4.8485
0.88468,3.8095,10.602,-6.8277,-8.8026,0.82935,1.8501,-10.641,-5.8333,-6.8277,-8.8026,5.7886,2.807,0.95694,0.0,0.89314,0.83333,-6.7624,-15.166,0.0,3.764
4.6761,0.95238,10.602,-9.7262,-5.89,-1.0845,5.6778,-15.449,-3.9103,-9.7262,-5.89,5.7886,1.8501,2.8708,0.95238,1.8501,0.83333,4.7209,15.166,4.8309,1.8501
0.88468,6.6667,11.577,-7.7939,-0.06472,3.7002,-1.0207,-11.603,-0.0641,-7.7939,-0.06472,7.7398,2.807,4.7847,-1.9048,4.7209,1.7949,7.5917,18.957001,2.8986,9.5056
-5.7504,5.7143,9.626,-10.692,-3.9482,-5.8692,-2.9346,-10.641,-2.9487,-10.692,-3.9482,1.8862,-5.8054,-0.95694,-9.5238,6.6348,0.83333,-18.246,-26.540001,-6.7633,5.6778
-13.333,3.8095,7.6748,-13.591,-2.0065,-14.482,2.807,-16.41,-2.9487,-13.591,-2.0065,-0.06504,-10.59,-3.8278,-10.476,6.6348,-0.12821,-21.115999,2.8436,-3.8647,-0.0638
-16.177,2.8571,1.8211,-15.523,1.877,-18.309,0.89314,-21.218,0.89744,-15.523,1.877,-2.9919,-10.59,-8.6124,-12.381,0.89314,-5.8974,-8.6762,2.8436,-11.594,-6.7624
-17.125,0.0,-3.0569,-20.354,4.7896,-21.18,9.5056,-28.91,2.8205,-20.354,4.7896,-5.9187,-6.7624,-6.6986,-12.381,-0.0638,-6.859,-9.6332,4.7393,-15.459,5.6778
-19.021,2.8571,-1.1057,-23.253,5.7605,-29.792999,7.5917,-30.833,9.5513,-23.253,5.7605,-7.8699,-0.0638,0.95694,-7.619,4.7209,-1.0897,-22.073,21.801001,-5.7971,20.989
-22.812,5.7143,-4.0325,-23.253,5.7605,-32.662998,-5.8054,-35.640999,11.474,-23.253,5.7605,-12.748,0.89314,2.8708,-6.6667,5.6778,-0.12821,-12.504,16.114,3.8647,7.5917
-27.551001,2.8571,-11.837,-24.219,2.8479,-34.577,1.8501,-32.756001,7.6282,-24.219,2.8479,-18.601999,0.89314,4.7847,-11.429,4.7209,-3.0128,-18.246,-1.8957,-1.9324,2.807
-23.76,1.9048,-14.764,-25.184999,2.8479,-33.619999,5.6778,-28.91,8.5897,-25.184999,2.8479,-16.65,1.8501,7.6555,-12.381,3.764,-3.9744,-16.332001,9.4787,-14.493,0.89314
