C3,C4,Cz,F1,F2,F3,F4,F7,F8,Fp1,Fp2,Fz,O1,O2,P3,P4,Pz,T3,T4,T5,T6
4.9686,5.1429,3.2362,-13.592,0.65041,1.0897,3.2206,3.141,-3.285,-13.592,0.65041,-1.3136,-1.2698,5.0399,4.5079,7.6923,4.5089,-10.385,-7.5556,1.9608,8.8462
1.8239,-2.4762,-1.9417,-10.356,-2.6016,3.0128,-4.5089,4.4231,-9.0821,-10.356,-2.6016,-3.9409,-5.7143,-3.8915,-0.57143,-1.2821,-3.2206,-0.12821,3.873,-3.9216,0.51282
3.0818,-3.746,-2.589,5.178,-1.3008,3.0128,-10.95,1.2179,-2.6409,5.178,-1.3008,-3.9409,-5.0794,-5.1675,-1.2063,-2.5641,-4.5089,8.8462,6.4127,-3.268,-1.4103
7.4843,1.3333,1.2945,14.887,0.0,6.2179,-1.9324,8.2692,-1.9968,14.887,0.0,0.0,-1.9048,-2.6156,2.6032,1.9231,-0.64412,12.051,-6.2857,1.9608,1.1538
6.8553,3.873,2.589,9.0615,-0.65041,9.4231,3.8647,11.474,-3.285,9.0615,-0.65041,3.2841,1.2698,-0.70175,2.6032,0.64103,-0.64412,14.615,-22.794001,4.5752,-0.12821
7.4843,1.3333,2.589,11.65,-6.5041,10.064,4.5089,4.4231,-2.6409,11.65,-6.5041,3.9409,2.5397,-0.0638,1.9683,-1.9231,-1.9324,13.974,-12.635,5.8824,-2.6923
1.195,-6.2857,-4.5307,-7.1197,-20.813,-0.19231,-2.5765,-31.474001,-12.947,-7.1197,-20.813,-3.9409,-2.5397,-3.2536,-3.1111,-8.3333,-8.3736,-15.513,1.3333,-0.65359,-5.2564
-10.126,-10.095,-12.298,-7.767,-18.862,-15.577,-8.3736,-7.1154,-23.253,-7.767,-18.862,-13.136,-3.8095,-3.8915,-9.4603,-12.821,-12.882,0.51282,-6.2857,-3.268,-7.1795
-12.642,-6.9206,-13.592,-14.239,-7.1545,-13.654,-10.95,9.5513,-20.032,-14.239,-7.1545,-11.823,-1.9048,-1.9777,-10.73,-11.538,-13.527,13.974,-19.618999,2.6144,-0.76923
-9.4969,-9.4603,-13.592,-22.653999,0.65041,-5.3205,-9.0177,-7.1154,-3.285,-22.653999,0.65041,-6.5681,0.63492,-3.2536,-9.4603,-15.385,-14.171,12.692,-6.9206,4.5752,-4.6154
-0.06289,-12.0,-9.7087,-7.767,-0.65041,1.0897,-7.7295,-0.70513,-1.3527,-7.767,-0.65041,-4.5977,3.8095,-6.4434,-2.4762,-17.308001,-10.306,15.256,-1.8413,7.1895,-14.231
3.7107,-15.175,-6.4725,1.2945,1.3008,0.44872,-10.306,18.525999,-3.285,1.2945,1.3008,-3.2841,5.0794,-6.4434,2.6032,-15.385,-5.153,5.641,-3.746,7.1895,-14.872
8.1132,-10.095,-0.64725,11.65,7.1545,6.2179,-9.6618,18.525999,-1.3527,11.65,7.1545,1.3136,7.619,-1.3397,7.0476,-6.4103,1.2882,14.615,-8.1905,11.111,-9.7436
9.3711,-4.381,5.178,23.948,8.4553,11.346,-1.9324,8.9103,-5.2174,23.948,8.4553,8.5386,6.9841,1.2121,7.0476,-1.2821,5.153,17.820999,-6.9206,10.458,-4.6154
4.9686,-2.4762,5.178,12.298,-3.252,10.705,-1.2882,9.5513,-11.659,12.298,-3.252,8.5386,0.0,-5.1675,0.69841,-2.5641,1.9324,5.641,-10.73,1.3072,-6.5385
3.0818,-1.2063,3.8835,0.64725,2.6016,5.5769,-1.2882,14.679,-3.285,0.64725,2.6016,5.2545,-3.1746,-3.2536,-1.2063,-1.2821,0.64412,5.641,-17.079,-0.65359,-2.6923
3.0818,0.06349,2.589,-3.8835,0.0,2.3718,-2.5765,5.0641,4.4444,-3.8835,0.0,1.3136,-5.7143,-2.6156,-1.8413,-0.64103,0.0,6.2821,-6.9206,-1.9608,0.51282
1.195,1.3333,1.9417,-12.945,-6.5041,1.7308,-1.9324,-0.70513,5.0886,-12.945,-6.5041,1.3136,-7.619,-3.8915,-3.746,0.64103,-0.64412,7.5641,-3.746,-5.2288,1.1538
-3.2075,0.69841,0.64725,-11.003,-8.4553,-0.19231,3.8647,-0.70513,-3.9291,-11.003,-8.4553,1.9704,-6.9841,-2.6156,-5.0159,-0.64103,-1.2882,-8.4615,8.3175,-6.5359,-0.12821
-3.8365,-0.57143,-0.64725,2.589,-7.8049,-2.1154,2.5765,-10.321,-5.8615,2.589,-7.8049,-1.3136,-1.9048,-0.0638,-1.8413,0.64103,0.0,3.7179,14.032,-1.9608,1.1538
3.0818,3.873,1.9417,-4.5307,-4.5528,3.0128,3.8647,-25.063999,5.0886,-4.5307,-4.5528,0.65681,5.7143,5.6778,4.5079,5.1282,4.5089,-0.12821,7.6825,5.2288,5.641
1.8239,5.7778,1.9417,-5.178,-5.8537,-4.6795,-1.2882,6.9872,-1.3527,-5.178,-5.8537,-3.9409,7.619,8.8676,5.1429,8.3333,4.5089,-2.0513,7.0476,8.4967,8.8462
1.195,14.032,3.8835,-0.64725,-4.5528,-11.731,5.7971,17.243999,-16.167,-0.64725,-4.5528,-3.9409,8.254,12.057,4.5079,13.462,5.153,4.359,0.06349,10.458,13.974
-1.9497,14.667,3.2362,-10.356,-5.2033,-6.6026,4.5089,-7.7564,-7.1498,-10.356,-5.2033,-3.2841,7.619,11.419,1.3333,12.179,3.2206,8.8462,-1.2063,7.1895,10.128
-5.0943,8.3175,1.2945,-5.178,-3.9024,-5.3205,1.9324,-2.6282,2.5121,-5.178,-3.9024,-0.65681,4.4444,8.2297,-3.1111,7.0513,-0.64412,5.641,1.3333,4.5752,5.0
-0.69182,10.222,5.8252,3.8835,10.407,4.2949,7.0853,-1.3462,9.5974,3.8835,10.407,7.225,5.0794,9.5056,-1.8413,8.9744,0.64412,-9.1026,3.873,4.5752,5.641
1.8239,15.937,11.65,6.4725,12.358,14.551,16.747,0.57692,15.395,6.4725,12.358,18.391001,3.8095,8.8676,-2.4762,9.6154,2.5765,-10.385,5.7778,-1.9608,8.2051
-3.8365,11.492,7.767,5.178,0.65041,11.346,21.9,-10.321,16.683001,5.178,0.65041,19.704,-2.5397,2.488,-6.2857,3.2051,-1.2882,-10.385,7.0476,-11.765,5.0
-3.8365,3.873,3.2362,16.827999,12.358,4.2949,22.544001,-9.0385,13.462,16.827999,12.358,16.42,-4.4444,-1.3397,-5.6508,-3.8462,-2.5765,-25.128,14.667,-12.418,1.1538
-6.3522,0.06349,0.64725,18.122999,18.211,-0.19231,15.459,-7.7564,5.7327,18.122999,18.211,9.8522,-5.0794,-2.6156,-4.381,-6.4103,-3.2206,-25.128,15.937,-9.1503,0.51282
-1.3208,2.6032,3.8835,16.827999,17.561001,0.44872,17.391001,-7.1154,6.3768,16.827999,17.561001,11.166,-1.9048,-2.6156,1.3333,-3.2051,1.9324,-16.153999,17.205999,-1.9608,-2.0513
1.195,9.5873,9.0615,7.767,20.813,4.9359,18.68,-9.0385,22.48,7.767,20.813,13.136,3.8095,-1.3397,7.0476,5.1282,7.7295,-2.6923,12.762,5.8824,1.1538
-0.69182,5.1429,5.8252,3.2362,14.309,4.2949,1.2882,-8.3974,27.632999,3.2362,14.309,7.225,5.7143,1.2121,7.6825,5.7692,7.0853,11.41,7.6825,11.765,2.4359
5.5975,2.6032,4.5307,-1.9417,-3.252,4.9359,-1.2882,1.2179,12.818,-1.9417,-3.252,4.5977,5.7143,0.57416,7.6825,4.4872,5.7971,10.128,3.873,14.379,3.0769
6.2264,3.2381,2.589,0.64725,-4.5528,4.2949,-4.5089,-10.962,1.2238,0.64725,-4.5528,0.65681,2.5397,-1.9777,5.1429,4.4872,2.5765,3.0769,-7.5556,9.8039,4.359
4.9686,2.6032,1.2945,14.239,5.8537,0.44872,-10.95,14.038,1.2238,14.239,5.8537,-3.2841,1.2698,-0.70175,3.2381,4.4872,1.9324,-0.12821,-0.57143,5.2288,1.7949
4.3396,0.69841,1.2945,8.4142,5.2033,1.0897,-8.3736,30.705,-5.8615,8.4142,5.2033,-3.9409,1.9048,2.488,3.2381,4.4872,1.9324,5.0,10.222,4.5752,3.0769
1.8239,-3.1111,-1.2945,5.178,-3.252,1.7308,-3.8647,8.9103,-12.303,5.178,-3.252,-3.2841,0.63492,5.0399,0.06349,2.5641,-0.64412,16.538,10.222,4.5752,4.359
-3.2075,-6.9206,-7.1197,-3.8835,-7.8049,-5.3205,-9.6618,3.7821,-3.9291,-3.8835,-7.8049,-9.1954,-3.1746,3.126,-5.6508,-1.2821,-5.153,-0.76923,-3.746,-1.3072,3.0769
-2.5786,-5.6508,-8.4142,-17.476,-13.008,-5.3205,-5.153,-1.3462,-7.7939,-17.476,-13.008,-9.1954,-5.0794,1.8501,-6.9206,-0.64103,-5.7971,4.359,-9.4603,-3.9216,3.7179
-5.7233,-6.2857,-11.003,-21.358999,-13.659,-6.6026,-12.882,-4.5513,-12.303,-21.358999,-13.659,-11.823,-6.3492,1.2121,-8.8254,-1.2821,-5.153,9.4872,2.6032,-6.5359,3.0769
-1.9497,-8.1905,-9.7087,-7.1197,-20.813,-4.0385,-14.171,-3.2692,-14.879,-7.1197,-20.813,-10.509,-3.1746,2.488,-7.5556,-2.5641,-4.5089,1.1538,12.762,-4.5752,3.7179
-2.5786,-10.095,-9.7087,-1.2945,-8.4553,-5.3205,-18.68,-19.295,-0.06441,-1.2945,-8.4553,-14.45,-3.8095,-0.70175,-6.9206,-5.1282,-5.153,1.7949,-6.9206,-4.5752,0.51282
-1.3208,-10.73,-6.4725,-6.4725,-2.6016,-7.8846,-19.968,-6.4744,5.0886,-6.4725,-2.6016,-14.45,-5.7143,-3.8915,-5.0159,-6.4103,-4.5089,-12.308,-8.1905,-5.2288,-2.6923
10.0,-4.381,1.2945,-1.9417,-9.1057,1.7308,-9.6618,17.243999,7.0209,-1.9417,-9.1057,-3.9409,0.0,-1.3397,3.2381,-2.5641,1.2882,0.51282,1.3333,0.0,-3.3333
5.5975,-3.746,1.2945,-12.298,-13.659,7.5,2.5765,-18.653999,8.3092,-12.298,-13.659,2.6273,0.0,-3.8915,1.9683,-3.8462,0.0,8.2051,2.6032,-1.3072,-6.5385
7.4843,3.2381,6.4725,-3.8835,0.0,9.4231,12.238,-5.8333,8.9533,-3.8835,0.0,7.8818,2.5397,-1.9777,6.4127,0.64103,3.8647,8.8462,3.2381,2.6144,-7.1795
8.1132,10.222,11.65,-6.4725,1.3008,8.7821,21.9,13.397,10.242,-6.4725,1.3008,13.136,4.4444,-0.0638,8.9524,5.7692,8.3736,17.179001,3.873,5.2288,-7.8205
6.2264,8.3175,9.0615,-7.1197,1.9512,6.2179,14.815,6.3462,6.3768,-7.1197,1.9512,12.479,3.1746,-1.9777,7.0476,3.8462,6.4412,10.128,0.69841,3.268,-8.4615
2.4528,4.5079,3.8835,9.0615,9.1057,2.3718,0.0,10.192,10.886,9.0615,9.1057,7.225,6.3492,2.488,6.4127,2.5641,5.7971,4.359,-8.1905,2.6144,-5.2564
2.4528,4.5079,0.64725,12.298,14.309,3.0128,-3.2206,5.0641,15.395,12.298,14.309,3.2841,10.159,6.3158,7.0476,3.2051,5.7971,-3.9744,-13.27,6.5359,1.7949
4.3396,-3.746,-3.2362,-0.64725,1.3008,2.3718,-1.2882,-1.9872,13.462,-0.64725,1.3008,-1.9704,10.794,8.8676,6.4127,-1.2821,3.2206,-8.4615,5.1429,10.458,4.359
-1.3208,-8.1905,-7.1197,-11.003,-10.407,-5.3205,-3.8647,-5.8333,2.5121,-11.003,-10.407,-9.1954,9.5238,7.5917,3.2381,-1.9231,1.2882,1.1538,2.6032,7.1895,7.5641
-4.4654,-6.9206,-8.4142,-16.827999,-17.561001,-10.449,-7.0853,-13.526,-7.7939,-16.827999,-17.561001,-13.136,5.0794,3.764,-0.57143,-1.9231,-1.2882,-10.385,5.7778,-1.3072,8.2051
-10.755,-10.73,-13.592,-12.298,-11.057,-18.141001,-15.459,-8.3974,0.57971,-12.298,-11.057,-17.733999,-0.63492,-0.0638,-6.9206,-5.7692,-5.7971,-5.8974,12.127,-9.1503,3.7179
-12.642,-7.5556,-13.592,-12.298,-7.8049,-16.858999,-13.527,-6.4744,-2.6409,-12.298,-7.8049,-15.764,-5.0794,-1.3397,-8.8254,-3.8462,-7.0853,-0.76923,0.69841,-10.458,5.641
-5.7233,-3.1111,-9.0615,-20.712,-17.561001,-9.8077,-6.4412,-3.9103,-0.06441,-20.712,-17.561001,-9.1954,-4.4444,2.488,-5.6508,1.2821,-4.5089,-0.76923,2.6032,-7.8431,12.051
-12.013,-7.5556,-12.945,-11.003,-7.8049,-13.654,-10.95,6.3462,5.7327,-11.003,-7.8049,-12.479,-9.5238,-2.6156,-10.095,-4.4872,-9.6618,-0.76923,5.1429,-11.111,4.359
-7.6101,-8.1905,-10.356,7.1197,9.1057,-2.7564,-10.95,-17.372,14.75,7.1197,9.1057,-7.8818,-7.619,-1.9777,-8.8254,-5.1282,-9.0177,1.7949,2.6032,-9.1503,1.7949
-6.3522,-6.2857,-9.0615,10.356,2.6016,1.0897,-8.3736,10.192,15.395,10.356,2.6016,-3.9409,-6.9841,-1.9777,-8.8254,-5.7692,-10.306,5.641,-4.381,-8.4967,2.4359
-3.8365,-8.1905,-11.65,4.5307,3.252,-1.4744,0.64412,22.372,-0.70853,4.5307,3.252,-2.6273,-10.794,-8.9952,-10.73,-11.538,-14.815,0.51282,-4.381,-5.8824,-5.8974
-8.8679,-10.73,-15.534,2.589,2.6016,-5.9615,1.2882,3.7821,-3.9291,2.589,2.6016,-4.5977,-15.238,-11.547,-13.27,-14.744,-17.391001,5.0,-12.635,-7.1895,-10.385
-5.0943,-7.5556,-11.65,9.7087,1.3008,0.44872,1.9324,15.321,-1.9968,9.7087,1.3008,-1.3136,-11.429,-7.0813,-9.4603,-10.256,-12.238,16.538,-16.444,-5.2288,-6.5385
4.9686,-9.4603,-5.178,4.5307,0.0,10.705,0.0,12.115,-7.1498,4.5307,0.0,3.2841,-5.0794,-5.8054,-1.8413,-10.897,-5.7971,9.4872,-1.2063,3.9216,-12.308
4.3396,-10.095,-1.9417,1.9417,3.9024,8.141,-1.9324,10.192,7.0209,1.9417,3.9024,4.5977,-2.5397,-7.7193,0.69841,-10.897,-3.2206,12.051,8.3175,6.5359,-17.436001
9.3711,-0.57143,4.5307,10.356,12.358,7.5,3.2206,2.5,10.886,10.356,12.358,6.5681,0.63492,-6.4434,5.7778,-4.4872,1.9324,16.538,-5.0159,9.1503,-16.795
5.5975,-3.746,4.5307,1.9417,-0.65041,4.2949,0.64412,5.0641,-0.06441,1.9417,-0.65041,4.5977,1.2698,-6.4434,4.5079,-4.4872,1.9324,8.2051,-5.0159,7.1895,-16.153999
1.195,-6.9206,1.9417,3.2362,-2.6016,3.6538,-1.9324,10.833,-0.70853,3.2362,-2.6016,1.9704,3.1746,-5.8054,3.2381,-5.7692,0.64412,11.41,-4.381,7.8431,-16.153999
0.56604,-5.6508,-0.64725,3.2362,5.2033,1.0897,-4.5089,12.756,3.8003,3.2362,5.2033,-1.3136,3.8095,-3.2536,2.6032,-5.1282,-0.64412,3.7179,-6.2857,7.1895,-12.949
0.56604,-1.2063,-1.2945,1.2945,1.9512,-2.1154,-1.2882,0.57692,3.1562,1.2945,1.9512,-2.6273,3.8095,-0.70175,2.6032,-1.9231,-0.64412,-12.308,-2.4762,5.8824,-3.9744
-0.69182,3.873,0.0,3.2362,1.3008,-1.4744,0.64412,-3.9103,3.1562,3.2362,1.3008,-1.3136,2.5397,1.2121,2.6032,2.5641,0.64412,-7.8205,-1.2063,1.3072,2.4359
0.56604,7.6825,2.589,0.0,1.3008,4.2949,1.9324,-0.70513,5.0886,0.0,1.3008,4.5977,1.2698,2.488,1.9683,6.4103,3.2206,1.7949,-9.4603,-1.9608,8.2051
-5.7233,1.9683,-1.2945,-3.2362,1.9512,-0.83333,-2.5765,-5.8333,3.8003,-3.2362,1.9512,-1.3136,-1.2698,1.8501,-1.2063,2.5641,0.64412,-0.12821,5.7778,-5.8824,4.359
-3.2075,-1.2063,-2.589,3.2362,1.3008,-3.3974,-4.5089,-12.244,0.57971,3.2362,1.3008,-5.2545,-3.8095,-1.9777,-3.1111,0.0,-1.9324,-11.026,14.032,-7.8431,1.1538
-4.4654,0.06349,-1.9417,0.0,-4.5528,-4.0385,-6.4412,-1.9872,-7.1498,0.0,-4.5528,-6.5681,-5.0794,-0.0638,-3.1111,1.9231,-1.9324,-9.7436,1.3333,-7.8431,4.359
-0.69182,2.6032,3.2362,-7.1197,-5.2033,1.7308,0.64412,-26.346001,-14.235,-7.1197,-5.2033,-1.3136,-1.2698,3.764,0.69841,5.1282,3.2206,-11.026,-12.0,-6.5359,6.2821
3.7107,3.873,7.767,-11.003,-11.707,3.0128,2.5765,-9.0385,-20.032,-11.003,-11.707,0.65681,-0.63492,1.2121,4.5079,7.0513,7.0853,-2.0513,-7.5556,-5.2288,4.359
9.3711,3.2381,9.7087,-3.8835,-4.5528,1.7308,0.64412,6.3462,-7.7939,-3.8835,-4.5528,0.65681,-1.9048,1.2121,6.4127,7.0513,9.0177,-0.12821,1.9683,-2.6144,2.4359
4.9686,1.3333,8.4142,4.5307,0.65041,1.7308,-2.5765,-1.3462,4.4444,4.5307,0.65041,-0.65681,-1.2698,-0.0638,4.5079,4.4872,6.4412,6.2821,0.06349,1.9608,-2.0513
3.7107,9.5873,10.356,-3.2362,-0.65041,1.7308,5.7971,6.9872,8.3092,-3.2362,-0.65041,2.6273,2.5397,3.126,6.4127,10.256,9.0177,10.128,-3.1111,3.9216,1.7949
6.2264,11.492,11.65,-14.239,-3.9024,0.44872,3.8647,8.9103,12.818,-14.239,-3.9024,2.6273,6.3492,6.9537,9.5873,13.462,12.238,0.51282,-3.1111,3.268,3.0769
13.774,21.016001,17.476,2.589,3.9024,6.859,10.306,-4.5513,10.242,2.589,3.9024,7.8818,12.063,11.419,15.302,20.513,18.035,-16.153999,-13.27,7.8431,12.051
11.887,15.937,16.181,7.1197,7.1545,4.9359,19.323999,-7.1154,8.3092,7.1197,7.1545,9.1954,10.159,5.6778,12.762,13.462,14.171,-20.641001,12.127,7.8431,5.0
3.7107,7.0476,11.65,1.9417,4.5528,0.44872,13.527,-12.885,1.868,1.9417,4.5528,6.5681,6.9841,1.2121,7.0476,6.4103,9.0177,-2.0513,21.016001,1.9608,-3.3333
-2.5786,0.69841,5.178,-2.589,3.252,-2.7564,2.5765,-3.9103,1.868,-2.589,3.252,3.2841,1.2698,-0.0638,0.69841,2.5641,5.153,-7.1795,10.222,-2.6144,-5.8974
-6.9811,-2.4762,0.64725,-4.5307,1.9512,-7.2436,-4.5089,-11.603,6.3768,-4.5307,1.9512,-1.3136,0.0,0.57416,-1.2063,0.64103,1.9324,-12.949,3.2381,-1.3072,-3.9744
-1.3208,1.3333,3.2362,-9.7087,0.65041,-5.3205,0.64412,-16.731001,3.1562,-9.7087,0.65041,2.6273,7.619,5.6778,4.5079,4.4872,7.0853,-7.8205,5.7778,3.9216,4.359
-0.06289,2.6032,3.2362,-13.592,-1.9512,3.6538,6.4412,-12.885,1.868,-13.592,-1.9512,5.9113,6.3492,3.764,4.5079,3.2051,5.7971,-7.8205,9.5873,3.268,5.0
-4.4654,3.2381,-0.64725,1.2945,3.252,-2.7564,3.2206,1.2179,12.174,1.2945,3.252,1.9704,1.9048,1.8501,0.06349,2.5641,1.9324,-12.949,-5.6508,1.9608,7.5641
-10.755,-3.1111,-7.1197,4.5307,7.1545,-10.449,-9.0177,-5.8333,10.242,4.5307,7.1545,-6.5681,-0.63492,-1.3397,-4.381,-1.9231,-2.5765,-2.6923,-0.57143,-2.6144,4.359
-14.528,-8.1905,-11.65,-6.4725,-10.407,-13.013,-6.4412,-9.6795,-15.523,-6.4725,-10.407,-8.5386,-3.8095,-5.1675,-9.4603,-5.7692,-6.4412,-12.949,2.6032,-11.111,3.0769
-12.013,-7.5556,-10.356,-11.65,-14.309,-13.013,-4.5089,-3.2692,-10.37,-11.65,-14.309,-7.225,-4.4444,-3.2536,-9.4603,-4.4872,-6.4412,-10.385,-4.381,-11.765,4.359
-5.7233,-7.5556,-7.767,-11.003,-3.9024,-7.8846,-4.5089,-9.0385,-0.70853,-11.003,-3.9024,-5.2545,-6.3492,-2.6156,-8.8254,-5.1282,-6.4412,-3.3333,8.3175,-10.458,1.1538
-9.4969,-3.746,-5.178,-5.8252,6.5041,-7.8846,-7.7295,-0.0641,5.0886,-5.8252,6.5041,-4.5977,-5.7143,0.57416,-9.4603,-3.2051,-5.7971,3.0769,14.032,-9.8039,1.1538
-11.384,-0.57143,-5.178,-1.9417,5.2033,-5.3205,-2.5765,-7.1154,7.6651,-1.9417,5.2033,-2.6273,-7.619,-1.3397,-11.365,-1.9231,-8.3736,-12.949,8.3175,-13.072,1.7949
-5.7233,3.2381,-1.2945,-9.0615,-1.3008,0.44872,12.882,-1.3462,11.53,-9.0615,-1.3008,3.9409,-6.3492,-0.70175,-7.5556,0.0,-6.4412,-5.2564,1.3333,-7.8431,3.7179
3.0818,8.3175,3.8835,-18.122999,0.65041,7.5,13.527,-5.1923,8.9533,-18.122999,0.65041,8.5386,-2.5397,1.8501,-0.57143,3.8462,-1.2882,-3.3333,0.69841,0.65359,6.9231
1.195,1.9683,2.589,5.178,14.309,-0.83333,4.5089,-8.3974,8.3092,5.178,14.309,3.9409,3.1746,2.488,3.2381,1.2821,1.2882,-10.385,12.127,2.6144,6.9231
-3.2075,0.06349,0.64725,10.356,9.1057,-8.5256,5.7971,-6.4744,-5.8615,10.356,9.1057,0.0,6.3492,3.764,4.5079,0.64103,3.2206,1.7949,2.6032,3.268,5.0
-0.69182,3.873,0.64725,-1.9417,6.5041,-0.83333,2.5765,-32.756001,5.7327,-1.9417,6.5041,-0.65681,5.0794,4.4019,5.1429,2.5641,4.5089,5.641,-3.746,2.6144,7.5641
-6.9811,-6.2857,-7.767,-11.65,-4.5528,-9.8077,-10.306,-31.474001,16.683001,-11.65,-4.5528,-10.509,2.5397,1.8501,0.69841,-4.4872,0.0,1.7949,10.222,1.9608,1.7949
-15.157,-10.73,-13.592,-15.534,-19.511999,-21.987,-9.6618,-1.9872,3.8003,-15.534,-19.511999,-15.107,-1.2698,-2.6156,-5.0159,-8.9744,-4.5089,-9.7436,10.222,-2.6144,-4.6154
-10.755,-5.6508,-8.4142,-12.298,-16.910999,-18.141001,0.0,1.2179,-1.3527,-12.298,-16.910999,-9.1954,-0.63492,-3.8915,-3.1111,-7.0513,-3.2206,-13.59,11.492,-2.6144,-4.6154
-2.5786,-0.57143,-1.9417,-18.77,-3.252,-5.3205,8.3736,5.7051,-7.1498,-18.77,-3.252,-1.3136,-0.63492,-4.5295,-1.8413,-5.1282,-1.9324,-5.8974,10.857,-0.65359,-2.0513
-3.8365,1.9683,0.0,-6.4725,4.5528,-0.19231,7.7295,0.57692,-1.3527,-6.4725,4.5528,1.9704,-2.5397,-3.8915,-5.0159,-3.8462,-4.5089,1.7949,1.9683,-0.65359,-1.4103
-0.06289,-1.2063,-0.64725,6.4725,13.659,2.3718,1.9324,0.57692,10.886,6.4725,13.659,3.2841,-3.1746,-3.8915,-5.0159,-5.1282,-6.4412,-11.026,5.7778,0.0,-2.0513
-1.9497,-1.8413,-1.2945,6.4725,12.358,1.7308,-2.5765,1.859,19.903,6.4725,12.358,1.3136,-3.8095,-7.0813,-5.0159,-6.4103,-7.7295,3.7179,-1.8413,2.6144,-6.5385
-1.9497,1.9683,0.0,2.589,10.407,1.0897,-1.2882,7.6282,10.242,2.589,10.407,0.65681,-3.1746,-7.0813,-2.4762,-2.5641,-4.5089,19.103001,-9.4603,2.6144,-3.3333
0.56604,1.3333,0.64725,4.5307,1.9512,1.7308,0.0,9.5513,-1.9968,4.5307,1.9512,0.0,-1.2698,-4.5295,0.69841,-1.9231,-1.9324,10.769,2.6032,3.9216,-2.6923
4.3396,3.873,1.2945,10.356,-0.65041,5.5769,6.4412,8.2692,-4.5733,10.356,-0.65041,2.6273,0.0,-3.2536,2.6032,0.0,-0.64412,15.897,-7.5556,5.2288,-1.4103
3.7107,-1.8413,-3.2362,4.5307,-7.8049,6.2179,0.0,5.7051,-11.659,4.5307,-7.8049,0.0,-1.2698,-1.9777,0.69841,-2.5641,-3.2206,8.2051,-12.635,3.268,-0.76923
3.7107,-7.5556,-4.5307,-0.64725,-13.659,3.0128,-4.5089,-3.2692,-21.32,-0.64725,-13.659,-1.3136,-1.9048,-3.2536,1.3333,-5.1282,-3.2206,10.128,-1.2063,5.2288,-3.9744
4.9686,-5.6508,-1.9417,-8.4142,-2.6016,7.5,-0.64412,-19.936001,-7.1498,-8.4142,-2.6016,1.9704,-0.63492,-5.8054,2.6032,-5.1282,-1.9324,-3.3333,1.9683,3.268,-5.2564
4.3396,-3.746,-3.2362,-6.4725,3.252,3.0128,3.2206,10.192,1.868,-6.4725,3.252,1.3136,2.5397,-3.2536,3.873,-4.4872,-0.64412,6.9231,5.1429,4.5752,-4.6154
1.195,-5.0159,-6.4725,4.5307,5.2033,-5.9615,-1.2882,21.09,3.8003,4.5307,5.2033,-3.9409,4.4444,2.488,3.2381,-3.8462,-1.2882,17.179001,3.2381,3.9216,-2.6923
-1.9497,-3.746,-5.178,6.4725,11.057,-4.6795,-5.153,11.474,11.53,6.4725,11.057,-2.6273,4.4444,5.6778,1.9683,-0.64103,0.0,11.41,3.2381,1.9608,1.1538
1.195,1.9683,0.0,6.4725,10.407,-0.83333,-0.64412,11.474,8.3092,6.4725,10.407,1.3136,5.7143,8.2297,3.873,5.1282,3.2206,10.128,-6.9206,7.1895,8.2051
-0.06289,-0.57143,0.0,-5.8252,1.3008,-0.19231,-0.64412,-1.9872,-2.6409,-5.8252,1.3008,-1.9704,5.0794,4.4019,2.6032,1.9231,1.2882,3.0769,-2.4762,3.9216,3.7179
-2.5786,-8.8254,-3.8835,-1.9417,-1.9512,-4.0385,-5.153,-5.1923,-7.1498,-1.9417,-1.9512,-6.5681,1.9048,-0.70175,-1.2063,-5.1282,-2.5765,5.0,3.2381,0.65359,-5.2564
3.7107,-9.4603,-5.8252,-5.178,-19.511999,-5.9615,-10.306,-6.4744,-9.0821,-5.178,-19.511999,-8.5386,2.5397,1.8501,0.69841,-4.4872,-3.2206,-23.846001,-6.9206,3.268,-2.6923
-1.9497,-6.2857,-5.8252,-5.8252,-14.309,-6.6026,-9.0177,-1.3462,-9.7262,-5.8252,-14.309,-7.8818,1.9048,2.488,-2.4762,-3.2051,-3.8647,-7.1795,-2.4762,1.9608,-0.76923
-4.4654,-1.2063,-0.64725,-0.64725,1.9512,-4.0385,-1.9324,9.5513,-9.7262,-0.64725,1.9512,-4.5977,3.8095,3.126,-1.2063,-0.64103,-1.2882,13.333,-5.0159,5.8824,-0.12821
1.195,0.69841,2.589,5.178,5.2033,1.7308,-0.64412,8.9103,-14.235,5.178,5.2033,-1.3136,3.1746,3.126,1.9683,0.64103,0.64412,21.667,-19.618999,9.1503,2.4359
3.0818,-2.4762,0.64725,4.5307,-5.8537,7.5,-3.8647,-5.8333,-4.5733,4.5307,-5.8537,-0.65681,1.2698,-0.70175,1.9683,-3.2051,-1.2882,12.692,-6.2857,5.8824,-0.76923
-0.69182,-3.746,-1.9417,11.003,-4.5528,1.7308,-3.2206,0.57692,-1.3527,11.003,-4.5528,-1.3136,0.0,-1.3397,-1.2063,-5.7692,-3.2206,-0.12821,-0.57143,0.0,-2.6923
-3.2075,-3.746,-2.589,3.8835,1.3008,0.44872,-6.4412,5.7051,-17.455999,3.8835,1.3008,-1.3136,-1.9048,-0.0638,-4.381,-5.1282,-5.153,-2.6923,-12.0,-1.3072,-1.4103
-1.3208,-3.1111,0.0,7.1197,5.8537,7.5,0.64412,6.9872,-12.947,7.1197,5.8537,4.5977,-0.63492,5.0399,-4.381,-2.5641,-3.8647,-7.1795,-0.57143,-3.268,3.7179
1.8239,0.06349,3.2362,5.8252,2.6016,7.5,3.8647,6.3462,-10.37,5.8252,2.6016,7.225,0.63492,6.9537,-2.4762,1.2821,-0.64412,-7.1795,3.873,-2.6144,6.9231
1.8239,4.5079,3.8835,-1.2945,-1.3008,6.859,4.5089,-0.70513,-3.9291,-1.2945,-1.3008,7.225,0.63492,6.9537,-1.8413,5.1282,1.2882,-8.4615,-0.57143,-4.5752,8.2051
2.4528,3.873,3.8835,6.4725,4.5528,11.346,5.153,-25.705,2.5121,6.4725,4.5528,9.1954,1.2698,4.4019,-1.8413,3.8462,1.2882,-13.59,-1.2063,-4.5752,1.1538
0.56604,4.5079,3.2362,14.239,11.707,6.859,6.4412,-5.1923,3.8003,14.239,11.707,7.8818,2.5397,4.4019,-1.2063,4.4872,1.9324,0.51282,-6.2857,0.0,-0.12821
-2.5786,3.873,1.9417,7.1197,5.2033,1.0897,3.8647,20.448999,-1.3527,7.1197,5.2033,5.2545,0.63492,3.126,-2.4762,3.8462,1.9324,7.5641,-1.2063,-0.65359,1.7949
-2.5786,3.873,0.64725,1.9417,2.6016,0.44872,-1.9324,5.7051,0.57971,1.9417,2.6016,2.6273,-1.9048,1.8501,-2.4762,3.2051,0.64412,-7.1795,-1.8413,-1.9608,3.0769
1.195,8.9524,3.2362,4.5307,-2.6016,1.7308,7.0853,-2.6282,-1.9968,4.5307,-2.6016,5.9113,-0.63492,2.488,1.3333,6.4103,3.8647,-8.4615,-6.9206,-1.3072,4.359
5.5975,10.222,3.8835,3.8835,-3.252,4.2949,10.306,-10.962,-0.70853,3.8835,-3.252,5.9113,0.0,2.488,4.5079,8.3333,5.7971,-1.4103,-5.6508,3.9216,4.359
-0.06289,3.873,0.64725,0.0,2.6016,2.3718,5.153,-10.321,3.8003,0.0,2.6016,2.6273,-3.8095,-2.6156,0.69841,2.5641,1.9324,2.4359,8.9524,-0.65359,-0.12821
-5.0943,3.873,1.2945,-11.003,2.6016,-4.6795,0.64412,2.5,3.8003,-11.003,2.6016,0.65681,-3.8095,-3.8915,-0.57143,1.9231,0.64412,-0.76923,13.397,-3.9216,-1.4103
1.195,7.0476,5.178,-3.8835,5.2033,-2.7564,5.153,0.57692,7.6651,-3.8835,5.2033,3.9409,1.2698,-0.70175,3.2381,5.1282,3.2206,-14.231,6.4127,-1.9608,1.1538
-0.69182,7.0476,3.2362,-2.589,-5.2033,-3.3974,3.2206,0.57692,7.0209,-2.589,-5.2033,1.9704,1.9048,0.57416,1.3333,5.1282,1.9324,-2.0513,3.2381,-2.6144,-0.12821
1.8239,10.222,5.178,-5.8252,-3.9024,0.44872,3.8647,2.5,-7.1498,-5.8252,-3.9024,3.2841,2.5397,2.488,1.9683,7.6923,3.8647,-1.4103,3.2381,0.65359,1.7949
3.0818,15.302,9.0615,2.589,2.6016,6.859,7.0853,-1.3462,-5.2174,2.589,2.6016,7.8818,2.5397,2.488,1.3333,10.256,4.5089,-0.12821,-4.381,0.65359,3.0769
-0.06289,8.9524,6.4725,1.9417,7.1545,4.2949,0.64412,-2.6282,2.5121,1.9417,7.1545,5.2545,-0.63492,2.488,-1.8413,6.4103,1.2882,-2.6923,1.9683,-2.6144,3.0769
1.195,1.9683,3.2362,-3.2362,5.8537,4.9359,-0.64412,-5.1923,-3.285,-3.2362,5.8537,3.2841,-1.9048,1.8501,-3.1111,2.5641,0.0,-5.2564,-5.0159,-1.3072,2.4359
-3.8365,4.5079,0.0,-1.2945,-9.7561,-2.1154,1.2882,0.57692,-7.7939,-1.2945,-9.7561,-0.65681,-2.5397,1.2121,-5.0159,3.8462,-0.64412,-9.7436,-18.349001,-3.268,3.7179
-8.239,-3.746,-5.178,-5.8252,-11.707,-7.2436,-6.4412,-1.3462,-14.235,-5.8252,-11.707,-6.5681,-4.4444,0.57416,-6.9206,-1.2821,-3.2206,-5.8974,-1.2063,-7.8431,1.7949
0.56604,-3.1111,-1.9417,5.8252,-3.9024,-0.19231,-5.7971,1.2179,-18.743999,5.8252,-3.9024,-4.5977,1.2698,4.4019,-1.2063,1.2821,1.9324,-9.7436,-3.746,-4.5752,2.4359
4.3396,-3.1111,-1.2945,10.356,-11.707,1.7308,-6.4412,-14.167,-23.253,10.356,-11.707,-3.2841,5.7143,7.5917,3.873,2.5641,5.7971,-12.949,-3.746,1.3072,3.0769
8.7421,-1.2063,1.9417,7.767,-5.8537,5.5769,-9.0177,0.57692,-18.743999,7.767,-5.8537,-1.9704,11.429,8.8676,10.857,3.8462,10.95,5.0,-0.57143,8.4967,1.1538
10.629,2.6032,5.8252,4.5307,3.252,8.7821,-4.5089,15.962,-0.06441,4.5307,3.252,1.3136,12.698,8.2297,13.397,6.4103,12.882,22.948999,-2.4762,10.458,1.1538
6.2264,0.69841,3.2362,-7.1197,-4.5528,3.0128,-2.5765,17.243999,1.2238,-7.1197,-4.5528,-1.3136,10.159,5.0399,10.222,4.4872,9.6618,10.769,-2.4762,7.1895,0.51282
4.3396,-0.57143,1.2945,3.8835,1.9512,-0.83333,-3.2206,12.756,1.868,3.8835,1.9512,-1.9704,9.5238,3.126,9.5873,2.5641,6.4412,12.051,-6.2857,10.458,-2.6923
6.8553,-1.2063,-1.2945,5.178,-3.9024,0.44872,-4.5089,8.9103,-2.6409,5.178,-3.9024,-3.9409,9.5238,1.2121,9.5873,1.9231,4.5089,5.0,-3.746,11.111,-2.6923
1.195,-3.1111,-4.5307,-3.2362,-7.1545,-1.4744,-8.3736,1.859,-10.37,-3.2362,-7.1545,-6.5681,7.619,-0.70175,6.4127,-0.64103,0.0,-2.0513,-13.27,10.458,-0.12821
-0.06289,-5.0159,-4.5307,1.9417,-1.3008,-2.7564,-7.0853,9.5513,-12.303,1.9417,-1.3008,-5.9113,6.9841,-0.0638,4.5079,-3.8462,-1.9324,-1.4103,-5.0159,11.111,-5.2564
2.4528,-5.6508,-1.9417,9.0615,1.3008,1.0897,0.0,3.7821,-9.7262,9.0615,1.3008,-1.3136,3.1746,-0.70175,3.2381,-4.4872,-1.9324,2.4359,4.5079,8.4967,-5.2564
-2.5786,-7.5556,-4.5307,7.767,-4.5528,-0.83333,-5.153,-0.0641,-5.8615,7.767,-4.5528,-1.9704,-4.4444,-4.5295,-3.1111,-7.0513,-6.4412,-2.6923,5.1429,0.0,-5.2564
-1.3208,-3.1111,-1.2945,11.003,3.252,1.0897,-3.2206,5.0641,-6.5056,11.003,3.252,-0.65681,-6.9841,-4.5295,-5.0159,-5.1282,-4.5089,-13.59,8.3175,-3.268,-2.0513
-0.69182,0.69841,1.2945,3.8835,-2.6016,3.0128,3.2206,2.5,-0.06441,3.8835,-2.6016,0.65681,-6.3492,-2.6156,-5.0159,-1.2821,-1.9324,-7.8205,0.06349,-6.5359,2.4359
-1.9497,3.2381,3.2362,0.64725,-7.8049,5.5769,4.5089,-6.4744,5.7327,0.64725,-7.8049,5.2545,-4.4444,-0.70175,-3.746,0.64103,1.9324,-3.3333,-5.6508,-9.1503,1.7949
0.56604,3.873,3.8835,-5.8252,1.3008,4.2949,1.9324,1.2179,1.868,-5.8252,1.3008,5.9113,-2.5397,-0.0638,-0.57143,1.2821,3.8647,-10.385,3.873,-7.8431,0.51282
0.56604,6.4127,4.5307,-9.0615,7.1545,4.2949,7.0853,4.4231,-3.9291,-9.0615,7.1545,6.5681,0.63492,1.2121,1.3333,3.8462,5.7971,-9.7436,6.4127,-5.2288,3.0769
-2.5786,8.3175,3.8835,5.8252,7.1545,2.3718,10.306,5.0641,-2.6409,5.8252,7.1545,4.5977,-0.63492,-0.70175,-0.57143,5.1282,4.5089,-3.3333,-1.8413,-8.4967,5.641
-6.9811,-1.2063,-1.2945,2.589,3.9024,-3.3974,2.5765,1.859,3.8003,2.589,3.9024,-1.3136,-5.7143,-5.8054,-6.9206,-1.9231,-3.2206,-8.4615,2.6032,-12.418,-0.76923
-8.239,-5.0159,-5.178,5.178,-3.9024,-8.5256,-2.5765,-5.8333,1.868,5.178,-3.9024,-6.5681,-5.0794,-3.8915,-8.1905,-4.4872,-6.4412,-12.949,8.3175,-9.1503,-2.6923
-6.9811,-4.381,-6.4725,5.178,-7.8049,-7.8846,-10.306,-10.321,-1.3527,5.178,-7.8049,-9.8522,-1.2698,0.57416,-5.6508,-2.5641,-5.7971,-0.76923,1.3333,-5.8824,-0.12821
-0.06289,-6.9206,-4.5307,0.0,0.65041,-5.3205,-12.238,-5.8333,-0.70853,0.0,0.65041,-7.8818,0.63492,0.57416,-0.57143,-2.5641,-2.5765,-9.1026,1.3333,-3.268,0.51282
4.3396,-5.0159,-1.2945,-3.8835,1.9512,-2.7564,-9.6618,-0.0641,-4.5733,-3.8835,1.9512,-5.2545,2.5397,-1.9777,6.4127,-1.9231,1.2882,-0.12821,3.873,6.5359,-0.76923
7.4843,-3.1111,1.2945,-4.5307,-4.5528,7.5,0.0,-23.141001,-14.235,-4.5307,-4.5528,0.65681,1.2698,-1.9777,7.6825,-1.2821,2.5765,0.51282,-0.57143,9.1503,-1.4103
5.5975,-1.2063,1.9417,7.767,-7.1545,3.6538,2.5765,2.5,-11.659,7.767,-7.1545,1.9704,3.8095,-1.9777,8.9524,-0.64103,4.5089,13.974,-6.9206,9.1503,-4.6154
6.8553,-1.2063,3.2362,10.356,2.6016,-0.19231,-2.5765,25.577,-10.37,10.356,2.6016,1.9704,6.9841,-0.70175,11.492,0.64103,6.4412,16.538,-5.0159,10.458,-3.3333
6.8553,-3.746,3.2362,7.767,11.707,3.0128,-4.5089,15.321,-5.8615,7.767,11.707,1.9704,5.0794,-1.9777,10.222,-1.2821,5.153,13.974,-5.6508,10.458,-6.5385
9.3711,-3.1111,5.178,12.945,11.057,5.5769,0.64412,21.09,5.7327,12.945,11.057,6.5681,5.7143,-1.3397,10.222,-1.2821,5.153,10.769,-17.714001,9.8039,-5.2564
11.258,1.3333,8.4142,14.887,13.659,11.346,8.3736,13.397,10.886,14.887,13.659,9.8522,4.4444,-0.70175,8.9524,0.0,5.7971,-7.1795,-15.81,4.5752,-3.9744
10.629,3.873,10.356,14.239,9.7561,13.91,10.95,21.09,4.4444,14.239,9.7561,11.823,0.0,-3.8915,6.4127,0.0,4.5089,8.8462,-0.57143,1.9608,-6.5385
8.7421,3.873,9.7087,9.0615,3.252,14.551,9.0177,14.679,2.5121,9.0615,3.252,11.823,-3.1746,-7.0813,4.5079,-1.2821,2.5765,21.025999,4.5079,0.65359,-9.7436
14.403,5.1429,11.65,24.594999,7.8049,17.115,10.95,16.603001,-0.06441,24.594999,7.8049,13.793,-1.2698,-8.3573,5.1429,0.0,2.5765,3.0769,4.5079,1.3072,-7.1795
15.66,8.9524,13.592,17.476,13.008,17.756001,12.238,12.115,-9.0821,17.476,13.008,15.107,0.63492,-8.9952,5.7778,3.2051,2.5765,11.41,5.7778,4.5752,-5.2564
13.145,12.127,14.887,14.239,7.8049,14.551,15.459,21.09,-1.3527,14.239,7.8049,15.107,0.0,-6.4434,3.873,5.1282,1.9324,7.5641,9.5873,0.65359,-3.3333
8.1132,12.127,11.65,18.122999,0.65041,12.628,12.882,7.6282,5.0886,18.122999,0.65041,12.479,-6.3492,-5.8054,-2.4762,5.1282,-1.9324,3.0769,4.5079,-7.1895,0.51282
4.3396,10.857,9.0615,8.4142,7.8049,11.987,7.0853,-16.731001,1.2238,8.4142,7.8049,9.1954,-7.619,-1.9777,-3.746,7.0513,-1.9324,12.051,-3.746,-8.4967,5.0
1.195,11.492,7.1197,-5.8252,3.9024,6.859,6.4412,6.3462,-2.6409,-5.8252,3.9024,6.5681,-1.9048,6.3158,-2.4762,9.6154,1.9324,7.5641,-7.5556,-9.8039,6.9231
-1.9497,5.7778,1.2945,-7.1197,-2.6016,-2.7564,-4.5089,19.808001,-12.303,-7.1197,-2.6016,-4.5977,0.0,9.5056,-1.2063,8.9744,3.2206,7.5641,-8.1905,-9.8039,6.2821
-1.3208,-2.4762,-2.589,7.1197,0.65041,-9.8077,-12.882,15.962,-18.743999,7.1197,0.65041,-9.1954,1.9048,10.144,0.69841,5.7692,5.153,6.2821,-0.57143,-7.1895,5.641
-1.3208,-6.2857,-3.8835,5.178,-3.9024,-8.5256,-14.815,7.6282,-12.303,5.178,-3.9024,-7.8818,3.1746,9.5056,2.6032,2.5641,4.5089,-2.0513,0.69841,-3.268,1.7949
-1.3208,-4.381,-2.589,2.589,-7.1545,-4.6795,-5.7971,8.9103,-15.523,2.589,-7.1545,-3.9409,3.1746,7.5917,1.9683,1.2821,3.2206,0.51282,-7.5556,1.3072,2.4359
-3.2075,-6.2857,-4.5307,3.2362,-11.707,-2.7564,-5.153,-2.6282,-15.523,3.2362,-11.707,-4.5977,0.63492,2.488,-1.2063,-3.8462,-1.9324,4.359,-3.746,-1.3072,-4.6154
-2.5786,-4.381,-5.8252,2.589,-19.511999,-4.6795,-1.9324,-0.0641,-11.659,2.589,-19.511999,-3.9409,-1.2698,-0.70175,-3.1111,-5.1282,-5.153,6.2821,-13.905,-0.65359,-5.8974
0.56604,-5.0159,-5.178,1.2945,-3.252,1.0897,-6.4412,10.833,-3.9291,1.2945,-3.252,-1.3136,-0.63492,-1.3397,-1.2063,-6.4103,-7.0853,2.4359,-6.2857,6.5359,-5.8974
3.0818,-8.8254,-5.178,-7.1197,13.659,6.859,-8.3736,14.679,0.57971,-7.1197,13.659,-0.65681,-4.4444,-7.0813,-1.8413,-10.897,-11.594,6.2821,1.3333,9.1503,-10.385
3.7107,-5.0159,-3.2362,12.945,6.5041,7.5,-3.2206,17.243999,-0.06441,12.945,6.5041,1.9704,-5.0794,-9.6332,-1.2063,-8.9744,-10.95,19.743999,-13.905,8.4967,-7.1795
3.0818,-5.0159,-3.8835,19.417,10.407,3.6538,-4.5089,7.6282,-2.6409,19.417,10.407,0.0,-4.4444,-11.547,-1.8413,-8.9744,-9.6618,13.974,-10.095,4.5752,-6.5385
1.195,-5.0159,-3.2362,14.887,3.9024,2.3718,0.0,5.0641,-16.812,14.887,3.9024,-1.3136,-5.0794,-14.737,-3.1111,-10.256,-8.3736,5.641,-6.9206,0.65359,-12.308
3.7107,-4.381,-1.2945,7.767,-3.252,6.859,-4.5089,-7.1154,-12.947,7.767,-3.252,0.65681,-0.63492,-11.547,-0.57143,-6.4103,-3.8647,7.5641,-7.5556,0.0,-12.308
-0.06289,-4.381,-0.64725,1.2945,5.8537,0.44872,-4.5089,11.474,1.868,1.2945,5.8537,-0.65681,-1.9048,-7.7193,-2.4762,-4.4872,-2.5765,5.0,0.69841,0.0,-9.1026
-1.3208,-1.2063,0.64725,3.2362,0.65041,2.3718,3.2206,17.243999,4.4444,3.2362,0.65041,3.2841,-5.0794,-5.1675,-5.0159,-2.5641,-2.5765,6.9231,6.4127,-5.8824,-6.5385
-1.3208,-1.8413,-0.64725,-3.2362,-7.1545,5.5769,3.8647,15.962,-1.9968,-3.2362,-7.1545,3.9409,-6.3492,-5.8054,-8.1905,-3.8462,-4.5089,-1.4103,3.873,-9.1503,-6.5385
-0.69182,2.6032,0.0,2.589,1.9512,1.7308,1.2882,17.243999,1.868,2.589,1.9512,1.9704,-6.3492,-1.9777,-7.5556,0.64103,-2.5765,-5.2564,-7.5556,-11.765,-2.0513
-1.3208,3.873,1.9417,20.712,11.057,1.0897,-1.9324,5.0641,-3.285,20.712,11.057,1.3136,-5.7143,2.488,-5.6508,5.7692,1.2882,4.359,-5.6508,-11.765,4.359
-0.06289,5.7778,3.2362,16.827999,3.252,3.0128,3.2206,3.7821,-12.303,16.827999,3.252,2.6273,-3.1746,3.764,-3.1111,8.3333,4.5089,-4.6154,-5.6508,-15.033,5.0
0.56604,6.4127,3.8835,-1.9417,0.65041,-0.83333,3.2206,5.0641,-9.0821,-1.9417,0.65041,2.6273,-1.9048,5.0399,-0.57143,9.6154,7.0853,-3.3333,-3.746,-14.379,8.8462
-3.8365,-2.4762,0.64725,-7.1197,0.65041,-1.4744,-3.2206,-1.9872,1.2238,-7.1197,0.65041,-0.65681,-1.9048,1.8501,-0.57143,3.2051,3.8647,-3.3333,6.4127,-9.1503,2.4359
2.4528,-3.1111,2.589,-3.8835,-2.6016,6.2179,1.9324,3.141,1.2238,-3.8835,-2.6016,3.9409,0.63492,1.8501,2.6032,1.2821,3.8647,1.7949,9.5873,-3.9216,-2.0513
8.1132,1.9683,6.4725,6.4725,-0.65041,8.7821,-1.9324,-1.9872,-11.014,6.4725,-0.65041,5.2545,3.1746,3.764,7.0476,5.7692,5.7971,10.769,0.06349,1.9608,3.0769
8.7421,4.5079,6.4725,12.945,-0.65041,5.5769,3.8647,1.859,-12.303,12.945,-0.65041,3.9409,3.8095,3.764,7.0476,5.7692,5.7971,13.974,-1.8413,3.9216,1.7949
8.7421,6.4127,7.767,9.0615,4.5528,1.7308,3.8647,21.09,3.1562,9.0615,4.5528,3.9409,3.1746,3.126,8.3175,6.4103,5.7971,18.462,-1.2063,6.5359,1.7949
11.258,3.873,7.767,9.0615,7.8049,4.2949,3.8647,29.423,8.9533,9.0615,7.8049,5.2545,0.0,-1.9777,8.3175,3.8462,4.5089,12.051,5.1429,7.1895,-1.4103
16.917999,5.1429,9.7087,19.417,11.707,16.474001,10.306,13.397,4.4444,19.417,11.707,12.479,1.9048,-1.3397,10.857,4.4872,6.4412,9.4872,0.06349,5.8824,-0.76923
16.289,6.4127,10.356,20.712,10.407,16.474001,11.594,21.09,-4.5733,20.712,10.407,14.45,3.8095,-0.0638,12.127,4.4872,7.7295,8.2051,-13.905,8.4967,0.51282
13.145,7.6825,9.7087,11.003,7.8049,11.346,11.594,12.115,-3.9291,11.003,7.8049,12.479,5.0794,-0.70175,10.857,5.1282,7.0853,13.333,-15.175,7.8431,3.7179
9.3711,-1.2063,3.8835,-4.5307,9.1057,7.5,3.2206,6.9872,7.6651,-4.5307,9.1057,6.5681,1.9048,-6.4434,6.4127,-2.5641,1.9324,-6.5385,6.4127,3.9216,-4.6154
9.3711,-2.4762,1.9417,-4.5307,-4.5528,3.0128,6.4412,-4.5513,7.6651,-4.5307,-4.5528,5.2545,4.4444,-3.2536,7.0476,-1.9231,3.8647,-8.4615,22.285999,5.2288,-4.6154
-1.9497,2.6032,-1.2945,0.0,-7.8049,-2.7564,7.0853,-26.987,-1.3527,0.0,-7.8049,1.9704,7.619,6.3158,4.5079,3.8462,5.7971,1.1538,15.937,4.5752,6.2821
-9.4969,6.4127,-1.2945,-1.2945,7.8049,-11.09,1.2882,-35.320999,-1.3527,-1.2945,7.8049,-2.6273,9.5238,13.333,1.9683,9.6154,7.7295,-3.9744,13.397,3.268,15.256
-5.0943,10.857,3.8835,-5.178,7.8049,-7.8846,0.64412,-44.294998,1.868,-5.178,7.8049,-2.6273,10.159,16.523001,3.873,13.462,9.6618,-20.641001,15.302,3.268,19.743999
-11.384,7.0476,0.0,-15.534,-4.5528,-16.858999,0.0,-22.5,3.8003,-15.534,-4.5528,-7.225,5.7143,10.781,-1.2063,8.9744,5.7971,-23.205,14.667,-0.65359,14.615
-12.013,7.0476,-1.9417,-16.181,-7.8049,-18.141001,-7.7295,2.5,1.2238,-16.181,-7.8049,-11.166,10.159,13.333,0.06349,9.6154,5.7971,-16.153999,7.0476,7.1895,15.256
-8.8679,6.4127,-4.5307,-7.767,-14.959,-11.09,-3.8647,-6.4744,-6.5056,-7.767,-14.959,-8.5386,7.619,12.695,-1.8413,8.9744,1.9324,-5.8974,-1.8413,6.5359,18.462
-7.6101,5.7778,-5.8252,-9.0615,-12.358,-3.3974,3.2206,-4.5513,-6.5056,-9.0615,-12.358,-5.9113,1.2698,9.5056,-5.0159,5.7692,-1.2882,-4.6154,0.69841,1.9608,12.051
-6.9811,9.5873,-2.589,-8.4142,1.9512,-5.9615,4.5089,3.141,2.5121,-8.4142,1.9512,-2.6273,0.0,6.9537,-3.1111,6.4103,0.0,-14.872,8.9524,3.268,6.9231
-0.06289,7.6825,2.589,-7.1197,6.5041,-3.3974,1.9324,-1.9872,1.868,-7.1197,6.5041,0.0,0.63492,3.764,1.3333,6.4103,2.5765,-3.3333,-0.57143,5.8824,5.641
8.7421,6.4127,7.767,6.4725,0.0,4.2949,4.5089,3.7821,-4.5733,6.4725,0.0,7.8818,1.2698,3.764,7.0476,8.3333,7.7295,13.333,3.2381,7.8431,5.0
10.0,6.4127,9.7087,16.827999,3.9024,8.7821,4.5089,12.115,1.2238,16.827999,3.9024,9.8522,3.1746,1.8501,10.222,7.6923,10.306,14.615,7.0476,9.8039,-1.4103
11.887,7.0476,10.356,12.298,8.4553,11.987,11.594,7.6282,9.5974,12.298,8.4553,11.823,2.5397,-0.0638,11.492,5.7692,9.0177,13.974,1.9683,10.458,-3.9744
13.774,3.873,6.4725,5.178,5.8537,8.7821,3.8647,-5.1923,1.2238,5.178,5.8537,7.225,3.1746,-0.0638,10.222,2.5641,5.7971,4.359,-6.9206,9.8039,-1.4103
5.5975,-6.2857,-2.589,3.8835,1.9512,-0.83333,-5.153,12.115,-9.7262,3.8835,1.9512,-3.2841,3.1746,-1.3397,5.1429,-5.1282,0.64412,7.5641,-5.0159,6.5359,-6.5385
-5.7233,-12.635,-11.003,-5.8252,-8.4553,-7.2436,-9.6618,12.115,-16.167,-5.8252,-8.4553,-9.8522,-0.63492,-4.5295,-2.4762,-9.6154,-5.7971,10.769,-8.1905,2.6144,-7.1795
-7.6101,-11.365,-14.239,-16.181,-15.61,-9.8077,-10.306,-2.6282,-19.388,-16.181,-15.61,-13.136,-3.8095,-1.9777,-6.9206,-8.9744,-9.0177,8.8462,-18.349001,-1.9608,-2.6923
-3.8365,-7.5556,-9.7087,-7.767,-12.358,-0.19231,-7.7295,-30.191999,-5.8615,-7.767,-12.358,-8.5386,-2.5397,-0.70175,-6.2857,-7.6923,-7.7295,9.4872,-7.5556,-1.3072,-5.2564
-6.3522,-6.2857,-8.4142,-10.356,-14.309,-0.83333,-10.306,-5.1923,-8.438,-10.356,-14.309,-7.225,-2.5397,-1.9777,-7.5556,-7.0513,-7.7295,-4.6154,-3.746,-4.5752,-5.2564
-6.9811,-5.6508,-10.356,-7.767,-13.008,-9.1667,-16.747,21.09,-18.743999,-7.767,-13.008,-12.479,-5.7143,-3.8915,-8.8254,-6.4103,-8.3736,-9.7436,-19.618999,-7.8431,-3.3333
-1.9497,-8.1905,-7.767,3.2362,-12.358,-7.2436,-16.747,8.9103,-11.659,3.2362,-12.358,-11.823,0.0,-1.9777,-1.8413,-4.4872,-2.5765,-2.6923,-12.0,0.65359,-3.9744
-1.3208,-11.365,-7.1197,1.2945,-5.8537,-4.0385,-12.238,2.5,-14.879,1.2945,-5.8537,-8.5386,3.8095,-0.70175,1.3333,-5.7692,0.0,17.820999,-3.746,5.8824,-4.6154
-4.4654,-13.27,-8.4142,-4.5307,-8.4553,-3.3974,-14.171,-3.9103,-22.608999,-4.5307,-8.4553,-8.5386,3.8095,-1.3397,0.69841,-7.6923,-1.2882,13.333,-4.381,4.5752,-3.9744
-1.9497,-10.73,-6.4725,-6.4725,-9.7561,0.44872,-7.7295,-13.526,-16.167,-6.4725,-9.7561,-5.9113,6.9841,1.8501,1.3333,-5.1282,0.64412,1.7949,-5.6508,5.8824,-0.76923
-3.8365,-5.0159,-5.178,-11.65,-10.407,-4.0385,-7.7295,1.859,-3.9291,-11.65,-10.407,-6.5681,8.254,7.5917,1.3333,0.0,2.5765,2.4359,-14.54,3.9216,5.0
-6.3522,-8.1905,-5.8252,-11.003,-8.4553,-6.6026,-8.3736,3.141,-3.285,-11.003,-8.4553,-7.8818,5.0794,7.5917,-1.2063,-3.2051,0.64412,-9.1026,-4.381,1.9608,3.0769
-5.0943,-12.635,-7.767,-10.356,-7.1545,-7.8846,-14.171,-5.1923,-9.7262,-10.356,-7.1545,-9.1954,2.5397,3.126,-3.1111,-7.6923,-3.2206,-12.308,-4.381,3.268,-2.6923
-6.3522,-10.73,-7.767,5.8252,3.9024,-7.8846,-14.171,-0.70513,-10.37,5.8252,3.9024,-9.8522,1.9048,2.488,-4.381,-5.7692,-3.2206,-0.76923,-8.8254,0.0,-0.12821
-10.126,-10.73,-7.1197,7.1197,0.0,-7.2436,-12.238,-2.6282,-6.5056,7.1197,0.0,-7.8818,1.2698,-0.0638,-5.0159,-7.0513,-3.8647,5.0,-8.1905,-1.3072,-5.2564
-8.239,-6.2857,-3.8835,2.589,-5.2033,-2.1154,-3.2206,-12.885,-2.6409,2.589,-5.2033,-1.3136,-0.63492,-1.9777,-4.381,-5.1282,-2.5765,2.4359,-14.54,0.0,-4.6154
-7.6101,-5.0159,-2.589,4.5307,0.0,-2.7564,1.2882,9.5513,0.57971,4.5307,0.0,0.0,-0.63492,-3.8915,-4.381,-4.4872,-1.9324,-14.231,-5.0159,-0.65359,-5.8974
-8.8679,-7.5556,-5.178,5.8252,3.252,-5.3205,-3.8647,17.885,-4.5733,5.8252,3.252,-2.6273,-3.8095,-7.7193,-7.5556,-8.3333,-5.7971,-12.308,2.6032,-1.9608,-7.8205
-11.384,-4.381,-5.178,-1.2945,-1.3008,-3.3974,-1.2882,-5.1923,-3.285,-1.2945,-1.3008,-1.3136,-6.3492,-9.6332,-10.73,-7.0513,-7.7295,-3.9744,-6.9206,-6.5359,-7.1795
-11.384,-1.2063,-5.178,-5.178,0.65041,-3.3974,-1.9324,-4.5513,-5.2174,-5.178,0.65041,-1.9704,-6.9841,-10.271,-10.095,-6.4103,-7.7295,-11.667,-5.0159,-11.111,-9.1026
-1.3208,2.6032,0.64725,3.8835,14.309,3.6538,3.8647,-18.653999,1.868,3.8835,14.309,3.2841,-0.63492,-1.9777,-3.1111,-0.64103,-1.2882,-6.5385,6.4127,-5.8824,-1.4103
-1.3208,2.6032,0.0,10.356,6.5041,1.0897,5.153,-2.6282,-1.9968,10.356,6.5041,1.9704,-0.63492,-0.0638,-1.8413,1.2821,-0.64412,-3.3333,3.2381,-3.268,-0.12821
-1.3208,1.3333,1.2945,1.2945,1.3008,1.0897,7.7295,7.6282,-1.3527,1.2945,1.3008,5.2545,-1.9048,1.8501,-1.8413,1.2821,-0.64412,-12.949,4.5079,-3.268,-0.12821
4.3396,1.9683,5.8252,6.4725,1.3008,6.2179,9.0177,8.9103,10.886,6.4725,1.3008,10.509,-1.9048,3.764,0.06349,2.5641,1.2882,-10.385,3.873,-3.268,3.0769
6.2264,3.2381,8.4142,16.181,5.2033,11.346,11.594,9.5513,5.7327,16.181,5.2033,13.793,-2.5397,4.4019,0.06349,3.2051,1.9324,-0.76923,7.6825,-2.6144,3.0769
3.0818,8.9524,10.356,7.767,8.4553,10.064,9.0177,6.3462,3.8003,7.767,8.4553,11.823,0.63492,8.2297,0.69841,7.6923,3.2206,6.2821,1.3333,1.3072,6.9231
8.7421,16.570999,12.945,-1.2945,7.8049,10.064,6.4412,6.3462,3.1562,-1.2945,7.8049,9.8522,2.5397,10.781,4.5079,13.462,7.0853,-0.12821,-6.2857,5.2288,13.974
10.629,15.937,12.945,-5.178,-0.65041,14.551,3.8647,-0.0641,1.2238,-5.178,-0.65041,7.8818,1.9048,8.2297,5.1429,12.821,7.7295,-3.3333,8.9524,4.5752,10.769
3.7107,8.9524,9.0615,-3.2362,-3.252,4.9359,3.8647,-1.9872,3.8003,-3.2362,-3.252,4.5977,0.63492,5.6778,2.6032,7.0513,5.153,1.7949,17.841,2.6144,5.0
1.195,7.6825,5.8252,1.9417,1.3008,-4.0385,5.7971,-9.6795,5.7327,1.9417,1.3008,0.65681,1.9048,1.8501,2.6032,4.4872,3.8647,-3.3333,2.6032,3.268,3.0769
0.56604,3.2381,1.2945,-1.2945,0.65041,-0.19231,3.8647,-36.603001,3.1562,-1.2945,0.65041,-3.2841,1.9048,-1.3397,2.6032,1.2821,2.5765,-7.1795,1.9683,3.268,0.51282
-6.3522,-10.095,-5.8252,-9.0615,-10.407,-7.8846,-10.306,-9.0385,-1.9968,-9.0615,-10.407,-9.8522,0.63492,-5.1675,0.06349,-7.0513,-0.64412,-11.026,4.5079,1.9608,-4.6154
-8.239,-10.095,-4.5307,-3.2362,-14.959,-7.2436,-8.3736,12.115,-1.3527,-3.2362,-14.959,-5.2545,4.4444,-1.9777,1.3333,-6.4103,0.0,-0.76923,-0.57143,4.5752,-3.3333
-6.9811,-6.2857,-1.2945,0.0,-7.1545,-4.6795,1.9324,-1.3462,-3.285,0.0,-7.1545,0.65681,5.0794,-1.3397,1.9683,-5.1282,0.64412,-10.385,-3.1111,7.1895,-3.3333
-10.755,-12.0,-7.1197,-4.5307,3.252,-11.09,-10.95,-2.6282,-10.37,-4.5307,3.252,-7.8818,1.2698,-5.8054,-1.8413,-10.256,-5.153,-9.1026,-6.2857,6.5359,-3.9744
-7.6101,-14.54,-9.7087,-12.945,3.9024,-7.2436,-19.323999,-14.808,-9.0821,-12.945,3.9024,-11.166,3.1746,-5.8054,-1.8413,-11.538,-7.7295,-5.8974,-9.4603,7.1895,-5.2564
-0.69182,-3.1111,-4.5307,-6.4725,-3.252,-2.7564,-6.4412,5.0641,-11.659,-6.4725,-3.252,-5.2545,6.3492,1.2121,2.6032,-1.2821,-3.2206,6.2821,-18.983999,6.5359,1.7949
4.3396,1.9683,-1.9417,-1.9417,-7.8049,1.7308,3.8647,-2.6282,-6.5056,-1.9417,-7.8049,0.65681,1.9048,2.488,0.69841,0.0,-3.8647,0.51282,0.06349,2.6144,1.7949
-5.0943,-4.381,-8.4142,2.589,-3.252,-2.1154,-3.8647,-2.6282,3.8003,2.589,-3.252,-5.2545,-7.619,-7.0813,-9.4603,-8.3333,-13.527,1.7949,14.032,-3.268,-5.2564
-7.6101,-6.2857,-10.356,7.767,2.6016,-2.1154,-7.7295,4.4231,3.1562,7.767,2.6016,-7.8818,-11.429,-10.271,-14.54,-10.256,-18.035,-7.8205,0.06349,-7.1895,-5.2564
-5.0943,-3.746,-7.767,6.4725,-2.6016,-0.83333,-3.8647,8.9103,-6.5056,6.4725,-2.6016,-5.2545,-12.698,-8.9952,-14.54,-8.9744,-18.68,1.7949,3.873,-5.8824,-3.9744
-3.2075,-3.1111,-5.8252,6.4725,-7.8049,1.7308,-1.9324,10.833,2.5121,6.4725,-7.8049,0.0,-10.794,-6.4434,-13.905,-8.3333,-16.747,16.538,8.9524,-4.5752,-2.0513
-6.9811,-1.2063,-7.767,2.589,-6.5041,-1.4744,-2.5765,1.859,8.9533,2.589,-6.5041,-0.65681,-12.698,-7.7193,-15.175,-7.6923,-16.103001,11.41,-0.57143,-7.8431,-2.0513
-5.0943,0.69841,-5.8252,-7.1197,7.8049,2.3718,11.594,0.57692,-3.285,-7.1197,7.8049,2.6273,-14.603,-9.6332,-12.635,-6.4103,-13.527,9.4872,1.3333,-5.2288,-2.0513
0.56604,1.3333,-1.2945,3.8835,9.1057,8.7821,8.3736,10.833,-0.06441,3.8835,9.1057,5.2545,-8.8889,-4.5295,-6.9206,-1.9231,-6.4412,-0.76923,3.2381,-4.5752,-0.76923
0.56604,1.9683,-0.64725,7.767,8.4553,4.2949,-3.8647,21.731001,10.886,7.767,8.4553,2.6273,-5.0794,-3.2536,-3.1111,1.2821,-1.9324,-3.9744,1.9683,-5.8824,2.4359
-1.3208,-1.8413,-2.589,-5.178,5.8537,2.3718,-8.3736,-0.0641,7.6651,-5.178,5.8537,0.0,-6.9841,-5.1675,-4.381,-1.2821,-3.2206,-4.6154,-3.746,-5.8824,-0.76923
-0.06289,-4.381,-2.589,0.0,1.9512,0.44872,0.0,6.9872,-2.6409,0.0,1.9512,0.0,-6.9841,-6.4434,-3.1111,-4.4872,-4.5089,0.51282,1.3333,-4.5752,-5.2564
1.195,-2.4762,1.2945,9.0615,5.2033,2.3718,2.5765,10.833,1.868,9.0615,5.2033,3.9409,-3.8095,-5.1675,-1.8413,-3.8462,-2.5765,3.7179,4.5079,-1.9608,-5.8974
4.9686,-1.2063,3.8835,12.945,-4.5528,7.5,3.8647,7.6282,3.1562,12.945,-4.5528,6.5681,-1.9048,-5.1675,-0.57143,-3.8462,-2.5765,0.51282,3.873,0.0,-5.8974
-0.69182,-5.0159,-2.589,1.2945,-1.3008,1.0897,0.0,7.6282,1.2238,1.2945,-1.3008,1.3136,-2.5397,-7.7193,-4.381,-8.9744,-7.0853,8.8462,3.873,-0.65359,-7.1795
-6.9811,-8.8254,-9.0615,-10.356,-3.252,-5.9615,-6.4412,9.5513,-1.3527,-10.356,-3.252,-5.9113,-5.7143,-9.6332,-8.8254,-13.462,-12.238,8.2051,-3.746,-0.65359,-12.949
-4.4654,-3.746,-7.1197,3.2362,3.252,-3.3974,-0.64412,5.7051,-4.5733,3.2362,3.252,-3.2841,-4.4444,-7.7193,-8.1905,-8.9744,-10.95,4.359,-6.9206,1.9608,-8.4615
-1.9497,0.06349,-3.8835,11.65,11.707,3.6538,-3.8647,0.57692,-5.2174,11.65,11.707,1.3136,-6.3492,-6.4434,-7.5556,-5.1282,-9.6618,-4.6154,-10.73,-2.6144,-0.76923
-3.2075,-4.381,-4.5307,7.1197,5.8537,4.9359,0.0,-26.346001,2.5121,7.1197,5.8537,3.9409,-10.159,-10.271,-10.095,-9.6154,-12.238,-9.1026,3.873,-9.1503,-4.6154
-3.8365,-6.2857,-3.2362,4.5307,8.4553,2.3718,6.4412,-0.0641,14.75,4.5307,8.4553,3.2841,-8.254,-8.3573,-8.1905,-10.256,-10.306,6.2821,8.9524,-7.1895,-7.1795
4.3396,0.06349,1.9417,14.239,9.1057,8.141,6.4412,15.962,7.0209,14.239,9.1057,6.5681,-1.9048,-1.3397,-1.2063,-2.5641,-2.5765,17.179001,-1.2063,-2.6144,-1.4103
3.0818,3.873,1.9417,12.298,0.0,1.7308,3.8647,19.808001,0.57971,12.298,0.0,3.9409,1.2698,0.57416,0.69841,1.2821,1.2882,4.359,6.4127,-3.268,0.51282
2.4528,5.7778,2.589,-0.64725,-0.65041,0.44872,2.5765,17.885,8.3092,-0.64725,-0.65041,3.2841,0.63492,3.126,2.6032,5.1282,4.5089,0.51282,7.0476,-3.9216,5.0
-1.3208,3.873,0.64725,-13.592,-5.2033,-0.19231,-0.64412,6.9872,1.868,-13.592,-5.2033,-0.65681,-1.2698,3.764,1.3333,6.4103,5.153,2.4359,5.1429,-5.2288,5.0
3.7107,3.2381,2.589,-11.65,-1.9512,0.44872,-3.8647,-2.6282,-4.5733,-11.65,-1.9512,-3.2841,1.2698,6.3158,5.1429,8.3333,8.3736,0.51282,8.9524,0.65359,6.2821
6.8553,7.0476,5.8252,5.8252,-0.65041,-0.83333,-4.5089,1.2179,-3.285,5.8252,-0.65041,-3.9409,8.254,11.419,10.222,12.821,13.527,-3.3333,3.2381,3.9216,9.4872
11.258,10.222,7.767,7.1197,-1.9512,1.0897,-1.2882,-2.6282,-5.2174,7.1197,-1.9512,-2.6273,10.794,13.333,13.397,14.744,15.459,2.4359,-8.8254,5.2288,12.051
9.3711,3.2381,4.5307,5.178,-4.5528,3.0128,-7.0853,-3.2692,-9.0821,5.178,-4.5528,-3.2841,8.254,8.2297,10.222,7.6923,10.95,-8.4615,-9.4603,5.8824,5.0
2.4528,-3.1111,1.2945,0.64725,-14.959,-1.4744,-5.7971,-6.4744,-10.37,0.64725,-14.959,-4.5977,7.619,5.6778,8.3175,1.9231,7.0853,3.7179,1.9683,6.5359,-0.12821
3.0818,-3.1111,1.2945,-9.0615,-13.659,-4.0385,-3.8647,-10.321,-10.37,-9.0615,-13.659,-3.2841,5.0794,3.764,6.4127,1.2821,5.153,9.4872,0.06349,4.5752,-1.4103
7.4843,3.873,7.1197,-11.003,-4.5528,3.0128,5.7971,-7.1154,-9.0821,-11.003,-4.5528,3.9409,6.9841,5.6778,9.5873,5.7692,9.0177,-3.3333,-3.746,6.5359,1.7949
9.3711,12.762,11.65,-2.589,6.5041,6.2179,12.238,-3.9103,-7.7939,-2.589,6.5041,9.1954,9.5238,11.419,13.397,12.821,13.527,-0.12821,-12.0,8.4967,8.8462
3.7107,5.7778,5.8252,3.2362,7.8049,0.44872,3.8647,4.4231,0.57971,3.2362,7.8049,4.5977,8.254,8.2297,8.9524,6.4103,9.0177,-11.026,0.06349,6.5359,3.7179
-1.9497,-1.8413,0.64725,0.64725,-5.8537,-3.3974,0.64412,-0.0641,5.7327,0.64725,-5.8537,1.9704,7.619,5.6778,3.873,1.2821,4.5089,-10.385,7.6825,2.6144,0.51282
-0.69182,-1.2063,0.0,2.589,-13.659,-0.83333,-2.5765,-12.244,-0.70853,2.589,-13.659,-0.65681,6.3492,6.9537,4.5079,3.8462,5.153,-3.3333,2.6032,-0.65359,3.0769
1.195,5.1429,3.2362,-3.2362,-4.5528,-0.19231,3.2206,-5.8333,-2.6409,-3.2362,-4.5528,0.65681,6.9841,12.695,7.6825,10.256,9.6618,-3.9744,-2.4762,-0.65359,12.051
-4.4654,3.873,0.64725,-9.7087,3.252,-6.6026,-3.2206,-31.474001,1.2238,-9.7087,3.252,-2.6273,1.9048,6.3158,3.2381,7.6923,6.4412,-7.8205,5.1429,-5.2288,8.2051
1.195,14.032,7.1197,-9.7087,7.8049,-2.1154,3.2206,-19.295,10.242,-9.7087,7.8049,3.2841,6.3492,9.5056,7.0476,13.462,10.306,-9.7436,7.6825,-0.65359,13.333
-0.69182,10.857,5.8252,-5.8252,-5.8537,-6.6026,5.7971,-2.6282,5.0886,-5.8252,-5.8537,1.3136,6.3492,7.5917,6.4127,12.179,8.3736,-7.8205,11.492,1.9608,12.051
1.8239,6.4127,4.5307,-12.945,-5.8537,-4.6795,3.2206,-1.9872,-9.0821,-12.945,-5.8537,-0.65681,8.8889,6.3158,7.0476,10.256,7.7295,-2.6923,12.762,5.8824,7.5641
7.4843,9.5873,6.4725,4.5307,4.5528,3.0128,3.8647,-5.1923,-0.70853,4.5307,4.5528,1.3136,10.159,9.5056,10.222,13.462,10.95,0.51282,0.06349,8.4967,10.769
2.4528,8.3175,3.8835,9.7087,1.3008,-3.3974,8.3736,-0.70513,7.6651,9.7087,1.3008,1.3136,4.4444,8.2297,7.0476,11.538,8.3736,5.641,-1.2063,7.8431,10.769
4.3396,4.5079,4.5307,10.356,2.6016,3.6538,8.3736,-13.526,11.53,10.356,2.6016,4.5977,2.5397,7.5917,5.7778,7.0513,6.4412,3.0769,0.06349,2.6144,6.2821
1.8239,0.69841,3.2362,-1.2945,9.1057,-1.4744,3.8647,3.141,9.5974,-1.2945,9.1057,1.9704,1.9048,3.764,4.5079,3.2051,4.5089,3.7179,0.06349,-3.268,3.0769
3.7107,0.69841,3.8835,-3.8835,5.8537,-4.6795,1.2882,8.9103,-1.3527,-3.8835,5.8537,0.65681,-1.2698,1.8501,3.2381,1.9231,3.2206,8.2051,-6.9206,-1.9608,3.0769
0.56604,-7.5556,-0.64725,-2.589,-1.9512,-2.7564,-4.5089,6.3462,-1.3527,-2.589,-1.9512,0.0,-4.4444,-3.2536,-1.2063,-7.0513,-2.5765,8.2051,-0.57143,-4.5752,-7.1795
-0.06289,-9.4603,-2.589,0.64725,1.9512,2.3718,0.0,1.859,-3.285,0.64725,1.9512,1.9704,-5.7143,-7.7193,-2.4762,-9.6154,-4.5089,-0.12821,1.3333,-5.2288,-9.7436
3.0818,-6.9206,-1.2945,-1.9417,9.7561,3.6538,-3.2206,8.2692,0.57971,-1.9417,9.7561,1.9704,-4.4444,-7.0813,-1.2063,-8.3333,-3.8647,-12.949,-3.746,-3.9216,-8.4615
7.4843,-3.746,3.8835,0.0,13.659,8.141,0.64412,12.756,9.5974,0.0,13.659,5.2545,-2.5397,-5.8054,0.69841,-5.1282,-1.9324,4.359,0.06349,-1.9608,-7.8205
13.774,4.5079,11.003,11.003,7.8049,15.833,10.95,7.6282,12.174,11.003,7.8049,9.8522,-0.63492,-4.5295,5.7778,1.2821,2.5765,15.256,-2.4762,3.9216,-7.1795
12.516,7.6825,10.356,10.356,-1.9512,11.987,12.882,3.7821,8.9533,10.356,-1.9512,8.5386,-1.2698,-4.5295,5.1429,4.4872,3.8647,5.0,-2.4762,4.5752,-2.6923
-0.69182,1.9683,0.0,-1.2945,-0.65041,-2.1154,-1.9324,-5.1923,-5.8615,-1.2945,-0.65041,-1.3136,-3.8095,-5.8054,-2.4762,0.64103,-2.5765,6.2821,0.06349,-2.6144,-2.0513
-2.5786,0.69841,-3.2362,-6.4725,-4.5528,-5.3205,-3.2206,-7.7564,-12.303,-6.4725,-4.5528,-5.2545,-3.1746,-1.9777,-3.746,1.2821,-3.2206,10.128,8.9524,-5.2288,1.1538
-5.7233,2.6032,-5.178,-7.767,-5.8537,-10.449,-0.64412,1.2179,-3.9291,-7.767,-5.8537,-9.8522,-3.8095,-1.3397,-5.6508,1.9231,-3.8647,-12.308,4.5079,-8.4967,3.7179
-5.7233,1.9683,-5.8252,-8.4142,0.65041,-9.8077,-3.2206,-7.1154,5.0886,-8.4142,0.65041,-9.1954,-4.4444,-0.70175,-6.2857,0.64103,-5.153,-11.667,-6.9206,-7.1895,6.2821
-5.7233,-3.1111,-6.4725,-7.767,0.0,-2.7564,-9.0177,-9.6795,5.7327,-7.767,0.0,-8.5386,-1.9048,-0.0638,-5.0159,-1.2821,-5.153,-7.1795,3.2381,-0.65359,6.2821
-10.126,-9.4603,-10.356,-5.178,-4.5528,-5.9615,-9.6618,8.2692,5.0886,-5.178,-4.5528,-11.166,-2.5397,-2.6156,-7.5556,-6.4103,-8.3736,6.2821,12.762,-3.268,0.51282
-5.7233,-6.2857,-7.767,-0.64725,1.9512,-5.3205,-4.5089,12.756,7.6651,-0.64725,1.9512,-9.8522,-3.8095,-2.6156,-6.9206,-5.7692,-8.3736,-0.12821,3.873,-3.268,-1.4103
-0.06289,-2.4762,-3.2362,5.8252,1.9512,-0.19231,0.64412,8.2692,1.868,5.8252,1.9512,-3.2841,-1.9048,-1.9777,-3.746,-3.2051,-5.153,4.359,-3.746,2.6144,-2.6923
-0.69182,-3.1111,-1.9417,-0.64725,-7.8049,-2.7564,3.8647,9.5513,-3.9291,-0.64725,-7.8049,0.0,-2.5397,-3.8915,-3.1111,-5.1282,-3.8647,5.641,-2.4762,-1.9608,-4.6154
-0.69182,-1.8413,0.64725,5.8252,-1.9512,1.0897,6.4412,12.115,-3.285,5.8252,-1.9512,3.2841,-0.63492,-3.8915,-0.57143,-3.2051,0.0,6.2821,-5.6508,-3.9216,-6.5385
5.5975,-0.57143,4.5307,11.003,3.9024,8.7821,6.4412,10.833,0.57971,11.003,3.9024,7.8818,1.9048,-1.9777,5.1429,0.0,5.7971,6.2821,-5.6508,2.6144,-6.5385
8.1132,0.69841,6.4725,-2.589,7.8049,9.4231,2.5765,10.192,7.6651,-2.589,7.8049,7.225,1.9048,-1.3397,6.4127,1.2821,6.4412,13.333,-3.746,2.6144,-4.6154
11.258,5.7778,9.7087,8.4142,10.407,11.346,10.95,9.5513,4.4444,8.4142,10.407,9.8522,1.9048,0.57416,5.7778,3.8462,6.4412,12.692,-8.8254,1.9608,-1.4103
11.887,7.0476,9.7087,12.945,8.4553,15.833,9.0177,-0.0641,-4.5733,12.945,8.4553,11.166,2.5397,-1.9777,5.7778,3.8462,5.153,15.897,1.3333,3.9216,-3.3333
5.5975,-0.57143,3.2362,-1.2945,1.9512,10.064,-0.64412,7.6282,-9.0821,-1.2945,1.9512,5.2545,-0.63492,-5.1675,0.69841,-0.64103,0.64412,12.051,1.9683,1.9608,-7.1795
1.195,0.06349,0.64725,5.178,-5.2033,1.0897,-2.5765,13.397,-3.9291,5.178,-5.2033,0.0,0.0,-3.2536,-1.2063,0.64103,-0.64412,-7.1795,-11.365,-1.9608,-3.3333
1.8239,1.9683,0.64725,9.0615,-0.65041,-4.0385,-1.2882,7.6282,3.8003,9.0615,-0.65041,-0.65681,-1.2698,-1.9777,-0.57143,1.9231,-0.64412,-3.9744,-6.9206,0.0,0.51282
-7.6101,-1.2063,-2.589,-4.5307,-1.9512,-7.8846,-4.5089,4.4231,4.4444,-4.5307,-1.9512,-3.2841,-2.5397,-0.0638,-4.381,0.64103,-1.9324,-2.0513,0.06349,-1.3072,1.7949
-6.9811,-0.57143,-2.589,0.64725,-4.5528,-4.6795,0.64412,-3.2692,-9.7262,0.64725,-4.5528,-0.65681,0.0,3.126,-3.1111,1.2821,-0.64412,-0.12821,2.6032,-1.3072,3.7179
-1.3208,3.2381,0.64725,7.1197,3.252,-0.19231,1.2882,-0.70513,-5.8615,7.1197,3.252,3.9409,0.0,3.764,-0.57143,3.8462,1.2882,4.359,-5.6508,0.0,3.0769
8.7421,6.4127,7.767,11.003,14.309,13.269,2.5765,-26.987,3.8003,11.003,14.309,12.479,3.1746,7.5917,4.5079,7.6923,5.7971,-0.76923,-2.4762,1.9608,5.641
10.629,7.6825,10.356,2.589,12.358,13.269,9.6618,-3.2692,1.2238,2.589,12.358,13.793,3.8095,9.5056,7.0476,10.256,7.7295,9.4872,-6.9206,2.6144,11.41
7.4843,3.873,7.1197,4.5307,7.1545,6.2179,7.7295,19.167,-2.6409,4.5307,7.1545,7.8818,0.63492,5.6778,3.2381,6.4103,4.5089,8.2051,4.5079,-3.9216,5.641
3.7107,4.5079,5.8252,-0.64725,7.1545,3.0128,6.4412,12.115,5.7327,-0.64725,7.1545,6.5681,-0.63492,2.488,0.69841,4.4872,3.2206,-2.0513,12.762,-7.8431,4.359
4.9686,3.873,7.1197,3.8835,11.057,4.9359,7.0853,6.3462,19.903,3.8835,11.057,9.1954,2.5397,3.126,1.9683,3.8462,3.8647,1.1538,12.762,-1.9608,2.4359
6.8553,-0.57143,3.8835,1.9417,0.65041,8.141,1.2882,-8.3974,16.683001,1.9417,0.65041,6.5681,0.0,-0.0638,-0.57143,-1.2821,0.0,-3.9744,3.873,-1.9608,-2.0513
-0.06289,-6.2857,-3.2362,-5.178,-10.407,-1.4744,-3.8647,1.859,3.1562,-5.178,-10.407,-2.6273,-1.9048,-1.3397,-6.2857,-6.4103,-5.7971,-25.128,-2.4762,-7.1895,-2.6923
-5.0943,-4.381,-5.8252,0.0,-0.65041,-5.9615,-3.8647,6.3462,-5.2174,0.0,-0.65041,-5.9113,-3.1746,-1.9777,-8.8254,-6.4103,-7.0853,-6.5385,-17.714001,-7.1895,-3.3333
-8.8679,-9.4603,-9.7087,3.2362,9.1057,-5.3205,-4.5089,-8.3974,-1.9968,3.2362,9.1057,-5.9113,-6.3492,-8.3573,-10.73,-12.179,-11.594,10.128,-6.2857,-5.8824,-9.7436
-7.6101,-8.1905,-7.767,3.2362,3.9024,-3.3974,3.8647,-0.0641,2.5121,3.2362,3.9024,-1.3136,-6.3492,-8.3573,-10.095,-10.897,-10.95,9.4872,8.9524,-1.9608,-6.5385
-8.239,-3.1111,-5.8252,-3.2362,0.0,-0.19231,0.0,6.9872,8.9533,-3.2362,0.0,-1.3136,-5.0794,-6.4434,-8.1905,-5.7692,-7.7295,4.359,-4.381,-1.9608,-3.9744
-4.4654,1.9683,-1.2945,1.9417,-2.6016,0.44872,3.8647,5.7051,5.0886,1.9417,-2.6016,1.3136,-1.9048,-2.6156,-4.381,-1.2821,-3.8647,-0.76923,-3.746,0.0,-2.0513
-5.0943,-0.57143,-1.9417,1.9417,1.3008,-4.0385,8.3736,-0.70513,-3.285,1.9417,1.3008,-1.3136,-0.63492,-5.1675,-2.4762,-3.8462,-4.5089,3.7179,8.9524,4.5752,-5.2564
-6.3522,-7.5556,-7.767,-11.65,-1.9512,-7.2436,-3.8647,-7.7564,-6.5056,-11.65,-1.9512,-7.8818,-2.5397,-10.271,-3.746,-8.3333,-7.7295,1.1538,4.5079,2.6144,-9.1026
-3.2075,-2.4762,-6.4725,-8.4142,-6.5041,-7.2436,-10.95,-7.7564,-9.7262,-8.4142,-6.5041,-9.1954,-1.9048,-6.4434,-1.8413,-4.4872,-5.153,-7.8205,-4.381,4.5752,-4.6154
-0.69182,-3.746,-3.8835,3.8835,0.0,-2.7564,-9.6618,-5.8333,-5.2174,3.8835,0.0,-6.5681,0.63492,-0.0638,0.69841,-1.2821,-1.2882,-2.6923,0.06349,6.5359,0.51282
-5.0943,-8.8254,-7.1197,-8.4142,-3.9024,-2.1154,-13.527,-14.167,4.4444,-8.4142,-3.9024,-9.1954,-0.63492,-1.3397,-2.4762,-3.2051,-3.2206,-3.3333,-0.57143,1.3072,-0.76923
-12.642,-8.1905,-11.003,-10.356,-18.211,-9.8077,-9.6618,-6.4744,8.3092,-10.356,-18.211,-9.1954,-3.8095,-1.3397,-8.8254,-5.1282,-7.0853,-11.026,-2.4762,-3.9216,2.4359
-12.642,-6.9206,-10.356,-5.8252,-14.959,-8.5256,-7.7295,-31.474001,3.8003,-5.8252,-14.959,-6.5681,-2.5397,-0.70175,-9.4603,-5.7692,-7.7295,-0.12821,-2.4762,1.9608,1.7949
-4.4654,-1.2063,-5.8252,-7.767,1.9512,-4.0385,-0.64412,-16.731001,1.2238,-7.767,1.9512,-5.9113,2.5397,0.57416,-4.381,-0.64103,-4.5089,13.333,-14.54,7.1895,3.0769
-8.8679,-2.4762,-7.767,-9.0615,-0.65041,-11.09,3.2206,1.2179,-2.6409,-9.0615,-0.65041,-8.5386,-3.1746,-3.2536,-8.1905,-4.4872,-7.7295,-3.3333,-5.6508,0.65359,-0.76923
-13.27,-8.1905,-12.298,-17.476,-4.5528,-16.218,-1.9324,-5.1923,-0.06441,-17.476,-4.5528,-11.166,-10.794,-9.6332,-12.635,-11.538,-11.594,-16.795,12.762,-2.6144,-9.7436
-8.239,-4.381,-7.1197,-11.003,-3.252,-9.1667,-0.64412,-8.3974,-1.3527,-11.003,-3.252,-6.5681,-8.8889,-8.3573,-7.5556,-8.3333,-7.0853,-18.077,14.032,-3.268,-7.8205
-6.3522,-3.746,-4.5307,-6.4725,-3.252,-6.6026,-4.5089,-10.962,6.3768,-6.4725,-3.252,-5.2545,-3.8095,-6.4434,-1.8413,-5.7692,-1.9324,-11.026,12.762,1.3072,-5.2564
2.4528,0.69841,1.2945,0.0,-3.252,2.3718,-1.9324,-16.731001,8.9533,0.0,-3.252,1.3136,1.2698,-3.2536,4.5079,-0.64103,3.8647,-0.12821,13.397,4.5752,-0.12821
0.56604,5.7778,4.5307,3.8835,-1.3008,4.2949,3.8647,1.859,12.174,3.8835,-1.3008,5.2545,4.4444,0.57416,6.4127,5.1282,7.7295,5.641,6.4127,0.0,2.4359
1.8239,10.222,8.4142,3.2362,9.1057,3.0128,11.594,6.9872,17.971001,3.2362,9.1057,8.5386,6.9841,5.0399,8.9524,9.6154,12.238,8.2051,2.6032,1.3072,6.2821
11.258,14.667,12.945,9.7087,15.61,10.064,13.527,5.7051,10.886,9.7087,15.61,12.479,10.159,8.2297,12.762,13.462,13.527,-3.3333,0.69841,6.5359,10.128
11.258,12.127,12.298,9.0615,11.057,14.551,15.459,13.397,2.5121,9.0615,11.057,14.45,6.9841,5.6778,8.9524,10.256,9.6618,-6.5385,2.6032,3.9216,5.641
8.1132,11.492,10.356,12.945,5.8537,13.269,11.594,3.141,-4.5733,12.945,5.8537,11.823,3.8095,3.764,5.1429,8.9744,5.153,1.7949,0.06349,1.3072,3.7179
4.3396,5.7778,7.767,9.0615,1.9512,11.346,7.0853,1.859,-11.659,9.0615,1.9512,10.509,-0.63492,-0.0638,1.3333,3.8462,1.2882,11.41,3.2381,-1.3072,-0.12821
6.8553,1.9683,8.4142,0.64725,-3.9024,11.987,1.9324,6.3462,-12.303,0.64725,-3.9024,11.823,1.9048,1.8501,1.9683,2.5641,1.2882,12.051,0.06349,2.6144,0.51282
4.9686,5.7778,7.767,5.8252,5.8537,6.859,1.2882,8.9103,-3.285,5.8252,5.8537,9.8522,1.2698,2.488,0.69841,3.8462,1.2882,10.128,-20.889,0.0,4.359
1.195,0.69841,3.8835,2.589,9.1057,3.0128,5.153,-5.1923,5.7327,2.589,9.1057,7.8818,0.63492,0.57416,-0.57143,-2.5641,0.0,1.7949,-0.57143,-2.6144,-0.12821
-0.06289,-4.381,-0.64725,-9.0615,-0.65041,0.44872,4.5089,-15.449,4.4444,-9.0615,-0.65041,2.6273,-0.63492,-0.70175,-1.2063,-5.7692,-1.9324,-7.1795,8.9524,-5.2288,-1.4103
-1.3208,-3.1111,-1.9417,-9.0615,-0.65041,-7.2436,-3.8647,5.0641,3.1562,-9.0615,-0.65041,-3.2841,-3.1746,-3.2536,-2.4762,-4.4872,-2.5765,-5.8974,0.69841,-5.8824,-1.4103
-0.06289,-3.1111,0.64725,-1.9417,-3.252,-7.8846,-5.153,6.9872,5.7327,-1.9417,-3.252,-1.9704,-1.9048,-2.6156,0.06349,-3.2051,0.0,-1.4103,5.1429,-1.9608,-3.9744
2.4528,-3.746,2.589,5.178,3.9024,2.3718,0.0,-6.4744,14.106,5.178,3.9024,1.9704,-0.63492,0.57416,2.6032,-3.2051,1.2882,1.7949,15.302,1.3072,-2.0513
-1.3208,-1.8413,0.64725,-3.2362,9.1057,-3.3974,0.0,-3.9103,3.8003,-3.2362,9.1057,-2.6273,-1.9048,1.2121,1.3333,-1.2821,0.64412,-10.385,10.857,1.9608,1.7949
-2.5786,1.9683,0.0,-22.006001,-5.8537,-12.372,-2.5765,-9.0385,-6.5056,-22.006001,-5.8537,-7.8818,1.9048,5.0399,4.5079,3.8462,4.5089,-10.385,5.7778,5.2288,7.5641
-2.5786,0.69841,-1.2945,-14.239,-16.26,-14.295,-6.4412,-9.6795,-0.06441,-14.239,-16.26,-11.823,5.0794,6.3158,5.7778,5.1282,6.4412,-3.3333,8.9524,4.5752,6.2821
3.0818,3.873,1.9417,-5.8252,-7.1545,-7.2436,-3.8647,-6.4744,5.0886,-5.8252,-7.1545,-6.5681,5.7143,8.2297,7.0476,7.0513,7.7295,-11.026,8.9524,1.9608,8.2051
0.56604,8.3175,1.9417,-11.003,-3.252,-8.5256,-2.5765,-1.3462,9.5974,-11.003,-3.252,-6.5681,1.9048,7.5917,5.7778,8.9744,7.0853,4.359,2.6032,1.3072,9.4872
-0.69182,3.2381,-0.64725,-3.8835,-10.407,-3.3974,0.64412,-18.653999,3.1562,-3.8835,-10.407,-5.9113,0.63492,5.6778,3.873,5.7692,4.5089,6.2821,1.3333,2.6144,6.2821
-3.8365,-3.1111,-3.8835,0.0,-7.8049,-9.1667,-11.594,-2.6282,-5.8615,0.0,-7.8049,-10.509,0.0,3.764,0.69841,1.9231,1.2882,-5.8974,-3.746,-0.65359,3.7179
-3.2075,-3.746,-1.9417,-8.4142,-2.6016,-5.9615,-13.527,3.7821,-11.014,-8.4142,-2.6016,-7.8818,-1.9048,1.8501,-1.2063,1.2821,0.64412,-3.9744,-3.1111,-5.2288,3.0769
-0.69182,2.6032,2.589,-4.5307,-12.358,-0.83333,0.0,-1.3462,-11.014,-4.5307,-12.358,0.0,-0.63492,-0.0638,0.06349,3.2051,2.5765,9.4872,-10.73,-0.65359,2.4359
-3.8365,0.69841,0.64725,-0.64725,-4.5528,1.0897,2.5765,3.7821,-5.8615,-0.64725,-4.5528,1.9704,-5.0794,-5.8054,-5.0159,-1.9231,-2.5765,13.333,-2.4762,-0.65359,-2.6923
-0.69182,5.7778,2.589,4.5307,1.3008,5.5769,7.0853,5.7051,1.2238,4.5307,1.3008,5.9113,-1.2698,-0.70175,-3.746,0.64103,-1.9324,10.769,-3.1111,1.3072,1.1538
0.56604,0.69841,0.0,7.767,9.1057,8.7821,7.0853,3.141,12.818,7.767,9.1057,6.5681,0.0,-1.9777,-3.746,-3.2051,-3.8647,-3.3333,7.0476,0.65359,-1.4103
-3.2075,-5.0159,-3.8835,-5.8252,10.407,1.7308,3.2206,-0.0641,14.75,-5.8252,10.407,1.3136,-6.3492,-7.0813,-8.1905,-7.6923,-8.3736,-3.9744,11.492,-7.1895,-7.8205
-0.69182,-1.2063,-0.64725,9.7087,9.1057,-0.19231,-0.64412,-5.1923,10.886,9.7087,9.1057,0.0,-7.619,-7.0813,-5.6508,-4.4872,-5.7971,-4.6154,1.9683,-7.8431,-9.1026
3.7107,5.1429,3.8835,11.65,5.8537,1.0897,0.64412,-0.70513,10.886,11.65,5.8537,1.9704,-3.8095,-5.8054,0.06349,0.0,-1.2882,-0.76923,-0.57143,-3.268,-5.8974
5.5975,2.6032,3.2362,-2.589,3.252,3.0128,-1.2882,6.9872,-0.70853,-2.589,3.252,0.65681,2.5397,-1.9777,5.1429,-0.64103,2.5765,8.8462,3.2381,4.5752,-4.6154
8.1132,0.69841,3.2362,-2.589,3.252,3.6538,0.0,3.141,-1.9968,-2.589,3.252,1.3136,7.619,-0.70175,8.9524,-0.64103,4.5089,9.4872,3.2381,7.8431,-3.9744
9.3711,5.1429,5.8252,-11.003,-3.252,4.2949,3.8647,-9.6795,1.868,-11.003,-3.252,2.6273,10.159,3.126,11.492,3.8462,8.3736,3.0769,0.69841,9.8039,-0.12821
3.0818,5.7778,4.5307,-9.7087,-14.959,2.3718,10.95,-10.962,3.1562,-9.7087,-14.959,3.2841,9.5238,3.764,9.5873,4.4872,8.3736,-4.6154,0.06349,8.4967,1.7949
-6.3522,-1.8413,-3.2362,-3.2362,-9.7561,-7.8846,-1.9324,-8.3974,1.2238,-3.2362,-9.7561,-4.5977,2.5397,-0.0638,2.6032,0.0,2.5765,-2.0513,-4.381,3.268,1.7949
-13.899,-8.8254,-10.356,-10.356,5.8537,-17.5,-12.238,-14.167,-3.285,-10.356,5.8537,-12.479,-1.2698,-3.2536,-3.746,-4.4872,-1.9324,-2.6923,3.2381,-3.268,-0.76923
-8.8679,-6.2857,-6.4725,-5.178,6.5041,-12.372,-12.882,-14.808,13.462,-5.178,6.5041,-9.1954,3.1746,3.126,0.06349,0.0,2.5765,-13.59,10.857,-1.3072,2.4359
2.4528,5.1429,2.589,-0.64725,5.8537,-5.3205,-1.2882,-7.1154,15.395,-0.64725,5.8537,-0.65681,9.5238,15.247,7.0476,11.538,10.95,-13.59,-1.2063,4.5752,15.256
3.7107,10.857,7.767,-5.178,4.5528,2.3718,9.6618,-13.526,4.4444,-5.178,4.5528,3.9409,8.254,15.247,6.4127,14.103,11.594,-9.7436,7.6825,1.3072,17.179001
-1.9497,9.5873,7.1197,-11.65,-2.6016,-0.19231,13.527,-19.936001,5.0886,-11.65,-2.6016,5.2545,2.5397,8.8676,0.69841,10.256,7.0853,-2.6923,17.205999,-3.268,8.8462
-4.4654,5.1429,2.589,-11.003,-10.407,-5.3205,1.9324,-13.526,7.0209,-11.003,-10.407,1.9704,-3.8095,3.764,-3.1111,5.7692,1.9324,-11.026,6.4127,-6.5359,5.641
-1.9497,5.1429,2.589,5.178,0.65041,1.0897,4.5089,-32.756001,3.8003,5.178,0.65041,5.9113,-3.8095,4.4019,-3.1111,5.7692,0.64412,-19.358999,1.9683,-6.5359,5.641
-1.3208,7.0476,3.2362,9.0615,11.057,4.9359,8.3736,-21.218,11.53,9.0615,11.057,7.8818,-1.9048,5.0399,-2.4762,4.4872,0.0,-9.1026,4.5079,-0.65359,4.359
-5.0943,6.4127,0.64725,-3.8835,2.6016,-1.4744,12.882,6.3462,9.5974,-3.8835,2.6016,6.5681,-1.2698,1.2121,-5.0159,1.2821,-3.8647,-14.872,1.3333,-2.6144,2.4359
-4.4654,2.6032,-1.2945,-0.64725,9.1057,-2.7564,9.6618,6.3462,2.5121,-0.64725,9.1057,5.2545,-0.63492,-0.0638,-5.0159,-2.5641,-5.7971,-5.8974,-8.1905,-3.9216,-0.76923
-2.5786,-5.0159,-3.2362,7.767,12.358,-2.7564,3.2206,-4.5513,-0.70853,7.767,12.358,1.9704,-0.63492,-3.2536,-4.381,-6.4103,-7.0853,-5.2564,-1.2063,-3.9216,-5.2564
-5.0943,-10.73,-6.4725,-1.9417,11.057,-5.3205,-4.5089,-5.1923,11.53,-1.9417,11.057,-0.65681,-3.1746,-7.7193,-5.6508,-10.256,-7.7295,-4.6154,8.3175,-5.8824,-11.026
-2.5786,-4.381,-1.2945,-11.65,9.7561,-0.83333,-2.5765,-0.0641,13.462,-11.65,9.7561,1.9704,1.9048,-3.2536,0.69841,-4.4872,-1.2882,-1.4103,7.0476,-0.65359,-7.8205
6.8553,6.4127,8.4142,-1.2945,9.1057,6.859,14.171,-6.4744,5.0886,-1.2945,9.1057,9.8522,6.9841,3.126,9.5873,3.8462,7.7295,0.51282,5.7778,5.2288,-2.0513
12.516,11.492,12.945,16.827999,7.1545,8.7821,14.815,-1.3462,5.7327,16.827999,7.1545,11.166,10.794,8.2297,15.302,10.897,12.882,-3.9744,-8.8254,7.8431,7.5641
10.0,5.7778,9.7087,8.4142,2.6016,2.3718,5.7971,0.57692,12.174,8.4142,2.6016,6.5681,6.9841,5.6778,12.762,8.9744,10.95,2.4359,0.69841,5.2288,6.9231
6.8553,3.873,7.1197,-0.64725,3.252,0.44872,-3.8647,-1.3462,14.75,-0.64725,3.252,1.3136,5.0794,5.0399,10.222,8.9744,9.0177,8.2051,10.222,4.5752,5.0
2.4528,3.2381,2.589,7.1197,9.1057,-1.4744,-3.2206,1.2179,-0.06441,7.1197,9.1057,-0.65681,1.2698,3.764,4.5079,6.4103,3.8647,1.1538,0.06349,4.5752,4.359
3.7107,8.3175,3.2362,8.4142,9.1057,1.0897,3.8647,-0.0641,-3.9291,8.4142,9.1057,2.6273,2.5397,6.9537,3.873,10.256,4.5089,-2.0513,-11.365,3.9216,11.41
1.8239,5.1429,0.64725,2.589,5.8537,3.0128,12.882,-7.7564,0.57971,2.589,5.8537,4.5977,1.2698,5.6778,0.06349,5.1282,0.64412,-0.76923,1.3333,-2.6144,6.9231
-0.06289,-2.4762,-4.5307,-3.2362,0.65041,5.5769,10.306,-0.70513,6.3768,-3.2362,0.65041,2.6273,-3.8095,0.57416,-4.381,-2.5641,-5.7971,-8.4615,10.857,-7.1895,-0.76923
-4.4654,-3.746,-6.4725,-3.8835,-2.6016,-0.83333,0.0,1.859,-3.9291,-3.8835,-2.6016,0.0,-7.619,-1.3397,-8.1905,-5.7692,-9.0177,-0.76923,7.6825,-6.5359,-0.12821
-5.0943,-1.8413,-6.4725,3.2362,0.0,1.7308,-1.2882,-21.218,-5.8615,3.2362,0.0,0.0,-9.5238,-3.8915,-9.4603,-7.0513,-11.594,2.4359,2.6032,-8.4967,0.51282
1.8239,-0.57143,-4.5307,5.178,5.2033,4.9359,3.2206,-10.962,2.5121,5.178,5.2033,1.3136,-8.8889,-5.8054,-7.5556,-5.7692,-9.6618,-5.8974,-11.365,-7.8431,2.4359
-1.9497,-3.746,-5.178,1.9417,0.0,-2.1154,0.0,13.397,8.3092,1.9417,0.0,-1.3136,-6.3492,-8.3573,-6.2857,-8.3333,-8.3736,2.4359,-10.095,-4.5752,-6.5385
-0.69182,-4.381,-3.2362,7.767,7.8049,1.7308,-1.2882,17.885,5.0886,7.767,7.8049,1.3136,-2.5397,-9.6332,-3.1111,-9.6154,-5.153,13.333,-5.6508,1.9608,-12.949
-0.06289,-4.381,-1.9417,12.945,7.1545,3.6538,-1.9324,14.679,7.0209,12.945,7.1545,0.65681,-0.63492,-10.271,-0.57143,-7.6923,-1.2882,-0.76923,-10.73,0.0,-9.1026
-1.9497,-10.73,-5.178,3.2362,-4.5528,-1.4744,-4.5089,12.115,7.6651,3.2362,-4.5528,-4.5977,-2.5397,-12.823,-2.4762,-11.538,-3.2206,-0.12821,3.873,-5.8824,-14.231
1.8239,-6.9206,-4.5307,-14.887,1.3008,-0.19231,-5.7971,9.5513,10.242,-14.887,1.3008,-4.5977,-3.1746,-10.271,-1.2063,-8.9744,-3.2206,9.4872,7.0476,-3.268,-11.667
-0.06289,-2.4762,-4.5307,-10.356,-6.5041,-1.4744,0.0,10.833,1.2238,-10.356,-6.5041,-3.9409,-2.5397,-5.1675,-0.57143,-3.8462,-2.5765,9.4872,0.06349,1.9608,-5.8974
-3.8365,-3.746,-7.1197,-0.64725,-8.4553,-4.0385,0.0,-3.9103,-3.285,-0.64725,-8.4553,-7.225,-3.8095,-2.6156,-3.746,-4.4872,-4.5089,3.0769,-0.57143,-0.65359,-3.3333
-2.5786,-3.1111,-7.1197,-5.8252,-7.8049,-2.7564,-4.5089,-3.2692,-5.8615,-5.8252,-7.8049,-10.509,-5.0794,-3.2536,-4.381,-3.2051,-5.153,-6.5385,-3.1111,-1.3072,-1.4103
-1.3208,0.06349,-5.178,5.8252,-7.1545,-4.0385,-5.153,5.7051,-7.7939,5.8252,-7.1545,-7.8818,-0.63492,2.488,-2.4762,0.64103,-3.2206,8.8462,-10.73,4.5752,5.641
-0.06289,-5.0159,-5.8252,3.8835,3.252,-4.0385,-11.594,9.5513,-0.06441,3.8835,3.252,-7.225,2.5397,3.126,-1.2063,-1.9231,-3.2206,16.538,-5.0159,7.8431,-0.12821
1.8239,-5.0159,-3.2362,3.2362,5.2033,2.3718,-4.5089,8.9103,-0.70853,3.2362,5.2033,-1.3136,2.5397,1.8501,-1.2063,-2.5641,-2.5765,7.5641,3.873,6.5359,-4.6154
6.2264,5.1429,4.5307,5.178,5.8537,10.064,3.2206,23.653999,1.2238,5.178,5.8537,5.2545,7.619,8.8676,5.1429,7.0513,5.153,5.641,-10.73,9.1503,3.7179
14.403,8.3175,11.003,1.2945,1.9512,15.833,6.4412,20.448999,-6.5056,1.2945,1.9512,11.823,10.159,10.144,10.857,9.6154,9.6618,13.333,-1.8413,11.765,3.0769
16.289,8.3175,11.003,9.7087,-0.65041,16.474001,7.0853,14.679,-5.8615,9.7087,-0.65041,11.823,5.7143,6.3158,10.857,5.7692,7.7295,13.974,-1.8413,9.1503,-1.4103
11.887,5.1429,5.8252,5.178,1.9512,17.115,0.64412,-14.167,2.5121,5.178,1.9512,8.5386,2.5397,4.4019,6.4127,2.5641,3.2206,19.743999,-6.2857,4.5752,-0.12821
1.195,-5.6508,-5.178,3.2362,-2.6016,1.7308,-7.7295,3.7821,-8.438,3.2362,-2.6016,-5.2545,-1.2698,1.8501,-1.2063,-4.4872,-3.2206,13.333,-5.0159,1.3072,-2.0513
-3.8365,-8.1905,-9.0615,4.5307,-13.008,-5.3205,-2.5765,16.603001,-7.1498,4.5307,-13.008,-9.8522,-5.0794,-1.9777,-5.6508,-7.6923,-6.4412,2.4359,-3.1111,-1.9608,-2.0513
-1.9497,-6.2857,-6.4725,-9.7087,-16.26,-2.1154,-3.2206,12.756,-4.5733,-9.7087,-16.26,-6.5681,-8.254,-5.8054,-6.2857,-7.6923,-7.0853,5.0,1.9683,-3.9216,-2.6923
-0.69182,-8.1905,-6.4725,-11.65,-8.4553,0.44872,-13.527,-0.70513,4.4444,-11.65,-8.4553,-6.5681,-5.0794,-6.4434,-5.0159,-8.9744,-6.4412,-8.4615,3.873,-4.5752,-4.6154
-0.06289,-7.5556,-7.1197,-12.298,-3.252,-5.3205,-14.171,5.7051,3.8003,-12.298,-3.252,-11.166,-2.5397,-3.8915,-2.4762,-6.4103,-3.8647,-11.667,-4.381,0.0,-2.6923
-2.5786,-1.2063,-6.4725,-5.8252,0.0,-8.5256,-14.171,6.3462,-3.9291,-5.8252,0.0,-11.823,-5.0794,-3.2536,-3.746,-1.9231,-3.8647,8.2051,-17.079,0.0,3.0769
-8.8679,-4.381,-6.4725,2.589,-0.65041,-11.09,-9.6618,4.4231,-3.285,2.589,-0.65041,-9.8522,-8.254,-7.7193,-8.1905,-5.7692,-7.0853,14.615,3.2381,-3.268,-3.3333
-9.4969,-8.1905,-7.1197,-1.9417,-7.1545,-9.1667,-5.7971,6.9872,-5.2174,-1.9417,-7.1545,-7.8818,-10.159,-8.3573,-10.095,-8.9744,-10.306,4.359,17.841,-6.5359,-8.4615
-3.8365,-1.8413,-3.2362,-0.64725,-5.2033,-0.83333,1.9324,3.7821,-7.1498,-0.64725,-5.2033,-1.3136,-6.9841,-5.1675,-8.1905,-5.1282,-9.0177,-2.0513,2.6032,-7.8431,-3.9744
-1.3208,0.69841,-2.589,12.298,-7.1545,5.5769,5.7971,7.6282,1.868,12.298,-7.1545,1.9704,-3.1746,-3.8915,-6.2857,-3.2051,-7.7295,-6.5385,-1.2063,-3.9216,-3.3333
-1.9497,-0.57143,-2.589,5.178,2.6016,3.6538,4.5089,11.474,5.7327,5.178,2.6016,2.6273,-1.2698,-2.6156,-5.0159,-3.8462,-5.7971,0.51282,-0.57143,-1.3072,-6.5385
-1.9497,0.06349,-0.64725,-8.4142,14.959,3.6538,2.5765,10.833,6.3768,-8.4142,14.959,3.9409,2.5397,-0.0638,-3.1111,-1.2821,-1.9324,3.7179,-4.381,-1.9608,-5.8974
-2.5786,1.3333,0.64725,-0.64725,0.0,3.0128,2.5765,12.756,-5.8615,-0.64725,0.0,4.5977,2.5397,1.8501,-1.2063,1.2821,0.64412,3.7179,-5.6508,-1.9608,-3.3333
-4.4654,-1.2063,-1.2945,5.8252,-3.252,-2.7564,-7.7295,5.0641,-5.8615,5.8252,-3.252,-1.3136,1.9048,1.8501,0.06349,1.2821,1.9324,-0.12821,-6.2857,-0.65359,-5.2564
-1.3208,-1.8413,-1.2945,7.1197,-1.9512,-4.6795,-9.0177,-0.0641,-1.3527,7.1197,-1.9512,-5.2545,3.8095,2.488,3.2381,3.2051,3.8647,-6.5385,-8.1905,2.6144,-2.0513
0.56604,0.69841,1.9417,4.5307,-1.3008,1.0897,-1.2882,-17.372,1.2238,4.5307,-1.3008,-1.3136,5.0794,0.57416,5.1429,4.4872,5.153,-13.59,-3.1111,7.1895,-0.76923
-4.4654,0.69841,0.64725,-1.2945,-0.65041,-3.3974,5.7971,-3.2692,7.0209,-1.2945,-0.65041,-1.3136,4.4444,-1.3397,2.6032,1.9231,3.2206,-5.2564,3.873,2.6144,-2.0513
-5.7233,0.69841,-1.2945,-2.589,-0.65041,-4.0385,2.5765,-1.3462,9.5974,-2.589,-0.65041,-2.6273,-1.2698,-5.8054,-1.8413,0.0,-0.64412,5.641,-1.8413,-3.9216,0.51282
-6.3522,0.06349,-2.589,-4.5307,0.0,-5.3205,2.5765,-0.70513,7.0209,-4.5307,0.0,-2.6273,-3.1746,-8.9952,-3.1111,-2.5641,-3.8647,4.359,2.6032,-0.65359,-2.6923
-5.0943,-5.0159,-4.5307,-9.7087,3.9024,-7.8846,-7.0853,9.5513,3.1562,-9.7087,3.9024,-5.9113,-0.63492,-6.4434,-2.4762,-5.7692,-4.5089,-2.0513,13.397,0.0,-5.2564
-1.9497,-5.6508,-4.5307,-9.7087,8.4553,-6.6026,-10.95,-0.70513,-0.06441,-9.7087,8.4553,-7.8818,-2.5397,-6.4434,-2.4762,-5.1282,-4.5089,-0.12821,3.873,-1.9608,-2.6923
-0.69182,-0.57143,-2.589,-1.2945,0.65041,-2.7564,-4.5089,5.7051,6.3768,-1.2945,0.65041,-4.5977,-2.5397,-3.2536,-1.8413,-0.64103,-1.9324,-5.2564,1.9683,-3.268,1.7949
1.195,0.06349,-2.589,-3.2362,-19.511999,2.3718,-0.64412,-0.70513,5.0886,-3.2362,-19.511999,-0.65681,-1.9048,-0.70175,-1.2063,1.2821,-0.64412,-3.9744,2.6032,-2.6144,5.0
-0.69182,-0.57143,-3.2362,8.4142,-13.659,1.0897,4.5089,-7.1154,-12.947,8.4142,-13.659,0.65681,-1.2698,-0.70175,-1.2063,1.2821,0.0,1.1538,6.4127,-1.9608,2.4359
6.2264,2.6032,3.8835,12.945,6.5041,8.141,3.2206,-7.7564,-8.438,12.945,6.5041,4.5977,4.4444,4.4019,6.4127,6.4103,5.7971,8.2051,3.2381,7.8431,5.0
11.258,9.5873,10.356,13.592,15.61,11.987,9.0177,11.474,10.242,13.592,15.61,11.166,8.8889,8.2297,11.492,11.538,10.95,11.41,-5.0159,11.111,12.692
7.4843,4.5079,5.8252,6.4725,6.5041,7.5,7.0853,13.397,8.9533,6.4725,6.5041,6.5681,5.0794,3.126,7.6825,4.4872,7.0853,-4.6154,0.06349,1.9608,5.641
6.8553,-5.0159,2.589,1.2945,3.9024,6.2179,4.5089,4.4231,-0.70853,1.2945,3.9024,3.9409,4.4444,-0.0638,7.0476,-1.9231,5.7971,0.51282,7.0476,0.65359,-2.6923
1.8239,-7.5556,0.64725,-1.2945,1.9512,3.6538,-1.2882,4.4231,-4.5733,-1.2945,1.9512,0.65681,2.5397,-3.2536,5.7778,-3.8462,5.153,10.128,3.2381,3.9216,-5.8974
-2.5786,-8.8254,-1.2945,-5.178,-3.9024,-1.4744,-8.3736,-5.1923,-8.438,-5.178,-3.9024,-3.9409,0.63492,-3.2536,1.9683,-4.4872,3.2206,-5.8974,-3.746,-0.65359,-6.5385
-1.3208,-3.1111,0.64725,1.2945,-5.2033,-4.6795,-1.2882,-5.1923,-7.7939,1.2945,-5.2033,-1.9704,1.9048,-1.3397,1.3333,-1.2821,3.8647,-10.385,-14.54,-2.6144,-4.6154
-0.06289,1.3333,3.8835,1.2945,-1.9512,-0.83333,1.9324,-12.244,-11.014,1.2945,-1.9512,1.9704,3.1746,1.2121,2.6032,3.2051,6.4412,1.7949,-13.905,0.0,0.51282
-3.8365,-1.8413,0.64725,-0.64725,-1.3008,-3.3974,-6.4412,-19.295,-6.5056,-0.64725,-1.3008,-0.65681,1.9048,2.488,0.06349,0.64103,3.8647,-2.6923,-5.6508,0.0,-0.12821
-1.9497,0.69841,0.0,0.64725,0.65041,-4.0385,-3.2206,-3.9103,0.57971,0.64725,0.65041,0.65681,3.1746,5.6778,0.69841,3.2051,3.2206,-4.6154,-2.4762,0.0,3.7179
-6.9811,-2.4762,-3.2362,4.5307,-2.6016,-7.2436,-5.7971,-0.0641,0.57971,4.5307,-2.6016,-1.3136,-1.2698,3.126,-3.746,-0.64103,-1.2882,0.51282,-1.2063,-3.9216,1.1538
-8.239,0.06349,-1.9417,2.589,3.252,-4.0385,-3.2206,0.57692,-5.2174,2.589,3.252,0.65681,-2.5397,5.6778,-5.6508,1.2821,-3.2206,-3.3333,-6.9206,-4.5752,2.4359
0.56604,8.3175,4.5307,-7.767,7.8049,3.6538,7.7295,-9.0385,7.0209,-7.767,7.8049,5.9113,1.9048,9.5056,-0.57143,7.6923,1.2882,2.4359,-0.57143,4.5752,11.41
-1.3208,1.9683,0.64725,-10.356,-4.5528,1.0897,-1.2882,-10.962,3.8003,-10.356,-4.5528,0.65681,0.0,5.6778,-1.2063,3.2051,-0.64412,0.51282,10.222,2.6144,7.5641
-5.0943,-2.4762,-5.178,-11.003,-14.959,-8.5256,-5.7971,-13.526,-17.455999,-11.003,-14.959,-5.2545,-3.1746,2.488,-4.381,-0.64103,-4.5089,-12.308,7.0476,-3.9216,8.2051
-5.7233,-0.57143,-5.178,-7.1197,-10.407,-11.09,-2.5765,-5.8333,-9.0821,-7.1197,-10.407,-5.2545,-1.9048,3.764,-3.1111,0.0,-3.2206,-8.4615,5.1429,-1.9608,8.8462
-1.9497,0.06349,-3.2362,7.767,4.5528,-2.7564,2.5765,-0.70513,-0.06441,7.767,4.5528,-1.3136,1.9048,4.4019,0.69841,0.0,0.0,10.769,3.873,6.5359,5.641
4.3396,-1.8413,-1.2945,9.0615,1.3008,3.0128,0.64412,-0.0641,-7.1498,9.0615,1.3008,0.0,6.3492,3.764,6.4127,1.2821,3.2206,5.641,-0.57143,12.418,3.7179
7.4843,-5.0159,0.64725,0.0,-3.252,5.5769,-4.5089,4.4231,-3.9291,0.0,-3.252,1.9704,5.0794,-1.9777,8.3175,-1.2821,4.5089,1.1538,-4.381,11.765,-1.4103
10.0,0.06349,5.8252,0.0,-1.9512,9.4231,4.5089,14.679,0.57971,0.0,-1.9512,7.225,7.619,-1.9777,11.492,0.64103,7.0853,11.41,-1.8413,14.379,-5.2564
13.145,2.6032,9.0615,5.178,6.5041,13.269,6.4412,-5.1923,3.8003,5.178,6.5041,11.166,7.619,-3.8915,11.492,1.2821,6.4412,12.051,-12.635,16.34,-5.8974
10.629,3.873,7.767,3.8835,9.1057,13.269,0.64412,-12.244,-0.70853,3.8835,9.1057,8.5386,2.5397,-8.9952,7.0476,-1.2821,1.9324,13.974,-20.254,8.4967,-7.1795
3.7107,-4.381,2.589,-1.2945,2.6016,5.5769,-4.5089,-0.70513,-7.7939,-1.2945,2.6016,3.9409,-0.63492,-9.6332,1.3333,-7.0513,-3.2206,9.4872,-1.2063,2.6144,-12.308
1.8239,-8.1905,-0.64725,5.178,4.5528,-0.83333,-5.7971,11.474,-0.06441,5.178,4.5528,0.65681,0.0,-6.4434,-1.8413,-8.9744,-5.7971,-5.8974,2.6032,-1.3072,-11.026
-6.3522,-7.5556,-4.5307,1.9417,-0.65041,-3.3974,-4.5089,2.5,-0.70853,1.9417,-0.65041,-1.3136,-2.5397,-5.8054,-7.5556,-8.3333,-9.0177,-2.6923,0.69841,-5.8824,-7.8205
-8.8679,-3.746,-3.2362,1.9417,-0.65041,-4.6795,-1.2882,-0.70513,0.57971,1.9417,-0.65041,-1.3136,-3.8095,-1.3397,-8.8254,-3.8462,-7.0853,-12.949,3.873,-8.4967,-3.9744
-6.3522,-0.57143,-0.64725,-1.2945,-0.65041,-4.6795,-5.7971,-4.5513,1.2238,-1.2945,-0.65041,-3.9409,-3.1746,3.126,-7.5556,3.2051,-2.5765,-9.7436,-4.381,-7.1895,6.2821
-9.4969,3.873,0.0,-15.534,-7.8049,-10.449,-5.153,-11.603,1.2238,-15.534,-7.8049,-6.5681,-0.63492,7.5917,-6.2857,8.3333,1.2882,-0.76923,-3.746,-7.8431,10.769
-8.8679,8.3175,1.2945,-18.77,-16.26,-10.449,4.5089,-16.09,-0.70853,-18.77,-16.26,-4.5977,0.63492,12.057,-4.381,12.179,3.8647,-7.8205,0.06349,-7.1895,10.769
-3.8365,12.762,5.178,-16.827999,-14.959,-4.0385,12.238,-19.936001,-7.7939,-16.827999,-14.959,-0.65681,1.9048,13.971,-0.57143,15.385,7.0853,-7.8205,6.4127,-5.2288,12.051
-2.5786,12.762,7.767,-8.4142,1.3008,-4.0385,2.5765,-18.013,-6.5056,-8.4142,1.3008,-0.65681,3.1746,13.333,3.2381,16.025999,9.0177,-11.667,6.4127,-3.268,13.974
2.4528,15.937,11.003,4.5307,11.057,-5.9615,1.2882,-10.321,0.57971,4.5307,11.057,0.65681,4.4444,13.333,7.6825,18.59,12.238,-19.358999,-3.1111,0.65359,17.179001
4.3396,18.476,13.592,3.2362,4.5528,-2.7564,9.0177,-14.167,8.3092,3.2362,4.5528,4.5977,6.9841,14.609,9.5873,19.872,14.171,-16.153999,2.6032,1.9608,18.462
4.3396,12.762,11.003,7.767,1.9512,-0.19231,14.171,-8.3974,7.0209,7.767,1.9512,7.225,6.9841,10.781,8.3175,13.462,11.594,-10.385,12.762,0.65359,11.41
-0.06289,3.873,3.8835,4.5307,-0.65041,-0.83333,3.2206,-5.1923,3.8003,4.5307,-0.65041,1.9704,1.9048,3.126,4.5079,3.8462,5.153,-3.3333,9.5873,-0.65359,2.4359
2.4528,3.873,3.2362,3.8835,3.9024,-1.4744,3.8647,-6.4744,3.8003,3.8835,3.9024,0.65681,3.1746,-0.0638,6.4127,1.9231,4.5089,-0.76923,1.9683,3.9216,-0.12821
4.3396,0.69841,3.2362,-1.9417,3.252,-3.3974,3.8647,-0.0641,4.4444,-1.9417,3.252,-1.3136,5.0794,-2.6156,6.4127,-1.2821,3.2206,-4.6154,-5.0159,5.2288,-2.6923
4.9686,-5.0159,1.2945,-12.945,7.1545,3.0128,3.2206,-6.4744,-2.6409,-12.945,7.1545,0.0,1.9048,-8.9952,3.873,-6.4103,0.64412,-0.12821,1.3333,1.9608,-8.4615
1.195,-6.9206,0.0,7.1197,-8.4553,1.0897,7.7295,6.9872,-9.0821,7.1197,-8.4553,1.9704,1.9048,-9.6332,1.9683,-9.6154,-1.2882,1.7949,7.0476,-0.65359,-14.231
6.8553,-3.746,2.589,14.239,-3.9024,3.0128,8.3736,10.833,2.5121,14.239,-3.9024,3.2841,2.5397,-4.5295,4.5079,-5.1282,1.2882,-2.6923,3.873,0.0,-9.7436
3.7107,1.3333,2.589,3.2362,12.358,1.0897,0.64412,5.0641,8.3092,3.2362,12.358,1.3136,1.9048,-2.6156,2.6032,-1.2821,0.64412,-0.12821,-1.2063,4.5752,-4.6154
-0.69182,1.3333,0.64725,3.2362,10.407,-2.7564,-3.8647,-7.1154,8.9533,3.2362,10.407,-1.9704,-0.63492,1.8501,-1.8413,1.2821,-1.2882,-8.4615,-11.365,1.3072,1.1538
-5.0943,-5.6508,-4.5307,0.64725,-0.65041,-5.3205,-12.882,-8.3974,-1.9968,0.64725,-0.65041,-8.5386,-3.1746,1.2121,-6.2857,-0.64103,-4.5089,-0.12821,-5.6508,-1.9608,-0.12821
-7.6101,-3.1111,-3.2362,-5.8252,-8.4553,-8.5256,-6.4412,-1.9872,-13.591,-5.8252,-8.4553,-7.8818,-3.8095,3.126,-6.2857,2.5641,-2.5765,13.333,-2.4762,-3.9216,2.4359
-1.9497,7.0476,4.5307,-4.5307,-8.4553,-2.1154,5.153,1.859,-14.879,-4.5307,-8.4553,0.65681,-1.9048,8.8676,-1.8413,10.256,3.8647,6.2821,1.3333,-1.9608,7.5641
5.5975,11.492,10.356,-1.2945,0.0,9.4231,3.8647,-10.962,-2.6409,-1.2945,0.0,7.225,1.2698,12.057,3.2381,15.385,9.6618,2.4359,4.5079,-3.268,9.4872
5.5975,11.492,11.003,0.64725,3.9024,6.2179,7.7295,1.859,3.8003,0.64725,3.9024,7.8818,1.2698,10.781,4.5079,15.385,11.594,-3.3333,4.5079,-7.1895,10.128
4.3396,12.127,11.65,-3.8835,3.252,3.6538,7.0853,10.192,-0.70853,-3.8835,3.252,7.8818,4.4444,11.419,5.7778,16.025999,12.882,-9.7436,0.06349,-3.268,10.769
6.2264,10.222,11.003,3.2362,7.1545,4.9359,3.2206,8.9103,-3.285,3.2362,7.1545,8.5386,5.0794,9.5056,7.0476,14.103,12.238,-15.513,-1.2063,-2.6144,8.8462
5.5975,7.0476,7.767,7.767,-1.3008,5.5769,3.2206,7.6282,-4.5733,7.767,-1.3008,5.9113,3.1746,5.0399,5.7778,8.9744,8.3736,6.2821,-4.381,-2.6144,5.0
-0.06289,0.69841,0.64725,-1.9417,-14.959,-0.19231,1.2882,-2.6282,-8.438,-1.9417,-14.959,1.3136,0.63492,0.57416,0.06349,0.64103,1.2882,17.820999,-12.0,-2.6144,1.1538
-0.69182,-1.2063,-1.9417,-3.8835,-13.659,-1.4744,-2.5765,-2.6282,-11.659,-3.8835,-13.659,-0.65681,2.5397,0.57416,-0.57143,-2.5641,-1.9324,9.4872,-11.365,1.3072,1.7949
3.7107,-1.8413,-0.64725,-7.1197,-1.9512,1.0897,-6.4412,4.4231,-5.2174,-7.1197,-1.9512,0.0,6.3492,3.126,1.9683,-3.2051,-1.2882,11.41,-8.8254,6.5359,5.0
-0.69182,-9.4603,-4.5307,-12.298,-3.252,-2.1154,-8.3736,0.57692,-1.9968,-12.298,-3.252,-4.5977,1.2698,-5.8054,-2.4762,-12.179,-7.7295,-4.6154,2.6032,4.5752,-4.6154
2.4528,-12.0,-3.8835,-7.767,-3.252,2.3718,-8.3736,4.4231,-0.06441,-7.767,-3.252,-1.3136,-0.63492,-10.271,-3.746,-15.385,-9.6618,1.1538,10.857,1.3072,-10.385
2.4528,-9.4603,0.0,0.0,4.5528,3.6538,-6.4412,12.115,3.1562,0.0,4.5528,0.65681,0.0,-11.547,-3.746,-13.462,-7.7295,0.51282,10.222,0.0,-13.59
2.4528,-5.0159,1.9417,12.298,1.9512,4.2949,-0.64412,13.397,5.0886,12.298,1.9512,2.6273,-3.8095,-14.099,-3.1111,-11.538,-7.0853,-2.6923,4.5079,0.0,-14.231
2.4528,-3.746,1.9417,9.7087,-1.3008,6.859,4.5089,11.474,1.868,9.7087,-1.3008,5.9113,-6.3492,-14.099,-3.1111,-9.6154,-6.4412,12.692,0.69841,0.0,-13.59
7.4843,3.2381,5.8252,10.356,4.5528,10.705,7.7295,10.833,0.57971,10.356,4.5528,10.509,-1.2698,-5.8054,2.6032,-1.2821,0.0,5.0,-0.57143,2.6144,-5.8974
9.3711,7.6825,7.767,13.592,8.4553,10.064,12.882,6.9872,1.868,13.592,8.4553,11.166,1.2698,-0.70175,4.5079,3.8462,4.5089,1.1538,0.69841,-0.65359,-2.6923
-1.9497,6.4127,2.589,12.945,10.407,5.5769,12.882,6.9872,3.8003,12.945,10.407,7.225,-4.4444,-0.70175,-1.8413,3.8462,0.64412,0.51282,1.9683,-8.4967,-0.12821
-7.6101,4.5079,-1.2945,9.0615,15.61,1.7308,0.64412,1.859,9.5974,9.0615,15.61,1.9704,-6.9841,-0.0638,-6.9206,3.2051,-1.9324,-3.3333,5.1429,-14.379,1.7949
-0.69182,5.7778,0.64725,-1.9417,11.707,4.9359,-3.2206,-0.0641,7.6651,-1.9417,11.707,1.9704,-4.4444,3.764,-2.4762,6.4103,1.9324,-9.1026,3.2381,-13.725,3.7179
3.0818,11.492,5.8252,0.64725,6.5041,6.2179,8.3736,3.141,7.0209,0.64725,6.5041,6.5681,-3.1746,7.5917,1.3333,11.538,6.4412,-18.077,0.69841,-11.111,9.4872
0.56604,10.222,5.8252,7.1197,-5.8537,0.44872,7.0853,2.5,15.395,7.1197,-5.8537,5.2545,0.0,7.5917,1.9683,10.256,5.7971,-2.6923,7.6825,-7.1895,8.8462
-0.06289,3.873,2.589,0.0,-1.3008,-5.3205,1.2882,4.4231,12.818,0.0,-1.3008,-1.3136,-1.2698,4.4019,1.3333,5.1282,3.8647,13.974,15.937,-6.5359,3.0769
2.4528,5.7778,3.2362,-3.2362,1.9512,-0.19231,1.2882,-9.6795,0.57971,-3.2362,1.9512,-2.6273,-0.63492,4.4019,3.873,6.4103,5.153,8.2051,7.0476,-5.8824,5.0
-0.69182,0.69841,-0.64725,-5.8252,-6.5041,-3.3974,1.2882,0.57692,-1.9968,-5.8252,-6.5041,-5.2545,-1.9048,1.2121,2.6032,1.9231,2.5765,4.359,7.6825,-3.268,2.4359
1.195,1.3333,0.64725,1.2945,1.3008,-4.0385,1.2882,8.9103,10.886,1.2945,1.3008,-4.5977,0.63492,3.764,4.5079,2.5641,3.8647,-0.12821,7.6825,-1.3072,2.4359
9.3711,5.7778,5.8252,1.9417,7.8049,5.5769,4.5089,5.0641,7.0209,1.9417,7.8049,2.6273,1.9048,5.0399,8.3175,6.4103,7.0853,-12.308,9.5873,2.6144,6.9231
6.8553,8.9524,8.4142,1.9417,4.5528,6.859,5.153,13.397,7.0209,1.9417,4.5528,6.5681,3.1746,6.3158,8.3175,8.9744,7.0853,0.51282,-4.381,5.2288,8.2051
5.5975,7.6825,7.1197,-2.589,5.2033,8.141,12.238,9.5513,7.6651,-2.589,5.2033,9.1954,3.1746,5.0399,5.7778,5.1282,4.5089,16.538,3.2381,9.8039,3.0769
8.1132,1.9683,3.2362,4.5307,7.1545,12.628,7.7295,1.859,13.462,4.5307,7.1545,9.1954,0.63492,0.57416,2.6032,-2.5641,-1.2882,0.51282,8.9524,12.418,-2.6923
8.1132,-2.4762,1.9417,16.827999,4.5528,13.269,1.9324,8.9103,12.818,16.827999,4.5528,8.5386,0.0,0.57416,0.69841,-5.7692,-4.5089,8.2051,5.1429,11.111,-3.9744
6.8553,1.9683,4.5307,12.298,1.9512,11.987,5.7971,8.9103,7.6651,12.298,1.9512,11.166,0.63492,-0.0638,0.69841,-3.2051,-3.8647,11.41,-7.5556,8.4967,-0.76923
6.8553,0.06349,3.8835,3.8835,6.5041,10.705,5.153,11.474,12.818,3.8835,6.5041,10.509,0.0,-5.1675,1.3333,-5.7692,-4.5089,-2.6923,-0.57143,7.1895,-4.6154
3.7107,-6.2857,-0.64725,10.356,16.910999,7.5,4.5089,10.833,12.818,10.356,16.910999,5.2545,-3.1746,-10.271,-1.8413,-11.538,-7.0853,6.2821,8.9524,4.5752,-12.949
1.8239,-3.1111,-0.64725,11.003,8.4553,7.5,2.5765,-6.4744,8.9533,11.003,8.4553,1.9704,-5.0794,-13.461,-2.4762,-8.9744,-5.7971,13.333,2.6032,0.65359,-12.308
1.8239,2.6032,1.9417,1.2945,1.9512,1.0897,3.8647,-1.3462,5.7327,1.2945,1.9512,0.65681,-3.1746,-10.271,0.06349,-3.2051,-1.2882,6.9231,1.9683,2.6144,-7.8205
-3.8365,1.3333,-0.64725,-11.65,-5.8537,-9.8077,3.8647,8.2692,-3.285,-11.65,-5.8537,-1.9704,-5.0794,-8.9952,-3.1111,-3.8462,-2.5765,7.5641,0.06349,-1.9608,-6.5385
-0.69182,-1.8413,-2.589,-11.65,-5.8537,-8.5256,1.2882,2.5,-0.70853,-11.65,-5.8537,-2.6273,-5.7143,-5.1675,-3.746,-4.4872,-3.8647,-6.5385,3.873,-5.8824,-3.3333
-3.8365,-3.1111,-5.178,-5.8252,-5.2033,-5.9615,2.5765,-0.70513,-2.6409,-5.8252,-5.2033,-3.9409,-5.7143,-1.9777,-4.381,-5.1282,-5.153,1.1538,3.2381,-6.5359,-3.9744
-3.2075,-7.5556,-9.0615,-1.9417,4.5528,-4.6795,-6.4412,0.57692,5.0886,-1.9417,4.5528,-5.9113,-4.4444,-0.70175,-5.0159,-7.0513,-5.7971,-3.9744,-1.8413,-6.5359,-2.6923
-4.4654,-10.73,-11.65,5.8252,3.9024,-5.9615,-9.6618,-7.1154,12.818,5.8252,3.9024,-7.8818,-3.8095,0.57416,-5.0159,-8.3333,-7.0853,-0.76923,-1.2063,-4.5752,-0.12821
-1.9497,-1.2063,-7.767,6.4725,2.6016,-0.83333,-3.2206,-6.4744,7.6651,6.4725,2.6016,-2.6273,-3.8095,5.0399,-5.6508,-1.2821,-6.4412,1.7949,-13.27,-7.8431,8.2051
-9.4969,-5.0159,-11.003,-7.1197,-2.6016,-5.3205,-4.5089,-2.6282,8.9533,-7.1197,-2.6016,-5.2545,-8.8889,1.2121,-12.0,-7.0513,-12.238,-9.7436,1.9683,-11.111,0.51282
-12.642,-11.365,-12.945,-11.65,-6.5041,-11.09,0.0,-6.4744,2.5121,-11.65,-6.5041,-6.5681,-10.794,-4.5295,-14.54,-13.462,-16.747,-9.7436,12.127,-10.458,-8.4615
-8.8679,-4.381,-7.1197,-1.9417,-4.5528,-7.2436,3.2206,-7.1154,3.8003,-1.9417,-4.5528,-1.3136,-6.3492,-3.2536,-11.365,-8.9744,-12.238,-2.0513,1.9683,-6.5359,-2.6923
0.56604,-1.8413,0.0,5.8252,8.4553,3.0128,0.64412,-5.1923,9.5974,5.8252,8.4553,4.5977,1.2698,-1.9777,-2.4762,-4.4872,-4.5089,1.7949,5.1429,2.6144,-3.3333
3.0818,-4.381,1.2945,-3.2362,7.8049,6.859,0.64412,3.7821,8.9533,-3.2362,7.8049,5.2545,1.2698,-5.8054,0.69841,-4.4872,-1.9324,2.4359,-1.2063,7.8431,-7.1795
8.1132,-3.1111,3.8835,-1.2945,1.3008,10.705,1.2882,11.474,5.7327,-1.2945,1.3008,6.5681,3.8095,-7.0813,5.1429,-3.2051,1.2882,-5.8974,1.9683,10.458,-5.8974
8.7421,-0.57143,3.8835,-1.9417,5.2033,9.4231,3.8647,4.4231,5.0886,-1.9417,5.2033,6.5681,4.4444,-10.909,5.7778,-3.2051,2.5765,4.359,7.6825,11.765,-6.5385
1.195,1.3333,1.2945,-1.2945,7.1545,1.0897,4.5089,1.859,-0.06441,-1.2945,7.1545,1.9704,2.5397,-11.547,2.6032,-2.5641,1.2882,12.051,2.6032,6.5359,-5.8974
6.2264,7.0476,2.589,1.2945,-5.2033,1.0897,3.8647,-5.8333,-0.70853,1.2945,-5.2033,1.9704,5.0794,-3.8915,6.4127,3.8462,5.7971,3.0769,-5.6508,11.111,1.1538
5.5975,7.0476,1.2945,-7.767,-11.057,0.44872,-0.64412,-12.244,4.4444,-7.767,-11.057,-1.9704,9.5238,3.764,8.9524,7.6923,7.7295,9.4872,-8.8254,13.072,5.0
1.195,3.2381,0.0,-12.298,-13.008,-3.3974,-0.64412,-7.7564,1.868,-12.298,-13.008,-4.5977,8.8889,7.5917,6.4127,7.0513,7.0853,5.641,3.873,7.8431,5.641
-0.69182,6.4127,1.2945,-6.4725,-11.057,-6.6026,-1.2882,-12.885,-5.8615,-6.4725,-11.057,-6.5681,4.4444,9.5056,5.1429,8.9744,6.4412,-9.1026,10.222,1.9608,7.5641
-3.2075,3.2381,0.0,-3.2362,-5.8537,-9.8077,-6.4412,-13.526,-7.1498,-3.2362,-5.8537,-7.225,1.2698,10.144,3.2381,7.0513,5.7971,-9.7436,5.7778,0.0,4.359
1.195,1.9683,0.64725,-13.592,-3.9024,-4.6795,-5.153,-5.1923,-6.5056,-13.592,-3.9024,-4.5977,0.63492,10.144,4.5079,6.4103,5.153,-11.667,-1.2063,-1.3072,5.0
3.7107,2.6032,1.2945,-16.827999,-4.5528,-1.4744,-9.0177,-7.7564,-1.9968,-16.827999,-4.5528,-5.2545,-1.2698,7.5917,5.1429,7.6923,5.7971,3.0769,-10.095,-1.3072,6.2821
-2.5786,0.69841,0.0,-9.0615,-5.8537,-2.1154,-14.171,-6.4744,-5.2174,-9.0615,-5.8537,-5.2545,-2.5397,4.4019,1.3333,5.7692,3.2206,13.974,-0.57143,-3.268,3.7179
-3.2075,6.4127,2.589,0.64725,1.9512,2.3718,-0.64412,4.4231,0.57971,0.64725,1.9512,1.3136,-1.9048,6.3158,-0.57143,7.6923,3.2206,10.128,1.3333,-1.3072,8.2051
-0.69182,5.7778,1.2945,4.5307,-0.65041,3.0128,3.2206,8.9103,0.57971,4.5307,-0.65041,3.2841,-1.2698,3.764,-2.4762,3.8462,0.0,-3.9744,-3.1111,-1.3072,6.2821
0.56604,2.6032,-0.64725,3.8835,-9.7561,1.7308,6.4412,-6.4744,-2.6409,3.8835,-9.7561,3.2841,1.9048,1.2121,-1.2063,0.64103,-1.9324,-3.3333,-4.381,0.0,2.4359
-1.9497,1.3333,-3.2362,-0.64725,-6.5041,-2.7564,5.153,-3.2692,-3.285,-0.64725,-6.5041,0.0,2.5397,-0.70175,-1.8413,-1.2821,-3.2206,-0.76923,-7.5556,-1.3072,-0.12821
-0.06289,-6.2857,-5.178,-6.4725,3.9024,-1.4744,-4.5089,2.5,-3.285,-6.4725,3.9024,-2.6273,2.5397,-5.1675,-1.2063,-6.4103,-5.153,-8.4615,-1.8413,-1.3072,-7.1795
-1.3208,-12.0,-8.4142,-6.4725,5.2033,-2.1154,-13.527,-1.9872,-0.70853,-6.4725,5.2033,-5.2545,-1.2698,-9.6332,-3.1111,-12.179,-7.7295,-0.76923,5.1429,-1.3072,-10.385
-1.9497,-10.095,-8.4142,1.2945,-2.6016,-2.7564,-7.7295,-5.8333,3.1562,1.2945,-2.6016,-4.5977,-3.8095,-11.547,-2.4762,-12.179,-8.3736,-2.6923,-1.8413,-3.268,-9.1026
-1.3208,-2.4762,-4.5307,6.4725,0.0,-2.7564,1.9324,-0.0641,-2.6409,6.4725,0.0,-1.3136,-0.63492,-8.9952,0.69841,-6.4103,-3.8647,-3.3333,-6.2857,0.65359,-2.6923
-1.9497,-3.746,-5.178,-0.64725,3.252,-5.3205,-2.5765,1.2179,-0.70853,-0.64725,3.252,-3.9409,-0.63492,-8.9952,1.9683,-6.4103,-1.9324,-2.6923,1.9683,1.9608,-5.2564
-3.8365,-12.0,-10.356,-1.9417,-0.65041,-5.9615,-5.153,-2.6282,2.5121,-1.9417,-0.65041,-7.225,-3.8095,-10.271,-2.4762,-10.897,-5.7971,-20.0,10.222,0.0,-9.7436
-4.4654,-7.5556,-8.4142,-1.9417,0.0,-7.8846,-5.153,-2.6282,1.2238,-1.9417,0.0,-8.5386,-0.63492,-2.6156,-1.8413,-4.4872,-1.9324,-3.3333,-2.4762,2.6144,-3.9744
-7.6101,-5.6508,-6.4725,-3.8835,-2.6016,-9.8077,-3.8647,-9.0385,-2.6409,-3.8835,-2.6016,-9.8522,2.5397,3.764,-1.8413,-0.64103,0.64412,-0.12821,-3.746,0.0,-1.4103
-4.4654,0.06349,-3.2362,-3.2362,-7.1545,-3.3974,-2.5765,-9.6795,-9.0821,-3.2362,-7.1545,-7.225,6.9841,10.144,0.69841,5.7692,4.5089,-7.8205,-6.2857,0.0,5.0
0.56604,1.9683,-1.9417,-8.4142,-5.8537,1.0897,-3.8647,-9.0385,-4.5733,-8.4142,-5.8537,-3.9409,8.254,13.971,2.6032,7.6923,5.7971,-4.6154,-11.365,0.65359,10.769
-3.2075,-2.4762,-4.5307,-12.945,-7.1545,-4.0385,-4.5089,-11.603,-6.5056,-12.945,-7.1545,-5.9113,5.7143,12.695,0.06349,3.8462,3.2206,5.0,-4.381,-1.9608,10.128
-1.3208,-6.2857,-5.178,-20.712,-7.1545,-2.7564,-7.0853,-10.321,-5.8615,-20.712,-7.1545,-5.2545,3.8095,8.2297,-0.57143,-0.64103,1.2882,-1.4103,2.6032,-1.3072,5.641
-3.8365,-5.6508,-5.178,-3.8835,-6.5041,-7.8846,-6.4412,-1.9872,-1.3527,-3.8835,-6.5041,-6.5681,6.9841,8.2297,1.3333,0.0,2.5765,-9.7436,-4.381,-0.65359,5.641
-4.4654,-6.2857,-5.178,12.945,-5.8537,-11.09,-5.153,-0.70513,-1.3527,12.945,-5.8537,-5.9113,6.9841,5.6778,1.3333,-0.64103,3.2206,-3.9744,-1.2063,-0.65359,4.359
-1.3208,-0.57143,0.64725,5.178,5.2033,-4.0385,-3.2206,-6.4744,-0.06441,5.178,5.2033,-0.65681,6.9841,5.6778,4.5079,3.2051,5.7971,3.7179,-1.8413,2.6144,5.641
-0.69182,3.873,3.2362,6.4725,7.8049,-2.1154,-2.5765,0.57692,3.1562,6.4725,7.8049,0.0,3.8095,3.126,3.873,5.1282,5.7971,-2.0513,-15.175,1.9608,3.7179
-1.9497,1.9683,2.589,5.178,5.8537,-0.19231,0.0,-1.3462,-11.659,5.178,5.8537,0.0,1.2698,-1.9777,1.3333,1.2821,3.2206,4.359,-10.73,3.268,-3.9744
-4.4654,-3.1111,-0.64725,-1.2945,3.252,-4.0385,-1.2882,-4.5513,-6.5056,-1.2945,3.252,-1.9704,-1.2698,-5.8054,-2.4762,-2.5641,-1.2882,-7.8205,-9.4603,0.0,-4.6154
-4.4654,-6.9206,-1.9417,-6.4725,-4.5528,-5.3205,-4.5089,-8.3974,-3.9291,-6.4725,-4.5528,-2.6273,-6.3492,-8.3573,-5.6508,-5.1282,-4.5089,-13.59,0.69841,-6.5359,-3.9744
-4.4654,-5.0159,-1.2945,-11.65,-7.8049,-5.9615,-2.5765,-4.5513,-6.5056,-11.65,-7.8049,-2.6273,-8.8889,-8.9952,-6.9206,-5.1282,-5.7971,-2.0513,8.9524,-7.1895,-4.6154
-3.8365,-1.2063,0.64725,-13.592,-4.5528,-4.6795,0.64412,-3.2692,4.4444,-13.592,-4.5528,-1.3136,-6.3492,-3.8915,-5.6508,-1.9231,-4.5089,-2.0513,5.7778,-1.9608,-1.4103
-2.5786,0.06349,0.64725,-7.1197,-2.6016,-4.0385,-3.8647,-22.5,4.4444,-7.1197,-2.6016,-4.5977,-5.0794,-0.70175,-4.381,1.2821,-3.2206,-0.12821,-2.4762,-1.3072,0.51282
-3.2075,1.9683,0.64725,0.0,-1.3008,-7.2436,-3.8647,-14.808,-1.3527,0.0,-1.3008,-7.8818,-5.0794,-0.0638,-3.746,3.8462,-1.2882,3.7179,0.06349,-1.3072,3.0769
-0.06289,9.5873,5.8252,-8.4142,-11.057,-6.6026,4.5089,-10.962,-3.9291,-8.4142,-11.057,-4.5977,0.63492,6.9537,2.6032,10.256,5.153,-2.6923,-1.2063,3.268,8.2051
-4.4654,4.5079,2.589,-11.003,-11.057,-9.8077,-1.2882,-12.885,-0.70853,-11.003,-11.057,-5.9113,5.0794,8.8676,3.2381,8.3333,6.4412,-10.385,1.9683,4.5752,8.8462
-6.3522,3.873,-1.2945,-14.887,-3.9024,-10.449,-3.8647,-7.1154,4.4444,-14.887,-3.9024,-7.225,8.254,10.781,3.2381,8.9744,6.4412,-13.59,4.5079,1.9608,13.974
-1.3208,9.5873,3.8835,-14.887,0.0,-5.3205,10.95,-6.4744,0.57971,-14.887,0.0,0.0,12.063,13.333,7.6825,12.179,10.95,-16.153999,-1.2063,4.5752,17.179001
3.0818,13.397,8.4142,-13.592,0.65041,0.44872,10.95,-15.449,8.9533,-13.592,0.65041,5.2545,11.429,12.057,10.222,14.103,12.882,-5.8974,-1.8413,2.6144,15.897
0.56604,5.1429,3.2362,-7.767,0.65041,-3.3974,5.7971,-17.372,8.3092,-7.767,0.65041,2.6273,6.9841,6.3158,5.7778,5.7692,7.0853,1.7949,17.205999,-1.3072,8.2051
-2.5786,3.873,0.64725,-3.2362,3.9024,-7.2436,5.153,-11.603,10.242,-3.2362,3.9024,-0.65681,5.7143,5.0399,5.1429,3.2051,5.153,-1.4103,14.667,0.0,3.7179
4.9686,8.3175,5.178,1.9417,0.0,-1.4744,9.6618,-4.5513,12.174,1.9417,0.0,3.2841,10.794,10.144,11.492,8.3333,10.306,2.4359,5.7778,9.1503,11.41
5.5975,1.9683,4.5307,3.2362,0.65041,3.0128,5.153,-11.603,3.8003,3.2362,0.65041,4.5977,10.159,8.2297,10.857,5.1282,9.0177,6.9231,7.6825,10.458,6.2821
0.56604,-0.57143,1.9417,1.2945,-1.9512,1.7308,-0.64412,-10.321,5.0886,1.2945,-1.9512,0.65681,10.159,8.2297,8.3175,3.8462,7.7295,-1.4103,1.9683,7.8431,4.359
-5.0943,-4.381,-3.8835,-12.298,-3.9024,-5.3205,-1.2882,-7.7564,3.1562,-12.298,-3.9024,-5.2545,8.254,5.0399,3.2381,0.0,3.8647,-14.231,-0.57143,5.2288,3.7179
-4.4654,-1.2063,-4.5307,-7.767,1.9512,-5.9615,-0.64412,-13.526,-7.1498,-7.767,1.9512,-5.9113,2.5397,3.764,-1.8413,0.0,-0.64412,-9.1026,-12.635,2.6144,3.0769
0.56604,1.9683,0.64725,1.2945,6.5041,3.0128,2.5765,-14.167,-1.3527,1.2945,6.5041,1.9704,1.2698,3.126,-1.8413,1.2821,-1.2882,-1.4103,-3.746,3.268,2.4359
-3.2075,-3.1111,0.0,-1.9417,7.1545,1.7308,-0.64412,-0.0641,3.1562,-1.9417,7.1545,1.9704,-3.8095,-1.9777,-6.2857,-3.8462,-4.5089,5.641,1.9683,-1.3072,-4.6154
-0.69182,0.06349,1.2945,-2.589,8.4553,4.2949,4.5089,-5.8333,11.53,-2.589,8.4553,5.9113,-6.3492,-3.8915,-6.9206,-3.8462,-6.4412,11.41,-5.6508,0.0,-4.6154
-4.4654,-2.4762,-1.9417,4.5307,5.8537,1.7308,0.64412,3.141,9.5974,4.5307,5.8537,1.9704,-8.254,-3.8915,-9.4603,-5.1282,-9.6618,5.641,-0.57143,-1.9608,-4.6154
-5.7233,-2.4762,-1.9417,7.767,3.9024,-4.0385,0.64412,12.115,6.3768,7.767,3.9024,0.65681,-5.0794,-1.9777,-8.8254,-3.8462,-8.3736,1.1538,-3.1111,-0.65359,-3.9744
-2.5786,2.6032,0.64725,5.178,-2.6016,0.44872,5.7971,2.5,5.0886,5.178,-2.6016,1.9704,0.0,1.8501,-3.746,0.64103,-4.5089,1.1538,-5.0159,1.9608,0.51282
-4.4654,-5.0159,-3.2362,0.64725,-11.707,-2.1154,1.9324,1.859,-1.9968,0.64725,-11.707,-0.65681,0.0,-3.2536,-4.381,-5.1282,-6.4412,6.9231,3.873,0.65359,-4.6154
-5.0943,-8.1905,-5.8252,-2.589,-8.4553,-4.6795,-3.8647,1.2179,-3.285,-2.589,-8.4553,-4.5977,-0.63492,-5.8054,-3.746,-8.3333,-7.0853,7.5641,3.2381,0.0,-9.1026
2.4528,-4.381,-1.9417,-0.64725,4.5528,1.7308,-0.64412,3.7821,7.0209,-0.64725,4.5528,0.65681,1.9048,-2.6156,1.3333,-5.7692,-2.5765,7.5641,-1.2063,1.9608,-6.5385
1.195,-3.746,-1.9417,0.64725,8.4553,1.7308,-0.64412,11.474,7.0209,0.64725,8.4553,1.3136,2.5397,-0.70175,2.6032,-5.1282,-0.64412,0.51282,-0.57143,2.6144,-3.9744
-2.5786,-3.1111,-3.2362,-7.1197,9.7561,-2.7564,-1.2882,5.0641,0.57971,-7.1197,9.7561,-0.65681,0.63492,-1.3397,0.06349,-4.4872,-1.9324,3.7179,-0.57143,0.65359,-1.4103
-8.239,-5.0159,-3.8835,-1.2945,9.7561,-1.4744,-5.153,-8.3974,-1.3527,-1.2945,9.7561,-1.3136,-5.7143,-4.5295,-5.0159,-5.7692,-4.5089,0.51282,-1.2063,-3.9216,-1.4103
-4.4654,-1.8413,0.0,13.592,5.2033,1.7308,4.5089,1.2179,7.6651,13.592,5.2033,3.2841,-3.8095,-1.3397,-2.4762,-1.9231,-0.64412,-2.6923,1.9683,-5.2288,-1.4103
2.4528,5.1429,3.8835,16.827999,1.9512,4.2949,3.8647,15.321,13.462,16.827999,1.9512,4.5977,1.2698,3.126,1.9683,5.1282,3.8647,12.051,-7.5556,-1.3072,4.359
5.5975,0.06349,3.2362,6.4725,7.8049,3.6538,-3.2206,6.3462,12.174,6.4725,7.8049,1.3136,-4.4444,-6.4434,0.69841,-0.64103,0.0,-0.12821,1.3333,-2.6144,-4.6154
4.3396,-1.8413,3.2362,-5.8252,5.8537,-0.19231,-3.2206,3.7821,1.2238,-5.8252,5.8537,-1.3136,-6.9841,-10.909,-0.57143,-4.4872,-3.2206,8.2051,3.873,0.0,-9.1026
-1.9497,-1.2063,2.589,-4.5307,-11.707,-1.4744,0.0,2.5,-5.2174,-4.5307,-11.707,-0.65681,-3.8095,-8.3573,-1.8413,-4.4872,-3.2206,17.179001,1.9683,3.268,-6.5385
-8.239,-7.5556,-3.8835,-4.5307,-11.057,-5.3205,-3.8647,-5.1923,-7.1498,-4.5307,-11.057,-4.5977,-6.3492,-9.6332,-8.1905,-9.6154,-8.3736,-7.1795,0.06349,-5.2288,-9.1026
-6.9811,-5.6508,-6.4725,-7.1197,4.5528,-5.3205,-5.7971,-5.8333,-3.285,-7.1197,4.5528,-8.5386,-2.5397,-3.2536,-6.9206,-7.6923,-8.3736,-4.6154,2.6032,-1.3072,-4.6154
-9.4969,-6.9206,-10.356,-7.1197,-0.65041,-9.1667,-5.7971,2.5,-1.9968,-7.1197,-0.65041,-9.8522,-0.63492,-2.6156,-7.5556,-7.6923,-9.0177,-2.6923,7.6825,-0.65359,-0.12821
-11.384,-10.73,-14.239,-5.178,-5.8537,-10.449,-12.882,-0.70513,-4.5733,-5.178,-5.8537,-11.823,-2.5397,-5.8054,-10.095,-11.538,-13.527,-13.59,1.3333,-3.9216,-4.6154
-7.6101,-5.6508,-9.7087,7.1197,1.3008,-4.6795,-3.8647,7.6282,10.242,7.1197,1.3008,-3.9409,0.0,-1.3397,-6.9206,-8.3333,-10.306,-0.12821,8.3175,-0.65359,-2.6923
-5.0943,-0.57143,-5.178,-3.2362,-1.3008,-0.83333,1.2882,5.0641,18.615,-3.2362,-1.3008,0.0,1.9048,3.126,-3.746,-3.8462,-6.4412,8.8462,8.3175,-0.65359,1.1538
-3.2075,1.9683,-1.9417,-8.4142,3.252,1.7308,0.64412,-16.731001,11.53,-8.4142,3.252,1.3136,3.1746,6.9537,-3.1111,0.64103,-3.8647,-4.6154,-11.365,-3.268,6.9231
-7.6101,-3.746,-5.178,-2.589,0.65041,-4.6795,0.64412,-2.6282,1.868,-2.589,0.65041,-3.2841,-0.63492,3.126,-5.6508,-3.8462,-5.7971,-3.9744,3.2381,-4.5752,3.0769
-12.642,-6.2857,-8.4142,-8.4142,-2.6016,-9.8077,4.5089,1.859,2.5121,-8.4142,-2.6016,-4.5977,-3.8095,-1.9777,-8.8254,-7.6923,-7.7295,-7.8205,15.302,-5.8824,-1.4103
-10.755,-2.4762,-5.178,-5.8252,-6.5041,-7.2436,4.5089,-2.6282,5.0886,-5.8252,-6.5041,-0.65681,-1.2698,-1.3397,-6.2857,-3.8462,-3.8647,-25.768999,4.5079,-5.2288,-2.0513
-1.3208,0.69841,-0.64725,2.589,-3.9024,-0.19231,5.153,-1.3462,3.8003,2.589,-3.9024,3.2841,0.0,-0.70175,-1.2063,0.0,0.0,-15.513,7.6825,-3.268,-1.4103
-1.3208,1.3333,-0.64725,0.64725,5.2033,2.3718,1.2882,3.141,-0.06441,0.64725,5.2033,1.9704,-1.2698,-3.8915,-3.1111,-0.64103,-1.9324,1.1538,-2.4762,-1.9608,-0.76923
-4.4654,0.06349,-1.9417,3.2362,2.6016,1.7308,3.2206,9.5513,0.57971,3.2362,2.6016,2.6273,-3.8095,-5.1675,-6.9206,-3.2051,-5.153,8.8462,-1.2063,-4.5752,-3.9744
-0.69182,3.2381,-1.9417,5.8252,2.6016,4.9359,6.4412,7.6282,1.2238,5.8252,2.6016,4.5977,-7.619,-3.2536,-8.8254,-2.5641,-5.7971,6.2821,0.69841,-9.1503,-3.3333
-5.0943,1.9683,-5.8252,-1.2945,7.8049,-0.19231,-3.2206,7.6282,0.57971,-1.2945,7.8049,-2.6273,-10.794,-3.8915,-11.365,-1.9231,-7.7295,2.4359,-1.8413,-7.8431,-0.76923
-6.9811,-5.0159,-7.767,-7.1197,0.65041,-7.8846,-7.0853,3.141,-0.70853,-7.1197,0.65041,-6.5681,-12.063,-7.7193,-11.365,-6.4103,-10.95,2.4359,7.0476,-7.8431,-3.9744
-1.3208,0.06349,-1.9417,2.589,-3.252,1.0897,-1.2882,-10.321,-0.70853,2.589,-3.252,0.0,-8.8889,-6.4434,-6.9206,-2.5641,-7.7295,5.0,0.69841,-5.8824,-1.4103
4.9686,7.6825,4.5307,3.2362,5.2033,8.7821,6.4412,-0.70513,7.6651,3.2362,5.2033,7.8818,-5.7143,-2.6156,-1.8413,3.8462,-3.2206,-9.1026,4.5079,-1.9608,5.641
7.4843,8.3175,5.8252,-3.2362,0.0,8.7821,6.4412,7.6282,8.3092,-3.2362,0.0,8.5386,-3.1746,-1.3397,0.69841,4.4872,-1.9324,-10.385,3.873,0.65359,4.359
6.2264,11.492,6.4725,6.4725,-4.5528,4.2949,8.3736,10.192,6.3768,6.4725,-4.5528,7.8818,-1.9048,-0.70175,1.3333,7.0513,-0.64412,3.0769,4.5079,1.9608,5.0
5.5975,7.6825,6.4725,2.589,4.5528,3.0128,8.3736,5.0641,8.9533,2.589,4.5528,5.9113,-1.9048,-0.70175,1.3333,5.1282,0.64412,13.974,10.222,0.65359,-0.12821
8.1132,3.873,9.0615,5.8252,8.4553,4.9359,9.6618,10.833,9.5974,5.8252,8.4553,8.5386,1.2698,-0.0638,4.5079,4.4872,3.8647,13.333,9.5873,2.6144,-1.4103
8.7421,5.1429,9.7087,11.65,5.8537,8.7821,5.153,-3.2692,2.5121,11.65,5.8537,7.225,1.9048,-0.70175,6.4127,5.7692,6.4412,7.5641,-3.746,2.6144,-0.76923
14.403,7.0476,11.003,9.0615,3.9024,8.7821,4.5089,5.0641,4.4444,9.0615,3.9024,7.225,4.4444,3.126,10.222,7.6923,9.0177,3.7179,-5.0159,5.8824,-0.12821
9.3711,7.0476,9.7087,9.0615,1.9512,7.5,5.153,19.808001,-0.06441,9.0615,1.9512,5.2545,5.7143,3.126,9.5873,7.0513,9.0177,7.5641,0.69841,9.1503,-0.12821
6.8553,2.6032,6.4725,3.8835,-3.9024,6.2179,8.3736,15.962,-1.9968,3.8835,-3.9024,5.2545,3.8095,-0.0638,7.0476,3.2051,6.4412,2.4359,3.873,4.5752,-0.76923
6.8553,1.3333,3.8835,1.2945,-1.9512,5.5769,7.0853,-0.70513,-3.285,1.2945,-1.9512,4.5977,1.9048,-0.0638,5.1429,1.2821,4.5089,-0.12821,-10.095,0.65359,0.51282
3.0818,-2.4762,-1.2945,-2.589,5.8537,3.6538,-3.2206,-4.5513,-3.9291,-2.589,5.8537,-1.3136,-4.4444,-4.5295,0.69841,-3.8462,-0.64412,6.2821,-3.1111,-3.268,-2.6923
-0.06289,-6.9206,-5.8252,-1.2945,1.9512,-2.1154,-9.0177,0.57692,-1.3527,-1.2945,1.9512,-5.9113,-7.619,-6.4434,-3.746,-8.3333,-4.5089,-7.1795,5.7778,-5.8824,-5.8974
-5.7233,-6.2857,-6.4725,7.767,-4.5528,-5.3205,-7.0853,6.3462,0.57971,7.767,-4.5528,-5.9113,-6.3492,-1.3397,-6.2857,-5.7692,-5.153,-0.12821,8.3175,-6.5359,-0.76923
-7.6101,-2.4762,-5.8252,-8.4142,-13.008,-5.9615,-1.2882,1.2179,1.2238,-8.4142,-13.008,-5.2545,-6.3492,0.57416,-8.8254,-1.9231,-3.8647,6.2821,8.3175,-7.1895,3.7179
-13.899,0.69841,-7.1197,-12.298,-12.358,-12.372,-0.64412,-1.9872,1.2238,-12.298,-12.358,-7.8818,-8.254,0.57416,-12.635,-0.64103,-5.153,-3.3333,-6.9206,-9.8039,5.641
-8.239,5.7778,-1.9417,1.2945,4.5528,-5.9615,0.0,-14.167,2.5121,1.2945,4.5528,-5.9113,-5.0794,4.4019,-10.095,5.1282,-2.5765,-9.7436,-10.73,-7.1895,8.8462
-8.239,-1.8413,-3.2362,-0.64725,6.5041,-9.1667,-9.0177,-6.4744,-0.06441,-0.64725,6.5041,-9.1954,-3.8095,1.2121,-8.1905,1.2821,-2.5765,-15.513,3.873,-3.9216,0.51282
-6.9811,-5.6508,-4.5307,1.9417,1.9512,-9.8077,-7.7295,-5.1923,-3.285,1.9417,1.9512,-8.5386,-0.63492,-0.0638,-6.2857,-1.9231,-3.2206,-13.59,7.0476,1.9608,-0.12821
-2.5786,-1.8413,-3.2362,-3.2362,-1.9512,-5.9615,-3.8647,-6.4744,-1.3527,-3.2362,-1.9512,-5.9113,1.9048,3.126,-1.8413,1.2821,-0.64412,-5.2564,-1.8413,1.3072,5.0
-1.9497,1.9683,0.0,-11.003,-11.707,-4.0385,2.5765,-8.3974,-2.6409,-11.003,-11.707,-3.2841,1.9048,5.0399,1.3333,4.4872,2.5765,1.7949,-8.1905,-1.9608,6.2821
-2.5786,1.9683,1.2945,-3.2362,-11.707,-2.7564,1.2882,-8.3974,1.2238,-3.2362,-11.707,-2.6273,1.9048,4.4019,2.6032,4.4872,3.8647,-3.9744,0.06349,0.65359,3.0769
3.0818,-1.2063,1.2945,3.2362,2.6016,1.0897,-4.5089,-4.5513,1.2238,3.2362,2.6016,-0.65681,3.8095,4.4019,5.1429,2.5641,5.153,-5.2564,8.3175,1.3072,0.51282
2.4528,-4.381,-0.64725,-11.65,2.6016,-2.1154,-8.3736,-4.5513,6.3768,-11.65,2.6016,-2.6273,4.4444,1.8501,4.5079,-0.64103,3.2206,-0.76923,2.6032,2.6144,-3.3333
3.0818,-4.381,-0.64725,-7.1197,-3.9024,-1.4744,-3.8647,-0.0641,-0.70853,-7.1197,-3.9024,-0.65681,3.8095,0.57416,4.5079,-2.5641,1.9324,-0.12821,-2.4762,4.5752,-4.6154
6.2264,-0.57143,2.589,1.2945,0.0,4.9359,2.5765,-2.6282,-11.659,1.2945,0.0,3.2841,2.5397,-3.2536,5.7778,-2.5641,1.9324,6.2821,-8.8254,5.2288,-6.5385
8.7421,1.3333,5.8252,0.0,1.9512,8.141,5.153,8.2692,-5.2174,0.0,1.9512,7.225,0.63492,-4.5295,7.0476,-1.2821,2.5765,10.128,-12.635,3.9216,-3.3333
6.2264,-1.2063,4.5307,0.64725,-1.3008,6.859,6.4412,10.192,-12.947,0.64725,-1.3008,6.5681,-0.63492,-3.2536,3.873,-3.8462,0.64412,8.8462,-6.2857,3.268,-5.8974
3.7107,-7.5556,-0.64725,-2.589,-9.7561,4.2949,0.64412,6.3462,-14.235,-2.589,-9.7561,1.3136,-3.1746,-7.0813,-1.2063,-9.6154,-5.153,-0.76923,-3.746,1.9608,-12.949
5.5975,-7.5556,-2.589,-4.5307,-3.9024,5.5769,-3.8647,9.5513,-2.6409,-4.5307,-3.9024,0.0,-3.1746,-7.7193,-1.2063,-8.9744,-5.153,-0.12821,-11.365,1.9608,-9.7436
1.8239,-11.365,-7.1197,1.9417,-2.6016,5.5769,-11.594,6.9872,-6.5056,1.9417,-2.6016,-3.2841,-4.4444,-8.3573,-4.381,-11.538,-9.0177,5.641,-16.444,-1.3072,-9.1026
0.56604,-11.365,-7.1197,8.4142,-0.65041,5.5769,-10.306,-1.3462,-5.2174,8.4142,-0.65041,-2.6273,-3.8095,-7.0813,-6.2857,-11.538,-10.306,4.359,-10.73,-1.3072,-7.8205
2.4528,-5.0159,-3.8835,7.1197,2.6016,3.0128,-3.2206,3.141,-12.947,7.1197,2.6016,-1.3136,-1.2698,-5.1675,-3.1111,-7.6923,-7.7295,-4.6154,-6.9206,2.6144,-6.5385
-0.06289,-3.1111,-3.8835,5.8252,5.2033,-1.4744,-5.153,8.2692,-7.1498,5.8252,5.2033,-1.9704,0.0,-2.6156,-3.1111,-3.8462,-5.153,5.0,-5.0159,0.65359,-3.3333
-7.6101,-6.2857,-7.767,-6.4725,-3.9024,-0.19231,-6.4412,5.7051,-1.9968,-6.4725,-3.9024,-3.2841,-3.8095,-2.6156,-7.5556,-5.7692,-7.7295,5.641,0.69841,-3.9216,-3.9744
-6.3522,-3.1111,-3.8835,4.5307,-1.3008,3.0128,4.5089,8.9103,-2.6409,4.5307,-1.3008,1.9704,-3.8095,1.2121,-7.5556,-3.8462,-5.7971,-2.0513,5.7778,-3.9216,1.1538
-2.5786,0.69841,1.9417,13.592,3.9024,6.859,5.153,10.192,12.174,13.592,3.9024,5.2545,0.63492,4.4019,-3.746,-0.64103,-2.5765,-11.026,6.4127,-1.9608,4.359
-3.8365,-3.1111,-1.2945,5.8252,-1.3008,4.2949,1.2882,-6.4744,10.242,5.8252,-1.3008,1.9704,-2.5397,-1.3397,-6.2857,-5.1282,-5.153,-5.8974,7.6825,-5.8824,-3.3333
-2.5786,-1.8413,-2.589,7.767,3.252,3.6538,1.9324,-1.3462,5.7327,7.767,3.252,0.0,-6.3492,-5.1675,-7.5556,-5.7692,-7.0853,-0.12821,3.873,-7.1895,-3.9744
4.3396,3.2381,1.9417,7.1197,14.309,6.859,7.7295,15.321,-0.70853,7.1197,14.309,3.9409,-3.8095,-5.8054,-3.1111,-2.5641,-3.8647,-16.153999,7.6825,-6.5359,-2.0513
3.7107,5.7778,5.178,7.767,5.2033,4.2949,3.8647,10.192,-2.6409,7.767,5.2033,3.2841,-5.7143,-6.4434,-0.57143,0.64103,0.0,-7.1795,-6.2857,-9.1503,-1.4103
5.5975,11.492,9.0615,13.592,7.8049,6.2179,7.7295,6.3462,7.6651,13.592,7.8049,7.225,-1.9048,0.57416,4.5079,8.3333,7.0853,6.2821,-3.1111,-4.5752,5.641
9.3711,10.222,11.003,14.239,5.8537,8.7821,7.0853,7.6282,12.174,14.239,5.8537,8.5386,5.0794,5.0399,9.5873,9.6154,11.594,3.0769,10.857,1.9608,5.0
12.516,7.6825,10.356,11.003,3.9024,10.064,4.5089,8.9103,1.868,11.003,3.9024,7.8818,10.159,6.3158,12.762,8.9744,13.527,7.5641,9.5873,7.8431,2.4359
11.887,9.5873,11.65,7.767,2.6016,10.705,6.4412,10.192,-7.1498,7.767,2.6016,7.8818,9.5238,7.5917,14.032,10.897,14.171,12.692,0.06349,7.8431,7.5641
11.887,7.0476,9.0615,-1.2945,-9.1057,6.859,3.8647,5.7051,-3.285,-1.2945,-9.1057,3.2841,6.3492,5.0399,12.127,8.3333,10.95,8.8462,-1.2063,8.4967,5.641
13.774,3.873,7.1197,0.64725,-9.7561,6.859,-1.2882,-1.9872,-2.6409,0.64725,-9.7561,1.3136,5.0794,1.2121,12.127,5.1282,8.3736,10.128,-1.2063,9.8039,0.51282
6.8553,1.3333,2.589,-10.356,-5.8537,3.6538,-5.153,6.9872,-11.014,-10.356,-5.8537,-2.6273,1.2698,-1.9777,7.6825,1.9231,3.8647,1.7949,-5.0159,7.1895,-0.76923
4.3396,2.6032,2.589,-5.178,-3.9024,1.0897,-2.5765,6.3462,-13.591,-5.178,-3.9024,-2.6273,0.0,-2.6156,5.7778,2.5641,2.5765,-9.7436,-8.1905,7.1895,-1.4103
8.7421,1.3333,4.5307,2.589,-7.8049,1.7308,-9.0177,4.4231,-13.591,2.589,-7.8049,-1.9704,0.0,-3.8915,7.6825,3.2051,4.5089,3.0769,-3.1111,3.9216,-3.3333
11.258,9.5873,10.356,7.767,0.65041,4.9359,-1.9324,12.756,-4.5733,7.767,0.65041,3.9409,-0.63492,-3.2536,8.9524,10.256,7.0853,13.333,-18.983999,1.9608,5.0
10.0,8.3175,11.003,9.0615,6.5041,4.9359,2.5765,9.5513,-3.9291,9.0615,6.5041,5.2545,-1.2698,-5.8054,7.0476,7.6923,5.7971,16.538,-2.4762,1.3072,-2.0513
15.66,5.1429,12.298,3.8835,2.6016,10.705,3.8647,8.9103,-7.1498,3.8835,2.6016,7.8818,-1.9048,-6.4434,7.6825,4.4872,5.153,15.897,13.397,0.65359,-6.5385
13.774,5.7778,12.298,0.0,-1.3008,13.269,6.4412,7.6282,-6.5056,0.0,-1.3008,9.1954,-1.2698,-5.8054,8.3175,5.7692,5.7971,15.256,5.1429,3.9216,-7.1795
10.629,7.0476,9.7087,-1.9417,-3.9024,10.705,3.8647,3.141,-13.591,-1.9417,-3.9024,7.225,0.63492,-0.70175,7.6825,6.4103,6.4412,7.5641,3.873,2.6144,-3.3333
11.258,7.6825,9.0615,0.64725,-6.5041,10.064,1.9324,5.0641,-6.5056,0.64725,-6.5041,7.225,5.0794,5.6778,9.5873,8.3333,9.0177,-5.2564,3.873,2.6144,2.4359
9.3711,5.7778,7.1197,1.9417,3.252,4.9359,0.64412,-0.70513,6.3768,1.9417,3.252,4.5977,4.4444,6.3158,8.9524,7.0513,9.0177,-4.6154,3.873,1.9608,1.1538
4.9686,2.6032,3.2362,7.1197,5.8537,0.44872,-3.8647,-9.0385,3.8003,7.1197,5.8537,1.3136,4.4444,8.2297,5.7778,5.1282,7.0853,7.5641,-0.57143,1.9608,1.1538
-1.3208,0.69841,-1.2945,4.5307,-4.5528,-4.6795,-5.153,-4.5513,3.8003,4.5307,-4.5528,-1.3136,2.5397,6.3158,0.69841,3.2051,2.5765,3.0769,-8.1905,0.65359,4.359
-5.0943,-1.2063,-3.2362,-6.4725,-3.252,-8.5256,-1.9324,-2.6282,-1.3527,-6.4725,-3.252,-3.2841,1.2698,2.488,-2.4762,-0.64103,-0.64412,0.51282,-1.2063,-1.3072,3.0769
-10.126,-5.6508,-5.8252,-5.8252,-10.407,-14.936,3.8647,-0.70513,-11.014,-5.8252,-10.407,-3.9409,-3.1746,-1.9777,-7.5556,-5.7692,-5.7971,-3.3333,6.4127,-5.8824,-2.0513
-6.9811,-1.2063,-3.8835,-1.2945,3.9024,-6.6026,6.4412,-3.9103,-4.5733,-1.2945,3.9024,0.65681,-4.4444,-2.6156,-8.1905,-3.2051,-5.153,-7.1795,1.3333,-8.4967,0.51282
1.8239,0.06349,-0.64725,-5.178,11.707,2.3718,1.2882,-4.5513,3.1562,-5.178,11.707,2.6273,-2.5397,-2.6156,-5.0159,-1.2821,-3.8647,-18.077,-9.4603,-6.5359,1.7949
-3.8365,-4.381,-3.2362,4.5307,3.9024,-0.19231,0.0,-1.3462,4.4444,4.5307,3.9024,3.2841,-3.8095,-6.4434,-6.9206,-5.7692,-6.4412,-7.8205,5.7778,-6.5359,-2.0513
-8.239,-6.2857,-4.5307,-5.178,7.8049,-0.19231,-2.5765,1.2179,3.1562,-5.178,7.8049,3.2841,-3.8095,-8.3573,-7.5556,-8.3333,-7.7295,-2.6923,12.127,-7.1895,-5.2564
-1.3208,-5.0159,-2.589,3.8835,1.9512,4.9359,3.8647,7.6282,-3.285,3.8835,1.9512,6.5681,-1.2698,-5.8054,-4.381,-7.0513,-5.7971,-2.0513,4.5079,-1.3072,-5.8974
0.56604,-3.1111,-2.589,9.7087,1.9512,4.2949,2.5765,4.4231,-4.5733,9.7087,1.9512,5.2545,0.63492,-1.9777,-1.8413,-3.8462,-2.5765,5.641,2.6032,1.9608,-3.9744
-4.4654,-5.0159,-5.178,9.0615,7.8049,0.44872,-0.64412,1.859,-3.285,9.0615,7.8049,1.9704,0.0,-0.70175,-3.1111,-3.8462,-2.5765,7.5641,-3.1111,1.3072,-3.9744
-8.239,-8.8254,-8.4142,2.589,4.5528,-3.3974,-7.7295,7.6282,-2.6409,2.589,4.5528,-3.9409,-1.2698,-1.9777,-4.381,-5.7692,-3.8647,-3.9744,-8.1905,-0.65359,-5.2564
-5.7233,-6.2857,-6.4725,-0.64725,-3.252,-2.7564,-3.2206,-3.2692,-14.235,-0.64725,-3.252,-2.6273,0.63492,-1.3397,-1.8413,-2.5641,-1.2882,-0.76923,-15.175,-1.3072,-0.76923
-5.7233,-10.095,-7.1197,-1.2945,-14.309,-2.1154,-10.306,-9.6795,-22.608999,-1.2945,-14.309,-5.2545,-1.9048,-3.8915,-3.1111,-5.7692,-2.5765,0.51282,-5.6508,-1.9608,-5.2564
-6.9811,-12.635,-9.0615,-5.178,-12.358,-5.9615,-12.882,-2.6282,-14.879,-5.178,-12.358,-8.5386,-6.9841,-7.7193,-8.1905,-10.256,-7.7295,-4.6154,3.873,-3.268,-11.026
-6.9811,-12.0,-9.7087,-11.65,-9.1057,-7.8846,-11.594,1.2179,-12.303,-11.65,-9.1057,-9.1954,-8.254,-7.7193,-10.73,-10.256,-10.95,-4.6154,-8.8254,-4.5752,-9.1026
-1.3208,-5.6508,-3.8835,-3.8835,-9.1057,5.5769,-6.4412,-3.2692,-6.5056,-3.8835,-9.1057,-1.9704,-3.8095,-1.9777,-6.2857,-4.4872,-7.0853,8.8462,-8.8254,-0.65359,-2.6923
0.56604,-1.2063,0.64725,8.4142,-3.252,4.2949,-6.4412,9.5513,-11.014,8.4142,-3.252,0.65681,2.5397,2.488,-1.8413,1.2821,-1.9324,9.4872,-12.0,3.9216,2.4359
-0.69182,-1.2063,0.0,15.534,-0.65041,-1.4744,-9.0177,14.038,-7.7939,15.534,-0.65041,-1.3136,4.4444,2.488,1.3333,2.5641,1.2882,6.2821,-7.5556,3.9216,1.1538
4.9686,2.6032,2.589,-4.5307,0.65041,0.44872,-5.153,6.9872,-8.438,-4.5307,0.65041,-0.65681,6.9841,6.3158,6.4127,7.0513,6.4412,7.5641,-12.635,7.1895,5.641
2.4528,1.3333,1.2945,-7.1197,-5.8537,1.0897,-7.0853,-0.0641,-18.1,-7.1197,-5.8537,-3.2841,6.9841,5.0399,6.4127,6.4103,7.0853,-0.12821,-5.6508,5.8824,5.641
-0.06289,0.06349,0.0,-0.64725,-16.26,-2.1154,-3.8647,-10.321,-21.965,-0.64725,-16.26,-3.9409,6.3492,4.4019,5.7778,4.4872,5.7971,-11.667,-6.9206,1.9608,5.0
1.195,0.69841,0.64725,-8.4142,-8.4553,-3.3974,-4.5089,-1.3462,-21.32,-8.4142,-8.4553,-3.2841,7.619,5.6778,7.6825,4.4872,5.7971,-2.0513,-0.57143,4.5752,4.359
2.4528,1.3333,1.9417,4.5307,4.5528,0.44872,-5.153,-2.6282,-1.9968,4.5307,4.5528,0.65681,10.794,7.5917,6.4127,3.8462,5.153,6.9231,6.4127,6.5359,3.0769
-3.8365,1.3333,0.0,10.356,1.9512,-4.0385,-3.2206,3.7821,3.1562,10.356,1.9512,-1.3136,9.5238,5.6778,2.6032,3.2051,3.2206,-1.4103,-1.8413,6.5359,1.1538
-4.4654,4.5079,0.64725,3.2362,3.252,-4.0385,1.2882,6.3462,-6.5056,3.2362,3.252,0.65681,10.794,9.5056,2.6032,5.7692,4.5089,1.1538,-8.1905,9.8039,5.0
-6.9811,3.873,-1.2945,6.4725,-1.3008,-4.6795,3.2206,-1.3462,-5.8615,6.4725,-1.3008,1.9704,8.8889,9.5056,-0.57143,3.2051,1.9324,5.641,-6.9206,6.5359,5.0
-9.4969,-3.1111,-5.178,1.2945,1.3008,-7.2436,-0.64412,-1.9872,1.868,1.2945,1.3008,-0.65681,6.3492,6.3158,-4.381,-1.9231,-1.9324,2.4359,-1.2063,5.2288,1.7949
-6.9811,-3.1111,-4.5307,-0.64725,4.5528,-1.4744,-3.2206,-17.372,0.57971,-0.64725,4.5528,-1.9704,5.7143,7.5917,-3.1111,-0.64103,-0.64412,-11.026,-0.57143,5.2288,3.0769
-5.0943,0.06349,-3.8835,-8.4142,1.3008,-4.0385,0.64412,-18.653999,-7.1498,-8.4142,1.3008,-3.9409,5.0794,9.5056,-1.2063,1.9231,1.9324,-5.2564,4.5079,5.2288,7.5641
-12.642,3.873,-6.4725,-29.125999,-1.9512,-16.858999,1.9324,-10.962,-5.8615,-29.125999,-1.9512,-8.5386,3.8095,8.8676,-3.1111,3.8462,1.2882,1.1538,-1.8413,1.9608,10.769
-12.642,-0.57143,-7.767,-12.945,0.65041,-20.063999,-2.5765,-14.167,3.1562,-12.945,0.65041,-11.166,3.8095,6.9537,-3.746,1.9231,1.2882,-20.641001,-3.746,0.0,9.4872
-7.6101,0.06349,-4.5307,5.178,1.9512,-14.295,-6.4412,-9.0385,12.818,5.178,1.9512,-9.8522,3.8095,7.5917,0.06349,4.4872,3.2206,-18.077,-5.0159,1.3072,10.128
-1.3208,1.3333,0.0,3.8835,-1.9512,-5.9615,-4.5089,-1.9872,11.53,3.8835,-1.9512,-3.9409,3.8095,8.2297,3.2381,6.4103,5.7971,-10.385,12.127,1.3072,10.769
-3.2075,2.6032,1.2945,3.8835,-9.1057,-2.1154,0.0,-5.8333,8.9533,3.8835,-9.1057,-0.65681,1.2698,5.6778,0.69841,5.1282,3.8647,-1.4103,22.285999,-3.268,6.9231
1.8239,12.762,8.4142,11.003,-0.65041,3.6538,17.391001,6.9872,3.1562,11.003,-0.65041,9.8522,2.5397,7.5917,3.873,11.538,7.0853,10.769,13.397,2.6144,9.4872
8.7421,17.205999,15.534,16.181,11.707,11.346,25.121,10.833,3.1562,16.181,11.707,18.391001,5.0794,7.5917,7.6825,14.103,10.306,9.4872,16.570999,5.8824,8.2051
11.887,18.476,18.122999,11.65,12.358,16.474001,23.188,10.833,6.3768,11.65,12.358,21.018,2.5397,4.4019,7.6825,14.103,10.306,3.0769,9.5873,1.9608,5.641
14.403,19.746,20.065001,-1.2945,20.813,19.038,21.256001,7.6282,7.0209,-1.2945,20.813,21.018,1.9048,3.764,9.5873,14.744,11.594,1.1538,8.9524,3.268,5.641
18.176001,21.650999,20.065001,5.8252,20.813,21.603001,18.68,-2.6282,12.174,5.8252,20.813,19.048,3.8095,6.3158,13.397,17.948999,14.171,3.7179,7.6825,4.5752,10.128
15.031,17.841,15.534,19.417,13.008,20.962,19.323999,7.6282,8.9533,19.417,13.008,16.42,2.5397,3.126,11.492,14.103,12.238,3.7179,-1.8413,4.5752,8.2051
6.2264,10.857,9.0615,11.65,12.358,9.4231,9.0177,18.525999,12.818,11.65,12.358,10.509,-1.2698,-0.0638,5.7778,7.6923,5.7971,5.641,7.0476,0.65359,3.7179
6.2264,7.6825,6.4725,15.534,5.8537,8.141,9.6618,12.756,3.1562,15.534,5.8537,9.8522,-1.2698,-0.70175,1.3333,3.8462,1.2882,6.9231,-1.2063,-3.268,1.7949
2.4528,5.7778,1.9417,12.945,0.65041,6.2179,4.5089,11.474,1.868,12.945,0.65041,5.9113,-3.8095,-0.0638,-2.4762,1.2821,-2.5765,-0.76923,-4.381,-2.6144,-0.76923
-4.4654,-5.6508,-7.1197,0.64725,-5.2033,-2.7564,-5.153,12.115,-1.3527,0.64725,-5.2033,-3.2841,-7.619,-0.70175,-7.5556,-6.4103,-8.3736,-4.6154,10.857,-4.5752,-2.6923
-4.4654,-13.905,-10.356,1.9417,-5.2033,-2.7564,-10.95,4.4231,-8.438,1.9417,-5.2033,-5.9113,-7.619,-1.3397,-8.8254,-10.897,-10.95,-7.8205,8.9524,-5.2288,-5.2564
-1.3208,-7.5556,-4.5307,1.9417,-4.5528,-0.19231,-2.5765,0.57692,-8.438,1.9417,-4.5528,0.0,-3.8095,0.57416,-3.746,-5.7692,-5.7971,0.51282,0.69841,0.0,-1.4103
4.9686,-3.746,1.2945,-3.8835,-2.6016,1.7308,4.5089,3.141,-7.7939,-3.8835,-2.6016,2.6273,1.2698,2.488,2.6032,-2.5641,0.0,9.4872,-1.8413,5.8824,1.1538
4.3396,-2.4762,1.9417,-0.64725,5.8537,1.0897,-0.64412,8.2692,-5.8615,-0.64725,5.8537,0.0,5.7143,5.6778,6.4127,0.64103,3.8647,7.5641,-2.4762,9.1503,3.7179
8.1132,-2.4762,2.589,10.356,5.8537,8.7821,-4.5089,2.5,-6.5056,10.356,5.8537,-0.65681,6.3492,3.126,10.222,0.64103,5.7971,11.41,-5.6508,11.111,-0.12821
13.774,4.5079,6.4725,12.945,5.8537,8.7821,-4.5089,14.679,-8.438,12.945,5.8537,1.3136,8.8889,5.6778,14.667,6.4103,10.306,6.2821,-25.968,10.458,5.641
12.516,-1.2063,8.4142,12.298,5.8537,8.141,-3.8647,17.243999,-9.0821,12.298,5.8537,4.5977,9.5238,4.4019,15.302,3.2051,11.594,8.8462,-12.0,10.458,0.51282
14.403,-6.9206,8.4142,9.0615,1.9512,10.064,-5.153,6.9872,-1.9968,9.0615,1.9512,3.9409,6.3492,-0.70175,14.032,-1.2821,9.6618,9.4872,-0.57143,11.111,-8.4615
12.516,-4.381,6.4725,12.298,1.9512,4.2949,-3.2206,13.397,-4.5733,12.298,1.9512,1.3136,5.7143,-3.2536,12.127,-1.2821,7.7295,6.9231,-5.6508,9.1503,-9.7436
8.7421,-2.4762,5.8252,15.534,-1.3008,1.7308,-3.2206,17.885,-14.235,15.534,-1.3008,-0.65681,3.8095,-7.7193,8.9524,-3.2051,5.153,16.538,-16.444,7.8431,-12.949
8.7421,-0.57143,5.178,7.1197,1.9512,1.7308,-5.153,10.192,-9.7262,7.1197,1.9512,0.65681,2.5397,-7.7193,5.7778,-2.5641,2.5765,14.615,-24.063,5.2288,-10.385
3.0818,-7.5556,-1.2945,-0.64725,-9.1057,0.44872,-7.7295,4.4231,-23.253,-0.64725,-9.1057,-2.6273,-1.9048,-8.9952,-1.8413,-8.9744,-5.153,8.2051,-18.349001,1.3072,-12.949
-7.6101,-13.905,-9.7087,-5.8252,-14.309,-5.9615,-7.0853,0.57692,-27.761999,-5.8252,-14.309,-7.8818,-6.3492,-11.547,-10.73,-16.025999,-12.882,10.128,-12.0,-0.65359,-12.949
-11.384,-18.983999,-15.534,-9.0615,-6.5041,-9.8077,-20.612,-6.4744,-11.659,-9.0615,-6.5041,-14.45,-6.9841,-10.909,-12.635,-18.59,-15.459,-2.6923,-9.4603,0.65359,-11.667
-14.528,-17.079,-15.534,-5.178,1.3008,-11.731,-22.544001,-1.9872,-5.2174,-5.178,1.3008,-15.107,-3.8095,-5.8054,-13.27,-16.667,-13.527,-4.6154,-12.635,-4.5752,-9.7436
-11.384,-7.5556,-9.0615,1.9417,-5.8537,-8.5256,-10.306,5.7051,-5.2174,1.9417,-5.8537,-8.5386,0.63492,2.488,-7.5556,-6.4103,-5.7971,-11.667,-15.81,-9.8039,-0.76923
-5.0943,-6.9206,-5.178,1.9417,-1.9512,-5.3205,-5.7971,3.141,-11.659,1.9417,-1.9512,-5.9113,1.2698,3.126,-2.4762,-3.8462,-0.64412,-5.2564,2.6032,-9.8039,0.51282
0.56604,1.3333,1.9417,9.7087,4.5528,-0.19231,1.2882,8.2692,-1.9968,9.7087,4.5528,-1.3136,4.4444,7.5917,4.5079,2.5641,5.7971,2.4359,10.222,-5.2288,5.641
3.7107,5.7778,4.5307,12.298,4.5528,3.6538,6.4412,0.57692,12.818,12.298,4.5528,3.2841,1.9048,7.5917,5.7778,5.1282,7.0853,-6.5385,11.492,-5.2288,6.9231
1.8239,5.1429,3.2362,-2.589,7.1545,8.141,7.7295,2.5,16.039,-2.589,7.1545,5.2545,1.2698,5.0399,3.873,3.2051,5.7971,-1.4103,5.7778,-5.2288,3.7179
-0.69182,5.7778,2.589,5.178,5.8537,9.4231,6.4412,-3.2692,7.0209,5.178,5.8537,4.5977,1.2698,4.4019,3.2381,5.1282,5.7971,8.8462,-1.2063,-5.8824,5.641
6.8553,7.6825,5.8252,10.356,1.3008,8.7821,7.7295,-4.5513,8.3092,10.356,1.3008,3.9409,-1.9048,2.488,5.1429,7.6923,7.7295,-2.0513,0.69841,-5.2288,6.9231
-1.3208,4.5079,1.2945,9.0615,6.5041,-2.7564,-0.64412,14.679,8.9533,9.0615,6.5041,-1.9704,-6.3492,-1.9777,0.06349,2.5641,2.5765,-3.3333,3.873,-6.5359,-0.12821
-6.3522,-1.2063,-3.8835,9.0615,5.2033,-8.5256,-3.8647,14.679,3.8003,9.0615,5.2033,-6.5681,-7.619,-2.6156,-3.746,-1.9231,-1.9324,10.128,3.2381,-5.2288,-0.76923
-2.5786,-1.2063,-3.2362,0.0,1.9512,-3.3974,-6.4412,8.2692,-0.06441,0.0,1.9512,-5.9113,-6.3492,-2.6156,-1.8413,-0.64103,-1.2882,9.4872,3.873,0.0,2.4359
0.56604,-3.1111,-3.2362,1.2945,-2.6016,-4.6795,-5.153,7.6282,-5.2174,1.2945,-2.6016,-5.9113,-5.7143,-6.4434,-0.57143,-3.8462,-3.8647,-1.4103,7.0476,1.3072,-2.6923
4.9686,-2.4762,-1.2945,3.8835,3.9024,-1.4744,-7.0853,7.6282,3.8003,3.8835,3.9024,-2.6273,-1.2698,-5.8054,2.6032,-3.2051,-3.2206,1.1538,-2.4762,2.6144,-3.9744
3.7107,5.1429,1.2945,0.64725,6.5041,0.44872,0.0,6.9872,7.6651,0.64725,6.5041,1.9704,2.5397,-1.3397,2.6032,1.9231,-0.64412,3.0769,-6.9206,5.2288,0.51282
-1.3208,-3.1111,-4.5307,0.64725,3.252,3.0128,-3.2206,-4.5513,3.1562,0.64725,3.252,-0.65681,-1.9048,-5.8054,-3.746,-4.4872,-7.0853,3.0769,5.1429,0.65359,-4.6154
-1.9497,-5.6508,-4.5307,6.4725,2.6016,0.44872,-3.2206,3.141,0.57971,6.4725,2.6016,-1.3136,-1.9048,-5.1675,-5.0159,-6.4103,-7.7295,6.2821,10.857,-1.3072,-3.9744
1.8239,-4.381,-1.9417,4.5307,-1.9512,1.0897,-5.153,13.397,2.5121,4.5307,-1.9512,-0.65681,-5.0794,-8.3573,-2.4762,-5.7692,-6.4412,10.128,8.3175,-3.268,-5.8974
8.7421,-2.4762,1.9417,12.298,3.9024,6.2179,-1.2882,9.5513,-1.9968,12.298,3.9024,3.2841,-4.4444,-8.3573,1.9683,-3.2051,-2.5765,4.359,5.7778,-3.268,-4.6154
4.3396,0.69841,1.9417,13.592,1.3008,4.9359,5.7971,-1.3462,-1.3527,13.592,1.3008,3.9409,-4.4444,-6.4434,0.06349,-1.9231,-1.9324,8.2051,-7.5556,-3.9216,-3.3333
1.195,7.0476,1.2945,8.4142,-12.358,6.2179,14.171,-0.70513,0.57971,8.4142,-12.358,7.225,-5.7143,-3.8915,-1.8413,0.64103,-3.8647,5.641,-12.0,-1.3072,1.1538
-5.0943,-5.6508,-7.767,-4.5307,-5.8537,1.0897,-0.64412,8.9103,-5.8615,-4.5307,-5.8537,0.0,-8.8889,-9.6332,-8.1905,-8.9744,-10.95,-2.6923,7.6825,-5.8824,-7.8205
-3.8365,-10.095,-9.7087,-9.0615,11.057,-1.4744,-9.6618,11.474,-6.5056,-9.0615,11.057,-5.2545,-10.794,-11.547,-9.4603,-10.897,-12.238,0.51282,15.302,-8.4967,-8.4615
-5.7233,-8.8254,-11.003,-9.7087,2.6016,-3.3974,-11.594,3.7821,-0.70853,-9.7087,2.6016,-7.8818,-12.063,-12.185,-12.635,-9.6154,-13.527,-2.0513,1.3333,-11.765,-7.1795
-5.0943,-6.2857,-7.767,0.64725,-1.9512,-1.4744,-6.4412,4.4231,3.8003,0.64725,-1.9512,-5.2545,-10.794,-8.9952,-12.0,-6.4103,-11.594,8.2051,3.873,-9.1503,-3.3333
-1.3208,-1.2063,-1.9417,11.65,0.0,2.3718,-1.2882,13.397,1.868,11.65,0.0,0.0,-7.619,-5.1675,-8.1905,-1.9231,-7.0853,11.41,3.2381,-4.5752,1.1538
