C3,C4,Cz,F1,F2,F3,F4,F7,F8,Fp1,Fp2,Fz,O1,O2,P3,P4,Pz,T3,T4,T5,T6
9.4155,8.6762,10.797,7.8431,10.837,6.6341,6.7633,1.868,7.6651,7.8431,10.837,5.8824,4.7619,4.7209,7.6825,6.7633,6.8277,1.8035,14.413,2.9557,2.7697
13.207,11.547,15.675,10.784,10.837,7.6098,7.7295,1.868,8.6312,10.784,10.837,8.8235,7.619,5.6778,11.492,10.628,9.7262,3.7359,6.7937,6.8966,4.7021
11.311,11.547,13.724,8.8235,5.9113,5.6585,8.6957,1.868,7.6651,8.8235,5.9113,7.8431,5.7143,5.6778,9.5873,10.628,9.7262,-3.0274,9.6508,4.9261,3.7359
9.4155,11.547,10.797,6.8627,6.8966,4.6829,9.6618,2.8341,6.6989,6.8627,6.8966,6.8627,4.7619,4.7209,8.6349,10.628,8.7601,-3.0274,1.0794,2.9557,2.7697
11.311,11.547,11.772,8.8235,11.823,9.561,8.6957,6.6989,6.6989,8.8235,11.823,7.8431,6.6667,6.6348,11.492,12.56,9.7262,3.7359,-12.254,3.9409,5.6683
9.4155,7.7193,9.8211,7.8431,9.8522,8.5854,6.7633,2.8341,0.90177,7.8431,9.8522,6.8627,3.8095,4.7209,8.6349,6.7633,6.8277,3.7359,-4.6349,1.9704,2.7697
6.5719,-0.89314,4.9431,6.8627,5.9113,5.6585,5.7971,2.8341,2.8341,6.8627,5.9113,2.9412,0.0,0.89314,5.7778,-1.9324,1.9968,2.7697,3.9365,2.9557,-2.0612
0.88468,-4.7209,-0.91057,8.8235,2.9557,2.7317,0.0,5.7327,2.8341,8.8235,2.9557,0.0,-3.8095,-2.9346,0.06349,-4.8309,-2.8341,-3.0274,2.0317,-0.98522,-3.9936
-2.9068,-3.764,-6.7642,9.8039,4.9261,0.78049,-6.7633,6.6989,-0.06441,9.8039,4.9261,-2.9412,-4.7619,-3.8915,-3.746,-3.8647,-4.7665,1.8035,1.0794,-2.9557,-4.9597
-5.7504,-7.5917,-8.7154,7.8431,2.9557,-0.19512,-6.7633,4.7665,-3.9291,7.8431,2.9557,-4.902,-1.9048,-1.9777,-3.746,-4.8309,-3.8003,2.7697,-7.4921,-1.9704,-3.9936
-5.7504,-3.764,-7.7398,7.8431,0.98522,-0.19512,-1.9324,4.7665,-1.9968,7.8431,0.98522,-3.9216,1.9048,1.8501,-1.8413,-1.9324,-0.90177,-0.12882,-13.206,1.9704,-1.095
-9.5419,-5.6778,-9.6911,4.902,0.0,-3.122,-3.8647,0.90177,-4.8953,4.902,0.0,-6.8627,0.95238,2.807,-6.6032,-2.8986,-2.8341,-5.9259,-16.063,-0.98522,-0.12882
-11.438,-3.764,-8.7154,1.9608,2.9557,-6.0488,-1.9324,-1.9968,-3.9291,1.9608,2.9557,-6.8627,-2.8571,-0.0638,-9.4603,-2.8986,-4.7665,-9.7907,1.0794,-4.9261,-0.12882
-11.438,-1.8501,-8.7154,2.9412,4.9261,-7.0244,0.96618,-4.8953,1.868,2.9412,4.9261,-5.8824,-4.7619,-1.0207,-11.365,-2.8986,-5.7327,-6.8921,14.413,-6.8966,-1.095
-10.49,-4.7209,-7.7398,4.902,7.8818,-4.0976,4.8309,-3.9291,5.7327,4.902,7.8818,-2.9412,-4.7619,-1.0207,-11.365,-1.9324,-4.7665,-6.8921,18.222,-4.9261,-0.12882
-10.49,-3.764,-7.7398,4.902,7.8818,-4.0976,1.9324,-2.963,4.7665,4.902,7.8818,-2.9412,-4.7619,-1.0207,-11.365,-1.9324,-5.7327,-9.7907,3.9365,-6.8966,-1.095
-7.6461,-1.8501,-5.7886,5.8824,6.8966,-4.0976,-0.96618,-3.9291,3.8003,5.8824,6.8966,-1.9608,-4.7619,-1.9777,-11.365,-0.96618,-5.7327,-8.8245,-13.206,-7.8818,-0.12882
-3.8547,0.0638,-1.8862,7.8431,7.8818,-2.1463,0.96618,-2.963,4.7665,7.8431,7.8818,0.98039,-4.7619,-3.8915,-8.5079,-0.96618,-5.7327,-4.9597,-5.5873,-6.8966,0.83736
-1.9589,1.9777,1.0407,7.8431,9.8522,-0.19512,7.7295,-1.0306,3.8003,7.8431,9.8522,2.9412,-3.8095,-2.9346,-5.6508,-0.96618,-3.8003,-1.095,0.12698,-5.9113,-0.12882
1.8325,7.7193,4.9431,7.8431,10.837,1.7561,7.7295,-1.0306,6.6989,7.8431,10.837,3.9216,-0.95238,-0.0638,0.06349,3.8647,1.0306,-0.12882,1.0794,-2.9557,-0.12882
7.5197,13.461,8.8455,10.784,12.808,3.7073,7.7295,3.8003,6.6989,10.784,12.808,5.8824,0.0,-0.0638,5.7778,6.7633,4.8953,-0.12882,5.8413,1.9704,-0.12882
6.5719,9.6332,7.8699,11.765,10.837,2.7317,7.7295,5.7327,6.6989,11.765,10.837,4.902,-1.9048,-2.9346,6.7302,5.7971,3.9291,5.6683,8.6984,0.98522,-2.0612
6.5719,2.9346,6.8943,9.8039,10.837,4.6829,9.6618,5.7327,9.5974,9.8039,10.837,5.8824,-3.8095,-2.9346,5.7778,3.8647,2.963,5.6683,9.6508,0.98522,-1.095
3.7283,1.0207,3.9675,6.8627,8.867,2.7317,6.7633,3.8003,5.7327,6.8627,8.867,2.9412,-5.7143,-3.8915,1.9683,2.8986,-0.90177,0.83736,-1.7778,-2.9557,-0.12882
0.88468,1.9777,1.0407,7.8431,4.9261,1.7561,4.8309,3.8003,6.6989,7.8431,4.9261,1.9608,-8.5714,-5.8054,-1.8413,0.0,-3.8003,-1.095,-0.8254,-4.9261,-1.095
1.8325,0.0638,0.06504,7.8431,8.867,3.7073,5.7971,5.7327,7.6651,7.8431,8.867,2.9412,-8.5714,-7.7193,-2.7937,-5.7971,-5.7327,-1.095,5.8413,-2.9557,-2.0612
-0.06319,-2.807,-2.8618,3.9216,4.9261,1.7561,4.8309,1.868,3.8003,3.9216,4.9261,0.98039,-8.5714,-10.59,-3.746,-10.628,-8.6312,-0.12882,-2.7302,-0.98522,-5.9259
-1.0111,-1.8501,-1.8862,4.902,3.9409,3.7073,4.8309,1.868,0.90177,4.902,3.9409,0.98039,-7.619,-12.504,-3.746,-11.594,-9.5974,0.83736,-0.8254,-0.98522,-9.7907
1.8325,1.0207,2.0163,6.8627,5.9113,6.6341,4.8309,5.7327,0.90177,6.8627,5.9113,5.8824,-7.619,-12.504,-3.746,-10.628,-8.6312,4.7021,1.0794,-0.98522,-8.8245
4.6761,1.0207,5.9187,7.8431,8.867,7.6098,6.7633,6.6989,4.7665,7.8431,8.867,9.8039,-4.7619,-10.59,-0.88889,-8.6957,-5.7327,3.7359,3.9365,0.98522,-8.8245
3.7283,0.0638,5.9187,6.8627,6.8966,6.6341,5.7971,5.7327,3.8003,6.8627,6.8966,7.8431,-3.8095,-8.6762,-0.88889,-5.7971,-2.8341,6.6345,-5.5873,-1.9704,-7.8583
0.88468,-0.89314,2.9919,4.902,2.9557,3.7073,5.7971,2.8341,-1.0306,4.902,2.9557,3.9216,-1.9048,-5.8054,-1.8413,-4.8309,-0.90177,4.7021,-7.4921,-4.9261,-6.8921
-1.0111,-0.89314,0.06504,2.9412,3.9409,2.7317,3.8647,1.868,2.8341,2.9412,3.9409,1.9608,-1.9048,-2.9346,-1.8413,-2.8986,-0.90177,-3.0274,-7.4921,-4.9261,-4.9597
1.8325,3.8915,2.9919,8.8235,10.837,6.6341,2.8986,6.6989,4.7665,8.8235,10.837,5.8824,1.9048,1.8501,1.0159,3.8647,3.9291,-0.12882,-1.7778,-2.9557,1.8035
3.7283,9.6332,4.9431,10.784,9.8522,7.6098,5.7971,9.5974,7.6651,10.784,9.8522,6.8627,2.8571,2.807,2.9206,6.7633,4.8953,2.7697,1.0794,0.0,4.7021
5.624,13.461,7.8699,8.8235,9.8522,7.6098,10.628,8.6312,7.6651,8.8235,9.8522,7.8431,2.8571,2.807,2.9206,7.7295,5.8615,4.7021,8.6984,2.9557,5.6683
3.7283,10.59,7.8699,7.8431,9.8522,6.6341,7.7295,5.7327,4.7665,7.8431,9.8522,6.8627,0.0,0.89314,0.06349,7.7295,2.963,2.7697,5.8413,-1.9704,6.6345
1.8325,3.8915,5.9187,7.8431,10.837,4.6829,9.6618,2.8341,11.53,7.8431,10.837,5.8824,-2.8571,-1.9777,-2.7937,4.8309,1.0306,3.7359,13.46,-4.9261,4.7021
2.7804,2.9346,3.9675,6.8627,6.8966,4.6829,8.6957,4.7665,7.6651,6.8627,6.8966,3.9216,-3.8095,-4.8485,-0.88889,2.8986,1.0306,4.7021,11.556,-2.9557,-0.12882
1.8325,1.9777,0.06504,5.8824,0.0,1.7561,2.8986,6.6989,-2.963,5.8824,0.0,0.98039,-3.8095,-5.8054,-0.88889,0.96618,0.06441,3.7359,-3.6825,-3.9409,-1.095
0.88468,-2.807,-2.8618,6.8627,1.9704,0.78049,-0.96618,4.7665,-4.8953,6.8627,1.9704,0.98039,-3.8095,-6.7624,0.06349,-0.96618,0.06441,2.7697,-7.4921,-1.9704,-2.0612
1.8325,-5.6778,-1.8862,6.8627,5.9113,4.6829,-0.96618,6.6989,1.868,6.8627,5.9113,3.9216,-3.8095,-7.7193,0.06349,-1.9324,0.06441,1.8035,-12.254,-0.98522,-3.9936
4.6761,-3.764,1.0407,8.8235,5.9113,8.5854,1.9324,10.564,2.8341,8.8235,5.9113,5.8824,-4.7619,-7.7193,1.0159,-1.9324,1.0306,1.8035,-15.111,-1.9704,-5.9259
5.624,-3.764,1.0407,8.8235,4.9261,9.561,-0.96618,7.6651,1.868,8.8235,4.9261,5.8824,-4.7619,-6.7624,2.9206,-1.9324,1.9968,-2.0612,-12.254,-0.98522,-5.9259
4.6761,0.0638,1.0407,8.8235,5.9113,7.6098,0.0,6.6989,1.868,8.8235,5.9113,4.902,-1.9048,-4.8485,3.873,0.0,1.9968,6.6345,-0.8254,0.0,-3.9936
4.6761,0.0638,2.0163,8.8235,6.8966,5.6585,2.8986,5.7327,1.868,8.8235,6.8966,3.9216,0.95238,-2.9346,4.8254,-0.96618,1.9968,13.398,1.0794,2.9557,-4.9597
8.4676,1.0207,3.9675,9.8039,6.8966,7.6098,6.7633,9.5974,6.6989,9.8039,6.8966,5.8824,4.7619,-1.9777,8.6349,-2.8986,2.963,5.6683,10.603,8.867,-4.9597
2.7804,-0.89314,-0.91057,2.9412,2.9557,2.7317,3.8647,4.7665,5.7327,2.9412,2.9557,1.9608,2.8571,-5.8054,3.873,-7.7295,-3.8003,-0.12882,5.8413,3.9409,-7.8583
-1.0111,-3.764,-4.813,1.9608,2.9557,0.78049,1.9324,3.8003,2.8341,1.9608,2.9557,-0.98039,0.0,-8.6762,-1.8413,-12.56,-8.6312,1.8035,-3.6825,0.0,-9.7907
-2.9068,-4.7209,-5.7886,-2.9412,-4.9261,-0.19512,-2.8986,0.90177,-4.8953,-2.9412,-4.9261,-2.9412,0.0,-6.7624,-2.7937,-13.527,-8.6312,1.8035,-11.302,-1.9704,-7.8583
-3.8547,-5.6778,-7.7398,0.98039,-1.9704,-1.1707,-0.96618,3.8003,-1.9968,0.98039,-1.9704,-3.9216,-5.7143,-8.6762,-6.6032,-13.527,-10.564,1.8035,-11.302,-3.9409,-7.8583
-4.8025,-2.807,-7.7398,3.9216,3.9409,-0.19512,2.8986,8.6312,5.7327,3.9216,3.9409,-3.9216,-7.619,-6.7624,-7.5556,-6.7633,-8.6312,4.7021,11.556,-3.9409,-3.9936
-5.7504,-1.8501,-7.7398,2.9412,7.8818,-3.122,0.96618,5.7327,8.6312,2.9412,7.8818,-3.9216,-10.476,-6.7624,-8.5079,-4.8309,-6.6989,1.8035,15.365,-5.9113,-0.12882
-2.9068,1.0207,-2.8618,4.902,6.8966,-2.1463,-0.96618,4.7665,5.7327,4.902,6.8966,-0.98039,-10.476,-4.8485,-6.6032,-2.8986,-4.7665,3.7359,1.0794,-5.9113,0.83736
3.7283,1.9777,4.9431,5.8824,3.9409,1.7561,-1.9324,3.8003,-0.06441,5.8824,3.9409,2.9412,-6.6667,-1.0207,-1.8413,1.9324,0.06441,6.6345,-0.8254,-1.9704,1.8035
3.7283,-2.807,2.9919,3.9216,1.9704,2.7317,-1.9324,2.8341,-0.06441,3.9216,1.9704,2.9412,-5.7143,-1.9777,-0.88889,-0.96618,-0.90177,0.83736,-4.6349,0.0,-2.0612
1.8325,-1.8501,0.06504,0.98039,0.98522,1.7561,0.0,0.90177,-5.8615,0.98039,0.98522,1.9608,-4.7619,-1.0207,-1.8413,0.96618,-0.90177,-0.12882,-7.4921,-1.9704,-2.0612
0.88468,3.8915,1.0407,4.902,3.9409,2.7317,2.8986,1.868,-2.963,4.902,3.9409,3.9216,-1.9048,0.89314,-0.88889,4.8309,1.0306,2.7697,-6.5397,-1.9704,0.83736
4.6761,8.6762,5.9187,9.8039,7.8818,6.6341,6.7633,6.6989,3.8003,9.8039,7.8818,8.8235,1.9048,3.764,2.9206,7.7295,4.8953,3.7359,2.9841,2.9557,4.7021
5.624,6.7624,5.9187,7.8431,5.9113,6.6341,3.8647,3.8003,-0.06441,7.8431,5.9113,8.8235,4.7619,7.5917,5.7778,8.6957,7.7939,0.83736,1.0794,4.9261,4.7021
4.6761,1.0207,2.9919,7.8431,5.9113,5.6585,0.96618,2.8341,-1.0306,7.8431,5.9113,5.8824,7.619,8.5486,7.6825,6.7633,8.7601,0.83736,-4.6349,7.8818,3.7359
3.7283,5.8054,2.9919,6.8627,6.8966,5.6585,5.7971,1.868,2.8341,6.8627,6.8966,6.8627,12.381,9.5056,10.54,7.7295,9.7262,-0.12882,2.0317,12.808,2.7697
4.6761,1.9777,2.9919,6.8627,6.8966,5.6585,5.7971,-0.06441,5.7327,6.8627,6.8966,6.8627,13.333,8.5486,10.54,4.8309,7.7939,-1.095,7.746,11.823,1.8035
5.624,-0.89314,2.9919,6.8627,6.8966,5.6585,2.8986,0.90177,3.8003,6.8627,6.8966,7.8431,12.381,8.5486,9.5873,2.8986,5.8615,-0.12882,5.8413,8.867,2.7697
3.7283,-0.89314,-0.91057,5.8824,5.9113,3.7073,-2.8986,-1.0306,0.90177,5.8824,5.9113,3.9216,11.429,9.5056,7.6825,0.96618,4.8953,-6.8921,0.12698,5.9113,2.7697
-0.06319,-3.764,-4.813,3.9216,7.8818,3.7073,2.8986,-0.06441,3.8003,3.9216,7.8818,1.9608,8.5714,8.5486,1.9683,-4.8309,1.0306,-3.9936,4.8889,0.98522,-0.12882
-3.8547,-4.7209,-6.7642,4.902,5.9113,-0.19512,4.8309,-2.963,1.868,4.902,5.9113,-0.98039,5.7143,5.6778,-3.746,-8.6957,-3.8003,-4.9597,5.8413,-4.9261,-2.0612
-2.9068,-0.89314,-3.8374,2.9412,4.9261,-1.1707,1.9324,-1.9968,2.8341,2.9412,4.9261,0.0,4.7619,6.6348,-4.6984,-5.7971,-2.8341,-3.0274,2.9841,-2.9557,0.83736
-1.9589,1.9777,0.06504,1.9608,4.9261,-0.19512,1.9324,0.90177,2.8341,1.9608,4.9261,0.98039,2.8571,7.5917,-4.6984,-0.96618,-0.90177,4.7021,4.8889,-3.9409,3.7359
-3.8547,4.8485,1.0407,0.0,2.9557,-5.0732,2.8986,-2.963,-0.06441,0.0,2.9557,0.0,-0.95238,6.6348,-5.6508,3.8647,0.06441,-1.095,-7.4921,-6.8966,5.6683
-7.6461,-0.89314,-1.8862,-4.902,0.0,-9.9512,0.96618,-6.8277,1.868,-4.902,0.0,-2.9412,-6.6667,2.807,-8.5079,1.9324,-1.868,-1.095,-5.5873,-8.867,3.7359
-6.6983,-0.89314,-1.8862,-5.8824,1.9704,-8.9756,4.8309,-7.7939,3.8003,-5.8824,1.9704,-1.9608,-7.619,0.89314,-7.5556,1.9324,-1.868,0.83736,5.8413,-7.8818,4.7021
-4.8025,4.8485,0.06504,-2.9412,3.9409,-6.0488,3.8647,-4.8953,2.8341,-2.9412,3.9409,0.0,-8.5714,-1.9777,-6.6032,4.8309,-0.90177,1.8035,8.6984,-5.9113,5.6683
-3.8547,3.8915,1.0407,2.9412,4.9261,-3.122,4.8309,-0.06441,6.6989,2.9412,4.9261,2.9412,-9.5238,-3.8915,-5.6508,2.8986,-0.90177,3.7359,8.6984,-2.9557,2.7697
-2.9068,1.0207,1.0407,2.9412,3.9409,-2.1463,3.8647,0.90177,3.8003,2.9412,3.9409,2.9412,-10.476,-6.7624,-5.6508,-0.96618,-2.8341,3.7359,5.8413,-1.9704,-0.12882
-4.8025,-0.89314,-0.91057,-0.98039,0.0,-3.122,-0.96618,-1.9968,-1.9968,-0.98039,0.0,0.0,-9.5238,-7.7193,-5.6508,-3.8647,-4.7665,2.7697,-4.6349,-1.9704,-4.9597
-8.594,-0.89314,-4.813,-2.9412,-0.98522,-5.0732,-3.8647,-3.9291,-3.9291,-2.9412,-0.98522,-1.9608,-8.5714,-8.6762,-8.5079,-5.7971,-8.6312,-4.9597,-9.3968,-1.9704,-4.9597
-14.281,-7.5917,-13.593,-5.8824,-4.9261,-8.0,-8.6957,-4.8953,-3.9291,-5.8824,-4.9261,-7.8431,-8.5714,-10.59,-13.27,-10.628,-14.428,-8.8245,-5.5873,-3.9409,-8.8245
-15.229,-13.333,-15.545,-4.902,-5.9113,-8.9756,-6.7633,-4.8953,-4.8953,-4.902,-5.9113,-8.8235,-3.8095,-7.7193,-11.365,-13.527,-13.462,-2.0612,2.0317,0.0,-9.7907
-14.281,-14.29,-16.52,-2.9412,-3.9409,-6.0488,-6.7633,-4.8953,-5.8615,-2.9412,-3.9409,-7.8431,0.0,-1.9777,-10.413,-11.594,-11.53,-5.9259,-7.4921,0.0,-4.9597
-10.49,-13.333,-13.593,0.0,-0.98522,-2.1463,-7.7295,-4.8953,-4.8953,0.0,-0.98522,-6.8627,2.8571,1.8501,-10.413,-9.6618,-10.564,-11.723,-9.3968,0.98522,-1.095
-11.438,-10.463,-11.642,-2.9412,-2.9557,-2.1463,-11.594,-3.9291,-8.7601,-2.9412,-2.9557,-7.8431,4.7619,4.7209,-10.413,-7.7295,-9.5974,-14.622,-4.6349,-0.98522,0.83736
-9.5419,-5.6778,-6.7642,-7.8431,-7.8818,-4.0976,-10.628,-5.8615,-13.591,-7.8431,-7.8818,-5.8824,8.5714,9.5056,-7.5556,-3.8647,-5.7327,-7.8583,-6.5397,-1.9704,4.7021
-10.49,-2.807,-6.7642,-5.8824,-3.9409,-6.0488,-1.9324,-4.8953,-3.9291,-5.8824,-3.9409,-4.902,9.5238,11.419,-6.6032,-1.9324,-2.8341,-4.9597,-1.7778,-2.9557,6.6345
-13.333,-7.5917,-9.6911,-2.9412,1.9704,-9.9512,1.9324,-4.8953,5.7327,-2.9412,1.9704,-5.8824,7.619,11.419,-9.4603,-2.8986,-3.8003,-9.7907,8.6984,-4.9261,5.6683
-13.333,-7.5917,-9.6911,-6.8627,-2.9557,-12.878,-4.8309,-9.7262,1.868,-6.8627,-2.9557,-7.8431,8.5714,12.376,-8.5079,0.96618,-0.90177,-12.689,11.556,-5.9113,6.6345
-9.5419,-0.89314,-5.7886,-13.725,-7.8818,-9.9512,-2.8986,-8.7601,-2.963,-13.725,-7.8818,-5.8824,10.476,13.333,-5.6508,5.7971,2.963,-3.0274,4.8889,-4.9261,10.499
-7.6461,1.9777,-3.8374,-9.8039,-4.9261,-8.0,0.96618,-6.8277,-0.06441,-9.8039,-4.9261,-2.9412,7.619,8.5486,-4.6984,7.7295,3.9291,-0.12882,-4.6349,-3.9409,10.499
-1.0111,6.7624,1.0407,-2.9412,-0.98522,-3.122,2.8986,-2.963,-0.06441,-2.9412,-0.98522,1.9608,5.7143,7.5917,0.06349,10.628,4.8953,1.8035,2.0317,0.98522,11.465
1.8325,0.0638,0.06504,-3.9216,-4.9261,-2.1463,-2.8986,-1.9968,-3.9291,-3.9216,-4.9261,-0.98039,1.9048,3.764,1.0159,5.7971,3.9291,5.6683,1.0794,2.9557,6.6345
3.7283,-2.807,0.06504,-7.8431,-8.867,-3.122,-6.7633,-3.9291,-3.9291,-7.8431,-8.867,-4.902,2.8571,2.807,4.8254,4.8309,5.8615,5.6683,-0.8254,4.9261,3.7359
6.5719,1.0207,2.0163,-10.784,-7.8818,-3.122,-5.7971,-2.963,-4.8953,-10.784,-7.8818,-4.902,4.7619,4.7209,10.54,6.7633,9.7262,9.533,6.7937,8.867,6.6345
5.624,-1.8501,1.0407,-8.8235,-9.8522,-5.0732,-8.6957,-1.9968,-5.8615,-8.8235,-9.8522,-6.8627,4.7619,4.7209,10.54,6.7633,8.7601,12.432,7.746,7.8818,7.6006
6.5719,-0.89314,2.9919,-5.8824,-8.867,-4.0976,-6.7633,-1.0306,-5.8615,-5.8824,-8.867,-4.902,5.7143,5.6778,11.492,6.7633,8.7601,10.499,0.12698,7.8818,9.533
9.4155,1.0207,5.9187,-6.8627,-12.808,-2.1463,-7.7295,-2.963,-10.692,-6.8627,-12.808,-3.9216,5.7143,4.7209,13.397,4.8309,8.7601,-0.12882,-14.159,9.8522,7.6006
15.103,3.8915,9.8211,-3.9216,-9.8522,2.7317,-3.8647,-0.06441,-8.7601,-3.9216,-9.8522,0.98039,5.7143,4.7209,15.302,4.8309,9.7262,0.83736,-4.6349,11.823,7.6006
16.051001,2.9346,13.724,0.0,-2.9557,5.6585,-2.8986,-0.06441,-0.06441,0.0,-2.9557,2.9412,5.7143,4.7209,16.254,3.8647,9.7262,7.6006,6.7937,10.837,5.6683
12.259,1.0207,11.772,-2.9412,-3.9409,2.7317,-3.8647,-3.9291,-6.8277,-2.9412,-3.9409,0.98039,1.9048,1.8501,12.444,0.96618,5.8615,8.5668,1.0794,6.8966,2.7697
10.363,0.0638,9.8211,-6.8627,-5.9113,2.7317,-4.8309,-2.963,-6.8277,-6.8627,-5.9113,0.98039,2.8571,2.807,10.54,-0.96618,2.963,4.7021,5.8413,8.867,0.83736
8.4676,1.9777,7.8699,-2.9412,-2.9557,2.7317,0.0,-2.963,-1.0306,-2.9412,-2.9557,3.9216,2.8571,2.807,6.7302,-0.96618,1.0306,2.7697,13.46,3.9409,-1.095
5.624,8.6762,8.8455,-0.98039,0.0,1.7561,3.8647,-1.0306,1.868,-0.98039,0.0,4.902,2.8571,4.7209,4.8254,5.7971,2.963,2.7697,7.746,1.9704,0.83736
4.6761,11.547,7.8699,1.9608,2.9557,0.78049,4.8309,-1.9968,1.868,1.9608,2.9557,4.902,4.7619,6.6348,4.8254,11.594,5.8615,-0.12882,1.0794,3.9409,3.7359
2.7804,9.6332,5.9187,1.9608,1.9704,1.7561,6.7633,-1.9968,5.7327,1.9608,1.9704,5.8824,5.7143,7.5917,4.8254,13.527,7.7939,-0.12882,-0.8254,5.9113,6.6345
-0.06319,2.9346,2.9919,1.9608,2.9557,1.7561,6.7633,-0.06441,2.8341,1.9608,2.9557,4.902,2.8571,3.764,2.9206,9.6618,5.8615,-6.8921,-8.4444,3.9409,0.83736
-1.9589,-1.8501,0.06504,5.8824,2.9557,1.7561,2.8986,-0.06441,-1.9968,5.8824,2.9557,1.9608,-0.95238,-1.9777,0.06349,5.7971,3.9291,-3.9936,-6.5397,1.9704,-1.095
-2.9068,-2.807,-1.8862,6.8627,1.9704,0.78049,1.9324,1.868,-2.963,6.8627,1.9704,0.98039,-1.9048,-4.8485,-1.8413,0.96618,1.0306,1.8035,-1.7778,0.0,-3.9936
-1.0111,-0.89314,-2.8618,4.902,0.98522,4.6829,-1.9324,5.7327,-1.0306,4.902,0.98522,3.9216,0.0,-3.8915,-0.88889,0.96618,1.0306,3.7359,0.12698,1.9704,-3.9936
-0.06319,-1.8501,-2.8618,5.8824,0.0,9.561,-3.8647,10.564,0.90177,5.8824,0.0,5.8824,1.9048,-1.0207,0.06349,0.0,1.9968,5.6683,-2.7302,1.9704,-3.0274
1.8325,-3.764,0.06504,7.8431,0.0,8.5854,-2.8986,7.6651,-2.963,7.8431,0.0,3.9216,1.9048,1.8501,1.0159,0.96618,2.963,5.6683,-6.5397,1.9704,-0.12882
2.7804,-3.764,1.0407,7.8431,-1.9704,6.6341,-5.7971,6.6989,-4.8953,7.8431,-1.9704,0.98039,0.95238,1.8501,1.0159,0.0,2.963,1.8035,-6.5397,0.0,0.83736
3.7283,-4.7209,2.0163,1.9608,-3.9409,4.6829,-4.8309,5.7327,-4.8953,1.9608,-3.9409,0.0,-0.95238,-1.0207,0.06349,-1.9324,1.0306,-0.12882,-4.6349,-1.9704,-3.0274
5.624,-2.807,3.9675,1.9608,-3.9409,4.6829,-0.96618,4.7665,-2.963,1.9608,-3.9409,1.9608,-2.8571,-3.8915,1.0159,-2.8986,-0.90177,-1.095,-12.254,0.98522,-3.0274
7.5197,-1.8501,5.9187,1.9608,0.98522,4.6829,0.96618,2.8341,0.90177,1.9608,0.98522,2.9412,-3.8095,-5.8054,1.9683,-4.8309,-2.8341,2.7697,2.0317,2.9557,-2.0612
7.5197,5.8054,9.8211,-0.98039,0.98522,4.6829,4.8309,0.90177,4.7665,-0.98039,0.98522,3.9216,-1.9048,-3.8915,3.873,-1.9324,-0.90177,8.5668,17.27,3.9409,-1.095
8.4676,8.6762,10.797,-1.9608,1.9704,5.6585,8.6957,1.868,7.6651,-1.9608,1.9704,4.902,0.95238,-1.0207,4.8254,0.96618,0.06441,10.499,12.508,4.9261,-1.095
9.4155,9.6332,11.772,0.98039,3.9409,5.6585,9.6618,0.90177,5.7327,0.98039,3.9409,5.8824,1.9048,0.89314,5.7778,1.9324,1.0306,7.6006,3.9365,5.9113,-2.0612
11.311,12.504,12.748,2.9412,4.9261,6.6341,6.7633,2.8341,4.7665,2.9412,4.9261,8.8235,4.7619,3.764,7.6825,4.8309,4.8953,7.6006,1.0794,4.9261,-1.095
10.363,8.6762,11.772,0.0,3.9409,4.6829,4.8309,-0.06441,4.7665,0.0,3.9409,7.8431,7.619,8.5486,8.6349,7.7295,8.7601,-0.12882,-1.7778,4.9261,0.83736
7.5197,9.6332,11.772,0.98039,7.8818,5.6585,11.594,-1.9968,11.53,0.98039,7.8818,10.784,10.476,11.419,9.5873,8.6957,10.692,-3.0274,-4.6349,6.8966,4.7021
1.8325,5.8054,6.8943,0.0,5.9113,1.7561,6.7633,-2.963,5.7327,0.0,5.9113,5.8824,6.6667,6.6348,4.8254,2.8986,4.8953,-6.8921,2.0317,1.9704,0.83736
-1.9589,1.0207,1.0407,-2.9412,1.9704,-2.1463,1.9324,-5.8615,-0.06441,-2.9412,1.9704,1.9608,0.95238,2.807,-0.88889,-1.9324,0.06441,-6.8921,-2.7302,-2.9557,-2.0612
-1.9589,1.9777,1.0407,-1.9608,2.9557,-3.122,2.8986,-4.8953,2.8341,-1.9608,2.9557,1.9608,-4.7619,-1.0207,-5.6508,-1.9324,-3.8003,0.83736,-2.7302,-7.8818,-2.0612
-1.0111,-0.89314,1.0407,-0.98039,2.9557,-2.1463,0.0,-3.9291,-0.06441,-0.98039,2.9557,1.9608,-9.5238,-7.7193,-8.5079,-5.7971,-7.6651,-0.12882,-1.7778,-10.837,-5.9259
-5.7504,-1.8501,-1.8862,0.0,1.9704,-3.122,0.0,-2.963,-1.9968,0.0,1.9704,-0.98039,-13.333,-13.461,-11.365,-9.6618,-12.496,-10.757,-1.7778,-11.823,-9.7907
-7.6461,0.0638,-5.7886,-0.98039,-3.9409,-6.0488,-1.9324,-1.0306,-5.8615,-0.98039,-3.9409,-4.902,-14.286,-15.375,-11.365,-8.6957,-14.428,-14.622,-4.6349,-10.837,-8.8245
-5.7504,-4.7209,-6.7642,-0.98039,-4.9261,-6.0488,-5.7971,-0.06441,-6.8277,-0.98039,-4.9261,-5.8824,-11.429,-12.504,-6.6032,-7.7295,-11.53,-7.8583,-4.6349,-5.9113,-6.8921
-1.9589,-8.5486,-5.7886,0.98039,-1.9704,-2.1463,-9.6618,-0.06441,-1.0306,0.98039,-1.9704,-5.8824,-7.619,-8.6762,-0.88889,-4.8309,-5.7327,-8.8245,-1.7778,-3.9409,-4.9597
-1.9589,-7.5917,-4.813,-1.9608,-1.9704,-3.122,-7.7295,-3.9291,0.90177,-1.9608,-1.9704,-6.8627,-4.7619,-6.7624,1.9683,-2.8986,-1.868,-5.9259,-9.3968,-1.9704,-2.0612
-0.06319,-3.764,-2.8618,-1.9608,-2.9557,-3.122,-3.8647,-1.9968,-1.0306,-1.9608,-2.9557,-5.8824,0.0,-1.0207,6.7302,0.96618,3.9291,2.7697,2.0317,2.9557,1.8035
2.7804,-1.8501,0.06504,-0.98039,-3.9409,0.78049,-1.9324,0.90177,-1.9968,-0.98039,-3.9409,-2.9412,4.7619,3.764,9.5873,3.8647,8.7601,7.6006,10.603,5.9113,4.7021
0.88468,-2.807,-1.8862,-2.9412,-3.9409,-1.1707,-2.8986,-0.06441,-4.8953,-2.9412,-3.9409,-4.902,5.7143,4.7209,9.5873,1.9324,6.8277,4.7021,-1.7778,6.8966,4.7021
-2.9068,-6.6348,-7.7398,-4.902,-3.9409,-5.0732,-4.8309,-0.06441,-6.8277,-4.902,-3.9409,-7.8431,5.7143,0.89314,5.7778,-6.7633,1.0306,-0.12882,-5.5873,5.9113,2.7697
-7.6461,-14.29,-14.569,-3.9216,-4.9261,-6.0488,-9.6618,-0.06441,-5.8615,-3.9216,-4.9261,-10.784,2.8571,-6.7624,-1.8413,-15.459,-6.6989,-2.0612,-10.349,0.98522,-5.9259
-9.5419,-12.376,-13.593,-3.9216,-3.9409,-6.0488,-10.628,-1.9968,-7.7939,-3.9216,-3.9409,-10.784,0.0,-12.504,-6.6032,-18.357,-11.53,-3.9936,-18.921,-0.98522,-13.655
-9.5419,-9.5056,-10.667,-1.9608,0.0,-3.122,-8.6957,-1.9968,-4.8953,-1.9608,0.0,-6.8627,-1.9048,-13.461,-8.5079,-14.493,-11.53,-3.0274,-7.4921,-1.9704,-14.622
-11.438,-8.5486,-8.7154,0.0,1.9704,-3.122,-6.7633,-1.0306,1.868,0.0,1.9704,-3.9216,-4.7619,-13.461,-13.27,-11.594,-11.53,-2.0612,1.0794,-6.8966,-11.723
-12.385,-5.6778,-8.7154,-1.9608,0.98522,-6.0488,-1.9324,-1.9968,0.90177,-1.9608,0.98522,-5.8824,-7.619,-10.59,-17.079,-6.7633,-11.53,-6.8921,0.12698,-10.837,-6.8921
-13.333,-5.6778,-10.667,-5.8824,-1.9704,-11.902,-5.7971,-3.9291,-1.0306,-5.8824,-1.9704,-9.8039,-6.6667,-4.8485,-17.079,-1.9324,-9.5974,-13.655,2.9841,-11.823,-2.0612
-12.385,-7.5917,-10.667,-6.8627,-5.9113,-12.878,-11.594,-4.8953,-5.8615,-6.8627,-5.9113,-11.765,-6.6667,-2.9346,-15.175,0.0,-7.6651,-14.622,-0.8254,-10.837,0.83736
-9.5419,-2.807,-7.7398,-4.902,-7.8818,-8.0,-6.7633,-1.9968,-5.8615,-4.902,-7.8818,-8.8235,-8.5714,-2.9346,-15.175,1.9324,-6.6989,-3.9936,1.0794,-13.793,1.8035
-5.7504,1.0207,-5.7886,0.0,-5.9113,-5.0732,-2.8986,-0.06441,-2.963,0.0,-5.9113,-6.8627,-6.6667,0.89314,-10.413,5.7971,-1.868,1.8035,2.9841,-11.823,3.7359
-3.8547,-1.8501,-5.7886,-0.98039,-5.9113,-6.0488,-6.7633,-0.06441,-2.963,-0.98039,-5.9113,-8.8235,-5.7143,2.807,-5.6508,8.6957,1.0306,-2.0612,3.9365,-6.8966,5.6683
-1.0111,-3.764,-3.8374,-1.9608,-5.9113,-5.0732,-7.7295,-1.0306,-3.9291,-1.9608,-5.9113,-7.8431,-2.8571,4.7209,-0.88889,9.6618,2.963,-2.0612,9.6508,-1.9704,9.533
1.8325,-3.764,-0.91057,-4.902,-2.9557,-2.1463,-5.7971,-1.9968,-1.9968,-4.902,-2.9557,-4.902,0.0,5.6778,3.873,7.7295,3.9291,-2.0612,0.12698,0.98522,9.533
2.7804,-1.8501,0.06504,-1.9608,-0.98522,1.7561,-2.8986,0.90177,0.90177,-1.9608,-0.98522,0.0,0.0,1.8501,4.8254,3.8647,2.963,1.8035,-4.6349,1.9704,5.6683
6.5719,2.9346,2.9919,3.9216,0.98522,5.6585,-2.8986,3.8003,6.6989,3.9216,0.98522,3.9216,2.8571,-0.0638,8.6349,3.8647,4.8953,3.7359,4.8889,6.8966,1.8035
8.4676,2.9346,6.8943,1.9608,-0.98522,5.6585,-0.96618,0.90177,0.90177,1.9608,-0.98522,3.9216,4.7619,-1.0207,10.54,3.8647,7.7939,-3.9936,4.8889,6.8966,1.8035
6.5719,7.7193,7.8699,1.9608,0.98522,3.7073,6.7633,1.868,1.868,1.9608,0.98522,3.9216,6.6667,-1.9777,10.54,4.8309,8.7601,1.8035,-6.5397,5.9113,1.8035
3.7283,3.8915,5.9187,0.0,0.0,3.7073,6.7633,1.868,0.90177,0.0,0.0,2.9412,9.5238,1.8501,9.5873,3.8647,9.7262,6.6345,-3.6825,5.9113,1.8035
2.7804,1.9777,4.9431,0.98039,0.0,3.7073,4.8309,3.8003,2.8341,0.98039,0.0,2.9412,12.381,6.6348,8.6349,5.7971,9.7262,2.7697,6.7937,5.9113,4.7021
1.8325,2.9346,4.9431,1.9608,0.0,2.7317,3.8647,2.8341,2.8341,1.9608,0.0,-0.98039,12.381,9.5056,7.6825,7.7295,9.7262,-1.095,3.9365,6.8966,4.7021
-1.9589,-2.807,1.0407,-0.98039,-4.9261,-3.122,-1.9324,-0.06441,0.90177,-0.98039,-4.9261,-5.8824,7.619,4.7209,2.9206,0.96618,2.963,-3.0274,3.9365,3.9409,-2.0612
-2.9068,-6.6348,-1.8862,-3.9216,-4.9261,-5.0732,-2.8986,0.90177,-3.9291,-3.9216,-4.9261,-5.8824,1.9048,-1.0207,-1.8413,-9.6618,-3.8003,0.83736,7.746,1.9704,-8.8245
-4.8025,-5.6778,-2.8618,-2.9412,-1.9704,-4.0976,-1.9324,-1.9968,-2.963,-2.9412,-1.9704,-2.9412,-1.9048,-4.8485,-7.5556,-12.56,-7.6651,-0.12882,-4.6349,-4.9261,-11.723
-4.8025,-1.8501,-2.8618,0.0,0.0,-3.122,-2.8986,-1.0306,1.868,0.0,0.0,-0.98039,-0.95238,-1.9777,-7.5556,-8.6957,-6.6989,-2.0612,-3.6825,-5.9113,-6.8921
-3.8547,1.9777,-1.8862,0.0,1.9704,-2.1463,0.0,-0.06441,0.90177,0.0,1.9704,0.0,0.95238,2.807,-5.6508,-4.8309,-3.8003,-1.095,0.12698,-0.98522,-2.0612
-2.9068,1.9777,-0.91057,-0.98039,1.9704,-1.1707,4.8309,0.90177,-1.0306,-0.98039,1.9704,-0.98039,2.8571,6.6348,-5.6508,-0.96618,-1.868,5.6683,-4.6349,-2.9557,-1.095
-1.0111,-0.89314,1.0407,0.0,0.98522,-2.1463,3.8647,0.90177,-1.0306,0.0,0.98522,-0.98039,2.8571,8.5486,-4.6984,0.96618,1.0306,7.6006,1.0794,-1.9704,2.7697
-0.06319,0.0638,2.0163,2.9412,1.9704,-2.1463,-0.96618,1.868,1.868,2.9412,1.9704,-0.98039,2.8571,9.5056,-2.7937,3.8647,2.963,3.7359,2.9841,-1.9704,6.6345
2.7804,4.8485,4.9431,3.9216,3.9409,0.78049,5.7971,2.8341,5.7327,3.9216,3.9409,1.9608,0.95238,7.5917,-1.8413,6.7633,4.8953,2.7697,1.0794,-2.9557,8.5668
5.624,10.59,7.8699,2.9412,4.9261,4.6829,9.6618,2.8341,6.6989,2.9412,4.9261,5.8824,-1.9048,6.6348,1.0159,10.628,6.8277,1.8035,0.12698,-2.9557,10.499
6.5719,6.7624,7.8699,4.902,5.9113,3.7073,8.6957,-0.06441,3.8003,4.902,5.9113,5.8824,-3.8095,4.7209,3.873,12.56,8.7601,-2.0612,-0.8254,-3.9409,10.499
4.6761,2.9346,5.9187,5.8824,8.867,2.7317,4.8309,-1.0306,5.7327,5.8824,8.867,3.9216,-3.8095,3.764,5.7778,14.493,9.7262,-4.9597,17.27,-2.9557,11.465
4.6761,11.547,7.8699,7.8431,9.8522,5.6585,3.8647,1.868,7.6651,7.8431,9.8522,5.8824,0.0,6.6348,10.54,18.357,13.591,-6.8921,13.46,1.9704,13.398
7.5197,12.504,10.797,8.8235,8.867,8.5854,5.7971,3.8003,6.6989,8.8235,8.867,9.8039,4.7619,7.5917,14.349,18.357,15.523,-1.095,7.746,3.9409,10.499
12.259,11.547,13.724,7.8431,10.837,11.512,12.56,5.7327,6.6989,7.8431,10.837,13.725,7.619,6.6348,18.159,15.459,16.49,8.5668,6.7937,7.8818,4.7021
12.259,7.7193,10.797,3.9216,7.8818,11.512,10.628,4.7665,6.6989,3.9216,7.8818,11.765,4.7619,0.89314,17.205999,8.6957,11.659,4.7021,-1.7778,8.867,-1.095
8.4676,2.9346,3.9675,3.9216,5.9113,5.6585,3.8647,1.868,6.6989,3.9216,5.9113,5.8824,2.8571,-3.8915,12.444,1.9324,4.8953,4.7021,-3.6825,8.867,-4.9597
1.8325,-0.89314,-1.8862,-1.9608,0.0,-4.0976,0.96618,-3.9291,4.7665,-1.9608,0.0,-1.9608,1.9048,-5.8054,7.6825,-4.8309,0.06441,1.8035,6.7937,6.8966,-6.8921
-2.9068,-1.8501,-4.813,-5.8824,-0.98522,-8.0,2.8986,-6.8277,1.868,-5.8824,-0.98522,-3.9216,0.0,-8.6762,3.873,-10.628,-5.7327,-1.095,2.9841,6.8966,-9.7907
-2.9068,-7.5917,-8.7154,-4.902,-1.9704,-4.0976,0.96618,-1.9968,-1.9968,-4.902,-1.9704,-4.902,-1.9048,-13.461,-1.8413,-19.323999,-12.496,-1.095,-3.6825,6.8966,-14.622
-2.9068,-13.333,-11.642,0.0,-0.98522,0.78049,-3.8647,3.8003,-6.8277,0.0,-0.98522,-3.9216,-4.7619,-17.289,-5.6508,-25.121,-16.361,2.7697,-1.7778,5.9113,-19.452
-3.8547,-14.29,-11.642,0.98039,-1.9704,1.7561,-7.7295,3.8003,-5.8615,0.98039,-1.9704,-3.9216,-4.7619,-14.418,-6.6032,-22.222,-15.395,4.7021,-4.6349,4.9261,-18.486
-5.7504,-13.333,-8.7154,-1.9608,-5.9113,-2.1463,-12.56,0.90177,-3.9291,-1.9608,-5.9113,-6.8627,-4.7619,-8.6762,-8.5079,-16.424999,-12.496,4.7021,-7.4921,0.0,-12.689
-6.6983,-10.463,-7.7398,-2.9412,-6.8966,-5.0732,-11.594,-2.963,-8.7601,-2.9412,-6.8966,-7.8431,-3.8095,-1.0207,-9.4603,-10.628,-9.5974,-1.095,-5.5873,-3.9409,-3.9936
-6.6983,-6.6348,-4.813,-6.8627,-7.8818,-6.0488,-5.7971,-4.8953,-9.7262,-6.8627,-7.8818,-7.8431,-1.9048,3.764,-8.5079,-3.8647,-6.6989,-5.9259,-9.3968,-4.9261,1.8035
-6.6983,-1.8501,-2.8618,-8.8235,-6.8966,-7.0244,-3.8647,-7.7939,-6.8277,-8.8235,-6.8966,-5.8824,0.0,8.5486,-8.5079,3.8647,-1.868,-3.9936,-8.4444,-7.8818,8.5668
-4.8025,3.8915,1.0407,-7.8431,-4.9261,-6.0488,-1.9324,-8.7601,-1.9968,-7.8431,-4.9261,-2.9412,2.8571,14.29,-5.6508,10.628,2.963,-6.8921,-7.4921,-7.8818,15.33
-1.0111,6.7624,4.9431,-5.8824,-3.9409,-5.0732,0.0,-5.8615,-3.9291,-5.8824,-3.9409,0.0,3.8095,16.204,-0.88889,15.459,7.7939,-9.7907,2.0317,-6.8966,17.261999
-0.06319,5.8054,4.9431,-4.902,-4.9261,-4.0976,0.96618,-4.8953,-1.0306,-4.902,-4.9261,-0.98039,4.7619,15.247,1.9683,16.424999,10.692,-8.8245,13.46,-4.9261,16.296
-1.0111,1.0207,2.9919,-5.8824,-4.9261,-6.0488,-0.96618,-7.7939,-2.963,-5.8824,-4.9261,-3.9216,2.8571,12.376,1.9683,13.527,9.7262,-3.0274,13.46,-5.9113,13.398
0.88468,1.0207,3.9675,-6.8627,-4.9261,-6.0488,-2.8986,-4.8953,-1.9968,-6.8627,-4.9261,-3.9216,2.8571,9.5056,4.8254,11.594,9.7262,1.8035,5.8413,-0.98522,9.533
6.5719,7.7193,9.8211,-1.9608,0.98522,0.78049,0.0,3.8003,1.868,-1.9608,0.98522,2.9412,6.6667,9.5056,10.54,14.493,12.625,5.6683,-4.6349,5.9113,10.499
7.5197,12.504,10.797,0.98039,4.9261,4.6829,4.8309,4.7665,7.6651,0.98039,4.9261,6.8627,5.7143,4.7209,11.492,13.527,11.659,9.533,-3.6825,7.8818,7.6006
6.5719,10.59,9.8211,2.9412,3.9409,3.7073,7.7295,1.868,3.8003,2.9412,3.9409,6.8627,6.6667,-0.0638,12.444,9.6618,9.7262,9.533,2.9841,10.837,3.7359
7.5197,8.6762,10.797,3.9216,5.9113,5.6585,9.6618,3.8003,3.8003,3.9216,5.9113,8.8235,6.6667,-1.9777,12.444,3.8647,8.7601,5.6683,22.032,11.823,-1.095
6.5719,6.7624,7.8699,6.8627,7.8818,6.6341,10.628,2.8341,5.7327,6.8627,7.8818,8.8235,5.7143,-2.9346,10.54,-0.96618,5.8615,1.8035,22.983999,9.8522,-3.0274
4.6761,2.9346,2.9919,5.8824,7.8818,5.6585,8.6957,0.90177,7.6651,5.8824,7.8818,6.8627,7.619,-2.9346,6.7302,-2.8986,1.9968,-3.9936,-1.7778,5.9113,-3.0274
0.88468,-6.6348,-3.8374,5.8824,3.9409,5.6585,1.9324,0.90177,6.6989,5.8824,3.9409,2.9412,4.7619,-4.8485,1.9683,-7.7295,-1.868,-5.9259,-10.349,1.9704,-6.8921
-1.9589,-7.5917,-6.7642,6.8627,0.0,3.7073,-2.8986,3.8003,-0.06441,6.8627,0.0,0.98039,3.8095,-2.9346,0.06349,-6.7633,-3.8003,-3.0274,-8.4444,2.9557,-4.9597
-1.0111,-5.6778,-4.813,4.902,0.98522,4.6829,-2.8986,5.7327,-1.9968,4.902,0.98522,1.9608,4.7619,0.89314,-0.88889,-4.8309,-2.8341,2.7697,-4.6349,0.98522,-3.0274
1.8325,-0.89314,0.06504,5.8824,4.9261,6.6341,5.7971,3.8003,2.8341,5.8824,4.9261,5.8824,3.8095,4.7209,-0.88889,-3.8647,-2.8341,2.7697,-2.7302,0.0,-3.9936
0.88468,2.9346,0.06504,5.8824,5.9113,4.6829,9.6618,3.8003,7.6651,5.8824,5.9113,5.8824,1.9048,5.6778,-2.7937,-2.8986,-2.8341,-1.095,1.0794,-0.98522,-3.0274
2.7804,4.8485,2.0163,3.9216,7.8818,4.6829,7.7295,3.8003,7.6651,3.9216,7.8818,5.8824,0.95238,6.6348,-2.7937,-1.9324,-1.868,0.83736,3.9365,-0.98522,-1.095
1.8325,4.8485,1.0407,2.9412,4.9261,3.7073,5.7971,2.8341,7.6651,2.9412,4.9261,3.9216,0.95238,5.6778,-2.7937,0.0,-2.8341,1.8035,2.0317,-1.9704,0.83736
-1.0111,2.9346,-1.8862,0.98039,1.9704,-0.19512,4.8309,0.90177,4.7665,0.98039,1.9704,0.98039,-0.95238,1.8501,-2.7937,1.9324,-2.8341,-0.12882,5.8413,-0.98522,1.8035
1.8325,-1.8501,0.06504,0.98039,0.98522,1.7561,2.8986,2.8341,2.8341,0.98039,0.98522,0.0,-1.9048,-1.9777,-0.88889,2.8986,-1.868,3.7359,7.746,0.98522,3.7359
4.6761,1.0207,2.9919,1.9608,0.98522,3.7073,5.7971,3.8003,4.7665,1.9608,0.98522,1.9608,-2.8571,-1.9777,1.0159,3.8647,0.06441,5.6683,1.0794,1.9704,4.7021
3.7283,4.8485,3.9675,2.9412,1.9704,4.6829,6.7633,6.6989,6.6989,2.9412,1.9704,1.9608,-4.7619,-3.8915,1.0159,2.8986,0.06441,6.6345,-3.6825,1.9704,3.7359
3.7283,5.8054,4.9431,5.8824,3.9409,5.6585,6.7633,6.6989,7.6651,5.8824,3.9409,3.9216,-3.8095,-4.8485,1.9683,1.9324,1.0306,10.499,2.0317,3.9409,2.7697
8.4676,9.6332,10.797,4.902,2.9557,6.6341,5.7971,3.8003,1.868,4.902,2.9557,5.8824,-0.95238,-2.9346,6.7302,5.7971,5.8615,13.398,15.365,5.9113,2.7697
8.4676,6.7624,12.748,2.9412,0.98522,5.6585,3.8647,0.90177,-0.06441,2.9412,0.98522,6.8627,1.9048,-3.8915,9.5873,7.7295,8.7601,7.6006,9.6508,7.8818,3.7359
7.5197,3.8915,9.8211,-0.98039,0.0,3.7073,1.9324,-1.0306,-1.9968,-0.98039,0.0,5.8824,2.8571,-4.8485,9.5873,4.8309,8.7601,0.83736,-14.159,6.8966,-2.0612
7.5197,4.8485,7.8699,-0.98039,0.98522,2.7317,0.96618,1.868,-2.963,-0.98039,0.98522,3.9216,3.8095,-3.8915,8.6349,4.8309,7.7939,-0.12882,-18.921,3.9409,-3.0274
7.5197,3.8915,5.9187,-2.9412,-0.98522,1.7561,0.0,1.868,-2.963,-2.9412,-0.98522,1.9608,5.7143,-0.0638,7.6825,4.8309,7.7939,2.7697,-1.7778,3.9409,-2.0612
5.624,-2.807,1.0407,-8.8235,-9.8522,-1.1707,-5.7971,-1.0306,-4.8953,-8.8235,-9.8522,-3.9216,5.7143,1.8501,7.6825,0.96618,5.8615,-2.0612,2.9841,3.9409,-4.9597
2.7804,-5.6778,-1.8862,-2.9412,-3.9409,-1.1707,-1.9324,1.868,-1.9968,-2.9412,-3.9409,-3.9216,5.7143,1.8501,4.8254,-1.9324,2.963,1.8035,2.0317,3.9409,-4.9597
1.8325,-3.764,-0.91057,0.98039,3.9409,-1.1707,1.9324,4.7665,3.8003,0.98039,3.9409,-0.98039,4.7619,2.807,3.873,-0.96618,2.963,8.5668,-0.8254,2.9557,-4.9597
3.7283,-4.7209,0.06504,0.98039,3.9409,-0.19512,0.0,0.90177,-1.0306,0.98039,3.9409,-0.98039,4.7619,3.764,3.873,-0.96618,1.9968,5.6683,-3.6825,4.9261,-3.9936
2.7804,-2.807,0.06504,2.9412,2.9557,1.7561,-2.8986,2.8341,-1.0306,2.9412,2.9557,-0.98039,1.9048,3.764,1.9683,0.96618,0.06441,4.7021,-9.3968,3.9409,-1.095
1.8325,3.8915,0.06504,3.9216,0.98522,3.7073,-1.9324,3.8003,-3.9291,3.9216,0.98522,0.98039,0.0,3.764,-0.88889,2.8986,-0.90177,1.8035,-15.111,1.9704,4.7021
-1.9589,1.0207,-3.8374,6.8627,0.98522,3.7073,-2.8986,4.7665,-7.7939,6.8627,0.98522,0.0,-2.8571,1.8501,-3.746,-1.9324,-3.8003,0.83736,-8.4444,0.98522,1.8035
-3.8547,-6.6348,-5.7886,3.9216,0.0,3.7073,-3.8647,2.8341,-4.8953,3.9216,0.0,-0.98039,-4.7619,-1.0207,-5.6508,-5.7971,-5.7327,2.7697,5.8413,-1.9704,-1.095
-3.8547,-7.5917,-4.813,3.9216,3.9409,3.7073,-1.9324,0.90177,1.868,3.9216,3.9409,0.98039,-4.7619,0.89314,-5.6508,-4.8309,-5.7327,-3.9936,7.746,-3.9409,1.8035
0.88468,-0.89314,2.0163,4.902,4.9261,6.6341,4.8309,0.90177,5.7327,4.902,4.9261,6.8627,-4.7619,2.807,-4.6984,-0.96618,-2.8341,-6.8921,-2.7302,-2.9557,3.7359
6.5719,5.8054,7.8699,7.8431,7.8818,10.537,4.8309,3.8003,7.6651,7.8431,7.8818,12.745,-3.8095,1.8501,-1.8413,2.8986,0.06441,1.8035,-2.7302,-1.9704,4.7021
10.363,12.504,13.724,10.784,10.837,12.488,8.6957,3.8003,6.6989,10.784,10.837,15.686,-1.9048,3.764,1.9683,11.594,4.8953,3.7359,8.6984,-1.9704,10.499
11.311,14.418,13.724,7.8431,7.8818,9.561,8.6957,0.90177,0.90177,7.8431,7.8818,11.765,0.0,2.807,6.7302,11.594,6.8277,-3.9936,11.556,0.98522,8.5668
10.363,6.7624,9.8211,3.9216,5.9113,6.6341,5.7971,2.8341,0.90177,3.9216,5.9113,7.8431,1.9048,1.8501,8.6349,5.7971,5.8615,-1.095,10.603,4.9261,4.7021
5.624,0.0638,6.8943,0.98039,6.8966,4.6829,5.7971,2.8341,6.6989,0.98039,6.8966,7.8431,0.0,-1.0207,5.7778,0.96618,1.9968,-0.12882,4.8889,2.9557,0.83736
2.7804,3.8915,3.9675,6.8627,8.867,3.7073,8.6957,1.868,7.6651,6.8627,8.867,7.8431,-1.9048,-3.8915,2.9206,0.96618,0.06441,-1.095,-4.6349,1.9704,-0.12882
1.8325,1.9777,0.06504,9.8039,5.9113,1.7561,5.7971,1.868,6.6989,9.8039,5.9113,5.8824,-3.8095,-4.8485,0.06349,0.0,-2.8341,-0.12882,8.6984,0.98522,-0.12882
2.7804,1.9777,0.06504,7.8431,3.9409,4.6829,1.9324,6.6989,3.8003,7.8431,3.9409,6.8627,-2.8571,-2.9346,-0.88889,0.96618,-2.8341,2.7697,5.8413,-1.9704,0.83736
1.8325,4.8485,1.0407,7.8431,4.9261,6.6341,4.8309,7.6651,2.8341,7.8431,4.9261,7.8431,-0.95238,-0.0638,-1.8413,0.96618,-2.8341,5.6683,-3.6825,-2.9557,1.8035
-2.9068,3.8915,-0.91057,5.8824,1.9704,2.7317,1.9324,3.8003,-0.06441,5.8824,1.9704,3.9216,0.0,2.807,-4.6984,-0.96618,-4.7665,2.7697,-1.7778,-3.9409,1.8035
-8.594,-0.89314,-6.7642,1.9608,-1.9704,-2.1463,-4.8309,1.868,-6.8277,1.9608,-1.9704,-2.9412,-0.95238,0.89314,-9.4603,-3.8647,-6.6989,-0.12882,-5.5873,-4.9261,-0.12882
-10.49,-7.5917,-8.7154,0.0,-1.9704,-2.1463,-2.8986,1.868,-2.963,0.0,-1.9704,-3.9216,-1.9048,-0.0638,-10.413,-6.7633,-7.6651,-3.9936,-2.7302,-4.9261,-0.12882
-10.49,-9.5056,-7.7398,-1.9608,0.0,-3.122,-0.96618,-1.9968,-0.06441,-1.9608,0.0,-1.9608,-3.8095,-1.9777,-10.413,-10.628,-8.6312,-2.0612,-12.254,-4.9261,-3.0274
-8.594,-4.7209,-5.7886,1.9608,1.9704,-3.122,0.96618,-0.06441,-1.0306,1.9608,1.9704,-0.98039,-3.8095,-1.9777,-8.5079,-8.6957,-6.6989,2.7697,-8.4444,-2.9557,-2.0612
-7.6461,-5.6778,-4.813,0.98039,-0.98522,-3.122,-0.96618,-1.9968,-1.0306,0.98039,-0.98522,-1.9608,-3.8095,-1.9777,-6.6032,-7.7295,-5.7327,2.7697,-1.7778,-3.9409,-0.12882
-2.9068,-4.7209,-1.8862,-2.9412,-0.98522,-2.1463,-3.8647,-0.06441,-1.0306,-2.9412,-0.98522,-1.9608,-4.7619,-3.8915,-4.6984,-4.8309,-3.8003,4.7021,-4.6349,-3.9409,-1.095
-0.06319,-2.807,-0.91057,-0.98039,0.98522,-0.19512,-0.96618,-0.06441,-0.06441,-0.98039,0.98522,-1.9608,-6.6667,-4.8485,-3.746,-3.8647,-1.868,-2.0612,14.413,-2.9557,-2.0612
-1.9589,-3.764,-4.813,-1.9608,0.0,-1.1707,-2.8986,-3.9291,-0.06441,-1.9608,0.0,-3.9216,-8.5714,-7.7193,-6.6032,-5.7971,-4.7665,-4.9597,14.413,-6.8966,-3.9936
-2.9068,0.0638,-5.7886,-3.9216,-0.98522,-2.1463,-4.8309,-4.8953,0.90177,-3.9216,-0.98522,-5.8824,-6.6667,-6.7624,-6.6032,-2.8986,-2.8341,-2.0612,1.0794,-8.867,-3.0274
-2.9068,0.0638,-4.813,-3.9216,-0.98522,-2.1463,-2.8986,-2.963,0.90177,-3.9216,-0.98522,-4.902,-3.8095,-2.9346,-2.7937,0.96618,0.06441,-3.0274,-2.7302,-6.8966,-0.12882
-2.9068,-3.764,-6.7642,-3.9216,0.0,-2.1463,-0.96618,-1.0306,2.8341,-3.9216,0.0,-2.9412,-2.8571,-1.9777,-1.8413,0.0,0.06441,-4.9597,-11.302,-4.9261,-0.12882
-4.8025,-1.8501,-7.7398,-1.9608,-1.9704,-4.0976,-0.96618,-0.06441,2.8341,-1.9608,-1.9704,-0.98039,-1.9048,-0.0638,-3.746,2.8986,-0.90177,-2.0612,-10.349,-4.9261,3.7359
-6.6983,-2.807,-7.7398,-3.9216,-1.9704,-6.0488,-4.8309,-1.0306,3.8003,-3.9216,-1.9704,-3.9216,-2.8571,-0.0638,-4.6984,0.0,-2.8341,0.83736,4.8889,-3.9409,2.7697
-7.6461,-2.807,-7.7398,-5.8824,0.98522,-7.0244,-0.96618,-2.963,2.8341,-5.8824,0.98522,-3.9216,-2.8571,-1.0207,-6.6032,-4.8309,-6.6989,-3.9936,6.7937,-4.9261,1.8035
-8.594,4.8485,-7.7398,-2.9412,0.0,-5.0732,1.9324,-1.9968,-0.06441,-2.9412,0.0,-1.9608,-2.8571,0.89314,-9.4603,-2.8986,-7.6651,-3.9936,5.8413,-6.8966,2.7697
-7.6461,2.9346,-5.7886,-0.98039,0.0,-2.1463,2.8986,-1.9968,0.90177,-0.98039,0.0,-0.98039,-0.95238,3.764,-9.4603,0.0,-5.7327,-5.9259,10.603,-3.9409,4.7021
-2.9068,1.9777,-1.8862,2.9412,0.98522,-0.19512,2.8986,1.868,2.8341,2.9412,0.98522,0.98039,2.8571,6.6348,-5.6508,2.8986,-1.868,0.83736,-5.5873,0.0,5.6683
-3.8547,0.0638,-2.8618,1.9608,-1.9704,-1.1707,-1.9324,0.90177,-2.963,1.9608,-1.9704,0.0,5.7143,8.5486,-4.6984,0.96618,-0.90177,3.7359,-9.3968,2.9557,4.7021
-7.6461,-6.6348,-6.7642,-1.9608,-3.9409,-3.122,-5.7971,0.90177,-2.963,-1.9608,-3.9409,-2.9412,7.619,8.5486,-3.746,0.0,0.06441,-1.095,-8.4444,3.9409,3.7359
-8.594,-9.5056,-7.7398,-4.902,-2.9557,-5.0732,-3.8647,1.868,-3.9291,-4.902,-2.9557,-4.902,8.5714,8.5486,-1.8413,0.0,1.9968,-4.9597,4.8889,4.9261,1.8035
-9.5419,-8.5486,-7.7398,-1.9608,0.98522,-6.0488,-3.8647,-1.9968,-1.9968,-1.9608,0.98522,-6.8627,6.6667,4.7209,-1.8413,-1.9324,0.06441,-3.0274,1.0794,3.9409,-3.0274
-5.7504,-5.6778,-5.7886,0.0,3.9409,-6.0488,-0.96618,-3.9291,0.90177,0.0,3.9409,-3.9216,3.8095,-0.0638,-0.88889,-2.8986,-0.90177,-2.0612,-14.159,1.9704,-6.8921
0.88468,-0.89314,-0.91057,1.9608,4.9261,-2.1463,3.8647,-0.06441,1.868,1.9608,4.9261,0.0,4.7619,-1.0207,2.9206,-0.96618,1.9968,-3.9936,1.0794,3.9409,-7.8583
7.5197,2.9346,3.9675,4.902,5.9113,2.7317,6.7633,0.90177,4.7665,4.902,5.9113,3.9216,6.6667,-0.0638,6.7302,1.9324,3.9291,0.83736,2.0317,6.8966,-3.0274
9.4155,3.8915,5.9187,5.8824,2.9557,5.6585,2.8986,2.8341,1.868,5.8824,2.9557,4.902,6.6667,-0.0638,7.6825,2.8986,4.8953,2.7697,-3.6825,5.9113,-2.0612
8.4676,2.9346,3.9675,2.9412,0.0,7.6098,0.0,2.8341,2.8341,2.9412,0.0,4.902,6.6667,2.807,7.6825,4.8309,5.8615,-0.12882,-16.063,3.9409,0.83736
6.5719,5.8054,2.9919,2.9412,0.98522,7.6098,4.8309,4.7665,0.90177,2.9412,0.98522,3.9216,6.6667,5.6778,7.6825,6.7633,5.8615,1.8035,-0.8254,2.9557,4.7021
8.4676,1.9777,2.9919,5.8824,2.9557,6.6341,2.8986,5.7327,5.7327,5.8824,2.9557,3.9216,3.8095,4.7209,7.6825,2.8986,4.8953,0.83736,17.27,3.9409,2.7697
8.4676,-1.8501,3.9675,3.9216,2.9557,4.6829,-1.9324,2.8341,5.7327,3.9216,2.9557,1.9608,0.0,2.807,5.7778,0.96618,2.963,3.7359,10.603,2.9557,2.7697
4.6761,-3.764,1.0407,0.0,0.0,-0.19512,-2.8986,0.90177,-0.06441,0.0,0.0,-1.9608,-1.9048,1.8501,3.873,-1.9324,1.0306,0.83736,1.0794,0.0,1.8035
-1.0111,-6.6348,-2.8618,-6.8627,-2.9557,-6.0488,-0.96618,0.90177,-1.9968,-6.8627,-2.9557,-5.8824,-5.7143,-2.9346,0.06349,-5.7971,-3.8003,-2.0612,-0.8254,-5.9113,-3.0274
-4.8025,-0.89314,-3.8374,-8.8235,-3.9409,-8.9756,1.9324,-2.963,1.868,-8.8235,-3.9409,-5.8824,-7.619,-2.9346,-1.8413,-2.8986,-4.7665,-4.9597,7.746,-7.8818,0.83736
-5.7504,1.0207,-3.8374,-3.9216,-1.9704,-8.9756,2.8986,-3.9291,2.8341,-3.9216,-1.9704,-4.902,-5.7143,-0.0638,-1.8413,1.9324,-1.868,-3.0274,4.8889,-3.9409,2.7697
-5.7504,5.8054,-1.8862,-2.9412,-1.9704,-7.0244,3.8647,-2.963,1.868,-2.9412,-1.9704,-2.9412,-4.7619,0.89314,-0.88889,3.8647,0.06441,-1.095,-1.7778,-3.9409,0.83736
-2.9068,4.8485,1.0407,-2.9412,-3.9409,-3.122,2.8986,-0.06441,0.90177,-2.9412,-3.9409,-0.98039,-4.7619,-1.9777,1.9683,3.8647,1.9968,1.8035,-3.6825,-1.9704,-2.0612
-3.8547,-1.8501,0.06504,0.98039,-4.9261,-3.122,-2.8986,-0.06441,-4.8953,0.98039,-4.9261,-1.9608,-4.7619,-3.8915,1.9683,0.96618,1.0306,-2.0612,3.9365,0.0,-3.9936
-3.8547,-3.764,-0.91057,0.98039,-1.9704,-2.1463,-4.8309,-0.06441,-3.9291,0.98039,-1.9704,-2.9412,-5.7143,-4.8485,1.9683,0.96618,1.0306,3.7359,6.7937,0.98522,-2.0612
-1.9589,-0.89314,0.06504,-0.98039,-3.9409,-2.1463,-5.7971,2.8341,-1.9968,-0.98039,-3.9409,-2.9412,-3.8095,-2.9346,2.9206,3.8647,1.9968,8.5668,-2.7302,2.9557,3.7359
-2.9068,1.9777,-0.91057,-0.98039,-8.867,-3.122,-2.8986,0.90177,-2.963,-0.98039,-8.867,-3.9216,-2.8571,-1.9777,2.9206,4.8309,1.9968,-3.0274,-6.5397,2.9557,2.7697
0.88468,1.9777,1.0407,5.8824,0.0,1.7561,1.9324,3.8003,1.868,5.8824,0.0,1.9608,-1.9048,-1.9777,2.9206,0.96618,1.0306,-5.9259,-4.6349,4.9261,-0.12882
1.8325,2.9346,2.0163,18.627001,14.778,8.5854,8.6957,8.6312,4.7665,18.627001,14.778,6.8627,-0.95238,-3.8915,1.9683,-4.8309,-1.868,4.7021,1.0794,3.9409,-3.9936
5.624,5.8054,3.9675,32.353001,28.570999,14.439,14.493,13.462,8.6312,32.353001,28.570999,12.745,2.8571,-4.8485,3.873,-6.7633,-2.8341,11.465,4.8889,7.8818,-5.9259
6.5719,3.8915,3.9675,44.118,40.394001,18.341,16.424999,16.361,11.53,44.118,40.394001,14.706,2.8571,-6.7624,3.873,-7.7295,-2.8341,4.7021,7.746,8.867,-9.7907
6.5719,2.9346,5.9187,55.882,55.172001,20.292999,20.290001,16.361,17.327,55.882,55.172001,16.667,3.8095,-7.7193,3.873,-6.7633,-0.90177,2.7697,9.6508,7.8818,-10.757
5.624,3.8915,5.9187,71.569,69.950996,21.268,23.188,20.225,22.158001,71.569,69.950996,17.646999,4.7619,-5.8054,2.9206,-1.9324,1.9968,5.6683,-1.7778,4.9261,-9.7907
5.624,7.7193,7.8699,83.333,79.803001,22.243999,25.121,22.158001,23.124001,83.333,79.803001,19.608,4.7619,-1.9777,1.0159,5.7971,6.8277,1.8035,-3.6825,0.98522,-4.9597
10.363,14.418,15.675,94.117996,88.669998,26.146,26.087,25.056,27.955,94.117996,88.669998,23.528999,6.6667,6.6348,4.8254,16.424999,14.557,7.6006,2.0317,0.98522,4.7021
17.945999,23.030001,23.48,97.058998,95.567001,30.049,29.952,26.989,34.717999,97.058998,95.567001,30.392,8.5714,12.376,10.54,24.155001,20.354,14.364,11.556,4.9261,13.398
20.790001,28.771999,23.48,97.058998,96.552002,32.0,38.646999,30.853001,38.583,97.058998,96.552002,33.333,6.6667,12.376,9.5873,22.222,18.422001,15.33,16.316999,3.9409,15.33
19.841999,23.030001,17.625999,95.098,89.654999,31.024,42.512001,32.785999,32.785999,95.098,89.654999,32.353001,4.7619,10.463,7.6825,17.391001,13.591,19.195,16.316999,4.9261,14.364
16.997999,16.332001,13.724,81.373001,75.862,25.171,34.783001,26.023001,23.124001,81.373001,75.862,28.431,2.8571,8.5486,7.6825,12.56,10.692,18.229,19.174999,4.9261,11.465
15.103,13.461,10.797,75.489998,67.980003,24.195,33.816002,26.023001,23.124001,75.489998,67.980003,26.471001,-0.95238,3.764,6.7302,8.6957,7.7939,18.229,6.7937,4.9261,8.5668
15.103,13.461,8.8455,66.667,60.098999,24.195,30.917999,26.023001,23.124001,66.667,60.098999,27.451,-2.8571,0.89314,7.6825,5.7971,4.8953,17.261999,-3.6825,6.8966,5.6683
16.051001,11.547,8.8455,51.960999,49.261002,23.219999,25.121,23.124001,17.327,51.960999,49.261002,28.431,-0.95238,0.89314,8.6349,3.8647,4.8953,12.432,0.12698,9.8522,4.7021
16.051001,7.7193,8.8455,40.195999,37.438,22.243999,23.188,19.259001,12.496,40.195999,37.438,25.49,-0.95238,-1.9777,10.54,-0.96618,3.9291,12.432,-12.254,10.837,-3.0274
17.945999,6.7624,9.8211,29.412001,25.615999,20.292999,16.424999,12.496,5.7327,29.412001,25.615999,20.587999,3.8095,-1.9777,14.349,-3.8647,5.8615,21.127001,-17.016001,15.764,-9.7907
16.051001,2.9346,7.8699,14.706,11.823,14.439,5.7971,5.7327,0.90177,14.706,11.823,13.725,7.619,-1.9777,15.302,-4.8309,7.7939,19.195,-18.921,16.749001,-12.689
14.155,1.0207,6.8943,0.0,-0.98522,10.537,0.0,3.8003,0.90177,0.0,-0.98522,6.8627,11.429,-1.0207,16.254,-2.8986,10.692,6.6345,-10.349,17.733999,-11.723
8.4676,-4.7209,3.9675,-13.725,-14.778,1.7561,-7.7295,-4.8953,-11.659,-13.725,-14.778,-0.98039,10.476,-2.9346,11.492,-4.8309,8.7601,1.8035,-4.6349,15.764,-13.655
0.88468,-9.5056,0.06504,-23.528999,-18.719,-7.0244,-9.6618,-9.7262,-10.692,-23.528999,-18.719,-7.8431,6.6667,-3.8915,5.7778,-3.8647,4.8953,-4.9597,-13.206,7.8818,-11.723
-8.594,-9.5056,-3.8374,-29.412001,-18.719,-13.854,-9.6618,-13.591,-3.9291,-29.412001,-18.719,-12.745,0.95238,-6.7624,-1.8413,-4.8309,-0.90177,-9.7907,-8.4444,-0.98522,-10.757
-13.333,-6.6348,-7.7398,-34.313999,-26.601,-17.756001,-13.527,-18.422001,-2.963,-34.313999,-26.601,-15.686,-0.95238,-4.8485,-4.6984,-2.8986,-2.8341,-15.588,9.6508,-3.9409,-3.9936
-13.333,-4.7209,-7.7398,-38.235001,-30.542,-18.732,-16.424999,-19.388,-4.8953,-38.235001,-30.542,-16.667,0.95238,-1.0207,-4.6984,0.96618,-2.8341,-10.757,13.46,-3.9409,2.7697
-16.177,-5.6778,-9.6911,-44.118,-34.483002,-21.659,-20.290001,-22.287001,-6.8277,-44.118,-34.483002,-21.569,0.0,-0.0638,-6.6032,-0.96618,-5.7327,-9.7907,10.603,-4.9261,4.7021
-17.125,-4.7209,-12.618,-45.098,-36.452999,-24.584999,-16.424999,-23.253,-5.8615,-45.098,-36.452999,-22.549,-2.8571,-1.0207,-9.4603,-0.96618,-8.6312,-11.723,3.9365,-7.8818,7.6006
-17.125,-5.6778,-11.642,-43.137001,-38.424,-24.584999,-17.391001,-17.455999,-7.7939,-43.137001,-38.424,-21.569,-5.7143,-1.0207,-10.413,-0.96618,-10.564,-9.7907,9.6508,-10.837,9.533
-16.177,-0.89314,-9.6911,-43.137001,-34.483002,-21.659,-10.628,-10.692,-8.7601,-43.137001,-34.483002,-16.667,-7.619,-2.9346,-13.27,-1.9324,-12.496,-3.9936,15.365,-12.808,8.5668
-16.177,-1.8501,-9.6911,-45.098,-36.452999,-17.756001,-10.628,-9.7262,-8.7601,-45.098,-36.452999,-13.725,-11.429,-6.7624,-17.079,-6.7633,-16.361,-2.0612,14.413,-16.749001,3.7359
-11.438,-1.8501,-5.7886,-42.157001,-40.394001,-13.854,-11.594,-8.7601,-13.591,-42.157001,-40.394001,-8.8235,-11.429,-7.7193,-17.079,-6.7633,-14.428,-4.9597,1.0794,-14.778,1.8035
-7.6461,-3.764,-3.8374,-43.137001,-42.365002,-11.902,-15.459,-7.7939,-15.523,-43.137001,-42.365002,-7.8431,-11.429,-10.59,-15.175,-8.6957,-13.462,-2.0612,-5.5873,-12.808,-3.0274
-2.9068,-6.6348,-0.91057,-46.077999,-42.365002,-8.9756,-18.357,-9.7262,-20.354,-46.077999,-42.365002,-6.8627,-12.381,-9.6332,-12.317,-9.6618,-10.564,1.8035,-5.5873,-10.837,-7.8583
0.88468,-4.7209,3.9675,-45.098,-44.334999,-8.0,-19.323999,-10.692,-24.219,-45.098,-44.334999,-3.9216,-10.476,-8.6762,-8.5079,-6.7633,-8.6312,5.6683,-21.778,-7.8818,-9.7907
-0.06319,-8.5486,3.9675,-42.157001,-44.334999,-8.0,-19.323999,-9.7262,-25.184999,-42.157001,-44.334999,-4.902,-8.5714,-6.7624,-6.6032,-8.6957,-7.6651,6.6345,-21.778,-4.9261,-11.723
3.7283,-6.6348,5.9187,-45.098,-42.365002,-7.0244,-14.493,-10.692,-24.219,-45.098,-42.365002,-2.9412,-3.8095,-3.8915,-1.8413,-8.6957,-4.7665,4.7021,-10.349,0.98522,-9.7907
3.7283,-8.5486,5.9187,-49.02,-41.379002,-9.9512,-18.357,-14.557,-19.388,-49.02,-41.379002,-5.8824,-0.95238,-1.0207,1.0159,-6.7633,-2.8341,-2.0612,-7.4921,1.9704,-5.9259
1.8325,-9.5056,5.9187,-46.077999,-42.365002,-12.878,-18.357,-17.455999,-15.523,-46.077999,-42.365002,-9.8039,0.95238,2.807,1.0159,-2.8986,-0.90177,-3.0274,-4.6349,1.9704,-2.0612
-0.06319,-8.5486,2.9919,-44.118,-44.334999,-13.854,-20.290001,-16.49,-18.422001,-44.118,-44.334999,-14.706,0.95238,3.764,-0.88889,0.0,-0.90177,-3.9936,-2.7302,-0.98522,-0.12882
-3.8547,-10.463,-0.91057,-47.058998,-43.349998,-17.756001,-22.222,-21.32,-18.422001,-47.058998,-43.349998,-18.627001,0.95238,3.764,-1.8413,0.0,-1.868,-10.757,-1.7778,-0.98522,1.8035
-4.8025,-5.6778,-0.91057,-46.077999,-41.379002,-18.732,-19.323999,-24.219,-14.557,-46.077999,-41.379002,-18.627001,2.8571,4.7209,0.06349,3.8647,0.06441,-16.554001,11.556,0.0,5.6683
-3.8547,-3.764,-0.91057,-45.098,-40.394001,-18.732,-16.424999,-22.287001,-12.625,-45.098,-40.394001,-17.646999,4.7619,5.6778,1.9683,5.7971,1.9968,-15.588,4.8889,2.9557,9.533
-2.9068,-0.89314,2.0163,-41.175999,-38.424,-16.780001,-15.459,-20.354,-9.7262,-41.175999,-38.424,-15.686,9.5238,9.5056,6.7302,10.628,5.8615,-13.655,-5.5873,7.8818,13.398
-3.8547,1.9777,1.0407,-40.195999,-37.438,-18.732,-12.56,-23.253,-9.7262,-40.195999,-37.438,-13.725,6.6667,5.6778,5.7778,8.6957,4.8953,-12.689,5.8413,5.9113,11.465
-3.8547,-0.89314,-1.8862,-39.216,-33.498001,-14.829,-10.628,-21.32,-7.7939,-39.216,-33.498001,-12.745,2.8571,0.89314,4.8254,2.8986,1.9968,-10.757,17.27,1.9704,4.7021
-2.9068,1.0207,-1.8862,-35.293999,-28.570999,-10.927,-6.7633,-17.455999,-5.8615,-35.293999,-28.570999,-7.8431,4.7619,1.8501,5.7778,2.8986,2.963,-6.8921,14.413,2.9557,3.7359
-4.8025,1.0207,-2.8618,-30.392,-25.615999,-10.927,-6.7633,-14.557,-3.9291,-30.392,-25.615999,-7.8431,6.6667,2.807,5.7778,0.96618,2.963,-6.8921,-3.6825,5.9113,2.7697
-6.6983,-6.6348,-6.7642,-29.412001,-25.615999,-11.902,-10.628,-12.625,-8.7601,-29.412001,-25.615999,-8.8235,4.7619,0.89314,1.9683,-8.6957,-2.8341,-4.9597,-1.7778,2.9557,-4.9597
-8.594,-11.419,-9.6911,-27.451,-26.601,-10.927,-10.628,-9.7262,-9.7262,-27.451,-26.601,-9.8039,1.9048,-2.9346,-1.8413,-16.424999,-7.6651,-3.0274,-1.7778,0.0,-12.689
-5.7504,-8.5486,-6.7642,-20.587999,-24.631001,-6.0488,-7.7295,-4.8953,-10.692,-20.587999,-24.631001,-4.902,2.8571,-1.0207,-0.88889,-13.527,-5.7327,-0.12882,-8.4444,2.9557,-12.689
3.7283,-2.807,1.0407,-14.706,-19.704,4.6829,-4.8309,1.868,-7.7939,-14.706,-19.704,3.9216,7.619,4.7209,5.7778,-8.6957,1.0306,5.6683,-15.111,6.8966,-12.689
8.4676,-3.764,2.9919,-8.8235,-15.764,9.561,-0.96618,9.5974,-7.7939,-8.8235,-15.764,6.8627,11.429,8.5486,8.6349,-6.7633,4.8953,9.533,-13.206,6.8966,-10.757
8.4676,-5.6778,1.0407,-5.8824,-15.764,9.561,-1.9324,11.53,-11.659,-5.8824,-15.764,3.9216,10.476,10.463,6.7302,-6.7633,4.8953,7.6006,-11.302,4.9261,-9.7907
7.5197,-8.5486,-1.8862,-6.8627,-17.733999,7.6098,-6.7633,9.5974,-12.625,-6.8627,-17.733999,0.98039,8.5714,10.463,4.8254,-5.7971,1.9968,2.7697,-19.872999,3.9409,-6.8921
-3.8547,-19.075001,-11.642,-14.706,-23.645,-4.0976,-16.424999,1.868,-19.388,-14.706,-23.645,-9.8039,3.8095,8.5486,-2.7937,-9.6618,-3.8003,-3.9936,-17.968,-1.9704,-3.9936
-14.281,-24.816999,-21.398001,-20.587999,-28.570999,-13.854,-24.155001,-4.8953,-22.287001,-20.587999,-28.570999,-20.587999,-0.95238,6.6348,-10.413,-12.56,-10.564,-8.8245,-15.111,-7.8818,-2.0612
-17.125,-24.816999,-24.325001,-23.528999,-29.556999,-17.756001,-28.018999,-8.7601,-21.32,-23.528999,-29.556999,-25.49,-4.7619,4.7209,-14.222,-11.594,-14.428,-14.622,-18.921,-10.837,4.7021
-14.281,-20.032,-18.472,-24.51,-28.570999,-15.805,-27.052999,-10.692,-18.422001,-24.51,-28.570999,-23.528999,-4.7619,6.6348,-13.27,-3.8647,-11.53,-16.554001,-11.302,-11.823,10.499
-9.5419,-15.247,-12.618,-21.569,-23.645,-11.902,-20.290001,-10.692,-12.625,-21.569,-23.645,-19.608,-4.7619,6.6348,-10.413,1.9324,-7.6651,-11.723,4.8889,-9.8522,15.33
-8.594,-8.5486,-8.7154,-16.667,-19.704,-10.927,-16.424999,-9.7262,-7.7939,-16.667,-19.704,-17.646999,-4.7619,5.6778,-9.4603,6.7633,-4.7665,-9.7907,0.12698,-8.867,16.296
-5.7504,-0.89314,-3.8374,-17.646999,-17.733999,-10.927,-12.56,-10.692,-7.7939,-17.646999,-17.733999,-13.725,-0.95238,7.5917,-4.6984,13.527,1.9968,-10.757,0.12698,-5.9113,19.195
-2.9068,7.7193,1.0407,-21.569,-16.749001,-9.9512,-4.8309,-12.625,-5.8615,-21.569,-16.749001,-8.8235,1.9048,7.5917,0.06349,16.424999,6.8277,-11.723,18.222,-2.9557,19.195
-0.06319,10.59,4.9431,-18.627001,-12.808,-8.0,0.96618,-12.625,0.90177,-18.627001,-12.808,-3.9216,2.8571,7.5917,1.9683,17.391001,8.7601,-8.8245,26.794001,-1.9704,17.261999
3.7283,9.6332,8.8455,-12.745,-8.867,-3.122,2.8986,-8.7601,6.6989,-12.745,-8.867,1.9608,3.8095,6.6348,3.873,15.459,8.7601,-6.8921,15.365,0.0,13.398
6.5719,14.418,11.772,-8.8235,-5.9113,0.78049,2.8986,-6.8277,2.8341,-8.8235,-5.9113,4.902,4.7619,6.6348,5.7778,14.493,9.7262,-5.9259,-2.7302,0.0,9.533
6.5719,10.59,9.8211,-9.8039,-7.8818,-0.19512,-2.8986,-4.8953,-2.963,-9.8039,-7.8818,2.9412,7.619,7.5917,5.7778,10.628,8.7601,-4.9597,-1.7778,0.98522,4.7021
7.5197,6.7624,6.8943,-10.784,-9.8522,-0.19512,-0.96618,-3.9291,-1.0306,-10.784,-9.8522,0.98039,6.6667,3.764,7.6825,5.7971,6.8277,-4.9597,7.746,4.9261,-0.12882
9.4155,5.8054,8.8455,-5.8824,-6.8966,2.7317,4.8309,-1.9968,3.8003,-5.8824,-6.8966,3.9216,4.7619,-0.0638,9.5873,2.8986,6.8277,3.7359,9.6508,4.9261,-3.9936
6.5719,1.9777,5.9187,-2.9412,-5.9113,2.7317,1.9324,-0.06441,-1.0306,-2.9412,-5.9113,2.9412,0.95238,-4.8485,6.7302,-0.96618,3.9291,11.465,-0.8254,1.9704,-9.7907
5.624,1.9777,3.9675,-0.98039,-3.9409,3.7073,0.96618,2.8341,-2.963,-0.98039,-3.9409,2.9412,-0.95238,-9.6332,3.873,-4.8309,0.06441,6.6345,-1.7778,0.98522,-12.689
2.7804,-0.89314,2.0163,1.9608,-1.9704,4.6829,2.8986,5.7327,1.868,1.9608,-1.9704,2.9412,-3.8095,-10.59,1.0159,-4.8309,-2.8341,1.8035,6.7937,-0.98522,-10.757
-2.9068,-6.6348,-0.91057,0.0,-0.98522,0.78049,0.96618,3.8003,-1.9968,0.0,-0.98522,-1.9608,-7.619,-12.504,-2.7937,-5.7971,-5.7327,0.83736,9.6508,-4.9261,-10.757
-1.9589,-6.6348,-3.8374,0.0,-2.9557,0.78049,-5.7971,3.8003,-1.9968,0.0,-2.9557,-4.902,-10.476,-14.418,-3.746,-3.8647,-6.6989,-0.12882,9.6508,-7.8818,-7.8583
-5.7504,-7.5917,-9.6911,-0.98039,-2.9557,-2.1463,-10.628,3.8003,-0.06441,-0.98039,-2.9557,-9.8039,-14.286,-16.332001,-7.5556,-6.7633,-8.6312,-0.12882,-3.6825,-9.8522,-6.8921
-9.5419,-12.376,-13.593,-2.9412,-3.9409,-6.0488,-11.594,0.90177,1.868,-2.9412,-3.9409,-13.725,-16.190001,-17.289,-10.413,-9.6618,-12.496,-2.0612,-3.6825,-10.837,-5.9259
-8.594,-9.5056,-11.642,-1.9608,-3.9409,-6.0488,-5.7971,1.868,2.8341,-1.9608,-3.9409,-12.745,-15.238,-16.332001,-9.4603,-6.7633,-11.53,-1.095,0.12698,-8.867,-3.9936
-9.5419,-7.5917,-11.642,-3.9216,-6.8966,-6.0488,-5.7971,1.868,-1.9968,-3.9216,-6.8966,-12.745,-13.333,-14.418,-8.5079,-4.8309,-9.5974,-4.9597,-11.302,-7.8818,-4.9597
-4.8025,-4.7209,-8.7154,-0.98039,-2.9557,-2.1463,-2.8986,3.8003,-0.06441,-0.98039,-2.9557,-6.8627,-10.476,-10.59,-5.6508,-1.9324,-6.6989,-7.8583,-1.7778,-6.8966,-2.0612
2.7804,-2.807,-0.91057,3.9216,0.98522,3.7073,-2.8986,6.6989,0.90177,3.9216,0.98522,0.98039,-7.619,-7.7193,-2.7937,0.96618,-2.8341,1.8035,2.0317,-4.9261,0.83736
6.5719,4.8485,6.8943,7.8431,4.9261,9.561,2.8986,8.6312,1.868,7.8431,4.9261,7.8431,-1.9048,-1.0207,1.9683,7.7295,3.9291,6.6345,4.8889,-1.9704,3.7359
7.5197,7.7193,6.8943,4.902,5.9113,7.6098,7.7295,5.7327,4.7665,4.902,5.9113,6.8627,0.0,0.89314,3.873,8.6957,5.8615,2.7697,14.413,-0.98522,1.8035
4.6761,8.6762,3.9675,4.902,5.9113,4.6829,5.7971,3.8003,9.5974,4.902,5.9113,3.9216,-0.95238,-0.0638,3.873,9.6618,6.8277,1.8035,7.746,-1.9704,-1.095
4.6761,10.59,3.9675,6.8627,5.9113,4.6829,1.9324,4.7665,7.6651,6.8627,5.9113,2.9412,-0.95238,1.8501,3.873,12.56,8.7601,4.7021,-2.7302,-1.9704,-1.095
6.5719,9.6332,4.9431,5.8824,4.9261,4.6829,0.96618,5.7327,4.7665,5.8824,4.9261,3.9216,0.95238,2.807,6.7302,13.527,10.692,9.533,0.12698,1.9704,-0.12882
4.6761,5.8054,2.9919,1.9608,1.9704,1.7561,4.8309,2.8341,4.7665,1.9608,1.9704,1.9608,1.9048,4.7209,5.7778,11.594,10.692,10.499,1.0794,2.9557,2.7697
2.7804,6.7624,2.0163,8.8235,8.867,3.7073,9.6618,5.7327,6.6989,8.8235,8.867,3.9216,4.7619,7.5917,6.7302,10.628,9.7262,9.533,-0.8254,4.9261,3.7359
-0.06319,0.0638,-2.8618,9.8039,10.837,1.7561,7.7295,5.7327,4.7665,9.8039,10.837,0.98039,5.7143,5.6778,3.873,-0.96618,4.8953,2.7697,0.12698,6.8966,-1.095
-5.7504,-14.29,-11.642,6.8627,4.9261,-2.1463,0.0,2.8341,0.90177,6.8627,4.9261,-5.8824,1.9048,-0.0638,-3.746,-18.357,-7.6651,1.8035,2.9841,1.9704,-11.723
-7.6461,-18.118,-12.618,4.902,1.9704,-2.1463,-2.8986,5.7327,-4.8953,4.902,1.9704,-4.902,-2.8571,-6.7624,-10.413,-28.986,-16.361,10.499,-1.7778,-2.9557,-18.486
-9.5419,-19.075001,-13.593,2.9412,-1.9704,-1.1707,-5.7971,6.6989,-4.8953,2.9412,-1.9704,-5.8824,-6.6667,-12.504,-15.175,-34.783001,-24.09,11.465,-13.206,-3.9409,-18.486
-14.281,-20.032,-19.447001,0.0,-1.9704,-4.0976,-4.8309,6.6989,-3.9291,0.0,-1.9704,-7.8431,-12.381,-17.289,-19.937,-37.681,-30.853001,8.5668,-10.349,-6.8966,-19.452
-19.021,-17.160999,-24.325001,-1.9608,-3.9409,-8.0,-10.628,4.7665,-4.8953,-1.9608,-3.9409,-10.784,-15.238,-17.289,-22.794001,-34.783001,-32.785999,5.6683,-14.159,-10.837,-19.452
-18.073,-13.333,-21.398001,-0.98039,-4.9261,-7.0244,-9.6618,3.8003,-6.8277,-0.98039,-4.9261,-10.784,-12.381,-13.461,-19.937,-26.087,-26.989,-0.12882,-25.587,-8.867,-14.622
-14.281,-14.29,-16.52,-0.98039,-0.98522,-6.0488,-7.7295,1.868,-4.8953,-0.98039,-0.98522,-8.8235,-12.381,-11.547,-17.079,-20.290001,-20.225,-4.9597,-16.063,-9.8522,-12.689
-6.6983,-8.5486,-7.7398,1.9608,0.0,-2.1463,-0.96618,2.8341,-3.9291,1.9608,0.0,-1.9608,-10.476,-7.7193,-12.317,-10.628,-11.53,1.8035,-1.7778,-7.8818,-9.7907
1.8325,1.0207,2.0163,-0.98039,-0.98522,3.7073,2.8986,4.7665,-4.8953,-0.98039,-0.98522,2.9412,-6.6667,-2.9346,-4.6984,0.0,-1.868,1.8035,5.8413,-1.9704,-3.9936
4.6761,5.8054,5.9187,2.9412,4.9261,4.6829,8.6957,2.8341,7.6651,2.9412,4.9261,3.9216,-3.8095,-0.0638,0.06349,7.7295,3.9291,3.7359,-0.8254,0.98522,1.8035
5.624,9.6332,7.8699,12.745,12.808,5.6585,11.594,4.7665,17.327,12.745,12.808,5.8824,-3.8095,0.89314,1.9683,13.527,8.7601,5.6683,1.0794,-1.9704,6.6345
8.4676,14.418,13.724,14.706,17.733999,8.5854,13.527,6.6989,15.395,14.706,17.733999,8.8235,1.9048,6.6348,5.7778,21.256001,14.557,5.6683,12.508,0.0,10.499
11.311,20.159,18.601999,11.765,17.733999,8.5854,16.424999,1.868,13.462,11.765,17.733999,12.745,6.6667,11.419,8.6349,26.087,19.388,2.7697,9.6508,2.9557,13.398
8.4676,18.246,16.65,7.8431,14.778,6.6341,14.493,-1.9968,11.53,7.8431,14.778,12.745,4.7619,9.5056,4.8254,21.256001,15.523,-3.9936,9.6508,0.0,10.499
5.624,18.246,13.724,6.8627,17.733999,5.6585,20.290001,-6.8277,14.428,6.8627,17.733999,14.706,3.8095,7.5917,0.06349,15.459,8.7601,-8.8245,4.8889,-2.9557,9.533
4.6761,18.246,14.699,9.8039,18.719,5.6585,22.222,-7.7939,22.158001,9.8039,18.719,14.706,3.8095,4.7209,-0.88889,10.628,4.8953,-13.655,8.6984,-3.9409,6.6345
0.88468,13.461,12.748,11.765,15.764,2.7317,16.424999,-5.8615,16.361,11.765,15.764,12.745,1.9048,-1.0207,-3.746,1.9324,-0.90177,-18.486,5.8413,-1.9704,1.8035
-4.8025,6.7624,6.8943,9.8039,13.793,-0.19512,11.594,-2.963,10.564,9.8039,13.793,8.8235,0.0,-5.8054,-7.5556,-5.7971,-5.7327,-6.8921,4.8889,-5.9113,-3.0274
-7.6461,2.9346,1.0407,10.784,16.749001,-1.1707,11.594,-1.0306,10.564,10.784,16.749001,5.8824,0.0,-6.7624,-8.5079,-5.7971,-5.7327,1.8035,9.6508,-7.8818,-4.9597
-7.6461,4.8485,-1.8862,11.765,13.793,-1.1707,8.6957,-1.0306,7.6651,11.765,13.793,4.902,0.0,-4.8485,-5.6508,-1.9324,-2.8341,0.83736,8.6984,-5.9113,-3.0274
-4.8025,2.9346,-0.91057,9.8039,10.837,0.78049,5.7971,0.90177,3.8003,9.8039,10.837,3.9216,0.0,-4.8485,-4.6984,-4.8309,-1.868,1.8035,8.6984,-2.9557,-4.9597
-1.9589,2.9346,0.06504,8.8235,9.8522,2.7317,4.8309,2.8341,8.6312,8.8235,9.8522,3.9216,0.95238,-2.9346,-2.7937,-5.7971,-0.90177,0.83736,13.46,0.0,-4.9597
-1.0111,2.9346,0.06504,5.8824,7.8818,1.7561,5.7971,2.8341,6.6989,5.8824,7.8818,4.902,2.8571,-0.0638,-0.88889,-3.8647,0.06441,5.6683,9.6508,2.9557,-3.0274
-2.9068,-2.807,-2.8618,2.9412,2.9557,-1.1707,2.8986,-0.06441,0.90177,2.9412,2.9557,0.98039,4.7619,0.89314,0.06349,-4.8309,0.06441,-1.095,-2.7302,4.9261,-3.0274
-1.9589,-2.807,-2.8618,2.9412,-0.98522,-0.19512,0.96618,-1.0306,-1.9968,2.9412,-0.98522,0.98039,3.8095,0.89314,0.06349,-3.8647,0.06441,-0.12882,-15.111,4.9261,-1.095
-3.8547,-1.8501,-3.8374,1.9608,0.0,2.7317,2.8986,0.90177,-1.0306,1.9608,0.0,1.9608,0.0,-0.0638,-2.7937,-3.8647,-2.8341,6.6345,-16.063,0.0,-1.095
-1.9589,-4.7209,-3.8374,4.902,3.9409,4.6829,0.96618,2.8341,3.8003,4.902,3.9409,2.9412,-0.95238,-0.0638,-2.7937,-3.8647,-2.8341,2.7697,3.9365,0.98522,0.83736
-3.8547,-7.5917,-6.7642,2.9412,2.9557,1.7561,-1.9324,-1.9968,0.90177,2.9412,2.9557,0.98039,-2.8571,0.89314,-3.746,-5.7971,-5.7327,-2.0612,12.508,0.0,-0.12882
-4.8025,-4.7209,-5.7886,0.0,2.9557,-1.1707,-2.8986,-5.8615,-1.9968,0.0,2.9557,-0.98039,-2.8571,4.7209,-4.6984,-2.8986,-6.6989,-3.0274,6.7937,-1.9704,1.8035
-1.9589,-2.807,-2.8618,0.0,3.9409,-0.19512,-0.96618,-5.8615,0.90177,0.0,3.9409,0.98039,-2.8571,6.6348,-4.6984,-1.9324,-5.7327,-6.8921,-5.5873,-3.9409,2.7697
-1.9589,-0.89314,-3.8374,1.9608,2.9557,0.78049,-1.9324,-4.8953,-0.06441,1.9608,2.9557,0.98039,-5.7143,2.807,-6.6032,-3.8647,-8.6312,-5.9259,-10.349,-4.9261,-2.0612
-3.8547,-3.764,-6.7642,2.9412,4.9261,-0.19512,-4.8309,-3.9291,0.90177,2.9412,4.9261,-1.9608,-8.5714,-1.9777,-9.4603,-5.7971,-9.5974,-3.9936,-0.8254,-6.8966,-3.9936
-2.9068,-2.807,-5.7886,2.9412,2.9557,-3.122,-1.9324,-2.963,0.90177,2.9412,2.9557,-4.902,-7.619,-2.9346,-5.6508,-1.9324,-5.7327,-6.8921,-6.5397,-4.9261,-1.095
-0.06319,0.0638,-1.8862,1.9608,3.9409,-3.122,2.8986,0.90177,1.868,1.9608,3.9409,-3.9216,-2.8571,-1.0207,0.06349,1.9324,0.06441,-2.0612,3.9365,-1.9704,-0.12882
-0.06319,-2.807,-1.8862,0.0,0.0,-5.0732,0.0,0.90177,1.868,0.0,0.0,-5.8824,0.0,0.89314,2.9206,1.9324,1.9968,2.7697,7.746,-1.9704,-0.12882
2.7804,-1.8501,-0.91057,3.9216,3.9409,-2.1463,3.8647,-0.06441,0.90177,3.9216,3.9409,-2.9412,3.8095,3.764,5.7778,2.8986,3.9291,4.7021,3.9365,3.9409,3.7359
2.7804,0.0638,1.0407,6.8627,5.9113,0.78049,1.9324,2.8341,1.868,6.8627,5.9113,-0.98039,5.7143,3.764,8.6349,4.8309,5.8615,0.83736,7.746,5.9113,4.7021
3.7283,1.9777,2.0163,4.902,3.9409,0.78049,0.96618,1.868,-1.0306,4.902,3.9409,0.0,7.619,2.807,8.6349,3.8647,5.8615,4.7021,-1.7778,7.8818,2.7697
4.6761,1.0207,3.9675,4.902,5.9113,0.78049,0.0,1.868,0.90177,4.902,5.9113,2.9412,8.5714,2.807,9.5873,1.9324,6.8277,6.6345,10.603,7.8818,1.8035
9.4155,8.6762,10.797,9.8039,11.823,6.6341,9.6618,5.7327,7.6651,9.8039,11.823,11.765,12.381,6.6348,11.492,5.7971,9.7262,6.6345,3.9365,9.8522,5.6683
9.4155,5.8054,10.797,11.765,9.8522,9.561,7.7295,6.6989,4.7665,11.765,9.8522,12.745,11.429,4.7209,9.5873,0.0,7.7939,2.7697,1.0794,11.823,2.7697
3.7283,1.9777,3.9675,8.8235,3.9409,6.6341,4.8309,4.7665,1.868,8.8235,3.9409,7.8431,9.5238,1.8501,5.7778,-4.8309,3.9291,4.7021,5.8413,10.837,-4.9597
0.88468,4.8485,2.0163,7.8431,3.9409,4.6829,4.8309,4.7665,0.90177,7.8431,3.9409,4.902,9.5238,2.807,3.873,-0.96618,3.9291,4.7021,-2.7302,7.8818,-4.9597
-2.9068,4.8485,1.0407,4.902,3.9409,2.7317,1.9324,0.90177,-2.963,4.902,3.9409,3.9216,5.7143,1.8501,-0.88889,0.96618,0.06441,0.83736,-13.206,1.9704,-3.9936
-2.9068,6.7624,3.9675,4.902,4.9261,3.7073,3.8647,0.90177,-2.963,4.902,4.9261,5.8824,1.9048,2.807,-3.746,2.8986,-1.868,-4.9597,-4.6349,-1.9704,-0.12882
-2.9068,2.9346,3.9675,5.8824,2.9557,3.7073,0.0,1.868,-4.8953,5.8824,2.9557,4.902,0.95238,4.7209,-3.746,4.8309,-0.90177,-1.095,5.8413,-4.9261,4.7021
-5.7504,-2.807,-2.8618,2.9412,0.0,0.78049,-2.8986,-1.9968,-1.9968,2.9412,0.0,1.9608,-0.95238,4.7209,-5.6508,3.8647,-1.868,-2.0612,3.9365,-4.9261,6.6345
-9.5419,-5.6778,-6.7642,1.9608,-0.98522,-3.122,-2.8986,-1.9968,-1.0306,1.9608,-0.98522,-2.9412,-3.8095,3.764,-7.5556,2.8986,-3.8003,-5.9259,3.9365,-7.8818,7.6006
-10.49,-7.5917,-7.7398,0.98039,0.98522,-5.0732,-2.8986,-2.963,-1.9968,0.98039,0.98522,-5.8824,-5.7143,2.807,-7.5556,1.9324,-3.8003,-6.8921,5.8413,-8.867,8.5668
-7.6461,-4.7209,-5.7886,-1.9608,0.98522,-4.0976,-6.7633,-2.963,-4.8953,-1.9608,0.98522,-6.8627,-4.7619,4.7209,-4.6984,4.8309,-0.90177,-4.9597,1.0794,-7.8818,12.432
-0.06319,-0.89314,-0.91057,3.9216,0.98522,0.78049,-5.7971,1.868,-7.7939,3.9216,0.98522,-2.9412,-1.9048,7.5917,0.06349,9.6618,3.9291,-2.0612,8.6984,-2.9557,15.33
4.6761,1.9777,2.9919,8.8235,0.98522,5.6585,-1.9324,6.6989,-4.8953,8.8235,0.98522,0.98039,-0.95238,8.5486,3.873,12.56,7.7939,4.7021,6.7937,-2.9557,17.261999
10.363,3.8915,6.8943,7.8431,5.9113,7.6098,2.8986,8.6312,-1.0306,7.8431,5.9113,3.9216,0.95238,8.5486,8.6349,11.594,9.7262,9.533,-7.4921,0.98522,15.33
13.207,1.0207,8.8455,5.8824,6.8966,8.5854,1.9324,7.6651,-1.0306,5.8824,6.8966,4.902,2.8571,6.6348,11.492,6.7633,9.7262,7.6006,-13.206,5.9113,9.533
9.4155,-0.89314,5.9187,2.9412,4.9261,4.6829,0.0,2.8341,-1.9968,2.9412,4.9261,2.9412,1.9048,4.7209,9.5873,1.9324,5.8615,8.5668,-2.7302,6.8966,5.6683
5.624,1.9777,2.9919,1.9608,1.9704,0.78049,0.0,2.8341,-0.06441,1.9608,1.9704,1.9608,1.9048,2.807,7.6825,0.0,3.9291,11.465,6.7937,8.867,3.7359
1.8325,-3.764,-0.91057,-0.98039,-0.98522,-2.1463,-0.96618,0.90177,0.90177,-0.98039,-0.98522,-0.98039,2.8571,0.89314,6.7302,-2.8986,1.9968,10.499,2.9841,10.837,0.83736
-1.9589,-5.6778,-4.813,-2.9412,-4.9261,-6.0488,-6.7633,-3.9291,-3.9291,-2.9412,-4.9261,-7.8431,2.8571,0.89314,4.8254,-2.8986,1.0306,4.7021,-11.302,8.867,0.83736
-1.9589,-7.5917,-5.7886,-1.9608,-6.8966,-4.0976,-11.594,-1.9968,-5.8615,-1.9608,-6.8966,-8.8235,4.7619,1.8501,3.873,-3.8647,1.0306,0.83736,-12.254,8.867,-2.0612
-0.06319,-7.5917,-4.813,1.9608,-0.98522,-0.19512,-6.7633,1.868,-3.9291,1.9608,-0.98522,-3.9216,3.8095,1.8501,3.873,-3.8647,-0.90177,1.8035,-9.3968,10.837,-1.095
0.88468,-5.6778,-4.813,5.8824,0.98522,3.7073,-4.8309,2.8341,-1.0306,5.8824,0.98522,0.0,1.9048,1.8501,1.0159,-3.8647,-2.8341,0.83736,-2.7302,6.8966,0.83736
3.7283,-2.807,0.06504,3.9216,-2.9557,4.6829,-4.8309,-0.06441,-2.963,3.9216,-2.9557,1.9608,2.8571,4.7209,2.9206,0.0,-0.90177,-0.12882,4.8889,4.9261,2.7697
6.5719,1.0207,2.9919,0.98039,-3.9409,5.6585,-0.96618,-1.0306,-4.8953,0.98039,-3.9409,2.9412,6.6667,7.5917,6.7302,4.8309,3.9291,-4.9597,3.9365,8.867,6.6345
1.8325,-2.807,-0.91057,3.9216,2.9557,5.6585,0.0,0.90177,-0.06441,3.9216,2.9557,0.98039,2.8571,2.807,1.0159,2.8986,1.0306,-3.0274,-1.7778,3.9409,4.7021
-3.8547,-6.6348,-4.813,6.8627,2.9557,1.7561,-4.8309,-2.963,-1.0306,6.8627,2.9557,-0.98039,-2.8571,-2.9346,-5.6508,-0.96618,-3.8003,-7.8583,-7.4921,-2.9557,-0.12882
-1.0111,1.0207,1.0407,4.902,2.9557,1.7561,1.9324,-4.8953,1.868,4.902,2.9557,0.98039,0.0,0.89314,-2.7937,4.8309,0.06441,-11.723,-4.6349,-2.9557,5.6683
-0.06319,5.8054,3.9675,0.0,0.0,-0.19512,0.96618,-5.8615,-1.0306,0.0,0.0,-0.98039,3.8095,4.7209,1.9683,12.56,5.8615,-15.588,4.8889,-0.98522,11.465
0.88468,3.8915,3.9675,-0.98039,-3.9409,-3.122,-2.8986,-8.7601,-5.8615,-0.98039,-3.9409,-2.9412,7.619,7.5917,4.8254,12.56,9.7262,-9.7907,10.603,0.98522,10.499
1.8325,4.8485,2.9919,2.9412,0.0,-2.1463,0.0,-3.9291,-1.0306,2.9412,0.0,0.0,8.5714,7.5917,6.7302,11.594,10.692,-5.9259,14.413,0.98522,9.533
2.7804,6.7624,3.9675,-0.98039,3.9409,-2.1463,2.8986,-1.9968,5.7327,-0.98039,3.9409,2.9412,7.619,4.7209,7.6825,9.6618,10.692,-5.9259,6.7937,1.9704,9.533
3.7283,7.7193,3.9675,-0.98039,3.9409,-2.1463,1.9324,-2.963,5.7327,-0.98039,3.9409,0.98039,9.5238,5.6778,9.5873,10.628,11.659,-7.8583,4.8889,3.9409,8.5668
3.7283,4.8485,2.9919,1.9608,-0.98522,-4.0976,-1.9324,-2.963,-1.9968,1.9608,-0.98522,-1.9608,10.476,6.6348,10.54,10.628,12.625,0.83736,3.9365,5.9113,9.533
0.88468,5.8054,1.0407,-1.9608,-4.9261,-5.0732,-2.8986,-5.8615,-2.963,-1.9608,-4.9261,-3.9216,8.5714,6.6348,10.54,11.594,11.659,6.6345,-4.6349,5.9113,11.465
4.6761,8.6762,4.9431,-3.9216,0.0,-2.1463,5.7971,-1.9968,0.90177,-3.9216,0.0,0.0,10.476,7.5917,14.349,11.594,12.625,6.6345,0.12698,7.8818,10.499
8.4676,4.8485,7.8699,-0.98039,0.0,-0.19512,6.7633,-0.06441,0.90177,-0.98039,0.0,3.9216,9.5238,5.6778,13.397,5.7971,9.7262,5.6683,2.9841,7.8818,4.7021
14.155,6.7624,12.748,3.9216,0.0,4.6829,5.7971,3.8003,2.8341,3.9216,0.0,8.8235,11.429,6.6348,14.349,5.7971,9.7262,8.5668,8.6984,9.8522,0.83736
14.155,7.7193,15.675,1.9608,1.9704,5.6585,4.8309,1.868,2.8341,1.9608,1.9704,10.784,10.476,5.6778,12.444,5.7971,10.692,7.6006,12.508,6.8966,0.83736
13.207,3.8915,13.724,0.98039,4.9261,7.6098,1.9324,3.8003,2.8341,0.98039,4.9261,9.8039,6.6667,3.764,8.6349,4.8309,7.7939,3.7359,1.0794,5.9113,0.83736
12.259,7.7193,12.748,3.9216,4.9261,10.537,5.7971,4.7665,4.7665,3.9216,4.9261,12.745,5.7143,3.764,5.7778,8.6957,6.8277,1.8035,-9.3968,5.9113,2.7697
7.5197,11.547,8.8455,4.902,3.9409,8.5854,6.7633,4.7665,4.7665,4.902,3.9409,11.765,3.8095,2.807,1.0159,7.7295,3.9291,-3.0274,-9.3968,0.98522,2.7697
4.6761,9.6332,8.8455,7.8431,7.8818,7.6098,9.6618,3.8003,6.6989,7.8431,7.8818,11.765,2.8571,2.807,-1.8413,6.7633,1.9968,-0.12882,4.8889,-2.9557,4.7021
4.6761,8.6762,7.8699,10.784,10.837,11.512,13.527,6.6989,10.564,10.784,10.837,14.706,1.9048,1.8501,-2.7937,4.8309,1.0306,7.6006,20.127001,-1.9704,3.7359
6.5719,14.418,8.8455,12.745,11.823,11.512,19.323999,6.6989,6.6989,12.745,11.823,15.686,-1.9048,-1.0207,-2.7937,5.7971,1.0306,6.6345,11.556,-2.9557,1.8035
4.6761,5.8054,5.9187,13.725,10.837,8.5854,14.493,4.7665,7.6651,13.725,10.837,12.745,-2.8571,-3.8915,-1.8413,1.9324,0.06441,1.8035,-0.8254,-0.98522,-2.0612
1.8325,1.9777,2.9919,10.784,8.867,5.6585,9.6618,5.7327,6.6989,10.784,8.867,8.8235,-4.7619,-6.7624,-2.7937,0.0,-1.868,1.8035,-9.3968,-2.9557,-4.9597
-0.06319,1.9777,1.0407,5.8824,8.867,2.7317,7.7295,3.8003,6.6989,5.8824,8.867,4.902,-6.6667,-8.6762,-3.746,-1.9324,-1.868,-2.0612,-1.7778,-4.9261,-6.8921
1.8325,0.0638,2.0163,6.8627,7.8818,4.6829,5.7971,2.8341,4.7665,6.8627,7.8818,3.9216,-6.6667,-7.7193,-0.88889,-1.9324,0.06441,-2.0612,11.556,-4.9261,-4.9597
5.624,0.0638,2.9919,5.8824,5.9113,6.6341,3.8647,3.8003,4.7665,5.8824,5.9113,1.9608,-3.8095,-4.8485,3.873,-0.96618,1.9968,-1.095,5.8413,-1.9704,-3.0274
6.5719,0.0638,2.9919,0.98039,2.9557,3.7073,0.96618,3.8003,3.8003,0.98039,2.9557,0.0,-0.95238,-1.9777,8.6349,0.0,4.8953,2.7697,3.9365,4.9261,-2.0612
7.5197,3.8915,4.9431,3.9216,2.9557,3.7073,0.0,6.6989,-1.0306,3.9216,2.9557,0.0,3.8095,0.89314,12.444,2.8986,7.7939,9.533,-10.349,10.837,-2.0612
6.5719,-2.807,2.0163,4.902,1.9704,2.7317,-1.9324,3.8003,-3.9291,4.902,1.9704,-1.9608,4.7619,0.89314,12.444,-0.96618,5.8615,10.499,-15.111,10.837,-3.9936
3.7283,-7.5917,-0.91057,4.902,0.98522,-0.19512,-0.96618,4.7665,-4.8953,4.902,0.98522,-2.9412,3.8095,-1.0207,9.5873,-3.8647,2.963,9.533,-9.3968,10.837,-3.9936
1.8325,-10.463,-2.8618,0.0,-2.9557,-1.1707,-5.7971,3.8003,-5.8615,0.0,-2.9557,-4.902,3.8095,-1.0207,6.7302,-3.8647,1.0306,8.5668,-0.8254,9.8522,-1.095
0.88468,-5.6778,-3.8374,0.98039,-0.98522,-2.1463,-2.8986,1.868,-2.963,0.98039,-0.98522,-2.9412,5.7143,3.764,5.7778,0.0,1.9968,2.7697,7.746,10.837,2.7697
-3.8547,-2.807,-5.7886,-0.98039,0.0,-4.0976,-1.9324,-2.963,-1.0306,-0.98039,0.0,-2.9412,5.7143,3.764,1.9683,0.96618,0.06441,0.83736,-4.6349,7.8818,0.83736
-6.6983,-0.89314,-6.7642,-4.902,0.0,-8.9756,-1.9324,-5.8615,-1.0306,-4.902,0.0,-3.9216,3.8095,2.807,-0.88889,0.96618,-1.868,-3.0274,-13.206,4.9261,-0.12882
-8.594,-2.807,-6.7642,-1.9608,1.9704,-8.9756,-1.9324,-5.8615,3.8003,-1.9608,1.9704,-2.9412,0.95238,0.89314,-4.6984,-0.96618,-3.8003,1.8035,-1.7778,-1.9704,-3.0274
-4.8025,1.0207,-2.8618,2.9412,7.8818,-2.1463,5.7971,-1.0306,10.564,2.9412,7.8818,3.9216,0.95238,-0.0638,-4.6984,0.96618,-1.868,3.7359,4.8889,-2.9557,-1.095
-3.8547,4.8485,-1.8862,0.98039,6.8966,0.78049,8.6957,0.90177,6.6989,0.98039,6.8966,5.8824,-1.9048,-0.0638,-6.6032,2.8986,-2.8341,-4.9597,7.746,-4.9261,-1.095
-5.7504,3.8915,-1.8862,0.0,5.9113,-0.19512,8.6957,-0.06441,5.7327,0.0,5.9113,4.902,-4.7619,-1.9777,-9.4603,0.96618,-4.7665,-6.8921,13.46,-8.867,-2.0612
-1.9589,3.8915,1.0407,5.8824,8.867,2.7317,8.6957,1.868,7.6651,5.8824,8.867,5.8824,-3.8095,-1.9777,-6.6032,0.96618,-1.868,-11.723,4.8889,-7.8818,-2.0612
-0.06319,5.8054,4.9431,6.8627,7.8818,4.6829,5.7971,4.7665,8.6312,6.8627,7.8818,6.8627,-2.8571,0.89314,-5.6508,2.8986,1.0306,-3.9936,-8.4444,-10.837,-1.095
1.8325,5.8054,4.9431,3.9216,4.9261,3.7073,2.8986,6.6989,6.6989,3.9216,4.9261,3.9216,-0.95238,3.764,-4.6984,4.8309,2.963,2.7697,-4.6349,-12.808,0.83736
3.7283,4.8485,4.9431,0.0,1.9704,4.6829,3.8647,8.6312,4.7665,0.0,1.9704,3.9216,0.95238,5.6778,-2.7937,4.8309,2.963,3.7359,4.8889,-7.8818,0.83736
3.7283,0.0638,3.9675,0.0,0.98522,4.6829,0.96618,5.7327,2.8341,0.0,0.98522,2.9412,0.95238,3.764,-1.8413,1.9324,1.0306,5.6683,-3.6825,-6.8966,-2.0612
6.5719,1.9777,5.9187,0.98039,1.9704,6.6341,-0.96618,6.6989,-0.06441,0.98039,1.9704,3.9216,2.8571,4.7209,1.9683,0.96618,2.963,7.6006,-12.254,-0.98522,-1.095
8.4676,-0.89314,6.8943,0.98039,-1.9704,6.6341,-1.9324,6.6989,-4.8953,0.98039,-1.9704,1.9608,5.7143,5.6778,5.7778,0.0,3.9291,8.5668,1.0794,4.9261,1.8035
5.624,-10.463,1.0407,-1.9608,-8.867,2.7317,-9.6618,4.7665,-11.659,-1.9608,-8.867,-3.9216,2.8571,-0.0638,2.9206,-8.6957,-2.8341,2.7697,6.7937,4.9261,-5.9259
2.7804,-16.204,-4.813,-2.9412,-9.8522,-1.1707,-15.459,3.8003,-15.523,-2.9412,-9.8522,-8.8235,0.0,-3.8915,1.0159,-14.493,-8.6312,7.6006,-7.4921,5.9113,-9.7907
-1.0111,-18.118,-8.7154,-6.8627,-10.837,-6.0488,-14.493,0.90177,-12.625,-6.8627,-10.837,-12.745,-0.95238,-4.8485,1.0159,-17.391001,-10.564,9.533,-20.825001,4.9261,-12.689
-3.8547,-11.419,-9.6911,-8.8235,-11.823,-9.9512,-14.493,-1.9968,-10.692,-8.8235,-11.823,-15.686,-1.9048,-4.8485,1.0159,-14.493,-8.6312,4.7021,-30.349001,5.9113,-10.757
-3.8547,-12.376,-9.6911,-8.8235,-13.793,-10.927,-13.527,-1.9968,-11.659,-8.8235,-13.793,-15.686,0.0,-2.9346,1.9683,-10.628,-6.6989,3.7359,-15.111,8.867,-4.9597
-4.8025,-13.333,-8.7154,-9.8039,-10.837,-9.9512,-10.628,-5.8615,-10.692,-9.8039,-10.837,-13.725,0.0,-3.8915,1.9683,-10.628,-5.7327,0.83736,2.0317,7.8818,-3.0274
-5.7504,-9.5056,-7.7398,-12.745,-10.837,-9.9512,-10.628,-8.7601,-8.7601,-12.745,-10.837,-11.765,0.0,-5.8054,0.06349,-9.6618,-5.7327,-1.095,3.9365,6.8966,-4.9597
-7.6461,-7.5917,-6.7642,-13.725,-11.823,-10.927,-8.6957,-10.692,-8.7601,-13.725,-11.823,-10.784,-1.9048,-7.7193,-3.746,-8.6957,-7.6651,-3.9936,-5.5873,3.9409,-5.9259
-6.6983,-2.807,-5.7886,-10.784,-10.837,-5.0732,-5.7971,-6.8277,-6.8277,-10.784,-10.837,-7.8431,-0.95238,-5.8054,-5.6508,-7.7295,-6.6989,-2.0612,-7.4921,3.9409,-4.9597
-9.5419,-1.8501,-5.7886,-9.8039,-7.8818,-8.0,-0.96618,-10.692,-3.9291,-9.8039,-7.8818,-6.8627,-1.9048,-3.8915,-8.5079,-4.8309,-5.7327,-1.095,3.9365,0.98522,-3.0274
-11.438,0.0638,-7.7398,-10.784,-4.9261,-10.927,0.96618,-11.659,0.90177,-10.784,-4.9261,-6.8627,-2.8571,-1.0207,-7.5556,0.0,-2.8341,-4.9597,4.8889,-1.9704,-0.12882
-7.6461,5.8054,-2.8618,-9.8039,-4.9261,-8.0,1.9324,-7.7939,-1.9968,-9.8039,-4.9261,-3.9216,-0.95238,1.8501,-1.8413,5.7971,1.9968,-4.9597,-2.7302,-0.98522,2.7697
-4.8025,4.8485,-1.8862,-6.8627,-4.9261,-8.0,-1.9324,-5.8615,-2.963,-6.8627,-4.9261,-4.902,-2.8571,-1.9777,-0.88889,2.8986,1.0306,-6.8921,-9.3968,0.98522,0.83736
-3.8547,-2.807,-3.8374,-2.9412,0.0,-5.0732,-3.8647,-1.0306,2.8341,-2.9412,0.0,-3.9216,-5.7143,-5.8054,-2.7937,-1.9324,-2.8341,-3.0274,0.12698,0.0,-3.9936
-2.9068,-2.807,-4.813,-2.9412,0.0,-2.1463,-0.96618,-1.0306,1.868,-2.9412,0.0,-2.9412,-7.619,-8.6762,-4.6984,-1.9324,-5.7327,3.7359,2.9841,-3.9409,-5.9259
-2.9068,-4.7209,-5.7886,-2.9412,0.0,-2.1463,-0.96618,-0.06441,-0.06441,-2.9412,0.0,-3.9216,-10.476,-11.547,-5.6508,-4.8309,-6.6989,3.7359,6.7937,-5.9113,-7.8583
-2.9068,-6.6348,-4.813,0.0,2.9557,-3.122,-1.9324,-1.0306,5.7327,0.0,2.9557,-2.9412,-12.381,-11.547,-6.6032,-7.7295,-7.6651,2.7697,8.6984,-7.8818,-7.8583
-2.9068,-2.807,-3.8374,3.9216,5.9113,-1.1707,0.96618,2.8341,5.7327,3.9216,5.9113,-0.98039,-12.381,-10.59,-6.6032,-5.7971,-7.6651,2.7697,4.8889,-8.867,-4.9597
-1.9589,0.0638,-3.8374,4.902,5.9113,0.78049,6.7633,4.7665,5.7327,4.902,5.9113,0.98039,-10.476,-8.6762,-6.6032,-4.8309,-7.6651,-0.12882,0.12698,-7.8818,-3.0274
-2.9068,0.0638,-5.7886,1.9608,3.9409,1.7561,5.7971,0.90177,6.6989,1.9608,3.9409,0.0,-9.5238,-8.6762,-6.6032,-4.8309,-8.6312,-3.0274,-6.5397,-6.8966,-3.0274
-4.8025,-5.6778,-5.7886,-2.9412,1.9704,-0.19512,1.9324,-2.963,4.7665,-2.9412,1.9704,-2.9412,-11.429,-9.6332,-8.5079,-6.7633,-8.6312,-4.9597,5.8413,-10.837,-3.0274
-4.8025,-5.6778,-4.813,-0.98039,2.9557,-3.122,-1.9324,-1.0306,0.90177,-0.98039,2.9557,-2.9412,-8.5714,-6.7624,-7.5556,-5.7971,-7.6651,-8.8245,10.603,-9.8522,-1.095
-5.7504,-4.7209,-4.813,-1.9608,0.0,-5.0732,-2.8986,-0.06441,-1.0306,-1.9608,0.0,-2.9412,-5.7143,-5.8054,-7.5556,-7.7295,-6.6989,-9.7907,-3.6825,-6.8966,-1.095
-7.6461,-2.807,-4.813,-3.9216,-1.9704,-7.0244,-3.8647,-4.8953,1.868,-3.9216,-1.9704,-3.9216,-5.7143,-3.8915,-9.4603,-6.7633,-7.6651,-5.9259,-2.7302,-10.837,-0.12882
-8.594,0.0638,-3.8374,-3.9216,-0.98522,-8.9756,-7.7295,-6.8277,-1.0306,-3.9216,-0.98522,-3.9216,-5.7143,-2.9346,-10.413,-2.8986,-5.7327,-9.7907,2.0317,-11.823,1.8035
-7.6461,-0.89314,-1.8862,-3.9216,-3.9409,-7.0244,-7.7295,-4.8953,-2.963,-3.9216,-3.9409,-4.902,-3.8095,-2.9346,-6.6032,-2.8986,-3.8003,-9.7907,-0.8254,-7.8818,0.83736
-5.7504,1.0207,0.06504,-1.9608,-2.9557,-6.0488,1.9324,-2.963,0.90177,-1.9608,-2.9557,-2.9412,-0.95238,-1.9777,-3.746,-0.96618,-0.90177,-5.9259,4.8889,-3.9409,-0.12882
-3.8547,-0.89314,-0.91057,0.0,-0.98522,-4.0976,4.8309,0.90177,5.7327,0.0,-0.98522,-0.98039,1.9048,-0.0638,0.06349,0.0,1.9968,-3.0274,8.6984,-0.98522,0.83736
-1.0111,-0.89314,1.0407,0.98039,2.9557,-1.1707,2.8986,1.868,4.7665,0.98039,2.9557,0.98039,0.95238,-0.0638,1.9683,0.96618,3.9291,1.8035,-0.8254,0.0,-1.095
2.7804,1.9777,3.9675,5.8824,3.9409,2.7317,-0.96618,5.7327,-0.06441,5.8824,3.9409,2.9412,0.0,-0.0638,4.8254,2.8986,4.8953,4.7021,0.12698,0.98522,-1.095
4.6761,3.8915,5.9187,4.902,0.98522,3.7073,0.96618,5.7327,0.90177,4.902,0.98522,2.9412,-1.9048,-0.0638,5.7778,4.8309,4.8953,5.6683,1.0794,1.9704,-1.095
2.7804,3.8915,2.0163,0.0,0.98522,2.7317,0.96618,4.7665,1.868,0.0,0.98522,0.98039,-2.8571,-1.0207,1.9683,3.8647,1.9968,7.6006,1.0794,1.9704,-2.0612
1.8325,0.0638,-1.8862,0.98039,-0.98522,1.7561,0.0,3.8003,-0.06441,0.98039,-0.98522,0.0,-4.7619,-1.0207,-0.88889,1.9324,-0.90177,8.5668,-2.7302,0.0,-1.095
5.624,1.9777,2.0163,5.8824,-0.98522,6.6341,-0.96618,7.6651,0.90177,5.8824,-0.98522,3.9216,-2.8571,0.89314,1.9683,2.8986,1.9968,5.6683,2.0317,0.98522,0.83736
11.311,9.6332,8.8455,8.8235,0.98522,14.439,0.0,12.496,-0.06441,8.8235,0.98522,8.8235,-1.9048,1.8501,4.8254,7.7295,5.8615,4.7021,6.7937,1.9704,1.8035
12.259,11.547,11.772,10.784,7.8818,20.292999,7.7295,12.496,3.8003,10.784,7.8818,13.725,-1.9048,2.807,3.873,7.7295,5.8615,4.7021,12.508,1.9704,3.7359
6.5719,5.8054,6.8943,8.8235,7.8818,14.439,7.7295,5.7327,5.7327,8.8235,7.8818,10.784,-2.8571,2.807,0.06349,1.9324,2.963,0.83736,4.8889,-1.9704,1.8035
0.88468,0.0638,1.0407,6.8627,4.9261,7.6098,3.8647,2.8341,5.7327,6.8627,4.9261,4.902,-2.8571,-0.0638,-2.7937,-3.8647,-0.90177,-5.9259,-9.3968,-3.9409,-0.12882
-2.9068,-1.8501,-2.8618,0.98039,-0.98522,2.7317,-0.96618,-1.0306,0.90177,0.98039,-0.98522,1.9608,-0.95238,0.89314,-3.746,-7.7295,-3.8003,-6.8921,-9.3968,-3.9409,-2.0612
-3.8547,-6.6348,-5.7886,7.8431,5.9113,2.7317,1.9324,5.7327,1.868,7.8431,5.9113,2.9412,-1.9048,-2.9346,-5.6508,-13.527,-7.6651,-0.12882,0.12698,-4.9261,-6.8921
-3.8547,-6.6348,-6.7642,13.725,8.867,4.6829,2.8986,8.6312,0.90177,13.725,8.867,2.9412,-3.8095,-8.6762,-6.6032,-13.527,-9.5974,3.7359,-14.159,-5.9113,-10.757
-0.06319,1.9777,-2.8618,12.745,8.867,4.6829,9.6618,5.7327,4.7665,12.745,8.867,3.9216,-2.8571,-8.6762,-1.8413,-6.7633,-4.7665,2.7697,-3.6825,-2.9557,-9.7907
4.6761,6.7624,2.9919,11.765,11.823,6.6341,10.628,7.6651,8.6312,11.765,11.823,4.902,0.95238,-3.8915,2.9206,1.9324,1.9968,0.83736,14.413,1.9704,-3.0274
7.5197,3.8915,6.8943,9.8039,9.8522,6.6341,0.96618,4.7665,2.8341,9.8039,9.8522,4.902,4.7619,1.8501,8.6349,8.6957,7.7939,4.7021,8.6984,6.8966,-0.12882
7.5197,2.9346,6.8943,8.8235,4.9261,3.7073,-2.8986,2.8341,-0.06441,8.8235,4.9261,2.9412,10.476,9.5056,12.444,12.56,12.625,3.7359,2.9841,8.867,3.7359
5.624,-0.89314,3.9675,5.8824,3.9409,2.7317,0.96618,2.8341,1.868,5.8824,3.9409,1.9608,12.381,12.376,11.492,9.6618,12.625,0.83736,-6.5397,6.8966,4.7021
5.624,-1.8501,1.0407,0.98039,0.98522,3.7073,2.8986,1.868,-1.0306,0.98039,0.98522,1.9608,11.429,11.419,9.5873,3.8647,9.7262,-7.8583,-9.3968,8.867,5.6683
7.5197,1.9777,4.9431,2.9412,0.0,5.6585,3.8647,1.868,-1.9968,2.9412,0.0,3.9216,12.381,12.376,8.6349,5.7971,8.7601,1.8035,-2.7302,5.9113,9.533
8.4676,7.7193,8.8455,2.9412,-1.9704,5.6585,5.7971,0.90177,-2.963,2.9412,-1.9704,6.8627,11.429,9.5056,6.7302,6.7633,7.7939,7.6006,2.0317,3.9409,9.533
7.5197,6.7624,7.8699,0.98039,0.98522,4.6829,1.9324,0.90177,-2.963,0.98039,0.98522,5.8824,11.429,6.6348,6.7302,3.8647,4.8953,3.7359,3.9365,5.9113,5.6683
6.5719,5.8054,5.9187,0.98039,1.9704,5.6585,3.8647,-0.06441,1.868,0.98039,1.9704,6.8627,11.429,6.6348,8.6349,3.8647,5.8615,2.7697,8.6984,9.8522,4.7021
4.6761,1.0207,4.9431,1.9608,0.98522,3.7073,4.8309,-1.0306,1.868,1.9608,0.98522,4.902,7.619,3.764,5.7778,1.9324,2.963,-3.0274,6.7937,5.9113,3.7359
2.7804,1.9777,4.9431,0.0,1.9704,1.7561,1.9324,-1.9968,1.868,0.0,1.9704,3.9216,4.7619,4.7209,1.9683,1.9324,2.963,0.83736,4.8889,1.9704,4.7021
1.8325,2.9346,2.9919,-3.9216,0.0,0.78049,0.96618,-1.0306,2.8341,-3.9216,0.0,3.9216,2.8571,5.6778,0.06349,2.8986,2.963,0.83736,3.9365,0.0,4.7021
-0.06319,1.0207,0.06504,-3.9216,0.0,-0.19512,1.9324,-2.963,-1.0306,-3.9216,0.0,1.9608,-0.95238,4.7209,-2.7937,3.8647,1.9968,-2.0612,-7.4921,-2.9557,6.6345
-1.9589,1.9777,-0.91057,-1.9608,0.98522,-2.1463,1.9324,-4.8953,-1.0306,-1.9608,0.98522,0.98039,-0.95238,5.6778,-3.746,5.7971,1.9968,-8.8245,-1.7778,-3.9409,8.5668
-0.06319,4.8485,1.0407,-1.9608,2.9557,-1.1707,5.7971,-2.963,3.8003,-1.9608,2.9557,2.9412,0.0,5.6778,-2.7937,6.7633,2.963,-2.0612,5.8413,-3.9409,9.533
3.7283,7.7193,3.9675,-2.9412,0.0,3.7073,6.7633,0.90177,1.868,-2.9412,0.0,3.9216,0.0,3.764,-2.7937,7.7295,1.9968,4.7021,2.9841,-4.9261,6.6345
3.7283,5.8054,2.9919,0.98039,0.98522,4.6829,5.7971,2.8341,-1.0306,0.98039,0.98522,4.902,-2.8571,-0.0638,-3.746,4.8309,0.06441,3.7359,6.7937,-5.9113,1.8035
3.7283,1.0207,1.0407,2.9412,2.9557,5.6585,3.8647,1.868,1.868,2.9412,2.9557,3.9216,-2.8571,-1.0207,-1.8413,2.8986,0.06441,1.8035,4.8889,-4.9261,0.83736
4.6761,-0.89314,2.0163,1.9608,1.9704,6.6341,2.8986,2.8341,1.868,1.9608,1.9704,3.9216,-1.9048,-2.9346,1.9683,0.96618,1.0306,1.8035,3.9365,0.0,-1.095
5.624,-0.89314,3.9675,1.9608,-0.98522,6.6341,2.8986,6.6989,-4.8953,1.9608,-0.98522,4.902,-1.9048,-5.8054,3.873,-0.96618,1.0306,6.6345,-6.5397,2.9557,-3.9936
1.8325,-6.6348,0.06504,0.0,-1.9704,2.7317,0.96618,1.868,-4.8953,0.0,-1.9704,1.9608,-2.8571,-8.6762,1.9683,-6.7633,-2.8341,2.7697,-15.111,2.9557,-7.8583
-2.9068,-9.5056,-4.813,0.0,-2.9557,-2.1463,-5.7971,-2.963,-2.963,0.0,-2.9557,-2.9412,-2.8571,-9.6332,1.0159,-6.7633,-3.8003,1.8035,-4.6349,4.9261,-6.8921
-5.7504,-9.5056,-6.7642,-0.98039,-2.9557,-4.0976,-8.6957,-2.963,-2.963,-0.98039,-2.9557,-7.8431,0.95238,-5.8054,3.873,-2.8986,0.06441,0.83736,-3.6825,8.867,-3.0274
-3.8547,-8.5486,-5.7886,-3.9216,-5.9113,-5.0732,-6.7633,-3.9291,-7.7939,-3.9216,-5.9113,-8.8235,5.7143,-1.0207,7.6825,-0.96618,2.963,1.8035,-2.7302,12.808,-0.12882
-6.6983,-6.6348,-7.7398,-8.8235,-7.8818,-8.0,-5.7971,-5.8615,-6.8277,-8.8235,-7.8818,-9.8039,5.7143,-0.0638,4.8254,-1.9324,1.9968,-4.9597,2.9841,8.867,1.8035
-6.6983,-1.8501,-7.7398,-7.8431,-5.9113,-8.0,-0.96618,-5.8615,-0.06441,-7.8431,-5.9113,-7.8431,6.6667,2.807,2.9206,0.0,1.0306,-7.8583,0.12698,3.9409,3.7359
-5.7504,-3.764,-6.7642,-2.9412,-1.9704,-6.0488,-4.8309,-5.8615,1.868,-2.9412,-1.9704,-5.8824,6.6667,3.764,1.0159,-2.8986,-0.90177,-3.9936,3.9365,3.9409,0.83736
-5.7504,-7.5917,-5.7886,-1.9608,-2.9557,-7.0244,-5.7971,-4.8953,-1.9968,-1.9608,-2.9557,-6.8627,6.6667,2.807,-0.88889,-5.7971,-2.8341,-0.12882,-1.7778,2.9557,-2.0612
-1.9589,-2.807,-2.8618,-3.9216,-5.9113,-6.0488,-3.8647,-1.9968,-1.9968,-3.9216,-5.9113,-6.8627,9.5238,5.6778,1.9683,-2.8986,-1.868,4.7021,-10.349,5.9113,-2.0612
-1.0111,-2.807,0.06504,-3.9216,-1.9704,-4.0976,-0.96618,-3.9291,-1.0306,-3.9216,-1.9704,-3.9216,7.619,3.764,0.06349,-5.7971,-1.868,2.7697,-7.4921,4.9261,-3.0274
-1.9589,-5.6778,-0.91057,-2.9412,-0.98522,-5.0732,-5.7971,-4.8953,-2.963,-2.9412,-0.98522,-2.9412,6.6667,2.807,-0.88889,-6.7633,-2.8341,-4.9597,-1.7778,4.9261,-3.9936
-1.0111,-0.89314,1.0407,-3.9216,-5.9113,-3.122,-6.7633,-1.9968,-1.9968,-3.9216,-5.9113,-1.9608,5.7143,3.764,-0.88889,-4.8309,-0.90177,2.7697,1.0794,2.9557,-3.0274
-3.8547,-4.7209,-1.8862,-6.8627,-9.8522,-5.0732,-7.7295,-3.9291,-1.9968,-6.8627,-9.8522,-4.902,1.9048,1.8501,-4.6984,-5.7971,-3.8003,3.7359,9.6508,-2.9557,-5.9259
-3.8547,-3.764,-2.8618,-5.8824,-3.9409,-6.0488,-5.7971,-4.8953,-3.9291,-5.8824,-3.9409,-4.902,1.9048,2.807,-4.6984,-3.8647,-3.8003,-1.095,6.7937,-2.9557,-3.9936
-2.9068,-2.807,-3.8374,-4.902,-1.9704,-4.0976,-5.7971,-4.8953,-2.963,-4.902,-1.9704,-3.9216,1.9048,3.764,-2.7937,-0.96618,-2.8341,-3.0274,2.0317,-1.9704,-1.095
-1.0111,1.0207,0.06504,-2.9412,-3.9409,-3.122,-3.8647,-2.963,-1.0306,-2.9412,-3.9409,-0.98039,3.8095,5.6778,-0.88889,3.8647,1.0306,-4.9597,2.9841,0.0,0.83736
0.88468,2.9346,3.9675,-2.9412,-3.9409,-2.1463,-2.8986,0.90177,1.868,-2.9412,-3.9409,0.98039,4.7619,6.6348,1.9683,5.7971,3.9291,-3.0274,2.0317,2.9557,2.7697
-0.06319,4.8485,3.9675,-0.98039,-1.9704,-0.19512,-1.9324,-1.9968,-1.9968,-0.98039,-1.9704,0.98039,2.8571,6.6348,1.0159,5.7971,2.963,3.7359,-2.7302,0.98522,1.8035
-0.06319,2.9346,2.0163,0.98039,0.0,-2.1463,-1.9324,-1.9968,-2.963,0.98039,0.0,0.98039,2.8571,6.6348,1.9683,6.7633,2.963,-4.9597,2.9841,2.9557,2.7697
-4.8025,-0.89314,-0.91057,-5.8824,-5.9113,-8.0,-3.8647,-3.9291,-4.8953,-5.8824,-5.9113,-2.9412,0.95238,5.6778,-1.8413,5.7971,1.9968,-0.12882,2.9841,0.0,3.7359
-4.8025,-1.8501,0.06504,-7.8431,-4.9261,-7.0244,-3.8647,-2.963,-5.8615,-7.8431,-4.9261,-3.9216,-0.95238,4.7209,-3.746,4.8309,1.0306,6.6345,-1.7778,-0.98522,3.7359
-1.9589,-0.89314,0.06504,-5.8824,-3.9409,-6.0488,-3.8647,-2.963,-1.9968,-5.8824,-3.9409,-2.9412,-1.9048,1.8501,-2.7937,2.8986,-1.868,3.7359,-9.3968,-0.98522,1.8035
-2.9068,-4.7209,-3.8374,-4.902,-3.9409,-6.0488,-2.8986,-2.963,-2.963,-4.902,-3.9409,-3.9216,-4.7619,-3.8915,-4.6984,-4.8309,-6.6989,2.7697,-12.254,-0.98522,-4.9597
-4.8025,-3.764,-4.813,-5.8824,-4.9261,-5.0732,-2.8986,-1.9968,-2.963,-5.8824,-4.9261,-3.9216,-7.619,-7.7193,-6.6032,-6.7633,-8.6312,-3.0274,-2.7302,-1.9704,-6.8921
-1.0111,-0.89314,0.06504,-4.902,-1.9704,-1.1707,0.0,0.90177,0.90177,-4.902,-1.9704,-0.98039,-7.619,-8.6762,-3.746,-6.7633,-6.6989,-2.0612,5.8413,-1.9704,-5.9259
4.6761,4.8485,3.9675,3.9216,1.9704,5.6585,3.8647,6.6989,0.90177,3.9216,1.9704,3.9216,-4.7619,-6.7624,1.0159,-4.8309,-2.8341,-2.0612,-3.6825,0.0,-5.9259
4.6761,-3.764,1.0407,6.8627,0.0,6.6341,0.96618,6.6989,-1.9968,6.8627,0.0,3.9216,-5.7143,-7.7193,0.06349,-8.6957,-4.7665,5.6683,-9.3968,-0.98522,-5.9259
-0.06319,-4.7209,-3.8374,6.8627,-1.9704,5.6585,-2.8986,6.6989,-0.06441,6.8627,-1.9704,0.98039,-8.5714,-9.6332,-4.6984,-10.628,-8.6312,4.7021,-2.7302,-3.9409,-6.8921
-2.9068,-2.807,-4.813,7.8431,3.9409,4.6829,0.96618,7.6651,2.8341,7.8431,3.9409,2.9412,-9.5238,-7.7193,-6.6032,-6.7633,-7.6651,-0.12882,1.0794,-5.9113,-3.9936
-1.9589,-3.764,-3.8374,6.8627,5.9113,3.7073,1.9324,6.6989,1.868,6.8627,5.9113,2.9412,-7.619,-6.7624,-3.746,-4.8309,-4.7665,-0.12882,2.9841,-3.9409,-3.0274
-1.9589,-3.764,-3.8374,5.8824,3.9409,2.7317,0.96618,6.6989,-0.06441,5.8824,3.9409,1.9608,-5.7143,-4.8485,-0.88889,-2.8986,-1.868,1.8035,6.7937,0.0,-1.095
-4.8025,-4.7209,-6.7642,1.9608,1.9704,-1.1707,-0.96618,-0.06441,1.868,1.9608,1.9704,-1.9608,-5.7143,-5.8054,-3.746,-3.8647,-3.8003,0.83736,2.0317,-2.9557,-3.0274
-1.0111,1.9777,-1.8862,2.9412,2.9557,1.7561,1.9324,1.868,5.7327,2.9412,2.9557,0.98039,-5.7143,-5.8054,-1.8413,-0.96618,-1.868,4.7021,3.9365,-1.9704,-2.0612
3.7283,5.8054,4.9431,4.902,4.9261,5.6585,5.7971,4.7665,7.6651,4.902,4.9261,5.8824,-2.8571,-3.8915,2.9206,3.8647,1.0306,0.83736,2.9841,3.9409,0.83736
2.7804,3.8915,4.9431,3.9216,4.9261,3.7073,4.8309,4.7665,4.7665,3.9216,4.9261,2.9412,-4.7619,-3.8915,1.0159,2.8986,0.06441,2.7697,3.9365,1.9704,-1.095
0.88468,3.8915,2.9919,3.9216,1.9704,2.7317,5.7971,0.90177,0.90177,3.9216,1.9704,0.98039,-5.7143,-3.8915,-0.88889,1.9324,-1.868,5.6683,1.0794,-0.98522,-1.095
-0.06319,-0.89314,2.0163,0.98039,-0.98522,0.78049,2.8986,-1.9968,0.90177,0.98039,-0.98522,0.0,-6.6667,-2.9346,-0.88889,0.0,-1.868,1.8035,-9.3968,-0.98522,-0.12882
1.8325,-3.764,3.9675,0.0,-0.98522,1.7561,1.9324,-0.06441,-0.06441,0.0,-0.98522,0.98039,-6.6667,-2.9346,0.06349,-0.96618,-0.90177,2.7697,-3.6825,-0.98522,1.8035
2.7804,-3.764,3.9675,-1.9608,-4.9261,1.7561,-2.8986,0.90177,-4.8953,-1.9608,-4.9261,-1.9608,-5.7143,-2.9346,1.0159,0.0,0.06441,2.7697,8.6984,0.0,2.7697
2.7804,-0.89314,2.9919,0.0,-1.9704,0.78049,0.0,-0.06441,-1.0306,0.0,-1.9704,-2.9412,-4.7619,-3.8915,0.06349,0.0,0.06441,-2.0612,4.8889,0.0,2.7697
0.88468,1.0207,2.0163,3.9216,2.9557,0.78049,1.9324,2.8341,9.5974,3.9216,2.9557,-1.9608,-6.6667,-4.8485,-1.8413,1.9324,-0.90177,-3.0274,3.9365,-2.9557,3.7359
4.6761,8.6762,5.9187,3.9216,3.9409,4.6829,2.8986,7.6651,8.6312,3.9216,3.9409,2.9412,-4.7619,-1.0207,1.0159,8.6957,2.963,-1.095,-7.4921,-1.9704,7.6006
7.5197,14.418,9.8211,2.9412,4.9261,8.5854,7.7295,8.6312,7.6651,2.9412,4.9261,5.8824,-1.9048,2.807,3.873,12.56,5.8615,4.7021,3.9365,-1.9704,9.533
5.624,7.7193,8.8455,1.9608,2.9557,6.6341,5.7971,4.7665,7.6651,1.9608,2.9557,5.8824,-1.9048,1.8501,1.0159,7.7295,4.8953,5.6683,18.222,-3.9409,3.7359
0.88468,1.9777,4.9431,-1.9608,0.0,-0.19512,0.96618,-1.9968,4.7665,-1.9608,0.0,1.9608,-4.7619,-1.9777,-1.8413,1.9324,1.0306,-0.12882,8.6984,-5.9113,-0.12882
2.7804,3.8915,5.9187,-2.9412,0.98522,-0.19512,1.9324,-1.9968,3.8003,-2.9412,0.98522,2.9412,-1.9048,-0.0638,1.0159,3.8647,1.9968,-3.9936,1.0794,-1.9704,2.7697
3.7283,8.6762,5.9187,-0.98039,4.9261,0.78049,6.7633,-0.06441,5.7327,-0.98039,4.9261,4.902,-0.95238,-1.0207,2.9206,3.8647,1.9968,0.83736,2.9841,0.0,2.7697
1.8325,4.8485,3.9675,-1.9608,2.9557,-1.1707,7.7295,-1.0306,4.7665,-1.9608,2.9557,2.9412,-0.95238,-2.9346,1.9683,0.96618,0.06441,1.8035,-14.159,0.98522,-0.12882
2.7804,3.8915,5.9187,-2.9412,0.0,-1.1707,8.6957,-1.9968,2.8341,-2.9412,0.0,2.9412,0.95238,-2.9346,2.9206,0.0,1.0306,3.7359,-9.3968,3.9409,-0.12882
3.7283,-0.89314,5.9187,-2.9412,0.98522,-0.19512,2.8986,-3.9291,1.868,-2.9412,0.98522,2.9412,3.8095,-1.9777,4.8254,-2.8986,1.9968,1.8035,7.746,6.8966,-2.0612
3.7283,-0.89314,5.9187,-1.9608,4.9261,3.7073,3.8647,-1.9968,5.7327,-1.9608,4.9261,6.8627,3.8095,-1.0207,4.8254,-3.8647,1.9968,-3.9936,13.46,6.8966,-3.0274
1.8325,2.9346,4.9431,-0.98039,5.9113,1.7561,3.8647,-4.8953,7.6651,-0.98039,5.9113,6.8627,4.7619,1.8501,4.8254,-0.96618,3.9291,-9.7907,4.8889,6.8966,-2.0612
-0.06319,4.8485,5.9187,0.98039,5.9113,-2.1463,5.7971,-7.7939,8.6312,0.98039,5.9113,4.902,6.6667,6.6348,3.873,1.9324,6.8277,-2.0612,8.6984,2.9557,0.83736
-0.06319,7.7193,7.8699,0.98039,4.9261,-2.1463,3.8647,-4.8953,7.6651,0.98039,4.9261,3.9216,8.5714,12.376,5.7778,6.7633,9.7262,2.7697,7.746,2.9557,6.6345
-2.9068,7.7193,2.9919,-3.9216,1.9704,-5.0732,2.8986,-6.8277,2.8341,-3.9216,1.9704,0.0,7.619,10.463,2.9206,7.7295,8.7601,-5.9259,-4.6349,0.0,7.6006
-5.7504,3.8915,-1.8862,-2.9412,-4.9261,-8.0,0.96618,-7.7939,-1.9968,-2.9412,-4.9261,-4.902,3.8095,7.5917,-0.88889,4.8309,4.8953,-8.8245,-2.7302,-4.9261,5.6683
-2.9068,0.0638,-1.8862,-0.98039,-3.9409,-6.0488,-1.9324,-2.963,-1.9968,-0.98039,-3.9409,-5.8824,1.9048,5.6778,-0.88889,2.8986,3.9291,-4.9597,11.556,-3.9409,4.7021
-1.0111,1.0207,-1.8862,-1.9608,2.9557,-2.1463,0.96618,-0.06441,1.868,-1.9608,2.9557,-3.9216,1.9048,6.6348,0.06349,4.8309,4.8953,-3.0274,-3.6825,-3.9409,2.7697
-0.06319,1.0207,-2.8618,-0.98039,5.9113,0.78049,3.8647,0.90177,1.868,-0.98039,5.9113,-0.98039,0.0,5.6778,-0.88889,5.7971,3.9291,-2.0612,-11.302,-3.9409,3.7359
-3.8547,-1.8501,-5.7886,1.9608,1.9704,0.78049,-2.8986,3.8003,-3.9291,1.9608,1.9704,-1.9608,-1.9048,3.764,-2.7937,4.8309,1.0306,-1.095,-2.7302,-6.8966,3.7359
-2.9068,-5.6778,-4.813,4.902,-0.98522,0.78049,-5.7971,3.8003,-8.7601,4.902,-0.98522,-2.9412,-1.9048,1.8501,-2.7937,2.8986,-0.90177,-3.0274,-1.7778,-4.9261,3.7359
1.8325,-9.5056,-2.8618,5.8824,-1.9704,1.7561,-8.6957,4.7665,-9.7262,5.8824,-1.9704,-1.9608,-0.95238,-1.0207,0.06349,-1.9324,-3.8003,-3.9936,-8.4444,0.0,-2.0612
2.7804,-3.764,-0.91057,3.9216,-3.9409,1.7561,-9.6618,4.7665,-8.7601,3.9216,-3.9409,0.98039,0.95238,-1.0207,1.9683,-2.8986,-2.8341,1.8035,-17.016001,1.9704,-3.9936
1.8325,-1.8501,-0.91057,-2.9412,-6.8966,2.7317,-11.594,1.868,-4.8953,-2.9412,-6.8966,0.0,0.95238,-1.0207,1.9683,-1.9324,-2.8341,4.7021,-9.3968,0.98522,-1.095
3.7283,-0.89314,2.0163,-5.8824,-6.8966,1.7561,-7.7295,-2.963,-4.8953,-5.8824,-6.8966,0.0,1.9048,-1.9777,5.7778,0.0,1.0306,0.83736,6.7937,3.9409,-0.12882
5.624,3.8915,7.8699,-4.902,-2.9557,0.78049,0.0,-4.8953,-3.9291,-4.902,-2.9557,2.9412,5.7143,-1.0207,9.5873,3.8647,5.8615,-2.0612,12.508,5.9113,0.83736
10.363,9.6332,12.748,-2.9412,-0.98522,2.7317,2.8986,-1.9968,-1.9968,-2.9412,-0.98522,5.8824,9.5238,2.807,13.397,7.7295,9.7262,-0.12882,0.12698,9.8522,1.8035
9.4155,13.461,12.748,-3.9216,-2.9557,3.7073,3.8647,-4.8953,-4.8953,-3.9216,-2.9557,7.8431,11.429,6.6348,11.492,9.6618,9.7262,-1.095,-5.5873,8.867,4.7021
6.5719,12.504,13.724,0.0,-0.98522,3.7073,3.8647,-6.8277,-1.0306,0.0,-0.98522,11.765,16.190001,14.29,9.5873,11.594,11.659,-5.9259,2.9841,9.8522,10.499
7.5197,13.461,17.625999,0.0,0.0,3.7073,9.6618,-10.692,3.8003,0.0,0.0,14.706,20.952,21.945999,11.492,14.493,15.523,-8.8245,11.556,8.867,16.296
5.624,14.418,14.699,0.98039,4.9261,2.7317,11.594,-9.7262,6.6989,0.98039,4.9261,12.745,19.048,20.989,7.6825,10.628,13.591,-9.7907,10.603,3.9409,14.364
2.7804,5.8054,8.8455,-0.98039,1.9704,-1.1707,6.7633,-7.7939,-1.9968,-0.98039,1.9704,5.8824,15.238,16.204,1.9683,1.9324,6.8277,-4.9597,6.7937,0.98522,6.6345
-1.9589,-3.764,2.0163,-3.9216,-0.98522,-6.0488,-6.7633,-6.8277,-3.9291,-3.9216,-0.98522,-2.9412,9.5238,10.463,-3.746,-7.7295,0.06441,-3.9936,0.12698,-3.9409,-2.0612
-4.8025,-7.5917,-4.813,-0.98039,0.0,-7.0244,-10.628,-1.9968,-0.06441,-0.98039,0.0,-5.8824,3.8095,4.7209,-8.5079,-10.628,-6.6989,-4.9597,-6.5397,-5.9113,-4.9597
-7.6461,-7.5917,-8.7154,0.98039,-4.9261,-7.0244,-9.6618,1.868,-4.8953,0.98039,-4.9261,-8.8235,0.0,0.89314,-10.413,-8.6957,-9.5974,-2.0612,-13.206,-4.9261,-6.8921
-8.594,-6.6348,-8.7154,3.9216,0.0,-4.0976,-3.8647,7.6651,-2.963,3.9216,0.0,-6.8627,-4.7619,-2.9346,-11.365,-7.7295,-10.564,3.7359,-7.4921,-7.8818,-8.8245
-5.7504,-0.89314,-6.7642,3.9216,4.9261,-0.19512,3.8647,8.6312,1.868,3.9216,4.9261,-1.9608,-6.6667,-6.7624,-10.413,-5.7971,-10.564,5.6683,-5.5873,-7.8818,-8.8245
-2.9068,4.8485,-2.8618,3.9216,8.867,1.7561,8.6957,5.7327,4.7665,3.9216,8.867,1.9608,-5.7143,-5.8054,-4.6984,0.0,-4.7665,4.7021,3.9365,-5.9113,-3.9936
-1.9589,-2.807,-4.813,2.9412,5.9113,-0.19512,0.96618,1.868,-0.06441,2.9412,5.9113,0.0,-4.7619,-6.7624,-0.88889,-0.96618,-2.8341,-3.0274,11.556,-1.9704,-3.0274
0.88468,-4.7209,-2.8618,1.9608,0.98522,1.7561,-2.8986,0.90177,-1.9968,1.9608,0.98522,0.98039,-0.95238,-2.9346,3.873,3.8647,1.0306,6.6345,5.8413,1.9704,1.8035
4.6761,2.9346,1.0407,1.9608,0.0,3.7073,0.96618,-0.06441,-2.963,1.9608,0.0,2.9412,1.9048,1.8501,7.6825,11.594,7.7939,10.499,1.0794,5.9113,8.5668
5.624,2.9346,2.0163,1.9608,2.9557,6.6341,0.96618,-1.0306,-3.9291,1.9608,2.9557,4.902,1.9048,2.807,8.6349,12.56,8.7601,3.7359,-0.8254,3.9409,11.465
11.311,3.8915,7.8699,3.9216,3.9409,12.488,0.0,2.8341,-1.0306,3.9216,3.9409,9.8039,3.8095,5.6778,12.444,11.594,10.692,5.6683,2.0317,7.8818,10.499
15.103,6.7624,11.772,8.8235,3.9409,15.415,3.8647,6.6989,-2.963,8.8235,3.9409,13.725,3.8095,5.6778,13.397,8.6957,10.692,7.6006,4.8889,9.8522,8.5668
15.103,6.7624,12.748,8.8235,7.8818,16.389999,9.6618,6.6989,-1.9968,8.8235,7.8818,15.686,4.7619,4.7209,12.444,6.7633,9.7262,8.5668,-0.8254,8.867,8.5668
10.363,3.8915,9.8211,3.9216,3.9409,10.537,3.8647,-1.0306,-1.9968,3.9216,3.9409,9.8039,2.8571,2.807,10.54,7.7295,8.7601,1.8035,-3.6825,5.9113,9.533
5.624,1.9777,5.9187,0.98039,0.98522,4.6829,0.96618,-4.8953,-4.8953,0.98039,0.98522,4.902,2.8571,3.764,7.6825,9.6618,8.7601,-9.7907,-4.6349,3.9409,11.465
0.88468,3.8915,3.9675,-2.9412,-0.98522,-0.19512,0.0,-9.7262,1.868,-2.9412,-0.98522,-0.98039,6.6667,8.5486,5.7778,12.56,9.7262,-14.622,0.12698,1.9704,13.398
-2.9068,2.9346,2.0163,-5.8824,-0.98522,-7.0244,2.8986,-13.591,7.6651,-5.8824,-0.98522,-3.9216,9.5238,10.463,2.9206,11.594,8.7601,-12.689,12.508,-1.9704,11.465
-7.6461,1.9777,0.06504,-4.902,-1.9704,-10.927,2.8986,-13.591,9.5974,-4.902,-1.9704,-6.8627,9.5238,8.5486,-0.88889,4.8309,4.8953,-14.622,22.983999,-4.9261,5.6683
-5.7504,10.59,2.9919,-4.902,1.9704,-8.9756,2.8986,-13.591,9.5974,-4.902,1.9704,-5.8824,9.5238,7.5917,1.0159,6.7633,6.8277,-15.588,15.365,-1.9704,3.7359
-6.6983,11.547,2.9919,-4.902,0.0,-9.9512,1.9324,-11.659,8.6312,-4.902,0.0,-7.8431,6.6667,3.764,1.0159,8.6957,6.8277,-11.723,6.7937,-2.9557,2.7697
-6.6983,6.7624,2.9919,-3.9216,-0.98522,-9.9512,4.8309,-5.8615,8.6312,-3.9216,-0.98522,-8.8235,2.8571,-0.0638,0.06349,8.6957,4.8953,-8.8245,10.603,-3.9409,1.8035
-3.8547,2.9346,2.0163,-1.9608,-1.9704,-6.0488,1.9324,-0.06441,4.7665,-1.9608,-1.9704,-5.8824,-1.9048,-5.8054,-1.8413,4.8309,1.9968,-4.9597,3.9365,-3.9409,-1.095
-0.06319,1.0207,1.0407,0.98039,-2.9557,-2.1463,-0.96618,5.7327,-1.9968,0.98039,-2.9557,-1.9608,-3.8095,-7.7193,-0.88889,1.9324,0.06441,-0.12882,-9.3968,-2.9557,-4.9597
1.8325,-1.8501,1.0407,0.98039,-1.9704,-0.19512,-1.9324,8.6312,-2.963,0.98039,-1.9704,1.9608,-5.7143,-11.547,-1.8413,-3.8647,-2.8341,0.83736,-3.6825,-1.9704,-9.7907
1.8325,-0.89314,-0.91057,0.0,-1.9704,0.78049,0.96618,8.6312,-2.963,0.0,-1.9704,3.9216,-6.6667,-11.547,-1.8413,-6.7633,-4.7665,6.6345,4.8889,-0.98522,-8.8245
2.7804,-1.8501,-0.91057,2.9412,-0.98522,2.7317,0.96618,6.6989,-4.8953,2.9412,-0.98522,4.902,-5.7143,-8.6762,-0.88889,-6.7633,-4.7665,10.499,-6.5397,0.98522,-8.8245
3.7283,-1.8501,-1.8862,5.8824,0.98522,4.6829,-1.9324,7.6651,-7.7939,5.8824,0.98522,4.902,-3.8095,-5.8054,1.0159,-5.7971,-2.8341,11.465,-17.016001,3.9409,-7.8583
7.5197,0.0638,2.0163,9.8039,7.8818,8.5854,-1.9324,10.564,-8.7601,9.8039,7.8818,9.8039,1.9048,-1.0207,5.7778,-0.96618,1.9968,17.261999,-20.825001,9.8522,-5.9259
14.155,1.9777,10.797,16.667,14.778,17.365999,9.6618,16.361,-1.0306,16.667,14.778,19.608,6.6667,4.7209,11.492,4.8309,8.7601,20.160999,-17.016001,14.778,-2.0612
16.997999,8.6762,14.699,19.608,18.719,23.219999,22.222,16.361,1.868,19.608,18.719,26.471001,8.5714,9.5056,13.397,9.6618,10.692,16.296,-16.063,15.764,2.7697
12.259,10.59,11.772,14.706,13.793,20.292999,18.357,10.564,4.7665,14.706,13.793,23.528999,7.619,11.419,8.6349,7.7295,7.7939,7.6006,-5.5873,7.8818,5.6683
3.7283,5.8054,3.9675,6.8627,9.8522,8.5854,10.628,-0.06441,4.7665,6.8627,9.8522,13.725,2.8571,8.5486,1.0159,4.8309,2.963,-1.095,12.508,0.0,5.6683
-3.8547,2.9346,-2.8618,1.9608,5.9113,-2.1463,3.8647,-10.692,3.8003,1.9608,5.9113,3.9216,-1.9048,3.764,-3.746,3.8647,0.06441,-12.689,12.508,-6.8966,3.7359
-4.8025,2.9346,-5.7886,1.9608,8.867,-2.1463,7.7295,-9.7262,9.5974,1.9608,8.867,0.98039,-1.9048,3.764,-6.6032,2.8986,-0.90177,-7.8583,1.0794,-8.867,5.6683
-6.6983,-1.8501,-8.7154,1.9608,11.823,-3.122,6.7633,-7.7939,14.428,1.9608,11.823,-1.9608,-1.9048,3.764,-7.5556,0.96618,-3.8003,-8.8245,6.7937,-9.8522,9.533
-5.7504,-0.89314,-9.6911,-1.9608,10.837,-3.122,7.7295,-7.7939,15.395,-1.9608,10.837,-3.9216,-2.8571,3.764,-8.5079,1.9324,-4.7665,-14.622,11.556,-10.837,11.465
-3.8547,4.8485,-5.7886,0.98039,13.793,-2.1463,8.6957,-4.8953,19.259001,0.98039,13.793,-1.9608,-0.95238,4.7209,-4.6984,1.9324,-1.868,-11.723,22.983999,-9.8522,12.432
-3.8547,1.9777,-4.813,1.9608,9.8522,-3.122,6.7633,-8.7601,16.361,1.9608,9.8522,-1.9608,0.0,5.6778,-3.746,0.0,-1.868,-14.622,24.889,-9.8522,7.6006
-2.9068,1.0207,-4.813,1.9608,2.9557,-2.1463,3.8647,-9.7262,12.496,1.9608,2.9557,-3.9216,1.9048,8.5486,-3.746,1.9324,-0.90177,-12.689,17.27,-9.8522,7.6006
0.88468,7.7193,1.0407,0.98039,2.9557,1.7561,5.7971,-1.9968,6.6989,0.98039,2.9557,-1.9608,6.6667,13.333,1.9683,9.6618,4.8953,-13.655,16.316999,-3.9409,12.432
3.7283,11.547,5.9187,0.98039,4.9261,1.7561,4.8309,-1.0306,7.6651,0.98039,4.9261,-0.98039,8.5714,11.419,5.7778,12.56,7.7939,-9.7907,14.413,0.98522,10.499
6.5719,10.59,7.8699,4.902,3.9409,1.7561,3.8647,0.90177,9.5974,4.902,3.9409,0.0,6.6667,3.764,6.7302,8.6957,6.8277,-1.095,2.9841,4.9261,3.7359
8.4676,10.59,8.8455,6.8627,5.9113,2.7317,6.7633,2.8341,6.6989,6.8627,5.9113,1.9608,7.619,-0.0638,7.6825,4.8309,5.8615,6.6345,-3.6825,8.867,-2.0612
6.5719,2.9346,4.9431,3.9216,0.98522,3.7073,1.9324,6.6989,1.868,3.9216,0.98522,0.0,5.7143,-2.9346,5.7778,0.96618,2.963,5.6683,-0.8254,8.867,-4.9597
2.7804,-6.6348,-0.91057,-1.9608,-4.9261,0.78049,-4.8309,2.8341,-2.963,-1.9608,-4.9261,-2.9412,5.7143,-1.0207,1.9683,-1.9324,0.06441,5.6683,2.9841,8.867,-5.9259
0.88468,-4.7209,-1.8862,-5.8824,-4.9261,-0.19512,-9.6618,-2.963,-5.8615,-5.8824,-4.9261,-4.902,5.7143,3.764,1.0159,0.96618,1.9968,6.6345,-2.7302,9.8522,-2.0612
1.8325,1.0207,2.0163,-3.9216,-3.9409,-0.19512,-6.7633,-1.9968,-4.8953,-3.9216,-3.9409,-2.9412,4.7619,5.6778,1.9683,1.9324,2.963,11.465,-6.5397,10.837,0.83736
-0.06319,0.0638,1.0407,-2.9412,-6.8966,-3.122,-3.8647,-0.06441,-4.8953,-2.9412,-6.8966,-2.9412,2.8571,3.764,0.06349,0.0,1.0306,7.6006,-8.4444,9.8522,-0.12882
-1.9589,-1.8501,-2.8618,-1.9608,-6.8966,-4.0976,-1.9324,-0.06441,-8.7601,-1.9608,-6.8966,-2.9412,-1.9048,0.89314,-2.7937,-0.96618,-2.8341,2.7697,-9.3968,6.8966,-0.12882
-6.6983,-9.5056,-9.6911,-4.902,-5.9113,-5.0732,-5.7971,-1.9968,-7.7939,-4.902,-5.9113,-4.902,-4.7619,-3.8915,-7.5556,-7.7295,-6.6989,5.6683,-3.6825,1.9704,-3.0274
-8.594,-16.204,-13.593,-6.8627,-8.867,-7.0244,-9.6618,-3.9291,-9.7262,-6.8627,-8.867,-8.8235,-7.619,-7.7193,-9.4603,-14.493,-10.564,9.533,-7.4921,0.98522,-7.8583
-9.5419,-12.376,-13.593,-11.765,-15.764,-10.927,-12.56,-5.8615,-14.557,-11.765,-15.764,-11.765,-9.5238,-8.6762,-10.413,-13.527,-12.496,4.7021,-11.302,-0.98522,-5.9259
-13.333,-12.376,-17.496,-5.8824,-5.9113,-12.878,-8.6957,-1.9968,-5.8615,-5.8824,-5.9113,-11.765,-16.190001,-10.59,-16.127001,-14.493,-17.327,-0.12882,2.0317,-6.8966,-3.9936
-14.281,-15.247,-18.472,-1.9608,-1.9704,-11.902,-7.7295,-2.963,-1.0306,-1.9608,-1.9704,-11.765,-21.905001,-14.418,-19.937,-16.424999,-21.191999,-4.9597,7.746,-13.793,-4.9597
-14.281,-11.419,-15.545,-5.8824,-0.98522,-12.878,-11.594,-4.8953,1.868,-5.8824,-0.98522,-11.765,-22.857,-16.332001,-18.032,-12.56,-20.225,-6.8921,-0.8254,-13.793,-3.9936
-15.229,-8.5486,-14.569,-9.8039,0.98522,-15.805,-9.6618,-7.7939,3.8003,-9.8039,0.98522,-13.725,-22.857,-19.202999,-16.127001,-10.628,-19.259001,-13.655,-5.5873,-13.793,-4.9597
-11.438,-3.764,-8.7154,-10.784,2.9557,-16.780001,-0.96618,-9.7262,9.5974,-10.784,2.9557,-11.765,-19.048,-20.159,-10.413,-8.6957,-15.395,-17.52,12.508,-11.823,-5.9259
-4.8025,7.7193,0.06504,-3.9216,5.9113,-9.9512,9.6618,-5.8615,13.462,-3.9216,5.9113,-3.9216,-16.190001,-17.289,-5.6508,-2.8986,-8.6312,-3.9936,19.174999,-10.837,-3.9936
-1.9589,8.6762,3.9675,0.98039,6.8966,-3.122,10.628,-1.0306,14.428,0.98039,6.8966,1.9608,-13.333,-16.332001,-2.7937,-0.96618,-4.7665,3.7359,13.46,-8.867,-6.8921
2.7804,7.7193,6.8943,3.9216,9.8522,5.6585,9.6618,3.8003,14.428,3.9216,9.8522,7.8431,-11.429,-15.375,0.06349,0.96618,-1.868,1.8035,13.46,-5.9113,-7.8583
9.4155,13.461,13.724,12.745,13.793,11.512,13.527,4.7665,14.428,12.745,13.793,15.686,-4.7619,-9.6332,6.7302,5.7971,5.8615,1.8035,23.937,0.98522,-5.9259
15.103,14.418,18.601999,14.706,11.823,13.463,12.56,3.8003,6.6989,14.706,11.823,17.646999,3.8095,-1.9777,14.349,8.6957,12.625,-1.095,-1.7778,7.8818,-3.9936
16.051001,11.547,17.625999,11.765,7.8818,15.415,8.6957,7.6651,2.8341,11.765,7.8818,17.646999,13.333,7.5917,18.159,8.6957,16.49,2.7697,-21.778,12.808,-2.0612
13.207,9.6332,15.675,6.8627,5.9113,13.463,7.7295,1.868,0.90177,6.8627,5.9113,15.686,18.094999,14.29,17.205999,7.7295,16.49,-4.9597,-8.4444,13.793,1.8035
8.4676,9.6332,10.797,6.8627,3.9409,7.6098,8.6957,-1.9968,1.868,6.8627,3.9409,10.784,18.094999,17.160999,12.444,6.7633,14.557,-3.9936,-1.7778,12.808,5.6683
2.7804,1.9777,2.9919,8.8235,3.9409,3.7073,5.7971,-3.9291,-0.06441,8.8235,3.9409,3.9216,13.333,15.247,5.7778,0.96618,7.7939,-6.8921,-2.7302,6.8966,4.7021
-0.06319,-3.764,-0.91057,1.9608,-1.9704,0.78049,-4.8309,-12.625,-5.8615,1.9608,-1.9704,-0.98039,13.333,14.29,5.7778,-0.96618,4.8953,-9.7907,0.12698,6.8966,5.6683
-1.9589,-7.5917,-2.8618,-9.8039,-8.867,-6.0488,-9.6618,-21.32,-10.692,-9.8039,-8.867,-4.902,11.429,12.376,4.8254,0.0,4.8953,-9.7907,4.8889,8.867,6.6345
-8.594,-13.333,-8.7154,-16.667,-12.808,-12.878,-16.424999,-20.354,-15.523,-16.667,-12.808,-12.745,1.9048,1.8501,-1.8413,-4.8309,-1.868,-9.7907,-11.302,2.9557,0.83736
-12.385,-18.118,-15.545,-15.686,-15.764,-16.780001,-18.357,-17.455999,-17.455999,-15.686,-15.764,-17.646999,-3.8095,-6.7624,-6.6032,-10.628,-8.6312,-10.757,-14.159,0.98522,-3.9936
-18.073,-20.989,-22.374001,-10.784,-15.764,-18.732,-18.357,-11.659,-13.591,-10.784,-15.764,-21.569,-9.5238,-13.461,-12.317,-17.391001,-15.395,-11.723,2.0317,-5.9113,-6.8921
-17.125,-20.032,-22.374001,-5.8824,-10.837,-13.854,-16.424999,-1.9968,-5.8615,-5.8824,-10.837,-18.627001,-11.429,-16.332001,-13.27,-18.357,-18.292999,-13.655,3.9365,-6.8966,-8.8245
-11.438,-14.29,-16.52,-0.98039,-2.9557,-5.0732,-12.56,7.6651,-1.9968,-0.98039,-2.9557,-10.784,-13.333,-19.202999,-12.317,-15.459,-18.292999,1.8035,1.0794,-6.8966,-9.7907
-5.7504,-9.5056,-9.6911,6.8627,0.0,0.78049,-7.7295,15.395,0.90177,6.8627,0.0,-3.9216,-14.286,-20.159,-11.365,-13.527,-17.327,12.432,7.746,-5.9113,-10.757
-1.0111,-1.8501,-2.8618,12.745,3.9409,4.6829,0.0,19.259001,5.7327,12.745,3.9409,2.9412,-12.381,-17.289,-8.5079,-7.7295,-12.496,12.432,2.9841,-2.9557,-8.8245
1.8325,1.0207,-1.8862,10.784,4.9261,4.6829,5.7971,20.225,7.6651,10.784,4.9261,2.9412,-8.5714,-12.504,-4.6984,-1.9324,-7.6651,13.398,-6.5397,0.0,-5.9259
1.8325,-2.807,-1.8862,5.8824,2.9557,4.6829,5.7971,18.292999,4.7665,5.8824,2.9557,0.98039,-8.5714,-8.6762,-5.6508,-2.8986,-7.6651,17.261999,-6.5397,-1.9704,-4.9597
3.7283,-3.764,0.06504,6.8627,1.9704,6.6341,2.8986,20.225,2.8341,6.8627,1.9704,2.9412,-10.476,-7.7193,-6.6032,-5.7971,-9.5974,18.229,0.12698,-1.9704,-6.8921
4.6761,-0.89314,2.0163,10.784,1.9704,7.6098,5.7971,21.191999,1.868,10.784,1.9704,5.8824,-9.5238,-3.8915,-5.6508,-4.8309,-7.6651,20.160999,-0.8254,-3.9409,-3.9936
5.624,-3.764,2.0163,8.8235,2.9557,8.5854,1.9324,21.191999,-2.963,8.8235,2.9557,5.8824,-5.7143,-1.9777,-3.746,-7.7295,-7.6651,14.364,-9.3968,-3.9409,-5.9259
6.5719,-6.6348,3.9675,3.9216,-0.98522,9.561,0.0,20.225,-6.8277,3.9216,-0.98522,5.8824,-2.8571,-0.0638,-0.88889,-10.628,-4.7665,13.398,-17.016001,-2.9557,-7.8583
8.4676,-2.807,5.9187,4.902,0.0,9.561,-1.9324,19.259001,-5.8615,4.902,0.0,6.8627,1.9048,4.7209,1.9683,-6.7633,-0.90177,17.261999,-15.111,-1.9704,-3.0274
10.363,-0.89314,7.8699,6.8627,3.9409,10.537,-1.9324,18.292999,-2.963,6.8627,3.9409,6.8627,4.7619,8.5486,4.8254,-2.8986,3.9291,13.398,0.12698,0.0,1.8035
7.5197,-1.8501,5.9187,4.902,0.98522,6.6341,0.0,12.496,-3.9291,4.902,0.98522,4.902,2.8571,5.6778,2.9206,-1.9324,3.9291,4.7021,3.9365,-3.9409,1.8035
1.8325,-4.7209,1.0407,0.98039,0.0,-1.1707,1.9324,4.7665,-2.963,0.98039,0.0,0.98039,0.0,-0.0638,-0.88889,-4.8309,0.06441,-2.0612,-10.349,-8.867,-1.095
-2.9068,-5.6778,-2.8618,-1.9608,0.98522,-4.0976,0.0,-0.06441,-0.06441,-1.9608,0.98522,-1.9608,-1.9048,-2.9346,-3.746,-5.7971,-1.868,-3.9936,-9.3968,-9.8522,-3.0274
-2.9068,0.0638,-1.8862,-2.9412,0.98522,-2.1463,0.96618,1.868,0.90177,-2.9412,0.98522,-1.9608,-1.9048,-1.9777,-3.746,0.0,0.06441,1.8035,2.0317,-8.867,-0.12882
-4.8025,-1.8501,-2.8618,-0.98039,-0.98522,-1.1707,0.96618,3.8003,-1.9968,-0.98039,-0.98522,-2.9412,-4.7619,-5.8054,-5.6508,-2.8986,-1.868,0.83736,-2.7302,-8.867,-3.9936
-6.6983,-8.5486,-7.7398,-2.9412,-2.9557,-3.122,-6.7633,3.8003,-4.8953,-2.9412,-2.9557,-5.8824,-8.5714,-10.59,-8.5079,-5.7971,-5.7327,-3.0274,-10.349,-7.8818,-5.9259
-9.5419,-14.29,-12.618,-7.8431,-6.8966,-6.0488,-13.527,3.8003,-4.8953,-7.8431,-6.8966,-9.8039,-10.476,-14.418,-10.413,-8.6957,-9.5974,1.8035,-1.7778,-6.8966,-7.8583
-10.49,-16.204,-16.52,-9.8039,-6.8966,-7.0244,-14.493,4.7665,-1.9968,-9.8039,-6.8966,-11.765,-11.429,-15.375,-13.27,-13.527,-14.428,9.533,2.9841,-6.8966,-9.7907
-7.6461,-12.376,-15.545,-6.8627,-6.8966,-5.0732,-8.6957,5.7327,-5.8615,-6.8627,-6.8966,-10.784,-10.476,-13.461,-11.365,-15.459,-15.395,13.398,-8.4444,-3.9409,-9.7907
-7.6461,-13.333,-14.569,-4.902,-9.8522,-4.0976,-8.6957,5.7327,-9.7262,-4.902,-9.8522,-10.784,-8.5714,-10.59,-10.413,-14.493,-15.395,10.499,-9.3968,-0.98522,-9.7907
-3.8547,-14.29,-11.642,0.0,-8.867,0.78049,-7.7295,9.5974,-7.7939,0.0,-8.867,-7.8431,-5.7143,-6.7624,-7.5556,-11.594,-11.53,14.364,-7.4921,1.9704,-6.8921
-3.8547,-16.204,-11.642,-0.98039,-8.867,-0.19512,-10.628,8.6312,-7.7939,-0.98039,-8.867,-8.8235,-4.7619,-6.7624,-6.6032,-12.56,-11.53,16.296,-9.3968,2.9557,-10.757
-4.8025,-15.247,-11.642,-2.9412,-9.8522,-0.19512,-9.6618,10.564,-9.7262,-2.9412,-9.8522,-9.8039,-3.8095,-5.8054,-7.5556,-13.527,-11.53,17.261999,-8.4444,2.9557,-11.723
-1.9589,-10.463,-8.7154,-1.9608,-8.867,1.7561,-9.6618,13.462,-10.692,-1.9608,-8.867,-6.8627,-2.8571,-1.9777,-4.6984,-9.6618,-8.6312,15.33,-13.206,4.9261,-9.7907
-0.06319,-7.5917,-5.7886,-1.9608,-6.8966,4.6829,-7.7295,13.462,-10.692,-1.9608,-6.8966,-3.9216,-2.8571,-0.0638,-3.746,-5.7971,-6.6989,17.261999,-16.063,4.9261,-8.8245
1.8325,-5.6778,-3.8374,0.0,-4.9261,3.7073,-7.7295,9.5974,-9.7262,0.0,-4.9261,-3.9216,0.0,2.807,-0.88889,-2.8986,-3.8003,13.398,-3.6825,6.8966,-5.9259
0.88468,-6.6348,-4.813,-0.98039,-5.9113,-1.1707,-7.7295,4.7665,-7.7939,-0.98039,-5.9113,-5.8824,0.95238,4.7209,0.06349,0.0,-0.90177,7.6006,6.7937,4.9261,-0.12882
-1.9589,-9.5056,-7.7398,-3.9216,-6.8966,-3.122,-9.6618,0.90177,-4.8953,-3.9216,-6.8966,-8.8235,-0.95238,4.7209,-0.88889,0.0,-1.868,8.5668,-0.8254,0.98522,1.8035
-3.8547,-8.5486,-7.7398,-4.902,-4.9261,-3.122,-8.6957,-1.9968,-4.8953,-4.902,-4.9261,-8.8235,-1.9048,3.764,-2.7937,-0.96618,-2.8341,7.6006,-11.302,-1.9704,1.8035
-5.7504,-7.5917,-7.7398,-4.902,-3.9409,-4.0976,-6.7633,-2.963,-3.9291,-4.902,-3.9409,-7.8431,-3.8095,1.8501,-5.6508,0.0,-4.7665,0.83736,-10.349,-4.9261,5.6683
-5.7504,-6.6348,-6.7642,-6.8627,-4.9261,-5.0732,-3.8647,-1.9968,-2.963,-6.8627,-4.9261,-6.8627,-4.7619,-0.0638,-5.6508,0.96618,-3.8003,0.83736,-5.5873,-4.9261,4.7021
-2.9068,-0.89314,-1.8862,-5.8824,-0.98522,-5.0732,-0.96618,-3.9291,-1.0306,-5.8824,-0.98522,-4.902,0.0,1.8501,-0.88889,5.7971,1.0306,2.7697,-8.4444,-1.9704,4.7021
3.7283,7.7193,6.8943,0.0,6.8966,-1.1707,3.8647,-4.8953,8.6312,0.0,6.8966,1.9608,7.619,10.463,7.6825,15.459,11.659,-0.12882,6.7937,4.9261,11.465
10.363,13.461,15.675,1.9608,7.8818,5.6585,4.8309,-6.8277,11.53,1.9608,7.8818,7.8431,13.333,15.247,15.302,21.256001,19.388,1.8035,19.174999,8.867,16.296
12.259,16.332001,18.601999,0.0,7.8818,9.561,5.7971,-6.8277,10.564,0.0,7.8818,10.784,13.333,14.29,17.205999,21.256001,21.32,-3.0274,15.365,7.8818,17.261999
14.155,22.073,20.552999,4.902,8.867,7.6098,12.56,-5.8615,9.5974,4.902,8.867,12.745,13.333,14.29,18.159,23.188,21.32,-5.9259,13.46,9.8522,20.160999
10.363,17.289,16.65,2.9412,4.9261,2.7317,11.594,-7.7939,6.6989,2.9412,4.9261,10.784,12.381,13.333,16.254,18.357,18.422001,0.83736,9.6508,6.8966,16.296
5.624,8.6762,8.8455,0.98039,1.9704,1.7561,5.7971,-3.9291,4.7665,0.98039,1.9704,5.8824,10.476,9.5056,12.444,10.628,11.659,3.7359,6.7937,4.9261,11.465
0.88468,1.0207,0.06504,0.0,-1.9704,1.7561,0.0,0.90177,0.90177,0.0,-1.9704,1.9608,2.8571,0.89314,5.7778,0.0,2.963,3.7359,-2.7302,2.9557,-0.12882
0.88468,-2.807,-1.8862,-1.9608,-3.9409,3.7073,1.9324,2.8341,-5.8615,-1.9608,-3.9409,1.9608,-1.9048,-5.8054,1.0159,-7.7295,-3.8003,6.6345,-3.6825,2.9557,-6.8921
0.88468,-3.764,-1.8862,3.9216,0.0,5.6585,0.0,7.6651,-3.9291,3.9216,0.0,1.9608,-3.8095,-9.6332,-1.8413,-8.6957,-6.6989,9.533,-0.8254,0.98522,-10.757
1.8325,-2.807,-1.8862,6.8627,0.98522,4.6829,0.0,8.6312,0.90177,6.8627,0.98522,1.9608,-4.7619,-9.6332,-1.8413,-7.7295,-5.7327,1.8035,2.9841,0.98522,-8.8245
-1.0111,-2.807,-2.8618,4.902,-1.9704,1.7561,-5.7971,4.7665,-3.9291,4.902,-1.9704,-0.98039,-6.6667,-10.59,-3.746,-8.6957,-5.7327,-3.0274,-6.5397,0.0,-7.8583
-6.6983,-10.463,-7.7398,1.9608,-4.9261,-2.1463,-9.6618,-0.06441,-7.7939,1.9608,-4.9261,-4.902,-8.5714,-11.547,-6.6032,-10.628,-7.6651,-1.095,-21.778,-2.9557,-8.8245
-7.6461,-12.376,-9.6911,-2.9412,-8.867,-5.0732,-6.7633,0.90177,-4.8953,-2.9412,-8.867,-6.8627,-7.619,-9.6332,-7.5556,-7.7295,-7.6651,-5.9259,-15.111,-2.9557,-4.9597
-8.594,-13.333,-11.642,-3.9216,-9.8522,-6.0488,-9.6618,-1.0306,-5.8615,-3.9216,-9.8522,-8.8235,-8.5714,-10.59,-11.365,-9.6618,-9.5974,-3.0274,-9.3968,-4.9261,-5.9259
-14.281,-15.247,-16.52,-8.8235,-11.823,-8.9756,-14.493,-4.8953,-8.7601,-8.8235,-11.823,-12.745,-12.381,-11.547,-17.079,-12.56,-14.428,-3.9936,-5.5873,-14.778,-7.8583
-14.281,-11.419,-14.569,-7.8431,-7.8818,-8.9756,-4.8309,-2.963,-3.9291,-7.8431,-7.8818,-8.8235,-11.429,-9.6332,-16.127001,-10.628,-13.462,-7.8583,8.6984,-15.764,-3.9936
-11.438,-5.6778,-11.642,-3.9216,-3.9409,-8.0,0.0,-0.06441,-2.963,-3.9216,-3.9409,-5.8824,-8.5714,-7.7193,-12.317,-6.7633,-9.5974,-7.8583,4.8889,-12.808,-1.095
-7.6461,-0.89314,-5.7886,-3.9216,-1.9704,-5.0732,-0.96618,1.868,0.90177,-3.9216,-1.9704,-3.9216,-5.7143,-3.8915,-8.5079,0.0,-4.7665,-8.8245,-1.7778,-8.867,0.83736
-4.8025,2.9346,-1.8862,0.0,-1.9704,-2.1463,-0.96618,1.868,-1.0306,0.0,-1.9704,-1.9608,-5.7143,-3.8915,-5.6508,2.8986,-1.868,-8.8245,-9.3968,-5.9113,1.8035
-1.0111,3.8915,2.0163,0.98039,-1.9704,1.7561,-2.8986,0.90177,-3.9291,0.98039,-1.9704,0.0,-3.8095,-1.0207,-0.88889,3.8647,1.9968,-6.8921,-4.6349,-0.98522,1.8035
-0.06319,-2.807,1.0407,-2.9412,-4.9261,-2.1463,-3.8647,-1.0306,-6.8277,-2.9412,-4.9261,-0.98039,-1.9048,0.89314,1.9683,0.0,1.9968,-8.8245,1.0794,2.9557,-2.0612
-1.9589,-6.6348,-0.91057,-6.8627,-9.8522,-8.0,-4.8309,-6.8277,-8.7601,-6.8627,-9.8522,-4.902,1.9048,2.807,2.9206,-0.96618,2.963,4.7021,2.0317,4.9261,-4.9597
-0.06319,-0.89314,3.9675,-3.9216,-6.8966,-7.0244,-0.96618,-4.8953,-8.7601,-3.9216,-6.8966,-3.9216,7.619,5.6778,6.7302,2.8986,6.8277,10.499,-0.8254,8.867,-2.0612
1.8325,2.9346,5.9187,-2.9412,-2.9557,-4.0976,-1.9324,-2.963,-2.963,-2.9412,-2.9557,-1.9608,11.429,8.5486,9.5873,6.7633,9.7262,4.7021,-13.206,11.823,1.8035
3.7283,3.8915,7.8699,-0.98039,-1.9704,-0.19512,-2.8986,-1.0306,-6.8277,-0.98039,-1.9704,-0.98039,14.286,10.463,12.444,8.6957,12.625,4.7021,-8.4444,12.808,4.7021
1.8325,-0.89314,5.9187,-1.9608,-5.9113,-0.19512,-8.6957,-3.9291,-10.692,-1.9608,-5.9113,-2.9412,10.476,8.5486,9.5873,4.8309,9.7262,2.7697,1.0794,10.837,3.7359
-1.9589,-4.7209,1.0407,-3.9216,-8.867,-3.122,-6.7633,-6.8277,-9.7262,-3.9216,-8.867,-4.902,6.6667,4.7209,3.873,-0.96618,4.8953,1.8035,5.8413,6.8966,1.8035
-7.6461,-12.376,-6.7642,-6.8627,-8.867,-7.0244,-12.56,-7.7939,-7.7939,-6.8627,-8.867,-8.8235,1.9048,0.89314,-2.7937,-6.7633,-2.8341,-7.8583,-6.5397,0.98522,-2.0612
-11.438,-17.160999,-11.642,-9.8039,-9.8522,-11.902,-12.56,-13.591,-5.8615,-9.8039,-9.8522,-12.745,0.95238,-1.0207,-7.5556,-10.628,-7.6651,-13.655,-4.6349,-1.9704,-3.0274
-11.438,-12.376,-10.667,-11.765,-10.837,-14.829,-7.7295,-16.49,-5.8615,-11.765,-10.837,-12.745,0.0,-1.9777,-7.5556,-8.6957,-7.6651,-8.8245,-0.8254,-0.98522,-3.0274
-2.9068,-2.807,-1.8862,-8.8235,-5.9113,-9.9512,-1.9324,-12.625,-2.963,-8.8235,-5.9113,-5.8824,1.9048,-1.0207,-0.88889,-1.9324,-0.90177,-6.8921,2.0317,2.9557,0.83736
-0.06319,2.9346,2.9919,-7.8431,0.0,-6.0488,0.0,-10.692,0.90177,-7.8431,0.0,-0.98039,1.9048,-2.9346,1.9683,1.9324,1.9968,-3.9936,2.0317,3.9409,0.83736
-1.9589,4.8485,2.0163,-6.8627,0.98522,-4.0976,3.8647,-9.7262,5.7327,-6.8627,0.98522,1.9608,0.95238,-2.9346,1.0159,2.8986,2.963,-3.0274,0.12698,0.98522,-1.095
1.8325,9.6332,6.8943,-4.902,3.9409,-2.1463,10.628,-10.692,3.8003,-4.902,3.9409,5.8824,3.8095,-0.0638,4.8254,5.7971,6.8277,-3.9936,5.8413,2.9557,0.83736
4.6761,12.504,10.797,-2.9412,3.9409,0.78049,8.6957,-10.692,-0.06441,-2.9412,3.9409,8.8235,3.8095,1.8501,6.7302,8.6957,8.7601,-7.8583,8.6984,2.9557,2.7697
6.5719,9.6332,11.772,-4.902,1.9704,0.78049,7.7295,-12.625,2.8341,-4.902,1.9704,11.765,3.8095,3.764,6.7302,9.6618,8.7601,-9.7907,5.8413,2.9557,2.7697
3.7283,12.504,10.797,-6.8627,0.0,-2.1463,4.8309,-16.49,5.7327,-6.8627,0.0,7.8431,4.7619,7.5917,5.7778,13.527,9.7262,-9.7907,1.0794,0.0,4.7021
5.624,16.332001,12.748,-3.9216,2.9557,-2.1463,6.7633,-13.591,3.8003,-3.9216,2.9557,6.8627,7.619,12.376,8.6349,16.424999,12.625,-11.723,7.746,0.98522,8.5668
11.311,19.202999,18.601999,-0.98039,3.9409,1.7561,12.56,-10.692,5.7327,-0.98039,3.9409,7.8431,14.286,18.118,16.254,18.357,18.422001,-11.723,15.365,5.9113,10.499
16.051001,21.115999,23.48,0.98039,7.8818,6.6341,17.391001,-10.692,8.6312,0.98039,7.8818,10.784,19.048,20.989,21.968,21.256001,23.253,-9.7907,0.12698,9.8522,13.398
17.945999,18.246,24.455,3.9216,11.823,9.561,15.459,-8.7601,13.462,3.9216,11.823,11.765,21.905001,24.816999,22.921,22.222,25.184999,-8.8245,2.9841,9.8522,16.296
19.841999,21.115999,28.358,2.9412,11.823,10.537,14.493,-6.8277,14.428,2.9412,11.823,14.706,24.761999,31.514999,24.825001,27.052999,28.084,-6.8921,10.603,11.823,22.093
18.893999,23.987,26.407,0.0,10.837,8.5854,12.56,-9.7262,13.462,0.0,10.837,13.725,23.809999,29.601,21.968,27.052999,27.118,-10.757,14.413,9.8522,21.127001
14.155,21.115999,20.552999,-2.9412,5.9113,6.6341,12.56,-16.49,10.564,-2.9412,5.9113,9.8039,19.048,22.903,18.159,20.290001,21.32,-12.689,22.032,8.867,16.296
9.4155,10.59,13.724,-2.9412,3.9409,5.6585,7.7295,-15.523,8.6312,-2.9412,3.9409,5.8824,14.286,16.204,12.444,12.56,13.591,-5.9259,16.316999,3.9409,10.499
4.6761,4.8485,6.8943,1.9608,6.8966,1.7561,4.8309,-11.659,10.564,1.9608,6.8966,2.9412,10.476,12.376,7.6825,8.6957,8.7601,-4.9597,13.46,0.0,9.533
-1.0111,6.7624,2.0163,5.8824,8.867,0.78049,7.7295,-5.8615,10.564,5.8824,8.867,1.9608,4.7619,7.5917,1.9683,6.7633,4.8953,-8.8245,15.365,-4.9261,8.5668
-0.06319,6.7624,2.0163,10.784,7.8818,5.6585,8.6957,3.8003,9.5974,10.784,7.8818,6.8627,-0.95238,2.807,-0.88889,3.8647,1.0306,-10.757,5.8413,-5.9113,5.6683
2.7804,9.6332,5.9187,16.667,10.837,12.488,9.6618,9.5974,9.5974,16.667,10.837,12.745,-4.7619,-0.0638,-0.88889,4.8309,0.06441,-10.757,-2.7302,-5.9113,5.6683
2.7804,9.6332,6.8943,18.627001,11.823,11.512,4.8309,10.564,3.8003,18.627001,11.823,13.725,-5.7143,-2.9346,-1.8413,3.8647,-0.90177,-2.0612,2.0317,-5.9113,1.8035
4.6761,10.59,6.8943,17.646999,13.793,10.537,8.6957,13.462,4.7665,17.646999,13.793,14.706,-4.7619,-5.8054,1.0159,1.9324,0.06441,2.7697,7.746,-1.9704,-2.0612
6.5719,10.59,6.8943,14.706,9.8522,12.488,10.628,12.496,2.8341,14.706,9.8522,14.706,-1.9048,-4.8485,1.9683,3.8647,1.0306,2.7697,1.0794,2.9557,0.83736
6.5719,9.6332,4.9431,12.745,6.8966,13.463,9.6618,13.462,-0.06441,12.745,6.8966,12.745,-2.8571,-3.8915,0.06349,2.8986,0.06441,11.465,4.8889,0.98522,1.8035
3.7283,2.9346,2.9919,12.745,4.9261,10.537,6.7633,15.395,-2.963,12.745,4.9261,9.8039,-1.9048,-1.0207,-0.88889,0.0,-0.90177,12.432,5.8413,0.98522,-1.095
1.8325,-3.764,0.06504,11.765,4.9261,6.6341,1.9324,14.428,-6.8277,11.765,4.9261,5.8824,-0.95238,1.8501,-3.746,-2.8986,-0.90177,11.465,-6.5397,-1.9704,-1.095
1.8325,-1.8501,-0.91057,9.8039,5.9113,6.6341,2.8986,15.395,-1.9968,9.8039,5.9113,4.902,0.0,3.764,-2.7937,-1.9324,0.06441,7.6006,-13.206,-2.9557,-1.095
-0.06319,0.0638,-1.8862,6.8627,3.9409,4.6829,1.9324,13.462,-1.9968,6.8627,3.9409,2.9412,0.0,3.764,-2.7937,-1.9324,0.06441,3.7359,-9.3968,-2.9557,0.83736
-4.8025,-4.7209,-6.7642,0.0,0.0,-2.1463,-1.9324,3.8003,-0.06441,0.0,0.0,-4.902,-4.7619,-2.9346,-6.6032,-7.7295,-5.7327,-4.9597,-8.4444,-5.9113,-3.9936
-6.6983,-4.7209,-9.6911,-2.9412,-1.9704,-6.0488,-2.8986,-1.0306,3.8003,-2.9412,-1.9704,-7.8431,-8.5714,-8.6762,-8.5079,-9.6618,-8.6312,-3.9936,11.556,-5.9113,-6.8921
-7.6461,-5.6778,-10.667,-5.8824,-0.98522,-7.0244,-0.96618,-0.06441,9.5974,-5.8824,-0.98522,-8.8235,-10.476,-11.547,-10.413,-9.6618,-9.5974,2.7697,22.032,-7.8818,-5.9259
-3.8547,1.9777,-5.7886,-5.8824,1.9704,-6.0488,2.8986,-0.06441,12.496,-5.8824,1.9704,-5.8824,-6.6667,-6.7624,-5.6508,-2.8986,-4.7665,4.7021,7.746,-4.9261,-0.12882
0.88468,1.9777,-1.8862,-4.902,2.9557,-4.0976,-0.96618,-0.06441,7.6651,-4.902,2.9557,-5.8824,-2.8571,-1.9777,-0.88889,3.8647,1.0306,3.7359,-6.5397,-0.98522,2.7697
-1.9589,-2.807,-3.8374,-7.8431,-0.98522,-5.0732,-3.8647,-0.06441,6.6989,-7.8431,-0.98522,-6.8627,-4.7619,-4.8485,-3.746,1.9324,-0.90177,5.6683,4.8889,-3.9409,0.83736
-3.8547,-0.89314,-5.7886,-4.902,-1.9704,-5.0732,-1.9324,-1.0306,4.7665,-4.902,-1.9704,-6.8627,-5.7143,-6.7624,-5.6508,0.0,-3.8003,8.5668,17.27,-1.9704,0.83736
-7.6461,-1.8501,-8.7154,-3.9216,-4.9261,-6.0488,-2.8986,-1.0306,-0.06441,-3.9216,-4.9261,-7.8431,-7.619,-10.59,-8.5079,-3.8647,-7.6651,4.7021,-3.6825,-3.9409,-4.9597
-7.6461,-3.764,-9.6911,-5.8824,-6.8966,-5.0732,-2.8986,1.868,-1.9968,-5.8824,-6.8966,-8.8235,-8.5714,-13.461,-8.5079,-6.7633,-9.5974,9.533,-7.4921,-5.9113,-9.7907
