C3,C4,Cz,F1,F2,F3,F4,F7,F8,Fp1,Fp2,Fz,O1,O2,P3,P4,Pz,T3,T4,T5,T6
13.207,0.06349,13.592,-1.9608,-9.8522,9.4686,0.97087,8.6731,-16.65,-1.9608,-9.8522,-2.9412,4.7847,3.746,1.9683,2.8846,12.625,4.6795,-20.889,3.9216,-1.095
15.103,4.8254,17.476,0.98039,-4.9261,7.5362,2.9126,5.7605,-13.724,0.98039,-4.9261,-1.9608,9.5694,10.413,5.7778,5.7692,15.523,-3.0128,-13.27,0.98039,7.6006
17.945999,7.6825,20.388,0.0,0.0,9.4686,5.8252,2.8479,-9.8211,0.0,0.0,0.0,17.225,18.032,14.349,12.5,19.388,-6.859,-12.317,4.902,13.398
20.790001,8.6349,24.271999,0.0,0.0,12.367,6.7961,3.8188,-9.8211,0.0,0.0,1.9608,22.01,23.746,23.872999,18.268999,23.253,-2.0513,-11.365,10.784,19.195
19.841999,8.6349,26.214001,-0.98039,1.9704,8.5024,6.7961,0.90615,-10.797,-0.98039,1.9704,1.9608,23.923,23.746,26.73,22.115,25.184999,-0.12821,-7.5556,12.745,22.093
19.841999,10.54,28.155001,-0.98039,-4.9261,11.401,4.8544,3.8188,-10.797,-0.98039,-4.9261,2.9412,23.923,20.889,26.73,23.077,26.150999,-1.0897,-6.6032,14.706,21.127001
18.893999,10.54,27.184,-6.8627,-3.9409,10.435,5.8252,2.8479,-7.8699,-6.8627,-3.9409,3.9216,22.966999,15.175,27.683001,19.231001,24.219,2.7564,-9.4603,20.587999,15.33
14.155,8.6349,18.447001,-5.8824,-3.9409,3.6715,3.8835,-0.06472,-10.797,-5.8824,-3.9409,0.98039,18.181999,5.6508,22.921,12.5,16.49,6.6026,-8.5079,22.549,5.6683
8.4676,5.7778,8.7379,-7.8431,-9.8522,-1.1594,-2.9126,-1.0356,-12.748,-7.8431,-9.8522,-5.8824,12.44,-3.873,18.159,3.8462,5.8615,12.372,-10.413,22.549,-4.9597
6.5719,2.9206,2.9126,-13.725,-12.808,-2.1256,-5.8252,4.7896,-15.675,-13.725,-12.808,-9.8039,7.6555,-10.54,19.111,-1.9231,1.0306,14.295,-14.222,20.587999,-13.655
8.4676,1.0159,0.97087,-14.706,-13.793,-1.1594,-8.7379,6.7314,-18.601999,-14.706,-13.793,-8.8235,6.6986,-13.397,21.968,-1.9231,-0.90177,18.141001,-14.222,18.627001,-19.452
6.5719,-3.746,-0.97087,-12.745,-13.793,-0.19324,-8.7379,6.7314,-16.65,-12.745,-13.793,-6.8627,8.6124,-12.444,24.825001,-0.96154,0.06441,21.025999,-14.222,17.646999,-20.419001
5.624,-7.5556,0.0,-8.8235,-16.749001,-0.19324,-7.767,6.7314,-14.699,-8.8235,-16.749001,-2.9412,9.5694,-9.5873,28.635,-0.96154,3.9291,19.103001,-19.937,15.686,-17.52
9.4155,-9.4603,1.9417,-4.902,-6.8966,6.57,-3.8835,11.586,-8.8455,-4.902,-6.8966,3.9216,9.5694,-3.873,28.635,0.0,7.7939,16.218,-21.841,14.706,-11.723
12.259,-10.413,1.9417,-3.9216,-1.9704,14.3,-1.9417,15.469,-9.8211,-3.9216,-1.9704,7.8431,5.7416,-1.9683,24.825001,-2.8846,7.7939,12.372,-18.983999,9.8039,-8.8245
13.207,-6.6032,2.9126,-7.8431,-6.8966,12.367,-5.8252,9.644,-11.772,-7.8431,-6.8966,10.784,3.8278,-0.06349,18.159,-4.8077,6.8277,7.5641,-21.841,4.902,-7.8583
16.997999,0.06349,6.7961,-0.98039,-3.9409,8.5024,-6.7961,6.7314,-7.8699,-0.98039,-3.9409,14.706,4.7847,0.88889,13.397,-5.7692,7.7939,4.6795,-13.27,2.9412,-6.8921
20.790001,7.6825,12.621,5.8824,3.9409,10.435,8.7379,9.644,0.91057,5.8824,3.9409,22.549,4.7847,-0.06349,8.6349,-5.7692,7.7939,1.7949,-1.8413,1.9608,-6.8921
23.632999,16.254,19.417,10.784,10.837,20.097,19.417,10.615,9.6911,10.784,10.837,32.353001,2.8708,-1.9683,3.873,-4.8077,7.7939,5.641,6.7302,0.0,-3.9936
24.580999,21.968,21.358999,15.686,16.749001,22.028999,28.155001,7.7023,14.569,15.686,16.749001,36.275002,4.7847,-1.0159,1.9683,0.96154,7.7939,5.641,14.349,0.0,1.8035
18.893999,20.063,18.447001,7.8431,14.778,14.3,26.214001,2.8479,15.545,7.8431,14.778,30.392,8.6124,1.8413,4.8254,5.7692,7.7939,1.7949,17.205999,1.9608,7.6006
9.4155,11.492,9.7087,-1.9608,9.8522,3.6715,9.7087,-1.0356,12.618,-1.9608,9.8522,17.646999,10.526,0.88889,8.6349,5.7692,2.963,-0.12821,16.254,4.902,9.533
-0.06319,1.9683,0.0,-8.8235,2.9557,-5.9903,0.0,-3.9482,6.7642,-8.8235,2.9557,5.8824,9.5694,-0.06349,9.5873,4.8077,-3.8003,-1.0897,11.492,7.8431,8.5668
-6.6983,-6.6032,-7.767,-14.706,-6.8966,-8.8889,-9.7087,-7.8317,1.8862,-14.706,-6.8966,-2.9412,6.6986,-1.9683,5.7778,2.8846,-8.6312,-1.0897,2.9206,8.8235,6.6345
-7.6461,-8.5079,-7.767,-17.646999,-7.8818,-8.8889,-10.68,-6.8608,1.8862,-17.646999,-7.8818,-6.8627,5.7416,-5.7778,6.7302,2.8846,-5.7327,0.83333,0.06349,10.784,4.7021
-2.9068,-7.5556,-6.7961,-15.686,-6.8966,-5.9903,-4.8544,-2.0065,3.8374,-15.686,-6.8966,-7.8431,5.7416,-7.6825,8.6349,5.7692,1.0306,1.7949,4.8254,12.745,3.7359
2.7804,-3.746,-2.9126,-12.745,-3.9409,-3.0918,-5.8252,-1.0356,3.8374,-12.745,-3.9409,-5.8824,8.6124,-6.7302,9.5873,9.6154,8.7601,0.83333,5.7778,13.725,2.7697
8.4676,0.06349,1.9417,-12.745,-2.9557,-1.1594,-1.9417,2.8479,1.8862,-12.745,-2.9557,-2.9412,11.483,-7.6825,11.492,7.6923,11.659,6.6026,1.0159,15.686,-0.12882
8.4676,-3.746,3.8835,-10.784,-3.9409,-1.1594,-4.8544,2.8479,-7.8699,-10.784,-3.9409,-2.9412,9.5694,-8.6349,7.6825,-1.9231,8.7601,9.4872,-7.5556,13.725,-6.8921
6.5719,-12.317,2.9126,-9.8039,-6.8966,-5.9903,-11.65,1.877,-13.724,-9.8039,-6.8966,-6.8627,8.6124,-4.8254,3.873,-13.462,4.8953,6.6026,-15.175,10.784,-13.655
5.624,-16.127001,4.8544,-6.8627,-9.8522,-3.0918,-11.65,0.90615,-13.724,-6.8627,-9.8522,-5.8824,7.6555,-1.0159,4.8254,-20.191999,2.963,1.7949,-15.175,6.8627,-16.554001
5.624,-12.317,9.7087,-5.8824,-12.808,-2.1256,-8.7379,-2.0065,-6.8943,-5.8824,-12.808,-3.9216,7.6555,2.7937,7.6825,-20.191999,1.9968,-3.9744,-11.365,0.98039,-13.655
5.624,-3.746,13.592,-6.8627,-3.9409,-1.1594,-5.8252,-3.9482,0.91057,-6.8627,-3.9409,0.0,8.6124,5.6508,8.6349,-12.5,2.963,-8.7821,0.06349,-1.9608,-6.8921
4.6761,5.7778,15.534,-4.902,4.9261,0.77295,0.97087,-6.8608,10.667,-4.902,4.9261,3.9216,7.6555,8.5079,7.6825,-1.9231,3.9291,-13.59,17.205999,-3.9216,1.8035
1.8325,15.302,16.504999,-5.8824,8.867,-3.0918,8.7379,-10.744,19.447001,-5.8824,8.867,5.8824,3.8278,8.5079,3.873,3.8462,1.9968,-16.474001,25.778,-7.8431,8.5668
-1.9589,19.111,14.563,-8.8235,5.9113,-5.0242,9.7087,-9.7735,21.398001,-8.8235,5.9113,5.8824,-0.95694,8.5079,-4.6984,5.7692,-2.8341,-11.667,25.778,-9.8039,10.499
-6.6983,16.254,6.7961,-10.784,2.9557,-7.9227,6.7961,-9.7735,21.398001,-10.784,2.9557,0.98039,-6.6986,6.6032,-9.4603,4.8077,-6.6989,-9.7436,22.921,-8.8235,9.533
-12.385,12.444,0.0,-14.706,-0.98522,-13.72,3.8835,-12.686,20.423,-14.706,-0.98522,-4.902,-8.6124,4.6984,-9.4603,5.7692,-6.6989,-13.59,24.825001,-8.8235,11.465
-13.333,8.6349,-2.9126,-18.627001,-3.9409,-17.584999,0.97087,-15.599,20.423,-18.627001,-3.9409,-9.8039,-4.7847,2.7937,-4.6984,8.6538,-2.8341,-12.628,30.540001,-4.902,14.364
-15.229,3.873,-4.8544,-25.49,-6.8966,-23.382,0.0,-20.452999,14.569,-25.49,-6.8966,-14.706,1.9139,1.8413,0.06349,10.577,0.06441,-13.59,26.73,-0.98039,15.33
-16.177,0.06349,-7.767,-25.49,-7.8818,-26.280001,-2.9126,-19.482,11.642,-25.49,-7.8818,-18.627001,6.6986,1.8413,3.873,10.577,3.9291,-15.513,16.254,2.9412,15.33
-12.385,-3.746,-7.767,-21.569,-6.8966,-22.415001,-5.8252,-11.715,11.642,-21.569,-6.8966,-19.608,12.44,1.8413,9.5873,10.577,10.692,-8.7821,11.492,8.8235,13.398
-12.385,-9.4603,-9.7087,-21.569,-8.867,-21.448999,-10.68,-8.8026,3.8374,-21.569,-8.867,-23.528999,13.397,1.8413,11.492,7.6923,12.625,-3.0128,4.8254,9.8039,10.499
-14.281,-17.079,-12.621,-15.686,-8.867,-17.584999,-17.476,-3.9482,0.91057,-15.686,-8.867,-25.49,10.526,0.88889,8.6349,0.96154,8.7601,-0.12821,-1.8413,5.8824,5.6683
-18.073,-25.650999,-20.388,-8.8235,-6.8966,-12.754,-18.447001,-2.0065,-4.9431,-8.8235,-6.8966,-25.49,3.8278,-3.873,-0.88889,-8.6538,-3.8003,-2.0513,-11.365,0.98039,-2.0612
-16.177,-33.27,-28.155001,-2.9412,-8.867,-5.0242,-16.504999,3.8188,-6.8943,-2.9412,-8.867,-22.549,-1.9139,-7.6825,-8.5079,-21.153999,-16.361,-2.0513,-17.079,-1.9608,-11.723
-12.385,-38.032001,-33.009998,3.9216,-7.8818,-3.0918,-17.476,8.6731,-7.8699,3.9216,-7.8818,-20.587999,-6.6986,-9.5873,-13.27,-32.692001,-26.989,-1.0897,-19.937,-3.9216,-21.385
-10.49,-37.078999,-33.980999,1.9608,-6.8966,-2.1256,-17.476,3.8188,-8.8455,1.9608,-6.8966,-18.627001,-7.6555,-7.6825,-15.175,-35.577,-30.853001,-3.9744,-19.937,-3.9216,-24.283001
-8.594,-34.222,-30.097,-3.9216,-10.837,-0.19324,-18.447001,-1.0356,-7.8699,-3.9216,-10.837,-19.608,-8.6124,-4.8254,-18.032,-35.577,-31.82,-3.0128,-14.222,-5.8824,-23.316999
-7.6461,-32.317001,-27.184,-6.8627,-11.823,-1.1594,-19.417,-2.9773,-6.8943,-6.8627,-11.823,-17.646999,-10.526,-1.0159,-18.983999,-32.692001,-29.886999,-1.0897,-6.6032,-5.8824,-17.52
-6.6983,-29.459999,-23.301001,-12.745,-10.837,-6.9565,-18.447001,-10.744,-7.8699,-12.745,-10.837,-15.686,-12.44,2.7937,-18.032,-26.923,-25.056,-2.0513,-8.5079,-6.8627,-9.7907
-2.9068,-24.698,-18.447001,-11.765,-4.9261,-4.058,-11.65,-8.8026,-5.9187,-11.765,-4.9261,-10.784,-12.44,3.746,-17.079,-18.268999,-19.259001,-1.0897,-2.7937,-5.8824,-3.0274
-1.9589,-17.079,-12.621,-10.784,-1.9704,-2.1256,-7.767,-9.7735,-3.9675,-10.784,-1.9704,-7.8431,-10.526,1.8413,-14.222,-12.5,-12.496,0.83333,2.9206,-3.9216,-1.095
-1.9589,-5.6508,-3.8835,-11.765,-1.9704,-4.058,-3.8835,-5.89,-0.06504,-11.765,-1.9704,-2.9412,-7.6555,2.7937,-9.4603,-4.8077,-4.7665,-0.12821,3.873,-4.902,-0.12882
-1.9589,8.6349,6.7961,-7.8431,3.9409,-5.0242,4.8544,-5.89,1.8862,-7.8431,3.9409,0.98039,-0.95694,6.6032,-4.6984,6.7308,4.8953,-3.9744,7.6825,-1.9608,5.6683
-1.0111,21.968,18.447001,0.98039,9.8522,-3.0918,11.65,-3.9482,4.813,0.98039,9.8522,7.8431,4.7847,11.365,2.9206,18.268999,15.523,1.7949,10.54,0.98039,11.465
3.7283,32.444,23.301001,9.8039,17.733999,1.7391,22.33,2.8479,9.6911,9.8039,17.733999,16.667,9.5694,12.317,6.7302,25.0,22.287001,7.5641,13.397,2.9412,11.465
7.5197,35.301998,19.417,19.608,27.586,7.5362,27.184,9.644,9.6911,19.608,27.586,23.528999,10.526,11.365,8.6349,25.962,21.32,7.5641,10.54,2.9412,9.533
6.5719,31.492001,19.417,20.587999,26.601,8.5024,28.155001,11.586,6.7642,20.587999,26.601,26.471001,10.526,12.317,9.5873,25.0,19.388,7.5641,6.7302,1.9608,12.432
7.5197,29.587,22.33,19.608,21.674999,11.401,27.184,10.615,5.7886,19.608,21.674999,25.49,12.44,15.175,11.492,25.962,21.32,5.641,1.9683,1.9608,16.296
9.4155,27.683001,25.243,17.646999,19.704,13.333,25.243,11.586,1.8862,17.646999,19.704,24.51,12.44,17.079,11.492,24.038,19.388,3.7179,0.06349,0.98039,18.229
8.4676,21.016001,26.214001,13.725,17.733999,10.435,18.447001,4.7896,-1.0407,13.725,17.733999,20.587999,10.526,14.222,9.5873,17.308001,14.557,0.83333,1.0159,-0.98039,14.364
8.4676,12.444,19.417,12.745,15.764,10.435,14.563,2.8479,0.91057,12.745,15.764,19.608,5.7416,9.4603,3.873,5.7692,6.8277,-1.0897,-1.8413,-1.9608,8.5668
5.624,1.9683,4.8544,17.646999,12.808,14.3,12.621,6.7314,-2.9919,17.646999,12.808,16.667,-3.8278,4.6984,-5.6508,-5.7692,-2.8341,-3.0128,-6.6032,-6.8627,1.8035
4.6761,-7.5556,-3.8835,22.549,13.793,17.198,6.7961,6.7314,-2.9919,22.549,13.793,13.725,-11.483,-0.06349,-10.413,-13.462,-8.6312,0.83333,-6.6032,-8.8235,-3.0274
4.6761,-15.175,-6.7961,24.51,13.793,17.198,5.8252,6.7314,-0.06504,24.51,13.793,11.765,-15.311,-5.7778,-9.4603,-16.346001,-9.5974,2.7564,-4.6984,-9.8039,-5.9259
5.624,-17.079,-7.767,21.569,12.808,16.232,2.9126,8.6731,0.91057,21.569,12.808,8.8235,-15.311,-6.7302,-8.5079,-12.5,-7.6651,-0.12821,-0.88889,-9.8039,-3.9936
7.5197,-12.317,-1.9417,15.686,7.8818,14.3,1.9417,2.8479,-2.0163,15.686,7.8818,5.8824,-8.6124,-2.9206,-1.8413,-6.7308,-0.90177,1.7949,0.06349,-5.8824,0.83736
9.4155,-1.8413,2.9126,7.8431,-0.98522,6.57,2.9126,-1.0356,-5.9187,7.8431,-0.98522,4.902,0.0,5.6508,7.6825,4.8077,6.8277,2.7564,0.06349,0.98039,7.6006
6.5719,5.7778,4.8544,10.784,0.0,0.77295,-5.8252,-2.0065,-6.8943,10.784,0.0,2.9412,4.7847,11.365,10.54,14.423,12.625,-1.0897,1.9683,3.9216,14.364
2.7804,11.492,6.7961,9.8039,1.9704,0.77295,-5.8252,-2.9773,-5.9187,9.8039,1.9704,3.9216,8.6124,15.175,9.5873,20.191999,15.523,-3.9744,3.873,1.9608,16.296
0.88468,17.205999,12.621,9.8039,4.9261,-0.19324,2.9126,-2.0065,-4.9431,9.8039,4.9261,8.8235,11.483,18.032,8.6349,22.115,17.455999,-2.0513,5.7778,0.98039,21.127001
-1.0111,20.063,14.563,9.8039,9.8522,-0.19324,8.7379,-1.0356,-1.0407,9.8039,9.8522,12.745,10.526,17.079,4.8254,20.191999,15.523,-3.0128,5.7778,-1.9608,17.261999
-3.8547,16.254,10.68,11.765,8.867,-0.19324,13.592,1.877,3.8374,11.765,8.867,13.725,6.6986,12.317,-1.8413,10.577,6.8277,-1.0897,7.6825,-3.9216,8.5668
-8.594,7.6825,1.9417,13.725,6.8966,-0.19324,5.8252,5.7605,2.8618,13.725,6.8966,10.784,0.95694,6.6032,-8.5079,-3.8462,-5.7327,0.83333,-0.88889,-6.8627,0.83736
-14.281,-0.88889,-7.767,11.765,8.867,-0.19324,1.9417,7.7023,1.8862,11.765,8.867,6.8627,-6.6986,-0.06349,-18.983999,-16.346001,-19.259001,-1.0897,-8.5079,-11.765,-7.8583
-15.229,-5.6508,-12.621,9.8039,9.8522,-0.19324,7.767,5.7605,4.813,9.8039,9.8522,3.9216,-16.268,-8.6349,-26.603001,-25.0,-29.886999,-3.0128,-5.6508,-17.646999,-15.588
-10.49,-5.6508,-9.7087,7.8431,8.867,2.7053,7.767,6.7314,6.7642,7.8431,8.867,3.9216,-22.01,-16.254,-26.603001,-25.962,-29.886999,-0.12821,-3.746,-17.646999,-20.419001
-6.6983,-4.6984,-6.7961,6.8627,4.9261,1.7391,0.97087,8.6731,7.7398,6.8627,4.9261,2.9412,-23.923,-19.111,-21.841,-19.231001,-26.023001,-0.12821,-7.5556,-14.706,-19.452
-3.8547,-6.6032,-7.767,10.784,0.0,-0.19324,0.0,9.644,3.8374,10.784,0.0,-0.98039,-23.923,-18.159,-19.937,-10.577,-19.259001,3.7179,-5.6508,-12.745,-13.655
-3.8547,-9.4603,-8.7379,10.784,-2.9557,3.6715,-0.97087,8.6731,0.91057,10.784,-2.9557,-4.902,-22.01,-14.349,-18.983999,0.96154,-12.496,7.5641,-2.7937,-11.765,-4.9597
-2.9068,-4.6984,-7.767,10.784,3.9409,5.6039,-1.9417,8.6731,4.813,10.784,3.9409,-7.8431,-19.139,-6.7302,-16.127001,14.423,-2.8341,6.6026,3.873,-10.784,8.5668
-3.8547,1.0159,-6.7961,9.8039,6.8966,2.7053,-0.97087,3.8188,3.8374,9.8039,6.8966,-9.8039,-13.397,-6.7302,-13.27,25.0,6.8277,3.7179,7.6825,-9.8039,15.33
-2.9068,4.8254,-2.9126,5.8824,0.98522,-0.19324,-0.97087,2.8479,0.91057,5.8824,0.98522,-8.8235,-5.7416,-2.9206,-5.6508,30.768999,14.557,3.7179,9.5873,-3.9216,19.195
-1.9589,6.7302,0.97087,1.9608,-1.9704,-3.0918,-3.8835,-2.0065,-0.06504,1.9608,-1.9704,-6.8627,0.95694,6.6032,2.9206,33.653999,22.287001,3.7179,9.5873,1.9608,22.093
0.88468,9.5873,6.7961,-3.9216,-2.9557,-4.058,0.97087,-4.9191,-1.0407,-3.9216,-2.9557,-3.9216,7.6555,12.317,12.444,33.653999,28.084,2.7564,4.8254,6.8627,22.093
-0.06319,9.5873,9.7087,-5.8824,-3.9409,-6.9565,-2.9126,-7.8317,1.8862,-5.8824,-3.9409,-3.9216,10.526,15.175,18.159,30.768999,26.150999,-3.0128,6.7302,8.8235,21.127001
-3.8547,1.9683,3.8835,-3.9216,-1.9704,-8.8889,-8.7379,-11.715,4.813,-3.9216,-1.9704,-6.8627,9.5694,15.175,14.349,22.115,16.49,-8.7821,8.6349,4.902,16.296
-10.49,-8.5079,-8.7379,-3.9216,-3.9409,-11.787,-8.7379,-15.599,6.7642,-3.9216,-3.9409,-11.765,5.7416,15.175,5.7778,6.7308,1.9968,-9.7436,5.7778,1.9608,9.533
-15.229,-15.175,-18.447001,-6.8627,-3.9409,-17.584999,-7.767,-18.511,9.6911,-6.8627,-3.9409,-13.725,-0.95694,5.6508,-0.88889,-13.462,-13.462,-11.667,1.9683,-0.98039,-3.9936
-17.125,-14.222,-22.33,-7.8431,1.9704,-21.448999,-0.97087,-16.57,11.642,-7.8431,1.9704,-11.765,-7.6555,-4.8254,-7.5556,-27.885,-24.09,-13.59,1.9683,-5.8824,-15.588
-19.968,-12.317,-24.271999,-6.8627,-0.98522,-15.652,1.9417,-15.599,16.52,-6.8627,-0.98522,-10.784,-14.354,-9.5873,-15.175,-32.692001,-29.886999,-14.551,7.6825,-10.784,-19.452
-22.812,-13.27,-21.358999,-3.9216,0.0,-12.754,0.97087,-14.628,16.52,-3.9216,0.0,-12.745,-19.139,-15.302,-19.937,-34.615002,-30.853001,-15.513,4.8254,-14.706,-20.419001
-19.968,-13.27,-16.504999,-1.9608,0.98522,-12.754,0.97087,-10.744,13.593,-1.9608,0.98522,-13.725,-19.139,-12.444,-18.032,-29.808001,-25.056,-13.59,6.7302,-14.706,-15.588
-16.177,-12.317,-11.65,0.0,0.0,-9.8551,-1.9417,-5.89,9.6911,0.0,0.0,-11.765,-16.268,-8.6349,-16.127001,-17.308001,-16.361,-14.551,4.8254,-13.725,-6.8921
-11.438,-6.6032,-5.8252,0.0,0.0,-6.9565,-4.8544,-2.0065,6.7642,0.0,0.0,-7.8431,-12.44,-5.7778,-11.365,-1.9231,-6.6989,-11.667,4.8254,-11.765,-0.12882
-10.49,-0.88889,-2.9126,1.9608,-0.98522,-5.0242,0.0,0.90615,2.8618,1.9608,-0.98522,-3.9216,-11.483,-3.873,-8.5079,7.6923,-1.868,-5.8974,8.6349,-9.8039,3.7359
-7.6461,3.873,-2.9126,0.98039,0.0,-4.058,1.9417,1.877,2.8618,0.98039,0.0,-0.98039,-9.5694,-2.9206,-6.6032,15.385,1.0306,-1.0897,9.5873,-6.8627,9.533
-1.9589,7.6825,-0.97087,-2.9412,2.9557,-2.1256,4.8544,3.8188,2.8618,-2.9412,2.9557,0.98039,-5.7416,-2.9206,-0.88889,21.153999,4.8953,1.7949,10.54,-1.9608,12.432
1.8325,7.6825,3.8835,-1.9608,1.9704,0.77295,0.97087,3.8188,-3.9675,-1.9608,1.9704,1.9608,0.0,-0.06349,5.7778,24.038,9.7262,7.5641,5.7778,3.9216,16.296
3.7283,7.6825,5.8252,5.8824,-4.9261,3.6715,-3.8835,6.7314,-9.8211,5.8824,-4.9261,1.9608,2.8708,-0.06349,5.7778,25.0,10.692,11.41,-0.88889,7.8431,15.33
3.7283,6.7302,2.9126,8.8235,-1.9704,7.5362,-1.9417,8.6731,-10.797,8.8235,-1.9704,1.9608,1.9139,-0.06349,3.873,20.191999,6.8277,16.218,-4.6984,9.8039,9.533
6.5719,0.06349,0.0,12.745,4.9261,5.6039,0.97087,10.615,-4.9431,12.745,4.9261,2.9412,1.9139,-1.0159,3.873,11.538,2.963,17.179001,-5.6508,10.784,1.8035
9.4155,-7.5556,0.0,16.667,8.867,9.4686,-0.97087,10.615,0.91057,16.667,8.867,3.9216,3.8278,-5.7778,5.7778,0.96154,1.0306,12.372,-5.6508,12.745,-8.8245
12.259,-11.365,3.8835,20.587999,11.823,14.3,-8.7379,9.644,1.8862,20.587999,11.823,4.902,7.6555,-7.6825,11.492,-6.7308,3.9291,15.256,-3.746,15.686,-15.588
16.997999,-9.4603,9.7087,26.471001,21.674999,16.232,-0.97087,9.644,5.7886,26.471001,21.674999,7.8431,13.397,-9.5873,18.159,-11.538,10.692,19.103001,-9.4603,20.587999,-20.419001
20.790001,-2.7937,14.563,27.451,34.483002,14.3,10.68,9.644,11.642,27.451,34.483002,8.8235,17.225,-10.54,23.872999,-13.462,16.49,17.179001,-6.6032,23.528999,-21.385
24.580999,2.9206,19.417,36.275002,42.365002,15.266,17.476,11.586,16.52,36.275002,42.365002,12.745,20.096001,-8.6349,28.635,-14.423,20.354,15.256,-2.7937,24.51,-19.452
24.580999,4.8254,20.388,42.157001,41.379002,18.164,16.504999,14.498,16.52,42.157001,41.379002,14.706,21.052999,-5.7778,30.540001,-15.385,20.354,11.41,-4.6984,21.569,-17.52
23.632999,4.8254,20.388,42.157001,39.409,20.097,10.68,14.498,14.569,42.157001,39.409,14.706,19.139,0.88889,29.587,-10.577,19.388,6.6026,0.06349,19.608,-10.757
20.790001,8.6349,21.358999,46.077999,40.394001,22.028999,11.65,13.528,17.496,46.077999,40.394001,14.706,18.181999,7.5556,22.921,-1.9231,19.388,1.7949,5.7778,14.706,-2.0612
18.893999,14.349,22.33,41.175999,41.379002,22.995001,13.592,12.557,19.447001,41.175999,41.379002,18.627001,16.268,12.317,16.254,7.6923,18.422001,-1.0897,11.492,10.784,4.7021
16.051001,19.111,19.417,33.333,33.498001,11.401,16.504999,7.7023,17.496,33.333,33.498001,20.587999,12.44,11.365,8.6349,13.462,14.557,-1.0897,14.349,5.8824,10.499
14.155,21.016001,17.476,23.528999,22.66,6.57,17.476,2.8479,10.667,23.528999,22.66,18.627001,9.5694,12.317,4.8254,20.191999,11.659,3.7179,15.302,4.902,16.296
13.207,20.063,16.504999,13.725,12.808,12.367,12.621,1.877,4.813,13.725,12.808,15.686,9.5694,14.222,6.7302,25.962,10.692,5.641,11.492,4.902,23.059999
11.311,19.111,12.621,9.8039,7.8818,13.333,10.68,0.90615,3.8374,9.8039,7.8818,10.784,8.6124,16.127001,7.6825,30.768999,9.7262,5.641,6.7302,3.9216,24.992001
6.5719,13.397,6.7961,1.9608,1.9704,6.57,0.0,-3.9482,-1.0407,1.9608,1.9704,0.98039,6.6986,16.127001,5.7778,27.885,6.8277,3.7179,5.7778,1.9608,24.025999
1.8325,4.8254,2.9126,-7.8431,-10.837,-1.1594,-6.7961,-9.7735,-6.8943,-7.8431,-10.837,-7.8431,4.7847,12.317,4.8254,22.115,4.8953,0.83333,2.9206,0.98039,20.160999
2.7804,-3.746,0.97087,-15.686,-20.690001,-5.9903,-19.417,-11.715,-12.748,-15.686,-20.690001,-15.686,4.7847,5.6508,7.6825,15.385,5.8615,-1.0897,-1.8413,1.9608,12.432
3.7283,-11.365,0.0,-17.646999,-31.527,-7.9227,-27.184,-11.715,-14.699,-17.646999,-31.527,-21.569,7.6555,-0.06349,12.444,8.6538,10.692,-2.0513,-6.6032,4.902,4.7021
5.624,-15.175,0.0,-18.627001,-37.438,-9.8551,-27.184,-13.657,-15.675,-18.627001,-37.438,-22.549,10.526,-2.9206,16.254,4.8077,15.523,-3.0128,-12.317,8.8235,-1.095
8.4676,-20.889,-1.9417,-21.569,-39.409,-12.754,-33.009998,-14.628,-21.528,-21.569,-39.409,-24.51,16.268,-3.873,21.968,0.96154,23.253,-5.8974,-18.983999,11.765,-4.9597
9.4155,-22.794001,-3.8835,-20.587999,-36.452999,-10.821,-33.009998,-13.657,-23.48,-20.587999,-36.452999,-22.549,22.966999,-4.8254,22.921,-4.8077,26.150999,-2.0513,-19.937,14.706,-13.655
7.5197,-19.937,-2.9126,-17.646999,-29.556999,-8.8889,-24.271999,-10.744,-19.577,-17.646999,-29.556999,-15.686,23.923,-3.873,21.968,-10.577,24.219,-0.12821,-27.556,15.686,-20.419001
4.6761,-13.27,0.0,-11.765,-19.704,-11.787,-13.592,-8.8026,-14.699,-11.765,-19.704,-9.8039,21.052999,-3.873,18.159,-15.385,20.354,-1.0897,-31.365,13.725,-24.283001
3.7283,-3.746,1.9417,-7.8431,-12.808,-8.8889,-0.97087,-6.8608,-4.9431,-7.8431,-12.808,-1.9608,18.181999,-1.9683,11.492,-17.308001,12.625,-1.0897,-20.889,9.8039,-23.316999
3.7283,4.8254,3.8835,-4.902,-4.9261,-2.1256,9.7087,-4.9191,2.8618,-4.902,-4.9261,6.8627,12.44,0.88889,2.9206,-16.346001,1.0306,-4.9359,-8.5079,2.9412,-17.52
-0.06319,9.5873,0.0,-3.9216,-1.9704,-1.1594,15.534,-5.89,9.6911,-3.9216,-1.9704,12.745,1.9139,1.8413,-8.5079,-15.385,-17.327,-9.7436,2.9206,-5.8824,-10.757
-5.7504,10.54,-7.767,-7.8431,3.9409,-3.0918,23.301001,-8.8026,17.496,-7.8431,3.9409,17.646999,-12.44,-0.06349,-21.841,-17.308001,-34.717999,-15.513,12.444,-13.725,-8.8245
-10.49,8.6349,-13.592,-4.902,9.8522,-3.0918,26.214001,-9.7735,21.398001,-4.902,9.8522,19.608,-22.966999,-4.8254,-30.413,-17.308001,-45.346001,-17.436001,16.254,-22.549,-5.9259
-13.333,7.6825,-11.65,-4.902,6.8966,-1.1594,26.214001,-8.8026,21.398001,-4.902,6.8966,17.646999,-26.794001,-7.6825,-33.27,-12.5,-41.480999,-16.474001,18.159,-27.451,-3.0274
-13.333,9.5873,-4.8544,-10.784,0.98522,-0.19324,22.33,-10.744,15.545,-10.784,0.98522,13.725,-25.837,-7.6825,-29.459999,-1.9231,-28.921,-18.396999,17.205999,-27.451,1.8035
-13.333,13.397,3.8835,-11.765,2.9557,-2.1256,17.476,-11.715,10.667,-11.765,2.9557,10.784,-20.096001,-6.7302,-20.889,8.6538,-12.496,-20.320999,15.302,-23.528999,6.6345
-9.5419,19.111,12.621,-11.765,4.9261,-1.1594,17.476,-10.744,6.7642,-11.765,4.9261,9.8039,-11.483,-1.9683,-7.5556,21.153999,6.8277,-14.551,14.349,-17.646999,15.33
-2.9068,22.921,18.447001,-11.765,2.9557,-1.1594,14.563,-7.8317,0.91057,-11.765,2.9557,7.8431,-0.95694,2.7937,4.8254,28.846001,25.184999,-8.7821,10.54,-9.8039,22.093
4.6761,21.016001,21.358999,-8.8235,-4.9261,-3.0918,9.7087,-5.89,-2.9919,-8.8235,-4.9261,3.9216,8.6124,1.8413,14.349,31.731001,36.778999,-3.9744,8.6349,0.98039,21.127001
9.4155,17.205999,20.388,-8.8235,-9.8522,-3.0918,5.8252,-3.9482,-5.9187,-8.8235,-9.8522,0.0,15.311,0.88889,20.063,31.731001,40.644001,2.7564,5.7778,7.8431,19.195
12.259,15.302,17.476,-19.608,-13.793,-1.1594,0.0,-3.9482,-10.797,-19.608,-13.793,-1.9608,19.139,2.7937,21.016001,31.731001,41.610001,4.6795,-1.8413,12.745,17.261999
16.051001,15.302,17.476,-16.667,-12.808,-0.19324,-2.9126,-0.06472,-7.8699,-16.667,-12.808,-0.98039,21.052999,4.6984,21.968,26.923,37.745998,6.6026,-0.88889,16.667,14.364
15.103,12.444,16.504999,-10.784,-9.8522,1.7391,1.9417,3.8188,-4.9431,-10.784,-9.8522,1.9608,16.268,2.7937,20.063,16.346001,28.084,6.6026,-0.88889,17.646999,6.6345
12.259,9.5873,12.621,-7.8431,-4.9261,2.7053,10.68,7.7023,1.8862,-7.8431,-4.9261,5.8824,7.6555,1.8413,12.444,2.8846,15.523,8.5256,-3.746,13.725,-3.0274
6.5719,4.8254,4.8544,-4.902,-2.9557,5.6039,15.534,11.586,4.813,-4.902,-2.9557,8.8235,-0.95694,-1.0159,1.9683,-12.5,0.06441,9.4872,-7.5556,6.8627,-12.689
-1.0111,-3.746,-5.8252,-3.9216,-2.9557,6.57,8.7379,12.557,5.7886,-3.9216,-2.9557,5.8824,-5.7416,-3.873,-5.6508,-25.962,-16.361,5.641,-8.5079,0.98039,-18.486
-6.6983,-11.365,-13.592,-6.8627,-8.867,6.57,4.8544,10.615,0.91057,-6.8627,-8.867,3.9216,-8.6124,-0.06349,-13.27,-29.808001,-25.056,-2.0513,-6.6032,-5.8824,-15.588
-5.7504,-11.365,-15.534,-8.8235,-12.808,7.5362,2.9126,6.7314,-2.0163,-8.8235,-12.808,1.9608,-5.7416,3.746,-14.222,-24.038,-26.023001,-3.9744,-8.5079,-8.8235,-9.7907
-3.8547,-10.413,-14.563,-9.8039,-16.749001,6.57,-1.9417,2.8479,-2.9919,-9.8039,-16.749001,0.0,-3.8278,3.746,-11.365,-16.346001,-22.158001,-5.8974,-5.6508,-9.8039,-4.9597
0.88468,-10.413,-10.68,-8.8235,-13.793,6.57,-10.68,1.877,-4.9431,-8.8235,-13.793,-2.9412,-2.8708,3.746,-4.6984,-9.6154,-17.327,-5.8974,1.0159,-6.8627,-2.0612
5.624,-9.4603,-5.8252,-11.765,-14.778,-0.19324,-12.621,3.8188,-7.8699,-11.765,-14.778,-5.8824,-2.8708,0.88889,2.9206,-5.7692,-10.564,-1.0897,1.9683,-1.9608,-1.095
10.363,-7.5556,-0.97087,-11.765,-17.733999,4.6377,-16.504999,8.6731,-10.797,-11.765,-17.733999,-8.8235,0.95694,-2.9206,14.349,-3.8462,-3.8003,5.641,2.9206,4.902,-0.12882
10.363,-5.6508,-0.97087,-7.8431,-20.690001,9.4686,-18.447001,11.586,-14.699,-7.8431,-20.690001,-11.765,3.8278,-3.873,21.968,-0.96154,1.9968,13.333,4.8254,8.8235,-1.095
6.5719,-6.6032,-4.8544,-7.8431,-25.615999,3.6715,-18.447001,11.586,-18.601999,-7.8431,-25.615999,-12.745,3.8278,-4.8254,22.921,-0.96154,2.963,16.218,-1.8413,10.784,-3.9936
-0.06319,-12.317,-9.7087,-9.8039,-27.586,1.7391,-28.155001,10.615,-26.407,-9.8039,-27.586,-14.706,0.0,-8.6349,18.159,-2.8846,-0.90177,16.218,-7.5556,8.8235,-6.8921
-3.8547,-13.27,-11.65,-9.8039,-25.615999,-0.19324,-33.009998,10.615,-30.309,-9.8039,-25.615999,-14.706,-2.8708,-9.5873,10.54,-6.7308,-3.8003,15.256,-9.4603,7.8431,-9.7907
-6.6983,-12.317,-10.68,-8.8235,-20.690001,-3.0918,-31.068001,8.6731,-21.528,-8.8235,-20.690001,-14.706,-1.9139,-6.7302,3.873,-10.577,-4.7665,9.4872,-12.317,8.8235,-11.723
-7.6461,-14.222,-12.621,-10.784,-16.749001,-9.8551,-23.301001,2.8479,-16.65,-10.784,-16.749001,-14.706,-0.95694,-3.873,0.06349,-16.346001,-7.6651,11.41,-16.127001,7.8431,-12.689
-8.594,-13.27,-13.592,-9.8039,-12.808,-14.686,-15.534,-2.9773,-7.8699,-9.8039,-12.808,-13.725,-1.9139,-0.06349,-5.6508,-18.268999,-9.5974,10.449,-10.413,4.902,-10.757
-14.281,-12.317,-16.504999,-11.765,-9.8522,-19.517,-10.68,-6.8608,-0.06504,-11.765,-9.8522,-13.725,-6.6986,1.8413,-15.175,-17.308001,-14.428,4.6795,-5.6508,-0.98039,-4.9597
-21.864,-12.317,-20.388,-16.667,-10.837,-24.348,-6.7961,-10.744,5.7886,-16.667,-10.837,-15.686,-12.44,1.8413,-23.746,-17.308001,-22.158001,-2.0513,-0.88889,-7.8431,1.8035
-25.656,-11.365,-25.243,-19.608,-8.867,-23.382,-1.9417,-11.715,9.6911,-19.608,-8.867,-14.706,-19.139,0.88889,-31.365,-18.268999,-28.921,-6.859,5.7778,-13.725,5.6683
-25.656,-13.27,-28.155001,-20.587999,-3.9409,-20.483,-2.9126,-9.7735,7.7398,-20.587999,-3.9409,-14.706,-25.837,-6.7302,-37.078999,-21.153999,-33.751999,-9.7436,8.6349,-21.569,1.8035
-20.916,-10.413,-19.417,-19.608,3.9409,-13.72,3.8835,-8.8026,9.6911,-19.608,3.9409,-8.8235,-24.879999,-10.54,-32.317001,-17.308001,-28.921,-12.628,8.6349,-22.549,0.83736
-9.5419,-0.88889,-5.8252,-17.646999,7.8818,-4.058,14.563,-4.9191,16.52,-17.646999,7.8818,1.9608,-18.181999,-6.7302,-19.937,-4.8077,-14.428,-11.667,11.492,-17.646999,6.6345
1.8325,9.5873,2.9126,-8.8235,10.837,3.6715,19.417,-2.0065,15.545,-8.8235,10.837,9.8039,-14.354,-2.9206,-10.413,7.6923,-0.90177,-12.628,16.254,-13.725,8.5668
11.311,19.111,12.621,0.98039,13.793,11.401,23.301001,0.90615,17.496,0.98039,13.793,16.667,-6.6986,1.8413,-0.88889,20.191999,10.692,-4.9359,21.968,-6.8627,13.398
16.997999,23.872999,19.417,3.9216,14.778,15.266,25.243,2.8479,17.496,3.9216,14.778,18.627001,0.95694,7.5556,4.8254,28.846001,19.388,3.7179,23.872999,-0.98039,18.229
16.997999,23.872999,18.447001,2.9412,8.867,13.333,22.33,2.8479,11.642,2.9412,8.867,15.686,5.7416,8.5079,4.8254,29.808001,20.354,4.6795,18.159,2.9412,17.261999
9.4155,15.302,10.68,0.0,6.8966,5.6039,10.68,2.8479,-1.0407,0.0,6.8966,6.8627,5.7416,7.5556,2.9206,24.038,14.557,4.6795,4.8254,3.9216,13.398
1.8325,4.8254,2.9126,-0.98039,1.9704,0.77295,-3.8835,2.8479,-15.675,-0.98039,1.9704,-0.98039,5.7416,8.5079,1.0159,15.385,6.8277,5.641,-11.365,3.9216,7.6006
-6.6983,-0.88889,-2.9126,-5.8824,-4.9261,-2.1256,-11.65,2.8479,-21.528,-5.8824,-4.9261,-5.8824,7.6555,12.317,-0.88889,9.6154,1.0306,6.6026,-19.937,3.9216,2.7697
-13.333,-4.6984,-8.7379,-6.8627,-8.867,-6.9565,-8.7379,0.90615,-22.504,-6.8627,-8.867,-8.8235,7.6555,15.175,-2.7937,2.8846,-4.7665,4.6795,-19.937,2.9412,-1.095
-16.177,-5.6508,-11.65,-5.8824,-6.8966,-8.8889,-6.7961,-0.06472,-16.65,-5.8824,-6.8966,-9.8039,1.9139,10.413,-6.6032,-5.7692,-13.462,3.7179,-19.937,0.98039,-3.0274
-14.281,-5.6508,-16.504999,-9.8039,-2.9557,-7.9227,-3.8835,0.90615,-6.8943,-9.8039,-2.9557,-8.8235,-1.9139,5.6508,-8.5079,-13.462,-19.259001,3.7179,-14.222,0.98039,-4.9597
-17.125,-10.413,-26.214001,-12.745,-4.9261,-9.8551,-6.7961,-0.06472,-1.0407,-12.745,-4.9261,-10.784,-6.6986,-0.06349,-13.27,-22.115,-26.023001,-3.0128,-7.5556,-1.9608,-7.8583
-16.177,-19.937,-30.097,-11.765,-7.8818,-11.787,-12.621,-1.0356,-1.0407,-11.765,-7.8818,-13.725,-9.5694,-9.5873,-17.079,-28.846001,-28.921,-2.0513,-4.6984,-1.9608,-10.757
-11.438,-25.650999,-27.184,-8.8235,-10.837,-3.0918,-16.504999,3.8188,-2.0163,-8.8235,-10.837,-9.8039,-11.483,-19.111,-18.032,-32.692001,-27.955,6.6026,-1.8413,-0.98039,-13.655
-3.8547,-25.650999,-20.388,-4.902,-3.9409,6.57,-9.7087,7.7023,0.91057,-4.902,-3.9409,-0.98039,-10.526,-21.016001,-17.079,-29.808001,-24.09,10.449,0.06349,0.0,-14.622
1.8325,-22.794001,-12.621,3.9216,2.9557,12.367,0.97087,11.586,1.8862,3.9216,2.9557,8.8235,-12.44,-22.921,-14.222,-26.923,-19.259001,13.333,0.06349,0.98039,-16.554001
7.5197,-14.222,-4.8544,13.725,10.837,19.129999,5.8252,13.528,3.8374,13.725,10.837,18.627001,-12.44,-21.968,-12.317,-18.268999,-13.462,14.295,3.873,0.0,-15.588
9.4155,0.06349,1.9417,17.646999,16.749001,17.198,9.7087,12.557,4.813,17.646999,16.749001,22.549,-10.526,-14.349,-10.413,-4.8077,-5.7327,14.295,7.6825,0.0,-6.8921
7.5197,11.492,3.8835,17.646999,17.733999,16.232,12.621,11.586,5.7886,17.646999,17.733999,19.608,-7.6555,-5.7778,-10.413,7.6923,-0.90177,10.449,10.54,0.0,0.83736
2.7804,16.254,1.9417,12.745,12.808,12.367,7.767,6.7314,2.8618,12.745,12.808,11.765,-4.7847,1.8413,-10.413,17.308001,1.0306,4.6795,7.6825,-0.98039,5.6683
-1.0111,15.302,-2.9126,7.8431,3.9409,7.5362,2.9126,4.7896,-3.9675,7.8431,3.9409,3.9216,-3.8278,6.6032,-11.365,19.231001,0.06441,2.7564,1.0159,-0.98039,7.6006
-2.9068,5.7778,-8.7379,3.9216,-4.9261,3.6715,-2.9126,2.8479,-13.724,3.9216,-4.9261,-2.9412,-4.7847,6.6032,-8.5079,10.577,-6.6989,5.641,-8.5079,-0.98039,4.7021
-2.9068,-4.6984,-15.534,2.9412,-8.867,0.77295,-11.65,1.877,-21.528,2.9412,-8.867,-8.8235,-9.5694,5.6508,-8.5079,-1.9231,-14.428,6.6026,-15.175,-1.9608,0.83736
-4.8025,-11.365,-20.388,0.0,-8.867,-4.058,-16.504999,-1.0356,-19.577,0.0,-8.867,-12.745,-13.397,-1.0159,-11.365,-12.5,-21.191999,-0.12821,-12.317,-5.8824,-3.0274
-6.6983,-12.317,-17.476,-3.9216,-10.837,-6.9565,-20.388,-3.9482,-11.772,-3.9216,-10.837,-15.686,-13.397,-6.7302,-11.365,-16.346001,-20.225,-5.8974,-3.746,-9.8039,-3.0274
-4.8025,-12.317,-8.7379,-4.902,-7.8818,-6.9565,-17.476,-2.9773,-6.8943,-4.902,-7.8818,-14.706,-9.5694,-7.6825,-7.5556,-16.346001,-13.462,-7.8205,0.06349,-8.8235,-2.0612
-1.9589,-16.127001,-4.8544,-6.8627,-6.8966,-6.9565,-17.476,-2.0065,-3.9675,-6.8627,-6.8966,-14.706,-5.7416,-7.6825,-3.746,-17.308001,-6.6989,-6.859,-3.746,-7.8431,-4.9597
-0.06319,-22.794001,-4.8544,-11.765,-12.808,-7.9227,-18.447001,-2.0065,-2.9919,-11.765,-12.808,-14.706,-2.8708,-4.8254,-1.8413,-18.268999,-1.868,-3.9744,-4.6984,-4.902,-5.9259
2.7804,-25.650999,-4.8544,-12.745,-14.778,-8.8889,-14.563,-2.9773,-1.0407,-12.745,-14.778,-15.686,0.95694,-1.9683,2.9206,-18.268999,1.9968,-0.12821,-9.4603,-0.98039,-7.8583
11.311,-19.937,3.8835,-7.8431,0.0,-1.1594,-5.8252,0.90615,6.7642,-7.8431,0.0,-6.8627,4.7847,0.88889,10.54,-11.538,7.7939,4.6795,-7.5556,4.902,-4.9597
15.103,-11.365,14.563,-0.98039,13.793,3.6715,5.8252,3.8188,12.618,-0.98039,13.793,4.902,4.7847,0.88889,16.254,-6.7308,11.659,4.6795,0.06349,6.8627,-2.0612
15.103,-5.6508,19.417,5.8824,15.764,6.57,12.621,3.8188,14.569,5.8824,15.764,9.8039,3.8278,-1.9683,17.205999,-4.8077,10.692,7.5641,3.873,8.8235,-3.9936
11.311,-0.88889,13.592,3.9216,14.778,5.6039,11.65,1.877,11.642,3.9216,14.778,7.8431,2.8708,-1.9683,15.302,-0.96154,6.8277,12.372,4.8254,10.784,-3.9936
0.88468,1.0159,-0.97087,-1.9608,7.8818,-3.0918,10.68,-3.9482,8.7154,-1.9608,7.8818,1.9608,0.0,1.8413,10.54,2.8846,-1.868,6.6026,6.7302,7.8431,-2.0612
-12.385,-2.7937,-13.592,-6.8627,2.9557,-8.8889,0.0,-9.7735,1.8862,-6.8627,2.9557,-8.8235,-5.7416,1.8413,1.0159,0.0,-12.496,0.83333,2.9206,2.9412,-1.095
-19.968,-7.5556,-23.301001,-11.765,-2.9557,-12.754,-11.65,-13.657,-3.9675,-11.765,-2.9557,-20.587999,-9.5694,-0.06349,-8.5079,-4.8077,-21.191999,-5.8974,-2.7937,-2.9412,-3.9936
-24.708,-14.222,-28.155001,-16.667,-9.8522,-19.517,-16.504999,-16.57,-11.772,-16.667,-9.8522,-30.392,-14.354,-4.8254,-16.127001,-9.6154,-26.023001,-14.551,-3.746,-6.8627,-6.8921
-25.656,-16.127001,-29.125999,-18.627001,-15.764,-23.382,-23.301001,-18.511,-17.625999,-18.627001,-15.764,-35.293999,-10.526,-3.873,-16.127001,-8.6538,-20.225,-18.396999,-14.222,-7.8431,-3.9936
-20.916,-14.222,-26.214001,-15.686,-13.793,-21.448999,-23.301001,-16.57,-19.577,-15.686,-13.793,-31.372999,-3.8278,-1.9683,-14.222,-4.8077,-10.564,-16.474001,-20.889,-3.9216,-1.095
-13.333,-12.317,-20.388,-13.725,-14.778,-17.584999,-19.417,-11.715,-17.625999,-13.725,-14.778,-24.51,1.9139,-1.0159,-8.5079,-4.8077,-2.8341,-9.7436,-16.127001,1.9608,-2.0612
-1.9589,-6.6032,-9.7087,-9.8039,-10.837,-9.8551,-12.621,-4.9191,-13.724,-9.8039,-10.837,-15.686,8.6124,0.88889,1.0159,-2.8846,5.8615,-1.0897,-11.365,7.8431,-1.095
8.4676,1.0159,2.9126,3.9216,0.0,-1.1594,0.0,1.877,-5.9187,3.9216,0.0,-2.9412,12.44,4.6984,8.6349,0.96154,12.625,5.641,-4.6984,10.784,-1.095
14.155,6.7302,11.65,15.686,9.8522,7.5362,10.68,7.7023,-1.0407,15.686,9.8522,10.784,10.526,1.8413,12.444,0.96154,13.591,6.6026,-1.8413,8.8235,-0.12882
16.051001,10.54,18.447001,20.587999,15.764,16.232,17.476,13.528,3.8374,20.587999,15.764,23.528999,5.7416,-1.0159,13.397,0.0,11.659,4.6795,-2.7937,3.9216,-1.095
17.945999,12.444,21.358999,25.49,20.690001,22.028999,23.301001,17.410999,6.7642,25.49,20.690001,29.412001,-2.8708,-1.9683,7.6825,0.0,7.7939,5.641,-1.8413,-0.98039,-3.0274
14.155,16.254,19.417,22.549,26.601,21.063,30.097,14.498,10.667,22.549,26.601,29.412001,-12.44,-2.9206,0.06349,0.96154,2.963,5.641,3.873,-5.8824,-0.12882
6.5719,21.968,16.504999,21.569,27.586,19.129999,32.039001,13.528,12.618,21.569,27.586,27.451,-16.268,-1.0159,-6.6032,5.7692,-0.90177,2.7564,9.5873,-10.784,4.7021
-1.0111,21.968,9.7087,19.608,25.615999,16.232,20.388,12.557,12.618,19.608,25.615999,24.51,-18.181999,-3.873,-18.032,8.6538,-8.6312,0.83333,10.54,-15.686,1.8035
-6.6983,17.205999,2.9126,17.646999,14.778,13.333,17.476,9.644,8.7154,17.646999,14.778,17.646999,-21.052999,-8.6349,-27.556,5.7692,-18.292999,-3.0128,12.444,-17.646999,-2.0612
-8.594,14.349,2.9126,11.765,6.8966,9.4686,14.563,4.7896,4.813,11.765,6.8966,10.784,-19.139,-9.5873,-27.556,5.7692,-18.292999,-7.8205,10.54,-16.667,-0.12882
-6.6983,14.349,4.8544,9.8039,5.9113,5.6039,9.7087,1.877,5.7886,9.8039,5.9113,5.8824,-13.397,-4.8254,-21.841,11.538,-8.6312,-9.7436,9.5873,-11.765,3.7359
-3.8547,14.349,8.7379,9.8039,1.9704,3.6715,5.8252,-2.0065,2.8618,9.8039,1.9704,3.9216,-4.7847,1.8413,-12.317,15.385,1.9968,-8.7821,9.5873,-5.8824,7.6006
-4.8025,9.5873,8.7379,6.8627,0.0,0.77295,2.9126,-5.89,-2.0163,6.8627,0.0,0.98039,3.8278,5.6508,-1.8413,15.385,8.7601,-8.7821,5.7778,-0.98039,9.533
-6.6983,2.9206,5.8252,-2.9412,1.9704,-4.058,0.97087,-11.715,-7.8699,-2.9412,1.9704,-2.9412,11.483,11.365,5.7778,15.385,13.591,-8.7821,0.06349,3.9216,10.499
-3.8547,0.06349,6.7961,-6.8627,0.0,-7.9227,-4.8544,-12.686,-14.699,-6.8627,0.0,-4.902,19.139,17.079,15.302,17.308001,20.354,-5.8974,-5.6508,9.8039,11.465
2.7804,0.06349,11.65,-3.9216,-6.8966,-5.9903,-10.68,-9.7735,-17.625999,-3.9216,-6.8966,-2.9412,28.708,18.032,27.683001,19.231001,27.118,-3.9744,-12.317,17.646999,10.499
7.5197,1.9683,16.504999,-2.9412,-6.8966,-2.1256,-10.68,-5.89,-18.601999,-2.9412,-6.8966,0.98039,32.535999,19.937,35.301998,21.153999,30.982,3.7179,-12.317,22.549,12.432
13.207,9.5873,22.33,-1.9608,-6.8966,0.77295,-6.7961,-1.0356,-15.675,-1.9608,-6.8966,6.8627,32.535999,20.889,36.254002,24.038,33.881001,11.41,-7.5556,22.549,13.398
16.997999,16.254,25.243,2.9412,-2.9557,8.5024,-1.9417,4.7896,-6.8943,2.9412,-2.9557,11.765,31.579,18.983999,35.301998,23.077,31.948,14.295,-0.88889,22.549,9.533
16.051001,17.205999,23.301001,7.8431,2.9557,14.3,3.8835,8.6731,1.8862,7.8431,2.9557,12.745,25.837,18.032,29.587,21.153999,26.150999,12.372,5.7778,18.627001,8.5668
16.051001,19.111,18.447001,14.706,4.9261,14.3,3.8835,9.644,5.7886,14.706,4.9261,12.745,18.181999,17.079,19.111,20.191999,19.388,9.4872,11.492,10.784,8.5668
15.103,21.016001,14.563,17.646999,6.8966,15.266,9.7087,8.6731,8.7154,17.646999,6.8966,13.725,12.44,13.27,13.397,16.346001,11.659,6.6026,17.205999,5.8824,6.6345
12.259,20.063,8.7379,18.627001,14.778,13.333,16.504999,6.7314,14.569,18.627001,14.778,13.725,5.7416,7.5556,10.54,10.577,2.963,5.641,16.254,0.0,1.8035
6.5719,15.302,2.9126,15.686,15.764,9.4686,17.476,3.8188,16.52,15.686,15.764,9.8039,-0.95694,-1.0159,5.7778,4.8077,-1.868,3.7179,12.444,-5.8824,-3.9936
-1.0111,7.6825,-1.9417,7.8431,11.823,3.6715,12.621,1.877,16.52,7.8431,11.823,3.9216,-8.6124,-11.492,1.9683,-2.8846,-4.7665,1.7949,9.5873,-12.745,-10.757
-7.6461,0.06349,-5.8252,0.98039,4.9261,-4.058,5.8252,-1.0356,11.642,0.98039,4.9261,-3.9216,-14.354,-20.063,-1.8413,-8.6538,-7.6651,-1.0897,2.9206,-14.706,-14.622
-12.385,-7.5556,-11.65,-3.9216,-4.9261,-13.72,-2.9126,-4.9191,2.8618,-3.9216,-4.9261,-11.765,-16.268,-22.921,-6.6032,-12.5,-10.564,-3.0128,-3.746,-13.725,-17.52
-16.177,-14.222,-14.563,-5.8824,-8.867,-16.618,-8.7379,-10.744,-2.9919,-5.8824,-8.867,-17.646999,-16.268,-21.016001,-11.365,-18.268999,-13.462,-11.667,-7.5556,-11.765,-18.486
-15.229,-18.032,-12.621,-5.8824,-8.867,-16.618,-16.504999,-15.599,-3.9675,-5.8824,-8.867,-19.608,-11.483,-15.302,-11.365,-19.231001,-12.496,-12.628,-8.5079,-5.8824,-12.689
-11.438,-15.175,-8.7379,-6.8627,-6.8966,-15.652,-16.504999,-15.599,-0.06504,-6.8627,-6.8966,-17.646999,-4.7847,-7.6825,-10.413,-14.423,-9.5974,-9.7436,-6.6032,0.0,-5.9259
-4.8025,-10.413,-1.9417,-4.902,-6.8966,-8.8889,-11.65,-9.7735,0.91057,-4.902,-6.8966,-11.765,3.8278,-0.06349,-6.6032,-7.6923,-6.6989,-6.859,0.06349,5.8824,-0.12882
0.88468,-4.6984,5.8252,-3.9216,-8.867,-6.9565,-6.7961,-3.9482,0.91057,-3.9216,-8.867,-8.8235,8.6124,4.6984,1.0159,-0.96154,-1.868,-3.0128,3.873,11.765,4.7021
3.7283,1.9683,8.7379,-1.9608,-6.8966,1.7391,-4.8544,2.8479,-1.0407,-1.9608,-6.8966,-4.902,9.5694,8.5079,4.8254,4.8077,0.06441,2.7564,-2.7937,13.725,7.6006
3.7283,4.8254,8.7379,-7.8431,-7.8818,8.5024,-4.8544,5.7605,-4.9431,-7.8431,-7.8818,-2.9412,9.5694,12.317,5.7778,8.6538,-0.90177,5.641,-6.6032,13.725,8.5668
5.624,3.873,6.7961,-2.9412,-5.9113,8.5024,-2.9126,6.7314,-8.8455,-2.9412,-5.9113,-0.98039,11.483,9.4603,6.7302,7.6923,-2.8341,7.5641,-6.6032,14.706,7.6006
9.4155,4.8254,7.767,5.8824,0.98522,8.5024,-0.97087,7.7023,-8.8455,5.8824,0.98522,1.9608,14.354,6.6032,9.5873,6.7308,0.06441,7.5641,-6.6032,15.686,3.7359
12.259,6.7302,10.68,5.8824,0.98522,9.4686,4.8544,7.7023,-6.8943,5.8824,0.98522,4.902,16.268,3.746,15.302,8.6538,5.8615,8.5256,-4.6984,15.686,0.83736
12.259,9.5873,17.476,2.9412,-3.9409,7.5362,3.8835,7.7023,-3.9675,2.9412,-3.9409,3.9216,18.181999,1.8413,22.921,13.462,14.557,9.4872,-3.746,14.706,-0.12882
14.155,15.302,24.271999,4.902,0.98522,5.6039,3.8835,7.7023,-1.0407,4.902,0.98522,4.902,21.052999,4.6984,29.587,20.191999,27.118,9.4872,1.0159,16.667,1.8035
16.051001,19.111,30.097,7.8431,8.867,8.5024,10.68,7.7023,5.7886,7.8431,8.867,6.8627,23.923,6.6032,32.444,24.038,36.778999,8.5256,2.9206,16.667,3.7359
14.155,17.205999,30.097,9.8039,12.808,8.5024,13.592,5.7605,8.7154,9.8039,12.808,9.8039,22.966999,7.5556,28.635,23.077,38.712002,4.6795,1.9683,13.725,1.8035
9.4155,10.54,25.243,7.8431,10.837,2.7053,10.68,0.90615,6.7642,7.8431,10.837,9.8039,22.01,11.365,21.968,21.153999,35.813,1.7949,-3.746,11.765,3.7359
2.7804,4.8254,19.417,7.8431,15.764,-1.1594,10.68,-1.0356,5.7886,7.8431,15.764,11.765,21.052999,17.079,15.302,19.231001,32.915001,-2.0513,-5.6508,6.8627,9.533
-1.9589,1.0159,13.592,1.9608,17.733999,-5.9903,9.7087,-4.9191,7.7398,1.9608,17.733999,11.765,18.181999,19.937,7.6825,16.346001,28.084,-10.705,-2.7937,0.98039,15.33
-1.9589,1.9683,9.7087,-0.98039,16.749001,-8.8889,11.65,-7.8317,6.7642,-0.98039,16.749001,11.765,15.311,23.746,4.8254,16.346001,23.253,-10.705,-2.7937,-0.98039,21.127001
-0.06319,11.492,7.767,0.98039,18.719,-8.8889,18.447001,-8.8026,8.7154,0.98039,18.719,13.725,11.483,21.841,0.06349,16.346001,17.455999,-8.7821,3.873,-2.9412,25.958
0.88468,18.159,7.767,-0.98039,18.719,-6.9565,22.33,-8.8026,14.569,-0.98039,18.719,15.686,3.8278,12.317,-5.6508,13.462,7.7939,-8.7821,15.302,-6.8627,24.025999
1.8325,21.968,6.7961,-3.9216,20.690001,-5.9903,27.184,-5.89,16.52,-3.9216,20.690001,16.667,-1.9139,4.6984,-9.4603,13.462,-1.868,-6.859,22.921,-7.8431,23.059999
-0.06319,23.872999,0.97087,1.9608,20.690001,-1.1594,24.271999,-1.0356,20.423,1.9608,20.690001,13.725,-9.5694,1.8413,-15.175,15.385,-10.564,-3.0128,28.635,-10.784,24.025999
-0.06319,25.778,-2.9126,7.8431,15.764,5.6039,25.243,4.7896,18.472,7.8431,15.764,10.784,-11.483,-3.873,-16.127001,14.423,-13.462,1.7949,26.73,-10.784,21.127001
2.7804,25.778,-1.9417,7.8431,14.778,7.5362,22.33,9.644,12.618,7.8431,14.778,7.8431,-12.44,-7.6825,-11.365,13.462,-10.564,7.5641,20.063,-6.8627,16.296
4.6761,25.778,1.9417,7.8431,15.764,8.5024,19.417,11.586,9.6911,7.8431,15.764,4.902,-13.397,-8.6349,-5.6508,15.385,-5.7327,10.449,15.302,-5.8824,11.465
4.6761,21.016001,3.8835,6.8627,12.808,7.5362,11.65,14.498,6.7642,6.8627,12.808,1.9608,-12.44,-4.8254,0.06349,16.346001,0.06441,11.41,14.349,-4.902,8.5668
6.5719,11.492,2.9126,12.745,9.8522,6.57,5.8252,17.410999,9.6911,12.745,9.8522,-1.9608,-7.6555,0.88889,3.873,16.346001,7.7939,12.372,12.444,-3.9216,7.6006
12.259,2.9206,2.9126,17.646999,10.837,13.333,4.8544,21.294001,13.593,17.646999,10.837,-0.98039,-0.95694,3.746,7.6825,14.423,15.523,12.372,11.492,-0.98039,4.7021
19.841999,1.9683,9.7087,21.569,7.8818,22.995001,3.8835,25.177999,14.569,21.569,7.8818,4.902,4.7847,4.6984,15.302,14.423,20.354,14.295,11.492,2.9412,2.7697
22.686001,4.8254,14.563,24.51,4.9261,23.961,0.97087,26.149,10.667,24.51,4.9261,9.8039,8.6124,2.7937,21.968,12.5,22.287001,20.063999,7.6825,5.8824,0.83736
18.893999,7.6825,14.563,19.608,2.9557,21.063,2.9126,22.264999,4.813,19.608,2.9557,11.765,10.526,0.88889,22.921,8.6538,20.354,20.063999,3.873,7.8431,-1.095
13.207,9.5873,15.534,12.745,1.9704,12.367,4.8544,13.528,2.8618,12.745,1.9704,12.745,9.5694,2.7937,21.016001,2.8846,15.523,15.256,2.9206,8.8235,-1.095
7.5197,10.54,15.534,10.784,5.9113,8.5024,8.7379,7.7023,4.813,10.784,5.9113,18.627001,9.5694,3.746,14.349,-2.8846,10.692,10.449,1.0159,5.8824,-1.095
4.6761,8.6349,8.7379,9.8039,6.8966,11.401,9.7087,7.7023,4.813,9.8039,6.8966,24.51,3.8278,4.6984,2.9206,-6.7308,1.0306,7.5641,-0.88889,0.0,-1.095
0.88468,1.0159,-2.9126,14.706,12.808,15.266,10.68,8.6731,6.7642,14.706,12.808,27.451,-5.7416,0.88889,-10.413,-14.423,-13.462,3.7179,-1.8413,-5.8824,-4.9597
-1.9589,-2.7937,-10.68,24.51,21.674999,21.063,18.447001,11.586,14.569,24.51,21.674999,30.392,-13.397,-4.8254,-21.841,-18.268999,-23.124001,1.7949,5.7778,-10.784,-4.9597
-4.8025,-4.6984,-12.621,25.49,21.674999,22.028999,25.243,12.557,20.423,25.49,21.674999,27.451,-21.052999,-6.7302,-30.413,-17.308001,-28.921,-1.0897,8.6349,-17.646999,-3.0274
-3.8547,-6.6032,-8.7379,22.549,19.704,21.063,25.243,13.528,22.374001,22.549,19.704,23.528999,-19.139,-8.6349,-28.507999,-14.423,-26.023001,-5.8974,10.54,-18.627001,-0.12882
0.88468,-10.413,-3.8835,17.646999,10.837,15.266,16.504999,14.498,18.472,17.646999,10.837,14.706,-11.483,-10.54,-18.983999,-11.538,-17.327,-2.0513,10.54,-13.725,-1.095
2.7804,-13.27,-1.9417,11.765,6.8966,11.401,5.8252,11.586,14.569,11.765,6.8966,5.8824,-5.7416,-10.54,-12.317,-9.6154,-7.6651,4.6795,5.7778,-7.8431,-3.9936
7.5197,-11.365,2.9126,7.8431,-0.98522,16.232,-3.8835,9.644,4.813,7.8431,-0.98522,1.9608,3.8278,-6.7302,-2.7937,-5.7692,3.9291,3.7179,2.9206,-0.98039,-4.9597
14.155,-5.6508,13.592,7.8431,-2.9557,21.063,-7.767,8.6731,-3.9675,7.8431,-2.9557,3.9216,14.354,-1.0159,10.54,-0.96154,18.422001,2.7564,-0.88889,6.8627,-3.9936
16.051001,-3.746,20.388,8.8235,-2.9557,19.129999,-14.563,4.7896,-9.8211,8.8235,-2.9557,4.902,21.052999,2.7937,19.111,1.9231,27.118,1.7949,-6.6032,11.765,-3.9936
12.259,-4.6984,18.447001,7.8431,-1.9704,13.333,-11.65,-0.06472,-9.8211,7.8431,-1.9704,3.9216,21.052999,2.7937,19.111,-0.96154,26.150999,-0.12821,-8.5079,12.745,-7.8583
3.7283,-9.4603,9.7087,1.9608,-0.98522,3.6715,-12.621,-3.9482,-8.8455,1.9608,-0.98522,-1.9608,16.268,-0.06349,15.302,-7.6923,17.455999,-2.0513,-11.365,8.8235,-10.757
-7.6461,-16.127001,-1.9417,-2.9412,-4.9261,-6.9565,-15.534,-7.8317,-8.8455,-2.9412,-4.9261,-11.765,8.6124,2.7937,5.7778,-10.577,8.7601,-5.8974,-10.413,2.9412,-7.8583
-12.385,-21.841,-13.592,-3.9216,-9.8522,-14.686,-18.447001,-10.744,-9.8211,-3.9216,-9.8522,-18.627001,2.8708,1.8413,-3.746,-16.346001,-2.8341,-6.859,-15.175,-1.9608,-6.8921
-12.385,-22.794001,-20.388,-2.9412,-10.837,-16.618,-16.504999,-10.744,-8.8455,-2.9412,-10.837,-18.627001,-2.8708,-1.0159,-9.4603,-20.191999,-13.462,-6.859,-15.175,-3.9216,-6.8921
-13.333,-19.937,-20.388,-5.8824,-3.9409,-18.551001,-6.7961,-13.657,-1.0407,-5.8824,-3.9409,-16.667,-10.526,-2.9206,-13.27,-20.191999,-20.225,-11.667,-10.413,-7.8431,-3.0274
-18.073,-18.983999,-18.447001,-10.784,-3.9409,-23.382,-0.97087,-15.599,0.91057,-10.784,-3.9409,-17.646999,-14.354,-3.873,-14.222,-18.268999,-21.191999,-10.705,-7.5556,-10.784,-0.12882
-20.916,-21.841,-17.476,-13.725,-7.8818,-24.348,0.0,-15.599,-2.0163,-13.725,-7.8818,-19.608,-16.268,-6.7302,-15.175,-18.268999,-21.191999,-5.8974,-2.7937,-11.765,-0.12882
-20.916,-24.698,-17.476,-14.706,-7.8818,-21.448999,-4.8544,-12.686,-2.0163,-14.706,-7.8818,-17.646999,-15.311,-7.6825,-15.175,-16.346001,-17.327,-4.9359,-1.8413,-11.765,-0.12882
-15.229,-22.794001,-14.563,-9.8039,-5.9113,-12.754,-6.7961,-6.8608,-2.9919,-9.8039,-5.9113,-11.765,-11.483,-6.7302,-13.27,-14.423,-13.462,-2.0513,-2.7937,-8.8235,-1.095
-8.594,-17.079,-6.7961,-0.98039,-4.9261,-1.1594,-5.8252,1.877,-4.9431,-0.98039,-4.9261,-1.9608,-7.6555,-8.6349,-9.4603,-14.423,-7.6651,0.83333,-4.6984,-5.8824,-3.9936
-1.0111,-10.413,-0.97087,1.9608,0.98522,7.5362,-5.8252,8.6731,-8.8455,1.9608,0.98522,5.8824,-3.8278,-9.5873,-4.6984,-11.538,-1.868,4.6795,-9.4603,-3.9216,-6.8921
1.8325,-5.6508,-1.9417,6.8627,0.0,10.435,-7.767,9.644,-13.724,6.8627,0.0,8.8235,-2.8708,-8.6349,-3.746,-7.6923,0.06441,4.6795,-15.175,-2.9412,-8.8245
-1.0111,-2.7937,-3.8835,8.8235,0.0,9.4686,-8.7379,6.7314,-12.748,8.8235,0.0,7.8431,-3.8278,-10.54,-3.746,-7.6923,-2.8341,1.7949,-14.222,-2.9412,-11.723
-3.8547,-2.7937,-7.767,6.8627,-2.9557,4.6377,-12.621,2.8479,-9.8211,6.8627,-2.9557,4.902,-5.7416,-13.397,-3.746,-8.6538,-7.6651,-0.12821,-8.5079,-1.9608,-15.588
-6.6983,-2.7937,-12.621,2.9412,-8.867,-3.0918,-12.621,-2.9773,-7.8699,2.9412,-8.867,0.0,-3.8278,-9.5873,-3.746,-6.7308,-8.6312,-3.0128,-5.6508,-0.98039,-13.655
-6.6983,-0.88889,-11.65,-7.8431,-12.808,-9.8551,-14.563,-7.8317,-5.9187,-7.8431,-12.808,-2.9412,0.0,-4.8254,0.06349,-0.96154,-5.7327,-7.8205,-6.6032,1.9608,-8.8245
-6.6983,-0.88889,-7.767,-11.765,-17.733999,-13.72,-19.417,-11.715,-6.8943,-11.765,-17.733999,-7.8431,1.9139,-1.0159,2.9206,0.96154,-2.8341,-7.8205,-3.746,2.9412,-5.9259
-7.6461,-2.7937,-5.8252,-13.725,-20.690001,-14.686,-23.301001,-14.628,-6.8943,-13.725,-20.690001,-11.765,4.7847,4.6984,2.9206,2.8846,1.0306,-4.9359,1.0159,1.9608,-0.12882
-7.6461,-1.8413,0.0,-22.549,-19.704,-17.584999,-16.504999,-19.482,-2.0163,-22.549,-19.704,-12.745,7.6555,10.413,3.873,7.6923,6.8277,-5.8974,4.8254,1.9608,8.5668
-8.594,-5.6508,3.8835,-24.51,-16.749001,-21.448999,-15.534,-21.424,-1.0407,-24.51,-16.749001,-13.725,5.7416,15.175,2.9206,11.538,10.692,-8.7821,8.6349,-0.98039,18.229
-10.49,-8.5079,3.8835,-21.569,-15.764,-23.382,-17.476,-21.424,0.91057,-21.569,-15.764,-14.706,3.8278,16.127001,0.06349,11.538,11.659,-8.7821,9.5873,-3.9216,22.093
-11.438,-6.6032,2.9126,-23.528999,-13.793,-23.382,-13.592,-20.452999,-0.06504,-23.528999,-13.793,-12.745,2.8708,11.365,0.06349,10.577,10.692,-8.7821,6.7302,-2.9412,19.195
-9.5419,-4.6984,1.9417,-20.587999,-18.719,-20.483,-11.65,-15.599,-4.9431,-20.587999,-18.719,-11.765,1.9139,6.6032,2.9206,7.6923,9.7262,-9.7436,5.7778,-1.9608,17.261999
-4.8025,-0.88889,3.8835,-14.706,-13.793,-13.72,-6.7961,-9.7735,-10.797,-14.706,-13.793,-9.8039,0.95694,2.7937,6.7302,5.7692,10.692,-4.9359,-3.746,0.98039,12.432
-1.9589,6.7302,4.8544,-7.8431,-5.9113,-5.0242,-2.9126,-3.9482,-8.8455,-7.8431,-5.9113,-4.902,-0.95694,-0.06349,6.7302,6.7308,11.659,1.7949,-7.5556,2.9412,9.533
-1.0111,7.6825,3.8835,-3.9216,-4.9261,-2.1256,0.0,-1.0356,-7.8699,-3.9216,-4.9261,-2.9412,1.9139,-2.9206,7.6825,6.7308,10.692,4.6795,-2.7937,7.8431,6.6345
0.88468,4.8254,0.0,-1.9608,-9.8522,-0.19324,-4.8544,0.90615,-7.8699,-1.9608,-9.8522,-6.8627,5.7416,-2.9206,10.54,6.7308,10.692,8.5256,-1.8413,12.745,2.7697
6.5719,3.873,0.0,0.98039,-11.823,2.7053,-8.7379,5.7605,-5.9187,0.98039,-11.823,-7.8431,9.5694,-1.9683,12.444,5.7692,8.7601,12.372,-0.88889,16.667,1.8035
9.4155,0.06349,-0.97087,-1.9608,-7.8818,-0.19324,-10.68,6.7314,-6.8943,-1.9608,-7.8818,-8.8235,8.6124,-6.7302,11.492,0.0,2.963,14.295,-3.746,15.686,-3.9936
6.5719,-2.7937,-2.9126,0.0,-4.9261,-3.0918,-6.7961,5.7605,-2.9919,0.0,-4.9261,-10.784,6.6986,-12.444,6.7302,-4.8077,-3.8003,11.41,-7.5556,12.745,-13.655
2.7804,-4.6984,-3.8835,0.0,-8.867,-5.9903,-11.65,0.90615,-4.9431,0.0,-8.867,-13.725,2.8708,-13.397,1.9683,-11.538,-9.5974,7.5641,-12.317,7.8431,-23.316999
3.7283,-6.6032,-1.9417,-4.902,-12.808,-7.9227,-14.563,-1.0356,-6.8943,-4.902,-12.808,-12.745,-1.9139,-14.349,1.9683,-16.346001,-14.428,4.6795,-14.222,4.902,-28.148001
4.6761,-5.6508,0.97087,-9.8039,-14.778,-11.787,-16.504999,-2.0065,-3.9675,-9.8039,-14.778,-10.784,-2.8708,-13.397,2.9206,-15.385,-13.462,2.7564,-8.5079,3.9216,-26.216
8.4676,-1.8413,5.8252,-9.8039,-12.808,-7.9227,-10.68,-2.9773,-0.06504,-9.8039,-12.808,-5.8824,1.9139,-5.7778,8.6349,-6.7308,-3.8003,-3.9744,-4.6984,3.9216,-14.622
11.311,-1.8413,11.65,-6.8627,-10.837,-1.1594,-1.9417,-2.0065,4.813,-6.8627,-10.837,-1.9608,4.7847,-2.9206,16.254,0.96154,4.8953,-1.0897,4.8254,5.8824,-3.9936
12.259,-3.746,11.65,-5.8824,-6.8966,1.7391,-0.97087,-2.9773,0.91057,-5.8824,-6.8966,1.9608,2.8708,-3.873,17.205999,2.8846,9.7262,0.83333,4.8254,6.8627,1.8035
13.207,-0.88889,10.68,-3.9216,-2.9557,3.6715,0.97087,-2.9773,-1.0407,-3.9216,-2.9557,6.8627,3.8278,-3.873,18.159,6.7308,13.591,-0.12821,2.9206,8.8235,5.6683
15.103,5.7778,14.563,1.9608,1.9704,7.5362,6.7961,-1.0356,2.8618,1.9608,1.9704,10.784,8.6124,-1.0159,19.111,13.462,18.422001,1.7949,6.7302,11.765,12.432
13.207,10.54,14.563,3.9216,0.98522,6.57,8.7379,-2.9773,3.8374,3.9216,0.98522,11.765,11.483,3.746,17.205999,19.231001,21.32,0.83333,8.6349,12.745,16.296
9.4155,12.444,11.65,4.902,4.9261,5.6039,8.7379,-3.9482,0.91057,4.902,4.9261,10.784,10.526,6.6032,11.492,20.191999,20.354,-1.0897,5.7778,11.765,18.229
5.624,12.444,8.7379,3.9216,9.8522,3.6715,12.621,-4.9191,-0.06504,3.9216,9.8522,10.784,5.7416,9.4603,3.873,17.308001,15.523,-5.8974,4.8254,8.8235,19.195
-3.8547,11.492,2.9126,3.9216,6.8966,-0.19324,9.7087,-9.7735,-0.06504,3.9216,6.8966,8.8235,-0.95694,10.413,-5.6508,12.5,5.8615,-12.628,3.873,2.9412,17.261999
-13.333,9.5873,-4.8544,6.8627,5.9113,-5.0242,7.767,-13.657,0.91057,6.8627,5.9113,4.902,-7.6555,9.4603,-16.127001,6.7308,-7.6651,-15.513,2.9206,-6.8627,13.398
-20.916,5.7778,-11.65,9.8039,3.9409,-6.9565,3.8835,-7.8317,-0.06504,9.8039,3.9409,-1.9608,-14.354,6.6032,-23.746,0.96154,-19.259001,-14.551,1.9683,-14.706,7.6006
-25.656,1.9683,-16.504999,8.8235,2.9557,-8.8889,0.97087,-5.89,0.91057,8.8235,2.9557,-7.8431,-19.139,3.746,-29.459999,-0.96154,-28.921,-14.551,1.0159,-20.587999,3.7359
-26.603001,0.06349,-17.476,1.9608,-2.9557,-12.754,-1.9417,-6.8608,1.8862,1.9608,-2.9557,-11.765,-23.923,-3.873,-33.27,-3.8462,-33.751999,-17.436001,1.0159,-22.549,-3.0274
-23.76,1.9683,-13.592,-3.9216,-5.9113,-14.686,-4.8544,-3.9482,-1.0407,-3.9216,-5.9113,-12.745,-22.966999,-7.6825,-28.507999,-4.8077,-30.853001,-16.474001,-2.7937,-21.569,-6.8921
-18.073,5.7778,-7.767,-6.8627,-7.8818,-14.686,-7.767,-2.9773,-2.9919,-6.8627,-7.8818,-12.745,-14.354,-5.7778,-17.079,-0.96154,-19.259001,-7.8205,-2.7937,-12.745,-6.8921
-9.5419,6.7302,-4.8544,-10.784,-9.8522,-13.72,-3.8835,-2.0065,-2.9919,-10.784,-9.8522,-11.765,-4.7847,-3.873,-6.6032,3.8462,-6.6989,-2.0513,1.9683,-1.9608,-5.9259
-1.9589,3.873,-3.8835,-10.784,-5.9113,-10.821,-1.9417,-2.0065,-2.0163,-10.784,-5.9113,-9.8039,3.8278,-4.8254,2.9206,1.9231,0.06441,1.7949,0.06349,6.8627,-5.9259
2.7804,-0.88889,-5.8252,-9.8039,-1.9704,-5.9903,2.9126,0.90615,0.91057,-9.8039,-1.9704,-7.8431,8.6124,-5.7778,11.492,-3.8462,2.963,6.6026,-0.88889,12.745,-5.9259
8.4676,-3.746,-5.8252,-9.8039,-2.9557,-5.0242,3.8835,2.8479,-1.0407,-9.8039,-2.9557,-6.8627,11.483,-1.9683,16.254,-3.8462,6.8277,9.4872,0.06349,16.667,-2.0612
10.363,-6.6032,-7.767,-2.9412,-6.8966,-0.19324,0.0,4.7896,-2.0163,-2.9412,-6.8966,-6.8627,12.44,0.88889,18.159,-2.8846,5.8615,10.449,-1.8413,18.627001,-0.12882
15.103,-6.6032,-5.8252,6.8627,-0.98522,10.435,-1.9417,9.644,-2.9919,6.8627,-0.98522,-1.9608,14.354,3.746,20.063,-0.96154,6.8277,12.372,-1.8413,19.608,1.8035
17.945999,-6.6032,-2.9126,11.765,0.0,18.164,-5.8252,14.498,-6.8943,11.765,0.0,0.0,16.268,8.5079,19.111,0.0,8.7601,16.218,-6.6032,19.608,3.7359
19.841999,-6.6032,-0.97087,16.667,2.9557,22.028999,-0.97087,18.382,-6.8943,16.667,2.9557,1.9608,16.268,13.27,18.159,0.96154,11.659,15.256,-7.5556,17.646999,5.6683
19.841999,-3.746,4.8544,20.587999,5.9113,23.961,0.0,20.323999,-5.9187,20.587999,5.9113,4.902,15.311,16.127001,19.111,1.9231,14.557,12.372,-6.6032,15.686,4.7021
14.155,-2.7937,3.8835,16.667,0.0,18.164,-4.8544,17.410999,-7.8699,16.667,0.0,3.9216,13.397,14.222,13.397,1.9231,11.659,11.41,-10.413,10.784,1.8035
4.6761,-6.6032,-1.9417,10.784,-6.8966,12.367,-5.8252,11.586,-7.8699,10.784,-6.8966,0.98039,9.5694,10.413,4.8254,-3.8462,2.963,5.641,-12.317,2.9412,-1.095
-1.0111,-6.6032,-5.8252,10.784,-1.9704,9.4686,0.0,7.7023,-1.0407,10.784,-1.9704,4.902,4.7847,7.5556,-2.7937,-9.6154,-6.6989,-3.0128,-8.5079,-3.9216,-2.0612
-4.8025,-1.8413,-4.8544,11.765,6.8966,9.4686,10.68,5.7605,4.813,11.765,6.8966,11.765,-1.9139,4.6984,-12.317,-12.5,-13.462,-7.8205,-7.5556,-10.784,-4.9597
-6.6983,3.873,0.97087,9.8039,13.793,6.57,15.534,0.90615,6.7642,9.8039,13.793,18.627001,-10.526,0.88889,-19.937,-15.385,-18.292999,-13.59,-6.6032,-16.667,-7.8583
-5.7504,8.6349,8.7379,8.8235,17.733999,3.6715,17.476,-1.0356,8.7154,8.8235,17.733999,22.549,-17.225,-5.7778,-21.841,-16.346001,-19.259001,-20.320999,-0.88889,-21.569,-9.7907
-1.0111,13.397,14.563,9.8039,16.749001,0.77295,21.358999,-0.06472,10.667,9.8039,16.749001,24.51,-19.139,-7.6825,-18.983999,-11.538,-13.462,-17.436001,-0.88889,-23.528999,-9.7907
2.7804,13.397,14.563,8.8235,10.837,2.7053,16.504999,0.90615,6.7642,8.8235,10.837,20.587999,-18.181999,-6.7302,-14.222,-7.6923,-8.6312,-10.705,-2.7937,-20.587999,-8.8245
2.7804,8.6349,10.68,3.9216,3.9409,1.7391,9.7087,-0.06472,3.8374,3.9216,3.9409,13.725,-13.397,-6.7302,-8.5079,-5.7692,-5.7327,-8.7821,-0.88889,-14.706,-8.8245
2.7804,1.9683,3.8835,0.0,0.0,-3.0918,0.0,-1.0356,-0.06504,0.0,0.0,5.8824,-8.6124,-5.7778,-4.6984,-7.6923,-2.8341,-3.0128,1.0159,-6.8627,-8.8245
1.8325,-4.6984,-1.9417,-5.8824,-4.9261,-5.9903,-7.767,-2.0065,-4.9431,-5.8824,-4.9261,-0.98039,-8.6124,-5.7778,-1.8413,-8.6538,-4.7665,3.7179,0.06349,-0.98039,-7.8583
0.88468,-8.5079,-6.7961,-10.784,-11.823,-8.8889,-9.7087,-2.9773,-8.8455,-10.784,-11.823,-4.902,-8.6124,-7.6825,1.0159,-9.6154,-8.6312,8.5256,1.9683,3.9216,-6.8921
2.7804,-10.413,-10.68,-10.784,-14.778,-7.9227,-10.68,-2.0065,-10.797,-10.784,-14.778,-5.8824,-6.6986,-5.7778,1.9683,-9.6154,-11.53,11.41,-2.7937,6.8627,-3.9936
3.7283,-11.365,-13.592,-6.8627,-14.778,-3.0918,-13.592,-0.06472,-15.675,-6.8627,-14.778,-5.8824,-0.95694,-1.9683,1.9683,-7.6923,-12.496,13.333,-8.5079,8.8235,-2.0612
0.88468,-15.175,-16.504999,-5.8824,-15.764,-4.058,-14.563,-1.0356,-20.552999,-5.8824,-15.764,-9.8039,1.9139,-0.06349,1.0159,-7.6923,-15.395,10.449,-10.413,9.8039,-0.12882
-4.8025,-19.937,-21.358999,-7.8431,-20.690001,-7.9227,-14.563,-2.9773,-21.528,-7.8431,-20.690001,-14.706,1.9139,3.746,-0.88889,-6.7308,-17.327,5.641,-9.4603,8.8235,0.83736
-6.6983,-18.032,-21.358999,-10.784,-20.690001,-9.8551,-15.534,-2.9773,-16.65,-10.784,-20.690001,-17.646999,3.8278,6.6032,0.06349,-3.8462,-13.462,7.5641,-10.413,9.8039,0.83736
-7.6461,-9.4603,-14.563,-7.8431,-6.8966,-8.8889,-9.7087,-2.9773,-6.8943,-7.8431,-6.8966,-13.725,6.6986,7.5556,4.8254,1.9231,-5.7327,5.641,-5.6508,10.784,2.7697
-8.594,2.9206,-4.8544,-4.902,5.9113,-6.9565,2.9126,-2.9773,5.7886,-4.902,5.9113,-5.8824,8.6124,9.4603,5.7778,9.6154,1.9968,-1.0897,1.0159,7.8431,6.6345
-10.49,11.492,-0.97087,2.9412,9.8522,-7.9227,10.68,-4.9191,13.593,2.9412,9.8522,0.98039,9.5694,10.413,1.9683,13.462,4.8953,-7.8205,10.54,1.9608,9.533
-14.281,14.349,0.97087,5.8824,10.837,-9.8551,12.621,-8.8026,15.545,5.8824,10.837,3.9216,7.6555,9.4603,-1.8413,13.462,5.8615,-13.59,14.349,-4.902,9.533
-14.281,16.254,6.7961,3.9216,12.808,-7.9227,20.388,-8.8026,18.472,3.9216,12.808,9.8039,4.7847,8.5079,-6.6032,12.5,4.8953,-13.59,13.397,-8.8235,5.6683
-11.438,16.254,6.7961,6.8627,18.719,-3.0918,22.33,-3.9482,19.447001,6.8627,18.719,13.725,0.95694,4.6984,-14.222,7.6923,-1.868,-12.628,8.6349,-11.765,-0.12882
-6.6983,13.397,2.9126,8.8235,17.733999,3.6715,21.358999,0.90615,21.398001,8.8235,17.733999,16.667,-1.9139,2.7937,-19.937,4.8077,-7.6651,-9.7436,9.5873,-11.765,-1.095
-0.06319,9.5873,0.97087,12.745,16.749001,9.4686,21.358999,3.8188,17.496,12.745,16.749001,17.646999,-1.9139,3.746,-19.937,5.7692,-8.6312,-5.8974,9.5873,-11.765,1.8035
7.5197,7.6825,0.0,14.706,16.749001,15.266,20.388,7.7023,15.545,14.706,16.749001,17.646999,0.0,1.8413,-18.032,3.8462,-7.6651,-3.0128,10.54,-9.8039,3.7359
9.4155,3.873,-1.9417,13.725,15.764,13.333,12.621,9.644,14.569,13.725,15.764,13.725,0.0,-0.06349,-18.032,0.96154,-8.6312,-1.0897,10.54,-9.8039,3.7359
7.5197,-2.7937,-6.7961,6.8627,8.867,12.367,4.8544,8.6731,8.7154,6.8627,8.867,6.8627,-0.95694,-2.9206,-16.127001,-1.9231,-12.496,-0.12821,7.6825,-8.8235,4.7021
4.6761,-8.5079,-9.7087,2.9412,-0.98522,10.435,0.97087,6.7314,1.8862,2.9412,-0.98522,-0.98039,-2.8708,-6.7302,-13.27,-3.8462,-15.395,1.7949,3.873,-4.902,3.7359
-1.0111,-14.222,-11.65,-3.9216,-6.8966,3.6715,-8.7379,3.8188,-3.9675,-3.9216,-6.8966,-9.8039,-7.6555,-13.397,-10.413,-6.7308,-16.361,0.83333,1.0159,-3.9216,0.83736
-1.9589,-16.127001,-10.68,-4.902,-7.8818,1.7391,-10.68,3.8188,-6.8943,-4.902,-7.8818,-10.784,-6.6986,-16.254,-2.7937,-5.7692,-12.496,8.5256,-1.8413,0.0,-2.0612
0.88468,-14.222,-5.8252,-2.9412,-10.837,4.6377,-8.7379,5.7605,-7.8699,-2.9412,-10.837,-6.8627,-2.8708,-16.254,2.9206,-3.8462,-4.7665,16.218,-2.7937,3.9216,-4.9597
2.7804,-13.27,-2.9126,0.0,-4.9261,4.6377,-12.621,7.7023,-9.8211,0.0,-4.9261,-3.9216,-2.8708,-14.349,4.8254,-1.9231,2.963,16.218,-6.6032,4.902,-6.8921
2.7804,-10.413,-1.9417,1.9608,-2.9557,10.435,-12.621,10.615,-11.772,1.9608,-2.9557,-0.98039,-1.9139,-13.397,3.873,-0.96154,7.7939,15.256,-9.4603,3.9216,-8.8245
2.7804,-6.6032,1.9417,5.8824,-3.9409,15.266,-6.7961,15.469,-13.724,5.8824,-3.9409,5.8824,0.0,-13.397,2.9206,-1.9231,11.659,13.333,-11.365,4.902,-13.655
3.7283,-2.7937,8.7379,10.784,-1.9704,16.232,-5.8252,15.469,-9.8211,10.784,-1.9704,10.784,0.0,-13.397,1.9683,-4.8077,11.659,10.449,-12.317,2.9412,-16.554001
4.6761,1.0159,13.592,14.706,4.9261,15.266,0.97087,11.586,-2.0163,14.706,4.9261,15.686,0.0,-9.5873,3.873,-5.7692,8.7601,8.5256,-7.5556,0.98039,-14.622
1.8325,3.873,9.7087,11.765,8.867,9.4686,10.68,5.7605,4.813,11.765,8.867,15.686,-0.95694,-3.873,2.9206,-5.7692,2.963,3.7179,-0.88889,-1.9608,-11.723
-1.9589,4.8254,2.9126,4.902,5.9113,4.6377,15.534,0.90615,10.667,4.902,5.9113,13.725,-5.7416,0.88889,0.06349,-5.7692,-3.8003,-2.0513,6.7302,-5.8824,-8.8245
-2.9068,6.7302,1.9417,0.98039,12.808,-0.19324,17.476,-2.9773,13.593,0.98039,12.808,14.706,-9.5694,2.7937,-1.8413,-5.7692,-10.564,-7.8205,8.6349,-7.8431,-4.9597
-1.9589,8.6349,0.0,-1.9608,13.793,-3.0918,17.476,-7.8317,12.618,-1.9608,13.793,13.725,-11.483,1.8413,-4.6984,-5.7692,-14.428,-13.59,12.444,-9.8039,-3.0274
-5.7504,5.7778,-3.8835,-7.8431,10.837,-5.0242,13.592,-11.715,11.642,-7.8431,10.837,7.8431,-14.354,0.88889,-11.365,-7.6923,-20.225,-22.243999,7.6825,-13.725,-2.0612
-13.333,-4.6984,-11.65,-11.765,5.9113,-11.787,3.8835,-14.628,6.7642,-11.765,5.9113,-4.902,-17.225,-0.06349,-19.937,-12.5,-26.989,-23.205,1.0159,-16.667,-2.0612
-20.916,-12.317,-17.476,-17.646999,-2.9557,-22.415001,-5.8252,-17.540001,0.91057,-17.646999,-2.9557,-16.667,-18.181999,-2.9206,-26.603001,-13.462,-27.955,-21.282,-0.88889,-17.646999,0.83736
-22.812,-10.413,-14.563,-22.549,-8.867,-27.246,-6.7961,-19.482,-2.0163,-22.549,-8.867,-20.587999,-15.311,-1.9683,-27.556,-6.7308,-21.191999,-20.320999,-0.88889,-16.667,5.6683
-19.968,-4.6984,-4.8544,-22.549,-10.837,-26.280001,-8.7379,-17.540001,-5.9187,-22.549,-10.837,-17.646999,-8.6124,1.8413,-18.983999,1.9231,-7.6651,-16.474001,-0.88889,-10.784,10.499
-14.281,0.06349,1.9417,-20.587999,-11.823,-20.483,-10.68,-13.657,-9.8211,-20.587999,-11.823,-11.765,-3.8278,2.7937,-9.4603,8.6538,3.9291,-12.628,-2.7937,-8.8235,12.432
-6.6983,4.8254,10.68,-10.784,-4.9261,-9.8551,-3.8835,-6.8608,-8.8455,-10.784,-4.9261,-1.9608,0.0,1.8413,-2.7937,13.462,14.557,-7.8205,-1.8413,-5.8824,10.499
-1.0111,4.8254,16.504999,-5.8824,2.9557,-2.1256,-0.97087,-1.0356,-4.9431,-5.8824,2.9557,2.9412,1.9139,-1.0159,3.873,9.6154,19.388,-3.0128,1.0159,-2.9412,5.6683
2.7804,6.7302,17.476,-4.902,5.9113,0.77295,0.0,1.877,-0.06504,-4.902,5.9113,4.902,0.95694,-4.8254,6.7302,5.7692,18.422001,1.7949,2.9206,-1.9608,-0.12882
7.5197,7.6825,12.621,-2.9412,6.8966,3.6715,4.8544,4.7896,7.7398,-2.9412,6.8966,4.902,-2.8708,-4.8254,5.7778,3.8462,15.523,5.641,5.7778,-0.98039,-3.9936
11.311,4.8254,6.7961,0.98039,7.8818,3.6715,7.767,6.7314,10.667,0.98039,7.8818,3.9216,-3.8278,-3.873,5.7778,-0.96154,10.692,8.5256,6.7302,0.98039,-6.8921
10.363,-4.6984,-3.8835,2.9412,0.98522,4.6377,5.8252,7.7023,7.7398,2.9412,0.98522,-0.98039,-0.95694,-6.7302,2.9206,-11.538,1.0306,3.7179,4.8254,3.9216,-12.689
4.6761,-18.032,-15.534,-3.9216,-1.9704,-1.1594,-3.8835,3.8188,2.8618,-3.9216,-1.9704,-7.8431,0.0,-9.5873,-2.7937,-22.115,-9.5974,3.7179,0.06349,6.8627,-17.52
-3.8547,-28.507999,-25.243,-11.765,-6.8966,-5.9903,-14.563,-1.0356,-3.9675,-11.765,-6.8966,-17.646999,-1.9139,-10.54,-6.6032,-28.846001,-20.225,3.7179,-8.5079,4.902,-16.554001
-7.6461,-29.459999,-25.243,-14.706,-7.8818,-5.9903,-17.476,-2.9773,-6.8943,-14.706,-7.8818,-19.608,0.0,-5.7778,-3.746,-25.962,-22.158001,2.7564,-12.317,5.8824,-12.689
-5.7504,-21.841,-19.417,-15.686,-7.8818,-6.9565,-15.534,-2.0065,-7.8699,-15.686,-7.8818,-18.627001,1.9139,-1.9683,1.0159,-20.191999,-16.361,2.7564,-13.27,4.902,-7.8583
-1.9589,-11.365,-10.68,-12.745,-7.8818,-5.0242,-12.621,-2.0065,-8.8455,-12.745,-7.8818,-13.725,4.7847,0.88889,7.6825,-10.577,-8.6312,1.7949,-9.4603,5.8824,-1.095
3.7283,1.9683,0.97087,-6.8627,-4.9261,-0.19324,-5.8252,0.90615,-5.9187,-6.8627,-4.9261,-5.8824,7.6555,8.5079,14.349,2.8846,3.9291,4.6795,-2.7937,6.8627,7.6006
6.5719,12.444,9.7087,-4.902,-5.9113,2.7053,0.0,1.877,-3.9675,-4.902,-5.9113,1.9608,7.6555,14.222,15.302,13.462,12.625,3.7179,2.9206,4.902,14.364
6.5719,18.159,17.476,-0.98039,0.98522,6.57,4.8544,2.8479,-2.0163,-0.98039,0.98522,8.8235,5.7416,16.127001,11.492,18.268999,17.455999,-0.12821,7.6825,0.0,17.261999
3.7283,20.063,21.358999,0.0,8.867,6.57,7.767,-0.06472,0.91057,0.0,8.867,12.745,1.9139,18.983999,4.8254,22.115,19.388,-8.7821,9.5873,-6.8627,20.160999
0.88468,23.872999,23.301001,2.9412,13.793,6.57,12.621,-2.0065,7.7398,2.9412,13.793,17.646999,-0.95694,20.889,-3.746,24.038,18.422001,-11.667,12.444,-12.745,23.059999
0.88468,23.872999,22.33,5.8824,16.749001,9.4686,15.534,-2.0065,10.667,5.8824,16.749001,23.528999,-4.7847,13.27,-10.413,16.346001,12.625,-7.8205,8.6349,-17.646999,15.33
2.7804,16.254,18.447001,6.8627,15.764,12.367,14.563,0.90615,6.7642,6.8627,15.764,23.528999,-7.6555,4.6984,-14.222,1.9231,3.9291,-3.9744,4.8254,-17.646999,6.6345
5.624,3.873,12.621,3.9216,3.9409,11.401,3.8835,1.877,1.8862,3.9216,3.9409,16.667,-5.7416,-3.873,-11.365,-13.462,-2.8341,-2.0513,0.06349,-11.765,-6.8921
10.363,-2.7937,9.7087,1.9608,0.98522,8.5024,-3.8835,3.8188,-1.0407,1.9608,0.98522,8.8235,-0.95694,-13.397,-2.7937,-22.115,-2.8341,2.7564,-2.7937,-2.9412,-20.419001
11.311,-5.6508,3.8835,2.9412,3.9409,5.6039,-1.9417,5.7605,-1.0407,2.9412,3.9409,1.9608,0.95694,-21.968,4.8254,-25.0,-3.8003,8.5256,-5.6508,2.9412,-27.181999
9.4155,-8.5079,-2.9126,2.9412,0.0,7.5362,-3.8835,5.7605,-2.9919,2.9412,0.0,-5.8824,2.8708,-24.825001,10.54,-20.191999,-0.90177,11.41,-7.5556,9.8039,-21.385
10.363,-8.5079,-3.8835,0.98039,-6.8966,9.4686,-10.68,3.8188,-5.9187,0.98039,-6.8966,-13.725,9.5694,-18.159,17.205999,-6.7308,5.8615,11.41,-7.5556,15.686,-6.8921
16.051001,-3.746,0.0,-2.9412,-12.808,8.5024,-13.592,3.8188,-5.9187,-2.9412,-12.808,-16.667,16.268,-8.6349,26.73,7.6923,14.557,13.333,-1.8413,22.549,8.5668
21.738001,0.06349,4.8544,-5.8824,-13.793,8.5024,-13.592,2.8479,-5.9187,-5.8824,-13.793,-15.686,21.052999,0.88889,33.396999,17.308001,21.32,15.256,1.9683,24.51,17.261999
25.528999,4.8254,8.7379,-5.8824,-10.837,9.4686,-7.767,3.8188,-4.9431,-5.8824,-10.837,-10.784,22.966999,6.6032,37.206001,22.115,26.150999,16.218,3.873,26.471001,20.160999
26.476999,9.5873,14.563,-2.9412,-2.9557,10.435,-3.8835,6.7314,-2.9919,-2.9412,-2.9557,-5.8824,24.879999,11.365,36.254002,25.0,28.084,17.179001,0.06349,26.471001,21.127001
25.528999,15.302,20.388,1.9608,4.9261,13.333,4.8544,9.644,0.91057,1.9608,4.9261,1.9608,24.879999,14.222,32.444,28.846001,29.049999,12.372,1.9683,22.549,22.093
20.790001,20.063,23.301001,3.9216,7.8818,13.333,7.767,8.6731,0.91057,3.9216,7.8818,8.8235,21.052999,18.983999,22.921,31.731001,26.150999,10.449,6.7302,14.706,21.127001
14.155,21.968,22.33,3.9216,6.8966,11.401,7.767,5.7605,2.8618,3.9216,6.8966,10.784,16.268,23.746,13.397,33.653999,24.219,10.449,9.5873,6.8627,24.992001
5.624,21.016001,17.476,6.8627,11.823,8.5024,13.592,2.8479,8.7154,6.8627,11.823,10.784,10.526,25.650999,2.9206,32.692001,19.388,4.6795,13.397,0.0,24.992001
-3.8547,20.063,10.68,8.8235,15.764,5.6039,17.476,-0.06472,13.593,8.8235,15.764,10.784,0.95694,19.937,-10.413,24.038,10.692,-3.9744,14.349,-8.8235,18.229
-9.5419,17.205999,10.68,7.8431,13.793,2.7053,18.447001,-2.9773,15.545,7.8431,13.793,12.745,-6.6986,10.413,-17.079,9.6154,1.0306,-11.667,12.444,-16.667,8.5668
-12.385,11.492,11.65,0.98039,10.837,-3.0918,14.563,-8.8026,10.667,0.98039,10.837,11.765,-11.483,-0.06349,-18.032,-5.7692,-6.6989,-16.474001,5.7778,-20.587999,-5.9259
-12.385,2.9206,9.7087,-1.9608,9.8522,-7.9227,10.68,-11.715,4.813,-1.9608,9.8522,7.8431,-14.354,-10.54,-16.127001,-19.231001,-10.564,-15.513,-4.6984,-18.627001,-20.419001
-8.594,-5.6508,6.7961,-2.9412,7.8818,-9.8551,6.7961,-9.7735,0.91057,-2.9412,7.8818,2.9412,-13.397,-19.111,-6.6032,-28.846001,-8.6312,-9.7436,-9.4603,-10.784,-30.080999
-4.8025,-13.27,2.9126,-3.9216,0.98522,-9.8551,3.8835,-5.89,-2.9919,-3.9216,0.98522,-3.9216,-8.6124,-25.778,1.9683,-34.615002,-3.8003,-2.0513,-8.5079,-1.9608,-33.945
-0.06319,-13.27,4.8544,-5.8824,-3.9409,-5.9903,-1.9417,-0.06472,-5.9187,-5.8824,-3.9409,-8.8235,-0.95694,-21.968,11.492,-28.846001,4.8953,8.5256,-5.6508,6.8627,-30.080999
7.5197,-11.365,8.7379,-3.9216,-7.8818,-1.1594,-6.7961,4.7896,-6.8943,-3.9216,-7.8818,-9.8039,7.6555,-15.302,22.921,-17.308001,14.557,15.256,-0.88889,14.706,-19.452
14.155,-8.5079,10.68,-1.9608,-8.867,4.6377,-10.68,9.644,-7.8699,-1.9608,-8.867,-10.784,11.483,-11.492,29.587,-1.9231,22.287001,16.218,-0.88889,19.608,-8.8245
19.841999,-5.6508,10.68,2.9412,-9.8522,7.5362,-11.65,15.469,-8.8455,2.9412,-9.8522,-9.8039,14.354,-5.7778,31.492001,11.538,28.084,22.948999,0.06349,22.549,-2.0612
24.580999,-3.746,11.65,2.9412,-11.823,7.5362,-11.65,18.382,-11.772,2.9412,-11.823,-9.8039,19.139,-1.0159,33.396999,16.346001,31.948,28.718,-3.746,27.451,2.7697
25.528999,0.06349,14.563,1.9608,-8.867,14.3,-10.68,19.353001,-12.748,1.9608,-8.867,-5.8824,23.923,6.6032,35.301998,21.153999,34.847,29.679001,-5.6508,31.372999,7.6006
24.580999,9.5873,15.534,3.9216,0.0,19.129999,0.0,17.410999,-4.9431,3.9216,0.0,1.9608,27.750999,15.175,34.348999,26.923,34.847,27.756001,0.06349,32.353001,14.364
19.841999,17.205999,14.563,6.8627,3.9409,17.198,8.7379,14.498,2.8618,6.8627,3.9409,9.8039,26.794001,20.889,26.73,29.808001,27.118,21.025999,7.6825,27.451,19.195
11.311,20.063,9.7087,5.8824,3.9409,15.266,10.68,10.615,4.813,5.8824,3.9409,14.706,20.096001,25.650999,16.254,31.731001,16.49,11.41,13.397,18.627001,24.025999
3.7283,20.063,6.7961,2.9412,4.9261,9.4686,8.7379,3.8188,3.8374,2.9412,4.9261,14.706,14.354,29.459999,7.6825,30.768999,10.692,3.7179,13.397,9.8039,24.025999
2.7804,17.205999,5.8252,0.98039,6.8966,3.6715,10.68,-2.9773,2.8618,0.98039,6.8966,11.765,12.44,25.650999,5.7778,25.0,10.692,-1.0897,9.5873,6.8627,19.195
2.7804,13.397,5.8252,2.9412,6.8966,-1.1594,11.65,-5.89,4.813,2.9412,6.8966,9.8039,9.5694,18.983999,7.6825,18.268999,9.7262,-3.0128,10.54,4.902,14.364
1.8325,12.444,4.8544,4.902,7.8818,-2.1256,14.563,-5.89,11.642,4.902,7.8818,9.8039,0.95694,13.27,3.873,11.538,5.8615,-3.0128,9.5873,0.98039,8.5668
-1.0111,13.397,5.8252,8.8235,7.8818,0.77295,15.534,-3.9482,9.6911,8.8235,7.8818,10.784,-6.6986,6.6032,-3.746,5.7692,0.06441,-3.9744,1.9683,-4.902,2.7697
0.88468,11.492,10.68,10.784,10.837,3.6715,14.563,-0.06472,4.813,10.784,10.837,11.765,-11.483,-1.0159,-4.6984,-0.96154,-1.868,-6.859,-0.88889,-8.8235,-4.9597
6.5719,7.6825,14.563,10.784,9.8522,5.6039,12.621,3.8188,4.813,10.784,9.8522,10.784,-11.483,-6.7302,-0.88889,-4.8077,1.9968,-1.0897,-1.8413,-7.8431,-10.757
12.259,2.9206,16.504999,12.745,10.837,8.5024,6.7961,7.7023,4.813,12.745,10.837,10.784,-6.6986,-10.54,2.9206,-6.7308,7.7939,4.6795,-2.7937,-3.9216,-12.689
11.311,-2.7937,12.621,8.8235,6.8966,8.5024,2.9126,8.6731,3.8374,8.8235,6.8966,6.8627,-2.8708,-12.444,3.873,-6.7308,9.7262,3.7179,-3.746,-3.9216,-14.622
7.5197,-10.413,3.8835,4.902,2.9557,4.6377,-3.8835,8.6731,2.8618,4.902,2.9557,1.9608,0.0,-9.5873,0.06349,-4.8077,7.7939,3.7179,-1.8413,-4.902,-9.7907
-0.06319,-16.127001,-6.7961,-2.9412,0.0,0.77295,-7.767,6.7314,1.8862,-2.9412,0.0,-3.9216,0.0,-8.6349,-6.6032,-5.7692,1.0306,1.7949,1.0159,-5.8824,-5.9259
-2.9068,-15.175,-9.7087,1.9608,0.0,-4.058,-4.8544,7.7023,1.8862,1.9608,0.0,-4.902,0.95694,-4.8254,-7.5556,-5.7692,-2.8341,3.7179,6.7302,-2.9412,-0.12882
-3.8547,-10.413,-7.767,7.8431,-4.9261,-1.1594,-0.97087,6.7314,1.8862,7.8431,-4.9261,-1.9608,1.9139,-0.06349,-6.6032,-2.8846,-1.868,4.6795,5.7778,-1.9608,2.7697
-7.6461,-5.6508,-7.767,3.9216,3.9409,-2.1256,1.9417,1.877,5.7886,3.9216,3.9409,-0.98039,3.8278,2.7937,-6.6032,-0.96154,-0.90177,4.6795,5.7778,-2.9412,2.7697
-10.49,-2.7937,-9.7087,1.9608,13.793,-10.821,4.8544,-1.0356,10.667,1.9608,13.793,-0.98039,3.8278,2.7937,-3.746,-2.8846,-0.90177,5.641,9.5873,-0.98039,0.83736
-13.333,-0.88889,-13.592,2.9412,16.749001,-14.686,12.621,-4.9191,16.52,2.9412,16.749001,0.0,0.95694,-2.9206,-4.6984,-5.7692,-3.8003,3.7179,15.302,-2.9412,-3.0274
-12.385,1.9683,-13.592,6.8627,20.690001,-11.787,18.447001,-4.9191,18.472,6.8627,20.690001,3.9216,-2.8708,-6.7302,-5.6508,-7.6923,-4.7665,0.83333,11.492,-4.902,-4.9597
-10.49,1.9683,-11.65,11.765,19.704,-6.9565,14.563,-2.9773,14.569,11.765,19.704,4.902,-3.8278,-5.7778,-5.6508,-6.7308,-4.7665,-4.9359,1.9683,-4.902,-3.9936
-4.8025,6.7302,-6.7961,14.706,13.793,-4.058,11.65,-1.0356,7.7398,14.706,13.793,8.8235,-1.9139,-1.9683,-5.6508,-0.96154,-0.90177,-6.859,-1.8413,-5.8824,-1.095
0.88468,13.397,0.0,15.686,13.793,1.7391,15.534,2.8479,6.7642,15.686,13.793,12.745,-2.8708,-0.06349,-3.746,4.8077,1.9968,-2.0513,-1.8413,-5.8824,1.8035
2.7804,15.302,6.7961,15.686,15.764,4.6377,19.417,4.7896,4.813,15.686,15.764,15.686,-4.7847,-0.06349,-1.8413,5.7692,2.963,0.83333,-0.88889,-6.8627,0.83736
0.88468,12.444,5.8252,14.706,12.808,5.6039,19.417,5.7605,5.7886,14.706,12.808,17.646999,-6.6986,-1.0159,-2.7937,2.8846,0.06441,-2.0513,-4.6984,-7.8431,-4.9597
0.88468,7.6825,0.97087,19.608,19.704,8.5024,22.33,7.7023,9.6911,19.608,19.704,19.608,-6.6986,-1.9683,-6.6032,-2.8846,-5.7327,-3.0128,-6.6032,-8.8235,-8.8245
0.88468,3.873,-1.9417,23.528999,22.66,11.401,21.358999,10.615,11.642,23.528999,22.66,20.587999,-8.6124,-5.7778,-7.5556,-6.7308,-11.53,-2.0513,-3.746,-9.8039,-10.757
-0.06319,1.9683,-6.7961,21.569,19.704,11.401,22.33,9.644,14.569,21.569,19.704,17.646999,-10.526,-5.7778,-10.413,-8.6538,-15.395,-1.0897,1.0159,-10.784,-7.8583
-2.9068,-4.6984,-13.592,14.706,19.704,6.57,20.388,6.7314,13.593,14.706,19.704,11.765,-13.397,-5.7778,-14.222,-12.5,-20.225,-3.0128,2.9206,-10.784,-7.8583
-5.7504,-11.365,-19.417,9.8039,12.808,-2.1256,13.592,1.877,10.667,9.8039,12.808,6.8627,-14.354,-4.8254,-15.175,-15.385,-23.124001,-3.9744,4.8254,-8.8235,-3.9936
-12.385,-18.983999,-25.243,2.9412,2.9557,-5.9903,-0.97087,-4.9191,6.7642,2.9412,2.9557,-1.9608,-16.268,-5.7778,-18.032,-17.308001,-26.989,-6.859,5.7778,-11.765,-1.095
-17.125,-21.841,-29.125999,-4.902,-0.98522,-8.8889,-9.7087,-8.8026,6.7642,-4.902,-0.98522,-9.8039,-17.225,-8.6349,-19.937,-16.346001,-29.886999,-8.7821,7.6825,-14.706,-0.12882
-19.968,-20.889,-29.125999,-8.8235,-8.867,-11.787,-7.767,-9.7735,5.7886,-8.8235,-8.867,-11.765,-16.268,-9.5873,-19.937,-16.346001,-29.886999,-12.628,9.5873,-13.725,0.83736
-21.864,-18.983999,-29.125999,-11.765,-11.823,-13.72,-11.65,-10.744,5.7886,-11.765,-11.823,-15.686,-17.225,-10.54,-19.937,-15.385,-28.921,-13.59,11.492,-13.725,0.83736
-20.916,-12.317,-24.271999,-9.8039,-6.8966,-15.652,-8.7379,-11.715,5.7886,-9.8039,-6.8966,-13.725,-14.354,-10.54,-18.983999,-10.577,-23.124001,-10.705,11.492,-12.745,2.7697
-19.021,-5.6508,-18.447001,-7.8431,-4.9261,-16.618,-7.767,-9.7735,2.8618,-7.8431,-4.9261,-10.784,-9.5694,-8.6349,-13.27,-5.7692,-17.327,-9.7436,2.9206,-9.8039,2.7697
-15.229,-4.6984,-16.504999,-3.9216,-3.9409,-15.652,-8.7379,-4.9191,-0.06504,-3.9216,-3.9409,-8.8235,-7.6555,-6.7302,-6.6032,-1.9231,-14.428,-5.8974,-3.746,-4.902,-0.12882
-9.5419,-3.746,-15.534,0.98039,-1.9704,-10.821,-2.9126,1.877,-2.9919,0.98039,-1.9704,-5.8824,-8.6124,-5.7778,-3.746,-1.9231,-13.462,-1.0897,-6.6032,-1.9608,-3.9936
-5.7504,-3.746,-12.621,0.0,0.98522,-3.0918,-2.9126,2.8479,-2.9919,0.0,0.98522,-1.9608,-9.5694,-5.7778,-4.6984,-5.7692,-16.361,1.7949,-11.365,-1.9608,-6.8921
-5.7504,-7.5556,-14.563,1.9608,-2.9557,-0.19324,-4.8544,2.8479,-5.9187,1.9608,-2.9557,-1.9608,-11.483,-5.7778,-5.6508,-12.5,-22.158001,2.7564,-12.317,-1.9608,-11.723
-10.49,-17.079,-22.33,4.902,-8.867,-0.19324,-10.68,2.8479,-10.797,4.902,-8.867,-4.902,-14.354,-6.7302,-12.317,-16.346001,-27.955,1.7949,-16.127001,-4.902,-12.689
-13.333,-23.746,-27.184,3.9216,-9.8522,0.77295,-18.447001,4.7896,-12.748,3.9216,-9.8522,-8.8235,-16.268,-6.7302,-18.032,-19.231001,-31.82,1.7949,-17.079,-7.8431,-11.723
-14.281,-23.746,-27.184,4.902,-8.867,0.77295,-15.534,5.7605,-7.8699,4.902,-8.867,-8.8235,-15.311,-4.8254,-18.983999,-19.231001,-30.853001,-0.12821,-12.317,-6.8627,-8.8245
-16.177,-18.032,-24.271999,0.98039,-12.808,-0.19324,-13.592,3.8188,-8.8455,0.98039,-12.808,-9.8039,-14.354,-1.0159,-19.937,-12.5,-26.023001,-3.9744,-5.6508,-8.8235,-2.0612
-17.125,-16.127001,-22.33,-0.98039,-18.719,-3.0918,-17.476,0.90615,-11.772,-0.98039,-18.719,-13.725,-14.354,-1.0159,-21.841,-10.577,-26.023001,-7.8205,0.06349,-10.784,1.8035
-19.021,-18.983999,-20.388,-1.9608,-22.66,-5.9903,-25.243,-2.0065,-11.772,-1.9608,-22.66,-19.608,-15.311,0.88889,-23.746,-13.462,-26.989,-12.628,-1.8413,-11.765,3.7359
-24.708,-19.937,-24.271999,-5.8824,-24.631001,-13.72,-26.214001,-7.8317,-12.748,-5.8824,-24.631001,-24.51,-15.311,2.7937,-28.507999,-13.462,-29.886999,-18.396999,-4.6984,-13.725,5.6683
-33.238998,-20.889,-32.039001,-16.667,-26.601,-24.348,-29.125999,-17.540001,-11.772,-16.667,-26.601,-32.353001,-14.354,1.8413,-33.27,-11.538,-31.82,-24.167,0.06349,-15.686,8.5668
-37.029999,-15.175,-33.009998,-26.471001,-27.586,-34.976002,-24.271999,-27.249001,-7.8699,-26.471001,-27.586,-36.275002,-8.6124,3.746,-28.507999,-5.7692,-26.989,-26.09,5.7778,-12.745,14.364
-31.343,-3.746,-24.271999,-30.392,-25.615999,-38.841,-16.504999,-32.104,-5.9187,-30.392,-25.615999,-32.353001,-0.95694,8.5079,-16.127001,2.8846,-13.462,-23.205,5.7778,-4.902,17.261999
-22.812,3.873,-11.65,-28.431,-20.690001,-34.009998,-15.534,-29.191,-5.9187,-28.431,-20.690001,-24.51,3.8278,11.365,-5.6508,9.6154,-1.868,-18.396999,4.8254,0.98039,16.296
-18.073,5.7778,-3.8835,-22.549,-12.808,-26.280001,-10.68,-23.365999,-9.8211,-22.549,-12.808,-16.667,4.7847,10.413,-0.88889,8.6538,1.0306,-14.551,0.06349,1.9608,13.398
-12.385,6.7302,-0.97087,-16.667,-6.8966,-18.551001,-8.7379,-17.540001,-11.772,-16.667,-6.8966,-11.765,4.7847,7.5556,2.9206,6.7308,2.963,-10.705,-3.746,2.9412,8.5668
-3.8547,9.5873,0.97087,-8.8235,-1.9704,-12.754,-1.9417,-10.744,-10.797,-8.8235,-1.9704,-4.902,5.7416,3.746,4.8254,5.7692,4.8953,-4.9359,-6.6032,4.902,0.83736
4.6761,11.492,2.9126,-0.98039,6.8966,1.7391,5.8252,-2.0065,-5.9187,-0.98039,6.8966,5.8824,5.7416,2.7937,9.5873,3.8462,4.8953,-3.0128,-8.5079,5.8824,-4.9597
12.259,7.6825,0.97087,11.765,13.793,15.266,10.68,5.7605,-0.06504,11.765,13.793,12.745,2.8708,-0.06349,10.54,0.0,2.963,4.6795,-8.5079,6.8627,-8.8245
14.155,1.0159,-5.8252,17.646999,9.8522,20.097,9.7087,9.644,0.91057,17.646999,9.8522,10.784,1.9139,-1.9683,5.7778,-3.8462,-0.90177,10.449,-9.4603,6.8627,-12.689
13.207,-4.6984,-9.7087,14.706,3.9409,20.097,5.8252,9.644,1.8862,14.706,3.9409,3.9216,3.8278,-1.0159,2.9206,-4.8077,-2.8341,10.449,-11.365,8.8235,-11.723
7.5197,-11.365,-13.592,5.8824,-6.8966,11.401,-9.7087,6.7314,-3.9675,5.8824,-6.8966,-7.8431,2.8708,1.8413,0.06349,-3.8462,-5.7327,6.6026,-12.317,6.8627,-5.9259
2.7804,-16.127001,-13.592,2.9412,-14.778,7.5362,-21.358999,2.8479,-8.8455,2.9412,-14.778,-16.667,3.8278,6.6032,-2.7937,0.96154,-4.7665,2.7564,-11.365,6.8627,2.7697
-0.06319,-20.889,-13.592,0.98039,-23.645,4.6377,-27.184,-1.0356,-17.625999,0.98039,-23.645,-25.49,4.7847,7.5556,-0.88889,1.9231,-2.8341,-0.12821,-13.27,7.8431,8.5668
-1.0111,-19.937,-11.65,-5.8824,-26.601,-1.1594,-29.125999,-4.9191,-21.528,-5.8824,-26.601,-29.412001,7.6555,9.4603,4.8254,5.7692,2.963,-3.9744,-11.365,8.8235,13.398
-0.06319,-12.317,-4.8544,-9.8039,-26.601,-5.9903,-28.155001,-8.8026,-14.699,-9.8039,-26.601,-25.49,11.483,12.317,7.6825,9.6154,10.692,-5.8974,-2.7937,9.8039,14.364
0.88468,-3.746,5.8252,-13.725,-20.690001,-8.8889,-20.388,-11.715,-9.8211,-13.725,-20.690001,-19.608,11.483,12.317,10.54,10.577,15.523,-4.9359,-0.88889,8.8235,14.364
3.7283,3.873,15.534,-17.646999,-13.793,-10.821,-8.7379,-15.599,-3.9675,-17.646999,-13.793,-9.8039,10.526,11.365,13.397,11.538,20.354,-7.8205,1.0159,7.8431,14.364
4.6761,10.54,21.358999,-13.725,-6.8966,-9.8551,-1.9417,-16.57,0.91057,-13.725,-6.8966,-1.9608,9.5694,9.4603,14.349,11.538,23.253,-9.7436,3.873,6.8627,11.465
5.624,13.397,22.33,-6.8627,-0.98522,-5.9903,4.8544,-12.686,4.813,-6.8627,-0.98522,4.902,7.6555,7.5556,13.397,12.5,22.287001,-6.859,4.8254,5.8824,9.533
5.624,10.54,17.476,-0.98039,1.9704,-1.1594,5.8252,-5.89,3.8374,-0.98039,1.9704,10.784,3.8278,2.7937,8.6349,6.7308,15.523,-3.0128,1.9683,2.9412,1.8035
6.5719,10.54,12.621,5.8824,10.837,5.6039,8.7379,-0.06472,2.8618,5.8824,10.837,16.667,0.95694,-1.0159,1.9683,1.9231,5.8615,0.83333,-2.7937,0.0,-6.8921
7.5197,16.254,13.592,12.745,17.733999,12.367,17.476,5.7605,6.7642,12.745,17.733999,23.528999,-0.95694,-3.873,-2.7937,1.9231,1.0306,-0.12821,1.0159,-1.9608,-9.7907
8.4676,23.872999,17.476,15.686,17.733999,16.232,20.388,8.6731,7.7398,15.686,17.733999,25.49,-2.8708,-5.7778,-3.746,6.7308,1.9968,0.83333,7.6825,-4.902,-5.9259
10.363,21.968,19.417,11.765,6.8966,16.232,10.68,10.615,5.7886,11.765,6.8966,18.627001,-2.8708,-5.7778,-2.7937,9.6154,5.8615,1.7949,6.7302,-3.9216,-4.9597
9.4155,12.444,16.504999,3.9216,-2.9557,9.4686,-5.8252,9.644,-2.0163,3.9216,-2.9557,6.8627,-3.8278,-7.6825,-0.88889,8.6538,5.8615,0.83333,1.9683,-2.9412,-3.9936
3.7283,-1.8413,7.767,-0.98039,-14.778,2.7053,-24.271999,4.7896,-10.797,-0.98039,-14.778,-8.8235,-6.6986,-9.5873,-1.8413,4.8077,1.0306,-1.0897,-3.746,-5.8824,-1.095
1.8325,-9.4603,0.97087,-1.9608,-21.674999,1.7391,-31.068001,1.877,-14.699,-1.9608,-21.674999,-16.667,-6.6986,-6.7302,1.9683,2.8846,1.0306,0.83333,-4.6984,-1.9608,0.83736
2.7804,-12.317,-2.9126,-4.902,-23.645,0.77295,-32.039001,1.877,-15.675,-4.902,-23.645,-20.587999,0.95694,-1.0159,7.6825,4.8077,4.8953,0.83333,-4.6984,1.9608,3.7359
7.5197,-13.27,-2.9126,-10.784,-20.690001,-0.19324,-30.097,-0.06472,-11.772,-10.784,-20.690001,-21.569,8.6124,2.7937,15.302,8.6538,10.692,5.641,-3.746,7.8431,6.6345
11.311,-11.365,1.9417,-13.725,-17.733999,-2.1256,-24.271999,-2.0065,-11.772,-13.725,-17.733999,-18.627001,14.354,7.5556,21.968,10.577,18.422001,11.41,-4.6984,12.745,8.5668
14.155,-8.5079,8.7379,-11.765,-15.764,-4.058,-16.504999,-3.9482,-10.797,-11.765,-15.764,-15.686,19.139,14.222,25.778,16.346001,26.150999,10.449,-6.6032,14.706,11.465
16.997999,-1.8413,14.563,-6.8627,-14.778,-3.0918,-10.68,-4.9191,-5.9187,-6.8627,-14.778,-10.784,22.01,19.937,26.73,23.077,30.982,7.5641,-4.6984,14.706,16.296
19.841999,6.7302,20.388,-2.9412,-4.9261,-2.1256,-5.8252,-2.9773,-0.06504,-2.9412,-4.9261,-3.9216,19.139,19.937,22.921,27.885,31.948,5.641,-1.8413,9.8039,16.296
24.580999,19.111,28.155001,4.902,6.8966,4.6377,7.767,-1.0356,5.7886,4.902,6.8966,7.8431,15.311,16.127001,21.016001,29.808001,30.982,3.7179,2.9206,7.8431,13.398
26.476999,30.540001,37.863998,11.765,17.733999,14.3,23.301001,0.90615,15.545,11.765,17.733999,19.608,11.483,10.413,20.063,25.962,29.049999,0.83333,8.6349,4.902,8.5668
21.738001,38.159,40.777,13.725,27.586,16.232,34.951,-1.0356,22.374001,13.725,27.586,25.49,5.7416,-0.06349,16.254,20.191999,28.084,-3.9744,14.349,-0.98039,-0.12882
16.997999,41.967999,41.748001,11.765,26.601,10.435,39.806,-4.9191,27.252001,11.765,26.601,24.51,2.8708,-9.5873,12.444,14.423,30.016001,-7.8205,19.111,-5.8824,-7.8583
14.155,41.967999,43.688999,5.8824,19.704,4.6377,35.922001,-9.7735,25.301001,5.8824,19.704,20.587999,1.9139,-12.444,11.492,12.5,31.948,-7.8205,19.111,-5.8824,-7.8583
11.311,37.206001,40.777,-4.902,14.778,-2.1256,31.068001,-13.657,23.35,-4.902,14.778,13.725,3.8278,-11.492,9.5873,17.308001,33.881001,-8.7821,19.111,-4.902,-3.0274
8.4676,30.540001,33.009998,-10.784,11.823,-7.9227,25.243,-17.540001,18.472,-10.784,11.823,6.8627,8.6124,-6.7302,6.7302,23.077,35.813,-9.7436,17.205999,-0.98039,5.6683
3.7283,23.872999,26.214001,-10.784,5.9113,-11.787,17.476,-20.452999,12.618,-10.784,5.9113,0.98039,13.397,-1.0159,9.5873,27.885,36.778999,-11.667,13.397,3.9216,15.33
3.7283,20.063,24.271999,-9.8039,3.9409,-11.787,11.65,-19.482,8.7154,-9.8039,3.9409,1.9608,18.181999,1.8413,16.254,31.731001,40.644001,-10.705,12.444,9.8039,21.127001
7.5197,20.063,27.184,-8.8235,4.9261,-8.8889,12.621,-16.57,7.7398,-8.8235,4.9261,6.8627,24.879999,6.6032,24.825001,33.653999,44.508999,-8.7821,14.349,14.706,23.059999
9.4155,20.063,29.125999,-5.8824,9.8522,-5.9903,18.447001,-11.715,10.667,-5.8824,9.8522,12.745,29.665001,11.365,29.587,31.731001,45.474998,-4.9359,15.302,18.627001,23.059999
10.363,19.111,28.155001,-4.902,14.778,-3.0918,18.447001,-6.8608,11.642,-4.902,14.778,15.686,27.750999,16.127001,30.540001,29.808001,44.508999,-1.0897,16.254,18.627001,23.059999
11.311,17.205999,28.155001,2.9412,17.733999,-1.1594,17.476,-3.9482,11.642,2.9412,17.733999,16.667,25.837,20.889,28.635,28.846001,42.576,-3.9744,11.492,18.627001,23.059999
13.207,15.302,29.125999,6.8627,18.719,0.77295,13.592,-0.06472,9.6911,6.8627,18.719,18.627001,24.879999,24.698,27.683001,26.923,40.644001,-0.12821,8.6349,18.627001,24.025999
11.311,8.6349,24.271999,8.8235,18.719,4.6377,14.563,2.8479,8.7154,8.8235,18.719,19.608,22.966999,23.746,21.016001,20.191999,30.016001,4.6795,6.7302,14.706,20.160999
4.6761,3.873,13.592,9.8039,19.704,7.5362,14.563,2.8479,6.7642,9.8039,19.704,19.608,13.397,18.032,8.6349,6.7308,10.692,1.7949,3.873,5.8824,7.6006
0.88468,4.8254,8.7379,10.784,20.690001,6.57,13.592,3.8188,8.7154,10.784,20.690001,20.587999,3.8278,11.365,-1.8413,-3.8462,-3.8003,-1.0897,4.8254,-2.9412,-2.0612
-0.06319,5.7778,6.7961,7.8431,15.764,7.5362,16.504999,2.8479,11.642,7.8431,15.764,19.608,-3.8278,3.746,-9.4603,-9.6154,-12.496,-3.9744,3.873,-8.8235,-8.8245
-1.9589,1.0159,-0.97087,1.9608,12.808,12.367,13.592,0.90615,15.545,1.9608,12.808,13.725,-12.44,-4.8254,-15.175,-16.346001,-21.191999,-6.859,3.873,-14.706,-17.52
-2.9068,-6.6032,-7.767,-1.9608,9.8522,12.367,7.767,-1.0356,14.569,-1.9608,9.8522,7.8431,-17.225,-10.54,-16.127001,-23.077,-26.989,-8.7821,1.9683,-19.608,-21.385
-7.6461,-14.222,-14.563,-10.784,-1.9704,5.6039,-1.9417,-4.9191,5.7886,-10.784,-1.9704,1.9608,-21.052999,-13.397,-17.079,-27.885,-28.921,-12.628,-2.7937,-23.528999,-21.385
-11.438,-17.079,-17.476,-18.627001,-6.8966,1.7391,-9.7087,-5.89,0.91057,-18.627001,-6.8966,-2.9412,-22.966999,-13.397,-19.937,-24.038,-24.09,-14.551,-0.88889,-22.549,-17.52
-14.281,-18.032,-18.447001,-18.627001,-11.823,-2.1256,-14.563,-6.8608,-3.9675,-18.627001,-11.823,-8.8235,-22.01,-13.397,-21.841,-21.153999,-20.225,-9.7436,-0.88889,-19.608,-14.622
-15.229,-19.937,-19.417,-19.608,-18.719,-5.0242,-19.417,-8.8026,-8.8455,-19.608,-18.719,-13.725,-18.181999,-16.254,-19.937,-25.0,-19.259001,-3.9744,-4.6984,-14.706,-15.588
-15.229,-24.698,-20.388,-26.471001,-24.631001,-8.8889,-22.33,-8.8026,-14.699,-26.471001,-24.631001,-19.608,-13.397,-16.254,-18.032,-28.846001,-17.327,-2.0513,-11.365,-10.784,-19.452
-13.333,-28.507999,-20.388,-31.372999,-31.527,-9.8551,-27.184,-7.8317,-22.504,-31.372999,-31.527,-22.549,-6.6986,-14.349,-13.27,-27.885,-15.395,-0.12821,-16.127001,-4.902,-20.419001
-12.385,-32.317001,-18.447001,-26.471001,-34.483002,-8.8889,-34.951,-5.89,-26.407,-26.471001,-34.483002,-22.549,-1.9139,-13.397,-9.4603,-26.923,-13.462,0.83333,-20.889,-1.9608,-18.486
-9.5419,-32.317001,-14.563,-17.646999,-31.527,-3.0918,-33.980999,-0.06472,-30.309,-17.646999,-31.527,-17.646999,3.8278,-8.6349,-5.6508,-23.077,-11.53,1.7949,-25.650999,1.9608,-13.655
-2.9068,-33.27,-10.68,-12.745,-32.512001,3.6715,-34.951,7.7023,-38.113998,-12.745,-32.512001,-12.745,8.6124,-4.8254,-0.88889,-21.153999,-10.564,6.6026,-30.413,5.8824,-11.723
4.6761,-33.27,-6.7961,-7.8431,-35.467999,9.4686,-37.863998,11.586,-40.064999,-7.8431,-35.467999,-10.784,9.5694,-6.7302,2.9206,-22.115,-10.564,14.295,-29.459999,8.8235,-13.655
10.363,-28.507999,-0.97087,-4.902,-38.424,14.3,-36.893002,15.469,-39.089001,-4.902,-38.424,-6.8627,9.5694,-7.6825,7.6825,-21.153999,-5.7327,17.179001,-28.507999,10.784,-15.588
16.997999,-18.983999,6.7961,1.9608,-31.527,21.063,-28.155001,18.382,-32.259998,1.9608,-31.527,0.0,8.6124,-9.5873,7.6825,-19.231001,0.06441,17.179001,-26.603001,10.784,-19.452
22.686001,-10.413,15.534,7.8431,-22.66,26.860001,-24.271999,21.294001,-25.431,7.8431,-22.66,7.8431,7.6555,-9.5873,7.6825,-18.268999,2.963,19.103001,-18.032,11.765,-19.452
25.528999,-4.6984,20.388,12.745,-23.645,24.927999,-18.447001,21.294001,-22.504,12.745,-23.645,11.765,5.7416,-8.6349,5.7778,-17.308001,3.9291,18.141001,-15.175,8.8235,-20.419001
20.790001,-1.8413,17.476,9.8039,-23.645,22.028999,-10.68,16.440001,-23.48,9.8039,-23.645,9.8039,2.8708,-7.6825,1.9683,-16.346001,1.9968,11.41,-18.032,2.9412,-20.419001
14.155,-4.6984,10.68,0.98039,-28.570999,13.333,-13.592,10.615,-27.382,0.98039,-28.570999,2.9412,0.95694,-5.7778,-1.8413,-17.308001,-2.8341,4.6795,-19.937,-0.98039,-18.486
5.624,-7.5556,4.8544,-9.8039,-33.498001,7.5362,-17.476,5.7605,-30.309,-9.8039,-33.498001,-2.9412,-2.8708,-1.9683,-5.6508,-19.231001,-6.6989,1.7949,-22.794001,-3.9216,-16.554001
-1.0111,-10.413,0.0,-18.627001,-35.467999,2.7053,-20.388,0.90615,-30.309,-18.627001,-35.467999,-10.784,-3.8278,2.7937,-8.5079,-19.231001,-8.6312,0.83333,-23.746,-5.8824,-12.689
-3.8547,-11.365,-2.9126,-21.569,-32.512001,-5.0242,-26.214001,-4.9191,-31.285,-21.569,-32.512001,-16.667,-1.9139,6.6032,-7.5556,-19.231001,-9.5974,-0.12821,-19.937,-4.902,-7.8583
-7.6461,-10.413,-3.8835,-25.49,-28.570999,-12.754,-21.358999,-9.7735,-29.333,-25.49,-28.570999,-20.587999,-0.95694,8.5079,-5.6508,-15.385,-9.5974,-2.0513,-19.937,-3.9216,-4.9597
-10.49,-9.4603,-5.8252,-27.451,-27.586,-17.584999,-15.534,-13.657,-28.358,-27.451,-27.586,-23.528999,0.0,11.365,-3.746,-10.577,-9.5974,-3.0128,-18.983999,-1.9608,-1.095
-14.281,-13.27,-8.7379,-21.569,-26.601,-21.448999,-18.447001,-14.628,-29.333,-21.569,-26.601,-27.451,0.0,16.127001,-2.7937,-7.6923,-10.564,-3.9744,-17.079,-1.9608,4.7021
-16.177,-17.079,-12.621,-22.549,-21.674999,-22.415001,-23.301001,-14.628,-32.259998,-22.549,-21.674999,-31.372999,1.9139,17.079,-1.8413,-9.6154,-12.496,-4.9359,-20.889,-1.9608,5.6683
-18.073,-20.889,-17.476,-26.471001,-25.615999,-22.415001,-25.243,-12.686,-36.162998,-26.471001,-25.615999,-33.333,3.8278,13.27,-2.7937,-13.462,-16.361,-6.859,-26.603001,0.98039,2.7697
-18.073,-22.794001,-18.447001,-25.49,-28.570999,-22.415001,-29.125999,-9.7735,-36.162998,-25.49,-28.570999,-34.313999,1.9139,7.5556,-6.6032,-19.231001,-22.158001,0.83333,-28.507999,0.0,-1.095
-18.073,-24.698,-20.388,-23.528999,-23.645,-23.382,-25.243,-6.8608,-32.259998,-23.528999,-23.645,-34.313999,-0.95694,0.88889,-10.413,-25.0,-26.023001,6.6026,-27.556,-0.98039,-5.9259
-19.968,-26.603001,-24.271999,-22.549,-23.645,-23.382,-24.271999,-3.9482,-27.382,-22.549,-23.645,-35.293999,-3.8278,-2.9206,-14.222,-25.962,-27.955,5.641,-20.889,-0.98039,-10.757
-19.021,-25.650999,-22.33,-24.51,-20.690001,-22.415001,-24.271999,-2.9773,-22.504,-24.51,-20.690001,-33.333,-5.7416,-8.6349,-14.222,-25.0,-26.023001,4.6795,-18.983999,-1.9608,-14.622
-16.177,-19.937,-18.447001,-17.646999,-10.837,-18.551001,-13.592,0.90615,-15.675,-17.646999,-10.837,-26.471001,-7.6555,-11.492,-13.27,-22.115,-23.124001,4.6795,-18.032,-2.9412,-14.622
-10.49,-13.27,-13.592,-10.784,0.98522,-14.686,0.0,4.7896,-6.8943,-10.784,0.98522,-15.686,-8.6124,-9.5873,-13.27,-16.346001,-19.259001,4.6795,-12.317,-2.9412,-9.7907
-11.438,-7.5556,-10.68,-0.98039,3.9409,-10.821,2.9126,6.7314,-5.9187,-0.98039,3.9409,-9.8039,-9.5694,-9.5873,-14.222,-12.5,-19.259001,2.7564,-9.4603,-5.8824,-6.8921
-7.6461,-3.746,-3.8835,7.8431,10.837,-3.0918,5.8252,9.644,-5.9187,7.8431,10.837,-3.9216,-8.6124,-6.7302,-11.365,-5.7692,-16.361,6.6026,-6.6032,-4.902,-1.095
-0.06319,0.06349,0.97087,8.8235,12.808,1.7391,3.8835,13.528,-8.8455,8.8235,12.808,-0.98039,-5.7416,-0.06349,-5.6508,4.8077,-9.5974,11.41,-7.5556,0.0,5.6683
3.7283,0.06349,1.9417,7.8431,12.808,2.7053,1.9417,14.498,-12.748,7.8431,12.808,-0.98039,-4.7847,5.6508,1.0159,11.538,-3.8003,15.256,-9.4603,2.9412,9.533
3.7283,0.06349,0.97087,4.902,9.8522,2.7053,-0.97087,15.469,-9.8211,4.902,9.8522,0.0,-0.95694,13.27,8.6349,15.385,-0.90177,18.141001,-9.4603,8.8235,15.33
2.7804,2.9206,0.97087,5.8824,7.8818,1.7391,-1.9417,14.498,-7.8699,5.8824,7.8818,0.98039,4.7847,16.127001,11.492,16.346001,2.963,15.256,-6.6032,11.765,16.296
0.88468,5.7778,1.9417,2.9412,9.8522,-2.1256,1.9417,14.498,-4.9431,2.9412,9.8522,0.98039,5.7416,14.222,8.6349,15.385,1.9968,18.141001,-2.7937,10.784,13.398
4.6761,8.6349,3.8835,7.8431,14.778,3.6715,7.767,16.440001,0.91057,7.8431,14.778,5.8824,5.7416,11.365,6.7302,14.423,-0.90177,23.91,1.0159,11.765,11.465
11.311,14.349,2.9126,15.686,22.66,13.333,15.534,19.353001,6.7642,15.686,22.66,12.745,4.7847,12.317,4.8254,14.423,-2.8341,26.795,3.873,13.725,9.533
17.945999,20.063,4.8544,17.646999,28.570999,20.097,28.155001,21.294001,15.545,17.646999,28.570999,22.549,3.8278,13.27,6.7302,13.462,-3.8003,27.756001,10.54,15.686,10.499
19.841999,21.016001,6.7961,17.646999,34.483002,19.129999,33.009998,21.294001,18.472,17.646999,34.483002,28.431,4.7847,8.5079,10.54,9.6154,-2.8341,27.756001,14.349,16.667,9.533
17.945999,18.159,3.8835,19.608,32.512001,21.063,32.039001,19.353001,19.447001,19.608,32.512001,29.412001,2.8708,1.8413,9.5873,5.7692,-3.8003,24.872,14.349,13.725,5.6683
16.051001,16.254,2.9126,25.49,33.498001,23.961,35.922001,20.323999,22.374001,25.49,33.498001,29.412001,0.0,-2.9206,6.7302,3.8462,-6.6989,21.987,17.205999,9.8039,1.8035
11.311,17.205999,3.8835,24.51,34.483002,22.995001,33.009998,19.353001,24.325001,24.51,34.483002,28.431,-1.9139,-7.6825,5.7778,3.8462,-7.6651,16.218,18.159,7.8431,-2.0612
7.5197,17.205999,0.97087,29.412001,33.498001,20.097,29.125999,17.410999,24.325001,29.412001,33.498001,26.471001,-4.7847,-9.5873,5.7778,4.8077,-6.6989,17.179001,20.063,7.8431,-3.0274
7.5197,15.302,0.0,33.333,30.542,19.129999,26.214001,16.440001,25.301001,33.333,30.542,23.528999,-3.8278,-11.492,5.7778,6.7308,-3.8003,20.063999,21.016001,7.8431,-2.0612
11.311,16.254,2.9126,32.353001,28.570999,21.063,24.271999,17.410999,25.301001,32.353001,28.570999,23.528999,0.95694,-11.492,10.54,11.538,1.0306,20.063999,21.968,9.8039,1.8035
15.103,17.205999,6.7961,35.293999,28.570999,23.961,24.271999,20.323999,28.228001,35.293999,28.570999,23.528999,2.8708,-6.7302,13.397,17.308001,5.8615,20.063999,23.872999,12.745,8.5668
15.103,17.205999,6.7961,32.353001,27.586,21.063,23.301001,22.264999,28.228001,32.353001,27.586,22.549,3.8278,-5.7778,11.492,20.191999,7.7939,19.103001,25.778,10.784,12.432
14.155,18.159,5.8252,34.313999,29.556999,22.028999,22.33,22.264999,29.202999,34.313999,29.556999,21.569,3.8278,-1.9683,9.5873,19.231001,8.7601,17.179001,21.968,9.8039,16.296
14.155,18.159,2.9126,37.255001,30.542,24.927999,25.243,22.264999,27.252001,37.255001,30.542,22.549,5.7416,-0.06349,8.6349,19.231001,7.7939,16.218,21.968,10.784,16.296
13.207,18.159,-0.97087,35.293999,33.498001,24.927999,23.301001,20.323999,27.252001,35.293999,33.498001,23.528999,5.7416,-1.9683,7.6825,16.346001,3.9291,13.333,20.063,8.8235,14.364
9.4155,16.254,-6.7961,38.235001,35.467999,22.995001,24.271999,17.410999,27.252001,38.235001,35.467999,24.51,2.8708,-4.8254,4.8254,12.5,-2.8341,9.4872,19.111,6.8627,10.499
2.7804,13.397,-13.592,36.275002,33.498001,18.164,23.301001,15.469,26.275999,36.275002,33.498001,23.528999,-5.7416,-9.5873,-0.88889,5.7692,-11.53,5.641,22.921,1.9608,6.6345
-1.9589,15.302,-15.534,31.372999,35.467999,14.3,28.155001,11.586,27.252001,31.372999,35.467999,24.51,-11.483,-13.397,-4.6984,2.8846,-15.395,1.7949,25.778,0.0,5.6683
-1.0111,17.205999,-8.7379,28.431,33.498001,13.333,29.125999,8.6731,29.202999,28.431,33.498001,23.528999,-12.44,-15.302,-1.8413,1.9231,-11.53,-0.12821,25.778,0.0,3.7359
1.8325,18.159,-3.8835,25.49,37.438,11.401,29.125999,5.7605,33.105999,25.49,37.438,22.549,-11.483,-13.397,4.8254,1.9231,-5.7327,3.7179,26.73,0.0,0.83736
2.7804,17.205999,-0.97087,20.587999,39.409,8.5024,28.155001,3.8188,36.033001,20.587999,39.409,22.549,-9.5694,-10.54,7.6825,1.9231,-1.868,5.641,27.683001,0.0,-1.095
1.8325,16.254,0.97087,16.667,38.424,4.6377,30.097,1.877,37.984001,16.667,38.424,18.627001,-5.7416,-7.6825,8.6349,3.8462,1.9968,3.7179,27.683001,0.98039,-1.095
0.88468,16.254,1.9417,9.8039,39.409,-2.1256,33.980999,-1.0356,37.007999,9.8039,39.409,15.686,-0.95694,-2.9206,9.5873,6.7308,6.8277,0.83333,25.778,2.9412,3.7359
-0.06319,16.254,0.97087,7.8431,40.394001,-5.9903,32.039001,-1.0356,34.081001,7.8431,40.394001,12.745,1.9139,4.6984,7.6825,10.577,8.7601,-2.0513,23.872999,2.9412,8.5668
-1.0111,14.349,-0.97087,7.8431,42.365002,-6.9565,31.068001,-0.06472,32.130001,7.8431,42.365002,14.706,1.9139,5.6508,7.6825,8.6538,6.8277,-3.9744,21.968,0.0,9.533
-3.8547,11.492,-3.8835,7.8431,41.379002,-12.754,35.922001,-1.0356,30.179001,7.8431,41.379002,13.725,0.0,-1.0159,4.8254,5.7692,3.9291,-6.859,22.921,-2.9412,6.6345
-8.594,8.6349,-8.7379,1.9608,38.424,-13.72,26.214001,-2.9773,29.202999,1.9608,38.424,9.8039,-3.8278,-4.8254,1.0159,3.8462,1.9968,-8.7821,21.968,-2.9412,5.6683
-14.281,5.7778,-12.621,1.9608,38.424,-14.686,17.476,-6.8608,31.153999,1.9608,38.424,3.9216,-6.6986,-6.7302,-3.746,1.9231,-0.90177,-17.436001,22.921,-7.8431,5.6683
-16.177,4.8254,-11.65,3.9216,38.424,-18.551001,14.563,-10.744,31.153999,3.9216,38.424,0.0,-9.5694,-11.492,-8.5079,-0.96154,-3.8003,-19.358999,21.016001,-12.745,4.7021
-16.177,4.8254,-9.7087,6.8627,34.483002,-19.517,13.592,-10.744,32.130001,6.8627,34.483002,0.0,-10.526,-12.444,-12.317,-3.8462,-3.8003,-17.436001,18.159,-13.725,-0.12882
-12.385,2.9206,-5.8252,2.9412,32.512001,-14.686,12.621,-12.686,30.179001,2.9412,32.512001,1.9608,-8.6124,-10.54,-12.317,-3.8462,-0.90177,-17.436001,17.205999,-11.765,-3.0274
-7.6461,1.9683,-0.97087,8.8235,27.586,-6.9565,15.534,-10.744,24.325001,8.8235,27.586,4.902,-3.8278,-8.6349,-4.6984,-1.9231,4.8953,-13.59,10.54,-6.8627,-3.0274
-1.9589,1.0159,1.9417,14.706,18.719,-1.1594,11.65,-9.7735,12.618,14.706,18.719,6.8627,0.0,-3.873,2.9206,4.8077,12.625,-12.628,2.9206,-0.98039,-1.095
4.6761,3.873,6.7961,12.745,6.8966,4.6377,1.9417,-5.89,1.8862,12.745,6.8966,6.8627,6.6986,3.746,11.492,14.423,21.32,-8.7821,-2.7937,4.902,5.6683
7.5197,7.6825,10.68,10.784,-4.9261,5.6039,-1.9417,-2.9773,-3.9675,10.784,-4.9261,4.902,13.397,6.6032,20.063,21.153999,27.118,-4.9359,-6.6032,11.765,8.5668
5.624,8.6349,11.65,4.902,-14.778,0.77295,-11.65,-4.9191,-7.8699,4.902,-14.778,0.98039,15.311,11.365,24.825001,24.038,29.049999,-6.859,-7.5556,11.765,8.5668
3.7283,10.54,11.65,-5.8824,-25.615999,-5.9903,-17.476,-8.8026,-12.748,-5.8824,-25.615999,-5.8824,18.181999,18.032,26.73,25.962,30.982,-7.8205,-13.27,11.765,11.465
1.8325,8.6349,11.65,-15.686,-29.556999,-11.787,-19.417,-12.686,-12.748,-15.686,-29.556999,-11.765,21.052999,19.937,26.73,22.115,31.948,-4.9359,-15.175,12.745,11.465
-1.0111,2.9206,8.7379,-21.569,-34.483002,-16.618,-25.243,-13.657,-13.724,-21.569,-34.483002,-16.667,20.096001,15.175,23.872999,14.423,27.118,-3.9744,-16.127001,11.765,7.6006
-3.8547,-2.7937,0.97087,-25.49,-36.452999,-19.517,-26.214001,-11.715,-13.724,-25.49,-36.452999,-19.608,17.225,10.413,18.159,3.8462,19.388,-6.859,-18.032,9.8039,1.8035
-8.594,-11.365,-4.8544,-26.471001,-36.452999,-26.280001,-29.125999,-12.686,-13.724,-26.471001,-36.452999,-23.528999,13.397,5.6508,11.492,-7.6923,10.692,-9.7436,-18.983999,5.8824,-3.9936
-12.385,-22.794001,-12.621,-22.549,-40.394001,-25.313999,-33.009998,-10.744,-20.552999,-22.549,-40.394001,-26.471001,8.6124,-0.06349,3.873,-17.308001,1.9968,-12.628,-26.603001,1.9608,-10.757
-14.281,-28.507999,-17.476,-20.587999,-36.452999,-21.448999,-36.893002,-9.7735,-22.504,-20.587999,-36.452999,-26.471001,4.7847,-0.06349,-4.6984,-20.191999,-5.7327,-14.551,-29.459999,-1.9608,-12.689
-14.281,-27.556,-20.388,-14.706,-28.570999,-18.551001,-32.039001,-9.7735,-20.552999,-14.706,-28.570999,-24.51,1.9139,2.7937,-7.5556,-18.268999,-11.53,-17.436001,-25.650999,-4.902,-8.8245
-15.229,-23.746,-22.33,-10.784,-25.615999,-14.686,-27.184,-7.8317,-20.552999,-10.784,-25.615999,-21.569,-2.8708,-0.06349,-13.27,-15.385,-16.361,-20.320999,-20.889,-7.8431,-6.8921
-14.281,-18.032,-18.447001,-5.8824,-21.674999,-11.787,-23.301001,-8.8026,-13.724,-5.8824,-21.674999,-17.646999,-9.5694,-4.8254,-18.032,-13.462,-19.259001,-22.243999,-16.127001,-12.745,-4.9597
-10.49,-9.4603,-8.7379,-1.9608,-19.704,-7.9227,-20.388,-9.7735,-4.9431,-1.9608,-19.704,-14.706,-9.5694,-4.8254,-13.27,-7.6923,-13.462,-22.243999,-6.6032,-11.765,-1.095
-4.8025,-6.6032,-3.8835,-5.8824,-24.631001,-7.9227,-24.271999,-6.8608,-4.9431,-5.8824,-24.631001,-17.646999,-7.6555,-4.8254,-5.6508,-1.9231,-7.6651,-21.282,-0.88889,-9.8039,-0.12882
-2.9068,-6.6032,-4.8544,-11.765,-30.542,-11.787,-27.184,-8.8026,-2.0163,-11.765,-30.542,-22.549,-3.8278,-1.9683,0.06349,4.8077,-0.90177,-17.436001,0.06349,-6.8627,0.83736
-4.8025,-4.6984,-4.8544,-19.608,-28.570999,-17.584999,-24.271999,-11.715,0.91057,-19.608,-28.570999,-25.49,1.9139,-1.9683,3.873,9.6154,5.8615,-15.513,-1.8413,-1.9608,0.83736
-4.8025,-4.6984,-4.8544,-15.686,-31.527,-17.584999,-26.214001,-9.7735,-0.06504,-15.686,-31.527,-26.471001,3.8278,-5.7778,5.7778,8.6538,9.7262,-14.551,-2.7937,1.9608,-3.9936
-1.9589,-3.746,-1.9417,-8.8235,-28.570999,-12.754,-24.271999,-6.8608,4.813,-8.8235,-28.570999,-22.549,7.6555,-4.8254,8.6349,8.6538,15.523,-10.705,-1.8413,5.8824,-7.8583
1.8325,-2.7937,5.8252,-10.784,-20.690001,-7.9227,-22.33,-6.8608,2.8618,-10.784,-20.690001,-18.627001,15.311,-2.9206,15.302,9.6154,23.253,-8.7821,-4.6984,10.784,-8.8245
9.4155,-0.88889,17.476,-13.725,-19.704,-6.9565,-24.271999,-1.0356,-3.9675,-13.725,-19.704,-13.725,22.966999,2.7937,22.921,12.5,32.915001,-3.0128,-5.6508,16.667,-6.8921
13.207,1.9683,25.243,-12.745,-17.733999,-5.0242,-20.388,0.90615,-6.8943,-12.745,-17.733999,-10.784,26.794001,9.4603,25.778,15.385,39.678001,-1.0897,-3.746,17.646999,-3.9936
13.207,3.873,24.271999,-3.9216,-16.749001,2.7053,-14.563,0.90615,-11.772,-3.9216,-16.749001,-7.8431,24.879999,11.365,23.872999,13.462,39.678001,-4.9359,-5.6508,16.667,-3.0274
16.051001,5.7778,23.301001,1.9608,-12.808,9.4686,-10.68,4.7896,-12.748,1.9608,-12.808,-1.9608,22.01,12.317,21.016001,9.6154,36.778999,2.7564,-6.6032,15.686,-2.0612
17.945999,7.6825,25.243,2.9412,-10.837,12.367,-7.767,4.7896,-13.724,2.9412,-10.837,3.9216,18.181999,12.317,17.205999,5.7692,33.881001,8.5256,-6.6032,12.745,-5.9259
20.790001,10.54,31.068001,6.8627,-7.8818,17.198,-2.9126,4.7896,-10.797,6.8627,-7.8818,12.745,14.354,9.4603,11.492,0.0,27.118,9.4872,-8.5079,9.8039,-8.8245
24.580999,11.492,32.039001,14.706,5.9113,21.063,10.68,12.557,-9.8211,14.706,5.9113,21.569,8.6124,3.746,7.6825,-7.6923,19.388,12.372,-9.4603,8.8235,-11.723
23.632999,6.7302,25.243,20.587999,13.793,25.893999,18.447001,14.498,-4.9431,20.587999,13.793,23.528999,1.9139,-1.9683,3.873,-15.385,9.7262,9.4872,-9.4603,4.902,-16.554001
21.738001,1.0159,15.534,17.646999,10.837,25.893999,14.563,12.557,-2.9919,17.646999,10.837,19.608,1.9139,-5.7778,1.9683,-19.231001,1.0306,7.5641,-10.413,3.9216,-18.486
20.790001,-2.7937,5.8252,13.725,4.9261,26.860001,11.65,15.469,-7.8699,13.725,4.9261,15.686,2.8708,-8.6349,0.06349,-21.153999,-6.6989,8.5256,-13.27,3.9216,-20.419001
18.893999,-3.746,-0.97087,9.8039,-3.9409,22.995001,2.9126,13.528,-11.772,9.8039,-3.9409,9.8039,5.7416,-9.5873,-0.88889,-20.191999,-10.564,7.5641,-16.127001,5.8824,-21.385
17.945999,-4.6984,-1.9417,5.8824,-5.9113,20.097,0.0,9.644,-10.797,5.8824,-5.9113,5.8824,8.6124,-10.54,1.9683,-17.308001,-11.53,5.641,-14.222,7.8431,-18.486
16.997999,-4.6984,-0.97087,7.8431,-1.9704,20.097,3.8835,7.7023,-8.8455,7.8431,-1.9704,3.9216,9.5694,-8.6349,5.7778,-12.5,-8.6312,9.4872,-10.413,8.8235,-11.723
13.207,-5.6508,-4.8544,3.9216,1.9704,18.164,1.9417,5.7605,-9.8211,3.9216,1.9704,0.0,7.6555,-6.7302,5.7778,-8.6538,-7.6651,10.449,-6.6032,7.8431,-7.8583
8.4676,-9.4603,-6.7961,0.0,-6.8966,14.3,-7.767,7.7023,-16.65,0.0,-6.8966,-5.8824,6.6986,-5.7778,3.873,-8.6538,-6.6989,7.5641,-16.127001,6.8627,-4.9597
7.5197,-11.365,-2.9126,2.9412,-10.837,11.401,-12.621,2.8479,-19.577,2.9412,-10.837,-8.8235,11.483,-1.0159,5.7778,-7.6923,-1.868,7.5641,-19.937,8.8235,-0.12882
7.5197,-15.175,-4.8544,0.98039,-15.764,7.5362,-22.33,-1.0356,-24.455,0.98039,-15.764,-10.784,9.5694,-1.9683,3.873,-10.577,-1.868,5.641,-18.983999,8.8235,-3.0274
8.4676,-17.079,-3.8835,-0.98039,-18.719,8.5024,-23.301001,3.8188,-30.309,-0.98039,-18.719,-8.8235,4.7847,-4.8254,1.9683,-12.5,-1.868,11.41,-21.841,6.8627,-7.8583
9.4155,-12.317,1.9417,3.9216,-9.8522,8.5024,-10.68,5.7605,-22.504,3.9216,-9.8522,0.0,0.0,-5.7778,1.9683,-9.6154,0.06441,16.218,-14.222,2.9412,-8.8245
11.311,-4.6984,8.7379,10.784,-4.9261,17.198,-2.9126,6.7314,-12.748,10.784,-4.9261,10.784,-4.7847,-2.9206,0.06349,-3.8462,2.963,15.256,-5.6508,0.0,-4.9597
12.259,1.0159,11.65,16.667,5.9113,24.927999,3.8835,8.6731,-3.9675,16.667,5.9113,21.569,-8.6124,-2.9206,-4.6984,-2.8846,0.06441,13.333,1.0159,-3.9216,-3.0274
8.4676,6.7302,7.767,18.627001,16.749001,23.961,15.534,6.7314,7.7398,18.627001,16.749001,28.431,-14.354,-3.873,-13.27,-6.7308,-9.5974,11.41,7.6825,-9.8039,-3.9936
2.7804,8.6349,3.8835,19.608,21.674999,20.097,23.301001,4.7896,11.642,19.608,21.674999,31.372999,-17.225,-4.8254,-21.841,-10.577,-20.225,6.6026,13.397,-13.725,-4.9597
-3.8547,4.8254,0.0,16.667,15.764,12.367,19.417,1.877,9.6911,16.667,15.764,24.51,-16.268,-4.8254,-27.556,-14.423,-26.023001,1.7949,14.349,-17.646999,-3.9936
-9.5419,2.9206,-2.9126,14.706,17.733999,4.6377,20.388,-2.9773,13.593,14.706,17.733999,17.646999,-15.311,-2.9206,-30.413,-17.308001,-27.955,-3.9744,11.492,-19.608,-3.0274
-16.177,-0.88889,-8.7379,6.8627,17.733999,-3.0918,16.504999,-8.8026,16.52,6.8627,17.733999,9.8039,-18.181999,-1.9683,-33.27,-18.268999,-29.886999,-10.705,14.349,-22.549,-3.9936
-19.968,-6.6032,-14.563,-2.9412,6.8966,-8.8889,11.65,-10.744,11.642,-2.9412,6.8966,0.0,-20.096001,-2.9206,-35.174999,-20.191999,-29.886999,-8.7821,10.54,-21.569,-5.9259
-22.812,-13.27,-20.388,-9.8039,-0.98522,-14.686,1.9417,-13.657,8.7154,-9.8039,-0.98522,-8.8235,-21.052999,-5.7778,-35.174999,-21.153999,-29.886999,-5.8974,6.7302,-19.608,-5.9259
-23.76,-18.032,-24.271999,-13.725,-1.9704,-19.517,-0.97087,-18.511,7.7398,-13.725,-1.9704,-13.725,-16.268,-3.873,-30.413,-19.231001,-26.989,-6.859,8.6349,-14.706,-3.0274
-19.968,-20.889,-26.214001,-14.706,-0.98522,-20.483,-5.8252,-17.540001,4.813,-14.706,-0.98522,-15.686,-10.526,-1.9683,-24.698,-15.385,-21.191999,-5.8974,7.6825,-10.784,-0.12882
-16.177,-22.794001,-25.243,-9.8039,0.0,-16.618,-9.7087,-13.657,2.8618,-9.8039,0.0,-12.745,-7.6555,-1.9683,-16.127001,-11.538,-17.327,-3.9744,7.6825,-6.8627,-0.12882
-10.49,-20.889,-21.358999,-4.902,2.9557,-10.821,-7.767,-9.7735,4.813,-4.902,2.9557,-7.8431,-3.8278,-1.9683,-7.5556,-7.6923,-12.496,-0.12821,8.6349,-1.9608,2.7697
-4.8025,-17.079,-16.504999,-0.98039,7.8818,-5.9903,-5.8252,-6.8608,5.7886,-0.98039,7.8818,-1.9608,0.95694,-3.873,-2.7937,-2.8846,-8.6312,3.7179,12.444,1.9608,2.7697
-0.06319,-10.413,-7.767,4.902,9.8522,-4.058,1.9417,-2.0065,9.6911,4.902,9.8522,4.902,2.8708,0.88889,1.0159,1.9231,-2.8341,3.7179,20.063,4.902,7.6006
-4.8025,-4.6984,-3.8835,0.0,8.867,-5.0242,3.8835,-8.8026,12.618,0.0,8.867,3.9216,0.0,1.8413,-0.88889,3.8462,-2.8341,2.7564,24.825001,2.9412,10.499
-11.438,-0.88889,-2.9126,-3.9216,7.8818,-8.8889,0.97087,-17.540001,14.569,-3.9216,7.8818,2.9412,-3.8278,2.7937,-8.5079,4.8077,-5.7327,-0.12821,27.683001,-4.902,13.398
-17.125,-0.88889,-3.8835,-6.8627,6.8966,-15.652,-3.8835,-16.57,16.52,-6.8627,6.8966,0.0,-5.7416,0.88889,-18.032,2.8846,-11.53,-6.859,26.73,-12.745,13.398
-21.864,-0.88889,-6.7961,-10.784,7.8818,-19.517,0.97087,-16.57,16.52,-10.784,7.8818,-1.9608,-10.526,-2.9206,-21.841,0.0,-16.361,-9.7436,25.778,-14.706,10.499
-23.76,-3.746,-11.65,-13.725,4.9261,-21.448999,3.8835,-14.628,14.569,-13.725,4.9261,-3.9216,-16.268,-1.0159,-22.794001,-3.8462,-20.225,-11.667,21.016001,-14.706,7.6006
-23.76,-4.6984,-12.621,-16.667,10.837,-21.448999,7.767,-14.628,15.545,-16.667,10.837,-4.902,-19.139,-1.0159,-22.794001,-7.6923,-21.191999,-13.59,18.159,-14.706,5.6683
-21.864,-5.6508,-11.65,-13.725,15.764,-19.517,14.563,-14.628,18.472,-13.725,15.764,-1.9608,-18.181999,-1.0159,-22.794001,-8.6538,-21.191999,-15.513,16.254,-15.686,3.7359
-16.177,-4.6984,-10.68,-1.9608,19.704,-11.787,17.476,-5.89,17.496,-1.9608,19.704,1.9608,-19.139,-1.9683,-21.841,-8.6538,-21.191999,-11.667,13.397,-16.667,-0.12882
-12.385,-1.8413,-8.7379,2.9412,18.719,-6.9565,22.33,-2.0065,17.496,2.9412,18.719,3.9216,-19.139,-4.8254,-20.889,-7.6923,-20.225,-6.859,10.54,-14.706,-3.0274
-10.49,0.06349,-7.767,0.98039,20.690001,-3.0918,23.301001,-2.9773,17.496,0.98039,20.690001,6.8627,-21.052999,-5.7778,-21.841,-3.8462,-18.292999,-4.9359,12.444,-14.706,-2.0612
-9.5419,1.9683,-6.7961,0.98039,24.631001,-3.0918,20.388,-2.0065,16.52,0.98039,24.631001,7.8431,-23.923,-7.6825,-23.746,-1.9231,-17.327,-3.9744,14.349,-17.646999,-2.0612
-7.6461,3.873,-4.8544,-0.98039,20.690001,-0.19324,17.476,-1.0356,17.496,-0.98039,20.690001,8.8235,-22.966999,-4.8254,-22.794001,0.96154,-15.395,-4.9359,15.302,-17.646999,0.83736
-8.594,2.9206,-4.8544,-4.902,10.837,-4.058,13.592,-5.89,11.642,-4.902,10.837,4.902,-21.052999,-2.9206,-18.983999,4.8077,-14.428,-6.859,12.444,-17.646999,3.7359
-8.594,2.9206,-5.8252,-6.8627,8.867,-2.1256,13.592,-5.89,8.7154,-6.8627,8.867,2.9412,-19.139,0.88889,-17.079,7.6923,-14.428,-5.8974,11.492,-16.667,5.6683
-8.594,4.8254,-6.7961,-5.8824,11.823,1.7391,11.65,-1.0356,11.642,-5.8824,11.823,2.9412,-17.225,5.6508,-15.175,9.6154,-14.428,-3.0128,13.397,-17.646999,8.5668
-12.385,5.7778,-5.8252,-9.8039,7.8818,-2.1256,4.8544,-2.9773,10.667,-9.8039,7.8818,1.9608,-15.311,8.5079,-12.317,14.423,-11.53,-5.8974,13.397,-20.587999,13.398
-17.125,6.7302,-6.7961,-10.784,4.9261,-6.9565,0.0,-2.0065,8.7154,-10.784,4.9261,0.0,-15.311,10.413,-10.413,18.268999,-7.6651,-5.8974,12.444,-19.608,18.229
-21.864,8.6349,-6.7961,-10.784,0.98522,-14.686,1.9417,-6.8608,7.7398,-10.784,0.98522,-1.9608,-16.268,14.222,-10.413,20.191999,-5.7327,-7.8205,10.54,-18.627001,21.127001
-22.812,11.492,-2.9126,-13.725,-0.98522,-17.584999,11.65,-8.8026,8.7154,-13.725,-0.98522,-0.98039,-13.397,17.079,-11.365,20.191999,-3.8003,-10.705,9.5873,-14.706,22.093
-21.864,10.54,-2.9126,-10.784,-0.98522,-16.618,5.8252,-8.8026,5.7886,-10.784,-0.98522,-2.9412,-10.526,16.127001,-15.175,20.191999,-3.8003,-11.667,9.5873,-13.725,21.127001
-16.177,8.6349,-1.9417,-7.8431,0.98522,-13.72,2.9126,-8.8026,1.8862,-7.8431,0.98522,-1.9608,-6.6986,14.222,-18.032,19.231001,-2.8341,-14.551,9.5873,-12.745,18.229
-8.594,6.7302,-1.9417,-7.8431,-0.98522,-9.8551,5.8252,-6.8608,2.8618,-7.8431,-0.98522,0.0,-5.7416,12.317,-17.079,14.423,-2.8341,-15.513,2.9206,-11.765,14.364
-1.9589,6.7302,0.0,-7.8431,0.0,-5.9903,6.7961,-5.89,2.8618,-7.8431,0.0,3.9216,-4.7847,11.365,-14.222,12.5,-1.868,-16.474001,1.0159,-9.8039,13.398
1.8325,7.6825,2.9126,-6.8627,0.0,-5.9903,8.7379,-3.9482,2.8618,-6.8627,0.0,4.902,-0.95694,10.413,-10.413,11.538,0.06441,-9.7436,3.873,-6.8627,12.432
0.88468,3.873,2.9126,-10.784,-6.8966,-5.0242,5.8252,-5.89,1.8862,-10.784,-6.8966,1.9608,2.8708,8.5079,-5.6508,10.577,1.9968,-3.9744,1.9683,-2.9412,11.465
-1.9589,-2.7937,0.97087,-15.686,-14.778,-4.058,-7.767,-1.0356,-6.8943,-15.686,-14.778,-4.902,4.7847,3.746,-2.7937,7.6923,1.9968,-3.0128,-2.7937,-1.9608,7.6006
-8.594,-6.6032,-2.9126,-19.608,-21.674999,-11.787,-18.447001,-9.7735,-14.699,-19.608,-21.674999,-11.765,3.8278,3.746,-4.6984,7.6923,1.0306,-3.0128,-9.4603,-3.9216,5.6683
-10.49,-8.5079,-4.8544,-20.587999,-21.674999,-14.686,-25.243,-14.628,-18.601999,-20.587999,-21.674999,-15.686,1.9139,5.6508,-4.6984,8.6538,1.9968,-3.0128,-14.222,-5.8824,6.6345
-7.6461,-6.6032,-1.9417,-25.49,-18.719,-11.787,-20.388,-6.8608,-16.65,-25.49,-18.719,-12.745,0.95694,2.7937,-1.8413,10.577,5.8615,-0.12821,-15.175,-3.9216,4.7021
-1.9589,0.06349,3.8835,-19.608,-14.778,-5.9903,-11.65,-2.0065,-9.8211,-19.608,-14.778,-5.8824,0.95694,0.88889,-1.8413,12.5,9.7262,0.83333,-8.5079,-0.98039,4.7021
0.88468,5.7778,7.767,-10.784,-11.823,-0.19324,-4.8544,0.90615,-1.0407,-10.784,-11.823,0.0,2.8708,1.8413,-2.7937,14.423,12.625,-2.0513,-4.6984,0.0,6.6345
1.8325,8.6349,9.7087,-7.8431,-8.867,-0.19324,2.9126,-1.0356,2.8618,-7.8431,-8.867,1.9608,6.6986,5.6508,-2.7937,14.423,13.591,1.7949,0.06349,3.9216,8.5668
0.88468,4.8254,7.767,-7.8431,-7.8818,-1.1594,-0.97087,-2.0065,-0.06504,-7.8431,-7.8818,0.0,5.7416,6.6032,-1.8413,12.5,11.659,1.7949,2.9206,3.9216,7.6006
-1.0111,-0.88889,6.7961,-7.8431,-2.9557,-1.1594,-0.97087,0.90615,0.91057,-7.8431,-2.9557,-0.98039,8.6124,7.5556,1.0159,8.6538,11.659,0.83333,4.8254,6.8627,6.6345
-3.8547,-4.6984,2.9126,-6.8627,-0.98522,-3.0918,0.0,0.90615,0.91057,-6.8627,-0.98522,-2.9412,11.483,8.5079,5.7778,4.8077,10.692,-2.0513,-1.8413,8.8235,2.7697
-7.6461,-8.5079,-1.9417,-5.8824,-2.9557,-9.8551,-3.8835,-2.9773,-6.8943,-5.8824,-2.9557,-6.8627,10.526,10.413,5.7778,0.0,8.7601,-5.8974,-9.4603,6.8627,0.83736
-12.385,-11.365,-6.7961,-10.784,-7.8818,-23.382,-3.8835,-8.8026,-4.9431,-10.784,-7.8818,-11.765,10.526,9.4603,3.873,-0.96154,5.8615,-9.7436,-10.413,2.9412,1.8035
-14.281,-12.317,-9.7087,-14.706,-9.8522,-23.382,-4.8544,-13.657,-4.9431,-14.706,-9.8522,-14.706,10.526,4.6984,3.873,-2.8846,4.8953,-11.667,-9.4603,0.98039,-0.12882
-16.177,-12.317,-8.7379,-15.686,-7.8818,-15.652,-9.7087,-13.657,-4.9431,-15.686,-7.8818,-13.725,7.6555,0.88889,1.9683,-5.7692,3.9291,-14.551,-6.6032,-0.98039,-3.9936
-15.229,-3.746,-3.8835,-11.765,-5.9113,-9.8551,-1.9417,-5.89,1.8862,-11.765,-5.9113,-6.8627,2.8708,-1.9683,0.06349,-4.8077,2.963,-18.396999,-0.88889,-2.9412,-5.9259
-13.333,3.873,0.97087,-4.902,-3.9409,-5.0242,0.97087,-2.0065,1.8862,-4.902,-3.9409,-0.98039,-3.8278,-5.7778,-2.7937,-1.9231,1.9968,-12.628,-0.88889,-7.8431,-5.9259
-10.49,9.5873,0.0,-0.98039,5.9113,-2.1256,6.7961,0.90615,8.7154,-0.98039,5.9113,2.9412,-8.6124,-4.8254,-6.6032,4.8077,1.9968,-4.9359,1.9683,-10.784,-3.0274
-9.5419,8.6349,-5.8252,-2.9412,9.8522,-2.1256,7.767,1.877,13.593,-2.9412,9.8522,2.9412,-12.44,-5.7778,-8.5079,5.7692,-1.868,-3.0128,2.9206,-12.745,-1.095
-10.49,4.8254,-8.7379,-1.9608,5.9113,-3.0918,8.7379,2.8479,7.7398,-1.9608,5.9113,0.98039,-11.483,-3.873,-7.5556,1.9231,-3.8003,-2.0513,1.0159,-7.8431,0.83736
-4.8025,3.873,-4.8544,-2.9412,4.9261,-5.0242,9.7087,-4.9191,4.813,-2.9412,4.9261,0.98039,-1.9139,4.6984,1.9683,6.7308,1.9968,-3.9744,-5.6508,2.9412,8.5668
1.8325,2.9206,-0.97087,-7.8431,-2.9557,-7.9227,0.0,-12.686,-6.8943,-7.8431,-2.9557,-0.98039,9.5694,13.27,15.302,13.462,10.692,1.7949,-10.413,14.706,14.364
4.6761,1.9683,1.9417,-4.902,-5.9113,-5.9903,-1.9417,-5.89,-15.675,-4.902,-5.9113,-0.98039,17.225,14.222,24.825001,17.308001,17.455999,9.4872,-13.27,22.549,16.296
11.311,3.873,5.8252,0.0,-5.9113,-0.19324,-1.9417,2.8479,-19.577,0.0,-5.9113,1.9608,23.923,17.079,32.444,22.115,23.253,10.449,-13.27,28.431,18.229
16.051001,3.873,9.7087,0.98039,-6.8966,3.6715,-3.8835,7.7023,-19.577,0.98039,-6.8966,3.9216,28.708,18.032,35.301998,22.115,25.184999,15.256,-11.365,31.372999,19.195
16.997999,0.06349,9.7087,7.8431,-2.9557,7.5362,-0.97087,11.586,-13.724,7.8431,-2.9557,4.902,27.750999,16.127001,33.396999,14.423,20.354,16.218,-10.413,30.392,14.364
18.893999,-0.88889,5.8252,18.627001,0.0,18.164,3.8835,28.091,-7.8699,18.627001,0.0,8.8235,22.01,8.5079,27.683001,3.8462,12.625,14.295,-7.5556,23.528999,2.7697
15.103,-1.8413,-1.9417,15.686,7.8818,19.129999,6.7961,24.207001,-1.0407,15.686,7.8818,9.8039,12.44,-1.9683,17.205999,-6.7308,1.9968,12.372,-4.6984,15.686,-8.8245
9.4155,-0.88889,-4.8544,19.608,12.808,16.232,10.68,19.353001,4.813,19.608,12.808,10.784,0.95694,-8.6349,8.6349,-12.5,-4.7665,9.4872,-3.746,7.8431,-16.554001
1.8325,0.06349,-3.8835,26.471001,11.823,14.3,11.65,22.264999,10.667,26.471001,11.823,8.8235,-7.6555,-11.492,1.0159,-14.423,-5.7327,7.5641,-1.8413,-1.9608,-21.385
-5.7504,-4.6984,-8.7379,23.528999,13.793,9.4686,6.7961,20.323999,11.642,23.528999,13.793,1.9608,-14.354,-14.349,-7.5556,-17.308001,-8.6312,6.6026,0.06349,-10.784,-25.25
-13.333,-15.175,-16.504999,18.627001,9.8522,4.6377,-5.8252,16.440001,9.6911,18.627001,9.8522,-7.8431,-16.268,-11.492,-13.27,-19.231001,-13.462,3.7179,0.06349,-14.706,-24.283001
-13.333,-17.079,-19.417,17.646999,8.867,1.7391,-2.9126,10.615,12.618,17.646999,8.867,-6.8627,-19.139,-11.492,-16.127001,-17.308001,-14.428,-2.0513,1.9683,-14.706,-20.419001
-7.6461,-9.4603,-14.563,16.667,5.9113,1.7391,3.8835,5.7605,18.472,16.667,5.9113,-0.98039,-19.139,-13.397,-14.222,-12.5,-14.428,-0.12821,5.7778,-13.725,-15.588
-0.06319,1.0159,-7.767,10.784,5.9113,5.6039,8.7379,9.644,19.447001,10.784,5.9113,5.8824,-13.397,-8.6349,-6.6032,-5.7692,-11.53,0.83333,12.444,-7.8431,-4.9597
4.6761,8.6349,-2.9126,9.8039,8.867,5.6039,13.592,8.6731,23.35,9.8039,8.867,7.8431,-6.6986,-1.9683,5.7778,2.8846,-7.6651,1.7949,19.111,0.0,6.6345
6.5719,12.444,-3.8835,9.8039,8.867,1.7391,12.621,2.8479,22.374001,9.8039,8.867,5.8824,0.0,3.746,13.397,8.6538,-3.8003,2.7564,21.968,4.902,16.296
2.7804,8.6349,-10.68,3.9216,4.9261,-2.1256,14.563,0.90615,17.496,3.9216,4.9261,1.9608,1.9139,0.88889,16.254,5.7692,-4.7665,1.7949,19.111,8.8235,17.261999
0.88468,2.9206,-15.534,5.8824,-2.9557,-8.8889,5.8252,4.7896,10.667,5.8824,-2.9557,-3.9216,3.8278,-4.8254,18.159,0.96154,-6.6989,2.7564,7.6825,11.765,12.432
3.7283,2.9206,-12.621,7.8431,0.0,-2.1256,2.9126,9.644,11.642,7.8431,0.0,-3.9216,8.6124,-4.8254,19.111,1.9231,-1.868,9.4872,7.6825,16.667,10.499
2.7804,-1.8413,-12.621,6.8627,-5.9113,6.57,-4.8544,16.440001,1.8862,6.8627,-5.9113,-6.8627,6.6986,-7.6825,15.302,-0.96154,-2.8341,13.333,1.9683,16.667,4.7021
5.624,-6.6032,-7.767,10.784,-6.8966,7.5362,-10.68,10.615,-3.9675,10.784,-6.8966,-8.8235,8.6124,-6.7302,18.159,0.0,1.9968,12.372,-0.88889,18.627001,2.7697
14.155,-7.5556,0.97087,13.725,-2.9557,14.3,-12.621,9.644,-2.0163,13.725,-2.9557,-4.902,15.311,-1.9683,23.872999,5.7692,13.591,13.333,0.06349,20.587999,3.7359
23.632999,-11.365,9.7087,19.608,-5.9113,22.995001,-12.621,12.557,-6.8943,19.608,-5.9113,0.0,18.181999,3.746,29.587,13.462,24.219,14.295,1.0159,21.569,7.6006
28.372999,-12.317,17.476,19.608,-4.9261,24.927999,-13.592,13.528,-4.9431,19.608,-4.9261,2.9412,22.966999,11.365,33.396999,18.268999,32.915001,16.218,1.9683,19.608,9.533
27.424999,-7.5556,22.33,21.569,-0.98522,23.961,-10.68,14.498,-0.06504,21.569,-0.98522,9.8039,23.923,13.27,31.492001,16.346001,37.745998,12.372,1.0159,16.667,5.6683
21.738001,1.0159,23.301001,19.608,5.9113,20.097,1.9417,17.410999,7.7398,19.608,5.9113,15.686,19.139,11.365,24.825001,12.5,36.778999,12.372,4.8254,13.725,-0.12882
14.155,4.8254,19.417,18.627001,17.733999,10.435,16.504999,12.557,11.642,18.627001,17.733999,18.627001,12.44,7.5556,16.254,3.8462,28.084,14.295,6.7302,8.8235,-6.8921
6.5719,1.0159,6.7961,15.686,26.601,2.7053,15.534,9.644,11.642,15.686,26.601,17.646999,1.9139,-0.06349,2.9206,-8.6538,13.591,10.449,-1.8413,0.98039,-15.588
-0.06319,0.06349,-4.8544,11.765,28.570999,-5.0242,22.33,4.7896,12.618,11.765,28.570999,16.667,-8.6124,-8.6349,-7.5556,-18.268999,-0.90177,4.6795,-5.6508,-4.902,-22.351
-1.9589,2.9206,-9.7087,14.706,27.586,-3.0918,26.214001,0.90615,13.593,14.706,27.586,15.686,-10.526,-12.444,-7.5556,-21.153999,-8.6312,-0.12821,-3.746,-3.9216,-21.385
-1.9589,8.6349,-11.65,8.8235,26.601,-5.0242,28.155001,-3.9482,16.52,8.8235,26.601,13.725,-7.6555,-11.492,-6.6032,-18.268999,-13.462,-1.0897,2.9206,-3.9216,-14.622
-1.0111,12.444,-14.563,3.9216,21.674999,-1.1594,33.009998,-1.0356,17.496,3.9216,21.674999,11.765,-4.7847,-6.7302,-7.5556,-15.385,-17.327,-0.12821,13.397,-3.9216,-7.8583
-8.594,8.6349,-21.358999,0.0,13.793,-5.9903,25.243,-6.8608,14.569,0.0,13.793,2.9412,-8.6124,-7.6825,-12.317,-17.308001,-27.955,-6.859,15.302,-6.8627,-5.9259
-8.594,5.7778,-23.301001,-1.9608,9.8522,-10.821,20.388,-19.482,17.496,-1.9608,9.8522,-3.9216,-8.6124,-5.7778,-14.222,-14.423,-30.853001,-11.667,17.205999,-6.8627,-1.095
-12.385,5.7778,-22.33,-2.9412,4.9261,-12.754,20.388,-13.657,17.496,-2.9412,4.9261,-7.8431,-8.6124,-6.7302,-12.317,-9.6154,-27.955,-7.8205,17.205999,-5.8824,1.8035
-14.281,5.7778,-16.504999,-2.9412,3.9409,-11.787,18.447001,-4.9191,14.569,-2.9412,3.9409,-6.8627,-8.6124,-6.7302,-5.6508,-1.9231,-21.191999,-3.0128,14.349,-2.9412,5.6683
-4.8025,10.54,-4.8544,-0.98039,3.9409,-4.058,13.592,-0.06472,8.7154,-0.98039,3.9409,-3.9216,-2.8708,-2.9206,5.7778,7.6923,-5.7327,4.6795,10.54,1.9608,10.499
6.5719,18.159,5.8252,8.8235,1.9704,7.5362,16.504999,9.644,8.7154,8.8235,1.9704,2.9412,4.7847,-1.0159,15.302,19.231001,10.692,18.141001,13.397,8.8235,11.465
13.207,21.968,13.592,10.784,3.9409,11.401,19.417,12.557,10.667,10.784,3.9409,7.8431,8.6124,-3.873,21.968,24.038,18.422001,23.91,18.159,12.745,12.432
21.738001,28.635,24.271999,12.745,7.8818,18.164,24.271999,19.353001,14.569,12.745,7.8818,16.667,12.44,-1.0159,29.587,26.923,26.150999,27.756001,22.921,17.646999,16.296
31.216,40.063,35.922001,20.587999,11.823,20.097,34.951,19.353001,17.496,20.587999,11.823,25.49,18.181999,7.5556,37.206001,35.577,34.847,29.679001,26.73,22.549,21.127001
35.956001,47.682999,43.688999,24.51,13.793,22.995001,38.834999,15.469,15.545,24.51,13.793,31.372999,23.923,12.317,40.063,41.346001,39.678001,26.795,28.635,25.49,24.025999
36.903999,48.634998,42.717999,23.528999,13.793,28.792,36.893002,19.353001,10.667,23.528999,13.793,33.333,24.879999,15.175,36.254002,40.384998,37.745998,25.833,23.872999,24.51,22.093
35.007999,43.873001,38.834999,24.51,10.837,31.691,32.039001,19.353001,6.7642,24.51,10.837,35.293999,22.01,16.127001,28.635,36.537998,30.982,19.103001,21.968,22.549,19.195
29.320999,37.206001,33.009998,22.549,8.867,30.725,29.125999,15.469,3.8374,22.549,8.867,34.313999,17.225,16.127001,20.063,29.808001,23.253,15.256,16.254,14.706,16.296
23.632999,31.492001,28.155001,23.528999,10.837,28.792,27.184,18.382,0.91057,23.528999,10.837,33.333,12.44,16.127001,12.444,23.077,16.49,10.449,12.444,7.8431,15.33
17.945999,26.73,24.271999,21.569,11.823,27.826,19.417,14.498,0.91057,21.569,11.823,32.353001,6.6986,14.222,2.9206,17.308001,10.692,2.7564,8.6349,0.98039,14.364
