C3,C4,Cz,F1,F2,F3,F4,F7,F8,Fp1,Fp2,Fz,O1,O2,P3,P4,Pz,T3,T4,T5,T6
3.7283,-1.9048,1.8211,10.564,6.7314,9.4418,5.6778,8.5897,0.89744,10.564,6.7314,9.6911,-0.0638,4.7847,3.8095,-0.0638,1.7949,9.5056,-8.5308,3.8647,-2.9346
4.6761,-3.8095,-2.0813,8.6312,4.7896,8.4848,2.807,2.8205,0.89744,8.6312,4.7896,5.7886,-0.0638,2.8708,3.8095,0.89314,1.7949,6.6348,-7.5829,3.8647,-3.8915
-2.9068,-4.7619,-6.9593,5.7327,5.7605,0.82935,1.8501,1.859,-0.0641,5.7327,5.7605,-0.06504,-0.0638,1.9139,1.9048,-0.0638,-1.0897,1.8501,-6.6351,3.8647,-4.8485
-8.594,-1.9048,-7.935,3.8003,5.7605,-2.0415,-0.0638,-1.9872,-1.9872,3.8003,5.7605,-2.9919,0.89314,4.7847,1.9048,2.807,-0.12821,0.89314,-7.5829,2.8986,-1.9777
-7.6461,-2.8571,-7.935,0.90177,4.7896,-3.9553,-5.8054,-3.9103,-4.8718,0.90177,4.7896,-6.8943,-1.0207,4.7847,-1.9048,5.6778,-0.12821,-4.8485,-2.8436,0.0,-0.0638
-10.49,-1.9048,-7.935,0.90177,-1.0356,-3.9553,-8.6762,-0.0641,-6.7949,0.90177,-1.0356,-8.8455,-1.9777,3.8278,-6.6667,6.6348,0.83333,-1.0207,-3.7915,-0.96618,0.89314
-9.5419,-8.5714,-6.9593,-1.9968,-2.0065,-2.9984,-8.6762,-3.9103,-6.7949,-1.9968,-2.0065,-9.8211,1.8501,3.8278,-6.6667,3.764,1.7949,-1.9777,-4.7393,-0.96618,1.8501
0.88468,-14.286,-6.9593,-3.9291,-2.0065,-3.9553,-9.6332,-7.7564,-9.6795,-3.9291,-2.0065,-9.8211,6.6348,3.8278,-2.8571,-0.0638,3.7179,-1.9777,-6.6351,0.96618,-3.8915
0.88468,-9.5238,-2.0813,-0.06441,-1.0356,-2.0415,-8.6762,-1.9872,-11.603,-0.06441,-1.0356,-5.9187,6.6348,2.8708,0.95238,0.89314,3.7179,2.807,-9.4787,4.8309,-4.8485
2.7804,-1.9048,3.7724,6.6989,0.90615,5.614,-4.8485,0.89744,-12.564,6.6989,0.90615,-1.0407,0.89314,-1.9139,-1.9048,1.8501,0.83333,3.764,-8.5308,3.8647,-3.8915
8.4676,2.8571,9.626,9.5974,3.8188,7.5279,-1.0207,7.6282,-8.7179,9.5974,3.8188,3.8374,2.807,-1.9139,1.9048,2.807,3.7179,10.463,-6.6351,4.8309,-2.9346
13.207,4.7619,11.577,5.7327,-3.9482,5.614,-1.9777,8.5897,-6.7949,5.7327,-3.9482,1.8862,7.5917,-1.9139,8.5714,3.764,7.5641,4.7209,-4.7393,8.6957,-3.8915
15.103,2.8571,9.626,0.90177,-8.8026,4.6571,-4.8485,5.7051,-7.7564,0.90177,-8.8026,-2.0163,6.6348,-5.7416,12.381,1.8501,7.5641,-3.8915,-6.6351,6.7633,-7.7193
17.945999,7.619,14.504,4.7665,-4.9191,9.4418,-5.8054,9.5513,-7.7564,4.7665,-4.9191,1.8862,11.419,-2.8708,18.094999,3.764,13.333,2.807,-5.6872,9.6618,-6.7624
14.155,16.190001,21.333,6.6989,-1.0356,13.27,0.89314,12.436,-6.7949,6.6989,-1.0356,9.6911,15.247,0.95694,20.0,8.5486,17.179001,14.29,-3.7915,11.594,-3.8915
17.945999,14.286,19.382,5.7327,1.877,13.27,5.6778,6.6667,-5.8333,5.7327,1.877,11.642,13.333,1.9139,20.0,8.5486,16.218,0.89314,-3.7915,13.527,-2.9346
8.4676,0.95238,9.626,-1.0306,-3.9482,0.82935,-0.0638,4.7436,-7.7564,-1.0306,-3.9482,2.8618,9.5056,1.9139,13.333,3.764,12.372,2.807,0.0,7.7295,-2.9346
0.88468,-4.7619,3.7724,-5.8615,-8.8026,-7.7831,-2.9346,1.859,-6.7949,-5.8615,-8.8026,-4.9431,8.5486,1.9139,6.6667,0.89314,7.5641,11.419,0.0,2.8986,-2.9346
12.259,-1.9048,7.6748,-4.8953,-4.9191,-0.12759,-2.9346,-0.0641,-6.7949,-4.8953,-4.9191,-1.0407,9.5056,4.7847,9.5238,2.807,9.4872,6.6348,-1.8957,5.7971,-0.0638
7.5197,0.0,6.6992,-3.9291,-4.9191,-2.0415,-3.8915,3.7821,-9.6795,-3.9291,-4.9191,-0.06504,6.6348,1.9139,7.619,2.807,6.6026,5.6778,-0.94787,6.7633,-1.0207
3.7283,0.95238,5.7236,-1.9968,-1.0356,-3.9553,-1.9777,7.6282,-7.7564,-1.9968,-1.0356,0.91057,9.5056,1.9139,10.476,3.764,6.6026,0.89314,-0.94787,10.628,0.89314
10.363,-1.9048,1.8211,-2.963,-0.06472,-1.0845,-1.9777,1.859,-6.7949,-2.963,-0.06472,0.91057,9.5056,2.8708,10.476,1.8501,5.641,4.7209,-2.8436,9.6618,-1.0207
4.6761,-5.7143,-4.0325,-1.0306,-0.06472,-2.9984,-1.9777,-2.9487,-6.7949,-1.0306,-0.06472,-1.0407,6.6348,0.95694,8.5714,-3.8915,1.7949,6.6348,-3.7915,8.6957,-2.9346
-8.594,-5.7143,-7.935,-1.9968,-0.06472,-4.9123,-7.7193,-2.9487,-11.603,-1.9968,-0.06472,-4.9431,6.6348,-1.9139,7.619,-7.7193,-1.0897,3.764,-6.6351,9.6618,-4.8485
-10.49,-11.429,-10.862,-5.8615,-1.0356,-6.8262,-9.6332,-4.8718,-15.449,-5.8615,-1.0356,-7.8699,5.6778,-2.8708,5.7143,-9.6332,-3.0128,-0.0638,-6.6351,8.6957,-6.7624
1.8325,-12.381,-8.9106,-0.06441,1.877,3.7002,-3.8915,-5.8333,-10.641,-0.06441,1.877,-3.9675,8.5486,0.0,5.7143,-7.7193,-1.0897,-2.9346,-4.7393,7.7295,-5.8054
-6.6983,-14.286,-9.8862,3.8003,3.8188,-2.0415,-5.8054,3.7821,-11.603,3.8003,3.8188,-5.9187,7.5917,0.0,-3.8095,-9.6332,-3.9744,4.7209,-4.7393,1.9324,-8.6762
-8.594,-11.429,-5.9837,-1.0306,1.877,-8.74,-5.8054,3.7821,-10.641,-1.0306,1.877,-5.9187,8.5486,0.95694,-3.8095,-7.7193,-3.0128,1.8501,-5.6872,3.8647,-7.7193
-1.0111,-2.8571,-1.1057,2.8341,2.8479,-4.9123,-2.9346,-2.9487,-9.6795,2.8341,2.8479,-2.9919,8.5486,5.7416,-1.9048,-1.0207,0.83333,2.807,-3.7915,5.7971,-1.0207
1.8325,0.0,-2.0813,7.6651,6.7314,0.82935,-1.0207,-3.9103,-7.7564,7.6651,6.7314,0.91057,2.807,7.6555,-5.7143,2.807,0.83333,2.807,0.0,0.0,1.8501
3.7283,2.8571,-0.13008,12.496,10.615,3.7002,3.764,-0.0641,-2.9487,12.496,10.615,2.8618,1.8501,4.7847,-3.8095,6.6348,2.7564,-3.8915,0.94787,0.96618,3.764
-11.438,9.5238,1.8211,13.462,11.586,3.7002,4.7209,0.89744,-1.9872,13.462,11.586,1.8862,-0.0638,3.8278,-5.7143,9.5056,2.7564,-0.0638,4.7393,-1.9324,5.6778
-10.49,6.6667,1.8211,17.327,13.528,4.6571,3.764,4.7436,-2.9487,17.327,13.528,1.8862,-1.9777,3.8278,-7.619,7.5917,0.83333,-7.7193,2.8436,-3.8647,5.6778
-0.06319,6.6667,5.7236,12.496,10.615,6.571,4.7209,2.8205,-2.9487,12.496,10.615,2.8618,1.8501,7.6555,-3.8095,9.5056,2.7564,-9.6332,2.8436,-3.8647,6.6348
-1.9589,7.619,6.6992,11.53,12.557,2.7432,1.8501,2.8205,-1.9872,11.53,12.557,3.8374,3.764,9.5694,-0.95238,9.5056,5.641,-3.8915,3.7915,0.0,9.5056
1.8325,4.7619,6.6992,12.496,13.528,1.7863,0.89314,8.5897,-3.9103,12.496,13.528,4.813,1.8501,7.6555,0.95238,8.5486,4.6795,-11.547,2.8436,-2.8986,8.5486
2.7804,2.8571,3.7724,15.395,13.528,6.571,2.807,12.436,-2.9487,15.395,13.528,4.813,-1.0207,4.7847,-1.9048,5.6778,0.83333,-4.8485,4.7393,-6.7633,7.5917
6.5719,2.8571,1.8211,13.462,13.528,11.356,0.89314,8.5897,-1.0256,13.462,13.528,4.813,1.8501,5.7416,-1.9048,2.807,-1.0897,8.5486,0.94787,-1.9324,8.5486
10.363,1.9048,3.7724,15.395,16.440001,9.4418,3.764,13.397,0.89744,15.395,16.440001,4.813,-1.0207,4.7847,-1.9048,-0.0638,-3.0128,5.6778,1.8957,-1.9324,8.5486
6.5719,0.95238,3.7724,16.361,15.469,7.5279,6.6348,11.474,2.8205,16.361,15.469,5.7886,-6.7624,0.0,-4.7619,-3.8915,-6.859,1.8501,4.7393,-4.8309,5.6778
3.7283,0.95238,0.84553,9.5974,11.586,4.6571,6.6348,7.6282,4.7436,9.5974,11.586,3.8374,-8.6762,-2.8708,-6.6667,-6.7624,-8.7821,-1.9777,4.7393,-4.8309,4.7209
3.7283,8.5714,0.84553,12.496,11.586,7.5279,8.5486,5.7051,4.7436,12.496,11.586,5.7886,-7.7193,0.0,-4.7619,-3.8915,-5.8974,0.89314,6.6351,-4.8309,7.5917
2.7804,4.7619,2.7967,16.361,16.440001,13.27,10.463,11.474,8.5897,16.361,16.440001,10.667,-5.8054,-0.95694,-0.95238,-1.9777,-2.0513,2.807,8.5308,-2.8986,7.5917
7.5197,3.8095,7.6748,12.496,17.410999,15.183,9.5056,6.6667,8.5897,12.496,17.410999,13.593,-1.9777,1.9139,4.7619,1.8501,3.7179,-1.0207,8.5308,0.0,7.5917
5.624,6.6667,9.626,7.6651,13.528,7.5279,10.463,7.6282,8.5897,7.6651,13.528,13.593,2.807,4.7847,6.6667,3.764,7.5641,2.807,8.5308,3.8647,10.463
6.5719,4.7619,7.6748,11.53,12.557,5.614,11.419,7.6282,5.7051,11.53,12.557,12.618,1.8501,3.8278,4.7619,1.8501,4.6795,2.807,5.6872,4.8309,6.6348
3.7283,4.7619,5.7236,9.5974,8.6731,4.6571,5.6778,5.7051,1.859,9.5974,8.6731,10.667,-1.0207,4.7847,1.9048,0.89314,2.7564,4.7209,3.7915,0.0,4.7209
9.4155,3.8095,8.6504,9.5974,5.7605,8.4848,5.6778,7.6282,1.859,9.5974,5.7605,10.667,-0.0638,3.8278,5.7143,0.89314,2.7564,0.89314,2.8436,-0.96618,3.764
10.363,4.7619,8.6504,13.462,9.644,11.356,8.5486,8.5897,3.7821,13.462,9.644,11.642,-5.8054,-1.9139,2.8571,-0.0638,1.7949,7.5917,2.8436,-2.8986,-0.0638
5.624,7.619,8.6504,15.395,9.644,13.27,9.5056,11.474,4.7436,15.395,9.644,12.618,-9.6332,-4.7847,0.95238,1.8501,0.83333,6.6348,0.94787,-3.8647,-0.0638
12.259,8.5714,7.6748,16.361,10.615,16.139999,8.5486,8.5897,4.7436,16.361,10.615,12.618,-5.8054,-5.7416,1.9048,2.807,0.83333,4.7209,-1.8957,-1.9324,-0.0638
11.311,8.5714,6.6992,14.428,7.7023,16.139999,5.6778,8.5897,4.7436,14.428,7.7023,9.6911,-3.8915,-5.7416,2.8571,3.764,0.83333,5.6778,-0.94787,-0.96618,-1.0207
-0.06319,12.381,4.748,11.53,7.7023,5.614,3.764,9.5513,3.7821,11.53,7.7023,6.7642,-3.8915,-4.7847,1.9048,4.7209,-0.12821,0.89314,-0.94787,-0.96618,-0.0638
-1.9589,6.6667,0.84553,12.496,10.615,3.7002,6.6348,10.513,7.6282,12.496,10.615,6.7642,-1.9777,-5.7416,-1.9048,1.8501,-3.0128,4.7209,2.8436,-0.96618,-1.9777
0.88468,1.9048,-1.1057,11.53,7.7023,5.614,8.5486,10.513,5.7051,11.53,7.7023,7.7398,-0.0638,-5.7416,-0.95238,1.8501,-2.0513,10.463,2.8436,0.0,-2.9346
3.7283,5.7143,2.7967,8.6312,3.8188,6.571,5.6778,6.6667,0.89744,8.6312,3.8188,5.7886,-0.0638,-2.8708,2.8571,4.7209,0.83333,3.764,0.94787,4.8309,-1.9777
10.363,6.6667,6.6992,7.6651,1.877,9.4418,1.8501,5.7051,-0.0641,7.6651,1.877,4.813,0.89314,-0.95694,8.5714,8.5486,2.7564,7.5917,1.8957,6.7633,-0.0638
8.4676,8.5714,4.748,7.6651,5.7605,10.399,2.807,6.6667,0.89744,7.6651,5.7605,6.7642,-0.0638,-0.95694,7.619,7.5917,2.7564,10.463,1.8957,3.8647,3.764
4.6761,6.6667,0.84553,6.6989,4.7896,6.571,6.6348,5.7051,4.7436,6.6989,4.7896,5.7886,-1.0207,-2.8708,2.8571,3.764,-0.12821,9.5056,2.8436,2.8986,-0.0638
10.363,6.6667,1.8211,7.6651,4.7896,6.571,7.5917,9.5513,4.7436,7.6651,4.7896,6.7642,-3.8915,-3.8278,2.8571,1.8501,-0.12821,2.807,0.94787,1.9324,-3.8915
12.259,5.7143,4.748,4.7665,2.8479,11.356,3.764,-0.0641,3.7821,4.7665,2.8479,5.7886,-5.8054,-6.6986,4.7619,1.8501,0.83333,7.5917,0.0,1.9324,-3.8915
-7.6461,0.95238,-2.0813,-1.0306,1.877,-4.9123,-2.9346,1.859,1.859,-1.0306,1.877,-2.9919,-5.8054,-6.6986,0.0,-1.0207,-3.0128,15.247,-0.94787,0.96618,-3.8915
-12.385,-0.95238,-11.837,-3.9291,-0.06472,-10.654,-6.7624,3.7821,2.8205,-3.9291,-0.06472,-8.8455,-4.8485,-4.7847,-6.6667,-4.8485,-6.859,3.764,0.94787,-1.9324,-1.9777
-5.7504,0.0,-12.813,-7.7939,-3.9482,-5.8692,-1.9777,-1.9872,5.7051,-7.7939,-3.9482,-7.8699,-3.8915,-3.8278,-10.476,-6.7624,-8.7821,-2.9346,1.8957,-4.8309,-1.9777
-9.5419,-5.7143,-12.813,-7.7939,-3.9482,-8.74,0.89314,-1.9872,7.6282,-7.7939,-3.9482,-8.8455,-1.9777,-2.8708,-11.429,-9.6332,-10.705,-3.8915,2.8436,-3.8647,-2.9346
-13.333,-7.619,-12.813,-9.7262,-2.9773,-8.74,-1.0207,-7.7564,10.513,-9.7262,-2.9773,-10.797,-1.9777,-0.95694,-10.476,-9.6332,-11.667,-8.6762,3.7915,-2.8986,-2.9346
-14.281,-5.7143,-12.813,-12.625,-3.9482,-10.654,-3.8915,-8.7179,9.5513,-12.625,-3.9482,-11.772,-2.9346,1.9139,-11.429,-4.8485,-8.7821,-14.418,5.6872,-9.6618,2.807
-10.49,-7.619,-13.789,-13.591,-2.9773,-10.654,-3.8915,-11.603,9.5513,-13.591,-2.9773,-11.772,-3.8915,2.8708,-11.429,-3.8915,-7.8205,-10.59,6.6351,-10.628,1.8501
-7.6461,-8.5714,-14.764,-13.591,-6.8608,-12.568,-5.8054,-8.7179,8.5897,-13.591,-6.8608,-11.772,-6.7624,-1.9139,-12.381,-9.6332,-10.705,-11.547,3.7915,-10.628,-4.8485
-12.385,-9.5238,-13.789,-11.659,-6.8608,-11.611,-7.7193,-11.603,6.6667,-11.659,-6.8608,-10.797,-9.6332,-5.7416,-12.381,-12.504,-12.628,-7.7193,0.94787,-11.594,-5.8054
-14.281,-10.476,-14.764,-13.591,-5.89,-12.568,-8.6762,-17.372,6.6667,-13.591,-5.89,-11.772,-8.6762,-6.6986,-12.381,-11.547,-11.667,-7.7193,1.8957,-9.6618,-2.9346
-16.177,-11.429,-14.764,-14.557,-6.8608,-16.396,-6.7624,-11.603,6.6667,-14.557,-6.8608,-12.748,-4.8485,-6.6986,-9.5238,-9.6332,-7.8205,-7.7193,1.8957,-6.7633,-1.9777
-14.281,-10.476,-12.813,-14.557,-6.8608,-12.568,-3.8915,-11.603,7.6282,-14.557,-6.8608,-11.772,-3.8915,-6.6986,-8.5714,-7.7193,-3.9744,-4.8485,2.8436,-5.7971,-1.9777
-14.281,-9.5238,-10.862,-10.692,-3.9482,-11.611,-3.8915,-9.6795,9.5513,-10.692,-3.9482,-11.772,-2.9346,-7.6555,-8.5714,-8.6762,-4.9359,-9.6332,1.8957,-5.7971,-1.9777
-18.073,-8.5714,-13.789,-11.659,-5.89,-15.439,-7.7193,-8.7179,5.7051,-11.659,-5.89,-13.724,-4.8485,-5.7416,-9.5238,-10.59,-8.7821,-7.7193,0.94787,-6.7633,-1.9777
-11.438,-12.381,-13.789,-10.692,-8.8026,-12.568,-8.6762,-15.449,2.8205,-10.692,-8.8026,-14.699,-6.7624,-3.8278,-9.5238,-10.59,-8.7821,-11.547,2.8436,-6.7633,-1.9777
-6.6983,-10.476,-7.935,-8.7601,-2.9773,-6.8262,-3.8915,-14.487,6.6667,-8.7601,-2.9773,-7.8699,-6.7624,-1.9139,-3.8095,-5.8054,-5.8974,-22.073,3.7915,-1.9324,-0.0638
-0.06319,-7.619,-5.0081,-9.7262,-1.0356,-5.8692,-3.8915,-17.372,6.6667,-9.7262,-1.0356,-5.9187,-3.8915,-0.95694,-1.9048,-3.8915,-3.0128,-11.547,0.94787,-1.9324,-0.0638
-11.438,-11.429,-8.9106,-10.692,-1.0356,-11.611,-6.7624,-16.41,3.7821,-10.692,-1.0356,-9.8211,-4.8485,-6.6986,-7.619,-6.7624,-6.859,1.8501,0.94787,-4.8309,-0.0638
-16.177,-10.476,-10.862,-9.7262,-2.9773,-15.439,-4.8485,-10.641,3.7821,-9.7262,-2.9773,-9.8211,-4.8485,-6.6986,-10.476,-6.7624,-8.7821,-2.9346,-0.94787,-3.8647,-1.9777
-11.438,-3.8095,-7.935,-8.7601,-3.9482,-10.654,-1.0207,-11.603,1.859,-8.7601,-3.9482,-6.8943,0.89314,-2.8708,-8.5714,-2.9346,-7.8205,-3.8915,-1.8957,0.0,0.89314
-15.229,-3.8095,-8.9106,-7.7939,-3.9482,-10.654,-0.0638,-10.641,0.89744,-7.7939,-3.9482,-5.9187,-0.0638,-3.8278,-8.5714,-3.8915,-7.8205,-5.8054,0.94787,-0.96618,-1.0207
-4.8025,-5.7143,-5.0081,-8.7601,-3.9482,-7.7831,-0.0638,-10.641,0.89744,-8.7601,-3.9482,-2.9919,1.8501,-3.8278,-2.8571,-2.9346,-4.9359,-4.8485,0.0,2.8986,-1.9777
-1.9589,-7.619,-4.0325,-8.7601,-3.9482,-2.0415,-4.8485,-7.7564,-0.0641,-8.7601,-3.9482,-3.9675,5.6778,-0.95694,0.0,-3.8915,-3.0128,-2.9346,-3.7915,3.8647,-0.0638
-1.0111,-7.619,-4.0325,-6.8277,-4.9191,-2.0415,-7.7193,-6.7949,-2.9487,-6.8277,-4.9191,-4.9431,6.6348,2.8708,0.95238,-2.9346,-1.0897,-11.547,-4.7393,2.8986,-0.0638
2.7804,-6.6667,-0.13008,-5.8615,-3.9482,-2.0415,-5.8054,-10.641,-2.9487,-5.8615,-3.9482,-3.9675,4.7209,3.8278,1.9048,-1.9777,1.7949,-7.7193,0.0,2.8986,3.764
9.4155,-3.8095,5.7236,-0.06441,-1.0356,6.571,-1.9777,-3.9103,0.89744,-0.06441,-1.0356,1.8862,5.6778,6.6986,4.7619,-0.0638,5.641,3.764,0.94787,4.8309,1.8501
4.6761,0.0,6.6992,-1.9968,-2.9773,6.571,-0.0638,5.7051,-1.9872,-1.9968,-2.9773,4.813,5.6778,5.7416,4.7619,-0.0638,4.6795,5.6778,0.0,3.8647,0.89314
1.8325,0.0,4.748,-1.9968,-2.9773,3.7002,-1.0207,5.7051,-2.9487,-1.9968,-2.9773,3.8374,4.7209,3.8278,3.8095,0.89314,2.7564,6.6348,0.0,0.96618,3.764
13.207,3.8095,5.7236,-1.9968,-0.06472,5.614,-1.0207,2.8205,1.859,-1.9968,-0.06472,4.813,5.6778,4.7847,7.619,4.7209,5.641,6.6348,1.8957,2.8986,4.7209
8.4676,4.7619,3.7724,-6.8277,-2.0065,-2.9984,2.807,-1.9872,-0.0641,-6.8277,-2.0065,0.91057,2.807,1.9139,7.619,3.764,3.7179,1.8501,4.7393,3.8647,2.807
1.8325,2.8571,2.7967,-7.7939,-6.8608,-2.0415,2.807,-1.9872,-0.0641,-7.7939,-6.8608,-0.06504,-1.0207,-1.9139,4.7619,1.8501,0.83333,4.7209,2.8436,2.8986,0.89314
6.5719,5.7143,7.6748,-4.8953,-6.8608,5.614,2.807,2.8205,-0.0641,-4.8953,-6.8608,3.8374,0.89314,0.0,6.6667,3.764,2.7564,3.764,0.94787,4.8309,3.764
7.5197,8.5714,7.6748,-7.7939,-5.89,5.614,2.807,2.8205,-0.0641,-7.7939,-5.89,2.8618,-2.9346,-2.8708,3.8095,3.764,-0.12821,3.764,-1.8957,2.8986,2.807
2.7804,0.95238,2.7967,-8.7601,-3.9482,1.7863,0.89314,-0.0641,1.859,-8.7601,-3.9482,-1.0407,-6.7624,-5.7416,0.0,1.8501,-2.0513,4.7209,1.8957,0.96618,1.8501
4.6761,-0.95238,3.7724,-4.8953,-1.0356,0.82935,1.8501,-3.9103,0.89744,-4.8953,-1.0356,-1.0407,-7.7193,-2.8708,0.0,2.807,-0.12821,4.7209,5.6872,0.0,3.764
2.7804,2.8571,6.6992,-0.06441,-0.06472,-0.12759,3.764,3.7821,3.7821,-0.06441,-0.06472,0.91057,-2.9346,0.0,3.8095,3.764,3.7179,4.7209,2.8436,1.9324,1.8501
11.311,3.8095,7.6748,-1.0306,-3.9482,-0.12759,2.807,5.7051,2.8205,-1.0306,-3.9482,2.8618,2.807,2.8708,7.619,5.6778,6.6026,-1.9777,0.0,4.8309,1.8501
0.88468,8.5714,6.6992,-1.9968,-2.9773,3.7002,3.764,7.6282,0.89744,-1.9968,-2.9773,4.813,3.764,3.8278,4.7619,7.5917,4.6795,7.5917,0.94787,4.8309,4.7209
-10.49,5.7143,0.84553,-1.9968,-1.0356,1.7863,0.89314,7.6282,0.89744,-1.9968,-1.0356,4.813,2.807,2.8708,-4.7619,5.6778,-0.12821,14.29,0.0,1.9324,2.807
-4.8025,0.95238,-0.13008,-6.8277,-4.9191,-2.0415,-1.0207,-4.8718,-2.9487,-6.8277,-4.9191,1.8862,-0.0638,2.8708,-8.5714,1.8501,-3.0128,0.89314,-2.8436,-1.9324,1.8501
-0.06319,-2.8571,2.7967,-5.8615,-2.9773,1.7863,-1.9777,-7.7564,-3.9103,-5.8615,-2.9773,1.8862,-0.0638,1.9139,-3.8095,-1.0207,-0.12821,-1.0207,-4.7393,-0.96618,0.89314
-7.6461,-10.476,-5.9837,-4.8953,-4.9191,-2.0415,-7.7193,-4.8718,-4.8718,-4.8953,-4.9191,-3.9675,-3.8915,-0.95694,-7.619,-7.7193,-4.9359,-3.8915,-5.6872,-5.7971,-2.9346
-15.229,-8.5714,-12.813,-6.8277,-7.8317,-7.7831,-8.6762,-6.7949,-3.9103,-6.8277,-7.8317,-7.8699,-3.8915,1.9139,-10.476,-6.7624,-6.859,-2.9346,-5.6872,-7.7295,-2.9346
-13.333,-10.476,-8.9106,-5.8615,-3.9482,-11.611,-6.7624,-4.8718,-1.9872,-5.8615,-3.9482,-6.8943,-4.8485,0.95694,-8.5714,-6.7624,-5.8974,-8.6762,-5.6872,-8.6957,-3.8915
-5.7504,-9.5238,-4.0325,-2.963,-2.9773,-8.74,-5.8054,-3.9103,-1.9872,-2.963,-2.9773,-4.9431,-8.6762,-4.7847,-9.5238,-10.59,-7.8205,-7.7193,-5.6872,-10.628,-6.7624
-2.9068,-8.5714,-3.0569,-2.963,-3.9482,-1.0845,-5.8054,-5.8333,-0.0641,-2.963,-3.9482,-2.0163,-11.547,-7.6555,-7.619,-11.547,-8.7821,-7.7193,-5.6872,-7.7295,-8.6762
-9.5419,-13.333,-10.862,-3.9291,-5.89,-2.0415,-10.59,-4.8718,-1.0256,-3.9291,-5.89,-4.9431,-13.461,-7.6555,-6.6667,-12.504,-10.705,-6.7624,-4.7393,-8.6957,-10.59
-10.49,-11.429,-12.813,-6.8277,-6.8608,-2.0415,-11.547,-6.7949,-3.9103,-6.8277,-6.8608,-7.8699,-12.504,-7.6555,-7.619,-9.6332,-9.7436,-8.6762,-2.8436,-9.6618,-9.6332
-7.6461,-3.8095,-5.9837,-3.9291,-6.8608,-4.9123,-2.9346,-1.0256,-1.0256,-3.9291,-6.8608,-4.9431,-7.7193,-3.8278,-6.6667,-4.8485,-5.8974,-1.9777,-0.94787,-6.7633,-6.7624
-1.9589,0.95238,2.7967,-0.06441,-4.9191,-2.9984,-0.0638,1.859,-0.0641,-0.06441,-4.9191,1.8862,-1.9777,0.0,0.0,-0.0638,0.83333,-1.0207,-1.8957,-2.8986,-2.9346
7.5197,1.9048,5.7236,-1.0306,-4.9191,4.6571,-2.9346,-1.9872,-1.0256,-1.0306,-4.9191,2.8618,1.8501,-0.95694,6.6667,1.8501,5.641,-2.9346,-1.8957,0.0,-2.9346
9.4155,3.8095,3.7724,-1.0306,-4.9191,4.6571,-1.0207,4.7436,0.89744,-1.0306,-4.9191,2.8618,4.7209,-2.8708,9.5238,3.764,7.5641,1.8501,0.94787,2.8986,-1.9777
9.4155,3.8095,10.602,0.90177,-3.9482,5.614,1.8501,4.7436,2.8205,0.90177,-3.9482,3.8374,8.5486,0.0,13.333,8.5486,13.333,4.7209,3.7915,4.8309,0.89314
16.997999,2.8571,15.48,-4.8953,-4.9191,4.6571,2.807,-4.8718,2.8205,-4.8953,-4.9191,6.7642,8.5486,0.95694,14.286,8.5486,13.333,2.807,5.6872,5.7971,0.89314
10.363,7.619,15.48,-3.9291,-3.9482,7.5279,4.7209,-1.9872,2.8205,-3.9291,-3.9482,9.6911,7.5917,1.9139,12.381,8.5486,10.449,2.807,4.7393,5.7971,2.807
5.624,10.476,10.602,-0.06441,1.877,12.313,5.6778,0.89744,5.7051,-0.06441,1.877,11.642,2.807,0.0,8.5714,7.5917,5.641,-1.0207,1.8957,5.7971,3.764
3.7283,8.5714,6.6992,-0.06441,0.90615,7.5279,4.7209,2.8205,7.6282,-0.06441,0.90615,8.7154,-3.8915,-3.8278,1.9048,2.807,0.83333,1.8501,4.7393,0.96618,2.807
8.4676,7.619,10.602,-0.06441,1.877,0.82935,12.376,2.8205,9.5513,-0.06441,1.877,9.6911,-2.9346,-1.9139,2.8571,2.807,2.7564,0.89314,5.6872,-1.9324,1.8501
12.259,12.381,15.48,-0.06441,2.8479,7.5279,17.160999,-3.9103,10.513,-0.06441,2.8479,12.618,-3.8915,-3.8278,4.7619,4.7209,4.6795,1.8501,4.7393,-3.8647,0.89314
12.259,13.333,15.48,3.8003,6.7314,4.6571,14.29,3.7821,10.513,3.8003,6.7314,11.642,-5.8054,-3.8278,5.7143,7.5917,4.6795,-0.0638,4.7393,-2.8986,1.8501
3.7283,17.143,8.6504,-1.9968,1.877,-1.0845,9.5056,-0.0641,8.5897,-1.9968,1.877,5.7886,-6.7624,0.0,1.9048,9.5056,3.7179,1.8501,7.5829,-3.8647,4.7209
0.88468,11.429,6.6992,-3.9291,-1.0356,1.7863,5.6778,-2.9487,6.6667,-3.9291,-1.0356,3.8374,-3.8915,2.8708,0.95238,10.463,3.7179,5.6778,7.5829,-2.8986,4.7209
9.4155,6.6667,10.602,1.868,2.8479,10.399,6.6348,5.7051,4.7436,1.868,2.8479,7.7398,-0.0638,5.7416,3.8095,10.463,5.641,-5.8054,4.7393,-1.9324,3.764
10.363,5.7143,9.626,5.7327,0.90615,13.27,6.6348,10.513,2.8205,5.7327,0.90615,8.7154,-1.0207,3.8278,3.8095,5.6778,2.7564,-0.0638,2.8436,-2.8986,0.89314
3.7283,6.6667,6.6992,2.8341,-0.06472,6.571,5.6778,6.6667,3.7821,2.8341,-0.06472,5.7886,-0.0638,3.8278,4.7619,4.7209,3.7179,8.5486,0.94787,-1.9324,-0.0638
-1.0111,5.7143,3.7724,-0.06441,-0.06472,-1.0845,3.764,3.7821,3.7821,-0.06441,-0.06472,0.91057,3.764,6.6986,5.7143,7.5917,5.641,3.764,-0.94787,0.96618,-0.0638
6.5719,5.7143,6.6992,0.90177,3.8188,4.6571,1.8501,-2.9487,5.7051,0.90177,3.8188,1.8862,5.6778,6.6986,5.7143,11.419,7.5641,2.807,1.8957,1.9324,0.89314
16.997999,2.8571,7.6748,2.8341,-0.06472,6.571,1.8501,0.89744,3.7821,2.8341,-0.06472,2.8618,6.6348,3.8278,4.7619,10.463,5.641,0.89314,1.8957,1.9324,0.89314
5.624,-0.95238,-0.13008,0.90177,-3.9482,0.82935,-1.0207,5.7051,-1.0256,0.90177,-3.9482,-0.06504,4.7209,0.95694,0.0,2.807,-1.0897,-1.9777,0.94787,1.9324,-1.9777
-8.594,-2.8571,-4.0325,0.90177,-7.8317,-0.12759,-3.8915,7.6282,-2.9487,0.90177,-7.8317,-2.0163,2.807,0.0,-4.7619,-2.9346,-4.9359,3.764,-0.94787,0.96618,-2.9346
-9.5419,-1.9048,-3.0569,-0.06441,-5.89,-2.9984,-3.8915,4.7436,-2.9487,-0.06441,-5.89,-2.0163,5.6778,0.95694,-3.8095,-2.9346,-3.9744,4.7209,-2.8436,3.8647,-0.0638
2.7804,-3.8095,-0.13008,-1.9968,-2.9773,0.82935,-0.0638,1.859,-1.9872,-1.9968,-2.9773,0.91057,6.6348,0.95694,0.95238,-0.0638,-0.12821,-3.8915,-2.8436,3.8647,-1.9777
3.7283,0.0,3.7724,-1.0306,-1.0356,6.571,3.764,0.89744,0.89744,-1.0306,-1.0356,4.813,5.6778,1.9139,6.6667,1.8501,5.641,6.6348,-1.8957,3.8647,-2.9346
6.5719,3.8095,6.6992,0.90177,1.877,5.614,5.6778,0.89744,4.7436,0.90177,1.877,5.7886,7.5917,5.7416,9.5238,2.807,9.4872,13.333,0.94787,6.7633,0.89314
6.5719,-0.95238,2.7967,-1.0306,-2.0065,3.7002,-3.8915,-0.0641,-1.0256,-1.0306,-2.0065,-0.06504,6.6348,3.8278,7.619,-0.0638,4.6795,2.807,-0.94787,6.7633,-1.0207
2.7804,-6.6667,-0.13008,0.90177,-3.9482,1.7863,-16.332001,6.6667,-10.641,0.90177,-3.9482,-3.9675,6.6348,2.8708,2.8571,-0.0638,1.7949,2.807,-4.7393,5.7971,-1.0207
0.88468,-6.6667,-1.1057,1.868,-8.8026,2.7432,-14.418,9.5513,-13.526,1.868,-8.8026,-3.9675,1.8501,2.8708,2.8571,1.8501,2.7564,4.7209,-8.5308,0.96618,-0.0638
7.5197,-6.6667,-0.13008,1.868,-12.686,7.5279,-7.7193,2.8205,-10.641,1.868,-12.686,-2.0163,-1.0207,1.9139,4.7619,-1.9777,1.7949,5.6778,-6.6351,-0.96618,-0.0638
6.5719,-5.7143,-2.0813,-1.0306,-8.8026,1.7863,-1.9777,0.89744,-4.8718,-1.0306,-8.8026,-2.9919,-1.9777,-0.95694,4.7619,-7.7193,-1.0897,-1.9777,-1.8957,0.96618,-3.8915
2.7804,3.8095,-0.13008,-0.06441,-2.0065,-0.12759,2.807,5.7051,-1.9872,-0.06441,-2.0065,-0.06504,-0.0638,-3.8278,5.7143,-8.6762,-1.0897,0.89314,-3.7915,3.8647,-4.8485
2.7804,2.8571,2.7967,-0.06441,-3.9482,0.82935,1.8501,5.7051,-2.9487,-0.06441,-3.9482,1.8862,1.8501,-3.8278,3.8095,-7.7193,-3.0128,6.6348,-2.8436,3.8647,-5.8054
14.155,0.95238,6.6992,2.8341,-3.9482,4.6571,2.807,3.7821,-5.8333,2.8341,-3.9482,4.813,0.89314,0.0,2.8571,-2.9346,-1.0897,7.5917,-3.7915,1.9324,-6.7624
7.5197,1.9048,9.626,2.8341,-2.9773,7.5279,1.8501,5.7051,-5.8333,2.8341,-2.9773,5.7886,2.807,4.7847,4.7619,0.89314,1.7949,7.5917,-4.7393,2.8986,-4.8485
9.4155,-1.9048,7.6748,-0.06441,-6.8608,13.27,-1.9777,-0.0641,-7.7564,-0.06441,-6.8608,5.7886,5.6778,4.7847,8.5714,0.89314,3.7179,9.5056,-2.8436,4.8309,-2.9346
5.624,-5.7143,0.84553,1.868,-7.8317,7.5279,-8.6762,7.6282,-9.6795,1.868,-7.8317,0.91057,6.6348,5.7416,11.429,0.89314,3.7179,2.807,-4.7393,8.6957,-1.9777
-2.9068,-6.6667,-3.0569,2.8341,-6.8608,0.82935,-6.7624,8.5897,-10.641,2.8341,-6.8608,-2.9919,3.764,3.8278,9.5238,-1.0207,1.7949,0.89314,-6.6351,7.7295,-1.0207
1.8325,-1.9048,0.84553,-1.0306,-7.8317,1.7863,-1.0207,-0.0641,-7.7564,-1.0306,-7.8317,-2.9919,-1.0207,1.9139,4.7619,-1.0207,-0.12821,4.7209,-4.7393,0.96618,-1.9777
12.259,8.5714,7.6748,-1.9968,-2.9773,6.571,7.5917,0.89744,0.89744,-1.9968,-2.9773,5.7886,-1.9777,1.9139,3.8095,4.7209,0.83333,-0.0638,0.0,0.0,2.807
7.5197,15.238,8.6504,0.90177,0.90615,10.399,13.333,-0.0641,3.7821,0.90177,0.90615,10.667,-4.8485,0.0,-0.95238,5.6778,-0.12821,3.764,3.7915,-3.8647,6.6348
-1.0111,10.476,4.748,2.8341,3.8188,2.7432,12.376,1.859,4.7436,2.8341,3.8188,8.7154,-2.9346,0.0,-1.9048,2.807,-0.12821,5.6778,4.7393,-2.8986,3.764
-2.9068,-0.95238,-0.13008,-3.9291,0.90615,-5.8692,9.5056,-0.0641,1.859,-3.9291,0.90615,3.8374,-1.0207,1.9139,1.9048,1.8501,1.7949,-1.9777,1.8957,0.96618,0.89314
6.5719,-2.8571,0.84553,-2.963,-1.0356,4.6571,4.7209,-6.7949,-1.0256,-2.963,-1.0356,3.8374,0.89314,3.8278,3.8095,2.807,3.7179,-1.0207,0.0,3.8647,3.764
-5.7504,-2.8571,-4.0325,-6.8277,-5.89,-2.0415,-2.9346,-2.9487,-3.9103,-6.8277,-5.89,-2.9919,-0.0638,0.0,0.0,-0.0638,-0.12821,-7.7193,0.0,3.8647,1.8501
-16.177,-1.9048,-6.9593,-14.557,-9.7735,-15.439,-3.8915,-7.7564,-1.0256,-14.557,-9.7735,-8.8455,1.8501,0.0,-2.8571,-1.0207,-1.0897,-1.0207,0.0,2.8986,2.807
-10.49,-1.9048,-5.9837,-17.455999,-9.7735,-17.351999,-1.9777,-13.526,-1.9872,-17.455999,-9.7735,-9.8211,2.807,0.95694,-2.8571,-1.9777,-1.0897,-5.8054,-1.8957,3.8647,3.764
-12.385,-4.7619,-7.935,-17.455999,-11.715,-16.396,-4.8485,-13.526,-4.8718,-17.455999,-11.715,-13.724,-1.0207,-2.8708,-7.619,-2.9346,-3.9744,-10.59,-1.8957,-1.9324,2.807
-8.594,-4.7619,-6.9593,-19.388,-9.7735,-14.482,-4.8485,-13.526,-1.0256,-19.388,-9.7735,-11.772,-3.8915,-7.6555,-8.5714,-3.8915,-5.8974,0.89314,-2.8436,-4.8309,-1.9777
-13.333,-2.8571,-8.9106,-18.422001,-13.657,-17.351999,-5.8054,-16.41,0.89744,-18.422001,-13.657,-13.724,-5.8054,-9.5694,-8.5714,-6.7624,-8.7821,0.89314,-3.7915,-3.8647,-6.7624
-13.333,-4.7619,-8.9106,-19.388,-14.628,-16.396,-7.7193,-19.295,0.89744,-19.388,-14.628,-12.748,-5.8054,-6.6986,-9.5238,-6.7624,-7.8205,-6.7624,-2.8436,-3.8647,-5.8054
-5.7504,-2.8571,-4.0325,-19.388,-12.686,-17.351999,-4.8485,-12.564,2.8205,-19.388,-12.686,-8.8455,-1.9777,-1.9139,-6.6667,-0.0638,-2.0513,-6.7624,1.8957,-2.8986,-2.9346
-7.6461,0.0,1.8211,-17.455999,-13.657,-14.482,-2.9346,-5.8333,2.8205,-17.455999,-13.657,-3.9675,-1.9777,0.0,-1.9048,2.807,1.7949,-1.9777,0.0,0.0,-0.0638
-8.594,-1.9048,-1.1057,-16.49,-11.715,-11.611,-3.8915,-7.7564,0.89744,-16.49,-11.715,-2.9919,-6.7624,-1.9139,-3.8095,-0.0638,-3.9744,-3.8915,-3.7915,-2.8986,-0.0638
-10.49,-6.6667,-6.9593,-17.455999,-13.657,-14.482,-9.6332,-13.526,-1.9872,-17.455999,-13.657,-6.8943,-7.7193,-3.8278,-7.619,-4.8485,-8.7821,-12.504,-2.8436,-6.7633,-1.0207
-10.49,-8.5714,-8.9106,-17.455999,-14.628,-14.482,-11.547,-16.41,-1.9872,-17.455999,-14.628,-9.8211,-3.8915,-5.7416,-9.5238,-6.7624,-9.7436,-10.59,0.0,-5.7971,-1.0207
-8.594,-9.5238,-7.935,-14.557,-14.628,-8.74,-10.59,-6.7949,-3.9103,-14.557,-14.628,-9.8211,-5.8054,-6.6986,-9.5238,-7.7193,-10.705,0.89314,1.8957,-4.8309,0.89314
-0.06319,-12.381,-10.862,-10.692,-13.657,-3.9553,-11.547,-5.8333,-2.9487,-10.692,-13.657,-10.797,-9.6332,-8.6124,-11.429,-12.504,-14.551,-1.9777,1.8957,-5.7971,-2.9346
0.88468,-14.286,-10.862,-4.8953,-12.686,1.7863,-11.547,-1.0256,-1.0256,-4.8953,-12.686,-9.8211,-3.8915,-3.8278,-7.619,-12.504,-10.705,-2.9346,-0.94787,-3.8647,-2.9346
0.88468,-6.6667,-6.9593,-3.9291,-8.8026,0.82935,-8.6762,-1.0256,-1.0256,-3.9291,-8.8026,-8.8455,1.8501,0.95694,-0.95238,-6.7624,-3.0128,2.807,-1.8957,-3.8647,2.807
-2.9068,-9.5238,-11.837,-8.7601,-9.7735,-9.697,-8.6762,-1.0256,-1.0256,-8.7601,-9.7735,-12.748,-1.9777,-0.95694,-1.9048,-7.7193,-3.9744,-1.0207,0.94787,-6.7633,2.807
-13.333,-10.476,-13.789,-11.659,-11.715,-12.568,-6.7624,-4.8718,-0.0641,-11.659,-11.715,-11.772,-1.9777,-0.95694,-3.8095,-4.8485,-4.9359,-6.7624,1.8957,-4.8309,2.807
-11.438,-1.9048,-7.935,-6.8277,-4.9191,-4.9123,-0.0638,-9.6795,6.6667,-6.8277,-4.9191,-4.9431,0.89314,3.8278,-0.95238,2.807,0.83333,-12.504,5.6872,-2.8986,4.7209
-13.333,-0.95238,-9.8862,-3.9291,1.877,-10.654,-0.0638,-6.7949,10.513,-3.9291,1.877,-5.9187,-3.8915,1.9139,-4.7619,2.807,0.83333,-2.9346,6.6351,-5.7971,4.7209
-17.125,-2.8571,-13.789,-6.8277,-0.06472,-16.396,-2.9346,-10.641,6.6667,-6.8277,-0.06472,-11.772,-4.8485,1.9139,-8.5714,1.8501,-1.0897,1.8501,4.7393,-6.7633,4.7209
-12.385,1.9048,-10.862,-11.659,-2.9773,-15.439,0.89314,-11.603,5.7051,-11.659,-2.9773,-11.772,2.807,6.6986,-4.7619,7.5917,3.7179,-4.8485,6.6351,-1.9324,5.6778
-3.8547,9.5238,-4.0325,-5.8615,-1.0356,-7.7831,3.764,-11.603,8.5897,-5.8615,-1.0356,-7.8699,6.6348,11.483,0.95238,14.29,9.4872,-5.8054,5.6872,1.9324,10.463
-5.7504,5.7143,-2.0813,-7.7939,-4.9191,-14.482,-1.0207,-10.641,2.8205,-7.7939,-4.9191,-9.8211,10.463,9.5694,0.0,14.29,11.41,-3.8915,5.6872,3.8647,10.463
-9.5419,10.476,2.7967,-12.625,-6.8608,-17.351999,-0.0638,-8.7179,1.859,-12.625,-6.8608,-9.8211,12.376,6.6986,1.9048,15.247,12.372,-1.0207,7.5829,6.7633,9.5056
-7.6461,8.5714,5.7236,-11.659,-1.0356,-9.697,3.764,-13.526,4.7436,-11.659,-1.0356,-5.9187,10.463,3.8278,3.8095,14.29,9.4872,-8.6762,8.5308,7.7295,9.5056
-1.0111,2.8571,4.748,-9.7262,-2.9773,-4.9123,4.7209,-8.7179,3.7821,-9.7262,-2.9773,-2.0163,10.463,4.7847,3.8095,12.376,6.6026,-12.504,8.5308,3.8647,9.5056
6.5719,6.6667,8.6504,-4.8953,-0.06472,0.82935,-1.9777,-2.9487,2.8205,-4.8953,-0.06472,1.8862,11.419,9.5694,3.8095,15.247,9.4872,0.89314,5.6872,3.8647,12.376
6.5719,9.5238,16.455,1.868,1.877,6.571,2.807,-1.9872,3.7821,1.868,1.877,6.7642,8.5486,9.5694,4.7619,16.204,11.41,6.6348,7.5829,3.8647,9.5056
16.997999,13.333,22.309,4.7665,2.8479,14.226,12.376,-5.8333,4.7436,4.7665,2.8479,14.569,6.6348,9.5694,10.476,17.160999,14.295,1.8501,4.7393,5.7971,6.6348
15.103,14.286,21.333,0.90177,1.877,11.356,13.333,-4.8718,5.7051,0.90177,1.877,17.496,5.6778,8.6124,12.381,14.29,12.372,3.764,2.8436,8.6957,5.6778
13.207,14.286,17.431,-2.963,-0.06472,8.4848,13.333,-10.641,5.7051,-2.963,-0.06472,15.545,3.764,4.7847,9.5238,10.463,9.4872,-0.0638,4.7393,5.7971,5.6778
15.103,17.143,18.407,-0.06441,3.8188,11.356,12.376,-5.8333,5.7051,-0.06441,3.8188,16.52,-2.9346,2.8708,5.7143,9.5056,7.5641,-0.0638,3.7915,1.9324,4.7209
20.790001,19.048,19.382,3.8003,4.7896,17.097,12.376,1.859,4.7436,3.8003,4.7896,19.447001,-7.7193,1.9139,3.8095,8.5486,3.7179,-10.59,4.7393,-2.8986,4.7209
8.4676,12.381,14.504,3.8003,4.7896,17.097,11.419,4.7436,4.7436,3.8003,4.7896,21.398001,-7.7193,-0.95694,0.95238,4.7209,0.83333,-3.8915,4.7393,-3.8647,2.807
7.5197,5.7143,11.577,4.7665,1.877,17.097,7.5917,-2.9487,1.859,4.7665,1.877,21.398001,-2.9346,0.95694,2.8571,4.7209,2.7564,3.764,3.7915,-2.8986,2.807
1.8325,0.0,3.7724,4.7665,1.877,6.571,5.6778,-1.0256,-1.0256,4.7665,1.877,13.593,-1.9777,0.0,-0.95238,1.8501,-0.12821,2.807,1.8957,-3.8647,1.8501
-7.6461,-3.8095,-5.0081,0.90177,-0.06472,-2.0415,0.89314,-1.9872,-2.9487,0.90177,-0.06472,4.813,-4.8485,-2.8708,-8.5714,-2.9346,-5.8974,0.89314,-0.94787,-8.6957,-0.0638
2.7804,-4.7619,-5.0081,-3.9291,-1.0356,1.7863,-1.0207,-11.603,-2.9487,-3.9291,-1.0356,0.91057,-1.9777,-1.9139,-7.619,-3.8915,-6.859,-1.9777,-3.7915,-7.7295,-1.9777
-7.6461,-6.6667,-5.9837,-6.8277,-3.9482,-5.8692,-3.8915,-3.9103,-2.9487,-6.8277,-3.9482,-4.9431,3.764,1.9139,-5.7143,-3.8915,-5.8974,-0.0638,-4.7393,-3.8647,-1.9777
-11.438,-7.619,-7.935,-6.8277,-6.8608,-8.74,-4.8485,-3.9103,-1.0256,-6.8277,-6.8608,-8.8455,6.6348,4.7847,-4.7619,-3.8915,-4.9359,-5.8054,-3.7915,-1.9324,0.89314
-3.8547,-5.7143,-8.9106,-9.7262,-4.9191,-8.74,-1.9777,-8.7179,0.89744,-9.7262,-4.9191,-8.8455,6.6348,5.7416,-4.7619,-4.8485,-6.859,-8.6762,-1.8957,-1.9324,0.89314
-12.385,-2.8571,-11.837,-8.7601,-1.0356,-13.525,-1.9777,-6.7949,1.859,-8.7601,-1.0356,-9.8211,7.5917,5.7416,-4.7619,-2.9346,-4.9359,2.807,-0.94787,0.0,2.807
-13.333,-3.8095,-11.837,-5.8615,-2.9773,-14.482,-2.9346,-7.7564,0.89744,-5.8615,-2.9773,-11.772,7.5917,1.9139,-1.9048,-3.8915,-3.0128,-1.9777,0.0,2.8986,-0.0638
-15.229,-5.7143,-11.837,-4.8953,-3.9482,-13.525,-1.9777,-6.7949,4.7436,-4.8953,-3.9482,-10.797,8.5486,-0.95694,0.0,-5.8054,-3.0128,-1.9777,3.7915,5.7971,-2.9346
-12.385,-3.8095,-9.8862,-7.7939,-4.9191,-12.568,-3.8915,-13.526,4.7436,-7.7939,-4.9191,-9.8211,6.6348,-3.8278,-0.95238,-6.7624,-3.9744,-0.0638,1.8957,6.7633,-1.9777
-9.5419,-3.8095,-8.9106,-8.7601,-2.0065,-14.482,-6.7624,-9.6795,1.859,-8.7601,-2.0065,-11.772,-1.0207,-5.7416,-4.7619,-7.7193,-6.859,-2.9346,-1.8957,2.8986,-1.0207
-12.385,-9.5238,-9.8862,-4.8953,0.90615,-13.525,-5.8054,-2.9487,4.7436,-4.8953,0.90615,-10.797,-5.8054,-10.526,-5.7143,-9.6332,-7.8205,-6.7624,0.0,2.8986,-2.9346
-10.49,-10.476,-11.837,-1.9968,-1.0356,-10.654,-5.8054,-1.0256,2.8205,-1.9968,-1.0356,-11.772,-6.7624,-15.311,-3.8095,-11.547,-9.7436,-7.7193,0.0,1.9324,-8.6762
-7.6461,-7.619,-11.837,-1.0306,-2.0065,-5.8692,-7.7193,6.6667,-0.0641,-1.0306,-2.0065,-11.772,-7.7193,-16.268,-5.7143,-11.547,-11.667,8.5486,-2.8436,-0.96618,-11.547
-3.8547,-6.6667,-8.9106,3.8003,-2.0065,-2.0415,-7.7193,6.6667,-0.0641,3.8003,-2.0065,-10.797,-7.7193,-14.354,-6.6667,-8.6762,-9.7436,6.6348,-3.7915,-0.96618,-9.6332
4.6761,-0.95238,-3.0569,4.7665,-2.0065,-0.12759,-9.6332,6.6667,-3.9103,4.7665,-2.0065,-8.8455,-1.0207,-9.5694,-0.95238,-2.9346,-3.9744,0.89314,-6.6351,2.8986,-6.7624
6.5719,-5.7143,-0.13008,1.868,-2.9773,1.7863,-10.59,3.7821,-6.7949,1.868,-2.9773,-5.9187,6.6348,-4.7847,4.7619,-0.0638,0.83333,5.6778,-4.7393,6.7633,-3.8915
-0.06319,-9.5238,-2.0813,1.868,-2.0065,0.82935,-10.59,3.7821,-5.8333,1.868,-2.0065,-5.9187,5.6778,-6.6986,0.95238,-3.8915,-3.9744,9.5056,-4.7393,5.7971,-8.6762
0.88468,-6.6667,-3.0569,5.7327,2.8479,0.82935,-6.7624,9.5513,-1.0256,5.7327,2.8479,-3.9675,2.807,-8.6124,-0.95238,-6.7624,-5.8974,4.7209,-6.6351,2.8986,-9.6332
7.5197,-1.9048,-1.1057,6.6989,2.8479,10.399,-1.9777,0.89744,0.89744,6.6989,2.8479,1.8862,5.6778,-5.7416,1.9048,-5.8054,-3.0128,0.89314,-3.7915,4.8309,-4.8485
-1.9589,-4.7619,-4.0325,6.6989,1.877,4.6571,-2.9346,7.6282,-0.0641,6.6989,1.877,0.91057,5.6778,-3.8278,-0.95238,-6.7624,-3.9744,-2.9346,-3.7915,3.8647,-4.8485
-9.5419,-7.619,-7.935,6.6989,6.7314,-3.9553,-6.7624,13.397,1.859,6.6989,6.7314,-2.9919,4.7209,-1.9139,-5.7143,-7.7193,-3.9744,-0.0638,-3.7915,1.9324,-4.8485
-2.9068,-5.7143,-5.9837,5.7327,8.6731,-0.12759,-3.8915,6.6667,2.8205,5.7327,8.6731,-1.0407,-1.9777,-4.7847,-6.6667,-8.6762,-4.9359,3.764,-3.7915,0.0,-5.8054
7.5197,-5.7143,-1.1057,3.8003,7.7023,-0.12759,1.8501,3.7821,0.89744,3.8003,7.7023,2.8618,-8.6762,-5.7416,-3.8095,-8.6762,-3.0128,-1.0207,0.0,-4.8309,-9.6332
7.5197,-1.9048,4.748,6.6989,7.7023,3.7002,3.764,5.7051,0.89744,6.6989,7.7023,5.7886,-6.7624,-2.8708,0.95238,-4.8485,2.7564,-0.0638,-0.94787,-5.7971,-7.7193
6.5719,2.8571,9.626,12.496,8.6731,11.356,6.6348,6.6667,3.7821,12.496,8.6731,10.667,-3.8915,3.8278,5.7143,2.807,9.4872,6.6348,-1.8957,-1.9324,-1.9777
11.311,0.0,11.577,14.428,11.586,15.183,6.6348,12.436,5.7051,14.428,11.586,11.642,-3.8915,4.7847,8.5714,6.6348,12.372,8.5486,0.94787,-1.9324,-0.0638
15.103,0.0,11.577,14.428,12.557,19.011,7.5917,9.5513,5.7051,14.428,12.557,10.667,-3.8915,2.8708,9.5238,7.5917,12.372,-0.0638,-0.94787,-0.96618,-1.9777
10.363,3.8095,10.602,11.53,14.498,15.183,8.5486,8.5897,4.7436,11.53,14.498,10.667,-3.8915,1.9139,9.5238,6.6348,9.4872,3.764,-0.94787,0.96618,-1.9777
4.6761,6.6667,9.626,13.462,14.498,8.4848,11.419,17.243999,9.5513,13.462,14.498,10.667,-2.9346,0.0,7.619,5.6778,4.6795,11.419,1.8957,2.8986,-1.9777
6.5719,9.5238,6.6992,11.53,16.440001,7.5279,12.376,12.436,9.5513,11.53,16.440001,11.642,-0.0638,0.95694,6.6667,8.5486,5.641,8.5486,3.7915,4.8309,-0.0638
6.5719,7.619,2.7967,12.496,14.498,7.5279,7.5917,0.89744,8.5897,12.496,14.498,8.7154,7.5917,4.7847,8.5714,12.376,9.4872,-4.8485,2.8436,7.7295,3.764
7.5197,7.619,2.7967,10.564,11.586,4.6571,9.5056,1.859,8.5897,10.564,11.586,8.7154,11.419,6.6986,8.5714,13.333,10.449,-0.0638,2.8436,7.7295,7.5917
-0.06319,13.333,5.7236,11.53,12.557,6.571,12.376,3.7821,6.6667,11.53,12.557,11.642,7.5917,3.8278,4.7619,10.463,6.6026,7.5917,1.8957,6.7633,6.6348
-2.9068,10.476,5.7236,10.564,15.469,6.571,13.333,2.8205,6.6667,10.564,15.469,13.593,3.764,1.9139,1.9048,5.6778,1.7949,2.807,3.7915,3.8647,3.764
3.7283,1.9048,3.7724,10.564,13.528,12.313,8.5486,-1.0256,2.8205,10.564,13.528,11.642,-1.9777,2.8708,-1.9048,1.8501,-2.0513,-5.8054,3.7915,-2.8986,0.89314
6.5719,2.8571,4.748,10.564,15.469,12.313,7.5917,-0.0641,1.859,10.564,15.469,10.667,-2.9346,6.6986,-2.8571,3.764,-1.0897,0.89314,2.8436,-4.8309,3.764
-1.0111,3.8095,5.7236,9.5974,14.498,6.571,5.6778,3.7821,2.8205,9.5974,14.498,7.7398,-0.0638,7.6555,0.0,4.7209,1.7949,4.7209,0.0,-3.8647,4.7209
-1.9589,-0.95238,4.748,13.462,13.528,6.571,1.8501,2.8205,-2.9487,13.462,13.528,4.813,-2.9346,3.8278,1.9048,1.8501,1.7949,-0.0638,-5.6872,-3.8647,1.8501
7.5197,0.95238,8.6504,15.395,15.469,6.571,2.807,0.89744,-1.9872,15.395,15.469,5.7886,-2.9346,3.8278,4.7619,1.8501,3.7179,-3.8915,-4.7393,-2.8986,1.8501
9.4155,4.7619,10.602,17.327,19.353001,6.571,3.764,4.7436,2.8205,17.327,19.353001,10.667,-2.9346,5.7416,3.8095,3.764,5.641,-2.9346,0.0,-3.8647,5.6778
2.7804,7.619,8.6504,16.361,19.353001,10.399,9.5056,-0.0641,5.7051,16.361,19.353001,10.667,-2.9346,4.7847,2.8571,3.764,5.641,-6.7624,2.8436,-4.8309,5.6778
2.7804,12.381,8.6504,14.428,15.469,9.4418,13.333,4.7436,4.7436,14.428,15.469,9.6911,2.807,8.6124,3.8095,3.764,5.641,-10.59,3.7915,-3.8647,6.6348
8.4676,10.476,8.6504,14.428,16.440001,10.399,14.29,5.7051,4.7436,14.428,16.440001,10.667,6.6348,10.526,5.7143,2.807,6.6026,4.7209,4.7393,1.9324,7.5917
0.88468,3.8095,4.748,13.462,17.410999,11.356,15.247,-1.0256,5.7051,13.462,17.410999,10.667,3.764,4.7847,0.95238,-3.8915,0.83333,8.5486,0.0,0.0,3.764
3.7283,5.7143,3.7724,8.6312,15.469,0.82935,12.376,-1.0256,3.7821,8.6312,15.469,6.7642,4.7209,3.8278,2.8571,-2.9346,1.7949,-0.0638,-2.8436,1.9324,0.89314
-0.06319,9.5238,4.748,7.6651,12.557,-6.8262,8.5486,0.89744,2.8205,7.6651,12.557,1.8862,8.5486,7.6555,5.7143,4.7209,5.641,2.807,-2.8436,7.7295,2.807
-5.7504,2.8571,-1.1057,5.7327,6.7314,-7.7831,1.8501,2.8205,-1.9872,5.7327,6.7314,-5.9187,7.5917,7.6555,2.8571,3.764,2.7564,0.89314,-1.8957,6.7633,1.8501
-5.7504,-3.8095,-9.8862,4.7665,3.8188,-7.7831,-3.8915,-1.0256,-4.8718,4.7665,3.8188,-10.797,10.463,7.6555,0.95238,0.89314,-0.12821,-3.8915,0.94787,7.7295,2.807
-4.8025,-5.7143,-16.715,2.8341,3.8188,-11.611,-5.8054,-1.0256,-1.9872,2.8341,3.8188,-14.699,9.5056,5.7416,-2.8571,-1.9777,-3.9744,-9.6332,-0.94787,3.8647,1.8501
-11.438,-6.6667,-18.667,2.8341,3.8188,-14.482,-3.8915,3.7821,-1.0256,2.8341,3.8188,-14.699,6.6348,3.8278,-4.7619,-2.9346,-5.8974,-8.6762,-1.8957,2.8986,0.89314
-13.333,-0.95238,-13.789,2.8341,6.7314,-13.525,-1.0207,5.7051,-0.0641,2.8341,6.7314,-12.748,3.764,0.95694,-4.7619,-1.0207,-4.9359,3.764,-0.94787,2.8986,2.807
-12.385,-4.7619,-12.813,5.7327,4.7896,-9.697,-3.8915,8.5897,-3.9103,5.7327,4.7896,-13.724,-1.9777,-4.7847,-6.6667,-5.8054,-7.8205,4.7209,0.0,0.0,-0.0638
-9.5419,-8.5714,-12.813,11.53,7.7023,-1.0845,-1.9777,12.436,-1.0256,11.53,7.7023,-6.8943,-8.6762,-6.6986,-10.476,-9.6332,-10.705,3.764,1.8957,-2.8986,-1.0207
-2.9068,-4.7619,-8.9106,16.361,12.557,4.6571,1.8501,11.474,2.8205,16.361,12.557,0.91057,-11.547,-4.7847,-12.381,-10.59,-12.628,3.764,3.7915,-6.7633,-0.0638
-1.0111,-0.95238,-3.0569,19.259001,16.440001,7.5279,5.6778,16.282,1.859,19.259001,16.440001,6.7642,-11.547,-4.7847,-8.5714,-8.6762,-9.7436,0.89314,4.7393,-6.7633,-0.0638
8.4676,0.0,1.8211,18.292999,16.440001,12.313,5.6778,13.397,2.8205,18.292999,16.440001,9.6911,-9.6332,-5.7416,-0.95238,-5.8054,-3.0128,-1.9777,0.94787,-2.8986,-1.0207
9.4155,0.0,2.7967,18.292999,15.469,11.356,-0.0638,16.282,-1.0256,18.292999,15.469,8.7154,-3.8915,-4.7847,2.8571,-2.9346,-1.0897,6.6348,-0.94787,0.96618,1.8501
3.7283,-6.6667,-4.0325,18.292999,12.557,7.5279,-1.9777,16.282,-4.8718,18.292999,12.557,4.813,-5.8054,-7.6555,-3.8095,-7.7193,-6.859,4.7209,-0.94787,-2.8986,-2.9346
-1.9589,-13.333,-7.935,20.225,11.586,10.399,-1.9777,17.243999,-4.8718,20.225,11.586,2.8618,-7.7193,-12.44,-11.429,-14.418,-12.628,8.5486,-1.8957,-6.7633,-9.6332
-1.0111,-10.476,-5.9837,21.191999,11.586,12.313,-3.8915,22.051001,-4.8718,21.191999,11.586,2.8618,-1.0207,-7.6555,-7.619,-13.461,-10.705,12.376,-2.8436,-2.8986,-8.6762
2.7804,-10.476,-5.0081,17.327,9.644,8.4848,-4.8485,19.167,-5.8333,17.327,9.644,0.91057,3.764,-2.8708,-0.95238,-12.504,-5.8974,5.6778,-4.7393,0.96618,-7.7193
11.311,-8.5714,0.84553,16.361,8.6731,17.097,-1.0207,13.397,-4.8718,16.361,8.6731,4.813,6.6348,0.0,3.8095,-7.7193,-1.0897,9.5056,-1.8957,2.8986,-4.8485
9.4155,-4.7619,5.7236,16.361,7.7023,13.27,-0.0638,20.128,-4.8718,16.361,7.7023,8.7154,4.7209,-0.95694,2.8571,-6.7624,-3.0128,8.5486,0.0,1.9324,-5.8054
8.4676,-0.95238,8.6504,15.395,8.6731,13.27,1.8501,15.321,-4.8718,15.395,8.6731,12.618,2.807,-1.9139,2.8571,-6.7624,-3.0128,-1.9777,-0.94787,2.8986,-4.8485
10.363,3.8095,11.577,15.395,9.644,16.139999,4.7209,10.513,-1.0256,15.395,9.644,14.569,1.8501,-0.95694,2.8571,-1.9777,0.83333,0.89314,2.8436,1.9324,-1.0207
17.945999,7.619,12.553,12.496,9.644,10.399,-1.0207,5.7051,-2.9487,12.496,9.644,11.642,-1.9777,0.0,5.7143,2.807,4.6795,-2.9346,4.7393,2.8986,0.89314
8.4676,7.619,10.602,7.6651,2.8479,6.571,-2.9346,2.8205,-4.8718,7.6651,2.8479,6.7642,-1.0207,1.9139,8.5714,4.7209,5.641,5.6778,3.7915,8.6957,0.89314
0.88468,6.6667,8.6504,8.6312,4.7896,6.571,0.89314,6.6667,-2.9487,8.6312,4.7896,5.7886,0.89314,2.8708,9.5238,4.7209,5.641,16.204,0.94787,9.6618,0.89314
7.5197,4.7619,7.6748,13.462,8.6731,10.399,4.7209,5.7051,1.859,13.462,8.6731,6.7642,-0.0638,3.8278,8.5714,4.7209,5.641,4.7209,2.8436,4.8309,0.89314
4.6761,8.5714,3.7724,12.496,10.615,7.5279,7.5917,6.6667,0.89744,12.496,10.615,8.7154,-1.0207,3.8278,5.7143,2.807,3.7179,5.6778,2.8436,3.8647,1.8501
9.4155,0.0,-0.13008,10.564,9.644,9.4418,6.6348,6.6667,1.859,10.564,9.644,5.7886,-3.8915,0.95694,2.8571,-1.9777,-0.12821,0.89314,6.6351,1.9324,1.8501
13.207,0.0,5.7236,11.53,9.644,12.313,4.7209,7.6282,-1.0256,11.53,9.644,5.7886,-1.9777,2.8708,5.7143,2.807,3.7179,4.7209,7.5829,2.8986,3.764
14.155,6.6667,12.553,12.496,6.7314,13.27,3.764,13.397,-5.8333,12.496,6.7314,7.7398,-1.0207,2.8708,9.5238,6.6348,7.5641,8.5486,4.7393,3.8647,2.807
13.207,5.7143,9.626,18.292999,9.644,16.139999,1.8501,14.359,-5.8333,18.292999,9.644,7.7398,-0.0638,0.0,12.381,3.764,5.641,7.5917,0.0,4.8309,-1.0207
9.4155,6.6667,5.7236,17.327,9.644,7.5279,4.7209,15.321,-5.8333,17.327,9.644,5.7886,1.8501,0.95694,11.429,5.6778,5.641,3.764,0.94787,7.7295,-1.0207
13.207,5.7143,4.748,12.496,3.8188,0.82935,4.7209,11.474,-9.6795,12.496,3.8188,1.8862,6.6348,5.7416,10.476,7.5917,7.5641,4.7209,-1.8957,6.7633,-1.0207
-3.8547,1.9048,-1.1057,2.8341,-0.06472,-3.9553,-2.9346,2.8205,-15.449,2.8341,-0.06472,-3.9675,10.463,6.6986,2.8571,4.7209,3.7179,11.419,-4.7393,5.7971,-3.8915
-15.229,-3.8095,-7.935,-1.0306,-8.8026,-6.8262,-12.504,0.89744,-20.256001,-1.0306,-8.8026,-10.797,9.5056,5.7416,-3.8095,1.8501,0.83333,6.6348,-9.4787,4.8309,-2.9346
-11.438,-9.5238,-13.789,-0.06441,-12.686,-8.74,-17.289,3.7821,-22.179001,-0.06441,-12.686,-15.675,8.5486,4.7847,-2.8571,-1.0207,0.83333,3.764,-12.322,3.8647,-1.9777
-4.8025,-17.143,-12.813,-0.06441,-13.657,-3.9553,-19.202999,-0.0641,-21.218,-0.06441,-13.657,-16.65,8.5486,7.6555,1.9048,0.89314,4.6795,3.764,-10.427,5.7971,-0.0638
-3.8547,-16.190001,-9.8862,-1.9968,-14.628,-7.7831,-19.202999,1.859,-20.256001,-1.9968,-14.628,-17.625999,4.7209,7.6555,0.95238,2.807,5.641,-1.0207,-12.322,0.96618,1.8501
-3.8547,-12.381,-7.935,-1.0306,-9.7735,-11.611,-16.332001,2.8205,-19.295,-1.0306,-9.7735,-15.675,-0.0638,6.6986,-2.8571,4.7209,3.7179,-2.9346,-8.5308,-4.8309,3.764
-3.8547,-12.381,-9.8862,-1.0306,-5.89,-8.74,-12.504,-2.9487,-13.526,-1.0306,-5.89,-11.772,-1.0207,4.7847,-5.7143,1.8501,-1.0897,-5.8054,-1.8957,-2.8986,2.807
-0.06319,-11.429,-10.862,-1.9968,-5.89,-5.8692,-13.461,-3.9103,-13.526,-1.9968,-5.89,-9.8211,-3.8915,1.9139,-9.5238,-2.9346,-4.9359,-1.9777,-6.6351,-6.7633,-0.0638
2.7804,-4.7619,-3.0569,-0.06441,-4.9191,-2.0415,-6.7624,-2.9487,-7.7564,-0.06441,-4.9191,-3.9675,-3.8915,3.8278,-6.6667,-0.0638,-2.0513,6.6348,-4.7393,-5.7971,3.764
-0.06319,4.7619,7.6748,-2.963,-2.0065,-2.0415,3.764,-0.0641,-1.0256,-2.963,-2.0065,2.8618,-6.7624,2.8708,-3.8095,3.764,1.7949,2.807,0.94787,-5.7971,5.6778
2.7804,14.286,13.528,-2.963,4.7896,1.7863,12.376,1.859,6.6667,-2.963,4.7896,9.6911,-4.8485,5.7416,-0.95238,8.5486,5.641,1.8501,2.8436,-3.8647,6.6348
9.4155,19.048,14.504,3.8003,9.644,6.571,17.160999,-3.9103,11.474,3.8003,9.644,14.569,-1.9777,5.7416,1.9048,11.419,7.5641,-8.6762,4.7393,-3.8647,7.5917
5.624,15.238,14.504,3.8003,9.644,3.7002,19.075001,-3.9103,12.436,3.8003,9.644,16.52,-1.9777,4.7847,2.8571,11.419,8.5256,-4.8485,4.7393,-3.8647,8.5486
2.7804,12.381,16.455,2.8341,11.586,5.614,19.075001,-0.0641,11.474,2.8341,11.586,17.496,0.89314,3.8278,3.8095,9.5056,10.449,1.8501,5.6872,-1.9324,3.764
7.5197,16.190001,19.382,6.6989,14.498,4.6571,20.989,5.7051,15.321,6.6989,14.498,16.52,7.5917,4.7847,6.6667,11.419,13.333,-7.7193,4.7393,-0.96618,1.8501
10.363,18.094999,18.407,8.6312,19.353001,8.4848,21.945999,1.859,17.243999,8.6312,19.353001,17.496,10.463,4.7847,6.6667,12.376,12.372,3.764,3.7915,0.0,4.7209
7.5197,19.048,14.504,3.8003,15.469,9.4418,19.075001,-1.9872,16.282,3.8003,15.469,15.545,8.5486,2.8708,3.8095,10.463,8.5256,7.5917,6.6351,-1.9324,2.807
6.5719,15.238,10.602,0.90177,15.469,7.5279,17.160999,1.859,17.243999,0.90177,15.469,13.593,7.5917,3.8278,3.8095,9.5056,6.6026,0.89314,10.427,-1.9324,5.6778
4.6761,12.381,7.6748,2.8341,15.469,8.4848,17.160999,0.89744,16.282,2.8341,15.469,12.618,5.6778,2.8708,0.95238,6.6348,3.7179,0.89314,11.374,-4.8309,5.6778
-0.06319,16.190001,6.6992,3.8003,10.615,8.4848,17.160999,-0.0641,14.359,3.8003,10.615,13.593,1.8501,2.8708,-3.8095,4.7209,-0.12821,-1.9777,11.374,-7.7295,6.6348
3.7283,15.238,8.6504,4.7665,10.615,14.226,17.160999,-1.0256,14.359,4.7665,10.615,18.472,2.807,6.6986,-0.95238,5.6778,0.83333,-1.0207,13.27,-5.7971,7.5917
11.311,11.429,10.602,4.7665,7.7023,16.139999,15.247,-3.9103,13.397,4.7665,7.7023,19.447001,2.807,6.6986,4.7619,5.6778,3.7179,2.807,14.218,-1.9324,6.6348
17.945999,9.5238,9.626,7.6651,8.6731,16.139999,13.333,3.7821,10.513,7.6651,8.6731,16.52,1.8501,7.6555,9.5238,5.6778,4.6795,-5.8054,9.4787,0.96618,8.5486
20.790001,9.5238,7.6748,3.8003,10.615,17.097,11.419,5.7051,10.513,3.8003,10.615,16.52,3.764,9.5694,10.476,6.6348,5.641,-3.8915,8.5308,1.9324,8.5486
5.624,5.7143,1.8211,-1.9968,3.8188,12.313,2.807,0.89744,5.7051,-1.9968,3.8188,9.6911,6.6348,7.6555,5.7143,4.7209,4.6795,4.7209,8.5308,0.96618,5.6778
-1.9589,2.8571,-3.0569,-4.8953,-3.9482,3.7002,-8.6762,0.89744,-2.9487,-4.8953,-3.9482,-0.06504,9.5056,6.6986,3.8095,5.6778,5.641,10.463,3.7915,4.8309,4.7209
10.363,-1.9048,-4.0325,-7.7939,-9.7735,-3.9553,-9.6332,-3.9103,-6.7949,-7.7939,-9.7735,-5.9187,10.463,5.7416,6.6667,4.7209,5.641,4.7209,4.7393,7.7295,4.7209
0.88468,-4.7619,-6.9593,-13.591,-13.657,-7.7831,-9.6332,-9.6795,-5.8333,-13.591,-13.657,-7.8699,10.463,5.7416,5.7143,1.8501,3.7179,5.6778,4.7393,8.6957,2.807
-4.8025,-6.6667,-11.837,-14.557,-13.657,-8.74,-11.547,-10.641,-5.8333,-14.557,-13.657,-9.8211,10.463,4.7847,3.8095,-1.9777,1.7949,-1.0207,1.8957,9.6618,-1.0207
-3.8547,-9.5238,-12.813,-14.557,-15.599,-11.611,-12.504,-10.641,-8.7179,-14.557,-15.599,-13.724,14.29,6.6986,5.7143,-1.9777,2.7564,-2.9346,-2.8436,10.628,-0.0638
-3.8547,-10.476,-9.8862,-15.523,-14.628,-10.654,-13.461,-15.449,-9.6795,-15.523,-14.628,-13.724,15.247,9.5694,6.6667,0.89314,5.641,1.8501,-1.8957,9.6618,3.764
-0.06319,-9.5238,-6.9593,-14.557,-15.599,-13.525,-12.504,-11.603,-9.6795,-14.557,-15.599,-14.699,13.333,7.6555,9.5238,0.89314,6.6026,-1.9777,-2.8436,9.6618,0.89314
-7.6461,-9.5238,-8.9106,-22.287001,-22.395,-17.351999,-15.375,-8.7179,-11.603,-22.287001,-22.395,-16.65,11.419,2.8708,5.7143,-1.9777,2.7564,7.5917,-4.7393,9.6618,-4.8485
-9.5419,-7.619,-5.9837,-24.219,-24.337,-19.266001,-18.246,-9.6795,-11.603,-24.219,-24.337,-17.625999,9.5056,1.9139,5.7143,-1.0207,3.7179,12.376,-4.7393,8.6957,-5.8054
-4.8025,-5.7143,-5.0081,-24.219,-25.306999,-22.136999,-20.159,-15.449,-11.603,-24.219,-25.306999,-19.577,6.6348,3.8278,6.6667,1.8501,5.641,2.807,-5.6872,8.6957,-4.8485
-1.0111,-1.9048,-4.0325,-24.219,-23.365999,-24.051001,-14.418,-18.333,-8.7179,-24.219,-23.365999,-19.577,4.7209,4.7847,8.5714,6.6348,8.5256,-3.8915,-5.6872,7.7295,-2.9346
-10.49,-0.95238,-5.0081,-24.219,-19.482,-25.965,-8.6762,-19.295,-4.8718,-24.219,-19.482,-18.601999,3.764,2.8708,5.7143,6.6348,6.6026,0.89314,-4.7393,8.6957,-1.0207
-19.968,0.0,-5.9837,-21.32,-19.482,-20.223,-6.7624,-21.218,-2.9487,-21.32,-19.482,-15.675,0.89314,0.0,0.0,2.807,0.83333,4.7209,-5.6872,5.7971,-3.8915
-12.385,-2.8571,-4.0325,-21.32,-18.511,-19.266001,-4.8485,-20.256001,-2.9487,-21.32,-18.511,-15.675,-1.9777,0.0,0.0,1.8501,-0.12821,-5.8054,-7.5829,2.8986,-3.8915
-8.594,-8.5714,-6.9593,-24.219,-15.599,-17.351999,-7.7193,-18.333,-1.9872,-24.219,-15.599,-17.625999,-4.8485,1.9139,-0.95238,1.8501,0.83333,-0.0638,-2.8436,0.96618,-3.8915
-10.49,-9.5238,-13.789,-21.32,-17.540001,-22.136999,-11.547,-11.603,-1.0256,-21.32,-17.540001,-21.528,-7.7193,1.9139,-5.7143,-0.0638,-4.9359,-3.8915,-2.8436,-2.8986,-4.8485
-11.438,-7.619,-11.837,-17.455999,-18.511,-23.094,-12.504,-8.7179,0.89744,-17.455999,-18.511,-21.528,-7.7193,-1.9139,-5.7143,-2.9346,-8.7821,1.8501,-3.7915,-4.8309,-4.8485
-3.8547,-3.8095,-4.0325,-13.591,-14.628,-10.654,-8.6762,-8.7179,6.6667,-13.591,-14.628,-14.699,-1.0207,-2.8708,0.0,-2.9346,-3.9744,7.5917,-1.8957,-0.96618,-6.7624
5.624,0.95238,6.6992,-8.7601,-8.8026,-0.12759,0.89314,-5.8333,8.5897,-8.7601,-8.8026,-4.9431,9.5056,6.6986,9.5238,3.764,7.5641,0.89314,-3.7915,2.8986,-3.8915
14.155,9.5238,13.528,-2.963,-4.9191,9.4418,9.5056,-6.7949,11.474,-2.963,-4.9191,4.813,13.333,11.483,11.429,11.419,12.372,-0.0638,-1.8957,2.8986,1.8501
23.632999,15.238,14.504,0.90177,-2.0065,13.27,12.376,-5.8333,14.359,0.90177,-2.0065,12.618,10.463,7.6555,10.476,11.419,9.4872,-5.8054,1.8957,3.8647,1.8501
15.103,15.238,11.577,3.8003,-0.06472,18.054001,15.247,-3.9103,13.397,3.8003,-0.06472,16.52,5.6778,-1.9139,8.5714,1.8501,3.7179,0.89314,-1.8957,0.0,-2.9346
2.7804,8.5714,10.602,4.7665,2.8479,20.924999,15.247,0.89744,12.436,4.7665,2.8479,18.472,6.6348,-6.6986,6.6667,-4.8485,0.83333,1.8501,-3.7915,0.96618,-5.8054
9.4155,5.7143,12.553,8.6312,2.8479,20.924999,15.247,-1.9872,11.474,8.6312,2.8479,20.423,4.7209,-7.6555,5.7143,-1.9777,1.7949,-12.504,0.94787,0.96618,-3.8915
7.5197,6.6667,11.577,9.5974,5.7605,16.139999,14.29,-1.9872,13.397,9.5974,5.7605,20.423,0.89314,-9.5694,1.9048,-0.0638,-0.12821,-16.332001,1.8957,-1.9324,-3.8915
9.4155,11.429,12.553,13.462,11.586,19.011,18.118,-3.9103,17.243999,13.462,11.586,24.325001,-3.8915,-10.526,0.0,-1.0207,-2.0513,-1.0207,1.8957,-3.8647,-3.8915
5.624,12.381,11.577,9.5974,14.498,17.097,17.160999,-4.8718,18.205,9.5974,14.498,25.301001,-12.504,-15.311,-3.8095,-4.8485,-6.859,-0.0638,3.7915,-7.7295,-4.8485
4.6761,12.381,12.553,8.6312,17.410999,17.097,20.032,-3.9103,18.205,8.6312,17.410999,27.252001,-9.6332,-9.5694,-1.9048,-1.9777,-3.9744,-7.7193,5.6872,-6.7633,-0.0638
-0.06319,8.5714,10.602,3.8003,13.528,10.399,20.032,-11.603,17.243999,3.8003,13.528,23.35,-4.8485,-2.8708,-0.95238,-0.0638,-0.12821,-10.59,5.6872,-5.7971,3.764
4.6761,8.5714,7.6748,-1.9968,5.7605,8.4848,14.29,-20.256001,13.397,-1.9968,5.7605,18.472,-1.9777,0.0,0.95238,2.807,1.7949,-16.332001,5.6872,-2.8986,3.764
2.7804,8.5714,7.6748,-0.06441,7.7023,4.6571,7.5917,-12.564,6.6667,-0.06441,7.7023,14.569,-1.0207,0.95694,0.0,2.807,2.7564,-10.59,0.94787,-1.9324,2.807
3.7283,1.9048,7.6748,2.8341,5.7605,0.82935,1.8501,-5.8333,3.7821,2.8341,5.7605,9.6911,-1.0207,-0.95694,0.95238,-0.0638,1.7949,-9.6332,0.0,-1.9324,-0.0638
-2.9068,-4.7619,2.7967,-0.06441,-0.06472,0.82935,-1.0207,-3.9103,-0.0641,-0.06441,-0.06472,5.7886,-1.9777,-3.8278,0.0,-4.8485,-1.0897,-8.6762,-0.94787,0.96618,-2.9346
-11.438,-5.7143,-3.0569,-0.06441,-1.0356,-2.9984,-2.9346,0.89744,-1.9872,-0.06441,-1.0356,1.8862,-2.9346,-5.7416,-4.7619,-8.6762,-5.8974,-8.6762,-3.7915,1.9324,-3.8915
-11.438,-8.5714,-5.9837,-2.963,0.90615,-7.7831,-3.8915,3.7821,-1.0256,-2.963,0.90615,-1.0407,-2.9346,-3.8278,-7.619,-8.6762,-7.8205,-2.9346,-5.6872,1.9324,-5.8054
-6.6983,-8.5714,-5.0081,-9.7262,-3.9482,-7.7831,-5.8054,-2.9487,-1.9872,-9.7262,-3.9482,-4.9431,-4.8485,-2.8708,-7.619,-7.7193,-6.859,-1.0207,-4.7393,-2.8986,-6.7624
-6.6983,-9.5238,-8.9106,-11.659,-6.8608,-10.654,-7.7193,-2.9487,-2.9487,-11.659,-6.8608,-8.8455,-6.7624,-3.8278,-7.619,-9.6332,-9.7436,0.89314,-4.7393,-1.9324,-4.8485
-6.6983,-10.476,-11.837,-13.591,-8.8026,-14.482,-8.6762,-5.8333,-4.8718,-13.591,-8.8026,-12.748,-2.9346,0.0,-3.8095,-6.7624,-6.859,1.8501,-5.6872,2.8986,-1.9777
-5.7504,-11.429,-12.813,-11.659,-7.8317,-14.482,-9.6332,-6.7949,-4.8718,-11.659,-7.8317,-15.675,-5.8054,0.0,-4.7619,-4.8485,-5.8974,-1.9777,-5.6872,0.96618,-2.9346
-9.5419,-6.6667,-13.789,-13.591,-7.8317,-16.396,-9.6332,-3.9103,-1.9872,-13.591,-7.8317,-15.675,-9.6332,-2.8708,-10.476,-3.8915,-8.7821,0.89314,-7.5829,-1.9324,-1.9777
-12.385,-11.429,-13.789,-13.591,-7.8317,-16.396,-9.6332,-1.0256,-2.9487,-13.591,-7.8317,-17.625999,-8.6762,-4.7847,-11.429,-7.7193,-11.667,0.89314,-4.7393,-2.8986,-1.9777
-0.06319,-19.048,-15.74,-15.523,-7.8317,-14.482,-9.6332,-6.7949,-1.0256,-15.523,-7.8317,-17.625999,-8.6762,-6.6986,-5.7143,-13.461,-13.59,-9.6332,-0.94787,-0.96618,-2.9346
-15.229,-20.0,-23.545,-12.625,-3.9482,-16.396,-9.6332,-1.9872,1.859,-12.625,-3.9482,-19.577,-10.59,-9.5694,-8.5714,-15.375,-16.474001,-4.8485,-3.7915,-1.9324,-2.9346
-24.708,-17.143,-26.472,-10.692,-4.9191,-19.266001,-13.461,7.6282,0.89744,-10.692,-4.9191,-20.552999,-11.547,-9.5694,-12.381,-14.418,-16.474001,3.764,-2.8436,-4.8309,-2.9346
-17.125,-15.238,-21.593,-8.7601,-5.89,-14.482,-12.504,5.7051,0.89744,-8.7601,-5.89,-18.601999,-10.59,-8.6124,-12.381,-14.418,-14.551,3.764,-0.94787,-5.7971,-3.8915
-8.594,-12.381,-15.74,-9.7262,-4.9191,-10.654,-8.6762,-3.9103,0.89744,-9.7262,-4.9191,-13.724,-10.59,-8.6124,-9.5238,-13.461,-11.667,-3.8915,0.0,-5.7971,-1.9777
-7.6461,-9.5238,-12.813,-8.7601,-3.9482,-9.697,-5.8054,-1.9872,1.859,-8.7601,-3.9482,-11.772,-14.418,-9.5694,-9.5238,-9.6332,-9.7436,-3.8915,0.0,-8.6957,0.89314
-13.333,-10.476,-15.74,-7.7939,-2.9773,-9.697,-5.8054,-3.9103,0.89744,-7.7939,-2.9773,-12.748,-21.115999,-13.397,-14.286,-9.6332,-14.551,-1.9777,0.0,-9.6618,1.8501
-15.229,-11.429,-16.715,-8.7601,-2.9773,-10.654,-5.8054,-1.9872,2.8205,-8.7601,-2.9773,-12.748,-23.987,-15.311,-18.094999,-10.59,-18.396999,-1.9777,0.94787,-12.56,0.89314
-11.438,-7.619,-11.837,-5.8615,-4.9191,-4.9123,-5.8054,0.89744,1.859,-5.8615,-4.9191,-9.8211,-20.159,-12.44,-15.238,-9.6332,-16.474001,-7.7193,0.94787,-11.594,1.8501
-9.5419,-10.476,-12.813,-2.963,-2.0065,-2.9984,-7.7193,-2.9487,-1.0256,-2.963,-2.0065,-9.8211,-20.159,-14.354,-14.286,-12.504,-18.396999,-6.7624,-1.8957,-11.594,-1.0207
-4.8025,-12.381,-12.813,-1.9968,1.877,-8.74,-6.7624,0.89744,1.859,-1.9968,1.877,-7.8699,-16.332001,-14.354,-12.381,-12.504,-17.436001,-0.0638,4.7393,-9.6618,0.89314
-10.49,-8.5714,-7.935,-2.963,3.8188,-6.8262,-5.8054,5.7051,2.8205,-2.963,3.8188,-5.9187,-12.504,-11.483,-9.5238,-8.6762,-12.628,3.764,5.6872,-6.7633,2.807
-7.6461,-4.7619,-2.0813,-3.9291,0.90615,-2.0415,-1.0207,0.89744,3.7821,-3.9291,0.90615,-3.9675,-11.547,-8.6124,-5.7143,-4.8485,-5.8974,6.6348,1.8957,-5.7971,0.89314
-3.8547,-1.9048,0.84553,-4.8953,-2.0065,-3.9553,-0.0638,0.89744,1.859,-4.8953,-2.0065,-3.9675,-13.461,-8.6124,-6.6667,-1.9777,-3.9744,4.7209,0.94787,-7.7295,-0.0638
-0.06319,3.8095,2.7967,-4.8953,-5.89,-1.0845,0.89314,2.8205,-1.0256,-4.8953,-5.89,-0.06504,-9.6332,-6.6986,-4.7619,1.8501,-3.0128,2.807,1.8957,-4.8309,2.807
2.7804,4.7619,2.7967,-3.9291,1.877,2.7432,5.6778,-2.9487,3.7821,-3.9291,1.877,2.8618,-7.7193,-5.7416,-3.8095,1.8501,-3.9744,-0.0638,5.6872,-3.8647,3.764
-2.9068,2.8571,-0.13008,-1.9968,7.7023,-0.12759,3.764,-1.0256,7.6282,-1.9968,7.7023,-0.06504,-12.504,-9.5694,-5.7143,-1.9777,-4.9359,-6.7624,5.6872,-3.8647,0.89314
-0.06319,6.6667,3.7724,-2.963,8.6731,1.7863,6.6348,0.89744,12.436,-2.963,8.6731,1.8862,-9.6332,-6.6986,-2.8571,1.8501,-1.0897,-10.59,6.6351,-4.8309,4.7209
1.8325,3.8095,4.748,0.90177,7.7023,0.82935,6.6348,0.89744,15.321,0.90177,7.7023,-0.06504,-6.7624,-3.8278,-2.8571,4.7209,-0.12821,-0.0638,6.6351,-6.7633,7.5917
-0.06319,2.8571,0.84553,2.8341,6.7314,-2.0415,5.6778,1.859,10.513,2.8341,6.7314,-1.0407,-7.7193,-5.7416,-5.7143,1.8501,-3.9744,5.6778,5.6872,-6.7633,5.6778
5.624,4.7619,1.8211,2.8341,4.7896,-1.0845,2.807,-0.0641,8.5897,2.8341,4.7896,-0.06504,-7.7193,-3.8278,-3.8095,2.807,-0.12821,1.8501,6.6351,-4.8309,4.7209
1.8325,4.7619,4.748,0.90177,0.90615,-2.9984,3.764,-2.9487,8.5897,0.90177,0.90615,-1.0407,-5.8054,-1.9139,-0.95238,5.6778,3.7179,-7.7193,8.5308,-4.8309,4.7209
-9.5419,3.8095,-0.13008,-2.963,-0.06472,-4.9123,4.7209,-5.8333,6.6667,-2.963,-0.06472,-2.9919,-1.9777,0.0,-2.8571,4.7209,2.7564,-3.8915,7.5829,-3.8647,5.6778
-13.333,-3.8095,-9.8862,-6.8277,-0.06472,-9.697,0.89314,-7.7564,9.5513,-6.8277,-0.06472,-7.8699,-4.8485,0.0,-9.5238,-0.0638,-3.0128,-1.9777,6.6351,-4.8309,2.807
-12.385,-1.9048,-9.8862,-12.625,-2.0065,-12.568,1.8501,-11.603,10.513,-12.625,-2.0065,-7.8699,-5.8054,1.9139,-10.476,0.89314,-3.9744,-5.8054,5.6872,-6.7633,6.6348
-12.385,-3.8095,-10.862,-7.7939,-0.06472,-7.7831,0.89314,-9.6795,11.474,-7.7939,-0.06472,-7.8699,-5.8054,0.95694,-11.429,-1.9777,-5.8974,-7.7193,3.7915,-6.7633,5.6778
-13.333,-4.7619,-13.789,-7.7939,-1.0356,-10.654,-1.9777,-10.641,10.513,-7.7939,-1.0356,-10.797,-5.8054,-2.8708,-12.381,-7.7193,-10.705,-15.375,3.7915,-6.7633,1.8501
-8.594,-7.619,-10.862,-9.7262,-4.9191,-9.697,-1.9777,-14.487,11.474,-9.7262,-4.9191,-8.8455,-1.0207,-0.95694,-7.619,-5.8054,-6.859,-7.7193,4.7393,-3.8647,1.8501
-1.9589,-7.619,-8.9106,-6.8277,-5.89,-7.7831,-1.9777,-12.564,8.5897,-6.8277,-5.89,-5.9187,-1.9777,-1.9139,-6.6667,-5.8054,-4.9359,-1.0207,5.6872,-3.8647,2.807
-11.438,-3.8095,-7.935,-7.7939,-10.744,-8.74,-5.8054,-4.8718,3.7821,-7.7939,-10.744,-6.8943,-2.9346,-3.8278,-6.6667,-6.7624,-4.9359,-1.0207,0.0,-2.8986,-0.0638
-9.5419,-4.7619,-5.9837,-13.591,-13.657,-9.697,-5.8054,-6.7949,0.89744,-13.591,-13.657,-6.8943,-0.0638,-0.95694,-3.8095,-3.8915,-3.0128,-3.8915,1.8957,0.96618,-0.0638
0.88468,-1.9048,0.84553,-12.625,-9.7735,-4.9123,-0.0638,-7.7564,3.7821,-12.625,-9.7735,-2.0163,3.764,2.8708,-0.95238,1.8501,0.83333,-4.8485,5.6872,3.8647,3.764
-4.8025,0.95238,1.8211,-14.557,-10.744,-4.9123,-1.0207,-13.526,5.7051,-14.557,-10.744,-2.0163,0.89314,3.8278,-3.8095,4.7209,0.83333,-1.0207,6.6351,-1.9324,3.764
-8.594,1.9048,-1.1057,-15.523,-14.628,-8.74,-3.8915,-12.564,2.8205,-15.523,-14.628,-5.9187,-1.0207,2.8708,-3.8095,5.6778,-0.12821,-1.9777,4.7393,-1.9324,5.6778
-1.0111,1.9048,-1.1057,-15.523,-14.628,-4.9123,-5.8054,-9.6795,0.89744,-15.523,-14.628,-4.9431,-0.0638,0.0,0.95238,2.807,-2.0513,-8.6762,1.8957,2.8986,4.7209
4.6761,1.9048,1.8211,-12.625,-14.628,-2.9984,-5.8054,-13.526,-1.9872,-12.625,-14.628,-3.9675,-1.9777,-2.8708,0.95238,-1.0207,-3.9744,-2.9346,0.94787,0.96618,1.8501
2.7804,7.619,5.7236,-12.625,-16.57,-3.9553,-4.8485,-6.7949,-1.0256,-12.625,-16.57,-1.0407,-1.0207,-2.8708,1.9048,-0.0638,-0.12821,8.5486,0.94787,0.0,0.89314
-0.06319,3.8095,0.84553,-9.7262,-13.657,-3.9553,-3.8915,-1.9872,1.859,-9.7262,-13.657,-0.06504,-0.0638,-1.9139,1.9048,-0.0638,0.83333,1.8501,4.7393,0.0,-0.0638
3.7283,0.95238,1.8211,-7.7939,-12.686,-2.0415,-1.9777,-4.8718,-0.0641,-7.7939,-12.686,0.91057,7.5917,1.9139,7.619,3.764,4.6795,1.8501,5.6872,5.7971,1.8501
13.207,3.8095,9.626,-9.7262,-13.657,-2.9984,-2.9346,-2.9487,-2.9487,-9.7262,-13.657,-1.0407,15.247,7.6555,16.190001,8.5486,13.333,2.807,1.8957,10.628,2.807
7.5197,3.8095,10.602,-4.8953,-9.7735,-2.0415,-4.8485,-1.0256,-2.9487,-4.8953,-9.7735,-0.06504,14.29,9.5694,15.238,9.5056,13.333,4.7209,-2.8436,10.628,0.89314
4.6761,6.6667,8.6504,-0.06441,-9.7735,5.614,-1.0207,0.89744,-1.9872,-0.06441,-9.7735,3.8374,11.419,6.6986,7.619,6.6348,7.5641,6.6348,-3.7915,6.7633,-0.0638
12.259,6.6667,9.626,1.868,-6.8608,10.399,1.8501,-0.0641,-1.0256,1.868,-6.8608,7.7398,12.376,5.7416,4.7619,5.6778,6.6026,4.7209,0.0,4.8309,-1.0207
8.4676,6.6667,12.553,5.7327,-2.9773,11.356,3.764,7.6282,-0.0641,5.7327,-2.9773,9.6911,11.419,5.7416,8.5714,7.5917,8.5256,-1.9777,1.8957,4.8309,0.89314
2.7804,5.7143,11.577,1.868,-4.9191,6.571,0.89314,3.7821,-2.9487,1.868,-4.9191,5.7886,5.6778,1.9139,6.6667,5.6778,4.6795,0.89314,0.94787,2.8986,-0.0638
-0.06319,4.7619,3.7724,-3.9291,-6.8608,-2.0415,-5.8054,1.859,-5.8333,-3.9291,-6.8608,0.91057,2.807,-0.95694,1.9048,0.89314,-3.0128,0.89314,0.0,2.8986,-1.0207
1.8325,1.9048,1.8211,-3.9291,-7.8317,0.82935,-1.9777,5.7051,-2.9487,-3.9291,-7.8317,0.91057,2.807,2.8708,-2.8571,0.89314,-4.9359,-0.0638,2.8436,-0.96618,1.8501
0.88468,-0.95238,3.7724,-1.0306,-9.7735,0.82935,-1.0207,2.8205,-3.9103,-1.0306,-9.7735,-1.0407,2.807,9.5694,-3.8095,3.764,-2.0513,3.764,0.94787,-3.8647,4.7209
-2.9068,-1.9048,4.748,-1.0306,-7.8317,-4.9123,-6.7624,2.8205,-5.8333,-1.0306,-7.8317,-5.9187,3.764,14.354,0.0,5.6778,0.83333,4.7209,-1.8957,-1.9324,5.6778
-0.06319,-5.7143,-0.13008,-3.9291,-6.8608,-5.8692,-8.6762,-1.9872,-5.8333,-3.9291,-6.8608,-6.8943,-0.0638,9.5694,-0.95238,-0.0638,-2.0513,3.764,-2.8436,-2.8986,2.807
9.4155,-5.7143,-2.0813,2.8341,-1.0356,0.82935,-2.9346,3.7821,-2.9487,2.8341,-1.0356,-2.9919,-1.0207,3.8278,0.95238,-4.8485,-4.9359,3.764,-2.8436,0.0,-1.0207
3.7283,-5.7143,-0.13008,0.90177,-2.0065,0.82935,-2.9346,8.5897,-5.8333,0.90177,-2.0065,-2.0163,-1.9777,-0.95694,2.8571,-7.7193,-5.8974,3.764,-3.7915,2.8986,-2.9346
5.624,-2.8571,4.748,-1.0306,-5.89,3.7002,-4.8485,6.6667,-7.7564,-1.0306,-5.89,-1.0407,-1.9777,-0.95694,6.6667,-3.8915,-2.0513,8.5486,-5.6872,4.8309,-3.8915
9.4155,0.95238,5.7236,0.90177,-5.89,6.571,-4.8485,6.6667,-9.6795,0.90177,-5.89,1.8862,1.8501,0.95694,8.5714,1.8501,3.7179,11.419,-7.5829,4.8309,-3.8915
4.6761,5.7143,6.6992,1.868,-3.9482,4.6571,-2.9346,7.6282,-9.6795,1.868,-3.9482,3.8374,6.6348,2.8708,7.619,4.7209,8.5256,6.6348,-6.6351,5.7971,-2.9346
7.5197,-0.95238,6.6992,5.7327,-2.0065,9.4418,1.8501,8.5897,-8.7179,5.7327,-2.0065,7.7398,7.5917,2.8708,6.6667,3.764,7.5641,5.6778,-5.6872,4.8309,-2.9346
15.103,-5.7143,6.6992,4.7665,-5.89,11.356,-0.0638,10.513,-11.603,4.7665,-5.89,5.7886,6.6348,3.8278,6.6667,1.8501,4.6795,-8.6762,-4.7393,3.8647,-1.0207
5.624,-4.7619,0.84553,3.8003,-7.8317,6.571,-4.8485,12.436,-11.603,3.8003,-7.8317,0.91057,8.5486,5.7416,0.95238,0.89314,1.7949,4.7209,-5.6872,0.96618,-0.0638
-0.06319,-1.9048,-4.0325,-0.06441,-8.8026,3.7002,-5.8054,5.7051,-11.603,-0.06441,-8.8026,-2.0163,12.376,7.6555,-0.95238,1.8501,0.83333,8.5486,-5.6872,2.8986,0.89314
2.7804,1.9048,-3.0569,-1.0306,-8.8026,1.7863,-4.8485,1.859,-11.603,-1.0306,-8.8026,-1.0407,13.333,7.6555,1.9048,4.7209,3.7179,-2.9346,-4.7393,5.7971,1.8501
-0.06319,1.9048,-1.1057,-1.0306,-7.8317,2.7432,-1.9777,2.8205,-11.603,-1.0306,-7.8317,1.8862,9.5056,5.7416,2.8571,3.764,4.6795,-1.0207,-5.6872,3.8647,-0.0638
3.7283,3.8095,2.7967,1.868,-5.89,9.4418,0.89314,2.8205,-8.7179,1.868,-5.89,5.7886,10.463,8.6124,6.6667,5.6778,7.5641,2.807,-4.7393,4.8309,2.807
6.5719,6.6667,3.7724,1.868,-3.9482,10.399,0.89314,0.89744,-7.7564,1.868,-3.9482,4.813,13.333,12.44,9.5238,9.5056,12.372,5.6778,-5.6872,6.7633,6.6348
4.6761,7.619,0.84553,2.8341,-2.9773,2.7432,-2.9346,5.7051,-7.7564,2.8341,-2.9773,0.91057,11.419,12.44,9.5238,11.419,13.333,3.764,-6.6351,7.7295,6.6348
2.7804,0.95238,-3.0569,-0.06441,-5.89,-0.12759,-1.9777,6.6667,-8.7179,-0.06441,-5.89,-2.9919,3.764,6.6986,5.7143,7.5917,8.5256,4.7209,-6.6351,4.8309,3.764
-4.8025,-5.7143,-6.9593,0.90177,-8.8026,-2.0415,-1.0207,4.7436,-10.641,0.90177,-8.8026,-4.9431,-3.8915,1.9139,-1.9048,1.8501,2.7564,2.807,-7.5829,1.9324,-1.9777
-0.06319,-8.5714,-5.0081,0.90177,-4.9191,-2.9984,-1.9777,-1.0256,-9.6795,0.90177,-4.9191,-2.9919,-4.8485,2.8708,-3.8095,-0.0638,2.7564,-1.9777,-8.5308,-0.96618,-3.8915
0.88468,-7.619,-0.13008,-1.0306,-3.9482,-3.9553,-3.8915,-2.9487,-10.641,-1.0306,-3.9482,-2.9919,-2.9346,4.7847,0.95238,0.89314,4.6795,-5.8054,-10.427,0.96618,-1.9777
-0.06319,-3.8095,1.8211,1.868,-2.0065,-0.12759,-3.8915,4.7436,-12.564,1.868,-2.0065,-3.9675,-1.9777,0.95694,2.8571,-0.0638,2.7564,2.807,-10.427,3.8647,-4.8485
1.8325,-0.95238,3.7724,7.6651,2.8479,11.356,1.8501,7.6282,-6.7949,7.6651,2.8479,-0.06504,-2.9346,-0.95694,0.95238,-1.9777,0.83333,10.463,-10.427,1.9324,-5.8054
-3.8547,-0.95238,-1.1057,11.53,6.7314,8.4848,5.6778,8.5897,-0.0641,11.53,6.7314,2.8618,-4.8485,-4.7847,-2.8571,-4.8485,-4.9359,0.89314,-10.427,2.8986,-7.7193
-8.594,-2.8571,-7.935,8.6312,5.7605,1.7863,6.6348,3.7821,-1.0256,8.6312,5.7605,0.91057,-2.9346,-6.6986,-7.619,-9.6332,-10.705,0.89314,-8.5308,1.9324,-7.7193
-12.385,-4.7619,-8.9106,3.8003,7.7023,-6.8262,1.8501,1.859,-0.0641,3.8003,7.7023,-2.0163,-1.0207,-4.7847,-6.6667,-8.6762,-9.7436,7.5917,-6.6351,1.9324,-4.8485
-6.6983,-5.7143,-4.0325,0.90177,5.7605,-7.7831,-1.0207,1.859,-0.0641,0.90177,5.7605,-2.9919,-1.9777,-3.8278,-5.7143,-5.8054,-6.859,0.89314,-2.8436,0.0,-1.0207
12.259,-2.8571,1.8211,3.8003,3.8188,2.7432,2.807,-6.7949,1.859,3.8003,3.8188,1.8862,-0.0638,-4.7847,-2.8571,-2.9346,-3.9744,-1.9777,-1.8957,-0.96618,-1.0207
4.6761,-0.95238,2.7967,4.7665,2.8479,5.614,2.807,-1.9872,-2.9487,4.7665,2.8479,2.8618,2.807,-2.8708,-0.95238,-2.9346,-2.0513,-4.8485,-3.7915,0.0,-3.8915
-6.6983,-0.95238,0.84553,4.7665,4.7896,4.6571,-0.0638,1.859,-2.9487,4.7665,4.7896,-0.06504,7.5917,0.95694,3.8095,-1.0207,1.7949,-9.6332,-1.8957,4.8309,-3.8915
-1.9589,-3.8095,-1.1057,6.6989,6.7314,1.7863,-1.9777,2.8205,-1.9872,6.6989,6.7314,-2.0163,9.5056,3.8278,8.5714,-1.0207,2.7564,-1.0207,-1.8957,6.7633,-3.8915
9.4155,-7.619,-1.1057,8.6312,5.7605,1.7863,-3.8915,2.8205,-1.0256,8.6312,5.7605,-2.0163,6.6348,4.7847,9.5238,-1.9777,2.7564,8.5486,-3.7915,5.7971,-3.8915
11.311,-5.7143,0.84553,9.5974,6.7314,5.614,-5.8054,2.8205,-1.9872,9.5974,6.7314,0.91057,4.7209,5.7416,7.619,-1.0207,0.83333,-1.9777,-5.6872,3.8647,-3.8915
2.7804,-3.8095,-0.13008,10.564,5.7605,7.5279,-6.7624,0.89744,-1.9872,10.564,5.7605,-1.0407,-0.0638,3.8278,0.0,-2.9346,-1.0897,-0.0638,-6.6351,0.96618,-6.7624
-8.594,-5.7143,-5.9837,6.6989,0.90615,-1.0845,-5.8054,7.6282,-1.9872,6.6989,0.90615,-4.9431,-2.9346,2.8708,-4.7619,-4.8485,-3.0128,4.7209,-5.6872,-0.96618,-6.7624
-7.6461,-2.8571,-9.8862,8.6312,2.8479,-3.9553,-2.9346,6.6667,-0.0641,8.6312,2.8479,-4.9431,-1.9777,1.9139,-2.8571,-5.8054,-3.9744,1.8501,-2.8436,0.96618,-2.9346
-1.9589,-6.6667,-10.862,6.6989,4.7896,0.82935,-2.9346,0.89744,-0.0641,6.6989,4.7896,-2.9919,-4.8485,0.95694,-3.8095,-4.8485,-6.859,-4.8485,1.8957,0.0,-1.9777
1.8325,-6.6667,-5.9837,8.6312,6.7314,4.6571,-1.0207,3.7821,1.859,8.6312,6.7314,-2.0163,-8.6762,-0.95694,-6.6667,-3.8915,-8.7821,-2.9346,0.94787,-6.7633,-1.9777
-4.8025,-0.95238,-2.0813,9.5974,10.615,2.7432,2.807,7.6282,2.8205,9.5974,10.615,1.8862,-6.7624,-2.8708,-6.6667,-2.9346,-6.859,4.7209,0.0,-5.7971,-0.0638
-1.0111,1.9048,-2.0813,6.6989,9.644,-2.0415,4.7209,3.7821,2.8205,6.6989,9.644,2.8618,-1.9777,-1.9139,-2.8571,-2.9346,-3.9744,-1.9777,2.8436,-0.96618,0.89314
-8.594,0.0,-5.9837,5.7327,5.7605,-2.9984,1.8501,1.859,0.89744,5.7327,5.7605,0.91057,1.8501,0.0,-0.95238,-3.8915,-3.9744,-1.0207,1.8957,0.96618,0.89314
-4.8025,2.8571,-3.0569,6.6989,5.7605,6.571,2.807,-1.0256,0.89744,6.6989,5.7605,2.8618,2.807,-0.95694,-0.95238,-1.0207,-3.0128,-2.9346,0.0,0.96618,0.89314
-0.06319,3.8095,1.8211,7.6651,8.6731,7.5279,5.6778,4.7436,2.8205,7.6651,8.6731,5.7886,-0.0638,-0.95694,-3.8095,0.89314,-3.0128,-2.9346,2.8436,-1.9324,1.8501
-3.8547,0.95238,-1.1057,3.8003,10.615,2.7432,2.807,6.6667,4.7436,3.8003,10.615,4.813,-5.8054,-6.6986,-8.5714,-3.8915,-6.859,-5.8054,5.6872,-4.8309,-1.0207
3.7283,3.8095,-1.1057,4.7665,10.615,5.614,4.7209,0.89744,3.7821,4.7665,10.615,2.8618,-5.8054,-7.6555,-7.619,-4.8485,-7.8205,-1.9777,3.7915,-5.7971,-2.9346
1.8325,0.0,0.84553,7.6651,5.7605,7.5279,4.7209,5.7051,0.89744,7.6651,5.7605,3.8374,-1.0207,-5.7416,-3.8095,-3.8915,-3.0128,5.6778,2.8436,-2.8986,-3.8915
9.4155,-2.8571,4.748,10.564,8.6731,7.5279,4.7209,7.6282,-1.0256,10.564,8.6731,6.7642,1.8501,-3.8278,2.8571,-2.9346,1.7949,-5.8054,0.0,0.0,-2.9346
8.4676,0.95238,7.6748,6.6989,9.644,6.571,3.764,3.7821,-1.9872,6.6989,9.644,6.7642,5.6778,-2.8708,7.619,-1.0207,5.641,4.7209,1.8957,2.8986,-2.9346
6.5719,1.9048,5.7236,5.7327,5.7605,8.4848,3.764,5.7051,-0.0641,5.7327,5.7605,5.7886,5.6778,0.95694,10.476,1.8501,8.5256,6.6348,-0.94787,3.8647,-3.8915
6.5719,5.7143,7.6748,9.5974,9.644,13.27,7.5917,5.7051,2.8205,9.5974,9.644,9.6911,3.764,3.8278,11.429,6.6348,11.41,7.5917,-0.94787,4.8309,-1.9777
10.363,7.619,10.602,10.564,12.557,11.356,8.5486,0.89744,3.7821,10.564,12.557,10.667,0.89314,3.8278,11.429,8.5486,12.372,7.5917,2.8436,3.8647,-0.0638
9.4155,5.7143,7.6748,4.7665,6.7314,6.571,6.6348,6.6667,-0.0641,4.7665,6.7314,7.7398,1.8501,6.6986,8.5714,7.5917,11.41,0.89314,3.7915,2.8986,0.89314
4.6761,4.7619,2.7967,3.8003,2.8479,5.614,5.6778,4.7436,0.89744,3.8003,2.8479,3.8374,5.6778,9.5694,7.619,8.5486,10.449,1.8501,4.7393,7.7295,2.807
0.88468,6.6667,1.8211,7.6651,4.7896,5.614,2.807,5.7051,1.859,7.6651,4.7896,2.8618,8.5486,10.526,6.6667,7.5917,8.5256,5.6778,3.7915,7.7295,5.6778
3.7283,2.8571,2.7967,7.6651,6.7314,6.571,-0.0638,0.89744,2.8205,7.6651,6.7314,3.8374,14.29,15.311,9.5238,8.5486,10.449,-1.9777,7.5829,7.7295,9.5056
12.259,2.8571,7.6748,6.6989,7.7023,7.5279,2.807,-0.0641,3.7821,6.6989,7.7023,6.7642,15.247,17.225,13.333,11.419,14.295,-1.0207,8.5308,8.6957,11.419
5.624,0.0,4.748,1.868,2.8479,4.6571,1.8501,2.8205,1.859,1.868,2.8479,1.8862,11.419,13.397,7.619,9.5056,11.41,3.764,12.322,6.7633,8.5486
-1.0111,-2.8571,-1.1057,1.868,-2.0065,3.7002,-1.0207,5.7051,-1.0256,1.868,-2.0065,0.91057,12.376,14.354,4.7619,5.6778,7.5641,7.5917,10.427,8.6957,9.5056
4.6761,0.0,3.7724,4.7665,-1.0356,9.4418,-1.9777,4.7436,-1.0256,4.7665,-1.0356,2.8618,13.333,15.311,9.5238,6.6348,9.4872,13.333,8.5308,12.56,11.419
4.6761,0.95238,6.6992,-0.06441,-2.0065,4.6571,-4.8485,1.859,-2.9487,-0.06441,-2.0065,-0.06504,10.463,10.526,9.5238,8.5486,10.449,10.463,8.5308,9.6618,10.463
1.8325,-0.95238,2.7967,0.90177,-2.0065,-4.9123,-5.8054,-1.9872,-3.9103,0.90177,-2.0065,-2.9919,10.463,7.6555,5.7143,7.5917,9.4872,4.7209,5.6872,7.7295,7.5917
-1.0111,-0.95238,-2.0813,2.8341,0.90615,-1.0845,-4.8485,0.89744,-1.0256,2.8341,0.90615,-1.0407,8.5486,5.7416,0.0,3.764,5.641,1.8501,4.7393,3.8647,5.6778
-1.0111,3.8095,-0.13008,4.7665,2.8479,5.614,-1.9777,-1.0256,-1.9872,4.7665,2.8479,4.813,0.89314,0.95694,-2.8571,-1.9777,-2.0513,-4.8485,3.7915,0.96618,4.7209
0.88468,-1.9048,-1.1057,2.8341,-1.0356,-1.0845,-7.7193,-5.8333,-4.8718,2.8341,-1.0356,0.91057,-3.8915,-6.6986,-4.7619,-5.8054,-7.8205,-5.8054,2.8436,0.0,1.8501
-0.06319,-5.7143,-3.0569,3.8003,-0.06472,3.7002,-6.7624,-10.641,-4.8718,3.8003,-0.06472,-2.0163,-1.0207,-7.6555,-1.9048,-5.8054,-6.859,4.7209,3.7915,2.8986,-0.0638
-7.6461,-3.8095,-8.9106,6.6989,2.8479,0.82935,-3.8915,3.7821,-2.9487,6.6989,2.8479,-3.9675,-4.8485,-11.483,-3.8095,-8.6762,-8.7821,7.5917,1.8957,1.9324,-3.8915
0.88468,-2.8571,-11.837,6.6989,2.8479,2.7432,-1.9777,10.513,-1.9872,6.6989,2.8479,-2.9919,-8.6762,-14.354,-7.619,-12.504,-12.628,-1.9777,-0.94787,0.0,-5.8054
3.7283,-5.7143,-7.935,6.6989,3.8188,7.5279,-1.9777,7.6282,-2.9487,6.6989,3.8188,-1.0407,-8.6762,-12.44,-6.6667,-13.461,-12.628,4.7209,0.94787,-2.8986,-4.8485
1.8325,-4.7619,-1.1057,6.6989,8.6731,0.82935,-1.9777,4.7436,0.89744,6.6989,8.6731,-0.06504,-8.6762,-9.5694,-1.9048,-9.6332,-7.8205,5.6778,2.8436,-3.8647,-3.8915
-2.9068,0.95238,1.8211,8.6312,9.644,-1.0845,3.764,6.6667,4.7436,8.6312,9.644,3.8374,-8.6762,-7.6555,-3.8095,-5.8054,-4.9359,5.6778,4.7393,-6.7633,0.89314
3.7283,9.5238,7.6748,13.462,14.498,8.4848,11.419,7.6282,9.5513,13.462,14.498,12.618,-7.7193,-7.6555,-2.8571,0.89314,-1.0897,2.807,6.6351,-8.6957,0.89314
16.051001,18.094999,16.455,17.327,21.294001,15.183,18.118,6.6667,14.359,17.327,21.294001,18.472,-6.7624,-5.7416,0.95238,5.6778,1.7949,-8.6762,6.6351,-9.6618,-0.0638
16.051001,17.143,18.407,15.395,20.323999,18.054001,17.160999,6.6667,15.321,15.395,20.323999,19.447001,-5.8054,-4.7847,1.9048,4.7209,1.7949,-1.9777,7.5829,-9.6618,0.89314
10.363,8.5714,11.577,15.395,21.294001,13.27,9.5056,7.6282,11.474,15.395,21.294001,12.618,-4.8485,-2.8708,0.95238,3.764,1.7949,-1.0207,7.5829,-10.628,0.89314
8.4676,11.429,13.528,12.496,18.382,15.183,8.5486,4.7436,8.5897,12.496,18.382,11.642,-1.0207,2.8708,2.8571,11.419,8.5256,2.807,9.4787,-9.6618,4.7209
16.997999,19.048,19.382,13.462,17.410999,18.054001,15.247,0.89744,12.436,13.462,17.410999,14.569,3.764,7.6555,8.5714,19.075001,15.256,-2.9346,15.166,-6.7633,9.5056
19.841999,20.952,22.309,19.259001,23.236,26.667,20.989,-1.0256,16.282,19.259001,23.236,20.423,9.5056,12.44,12.381,20.032,18.141001,-1.0207,13.27,-2.8986,13.333
7.5197,16.190001,16.455,15.395,22.264999,13.27,20.032,7.6282,10.513,15.395,22.264999,16.52,6.6348,8.6124,10.476,14.29,15.256,1.8501,7.5829,-3.8647,9.5056
3.7283,15.238,15.48,11.53,18.382,1.7863,18.118,5.7051,11.474,11.53,18.382,13.593,5.6778,7.6555,10.476,15.247,17.179001,-2.9346,6.6351,0.0,8.5486
4.6761,19.048,19.382,11.53,19.353001,2.7432,17.160999,-2.9487,10.513,11.53,19.353001,14.569,7.5917,9.5694,8.5714,19.075001,18.141001,-5.8054,7.5829,-1.9324,12.376
8.4676,16.190001,19.382,11.53,17.410999,4.6571,12.376,-1.0256,5.7051,11.53,17.410999,12.618,7.5917,10.526,7.619,19.075001,18.141001,-15.375,6.6351,-2.8986,12.376
3.7283,8.5714,13.528,8.6312,12.557,5.614,9.5056,-1.9872,2.8205,8.6312,12.557,8.7154,6.6348,12.44,6.6667,16.204,16.218,-6.7624,6.6351,-0.96618,12.376
9.4155,3.8095,7.6748,5.7327,11.586,2.7432,10.463,-4.8718,3.7821,5.7327,11.586,6.7642,1.8501,8.6124,2.8571,11.419,9.4872,-4.8485,3.7915,-3.8647,7.5917
2.7804,9.5238,9.626,11.53,17.410999,6.571,13.333,-0.0641,6.6667,11.53,17.410999,11.642,-0.0638,4.7847,0.95238,9.5056,3.7179,-2.9346,3.7915,-1.9324,5.6778
6.5719,13.333,14.504,14.428,19.353001,13.27,16.204,2.8205,6.6667,14.428,19.353001,16.52,-0.0638,1.9139,0.95238,10.463,5.641,-1.0207,4.7393,-0.96618,4.7209
4.6761,10.476,12.553,13.462,14.498,14.226,13.333,4.7436,3.7821,13.462,14.498,13.593,-0.0638,0.95694,0.0,10.463,5.641,3.764,2.8436,0.96618,2.807
-0.06319,10.476,9.626,14.428,12.557,8.4848,11.419,7.6282,4.7436,14.428,12.557,8.7154,3.764,3.8278,1.9048,10.463,6.6026,5.6778,1.8957,4.8309,6.6348
1.8325,9.5238,5.7236,8.6312,11.586,2.7432,8.5486,12.436,0.89744,8.6312,11.586,5.7886,3.764,2.8708,3.8095,8.5486,4.6795,4.7209,0.0,5.7971,5.6778
8.4676,7.619,4.748,9.5974,11.586,2.7432,7.5917,12.436,1.859,9.5974,11.586,6.7642,0.89314,-1.9139,5.7143,2.807,0.83333,-1.9777,0.94787,5.7971,3.764
8.4676,6.6667,2.7967,13.462,11.586,0.82935,6.6348,12.436,2.8205,13.462,11.586,5.7886,-2.9346,-4.7847,3.8095,-1.0207,-1.0897,5.6778,-0.94787,5.7971,-0.0638
4.6761,-2.8571,-2.0813,5.7327,6.7314,1.7863,0.89314,8.5897,-0.0641,5.7327,6.7314,0.91057,-9.6332,-9.5694,0.0,-4.8485,-4.9359,9.5056,-2.8436,3.8647,-4.8485
2.7804,-5.7143,-4.0325,4.7665,7.7023,-1.0845,-2.9346,4.7436,-0.0641,4.7665,7.7023,-4.9431,-9.6332,-10.526,0.0,-3.8915,-6.859,5.6778,-5.6872,4.8309,-4.8485
9.4155,0.0,0.84553,5.7327,9.644,-0.12759,-4.8485,6.6667,1.859,5.7327,9.644,-2.0163,-11.547,-9.5694,2.8571,-0.0638,-4.9359,-1.9777,-3.7915,2.8986,-2.9346
19.841999,1.9048,4.748,7.6651,5.7605,9.4418,-3.8915,1.859,3.7821,7.6651,5.7605,1.8862,-11.547,-8.6124,1.9048,-1.0207,-3.9744,0.89314,0.0,0.96618,-1.9777
2.7804,-1.9048,0.84553,7.6651,3.8188,4.6571,-3.8915,11.474,-0.0641,7.6651,3.8188,-0.06504,-7.7193,-5.7416,-1.9048,-2.9346,-4.9359,11.419,-1.8957,0.96618,-1.9777
-7.6461,-4.7619,-5.0081,3.8003,-0.06472,-4.9123,-8.6762,14.359,-4.8718,3.8003,-0.06472,-5.9187,-6.7624,-2.8708,-2.8571,-3.8915,-5.8974,12.376,-2.8436,-2.8986,-3.8915
0.88468,-3.8095,-2.0813,1.868,1.877,0.82935,-7.7193,8.5897,-3.9103,1.868,1.877,-2.9919,-1.0207,1.9139,1.9048,-1.9777,-1.0897,1.8501,-4.7393,0.0,-0.0638
3.7283,-1.9048,-1.1057,3.8003,2.8479,4.6571,-3.8915,6.6667,-1.9872,3.8003,2.8479,-0.06504,3.764,4.7847,2.8571,-1.9777,-0.12821,4.7209,-6.6351,2.8986,-1.0207
1.8325,-1.9048,-3.0569,4.7665,1.877,-2.9984,-1.0207,4.7436,1.859,4.7665,1.877,-2.0163,5.6778,6.6986,0.0,-2.9346,-0.12821,6.6348,-5.6872,0.96618,-1.9777
-3.8547,-0.95238,-6.9593,1.868,0.90615,-5.8692,-0.0638,3.7821,3.7821,1.868,0.90615,-3.9675,1.8501,2.8708,-3.8095,-4.8485,-3.0128,3.764,-7.5829,0.0,-3.8915
-1.0111,-4.7619,-6.9593,-0.06441,1.877,-1.0845,-1.9777,-1.0256,-0.0641,-0.06441,1.877,-2.9919,-2.9346,-0.95694,-3.8095,-7.7193,-5.8974,-1.0207,-8.5308,0.96618,-6.7624
-3.8547,-8.5714,-6.9593,-0.06441,-0.06472,-1.0845,-4.8485,1.859,-1.0256,-0.06441,-0.06472,-3.9675,-5.8054,-4.7847,-4.7619,-9.6332,-8.7821,-0.0638,-7.5829,0.0,-8.6762
3.7283,-8.5714,-7.935,-4.8953,-2.0065,-4.9123,-5.8054,-1.0256,-0.0641,-4.8953,-2.0065,-3.9675,-2.9346,-6.6986,-1.9048,-10.59,-7.8205,-2.9346,-6.6351,0.0,-8.6762
-8.594,-7.619,-13.789,-4.8953,-2.9773,-9.697,-2.9346,0.89744,-0.0641,-4.8953,-2.9773,-7.8699,-1.9777,-7.6555,-4.7619,-12.504,-10.705,4.7209,-7.5829,-0.96618,-8.6762
-22.812,-10.476,-15.74,-6.8277,-4.9191,-13.525,-4.8485,5.7051,-3.9103,-6.8277,-4.9191,-11.772,-3.8915,-10.526,-8.5714,-12.504,-13.59,4.7209,-7.5829,-0.96618,-12.504
-18.073,-10.476,-12.813,-3.9291,-4.9191,-11.611,-7.7193,3.7821,-8.7179,-3.9291,-4.9191,-10.797,-4.8485,-9.5694,-6.6667,-9.6332,-10.705,5.6778,-10.427,-0.96618,-12.504
-14.281,-11.429,-11.837,-2.963,-6.8608,-12.568,-8.6762,0.89744,-10.641,-2.963,-6.8608,-9.8211,-5.8054,-5.7416,-4.7619,-7.7193,-7.8205,-0.0638,-10.427,-1.9324,-8.6762
-11.438,-11.429,-13.789,-6.8277,-5.89,-14.482,-9.6332,-4.8718,-7.7564,-6.8277,-5.89,-10.797,-7.7193,-4.7847,-5.7143,-6.7624,-7.8205,2.807,-9.4787,-3.8647,-5.8054
-8.594,-9.5238,-9.8862,-5.8615,-4.9191,-12.568,-7.7193,-4.8718,-7.7564,-5.8615,-4.9191,-8.8455,-5.8054,-1.9139,-3.8095,-5.8054,-4.9359,2.807,-6.6351,-0.96618,-4.8485
-1.0111,-7.619,-0.13008,-3.9291,-0.06472,-5.8692,-3.8915,-4.8718,-6.7949,-3.9291,-0.06472,-2.0163,-3.8915,-2.8708,-2.8571,-7.7193,-3.0128,-1.9777,-4.7393,-1.9324,-5.8054
-0.06319,-10.476,2.7967,-4.8953,-3.9482,-4.9123,-3.8915,-3.9103,-6.7949,-4.8953,-3.9482,-2.0163,-2.9346,-8.6124,-1.9048,-11.547,-4.9359,-0.0638,-7.5829,-1.9324,-11.547
-0.06319,-11.429,-2.0813,-9.7262,-8.8026,-6.8262,-7.7193,-9.6795,-10.641,-9.7262,-8.8026,-6.8943,-1.0207,-9.5694,-1.9048,-14.418,-5.8974,-1.9777,-10.427,0.96618,-13.461
-8.594,-11.429,-8.9106,-15.523,-11.715,-14.482,-15.375,-8.7179,-12.564,-15.523,-11.715,-13.724,-0.0638,-9.5694,-3.8095,-13.461,-6.859,-1.0207,-11.374,1.9324,-12.504
-20.916,-12.381,-10.862,-15.523,-15.599,-19.266001,-16.332001,-1.9872,-14.487,-15.523,-15.599,-15.675,0.89314,-8.6124,-7.619,-12.504,-8.7821,2.807,-11.374,1.9324,-12.504
-11.438,-6.6667,-4.0325,-7.7939,-7.8317,-11.611,-7.7193,-1.0256,-12.564,-7.7939,-7.8317,-8.8455,4.7209,-2.8708,-5.7143,-6.7624,-4.9359,-3.8915,-9.4787,1.9324,-8.6762
-9.5419,-7.619,-4.0325,-6.8277,-4.9191,-8.74,-5.8054,0.89744,-9.6795,-6.8277,-4.9191,-5.9187,3.764,-2.8708,-5.7143,-6.7624,-3.9744,-7.7193,-10.427,1.9324,-8.6762
-8.594,-13.333,-8.9106,-7.7939,-9.7735,-8.74,-8.6762,-1.0256,-12.564,-7.7939,-9.7735,-8.8455,3.764,-1.9139,-3.8095,-9.6332,-6.859,-1.0207,-10.427,2.8986,-8.6762
-7.6461,-13.333,-9.8862,-8.7601,-7.8317,-10.654,-10.59,-2.9487,-12.564,-8.7601,-7.8317,-9.8211,6.6348,0.95694,-4.7619,-10.59,-8.7821,7.5917,-12.322,3.8647,-5.8054
-4.8025,-12.381,-9.8862,-7.7939,-8.8026,-8.74,-11.547,-2.9487,-10.641,-7.7939,-8.8026,-10.797,-0.0638,-4.7847,-6.6667,-15.375,-11.667,3.764,-12.322,-0.96618,-7.7193
-3.8547,-11.429,-9.8862,-2.963,-3.9482,0.82935,-5.8054,-0.0641,-3.9103,-2.963,-3.9482,-7.8699,-5.8054,-6.6986,-7.619,-13.461,-10.705,-0.0638,-5.6872,-2.8986,-4.8485
-2.9068,-4.7619,-7.935,-0.06441,-0.06472,0.82935,0.89314,2.8205,-0.0641,-0.06441,-0.06472,-4.9431,-8.6762,-8.6124,-6.6667,-9.6332,-9.7436,-5.8054,-3.7915,-2.8986,-4.8485
-1.9589,0.95238,-3.0569,0.90177,0.90615,-2.9984,4.7209,6.6667,-0.0641,0.90177,0.90615,-1.0407,-12.504,-10.526,-5.7143,-4.8485,-6.859,-2.9346,-3.7915,-4.8309,-5.8054
-1.9589,0.95238,2.7967,3.8003,4.7896,3.7002,7.5917,7.6282,0.89744,3.8003,4.7896,5.7886,-5.8054,-3.8278,-0.95238,-0.0638,-0.12821,0.89314,-1.8957,-1.9324,-1.9777
-1.0111,0.0,1.8211,4.7665,3.8188,11.356,2.807,2.8205,2.8205,4.7665,3.8188,7.7398,-1.0207,0.0,0.95238,0.89314,2.7564,-7.7193,1.8957,-0.96618,-0.0638
-3.8547,0.95238,-4.0325,3.8003,1.877,5.614,0.89314,1.859,0.89744,3.8003,1.877,4.813,-1.0207,1.9139,-0.95238,2.807,2.7564,-1.0207,3.7915,-1.9324,2.807
-3.8547,1.9048,-5.0081,1.868,-1.0356,-1.0845,1.8501,-0.0641,-0.0641,1.868,-1.0356,2.8618,-0.0638,4.7847,-2.8571,4.7209,3.7179,-4.8485,3.7915,-1.9324,3.764
-6.6983,5.7143,-3.0569,-2.963,-2.0065,-1.0845,0.89314,-1.0256,-2.9487,-2.963,-2.0065,1.8862,-1.0207,5.7416,-3.8095,3.764,2.7564,-5.8054,0.0,-5.7971,4.7209
-4.8025,0.0,-3.0569,-1.0306,0.90615,-0.12759,1.8501,1.859,-1.0256,-1.0306,0.90615,2.8618,-1.9777,0.95694,-4.7619,-1.9777,-2.0513,0.89314,0.0,-5.7971,-0.0638
6.5719,-0.95238,-0.13008,2.8341,1.877,7.5279,6.6348,-1.0256,3.7821,2.8341,1.877,5.7886,2.807,0.95694,2.8571,-0.0638,-0.12821,-3.8915,2.8436,1.9324,0.89314
2.7804,2.8571,-0.13008,0.90177,-0.06472,3.7002,5.6778,-0.0641,5.7051,0.90177,-0.06472,3.8374,4.7209,2.8708,4.7619,3.764,2.7564,-3.8915,3.7915,2.8986,2.807
-6.6983,3.8095,-1.1057,-5.8615,-5.89,-3.9553,2.807,-2.9487,1.859,-5.8615,-5.89,-0.06504,1.8501,2.8708,0.0,3.764,1.7949,4.7209,4.7393,1.9324,3.764
-4.8025,4.7619,-3.0569,-6.8277,-4.9191,-4.9123,0.89314,-4.8718,0.89744,-6.8277,-4.9191,-2.0163,-0.0638,-1.9139,-1.9048,-1.9777,-3.9744,-1.0207,2.8436,0.96618,1.8501
1.8325,-1.9048,-5.9837,-1.0306,-1.0356,-0.12759,-1.0207,-4.8718,0.89744,-1.0306,-1.0356,-1.0407,-2.9346,-5.7416,-0.95238,-8.6762,-8.7821,-1.9777,2.8436,1.9324,-3.8915
-9.5419,-9.5238,-9.8862,-1.0306,-3.9482,-2.9984,-7.7193,-1.9872,-1.0256,-1.0306,-3.9482,-5.9187,-5.8054,-8.6124,-4.7619,-11.547,-11.667,3.764,0.0,0.0,-6.7624
-6.6983,-7.619,-7.935,-6.8277,-7.8317,-2.9984,-10.59,-2.9487,-1.0256,-6.8277,-7.8317,-5.9187,-6.7624,-8.6124,-5.7143,-7.7193,-9.7436,-1.0207,0.94787,-0.96618,-3.8915
-0.06319,0.95238,-2.0813,-7.7939,-7.8317,-4.9123,-1.9777,-6.7949,2.8205,-7.7939,-7.8317,-3.9675,-9.6332,-9.5694,-3.8095,-5.8054,-6.859,-3.8915,5.6872,-3.8647,-3.8915
2.7804,0.0,0.84553,-2.963,-2.9773,1.7863,4.7209,-4.8718,3.7821,-2.963,-2.9773,1.8862,-9.6332,-6.6986,-2.8571,-3.8915,-3.9744,0.89314,5.6872,-4.8309,-1.9777
16.051001,0.0,3.7724,0.90177,0.90615,8.4848,7.5917,-8.7179,5.7051,0.90177,0.90615,6.7642,-3.8915,-1.9139,2.8571,-1.9777,-0.12821,-3.8915,5.6872,-0.96618,0.89314
6.5719,0.95238,1.8211,-2.963,-2.0065,0.82935,3.764,-4.8718,2.8205,-2.963,-2.0065,1.8862,-0.0638,0.95694,6.6667,-1.0207,2.7564,-6.7624,2.8436,0.96618,0.89314
-11.438,-2.8571,-5.0081,-6.8277,-5.89,-6.8262,-1.0207,4.7436,0.89744,-6.8277,-5.89,-2.9919,-1.9777,1.9139,-1.9048,-1.9777,0.83333,2.807,0.0,-4.8309,-0.0638
1.8325,-2.8571,-3.0569,-7.7939,-5.89,-2.9984,-0.0638,-2.9487,0.89744,-7.7939,-5.89,-2.0163,-2.9346,0.0,-1.9048,-1.0207,-0.12821,4.7209,0.94787,-4.8309,0.89314
-0.06319,-2.8571,-3.0569,-7.7939,-6.8608,-1.0845,-1.0207,-1.9872,-0.0641,-7.7939,-6.8608,-2.9919,-1.9777,-3.8278,1.9048,-1.0207,-0.12821,-1.9777,2.8436,-0.96618,-0.0638
-3.8547,1.9048,-0.13008,-6.8277,-9.7735,-1.0845,-1.0207,-1.9872,-1.9872,-6.8277,-9.7735,-2.9919,-1.9777,-4.7847,1.9048,-1.0207,-0.12821,7.5917,0.94787,0.96618,1.8501
0.88468,0.95238,-0.13008,-9.7262,-9.7735,-3.9553,-6.7624,-3.9103,-3.9103,-9.7262,-9.7735,-3.9675,-1.0207,-5.7416,2.8571,-1.9777,-0.12821,4.7209,3.7915,2.8986,-0.0638
-1.9589,-3.8095,-1.1057,-10.692,-12.686,-8.74,-7.7193,-6.7949,-6.7949,-10.692,-12.686,-5.9187,3.764,-2.8708,6.6667,0.89314,2.7564,3.764,1.8957,7.7295,-0.0638
0.88468,-7.619,-3.0569,-8.7601,-9.7735,-8.74,-5.8054,-7.7564,-5.8333,-8.7601,-9.7735,-6.8943,7.5917,-0.95694,8.5714,1.8501,3.7179,6.6348,-0.94787,10.628,2.807
3.7283,-10.476,-5.9837,-10.692,-10.744,-7.7831,-8.6762,-6.7949,-5.8333,-10.692,-10.744,-8.8455,8.5486,-0.95694,7.619,-0.0638,1.7949,-1.9777,0.0,10.628,1.8501
-1.0111,-4.7619,-5.0081,-11.659,-10.744,-4.9123,-7.7193,-7.7564,-6.7949,-11.659,-10.744,-6.8943,9.5056,0.95694,3.8095,1.8501,0.83333,0.89314,0.0,9.6618,2.807
-1.0111,0.0,0.84553,-7.7939,-7.8317,-4.9123,-3.8915,-4.8718,-4.8718,-7.7939,-7.8317,-2.9919,9.5056,2.8708,3.8095,5.6778,2.7564,-0.0638,1.8957,9.6618,4.7209
-0.06319,2.8571,3.7724,-6.8277,-4.9191,-5.8692,-1.9777,-6.7949,-1.9872,-6.8277,-4.9191,-2.9919,6.6348,2.8708,4.7619,8.5486,5.641,-8.6762,1.8957,6.7633,5.6778
4.6761,3.8095,4.748,-7.7939,-7.8317,-5.8692,-0.0638,-12.564,1.859,-7.7939,-7.8317,-2.0163,5.6778,2.8708,5.7143,9.5056,6.6026,-6.7624,5.6872,1.9324,6.6348
-2.9068,6.6667,1.8211,-4.8953,-4.9191,-3.9553,2.807,-11.603,5.7051,-4.8953,-4.9191,0.91057,6.6348,2.8708,0.95238,9.5056,4.6795,3.764,7.5829,3.8647,6.6348
-10.49,10.476,3.7724,-3.9291,-1.0356,-6.8262,2.807,-9.6795,4.7436,-3.9291,-1.0356,1.8862,4.7209,4.7847,-0.95238,11.419,3.7179,1.8501,5.6872,0.96618,7.5917
-6.6983,13.333,4.748,-7.7939,-1.0356,-10.654,5.6778,-13.526,5.7051,-7.7939,-1.0356,3.8374,4.7209,7.6555,-1.9048,12.376,4.6795,-4.8485,6.6351,-0.96618,9.5056
-12.385,2.8571,-6.9593,-5.8615,2.8479,-9.697,5.6778,-13.526,10.513,-5.8615,2.8479,-1.0407,-1.9777,5.7416,-9.5238,5.6778,-2.0513,-11.547,8.5308,-6.7633,8.5486
-9.5419,-2.8571,-10.862,-5.8615,0.90615,-4.9123,1.8501,-18.333,12.436,-5.8615,0.90615,-4.9431,-1.9777,3.8278,-9.5238,1.8501,-4.9359,-23.030001,11.374,-7.7295,8.5486
-7.6461,2.8571,-7.935,-7.7939,1.877,-8.74,1.8501,-15.449,13.397,-7.7939,1.877,-4.9431,-0.0638,6.6986,-6.6667,5.6778,-1.0897,-16.332001,10.427,-5.7971,11.419
-10.49,0.95238,-5.9837,-3.9291,5.7605,-9.697,3.764,-12.564,14.359,-3.9291,5.7605,-3.9675,-1.9777,7.6555,-5.7143,5.6778,-0.12821,-14.418,9.4787,-6.7633,10.463
-8.594,0.0,-5.0081,-0.06441,8.6731,-4.9123,6.6348,-13.526,15.321,-0.06441,8.6731,-2.0163,0.89314,7.6555,-5.7143,3.764,-0.12821,-7.7193,8.5308,-5.7971,8.5486
-4.8025,0.0,-3.0569,3.8003,10.615,-2.9984,6.6348,-11.603,17.243999,3.8003,10.615,-0.06504,0.89314,6.6986,-3.8095,1.8501,0.83333,-6.7624,6.6351,-6.7633,7.5917
-8.594,0.95238,-0.13008,7.6651,14.498,1.7863,6.6348,-9.6795,20.128,7.6651,14.498,2.8618,-2.9346,5.7416,-2.8571,0.89314,0.83333,-11.547,6.6351,-6.7633,7.5917
-2.9068,7.619,2.7967,4.7665,12.557,0.82935,5.6778,-12.564,20.128,4.7665,12.557,3.8374,-5.8054,5.7416,0.0,1.8501,1.7949,-8.6762,7.5829,-3.8647,7.5917
3.7283,4.7619,4.748,0.90177,12.557,1.7863,10.463,-8.7179,19.167,0.90177,12.557,6.7642,-6.7624,5.7416,-0.95238,0.89314,0.83333,-2.9346,7.5829,-7.7295,4.7209
8.4676,2.8571,5.7236,7.6651,18.382,14.226,19.075001,-1.9872,23.974001,7.6651,18.382,13.593,-5.8054,5.7416,-1.9048,-1.0207,-0.12821,-4.8485,6.6351,-7.7295,1.8501
5.624,5.7143,4.748,10.564,16.440001,10.399,19.075001,3.7821,24.936001,10.564,16.440001,12.618,-4.8485,6.6986,-0.95238,0.89314,-2.0513,-4.8485,5.6872,-2.8986,2.807
-1.9589,8.5714,5.7236,7.6651,14.498,0.82935,17.160999,-2.9487,24.936001,7.6651,14.498,6.7642,-4.8485,5.7416,0.0,5.6778,0.83333,-3.8915,7.5829,-0.96618,4.7209
7.5197,13.333,10.602,-0.06441,12.557,-0.12759,15.247,-15.449,26.858999,-0.06441,12.557,4.813,1.8501,8.6124,7.619,13.333,9.4872,0.89314,9.4787,3.8647,8.5486
9.4155,12.381,6.6992,-3.9291,6.7314,-3.9553,13.333,-12.564,23.974001,-3.9291,6.7314,0.91057,3.764,8.6124,7.619,13.333,11.41,3.764,11.374,2.8986,8.5486
3.7283,7.619,5.7236,-1.0306,5.7605,1.7863,10.463,-5.8333,19.167,-1.0306,5.7605,1.8862,3.764,7.6555,5.7143,11.419,9.4872,2.807,10.427,3.8647,7.5917
2.7804,7.619,7.6748,2.8341,7.7023,5.614,9.5056,-2.9487,18.205,2.8341,7.7023,3.8374,5.6778,10.526,6.6667,13.333,9.4872,2.807,11.374,4.8309,10.463
4.6761,10.476,6.6992,-1.9968,3.8188,3.7002,4.7209,-5.8333,14.359,-1.9968,3.8188,1.8862,7.5917,11.483,7.619,13.333,10.449,2.807,8.5308,6.7633,11.419
14.155,10.476,6.6992,-2.963,3.8188,7.5279,1.8501,-4.8718,11.474,-2.963,3.8188,2.8618,9.5056,8.6124,10.476,11.419,9.4872,-4.8485,7.5829,9.6618,11.419
11.311,6.6667,8.6504,1.868,1.877,7.5279,5.6778,-1.9872,11.474,1.868,1.877,4.813,3.764,1.9139,8.5714,8.5486,5.641,1.8501,6.6351,6.7633,7.5917
10.363,5.7143,9.626,-1.0306,-2.0065,4.6571,7.5917,-5.8333,10.513,-1.0306,-2.0065,5.7886,-0.0638,-1.9139,3.8095,4.7209,2.7564,1.8501,4.7393,3.8647,3.764
3.7283,5.7143,7.6748,-2.963,-2.0065,-1.0845,5.6778,-3.9103,7.6282,-2.963,-2.0065,3.8374,6.6348,2.8708,5.7143,5.6778,4.6795,4.7209,2.8436,8.6957,5.6778
-1.0111,3.8095,4.748,-4.8953,-3.9482,-3.9553,0.89314,-2.9487,2.8205,-4.8953,-3.9482,0.91057,9.5056,4.7847,6.6667,7.5917,6.6026,5.6778,4.7393,5.7971,4.7209
2.7804,6.6667,4.748,-2.963,-3.9482,1.7863,0.89314,-4.8718,2.8205,-2.963,-3.9482,1.8862,7.5917,5.7416,5.7143,10.463,7.5641,5.6778,2.8436,2.8986,6.6348
5.624,6.6667,3.7724,-4.8953,-0.06472,2.7432,1.8501,-1.9872,3.7821,-4.8953,-0.06472,2.8618,5.6778,6.6986,6.6667,9.5056,5.641,3.764,0.0,4.8309,8.5486
-1.9589,0.95238,-2.0813,-3.9291,-5.89,0.82935,-0.0638,-3.9103,-0.0641,-3.9291,-5.89,0.91057,4.7209,6.6986,3.8095,4.7209,2.7564,6.6348,0.0,6.7633,7.5917
-8.594,-1.9048,-6.9593,-2.963,-7.8317,-2.9984,-6.7624,-2.9487,-4.8718,-2.963,-7.8317,-2.0163,3.764,6.6986,0.95238,0.89314,1.7949,0.89314,-1.8957,5.7971,3.764
-1.9589,-2.8571,-4.0325,-3.9291,-7.8317,-1.0845,-5.8054,0.89744,-4.8718,-3.9291,-7.8317,-3.9675,6.6348,7.6555,1.9048,3.764,5.641,-1.9777,-4.7393,3.8647,2.807
5.624,-1.9048,1.8211,-2.963,-4.9191,3.7002,-1.0207,1.859,-1.9872,-2.963,-4.9191,-0.06504,6.6348,8.6124,1.9048,5.6778,6.6026,3.764,-1.8957,3.8647,2.807
7.5197,-1.9048,-1.1057,-2.963,-5.89,1.7863,-2.9346,-1.9872,-1.9872,-2.963,-5.89,-1.0407,1.8501,4.7847,-2.8571,1.8501,1.7949,3.764,-2.8436,-0.96618,0.89314
-7.6461,-4.7619,-5.9837,-6.8277,-9.7735,-6.8262,-6.7624,-2.9487,-2.9487,-6.8277,-9.7735,-6.8943,-0.0638,5.7416,-2.8571,-1.0207,1.7949,-4.8485,-2.8436,-0.96618,0.89314
-16.177,-5.7143,-6.9593,-11.659,-13.657,-12.568,-9.6332,3.7821,-6.7949,-11.659,-13.657,-10.797,-1.0207,7.6555,-4.7619,-0.0638,3.7179,2.807,-5.6872,-2.8986,-1.0207
-5.7504,-2.8571,0.84553,-5.8615,-6.8608,-4.9123,-5.8054,6.6667,-4.8718,-5.8615,-6.8608,-2.9919,-1.0207,4.7847,-4.7619,-0.0638,3.7179,9.5056,-5.6872,-1.9324,-3.8915
2.7804,0.0,7.6748,-1.0306,-3.9482,1.7863,-1.0207,6.6667,-1.9872,-1.0306,-3.9482,4.813,-4.8485,-1.9139,-2.8571,-1.9777,2.7564,1.8501,-1.8957,-1.9324,-5.8054
13.207,1.9048,10.602,-0.06441,-3.9482,4.6571,0.89314,4.7436,-0.0641,-0.06441,-3.9482,4.813,-4.8485,-4.7847,0.95238,-0.0638,3.7179,0.89314,-1.8957,-1.9324,-5.8054
6.5719,7.619,10.602,-0.06441,1.877,7.5279,1.8501,3.7821,0.89744,-0.06441,1.877,5.7886,-0.0638,-1.9139,4.7619,3.764,5.641,5.6778,-2.8436,2.8986,-1.9777
-1.0111,6.6667,3.7724,-4.8953,-2.0065,2.7432,2.807,3.7821,1.859,-4.8953,-2.0065,3.8374,-0.0638,-2.8708,0.95238,1.8501,0.83333,3.764,-2.8436,-2.8986,-2.9346
2.7804,0.95238,2.7967,-7.7939,-2.0065,2.7432,5.6778,-1.9872,2.8205,-7.7939,-2.0065,3.8374,-1.9777,-2.8708,-2.8571,-1.9777,-2.0513,-0.0638,0.0,-6.7633,-3.8915
7.5197,-0.95238,5.7236,-3.9291,-5.89,1.7863,3.764,-0.0641,-0.0641,-3.9291,-5.89,3.8374,-0.0638,0.0,2.8571,-0.0638,1.7949,-4.8485,3.7915,-1.9324,-2.9346
3.7283,0.95238,3.7724,-1.9968,-4.9191,-3.9553,1.8501,4.7436,-1.0256,-1.9968,-4.9191,1.8862,6.6348,2.8708,5.7143,0.89314,4.6795,4.7209,1.8957,1.9324,-1.0207
-2.9068,1.9048,-0.13008,-0.06441,-0.06472,-1.0845,3.764,7.6282,2.8205,-0.06441,-0.06472,0.91057,9.5056,0.95694,3.8095,0.89314,1.7949,6.6348,0.94787,3.8647,-1.9777
-4.8025,0.0,-3.0569,0.90177,-2.0065,0.82935,1.8501,9.5513,-0.0641,0.90177,-2.0065,-0.06504,7.5917,-0.95694,0.95238,-1.9777,-2.0513,-1.0207,-1.8957,0.96618,-3.8915
-2.9068,-1.9048,-0.13008,0.90177,-2.9773,0.82935,0.89314,8.5897,-2.9487,0.90177,-2.9773,0.91057,8.5486,-1.9139,-0.95238,-4.8485,-3.9744,6.6348,-3.7915,2.8986,-5.8054
11.311,-1.9048,1.8211,0.90177,-2.0065,3.7002,1.8501,4.7436,-2.9487,0.90177,-2.0065,2.8618,7.5917,-2.8708,0.95238,-4.8485,-3.0128,2.807,-3.7915,3.8647,-4.8485
3.7283,0.0,0.84553,-1.0306,-2.0065,3.7002,1.8501,2.8205,-2.9487,-1.0306,-2.0065,1.8862,10.463,-3.8278,4.7619,-1.9777,0.83333,3.764,0.0,4.8309,-4.8485
4.6761,6.6667,2.7967,-2.963,0.90615,8.4848,2.807,-5.8333,-1.9872,-2.963,0.90615,3.8374,11.419,-0.95694,8.5714,3.764,6.6026,3.764,-1.8957,6.7633,-1.9777
6.5719,8.5714,5.7236,0.90177,1.877,6.571,4.7209,1.859,1.859,0.90177,1.877,6.7642,10.463,0.0,9.5238,5.6778,8.5256,2.807,-1.8957,6.7633,0.89314
5.624,2.8571,7.6748,4.7665,0.90615,3.7002,5.6778,8.5897,0.89744,4.7665,0.90615,7.7398,9.5056,0.0,7.619,3.764,7.5641,2.807,0.0,4.8309,0.89314
10.363,0.95238,7.6748,4.7665,0.90615,0.82935,4.7209,6.6667,-3.9103,4.7665,0.90615,6.7642,9.5056,-1.9139,6.6667,2.807,8.5256,-2.9346,-3.7915,3.8647,-2.9346
0.88468,1.9048,2.7967,0.90177,-0.06472,-0.12759,-1.0207,6.6667,-6.7949,0.90177,-0.06472,2.8618,7.5917,-1.9139,2.8571,1.8501,7.5641,4.7209,-6.6351,0.96618,-4.8485
-2.9068,-0.95238,-0.13008,-1.0306,-2.9773,2.7432,-1.9777,4.7436,-6.7949,-1.0306,-2.9773,1.8862,8.5486,-0.95694,1.9048,-0.0638,5.641,3.764,-5.6872,3.8647,-3.8915
8.4676,0.0,3.7724,0.90177,0.90615,5.614,3.764,2.8205,-2.9487,0.90177,0.90615,6.7642,7.5917,-2.8708,2.8571,-4.8485,1.7949,-0.0638,-3.7915,1.9324,-3.8915
10.363,-2.8571,3.7724,-1.9968,-0.06472,3.7002,1.8501,2.8205,-3.9103,-1.9968,-0.06472,4.813,2.807,-5.7416,-0.95238,-8.6762,-3.0128,-0.0638,-4.7393,-3.8647,-4.8485
1.8325,-4.7619,1.8211,-1.9968,-4.9191,4.6571,-3.8915,3.7821,-7.7564,-1.9968,-4.9191,2.8618,-1.0207,-6.6986,-1.9048,-7.7193,-4.9359,-2.9346,-5.6872,-3.8647,-5.8054
-6.6983,-3.8095,-3.0569,-3.9291,-3.9482,1.7863,-5.8054,-1.0256,-6.7949,-3.9291,-3.9482,0.91057,-2.9346,-6.6986,-5.7143,-7.7193,-6.859,-0.0638,-3.7915,-3.8647,-5.8054
-2.9068,-1.9048,-4.0325,-1.9968,-2.9773,-0.12759,-4.8485,4.7436,-6.7949,-1.9968,-2.9773,1.8862,-2.9346,-4.7847,-4.7619,-6.7624,-6.859,10.463,-4.7393,-0.96618,-3.8915
8.4676,-2.8571,1.8211,0.90177,-5.89,3.7002,-0.0638,7.6282,-4.8718,0.90177,-5.89,4.813,-8.6762,-5.7416,-1.9048,-6.7624,-7.8205,11.419,-1.8957,0.0,-1.9777
11.311,0.0,5.7236,1.868,-5.89,9.4418,0.89314,3.7821,-6.7949,1.868,-5.89,6.7642,-12.504,-3.8278,-0.95238,-2.9346,-5.8974,-0.0638,-0.94787,-0.96618,-1.9777
9.4155,1.9048,6.6992,-1.0306,-2.9773,4.6571,-1.0207,9.5513,-8.7179,-1.0306,-2.9773,3.8374,-7.7193,1.9139,2.8571,1.8501,-1.0897,6.6348,-3.7915,1.9324,-1.0207
-1.9589,-1.9048,-0.13008,-7.7939,-8.8026,-5.8692,-5.8054,11.474,-8.7179,-7.7939,-8.8026,-5.9187,-5.8054,2.8708,0.95238,-0.0638,-2.0513,10.463,-3.7915,0.96618,-1.0207
-3.8547,-3.8095,-5.9837,-4.8953,-5.89,-5.8692,-5.8054,6.6667,-6.7949,-4.8953,-5.89,-5.9187,-2.9346,3.8278,-0.95238,-2.9346,-3.9744,7.5917,-2.8436,1.9324,-0.0638
-2.9068,-5.7143,-7.935,-0.06441,-6.8608,-3.9553,-5.8054,4.7436,-6.7949,-0.06441,-6.8608,-5.9187,-2.9346,-0.95694,-2.8571,-7.7193,-6.859,3.764,0.0,1.9324,-4.8485
10.363,-6.6667,-5.0081,-1.0306,-9.7735,-1.0845,-8.6762,4.7436,-9.6795,-1.0306,-9.7735,-5.9187,-1.0207,-1.9139,1.9048,-7.7193,-4.9359,0.89314,-4.7393,3.8647,-5.8054
8.4676,-5.7143,-3.0569,-1.0306,-7.8317,1.7863,-11.547,5.7051,-11.603,-1.0306,-7.8317,-4.9431,-1.0207,-2.8708,2.8571,-6.7624,-3.9744,1.8501,-9.4787,4.8309,-4.8485
-2.9068,-2.8571,-2.0813,0.90177,-6.8608,3.7002,-9.6332,8.5897,-9.6795,0.90177,-6.8608,-2.9919,-3.8915,-1.9139,-0.95238,-5.8054,-3.9744,4.7209,-8.5308,2.8986,-4.8485
2.7804,-2.8571,2.7967,1.868,-4.9191,11.356,-1.9777,4.7436,-3.9103,1.868,-4.9191,0.91057,-2.9346,-0.95694,1.9048,-4.8485,-1.0897,5.6778,-2.8436,0.96618,-4.8485
8.4676,-5.7143,1.8211,-0.06441,-5.89,2.7432,-0.0638,2.8205,-2.9487,-0.06441,-5.89,-1.0407,-5.8054,-3.8278,4.7619,-4.8485,-0.12821,-6.7624,0.94787,-1.9324,-5.8054
4.6761,-1.9048,-0.13008,-0.06441,-3.9482,-2.0415,0.89314,3.7821,-0.0641,-0.06441,-3.9482,-2.0163,-1.0207,-3.8278,3.8095,-1.9777,0.83333,0.89314,0.0,-1.9324,-5.8054
1.8325,2.8571,2.7967,0.90177,-2.9773,-1.0845,0.89314,3.7821,-1.0256,0.90177,-2.9773,0.91057,7.5917,-0.95694,4.7619,2.807,4.6795,12.376,1.8957,2.8986,-0.0638
-1.0111,1.9048,3.7724,-2.963,-3.9482,-1.0845,-2.9346,-0.0641,-3.9103,-2.963,-3.9482,-0.06504,8.5486,-1.9139,6.6667,4.7209,4.6795,8.5486,0.94787,5.7971,-1.9777
1.8325,0.0,3.7724,-1.9968,-8.8026,0.82935,-6.7624,1.859,-9.6795,-1.9968,-8.8026,-1.0407,6.6348,-0.95694,6.6667,5.6778,5.641,4.7209,-2.8436,4.8309,-2.9346
4.6761,0.0,4.748,-2.963,-8.8026,2.7432,-7.7193,1.859,-12.564,-2.963,-8.8026,-1.0407,6.6348,2.8708,7.619,7.5917,6.6026,-3.8915,-2.8436,6.7633,0.89314
7.5197,2.8571,8.6504,-1.0306,-4.9191,2.7432,-2.9346,-1.0256,-9.6795,-1.0306,-4.9191,0.91057,7.5917,7.6555,7.619,9.5056,7.5641,-2.9346,-1.8957,4.8309,4.7209
15.103,2.8571,9.626,-1.0306,-0.06472,3.7002,0.89314,-2.9487,-4.8718,-1.0306,-0.06472,4.813,5.6778,7.6555,2.8571,7.5917,6.6026,-2.9346,0.0,0.0,5.6778
0.88468,5.7143,5.7236,-2.963,-0.06472,-0.12759,-1.9777,-1.9872,-3.9103,-2.963,-0.06472,1.8862,2.807,3.8278,-2.8571,2.807,2.7564,0.89314,-0.94787,-0.96618,4.7209
-9.5419,0.95238,0.84553,-2.963,-2.0065,-0.12759,-2.9346,-2.9487,-4.8718,-2.963,-2.0065,-2.0163,-1.0207,-1.9139,-4.7619,-1.0207,-2.0513,2.807,1.8957,-0.96618,1.8501
-7.6461,-3.8095,-2.0813,-1.9968,-4.9191,-6.8262,-2.9346,-1.9872,-6.7949,-1.9968,-4.9191,-4.9431,-5.8054,-1.9139,-5.7143,-1.0207,-5.8974,-2.9346,0.94787,-2.8986,2.807
-5.7504,-0.95238,-3.0569,-0.06441,0.90615,-6.8262,-1.0207,-1.0256,-2.9487,-0.06441,0.90615,-2.0163,-6.7624,1.9139,-6.6667,0.89314,-5.8974,-10.59,2.8436,-3.8647,6.6348
-4.8025,0.0,-3.0569,-1.0306,0.90615,-1.0845,-0.0638,-4.8718,-3.9103,-1.0306,0.90615,-0.06504,-6.7624,3.8278,-8.5714,1.8501,-6.859,-4.8485,4.7393,-5.7971,8.5486
-1.0111,-2.8571,-5.0081,-1.9968,-2.0065,-2.0415,-2.9346,-2.9487,-7.7564,-1.9968,-2.0065,-1.0407,-6.7624,5.7416,-8.5714,-0.0638,-5.8974,0.89314,0.94787,-4.8309,8.5486
-1.9589,-3.8095,-6.9593,-0.06441,-2.0065,-1.0845,-1.9777,-2.9487,-5.8333,-0.06441,-2.0065,-2.0163,-2.9346,7.6555,-3.8095,-1.0207,-3.0128,-1.9777,0.0,-1.9324,7.5917
-4.8025,-3.8095,-6.9593,-0.06441,-2.0065,-5.8692,-2.9346,-0.0641,-6.7949,-0.06441,-2.0065,-4.9431,-1.0207,7.6555,1.9048,-1.9777,-1.0897,-9.6332,-3.7915,0.0,3.764
-8.594,-2.8571,-8.9106,1.868,2.8479,-3.9553,-1.9777,0.89744,-4.8718,1.868,2.8479,-3.9675,-4.8485,4.7847,-0.95238,-1.0207,-3.0128,-4.8485,-3.7915,-0.96618,3.764
-5.7504,-3.8095,-10.862,3.8003,4.7896,-0.12759,-2.9346,-2.9487,-1.9872,3.8003,4.7896,-2.9919,-9.6332,0.0,-6.6667,-3.8915,-8.7821,-1.0207,-0.94787,-2.8986,1.8501
4.6761,-12.381,-10.862,2.8341,1.877,2.7432,-7.7193,-4.8718,-4.8718,2.8341,1.877,-4.9431,-10.59,-3.8278,-6.6667,-8.6762,-12.628,-2.9346,-1.8957,-2.8986,-1.0207
3.7283,-14.286,-9.8862,1.868,-2.9773,-1.0845,-10.59,-3.9103,-9.6795,1.868,-2.9773,-7.8699,-9.6332,-6.6986,-4.7619,-10.59,-12.628,0.89314,-3.7915,-1.9324,-3.8915
-7.6461,-8.5714,-8.9106,4.7665,0.90615,-4.9123,-6.7624,1.859,-6.7949,4.7665,0.90615,-6.8943,-6.7624,-4.7847,-3.8095,-9.6332,-10.705,-2.9346,-4.7393,-0.96618,-2.9346
-14.281,-7.619,-9.8862,5.7327,4.7896,-5.8692,-3.8915,4.7436,-1.9872,5.7327,4.7896,-5.9187,-5.8054,-2.8708,-7.619,-8.6762,-10.705,-0.0638,-5.6872,-3.8647,-1.9777
-11.438,-6.6667,-10.862,6.6989,7.7023,-4.9123,-1.9777,4.7436,0.89744,6.6989,7.7023,-3.9675,-4.8485,-0.95694,-9.5238,-8.6762,-9.7436,-0.0638,-2.8436,-6.7633,-1.0207
-4.8025,-3.8095,-5.9837,11.53,10.615,-0.12759,-1.9777,4.7436,0.89744,11.53,10.615,-2.0163,-1.0207,-0.95694,-7.619,-7.7193,-6.859,-6.7624,-2.8436,-4.8309,-1.9777
-0.06319,-2.8571,-1.1057,11.53,8.6731,0.82935,-1.0207,2.8205,-1.0256,11.53,8.6731,-1.0407,-1.0207,-3.8278,-4.7619,-6.7624,-4.9359,-2.9346,-4.7393,-2.8986,-4.8485
-2.9068,-0.95238,0.84553,11.53,8.6731,3.7002,0.89314,4.7436,-0.0641,11.53,8.6731,-1.0407,-1.9777,-4.7847,-2.8571,-2.9346,-4.9359,1.8501,-1.8957,-1.9324,-3.8915
-4.8025,-1.9048,-0.13008,14.428,8.6731,4.6571,-1.0207,5.7051,0.89744,14.428,8.6731,-1.0407,-1.9777,-1.9139,-5.7143,-0.0638,-3.9744,4.7209,0.94787,-1.9324,-1.0207
0.88468,-1.9048,-1.1057,16.361,8.6731,4.6571,-2.9346,-0.0641,0.89744,16.361,8.6731,-2.9919,-0.0638,0.0,-5.7143,-0.0638,-2.0513,-1.0207,0.94787,-3.8647,-1.0207
3.7283,-0.95238,-0.13008,15.395,8.6731,-1.0845,-2.9346,5.7051,1.859,15.395,8.6731,-2.9919,3.764,1.9139,-1.9048,3.764,1.7949,-1.0207,1.8957,-2.8986,2.807
-9.5419,-3.8095,-2.0813,11.53,6.7314,-5.8692,-3.8915,8.5897,1.859,11.53,6.7314,-4.9431,1.8501,0.0,-4.7619,2.807,-1.0897,-8.6762,0.0,-0.96618,2.807
-12.385,-7.619,-5.0081,6.6989,4.7896,-3.9553,-5.8054,3.7821,-1.0256,6.6989,4.7896,-7.8699,0.89314,-1.9139,-6.6667,-0.0638,-4.9359,-2.9346,1.8957,-1.9324,1.8501
-5.7504,-8.5714,-7.935,1.868,2.8479,-1.0845,-8.6762,1.859,-3.9103,1.868,2.8479,-6.8943,1.8501,-0.95694,-7.619,-2.9346,-3.9744,6.6348,3.7915,-4.8309,2.807
4.6761,-4.7619,-2.0813,7.6651,4.7896,4.6571,-4.8485,1.859,-2.9487,7.6651,4.7896,-2.0163,1.8501,0.0,-3.8095,-1.0207,-0.12821,5.6778,3.7915,-4.8309,1.8501
6.5719,0.0,3.7724,15.395,7.7023,7.5279,0.89314,1.859,-1.0256,15.395,7.7023,1.8862,-2.9346,-2.8708,-1.9048,-1.9777,-1.0897,-3.8915,-0.94787,-4.8309,-1.0207
-2.9068,-2.8571,2.7967,11.53,2.8479,1.7863,-0.0638,4.7436,-0.0641,11.53,2.8479,0.91057,-6.7624,-7.6555,-2.8571,-5.8054,-4.9359,-4.8485,-0.94787,-5.7971,-4.8485
0.88468,0.95238,4.748,5.7327,1.877,1.7863,-0.0638,-3.9103,-0.0641,5.7327,1.877,1.8862,-4.8485,-6.6986,0.95238,-2.9346,-1.0897,-1.9777,1.8957,-3.8647,-3.8915
-1.0111,3.8095,5.7236,5.7327,3.8188,-1.0845,4.7209,2.8205,0.89744,5.7327,3.8188,3.8374,-1.0207,-2.8708,1.9048,0.89314,3.7179,-1.0207,3.7915,-3.8647,-1.0207
-0.06319,6.6667,4.748,6.6989,6.7314,-0.12759,4.7209,10.513,1.859,6.6989,6.7314,4.813,-1.9777,-1.9139,2.8571,1.8501,4.6795,-7.7193,0.94787,-1.9324,0.89314
3.7283,2.8571,-0.13008,5.7327,5.7605,3.7002,3.764,6.6667,1.859,5.7327,5.7605,2.8618,-4.8485,-2.8708,-0.95238,-0.0638,0.83333,1.8501,1.8957,-2.8986,0.89314
-5.7504,-1.9048,-4.0325,1.868,0.90615,0.82935,1.8501,-1.0256,0.89744,1.868,0.90615,-1.0407,-7.7193,-6.6986,-6.6667,-2.9346,-5.8974,-0.0638,3.7915,-4.8309,-0.0638
-9.5419,0.95238,-1.1057,2.8341,-0.06472,-1.0845,2.807,-1.0256,4.7436,2.8341,-0.06472,-0.06504,-8.6762,-6.6986,-7.619,-1.9777,-6.859,-5.8054,3.7915,-6.7633,-1.0207
-1.0111,3.8095,-0.13008,1.868,1.877,1.7863,1.8501,1.859,4.7436,1.868,1.877,2.8618,-10.59,-3.8278,-5.7143,-0.0638,-3.9744,-7.7193,2.8436,-5.7971,-0.0638
7.5197,4.7619,-1.1057,0.90177,-2.0065,2.7432,2.807,2.8205,1.859,0.90177,-2.0065,1.8862,-11.547,-5.7416,-4.7619,1.8501,-2.0513,-4.8485,0.94787,-4.8309,-1.0207
4.6761,5.7143,2.7967,0.90177,-1.0356,5.614,3.764,5.7051,-0.0641,0.90177,-1.0356,3.8374,-8.6762,-6.6986,0.0,3.764,1.7949,4.7209,4.7393,-0.96618,-1.0207
3.7283,2.8571,6.6992,0.90177,-2.9773,6.571,1.8501,5.7051,-1.9872,0.90177,-2.9773,4.813,-5.8054,-5.7416,5.7143,1.8501,2.7564,6.6348,0.0,3.8647,-3.8915
5.624,1.9048,7.6748,3.8003,-1.0356,10.399,1.8501,2.8205,-2.9487,3.8003,-1.0356,7.7398,-5.8054,-5.7416,4.7619,-1.0207,2.7564,-4.8485,-5.6872,0.96618,-6.7624
7.5197,2.8571,4.748,4.7665,-1.0356,10.399,-0.0638,8.5897,-1.9872,4.7665,-1.0356,8.7154,-6.7624,-4.7847,2.8571,-1.9777,2.7564,2.807,-3.7915,-0.96618,-4.8485
0.88468,0.0,0.84553,2.8341,-4.9191,3.7002,-2.9346,14.359,-3.9103,2.8341,-4.9191,1.8862,-4.8485,-3.8278,0.0,-3.8915,-0.12821,12.376,-3.7915,0.96618,-5.8054
-0.06319,-5.7143,-2.0813,0.90177,-3.9482,-1.0845,-2.9346,11.474,-3.9103,0.90177,-3.9482,-0.06504,-8.6762,-4.7847,-4.7619,-7.7193,-5.8974,4.7209,-4.7393,-1.9324,-8.6762
-5.7504,-9.5238,-3.0569,-2.963,-7.8317,-2.9984,-5.8054,4.7436,-5.8333,-2.963,-7.8317,-2.0163,-9.6332,-3.8278,-5.7143,-10.59,-7.8205,1.8501,-6.6351,-2.8986,-10.59
-4.8025,-10.476,-5.0081,-6.8277,-9.7735,-3.9553,-12.504,1.859,-7.7564,-6.8277,-9.7735,-3.9675,-3.8915,-0.95694,-2.8571,-9.6332,-3.9744,3.764,-6.6351,-0.96618,-9.6332
-1.0111,-9.5238,-5.9837,-6.8277,-10.744,-1.0845,-9.6332,1.859,-6.7949,-6.8277,-10.744,-5.9187,-0.0638,-0.95694,-0.95238,-8.6762,-2.0513,4.7209,-6.6351,1.9324,-8.6762
6.5719,-3.8095,-3.0569,-4.8953,-6.8608,1.7863,-3.8915,3.7821,-3.9103,-4.8953,-6.8608,-4.9431,-0.0638,-1.9139,0.95238,-6.7624,-3.0128,0.89314,-2.8436,1.9324,-5.8054
6.5719,-6.6667,-2.0813,-5.8615,-8.8026,3.7002,-3.8915,-1.9872,-2.9487,-5.8615,-8.8026,-4.9431,-1.9777,-4.7847,-0.95238,-6.7624,-3.9744,-2.9346,-0.94787,-0.96618,-7.7193
-6.6983,-6.6667,-4.0325,-8.7601,-10.744,-9.697,-3.8915,0.89744,-2.9487,-8.7601,-10.744,-7.8699,0.89314,-3.8278,0.0,-4.8485,-0.12821,-4.8485,-2.8436,0.0,-8.6762
-6.6983,-2.8571,-5.0081,-5.8615,-7.8317,-11.611,-2.9346,1.859,-1.0256,-5.8615,-7.8317,-6.8943,6.6348,1.9139,1.9048,1.8501,7.5641,3.764,-0.94787,0.96618,-2.9346
-1.0111,-4.7619,-3.0569,-6.8277,-5.89,-2.0415,-2.9346,-2.9487,-1.9872,-6.8277,-5.89,-3.9675,9.5056,7.6555,3.8095,5.6778,10.449,9.5056,1.8957,0.96618,3.764
7.5197,-4.7619,-1.1057,-9.7262,-9.7735,-2.0415,-7.7193,-1.9872,-6.7949,-9.7262,-9.7735,-6.8943,7.5917,3.8278,5.7143,2.807,5.641,-5.8054,3.7915,2.8986,1.8501
1.8325,0.0,0.84553,-1.0306,-5.89,2.7432,-4.8485,4.7436,-2.9487,-1.0306,-5.89,-2.9919,3.764,1.9139,5.7143,0.89314,2.7564,0.89314,2.8436,0.96618,1.8501
-0.06319,0.95238,1.8211,2.8341,-2.9773,8.4848,-4.8485,2.8205,-1.9872,2.8341,-2.9773,-1.0407,-1.9777,-0.95694,1.9048,0.89314,2.7564,1.8501,-0.94787,-3.8647,1.8501
0.88468,-1.9048,-1.1057,-1.9968,-8.8026,1.7863,-7.7193,4.7436,-8.7179,-1.9968,-8.8026,-2.9919,-3.8915,-3.8278,-1.9048,-1.0207,-0.12821,1.8501,-5.6872,-5.7971,-1.0207
1.8325,-2.8571,-3.0569,-7.7939,-11.715,-2.9984,-4.8485,5.7051,-12.564,-7.7939,-11.715,-3.9675,-4.8485,-5.7416,-3.8095,-1.0207,-3.9744,-0.0638,-4.7393,-3.8647,-1.0207
0.88468,0.0,-1.1057,-6.8277,-9.7735,1.7863,-3.8915,0.89744,-11.603,-6.8277,-9.7735,-2.9919,-4.8485,-3.8278,-1.9048,-0.0638,-4.9359,-5.8054,-6.6351,-1.9324,-2.9346
-4.8025,0.95238,-4.0325,-7.7939,-10.744,-5.8692,-5.8054,6.6667,-11.603,-7.7939,-10.744,-4.9431,-2.9346,-2.8708,-1.9048,-2.9346,-4.9359,3.764,-9.4787,0.96618,-3.8915
-2.9068,-0.95238,-5.9837,-9.7262,-10.744,-10.654,-4.8485,3.7821,-9.6795,-9.7262,-10.744,-5.9187,-1.9777,-1.9139,-3.8095,-2.9346,-4.9359,5.6778,-4.7393,0.96618,-1.0207
-2.9068,-6.6667,-5.9837,-9.7262,-9.7735,-5.8692,-4.8485,1.859,-8.7179,-9.7262,-9.7735,-4.9431,-2.9346,-4.7847,-4.7619,-3.8915,-4.9359,3.764,-0.94787,0.0,-1.9777
4.6761,-5.7143,-0.13008,-5.8615,-8.8026,0.82935,-2.9346,2.8205,-6.7949,-5.8615,-8.8026,-2.0163,-4.8485,-6.6986,-2.8571,-3.8915,-4.9359,4.7209,-0.94787,0.96618,-1.0207
0.88468,-1.9048,0.84553,-3.9291,-4.9191,7.5279,-3.8915,6.6667,-5.8333,-3.9291,-4.9191,2.8618,-7.7193,-12.44,-4.7619,-6.7624,-8.7821,4.7209,-1.8957,0.96618,-4.8485
-0.06319,-0.95238,-1.1057,0.90177,-0.06472,12.313,1.8501,8.5897,-1.9872,0.90177,-0.06472,6.7642,-8.6762,-15.311,-5.7143,-7.7193,-10.705,6.6348,-2.8436,-0.96618,-4.8485
4.6761,2.8571,0.84553,2.8341,1.877,11.356,7.5917,4.7436,-1.0256,2.8341,1.877,9.6911,-4.8485,-15.311,-3.8095,-6.7624,-8.7821,0.89314,-2.8436,-0.96618,-5.8054
6.5719,2.8571,4.748,2.8341,-0.06472,8.4848,5.6778,0.89744,-2.9487,2.8341,-0.06472,9.6911,-1.0207,-11.483,1.9048,-2.9346,-3.9744,-4.8485,-1.8957,1.9324,-4.8485
6.5719,1.9048,5.7236,1.868,0.90615,5.614,3.764,0.89744,-4.8718,1.868,0.90615,8.7154,-0.0638,-6.6986,2.8571,2.807,-0.12821,2.807,-2.8436,1.9324,-1.9777
-1.0111,0.95238,-0.13008,0.90177,-2.0065,0.82935,-2.9346,5.7051,-5.8333,0.90177,-2.0065,1.8862,-2.9346,-3.8278,0.0,2.807,-2.0513,7.5917,-5.6872,-1.9324,-1.9777
-2.9068,-1.9048,-3.0569,-2.963,-7.8317,-4.9123,-8.6762,4.7436,-10.641,-2.963,-7.8317,-3.9675,-0.0638,0.95694,0.95238,2.807,-1.0897,-3.8915,-8.5308,0.96618,-0.0638
9.4155,-6.6667,-2.0813,-7.7939,-8.8026,-3.9553,-13.461,-4.8718,-10.641,-7.7939,-8.8026,-4.9431,1.8501,3.8278,4.7619,2.807,2.7564,-7.7193,-0.94787,0.96618,-0.0638
-3.8547,-6.6667,-3.0569,-9.7262,-6.8608,-3.9553,-11.547,-7.7564,-9.6795,-9.7262,-6.8608,-3.9675,3.764,7.6555,1.9048,2.807,3.7179,6.6348,-1.8957,0.96618,1.8501
-15.229,-4.7619,-6.9593,-7.7939,-5.89,-7.7831,-6.7624,-9.6795,-7.7564,-7.7939,-5.89,-7.8699,5.6778,9.5694,-2.8571,1.8501,1.7949,6.6348,-5.6872,0.0,3.764
-10.49,-9.5238,-13.789,-7.7939,-7.8317,-12.568,-9.6332,-14.487,-6.7949,-7.7939,-7.8317,-13.724,5.6778,8.6124,-4.7619,-3.8915,-3.0128,-2.9346,-6.6351,0.96618,-0.0638
-13.333,-11.429,-13.789,-7.7939,-7.8317,-14.482,-11.547,-8.7179,-6.7949,-7.7939,-7.8317,-15.675,6.6348,9.5694,-4.7619,-5.8054,-4.9359,-1.9777,-7.5829,2.8986,-1.0207
-5.7504,-7.619,-5.0081,-6.8277,-3.9482,-12.568,-10.59,-4.8718,-4.8718,-6.8277,-3.9482,-12.748,8.5486,12.44,-0.95238,-1.0207,-0.12821,-9.6332,-3.7915,2.8986,-0.0638
-4.8025,-3.8095,-2.0813,-6.8277,-2.9773,-5.8692,-7.7193,-7.7564,-4.8718,-6.8277,-2.9773,-8.8455,10.463,13.397,2.8571,0.89314,3.7179,-3.8915,-0.94787,2.8986,3.764
-9.5419,-3.8095,-5.9837,-9.7262,-4.9191,-10.654,-5.8054,-4.8718,-2.9487,-9.7262,-4.9191,-8.8455,10.463,9.5694,1.9048,-1.9777,0.83333,1.8501,-1.8957,3.8647,0.89314
-8.594,-3.8095,-5.9837,-8.7601,-2.9773,-12.568,-3.8915,-3.9103,-0.0641,-8.7601,-2.9773,-6.8943,3.764,4.7847,-0.95238,-1.9777,-1.0897,-6.7624,-1.8957,1.9324,-0.0638
-3.8547,-6.6667,-1.1057,-5.8615,-0.06472,-5.8692,-3.8915,-5.8333,1.859,-5.8615,-0.06472,-3.9675,1.8501,4.7847,-0.95238,0.89314,1.7949,-2.9346,0.0,0.96618,2.807
13.207,-2.8571,4.748,-3.9291,2.8479,2.7432,-0.0638,-12.564,4.7436,-3.9291,2.8479,0.91057,3.764,10.526,3.8095,5.6778,7.5641,-1.9777,4.7393,2.8986,8.5486
-4.8025,3.8095,0.84553,-8.7601,-2.0065,-3.9553,1.8501,-8.7179,2.8205,-8.7601,-2.0065,-2.9919,4.7209,12.44,-0.95238,5.6778,5.641,-0.0638,4.7393,0.0,11.419
-15.229,0.0,-2.0813,-11.659,-3.9482,-9.697,2.807,-2.9487,2.8205,-11.659,-3.9482,-5.9187,5.6778,11.483,-4.7619,2.807,1.7949,3.764,5.6872,-0.96618,9.5056
3.7283,2.8571,7.6748,-4.8953,-1.0356,0.82935,6.6348,-6.7949,4.7436,-4.8953,-1.0356,2.8618,12.376,13.397,3.8095,5.6778,8.5256,-0.0638,7.5829,3.8647,10.463
11.311,7.619,13.528,-1.9968,1.877,7.5279,10.463,-2.9487,7.6282,-1.9968,1.877,10.667,15.247,16.268,8.5714,7.5917,11.41,-0.0638,6.6351,5.7971,10.463
10.363,9.5238,9.626,0.90177,4.7896,5.614,11.419,1.859,10.513,0.90177,4.7896,11.642,13.333,17.225,4.7619,6.6348,6.6026,5.6778,10.427,3.8647,12.376
0.88468,7.619,3.7724,-0.06441,4.7896,-0.12759,11.419,1.859,8.5897,-0.06441,4.7896,7.7398,8.5486,14.354,-0.95238,3.764,0.83333,4.7209,10.427,0.96618,10.463
4.6761,14.286,9.626,-1.0306,5.7605,0.82935,12.376,-0.0641,7.6282,-1.0306,5.7605,7.7398,9.5056,11.483,4.7619,8.5486,6.6026,-10.59,8.5308,0.96618,10.463
6.5719,12.381,12.553,-2.963,5.7605,3.7002,11.419,0.89744,6.6667,-2.963,5.7605,8.7154,6.6348,8.6124,6.6667,12.376,10.449,-1.9777,6.6351,0.96618,10.463
15.103,9.5238,14.504,-3.9291,3.8188,8.4848,6.6348,-1.9872,5.7051,-3.9291,3.8188,10.667,6.6348,8.6124,6.6667,14.29,10.449,4.7209,7.5829,1.9324,10.463
11.311,3.8095,7.6748,0.90177,2.8479,13.27,3.764,-1.9872,4.7436,0.90177,2.8479,9.6911,2.807,4.7847,0.95238,6.6348,3.7179,1.8501,4.7393,0.96618,6.6348
-0.06319,0.0,1.8211,5.7327,1.877,11.356,2.807,6.6667,0.89744,5.7327,1.877,6.7642,-2.9346,0.0,-0.95238,-0.0638,-0.12821,-5.8054,0.94787,-0.96618,-0.0638
8.4676,3.8095,5.7236,6.6989,2.8479,14.226,5.6778,11.474,0.89744,6.6989,2.8479,7.7398,-0.0638,-3.8278,3.8095,1.8501,2.7564,1.8501,0.0,0.0,-1.0207
12.259,10.476,9.626,6.6989,7.7023,12.313,11.419,12.436,3.7821,6.6989,7.7023,10.667,0.89314,-6.6986,5.7143,5.6778,5.641,14.29,2.8436,2.8986,-1.0207
6.5719,13.333,9.626,7.6651,8.6731,6.571,14.29,15.321,4.7436,7.6651,8.6731,13.593,1.8501,-6.6986,7.619,7.5917,6.6026,14.29,0.94787,7.7295,0.89314
-0.06319,5.7143,2.7967,5.7327,6.7314,4.6571,10.463,8.5897,4.7436,5.7327,6.7314,9.6911,1.8501,-6.6986,7.619,1.8501,2.7564,8.5486,-1.8957,8.6957,-1.9777
-4.8025,-0.95238,-4.0325,1.868,0.90615,0.82935,2.807,-2.9487,1.859,1.868,0.90615,0.91057,-1.0207,-4.7847,2.8571,-0.0638,-0.12821,1.8501,-2.8436,5.7971,-1.9777
-5.7504,-3.8095,-5.9837,-2.963,-1.0356,-4.9123,-3.8915,-1.0256,-2.9487,-2.963,-1.0356,-4.9431,-3.8915,-2.8708,-1.9048,-0.0638,-2.0513,-5.8054,-1.8957,1.9324,1.8501
-3.8547,-7.619,-6.9593,-4.8953,-1.0356,-2.9984,-8.6762,-0.0641,-3.9103,-4.8953,-1.0356,-5.9187,-3.8915,-2.8708,-6.6667,-1.9777,-4.9359,-5.8054,0.0,0.0,1.8501
-1.0111,-5.7143,-1.1057,-0.06441,-0.06472,-0.12759,-6.7624,-0.0641,-1.9872,-0.06441,-0.06472,-2.0163,-3.8915,-3.8278,-5.7143,-1.0207,-3.9744,-2.9346,0.94787,-0.96618,-0.0638
-3.8547,-2.8571,4.748,2.8341,2.8479,-0.12759,-1.9777,-1.9872,-0.0641,2.8341,2.8479,1.8862,-1.0207,-4.7847,-1.9048,-1.9777,-2.0513,-6.7624,0.0,0.96618,-1.9777
1.8325,0.0,6.6992,2.8341,5.7605,4.6571,2.807,-4.8718,1.859,2.8341,5.7605,5.7886,2.807,-5.7416,2.8571,-0.0638,1.7949,-1.0207,0.0,3.8647,-1.0207
0.88468,2.8571,1.8211,0.90177,0.90615,-4.9123,1.8501,-1.0256,1.859,0.90177,0.90615,1.8862,1.8501,-8.6124,2.8571,1.8501,2.7564,-1.9777,1.8957,0.96618,-1.9777
1.8325,5.7143,2.7967,0.90177,3.8188,-3.9553,3.764,0.89744,4.7436,0.90177,3.8188,2.8618,1.8501,-11.483,2.8571,2.807,3.7179,1.8501,1.8957,1.9324,-2.9346
7.5197,8.5714,7.6748,4.7665,10.615,4.6571,7.5917,-1.9872,8.5897,4.7665,10.615,7.7398,-0.0638,-13.397,1.9048,0.89314,1.7949,-1.0207,0.94787,2.8986,-4.8485
1.8325,6.6667,2.7967,2.8341,6.7314,3.7002,7.5917,-5.8333,5.7051,2.8341,6.7314,4.813,-5.8054,-13.397,-2.8571,-1.9777,-3.9744,-5.8054,1.8957,-3.8647,-5.8054
0.88468,11.429,-2.0813,4.7665,6.7314,5.614,7.5917,-1.9872,4.7436,4.7665,6.7314,3.8374,-7.7193,-12.44,-2.8571,-0.0638,-4.9359,-3.8915,0.0,-5.7971,-4.8485
-1.9589,5.7143,-3.0569,4.7665,5.7605,3.7002,2.807,2.8205,6.6667,4.7665,5.7605,0.91057,-5.8054,-7.6555,-0.95238,2.807,-1.0897,1.8501,3.7915,-2.8986,-1.9777
1.8325,2.8571,0.84553,-0.06441,0.90615,0.82935,2.807,1.859,5.7051,-0.06441,0.90615,-2.0163,1.8501,-0.95694,3.8095,5.6778,2.7564,-3.8915,5.6872,3.8647,0.89314
6.5719,2.8571,1.8211,-1.0306,0.90615,-1.0845,2.807,-2.9487,4.7436,-1.0306,0.90615,-4.9431,3.764,-0.95694,8.5714,5.6778,3.7179,-1.9777,0.94787,7.7295,-1.9777
-1.9589,-2.8571,-5.0081,1.868,1.877,-2.0415,-1.0207,1.859,2.8205,1.868,1.877,-7.8699,2.807,-2.8708,7.619,2.807,3.7179,10.463,-2.8436,6.7633,-4.8485
-4.8025,-1.9048,-7.935,2.8341,0.90615,-5.8692,-1.9777,7.6282,1.859,2.8341,0.90615,-8.8455,4.7209,-2.8708,7.619,4.7209,4.6795,9.5056,-1.8957,4.8309,-5.8054
3.7283,2.8571,-1.1057,0.90177,2.8479,-2.0415,1.8501,3.7821,2.8205,0.90177,2.8479,-4.9431,7.5917,-0.95694,7.619,6.6348,6.6026,3.764,0.0,3.8647,-3.8915
2.7804,6.6667,3.7724,1.868,5.7605,1.7863,4.7209,0.89744,5.7051,1.868,5.7605,-0.06504,5.6778,0.0,3.8095,6.6348,3.7179,3.764,-0.94787,1.9324,-1.0207
-0.06319,5.7143,1.8211,2.8341,5.7605,-0.12759,5.6778,1.859,7.6282,2.8341,5.7605,-0.06504,5.6778,1.9139,1.9048,2.807,0.83333,1.8501,-0.94787,0.96618,-1.0207
4.6761,2.8571,0.84553,0.90177,1.877,3.7002,5.6778,-0.0641,5.7051,0.90177,1.877,0.91057,8.5486,6.6986,3.8095,-0.0638,0.83333,-0.0638,0.94787,1.9324,0.89314
2.7804,-2.8571,-0.13008,7.6651,6.7314,4.6571,-0.0638,3.7821,1.859,7.6651,6.7314,2.8618,5.6778,5.7416,2.8571,-2.9346,-0.12821,-0.0638,0.0,-0.96618,-1.9777
5.624,-2.8571,5.7236,9.5974,7.7023,7.5279,2.807,5.7051,-1.0256,9.5974,7.7023,6.7642,3.764,3.8278,4.7619,-2.9346,0.83333,-5.8054,-0.94787,-0.96618,-3.8915
-2.9068,-0.95238,4.748,4.7665,1.877,4.6571,4.7209,4.7436,-2.9487,4.7665,1.877,5.7886,4.7209,8.6124,1.9048,-1.9777,0.83333,2.807,-1.8957,0.0,-0.0638
-6.6983,0.0,0.84553,-1.9968,-1.0356,-0.12759,1.8501,-1.9872,-3.9103,-1.9968,-1.0356,1.8862,9.5056,18.181999,1.9048,3.764,6.6026,0.89314,-1.8957,0.96618,6.6348
-1.9589,-0.95238,-0.13008,-5.8615,0.90615,-7.7831,-0.0638,-4.8718,-4.8718,-5.8615,0.90615,-0.06504,17.160999,24.879999,6.6667,7.5917,12.372,-2.9346,3.7915,2.8986,10.463
0.88468,-0.95238,3.7724,-1.0306,1.877,-6.8262,0.89314,-2.9487,-3.9103,-1.0306,1.877,1.8862,21.945999,24.879999,8.5714,6.6348,14.295,2.807,4.7393,5.7971,9.5056
7.5197,2.8571,10.602,2.8341,-1.0356,-0.12759,1.8501,-6.7949,-1.9872,2.8341,-1.0356,4.813,20.032,18.181999,11.429,5.6778,15.256,-1.0207,3.7915,5.7971,7.5917
7.5197,7.619,16.455,5.7327,2.8479,3.7002,5.6778,-1.9872,-0.0641,5.7327,2.8479,10.667,15.247,13.397,13.333,7.5917,16.218,-0.0638,2.8436,4.8309,6.6348
7.5197,14.286,16.455,6.6989,4.7896,9.4418,8.5486,-0.0641,-1.0256,6.6989,4.7896,13.593,5.6778,9.5694,7.619,7.5917,12.372,0.89314,-1.8957,0.0,4.7209
11.311,9.5238,15.48,4.7665,4.7896,9.4418,7.5917,4.7436,-1.0256,4.7665,4.7896,12.618,2.807,6.6986,7.619,7.5917,11.41,-1.9777,-1.8957,0.0,2.807
19.841999,9.5238,18.407,4.7665,5.7605,9.4418,4.7209,3.7821,1.859,4.7665,5.7605,11.642,3.764,5.7416,11.429,10.463,12.372,-2.9346,0.94787,0.96618,2.807
6.5719,9.5238,14.504,0.90177,-0.06472,4.6571,3.764,2.8205,-0.0641,0.90177,-0.06472,8.7154,2.807,4.7847,10.476,9.5056,9.4872,2.807,2.8436,0.96618,3.764
0.88468,7.619,9.626,1.868,-1.0356,-0.12759,3.764,1.859,-0.0641,1.868,-1.0356,4.813,3.764,6.6986,6.6667,10.463,7.5641,6.6348,4.7393,1.9324,5.6778
6.5719,6.6667,6.6992,4.7665,2.8479,-1.0845,3.764,4.7436,1.859,4.7665,2.8479,2.8618,3.764,6.6986,4.7619,12.376,8.5256,6.6348,5.6872,2.8986,9.5056
2.7804,5.7143,4.748,7.6651,5.7605,-0.12759,4.7209,5.7051,2.8205,7.6651,5.7605,2.8618,3.764,8.6124,5.7143,13.333,10.449,7.5917,4.7393,3.8647,11.419
6.5719,1.9048,2.7967,10.564,5.7605,4.6571,2.807,1.859,1.859,10.564,5.7605,1.8862,0.89314,8.6124,5.7143,11.419,9.4872,-3.8915,2.8436,2.8986,13.333
-1.9589,-4.7619,-4.0325,8.6312,5.7605,3.7002,-2.9346,2.8205,-1.9872,8.6312,5.7605,-2.9919,-3.8915,5.7416,-1.9048,5.6778,0.83333,-1.0207,1.8957,-0.96618,10.463
-8.594,-7.619,-9.8862,4.7665,2.8479,-2.0415,-7.7193,5.7051,-1.9872,4.7665,2.8479,-6.8943,-1.9777,8.6124,-5.7143,0.89314,-2.0513,0.89314,-2.8436,-0.96618,9.5056
-0.06319,-12.381,-9.8862,5.7327,-1.0356,-1.0845,-12.504,2.8205,-5.8333,5.7327,-1.0356,-7.8699,0.89314,7.6555,-2.8571,-4.8485,-2.0513,-8.6762,0.0,0.0,6.6348
7.5197,-15.238,-3.0569,9.5974,2.8479,6.571,-10.59,3.7821,-6.7949,9.5974,2.8479,-1.0407,5.6778,9.5694,1.9048,-4.8485,1.7949,1.8501,0.94787,2.8986,4.7209
3.7283,-9.5238,-0.13008,9.5974,3.8188,9.4418,-4.8485,5.7051,-2.9487,9.5974,3.8188,0.91057,8.5486,8.6124,1.9048,-2.9346,2.7564,12.376,1.8957,2.8986,0.89314
1.8325,-4.7619,0.84553,11.53,2.8479,6.571,-1.9777,11.474,-1.9872,11.53,2.8479,-0.06504,8.5486,4.7847,1.9048,-4.8485,1.7949,3.764,-0.94787,1.9324,-1.9777
3.7283,-0.95238,3.7724,13.462,5.7605,6.571,0.89314,16.282,-1.0256,13.462,5.7605,2.8618,9.5056,3.8278,3.8095,-3.8915,3.7179,5.6778,-3.7915,3.8647,-2.9346
4.6761,0.95238,4.748,13.462,5.7605,6.571,2.807,16.282,-1.0256,13.462,5.7605,2.8618,10.463,2.8708,6.6667,-1.9777,6.6026,7.5917,-3.7915,5.7971,-4.8485
5.624,-1.9048,2.7967,7.6651,4.7896,5.614,-1.0207,6.6667,-1.9872,7.6651,4.7896,-1.0407,9.5056,0.0,8.5714,-1.0207,6.6026,4.7209,-6.6351,6.7633,-6.7624
-0.06319,-1.9048,0.84553,5.7327,0.90615,0.82935,-2.9346,1.859,-3.9103,5.7327,0.90615,-4.9431,7.5917,-0.95694,7.619,-0.0638,5.641,7.5917,-6.6351,6.7633,-7.7193
-2.9068,-0.95238,-2.0813,5.7327,-1.0356,-2.9984,-3.8915,4.7436,-5.8333,5.7327,-1.0356,-6.8943,3.764,-2.8708,3.8095,0.89314,1.7949,10.463,-6.6351,6.7633,-6.7624
-4.8025,0.95238,-3.0569,2.8341,-2.9773,-2.9984,-4.8485,2.8205,-6.7949,2.8341,-2.9773,-6.8943,1.8501,-2.8708,2.8571,2.807,1.7949,8.5486,-4.7393,5.7971,-5.8054
4.6761,2.8571,-0.13008,-0.06441,-2.9773,-1.0845,-8.6762,-1.9872,-6.7949,-0.06441,-2.9773,-6.8943,0.89314,-3.8278,5.7143,3.764,2.7564,-3.8915,-5.6872,5.7971,-7.7193
1.8325,-2.8571,-2.0813,3.8003,0.90615,-2.0415,-3.8915,0.89744,-4.8718,3.8003,0.90615,-6.8943,-1.9777,-10.526,5.7143,0.89314,-0.12821,-1.0207,-9.4787,3.8647,-12.504
-7.6461,-0.95238,-1.1057,1.868,-0.06472,-8.74,-0.0638,1.859,-3.9103,1.868,-0.06472,-7.8699,-1.9777,-15.311,5.7143,-0.0638,-2.0513,10.463,-10.427,7.7295,-11.547
0.88468,0.95238,1.8211,-1.9968,-2.9773,-8.74,-1.9777,-1.9872,-6.7949,-1.9968,-2.9773,-7.8699,-4.8485,-14.354,5.7143,0.89314,-2.0513,9.5056,-7.5829,4.8309,-9.6332
8.4676,0.95238,4.748,-0.06441,-1.0356,-2.9984,-1.9777,-1.0256,-5.8333,-0.06441,-1.0356,-2.9919,-4.8485,-8.6124,6.6667,4.7209,-0.12821,6.6348,-3.7915,2.8986,-4.8485
0.88468,1.9048,1.8211,0.90177,-0.06472,-1.0845,-1.9777,-5.8333,-4.8718,0.90177,-0.06472,-3.9675,-1.9777,-4.7847,3.8095,7.5917,0.83333,-1.0207,-3.7915,3.8647,-1.0207
-3.8547,0.0,-3.0569,0.90177,-0.06472,-5.8692,-3.8915,-5.8333,-3.9103,0.90177,-0.06472,-6.8943,-3.8915,-4.7847,-0.95238,5.6778,-2.0513,-1.9777,-1.8957,0.96618,0.89314
-6.6983,3.8095,-0.13008,0.90177,0.90615,-4.9123,0.89314,-2.9487,0.89744,0.90177,0.90615,-2.9919,-4.8485,-2.8708,-3.8095,5.6778,-2.0513,1.8501,0.0,-2.8986,2.807
0.88468,8.5714,4.748,2.8341,4.7896,2.7432,3.764,-4.8718,2.8205,2.8341,4.7896,2.8618,-2.9346,0.95694,0.0,7.5917,0.83333,-16.332001,2.8436,-2.8986,7.5917
4.6761,10.476,4.748,5.7327,7.7023,8.4848,5.6778,-7.7564,3.7821,5.7327,7.7023,4.813,-2.9346,2.8708,-1.9048,7.5917,0.83333,-5.8054,0.0,-4.8309,5.6778
1.8325,-0.95238,-0.13008,4.7665,5.7605,0.82935,3.764,-1.0256,0.89744,4.7665,5.7605,-0.06504,-2.9346,2.8708,-5.7143,3.764,-1.0897,-0.0638,-1.8957,-5.7971,3.764
-4.8025,-8.5714,-2.0813,4.7665,4.7896,-1.0845,1.8501,-1.0256,1.859,4.7665,4.7896,-2.0163,2.807,5.7416,-0.95238,0.89314,0.83333,-6.7624,-0.94787,-1.9324,3.764
-2.9068,-6.6667,-1.1057,2.8341,5.7605,3.7002,-0.0638,-6.7949,0.89744,2.8341,5.7605,0.91057,5.6778,4.7847,2.8571,-1.0207,1.7949,-3.8915,0.94787,0.0,3.764
-0.06319,-3.8095,-0.13008,1.868,3.8188,3.7002,-0.0638,-7.7564,0.89744,1.868,3.8188,-0.06504,3.764,4.7847,2.8571,-2.9346,-0.12821,-5.8054,0.0,0.96618,3.764
-5.7504,-0.95238,-5.0081,3.8003,-0.06472,-4.9123,-1.9777,-12.564,0.89744,3.8003,-0.06472,-2.9919,4.7209,6.6986,0.0,-3.8915,-2.0513,-12.504,-1.8957,0.96618,2.807
-5.7504,-4.7619,-5.9837,2.8341,0.90615,-7.7831,-4.8485,-13.526,-1.0256,2.8341,0.90615,-7.8699,3.764,5.7416,-2.8571,-5.8054,-1.0897,-11.547,0.0,-0.96618,0.89314
