C3,C4,Cz,F1,F2,F3,F4,F7,F8,Fp1,Fp2,Fz,O1,O2,P3,P4,Pz,T3,T4,T5,T6
-1.0111,-1.8413,15.534,0.0,-21.674999,0.77295,0.97087,0.90615,7.7398,0.0,-21.674999,3.9216,-1.9139,11.365,12.444,20.191999,23.253,-3.9744,9.5873,-1.9608,21.127001
10.363,21.016001,29.125999,9.8039,-1.9704,5.6039,12.621,5.7605,20.423,9.8039,-1.9704,20.587999,-11.483,8.5079,17.205999,30.768999,31.948,-4.9359,28.635,-1.9608,22.093
23.632999,40.063,35.922001,18.627001,16.749001,22.028999,31.068001,10.615,33.105999,18.627001,16.749001,36.275002,-11.483,5.6508,24.825001,39.423,39.678001,-4.9359,38.159,0.0,21.127001
32.164001,44.825001,36.893002,25.49,16.749001,35.556,39.806,11.586,34.081001,25.49,16.749001,39.216,-0.95694,-2.9206,30.540001,37.5,42.576,-2.0513,38.159,2.9412,14.364
32.164001,41.015999,36.893002,24.51,7.8818,25.893999,32.039001,10.615,23.35,24.51,7.8818,34.313999,5.7416,-14.349,33.396999,35.577,42.576,0.83333,29.587,7.8431,8.5668
25.528999,32.444,32.039001,12.745,-5.9113,13.333,19.417,3.8188,11.642,12.745,-5.9113,21.569,3.8278,-21.016001,31.492001,31.731001,41.610001,-0.12821,18.159,7.8431,5.6683
21.738001,17.205999,23.301001,0.98039,-7.8818,1.7391,0.0,-0.06472,0.91057,0.98039,-7.8818,8.8235,0.95694,-21.968,28.635,25.962,38.712002,-4.9359,6.7302,7.8431,4.7021
12.259,3.873,14.563,2.9412,-0.98522,3.6715,-13.592,-0.06472,-4.9431,2.9412,-0.98522,-1.9608,3.8278,-20.063,21.968,19.231001,30.016001,4.6795,-2.7937,8.8235,5.6683
0.88468,-6.6032,-1.9417,0.0,-3.9409,-4.058,-19.417,-2.9773,-5.9187,0.0,-3.9409,-12.745,1.9139,-18.159,13.397,8.6538,12.625,7.5641,-5.6508,5.8824,3.7359
-5.7504,-14.222,-19.417,-17.646999,-19.704,-13.72,-29.125999,-3.9482,-13.724,-17.646999,-19.704,-18.627001,-2.8708,-15.302,6.7302,-2.8846,1.0306,3.7179,-14.222,0.0,0.83736
-16.177,-18.983999,-34.951,-11.765,-25.615999,-19.517,-25.243,-2.0065,-11.772,-11.765,-25.615999,-23.528999,-10.526,-9.5873,-0.88889,-12.5,-11.53,5.641,-15.175,-1.9608,0.83736
-21.864,-18.983999,-37.863998,-9.8039,-19.704,-16.618,-16.504999,0.90615,-10.797,-9.8039,-19.704,-22.549,-14.354,-4.8254,-7.5556,-16.346001,-23.124001,6.6026,-13.27,-1.9608,-3.0274
-15.229,-11.365,-26.214001,-9.8039,-18.719,-5.9903,-18.447001,3.8188,-8.8455,-9.8039,-18.719,-15.686,-14.354,0.88889,-7.5556,-9.6154,-22.158001,16.218,-15.175,-2.9412,-3.9936
-1.9589,1.0159,-6.7961,-6.8627,-21.674999,-2.1256,-14.563,8.6731,-4.9431,-6.8627,-21.674999,-4.902,-15.311,0.88889,-4.6984,0.96154,-12.496,22.948999,-8.5079,-2.9412,-3.9936
6.5719,9.5873,11.65,-3.9216,-19.704,5.6039,4.8544,12.557,-2.0163,-3.9216,-19.704,4.902,-20.096001,-5.7778,1.9683,4.8077,-2.8341,21.025999,-7.5556,-5.8824,-5.9259
14.155,12.444,20.388,-3.9216,-17.733999,22.028999,11.65,13.528,1.8862,-3.9216,-17.733999,11.765,-23.923,-14.349,10.54,4.8077,3.9291,14.295,-1.8413,-2.9412,-8.8245
15.103,12.444,17.476,-10.784,-28.570999,16.232,10.68,7.7023,-3.9675,-10.784,-28.570999,9.8039,-19.139,-24.825001,15.302,3.8462,4.8953,5.641,-4.6984,0.98039,-11.723
12.259,6.7302,8.7379,-13.725,-28.570999,4.6377,5.8252,-0.06472,-4.9431,-13.725,-28.570999,0.98039,-11.483,-32.444,14.349,-0.96154,3.9291,-2.0513,-11.365,5.8824,-14.622
8.4676,-3.746,-0.97087,-19.608,-32.512001,-1.1594,-9.7087,-6.8608,-12.748,-19.608,-32.512001,-9.8039,-6.6986,-34.348999,10.54,-2.8846,2.963,-6.859,-10.413,7.8431,-14.622
-0.06319,-11.365,-9.7087,-29.412001,-42.365002,-13.72,-19.417,-12.686,-16.65,-29.412001,-42.365002,-19.608,-0.95694,-30.540001,7.6825,-0.96154,1.9968,-12.628,-11.365,8.8235,-7.8583
-11.438,-18.032,-16.504999,-37.255001,-43.349998,-23.382,-25.243,-20.452999,-12.748,-37.255001,-43.349998,-28.431,4.7847,-16.254,6.7302,-1.9231,-1.868,-21.282,-10.413,8.8235,-2.0612
-21.864,-19.937,-23.301001,-37.255001,-41.379002,-27.246,-26.214001,-23.365999,-7.8699,-37.255001,-41.379002,-29.412001,4.7847,5.6508,2.9206,-1.9231,-4.7665,-25.128,-7.5556,6.8627,-0.12882
-30.395,-17.079,-28.155001,-36.275002,-33.498001,-29.179001,-21.358999,-24.337,-3.9675,-36.275002,-33.498001,-26.471001,2.8708,20.889,-2.7937,0.96154,-9.5974,-26.09,-6.6032,2.9412,2.7697
-31.343,-13.27,-27.184,-36.275002,-26.601,-31.111,-12.621,-25.306999,-0.06504,-36.275002,-26.601,-22.549,0.95694,29.459999,-0.88889,4.8077,-9.5974,-27.051001,-3.746,-0.98039,6.6345
-29.447001,-5.6508,-19.417,-28.431,-13.793,-29.179001,-5.8252,-23.365999,4.813,-28.431,-13.793,-15.686,0.0,33.27,1.0159,8.6538,-0.90177,-23.205,2.9206,-4.902,7.6006
-28.499001,1.0159,-9.7087,-19.608,-6.8966,-27.246,2.9126,-20.452999,9.6911,-19.608,-6.8966,-11.765,0.0,31.365,1.9683,14.423,4.8953,-17.436001,3.873,-9.8039,7.6006
-20.916,9.5873,2.9126,-19.608,-3.9409,-18.551001,15.534,-12.686,10.667,-19.608,-3.9409,-5.8824,0.95694,31.365,9.5873,24.038,11.659,-5.8974,10.54,-7.8431,10.499
-8.594,12.444,7.767,-1.9608,2.9557,-6.9565,11.65,-2.0065,5.7886,-1.9608,2.9557,-0.98039,1.9139,26.603001,18.159,22.115,15.523,5.641,13.397,-1.9608,10.499
3.7283,10.54,7.767,11.765,10.837,1.7391,5.8252,3.8188,-0.06504,11.765,10.837,1.9608,3.8278,14.222,25.778,12.5,13.591,10.449,2.9206,4.902,5.6683
11.311,3.873,5.8252,7.8431,5.9113,2.7053,-3.8835,2.8479,-7.8699,7.8431,5.9113,1.9608,10.526,7.5556,33.396999,7.6923,14.557,17.179001,-3.746,14.706,4.7021
19.841999,-4.6984,6.7961,1.9608,-7.8818,0.77295,-11.65,4.7896,-19.577,1.9608,-7.8818,0.0,18.181999,4.6984,43.873001,4.8077,16.49,21.987,-11.365,23.528999,5.6683
21.738001,-8.5079,6.7961,7.8431,-13.793,-1.1594,-13.592,6.7314,-21.528,7.8431,-13.793,-2.9412,26.794001,8.5079,48.634998,4.8077,18.422001,16.218,-28.507999,30.392,6.6345
16.051001,-10.413,0.0,9.8039,-8.867,9.4686,-10.68,5.7605,-16.65,9.8039,-8.867,-5.8824,29.665001,14.222,43.873001,6.7308,14.557,17.179001,-30.413,34.313999,6.6345
16.051001,-11.365,1.9417,10.784,-2.9557,24.927999,-9.7087,7.7023,-11.772,10.784,-2.9557,-3.9216,29.665001,18.032,37.206001,9.6154,14.557,19.103001,-18.032,33.333,4.7021
18.893999,-7.5556,11.65,17.646999,-6.8966,27.826,-8.7379,8.6731,-6.8943,17.646999,-6.8966,3.9216,25.837,18.983999,30.540001,9.6154,17.455999,15.256,-7.5556,31.372999,4.7021
19.841999,-5.6508,19.417,13.725,-13.793,27.826,-5.8252,9.644,0.91057,13.725,-13.793,7.8431,22.01,19.937,26.73,9.6154,22.287001,12.372,1.0159,29.412001,5.6683
18.893999,-3.746,21.358999,1.9608,-18.719,20.097,-3.8835,7.7023,4.813,1.9608,-18.719,6.8627,21.052999,18.983999,22.921,8.6538,22.287001,6.6026,1.0159,24.51,7.6006
15.103,-1.8413,19.417,-0.98039,-14.778,17.198,0.97087,7.7023,5.7886,-0.98039,-14.778,2.9412,22.01,22.794001,18.159,7.6923,19.388,4.6795,3.873,21.569,11.465
12.259,0.06349,14.563,3.9216,-8.867,14.3,3.8835,9.644,6.7642,3.9216,-8.867,0.0,16.268,18.032,12.444,0.96154,11.659,4.6795,8.6349,14.706,8.5668
14.155,3.873,12.621,1.9608,-8.867,15.266,7.767,8.6731,11.642,1.9608,-8.867,5.8824,9.5694,13.27,4.8254,-2.8846,4.8953,-3.0128,12.444,5.8824,3.7359
16.051001,11.492,14.563,1.9608,-0.98522,19.129999,17.476,9.644,17.496,1.9608,-0.98522,13.725,3.8278,14.222,-0.88889,0.0,3.9291,-3.9744,18.159,0.0,3.7359
8.4676,13.397,10.68,-2.9412,-2.9557,19.129999,21.358999,6.7314,13.593,-2.9412,-2.9557,15.686,-0.95694,8.5079,-5.6508,1.9231,1.0306,-5.8974,18.159,-1.9608,5.6683
2.7804,11.492,4.8544,-4.902,-2.9557,11.401,14.563,1.877,9.6911,-4.902,-2.9557,12.745,-1.9139,-1.0159,-8.5079,5.7692,-3.8003,-11.667,16.254,-3.9216,5.6683
0.88468,10.54,3.8835,0.0,0.98522,10.435,14.563,-2.9773,7.7398,0.0,0.98522,11.765,-0.95694,-6.7302,-10.413,8.6538,-6.6989,-9.7436,17.205999,-4.902,6.6345
-1.0111,9.5873,1.9417,0.98039,0.0,9.4686,10.68,-4.9191,6.7642,0.98039,0.0,10.784,-2.8708,-6.7302,-10.413,8.6538,-11.53,-7.8205,12.444,-6.8627,5.6683
0.88468,16.254,5.8252,-0.98039,-6.8966,6.57,12.621,-4.9191,4.813,-0.98039,-6.8966,11.765,-3.8278,-1.9683,-3.746,9.6154,-11.53,-5.8974,4.8254,-5.8824,6.6345
0.88468,20.063,12.621,-2.9412,-7.8818,0.77295,10.68,-4.9191,4.813,-2.9412,-7.8818,8.8235,-4.7847,3.746,-1.8413,10.577,-8.6312,-4.9359,3.873,-5.8824,8.5668
2.7804,21.968,17.476,-5.8824,-3.9409,1.7391,6.7961,-2.9773,3.8374,-5.8824,-3.9409,4.902,-1.9139,10.413,-1.8413,12.5,-6.6989,-3.9744,6.7302,-5.8824,11.465
4.6761,21.968,17.476,-2.9412,-1.9704,3.6715,3.8835,0.90615,5.7886,-2.9412,-1.9704,2.9412,0.95694,15.175,-0.88889,10.577,-4.7665,-3.0128,4.8254,-5.8824,15.33
2.7804,18.159,9.7087,-0.98039,3.9409,-2.1256,3.8835,-3.9482,2.8618,-0.98039,3.9409,0.0,-2.8708,16.127001,-6.6032,5.7692,-6.6989,-8.7821,5.7778,-7.8431,14.364
2.7804,15.302,-0.97087,1.9608,6.8966,-5.9903,2.9126,-2.9773,3.8374,1.9608,6.8966,-0.98039,-7.6555,11.365,-15.175,-0.96154,-11.53,-16.474001,8.6349,-10.784,11.465
2.7804,15.302,-0.97087,11.765,17.733999,-6.9565,8.7379,1.877,16.52,11.765,17.733999,4.902,-7.6555,9.4603,-19.937,-5.7692,-15.395,-16.474001,16.254,-11.765,10.499
4.6761,16.254,4.8544,13.725,20.690001,-1.1594,14.563,4.7896,19.447001,13.725,20.690001,10.784,-6.6986,9.4603,-20.889,-6.7308,-16.361,-19.358999,24.825001,-14.706,11.465
10.363,19.111,10.68,22.549,23.645,11.401,13.592,12.557,18.472,22.549,23.645,17.646999,-7.6555,7.5556,-17.079,-7.6923,-12.496,-17.436001,25.778,-12.745,11.465
7.5197,21.968,10.68,26.471001,32.512001,7.5362,18.447001,18.382,22.374001,26.471001,32.512001,23.528999,-10.526,-2.9206,-16.127001,-10.577,-13.462,-1.0897,17.205999,-11.765,1.8035
3.7283,24.825001,8.7379,29.412001,32.512001,13.333,26.214001,18.382,21.398001,29.412001,32.512001,26.471001,-8.6124,-13.397,-18.032,-10.577,-14.428,9.4872,11.492,-10.784,-5.9259
0.88468,19.111,-1.9417,29.412001,28.570999,18.164,14.563,13.528,11.642,29.412001,28.570999,21.569,-15.311,-29.587,-27.556,-17.308001,-23.124001,1.7949,4.8254,-13.725,-19.452
1.8325,9.5873,-8.7379,21.569,16.749001,14.3,4.8544,8.6731,4.813,21.569,16.749001,17.646999,-24.879999,-41.015999,-33.27,-25.962,-32.785999,-2.0513,1.9683,-17.646999,-32.013
5.624,5.7778,-3.8835,12.745,7.8818,1.7391,5.8252,2.8479,-0.06504,12.745,7.8818,17.646999,-29.665001,-41.015999,-34.222,-27.885,-32.785999,-2.0513,-4.6984,-19.608,-32.013
2.7804,2.9206,-1.9417,10.784,6.8966,0.77295,1.9417,-5.89,-2.9919,10.784,6.8966,10.784,-30.622,-34.348999,-34.222,-21.153999,-26.989,-9.7436,-10.413,-20.587999,-23.316999
1.8325,4.8254,0.97087,8.8235,3.9409,7.5362,1.9417,-7.8317,-0.06504,8.8235,3.9409,3.9216,-24.879999,-19.111,-29.459999,-7.6923,-16.361,-16.474001,-5.6508,-18.627001,-7.8583
-7.6461,4.8254,-0.97087,-4.902,-4.9261,-6.9565,-4.8544,-14.628,-2.9919,-4.902,-4.9261,-4.902,-22.01,-6.7302,-29.459999,0.0,-15.395,-24.167,-1.8413,-17.646999,3.7359
-23.76,1.0159,-9.7087,-9.8039,-17.733999,-23.382,-12.621,-18.511,-5.9187,-9.8039,-17.733999,-16.667,-23.923,2.7937,-34.222,0.96154,-21.191999,-26.09,-0.88889,-21.569,9.533
-37.978001,-0.88889,-20.388,-10.784,-20.690001,-28.212999,-13.592,-18.511,-0.06504,-10.784,-20.690001,-21.569,-26.794001,5.6508,-38.984001,0.0,-28.921,-25.128,3.873,-25.49,12.432
-46.508999,2.9206,-27.184,-14.706,-16.749001,-31.111,-2.9126,-17.540001,6.7642,-14.706,-16.749001,-18.627001,-27.750999,4.6984,-39.937,0.96154,-32.785999,-27.051001,11.492,-28.431,14.364
-47.457001,5.7778,-29.125999,-14.706,-13.793,-28.212999,-2.9126,-15.599,6.7642,-14.706,-13.793,-15.686,-24.879999,5.6508,-38.032001,1.9231,-32.785999,-25.128,20.063,-27.451,15.33
-39.874001,7.6825,-26.214001,-3.9216,-1.9704,-17.584999,1.9417,-8.8026,14.569,-3.9216,-1.9704,-9.8039,-22.01,1.8413,-31.365,-1.9231,-32.785999,-20.320999,18.159,-24.51,12.432
-28.499001,6.7302,-19.417,2.9412,-0.98522,-10.821,11.65,-2.0065,17.496,2.9412,-0.98522,-0.98039,-18.181999,-3.873,-21.841,-7.6923,-29.886999,-13.59,18.159,-19.608,6.6345
-15.229,4.8254,-14.563,-1.9608,-7.8818,-7.9227,5.8252,1.877,11.642,-1.9608,-7.8818,2.9412,-18.181999,-14.349,-16.127001,-15.385,-27.955,-7.8205,17.205999,-14.706,-4.9597
-8.594,-1.8413,-14.563,-5.8824,-19.704,-5.0242,-6.7961,3.8188,-0.06504,-5.8824,-19.704,-0.98039,-20.096001,-22.921,-16.127001,-23.077,-30.853001,0.83333,5.7778,-12.745,-15.588
-4.8025,-11.365,-17.476,-6.8627,-27.586,0.77295,-15.534,6.7314,-13.724,-6.8627,-27.586,-6.8627,-19.139,-25.778,-14.222,-30.768999,-31.82,8.5256,-3.746,-9.8039,-22.351
-2.9068,-22.794001,-21.358999,-15.686,-30.542,-1.1594,-30.097,5.7605,-23.48,-15.686,-30.542,-14.706,-17.225,-24.825001,-14.222,-35.577,-33.751999,14.295,-10.413,-7.8431,-25.25
-5.7504,-30.413,-21.358999,-18.627001,-36.452999,-6.9565,-36.893002,7.7023,-29.333,-18.627001,-36.452999,-20.587999,-12.44,-21.016001,-12.317,-34.615002,-31.82,19.103001,-18.032,-4.902,-23.316999
-10.49,-33.27,-20.388,-21.569,-41.379002,-9.8551,-39.806,4.7896,-34.210999,-21.569,-41.379002,-25.49,-7.6555,-16.254,-8.5079,-30.768999,-26.989,21.025999,-20.889,-0.98039,-19.452
-17.125,-35.174999,-25.243,-31.372999,-44.334999,-17.584999,-40.777,-2.0065,-39.089001,-31.372999,-44.334999,-31.372999,-5.7416,-13.397,-13.27,-27.885,-25.056,16.218,-23.746,-1.9608,-17.52
-20.916,-34.222,-28.155001,-34.313999,-46.305,-25.313999,-36.893002,-5.89,-36.162998,-34.313999,-46.305,-33.333,-7.6555,-13.397,-19.937,-24.038,-26.989,3.7179,-20.889,-3.9216,-14.622
-21.864,-29.459999,-33.980999,-36.275002,-43.349998,-28.212999,-33.980999,-9.7735,-29.333,-36.275002,-43.349998,-33.333,-10.526,-12.444,-25.650999,-21.153999,-29.886999,-4.9359,-26.603001,-5.8824,-11.723
-20.916,-22.794001,-38.834999,-36.275002,-27.586,-32.077,-23.301001,-10.744,-17.625999,-36.275002,-27.586,-29.412001,-15.311,-13.397,-31.365,-21.153999,-33.751999,-11.667,-16.127001,-9.8039,-11.723
-14.281,-12.317,-32.039001,-29.412001,-17.733999,-23.382,-10.68,-6.8608,-2.9919,-29.412001,-17.733999,-18.627001,-19.139,-15.302,-32.317001,-18.268999,-32.785999,-14.551,-0.88889,-11.765,-9.7907
-9.5419,-2.7937,-21.358999,-18.627001,-14.778,-10.821,-4.8544,-3.9482,2.8618,-18.627001,-14.778,-8.8235,-17.225,-15.302,-30.413,-12.5,-26.989,-15.513,5.7778,-8.8235,-5.9259
-5.7504,1.9683,-13.592,-12.745,-19.704,-3.0918,7.767,0.90615,6.7642,-12.745,-19.704,-2.9412,-13.397,-12.444,-22.794001,-6.7308,-19.259001,-15.513,6.7302,-5.8824,-3.0274
-1.9589,-2.7937,-8.7379,-7.8431,-7.8818,-2.1256,13.592,1.877,5.7886,-7.8431,-7.8818,-2.9412,-8.6124,-9.5873,-12.317,-6.7308,-13.462,-8.7821,0.06349,-0.98039,-6.8921
-1.0111,-12.317,-8.7379,-11.765,-2.9557,-5.9903,5.8252,1.877,0.91057,-11.765,-2.9557,-7.8431,-7.6555,-9.5873,-7.5556,-10.577,-12.496,0.83333,-3.746,2.9412,-10.757
-1.0111,-13.27,-8.7379,-16.667,-12.808,-5.0242,-0.97087,2.8479,-2.0163,-16.667,-12.808,-11.765,-8.6124,-9.5873,-5.6508,-11.538,-10.564,6.6026,-6.6032,5.8824,-11.723
-2.9068,-18.032,-14.563,-27.451,-19.704,-6.9565,-10.68,-0.06472,-12.748,-27.451,-19.704,-17.646999,-8.6124,-14.349,-8.5079,-15.385,-12.496,5.641,-15.175,3.9216,-16.554001
-7.6461,-26.603001,-22.33,-25.49,-28.570999,-12.754,-17.476,-2.9773,-20.552999,-25.49,-28.570999,-19.608,-8.6124,-21.968,-12.317,-22.115,-17.327,4.6795,-26.603001,0.0,-19.452
-13.333,-35.174999,-31.068001,-17.646999,-27.586,-8.8889,-20.388,-3.9482,-24.455,-17.646999,-27.586,-21.569,-11.483,-23.872999,-16.127001,-25.962,-23.124001,4.6795,-27.556,-1.9608,-20.419001
-15.229,-38.032001,-35.922001,-15.686,-22.66,-5.9903,-21.358999,-3.9482,-27.382,-15.686,-22.66,-21.569,-9.5694,-19.111,-18.032,-26.923,-26.989,4.6795,-21.841,-3.9216,-17.52
-17.125,-35.174999,-31.068001,-12.745,-17.733999,-5.9903,-18.447001,-4.9191,-23.48,-12.745,-17.733999,-17.646999,-8.6124,-17.205999,-15.175,-28.846001,-28.921,4.6795,-18.032,-4.902,-14.622
-16.177,-25.650999,-22.33,-4.902,-10.837,-2.1256,-10.68,-1.0356,-18.601999,-4.902,-10.837,-10.784,-6.6986,-15.302,-7.5556,-27.885,-26.023001,9.4872,-16.127001,-3.9216,-13.655
-16.177,-19.937,-15.534,2.9412,3.9409,2.7053,-7.767,0.90615,-17.625999,2.9412,3.9409,-4.902,-1.9139,-11.492,0.06349,-25.0,-18.292999,15.256,-16.127001,0.0,-15.588
-12.385,-18.983999,-5.8252,11.765,14.778,4.6377,-7.767,2.8479,-23.48,11.765,14.778,-0.98039,7.6555,-7.6825,8.6349,-22.115,-10.564,19.103001,-18.032,5.8824,-19.452
2.7804,-14.222,6.7961,24.51,31.527,14.3,-0.97087,12.557,-21.528,24.51,31.527,8.8235,19.139,-1.0159,21.968,-14.423,1.0306,21.987,-21.841,12.745,-19.452
20.790001,-6.6032,15.534,32.353001,42.365002,23.961,3.8835,16.440001,-15.675,32.353001,42.365002,15.686,27.750999,-0.06349,34.348999,-10.577,11.659,21.025999,-22.794001,21.569,-19.452
36.903999,7.6825,31.068001,41.175999,52.216999,29.757999,13.592,20.323999,-4.9431,41.175999,52.216999,24.51,36.363998,-1.9683,45.778,-1.9231,27.118,21.987,-18.983999,33.333,-19.452
45.433998,21.968,43.688999,46.077999,64.039001,31.691,22.33,27.120001,4.813,46.077999,64.039001,32.353001,42.105,-3.873,50.540001,11.538,41.610001,30.641001,-9.4603,41.175999,-15.588
45.433998,29.587,45.631001,50.98,53.202,39.419998,23.301001,33.916,6.7642,50.98,53.202,35.293999,42.105,-2.9206,49.587002,22.115,48.374001,34.487,-6.6032,41.175999,-10.757
36.903999,28.635,40.777,39.216,49.261002,32.657001,26.214001,23.236,10.667,39.216,49.261002,30.392,40.191002,-0.06349,48.634998,25.962,45.474998,30.641001,-2.7937,37.255001,-1.095
25.528999,18.159,30.097,27.451,50.245998,21.063,20.388,14.498,10.667,27.451,50.245998,16.667,34.450001,1.8413,48.634998,28.846001,39.678001,26.795,3.873,32.353001,7.6006
15.103,5.7778,14.563,18.627001,32.512001,12.367,8.7379,8.6731,4.813,18.627001,32.512001,0.98039,24.879999,2.7937,42.921001,25.962,35.813,20.063999,4.8254,25.49,12.432
7.5197,1.9683,-0.97087,0.98039,15.764,1.7391,6.7961,0.90615,8.7154,0.98039,15.764,-7.8431,15.311,2.7937,31.492001,22.115,28.084,10.449,6.7302,17.646999,15.33
4.6761,2.9206,-6.7961,-4.902,9.8522,-8.8889,3.8835,-2.0065,11.642,-4.902,9.8522,-10.784,9.5694,3.746,21.016001,19.231001,19.388,3.7179,11.492,10.784,17.261999
1.8325,1.9683,-2.9126,-10.784,-8.867,-7.9227,7.767,-4.9191,7.7398,-10.784,-8.867,-11.765,7.6555,3.746,14.349,14.423,15.523,-2.0513,14.349,5.8824,13.398
-0.06319,1.9683,4.8544,-18.627001,-8.867,-10.821,0.97087,-5.89,2.8618,-18.627001,-8.867,-12.745,10.526,3.746,9.5873,9.6154,16.49,0.83333,4.8254,4.902,10.499
-1.0111,4.8254,10.68,-24.51,-6.8966,-10.821,0.97087,-8.8026,1.8862,-24.51,-6.8966,-9.8039,12.44,3.746,5.7778,10.577,20.354,2.7564,4.8254,3.9216,8.5668
3.7283,5.7778,16.504999,-25.49,-12.808,-3.0918,6.7961,-6.8608,-1.0407,-25.49,-12.808,-1.9608,10.526,4.6984,2.9206,10.577,24.219,-3.0128,4.8254,1.9608,6.6345
8.4676,6.7302,22.33,-22.549,-17.733999,-3.0918,3.8835,-4.9191,-5.9187,-22.549,-17.733999,3.9216,9.5694,6.6032,1.0159,10.577,25.184999,-5.8974,0.06349,1.9608,6.6345
9.4155,-0.88889,22.33,-21.569,-24.631001,-3.0918,-2.9126,-8.8026,-11.772,-21.569,-24.631001,3.9216,10.526,5.6508,-0.88889,7.6923,21.32,-6.859,-3.746,2.9412,5.6683
12.259,-9.4603,18.447001,-19.608,-30.542,-1.1594,-14.563,-11.715,-16.65,-19.608,-30.542,0.98039,12.44,7.5556,-2.7937,2.8846,19.388,-8.7821,-13.27,3.9216,6.6345
14.155,-16.127001,15.534,-17.646999,-29.556999,-1.1594,-21.358999,-11.715,-22.504,-17.646999,-29.556999,-0.98039,13.397,11.365,-4.6984,1.9231,20.354,-11.667,-19.937,2.9412,8.5668
14.155,-20.889,10.68,-16.667,-28.570999,1.7391,-23.301001,-6.8608,-21.528,-16.667,-28.570999,-0.98039,14.354,13.27,-2.7937,0.96154,19.388,-13.59,-20.889,3.9216,9.533
15.103,-17.079,7.767,-9.8039,-19.704,6.57,-15.534,-2.9773,-15.675,-9.8039,-19.704,3.9216,17.225,14.222,2.9206,1.9231,21.32,-12.628,-16.127001,5.8824,8.5668
16.051001,-7.5556,15.534,1.9608,-11.823,15.266,-7.767,4.7896,-11.772,1.9608,-11.823,10.784,22.966999,16.127001,11.492,9.6154,29.049999,-4.9359,-11.365,7.8431,9.533
19.841999,5.7778,28.155001,10.784,-6.8966,21.063,1.9417,9.644,-4.9431,10.784,-6.8966,17.646999,29.665001,18.983999,21.968,19.231001,36.778999,9.4872,-7.5556,13.725,13.398
22.686001,13.397,33.980999,3.9216,-4.9261,19.129999,3.8835,9.644,-7.8699,3.9216,-4.9261,19.608,33.493,20.889,27.683001,21.153999,41.610001,16.218,-4.6984,18.627001,12.432
25.528999,14.349,35.922001,4.902,-1.9704,14.3,4.8544,14.498,-8.8455,4.902,-1.9704,16.667,34.450001,21.841,28.635,19.231001,42.576,16.218,-7.5556,19.608,6.6345
19.841999,11.492,32.039001,10.784,-3.9409,4.6377,0.97087,7.7023,-7.8699,10.784,-3.9409,10.784,31.579,18.032,25.778,18.268999,38.712002,13.333,-5.6508,18.627001,3.7359
17.945999,6.7302,23.301001,3.9216,-10.837,11.401,-3.8835,-0.06472,-7.8699,3.9216,-10.837,4.902,27.750999,18.983999,20.063,16.346001,31.948,10.449,-4.6984,15.686,3.7359
19.841999,1.9683,16.504999,-3.9216,-13.793,16.232,-2.9126,2.8479,-4.9431,-3.9216,-13.793,1.9608,22.01,17.079,16.254,10.577,24.219,7.5641,-2.7937,12.745,1.8035
17.945999,0.06349,15.534,-4.902,-11.823,10.435,-0.97087,1.877,3.8374,-4.902,-11.823,-2.9412,21.052999,11.365,17.205999,6.7308,20.354,1.7949,1.0159,10.784,-2.0612
19.841999,2.9206,16.504999,-4.902,-2.9557,9.4686,1.9417,-0.06472,5.7886,-4.902,-2.9557,-0.98039,20.096001,9.4603,20.063,7.6923,21.32,3.7179,6.7302,12.745,-3.0274
18.893999,1.9683,14.563,-5.8824,-7.8818,1.7391,-2.9126,-2.0065,3.8374,-5.8824,-7.8818,-0.98039,16.268,4.6984,17.205999,5.7692,21.32,3.7179,1.9683,10.784,-5.9259
13.207,-1.8413,11.65,-7.8431,-8.867,-1.1594,-5.8252,-2.0065,2.8618,-7.8431,-8.867,-4.902,12.44,-0.06349,13.397,3.8462,21.32,0.83333,0.06349,8.8235,-5.9259
6.5719,-8.5079,5.8252,-9.8039,-4.9261,-3.0918,-12.621,-3.9482,-0.06504,-9.8039,-4.9261,-12.745,8.6124,-4.8254,9.5873,-1.9231,17.455999,-0.12821,1.0159,7.8431,-9.7907
-1.9589,-18.983999,-3.8835,-14.706,-10.837,-13.72,-17.476,-3.9482,-7.8699,-14.706,-10.837,-20.587999,2.8708,-11.492,1.9683,-12.5,7.7939,-1.0897,-2.7937,3.9216,-16.554001
-10.49,-24.698,-12.621,-15.686,-12.808,-23.382,-22.33,-3.9482,-7.8699,-15.686,-12.808,-22.549,-0.95694,-11.492,-4.6984,-17.308001,-1.868,-0.12821,-5.6508,1.9608,-17.52
-19.021,-24.698,-20.388,-13.725,-6.8966,-23.382,-23.301001,-3.9482,-4.9431,-13.725,-6.8966,-19.608,-2.8708,-8.6349,-12.317,-20.191999,-12.496,-0.12821,-0.88889,-3.9216,-13.655
-25.656,-19.937,-24.271999,-8.8235,1.9704,-18.551001,-10.68,-4.9191,1.8862,-8.8235,1.9704,-14.706,-6.6986,-9.5873,-21.841,-23.077,-21.191999,-1.0897,1.0159,-8.8235,-14.622
-24.708,-11.365,-20.388,4.902,15.764,-13.72,5.8252,-2.9773,7.7398,4.902,15.764,-6.8627,-8.6124,-9.5873,-26.603001,-21.153999,-26.023001,-2.0513,4.8254,-9.8039,-15.588
-17.125,-1.8413,-13.592,11.765,30.542,-5.9903,22.33,2.8479,15.545,11.765,30.542,3.9216,-8.6124,-7.6825,-24.698,-16.346001,-26.023001,-2.0513,10.54,-10.784,-12.689
-8.594,7.6825,-9.7087,24.51,45.32,4.6377,29.125999,8.6731,24.325001,24.51,45.32,13.725,-10.526,-8.6349,-22.794001,-11.538,-26.989,-0.12821,18.159,-9.8039,-12.689
-6.6983,14.349,-9.7087,32.353001,55.172001,8.5024,34.951,10.615,32.130001,32.353001,55.172001,16.667,-15.311,-9.5873,-26.603001,-7.6923,-29.886999,2.7564,20.063,-10.784,-10.757
-4.8025,16.254,-10.68,33.333,62.069,9.4686,37.863998,10.615,34.081001,33.333,62.069,16.667,-20.096001,-9.5873,-29.459999,-4.8077,-30.853001,4.6795,20.063,-10.784,-5.9259
-1.9589,16.254,-9.7087,35.293999,69.950996,13.333,38.834999,9.644,36.033001,35.293999,69.950996,18.627001,-24.879999,-10.54,-29.459999,-2.8846,-26.989,4.6795,24.825001,-10.784,-3.0274
-3.8547,12.444,-9.7087,41.175999,72.905998,10.435,34.951,5.7605,35.056999,41.175999,72.905998,14.706,-27.750999,-12.444,-27.556,-1.9231,-22.158001,-3.0128,27.683001,-12.745,-0.12882
-7.6461,5.7778,-11.65,39.216,67.980003,5.6039,28.155001,4.7896,31.153999,39.216,67.980003,9.8039,-26.794001,-14.349,-23.746,-2.8846,-20.225,-3.9744,23.872999,-13.725,4.7021
-12.385,0.06349,-14.563,37.255001,64.039001,4.6377,23.301001,6.7314,29.202999,37.255001,64.039001,6.8627,-23.923,-16.254,-20.889,-4.8077,-16.361,-3.0128,21.016001,-13.725,-1.095
-9.5419,-1.8413,-7.767,43.137001,66.010002,5.6039,12.621,6.7314,22.374001,43.137001,66.010002,6.8627,-16.268,-14.349,-13.27,-4.8077,-5.7327,-3.9744,18.159,-9.8039,-4.9597
-4.8025,-2.7937,-1.9417,43.137001,46.305,15.266,5.8252,9.644,11.642,43.137001,46.305,6.8627,-6.6986,-9.5873,-1.8413,-3.8462,1.9968,-3.0128,6.7302,-3.9216,-3.9936
-3.8547,-6.6032,-1.9417,29.412001,41.379002,13.333,7.767,7.7023,3.8374,29.412001,41.379002,3.9216,4.7847,-0.06349,5.7778,-3.8462,5.8615,-3.0128,-3.746,0.98039,-3.9936
-5.7504,-9.4603,-1.9417,26.471001,44.334999,7.5362,4.8544,5.7605,0.91057,26.471001,44.334999,2.9412,12.44,8.5079,10.54,-3.8462,5.8615,-3.0128,-6.6032,3.9216,-3.0274
-6.6983,-14.222,-7.767,23.528999,31.527,-0.19324,3.8835,-0.06472,0.91057,23.528999,31.527,2.9412,11.483,10.413,10.54,-9.6154,-2.8341,-4.9359,-5.6508,2.9412,-3.9936
-11.438,-16.127001,-18.447001,11.765,12.808,-5.9903,-1.9417,-3.9482,1.8862,11.765,12.808,0.98039,4.7847,8.5079,3.873,-15.385,-15.395,-8.7821,-9.4603,-0.98039,-5.9259
-13.333,-13.27,-20.388,0.98039,3.9409,-5.9903,-0.97087,-2.0065,0.91057,0.98039,3.9409,0.0,0.0,8.5079,-0.88889,-14.423,-22.158001,-9.7436,-2.7937,-5.8824,-3.9936
-14.281,-7.5556,-16.504999,-4.902,-5.9113,-10.821,-3.8835,-4.9191,-0.06504,-4.902,-5.9113,-3.9216,-5.7416,8.5079,-3.746,-7.6923,-24.09,-6.859,1.9683,-8.8235,4.7021
-15.229,-2.7937,-15.534,-10.784,-17.733999,-15.652,-9.7087,-7.8317,-2.9919,-10.784,-17.733999,-6.8627,-10.526,6.6032,-9.4603,-1.9231,-26.023001,-3.9744,1.0159,-9.8039,10.499
-16.177,-0.88889,-18.447001,-17.646999,-20.690001,-25.313999,-11.65,-9.7735,-3.9675,-17.646999,-20.690001,-11.765,-13.397,3.746,-16.127001,0.96154,-26.023001,-3.0128,-0.88889,-9.8039,10.499
-15.229,2.9206,-18.447001,-25.49,-19.704,-25.313999,-2.9126,-9.7735,-2.0163,-25.49,-19.704,-11.765,-17.225,0.88889,-18.032,5.7692,-25.056,-2.0513,4.8254,-9.8039,12.432
-14.281,6.7302,-18.447001,-28.431,-22.66,-17.584999,2.9126,-8.8026,-0.06504,-28.431,-22.66,-9.8039,-20.096001,-1.9683,-18.032,9.6154,-21.191999,1.7949,11.492,-9.8039,11.465
-11.438,9.5873,-14.563,-26.471001,-19.704,-15.652,-0.97087,-8.8026,0.91057,-26.471001,-19.704,-8.8235,-16.268,-1.9683,-19.937,12.5,-16.361,1.7949,5.7778,-8.8235,10.499
-5.7504,11.492,-5.8252,-20.587999,-17.733999,-11.787,0.97087,-5.89,2.8618,-20.587999,-17.733999,-5.8824,-10.526,-0.06349,-17.079,17.308001,-9.5974,-0.12821,7.6825,-4.902,10.499
-1.0111,9.5873,0.0,-12.745,-14.778,-3.0918,-0.97087,-2.0065,1.8862,-12.745,-14.778,-3.9216,-6.6986,0.88889,-10.413,17.308001,-4.7665,0.83333,6.7302,-1.9608,8.5668
4.6761,9.5873,5.8252,-8.8235,-12.808,3.6715,5.8252,1.877,0.91057,-8.8235,-12.808,-0.98039,-0.95694,6.6032,-2.7937,19.231001,2.963,1.7949,2.9206,0.98039,10.499
8.4676,12.444,13.592,-10.784,-20.690001,3.6715,3.8835,0.90615,-0.06504,-10.784,-20.690001,0.0,8.6124,17.079,6.7302,27.885,10.692,1.7949,5.7778,4.902,18.229
7.5197,8.6349,13.592,-19.608,-29.556999,-3.0918,-7.767,-4.9191,-6.8943,-19.608,-29.556999,-6.8627,16.268,23.746,9.5873,31.731001,10.692,-3.9744,5.7778,6.8627,21.127001
1.8325,0.06349,0.97087,-27.451,-37.438,-10.821,-17.476,-9.7735,-11.772,-27.451,-37.438,-16.667,16.268,27.556,4.8254,25.962,1.0306,-8.7821,1.9683,3.9216,21.127001
-6.6983,-11.365,-13.592,-30.392,-32.512001,-15.652,-17.476,-11.715,-12.748,-30.392,-32.512001,-19.608,13.397,25.650999,-3.746,14.423,-11.53,-11.667,-6.6032,0.0,19.195
-13.333,-19.937,-21.358999,-28.431,-27.586,-13.72,-19.417,-11.715,-12.748,-28.431,-27.586,-19.608,4.7847,18.983999,-11.365,0.0,-20.225,-12.628,-12.317,-3.9216,13.398
-15.229,-21.841,-19.417,-21.569,-28.570999,-9.8551,-19.417,-10.744,-12.748,-21.569,-28.570999,-15.686,0.0,10.413,-16.127001,-7.6923,-20.225,-9.7436,-11.365,-3.9216,6.6345
-18.073,-21.841,-15.534,-18.627001,-26.601,-13.72,-19.417,-10.744,-12.748,-18.627001,-26.601,-14.706,-5.7416,0.88889,-18.983999,-11.538,-19.259001,-5.8974,-12.317,-4.902,-0.12882
-20.916,-21.841,-16.504999,-23.528999,-28.570999,-15.652,-19.417,-10.744,-10.797,-23.528999,-28.570999,-13.725,-12.44,-5.7778,-23.746,-14.423,-20.225,-4.9359,-13.27,-7.8431,-3.0274
-17.125,-15.175,-13.592,-21.569,-22.66,-13.72,-10.68,-10.744,-6.8943,-21.569,-22.66,-8.8235,-15.311,-6.7302,-26.603001,-11.538,-16.361,-3.9744,-10.413,-10.784,-2.0612
-10.49,-1.8413,-3.8835,-11.765,-16.749001,-10.821,4.8544,-7.8317,0.91057,-11.765,-16.749001,-1.9608,-13.397,-4.8254,-23.746,-2.8846,-8.6312,-3.9744,-3.746,-8.8235,1.8035
-5.7504,9.5873,0.97087,-6.8627,-4.9261,-8.8889,18.447001,-6.8608,9.6911,-6.8627,-4.9261,3.9216,-10.526,-1.9683,-18.032,3.8462,-5.7327,-5.8974,5.7778,-7.8431,6.6345
-1.9589,17.205999,3.8835,-5.8824,2.9557,-5.0242,21.358999,-6.8608,17.496,-5.8824,2.9557,7.8431,-8.6124,3.746,-14.222,8.6538,-1.868,-8.7821,15.302,-6.8627,9.533
-1.0111,20.063,5.8252,-5.8824,2.9557,-4.058,19.417,-6.8608,21.398001,-5.8824,2.9557,7.8431,-7.6555,7.5556,-12.317,12.5,1.0306,-11.667,27.683001,-7.8431,14.364
-1.9589,20.063,7.767,-2.9412,1.9704,-5.9903,14.563,-6.8608,19.447001,-2.9412,1.9704,6.8627,-6.6986,6.6032,-7.5556,15.385,2.963,-11.667,27.683001,-8.8235,15.33
-1.0111,19.111,7.767,2.9412,2.9557,-4.058,17.476,-3.9482,17.496,2.9412,2.9557,7.8431,-8.6124,3.746,-2.7937,15.385,3.9291,-8.7821,21.016001,-9.8039,12.432
2.7804,18.159,9.7087,8.8235,1.9704,3.6715,21.358999,-1.0356,14.569,8.8235,1.9704,9.8039,-8.6124,0.88889,1.0159,13.462,1.9968,-8.7821,21.016001,-10.784,13.398
7.5197,16.254,8.7379,9.8039,6.8966,11.401,15.534,-0.06472,10.667,9.8039,6.8966,8.8235,-11.483,-1.9683,-0.88889,9.6154,-5.7327,-5.8974,19.111,-9.8039,12.432
6.5719,7.6825,0.97087,1.9608,1.9704,10.435,4.8544,-2.0065,2.8618,1.9608,1.9704,1.9608,-18.181999,-5.7778,-8.5079,1.9231,-16.361,-4.9359,13.397,-10.784,7.6006
5.624,-1.8413,-3.8835,4.902,-4.9261,6.57,-1.9417,-1.0356,-3.9675,4.902,-4.9261,-0.98039,-22.01,-9.5873,-14.222,-5.7692,-21.191999,-5.8974,1.0159,-10.784,-0.12882
5.624,-10.413,-1.9417,4.902,-5.9113,1.7391,-4.8544,0.90615,-12.748,4.902,-5.9113,-2.9412,-20.096001,-14.349,-10.413,-10.577,-19.259001,-4.9359,-8.5079,-8.8235,-7.8583
6.5719,-14.222,1.9417,3.9216,-11.823,4.6377,-13.592,-2.0065,-20.552999,3.9216,-11.823,-3.9216,-16.268,-15.302,-3.746,-12.5,-10.564,-3.9744,-21.841,-7.8431,-10.757
5.624,-13.27,5.8252,6.8627,-13.793,11.401,-16.504999,-0.06472,-21.528,6.8627,-13.793,0.0,-10.526,-12.444,1.0159,-17.308001,-1.868,0.83333,-31.365,-5.8824,-14.622
6.5719,-10.413,10.68,5.8824,-4.9261,14.3,-14.563,5.7605,-19.577,5.8824,-4.9261,6.8627,-4.7847,-10.54,3.873,-19.231001,4.8953,1.7949,-30.413,-4.902,-19.452
10.363,-0.88889,18.447001,7.8431,1.9704,11.401,-3.8835,3.8188,-12.748,7.8431,1.9704,14.706,0.0,-4.8254,6.7302,-13.462,11.659,5.641,-24.698,-3.9216,-19.452
13.207,8.6349,22.33,8.8235,3.9409,13.333,9.7087,3.8188,-2.9919,8.8235,3.9409,19.608,4.7847,-1.0159,6.7302,-6.7308,14.557,10.449,-15.175,-1.9608,-13.655
9.4155,11.492,18.447001,3.9216,1.9704,14.3,14.563,1.877,2.8618,3.9216,1.9704,17.646999,3.8278,2.7937,2.9206,-1.9231,11.659,7.5641,-4.6984,-2.9412,-3.0274
3.7283,10.54,10.68,-8.8235,0.98522,4.6377,14.563,1.877,4.813,-8.8235,0.98522,13.725,-1.9139,4.6984,-6.6032,-0.96154,1.9968,0.83333,1.0159,-5.8824,4.7021
-1.9589,8.6349,6.7961,-1.9608,-3.9409,2.7053,5.8252,-0.06472,3.8374,-1.9608,-3.9409,9.8039,-6.6986,4.6984,-13.27,0.0,-6.6989,-3.9744,6.7302,-6.8627,7.6006
-3.8547,6.7302,4.8544,3.9216,-8.867,-0.19324,4.8544,0.90615,3.8374,3.9216,-8.867,8.8235,-5.7416,4.6984,-13.27,2.8846,-10.564,-3.9744,5.7778,-4.902,13.398
-4.8025,2.9206,0.0,0.0,-6.8966,2.7053,3.8835,3.8188,-2.0163,0.0,-6.8966,6.8627,-5.7416,5.6508,-10.413,4.8077,-11.53,-2.0513,1.9683,-2.9412,18.229
-3.8547,-0.88889,-2.9126,-1.9608,-1.9704,-1.1594,-1.9417,-0.06472,-4.9431,-1.9608,-1.9704,3.9216,-4.7847,5.6508,-5.6508,5.7692,-7.6651,-0.12821,0.06349,-0.98039,17.261999
0.88468,-5.6508,-2.9126,-3.9216,-5.9113,-6.9565,-9.7087,-2.0065,-5.9187,-3.9216,-5.9113,-1.9608,-3.8278,2.7937,4.8254,7.6923,-0.90177,-0.12821,-0.88889,0.0,14.364
4.6761,-6.6032,0.97087,-2.9412,-11.823,-1.1594,-10.68,2.8479,-7.8699,-2.9412,-11.823,-2.9412,1.9139,3.746,16.254,10.577,7.7939,2.7564,-3.746,4.902,9.533
3.7283,-5.6508,2.9126,0.98039,-7.8818,2.7053,-6.7961,4.7896,-4.9431,0.98039,-7.8818,-0.98039,7.6555,1.8413,17.205999,8.6538,13.591,1.7949,0.06349,5.8824,3.7359
0.88468,-4.6984,2.9126,4.902,-5.9113,4.6377,-5.8252,4.7896,-2.0163,4.902,-5.9113,0.98039,7.6555,0.88889,14.349,1.9231,15.523,-3.0128,-2.7937,2.9412,-1.095
0.88468,-4.6984,4.8544,10.784,1.9704,5.6039,-2.9126,1.877,-0.06504,10.784,1.9704,2.9412,7.6555,-0.06349,12.444,-1.9231,17.455999,-3.9744,-2.7937,1.9608,-6.8921
1.8325,-3.746,8.7379,11.765,7.8818,2.7053,-0.97087,0.90615,2.8618,11.765,7.8818,1.9608,6.6986,-1.9683,9.5873,-3.8462,18.422001,-7.8205,-0.88889,0.0,-11.723
1.8325,1.9683,14.563,6.8627,9.8522,4.6377,3.8835,-1.0356,6.7642,6.8627,9.8522,3.9216,6.6986,-0.06349,7.6825,-2.8846,21.32,-3.0128,2.9206,-0.98039,-12.689
0.88468,2.9206,13.592,2.9412,7.8818,1.7391,0.97087,-6.8608,6.7642,2.9412,7.8818,1.9608,3.8278,0.88889,4.8254,-3.8462,19.388,-2.0513,-4.6984,-3.9216,-12.689
-1.9589,-0.88889,5.8252,1.9608,4.9261,-0.19324,-0.97087,-9.7735,2.8618,1.9608,4.9261,-0.98039,-0.95694,1.8413,-0.88889,-8.6538,9.7262,-4.9359,-9.4603,-7.8431,-15.588
-2.9068,-3.746,-0.97087,0.0,2.9557,1.7391,-0.97087,-11.715,2.8618,0.0,2.9557,-0.98039,-4.7847,1.8413,-4.6984,-12.5,-1.868,-4.9359,-7.5556,-7.8431,-13.655
-2.9068,-1.8413,-3.8835,-6.8627,2.9557,-1.1594,3.8835,-14.628,2.8618,-6.8627,2.9557,1.9608,-8.6124,1.8413,-6.6032,-11.538,-11.53,-8.7821,-6.6032,-9.8039,-4.9597
-3.8547,1.0159,-6.7961,-7.8431,-1.9704,-5.0242,5.8252,-16.57,3.8374,-7.8431,-1.9704,0.98039,-12.44,2.7937,-9.4603,-6.7308,-18.292999,-14.551,-0.88889,-11.765,3.7359
-9.5419,-3.746,-14.563,-11.765,0.98522,-13.72,2.9126,-19.482,5.7886,-11.765,0.98522,-5.8824,-18.181999,-1.9683,-17.079,-5.7692,-25.056,-21.282,4.8254,-10.784,6.6345
-11.438,-5.6508,-16.504999,-13.725,5.9113,-14.686,2.9126,-18.511,12.618,-13.725,5.9113,-9.8039,-17.225,-3.873,-20.889,-4.8077,-25.056,-26.09,12.444,-11.765,10.499
-7.6461,-8.5079,-11.65,-9.8039,3.9409,-12.754,1.9417,-13.657,16.52,-9.8039,3.9409,-11.765,-10.526,-4.8254,-18.032,-3.8462,-16.361,-19.358999,19.111,-7.8431,10.499
-1.9589,-11.365,-7.767,-14.706,0.98522,-16.618,-4.8544,-8.8026,17.496,-14.706,0.98522,-13.725,-5.7416,-4.8254,-9.4603,-6.7308,-8.6312,-9.7436,16.254,-1.9608,3.7359
1.8325,-13.27,-7.767,-7.8431,-1.9704,-8.8889,-14.563,-2.9773,9.6911,-7.8431,-1.9704,-14.706,-0.95694,-5.7778,-1.8413,-9.6154,-2.8341,-3.9744,12.444,1.9608,-3.0274
1.8325,-14.222,-7.767,5.8824,-7.8818,-5.0242,-13.592,3.8188,3.8374,5.8824,-7.8818,-13.725,0.95694,-3.873,1.0159,-6.7308,1.9968,1.7949,3.873,4.902,-4.9597
-1.0111,-12.317,-4.8544,9.8039,0.0,-3.0918,-12.621,7.7023,3.8374,9.8039,0.0,-10.784,-1.9139,-5.7778,1.0159,-4.8077,2.963,4.6795,1.0159,2.9412,-9.7907
-1.0111,-6.6032,-1.9417,7.8431,7.8818,6.57,-11.65,10.615,2.8618,7.8431,7.8818,-5.8824,-4.7847,-6.7302,1.9683,-3.8462,4.8953,6.6026,3.873,-0.98039,-12.689
0.88468,-0.88889,1.9417,6.8627,4.9261,2.7053,-5.8252,9.644,1.8862,6.8627,4.9261,-1.9608,-7.6555,-5.7778,-0.88889,-4.8077,3.9291,5.641,1.9683,-6.8627,-17.52
3.7283,3.873,4.8544,5.8824,4.9261,3.6715,1.9417,10.615,0.91057,5.8824,4.9261,2.9412,-9.5694,-7.6825,-4.6984,-13.462,-1.868,2.7564,1.0159,-10.784,-24.283001
1.8325,1.0159,-0.97087,3.9216,1.9704,7.5362,2.9126,9.644,-1.0407,3.9216,1.9704,4.902,-14.354,-14.349,-7.5556,-26.923,-14.428,-0.12821,-11.365,-14.706,-35.877998
-1.0111,-7.5556,-8.7379,3.9216,3.9409,2.7053,-1.9417,6.7314,-3.9675,3.9216,3.9409,1.9608,-17.225,-19.111,-8.5079,-37.5,-23.124001,-1.0897,-21.841,-14.706,-44.573002
-4.8025,-15.175,-13.592,3.9216,4.9261,-0.19324,-12.621,5.7605,-10.797,3.9216,4.9261,-2.9412,-15.311,-19.111,-6.6032,-37.5,-23.124001,0.83333,-23.746,-13.725,-43.606998
-7.6461,-19.937,-15.534,2.9412,-1.9704,-3.0918,-20.388,1.877,-16.65,2.9412,-1.9704,-6.8627,-8.6124,-15.302,-2.7937,-29.808001,-19.259001,0.83333,-27.556,-8.8235,-32.013
-8.594,-19.937,-12.621,1.9608,-6.8966,-2.1256,-21.358999,1.877,-21.528,1.9608,-6.8966,-6.8627,-0.95694,-9.5873,3.873,-20.191999,-10.564,12.372,-25.650999,0.0,-20.419001
-9.5419,-18.983999,-6.7961,1.9608,-9.8522,0.77295,-25.243,4.7896,-23.48,1.9608,-9.8522,-5.8824,7.6555,-4.8254,9.5873,-13.462,-2.8341,21.987,-20.889,7.8431,-11.723
-6.6983,-15.175,-0.97087,2.9412,-7.8818,1.7391,-16.504999,6.7314,-18.601999,2.9412,-7.8818,-2.9412,13.397,-3.873,15.302,-7.6923,3.9291,24.872,-14.222,12.745,-4.9597
3.7283,-7.5556,8.7379,3.9216,-0.98522,-1.1594,3.8835,8.6731,-5.9187,3.9216,-0.98522,2.9412,17.225,-0.06349,20.063,1.9231,12.625,21.987,-1.8413,15.686,0.83736
12.259,4.8254,22.33,0.0,11.823,8.5024,11.65,9.644,10.667,0.0,11.823,12.745,15.311,3.746,20.063,12.5,22.287001,16.218,7.6825,12.745,5.6683
18.893999,17.205999,34.951,15.686,22.66,24.927999,16.504999,15.469,19.447001,15.686,22.66,22.549,18.181999,6.6032,20.063,23.077,31.948,13.333,13.397,8.8235,12.432
22.686001,25.778,37.863998,26.471001,27.586,28.792,25.243,17.410999,20.423,26.471001,27.586,27.451,17.225,4.6984,16.254,25.0,33.881001,8.5256,19.111,4.902,12.432
23.632999,29.587,35.922001,22.549,27.586,28.792,29.125999,16.440001,23.35,22.549,27.586,31.372999,13.397,1.8413,13.397,19.231001,30.982,8.5256,21.016001,0.98039,3.7359
21.738001,27.683001,30.097,27.451,29.556999,29.757999,34.951,18.382,27.252001,27.451,29.556999,32.353001,6.6986,-4.8254,9.5873,8.6538,21.32,10.449,21.968,-3.9216,-5.9259
11.311,17.205999,13.592,20.587999,22.66,20.097,29.125999,12.557,22.374001,20.587999,22.66,22.549,-3.8278,-16.254,-1.8413,-5.7692,4.8953,5.641,14.349,-10.784,-15.588
-0.06319,1.0159,-4.8544,4.902,15.764,4.6377,12.621,2.8479,14.569,4.902,15.764,5.8824,-13.397,-21.968,-14.222,-17.308001,-7.6651,-0.12821,3.873,-11.765,-21.385
-11.438,-12.317,-16.504999,-12.745,5.9113,-13.72,0.97087,-5.89,8.7154,-12.745,5.9113,-10.784,-18.181999,-22.921,-19.937,-21.153999,-14.428,-3.9744,1.0159,-9.8039,-22.351
-17.125,-19.937,-22.33,-19.608,-7.8818,-24.348,-13.592,-13.657,-0.06504,-19.608,-7.8818,-22.549,-13.397,-13.397,-19.937,-15.385,-13.462,-8.7821,-6.6032,-5.8824,-15.588
-17.125,-22.794001,-23.301001,-20.587999,-12.808,-22.415001,-23.301001,-14.628,-7.8699,-20.587999,-12.808,-28.431,-4.7847,1.8413,-16.127001,-4.8077,-8.6312,-11.667,-13.27,0.0,-3.9936
-16.177,-23.746,-23.301001,-27.451,-20.690001,-25.313999,-24.271999,-20.452999,-15.675,-27.451,-20.690001,-33.333,2.8708,13.27,-8.5079,4.8077,-3.8003,-15.513,-15.175,3.9216,7.6006
-14.281,-24.698,-21.358999,-33.333,-30.542,-37.874001,-37.863998,-22.395,-23.48,-33.333,-30.542,-36.275002,9.5694,21.841,0.06349,14.423,2.963,-13.59,-9.4603,7.8431,18.229
-6.6983,-23.746,-19.417,-41.175999,-29.556999,-33.042999,-35.922001,-18.511,-27.382,-41.175999,-29.556999,-34.313999,17.225,25.650999,7.6825,20.191999,8.7601,-8.7821,-15.175,13.725,22.093
-0.06319,-17.079,-11.65,-31.372999,-23.645,-18.551001,-27.184,-12.686,-25.431,-31.372999,-23.645,-27.451,22.966999,26.603001,17.205999,25.962,15.523,-3.9744,-15.175,18.627001,22.093
8.4676,-4.6984,0.0,-14.706,-16.749001,-5.9903,-19.417,-2.9773,-17.625999,-14.706,-16.749001,-16.667,24.879999,27.556,24.825001,32.692001,22.287001,-0.12821,-5.6508,21.569,23.059999
16.051001,10.54,12.621,-4.902,-12.808,6.57,-5.8252,4.7896,-8.8455,-4.902,-12.808,-1.9608,23.923,28.507999,29.587,42.307999,31.948,11.41,9.5873,22.549,24.992001
18.893999,21.016001,22.33,-2.9412,-4.9261,15.266,2.9126,11.586,0.91057,-2.9412,-4.9261,9.8039,22.01,25.650999,28.635,49.037998,37.745998,21.987,18.159,18.627001,22.093
11.311,29.587,22.33,7.8431,4.9261,21.063,13.592,16.440001,9.6911,7.8431,4.9261,18.627001,13.397,17.079,19.111,46.153999,32.915001,24.872,21.968,7.8431,17.261999
0.88468,32.444,18.447001,13.725,6.8966,24.927999,16.504999,17.410999,11.642,13.725,6.8966,20.587999,4.7847,10.413,6.7302,38.462002,24.219,26.795,21.016001,-2.9412,12.432
-2.9068,26.73,11.65,5.8824,0.98522,18.164,8.7379,13.528,10.667,5.8824,0.98522,12.745,0.0,6.6032,-4.6984,28.846001,14.557,21.025999,16.254,-10.784,8.5668
-2.9068,14.349,0.0,-13.725,-6.8966,-0.19324,-2.9126,2.8479,-0.06504,-13.725,-6.8966,-0.98039,-7.6555,-0.06349,-10.413,15.385,3.9291,9.4872,4.8254,-14.706,0.83736
-1.9589,1.0159,-12.621,-18.627001,-12.808,-10.821,-12.621,-3.9482,-8.8455,-18.627001,-12.808,-12.745,-12.44,-2.9206,-14.222,0.0,-5.7327,0.83333,-4.6984,-10.784,-7.8583
-1.9589,-10.413,-18.447001,-12.745,-13.793,-12.754,-13.592,-7.8317,-10.797,-12.745,-13.793,-18.627001,-11.483,-10.54,-13.27,-16.346001,-13.462,-3.9744,-18.983999,-4.902,-16.554001
-6.6983,-18.983999,-20.388,-15.686,-13.793,-15.652,-8.7379,-12.686,-7.8699,-15.686,-13.793,-20.587999,-9.5694,-17.205999,-8.5079,-29.808001,-20.225,-5.8974,-20.889,0.98039,-22.351
-16.177,-27.556,-26.214001,-21.569,-15.764,-24.348,-14.563,-17.540001,-9.8211,-21.569,-15.764,-23.528999,-7.6555,-20.063,-9.4603,-38.462002,-27.955,-15.513,-18.983999,1.9608,-24.283001
-20.916,-30.413,-28.155001,-24.51,-12.808,-30.145,-18.447001,-16.57,-13.724,-24.51,-12.808,-23.528999,-1.9139,-17.205999,-6.6032,-40.384998,-28.921,-13.59,-18.032,5.8824,-21.385
-25.656,-30.413,-28.155001,-36.275002,-16.749001,-36.908001,-26.214001,-21.424,-14.699,-36.275002,-16.749001,-25.49,2.8708,-11.492,-0.88889,-32.692001,-26.023001,-10.705,-15.175,8.8235,-11.723
-27.551001,-24.698,-28.155001,-33.333,-19.704,-48.501999,-24.271999,-23.365999,-15.675,-33.333,-19.704,-27.451,5.7416,-5.7778,0.06349,-19.231001,-20.225,-11.667,-10.413,8.8235,-3.0274
-19.968,-12.317,-18.447001,-16.667,-13.793,-26.280001,-11.65,-13.657,-12.748,-16.667,-13.793,-20.587999,11.483,-1.0159,3.873,-2.8846,-8.6312,-8.7821,-2.7937,10.784,4.7021
-7.6461,3.873,-2.9126,-7.8431,-3.9409,-4.058,-3.8835,-6.8608,-4.9431,-7.8431,-3.9409,-7.8431,17.225,9.4603,9.5873,16.346001,3.9291,-4.9359,5.7778,12.745,16.296
6.5719,21.968,10.68,-2.9412,-1.9704,1.7391,7.767,0.90615,4.813,-2.9412,-1.9704,6.8627,15.311,15.175,12.444,28.846001,12.625,1.7949,13.397,12.745,24.992001
15.103,32.444,16.504999,0.0,8.867,12.367,17.476,6.7314,5.7886,0.0,8.867,15.686,16.268,12.317,11.492,32.692001,16.49,9.4872,22.921,14.706,24.992001
16.051001,30.540001,15.534,5.8824,13.793,18.164,13.592,12.557,4.813,5.8824,13.793,16.667,21.052999,3.746,3.873,26.923,16.49,8.5256,15.302,9.8039,16.296
16.997999,25.778,13.592,11.765,13.793,22.028999,15.534,10.615,6.7642,11.765,13.793,13.725,17.225,-4.8254,-2.7937,20.191999,19.388,5.641,10.54,4.902,7.6006
16.997999,21.968,10.68,10.784,13.793,16.232,21.358999,11.586,10.667,10.784,13.793,11.765,6.6986,-10.54,-3.746,12.5,20.354,10.449,11.492,1.9608,-2.0612
17.945999,16.254,9.7087,12.745,11.823,17.198,19.417,12.557,11.642,12.745,11.823,9.8039,3.8278,-14.349,-2.7937,5.7692,19.388,9.4872,7.6825,-0.98039,-7.8583
23.632999,12.444,13.592,19.608,10.837,24.927999,14.563,13.528,9.6911,19.608,10.837,11.765,0.95694,-15.302,1.9683,0.0,21.32,5.641,1.0159,0.98039,-13.655
26.476999,7.6825,15.534,19.608,6.8966,26.860001,12.621,15.469,6.7642,19.608,6.8966,13.725,-5.7416,-13.397,6.7302,-6.7308,22.287001,9.4872,-5.6508,4.902,-19.452
26.476999,4.8254,16.504999,12.745,6.8966,22.995001,12.621,15.469,3.8374,12.745,6.8966,15.686,-1.9139,-11.492,8.6349,-11.538,20.354,10.449,-10.413,8.8235,-16.554001
21.738001,0.06349,15.534,8.8235,4.9261,10.435,7.767,6.7314,-0.06504,8.8235,4.9261,13.725,1.9139,-3.873,8.6349,-13.462,18.422001,7.5641,-11.365,6.8627,-11.723
16.051001,-6.6032,13.592,5.8824,1.9704,2.7053,2.9126,-0.06472,-1.0407,5.8824,1.9704,11.765,-2.8708,0.88889,9.5873,-15.385,16.49,2.7564,-5.6508,6.8627,-7.8583
9.4155,-8.5079,11.65,1.9608,0.98522,-0.19324,-2.9126,-1.0356,-2.0163,1.9608,0.98522,8.8235,0.0,1.8413,6.7302,-14.423,12.625,0.83333,-6.6032,0.0,-2.0612
1.8325,-9.4603,6.7961,-2.9412,-6.8966,-4.058,-9.7087,-2.9773,-3.9675,-2.9412,-6.8966,4.902,2.8708,4.6984,1.9683,-11.538,6.8277,-3.9744,-4.6984,-5.8824,4.7021
-3.8547,-7.5556,1.9417,-8.8235,-8.867,-4.058,-10.68,-2.9773,2.8618,-8.8235,-8.867,0.98039,0.95694,6.6032,0.06349,-9.6154,2.963,-10.705,7.6825,-7.8431,10.499
-5.7504,-4.6984,-3.8835,-5.8824,-1.9704,-3.0918,-4.8544,-2.9773,4.813,-5.8824,-1.9704,0.0,-4.7847,4.6984,-0.88889,-7.6923,-4.7665,-9.7436,15.302,-7.8431,14.364
-6.6983,-2.7937,-10.68,0.98039,0.98522,-5.0242,-1.9417,-3.9482,3.8374,0.98039,0.98522,0.98039,-11.483,-3.873,-1.8413,-9.6154,-13.462,-4.9359,17.205999,-7.8431,11.465
-4.8025,1.9683,-10.68,8.8235,5.9113,-3.0918,4.8544,0.90615,6.7642,8.8235,5.9113,3.9216,-13.397,-9.5873,-1.8413,-8.6538,-17.327,-3.0128,19.111,-9.8039,10.499
-0.06319,8.6349,-6.7961,16.667,12.808,3.6715,10.68,5.7605,6.7642,16.667,12.808,9.8039,-17.225,-10.54,-0.88889,-3.8462,-18.292999,-2.0513,18.159,-10.784,12.432
1.8325,10.54,-5.8252,19.608,16.749001,10.435,13.592,9.644,7.7398,19.608,16.749001,11.765,-23.923,-10.54,-2.7937,-0.96154,-19.259001,-1.0897,14.349,-14.706,12.432
0.88468,5.7778,-9.7087,17.646999,15.764,6.57,16.504999,8.6731,6.7642,17.646999,15.764,8.8235,-28.708,-7.6825,-6.6032,0.96154,-19.259001,-1.0897,8.6349,-17.646999,12.432
-1.9589,1.9683,-13.592,12.745,3.9409,5.6039,12.621,6.7314,3.8374,12.745,3.9409,2.9412,-29.665001,-5.7778,-10.413,2.8846,-17.327,-1.0897,2.9206,-15.686,11.465
-3.8547,-0.88889,-15.534,6.8627,0.0,5.6039,8.7379,3.8188,2.8618,6.8627,0.0,-2.9412,-25.837,-6.7302,-12.317,5.7692,-14.428,-3.0128,4.8254,-11.765,9.533
-6.6983,-1.8413,-17.476,-0.98039,-0.98522,-2.1256,1.9417,-2.0065,-0.06504,-0.98039,-0.98522,-8.8235,-18.181999,-2.9206,-11.365,9.6154,-9.5974,-4.9359,6.7302,-7.8431,9.533
-9.5419,-0.88889,-13.592,2.9412,0.98522,-2.1256,0.97087,-2.9773,-2.0163,2.9412,0.98522,-9.8039,-6.6986,6.6032,-9.4603,11.538,-2.8341,-5.8974,1.9683,-4.902,11.465
-7.6461,0.06349,-8.7379,12.745,7.8818,4.6377,3.8835,3.8188,2.8618,12.745,7.8818,-2.9412,1.9139,13.27,-5.6508,9.6154,0.06441,-8.7821,-1.8413,0.0,11.465
-5.7504,0.06349,-5.8252,15.686,14.778,3.6715,6.7961,3.8188,5.7886,15.686,14.778,1.9608,7.6555,16.127001,-4.6984,7.6923,0.06441,-5.8974,-1.8413,0.98039,10.499
-5.7504,-2.7937,-3.8835,16.667,17.733999,2.7053,3.8835,3.8188,4.813,16.667,17.733999,1.9608,12.44,18.983999,-4.6984,6.7308,0.06441,-3.0128,-6.6032,0.98039,10.499
-4.8025,-2.7937,-0.97087,20.587999,28.570999,4.6377,3.8835,7.7023,4.813,20.587999,28.570999,3.9216,14.354,19.937,-1.8413,6.7308,0.06441,-2.0513,-9.4603,2.9412,11.465
-1.9589,1.0159,1.9417,25.49,38.424,8.5024,11.65,13.528,5.7886,25.49,38.424,10.784,16.268,19.937,0.06349,8.6538,2.963,4.6795,-11.365,6.8627,8.5668
7.5197,5.7778,8.7379,37.255001,45.32,17.198,19.417,19.353001,7.7398,37.255001,45.32,19.608,16.268,19.937,1.0159,11.538,5.8615,10.449,-6.6032,8.8235,7.6006
14.155,9.5873,16.504999,50.98,53.202,20.097,17.476,25.177999,10.667,50.98,53.202,25.49,10.526,17.079,1.9683,15.385,7.7939,18.141001,-1.8413,8.8235,8.5668
15.103,10.54,14.563,51.960999,57.143002,21.063,10.68,26.149,15.545,51.960999,57.143002,24.51,4.7847,10.413,-1.8413,14.423,6.8277,17.179001,9.5873,6.8627,5.6683
10.363,7.6825,6.7961,42.157001,51.231998,11.401,11.65,19.353001,23.35,42.157001,51.231998,16.667,-4.7847,2.7937,-10.413,9.6154,1.0306,9.4872,22.921,-0.98039,3.7359
4.6761,5.7778,0.97087,36.275002,43.349998,11.401,11.65,12.557,25.301001,36.275002,43.349998,11.765,-5.7416,-0.06349,-13.27,4.8077,-3.8003,0.83333,21.016001,-5.8824,3.7359
3.7283,9.5873,4.8544,31.372999,41.379002,16.232,12.621,8.6731,26.275999,31.372999,41.379002,11.765,-0.95694,0.88889,-8.5079,4.8077,-2.8341,2.7564,21.968,-6.8627,2.7697
4.6761,15.302,11.65,25.49,33.498001,10.435,15.534,5.7605,27.252001,25.49,33.498001,11.765,3.8278,5.6508,-1.8413,7.6923,2.963,3.7179,23.872999,-5.8824,1.8035
4.6761,17.205999,15.534,19.608,27.586,7.5362,14.563,2.8479,25.301001,19.608,27.586,7.8431,7.6555,6.6032,5.7778,9.6154,5.8615,2.7564,19.111,0.0,4.7021
-0.06319,15.302,12.621,11.765,21.674999,-4.058,11.65,-2.9773,17.496,11.765,21.674999,1.9608,10.526,6.6032,10.54,9.6154,5.8615,-1.0897,9.5873,2.9412,4.7021
-4.8025,13.397,7.767,1.9608,2.9557,-14.686,8.7379,-5.89,8.7154,1.9608,2.9557,-1.9608,9.5694,9.4603,10.54,9.6154,3.9291,-3.9744,2.9206,3.9216,6.6345
-6.6983,9.5873,3.8835,0.98039,2.9557,2.7053,3.8835,-2.0065,3.8374,0.98039,2.9557,-2.9412,8.6124,7.5556,8.6349,8.6538,1.0306,-3.0128,5.7778,3.9216,5.6683
-3.8547,9.5873,6.7961,0.98039,3.9409,6.57,-0.97087,-4.9191,1.8862,0.98039,3.9409,-0.98039,9.5694,9.4603,12.444,10.577,4.8953,-3.9744,3.873,4.902,7.6006
1.8325,14.349,14.563,0.0,-0.98522,2.7053,4.8544,-4.9191,0.91057,0.0,-0.98522,1.9608,12.44,13.27,16.254,16.346001,11.659,-3.0128,1.0159,6.8627,11.465
3.7283,14.349,18.447001,-2.9412,-1.9704,3.6715,8.7379,-2.0065,-2.0163,-2.9412,-1.9704,3.9216,13.397,12.317,15.302,18.268999,14.557,1.7949,1.9683,7.8431,12.432
2.7804,9.5873,13.592,-2.9412,-6.8966,5.6039,1.9417,2.8479,-1.0407,-2.9412,-6.8966,1.9608,11.483,6.6032,10.54,16.346001,12.625,2.7564,5.7778,6.8627,12.432
0.88468,5.7778,6.7961,-4.902,-14.778,2.7053,0.97087,1.877,-6.8943,-4.902,-14.778,0.98039,10.526,0.88889,4.8254,13.462,11.659,4.6795,1.0159,7.8431,8.5668
-1.0111,0.06349,-1.9417,-6.8627,-15.764,0.77295,-1.9417,0.90615,-9.8211,-6.8627,-15.764,-0.98039,10.526,-1.9683,-1.8413,9.6154,4.8953,9.4872,-5.6508,6.8627,3.7359
-2.9068,-3.746,-6.7961,-4.902,-13.793,-0.19324,-2.9126,2.8479,-7.8699,-4.902,-13.793,-2.9412,6.6986,-2.9206,-4.6984,3.8462,0.06441,10.449,-7.5556,4.902,0.83736
-2.9068,-7.5556,-9.7087,-12.745,-17.733999,2.7053,-2.9126,2.8479,-8.8455,-12.745,-17.733999,-4.902,2.8708,-5.7778,-3.746,-2.8846,-1.868,10.449,-11.365,5.8824,-5.9259
-2.9068,-11.365,-8.7379,-11.765,-23.645,7.5362,-8.7379,3.8188,-10.797,-11.765,-23.645,-5.8824,2.8708,-7.6825,0.06349,-6.7308,-3.8003,13.333,-12.317,6.8627,-9.7907
-1.0111,-11.365,-5.8252,-8.8235,-24.631001,5.6039,-8.7379,2.8479,-10.797,-8.8235,-24.631001,-5.8824,0.95694,-2.9206,5.7778,-8.6538,-3.8003,13.333,-8.5079,6.8627,-5.9259
7.5197,-8.5079,0.0,-10.784,-24.631001,0.77295,-3.8835,-0.06472,-8.8455,-10.784,-24.631001,-1.9608,0.95694,1.8413,9.5873,-8.6538,-2.8341,12.372,-8.5079,8.8235,-2.0612
11.311,-10.413,1.9417,-9.8039,-26.601,-1.1594,-6.7961,-2.9773,-7.8699,-9.8039,-26.601,-0.98039,-3.8278,-1.0159,10.54,-14.423,-7.6651,5.641,-8.5079,9.8039,-4.9597
6.5719,-14.222,0.0,-12.745,-20.690001,-1.1594,-7.767,-3.9482,-3.9675,-12.745,-20.690001,0.0,-3.8278,-1.9683,5.7778,-21.153999,-13.462,2.7564,-8.5079,6.8627,-7.8583
-0.06319,-14.222,-3.8835,-8.8235,-16.749001,-1.1594,-6.7961,-2.9773,-5.9187,-8.8235,-16.749001,0.0,-2.8708,-5.7778,-3.746,-28.846001,-19.259001,2.7564,-9.4603,0.98039,-12.689
-5.7504,-12.317,-4.8544,-15.686,-17.733999,4.6377,-7.767,-4.9191,-7.8699,-15.686,-17.733999,-0.98039,-6.6986,-8.6349,-7.5556,-31.731001,-22.158001,-0.12821,-7.5556,-2.9412,-15.588
-5.7504,-7.5556,-1.9417,-18.627001,-13.793,5.6039,0.0,-5.89,0.91057,-18.627001,-13.793,0.0,-7.6555,-6.7302,-5.6508,-25.962,-19.259001,-3.0128,-2.7937,-3.9216,-12.689
-5.7504,-4.6984,-1.9417,-12.745,-17.733999,-6.9565,-4.8544,-13.657,3.8374,-12.745,-17.733999,-2.9412,-8.6124,-7.6825,-5.6508,-19.231001,-17.327,-7.8205,2.9206,-5.8824,-9.7907
-3.8547,-2.7937,0.97087,-10.784,-15.764,-4.058,0.97087,-15.599,5.7886,-10.784,-15.764,-1.9608,-5.7416,-7.6825,0.06349,-10.577,-10.564,-8.7821,3.873,-3.9216,-5.9259
0.88468,1.0159,6.7961,-8.8235,-4.9261,1.7391,7.767,-8.8026,4.813,-8.8235,-4.9261,4.902,-5.7416,-8.6349,8.6349,-1.9231,-0.90177,-6.859,2.9206,-2.9412,-3.0274
9.4155,8.6349,12.621,-2.9412,-0.98522,2.7053,10.68,-6.8608,1.8862,-2.9412,-0.98522,13.725,-6.6986,-7.6825,12.444,4.8077,6.8277,-8.7821,3.873,-2.9412,2.7697
15.103,15.302,17.476,0.98039,-0.98522,8.5024,13.592,-2.0065,0.91057,0.98039,-0.98522,18.627001,-4.7847,-2.9206,11.492,11.538,14.557,-7.8205,0.06349,-4.902,8.5668
16.051001,18.159,20.388,0.98039,0.0,12.367,12.621,-2.0065,-1.0407,0.98039,0.0,20.587999,-4.7847,3.746,9.5873,16.346001,19.388,-6.859,-2.7937,-1.9608,15.33
16.997999,20.063,23.301001,0.98039,-6.8966,10.435,12.621,-4.9191,-0.06504,0.98039,-6.8966,20.587999,0.95694,10.413,5.7778,18.268999,24.219,-6.859,-0.88889,0.0,14.364
16.997999,21.968,27.184,0.98039,-6.8966,5.6039,13.592,-6.8608,-1.0407,0.98039,-6.8966,19.608,6.6986,13.27,6.7302,18.268999,29.049999,-10.705,1.9683,2.9412,14.364
13.207,20.063,27.184,-5.8824,-16.749001,5.6039,8.7379,-8.8026,-2.0163,-5.8824,-16.749001,16.667,12.44,14.222,9.5873,16.346001,30.016001,-8.7821,3.873,4.902,13.398
4.6761,11.492,17.476,-11.765,-17.733999,-1.1594,-0.97087,-13.657,-2.0163,-11.765,-17.733999,3.9216,15.311,17.079,6.7302,11.538,24.219,-7.8205,3.873,2.9412,8.5668
-7.6461,0.06349,1.9417,-15.686,-14.778,-14.686,-7.767,-16.57,-4.9431,-15.686,-14.778,-8.8235,14.354,15.175,-1.8413,0.96154,11.659,-11.667,1.9683,0.98039,2.7697
-19.021,-11.365,-14.563,-26.471001,-19.704,-26.280001,-9.7087,-18.511,-7.8699,-26.471001,-19.704,-17.646999,6.6986,6.6032,-10.413,-14.423,-5.7327,-16.474001,-3.746,-2.9412,-6.8921
-23.76,-18.983999,-25.243,-22.549,-16.749001,-29.179001,-5.8252,-16.57,-5.9187,-22.549,-16.749001,-19.608,-3.8278,-3.873,-18.983999,-27.885,-22.158001,-18.396999,-5.6508,-8.8235,-17.52
-20.916,-19.937,-27.184,-11.765,-11.823,-20.483,-8.7379,-8.8026,-2.9919,-11.765,-11.823,-14.706,-17.225,-9.5873,-22.794001,-31.731001,-29.886999,-18.396999,-6.6032,-10.784,-22.351
-19.021,-19.937,-27.184,-10.784,-13.793,-16.618,-11.65,-7.8317,-4.9431,-10.784,-13.793,-12.745,-21.052999,-15.302,-23.746,-29.808001,-33.751999,-17.436001,-4.6984,-14.706,-18.486
-18.073,-18.983999,-28.155001,-19.608,-16.749001,-26.280001,-10.68,-10.744,-6.8943,-19.608,-16.749001,-15.686,-22.01,-15.302,-23.746,-21.153999,-33.751999,-19.358999,1.0159,-19.608,-10.757
-15.229,-12.317,-19.417,-15.686,-17.733999,-21.448999,-11.65,-11.715,-5.9187,-15.686,-17.733999,-15.686,-20.096001,-7.6825,-19.937,-5.7692,-22.158001,-19.358999,-0.88889,-20.587999,-3.0274
-8.594,1.9683,-3.8835,-15.686,-14.778,-9.8551,-4.8544,-11.715,-1.0407,-15.686,-14.778,-10.784,-13.397,4.6984,-10.413,14.423,-3.8003,-19.358999,1.0159,-18.627001,7.6006
-0.06319,13.397,10.68,-4.902,-10.837,-2.1256,1.9417,-4.9191,-1.0407,-4.902,-10.837,0.0,-3.8278,17.079,1.0159,28.846001,13.591,-14.551,7.6825,-14.706,18.229
10.363,20.063,19.417,7.8431,-0.98522,10.435,6.7961,-0.06472,-2.0163,7.8431,-0.98522,7.8431,8.6124,24.698,10.54,35.577,27.118,-10.705,7.6825,-9.8039,22.093
16.997999,22.921,24.271999,10.784,6.8966,22.995001,8.7379,4.7896,0.91057,10.784,6.8966,12.745,19.139,29.459999,21.016001,36.537998,34.847,-2.0513,8.6349,-1.9608,19.195
18.893999,21.016001,22.33,11.765,4.9261,22.028999,7.767,6.7314,1.8862,11.765,4.9261,12.745,25.837,29.459999,27.683001,31.731001,35.813,3.7179,7.6825,3.9216,12.432
20.790001,14.349,14.563,7.8431,-2.9557,20.097,8.7379,6.7314,-1.0407,7.8431,-2.9557,8.8235,30.622,28.507999,28.635,23.077,32.915001,3.7179,2.9206,8.8235,5.6683
22.686001,6.7302,9.7087,0.98039,-4.9261,19.129999,0.97087,4.7896,-7.8699,0.98039,-4.9261,3.9216,32.535999,28.507999,30.540001,16.346001,30.016001,5.641,-1.8413,13.725,2.7697
22.686001,2.9206,9.7087,-2.9412,-2.9557,13.333,-2.9126,2.8479,-7.8699,-2.9412,-2.9557,0.98039,33.493,26.603001,30.540001,13.462,27.118,6.6026,-3.746,16.667,0.83736
17.945999,0.06349,7.767,0.0,-3.9409,8.5024,-3.8835,1.877,-11.772,0.0,-3.9409,0.98039,33.493,22.794001,25.778,12.5,24.219,8.5256,-9.4603,19.608,-2.0612
8.4676,-7.5556,0.97087,-0.98039,-7.8818,-0.19324,-9.7087,-3.9482,-19.577,-0.98039,-7.8818,-3.9216,29.665001,12.317,17.205999,8.6538,16.49,6.6026,-16.127001,16.667,-3.9936
-1.9589,-16.127001,-6.7961,-8.8235,-16.749001,-9.8551,-20.388,-5.89,-24.455,-8.8235,-16.749001,-10.784,22.966999,7.5556,9.5873,2.8846,7.7939,2.7564,-21.841,15.686,-3.0274
-8.594,-20.889,-10.68,-14.706,-22.66,-14.686,-29.125999,-6.8608,-32.259998,-14.706,-22.66,-17.646999,19.139,5.6508,4.8254,-0.96154,2.963,2.7564,-27.556,16.667,-3.9936
-9.5419,-20.889,-9.7087,-17.646999,-20.690001,-14.686,-28.155001,-4.9191,-34.210999,-17.646999,-20.690001,-18.627001,15.311,-0.06349,2.9206,-6.7308,1.0306,8.5256,-28.507999,15.686,-7.8583
-6.6983,-19.937,-5.8252,-16.667,-14.778,-9.8551,-26.214001,-0.06472,-32.259998,-16.667,-14.778,-14.706,12.44,-2.9206,3.873,-10.577,1.0306,12.372,-30.413,14.706,-10.757
-1.0111,-17.079,0.97087,-8.8235,-7.8818,-6.9565,-22.33,6.7314,-24.455,-8.8235,-7.8818,-6.8627,13.397,-1.9683,4.8254,-10.577,6.8277,11.41,-27.556,13.725,-11.723
2.7804,-15.175,3.8835,2.9412,-1.9704,2.7053,-17.476,9.644,-20.552999,2.9412,-1.9704,-0.98039,13.397,1.8413,3.873,-7.6923,10.692,9.4872,-23.746,8.8235,-9.7907
0.88468,-17.079,0.0,9.8039,2.9557,8.5024,-14.563,8.6731,-17.625999,9.8039,2.9557,-0.98039,9.5694,2.7937,1.9683,-7.6923,7.7939,5.641,-18.983999,3.9216,-8.8245
-4.8025,-20.889,-6.7961,10.784,0.98522,4.6377,-21.358999,7.7023,-14.699,10.784,0.98522,-4.902,4.7847,0.88889,-4.6984,-13.462,-0.90177,2.7564,-18.983999,-0.98039,-11.723
-9.5419,-24.698,-12.621,3.9216,-0.98522,-8.8889,-16.504999,6.7314,-17.625999,3.9216,-0.98522,-6.8627,-0.95694,-1.9683,-11.365,-22.115,-10.564,1.7949,-24.698,-5.8824,-18.486
-7.6461,-28.507999,-15.534,6.8627,0.0,-5.0242,-19.417,7.7023,-15.675,6.8627,0.0,-6.8627,-3.8278,-6.7302,-13.27,-28.846001,-19.259001,2.7564,-26.603001,-7.8431,-25.25
-6.6983,-29.459999,-15.534,12.745,-1.9704,9.4686,-17.476,8.6731,-13.724,12.745,-1.9704,-6.8627,-6.6986,-11.492,-14.222,-32.692001,-22.158001,0.83333,-22.794001,-6.8627,-30.080999
-8.594,-27.556,-16.504999,8.8235,-4.9261,11.401,-15.534,6.7314,-10.797,8.8235,-4.9261,-10.784,-10.526,-17.205999,-17.079,-35.577,-25.056,6.6026,-15.175,-5.8824,-33.945
-9.5419,-24.698,-17.476,-8.8235,-7.8818,-3.0918,-15.534,6.7314,-6.8943,-8.8235,-7.8818,-14.706,-17.225,-23.872999,-17.079,-36.537998,-27.955,7.5641,-7.5556,-9.8039,-32.013
-9.5419,-23.746,-20.388,-18.627001,-19.704,-12.754,-17.476,0.90615,-6.8943,-18.627001,-19.704,-20.587999,-20.096001,-25.778,-16.127001,-35.577,-28.921,3.7179,-7.5556,-8.8235,-31.047001
-8.594,-20.889,-19.417,-15.686,-22.66,-19.517,-14.563,-2.0065,-7.8699,-15.686,-22.66,-22.549,-15.311,-21.016001,-14.222,-30.768999,-24.09,2.7564,-9.4603,-2.9412,-25.25
-7.6461,-17.079,-16.504999,-17.646999,-17.733999,-13.72,-14.563,-5.89,-6.8943,-17.646999,-17.733999,-21.569,-8.6124,-14.349,-10.413,-21.153999,-17.327,-0.12821,-13.27,0.98039,-15.588
-8.594,-12.317,-14.563,-19.608,-15.764,-10.821,-17.476,-7.8317,-10.797,-19.608,-15.764,-20.587999,-4.7847,-7.6825,-7.5556,-11.538,-10.564,-2.0513,-13.27,2.9412,-5.9259
-5.7504,-5.6508,-10.68,-13.725,-12.808,-3.0918,-8.7379,-2.9773,-8.8455,-13.725,-12.808,-14.706,-2.8708,0.88889,-6.6032,-2.8846,-1.868,0.83333,-8.5079,2.9412,0.83736
-4.8025,-3.746,-5.8252,-15.686,-13.793,-5.9903,-4.8544,-5.89,-8.8455,-15.686,-13.793,-11.765,-2.8708,4.6984,-8.5079,0.96154,-0.90177,-3.0128,-5.6508,0.98039,3.7359
-2.9068,-4.6984,-2.9126,-22.549,-13.793,-5.9903,-8.7379,-7.8317,-12.748,-22.549,-13.793,-11.765,-3.8278,7.5556,-7.5556,0.0,-1.868,-2.0513,-7.5556,1.9608,5.6683
-0.06319,-3.746,-2.9126,-20.587999,-16.749001,-5.9903,-9.7087,-5.89,-14.699,-20.587999,-16.749001,-10.784,-6.6986,9.4603,-8.5079,-0.96154,-2.8341,2.7564,-9.4603,0.98039,6.6345
1.8325,-5.6508,-1.9417,-4.902,-16.749001,-8.8889,-10.68,-4.9191,-15.675,-4.902,-16.749001,-13.725,-6.6986,7.5556,-11.365,-1.9231,-4.7665,3.7179,-9.4603,0.0,7.6006
4.6761,-7.5556,0.0,-7.8431,-15.764,-11.787,-14.563,-2.0065,-14.699,-7.8431,-15.764,-16.667,-9.5694,0.88889,-12.317,-3.8462,-6.6989,2.7564,-9.4603,-0.98039,2.7697
6.5719,-6.6032,0.97087,-14.706,-17.733999,6.57,-14.563,0.90615,-13.724,-14.706,-17.733999,-17.646999,-9.5694,-3.873,-13.27,-3.8462,-7.6651,4.6795,-5.6508,1.9608,-2.0612
7.5197,-2.7937,2.9126,-11.765,-19.704,13.333,-12.621,5.7605,-13.724,-11.765,-19.704,-19.608,-7.6555,-8.6349,-10.413,-6.7308,-7.6651,7.5641,-7.5556,3.9216,-6.8921
4.6761,-3.746,0.97087,-16.667,-23.645,-0.19324,-9.7087,3.8188,-12.748,-16.667,-23.645,-23.528999,-6.6986,-11.492,-7.5556,-9.6154,-8.6312,5.641,-10.413,2.9412,-10.757
4.6761,-3.746,0.0,-17.646999,-20.690001,-1.1594,-7.767,6.7314,-8.8455,-17.646999,-20.690001,-25.49,-7.6555,-11.492,-3.746,-10.577,-8.6312,8.5256,-8.5079,4.902,-12.689
3.7283,-0.88889,3.8835,-17.646999,-24.631001,-5.0242,-9.7087,3.8188,-10.797,-17.646999,-24.631001,-25.49,-7.6555,-10.54,1.0159,-5.7692,-5.7327,10.449,-8.5079,4.902,-11.723
1.8325,1.0159,5.8252,-18.627001,-24.631001,-7.9227,-11.65,0.90615,-16.65,-18.627001,-24.631001,-27.451,-11.483,-7.6825,6.7302,1.9231,-2.8341,7.5641,-11.365,3.9216,-3.9936
1.8325,3.873,7.767,-14.706,-22.66,-12.754,-12.621,-0.06472,-16.65,-14.706,-22.66,-29.412001,-8.6124,-2.9206,6.7302,8.6538,1.9968,4.6795,-10.413,-0.98039,3.7359
1.8325,7.6825,8.7379,-14.706,-19.704,-12.754,-7.767,-0.06472,-15.675,-14.706,-19.704,-25.49,-4.7847,-0.06349,6.7302,12.5,6.8277,4.6795,-8.5079,-1.9608,7.6006
0.88468,9.5873,11.65,-13.725,-10.837,-10.821,-1.9417,-2.0065,-15.675,-13.725,-10.837,-20.587999,-2.8708,2.7937,8.6349,15.385,10.692,2.7564,-8.5079,-0.98039,9.533
7.5197,15.302,20.388,-4.902,-2.9557,-4.058,4.8544,1.877,-10.797,-4.902,-2.9557,-11.765,4.7847,9.4603,10.54,21.153999,17.455999,3.7179,-3.746,1.9608,16.296
13.207,21.968,27.184,2.9412,8.867,0.77295,11.65,5.7605,-3.9675,2.9412,8.867,-3.9216,10.526,15.175,13.397,26.923,22.287001,4.6795,-2.7937,5.8824,21.127001
16.051001,22.921,29.125999,9.8039,16.749001,5.6039,15.534,6.7314,-3.9675,9.8039,16.749001,1.9608,13.397,17.079,16.254,27.885,23.253,13.333,-2.7937,11.765,23.059999
14.155,19.111,23.301001,20.587999,23.645,5.6039,17.476,11.586,-3.9675,20.587999,23.645,1.9608,10.526,15.175,14.349,23.077,20.354,20.063999,-3.746,13.725,19.195
10.363,10.54,10.68,25.49,32.512001,4.6377,17.476,16.440001,-0.06504,25.49,32.512001,0.98039,6.6986,9.4603,7.6825,12.5,8.7601,20.063999,-6.6032,10.784,10.499
9.4155,5.7778,5.8252,25.49,38.424,8.5024,14.563,19.353001,2.8618,25.49,38.424,3.9216,2.8708,1.8413,4.8254,2.8846,-1.868,17.179001,-4.6984,11.765,3.7359
9.4155,5.7778,5.8252,26.471001,40.394001,6.57,10.68,20.323999,-0.06504,26.471001,40.394001,5.8824,0.0,-3.873,5.7778,0.96154,-5.7327,16.218,-7.5556,11.765,-0.12882
5.624,5.7778,5.8252,30.392,37.438,12.367,6.7961,17.410999,-2.9919,30.392,37.438,0.98039,-1.9139,-9.5873,1.9683,-1.9231,-6.6989,16.218,-13.27,11.765,-5.9259
2.7804,1.9683,7.767,33.333,28.570999,21.063,3.8835,21.294001,-5.9187,33.333,28.570999,0.98039,-2.8708,-16.254,1.0159,-6.7308,-7.6651,15.256,-12.317,12.745,-13.655
4.6761,1.0159,9.7087,31.372999,27.586,19.129999,0.0,22.264999,-6.8943,31.372999,27.586,5.8824,-2.8708,-18.159,2.9206,-8.6538,-5.7327,11.41,-16.127001,12.745,-16.554001
9.4155,4.8254,12.621,26.471001,33.498001,15.266,8.7379,17.410999,-3.9675,26.471001,33.498001,13.725,-4.7847,-15.302,5.7778,-3.8462,1.0306,8.5256,-15.175,11.765,-12.689
9.4155,6.7302,14.563,18.627001,31.527,11.401,12.621,13.528,-2.9919,18.627001,31.527,17.646999,-2.8708,-9.5873,4.8254,1.9231,5.8615,7.5641,-8.5079,7.8431,-4.9597
7.5197,5.7778,11.65,12.745,29.556999,10.435,14.563,8.6731,-0.06504,12.745,29.556999,15.686,2.8708,-0.06349,4.8254,6.7308,9.7262,4.6795,-1.8413,4.902,2.7697
6.5719,8.6349,12.621,5.8824,17.733999,-0.19324,3.8835,3.8188,4.813,5.8824,17.733999,12.745,8.6124,7.5556,7.6825,13.462,14.557,-0.12821,5.7778,5.8824,10.499
8.4676,12.444,17.476,6.8627,4.9261,-0.19324,2.9126,5.7605,6.7642,6.8627,4.9261,14.706,12.44,13.27,11.492,18.268999,18.422001,0.83333,7.6825,6.8627,17.261999
11.311,13.397,19.417,6.8627,5.9113,-2.1256,5.8252,6.7314,8.7154,6.8627,5.9113,15.686,8.6124,17.079,12.444,22.115,17.455999,4.6795,9.5873,6.8627,20.160999
14.155,12.444,17.476,-3.9216,5.9113,1.7391,5.8252,8.6731,9.6911,-3.9216,5.9113,16.667,5.7416,16.127001,11.492,20.191999,13.591,10.449,12.444,4.902,18.229
16.051001,12.444,15.534,0.0,6.8966,19.129999,11.65,15.469,9.6911,0.0,6.8966,20.587999,2.8708,10.413,11.492,16.346001,9.7262,15.256,12.444,4.902,14.364
17.945999,11.492,12.621,9.8039,13.793,21.063,10.68,23.236,13.593,9.8039,13.793,22.549,-0.95694,5.6508,11.492,11.538,6.8277,18.141001,9.5873,3.9216,9.533
19.841999,10.54,9.7087,13.725,14.778,22.995001,11.65,24.207001,14.569,13.725,14.778,23.528999,0.0,-0.06349,10.54,5.7692,3.9291,16.218,5.7778,3.9216,1.8035
16.997999,8.6349,6.7961,14.706,12.808,31.691,16.504999,21.294001,17.496,14.706,12.808,25.49,0.0,-4.8254,6.7302,-0.96154,0.06441,13.333,8.6349,1.9608,-4.9597
12.259,8.6349,5.8252,14.706,21.674999,30.725,23.301001,19.353001,25.301001,14.706,21.674999,28.431,-1.9139,-9.5873,3.873,-1.9231,-1.868,12.372,14.349,0.98039,-5.9259
8.4676,9.5873,3.8835,14.706,23.645,24.927999,21.358999,16.440001,25.301001,14.706,23.645,28.431,-2.8708,-12.444,3.873,-1.9231,1.0306,11.41,17.205999,2.9412,-8.8245
8.4676,9.5873,2.9126,12.745,21.674999,18.164,22.33,12.557,25.301001,12.745,21.674999,28.431,-2.8708,-15.302,4.8254,-1.9231,2.963,6.6026,19.111,1.9608,-8.8245
2.7804,7.6825,0.0,14.706,12.808,17.198,19.417,7.7023,26.275999,14.706,12.808,23.528999,-4.7847,-17.205999,2.9206,-2.8846,1.9968,3.7179,21.968,-1.9608,-7.8583
-0.06319,6.7302,-3.8835,13.725,8.867,16.232,17.476,5.7605,29.202999,13.725,8.867,18.627001,-5.7416,-15.302,3.873,-1.9231,3.9291,2.7564,29.587,-1.9608,-3.0274
-1.0111,8.6349,-2.9126,9.8039,13.793,6.57,17.476,4.7896,33.105999,9.8039,13.793,14.706,-5.7416,-11.492,5.7778,1.9231,6.8277,0.83333,32.444,-3.9216,1.8035
-1.9589,12.444,0.97087,6.8627,8.867,0.77295,21.358999,4.7896,33.105999,6.8627,8.867,14.706,-5.7416,-4.8254,5.7778,8.6538,9.7262,-6.859,30.540001,-5.8824,8.5668
-2.9068,14.349,2.9126,1.9608,9.8522,5.6039,23.301001,1.877,35.056999,1.9608,9.8522,14.706,-3.8278,2.7937,2.9206,13.462,11.659,-5.8974,31.492001,-10.784,16.296
-8.594,13.397,-0.97087,0.98039,12.808,7.5362,20.388,-2.9773,35.056999,0.98039,12.808,12.745,-2.8708,6.6032,-1.8413,14.423,6.8277,-0.12821,35.301998,-11.765,21.127001
-8.594,13.397,-7.767,6.8627,19.704,4.6377,25.243,-3.9482,37.007999,6.8627,19.704,13.725,-2.8708,9.4603,-4.6984,12.5,0.06441,0.83333,35.301998,-9.8039,23.059999
-1.9589,12.444,-9.7087,10.784,25.615999,6.57,27.184,-2.0065,40.910999,10.784,25.615999,17.646999,-4.7847,9.4603,-7.5556,9.6154,-4.7665,-2.0513,37.206001,-9.8039,20.160999
4.6761,10.54,-7.767,8.8235,27.586,-3.0918,32.039001,-1.0356,38.959,8.8235,27.586,21.569,-4.7847,5.6508,-7.5556,7.6923,-7.6651,-3.0128,36.254002,-5.8824,16.296
4.6761,8.6349,-8.7379,5.8824,21.674999,-4.058,28.155001,0.90615,38.959,5.8824,21.674999,21.569,-6.6986,-1.9683,-8.5079,5.7692,-12.496,-3.0128,34.348999,-4.902,12.432
-0.06319,5.7778,-10.68,2.9412,19.704,0.77295,27.184,-2.0065,39.935001,2.9412,19.704,16.667,-10.526,-5.7778,-10.413,4.8077,-13.462,-2.0513,35.301998,-3.9216,10.499
-7.6461,2.9206,-14.563,-3.9216,17.733999,-6.9565,25.243,-5.89,37.984001,-3.9216,17.733999,8.8235,-11.483,-7.6825,-15.175,5.7692,-13.462,-4.9359,36.254002,-5.8824,9.533
-16.177,2.9206,-13.592,-2.9412,14.778,-11.787,21.358999,-7.8317,37.984001,-2.9412,14.778,3.9216,-13.397,-8.6349,-14.222,9.6154,-8.6312,-11.667,36.254002,-8.8235,9.533
-20.916,6.7302,-11.65,2.9412,14.778,-13.72,22.33,-6.8608,43.837002,2.9412,14.778,3.9216,-7.6555,-1.9683,-12.317,15.385,0.06441,-11.667,41.967999,-10.784,13.398
-22.812,10.54,-10.68,2.9412,20.690001,-14.686,17.476,-5.89,40.910999,2.9412,20.690001,6.8627,-2.8708,3.746,-13.27,19.231001,3.9291,-11.667,40.063,-13.725,16.296
-28.499001,7.6825,-15.534,5.8824,20.690001,-15.652,14.563,-5.89,36.033001,5.8824,20.690001,6.8627,-4.7847,3.746,-15.175,19.231001,1.9968,-16.474001,34.348999,-16.667,16.296
-28.499001,8.6349,-19.417,4.902,24.631001,-21.448999,17.476,-9.7735,38.959,4.902,24.631001,9.8039,-11.483,4.6984,-12.317,18.268999,0.06441,-17.436001,35.301998,-14.706,15.33
-26.603001,8.6349,-18.447001,10.784,25.615999,-14.686,19.417,-10.744,38.959,10.784,25.615999,14.706,-9.5694,1.8413,-13.27,15.385,-1.868,-15.513,35.301998,-15.686,13.398
-23.76,5.7778,-18.447001,20.587999,26.601,-8.8889,18.447001,-11.715,38.959,20.587999,26.601,19.608,-8.6124,-1.0159,-16.127001,10.577,-8.6312,-16.474001,35.301998,-16.667,12.432
-19.968,4.8254,-19.417,27.451,28.570999,-4.058,23.301001,-12.686,36.033001,27.451,28.570999,21.569,-15.311,-3.873,-17.079,0.96154,-18.292999,-15.513,31.492001,-15.686,8.5668
-15.229,1.0159,-19.417,28.431,33.498001,1.7391,25.243,-10.744,32.130001,28.431,33.498001,23.528999,-15.311,-5.7778,-15.175,-9.6154,-26.989,-11.667,23.872999,-10.784,4.7021
-11.438,-6.6032,-20.388,25.49,28.570999,1.7391,17.476,-11.715,26.275999,25.49,28.570999,22.549,-11.483,-4.8254,-9.4603,-15.385,-31.82,-13.59,19.111,-3.9216,3.7359
-9.5419,-11.365,-20.388,20.587999,25.615999,0.77295,5.8252,-13.657,17.496,20.587999,25.615999,17.646999,-7.6555,-5.7778,-2.7937,-15.385,-27.955,-9.7436,11.492,0.98039,1.8035
-6.6983,-11.365,-14.563,14.706,25.615999,-4.058,1.9417,-16.57,17.496,14.706,25.615999,12.745,2.8708,-4.8254,2.9206,-10.577,-18.292999,-2.0513,13.397,6.8627,1.8035
-0.06319,-9.4603,-6.7961,0.0,18.719,-16.618,-2.9126,-23.365999,16.52,0.0,18.719,6.8627,9.5694,-0.06349,9.5873,-2.8846,-6.6989,-4.9359,17.205999,9.8039,7.6006
1.8325,-9.4603,-2.9126,-0.98039,12.808,-12.754,-9.7087,-23.365999,12.618,-0.98039,12.808,1.9608,14.354,3.746,16.254,2.8846,1.9968,-8.7821,13.397,12.745,9.533
2.7804,-11.365,-4.8544,5.8824,6.8966,-21.448999,-15.534,-17.540001,5.7886,5.8824,6.8966,-3.9216,16.268,6.6032,19.111,2.8846,4.8953,-6.859,8.6349,15.686,5.6683
0.88468,-17.079,-8.7379,1.9608,2.9557,-22.415001,-18.447001,-13.657,5.7886,1.9608,2.9557,-4.902,10.526,4.6984,18.159,-3.8462,4.8953,-3.0128,1.0159,14.706,-3.0274
-1.9589,-19.937,-6.7961,8.8235,13.793,-5.9903,-17.476,-9.7735,6.7642,8.8235,13.793,-1.9608,6.6986,0.88889,14.349,-7.6923,5.8615,2.7564,-2.7937,9.8039,-10.757
-0.06319,-14.222,0.0,21.569,18.719,2.7053,-8.7379,1.877,2.8618,21.569,18.719,5.8824,6.6986,-1.9683,8.6349,-7.6923,10.692,9.4872,0.06349,9.8039,-15.588
-1.0111,-5.6508,6.7961,30.392,22.66,0.77295,-5.8252,10.615,6.7642,30.392,22.66,13.725,2.8708,-1.9683,6.7302,-2.8846,13.591,7.5641,-5.6508,10.784,-16.554001
-3.8547,0.06349,10.68,36.275002,23.645,8.5024,0.97087,10.615,9.6911,36.275002,23.645,17.646999,0.95694,-0.06349,5.7778,2.8846,13.591,8.5256,-6.6032,7.8431,-13.655
-8.594,2.9206,10.68,29.412001,19.704,9.4686,6.7961,5.7605,10.667,29.412001,19.704,15.686,-0.95694,-0.06349,0.06349,5.7692,10.692,9.4872,1.0159,4.902,-10.757
-11.438,1.9683,4.8544,21.569,9.8522,1.7391,0.97087,2.8479,4.813,21.569,9.8522,9.8039,-0.95694,2.7937,-4.6984,6.7308,4.8953,3.7179,0.06349,0.98039,-7.8583
-9.5419,1.0159,2.9126,7.8431,-9.8522,-6.9565,-6.7961,-6.8608,-5.9187,7.8431,-9.8522,5.8824,3.8278,8.5079,-3.746,7.6923,4.8953,-3.9744,-1.8413,0.98039,-1.095
-4.8025,1.9683,6.7961,-4.902,-18.719,-10.821,-12.621,-11.715,-9.8211,-4.902,-18.719,1.9608,11.483,15.175,2.9206,13.462,12.625,-6.859,0.06349,2.9412,4.7021
-1.9589,1.0159,13.592,-7.8431,-23.645,-17.584999,-20.388,-19.482,-13.724,-7.8431,-23.645,-4.902,17.225,18.032,10.54,21.153999,19.388,-8.7821,1.0159,6.8627,13.398
0.88468,1.0159,18.447001,-19.608,-38.424,-32.077,-26.214001,-28.219999,-17.625999,-19.608,-38.424,-10.784,22.966999,18.032,21.016001,26.923,27.118,-11.667,0.06349,10.784,20.160999
2.7804,1.9683,20.388,-33.333,-41.379002,-27.246,-35.922001,-32.104,-18.601999,-33.333,-41.379002,-17.646999,31.579,20.889,27.683001,32.692001,35.813,-15.513,-2.7937,14.706,24.992001
0.88468,2.9206,20.388,-40.195999,-47.291,-23.382,-35.922001,-35.987,-23.48,-40.195999,-47.291,-23.528999,41.147999,24.698,33.396999,37.5,42.576,-19.358999,-2.7937,17.646999,28.857
2.7804,7.6825,23.301001,-47.058998,-47.291,-29.179001,-30.097,-35.987,-23.48,-47.058998,-47.291,-22.549,44.976002,27.556,35.301998,37.5,44.508999,-16.474001,1.0159,19.608,30.789
11.311,13.397,26.214001,-47.058998,-48.276001,-24.348,-22.33,-29.191,-20.552999,-47.058998,-48.276001,-13.725,42.105,28.507999,34.348999,34.615002,42.576,-8.7821,1.0159,18.627001,25.958
22.686001,15.302,27.184,-38.235001,-43.349998,-10.821,-14.563,-18.511,-19.577,-38.235001,-43.349998,-2.9412,35.407001,28.507999,33.396999,28.846001,35.813,-2.0513,0.06349,16.667,22.093
30.268999,17.205999,25.243,-30.392,-40.394001,5.6039,-7.767,-9.7735,-15.675,-30.392,-40.394001,4.902,27.750999,28.507999,29.587,25.0,29.049999,0.83333,-0.88889,15.686,21.127001
35.007999,20.063,24.271999,-22.549,-24.631001,13.333,4.8544,-0.06472,-10.797,-22.549,-24.631001,12.745,21.052999,26.603001,22.921,22.115,24.219,3.7179,2.9206,12.745,20.160999
35.007999,25.778,25.243,-14.706,-11.823,24.927999,11.65,4.7896,-6.8943,-14.706,-11.823,20.587999,13.397,21.841,19.111,19.231001,19.388,2.7564,3.873,7.8431,16.296
33.112,30.540001,27.184,-7.8431,-2.9557,31.691,19.417,6.7314,-6.8943,-7.8431,-2.9557,25.49,6.6986,15.175,16.254,16.346001,13.591,1.7949,6.7302,2.9412,14.364
30.268999,32.444,29.125999,-7.8431,0.98522,27.826,22.33,4.7896,-6.8943,-7.8431,0.98522,26.471001,0.95694,9.4603,15.302,9.6154,10.692,0.83333,2.9206,0.0,9.533
31.216,31.492001,33.009998,-6.8627,0.98522,25.893999,23.301001,2.8479,-8.8455,-6.8627,0.98522,25.49,0.95694,7.5556,15.302,4.8077,8.7601,-1.0897,-3.746,-2.9412,1.8035
29.320999,24.825001,32.039001,-4.902,-4.9261,22.028999,17.476,0.90615,-15.675,-4.902,-4.9261,20.587999,1.9139,0.88889,15.302,-0.96154,4.8953,-2.0513,-9.4603,-2.9412,-3.0274
25.528999,15.302,26.214001,0.98039,-8.867,18.164,13.592,-2.9773,-20.552999,0.98039,-8.867,13.725,2.8708,-4.8254,14.349,-5.7692,1.9968,-3.0128,-12.317,0.0,-6.8921
21.738001,9.5873,20.388,-2.9412,-6.8966,4.6377,5.8252,-4.9191,-19.577,-2.9412,-6.8966,9.8039,2.8708,-8.6349,11.492,-10.577,1.0306,-7.8205,-17.079,0.98039,-9.7907
16.997999,9.5873,18.447001,-5.8824,-6.8966,8.5024,2.9126,-2.0065,-17.625999,-5.8824,-6.8966,8.8235,2.8708,-12.444,10.54,-11.538,1.0306,-4.9359,-18.032,1.9608,-10.757
15.103,12.444,21.358999,-8.8235,-5.9113,21.063,4.8544,-0.06472,-16.65,-8.8235,-5.9113,12.745,2.8708,-10.54,6.7302,-10.577,2.963,-0.12821,-15.175,1.9608,-12.689
11.311,13.397,20.388,-6.8627,-8.867,19.129999,5.8252,-0.06472,-17.625999,-6.8627,-8.867,13.725,1.9139,-9.5873,2.9206,-8.6538,3.9291,1.7949,-14.222,0.98039,-14.622
8.4676,11.492,20.388,-0.98039,-5.9113,15.266,8.7379,2.8479,-15.675,-0.98039,-5.9113,13.725,4.7847,-5.7778,1.9683,-4.8077,4.8953,2.7564,-15.175,0.98039,-10.757
11.311,8.6349,19.417,-2.9412,0.0,13.333,6.7961,4.7896,-13.724,-2.9412,0.0,13.725,4.7847,-1.0159,-0.88889,-3.8462,3.9291,2.7564,-12.317,-0.98039,-8.8245
14.155,7.6825,18.447001,-2.9412,2.9557,13.333,5.8252,8.6731,-11.772,-2.9412,2.9557,14.706,3.8278,-0.06349,-5.6508,-5.7692,1.9968,1.7949,-15.175,-2.9412,-9.7907
12.259,4.8254,14.563,3.9216,0.98522,17.198,12.621,13.528,-14.699,3.9216,0.98522,15.686,-3.8278,-3.873,-11.365,-7.6923,-5.7327,-1.0897,-20.889,-9.8039,-13.655
8.4676,1.9683,8.7379,8.8235,0.98522,25.893999,11.65,16.440001,-14.699,8.8235,0.98522,15.686,-11.483,-5.7778,-14.222,-10.577,-12.496,-5.8974,-24.698,-12.745,-18.486
4.6761,-0.88889,2.9126,9.8039,2.9557,24.927999,7.767,15.469,-12.748,9.8039,2.9557,11.765,-16.268,-8.6349,-18.983999,-13.462,-16.361,-3.9744,-29.459999,-18.627001,-19.452
0.88468,-5.6508,-2.9126,10.784,5.9113,17.198,5.8252,14.498,-10.797,10.784,5.9113,6.8627,-19.139,-13.397,-22.794001,-18.268999,-18.292999,0.83333,-27.556,-20.587999,-23.316999
-3.8547,-8.5079,-7.767,6.8627,8.867,11.401,5.8252,15.469,-6.8943,6.8627,8.867,1.9608,-21.052999,-17.205999,-23.746,-23.077,-19.259001,-0.12821,-19.937,-18.627001,-29.114
-9.5419,-7.5556,-10.68,2.9412,8.867,4.6377,7.767,13.528,-5.9187,2.9412,8.867,-1.9608,-19.139,-16.254,-25.650999,-23.077,-18.292999,-3.9744,-22.794001,-17.646999,-30.080999
-11.438,-7.5556,-14.563,-1.9608,3.9409,-3.0918,3.8835,12.557,-3.9675,-1.9608,3.9409,-5.8824,-15.311,-15.302,-24.698,-22.115,-18.292999,-3.9744,-23.746,-13.725,-31.047001
-12.385,-5.6508,-14.563,-4.902,0.0,-10.821,4.8544,6.7314,-3.9675,-4.902,0.0,-8.8235,-10.526,-12.444,-20.889,-20.191999,-17.327,-2.0513,-20.889,-8.8235,-31.047001
-7.6461,-3.746,-10.68,-2.9412,-5.9113,-7.9227,9.7087,6.7314,-2.9919,-2.9412,-5.9113,-6.8627,-6.6986,-12.444,-18.032,-19.231001,-14.428,-1.0897,-16.127001,-4.902,-29.114
-2.9068,-2.7937,-6.7961,-1.9608,2.9557,-6.9565,10.68,7.7023,-3.9675,-1.9608,2.9557,-3.9216,-3.8278,-11.492,-16.127001,-19.231001,-12.496,-0.12821,-14.222,-5.8824,-28.148001
-0.06319,-2.7937,-6.7961,-9.8039,11.823,-5.0242,9.7087,8.6731,-2.0163,-9.8039,11.823,1.9608,-2.8708,-12.444,-15.175,-19.231001,-11.53,-1.0897,-13.27,-5.8824,-27.181999
-1.9589,1.9683,-3.8835,1.9608,14.778,8.5024,19.417,10.615,5.7886,1.9608,14.778,9.8039,-4.7847,-12.444,-16.127001,-17.308001,-9.5974,-3.0128,-10.413,-7.8431,-25.25
-0.06319,9.5873,1.9417,9.8039,18.719,14.3,29.125999,13.528,10.667,9.8039,18.719,17.646999,-8.6124,-9.5873,-16.127001,-14.423,-8.6312,-5.8974,-4.6984,-10.784,-21.385
-0.06319,10.54,0.97087,14.706,27.586,19.129999,31.068001,20.323999,15.545,14.706,27.586,22.549,-13.397,-9.5873,-17.079,-14.423,-10.564,-1.0897,-2.7937,-12.745,-17.52
-0.06319,8.6349,-4.8544,18.627001,30.542,15.266,30.097,20.323999,15.545,18.627001,30.542,24.51,-20.096001,-11.492,-21.841,-17.308001,-14.428,2.7564,-2.7937,-15.686,-16.554001
-3.8547,5.7778,-8.7379,21.569,29.556999,14.3,29.125999,19.353001,15.545,21.569,29.556999,23.528999,-24.879999,-15.302,-23.746,-17.308001,-18.292999,1.7949,-1.8413,-17.646999,-17.52
-5.7504,4.8254,-5.8252,23.528999,27.586,17.198,27.184,18.382,18.472,23.528999,27.586,20.587999,-22.966999,-14.349,-22.794001,-13.462,-17.327,1.7949,1.0159,-18.627001,-12.689
-5.7504,3.873,-1.9417,16.667,27.586,14.3,19.417,12.557,13.593,16.667,27.586,16.667,-17.225,-6.7302,-18.983999,-9.6154,-11.53,-1.0897,2.9206,-17.646999,-6.8921
-1.9589,1.0159,0.97087,16.667,26.601,14.3,13.592,10.615,12.618,16.667,26.601,15.686,-14.354,-1.0159,-14.222,-5.7692,-6.6989,-3.9744,0.06349,-13.725,-2.0612
-0.06319,2.9206,2.9126,23.528999,26.601,15.266,15.534,11.586,11.642,23.528999,26.601,18.627001,-9.5694,-0.06349,-6.6032,-1.9231,-2.8341,-4.9359,-3.746,-8.8235,-0.12882
1.8325,4.8254,2.9126,30.392,28.570999,14.3,19.417,13.528,6.7642,30.392,28.570999,23.528999,-5.7416,-0.06349,-1.8413,0.0,-0.90177,-5.8974,-3.746,-2.9412,-3.0274
1.8325,4.8254,4.8544,33.333,22.66,15.266,18.447001,14.498,1.8862,33.333,22.66,24.51,0.0,-4.8254,1.9683,-2.8846,-2.8341,-0.12821,-3.746,0.98039,-5.9259
-1.0111,2.9206,5.8252,28.431,20.690001,10.435,15.534,8.6731,-2.0163,28.431,20.690001,18.627001,1.9139,-6.7302,3.873,-3.8462,-5.7327,1.7949,-9.4603,2.9412,-3.9936
-5.7504,-1.8413,0.97087,16.667,16.749001,-0.19324,8.7379,5.7605,-4.9431,16.667,16.749001,7.8431,0.0,-5.7778,2.9206,-5.7692,-8.6312,-1.0897,-5.6508,1.9608,-3.0274
-8.594,-8.5079,-5.8252,12.745,12.808,-14.686,-3.8835,6.7314,-5.9187,12.745,12.808,-0.98039,-2.8708,-3.873,-2.7937,-7.6923,-13.462,-3.0128,-2.7937,0.0,-2.0612
-9.5419,-16.127001,-11.65,7.8431,8.867,-13.72,-19.417,2.8479,-4.9431,7.8431,8.867,-7.8431,-6.6986,-8.6349,-11.365,-12.5,-20.225,-3.9744,-7.5556,-3.9216,-3.0274
-13.333,-23.746,-19.417,6.8627,2.9557,-3.0918,-15.534,-0.06472,-6.8943,6.8627,2.9557,-15.686,-11.483,-9.5873,-21.841,-14.423,-25.056,-7.8205,-10.413,-6.8627,-3.9936
-14.281,-24.698,-21.358999,10.784,2.9557,-2.1256,-11.65,0.90615,-4.9431,10.784,2.9557,-16.667,-12.44,-5.7778,-26.603001,-9.6154,-24.09,-3.9744,-7.5556,-7.8431,-0.12882
-12.385,-20.889,-20.388,7.8431,3.9409,-2.1256,-17.476,3.8188,-1.0407,7.8431,3.9409,-15.686,-13.397,-3.873,-27.556,-4.8077,-22.158001,0.83333,-2.7937,-12.745,4.7021
-7.6461,-17.079,-16.504999,7.8431,13.793,0.77295,-16.504999,6.7314,2.8618,7.8431,13.793,-13.725,-17.225,-1.9683,-26.603001,-2.8846,-17.327,-0.12821,4.8254,-13.725,5.6683
-0.06319,-11.365,-6.7961,7.8431,16.749001,8.5024,-11.65,8.6731,0.91057,7.8431,16.749001,-11.765,-17.225,-1.0159,-19.937,-1.9231,-6.6989,0.83333,0.06349,-10.784,4.7021
2.7804,-6.6032,-0.97087,10.784,6.8966,10.435,-5.8252,11.586,-2.0163,10.784,6.8966,-10.784,-17.225,-2.9206,-14.222,-4.8077,-3.8003,3.7179,-9.4603,-8.8235,2.7697
-1.0111,-9.4603,-5.8252,11.765,-3.9409,6.57,-12.621,10.615,-8.8455,11.765,-3.9409,-15.686,-16.268,-6.7302,-12.317,-9.6154,-8.6312,5.641,-10.413,-7.8431,-2.0612
-4.8025,-16.127001,-10.68,8.8235,-10.837,5.6039,-10.68,7.7023,-11.772,8.8235,-10.837,-21.569,-15.311,-11.492,-11.365,-14.423,-12.496,5.641,-9.4603,-5.8824,-7.8583
-7.6461,-23.746,-14.563,0.98039,-13.793,1.7391,-21.358999,2.8479,-17.625999,0.98039,-13.793,-29.412001,-11.483,-11.492,-7.5556,-17.308001,-12.496,4.6795,-14.222,-3.9216,-9.7907
-9.5419,-29.459999,-17.476,-5.8824,-18.719,-1.1594,-33.009998,-0.06472,-23.48,-5.8824,-18.719,-34.313999,-10.526,-9.5873,-4.6984,-19.231001,-12.496,0.83333,-17.079,-0.98039,-9.7907
-11.438,-32.317001,-22.33,-7.8431,-24.631001,-13.72,-30.097,-5.89,-22.504,-7.8431,-24.631001,-39.216,-9.5694,-8.6349,-6.6032,-21.153999,-13.462,1.7949,-17.079,-0.98039,-10.757
-12.385,-31.365,-24.271999,-4.902,-25.615999,-16.618,-32.039001,-3.9482,-24.455,-4.902,-25.615999,-40.195999,-6.6986,-5.7778,-7.5556,-19.231001,-13.462,5.641,-16.127001,0.0,-8.8245
-11.438,-31.365,-22.33,-0.98039,-28.570999,-14.686,-35.922001,-0.06472,-26.407,-0.98039,-28.570999,-39.216,-2.8708,-4.8254,-6.6032,-16.346001,-10.564,5.641,-18.032,0.98039,-6.8921
-7.6461,-30.413,-19.417,-0.98039,-16.749001,-9.8551,-33.980999,1.877,-20.552999,-0.98039,-16.749001,-36.275002,0.0,-1.9683,-5.6508,-13.462,-6.6989,6.6026,-16.127001,3.9216,-6.8921
-8.594,-33.27,-23.301001,6.8627,-10.837,-3.0918,-31.068001,5.7605,-22.504,6.8627,-10.837,-36.275002,1.9139,1.8413,-3.746,-12.5,-3.8003,7.5641,-17.079,4.902,-5.9259
-13.333,-36.126999,-30.097,11.765,-14.778,-5.0242,-33.009998,6.7314,-26.407,11.765,-14.778,-37.255001,1.9139,3.746,-0.88889,-13.462,-4.7665,6.6026,-19.937,3.9216,-5.9259
-11.438,-34.222,-31.068001,6.8627,-9.8522,-14.686,-34.951,6.7314,-23.48,6.8627,-9.8522,-35.293999,0.0,2.7937,-1.8413,-14.423,-5.7327,-2.0513,-16.127001,1.9608,-6.8921
-12.385,-31.365,-29.125999,9.8039,-9.8522,-5.9903,-32.039001,7.7023,-20.552999,9.8039,-9.8522,-32.353001,-0.95694,3.746,0.06349,-12.5,-3.8003,-0.12821,-15.175,0.98039,-3.9936
-16.177,-31.365,-29.125999,8.8235,-9.8522,-4.058,-33.009998,-0.06472,-19.577,8.8235,-9.8522,-33.333,0.0,3.746,1.0159,-13.462,-5.7327,4.6795,-14.222,0.98039,-3.0274
-16.177,-31.365,-28.155001,12.745,-7.8818,-5.9903,-36.893002,-4.9191,-15.675,12.745,-7.8818,-34.313999,-0.95694,0.88889,0.06349,-12.5,-4.7665,3.7179,-12.317,1.9608,-6.8921
-15.229,-27.556,-23.301001,7.8431,-1.9704,-22.415001,-33.009998,-6.8608,-12.748,7.8431,-1.9704,-31.372999,2.8708,-1.0159,2.9206,-6.7308,-0.90177,2.7564,-8.5079,3.9216,-5.9259
-9.5419,-20.889,-13.592,1.9608,-0.98522,-13.72,-27.184,-6.8608,-8.8455,1.9608,-0.98522,-26.471001,9.5694,0.88889,9.5873,0.96154,7.7939,2.7564,-2.7937,7.8431,0.83736
-1.9589,-13.27,-3.8835,3.9216,-5.9113,-2.1256,-23.301001,-11.715,-5.9187,3.9216,-5.9113,-21.569,19.139,9.4603,17.205999,12.5,18.422001,2.7564,1.0159,11.765,13.398
-0.06319,-10.413,1.9417,-0.98039,-10.837,-8.8889,-28.155001,-16.57,-9.8211,-0.98039,-10.837,-22.549,25.837,17.079,21.968,21.153999,25.184999,3.7179,2.9206,17.646999,23.059999
-0.06319,-9.4603,6.7961,-10.784,-12.808,-16.618,-31.068001,-22.395,-10.797,-10.784,-12.808,-21.569,28.708,23.746,24.825001,27.885,29.049999,2.7564,4.8254,21.569,30.789
-0.06319,-4.6984,10.68,-21.569,-20.690001,-26.280001,-26.214001,-29.191,-11.772,-21.569,-20.690001,-22.549,31.579,27.556,26.73,32.692001,33.881001,-0.12821,7.6825,22.549,34.653999
0.88468,0.06349,15.534,-27.451,-32.512001,-24.348,-20.388,-26.278,-13.724,-27.451,-32.512001,-22.549,32.535999,29.459999,28.635,37.5,37.745998,-0.12821,10.54,23.528999,38.519001
1.8325,3.873,18.447001,-30.392,-38.424,-22.415001,-23.301001,-24.337,-11.772,-30.392,-38.424,-21.569,28.708,30.413,31.492001,40.384998,39.678001,-3.9744,12.444,20.587999,42.382999
3.7283,3.873,17.476,-31.372999,-35.467999,-20.483,-26.214001,-22.395,-9.8211,-31.372999,-35.467999,-20.587999,24.879999,29.459999,29.587,41.346001,39.678001,-4.9359,14.349,18.627001,42.382999
4.6761,1.0159,17.476,-34.313999,-36.452999,-15.652,-30.097,-21.424,-9.8211,-34.313999,-36.452999,-20.587999,19.139,25.650999,26.73,36.537998,37.745998,-0.12821,14.349,15.686,40.451
6.5719,0.06349,19.417,-31.372999,-36.452999,-17.584999,-31.068001,-20.452999,-10.797,-31.372999,-36.452999,-20.587999,14.354,23.746,26.73,32.692001,34.847,-1.0897,9.5873,12.745,38.519001
10.363,0.06349,19.417,-22.549,-32.512001,-14.686,-30.097,-15.599,-13.724,-22.549,-32.512001,-18.627001,13.397,24.698,25.778,31.731001,31.948,-0.12821,5.7778,9.8039,36.585999
7.5197,0.06349,18.447001,-18.627001,-27.586,-15.652,-28.155001,-15.599,-9.8211,-18.627001,-27.586,-16.667,9.5694,23.746,19.111,29.808001,27.118,2.7564,7.6825,6.8627,34.653999
2.7804,1.0159,17.476,-16.667,-20.690001,-15.652,-19.417,-14.628,-5.9187,-16.667,-20.690001,-12.745,4.7847,20.889,13.397,27.885,24.219,1.7949,10.54,5.8824,33.688
-2.9068,1.0159,13.592,-16.667,-16.749001,-16.618,-19.417,-18.511,-4.9431,-16.667,-16.749001,-12.745,0.95694,16.127001,8.6349,25.0,20.354,-2.0513,13.397,2.9412,32.721001
-6.6983,-0.88889,3.8835,-11.765,-15.764,-17.584999,-23.301001,-17.540001,-4.9431,-11.765,-15.764,-15.686,-2.8708,10.413,-0.88889,17.308001,11.659,-9.7436,15.302,-0.98039,26.924
-13.333,-4.6984,-9.7087,-8.8235,-8.867,-20.483,-24.271999,-15.599,0.91057,-8.8235,-8.867,-16.667,-3.8278,4.6984,-7.5556,8.6538,1.9968,-6.859,16.254,-1.9608,21.127001
-17.125,-10.413,-19.417,-9.8039,-7.8818,-26.280001,-26.214001,-16.57,1.8862,-9.8039,-7.8818,-19.608,-1.9139,4.6984,-10.413,2.8846,-4.7665,-7.8205,14.349,-0.98039,17.261999
-19.021,-15.175,-23.301001,-10.784,-15.764,-28.212999,-27.184,-15.599,-2.9919,-10.784,-15.764,-23.528999,-1.9139,2.7937,-10.413,-0.96154,-7.6651,-4.9359,15.302,2.9412,11.465
-22.812,-17.079,-25.243,-14.706,-9.8522,-39.806999,-23.301001,-21.424,2.8618,-14.706,-9.8522,-25.49,-0.95694,-1.0159,-9.4603,-2.8846,-9.5974,-0.12821,7.6825,5.8824,8.5668
-19.021,-17.079,-22.33,-15.686,-7.8818,-32.077,-22.33,-22.395,5.7886,-15.686,-7.8818,-21.569,1.9139,-1.9683,-5.6508,-3.8462,-8.6312,-1.0897,-0.88889,4.902,7.6006
-11.438,-12.317,-19.417,-9.8039,-5.9113,-16.618,-20.388,-13.657,6.7642,-9.8039,-5.9113,-13.725,2.8708,-1.0159,-1.8413,-3.8462,-7.6651,0.83333,3.873,3.9216,3.7359
-10.49,-6.6032,-17.476,-4.902,0.98522,-12.754,-10.68,-13.657,13.593,-4.902,0.98522,-5.8824,0.95694,-1.0159,0.06349,-3.8462,-9.5974,-0.12821,12.444,2.9412,1.8035
-12.385,-5.6508,-19.417,-7.8431,8.867,-11.787,-5.8252,-14.628,15.545,-7.8431,8.867,-0.98039,-2.8708,1.8413,1.9683,-3.8462,-11.53,-2.0513,15.302,2.9412,4.7021
-16.177,-9.4603,-23.301001,-0.98039,9.8522,-17.584999,-5.8252,-13.657,17.496,-0.98039,9.8522,-4.902,-6.6986,-1.0159,-1.8413,-8.6538,-15.395,-3.0128,16.254,0.98039,1.8035
-19.021,-10.413,-24.271999,-0.98039,14.778,-23.382,-1.9417,-13.657,30.179001,-0.98039,14.778,-5.8824,-10.526,-4.8254,-7.5556,-12.5,-21.191999,-8.7821,21.968,-1.9608,-3.0274
-25.656,-11.365,-26.214001,-12.745,5.9113,-22.415001,-4.8544,-18.511,24.325001,-12.745,5.9113,-7.8431,-16.268,-7.6825,-13.27,-15.385,-26.023001,-8.7821,26.73,-6.8627,-4.9597
-31.343,-9.4603,-31.068001,-17.646999,-11.823,-29.179001,-9.7087,-20.452999,22.374001,-17.646999,-11.823,-11.765,-23.923,-11.492,-21.841,-19.231001,-29.886999,-9.7436,23.872999,-14.706,-7.8583
-35.133999,-6.6032,-34.951,-19.608,-3.9409,-29.179001,-7.767,-19.482,22.374001,-19.608,-3.9409,-10.784,-27.750999,-15.302,-32.317001,-24.038,-37.617001,-12.628,18.159,-21.569,-11.723
-38.925999,-7.5556,-41.748001,-22.549,0.0,-26.280001,-4.8544,-23.365999,22.374001,-22.549,0.0,-10.784,-30.622,-21.016001,-39.937,-28.846001,-47.278999,-16.474001,16.254,-25.49,-15.588
-36.082001,-11.365,-46.602001,-20.587999,-2.9557,-20.483,0.0,-21.424,21.398001,-20.587999,-2.9557,-8.8235,-31.579,-24.825001,-40.889,-29.808001,-49.210999,-14.551,15.302,-22.549,-19.452
-32.291,-17.079,-43.688999,-16.667,0.0,-15.652,1.9417,-17.540001,16.52,-16.667,0.0,-7.8431,-28.708,-27.683001,-35.174999,-31.731001,-47.278999,-12.628,3.873,-18.627001,-24.283001
-27.551001,-19.937,-38.834999,-15.686,0.0,-15.652,6.7961,-11.715,17.496,-15.686,0.0,-4.902,-24.879999,-27.683001,-25.650999,-32.692001,-42.448002,-9.7436,1.0159,-13.725,-25.25
-23.76,-19.937,-32.039001,-13.725,3.9409,-15.652,5.8252,-11.715,21.398001,-13.725,3.9409,-2.9412,-18.181999,-24.825001,-16.127001,-28.846001,-34.717999,-11.667,2.9206,-8.8235,-22.351
-19.968,-15.175,-22.33,-7.8431,7.8818,-14.686,0.97087,-8.8026,19.447001,-7.8431,7.8818,-0.98039,-11.483,-21.016001,-10.413,-23.077,-26.989,-9.7436,3.873,-5.8824,-18.486
-20.916,-9.4603,-16.504999,-6.8627,7.8818,-11.787,1.9417,-9.7735,24.325001,-6.8627,7.8818,1.9608,-9.5694,-15.302,-8.5079,-17.308001,-23.124001,-7.8205,10.54,-6.8627,-14.622
-18.073,-3.746,-17.476,-1.9608,10.837,-6.9565,6.7961,-10.744,30.179001,-1.9608,10.837,5.8824,-9.5694,-7.6825,-8.5079,-10.577,-21.191999,-6.859,16.254,-6.8627,-7.8583
-15.229,1.9683,-20.388,4.902,16.749001,-4.058,16.504999,-6.8608,36.033001,4.902,16.749001,8.8235,-11.483,-1.0159,-10.413,-3.8462,-21.191999,-6.859,22.921,-8.8235,-1.095
-16.177,4.8254,-23.301001,8.8235,26.601,-1.1594,23.301001,-3.9482,32.130001,8.8235,26.601,8.8235,-14.354,-1.9683,-17.079,-2.8846,-25.056,-6.859,29.587,-12.745,1.8035
-15.229,3.873,-24.271999,10.784,31.527,-1.1594,22.33,-0.06472,32.130001,10.784,31.527,9.8039,-17.225,-4.8254,-24.698,-6.7308,-27.955,-7.8205,33.396999,-14.706,-0.12882
-14.281,2.9206,-25.243,15.686,36.452999,0.77295,28.155001,0.90615,36.033001,15.686,36.452999,12.745,-21.052999,-9.5873,-29.459999,-11.538,-31.82,-7.8205,31.492001,-16.667,-3.9936
-13.333,3.873,-26.214001,20.587999,39.409,6.57,34.951,5.7605,37.007999,20.587999,39.409,17.646999,-23.923,-12.444,-31.365,-17.308001,-35.683998,-4.9359,26.73,-18.627001,-8.8245
-11.438,2.9206,-25.243,23.528999,43.349998,6.57,35.922001,7.7023,38.959,23.528999,43.349998,20.587999,-27.750999,-15.302,-31.365,-21.153999,-38.583,-3.9744,22.921,-20.587999,-14.622
-7.6461,0.06349,-19.417,22.549,43.349998,0.77295,36.893002,10.615,37.007999,22.549,43.349998,23.528999,-30.622,-20.063,-27.556,-26.923,-38.583,-4.9359,19.111,-21.569,-19.452
-7.6461,-5.6508,-18.447001,21.569,37.438,9.4686,30.097,12.557,31.153999,21.569,37.438,20.587999,-32.535999,-21.968,-19.937,-30.768999,-39.549,-4.9359,12.444,-18.627001,-20.419001
-10.49,-9.4603,-22.33,22.549,25.615999,14.3,17.476,12.557,25.301001,22.549,25.615999,11.765,-31.579,-21.968,-16.127001,-29.808001,-38.583,-2.0513,7.6825,-17.646999,-20.419001
-13.333,-12.317,-22.33,12.745,14.778,7.5362,7.767,8.6731,17.496,12.745,14.778,4.902,-28.708,-19.111,-17.079,-26.923,-33.751999,-1.0897,1.0159,-15.686,-18.486
-15.229,-18.032,-21.358999,7.8431,-0.98522,1.7391,-5.8252,8.6731,6.7642,7.8431,-0.98522,-2.9412,-25.837,-20.063,-18.983999,-25.962,-32.785999,-1.0897,-2.7937,-13.725,-18.486
-18.073,-20.889,-22.33,1.9608,-9.8522,-2.1256,-8.7379,6.7314,5.7886,1.9608,-9.8522,-9.8039,-24.879999,-22.921,-21.841,-25.962,-29.886999,-2.0513,1.0159,-12.745,-21.385
-18.073,-15.175,-18.447001,-5.8824,-5.9113,-2.1256,1.9417,2.8479,13.593,-5.8824,-5.9113,-8.8235,-21.052999,-21.016001,-24.698,-22.115,-23.124001,-4.9359,9.5873,-12.745,-19.452
-18.073,-5.6508,-15.534,-8.8235,2.9557,-8.8889,5.8252,-0.06472,25.301001,-8.8235,2.9557,-4.902,-17.225,-18.159,-25.650999,-16.346001,-19.259001,-8.7821,18.159,-13.725,-16.554001
-19.968,-1.8413,-18.447001,0.0,6.8966,-8.8889,11.65,-1.0356,34.081001,0.0,6.8966,-2.9412,-21.052999,-21.016001,-26.603001,-15.385,-22.158001,-10.705,24.825001,-17.646999,-17.52
-19.021,1.9683,-18.447001,3.9216,1.9704,-5.0242,26.214001,5.7605,35.056999,3.9216,1.9704,0.98039,-23.923,-21.968,-25.650999,-15.385,-25.056,-7.8205,23.872999,-20.587999,-18.486
-13.333,5.7778,-16.504999,0.0,7.8818,-5.9903,34.951,6.7314,35.056999,0.0,7.8818,4.902,-27.750999,-19.111,-24.698,-14.423,-26.023001,-4.9359,18.159,-22.549,-16.554001
-11.438,10.54,-13.592,-1.9608,10.837,2.7053,37.863998,1.877,28.228001,-1.9608,10.837,5.8824,-29.665001,-17.205999,-20.889,-11.538,-26.023001,-2.0513,14.349,-23.528999,-10.757
-7.6461,11.492,-6.7961,-2.9412,5.9113,8.5024,32.039001,-0.06472,20.423,-2.9412,5.9113,6.8627,-26.794001,-12.444,-15.175,-8.6538,-21.191999,-3.0128,8.6349,-19.608,-6.8921
0.88468,10.54,1.9417,0.0,0.98522,6.57,25.243,6.7314,11.642,0.0,0.98522,11.765,-23.923,-13.397,-8.5079,-9.6154,-18.292999,0.83333,1.9683,-13.725,-5.9259
6.5719,9.5873,5.8252,9.8039,4.9261,19.129999,31.068001,17.410999,15.545,9.8039,4.9261,19.608,-23.923,-19.111,-7.5556,-15.385,-19.259001,0.83333,-2.7937,-10.784,-12.689
9.4155,6.7302,8.7379,14.706,2.9557,25.893999,24.271999,23.236,2.8618,14.706,2.9557,20.587999,-22.966999,-20.063,-9.4603,-17.308001,-18.292999,0.83333,-7.5556,-8.8235,-17.52
4.6761,5.7778,12.621,11.765,1.9704,24.927999,14.563,22.264999,-5.9187,11.765,1.9704,19.608,-19.139,-17.205999,-10.413,-11.538,-15.395,-5.8974,-8.5079,-7.8431,-14.622
1.8325,11.492,13.592,15.686,-6.8966,23.961,17.476,23.236,-8.8455,15.686,-6.8966,20.587999,-15.311,-14.349,-9.4603,-2.8846,-13.462,-5.8974,-13.27,-6.8627,-11.723
2.7804,21.016001,13.592,13.725,-3.9409,21.063,20.388,15.469,-12.748,13.725,-3.9409,20.587999,-7.6555,-5.7778,-6.6032,8.6538,-7.6651,1.7949,-11.365,-1.9608,-2.0612
2.7804,24.825001,10.68,1.9608,-3.9409,16.232,16.504999,6.7314,-10.797,1.9608,-3.9409,17.646999,-1.9139,1.8413,-2.7937,15.385,-3.8003,8.5256,-3.746,1.9608,6.6345
4.6761,24.825001,7.767,-8.8235,-6.8966,8.5024,19.417,14.498,-9.8211,-8.8235,-6.8966,10.784,0.0,2.7937,-1.8413,11.538,-3.8003,11.41,-4.6984,2.9412,4.7021
6.5719,22.921,7.767,-10.784,1.9704,1.7391,23.301001,9.644,-10.797,-10.784,1.9704,4.902,1.9139,5.6508,-3.746,6.7308,-3.8003,9.4872,0.06349,2.9412,1.8035
-1.9589,13.397,0.0,-15.686,0.98522,-10.821,17.476,-1.0356,-2.0163,-15.686,0.98522,-2.9412,0.95694,3.746,-7.5556,0.0,-9.5974,4.6795,1.9683,-1.9608,-3.0274
-6.6983,7.6825,-8.7379,-19.608,0.98522,-16.618,20.388,-3.9482,14.569,-19.608,0.98522,-4.902,-0.95694,-0.06349,-8.5079,-3.8462,-12.496,-4.9359,8.6349,-4.902,-3.9936
-3.8547,15.302,-8.7379,-10.784,10.837,-7.9227,33.009998,2.8479,26.275999,-10.784,10.837,0.98039,-0.95694,-1.0159,-8.5079,-0.96154,-9.5974,-3.0128,21.016001,-6.8627,-3.0274
-0.06319,24.825001,-4.8544,-2.9412,16.749001,1.7391,41.748001,6.7314,27.252001,-2.9412,16.749001,9.8039,-5.7416,-4.8254,-11.365,-1.9231,-9.5974,2.7564,27.683001,-8.8235,-1.095
3.7283,29.587,1.9417,2.9412,21.674999,9.4686,45.631001,8.6731,29.202999,2.9412,21.674999,15.686,-8.6124,-6.7302,-12.317,-1.9231,-7.6651,7.5641,25.778,-9.8039,0.83736
11.311,31.492001,9.7087,13.725,26.601,20.097,43.688999,12.557,31.153999,13.725,26.601,21.569,-6.6986,-2.9206,-6.6032,4.8077,-0.90177,11.41,27.683001,-4.902,2.7697
16.051001,30.540001,14.563,19.608,27.586,28.792,35.922001,14.498,11.642,19.608,27.586,24.51,-6.6986,-4.8254,-0.88889,9.6154,2.963,15.256,14.349,-0.98039,5.6683
22.686001,31.492001,21.358999,30.392,26.601,33.623001,37.863998,19.353001,-2.9919,30.392,26.601,29.412001,-3.8278,-4.8254,5.7778,14.423,6.8277,18.141001,3.873,5.8824,11.465
26.476999,29.587,29.125999,32.353001,16.749001,29.757999,28.155001,24.207001,-22.504,32.353001,16.749001,29.412001,1.9139,-0.06349,10.54,21.153999,13.591,16.218,-4.6984,9.8039,15.33
30.268999,31.492001,35.922001,24.51,16.749001,32.657001,24.271999,28.091,-28.358,24.51,16.749001,29.412001,9.5694,8.5079,19.111,31.731001,24.219,21.987,-8.5079,15.686,22.093
22.686001,21.968,29.125999,18.627001,10.837,19.129999,8.7379,23.236,-26.407,18.627001,10.837,16.667,14.354,12.317,21.968,35.577,24.219,26.795,-14.222,16.667,24.025999
13.207,6.7302,16.504999,6.8627,-1.9704,8.5024,-11.65,18.382,-30.309,6.8627,-1.9704,1.9608,17.225,15.175,21.016001,34.615002,19.388,22.948999,-18.983999,15.686,22.093
10.363,0.06349,8.7379,-4.902,-5.9113,8.5024,-11.65,13.528,-18.601999,-4.902,-5.9113,-2.9412,20.096001,15.175,19.111,29.808001,17.455999,18.141001,-17.079,17.646999,18.229
3.7283,-2.7937,3.8835,-6.8627,0.0,0.77295,-5.8252,4.7896,-16.65,-6.8627,0.0,-1.9608,18.181999,11.365,16.254,24.038,15.523,13.333,-13.27,15.686,13.398
-2.9068,-3.746,-0.97087,-0.98039,6.8966,-7.9227,8.7379,-4.9191,-8.8455,-0.98039,6.8966,4.902,15.311,7.5556,9.5873,19.231001,12.625,8.5256,-7.5556,10.784,7.6006
-4.8025,0.06349,1.9417,3.9216,8.867,-5.9903,19.417,-2.9773,3.8374,3.9216,8.867,12.745,13.397,9.4603,3.873,19.231001,12.625,4.6795,-1.8413,5.8824,4.7021
-0.06319,10.54,10.68,13.725,26.601,7.5362,24.271999,3.8188,8.7154,13.725,26.601,21.569,11.483,7.5556,4.8254,20.191999,18.422001,5.641,-7.5556,4.902,6.6345
9.4155,21.016001,19.417,19.608,39.409,22.028999,33.980999,11.586,19.447001,19.608,39.409,31.372999,13.397,4.6984,11.492,21.153999,26.150999,9.4872,-9.4603,7.8431,2.7697
22.686001,21.016001,25.243,17.646999,30.542,23.961,34.951,11.586,5.7886,17.646999,30.542,35.293999,13.397,-0.06349,16.254,15.385,28.084,15.256,-13.27,11.765,-3.9936
33.112,15.302,28.155001,13.725,11.823,32.657001,17.476,11.586,-15.675,13.725,11.823,32.353001,10.526,-2.9206,21.968,11.538,28.084,24.872,-20.889,13.725,-3.9936
35.956001,12.444,31.068001,15.686,-0.98522,31.691,9.7087,14.498,-17.625999,15.686,-0.98522,28.431,9.5694,-4.8254,25.778,12.5,32.915001,27.756001,-19.937,14.706,-0.12882
36.903999,14.349,37.863998,16.667,-2.9557,30.725,2.9126,16.440001,-20.552999,16.667,-2.9557,27.451,12.44,-1.0159,33.396999,20.191999,42.576,23.91,-16.127001,17.646999,5.6683
42.591,13.397,40.777,6.8627,-9.8522,37.487999,-6.7961,9.644,-33.236,6.8627,-9.8522,25.49,21.052999,6.6032,41.967999,25.962,51.271999,18.141001,-13.27,23.528999,12.432
41.643002,9.5873,39.806,0.0,-21.674999,34.589001,-13.592,0.90615,-41.041,0.0,-21.674999,18.627001,29.665001,14.222,46.73,31.731001,54.171001,13.333,-13.27,25.49,20.160999
37.852001,1.0159,36.893002,-0.98039,-33.498001,27.826,-25.243,3.8188,-42.992001,-0.98039,-33.498001,9.8039,34.450001,20.889,45.778,34.615002,55.137001,15.256,-16.127001,26.471001,23.059999
35.956001,-6.6032,33.980999,-7.8431,-36.452999,20.097,-28.155001,7.7023,-38.113998,-7.8431,-36.452999,4.902,33.493,21.841,41.967999,30.768999,52.237999,17.179001,-17.079,24.51,21.127001
40.695,-2.7937,38.834999,-7.8431,-34.483002,12.367,-27.184,9.644,-27.382,-7.8431,-34.483002,5.8824,34.450001,22.794001,43.873001,31.731001,52.237999,18.141001,-9.4603,26.471001,21.127001
39.747002,7.6825,44.66,-5.8824,-29.556999,15.266,-16.504999,9.644,-24.455,-5.8824,-29.556999,9.8039,37.320999,22.794001,41.967999,35.577,52.237999,21.987,-11.365,26.471001,19.195
28.372999,12.444,43.688999,-5.8824,-27.586,12.367,-8.7379,10.615,-19.577,-5.8824,-27.586,7.8431,32.535999,19.937,34.348999,31.731001,44.508999,17.179001,-15.175,19.608,10.499
30.268999,13.397,42.717999,-2.9412,-23.645,16.232,-4.8544,21.294001,-21.528,-2.9412,-23.645,10.784,28.708,13.27,31.492001,25.0,40.644001,14.295,-12.317,18.627001,-2.0612
29.320999,15.302,40.777,-9.8039,-14.778,7.5362,-5.8252,13.528,-10.797,-9.8039,-14.778,13.725,26.794001,6.6032,28.635,18.268999,42.576,12.372,-12.317,17.646999,-14.622
32.164001,18.159,40.777,-8.8235,-9.8522,6.57,-0.97087,4.7896,-2.9919,-8.8235,-9.8522,18.627001,20.096001,4.6984,28.635,11.538,43.542999,8.5256,-13.27,16.667,-16.554001
43.539001,21.016001,43.688999,2.9412,-6.8966,26.860001,8.7379,-0.06472,6.7642,2.9412,-6.8966,19.608,19.139,3.746,30.540001,10.577,42.576,8.5256,-8.5079,17.646999,-9.7907
35.007999,21.016001,41.748001,-0.98039,-9.8522,22.028999,10.68,8.6731,9.6911,-0.98039,-9.8522,12.745,16.268,-0.06349,23.872999,12.5,39.678001,7.5641,-4.6984,11.765,-2.0612
23.632999,20.063,40.777,-6.8627,-22.66,5.6039,0.0,14.498,-16.65,-6.8627,-22.66,4.902,14.354,2.7937,21.016001,20.191999,39.678001,-0.12821,-4.6984,7.8431,10.499
24.580999,14.349,38.834999,-6.8627,-30.542,13.333,-17.476,7.7023,-28.358,-6.8627,-30.542,0.0,14.354,7.5556,19.111,25.962,39.678001,-2.0513,-2.7937,3.9216,20.160999
20.790001,7.6825,33.009998,-13.725,-33.498001,7.5362,-20.388,4.7896,-22.504,-13.725,-33.498001,-4.902,14.354,14.222,15.302,24.038,36.778999,-3.9744,-1.8413,0.0,23.059999
16.997999,-2.7937,25.243,-17.646999,-28.570999,1.7391,-19.417,-2.9773,-12.748,-17.646999,-28.570999,-7.8431,13.397,15.175,14.349,17.308001,30.982,-5.8974,-3.746,-1.9608,22.093
15.103,-5.6508,19.417,-15.686,-26.601,2.7053,-24.271999,-4.9191,-4.9431,-15.686,-26.601,-9.8039,13.397,15.175,16.254,12.5,27.118,-7.8205,1.0159,0.0,19.195
9.4155,-0.88889,15.534,-15.686,-17.733999,-5.9903,-20.388,-11.715,-6.8943,-15.686,-17.733999,-10.784,14.354,20.889,15.302,11.538,26.150999,-3.9744,-0.88889,3.9216,21.127001
4.6761,-2.7937,10.68,-14.706,-11.823,-12.754,-21.358999,-19.482,-9.8211,-14.706,-11.823,-15.686,15.311,21.841,9.5873,6.7308,21.32,-7.8205,-5.6508,1.9608,20.160999
5.624,-4.6984,7.767,-11.765,-13.793,-7.9227,-21.358999,-7.8317,-7.8699,-11.765,-13.793,-17.646999,16.268,22.794001,7.6825,5.7692,18.422001,-7.8205,-7.5556,4.902,16.296
10.363,-5.6508,8.7379,-8.8235,-16.749001,3.6715,-15.534,-2.0065,-13.724,-8.8235,-16.749001,-12.745,17.225,19.937,11.492,8.6538,20.354,-3.0128,-10.413,9.8039,11.465
15.103,1.0159,15.534,-7.8431,-17.733999,1.7391,-7.767,-13.657,-12.748,-7.8431,-17.733999,-5.8824,20.096001,16.127001,16.254,11.538,25.184999,-3.9744,-11.365,15.686,6.6345
18.893999,11.492,23.301001,-11.765,-6.8966,0.77295,1.9417,-20.452999,-17.625999,-11.765,-6.8966,3.9216,22.01,6.6032,21.968,9.6154,28.084,-1.0897,-9.4603,18.627001,-0.12882
10.363,10.54,23.301001,0.0,-5.9113,5.6039,-0.97087,3.8188,-18.601999,0.0,-5.9113,9.8039,18.181999,-3.873,23.872999,0.96154,26.150999,2.7564,-17.079,18.627001,-14.622
16.051001,6.7302,25.243,6.8627,-9.8522,11.401,-0.97087,22.264999,-35.187,6.8627,-9.8522,13.725,18.181999,-11.492,29.587,-5.7692,27.118,9.4872,-26.603001,22.549,-23.316999
18.893999,4.8254,21.358999,0.0,-10.837,5.6039,3.8835,11.586,-32.259998,0.0,-10.837,13.725,15.311,-15.302,32.444,-11.538,25.184999,11.41,-28.507999,25.49,-26.216
12.259,-8.5079,9.7087,-10.784,-20.690001,-9.8551,-15.534,4.7896,-16.65,-10.784,-20.690001,2.9412,4.7847,-14.349,24.825001,-18.268999,16.49,10.449,-23.746,20.587999,-27.181999
2.7804,-15.175,2.9126,-20.587999,-19.704,-22.415001,-23.301001,8.6731,-6.8943,-20.587999,-19.704,-2.9412,-2.8708,-12.444,12.444,-23.077,6.8277,6.6026,-18.983999,12.745,-25.25
7.5197,-13.27,8.7379,-14.706,-20.690001,-7.9227,-16.504999,-10.744,-14.699,-14.706,-20.690001,0.98039,-2.8708,-6.7302,4.8254,-22.115,2.963,-0.12821,-16.127001,5.8824,-19.452
13.207,-10.413,12.621,-8.8235,-13.793,11.401,-11.65,-31.132999,-13.724,-8.8235,-13.793,2.9412,0.0,2.7937,1.0159,-15.385,4.8953,-3.9744,-16.127001,0.0,-13.655
-1.0111,-4.6984,7.767,-12.745,-10.837,-7.9227,-9.7087,-10.744,-20.552999,-12.745,-10.837,-2.9412,1.9139,11.365,-6.6032,-8.6538,4.8953,-10.705,-17.079,-5.8824,-3.9936
-13.333,-4.6984,2.9126,-20.587999,-16.749001,-27.246,-17.476,-7.8317,-20.552999,-20.587999,-16.749001,-11.765,1.9139,18.032,-10.413,-0.96154,4.8953,-12.628,-16.127001,-9.8039,7.6006
-6.6983,-3.746,2.9126,-17.646999,-15.764,-25.313999,-19.417,-38.900002,-17.625999,-17.646999,-15.764,-12.745,4.7847,20.889,-8.5079,5.7692,6.8277,-25.128,-10.413,-11.765,15.33
-11.438,1.0159,3.8835,-11.765,-13.793,-24.348,-17.476,-16.57,-8.8455,-11.765,-13.793,-10.784,7.6555,25.650999,-7.5556,12.5,9.7262,-23.205,-3.746,-12.745,21.127001
-15.229,3.873,4.8544,-4.902,-7.8818,-19.517,-13.592,-12.686,-12.748,-4.902,-7.8818,-7.8431,12.44,26.603001,-7.5556,11.538,11.659,-21.282,-14.222,-10.784,21.127001
-13.333,6.7302,4.8544,0.0,-0.98522,-14.686,0.0,-8.8026,-7.8699,0.0,-0.98522,-3.9216,18.181999,23.746,-2.7937,5.7692,12.625,-22.243999,-18.032,-2.9412,18.229
-11.438,1.9683,0.97087,-0.98039,-3.9409,-20.483,-3.8835,-12.686,-20.552999,-0.98039,-3.9409,-7.8431,20.096001,16.127001,-0.88889,-3.8462,11.659,-18.396999,3.873,3.9216,10.499
-0.06319,6.7302,6.7961,3.9216,0.0,-4.058,1.9417,-27.249001,-2.0163,3.9216,0.0,-2.9412,26.794001,14.222,10.54,-0.96154,17.455999,-6.859,21.016001,16.667,10.499
6.5719,5.7778,7.767,2.9412,8.867,2.7053,4.8544,-9.7735,19.447001,2.9412,8.867,-3.9216,31.579,16.127001,19.111,4.8077,19.388,2.7564,17.205999,25.49,13.398
-1.9589,-0.88889,2.9126,1.9608,3.9409,-18.551001,-4.8544,-2.0065,11.642,1.9608,3.9409,-11.765,31.579,18.032,21.016001,7.6923,17.455999,5.641,8.6349,28.431,14.364
10.363,1.0159,4.8544,0.0,-2.9557,-18.551001,-3.8835,-11.715,4.813,0.0,-2.9557,-15.686,30.622,19.937,24.825001,12.5,16.49,-5.8974,1.9683,25.49,14.364
13.207,1.9683,2.9126,-0.98039,-5.9113,-2.1256,-1.9417,-13.657,-15.675,-0.98039,-5.9113,-17.646999,30.622,18.983999,25.778,14.423,16.49,-3.0128,4.8254,23.528999,12.432
10.363,-0.88889,-1.9417,-3.9216,-8.867,-5.0242,-0.97087,-16.57,-18.601999,-3.9216,-8.867,-23.528999,26.794001,19.937,22.921,13.462,13.591,-2.0513,3.873,20.587999,11.465
17.945999,-10.413,-6.7961,-11.765,-16.749001,-9.8551,-11.65,-10.744,2.8618,-11.765,-16.749001,-28.431,19.139,19.937,19.111,10.577,9.7262,-8.7821,-3.746,15.686,9.533
9.4155,-16.127001,-14.563,-14.706,-20.690001,-12.754,-20.388,3.8188,-0.06504,-14.706,-20.690001,-28.431,10.526,17.079,14.349,9.6154,5.8615,-0.12821,-35.174999,10.784,8.5668
3.7283,-17.079,-16.504999,-10.784,-11.823,-7.9227,-20.388,17.410999,-3.9675,-10.784,-11.823,-21.569,5.7416,14.222,8.6349,4.8077,1.9968,4.6795,-14.222,8.8235,5.6683
-0.06319,-21.841,-18.447001,-1.9608,-17.733999,-3.0918,-24.271999,18.382,-11.772,-1.9608,-17.733999,-20.587999,3.8278,5.6508,-0.88889,-4.8077,-5.7327,3.7179,4.8254,6.8627,-0.12882
-9.5419,-28.507999,-26.214001,-10.784,-26.601,-6.9565,-37.863998,8.6731,-18.601999,-10.784,-26.601,-24.51,-1.9139,-3.873,-10.413,-14.423,-18.292999,3.7179,-8.5079,4.902,-7.8583
-17.125,-31.365,-31.068001,-14.706,-20.690001,-10.821,-37.863998,4.7896,-15.675,-14.706,-20.690001,-26.471001,-9.5694,-12.444,-18.032,-23.077,-25.056,3.7179,-13.27,0.98039,-17.52
-27.551001,-32.317001,-34.951,-13.725,-21.674999,-16.618,-33.980999,2.8479,-13.724,-13.725,-21.674999,-27.451,-17.225,-20.063,-27.556,-32.692001,-31.82,4.6795,-18.032,-3.9216,-25.25
-30.395,-25.650999,-32.039001,-13.725,-12.808,-15.652,-23.301001,5.7605,-8.8455,-13.725,-12.808,-20.587999,-22.966999,-27.683001,-32.317001,-41.346001,-39.549,5.641,-9.4603,-8.8235,-30.080999
-25.656,-16.127001,-24.271999,-6.8627,1.9704,-10.821,-4.8544,11.586,2.8618,-6.8627,1.9704,-9.8039,-33.493,-39.111,-38.984001,-50.0,-46.312,7.5641,-2.7937,-13.725,-39.742001
-19.021,-4.6984,-16.504999,9.8039,14.778,-5.9903,12.621,16.440001,16.52,9.8039,14.778,0.98039,-42.105,-46.73,-42.793999,-53.846001,-49.210999,6.6026,0.06349,-17.646999,-46.506001
-15.229,2.9206,-10.68,17.646999,23.645,-2.1256,25.243,18.382,26.275999,17.646999,23.645,8.8235,-48.804001,-50.540001,-43.745998,-53.846001,-52.110001,3.7179,6.7302,-22.549,-48.438
-9.5419,6.7302,-6.7961,11.765,27.586,1.7391,27.184,17.410999,31.153999,11.765,27.586,12.745,-52.632,-48.634998,-44.698002,-48.077,-52.110001,-3.0128,13.397,-26.471001,-45.539001
-2.9068,10.54,-1.9417,11.765,21.674999,5.6039,24.271999,15.469,31.153999,11.765,21.674999,15.686,-44.976002,-39.111,-38.032001,-35.577,-45.346001,-3.0128,17.205999,-23.528999,-31.047001
-1.0111,6.7302,-3.8835,10.784,18.719,6.57,15.534,9.644,23.35,10.784,18.719,13.725,-33.493,-25.778,-27.556,-21.153999,-36.651001,-5.8974,12.444,-18.627001,-13.655
-1.0111,-1.8413,-9.7087,6.8627,7.8818,1.7391,3.8835,3.8188,9.6911,6.8627,7.8818,7.8431,-21.052999,-9.5873,-20.889,-7.6923,-29.886999,-7.8205,6.7302,-14.706,-0.12882
-2.9068,-9.4603,-12.621,5.8824,-3.9409,1.7391,-3.8835,5.7605,-1.0407,5.8824,-3.9409,5.8824,-8.6124,4.6984,-15.175,0.0,-21.191999,-6.859,3.873,-10.784,11.465
-1.9589,-6.6032,-5.8252,8.8235,-5.9113,4.6377,-5.8252,-2.0065,-2.9919,8.8235,-5.9113,9.8039,4.7847,13.27,-4.6984,7.6923,-8.6312,-9.7436,5.7778,-4.902,21.127001
-1.0111,0.06349,0.0,10.784,-3.9409,5.6039,-2.9126,-2.0065,-4.9431,10.784,-3.9409,14.706,16.268,18.032,4.8254,12.5,1.9968,-11.667,1.0159,0.98039,22.093
-1.9589,5.7778,1.9417,9.8039,-4.9261,3.6715,1.9417,0.90615,-1.0407,9.8039,-4.9261,16.667,21.052999,18.983999,9.5873,13.462,8.7601,-8.7821,-0.88889,5.8824,15.33
-0.06319,6.7302,3.8835,10.784,-0.98522,3.6715,0.97087,-0.06472,-1.0407,10.784,-0.98522,16.667,22.01,17.079,13.397,11.538,12.625,-3.0128,0.06349,12.745,9.533
1.8325,4.8254,2.9126,5.8824,3.9409,0.77295,-5.8252,-3.9482,-4.9431,5.8824,3.9409,14.706,21.052999,13.27,10.54,3.8462,10.692,1.7949,-4.6984,13.725,-0.12882
-1.0111,3.873,-0.97087,7.8431,7.8818,5.6039,-3.8835,-1.0356,-8.8455,7.8431,7.8818,16.667,15.311,6.6032,-0.88889,-5.7692,3.9291,1.7949,-7.5556,8.8235,-12.689
-4.8025,5.7778,-0.97087,16.667,19.704,16.232,9.7087,-2.0065,0.91057,16.667,19.704,18.627001,2.8708,-1.0159,-11.365,-13.462,-4.7665,1.7949,-0.88889,0.98039,-19.452
-2.9068,6.7302,-0.97087,16.667,23.645,16.232,17.476,-1.0356,14.569,16.667,23.645,19.608,-10.526,-2.9206,-18.032,-19.231001,-14.428,1.7949,7.6825,-4.902,-21.385
-1.0111,1.0159,-1.9417,13.725,15.764,8.5024,12.621,-2.0065,20.423,13.725,15.764,13.725,-17.225,-8.6349,-22.794001,-25.0,-23.124001,0.83333,14.349,-8.8235,-21.385
0.88468,-2.7937,-1.9417,12.745,11.823,-3.0918,5.8252,-2.9773,15.545,12.745,11.823,4.902,-16.268,-9.5873,-21.841,-22.115,-26.023001,-0.12821,14.349,-8.8235,-13.655
-1.0111,-4.6984,-1.9417,4.902,6.8966,-8.8889,-4.8544,-5.89,9.6911,4.902,6.8966,-3.9216,-14.354,-4.8254,-12.317,-11.538,-21.191999,-0.12821,11.492,-4.902,-1.095
-7.6461,-4.6984,-5.8252,0.98039,0.0,-8.8889,-5.8252,-8.8026,4.813,0.98039,0.0,-13.725,-4.7847,0.88889,-7.5556,0.0,-13.462,-2.0513,7.6825,-1.9608,6.6345
-15.229,-6.6032,-10.68,-1.9608,-6.8966,-14.686,-10.68,-15.599,-2.9919,-1.9608,-6.8966,-21.569,1.9139,6.6032,-6.6032,8.6538,-8.6312,-6.859,3.873,0.0,15.33
-17.125,-6.6032,-11.65,-6.8627,-10.837,-18.551001,-12.621,-14.628,-2.9919,-6.8627,-10.837,-23.528999,6.6986,15.175,-1.8413,17.308001,-0.90177,-6.859,6.7302,3.9216,24.992001
-18.073,-9.4603,-13.592,-9.8039,-14.778,-17.584999,-17.476,-14.628,-6.8943,-9.8039,-14.778,-25.49,10.526,20.889,-0.88889,20.191999,5.8615,-6.859,3.873,5.8824,28.857
-19.968,-17.079,-17.476,-14.706,-13.793,-16.618,-25.243,-15.599,-8.8455,-14.706,-13.793,-30.392,10.526,21.841,-2.7937,14.423,5.8615,-10.705,0.06349,1.9608,25.958
-21.864,-25.650999,-21.358999,-18.627001,-12.808,-22.415001,-33.980999,-16.57,-8.8455,-18.627001,-12.808,-32.353001,8.6124,16.127001,-6.6032,2.8846,1.0306,-18.396999,-3.746,-1.9608,15.33
-19.021,-29.459999,-22.33,-26.471001,-14.778,-30.145,-34.951,-21.424,-4.9431,-26.471001,-14.778,-31.372999,4.7847,7.5556,-8.5079,-10.577,-2.8341,-19.358999,-6.6032,-2.9412,-1.095
-17.125,-26.603001,-20.388,-27.451,-10.837,-27.246,-21.358999,-23.365999,0.91057,-27.451,-10.837,-27.451,1.9139,3.746,-10.413,-18.268999,-6.6989,-17.436001,-7.5556,-5.8824,-11.723
-16.177,-17.079,-17.476,-23.528999,-4.9261,-17.584999,-6.7961,-20.452999,3.8374,-23.528999,-4.9261,-17.646999,-2.8708,2.7937,-17.079,-21.153999,-14.428,-18.396999,-5.6508,-11.765,-16.554001
-10.49,-2.7937,-9.7087,-12.745,6.8966,-7.9227,8.7379,-9.7735,8.7154,-12.745,6.8966,-2.9412,-13.397,3.746,-23.746,-20.191999,-17.327,-17.436001,-3.746,-17.646999,-18.486
0.88468,12.444,1.9417,5.8824,18.719,2.7053,25.243,0.90615,15.545,5.8824,18.719,14.706,-20.096001,1.8413,-22.794001,-16.346001,-18.292999,-12.628,1.0159,-18.627001,-18.486
7.5197,20.063,6.7961,16.667,26.601,18.164,30.097,6.7314,22.374001,16.667,26.601,25.49,-22.01,-0.06349,-16.127001,-11.538,-19.259001,-8.7821,12.444,-16.667,-15.588
7.5197,18.159,3.8835,17.646999,27.586,21.063,29.125999,12.557,27.252001,17.646999,27.586,23.528999,-23.923,-1.9683,-14.222,-2.8846,-18.292999,-5.8974,23.872999,-14.706,-9.7907
0.88468,15.302,-3.8835,12.745,15.764,9.4686,23.301001,4.7896,26.275999,12.745,15.764,13.725,-21.052999,0.88889,-16.127001,7.6923,-16.361,-3.0128,27.683001,-12.745,1.8035
-6.6983,14.349,-9.7087,6.8627,7.8818,5.6039,13.592,-3.9482,17.496,6.8627,7.8818,2.9412,-14.354,4.6984,-12.317,17.308001,-13.462,-5.8974,28.635,-8.8235,13.398
-9.5419,13.397,-11.65,2.9412,5.9113,0.77295,5.8252,-10.744,13.593,2.9412,5.9113,-3.9216,-6.6986,5.6508,-7.5556,25.962,-5.7327,-8.7821,27.683001,-1.9608,23.059999
-5.7504,12.444,-8.7379,-7.8431,2.9557,-2.1256,3.8835,-18.511,13.593,-7.8431,2.9557,-4.902,0.95694,5.6508,-1.8413,30.768999,5.8615,-7.8205,25.778,3.9216,26.924
-1.9589,8.6349,-6.7961,-9.8039,-2.9557,-7.9227,2.9126,-18.511,10.667,-9.8039,-2.9557,-6.8627,5.7416,5.6508,5.7778,30.768999,14.557,-9.7436,20.063,8.8235,26.924
2.7804,2.9206,-5.8252,-9.8039,-2.9557,-14.686,-1.9417,-17.540001,5.7886,-9.8039,-2.9557,-7.8431,12.44,7.5556,14.349,27.885,20.354,-4.9359,18.159,13.725,23.059999
-4.8025,-4.6984,-5.8252,-16.667,-8.867,-20.483,-11.65,-6.8608,1.8862,-16.667,-8.867,-12.745,18.181999,9.4603,22.921,23.077,22.287001,3.7179,10.54,14.706,16.296
-9.5419,-9.4603,-5.8252,-25.49,-7.8818,-15.652,-15.534,-1.0356,-4.9431,-25.49,-7.8818,-14.706,22.966999,8.5079,27.683001,15.385,21.32,5.641,-1.8413,15.686,10.499
-5.7504,-16.127001,-3.8835,-12.745,-6.8966,-2.1256,-16.504999,-4.9191,-13.724,-12.745,-6.8966,-12.745,22.966999,4.6984,27.683001,5.7692,18.422001,12.372,-14.222,17.646999,2.7697
-1.0111,-22.794001,-4.8544,1.9608,-4.9261,6.57,-18.447001,3.8188,-21.528,1.9608,-4.9261,-6.8627,16.268,-2.9206,16.254,-8.6538,9.7262,20.063999,-21.841,15.686,-5.9259
4.6761,-22.794001,-5.8252,10.784,-1.9704,16.232,-14.563,10.615,-28.358,10.784,-1.9704,0.98039,6.6986,-13.397,4.8254,-21.153999,-1.868,21.025999,-28.507999,10.784,-17.52
5.624,-13.27,-2.9126,13.725,5.9113,19.129999,-0.97087,18.382,-25.431,13.725,5.9113,8.8235,2.8708,-16.254,-1.8413,-25.0,-11.53,21.987,-24.698,7.8431,-22.351
4.6761,-5.6508,-1.9417,13.725,10.837,18.164,4.8544,24.207001,-25.431,13.725,10.837,11.765,-5.7416,-15.302,-10.413,-25.0,-19.259001,18.141001,-20.889,0.98039,-22.351
0.88468,-0.88889,-3.8835,16.667,14.778,18.164,8.7379,1.877,-10.797,16.667,14.778,12.745,-15.311,-21.016001,-18.983999,-24.038,-26.023001,7.5641,-15.175,-7.8431,-23.316999
-2.9068,0.06349,-6.7961,16.667,15.764,14.3,7.767,-2.9773,-2.0163,16.667,15.764,9.8039,-23.923,-29.587,-26.603001,-26.923,-29.886999,8.5256,-12.317,-15.686,-32.013
-6.6983,3.873,-6.7961,20.587999,17.733999,15.266,14.563,20.323999,10.667,20.587999,17.733999,7.8431,-31.579,-32.444,-29.459999,-25.962,-28.921,13.333,-0.88889,-19.608,-34.910999
-11.438,2.9206,-5.8252,16.667,14.778,3.6715,11.65,14.498,0.91057,16.667,14.778,0.0,-37.320999,-34.348999,-28.507999,-23.077,-26.989,5.641,2.9206,-23.528999,-32.979
-7.6461,1.0159,-1.9417,2.9412,0.98522,-0.19324,1.9417,17.410999,1.8862,2.9412,0.98522,-7.8431,-37.320999,-29.587,-23.746,-18.268999,-21.191999,5.641,-0.88889,-24.51,-27.181999
-9.5419,1.0159,-1.9417,-11.765,-4.9261,-8.8889,-3.8835,-8.8026,13.593,-11.765,-4.9261,-11.765,-34.450001,-20.063,-21.841,-10.577,-15.395,-0.12821,4.8254,-23.528999,-15.588
-19.021,-4.6984,-9.7087,-21.569,-9.8522,-22.415001,-11.65,-14.628,4.813,-21.569,-9.8522,-17.646999,-33.493,-17.205999,-25.650999,-7.6923,-16.361,-7.8205,9.5873,-26.471001,-8.8245
-16.177,-4.6984,-8.7379,-19.608,-5.9113,-21.448999,-2.9126,-6.8608,5.7886,-19.608,-5.9113,-14.706,-28.708,-12.444,-24.698,-2.8846,-12.496,-9.7436,13.397,-24.51,-0.12882
-8.594,-2.7937,-3.8835,-8.8235,-1.9704,-12.754,0.0,-5.89,8.7154,-8.8235,-1.9704,-8.8235,-22.966999,-7.6825,-19.937,0.96154,-7.6651,-12.628,16.254,-20.587999,5.6683
-2.9068,0.06349,0.0,-3.9216,0.0,-4.058,0.97087,-2.0065,8.7154,-3.9216,0.0,-2.9412,-17.225,-3.873,-13.27,4.8077,-3.8003,-7.8205,14.349,-16.667,12.432
-1.9589,-1.8413,-0.97087,-2.9412,1.9704,4.6377,2.9126,4.7896,10.667,-2.9412,1.9704,0.98039,-12.44,-1.0159,-11.365,4.8077,-5.7327,-5.8974,14.349,-14.706,15.33
0.88468,-7.5556,-4.8544,-2.9412,1.9704,6.57,-2.9126,-2.9773,-0.06504,-2.9412,1.9704,0.98039,-6.6986,1.8413,-13.27,1.9231,-8.6312,-7.8205,7.6825,-11.765,13.398
-5.7504,-10.413,-8.7379,-7.8431,-3.9409,-1.1594,-6.7961,-2.0065,-5.9187,-7.8431,-3.9409,-1.9608,-4.7847,1.8413,-15.175,0.0,-11.53,-6.859,1.0159,-10.784,8.5668
-10.49,-12.317,-8.7379,-17.646999,-14.778,-5.9903,-15.534,-7.8317,-18.601999,-17.646999,-14.778,-8.8235,-0.95694,3.746,-11.365,0.96154,-8.6312,-5.8974,-9.4603,-9.8039,4.7021
-5.7504,-9.4603,-3.8835,-14.706,-17.733999,-3.0918,-18.447001,-8.8026,-24.455,-14.706,-17.733999,-13.725,4.7847,9.4603,1.9683,9.6154,4.8953,-0.12821,-21.841,-3.9216,2.7697
0.88468,-3.746,1.9417,-10.784,-16.749001,-5.0242,-17.476,-0.06472,-22.504,-10.784,-16.749001,-13.725,12.44,16.127001,19.111,19.231001,20.354,8.5256,-23.746,7.8431,5.6683
6.5719,1.0159,7.767,-10.784,-11.823,-4.058,-12.621,0.90615,-14.699,-10.784,-11.823,-12.745,20.096001,18.983999,32.444,26.923,31.948,16.218,-17.079,15.686,6.6345
13.207,10.54,14.563,-4.902,-8.867,8.5024,0.0,7.7023,-20.552999,-4.902,-8.867,-6.8627,24.879999,22.794001,37.206001,32.692001,40.644001,24.872,-14.222,22.549,11.465
28.372999,20.063,22.33,7.8431,-1.9704,20.097,11.65,3.8188,-25.431,7.8431,-1.9704,2.9412,29.665001,27.556,39.111,35.577,46.441002,27.756001,-7.5556,26.471001,17.261999
17.945999,13.397,18.447001,2.9412,1.9704,6.57,4.8544,10.615,-9.8211,2.9412,1.9704,0.0,27.750999,25.650999,31.492001,26.923,39.678001,22.948999,-4.6984,21.569,17.261999
7.5197,2.9206,9.7087,0.0,0.0,-4.058,2.9126,24.207001,6.7642,0.0,0.0,1.9608,21.052999,18.032,21.968,12.5,26.150999,21.987,-1.8413,12.745,11.465
14.155,2.9206,8.7379,8.8235,4.9261,9.4686,11.65,18.382,12.618,8.8235,4.9261,11.765,14.354,14.222,14.349,1.9231,15.523,15.256,1.9683,9.8039,7.6006
19.841999,4.8254,12.621,14.706,15.764,29.757999,19.417,17.410999,14.569,14.706,15.764,22.549,8.6124,13.27,11.492,-4.8077,9.7262,12.372,1.9683,8.8235,7.6006
20.790001,9.5873,14.563,18.627001,17.733999,32.657001,26.214001,20.323999,14.569,18.627001,17.733999,30.392,4.7847,10.413,8.6349,-4.8077,5.8615,12.372,3.873,4.902,7.6006
16.997999,17.205999,13.592,17.646999,23.645,30.725,32.039001,25.177999,18.472,17.646999,23.645,33.333,-1.9139,7.5556,2.9206,3.8462,2.963,9.4872,13.397,0.98039,9.533
3.7283,14.349,4.8544,15.686,24.631001,22.995001,25.243,19.353001,17.496,15.686,24.631001,27.451,-7.6555,3.746,-10.413,7.6923,-7.6651,-0.12821,15.302,-10.784,11.465
-1.9589,10.54,-1.9417,18.627001,19.704,20.097,17.476,15.469,17.496,18.627001,19.704,22.549,-12.44,0.88889,-18.983999,7.6923,-17.327,-3.9744,15.302,-17.646999,10.499
-6.6983,3.873,-10.68,13.725,16.749001,8.5024,12.621,9.644,11.642,13.725,16.749001,11.765,-15.311,-2.9206,-20.889,1.9231,-24.09,-7.8205,9.5873,-17.646999,2.7697
-14.281,-2.7937,-15.534,0.98039,8.867,-10.821,4.8544,-3.9482,6.7642,0.98039,8.867,-0.98039,-14.354,-5.7778,-18.983999,-5.7692,-26.023001,-10.705,5.7778,-16.667,-0.12882
-23.76,-11.365,-22.33,-14.706,-2.9557,-27.246,-0.97087,-11.715,4.813,-14.706,-2.9557,-11.765,-19.139,-13.397,-21.841,-14.423,-29.886999,-14.551,5.7778,-21.569,-7.8583
-28.499001,-12.317,-24.271999,-13.725,-0.98522,-23.382,1.9417,-11.715,7.7398,-13.725,-0.98522,-12.745,-23.923,-21.016001,-26.603001,-21.153999,-32.785999,-15.513,1.0159,-24.51,-16.554001
-32.291,-11.365,-22.33,-9.8039,6.8966,-18.551001,3.8835,-7.8317,11.642,-9.8039,6.8966,-12.745,-27.750999,-23.872999,-29.459999,-24.038,-33.751999,-15.513,-0.88889,-25.49,-17.52
-34.186001,-9.4603,-18.447001,-6.8627,7.8818,-20.483,3.8835,-8.8026,13.593,-6.8627,7.8818,-14.706,-30.622,-23.872999,-31.365,-24.038,-32.785999,-17.436001,2.9206,-25.49,-16.554001
-28.499001,-5.6508,-12.621,0.0,10.837,-17.584999,8.7379,-3.9482,16.52,0.0,10.837,-14.706,-27.750999,-19.111,-30.413,-20.191999,-24.09,-14.551,5.7778,-23.528999,-14.622
-18.073,-1.8413,-5.8252,0.0,10.837,-14.686,9.7087,1.877,15.545,0.0,10.837,-13.725,-23.923,-16.254,-28.507999,-16.346001,-17.327,-13.59,6.7302,-22.549,-11.723
-12.385,-0.88889,-2.9126,-2.9412,4.9261,-13.72,-0.97087,6.7314,13.593,-2.9412,4.9261,-11.765,-27.750999,-17.205999,-28.507999,-19.231001,-17.327,-12.628,7.6825,-23.528999,-11.723
-8.594,-1.8413,-3.8835,-1.9608,4.9261,-5.0242,-1.9417,8.6731,8.7154,-1.9608,4.9261,-9.8039,-31.579,-16.254,-31.365,-22.115,-19.259001,-11.667,6.7302,-24.51,-11.723
-8.594,-5.6508,-9.7087,1.9608,0.98522,-2.1256,0.0,7.7023,0.91057,1.9608,0.98522,-10.784,-31.579,-16.254,-34.222,-25.962,-24.09,-13.59,2.9206,-24.51,-8.8245
-8.594,-10.413,-14.563,-2.9412,-9.8522,-5.0242,-6.7961,7.7023,-7.8699,-2.9412,-9.8522,-10.784,-31.579,-12.444,-32.317001,-25.962,-26.989,-6.859,2.9206,-20.587999,-6.8921
-4.8025,-13.27,-17.476,-4.902,-18.719,0.77295,-17.476,11.586,-16.65,-4.902,-18.719,-8.8235,-27.750999,-7.6825,-26.603001,-22.115,-26.023001,2.7564,-3.746,-12.745,-6.8921
-1.9589,-18.983999,-20.388,-4.902,-24.631001,-1.1594,-30.097,7.7023,-26.407,-4.902,-24.631001,-12.745,-22.966999,-7.6825,-18.983999,-19.231001,-26.023001,5.641,-14.222,-7.8431,-6.8921
5.624,-20.889,-15.534,-7.8431,-24.631001,1.7391,-32.039001,6.7314,-29.333,-7.8431,-24.631001,-10.784,-13.397,-5.7778,-4.6984,-14.423,-17.327,10.449,-20.889,0.0,-3.9936
12.259,-20.889,-9.7087,-7.8431,-25.615999,-5.0242,-27.184,4.7896,-31.285,-7.8431,-25.615999,-13.725,-3.8278,-3.873,9.5873,-8.6538,-5.7327,12.372,-25.650999,5.8824,-4.9597
14.155,-19.937,-5.8252,-9.8039,-24.631001,-5.9903,-22.33,0.90615,-32.259998,-9.8039,-24.631001,-18.627001,0.0,-3.873,17.205999,-3.8462,1.9968,9.4872,-29.459999,13.725,-8.8245
15.103,-17.079,-0.97087,-11.765,-21.674999,-5.0242,-19.417,0.90615,-27.382,-11.765,-21.674999,-21.569,2.8708,-1.9683,21.968,1.9231,6.8277,10.449,-27.556,18.627001,-8.8245
13.207,-14.222,1.9417,-11.765,-12.808,-8.8889,-21.358999,2.8479,-20.552999,-11.765,-12.808,-26.471001,4.7847,-0.06349,21.968,4.8077,9.7262,11.41,-21.841,17.646999,-7.8583
12.259,-8.5079,4.8544,-15.686,-6.8966,-16.618,-13.592,6.7314,-10.797,-15.686,-6.8966,-24.51,4.7847,-1.9683,21.016001,4.8077,11.659,14.295,-18.032,15.686,-9.7907
14.155,1.9683,9.7087,-7.8431,1.9704,-12.754,0.97087,8.6731,-0.06504,-7.8431,1.9704,-13.725,7.6555,-1.0159,19.111,6.7308,13.591,15.256,-13.27,12.745,-6.8921
16.051001,12.444,16.504999,4.902,9.8522,5.6039,8.7379,14.498,-0.06504,4.902,9.8522,-0.98039,12.44,2.7937,18.159,11.538,17.455999,13.333,-10.413,11.765,-3.0274
16.051001,20.063,22.33,8.8235,11.823,14.3,21.358999,15.469,0.91057,8.8235,11.823,10.784,13.397,7.5556,18.159,15.385,18.422001,13.333,-5.6508,13.725,1.8035
