C3,C4,Cz,F1,F2,F3,F4,F7,F8,Fp1,Fp2,Fz,O1,O2,P3,P4,Pz,T3,T4,T5,T6
-8.9109,-6.1279,-7.0627,-0.98039,4.7896,-4.1924,3.0303,-7.9739,2.0202,-0.98039,4.7896,0.97087,-14.29,-12.742,-13.0,-9.8693,-12.935,-12.067,-1.0356,-9.626,-6.6992
-8.9109,-3.0976,-7.0627,2.9412,7.7023,-2.1306,5.0505,-5.0327,6.0606,2.9412,7.7023,2.9126,-14.29,-12.742,-14.0,-9.8693,-13.93,-7.0667,1.877,-8.6504,-4.748
-11.881,-5.1178,-9.0429,2.9412,6.7314,-3.1615,4.0404,-3.0719,6.0606,2.9412,6.7314,0.0,-14.29,-13.727,-15.0,-11.83,-14.925,-9.0667,-2.9773,-9.626,-6.6992
-12.871,-11.178,-13.003,0.98039,3.8188,-5.2234,-1.0101,-2.0915,-3.0303,0.98039,3.8188,-3.8835,-14.29,-14.713,-15.0,-13.791,-15.92,-9.0667,-7.8317,-10.602,-11.577
-13.861,-13.199,-14.983,0.0,2.8479,-7.2852,-4.0404,-6.0131,-5.0505,0.0,2.8479,-5.8252,-12.376,-12.742,-14.0,-12.81,-14.925,-13.067,-7.8317,-11.577,-10.602
-14.851,-14.209,-18.944,0.0,2.8479,-9.3471,-7.0707,-8.9542,-2.0202,0.0,2.8479,-7.767,-14.29,-13.727,-17.0,-13.791,-15.92,-13.067,-7.8317,-13.528,-9.626
-15.842,-17.239,-19.934,0.0,2.8479,-8.3162,-7.0707,-5.0327,-3.0303,0.0,2.8479,-9.7087,-15.247,-14.713,-17.0,-15.752,-18.905001,-6.0667,-7.8317,-12.553,-10.602
-14.851,-18.249001,-18.944,0.98039,2.8479,-8.3162,-8.0808,-2.0915,-6.0606,0.98039,2.8479,-9.7087,-13.333,-14.713,-16.0,-16.732,-19.9,-7.0667,-14.628,-9.626,-10.602
-12.871,-15.219,-18.944,-0.98039,0.90615,-8.3162,-9.0909,-1.1111,-6.0606,-0.98039,0.90615,-10.68,-12.376,-14.713,-15.0,-17.712,-18.905001,-8.0667,-14.628,-6.6992,-12.553
-12.871,-18.249001,-18.944,-3.9216,-1.0356,-10.378,-12.121,-3.0719,-6.0606,-3.9216,-1.0356,-13.592,-11.419,-14.713,-14.0,-18.693001,-18.905001,-9.0667,-10.744,-6.6992,-13.528
-12.871,-20.268999,-18.944,-2.9412,-0.06472,-10.378,-11.111,-4.0523,-5.0505,-2.9412,-0.06472,-12.621,-11.419,-15.698,-15.0,-19.673,-19.9,-7.0667,-9.7735,-7.6748,-14.504
-11.881,-17.239,-16.964001,0.0,1.877,-6.2543,-6.0606,-0.13072,-2.0202,0.0,1.877,-8.7379,-14.29,-17.667999,-16.0,-20.653999,-20.896,-5.0667,-9.7735,-9.626,-14.504
-10.891,-18.249001,-17.954,-0.98039,0.90615,-6.2543,-8.0808,-3.0719,-4.0404,-0.98039,0.90615,-8.7379,-17.160999,-20.624001,-17.0,-22.614,-21.891001,-6.0667,-10.744,-10.602,-18.407
-13.861,-23.299999,-20.924,-3.9216,-2.9773,-8.3162,-13.131,-4.0523,-8.0808,-3.9216,-2.9773,-12.621,-20.032,-23.58,-19.0,-24.575001,-23.881001,-2.0667,-11.715,-11.577,-21.333
-15.842,-23.299999,-21.914,-5.8824,-5.89,-11.409,-16.162001,-6.0131,-10.101,-5.8824,-5.89,-14.563,-20.989,-24.565001,-21.0,-24.575001,-23.881001,-7.0667,-9.7735,-14.504,-21.333
-11.881,-14.209,-15.974,-5.8824,-3.9482,-8.3162,-9.0909,-6.0131,-2.0202,-5.8824,-3.9482,-9.7087,-17.160999,-18.653999,-16.0,-17.712,-18.905001,-8.0667,-4.9191,-12.553,-14.504
-12.871,-11.178,-14.983,-5.8824,-3.9482,-10.378,-7.0707,-6.0131,0.0,-5.8824,-3.9482,-9.7087,-16.204,-16.683001,-15.0,-13.791,-16.915001,-10.067,-5.89,-11.577,-11.577
-14.851,-10.168,-13.993,-4.902,-3.9482,-9.3471,-8.0808,-4.0523,-7.0707,-4.902,-3.9482,-8.7379,-17.160999,-15.698,-17.0,-13.791,-16.915001,-8.0667,-8.8026,-13.528,-12.553
-12.871,-10.168,-12.013,-3.9216,-3.9482,-6.2543,-7.0707,-2.0915,-5.0505,-3.9216,-3.9482,-7.767,-14.29,-13.727,-15.0,-12.81,-14.925,-3.0667,-5.89,-11.577,-10.602
-7.9208,-10.168,-9.0429,-2.9412,-3.9482,-4.1924,-6.0606,-1.1111,-6.0606,-2.9412,-3.9482,-4.8544,-10.463,-9.7865,-10.0,-9.8693,-10.945,-0.06667,-2.0065,-7.6748,-7.6748
-0.9901,-3.0976,-4.0924,-0.98039,-1.0356,1.9931,-1.0101,6.732,-1.0101,-0.98039,-1.0356,0.97087,-5.6778,-6.8309,-5.0,-5.9477,-5.9701,6.9333,-3.9482,-4.748,-4.748
0.9901,-3.0976,-3.1023,-0.98039,-2.0065,3.0241,0.0,4.7712,-2.0202,-0.98039,-2.0065,1.9417,-3.764,-4.8604,-4.0,-4.9673,-4.9751,0.93333,-0.06472,-3.7724,-3.7724
-1.9802,-4.1077,-4.0924,-0.98039,-2.9773,0.9622,-1.0101,0.84967,-6.0606,-0.98039,-2.9773,0.97087,-3.764,-5.8456,-4.0,-5.9477,-5.9701,-0.06667,-0.06472,-2.7967,-5.7236
-2.9703,-5.1178,-6.0726,-0.98039,-2.0065,0.9622,-1.0101,0.84967,-5.0505,-0.98039,-2.0065,0.97087,-4.7209,-7.8161,-4.0,-6.9281,-7.9602,0.93333,-5.89,-0.84553,-6.6992
-2.9703,-5.1178,-7.0627,-0.98039,-1.0356,-0.06873,-2.0202,-1.1111,-3.0303,-0.98039,-1.0356,-0.97087,-5.6778,-8.8013,-5.0,-7.9085,-8.9552,0.93333,-3.9482,-1.8211,-6.6992
-1.9802,-4.1077,-7.0627,0.0,-2.0065,0.9622,-2.0202,2.8105,-1.0101,0.0,-2.0065,-1.9417,-5.6778,-8.8013,-5.0,-5.9477,-8.9552,5.9333,-2.9773,-1.8211,-4.748
-0.9901,-5.1178,-6.0726,-0.98039,-3.9482,-1.0997,-5.0505,1.8301,-7.0707,-0.98039,-3.9482,-2.9126,-2.807,-4.8604,-3.0,-3.9869,-4.9751,4.9333,-1.0356,0.13008,-3.7724
2.9703,-1.0774,-3.1023,-0.98039,-2.0065,-0.06873,-3.0303,2.8105,-6.0606,-0.98039,-2.0065,-1.9417,2.9346,0.06568,3.0,0.91503,0.99502,7.9333,3.8188,5.0081,-0.84553
7.9208,1.9529,1.8482,0.98039,-0.06472,3.0241,0.0,3.7908,-1.0101,0.98039,-0.06472,0.97087,9.6332,6.9622,9.0,5.817,6.9652,7.9333,2.8479,8.9106,4.0325
5.9406,2.963,2.8383,2.9412,2.8479,4.055,3.0303,2.8105,1.0101,2.9412,2.8479,2.9126,9.6332,7.9475,9.0,6.7974,7.9602,-1.0667,5.7605,7.935,6.9593
4.9505,5.9933,4.8185,4.902,4.7896,4.055,6.0606,1.8301,6.0606,4.902,4.7896,5.8252,4.8485,4.0066,6.0,4.8366,4.9751,-0.06667,2.8479,4.0325,5.9837
3.9604,1.9529,2.8383,2.9412,1.877,5.0859,2.0202,4.7712,2.0202,2.9412,1.877,3.8835,-0.89314,-0.91954,2.0,1.8954,1.99,0.93333,-2.0065,-1.8211,1.1057
0.9901,-2.0875,-0.13201,2.9412,-2.0065,3.0241,-3.0303,2.8105,-1.0101,2.9412,-2.0065,0.0,-4.7209,-4.8604,-1.0,-1.0458,-1.99,-1.0667,-3.9482,-4.748,-1.8211
2.9703,-1.0774,-0.13201,1.9608,-2.0065,3.0241,-4.0404,-0.13072,-6.0606,1.9608,-2.0065,0.97087,-1.8501,-2.89,1.0,-0.06536,-0.99502,2.9333,1.877,-0.84553,1.1057
6.9307,-1.0774,0.85809,2.9412,1.877,5.0859,0.0,2.8105,-2.0202,2.9412,1.877,2.9126,-0.89314,-3.8752,4.0,-0.06536,0.99502,7.9333,3.8188,2.0813,0.13008
6.9307,-2.0875,2.8383,2.9412,2.8479,6.1168,0.0,1.8301,-1.0101,2.9412,2.8479,3.8835,-0.89314,-3.8752,5.0,-0.06536,1.99,4.9333,5.7605,3.0569,-1.8211
8.9109,1.9529,7.7888,4.902,3.8188,9.2096,3.0303,3.7908,-1.0101,4.902,3.8188,6.7961,0.0638,-1.9048,7.0,2.8758,5.9701,1.9333,3.8188,4.0325,0.13008
8.9109,3.9731,8.7789,4.902,3.8188,8.1787,5.0505,1.8301,3.0303,4.902,3.8188,8.7379,1.0207,0.06568,6.0,3.8562,5.9701,1.9333,-1.0356,4.0325,2.0813
5.9406,4.9832,8.7789,4.902,4.7896,7.1478,9.0909,1.8301,7.0707,4.902,4.7896,10.68,1.9777,1.0509,6.0,4.8366,5.9701,3.9333,3.8188,3.0569,3.0569
3.9604,2.963,5.8086,2.9412,3.8188,5.0859,7.0707,-1.1111,7.0707,2.9412,3.8188,8.7379,1.9777,0.06568,5.0,3.8562,3.9801,4.9333,4.7896,3.0569,2.0813
0.0,-0.06734,0.85809,0.98039,1.877,1.9931,3.0303,-1.1111,3.0303,0.98039,1.877,4.8544,1.0207,-1.9048,2.0,1.8954,0.99502,1.9333,0.90615,1.1057,1.1057
1.9802,-0.06734,-0.13201,0.98039,1.877,1.9931,2.0202,-0.13072,1.0101,0.98039,1.877,2.9126,2.9346,1.0509,4.0,3.8562,2.9851,4.9333,6.7314,4.0325,4.0325
2.9703,0.94276,0.85809,0.0,1.877,3.0241,2.0202,-1.1111,2.0202,0.0,1.877,1.9417,5.8054,4.0066,5.0,4.8366,3.9801,2.9333,6.7314,5.0081,5.0081
1.9802,1.9529,-0.13201,1.9608,0.90615,4.055,2.0202,4.7712,1.0101,1.9608,0.90615,1.9417,2.9346,2.0361,4.0,3.8562,2.9851,1.9333,6.7314,3.0569,4.0325
1.9802,1.9529,-0.13201,3.9216,0.90615,3.0241,2.0202,2.8105,5.0505,3.9216,0.90615,1.9417,2.9346,3.0213,4.0,4.8366,3.9801,0.93333,4.7896,3.0569,5.0081
2.9703,-0.06734,-1.1221,3.9216,0.90615,3.0241,1.0101,6.732,1.0101,3.9216,0.90615,0.97087,2.9346,3.0213,4.0,4.8366,3.9801,4.9333,0.90615,3.0569,5.9837
1.9802,-1.0774,-0.13201,3.9216,0.90615,1.9931,1.0101,6.732,0.0,3.9216,0.90615,0.97087,2.9346,3.0213,4.0,4.8366,3.9801,9.9333,-1.0356,1.1057,5.9837
3.9604,1.9529,1.8482,3.9216,-0.06472,3.0241,0.0,6.732,-3.0303,3.9216,-0.06472,0.97087,3.8915,4.0066,5.0,6.7974,5.9701,5.9333,-0.06472,2.0813,6.9593
8.9109,2.963,4.8185,3.9216,-0.06472,6.1168,2.0202,9.6732,-1.0101,3.9216,-0.06472,2.9126,5.8054,4.9918,8.0,7.7778,7.9602,8.9333,4.7896,5.0081,6.9593
8.9109,-0.06734,4.8185,2.9412,0.90615,5.0859,1.0101,6.732,-1.0101,2.9412,0.90615,3.8835,9.6332,7.9475,11.0,7.7778,9.9502,10.933,6.7314,8.9106,7.935
5.9406,-1.0774,0.85809,1.9608,-1.0356,1.9931,-2.0202,3.7908,-2.0202,1.9608,-1.0356,0.0,7.7193,4.9918,7.0,5.817,5.9701,5.9333,1.877,6.9593,5.0081
1.9802,-3.0976,-2.1122,0.98039,-2.9773,-0.06873,-3.0303,5.7516,-1.0101,0.98039,-2.9773,-2.9126,1.9777,-0.91954,2.0,1.8954,0.99502,4.9333,0.90615,1.1057,3.0569
1.9802,-2.0875,-1.1221,0.0,-2.9773,-1.0997,-2.0202,0.84967,0.0,0.0,-2.9773,-1.9417,0.0638,-1.9048,1.0,1.8954,0.0,2.9333,1.877,1.1057,4.0325
-0.9901,-3.0976,-2.1122,0.98039,-1.0356,-2.1306,-2.0202,-0.13072,-1.0101,0.98039,-1.0356,-0.97087,-1.8501,-2.89,-2.0,-0.06536,-1.99,-0.06667,4.7896,-0.84553,2.0813
-2.9703,-3.0976,-3.1023,0.98039,-1.0356,-1.0997,-1.0101,4.7712,2.0202,0.98039,-1.0356,-0.97087,-0.89314,-1.9048,-3.0,-1.0458,-1.99,-1.0667,4.7896,-0.84553,0.13008
-0.9901,-1.0774,-2.1122,0.0,-2.0065,-1.0997,0.0,1.8301,3.0303,0.0,-2.0065,0.0,1.9777,0.06568,0.0,-0.06536,-0.99502,-1.0667,5.7605,3.0569,1.1057
0.0,1.9529,-1.1221,0.98039,-0.06472,-0.06873,2.0202,0.84967,3.0303,0.98039,-0.06472,1.9417,2.9346,0.06568,0.0,-0.06536,-0.99502,0.93333,3.8188,3.0569,1.1057
-1.9802,3.9731,-0.13201,1.9608,1.877,-0.06873,3.0303,0.84967,5.0505,1.9608,1.877,2.9126,0.0638,-0.91954,-4.0,-0.06536,-1.99,4.9333,2.8479,-2.7967,1.1057
-0.9901,0.94276,-0.13201,3.9216,2.8479,3.0241,2.0202,6.732,6.0606,3.9216,2.8479,2.9126,1.0207,-0.91954,-4.0,0.91503,0.0,3.9333,8.6731,-1.8211,2.0813
5.9406,1.9529,2.8383,4.902,3.8188,5.0859,3.0303,9.6732,5.0505,4.902,3.8188,3.8835,2.9346,1.0509,2.0,2.8758,2.9851,0.93333,9.644,4.0325,3.0569
5.9406,5.9933,5.8086,5.8824,5.7605,6.1168,6.0606,6.732,5.0505,5.8824,5.7605,5.8252,1.9777,1.0509,2.0,4.8366,3.9801,6.9333,9.644,5.0081,5.0081
0.9901,3.9731,1.8482,3.9216,3.8188,3.0241,3.0303,2.8105,6.0606,3.9216,3.8188,1.9417,1.9777,1.0509,-2.0,3.8562,0.99502,7.9333,8.6731,4.0325,5.9837
0.0,2.963,-1.1221,1.9608,-0.06472,-0.06873,0.0,2.8105,2.0202,1.9608,-0.06472,-0.97087,4.8485,3.0213,0.0,3.8562,0.99502,1.9333,6.7314,5.0081,7.935
-3.9604,2.963,-2.1122,0.98039,-1.0356,-1.0997,0.0,0.84967,0.0,0.98039,-1.0356,0.0,4.8485,4.0066,-2.0,3.8562,0.0,-2.0667,9.644,4.0325,8.9106
-6.9307,3.9731,-1.1221,2.9412,0.90615,1.9931,2.0202,2.8105,1.0101,2.9412,0.90615,3.8835,3.8915,3.0213,-4.0,2.8758,-0.99502,2.9333,8.6731,1.1057,6.9593
0.0,3.9731,1.8482,5.8824,1.877,7.1478,2.0202,5.7516,-1.0101,5.8824,1.877,5.8252,6.7624,6.9622,0.0,4.8366,1.99,6.9333,5.7605,5.0081,7.935
0.9901,1.9529,1.8482,5.8824,0.90615,5.0859,0.0,4.7712,-2.0202,5.8824,0.90615,3.8835,7.7193,6.9622,1.0,4.8366,2.9851,3.9333,5.7605,5.0081,8.9106
5.9406,9.0236,5.8086,7.8431,4.7896,9.2096,8.0808,9.6732,10.101,7.8431,4.7896,8.7379,7.7193,6.9622,4.0,6.7974,4.9751,4.9333,9.644,5.9837,9.8862
6.9307,7.0034,5.8086,6.8627,5.7605,8.1787,7.0707,6.732,11.111,6.8627,5.7605,8.7379,6.7624,4.9918,3.0,5.817,4.9751,4.9333,10.615,5.0081,8.9106
5.9406,0.94276,4.8185,4.902,2.8479,7.1478,1.0101,0.84967,0.0,4.902,2.8479,7.767,5.8054,4.0066,3.0,3.8562,3.9801,6.9333,6.7314,5.9837,7.935
5.9406,0.94276,5.8086,3.9216,1.877,8.1787,1.0101,2.8105,-2.0202,3.9216,1.877,7.767,4.8485,4.0066,2.0,3.8562,3.9801,5.9333,7.7023,5.0081,6.9593
8.9109,2.963,6.7987,3.9216,1.877,9.2096,3.0303,6.732,0.0,3.9216,1.877,7.767,5.8054,6.9622,5.0,4.8366,6.9652,1.9333,4.7896,5.0081,6.9593
8.9109,5.9933,8.7789,2.9412,3.8188,7.1478,5.0505,3.7908,4.0404,2.9412,3.8188,7.767,11.547,11.888,9.0,8.7582,11.94,5.9333,5.7605,6.9593,7.935
8.9109,8.0135,11.749,2.9412,2.8479,6.1168,4.0404,1.8301,1.0101,2.9412,2.8479,6.7961,14.418,14.844,11.0,10.719,14.925,6.9333,7.7023,7.935,9.8862
12.871,11.044,13.729,3.9216,2.8479,9.2096,6.0606,4.7712,3.0303,3.9216,2.8479,8.7379,14.418,12.874,13.0,11.699,14.925,6.9333,7.7023,11.837,9.8862
9.901,5.9933,9.769,4.902,2.8479,8.1787,4.0404,3.7908,2.0202,4.902,2.8479,5.8252,11.547,7.9475,9.0,6.7974,9.9502,14.933,1.877,11.837,6.9593
8.9109,2.963,5.8086,4.902,1.877,7.1478,1.0101,4.7712,5.0505,4.902,1.877,2.9126,8.6762,3.0213,8.0,3.8562,6.9652,9.9333,3.8188,12.813,3.0569
10.891,5.9933,6.7987,5.8824,0.90615,8.1787,1.0101,10.654,0.0,5.8824,0.90615,3.8835,11.547,5.977,10.0,5.817,8.9552,8.9333,5.7605,12.813,5.9837
7.9208,4.9832,6.7987,6.8627,1.877,9.2096,1.0101,12.614,-3.0303,6.8627,1.877,4.8544,10.59,6.9622,8.0,4.8366,6.9652,11.933,4.7896,8.9106,5.0081
10.891,8.0135,9.769,10.784,5.7605,11.271,7.0707,10.654,3.0303,10.784,5.7605,9.7087,10.59,7.9475,9.0,6.7974,7.9602,9.9333,6.7314,9.8862,6.9593
8.9109,10.034,9.769,8.8235,6.7314,7.1478,7.0707,6.732,6.0606,8.8235,6.7314,7.767,9.6332,6.9622,8.0,7.7778,7.9602,10.933,8.6731,8.9106,6.9593
8.9109,14.074,9.769,6.8627,5.7605,7.1478,9.0909,8.6928,11.111,6.8627,5.7605,7.767,11.547,8.9327,10.0,11.699,9.9502,11.933,12.557,8.9106,10.862
7.9208,14.074,8.7789,3.9216,2.8479,4.055,6.0606,4.7712,6.0606,3.9216,2.8479,4.8544,12.504,11.888,11.0,13.66,10.945,9.9333,8.6731,9.8862,12.813
5.9406,7.0034,6.7987,2.9412,0.90615,1.9931,2.0202,0.84967,0.0,2.9412,0.90615,2.9126,10.59,8.9327,8.0,8.7582,8.9552,2.9333,8.6731,8.9106,8.9106
4.9505,5.9933,8.7789,3.9216,2.8479,3.0241,4.0404,3.7908,5.0505,3.9216,2.8479,3.8835,8.6762,5.977,6.0,5.817,6.9652,1.9333,11.586,6.9593,5.9837
4.9505,5.9933,9.769,5.8824,2.8479,4.055,3.0303,3.7908,2.0202,5.8824,2.8479,4.8544,9.6332,6.9622,5.0,6.7974,8.9552,1.9333,5.7605,4.0325,5.9837
3.9604,1.9529,8.7789,5.8824,1.877,3.0241,1.0101,3.7908,1.0101,5.8824,1.877,3.8835,9.6332,7.9475,6.0,6.7974,8.9552,0.93333,-0.06472,4.0325,5.0081
8.9109,2.963,11.749,7.8431,4.7896,8.1787,5.0505,7.7124,3.0303,7.8431,4.7896,7.767,8.6762,6.9622,9.0,6.7974,10.945,4.9333,2.8479,5.0081,3.0569
11.881,4.9832,13.729,7.8431,4.7896,10.241,5.0505,6.732,1.0101,7.8431,4.7896,9.7087,5.8054,4.0066,9.0,6.7974,10.945,6.9333,-1.0356,5.0081,2.0813
13.861,3.9731,13.729,6.8627,3.8188,9.2096,2.0202,5.7516,-5.0505,6.8627,3.8188,7.767,5.8054,3.0213,10.0,6.7974,10.945,9.9333,-2.0065,6.9593,3.0569
15.842,9.0236,15.71,7.8431,6.7314,11.271,6.0606,8.6928,0.0,7.8431,6.7314,9.7087,10.59,8.9327,15.0,10.719,12.935,8.9333,6.7314,10.862,7.935
11.881,10.034,12.739,7.8431,6.7314,10.241,8.0808,6.732,6.0606,7.8431,6.7314,9.7087,8.6762,8.9327,11.0,10.719,10.945,3.9333,6.7314,7.935,7.935
7.9208,5.9933,7.7888,6.8627,4.7896,8.1787,5.0505,4.7712,2.0202,6.8627,4.7896,7.767,3.8915,4.0066,5.0,5.817,4.9751,3.9333,4.7896,2.0813,4.0325
8.9109,4.9832,7.7888,6.8627,4.7896,9.2096,4.0404,6.732,2.0202,6.8627,4.7896,7.767,4.8485,4.0066,6.0,5.817,5.9701,4.9333,1.877,4.0325,4.0325
9.901,9.0236,10.759,7.8431,5.7605,10.241,7.0707,5.7516,4.0404,7.8431,5.7605,9.7087,10.59,7.9475,11.0,8.7582,9.9502,7.9333,7.7023,8.9106,5.9837
12.871,16.094,14.719,10.784,8.6731,12.302,12.121,6.732,11.111,10.784,8.6731,12.621,11.547,8.9327,12.0,11.699,11.94,8.9333,6.7314,9.8862,6.9593
10.891,12.054,14.719,10.784,8.6731,12.302,10.101,7.7124,4.0404,10.784,8.6731,12.621,11.547,8.9327,11.0,10.719,11.94,6.9333,3.8188,8.9106,6.9593
12.871,9.0236,13.729,10.784,8.6731,12.302,9.0909,10.654,3.0303,10.784,8.6731,11.65,12.504,8.9327,13.0,10.719,12.935,5.9333,1.877,10.862,7.935
9.901,12.054,11.749,8.8235,6.7314,10.241,11.111,7.7124,7.0707,8.8235,6.7314,10.68,12.504,8.9327,12.0,10.719,11.94,8.9333,4.7896,8.9106,7.935
9.901,12.054,11.749,8.8235,7.7023,10.241,12.121,9.6732,7.0707,8.8235,7.7023,11.65,14.418,10.903,12.0,11.699,12.935,8.9333,11.586,9.8862,9.8862
13.861,15.084,14.719,9.8039,10.615,12.302,15.152,8.6928,10.101,9.8039,10.615,14.563,15.375,11.888,15.0,13.66,14.925,10.933,13.528,11.837,10.862
11.881,16.094,14.719,10.784,10.615,13.333,15.152,11.634,9.0909,10.784,10.615,15.534,12.504,9.9179,11.0,12.68,12.935,12.933,9.644,9.8862,8.9106
10.891,16.094,13.729,9.8039,8.6731,11.271,13.131,9.6732,8.0808,9.8039,8.6731,13.592,12.504,11.888,11.0,14.641,12.935,7.9333,5.7605,9.8862,10.862
8.9109,16.094,14.719,7.8431,8.6731,8.1787,13.131,4.7712,8.0808,7.8431,8.6731,12.621,15.375,14.844,13.0,15.621,14.925,1.9333,4.7896,10.862,13.789
11.881,13.064,15.71,5.8824,7.7023,10.241,11.111,2.8105,6.0606,5.8824,7.7023,12.621,16.332001,13.859,14.0,15.621,14.925,2.9333,7.7023,11.837,12.813
7.9208,11.044,12.739,4.902,6.7314,8.1787,10.101,2.8105,9.0909,4.902,6.7314,10.68,12.504,9.9179,10.0,10.719,10.945,3.9333,7.7023,6.9593,8.9106
2.9703,10.034,7.7888,4.902,4.7896,5.0859,7.0707,4.7712,6.0606,4.902,4.7896,6.7961,7.7193,6.9622,5.0,7.7778,6.9652,3.9333,6.7314,3.0569,5.9837
4.9505,10.034,5.8086,4.902,6.7314,5.0859,8.0808,3.7908,8.0808,4.902,6.7314,6.7961,7.7193,6.9622,6.0,7.7778,6.9652,4.9333,5.7605,3.0569,5.9837
4.9505,9.0236,7.7888,3.9216,5.7605,3.0241,6.0606,-1.1111,3.0303,3.9216,5.7605,5.8252,10.59,10.903,9.0,11.699,9.9502,3.9333,5.7605,5.9837,9.8862
8.9109,11.044,12.739,3.9216,4.7896,5.0859,7.0707,-0.13072,2.0202,3.9216,4.7896,7.767,13.461,12.874,13.0,14.641,14.925,0.93333,8.6731,9.8862,12.813
12.871,16.094,16.700001,4.902,5.7605,7.1478,12.121,0.84967,9.0909,4.902,5.7605,9.7087,13.461,11.888,17.0,16.601,17.91,1.9333,9.644,9.8862,12.813
14.851,18.114,17.690001,4.902,5.7605,8.1787,12.121,0.84967,10.101,4.902,5.7605,10.68,13.461,12.874,18.0,17.582001,19.9,0.93333,4.7896,8.9106,13.789
10.891,13.064,13.729,4.902,5.7605,6.1168,9.0909,1.8301,7.0707,4.902,5.7605,7.767,12.504,11.888,14.0,14.641,15.92,0.93333,7.7023,6.9593,14.764
6.9307,9.0236,10.759,3.9216,4.7896,4.055,6.0606,1.8301,5.0505,3.9216,4.7896,4.8544,12.504,10.903,12.0,12.68,11.94,3.9333,10.615,5.9837,14.764
9.901,11.044,10.759,4.902,6.7314,5.0859,9.0909,2.8105,9.0909,4.902,6.7314,6.7961,11.547,9.9179,13.0,11.699,10.945,6.9333,9.644,8.9106,13.789
12.871,16.094,12.739,9.8039,11.586,10.241,16.162001,8.6928,16.162001,9.8039,11.586,11.65,9.6332,7.9475,13.0,12.68,11.94,7.9333,11.586,8.9106,11.837
11.881,13.064,12.739,7.8431,8.6731,8.1787,13.131,4.7712,9.0909,7.8431,8.6731,9.7087,9.6332,6.9622,11.0,11.699,10.945,5.9333,9.644,7.935,11.837
12.871,13.064,12.739,7.8431,7.7023,8.1787,11.111,6.732,8.0808,7.8431,7.7023,7.767,12.504,9.9179,13.0,12.68,11.94,1.9333,4.7896,9.8862,11.837
9.901,13.064,11.749,7.8431,8.6731,8.1787,12.121,8.6928,11.111,7.8431,8.6731,7.767,12.504,11.888,12.0,12.68,11.94,4.9333,5.7605,7.935,11.837
2.9703,11.044,8.7789,4.902,6.7314,3.0241,9.0909,1.8301,5.0505,4.902,6.7314,5.8252,9.6332,10.903,7.0,11.699,8.9552,3.9333,5.7605,4.0325,10.862
0.0,5.9933,5.8086,2.9412,5.7605,-0.06873,7.0707,-3.0719,3.0303,2.9412,5.7605,3.8835,5.8054,6.9622,4.0,8.7582,6.9652,2.9333,4.7896,2.0813,8.9106
5.9406,8.0135,8.7789,3.9216,5.7605,5.0859,9.0909,2.8105,9.0909,3.9216,5.7605,5.8252,6.7624,6.9622,8.0,10.719,9.9502,1.9333,3.8188,4.0325,7.935
6.9307,9.0236,7.7888,4.902,6.7314,6.1168,9.0909,5.7516,8.0808,4.902,6.7314,5.8252,4.8485,4.0066,7.0,8.7582,9.9502,2.9333,4.7896,3.0569,5.0081
4.9505,4.9832,6.7987,5.8824,6.7314,4.055,7.0707,4.7712,8.0808,5.8824,6.7314,4.8544,2.9346,1.0509,7.0,5.817,7.9602,1.9333,2.8479,2.0813,1.1057
5.9406,3.9731,8.7789,6.8627,6.7314,5.0859,7.0707,4.7712,7.0707,6.8627,6.7314,4.8544,3.8915,2.0361,7.0,6.7974,8.9552,4.9333,1.877,2.0813,2.0813
5.9406,4.9832,6.7987,6.8627,7.7023,5.0859,7.0707,5.7516,5.0505,6.8627,7.7023,4.8544,1.9777,1.0509,6.0,5.817,6.9652,5.9333,-0.06472,1.1057,1.1057
1.9802,1.9529,1.8482,5.8824,5.7605,4.055,6.0606,6.732,3.0303,5.8824,5.7605,2.9126,1.0207,0.06568,3.0,1.8954,2.9851,2.9333,-2.9773,0.13008,-0.84553
-1.9802,-3.0976,-3.1023,4.902,3.8188,-0.06873,1.0101,2.8105,-5.0505,4.902,3.8188,0.0,-2.807,-3.8752,-2.0,-3.0065,-2.9851,-4.0667,-7.8317,-2.7967,-2.7967
-6.9307,-4.1077,-5.0825,1.9608,1.877,-4.1924,0.0,-5.0327,-3.0303,1.9608,1.877,-2.9126,-8.5486,-9.7865,-8.0,-6.9281,-7.9602,-9.0667,-8.8026,-8.6504,-6.6992
-5.9406,-2.0875,-5.0825,1.9608,3.8188,-4.1924,2.0202,-3.0719,4.0404,1.9608,3.8188,-2.9126,-7.5917,-8.8013,-7.0,-6.9281,-6.9652,-4.0667,-4.9191,-8.6504,-7.6748
-8.9109,-8.1481,-9.0429,0.0,0.90615,-8.3162,-3.0303,-3.0719,-1.0101,0.0,0.90615,-7.767,-7.5917,-8.8013,-8.0,-7.9085,-7.9602,-10.067,-4.9191,-9.626,-8.6504
-10.891,-8.1481,-9.0429,-0.98039,-2.0065,-10.378,-5.0505,-7.9739,-2.0202,-0.98039,-2.0065,-9.7087,-6.6348,-7.8161,-7.0,-5.9477,-6.9652,-11.067,-3.9482,-8.6504,-6.6992
-2.9703,-4.1077,-3.1023,0.98039,-1.0356,-4.1924,-3.0303,-3.0719,-2.0202,0.98039,-1.0356,-4.8544,-3.764,-3.8752,-3.0,-3.0065,-2.9851,-3.0667,-2.0065,-3.7724,-1.8211
3.9604,1.9529,2.8383,3.9216,-0.06472,1.9931,2.0202,5.7516,3.0303,3.9216,-0.06472,0.97087,0.0638,-1.9048,2.0,0.91503,0.99502,6.9333,1.877,2.0813,3.0569
4.9505,0.94276,3.8284,1.9608,-0.06472,-1.0997,0.0,1.8301,-1.0101,1.9608,-0.06472,-0.97087,1.9777,-0.91954,3.0,0.91503,1.99,3.9333,-0.06472,2.0813,1.1057
-0.9901,-0.06734,0.85809,1.9608,1.877,-5.2234,0.0,-2.0915,-1.0101,1.9608,1.877,-3.8835,5.8054,3.0213,4.0,1.8954,2.9851,-5.0667,2.8479,3.0569,0.13008
-5.9406,1.9529,-1.1221,0.98039,2.8479,-7.2852,1.0101,-4.0523,4.0404,0.98039,2.8479,-4.8544,3.8915,3.0213,1.0,2.8758,2.9851,-8.0667,7.7023,-0.84553,3.0569
-2.9703,4.9832,-0.13201,0.98039,1.877,-3.1615,2.0202,0.84967,5.0505,0.98039,1.877,-3.8835,1.0207,2.0361,0.0,3.8562,1.99,-5.0667,6.7314,-5.7236,4.0325
-2.9703,1.9529,-1.1221,-0.98039,-0.06472,-3.1615,0.0,-1.1111,3.0303,-0.98039,-0.06472,-3.8835,-3.764,-1.9048,-3.0,1.8954,0.0,-8.0667,-2.9773,-8.6504,1.1057
-5.9406,0.94276,-2.1122,-1.9608,-1.0356,-6.2543,-1.0101,-4.0523,2.0202,-1.9608,-1.0356,-4.8544,-4.7209,-3.8752,-3.0,1.8954,-0.99502,-5.0667,-0.06472,-5.7236,0.13008
-1.9802,-0.06734,-1.1221,0.0,0.90615,-3.1615,0.0,0.84967,-1.0101,0.0,0.90615,-2.9126,-2.807,-3.8752,-1.0,0.91503,-0.99502,-1.0667,0.90615,-0.84553,-0.84553
-4.9505,-4.1077,-6.0726,-0.98039,0.90615,-5.2234,-1.0101,-0.13072,-1.0101,-0.98039,0.90615,-4.8544,-4.7209,-5.8456,-4.0,-3.0065,-4.9751,2.9333,-1.0356,0.13008,-2.7967
-2.9703,-2.0875,-5.0825,0.98039,2.8479,-2.1306,2.0202,2.8105,5.0505,0.98039,2.8479,-3.8835,-3.764,-6.8309,-3.0,-2.0261,-3.9801,4.9333,4.7896,-0.84553,-2.7967
-3.9604,-6.1279,-7.0627,0.98039,-0.06472,-1.0997,-2.0202,5.7516,0.0,0.98039,-0.06472,-4.8544,-5.6778,-10.772,-5.0,-6.9281,-7.9602,-1.0667,0.90615,-2.7967,-6.6992
-0.9901,-4.1077,-5.0825,1.9608,-1.0356,-1.0997,-2.0202,3.7908,-1.0101,1.9608,-1.0356,-3.8835,-2.807,-7.8161,0.0,-5.9477,-5.9701,-4.0667,-2.9773,1.1057,-4.748
2.9703,0.94276,-1.1221,1.9608,-0.06472,0.9622,3.0303,3.7908,5.0505,1.9608,-0.06472,0.0,1.9777,-1.9048,4.0,-1.0458,-0.99502,3.9333,2.8479,4.0325,1.1057
-0.9901,-0.06734,-4.0924,0.0,-1.0356,-1.0997,2.0202,1.8301,1.0101,0.0,-1.0356,-0.97087,1.0207,-0.91954,1.0,-1.0458,-1.99,6.9333,0.90615,1.1057,1.1057
-1.9802,-2.0875,-5.0825,0.0,-1.0356,-1.0997,0.0,3.7908,-1.0101,0.0,-1.0356,-1.9417,-1.8501,-2.89,0.0,-1.0458,-1.99,8.9333,-2.0065,-0.84553,0.13008
1.9802,-0.06734,-3.1023,0.98039,0.90615,0.9622,3.0303,5.7516,3.0303,0.98039,0.90615,0.0,-3.764,-4.8604,1.0,-0.06536,-0.99502,1.9333,-1.0356,0.13008,-0.84553
0.0,2.963,-1.1221,-0.98039,2.8479,-0.06873,7.0707,0.84967,6.0606,-0.98039,2.8479,1.9417,-5.6778,-6.8309,0.0,-0.06536,-0.99502,-2.0667,0.90615,-1.8211,-0.84553
0.9901,2.963,-0.13201,-0.98039,1.877,-1.0997,5.0505,-0.13072,6.0606,-0.98039,1.877,0.97087,-3.764,-4.8604,2.0,0.91503,0.99502,-2.0667,-1.0356,0.13008,-0.84553
1.9802,7.0034,-0.13201,0.98039,2.8479,0.9622,7.0707,5.7516,7.0707,0.98039,2.8479,1.9417,-1.8501,-2.89,1.0,2.8758,0.99502,-0.06667,-3.9482,1.1057,1.1057
0.9901,-1.0774,-4.0924,0.98039,0.90615,0.9622,0.0,4.7712,-1.0101,0.98039,0.90615,0.0,0.0638,-1.9048,1.0,-0.06536,-0.99502,5.9333,-7.8317,2.0813,-0.84553
1.9802,-6.1279,-5.0825,0.98039,-0.06472,-0.06873,-4.0404,4.7712,-6.0606,0.98039,-0.06472,-0.97087,1.9777,-1.9048,2.0,-1.0458,-1.99,9.9333,-4.9191,5.0081,-1.8211
2.9703,-0.06734,-2.1122,3.9216,3.8188,1.9931,3.0303,6.732,3.0303,3.9216,3.8188,2.9126,2.9346,-1.9048,3.0,-1.0458,-1.99,7.9333,-3.9482,5.9837,-1.8211
2.9703,-1.0774,-4.0924,1.9608,0.90615,0.9622,2.0202,1.8301,0.0,1.9608,0.90615,1.9417,3.8915,-0.91954,2.0,-2.0261,-2.9851,3.9333,-2.9773,5.0081,-0.84553
1.9802,-4.1077,-6.0726,-1.9608,-2.9773,-3.1615,-4.0404,-3.0719,-8.0808,-1.9608,-2.9773,-2.9126,2.9346,-0.91954,1.0,-3.0065,-3.9801,0.93333,-2.0065,3.0569,0.13008
1.9802,-5.1178,-6.0726,-1.9608,-2.9773,-4.1924,-6.0606,-1.1111,-6.0606,-1.9608,-2.9773,-3.8835,1.9777,0.06568,1.0,-3.0065,-2.9851,5.9333,-1.0356,4.0325,1.1057
0.0,-5.1178,-6.0726,-1.9608,-2.9773,-4.1924,-5.0505,-0.13072,-4.0404,-1.9608,-2.9773,-3.8835,1.9777,0.06568,1.0,-2.0261,-2.9851,5.9333,-2.9773,5.0081,1.1057
1.9802,-3.0976,-4.0924,0.0,-2.0065,-3.1615,-4.0404,2.8105,-4.0404,0.0,-2.0065,-2.9126,3.8915,2.0361,2.0,-1.0458,-0.99502,10.933,-1.0356,5.9837,1.1057
3.9604,-1.0774,-4.0924,0.0,-2.0065,-1.0997,-3.0303,3.7908,-2.0202,0.0,-2.0065,-2.9126,5.8054,5.977,4.0,1.8954,1.99,7.9333,-2.0065,6.9593,4.0325
3.9604,-3.0976,-4.0924,-2.9412,-4.9191,-2.1306,-6.0606,0.84967,-5.0505,-2.9412,-4.9191,-4.8544,6.7624,6.9622,6.0,1.8954,3.9801,5.9333,-7.8317,8.9106,3.0569
2.9703,-4.1077,-5.0825,-2.9412,-6.8608,-3.1615,-7.0707,2.8105,-6.0606,-2.9412,-6.8608,-6.7961,8.6762,6.9622,7.0,0.91503,3.9801,11.933,-4.9191,10.862,2.0813
0.0,-3.0976,-6.0726,0.0,-2.0065,-1.0997,-4.0404,4.7712,0.0,0.0,-2.0065,-3.8835,9.6332,7.9475,5.0,1.8954,2.9851,7.9333,-3.9482,9.8862,4.0325
-3.9604,-4.1077,-8.0528,0.98039,1.877,-3.1615,-3.0303,1.8301,0.0,0.98039,1.877,-3.8835,4.8485,4.0066,-1.0,-1.0458,-0.99502,2.9333,-3.9482,5.9837,2.0813
-2.9703,-4.1077,-7.0627,2.9412,4.7896,-2.1306,-1.0101,1.8301,7.0707,2.9412,4.7896,-2.9126,1.0207,0.06568,-3.0,-3.0065,-2.9851,5.9333,-2.0065,3.0569,-0.84553
-0.9901,-3.0976,-6.0726,5.8824,4.7896,-0.06873,-1.0101,2.8105,1.0101,5.8824,4.7896,-1.9417,0.0638,0.06568,-3.0,-3.0065,-2.9851,0.93333,-0.06472,2.0813,-0.84553
-0.9901,-0.06734,-4.0924,5.8824,3.8188,0.9622,0.0,3.7908,-2.0202,5.8824,3.8188,-0.97087,2.9346,2.0361,0.0,-1.0458,0.0,0.93333,-1.0356,3.0569,1.1057
0.9901,-0.06734,-3.1023,4.902,2.8479,0.9622,1.0101,4.7712,4.0404,4.902,2.8479,-0.97087,4.8485,4.0066,2.0,0.91503,1.99,4.9333,0.90615,5.9837,1.1057
2.9703,-3.0976,-2.1122,3.9216,2.8479,1.9931,-1.0101,4.7712,3.0303,3.9216,2.8479,-0.97087,3.8915,3.0213,3.0,0.91503,2.9851,7.9333,-1.0356,6.9593,0.13008
6.9307,0.94276,1.8482,4.902,4.7896,5.0859,2.0202,6.732,7.0707,4.902,4.7896,2.9126,5.8054,4.9918,7.0,4.8366,6.9652,7.9333,1.877,8.9106,2.0813
8.9109,7.0034,5.8086,5.8824,5.7605,6.1168,6.0606,5.7516,9.0909,5.8824,5.7605,4.8544,8.6762,7.9475,10.0,8.7582,9.9502,9.9333,4.7896,10.862,6.9593
6.9307,5.9933,5.8086,4.902,4.7896,6.1168,6.0606,5.7516,7.0707,4.902,4.7896,4.8544,5.8054,5.977,7.0,7.7778,6.9652,6.9333,5.7605,6.9593,7.935
3.9604,7.0034,4.8185,5.8824,6.7314,5.0859,8.0808,2.8105,12.121,5.8824,6.7314,6.7961,3.8915,4.9918,4.0,5.817,4.9751,-0.06667,9.644,5.0081,7.935
4.9505,8.0135,5.8086,6.8627,8.6731,7.1478,10.101,3.7908,11.111,6.8627,8.6731,9.7087,3.8915,4.9918,3.0,5.817,4.9751,2.9333,8.6731,4.0325,7.935
1.9802,8.0135,5.8086,6.8627,8.6731,7.1478,11.111,4.7712,8.0808,6.8627,8.6731,10.68,2.9346,4.9918,3.0,5.817,3.9801,4.9333,4.7896,3.0569,6.9593
1.9802,8.0135,6.7987,6.8627,7.7023,8.1787,9.0909,7.7124,5.0505,6.8627,7.7023,11.65,3.8915,4.0066,3.0,5.817,3.9801,2.9333,5.7605,3.0569,5.9837
4.9505,4.9832,5.8086,7.8431,7.7023,9.2096,8.0808,7.7124,5.0505,7.8431,7.7023,10.68,4.8485,4.0066,5.0,3.8562,4.9751,7.9333,7.7023,5.9837,3.0569
3.9604,-0.06734,2.8383,8.8235,7.7023,9.2096,7.0707,7.7124,2.0202,8.8235,7.7023,10.68,1.0207,0.06568,1.0,-0.06536,0.99502,9.9333,6.7314,4.0325,0.13008
1.9802,0.94276,-0.13201,7.8431,7.7023,7.1478,9.0909,8.6928,8.0808,7.8431,7.7023,9.7087,-4.7209,-4.8604,-4.0,-3.9869,-2.9851,6.9333,3.8188,-0.84553,-2.7967
-2.9703,-3.0976,-3.1023,3.9216,4.7896,3.0241,4.0404,3.7908,7.0707,3.9216,4.7896,5.8252,-9.5056,-9.7865,-9.0,-8.8889,-7.9602,-4.0667,-1.0356,-4.748,-5.7236
-2.9703,-0.06734,-2.1122,3.9216,4.7896,1.9931,4.0404,2.8105,12.121,3.9216,4.7896,4.8544,-8.5486,-9.7865,-7.0,-6.9281,-6.9652,-3.0667,-3.9482,-5.7236,-5.7236
-2.9703,-6.1279,-4.0924,0.0,-1.0356,-0.06873,-4.0404,2.8105,-4.0404,0.0,-1.0356,0.97087,-5.6778,-7.8161,-5.0,-7.9085,-5.9701,-0.06667,-4.9191,-3.7724,-6.6992
-0.9901,-6.1279,-3.1023,-0.98039,-3.9482,-1.0997,-6.0606,1.8301,-5.0505,-0.98039,-3.9482,-0.97087,-3.764,-5.8456,-3.0,-5.9477,-3.9801,1.9333,-2.0065,-0.84553,-5.7236
3.9604,0.94276,0.85809,0.98039,-2.0065,3.0241,-2.0202,6.732,-1.0101,0.98039,-2.0065,0.97087,-0.89314,-2.89,2.0,-2.0261,0.0,4.9333,-0.06472,4.0325,-0.84553
3.9604,-3.0976,-0.13201,0.98039,-3.9482,5.0859,-5.0505,9.6732,-6.0606,0.98039,-3.9482,-0.97087,-3.764,-4.8604,-1.0,-3.9869,-0.99502,9.9333,-2.0065,3.0569,-3.7724
0.9901,-7.138,-3.1023,-0.98039,-5.89,1.9931,-8.0808,7.7124,-7.0707,-0.98039,-5.89,-3.8835,-4.7209,-5.8456,-4.0,-6.9281,-3.9801,7.9333,-3.9482,1.1057,-6.6992
1.9802,-4.1077,-5.0825,-0.98039,-5.89,-0.06873,-6.0606,5.7516,-1.0101,-0.98039,-5.89,-5.8252,-2.807,-3.8752,-3.0,-6.9281,-3.9801,6.9333,-4.9191,2.0813,-6.6992
-5.9406,-5.1178,-9.0429,-4.902,-8.8026,-5.2234,-10.101,2.8105,-6.0606,-4.902,-8.8026,-10.68,-2.807,-3.8752,-6.0,-6.9281,-5.9701,-2.0667,-4.9191,-1.8211,-4.748
-10.891,-7.138,-12.013,-5.8824,-8.8026,-9.3471,-11.111,-0.13072,-5.0505,-5.8824,-8.8026,-13.592,-2.807,-3.8752,-8.0,-6.9281,-6.9652,-6.0667,-2.0065,-4.748,-2.7967
-14.851,-9.1582,-14.983,-7.8431,-7.8317,-13.471,-10.101,-6.9935,-2.0202,-7.8431,-7.8317,-15.534,-2.807,-3.8752,-9.0,-6.9281,-7.9602,-9.0667,1.877,-7.6748,-1.8211
-17.822001,-10.168,-16.964001,-8.8235,-5.89,-16.563999,-10.101,-11.895,-3.0303,-8.8235,-5.89,-16.504999,-2.807,-3.8752,-9.0,-7.9085,-8.9552,-13.067,-1.0356,-6.6992,-3.7724
-16.832001,-12.189,-17.954,-8.8235,-4.9191,-15.533,-10.101,-9.9346,0.0,-8.8235,-4.9191,-15.534,-4.7209,-6.8309,-11.0,-10.85,-9.9502,-10.067,-4.9191,-6.6992,-7.6748
-11.881,-13.199,-17.954,-6.8627,-6.8608,-12.44,-12.121,-1.1111,-4.0404,-6.8627,-6.8608,-15.534,-3.764,-6.8309,-9.0,-11.83,-9.9502,-3.0667,-8.8026,-3.7724,-9.626
-11.881,-14.209,-17.954,-5.8824,-7.8317,-10.378,-13.131,0.84967,-8.0808,-5.8824,-7.8317,-14.563,-3.764,-6.8309,-9.0,-11.83,-10.945,2.9333,-11.715,-2.7967,-9.626
-14.851,-16.229,-17.954,-6.8627,-5.89,-11.409,-12.121,-3.0719,-5.0505,-6.8627,-5.89,-13.592,-4.7209,-6.8309,-12.0,-12.81,-11.94,0.93333,-6.8608,-5.7236,-9.626
-17.822001,-15.219,-18.944,-7.8431,-5.89,-14.502,-12.121,-6.0131,-5.0505,-7.8431,-5.89,-14.563,-7.5917,-6.8309,-15.0,-12.81,-12.935,-6.0667,0.90615,-9.626,-7.6748
-18.812,-16.229,-18.944,-6.8627,-5.89,-14.502,-13.131,-4.0523,-6.0606,-6.8627,-5.89,-14.563,-8.5486,-7.8161,-16.0,-13.791,-14.925,-10.067,-4.9191,-12.553,-9.626
-17.822001,-17.239,-18.944,-5.8824,-5.89,-14.502,-14.141,-6.9935,-4.0404,-5.8824,-5.89,-14.563,-8.5486,-8.8013,-16.0,-14.771,-14.925,-10.067,-5.89,-11.577,-8.6504
-13.861,-14.209,-16.964001,-5.8824,-5.89,-14.502,-12.121,-7.9739,-3.0303,-5.8824,-5.89,-13.592,-5.6778,-6.8309,-12.0,-12.81,-11.94,-12.067,-9.7735,-8.6504,-6.6992
-8.9109,-14.209,-13.993,-5.8824,-5.89,-11.409,-14.141,-2.0915,-6.0606,-5.8824,-5.89,-13.592,-0.89314,-1.9048,-5.0,-7.9085,-6.9652,-4.0667,-6.8608,-2.7967,-2.7967
-6.9307,-10.168,-12.013,-4.902,-4.9191,-10.378,-12.121,-0.13072,-4.0404,-4.902,-4.9191,-11.65,0.0638,0.06568,-3.0,-4.9673,-4.9751,1.9333,-2.0065,0.13008,0.13008
-7.9208,-8.1481,-12.013,-2.9412,-3.9482,-8.3162,-11.111,2.8105,-2.0202,-2.9412,-3.9482,-9.7087,-3.764,-3.8752,-7.0,-6.9281,-6.9652,-0.06667,-1.0356,-2.7967,-2.7967
-9.901,-8.1481,-14.983,-0.98039,-2.9773,-8.3162,-8.0808,1.8301,0.0,-0.98039,-2.9773,-8.7379,-8.5486,-7.8161,-11.0,-9.8693,-11.94,-0.06667,-2.9773,-6.6992,-5.7236
-12.871,-13.199,-17.954,-1.9608,-2.0065,-10.378,-9.0909,-3.0719,-1.0101,-1.9608,-2.0065,-9.7087,-10.463,-11.757,-14.0,-15.752,-15.92,-4.0667,-5.89,-9.626,-9.626
-17.822001,-20.268999,-22.903999,-4.902,-3.9482,-13.471,-13.131,-4.0523,-6.0606,-4.902,-3.9482,-14.563,-13.333,-15.698,-17.0,-20.653999,-20.896,-13.067,-7.8317,-12.553,-13.528
-19.802,-17.239,-22.903999,-6.8627,-4.9191,-15.533,-12.121,-5.0327,0.0,-6.8627,-4.9191,-15.534,-13.333,-15.698,-19.0,-20.653999,-21.891001,-15.067,-4.9191,-13.528,-13.528
-21.782,-15.219,-21.914,-9.8039,-4.9191,-17.594999,-12.121,-10.915,-1.0101,-9.8039,-4.9191,-16.504999,-9.5056,-11.757,-16.0,-17.712,-18.905001,-15.067,-4.9191,-12.553,-10.602
-20.792,-11.178,-18.944,-8.8235,-2.9773,-18.625,-9.0909,-14.837,-1.0101,-8.8235,-2.9773,-14.563,-4.7209,-6.8309,-14.0,-11.83,-13.93,-17.066999,-3.9482,-11.577,-5.7236
-16.832001,-10.168,-13.993,-5.8824,-0.06472,-14.502,-7.0707,-11.895,1.0101,-5.8824,-0.06472,-11.65,-2.807,-3.8752,-10.0,-8.8889,-9.9502,-13.067,-2.9773,-9.626,-4.748
-10.891,-9.1582,-12.013,-3.9216,-0.06472,-11.409,-6.0606,-5.0327,2.0202,-3.9216,-0.06472,-9.7087,-0.89314,-2.89,-6.0,-7.9085,-6.9652,-9.0667,-3.9482,-5.7236,-3.7724
-4.9505,-5.1178,-8.0528,-1.9608,-0.06472,-9.3471,-3.0303,-4.0523,8.0808,-1.9608,-0.06472,-8.7379,3.8915,1.0509,0.0,-3.9869,-2.9851,-3.0667,-0.06472,1.1057,-0.84553
-6.9307,-8.1481,-10.033,-3.9216,-2.0065,-13.471,-7.0707,-5.0327,4.0404,-3.9216,-2.0065,-12.621,2.9346,0.06568,-2.0,-4.9673,-3.9801,-3.0667,0.90615,1.1057,-1.8211
-7.9208,-10.168,-12.013,-6.8627,-3.9482,-14.502,-10.101,-5.0327,-1.0101,-6.8627,-3.9482,-15.534,0.0638,-3.8752,-4.0,-7.9085,-6.9652,-0.06667,-3.9482,0.13008,-4.748
-8.9109,-14.209,-13.993,-7.8431,-5.89,-14.502,-13.131,-5.0327,-4.0404,-7.8431,-5.89,-16.504999,-3.764,-9.7865,-7.0,-11.83,-10.945,-0.06667,-8.8026,-1.8211,-10.602
-10.891,-13.199,-13.003,-7.8431,-6.8608,-14.502,-13.131,-4.0523,-6.0606,-7.8431,-6.8608,-16.504999,-4.7209,-11.757,-8.0,-12.81,-11.94,-3.0667,-7.8317,-2.7967,-11.577
-10.891,-6.1279,-9.0429,-6.8627,-4.9191,-13.471,-7.0707,-5.0327,0.0,-6.8627,-4.9191,-13.592,-3.764,-7.8161,-8.0,-8.8889,-8.9552,-5.0667,-6.8608,-3.7724,-7.6748
-10.891,-2.0875,-6.0726,-5.8824,-2.0065,-12.44,-2.0202,-7.9739,5.0505,-5.8824,-2.0065,-9.7087,-0.89314,-3.8752,-8.0,-4.9673,-5.9701,-6.0667,-2.9773,-4.748,-3.7724
-7.9208,-0.06734,-5.0825,-2.9412,1.877,-8.3162,1.0101,-4.0523,6.0606,-2.9412,1.877,-4.8544,2.9346,1.0509,-5.0,-2.0261,-2.9851,-10.067,4.7896,-2.7967,0.13008
-3.9604,2.963,-4.0924,0.98039,5.7605,-4.1924,5.0505,-0.13072,10.101,0.98039,5.7605,0.0,5.8054,4.0066,-1.0,0.91503,0.0,-3.0667,5.7605,1.1057,3.0569
0.0,7.0034,-2.1122,1.9608,4.7896,-1.0997,6.0606,1.8301,10.101,1.9608,4.7896,0.97087,5.8054,4.0066,2.0,3.8562,2.9851,5.9333,8.6731,5.9837,5.9837
4.9505,4.9832,-0.13201,1.9608,2.8479,1.9931,5.0505,5.7516,8.0808,1.9608,2.8479,0.97087,6.7624,4.0066,6.0,4.8366,4.9751,6.9333,10.615,8.9106,7.935
13.861,10.034,5.8086,4.902,4.7896,10.241,9.0909,11.634,11.111,4.902,4.7896,7.767,8.6762,3.0213,10.0,6.7974,6.9652,11.933,7.7023,12.813,8.9106
12.871,8.0135,8.7789,5.8824,6.7314,12.302,12.121,11.634,11.111,5.8824,6.7314,11.65,3.8915,-2.89,7.0,0.91503,2.9851,17.933001,7.7023,10.862,3.0569
11.881,3.9731,8.7789,6.8627,8.6731,13.333,14.141,11.634,12.121,6.8627,8.6731,14.563,-1.8501,-8.8013,2.0,-4.9673,-1.99,12.933,1.877,7.935,-2.7967
11.881,3.9731,9.769,8.8235,8.6731,13.333,13.131,10.654,8.0808,8.8235,8.6731,16.504999,-1.8501,-7.8161,2.0,-3.9869,-0.99502,5.9333,-3.9482,6.9593,-2.7967
8.9109,1.9529,9.769,6.8627,4.7896,10.241,7.0707,10.654,-3.0303,6.8627,4.7896,12.621,0.0638,-2.89,3.0,-0.06536,2.9851,7.9333,-3.9482,4.0325,0.13008
7.9208,2.963,7.7888,1.9608,1.877,7.1478,3.0303,5.7516,-4.0404,1.9608,1.877,7.767,4.8485,2.0361,7.0,4.8366,6.9652,5.9333,-2.9773,5.0081,5.0081
8.9109,11.044,11.749,1.9608,1.877,7.1478,8.0808,4.7712,4.0404,1.9608,1.877,10.68,8.6762,6.9622,10.0,11.699,10.945,5.9333,9.644,8.9106,9.8862
4.9505,11.044,10.759,0.98039,1.877,5.0859,8.0808,0.84967,6.0606,0.98039,1.877,9.7087,7.7193,5.977,7.0,9.7386,8.9552,4.9333,12.557,7.935,8.9106
7.9208,10.034,10.759,2.9412,4.7896,7.1478,10.101,0.84967,10.101,2.9412,4.7896,11.65,9.6332,6.9622,8.0,6.7974,6.9652,6.9333,11.586,9.8862,8.9106
13.861,5.9933,12.739,6.8627,5.7605,10.241,8.0808,5.7516,7.0707,6.8627,5.7605,11.65,12.504,6.9622,13.0,5.817,8.9552,7.9333,1.877,14.764,7.935
11.881,3.9731,11.749,5.8824,2.8479,7.1478,4.0404,6.732,-1.0101,5.8824,2.8479,8.7379,10.59,3.0213,11.0,2.8758,6.9652,7.9333,-10.744,11.837,0.13008
10.891,-0.06734,10.759,4.902,1.877,6.1168,2.0202,8.6928,-4.0404,4.902,1.877,6.7961,7.7193,0.06568,10.0,1.8954,6.9652,12.933,-8.8026,9.8862,-3.7724
10.891,-0.06734,10.759,1.9608,0.90615,3.0241,0.0,5.7516,-3.0303,1.9608,0.90615,4.8544,5.8054,1.0509,11.0,2.8758,6.9652,10.933,-5.89,8.9106,-0.84553
6.9307,-2.0875,6.7987,0.0,-2.9773,0.9622,-2.0202,4.7712,-5.0505,0.0,-2.9773,0.97087,3.8915,1.0509,7.0,3.8562,4.9751,4.9333,-8.8026,6.9593,1.1057
1.9802,-4.1077,-0.13201,-2.9412,-3.9482,-3.1615,-5.0505,-0.13072,-7.0707,-2.9412,-3.9482,-2.9126,1.0207,-0.91954,2.0,0.91503,0.99502,1.9333,-8.8026,5.0081,1.1057
-3.9604,-6.1279,-5.0825,-4.902,-3.9482,-7.2852,-6.0606,-5.0327,-5.0505,-4.902,-3.9482,-6.7961,1.0207,-1.9048,-1.0,-2.0261,-2.9851,-2.0667,-3.9482,3.0569,1.1057
-6.9307,-6.1279,-7.0627,-5.8824,-4.9191,-8.3162,-5.0505,-4.0523,0.0,-5.8824,-4.9191,-7.767,1.9777,-1.9048,-3.0,-5.9477,-4.9751,-6.0667,-2.0065,-0.84553,-1.8211
-2.9703,-3.0976,-1.1221,-2.9412,-2.9773,-2.1306,-1.0101,-1.1111,11.111,-2.9412,-2.9773,-3.8835,1.0207,-3.8752,-1.0,-5.9477,-1.99,-3.0667,-0.06472,-0.84553,-3.7724
-0.9901,-5.1178,1.8482,-1.9608,-3.9482,-0.06873,-4.0404,-3.0719,-1.0101,-1.9608,-3.9482,-1.9417,-1.8501,-6.8309,-1.0,-5.9477,0.0,-2.0667,-1.0356,-1.8211,-6.6992
3.9604,-1.0774,6.7987,0.0,-2.9773,3.0241,-3.0303,-0.13072,-9.0909,0.0,-2.9773,0.97087,1.0207,-2.89,5.0,0.91503,4.9751,-1.0667,-1.0356,4.0325,-2.7967
13.861,9.0236,11.749,3.9216,0.90615,9.2096,5.0505,6.732,3.0303,3.9216,0.90615,5.8252,10.59,5.977,13.0,9.7386,12.935,10.933,0.90615,12.813,4.0325
14.851,9.0236,9.769,4.902,1.877,10.241,6.0606,8.6928,2.0202,4.902,1.877,5.8252,15.375,10.903,15.0,12.68,13.93,17.933001,2.8479,17.691,7.935
12.871,4.9832,6.7987,3.9216,0.90615,8.1787,4.0404,6.732,3.0303,3.9216,0.90615,2.9126,12.504,9.9179,13.0,10.719,10.945,10.933,4.7896,13.789,7.935
3.9604,2.963,0.85809,1.9608,-0.06472,0.9622,2.0202,-1.1111,4.0404,1.9608,-0.06472,-1.9417,3.8915,4.0066,4.0,5.817,5.9701,-1.0667,-5.89,2.0813,5.9837
-6.9307,-3.0976,-6.0726,-3.9216,-3.9482,-7.2852,-4.0404,-6.0131,-1.0101,-3.9216,-3.9482,-9.7087,-4.7209,-2.89,-5.0,-0.06536,-0.99502,-11.067,-5.89,-8.6504,1.1057
-7.9208,-5.1178,-7.0627,-3.9216,-2.9773,-6.2543,-5.0505,-5.0327,-1.0101,-3.9216,-2.9773,-9.7087,-5.6778,-2.89,-5.0,-1.0458,-1.99,-12.067,1.877,-9.626,1.1057
0.0,2.963,-0.13201,1.9608,1.877,1.9931,2.0202,1.8301,8.0808,1.9608,1.877,-1.9417,1.0207,3.0213,2.0,3.8562,3.9801,-9.0667,2.8479,-3.7724,6.9593
5.9406,2.963,4.8185,4.902,1.877,5.0859,2.0202,0.84967,6.0606,4.902,1.877,0.97087,5.8054,6.9622,6.0,6.7974,8.9552,-1.0667,4.7896,1.1057,7.935
10.891,2.963,8.7789,5.8824,2.8479,6.1168,1.0101,-0.13072,0.0,5.8824,2.8479,2.9126,6.7624,5.977,9.0,7.7778,11.94,2.9333,6.7314,5.0081,5.9837
15.842,10.034,13.729,8.8235,5.7605,12.302,4.0404,6.732,2.0202,8.8235,5.7605,6.7961,8.6762,6.9622,13.0,10.719,15.92,5.9333,6.7314,8.9106,5.0081
11.881,13.064,13.729,8.8235,3.8188,11.271,5.0505,6.732,5.0505,8.8235,3.8188,6.7961,6.7624,5.977,10.0,12.68,14.925,2.9333,6.7314,7.935,5.0081
10.891,14.074,14.719,9.8039,4.7896,11.271,6.0606,9.6732,5.0505,9.8039,4.7896,7.767,4.8485,4.0066,8.0,12.68,14.925,7.9333,6.7314,6.9593,6.9593
9.901,9.0236,13.729,7.8431,3.8188,9.2096,4.0404,9.6732,3.0303,7.8431,3.8188,5.8252,2.9346,3.0213,7.0,10.719,13.93,8.9333,5.7605,3.0569,5.9837
6.9307,7.0034,11.749,3.9216,1.877,4.055,2.0202,5.7516,3.0303,3.9216,1.877,1.9417,2.9346,3.0213,6.0,10.719,11.94,5.9333,4.7896,0.13008,5.0081
3.9604,10.034,10.759,1.9608,1.877,0.9622,3.0303,0.84967,5.0505,1.9608,1.877,0.97087,1.0207,2.0361,4.0,9.7386,9.9502,-4.0667,6.7314,-2.7967,5.0081
-0.9901,9.0236,7.7888,0.0,1.877,-1.0997,3.0303,-3.0719,3.0303,0.0,1.877,0.0,-2.807,-0.91954,-1.0,6.7974,4.9751,-10.067,3.8188,-7.6748,5.0081
3.9604,13.064,9.769,1.9608,5.7605,1.9931,7.0707,0.84967,9.0909,1.9608,5.7605,2.9126,1.0207,3.0213,3.0,10.719,7.9602,-5.0667,7.7023,-2.7967,8.9106
6.9307,13.064,10.759,3.9216,5.7605,5.0859,8.0808,6.732,10.101,3.9216,5.7605,3.8835,4.8485,7.9475,6.0,13.66,9.9502,3.9333,12.557,1.1057,11.837
8.9109,9.0236,8.7789,4.902,4.7896,6.1168,7.0707,8.6928,3.0303,4.902,4.7896,3.8835,3.8915,5.977,5.0,11.699,8.9552,12.933,11.586,3.0569,9.8862
6.9307,9.0236,7.7888,6.8627,7.7023,7.1478,9.0909,7.7124,6.0606,6.8627,7.7023,6.7961,1.0207,3.0213,5.0,9.7386,5.9701,5.9333,8.6731,2.0813,6.9593
6.9307,12.054,8.7789,8.8235,9.644,9.2096,13.131,8.6928,12.121,8.8235,9.644,9.7087,1.0207,2.0361,5.0,8.7582,4.9751,2.9333,7.7023,1.1057,5.9837
5.9406,10.034,7.7888,8.8235,8.6731,7.1478,11.111,7.7124,7.0707,8.8235,8.6731,8.7379,3.8915,4.9918,6.0,9.7386,6.9652,6.9333,2.8479,4.0325,5.9837
1.9802,5.9933,3.8284,5.8824,5.7605,1.9931,6.0606,3.7908,1.0101,5.8824,5.7605,2.9126,1.9777,3.0213,4.0,6.7974,5.9701,1.9333,-0.06472,2.0813,4.0325
4.9505,5.9933,1.8482,5.8824,3.8188,3.0241,5.0505,7.7124,4.0404,5.8824,3.8188,1.9417,1.0207,2.0361,2.0,5.817,4.9751,-2.0667,6.7314,-0.84553,4.0325
0.0,1.9529,-0.13201,3.9216,2.8479,0.9622,2.0202,2.8105,5.0505,3.9216,2.8479,0.0,1.0207,1.0509,0.0,3.8562,1.99,-3.0667,2.8479,-2.7967,4.0325
-2.9703,-0.06734,-1.1221,3.9216,1.877,-1.0997,1.0101,-3.0719,1.0101,3.9216,1.877,-0.97087,0.0638,1.0509,-2.0,2.8758,0.99502,-3.0667,-0.06472,-3.7724,4.0325
1.9802,7.0034,2.8383,7.8431,5.7605,5.0859,6.0606,2.8105,7.0707,7.8431,5.7605,3.8835,1.9777,4.9918,1.0,6.7974,3.9801,-1.0667,1.877,-0.84553,6.9593
2.9703,7.0034,2.8383,9.8039,8.6731,7.1478,6.0606,5.7516,7.0707,9.8039,8.6731,5.8252,1.9777,4.9918,2.0,6.7974,4.9751,2.9333,5.7605,1.1057,5.9837
3.9604,1.9529,1.8482,8.8235,8.6731,7.1478,3.0303,3.7908,5.0505,8.8235,8.6731,3.8835,3.8915,4.9918,3.0,4.8366,3.9801,0.93333,9.644,2.0813,5.9837
3.9604,3.9731,1.8482,6.8627,6.7314,5.0859,2.0202,3.7908,6.0606,6.8627,6.7314,2.9126,3.8915,4.9918,3.0,3.8562,2.9851,-1.0667,9.644,2.0813,3.0569
0.9901,3.9731,1.8482,4.902,4.7896,1.9931,1.0101,1.8301,3.0303,4.902,4.7896,0.97087,2.9346,4.0066,1.0,3.8562,2.9851,3.9333,5.7605,1.1057,4.0325
3.9604,4.9832,3.8284,5.8824,5.7605,5.0859,2.0202,3.7908,8.0808,5.8824,5.7605,2.9126,3.8915,5.977,4.0,6.7974,6.9652,5.9333,5.7605,1.1057,6.9593
3.9604,4.9832,4.8185,5.8824,5.7605,5.0859,2.0202,1.8301,8.0808,5.8824,5.7605,2.9126,1.9777,4.9918,5.0,7.7778,7.9602,0.93333,6.7314,1.1057,5.9837
2.9703,3.9731,2.8383,3.9216,4.7896,3.0241,0.0,1.8301,5.0505,3.9216,4.7896,0.0,1.9777,4.0066,4.0,6.7974,6.9652,-1.0667,6.7314,1.1057,5.0081
3.9604,1.9529,-0.13201,3.9216,3.8188,1.9931,-2.0202,1.8301,6.0606,3.9216,3.8188,-1.9417,1.0207,2.0361,4.0,4.8366,4.9751,2.9333,2.8479,2.0813,2.0813
3.9604,-1.0774,-1.1221,3.9216,2.8479,-0.06873,-4.0404,-0.13072,2.0202,3.9216,2.8479,-2.9126,1.0207,1.0509,4.0,1.8954,2.9851,4.9333,1.877,0.13008,-1.8211
3.9604,-6.1279,-2.1122,3.9216,2.8479,0.9622,-5.0505,1.8301,1.0101,3.9216,2.8479,-2.9126,-0.89314,-0.91954,3.0,-3.0065,0.0,-2.0667,1.877,-1.8211,-4.748
0.0,-5.1178,-2.1122,3.9216,2.8479,-0.06873,-5.0505,-0.13072,-1.0101,3.9216,2.8479,-2.9126,-4.7209,-3.8752,-3.0,-3.9869,-1.99,-6.0667,-5.89,-5.7236,-5.7236
-0.9901,-5.1178,-2.1122,2.9412,1.877,-1.0997,-5.0505,0.84967,-1.0101,2.9412,1.877,-2.9126,-7.5917,-5.8456,-4.0,-3.9869,-2.9851,0.93333,-4.9191,-7.6748,-6.6992
1.9802,-3.0976,-1.1221,2.9412,1.877,-1.0997,-2.0202,0.84967,6.0606,2.9412,1.877,-1.9417,-6.6348,-3.8752,-3.0,-3.0065,-1.99,-0.06667,-1.0356,-4.748,-5.7236
0.0,-4.1077,-3.1023,1.9608,-1.0356,-2.1306,-4.0404,2.8105,2.0202,1.9608,-1.0356,-3.8835,-5.6778,-3.8752,-3.0,-3.9869,-2.9851,-1.0667,-3.9482,-3.7724,-5.7236
-3.9604,-10.168,-7.0627,-0.98039,-2.9773,-5.2234,-9.0909,0.84967,-6.0606,-0.98039,-2.9773,-7.767,-5.6778,-5.8456,-4.0,-6.9281,-4.9751,-2.0667,-7.8317,-3.7724,-7.6748
-5.9406,-10.168,-9.0429,-0.98039,-2.9773,-5.2234,-9.0909,-1.1111,-7.0707,-0.98039,-2.9773,-7.767,-6.6348,-6.8309,-5.0,-8.8889,-5.9701,-3.0667,-8.8026,-3.7724,-9.626
-3.9604,-3.0976,-8.0528,1.9608,-0.06472,-3.1615,-4.0404,3.7908,3.0303,1.9608,-0.06472,-4.8544,-6.6348,-4.8604,-5.0,-5.9477,-5.9701,-2.0667,-1.0356,-2.7967,-5.7236
-8.9109,-7.138,-11.023,0.98039,-1.0356,-6.2543,-7.0707,-0.13072,0.0,0.98039,-1.0356,-7.767,-9.5056,-6.8309,-10.0,-7.9085,-9.9502,-5.0667,-0.06472,-9.626,-4.748
-14.851,-10.168,-14.983,-2.9412,-2.9773,-11.409,-11.111,-6.9935,-5.0505,-2.9412,-2.9773,-12.621,-9.5056,-4.8604,-13.0,-6.9281,-10.945,-12.067,-3.9482,-12.553,-2.7967
-15.842,-10.168,-15.974,-3.9216,-3.9482,-14.502,-12.121,-6.9935,-3.0303,-3.9216,-3.9482,-15.534,-6.6348,-2.89,-11.0,-6.9281,-9.9502,-16.066999,-4.9191,-9.626,-3.7724
-12.871,-3.0976,-13.993,-4.902,-5.89,-13.471,-9.0909,-3.0719,3.0303,-4.902,-5.89,-14.563,-5.6778,-0.91954,-9.0,-4.9673,-7.9602,-9.0667,-5.89,-7.6748,-5.7236
-11.881,-8.1481,-15.974,-8.8235,-9.7735,-15.533,-13.131,-6.9935,-5.0505,-8.8235,-9.7735,-18.447001,-7.5917,-3.8752,-10.0,-7.9085,-9.9502,-8.0667,-2.9773,-8.6504,-6.6992
-13.861,-12.189,-16.964001,-9.8039,-9.7735,-17.594999,-16.162001,-7.9739,-9.0909,-9.8039,-9.7735,-20.388,-8.5486,-5.8456,-11.0,-9.8693,-10.945,-8.0667,-0.06472,-9.626,-8.6504
-0.9901,-4.1077,-10.033,-5.8824,-5.89,-7.2852,-8.0808,-0.13072,2.0202,-5.8824,-5.89,-12.621,-3.764,-1.9048,-3.0,-5.9477,-5.9701,2.9333,-0.06472,-1.8211,-5.7236
-3.9604,-8.1481,-9.0429,-5.8824,-7.8317,-7.2852,-11.111,-0.13072,-4.0404,-5.8824,-7.8317,-12.621,-3.764,-1.9048,-5.0,-7.9085,-7.9602,-3.0667,-2.9773,-3.7724,-5.7236
-8.9109,-9.1582,-9.0429,-5.8824,-6.8608,-9.3471,-10.101,-4.0523,-7.0707,-5.8824,-6.8608,-11.65,-8.5486,-5.8456,-10.0,-9.8693,-10.945,-7.0667,-3.9482,-9.626,-8.6504
-4.9505,-4.1077,-4.0924,-3.9216,-3.9482,-5.2234,-5.0505,-4.0523,-4.0404,-3.9216,-3.9482,-6.7961,-8.5486,-5.8456,-8.0,-7.9085,-8.9552,-4.0667,-6.8608,-7.6748,-8.6504
-1.9802,-3.0976,-1.1221,-3.9216,-3.9482,-4.1924,-4.0404,-2.0915,-2.0202,-3.9216,-3.9482,-3.8835,-6.6348,-5.8456,-5.0,-6.9281,-6.9652,-5.0667,-6.8608,-5.7236,-7.6748
1.9802,-1.0774,0.85809,-4.902,-4.9191,-1.0997,-4.0404,1.8301,-1.0101,-4.902,-4.9191,-3.8835,-4.7209,-5.8456,-2.0,-5.9477,-4.9751,-3.0667,-0.06472,-2.7967,-6.6992
4.9505,-2.0875,0.85809,-4.902,-6.8608,-0.06873,-5.0505,2.8105,-4.0404,-4.902,-6.8608,-3.8835,-3.764,-4.8604,1.0,-5.9477,-3.9801,1.9333,-2.9773,-0.84553,-7.6748
7.9208,-1.0774,3.8284,-0.98039,-3.9482,5.0859,-3.0303,4.7712,-3.0303,-0.98039,-3.9482,0.0,-2.807,-3.8752,1.0,-3.9869,-1.99,1.9333,-4.9191,-0.84553,-6.6992
7.9208,2.963,5.8086,1.9608,-1.0356,7.1478,1.0101,5.7516,-3.0303,1.9608,-1.0356,2.9126,-2.807,-1.9048,0.0,-3.0065,-1.99,1.9333,-7.8317,-0.84553,-4.748
5.9406,0.94276,3.8284,0.98039,-1.0356,5.0859,-1.0101,4.7712,-5.0505,0.98039,-1.0356,1.9417,-2.807,-0.91954,-1.0,-3.9869,-3.9801,4.9333,-4.9191,-0.84553,-4.748
4.9505,-2.0875,2.8383,0.98039,-2.0065,4.055,-2.0202,6.732,-5.0505,0.98039,-2.0065,0.97087,-1.8501,0.06568,-1.0,-3.9869,-4.9751,6.9333,-2.9773,0.13008,-4.748
2.9703,-4.1077,-0.13201,0.0,-2.0065,1.9931,-3.0303,2.8105,-4.0404,0.0,-2.0065,-0.97087,-2.807,-0.91954,-2.0,-4.9673,-5.9701,4.9333,-4.9191,0.13008,-4.748
2.9703,-4.1077,-0.13201,0.0,-2.0065,1.9931,-3.0303,1.8301,-5.0505,0.0,-2.0065,-0.97087,-2.807,-0.91954,0.0,-4.9673,-4.9751,3.9333,-3.9482,1.1057,-5.7236
8.9109,-3.0976,3.8284,0.98039,-2.0065,5.0859,-3.0303,2.8105,-4.0404,0.98039,-2.0065,0.97087,1.0207,2.0361,6.0,-2.0261,0.99502,0.93333,-4.9191,5.0081,-3.7724
8.9109,-3.0976,4.8185,0.98039,-2.0065,5.0859,-3.0303,5.7516,-3.0303,0.98039,-2.0065,0.0,1.9777,4.0066,6.0,-1.0458,1.99,6.9333,-3.9482,5.0081,-2.7967
2.9703,-5.1178,0.85809,-1.9608,-3.9482,0.9622,-6.0606,1.8301,-8.0808,-1.9608,-3.9482,-3.8835,0.0638,3.0213,1.0,-3.0065,-1.99,5.9333,-5.89,1.1057,-4.748
1.9802,-3.0976,-0.13201,-1.9608,-2.9773,1.9931,-5.0505,5.7516,-8.0808,-1.9608,-2.9773,-2.9126,2.9346,5.977,1.0,-2.0261,-1.99,4.9333,-2.9773,4.0325,-1.8211
0.0,0.94276,-0.13201,-2.9412,-2.9773,-0.06873,-3.0303,3.7908,-4.0404,-2.9412,-2.9773,-1.9417,6.7624,9.9179,1.0,0.91503,0.0,2.9333,2.8479,5.0081,2.0813
-0.9901,2.963,1.8482,-4.902,-3.9482,-4.1924,-2.0202,-5.0327,-2.0202,-4.902,-3.9482,-2.9126,8.6762,10.903,2.0,0.91503,0.99502,4.9333,3.8188,5.0081,4.0325
0.9901,0.94276,1.8482,-5.8824,-2.9773,-3.1615,-3.0303,-6.9935,-4.0404,-5.8824,-2.9773,-2.9126,8.6762,9.9179,4.0,-0.06536,0.99502,-1.0667,0.90615,5.9837,2.0813
3.9604,3.9731,4.8185,-4.902,-2.9773,-2.1306,-1.0101,-5.0327,-2.0202,-4.902,-2.9773,-0.97087,7.7193,8.9327,7.0,0.91503,1.99,-3.0667,-0.06472,7.935,3.0569
5.9406,10.034,9.769,-2.9412,-0.06472,0.9622,4.0404,-3.0719,3.0303,-2.9412,-0.06472,2.9126,7.7193,10.903,6.0,4.8366,4.9751,2.9333,2.8479,6.9593,6.9593
4.9505,9.0236,10.759,0.0,1.877,3.0241,6.0606,-2.0915,3.0303,0.0,1.877,6.7961,9.6332,12.874,7.0,6.7974,5.9701,5.9333,8.6731,5.9837,8.9106
7.9208,10.034,14.719,1.9608,3.8188,5.0859,8.0808,-2.0915,5.0505,1.9608,3.8188,9.7087,13.461,17.799999,10.0,10.719,9.9502,6.9333,10.615,8.9106,11.837
14.851,14.074,19.67,3.9216,3.8188,11.271,10.101,4.7712,5.0505,3.9216,3.8188,12.621,18.246,21.740999,15.0,14.641,15.92,10.933,9.644,12.813,14.764
13.861,14.074,18.68,2.9412,1.877,8.1787,8.0808,-0.13072,1.0101,2.9412,1.877,11.65,18.246,21.740999,16.0,14.641,16.915001,6.9333,9.644,12.813,13.789
12.871,10.034,16.700001,2.9412,1.877,8.1787,8.0808,1.8301,3.0303,2.9412,1.877,9.7087,16.332001,20.754999,15.0,12.68,15.92,8.9333,4.7896,13.789,10.862
9.901,7.0034,13.729,1.9608,-0.06472,6.1168,6.0606,1.8301,0.0,1.9608,-0.06472,7.767,11.547,16.813999,12.0,8.7582,11.94,9.9333,2.8479,10.862,6.9593
6.9307,8.0135,12.739,2.9412,1.877,4.055,6.0606,-0.13072,0.0,2.9412,1.877,7.767,10.59,15.829,9.0,9.7386,10.945,6.9333,5.7605,6.9593,6.9593
10.891,12.054,15.71,6.8627,6.7314,8.1787,11.111,4.7712,5.0505,6.8627,6.7314,12.621,9.6332,15.829,10.0,11.699,12.935,10.933,4.7896,6.9593,9.8862
11.881,13.064,15.71,9.8039,9.644,10.241,14.141,7.7124,11.111,9.8039,9.644,15.534,8.6762,14.844,11.0,11.699,10.945,8.9333,7.7023,6.9593,8.9106
2.9703,8.0135,8.7789,6.8627,5.7605,4.055,9.0909,2.8105,4.0404,6.8627,5.7605,9.7087,2.9346,8.9327,3.0,4.8366,3.9801,-0.06667,3.8188,1.1057,3.0569
5.9406,4.9832,5.8086,6.8627,4.7896,7.1478,7.0707,6.732,2.0202,6.8627,4.7896,8.7379,2.9346,7.9475,4.0,2.8758,1.99,3.9333,-0.06472,3.0569,2.0813
5.9406,4.9832,6.7987,5.8824,4.7896,5.0859,7.0707,2.8105,4.0404,5.8824,4.7896,7.767,6.7624,10.903,7.0,2.8758,3.9801,6.9333,2.8479,6.9593,2.0813
0.9901,0.94276,3.8284,4.902,4.7896,1.9931,5.0505,-1.1111,3.0303,4.902,4.7896,5.8252,3.8915,6.9622,3.0,-0.06536,0.0,2.9333,3.8188,2.0813,-2.7967
1.9802,-0.06734,2.8383,5.8824,5.7605,4.055,5.0505,2.8105,7.0707,5.8824,5.7605,4.8544,0.0638,4.0066,0.0,-2.0261,-0.99502,-0.06667,0.90615,-0.84553,-3.7724
3.9604,4.9832,6.7987,5.8824,4.7896,5.0859,6.0606,2.8105,3.0303,5.8824,4.7896,6.7961,-1.8501,4.0066,2.0,0.91503,1.99,2.9333,-3.9482,-0.84553,-1.8211
5.9406,8.0135,11.749,4.902,5.7605,7.1478,9.0909,5.7516,5.0505,4.902,5.7605,9.7087,-0.89314,4.9918,4.0,3.8562,4.9751,3.9333,3.8188,0.13008,-0.84553
7.9208,10.034,14.719,6.8627,7.7023,8.1787,12.121,4.7712,9.0909,6.8627,7.7023,11.65,1.9777,5.977,7.0,5.817,7.9602,4.9333,6.7314,3.0569,2.0813
10.891,13.064,16.700001,5.8824,7.7023,10.241,15.152,2.8105,11.111,5.8824,7.7023,13.592,2.9346,7.9475,9.0,7.7778,8.9552,5.9333,9.644,5.0081,5.0081
8.9109,11.044,14.719,2.9412,4.7896,9.2096,11.111,5.7516,5.0505,2.9412,4.7896,10.68,3.8915,6.9622,8.0,6.7974,7.9602,3.9333,6.7314,5.0081,3.0569
9.901,11.044,14.719,2.9412,4.7896,9.2096,9.0909,5.7516,4.0404,2.9412,4.7896,9.7087,1.9777,5.977,7.0,6.7974,6.9652,4.9333,4.7896,4.0325,3.0569
9.901,9.0236,13.729,3.9216,5.7605,11.271,11.111,7.7124,9.0909,3.9216,5.7605,10.68,0.0638,4.0066,5.0,4.8366,4.9751,7.9333,3.8188,2.0813,2.0813
6.9307,4.9832,10.759,2.9412,2.8479,8.1787,7.0707,3.7908,0.0,2.9412,2.8479,7.767,-0.89314,0.06568,3.0,-0.06536,1.99,3.9333,-1.0356,2.0813,-1.8211
6.9307,8.0135,11.749,2.9412,3.8188,6.1168,8.0808,2.8105,1.0101,2.9412,3.8188,6.7961,0.0638,0.06568,5.0,-0.06536,1.99,0.93333,-3.9482,4.0325,-3.7724
7.9208,3.9731,9.769,0.98039,1.877,5.0859,6.0606,3.7908,0.0,0.98039,1.877,5.8252,1.9777,2.0361,5.0,-0.06536,1.99,2.9333,-0.06472,5.9837,-2.7967
5.9406,0.94276,6.7987,-1.9608,-2.0065,0.9622,0.0,-1.1111,-5.0505,-1.9608,-2.0065,0.97087,2.9346,4.0066,6.0,1.8954,2.9851,2.9333,-1.0356,5.9837,-0.84553
6.9307,4.9832,6.7987,-2.9412,-3.9482,-0.06873,0.0,-2.0915,-5.0505,-2.9412,-3.9482,0.0,2.9346,4.9918,6.0,2.8758,2.9851,4.9333,-4.9191,5.0081,0.13008
3.9604,2.963,2.8383,-2.9412,-2.9773,0.9622,1.0101,0.84967,1.0101,-2.9412,-2.9773,-0.97087,2.9346,4.0066,4.0,0.91503,0.99502,3.9333,-3.9482,4.0325,-1.8211
0.0,-1.0774,-1.1221,-3.9216,-2.0065,-1.0997,-1.0101,-0.13072,-2.0202,-3.9216,-2.0065,-2.9126,1.0207,1.0509,1.0,-3.0065,-2.9851,3.9333,-3.9482,1.1057,-4.748
-1.9802,-3.0976,-2.1122,-4.902,-2.9773,-4.1924,-3.0303,-6.0131,-4.0404,-4.902,-2.9773,-3.8835,0.0638,-0.91954,-1.0,-4.9673,-4.9751,-8.0667,-0.06472,-0.84553,-5.7236
-2.9703,-2.0875,-4.0924,-4.902,-2.9773,-5.2234,-1.0101,-6.9935,3.0303,-4.902,-2.9773,-3.8835,-1.8501,-2.89,-4.0,-5.9477,-6.9652,-9.0667,1.877,-3.7724,-6.6992
-5.9406,-3.0976,-6.0726,-5.8824,-2.9773,-7.2852,-1.0101,-7.9739,2.0202,-5.8824,-2.9773,-4.8544,-3.764,-3.8752,-6.0,-6.9281,-7.9602,-7.0667,-2.0065,-4.748,-6.6992
-10.891,-10.168,-13.003,-6.8627,-4.9191,-8.3162,-6.0606,-6.9935,-4.0404,-6.8627,-4.9191,-8.7379,-9.5056,-7.8161,-12.0,-12.81,-13.93,-10.067,-14.628,-8.6504,-10.602
-16.832001,-13.199,-16.964001,-6.8627,-4.9191,-10.378,-9.0909,-6.0131,-6.0606,-6.8627,-4.9191,-10.68,-15.247,-11.757,-18.0,-15.752,-17.91,-11.067,-18.511,-14.504,-15.48
-19.802,-16.229,-17.954,-8.8235,-5.89,-12.44,-11.111,-10.915,-5.0505,-8.8235,-5.89,-12.621,-16.204,-11.757,-20.0,-17.712,-19.9,-17.066999,-15.599,-16.455,-15.48
-16.832001,-15.219,-15.974,-7.8431,-5.89,-12.44,-11.111,-10.915,-9.0909,-7.8431,-5.89,-11.65,-14.29,-11.757,-18.0,-15.752,-18.905001,-16.066999,-12.686,-16.455,-14.504
-11.881,-10.168,-10.033,-3.9216,-3.9482,-7.2852,-8.0808,-6.0131,-9.0909,-3.9216,-3.9482,-7.767,-8.5486,-7.8161,-13.0,-12.81,-13.93,-10.067,-10.744,-12.553,-12.553
-3.9604,-6.1279,-5.0825,-2.9412,-3.9482,-4.1924,-5.0505,-3.0719,-7.0707,-2.9412,-3.9482,-4.8544,-4.7209,-3.8752,-7.0,-8.8889,-8.9552,-10.067,-9.7735,-6.6992,-11.577
-6.9307,-6.1279,-5.0825,-4.902,-5.89,-5.2234,-6.0606,-6.9935,-6.0606,-4.902,-5.89,-4.8544,-4.7209,-2.89,-9.0,-7.9085,-8.9552,-10.067,-8.8026,-9.626,-9.626
-7.9208,-5.1178,-3.1023,-3.9216,-5.89,-5.2234,-6.0606,-7.9739,-7.0707,-3.9216,-5.89,-3.8835,-2.807,0.06568,-8.0,-4.9673,-6.9652,-9.0667,-7.8317,-8.6504,-4.748
-4.9505,-2.0875,-1.1221,-2.9412,-4.9191,-1.0997,-5.0505,-4.0523,-7.0707,-2.9412,-4.9191,-1.9417,-4.7209,0.06568,-7.0,-3.9869,-5.9701,-8.0667,-6.8608,-8.6504,-3.7724
-6.9307,-5.1178,-4.0924,-4.902,-6.8608,-4.1924,-7.0707,-6.9935,-14.141,-4.902,-6.8608,-3.8835,-8.5486,-3.8752,-9.0,-5.9477,-8.9552,-10.067,-8.8026,-10.602,-5.7236
-5.9406,-7.138,-4.0924,-4.902,-4.9191,-4.1924,-5.0505,-8.9542,-11.111,-4.902,-4.9191,-3.8835,-9.5056,-5.8456,-8.0,-6.9281,-9.9502,-7.0667,-6.8608,-9.626,-4.748
-6.9307,-5.1178,-4.0924,-3.9216,-3.9482,-4.1924,-2.0202,-7.9739,-5.0505,-3.9216,-3.9482,-2.9126,-9.5056,-5.8456,-10.0,-6.9281,-10.945,-7.0667,-3.9482,-10.602,-3.7724
-3.9604,-5.1178,-3.1023,-4.902,-4.9191,-3.1615,-4.0404,-4.0523,-7.0707,-4.902,-4.9191,-2.9126,-5.6778,-2.89,-7.0,-5.9477,-8.9552,-9.0667,-8.8026,-8.6504,-2.7967
-3.9604,-5.1178,-3.1023,-5.8824,-5.89,-4.1924,-6.0606,-7.9739,-8.0808,-5.8824,-5.89,-4.8544,-0.89314,0.06568,-4.0,-3.9869,-5.9701,-10.067,-9.7735,-5.7236,-1.8211
-7.9208,-6.1279,-5.0825,-5.8824,-5.89,-6.2543,-6.0606,-8.9542,-8.0808,-5.8824,-5.89,-6.7961,-1.8501,-0.91954,-5.0,-3.9869,-5.9701,-10.067,-5.89,-6.6992,-3.7724
-5.9406,-7.138,-6.0726,-4.902,-5.89,-4.1924,-6.0606,-7.9739,-6.0606,-4.902,-5.89,-5.8252,-2.807,-2.89,-5.0,-5.9477,-6.9652,-6.0667,-4.9191,-5.7236,-6.6992
3.9604,-0.06734,-1.1221,-0.98039,-3.9482,1.9931,0.0,-0.13072,-3.0303,-0.98039,-3.9482,0.0,0.0638,-0.91954,3.0,-3.9869,-1.99,0.93333,-7.8317,3.0569,-4.748
7.9208,-1.0774,1.8482,-0.98039,-3.9482,4.055,-2.0202,5.7516,-8.0808,-0.98039,-3.9482,0.97087,1.9777,-0.91954,6.0,-2.0261,0.0,5.9333,-7.8317,5.0081,-3.7724
9.901,0.94276,4.8185,0.0,-3.9482,4.055,0.0,2.8105,-10.101,0.0,-3.9482,1.9417,4.8485,3.0213,9.0,1.8954,3.9801,5.9333,-3.9482,5.9837,-1.8211
2.9703,1.9529,2.8383,0.0,-2.0065,-0.06873,1.0101,-3.0719,-7.0707,0.0,-2.0065,0.97087,4.8485,4.0066,5.0,2.8758,2.9851,4.9333,-2.0065,4.0325,-0.84553
0.0,2.963,0.85809,0.98039,1.877,0.9622,4.0404,-0.13072,-3.0303,0.98039,1.877,1.9417,1.9777,2.0361,2.0,2.8758,0.0,-1.0667,-1.0356,0.13008,0.13008
1.9802,3.9731,-0.13201,2.9412,4.7896,4.055,8.0808,2.8105,3.0303,2.9412,4.7896,5.8252,1.9777,2.0361,2.0,2.8758,0.0,-0.06667,-1.0356,0.13008,2.0813
1.9802,4.9832,0.85809,2.9412,4.7896,5.0859,10.101,1.8301,6.0606,2.9412,4.7896,6.7961,1.0207,2.0361,2.0,2.8758,0.0,1.9333,-0.06472,0.13008,3.0569
2.9703,5.9933,1.8482,2.9412,4.7896,6.1168,11.111,0.84967,8.0808,2.9412,4.7896,7.767,1.0207,2.0361,2.0,2.8758,0.0,-2.0667,4.7896,1.1057,5.0081
3.9604,4.9832,2.8383,3.9216,4.7896,7.1478,8.0808,2.8105,2.0202,3.9216,4.7896,6.7961,4.8485,5.977,5.0,4.8366,2.9851,2.9333,9.644,4.0325,6.9593
0.9901,0.94276,-1.1221,1.9608,1.877,1.9931,3.0303,-1.1111,-4.0404,1.9608,1.877,1.9417,5.8054,5.977,4.0,2.8758,0.99502,5.9333,2.8479,3.0569,5.9837
0.9901,-1.0774,-3.1023,0.98039,1.877,0.9622,4.0404,-2.0915,0.0,0.98039,1.877,1.9417,6.7624,4.9918,3.0,0.91503,-0.99502,2.9333,1.877,4.0325,5.0081
1.9802,-2.0875,-1.1221,0.98039,1.877,3.0241,4.0404,-1.1111,-2.0202,0.98039,1.877,3.8835,5.8054,2.0361,3.0,-0.06536,-0.99502,1.9333,0.90615,5.0081,1.1057
3.9604,-2.0875,1.8482,2.9412,1.877,6.1168,5.0505,0.84967,-2.0202,2.9412,1.877,6.7961,3.8915,0.06568,4.0,-1.0458,0.0,1.9333,-2.0065,5.0081,-3.7724
4.9505,-3.0976,2.8383,2.9412,1.877,6.1168,4.0404,-1.1111,-4.0404,2.9412,1.877,6.7961,5.8054,0.06568,6.0,-0.06536,1.99,2.9333,-2.9773,6.9593,-3.7724
5.9406,-0.06734,2.8383,0.98039,1.877,5.0859,4.0404,-4.0523,-1.0101,0.98039,1.877,5.8252,7.7193,3.0213,8.0,2.8758,4.9751,2.9333,-3.9482,8.9106,1.1057
0.9901,1.9529,-0.13201,-1.9608,-1.0356,-0.06873,2.0202,-6.9935,0.0,-1.9608,-1.0356,1.9417,7.7193,4.9918,7.0,3.8562,4.9751,1.9333,-2.9773,7.935,4.0325
-1.9802,3.9731,-3.1023,-4.902,-1.0356,-1.0997,1.0101,-7.9739,-2.0202,-4.902,-1.0356,0.0,5.8054,4.9918,3.0,4.8366,2.9851,-4.0667,1.877,3.0569,2.0813
-0.9901,3.9731,-2.1122,-2.9412,0.90615,-0.06873,5.0505,-10.915,4.0404,-2.9412,0.90615,3.8835,4.8485,4.9918,2.0,4.8366,1.99,-9.0667,4.7896,3.0569,6.9593
-4.9505,-4.1077,-4.0924,-4.902,-1.0356,-2.1306,0.0,-10.915,-5.0505,-4.902,-1.0356,1.9417,1.9777,1.0509,-2.0,-0.06536,-0.99502,-7.0667,-0.06472,-1.8211,0.13008
-7.9208,-8.1481,-6.0726,-6.8627,-5.89,-4.1924,-5.0505,-10.915,-15.152,-6.8627,-5.89,-0.97087,0.0638,-1.9048,-4.0,-3.0065,-2.9851,-6.0667,-6.8608,-3.7724,-6.6992
-6.9307,-8.1481,-6.0726,-5.8824,-5.89,-3.1615,-4.0404,-6.9935,-13.131,-5.8824,-5.89,0.0,1.0207,-2.89,-2.0,-3.0065,-1.99,-5.0667,-7.8317,-0.84553,-6.6992
-5.9406,-7.138,-8.0528,-4.902,-4.9191,-3.1615,-3.0303,-6.0131,-8.0808,-4.902,-4.9191,0.0,1.0207,-2.89,-3.0,-3.0065,-1.99,-2.0667,-8.8026,0.13008,-3.7724
-8.9109,-11.178,-10.033,-6.8627,-5.89,-6.2543,-7.0707,-10.915,-10.101,-6.8627,-5.89,-3.8835,0.0638,-2.89,-5.0,-4.9673,-3.9801,-8.0667,-14.628,-2.7967,-4.748
-7.9208,-11.178,-10.033,-7.8431,-6.8608,-8.3162,-9.0909,-16.797001,-12.121,-7.8431,-6.8608,-5.8252,-0.89314,-1.9048,-5.0,-4.9673,-2.9851,-10.067,-8.8026,-1.8211,-8.6504
-11.881,-14.209,-13.003,-8.8235,-7.8317,-9.3471,-9.0909,-14.837,-14.141,-8.8235,-7.8317,-6.7961,-4.7209,-5.8456,-8.0,-8.8889,-4.9751,-11.067,-13.657,-5.7236,-12.553
-15.842,-16.229,-16.964001,-9.8039,-8.8026,-10.378,-12.121,-11.895,-15.152,-9.8039,-8.8026,-9.7087,-8.5486,-9.7865,-13.0,-12.81,-9.9502,-11.067,-14.628,-11.577,-13.528
-15.842,-21.278999,-18.944,-10.784,-10.744,-13.471,-15.152,-15.817,-14.141,-10.784,-10.744,-12.621,-9.5056,-11.757,-15.0,-15.752,-12.935,-14.067,-14.628,-12.553,-14.504
-16.832001,-21.278999,-19.934,-12.745,-12.686,-14.502,-17.172001,-18.757999,-16.162001,-12.745,-12.686,-14.563,-11.419,-11.757,-15.0,-16.732,-14.925,-10.067,-14.628,-11.577,-14.504
-13.861,-14.209,-18.944,-10.784,-10.744,-10.378,-14.141,-12.876,-13.131,-10.784,-10.744,-12.621,-11.419,-11.757,-16.0,-14.771,-14.925,-10.067,-12.686,-14.504,-12.553
-12.871,-11.178,-16.964001,-9.8039,-8.8026,-9.3471,-12.121,-7.9739,-11.111,-9.8039,-8.8026,-11.65,-11.419,-11.757,-17.0,-12.81,-14.925,-17.066999,-7.8317,-15.48,-11.577
-11.881,-12.189,-14.983,-12.745,-10.744,-12.44,-14.141,-13.856,-11.111,-12.745,-10.744,-14.563,-10.463,-10.772,-14.0,-11.83,-13.93,-19.066999,-9.7735,-12.553,-10.602
-13.861,-12.189,-13.003,-12.745,-11.715,-13.471,-14.141,-17.778,-11.111,-12.745,-11.715,-13.592,-9.5056,-9.7865,-14.0,-10.85,-12.935,-12.067,-6.8608,-11.577,-6.6992
-12.871,-10.168,-11.023,-8.8235,-8.8026,-9.3471,-12.121,-14.837,-10.101,-8.8235,-8.8026,-9.7087,-8.5486,-7.8161,-14.0,-8.8889,-10.945,-7.0667,-3.9482,-10.602,-4.748
-9.901,-9.1582,-9.0429,-7.8431,-6.8608,-8.3162,-12.121,-13.856,-10.101,-7.8431,-6.8608,-8.7379,-6.6348,-5.8456,-11.0,-6.9281,-8.9552,-6.0667,-4.9191,-8.6504,-5.7236
-3.9604,-6.1279,-5.0825,-6.8627,-6.8608,-5.2234,-9.0909,-10.915,-7.0707,-6.8627,-6.8608,-5.8252,-1.8501,-1.9048,-5.0,-3.0065,-3.9801,-5.0667,-3.9482,-2.7967,-1.8211
0.0,-4.1077,-1.1221,-4.902,-5.89,-1.0997,-6.0606,-5.0327,-4.0404,-4.902,-5.89,-2.9126,0.0638,-0.91954,-3.0,-2.0261,-1.99,-5.0667,-1.0356,-0.84553,-0.84553
1.9802,-0.06734,2.8383,-1.9608,-2.9773,0.9622,0.0,-5.0327,1.0101,-1.9608,-2.9773,0.97087,1.0207,-1.9048,0.0,-1.0458,0.99502,-4.0667,-0.06472,1.1057,-1.8211
4.9505,7.0034,6.7987,-0.98039,0.90615,4.055,5.0505,-2.0915,4.0404,-0.98039,0.90615,4.8544,2.9346,-0.91954,3.0,1.8954,2.9851,-0.06667,-3.9482,3.0569,-0.84553
2.9703,5.9933,7.7888,-2.9412,-0.06472,0.9622,4.0404,-6.0131,0.0,-2.9412,-0.06472,2.9126,2.9346,-0.91954,3.0,2.8758,4.9751,-4.0667,-3.9482,2.0813,-0.84553
0.9901,4.9832,6.7987,-4.902,-1.0356,-0.06873,3.0303,-8.9542,-1.0101,-4.902,-1.0356,0.97087,2.9346,1.0509,1.0,3.8562,4.9751,-5.0667,0.90615,0.13008,1.1057
-0.9901,1.9529,4.8185,-5.8824,-2.9773,-1.0997,-1.0101,-10.915,-4.0404,-5.8824,-2.9773,-0.97087,0.0638,-0.91954,-1.0,2.8758,2.9851,-5.0667,-0.06472,-0.84553,1.1057
-0.9901,1.9529,3.8284,-3.9216,-2.0065,0.9622,0.0,-5.0327,-4.0404,-3.9216,-2.0065,0.0,-1.8501,-3.8752,-2.0,0.91503,1.99,-6.0667,-2.9773,-3.7724,0.13008
-3.9604,-0.06734,0.85809,-4.902,-2.9773,-1.0997,-1.0101,-6.9935,-3.0303,-4.902,-2.9773,-0.97087,-2.807,-5.8456,-4.0,-1.0458,0.0,-7.0667,-2.9773,-5.7236,-3.7724
-6.9307,-7.138,-4.0924,-6.8627,-5.89,-6.2543,-7.0707,-9.9346,-8.0808,-6.8627,-5.89,-5.8252,-4.7209,-7.8161,-6.0,-4.9673,-2.9851,-12.067,-9.7735,-6.6992,-7.6748
-5.9406,-5.1178,-4.0924,-4.902,-4.9191,-4.1924,-6.0606,-9.9346,-7.0707,-4.902,-4.9191,-3.8835,-2.807,-5.8456,-5.0,-3.9869,-1.99,-10.067,-9.7735,-4.748,-4.748
0.0,-2.0875,-0.13201,-3.9216,-3.9482,0.9622,-4.0404,-6.9935,-9.0909,-3.9216,-3.9482,-1.9417,1.9777,0.06568,0.0,0.91503,2.9851,-3.0667,-4.9191,1.1057,-0.84553
-2.9703,-3.0976,-2.1122,-5.8824,-4.9191,-3.1615,-5.0505,-10.915,-8.0808,-5.8824,-4.9191,-3.8835,3.8915,3.0213,0.0,1.8954,2.9851,-5.0667,-2.9773,0.13008,2.0813
-5.9406,-3.0976,-6.0726,-8.8235,-5.89,-6.2543,-6.0606,-12.876,-4.0404,-8.8235,-5.89,-6.7961,1.9777,1.0509,-4.0,-0.06536,0.0,-6.0667,-5.89,-3.7724,1.1057
-13.861,-9.1582,-12.013,-10.784,-9.7735,-13.471,-13.131,-15.817,-13.131,-10.784,-9.7735,-12.621,-0.89314,-0.91954,-8.0,-3.0065,-3.9801,-17.066999,-11.715,-8.6504,-1.8211
-13.861,-11.178,-12.013,-9.8039,-8.8026,-13.471,-14.141,-13.856,-14.141,-9.8039,-8.8026,-12.621,1.0207,1.0509,-7.0,-3.0065,-2.9851,-16.066999,-10.744,-5.7236,0.13008
-11.881,-11.178,-12.013,-8.8235,-8.8026,-13.471,-13.131,-11.895,-12.121,-8.8235,-8.8026,-12.621,0.0638,0.06568,-6.0,-3.0065,-2.9851,-10.067,-8.8026,-5.7236,-0.84553
-10.891,-11.178,-12.013,-8.8235,-8.8026,-12.44,-13.131,-11.895,-13.131,-8.8235,-8.8026,-12.621,1.0207,-0.91954,-6.0,-3.9869,-2.9851,-9.0667,-8.8026,-6.6992,-3.7724
-6.9307,-9.1582,-10.033,-7.8431,-8.8026,-10.378,-11.111,-11.895,-11.111,-7.8431,-8.8026,-11.65,3.8915,2.0361,-2.0,-2.0261,-0.99502,-10.067,-7.8317,-2.7967,-3.7724
-4.9505,-8.1481,-8.0528,-6.8627,-6.8608,-7.2852,-10.101,-7.9739,-9.0909,-6.8627,-6.8608,-9.7087,4.8485,3.0213,0.0,-0.06536,0.99502,-7.0667,-3.9482,-1.8211,-1.8211
-5.9406,-7.138,-8.0528,-6.8627,-5.89,-7.2852,-9.0909,-7.9739,-3.0303,-6.8627,-5.89,-8.7379,2.9346,2.0361,0.0,-0.06536,0.99502,-4.0667,-1.0356,-2.7967,-0.84553
-5.9406,-5.1178,-8.0528,-7.8431,-6.8608,-8.3162,-8.0808,-10.915,-3.0303,-7.8431,-6.8608,-8.7379,4.8485,3.0213,1.0,0.91503,0.99502,-5.0667,0.90615,0.13008,2.0813
-7.9208,-6.1279,-10.033,-9.8039,-7.8317,-10.378,-9.0909,-11.895,-8.0808,-9.8039,-7.8317,-9.7087,3.8915,3.0213,-1.0,-0.06536,-0.99502,-9.0667,-0.06472,0.13008,3.0569
-5.9406,-5.1178,-8.0528,-7.8431,-7.8317,-7.2852,-7.0707,-6.0131,-6.0606,-7.8431,-7.8317,-8.7379,4.8485,4.0066,-1.0,-0.06536,0.0,-2.0667,-2.0065,2.0813,3.0569
-6.9307,-7.138,-10.033,-7.8431,-7.8317,-7.2852,-9.0909,-5.0327,-8.0808,-7.8431,-7.8317,-9.7087,5.8054,4.0066,-1.0,-1.0458,-0.99502,1.9333,-5.89,2.0813,2.0813
-7.9208,-8.1481,-10.033,-8.8235,-7.8317,-9.3471,-10.101,-6.0131,-9.0909,-8.8235,-7.8317,-11.65,5.8054,4.0066,-2.0,-2.0261,-0.99502,-0.06667,-3.9482,0.13008,2.0813
-2.9703,-3.0976,-7.0627,-6.8627,-4.9191,-6.2543,-6.0606,-6.0131,-4.0404,-6.8627,-4.9191,-8.7379,4.8485,3.0213,-1.0,-0.06536,-0.99502,-0.06667,0.90615,0.13008,4.0325
-3.9604,-4.1077,-7.0627,-4.902,-3.9482,-5.2234,-5.0505,-4.0523,-5.0505,-4.902,-3.9482,-6.7961,-0.89314,-1.9048,-4.0,-2.0261,-3.9801,-1.0667,-1.0356,-1.8211,1.1057
-7.9208,-8.1481,-9.0429,-5.8824,-5.89,-7.2852,-8.0808,-4.0523,-9.0909,-5.8824,-5.89,-8.7379,-6.6348,-7.8161,-8.0,-6.9281,-7.9602,-0.06667,-2.0065,-3.7724,-4.748
-4.9505,-8.1481,-10.033,-4.902,-4.9191,-5.2234,-6.0606,-1.1111,-6.0606,-4.902,-4.9191,-7.767,-5.6778,-8.8013,-8.0,-7.9085,-8.9552,2.9333,-8.8026,-3.7724,-6.6992
-5.9406,-11.178,-13.003,-4.902,-5.89,-7.2852,-7.0707,-5.0327,-4.0404,-4.902,-5.89,-8.7379,-5.6778,-8.8013,-7.0,-9.8693,-10.945,0.93333,-9.7735,-2.7967,-7.6748
-7.9208,-11.178,-13.993,-4.902,-4.9191,-8.3162,-7.0707,-5.0327,-1.0101,-4.902,-4.9191,-10.68,-2.807,-6.8309,-6.0,-8.8889,-9.9502,-5.0667,-4.9191,-2.7967,-6.6992
-5.9406,-10.168,-12.013,-3.9216,-4.9191,-5.2234,-8.0808,-1.1111,-6.0606,-3.9216,-4.9191,-9.7087,-1.8501,-5.8456,-5.0,-5.9477,-6.9652,-4.0667,-6.8608,-3.7724,-4.748
-5.9406,-8.1481,-10.033,-4.902,-4.9191,-7.2852,-7.0707,-6.0131,-7.0707,-4.902,-4.9191,-8.7379,-1.8501,-4.8604,-5.0,-3.9869,-4.9751,-5.0667,-7.8317,-4.748,-3.7724
-2.9703,-1.0774,-4.0924,-2.9412,-3.9482,-5.2234,-3.0303,-6.0131,-4.0404,-2.9412,-3.9482,-5.8252,1.9777,0.06568,0.0,0.91503,0.99502,-7.0667,-2.9773,-2.7967,1.1057
0.9901,3.9731,-0.13201,-2.9412,-3.9482,-2.1306,0.0,-1.1111,-3.0303,-2.9412,-3.9482,-2.9126,2.9346,2.0361,3.0,4.8366,4.9751,-4.0667,-1.0356,0.13008,4.0325
0.0,-1.0774,-1.1221,-2.9412,-5.89,-3.1615,-4.0404,-1.1111,-7.0707,-2.9412,-5.89,-3.8835,1.9777,1.0509,2.0,4.8366,4.9751,-1.0667,2.8479,0.13008,4.0325
-0.9901,-3.0976,-3.1023,-2.9412,-4.9191,-3.1615,-5.0505,-1.1111,-7.0707,-2.9412,-4.9191,-3.8835,1.0207,1.0509,2.0,4.8366,3.9801,-0.06667,3.8188,0.13008,5.0081
-1.9802,-2.0875,-5.0825,-1.9608,-3.9482,-3.1615,-4.0404,-1.1111,-6.0606,-1.9608,-3.9482,-3.8835,-3.764,-2.89,-1.0,1.8954,0.99502,-1.0667,0.90615,-3.7724,1.1057
-2.9703,-1.0774,-3.1023,-3.9216,-4.9191,-5.2234,-5.0505,-3.0719,-6.0606,-3.9216,-4.9191,-5.8252,-5.6778,-3.8752,-3.0,0.91503,0.0,-7.0667,-1.0356,-5.7236,0.13008
3.9604,8.0135,2.8383,-2.9412,-2.0065,-0.06873,3.0303,0.84967,6.0606,-2.9412,-2.0065,-0.97087,-1.8501,1.0509,2.0,6.7974,4.9751,-5.0667,-1.0356,-2.7967,5.0081
2.9703,5.9933,4.8185,-2.9412,-2.9773,-1.0997,1.0101,-1.1111,-2.0202,-2.9412,-2.9773,0.0,0.0638,1.0509,4.0,7.7778,6.9652,-3.0667,-1.0356,-0.84553,5.0081
0.9901,2.963,5.8086,-2.9412,-2.9773,-1.0997,-1.0101,-2.0915,-8.0808,-2.9412,-2.9773,0.97087,0.0638,-1.9048,3.0,5.817,5.9701,-0.06667,-1.0356,-1.8211,2.0813
4.9505,8.0135,9.769,-0.98039,-1.0356,0.9622,2.0202,-2.0915,-1.0101,-0.98039,-1.0356,3.8835,2.9346,1.0509,5.0,7.7778,8.9552,2.9333,3.8188,1.1057,3.0569
2.9703,5.9933,8.7789,-3.9216,-2.9773,-2.1306,1.0101,-6.0131,0.0,-3.9216,-2.9773,0.97087,1.0207,0.06568,3.0,6.7974,7.9602,1.9333,1.877,-1.8211,1.1057
1.9802,4.9832,7.7888,-3.9216,-2.9773,-3.1615,1.0101,-6.0131,-2.0202,-3.9216,-2.9773,0.0,-0.89314,-0.91954,1.0,5.817,6.9652,-4.0667,0.90615,-4.748,0.13008
3.9604,5.9933,9.769,0.0,0.90615,-0.06873,3.0303,-3.0719,0.0,0.0,0.90615,2.9126,0.0638,0.06568,4.0,6.7974,7.9602,-6.0667,1.877,-2.7967,0.13008
4.9505,3.9731,11.749,0.98039,0.90615,1.9931,2.0202,0.84967,-3.0303,0.98039,0.90615,3.8835,-0.89314,-1.9048,4.0,5.817,7.9602,-4.0667,-4.9191,-2.7967,-1.8211
1.9802,3.9731,11.749,-2.9412,-2.0065,-0.06873,-1.0101,-4.0523,-9.0909,-2.9412,-2.0065,2.9126,-0.89314,-2.89,3.0,5.817,6.9652,-7.0667,-8.8026,-2.7967,-2.7967
-2.9703,2.963,8.7789,-2.9412,-2.0065,-3.1615,0.0,-6.9935,-4.0404,-2.9412,-2.0065,1.9417,-2.807,-3.8752,-1.0,2.8758,3.9801,-6.0667,-3.9482,-4.748,-4.748
-5.9406,-5.1178,1.8482,-3.9216,-2.9773,-5.2234,-3.0303,-5.0327,-3.0303,-3.9216,-2.9773,-0.97087,-7.5917,-9.7865,-5.0,-3.9869,-2.9851,-6.0667,-9.7735,-7.6748,-9.626
-9.901,-12.189,-5.0825,-5.8824,-4.9191,-8.3162,-8.0808,-6.9935,-11.111,-5.8824,-4.9191,-5.8252,-14.29,-16.683001,-11.0,-11.83,-9.9502,-11.067,-14.628,-13.528,-15.48
-9.901,-10.168,-6.0726,-5.8824,-3.9482,-8.3162,-5.0505,-6.0131,-7.0707,-5.8824,-3.9482,-5.8252,-16.204,-18.653999,-12.0,-11.83,-11.94,-8.0667,-10.744,-15.48,-16.455
-5.9406,-5.1178,-4.0924,-4.902,-2.0065,-6.2543,-1.0101,-6.9935,1.0101,-4.902,-2.0065,-2.9126,-12.376,-14.713,-8.0,-7.9085,-6.9652,-10.067,-5.89,-13.528,-12.553
-5.9406,-5.1178,-3.1023,-3.9216,-2.0065,-5.2234,-2.0202,-4.0523,-1.0101,-3.9216,-2.0065,-2.9126,-9.5056,-9.7865,-5.0,-4.9673,-3.9801,-11.067,-3.9482,-11.577,-8.6504
-8.9109,-4.1077,-5.0825,-4.902,-2.0065,-9.3471,-4.0404,-8.9542,-3.0303,-4.902,-2.0065,-4.8544,-8.5486,-8.8013,-6.0,-3.9869,-3.9801,-12.067,-5.89,-10.602,-6.6992
-4.9505,-3.0976,-4.0924,-1.9608,-1.0356,-4.1924,-1.0101,-3.0719,0.0,-1.9608,-1.0356,-2.9126,-7.5917,-8.8013,-4.0,-3.9869,-3.9801,-8.0667,-3.9482,-6.6992,-6.6992
-2.9703,-6.1279,-6.0726,-1.9608,-2.9773,-2.1306,-4.0404,0.84967,-4.0404,-1.9608,-2.9773,-2.9126,-5.6778,-7.8161,-2.0,-4.9673,-3.9801,-5.0667,-5.89,-3.7724,-5.7236
-0.9901,-7.138,-5.0825,-1.9608,-2.9773,-2.1306,-4.0404,-2.0915,-2.0202,-1.9608,-2.9773,-2.9126,-4.7209,-8.8013,-1.0,-3.9869,-2.9851,-6.0667,-8.8026,-1.8211,-4.748
2.9703,-0.06734,-1.1221,0.98039,1.877,1.9931,1.0101,2.8105,1.0101,0.98039,1.877,1.9417,-4.7209,-8.8013,1.0,-2.0261,0.0,-1.0667,0.90615,-1.8211,-6.6992
0.9901,-4.1077,-2.1122,0.98039,0.90615,1.9931,-1.0101,4.7712,-6.0606,0.98039,0.90615,0.97087,-5.6778,-10.772,0.0,-3.9869,-1.99,1.9333,-3.9482,-2.7967,-11.577
0.9901,-5.1178,-3.1023,0.98039,0.90615,0.9622,-3.0303,1.8301,-4.0404,0.98039,0.90615,0.97087,-2.807,-8.8013,2.0,-3.0065,-0.99502,-3.0667,-5.89,2.0813,-8.6504
0.9901,-3.0976,-3.1023,1.9608,0.90615,0.9622,-1.0101,3.7908,1.0101,1.9608,0.90615,0.97087,-0.89314,-6.8309,3.0,-2.0261,-0.99502,-0.06667,-3.9482,4.0325,-5.7236
0.0,-4.1077,-4.0924,1.9608,1.877,-0.06873,0.0,1.8301,0.0,1.9608,1.877,0.0,-0.89314,-5.8456,1.0,-3.0065,-2.9851,-1.0667,-1.0356,3.0569,-2.7967
-3.9604,-4.1077,-6.0726,0.98039,1.877,-4.1924,-2.0202,-1.1111,0.0,0.98039,1.877,-3.8835,-6.6348,-8.8013,-4.0,-3.9869,-5.9701,-3.0667,-0.06472,-2.7967,-2.7967
-9.901,-4.1077,-10.033,-1.9608,0.90615,-9.3471,-3.0303,-5.0327,2.0202,-1.9608,0.90615,-6.7961,-14.29,-15.698,-10.0,-6.9281,-9.9502,-9.0667,-2.0065,-10.602,-6.6992
-9.901,-0.06734,-9.0429,-1.9608,2.8479,-9.3471,2.0202,-6.0131,11.111,-1.9608,2.8479,-4.8544,-17.160999,-17.667999,-11.0,-6.9281,-10.945,-13.067,-2.9773,-14.504,-7.6748
-13.861,-4.1077,-11.023,-2.9412,1.877,-11.409,-1.0101,-8.9542,5.0505,-2.9412,1.877,-6.7961,-19.075001,-19.639,-15.0,-9.8693,-12.935,-15.067,-5.89,-17.431,-11.577
-15.842,-12.189,-14.983,-3.9216,-1.0356,-13.471,-7.0707,-8.9542,-3.0303,-3.9216,-1.0356,-10.68,-20.032,-20.624001,-17.0,-12.81,-14.925,-14.067,-8.8026,-17.431,-16.455
-14.851,-10.168,-13.993,-3.9216,-0.06472,-14.502,-4.0404,-7.9739,5.0505,-3.9216,-0.06472,-10.68,-19.075001,-19.639,-15.0,-11.83,-14.925,-12.067,-4.9191,-16.455,-13.528
-10.891,-6.1279,-10.033,-3.9216,-0.06472,-12.44,-2.0202,-8.9542,6.0606,-3.9216,-0.06472,-9.7087,-17.160999,-17.667999,-14.0,-9.8693,-11.94,-10.067,-4.9191,-15.48,-11.577
-9.901,-5.1178,-9.0429,-2.9412,0.90615,-11.409,-2.0202,-6.0131,6.0606,-2.9412,0.90615,-8.7379,-18.118,-18.653999,-14.0,-9.8693,-12.935,-16.066999,-2.0065,-15.48,-11.577
-9.901,-3.0976,-8.0528,-1.9608,1.877,-8.3162,0.0,-5.0327,8.0808,-1.9608,1.877,-6.7961,-17.160999,-18.653999,-13.0,-8.8889,-12.935,-13.067,0.90615,-14.504,-9.626
-9.901,-0.06734,-6.0726,-0.98039,1.877,-7.2852,1.0101,-3.0719,5.0505,-0.98039,1.877,-4.8544,-11.419,-12.742,-8.0,-4.9673,-8.9552,-10.067,4.7896,-9.626,-2.7967
-11.881,0.94276,-7.0627,-2.9412,-0.06472,-10.378,0.0,-5.0327,2.0202,-2.9412,-0.06472,-5.8252,-9.5056,-10.772,-9.0,-2.0261,-7.9602,-13.067,1.877,-8.6504,-1.8211
-13.861,-4.1077,-8.0528,-4.902,-2.0065,-13.471,-2.0202,-8.9542,1.0101,-4.902,-2.0065,-7.767,-12.376,-11.757,-11.0,-3.9869,-8.9552,-12.067,-3.9482,-10.602,-4.748
-9.901,-6.1279,-8.0528,-4.902,-0.06472,-10.378,-1.0101,-4.0523,2.0202,-4.902,-0.06472,-7.767,-14.29,-15.698,-10.0,-6.9281,-9.9502,-9.0667,-4.9191,-10.602,-8.6504
-8.9109,-9.1582,-8.0528,-3.9216,-0.06472,-10.378,-4.0404,-7.9739,0.0,-3.9216,-0.06472,-7.767,-16.204,-18.653999,-11.0,-11.83,-12.935,-6.0667,-5.89,-10.602,-13.528
-8.9109,-9.1582,-8.0528,-2.9412,0.90615,-8.3162,-4.0404,-7.9739,0.0,-2.9412,0.90615,-5.8252,-15.247,-18.653999,-10.0,-12.81,-12.935,-10.067,-6.8608,-11.577,-16.455
-8.9109,-5.1178,-7.0627,-0.98039,1.877,-7.2852,0.0,-6.0131,5.0505,-0.98039,1.877,-2.9126,-14.29,-17.667999,-10.0,-11.83,-12.935,-11.067,-4.9191,-11.577,-15.48
-5.9406,-2.0875,-4.0924,0.0,0.90615,-5.2234,0.0,-3.0719,2.0202,0.0,0.90615,-0.97087,-14.29,-17.667999,-8.0,-9.8693,-9.9502,-8.0667,-6.8608,-11.577,-11.577
0.9901,-3.0976,-1.1221,1.9608,1.877,-0.06873,0.0,1.8301,-3.0303,1.9608,1.877,1.9417,-13.333,-16.683001,-5.0,-7.9085,-7.9602,-5.0667,-2.9773,-7.6748,-11.577
0.0,-5.1178,-0.13201,0.98039,-0.06472,-1.0997,-1.0101,0.84967,-5.0505,0.98039,-0.06472,0.97087,-12.376,-14.713,-4.0,-6.9281,-6.9652,-2.0667,-3.9482,-6.6992,-9.626
-2.9703,-1.0774,1.8482,0.0,-2.0065,-3.1615,0.0,-3.0719,-2.0202,0.0,-2.0065,0.97087,-9.5056,-11.757,-5.0,-3.0065,-3.9801,-2.0667,-2.9773,-6.6992,-4.748
-1.9802,-0.06734,2.8383,0.0,-0.06472,-0.06873,2.0202,-1.1111,-3.0303,0.0,-0.06472,2.9126,-8.5486,-9.7865,-5.0,-3.0065,-3.9801,-4.0667,-2.9773,-7.6748,-3.7724
-1.9802,1.9529,2.8383,0.0,1.877,-1.0997,5.0505,-5.0327,0.0,0.0,1.877,3.8835,-8.5486,-9.7865,-6.0,-3.9869,-4.9751,-12.067,-1.0356,-8.6504,-5.7236
-4.9505,-3.0976,-0.13201,-0.98039,1.877,-3.1615,2.0202,-6.0131,0.0,-0.98039,1.877,1.9417,-8.5486,-8.8013,-7.0,-5.9477,-6.9652,-14.067,-2.0065,-7.6748,-5.7236
-2.9703,-6.1279,-3.1023,-1.9608,-0.06472,-1.0997,-1.0101,-1.1111,-1.0101,-1.9608,-0.06472,-0.97087,-9.5056,-11.757,-8.0,-7.9085,-8.9552,-8.0667,-1.0356,-7.6748,-5.7236
-5.9406,-4.1077,-5.0825,-0.98039,-1.0356,-3.1615,-1.0101,-6.0131,6.0606,-0.98039,-1.0356,-0.97087,-12.376,-12.742,-11.0,-8.8889,-10.945,-10.067,-0.06472,-9.626,-5.7236
-8.9109,-4.1077,-6.0726,-0.98039,-1.0356,-4.1924,-1.0101,-4.0523,0.0,-0.98039,-1.0356,-0.97087,-12.376,-12.742,-13.0,-8.8889,-11.94,-8.0667,-2.9773,-11.577,-6.6992
-6.9307,-6.1279,-5.0825,0.98039,-0.06472,-1.0997,-2.0202,-2.0915,-4.0404,0.98039,-0.06472,0.0,-10.463,-8.8013,-10.0,-7.9085,-8.9552,-8.0667,-3.9482,-8.6504,-6.6992
-0.9901,-1.0774,-0.13201,3.9216,4.7896,3.0241,3.0303,-0.13072,3.0303,3.9216,4.7896,4.8544,-7.5917,-5.8456,-5.0,-4.9673,-4.9751,-3.0667,-5.89,-5.7236,-4.748
1.9802,-0.06734,2.8383,5.8824,5.7605,5.0859,4.0404,4.7712,1.0101,5.8824,5.7605,6.7961,-7.5917,-6.8309,-5.0,-3.9869,-2.9851,-0.06667,-3.9482,-5.7236,-4.748
-3.9604,-4.1077,-1.1221,3.9216,3.8188,1.9931,0.0,1.8301,-3.0303,3.9216,3.8188,3.8835,-10.463,-11.757,-8.0,-6.9281,-5.9701,-4.0667,-2.9773,-7.6748,-7.6748
-3.9604,-4.1077,-3.1023,3.9216,3.8188,0.9622,-1.0101,-1.1111,2.0202,3.9216,3.8188,2.9126,-10.463,-13.727,-8.0,-7.9085,-6.9652,-5.0667,-1.0356,-6.6992,-8.6504
-0.9901,-3.0976,-1.1221,5.8824,2.8479,3.0241,-1.0101,1.8301,-2.0202,5.8824,2.8479,3.8835,-5.6778,-10.772,-3.0,-4.9673,-3.9801,-1.0667,-0.06472,-0.84553,-5.7236
1.9802,0.94276,1.8482,5.8824,2.8479,5.0859,1.0101,4.7712,-1.0101,5.8824,2.8479,4.8544,-1.8501,-6.8309,2.0,-1.0458,-0.99502,0.93333,0.90615,4.0325,-1.8211
3.9604,3.9731,2.8383,2.9412,1.877,3.0241,1.0101,3.7908,3.0303,2.9412,1.877,2.9126,0.0638,-3.8752,2.0,0.91503,1.99,3.9333,8.6731,3.0569,-0.84553
7.9208,11.044,7.7888,3.9216,3.8188,6.1168,7.0707,7.7124,11.111,3.9216,3.8188,6.7961,3.8915,1.0509,6.0,4.8366,6.9652,5.9333,14.498,5.9837,5.0081
7.9208,9.0236,8.7789,2.9412,2.8479,4.055,5.0505,0.84967,7.0707,2.9412,2.8479,6.7961,6.7624,4.9918,7.0,6.7974,7.9602,6.9333,12.557,7.935,9.8862
1.9802,5.9933,4.8185,0.0,-1.0356,-2.1306,0.0,-3.0719,0.0,0.0,-1.0356,0.97087,5.8054,5.977,5.0,6.7974,6.9652,1.9333,10.615,5.9837,8.9106
1.9802,9.0236,4.8185,-0.98039,-0.06472,-2.1306,2.0202,-3.0719,6.0606,-0.98039,-0.06472,0.97087,5.8054,8.9327,5.0,8.7582,7.9602,-0.06667,10.615,5.9837,8.9106
5.9406,16.094,8.7789,0.0,1.877,-0.06873,7.0707,-3.0719,11.111,0.0,1.877,4.8544,7.7193,11.888,8.0,12.68,10.945,-2.0667,16.440001,7.935,14.764
4.9505,12.054,9.769,-2.9412,-1.0356,-1.0997,3.0303,-5.0327,3.0303,-2.9412,-1.0356,1.9417,9.6332,12.874,9.0,13.66,11.94,-2.0667,19.353001,6.9593,16.715
5.9406,11.044,9.769,-2.9412,-1.0356,-0.06873,3.0303,-1.1111,7.0707,-2.9412,-1.0356,1.9417,10.59,12.874,9.0,14.641,13.93,0.93333,18.382,5.9837,16.715
3.9604,11.044,7.7888,-2.9412,-2.0065,-1.0997,2.0202,-0.13072,8.0808,-2.9412,-2.0065,0.97087,6.7624,8.9327,6.0,12.68,10.945,4.9333,16.440001,5.0081,11.837
0.9901,3.9731,2.8383,-2.9412,-2.0065,-1.0997,-1.0101,-0.13072,2.0202,-2.9412,-2.0065,-0.97087,2.9346,4.9918,2.0,7.7778,4.9751,3.9333,8.6731,3.0569,6.9593
-4.9505,-2.0875,-3.1023,-1.9608,-1.0356,-4.1924,-2.0202,-0.13072,2.0202,-1.9608,-1.0356,-2.9126,0.0638,0.06568,-4.0,1.8954,-0.99502,1.9333,2.8479,0.13008,3.0569
-8.9109,-4.1077,-8.0528,-1.9608,-1.0356,-5.2234,-1.0101,-1.1111,3.0303,-1.9608,-1.0356,-3.8835,-6.6348,-6.8309,-10.0,-5.9477,-8.9552,-5.0667,2.8479,-4.748,-3.7724
-10.891,-9.1582,-10.033,-1.9608,-0.06472,-6.2543,-4.0404,-3.0719,0.0,-1.9608,-0.06472,-4.8544,-9.5056,-10.772,-11.0,-10.85,-11.94,-10.067,1.877,-6.6992,-8.6504
-10.891,-12.189,-12.013,-1.9608,-0.06472,-6.2543,-5.0505,-2.0915,-1.0101,-1.9608,-0.06472,-4.8544,-9.5056,-11.757,-11.0,-13.791,-13.93,-8.0667,-2.0065,-5.7236,-9.626
-8.9109,-8.1481,-11.023,-0.98039,-1.0356,-5.2234,-5.0505,-0.13072,0.0,-0.98039,-1.0356,-4.8544,-9.5056,-10.772,-10.0,-11.83,-13.93,-4.0667,-6.8608,-4.748,-6.6992
-9.901,-12.189,-13.003,-1.9608,-2.9773,-7.2852,-10.101,-3.0719,-4.0404,-1.9608,-2.9773,-7.767,-10.463,-11.757,-12.0,-13.791,-15.92,-1.0667,-7.8317,-5.7236,-5.7236
-8.9109,-15.219,-12.013,0.0,-3.9482,-6.2543,-11.111,-1.1111,-6.0606,0.0,-3.9482,-7.767,-9.5056,-10.772,-12.0,-13.791,-13.93,-0.06667,-3.9482,-6.6992,-8.6504
-3.9604,-11.178,-7.0627,1.9608,-2.0065,-1.0997,-8.0808,5.7516,-8.0808,1.9608,-2.0065,-3.8835,-5.6778,-4.8604,-6.0,-8.8889,-7.9602,-0.06667,-3.9482,-2.7967,-8.6504
-3.9604,-7.138,-5.0825,0.0,-1.0356,-3.1615,-4.0404,2.8105,-5.0505,0.0,-1.0356,-2.9126,-3.764,-2.89,-5.0,-5.9477,-4.9751,3.9333,-4.9191,-3.7724,-5.7236
-4.9505,-6.1279,-4.0924,-0.98039,-1.0356,-4.1924,-3.0303,0.84967,-4.0404,-0.98039,-1.0356,-3.8835,-4.7209,-1.9048,-6.0,-4.9673,-4.9751,-3.0667,-4.9191,-5.7236,-6.6992
-2.9703,-1.0774,-1.1221,0.0,0.90615,-3.1615,0.0,1.8301,0.0,0.0,0.90615,-0.97087,-2.807,1.0509,-4.0,-1.0458,-1.99,-4.0667,0.90615,-2.7967,-1.8211
-2.9703,-0.06734,-0.13201,0.0,-0.06472,-4.1924,1.0101,-1.1111,1.0101,0.0,-0.06472,-0.97087,-1.8501,2.0361,-3.0,-0.06536,-1.99,-1.0667,0.90615,-3.7724,1.1057
-5.9406,-1.0774,-3.1023,-2.9412,-1.0356,-6.2543,-1.0101,-5.0327,1.0101,-2.9412,-1.0356,-2.9126,-2.807,-0.91954,-5.0,-3.0065,-3.9801,-8.0667,-3.9482,-5.7236,-0.84553
-7.9208,-5.1178,-3.1023,-2.9412,-2.0065,-6.2543,-4.0404,-5.0327,-4.0404,-2.9412,-2.0065,-2.9126,-3.764,-3.8752,-7.0,-3.9869,-5.9701,-9.0667,-2.9773,-6.6992,-1.8211
0.9901,2.963,2.8383,0.98039,1.877,1.9931,1.0101,-0.13072,3.0303,0.98039,1.877,1.9417,-0.89314,0.06568,-1.0,0.91503,0.0,-4.0667,2.8479,-3.7724,2.0813
6.9307,10.034,7.7888,2.9412,3.8188,6.1168,5.0505,6.732,8.0808,2.9412,3.8188,5.8252,1.0207,3.0213,3.0,5.817,3.9801,5.9333,4.7896,1.1057,5.9837
7.9208,5.9933,8.7789,3.9216,2.8479,7.1478,3.0303,5.7516,4.0404,3.9216,2.8479,5.8252,1.9777,4.0066,4.0,5.817,4.9751,4.9333,7.7023,2.0813,5.9837
6.9307,5.9933,8.7789,3.9216,1.877,7.1478,4.0404,2.8105,1.0101,3.9216,1.877,6.7961,2.9346,4.9918,5.0,5.817,5.9701,2.9333,6.7314,5.0081,7.935
6.9307,3.9731,5.8086,4.902,1.877,8.1787,3.0303,5.7516,1.0101,4.902,1.877,6.7961,1.9777,4.0066,3.0,4.8366,3.9801,6.9333,3.8188,5.0081,5.9837
8.9109,5.9933,6.7987,4.902,3.8188,8.1787,5.0505,6.732,6.0606,4.902,3.8188,6.7961,2.9346,6.9622,5.0,6.7974,5.9701,5.9333,6.7314,5.9837,5.9837
7.9208,12.054,8.7789,3.9216,4.7896,6.1168,8.0808,1.8301,7.0707,3.9216,4.7896,6.7961,3.8915,7.9475,6.0,9.7386,7.9602,2.9333,8.6731,4.0325,7.935
7.9208,10.034,8.7789,3.9216,4.7896,6.1168,7.0707,3.7908,6.0606,3.9216,4.7896,6.7961,1.0207,4.9918,5.0,7.7778,6.9652,0.93333,8.6731,3.0569,6.9593
2.9703,4.9832,5.8086,0.98039,4.7896,1.9931,6.0606,-1.1111,7.0707,0.98039,4.7896,3.8835,-3.764,-1.9048,-1.0,1.8954,0.99502,-1.0667,4.7896,-0.84553,3.0569
2.9703,3.9731,4.8185,2.9412,5.7605,3.0241,6.0606,-1.1111,5.0505,2.9412,5.7605,4.8544,-2.807,-1.9048,0.0,0.91503,0.99502,3.9333,0.90615,0.13008,1.1057
5.9406,5.9933,6.7987,5.8824,6.7314,7.1478,8.0808,4.7712,4.0404,5.8824,6.7314,6.7961,-0.89314,0.06568,3.0,2.8758,2.9851,1.9333,0.90615,2.0813,1.1057
6.9307,4.9832,7.7888,8.8235,7.7023,9.2096,9.0909,7.7124,5.0505,8.8235,7.7023,8.7379,-0.89314,1.0509,3.0,2.8758,3.9801,1.9333,0.90615,2.0813,-0.84553
6.9307,2.963,8.7789,8.8235,7.7023,8.1787,9.0909,7.7124,7.0707,8.8235,7.7023,7.767,-0.89314,1.0509,3.0,2.8758,4.9751,2.9333,-2.9773,2.0813,-0.84553
4.9505,0.94276,7.7888,6.8627,6.7314,4.055,7.0707,4.7712,2.0202,6.8627,6.7314,4.8544,-2.807,0.06568,2.0,1.8954,4.9751,1.9333,-2.0065,0.13008,-0.84553
8.9109,3.9731,8.7789,7.8431,8.6731,6.1168,9.0909,7.7124,4.0404,7.8431,8.6731,5.8252,-2.807,-0.91954,5.0,2.8758,5.9701,5.9333,-2.9773,4.0325,0.13008
9.901,9.0236,11.749,9.8039,11.586,8.1787,12.121,8.6928,6.0606,9.8039,11.586,8.7379,-0.89314,1.0509,6.0,5.817,7.9602,5.9333,0.90615,5.0081,3.0569
7.9208,8.0135,13.729,10.784,13.528,8.1787,14.141,7.7124,7.0707,10.784,13.528,10.68,-0.89314,1.0509,5.0,6.7974,7.9602,-0.06667,6.7314,1.1057,4.0325
7.9208,5.9933,12.739,10.784,12.557,9.2096,14.141,5.7516,8.0808,10.784,12.557,11.65,-3.764,0.06568,3.0,4.8366,5.9701,2.9333,4.7896,-0.84553,2.0813
5.9406,5.9933,10.759,9.8039,12.557,9.2096,13.131,5.7516,11.111,9.8039,12.557,10.68,-3.764,0.06568,3.0,4.8366,5.9701,0.93333,2.8479,-0.84553,1.1057
5.9406,8.0135,10.759,8.8235,10.615,9.2096,12.121,5.7516,9.0909,8.8235,10.615,10.68,-2.807,2.0361,2.0,4.8366,5.9701,0.93333,1.877,-0.84553,3.0569
0.0,3.9731,7.7888,7.8431,8.6731,6.1168,9.0909,3.7908,5.0505,7.8431,8.6731,7.767,-4.7209,1.0509,-2.0,2.8758,3.9801,-1.0667,0.90615,-4.748,3.0569
1.9802,3.9731,8.7789,6.8627,7.7023,7.1478,9.0909,2.8105,5.0505,6.8627,7.7023,9.7087,-1.8501,3.0213,0.0,4.8366,4.9751,1.9333,6.7314,-1.8211,5.9837
6.9307,9.0236,12.739,7.8431,7.7023,10.241,12.121,4.7712,7.0707,7.8431,7.7023,12.621,2.9346,8.9327,7.0,9.7386,8.9552,6.9333,10.615,5.0081,9.8862
6.9307,11.044,12.739,7.8431,7.7023,11.271,14.141,4.7712,10.101,7.8431,7.7023,13.592,5.8054,8.9327,7.0,8.7582,9.9502,8.9333,8.6731,5.9837,8.9106
4.9505,7.0034,8.7789,5.8824,5.7605,7.1478,11.111,1.8301,6.0606,5.8824,5.7605,11.65,3.8915,5.977,5.0,5.817,6.9652,-0.06667,5.7605,4.0325,4.0325
2.9703,3.9731,6.7987,5.8824,3.8188,7.1478,8.0808,3.7908,2.0202,5.8824,3.8188,10.68,1.9777,4.0066,3.0,3.8562,5.9701,-1.0667,6.7314,3.0569,4.0325
3.9604,5.9933,7.7888,5.8824,4.7896,7.1478,9.0909,3.7908,6.0606,5.8824,4.7896,10.68,3.8915,5.977,6.0,5.817,7.9602,4.9333,3.8188,5.9837,5.0081
5.9406,2.963,6.7987,4.902,4.7896,5.0859,6.0606,0.84967,3.0303,4.902,4.7896,7.767,2.9346,4.0066,6.0,3.8562,6.9652,2.9333,-1.0356,5.9837,2.0813
5.9406,8.0135,6.7987,5.8824,5.7605,5.0859,10.101,1.8301,9.0909,5.8824,5.7605,8.7379,1.0207,1.0509,5.0,3.8562,5.9701,5.9333,-1.0356,4.0325,0.13008
5.9406,0.94276,4.8185,3.9216,1.877,4.055,4.0404,2.8105,2.0202,3.9216,1.877,4.8544,0.0638,0.06568,5.0,1.8954,2.9851,8.9333,1.877,4.0325,-1.8211
2.9703,-8.1481,-0.13201,2.9412,-0.06472,1.9931,-2.0202,1.8301,-5.0505,2.9412,-0.06472,0.97087,-4.7209,-5.8456,0.0,-3.9869,-2.9851,8.9333,-0.06472,1.1057,-5.7236
1.9802,-4.1077,-0.13201,4.902,4.7896,5.0859,4.0404,5.7516,4.0404,4.902,4.7896,5.8252,-6.6348,-6.8309,-2.0,-4.9673,-4.9751,6.9333,-2.0065,-0.84553,-6.6992
-1.9802,-9.1582,-3.1023,1.9608,0.90615,0.9622,-2.0202,1.8301,-7.0707,1.9608,0.90615,2.9126,-8.5486,-7.8161,-6.0,-7.9085,-6.9652,-2.0667,-7.8317,-3.7724,-8.6504
-4.9505,-11.178,-5.0825,-0.98039,-2.0065,-2.1306,-5.0505,-1.1111,-9.0909,-0.98039,-2.0065,0.0,-10.463,-6.8309,-8.0,-8.8889,-7.9602,-3.0667,-7.8317,-7.6748,-7.6748
-0.9901,-5.1178,-3.1023,0.98039,-0.06472,1.9931,0.0,0.84967,-2.0202,0.98039,-0.06472,3.8835,-10.463,-6.8309,-6.0,-6.9281,-4.9751,1.9333,-4.9191,-6.6992,-6.6992
-2.9703,-10.168,-7.0627,0.0,-1.0356,1.9931,-3.0303,-1.1111,-8.0808,0.0,-1.0356,0.97087,-12.376,-9.7865,-8.0,-9.8693,-6.9652,-4.0667,-9.7735,-9.626,-10.602
-3.9604,-12.189,-10.033,0.98039,-1.0356,0.9622,-4.0404,0.84967,-5.0505,0.98039,-1.0356,-0.97087,-11.419,-8.8013,-9.0,-11.83,-8.9552,-3.0667,-16.57,-8.6504,-11.577
-4.9505,-10.168,-10.033,0.0,-1.0356,-0.06873,-4.0404,-0.13072,-6.0606,0.0,-1.0356,-0.97087,-6.6348,-4.8604,-6.0,-9.8693,-8.9552,-3.0667,-13.657,-3.7724,-8.6504
-3.9604,-8.1481,-10.033,0.0,-0.06472,-1.0997,-2.0202,0.84967,-3.0303,0.0,-0.06472,0.0,-5.6778,-3.8752,-7.0,-6.9281,-7.9602,-2.0667,-3.9482,-4.748,-4.748
-7.9208,-12.189,-13.003,-0.98039,-0.06472,-3.1615,-1.0101,-5.0327,-1.0101,-0.98039,-0.06472,-0.97087,-10.463,-6.8309,-12.0,-9.8693,-10.945,1.9333,0.90615,-10.602,-5.7236
-10.891,-13.199,-14.983,-0.98039,-0.06472,-5.2234,-2.0202,-6.0131,-3.0303,-0.98039,-0.06472,-2.9126,-13.333,-9.7865,-14.0,-11.83,-12.935,-3.0667,-2.9773,-11.577,-8.6504
-8.9109,-12.189,-13.993,-0.98039,-1.0356,-4.1924,-3.0303,-4.0523,-3.0303,-0.98039,-1.0356,-3.8835,-10.463,-7.8161,-11.0,-9.8693,-10.945,-6.0667,-5.89,-7.6748,-7.6748
-6.9307,-8.1481,-10.033,0.0,0.90615,-3.1615,0.0,-0.13072,3.0303,0.0,0.90615,-1.9417,-4.7209,-1.9048,-7.0,-6.9281,-6.9652,-2.0667,-6.8608,-3.7724,-5.7236
-4.9505,-5.1178,-9.0429,0.0,0.90615,-1.0997,2.0202,1.8301,4.0404,0.0,0.90615,0.97087,-4.7209,-1.9048,-7.0,-5.9477,-5.9701,-0.06667,-2.9773,-3.7724,-2.7967
-4.9505,-7.138,-7.0627,0.98039,-0.06472,-0.06873,0.0,0.84967,-2.0202,0.98039,-0.06472,1.9417,-2.807,-2.89,-5.0,-5.9477,-5.9701,1.9333,-4.9191,-2.7967,-4.748
-1.9802,-7.138,-5.0825,1.9608,0.90615,1.9931,0.0,4.7712,-2.0202,1.9608,0.90615,2.9126,1.9777,2.0361,0.0,-3.0065,-1.99,3.9333,-2.9773,3.0569,-1.8211
4.9505,1.9529,-0.13201,3.9216,1.877,4.055,4.0404,4.7712,1.0101,3.9216,1.877,5.8252,8.6762,10.903,8.0,5.817,5.9701,6.9333,2.8479,10.862,7.935
7.9208,4.9832,1.8482,4.902,3.8188,7.1478,5.0505,4.7712,6.0606,4.902,3.8188,7.767,13.461,14.844,11.0,10.719,10.945,13.933,8.6731,13.789,13.789
6.9307,10.034,3.8284,4.902,5.7605,8.1787,9.0909,6.732,13.131,4.902,5.7605,8.7379,11.547,12.874,11.0,11.699,10.945,10.933,11.586,11.837,13.789
1.9802,7.0034,1.8482,1.9608,3.8188,4.055,6.0606,0.84967,7.0707,1.9608,3.8188,5.8252,4.8485,6.9622,4.0,8.7582,6.9652,3.9333,9.644,3.0569,10.862
-4.9505,-0.06734,-2.1122,0.0,1.877,-2.1306,3.0303,-6.9935,3.0303,0.0,1.877,2.9126,-3.764,0.06568,-4.0,1.8954,-0.99502,-4.0667,7.7023,-6.6992,5.0081
-1.9802,1.9529,-2.1122,0.98039,2.8479,-0.06873,5.0505,-4.0523,8.0808,0.98039,2.8479,4.8544,-5.6778,0.06568,-4.0,0.91503,-1.99,-3.0667,6.7314,-7.6748,3.0569
1.9802,1.9529,-1.1221,0.98039,0.90615,1.9931,2.0202,-1.1111,4.0404,0.98039,0.90615,3.8835,-1.8501,3.0213,1.0,1.8954,0.0,2.9333,1.877,-1.8211,4.0325
8.9109,-0.06734,-0.13201,0.98039,-0.06472,5.0859,0.0,3.7908,-3.0303,0.98039,-0.06472,3.8835,3.8915,5.977,7.0,2.8758,1.99,6.9333,1.877,7.935,5.9837
8.9109,0.94276,-1.1221,0.98039,-0.06472,5.0859,1.0101,5.7516,0.0,0.98039,-0.06472,2.9126,4.8485,4.0066,7.0,1.8954,1.99,11.933,5.7605,8.9106,5.9837
2.9703,0.94276,-4.0924,-0.98039,-1.0356,-0.06873,2.0202,4.7712,4.0404,-0.98039,-1.0356,-0.97087,0.0638,-0.91954,1.0,-1.0458,-1.99,5.9333,10.615,3.0569,1.1057
1.9802,4.9832,-2.1122,0.0,-0.06472,0.9622,3.0303,3.7908,6.0606,0.0,-0.06472,0.0,-1.8501,-2.89,1.0,-0.06536,-0.99502,5.9333,9.644,2.0813,1.1057
6.9307,3.9731,2.8383,1.9608,-0.06472,5.0859,3.0303,3.7908,4.0404,1.9608,-0.06472,3.8835,1.0207,-0.91954,5.0,1.8954,1.99,8.9333,4.7896,5.0081,4.0325
10.891,2.963,6.7987,1.9608,-1.0356,7.1478,2.0202,4.7712,-1.0101,1.9608,-1.0356,5.8252,2.9346,2.0361,7.0,3.8562,3.9801,11.933,1.877,6.9593,5.9837
7.9208,2.963,6.7987,2.9412,-2.0065,7.1478,2.0202,6.732,-3.0303,2.9412,-2.0065,5.8252,1.0207,2.0361,5.0,2.8758,2.9851,9.9333,1.877,5.9837,4.0325
10.891,10.034,8.7789,5.8824,0.90615,9.2096,7.0707,9.6732,3.0303,5.8824,0.90615,7.767,5.8054,6.9622,9.0,6.7974,6.9652,11.933,-1.0356,7.935,5.9837
15.842,13.064,12.739,8.8235,2.8479,12.302,9.0909,14.575,1.0101,8.8235,2.8479,10.68,10.59,11.888,15.0,11.699,12.935,18.933001,2.8479,12.813,10.862
15.842,8.0135,12.739,8.8235,2.8479,11.271,7.0707,10.654,0.0,8.8235,2.8479,10.68,10.59,11.888,16.0,12.68,13.93,16.933001,8.6731,11.837,10.862
16.832001,4.9832,11.749,9.8039,4.7896,13.333,7.0707,12.614,-1.0101,9.8039,4.7896,11.65,9.6332,9.9179,16.0,10.719,12.935,13.933,5.7605,12.813,8.9106
16.832001,5.9933,12.739,11.765,6.7314,15.395,10.101,17.516001,1.0101,11.765,6.7314,15.534,8.6762,8.9327,15.0,10.719,12.935,15.933,2.8479,11.837,7.935
18.812,12.054,15.71,10.784,8.6731,16.426001,14.141,14.575,7.0707,10.784,8.6731,17.476,7.7193,8.9327,15.0,11.699,12.935,17.933001,4.7896,9.8862,10.862
15.842,11.044,14.719,8.8235,7.7023,14.364,13.131,14.575,6.0606,8.8235,7.7023,14.563,6.7624,7.9475,13.0,10.719,10.945,18.933001,6.7314,9.8862,9.8862
14.851,11.044,14.719,8.8235,5.7605,14.364,11.111,12.614,5.0505,8.8235,5.7605,13.592,8.6762,9.9179,13.0,10.719,10.945,16.933001,7.7023,12.813,9.8862
11.881,11.044,12.739,5.8824,2.8479,11.271,7.0707,8.6928,3.0303,5.8824,2.8479,9.7087,8.6762,10.903,11.0,10.719,9.9502,13.933,5.7605,10.862,11.837
9.901,7.0034,8.7789,2.9412,-0.06472,9.2096,2.0202,6.732,-1.0101,2.9412,-0.06472,6.7961,7.7193,10.903,10.0,8.7582,8.9552,8.9333,7.7023,9.8862,10.862
10.891,9.0236,10.759,4.902,1.877,10.241,4.0404,5.7516,1.0101,4.902,1.877,8.7379,7.7193,9.9179,11.0,8.7582,9.9502,2.9333,2.8479,8.9106,7.935
10.891,9.0236,10.759,5.8824,3.8188,12.302,5.0505,6.732,3.0303,5.8824,3.8188,10.68,6.7624,8.9327,9.0,7.7778,8.9552,3.9333,2.8479,9.8862,6.9593
13.861,9.0236,12.739,6.8627,6.7314,13.333,9.0909,9.6732,10.101,6.8627,6.7314,12.621,8.6762,10.903,11.0,9.7386,10.945,9.9333,11.586,9.8862,9.8862
10.891,12.054,12.739,6.8627,7.7023,10.241,11.111,7.7124,16.162001,6.8627,7.7023,12.621,11.547,13.859,12.0,11.699,12.935,13.933,11.586,12.813,10.862
7.9208,9.0236,9.769,4.902,3.8188,7.1478,7.0707,5.7516,7.0707,4.902,3.8188,8.7379,13.461,14.844,11.0,10.719,11.94,13.933,5.7605,12.813,10.862
11.881,4.9832,7.7888,2.9412,1.877,8.1787,4.0404,6.732,0.0,2.9412,1.877,7.767,12.504,12.874,11.0,7.7778,9.9502,13.933,4.7896,12.813,8.9106
9.901,3.9731,5.8086,1.9608,0.90615,9.2096,3.0303,10.654,1.0101,1.9608,0.90615,6.7961,9.6332,10.903,8.0,5.817,6.9652,12.933,4.7896,12.813,7.935
10.891,7.0034,8.7789,0.0,-1.0356,8.1787,3.0303,7.7124,1.0101,0.0,-1.0356,6.7961,13.461,15.829,12.0,9.7386,9.9502,15.933,8.6731,17.691,13.789
10.891,7.0034,8.7789,-0.98039,-2.0065,6.1168,2.0202,2.8105,2.0202,-0.98039,-2.0065,5.8252,13.461,14.844,11.0,10.719,10.945,12.933,8.6731,17.691,13.789
12.871,8.0135,8.7789,1.9608,-0.06472,9.2096,3.0303,5.7516,0.0,1.9608,-0.06472,7.767,11.547,12.874,11.0,9.7386,9.9502,13.933,-0.06472,17.691,10.862
10.891,3.9731,6.7987,4.902,1.877,12.302,5.0505,11.634,2.0202,4.902,1.877,9.7087,7.7193,6.9622,8.0,4.8366,5.9701,15.933,1.877,14.764,5.9837
5.9406,0.94276,3.8284,5.8824,2.8479,10.241,4.0404,10.654,2.0202,5.8824,2.8479,8.7379,2.9346,3.0213,4.0,0.91503,1.99,10.933,3.8188,7.935,0.13008
4.9505,0.94276,0.85809,4.902,1.877,8.1787,3.0303,6.732,2.0202,4.902,1.877,6.7961,0.0638,0.06568,2.0,-0.06536,0.0,10.933,0.90615,5.9837,0.13008
-1.9802,-3.0976,-4.0924,0.98039,-0.06472,3.0241,-2.0202,-0.13072,-3.0303,0.98039,-0.06472,1.9417,-1.8501,-0.91954,-1.0,-2.0261,-2.9851,2.9333,0.90615,3.0569,-0.84553
-5.9406,-5.1178,-5.0825,0.98039,-0.06472,1.9931,-2.0202,-1.1111,-1.0101,0.98039,-0.06472,1.9417,-3.764,-3.8752,-4.0,-4.9673,-4.9751,-0.06667,-0.06472,1.1057,-3.7724
-1.9802,-3.0976,-3.1023,2.9412,-0.06472,6.1168,0.0,0.84967,3.0303,2.9412,-0.06472,4.8544,-4.7209,-4.8604,-3.0,-5.9477,-4.9751,1.9333,0.90615,0.13008,-4.748
-0.9901,-3.0976,-2.1122,3.9216,0.90615,7.1478,1.0101,0.84967,1.0101,3.9216,0.90615,5.8252,-5.6778,-5.8456,-3.0,-6.9281,-3.9801,-1.0667,-5.89,-2.7967,-7.6748
-2.9703,-4.1077,-4.0924,2.9412,0.90615,5.0859,0.0,-1.1111,0.0,2.9412,0.90615,3.8835,-5.6778,-4.8604,-4.0,-6.9281,-4.9751,-4.0667,-7.8317,-2.7967,-7.6748
-4.9505,-3.0976,-4.0924,0.0,-1.0356,0.9622,-2.0202,-5.0327,-2.0202,0.0,-1.0356,0.0,-5.6778,-2.89,-5.0,-4.9673,-4.9751,-6.0667,-9.7735,-2.7967,-4.748
-0.9901,0.94276,-1.1221,0.0,-1.0356,1.9931,-1.0101,-3.0719,2.0202,0.0,-1.0356,0.97087,-4.7209,-1.9048,-4.0,-3.0065,-3.9801,-1.0667,3.8188,-3.7724,-0.84553
-6.9307,-3.0976,-4.0924,-3.9216,-3.9482,-4.1924,-5.0505,-6.9935,1.0101,-3.9216,-3.9482,-2.9126,-9.5056,-6.8309,-8.0,-6.9281,-7.9602,-7.0667,4.7896,-6.6992,-2.7967
-7.9208,-4.1077,-5.0825,-3.9216,-2.9773,-5.2234,-4.0404,-7.9739,3.0303,-3.9216,-2.9773,-2.9126,-10.463,-8.8013,-8.0,-7.9085,-8.9552,-7.0667,0.90615,-6.6992,-6.6992
-3.9604,-5.1178,-4.0924,-2.9412,-2.9773,-2.1306,-4.0404,-4.0523,0.0,-2.9412,-2.9773,-0.97087,-8.5486,-7.8161,-4.0,-7.9085,-6.9652,-1.0667,1.877,-2.7967,-7.6748
-3.9604,-4.1077,-3.1023,-1.9608,-2.9773,-1.0997,-4.0404,-4.0523,-3.0303,-1.9608,-2.9773,0.0,-4.7209,-3.8752,-2.0,-3.9869,-4.9751,-0.06667,0.90615,1.1057,-1.8211
-2.9703,-0.06734,-1.1221,-0.98039,-1.0356,-0.06873,-1.0101,-1.1111,1.0101,-0.98039,-1.0356,0.97087,-0.89314,1.0509,0.0,-0.06536,-0.99502,-1.0667,-0.06472,2.0813,1.1057
-2.9703,1.9529,0.85809,-1.9608,-2.9773,-1.0997,0.0,-3.0719,5.0505,-1.9608,-2.9773,0.97087,0.0638,2.0361,0.0,0.91503,0.0,-1.0667,-0.06472,3.0569,2.0813
-0.9901,4.9832,2.8383,-2.9412,-4.9191,-2.1306,-1.0101,-3.0719,3.0303,-2.9412,-4.9191,0.0,1.9777,2.0361,2.0,1.8954,1.99,-0.06667,3.8188,5.0081,2.0813
-1.9802,2.963,1.8482,-4.902,-4.9191,-3.1615,-2.0202,-3.0719,0.0,-4.902,-4.9191,-0.97087,-0.89314,-1.9048,0.0,-0.06536,0.0,-0.06667,4.7896,5.0081,-0.84553
1.9802,3.9731,2.8383,-2.9412,-2.9773,-0.06873,0.0,-0.13072,1.0101,-2.9412,-2.9773,0.0,-1.8501,-2.89,1.0,0.91503,0.0,2.9333,6.7314,5.0081,0.13008
5.9406,12.054,7.7888,0.0,-0.06472,4.055,3.0303,4.7712,1.0101,0.0,-0.06472,3.8835,0.0638,2.0361,5.0,5.817,3.9801,3.9333,7.7023,6.9593,5.0081
4.9505,13.064,7.7888,0.98039,0.90615,4.055,5.0505,1.8301,4.0404,0.98039,0.90615,4.8544,1.0207,3.0213,4.0,6.7974,4.9751,3.9333,8.6731,4.0325,5.9837
4.9505,3.9731,5.8086,0.98039,-0.06472,3.0241,1.0101,-2.0915,0.0,0.98039,-0.06472,2.9126,0.0638,4.0066,4.0,4.8366,3.9801,0.93333,4.7896,3.0569,5.0081
2.9703,1.9529,4.8185,0.0,-0.06472,3.0241,0.0,-3.0719,-1.0101,0.0,-0.06472,2.9126,1.0207,4.9918,4.0,4.8366,3.9801,-4.0667,1.877,2.0813,5.0081
2.9703,7.0034,3.8284,0.0,0.90615,3.0241,2.0202,-3.0719,5.0505,0.0,0.90615,3.8835,3.8915,6.9622,4.0,6.7974,4.9751,-0.06667,4.7896,4.0325,6.9593
3.9604,7.0034,2.8383,-0.98039,-1.0356,1.9931,0.0,-0.13072,3.0303,-0.98039,-1.0356,0.97087,4.8485,5.977,5.0,5.817,3.9801,1.9333,8.6731,5.9837,6.9593
4.9505,2.963,-1.1221,-2.9412,-2.0065,0.9622,-2.0202,0.84967,2.0202,-2.9412,-2.0065,-1.9417,0.0638,1.0509,2.0,0.91503,0.0,7.9333,8.6731,3.0569,3.0569
-0.9901,-0.06734,-5.0825,-2.9412,-1.0356,-2.1306,-2.0202,-1.1111,4.0404,-2.9412,-1.0356,-2.9126,-5.6778,-3.8752,-5.0,-3.9869,-5.9701,-2.0667,3.8188,-2.7967,-1.8211
-1.9802,-1.0774,-5.0825,-2.9412,-0.06472,-3.1615,1.0101,-3.0719,5.0505,-2.9412,-0.06472,-0.97087,-5.6778,-2.89,-5.0,-4.9673,-6.9652,-4.0667,2.8479,-2.7967,-2.7967
0.0,-0.06734,-4.0924,-0.98039,0.90615,0.9622,3.0303,-0.13072,6.0606,-0.98039,0.90615,0.97087,-2.807,-0.91954,-4.0,-3.9869,-5.9701,1.9333,2.8479,0.13008,0.13008
-2.9703,-1.0774,-6.0726,-2.9412,-1.0356,-1.0997,1.0101,-2.0915,6.0606,-2.9412,-1.0356,-0.97087,-1.8501,-2.89,-5.0,-5.9477,-7.9602,1.9333,1.877,-0.84553,-2.7967
-0.9901,5.9933,-3.1023,-2.9412,-1.0356,-2.1306,3.0303,-2.0915,7.0707,-2.9412,-1.0356,0.0,0.0638,-1.9048,-2.0,-3.0065,-4.9751,-1.0667,0.90615,2.0813,-0.84553
0.0,7.0034,-0.13201,-3.9216,-0.06472,-3.1615,6.0606,-3.0719,14.141,-3.9216,-0.06472,0.97087,2.9346,1.0509,2.0,-0.06536,-0.99502,-0.06667,5.7605,5.9837,2.0813
-3.9604,-3.0976,-5.0825,-6.8627,-3.9482,-6.2543,-2.0202,-4.0523,3.0303,-6.8627,-3.9482,-3.8835,1.0207,0.06568,-2.0,-2.0261,-3.9801,2.9333,4.7896,2.0813,1.1057
-4.9505,-3.0976,-6.0726,-8.8235,-5.89,-7.2852,-5.0505,-4.0523,-3.0303,-8.8235,-5.89,-5.8252,-1.8501,0.06568,-5.0,-2.0261,-5.9701,2.9333,6.7314,-0.84553,3.0569
-1.9802,0.94276,-2.1122,-6.8627,-4.9191,-3.1615,-1.0101,-0.13072,2.0202,-6.8627,-4.9191,-1.9417,-1.8501,1.0509,-3.0,-0.06536,-4.9751,4.9333,11.586,1.1057,5.0081
-0.9901,2.963,-1.1221,-3.9216,-3.9482,-0.06873,1.0101,3.7908,6.0606,-3.9216,-3.9482,0.97087,0.0638,2.0361,-4.0,-0.06536,-5.9701,4.9333,9.644,1.1057,6.9593
0.0,4.9832,-0.13201,-1.9608,-2.0065,1.9931,2.0202,4.7712,7.0707,-1.9608,-2.0065,2.9126,1.9777,2.0361,-1.0,-0.06536,-3.9801,3.9333,7.7023,4.0325,6.9593
-1.9802,2.963,-0.13201,-0.98039,-2.9773,0.9622,0.0,-0.13072,1.0101,-0.98039,-2.9773,2.9126,1.0207,0.06568,-3.0,-1.0458,-3.9801,0.93333,4.7896,1.1057,3.0569
-0.9901,1.9529,0.85809,-0.98039,-2.9773,1.9931,-1.0101,-0.13072,-2.0202,-0.98039,-2.9773,2.9126,1.9777,-0.91954,-1.0,-2.0261,-2.9851,3.9333,3.8188,2.0813,0.13008
4.9505,1.9529,1.8482,0.98039,-2.0065,5.0859,-1.0101,3.7908,0.0,0.98039,-2.0065,2.9126,1.0207,-3.8752,0.0,-3.0065,-2.9851,2.9333,2.8479,4.0325,-3.7724
5.9406,0.94276,1.8482,2.9412,-0.06472,8.1787,0.0,6.732,0.0,2.9412,-0.06472,4.8544,-0.89314,-4.8604,0.0,-3.9869,-2.9851,6.9333,3.8188,2.0813,-2.7967
-2.9703,0.94276,-2.1122,2.9412,-0.06472,4.055,-1.0101,1.8301,3.0303,2.9412,-0.06472,1.9417,-5.6778,-7.8161,-6.0,-5.9477,-6.9652,2.9333,-2.9773,-2.7967,-4.748
-6.9307,-6.1279,-7.0627,0.0,-2.9773,-2.1306,-6.0606,-1.1111,-5.0505,0.0,-2.9773,-2.9126,-9.5056,-10.772,-11.0,-9.8693,-11.94,-2.0667,-0.06472,-4.748,-8.6504
-6.9307,-6.1279,-6.0726,-0.98039,-2.9773,-3.1615,-6.0606,-3.0719,-6.0606,-0.98039,-2.9773,-2.9126,-8.5486,-9.7865,-10.0,-8.8889,-10.945,-3.0667,4.7896,-3.7724,-6.6992
-5.9406,-3.0976,-6.0726,-2.9412,-2.9773,-4.1924,-4.0404,-4.0523,-3.0303,-2.9412,-2.9773,-2.9126,-6.6348,-7.8161,-7.0,-6.9281,-8.9552,-4.0667,2.8479,-3.7724,-5.7236
-4.9505,-7.138,-10.033,-3.9216,-4.9191,-4.1924,-6.0606,-1.1111,-4.0404,-3.9216,-4.9191,-4.8544,-6.6348,-8.8013,-6.0,-8.8889,-9.9502,-0.06667,-1.0356,-2.7967,-6.6992
-7.9208,-9.1582,-13.993,-2.9412,-3.9482,-5.2234,-6.0606,-0.13072,-3.0303,-2.9412,-3.9482,-6.7961,-9.5056,-11.757,-9.0,-10.85,-12.935,-4.0667,-3.9482,-4.748,-8.6504
-13.861,-12.189,-18.944,-2.9412,-4.9191,-9.3471,-7.0707,-4.0523,-7.0707,-2.9412,-4.9191,-8.7379,-14.29,-16.683001,-14.0,-14.771,-17.91,-8.0667,-5.89,-10.602,-13.528
-9.901,-8.1481,-14.983,-0.98039,-2.0065,-7.2852,-3.0303,-3.0719,-4.0404,-0.98039,-2.0065,-5.8252,-13.333,-15.698,-11.0,-12.81,-13.93,-5.0667,-2.0065,-7.6748,-10.602
-1.9802,0.94276,-7.0627,0.98039,0.90615,-1.0997,3.0303,-0.13072,2.0202,0.98039,0.90615,0.97087,-7.5917,-9.7865,-3.0,-4.9673,-5.9701,-1.0667,2.8479,-2.7967,-3.7724
0.9901,3.9731,-2.1122,0.98039,2.8479,1.9931,7.0707,-1.1111,6.0606,0.98039,2.8479,4.8544,-7.5917,-10.772,-2.0,-3.0065,-3.9801,-2.0667,5.7605,-3.7724,-1.8211
4.9505,4.9832,1.8482,4.902,5.7605,8.1787,10.101,6.732,10.101,4.902,5.7605,8.7379,-8.5486,-9.7865,-2.0,-2.0261,-1.99,0.93333,3.8188,-4.748,-4.748
-2.9703,0.94276,-0.13201,3.9216,5.7605,3.0241,6.0606,-0.13072,2.0202,3.9216,5.7605,5.8252,-9.5056,-9.7865,-4.0,-2.0261,-1.99,-9.0667,1.877,-9.626,-4.748
-4.9505,4.9832,0.85809,2.9412,4.7896,0.9622,5.0505,-2.0915,3.0303,2.9412,4.7896,3.8835,-8.5486,-4.8604,-3.0,3.8562,1.99,-10.067,2.8479,-9.626,2.0813
-1.9802,4.9832,-0.13201,2.9412,2.8479,1.9931,5.0505,2.8105,5.0505,2.9412,2.8479,2.9126,-6.6348,-3.8752,-1.0,2.8758,2.9851,-4.0667,7.7023,-6.6992,0.13008
0.9901,5.9933,0.85809,3.9216,3.8188,5.0859,7.0707,4.7712,7.0707,3.9216,3.8188,3.8835,-5.6778,-4.8604,0.0,1.8954,0.99502,-1.0667,9.644,-4.748,-2.7967
1.9802,-2.0875,-1.1221,5.8824,4.7896,7.1478,4.0404,5.7516,2.0202,5.8824,4.7896,3.8835,-10.463,-9.7865,-5.0,-3.9869,-3.9801,-2.0667,0.90615,-7.6748,-4.748
-6.9307,-11.178,-8.0528,2.9412,0.90615,0.9622,-4.0404,-1.1111,-5.0505,2.9412,0.90615,-1.9417,-13.333,-14.713,-10.0,-8.8889,-9.9502,-9.0667,-6.8608,-11.577,-9.626
-8.9109,-10.168,-9.0429,1.9608,-0.06472,-1.0997,-4.0404,-3.0719,-2.0202,1.9608,-0.06472,-2.9126,-13.333,-14.713,-10.0,-10.85,-10.945,-13.067,-5.89,-9.626,-12.553
-5.9406,-9.1582,-8.0528,3.9216,1.877,1.9931,-2.0202,3.7908,2.0202,3.9216,1.877,-0.97087,-13.333,-15.698,-10.0,-11.83,-10.945,-6.0667,-5.89,-8.6504,-13.528
-10.891,-8.1481,-9.0429,3.9216,3.8188,-0.06873,0.0,4.7712,3.0303,3.9216,3.8188,-1.9417,-16.204,-18.653999,-14.0,-13.791,-13.93,-9.0667,-7.8317,-14.504,-16.455
-11.881,-12.189,-12.013,1.9608,1.877,-2.1306,-3.0303,4.7712,-2.0202,1.9608,1.877,-4.8544,-17.160999,-20.624001,-15.0,-15.752,-16.915001,-10.067,-7.8317,-14.504,-17.431
-17.822001,-15.219,-18.944,-1.9608,-2.0065,-9.3471,-8.0808,-6.0131,-6.0606,-1.9608,-2.0065,-11.65,-20.032,-23.58,-21.0,-20.653999,-21.891001,-14.067,-15.599,-17.431,-19.382
-16.832001,-13.199,-18.944,-3.9216,-2.9773,-9.3471,-8.0808,-9.9346,-3.0303,-3.9216,-2.9773,-11.65,-18.118,-20.624001,-19.0,-19.673,-21.891001,-15.067,-18.511,-15.48,-18.407
-15.842,-19.259001,-18.944,-5.8824,-5.89,-10.378,-13.131,-3.0719,-9.0909,-5.8824,-5.89,-14.563,-15.247,-17.667999,-19.0,-19.673,-19.9,-8.0667,-14.628,-16.455,-18.407
-18.812,-22.290001,-18.944,-8.8235,-6.8608,-17.594999,-16.162001,-8.9542,-14.141,-8.8235,-6.8608,-17.476,-13.333,-14.713,-18.0,-17.712,-17.91,-15.067,-13.657,-17.431,-17.431
-19.802,-16.229,-15.974,-7.8431,-4.9191,-17.594999,-12.121,-11.895,-8.0808,-7.8431,-4.9191,-14.563,-11.419,-11.757,-16.0,-13.791,-13.93,-19.066999,-12.686,-15.48,-13.528
-17.822001,-13.199,-14.983,-4.902,-2.0065,-14.502,-9.0909,-8.9542,-6.0606,-4.902,-2.0065,-10.68,-10.463,-11.757,-16.0,-12.81,-13.93,-12.067,-14.628,-14.504,-11.577
-16.832001,-14.209,-15.974,-3.9216,-2.0065,-11.409,-9.0909,-8.9542,-10.101,-3.9216,-2.0065,-9.7087,-10.463,-12.742,-15.0,-14.771,-14.925,-15.067,-16.57,-12.553,-13.528
-13.861,-15.219,-13.993,-2.9412,-2.9773,-8.3162,-8.0808,-5.0327,-10.101,-2.9412,-2.9773,-7.767,-10.463,-12.742,-14.0,-14.771,-14.925,-10.067,-12.686,-10.602,-12.553
-11.881,-17.239,-13.003,-2.9412,-3.9482,-5.2234,-9.0909,-3.0719,-11.111,-2.9412,-3.9482,-4.8544,-11.419,-11.757,-13.0,-14.771,-14.925,-8.0667,-13.657,-9.626,-10.602
-9.901,-13.199,-10.033,-2.9412,-2.0065,-4.1924,-5.0505,-3.0719,-5.0505,-2.9412,-2.0065,-2.9126,-8.5486,-10.772,-10.0,-13.791,-11.94,-6.0667,-15.599,-6.6992,-12.553
-7.9208,-6.1279,-5.0825,-1.9608,0.90615,-3.1615,0.0,-4.0523,-1.0101,-1.9608,0.90615,0.97087,-4.7209,-7.8161,-7.0,-8.8889,-7.9602,-1.0667,-14.628,-3.7724,-9.626
-5.9406,-5.1178,-4.0924,0.98039,3.8188,-0.06873,1.0101,-1.1111,-1.0101,0.98039,3.8188,2.9126,-1.8501,-4.8604,-5.0,-5.9477,-4.9751,0.93333,-9.7735,0.13008,-6.6992
-2.9703,-4.1077,-3.1023,4.902,5.7605,3.0241,4.0404,2.8105,4.0404,4.902,5.7605,4.8544,2.9346,0.06568,-1.0,-3.0065,-2.9851,1.9333,-2.0065,4.0325,-1.8211
-2.9703,-3.0976,-3.1023,5.8824,5.7605,3.0241,4.0404,0.84967,5.0505,5.8824,5.7605,4.8544,4.8485,2.0361,1.0,-3.0065,-2.9851,-0.06667,-0.06472,5.9837,2.0813
-2.9703,-4.1077,-5.0825,3.9216,3.8188,1.9931,1.0101,0.84967,4.0404,3.9216,3.8188,0.97087,0.0638,-1.9048,-4.0,-4.9673,-5.9701,2.9333,-2.9773,1.1057,0.13008
-3.9604,-5.1178,-7.0627,1.9608,0.90615,-1.0997,-3.0303,-1.1111,1.0101,1.9608,0.90615,-1.9417,-5.6778,-4.8604,-6.0,-5.9477,-7.9602,-0.06667,-1.0356,-2.7967,-1.8211
-8.9109,-9.1582,-10.033,-0.98039,-1.0356,-4.1924,-5.0505,-4.0523,-1.0101,-0.98039,-1.0356,-4.8544,-12.376,-11.757,-11.0,-9.8693,-11.94,-6.0667,-2.0065,-8.6504,-5.7236
-9.901,-13.199,-13.003,0.0,-0.06472,-3.1615,-6.0606,-2.0915,-2.0202,0.0,-0.06472,-5.8252,-16.204,-17.667999,-14.0,-14.771,-15.92,-6.0667,-3.9482,-11.577,-11.577
-8.9109,-10.168,-13.003,2.9412,0.90615,-1.0997,-4.0404,1.8301,1.0101,2.9412,0.90615,-3.8835,-16.204,-18.653999,-14.0,-16.732,-17.91,-6.0667,-6.8608,-10.602,-13.528
-9.901,-13.199,-13.003,2.9412,1.877,-2.1306,-6.0606,-0.13072,-3.0303,2.9412,1.877,-3.8835,-14.29,-17.667999,-14.0,-17.712,-18.905001,-6.0667,-9.7735,-10.602,-13.528
-7.9208,-14.209,-12.013,2.9412,2.8479,-3.1615,-5.0505,-4.0523,-7.0707,2.9412,2.8479,-3.8835,-15.247,-18.653999,-14.0,-17.712,-18.905001,-4.0667,-12.686,-9.626,-13.528
-3.9604,-8.1481,-6.0726,3.9216,4.7896,-1.0997,-1.0101,-4.0523,-4.0404,3.9216,4.7896,-0.97087,-11.419,-14.713,-9.0,-12.81,-12.935,-5.0667,-9.7735,-5.7236,-9.626
-2.9703,-3.0976,-1.1221,3.9216,5.7605,0.9622,2.0202,-1.1111,-1.0101,3.9216,5.7605,1.9417,-7.5917,-9.7865,-4.0,-6.9281,-7.9602,-3.0667,-6.8608,-1.8211,-6.6992
-3.9604,-1.0774,-0.13201,2.9412,5.7605,-0.06873,3.0303,-3.0719,0.0,2.9412,5.7605,1.9417,-7.5917,-8.8013,-7.0,-4.9673,-6.9652,-2.0667,-4.9191,-5.7236,-6.6992
-2.9703,-2.0875,-0.13201,2.9412,5.7605,0.9622,2.0202,-4.0523,0.0,2.9412,5.7605,2.9126,-8.5486,-8.8013,-7.0,-3.9869,-4.9751,-3.0667,-4.9191,-7.6748,-6.6992
0.9901,1.9529,3.8284,6.8627,8.6731,5.0859,6.0606,-1.1111,1.0101,6.8627,8.6731,6.7961,-5.6778,-6.8309,-4.0,-2.0261,-1.99,-3.0667,-2.9773,-6.6992,-4.748
1.9802,4.9832,7.7888,9.8039,9.644,7.1478,7.0707,1.8301,0.0,9.8039,9.644,9.7087,-2.807,-3.8752,-1.0,0.91503,0.99502,-3.0667,-5.89,-3.7724,-3.7724
4.9505,3.9731,8.7789,9.8039,7.7023,7.1478,6.0606,4.7712,0.0,9.8039,7.7023,9.7087,0.0638,-2.89,3.0,1.8954,3.9801,0.93333,-5.89,0.13008,-3.7724
4.9505,5.9933,10.759,6.8627,4.7896,5.0859,6.0606,0.84967,-1.0101,6.8627,4.7896,7.767,3.8915,1.0509,6.0,3.8562,6.9652,-0.06667,-1.0356,4.0325,-1.8211
8.9109,8.0135,12.739,5.8824,4.7896,6.1168,7.0707,1.8301,-3.0303,5.8824,4.7896,9.7087,7.7193,4.9918,9.0,6.7974,9.9502,6.9333,-3.9482,5.9837,3.0569
4.9505,9.0236,12.739,2.9412,3.8188,1.9931,5.0505,-5.0327,-3.0303,2.9412,3.8188,7.767,6.7624,6.9622,7.0,8.7582,8.9552,0.93333,-2.0065,5.0081,6.9593
4.9505,10.034,12.739,3.9216,4.7896,0.9622,5.0505,-5.0327,3.0303,3.9216,4.7896,7.767,6.7624,6.9622,6.0,9.7386,8.9552,-4.0667,3.8188,4.0325,7.935
7.9208,14.074,15.71,5.8824,5.7605,5.0859,7.0707,0.84967,3.0303,5.8824,5.7605,9.7087,8.6762,7.9475,8.0,12.68,11.94,1.9333,5.7605,4.0325,8.9106
9.901,12.054,14.719,4.902,2.8479,6.1168,5.0505,1.8301,1.0101,4.902,2.8479,7.767,8.6762,7.9475,9.0,12.68,13.93,1.9333,5.7605,6.9593,7.935
8.9109,12.054,15.71,2.9412,0.90615,5.0859,4.0404,1.8301,-1.0101,2.9412,0.90615,6.7961,11.547,10.903,12.0,14.641,15.92,2.9333,5.7605,9.8862,14.764
4.9505,9.0236,12.739,0.98039,-1.0356,3.0241,2.0202,-1.1111,-3.0303,0.98039,-1.0356,3.8835,12.504,11.888,10.0,12.68,15.92,2.9333,1.877,6.9593,11.837
2.9703,5.9933,7.7888,-2.9412,-2.9773,-0.06873,-1.0101,-3.0719,-5.0505,-2.9412,-2.9773,-0.97087,11.547,10.903,8.0,8.7582,12.935,1.9333,-0.06472,7.935,5.0081
1.9802,0.94276,2.8383,-2.9412,-3.9482,-3.1615,-4.0404,-4.0523,-5.0505,-2.9412,-3.9482,-3.8835,9.6332,7.9475,6.0,4.8366,9.9502,3.9333,-2.0065,6.9593,3.0569
2.9703,-0.06734,0.85809,-1.9608,-2.9773,-1.0997,-4.0404,-0.13072,-3.0303,-1.9608,-2.9773,-3.8835,6.7624,4.0066,5.0,0.91503,5.9701,2.9333,-3.9482,5.0081,-2.7967
2.9703,-1.0774,0.85809,0.0,-2.0065,0.9622,-4.0404,2.8105,-3.0303,0.0,-2.0065,-2.9126,1.0207,-0.91954,2.0,-2.0261,0.99502,0.93333,-3.9482,3.0569,-7.6748
7.9208,3.9731,6.7987,2.9412,0.90615,6.1168,1.0101,6.732,1.0101,2.9412,0.90615,2.9126,2.9346,2.0361,4.0,0.91503,1.99,4.9333,2.8479,6.9593,-0.84553
2.9703,1.9529,3.8284,1.9608,1.877,5.0859,0.0,4.7712,3.0303,1.9608,1.877,2.9126,4.8485,2.0361,2.0,-1.0458,0.0,5.9333,1.877,8.9106,0.13008
-1.9802,-1.0774,-1.1221,2.9412,1.877,3.0241,0.0,3.7908,1.0101,2.9412,1.877,1.9417,1.9777,-0.91954,-3.0,-4.9673,-4.9751,5.9333,-0.06472,5.0081,-1.8211
-0.9901,-1.0774,-2.1122,6.8627,4.7896,4.055,5.0505,5.7516,6.0606,6.8627,4.7896,4.8544,0.0638,-1.9048,-4.0,-6.9281,-5.9701,7.9333,-4.9191,3.0569,-5.7236
3.9604,4.9832,2.8383,9.8039,6.7314,7.1478,7.0707,9.6732,6.0606,9.8039,6.7314,7.767,3.8915,2.0361,2.0,-2.0261,1.99,10.933,-3.9482,6.9593,-2.7967
7.9208,7.0034,6.7987,8.8235,6.7314,9.2096,7.0707,11.634,1.0101,8.8235,6.7314,8.7379,7.7193,6.9622,7.0,4.8366,8.9552,10.933,-0.06472,8.9106,1.1057
8.9109,13.064,9.769,6.8627,4.7896,8.1787,8.0808,10.654,2.0202,6.8627,4.7896,9.7087,15.375,15.829,11.0,13.66,16.915001,9.9333,2.8479,9.8862,8.9106
6.9307,16.094,10.759,4.902,3.8188,7.1478,8.0808,6.732,5.0505,4.902,3.8188,8.7379,17.289,19.77,12.0,19.542,18.905001,7.9333,5.7605,9.8862,14.764
9.901,16.094,11.749,4.902,5.7605,9.2096,10.101,4.7712,11.111,4.902,5.7605,10.68,19.202999,19.77,13.0,19.542,18.905001,9.9333,12.557,12.813,16.715
12.871,22.155001,13.729,4.902,7.7023,10.241,14.141,4.7712,14.141,4.902,7.7023,13.592,20.159,18.785,15.0,18.562,18.905001,7.9333,18.382,16.715,17.691
8.9109,15.084,11.749,1.9608,6.7314,7.1478,13.131,1.8301,12.121,1.9608,6.7314,11.65,14.418,13.859,8.0,10.719,11.94,3.9333,14.498,11.837,12.813
0.0,7.0034,5.8086,-0.98039,4.7896,0.9622,8.0808,-4.0523,9.0909,-0.98039,4.7896,7.767,10.59,9.9179,0.0,3.8562,2.9851,1.9333,10.615,4.0325,6.9593
-1.9802,8.0135,4.8185,-0.98039,6.7314,-0.06873,8.0808,-2.0915,11.111,-0.98039,6.7314,7.767,12.504,11.888,-1.0,2.8758,1.99,2.9333,9.644,4.0325,8.9106
-3.9604,11.044,4.8185,-4.902,3.8188,-5.2234,5.0505,-7.9739,8.0808,-4.902,3.8188,3.8835,15.375,15.829,-1.0,4.8366,3.9801,0.93333,3.8188,3.0569,11.837
-8.9109,1.9529,1.8482,-10.784,-2.9773,-12.44,-3.0303,-16.797001,0.0,-10.784,-2.9773,-3.8835,18.246,18.785,-1.0,4.8366,5.9701,-9.0667,6.7314,2.0813,12.813
-6.9307,-2.0875,1.8482,-10.784,-3.9482,-9.3471,-4.0404,-17.778,3.0303,-10.784,-3.9482,-4.8544,17.289,18.785,-1.0,2.8758,5.9701,-13.067,6.7314,-0.84553,10.862
-0.9901,3.9731,7.7888,-7.8431,-2.9773,-4.1924,0.0,-12.876,4.0404,-7.8431,-2.9773,-0.97087,15.375,15.829,2.0,2.8758,7.9602,-11.067,6.7314,-0.84553,9.8862
5.9406,14.074,16.700001,-3.9216,-0.06472,1.9931,6.0606,-7.9739,7.0707,-3.9216,-0.06472,4.8544,18.246,16.813999,8.0,6.7974,12.935,-9.0667,13.528,4.0325,12.813
8.9109,20.135,20.66,-2.9412,0.90615,3.0241,8.0808,-6.0131,8.0808,-2.9412,0.90615,6.7961,19.202999,17.799999,11.0,8.7582,14.925,-2.0667,9.644,6.9593,12.813
11.881,18.114,20.66,-1.9608,1.877,4.055,8.0808,-5.0327,9.0909,-1.9608,1.877,8.7379,20.159,17.799999,15.0,7.7778,15.92,7.9333,10.615,10.862,11.837
8.9109,8.0135,16.700001,-0.98039,0.90615,1.9931,3.0303,-5.0327,0.0,-0.98039,0.90615,6.7961,17.289,14.844,13.0,4.8366,12.935,5.9333,7.7023,9.8862,6.9593
8.9109,2.963,15.71,0.0,1.877,3.0241,2.0202,-1.1111,-2.0202,0.0,1.877,7.767,15.375,13.859,12.0,4.8366,12.935,6.9333,1.877,8.9106,5.9837
14.851,10.034,20.66,3.9216,6.7314,8.1787,10.101,2.8105,5.0505,3.9216,6.7314,12.621,16.332001,17.799999,15.0,11.699,17.91,8.9333,5.7605,9.8862,9.8862
11.881,8.0135,17.690001,0.0,2.8479,3.0241,6.0606,-3.0719,0.0,0.0,2.8479,8.7379,15.375,15.829,12.0,10.719,15.92,6.9333,2.8479,6.9593,7.935
9.901,4.9832,12.739,-1.9608,-0.06472,0.9622,1.0101,-2.0915,-3.0303,-1.9608,-0.06472,2.9126,11.547,11.888,8.0,9.7386,12.935,6.9333,4.7896,5.0081,6.9593
1.9802,3.9731,7.7888,-3.9216,-1.0356,-5.2234,-1.0101,-6.9935,-2.0202,-3.9216,-1.0356,-1.9417,8.6762,10.903,2.0,7.7778,8.9552,-5.0667,5.7605,0.13008,5.0081
-5.9406,1.9529,3.8284,-6.8627,-1.0356,-10.378,-3.0303,-11.895,2.0202,-6.8627,-1.0356,-5.8252,3.8915,6.9622,-4.0,3.8562,2.9851,-9.0667,0.90615,-2.7967,2.0813
-6.9307,-3.0976,1.8482,-6.8627,-2.9773,-10.378,-5.0505,-8.9542,-3.0303,-6.8627,-2.9773,-7.767,1.0207,4.0066,-6.0,-0.06536,-0.99502,-3.0667,-0.06472,-4.748,-0.84553
-1.9802,-1.0774,2.8383,-6.8627,-4.9191,-9.3471,-6.0606,-4.0523,-3.0303,-6.8627,-4.9191,-8.7379,1.0207,2.0361,-4.0,-1.0458,-0.99502,2.9333,-2.0065,0.13008,0.13008
-0.9901,0.94276,2.8383,-9.8039,-5.89,-11.409,-5.0505,-5.0327,2.0202,-9.8039,-5.89,-10.68,1.9777,1.0509,-1.0,-0.06536,0.0,4.9333,2.8479,3.0569,-0.84553
4.9505,2.963,6.7987,-8.8235,-5.89,-9.3471,-5.0505,-1.1111,-1.0101,-8.8235,-5.89,-8.7379,4.8485,3.0213,4.0,2.8758,4.9751,5.9333,9.644,5.9837,1.1057
8.9109,9.0236,10.759,-9.8039,-5.89,-6.2543,-3.0303,-5.0327,4.0404,-9.8039,-5.89,-6.7961,6.7624,6.9622,8.0,7.7778,7.9602,7.9333,7.7023,5.9837,6.9593
6.9307,8.0135,10.759,-11.765,-7.8317,-7.2852,-4.0404,-5.0327,1.0101,-11.765,-7.8317,-8.7379,6.7624,7.9475,9.0,8.7582,8.9552,4.9333,5.7605,5.0081,7.935
1.9802,3.9731,5.8086,-10.784,-7.8317,-7.2852,-7.0707,-1.1111,-4.0404,-10.784,-7.8317,-9.7087,4.8485,7.9475,4.0,6.7974,5.9701,3.9333,4.7896,1.1057,7.935
-4.9505,3.9731,1.8482,-8.8235,-5.89,-10.378,-5.0505,-5.0327,0.0,-8.8235,-5.89,-10.68,4.8485,8.9327,0.0,6.7974,3.9801,-5.0667,8.6731,-2.7967,7.935
-6.9307,2.963,0.85809,-5.8824,-2.9773,-10.378,-4.0404,-6.9935,-1.0101,-5.8824,-2.9773,-8.7379,2.9346,6.9622,-3.0,5.817,3.9801,-12.067,3.8188,-5.7236,5.0081
-7.9208,4.9832,4.8185,-0.98039,0.90615,-7.2852,-2.0202,-6.9935,0.0,-0.98039,0.90615,-4.8544,1.9777,6.9622,-3.0,5.817,4.9751,-14.067,2.8479,-8.6504,4.0325
-5.9406,7.0034,8.7789,1.9608,2.8479,-4.1924,1.0101,-6.9935,2.0202,1.9608,2.8479,-0.97087,2.9346,8.9327,-2.0,7.7778,7.9602,-18.066999,3.8188,-9.626,5.9837
-3.9604,10.034,11.749,2.9412,3.8188,-3.1615,3.0303,-6.9935,3.0303,2.9412,3.8188,0.97087,3.8915,10.903,-1.0,9.7386,8.9552,-17.066999,4.7896,-8.6504,8.9106
1.9802,10.034,13.729,0.98039,3.8188,-3.1615,4.0404,-8.9542,5.0505,0.98039,3.8188,0.97087,5.8054,11.888,3.0,10.719,12.935,-12.067,8.6731,-4.748,9.8862
9.901,13.064,19.67,1.9608,4.7896,3.0241,7.0707,-0.13072,8.0808,1.9608,4.7896,3.8835,6.7624,12.874,9.0,14.641,17.91,-1.0667,6.7314,1.1057,9.8862
12.871,16.094,21.65,0.98039,2.8479,4.055,8.0808,2.8105,5.0505,0.98039,2.8479,4.8544,7.7193,12.874,11.0,17.582001,19.9,8.9333,8.6731,4.0325,11.837
14.851,13.064,17.690001,-0.98039,0.90615,6.1168,7.0707,3.7908,3.0303,-0.98039,0.90615,4.8544,6.7624,11.888,11.0,16.601,18.905001,10.933,8.6731,6.9593,10.862
9.901,11.044,13.729,-0.98039,-0.06472,5.0859,5.0505,6.732,2.0202,-0.98039,-0.06472,3.8835,3.8915,10.903,9.0,14.641,15.92,6.9333,5.7605,5.9837,9.8862
6.9307,10.034,10.759,0.0,-0.06472,3.0241,5.0505,2.8105,3.0303,0.0,-0.06472,4.8544,6.7624,11.888,8.0,13.66,12.935,4.9333,4.7896,5.0081,9.8862
4.9505,7.0034,8.7789,0.98039,-0.06472,3.0241,4.0404,0.84967,2.0202,0.98039,-0.06472,4.8544,8.6762,11.888,8.0,11.699,10.945,1.9333,2.8479,5.0081,7.935
2.9703,2.963,4.8185,0.0,-2.0065,1.9931,-1.0101,-1.1111,-4.0404,0.0,-2.0065,0.97087,9.6332,10.903,6.0,9.7386,7.9602,-1.0667,-0.06472,4.0325,6.9593
-2.9703,-2.0875,-0.13201,-0.98039,-4.9191,-2.1306,-6.0606,-2.0915,-6.0606,-0.98039,-4.9191,-3.8835,4.8485,7.9475,0.0,4.8366,2.9851,-7.0667,-1.0356,-2.7967,4.0325
-1.9802,0.94276,1.8482,-1.9608,-4.9191,-3.1615,-5.0505,-1.1111,-3.0303,-1.9608,-4.9191,-5.8252,7.7193,10.903,3.0,7.7778,5.9701,-8.0667,1.877,0.13008,6.9593
3.9604,2.963,2.8383,-2.9412,-4.9191,-3.1615,-5.0505,2.8105,0.0,-2.9412,-4.9191,-6.7961,9.6332,11.888,7.0,9.7386,8.9552,2.9333,2.8479,6.9593,8.9106
6.9307,0.94276,1.8482,-2.9412,-6.8608,-1.0997,-8.0808,5.7516,-4.0404,-2.9412,-6.8608,-8.7379,8.6762,8.9327,9.0,8.7582,8.9552,13.933,3.8188,8.9106,6.9593
11.881,-0.06734,2.8383,0.0,-4.9191,4.055,-7.0707,13.595,-5.0505,0.0,-4.9191,-4.8544,4.8485,4.9918,9.0,5.817,6.9652,22.933001,2.8479,10.862,3.0569
11.881,-1.0774,2.8383,1.9608,-2.9773,6.1168,-5.0505,12.614,-4.0404,1.9608,-2.9773,-1.9417,0.0638,0.06568,7.0,1.8954,2.9851,16.933001,-0.06472,7.935,-2.7967
3.9604,-2.0875,0.85809,0.98039,-2.9773,0.9622,-6.0606,6.732,-5.0505,0.98039,-2.9773,-2.9126,-2.807,-2.89,2.0,-1.0458,0.0,7.9333,-4.9191,3.0569,-5.7236
-0.9901,-5.1178,-2.1122,-0.98039,-3.9482,-2.1306,-7.0707,4.7712,-3.0303,-0.98039,-3.9482,-5.8252,-4.7209,-2.89,-2.0,-2.0261,-1.99,1.9333,-8.8026,-1.8211,-6.6992
0.0,-1.0774,-1.1221,-0.98039,-3.9482,-2.1306,-5.0505,4.7712,-3.0303,-0.98039,-3.9482,-5.8252,-0.89314,0.06568,0.0,-0.06536,0.0,-1.0667,-5.89,-0.84553,-2.7967
-0.9901,-1.0774,-2.1122,0.0,-2.0065,-4.1924,-4.0404,2.8105,-1.0101,0.0,-2.0065,-5.8252,1.0207,2.0361,1.0,1.8954,0.99502,-1.0667,4.7896,1.1057,1.1057
-1.9802,-3.0976,-4.0924,-0.98039,-2.0065,-6.2543,-4.0404,-3.0719,-1.0101,-0.98039,-2.0065,-6.7961,2.9346,4.0066,1.0,1.8954,0.99502,-5.0667,7.7023,1.1057,3.0569
-4.9505,-4.1077,-6.0726,-1.9608,-2.0065,-7.2852,-4.0404,-4.0523,-1.0101,-1.9608,-2.0065,-6.7961,3.8915,4.9918,-1.0,1.8954,0.0,-5.0667,3.8188,-2.7967,3.0569
-0.9901,-2.0875,-4.0924,0.98039,0.90615,-2.1306,-2.0202,3.7908,0.0,0.98039,0.90615,-2.9126,3.8915,4.0066,0.0,2.8758,0.0,0.93333,4.7896,-1.8211,2.0813
3.9604,2.963,-0.13201,4.902,3.8188,3.0241,2.0202,6.732,4.0404,4.902,3.8188,0.97087,4.8485,5.977,3.0,5.817,2.9851,4.9333,5.7605,0.13008,5.9837
2.9703,4.9832,0.85809,4.902,3.8188,3.0241,1.0101,7.7124,2.0202,4.902,3.8188,0.0,2.9346,4.9918,3.0,7.7778,3.9801,6.9333,5.7605,0.13008,6.9593
1.9802,2.963,-0.13201,3.9216,2.8479,0.9622,2.0202,6.732,6.0606,3.9216,2.8479,-1.9417,0.0638,2.0361,2.0,5.817,2.9851,3.9333,0.90615,0.13008,2.0813
2.9703,-1.0774,-2.1122,1.9608,0.90615,-0.06873,-1.0101,5.7516,1.0101,1.9608,0.90615,-3.8835,-2.807,-1.9048,2.0,1.8954,0.0,2.9333,-2.9773,2.0813,1.1057
3.9604,-7.138,-3.1023,0.0,-1.0356,-1.0997,-6.0606,6.732,-9.0909,0.0,-1.0356,-6.7961,-4.7209,-3.8752,2.0,-1.0458,-0.99502,8.9333,1.877,2.0813,-1.8211
4.9505,-8.1481,-1.1221,-0.98039,-1.0356,-1.0997,-6.0606,7.7124,-4.0404,-0.98039,-1.0356,-5.8252,-3.764,-2.89,3.0,-0.06536,0.0,5.9333,-0.06472,1.1057,-2.7967
4.9505,1.9529,2.8383,0.98039,0.90615,-0.06873,0.0,2.8105,2.0202,0.98039,0.90615,-1.9417,1.9777,3.0213,5.0,5.817,3.9801,3.9333,0.90615,3.0569,1.1057
0.9901,5.9933,1.8482,1.9608,-0.06472,-1.0997,1.0101,2.8105,-3.0303,1.9608,-0.06472,-0.97087,4.8485,4.9918,5.0,6.7974,3.9801,5.9333,1.877,5.0081,3.0569
-1.9802,1.9529,-1.1221,2.9412,-0.06472,-1.0997,0.0,1.8301,-3.0303,2.9412,-0.06472,0.0,3.8915,3.0213,3.0,4.8366,0.99502,2.9333,3.8188,4.0325,5.0081
-5.9406,-7.138,-8.0528,2.9412,-0.06472,-1.0997,-3.0303,1.8301,-3.0303,2.9412,-0.06472,-1.9417,-0.89314,-3.8752,-4.0,-1.0458,-6.9652,-0.06667,1.877,-0.84553,1.1057
-4.9505,-12.189,-12.013,3.9216,-1.0356,-0.06873,-5.0505,5.7516,-2.0202,3.9216,-1.0356,-2.9126,-3.764,-6.8309,-6.0,-6.9281,-10.945,1.9333,-5.89,-1.8211,-4.748
-4.9505,-12.189,-11.023,2.9412,-2.9773,-0.06873,-8.0808,6.732,-6.0606,2.9412,-2.9773,-5.8252,-4.7209,-5.8456,-5.0,-6.9281,-10.945,5.9333,-7.8317,-0.84553,-4.748
-2.9703,-5.1178,-6.0726,1.9608,-2.9773,-2.1306,-7.0707,4.7712,-4.0404,1.9608,-2.9773,-5.8252,-0.89314,-0.91954,0.0,-2.0261,-4.9751,1.9333,-4.9191,2.0813,-1.8211
-0.9901,-2.0875,-5.0825,0.0,-3.9482,-4.1924,-7.0707,2.8105,-6.0606,0.0,-3.9482,-6.7961,3.8915,4.0066,5.0,2.8758,0.0,4.9333,-2.0065,6.9593,3.0569
-0.9901,-3.0976,-6.0726,-0.98039,-4.9191,-5.2234,-9.0909,2.8105,-8.0808,-0.98039,-4.9191,-8.7379,5.8054,4.9918,4.0,2.8758,0.0,4.9333,-1.0356,6.9593,5.0081
-1.9802,-5.1178,-7.0627,0.0,-3.9482,-3.1615,-9.0909,5.7516,-7.0707,0.0,-3.9482,-7.767,3.8915,2.0361,2.0,0.91503,-1.99,1.9333,-1.0356,5.0081,2.0813
-4.9505,-7.138,-9.0429,0.98039,-2.9773,-5.2234,-6.0606,1.8301,-4.0404,0.98039,-2.9773,-7.767,1.0207,-1.9048,1.0,-3.0065,-3.9801,0.93333,-5.89,2.0813,-0.84553
-4.9505,-6.1279,-9.0429,0.98039,-3.9482,-5.2234,-4.0404,2.8105,-1.0101,0.98039,-3.9482,-7.767,-2.807,-5.8456,-1.0,-5.9477,-4.9751,1.9333,-11.715,1.1057,-6.6992
-1.9802,-7.138,-7.0627,0.0,-3.9482,-5.2234,-6.0606,3.7908,-8.0808,0.0,-3.9482,-7.767,-0.89314,-3.8752,1.0,-4.9673,-3.9801,5.9333,-10.744,5.0081,-6.6992
4.9505,-4.1077,-2.1122,3.9216,-2.0065,0.9622,-4.0404,7.7124,-8.0808,3.9216,-2.0065,-3.8835,4.8485,3.0213,7.0,-0.06536,0.99502,10.933,-4.9191,10.862,-0.84553
3.9604,-5.1178,-2.1122,2.9412,-2.9773,0.9622,-5.0505,10.654,-10.101,2.9412,-2.9773,-3.8835,7.7193,4.9918,7.0,1.8954,1.99,10.933,-4.9191,10.862,1.1057
6.9307,-2.0875,0.85809,3.9216,-2.0065,4.055,-4.0404,13.595,-9.0909,3.9216,-2.0065,-1.9417,12.504,9.9179,11.0,5.817,4.9751,15.933,-3.9482,14.764,5.9837
14.851,0.94276,3.8284,4.902,-1.0356,7.1478,-1.0101,16.535999,-3.0303,4.902,-1.0356,0.0,17.289,12.874,17.0,8.7582,9.9502,22.933001,-1.0356,20.618,7.935
8.9109,0.94276,0.85809,-0.98039,-3.9482,0.9622,-3.0303,9.6732,-4.0404,-0.98039,-3.9482,-4.8544,15.375,11.888,14.0,8.7582,8.9552,12.933,-1.0356,15.74,6.9593
