C3,C4,Cz,F1,F2,F3,F4,F7,F8,Fp1,Fp2,Fz,O1,O2,P3,P4,Pz,T3,T4,T5,T6
1.8325,0.0,0.84142,-3.9291,-0.06441,-0.0641,0.89314,0.89314,1.9324,-3.9291,-0.06441,-0.13008,-0.0638,-1.9139,-1.9139,-0.0638,-1.1538,3.8278,2.8571,-4.8953,-0.0638
6.5719,20.853001,9.5793,3.8003,7.6651,6.6667,16.204,7.5917,1.9324,3.8003,7.6651,8.6504,2.807,0.95694,0.95694,7.5917,3.6538,1.9139,-1.9048,1.868,-1.9777
5.624,14.218,8.6084,9.5974,8.6312,9.5513,15.247,-0.0638,12.56,9.5974,8.6312,9.626,3.764,1.9139,2.8708,4.7209,2.6923,0.95694,-1.9048,10.564,2.807
-1.0111,1.8957,0.84142,4.7665,4.7665,3.7821,6.6348,5.6778,12.56,4.7665,4.7665,3.7724,2.807,5.7416,-2.8708,1.8501,-2.1154,0.95694,4.7619,3.8003,5.6778
-6.6983,-0.94787,-5.9547,-2.963,-3.9291,-1.9872,-1.0207,7.5917,-9.6618,-2.963,-3.9291,-4.0325,0.89314,6.6986,-7.6555,-0.0638,-5.9615,-1.9139,6.6667,-5.8615,1.8501
-11.438,-12.322,-12.751,-8.7601,-10.692,-7.7564,-12.504,-4.8485,-4.8309,-8.7601,-10.692,-10.862,-3.8915,0.95694,-11.483,-6.7624,-9.8077,-6.6986,0.95238,-6.8277,-3.8915
-6.6983,-7.5829,-6.9256,-3.9291,-4.8953,-2.9487,-5.8054,-0.0638,-9.6618,-3.9291,-4.8953,-5.9837,-1.0207,0.0,-7.6555,-2.9346,-5.9615,6.6986,-4.7619,-4.8953,-4.8485
-4.8025,-9.4787,-3.0421,-1.9968,-3.9291,-1.9872,-5.8054,0.89314,-4.8309,-1.9968,-3.9291,-3.0569,-2.9346,-2.8708,-6.6986,-6.7624,-5.0,5.7416,-1.9048,-2.963,-1.0207
-1.9589,-10.427,-2.0712,-1.0306,-2.963,-3.9103,-6.7624,-1.9777,7.7295,-1.0306,-2.963,-3.0569,-7.7193,-4.7847,-6.6986,-8.6762,-5.9615,-5.7416,0.95238,-6.8277,-1.0207
-0.06319,-5.6872,-0.12945,-2.963,-3.9291,-1.9872,-3.8915,-1.9777,0.0,-2.963,-3.9291,-2.0813,-10.59,-4.7847,-6.6986,-5.8054,-5.9615,-2.8708,-1.9048,-5.8615,-3.8915
-1.0111,0.94787,2.7832,-1.0306,-0.06441,0.89744,0.89314,-3.8915,-3.8647,-1.0306,-0.06441,-0.13008,-7.7193,0.0,-4.7847,0.89314,-2.1154,-0.95694,0.95238,-1.9968,0.89314
-2.9068,3.7915,1.8123,4.7665,0.90177,-1.0256,1.8501,-1.0207,0.0,4.7665,0.90177,0.84553,-7.7193,-0.95694,-5.7416,1.8501,-4.0385,-3.8278,3.8095,-1.0306,3.764
-5.7504,-7.5829,-1.1003,0.90177,-1.0306,-1.9872,-2.9346,0.89314,4.8309,0.90177,-1.0306,-0.13008,-8.6762,-2.8708,-7.6555,-2.9346,-6.9231,0.0,5.7143,-2.963,2.807
-1.9589,-1.8957,2.7832,1.868,0.90177,3.7821,0.89314,2.807,6.7633,1.868,0.90177,3.7724,-3.8915,0.0,-3.8278,-1.0207,-3.0769,0.0,0.95238,-1.9968,-1.0207
1.8325,3.7915,6.6667,5.7327,2.8341,4.7436,2.807,2.807,2.8986,5.7327,2.8341,5.7236,-0.0638,-0.95694,1.9139,2.807,1.7308,-4.7847,-2.8571,2.8341,-5.8054
6.5719,4.7393,7.6375,3.8003,0.90177,4.7436,3.764,3.764,-7.7295,3.8003,0.90177,4.748,0.89314,-0.95694,3.8278,4.7209,4.6154,-0.95694,-8.5714,1.868,-1.0207
5.624,5.6872,5.6958,2.8341,0.90177,2.8205,1.8501,2.807,2.8986,2.8341,0.90177,1.8211,-1.0207,-0.95694,2.8708,4.7209,4.6154,7.6555,2.8571,2.8341,1.8501
1.8325,-0.94787,0.84142,3.8003,-1.0306,1.859,-1.9777,2.807,7.7295,3.8003,-1.0306,0.84553,-3.8915,-2.8708,-0.95694,0.89314,1.7308,8.6124,4.7619,-1.0306,0.89314
-2.9068,-7.5829,-2.0712,-1.9968,-2.963,0.89744,-2.9346,0.89314,-3.8647,-1.9968,-2.963,-1.1057,-8.6762,-5.7416,-5.7416,-3.8915,-3.0769,-3.8278,2.8571,-5.8615,-1.9777
-1.0111,-3.7915,-0.12945,1.868,3.8003,4.7436,1.8501,-2.9346,3.8647,1.868,3.8003,2.7967,-7.7193,-4.7847,-1.9139,-2.9346,-1.1538,-6.6986,-2.8571,-4.8953,-1.9777
8.4676,15.166,8.6084,13.462,14.428,12.436,12.376,2.807,15.459,13.462,14.428,9.626,-0.0638,3.8278,5.7416,6.6348,7.5,2.8708,-2.8571,3.8003,3.764
-0.06319,-0.94787,-2.0712,0.90177,1.868,1.859,-2.9346,2.807,11.594,0.90177,1.868,-2.0813,-4.8485,-1.9139,-1.9139,-1.0207,-0.19231,-2.8708,7.619,-0.06441,-3.8915
-5.7504,-13.27,-8.8673,-6.8277,-3.9291,-7.7564,-8.6762,-1.9777,0.96618,-6.8277,-3.9291,-7.935,-5.8054,-2.8708,-5.7416,-6.7624,-5.0,-6.6986,7.619,-2.963,-6.7624
-2.9068,0.94787,-3.0421,-0.06441,1.868,-2.9487,1.8501,-1.0207,-8.6957,-0.06441,1.868,-0.13008,-1.9777,2.8708,-2.8708,-0.0638,-1.1538,0.0,-2.8571,-1.9968,-1.0207
-3.8547,1.8957,-2.0712,4.7665,4.7665,0.89744,4.7209,-1.9777,0.96618,4.7665,4.7665,1.8211,-5.8054,-0.95694,-4.7847,-2.9346,-3.0769,-2.8708,-2.8571,-5.8615,-1.9777
-7.6461,-3.7915,-4.0129,2.8341,2.8341,-1.9872,-1.0207,-2.9346,10.628,2.8341,2.8341,-2.0813,-8.6762,-5.7416,-8.6124,-5.8054,-5.9615,-4.7847,-0.95238,-10.692,-2.9346
-6.6983,-7.5829,-4.9838,-2.963,0.90177,-2.9487,-4.8485,-4.8485,4.8309,-2.963,0.90177,-3.0569,-7.7193,-6.6986,-6.6986,-7.7193,-5.9615,0.95694,-1.9048,-6.8277,-3.8915
-2.9068,-7.5829,-4.9838,-4.8953,-0.06441,-3.9103,-4.8485,-2.9346,2.8986,-4.8953,-0.06441,-4.0325,-5.8054,-3.8278,-3.8278,-6.7624,-5.9615,-2.8708,0.0,-2.963,-1.9777
3.7283,4.7393,-1.1003,4.7665,5.7327,0.89744,4.7209,6.6348,7.7295,4.7665,5.7327,2.7967,-0.0638,0.0,1.9139,-0.0638,-0.19231,6.6986,-2.8571,0.90177,-1.0207
3.7283,23.697001,2.7832,9.5974,11.53,2.8205,14.29,7.5917,8.6957,9.5974,11.53,7.6748,0.89314,4.7847,3.8278,9.5056,2.6923,4.7847,-15.238,2.8341,-0.0638
-5.7504,-0.94787,-6.9256,-0.06441,0.90177,-4.8718,-1.0207,-1.0207,2.8986,-0.06441,0.90177,-3.0569,-7.7193,-1.9139,-6.6986,-1.9777,-7.8846,-9.5694,1.9048,-3.9291,-3.8915
-9.5419,-17.062,-10.809,-6.8277,-6.8277,-9.6795,-13.461,-6.7624,-0.96618,-6.8277,-6.8277,-9.8862,-11.547,-6.6986,-12.44,-10.59,-14.615,-3.8278,8.5714,-4.8953,-6.7624
-7.6461,-9.4787,-7.8964,-5.8615,-4.8953,-4.8718,-8.6762,-11.547,-9.6618,-5.8615,-4.8953,-6.9593,-6.7624,-3.8278,-8.6124,-7.7193,-10.769,4.7847,0.95238,-2.963,-1.9777
0.88468,-2.8436,-2.0712,0.90177,-0.06441,0.89744,-1.0207,3.764,-1.9324,0.90177,-0.06441,0.84553,0.89314,2.8708,0.0,-1.9777,-3.0769,5.7416,-1.9048,6.6989,2.807
-0.06319,-5.6872,-5.9547,-2.963,-2.963,-1.9872,-2.9346,1.8501,-7.7295,-2.963,-2.963,-2.0813,-0.0638,2.8708,0.95694,-4.8485,-4.0385,2.8708,0.0,7.6651,2.807
-1.9589,-11.374,-7.8964,-5.8615,-5.8615,-8.7179,-8.6762,-4.8485,-0.96618,-5.8615,-5.8615,-7.935,1.8501,4.7847,0.0,-6.7624,-5.0,1.9139,2.8571,3.8003,3.764
-3.8547,-9.4787,-5.9547,-5.8615,-5.8615,-10.641,-9.6332,-6.7624,4.8309,-5.8615,-5.8615,-7.935,4.7209,7.6555,-0.95694,-2.9346,-3.0769,-3.8278,3.8095,-4.8953,3.764
0.88468,-3.7915,-1.1003,-2.963,-5.8615,-5.8333,-4.8485,-6.7624,-17.391001,-2.963,-5.8615,-3.0569,4.7209,8.6124,0.0,0.89314,-0.19231,-8.6124,2.8571,-2.963,4.7209
9.4155,8.5308,8.6084,2.8341,3.8003,4.7436,5.6778,0.89314,3.8647,2.8341,3.8003,6.6992,7.5917,9.5694,6.6986,6.6348,6.5385,0.0,-0.95238,3.8003,5.6778
4.6761,7.5829,4.7249,4.7665,2.8341,6.6667,3.764,1.8501,6.7633,4.7665,2.8341,6.6992,3.764,0.95694,0.95694,-0.0638,0.76923,1.9139,-1.9048,-1.9968,0.89314
-1.9589,-9.4787,-4.0129,4.7665,-1.0306,2.8205,-1.0207,0.89314,0.96618,4.7665,-1.0306,1.8211,-1.9777,-7.6555,-4.7847,-13.461,-8.8462,5.7416,0.0,-2.963,-4.8485
-0.06319,-12.322,-4.9838,2.8341,-1.9968,2.8205,-1.9777,3.764,1.9324,2.8341,-1.9968,1.8211,-3.8915,-11.483,-3.8278,-16.332001,-10.769,0.0,0.95238,-1.0306,-6.7624
4.6761,-1.8957,-0.12945,0.90177,0.90177,5.7051,2.807,2.807,7.7295,0.90177,0.90177,4.748,-2.9346,-9.5694,-0.95694,-8.6762,-6.9231,1.9139,3.8095,0.90177,-4.8485
7.5197,18.957001,3.754,1.868,2.8341,6.6667,6.6348,1.8501,7.7295,1.868,2.8341,5.7236,-0.0638,-4.7847,3.8278,2.807,-0.19231,8.6124,-8.5714,6.6989,-0.0638
3.7283,10.427,0.84142,-1.0306,-1.0306,1.859,1.8501,2.807,3.8647,-1.0306,-1.0306,0.84553,0.89314,-4.7847,3.8278,1.8501,-2.1154,1.9139,-8.5714,3.8003,-1.0207
-1.9589,-13.27,-7.8964,-6.8277,-4.8953,-5.8333,-5.8054,-0.0638,2.8986,-6.8277,-4.8953,-5.9837,-3.8915,-10.526,-2.8708,-11.547,-9.8077,-3.8278,4.7619,-1.9968,-5.8054
-1.0111,-14.218,-6.9256,-3.9291,-2.963,-4.8718,-3.8915,-1.0207,6.7633,-3.9291,-2.963,-4.0325,-5.8054,-13.397,-4.7847,-16.332001,-11.731,2.8708,4.7619,2.8341,-5.8054
10.363,9.4787,6.6667,3.8003,5.7327,6.6667,13.333,3.764,-2.8986,3.8003,5.7327,8.6504,0.89314,-5.7416,3.8278,-1.0207,-0.19231,0.0,-1.9048,5.7327,0.89314
1.8325,-0.94787,1.8123,-0.06441,-1.0306,-0.0641,1.8501,0.89314,1.9324,-0.06441,-1.0306,1.8211,-1.0207,-5.7416,0.95694,-2.9346,-0.19231,-1.9139,0.95238,-0.06441,-0.0638
-6.6983,-12.322,-4.9838,-12.625,-9.7262,-7.7564,-11.547,-7.7193,-5.7971,-12.625,-9.7262,-8.9106,-3.8915,-4.7847,-3.8278,-6.7624,-3.0769,-0.95694,13.333,-3.9291,-0.0638
-3.8547,0.0,-1.1003,-10.692,-7.7939,-6.7949,-8.6762,-6.7624,-6.7633,-10.692,-7.7939,-5.9837,-1.0207,0.0,0.0,0.89314,1.7308,1.9139,-4.7619,-1.0306,-1.9777
-6.6983,-3.7915,-4.0129,-7.7939,-8.7601,-8.7179,-8.6762,-4.8485,-19.323999,-7.7939,-8.7601,-7.935,-4.8485,-1.9139,-1.9139,0.89314,0.76923,-0.95694,-2.8571,-0.06441,-4.8485
-9.5419,-13.27,-6.9256,-5.8615,-6.8277,-8.7179,-8.6762,-9.6332,-7.7295,-5.8615,-6.8277,-8.9106,-9.6332,-5.7416,-6.6986,-6.7624,-5.0,-8.6124,4.7619,-6.8277,-1.0207
-10.49,-15.166,-9.8382,-5.8615,-3.9291,-6.7949,-8.6762,-6.7624,3.8647,-5.8615,-3.9291,-8.9106,-15.375,-9.5694,-12.44,-14.418,-12.692,-7.6555,2.8571,-3.9291,-1.9777
-5.7504,-11.374,-5.9547,-1.0306,0.90177,-1.9872,-2.9346,2.807,4.8309,-1.0306,0.90177,-4.0325,-14.418,-9.5694,-13.397,-13.461,-13.654,-2.8708,2.8571,-7.7939,-1.9777
-1.9589,-7.5829,-3.0421,0.90177,-0.06441,0.89744,-3.8915,5.6778,-1.9324,0.90177,-0.06441,-4.0325,-12.504,-8.6124,-8.6124,-10.59,-9.8077,0.95694,-2.8571,-11.659,-1.9777
3.7283,-3.7915,1.8123,2.8341,0.90177,5.7051,-1.0207,6.6348,-0.96618,2.8341,0.90177,0.84553,-4.8485,-2.8708,0.95694,-3.8915,-2.1154,7.6555,-1.9048,-2.963,0.89314
3.7283,2.8436,3.754,2.8341,2.8341,5.7051,1.8501,6.6348,5.7971,2.8341,2.8341,2.7967,0.89314,1.9139,5.7416,2.807,3.6538,2.8708,0.0,1.868,0.89314
1.8325,7.5829,1.8123,7.6651,5.7327,3.7821,5.6778,6.6348,-6.7633,7.6651,5.7327,2.7967,-0.0638,1.9139,3.8278,7.5917,3.6538,3.8278,-5.7143,3.8003,-2.9346
5.624,10.427,5.6958,10.564,8.6312,5.7051,8.5486,4.7209,5.7971,10.564,8.6312,5.7236,2.807,4.7847,6.6986,10.463,5.5769,2.8708,0.95238,8.6312,2.807
13.207,16.114,13.463,14.428,15.395,12.436,19.075001,5.6778,15.459,14.428,15.395,13.528,6.6348,7.6555,11.483,13.333,10.385,3.8278,6.6667,7.6651,4.7209
4.6761,8.5308,7.6375,3.8003,4.7665,6.6667,7.5917,4.7209,3.8647,3.8003,4.7665,6.6992,-1.9777,-0.95694,1.9139,3.764,1.7308,6.6986,2.8571,-4.8953,-2.9346
-0.06319,-0.94787,2.7832,2.8341,-0.06441,5.7051,-0.0638,10.463,2.8986,2.8341,-0.06441,2.7967,-8.6762,-4.7847,-6.6986,-2.9346,-5.0,5.7416,-0.95238,-7.7939,-2.9346
0.88468,2.8436,6.6667,9.5974,6.6989,11.474,6.6348,14.29,-4.8309,9.5974,6.6989,9.626,-6.7624,-2.8708,-4.7847,-1.0207,-2.1154,5.7416,2.8571,-2.963,-1.9777
-1.0111,0.0,5.6958,8.6312,4.7665,9.5513,4.7209,9.5056,4.8309,8.6312,4.7665,8.6504,-10.59,-5.7416,-6.6986,-2.9346,-3.0769,1.9139,-0.95238,0.90177,-6.7624
-5.7504,-5.6872,0.84142,4.7665,0.90177,-0.0641,-0.0638,3.764,0.96618,4.7665,0.90177,0.84553,-14.418,-9.5694,-10.526,-6.7624,-6.9231,-2.8708,-0.95238,-6.8277,-7.7193
-2.9068,-2.8436,-0.12945,2.8341,-0.06441,-2.9487,-1.0207,1.8501,3.8647,2.8341,-0.06441,-2.0813,-11.547,-6.6986,-5.7416,-4.8485,-4.0385,0.0,4.7619,-6.8277,-5.8054
4.6761,2.8436,1.8123,2.8341,1.868,2.8205,3.764,4.7209,5.7971,2.8341,1.868,1.8211,-2.9346,-0.95694,1.9139,1.8501,0.76923,8.6124,0.95238,2.8341,-1.9777
1.8325,-2.8436,-4.0129,-1.9968,-0.06441,3.7821,-1.0207,3.764,-4.8309,-1.9968,-0.06441,0.84553,-0.0638,-0.95694,0.95694,0.89314,-0.19231,8.6124,0.0,0.90177,-1.0207
-1.9589,-5.6872,-8.8673,-0.06441,0.90177,0.89744,-3.8915,5.6778,-1.9324,-0.06441,0.90177,-2.0813,-1.0207,-0.95694,-0.95694,-1.9777,-4.0385,1.9139,4.7619,-1.9968,1.8501
-4.8025,-9.4787,-7.8964,4.7665,1.868,-1.0256,-4.8485,4.7209,-0.96618,4.7665,1.868,-4.0325,-4.8485,-5.7416,-3.8278,-5.8054,-6.9231,0.0,5.7143,0.90177,-2.9346
-1.9589,-4.7393,-1.1003,6.6989,4.7665,3.7821,1.8501,4.7209,-4.8309,6.6989,4.7665,2.7967,-4.8485,-7.6555,-1.9139,-5.8054,-4.0385,0.95694,0.0,1.868,-5.8054
1.8325,-1.8957,3.754,8.6312,7.6651,7.6282,5.6778,6.6348,0.0,8.6312,7.6651,6.6992,-3.8915,-6.6986,0.95694,-2.9346,-1.1538,7.6555,-0.95238,0.90177,-3.8915
1.8325,0.0,4.7249,10.564,7.6651,6.6667,6.6348,8.5486,5.7971,10.564,7.6651,6.6992,-2.9346,-3.8278,0.95694,-0.0638,-0.19231,8.6124,0.0,0.90177,-1.9777
-1.0111,2.8436,1.8123,7.6651,7.6651,2.8205,6.6348,6.6348,6.7633,7.6651,7.6651,4.748,-2.9346,-2.8708,-0.95694,3.764,0.76923,1.9139,-1.9048,3.8003,-2.9346
-1.9589,11.374,0.84142,4.7665,7.6651,1.859,8.5486,3.764,6.7633,4.7665,7.6651,2.7967,-1.0207,0.95694,-1.9139,10.463,1.7308,-1.9139,-0.95238,3.8003,-4.8485
-1.9589,16.114,1.8123,5.7327,6.6989,1.859,6.6348,3.764,11.594,5.7327,6.6989,2.7967,2.807,6.6986,-2.8708,12.376,3.6538,0.95694,-4.7619,-1.9968,6.6348
-1.0111,7.5829,0.84142,4.7665,2.8341,-0.0641,3.764,1.8501,-10.628,4.7665,2.8341,0.84553,1.8501,3.8278,-3.8278,5.6778,0.76923,4.7847,1.9048,-4.8953,5.6778
3.7283,0.94787,2.7832,3.8003,1.868,3.7821,2.807,-4.8485,-0.96618,3.8003,1.868,1.8211,1.8501,2.8708,0.0,3.764,0.76923,5.7416,4.7619,0.90177,2.807
4.6761,-0.94787,-0.12945,-0.06441,-0.06441,4.7436,-0.0638,2.807,8.6957,-0.06441,-0.06441,1.8211,-0.0638,0.95694,0.0,0.89314,-1.1538,2.8708,2.8571,0.90177,1.8501
4.6761,3.7915,-1.1003,1.868,2.8341,5.7051,3.764,7.5917,10.628,1.868,2.8341,2.7967,-1.0207,-0.95694,1.9139,-0.0638,0.76923,0.95694,2.8571,0.90177,-0.0638
5.624,6.6351,0.84142,7.6651,4.7665,3.7821,4.7209,1.8501,9.6618,7.6651,4.7665,1.8211,0.89314,0.0,6.6986,3.764,5.5769,-6.6986,-3.8095,5.7327,1.8501
3.7283,0.0,-1.1003,0.90177,-1.9968,-1.9872,-0.0638,-0.0638,-13.527,0.90177,-1.9968,-3.0569,1.8501,-0.95694,7.6555,2.807,5.5769,-3.8278,-1.9048,6.6989,1.8501
2.7804,0.0,2.7832,-1.0306,-3.9291,0.89744,-2.9346,-0.0638,-9.6618,-1.0306,-3.9291,-1.1057,3.764,0.95694,5.7416,3.764,6.5385,0.95694,9.5238,-1.0306,0.89314
4.6761,0.94787,7.6375,4.7665,0.90177,7.6282,1.8501,3.764,7.7295,4.7665,0.90177,5.7236,7.5917,6.6986,6.6986,5.6778,7.5,3.8278,8.5714,-0.06441,4.7209
1.8325,-3.7915,2.7832,-1.0306,-1.0306,7.6282,0.89314,1.8501,5.7971,-1.0306,-1.0306,5.7236,8.5486,6.6986,3.8278,-0.0638,2.6923,2.8708,0.0,-1.0306,2.807
2.7804,0.94787,2.7832,1.868,0.90177,5.7051,4.7209,1.8501,-2.8986,1.868,0.90177,5.7236,12.376,10.526,4.7847,0.89314,3.6538,1.9139,-1.9048,1.868,1.8501
7.5197,4.7393,6.6667,4.7665,0.90177,4.7436,3.764,2.807,0.96618,4.7665,0.90177,4.748,16.204,15.311,10.526,6.6348,9.4231,0.0,0.0,3.8003,6.6348
11.311,7.5829,8.6084,-1.9968,-1.9968,1.859,0.89314,0.89314,-0.96618,-1.9968,-1.9968,1.8211,17.160999,14.354,15.311,9.5056,13.269,2.8708,0.0,8.6312,5.6778
11.311,5.6872,6.6667,-9.7262,-10.692,-1.9872,-7.7193,-2.9346,-8.6957,-9.7262,-10.692,-5.9837,14.29,10.526,15.311,8.5486,13.269,7.6555,-2.8571,11.53,5.6778
10.363,6.6351,6.6667,-6.8277,-9.7262,-1.9872,-8.6762,-3.8915,-10.628,-6.8277,-9.7262,-6.9593,9.5056,8.6124,13.397,10.463,12.308,4.7847,-3.8095,6.6989,5.6778
6.5719,4.7393,3.754,-3.9291,-5.8615,-1.0256,-5.8054,-2.9346,-13.527,-3.9291,-5.8615,-5.9837,7.5917,6.6986,9.5694,11.419,9.4231,0.0,6.6667,1.868,2.807
5.624,10.427,1.8123,-2.963,-3.9291,-0.0641,-0.0638,-2.9346,-2.8986,-2.963,-3.9291,-1.1057,10.463,9.5694,9.5694,12.376,8.4615,-1.9139,-9.5238,4.7665,8.5486
3.7283,3.7915,-1.1003,3.8003,-0.06441,0.89744,-0.0638,3.764,4.8309,3.8003,-0.06441,0.84553,10.463,8.6124,8.6124,7.5917,6.5385,6.6986,-3.8095,12.496,3.764
3.7283,1.8957,2.7832,6.6989,6.6989,5.7051,7.5917,5.6778,7.7295,6.6989,6.6989,6.6992,11.419,9.5694,8.6124,6.6348,6.5385,1.9139,8.5714,14.428,-0.0638
-1.9589,2.8436,2.7832,-0.06441,3.8003,0.89744,8.5486,1.8501,-4.8309,-0.06441,3.8003,4.748,8.5486,6.6986,2.8708,0.89314,1.7308,-0.95694,-5.7143,2.8341,-0.0638
-8.594,-10.427,-4.9838,-7.7939,-8.7601,-9.6795,-7.7193,-5.8054,-14.493,-7.7939,-8.7601,-7.935,0.89314,-2.8708,-3.8278,-9.6332,-6.9231,-0.95694,-11.429,-4.8953,-2.9346
-4.8025,-10.427,-4.0129,-14.557,-12.625,-9.6795,-12.504,-8.6762,-7.7295,-14.557,-12.625,-9.8862,1.8501,-2.8708,-1.9139,-6.7624,-4.0385,1.9139,-3.8095,-0.06441,-0.0638
-1.9589,-4.7393,-3.0421,-11.659,-8.7601,-6.7949,-8.6762,-4.8485,-8.6957,-11.659,-8.7601,-6.9593,2.807,0.0,-0.95694,-1.0207,-2.1154,-0.95694,1.9048,0.90177,1.8501
-2.9068,-4.7393,-5.9547,-9.7262,-6.8277,-4.8718,-6.7624,-3.8915,-3.8647,-9.7262,-6.8277,-5.9837,-0.0638,-1.9139,-3.8278,-2.9346,-5.0,-3.8278,1.9048,-3.9291,-1.9777
-0.06319,1.8957,-3.0421,-1.0306,-2.963,-1.9872,-0.0638,-2.9346,1.9324,-1.0306,-2.963,-1.1057,-0.0638,-1.9139,-1.9139,-2.9346,-4.0385,-1.9139,-7.619,-1.9968,-0.0638
-2.9068,-6.6351,-5.9547,-1.0306,-6.8277,-4.8718,-4.8485,-3.8915,-9.6618,-1.0306,-6.8277,-3.0569,-2.9346,-2.8708,-3.8278,-6.7624,-5.9615,-6.6986,-10.476,-1.9968,-1.9777
-1.0111,-2.8436,-2.0712,-0.06441,-4.8953,-3.9103,-1.0207,0.89314,-12.56,-0.06441,-4.8953,-2.0813,1.8501,5.7416,1.9139,-0.0638,-1.1538,-1.9139,4.7619,4.7665,0.89314
-0.06319,7.5829,2.7832,1.868,0.90177,-2.9487,5.6778,2.807,-0.96618,1.868,0.90177,0.84553,6.6348,13.397,4.7847,9.5056,5.5769,2.8708,6.6667,1.868,2.807
-4.8025,3.7915,1.8123,-3.9291,-1.9968,-3.9103,-0.0638,-1.9777,-0.96618,-3.9291,-1.9968,-0.13008,7.5917,14.354,3.8278,11.419,6.5385,5.7416,0.95238,1.868,8.5486
-10.49,-10.427,-3.0421,-10.692,-7.7939,-6.7949,-6.7624,-7.7193,-13.527,-10.692,-7.7939,-3.0569,5.6778,5.7416,-1.9139,-1.0207,0.76923,-1.9139,-4.7619,-2.963,4.7209
-2.9068,0.94787,2.7832,-1.9968,-1.0306,0.89744,2.807,-1.9777,-11.594,-1.9968,-1.0306,4.748,9.5056,5.7416,1.9139,-0.0638,3.6538,-3.8278,-20.952,1.868,7.5917
3.7283,6.6351,5.6958,0.90177,1.868,3.7821,6.6348,0.89314,6.7633,0.90177,1.868,6.6992,10.463,4.7847,5.7416,0.89314,5.5769,-2.8708,-5.7143,7.6651,1.8501
5.624,2.8436,5.6958,0.90177,-0.06441,2.8205,6.6348,0.89314,-0.96618,0.90177,-0.06441,4.748,11.419,4.7847,6.6986,-0.0638,6.5385,0.95694,-2.8571,8.6312,-2.9346
0.88468,0.0,0.84142,-3.9291,-4.8953,-3.9103,-0.0638,-3.8915,-4.8309,-3.9291,-4.8953,-1.1057,9.5056,4.7847,5.7416,0.89314,3.6538,4.7847,-3.8095,0.90177,-1.9777
-4.8025,-2.8436,-4.9838,-5.8615,-6.8277,-8.7179,-6.7624,-6.7624,-1.9324,-5.8615,-6.8277,-6.9593,8.5486,4.7847,1.9139,-0.0638,0.76923,1.9139,6.6667,-2.963,1.8501
-7.6461,-2.8436,-7.8964,-3.9291,-6.8277,-9.6795,-8.6762,-6.7624,-3.8647,-3.9291,-6.8277,-9.8862,8.5486,4.7847,0.0,1.8501,-1.1538,-4.7847,0.0,-1.9968,2.807
-5.7504,-2.8436,-6.9256,-3.9291,-5.8615,-8.7179,-7.7193,-6.7624,-0.96618,-3.9291,-5.8615,-8.9106,4.7209,1.9139,-0.95694,2.807,-2.1154,-5.7416,-5.7143,1.868,-1.0207
-2.9068,-2.8436,-4.0129,-3.9291,-3.9291,-3.9103,-4.8485,-2.9346,1.9324,-3.9291,-3.9291,-5.0081,1.8501,-0.95694,-1.9139,-1.9777,-2.1154,-4.7847,1.9048,0.90177,-9.6332
-2.9068,-11.374,-4.0129,-5.8615,-5.8615,-2.9487,-5.8054,-2.9346,-0.96618,-5.8615,-5.8615,-4.0325,-1.0207,-3.8278,-2.8708,-8.6762,-4.0385,-8.6124,6.6667,-1.0306,-3.8915
-1.0111,-10.427,-3.0421,-7.7939,-7.7939,-4.8718,-6.7624,-5.8054,-7.7295,-7.7939,-7.7939,-5.0081,-1.9777,-3.8278,-1.9139,-7.7193,-3.0769,-1.9139,2.8571,-2.963,2.807
3.7283,-0.94787,3.754,0.90177,-1.9968,-1.0256,0.89314,-2.9346,-11.594,0.90177,-1.9968,-0.13008,1.8501,-1.9139,3.8278,-1.0207,1.7308,6.6986,0.0,-1.0306,2.807
2.7804,0.0,3.754,0.90177,-1.9968,-0.0641,-0.0638,-1.0207,-3.8647,0.90177,-1.9968,0.84553,2.807,-0.95694,1.9139,-0.0638,2.6923,3.8278,-1.9048,1.868,-0.0638
0.88468,9.4787,3.754,-2.963,0.90177,2.8205,3.764,-0.0638,6.7633,-2.963,0.90177,2.7967,2.807,0.95694,1.9139,4.7209,3.6538,-4.7847,-12.381,-1.0306,-1.9777
-1.0111,10.427,0.84142,0.90177,3.8003,0.89744,5.6778,-0.0638,13.527,0.90177,3.8003,2.7967,2.807,4.7847,2.8708,7.5917,5.5769,-0.95694,-4.7619,-0.06441,4.7209
-2.9068,-1.8957,-4.0129,2.8341,0.90177,-1.9872,0.89314,-1.9777,1.9324,2.8341,0.90177,-1.1057,0.89314,1.9139,0.95694,0.89314,1.7308,-0.95694,9.5238,0.90177,3.764
-5.7504,-14.218,-8.8673,-2.963,-4.8953,-2.9487,-6.7624,-5.8054,-3.8647,-2.963,-4.8953,-5.9837,-4.8485,-4.7847,-3.8278,-9.6332,-5.0,-6.6986,0.0,2.8341,-1.9777
-1.9589,-1.8957,-3.0421,1.868,1.868,0.89744,3.764,-1.0207,3.8647,1.868,1.868,0.84553,-2.9346,0.95694,-0.95694,-3.8915,-1.1538,-2.8708,-12.381,1.868,-1.0207
4.6761,9.4787,4.7249,7.6651,7.6651,5.7051,10.463,7.5917,16.424999,7.6651,7.6651,7.6748,0.89314,5.7416,4.7847,3.764,5.5769,7.6555,-3.8095,7.6651,1.8501
-2.9068,-7.5829,-4.9838,-0.06441,-4.8953,-2.9487,-5.8054,1.8501,-3.8647,-0.06441,-4.8953,-5.0081,-3.8915,0.0,-2.8708,-4.8485,-1.1538,3.8278,0.95238,-2.963,1.8501
-7.6461,-18.009001,-9.8382,-7.7939,-12.625,-9.6795,-15.375,-8.6762,-17.391001,-7.7939,-12.625,-12.813,-5.8054,-2.8708,-6.6986,-6.7624,-3.0769,-1.9139,1.9048,-7.7939,-2.9346
-2.9068,-7.5829,-4.9838,-2.963,-4.8953,-2.9487,-6.7624,-2.9346,2.8986,-2.963,-4.8953,-5.9837,-2.9346,0.0,-2.8708,-1.0207,1.7308,-2.8708,2.8571,-2.963,2.807
-6.6983,-8.5308,-8.8673,-1.9968,-1.9968,-4.8718,-6.7624,-3.8915,0.0,-1.9968,-1.9968,-6.9593,-7.7193,-3.8278,-6.6986,-4.8485,-3.0769,-10.526,-0.95238,-8.7601,-0.0638
-7.6461,-7.5829,-7.8964,-1.9968,-1.9968,-5.8333,-5.8054,-4.8485,-11.594,-1.9968,-1.9968,-6.9593,-6.7624,-2.8708,-5.7416,-3.8915,-3.0769,-5.7416,0.0,-6.8277,-1.0207
-6.6983,-6.6351,-6.9256,-5.8615,-1.0306,-5.8333,-2.9346,-5.8054,-0.96618,-5.8615,-1.0306,-5.9837,-4.8485,-0.95694,-3.8278,-2.9346,-2.1154,-0.95694,0.95238,-6.8277,2.807
-8.594,-4.7393,-6.9256,-3.9291,-1.9968,-6.7949,-3.8915,-6.7624,4.8309,-3.9291,-1.9968,-5.9837,-4.8485,-0.95694,-4.7847,-2.9346,-4.0385,-2.8708,-3.8095,-4.8953,0.89314
-5.7504,3.7915,-3.0421,2.8341,-0.06441,-3.9103,-1.0207,-3.8915,2.8986,2.8341,-0.06441,-3.0569,-1.9777,0.95694,-1.9139,1.8501,-1.1538,2.8708,-4.7619,4.7665,-0.0638
-4.8025,1.8957,-3.0421,-0.06441,-2.963,-3.9103,-4.8485,-3.8915,-5.7971,-0.06441,-2.963,-5.0081,-1.9777,0.95694,-1.9139,2.807,-1.1538,0.95694,-1.9048,0.90177,4.7209
-6.6983,-8.5308,-5.9547,-3.9291,-7.7939,-4.8718,-9.6332,-4.8485,-3.8647,-3.9291,-7.7939,-7.935,-4.8485,-1.9139,-4.7847,-1.9777,-4.0385,-9.5694,0.95238,-3.9291,0.89314
-3.8547,-8.5308,-3.0421,-1.0306,-3.9291,-3.9103,-5.8054,-2.9346,0.96618,-1.0306,-3.9291,-5.0081,-2.9346,-1.9139,-1.9139,-1.9777,-2.1154,-3.8278,2.8571,1.868,-2.9346
0.88468,2.8436,3.754,1.868,2.8341,0.89744,4.7209,2.807,1.9324,1.868,2.8341,1.8211,1.8501,1.9139,4.7847,3.764,3.6538,4.7847,-1.9048,6.6989,2.807
0.88468,10.427,2.7832,2.8341,1.868,3.7821,2.807,-1.9777,4.8309,2.8341,1.868,2.7967,1.8501,1.9139,2.8708,4.7209,2.6923,1.9139,-6.6667,-1.9968,3.764
-1.9589,8.5308,0.84142,0.90177,-1.0306,-0.0641,-0.0638,-2.9346,3.8647,0.90177,-1.0306,-0.13008,0.89314,0.95694,-0.95694,4.7209,-0.19231,0.0,0.95238,-4.8953,2.807
0.88468,5.6872,1.8123,4.7665,-1.0306,-0.0641,1.8501,0.89314,4.8309,4.7665,-1.0306,-0.13008,0.89314,0.95694,-0.95694,3.764,-0.19231,-6.6986,-1.9048,1.868,0.89314
-1.0111,-0.94787,0.84142,-3.9291,-3.9291,0.89744,-1.0207,-3.8915,0.96618,-3.9291,-3.9291,-0.13008,0.89314,0.0,-2.8708,0.89314,-2.1154,-1.9139,1.9048,-1.0306,-0.0638
-3.8547,-9.4787,-3.0421,-7.7939,-5.8615,-3.9103,-5.8054,-7.7193,-6.7633,-7.7939,-5.8615,-4.0325,-0.0638,0.0,-6.6986,-2.9346,-5.9615,-3.8278,3.8095,-2.963,-1.9777
-2.9068,-4.7393,-2.0712,-2.963,-4.8953,-2.9487,-3.8915,-5.8054,-11.594,-2.963,-4.8953,-3.0569,1.8501,5.7416,-5.7416,-1.0207,-4.0385,-3.8278,-0.95238,0.90177,4.7209
-5.7504,-2.8436,-1.1003,-2.963,-5.8615,-2.9487,-5.8054,-4.8485,-2.8986,-2.963,-5.8615,-3.0569,2.807,7.6555,-5.7416,-0.0638,-4.0385,-4.7847,5.7143,-3.9291,3.764
-1.9589,5.6872,2.7832,2.8341,1.868,1.859,1.8501,0.89314,12.56,2.8341,1.868,1.8211,7.5917,9.5694,0.0,4.7209,-0.19231,0.95694,3.8095,0.90177,1.8501
-1.0111,9.4787,1.8123,3.8003,4.7665,2.8205,5.6778,2.807,7.7295,3.8003,4.7665,3.7724,8.5486,8.6124,1.9139,5.6778,0.76923,0.95694,0.0,2.8341,2.807
-3.8547,-0.94787,-4.0129,-3.9291,-0.06441,-1.9872,0.89314,-1.0207,4.8309,-3.9291,-0.06441,-0.13008,1.8501,1.9139,-2.8708,-0.0638,-4.0385,-5.7416,1.9048,-0.06441,3.764
-1.9589,-0.94787,-4.0129,-1.0306,-1.0306,-1.9872,-0.0638,-2.9346,-3.8647,-1.0306,-1.0306,-1.1057,0.89314,0.0,-1.9139,-0.0638,-4.0385,0.0,2.8571,-0.06441,1.8501
2.7804,-0.94787,-1.1003,1.868,-1.0306,0.89744,-0.0638,-0.0638,0.96618,1.868,-1.0306,0.84553,1.8501,-1.9139,1.9139,-0.0638,-1.1538,3.8278,0.0,5.7327,0.89314
0.88468,-6.6351,-3.0421,1.868,0.90177,0.89744,0.89314,-1.0207,-7.7295,1.868,0.90177,-0.13008,0.89314,-3.8278,1.9139,-5.8054,-3.0769,-2.8708,0.95238,1.868,0.89314
2.7804,-0.94787,-0.12945,0.90177,3.8003,2.8205,4.7209,1.8501,-0.96618,0.90177,3.8003,1.8211,2.807,-1.9139,3.8278,-2.9346,-1.1538,0.0,2.8571,0.90177,-1.0207
3.7283,8.5308,1.8123,2.8341,7.6651,2.8205,6.6348,1.8501,16.424999,2.8341,7.6651,3.7724,2.807,0.0,5.7416,1.8501,1.7308,6.6986,-4.7619,7.6651,-3.8915
0.88468,9.4787,0.84142,2.8341,3.8003,-1.0256,2.807,-1.9777,8.6957,2.8341,3.8003,1.8211,2.807,0.0,1.9139,0.89314,0.76923,0.95694,-3.8095,0.90177,-0.0638
-1.9589,0.94787,-2.0712,-0.06441,-1.9968,-2.9487,-1.0207,-3.8915,-3.8647,-0.06441,-1.9968,-2.0813,-1.0207,-2.8708,-0.95694,-3.8915,-3.0769,-4.7847,-1.9048,-3.9291,-0.0638
1.8325,-4.7393,1.8123,-1.0306,0.90177,1.859,-0.0638,2.807,-3.8647,-1.0306,0.90177,0.84553,-1.0207,-0.95694,0.95694,-1.9777,-1.1538,0.95694,6.6667,-0.06441,1.8501
2.7804,-3.7915,2.7832,-3.9291,1.868,5.7051,-0.0638,2.807,0.0,-3.9291,1.868,2.7967,-4.8485,-3.8278,0.95694,-1.0207,-0.19231,1.9139,9.5238,1.868,-2.9346
2.7804,0.0,2.7832,1.868,4.7665,2.8205,1.8501,1.8501,-7.7295,1.868,4.7665,2.7967,-7.7193,-7.6555,0.95694,-1.0207,0.76923,-0.95694,-1.9048,2.8341,-2.9346
5.624,1.8957,4.7249,8.6312,8.6312,4.7436,7.5917,3.764,7.7295,8.6312,8.6312,5.7236,-6.7624,-6.6986,2.8708,0.89314,2.6923,2.8708,3.8095,1.868,-2.9346
8.4676,16.114,8.6084,10.564,8.6312,6.6667,9.5056,5.6778,14.493,10.564,8.6312,7.6748,-3.8915,-5.7416,4.7847,6.6348,5.5769,3.8278,-1.9048,2.8341,-4.8485
4.6761,11.374,7.6375,6.6989,5.7327,3.7821,7.5917,0.89314,6.7633,6.6989,5.7327,5.7236,-2.9346,-3.8278,2.8708,5.6778,5.5769,0.95694,0.0,-1.9968,-5.8054
0.88468,0.94787,3.754,-2.963,-1.9968,0.89744,0.89314,-0.0638,-5.7971,-2.963,-1.9968,1.8211,-2.9346,0.0,0.0,4.7209,3.6538,-2.8708,4.7619,-2.963,-1.0207
4.6761,5.6872,7.6375,4.7665,2.8341,4.7436,4.7209,7.5917,5.7971,4.7665,2.8341,4.748,-1.0207,2.8708,2.8708,7.5917,6.5385,3.8278,5.7143,-1.9968,2.807
3.7283,4.7393,6.6667,3.8003,3.8003,5.7051,5.6778,5.6778,6.7633,3.8003,3.8003,4.748,-2.9346,-1.9139,1.9139,3.764,5.5769,0.0,5.7143,-5.8615,1.8501
-1.0111,-0.94787,1.8123,-1.0306,-0.06441,0.89744,-0.0638,0.89314,-0.96618,-1.0306,-0.06441,0.84553,-5.8054,-4.7847,-2.8708,-1.0207,0.76923,-1.9139,-0.95238,-5.8615,-0.0638
0.88468,-1.8957,1.8123,-1.0306,1.868,-1.0256,-1.0207,0.89314,0.0,-1.0306,1.868,-0.13008,-2.9346,-0.95694,-1.9139,-1.0207,0.76923,3.8278,2.8571,-1.9968,2.807
3.7283,3.7915,2.7832,-1.9968,0.90177,0.89744,-1.0207,1.8501,0.0,-1.9968,0.90177,0.84553,-2.9346,0.95694,0.95694,-0.0638,-0.19231,2.8708,-2.8571,0.90177,2.807
8.4676,7.5829,6.6667,-1.0306,4.7665,7.6282,6.6348,5.6778,4.8309,-1.0306,4.7665,7.6748,-1.9777,1.9139,3.8278,3.764,2.6923,4.7847,-1.9048,1.868,4.7209
1.8325,-4.7393,1.8123,-1.0306,-1.0306,3.7821,-1.0207,0.89314,-4.8309,-1.0306,-1.0306,2.7967,-4.8485,-4.7847,-0.95694,-2.9346,-1.1538,-2.8708,1.9048,-1.9968,-1.9777
-0.06319,-4.7393,1.8123,6.6989,0.90177,-0.0641,-1.0207,-1.0207,0.96618,6.6989,0.90177,-0.13008,-4.8485,-6.6986,-0.95694,-3.8915,-0.19231,0.0,4.7619,1.868,-7.7193
5.624,9.4787,9.5793,9.5974,8.6312,4.7436,11.419,2.807,8.6957,9.5974,8.6312,8.6504,1.8501,0.95694,5.7416,7.5917,7.5,1.9139,7.619,6.6989,-2.9346
5.624,18.009001,11.521,5.7327,9.5974,7.6282,12.376,5.6778,12.56,5.7327,9.5974,11.577,4.7209,2.8708,5.7416,12.376,10.385,-1.9139,5.7143,-0.06441,-1.0207
5.624,16.114,10.55,5.7327,6.6989,7.6282,8.5486,3.764,5.7971,5.7327,6.6989,8.6504,6.6348,1.9139,5.7416,8.5486,9.4231,4.7847,0.0,-1.0306,1.8501
4.6761,3.7915,6.6667,-1.0306,0.90177,2.8205,4.7209,3.764,-5.7971,-1.0306,0.90177,3.7724,3.764,0.0,2.8708,3.764,4.6154,7.6555,0.0,1.868,-2.9346
-2.9068,-7.5829,-2.0712,-7.7939,-5.8615,-7.7564,-4.8485,-0.0638,-6.7633,-7.7939,-5.8615,-5.0081,-1.9777,-3.8278,-4.7847,-4.8485,-4.0385,4.7847,-0.95238,-2.963,-2.9346
-3.8547,-2.8436,-0.12945,-5.8615,-1.9968,-5.8333,-0.0638,-2.9346,0.0,-5.8615,-1.9968,-2.0813,-1.0207,0.0,-3.8278,-1.9777,-3.0769,0.95694,-1.9048,-2.963,6.6348
1.8325,1.8957,7.6375,-2.963,3.8003,-0.0641,5.6778,-1.9777,-0.96618,-2.963,3.8003,4.748,1.8501,3.8278,2.8708,2.807,3.6538,0.95694,0.0,1.868,6.6348
1.8325,2.8436,8.6084,2.8341,5.7327,1.859,6.6348,-0.0638,13.527,2.8341,5.7327,5.7236,2.807,4.7847,4.7847,3.764,6.5385,-6.6986,6.6667,0.90177,3.764
-0.06319,1.8957,5.6958,-1.0306,4.7665,-0.0641,4.7209,-1.0207,13.527,-1.0306,4.7665,3.7724,-1.9777,1.9139,0.95694,1.8501,3.6538,-10.526,-2.8571,1.868,1.8501
-1.0111,-2.8436,2.7832,-1.9968,4.7665,-1.0256,1.8501,-3.8915,0.0,-1.9968,4.7665,2.7967,-7.7193,-3.8278,-3.8278,-1.0207,-2.1154,-4.7847,9.5238,-7.7939,-0.0638
0.88468,1.8957,5.6958,1.868,9.5974,1.859,6.6348,-1.0207,7.7295,1.868,9.5974,5.7236,-7.7193,-2.8708,-3.8278,1.8501,-2.1154,2.8708,16.190001,-10.692,0.89314
8.4676,11.374,9.5793,3.8003,12.496,8.5897,11.419,5.6778,11.594,3.8003,12.496,11.577,-5.8054,-0.95694,0.0,5.6778,1.7308,8.6124,6.6667,-1.9968,-0.0638
8.4676,6.6351,4.7249,6.6989,6.6989,5.7051,4.7209,5.6778,-4.8309,6.6989,6.6989,5.7236,-5.8054,-2.8708,0.0,1.8501,-0.19231,7.6555,0.0,-1.0306,-5.8054
5.624,-5.6872,-1.1003,3.8003,3.8003,3.7821,-1.0207,2.807,-5.7971,3.8003,3.8003,-0.13008,-4.8485,-5.7416,0.0,-1.9777,-1.1538,-2.8708,4.7619,-1.0306,-10.59
6.5719,0.0,3.754,8.6312,8.6312,7.6282,6.6348,5.6778,0.96618,8.6312,8.6312,6.6992,1.8501,-0.95694,4.7847,-0.0638,3.6538,0.95694,-4.7619,4.7665,-3.8915
9.4155,16.114,11.521,13.462,14.428,9.5513,14.29,9.5056,18.357,13.462,14.428,12.553,7.5917,4.7847,8.6124,7.5917,10.385,4.7847,-16.190001,4.7665,3.764
7.5197,7.5829,7.6375,7.6651,8.6312,7.6282,8.5486,6.6348,19.323999,7.6651,8.6312,7.6748,3.764,0.95694,6.6986,4.7209,7.5,-2.8708,11.429,4.7665,2.807
0.88468,-7.5829,-1.1003,-0.06441,-0.06441,-1.0256,-1.9777,-0.0638,-5.7971,-0.06441,-0.06441,-1.1057,-2.9346,-1.9139,0.95694,-2.9346,0.76923,0.95694,14.286,3.8003,2.807
-1.0111,0.94787,-0.12945,1.868,2.8341,-2.9487,1.8501,0.89314,-2.8986,1.868,2.8341,-1.1057,-2.9346,0.0,-0.95694,0.89314,-1.1538,4.7847,0.95238,-1.9968,3.764
1.8325,4.7393,0.84142,4.7665,6.6989,2.8205,6.6348,3.764,-1.9324,4.7665,6.6989,4.748,-1.9777,0.0,-0.95694,2.807,-2.1154,3.8278,0.95238,-3.9291,-0.0638
-0.06319,-0.94787,-1.1003,3.8003,6.6989,2.8205,3.764,-0.0638,2.8986,3.8003,6.6989,3.7724,-3.8915,-1.9139,-4.7847,-3.8915,-5.9615,2.8708,1.9048,-5.8615,1.8501
-2.9068,-7.5829,-4.9838,0.90177,-0.06441,-2.9487,-2.9346,-1.9777,7.7295,0.90177,-0.06441,-3.0569,-7.7193,-5.7416,-8.6124,-10.59,-9.8077,-5.7416,3.8095,-8.7601,-0.0638
0.88468,4.7393,-1.1003,-4.8953,0.90177,-0.0641,0.89314,2.807,-2.8986,-4.8953,0.90177,-0.13008,-3.8915,-3.8278,-3.8278,-3.8915,-4.0385,-6.6986,-5.7143,-2.963,-2.9346
3.7283,8.5308,1.8123,-3.9291,1.868,3.7821,3.764,1.8501,-4.8309,-3.9291,1.868,1.8211,-1.0207,0.95694,-0.95694,2.807,-0.19231,-6.6986,-2.8571,-1.9968,1.8501
1.8325,1.8957,0.84142,-1.9968,-0.06441,0.89744,0.89314,-2.9346,8.6957,-1.9968,-0.06441,0.84553,-0.0638,1.9139,-0.95694,2.807,0.76923,-3.8278,0.0,-0.06441,1.8501
-1.0111,-0.94787,-1.1003,0.90177,0.90177,-1.0256,0.89314,-4.8485,7.7295,0.90177,0.90177,-0.13008,-1.0207,2.8708,-0.95694,2.807,0.76923,1.9139,6.6667,2.8341,0.89314
-4.8025,-1.8957,-3.0421,1.868,-0.06441,-2.9487,-1.9777,-5.8054,-1.9324,1.868,-0.06441,-3.0569,-1.0207,1.9139,-1.9139,1.8501,0.76923,-0.95694,7.619,-1.9968,3.764
-0.06319,0.94787,1.8123,4.7665,4.7665,1.859,3.764,0.89314,0.96618,4.7665,4.7665,2.7967,3.764,3.8278,2.8708,4.7209,5.5769,0.95694,1.9048,-2.963,8.5486
1.8325,-0.94787,1.8123,2.8341,1.868,2.8205,-0.0638,1.8501,0.96618,2.8341,1.868,1.8211,3.764,0.0,2.8708,0.89314,3.6538,0.0,0.95238,-0.06441,0.89314
1.8325,-3.7915,-0.12945,0.90177,0.90177,3.7821,0.89314,1.8501,4.8309,0.90177,0.90177,1.8211,-0.0638,-3.8278,0.95694,-4.8485,0.76923,-3.8278,-0.95238,0.90177,-6.7624
3.7283,1.8957,-0.12945,4.7665,4.7665,6.6667,5.6778,5.6778,5.7971,4.7665,4.7665,4.748,-0.0638,-3.8278,0.95694,-3.8915,-0.19231,0.95694,-4.7619,0.90177,-4.8485
1.8325,1.8957,-2.0712,1.868,3.8003,2.8205,3.764,5.6778,5.7971,1.868,3.8003,2.7967,-1.0207,-1.9139,-0.95694,-2.9346,-1.1538,10.526,-2.8571,1.868,-2.9346
-1.9589,-4.7393,-6.9256,-1.0306,-1.0306,-1.0256,-5.8054,0.89314,-0.96618,-1.0306,-1.0306,-4.0325,-1.0207,0.0,-1.9139,-4.8485,-3.0769,6.6986,-3.8095,0.90177,0.89314
-1.0111,-5.6872,-6.9256,1.868,0.90177,1.859,-6.7624,-1.0207,-1.9324,1.868,0.90177,-3.0569,2.807,3.8278,0.95694,-2.9346,-1.1538,0.0,0.95238,1.868,4.7209
3.7283,0.0,-2.0712,3.8003,7.6651,6.6667,3.764,1.8501,5.7971,3.8003,7.6651,3.7724,9.5056,6.6986,5.7416,-0.0638,2.6923,0.95694,-5.7143,5.7327,2.807
7.5197,12.322,4.7249,6.6989,10.564,6.6667,10.463,3.764,9.6618,6.6989,10.564,7.6748,14.29,10.526,12.44,8.5486,11.346,3.8278,-9.5238,8.6312,-1.0207
0.88468,-3.7915,-3.0421,0.90177,-1.9968,-3.9103,-4.8485,-2.9346,-3.8647,0.90177,-1.9968,-4.0325,7.5917,3.8278,6.6986,0.89314,5.5769,0.95694,-4.7619,5.7327,-6.7624
-0.06319,-10.427,-5.9547,-1.9968,-3.9291,-5.8333,-9.6332,-3.8915,-4.8309,-1.9968,-3.9291,-5.9837,4.7209,2.8708,3.8278,-3.8915,1.7308,0.0,-0.95238,2.8341,-1.9777
3.7283,-7.5829,-1.1003,-2.963,-2.963,-1.0256,-5.8054,-1.0207,-7.7295,-2.963,-2.963,-3.0569,4.7209,4.7847,7.6555,0.89314,5.5769,0.0,3.8095,4.7665,0.89314
2.7804,1.8957,1.8123,-0.06441,-2.963,-0.0641,-3.8915,1.8501,-4.8309,-0.06441,-2.963,-3.0569,4.7209,5.7416,7.6555,4.7209,8.4615,2.8708,-2.8571,3.8003,-1.9777
-1.9589,-2.8436,-2.0712,-1.0306,-4.8953,-2.9487,-4.8485,0.89314,-4.8309,-1.0306,-4.8953,-3.0569,2.807,3.8278,1.9139,1.8501,4.6154,3.8278,-2.8571,-1.0306,-3.8915
-5.7504,-9.4787,-4.9838,0.90177,-2.963,-3.9103,-1.9777,-0.0638,-7.7295,0.90177,-2.963,-2.0813,-0.0638,1.9139,-3.8278,-2.9346,-1.1538,1.9139,1.9048,-2.963,-3.8915
-5.7504,-2.8436,-4.0129,4.7665,1.868,-2.9487,1.8501,-0.0638,0.96618,4.7665,1.868,-0.13008,-1.0207,0.95694,-5.7416,-3.8915,-4.0385,1.9139,2.8571,-4.8953,-0.0638
-1.0111,1.8957,-1.1003,2.8341,3.8003,0.89744,3.764,-0.0638,5.7971,2.8341,3.8003,1.8211,0.89314,2.8708,-2.8708,-0.0638,-1.1538,-3.8278,0.0,-1.9968,0.89314
4.6761,3.7915,1.8123,2.8341,2.8341,3.7821,2.807,1.8501,1.9324,2.8341,2.8341,2.7967,4.7209,5.7416,2.8708,3.764,3.6538,-1.9139,-4.7619,0.90177,2.807
5.624,2.8436,3.754,0.90177,-1.0306,1.859,-1.0207,3.764,4.8309,0.90177,-1.0306,0.84553,4.7209,4.7847,3.8278,4.7209,4.6154,1.9139,0.95238,-1.9968,2.807
5.624,9.4787,6.6667,1.868,3.8003,3.7821,8.5486,3.764,15.459,1.868,3.8003,6.6992,1.8501,1.9139,1.9139,5.6778,3.6538,3.8278,-4.7619,-1.9968,-1.0207
6.5719,18.957001,9.5793,7.6651,8.6312,9.5513,16.204,5.6778,0.96618,7.6651,8.6312,12.553,2.807,3.8278,3.8278,10.463,3.6538,0.95694,-3.8095,-1.9968,-1.9777
3.7283,12.322,3.754,6.6989,4.7665,5.7051,7.5917,4.7209,3.8647,6.6989,4.7665,6.6992,0.89314,3.8278,1.9139,7.5917,1.7308,2.8708,1.9048,-1.0306,4.7209
-6.6983,-8.5308,-5.9547,-0.06441,-4.8953,-3.9103,-8.6762,-1.9777,0.0,-0.06441,-4.8953,-5.0081,-1.9777,0.0,-5.7416,-3.8915,-5.9615,-1.9139,6.6667,-1.0306,1.8501
-10.49,-16.114,-7.8964,-4.8953,-9.7262,-7.7564,-12.504,-6.7624,-13.527,-4.8953,-9.7262,-7.935,-1.9777,-0.95694,-8.6124,-8.6762,-8.8462,-10.526,4.7619,-1.0306,-2.9346
-6.6983,-8.5308,-4.9838,-5.8615,-6.8277,-2.9487,-5.8054,-4.8485,-6.7633,-5.8615,-6.8277,-2.0813,0.89314,0.95694,-5.7416,-4.8485,-5.9615,-3.8278,-0.95238,-2.963,-1.0207
-1.9589,-0.94787,-1.1003,1.868,1.868,0.89744,0.89314,-1.0207,6.7633,1.868,1.868,0.84553,0.89314,2.8708,-2.8708,-1.9777,-2.1154,0.0,0.95238,-1.0306,2.807
-4.8025,-3.7915,-4.9838,-1.0306,-2.963,-3.9103,-5.8054,-2.9346,0.96618,-1.0306,-2.963,-5.9837,-2.9346,1.9139,-5.7416,-1.9777,-5.0,-3.8278,1.9048,-6.8277,2.807
-12.385,-10.427,-10.809,-8.7601,-10.692,-11.603,-13.461,-8.6762,-17.391001,-8.7601,-10.692,-13.789,-7.7193,-0.95694,-10.526,-3.8915,-8.8462,-3.8278,0.95238,-3.9291,1.8501
-11.438,-1.8957,-6.9256,-4.8953,-2.963,-7.7564,-5.8054,-5.8054,-2.8986,-4.8953,-2.963,-7.935,-7.7193,0.95694,-8.6124,0.89314,-6.9231,-7.6555,-5.7143,-3.9291,2.807
-6.6983,5.6872,-1.1003,-0.06441,-0.06441,-2.9487,-1.9777,-1.9777,4.8309,-0.06441,-0.06441,-3.0569,-3.8915,3.8278,-3.8278,3.764,-3.0769,-3.8278,-6.6667,-5.8615,5.6778
-7.6461,-2.8436,-4.9838,-3.9291,-3.9291,-4.8718,-6.7624,-3.8915,-0.96618,-3.9291,-3.9291,-6.9593,-3.8915,0.0,-5.7416,-1.0207,-5.9615,-6.6986,0.95238,-5.8615,1.8501
-5.7504,-3.7915,-5.9547,-5.8615,-6.8277,-6.7949,-6.7624,-6.7624,-1.9324,-5.8615,-6.8277,-6.9593,-4.8485,-3.8278,-4.7847,-1.9777,-5.0,-12.44,3.8095,-6.8277,0.89314
-4.8025,0.0,-2.0712,-7.7939,-6.8277,-5.8333,-3.8915,-7.7193,-8.6957,-7.7939,-6.8277,-5.0081,-1.9777,-1.9139,-0.95694,0.89314,1.7308,0.0,10.476,-3.9291,5.6778
-3.8547,-0.94787,1.8123,-7.7939,-3.9291,-3.9103,-1.9777,-5.8054,-2.8986,-7.7939,-3.9291,-2.0813,1.8501,0.0,4.7847,3.764,6.5385,0.95694,10.476,-0.06441,4.7209
0.88468,7.5829,6.6667,1.868,2.8341,1.859,4.7209,0.89314,6.7633,1.868,2.8341,4.748,2.807,2.8708,5.7416,6.6348,8.4615,1.9139,0.95238,2.8341,3.764
0.88468,7.5829,6.6667,5.7327,1.868,2.8205,3.764,0.89314,-3.8647,5.7327,1.868,2.7967,0.89314,3.8278,2.8708,8.5486,6.5385,0.0,0.0,1.868,1.8501
-1.0111,0.0,1.8123,4.7665,-1.9968,1.859,-1.0207,-1.9777,-0.96618,4.7665,-1.9968,-0.13008,-1.0207,3.8278,-1.9139,5.6778,2.6923,-3.8278,7.619,3.8003,4.7209
-0.06319,5.6872,3.754,5.7327,2.8341,4.7436,4.7209,-0.0638,15.459,5.7327,2.8341,3.7724,1.8501,8.6124,0.0,8.5486,4.6154,-1.9139,1.9048,4.7665,8.5486
-0.06319,6.6351,2.7832,0.90177,3.8003,2.8205,4.7209,-1.9777,9.6618,0.90177,3.8003,1.8211,2.807,9.5694,1.9139,10.463,4.6154,-4.7847,-0.95238,0.90177,9.5056
-2.9068,-0.94787,-0.12945,-5.8615,-1.9968,-1.0256,-1.9777,-1.9777,3.8647,-5.8615,-1.9968,-2.0813,-0.0638,3.8278,-1.9139,2.807,-0.19231,0.95694,1.9048,-2.963,2.807
-3.8547,-3.7915,-1.1003,-2.963,-3.9291,-3.9103,-1.9777,-1.9777,-14.493,-2.963,-3.9291,-3.0569,-1.9777,-2.8708,-5.7416,-4.8485,-5.9615,0.0,0.95238,-8.7601,-1.0207
-1.9589,-0.94787,-0.12945,-1.0306,-2.963,-3.9103,-2.9346,-2.9346,-11.594,-1.0306,-2.963,-2.0813,-1.9777,-4.7847,-4.7847,-4.8485,-5.9615,-3.8278,-0.95238,-6.8277,1.8501
4.6761,0.94787,5.6958,0.90177,1.868,3.7821,0.89314,-1.0207,6.7633,0.90177,1.868,3.7724,0.89314,-0.95694,1.9139,-0.0638,-0.19231,0.95694,-5.7143,1.868,4.7209
2.7804,0.0,6.6667,-0.06441,-1.0306,1.859,0.89314,-1.0207,-0.96618,-0.06441,-1.0306,3.7724,-0.0638,-0.95694,2.8708,1.8501,2.6923,-4.7847,0.95238,4.7665,0.89314
0.88468,0.0,5.6958,-4.8953,-4.8953,-1.0256,-2.9346,-1.9777,-4.8309,-4.8953,-4.8953,0.84553,-1.0207,0.0,2.8708,3.764,4.6154,-2.8708,6.6667,1.868,-1.0207
1.8325,3.7915,7.6375,-1.0306,-2.963,-1.0256,-0.0638,-1.9777,0.96618,-1.0306,-2.963,1.8211,2.807,5.7416,3.8278,7.5917,7.5,1.9139,3.8095,1.868,5.6778
0.88468,5.6872,3.754,-1.0306,-1.0306,-0.0641,2.807,-1.9777,0.0,-1.0306,-1.0306,0.84553,3.764,7.6555,2.8708,5.6778,3.6538,7.6555,0.95238,5.7327,9.5056
-0.06319,1.8957,-1.1003,-3.9291,-0.06441,-1.0256,1.8501,-1.9777,0.0,-3.9291,-0.06441,-0.13008,1.8501,4.7847,-1.9139,1.8501,-2.1154,0.0,3.8095,4.7665,3.764
-2.9068,-4.7393,-5.9547,-5.8615,-2.963,-3.9103,-2.9346,-2.9346,0.96618,-5.8615,-2.963,-1.1057,-2.9346,-2.8708,-6.6986,-5.8054,-8.8462,-2.8708,4.7619,-1.9968,-1.9777
-2.9068,-5.6872,-4.0129,-1.9968,-1.9968,-2.9487,-1.9777,-1.0207,-5.7971,-1.9968,-1.9968,-0.13008,-2.9346,-5.7416,-4.7847,-6.7624,-8.8462,3.8278,-0.95238,-1.9968,-2.9346
-1.0111,-3.7915,-1.1003,-0.06441,-2.963,-1.9872,-1.9777,-0.0638,-3.8647,-0.06441,-2.963,-0.13008,-1.0207,-6.6986,-1.9139,-4.8485,-5.9615,0.0,-1.9048,-1.9968,-2.9346
4.6761,6.6351,6.6667,1.868,2.8341,4.7436,4.7209,4.7209,6.7633,1.868,2.8341,5.7236,2.807,-4.7847,3.8278,-0.0638,1.7308,2.8708,-0.95238,0.90177,-4.8485
10.363,18.957001,14.434,3.8003,6.6989,9.5513,10.463,9.5056,8.6957,3.8003,6.6989,10.602,7.5917,1.9139,9.5694,9.5056,9.4231,9.5694,-5.7143,8.6312,-0.0638
5.624,2.8436,6.6667,2.8341,-3.9291,1.859,-2.9346,4.7209,-2.8986,2.8341,-3.9291,0.84553,0.89314,-1.9139,3.8278,2.807,3.6538,3.8278,3.8095,7.6651,1.8501
-1.9589,-13.27,-1.1003,-0.06441,-8.7601,-5.8333,-12.504,-1.9777,-13.527,-0.06441,-8.7601,-6.9593,-3.8915,-2.8708,-3.8278,-4.8485,-3.0769,0.95694,3.8095,-1.9968,-0.0638
-1.9589,-6.6351,0.84142,0.90177,-1.9968,-2.9487,-1.9777,1.8501,-2.8986,0.90177,-1.9968,-2.0813,1.8501,2.8708,-0.95694,-1.9777,-0.19231,2.8708,-0.95238,-1.0306,1.8501
2.7804,3.7915,2.7832,5.7327,4.7665,4.7436,5.6778,9.5056,2.8986,5.7327,4.7665,4.748,7.5917,6.6986,5.7416,1.8501,3.6538,8.6124,-4.7619,6.6989,3.764
-0.06319,-1.8957,-5.9547,-0.06441,0.90177,0.89744,-1.9777,4.7209,2.8986,-0.06441,0.90177,-2.0813,1.8501,0.0,1.9139,-5.8054,-3.0769,6.6986,3.8095,5.7327,-6.7624
-1.9589,-13.27,-10.809,-3.9291,-6.8277,-1.9872,-12.504,0.89314,-4.8309,-3.9291,-6.8277,-8.9106,-5.8054,-7.6555,-2.8708,-12.504,-9.8077,-3.8278,-2.8571,5.7327,-10.59
1.8325,-7.5829,-3.0421,0.90177,-2.963,3.7821,-6.7624,4.7209,-3.8647,0.90177,-2.963,-3.0569,-3.8915,-7.6555,-0.95694,-8.6762,-6.9231,3.8278,-9.5238,-0.06441,-6.7624
4.6761,-8.5308,0.84142,3.8003,1.868,5.7051,-1.0207,7.5917,3.8647,3.8003,1.868,2.7967,-2.9346,-9.5694,-0.95694,-7.7193,-5.9615,6.6986,0.95238,-3.9291,-6.7624
10.363,7.5829,7.6375,11.53,8.6312,10.513,9.5056,13.333,11.594,11.53,8.6312,9.626,2.807,-3.8278,5.7416,0.89314,0.76923,15.311,-6.6667,4.7665,0.89314
5.624,0.0,-1.1003,4.7665,-2.963,3.7821,-2.9346,10.463,-6.7633,4.7665,-2.963,0.84553,0.89314,-2.8708,0.95694,-3.8915,-3.0769,13.397,-7.619,4.7665,0.89314
-2.9068,-14.218,-9.8382,-3.9291,-12.625,-4.8718,-12.504,2.807,-25.121,-3.9291,-12.625,-9.8862,-3.8915,-5.7416,-5.7416,-10.59,-9.8077,2.8708,-0.95238,-0.06441,-2.9346
-4.8025,-13.27,-9.8382,-4.8953,-7.7939,-4.8718,-11.547,0.89314,-10.628,-4.8953,-7.7939,-9.8862,-4.8485,-4.7847,-6.6986,-9.6332,-9.8077,0.0,-1.9048,1.868,-3.8915
-5.7504,-11.374,-9.8382,-2.963,-4.8953,-4.8718,-9.6332,0.89314,-0.96618,-2.963,-4.8953,-8.9106,-3.8915,-3.8278,-6.6986,-8.6762,-8.8462,0.95694,0.0,0.90177,-2.9346
1.8325,-0.94787,-3.0421,3.8003,3.8003,0.89744,0.89314,5.6778,0.0,3.8003,3.8003,-1.1057,-0.0638,-1.9139,0.0,-1.0207,-2.1154,-0.95694,-7.619,0.90177,-5.8054
5.624,4.7393,1.8123,3.8003,6.6989,4.7436,7.5917,3.764,9.6618,3.8003,6.6989,4.748,-1.9777,-3.8278,1.9139,0.89314,-1.1538,5.7416,-4.7619,2.8341,-7.7193
-2.9068,-9.4787,-6.9256,-2.963,-2.963,-1.9872,-4.8485,-2.9346,-1.9324,-2.963,-2.963,-4.0325,-10.59,-8.6124,-6.6986,-8.6762,-9.8077,2.8708,0.95238,1.868,-5.8054
-5.7504,-10.427,-6.9256,-1.9968,-2.963,-2.9487,-6.7624,0.89314,-7.7295,-1.9968,-2.963,-5.9837,-10.59,-6.6986,-8.6124,-6.7624,-9.8077,1.9139,-0.95238,-4.8953,-5.8054
2.7804,9.4787,3.754,5.7327,8.6312,5.7051,10.463,8.5486,2.8986,5.7327,8.6312,4.748,-2.9346,0.95694,0.0,2.807,-0.19231,11.483,-16.190001,-1.9968,-1.0207
6.5719,13.27,8.6084,11.53,13.462,8.5897,14.29,13.333,19.323999,11.53,13.462,8.6504,5.6778,7.6555,6.6986,7.5917,6.5385,13.397,-8.5714,4.7665,8.5486
-2.9068,-11.374,-6.9256,-1.9968,-3.9291,-3.9103,-6.7624,-0.0638,3.8647,-1.9968,-3.9291,-5.9837,-1.0207,-0.95694,-0.95694,-8.6762,-5.9615,0.0,5.7143,-1.0306,-2.9346
-6.6983,-19.905001,-14.693,-9.7262,-14.557,-10.641,-17.289,-7.7193,-10.628,-9.7262,-14.557,-14.764,-6.7624,-9.5694,-5.7416,-18.246,-12.692,-13.397,6.6667,-2.963,-3.8915
-1.0111,-13.27,-9.8382,-4.8953,-11.659,-6.7949,-12.504,-1.9777,-9.6618,-4.8953,-11.659,-11.837,-1.9777,-6.6986,-2.8708,-11.547,-8.8462,-10.526,-2.8571,-1.0306,-1.0207
0.88468,-9.4787,-4.9838,-5.8615,-7.7939,-1.9872,-7.7193,-1.0207,-16.424999,-5.8615,-7.7939,-5.9837,1.8501,-4.7847,0.95694,-6.7624,-4.0385,6.6986,-1.9048,5.7327,-3.8915
-1.9589,-4.7393,-4.9838,-4.8953,-4.8953,-3.9103,-6.7624,-2.9346,-8.6957,-4.8953,-4.8953,-5.9837,0.89314,-4.7847,-0.95694,-5.8054,-5.0,10.526,-5.7143,2.8341,-1.9777
-11.438,-14.218,-12.751,-6.8277,-8.7601,-10.641,-11.547,-4.8485,-14.493,-6.8277,-8.7601,-11.837,-7.7193,-12.44,-11.483,-14.418,-13.654,0.95694,-2.8571,-5.8615,-7.7193
-12.385,-6.6351,-9.8382,-6.8277,-4.8953,-7.7564,-7.7193,-1.9777,-5.7971,-6.8277,-4.8953,-8.9106,-11.547,-13.397,-12.44,-11.547,-13.654,-3.8278,-1.9048,-3.9291,-10.59
-8.594,3.7915,-4.0129,0.90177,1.868,-1.9872,1.8501,-1.0207,11.594,0.90177,1.868,-2.0813,-9.6332,-8.6124,-10.526,-4.8485,-8.8462,-8.6124,-2.8571,-5.8615,-4.8485
-6.6983,-0.94787,-2.0712,-1.9968,-1.9968,-2.9487,-1.0207,-0.0638,4.8309,-1.9968,-1.9968,-2.0813,-11.547,-10.526,-9.5694,-4.8485,-7.8846,-9.5694,-1.9048,-4.8953,-3.8915
-6.6983,-8.5308,-2.0712,-4.8953,-4.8953,-4.8718,-3.8915,-3.8915,1.9324,-4.8953,-4.8953,-5.0081,-12.504,-11.483,-8.6124,-7.7193,-7.8846,-2.8708,-0.95238,-1.9968,-5.8054
-2.9068,-4.7393,-0.12945,-2.963,-1.9968,-3.9103,-1.9777,-2.9346,0.96618,-2.963,-1.9968,-3.0569,-5.8054,-4.7847,-3.8278,-2.9346,-3.0769,2.8708,-0.95238,-1.0306,-1.9777
-1.9589,0.94787,-4.9838,-1.9968,-1.9968,-2.9487,-1.9777,-1.9777,-3.8647,-1.9968,-1.9968,-3.0569,-3.8915,-3.8278,-3.8278,-2.9346,-5.0,1.9139,-5.7143,-7.7939,-4.8485
-1.0111,1.8957,-8.8673,-1.9968,-2.963,-3.9103,-0.0638,-1.9777,-12.56,-1.9968,-2.963,-3.0569,-1.9777,-3.8278,-2.8708,-4.8485,-5.9615,-0.95694,-3.8095,-2.963,-5.8054
-1.9589,0.94787,-8.8673,-5.8615,-5.8615,-4.8718,-2.9346,-3.8915,0.0,-5.8615,-5.8615,-5.0081,-1.0207,-3.8278,-1.9139,-4.8485,-5.0,-2.8708,0.0,-1.0306,0.89314
-2.9068,-6.6351,-8.8673,-5.8615,-7.7939,-6.7949,-8.6762,-4.8485,2.8986,-5.8615,-7.7939,-7.935,-1.0207,-5.7416,-1.9139,-5.8054,-5.0,-3.8278,-3.8095,-3.9291,0.89314
0.88468,-0.94787,-3.0421,-1.0306,-3.9291,-1.9872,-3.8915,-1.9777,-1.9324,-1.0306,-3.9291,-2.0813,4.7209,-0.95694,1.9139,0.89314,-1.1538,1.9139,-10.476,1.868,4.7209
2.7804,4.7393,-2.0712,-1.0306,-1.9968,1.859,-0.0638,-0.0638,-1.9324,-1.0306,-1.9968,0.84553,7.5917,0.95694,1.9139,0.89314,-0.19231,7.6555,-10.476,7.6651,2.807
-4.8025,-16.114,-13.722,-7.7939,-5.8615,-4.8718,-8.6762,-0.0638,-3.8647,-7.7939,-5.8615,-6.9593,0.89314,-7.6555,-4.7847,-12.504,-10.769,-2.8708,7.619,2.8341,-6.7624
-5.7504,-21.801001,-13.722,-3.9291,-4.8953,-6.7949,-8.6762,-1.0207,-8.6957,-3.9291,-4.8953,-9.8862,-2.9346,-10.526,-6.6986,-17.289,-12.692,0.0,8.5714,-1.9968,-7.7193
-3.8547,-1.8957,-5.9547,-1.0306,-1.9968,-2.9487,-2.9346,-2.9346,-1.9324,-1.0306,-1.9968,-5.0081,-0.0638,-4.7847,-4.7847,-6.7624,-6.9231,4.7847,-4.7619,-1.0306,-4.8485
-5.7504,-1.8957,-3.0421,-5.8615,-2.963,-0.0641,-1.0207,-3.8915,-0.96618,-5.8615,-2.963,-2.0813,-2.9346,-2.8708,-5.7416,-3.8915,-5.0,-4.7847,-0.95238,-1.9968,-1.9777
-1.0111,-1.8957,1.8123,-3.9291,-0.06441,2.8205,2.807,-3.8915,0.96618,-3.9291,-0.06441,2.7967,-2.9346,0.95694,-1.9139,-0.0638,-1.1538,-7.6555,-2.8571,0.90177,6.6348
-1.0111,-0.94787,4.7249,-1.9968,1.868,1.859,3.764,-2.9346,4.8309,-1.9968,1.868,2.7967,-1.9777,1.9139,-0.95694,2.807,2.6923,-5.7416,4.7619,-0.06441,4.7209
0.88468,7.5829,8.6084,-0.06441,2.8341,3.7821,5.6778,-2.9346,-0.96618,-0.06441,2.8341,4.748,1.8501,5.7416,3.8278,9.5056,7.5,-1.9139,-3.8095,0.90177,3.764
1.8325,4.7393,5.6958,-0.06441,0.90177,1.859,2.807,-5.8054,2.8986,-0.06441,0.90177,2.7967,4.7209,8.6124,3.8278,9.5056,5.5769,-4.7847,6.6667,-1.0306,5.6778
2.7804,2.8436,3.754,-0.06441,1.868,1.859,2.807,-4.8485,7.7295,-0.06441,1.868,1.8211,7.5917,9.5694,4.7847,8.5486,5.5769,-1.9139,10.476,-1.9968,7.5917
5.624,7.5829,5.6958,-1.9968,1.868,3.7821,4.7209,-0.0638,-8.6957,-1.9968,1.868,3.7724,9.5056,10.526,8.6124,9.5056,8.4615,-1.9139,1.9048,5.7327,3.764
1.8325,0.94787,3.754,0.90177,-0.06441,0.89744,0.89314,-0.0638,0.96618,0.90177,-0.06441,-0.13008,5.6778,6.6986,2.8708,1.8501,2.6923,0.95694,0.95238,-1.0306,3.764
0.88468,4.7393,4.7249,3.8003,3.8003,2.8205,4.7209,0.89314,13.527,3.8003,3.8003,2.7967,5.6778,6.6986,2.8708,3.764,3.6538,3.8278,-3.8095,-0.06441,6.6348
3.7283,17.062,8.6084,6.6989,7.6651,4.7436,11.419,3.764,12.56,6.6989,7.6651,7.6748,10.463,10.526,7.6555,11.419,9.4231,2.8708,-3.8095,5.7327,4.7209
-1.9589,12.322,1.8123,2.8341,2.8341,-0.0641,4.7209,-1.0207,9.6618,2.8341,2.8341,2.7967,10.463,11.483,5.7416,10.463,7.5,0.95694,-1.9048,3.8003,1.8501
-4.8025,0.0,-4.9838,-1.9968,-1.0306,-4.8718,-1.0207,-7.7193,-2.8986,-1.9968,-1.0306,-3.0569,10.463,12.44,1.9139,4.7209,2.6923,-0.95694,2.8571,3.8003,-1.9777
-2.9068,0.94787,-2.0712,-0.06441,1.868,-2.9487,0.89314,-5.8054,-6.7633,-0.06441,1.868,-2.0813,15.247,14.354,5.7416,4.7209,4.6154,-3.8278,-5.7143,4.7665,-0.0638
0.88468,-1.8957,0.84142,-0.06441,-0.06441,0.89744,-1.0207,-4.8485,0.0,-0.06441,-0.06441,-1.1057,16.204,13.397,7.6555,3.764,6.5385,-9.5694,-2.8571,6.6989,1.8501
5.624,-0.94787,4.7249,1.868,1.868,4.7436,0.89314,-3.8915,6.7633,1.868,1.868,1.8211,15.247,12.44,9.5694,4.7209,8.4615,-10.526,7.619,7.6651,4.7209
4.6761,1.8957,7.6375,1.868,3.8003,5.7051,4.7209,-2.9346,2.8986,1.868,3.8003,6.6992,13.333,13.397,9.5694,7.5917,9.4231,-8.6124,3.8095,3.8003,9.5056
3.7283,4.7393,7.6375,3.8003,2.8341,4.7436,4.7209,-5.8054,0.0,3.8003,2.8341,5.7236,8.5486,12.44,5.7416,8.5486,9.4231,0.0,4.7619,2.8341,8.5486
5.624,8.5308,8.6084,4.7665,2.8341,3.7821,7.5917,-1.0207,-6.7633,4.7665,2.8341,4.748,7.5917,12.44,5.7416,9.5056,9.4231,5.7416,7.619,1.868,7.5917
2.7804,2.8436,4.7249,-1.0306,-0.06441,-1.0256,2.807,-2.9346,-1.9324,-1.0306,-0.06441,-0.13008,7.5917,8.6124,5.7416,6.6348,8.4615,0.95694,0.0,-0.06441,9.5056
1.8325,2.8436,4.7249,-3.9291,-0.06441,-1.9872,0.89314,-5.8054,5.7971,-3.9291,-0.06441,-1.1057,5.6778,3.8278,6.6986,5.6778,9.4231,-6.6986,5.7143,-1.0306,6.6348
1.8325,0.94787,5.6958,-1.9968,-0.06441,-1.0256,-1.0207,-3.8915,3.8647,-1.9968,-0.06441,-0.13008,4.7209,1.9139,5.7416,5.6778,8.4615,-6.6986,7.619,-1.0306,3.764
5.624,8.5308,7.6375,6.6989,3.8003,3.7821,2.807,1.8501,1.9324,6.6989,3.8003,4.748,4.7209,1.9139,7.6555,8.5486,8.4615,-2.8708,1.9048,2.8341,-1.0207
13.207,18.957001,13.463,13.462,11.53,11.474,13.333,9.5056,15.459,13.462,11.53,14.504,9.5056,2.8708,13.397,12.376,12.308,2.8708,0.0,4.7665,-2.9346
13.207,13.27,13.463,9.5974,9.5974,12.436,13.333,8.5486,8.6957,9.5974,9.5974,13.528,9.5056,1.9139,13.397,11.419,13.269,6.6986,2.8571,6.6989,1.8501
9.4155,5.6872,8.6084,3.8003,4.7665,8.5897,6.6348,3.764,4.8309,3.8003,4.7665,7.6748,6.6348,0.0,10.526,9.5056,11.346,7.6555,2.8571,3.8003,0.89314
7.5197,2.8436,6.6667,2.8341,3.8003,4.7436,3.764,-0.0638,-8.6957,2.8341,3.8003,5.7236,2.807,-1.9139,6.6986,7.5917,8.4615,4.7847,0.95238,0.90177,0.89314
6.5719,8.5308,5.6958,4.7665,4.7665,3.7821,4.7209,0.89314,4.8309,4.7665,4.7665,6.6992,1.8501,-1.9139,5.7416,8.5486,6.5385,0.95694,-0.95238,2.8341,3.764
3.7283,2.8436,1.8123,-1.0306,-0.06441,1.859,-0.0638,-2.9346,5.7971,-1.0306,-0.06441,3.7724,-0.0638,-2.8708,2.8708,4.7209,3.6538,-3.8278,0.95238,-0.06441,1.8501
-0.06319,-6.6351,-4.0129,-5.8615,-3.9291,-1.9872,-4.8485,-6.7624,-9.6618,-5.8615,-3.9291,-1.1057,-1.0207,-4.7847,-0.95694,-3.8915,-1.1538,-5.7416,5.7143,-4.8953,-3.8915
7.5197,10.427,4.7249,2.8341,5.7327,7.6282,8.5486,4.7209,6.7633,2.8341,5.7327,8.6504,5.6778,1.9139,6.6986,4.7209,5.5769,5.7416,-0.95238,2.8341,1.8501
3.7283,-2.8436,-1.1003,4.7665,1.868,2.8205,-0.0638,4.7209,2.8986,4.7665,1.868,2.7967,0.89314,-1.9139,3.8278,-0.0638,0.76923,4.7847,0.95238,4.7665,-0.0638
3.7283,-5.6872,-4.0129,7.6651,-1.0306,-0.0641,-4.8485,6.6348,-11.594,7.6651,-1.0306,-1.1057,-1.9777,-4.7847,1.9139,-3.8915,-2.1154,8.6124,0.0,5.7327,-3.8915
3.7283,-2.8436,-3.0421,3.8003,0.90177,0.89744,-1.0207,5.6778,-3.8647,3.8003,0.90177,0.84553,-1.0207,-2.8708,1.9139,-1.0207,-1.1538,7.6555,0.0,3.8003,-0.0638
-1.0111,-13.27,-7.8964,-5.8615,-3.9291,-1.9872,-6.7624,0.89314,0.0,-5.8615,-3.9291,-3.0569,-5.8054,-4.7847,-1.9139,-6.7624,-5.0,2.8708,2.8571,-1.9968,-5.8054
2.7804,-9.4787,-3.0421,-1.9968,-1.9968,2.8205,-3.8915,6.6348,-3.8647,-1.9968,-1.9968,1.8211,-4.8485,-2.8708,0.0,-5.8054,-3.0769,6.6986,-7.619,-1.0306,-7.7193
4.6761,-2.8436,0.84142,-0.06441,-0.06441,0.89744,-1.0207,8.5486,3.8647,-0.06441,-0.06441,1.8211,-2.9346,0.0,3.8278,-2.9346,-0.19231,9.5694,-9.5238,7.6651,-5.8054
1.8325,-3.7915,-2.0712,-0.06441,-1.0306,-2.9487,-3.8915,6.6348,1.9324,-0.06441,-1.0306,-3.0569,-3.8915,-0.95694,1.9139,-3.8915,-1.1538,10.526,3.8095,2.8341,-0.0638
-2.9068,0.94787,-6.9256,-1.0306,-2.963,-7.7564,-4.8485,2.807,-10.628,-1.0306,-2.963,-7.935,-2.9346,-0.95694,-1.9139,-1.0207,-3.0769,8.6124,-2.8571,-4.8953,1.8501
-6.6983,-5.6872,-8.8673,-2.963,-2.963,-7.7564,-5.8054,-2.9346,-8.6957,-2.963,-2.963,-7.935,-1.9777,0.95694,-2.8708,-1.0207,-3.0769,1.9139,-2.8571,-2.963,2.807
-7.6461,-5.6872,-6.9256,-9.7262,-4.8953,-4.8718,-4.8485,-8.6762,-5.7971,-9.7262,-4.8953,-4.0325,-0.0638,0.95694,-4.7847,-1.9777,-3.0769,-9.5694,-12.381,-4.8953,-0.0638
-2.9068,7.5829,-0.12945,-2.963,-2.963,-1.9872,-0.0638,-1.0207,-2.8986,-2.963,-2.963,-0.13008,2.807,2.8708,-0.95694,1.8501,0.76923,0.95694,-15.238,2.8341,-1.9777
-0.06319,3.7915,1.8123,0.90177,-1.9968,-0.0641,-1.0207,3.764,-0.96618,0.90177,-1.9968,0.84553,0.89314,2.8708,-0.95694,2.807,0.76923,4.7847,-1.9048,1.868,1.8501
-5.7504,-7.5829,-5.9547,-2.963,-4.8953,-2.9487,-5.8054,-0.0638,-7.7295,-2.963,-4.8953,-4.0325,-5.8054,-1.9139,-7.6555,-6.7624,-5.9615,0.95694,2.8571,-1.9968,-1.0207
-5.7504,-6.6351,-6.9256,-1.9968,-4.8953,-1.9872,-4.8485,2.807,-13.527,-1.9968,-4.8953,-4.0325,-5.8054,-2.8708,-7.6555,-6.7624,-7.8846,5.7416,0.0,-2.963,-5.8054
-1.0111,-6.6351,-1.1003,-0.06441,2.8341,5.7051,-0.0638,8.5486,7.7295,-0.06441,2.8341,1.8211,-2.9346,0.0,-5.7416,-1.0207,-5.0,8.6124,-0.95238,-3.9291,-0.0638
-2.9068,-8.5308,-5.9547,-0.06441,-3.9291,-1.9872,-7.7193,2.807,-0.96618,-0.06441,-3.9291,-5.9837,-6.7624,-4.7847,-9.5694,-6.7624,-8.8462,-5.7416,0.95238,-7.7939,-2.9346
-1.0111,-7.5829,-4.9838,0.90177,-3.9291,-3.9103,-6.7624,2.807,-3.8647,0.90177,-3.9291,-6.9593,-2.9346,-2.8708,-3.8278,-4.8485,-5.9615,-1.9139,4.7619,-2.963,-3.8915
-0.06319,-4.7393,-1.1003,-1.9968,-3.9291,-1.0256,-2.9346,1.8501,-5.7971,-1.9968,-3.9291,-4.0325,1.8501,0.95694,0.95694,-1.9777,-1.1538,2.8708,3.8095,5.7327,0.89314
-2.9068,-3.7915,-2.0712,-3.9291,-7.7939,-1.0256,-6.7624,3.764,-3.8647,-3.9291,-7.7939,-5.0081,0.89314,0.95694,-0.95694,-2.9346,-3.0769,6.6986,-6.6667,7.6651,1.8501
-5.7504,-7.5829,-4.0129,-8.7601,-10.692,-3.9103,-10.59,1.8501,-16.424999,-8.7601,-10.692,-7.935,1.8501,1.9139,-2.8708,-3.8915,-5.0,3.8278,-11.429,0.90177,1.8501
-0.06319,2.8436,1.8123,-1.9968,-5.8615,-2.9487,-3.8915,1.8501,-11.594,-1.9968,-5.8615,-4.0325,6.6348,6.6986,2.8708,2.807,1.7308,2.8708,-3.8095,3.8003,-0.0638
-1.0111,0.0,0.84142,-2.963,-6.8277,-1.9872,-3.8915,-1.0207,-7.7295,-2.963,-6.8277,-4.0325,5.6778,4.7847,1.9139,0.89314,0.76923,-1.9139,4.7619,-0.06441,0.89314
-0.06319,-6.6351,0.84142,-3.9291,-3.9291,0.89744,-3.8915,-1.0207,-4.8309,-3.9291,-3.9291,-2.0813,6.6348,4.7847,2.8708,-1.0207,-0.19231,-1.9139,5.7143,-0.06441,0.89314
3.7283,0.94787,3.754,-1.0306,-1.9968,1.859,-0.0638,-0.0638,-1.9324,-1.0306,-1.9968,0.84553,7.5917,5.7416,5.7416,1.8501,3.6538,0.95694,0.0,0.90177,6.6348
-0.06319,-1.8957,1.8123,-2.963,-4.8953,-1.9872,-1.9777,-3.8915,-1.9324,-2.963,-4.8953,-3.0569,4.7209,4.7847,1.9139,1.8501,3.6538,0.95694,2.8571,1.868,4.7209
5.624,10.427,7.6375,3.8003,2.8341,2.8205,7.5917,2.807,1.9324,3.8003,2.8341,3.7724,8.5486,10.526,6.6986,8.5486,9.4231,2.8708,-5.7143,10.564,4.7209
5.624,8.5308,4.7249,3.8003,1.868,3.7821,6.6348,3.764,-5.7971,3.8003,1.868,0.84553,4.7209,9.5694,5.7416,5.6778,6.5385,1.9139,-10.476,8.6312,1.8501
-1.0111,-2.8436,-2.0712,-1.0306,-2.963,-1.9872,-2.9346,-2.9346,-0.96618,-1.0306,-2.963,-5.0081,0.89314,5.7416,-0.95694,-0.0638,-0.19231,0.0,6.6667,-1.9968,4.7209
-3.8547,-3.7915,-4.0129,-7.7939,-3.9291,-4.8718,-6.7624,-7.7193,1.9324,-7.7939,-3.9291,-5.9837,-1.9777,2.8708,-2.8708,-1.0207,-2.1154,-5.7416,13.333,-2.963,4.7209
1.8325,11.374,3.754,-1.9968,3.8003,1.859,4.7209,-2.9346,12.56,-1.9968,3.8003,1.8211,-0.0638,3.8278,1.9139,7.5917,2.6923,0.0,-0.95238,3.8003,0.89314
1.8325,12.322,5.6958,2.8341,4.7665,2.8205,8.5486,-1.0207,8.6957,2.8341,4.7665,3.7724,0.89314,2.8708,3.8278,8.5486,4.6154,1.9139,-5.7143,0.90177,1.8501
-3.8547,-9.4787,-3.0421,-1.9968,-3.9291,-6.7949,-3.8915,-5.8054,-2.8986,-1.9968,-3.9291,-5.9837,-5.8054,-4.7847,-0.95694,-4.8485,-3.0769,-9.5694,4.7619,-1.9968,-0.0638
-4.8025,-10.427,-4.9838,-3.9291,-2.963,-7.7564,-2.9346,-5.8054,-5.7971,-3.9291,-2.963,-6.9593,-6.7624,-5.7416,-1.9139,-9.6332,-5.0,-14.354,8.5714,-4.8953,-0.0638
-0.06319,0.94787,2.7832,-0.06441,1.868,-1.0256,3.764,-2.9346,-4.8309,-0.06441,1.868,-0.13008,-2.9346,-0.95694,1.9139,-1.9777,0.76923,-3.8278,4.7619,-2.963,-1.0207
6.5719,9.4787,9.5793,3.8003,8.6312,6.6667,9.5056,1.8501,11.594,3.8003,8.6312,8.6504,0.89314,3.8278,5.7416,6.6348,7.5,5.7416,6.6667,3.8003,5.6778
8.4676,11.374,12.492,8.6312,14.428,11.474,14.29,4.7209,16.424999,8.6312,14.428,13.528,1.8501,4.7847,6.6986,10.463,9.4231,3.8278,7.619,0.90177,6.6348
4.6761,7.5829,8.6084,6.6989,11.53,6.6667,10.463,-0.0638,6.7633,6.6989,11.53,9.626,-2.9346,1.9139,0.0,4.7209,3.6538,0.0,-2.8571,-1.9968,-1.9777
0.88468,0.94787,4.7249,4.7665,6.6989,3.7821,5.6778,-4.8485,1.9324,4.7665,6.6989,6.6992,-7.7193,-3.8278,-5.7416,-2.9346,-3.0769,-7.6555,0.0,-4.8953,-5.8054
6.5719,8.5308,10.55,13.462,16.361,11.474,19.075001,5.6778,7.7295,13.462,16.361,15.48,-4.8485,-3.8278,-0.95694,0.89314,0.76923,-3.8278,9.5238,-5.8615,-2.9346
8.4676,21.801001,13.463,13.462,19.259001,14.359,22.903,4.7209,14.493,13.462,19.259001,18.407,-2.9346,-0.95694,2.8708,7.5917,4.6154,4.7847,-5.7143,-1.9968,3.764
3.7283,18.957001,6.6667,1.868,10.564,8.5897,12.376,2.807,14.493,1.868,10.564,12.553,-5.8054,0.0,0.0,7.5917,2.6923,0.95694,-3.8095,-1.0306,3.764
0.88468,8.5308,4.7249,3.8003,9.5974,4.7436,8.5486,4.7209,8.6957,3.8003,9.5974,8.6504,-5.8054,0.0,-0.95694,5.6778,3.6538,-3.8278,9.5238,-6.8277,0.89314
-1.9589,-0.94787,3.754,4.7665,4.7665,-0.0641,4.7209,-1.0207,6.7633,4.7665,4.7665,2.7967,-6.7624,-1.9139,-1.9139,4.7209,4.6154,-2.8708,11.429,-9.7262,1.8501
0.88468,2.8436,6.6667,5.7327,6.6989,0.89744,6.6348,1.8501,4.8309,5.7327,6.6989,4.748,0.89314,0.95694,4.7847,10.463,9.4231,1.9139,0.95238,0.90177,2.807
3.7283,8.5308,8.6084,7.6651,11.53,6.6667,13.333,9.5056,-1.9324,7.6651,11.53,9.626,8.5486,5.7416,8.6124,11.419,12.308,10.526,7.619,7.6651,5.6778
-0.06319,4.7393,3.754,4.7665,8.6312,3.7821,7.5917,5.6778,5.7971,4.7665,8.6312,6.6992,5.6778,1.9139,3.8278,2.807,6.5385,7.6555,7.619,3.8003,3.764
-0.06319,2.8436,2.7832,4.7665,9.5974,2.8205,6.6348,3.764,10.628,4.7665,9.5974,5.7236,1.8501,0.0,0.0,0.89314,1.7308,-1.9139,0.95238,1.868,3.764
4.6761,11.374,5.6958,3.8003,13.462,7.6282,10.463,5.6778,21.256001,3.8003,13.462,9.626,-0.0638,0.95694,1.9139,5.6778,2.6923,0.95694,4.7619,6.6989,0.89314
-1.0111,-1.8957,1.8123,0.90177,3.8003,2.8205,-0.0638,0.89314,4.8309,0.90177,3.8003,3.7724,-3.8915,-1.9139,-3.8278,-1.0207,-2.1154,1.9139,4.7619,-1.9968,-3.8915
-3.8547,-11.374,-2.0712,-1.0306,-0.06441,-3.9103,-5.8054,-2.9346,-7.7295,-1.0306,-0.06441,-4.0325,-3.8915,-2.8708,-2.8708,-3.8915,-3.0769,-4.7847,1.9048,-6.8277,-3.8915
-1.9589,-6.6351,-3.0421,-1.9968,0.90177,-5.8333,-3.8915,-1.0207,-2.8986,-1.9968,0.90177,-5.9837,-1.9777,-2.8708,0.0,-1.9777,-1.1538,0.0,0.95238,-4.8953,-1.9777
-3.8547,-4.7393,-5.9547,-1.0306,1.868,-7.7564,-1.9777,-1.0207,-5.7971,-1.0306,1.868,-5.9837,-3.8915,-4.7847,-2.8708,-1.9777,-2.1154,6.6986,0.95238,-3.9291,-1.0207
-6.6983,-3.7915,-7.8964,1.868,3.8003,-7.7564,-1.0207,-0.0638,8.6957,1.868,3.8003,-5.9837,-5.8054,-5.7416,-6.6986,-1.9777,-5.0,2.8708,3.8095,-4.8953,-3.8915
-3.8547,3.7915,-3.0421,3.8003,7.6651,-1.9872,3.764,3.764,13.527,3.8003,7.6651,-0.13008,-5.8054,-3.8278,-6.6986,-0.0638,-4.0385,-1.9139,0.95238,-4.8953,1.8501
2.7804,15.166,5.6958,3.8003,10.564,4.7436,10.463,7.5917,4.8309,3.8003,10.564,4.748,-1.9777,1.9139,-0.95694,8.5486,1.7308,3.8278,0.95238,-1.0306,5.6778
4.6761,10.427,7.6375,4.7665,7.6651,6.6667,7.5917,6.6348,0.96618,4.7665,7.6651,4.748,-0.0638,1.9139,1.9139,9.5056,5.5769,2.8708,4.7619,-0.06441,1.8501
1.8325,2.8436,3.754,-2.963,1.868,0.89744,-1.9777,-1.0207,-0.96618,-2.963,1.868,-2.0813,-1.0207,0.95694,2.8708,6.6348,4.6154,-2.8708,-2.8571,-2.963,-1.0207
3.7283,8.5308,4.7249,-0.06441,1.868,-0.0641,-0.0638,0.89314,1.9324,-0.06441,1.868,-2.0813,2.807,3.8278,6.6986,11.419,7.5,2.8708,-12.381,4.7665,-3.8915
2.7804,-0.94787,1.8123,2.8341,1.868,0.89744,-1.0207,2.807,9.6618,2.8341,1.868,-2.0813,0.89314,0.0,2.8708,3.764,2.6923,4.7847,6.6667,4.7665,-1.9777
-1.0111,-7.5829,-2.0712,-7.7939,-0.06441,-1.0256,-4.8485,-1.0207,2.8986,-7.7939,-0.06441,-4.0325,-3.8915,-5.7416,-1.9139,-5.8054,-3.0769,2.8708,14.286,3.8003,-2.9346
-1.0111,-2.8436,-1.1003,1.868,2.8341,-1.0256,-0.0638,0.89314,-0.96618,1.868,2.8341,-3.0569,-2.9346,-6.6986,-1.9139,-4.8485,-2.1154,1.9139,3.8095,2.8341,-1.9777
0.88468,0.0,2.7832,7.6651,5.7327,-0.0641,2.807,3.764,3.8647,7.6651,5.7327,-0.13008,-1.0207,-3.8278,-0.95694,-1.0207,-0.19231,-4.7847,-0.95238,0.90177,-0.0638
0.88468,1.8957,4.7249,2.8341,2.8341,1.859,1.8501,0.89314,-4.8309,2.8341,2.8341,1.8211,1.8501,0.0,0.0,2.807,2.6923,-1.9139,0.95238,-4.8953,1.8501
0.88468,9.4787,5.6958,3.8003,0.90177,3.7821,5.6778,-0.0638,-9.6618,3.8003,0.90177,4.748,4.7209,7.6555,1.9139,9.5056,6.5385,1.9139,-6.6667,-5.8615,4.7209
-1.0111,-1.8957,1.8123,-0.06441,-1.9968,1.859,1.8501,-0.0638,-4.8309,-0.06441,-1.9968,1.8211,3.764,7.6555,0.0,6.6348,4.6154,0.0,0.0,-1.9968,3.764
-5.7504,-10.427,-2.0712,-3.9291,-4.8953,-1.9872,-4.8485,-7.7193,3.8647,-3.9291,-4.8953,-2.0813,1.8501,2.8708,-3.8278,-1.0207,-0.19231,-3.8278,7.619,-4.8953,0.89314
-6.6983,-7.5829,-2.0712,-5.8615,-4.8953,-3.9103,-2.9346,-7.7193,1.9324,-5.8615,-4.8953,-2.0813,-1.0207,-1.9139,-4.7847,-4.8485,-3.0769,-10.526,2.8571,-4.8953,0.89314
-2.9068,-0.94787,0.84142,-3.9291,-3.9291,-1.0256,-1.9777,-1.9777,-3.8647,-3.9291,-3.9291,-0.13008,-1.9777,-2.8708,-2.8708,-3.8915,-2.1154,-9.5694,-1.9048,-2.963,-0.0638
-1.0111,0.94787,2.7832,1.868,-1.0306,2.8205,-0.0638,-1.9777,0.96618,1.868,-1.0306,1.8211,-0.0638,0.0,-1.9139,-0.0638,-0.19231,0.0,-3.8095,1.868,3.764
-0.06319,8.5308,3.754,1.868,0.90177,3.7821,3.764,-2.9346,-3.8647,1.868,0.90177,4.748,-0.0638,1.9139,-0.95694,2.807,-0.19231,-2.8708,-5.7143,1.868,3.764
3.7283,15.166,5.6958,-0.06441,6.6989,6.6667,11.419,-1.0207,7.7295,-0.06441,6.6989,9.626,0.89314,0.95694,0.95694,4.7209,0.76923,-1.9139,-4.7619,0.90177,0.89314
1.8325,8.5308,1.8123,1.868,4.7665,3.7821,7.5917,-1.0207,1.9324,1.868,4.7665,6.6992,-1.0207,-1.9139,0.95694,-1.0207,-2.1154,1.9139,0.0,-0.06441,-1.9777
1.8325,3.7915,0.84142,-2.963,1.868,2.8205,5.6778,-2.9346,9.6618,-2.963,1.868,5.7236,0.89314,-2.8708,2.8708,-2.9346,-1.1538,-6.6986,6.6667,3.8003,-1.9777
0.88468,-5.6872,-1.1003,-2.963,-1.9968,-1.0256,-1.0207,-2.9346,7.7295,-2.963,-1.9968,0.84553,2.807,-1.9139,1.9139,-4.8485,-1.1538,-3.8278,8.5714,-1.0306,-1.0207
-4.8025,-9.4787,-4.9838,-2.963,-7.7939,-5.8333,-9.6332,-7.7193,-2.8986,-2.963,-7.7939,-5.9837,-0.0638,-3.8278,-2.8708,-6.7624,-3.0769,-1.9139,-4.7619,-4.8953,-2.9346
0.88468,0.0,-0.12945,-3.9291,-1.9968,-1.9872,-1.0207,-4.8485,-1.9324,-3.9291,-1.9968,-1.1057,2.807,0.0,1.9139,-0.0638,2.6923,-1.9139,-4.7619,0.90177,-1.0207
1.8325,0.94787,0.84142,-1.0306,-0.06441,-1.0256,1.8501,-1.0207,-7.7295,-1.0306,-0.06441,1.8211,2.807,0.95694,2.8708,1.8501,3.6538,-1.9139,2.8571,1.868,3.764
-1.0111,-0.94787,-3.0421,-3.9291,-2.963,-1.9872,-2.9346,-1.9777,-0.96618,-3.9291,-2.963,-2.0813,0.89314,-1.9139,-0.95694,-2.9346,-1.1538,-6.6986,0.0,-1.9968,0.89314
-1.9589,-6.6351,-5.9547,-3.9291,-2.963,-2.9487,-5.8054,-1.9777,4.8309,-3.9291,-2.963,-4.0325,-1.9777,-5.7416,-1.9139,-6.7624,-4.0385,-3.8278,0.95238,-2.963,-2.9346
-0.06319,-4.7393,-4.0129,-1.0306,-1.0306,-1.0256,-4.8485,-2.9346,2.8986,-1.0306,-1.0306,-2.0813,0.89314,-4.7847,0.0,-5.8054,-2.1154,4.7847,1.9048,1.868,-3.8915
-1.0111,-6.6351,-4.9838,-3.9291,-1.0306,-1.9872,-4.8485,-1.9777,0.96618,-3.9291,-1.0306,-3.0569,0.89314,-3.8278,0.95694,-4.8485,-2.1154,1.9139,-0.95238,8.6312,-4.8485
0.88468,-0.94787,-4.0129,-5.8615,-1.0306,-1.9872,-2.9346,0.89314,-1.9324,-5.8615,-1.0306,-1.1057,0.89314,-3.8278,1.9139,-3.8915,-1.1538,2.8708,-1.9048,3.8003,-10.59
0.88468,0.0,-2.0712,-2.963,-1.0306,-1.0256,-1.9777,-0.0638,0.96618,-2.963,-1.0306,-0.13008,-0.0638,-2.8708,0.95694,-4.8485,-2.1154,2.8708,-6.6667,0.90177,-3.8915
0.88468,-4.7393,-1.1003,1.868,-0.06441,-0.0641,-0.0638,1.8501,-12.56,1.868,-0.06441,-0.13008,-1.0207,-1.9139,0.95694,-4.8485,-2.1154,0.95694,-2.8571,-0.06441,1.8501
-1.0111,-4.7393,-3.0421,-1.0306,-2.963,-1.9872,-2.9346,-1.0207,-2.8986,-1.0306,-2.963,-3.0569,-2.9346,-2.8708,-1.9139,-5.8054,-3.0769,-1.9139,3.8095,-6.8277,0.89314
-5.7504,-10.427,-7.8964,-8.7601,-7.7939,-5.8333,-8.6762,-4.8485,-3.8647,-8.7601,-7.7939,-7.935,-5.8054,-2.8708,-3.8278,-8.6762,-5.0,-3.8278,-0.95238,-0.06441,-1.9777
-3.8547,-1.8957,-3.0421,-4.8953,-2.963,-2.9487,-1.0207,-1.9777,1.9324,-4.8953,-2.963,-3.0569,-1.9777,0.0,-1.9139,-1.9777,-1.1538,1.9139,-4.7619,-0.06441,-1.0207
-4.8025,3.7915,-2.0712,-0.06441,-0.06441,-2.9487,0.89314,-1.0207,0.96618,-0.06441,-0.06441,-1.1057,-2.9346,0.0,-4.7847,-1.0207,-2.1154,2.8708,-5.7143,-5.8615,0.89314
-6.6983,-6.6351,-5.9547,-1.0306,-1.0306,-5.8333,-1.9777,-1.9777,-0.96618,-1.0306,-1.0306,-5.0081,-5.8054,-2.8708,-7.6555,-4.8485,-5.0,0.0,6.6667,-5.8615,-4.8485
-1.9589,0.94787,-2.0712,0.90177,0.90177,-2.9487,2.807,0.89314,4.8309,0.90177,0.90177,-2.0813,-0.0638,0.95694,-0.95694,-0.0638,-0.19231,0.95694,0.0,-1.9968,0.89314
-0.06319,5.6872,-1.1003,-1.9968,-2.963,0.89744,0.89314,1.8501,-4.8309,-1.9968,-2.963,-1.1057,2.807,0.95694,1.9139,0.89314,-0.19231,1.9139,-10.476,1.868,1.8501
-0.06319,3.7915,-3.0421,-1.9968,-4.8953,1.859,-1.9777,1.8501,0.0,-1.9968,-4.8953,-1.1057,0.89314,-1.9139,-0.95694,-1.0207,-2.1154,0.95694,-1.9048,1.868,-1.9777
-1.9589,-4.7393,-4.9838,-6.8277,-5.8615,-1.9872,-6.7624,-2.9346,3.8647,-6.8277,-5.8615,-5.0081,-1.9777,-0.95694,-1.9139,-3.8915,-5.0,1.9139,-2.8571,2.8341,1.8501
-1.9589,-5.6872,-4.0129,-4.8953,-4.8953,-2.9487,-4.8485,-2.9346,4.8309,-4.8953,-4.8953,-5.9837,-1.9777,0.95694,0.0,-1.0207,-2.1154,0.0,2.8571,-0.06441,1.8501
0.88468,-4.7393,-4.0129,0.90177,-4.8953,-1.9872,-4.8485,0.89314,0.0,0.90177,-4.8953,-5.0081,-2.9346,0.95694,0.95694,-0.0638,-0.19231,2.8708,5.7143,-2.963,-1.0207
3.7283,5.6872,-0.12945,5.7327,0.90177,2.8205,2.807,3.764,4.8309,5.7327,0.90177,-1.1057,-0.0638,3.8278,5.7416,7.5917,3.6538,2.8708,-0.95238,0.90177,-2.9346
1.8325,-0.94787,-2.0712,0.90177,-3.9291,1.859,-2.9346,-1.0207,0.0,0.90177,-3.9291,-3.0569,-0.0638,2.8708,2.8708,4.7209,2.6923,0.0,-1.9048,-0.06441,-1.9777
-0.06319,-3.7915,-2.0712,-3.9291,-7.7939,0.89744,-5.8054,0.89314,-12.56,-3.9291,-7.7939,-3.0569,-1.0207,1.9139,-0.95694,-0.0638,-1.1538,3.8278,0.0,-1.0306,1.8501
3.7283,4.7393,0.84142,1.868,-1.0306,2.8205,1.8501,5.6778,-1.9324,1.868,-1.0306,0.84553,3.764,5.7416,2.8708,3.764,2.6923,6.6986,-2.8571,3.8003,6.6348
5.624,2.8436,1.8123,4.7665,-1.0306,3.7821,1.8501,3.764,4.8309,4.7665,-1.0306,0.84553,6.6348,9.5694,7.6555,8.5486,5.5769,3.8278,4.7619,10.564,7.5917
6.5719,1.8957,2.7832,1.868,-0.06441,4.7436,0.89314,2.807,1.9324,1.868,-0.06441,0.84553,5.6778,7.6555,5.7416,7.5917,5.5769,-2.8708,-0.95238,2.8341,3.764
7.5197,11.374,4.7249,4.7665,2.8341,5.7051,3.764,1.8501,2.8986,4.7665,2.8341,2.7967,4.7209,4.7847,2.8708,6.6348,3.6538,4.7847,-2.8571,-1.9968,2.807
7.5197,10.427,5.6958,4.7665,4.7665,5.7051,6.6348,4.7209,11.594,4.7665,4.7665,4.748,3.764,4.7847,3.8278,6.6348,1.7308,10.526,0.95238,3.8003,0.89314
-0.06319,-7.5829,-4.0129,-0.06441,-3.9291,-1.9872,-3.8915,-1.9777,-5.7971,-0.06441,-3.9291,-3.0569,-2.9346,-1.9139,-3.8278,-5.8054,-6.9231,-0.95694,-4.7619,-1.0306,-1.0207
-0.06319,-6.6351,-4.9838,-0.06441,-4.8953,-2.9487,-3.8915,-2.9346,-9.6618,-0.06441,-4.8953,-4.0325,-2.9346,-3.8278,-2.8708,-6.7624,-6.9231,-1.9139,0.95238,0.90177,0.89314
1.8325,-3.7915,-1.1003,-1.9968,-3.9291,-1.0256,-5.8054,-2.9346,6.7633,-1.9968,-3.9291,-3.0569,-1.0207,-1.9139,0.0,-1.0207,-3.0769,-3.8278,3.8095,0.90177,-0.0638
8.4676,17.062,10.55,6.6989,8.6312,8.5897,11.419,2.807,22.222,6.6989,8.6312,8.6504,7.5917,5.7416,7.6555,9.5056,6.5385,0.95694,-5.7143,4.7665,-0.0638
3.7283,7.5829,6.6667,2.8341,5.7327,6.6667,5.6778,-0.0638,8.6957,2.8341,5.7327,5.7236,6.6348,3.8278,4.7847,3.764,3.6538,-1.9139,5.7143,1.868,0.89314
-4.8025,-12.322,-4.9838,-4.8953,-4.8953,-2.9487,-7.7193,-7.7193,-10.628,-4.8953,-4.8953,-4.0325,1.8501,-0.95694,-2.8708,-6.7624,-5.9615,-6.6986,11.429,-1.9968,0.89314
-0.06319,6.6351,-0.12945,-1.0306,1.868,0.89744,3.764,-2.9346,-9.6618,-1.0306,1.868,2.7967,5.6778,3.8278,0.95694,2.807,-1.1538,0.95694,-7.619,5.7327,-2.9346
2.7804,5.6872,3.754,2.8341,6.6989,5.7051,8.5486,0.89314,6.7633,2.8341,6.6989,6.6992,6.6348,4.7847,1.9139,5.6778,1.7308,5.7416,0.0,0.90177,1.8501
-1.9589,-7.5829,-3.0421,-0.06441,0.90177,1.859,-2.9346,-2.9346,3.8647,-0.06441,0.90177,0.84553,-1.0207,-1.9139,-4.7847,-2.9346,-4.0385,-8.6124,9.5238,-5.8615,0.89314
-1.9589,-8.5308,-4.9838,2.8341,-1.9968,2.8205,-4.8485,-0.0638,-4.8309,2.8341,-1.9968,-0.13008,-2.9346,-4.7847,-4.7847,-5.8054,-4.0385,-9.5694,4.7619,-4.8953,-1.9777
4.6761,-1.8957,1.8123,9.5974,3.8003,6.6667,2.807,4.7209,2.8986,9.5974,3.8003,4.748,-0.0638,-2.8708,1.9139,-1.9777,0.76923,6.6986,-3.8095,0.90177,-2.9346
9.4155,10.427,6.6667,8.6312,5.7327,7.6282,7.5917,8.5486,5.7971,8.6312,5.7327,7.6748,3.764,2.8708,6.6986,3.764,7.5,12.44,-7.619,3.8003,0.89314
1.8325,-7.5829,-1.1003,-1.0306,-1.0306,0.89744,-3.8915,0.89314,-3.8647,-1.0306,-1.0306,-1.1057,-1.0207,-0.95694,0.0,-4.8485,-0.19231,3.8278,0.95238,-0.06441,-1.9777
-0.06319,-9.4787,-2.0712,-0.06441,-3.9291,-1.9872,-4.8485,-2.9346,-7.7295,-0.06441,-3.9291,-3.0569,-1.9777,-0.95694,-1.9139,-5.8054,-1.1538,-4.7847,1.9048,-1.9968,-1.0207
2.7804,0.94787,2.7832,-1.0306,0.90177,0.89744,0.89314,-1.9777,0.0,-1.0306,0.90177,1.8211,-0.0638,1.9139,1.9139,1.8501,1.7308,-5.7416,-2.8571,-0.06441,2.807
3.7283,3.7915,3.754,2.8341,5.7327,2.8205,5.6778,-0.0638,9.6618,2.8341,5.7327,5.7236,2.807,2.8708,3.8278,2.807,2.6923,2.8708,-1.9048,1.868,2.807
5.624,6.6351,5.6958,9.5974,8.6312,5.7051,8.5486,4.7209,5.7971,9.5974,8.6312,7.6748,6.6348,5.7416,4.7847,5.6778,4.6154,2.8708,-1.9048,4.7665,2.807
3.7283,1.8957,3.754,1.868,2.8341,5.7051,0.89314,3.764,5.7971,1.868,2.8341,4.748,6.6348,3.8278,4.7847,2.807,3.6538,5.7416,-4.7619,9.5974,-0.0638
1.8325,-1.8957,2.7832,4.7665,0.90177,1.859,-0.0638,3.764,-0.96618,4.7665,0.90177,0.84553,7.5917,3.8278,3.8278,0.89314,3.6538,6.6986,-11.429,7.6651,0.89314
1.8325,-1.8957,2.7832,5.7327,0.90177,-0.0641,1.8501,2.807,-4.8309,5.7327,0.90177,0.84553,5.6778,2.8708,2.8708,-0.0638,3.6538,-3.8278,-5.7143,-0.06441,-3.8915
1.8325,0.94787,1.8123,0.90177,1.868,0.89744,0.89314,3.764,-2.8986,0.90177,1.868,1.8211,1.8501,0.0,0.0,-1.9777,-0.19231,-0.95694,6.6667,0.90177,-6.7624
5.624,9.4787,4.7249,6.6989,6.6989,3.7821,9.5056,6.6348,0.96618,6.6989,6.6989,6.6992,1.8501,3.8278,1.9139,3.764,0.76923,9.5694,2.8571,8.6312,3.764
-5.7504,-6.6351,-5.9547,-1.9968,-1.9968,-6.7949,-1.9777,-4.8485,0.0,-1.9968,-1.9968,-3.0569,-5.8054,-0.95694,-7.6555,-1.9777,-6.9231,1.9139,4.7619,-0.06441,6.6348
-13.333,-12.322,-12.751,-14.557,-6.8277,-11.603,-9.6332,-10.59,7.7295,-14.557,-6.8277,-8.9106,-12.504,-4.7847,-15.311,-5.8054,-12.692,-6.6986,-0.95238,-11.659,3.764
-6.6983,-0.94787,-5.9547,-4.8953,1.868,-5.8333,0.89314,-3.8915,9.6618,-4.8953,1.868,-3.0569,-6.7624,0.0,-8.6124,1.8501,-6.9231,-6.6986,1.9048,-7.7939,2.807
-7.6461,-12.322,-8.8673,-5.8615,-1.0306,-4.8718,-6.7624,-2.9346,-4.8309,-5.8615,-1.0306,-5.9837,-9.6332,-5.7416,-9.5694,-8.6762,-10.769,-4.7847,7.619,-6.8277,-3.8915
-4.8025,-11.374,-6.9256,-1.9968,-0.06441,-2.9487,-4.8485,-0.0638,-8.6957,-1.9968,-0.06441,-4.0325,-7.7193,-5.7416,-6.6986,-10.59,-9.8077,-3.8278,5.7143,-1.9968,-5.8054
-1.0111,-4.7393,-3.0421,4.7665,4.7665,-1.0256,1.8501,4.7209,8.6957,4.7665,4.7665,-0.13008,-2.9346,-2.8708,-2.8708,-6.7624,-5.9615,1.9139,3.8095,-1.0306,-2.9346
-1.9589,-5.6872,-3.0421,3.8003,2.8341,-1.9872,0.89314,4.7209,6.7633,3.8003,2.8341,-1.1057,-1.9777,-2.8708,-3.8278,-5.8054,-5.0,5.7416,-2.8571,-2.963,-4.8485
0.88468,-1.8957,-2.0712,2.8341,2.8341,-0.0641,-0.0638,5.6778,-1.9324,2.8341,2.8341,-0.13008,0.89314,0.0,-0.95694,-1.9777,-1.1538,5.7416,-8.5714,1.868,-1.9777
-1.9589,-7.5829,-4.0129,-3.9291,-0.06441,-1.9872,-4.8485,2.807,-1.9324,-3.9291,-0.06441,-4.0325,-1.9777,-2.8708,-1.9139,-2.9346,-3.0769,4.7847,-5.7143,-0.06441,-6.7624
0.88468,5.6872,0.84142,-1.0306,7.6651,0.89744,4.7209,3.764,9.6618,-1.0306,7.6651,1.8211,-1.9777,-2.8708,0.95694,0.89314,-1.1538,6.6986,-6.6667,2.8341,-3.8915
-1.0111,15.166,-0.12945,1.868,10.564,-1.9872,11.419,0.89314,4.8309,1.868,10.564,1.8211,-7.7193,-5.7416,-1.9139,-1.0207,-4.0385,1.9139,-12.381,-0.06441,-1.9777
-9.5419,-0.94787,-10.809,-4.8953,1.868,-9.6795,1.8501,-4.8485,6.7633,-4.8953,1.868,-6.9593,-15.375,-12.44,-12.44,-11.547,-15.577,-2.8708,-2.8571,-5.8615,-2.9346
-12.385,-16.114,-14.693,-9.7262,-7.7939,-11.603,-11.547,-3.8915,0.96618,-9.7262,-7.7939,-12.813,-15.375,-10.526,-16.268,-14.418,-19.423,-8.6124,7.619,-7.7939,-0.0638
-10.49,-16.114,-10.809,-10.692,-7.7939,-9.6795,-9.6332,-3.8915,-0.96618,-10.692,-7.7939,-11.837,-9.6332,-4.7847,-12.44,-9.6332,-12.692,-7.6555,8.5714,-5.8615,-0.0638
-7.6461,-9.4787,-6.9256,-7.7939,-5.8615,-6.7949,-7.7193,-3.8915,-0.96618,-7.7939,-5.8615,-8.9106,-4.8485,-0.95694,-7.6555,-5.8054,-7.8846,1.9139,0.95238,-1.0306,-2.9346
0.88468,0.94787,1.8123,1.868,-0.06441,-0.0641,2.807,3.764,-15.459,1.868,-0.06441,-0.13008,3.764,6.6986,1.9139,1.8501,0.76923,6.6986,-4.7619,4.7665,2.807
1.8325,0.94787,3.754,3.8003,0.90177,1.859,3.764,4.7209,-8.6957,3.8003,0.90177,1.8211,8.5486,8.6124,5.7416,3.764,5.5769,5.7416,-0.95238,3.8003,0.89314
-3.8547,-14.218,-4.9838,-4.8953,-8.7601,-2.9487,-9.6332,-1.9777,-3.8647,-4.8953,-8.7601,-6.9593,4.7209,1.9139,1.9139,-4.8485,-0.19231,0.0,0.0,0.90177,0.89314
-1.9589,-12.322,-4.0129,-4.8953,-9.7262,-1.9872,-10.59,-2.9346,-3.8647,-4.8953,-9.7262,-5.9837,3.764,0.0,1.9139,-4.8485,-1.1538,0.0,0.0,0.90177,2.807
-1.0111,-5.6872,-2.0712,-4.8953,-6.8277,-1.9872,-5.8054,-1.9777,-3.8647,-4.8953,-6.8277,-4.0325,2.807,0.0,2.8708,-1.9777,-0.19231,-2.8708,-2.8571,1.868,0.89314
-1.9589,1.8957,-0.12945,-3.9291,-3.9291,-1.9872,-1.9777,-2.9346,-1.9324,-3.9291,-3.9291,-3.0569,1.8501,0.0,3.8278,1.8501,2.6923,-4.7847,-4.7619,2.8341,1.8501
-0.06319,4.7393,1.8123,-1.9968,-4.8953,-2.9487,-2.9346,-2.9346,-4.8309,-1.9968,-4.8953,-4.0325,3.764,1.9139,5.7416,5.6778,5.5769,-3.8278,-2.8571,2.8341,4.7209
-0.06319,-0.94787,-0.12945,-4.8953,-4.8953,-3.9103,-4.8485,-1.9777,-5.7971,-4.8953,-4.8953,-5.9837,1.8501,0.0,2.8708,2.807,3.6538,-1.9139,2.8571,0.90177,3.764
3.7283,5.6872,4.7249,1.868,3.8003,4.7436,4.7209,2.807,-1.9324,1.868,3.8003,2.7967,1.8501,0.95694,3.8278,4.7209,3.6538,1.9139,-0.95238,1.868,1.8501
4.6761,10.427,6.6667,9.5974,7.6651,7.6282,9.5056,4.7209,8.6957,9.5974,7.6651,6.6992,1.8501,1.9139,1.9139,4.7209,2.6923,6.6986,-4.7619,2.8341,-0.0638
-0.06319,2.8436,2.7832,4.7665,-0.06441,4.7436,1.8501,1.8501,8.6957,4.7665,-0.06441,3.7724,-1.0207,0.0,-1.9139,0.89314,-0.19231,2.8708,-0.95238,0.90177,-1.0207
-1.9589,-2.8436,1.8123,0.90177,-2.963,-0.0641,-2.9346,-1.9777,-1.9324,0.90177,-2.963,-0.13008,1.8501,0.95694,0.0,-1.9777,-0.19231,-0.95694,-1.9048,0.90177,3.764
-1.9589,-0.94787,2.7832,0.90177,-1.9968,-1.9872,-1.9777,-2.9346,3.8647,0.90177,-1.9968,-1.1057,4.7209,1.9139,1.9139,0.89314,2.6923,-5.7416,-0.95238,-1.0306,2.807
-0.06319,4.7393,5.6958,2.8341,-0.06441,0.89744,-0.0638,-1.0207,-10.628,2.8341,-0.06441,0.84553,4.7209,0.95694,4.7847,3.764,6.5385,-4.7847,-0.95238,0.90177,-1.0207
0.88468,2.8436,5.6958,0.90177,-1.0306,2.8205,-0.0638,-2.9346,-3.8647,0.90177,-1.0306,2.7967,2.807,-0.95694,2.8708,1.8501,4.6154,-7.6555,3.8095,-2.963,-1.0207
0.88468,-2.8436,4.7249,1.868,-0.06441,2.8205,1.8501,-1.9777,4.8309,1.868,-0.06441,4.748,0.89314,-2.8708,0.95694,-1.9777,1.7308,-10.526,5.7143,-7.7939,-0.0638
5.624,0.94787,7.6375,6.6989,2.8341,5.7051,4.7209,3.764,12.56,6.6989,2.8341,7.6748,3.764,0.0,4.7847,0.89314,4.6154,4.7847,2.8571,-0.06441,0.89314
6.5719,-1.8957,5.6958,2.8341,0.90177,5.7051,-0.0638,4.7209,2.8986,2.8341,0.90177,5.7236,6.6348,0.95694,6.6986,0.89314,5.5769,8.6124,12.381,4.7665,1.8501
3.7283,-1.8957,1.8123,-1.9968,-3.9291,0.89744,-5.8054,0.89314,-8.6957,-1.9968,-3.9291,-0.13008,1.8501,-2.8708,2.8708,-1.0207,2.6923,-3.8278,6.6667,3.8003,-4.8485
0.88468,1.8957,2.7832,-2.963,-5.8615,-1.0256,-3.8915,-0.0638,-6.7633,-2.963,-5.8615,-0.13008,0.89314,-0.95694,1.9139,1.8501,2.6923,-0.95694,-4.7619,-0.06441,-2.9346
-0.06319,-1.8957,1.8123,1.868,-3.9291,-0.0641,-1.9777,0.89314,-4.8309,1.868,-3.9291,0.84553,1.8501,0.95694,0.95694,-0.0638,2.6923,-2.8708,0.95238,-1.0306,0.89314
4.6761,5.6872,5.6958,7.6651,7.6651,6.6667,8.5486,5.6778,6.7633,7.6651,7.6651,7.6748,6.6348,4.7847,4.7847,2.807,6.5385,0.95694,-1.9048,2.8341,1.8501
0.88468,0.94787,4.7249,4.7665,6.6989,4.7436,4.7209,1.8501,10.628,4.7665,6.6989,4.748,4.7209,1.9139,1.9139,-0.0638,3.6538,2.8708,0.0,-1.0306,-0.0638
-1.0111,-1.8957,2.7832,-0.06441,0.90177,2.8205,-1.9777,-1.9777,7.7295,-0.06441,0.90177,1.8211,2.807,1.9139,0.95694,-1.0207,0.76923,-0.95694,5.7143,1.868,2.807
-0.06319,0.0,1.8123,-0.06441,-1.0306,1.859,-1.0207,-1.9777,1.9324,-0.06441,-1.0306,1.8211,2.807,2.8708,1.9139,-0.0638,0.76923,-6.6986,9.5238,-1.0306,1.8501
5.624,11.374,8.6084,6.6989,3.8003,3.7821,8.5486,3.764,9.6618,6.6989,3.8003,7.6748,5.6778,5.7416,6.6986,6.6348,4.6154,1.9139,8.5714,3.8003,7.5917
3.7283,4.7393,5.6958,4.7665,1.868,0.89744,5.6778,1.8501,3.8647,4.7665,1.868,4.748,2.807,2.8708,2.8708,3.764,1.7308,4.7847,7.619,4.7665,6.6348
-0.06319,0.0,0.84142,-1.0306,-2.963,-2.9487,-0.0638,0.89314,1.9324,-1.0306,-2.963,-0.13008,-0.0638,0.95694,-1.9139,0.89314,-0.19231,3.8278,9.5238,-1.0306,-1.0207
2.7804,8.5308,5.6958,-0.06441,-1.9968,-0.0641,4.7209,3.764,-7.7295,-0.06441,-1.9968,1.8211,4.7209,5.7416,2.8708,5.6778,4.6154,7.6555,2.8571,4.7665,4.7209
1.8325,3.7915,5.6958,1.868,-2.963,1.859,0.89314,3.764,-8.6957,1.868,-2.963,0.84553,3.764,5.7416,2.8708,4.7209,4.6154,3.8278,0.95238,5.7327,1.8501
3.7283,2.8436,6.6667,1.868,-0.06441,3.7821,2.807,5.6778,4.8309,1.868,-0.06441,2.7967,3.764,3.8278,2.8708,4.7209,5.5769,2.8708,0.95238,2.8341,-3.8915
10.363,6.6351,8.6084,2.8341,0.90177,8.5897,4.7209,7.5917,0.0,2.8341,0.90177,4.748,7.5917,4.7847,7.6555,4.7209,8.4615,4.7847,-8.5714,2.8341,0.89314
8.4676,-6.6351,1.8123,0.90177,-1.9968,6.6667,-1.9777,4.7209,-4.8309,0.90177,-1.9968,0.84553,3.764,1.9139,5.7416,-1.0207,3.6538,-1.9139,-3.8095,1.868,0.89314
12.259,-1.8957,4.7249,4.7665,2.8341,10.513,0.89314,6.6348,3.8647,4.7665,2.8341,3.7724,3.764,3.8278,8.6124,3.764,6.5385,4.7847,1.9048,4.7665,0.89314
16.997999,18.957001,15.405,10.564,8.6312,17.243999,15.247,9.5056,6.7633,10.564,8.6312,14.504,7.5917,8.6124,13.397,14.29,14.231,10.526,3.8095,4.7665,4.7209
12.259,16.114,13.463,8.6312,6.6989,12.436,13.333,5.6778,13.527,8.6312,6.6989,12.553,4.7209,6.6986,10.526,12.376,12.308,10.526,6.6667,1.868,6.6348
1.8325,1.8957,3.754,1.868,0.90177,1.859,3.764,-1.9777,9.6618,1.868,0.90177,2.7967,-1.0207,0.95694,2.8708,2.807,2.6923,0.0,7.619,-1.0306,2.807
-1.9589,1.8957,-2.0712,-0.06441,-1.0306,-1.9872,2.807,-4.8485,2.8986,-0.06441,-1.0306,-2.0813,-4.8485,0.0,-1.9139,-1.0207,-2.1154,-4.7847,2.8571,1.868,-0.0638
-2.9068,3.7915,-4.0129,-1.0306,-1.0306,-1.0256,2.807,-4.8485,1.9324,-1.0306,-1.0306,-2.0813,-4.8485,-1.9139,-5.7416,-1.9777,-4.0385,-8.6124,1.9048,-4.8953,-1.0207
-1.9589,-4.7393,-4.0129,-5.8615,-2.963,-0.0641,-3.8915,-6.7624,-5.7971,-5.8615,-2.963,-4.0325,-4.8485,-4.7847,-7.6555,-1.0207,-5.0,-15.311,4.7619,-8.7601,-5.8054
7.5197,2.8436,7.6375,0.90177,1.868,9.5513,1.8501,0.89314,3.8647,0.90177,1.868,4.748,4.7209,2.8708,3.8278,8.5486,5.5769,1.9139,0.95238,1.868,0.89314
12.259,10.427,14.434,8.6312,2.8341,13.397,7.5917,10.463,-5.7971,8.6312,2.8341,9.626,8.5486,6.6986,8.6124,12.376,11.346,8.6124,-2.8571,5.7327,5.6778
13.207,6.6351,11.521,7.6651,-1.9968,11.474,1.8501,11.419,-9.6618,7.6651,-1.9968,6.6992,4.7209,4.7847,10.526,9.5056,10.385,8.6124,-4.7619,6.6989,2.807
14.155,4.7393,10.55,5.7327,-1.9968,10.513,0.89314,10.463,-2.8986,5.7327,-1.9968,5.7236,3.764,6.6986,11.483,8.5486,10.385,11.483,-1.9048,5.7327,2.807
13.207,10.427,12.492,5.7327,2.8341,12.436,6.6348,9.5056,2.8986,5.7327,2.8341,9.626,4.7209,8.6124,10.526,11.419,11.346,3.8278,0.0,2.8341,5.6778
6.5719,6.6351,7.6375,4.7665,1.868,6.6667,3.764,4.7209,1.9324,4.7665,1.868,4.748,0.89314,4.7847,3.8278,6.6348,6.5385,-0.95694,-1.9048,-1.0306,2.807
-2.9068,-2.8436,-1.1003,-0.06441,-2.963,1.859,-3.8915,0.89314,-2.8986,-0.06441,-2.963,-2.0813,-4.8485,-0.95694,-3.8278,-1.9777,-2.1154,-0.95694,-1.9048,-2.963,-1.0207
-8.594,-7.5829,-6.9256,-10.692,-5.8615,-1.9872,-6.7624,-3.8915,-0.96618,-10.692,-5.8615,-5.0081,-8.6762,-3.8278,-10.526,-6.7624,-7.8846,-7.6555,2.8571,-7.7939,-0.0638
-1.9589,1.8957,-2.0712,-5.8615,-0.06441,1.859,0.89314,-1.0207,3.8647,-5.8615,-0.06441,1.8211,-4.8485,-2.8708,-6.6986,-1.0207,-4.0385,0.0,-4.7619,-3.9291,-2.9346
6.5719,6.6351,4.7249,5.7327,4.7665,6.6667,6.6348,3.764,1.9324,5.7327,4.7665,8.6504,-2.9346,-4.7847,0.0,3.764,0.76923,10.526,-1.9048,7.6651,-3.8915
8.4676,1.8957,6.6667,9.5974,1.868,7.6282,3.764,8.5486,2.8986,9.5974,1.868,9.626,-3.8915,-5.7416,0.0,2.807,-0.19231,7.6555,9.5238,1.868,-1.0207
12.259,2.8436,9.5793,11.53,1.868,11.474,3.764,13.333,1.9324,11.53,1.868,11.577,0.89314,0.0,4.7847,4.7209,3.6538,10.526,4.7619,1.868,1.8501
13.207,6.6351,12.492,11.53,2.8341,12.436,6.6348,12.376,5.7971,11.53,2.8341,13.528,6.6348,5.7416,10.526,7.5917,9.4231,4.7847,-8.5714,9.5974,5.6778
8.4676,6.6351,8.6084,3.8003,1.868,9.5513,4.7209,9.5056,6.7633,3.8003,1.868,10.602,6.6348,5.7416,6.6986,5.6778,7.5,3.8278,-5.7143,5.7327,1.8501
0.88468,0.0,1.8123,-1.0306,-1.9968,2.8205,-0.0638,3.764,-3.8647,-1.0306,-1.9968,5.7236,3.764,2.8708,0.95694,0.89314,0.76923,11.483,2.8571,3.8003,-2.9346
-2.9068,-5.6872,-3.0421,-1.9968,-3.9291,-1.9872,-1.9777,-0.0638,-5.7971,-1.9968,-3.9291,2.7967,1.8501,0.0,-0.95694,-4.8485,-3.0769,8.6124,3.8095,1.868,-1.0207
-3.8547,-4.7393,-4.0129,-1.9968,-1.0306,-2.9487,-1.0207,-1.0207,-0.96618,-1.9968,-1.0306,2.7967,3.764,-0.95694,-0.95694,-5.8054,-3.0769,6.6986,1.9048,0.90177,-1.9777
-5.7504,-4.7393,-5.9547,-1.9968,-2.963,-6.7949,-1.9777,-1.0207,-4.8309,-1.9968,-2.963,-1.1057,1.8501,-2.8708,-2.8708,-8.6762,-6.9231,0.95694,1.9048,-2.963,-2.9346
-9.5419,-9.4787,-11.78,-6.8277,-4.8953,-9.6795,-4.8485,-3.8915,-0.96618,-6.8277,-4.8953,-5.9837,-2.9346,-6.6986,-9.5694,-17.289,-15.577,-6.6986,-0.95238,-9.7262,-5.8054
-11.438,-9.4787,-16.634001,-8.7601,-4.8953,-11.603,-6.7624,-4.8485,1.9324,-8.7601,-4.8953,-8.9106,-7.7193,-7.6555,-17.225,-20.159,-21.346001,-6.6986,1.9048,-11.659,-5.8054
-13.333,-11.374,-18.576,-10.692,-4.8953,-13.526,-6.7624,-7.7193,1.9324,-10.692,-4.8953,-9.8862,-11.547,-7.6555,-20.096001,-19.202999,-24.231001,-5.7416,-7.619,-10.692,-6.7624
-10.49,-5.6872,-12.751,-8.7601,-1.0306,-10.641,-2.9346,-7.7193,10.628,-8.7601,-1.0306,-5.9837,-10.59,-3.8278,-16.268,-9.6332,-18.462,-6.6986,-2.8571,-9.7262,-1.9777
-14.281,-6.6351,-11.78,-10.692,-5.8615,-13.526,-5.8054,-10.59,-2.8986,-10.692,-5.8615,-7.935,-10.59,-3.8278,-15.311,-5.8054,-15.577,-5.7416,5.7143,-4.8953,-0.0638
-18.073,-9.4787,-15.663,-15.523,-8.7601,-17.372,-8.6762,-10.59,-6.7633,-15.523,-8.7601,-10.862,-11.547,-4.7847,-16.268,-6.7624,-16.538,-7.6555,-0.95238,-2.963,-1.0207
-16.177,-4.7393,-12.751,-9.7262,-1.9968,-11.603,-2.9346,-4.8485,0.96618,-9.7262,-1.9968,-6.9593,-10.59,-1.9139,-14.354,-2.9346,-13.654,-4.7847,-1.9048,-4.8953,1.8501
-16.177,-9.4787,-16.634001,-9.7262,-9.7262,-13.526,-11.547,-5.8054,-6.7633,-9.7262,-9.7262,-13.789,-11.547,-4.7847,-13.397,-6.7624,-14.615,0.95694,-4.7619,-8.7601,-1.9777
-6.6983,-7.5829,-10.809,-4.8953,-9.7262,-10.641,-10.59,-1.0207,-5.7971,-4.8953,-9.7262,-11.837,-2.9346,-1.9139,-2.8708,-4.8485,-6.9231,8.6124,-1.9048,-1.0306,-1.0207
-0.06319,-5.6872,-4.9838,-4.8953,-7.7939,-4.8718,-8.6762,0.89314,-2.8986,-4.8953,-7.7939,-8.9106,-0.0638,-0.95694,2.8708,-4.8485,-2.1154,3.8278,-1.9048,0.90177,-2.9346
5.624,-2.8436,-0.12945,-2.963,-1.9968,-1.0256,-2.9346,0.89314,0.96618,-2.963,-1.9968,-3.0569,-1.9777,-3.8278,2.8708,-4.8485,-0.19231,-0.95694,-1.9048,0.90177,-5.8054
5.624,0.0,2.7832,-0.06441,1.868,0.89744,1.8501,0.89314,0.96618,-0.06441,1.868,0.84553,-1.9777,-2.8708,3.8278,-1.0207,2.6923,-3.8278,5.7143,-2.963,-1.9777
-0.06319,-1.8957,-0.12945,-3.9291,-1.0306,-2.9487,-4.8485,-4.8485,0.0,-3.9291,-1.0306,-4.0325,-2.9346,-0.95694,1.9139,1.8501,2.6923,-8.6124,2.8571,-6.8277,0.89314
-4.8025,-0.94787,-1.1003,-7.7939,-5.8615,-9.6795,-9.6332,-10.59,-0.96618,-7.7939,-5.8615,-9.8862,-1.0207,1.9139,0.95694,6.6348,4.6154,-12.44,2.8571,-5.8615,3.764
-0.06319,6.6351,3.754,-9.7262,-3.9291,-8.7179,-3.8915,-11.547,2.8986,-9.7262,-3.9291,-7.935,5.6778,7.6555,4.7847,11.419,9.4231,-6.6986,4.7619,2.8341,7.5917
-2.9068,3.7915,-2.0712,-12.625,-6.8277,-11.603,-6.7624,-15.375,0.0,-12.625,-6.8277,-10.862,4.7209,4.7847,0.0,6.6348,4.6154,-8.6124,-0.95238,0.90177,8.5486
-7.6461,-1.8957,-7.8964,-12.625,-12.625,-14.487,-10.59,-17.289,-11.594,-12.625,-12.625,-13.789,1.8501,2.8708,-3.8278,1.8501,-0.19231,-13.397,-1.9048,-1.9968,5.6778
-2.9068,-1.8957,-3.0421,-10.692,-12.625,-7.7564,-7.7193,-13.461,-14.493,-10.692,-12.625,-8.9106,3.764,5.7416,0.0,2.807,2.6923,-17.225,-8.5714,3.8003,7.5917
2.7804,-1.8957,1.8123,-4.8953,-6.8277,-3.9103,-4.8485,-9.6332,-6.7633,-4.8953,-6.8277,-5.0081,5.6778,7.6555,4.7847,5.6778,6.5385,-12.44,-8.5714,4.7665,7.5917
3.7283,-0.94787,3.754,1.868,-1.0306,-1.9872,-1.9777,-4.8485,-0.96618,1.868,-1.0306,-3.0569,7.5917,8.6124,6.6986,8.5486,8.4615,1.9139,-3.8095,6.6989,5.6778
2.7804,0.94787,3.754,3.8003,3.8003,-1.0256,-0.0638,-1.9777,0.96618,3.8003,3.8003,-1.1057,8.5486,8.6124,5.7416,9.5056,9.4231,6.6986,-13.333,8.6312,2.807
1.8325,1.8957,3.754,3.8003,4.7665,-0.0641,2.807,-1.9777,-1.9324,3.8003,4.7665,-0.13008,8.5486,8.6124,4.7847,8.5486,9.4231,2.8708,-13.333,11.53,1.8501
4.6761,6.6351,7.6375,2.8341,7.6651,4.7436,7.5917,0.89314,1.9324,2.8341,7.6651,4.748,9.5056,7.6555,7.6555,8.5486,10.385,6.6986,-8.5714,16.361,1.8501
4.6761,8.5308,9.5793,4.7665,10.564,7.6282,11.419,1.8501,6.7633,4.7665,10.564,7.6748,4.7209,0.95694,3.8278,2.807,6.5385,-0.95694,-12.381,1.868,-2.9346
6.5719,9.4787,12.492,9.5974,12.496,11.474,13.333,-0.0638,11.594,9.5974,12.496,9.626,1.8501,-1.9139,3.8278,-1.9777,4.6154,-7.6555,-7.619,-7.7939,-4.8485
10.363,8.5308,12.492,10.564,10.564,12.436,11.419,-0.0638,11.594,10.564,10.564,9.626,2.807,-1.9139,8.6124,-4.8485,4.6154,-11.483,-3.8095,-4.8953,-3.8915
12.259,3.7915,10.55,10.564,7.6651,11.474,6.6348,0.89314,3.8647,10.564,7.6651,9.626,4.7209,-0.95694,11.483,-7.7193,4.6154,-0.95694,-3.8095,-0.06441,-3.8915
13.207,3.7915,10.55,10.564,4.7665,11.474,6.6348,0.89314,1.9324,10.564,4.7665,10.602,8.5486,1.9139,15.311,-4.8485,7.5,6.6986,-3.8095,4.7665,-0.0638
12.259,4.7393,11.521,7.6651,2.8341,12.436,7.5917,1.8501,0.96618,7.6651,2.8341,11.577,9.5056,2.8708,13.397,1.8501,9.4231,1.9139,-3.8095,5.7327,-1.0207
16.051001,12.322,18.316999,14.428,7.6651,20.128,18.118,10.463,-1.9324,14.428,7.6651,21.333,13.333,6.6986,14.354,11.419,14.231,4.7847,1.9048,12.496,2.807
11.311,13.27,16.375,13.462,7.6651,19.167,18.118,10.463,3.8647,13.462,7.6651,22.309,12.376,3.8278,8.6124,10.463,10.385,7.6555,-0.95238,8.6312,0.89314
4.6761,9.4787,10.55,9.5974,3.8003,12.436,11.419,4.7209,2.8986,9.5974,3.8003,17.431,11.419,2.8708,3.8278,7.5917,5.5769,1.9139,-5.7143,3.8003,-1.9777
1.8325,7.5829,4.7249,5.7327,2.8341,6.6667,7.5917,2.807,-1.9324,5.7327,2.8341,13.528,7.5917,3.8278,4.7847,7.5917,3.6538,5.7416,2.8571,3.8003,-0.0638
3.7283,7.5829,2.7832,1.868,0.90177,4.7436,3.764,2.807,-1.9324,1.868,0.90177,10.602,6.6348,7.6555,10.526,10.463,5.5769,8.6124,7.619,7.6651,3.764
2.7804,7.5829,0.84142,-0.06441,1.868,-0.0641,0.89314,4.7209,-0.96618,-0.06441,1.868,5.7236,9.5056,11.483,13.397,12.376,7.5,5.7416,2.8571,8.6312,5.6778
0.88468,4.7393,-0.12945,4.7665,3.8003,-1.9872,-0.0638,6.6348,2.8986,4.7665,3.8003,2.7967,12.376,13.397,12.44,9.5056,7.5,7.6555,3.8095,5.7327,5.6778
-0.06319,-0.94787,-2.0712,3.8003,0.90177,-2.9487,-0.0638,4.7209,2.8986,3.8003,0.90177,1.8211,6.6348,8.6124,7.6555,1.8501,3.6538,4.7847,4.7619,5.7327,2.807
-1.9589,-2.8436,-2.0712,-1.0306,-0.06441,-0.0641,0.89314,2.807,0.96618,-1.0306,-0.06441,3.7724,0.89314,3.8278,0.95694,-1.9777,0.76923,-1.9139,5.7143,-2.963,0.89314
-1.9589,-0.94787,-0.12945,-1.0306,0.90177,1.859,3.764,1.8501,2.8986,-1.0306,0.90177,6.6992,-0.0638,0.95694,-2.8708,-1.0207,-0.19231,-1.9139,0.95238,-8.7601,-0.0638
-0.06319,2.8436,1.8123,-2.963,0.90177,2.8205,4.7209,2.807,0.96618,-2.963,0.90177,7.6748,-3.8915,-3.8278,-6.6986,0.89314,-0.19231,3.8278,2.8571,-10.692,-2.9346
1.8325,5.6872,0.84142,-4.8953,-2.963,2.8205,3.764,5.6778,0.0,-4.8953,-2.963,6.6992,-5.8054,-5.7416,-7.6555,1.8501,-3.0769,7.6555,4.7619,-5.8615,-2.9346
-1.0111,5.6872,-3.0421,-0.06441,-3.9291,-0.0641,1.8501,6.6348,-0.96618,-0.06441,-3.9291,3.7724,-6.7624,-8.6124,-8.6124,-1.9777,-7.8846,4.7847,2.8571,-1.9968,-3.8915
-6.6983,-2.8436,-12.751,-1.0306,-2.963,-6.7949,-3.8915,4.7209,-2.8986,-1.0306,-2.963,-4.0325,-9.6332,-11.483,-11.483,-11.547,-14.615,1.9139,3.8095,-6.8277,-5.8054
-10.49,-13.27,-21.489,-5.8615,-4.8953,-13.526,-10.59,-0.0638,-1.9324,-5.8615,-4.8953,-12.813,-12.504,-13.397,-11.483,-18.246,-19.423,3.8278,4.7619,-5.8615,-6.7624
-10.49,-16.114,-22.459999,-8.7601,-5.8615,-13.526,-12.504,-0.0638,0.96618,-8.7601,-5.8615,-14.764,-13.461,-14.354,-9.5694,-20.159,-18.462,8.6124,1.9048,-4.8953,-6.7624
-9.5419,-14.218,-18.576,-7.7939,-3.9291,-9.6795,-9.6332,1.8501,-1.9324,-7.7939,-3.9291,-11.837,-11.547,-11.483,-7.6555,-16.332001,-13.654,7.6555,4.7619,-3.9291,-4.8485
-6.6983,-7.5829,-9.8382,-4.8953,-1.0306,-5.8333,-4.8485,3.764,2.8986,-4.8953,-1.0306,-5.9837,-7.7193,-5.7416,-2.8708,-6.7624,-5.9615,5.7416,7.619,0.90177,-0.0638
-7.6461,-1.8957,-4.0129,-6.8277,-1.9968,-4.8718,-1.9777,-0.0638,0.96618,-6.8277,-1.9968,-4.0325,-6.7624,-3.8278,-3.8278,-1.0207,-3.0769,-5.7416,6.6667,-4.8953,1.8501
-7.6461,1.8957,0.84142,-5.8615,-1.9968,-6.7949,-2.9346,-4.8485,-1.9324,-5.8615,-1.9968,-5.0081,-6.7624,-2.8708,-2.8708,3.764,-1.1538,-7.6555,4.7619,-2.963,3.764
-6.6983,2.8436,1.8123,-3.9291,-0.06441,-6.7949,-1.9777,-6.7624,-0.96618,-3.9291,-0.06441,-5.9837,-5.8054,-2.8708,-1.9139,5.6778,1.7308,-6.6986,2.8571,-0.06441,2.807
-10.49,0.0,-3.0421,-6.8277,-1.0306,-9.6795,-4.8485,-8.6762,0.0,-6.8277,-1.0306,-10.862,-6.7624,-4.7847,-3.8278,4.7209,-0.19231,-10.526,5.7143,-3.9291,0.89314
-8.594,0.94787,-5.9547,-10.692,1.868,-6.7949,-1.9777,-6.7624,4.8309,-10.692,1.868,-8.9106,-4.8485,-1.9139,-2.8708,6.6348,0.76923,-5.7416,4.7619,-1.0306,3.764
-11.438,-2.8436,-12.751,-8.7601,0.90177,-10.641,-4.8485,-7.7193,5.7971,-8.7601,0.90177,-12.813,-3.8915,1.9139,-6.6986,1.8501,-3.0769,-4.7847,2.8571,-4.8953,3.764
-18.073,-10.427,-17.605,-7.7939,-4.8953,-20.256001,-12.504,-12.504,-2.8986,-7.7939,-4.8953,-21.593,-6.7624,-0.95694,-14.354,-4.8485,-9.8077,-14.354,1.9048,-10.692,-1.0207
-17.125,-9.4787,-12.751,-11.659,-8.7601,-19.295,-15.375,-13.461,-6.7633,-11.659,-8.7601,-22.569,-6.7624,-2.8708,-14.354,-4.8485,-8.8462,-16.268,-0.95238,-10.692,-1.0207
-8.594,-1.8957,-3.0421,-13.591,-2.963,-15.449,-7.7193,-12.504,3.8647,-13.591,-2.963,-16.715,-2.9346,0.95694,-6.6986,0.89314,-2.1154,-12.44,5.7143,-6.8277,0.89314
-2.9068,0.0,-0.12945,-14.557,-4.8953,-12.564,-8.6762,-11.547,0.96618,-14.557,-4.8953,-16.715,-2.9346,1.9139,-1.9139,2.807,0.76923,-14.354,3.8095,-4.8953,1.8501
0.88468,-0.94787,0.84142,-9.7262,-3.9291,-8.7179,-8.6762,-9.6332,-2.8986,-9.7262,-3.9291,-14.764,-1.0207,4.7847,0.95694,7.5917,4.6154,-9.5694,-2.8571,-1.9968,4.7209
1.8325,3.7915,3.754,-2.963,-1.0306,-5.8333,-2.9346,-7.7193,0.96618,-2.963,-1.0306,-9.8862,3.764,10.526,3.8278,13.333,8.4615,-7.6555,-0.95238,4.7665,7.5917
-1.0111,9.4787,6.6667,-3.9291,-1.0306,-4.8718,1.8501,-10.59,2.8986,-3.9291,-1.0306,-5.0081,6.6348,16.268,2.8708,17.160999,10.385,-8.6124,4.7619,2.8341,12.376
-1.0111,13.27,9.5793,-1.9968,1.868,-0.0641,6.6348,-7.7193,1.9324,-1.9968,1.868,0.84553,8.5486,18.181999,1.9139,19.075001,11.346,-4.7847,7.619,-1.9968,15.247
-1.0111,8.5308,8.6084,-2.963,2.8341,3.7821,3.764,-5.8054,-1.9324,-2.963,2.8341,2.7967,8.5486,14.354,1.9139,12.376,8.4615,-9.5694,4.7619,0.90177,11.419
-1.0111,0.0,3.754,-1.0306,1.868,3.7821,-1.0207,-7.7193,-4.8309,-1.0306,1.868,0.84553,9.5056,11.483,2.8708,5.6778,7.5,-17.225,-0.95238,-1.0306,7.5917
3.7283,-0.94787,3.754,0.90177,3.8003,2.8205,-1.9777,-8.6762,3.8647,0.90177,3.8003,-1.1057,10.463,10.526,8.6124,6.6348,11.346,-28.708,0.95238,2.8341,5.6778
2.7804,-1.8957,0.84142,-2.963,3.8003,-2.9487,-1.9777,-11.547,3.8647,-2.963,3.8003,-4.0325,9.5056,7.6555,11.483,6.6348,11.346,-26.794001,-2.8571,2.8341,1.8501
-4.8025,-4.7393,-4.0129,-6.8277,-1.0306,-5.8333,-4.8485,-13.461,-0.96618,-6.8277,-1.0306,-8.9106,4.7209,4.7847,5.7416,3.764,6.5385,-13.397,0.0,-0.06441,0.89314
-3.8547,-5.6872,-2.0712,-2.963,0.90177,-4.8718,-1.9777,-8.6762,0.0,-2.963,0.90177,-5.9837,-0.0638,0.95694,1.9139,2.807,3.6538,0.95694,2.8571,-1.0306,-0.0638
-0.06319,-1.8957,5.6958,2.8341,2.8341,0.89744,1.8501,-1.9777,-0.96618,2.8341,2.8341,1.8211,-0.0638,0.95694,2.8708,3.764,3.6538,-0.95694,-0.95238,-1.9968,-1.0207
7.5197,4.7393,14.434,13.462,12.496,11.474,11.419,7.5917,5.7971,13.462,12.496,11.577,1.8501,1.9139,6.6986,3.764,5.5769,0.0,-2.8571,4.7665,-0.0638
9.4155,5.6872,11.521,15.395,13.462,15.321,11.419,11.419,3.8647,15.395,13.462,13.528,-1.9777,-0.95694,2.8708,-1.0207,3.6538,4.7847,-7.619,-2.963,-1.9777
11.311,7.5829,9.5793,14.428,13.462,18.205,13.333,13.333,7.7295,14.428,13.462,16.455,-1.9777,-1.9139,1.9139,-0.0638,4.6154,10.526,-2.8571,-1.9968,-1.0207
13.207,5.6872,8.6084,14.428,12.496,20.128,11.419,14.29,6.7633,14.428,12.496,17.431,0.89314,-0.95694,6.6986,4.7209,8.4615,17.225,-0.95238,3.8003,-0.0638
12.259,1.8957,7.6375,12.496,6.6989,16.282,7.5917,13.333,-11.594,12.496,6.6989,15.48,3.764,0.0,10.526,5.6778,10.385,14.354,-4.7619,5.7327,-0.0638
6.5719,-1.8957,3.754,10.564,5.7327,7.6282,3.764,8.5486,-4.8309,10.564,5.7327,12.553,4.7209,-0.95694,9.5694,3.764,6.5385,9.5694,-6.6667,8.6312,-2.9346
-1.0111,-6.6351,-2.0712,7.6651,7.6651,1.859,1.8501,3.764,3.8647,7.6651,7.6651,10.602,2.807,-3.8278,5.7416,-1.9777,-0.19231,3.8278,-4.7619,5.7327,-3.8915
-1.9589,-6.6351,-3.0421,4.7665,10.564,2.8205,5.6778,1.8501,6.7633,4.7665,10.564,11.577,-0.0638,-5.7416,1.9139,-4.8485,-5.0,-1.9139,0.95238,3.8003,-0.0638
-1.9589,-4.7393,-4.0129,3.8003,7.6651,4.7436,6.6348,2.807,5.7971,3.8003,7.6651,13.528,-3.8915,-8.6124,-2.8708,-9.6332,-9.8077,1.9139,3.8095,2.8341,-1.9777
-10.49,-6.6351,-11.78,-1.0306,3.8003,0.89744,3.764,-0.0638,0.96618,-1.0306,3.8003,7.6748,-8.6762,-12.44,-12.44,-18.246,-18.462,6.6986,-0.95238,-1.9968,-6.7624
-16.177,-6.6351,-15.663,-2.963,1.868,-1.0256,0.89314,-0.0638,7.7295,-2.963,1.868,3.7724,-11.547,-11.483,-19.139,-21.115999,-23.268999,2.8708,-1.9048,-2.963,-7.7193
-9.5419,-3.7915,-12.751,1.868,1.868,0.89744,-0.0638,3.764,4.8309,1.868,1.868,2.7967,-10.59,-8.6124,-16.268,-17.289,-19.423,0.0,-0.95238,-1.9968,-7.7193
-7.6461,-7.5829,-10.809,2.8341,-1.0306,-1.0256,-3.8915,5.6778,-0.96618,2.8341,-1.0306,-0.13008,-13.461,-10.526,-15.311,-16.332001,-17.5,-5.7416,-5.7143,-5.8615,-8.6762
-10.49,-12.322,-12.751,-5.8615,-2.963,-4.8718,-4.8485,1.8501,-1.9324,-5.8615,-2.963,-3.0569,-15.375,-12.44,-15.311,-17.289,-16.538,9.5694,0.0,-4.8953,-8.6762
-8.594,-12.322,-14.693,-1.9968,-1.9968,-3.9103,-4.8485,2.807,-0.96618,-1.9968,-1.9968,-3.0569,-12.504,-9.5694,-9.5694,-12.504,-13.654,12.44,0.95238,0.90177,-5.8054
-6.6983,-10.427,-15.663,3.8003,-1.0306,-3.9103,-3.8915,5.6778,0.96618,3.8003,-1.0306,-4.0325,-15.375,-9.5694,-8.6124,-9.6332,-14.615,10.526,-3.8095,-1.0306,-4.8485
-9.5419,-11.374,-18.576,2.8341,-1.9968,-5.8333,-6.7624,4.7209,-4.8309,2.8341,-1.9968,-5.9837,-19.202999,-11.483,-14.354,-10.59,-18.462,12.44,-4.7619,-6.8277,-3.8915
-12.385,-13.27,-19.547001,-0.06441,-4.8953,-5.8333,-9.6332,4.7209,-10.628,-0.06441,-4.8953,-7.935,-21.115999,-10.526,-19.139,-11.547,-20.385,3.8278,-3.8095,-12.625,-3.8915
-10.49,-10.427,-16.634001,-3.9291,-2.963,-3.9103,-8.6762,5.6778,-6.7633,-3.9291,-2.963,-6.9593,-19.202999,-7.6555,-19.139,-11.547,-19.423,9.5694,0.95238,-10.692,-1.0207
-9.5419,-14.218,-15.663,-4.8953,-5.8615,-5.8333,-10.59,2.807,-7.7295,-4.8953,-5.8615,-8.9106,-17.289,-8.6124,-17.225,-16.332001,-18.462,2.8708,0.0,-3.9291,-2.9346
-1.0111,-15.166,-11.78,-1.9968,-3.9291,-2.9487,-9.6332,2.807,-6.7633,-1.9968,-3.9291,-6.9593,-9.6332,-9.5694,-10.526,-17.289,-13.654,6.6986,0.95238,1.868,-3.8915
-1.0111,-12.322,-10.809,-1.0306,-1.9968,-2.9487,-5.8054,-0.0638,1.9324,-1.0306,-1.9968,-6.9593,-5.8054,-9.5694,-6.6986,-17.289,-11.731,6.6986,3.8095,-1.9968,-3.8915
-7.6461,-11.374,-14.693,-1.9968,-1.9968,-7.7564,-6.7624,-1.9777,5.7971,-1.9968,-1.9968,-11.837,-4.8485,-9.5694,-8.6124,-16.332001,-12.692,-1.9139,3.8095,-5.8615,-5.8054
-10.49,-15.166,-19.547001,-3.9291,-7.7939,-10.641,-14.418,-1.9777,-3.8647,-3.9291,-7.7939,-16.715,-9.6332,-13.397,-13.397,-16.332001,-15.577,2.8708,-3.8095,-9.7262,-8.6762
-6.6983,-11.374,-11.78,-0.06441,-5.8615,-5.8333,-12.504,2.807,-2.8986,-0.06441,-5.8615,-13.789,-7.7193,-13.397,-8.6124,-9.6332,-8.8462,6.6986,-4.7619,-2.963,-11.547
1.8325,-4.7393,-0.12945,1.868,-5.8615,0.89744,-10.59,5.6778,-8.6957,1.868,-5.8615,-8.9106,2.807,-3.8278,3.8278,1.8501,3.6538,11.483,-7.619,7.6651,-9.6332
11.311,5.6872,10.55,6.6989,-1.9968,7.6282,-2.9346,10.463,-8.6957,6.6989,-1.9968,-1.1057,15.247,8.6124,16.268,13.333,15.192,12.44,-5.7143,19.259001,-1.0207
13.207,10.427,13.463,7.6651,-1.0306,8.5897,1.8501,9.5056,-4.8309,7.6651,-1.0306,1.8211,19.075001,13.397,18.181999,15.247,18.077,13.397,-0.95238,19.259001,4.7209
13.207,9.4787,11.521,5.7327,-1.0306,7.6282,3.764,6.6348,-4.8309,5.7327,-1.0306,2.7967,17.160999,13.397,17.225,11.419,16.153999,18.181999,1.9048,13.462,6.6348
10.363,5.6872,5.6958,3.8003,-2.963,4.7436,1.8501,4.7209,-6.7633,3.8003,-2.963,-0.13008,13.333,12.44,12.44,7.5917,12.308,11.483,-1.9048,6.6989,3.764
11.311,3.7915,4.7249,0.90177,-2.963,3.7821,0.89314,3.764,-3.8647,0.90177,-2.963,-1.1057,12.376,13.397,12.44,8.5486,12.308,10.526,0.95238,6.6989,6.6348
6.5719,-1.8957,-0.12945,-6.8277,-8.7601,-1.0256,-7.7193,-1.0207,-4.8309,-6.8277,-8.7601,-7.935,6.6348,6.6986,6.6986,3.764,7.5,0.0,0.0,0.90177,4.7209
4.6761,-4.7393,-0.12945,-4.8953,-10.692,-5.8333,-12.504,-2.9346,-8.6957,-4.8953,-10.692,-11.837,3.764,2.8708,3.8278,0.89314,4.6154,-2.8708,0.0,0.90177,3.764
2.7804,-4.7393,0.84142,-4.8953,-11.659,-8.7179,-12.504,-6.7624,-6.7633,-4.8953,-11.659,-13.789,4.7209,3.8278,2.8708,1.8501,4.6154,-5.7416,1.9048,-1.0306,3.764
3.7283,0.94787,4.7249,-2.963,-6.8277,-4.8718,-4.8485,-8.6762,0.0,-2.963,-6.8277,-8.9106,8.5486,8.6124,6.6986,10.463,9.4231,-5.7416,7.619,-5.8615,6.6348
3.7283,7.5829,7.6375,-0.06441,-1.9968,-2.9487,0.89314,-8.6762,3.8647,-0.06441,-1.9968,-4.0325,15.247,15.311,9.5694,18.118,14.231,-10.526,6.6667,-2.963,11.419
-1.0111,9.4787,7.6375,-5.8615,-5.8615,-4.8718,-0.0638,-13.461,0.0,-5.8615,-5.8615,-5.0081,20.032,20.096001,12.44,21.945999,17.115,-16.268,10.476,3.8003,14.29
-1.0111,6.6351,6.6667,-11.659,-11.659,-6.7949,-1.9777,-19.202999,-10.628,-11.659,-11.659,-6.9593,20.989,22.01,16.268,20.989,17.115,-23.923,8.5714,11.53,14.29
4.6761,6.6351,4.7249,-7.7939,-13.591,-2.9487,-5.8054,-15.375,-4.8309,-7.7939,-13.591,-7.935,20.989,22.01,18.181999,19.075001,14.231,-19.139,5.7143,14.428,12.376
-3.8547,-0.94787,-2.0712,-11.659,-16.49,-7.7564,-13.461,-13.461,-9.6618,-11.659,-16.49,-12.813,15.247,17.225,9.5694,11.419,5.5769,0.95694,-0.95238,11.53,9.5056
-6.6983,-8.5308,-6.9256,-11.659,-12.625,-7.7564,-13.461,-8.6762,-11.594,-11.659,-12.625,-11.837,7.5917,11.483,0.0,2.807,-2.1154,10.526,-3.8095,5.7327,8.5486
2.7804,-5.6872,-3.0421,-2.963,-2.963,1.859,-2.9346,0.89314,-3.8647,-2.963,-2.963,-2.0813,5.6778,6.6986,0.95694,-1.0207,-0.19231,8.6124,0.95238,0.90177,4.7209
5.624,-2.8436,0.84142,5.7327,2.8341,5.7051,2.807,6.6348,-0.96618,5.7327,2.8341,3.7724,7.5917,1.9139,3.8278,-4.8485,0.76923,3.8278,2.8571,5.7327,1.8501
2.7804,-2.8436,0.84142,7.6651,3.8003,4.7436,3.764,4.7209,0.96618,7.6651,3.8003,3.7724,6.6348,-0.95694,3.8278,-6.7624,-0.19231,3.8278,3.8095,2.8341,-0.0638
-1.0111,-1.8957,0.84142,-0.06441,0.90177,0.89744,-0.0638,-1.0207,-0.96618,-0.06441,0.90177,-0.13008,1.8501,-3.8278,0.95694,-4.8485,-2.1154,7.6555,3.8095,-0.06441,-1.0207
-4.8025,0.94787,0.84142,-1.9968,0.90177,-2.9487,-0.0638,-3.8915,0.96618,-1.9968,0.90177,-1.1057,-1.9777,-3.8278,-1.9139,-0.0638,-3.0769,-1.9139,6.6667,-0.06441,-1.9777
-5.7504,0.0,-0.12945,-1.9968,2.8341,-2.9487,0.89314,-4.8485,2.8986,-1.9968,2.8341,-0.13008,-5.8054,-4.7847,-5.7416,1.8501,-5.9615,-7.6555,2.8571,-4.8953,-0.0638
-3.8547,0.0,-2.0712,0.90177,8.6312,-0.0641,5.6778,-2.9346,8.6957,0.90177,8.6312,4.748,-2.9346,-3.8278,-4.7847,0.89314,-6.9231,-7.6555,-0.95238,-2.963,5.6778
-9.5419,-3.7915,-6.9256,0.90177,7.6651,-0.0641,3.764,-3.8915,5.7971,0.90177,7.6651,4.748,-5.8054,-9.5694,-9.5694,-8.6762,-14.615,-3.8278,11.429,-3.9291,4.7209
-10.49,0.0,-3.0421,-0.06441,8.6312,0.89744,9.5056,-4.8485,10.628,-0.06441,8.6312,7.6748,-10.59,-14.354,-9.5694,-12.504,-16.538,0.0,13.333,-1.0306,1.8501
-1.9589,10.427,6.6667,3.8003,13.462,4.7436,19.075001,-1.9777,18.357,3.8003,13.462,15.48,-9.6332,-12.44,-3.8278,-7.7193,-8.8462,0.0,10.476,3.8003,3.764
1.8325,6.6351,7.6375,9.5974,14.428,7.6282,19.075001,5.6778,2.8986,9.5974,14.428,16.455,-14.418,-17.225,-6.6986,-10.59,-8.8462,3.8278,8.5714,-6.8277,-2.9346
2.7804,2.8436,5.6958,8.6312,13.462,9.5513,14.29,9.5056,11.594,8.6312,13.462,13.528,-18.246,-19.139,-9.5694,-10.59,-9.8077,-1.9139,7.619,-7.7939,-7.7193
-6.6983,0.94787,-1.1003,4.7665,7.6651,3.7821,6.6348,6.6348,13.527,4.7665,7.6651,5.7236,-23.030001,-17.225,-16.268,-8.6762,-12.692,-4.7847,5.7143,-8.7601,-7.7193
-12.385,2.8436,-4.9838,6.6989,7.6651,0.89744,3.764,8.5486,6.7633,6.6989,7.6651,0.84553,-25.900999,-15.311,-21.052999,-7.7193,-15.577,4.7847,2.8571,-16.49,-6.7624
-11.438,-0.94787,-6.9256,7.6651,7.6651,-3.9103,0.89314,10.463,5.7971,7.6651,7.6651,-3.0569,-25.900999,-16.268,-21.052999,-8.6762,-15.577,12.44,4.7619,-14.557,-7.7193
-9.5419,-6.6351,-8.8673,5.7327,5.7327,-5.8333,-1.9777,11.419,3.8647,5.7327,5.7327,-5.9837,-25.900999,-21.052999,-20.096001,-14.418,-17.5,15.311,1.9048,-12.625,-8.6762
-6.6983,-5.6872,-7.8964,4.7665,5.7327,-3.9103,-1.9777,12.376,4.8309,4.7665,5.7327,-4.0325,-24.944,-22.966999,-18.181999,-18.246,-17.5,9.5694,3.8095,-8.7601,-10.59
-1.0111,-7.5829,-5.9547,1.868,4.7665,-0.0641,-1.0207,11.419,5.7971,1.868,4.7665,-2.0813,-20.159,-20.096001,-13.397,-18.246,-14.615,0.95694,2.8571,-11.659,-9.6332
6.5719,-2.8436,0.84142,6.6989,6.6989,5.7051,2.807,16.204,9.6618,6.6989,6.6989,1.8211,-8.6762,-11.483,-0.95694,-10.59,-4.0385,12.44,0.0,-7.7939,-7.7193
16.051001,2.8436,7.6375,9.5974,8.6312,7.6282,3.764,15.247,7.7295,9.5974,8.6312,3.7724,1.8501,-1.9139,11.483,0.89314,6.5385,14.354,-1.9048,1.868,-5.8054
13.207,1.8957,6.6667,4.7665,2.8341,5.7051,-1.0207,10.463,0.0,4.7665,2.8341,-0.13008,2.807,-0.95694,10.526,3.764,7.5,7.6555,-6.6667,1.868,-4.8485
11.311,5.6872,8.6084,4.7665,1.868,3.7821,1.8501,12.376,4.8309,4.7665,1.868,-0.13008,8.5486,4.7847,13.397,9.5056,11.346,10.526,2.8571,9.5974,-0.0638
8.4676,4.7393,4.7249,4.7665,0.90177,-0.0641,-1.0207,8.5486,1.9324,4.7665,0.90177,-4.0325,10.463,4.7847,10.526,6.6348,8.4615,14.354,-1.9048,8.6312,-0.0638
-0.06319,-6.6351,-4.0129,-1.0306,-5.8615,-4.8718,-7.7193,2.807,-7.7295,-1.0306,-5.8615,-10.862,7.5917,0.95694,5.7416,-1.9777,0.76923,4.7847,-4.7619,9.5974,-1.9777
-2.9068,-6.6351,-6.9256,-1.9968,-7.7939,-6.7949,-9.6332,0.89314,-7.7295,-1.9968,-7.7939,-13.789,6.6348,0.95694,1.9139,-3.8915,-2.1154,5.7416,-3.8095,4.7665,-1.9777
2.7804,4.7393,-0.12945,-0.06441,-1.9968,-0.0641,-1.9777,6.6348,7.7295,-0.06441,-1.9968,-7.935,11.419,7.6555,4.7847,3.764,3.6538,9.5694,-8.5714,3.8003,2.807
-1.9589,-0.94787,-2.0712,-3.9291,-8.7601,-1.0256,-9.6332,2.807,-5.7971,-3.9291,-8.7601,-11.837,7.5917,7.6555,-0.95694,0.89314,0.76923,-4.7847,-9.5238,2.8341,4.7209
-2.9068,-6.6351,-3.0421,-5.8615,-13.591,-1.9872,-14.418,0.89314,-21.256001,-5.8615,-13.591,-12.813,5.6778,8.6124,-3.8278,-1.9777,-1.1538,-3.8278,-3.8095,-3.9291,1.8501
-7.6461,-12.322,-4.9838,-6.8277,-14.557,-2.9487,-14.418,-1.0207,-22.222,-6.8277,-14.557,-11.837,2.807,6.6986,-6.6986,-7.7193,-4.0385,7.6555,-7.619,-4.8953,-2.9346
-7.6461,-12.322,-5.9547,-6.8277,-13.591,-2.9487,-11.547,1.8501,-18.357,-6.8277,-13.591,-8.9106,5.6778,6.6986,-3.8278,-7.7193,-4.0385,8.6124,-6.6667,2.8341,-0.0638
-4.8025,-11.374,-5.9547,-3.9291,-9.7262,-2.9487,-8.6762,-0.0638,-13.527,-3.9291,-9.7262,-6.9593,8.5486,7.6555,2.8708,-4.8485,-1.1538,2.8708,-5.7143,4.7665,1.8501
-0.06319,-5.6872,-4.9838,-4.8953,-5.8615,-2.9487,-6.7624,-2.9346,-5.7971,-4.8953,-5.8615,-6.9593,10.463,11.483,8.6124,1.8501,3.6538,-3.8278,-4.7619,3.8003,4.7209
0.88468,-2.8436,-4.9838,-9.7262,-6.8277,-6.7949,-5.8054,-5.8054,-2.8986,-9.7262,-6.8277,-8.9106,11.419,12.44,11.483,5.6778,5.5769,-3.8278,-0.95238,1.868,4.7209
-1.9589,0.0,-4.9838,-7.7939,-4.8953,-8.7179,-4.8485,-8.6762,0.0,-7.7939,-4.8953,-8.9106,10.463,10.526,8.6124,7.5917,7.5,-6.6986,0.0,1.868,2.807
-1.0111,7.5829,1.8123,-1.9968,1.868,-1.9872,3.764,-5.8054,4.8309,-1.9968,1.868,-0.13008,11.419,12.44,6.6986,11.419,9.4231,-7.6555,1.9048,4.7665,8.5486
-1.0111,6.6351,0.84142,-2.963,1.868,1.859,3.764,-6.7624,5.7971,-2.963,1.868,2.7967,5.6778,7.6555,0.0,8.5486,4.6154,-12.44,0.95238,3.8003,4.7209
-8.594,0.0,-4.0129,-4.8953,-2.963,-2.9487,-1.0207,-10.59,-4.8309,-4.8953,-2.963,-1.1057,-1.9777,1.9139,-9.5694,2.807,-3.0769,-15.311,-0.95238,-4.8953,1.8501
-7.6461,2.8436,0.84142,-1.9968,-1.0306,-0.0641,0.89314,-3.8915,-3.8647,-1.9968,-1.0306,2.7967,-1.0207,4.7847,-8.6124,5.6778,-2.1154,-1.9139,0.0,-5.8615,4.7209
-3.8547,8.5308,4.7249,1.868,2.8341,2.8205,6.6348,-0.0638,1.9324,1.868,2.8341,6.6992,-0.0638,5.7416,-5.7416,7.5917,-1.1538,0.95694,-1.9048,-0.06441,6.6348
-1.0111,13.27,6.6667,1.868,5.7327,4.7436,10.463,-3.8915,3.8647,1.868,5.7327,9.626,-0.0638,5.7416,-4.7847,6.6348,-1.1538,-1.9139,-0.95238,2.8341,9.5056
-1.9589,11.374,6.6667,1.868,6.6989,3.7821,10.463,-6.7624,5.7971,1.868,6.6989,9.626,-2.9346,1.9139,-6.6986,5.6778,-2.1154,-5.7416,3.8095,-1.9968,5.6778
1.8325,10.427,9.5793,7.6651,7.6651,6.6667,11.419,-2.9346,4.8309,7.6651,7.6651,12.553,-2.9346,0.95694,-1.9139,6.6348,1.7308,-13.397,8.5714,-3.9291,2.807
7.5197,10.427,12.492,7.6651,5.7327,9.5513,11.419,-2.9346,-5.7971,7.6651,5.7327,13.528,0.89314,0.95694,4.7847,5.6778,5.5769,-8.6124,1.9048,-1.0306,0.89314
8.4676,7.5829,12.492,6.6989,6.6989,8.5897,10.463,-2.9346,7.7295,6.6989,6.6989,12.553,1.8501,-1.9139,6.6986,2.807,6.5385,1.9139,2.8571,4.7665,-1.0207
9.4155,4.7393,9.5793,8.6312,11.53,9.5513,9.5056,3.764,15.459,8.6312,11.53,10.602,2.807,-1.9139,8.6124,1.8501,5.5769,-2.8708,-2.8571,9.5974,-3.8915
9.4155,1.8957,6.6667,7.6651,10.564,8.5897,6.6348,6.6348,5.7971,7.6651,10.564,7.6748,-0.0638,-3.8278,6.6986,-2.9346,2.6923,0.95694,-0.95238,6.6989,-3.8915
12.259,4.7393,10.55,9.5974,10.564,12.436,10.463,10.463,8.6957,9.5974,10.564,11.577,1.8501,-0.95694,5.7416,0.89314,4.6154,12.44,2.8571,4.7665,-2.9346
10.363,3.7915,9.5793,7.6651,4.7665,10.513,7.5917,7.5917,2.8986,7.6651,4.7665,9.626,0.89314,-1.9139,3.8278,1.8501,3.6538,8.6124,3.8095,1.868,-3.8915
5.624,4.7393,7.6375,6.6989,2.8341,6.6667,6.6348,4.7209,6.7633,6.6989,2.8341,7.6748,0.89314,-0.95694,2.8708,4.7209,5.5769,9.5694,-1.9048,0.90177,-2.9346
10.363,10.427,12.492,6.6989,7.6651,6.6667,11.419,4.7209,11.594,6.6989,7.6651,8.6504,4.7209,2.8708,8.6124,9.5056,11.346,0.95694,2.8571,5.7327,-1.0207
10.363,11.374,10.55,-1.0306,3.8003,5.7051,6.6348,3.764,4.8309,-1.0306,3.8003,6.6992,4.7209,2.8708,7.6555,7.5917,10.385,3.8278,1.9048,6.6989,0.89314
7.5197,1.8957,4.7249,-2.963,-1.9968,-0.0641,-0.0638,1.8501,-1.9324,-2.963,-1.9968,0.84553,5.6778,0.95694,6.6986,2.807,7.5,4.7847,2.8571,5.7327,0.89314
9.4155,0.0,3.754,-2.963,-1.0306,-0.0641,1.8501,2.807,0.96618,-2.963,-1.0306,-1.1057,13.333,4.7847,12.44,5.6778,11.346,9.5694,-0.95238,6.6989,0.89314
9.4155,0.0,0.84142,-2.963,-1.0306,0.89744,0.89314,0.89314,0.96618,-2.963,-1.0306,-2.0813,13.333,3.8278,12.44,2.807,9.4231,9.5694,-2.8571,4.7665,0.89314
8.4676,-3.7915,-0.12945,0.90177,-2.963,-1.9872,-1.9777,-0.0638,-1.9324,0.90177,-2.963,-4.0325,7.5917,-1.9139,10.526,-1.0207,3.6538,2.8708,0.95238,12.496,-1.0207
8.4676,0.94787,3.754,3.8003,1.868,1.859,2.807,4.7209,3.8647,3.8003,1.868,0.84553,2.807,-3.8278,7.6555,0.89314,1.7308,2.8708,-2.8571,6.6989,-1.9777
13.207,2.8436,6.6667,5.7327,1.868,5.7051,3.764,8.5486,2.8986,5.7327,1.868,2.7967,4.7209,-1.9139,9.5694,2.807,2.6923,0.0,-3.8095,1.868,0.89314
8.4676,-1.8957,2.7832,-2.963,-3.9291,0.89744,-3.8915,4.7209,-2.8986,-2.963,-3.9291,-3.0569,2.807,-1.9139,9.5694,0.89314,1.7308,6.6986,0.0,3.8003,-4.8485
5.624,-0.94787,1.8123,-2.963,-2.963,-1.9872,-2.9346,1.8501,0.0,-2.963,-2.963,-5.9837,5.6778,2.8708,9.5694,4.7209,4.6154,11.483,0.95238,2.8341,-3.8915
-0.06319,0.94787,-0.12945,-1.9968,-3.9291,-2.9487,-1.9777,-1.0207,-5.7971,-1.9968,-3.9291,-5.9837,6.6348,7.6555,6.6986,7.5917,5.5769,7.6555,1.9048,-1.9968,3.764
0.88468,0.0,-1.1003,-1.9968,-4.8953,-1.9872,-3.8915,-0.0638,-2.8986,-1.9968,-4.8953,-5.0081,8.5486,9.5694,6.6986,7.5917,6.5385,8.6124,2.8571,-0.06441,5.6778
-4.8025,-3.7915,-4.0129,-5.8615,-7.7939,-3.9103,-8.6762,-2.9346,-1.9324,-5.8615,-7.7939,-6.9593,3.764,3.8278,-0.95694,0.89314,-0.19231,-1.9139,-3.8095,-2.963,2.807
-7.6461,-7.5829,-4.9838,-6.8277,-9.7262,-4.8718,-9.6332,-2.9346,-9.6618,-6.8277,-9.7262,-7.935,-1.9777,0.0,-5.7416,-4.8485,-5.0,-3.8278,-8.5714,-1.9968,-1.0207
-1.9589,-4.7393,-1.1003,-5.8615,-7.7939,-0.0641,-5.8054,-0.0638,-3.8647,-5.8615,-7.7939,-4.0325,-1.9777,0.95694,-2.8708,-1.9777,-3.0769,1.9139,-10.476,3.8003,-1.9777
1.8325,-2.8436,0.84142,-3.9291,-7.7939,2.8205,-5.8054,1.8501,-9.6618,-3.9291,-7.7939,-0.13008,-1.9777,-0.95694,-0.95694,-3.8915,-4.0385,0.95694,0.0,1.868,-0.0638
0.88468,-0.94787,2.7832,-1.0306,-4.8953,3.7821,-2.9346,0.89314,-2.8986,-1.0306,-4.8953,1.8211,-1.9777,-0.95694,-0.95694,-2.9346,-3.0769,-5.7416,3.8095,-2.963,2.807
-0.06319,-0.94787,2.7832,0.90177,-1.9968,3.7821,0.89314,0.89314,2.8986,0.90177,-1.9968,2.7967,-1.9777,-2.8708,-1.9139,-4.8485,-4.0385,4.7847,-2.8571,-1.9968,1.8501
-1.0111,-3.7915,0.84142,-0.06441,-1.9968,1.859,-1.9777,-1.9777,-3.8647,-0.06441,-1.9968,0.84553,-0.0638,-5.7416,0.95694,-7.7193,-5.0,6.6986,-4.7619,4.7665,-1.0207
1.8325,-0.94787,1.8123,1.868,0.90177,-0.0641,-1.0207,-3.8915,-4.8309,1.868,0.90177,1.8211,0.89314,-5.7416,2.8708,-4.8485,-1.1538,0.0,-3.8095,6.6989,-1.9777
-0.06319,2.8436,1.8123,1.868,-0.06441,-1.0256,0.89314,-2.9346,-0.96618,1.868,-0.06441,1.8211,-0.0638,-2.8708,0.95694,-1.9777,-0.19231,-2.8708,0.0,-0.06441,-1.0207
-1.9589,1.8957,0.84142,-3.9291,-1.9968,-1.9872,2.807,-4.8485,1.9324,-3.9291,-1.9968,2.7967,-0.0638,-0.95694,-0.95694,-1.0207,-0.19231,-7.6555,0.0,-1.0306,-1.9777
-4.8025,0.0,-0.12945,-5.8615,-1.0306,-2.9487,0.89314,-7.7193,-0.96618,-5.8615,-1.0306,1.8211,-2.9346,-1.9139,-4.7847,-1.0207,-0.19231,-14.354,-0.95238,-6.8277,-1.9777
-7.6461,2.8436,3.754,1.868,3.8003,-1.0256,3.764,-4.8485,1.9324,1.868,3.8003,3.7724,-3.8915,0.95694,-4.7847,2.807,2.6923,-8.6124,5.7143,-4.8953,2.807
-2.9068,8.5308,7.6375,8.6312,7.6651,2.8205,8.5486,-1.9777,9.6618,8.6312,7.6651,7.6748,-3.8915,1.9139,-1.9139,4.7209,4.6154,3.8278,0.95238,-2.963,2.807
3.7283,5.6872,7.6375,7.6651,6.6989,5.7051,7.5917,-0.0638,6.7633,7.6651,6.6989,8.6504,-4.8485,-0.95694,0.0,1.8501,1.7308,2.8708,0.0,1.868,0.89314
-0.06319,-1.8957,1.8123,2.8341,2.8341,0.89744,4.7209,-2.9346,0.96618,2.8341,2.8341,4.748,-8.6762,-6.6986,-2.8708,-4.8485,-4.0385,-3.8278,0.0,-2.963,-2.9346
-1.9589,1.8957,1.8123,3.8003,6.6989,-0.0641,8.5486,-1.9777,-1.9324,3.8003,6.6989,6.6992,-7.7193,-5.7416,-3.8278,-3.8915,-3.0769,-8.6124,2.8571,-3.9291,-2.9346
-0.06319,1.8957,0.84142,7.6651,6.6989,-0.0641,6.6348,-0.0638,5.7971,7.6651,6.6989,4.748,-4.8485,-3.8278,-2.8708,-3.8915,-3.0769,-5.7416,5.7143,4.7665,-1.9777
-2.9068,0.94787,-0.12945,4.7665,6.6989,-0.0641,3.764,0.89314,12.56,4.7665,6.6989,2.7967,-1.9777,0.0,-4.7847,-2.9346,-3.0769,3.8278,3.8095,1.868,-1.0207
-3.8547,-0.94787,-2.0712,-0.06441,3.8003,-1.0256,1.8501,-0.0638,4.8309,-0.06441,3.8003,0.84553,-2.9346,0.0,-4.7847,-3.8915,-2.1154,0.0,-0.95238,-1.0306,-1.0207
-1.9589,-4.7393,-3.0421,-1.0306,0.90177,-2.9487,-1.0207,-3.8915,2.8986,-1.0306,0.90177,-1.1057,-5.8054,-2.8708,-4.7847,-5.8054,-3.0769,-3.8278,0.0,-4.8953,-1.9777
-1.9589,0.94787,0.84142,0.90177,4.7665,-2.9487,3.764,-3.8915,9.6618,0.90177,4.7665,0.84553,-5.8054,-1.9139,-2.8708,-1.0207,0.76923,-3.8278,2.8571,-8.7601,0.89314
-3.8547,0.94787,-0.12945,1.868,4.7665,-4.8718,2.807,-1.9777,7.7295,1.868,4.7665,-1.1057,-6.7624,-1.9139,-3.8278,0.89314,-0.19231,-1.9139,4.7619,-6.8277,-0.0638
-1.9589,1.8957,0.84142,0.90177,3.8003,-3.9103,1.8501,-2.9346,5.7971,0.90177,3.8003,-0.13008,-5.8054,-0.95694,-0.95694,1.8501,1.7308,-3.8278,2.8571,-0.06441,-1.0207
1.8325,2.8436,1.8123,-1.9968,1.868,-3.9103,0.89314,-3.8915,3.8647,-1.9968,1.868,-2.0813,0.89314,0.0,4.7847,2.807,3.6538,0.0,-3.8095,-1.9968,-3.8915
7.5197,7.5829,2.7832,-1.9968,0.90177,-1.9872,2.807,-1.9777,3.8647,-1.9968,0.90177,-1.1057,9.5056,3.8278,11.483,4.7209,6.5385,-1.9139,-8.5714,2.8341,-1.0207
2.7804,0.0,-4.9838,-9.7262,-7.7939,-4.8718,-6.7624,-1.9777,-3.8647,-9.7262,-7.7939,-7.935,7.5917,1.9139,5.7416,-1.0207,-0.19231,-3.8278,0.0,4.7665,2.807
0.88468,-5.6872,-8.8673,-5.8615,-8.7601,-3.9103,-9.6332,-1.0207,-7.7295,-5.8615,-8.7601,-8.9106,1.8501,-1.9139,-0.95694,-4.8485,-5.0,4.7847,0.95238,10.564,-1.0207
-1.0111,-3.7915,-6.9256,3.8003,-1.9968,-1.9872,-4.8485,2.807,-6.7633,3.8003,-1.9968,-5.0081,-0.0638,-0.95694,-3.8278,-4.8485,-5.0,6.6986,0.95238,6.6989,-2.9346
-0.06319,-3.7915,-3.0421,3.8003,-0.06441,-0.0641,-2.9346,4.7209,-2.8986,3.8003,-0.06441,-2.0813,-1.9777,0.95694,-2.8708,-1.9777,-3.0769,6.6986,0.95238,-1.0306,-1.9777
1.8325,-0.94787,0.84142,2.8341,2.8341,3.7821,-0.0638,3.764,1.9324,2.8341,2.8341,0.84553,-1.0207,3.8278,1.9139,2.807,2.6923,4.7847,1.9048,-2.963,-1.9777
0.88468,1.8957,1.8123,1.868,1.868,3.7821,1.8501,3.764,-6.7633,1.868,1.868,1.8211,0.89314,7.6555,3.8278,7.5917,6.5385,0.95694,7.619,-2.963,0.89314
0.88468,1.8957,0.84142,4.7665,0.90177,3.7821,-1.0207,2.807,-2.8986,4.7665,0.90177,0.84553,2.807,8.6124,4.7847,8.5486,6.5385,0.0,0.95238,-2.963,1.8501
3.7283,2.8436,1.8123,6.6989,3.8003,5.7051,0.89314,3.764,7.7295,6.6989,3.8003,2.7967,4.7209,6.6986,5.7416,7.5917,4.6154,3.8278,-0.95238,0.90177,2.807
0.88468,1.8957,0.84142,6.6989,4.7665,5.7051,2.807,4.7209,7.7295,6.6989,4.7665,4.748,1.8501,2.8708,1.9139,3.764,0.76923,4.7847,0.95238,3.8003,0.89314
-3.8547,-2.8436,-3.0421,-2.963,-1.9968,1.859,-1.9777,1.8501,2.8986,-2.963,-1.9968,0.84553,-4.8485,-3.8278,-5.7416,-1.9777,-5.0,-3.8278,-0.95238,-3.9291,-2.9346
-1.0111,-2.8436,-1.1003,-1.9968,-1.9968,3.7821,-1.9777,2.807,-2.8986,-1.9968,-1.9968,1.8211,-6.7624,-4.7847,-5.7416,-3.8915,-5.9615,1.9139,-4.7619,-2.963,-2.9346
4.6761,-3.7915,2.7832,3.8003,0.90177,6.6667,-0.0638,6.6348,-2.8986,3.8003,0.90177,4.748,-5.8054,-4.7847,-2.8708,-3.8915,-3.0769,6.6986,-5.7143,-0.06441,-1.9777
0.88468,-3.7915,2.7832,6.6989,2.8341,5.7051,1.8501,4.7209,-3.8647,6.6989,2.8341,5.7236,-6.7624,-4.7847,-3.8278,-4.8485,-3.0769,4.7847,-4.7619,-1.0306,-1.0207
0.88468,1.8957,2.7832,7.6651,4.7665,6.6667,2.807,3.764,0.96618,7.6651,4.7665,6.6992,-5.8054,-4.7847,-1.9139,-1.0207,0.76923,-7.6555,-3.8095,4.7665,-1.9777
0.88468,4.7393,3.754,0.90177,2.8341,4.7436,3.764,-1.0207,0.96618,0.90177,2.8341,6.6992,-3.8915,-2.8708,1.9139,3.764,4.6154,-6.6986,2.8571,1.868,-2.9346
1.8325,3.7915,4.7249,-0.06441,0.90177,2.8205,3.764,-1.9777,1.9324,-0.06441,0.90177,5.7236,-1.9777,-1.9139,2.8708,4.7209,6.5385,-5.7416,3.8095,-3.9291,-1.0207
3.7283,0.0,5.6958,2.8341,3.8003,1.859,2.807,1.8501,1.9324,2.8341,3.8003,4.748,-1.0207,-1.9139,4.7847,3.764,6.5385,-1.9139,3.8095,-1.0306,-0.0638
-1.0111,-3.7915,-0.12945,-0.06441,2.8341,-1.0256,-1.0207,0.89314,-1.9324,-0.06441,2.8341,-0.13008,-3.8915,-3.8278,0.95694,-1.0207,0.76923,2.8708,-3.8095,-5.8615,-2.9346
-1.9589,-4.7393,-3.0421,0.90177,1.868,-1.0256,-1.0207,0.89314,-0.96618,0.90177,1.868,-0.13008,-4.8485,-2.8708,-0.95694,-1.9777,-1.1538,1.9139,-5.7143,-5.8615,-3.8915
2.7804,0.0,-0.12945,1.868,4.7665,0.89744,3.764,0.89314,1.9324,1.868,4.7665,2.7967,-1.0207,0.0,1.9139,-0.0638,0.76923,-7.6555,-0.95238,0.90177,-0.0638
-2.9068,-2.8436,-3.0421,-2.963,3.8003,-1.9872,2.807,-3.8915,1.9324,-2.963,3.8003,0.84553,-4.8485,-3.8278,-2.8708,-4.8485,-3.0769,-10.526,-1.9048,-4.8953,-1.0207
-5.7504,-4.7393,-3.0421,-4.8953,0.90177,-1.9872,0.89314,-5.8054,-0.96618,-4.8953,0.90177,-0.13008,-6.7624,-5.7416,-7.6555,-6.7624,-5.0,-4.7847,-1.9048,-3.9291,-4.8485
-6.6983,0.0,-1.1003,-2.963,2.8341,-1.9872,1.8501,-1.9777,1.9324,-2.963,2.8341,-0.13008,-3.8915,-0.95694,-6.6986,-2.9346,-4.0385,0.0,-1.9048,-3.9291,-1.0207
-7.6461,0.0,-1.1003,-1.0306,0.90177,-3.9103,1.8501,-0.0638,0.0,-1.0306,0.90177,-0.13008,-3.8915,0.95694,-8.6124,-0.0638,-3.0769,-0.95694,-0.95238,-5.8615,-0.0638
-1.0111,-0.94787,-0.12945,1.868,1.868,0.89744,2.807,3.764,-1.9324,1.868,1.868,1.8211,-4.8485,-0.95694,-5.7416,-0.0638,-3.0769,-8.6124,0.0,-0.06441,-2.9346
4.6761,-0.94787,-0.12945,2.8341,3.8003,2.8205,3.764,3.764,1.9324,2.8341,3.8003,2.7967,-2.9346,-1.9139,-0.95694,-1.9777,-2.1154,0.95694,-1.9048,6.6989,-0.0638
-2.9068,-3.7915,-5.9547,0.90177,1.868,-1.9872,-0.0638,0.89314,1.9324,0.90177,1.868,-1.1057,-4.8485,-2.8708,-5.7416,-4.8485,-5.9615,1.9139,-1.9048,-1.9968,-0.0638
-1.9589,-0.94787,-3.0421,-1.9968,1.868,-1.0256,0.89314,0.89314,-1.9324,-1.9968,1.868,-0.13008,-1.9777,-0.95694,-4.7847,-2.9346,-4.0385,0.95694,-2.8571,-0.06441,-1.9777
1.8325,-0.94787,-0.12945,-4.8953,-1.0306,-1.9872,-1.0207,-2.9346,-5.7971,-4.8953,-1.0306,-0.13008,-1.9777,-2.8708,-2.8708,-1.9777,-4.0385,-1.9139,-1.9048,-1.0306,-1.9777
-1.0111,0.94787,2.7832,-4.8953,-0.06441,-1.0256,1.8501,-2.9346,3.8647,-4.8953,-0.06441,3.7724,-3.8915,-2.8708,-3.8278,-1.9777,-2.1154,-0.95694,4.7619,-6.8277,1.8501
-1.9589,0.94787,1.8123,-1.9968,-1.0306,-1.0256,0.89314,-2.9346,5.7971,-1.9968,-1.0306,1.8211,-5.8054,-3.8278,-3.8278,-1.0207,-3.0769,-5.7416,-0.95238,-1.9968,1.8501
3.7283,4.7393,3.754,4.7665,-0.06441,3.7821,2.807,1.8501,0.96618,4.7665,-0.06441,2.7967,-3.8915,0.0,0.95694,1.8501,0.76923,0.95694,0.95238,-0.06441,4.7209
0.88468,-1.8957,-1.1003,0.90177,-2.963,1.859,-2.9346,-0.0638,-2.8986,0.90177,-2.963,-1.1057,-3.8915,0.0,-0.95694,-0.0638,-0.19231,3.8278,1.9048,-5.8615,2.807
-3.8547,-11.374,-8.8673,-6.8277,-8.7601,-4.8718,-10.59,-6.7624,-12.56,-6.8277,-8.7601,-6.9593,-6.7624,-1.9139,-3.8278,-2.9346,-3.0769,-4.7847,-1.9048,-9.7262,-0.0638
-2.9068,-7.5829,-6.9256,-8.7601,-5.8615,-2.9487,-6.7624,-3.8915,-8.6957,-8.7601,-5.8615,-4.0325,-3.8915,-0.95694,-1.9139,-1.0207,-2.1154,-5.7416,-0.95238,-3.9291,1.8501
0.88468,-0.94787,-2.0712,-3.9291,-0.06441,0.89744,-0.0638,-1.0207,-1.9324,-3.9291,-0.06441,0.84553,-1.9777,1.9139,0.95694,0.89314,-0.19231,-0.95694,3.8095,0.90177,3.764
1.8325,-0.94787,-1.1003,1.868,2.8341,1.859,1.8501,1.8501,3.8647,1.868,2.8341,0.84553,-1.0207,0.95694,0.0,-2.9346,-2.1154,4.7847,0.95238,0.90177,0.89314
3.7283,-1.8957,-1.1003,0.90177,1.868,1.859,0.89314,2.807,1.9324,0.90177,1.868,-1.1057,1.8501,1.9139,2.8708,-2.9346,-2.1154,0.0,-1.9048,-0.06441,-1.9777
2.7804,-2.8436,-3.0421,-2.963,-1.0306,-2.9487,-1.9777,-0.0638,-0.96618,-2.963,-1.0306,-4.0325,2.807,0.95694,4.7847,-1.0207,0.76923,-3.8278,-0.95238,0.90177,-1.0207
5.624,5.6872,1.8123,-4.8953,1.868,-1.0256,2.807,-1.9777,6.7633,-4.8953,1.868,-0.13008,8.5486,7.6555,10.526,6.6348,7.5,0.95694,0.0,8.6312,5.6778
6.5719,6.6351,4.7249,-5.8615,-0.06441,-0.0641,3.764,-1.0207,-0.96618,-5.8615,-0.06441,-1.1057,9.5056,8.6124,9.5694,7.5917,8.4615,-1.9139,0.95238,8.6312,6.6348
5.624,-0.94787,3.754,-3.9291,-3.9291,-0.0641,-2.9346,-0.0638,-1.9324,-3.9291,-3.9291,-4.0325,4.7209,4.7847,4.7847,3.764,5.5769,0.95694,0.95238,1.868,2.807
2.7804,-1.8957,4.7249,-1.0306,-3.9291,0.89744,-2.9346,-0.0638,0.0,-1.0306,-3.9291,-2.0813,1.8501,1.9139,1.9139,2.807,4.6154,5.7416,1.9048,-0.06441,0.89314
3.7283,3.7915,7.6375,0.90177,0.90177,1.859,1.8501,1.8501,2.8986,0.90177,0.90177,0.84553,5.6778,3.8278,6.6986,6.6348,8.4615,0.95694,0.95238,5.7327,1.8501
7.5197,6.6351,5.6958,2.8341,1.868,2.8205,2.807,-0.0638,3.8647,2.8341,1.868,-0.13008,8.5486,5.7416,6.6986,7.5917,8.4615,-4.7847,2.8571,1.868,2.807
0.88468,1.8957,0.84142,1.868,-1.0306,-0.0641,-1.0207,-3.8915,-2.8986,1.868,-1.0306,-3.0569,7.5917,3.8278,3.8278,2.807,3.6538,-6.6986,2.8571,-2.963,1.8501
1.8325,4.7393,4.7249,-0.06441,2.8341,3.7821,5.6778,-0.0638,4.8309,-0.06441,2.8341,3.7724,7.5917,4.7847,4.7847,4.7209,5.5769,-3.8278,5.7143,2.8341,3.764
2.7804,6.6351,7.6375,-0.06441,3.8003,4.7436,6.6348,2.807,3.8647,-0.06441,3.8003,6.6992,6.6348,4.7847,2.8708,6.6348,5.5769,5.7416,0.0,1.868,4.7209
5.624,6.6351,9.5793,5.7327,2.8341,5.7051,4.7209,2.807,1.9324,5.7327,2.8341,6.6992,5.6778,3.8278,3.8278,6.6348,6.5385,2.8708,1.9048,-0.06441,2.807
7.5197,7.5829,9.5793,7.6651,4.7665,3.7821,5.6778,0.89314,6.7633,7.6651,4.7665,5.7236,8.5486,4.7847,9.5694,6.6348,8.4615,-1.9139,4.7619,9.5974,0.89314
-0.06319,0.94787,1.8123,-3.9291,-2.963,-2.9487,-1.0207,-3.8915,-0.96618,-3.9291,-2.963,-1.1057,5.6778,0.95694,4.7847,-0.0638,3.6538,-0.95694,0.0,3.8003,-1.0207
1.8325,-4.7393,-4.0129,-2.963,-3.9291,-1.9872,-4.8485,-1.0207,-4.8309,-2.963,-3.9291,-3.0569,5.6778,1.9139,2.8708,-3.8915,-0.19231,6.6986,1.9048,1.868,-1.0207
