C3,C4,Cz,F1,F2,F3,F4,F7,F8,Fp1,Fp2,Fz,O1,O2,P3,P4,Pz,T3,T4,T5,T6
4.6761,5.8054,2.0163,5.8824,4.9261,3.7073,2.8986,3.8003,2.8341,5.8824,4.9261,4.902,2.8571,1.8501,3.873,3.8647,4.8953,1.8035,7.746,2.9557,3.7359
7.5197,5.8054,3.9675,10.784,7.8818,6.6341,6.7633,5.7327,6.6989,10.784,7.8818,5.8824,7.619,5.6778,9.5873,6.7633,8.7601,4.7021,5.8413,7.8818,3.7359
8.4676,2.9346,2.9919,7.8431,7.8818,7.6098,6.7633,3.8003,6.6989,7.8431,7.8818,4.902,7.619,5.6778,12.444,5.7971,9.7262,1.8035,-1.7778,10.837,3.7359
7.5197,1.9777,2.9919,5.8824,3.9409,5.6585,3.8647,2.8341,3.8003,5.8824,3.9409,3.9216,6.6667,5.6778,12.444,3.8647,7.7939,2.7697,-4.6349,10.837,1.8035
4.6761,-0.89314,1.0407,7.8431,3.9409,5.6585,4.8309,5.7327,0.90177,7.8431,3.9409,4.902,3.8095,2.807,6.7302,0.0,4.8953,7.6006,3.9365,6.8966,-1.095
4.6761,3.8915,2.9919,11.765,8.867,7.6098,8.6957,8.6312,6.6989,11.765,8.867,7.8431,4.7619,5.6778,5.7778,1.9324,4.8953,7.6006,6.7937,6.8966,1.8035
5.624,4.8485,4.9431,12.745,8.867,7.6098,4.8309,6.6989,1.868,12.745,8.867,7.8431,2.8571,5.6778,3.873,2.8986,3.9291,8.5668,-2.7302,5.9113,2.7697
2.7804,1.0207,3.9675,6.8627,4.9261,3.7073,0.0,0.90177,-1.0306,6.8627,4.9261,3.9216,0.0,3.764,0.06349,0.96618,1.0306,6.6345,-0.8254,1.9704,0.83736
1.8325,3.8915,7.8699,0.0,6.8966,1.7561,6.7633,-2.963,5.7327,0.0,6.8966,6.8627,0.95238,5.6778,0.06349,1.9324,1.9968,-1.095,8.6984,0.98522,5.6683
-0.06319,5.8054,6.8943,-2.9412,7.8818,-0.19512,4.8309,-3.9291,8.6312,-2.9412,7.8818,5.8824,0.0,5.6778,-2.7937,1.9324,0.06441,-3.0274,8.6984,-1.9704,6.6345
-1.0111,6.7624,5.9187,-0.98039,5.9113,-4.0976,4.8309,-5.8615,8.6312,-0.98039,5.9113,2.9412,0.0,5.6778,-1.8413,5.7971,1.9968,-5.9259,9.6508,-1.9704,7.6006
1.8325,10.59,8.8455,0.98039,5.9113,-2.1463,7.7295,-3.9291,7.6651,0.98039,5.9113,2.9412,1.9048,6.6348,2.9206,11.594,6.8277,-3.9936,7.746,-0.98522,8.5668
5.624,13.461,10.797,2.9412,5.9113,-0.19512,9.6618,-1.9968,9.5974,2.9412,5.9113,4.902,3.8095,8.5486,6.7302,14.493,9.7262,-1.095,2.9841,0.98522,10.499
8.4676,13.461,11.772,1.9608,5.9113,1.7561,11.594,-0.06441,7.6651,1.9608,5.9113,5.8824,2.8571,7.5917,8.6349,13.527,11.659,7.6006,1.0794,2.9557,9.533
6.5719,10.59,10.797,-1.9608,3.9409,2.7317,8.6957,-0.06441,2.8341,-1.9608,3.9409,4.902,1.9048,3.764,9.5873,11.594,10.692,4.7021,10.603,1.9704,3.7359
8.4676,10.59,13.724,3.9216,6.8966,6.6341,11.594,1.868,5.7327,3.9216,6.8966,9.8039,0.0,2.807,9.5873,9.6618,9.7262,-3.9936,16.316999,3.9409,4.7021
8.4676,9.6332,11.772,4.902,6.8966,8.5854,11.594,0.90177,5.7327,4.902,6.8966,10.784,-1.9048,0.89314,6.7302,5.7971,5.8615,-4.9597,9.6508,2.9557,2.7697
6.5719,6.7624,7.8699,3.9216,5.9113,7.6098,11.594,2.8341,4.7665,3.9216,5.9113,9.8039,-3.8095,-2.9346,1.9683,0.0,0.06441,2.7697,-2.7302,0.0,-2.0612
2.7804,1.9777,2.9919,4.902,4.9261,5.6585,3.8647,5.7327,7.6651,4.902,4.9261,6.8627,-5.7143,-4.8485,-1.8413,-2.8986,-3.8003,5.6683,-0.8254,-2.9557,-3.0274
0.88468,0.0638,0.06504,2.9412,3.9409,4.6829,0.96618,4.7665,3.8003,2.9412,3.9409,4.902,-2.8571,-4.8485,-1.8413,-3.8647,-3.8003,0.83736,2.0317,-1.9704,-3.9936
0.88468,-1.8501,0.06504,0.98039,2.9557,4.6829,2.8986,3.8003,2.8341,0.98039,2.9557,3.9216,0.0,-2.9346,-1.8413,-3.8647,-3.8003,-3.0274,0.12698,-2.9557,-3.9936
-1.0111,-1.8501,0.06504,0.98039,0.0,2.7317,3.8647,0.90177,2.8341,0.98039,0.0,2.9412,-0.95238,-1.0207,-4.6984,-2.8986,-3.8003,-2.0612,-5.5873,-4.9261,-2.0612
-2.9068,-1.8501,-0.91057,-3.9216,-7.8818,-1.1707,-0.96618,-2.963,-2.963,-3.9216,-7.8818,-0.98039,1.9048,2.807,-5.6508,-1.9324,-2.8341,0.83736,3.9365,-4.9261,1.8035
-3.8547,-4.7209,-4.813,2.9412,-2.9557,0.78049,-3.8647,6.6989,-2.963,2.9412,-2.9557,-2.9412,1.9048,3.764,-6.6032,-3.8647,-3.8003,4.7021,-0.8254,-5.9113,0.83736
-6.6983,-9.5056,-9.6911,3.9216,-5.9113,-0.19512,-11.594,8.6312,-11.659,3.9216,-5.9113,-7.8431,0.95238,2.807,-9.4603,-4.8309,-6.6989,-0.12882,-12.254,-7.8818,-0.12882
-6.6983,-12.376,-10.667,-0.98039,-10.837,-2.1463,-14.493,3.8003,-14.557,-0.98039,-10.837,-10.784,4.7619,6.6348,-7.5556,-4.8309,-4.7665,-4.9597,-1.7778,-4.9261,0.83736
-6.6983,-12.376,-9.6911,-0.98039,-6.8966,-4.0976,-11.594,-0.06441,-8.7601,-0.98039,-6.8966,-9.8039,5.7143,6.6348,-5.6508,-4.8309,-4.7665,-0.12882,2.9841,-2.9557,0.83736
-6.6983,-7.5917,-8.7154,-5.8824,-2.9557,-7.0244,-10.628,-2.963,-5.8615,-5.8824,-2.9557,-8.8235,4.7619,2.807,-4.6984,-4.8309,-5.7327,-0.12882,-2.7302,-1.9704,-1.095
-5.7504,-3.764,-6.7642,-7.8431,-2.9557,-7.0244,-5.7971,-2.963,-1.9968,-7.8431,-2.9557,-6.8627,5.7143,2.807,-2.7937,-1.9324,-3.8003,-0.12882,-4.6349,0.98522,-1.095
-2.9068,-0.89314,-3.8374,-6.8627,-5.9113,-7.0244,-3.8647,-3.9291,-2.963,-6.8627,-5.9113,-5.8824,8.5714,6.6348,1.0159,1.9324,0.06441,-2.0612,-9.3968,2.9557,1.8035
0.88468,1.0207,1.0407,-2.9412,-3.9409,-3.122,-2.8986,-3.9291,-3.9291,-2.9412,-3.9409,-2.9412,9.5238,7.5917,3.873,0.96618,1.0306,-0.12882,-1.7778,4.9261,3.7359
-1.0111,-1.8501,-2.8618,-3.9216,-1.9704,-2.1463,-2.8986,-2.963,-1.0306,-3.9216,-1.9704,-2.9412,6.6667,3.764,1.0159,-3.8647,-1.868,3.7359,-2.7302,1.9704,-0.12882
-2.9068,-1.8501,-4.813,-4.902,-2.9557,-3.122,-2.8986,-0.06441,-1.0306,-4.902,-2.9557,-2.9412,6.6667,2.807,0.06349,-2.8986,-1.868,4.7021,-1.7778,1.9704,-0.12882
-1.9589,-1.8501,-3.8374,-1.9608,-3.9409,-4.0976,-1.9324,1.868,-1.0306,-1.9608,-3.9409,-1.9608,4.7619,0.89314,1.9683,-2.8986,-0.90177,6.6345,1.0794,3.9409,-1.095
-1.0111,-4.7209,-2.8618,-0.98039,-2.9557,-4.0976,-4.8309,-0.06441,-4.8953,-0.98039,-2.9557,-1.9608,1.9048,-1.9777,1.9683,-4.8309,-0.90177,1.8035,-8.4444,3.9409,-4.9597
-1.9589,-2.807,-2.8618,0.0,0.0,-1.1707,-3.8647,2.8341,-2.963,0.0,0.0,0.0,0.0,-1.0207,1.0159,-3.8647,-0.90177,3.7359,-6.5397,2.9557,-3.0274
-2.9068,-5.6778,-5.7886,-0.98039,-1.9704,1.7561,-0.96618,4.7665,-2.963,-0.98039,-1.9704,-0.98039,-3.8095,-2.9346,-2.7937,-6.7633,-3.8003,8.5668,3.9365,0.0,-3.0274
-1.9589,-3.764,-3.8374,1.9608,-0.98522,4.6829,2.8986,7.6651,-0.06441,1.9608,-0.98522,0.0,-3.8095,-2.9346,-1.8413,-3.8647,-2.8341,6.6345,2.0317,-0.98522,-3.9936
0.88468,1.9777,-0.91057,4.902,2.9557,3.7073,4.8309,4.7665,-0.06441,4.902,2.9557,1.9608,-1.9048,-1.0207,1.0159,0.96618,1.0306,5.6683,-4.6349,1.9704,-1.095
-0.06319,-1.8501,-1.8862,0.98039,0.0,-0.19512,-0.96618,0.90177,-3.9291,0.98039,0.0,-0.98039,-4.7619,-2.9346,1.0159,0.0,0.06441,0.83736,-2.7302,0.98522,-3.0274
-0.06319,-2.807,-1.8862,0.98039,-4.9261,-2.1463,-2.8986,-0.06441,-4.8953,0.98039,-4.9261,-3.9216,-5.7143,-3.8915,0.06349,-0.96618,-0.90177,-1.095,5.8413,0.0,-2.0612
-1.9589,-0.89314,-4.813,-1.9608,-8.867,-5.0732,-4.8309,-1.9968,-6.8277,-1.9608,-8.867,-6.8627,-6.6667,-3.8915,-1.8413,0.96618,-3.8003,1.8035,2.0317,-0.98522,-1.095
1.8325,-0.89314,-2.8618,-6.8627,-7.8818,-3.122,-4.8309,-1.9968,-4.8953,-6.8627,-7.8818,-6.8627,-3.8095,-1.0207,1.9683,4.8309,-0.90177,6.6345,4.8889,4.9261,2.7697
1.8325,0.0638,-1.8862,-8.8235,-5.9113,-3.122,-8.6957,-1.9968,-4.8953,-8.8235,-5.9113,-5.8824,-3.8095,-1.0207,1.9683,4.8309,-0.90177,2.7697,5.8413,3.9409,1.8035
-0.06319,-1.8501,-2.8618,-9.8039,-6.8966,-5.0732,-4.8309,-3.9291,-2.963,-9.8039,-6.8966,-6.8627,-4.7619,-3.8915,1.0159,1.9324,-2.8341,3.7359,-8.4444,1.9704,-2.0612
2.7804,1.9777,2.0163,-7.8431,-5.9113,-3.122,0.0,-2.963,-2.963,-7.8431,-5.9113,-3.9216,-2.8571,-3.8915,4.8254,3.8647,0.06441,6.6345,-11.302,3.9409,-1.095
2.7804,1.0207,1.0407,-4.902,-2.9557,-3.122,-0.96618,-0.06441,-4.8953,-4.902,-2.9557,-3.9216,-3.8095,-4.8485,4.8254,0.96618,0.06441,0.83736,1.0794,2.9557,-2.0612
2.7804,0.0638,1.0407,-3.9216,-1.9704,-4.0976,0.0,-2.963,-3.9291,-3.9216,-1.9704,-1.9608,-5.7143,-6.7624,1.0159,-1.9324,-2.8341,2.7697,1.0794,0.98522,-3.9936
1.8325,1.9777,2.9919,-5.8824,-2.9557,-1.1707,0.96618,-3.9291,-1.0306,-5.8824,-2.9557,0.98039,-8.5714,-9.6332,-3.746,-2.8986,-6.6989,-2.0612,2.9841,-0.98522,-4.9597
-1.9589,1.0207,1.0407,-3.9216,-0.98522,-0.19512,3.8647,-3.9291,0.90177,-3.9216,-0.98522,3.9216,-11.429,-11.547,-10.413,-5.7971,-11.53,-2.0612,-0.8254,-5.9113,-6.8921
-3.8547,4.8485,1.0407,0.0,3.9409,1.7561,6.7633,-0.06441,2.8341,0.0,3.9409,6.8627,-10.476,-8.6762,-13.27,-2.8986,-11.53,0.83736,2.9841,-7.8818,-3.9936
-3.8547,4.8485,1.0407,1.9608,6.8966,1.7561,6.7633,1.868,5.7327,1.9608,6.8966,5.8824,-9.5238,-6.7624,-13.27,-1.9324,-9.5974,-1.095,4.8889,-8.867,-3.0274
-4.8025,1.9777,1.0407,1.9608,2.9557,-0.19512,0.96618,1.868,2.8341,1.9608,2.9557,1.9608,-6.6667,-3.8915,-11.365,0.96618,-6.6989,-3.9936,-0.8254,-8.867,-3.0274
-3.8547,1.9777,0.06504,2.9412,1.9704,1.7561,1.9324,2.8341,1.868,2.9412,1.9704,0.98039,-4.7619,-1.0207,-9.4603,2.8986,-3.8003,-9.7907,-1.7778,-9.8522,-1.095
-4.8025,0.0638,-2.8618,0.0,1.9704,0.78049,1.9324,-0.06441,3.8003,0.0,1.9704,-0.98039,-3.8095,-1.9777,-8.5079,0.0,-2.8341,-6.8921,5.8413,-10.837,-2.0612
-2.9068,0.0638,-2.8618,-0.98039,0.98522,-0.19512,0.0,-1.0306,2.8341,-0.98039,0.98522,-1.9608,-0.95238,-1.9777,-5.6508,-0.96618,-0.90177,0.83736,10.603,-6.8966,-3.0274
-1.9589,-0.89314,-2.8618,-0.98039,0.98522,-0.19512,-0.96618,-1.0306,1.868,-0.98039,0.98522,-2.9412,-1.9048,-3.8915,-3.746,-1.9324,-1.868,0.83736,-1.7778,-4.9261,-4.9597
-1.0111,-3.764,-3.8374,0.98039,0.98522,0.78049,0.0,0.90177,2.8341,0.98039,0.98522,-2.9412,-3.8095,-4.8485,-4.6984,-4.8309,-4.7665,-3.0274,-4.6349,-4.9261,-3.0274
-2.9068,-4.7209,-7.7398,1.9608,-0.98522,-1.1707,-2.8986,1.868,1.868,1.9608,-0.98522,-5.8824,-3.8095,-5.8054,-4.6984,-6.7633,-6.6989,-2.0612,-4.6349,-4.9261,-3.9936
-1.0111,-6.6348,-8.7154,3.9216,-2.9557,-1.1707,-5.7971,2.8341,-1.0306,3.9216,-2.9557,-7.8431,-0.95238,-3.8915,-1.8413,-5.7971,-6.6989,1.8035,-4.6349,-0.98522,-3.0274
1.8325,-4.7209,-4.813,2.9412,0.0,-0.19512,-4.8309,3.8003,-1.0306,2.9412,0.0,-4.902,3.8095,1.8501,1.9683,-2.8986,-1.868,2.7697,5.8413,2.9557,0.83736
2.7804,-0.89314,-1.8862,1.9608,0.98522,1.7561,-4.8309,2.8341,0.90177,1.9608,0.98522,-0.98039,4.7619,2.807,2.9206,-0.96618,-1.868,0.83736,10.603,2.9557,1.8035
1.8325,0.0638,-1.8862,0.0,1.9704,3.7073,0.0,1.868,4.7665,0.0,1.9704,0.98039,2.8571,0.89314,1.0159,0.0,-2.8341,-3.0274,-4.6349,2.9557,2.7697
-1.0111,-0.89314,-4.813,-0.98039,1.9704,2.7317,3.8647,-1.0306,6.6989,-0.98039,1.9704,0.98039,1.9048,-0.0638,-0.88889,-0.96618,-4.7665,-3.9936,-7.4921,0.98522,4.7021
0.88468,2.9346,-1.8862,0.98039,2.9557,3.7073,5.7971,-0.06441,2.8341,0.98039,2.9557,3.9216,2.8571,2.807,-1.8413,0.0,-3.8003,-2.0612,2.9841,0.98522,5.6683
2.7804,1.9777,0.06504,3.9216,0.0,3.7073,2.8986,1.868,-1.0306,3.9216,0.0,4.902,3.8095,2.807,1.0159,0.0,0.06441,-2.0612,2.9841,4.9261,3.7359
3.7283,-0.89314,0.06504,3.9216,0.98522,3.7073,0.96618,2.8341,-1.0306,3.9216,0.98522,5.8824,2.8571,0.89314,2.9206,0.0,1.9968,4.7021,4.8889,5.9113,3.7359
2.7804,-0.89314,1.0407,-2.9412,-1.9704,1.7561,0.0,-2.963,-3.9291,-2.9412,-1.9704,4.902,0.95238,0.89314,2.9206,0.96618,2.963,0.83736,-0.8254,3.9409,3.7359
1.8325,-0.89314,0.06504,0.98039,0.0,2.7317,2.8986,-1.9968,-3.9291,0.98039,0.0,4.902,0.0,0.89314,1.9683,1.9324,3.9291,0.83736,-1.7778,0.98522,4.7021
4.6761,1.0207,1.0407,9.8039,6.8966,5.6585,0.96618,3.8003,-0.06441,9.8039,6.8966,5.8824,0.0,0.89314,2.9206,3.8647,4.8953,2.7697,-4.6349,0.98522,4.7021
5.624,1.0207,2.9919,10.784,7.8818,4.6829,0.0,3.8003,-1.9968,10.784,7.8818,5.8824,-0.95238,0.89314,3.873,4.8309,5.8615,5.6683,1.0794,0.98522,3.7359
2.7804,-1.8501,2.0163,8.8235,4.9261,2.7317,-0.96618,2.8341,-1.9968,8.8235,4.9261,3.9216,-1.9048,-0.0638,2.9206,1.9324,5.8615,2.7697,5.8413,-1.9704,-0.12882
4.6761,0.0638,3.9675,7.8431,4.9261,4.6829,3.8647,5.7327,-0.06441,7.8431,4.9261,3.9216,-0.95238,-1.0207,5.7778,1.9324,6.8277,-0.12882,1.0794,-0.98522,-1.095
6.5719,2.9346,4.9431,5.8824,1.9704,3.7073,2.8986,4.7665,0.90177,5.8824,1.9704,3.9216,-0.95238,-1.0207,5.7778,4.8309,7.7939,2.7697,-7.4921,-0.98522,-0.12882
4.6761,1.9777,3.9675,4.902,4.9261,1.7561,0.0,2.8341,-0.06441,4.902,4.9261,1.9608,-0.95238,-0.0638,4.8254,5.7971,6.8277,2.7697,2.9841,-1.9704,0.83736
4.6761,1.9777,5.9187,4.902,6.8966,0.78049,0.0,0.90177,0.90177,4.902,6.8966,1.9608,0.95238,0.89314,5.7778,4.8309,6.8277,-3.0274,4.8889,1.9704,0.83736
-1.0111,-1.8501,1.0407,1.9608,3.9409,-2.1463,-1.9324,-1.9968,0.90177,1.9608,3.9409,-1.9608,0.0,-0.0638,2.9206,2.8986,2.963,-3.9936,-4.6349,-0.98522,-0.12882
-2.9068,-2.807,-0.91057,0.0,0.98522,-5.0732,-6.7633,-5.8615,-0.06441,0.0,0.98522,-2.9412,0.95238,0.89314,1.0159,3.8647,1.0306,-3.9936,4.8889,-1.9704,3.7359
-2.9068,-1.8501,0.06504,-0.98039,1.9704,-7.0244,-3.8647,-4.8953,-0.06441,-0.98039,1.9704,-1.9608,3.8095,2.807,1.9683,2.8986,1.9968,-5.9259,2.0317,0.98522,4.7021
-1.0111,0.0638,2.0163,-2.9412,2.9557,-5.0732,2.8986,-4.8953,5.7327,-2.9412,2.9557,0.98039,7.619,5.6778,3.873,2.8986,3.9291,-3.0274,9.6508,5.9113,4.7021
5.624,6.7624,8.8455,1.9608,6.8966,2.7317,3.8647,0.90177,5.7327,1.9608,6.8966,6.8627,12.381,9.5056,9.5873,5.7971,7.7939,0.83736,21.079,12.808,8.5668
7.5197,4.8485,9.8211,5.8824,8.867,7.6098,2.8986,4.7665,1.868,5.8824,8.867,9.8039,10.476,6.6348,8.6349,1.9324,5.8615,3.7359,-0.8254,12.808,3.7359
2.7804,-0.89314,4.9431,6.8627,4.9261,5.6585,1.9324,1.868,-0.06441,6.8627,4.9261,6.8627,3.8095,0.89314,1.9683,-3.8647,-0.90177,4.7021,-11.302,5.9113,-3.0274
0.88468,-2.807,2.0163,5.8824,1.9704,3.7073,1.9324,-0.06441,-1.9968,5.8824,1.9704,4.902,0.95238,-1.0207,-0.88889,-5.7971,-2.8341,-1.095,-9.3968,1.9704,-5.9259
0.88468,2.9346,2.0163,5.8824,0.98522,5.6585,3.8647,1.868,0.90177,5.8824,0.98522,5.8824,0.95238,0.89314,0.06349,0.0,0.06441,-2.0612,-14.159,0.98522,-1.095
-1.9589,5.8054,0.06504,4.902,0.0,0.78049,2.8986,-0.06441,3.8003,4.902,0.0,2.9412,-1.9048,0.89314,-2.7937,2.8986,0.06441,0.83736,-1.7778,-2.9557,-0.12882
-3.8547,3.8915,-1.8862,2.9412,0.98522,-3.122,0.0,-2.963,4.7665,2.9412,0.98522,-0.98039,-2.8571,-0.0638,-4.6984,1.9324,-0.90177,-3.0274,2.9841,-4.9261,-0.12882
-4.8025,0.0638,-3.8374,0.0,3.9409,-3.122,2.8986,-2.963,6.6989,0.0,3.9409,-2.9412,-3.8095,-1.9777,-4.6984,0.96618,-0.90177,-7.8583,3.9365,-5.9113,0.83736
-1.0111,0.0638,-2.8618,-2.9412,2.9557,-3.122,0.96618,-2.963,4.7665,-2.9412,2.9557,-1.9608,-4.7619,-2.9346,-2.7937,1.9324,-0.90177,-4.9597,14.413,-6.8966,1.8035
2.7804,3.8915,2.0163,-0.98039,1.9704,-0.19512,1.9324,-0.06441,4.7665,-0.98039,1.9704,1.9608,-5.7143,-3.8915,1.9683,3.8647,1.9968,-0.12882,8.6984,-2.9557,0.83736
4.6761,8.6762,4.9431,2.9412,3.9409,1.7561,5.7971,1.868,3.8003,2.9412,3.9409,2.9412,-5.7143,-5.8054,3.873,4.8309,2.963,-2.0612,-2.7302,0.0,-0.12882
4.6761,7.7193,5.9187,0.0,0.0,-0.19512,2.8986,-0.06441,-1.9968,0.0,0.0,1.9608,-4.7619,-3.8915,3.873,4.8309,2.963,5.6683,-9.3968,0.98522,-1.095
2.7804,2.9346,4.9431,-2.9412,-1.9704,-1.1707,1.9324,-1.9968,-0.06441,-2.9412,-1.9704,0.0,-2.8571,-1.9777,2.9206,2.8986,2.963,6.6345,-0.8254,-0.98522,-1.095
0.88468,-2.807,2.0163,-2.9412,-2.9557,-5.0732,-2.8986,-3.9291,-1.0306,-2.9412,-2.9557,-1.9608,-1.9048,-0.0638,1.9683,0.0,1.9968,-1.095,-2.7302,0.0,-0.12882
1.8325,-4.7209,2.0163,-3.9216,-2.9557,-5.0732,-4.8309,-3.9291,-3.9291,-3.9216,-2.9557,-2.9412,0.0,1.8501,1.9683,-2.8986,2.963,-1.095,2.9841,0.0,-2.0612
-1.0111,-8.5486,-0.91057,-7.8431,-4.9261,-6.0488,-5.7971,-4.8953,-2.963,-7.8431,-4.9261,-4.902,0.95238,3.764,-0.88889,-5.7971,1.9968,-4.9597,3.9365,-1.9704,-2.0612
-4.8025,-10.463,-4.813,-10.784,-7.8818,-8.0,-8.6957,-7.7939,-4.8953,-10.784,-7.8818,-5.8824,3.8095,5.6778,-3.746,-7.7295,0.06441,-3.9936,-5.5873,-0.98522,-1.095
-10.49,-12.376,-8.7154,-11.765,-8.867,-8.9756,-10.628,-7.7939,-6.8277,-11.765,-8.867,-8.8235,4.7619,4.7209,-5.6508,-8.6957,-2.8341,-10.757,-4.6349,-0.98522,-3.9936
-14.281,-15.247,-11.642,-8.8235,-8.867,-10.927,-9.6618,-9.7262,-8.7601,-8.8235,-8.867,-10.784,1.9048,3.764,-10.413,-10.628,-6.6989,-20.419001,-17.968,-6.8966,-4.9597
-12.385,-10.463,-9.6911,-4.902,-6.8966,-9.9512,-7.7295,-7.7939,-2.963,-4.902,-6.8966,-7.8431,0.95238,1.8501,-10.413,-8.6957,-6.6989,-12.689,-9.3968,-8.867,-3.9936
-9.5419,-7.5917,-6.7642,-1.9608,-1.9704,-7.0244,-1.9324,-5.8615,2.8341,-1.9608,-1.9704,-3.9216,0.95238,1.8501,-9.4603,-8.6957,-6.6989,-3.9936,3.9365,-9.8522,-3.0274
-5.7504,-4.7209,-3.8374,0.0,1.9704,-1.1707,0.0,-1.0306,4.7665,0.0,1.9704,-2.9412,2.8571,3.764,-4.6984,-4.8309,-3.8003,-3.9936,2.9841,-6.8966,-1.095
-1.9589,-1.8501,-0.91057,0.0,-1.9704,1.7561,-5.7971,1.868,1.868,0.0,-1.9704,-1.9608,5.7143,5.6778,0.06349,-0.96618,1.0306,-2.0612,2.9841,-1.9704,1.8035
-1.0111,-1.8501,0.06504,0.0,-4.9261,-1.1707,-5.7971,1.868,-1.0306,0.0,-4.9261,-2.9412,4.7619,4.7209,1.9683,0.96618,0.06441,0.83736,3.9365,0.0,2.7697
2.7804,6.7624,2.9919,-0.98039,0.0,1.7561,4.8309,3.8003,0.90177,-0.98039,0.0,1.9608,6.6667,8.5486,4.8254,5.7971,2.963,4.7021,7.746,1.9704,6.6345
4.6761,7.7193,4.9431,0.0,0.0,4.6829,7.7295,2.8341,3.8003,0.0,0.0,4.902,6.6667,8.5486,4.8254,8.6957,3.9291,5.6683,2.9841,1.9704,8.5668
5.624,1.9777,2.9919,-0.98039,-3.9409,4.6829,0.96618,2.8341,1.868,-0.98039,-3.9409,3.9216,6.6667,6.6348,4.8254,5.7971,2.963,7.6006,0.12698,4.9261,5.6683
4.6761,-0.89314,2.0163,-3.9216,-5.9113,2.7317,-6.7633,2.8341,-3.9291,-3.9216,-5.9113,0.0,5.7143,6.6348,3.873,3.8647,1.9968,2.7697,-4.6349,8.867,5.6683
-1.0111,-2.807,-1.8862,-3.9216,-6.8966,-3.122,-8.6957,-0.06441,-3.9291,-3.9216,-6.8966,-5.8824,2.8571,5.6778,-0.88889,1.9324,-0.90177,-1.095,-3.6825,4.9261,5.6683
-6.6983,-4.7209,-6.7642,-7.8431,-8.867,-7.0244,-5.7971,-3.9291,-2.963,-7.8431,-8.867,-11.765,0.0,3.764,-4.6984,0.0,-2.8341,-0.12882,6.7937,0.98522,3.7359
-8.594,-3.764,-7.7398,-10.784,-7.8818,-9.9512,-4.8309,-4.8953,-0.06441,-10.784,-7.8818,-12.745,0.0,3.764,-4.6984,-0.96618,-2.8341,-1.095,4.8889,1.9704,3.7359
-5.7504,1.9777,-1.8862,-9.8039,-3.9409,-8.9756,1.9324,-7.7939,3.8003,-9.8039,-3.9409,-6.8627,2.8571,5.6778,-2.7937,2.8986,0.06441,-2.0612,-6.5397,2.9557,4.7021
-3.8547,1.0207,0.06504,-11.765,-2.9557,-7.0244,2.8986,-9.7262,0.90177,-11.765,-2.9557,-3.9216,-0.95238,2.807,-3.746,1.9324,-1.868,-3.9936,-3.6825,0.98522,3.7359
-2.9068,-0.89314,0.06504,-8.8235,-3.9409,-5.0732,1.9324,-6.8277,-0.06441,-8.8235,-3.9409,-0.98039,-4.7619,-3.8915,-6.6032,-1.9324,-4.7665,-3.9936,4.8889,-1.9704,-0.12882
1.8325,1.9777,2.9919,-2.9412,-3.9409,1.7561,3.8647,-1.9968,2.8341,-2.9412,-3.9409,3.9216,-2.8571,-5.8054,-2.7937,-1.9324,-3.8003,-1.095,2.9841,0.98522,-2.0612
4.6761,1.0207,2.9919,-1.9608,-3.9409,7.6098,1.9324,-0.06441,1.868,-1.9608,-3.9409,4.902,-2.8571,-6.7624,0.06349,-3.8647,-2.8341,2.7697,-2.7302,2.9557,-4.9597
5.624,0.0638,2.0163,0.0,-1.9704,8.5854,-0.96618,2.8341,-1.0306,0.0,-1.9704,4.902,-1.9048,-7.7193,1.9683,-4.8309,-2.8341,0.83736,-5.5873,3.9409,-7.8583
3.7283,-1.8501,1.0407,3.9216,0.98522,4.6829,1.9324,3.8003,0.90177,3.9216,0.98522,3.9216,-3.8095,-9.6332,1.0159,-5.7971,-3.8003,3.7359,-2.7302,1.9704,-8.8245
-1.0111,-2.807,-1.8862,3.9216,2.9557,-0.19512,0.0,2.8341,2.8341,3.9216,2.9557,0.98039,-3.8095,-10.59,0.06349,-6.7633,-4.7665,7.6006,2.9841,0.0,-9.7907
-1.0111,0.0638,0.06504,2.9412,3.9409,-1.1707,3.8647,1.868,5.7327,2.9412,3.9409,1.9608,0.0,-4.8485,3.873,-1.9324,-0.90177,6.6345,10.603,2.9557,-5.9259
0.88468,1.9777,2.0163,2.9412,4.9261,0.78049,6.7633,4.7665,8.6312,2.9412,4.9261,1.9608,2.8571,-0.0638,6.7302,2.8986,3.9291,3.7359,6.7937,2.9557,0.83736
3.7283,3.8915,6.8943,0.98039,4.9261,1.7561,4.8309,3.8003,7.6651,0.98039,4.9261,2.9412,3.8095,0.89314,7.6825,3.8647,5.8615,-1.095,13.46,2.9557,1.8035
5.624,3.8915,8.8455,1.9608,4.9261,1.7561,3.8647,2.8341,6.6989,1.9608,4.9261,3.9216,2.8571,-1.0207,5.7778,1.9324,4.8953,-0.12882,11.556,0.98522,-1.095
2.7804,1.0207,4.9431,1.9608,4.9261,0.78049,3.8647,3.8003,7.6651,1.9608,4.9261,1.9608,-0.95238,-2.9346,1.0159,-0.96618,0.06441,-0.12882,1.0794,-2.9557,-3.0274
0.88468,-1.8501,2.0163,1.9608,4.9261,1.7561,-0.96618,4.7665,3.8003,1.9608,4.9261,-0.98039,-5.7143,-6.7624,-2.7937,-2.8986,-3.8003,2.7697,2.0317,-4.9261,-3.0274
-0.06319,-2.807,2.0163,4.902,2.9557,3.7073,-1.9324,6.6989,1.868,4.902,2.9557,-0.98039,-8.5714,-7.7193,-4.6984,-1.9324,-4.7665,4.7021,0.12698,-4.9261,-2.0612
-1.9589,-2.807,1.0407,1.9608,0.98522,1.7561,-0.96618,3.8003,-1.0306,1.9608,0.98522,-1.9608,-11.429,-6.7624,-7.5556,-1.9324,-4.7665,3.7359,-9.3968,-5.9113,-2.0612
-2.9068,-1.8501,1.0407,-4.902,-0.98522,-1.1707,-3.8647,0.90177,-2.963,-4.902,-0.98522,-3.9216,-10.476,-4.8485,-8.5079,-3.8647,-4.7665,2.7697,-8.4444,-5.9113,-5.9259
1.8325,2.9346,4.9431,-2.9412,1.9704,1.7561,-0.96618,1.868,-2.963,-2.9412,1.9704,0.98039,-5.7143,-1.0207,-3.746,-1.9324,-1.868,0.83736,-4.6349,0.0,-3.0274
1.8325,0.0638,2.9919,1.9608,0.0,2.7317,-1.9324,0.90177,-2.963,1.9608,0.0,1.9608,-1.9048,2.807,-1.8413,0.0,0.06441,4.7021,-3.6825,2.9557,-0.12882
1.8325,-3.764,0.06504,1.9608,-3.9409,1.7561,-4.8309,1.868,-4.8953,1.9608,-3.9409,0.0,-1.9048,1.8501,-0.88889,-0.96618,-0.90177,3.7359,-9.3968,0.98522,-1.095
3.7283,-2.807,0.06504,0.98039,-3.9409,3.7073,-4.8309,3.8003,-5.8615,0.98039,-3.9409,0.0,0.0,0.89314,1.9683,-0.96618,0.06441,-0.12882,-9.3968,0.98522,-0.12882
9.4155,-2.807,2.9919,3.9216,-1.9704,6.6341,0.0,3.8003,-2.963,3.9216,-1.9704,2.9412,1.9048,-0.0638,6.7302,0.0,2.963,10.499,-0.8254,4.9261,-0.12882
12.259,1.0207,4.9431,3.9216,0.98522,7.6098,0.0,4.7665,-1.9968,3.9216,0.98522,4.902,6.6667,3.764,11.492,4.8309,6.8277,11.465,3.9365,10.837,2.7697
10.363,3.8915,4.9431,0.0,-2.9557,4.6829,-0.96618,2.8341,-1.0306,0.0,-2.9557,2.9412,9.5238,5.6778,13.397,6.7633,8.7601,6.6345,7.746,11.823,4.7021
5.624,1.9777,2.0163,-0.98039,-5.9113,0.78049,-5.7971,-1.0306,-4.8953,-0.98039,-5.9113,-0.98039,7.619,3.764,10.54,3.8647,7.7939,2.7697,2.0317,9.8522,-1.095
2.7804,0.0638,0.06504,0.0,-1.9704,-0.19512,-3.8647,-1.0306,-6.8277,0.0,-1.9704,-1.9608,7.619,4.7209,10.54,2.8986,5.8615,1.8035,-2.7302,8.867,-1.095
2.7804,0.0638,2.0163,0.98039,2.9557,1.7561,-1.9324,0.90177,-1.9968,0.98039,2.9557,0.0,7.619,4.7209,10.54,2.8986,6.8277,2.7697,2.9841,9.8522,-1.095
1.8325,1.0207,1.0407,1.9608,2.9557,1.7561,1.9324,1.868,0.90177,1.9608,2.9557,0.98039,5.7143,4.7209,7.6825,0.96618,4.8953,1.8035,-3.6825,5.9113,-3.0274
-1.0111,-0.89314,-0.91057,1.9608,0.98522,-0.19512,3.8647,0.90177,0.90177,1.9608,0.98522,-0.98039,3.8095,2.807,2.9206,-0.96618,1.0306,6.6345,0.12698,1.9704,-2.0612
-3.8547,1.0207,-2.8618,0.0,1.9704,-5.0732,2.8986,-2.963,0.90177,0.0,1.9704,-3.9216,0.0,-1.0207,-1.8413,-1.9324,-1.868,3.7359,0.12698,-2.9557,-2.0612
-6.6983,-0.89314,-5.7886,-6.8627,-1.9704,-8.0,0.0,-5.8615,-1.9968,-6.8627,-1.9704,-6.8627,-4.7619,-1.9777,-6.6032,-1.9324,-4.7665,-1.095,7.746,-6.8966,-1.095
-9.5419,-3.764,-7.7398,-4.902,-2.9557,-8.9756,-0.96618,-5.8615,-0.06441,-4.902,-2.9557,-8.8235,-7.619,-2.9346,-9.4603,-2.8986,-6.6989,-3.0274,3.9365,-9.8522,-0.12882
-8.594,-2.807,-7.7398,0.98039,1.9704,-8.0,-0.96618,-4.8953,0.90177,0.98039,1.9704,-6.8627,-9.5238,-1.9777,-10.413,-2.8986,-6.6989,-4.9597,-4.6349,-10.837,0.83736
-8.594,-1.8501,-8.7154,-1.9608,1.9704,-5.0732,-2.8986,-2.963,-1.0306,-1.9608,1.9704,-4.902,-10.476,-1.9777,-10.413,-1.9324,-5.7327,-5.9259,2.9841,-11.823,-0.12882
-3.8547,0.0638,-3.8374,-2.9412,1.9704,-1.1707,0.0,-1.9968,-1.0306,-2.9412,1.9704,-1.9608,-11.429,-2.9346,-8.5079,-0.96618,-4.7665,-1.095,2.0317,-11.823,-0.12882
-0.06319,2.9346,0.06504,1.9608,0.0,1.7561,2.8986,-1.0306,-0.06441,1.9608,0.0,1.9608,-11.429,-3.8915,-5.6508,1.9324,-2.8341,-3.0274,-6.5397,-10.837,-0.12882
0.88468,4.8485,2.0163,2.9412,0.0,2.7317,2.8986,-1.0306,-3.9291,2.9412,0.0,4.902,-6.6667,-1.9777,-4.6984,4.8309,-1.868,-4.9597,-7.4921,-7.8818,1.8035
-0.06319,2.9346,-0.91057,0.98039,-0.98522,2.7317,0.96618,-1.0306,-1.0306,0.98039,-0.98522,3.9216,-1.9048,-1.0207,-5.6508,2.8986,-1.868,-4.9597,2.9841,-5.9113,2.7697
-1.9589,0.0638,-5.7886,0.98039,0.0,1.7561,1.9324,-0.06441,-0.06441,0.98039,0.0,1.9608,1.9048,1.8501,-5.6508,0.0,-2.8341,-0.12882,5.8413,-3.9409,1.8035
-4.8025,0.0638,-8.7154,1.9608,0.0,-0.19512,0.96618,-1.0306,-0.06441,1.9608,0.0,0.0,4.7619,3.764,-4.6984,0.0,-2.8341,-3.0274,-2.7302,-1.9704,1.8035
-2.9068,1.9777,-3.8374,2.9412,0.98522,2.7317,2.8986,-0.06441,1.868,2.9412,0.98522,1.9608,6.6667,5.6778,-1.8413,2.8986,0.06441,-6.8921,1.0794,0.0,2.7697
-0.06319,1.0207,-0.91057,1.9608,1.9704,5.6585,3.8647,3.8003,1.868,1.9608,1.9704,4.902,7.619,4.7209,0.06349,2.8986,1.9968,-1.095,1.0794,1.9704,3.7359
0.88468,0.0638,-0.91057,4.902,2.9557,4.6829,0.96618,4.7665,-1.9968,4.902,2.9557,4.902,8.5714,4.7209,2.9206,1.9324,3.9291,1.8035,-8.4444,4.9261,1.8035
4.6761,0.0638,2.0163,7.8431,3.9409,4.6829,-2.8986,5.7327,-2.963,7.8431,3.9409,4.902,11.429,4.7209,7.6825,2.8986,5.8615,5.6683,-10.349,9.8522,1.8035
6.5719,1.0207,4.9431,6.8627,2.9557,3.7073,-1.9324,7.6651,-3.9291,6.8627,2.9557,4.902,12.381,1.8501,10.54,3.8647,7.7939,10.499,-7.4921,11.823,0.83736
4.6761,-1.8501,3.9675,3.9216,-1.9704,2.7317,0.0,5.7327,-6.8277,3.9216,-1.9704,2.9412,9.5238,-3.8915,8.6349,-2.8986,4.8953,8.5668,-6.5397,10.837,-4.9597
1.8325,-5.6778,2.0163,2.9412,-0.98522,3.7073,-2.8986,4.7665,-5.8615,2.9412,-0.98522,0.98039,6.6667,-7.7193,5.7778,-8.6957,1.0306,4.7021,-2.7302,8.867,-9.7907
1.8325,-1.8501,1.0407,2.9412,2.9557,2.7317,-1.9324,3.8003,-1.9968,2.9412,2.9557,1.9608,6.6667,-3.8915,4.8254,-3.8647,1.0306,5.6683,-5.5873,9.8522,-4.9597
-1.9589,-0.89314,-0.91057,-1.9608,0.0,-0.19512,-1.9324,-0.06441,-1.9968,-1.9608,0.0,0.98039,2.8571,-3.8915,0.06349,-3.8647,-1.868,1.8035,-5.5873,2.9557,-4.9597
-1.0111,-0.89314,1.0407,-3.9216,0.0,-0.19512,2.8986,-1.9968,0.90177,-3.9216,0.0,0.98039,0.0,-4.8485,-0.88889,-1.9324,-1.868,-1.095,3.9365,-0.98522,-3.0274
1.8325,3.8915,4.9431,0.98039,2.9557,1.7561,2.8986,-1.0306,3.8003,0.98039,2.9557,2.9412,0.95238,-1.0207,1.9683,3.8647,1.0306,-3.0274,3.9365,0.0,1.8035
3.7283,8.6762,8.8455,5.8824,7.8818,3.7073,6.7633,-0.06441,4.7665,5.8824,7.8818,7.8431,-0.95238,-1.9777,1.9683,4.8309,1.0306,-0.12882,2.0317,-0.98522,2.7697
4.6761,11.547,9.8211,3.9216,5.9113,3.7073,8.6957,-0.06441,7.6651,3.9216,5.9113,9.8039,-3.8095,-1.0207,1.0159,5.7971,1.0306,0.83736,-1.7778,-2.9557,3.7359
6.5719,7.7193,7.8699,0.0,3.9409,5.6585,8.6957,1.868,5.7327,0.0,3.9409,7.8431,-2.8571,0.89314,1.9683,5.7971,2.963,2.7697,5.8413,-3.9409,3.7359
7.5197,3.8915,6.8943,1.9608,5.9113,8.5854,7.7295,4.7665,4.7665,1.9608,5.9113,6.8627,0.0,2.807,3.873,5.7971,5.8615,1.8035,4.8889,-1.9704,2.7697
11.311,5.8054,11.772,7.8431,6.8966,13.463,9.6618,6.6989,5.7327,7.8431,6.8966,9.8039,1.9048,5.6778,6.7302,6.7633,7.7939,1.8035,4.8889,0.98522,1.8035
12.259,9.6332,14.699,10.784,6.8966,14.439,8.6957,6.6989,4.7665,10.784,6.8966,12.745,1.9048,5.6778,5.7778,7.7295,7.7939,6.6345,6.7937,0.0,1.8035
11.311,10.59,14.699,8.8235,6.8966,12.488,9.6618,4.7665,5.7327,8.8235,6.8966,11.765,2.8571,4.7209,5.7778,6.7633,6.8277,3.7359,2.0317,0.98522,2.7697
6.5719,8.6762,11.772,3.9216,5.9113,6.6341,5.7971,0.90177,4.7665,3.9216,5.9113,7.8431,2.8571,4.7209,5.7778,7.7295,7.7939,-5.9259,-2.7302,-0.98522,4.7021
3.7283,6.7624,8.8455,1.9608,2.9557,1.7561,0.96618,-1.9968,2.8341,1.9608,2.9557,4.902,2.8571,3.764,4.8254,7.7295,6.8277,-6.8921,-7.4921,-0.98522,4.7021
3.7283,4.8485,5.9187,0.0,0.98522,3.7073,1.9324,-1.9968,0.90177,0.0,0.98522,3.9216,3.8095,2.807,5.7778,7.7295,5.8615,-4.9597,2.9841,0.98522,3.7359
8.4676,6.7624,8.8455,3.9216,0.98522,8.5854,2.8986,4.7665,0.90177,3.9216,0.98522,7.8431,5.7143,3.764,10.54,10.628,10.692,0.83736,10.603,4.9261,5.6683
11.311,9.6332,11.772,4.902,3.9409,9.561,4.8309,5.7327,1.868,4.902,3.9409,9.8039,7.619,4.7209,16.254,15.459,16.49,3.7359,3.9365,7.8818,7.6006
10.363,8.6762,11.772,2.9412,0.98522,3.7073,5.7971,3.8003,2.8341,2.9412,0.98522,6.8627,9.5238,6.6348,19.111,17.391001,19.388,2.7697,4.8889,11.823,9.533
9.4155,7.7193,10.797,0.0,-0.98522,-0.19512,3.8647,0.90177,1.868,0.0,-0.98522,3.9216,10.476,9.5056,19.111,17.391001,19.388,7.6006,9.6508,14.778,12.432
5.624,1.9777,3.9675,-3.9216,-4.9261,-2.1463,-4.8309,-2.963,-4.8953,-3.9216,-4.9261,0.0,8.5714,9.5056,14.349,12.56,14.557,6.6345,10.603,10.837,12.432
1.8325,-4.7209,-0.91057,-7.8431,-6.8966,-5.0732,-8.6957,-3.9291,-7.7939,-7.8431,-6.8966,-4.902,6.6667,5.6778,10.54,3.8647,9.7262,4.7021,5.8413,10.837,7.6006
-1.0111,-9.5056,-4.813,-9.8039,-10.837,-8.9756,-9.6618,-3.9291,-9.7262,-9.8039,-10.837,-8.8235,5.7143,1.8501,7.6825,-2.8986,4.8953,4.7021,9.6508,10.837,1.8035
-3.8547,-11.419,-7.7398,-12.745,-10.837,-11.902,-9.6618,-7.7939,-6.8277,-12.745,-10.837,-9.8039,4.7619,-0.0638,3.873,-7.7295,0.06441,5.6683,4.8889,7.8818,-1.095
-7.6461,-12.376,-8.7154,-13.725,-9.8522,-12.878,-14.493,-7.7939,-4.8953,-13.725,-9.8522,-11.765,1.9048,-2.9346,-0.88889,-11.594,-4.7665,1.8035,-8.4444,4.9261,-3.9936
-9.5419,-12.376,-8.7154,-10.784,-7.8818,-11.902,-12.56,-5.8615,-8.7601,-10.784,-7.8818,-10.784,-1.9048,-6.7624,-5.6508,-15.459,-9.5974,-1.095,-20.825001,2.9557,-8.8245
-9.5419,-12.376,-8.7154,-7.8431,-4.9261,-10.927,-7.7295,-3.9291,-7.7939,-7.8431,-4.9261,-8.8235,-4.7619,-10.59,-10.413,-17.391001,-12.496,-0.12882,-18.921,-0.98522,-14.622
-7.6461,-5.6778,-3.8374,-3.9216,0.98522,-8.0,0.96618,-2.963,-1.0306,-3.9216,0.98522,-2.9412,-3.8095,-9.6332,-9.4603,-13.527,-9.5974,-0.12882,-12.254,-0.98522,-13.655
-6.6983,-1.8501,-0.91057,-2.9412,2.9557,-5.0732,3.8647,-2.963,3.8003,-2.9412,2.9557,0.0,-3.8095,-6.7624,-11.365,-9.6618,-8.6312,-3.0274,2.9841,-5.9113,-13.655
-9.5419,1.0207,-1.8862,-3.9216,1.9704,-6.0488,3.8647,-3.9291,1.868,-3.9216,1.9704,-0.98039,-2.8571,-2.9346,-13.27,-6.7633,-7.6651,-6.8921,-4.6349,-10.837,-12.689
-8.594,2.9346,0.06504,-4.902,-6.8966,-5.0732,0.0,-3.9291,-6.8277,-4.902,-6.8966,-1.9608,0.0,1.8501,-10.413,0.0,-2.8341,-6.8921,-0.8254,-8.867,-6.8921
-2.9068,6.7624,3.9675,-4.902,-2.9557,-1.1707,2.8986,-1.0306,-0.06441,-4.902,-2.9557,0.0,0.0,4.7209,-6.6032,6.7633,2.963,-1.095,16.316999,-8.867,-1.095
-1.9589,9.6332,4.9431,-1.9608,6.8966,-1.1707,6.7633,-1.0306,10.564,-1.9608,6.8966,0.98039,-0.95238,3.764,-4.6984,10.628,4.8953,-2.0612,16.316999,-9.8522,1.8035
-0.06319,9.6332,3.9675,1.9608,6.8966,-1.1707,5.7971,-2.963,11.53,1.9608,6.8966,0.98039,-2.8571,4.7209,-1.8413,11.594,4.8953,-3.0274,7.746,-8.867,4.7021
3.7283,11.547,5.9187,5.8824,7.8818,2.7317,7.7295,0.90177,10.564,5.8824,7.8818,3.9216,-3.8095,6.6348,1.0159,13.527,5.8615,1.8035,2.9841,-5.9113,6.6345
5.624,10.59,5.9187,1.9608,2.9557,3.7073,3.8647,0.90177,6.6989,1.9608,2.9557,2.9412,-1.9048,8.5486,3.873,13.527,5.8615,3.7359,-3.6825,-2.9557,5.6683
5.624,1.9777,2.9919,-5.8824,-4.9261,0.78049,0.0,-1.9968,0.90177,-5.8824,-4.9261,0.0,0.95238,9.5056,4.8254,7.7295,4.8953,0.83736,-2.7302,0.0,6.6345
1.8325,-3.764,-0.91057,-8.8235,-6.8966,-1.1707,-2.8986,-3.9291,0.90177,-8.8235,-6.8966,-1.9608,0.95238,9.5056,3.873,3.8647,1.9968,-2.0612,0.12698,0.0,6.6345
1.8325,-3.764,-0.91057,-7.8431,-7.8818,-0.19512,-3.8647,-5.8615,-1.9968,-7.8431,-7.8818,-2.9412,2.8571,8.5486,5.7778,3.8647,2.963,-0.12882,-3.6825,2.9557,9.533
-1.9589,-6.6348,-4.813,-4.902,-4.9261,-1.1707,-3.8647,-5.8615,-1.9968,-4.902,-4.9261,-3.9216,0.0,4.7209,1.0159,-1.9324,-1.868,-4.9597,-0.8254,0.0,6.6345
-4.8025,-7.5917,-8.7154,-3.9216,0.0,-1.1707,0.96618,-6.8277,2.8341,-3.9216,0.0,-1.9608,-1.9048,0.89314,-4.6984,-6.7633,-7.6651,-9.7907,7.746,-1.9704,4.7021
-7.6461,-9.5056,-11.642,-2.9412,0.0,-0.19512,0.96618,-3.9291,2.8341,-2.9412,0.0,-2.9412,-2.8571,-1.9777,-6.6032,-8.6957,-10.564,-5.9259,3.9365,-2.9557,2.7697
-4.8025,-5.6778,-9.6911,-0.98039,0.98522,-1.1707,0.0,-2.963,2.8341,-0.98039,0.98522,-0.98039,-1.9048,-2.9346,-4.6984,-8.6957,-7.6651,-4.9597,-4.6349,-1.9704,1.8035
-6.6983,-8.5486,-10.667,0.98039,2.9557,-4.0976,-2.8986,-3.9291,4.7665,0.98039,2.9557,-1.9608,-2.8571,-6.7624,-5.6508,-13.527,-8.6312,-8.8245,-6.5397,-3.9409,-4.9597
-11.438,-15.247,-15.545,-1.9608,0.0,-8.0,-3.8647,-3.9291,2.8341,-1.9608,0.0,-4.902,-2.8571,-7.7193,-9.4603,-20.290001,-11.53,-8.8245,3.9365,-6.8966,-8.8245
-17.125,-20.032,-22.374001,-3.9216,-3.9409,-12.878,-8.6957,-6.8277,-0.06441,-3.9216,-3.9409,-12.745,-4.7619,-9.6332,-14.222,-25.121,-16.361,-11.723,6.7937,-9.8522,-12.689
-18.073,-16.204,-23.35,-5.8824,-3.9409,-12.878,-8.6957,-6.8277,-0.06441,-5.8824,-3.9409,-14.706,-4.7619,-8.6762,-16.127001,-19.323999,-15.395,-9.7907,2.0317,-8.867,-10.757
-16.177,-10.463,-18.472,-4.902,-2.9557,-10.927,-3.8647,-4.8953,2.8341,-4.902,-2.9557,-12.745,-2.8571,-7.7193,-14.222,-12.56,-10.564,-5.9259,-2.7302,-9.8522,-8.8245
-12.385,-5.6778,-12.618,-5.8824,-3.9409,-11.902,-2.8986,-3.9291,2.8341,-5.8824,-3.9409,-11.765,-1.9048,-6.7624,-11.365,-8.6957,-7.6651,-4.9597,-13.206,-7.8818,-9.7907
-10.49,-4.7209,-9.6911,-9.8039,-6.8966,-11.902,-4.8309,-4.8953,-1.0306,-9.8039,-6.8966,-11.765,-1.9048,-5.8054,-10.413,-7.7295,-6.6989,-3.9936,-5.5873,-6.8966,-7.8583
-8.594,-5.6778,-6.7642,-7.8431,-4.9261,-9.9512,-6.7633,-2.963,-1.9968,-7.8431,-4.9261,-10.784,-2.8571,-2.9346,-9.4603,-4.8309,-5.7327,-4.9597,2.9841,-6.8966,-3.9936
-6.6983,-5.6778,-5.7886,-3.9216,-2.9557,-7.0244,-3.8647,-1.9968,0.90177,-3.9216,-2.9557,-8.8235,-1.9048,-0.0638,-6.6032,-1.9324,-3.8003,0.83736,1.0794,-2.9557,-0.12882
-4.8025,-4.7209,-5.7886,-3.9216,-5.9113,-4.0976,-4.8309,-1.0306,-0.06441,-3.9216,-5.9113,-7.8431,-1.9048,-0.0638,-4.6984,-0.96618,-4.7665,4.7021,2.0317,0.0,1.8035
-4.8025,-3.764,-6.7642,-1.9608,-5.9113,-5.0732,-3.8647,-0.06441,-2.963,-1.9608,-5.9113,-6.8627,-4.7619,-1.9777,-6.6032,-2.8986,-7.6651,-1.095,0.12698,-0.98522,-1.095
-2.9068,-2.807,-5.7886,-1.9608,-4.9261,-1.1707,-1.9324,1.868,-1.0306,-1.9608,-4.9261,-3.9216,-6.6667,-1.9777,-5.6508,-3.8647,-8.6312,-3.9936,-8.4444,-1.9704,-3.0274
0.88468,1.0207,-0.91057,0.0,-0.98522,4.6829,0.96618,3.8003,0.90177,0.0,-0.98522,0.98039,-4.7619,-0.0638,-3.746,-1.9324,-5.7327,-1.095,-7.4921,-1.9704,-1.095
4.6761,2.9346,2.9919,6.8627,1.9704,8.5854,1.9324,5.7327,2.8341,6.8627,1.9704,3.9216,-1.9048,1.8501,0.06349,0.96618,-2.8341,-2.0612,-8.4444,0.0,2.7697
4.6761,1.0207,3.9675,6.8627,-1.9704,8.5854,0.0,5.7327,-0.06441,6.8627,-1.9704,3.9216,0.95238,2.807,1.9683,2.8986,0.06441,0.83736,-1.7778,0.98522,3.7359
4.6761,2.9346,2.9919,8.8235,0.0,8.5854,1.9324,6.6989,2.8341,8.8235,0.0,3.9216,5.7143,5.6778,4.8254,5.7971,3.9291,3.7359,9.6508,4.9261,6.6345
2.7804,-1.8501,-0.91057,8.8235,0.98522,6.6341,-0.96618,4.7665,-1.0306,8.8235,0.98522,1.9608,6.6667,5.6778,5.7778,1.9324,4.8953,2.7697,7.746,5.9113,2.7697
1.8325,-5.6778,-1.8862,5.8824,-0.98522,4.6829,-2.8986,1.868,-1.0306,5.8824,-0.98522,0.98039,4.7619,0.89314,3.873,-3.8647,1.0306,0.83736,4.8889,4.9261,-2.0612
1.8325,-3.764,0.06504,5.8824,0.98522,4.6829,-0.96618,3.8003,-0.06441,5.8824,0.98522,2.9412,3.8095,-0.0638,2.9206,-4.8309,0.06441,3.7359,6.7937,2.9557,-3.0274
2.7804,1.0207,2.9919,6.8627,6.8966,4.6829,0.96618,5.7327,3.8003,6.8627,6.8966,4.902,4.7619,2.807,3.873,-2.8986,0.06441,5.6683,2.0317,4.9261,-1.095
-1.0111,1.9777,1.0407,5.8824,6.8966,-0.19512,2.8986,3.8003,4.7665,5.8824,6.8966,1.9608,1.9048,0.89314,-0.88889,-3.8647,-3.8003,2.7697,-7.4921,1.9704,-2.0612
-2.9068,-1.8501,-2.8618,2.9412,3.9409,-4.0976,0.96618,0.90177,6.6989,2.9412,3.9409,-1.9608,-0.95238,-1.0207,-3.746,-8.6957,-7.6651,-0.12882,-7.4921,0.98522,-4.9597
-1.9589,0.0638,-1.8862,1.9608,1.9704,-4.0976,1.9324,0.90177,4.7665,1.9608,1.9704,-1.9608,-3.8095,-5.8054,-5.6508,-10.628,-8.6312,1.8035,-7.4921,0.0,-8.8245
1.8325,-1.8501,1.0407,0.98039,3.9409,1.7561,5.7971,1.868,2.8341,0.98039,3.9409,1.9608,-5.7143,-8.6762,-4.6984,-9.6618,-7.6651,3.7359,8.6984,1.9704,-7.8583
-0.06319,-5.6778,-1.8862,-0.98039,1.9704,1.7561,1.9324,0.90177,1.868,-0.98039,1.9704,0.98039,-6.6667,-8.6762,-7.5556,-8.6957,-8.6312,6.6345,11.556,0.0,-5.9259
-4.8025,-2.807,-2.8618,-2.9412,-0.98522,-0.19512,0.0,-2.963,-1.0306,-2.9412,-0.98522,-0.98039,-8.5714,-6.7624,-10.413,-3.8647,-7.6651,5.6683,4.8889,-2.9557,-2.0612
-4.8025,1.0207,-0.91057,-3.9216,-2.9557,-2.1463,-1.9324,-2.963,-2.963,-3.9216,-2.9557,-0.98039,-8.5714,-4.8485,-9.4603,0.0,-5.7327,-3.0274,1.0794,-3.9409,-0.12882
-2.9068,2.9346,2.0163,-2.9412,-2.9557,-3.122,-2.8986,-1.9968,-1.9968,-2.9412,-2.9557,-0.98039,-9.5238,-2.9346,-8.5079,3.8647,-3.8003,-8.8245,3.9365,-2.9557,2.7697
-0.06319,3.8915,3.9675,-0.98039,0.0,-1.1707,0.96618,-1.0306,2.8341,-0.98039,0.0,1.9608,-7.619,-1.0207,-5.6508,5.7971,-1.868,-2.0612,9.6508,-1.9704,5.6683
2.7804,3.8915,5.9187,0.0,2.9557,1.7561,3.8647,-1.0306,3.8003,0.0,2.9557,5.8824,-5.7143,-0.0638,-1.8413,4.8309,1.0306,4.7021,-5.5873,0.0,4.7021
6.5719,5.8054,9.8211,0.98039,2.9557,3.7073,5.7971,-1.9968,-0.06441,0.98039,2.9557,6.8627,-3.8095,-0.0638,3.873,6.7633,4.8953,4.7021,-0.8254,3.9409,5.6683
9.4155,6.7624,13.724,-0.98039,1.9704,6.6341,5.7971,-1.9968,-0.06441,-0.98039,1.9704,8.8235,-1.9048,-0.0638,8.6349,8.6957,7.7939,3.7359,12.508,5.9113,6.6345
10.363,6.7624,13.724,1.9608,2.9557,5.6585,2.8986,-0.06441,1.868,1.9608,2.9557,7.8431,-1.9048,-1.9777,9.5873,8.6957,8.7601,2.7697,11.556,5.9113,6.6345
12.259,7.7193,13.724,7.8431,6.8966,5.6585,7.7295,2.8341,5.7327,7.8431,6.8966,9.8039,0.95238,-1.0207,12.444,8.6957,9.7262,3.7359,6.7937,10.837,5.6683
10.363,6.7624,12.748,6.8627,6.8966,4.6829,8.6957,3.8003,3.8003,6.8627,6.8966,8.8235,1.9048,-1.9777,12.444,6.7633,8.7601,5.6683,4.8889,9.8522,3.7359
12.259,10.59,14.699,3.9216,3.9409,6.6341,9.6618,6.6989,3.8003,3.9216,3.9409,8.8235,4.7619,0.89314,15.302,9.6618,11.659,10.499,7.746,10.837,4.7021
10.363,8.6762,12.748,4.902,2.9557,6.6341,8.6957,7.6651,4.7665,4.902,2.9557,7.8431,4.7619,1.8501,14.349,8.6957,9.7262,6.6345,3.9365,9.8522,4.7021
7.5197,8.6762,9.8211,6.8627,5.9113,7.6098,4.8309,8.6312,5.7327,6.8627,5.9113,7.8431,0.95238,1.8501,9.5873,8.6957,5.8615,8.5668,0.12698,6.8966,5.6683
8.4676,7.7193,9.8211,5.8824,4.9261,8.5854,0.96618,6.6989,1.868,5.8824,4.9261,8.8235,-1.9048,-0.0638,6.7302,8.6957,4.8953,12.432,1.0794,5.9113,3.7359
9.4155,5.8054,10.797,0.98039,-5.9113,6.6341,-1.9324,3.8003,-4.8953,0.98039,-5.9113,5.8824,-1.9048,-1.0207,6.7302,8.6957,4.8953,8.5668,5.8413,5.9113,4.7021
6.5719,4.8485,7.8699,10.784,3.9409,7.6098,3.8647,9.5974,-1.9968,10.784,3.9409,5.8824,-5.7143,-3.8915,1.9683,6.7633,1.0306,3.7359,8.6984,0.98522,4.7021
0.88468,2.9346,2.9919,14.706,12.808,6.6341,6.7633,8.6312,2.8341,14.706,12.808,4.902,-9.5238,-7.7193,-2.7937,3.8647,-2.8341,-0.12882,9.6508,-2.9557,3.7359
0.88468,2.9346,3.9675,6.8627,8.867,3.7073,8.6957,2.8341,3.8003,6.8627,8.867,6.8627,-5.7143,-3.8915,0.06349,3.8647,0.06441,0.83736,4.8889,-1.9704,5.6683
1.8325,1.9777,2.9919,4.902,5.9113,3.7073,3.8647,-0.06441,-0.06441,4.902,5.9113,5.8824,0.0,2.807,3.873,4.8309,3.9291,-3.0274,2.0317,0.98522,7.6006
4.6761,2.9346,4.9431,6.8627,4.9261,4.6829,0.96618,-1.9968,-1.9968,6.8627,4.9261,6.8627,3.8095,8.5486,6.7302,6.7633,6.8277,-1.095,7.746,3.9409,10.499
4.6761,6.7624,5.9187,3.9216,5.9113,2.7317,-0.96618,-4.8953,1.868,3.9216,5.9113,6.8627,4.7619,7.5917,7.6825,7.7295,7.7939,0.83736,-9.3968,6.8966,9.533
3.7283,7.7193,5.9187,-0.98039,4.9261,-0.19512,3.8647,-8.7601,3.8003,-0.98039,4.9261,4.902,4.7619,5.6778,7.6825,8.6957,7.7939,1.8035,-6.5397,9.8522,9.533
1.8325,5.8054,3.9675,-0.98039,3.9409,-2.1463,6.7633,-8.7601,6.6989,-0.98039,3.9409,1.9608,2.8571,1.8501,6.7302,8.6957,6.8277,-2.0612,7.746,7.8818,7.6006
-0.06319,3.8915,1.0407,0.0,3.9409,-5.0732,4.8309,-6.8277,1.868,0.0,3.9409,-0.98039,0.0,-2.9346,5.7778,6.7633,4.8953,-4.9597,-0.8254,4.9261,4.7021
-0.06319,1.0207,1.0407,-1.9608,0.0,-5.0732,2.8986,-2.963,-0.06441,-1.9608,0.0,-2.9412,-0.95238,-4.8485,4.8254,1.9324,2.963,-3.0274,2.0317,1.9704,0.83736
0.88468,0.0638,2.0163,0.0,-0.98522,-3.122,0.96618,-1.0306,0.90177,0.0,-0.98522,-0.98039,-0.95238,-7.7193,3.873,-2.8986,0.06441,-0.12882,7.746,2.9557,-3.9936
-1.9589,-5.6778,-1.8862,-0.98039,1.9704,-4.0976,-5.7971,-1.0306,-2.963,-0.98039,1.9704,-2.9412,-1.9048,-9.6332,0.06349,-7.7295,-4.7665,5.6683,1.0794,2.9557,-8.8245
-1.9589,-9.5056,-2.8618,-2.9412,1.9704,-3.122,-8.6957,1.868,-2.963,-2.9412,1.9704,-2.9412,-3.8095,-9.6332,-1.8413,-8.6957,-5.7327,1.8035,-3.6825,2.9557,-10.757
3.7283,-3.764,2.0163,0.98039,2.9557,1.7561,0.0,6.6989,-1.0306,0.98039,2.9557,2.9412,-1.9048,-4.8485,0.06349,-4.8309,-3.8003,6.6345,-11.302,2.9557,-7.8583
9.4155,1.0207,7.8699,3.9216,3.9409,5.6585,6.7633,9.5974,-0.06441,3.9216,3.9409,8.8235,0.95238,-0.0638,2.9206,-0.96618,-0.90177,11.465,-11.302,1.9704,-6.8921
5.624,1.9777,6.8943,3.9216,2.9557,5.6585,5.7971,6.6989,-0.06441,3.9216,2.9557,7.8431,1.9048,3.764,0.06349,-0.96618,-0.90177,7.6006,-5.5873,-1.9704,-3.9936
-1.0111,-1.8501,2.0163,0.0,-2.9557,-0.19512,-1.9324,1.868,-5.8615,0.0,-2.9557,1.9608,1.9048,6.6348,-3.746,-0.96618,-2.8341,1.8035,-5.5873,-6.8966,-2.0612
-2.9068,-3.764,-0.91057,-2.9412,-4.9261,-4.0976,-4.8309,-2.963,-9.7262,-2.9412,-4.9261,0.0,3.8095,9.5056,-3.746,0.0,-0.90177,2.7697,-0.8254,-6.8966,2.7697
-3.8547,-0.89314,-1.8862,-5.8824,-4.9261,-4.0976,-3.8647,-6.8277,-8.7601,-5.8824,-4.9261,0.98039,2.8571,9.5056,-2.7937,2.8986,1.0306,-3.0274,-5.5873,-4.9261,7.6006
-3.8547,1.0207,-1.8862,-8.8235,-5.9113,-4.0976,-1.9324,-6.8277,-6.8277,-8.8235,-5.9113,0.98039,0.0,6.6348,-3.746,4.8309,1.0306,-7.8583,2.0317,-3.9409,9.533
-5.7504,1.9777,-3.8374,-7.8431,-7.8818,-5.0732,-4.8309,-7.7939,-5.8615,-7.8431,-7.8818,-1.9608,-3.8095,2.807,-4.6984,4.8309,0.06441,-7.8583,8.6984,-4.9261,6.6345
-3.8547,4.8485,-2.8618,-4.902,-0.98522,-2.1463,0.0,-6.8277,0.90177,-4.902,-0.98522,-0.98039,-3.8095,0.89314,-4.6984,6.7633,0.06441,-6.8921,4.8889,-3.9409,6.6345
-5.7504,4.8485,-4.813,-2.9412,2.9557,-3.122,4.8309,-1.9968,6.6989,-2.9412,2.9557,-0.98039,-4.7619,-1.9777,-3.746,6.7633,-1.868,-9.7907,-5.5873,-4.9261,5.6683
-8.594,1.0207,-9.6911,0.0,0.98522,-7.0244,5.7971,-1.9968,3.8003,0.0,0.98522,-4.902,-4.7619,-3.8915,-5.6508,3.8647,-3.8003,-5.9259,-3.6825,-4.9261,3.7359
-10.49,-0.89314,-10.667,-1.9608,-0.98522,-8.0,2.8986,-1.9968,2.8341,-1.9608,-0.98522,-9.8039,-4.7619,-5.8054,-5.6508,0.0,-4.7665,-3.0274,5.8413,-4.9261,-0.12882
-9.5419,-4.7209,-10.667,-2.9412,0.98522,-8.0,-1.9324,-1.0306,2.8341,-2.9412,0.98522,-11.765,-2.8571,-6.7624,-3.746,-4.8309,-3.8003,-3.0274,2.9841,-1.9704,-3.9936
-8.594,-10.463,-12.618,0.98039,0.0,-6.0488,-8.6957,-0.06441,-0.06441,0.98039,0.0,-12.745,-0.95238,-7.7193,-1.8413,-7.7295,-3.8003,-4.9597,-6.5397,-0.98522,-4.9597
-7.6461,-10.463,-11.642,2.9412,-1.9704,-5.0732,-8.6957,1.868,-1.9968,2.9412,-1.9704,-11.765,0.0,-7.7193,-1.8413,-9.6618,-4.7665,-5.9259,-1.7778,0.0,-3.9936
-4.8025,-6.6348,-7.7398,0.98039,-0.98522,-3.122,-5.7971,3.8003,-1.0306,0.98039,-0.98522,-5.8824,0.95238,-7.7193,-0.88889,-12.56,-5.7327,-3.9936,-7.4921,0.0,-5.9259
-0.06319,-4.7209,-1.8862,5.8824,2.9557,2.7317,-0.96618,7.6651,1.868,5.8824,2.9557,0.0,1.9048,-5.8054,1.0159,-12.56,-4.7665,1.8035,-9.3968,0.0,-8.8245
1.8325,-5.6778,0.06504,10.784,3.9409,5.6585,5.7971,7.6651,3.8003,10.784,3.9409,3.9216,1.9048,-5.8054,1.0159,-13.527,-6.6989,4.7021,1.0794,0.98522,-10.757
0.88468,-3.764,-0.91057,9.8039,2.9557,4.6829,5.7971,6.6989,1.868,9.8039,2.9557,3.9216,1.9048,-3.8915,0.06349,-12.56,-6.6989,6.6345,6.7937,2.9557,-10.757
0.88468,1.0207,1.0407,6.8627,6.8966,2.7317,4.8309,7.6651,2.8341,6.8627,6.8966,5.8824,2.8571,-0.0638,1.0159,-6.7633,-3.8003,0.83736,-4.6349,3.9409,-7.8583
-1.0111,1.9777,2.0163,6.8627,6.8966,2.7317,2.8986,4.7665,3.8003,6.8627,6.8966,5.8824,5.7143,5.6778,-0.88889,-1.9324,-0.90177,2.7697,-11.302,0.0,-3.0274
1.8325,4.8485,4.9431,6.8627,5.9113,3.7073,5.7971,4.7665,4.7665,6.8627,5.9113,5.8824,10.476,13.333,1.9683,4.8309,5.8615,5.6683,-11.302,0.98522,3.7359
0.88468,2.9346,2.9919,2.9412,0.98522,1.7561,2.8986,-0.06441,-0.06441,2.9412,0.98522,3.9216,8.5714,13.333,-1.8413,5.7971,5.8615,2.7697,-4.6349,-1.9704,4.7021
-3.8547,-0.89314,0.06504,-1.9608,-0.98522,-1.1707,1.9324,-3.9291,-2.963,-1.9608,-0.98522,0.98039,5.7143,12.376,-6.6032,4.8309,2.963,1.8035,0.12698,-5.9113,4.7021
-6.6983,-2.807,-3.8374,-1.9608,0.98522,-5.0732,1.9324,-3.9291,-1.0306,-1.9608,0.98522,-0.98039,3.8095,13.333,-9.4603,4.8309,1.0306,-2.0612,0.12698,-5.9113,6.6345
-7.6461,-3.764,-6.7642,1.9608,0.98522,-4.0976,0.96618,-1.0306,-2.963,1.9608,0.98522,-2.9412,0.95238,11.419,-11.365,3.8647,-0.90177,-3.0274,0.12698,-6.8966,6.6345
-7.6461,-3.764,-8.7154,0.98039,-2.9557,-4.0976,-4.8309,-1.0306,-7.7939,0.98039,-2.9557,-5.8824,-3.8095,5.6778,-11.365,2.8986,-2.8341,-4.9597,4.8889,-8.867,4.7021
-3.8547,0.0638,-4.813,0.0,-2.9557,0.78049,-2.8986,1.868,-6.8277,0.0,-2.9557,-3.9216,-5.7143,2.807,-8.5079,3.8647,-1.868,-0.12882,3.9365,-7.8818,4.7021
-0.06319,1.0207,-1.8862,0.0,-2.9557,2.7317,-2.8986,1.868,-7.7939,0.0,-2.9557,-0.98039,-6.6667,-1.9777,-6.6032,0.96618,-4.7665,-4.9597,-6.5397,-4.9261,0.83736
3.7283,0.0638,0.06504,3.9216,-0.98522,5.6585,-2.8986,4.7665,-3.9291,3.9216,-0.98522,1.9608,-8.5714,-5.8054,-3.746,-2.8986,-6.6989,0.83736,-0.8254,-2.9557,-5.9259
7.5197,-2.807,1.0407,6.8627,2.9557,7.6098,-0.96618,4.7665,-0.06441,6.8627,2.9557,4.902,-4.7619,-4.8485,1.0159,-4.8309,-3.8003,9.533,-1.7778,-0.98522,-6.8921
8.4676,-2.807,2.0163,5.8824,1.9704,6.6341,-1.9324,0.90177,-0.06441,5.8824,1.9704,4.902,-1.9048,-3.8915,4.8254,-4.8309,-0.90177,1.8035,-16.063,2.9557,-4.9597
6.5719,-5.6778,2.9919,1.9608,1.9704,4.6829,-3.8647,-1.9968,-2.963,1.9608,1.9704,2.9412,-1.9048,-2.9346,5.7778,-4.8309,1.0306,-2.0612,-4.6349,0.98522,-3.9936
9.4155,-0.89314,5.9187,-0.98039,0.98522,4.6829,-0.96618,-1.0306,-1.9968,-0.98039,0.98522,2.9412,1.9048,-0.0638,9.5873,1.9324,5.8615,-0.12882,5.8413,1.9704,-1.095
11.311,2.9346,8.8455,-0.98039,0.0,4.6829,-2.8986,-1.0306,-1.0306,-0.98039,0.0,2.9412,4.7619,1.8501,12.444,5.7971,9.7262,0.83736,6.7937,4.9261,2.7697
8.4676,2.9346,4.9431,-0.98039,0.0,4.6829,-3.8647,-1.0306,2.8341,-0.98039,0.0,1.9608,6.6667,4.7209,12.444,7.7295,9.7262,2.7697,-5.5873,4.9261,3.7359
6.5719,2.9346,1.0407,-0.98039,2.9557,3.7073,2.8986,-1.9968,5.7327,-0.98039,2.9557,1.9608,7.619,6.6348,12.444,7.7295,9.7262,0.83736,-1.7778,6.8966,3.7359
5.624,5.8054,1.0407,0.98039,0.98522,1.7561,7.7295,-1.0306,3.8003,0.98039,0.98522,2.9412,8.5714,9.5056,13.397,10.628,10.692,-6.8921,6.7937,8.867,8.5668
3.7283,4.8485,1.0407,0.0,0.98522,-1.1707,6.7633,-2.963,3.8003,0.0,0.98522,1.9608,9.5238,9.5056,10.54,9.6618,10.692,-2.0612,11.556,7.8818,8.5668
0.88468,4.8485,1.0407,-6.8627,0.98522,-4.0976,0.96618,-3.9291,3.8003,-6.8627,0.98522,-0.98039,11.429,9.5056,9.5873,7.7295,8.7601,2.7697,6.7937,6.8966,5.6683
0.88468,4.8485,0.06504,-9.8039,-2.9557,-5.0732,0.96618,-1.0306,-1.0306,-9.8039,-2.9557,-1.9608,11.429,7.5917,7.6825,2.8986,6.8277,4.7021,0.12698,7.8818,1.8035
1.8325,1.9777,-0.91057,-2.9412,-4.9261,-1.1707,-0.96618,2.8341,-1.0306,-2.9412,-4.9261,-1.9608,13.333,6.6348,6.7302,0.0,3.9291,8.5668,-1.7778,7.8818,-1.095
5.624,1.9777,1.0407,1.9608,-1.9704,3.7073,0.96618,6.6989,-1.0306,1.9608,-1.9704,1.9608,12.381,4.7209,6.7302,-0.96618,3.9291,9.533,-10.349,6.8966,-3.0274
6.5719,1.0207,1.0407,-0.98039,-1.9704,6.6341,1.9324,7.6651,-2.963,-0.98039,-1.9704,2.9412,9.5238,0.89314,4.8254,-0.96618,1.9968,7.6006,-11.302,5.9113,-3.0274
3.7283,-0.89314,0.06504,0.0,-2.9557,2.7317,-1.9324,2.8341,-1.0306,0.0,-2.9557,1.9608,4.7619,-3.8915,1.0159,-3.8647,-0.90177,-1.095,1.0794,3.9409,-6.8921
-1.0111,-4.7209,-4.813,-1.9608,-5.9113,-3.122,-5.7971,-1.9968,-3.9291,-1.9608,-5.9113,-2.9412,0.95238,-7.7193,-3.746,-8.6957,-4.7665,-1.095,-5.5873,0.0,-10.757
-5.7504,-9.5056,-8.7154,-3.9216,-2.9557,-7.0244,-2.8986,-1.9968,-3.9291,-3.9216,-2.9557,-7.8431,-1.9048,-9.6332,-7.5556,-10.628,-6.6989,-0.12882,3.9365,-3.9409,-12.689
-6.6983,-8.5486,-8.7154,-5.8824,-0.98522,-8.9756,-2.8986,-1.0306,-1.0306,-5.8824,-0.98522,-10.784,-1.9048,-8.6762,-6.6032,-6.7633,-3.8003,-1.095,10.603,-3.9409,-10.757
-2.9068,-6.6348,-4.813,-3.9216,-1.9704,-5.0732,-5.7971,-0.06441,-0.06441,-3.9216,-1.9704,-10.784,-0.95238,-3.8915,-1.8413,0.0,1.0306,1.8035,1.0794,-0.98522,-5.9259
-1.9589,-5.6778,-1.8862,0.0,-1.9704,-3.122,-6.7633,-1.0306,-2.963,0.0,-1.9704,-8.8235,-1.9048,-1.9777,-0.88889,2.8986,2.963,-1.095,-4.6349,-3.9409,-3.9936
0.88468,0.0638,1.0407,0.98039,0.98522,0.78049,-3.8647,0.90177,-0.06441,0.98039,0.98522,-3.9216,-0.95238,0.89314,1.0159,5.7971,3.9291,0.83736,4.8889,-0.98522,-1.095
5.624,5.8054,4.9431,3.9216,3.9409,6.6341,1.9324,2.8341,0.90177,3.9216,3.9409,4.902,0.0,2.807,1.9683,6.7633,2.963,4.7021,-1.7778,1.9704,0.83736
6.5719,5.8054,6.8943,6.8627,1.9704,9.561,4.8309,2.8341,-1.0306,6.8627,1.9704,9.8039,0.0,2.807,0.06349,2.8986,1.0306,2.7697,-10.349,0.0,-2.0612
8.4676,3.8915,7.8699,9.8039,3.9409,11.512,4.8309,3.8003,-2.963,9.8039,3.9409,10.784,-0.95238,1.8501,0.06349,0.96618,1.0306,-0.12882,-16.063,-0.98522,-2.0612
11.311,3.8915,8.8455,6.8627,5.9113,12.488,2.8986,3.8003,-1.0306,6.8627,5.9113,10.784,0.0,2.807,1.0159,2.8986,1.9968,4.7021,-11.302,0.0,-1.095
10.363,-1.8501,6.8943,4.902,5.9113,10.537,-0.96618,4.7665,-4.8953,4.902,5.9113,6.8627,0.0,2.807,1.0159,0.96618,1.0306,4.7021,-9.3968,0.98522,-0.12882
5.624,-4.7209,2.0163,3.9216,0.98522,3.7073,-4.8309,2.8341,-3.9291,3.9216,0.98522,0.0,0.0,2.807,1.0159,-0.96618,-1.868,3.7359,-1.7778,1.9704,0.83736
-1.9589,-4.7209,-2.8618,-1.9608,-4.9261,-3.122,-3.8647,-0.06441,-1.0306,-1.9608,-4.9261,-5.8824,-2.8571,0.89314,-5.6508,-4.8309,-6.6989,3.7359,3.9365,-3.9409,-0.12882
-8.594,-4.7209,-9.6911,-3.9216,-3.9409,-6.0488,-4.8309,0.90177,-1.0306,-3.9216,-3.9409,-9.8039,-6.6667,-3.8915,-13.27,-7.7295,-12.496,-2.0612,3.9365,-8.867,-2.0612
-9.5419,-1.8501,-10.667,-5.8824,-4.9261,-6.0488,-3.8647,-0.06441,-1.0306,-5.8824,-4.9261,-9.8039,-5.7143,-5.8054,-13.27,-5.7971,-12.496,-6.8921,-8.4444,-6.8966,-0.12882
-7.6461,-3.764,-7.7398,-6.8627,-6.8966,-5.0732,-3.8647,-1.9968,-3.9291,-6.8627,-6.8966,-7.8431,-4.7619,-7.7193,-10.413,-5.7971,-9.5974,-5.9259,8.6984,-6.8966,-3.0274
-1.9589,0.0638,1.0407,0.0,0.0,-0.19512,0.96618,-0.06441,-1.0306,0.0,0.0,0.98039,0.95238,-2.9346,-1.8413,0.0,-0.90177,-4.9597,9.6508,-1.9704,-0.12882
1.8325,4.8485,5.9187,4.902,2.9557,2.7317,3.8647,-0.06441,2.8341,4.902,2.9557,4.902,4.7619,1.8501,3.873,5.7971,5.8615,-1.095,0.12698,0.0,4.7021
-1.0111,2.9346,2.0163,0.98039,0.0,-2.1463,1.9324,-3.9291,3.8003,0.98039,0.0,1.9608,0.95238,-0.0638,1.0159,3.8647,3.9291,-4.9597,1.0794,-3.9409,2.7697
-4.8025,3.8915,-0.91057,-7.8431,-0.98522,-6.0488,0.96618,-6.8277,6.6989,-7.8431,-0.98522,-2.9412,0.0,0.89314,1.9683,4.8309,4.8953,-8.8245,9.6508,-1.9704,1.8035
-2.9068,6.7624,0.06504,-9.8039,-0.98522,-8.0,0.96618,-4.8953,6.6989,-9.8039,-0.98522,-4.902,0.0,-0.0638,3.873,8.6957,7.7939,-1.095,7.746,-0.98522,4.7021
-1.0111,8.6762,2.0163,-6.8627,1.9704,-9.9512,5.7971,-3.9291,6.6989,-6.8627,1.9704,-2.9412,-1.9048,-2.9346,3.873,8.6957,6.8277,2.7697,5.8413,-0.98522,3.7359
1.8325,5.8054,2.9919,-6.8627,0.98522,-6.0488,3.8647,-2.963,4.7665,-6.8627,0.98522,0.98039,-2.8571,-3.8915,4.8254,4.8309,4.8953,0.83736,4.8889,2.9557,-0.12882
7.5197,2.9346,5.9187,-2.9412,2.9557,2.7317,6.7633,0.90177,2.8341,-2.9412,2.9557,5.8824,0.0,-0.0638,5.7778,3.8647,5.8615,3.7359,2.0317,4.9261,0.83736
8.4676,3.8915,7.8699,3.9216,2.9557,9.561,4.8309,3.8003,-1.0306,3.9216,2.9557,7.8431,1.9048,3.764,4.8254,2.8986,4.8953,4.7021,-4.6349,4.9261,0.83736
8.4676,1.9777,5.9187,4.902,0.98522,13.463,2.8986,6.6989,-1.9968,4.902,0.98522,6.8627,0.0,1.8501,1.9683,-1.9324,0.06441,6.6345,-1.7778,3.9409,-3.0274
4.6761,1.0207,2.0163,5.8824,1.9704,13.463,-0.96618,9.5974,0.90177,5.8824,1.9704,3.9216,-3.8095,-1.0207,-4.6984,-5.7971,-6.6989,4.7021,10.603,-3.9409,-4.9597
-1.0111,-1.8501,-3.8374,5.8824,0.0,6.6341,-1.9324,6.6989,-1.0306,5.8824,0.0,0.0,-9.5238,-3.8915,-11.365,-8.6957,-12.496,-2.0612,9.6508,-8.867,-6.8921
-3.8547,1.0207,-4.813,4.902,-0.98522,2.7317,0.96618,3.8003,0.90177,4.902,-0.98522,0.98039,-7.619,-2.9346,-10.413,-4.8309,-9.5974,-3.0274,-5.5873,-7.8818,-3.0274
-8.594,-1.8501,-5.7886,0.98039,-1.9704,-2.1463,-1.9324,-1.9968,0.90177,0.98039,-1.9704,-0.98039,-7.619,-4.8485,-12.317,-4.8309,-8.6312,-5.9259,-6.5397,-10.837,-3.9936
-12.385,-5.6778,-6.7642,-3.9216,-1.9704,-8.0,-3.8647,-8.7601,0.90177,-3.9216,-1.9704,-3.9216,-6.6667,-4.8485,-11.365,-2.8986,-6.6989,-9.7907,-7.4921,-9.8522,-0.12882
-14.281,-6.6348,-8.7154,-7.8431,-0.98522,-9.9512,-2.8986,-11.659,1.868,-7.8431,-0.98522,-5.8824,-4.7619,-3.8915,-9.4603,-2.8986,-5.7327,-14.622,-3.6825,-8.867,0.83736
-12.385,-6.6348,-9.6911,-9.8039,-0.98522,-10.927,-10.628,-10.692,-1.0306,-9.8039,-0.98522,-7.8431,-2.8571,-7.7193,-6.6032,-4.8309,-5.7327,-13.655,5.8413,-4.9261,-2.0612
-7.6461,-0.89314,-5.7886,-3.9216,-1.9704,-8.0,-10.628,-6.8277,-4.8953,-3.9216,-1.9704,-5.8824,-1.9048,-10.59,-2.7937,-2.8986,-4.7665,-4.9597,-0.8254,-0.98522,-3.0274
-4.8025,-1.8501,-3.8374,0.0,-0.98522,-6.0488,-3.8647,-3.9291,-3.9291,0.0,-0.98522,-4.902,-0.95238,-10.59,-0.88889,-2.8986,-3.8003,-0.12882,-2.7302,-2.9557,-4.9597
-1.9589,-4.7209,-3.8374,2.9412,1.9704,-2.1463,0.96618,2.8341,-0.06441,2.9412,1.9704,-4.902,0.95238,-7.7193,1.0159,-4.8309,-1.868,5.6683,8.6984,0.0,-5.9259
0.88468,-2.807,-2.8618,5.8824,1.9704,2.7317,2.8986,7.6651,-0.06441,5.8824,1.9704,-2.9412,2.8571,-1.9777,2.9206,-3.8647,0.06441,0.83736,1.0794,3.9409,-2.0612
-0.06319,-5.6778,-2.8618,0.0,-4.9261,-1.1707,-3.8647,0.90177,-5.8615,0.0,-4.9261,-3.9216,1.9048,1.8501,1.9683,-3.8647,-0.90177,-3.9936,-5.5873,2.9557,0.83736
-2.9068,-7.5917,-3.8374,-6.8627,-9.8522,-8.0,-8.6957,-3.9291,-8.7601,-6.8627,-9.8522,-8.8235,1.9048,4.7209,1.9683,-2.8986,0.06441,-0.12882,-12.254,2.9557,3.7359
-7.6461,-8.5486,-5.7886,-9.8039,-10.837,-12.878,-12.56,-6.8277,-8.7601,-9.8039,-10.837,-13.725,1.9048,5.6778,0.06349,-2.8986,-0.90177,-3.0274,-14.159,0.98522,3.7359
-6.6983,-6.6348,-4.813,-11.765,-9.8522,-13.854,-11.594,-8.7601,-8.7601,-11.765,-9.8522,-10.784,4.7619,9.5056,1.9683,0.0,1.9968,-1.095,-4.6349,3.9409,5.6683
-3.8547,-0.89314,-1.8862,-9.8039,-7.8818,-8.0,-6.7633,-6.8277,-6.8277,-9.8039,-7.8818,-6.8627,9.5238,14.29,5.7778,5.7971,6.8277,-2.0612,-1.7778,6.8966,10.499
-1.9589,-0.89314,-0.91057,-7.8431,-6.8966,-3.122,-3.8647,-6.8277,-4.8953,-7.8431,-6.8966,-3.9216,7.619,13.333,4.8254,4.8309,5.8615,0.83736,-1.7778,3.9409,10.499
2.7804,1.0207,2.9919,-1.9608,-1.9704,2.7317,1.9324,-3.9291,-1.0306,-1.9608,-1.9704,0.0,6.6667,11.419,5.7778,5.7971,6.8277,1.8035,6.7937,2.9557,11.465
7.5197,4.8485,6.8943,2.9412,1.9704,7.6098,5.7971,-0.06441,1.868,2.9412,1.9704,4.902,7.619,11.419,9.5873,9.6618,9.7262,1.8035,11.556,6.8966,12.432
7.5197,3.8915,6.8943,3.9216,1.9704,7.6098,2.8986,-0.06441,1.868,3.9216,1.9704,3.9216,5.7143,7.5917,8.6349,9.6618,9.7262,-3.0274,3.9365,4.9261,11.465
4.6761,2.9346,4.9431,5.8824,1.9704,5.6585,2.8986,-0.06441,0.90177,5.8824,1.9704,3.9216,2.8571,1.8501,5.7778,8.6957,6.8277,-3.9936,-5.5873,1.9704,8.5668
0.88468,1.9777,3.9675,5.8824,0.98522,1.7561,0.0,-1.9968,-1.0306,5.8824,0.98522,1.9608,0.0,-4.8485,3.873,5.7971,3.9291,-8.8245,5.8413,0.98522,5.6683
0.88468,3.8915,4.9431,1.9608,0.0,-0.19512,-2.8986,-1.9968,0.90177,1.9608,0.0,1.9608,-1.9048,-10.59,1.9683,3.8647,1.0306,-5.9259,12.508,-2.9557,2.7697
-1.0111,3.8915,3.9675,-0.98039,-1.9704,-0.19512,-2.8986,-1.9968,-2.963,-0.98039,-1.9704,1.9608,-2.8571,-13.461,0.06349,0.0,-0.90177,-1.095,2.0317,-3.9409,-3.0274
-3.8547,-0.89314,1.0407,-1.9608,-2.9557,-4.0976,-4.8309,-3.9291,-4.8953,-1.9608,-2.9557,-1.9608,-2.8571,-14.418,-1.8413,-4.8309,-3.8003,-3.0274,0.12698,-1.9704,-9.7907
0.88468,1.0207,3.9675,-0.98039,-0.98522,-1.1707,0.0,-2.963,-2.963,-0.98039,-0.98522,0.98039,3.8095,-6.7624,2.9206,-1.9324,1.0306,-3.9936,12.508,2.9557,-5.9259
2.7804,1.0207,3.9675,-3.9216,0.0,0.78049,1.9324,-2.963,-1.0306,-3.9216,0.0,0.0,7.619,-0.0638,5.7778,0.96618,2.963,0.83736,5.8413,6.8966,-1.095
1.8325,1.0207,0.06504,-5.8824,-0.98522,-3.122,0.0,-3.9291,-1.9968,-5.8824,-0.98522,-2.9412,6.6667,0.89314,3.873,-0.96618,1.0306,5.6683,-6.5397,5.9113,-2.0612
0.88468,-1.8501,-2.8618,-1.9608,-4.9261,-4.0976,-1.9324,0.90177,-1.0306,-1.9608,-4.9261,-4.902,5.7143,2.807,2.9206,-0.96618,0.06441,7.6006,-9.3968,4.9261,-1.095
3.7283,0.0638,0.06504,1.9608,-0.98522,-0.19512,-1.9324,5.7327,-0.06441,1.9608,-0.98522,-1.9608,8.5714,7.5917,5.7778,2.8986,2.963,9.533,-5.5873,8.867,3.7359
4.6761,1.9777,2.9919,0.0,-0.98522,1.7561,-1.9324,6.6989,-0.06441,0.0,-0.98522,-0.98039,8.5714,11.419,5.7778,5.7971,4.8953,4.7021,-1.7778,7.8818,7.6006
2.7804,0.0638,1.0407,-2.9412,-4.9261,-0.19512,-3.8647,3.8003,-2.963,-2.9412,-4.9261,-1.9608,6.6667,12.376,4.8254,4.8309,4.8953,2.7697,2.0317,4.9261,8.5668
1.8325,-2.807,0.06504,-5.8824,-5.9113,-0.19512,-8.6957,2.8341,-4.8953,-5.8824,-5.9113,-1.9608,8.5714,13.333,5.7778,3.8647,4.8953,-0.12882,2.9841,5.9113,6.6345
1.8325,1.9777,0.06504,-1.9608,0.98522,-0.19512,-1.9324,1.868,-1.0306,-1.9608,0.98522,1.9608,7.619,12.376,3.873,4.8309,4.8953,2.7697,14.413,4.9261,10.499
-1.9589,0.0638,-2.8618,2.9412,3.9409,-2.1463,3.8647,-1.0306,1.868,2.9412,3.9409,0.98039,5.7143,10.463,1.0159,2.8986,1.9968,0.83736,9.6508,2.9557,11.465
-3.8547,-3.764,-3.8374,1.9608,1.9704,-4.0976,0.0,-4.8953,-1.0306,1.9608,1.9704,-0.98039,5.7143,8.5486,1.0159,1.9324,1.9968,-5.9259,-8.4444,1.9704,10.499
-4.8025,-5.6778,-4.813,-2.9412,0.0,-4.0976,-3.8647,-4.8953,-2.963,-2.9412,0.0,-1.9608,3.8095,4.7209,0.06349,0.96618,1.9968,-5.9259,-6.5397,1.9704,7.6006
-4.8025,-2.807,-3.8374,0.0,0.0,-2.1463,-1.9324,-1.9968,0.90177,0.0,0.0,-0.98039,3.8095,1.8501,0.06349,0.96618,1.9968,-5.9259,4.8889,0.98522,6.6345
-4.8025,0.0638,-3.8374,2.9412,1.9704,-1.1707,1.9324,0.90177,4.7665,2.9412,1.9704,-0.98039,1.9048,-1.9777,-0.88889,0.0,1.0306,-2.0612,-6.5397,0.0,4.7021
-3.8547,0.0638,-2.8618,3.9216,3.9409,-1.1707,3.8647,-0.06441,5.7327,3.9216,3.9409,-0.98039,0.0,-5.8054,-0.88889,-0.96618,0.06441,-2.0612,-7.4921,-0.98522,-0.12882
-4.8025,-0.89314,-2.8618,-0.98039,2.9557,-0.19512,0.96618,-2.963,-0.06441,-0.98039,2.9557,-0.98039,-2.8571,-8.6762,-2.7937,-2.8986,-1.868,-4.9597,2.0317,-2.9557,-5.9259
-4.8025,2.9346,-1.8862,-0.98039,3.9409,-0.19512,1.9324,-1.9968,-0.06441,-0.98039,3.9409,0.98039,-2.8571,-8.6762,-2.7937,-0.96618,-1.868,-0.12882,9.6508,-2.9557,-6.8921
-3.8547,2.9346,-3.8374,0.98039,5.9113,-2.1463,4.8309,0.90177,4.7665,0.98039,5.9113,0.0,-2.8571,-7.7193,-2.7937,-0.96618,-0.90177,-0.12882,6.7937,-1.9704,-6.8921
-4.8025,-4.7209,-6.7642,0.98039,2.9557,-4.0976,0.0,-1.9968,6.6989,0.98039,2.9557,-1.9608,-4.7619,-8.6762,-2.7937,-5.7971,-2.8341,-7.8583,6.7937,-3.9409,-8.8245
-2.9068,-2.807,-2.8618,1.9608,3.9409,-1.1707,2.8986,-1.0306,7.6651,1.9608,3.9409,0.0,-5.7143,-5.8054,-2.7937,-3.8647,-1.868,-2.0612,2.9841,-5.9113,-5.9259
-0.06319,-0.89314,0.06504,2.9412,3.9409,1.7561,7.7295,2.8341,10.564,2.9412,3.9409,1.9608,-6.6667,-5.8054,-3.746,-4.8309,-2.8341,2.7697,9.6508,-6.8966,-8.8245
1.8325,0.0638,1.0407,3.9216,6.8966,4.6829,7.7295,6.6989,6.6989,3.9216,6.8966,3.9216,-4.7619,-3.8915,-1.8413,-3.8647,-1.868,3.7359,-0.8254,-4.9261,-7.8583
4.6761,-0.89314,2.0163,4.902,6.8966,5.6585,4.8309,6.6989,1.868,4.902,6.8966,3.9216,-2.8571,-1.0207,1.0159,-2.8986,-0.90177,3.7359,-11.302,-0.98522,-6.8921
5.624,1.0207,2.9919,7.8431,4.9261,6.6341,5.7971,7.6651,1.868,7.8431,4.9261,4.902,-0.95238,2.807,1.9683,-0.96618,0.06441,3.7359,-4.6349,0.98522,-3.0274
4.6761,1.9777,3.9675,6.8627,3.9409,5.6585,3.8647,4.7665,4.7665,6.8627,3.9409,2.9412,0.95238,6.6348,2.9206,1.9324,1.9968,3.7359,-3.6825,1.9704,1.8035
3.7283,1.9777,3.9675,2.9412,6.8966,2.7317,3.8647,1.868,5.7327,2.9412,6.8966,2.9412,2.8571,8.5486,3.873,1.9324,2.963,1.8035,10.603,4.9261,4.7021
2.7804,2.9346,0.06504,0.0,4.9261,0.78049,0.96618,-0.06441,5.7327,0.0,4.9261,0.98039,3.8095,8.5486,2.9206,1.9324,1.9968,0.83736,3.9365,4.9261,4.7021
0.88468,1.9777,-1.8862,-1.9608,0.0,-1.1707,-1.9324,-1.9968,0.90177,-1.9608,0.0,-2.9412,4.7619,8.5486,2.9206,1.9324,1.9968,-3.9936,-4.6349,5.9113,5.6683
2.7804,1.0207,-0.91057,0.0,0.0,-0.19512,-0.96618,-1.9968,-1.9968,0.0,0.0,-2.9412,3.8095,6.6348,3.873,0.96618,1.9968,-4.9597,2.0317,4.9261,6.6345
5.624,2.9346,2.9919,3.9216,5.9113,6.6341,5.7971,0.90177,1.868,3.9216,5.9113,1.9608,4.7619,7.5917,4.8254,3.8647,3.9291,3.7359,0.12698,4.9261,6.6345
6.5719,0.0638,3.9675,4.902,5.9113,7.6098,7.7295,2.8341,3.8003,4.902,5.9113,2.9412,7.619,10.463,5.7778,4.8309,6.8277,3.7359,1.0794,4.9261,7.6006
4.6761,-1.8501,1.0407,2.9412,0.98522,4.6829,0.96618,3.8003,-1.9968,2.9412,0.98522,0.0,6.6667,10.463,4.8254,4.8309,5.8615,1.8035,-6.5397,2.9557,5.6683
3.7283,-0.89314,0.06504,3.9216,1.9704,-0.19512,1.9324,4.7665,-1.0306,3.9216,1.9704,-0.98039,6.6667,10.463,3.873,4.8309,6.8277,1.8035,1.0794,3.9409,5.6683
4.6761,1.0207,2.0163,1.9608,0.98522,-1.1707,-0.96618,4.7665,0.90177,1.9608,0.98522,-0.98039,8.5714,10.463,7.6825,6.7633,9.7262,3.7359,7.746,7.8818,6.6345
2.7804,1.0207,0.06504,-0.98039,-1.9704,-1.1707,-5.7971,0.90177,-2.963,-0.98039,-1.9704,-0.98039,7.619,7.5917,5.7778,5.7971,7.7939,8.5668,11.556,5.9113,4.7021
1.8325,2.9346,1.0407,0.0,0.98522,-0.19512,-2.8986,0.90177,-0.06441,0.0,0.98522,0.98039,8.5714,5.6778,5.7778,5.7971,7.7939,7.6006,5.8413,5.9113,3.7359
0.88468,3.8915,2.0163,1.9608,2.9557,-1.1707,1.9324,-0.06441,-0.06441,1.9608,2.9557,0.98039,6.6667,1.8501,3.873,4.8309,5.8615,0.83736,-7.4921,4.9261,3.7359
0.88468,2.9346,2.0163,1.9608,1.9704,-1.1707,3.8647,0.90177,1.868,1.9608,1.9704,1.9608,1.9048,-1.9777,1.9683,0.96618,1.9968,-0.12882,2.9841,2.9557,-0.12882
0.88468,1.9777,1.0407,2.9412,2.9557,0.78049,4.8309,0.90177,1.868,2.9412,2.9557,1.9608,-0.95238,-3.8915,-0.88889,-2.8986,-0.90177,3.7359,2.9841,0.98522,-3.0274
1.8325,1.0207,2.9919,1.9608,2.9557,3.7073,2.8986,1.868,3.8003,1.9608,2.9557,2.9412,0.0,-1.0207,0.06349,-2.8986,-0.90177,8.5668,-2.7302,0.0,-2.0612
1.8325,-0.89314,3.9675,3.9216,5.9113,4.6829,4.8309,2.8341,7.6651,3.9216,5.9113,4.902,-0.95238,0.89314,-0.88889,-2.8986,-1.868,4.7021,0.12698,-0.98522,-0.12882
-0.06319,-1.8501,2.9919,3.9216,5.9113,3.7073,3.8647,-0.06441,6.6989,3.9216,5.9113,4.902,-3.8095,-0.0638,-3.746,-3.8647,-3.8003,-3.0274,7.746,-2.9557,0.83736
-1.9589,0.0638,2.9919,2.9412,5.9113,0.78049,3.8647,-1.0306,4.7665,2.9412,5.9113,4.902,-6.6667,-1.9777,-5.6508,-3.8647,-5.7327,-6.8921,9.6508,-5.9113,-0.12882
-1.9589,1.9777,2.0163,0.98039,3.9409,-4.0976,-1.9324,-1.9968,1.868,0.98039,3.9409,0.0,-8.5714,-2.9346,-6.6032,-2.8986,-5.7327,-6.8921,-12.254,-7.8818,-2.0612
-1.0111,0.0638,0.06504,-1.9608,0.98522,-6.0488,-1.9324,-1.9968,1.868,-1.9608,0.98522,-4.902,-9.5238,-2.9346,-5.6508,-0.96618,-5.7327,-8.8245,-5.5873,-7.8818,-2.0612
-1.0111,-2.807,0.06504,-5.8824,0.98522,-4.0976,0.0,-1.0306,3.8003,-5.8824,0.98522,-4.902,-12.381,-5.8054,-7.5556,-2.8986,-7.6651,-5.9259,6.7937,-6.8966,-2.0612
-1.9589,-1.8501,-0.91057,0.98039,0.98522,-0.19512,1.9324,2.8341,2.8341,0.98039,0.98522,-1.9608,-13.333,-7.7193,-8.5079,-3.8647,-9.5974,-0.12882,1.0794,-6.8966,-3.0274
-0.06319,-0.89314,1.0407,6.8627,3.9409,4.6829,4.8309,5.7327,2.8341,6.8627,3.9409,1.9608,-13.333,-7.7193,-8.5079,-3.8647,-8.6312,3.7359,5.8413,-7.8818,-3.0274
0.88468,1.9777,3.9675,2.9412,2.9557,3.7073,1.9324,5.7327,2.8341,2.9412,2.9557,2.9412,-10.476,-7.7193,-6.6032,-0.96618,-5.7327,5.6683,5.8413,-6.8966,-2.0612
0.88468,1.0207,4.9431,2.9412,0.98522,-0.19512,-1.9324,3.8003,-0.06441,2.9412,0.98522,1.9608,-6.6667,-7.7193,-2.7937,0.0,-2.8341,2.7697,2.9841,-1.9704,-2.0612
0.88468,0.0638,3.9675,3.9216,0.0,-2.1463,-0.96618,1.868,-0.06441,3.9216,0.0,0.98039,-4.7619,-8.6762,1.0159,0.0,0.06441,4.7021,-3.6825,1.9704,-3.9936
-0.06319,1.9777,3.9675,0.0,0.0,-1.1707,3.8647,0.90177,0.90177,0.0,0.0,1.9608,-2.8571,-7.7193,1.0159,1.9324,1.0306,5.6683,-9.3968,0.98522,-3.0274
2.7804,7.7193,8.8455,-6.8627,-5.9113,1.7561,1.9324,-2.963,-2.963,-6.8627,-5.9113,3.9216,4.7619,-1.0207,5.7778,8.6957,7.7939,6.6345,2.9841,6.8966,3.7359
4.6761,8.6762,8.8455,2.9412,0.98522,4.6829,3.8647,4.7665,-0.06441,2.9412,0.98522,5.8824,7.619,1.8501,6.7302,5.7971,7.7939,7.6006,6.7937,10.837,2.7697
5.624,5.8054,8.8455,12.745,5.9113,7.6098,5.7971,8.6312,1.868,12.745,5.9113,7.8431,7.619,1.8501,6.7302,1.9324,5.8615,6.6345,3.9365,9.8522,-2.0612
11.311,6.7624,12.748,10.784,6.8966,12.488,7.7295,6.6989,2.8341,10.784,6.8966,13.725,11.429,5.6778,10.54,5.7971,9.7262,4.7021,-7.4921,13.793,0.83736
9.4155,5.8054,10.797,9.8039,5.9113,12.488,1.9324,6.6989,0.90177,9.8039,5.9113,11.765,9.5238,3.764,7.6825,4.8309,7.7939,6.6345,0.12698,7.8818,-1.095
6.5719,4.8485,7.8699,3.9216,-0.98522,8.5854,-0.96618,2.8341,-1.0306,3.9216,-0.98522,6.8627,5.7143,3.764,4.8254,4.8309,6.8277,6.6345,12.508,1.9704,-0.12882
2.7804,3.8915,3.9675,0.0,-3.9409,5.6585,-0.96618,-0.06441,-1.0306,0.0,-3.9409,3.9216,1.9048,1.8501,0.06349,1.9324,1.9968,2.7697,6.7937,-1.9704,-2.0612
-0.06319,1.0207,1.0407,0.98039,-0.98522,5.6585,-0.96618,1.868,-2.963,0.98039,-0.98522,1.9608,0.0,2.807,-3.746,0.96618,-1.868,2.7697,-4.6349,-4.9261,-1.095
-0.06319,-1.8501,-1.8862,0.0,-1.9704,3.7073,-5.7971,1.868,-3.9291,0.0,-1.9704,-0.98039,0.95238,5.6778,-1.8413,-0.96618,-2.8341,-0.12882,-0.8254,-3.9409,1.8035
-3.8547,-6.6348,-7.7398,0.98039,-4.9261,-2.1463,-5.7971,-0.06441,-6.8277,0.98039,-4.9261,-4.902,0.0,5.6778,-4.6984,-4.8309,-4.7665,-3.0274,5.8413,-4.9261,1.8035
-4.8025,-5.6778,-8.7154,0.98039,-3.9409,-4.0976,-3.8647,-0.06441,-5.8615,0.98039,-3.9409,-4.902,0.0,7.5917,-5.6508,-4.8309,-5.7327,-2.0612,-9.3968,-5.9113,2.7697
-2.9068,-3.764,-5.7886,-0.98039,-1.9704,-2.1463,-3.8647,1.868,-1.9968,-0.98039,-1.9704,-2.9412,2.8571,8.5486,-1.8413,-0.96618,-1.868,-4.9597,-9.3968,-1.9704,3.7359
0.88468,-2.807,-1.8862,0.98039,-0.98522,-0.19512,-1.9324,1.868,-1.9968,0.98039,-0.98522,0.98039,4.7619,5.6778,2.9206,0.0,1.9968,0.83736,0.12698,0.98522,1.8035
2.7804,-2.807,1.0407,4.902,0.98522,2.7317,0.96618,3.8003,-1.9968,4.902,0.98522,2.9412,7.619,5.6778,7.6825,2.8986,5.8615,10.499,-7.4921,5.9113,1.8035
5.624,0.0638,3.9675,9.8039,5.9113,5.6585,5.7971,5.7327,-1.0306,9.8039,5.9113,6.8627,10.476,6.6348,10.54,4.8309,7.7939,11.465,-8.4444,10.837,1.8035
4.6761,-0.89314,2.9919,6.8627,5.9113,4.6829,2.8986,3.8003,-1.0306,6.8627,5.9113,6.8627,10.476,6.6348,8.6349,2.8986,6.8277,2.7697,1.0794,7.8818,0.83736
1.8325,0.0638,2.9919,3.9216,2.9557,1.7561,0.0,-0.06441,-3.9291,3.9216,2.9557,4.902,11.429,7.5917,4.8254,0.96618,5.8615,0.83736,9.6508,4.9261,1.8035
-1.9589,-3.764,0.06504,0.98039,-1.9704,-0.19512,-2.8986,-1.9968,-5.8615,0.98039,-1.9704,0.0,8.5714,3.764,0.06349,-1.9324,1.9968,-1.095,0.12698,1.9704,-2.0612
-5.7504,-8.5486,-3.8374,-2.9412,-4.9261,-4.0976,-4.8309,-2.963,-5.8615,-2.9412,-4.9261,-4.902,4.7619,-0.0638,-4.6984,-6.7633,-2.8341,-2.0612,-2.7302,0.0,-5.9259
-8.594,-9.5056,-8.7154,-6.8627,-5.9113,-5.0732,-4.8309,-1.9968,0.90177,-6.8627,-5.9113,-7.8431,0.95238,-1.9777,-9.4603,-9.6618,-7.6651,-2.0612,-2.7302,-0.98522,-7.8583
-12.385,-11.419,-11.642,-9.8039,-8.867,-8.9756,-4.8309,-4.8953,-1.9968,-9.8039,-8.867,-11.765,-2.8571,-4.8485,-12.317,-12.56,-10.564,-3.0274,-6.5397,-2.9557,-9.7907
-11.438,-10.463,-8.7154,-11.765,-9.8522,-11.902,-3.8647,-7.7939,-3.9291,-11.765,-9.8522,-11.765,-3.8095,-4.8485,-11.365,-8.6957,-8.6312,-12.689,-0.8254,-0.98522,-7.8583
-9.5419,-5.6778,-4.813,-11.765,-6.8966,-10.927,-2.8986,-8.7601,-3.9291,-11.765,-6.8966,-8.8235,-5.7143,-5.8054,-10.413,-6.7633,-7.6651,-6.8921,-11.302,-4.9261,-5.9259
-9.5419,-3.764,-4.813,-11.765,-4.9261,-11.902,-1.9324,-8.7601,-0.06441,-11.765,-4.9261,-7.8431,-9.5238,-8.6762,-11.365,-6.7633,-9.5974,-0.12882,-14.159,-6.8966,-5.9259
-11.438,-6.6348,-9.6911,-9.8039,-5.9113,-11.902,-3.8647,-9.7262,-1.0306,-9.8039,-5.9113,-9.8039,-12.381,-10.59,-11.365,-8.6957,-11.53,-5.9259,-3.6825,-7.8818,-5.9259
-12.385,-7.5917,-11.642,-5.8824,-6.8966,-10.927,-8.6957,-5.8615,-4.8953,-5.8824,-6.8966,-10.784,-11.429,-8.6762,-10.413,-8.6957,-10.564,-5.9259,-5.5873,-8.867,-4.9597
-12.385,-8.5486,-10.667,-4.902,-5.9113,-11.902,-10.628,-3.9291,-2.963,-4.902,-5.9113,-9.8039,-10.476,-7.7193,-9.4603,-8.6957,-10.564,-7.8583,-6.5397,-7.8818,-7.8583
-6.6983,-5.6778,-3.8374,-5.8824,-2.9557,-7.0244,-3.8647,-1.0306,-0.06441,-5.8824,-2.9557,-4.902,-8.5714,-4.8485,-5.6508,-6.7633,-7.6651,-5.9259,0.12698,-3.9409,-4.9597
-1.0111,0.0638,1.0407,-1.9608,0.0,-2.1463,0.0,-0.06441,2.8341,-1.9608,0.0,-1.9608,-4.7619,-1.0207,-0.88889,0.0,-2.8341,-2.0612,-2.7302,-1.9704,0.83736
2.7804,3.8915,2.9919,3.9216,0.0,0.78049,1.9324,0.90177,1.868,3.9216,0.0,1.9608,-1.9048,-0.0638,2.9206,2.8986,1.0306,1.8035,-1.7778,0.0,1.8035
3.7283,1.0207,1.0407,1.9608,0.0,2.7317,-4.8309,2.8341,-2.963,1.9608,0.0,0.0,-0.95238,1.8501,4.8254,1.9324,1.9968,2.7697,11.556,0.98522,0.83736
5.624,-0.89314,3.9675,2.9412,0.98522,3.7073,-1.9324,4.7665,1.868,2.9412,0.98522,0.98039,1.9048,6.6348,6.7302,2.8986,2.963,7.6006,4.8889,1.9704,4.7021
6.5719,3.8915,5.9187,4.902,1.9704,6.6341,4.8309,6.6989,5.7327,4.902,1.9704,3.9216,4.7619,10.463,6.7302,4.8309,3.9291,11.465,-1.7778,1.9704,6.6345
5.624,2.9346,2.9919,1.9608,0.98522,5.6585,4.8309,4.7665,0.90177,1.9608,0.98522,2.9412,5.7143,11.419,4.8254,3.8647,2.963,6.6345,-5.5873,0.0,7.6006
4.6761,-0.89314,2.0163,0.98039,2.9557,6.6341,0.96618,4.7665,1.868,0.98039,2.9557,2.9412,4.7619,12.376,3.873,3.8647,2.963,4.7021,-3.6825,0.0,6.6345
7.5197,0.0638,5.9187,1.9608,5.9113,8.5854,3.8647,2.8341,6.6989,1.9608,5.9113,5.8824,6.6667,13.333,4.8254,5.7971,4.8953,6.6345,6.7937,1.9704,8.5668
5.624,0.0638,4.9431,0.98039,0.98522,7.6098,0.96618,2.8341,3.8003,0.98039,0.98522,3.9216,5.7143,11.419,2.9206,3.8647,3.9291,0.83736,12.508,0.0,7.6006
4.6761,2.9346,4.9431,1.9608,-2.9557,4.6829,-0.96618,1.868,-1.0306,1.9608,-2.9557,2.9412,6.6667,10.463,3.873,5.7971,4.8953,-3.0274,4.8889,0.98522,10.499
4.6761,1.9777,3.9675,0.98039,-4.9261,3.7073,-1.9324,0.90177,-3.9291,0.98039,-4.9261,1.9608,7.619,9.5056,4.8254,5.7971,5.8615,-2.0612,-1.7778,2.9557,9.533
4.6761,3.8915,5.9187,1.9608,-2.9557,3.7073,1.9324,1.868,-1.9968,1.9608,-2.9557,3.9216,9.5238,10.463,6.7302,5.7971,7.7939,-3.9936,1.0794,5.9113,8.5668
0.88468,1.9777,3.9675,0.98039,-1.9704,1.7561,1.9324,-0.06441,-2.963,0.98039,-1.9704,2.9412,10.476,8.5486,4.8254,2.8986,5.8615,-3.9936,-1.7778,4.9261,4.7021
-0.06319,1.0207,2.9919,-3.9216,-0.98522,-0.19512,2.8986,-2.963,-0.06441,-3.9216,-0.98522,1.9608,8.5714,5.6778,1.0159,0.96618,3.9291,-1.095,2.9841,0.98522,1.8035
-0.06319,5.8054,4.9431,-1.9608,1.9704,0.78049,2.8986,-2.963,5.7327,-1.9608,1.9704,3.9216,6.6667,6.6348,0.06349,4.8309,4.8953,-0.12882,5.8413,-0.98522,4.7021
-0.06319,7.7193,6.8943,2.9412,1.9704,2.7317,3.8647,-2.963,5.7327,2.9412,1.9704,4.902,4.7619,6.6348,-0.88889,7.7295,4.8953,-1.095,3.9365,-0.98522,7.6006
0.88468,8.6762,8.8455,1.9608,1.9704,0.78049,6.7633,-2.963,5.7327,1.9608,1.9704,5.8824,4.7619,5.6778,-0.88889,7.7295,3.9291,-3.9936,4.8889,0.0,8.5668
2.7804,11.547,8.8455,-0.98039,0.0,1.7561,5.7971,-1.9968,3.8003,-0.98039,0.0,6.8627,4.7619,5.6778,1.9683,11.594,6.8277,-3.0274,-3.6825,1.9704,9.533
5.624,12.504,8.8455,1.9608,2.9557,5.6585,6.7633,-1.0306,2.8341,1.9608,2.9557,11.765,0.95238,1.8501,2.9206,12.56,5.8615,1.8035,0.12698,1.9704,9.533
7.5197,11.547,9.8211,4.902,7.8818,8.5854,7.7295,2.8341,6.6989,4.902,7.8818,13.725,-0.95238,-1.0207,4.8254,11.594,5.8615,3.7359,8.6984,2.9557,8.5668
9.4155,9.6332,10.797,7.8431,8.867,10.537,9.6618,5.7327,6.6989,7.8431,8.867,14.706,-0.95238,-2.9346,6.7302,8.6957,5.8615,3.7359,1.0794,3.9409,4.7021
8.4676,8.6762,8.8455,7.8431,6.8966,9.561,10.628,7.6651,4.7665,7.8431,6.8966,13.725,-1.9048,-4.8485,7.6825,6.7633,4.8953,5.6683,3.9365,3.9409,2.7697
9.4155,8.6762,8.8455,3.9216,4.9261,8.5854,11.594,5.7327,4.7665,3.9216,4.9261,11.765,-0.95238,-2.9346,8.6349,4.8309,5.8615,6.6345,10.603,6.8966,1.8035
8.4676,9.6332,8.8455,1.9608,0.98522,6.6341,5.7971,1.868,4.7665,1.9608,0.98522,9.8039,0.0,-1.9777,9.5873,3.8647,5.8615,3.7359,2.9841,5.9113,0.83736
6.5719,7.7193,6.8943,0.98039,0.98522,6.6341,4.8309,1.868,2.8341,0.98039,0.98522,7.8431,0.0,-0.0638,7.6825,3.8647,4.8953,3.7359,0.12698,3.9409,1.8035
5.624,7.7193,3.9675,1.9608,3.9409,8.5854,4.8309,3.8003,2.8341,1.9608,3.9409,6.8627,-0.95238,-1.9777,5.7778,2.8986,2.963,2.7697,10.603,3.9409,1.8035
3.7283,3.8915,1.0407,2.9412,4.9261,6.6341,5.7971,3.8003,4.7665,2.9412,4.9261,4.902,-4.7619,-5.8054,1.9683,0.0,0.06441,4.7021,-3.6825,1.9704,-0.12882
1.8325,1.0207,1.0407,5.8824,4.9261,5.6585,7.7295,5.7327,5.7327,5.8824,4.9261,4.902,-8.5714,-9.6332,-1.8413,-0.96618,-2.8341,7.6006,-19.872999,-0.98522,-0.12882
0.88468,1.0207,0.06504,5.8824,3.9409,4.6829,6.7633,4.7665,0.90177,5.8824,3.9409,3.9216,-10.476,-12.504,-3.746,-2.8986,-5.7327,7.6006,-6.5397,-1.9704,-3.0274
-2.9068,-1.8501,-2.8618,1.9608,0.0,1.7561,1.9324,1.868,-1.0306,1.9608,0.0,0.98039,-13.333,-17.289,-7.5556,-9.6618,-11.53,1.8035,2.9841,-2.9557,-8.8245
-3.8547,-5.6778,-6.7642,-1.9608,-1.9704,-0.19512,-3.8647,-0.06441,-3.9291,-1.9608,-1.9704,-1.9608,-14.286,-16.332001,-10.413,-12.56,-13.462,-5.9259,7.746,-4.9261,-8.8245
-3.8547,-7.5917,-7.7398,-2.9412,0.98522,-1.1707,-6.7633,-1.9968,-4.8953,-2.9412,0.98522,-4.902,-12.381,-14.418,-9.4603,-10.628,-12.496,-7.8583,2.0317,-4.9261,-6.8921
-4.8025,-10.463,-10.667,-2.9412,-1.9704,-4.0976,-7.7295,-1.9968,-3.9291,-2.9412,-1.9704,-7.8431,-11.429,-15.375,-8.5079,-11.594,-11.53,-7.8583,-9.3968,-1.9704,-8.8245
-2.9068,-10.463,-9.6911,-1.9608,-4.9261,-5.0732,-2.8986,-1.0306,-3.9291,-1.9608,-4.9261,-8.8235,-9.5238,-16.332001,-4.6984,-13.527,-10.564,4.7021,-7.4921,0.98522,-10.757
0.88468,-8.5486,-5.7886,-2.9412,-1.9704,-3.122,-1.9324,1.868,-3.9291,-2.9412,-1.9704,-6.8627,-6.6667,-12.504,-0.88889,-9.6618,-5.7327,12.432,-0.8254,3.9409,-8.8245
-0.06319,-5.6778,-3.8374,-3.9216,-3.9409,-5.0732,-3.8647,1.868,-2.963,-3.9216,-3.9409,-6.8627,-5.7143,-10.59,0.06349,-7.7295,-3.8003,6.6345,-12.254,4.9261,-8.8245
3.7283,-1.8501,0.06504,-1.9608,-4.9261,-3.122,-4.8309,3.8003,-2.963,-1.9608,-4.9261,-5.8824,-3.8095,-7.7193,3.873,-3.8647,0.06441,8.5668,-17.016001,7.8818,-8.8245
4.6761,-2.807,2.0163,0.98039,-2.9557,-1.1707,-5.7971,2.8341,-6.8277,0.98039,-2.9557,-2.9412,-3.8095,-6.7624,3.873,-4.8309,1.0306,7.6006,-0.8254,5.9113,-8.8245
-0.06319,-8.5486,-1.8862,-5.8824,-5.9113,-3.122,-11.594,-1.0306,-8.7601,-5.8824,-5.9113,-6.8627,-7.619,-9.6332,-0.88889,-8.6957,-2.8341,2.7697,-2.7302,0.0,-11.723
-1.9589,-6.6348,-2.8618,-7.8431,-8.867,-4.0976,-9.6618,1.868,-9.7262,-7.8431,-8.867,-7.8431,-9.5238,-11.547,-4.6984,-6.7633,-5.7327,1.8035,-8.4444,-3.9409,-11.723
-1.9589,-1.8501,-1.8862,-3.9216,-8.867,-3.122,-7.7295,3.8003,-4.8953,-3.9216,-8.867,-5.8824,-11.429,-12.504,-5.6508,-5.7971,-7.6651,2.7697,2.0317,-5.9113,-10.757
2.7804,6.7624,3.9675,-0.98039,-3.9409,0.78049,-0.96618,1.868,0.90177,-0.98039,-3.9409,0.98039,-9.5238,-10.59,-2.7937,-0.96618,-4.7665,0.83736,6.7937,-3.9409,-10.757
5.624,11.547,7.8699,0.98039,-0.98522,3.7073,5.7971,1.868,2.8341,0.98039,-0.98522,5.8824,-7.619,-10.59,-0.88889,2.8986,-1.868,2.7697,9.6508,-2.9557,-7.8583
4.6761,7.7193,5.9187,0.0,0.0,2.7317,3.8647,2.8341,0.90177,0.0,0.0,4.902,-8.5714,-10.59,-1.8413,0.96618,-2.8341,3.7359,-3.6825,-2.9557,-5.9259
3.7283,4.8485,4.9431,-4.902,-0.98522,-1.1707,0.0,-0.06441,-1.9968,-4.902,-0.98522,1.9608,-5.7143,-8.6762,0.06349,1.9324,-0.90177,-3.9936,-1.7778,0.98522,-2.0612
4.6761,5.8054,5.9187,-3.9216,-1.9704,-0.19512,0.96618,-1.0306,-2.963,-3.9216,-1.9704,3.9216,-2.8571,-5.8054,2.9206,2.8986,1.0306,1.8035,0.12698,0.98522,-2.0612
5.624,5.8054,6.8943,1.9608,1.9704,3.7073,2.8986,1.868,-1.9968,1.9608,1.9704,5.8824,-0.95238,-5.8054,3.873,1.9324,1.9968,7.6006,-2.7302,1.9704,-3.9936
1.8325,1.0207,1.0407,1.9608,1.9704,0.78049,0.96618,1.868,-1.0306,1.9608,1.9704,1.9608,1.9048,-1.9777,1.9683,0.96618,1.0306,4.7021,-4.6349,1.9704,-3.9936
-1.9589,-6.6348,-6.7642,-2.9412,-0.98522,-2.1463,-1.9324,-1.9968,-3.9291,-2.9412,-0.98522,-1.9608,3.8095,0.89314,-1.8413,-3.8647,-2.8341,-2.0612,-9.3968,0.98522,-2.0612
-7.6461,-10.463,-13.593,-5.8824,-5.9113,-2.1463,-6.7633,-3.9291,-5.8615,-5.8824,-5.9113,-6.8627,1.9048,-1.0207,-6.6032,-9.6618,-7.6651,-3.0274,-4.6349,-1.9704,-4.9597
-9.5419,-12.376,-15.545,-3.9216,-1.9704,-2.1463,-7.7295,-4.8953,-3.9291,-3.9216,-1.9704,-6.8627,-0.95238,-4.8485,-8.5079,-12.56,-9.5974,-6.8921,1.0794,-1.9704,-4.9597
-9.5419,-10.463,-13.593,-2.9412,0.0,-2.1463,-0.96618,-3.9291,1.868,-2.9412,0.0,-3.9216,-1.9048,-6.7624,-7.5556,-12.56,-9.5974,-8.8245,-6.5397,-2.9557,-8.8245
-7.6461,-6.6348,-10.667,-1.9608,2.9557,-5.0732,0.0,-2.963,3.8003,-1.9608,2.9557,-1.9608,-3.8095,-6.7624,-9.4603,-12.56,-10.564,-6.8921,-4.6349,-7.8818,-11.723
-5.7504,-4.7209,-7.7398,-0.98039,3.9409,-3.122,-0.96618,-2.963,3.8003,-0.98039,3.9409,0.0,-4.7619,-5.8054,-9.4603,-9.6618,-8.6312,-5.9259,11.556,-9.8522,-8.8245
-3.8547,-5.6778,-6.7642,-0.98039,0.98522,-2.1463,2.8986,-3.9291,5.7327,-0.98039,0.98522,-0.98039,-4.7619,-4.8485,-8.5079,-6.7633,-6.6989,-4.9597,7.746,-9.8522,-4.9597
-2.9068,-5.6778,-4.813,-3.9216,-0.98522,-3.122,-0.96618,-4.8953,1.868,-3.9216,-0.98522,-3.9216,-1.9048,-1.9777,-5.6508,-2.8986,-4.7665,-7.8583,-4.6349,-8.867,-1.095
-1.0111,-2.807,-2.8618,-2.9412,0.0,-5.0732,-1.9324,-3.9291,0.90177,-2.9412,0.0,-2.9412,0.95238,0.89314,-1.8413,-0.96618,-1.868,-3.9936,-5.5873,-3.9409,-0.12882
-1.9589,-2.807,-1.8862,-2.9412,0.0,-4.0976,-2.8986,-2.963,2.8341,-2.9412,0.0,-3.9216,2.8571,3.764,-0.88889,1.9324,0.06441,3.7359,4.8889,-2.9557,0.83736
-1.0111,1.9777,1.0407,-5.8824,-1.9704,-4.0976,-1.9324,-4.8953,4.7665,-5.8824,-1.9704,-4.902,4.7619,9.5056,1.0159,9.6618,4.8953,-0.12882,5.8413,-2.9557,7.6006
-1.9589,3.8915,0.06504,-2.9412,-2.9557,-6.0488,-1.9324,-5.8615,1.868,-2.9412,-2.9557,-5.8824,5.7143,11.419,0.06349,12.56,5.8615,-3.0274,5.8413,-2.9557,11.465
-2.9068,2.9346,0.06504,-2.9412,-1.9704,-6.0488,-0.96618,-6.8277,1.868,-2.9412,-1.9704,-3.9216,4.7619,9.5056,0.06349,10.628,2.963,-1.095,12.508,-1.9704,10.499
-3.8547,1.9777,0.06504,-3.9216,-0.98522,-6.0488,-0.96618,-3.9291,2.8341,-3.9216,-0.98522,-2.9412,2.8571,6.6348,-0.88889,6.7633,1.0306,-2.0612,8.6984,-0.98522,8.5668
-4.8025,0.0638,-1.8862,-6.8627,-3.9409,-6.0488,-4.8309,-5.8615,-0.06441,-6.8627,-3.9409,-3.9216,0.0,4.7209,-1.8413,0.96618,-0.90177,-1.095,8.6984,-0.98522,4.7021
-5.7504,-4.7209,-3.8374,-9.8039,-5.9113,-8.0,-8.6957,-6.8277,-3.9291,-9.8039,-5.9113,-4.902,-0.95238,2.807,-1.8413,-3.8647,-2.8341,-2.0612,0.12698,-1.9704,1.8035
-4.8025,-4.7209,-1.8862,-5.8824,-6.8966,-9.9512,-8.6957,-5.8615,-3.9291,-5.8824,-6.8966,-5.8824,1.9048,4.7209,1.0159,-2.8986,-0.90177,0.83736,5.8413,-0.98522,1.8035
-1.0111,-2.807,1.0407,-2.9412,-2.9557,-7.0244,-4.8309,-4.8953,-0.06441,-2.9412,-2.9557,-3.9216,4.7619,5.6778,4.8254,1.9324,3.9291,-3.0274,14.413,2.9557,4.7021
0.88468,-0.89314,2.9919,-2.9412,-1.9704,-5.0732,-0.96618,-4.8953,0.90177,-2.9412,-1.9704,-3.9216,5.7143,4.7209,6.7302,5.7971,5.8615,-5.9259,-2.7302,4.9261,5.6683
2.7804,5.8054,5.9187,0.98039,1.9704,-3.122,2.8986,-2.963,5.7327,0.98039,1.9704,0.0,6.6667,3.764,8.6349,9.6618,8.7601,-2.0612,-10.349,4.9261,6.6345
2.7804,7.7193,4.9431,1.9608,0.98522,-2.1463,2.8986,-1.9968,6.6989,1.9608,0.98522,0.98039,7.619,1.8501,8.6349,7.7295,7.7939,0.83736,3.9365,5.9113,1.8035
2.7804,5.8054,4.9431,2.9412,1.9704,0.78049,3.8647,-0.06441,1.868,2.9412,1.9704,0.98039,7.619,3.764,7.6825,5.7971,7.7939,1.8035,2.0317,5.9113,-3.0274
4.6761,1.0207,4.9431,5.8824,4.9261,4.6829,1.9324,3.8003,-1.9968,5.8824,4.9261,3.9216,6.6667,4.7209,6.7302,1.9324,4.8953,1.8035,-3.6825,3.9409,-3.9936
8.4676,-0.89314,7.8699,6.8627,5.9113,7.6098,0.96618,5.7327,-1.0306,6.8627,5.9113,5.8824,6.6667,3.764,6.7302,0.0,5.8615,1.8035,-3.6825,5.9113,-3.0274
7.5197,-1.8501,6.8943,6.8627,4.9261,7.6098,-0.96618,5.7327,1.868,6.8627,4.9261,5.8824,2.8571,-1.0207,5.7778,-2.8986,2.963,6.6345,2.0317,4.9261,-5.9259
5.624,0.0638,5.9187,5.8824,3.9409,6.6341,1.9324,3.8003,2.8341,5.8824,3.9409,5.8824,-0.95238,-4.8485,2.9206,-1.9324,1.9968,4.7021,11.556,1.9704,-5.9259
5.624,4.8485,5.9187,9.8039,4.9261,6.6341,8.6957,3.8003,4.7665,9.8039,4.9261,6.8627,-1.9048,-2.9346,1.0159,3.8647,1.9968,0.83736,2.9841,-0.98522,-1.095
5.624,6.7624,5.9187,8.8235,7.8818,10.537,10.628,4.7665,4.7665,8.8235,7.8818,7.8431,-1.9048,0.89314,1.0159,7.7295,3.9291,2.7697,-3.6825,-0.98522,1.8035
5.624,6.7624,4.9431,5.8824,9.8522,10.537,10.628,6.6989,6.6989,5.8824,9.8522,8.8235,-1.9048,2.807,-0.88889,8.6957,2.963,1.8035,-0.8254,0.0,4.7021
2.7804,6.7624,2.9919,6.8627,9.8522,6.6341,9.6618,3.8003,8.6312,6.8627,9.8522,6.8627,-3.8095,3.764,-2.7937,9.6618,1.9968,-1.095,-2.7302,-4.9261,6.6345
1.8325,2.9346,2.0163,7.8431,8.867,5.6585,5.7971,1.868,3.8003,7.8431,8.867,5.8824,-4.7619,4.7209,-2.7937,8.6957,2.963,-1.095,0.12698,-6.8966,5.6683
-0.06319,1.9777,1.0407,5.8824,5.9113,3.7073,5.7971,4.7665,5.7327,5.8824,5.9113,2.9412,-1.9048,6.6348,-1.8413,6.7633,2.963,0.83736,5.8413,-3.9409,7.6006
0.88468,4.8485,2.0163,3.9216,4.9261,4.6829,5.7971,3.8003,5.7327,3.9216,4.9261,2.9412,0.95238,7.5917,1.0159,8.6957,3.9291,-0.12882,2.9841,-1.9704,10.499
0.88468,3.8915,0.06504,2.9412,3.9409,2.7317,2.8986,0.90177,1.868,2.9412,3.9409,1.9608,2.8571,7.5917,2.9206,6.7633,4.8953,-2.0612,8.6984,0.0,7.6006
-0.06319,2.9346,1.0407,4.902,5.9113,-1.1707,5.7971,-1.9968,3.8003,4.902,5.9113,1.9608,2.8571,5.6778,2.9206,5.7971,4.8953,-3.0274,8.6984,0.0,4.7021
-1.9589,2.9346,1.0407,1.9608,3.9409,-1.1707,4.8309,-1.0306,3.8003,1.9608,3.9409,2.9412,1.9048,3.764,1.9683,4.8309,3.9291,-3.9936,-2.7302,0.98522,3.7359
-1.0111,0.0638,-0.91057,0.98039,3.9409,-1.1707,5.7971,-1.0306,2.8341,0.98039,3.9409,2.9412,2.8571,3.764,3.873,1.9324,2.963,0.83736,2.0317,3.9409,3.7359
-1.0111,1.0207,-1.8862,-0.98039,0.0,-2.1463,3.8647,-2.963,2.8341,-0.98039,0.0,0.0,4.7619,4.7209,6.7302,1.9324,3.9291,0.83736,2.9841,6.8966,3.7359
0.88468,2.9346,0.06504,-3.9216,-3.9409,-2.1463,3.8647,-1.9968,2.8341,-3.9216,-3.9409,0.0,6.6667,4.7209,8.6349,1.9324,5.8615,2.7697,4.8889,7.8818,2.7697
2.7804,2.9346,1.0407,-2.9412,-0.98522,-2.1463,4.8309,-1.0306,1.868,-2.9412,-0.98522,0.0,9.5238,4.7209,9.5873,0.96618,6.8277,5.6683,9.6508,7.8818,-0.12882
1.8325,1.9777,1.0407,3.9216,3.9409,-0.19512,7.7295,1.868,3.8003,3.9216,3.9409,1.9608,9.5238,4.7209,7.6825,0.96618,4.8953,-0.12882,15.365,7.8818,-0.12882
-0.06319,0.0638,-0.91057,8.8235,8.867,2.7317,8.6957,3.8003,5.7327,8.8235,8.867,3.9216,4.7619,0.89314,1.0159,-1.9324,-0.90177,-3.0274,12.508,2.9557,-0.12882
0.88468,1.9777,-2.8618,17.646999,18.719,7.6098,12.56,3.8003,6.6989,17.646999,18.719,7.8431,1.9048,1.8501,-1.8413,-1.9324,-2.8341,-1.095,-1.7778,0.98522,1.8035
-0.06319,2.9346,-3.8374,23.528999,24.631001,9.561,9.6618,6.6989,7.6651,23.528999,24.631001,7.8431,0.95238,1.8501,-5.6508,-0.96618,-4.7665,1.8035,-10.349,0.0,1.8035
-1.9589,2.9346,-3.8374,29.412001,30.542,13.463,9.6618,8.6312,10.564,29.412001,30.542,9.8039,-1.9048,1.8501,-8.5079,-1.9324,-5.7327,4.7021,-8.4444,-3.9409,-0.12882
-1.0111,2.9346,-1.8862,41.175999,44.334999,13.463,13.527,11.53,14.428,41.175999,44.334999,13.725,0.0,5.6778,-6.6032,-0.96618,-3.8003,2.7697,-0.8254,-3.9409,0.83736
1.8325,2.9346,-1.8862,43.137001,45.32,12.488,14.493,14.428,15.395,43.137001,45.32,12.745,3.8095,8.5486,-2.7937,0.96618,1.0306,-0.12882,4.8889,-1.9704,2.7697
2.7804,3.8915,-1.8862,39.216,38.424,11.512,13.527,14.428,12.496,39.216,38.424,8.8235,5.7143,9.5056,1.9683,2.8986,3.9291,-5.9259,9.6508,2.9557,4.7021
-0.06319,2.9346,-4.813,30.392,31.527,7.6098,10.628,9.5974,12.496,30.392,31.527,3.9216,2.8571,8.5486,0.06349,1.9324,1.9968,0.83736,7.746,0.0,3.7359
-2.9068,1.9777,-6.7642,21.569,26.601,4.6829,10.628,4.7665,12.496,21.569,26.601,1.9608,0.0,5.6778,-2.7937,3.8647,0.06441,5.6683,2.0317,-3.9409,6.6345
-2.9068,2.9346,-6.7642,19.608,23.645,0.78049,8.6957,1.868,11.53,19.608,23.645,0.98039,1.9048,6.6348,-1.8413,6.7633,1.9968,-0.12882,2.9841,-1.9704,8.5668
-2.9068,3.8915,-6.7642,14.706,20.690001,-1.1707,3.8647,1.868,8.6312,14.706,20.690001,0.98039,4.7619,7.5917,1.0159,7.7295,2.963,1.8035,-3.6825,2.9557,8.5668
-3.8547,1.9777,-7.7398,6.8627,14.778,-1.1707,1.9324,1.868,4.7665,6.8627,14.778,-1.9608,6.6667,5.6778,2.9206,4.8309,3.9291,0.83736,-9.3968,5.9113,5.6683
-4.8025,-1.8501,-7.7398,1.9608,6.8966,-5.0732,4.8309,-1.0306,1.868,1.9608,6.8966,-4.902,5.7143,0.89314,2.9206,0.0,1.9968,-2.0612,2.0317,6.8966,0.83736
-1.9589,0.0638,-3.8374,1.9608,-0.98522,-6.0488,0.96618,-1.0306,-1.0306,1.9608,-0.98522,-3.9216,8.5714,1.8501,6.7302,1.9324,3.9291,-1.095,2.0317,10.837,3.7359
0.88468,-0.89314,1.0407,0.0,0.0,-3.122,0.96618,-1.0306,-2.963,0.0,0.0,0.0,9.5238,1.8501,8.6349,1.9324,5.8615,-1.095,4.8889,9.8522,2.7697
3.7283,-1.8501,3.9675,-1.9608,1.9704,-1.1707,0.96618,-1.0306,-0.06441,-1.9608,1.9704,1.9608,9.5238,1.8501,8.6349,0.96618,5.8615,1.8035,6.7937,8.867,0.83736
1.8325,1.0207,3.9675,-0.98039,-0.98522,-1.1707,-0.96618,-1.9968,-0.06441,-0.98039,-0.98522,0.0,9.5238,2.807,7.6825,1.9324,5.8615,5.6683,9.6508,7.8818,0.83736
-1.9589,-3.764,0.06504,-4.902,-6.8966,-4.0976,-6.7633,-3.9291,-4.8953,-4.902,-6.8966,-4.902,9.5238,4.7209,4.8254,1.9324,4.8953,2.7697,-3.6825,5.9113,0.83736
-6.6983,-8.5486,-3.8374,-9.8039,-10.837,-7.0244,-12.56,-3.9291,-8.7601,-9.8039,-10.837,-7.8431,7.619,5.6778,1.0159,-1.9324,1.9968,-1.095,-15.111,3.9409,0.83736
-6.6983,-11.419,-2.8618,-12.745,-12.808,-6.0488,-14.493,-4.8953,-8.7601,-12.745,-12.808,-6.8627,6.6667,4.7209,-1.8413,-7.7295,0.06441,-4.9597,-5.5873,0.98522,0.83736
0.88468,-5.6778,4.9431,-7.8431,-11.823,2.7317,-7.7295,-3.9291,-5.8615,-7.8431,-11.823,0.98039,4.7619,4.7209,-0.88889,-7.7295,0.06441,-3.9936,0.12698,0.0,-0.12882
1.8325,1.9777,9.8211,-5.8824,-8.867,4.6829,-0.96618,-2.963,-3.9291,-5.8824,-8.867,4.902,2.8571,4.7209,-1.8413,-1.9324,1.9968,-2.0612,-14.159,-1.9704,2.7697
3.7283,7.7193,11.772,-7.8431,-6.8966,5.6585,1.9324,-1.0306,-2.963,-7.8431,-6.8966,4.902,4.7619,6.6348,-0.88889,3.8647,3.9291,-1.095,-2.7302,-1.9704,6.6345
4.6761,4.8485,8.8455,-8.8235,-9.8522,2.7317,-1.9324,-1.0306,-6.8277,-8.8235,-9.8522,2.9412,5.7143,4.7209,0.06349,3.8647,2.963,-0.12882,8.6984,0.0,4.7021
0.88468,-1.8501,2.9919,-11.765,-17.733999,-4.0976,-11.594,-1.9968,-13.591,-11.765,-17.733999,-4.902,3.8095,2.807,-1.8413,2.8986,0.06441,-3.0274,1.0794,-1.9704,-0.12882
-1.0111,-3.764,0.06504,-13.725,-18.719,-6.0488,-12.56,-2.963,-14.557,-13.725,-18.719,-8.8235,3.8095,2.807,-2.7937,2.8986,-1.868,-4.9597,-16.063,-1.9704,-0.12882
-2.9068,-3.764,-2.8618,-13.725,-18.719,-5.0732,-10.628,-3.9291,-12.625,-13.725,-18.719,-7.8431,3.8095,0.89314,-3.746,-1.9324,-3.8003,-3.9936,-2.7302,-1.9704,-3.9936
-1.0111,-2.807,-1.8862,-9.8039,-15.764,-2.1463,-7.7295,-2.963,-11.659,-9.8039,-15.764,-4.902,2.8571,0.89314,-4.6984,-2.8986,-2.8341,1.8035,7.746,-3.9409,-4.9597
1.8325,-1.8501,1.0407,-9.8039,-16.749001,-0.19512,-10.628,-1.9968,-9.7262,-9.8039,-16.749001,-3.9216,2.8571,1.8501,0.06349,0.0,0.06441,1.8035,-7.4921,-0.98522,-3.0274
2.7804,-3.764,1.0407,-10.784,-13.793,-2.1463,-11.594,-2.963,-7.7939,-10.784,-13.793,-5.8824,0.95238,1.8501,2.9206,1.9324,1.9968,1.8035,-16.063,0.98522,0.83736
-1.0111,-6.6348,-1.8862,-14.706,-16.749001,-7.0244,-11.594,-3.9291,-8.7601,-14.706,-16.749001,-11.765,-1.9048,-0.0638,1.9683,0.96618,1.0306,1.8035,-11.302,-0.98522,0.83736
1.8325,-4.7209,2.0163,-12.745,-14.778,-5.0732,-5.7971,-2.963,-3.9291,-12.745,-14.778,-8.8235,-0.95238,3.764,5.7778,4.8309,4.8953,2.7697,-10.349,3.9409,6.6345
1.8325,-2.807,3.9675,-10.784,-12.808,-4.0976,-2.8986,-3.9291,-2.963,-10.784,-12.808,-6.8627,0.0,5.6778,6.7302,6.7633,5.8615,-0.12882,3.9365,3.9409,9.533
-0.06319,-4.7209,1.0407,-15.686,-17.733999,-7.0244,-5.7971,-7.7939,-7.7939,-15.686,-17.733999,-6.8627,-1.9048,2.807,3.873,1.9324,1.9968,-3.9936,8.6984,0.98522,5.6683
-0.06319,-6.6348,0.06504,-15.686,-16.749001,-6.0488,-7.7295,-7.7939,-6.8277,-15.686,-16.749001,-6.8627,-0.95238,0.89314,4.8254,-2.8986,1.0306,-3.0274,5.8413,1.9704,2.7697
-0.06319,-6.6348,-0.91057,-14.706,-17.733999,-4.0976,-8.6957,-8.7601,-8.7601,-14.706,-17.733999,-6.8627,1.9048,-0.0638,6.7302,-3.8647,0.06441,-6.8921,1.0794,4.9261,2.7697
-0.06319,-5.6778,-0.91057,-9.8039,-14.778,-5.0732,-4.8309,-3.9291,-7.7939,-9.8039,-14.778,-4.902,0.95238,-2.9346,3.873,-6.7633,-1.868,-0.12882,5.8413,3.9409,-0.12882
-1.0111,-5.6778,-0.91057,-8.8235,-12.808,-6.0488,-6.7633,-1.9968,-8.7601,-8.8235,-12.808,-4.902,-0.95238,-6.7624,0.06349,-9.6618,-5.7327,0.83736,-12.254,0.0,-5.9259
-1.9589,-4.7209,-0.91057,-13.725,-12.808,-6.0488,-10.628,-4.8953,-9.7262,-13.725,-12.808,-4.902,-0.95238,-6.7624,-2.7937,-9.6618,-6.6989,-5.9259,-15.111,-1.9704,-8.8245
-3.8547,-3.764,-1.8862,-13.725,-13.793,-6.0488,-8.6957,-4.8953,-5.8615,-13.725,-13.793,-2.9412,-1.9048,-6.7624,-5.6508,-8.6957,-5.7327,-4.9597,-5.5873,-4.9261,-8.8245
-8.594,-8.5486,-4.813,-10.784,-15.764,-8.9756,-9.6618,-6.8277,-9.7262,-10.784,-15.764,-5.8824,-5.7143,-7.7193,-11.365,-11.594,-8.6312,-6.8921,2.0317,-11.823,-11.723
-7.6461,-6.6348,-3.8374,-10.784,-13.793,-8.0,-8.6957,-4.8953,-6.8277,-10.784,-13.793,-4.902,-3.8095,-1.9777,-11.365,-6.7633,-5.7327,-10.757,-3.6825,-13.793,-7.8583
-3.8547,-3.764,-1.8862,-10.784,-11.823,-6.0488,-6.7633,-2.963,-3.9291,-10.784,-11.823,-3.9216,-1.9048,0.89314,-9.4603,-0.96618,-3.8003,-6.8921,-3.6825,-12.808,-3.0274
-1.9589,-1.8501,0.06504,-13.725,-12.808,-6.0488,-5.7971,-2.963,-4.8953,-13.725,-12.808,-4.902,0.0,4.7209,-7.5556,2.8986,-0.90177,-3.0274,4.8889,-9.8522,-0.12882
-3.8547,-0.89314,-1.8862,-12.745,-11.823,-8.9756,-8.6957,-2.963,-3.9291,-12.745,-11.823,-7.8431,-0.95238,5.6778,-7.5556,2.8986,-0.90177,-7.8583,-1.7778,-8.867,1.8035
-4.8025,-1.8501,-4.813,-14.706,-14.778,-9.9512,-8.6957,-4.8953,-5.8615,-14.706,-14.778,-10.784,0.0,6.6348,-6.6032,2.8986,-1.868,-0.12882,-0.8254,-8.867,3.7359
-5.7504,-5.6778,-7.7398,-16.667,-17.733999,-9.9512,-13.527,-3.9291,-7.7939,-16.667,-17.733999,-12.745,-1.9048,4.7209,-8.5079,-0.96618,-4.7665,5.6683,3.9365,-8.867,3.7359
-4.8025,-10.463,-9.6911,-16.667,-18.719,-7.0244,-15.459,-3.9291,-9.7262,-16.667,-18.719,-12.745,-1.9048,4.7209,-6.6032,-1.9324,-4.7665,0.83736,-4.6349,-5.9113,3.7359
-1.9589,-9.5056,-5.7886,-11.765,-16.749001,-3.122,-8.6957,-1.0306,-6.8277,-11.765,-16.749001,-8.8235,0.95238,6.6348,-0.88889,0.96618,-0.90177,2.7697,-4.6349,-0.98522,5.6683
0.88468,-8.5486,-1.8862,-6.8627,-12.808,-1.1707,-7.7295,1.868,-3.9291,-6.8627,-12.808,-5.8824,0.95238,4.7209,1.9683,-1.9324,-0.90177,2.7697,-1.7778,2.9557,3.7359
1.8325,-5.6778,0.06504,-5.8824,-10.837,-3.122,-6.7633,1.868,-4.8953,-5.8824,-10.837,-3.9216,2.8571,1.8501,4.8254,-3.8647,0.06441,-0.12882,-1.7778,7.8818,0.83736
0.88468,-4.7209,-0.91057,-5.8824,-9.8522,-2.1463,-7.7295,-0.06441,-5.8615,-5.8824,-9.8522,-4.902,1.9048,-1.0207,4.8254,-5.7971,-1.868,-0.12882,-8.4444,7.8818,-1.095
1.8325,-1.8501,-1.8862,-8.8235,-7.8818,-0.19512,-6.7633,-1.0306,-1.9968,-8.8235,-7.8818,-2.9412,0.0,-1.9777,4.8254,-3.8647,-1.868,-1.095,-17.016001,8.867,-0.12882
6.5719,2.9346,3.9675,-5.8824,-6.8966,5.6585,1.9324,-0.06441,0.90177,-5.8824,-6.8966,1.9608,0.95238,-1.0207,6.7302,0.96618,1.9968,1.8035,2.0317,10.837,2.7697
7.5197,2.9346,6.8943,0.0,-5.9113,10.537,1.9324,1.868,1.868,0.0,-5.9113,5.8824,-3.8095,-5.8054,2.9206,-0.96618,1.0306,6.6345,11.556,5.9113,-1.095
9.4155,5.8054,9.8211,3.9216,-2.9557,10.537,0.96618,2.8341,1.868,3.9216,-2.9557,8.8235,-4.7619,-8.6762,3.873,1.9324,3.9291,6.6345,3.9365,4.9261,-2.0612
8.4676,5.8054,10.797,3.9216,-1.9704,7.6098,1.9324,-0.06441,-1.0306,3.9216,-1.9704,8.8235,-3.8095,-7.7193,6.7302,6.7633,7.7939,2.7697,13.46,3.9409,-1.095
6.5719,6.7624,11.772,-3.9216,-2.9557,3.7073,4.8309,-3.9291,-1.0306,-3.9216,-2.9557,7.8431,-1.9048,-4.8485,7.6825,10.628,11.659,-2.0612,12.508,1.9704,2.7697
3.7283,6.7624,8.8455,-7.8431,-7.8818,-1.1707,2.8986,-6.8277,-0.06441,-7.8431,-7.8818,3.9216,-0.95238,-1.9777,6.7302,12.56,12.625,-7.8583,2.9841,-0.98522,2.7697
1.8325,5.8054,7.8699,-8.8235,-3.9409,-4.0976,3.8647,-8.7601,3.8003,-8.8235,-3.9409,1.9608,-2.8571,-1.0207,2.9206,10.628,8.7601,-8.8245,-2.7302,-5.9113,2.7697
0.88468,6.7624,6.8943,-9.8039,-1.9704,-3.122,0.96618,-3.9291,3.8003,-9.8039,-1.9704,0.98039,-5.7143,-1.0207,-0.88889,10.628,5.8615,-7.8583,-8.4444,-8.867,1.8035
0.88468,3.8915,3.9675,-8.8235,-2.9557,-3.122,-0.96618,-0.06441,1.868,-8.8235,-2.9557,0.0,-6.6667,-1.0207,-2.7937,5.7971,1.9968,-6.8921,1.0794,-8.867,0.83736
0.88468,1.9777,1.0407,-3.9216,-2.9557,-2.1463,-1.9324,0.90177,0.90177,-3.9216,-2.9557,0.0,-6.6667,-1.0207,-2.7937,0.0,-1.868,0.83736,3.9365,-6.8966,-0.12882
-1.0111,0.0638,-1.8862,-3.9216,-2.9557,-4.0976,-0.96618,0.90177,-0.06441,-3.9216,-2.9557,0.0,-7.619,-1.9777,-4.6984,-5.7971,-6.6989,8.5668,-3.6825,-6.8966,-2.0612
-5.7504,-3.764,-6.7642,-5.8824,-2.9557,-6.0488,0.0,-0.06441,-1.0306,-5.8824,-2.9557,-1.9608,-8.5714,-3.8915,-9.4603,-12.56,-13.462,6.6345,-0.8254,-7.8818,-5.9259
-8.594,-5.6778,-9.6911,-4.902,-3.9409,-8.0,0.96618,-1.0306,-1.0306,-4.902,-3.9409,-4.902,-9.5238,-6.7624,-12.317,-12.56,-15.395,0.83736,-3.6825,-7.8818,-7.8583
-8.594,-4.7209,-9.6911,-5.8824,-3.9409,-8.0,-3.8647,-1.9968,0.90177,-5.8824,-3.9409,-5.8824,-9.5238,-9.6332,-12.317,-11.594,-15.395,-2.0612,7.746,-5.9113,-8.8245
-5.7504,-4.7209,-6.7642,-0.98039,-0.98522,-5.0732,-2.8986,-1.0306,-0.06441,-0.98039,-0.98522,-3.9216,-8.5714,-9.6332,-8.5079,-9.6618,-12.496,-3.9936,3.9365,-2.9557,-6.8921
-6.6983,-0.89314,-5.7886,0.0,-0.98522,-5.0732,0.96618,-1.0306,-1.9968,0.0,-0.98522,-2.9412,-7.619,-8.6762,-6.6032,-5.7971,-8.6312,-3.9936,-15.111,-1.9704,-5.9259
-7.6461,0.0638,-6.7642,-4.902,-3.9409,-6.0488,0.96618,-2.963,-2.963,-4.902,-3.9409,-3.9216,-3.8095,-5.8054,-4.6984,-2.8986,-5.7327,-3.9936,-8.4444,-0.98522,-3.0274
-2.9068,3.8915,-0.91057,-1.9608,-1.9704,-3.122,3.8647,-2.963,-0.06441,-1.9608,-1.9704,0.0,0.0,-0.0638,0.06349,3.8647,1.0306,-2.0612,5.8413,4.9261,2.7697
-0.06319,6.7624,4.9431,0.98039,-1.9704,-0.19512,-0.96618,-1.9968,1.868,0.98039,-1.9704,2.9412,0.95238,1.8501,1.9683,7.7295,4.8953,-2.0612,3.9365,2.9557,4.7021
5.624,12.504,10.797,0.0,4.9261,5.6585,4.8309,-1.9968,6.6989,0.0,4.9261,9.8039,2.8571,1.8501,3.873,8.6957,6.8277,3.7359,2.9841,2.9557,4.7021
9.4155,15.375,14.699,-0.98039,6.8966,9.561,12.56,-2.963,8.6312,-0.98039,6.8966,14.706,6.6667,5.6778,8.6349,10.628,7.7939,-1.095,3.9365,6.8966,4.7021
11.311,14.418,18.601999,3.9216,8.867,10.537,18.357,-2.963,8.6312,3.9216,8.867,19.608,7.619,8.5486,9.5873,11.594,9.7262,-3.9936,11.556,5.9113,6.6345
11.311,15.375,18.601999,6.8627,11.823,10.537,19.323999,-2.963,10.564,6.8627,11.823,19.608,7.619,7.5917,9.5873,11.594,9.7262,-3.9936,12.508,3.9409,5.6683
9.4155,16.332001,16.65,6.8627,12.808,9.561,20.290001,-1.0306,13.462,6.8627,12.808,16.667,5.7143,6.6348,6.7302,11.594,8.7601,-4.9597,17.27,0.98522,5.6683
6.5719,15.375,13.724,10.784,11.823,10.537,18.357,0.90177,16.361,10.784,11.823,13.725,3.8095,5.6778,2.9206,8.6957,4.8953,-7.8583,11.556,-0.98522,5.6683
2.7804,10.59,7.8699,8.8235,8.867,9.561,11.594,3.8003,11.53,8.8235,8.867,9.8039,-2.8571,-0.0638,-3.746,0.96618,-1.868,-7.8583,4.8889,-5.9113,1.8035
-1.9589,1.0207,0.06504,4.902,6.8966,6.6341,0.96618,9.5974,1.868,4.902,6.8966,3.9216,-11.429,-8.6762,-11.365,-7.7295,-10.564,-0.12882,-5.5873,-10.837,-8.8245
-3.8547,-4.7209,-4.813,6.8627,6.8966,3.7073,0.96618,14.428,-0.06441,6.8627,6.8966,0.98039,-14.286,-13.461,-12.317,-11.594,-14.428,7.6006,-4.6349,-9.8522,-13.655
-3.8547,-3.764,-5.7886,13.725,5.9113,4.6829,5.7971,14.428,1.868,13.725,5.9113,2.9412,-15.238,-14.418,-12.317,-9.6618,-15.395,9.533,-3.6825,-5.9113,-10.757
-4.8025,-6.6348,-7.7398,10.784,4.9261,4.6829,3.8647,8.6312,1.868,10.784,4.9261,0.98039,-14.286,-13.461,-11.365,-7.7295,-15.395,6.6345,-4.6349,-2.9557,-6.8921
-5.7504,-8.5486,-10.667,6.8627,6.8966,2.7317,2.8986,3.8003,0.90177,6.8627,6.8966,-0.98039,-15.238,-12.504,-10.413,-9.6618,-14.428,4.7021,-0.8254,-1.9704,-4.9597
-3.8547,-8.5486,-8.7154,4.902,6.8966,2.7317,2.8986,0.90177,3.8003,4.902,6.8966,-0.98039,-14.286,-11.547,-8.5079,-8.6957,-13.462,3.7359,0.12698,0.98522,-3.9936
-0.06319,-6.6348,-3.8374,4.902,1.9704,3.7073,-0.96618,0.90177,0.90177,4.902,1.9704,-0.98039,-12.381,-9.6332,-4.6984,-4.8309,-9.5974,6.6345,1.0794,2.9557,-3.0274
4.6761,-3.764,1.0407,1.9608,-0.98522,3.7073,-1.9324,2.8341,-1.9968,1.9608,-0.98522,0.98039,-9.5238,-7.7193,1.0159,0.0,-3.8003,3.7359,5.8413,5.9113,-2.0612
8.4676,-0.89314,4.9431,3.9216,4.9261,7.6098,1.9324,6.6989,1.868,3.9216,4.9261,4.902,-6.6667,-7.7193,4.8254,0.0,-0.90177,9.533,8.6984,7.8818,-0.12882
5.624,-4.7209,1.0407,5.8824,4.9261,6.6341,-2.8986,2.8341,1.868,5.8824,4.9261,1.9608,-7.619,-11.547,2.9206,-5.7971,-3.8003,9.533,-3.6825,4.9261,-5.9259
5.624,-2.807,2.0163,4.902,4.9261,6.6341,-1.9324,0.90177,1.868,4.902,4.9261,1.9608,-6.6667,-11.547,3.873,-7.7295,-3.8003,3.7359,-8.4444,6.8966,-5.9259
4.6761,-0.89314,3.9675,2.9412,6.8966,5.6585,3.8647,-0.06441,6.6989,2.9412,6.8966,0.98039,-5.7143,-10.59,3.873,-8.6957,-3.8003,1.8035,0.12698,6.8966,-5.9259
-0.06319,-2.807,0.06504,-0.98039,1.9704,-2.1463,3.8647,-4.8953,5.7327,-0.98039,1.9704,-2.9412,-8.5714,-14.418,-0.88889,-11.594,-6.6989,-3.9936,-3.6825,0.98522,-9.7907
-3.8547,0.0638,0.06504,-4.902,0.98522,-6.0488,3.8647,-7.7939,4.7665,-4.902,0.98522,-3.9216,-8.5714,-14.418,-1.8413,-10.628,-6.6989,-10.757,-4.6349,-3.9409,-12.689
-2.9068,3.8915,2.0163,-2.9412,4.9261,-6.0488,4.8309,-7.7939,5.7327,-2.9412,4.9261,-1.9608,-4.7619,-8.6762,0.06349,-4.8309,-1.868,-14.622,-10.349,-2.9557,-9.7907
-0.06319,6.7624,5.9187,0.98039,7.8818,-2.1463,4.8309,-8.7601,8.6312,0.98039,7.8818,0.0,1.9048,-1.0207,3.873,1.9324,4.8953,-11.723,4.8889,0.0,-3.0274
3.7283,6.7624,9.8211,3.9216,9.8522,-0.19512,7.7295,-9.7262,11.53,3.9216,9.8522,4.902,8.5714,9.5056,7.6825,7.7295,11.659,-7.8583,24.889,-0.98522,5.6683
2.7804,6.7624,9.8211,0.98039,7.8818,-3.122,7.7295,-11.659,11.53,0.98039,7.8818,3.9216,11.429,16.204,8.6349,13.527,14.557,-10.757,19.174999,-2.9557,10.499
0.88468,9.6332,7.8699,0.0,4.9261,-5.0732,4.8309,-13.591,7.6651,0.0,4.9261,3.9216,14.286,20.989,7.6825,17.391001,15.523,-19.452,5.8413,-2.9557,15.33
0.88468,8.6762,7.8699,3.9216,9.8522,-3.122,7.7295,-10.692,9.5974,3.9216,9.8522,4.902,14.286,21.945999,7.6825,16.424999,15.523,-22.351,6.7937,-2.9557,19.195
1.8325,7.7193,9.8211,6.8627,11.823,-0.19512,10.628,-6.8277,9.5974,6.8627,11.823,6.8627,12.381,18.118,7.6825,12.56,13.591,-19.452,17.27,-2.9557,18.229
2.7804,7.7193,9.8211,6.8627,10.837,1.7561,8.6957,-3.9291,8.6312,6.8627,10.837,5.8824,7.619,12.376,5.7778,9.6618,10.692,-13.655,14.413,-2.9557,14.364
1.8325,8.6762,6.8943,4.902,10.837,0.78049,5.7971,-1.9968,12.496,4.902,10.837,3.9216,2.8571,7.5917,1.9683,7.7295,5.8615,-8.8245,-4.6349,-4.9261,12.432
-1.0111,3.8915,2.9919,2.9412,8.867,0.78049,2.8986,-1.9968,6.6989,2.9412,8.867,2.9412,0.0,2.807,-3.746,5.7971,1.9968,-10.757,2.9841,-5.9113,10.499
-1.9589,1.0207,1.0407,2.9412,5.9113,-0.19512,2.8986,-0.06441,2.8341,2.9412,5.9113,1.9608,0.95238,1.8501,-2.7937,3.8647,1.9968,-10.757,15.365,-2.9557,5.6683
0.88468,1.0207,2.9919,3.9216,4.9261,3.7073,5.7971,1.868,3.8003,3.9216,4.9261,4.902,4.7619,2.807,-0.88889,1.9324,2.963,-3.0274,9.6508,0.98522,0.83736
3.7283,1.9777,3.9675,4.902,4.9261,6.6341,5.7971,7.6651,2.8341,4.902,4.9261,5.8824,7.619,2.807,1.9683,-0.96618,1.9968,5.6683,-9.3968,7.8818,-3.0274
2.7804,-0.89314,0.06504,5.8824,4.9261,5.6585,0.0,7.6651,0.90177,5.8824,4.9261,4.902,4.7619,-0.0638,0.06349,-3.8647,-1.868,4.7021,-20.825001,8.867,-5.9259
-0.06319,-2.807,-4.813,3.9216,1.9704,3.7073,-5.7971,6.6989,-3.9291,3.9216,1.9704,2.9412,0.95238,-3.8915,-2.7937,-6.7633,-6.6989,6.6345,-8.4444,3.9409,-7.8583
-2.9068,-7.5917,-7.7398,5.8824,2.9557,3.7073,-2.8986,3.8003,-3.9291,5.8824,2.9557,1.9608,-0.95238,-5.8054,-4.6984,-8.6957,-9.5974,8.5668,-1.7778,1.9704,-9.7907
-3.8547,-7.5917,-7.7398,5.8824,2.9557,4.6829,-2.8986,4.7665,-5.8615,5.8824,2.9557,0.98039,-1.9048,-7.7193,-3.746,-7.7295,-9.5974,2.7697,-15.111,1.9704,-9.7907
0.88468,-6.6348,-5.7886,3.9216,0.98522,4.6829,-0.96618,6.6989,-7.7939,3.9216,0.98522,2.9412,0.0,-5.8054,1.0159,-6.7633,-6.6989,6.6345,-9.3968,5.9113,-7.8583
-1.9589,-10.463,-7.7398,3.9216,-3.9409,2.7317,-6.7633,5.7327,-10.692,3.9216,-3.9409,0.98039,-0.95238,-4.8485,-0.88889,-10.628,-8.6312,8.5668,1.0794,4.9261,-7.8583
-3.8547,-12.376,-7.7398,4.902,-5.9113,2.7317,-7.7295,6.6989,-10.692,4.902,-5.9113,0.98039,-1.9048,-4.8485,-3.746,-13.527,-10.564,8.5668,-5.5873,0.98522,-7.8583
-1.9589,-9.5056,-6.7642,3.9216,-3.9409,4.6829,-7.7295,6.6989,-8.7601,3.9216,-3.9409,0.0,-3.8095,-4.8485,-5.6508,-12.56,-9.5974,9.533,-9.3968,-0.98522,-5.9259
-0.06319,-5.6778,-4.813,2.9412,-2.9557,4.6829,-3.8647,7.6651,-5.8615,2.9412,-2.9557,0.98039,-4.7619,-4.8485,-4.6984,-8.6957,-7.6651,11.465,-7.4921,-0.98522,-5.9259
0.88468,-3.764,-3.8374,4.902,1.9704,4.6829,-2.8986,7.6651,-3.9291,4.902,1.9704,0.98039,-3.8095,-3.8915,-3.746,-4.8309,-3.8003,11.465,6.7937,-1.9704,-3.9936
0.88468,-1.8501,-1.8862,5.8824,6.8966,3.7073,-1.9324,8.6312,0.90177,5.8824,6.8966,1.9608,-2.8571,-0.0638,-1.8413,0.96618,0.06441,5.6683,6.7937,-2.9557,2.7697
3.7283,4.8485,3.9675,4.902,4.9261,2.7317,3.8647,4.7665,6.6989,4.902,4.9261,1.9608,-0.95238,3.764,1.0159,9.6618,5.8615,1.8035,0.12698,-0.98522,8.5668
9.4155,12.504,11.772,3.9216,3.9409,4.6829,4.8309,1.868,7.6651,3.9216,3.9409,4.902,3.8095,9.5056,6.7302,18.357,13.591,7.6006,12.508,1.9704,17.261999
10.363,14.418,14.699,1.9608,4.9261,5.6585,6.7633,-0.06441,8.6312,1.9608,4.9261,4.902,5.7143,14.29,9.5873,23.188,18.422001,2.7697,14.413,3.9409,20.160999
8.4676,10.59,11.772,1.9608,3.9409,3.7073,6.7633,-1.0306,9.5974,1.9608,3.9409,1.9608,7.619,19.075001,10.54,24.155001,20.354,3.7359,10.603,3.9409,21.127001
5.624,7.7193,7.8699,-2.9412,-1.9704,-1.1707,2.8986,-1.0306,0.90177,-2.9412,-1.9704,-0.98039,7.619,20.032,9.5873,22.222,18.422001,9.533,11.556,1.9704,21.127001
-0.06319,0.0638,0.06504,-9.8039,-8.867,-7.0244,-4.8309,-0.06441,-5.8615,-9.8039,-8.867,-5.8824,4.7619,16.204,5.7778,14.493,12.625,8.5668,4.8889,0.0,15.33
-6.6983,-7.5917,-9.6911,-7.8431,-9.8522,-11.902,-10.628,1.868,-8.7601,-7.8431,-9.8522,-10.784,-0.95238,6.6348,-1.8413,3.8647,2.963,7.6006,-8.4444,-1.9704,6.6345
-9.5419,-8.5486,-13.593,-5.8824,-8.867,-10.927,-14.493,4.7665,-11.659,-5.8824,-8.867,-12.745,-2.8571,-1.0207,-4.6984,-1.9324,-2.8341,7.6006,-16.063,-2.9557,-0.12882
-9.5419,-9.5056,-13.593,-1.9608,-6.8966,-8.9756,-11.594,6.6989,-10.692,-1.9608,-6.8966,-11.765,-4.7619,-7.7193,-5.6508,-10.628,-7.6651,8.5668,-1.7778,-1.9704,-6.8921
-9.5419,-9.5056,-13.593,-0.98039,-6.8966,-8.0,-8.6957,7.6651,-10.692,-0.98039,-6.8966,-12.745,-3.8095,-11.547,-3.746,-15.459,-9.5974,11.465,1.0794,1.9704,-12.689
-8.594,-11.419,-13.593,0.98039,-4.9261,-7.0244,-6.7633,8.6312,-9.7262,0.98039,-4.9261,-11.765,-2.8571,-12.504,-2.7937,-19.323999,-11.53,13.398,-12.254,5.9113,-15.588
-7.6461,-16.204,-14.569,0.0,-4.9261,-4.0976,-6.7633,10.564,-8.7601,0.0,-4.9261,-9.8039,-2.8571,-13.461,-4.6984,-22.222,-14.428,14.364,-15.111,4.9261,-17.52
-5.7504,-15.247,-11.642,-8.8235,-14.778,-3.122,-9.6618,4.7665,-13.591,-8.8235,-14.778,-9.8039,-1.9048,-12.504,-2.7937,-18.357,-12.496,10.499,-9.3968,4.9261,-14.622
-3.8547,-12.376,-7.7398,-1.9608,-8.867,-1.1707,-9.6618,6.6989,-10.692,-1.9608,-8.867,-6.8627,-2.8571,-13.461,-0.88889,-14.493,-9.5974,13.398,-5.5873,3.9409,-12.689
-1.0111,-6.6348,-3.8374,9.8039,3.9409,1.7561,-2.8986,12.496,-1.0306,9.8039,3.9409,-0.98039,-3.8095,-11.547,0.06349,-6.7633,-5.7327,14.364,-0.8254,0.98522,-8.8245
3.7283,4.8485,2.0163,12.745,7.8818,4.6829,4.8309,14.428,1.868,12.745,7.8818,3.9216,0.95238,-3.8915,4.8254,5.7971,2.963,15.33,3.9365,5.9113,-0.12882
4.6761,4.8485,1.0407,7.8431,4.9261,2.7317,1.9324,12.496,-0.06441,7.8431,4.9261,0.98039,3.8095,0.89314,6.7302,9.6618,6.8277,17.261999,-3.6825,6.8966,3.7359
6.5719,1.9777,2.0163,0.0,0.0,2.7317,-0.96618,7.6651,-4.8953,0.0,0.0,-0.98039,5.7143,4.7209,8.6349,9.6618,8.7601,17.261999,2.9841,4.9261,5.6683
8.4676,3.8915,3.9675,1.9608,0.0,6.6341,-3.8647,10.564,-4.8953,1.9608,0.0,1.9608,4.7619,4.7209,6.7302,8.6957,7.7939,12.432,-1.7778,1.9704,5.6683
11.311,3.8915,5.9187,8.8235,2.9557,11.512,0.96618,14.428,-1.9968,8.8235,2.9557,6.8627,1.9048,3.764,2.9206,7.7295,5.8615,9.533,-2.7302,0.0,5.6683
11.311,5.8054,5.9187,9.8039,2.9557,14.439,4.8309,17.327,-0.06441,9.8039,2.9557,8.8235,1.9048,4.7209,2.9206,8.6957,6.8277,11.465,-0.8254,0.0,6.6345
10.363,7.7193,4.9431,7.8431,2.9557,13.463,5.7971,15.395,0.90177,7.8431,2.9557,8.8235,3.8095,5.6778,3.873,6.7633,6.8277,11.465,-6.5397,-0.98522,6.6345
7.5197,5.8054,3.9675,7.8431,3.9409,11.512,8.6957,10.564,1.868,7.8431,3.9409,6.8627,1.9048,5.6778,3.873,4.8309,5.8615,6.6345,1.0794,-1.9704,7.6006
6.5719,3.8915,2.9919,10.784,7.8818,8.5854,9.6618,11.53,3.8003,10.784,7.8818,5.8824,1.9048,5.6778,3.873,3.8647,4.8953,13.398,8.6984,0.0,7.6006
4.6761,1.9777,0.06504,10.784,7.8818,4.6829,3.8647,12.496,4.7665,10.784,7.8818,3.9216,1.9048,3.764,3.873,0.0,1.9968,10.499,4.8889,2.9557,3.7359
1.8325,2.9346,-0.91057,7.8431,1.9704,2.7317,4.8309,10.564,3.8003,7.8431,1.9704,1.9608,-0.95238,0.89314,1.0159,-4.8309,-1.868,6.6345,2.9841,1.9704,-2.0612
-0.06319,-1.8501,-2.8618,2.9412,0.0,1.7561,2.8986,7.6651,-1.0306,2.9412,0.0,0.0,-3.8095,-3.8915,-1.8413,-8.6957,-5.7327,8.5668,2.0317,-0.98522,-6.8921
-1.0111,-3.764,-2.8618,3.9216,0.0,-0.19512,-1.9324,3.8003,-0.06441,3.9216,0.0,-0.98039,-3.8095,-4.8485,-3.746,-8.6957,-5.7327,8.5668,-4.6349,-1.9704,-6.8921
-3.8547,-4.7209,-5.7886,3.9216,-3.9409,-3.122,-5.7971,0.90177,-2.963,3.9216,-3.9409,-3.9216,-4.7619,-4.8485,-5.6508,-6.7633,-6.6989,5.6683,-1.7778,-2.9557,-5.9259
-5.7504,-6.6348,-7.7398,1.9608,-5.9113,-4.0976,-5.7971,-0.06441,-7.7939,1.9608,-5.9113,-4.902,-6.6667,-6.7624,-8.5079,-8.6957,-8.6312,-1.095,-6.5397,-4.9261,-8.8245
-3.8547,-4.7209,-4.813,0.98039,-1.9704,-2.1463,-2.8986,0.90177,-5.8615,0.98039,-1.9704,-1.9608,-4.7619,-5.8054,-6.6032,-5.7971,-6.6989,-3.0274,-9.3968,-1.9704,-7.8583
-3.8547,-4.7209,-4.813,2.9412,-0.98522,-2.1463,-2.8986,0.90177,-4.8953,2.9412,-0.98522,-2.9412,-2.8571,-5.8054,-5.6508,-5.7971,-5.7327,-3.0274,0.12698,-0.98522,-5.9259
-1.9589,-2.807,-2.8618,2.9412,-1.9704,-0.19512,-0.96618,-0.06441,-2.963,2.9412,-1.9704,0.0,-2.8571,-5.8054,-3.746,-4.8309,-4.7665,0.83736,-8.4444,1.9704,-5.9259
-0.06319,-2.807,-0.91057,-5.8824,-6.8966,-1.1707,-1.9324,-2.963,-4.8953,-5.8824,-6.8966,-1.9608,-1.9048,-3.8915,-0.88889,-2.8986,-2.8341,3.7359,-5.5873,3.9409,-4.9597
1.8325,2.9346,1.0407,-4.902,-3.9409,-1.1707,1.9324,-2.963,-1.0306,-4.902,-3.9409,-0.98039,-1.9048,-3.8915,1.9683,0.0,1.0306,1.8035,7.746,6.8966,-2.0612
2.7804,3.8915,2.0163,5.8824,3.9409,2.7317,4.8309,3.8003,3.8003,5.8824,3.9409,1.9608,-2.8571,-4.8485,2.9206,0.96618,1.9968,1.8035,11.556,4.9261,-2.0612
2.7804,0.0638,2.9919,2.9412,5.9113,2.7317,1.9324,2.8341,2.8341,2.9412,5.9113,1.9608,-1.9048,-3.8915,2.9206,0.0,1.9968,-4.9597,4.8889,2.9557,-2.0612
2.7804,2.9346,5.9187,1.9608,4.9261,3.7073,1.9324,-1.0306,6.6989,1.9608,4.9261,3.9216,1.9048,-0.0638,4.8254,3.8647,4.8953,-3.0274,-4.6349,2.9557,1.8035
3.7283,5.8054,7.8699,5.8824,7.8818,4.6829,5.7971,-0.06441,4.7665,5.8824,7.8818,5.8824,4.7619,4.7209,5.7778,6.7633,8.7601,0.83736,-5.5873,0.98522,4.7021
3.7283,5.8054,6.8943,4.902,5.9113,2.7317,4.8309,0.90177,0.90177,4.902,5.9113,3.9216,7.619,7.5917,7.6825,8.6957,10.692,1.8035,-1.7778,0.98522,6.6345
0.88468,1.9777,2.9919,2.9412,3.9409,0.78049,0.96618,1.868,2.8341,2.9412,3.9409,0.98039,6.6667,7.5917,4.8254,4.8309,7.7939,1.8035,-0.8254,-0.98522,2.7697
-2.9068,-5.6778,-3.8374,0.98039,0.98522,-4.0976,-4.8309,-0.06441,0.90177,0.98039,0.98522,-3.9216,3.8095,5.6778,0.06349,-1.9324,1.0306,-3.0274,-1.7778,-4.9261,-0.12882
-3.8547,-6.6348,-6.7642,-1.9608,-0.98522,-6.0488,-4.8309,-0.06441,-1.0306,-1.9608,-0.98522,-6.8627,0.95238,3.764,-4.6984,-2.8986,-3.8003,0.83736,3.9365,-6.8966,0.83736
-3.8547,-5.6778,-6.7642,-1.9608,0.0,-5.0732,-3.8647,-1.0306,-2.963,-1.9608,0.0,-7.8431,0.0,3.764,-6.6032,-1.9324,-5.7327,-1.095,8.6984,-6.8966,-0.12882
-3.8547,-4.7209,-5.7886,-0.98039,-1.9704,-4.0976,-4.8309,-1.0306,-2.963,-0.98039,-1.9704,-6.8627,0.95238,4.7209,-5.6508,-1.9324,-4.7665,-1.095,-4.6349,-5.9113,-1.095
-6.6983,-7.5917,-9.6911,-3.9216,-5.9113,-7.0244,-8.6957,-3.9291,-4.8953,-3.9216,-5.9113,-7.8431,0.0,3.764,-6.6032,-5.7971,-5.7327,-3.0274,-9.3968,-4.9261,-3.0274
-7.6461,-6.6348,-11.642,-4.902,-4.9261,-8.9756,-10.628,-5.8615,-5.8615,-4.902,-4.9261,-8.8235,4.7619,5.6778,-2.7937,-3.8647,-3.8003,-0.12882,-0.8254,0.98522,-1.095
-8.594,-3.764,-12.618,-5.8824,-2.9557,-11.902,-6.7633,-7.7939,-2.963,-5.8824,-2.9557,-8.8235,8.5714,10.463,1.0159,2.8986,1.9968,-0.12882,-0.8254,5.9113,5.6683
-7.6461,-0.89314,-9.6911,-3.9216,-1.9704,-10.927,-0.96618,-5.8615,-1.0306,-3.9216,-1.9704,-6.8627,10.476,13.333,3.873,6.7633,4.8953,-3.0274,-1.7778,6.8966,10.499
-5.7504,-0.89314,-8.7154,-5.8824,-3.9409,-9.9512,0.96618,-7.7939,-2.963,-5.8824,-3.9409,-5.8824,10.476,13.333,3.873,3.8647,3.9291,-3.0274,5.8413,5.9113,10.499
-2.9068,-3.764,-7.7398,-4.902,-2.9557,-6.0488,-0.96618,-8.7601,-1.0306,-4.902,-2.9557,-5.8824,10.476,10.463,5.7778,0.96618,2.963,-8.8245,2.0317,9.8522,8.5668
-1.9589,-3.764,-6.7642,-2.9412,0.0,-3.122,-1.9324,-7.7939,0.90177,-2.9412,0.0,-4.902,6.6667,4.7209,2.9206,-1.9324,0.06441,-5.9259,-5.5873,7.8818,4.7021
1.8325,1.9777,-2.8618,-0.98039,3.9409,1.7561,2.8986,-5.8615,7.6651,-0.98039,3.9409,0.0,5.7143,2.807,3.873,0.0,0.06441,2.7697,11.556,8.867,2.7697
2.7804,0.0638,-0.91057,0.0,5.9113,3.7073,7.7295,-3.9291,8.6312,0.0,5.9113,2.9412,5.7143,-0.0638,3.873,-0.96618,-0.90177,-7.8583,7.746,9.8522,0.83736
-1.0111,-1.8501,-1.8862,0.98039,6.8966,0.78049,6.7633,-7.7939,7.6651,0.98039,6.8966,2.9412,2.8571,-4.8485,-0.88889,-5.7971,-3.8003,-14.622,-4.6349,5.9113,-4.9597
-2.9068,-2.807,-3.8374,0.98039,5.9113,0.78049,3.8647,-11.659,5.7327,0.98039,5.9113,1.9608,0.0,-7.7193,-5.6508,-6.7633,-6.6989,-13.655,-7.4921,-1.9704,-8.8245
-5.7504,-1.8501,-3.8374,0.0,3.9409,-1.1707,1.9324,-11.659,6.6989,0.0,3.9409,-0.98039,-1.9048,-6.7624,-8.5079,-5.7971,-6.6989,-16.554001,2.0317,-5.9113,-6.8921
-5.7504,2.9346,-0.91057,0.98039,3.9409,-0.19512,1.9324,-8.7601,5.7327,0.98039,3.9409,0.98039,-2.8571,-6.7624,-8.5079,-3.8647,-6.6989,-17.52,10.603,-7.8818,-5.9259
-2.9068,0.0638,-1.8862,2.9412,3.9409,1.7561,1.9324,-4.8953,1.868,2.9412,3.9409,0.98039,-5.7143,-7.7193,-7.5556,-4.8309,-6.6989,-18.486,-0.8254,-10.837,-7.8583
-1.9589,-1.8501,-3.8374,0.98039,3.9409,1.7561,1.9324,-1.0306,-0.06441,0.98039,3.9409,-0.98039,-8.5714,-6.7624,-7.5556,-3.8647,-6.6989,-12.689,1.0794,-11.823,-6.8921
-1.0111,-1.8501,-2.8618,1.9608,2.9557,1.7561,0.96618,-0.06441,-0.06441,1.9608,2.9557,0.0,-8.5714,-4.8485,-6.6032,-1.9324,-4.7665,-0.12882,2.0317,-10.837,-3.0274
-1.0111,-1.8501,-0.91057,1.9608,0.98522,-2.1463,2.8986,0.90177,2.8341,1.9608,0.98522,0.0,-6.6667,-2.9346,-3.746,0.0,-3.8003,2.7697,0.12698,-6.8966,-1.095
0.88468,0.0638,1.0407,1.9608,1.9704,-2.1463,2.8986,-0.06441,0.90177,1.9608,1.9704,0.98039,-4.7619,-1.0207,0.06349,1.9324,-0.90177,0.83736,-0.8254,-1.9704,1.8035
0.88468,0.0638,2.0163,-1.9608,1.9704,-2.1463,-0.96618,-1.0306,-3.9291,-1.9608,1.9704,1.9608,-2.8571,0.89314,1.0159,2.8986,1.9968,4.7021,-4.6349,0.0,3.7359
-0.06319,1.0207,2.9919,-3.9216,1.9704,-2.1463,0.0,-1.0306,-0.06441,-3.9216,1.9704,2.9412,-0.95238,0.89314,2.9206,2.8986,2.963,3.7359,-0.8254,0.98522,4.7021
-0.06319,1.0207,2.0163,-4.902,-0.98522,-3.122,0.96618,-1.9968,2.8341,-4.902,-0.98522,0.0,1.9048,3.764,4.8254,3.8647,4.8953,5.6683,7.746,0.98522,6.6345
0.88468,1.0207,2.9919,-4.902,-0.98522,-2.1463,0.0,-1.9968,1.868,-4.902,-0.98522,0.0,5.7143,6.6348,5.7778,3.8647,4.8953,5.6683,8.6984,3.9409,5.6683
-1.9589,4.8485,2.0163,-4.902,-0.98522,-3.122,-2.8986,-3.9291,-1.0306,-4.902,-0.98522,0.0,5.7143,4.7209,4.8254,2.8986,1.9968,0.83736,-12.254,5.9113,1.8035
-1.9589,3.8915,1.0407,-2.9412,0.0,-4.0976,1.9324,-6.8277,-1.0306,-2.9412,0.0,0.98039,4.7619,2.807,4.8254,0.0,1.0306,-3.0274,-6.5397,5.9113,-0.12882
-1.9589,1.9777,2.0163,-3.9216,-1.9704,-2.1463,5.7971,-6.8277,1.868,-3.9216,-1.9704,2.9412,4.7619,3.764,3.873,-0.96618,1.0306,-3.0274,7.746,2.9557,-1.095
1.8325,4.8485,6.8943,-4.902,0.0,1.7561,6.7633,-4.8953,1.868,-4.902,0.0,6.8627,3.8095,5.6778,1.9683,0.96618,1.9968,-3.9936,3.9365,0.98522,-0.12882
3.7283,5.8054,8.8455,-0.98039,2.9557,4.6829,6.7633,-2.963,3.8003,-0.98039,2.9557,8.8235,1.9048,3.764,-0.88889,0.96618,1.0306,-5.9259,2.0317,-1.9704,-0.12882
-0.06319,1.9777,5.9187,1.9608,2.9557,3.7073,7.7295,-3.9291,3.8003,1.9608,2.9557,6.8627,-2.8571,-1.0207,-6.6032,-2.8986,-3.8003,-4.9597,0.12698,-6.8966,-2.0612
-5.7504,1.0207,1.0407,0.0,-0.98522,0.78049,1.9324,-6.8277,-0.06441,0.0,-0.98522,0.98039,-6.6667,-4.8485,-9.4603,-4.8309,-6.6989,-7.8583,0.12698,-9.8522,-3.9936
-4.8025,0.0638,2.0163,-5.8824,-4.9261,-2.1463,-3.8647,-7.7939,-3.9291,-5.8824,-4.9261,-1.9608,-4.7619,-1.9777,-5.6508,-0.96618,-3.8003,-8.8245,4.8889,-7.8818,-1.095
-2.9068,2.9346,2.9919,-7.8431,-3.9409,-2.1463,-1.9324,-6.8277,-0.06441,-7.8431,-3.9409,-2.9412,-1.9048,0.89314,-2.7937,3.8647,-0.90177,-10.757,-8.4444,-7.8818,1.8035
-0.06319,2.9346,2.9919,0.98039,3.9409,-1.1707,0.0,-2.963,9.5974,0.98039,3.9409,0.0,-2.8571,-0.0638,-2.7937,2.8986,0.06441,-16.554001,-5.5873,-7.8818,2.7697
-0.06319,1.0207,1.0407,6.8627,6.8966,-1.1707,-1.9324,0.90177,8.6312,6.8627,6.8966,0.0,-4.7619,-1.9777,-3.746,2.8986,-1.868,-8.8245,8.6984,-7.8818,2.7697
-2.9068,-0.89314,-0.91057,-0.98039,1.9704,-3.122,-3.8647,0.90177,1.868,-0.98039,1.9704,-3.9216,-5.7143,-2.9346,-5.6508,0.96618,-3.8003,-5.9259,2.9841,-8.867,1.8035
-3.8547,-3.764,-1.8862,-5.8824,-1.9704,-4.0976,-5.7971,-1.0306,-2.963,-5.8824,-1.9704,-5.8824,-5.7143,-4.8485,-5.6508,-1.9324,-4.7665,-11.723,2.9841,-7.8818,-3.9936
-4.8025,-5.6778,-4.813,-3.9216,-3.9409,-3.122,-4.8309,-0.06441,-1.9968,-3.9216,-3.9409,-7.8431,-4.7619,-3.8915,-3.746,-1.9324,-2.8341,-3.9936,2.0317,-4.9261,-3.0274
-5.7504,-4.7209,-6.7642,-1.9608,-4.9261,-4.0976,-3.8647,-0.06441,-0.06441,-1.9608,-4.9261,-8.8235,-3.8095,-1.9777,-2.7937,0.0,-0.90177,4.7021,2.0317,-0.98522,-1.095
-4.8025,-2.807,-5.7886,-2.9412,-5.9113,-4.0976,-4.8309,-1.0306,-1.0306,-2.9412,-5.9113,-6.8627,-2.8571,-1.0207,-0.88889,0.0,0.06441,3.7359,-2.7302,2.9557,-1.095
-1.0111,0.0638,-2.8618,-3.9216,-0.98522,-2.1463,1.9324,-1.9968,-0.06441,-3.9216,-0.98522,0.98039,-2.8571,-1.9777,-1.8413,-0.96618,-0.90177,4.7021,-6.5397,3.9409,-1.095
1.8325,3.8915,2.0163,-3.9216,0.0,-0.19512,5.7971,-2.963,2.8341,-3.9216,0.0,4.902,-1.9048,-1.9777,-1.8413,0.0,-0.90177,3.7359,-16.063,2.9557,-1.095
-0.06319,2.9346,2.0163,-5.8824,-2.9557,-2.1463,2.8986,-7.7939,-0.06441,-5.8824,-2.9557,2.9412,-2.8571,-1.9777,-1.8413,0.96618,1.0306,1.8035,-9.3968,1.9704,-0.12882
-1.0111,1.9777,2.0163,-6.8627,-2.9557,-4.0976,0.96618,-10.692,-1.0306,-6.8627,-2.9557,1.9608,0.0,0.89314,1.9683,2.8986,2.963,-4.9597,2.0317,4.9261,-0.12882
2.7804,3.8915,4.9431,-4.902,1.9704,-0.19512,5.7971,-7.7939,0.90177,-4.902,1.9704,5.8824,7.619,8.5486,7.6825,8.6957,8.7601,-6.8921,6.7937,12.808,4.7021
0.88468,-0.89314,2.0163,-8.8235,-1.9704,-2.1463,1.9324,-7.7939,-1.0306,-8.8235,-1.9704,1.9608,10.476,10.463,7.6825,4.8309,7.7939,-2.0612,-4.6349,12.808,2.7697
-0.06319,-4.7209,0.06504,-6.8627,-4.9261,-4.0976,-0.96618,-7.7939,-1.9968,-6.8627,-4.9261,-0.98039,9.5238,11.419,5.7778,1.9324,5.8615,4.7021,-4.6349,9.8522,0.83736
4.6761,0.0638,4.9431,-0.98039,-0.98522,1.7561,0.0,-2.963,1.868,-0.98039,-0.98522,1.9608,11.429,12.376,7.6825,3.8647,7.7939,3.7359,2.9841,9.8522,4.7021
4.6761,5.8054,6.8943,0.98039,2.9557,2.7317,4.8309,-1.9968,5.7327,0.98039,2.9557,3.9216,8.5714,12.376,7.6825,5.7971,7.7939,-0.12882,2.9841,8.867,6.6345
1.8325,5.8054,5.9187,-3.9216,0.0,0.78049,3.8647,-4.8953,4.7665,-3.9216,0.0,1.9608,4.7619,6.6348,4.8254,3.8647,5.8615,-5.9259,1.0794,5.9113,4.7021
-1.0111,1.9777,3.9675,-6.8627,-2.9557,-2.1463,-2.8986,-4.8953,2.8341,-6.8627,-2.9557,-1.9608,1.9048,-0.0638,3.873,0.96618,3.9291,-6.8921,-0.8254,2.9557,2.7697
-1.0111,-0.89314,2.9919,-2.9412,0.0,-4.0976,-4.8309,-3.9291,2.8341,-2.9412,0.0,-2.9412,-0.95238,-5.8054,1.9683,0.0,2.963,-5.9259,6.7937,0.98522,-2.0612
0.88468,3.8915,6.8943,3.9216,3.9409,0.78049,2.8986,1.868,6.6989,3.9216,3.9409,1.9608,0.95238,-4.8485,3.873,3.8647,4.8953,0.83736,17.27,2.9557,-3.9936
0.88468,6.7624,8.8455,5.8824,3.9409,1.7561,5.7971,2.8341,6.6989,5.8824,3.9409,3.9216,1.9048,-2.9346,2.9206,3.8647,4.8953,1.8035,8.6984,0.98522,-3.0274
-1.0111,4.8485,4.9431,3.9216,2.9557,-0.19512,2.8986,1.868,6.6989,3.9216,2.9557,0.98039,0.0,-1.9777,-0.88889,2.8986,1.9968,-4.9597,1.0794,-1.9704,-3.0274
-1.0111,5.8054,3.9675,3.9216,2.9557,-0.19512,4.8309,1.868,6.6989,3.9216,2.9557,0.98039,0.0,-1.0207,-1.8413,3.8647,1.9968,0.83736,-1.7778,-0.98522,-2.0612
2.7804,7.7193,6.8943,3.9216,3.9409,3.7073,6.7633,3.8003,7.6651,3.9216,3.9409,4.902,0.0,-1.0207,-0.88889,6.7633,2.963,5.6683,10.603,0.0,-0.12882
4.6761,6.7624,4.9431,4.902,2.9557,5.6585,6.7633,2.8341,4.7665,4.902,2.9557,4.902,0.0,-1.0207,0.06349,7.7295,3.9291,4.7021,9.6508,0.98522,3.7359
1.8325,1.0207,0.06504,2.9412,2.9557,2.7317,0.0,0.90177,2.8341,2.9412,2.9557,-0.98039,-1.9048,-2.9346,-0.88889,3.8647,1.0306,1.8035,-0.8254,0.98522,-0.12882
1.8325,-2.807,-3.8374,-0.98039,0.0,0.78049,-5.7971,1.868,-1.9968,-0.98039,0.0,-3.9216,-5.7143,-8.6762,-1.8413,-0.96618,-1.868,3.7359,-16.063,0.0,-4.9597
3.7283,-3.764,-3.8374,-0.98039,-2.9557,1.7561,-4.8309,3.8003,-2.963,-0.98039,-2.9557,-2.9412,-5.7143,-9.6332,1.0159,0.0,-2.8341,5.6683,-23.683001,0.98522,-3.0274
7.5197,-4.7209,-0.91057,0.0,-1.9704,4.6829,0.96618,3.8003,-1.0306,0.0,-1.9704,0.0,-3.8095,-7.7193,3.873,-2.8986,-0.90177,9.533,-5.5873,2.9557,-3.9936
5.624,-8.5486,-2.8618,0.0,-3.9409,4.6829,-2.8986,2.8341,-2.963,0.0,-3.9409,0.0,-5.7143,-9.6332,1.9683,-10.628,-4.7665,5.6683,0.12698,2.9557,-7.8583
3.7283,-11.419,-2.8618,0.0,-5.9113,3.7073,-7.7295,2.8341,-6.8277,0.0,-5.9113,-0.98039,-4.7619,-6.7624,1.0159,-13.527,-5.7327,0.83736,0.12698,1.9704,-7.8583
2.7804,-14.29,-2.8618,0.98039,-6.8966,2.7317,-10.628,4.7665,-8.7601,0.98039,-6.8966,-1.9608,-2.8571,-7.7193,1.0159,-16.424999,-7.6651,1.8035,3.9365,0.98522,-8.8245
2.7804,-11.419,-3.8374,1.9608,-6.8966,4.6829,-7.7295,5.7327,-7.7939,1.9608,-6.8966,-0.98039,-1.9048,-6.7624,0.06349,-15.459,-7.6651,6.6345,-9.3968,-0.98522,-8.8245
0.88468,-7.5917,-2.8618,4.902,-3.9409,4.6829,-3.8647,9.5974,-3.9291,4.902,-3.9409,0.98039,0.95238,-1.0207,-0.88889,-10.628,-4.7665,7.6006,-16.063,-0.98522,-5.9259
-1.0111,-6.6348,-3.8374,4.902,-0.98522,6.6341,-4.8309,10.564,-2.963,4.902,-0.98522,0.98039,2.8571,2.807,-1.8413,-6.7633,-2.8341,11.465,-12.254,-2.9557,-3.9936
-4.8025,-3.764,-4.813,3.9216,-0.98522,2.7317,-4.8309,6.6989,-1.9968,3.9216,-0.98522,-0.98039,2.8571,4.7209,-4.6984,-0.96618,-2.8341,6.6345,-7.4921,-4.9261,-0.12882
-7.6461,-3.764,-5.7886,3.9216,-3.9409,-2.1463,-2.8986,3.8003,-1.9968,3.9216,-3.9409,-4.902,0.95238,3.764,-7.5556,0.0,-2.8341,-4.9597,2.9841,-8.867,1.8035
-3.8547,1.0207,-0.91057,2.9412,-1.9704,-0.19512,-0.96618,4.7665,-2.963,2.9412,-1.9704,-1.9608,-0.95238,1.8501,-6.6032,1.9324,-0.90177,-5.9259,2.0317,-7.8818,1.8035
0.88468,6.7624,4.9431,0.98039,0.98522,3.7073,0.0,7.6651,-0.06441,0.98039,0.98522,1.9608,-1.9048,-0.0638,-2.7937,7.7295,1.9968,1.8035,7.746,-2.9557,4.7021
3.7283,6.7624,5.9187,0.98039,0.0,3.7073,3.8647,3.8003,1.868,0.98039,0.0,2.9412,-0.95238,0.89314,1.9683,8.6957,2.963,4.7021,21.079,3.9409,5.6683
6.5719,6.7624,6.8943,-1.9608,-4.9261,2.7317,3.8647,-1.0306,0.90177,-1.9608,-4.9261,2.9412,2.8571,4.7209,5.7778,10.628,6.8277,11.465,10.603,5.9113,8.5668
9.4155,3.8915,6.8943,2.9412,0.98522,4.6829,3.8647,4.7665,-0.06441,2.9412,0.98522,3.9216,1.9048,3.764,5.7778,8.6957,5.8615,15.33,0.12698,6.8966,8.5668
10.363,4.8485,7.8699,5.8824,4.9261,6.6341,0.0,7.6651,-1.0306,5.8824,4.9261,4.902,-1.9048,-1.0207,6.7302,5.7971,3.9291,14.364,-9.3968,6.8966,3.7359
11.311,5.8054,7.8699,-0.98039,0.98522,5.6585,-2.8986,3.8003,-0.06441,-0.98039,0.98522,4.902,-0.95238,-1.0207,7.6825,6.7633,3.9291,11.465,2.9841,7.8818,2.7697
9.4155,3.8915,6.8943,-0.98039,0.0,3.7073,-0.96618,1.868,0.90177,-0.98039,0.0,3.9216,0.95238,-1.0207,9.5873,4.8309,3.9291,5.6683,16.316999,7.8818,2.7697
10.363,3.8915,7.8699,-0.98039,0.0,2.7317,3.8647,-1.0306,-0.06441,-0.98039,0.0,4.902,0.95238,-1.9777,10.54,3.8647,4.8953,4.7021,15.365,9.8522,2.7697
10.363,4.8485,7.8699,-2.9412,2.9557,4.6829,5.7971,-1.0306,2.8341,-2.9412,2.9557,6.8627,1.9048,-3.8915,10.54,2.8986,3.9291,5.6683,15.365,10.837,1.8035
9.4155,5.8054,5.9187,-1.9608,3.9409,3.7073,4.8309,-1.9968,0.90177,-1.9608,3.9409,4.902,0.95238,-5.8054,8.6349,2.8986,2.963,6.6345,2.9841,7.8818,0.83736
5.624,1.9777,2.0163,-1.9608,0.0,-1.1707,-0.96618,-4.8953,-1.9968,-1.9608,0.0,0.98039,0.0,-6.7624,7.6825,1.9324,2.963,-1.095,-3.6825,5.9113,-0.12882
1.8325,-0.89314,1.0407,-0.98039,-0.98522,-4.0976,-1.9324,-3.9291,-1.9968,-0.98039,-0.98522,-1.9608,0.0,-5.8054,6.7302,0.96618,2.963,-9.7907,2.0317,5.9113,-1.095
-3.8547,-1.8501,-2.8618,-3.9216,-0.98522,-7.0244,-3.8647,-5.8615,-1.0306,-3.9216,-0.98522,-3.9216,-1.9048,-2.9346,-0.88889,1.9324,-0.90177,-3.9936,1.0794,0.0,0.83736
-11.438,-5.6778,-9.6911,-10.784,-4.9261,-12.878,-9.6618,-8.7601,-3.9291,-10.784,-4.9261,-10.784,-3.8095,-1.9777,-8.5079,-1.9324,-6.6989,-2.0612,-8.4444,-6.8966,1.8035
-14.281,-9.5056,-14.569,-9.8039,-9.8522,-14.829,-12.56,-9.7262,-9.7262,-9.8039,-9.8522,-13.725,-5.7143,-1.9777,-13.27,-5.7971,-10.564,-3.0274,1.0794,-9.8522,-0.12882
-12.385,-10.463,-11.642,-3.9216,-7.8818,-13.854,-8.6957,-5.8615,-6.8277,-3.9216,-7.8818,-11.765,-3.8095,-0.0638,-12.317,-6.7633,-9.5974,-3.9936,11.556,-9.8522,-1.095
-10.49,-10.463,-9.6911,-1.9608,-1.9704,-9.9512,-4.8309,-2.963,-2.963,-1.9608,-1.9704,-7.8431,-4.7619,-1.0207,-10.413,-6.7633,-8.6312,-5.9259,6.7937,-9.8522,-1.095
-9.5419,-9.5056,-8.7154,-1.9608,0.0,-6.0488,-7.7295,-1.0306,-4.8953,-1.9608,0.0,-6.8627,-4.7619,-1.9777,-9.4603,-7.7295,-8.6312,-1.095,0.12698,-7.8818,-2.0612
-6.6983,-9.5056,-7.7398,-3.9216,0.0,-6.0488,-4.8309,-1.9968,-4.8953,-3.9216,0.0,-4.902,-3.8095,-2.9346,-6.6032,-6.7633,-5.7327,3.7359,-14.159,-4.9261,-4.9597
-1.9589,-5.6778,-4.813,0.0,-0.98522,-4.0976,-2.8986,-0.06441,-2.963,0.0,-0.98522,-2.9412,-1.9048,-3.8915,-1.8413,-4.8309,-2.8341,1.8035,-10.349,-1.9704,-4.9597
