C3,C4,Cz,F1,F2,F3,F4,F7,F8,Fp1,Fp2,Fz,O1,O2,P3,P4,Pz,T3,T4,T5,T6
-8.9109,-1.072,0.85809,-3.0065,1.877,-5.2234,-1.005,-13.791,-8.1072,-3.0065,1.877,0.97087,-6.6032,-2.8618,-0.06734,-0.99502,-1.072,6.9333,10.615,-3.8374,-1.8123
-9.901,-5.0921,-2.1122,-5.9477,-9.7735,-11.409,-3.0151,-7.9085,-16.146999,-5.9477,-9.7735,-2.9126,-4.6984,-3.8374,-0.06734,-2.9851,-1.072,5.9333,-1.0356,-0.91057,-3.754
-3.9604,-6.0972,-0.13201,-6.9281,-12.686,-5.2234,-4.0201,-3.0065,-5.0921,-6.9281,-12.686,-1.9417,1.0159,-1.8862,-1.0774,-0.99502,-0.067,-0.06667,-9.7735,2.0163,-0.84142
-2.9703,-5.0921,1.8482,-6.9281,-0.06472,-2.1306,-4.0201,-9.8693,7.9732,-6.9281,-0.06472,0.97087,1.0159,-2.8618,-2.0875,-0.99502,-0.067,-14.067,-2.9773,1.0407,2.0712
-0.9901,-1.072,3.8284,-6.9281,-0.06472,1.9931,0.0,-13.791,1.943,-6.9281,-0.06472,2.9126,3.873,2.0163,-1.0774,0.99502,1.943,-15.067,-2.9773,-1.8862,1.1003
1.9802,1.943,3.8284,-6.9281,-7.8317,5.0859,8.0402,-13.791,-6.0972,-6.9281,-7.8317,3.8835,0.06349,2.0163,-1.0774,0.99502,2.9481,-4.0667,-0.06472,-3.8374,-3.754
-3.9604,-3.0821,-0.13201,-5.9477,-6.8608,-5.2234,0.0,0.91503,-8.1072,-5.9477,-6.8608,-0.97087,-2.7937,-0.91057,-2.0875,-0.99502,-0.067,2.9333,-1.0356,-0.91057,-3.754
6.9307,-0.067,1.8482,-1.0458,-0.06472,8.1787,-3.0151,-21.634001,2.9481,-1.0458,-0.06472,2.9126,0.06349,1.0407,0.94276,0.99502,-0.067,-6.0667,3.8188,1.0407,1.1003
-2.9703,-4.0871,-6.0726,-3.9869,-6.8608,-3.1615,-6.0302,0.91503,0.93802,-3.9869,-6.8608,-3.8835,-4.6984,-3.8374,-6.1279,-3.9801,-6.0972,1.9333,1.877,-8.7154,-5.6958
-15.842,-7.1022,-12.013,-7.9085,-2.9773,-15.533,-7.0352,2.8758,-0.067,-7.9085,-2.9773,-10.68,-6.6032,-6.7642,-8.1481,-7.9602,-9.1122,1.9333,-4.9191,-8.7154,-8.6084
-9.901,-5.0921,-9.0429,-6.9281,2.8479,-5.2234,-5.0251,0.91503,-3.0821,-6.9281,2.8479,-6.7961,-5.6508,-5.7886,-4.1077,-4.9751,-5.0921,-1.0667,-7.8317,-0.91057,-3.754
-1.9802,-2.0771,-4.0924,-5.9477,-4.9191,-1.0997,-1.005,-8.8889,0.93802,-5.9477,-4.9191,-3.8835,-2.7937,-4.813,-2.0875,-1.99,-3.0821,-0.06667,-1.0356,1.0407,2.0712
1.9802,2.9481,1.8482,-3.0065,-2.0065,-3.1615,2.0101,9.7386,-3.0821,-3.0065,-2.0065,0.97087,1.0159,1.0407,0.94276,2.9851,0.93802,0.93333,4.7896,-0.91057,6.9256
7.9208,7.9732,8.7789,-0.06536,-0.06472,4.055,9.0452,-0.06536,6.9682,-0.06536,-0.06472,7.767,3.873,5.9187,5.9933,5.9701,6.9682,-0.06667,3.8188,2.9919,6.9256
3.9604,4.9581,6.7987,-1.0458,-8.8026,3.0241,7.0352,-4.9673,-3.0821,-1.0458,-8.8026,3.8835,0.06349,2.9919,2.963,1.99,3.9531,-5.0667,-2.0065,-2.8618,-2.7832
1.9802,-1.072,2.8383,0.91503,-9.7735,3.0241,-3.0151,-7.9085,-22.177999,0.91503,-9.7735,1.9417,-4.6984,-3.8374,-3.0976,-2.9851,-2.0771,-6.0667,-3.9482,-6.7642,-6.6667
5.9406,0.93802,2.8383,1.8954,2.8479,0.9622,-1.005,-1.0458,0.93802,1.8954,2.8479,3.8835,-4.6984,-8.7154,-4.1077,-3.9801,-5.0921,-9.0667,-4.9191,-2.8618,-4.7249
-5.9406,-0.067,-0.13201,-2.0261,7.7023,-1.0997,1.005,-3.9869,7.9732,-2.0261,7.7023,1.9417,-11.365,-12.618,-8.1481,-9.9502,-9.1122,6.9333,0.90615,-5.7886,-9.5793
0.0,2.9481,2.8383,-1.0458,-3.9482,11.271,8.0402,-10.85,10.988,-1.0458,-3.9482,7.767,-12.317,-13.593,-10.168,-9.9502,-10.117,9.9333,11.586,-9.6911,-11.521
8.9109,5.9631,8.7789,-1.0458,-5.89,7.1478,13.065,19.542,0.93802,-1.0458,-5.89,11.65,-5.6508,-4.813,-2.0875,-1.99,-2.0771,8.9333,7.7023,-0.91057,-3.754
11.881,7.9732,11.749,2.8758,12.557,5.0859,7.0352,21.503,11.993,2.8758,12.557,10.68,4.8254,6.8943,4.9832,5.9701,5.9631,18.933001,2.8479,3.9675,4.0129
12.871,8.9782,11.749,6.7974,15.469,8.1787,2.0101,7.7778,10.988,6.7974,15.469,10.68,3.873,3.9675,5.9933,6.9652,6.9682,-3.0667,1.877,2.0163,4.9838
5.9406,4.9581,5.8086,1.8954,4.7896,4.055,0.0,-3.0065,2.9481,1.8954,4.7896,4.8544,-4.6984,-4.813,-1.0774,-1.99,-0.067,-3.0667,-2.0065,-3.8374,-5.6958
3.9604,4.9581,6.7987,0.91503,-7.8317,0.9622,7.0352,9.7386,-0.067,0.91503,-7.8317,5.8252,-8.5079,-6.7642,-3.0976,-4.9751,-3.0821,7.9333,-6.8608,-3.8374,-10.55
14.851,11.993,13.729,1.8954,-9.7735,9.2096,17.084999,1.8954,-9.1122,1.8954,-9.7735,12.621,-0.88889,1.0407,4.9832,2.9851,2.9481,-2.0667,-0.06472,3.9675,-2.7832
15.842,14.003,16.700001,6.7974,3.8188,13.333,11.055,4.8366,1.943,6.7974,3.8188,13.592,-0.88889,0.06504,3.9731,6.9652,4.9581,8.9333,9.644,-0.91057,5.9547
9.901,9.9832,12.739,6.7974,10.615,9.2096,2.0101,6.7974,15.008,6.7974,10.615,10.68,-3.746,-3.8374,-0.06734,4.9751,1.943,7.9333,7.7023,-2.8618,7.8964
13.861,11.993,15.71,5.817,10.615,11.271,7.0352,-2.0261,8.9782,5.817,10.615,13.592,1.9683,2.0163,5.9933,5.9701,5.9631,-2.0667,-1.0356,3.9675,5.9547
18.812,14.003,19.67,5.817,2.8479,14.364,14.07,0.91503,4.9581,5.817,2.8479,17.476,2.9206,2.9919,9.0236,5.9701,8.9782,-2.0667,2.8479,3.9675,-0.84142
15.842,15.008,20.66,3.8562,2.8479,12.302,17.084999,17.582001,1.943,3.8562,2.8479,17.476,2.9206,2.9919,10.034,6.9652,8.9782,11.933,6.7314,6.8943,0.12945
15.842,19.028,21.65,9.7386,5.7605,12.302,22.111,23.464001,6.9682,9.7386,5.7605,18.447001,0.06349,2.9919,12.054,9.9502,10.988,13.933,7.7023,8.8455,4.0129
13.861,15.008,16.700001,9.7386,-1.0356,15.395,17.084999,-7.9085,6.9682,9.7386,-1.0356,16.504999,3.873,2.9919,5.9933,8.9552,7.9732,11.933,7.7023,2.9919,4.9838
8.9109,7.9732,12.739,5.817,-1.0356,15.395,10.05,2.8758,3.9531,5.817,-1.0356,11.65,7.6825,3.9675,3.9731,4.9751,6.9682,8.9333,4.7896,2.9919,-3.754
4.9505,0.93802,7.7888,0.91503,5.7605,3.0241,2.0101,-2.0261,-4.0871,0.91503,5.7605,4.8544,0.06349,-2.8618,4.9832,-0.99502,3.9531,3.9333,-1.0356,2.0163,-11.521
4.9505,4.9581,6.7987,1.8954,6.7314,-6.2543,3.0151,-3.0065,-11.122,1.8954,6.7314,3.8835,1.0159,-0.91057,5.9933,2.9851,3.9531,2.9333,0.90615,4.9431,-1.8123
12.871,16.013,14.719,7.7778,10.615,11.271,14.07,6.7974,-1.072,7.7778,10.615,14.563,4.8254,6.8943,8.0135,9.9502,6.9682,6.9333,4.7896,7.8699,10.809
6.9307,11.993,12.739,7.7778,3.8188,7.1478,13.065,24.444,7.9732,7.7778,3.8188,12.621,1.9683,2.9919,1.9529,6.9652,2.9481,7.9333,4.7896,5.9187,9.8382
5.9406,4.9581,8.7789,0.91503,-8.8026,5.0859,7.0352,3.8562,7.9732,0.91503,-8.8026,5.8252,-2.7937,-3.8374,-1.0774,1.99,-1.072,-4.0667,-2.0065,3.9675,4.0129
3.9604,-0.067,4.8185,-0.06536,0.90615,1.9931,0.0,-16.732,14.003,-0.06536,0.90615,1.9417,-4.6984,-4.813,-1.0774,0.99502,-2.0771,-7.0667,0.90615,1.0407,3.0421
11.881,7.9732,8.7789,8.7582,11.586,11.271,7.0352,-3.9869,9.9832,8.7582,11.586,8.7379,-2.7937,0.06504,2.963,5.9701,1.943,6.9333,11.586,0.06504,6.9256
10.891,14.003,10.759,7.7778,8.6731,8.1787,13.065,11.699,-4.0871,7.7778,8.6731,11.65,-0.88889,1.0407,3.9731,8.9552,4.9581,10.933,13.528,1.0407,8.8673
-2.9703,6.9682,3.8284,1.8954,-0.06472,-8.3162,3.0151,12.68,-5.0921,1.8954,-0.06472,1.9417,-0.88889,-0.91057,-0.06734,2.9851,0.93802,5.9333,12.557,-0.91057,5.9547
4.9505,4.9581,4.8185,-2.0261,-1.0356,4.055,1.005,-22.614,5.9631,-2.0261,-1.0356,1.9417,1.0159,1.0407,1.9529,1.99,-0.067,-0.06667,5.7605,4.9431,4.0129
10.891,3.9531,6.7987,-3.0065,6.7314,4.055,1.005,-4.9673,7.9732,-3.0065,6.7314,2.9126,1.9683,3.9675,3.9731,2.9851,0.93802,-0.06667,0.90615,7.8699,4.0129
0.9901,2.9481,0.85809,-3.0065,2.8479,-0.06873,0.0,11.699,6.9682,-3.0065,2.8479,0.0,-0.88889,0.06504,-2.0875,0.99502,-1.072,11.933,3.8188,2.0163,0.12945
-3.9604,5.9631,-0.13201,-3.9869,-7.8317,-3.1615,5.0251,10.719,4.9581,-3.9869,-7.8317,0.0,-2.7937,-0.91057,-0.06734,3.9801,0.93802,0.93333,7.7023,2.9919,4.9838
6.9307,8.9782,5.8086,1.8954,-7.8317,3.0241,8.0402,7.7778,-8.1072,1.8954,-7.8317,4.8544,1.9683,4.9431,10.034,7.9602,7.9732,5.9333,11.586,7.8699,8.8673
9.901,3.9531,5.8086,3.8562,2.8479,-0.06873,0.0,2.8758,-7.1022,3.8562,2.8479,1.9417,7.6825,6.8943,10.034,5.9701,7.9732,10.933,3.8188,10.797,6.9256
5.9406,-1.072,-0.13201,-2.0261,4.7896,-1.0997,-5.0251,-11.83,12.998,-2.0261,4.7896,-1.9417,7.6825,4.9431,4.9832,0.99502,1.943,-1.0667,-1.0356,7.8699,4.0129
0.0,-0.067,-3.1023,-2.0261,0.90615,-1.0997,0.0,-8.8889,-0.067,-2.0261,0.90615,-1.9417,-0.88889,-3.8374,-1.0774,-1.99,-3.0821,-3.0667,3.8188,-0.91057,0.12945
-4.9505,0.93802,-3.1023,-8.8889,-7.8317,-8.3162,3.0151,-16.732,-14.137,-8.8889,-7.8317,-2.9126,-7.5556,-10.667,-5.1178,-2.9851,-5.0921,-14.067,4.7896,-8.7154,-1.8123
0.0,4.9581,2.8383,-4.9673,-5.89,-4.1924,7.0352,-12.81,8.9782,-4.9673,-5.89,0.0,-2.7937,-0.91057,0.94276,2.9851,-0.067,-1.0667,2.8479,-1.8862,4.0129
-2.9703,2.9481,0.85809,-7.9085,-10.744,-6.2543,3.0151,3.8562,15.008,-7.9085,-10.744,-1.9417,0.06349,2.9919,-0.06734,2.9851,-1.072,-3.0667,2.8479,2.0163,1.1003
0.9901,2.9481,-0.13201,-6.9281,6.7314,5.0859,1.005,-10.85,3.9531,-6.9281,6.7314,0.0,0.06349,0.06504,0.94276,0.99502,-1.072,-6.0667,5.7605,2.9919,-1.8123
4.9505,1.943,1.8482,0.91503,18.382,3.0241,-3.0151,-4.9673,5.9631,0.91503,18.382,1.9417,4.8254,3.9675,2.963,3.9801,2.9481,-2.0667,5.7605,2.9919,2.0712
3.9604,1.943,3.8284,0.91503,3.8188,-3.1615,1.005,-4.9673,1.943,0.91503,3.8188,1.9417,5.7778,4.9431,4.9832,4.9751,4.9581,1.9333,0.90615,-0.91057,2.0712
0.9901,0.93802,0.85809,-3.0065,-3.9482,-7.2852,1.005,22.483999,8.9782,-3.0065,-3.9482,-0.97087,4.8254,2.9919,3.9731,2.9851,1.943,0.93333,0.90615,0.06504,1.1003
1.9802,3.9531,0.85809,-4.9673,-1.0356,-1.0997,0.0,8.7582,6.9682,-4.9673,-1.0356,0.0,5.7778,4.9431,4.9832,6.9652,3.9531,2.9333,2.8479,1.0407,7.8964
6.9307,9.9832,3.8284,-4.9673,-4.9191,0.9622,8.0402,-0.06536,5.9631,-4.9673,-4.9191,1.9417,2.9206,8.8455,4.9832,10.945,5.9631,-1.0667,8.6731,-0.91057,12.751
3.9604,6.9682,0.85809,-5.9477,-2.9773,-0.06873,7.0352,-0.06536,2.9481,-5.9477,-2.9773,0.0,1.0159,7.8699,0.94276,6.9652,2.9481,-13.067,10.615,-4.813,7.8964
-3.9604,0.93802,-3.1023,-9.8693,-7.8317,-5.2234,3.0151,-17.712,-4.0871,-9.8693,-7.8317,-1.9417,6.7302,8.8455,-2.0875,1.99,-0.067,-7.0667,-1.0356,-0.91057,2.0712
0.0,1.943,-2.1122,-3.9869,0.90615,3.0241,4.0201,-10.85,-0.067,-3.9869,0.90615,1.9417,13.397,11.772,2.963,2.9851,0.93802,1.9333,-3.9482,10.797,3.0421
-0.9901,-0.067,-6.0726,-0.06536,7.7023,-8.3162,0.0,-11.83,8.9782,-0.06536,7.7023,-0.97087,4.8254,-0.91057,-2.0875,-4.9751,-7.1022,0.93333,2.8479,6.8943,-2.7832
-1.9802,-0.067,-6.0726,-0.06536,1.877,-5.2234,2.0101,1.8954,12.998,-0.06536,1.877,0.97087,4.8254,-0.91057,-3.0976,-4.9751,-8.1072,1.9333,2.8479,2.0163,-5.6958
-2.9703,-1.072,-3.1023,-4.9673,-2.0065,0.9622,3.0151,-6.9281,7.9732,-4.9673,-2.0065,0.97087,6.7302,5.9187,-0.06734,-0.99502,-1.072,1.9333,6.7314,-0.91057,-4.7249
1.9802,-0.067,-0.13201,-1.0458,1.877,3.0241,1.005,-24.575001,-1.072,-1.0458,1.877,1.9417,6.7302,5.9187,2.963,2.9851,4.9581,-12.067,4.7896,-0.91057,-1.8123
3.9604,-4.0871,-3.1023,2.8758,-0.06472,5.0859,-1.005,-14.771,-1.072,2.8758,-0.06472,0.97087,0.06349,-2.8618,-0.06734,-0.99502,-0.067,-8.0667,-3.9482,1.0407,-1.8123
-1.9802,-6.0972,-6.0726,-3.9869,5.7605,-8.3162,-3.0151,22.483999,10.988,-3.9869,5.7605,-2.9126,-2.7937,-4.813,-5.1178,-5.9701,-7.1022,9.9333,1.877,2.9919,-3.754
-11.881,-5.0921,-10.033,-4.9673,1.877,-11.409,1.005,19.542,-0.067,-4.9673,1.877,-3.8835,-3.746,-4.813,-10.168,-8.9552,-11.122,7.9333,-0.06472,0.06504,-7.6375
-4.9505,-5.0921,-11.023,-3.0065,-6.8608,1.9931,4.0201,-5.9477,-17.152,-3.0065,-6.8608,-2.9126,-6.6032,-3.8374,-9.1582,-7.9602,-10.117,-15.067,-11.715,-4.813,-5.6958
-3.9604,-6.0972,-13.993,-5.9477,-7.8317,-2.1306,-2.0101,-29.476999,-15.142,-5.9477,-7.8317,-4.8544,-7.5556,-2.8618,-8.1481,-7.9602,-11.122,-20.066999,-13.657,-10.667,-5.6958
-14.851,-13.132,-18.944,-7.9085,-2.0065,-16.563999,-10.05,-20.653999,2.9481,-7.9085,-2.0065,-11.65,-9.4603,-10.667,-16.229,-13.93,-18.157,-15.067,-13.657,-12.618,-12.492
-14.851,-11.122,-15.974,-4.9673,0.90615,-12.44,-4.0201,4.8366,16.013,-4.9673,0.90615,-8.7379,-3.746,-7.7398,-15.219,-11.94,-17.152,-12.067,-2.9773,-8.7154,-11.521
-6.9307,-8.1072,-13.003,-4.9673,-8.8026,-1.0997,-2.0101,-12.81,-3.0821,-4.9673,-8.8026,-4.8544,0.06349,-3.8374,-8.1481,-6.9652,-10.117,-0.06667,1.877,-2.8618,-5.6958
-8.9109,-9.1122,-14.983,-4.9673,-6.8608,-9.3471,-9.0452,0.91503,-7.1022,-4.9673,-6.8608,-8.7379,-1.8413,-4.813,-7.138,-4.9751,-6.0972,3.9333,1.877,-5.7886,2.0712
-0.9901,-9.1122,-13.003,-5.9477,7.7023,-8.3162,-9.0452,9.7386,6.9682,-5.9477,7.7023,-9.7087,-0.88889,0.06504,0.94276,-1.99,-2.0771,-2.0667,-9.7735,-0.91057,2.0712
3.9604,-8.1072,-12.013,-0.06536,2.8479,0.9622,-9.0452,-7.9085,-2.0771,-0.06536,2.8479,-5.8252,0.06349,1.0407,-0.06734,-0.99502,-3.0821,-1.0667,-2.9773,1.0407,-0.84142
1.9802,-6.0972,-12.013,-2.0261,-3.9482,-7.2852,-4.0201,-16.732,-7.1022,-2.0261,-3.9482,-5.8252,2.9206,1.0407,-2.0875,-2.9851,-4.0871,-6.0667,-9.7735,2.9919,-4.7249
-3.9604,-6.0972,-13.993,-6.9281,-10.744,-10.378,1.005,1.8954,-7.1022,-6.9281,-10.744,-7.767,0.06349,0.06504,-3.0976,-2.9851,-4.0871,-2.0667,-13.657,-1.8862,-3.754
0.0,-5.0921,-11.023,-0.06536,-0.06472,-3.1615,-5.0251,5.817,2.9481,-0.06536,-0.06472,-6.7961,1.0159,2.0163,2.963,1.99,1.943,-3.0667,6.7314,2.0163,4.0129
7.9208,-6.0972,-8.0528,-1.0458,2.8479,-1.0997,-9.0452,-3.0065,1.943,-1.0458,2.8479,-7.767,5.7778,6.8943,10.034,4.9751,5.9631,0.93333,9.644,8.8455,6.9256
-2.9703,-6.0972,-11.023,-5.9477,-5.89,-8.3162,-6.0302,-17.712,1.943,-5.9477,-5.89,-11.65,2.9206,1.0407,3.9731,0.0,-1.072,1.9333,4.7896,6.8943,2.0712
0.0,-6.0972,-12.013,-5.9477,-3.9482,0.9622,-4.0201,-4.9673,0.93802,-5.9477,-3.9482,-8.7379,3.873,1.0407,1.9529,-2.9851,-3.0821,-8.0667,1.877,6.8943,3.0421
-6.9307,-11.122,-16.964001,-3.9869,-6.8608,-7.2852,-5.0251,-4.9673,-12.127,-3.9869,-6.8608,-10.68,3.873,1.0407,-1.0774,-6.9652,-7.1022,-9.0667,-8.8026,4.9431,-0.84142
-8.9109,-14.137,-17.954,0.91503,-2.0065,-17.594999,-9.0452,-7.9085,-9.1122,0.91503,-2.0065,-12.621,0.06349,0.06504,3.9731,-6.9652,-3.0821,-0.06667,-11.715,6.8943,-4.7249
0.0,-7.1022,-9.0429,-1.0458,-2.9773,-9.3471,-10.05,13.66,4.9581,-1.0458,-2.9773,-7.767,10.54,8.8455,12.054,2.9851,7.9732,5.9333,1.877,11.772,3.0421
2.9703,-2.0771,-4.0924,-9.8693,-15.599,-2.1306,-6.0302,1.8954,4.9581,-9.8693,-15.599,-7.767,18.159,14.699,11.044,7.9602,10.988,8.9333,0.90615,8.8455,6.9256
3.9604,-4.0871,-6.0726,-6.9281,-6.8608,1.9931,-2.0101,-2.0261,-9.1122,-6.9281,-6.8608,-5.8252,15.302,13.724,5.9933,3.9801,4.9581,1.9333,-8.8026,6.8943,5.9547
-3.9604,-8.1072,-10.033,-3.9869,-2.9773,-5.2234,-4.0201,1.8954,-12.127,-3.9869,-2.9773,-6.7961,1.0159,0.06504,-3.0976,-3.9801,-4.0871,4.9333,-6.8608,2.0163,-2.7832
-3.9604,-9.1122,-9.0429,1.8954,-0.06472,-10.378,-4.0201,9.7386,-1.072,1.8954,-0.06472,-5.8252,-6.6032,-8.7154,-5.1178,-7.9602,-7.1022,-5.0667,-2.9773,-2.8618,-6.6667
3.9604,-3.0821,-1.1221,4.8366,4.7896,0.9622,3.0151,-6.9281,10.988,4.8366,4.7896,0.97087,0.06349,-0.91057,-0.06734,-1.99,-0.067,-13.067,1.877,-0.91057,1.1003
-3.9604,-1.072,-1.1221,0.91503,5.7605,-6.2543,5.0251,4.8366,6.9682,0.91503,5.7605,0.0,4.8254,4.9431,0.94276,2.9851,3.9531,-4.0667,-1.0356,0.06504,5.9547
-9.901,0.93802,0.85809,-1.0458,5.7605,-4.1924,4.0201,-12.81,11.993,-1.0458,5.7605,0.0,7.6825,9.8211,2.963,7.9602,6.9682,2.9333,-0.06472,2.9919,9.8382
13.861,7.9732,7.7888,1.8954,2.8479,5.0859,7.0352,-11.83,15.008,1.8954,2.8479,3.8835,12.444,16.65,10.034,12.935,10.988,-8.0667,9.644,7.8699,15.663
10.891,6.9682,6.7987,-0.06536,-3.9482,4.055,7.0352,15.621,-0.067,-0.06536,-3.9482,3.8835,10.54,13.724,8.0135,7.9602,3.9531,-2.0667,14.498,9.8211,13.722
-2.9703,5.9631,4.8185,-3.0065,2.8479,-8.3162,11.055,8.7582,9.9832,-3.0065,2.8479,3.8835,7.6825,9.8211,3.9731,2.9851,0.93802,8.9333,2.8479,6.8943,10.809
1.9802,9.9832,9.769,-2.0261,1.877,-4.1924,13.065,11.699,6.9682,-2.0261,1.877,8.7379,6.7302,2.9919,4.9832,4.9751,3.9531,-3.0667,4.7896,2.0163,8.8673
16.832001,19.028,20.66,6.7974,11.586,18.488001,18.09,-2.0261,10.988,6.7974,11.586,19.417,12.444,7.8699,12.054,12.935,14.003,-10.067,12.557,7.8699,10.809
14.851,20.034,21.65,11.699,10.615,18.488001,18.09,-4.9673,11.993,11.699,10.615,19.417,16.254,15.675,15.084,18.905001,20.034,6.9333,15.469,13.724,18.576
7.9208,16.013,15.71,5.817,-2.0065,6.1168,13.065,1.8954,0.93802,5.817,-2.0065,11.65,13.397,17.625999,15.084,19.9,20.034,3.9333,15.469,12.748,21.489
0.9901,8.9782,11.749,0.91503,1.877,-4.1924,9.0452,-2.0261,3.9531,0.91503,1.877,8.7379,11.492,13.724,9.0236,13.93,14.003,1.9333,12.557,4.9431,16.634001
2.9703,5.9631,10.759,0.91503,3.8188,-0.06873,9.0452,-33.398998,-3.0821,0.91503,3.8188,10.68,9.5873,5.9187,4.9832,7.9602,7.9732,-9.0667,8.6731,4.9431,7.8964
0.0,5.9631,9.769,1.8954,6.7314,-4.1924,8.0402,16.601,3.9531,1.8954,6.7314,8.7379,8.6349,6.8943,5.9933,7.9602,7.9732,-4.0667,4.7896,7.8699,9.8382
3.9604,5.9631,9.769,1.8954,7.7023,0.9622,6.0302,20.523001,8.9782,1.8954,7.7023,10.68,8.6349,10.797,5.9933,8.9552,8.9782,-1.0667,-0.06472,5.9187,8.8673
5.9406,4.9581,9.769,3.8562,2.8479,8.1787,9.0452,-5.9477,0.93802,3.8562,2.8479,12.621,8.6349,12.748,2.963,9.9502,7.9732,3.9333,-1.0356,2.9919,9.8382
0.9901,0.93802,4.8185,2.8758,-3.9482,4.055,8.0402,-8.8889,-5.0921,2.8758,-3.9482,8.7379,10.54,12.748,1.9529,8.9552,5.9631,7.9333,-0.06472,3.9675,12.751
-2.9703,-3.0821,-1.1221,-0.06536,-1.0356,-3.1615,-2.0101,-2.0261,-6.0972,-0.06536,-1.0356,0.0,10.54,11.772,4.9832,6.9652,2.9481,2.9333,-2.9773,8.8455,9.8382
0.0,4.9581,3.8284,0.91503,-2.9773,0.9622,-1.005,-8.8889,-12.127,0.91503,-2.9773,0.97087,11.492,11.772,11.044,11.94,7.9732,7.9333,8.6731,14.699,15.663
8.9109,4.9581,7.7888,-2.0261,-1.0356,8.1787,-2.0101,-1.0458,3.9531,-2.0261,-1.0356,3.8835,7.6825,7.8699,12.054,8.9552,9.9832,-1.0667,7.7023,11.772,13.722
3.9604,0.93802,5.8086,-3.0065,-3.9482,0.9622,-2.0101,1.8954,4.9581,-3.0065,-3.9482,1.9417,3.873,1.0407,7.0034,0.0,5.9631,-9.0667,-6.8608,7.8699,0.12945
-5.9406,-5.0921,0.85809,-1.0458,-2.0065,-7.2852,-6.0302,9.7386,-6.0972,-1.0458,-2.0065,-0.97087,1.0159,-2.8618,-2.0875,-5.9701,-1.072,1.9333,-2.9773,3.9675,-5.6958
-8.9109,-8.1072,-0.13201,-3.0065,-8.8026,-12.44,-4.0201,3.8562,-10.117,-3.0065,-8.8026,-0.97087,-0.88889,-2.8618,-5.1178,-6.9652,-4.0871,2.9333,-1.0356,1.0407,-3.754
2.9703,1.943,9.769,2.8758,-7.8317,4.055,11.055,-0.06536,-9.1122,2.8758,-7.8317,8.7379,4.8254,0.06504,0.94276,0.0,0.93802,4.9333,-2.9773,4.9431,1.1003
12.871,5.9631,12.739,-0.06536,-14.628,13.333,9.0452,-3.9869,-9.1122,-0.06536,-14.628,11.65,-0.88889,-2.8618,4.9832,1.99,3.9531,-13.067,-6.8608,4.9431,-0.84142
2.9703,-0.067,5.8086,-2.0261,3.8188,-0.06873,-9.0452,4.8366,-5.0921,-2.0261,3.8188,1.9417,-4.6984,-3.8374,-0.06734,0.99502,1.943,-0.06667,-4.9191,2.0163,-1.8123
-4.9505,3.9531,4.8185,-0.06536,10.615,-5.2234,-9.0452,-6.9281,-1.072,-0.06536,10.615,0.0,-0.88889,-1.8862,-1.0774,6.9652,2.9481,7.9333,9.644,2.9919,6.9256
-3.9604,7.9732,7.7888,-2.0261,-2.0065,-2.1306,3.0151,-3.0065,2.9481,-2.0261,-2.0065,3.8835,-0.88889,0.06504,-2.0875,8.9552,2.9481,4.9333,7.7023,2.9919,8.8673
7.9208,3.9531,10.759,0.91503,-3.9482,5.0859,11.055,-12.81,-4.0871,0.91503,-3.9482,9.7087,1.0159,1.0407,-0.06734,3.9801,1.943,1.9333,-2.0065,-0.91057,5.9547
7.9208,-0.067,9.769,4.8366,2.8479,1.9931,7.0352,9.7386,2.9481,4.8366,2.8479,9.7087,2.9206,2.9919,3.9731,0.0,2.9481,-0.06667,-0.06472,-1.8862,4.0129
7.9208,-3.0821,7.7888,0.91503,-2.0065,3.0241,1.005,12.68,-6.0972,0.91503,-2.0065,4.8544,5.7778,2.9919,4.9832,-2.9851,2.9481,-5.0667,-9.7735,-2.8618,-4.7249
3.9604,-0.067,3.8284,-3.0065,-13.657,-0.06873,-1.005,-2.0261,-14.137,-3.0065,-13.657,-0.97087,4.8254,3.9675,4.9832,-2.9851,2.9481,-10.067,-5.89,2.9919,-6.6667
0.9901,2.9481,0.85809,-5.9477,-2.9773,3.0241,-2.0101,-30.458,4.9581,-5.9477,-2.9773,-0.97087,3.873,6.8943,0.94276,1.99,1.943,-3.0667,12.557,4.9431,3.0421
-6.9307,5.9631,2.8383,-3.0065,4.7896,0.9622,3.0151,-17.712,9.9832,-3.0065,4.7896,1.9417,-0.88889,1.0407,-5.1178,6.9652,1.943,-1.0667,18.382,-0.91057,7.8964
-4.9505,7.9732,6.7987,5.817,3.8188,-4.1924,5.0251,19.542,5.9631,5.817,3.8188,5.8252,-2.7937,0.06504,-3.0976,9.9502,4.9581,7.9333,9.644,-2.8618,10.809
2.9703,3.9531,4.8185,4.8366,3.8188,-3.1615,7.0352,19.542,1.943,4.8366,3.8188,4.8544,-8.5079,-5.7886,-2.0875,2.9851,1.943,5.9333,1.877,-5.7886,2.0712
10.891,2.9481,4.8185,4.8366,5.7605,6.1168,8.0402,-3.9869,3.9531,4.8366,5.7605,7.767,-9.4603,-9.6911,1.9529,-2.9851,1.943,-6.0667,-2.0065,-7.7398,-8.6084
4.9505,2.9481,2.8383,4.8366,0.90615,7.1478,5.0251,-14.771,-3.0821,4.8366,0.90615,4.8544,-10.413,-11.642,-0.06734,-4.9751,-0.067,-3.0667,-4.9191,-9.6911,-14.434
-5.9406,4.9581,2.8383,0.91503,-1.0356,-1.0997,5.0251,7.7778,-4.0871,0.91503,-1.0356,2.9126,-6.6032,-12.618,-6.1279,-5.9701,-2.0771,1.9333,-2.9773,-6.7642,-19.288
2.9703,5.9631,7.7888,2.8758,5.7605,9.2096,9.0452,6.7974,8.9782,2.8758,5.7605,10.68,0.06349,-2.8618,-2.0875,0.0,3.9531,-11.067,1.877,-3.8374,-14.434
6.9307,6.9682,8.7789,6.7974,0.90615,7.1478,9.0452,4.8366,7.9732,6.7974,0.90615,8.7379,5.7778,6.8943,4.9832,7.9602,9.9832,-4.0667,1.877,-0.91057,0.12945
0.0,0.93802,0.85809,2.8758,-2.9773,-8.3162,-2.0101,5.817,-10.117,2.8758,-2.9773,-2.9126,7.6825,10.797,5.9933,8.9552,7.9732,3.9333,3.8188,2.9919,9.8382
0.9901,2.9481,-2.1122,-1.0458,-2.0065,-7.2852,2.0101,2.8758,-4.0871,-1.0458,-2.0065,-3.8835,1.0159,3.9675,3.9731,6.9652,4.9581,3.9333,2.8479,1.0407,9.8382
2.9703,9.9832,3.8284,7.7778,15.469,4.055,5.0251,-13.791,12.998,7.7778,15.469,4.8544,2.9206,5.9187,8.0135,8.9552,8.9782,5.9333,3.8188,2.0163,10.809
14.851,10.988,10.759,10.719,14.498,19.518999,4.0201,-22.614,8.9782,10.719,14.498,10.68,1.0159,1.0407,11.044,8.9552,14.003,-1.0667,8.6731,2.0163,4.9838
10.891,7.9732,10.759,2.8758,0.90615,12.302,8.0402,6.7974,2.9481,2.8758,0.90615,8.7379,-0.88889,-4.813,10.034,4.9751,12.998,1.9333,1.877,2.0163,-7.6375
-0.9901,2.9481,4.8185,-1.0458,-0.06472,-6.2543,8.0402,11.699,2.9481,-1.0458,-0.06472,1.9417,-2.7937,-7.7398,1.9529,0.0,6.9682,-5.0667,-4.9191,0.06504,-15.405
-8.9109,-10.117,-7.0627,-2.0261,-6.8608,-11.409,2.0101,-2.0261,1.943,-2.0261,-6.8608,-4.8544,-9.4603,-15.545,-9.1582,-10.945,-5.0921,-6.0667,-8.8026,-4.813,-16.375
-8.9109,-17.152,-13.003,1.8954,1.877,-7.2852,-7.0352,-22.614,-0.067,1.8954,1.877,-5.8252,-9.4603,-11.642,-9.1582,-15.92,-10.117,-1.0667,-3.9482,-5.7886,-16.375
-8.9109,-14.137,-10.033,-3.0065,3.8188,-9.3471,-9.0452,8.7582,-8.1072,-3.0065,3.8188,-5.8252,-12.317,-11.642,-10.168,-14.925,-10.117,2.9333,-5.89,-11.642,-15.405
-1.9802,-5.0921,-3.1023,-3.0065,-4.9191,-5.2234,-4.0201,19.542,-6.0972,-3.0065,-4.9191,-1.9417,-15.175,-12.618,-8.1481,-7.9602,-7.1022,1.9333,-6.8608,-15.545,-7.6375
14.851,0.93802,2.8383,1.8954,-2.0065,17.457001,3.0151,-8.8889,-0.067,1.8954,-2.0065,5.8252,-17.079,-16.52,-6.1279,-7.9602,-8.1072,-22.066999,-6.8608,-16.52,-11.521
0.9901,-2.0771,-4.0924,-1.0458,-1.0356,3.0241,1.005,-11.83,-4.0871,-1.0458,-1.0356,-2.9126,-20.889,-20.423,-7.138,-11.94,-10.117,-22.066999,-8.8026,-12.618,-19.288
-18.812,-12.127,-14.983,-4.9673,-7.8317,-18.625,-13.065,-21.634001,-7.1022,-4.9673,-7.8317,-14.563,-18.983999,-18.472,-15.219,-15.92,-14.137,-1.0667,-11.715,-13.593,-20.259001
-13.861,-14.137,-13.003,-8.8889,-12.686,-15.533,-10.05,-4.9673,-6.0972,-8.8889,-12.686,-11.65,-12.317,-12.618,-13.199,-11.94,-10.117,-0.06667,-4.9191,-9.6911,-13.463
-11.881,-14.137,-13.003,-9.8693,-11.715,-19.656,-9.0452,13.66,-11.122,-9.8693,-11.715,-11.65,-9.4603,-9.6911,-9.1582,-8.9552,-6.0972,-7.0667,-12.686,-7.7398,-12.492
-9.901,-9.1122,-12.013,-5.9477,-4.9191,-11.409,-8.0402,-2.0261,-5.0921,-5.9477,-4.9191,-10.68,-8.5079,-4.813,-2.0875,-2.9851,-1.072,-4.0667,-12.686,-4.813,-9.5793
-6.9307,-9.1122,-13.003,-6.9281,-1.0356,-9.3471,-8.0402,-0.06536,-9.1122,-6.9281,-1.0356,-14.563,-7.5556,-6.7642,-3.0976,-4.9751,-2.0771,-4.0667,-19.482,-7.7398,-9.5793
-2.9703,-14.137,-15.974,-5.9477,1.877,-12.44,-18.09,3.8562,-11.122,-5.9477,1.877,-17.476,-10.413,-13.593,-7.138,-10.945,-8.1072,-10.067,-16.57,-9.6911,-14.434
-3.9604,-16.146999,-14.983,-5.9477,-6.8608,-4.1924,-15.075,-13.791,-2.0771,-5.9477,-6.8608,-12.621,-18.032,-21.398001,-11.178,-16.915001,-14.137,-6.0667,-5.89,-13.593,-17.346001
-16.832001,-17.152,-17.954,-3.0065,-3.9482,-14.502,-9.0452,-3.0065,5.9631,-3.0065,-3.9482,-11.65,-28.507999,-32.130001,-22.290001,-28.856001,-27.202999,-12.067,-2.9773,-20.423,-25.113001
-13.861,-14.137,-15.974,-1.0458,-3.9482,-5.2234,-4.0201,-29.476999,-0.067,-1.0458,-3.9482,-6.7961,-28.507999,-36.033001,-23.299999,-32.835999,-29.212999,-10.067,-5.89,-19.447001,-30.938999
-14.851,-16.146999,-18.944,-10.85,-5.89,-13.471,-10.05,-2.0261,-16.146999,-10.85,-5.89,-14.563,-20.889,-25.301001,-17.239,-27.861,-22.177999,-4.0667,-18.511,-15.545,-26.084
-10.891,-17.152,-18.944,-13.791,-17.540001,-17.594999,-19.094999,6.7974,-26.198,-13.791,-17.540001,-22.33,-11.365,-11.642,-11.178,-15.92,-13.132,-11.067,-20.452999,-12.618,-16.375
-8.9109,-10.117,-13.993,-8.8889,-18.511,-10.378,-15.075,-4.9673,-18.157,-8.8889,-18.511,-15.534,-7.5556,-2.8618,-5.1178,-2.9851,-4.0871,-15.067,-18.511,-11.642,-5.6958
-0.9901,-2.0771,-7.0627,-2.0261,2.8479,-7.2852,-10.05,-13.791,5.9631,-2.0261,2.8479,-7.767,-3.746,3.9675,3.9731,8.9552,5.9631,-9.0667,-7.8317,-7.7398,4.0129
-3.9604,-6.0972,-9.0429,-5.9477,1.877,-10.378,-15.075,-13.791,-1.072,-5.9477,1.877,-11.65,-2.7937,0.06504,-0.06734,4.9751,2.9481,-3.0667,-0.06472,-6.7642,-1.8123
-11.881,-8.1072,-12.013,-8.8889,-11.715,-15.533,-13.065,14.641,-7.1022,-8.8889,-11.715,-13.592,-6.6032,-8.7154,-8.1481,-2.9851,-5.0921,2.9333,-4.9191,-4.813,-7.6375
-5.9406,-12.127,-13.993,-4.9673,-11.715,-7.2852,-12.06,-7.9085,-12.127,-4.9673,-11.715,-11.65,-14.222,-16.52,-10.168,-11.94,-12.127,0.93333,-11.715,-6.7642,-13.463
-6.9307,-18.157,-16.964001,-3.9869,-6.8608,-4.1924,-17.084999,-10.85,-13.132,-3.9869,-6.8608,-13.592,-15.175,-17.496,-11.178,-17.91,-14.137,-0.06667,-17.540001,-9.6911,-17.346001
-3.9604,-11.122,-12.013,-3.0065,-3.9482,-1.0997,-8.0402,2.8758,-9.1122,-3.0065,-3.9482,-6.7961,-6.6032,-6.7642,-5.1178,-10.945,-7.1022,-6.0667,-11.715,-6.7642,-7.6375
0.9901,-7.1022,-8.0528,-2.0261,-2.0065,-2.1306,-6.0302,7.7778,-12.127,-2.0261,-2.0065,-3.8835,-3.746,-4.813,-2.0875,-5.9701,-3.0821,-4.0667,-5.89,-5.7886,-4.7249
-1.9802,-9.1122,-9.0429,-3.0065,-3.9482,-4.1924,-10.05,6.7974,-12.127,-3.0065,-3.9482,-6.7961,-17.079,-16.52,-7.138,-8.9552,-6.0972,-4.0667,-13.657,-10.667,-12.492
-3.9604,-12.127,-11.023,-2.0261,-2.9773,-5.2234,-11.055,-14.771,-1.072,-2.0261,-2.9773,-6.7961,-24.698,-22.374001,-14.209,-13.93,-12.127,-10.067,-19.482,-14.569,-19.288
-6.9307,-12.127,-13.993,-1.0458,-0.06472,-10.378,-9.0452,-4.9673,2.9481,-1.0458,-0.06472,-6.7961,-22.794001,-21.398001,-17.239,-16.915001,-18.157,-16.066999,-5.89,-14.569,-17.346001
-6.9307,-10.117,-13.003,-1.0458,-3.9482,-3.1615,-9.0452,-6.9281,-6.0972,-1.0458,-3.9482,-6.7961,-14.222,-14.569,-11.178,-12.935,-16.146999,1.9333,0.90615,-7.7398,-12.492
-3.9604,-7.1022,-10.033,-1.0458,-3.9482,1.9931,-7.0352,-13.791,-13.132,-1.0458,-3.9482,-5.8252,-9.4603,-7.7398,-1.0774,-9.9502,-11.122,9.9333,-7.8317,-0.91057,-7.6375
-4.9505,-10.117,-11.023,-2.0261,-3.9482,-10.378,-9.0452,0.91503,-13.132,-2.0261,-3.9482,-8.7379,-4.6984,-9.6911,-2.0875,-10.945,-11.122,2.9333,-14.628,1.0407,-8.6084
-0.9901,-10.117,-10.033,-1.0458,-4.9191,-5.2234,-13.065,-9.8693,-6.0972,-1.0458,-4.9191,-8.7379,-5.6508,-10.667,-7.138,-8.9552,-10.117,-7.0667,-18.511,-6.7642,-9.5793
-8.9109,-5.0921,-8.0528,-3.0065,-4.9191,-7.2852,-13.065,7.7778,-3.0821,-3.0065,-4.9191,-8.7379,-11.365,-13.593,-9.1582,-4.9751,-6.0972,-3.0667,-4.9191,-11.642,-9.5793
-0.9901,-6.0972,-3.1023,-3.0065,-4.9191,-5.2234,-14.07,0.91503,-9.1122,-3.0065,-4.9191,-7.767,-10.413,-12.618,-7.138,-5.9701,-4.0871,-10.067,-1.0356,-10.667,-16.375
0.0,-10.117,-4.0924,-8.8889,-14.628,-8.3162,-15.075,-9.8693,-20.167999,-8.8889,-14.628,-10.68,-13.27,-13.593,-8.1481,-9.9502,-6.0972,-18.066999,-15.599,-12.618,-20.259001
-9.901,-8.1072,-6.0726,-7.9085,-18.511,-7.2852,-5.0251,-26.535999,-30.218,-7.9085,-18.511,-8.7379,-13.27,-16.52,-12.189,-10.945,-10.117,-7.0667,-20.452999,-11.642,-15.405
-7.9208,-8.1072,-7.0627,-3.0065,-0.06472,-2.1306,-7.0352,-50.064999,-14.137,-3.0065,-0.06472,-4.8544,-15.175,-17.496,-14.209,-10.945,-11.122,-11.067,-14.628,-15.545,-13.463
-13.861,-9.1122,-9.0429,-4.9673,3.8188,-14.502,-16.08,-19.673,7.9732,-4.9673,3.8188,-8.7379,-15.175,-12.618,-15.219,-9.9502,-11.122,-14.067,-9.7735,-18.472,-11.521
-14.851,-7.1022,-7.0627,-5.9477,-7.8317,-20.687,-11.055,15.621,1.943,-5.9477,-7.8317,-9.7087,-12.317,-9.6911,-14.209,-8.9552,-11.122,-10.067,-12.686,-14.569,-9.5793
-5.9406,-0.067,-1.1221,-0.06536,-3.9482,-9.3471,2.0101,4.8366,-19.162001,-0.06536,-3.9482,-1.9417,-11.365,-7.7398,-12.189,-8.9552,-10.117,-14.067,-13.657,-11.642,-9.5793
0.0,-1.072,-1.1221,2.8758,-3.9482,0.9622,1.005,-13.791,-29.212999,2.8758,-3.9482,1.9417,-10.413,-10.667,-11.178,-10.945,-11.122,-21.066999,-1.0356,-9.6911,-14.434
-0.9901,-6.0972,-3.1023,3.8562,2.8479,4.055,-8.0402,-14.771,2.9481,3.8562,2.8479,-0.97087,-12.317,-16.52,-12.189,-11.94,-13.132,-9.0667,4.7896,-12.618,-16.375
-4.9505,-5.0921,-3.1023,-1.0458,2.8479,-3.1615,-11.055,5.817,22.044001,-1.0458,2.8479,-2.9126,-12.317,-17.496,-9.1582,-9.9502,-11.122,-0.06667,-15.599,-12.618,-12.492
0.9901,0.93802,2.8383,-2.0261,-2.0065,0.9622,-3.0151,-9.8693,2.9481,-2.0261,-2.0065,0.0,-11.365,-13.593,-1.0774,-2.9851,-4.0871,-9.0667,-13.657,-5.7886,-5.6958
-0.9901,4.9581,4.8185,-0.06536,-0.06472,-6.2543,3.0151,3.8562,-15.142,-0.06536,-0.06472,1.9417,-2.7937,-3.8374,-0.06734,1.99,-0.067,-4.0667,-2.9773,0.06504,-2.7832
7.9208,10.988,10.759,9.7386,5.7605,4.055,11.055,13.66,-10.117,9.7386,5.7605,10.68,3.873,2.0163,1.9529,6.9652,4.9581,-15.067,-2.0065,1.0407,2.0712
2.9703,5.9631,6.7987,9.7386,10.615,7.1478,5.0251,-13.791,3.9531,9.7386,10.615,9.7087,-4.6984,-4.813,-3.0976,0.0,-0.067,-7.0667,-1.0356,-10.667,-9.5793
1.9802,2.9481,4.8185,2.8758,9.644,3.0241,3.0151,-12.81,12.998,2.8758,9.644,5.8252,-7.5556,-7.7398,-3.0976,-3.9801,-2.0771,-14.067,1.877,-11.642,-12.492
-0.9901,4.9581,3.8284,0.91503,-0.06472,-4.1924,8.0402,-0.06536,-2.0771,0.91503,-0.06472,3.8835,-6.6032,-6.7642,-4.1077,-1.99,-2.0771,-5.0667,6.7314,-8.7154,-6.6667
4.9505,8.9782,8.7789,2.8758,1.877,9.2096,12.06,-34.379002,-3.0821,2.8758,1.877,10.68,0.06349,1.0407,2.963,5.9701,4.9581,4.9333,1.877,-1.8862,3.0421
8.9109,12.998,12.739,6.7974,5.7605,10.241,9.0452,-3.9869,2.9481,6.7974,5.7605,12.621,4.8254,5.9187,8.0135,11.94,10.988,-0.06667,1.877,2.0163,7.8964
18.812,14.003,14.719,12.68,8.6731,13.333,11.055,-4.9673,15.008,12.68,8.6731,12.621,1.0159,1.0407,11.044,8.9552,11.993,-14.067,3.8188,0.06504,-1.8123
8.9109,4.9581,6.7987,8.7582,11.586,6.1168,4.0201,1.8954,0.93802,8.7582,11.586,5.8252,-5.6508,-5.7886,2.963,0.0,3.9531,-3.0667,-2.9773,-8.7154,-12.492
-8.9109,-6.0972,-7.0627,0.91503,-0.06472,-4.1924,-4.0201,11.699,-6.0972,0.91503,-0.06472,-4.8544,-13.27,-14.569,-10.168,-8.9552,-8.1072,2.9333,-7.8317,-18.472,-20.259001
-6.9307,-8.1072,-10.033,-1.0458,-5.89,-8.3162,-2.0101,-3.9869,-13.132,-1.0458,-5.89,-6.7961,-11.365,-12.618,-12.189,-7.9602,-11.122,-9.0667,-11.715,-18.472,-10.55
-4.9505,-1.072,-4.0924,-0.06536,-1.0356,-3.1615,-1.005,-5.9477,-5.0921,-0.06536,-1.0356,-1.9417,-3.746,-3.8374,-6.1279,-0.99502,-4.0871,-3.0667,-2.0065,-12.618,-0.84142
-3.9604,-3.0821,-4.0924,-4.9673,-0.06472,-0.06873,-3.0151,-9.8693,-7.1022,-4.9673,-0.06472,-0.97087,-10.413,-9.6911,-7.138,-3.9801,-4.0871,1.9333,2.8479,-12.618,-8.6084
5.9406,0.93802,-0.13201,5.817,0.90615,5.0859,2.0101,3.8562,5.9631,5.817,0.90615,2.9126,-5.6508,-3.8374,0.94276,-0.99502,0.93802,-0.06667,-9.7735,-4.813,-7.6375
1.9802,-0.067,-2.1122,13.66,2.8479,4.055,4.0201,7.7778,-9.1122,13.66,2.8479,1.9417,-9.4603,-7.7398,0.94276,-4.9751,-2.0771,0.93333,-15.599,-0.91057,-14.434
0.9901,-4.0871,-3.1023,3.8562,11.586,1.9931,-4.0201,2.8758,-12.127,3.8562,11.586,-0.97087,-8.5079,-9.6911,-2.0875,-5.9701,-4.0871,-9.0667,-7.8317,-0.91057,-12.492
-1.9802,-4.0871,-3.1023,5.817,14.498,4.055,-5.0251,-13.791,10.988,5.817,14.498,-0.97087,0.06349,-1.8862,-3.0976,-2.9851,-2.0771,0.93333,-4.9191,-1.8862,-4.7249
1.9802,2.9481,-2.1122,3.8562,3.8188,-2.1306,4.0201,-4.9673,12.998,3.8562,3.8188,0.0,1.9683,2.0163,1.9529,3.9801,2.9481,3.9333,6.7314,0.06504,3.0421
7.9208,10.988,2.8383,1.8954,-2.9773,-3.1615,9.0452,-5.9477,-0.067,1.8954,-2.9773,1.9417,4.8254,5.9187,7.0034,9.9502,6.9682,-3.0667,15.469,2.9919,8.8673
3.9604,10.988,5.8086,4.8366,-1.0356,1.9931,9.0452,5.817,4.9581,4.8366,-1.0356,5.8252,5.7778,3.9675,3.9731,7.9602,4.9581,5.9333,12.557,1.0407,6.9256
0.9901,10.988,6.7987,2.8758,6.7314,6.1168,8.0402,-5.9477,11.993,2.8758,6.7314,5.8252,3.873,2.0163,0.94276,5.9701,1.943,2.9333,9.644,2.0163,9.8382
-1.9802,2.9481,0.85809,-1.0458,8.6731,-0.06873,-3.0151,0.91503,3.9531,-1.0458,8.6731,-2.9126,0.06349,1.0407,-4.1077,1.99,-3.0821,-7.0667,1.877,-2.8618,7.8964
-0.9901,3.9531,-1.1221,-3.9869,2.8479,-4.1924,0.0,0.91503,-2.0771,-3.9869,2.8479,-4.8544,1.9683,7.8699,0.94276,4.9751,-0.067,-3.0667,-1.0356,-3.8374,9.8382
8.9109,9.9832,5.8086,-3.9869,-8.8026,3.0241,10.05,-5.9477,4.9581,-3.9869,-8.8026,1.9417,15.302,19.577,9.0236,14.925,9.9832,-5.0667,10.615,2.9919,15.663
6.9307,9.9832,7.7888,2.8758,-0.06472,4.055,6.0302,7.7778,5.9631,2.8758,-0.06472,3.8835,19.111,19.577,7.0034,13.93,11.993,-9.0667,17.410999,1.0407,9.8382
-5.9406,3.9531,3.8284,3.8562,6.7314,-4.1924,3.0151,-15.752,6.9682,3.8562,6.7314,0.0,10.54,8.8455,-1.0774,5.9701,6.9682,-3.0667,8.6731,-3.8374,-1.8123
-8.9109,-0.067,0.85809,1.8954,6.7314,-5.2234,0.0,-21.634001,10.988,1.8954,6.7314,-2.9126,2.9206,0.06504,-3.0976,1.99,2.9481,8.9333,4.7896,-2.8618,-4.7249
0.0,6.9682,4.8185,-2.0261,-4.9191,-1.0997,8.0402,-12.81,7.9732,-2.0261,-4.9191,2.9126,-5.6508,-4.813,4.9832,5.9701,5.9631,-0.06667,4.7896,3.9675,2.0712
6.9307,10.988,8.7789,-3.0065,-1.0356,4.055,9.0452,7.7778,-0.067,-3.0065,-1.0356,4.8544,-3.746,-0.91057,9.0236,10.945,8.9782,2.9333,5.7605,6.8943,8.8673
5.9406,7.9732,7.7888,0.91503,5.7605,5.0859,4.0201,23.464001,1.943,0.91503,5.7605,2.9126,1.9683,2.9919,3.9731,10.945,8.9782,-1.0667,2.8479,2.0163,10.809
-3.9604,-0.067,-0.13201,-0.06536,-1.0356,0.9622,-1.005,-3.0065,-4.0871,-0.06536,-1.0356,-2.9126,0.06349,0.06504,-5.1178,2.9851,0.93802,-4.0667,-0.06472,-5.7886,4.9838
0.0,-1.072,-0.13201,0.91503,-2.9773,1.9931,-1.005,-8.8889,2.9481,0.91503,-2.9773,-0.97087,3.873,1.0407,-2.0875,-0.99502,-2.0771,-7.0667,6.7314,0.06504,1.1003
2.9703,0.93802,0.85809,-2.0261,-0.06472,-2.1306,0.0,-4.9673,5.9631,-2.0261,-0.06472,-0.97087,7.6825,3.9675,2.963,-0.99502,-3.0821,0.93333,14.498,8.8455,2.0712
-3.9604,-3.0821,-2.1122,-7.9085,-1.0356,-7.2852,-6.0302,-18.693001,-1.072,-7.9085,-1.0356,-4.8544,3.873,2.0163,-2.0875,-2.9851,-7.1022,8.9333,1.877,6.8943,4.9838
-5.9406,2.9481,0.85809,-5.9477,-3.9482,-5.2234,-4.0201,8.7582,-0.067,-5.9477,-3.9482,-2.9126,1.9683,7.8699,-4.1077,3.9801,-3.0821,2.9333,0.90615,1.0407,16.634001
0.9901,10.988,8.7789,-1.0458,-6.8608,-0.06873,5.0251,-2.0261,4.9581,-1.0458,-6.8608,1.9417,7.6825,15.675,1.9529,13.93,8.9782,-0.06667,6.7314,2.9919,21.489
0.9901,10.988,10.759,-3.9869,-11.715,-8.3162,5.0251,1.8954,-2.0771,-3.9869,-11.715,0.0,15.302,22.504,9.0236,17.91,17.018,4.9333,5.7605,10.797,18.576
1.9802,7.9732,8.7789,-4.9673,-6.8608,-7.2852,3.0151,-12.81,-6.0972,-4.9673,-6.8608,-0.97087,13.397,18.601999,10.034,15.92,17.018,9.9333,7.7023,10.797,13.722
-1.9802,4.9581,5.8086,-3.9869,-0.06472,-2.1306,0.0,7.7778,-3.0821,-3.9869,-0.06472,0.0,8.6349,6.8943,5.9933,8.9552,10.988,10.933,5.7605,7.8699,7.8964
-4.9505,-2.0771,-1.1221,-4.9673,-4.9191,-3.1615,-4.0201,-3.9869,-1.072,-4.9673,-4.9191,-4.8544,1.9683,-0.91057,1.9529,1.99,4.9581,0.93333,-2.0065,3.9675,1.1003
5.9406,-3.0821,1.8482,0.91503,-1.0356,10.241,-4.0201,-28.497,-4.0871,0.91503,-1.0356,-0.97087,-0.88889,-2.8618,2.963,0.99502,3.9531,-15.067,5.7605,3.9675,1.1003
-2.9703,-6.0972,-2.1122,-0.06536,-2.9773,-10.378,-9.0452,9.7386,-5.0921,-0.06536,-2.9773,-5.8252,-4.6984,-4.813,-2.0875,-2.9851,-1.072,-2.0667,3.8188,2.0163,-1.8123
-8.9109,-9.1122,-7.0627,-3.9869,-10.744,-14.502,-12.06,19.542,-5.0921,-3.9869,-10.744,-8.7379,-8.5079,-7.7398,-9.1582,-6.9652,-8.1072,8.9333,-9.7735,-3.8374,-3.754
-11.881,-6.0972,-8.0528,-5.9477,-9.7735,-4.1924,-8.0402,-18.693001,-1.072,-5.9477,-9.7735,-6.7961,-7.5556,-5.7886,-12.189,-6.9652,-10.117,-1.0667,-1.0356,-5.7886,0.12945
-10.891,0.93802,-4.0924,-9.8693,-7.8317,-12.44,-4.0201,3.8562,0.93802,-9.8693,-7.8317,-5.8252,1.0159,2.9919,-4.1077,0.0,-5.0921,0.93333,5.7605,2.0163,9.8382
5.9406,5.9631,2.8383,-7.9085,-10.744,7.1478,1.005,2.8758,-3.0821,-7.9085,-10.744,0.0,6.7302,8.8455,4.9832,5.9701,0.93802,2.9333,7.7023,8.8455,13.722
8.9109,1.943,2.8383,-3.0065,-2.0065,6.1168,-5.0251,4.8366,-17.152,-3.0065,-2.0065,-0.97087,3.873,2.9919,4.9832,1.99,0.93802,3.9333,4.7896,7.8699,3.0421
0.0,-0.067,0.85809,-3.0065,-3.9482,-7.2852,-7.0352,-7.9085,-8.1072,-3.0065,-3.9482,-3.8835,0.06349,0.06504,-1.0774,0.0,-0.067,-19.066999,-8.8026,2.0163,-3.754
-3.9604,4.9581,4.8185,-2.0261,-8.8026,-8.3162,0.0,-3.0065,8.9782,-2.0261,-8.8026,0.0,5.7778,6.8943,-1.0774,7.9602,6.9682,-6.0667,5.7605,-0.91057,4.0129
1.9802,11.993,12.739,1.8954,-5.89,-0.06873,8.0402,4.8366,5.9631,1.8954,-5.89,7.767,12.444,12.748,8.0135,14.925,16.013,15.933,15.469,2.0163,10.809
17.822001,12.998,19.67,4.8366,10.615,12.302,9.0452,6.7974,8.9782,4.8366,10.615,13.592,14.349,15.675,18.114,15.92,22.044001,12.933,13.528,7.8699,10.809
18.812,14.003,19.67,5.817,12.557,13.333,8.0402,12.68,11.993,5.817,12.557,12.621,15.302,16.65,17.104,16.915001,21.039,13.933,16.440001,10.797,13.722
10.891,20.034,19.67,3.8562,-2.9773,11.271,17.084999,18.562,16.013,3.8562,-2.9773,13.592,14.349,16.65,14.074,21.891001,21.039,5.9333,15.469,10.797,20.518
10.891,20.034,18.68,4.8366,0.90615,13.333,13.065,19.542,8.9782,4.8366,0.90615,13.592,15.302,14.699,14.074,20.896,20.034,2.9333,16.440001,12.748,16.634001
-1.9802,1.943,3.8284,1.8954,-2.0065,-2.1306,-3.0151,6.7974,-4.0871,1.8954,-2.0065,0.0,1.9683,0.06504,2.963,1.99,4.9581,3.9333,-3.9482,2.9919,-1.8123
3.9604,-6.0972,-3.1023,-3.9869,-8.8026,-3.1615,-3.0151,-13.791,-2.0771,-3.9869,-8.8026,-2.9126,-5.6508,-4.813,-3.0976,-5.9701,-6.0972,-19.066999,-11.715,-1.8862,-6.6667
-4.9505,-6.0972,-6.0726,-0.06536,-4.9191,-0.06873,-8.0402,-9.8693,-9.1122,-0.06536,-4.9191,-2.9126,-6.6032,-5.7886,-9.1582,-5.9701,-11.122,-1.0667,-8.8026,-3.8374,-2.7832
-9.901,-2.0771,-5.0825,3.8562,-2.9773,-2.1306,-8.0402,8.7582,-12.127,3.8562,-2.9773,-2.9126,-6.6032,-6.7642,-11.178,-2.9851,-10.117,10.933,-3.9482,-7.7398,2.0712
0.0,2.9481,2.8383,-1.0458,-2.9773,5.0859,-1.005,-6.9281,-6.0972,-1.0458,-2.9773,2.9126,-0.88889,-0.91057,-3.0976,1.99,-2.0771,9.9333,3.8188,-0.91057,4.0129
0.9901,0.93802,5.8086,1.8954,-0.06472,4.055,-3.0151,1.8954,-1.072,1.8954,-0.06472,1.9417,5.7778,4.9431,7.0034,4.9751,4.9581,6.9333,0.90615,8.8455,1.1003
7.9208,4.9581,8.7789,-3.0065,-9.7735,1.9931,0.0,6.7974,-4.0871,-3.0065,-9.7735,1.9417,10.54,10.797,12.054,10.945,10.988,1.9333,-0.06472,15.675,7.8964
5.9406,8.9782,7.7888,-3.0065,-8.8026,0.9622,2.0101,6.7974,-8.1072,-3.0065,-8.8026,1.9417,6.7302,10.797,10.034,11.94,11.993,0.93333,8.6731,10.797,10.809
7.9208,6.9682,9.769,1.8954,7.7023,1.9931,-4.0201,12.68,0.93802,1.8954,7.7023,2.9126,8.6349,11.772,8.0135,12.935,11.993,5.9333,7.7023,10.797,9.8382
13.861,9.9832,17.690001,5.817,7.7023,7.1478,3.0151,-2.0261,6.9682,5.817,7.7023,10.68,9.5873,7.8699,12.054,10.945,15.008,4.9333,4.7896,10.797,2.0712
23.761999,14.003,23.629999,4.8366,-1.0356,18.488001,14.07,6.7974,14.003,4.8366,-1.0356,18.447001,14.349,7.8699,17.104,9.9502,17.018,8.9333,3.8188,14.699,-0.84142
13.861,11.993,18.68,5.817,-3.9482,16.426001,12.06,31.306999,1.943,5.817,-3.9482,14.563,12.444,6.8943,10.034,6.9652,9.9832,18.933001,0.90615,9.8211,0.12945
-0.9901,5.9631,8.7789,5.817,3.8188,9.2096,-1.005,0.91503,-7.1022,5.817,3.8188,6.7961,6.7302,4.9431,-1.0774,0.0,-0.067,15.933,-4.9191,2.9919,0.12945
6.9307,2.9481,7.7888,2.8758,9.644,10.241,-4.0201,-1.0458,0.93802,2.8758,9.644,7.767,8.6349,6.8943,1.9529,-0.99502,-2.0771,7.9333,-2.0065,8.8455,3.0421
2.9703,-3.0821,3.8284,-1.0458,-6.8608,0.9622,-1.005,18.562,-11.122,-1.0458,-6.8608,3.8835,4.8254,-0.91057,-0.06734,-5.9701,-6.0972,13.933,-2.0065,12.748,-3.754
-1.9802,-4.0871,-0.13201,-1.0458,-14.628,0.9622,3.0151,16.601,-11.122,-1.0458,-14.628,1.9417,3.873,-3.8374,-3.0976,-7.9602,-6.0972,10.933,-5.89,6.8943,-8.6084
2.9703,-0.067,2.8383,0.91503,-4.9191,7.1478,0.0,5.817,-9.1122,0.91503,-4.9191,4.8544,6.7302,3.9675,-0.06734,-0.99502,-1.072,-3.0667,-2.0065,1.0407,-1.8123
12.871,8.9782,10.759,3.8562,8.6731,11.271,0.0,13.66,1.943,3.8562,8.6731,10.68,10.54,9.8211,9.0236,8.9552,8.9782,0.93333,4.7896,3.9675,9.8382
14.851,8.9782,12.739,-2.0261,5.7605,14.364,4.0201,-7.9085,7.9732,-2.0261,5.7605,11.65,8.6349,9.8211,9.0236,10.945,9.9832,-0.06667,4.7896,6.8943,12.751
6.9307,5.9631,9.769,-0.06536,-0.06472,11.271,3.0151,7.7778,4.9581,-0.06536,-0.06472,9.7087,1.9683,7.8699,0.94276,6.9652,2.9481,5.9333,5.7605,1.0407,9.8382
-7.9208,1.943,1.8482,6.7974,0.90615,0.9622,3.0151,22.483999,-1.072,6.7974,0.90615,4.8544,-8.5079,-0.91057,-11.178,0.99502,-6.0972,8.9333,2.8479,-6.7642,4.0129
-13.861,-3.0821,-4.0924,0.91503,-8.8026,-7.2852,0.0,6.7974,-15.142,0.91503,-8.8026,-0.97087,-15.175,-9.6911,-13.199,-5.9701,-11.122,6.9333,-6.8608,-6.7642,-3.754
-8.9109,-4.0871,-5.0825,-3.0065,-11.715,-6.2543,-1.005,-0.06536,-13.132,-3.0065,-11.715,-2.9126,-9.4603,-6.7642,-7.138,-4.9751,-8.1072,-4.0667,-11.715,-2.8618,-1.8123
3.9604,1.943,0.85809,-0.06536,4.7896,8.1787,-1.005,-8.8889,12.998,-0.06536,4.7896,1.9417,-0.88889,0.06504,-1.0774,2.9851,-1.072,-3.0667,2.8479,1.0407,7.8964
3.9604,5.9631,2.8383,-0.06536,0.90615,9.2096,-3.0151,5.817,7.9732,-0.06536,0.90615,1.9417,2.9206,2.9919,-2.0875,4.9751,-1.072,-3.0667,10.615,2.0163,10.809
-1.9802,6.9682,2.8383,-1.0458,-3.9482,0.9622,4.0201,10.719,-4.0871,-1.0458,-3.9482,2.9126,-0.88889,-0.91057,-7.138,0.0,-6.0972,-0.06667,3.8188,0.06504,5.9547
0.9901,5.9631,0.85809,-3.0065,-4.9191,1.9931,7.0352,-3.0065,-6.0972,-3.0065,-4.9191,2.9126,-7.5556,-8.7154,-8.1481,-2.9851,-9.1122,-5.0667,-2.9773,-2.8618,5.9547
10.891,-3.0821,-3.1023,-9.8693,-4.9191,3.0241,-3.0151,-8.8889,-2.0771,-9.8693,-4.9191,-3.8835,-6.6032,-6.7642,-4.1077,-2.9851,-8.1072,-19.066999,0.90615,1.0407,7.8964
-1.9802,-6.0972,-8.0528,-10.85,-8.8026,-6.2543,-11.055,-7.9085,0.93802,-10.85,-8.8026,-8.7379,-0.88889,2.0163,-4.1077,-1.99,-8.1072,1.9333,-0.06472,4.9431,7.8964
-10.891,-4.0871,-9.0429,-5.9477,-2.9773,-10.378,-12.06,-0.06536,-5.0921,-5.9477,-2.9773,-8.7379,-0.88889,0.06504,-7.138,-3.9801,-9.1122,15.933,-0.06472,3.9675,4.9838
-7.9208,-4.0871,-7.0627,-3.9869,-2.0065,-1.0997,-6.0302,-7.9085,0.93802,-3.9869,-2.0065,-5.8252,-4.6984,-6.7642,-5.1178,-5.9701,-9.1122,10.933,-5.89,4.9431,2.0712
3.9604,-4.0871,-4.0924,-0.06536,-7.8317,3.0241,-1.005,9.7386,-8.1072,-0.06536,-7.8317,-1.9417,-3.746,-6.7642,-1.0774,-6.9652,-7.1022,0.93333,-6.8608,5.9187,-1.8123
-3.9604,-10.117,-12.013,-5.9477,-9.7735,-11.409,-4.0201,23.464001,-13.132,-5.9477,-9.7735,-8.7379,-6.6032,-7.7398,-6.1279,-10.945,-13.132,-0.06667,-2.9773,2.9919,-2.7832
1.9802,-7.1022,-13.003,-4.9673,-1.0356,-1.0997,-5.0251,18.562,-0.067,-4.9673,-1.0356,-6.7961,-8.5079,-9.6911,-8.1481,-9.9502,-14.137,-1.0667,-2.0065,1.0407,-0.84142
-5.9406,-4.0871,-9.0429,-3.0065,1.877,-2.1306,-5.0251,6.7974,3.9531,-3.0065,1.877,-3.8835,-5.6508,-6.7642,-6.1279,-7.9602,-10.117,7.9333,1.877,2.0163,-1.8123
-4.9505,-7.1022,-8.0528,-3.0065,-2.9773,0.9622,-4.0201,-14.771,-0.067,-3.0065,-2.9773,-3.8835,-3.746,-8.7154,-4.1077,-9.9502,-9.1122,-16.066999,-9.7735,5.9187,-9.5793
-2.9703,-9.1122,-7.0627,-3.9869,-4.9191,0.9622,-3.0151,-5.9477,-0.067,-3.9869,-4.9191,-2.9126,-6.6032,-9.6911,-6.1279,-11.94,-11.122,-4.0667,-13.657,4.9431,-10.55
-3.9604,-7.1022,-5.0825,-2.0261,4.7896,9.2096,-3.0151,-10.85,-20.167999,-2.0261,4.7896,-0.97087,-7.5556,-6.7642,-10.168,-9.9502,-12.127,6.9333,-6.8608,-2.8618,-5.6958
-6.9307,-5.0921,-6.0726,-1.0458,1.877,1.9931,-5.0251,-6.9281,-8.1072,-1.0458,1.877,-0.97087,-8.5079,-8.7154,-13.199,-9.9502,-14.137,1.9333,-7.8317,-7.7398,-3.754
-3.9604,-6.0972,-5.0825,-3.0065,-7.8317,-10.378,-9.0452,31.306999,0.93802,-3.0065,-7.8317,-4.8544,-8.5079,-6.7642,-3.0976,-6.9652,-9.1122,-2.0667,-5.89,1.0407,-2.7832
6.9307,-2.0771,-0.13201,-2.0261,-4.9191,4.055,-3.0151,11.699,-6.0972,-2.0261,-4.9191,0.0,0.06349,1.0407,4.9832,0.0,-1.072,-2.0667,-2.9773,10.797,2.0712
-0.9901,-3.0821,-1.1221,-2.0261,-6.8608,-3.1615,-1.005,10.719,-5.0921,-2.0261,-6.8608,-0.97087,-0.88889,1.0407,0.94276,-0.99502,-1.072,4.9333,-5.89,3.9675,0.12945
-6.9307,-7.1022,-6.0726,-1.0458,-1.0356,-1.0997,1.005,-1.0458,4.9581,-1.0458,-1.0356,-0.97087,-8.5079,-8.7154,-7.138,-8.9552,-7.1022,-4.0667,-7.8317,-5.7886,-10.55
-11.881,-12.127,-12.013,-5.9477,-7.8317,-4.1924,1.005,-2.0261,-0.067,-5.9477,-7.8317,-5.8252,-11.365,-16.52,-11.178,-16.915001,-13.132,-15.067,-13.657,-8.7154,-22.201
-8.9109,-13.132,-13.993,-3.9869,-5.89,1.9931,-3.0151,-11.83,-11.122,-3.9869,-5.89,-6.7961,-13.27,-16.52,-10.168,-16.915001,-13.132,-13.067,-17.540001,-7.7398,-22.201
-12.871,-14.137,-16.964001,-5.9477,-2.0065,-5.2234,-13.065,-11.83,-12.127,-5.9477,-2.0065,-11.65,-14.222,-16.52,-14.209,-14.925,-15.142,-7.0667,-20.452999,-9.6911,-14.434
-15.842,-14.137,-18.944,-8.8889,-2.9773,-12.44,-17.084999,-7.9085,-5.0921,-8.8889,-2.9773,-13.592,-14.222,-15.545,-16.229,-13.93,-17.152,-4.0667,-13.657,-10.667,-8.6084
-6.9307,-15.142,-15.974,-3.0065,-0.06472,-4.1924,-13.065,-2.0261,-6.0972,-3.0065,-0.06472,-10.68,-12.317,-11.642,-12.189,-14.925,-15.142,-19.066999,-15.599,-10.667,-12.492
-1.9802,-13.132,-13.003,-1.0458,-9.7735,-0.06873,-5.0251,-7.9085,-6.0972,-1.0458,-9.7735,-8.7379,-8.5079,-8.7154,-8.1481,-13.93,-11.122,-18.066999,-9.7735,-7.7398,-14.434
4.9505,-5.0921,-8.0528,1.8954,-4.9191,5.0859,4.0201,-12.81,-5.0921,1.8954,-4.9191,-2.9126,-6.6032,-8.7154,-4.1077,-8.9552,-7.1022,-10.067,4.7896,-3.8374,-11.521
1.9802,-0.067,-4.0924,-3.0065,3.8188,8.1787,0.0,-29.476999,-10.117,-3.0065,3.8188,-2.9126,0.06349,-0.91057,0.94276,-0.99502,-1.072,7.9333,5.7605,2.9919,-3.754
-5.9406,-11.122,-11.023,-8.8889,-3.9482,-8.3162,-16.08,-5.9477,-22.177999,-8.8889,-3.9482,-13.592,-2.7937,-4.813,-2.0875,-5.9701,-5.0921,5.9333,-11.715,2.0163,-8.6084
-16.832001,-15.142,-13.993,-11.83,-9.7735,-30.997,-17.084999,24.444,-2.0771,-11.83,-9.7735,-18.447001,-5.6508,-9.6911,-6.1279,-10.945,-8.1072,-2.0667,-17.540001,1.0407,-15.405
-13.861,-17.152,-13.993,-7.9085,-5.89,-18.625,-15.075,12.68,-1.072,-7.9085,-5.89,-14.563,-12.317,-15.545,-11.178,-15.92,-13.132,-0.06667,-14.628,-8.7154,-19.288
-4.9505,-13.132,-12.013,-0.06536,-8.8026,-0.06873,-11.055,-6.9281,-12.127,-0.06536,-8.8026,-8.7379,-22.794001,-22.374001,-11.178,-15.92,-15.142,-7.0667,-10.744,-13.593,-17.346001
-3.9604,-10.117,-12.013,-5.9477,-4.9191,1.9931,-10.05,-35.359001,-20.167999,-5.9477,-4.9191,-7.767,-19.937,-19.447001,-11.178,-12.935,-12.127,-16.066999,-8.8026,-13.593,-12.492
-8.9109,-8.1072,-11.023,-4.9673,-4.9191,-4.1924,-8.0402,-2.0261,-15.142,-4.9673,-4.9191,-6.7961,-7.5556,-10.667,-10.168,-9.9502,-8.1072,-3.0667,-8.8026,-10.667,-12.492
1.9802,0.93802,-4.0924,-0.06536,-4.9191,-4.1924,-1.005,7.7778,-12.127,-0.06536,-4.9191,-1.9417,5.7778,1.0407,0.94276,-0.99502,0.93802,-6.0667,-3.9482,3.9675,-6.6667
11.881,3.9531,-1.1221,2.8758,7.7023,5.0859,2.0101,-8.8889,6.9682,2.8758,7.7023,1.9417,10.54,5.9187,9.0236,2.9851,4.9581,6.9333,5.7605,13.724,-1.8123
-9.901,-3.0821,-10.033,-3.0065,10.615,-12.44,-7.0352,1.8954,6.9682,-3.0065,10.615,-7.767,0.06349,-2.8618,-4.1077,-4.9751,-6.0972,11.933,11.586,2.9919,-6.6667
-20.792,-4.0871,-13.993,-7.9085,0.90615,-19.656,-9.0452,4.8366,-3.0821,-7.9085,0.90615,-11.65,-9.4603,-10.667,-14.209,-8.9552,-13.132,-9.0667,3.8188,-11.642,-4.7249
-8.9109,-3.0821,-8.0528,-3.0065,-2.9773,-6.2543,-2.0101,-19.673,7.9732,-3.0065,-2.9773,-2.9126,-15.175,-12.618,-14.209,-6.9652,-11.122,-19.066999,-5.89,-16.52,-3.754
-3.9604,-4.0871,-6.0726,-4.9673,-2.0065,-6.2543,0.0,-30.458,1.943,-4.9673,-2.0065,-0.97087,-15.175,-9.6911,-13.199,-6.9652,-9.1122,-13.067,-5.89,-13.593,-5.6958
-2.9703,-5.0921,-10.033,-7.9085,-4.9191,-3.1615,-1.005,-5.9477,-13.132,-7.9085,-4.9191,-3.8835,-13.27,-10.667,-13.199,-7.9602,-11.122,-0.06667,-2.9773,-7.7398,-5.6958
-9.901,-8.1072,-13.993,-7.9085,-14.628,-6.2543,-5.0251,0.91503,-11.122,-7.9085,-14.628,-7.767,-7.5556,-4.813,-12.189,-7.9602,-13.132,-0.06667,-10.744,-1.8862,-3.754
-3.9604,-4.0871,-11.023,-7.9085,-6.8608,-5.2234,-5.0251,-6.9281,-11.122,-7.9085,-6.8608,-4.8544,0.06349,2.0163,-7.138,-2.9851,-9.1122,-1.0667,-5.89,2.0163,1.1003
-4.9505,-6.0972,-10.033,-4.9673,3.8188,-14.502,-11.055,-2.0261,-7.1022,-4.9673,3.8188,-7.767,-2.7937,-1.8862,-7.138,-1.99,-8.1072,4.9333,-2.0065,-0.91057,3.0421
-5.9406,-7.1022,-10.033,-5.9477,5.7605,-8.3162,-10.05,-19.673,5.9631,-5.9477,5.7605,-7.767,-4.6984,-3.8374,-7.138,-3.9801,-8.1072,-1.0667,-0.06472,-3.8374,0.12945
-8.9109,-11.122,-13.993,-9.8693,-7.8317,-7.2852,-11.055,-13.791,-9.1122,-9.8693,-7.8317,-11.65,-7.5556,-7.7398,-6.1279,-8.9552,-11.122,-3.0667,-2.9773,-1.8862,-4.7249
-0.9901,-15.142,-16.964001,-4.9673,-8.8026,-0.06873,-10.05,-15.752,-12.127,-4.9673,-8.8026,-9.7087,-1.8413,-5.7886,-3.0976,-11.94,-11.122,-11.067,-8.8026,1.0407,-9.5793
-0.9901,-13.132,-16.964001,-4.9673,-8.8026,-9.3471,-12.06,2.8758,-6.0972,-4.9673,-8.8026,-11.65,2.9206,-1.8862,-1.0774,-8.9552,-8.1072,0.93333,-6.8608,1.0407,-8.6084
-1.9802,-12.127,-13.993,-5.9477,-7.8317,-6.2543,-11.055,-10.85,-11.122,-5.9477,-7.8317,-9.7087,1.9683,-2.8618,-0.06734,-4.9751,-5.0921,5.9333,-3.9482,0.06504,-4.7249
0.0,-12.127,-11.023,-3.9869,0.90615,-8.3162,-10.05,-10.85,-11.122,-3.9869,0.90615,-8.7379,-3.746,-1.8862,-2.0875,-4.9751,-5.0921,-9.0667,-8.8026,0.06504,-5.6958
5.9406,-11.122,-10.033,-3.9869,-0.06472,-5.2234,-7.0352,6.7974,-4.0871,-3.9869,-0.06472,-6.7961,-8.5079,-8.7154,-8.1481,-9.9502,-9.1122,-0.06667,-11.715,-4.813,-9.5793
-11.881,-10.117,-14.983,-3.0065,0.90615,-12.44,-2.0101,12.68,5.9631,-3.0065,0.90615,-7.767,-8.5079,-12.618,-12.189,-13.93,-13.132,5.9333,-10.744,-5.7886,-11.521
-15.842,-13.132,-16.964001,-3.0065,1.877,-18.625,-8.0402,8.7582,-4.0871,-3.0065,1.877,-10.68,-9.4603,-15.545,-13.199,-16.915001,-17.152,-5.0667,-6.8608,-4.813,-11.521
-11.881,-13.132,-16.964001,-7.9085,-3.9482,-7.2852,-13.065,-30.458,-17.152,-7.9085,-3.9482,-11.65,-10.413,-13.593,-13.199,-15.92,-18.157,-11.067,-0.06472,-3.8374,-11.521
-8.9109,-9.1122,-14.983,-8.8889,-5.89,-10.378,-9.0452,-3.0065,-7.1022,-8.8889,-5.89,-11.65,-7.5556,-8.7154,-8.1481,-9.9502,-14.137,-0.06667,-0.06472,1.0407,-4.7249
-3.9604,-4.0871,-10.033,-3.9869,-5.89,-4.1924,1.005,3.8562,8.9782,-3.9869,-5.89,-4.8544,-5.6508,-3.8374,-6.1279,-4.9751,-10.117,11.933,-2.9773,2.0163,4.0129
0.0,-4.0871,-6.0726,-1.0458,-3.9482,0.9622,7.0352,-7.9085,10.988,-1.0458,-3.9482,0.97087,-7.5556,-2.8618,-7.138,-5.9701,-10.117,6.9333,-3.9482,-0.91057,1.1003
-3.9604,-9.1122,-9.0429,-1.0458,8.6731,-3.1615,-7.0352,-16.732,-3.0821,-1.0458,8.6731,-3.8835,-15.175,-11.642,-10.168,-11.94,-12.127,-1.0667,-10.744,-9.6911,-11.521
-14.851,-18.157,-14.983,-8.8889,2.8479,-18.625,-18.09,-6.9281,-4.0871,-8.8889,2.8479,-12.621,-17.079,-16.52,-14.209,-16.915001,-13.132,-8.0667,-12.686,-17.496,-20.259001
-11.881,-14.137,-10.033,-7.9085,2.8479,-20.687,-10.05,9.7386,-0.067,-7.9085,2.8479,-9.7087,-5.6508,-6.7642,-5.1178,-9.9502,-4.0871,-25.066999,-8.8026,-8.7154,-14.434
-9.901,-7.1022,-5.0825,-3.9869,0.90615,-9.3471,-4.0201,-1.0458,-0.067,-3.9869,0.90615,-4.8544,2.9206,1.0407,0.94276,-2.9851,2.9481,5.9333,-7.8317,-1.8862,-7.6375
-6.9307,-7.1022,-5.0825,-4.9673,-14.628,-10.378,-1.005,7.7778,-4.0871,-4.9673,-14.628,-5.8252,1.9683,2.9919,4.9832,-0.99502,3.9531,13.933,-6.8608,3.9675,-3.754
-9.901,-12.127,-11.023,-6.9281,-8.8026,-13.471,-7.0352,-4.9673,-8.1072,-6.9281,-8.8026,-11.65,-1.8413,-5.7886,-4.1077,-7.9602,-6.0972,6.9333,-2.9773,-1.8862,-5.6958
-14.851,-17.152,-16.964001,-8.8889,-1.0356,-12.44,-14.07,-18.693001,-10.117,-8.8889,-1.0356,-16.504999,-5.6508,-9.6911,-13.199,-14.925,-13.132,-0.06667,-1.0356,-6.7642,-10.55
-2.9703,-15.142,-13.003,-6.9281,4.7896,-3.1615,-12.06,-25.556,1.943,-6.9281,4.7896,-10.68,-7.5556,-9.6911,-12.189,-13.93,-12.127,-15.067,-3.9482,-9.6911,-9.5793
-5.9406,-9.1122,-11.023,-1.0458,-2.9773,-0.06873,-5.0251,0.91503,1.943,-1.0458,-2.9773,-5.8252,-8.5079,-7.7398,-13.199,-9.9502,-12.127,-5.0667,-8.8026,-10.667,-3.754
-10.891,-9.1122,-12.013,-1.0458,-3.9482,-11.409,-6.0302,12.68,8.9782,-1.0458,-3.9482,-8.7379,-3.746,-2.8618,-10.168,-6.9652,-11.122,-8.0667,-3.9482,-7.7398,4.9838
-17.822001,-16.146999,-17.954,-6.9281,-1.0356,-24.811001,-13.065,10.719,-4.0871,-6.9281,-1.0356,-14.563,-1.8413,-4.813,-9.1582,-12.935,-14.137,-13.067,-7.8317,-0.91057,-2.7832
-20.792,-19.162001,-18.944,-8.8889,-3.9482,-20.687,-15.075,3.8562,-10.117,-8.8889,-3.9482,-17.476,-3.746,-8.7154,-6.1279,-13.93,-12.127,12.933,-9.7735,2.9919,-8.6084
-14.851,-15.142,-15.974,-9.8693,-10.744,-9.3471,-12.06,-29.476999,-5.0921,-9.8693,-10.744,-15.534,-2.7937,-4.813,-4.1077,-8.9552,-7.1022,20.933001,-9.7735,2.0163,-4.7249
-4.9505,-7.1022,-8.0528,-7.9085,-9.7735,-7.2852,-8.0402,-16.732,-8.1072,-7.9085,-9.7735,-10.68,2.9206,2.0163,0.94276,0.99502,1.943,7.9333,-2.9773,2.0163,5.9547
-8.9109,-8.1072,-9.0429,-3.0065,-2.0065,-18.625,-12.06,10.719,-8.1072,-3.0065,-2.0065,-12.621,-1.8413,0.06504,-5.1178,-2.9851,-0.067,-1.0667,4.7896,-6.7642,-1.8123
-20.792,-17.152,-15.974,-5.9477,-1.0356,-28.934999,-14.07,6.7974,-4.0871,-5.9477,-1.0356,-18.447001,-8.5079,-5.7886,-14.209,-12.935,-10.117,-12.067,-0.06472,-13.593,-11.521
-18.812,-18.157,-17.954,-8.8889,-10.744,-19.656,-11.055,-4.9673,-3.0821,-8.8889,-10.744,-16.504999,-6.6032,-4.813,-16.229,-14.925,-14.137,-14.067,-0.06472,-14.569,-13.463
-17.822001,-21.173,-19.934,-10.85,-5.89,-12.44,-17.084999,-28.497,-1.072,-10.85,-5.89,-17.476,-9.4603,-12.618,-18.249001,-16.915001,-16.146999,-12.067,-9.7735,-16.52,-15.405
-18.812,-20.167999,-19.934,-14.771,-8.8026,-15.533,-19.094999,-14.771,-16.146999,-14.771,-8.8026,-20.388,-9.4603,-14.569,-15.219,-15.92,-13.132,-8.0667,-20.452999,-12.618,-15.405
-25.743,-23.183001,-22.903999,-12.81,-16.57,-26.872999,-22.111,4.8366,-17.152,-12.81,-16.57,-25.243,-9.4603,-14.569,-15.219,-18.905001,-16.146999,-4.0667,-15.599,-8.7154,-14.434
-29.702999,-28.208,-28.844999,-12.81,-13.657,-30.997,-23.115999,-11.83,-12.127,-12.81,-13.657,-26.214001,-16.127001,-21.398001,-23.299999,-26.865999,-26.198,-8.0667,-14.628,-11.642,-19.288
-13.861,-20.167999,-20.924,-3.0065,1.877,-7.2852,-12.06,-22.614,-3.0821,-3.0065,1.877,-14.563,-17.079,-16.52,-16.229,-20.896,-22.177999,-12.067,-12.686,-8.7154,-13.463
-6.9307,-7.1022,-10.033,-1.0458,-2.9773,-6.2543,-7.0352,-0.06536,-2.0771,-1.0458,-2.9773,-6.7961,-5.6508,-3.8374,-9.1582,-5.9701,-9.1122,-10.067,-2.9773,-3.8374,0.12945
2.9703,0.93802,-0.13201,1.8954,3.8188,3.0241,-3.0151,-35.359001,1.943,1.8954,3.8188,-0.97087,6.7302,8.8455,-0.06734,5.9701,4.9581,-4.0667,1.877,-0.91057,7.8964
-6.9307,-3.0821,-4.0924,-2.0261,0.90615,-9.3471,-6.0302,0.91503,-12.127,-2.0261,0.90615,-6.7961,-1.8413,-0.91057,-4.1077,0.99502,0.93802,7.9333,0.90615,-3.8374,2.0712
-15.842,-16.146999,-14.983,-8.8889,-15.599,-15.533,-16.08,-7.9085,-14.137,-8.8889,-15.599,-15.534,-9.4603,-13.593,-12.189,-10.945,-9.1122,-6.0667,-2.9773,-9.6911,-8.6084
-12.871,-17.152,-14.983,-3.0065,-8.8026,-6.2543,-10.05,-22.614,-4.0871,-3.0065,-8.8026,-11.65,-12.317,-13.593,-14.209,-13.93,-10.117,-16.066999,-3.9482,-13.593,-12.492
-8.9109,-12.127,-9.0429,-1.0458,2.8479,-11.409,-6.0302,25.424999,1.943,-1.0458,2.8479,-8.7379,-12.317,-11.642,-11.178,-10.945,-6.0972,-21.066999,-1.0356,-13.593,-10.55
-13.861,-11.122,-7.0627,-5.9477,-2.0065,-16.563999,-7.0352,11.699,-8.1072,-5.9477,-2.0065,-8.7379,-9.4603,-7.7398,-11.178,-8.9552,-4.0871,-6.0667,-6.8608,-13.593,-10.55
-13.861,-12.127,-10.033,-8.8889,-9.7735,-12.44,-7.0352,-24.575001,-22.177999,-8.8889,-9.7735,-9.7087,-9.4603,-9.6911,-11.178,-9.9502,-7.1022,-2.0667,-12.686,-10.667,-8.6084
-23.761999,-21.173,-19.934,-9.8693,-22.395,-15.533,-18.09,-25.556,-14.137,-9.8693,-22.395,-18.447001,-11.365,-11.642,-16.229,-15.92,-14.137,-2.0667,-12.686,-11.642,-9.5793
-13.861,-19.162001,-15.974,-5.9477,-6.8608,-11.409,-16.08,-17.712,-4.0871,-5.9477,-6.8608,-13.592,-13.27,-16.52,-16.229,-17.91,-15.142,-10.067,-6.8608,-10.667,-14.434
-13.861,-16.146999,-14.983,-8.8889,6.7314,-18.625,-16.08,2.8758,-5.0921,-8.8889,6.7314,-14.563,-10.413,-16.52,-14.209,-17.91,-15.142,-17.066999,-7.8317,-8.7154,-14.434
-23.761999,-21.173,-21.914,-15.752,-5.89,-23.780001,-18.09,-0.06536,-12.127,-15.752,-5.89,-20.388,-13.27,-15.545,-17.239,-22.886,-20.167999,-11.067,-12.686,-7.7398,-17.346001
-17.822001,-17.152,-19.934,-8.8889,-10.744,-9.3471,-10.05,-15.752,-12.127,-8.8889,-10.744,-12.621,-15.175,-12.618,-17.239,-20.896,-20.167999,1.9333,-3.9482,-8.7154,-17.346001
-10.891,-13.132,-14.983,-2.0261,-13.657,-10.378,-11.055,2.8758,-13.132,-2.0261,-13.657,-10.68,-13.27,-9.6911,-12.189,-12.935,-13.132,0.93333,-2.0065,-6.7642,-11.521
-12.871,-10.117,-10.033,-3.0065,-10.744,-10.378,-12.06,-9.8693,-12.127,-3.0065,-10.744,-10.68,-6.6032,-2.8618,-9.1582,-5.9701,-6.0972,-6.0667,-4.9191,-8.7154,-4.7249
-0.9901,-0.067,-0.13201,-1.0458,2.8479,-4.1924,-3.0151,-10.85,9.9832,-1.0458,2.8479,-2.9126,1.9683,4.9431,-0.06734,3.9801,3.9531,-9.0667,-2.0065,-3.8374,4.9838
3.9604,0.93802,1.8482,-4.9673,3.8188,0.9622,-3.0151,-0.06536,-0.067,-4.9673,3.8188,-1.9417,1.9683,2.0163,5.9933,4.9751,7.9732,-4.0667,-2.9773,2.0163,2.0712
1.9802,-3.0821,-0.13201,-7.9085,-5.89,-4.1924,-8.0402,0.91503,-15.142,-7.9085,-5.89,-6.7961,2.9206,1.0407,9.0236,5.9701,9.9832,3.9333,-4.9191,7.8699,3.0421
1.9802,1.943,2.8383,-3.0065,-9.7735,-7.2852,-3.0151,2.8758,-6.0972,-3.0065,-9.7735,-4.8544,7.6825,7.8699,9.0236,8.9552,12.998,10.933,4.7896,8.8455,6.9256
0.9901,-0.067,2.8383,0.91503,-2.9773,-3.1615,-4.0201,-3.9869,2.9481,0.91503,-2.9773,-0.97087,1.9683,-0.91057,-0.06734,1.99,5.9631,4.9333,-0.06472,1.0407,0.12945
-5.9406,-6.0972,-1.1221,1.8954,7.7023,-3.1615,-5.0251,-2.0261,4.9581,1.8954,7.7023,-0.97087,-5.6508,-8.7154,-7.138,-7.9602,-4.0871,-1.0667,-6.8608,-5.7886,-9.5793
11.881,-0.067,5.8086,3.8562,5.7605,14.364,4.0201,-25.556,-1.072,3.8562,5.7605,5.8252,1.9683,0.06504,1.9529,-1.99,1.943,-4.0667,-3.9482,0.06504,-0.84142
0.0,-9.1122,-4.0924,-3.0065,-3.9482,4.055,-6.0302,-7.9085,-2.0771,-3.0065,-3.9482,-5.8252,-3.746,-5.7886,-3.0976,-7.9602,-6.0972,-1.0667,-2.9773,-0.91057,-4.7249
-24.752001,-19.162001,-20.924,-6.9281,-14.628,-21.718,-16.08,18.562,-8.1072,-6.9281,-14.628,-20.388,-14.222,-16.52,-21.278999,-19.9,-23.183001,-6.0667,-5.89,-10.667,-14.434
-17.822001,-12.127,-19.934,-2.0261,1.877,-7.2852,-13.065,-7.9085,-12.127,-2.0261,1.877,-14.563,-13.27,-14.569,-20.268999,-16.915001,-23.183001,-13.067,-6.8608,-10.667,-6.6667
-14.851,-13.132,-17.954,-3.9869,7.7023,-17.594999,-16.08,-7.9085,-12.127,-3.9869,7.7023,-14.563,-11.365,-12.618,-14.209,-12.935,-18.157,-4.0667,-8.8026,-8.7154,-5.6958
-14.851,-15.142,-14.983,-6.9281,-5.89,-16.563999,-13.065,-3.9869,-3.0821,-6.9281,-5.89,-13.592,-13.27,-11.642,-14.209,-9.9502,-14.137,2.9333,-0.06472,-13.593,-4.7249
-3.9604,-9.1122,-9.0429,-3.0065,-9.7735,-2.1306,-5.0251,-1.0458,1.943,-3.0065,-9.7735,-6.7961,-15.175,-14.569,-10.168,-5.9701,-9.1122,-12.067,-6.8608,-11.642,-2.7832
0.0,-5.0921,-5.0825,-0.06536,-3.9482,-4.1924,-3.0151,-0.06536,-9.1122,-0.06536,-3.9482,-4.8544,-13.27,-12.618,-7.138,-5.9701,-6.0972,-12.067,-4.9191,-12.618,-4.7249
-2.9703,-0.067,-0.13201,2.8758,-1.0356,-9.3471,0.0,3.8562,-0.067,2.8758,-1.0356,-1.9417,-7.5556,-3.8374,-4.1077,-1.99,-0.067,-9.0667,5.7605,-7.7398,-4.7249
3.9604,3.9531,4.8185,4.8366,10.615,-3.1615,2.0101,3.8562,6.9682,4.8366,10.615,3.8835,-2.7937,0.06504,1.9529,0.99502,4.9581,-10.067,3.8188,-0.91057,-3.754
6.9307,0.93802,5.8086,5.817,14.498,7.1478,1.005,-3.0065,10.988,5.817,14.498,5.8252,-1.8413,0.06504,1.9529,0.99502,4.9581,-6.0667,1.877,2.0163,-3.754
1.9802,0.93802,2.8383,1.8954,11.586,11.271,3.0151,-0.06536,12.998,1.8954,11.586,4.8544,-1.8413,-0.91057,-0.06734,0.99502,3.9531,4.9333,-0.06472,-0.91057,-3.754
4.9505,7.9732,4.8185,3.8562,4.7896,6.1168,11.055,-9.8693,12.998,3.8562,4.7896,5.8252,3.873,7.8699,7.0034,9.9502,9.9832,9.9333,1.877,1.0407,7.8964
-5.9406,1.943,-1.1221,-0.06536,3.8188,-12.44,0.0,2.8758,-2.0771,-0.06536,3.8188,-3.8835,7.6825,10.797,3.9731,6.9652,6.9682,4.9333,1.877,2.0163,6.9256
-6.9307,-7.1022,-6.0726,-3.0065,1.877,-10.378,-9.0452,2.8758,-7.1022,-3.0065,1.877,-8.7379,6.7302,5.9187,-3.0976,-1.99,-3.0821,1.9333,-3.9482,2.9919,4.0129
3.9604,-6.0972,-3.1023,-0.06536,-1.0356,7.1478,-4.0201,-10.85,1.943,-0.06536,-1.0356,-0.97087,9.5873,6.8943,-0.06734,-3.9801,-6.0972,-4.0667,-2.0065,8.8455,4.9838
-2.9703,-7.1022,-8.0528,-3.9869,-5.89,-4.1924,-5.0251,8.7582,-4.0871,-3.9869,-5.89,-5.8252,7.6825,3.9675,-3.0976,-6.9652,-9.1122,-5.0667,-7.8317,8.8455,-0.84142
-3.9604,-6.0972,-7.0627,-2.0261,-5.89,-7.2852,-6.0302,1.8954,-5.0921,-2.0261,-5.89,-8.7379,8.6349,5.9187,1.9529,-3.9801,-4.0871,0.93333,-4.9191,9.8211,0.12945
-2.9703,-6.0972,-5.0825,-6.9281,-5.89,-13.471,-7.0352,-6.9281,-6.0972,-6.9281,-5.89,-9.7087,9.5873,6.8943,5.9933,0.0,2.9481,9.9333,-2.0065,10.797,4.9838
9.901,-1.072,4.8185,-3.0065,8.6731,-1.0997,-5.0251,-6.9281,0.93802,-3.0065,8.6731,-2.9126,11.492,7.8699,10.034,4.9751,8.9782,12.933,6.7314,10.797,4.0129
16.832001,4.9581,9.769,-0.06536,5.7605,11.271,1.005,2.8758,9.9832,-0.06536,5.7605,4.8544,13.397,12.748,10.034,7.9602,10.988,4.9333,2.8479,10.797,2.0712
3.9604,2.9481,5.8086,-3.0065,2.8479,-1.0997,3.0151,0.91503,1.943,-3.0065,2.8479,0.97087,8.6349,6.8943,4.9832,3.9801,5.9631,0.93333,-2.9773,8.8455,1.1003
-4.9505,-2.0771,0.85809,-3.9869,1.877,-13.471,-1.005,7.7778,-1.072,-3.9869,1.877,-5.8252,1.0159,1.0407,2.963,0.0,0.93802,1.9333,-3.9482,5.9187,-0.84142
4.9505,-0.067,4.8185,-0.06536,-1.0356,-1.0997,2.0101,-18.693001,-2.0771,-0.06536,-1.0356,0.0,-2.7937,-3.8374,7.0034,0.0,2.9481,-0.06667,-2.9773,7.8699,-3.754
16.832001,4.9581,10.759,0.91503,-2.0065,8.1787,5.0251,-8.8889,-4.0871,0.91503,-2.0065,6.7961,1.9683,-0.91057,11.044,2.9851,5.9631,2.9333,-2.0065,12.748,-1.8123
5.9406,7.9732,10.759,2.8758,-0.06472,5.0859,7.0352,2.8758,5.9631,2.8758,-0.06472,7.767,6.7302,1.0407,4.9832,4.9751,4.9581,13.933,0.90615,7.8699,4.0129
0.9901,9.9832,11.749,1.8954,5.7605,4.055,6.0302,3.8562,8.9782,1.8954,5.7605,6.7961,10.54,5.9187,5.9933,5.9701,5.9631,16.933001,1.877,7.8699,7.8964
8.9109,8.9782,13.729,-2.0261,4.7896,4.055,7.0352,-3.9869,-6.0972,-2.0261,4.7896,7.767,13.397,11.772,12.054,6.9652,7.9732,3.9333,-3.9482,13.724,9.8382
15.842,12.998,16.700001,1.8954,0.90615,9.2096,12.06,8.7582,-7.1022,1.8954,0.90615,10.68,15.302,13.724,14.074,11.94,7.9732,6.9333,7.7023,19.577,14.693
12.871,10.988,12.739,3.8562,11.586,4.055,6.0302,15.621,19.028,3.8562,11.586,6.7961,6.7302,7.8699,12.054,10.945,5.9631,5.9333,19.353001,17.625999,13.722
12.871,11.993,12.739,2.8758,7.7023,7.1478,8.0402,-5.9477,21.039,2.8758,7.7023,6.7961,7.6825,10.797,13.064,13.93,10.988,0.93333,8.6731,14.699,15.663
12.871,10.988,13.729,-3.9869,3.8188,4.055,8.0402,-1.0458,5.9631,-3.9869,3.8188,5.8252,14.349,15.675,16.094,16.915001,17.018,11.933,1.877,13.724,15.663
10.891,6.9682,11.749,-2.0261,2.8479,6.1168,1.005,-18.693001,-1.072,-2.0261,2.8479,2.9126,15.302,14.699,17.104,15.92,19.028,10.933,-0.06472,12.748,9.8382
11.881,9.9832,12.739,4.8366,-2.9773,6.1168,8.0402,-1.0458,0.93802,4.8366,-2.9773,6.7961,11.492,12.748,16.094,14.925,18.023001,9.9333,0.90615,11.772,8.8673
8.9109,10.988,12.739,4.8366,5.7605,1.9931,9.0452,11.699,-0.067,4.8366,5.7605,7.767,7.6825,8.8455,11.044,12.935,15.008,11.933,5.7605,8.8455,9.8382
1.9802,8.9782,10.759,-0.06536,8.6731,1.9931,7.0352,0.91503,-2.0771,-0.06536,8.6731,5.8252,4.8254,5.9187,4.9832,8.9552,9.9832,-1.0667,5.7605,2.9919,7.8964
5.9406,3.9531,9.769,-5.9477,-2.9773,0.9622,7.0352,0.91503,1.943,-5.9477,-2.9773,4.8544,1.9683,3.9675,5.9933,4.9751,6.9682,-4.0667,-2.0065,3.9675,3.0421
8.9109,3.9531,10.759,1.8954,6.7314,4.055,2.0101,0.91503,1.943,1.8954,6.7314,5.8252,9.5873,9.8211,10.034,7.9602,7.9732,-0.06667,-1.0356,9.8211,10.809
10.891,2.9481,8.7789,7.7778,12.557,8.1787,1.005,4.8366,0.93802,7.7778,12.557,7.767,5.7778,3.9675,4.9832,3.9801,2.9481,-0.06667,4.7896,5.9187,8.8673
4.9505,1.943,4.8185,4.8366,6.7314,9.2096,7.0352,6.7974,1.943,4.8366,6.7314,8.7379,-3.746,-3.8374,-5.1178,-2.9851,-5.0921,8.9333,4.7896,-0.91057,4.0129
-2.9703,2.9481,1.8482,1.8954,3.8188,9.2096,11.055,1.8954,-3.0821,1.8954,3.8188,7.767,-3.746,-4.813,-6.1279,-4.9751,-8.1072,4.9333,-0.06472,-2.8618,1.1003
5.9406,5.9631,7.7888,-0.06536,-4.9191,7.1478,10.05,-6.9281,3.9531,-0.06536,-4.9191,9.7087,3.873,1.0407,1.9529,0.99502,-2.0771,-1.0667,-1.0356,3.9675,3.0421
13.861,17.018,20.66,3.8562,12.557,5.0859,14.07,18.562,15.008,3.8562,12.557,17.476,16.254,13.724,17.104,15.92,14.003,14.933,12.557,17.625999,14.693
4.9505,8.9782,13.729,2.8758,16.440001,1.9931,11.055,5.817,20.034,2.8758,16.440001,12.621,7.6825,6.8943,8.0135,8.9552,7.9732,8.9333,6.7314,7.8699,6.9256
0.9901,3.9531,7.7888,2.8758,9.644,11.271,8.0402,-31.438,11.993,2.8758,9.644,9.7087,-1.8413,0.06504,-0.06734,1.99,2.9481,-11.067,4.7896,-2.8618,1.1003
-0.9901,-0.067,1.8482,-3.0065,-3.9482,1.9931,3.0151,-9.8693,-6.0972,-3.0065,-3.9482,2.9126,-5.6508,-5.7886,-2.0875,-1.99,-0.067,-3.0667,0.90615,-3.8374,-4.7249
-3.9604,-0.067,-0.13201,-8.8889,-12.686,-10.378,4.0201,12.68,-8.1072,-8.8889,-12.686,-1.9417,-7.5556,-3.8374,-2.0875,-0.99502,-0.067,-0.06667,-0.06472,-4.813,-6.6667
2.9703,8.9782,6.7987,-2.0261,-1.0356,3.0241,7.0352,-17.712,-5.0921,-2.0261,-1.0356,5.8252,0.06349,6.8943,4.9832,7.9602,7.9732,1.9333,8.6731,-0.91057,4.9838
0.9901,5.9631,4.8185,-2.0261,-2.0065,0.9622,4.0201,6.7974,-4.0871,-2.0261,-2.0065,3.8835,3.873,3.9675,0.94276,4.9751,4.9581,-1.0667,4.7896,-2.8618,3.0421
-3.9604,2.9481,1.8482,-1.0458,13.528,-4.1924,1.005,20.523001,7.9732,-1.0458,13.528,1.9417,3.873,1.0407,-3.0976,-0.99502,-0.067,-1.0667,-2.0065,-2.8618,1.1003
0.9901,1.943,0.85809,0.91503,15.469,3.0241,3.0151,1.8954,16.013,0.91503,15.469,3.8835,0.06349,-3.8374,-1.0774,-3.9801,-4.0871,1.9333,-2.9773,1.0407,-1.8123
2.9703,0.93802,0.85809,-3.0065,-1.0356,-1.0997,1.005,2.8758,7.9732,-3.0065,-1.0356,0.97087,-0.88889,-5.7886,-1.0774,-3.9801,-7.1022,-2.0667,-1.0356,4.9431,-3.754
1.9802,2.9481,-0.13201,-4.9673,-2.9773,-1.0997,3.0151,-9.8693,1.943,-4.9673,-2.9773,0.0,-1.8413,-2.8618,-2.0875,-2.9851,-8.1072,3.9333,2.8479,2.9919,-2.7832
3.9604,3.9531,1.8482,-4.9673,-5.89,3.0241,4.0201,-14.771,-14.137,-4.9673,-5.89,1.9417,-3.746,-4.813,-0.06734,-1.99,-4.0871,7.9333,-0.06472,0.06504,-1.8123
9.901,3.9531,5.8086,-3.9869,-2.9773,10.241,6.0302,-24.575001,-3.0821,-3.9869,-2.9773,4.8544,1.0159,-0.91057,7.0034,0.99502,2.9481,-3.0667,3.8188,2.0163,0.12945
19.802,8.9782,10.759,-0.06536,-2.9773,19.518999,8.0402,-10.85,2.9481,-0.06536,-2.9773,9.7087,8.6349,6.8943,13.064,7.9602,8.9782,-5.0667,4.7896,7.8699,5.9547
2.9703,9.9832,6.7987,-1.0458,2.8479,-5.2234,3.0151,14.641,2.9481,-1.0458,2.8479,2.9126,14.349,13.724,10.034,10.945,8.9782,12.933,7.7023,10.797,11.78
-1.9802,10.988,7.7888,-2.0261,5.7605,-14.502,5.0251,12.68,11.993,-2.0261,5.7605,0.97087,17.205999,18.601999,11.044,13.93,11.993,10.933,16.440001,9.8211,15.663
3.9604,10.988,9.769,-3.0065,-2.0065,-3.1615,12.06,-3.0065,22.044001,-3.0065,-2.0065,3.8835,20.063,22.504,13.064,15.92,15.008,-7.0667,21.294001,7.8699,16.634001
8.9109,8.9782,7.7888,-3.9869,-2.9773,7.1478,11.055,-22.614,2.9481,-3.9869,-2.9773,4.8544,12.444,16.65,9.0236,9.9502,8.9782,-3.0667,11.586,2.0163,10.809
5.9406,1.943,1.8482,-4.9673,-4.9191,7.1478,2.0101,-27.516001,-9.1122,-4.9673,-4.9191,0.0,2.9206,3.9675,4.9832,3.9801,2.9481,0.93333,0.90615,2.9919,7.8964
-10.891,-5.0921,-6.0726,-8.8889,-1.0356,-10.378,-8.0402,-22.614,-1.072,-8.8889,-1.0356,-9.7087,1.0159,-3.8374,-3.0976,-2.9851,-4.0871,-0.06667,-2.0065,0.06504,0.12945
-14.851,-9.1122,-10.033,-5.9477,3.8188,-11.409,-8.0402,-9.8693,-0.067,-5.9477,3.8188,-9.7087,-8.5079,-12.618,-11.178,-9.9502,-12.127,-3.0667,-4.9191,-7.7398,-8.6084
-1.9802,-8.1072,-7.0627,-8.8889,-2.9773,-11.409,-1.005,15.621,3.9531,-8.8889,-2.9773,-4.8544,-10.413,-14.569,-7.138,-10.945,-11.122,-17.066999,-3.9482,-4.813,-8.6084
-8.9109,-9.1122,-9.0429,-10.85,-7.8317,-16.563999,-6.0302,18.562,-8.1072,-10.85,-7.8317,-9.7087,-9.4603,-16.52,-7.138,-12.935,-13.132,-7.0667,0.90615,-1.8862,-9.5793
-16.832001,-14.137,-13.993,-8.8889,-2.0065,-19.656,-15.075,-11.83,1.943,-8.8889,-2.0065,-15.534,-12.317,-18.472,-11.178,-14.925,-16.146999,1.9333,-2.0065,-3.8374,-9.5793
-18.812,-13.132,-16.964001,-11.83,-11.715,-21.718,-11.055,-8.8889,17.018,-11.83,-11.715,-14.563,-16.127001,-18.472,-17.239,-14.925,-19.162001,-4.0667,-1.0356,-11.642,-8.6084
-15.842,-9.1122,-14.983,-11.83,-15.599,-18.625,-5.0251,-3.0065,-7.1022,-11.83,-15.599,-12.621,-11.365,-12.618,-14.209,-11.94,-16.146999,-7.0667,1.877,-9.6911,-5.6958
-11.881,-9.1122,-11.023,-10.85,-2.0065,-15.533,-8.0402,-17.712,-0.067,-10.85,-2.0065,-11.65,-5.6508,-5.7886,-7.138,-8.9552,-11.122,3.9333,-2.0065,-2.8618,-3.754
-3.9604,-8.1072,-8.0528,-6.9281,-1.0356,-6.2543,-11.055,-21.634001,-3.0821,-6.9281,-1.0356,-8.7379,-3.746,-3.8374,-2.0875,-4.9751,-6.0972,-2.0667,-0.06472,-0.91057,-0.84142
-11.881,-10.117,-11.023,-5.9477,-7.8317,-11.409,-9.0452,-6.9281,-18.157,-5.9477,-7.8317,-10.68,-8.5079,-2.8618,-4.1077,-4.9751,-7.1022,-6.0667,-1.0356,-3.8374,4.0129
-11.881,-13.132,-12.013,-8.8889,-8.8026,-14.502,-8.0402,10.719,0.93802,-8.8889,-8.8026,-9.7087,-8.5079,-6.7642,-7.138,-7.9602,-7.1022,-11.067,-5.89,-8.7154,-0.84142
-2.9703,-11.122,-7.0627,-3.9869,-5.89,4.055,-5.0251,-33.398998,9.9832,-3.9869,-5.89,-2.9126,-6.6032,-8.7154,-8.1481,-8.9552,-5.0921,-15.067,0.90615,-10.667,-5.6958
-14.851,-11.122,-9.0429,-9.8693,-11.715,-12.44,-6.0302,-13.791,-0.067,-9.8693,-11.715,-9.7087,-6.6032,-8.7154,-11.178,-10.945,-8.1072,-2.0667,0.90615,-11.642,-9.5793
-18.812,-15.142,-13.003,-14.771,-8.8026,-25.841999,-11.055,20.523001,-5.0921,-14.771,-8.8026,-16.504999,-8.5079,-7.7398,-13.199,-13.93,-11.122,2.9333,-12.686,-9.6911,-11.521
-14.851,-16.146999,-14.983,-10.85,-5.89,-14.502,-10.05,-0.06536,-8.1072,-10.85,-5.89,-13.592,-10.413,-11.642,-13.199,-13.93,-14.137,-9.0667,-9.7735,-7.7398,-11.521
-12.871,-11.122,-12.013,-4.9673,-5.89,-11.409,-6.0302,-10.85,-1.072,-4.9673,-5.89,-8.7379,-8.5079,-11.642,-10.168,-8.9552,-10.117,-7.0667,-0.06472,-5.7886,-2.7832
0.9901,-3.0821,-0.13201,-0.06536,5.7605,9.2096,3.0151,-40.261002,3.9531,-0.06536,5.7605,5.8252,-0.88889,-1.8862,-0.06734,0.0,-1.072,-1.0667,4.7896,2.9919,5.9547
-4.9505,-8.1072,-2.1122,-0.06536,-0.06472,-0.06873,-1.005,-2.0261,6.9682,-0.06536,-0.06472,1.9417,-3.746,-1.8862,-2.0875,-6.9652,-4.0871,-0.06667,-3.9482,1.0407,-0.84142
-12.871,-16.146999,-12.013,-3.0065,-7.8317,-16.563999,-7.0352,16.601,0.93802,-3.0065,-7.8317,-8.7379,-9.4603,-9.6911,-12.189,-16.915001,-15.142,-15.067,-9.7735,-6.7642,-6.6667
-18.812,-17.152,-15.974,-4.9673,1.877,-12.44,-11.055,2.8758,-11.122,-4.9673,1.877,-9.7087,-16.127001,-16.52,-20.268999,-20.896,-21.173,-9.0667,-9.7735,-13.593,-9.5793
-21.782,-15.142,-13.993,-6.9281,0.90615,-13.471,-11.055,-5.9477,-0.067,-6.9281,0.90615,-8.7379,-17.079,-15.545,-21.278999,-18.905001,-20.167999,-5.0667,-5.89,-16.52,-12.492
-8.9109,-12.127,-9.0429,-4.9673,-2.0065,-7.2852,-4.0201,-12.81,-6.0972,-4.9673,-2.0065,-3.8835,-18.032,-14.569,-15.219,-12.935,-14.137,-15.067,-6.8608,-14.569,-13.463
-11.881,-5.0921,-6.0726,0.91503,0.90615,-9.3471,0.0,-1.0458,1.943,0.91503,0.90615,-0.97087,-10.413,-5.7886,-9.1582,-2.9851,-5.0921,-12.067,-0.06472,-10.667,-1.8123
-11.881,-6.0972,-6.0726,-0.06536,4.7896,-9.3471,-3.0151,-19.673,18.023001,-0.06536,4.7896,0.0,-3.746,1.0407,-8.1481,0.99502,-2.0771,-12.067,0.90615,-9.6911,4.9838
-9.901,-9.1122,-6.0726,-0.06536,5.7605,-1.0997,-5.0251,-31.438,8.9782,-0.06536,5.7605,-1.9417,-5.6508,-2.8618,-9.1582,-3.9801,-4.0871,-22.066999,0.90615,-9.6911,0.12945
-11.881,-5.0921,-2.1122,-2.0261,-0.06472,-7.2852,0.0,4.8366,3.9531,-2.0261,-0.06472,-1.9417,-8.5079,-6.7642,-9.1582,-5.9701,-5.0921,-4.0667,2.8479,-11.642,-3.754
-7.9208,-5.0921,0.85809,-4.9673,-11.715,-3.1615,3.0151,26.405001,-13.132,-4.9673,-11.715,0.97087,-13.27,-14.569,-10.168,-9.9502,-7.1022,10.933,-8.8026,-12.618,-12.492
-10.891,-7.1022,-4.0924,0.91503,-1.0356,-5.2234,-3.0151,7.7778,-19.162001,0.91503,-1.0356,-2.9126,-18.983999,-19.447001,-16.229,-14.925,-12.127,-8.0667,-13.657,-17.496,-20.259001
-19.802,-16.146999,-13.993,2.8758,3.8188,-15.533,-10.05,-8.8889,-0.067,2.8758,3.8188,-9.7087,-23.746,-21.398001,-23.299999,-17.91,-17.152,-23.066999,-13.657,-24.325001,-19.288
-17.822001,-15.142,-12.013,-1.0458,-2.0065,-11.409,-12.06,-11.83,-1.072,-1.0458,-2.0065,-9.7087,-11.365,-9.6911,-14.209,-9.9502,-12.127,-14.067,-7.8317,-11.642,-3.754
-13.861,-10.117,-9.0429,-3.0065,-2.9773,-9.3471,-10.05,-21.634001,-5.0921,-3.0065,-2.9773,-8.7379,-2.7937,-0.91057,-8.1481,-6.9652,-10.117,-10.067,-2.0065,-0.91057,4.0129
-4.9505,-9.1122,-7.0627,-1.0458,-0.06472,-2.1306,-2.0101,-10.85,1.943,-1.0458,-0.06472,-3.8835,-5.6508,-2.8618,-7.138,-8.9552,-10.117,-14.067,-3.9482,-2.8618,3.0421
-15.842,-13.132,-13.003,-4.9673,-4.9191,-14.502,-8.0402,3.8562,-9.1122,-4.9673,-4.9191,-9.7087,-14.222,-12.618,-13.199,-13.93,-14.137,-8.0667,-8.8026,-9.6911,-3.754
-12.871,-14.137,-11.023,-5.9477,-1.0356,-9.3471,-13.065,-8.8889,-9.1122,-5.9477,-1.0356,-9.7087,-15.175,-13.593,-15.219,-11.94,-11.122,-11.067,-6.8608,-16.52,-6.6667
-16.832001,-14.137,-11.023,-6.9281,-5.89,-10.378,-10.05,-15.752,-11.122,-6.9281,-5.89,-9.7087,-11.365,-12.618,-14.209,-8.9552,-7.1022,-13.067,-14.628,-16.52,-9.5793
-15.842,-8.1072,-8.0528,-3.0065,-8.8026,-12.44,-5.0251,-3.9869,-9.1122,-3.0065,-8.8026,-6.7961,-9.4603,-6.7642,-9.1582,-2.9851,-3.0821,-10.067,-6.8608,-12.618,-6.6667
-2.9703,-1.072,-1.1221,1.8954,-2.0065,5.0859,1.005,-11.83,1.943,1.8954,-2.0065,1.9417,-2.7937,0.06504,-4.1077,3.9801,1.943,-16.066999,-1.0356,-5.7886,-1.8123
-8.9109,-1.072,-1.1221,2.8758,7.7023,-4.1924,1.005,-7.9085,8.9782,2.8758,7.7023,0.97087,-2.7937,0.06504,-8.1481,2.9851,-0.067,-6.0667,-2.0065,-4.813,-2.7832
-17.822001,-8.1072,-8.0528,-0.06536,0.90615,-10.378,-7.0352,-6.9281,-15.142,-0.06536,0.90615,-7.767,-5.6508,-2.8618,-15.219,-5.9701,-8.1072,-9.0667,-2.0065,-9.6911,-6.6667
-18.812,-13.132,-13.993,-3.9869,-5.89,-14.502,-13.065,5.817,-22.177999,-3.9869,-5.89,-14.563,-1.8413,-0.91057,-12.189,-8.9552,-11.122,-9.0667,-5.89,-7.7398,-0.84142
-24.752001,-17.152,-19.934,-12.81,-18.511,-26.872999,-19.094999,-3.9869,-18.157,-12.81,-18.511,-21.358999,-0.88889,1.0407,-10.168,-11.94,-13.132,-9.0667,-12.686,-5.7886,-0.84142
-17.822001,-13.132,-13.993,-11.83,-17.540001,-17.594999,-16.08,-13.791,-7.1022,-11.83,-17.540001,-15.534,4.8254,8.8455,-1.0774,-4.9751,-4.0871,-13.067,-2.9773,-0.91057,2.0712
-4.9505,-7.1022,-5.0825,-3.0065,-4.9191,-9.3471,-10.05,-13.791,4.9581,-3.0065,-4.9191,-8.7379,14.349,15.675,7.0034,5.9701,7.9732,-8.0667,0.90615,3.9675,11.78
-4.9505,-2.0771,-0.13201,1.8954,4.7896,-5.2234,-9.0452,-3.0065,-14.137,1.8954,4.7896,-5.8252,16.254,16.65,7.0034,11.94,12.998,-6.0667,-4.9191,2.0163,12.751
1.9802,5.9631,5.8086,-1.0458,3.8188,-0.06873,-6.0302,5.817,-16.146999,-1.0458,3.8188,-1.9417,16.254,18.601999,9.0236,16.915001,14.003,-2.0667,5.7605,6.8943,14.693
0.0,1.943,0.85809,-0.06536,1.877,-4.1924,-6.0302,1.8954,0.93802,-0.06536,1.877,-2.9126,10.54,13.724,3.9731,8.9552,4.9581,2.9333,1.877,8.8455,9.8382
-10.891,-6.0972,-6.0726,-2.0261,-2.9773,-12.44,-8.0402,-0.06536,4.9581,-2.0261,-2.9773,-6.7961,4.8254,6.8943,-0.06734,1.99,-2.0771,-6.0667,-2.9773,6.8943,5.9547
-0.9901,-3.0821,-4.0924,-4.9673,-8.8026,0.9622,1.005,-17.712,5.9631,-4.9673,-8.8026,0.97087,-3.746,1.0407,2.963,3.9801,-0.067,-12.067,0.90615,2.9919,9.8382
-5.9406,-1.072,-3.1023,-3.0065,-4.9191,7.1478,3.0151,-25.556,-12.127,-3.0065,-4.9191,2.9126,-2.7937,2.0163,-0.06734,4.9751,1.943,-6.0667,0.90615,-0.91057,11.78
-9.901,-2.0771,-3.1023,-1.0458,-1.0356,-6.2543,-4.0201,2.8758,-23.183001,-1.0458,-1.0356,-1.9417,-1.8413,2.9919,-4.1077,4.9751,1.943,-4.0667,0.90615,-3.8374,7.8964
-4.9505,-4.0871,-3.1023,-0.06536,-2.0065,-1.0997,-7.0352,3.8562,-3.0821,-0.06536,-2.0065,-2.9126,-0.88889,4.9431,-1.0774,2.9851,2.9481,-10.067,1.877,-2.8618,2.0712
-2.9703,-7.1022,-7.0627,-1.0458,-1.0356,-8.3162,-7.0352,-4.9673,4.9581,-1.0458,-1.0356,-5.8252,0.06349,4.9431,-3.0976,0.99502,-1.072,-16.066999,-1.0356,-2.8618,2.0712
-17.822001,-18.157,-16.964001,-9.8693,-4.9191,-23.780001,-14.07,-2.0261,-16.146999,-9.8693,-4.9191,-13.592,-7.5556,-5.7886,-12.189,-8.9552,-12.127,-7.0667,-4.9191,-8.7154,-4.7249
-16.832001,-18.157,-14.983,-7.9085,-2.0065,-11.409,-15.075,-1.0458,-17.152,-7.9085,-2.0065,-10.68,-5.6508,-6.7642,-11.178,-11.94,-14.137,-7.0667,-1.0356,-7.7398,-5.6958
-4.9505,-14.137,-9.0429,-3.0065,-3.9482,-8.3162,-13.065,2.8758,-8.1072,-3.0065,-3.9482,-7.767,-9.4603,-9.6911,-8.1481,-10.945,-12.127,-11.067,-4.9191,-6.7642,-3.754
-3.9604,-4.0871,-3.1023,-4.9673,-10.744,-7.2852,-4.0201,-10.85,-6.0972,-4.9673,-10.744,-3.8835,-9.4603,-8.7154,-5.1178,-5.9701,-6.0972,-3.0667,-5.89,-4.813,-4.7249
2.9703,7.9732,4.8185,-4.9673,-8.8026,1.9931,1.005,-2.0261,-19.162001,-4.9673,-8.8026,1.9417,-0.88889,-0.91057,0.94276,3.9801,3.9531,-6.0667,-8.8026,0.06504,4.0129
0.9901,6.9682,5.8086,-3.9869,-5.89,-3.1615,2.0101,-14.771,-7.1022,-3.9869,-5.89,0.0,7.6825,8.8455,5.9933,10.945,9.9832,0.93333,-2.9773,6.8943,12.751
-5.9406,-0.067,-1.1221,-8.8889,-2.9773,-9.3471,-3.0151,-10.85,10.988,-8.8889,-2.9773,-5.8252,11.492,13.724,5.9933,10.945,8.9782,-1.0667,7.7023,9.8211,11.78
-7.9208,-0.067,-6.0726,-5.9477,3.8188,-12.44,-2.0101,-3.9869,15.008,-5.9477,3.8188,-7.767,12.444,12.748,4.9832,8.9552,6.9682,-9.0667,9.644,11.772,10.809
0.9901,1.943,-2.1122,-0.06536,0.90615,-4.1924,0.0,-15.752,-1.072,-0.06536,0.90615,-3.8835,9.5873,11.772,5.9933,8.9552,7.9732,-10.067,2.8479,8.8455,10.809
-3.9604,2.9481,0.85809,-3.0065,-5.89,-6.2543,0.0,-2.0261,-13.132,-3.0065,-5.89,-3.8835,6.7302,9.8211,7.0034,8.9552,8.9782,-2.0667,-2.9773,4.9431,7.8964
-1.9802,1.943,1.8482,0.91503,-2.9773,-1.0997,-1.005,5.817,-10.117,0.91503,-2.9773,-0.97087,1.9683,3.9675,9.0236,5.9701,7.9732,0.93333,0.90615,3.9675,2.0712
5.9406,0.93802,2.8383,-3.0065,-0.06472,3.0241,-1.005,4.8366,0.93802,-3.0065,-0.06472,1.9417,1.0159,0.06504,8.0135,1.99,4.9581,-7.0667,3.8188,5.9187,0.12945
7.9208,0.93802,1.8482,-1.0458,0.90615,5.0859,6.0302,-11.83,0.93802,-1.0458,0.90615,3.8835,-0.88889,-2.8618,1.9529,-1.99,-0.067,1.9333,-0.06472,3.9675,-2.7832
3.9604,2.9481,0.85809,2.8758,3.8188,0.9622,6.0302,-14.771,-7.1022,2.8758,3.8188,2.9126,1.0159,2.0163,0.94276,0.0,-0.067,-6.0667,10.615,2.0163,1.1003
0.9901,3.9531,4.8185,7.7778,6.7314,9.2096,7.0352,-1.0458,7.9732,7.7778,6.7314,5.8252,2.9206,2.0163,-0.06734,1.99,1.943,-4.0667,0.90615,-2.8618,1.1003
0.0,4.9581,6.7987,1.8954,-5.89,7.1478,3.0151,-11.83,-13.132,1.8954,-5.89,5.8252,-0.88889,-0.91057,0.94276,1.99,1.943,2.9333,-6.8608,-2.8618,2.0712
-4.9505,-0.067,0.85809,-4.9673,-9.7735,-8.3162,-3.0151,2.8758,-12.127,-4.9673,-9.7735,-1.9417,-5.6508,-3.8374,-0.06734,0.0,-0.067,-2.0667,-4.9191,-2.8618,-0.84142
-1.9802,-8.1072,-5.0825,-14.771,-6.8608,-11.409,-11.055,0.91503,1.943,-14.771,-6.8608,-6.7961,-9.4603,-8.7154,-2.0875,-4.9751,-3.0821,-0.06667,-2.9773,-4.813,-6.6667
-3.9604,-6.0972,-6.0726,-6.9281,-2.9773,-4.1924,-7.0352,0.91503,-9.1122,-6.9281,-2.9773,-4.8544,-7.5556,-7.7398,-0.06734,-3.9801,-1.072,2.9333,-0.06472,-2.8618,-6.6667
2.9703,6.9682,4.8185,3.8562,6.7314,3.0241,6.0302,-2.0261,4.9581,3.8562,6.7314,4.8544,1.0159,2.0163,5.9933,4.9751,6.9682,-1.0667,3.8188,2.0163,2.0712
6.9307,7.9732,8.7789,2.8758,3.8188,8.1787,8.0402,-9.8693,7.9732,2.8758,3.8188,6.7961,1.9683,-0.91057,5.9933,5.9701,6.9682,-4.0667,0.90615,1.0407,0.12945
-2.9703,0.93802,0.85809,-2.0261,-13.657,-3.1615,5.0251,0.91503,-16.146999,-2.0261,-13.657,0.0,-11.365,-14.569,-5.1178,-2.9851,-3.0821,-2.0667,-11.715,-8.7154,-7.6375
-8.9109,-3.0821,-4.0924,-6.9281,-7.8317,-8.3162,2.0101,10.719,-4.0871,-6.9281,-7.8317,-0.97087,-13.27,-13.593,-9.1582,-7.9602,-8.1072,-3.0667,-4.9191,-11.642,-11.521
-4.9505,-3.0821,-4.0924,-4.9673,9.644,-6.2543,-3.0151,5.817,14.003,-4.9673,9.644,-0.97087,-9.4603,-10.667,-7.138,-7.9602,-8.1072,-8.0667,4.7896,-8.7154,-10.55
-4.9505,1.943,-0.13201,-3.9869,5.7605,-0.06873,2.0101,-7.9085,8.9782,-3.9869,5.7605,0.97087,-9.4603,-7.7398,-5.1178,-3.9801,-5.0921,3.9333,0.90615,-5.7886,-4.7249
5.9406,8.9782,6.7987,0.91503,-2.9773,7.1478,8.0402,-10.85,-4.0871,0.91503,-2.9773,6.7961,-11.365,-4.813,3.9731,2.9851,1.943,6.9333,-0.06472,-1.8862,1.1003
16.832001,15.008,10.759,1.8954,-0.06472,6.1168,10.05,-7.9085,-3.0821,1.8954,-0.06472,7.767,-2.7937,0.06504,9.0236,8.9552,8.9782,0.93333,9.644,2.9919,6.9256
3.9604,10.988,5.8086,-5.9477,-4.9191,3.0241,6.0302,5.817,6.9682,-5.9477,-4.9191,2.9126,2.9206,2.9919,5.9933,9.9502,7.9732,-0.06667,7.7023,0.06504,9.8382
-4.9505,5.9631,1.8482,-6.9281,-6.8608,-6.2543,0.0,23.464001,6.9682,-6.9281,-6.8608,-2.9126,3.873,3.9675,4.9832,7.9602,5.9631,0.93333,7.7023,-0.91057,6.9256
1.9802,6.9682,3.8284,-4.9673,-2.9773,-1.0997,4.0201,-13.791,10.988,-4.9673,-2.9773,0.97087,7.6825,7.8699,10.034,8.9552,7.9732,2.9333,8.6731,6.8943,7.8964
5.9406,8.9782,3.8284,-3.0065,-2.0065,6.1168,9.0452,-15.752,3.9531,-3.0065,-2.0065,4.8544,6.7302,9.8211,9.0236,9.9502,7.9732,-3.0667,10.615,9.8211,10.809
-0.9901,2.9481,-2.1122,-3.9869,2.8479,-0.06873,3.0151,2.8758,-2.0771,-3.9869,2.8479,0.0,-2.7937,-4.813,-1.0774,2.9851,-0.067,2.9333,5.7605,2.0163,2.0712
-4.9505,1.943,-2.1122,-3.9869,-2.9773,-4.1924,2.0101,3.8562,-3.0821,-3.9869,-2.9773,-1.9417,-6.6032,-9.6911,-4.1077,-1.99,-4.0871,-1.0667,1.877,-3.8374,-4.7249
4.9505,3.9531,3.8284,-3.9869,-6.8608,4.055,4.0201,-7.9085,-1.072,-3.9869,-6.8608,1.9417,-2.7937,-2.8618,1.9529,0.0,-0.067,-14.067,1.877,-2.8618,-2.7832
-2.9703,1.943,0.85809,-9.8693,-2.0065,-4.1924,-2.0101,-5.9477,3.9531,-9.8693,-2.0065,-2.9126,-2.7937,-2.8618,-0.06734,-1.99,-3.0821,-7.0667,1.877,-0.91057,-0.84142
-9.901,-0.067,-2.1122,-8.8889,-3.9482,-12.44,-1.005,-4.9673,3.9531,-8.8889,-3.9482,-3.8835,-7.5556,-8.7154,-7.138,-4.9751,-6.0972,-6.0667,-2.9773,-3.8374,-2.7832
-0.9901,4.9581,3.8284,-3.0065,-3.9482,-2.1306,2.0101,-3.0065,6.9682,-3.0065,-3.9482,1.9417,-7.5556,-4.813,-6.1279,-0.99502,-3.0821,-12.067,-0.06472,-6.7642,-0.84142
-2.9703,5.9631,6.7987,-6.9281,-2.0065,-3.1615,-3.0151,-10.85,2.9481,-6.9281,-2.0065,1.9417,-14.222,-4.813,-1.0774,1.99,-0.067,-6.0667,2.8479,-12.618,-0.84142
-0.9901,5.9631,8.7789,-5.9477,-9.7735,-3.1615,-1.005,-3.9869,-10.117,-5.9477,-9.7735,1.9417,-7.5556,-2.8618,-0.06734,2.9851,1.943,1.9333,-1.0356,-9.6911,1.1003
5.9406,4.9581,6.7987,-5.9477,-10.744,3.0241,2.0101,-19.673,-0.067,-5.9477,-10.744,1.9417,4.8254,5.9187,2.963,5.9701,3.9531,3.9333,-2.9773,-0.91057,6.9256
0.9901,1.943,1.8482,-8.8889,-6.8608,-5.2234,1.005,1.8954,-0.067,-8.8889,-6.8608,-1.9417,1.9683,3.9675,1.9529,3.9801,0.93802,1.9333,2.8479,2.0163,4.9838
-1.9802,-2.0771,-0.13201,-3.9869,-0.06472,1.9931,0.0,-8.8889,-6.0972,-3.9869,-0.06472,0.0,-3.746,-4.813,-2.0875,-2.9851,-2.0771,-3.0667,-0.06472,-2.8618,-5.6958
-3.9604,-8.1072,-4.0924,-9.8693,-1.0356,0.9622,-6.0302,-17.712,-2.0771,-9.8693,-1.0356,-3.8835,-11.365,-11.642,-6.1279,-9.9502,-7.1022,-7.0667,-5.89,-9.6911,-12.492
0.9901,-7.1022,-5.0825,-5.9477,-1.0356,-1.0997,-3.0151,-3.9869,3.9531,-5.9477,-1.0356,-2.9126,-15.175,-14.569,-8.1481,-12.935,-12.127,-6.0667,-11.715,-12.618,-13.463
-0.9901,-5.0921,-7.0627,-3.0065,-9.7735,-3.1615,-3.0151,13.66,2.9481,-3.0065,-9.7735,-3.8835,-10.413,-9.6911,-6.1279,-9.9502,-13.132,-8.0667,-1.0356,-7.7398,-8.6084
-4.9505,-2.0771,-6.0726,-4.9673,-12.686,-3.1615,-4.0201,-1.0458,-4.0871,-4.9673,-12.686,-3.8835,-4.6984,-2.8618,-5.1178,-3.9801,-7.1022,2.9333,-1.0356,-5.7886,-1.8123
-4.9505,-2.0771,-2.1122,-4.9673,-1.0356,-8.3162,-5.0251,4.8366,-8.1072,-4.9673,-1.0356,-3.8835,-0.88889,-0.91057,-3.0976,-2.9851,-3.0821,2.9333,-7.8317,-3.8374,-2.7832
5.9406,6.9682,7.7888,-3.0065,6.7314,5.0859,3.0151,6.7974,9.9832,-3.0065,6.7314,4.8544,5.7778,4.9431,8.0135,2.9851,5.9631,-2.0667,3.8188,4.9431,1.1003
24.752001,8.9782,11.749,-0.06536,-0.06472,22.612,10.05,-16.732,8.9782,-0.06536,-0.06472,11.65,7.6825,5.9187,14.074,5.9701,8.9782,-4.0667,-1.0356,12.748,6.9256
4.9505,-1.072,1.8482,-1.0458,-10.744,6.1168,4.0201,16.601,-12.127,-1.0458,-10.744,2.9126,-0.88889,-0.91057,3.9731,-0.99502,-0.067,5.9333,-4.9191,3.9675,-0.84142
1.9802,-2.0771,-1.1221,0.91503,-2.0065,-1.0997,-3.0151,5.817,-1.072,0.91503,-2.0065,0.97087,-0.88889,-0.91057,-0.06734,-0.99502,-1.072,4.9333,-2.9773,-4.813,-2.7832
-1.9802,0.93802,-1.1221,1.8954,2.8479,-3.1615,-5.0251,-19.673,6.9682,1.8954,2.8479,-1.9417,-1.8413,5.9187,3.9731,5.9701,3.9531,-0.06667,-3.9482,-5.7886,2.0712
-3.9604,-1.072,-4.0924,-3.0065,-0.06472,-3.1615,-8.0402,-10.85,-4.0871,-3.0065,-0.06472,-6.7961,-3.746,2.0163,1.9529,3.9801,2.9481,-9.0667,0.90615,-6.7642,0.12945
5.9406,-2.0771,-3.1023,-6.9281,-5.89,0.9622,-7.0352,-5.9477,-12.127,-6.9281,-5.89,-5.8252,-1.8413,-2.8618,3.9731,1.99,1.943,-13.067,5.7605,0.06504,0.12945
4.9505,-3.0821,-5.0825,-8.8889,-14.628,4.055,-4.0201,-8.8889,-10.117,-8.8889,-14.628,-4.8544,-8.5079,-9.6911,-4.1077,-1.99,-5.0921,-10.067,6.7314,-5.7886,-1.8123
-15.842,-10.117,-12.013,-7.9085,-8.8026,-4.1924,-9.0452,0.91503,3.9531,-7.9085,-8.8026,-8.7379,-18.032,-14.569,-19.259001,-10.945,-15.142,-8.0667,-6.8608,-21.398001,-9.5793
-20.792,-10.117,-12.013,-3.9869,-0.06472,-15.533,-8.0402,11.699,6.9682,-3.9869,-0.06472,-8.7379,-20.889,-18.472,-21.278999,-13.93,-19.162001,-3.0667,-10.744,-22.374001,-11.521
-9.901,-10.117,-10.033,-5.9477,-3.9482,-9.3471,-8.0402,-3.9869,-12.127,-5.9477,-3.9482,-7.767,-19.937,-18.472,-19.259001,-16.915001,-21.173,-6.0667,-12.686,-21.398001,-15.405
-12.871,-9.1122,-10.033,-4.9673,-6.8608,-7.2852,-8.0402,4.8366,-17.152,-4.9673,-6.8608,-7.767,-14.222,-13.593,-15.219,-17.91,-19.162001,0.93333,-12.686,-13.593,-15.405
-11.881,-10.117,-9.0429,-2.0261,-1.0356,-4.1924,-7.0352,13.66,-4.0871,-2.0261,-1.0356,-6.7961,-15.175,-13.593,-12.189,-14.925,-15.142,2.9333,-7.8317,-12.618,-12.492
-11.881,-9.1122,-7.0627,-3.0065,-3.9482,-9.3471,-7.0352,7.7778,4.9581,-3.0065,-3.9482,-6.7961,-18.983999,-16.52,-15.219,-13.93,-15.142,-7.0667,-6.8608,-17.496,-14.434
-4.9505,-8.1072,-7.0627,-3.9869,-6.8608,-6.2543,-2.0101,-4.9673,-0.067,-3.9869,-6.8608,-3.8835,-19.937,-17.496,-16.229,-15.92,-18.157,-5.0667,-6.8608,-18.472,-16.375
-4.9505,-12.127,-8.0528,-3.9869,-1.0356,-5.2234,-6.0302,4.8366,-9.1122,-3.9869,-1.0356,-2.9126,-18.032,-19.447001,-15.219,-18.905001,-20.167999,4.9333,-2.9773,-13.593,-20.259001
0.0,-13.132,-8.0528,-1.0458,-2.9773,10.241,-6.0302,-43.202999,-13.132,-1.0458,-2.9773,-0.97087,-17.079,-18.472,-11.178,-18.905001,-18.157,-1.0667,-10.744,-10.667,-20.259001
0.0,-15.142,-11.023,-8.8889,-9.7735,10.241,-11.055,-26.535999,-17.152,-8.8889,-9.7735,-5.8252,-17.079,-18.472,-13.199,-16.915001,-16.146999,-16.066999,-22.395,-14.569,-17.346001
-13.861,-17.152,-14.983,-11.83,-9.7735,-15.533,-14.07,30.327,-10.117,-11.83,-9.7735,-12.621,-15.175,-18.472,-16.229,-15.92,-15.142,-10.067,-12.686,-18.472,-15.405
-16.832001,-16.146999,-13.993,-6.9281,-11.715,-14.502,-12.06,20.523001,-8.1072,-6.9281,-11.715,-11.65,-16.127001,-15.545,-15.219,-14.925,-14.137,-4.0667,-16.57,-18.472,-18.316999
-4.9505,-10.117,-7.0627,-1.0458,-12.686,3.0241,-4.0201,-1.0458,-5.0921,-1.0458,-12.686,-4.8544,-18.032,-11.642,-9.1582,-10.945,-10.117,-6.0667,-13.657,-15.545,-16.375
-5.9406,-10.117,-8.0528,-3.9869,-2.9773,-1.0997,-9.0452,-1.0458,-4.0871,-3.9869,-2.9773,-6.7961,-16.127001,-12.618,-13.199,-11.94,-12.127,1.9333,-6.8608,-15.545,-17.346001
-9.901,-14.137,-13.003,-4.9673,-3.9482,-6.2543,-14.07,-1.0458,-9.1122,-4.9673,-3.9482,-9.7087,-17.079,-17.496,-18.249001,-16.915001,-16.146999,-1.0667,-11.715,-20.423,-23.172001
-8.9109,-15.142,-12.013,-3.9869,-7.8317,-15.533,-14.07,6.7974,-8.1072,-3.9869,-7.8317,-11.65,-16.127001,-18.472,-16.229,-17.91,-16.146999,-9.0667,-14.628,-20.423,-22.201
-2.9703,-12.127,-7.0627,-3.0065,-1.0356,-1.0997,-10.05,-18.693001,1.943,-3.0065,-1.0356,-5.8252,-16.127001,-15.545,-13.199,-15.92,-13.132,-6.0667,-8.8026,-19.447001,-17.346001
-5.9406,-10.117,-8.0528,-6.9281,-11.715,1.9931,-4.0201,-12.81,-10.117,-6.9281,-11.715,-4.8544,-18.032,-17.496,-16.229,-16.915001,-15.142,-7.0667,-5.89,-18.472,-17.346001
-17.822001,-13.132,-13.003,-11.83,-17.540001,-11.409,-8.0402,7.7778,-23.183001,-11.83,-17.540001,-11.65,-23.746,-25.301001,-23.299999,-18.905001,-20.167999,-9.0667,-9.7735,-21.398001,-15.405
-16.832001,-11.122,-10.033,-9.8693,-4.9191,-11.409,-11.055,5.817,-7.1022,-9.8693,-4.9191,-10.68,-19.937,-21.398001,-21.278999,-16.915001,-17.152,-9.0667,-11.715,-21.398001,-16.375
-3.9604,-9.1122,-4.0924,-3.9869,-5.89,3.0241,-9.0452,-21.634001,-4.0871,-3.9869,-5.89,-4.8544,-14.222,-17.496,-13.199,-15.92,-12.127,-9.0667,-14.628,-15.545,-23.172001
-2.9703,-16.146999,-6.0726,-8.8889,-14.628,-5.2234,-9.0452,7.7778,-12.127,-8.8889,-14.628,-7.767,-15.175,-19.447001,-12.189,-19.9,-13.132,-8.0667,-12.686,-14.569,-29.968
-12.871,-18.157,-9.0429,-6.9281,-9.7735,-17.594999,-14.07,19.542,-7.1022,-6.9281,-9.7735,-10.68,-18.983999,-19.447001,-18.249001,-20.896,-16.146999,-1.0667,-13.657,-16.52,-29.968
-16.832001,-12.127,-7.0627,-3.9869,-6.8608,-11.409,-11.055,5.817,-9.1122,-3.9869,-6.8608,-8.7379,-18.983999,-19.447001,-20.268999,-17.91,-15.142,-0.06667,-11.715,-20.423,-25.113001
-13.861,-11.122,-6.0726,-6.9281,-9.7735,-4.1924,-10.05,-12.81,-11.122,-6.9281,-9.7735,-7.767,-16.127001,-15.545,-16.229,-14.925,-13.132,-19.066999,-15.599,-16.52,-17.346001
-15.842,-10.117,-6.0726,-7.9085,-9.7735,-10.378,-7.0352,-11.83,-9.1122,-7.9085,-9.7735,-8.7379,-9.4603,-9.6911,-12.189,-12.935,-11.122,-6.0667,-14.628,-11.642,-11.521
-8.9109,-10.117,-7.0627,-5.9477,-11.715,-8.3162,-4.0201,-3.0065,-4.0871,-5.9477,-11.715,-7.767,-7.5556,-6.7642,-5.1178,-9.9502,-8.1072,2.9333,-4.9191,-6.7642,-11.521
-7.9208,-12.127,-10.033,-3.9869,-2.0065,-9.3471,-9.0452,0.91503,-6.0972,-3.9869,-2.0065,-8.7379,-15.175,-12.618,-13.199,-12.935,-13.132,-7.0667,-5.89,-16.52,-14.434
-5.9406,-6.0972,-4.0924,-3.0065,-0.06472,-1.0997,-1.005,-2.0261,2.9481,-3.0065,-0.06472,0.0,-17.079,-19.447001,-17.239,-15.92,-15.142,-10.067,-9.7735,-21.398001,-18.316999
-2.9703,-3.0821,-0.13201,-6.9281,-6.8608,3.0241,0.0,-8.8889,-2.0771,-6.9281,-6.8608,0.97087,-14.222,-19.447001,-14.209,-16.915001,-12.127,-3.0667,-8.8026,-18.472,-24.142
3.9604,-4.0871,0.85809,-4.9673,-8.8026,3.0241,2.0101,2.8758,-13.132,-4.9673,-8.8026,0.97087,-11.365,-14.569,-10.168,-15.92,-8.1072,-6.0667,-18.511,-10.667,-26.084
-6.9307,-5.0921,-0.13201,-5.9477,-12.686,-7.2852,5.0251,10.719,-10.117,-5.9477,-12.686,0.0,-10.413,-13.593,-10.168,-12.935,-8.1072,-5.0667,-9.7735,-8.7154,-23.172001
-7.9208,-4.0871,0.85809,1.8954,4.7896,-3.1615,0.0,-3.0065,-11.122,1.8954,4.7896,2.9126,-13.27,-15.545,-11.178,-9.9502,-8.1072,-11.067,-2.0065,-13.593,-19.288
-1.9802,-3.0821,4.8185,7.7778,13.528,5.0859,2.0101,-9.8693,9.9832,7.7778,13.528,8.7379,-16.127001,-15.545,-11.178,-8.9552,-6.0972,-9.0667,-4.9191,-18.472,-15.405
0.9901,-1.072,7.7888,4.8366,4.7896,13.333,3.0151,-23.594999,10.988,4.8366,4.7896,10.68,-14.222,-12.618,-6.1279,-5.9701,-1.072,1.9333,-0.06472,-16.52,-11.521
0.9901,-0.067,7.7888,-0.06536,-4.9191,7.1478,4.0201,10.719,-0.067,-0.06536,-4.9191,7.767,-9.4603,-8.7154,-3.0976,-2.9851,1.943,-2.0667,-3.9482,-10.667,-6.6667
-0.9901,-3.0821,3.8284,3.8562,-4.9191,-1.0997,6.0302,3.8562,-0.067,3.8562,-4.9191,4.8544,-8.5079,-7.7398,-6.1279,-2.9851,-0.067,-3.0667,-12.686,-8.7154,-10.55
6.9307,2.9481,6.7987,7.7778,6.7314,11.271,4.0201,9.7386,9.9832,7.7778,6.7314,9.7087,-4.6984,-2.8618,-3.0976,0.99502,2.9481,0.93333,-5.89,-4.813,-7.6375
6.9307,5.9631,9.769,4.8366,1.877,7.1478,6.0302,19.542,-6.0972,4.8366,1.877,10.68,-1.8413,-2.8618,0.94276,0.99502,4.9581,-6.0667,-6.8608,-2.8618,-6.6667
15.842,8.9782,16.700001,7.7778,6.7314,20.549999,17.084999,-11.83,-1.072,7.7778,6.7314,19.417,-9.4603,-9.6911,7.0034,0.0,7.9732,1.9333,-2.9773,-5.7886,-8.6084
10.891,4.9581,12.739,5.817,6.7314,12.302,13.065,6.7974,5.9631,5.817,6.7314,14.563,-18.032,-20.423,-4.1077,-6.9652,-0.067,2.9333,-4.9191,-12.618,-18.316999
-0.9901,-0.067,6.7987,6.7974,8.6731,3.0241,1.005,16.601,1.943,6.7974,8.6731,7.767,-14.222,-16.52,-11.178,-6.9652,-5.0921,-1.0667,-6.8608,-12.618,-16.375
0.0,1.943,5.8086,6.7974,10.615,10.241,1.005,5.817,10.988,6.7974,10.615,8.7379,-5.6508,-5.7886,-5.1178,-0.99502,-2.0771,0.93333,1.877,-6.7642,-7.6375
3.9604,10.988,10.759,5.817,3.8188,9.2096,11.055,6.7974,-6.0972,5.817,3.8188,12.621,10.54,9.8211,9.0236,9.9502,8.9782,1.9333,12.557,5.9187,5.9547
16.832001,12.998,16.700001,9.7386,-2.0065,17.457001,13.065,-7.9085,-1.072,9.7386,-2.0065,15.534,8.6349,6.8943,14.074,10.945,14.003,6.9333,6.7314,7.8699,7.8964
18.812,7.9732,16.700001,7.7778,-2.0065,13.333,12.06,10.719,1.943,7.7778,-2.0065,13.592,-4.6984,-3.8374,13.064,5.9701,11.993,3.9333,-2.9773,5.9187,0.12945
17.822001,9.9832,16.700001,11.699,12.557,15.395,13.065,6.7974,7.9732,11.699,12.557,14.563,-2.7937,-1.8862,11.044,7.9602,12.998,13.933,-2.9773,1.0407,2.0712
13.861,19.028,20.66,14.641,16.440001,12.302,14.07,12.68,9.9832,14.641,16.440001,16.504999,7.6825,6.8943,14.074,15.92,19.028,22.933001,1.877,4.9431,7.8964
13.861,16.013,18.68,8.7582,1.877,12.302,11.055,15.621,-0.067,8.7582,1.877,13.592,10.54,8.8455,16.094,14.925,20.034,14.933,8.6731,9.8211,5.9547
5.9406,0.93802,7.7888,-1.0458,0.90615,3.0241,-3.0151,6.7974,-2.0771,-1.0458,0.90615,1.9417,9.5873,3.9675,9.0236,5.9701,10.988,9.9333,-0.06472,7.8699,-2.7832
-6.9307,-3.0821,-1.1221,-5.9477,-2.9773,-6.2543,-10.05,-2.0261,-5.0921,-5.9477,-2.9773,-6.7961,1.0159,1.0407,-0.06734,1.99,2.9481,4.9333,-2.0065,2.9919,3.0421
0.9901,2.9481,0.85809,-1.0458,-10.744,7.1478,0.0,-13.791,-8.1072,-1.0458,-10.744,0.97087,-0.88889,2.9919,-0.06734,4.9751,1.943,-2.0667,3.8188,2.0163,6.9256
0.0,2.9481,0.85809,-3.9869,-7.8317,1.9931,5.0251,10.719,-1.072,-3.9869,-7.8317,1.9417,1.9683,3.9675,1.9529,2.9851,0.93802,6.9333,5.7605,5.9187,6.9256
7.9208,2.9481,5.8086,-4.9673,-16.57,1.9931,6.0302,7.7778,-11.122,-4.9673,-16.57,4.8544,4.8254,5.9187,7.0034,3.9801,3.9531,9.9333,2.8479,8.8455,6.9256
9.901,3.9531,7.7888,-3.0065,-11.715,-0.06873,2.0101,0.91503,-18.157,-3.0065,-11.715,4.8544,5.7778,4.9431,9.0236,6.9652,5.9631,7.9333,0.90615,10.797,10.809
10.891,12.998,11.749,4.8366,11.586,7.1478,6.0302,1.8954,8.9782,4.8366,11.586,10.68,14.349,13.724,9.0236,13.93,10.988,6.9333,1.877,12.748,17.605
9.901,12.998,12.739,7.7778,14.498,9.2096,5.0251,10.719,1.943,7.7778,14.498,11.65,15.302,16.65,9.0236,15.92,12.998,2.9333,4.7896,10.797,16.634001
2.9703,3.9531,4.8185,-0.06536,-2.0065,3.0241,1.005,3.8562,-5.0921,-0.06536,-2.0065,3.8835,7.6825,6.8943,5.9933,8.9552,8.9782,9.9333,3.8188,9.8211,10.809
1.9802,-0.067,1.8482,-3.0065,-9.7735,6.1168,1.005,-9.8693,1.943,-3.0065,-9.7735,1.9417,4.8254,6.8943,5.9933,5.9701,6.9682,8.9333,3.8188,9.8211,7.8964
2.9703,-0.067,0.85809,-1.0458,-6.8608,7.1478,1.005,-15.752,-7.1022,-1.0458,-6.8608,2.9126,4.8254,9.8211,0.94276,3.9801,4.9581,9.9333,3.8188,3.9675,6.9256
0.0,0.93802,-1.1221,-2.0261,-5.89,-1.0997,0.0,1.8954,-5.0921,-2.0261,-5.89,0.0,5.7778,8.8455,-2.0875,3.9801,2.9481,7.9333,7.7023,-0.91057,4.0129
-3.9604,-5.0921,-10.033,-7.9085,-5.89,-10.378,-8.0402,5.817,-3.0821,-7.9085,-5.89,-8.7379,4.8254,6.8943,-6.1279,-0.99502,-4.0871,-5.0667,3.8188,-1.8862,1.1003
-13.861,-11.122,-15.974,-8.8889,-11.715,-15.533,-10.05,4.8366,12.998,-8.8889,-11.715,-14.563,1.9683,3.9675,-12.189,-6.9652,-12.127,2.9333,-8.8026,-1.8862,-2.7832
-13.861,-13.132,-15.974,-7.9085,-12.686,-12.44,-12.06,-7.9085,-13.132,-7.9085,-12.686,-14.563,2.9206,2.9919,-14.209,-9.9502,-16.146999,-4.0667,-13.657,1.0407,-3.754
-11.881,-13.132,-16.964001,-7.9085,-4.9191,-4.1924,-15.075,-26.535999,-23.183001,-7.9085,-4.9191,-12.621,3.873,2.9919,-13.199,-11.94,-16.146999,-9.0667,-13.657,2.0163,-3.754
-8.9109,-11.122,-15.974,-9.8693,-6.8608,-5.2234,-11.055,-3.9869,-2.0771,-9.8693,-6.8608,-11.65,2.9206,-0.91057,-10.168,-10.945,-13.132,-4.0667,-3.9482,-0.91057,-3.754
-9.901,-10.117,-13.003,-9.8693,-8.8026,-9.3471,-9.0452,-8.8889,-3.0821,-9.8693,-8.8026,-10.68,-0.88889,-3.8374,-8.1481,-8.9552,-10.117,-3.0667,-2.0065,-5.7886,-5.6958
-9.901,-9.1122,-9.0429,-7.9085,-8.8026,-13.471,-6.0302,0.91503,-0.067,-7.9085,-8.8026,-8.7379,-4.6984,-2.8618,-4.1077,-6.9652,-7.1022,5.9333,-6.8608,-3.8374,-5.6958
-2.9703,-5.0921,-4.0924,-8.8889,-14.628,-5.2234,-3.0151,-6.9281,-7.1022,-8.8889,-14.628,-4.8544,-0.88889,-0.91057,-3.0976,-3.9801,-4.0871,-4.0667,-5.89,-0.91057,-1.8123
-2.9703,-4.0871,-5.0825,-8.8889,-9.7735,-7.2852,-4.0201,-9.8693,-0.067,-8.8889,-9.7735,-5.8252,-0.88889,-1.8862,-3.0976,-3.9801,-5.0921,-1.0667,-3.9482,-1.8862,-2.7832
-3.9604,-2.0771,-5.0825,-6.9281,-0.06472,-6.2543,-5.0251,-26.535999,-0.067,-6.9281,-0.06472,-4.8544,-4.6984,-6.7642,-4.1077,-3.9801,-5.0921,-4.0667,5.7605,-3.8374,-7.6375
-1.9802,-2.0771,-4.0924,-3.0065,-1.0356,-1.0997,-1.005,-6.9281,-3.0821,-3.0065,-1.0356,-2.9126,-1.8413,-5.7886,-1.0774,-1.99,-2.0771,-8.0667,12.557,-0.91057,-4.7249
-2.9703,-4.0871,-4.0924,-4.9673,-3.9482,-2.1306,-1.005,4.8366,-0.067,-4.9673,-3.9482,-2.9126,1.9683,2.0163,-1.0774,0.0,-0.067,-9.0667,-7.8317,0.06504,-2.7832
-12.871,-6.0972,-7.0627,-7.9085,-7.8317,-10.378,-7.0352,-6.9281,-9.1122,-7.9085,-7.8317,-6.7961,1.9683,5.9187,-5.1178,0.99502,-1.072,-10.067,-13.657,-2.8618,2.0712
-8.9109,-6.0972,-8.0528,-4.9673,-2.0065,-9.3471,-7.0352,-3.0065,-4.0871,-4.9673,-2.0065,-6.7961,2.9206,6.8943,-6.1279,-0.99502,-3.0821,-15.067,-3.9482,-2.8618,4.9838
-10.891,-12.127,-13.993,-7.9085,-5.89,-16.563999,-10.05,6.7974,-0.067,-7.9085,-5.89,-11.65,-0.88889,-3.8374,-8.1481,-9.9502,-11.122,-7.0667,-5.89,0.06504,-6.6667
-9.901,-14.137,-14.983,-5.9477,-13.657,-6.2543,-10.05,-23.594999,-11.122,-5.9477,-13.657,-11.65,1.0159,-3.8374,-7.138,-11.94,-11.122,7.9333,-5.89,1.0407,-8.6084
-3.9604,-11.122,-12.013,-6.9281,-5.89,5.0859,-12.06,-20.653999,-8.1072,-6.9281,-5.89,-9.7087,-2.7937,-4.813,-7.138,-7.9602,-9.1122,-0.06667,-15.599,-1.8862,-3.754
-4.9505,-5.0921,-8.0528,-6.9281,-2.0065,-5.2234,-11.055,-1.0458,-6.0972,-6.9281,-2.0065,-8.7379,1.9683,1.0407,-3.0976,-0.99502,-3.0821,-6.0667,-9.7735,0.06504,3.0421
-6.9307,-3.0821,-6.0726,-3.0065,-3.9482,-14.502,-7.0352,14.641,-5.0921,-3.0065,-3.9482,-9.7087,4.8254,4.9431,1.9529,1.99,2.9481,-0.06667,1.877,3.9675,1.1003
-4.9505,-1.072,-7.0627,-6.9281,-7.8317,-19.656,0.0,10.719,8.9782,-6.9281,-7.8317,-10.68,3.873,6.8943,4.9832,1.99,2.9481,-13.067,4.7896,5.9187,-0.84142
-6.9307,-3.0821,-9.0429,-7.9085,-4.9191,-15.533,-4.0201,-8.8889,1.943,-7.9085,-4.9191,-9.7087,8.6349,10.797,2.963,2.9851,1.943,-4.0667,4.7896,5.9187,4.0129
-5.9406,-4.0871,-7.0627,-5.9477,-1.0356,-8.3162,-11.055,-9.8693,-13.132,-5.9477,-1.0356,-8.7379,5.7778,4.9431,-0.06734,2.9851,0.93802,4.9333,-2.9773,4.9431,4.0129
0.0,2.9481,-2.1122,-3.9869,-8.8026,-3.1615,-3.0151,-16.732,-10.117,-3.9869,-8.8026,-3.8835,1.9683,0.06504,1.9529,3.9801,2.9481,5.9333,-2.9773,1.0407,5.9547
0.9901,-0.067,-2.1122,-3.0065,-8.8026,-6.2543,0.0,2.8758,-9.1122,-3.0065,-8.8026,-3.8835,-2.7937,-2.8618,0.94276,1.99,1.943,5.9333,-2.9773,-2.8618,2.0712
0.9901,-0.067,-1.1221,-1.0458,1.877,-5.2234,-2.0101,13.66,0.93802,-1.0458,1.877,-3.8835,0.06349,2.9919,4.9832,1.99,3.9531,-2.0667,-2.9773,3.9675,0.12945
-1.9802,-3.0821,-2.1122,-1.0458,10.615,-3.1615,-5.0251,8.7582,16.013,-1.0458,10.615,-2.9126,3.873,4.9431,0.94276,0.0,1.943,-2.0667,-6.8608,2.9919,-2.7832
1.9802,-2.0771,-2.1122,0.91503,4.7896,0.9622,-5.0251,-5.9477,1.943,0.91503,4.7896,0.0,5.7778,3.9675,-0.06734,2.9851,1.943,-13.067,-9.7735,1.0407,1.1003
-7.9208,-2.0771,-5.0825,-3.0065,-5.89,-12.44,-3.0151,-2.0261,-7.1022,-3.0065,-5.89,-4.8544,6.7302,6.8943,-1.0774,4.9751,1.943,-12.067,1.877,-2.8618,4.0129
-7.9208,-3.0821,-7.0627,-3.9869,-5.89,-9.3471,-5.0251,-17.712,-14.137,-3.9869,-5.89,-7.767,4.8254,6.8943,-2.0875,3.9801,-0.067,-0.06667,8.6731,-1.8862,3.0421
4.9505,-0.067,-3.1023,4.8366,0.90615,10.241,-4.0201,-24.575001,-7.1022,4.8366,0.90615,-0.97087,2.9206,4.9431,0.94276,3.9801,0.93802,-0.06667,1.877,1.0407,4.0129
-0.9901,-1.072,-4.0924,3.8562,6.7314,-0.06873,-4.0201,8.7582,-4.0871,3.8562,6.7314,-1.9417,1.9683,2.0163,-1.0774,0.99502,-2.0771,1.9333,-2.0065,-0.91057,4.0129
-8.9109,-6.0972,-9.0429,-0.06536,4.7896,-10.378,-3.0151,18.562,10.988,-0.06536,4.7896,-4.8544,-6.6032,-8.7154,-6.1279,-5.9701,-7.1022,3.9333,-0.06472,-7.7398,-7.6375
-2.9703,-1.072,-4.0924,1.8954,-2.0065,-1.0997,6.0302,-7.9085,12.998,1.8954,-2.0065,0.97087,-11.365,-5.7886,-0.06734,-3.9801,-2.0771,-6.0667,-2.9773,-5.7886,-9.5793
0.0,1.943,-0.13201,0.91503,-0.06472,-3.1615,6.0302,-7.9085,-1.072,0.91503,-0.06472,1.9417,-2.7937,2.9919,2.963,0.99502,2.9481,-6.0667,-3.9482,-1.8862,-2.7832
-8.9109,-4.0871,-6.0726,-1.0458,0.90615,-9.3471,-5.0251,4.8366,-10.117,-1.0458,0.90615,-5.8252,-0.88889,-1.8862,-5.1178,-2.9851,-2.0771,1.9333,-4.9191,-2.8618,-3.754
0.0,-5.0921,-7.0627,-2.0261,-2.0065,0.9622,-7.0352,-4.9673,-12.127,-2.0261,-2.0065,-5.8252,-3.746,-6.7642,-6.1279,-3.9801,-4.0871,-1.0667,-4.9191,-4.813,-4.7249
-3.9604,-0.067,-5.0825,-0.06536,-2.9773,-0.06873,-2.0101,0.91503,-0.067,-0.06536,-2.9773,-4.8544,-2.7937,-2.8618,-3.0976,0.99502,-0.067,-2.0667,1.877,-4.813,-0.84142
-3.9604,0.93802,-4.0924,1.8954,-0.06472,-3.1615,0.0,-3.9869,-1.072,1.8954,-0.06472,-4.8544,-1.8413,-1.8862,-0.06734,0.99502,0.93802,-11.067,-2.0065,-3.8374,-2.7832
1.9802,-0.067,-5.0825,1.8954,-1.0356,4.055,2.0101,-7.9085,1.943,1.8954,-1.0356,-0.97087,-3.746,-5.7886,-0.06734,-0.99502,-1.072,-11.067,-4.9191,-1.8862,-5.6958
0.9901,-1.072,-6.0726,2.8758,5.7605,4.055,1.005,-0.06536,3.9531,2.8758,5.7605,0.0,-0.88889,-2.8618,-1.0774,-2.9851,-3.0821,-3.0667,-1.0356,2.9919,-2.7832
0.9901,-4.0871,-7.0627,0.91503,6.7314,-0.06873,-3.0151,11.699,-2.0771,0.91503,6.7314,-3.8835,3.873,2.9919,1.9529,-1.99,-1.072,0.93333,-0.06472,6.8943,-1.8123
-2.9703,-2.0771,-5.0825,-5.9477,-1.0356,-9.3471,-4.0201,3.8562,-4.0871,-5.9477,-1.0356,-6.7961,2.9206,2.9919,3.9731,0.0,0.93802,1.9333,-1.0356,2.9919,-3.754
3.9604,0.93802,-0.13201,-1.0458,1.877,-4.1924,-3.0151,5.817,1.943,-1.0458,1.877,-2.9126,1.9683,-0.91057,9.0236,1.99,5.9631,8.9333,-0.06472,4.9431,-7.6375
21.782,8.9782,10.759,6.7974,-2.0065,13.333,7.0352,1.8954,-0.067,6.7974,-2.0065,8.7379,8.6349,4.9431,17.104,8.9552,12.998,14.933,16.440001,11.772,-1.8123
18.812,12.998,14.719,7.7778,-0.06472,14.364,13.065,10.719,-6.0972,7.7778,-0.06472,13.592,11.492,12.748,17.104,12.935,14.003,19.933001,9.644,14.699,7.8964
13.861,10.988,12.739,7.7778,7.7023,13.333,12.06,-14.771,5.9631,7.7778,7.7023,14.563,8.6349,12.748,13.064,11.94,9.9832,16.933001,-3.9482,12.748,13.722
14.851,9.9832,9.769,6.7974,8.6731,11.271,13.065,4.8366,18.023001,6.7974,8.6731,12.621,6.7302,6.8943,9.0236,8.9552,6.9682,5.9333,-1.0356,8.8455,11.78
12.871,6.9682,8.7789,2.8758,5.7605,6.1168,7.0352,21.503,12.998,2.8758,5.7605,6.7961,6.7302,3.9675,9.0236,5.9701,5.9631,-4.0667,4.7896,4.9431,5.9547
12.871,5.9631,7.7888,0.91503,8.6731,9.2096,1.005,8.7582,-0.067,0.91503,8.6731,4.8544,2.9206,2.0163,4.9832,3.9801,4.9581,-1.0667,0.90615,-0.91057,-0.84142
0.9901,3.9531,4.8185,0.91503,0.90615,1.9931,2.0101,18.562,-8.1072,0.91503,0.90615,1.9417,0.06349,0.06504,-5.1178,0.0,-1.072,3.9333,-1.0356,-9.6911,-7.6375
0.9901,0.93802,-0.13201,-1.0458,-5.89,5.0859,4.0201,-3.9869,-11.122,-1.0458,-5.89,0.0,-3.746,-1.8862,-3.0976,-2.9851,-3.0821,-5.0667,-3.9482,-11.642,-11.521
0.0,0.93802,-1.1221,0.91503,-1.0356,1.9931,-1.005,1.8954,2.9481,0.91503,-1.0356,0.0,-0.88889,-0.91057,0.94276,-1.99,-2.0771,2.9333,5.7605,-4.813,-7.6375
3.9604,2.9481,-0.13201,-0.06536,-2.0065,-0.06873,-1.005,19.542,3.9531,-0.06536,-2.0065,0.97087,4.8254,3.9675,5.9933,2.9851,0.93802,8.9333,5.7605,2.9919,1.1003
6.9307,3.9531,1.8482,0.91503,-0.06472,5.0859,1.005,-0.06536,1.943,0.91503,-0.06472,0.97087,0.06349,0.06504,1.9529,3.9801,0.93802,-1.0667,-2.0065,1.0407,5.9547
1.9802,4.9581,4.8185,2.8758,-0.06472,0.9622,5.0251,-7.9085,-1.072,2.8758,-0.06472,1.9417,-8.5079,-6.7642,-3.0976,2.9851,-0.067,-5.0667,-0.06472,-10.667,4.0129
5.9406,6.9682,6.7987,5.817,7.7023,12.302,11.055,-8.8889,11.993,5.817,7.7023,7.767,-5.6508,-3.8374,-2.0875,2.9851,-0.067,-10.067,2.8479,-10.667,2.0712
3.9604,6.9682,3.8284,-0.06536,5.7605,0.9622,6.0302,10.719,10.988,-0.06536,5.7605,1.9417,1.9683,2.9919,2.963,2.9851,1.943,0.93333,2.8479,-2.8618,-0.84142
8.9109,4.9581,1.8482,-1.0458,-1.0356,-2.1306,0.0,23.464001,-0.067,-1.0458,-1.0356,-0.97087,-0.88889,2.0163,5.9933,2.9851,1.943,1.9333,5.7605,2.0163,-3.754
1.9802,-0.067,-1.1221,0.91503,-2.9773,1.9931,-4.0201,-10.85,-4.0871,0.91503,-2.9773,-4.8544,-7.5556,-0.91057,3.9731,0.99502,-1.072,7.9333,4.7896,0.06504,-3.754
-3.9604,-0.067,-2.1122,-1.0458,-4.9191,0.9622,-4.0201,-0.06536,9.9832,-1.0458,-4.9191,-5.8252,0.06349,3.9675,-0.06734,1.99,-1.072,3.9333,0.90615,-0.91057,0.12945
4.9505,5.9631,1.8482,-1.0458,2.8479,-0.06873,0.0,13.66,-1.072,-1.0458,2.8479,-0.97087,7.6825,2.9919,4.9832,4.9751,2.9481,-4.0667,0.90615,2.9919,0.12945
0.0,4.9581,-1.1221,-3.9869,-1.0356,-9.3471,-3.0151,-7.9085,-9.1122,-3.9869,-1.0356,-5.8252,5.7778,-1.8862,5.9933,1.99,1.943,9.9333,-0.06472,2.9919,-0.84142
-1.9802,-3.0821,-7.0627,-3.0065,-3.9482,-10.378,-11.055,-0.06536,5.9631,-3.0065,-3.9482,-9.7087,5.7778,0.06504,1.9529,0.0,-2.0771,16.933001,-2.9773,2.9919,3.0421
-1.9802,-4.0871,-6.0726,0.91503,0.90615,-3.1615,-12.06,9.7386,2.9481,0.91503,0.90615,-8.7379,4.8254,2.9919,0.94276,0.99502,-2.0771,11.933,3.8188,3.9675,6.9256
-5.9406,-7.1022,-5.0825,-1.0458,-6.8608,-3.1615,-10.05,3.8562,-6.0972,-1.0458,-6.8608,-8.7379,-1.8413,-3.8374,-4.1077,-4.9751,-6.0972,-3.0667,2.8479,-1.8862,-2.7832
3.9604,1.943,2.8383,1.8954,-2.0065,0.9622,-1.005,26.405001,5.9631,1.8954,-2.0065,0.97087,-0.88889,-1.8862,-0.06734,-1.99,-3.0821,-3.0667,2.8479,1.0407,-0.84142
7.9208,7.9732,5.8086,0.91503,2.8479,-0.06873,5.0251,0.91503,7.9732,0.91503,2.8479,4.8544,4.8254,2.0163,4.9832,3.9801,1.943,4.9333,0.90615,5.9187,4.0129
15.842,5.9631,3.8284,-2.0261,-2.0065,4.055,2.0101,-14.771,-6.0972,-2.0261,-2.0065,0.97087,7.6825,6.8943,9.0236,6.9652,5.9631,-10.067,0.90615,4.9431,4.0129
8.9109,6.9682,4.8185,-3.0065,-5.89,0.9622,2.0101,-14.771,-21.173,-3.0065,-5.89,0.0,11.492,10.797,11.044,10.945,10.988,7.9333,-2.0065,3.9675,8.8673
2.9703,9.9832,8.7789,2.8758,0.90615,3.0241,6.0302,1.8954,-2.0771,2.8758,0.90615,5.8252,14.349,13.724,13.064,13.93,14.003,17.933001,5.7605,8.8455,11.78
1.9802,7.9732,7.7888,8.7582,9.644,-0.06873,4.0201,28.365999,25.059,8.7582,9.644,6.7961,5.7778,7.8699,8.0135,8.9552,8.9782,2.9333,8.6731,2.9919,5.9547
10.891,12.998,13.729,10.719,10.615,9.2096,11.055,28.365999,15.008,10.719,10.615,14.563,-2.7937,1.0407,8.0135,7.9602,7.9732,3.9333,9.644,0.06504,3.0421
10.891,16.013,15.71,7.7778,5.7605,12.302,16.08,2.8758,0.93802,7.7778,5.7605,17.476,4.8254,2.9919,7.0034,8.9552,7.9732,5.9333,11.586,2.0163,4.9838
15.842,14.003,15.71,4.8366,-1.0356,9.2096,15.075,7.7778,2.9481,4.8366,-1.0356,13.592,10.54,10.797,14.074,11.94,10.988,1.9333,16.440001,9.8211,10.809
11.881,3.9531,14.719,3.8562,8.6731,7.1478,5.0251,10.719,9.9832,3.8562,8.6731,10.68,10.54,10.797,12.054,6.9652,8.9782,8.9333,3.8188,10.797,6.9256
8.9109,0.93802,14.719,7.7778,18.382,9.2096,3.0151,-0.06536,10.988,7.7778,18.382,12.621,5.7778,2.0163,7.0034,0.0,3.9531,18.933001,-1.0356,9.8211,-2.7832
10.891,5.9631,15.71,9.7386,13.528,8.1787,11.055,3.8562,4.9581,9.7386,13.528,14.563,4.8254,4.9431,8.0135,3.9801,5.9631,17.933001,-1.0356,4.9431,1.1003
10.891,14.003,16.700001,10.719,8.6731,11.271,17.084999,5.817,2.9481,10.719,8.6731,16.504999,6.7302,9.8211,9.0236,10.945,10.988,3.9333,9.644,0.06504,9.8382
7.9208,14.003,13.729,4.8366,-1.0356,13.333,14.07,-3.9869,0.93802,4.8366,-1.0356,12.621,10.54,11.772,8.0135,12.935,10.988,-3.0667,9.644,2.9919,12.751
5.9406,3.9531,6.7987,2.8758,0.90615,7.1478,2.0101,15.621,3.9531,2.8758,0.90615,3.8835,10.54,5.9187,10.034,7.9602,8.9782,1.9333,2.8479,6.8943,10.809
2.9703,-1.072,2.8383,4.8366,11.586,-2.1306,0.0,10.719,12.998,4.8366,11.586,0.97087,4.8254,2.0163,3.9731,0.99502,2.9481,0.93333,4.7896,5.9187,3.0421
9.901,5.9631,8.7789,12.68,10.615,8.1787,11.055,-6.9281,17.018,12.68,10.615,10.68,1.9683,3.9675,1.9529,3.9801,4.9581,4.9333,12.557,4.9431,4.0129
-4.9505,5.9631,4.8185,6.7974,8.6731,-3.1615,7.0352,18.562,0.93802,6.7974,8.6731,4.8544,0.06349,2.9919,-3.0976,5.9701,3.9531,10.933,10.615,-2.8618,7.8964
-9.901,-0.067,-3.1023,0.91503,2.8479,-6.2543,0.0,16.601,3.9531,0.91503,2.8479,-1.9417,-7.5556,-4.813,-8.1481,0.0,-3.0821,-5.0667,2.8479,-9.6911,0.12945
0.0,1.943,-1.1221,5.817,10.615,7.1478,4.0201,-25.556,16.013,5.817,10.615,2.9126,-5.6508,-5.7886,-3.0976,-0.99502,-3.0821,-10.067,4.7896,-5.7886,-3.754
2.9703,4.9581,4.8185,8.7582,12.557,1.9931,4.0201,-9.8693,11.993,8.7582,12.557,5.8252,1.0159,0.06504,0.94276,1.99,0.93802,0.93333,7.7023,1.0407,-0.84142
10.891,7.9732,9.769,9.7386,9.644,13.333,14.07,6.7974,10.988,9.7386,9.644,11.65,6.7302,4.9431,3.9731,2.9851,4.9581,-7.0667,1.877,4.9431,1.1003
0.9901,5.9631,4.8185,-2.0261,4.7896,0.9622,10.05,19.542,0.93802,-2.0261,4.7896,3.8835,2.9206,5.9187,1.9529,1.99,2.9481,2.9333,1.877,1.0407,5.9547
-12.871,-2.0771,-4.0924,0.91503,-1.0356,-12.44,-1.005,4.8366,-1.072,0.91503,-1.0356,-3.8835,-0.88889,4.9431,-1.0774,0.0,-2.0771,7.9333,3.8188,-4.813,8.8673
-3.9604,0.93802,-0.13201,7.7778,2.8479,0.9622,5.0251,-10.85,-1.072,7.7778,2.8479,1.9417,-0.88889,1.0407,-2.0875,0.0,-1.072,0.93333,4.7896,-6.7642,3.0421
3.9604,6.9682,4.8185,4.8366,6.7314,-0.06873,9.0452,-4.9673,3.9531,4.8366,6.7314,5.8252,0.06349,0.06504,-3.0976,3.9801,0.93802,-1.0667,4.7896,-5.7886,2.0712
-5.9406,2.9481,0.85809,2.8758,8.6731,-10.378,0.0,5.817,-0.067,2.8758,8.6731,0.0,-5.6508,-4.813,-8.1481,1.99,-2.0771,-5.0667,9.644,-7.7398,1.1003
-5.9406,-0.067,-0.13201,5.817,15.469,0.9622,-1.005,-9.8693,6.9682,5.817,15.469,0.97087,-2.7937,-1.8862,-7.138,0.99502,-1.072,-1.0667,8.6731,-4.813,2.0712
-1.9802,-6.0972,-3.1023,-0.06536,1.877,8.1787,-3.0151,-22.614,4.9581,-0.06536,1.877,-1.9417,-3.746,-2.8618,-3.0976,-0.99502,-0.067,-12.067,-2.9773,-3.8374,-2.7832
-9.901,-10.117,-7.0627,-3.0065,-5.89,-11.409,-8.0402,11.699,3.9531,-3.0065,-5.89,-6.7961,-8.5079,-7.7398,-10.168,-8.9552,-7.1022,-5.0667,-5.89,-9.6911,-10.55
-0.9901,-5.0921,-2.1122,4.8366,-1.0356,1.9931,-2.0101,-6.9281,-3.0821,4.8366,-1.0356,2.9126,-11.365,-9.6911,-12.189,-9.9502,-11.122,-2.0667,-7.8317,-12.618,-11.521
1.9802,0.93802,4.8185,10.719,10.615,12.302,8.0402,6.7974,-3.0821,10.719,10.615,10.68,-7.5556,-5.7886,-9.1582,-8.9552,-9.1122,-3.0667,-5.89,-7.7398,-9.5793
0.9901,-2.0771,4.8185,5.817,6.7314,7.1478,5.0251,12.68,3.9531,5.817,6.7314,5.8252,0.06349,-1.8862,-3.0976,-7.9602,-5.0921,0.93333,-3.9482,-3.8374,-9.5793
2.9703,-0.067,5.8086,3.8562,-4.9191,4.055,9.0452,9.7386,7.9732,3.8562,-4.9191,3.8835,2.9206,0.06504,2.963,-3.9801,0.93802,7.9333,4.7896,3.9675,-7.6375
0.0,4.9581,5.8086,8.7582,11.586,0.9622,7.0352,11.699,6.9682,8.7582,11.586,4.8544,4.8254,3.9675,3.9731,0.0,3.9531,17.933001,5.7605,6.8943,-0.84142
0.0,2.9481,2.8383,5.817,16.440001,1.9931,-2.0101,2.8758,-1.072,5.817,16.440001,1.9417,-0.88889,-1.8862,-1.0774,0.99502,-0.067,-1.0667,-2.9773,-0.91057,6.9256
6.9307,10.988,8.7789,5.817,5.7605,8.1787,10.05,-6.9281,-2.0771,5.817,5.7605,9.7087,-1.8413,-3.8374,-0.06734,3.9801,0.93802,-20.066999,1.877,-2.8618,8.8673
21.782,24.054001,22.639999,12.68,17.410999,18.488001,23.115999,15.621,20.034,12.68,17.410999,21.358999,9.5873,12.748,11.044,17.91,15.008,3.9333,11.586,6.8943,13.722
16.832001,19.028,20.66,12.68,13.528,14.364,17.084999,28.365999,25.059,12.68,13.528,15.534,6.7302,14.699,12.054,17.91,17.018,16.933001,11.586,5.9187,8.8673
3.9604,8.9782,10.759,8.7582,-1.0356,7.1478,11.055,6.7974,0.93802,8.7582,-1.0356,5.8252,1.9683,5.9187,2.963,9.9502,9.9832,8.9333,8.6731,2.0163,2.0712
1.9802,2.9481,4.8185,6.7974,7.7023,6.1168,7.0352,2.8758,-1.072,6.7974,7.7023,4.8544,0.06349,-1.8862,-3.0976,0.99502,3.9531,-2.0667,-0.06472,-2.8618,-5.6958
5.9406,4.9581,4.8185,7.7778,9.644,9.2096,9.0452,-5.9477,8.9782,7.7778,9.644,6.7961,1.0159,-4.813,-0.06734,-2.9851,0.93802,2.9333,1.877,2.0163,-8.6084
13.861,5.9631,6.7987,7.7778,4.7896,17.457001,13.065,5.817,2.9481,7.7778,4.7896,10.68,0.06349,-2.8618,1.9529,-4.9751,-1.072,10.933,8.6731,2.9919,-6.6667
11.881,-0.067,4.8185,9.7386,7.7023,16.426001,7.0352,1.8954,-3.0821,9.7386,7.7023,7.767,-0.88889,-1.8862,-0.06734,-5.9701,-4.0871,7.9333,-2.0065,7.8699,-5.6958
-0.9901,-1.072,-0.13201,4.8366,1.877,-5.2234,0.0,5.817,-6.0972,4.8366,1.877,-2.9126,-2.7937,-2.8618,-4.1077,-4.9751,-6.0972,-1.0667,-12.686,2.9919,-3.754
-3.9604,4.9581,-0.13201,4.8366,-3.9482,-10.378,3.0151,17.582001,2.9481,4.8366,-3.9482,-2.9126,-1.8413,0.06504,-1.0774,-1.99,-3.0821,-4.0667,-2.9773,-1.8862,-0.84142
-5.9406,-0.067,-5.0825,1.8954,1.877,-4.1924,-1.005,8.7582,8.9782,1.8954,1.877,-3.8835,1.9683,1.0407,-2.0875,-4.9751,-6.0972,-0.06667,8.6731,-3.8374,-0.84142
-9.901,-4.0871,-11.023,-0.06536,5.7605,-1.0997,1.005,-12.81,10.988,-0.06536,5.7605,-3.8835,5.7778,3.9675,-6.1279,-4.9751,-8.1072,-1.0667,7.7023,-3.8374,4.0129
-8.9109,1.943,-8.0528,3.8562,7.7023,0.9622,6.0302,-3.0065,11.993,3.8562,7.7023,-1.9417,2.9206,7.8699,-7.138,1.99,-4.0871,-5.0667,7.7023,-3.8374,10.809
-4.9505,2.9481,-4.0924,8.7582,7.7023,0.9622,0.0,-1.0458,5.9631,8.7582,7.7023,-1.9417,3.873,10.797,-6.1279,5.9701,0.93802,-2.0667,21.294001,-3.8374,7.8964
-2.9703,0.93802,-2.1122,9.7386,8.6731,-2.1306,-2.0101,-3.0065,4.9581,9.7386,8.6731,-2.9126,5.7778,9.8211,-1.0774,4.9751,4.9581,-2.0667,14.498,-0.91057,0.12945
-6.9307,-5.0921,-6.0726,1.8954,4.7896,-13.471,-5.0251,5.817,5.9631,1.8954,4.7896,-7.767,7.6825,3.9675,-0.06734,-1.99,2.9481,-5.0667,-4.9191,2.9919,-6.6667
5.9406,-3.0821,-1.1221,3.8562,-0.06472,10.241,3.0151,-27.516001,2.9481,3.8562,-0.06472,1.9417,12.444,2.9919,5.9933,0.0,5.9631,-0.06667,-5.89,9.8211,1.1003
4.9505,1.943,3.8284,8.7582,7.7023,14.364,8.0402,6.7974,0.93802,8.7582,7.7023,6.7961,18.159,10.797,8.0135,2.9851,6.9682,15.933,-2.0065,15.675,8.8673
1.9802,2.9481,3.8284,6.7974,9.644,4.055,5.0251,24.444,4.9581,6.7974,9.644,4.8544,17.205999,12.748,8.0135,4.9751,5.9631,10.933,4.7896,16.65,12.751
12.871,2.9481,7.7888,9.7386,3.8188,13.333,6.0302,15.621,2.9481,9.7386,3.8188,8.7379,19.111,15.675,12.054,3.9801,6.9682,2.9333,4.7896,15.675,5.9547
11.881,1.943,6.7987,10.719,11.586,8.1787,3.0151,17.582001,9.9832,10.719,11.586,6.7961,16.254,15.675,11.044,0.0,4.9581,5.9333,0.90615,13.724,-2.7832
17.822001,1.943,6.7987,9.7386,8.6731,17.457001,3.0151,10.719,-2.0771,9.7386,8.6731,7.767,8.6349,5.9187,10.034,-2.9851,3.9531,9.9333,-3.9482,6.8943,-4.7249
13.861,4.9581,6.7987,4.8366,-3.9482,16.426001,8.0402,-0.06536,-6.0972,4.8366,-3.9482,7.767,6.7302,1.0407,9.0236,-0.99502,2.9481,6.9333,3.8188,5.9187,-2.7832
13.861,2.9481,3.8284,2.8758,-2.9773,8.1787,4.0201,-1.0458,2.9481,2.8758,-2.9773,3.8835,8.6349,4.9431,9.0236,3.9801,3.9531,9.9333,5.7605,9.8211,4.9838
8.9109,1.943,1.8482,4.8366,11.586,3.0241,-1.005,11.699,8.9782,4.8366,11.586,1.9417,9.5873,11.772,8.0135,8.9552,5.9631,18.933001,2.8479,12.748,10.809
-2.9703,-3.0821,-4.0924,2.8758,7.7023,-3.1615,-4.0201,14.641,8.9782,2.8758,7.7023,-2.9126,1.9683,7.8699,1.9529,8.9552,2.9481,13.933,1.877,8.8455,14.693
-2.9703,-0.067,-3.1023,2.8758,-0.06472,4.055,-2.0101,-6.9281,-0.067,2.8758,-0.06472,-1.9417,6.7302,11.772,1.9529,9.9502,3.9531,9.9333,6.7314,6.8943,17.605
13.861,1.943,2.8383,4.8366,-2.0065,15.395,-1.005,7.7778,-6.0972,4.8366,-2.0065,3.8835,14.349,11.772,9.0236,7.9602,7.9732,5.9333,6.7314,10.797,12.751
17.822001,3.9531,7.7888,6.7974,-2.0065,12.302,3.0151,18.562,-7.1022,6.7974,-2.0065,6.7961,19.111,11.772,17.104,7.9602,11.993,10.933,2.8479,17.625999,11.78
23.761999,9.9832,15.71,11.699,7.7023,15.395,8.0402,-5.9477,-0.067,11.699,7.7023,10.68,26.73,24.455,25.184999,17.91,20.034,13.933,5.7605,26.407,20.518
21.782,12.998,17.690001,11.699,11.586,14.364,4.0201,-1.0458,-0.067,11.699,11.586,11.65,26.73,28.358,22.155001,21.891001,20.034,7.9333,8.6731,25.431,23.43
17.822001,15.008,18.68,9.7386,17.410999,15.395,8.0402,0.91503,5.9631,9.7386,17.410999,14.563,23.872999,26.407,21.145,21.891001,18.023001,8.9333,7.7023,25.431,23.43
21.782,14.003,20.66,12.68,13.528,15.395,12.06,24.444,14.003,12.68,13.528,16.504999,25.778,25.431,24.174999,17.91,18.023001,17.933001,7.7023,29.333,22.459999
22.771999,20.034,23.629999,14.641,12.557,17.457001,20.101,31.306999,28.073999,14.641,12.557,19.417,22.921,22.504,23.165001,14.925,18.023001,29.933001,15.469,28.358,19.547001
14.851,24.054001,20.66,10.719,3.8188,18.488001,23.115999,15.621,9.9832,10.719,3.8188,17.476,16.254,15.675,14.074,13.93,14.003,29.933001,20.323999,20.552999,18.576
11.881,23.049,17.690001,4.8366,-2.9773,18.488001,18.09,-0.06536,-9.1122,4.8366,-2.9773,13.592,18.159,17.625999,13.064,17.91,14.003,15.933,23.236,23.48,27.313999
21.782,21.039,18.68,8.7582,11.586,19.518999,12.06,-1.0458,11.993,8.7582,11.586,13.592,24.825001,25.431,22.155001,25.871,23.049,5.9333,28.091,29.333,33.139
16.832001,16.013,17.690001,7.7778,8.6731,1.9931,2.0101,7.7778,21.039,7.7778,8.6731,5.8252,25.778,30.309,30.236,30.846001,31.089001,17.933001,23.236,32.259998,36.051998
14.851,16.013,15.71,-1.0458,0.90615,-4.1924,3.0151,23.464001,4.9581,-1.0458,0.90615,1.9417,25.778,32.259998,28.215,31.841,31.089001,18.933001,20.323999,27.382,35.081001
10.891,17.018,14.719,1.8954,0.90615,11.271,9.0452,8.7582,3.9531,1.8954,0.90615,6.7961,19.111,27.382,16.094,25.871,22.044001,9.9333,11.586,13.724,27.313999
7.9208,9.9832,10.759,5.817,-1.0356,6.1168,9.0452,1.8954,-3.0821,5.817,-1.0356,5.8252,11.492,13.724,4.9832,13.93,10.988,-3.0667,-1.0356,4.9431,12.751
14.851,8.9782,15.71,5.817,10.615,10.241,8.0402,-3.9869,7.9732,5.817,10.615,9.7087,15.302,12.748,10.034,10.945,11.993,-0.06667,3.8188,10.797,6.9256
15.842,7.9732,18.68,8.7582,16.440001,15.395,7.0352,-5.9477,6.9682,8.7582,16.440001,11.65,16.254,16.65,16.094,12.935,16.013,8.9333,-0.06472,14.699,7.8964
23.761999,11.993,22.639999,10.719,12.557,16.426001,9.0452,-2.0261,3.9531,10.719,12.557,14.563,18.159,18.601999,23.165001,17.91,23.049,11.933,4.7896,22.504,16.634001
21.782,14.003,21.65,9.7386,9.644,13.333,8.0402,24.444,5.9631,9.7386,9.644,12.621,21.016001,17.625999,26.195,18.905001,25.059,19.933001,11.586,26.407,19.547001
19.802,17.018,19.67,4.8366,-0.06472,13.333,9.0452,23.464001,4.9581,4.8366,-0.06472,10.68,21.968,19.577,27.205,18.905001,24.054001,24.933001,10.615,30.309,20.518
36.633999,24.054001,27.591,13.66,5.7605,27.766001,18.09,7.7778,6.9682,13.66,5.7605,19.417,27.683001,26.407,35.285999,27.861,31.089001,10.933,24.207001,35.187,32.167999
25.743,25.059,26.601,11.699,5.7605,17.457001,16.08,6.7974,-4.0871,11.699,5.7605,16.504999,29.587,32.259998,31.246,32.835999,31.089001,16.933001,27.120001,30.309,34.110001
17.822001,25.059,24.620001,7.7778,8.6731,19.518999,14.07,-3.0065,15.008,7.7778,8.6731,15.534,29.587,36.162998,26.195,34.826,31.089001,15.933,12.557,24.455,34.110001
22.771999,23.049,22.639999,11.699,12.557,23.643,11.055,-5.9477,29.079,11.699,12.557,14.563,27.683001,33.236,26.195,33.831001,31.089001,16.933001,9.644,25.431,33.139
27.723,17.018,17.690001,8.7582,2.8479,17.457001,6.0302,11.699,-0.067,8.7582,2.8479,9.7087,32.444,35.187,31.246,31.841,31.089001,23.933001,10.615,35.187,33.139
24.752001,14.003,15.71,8.7582,-5.89,14.364,11.055,39.150002,-13.132,8.7582,-5.89,9.7087,30.540001,31.285,32.256001,26.865999,28.073999,23.933001,10.615,36.162998,30.226999
16.832001,14.003,13.729,6.7974,2.8479,9.2096,6.0302,32.287998,-9.1122,6.7974,2.8479,6.7961,23.872999,22.504,22.155001,20.896,20.034,25.933001,9.644,26.407,19.547001
16.832001,10.988,12.739,11.699,13.528,14.364,0.0,12.68,10.988,11.699,13.528,7.767,18.159,16.65,13.064,13.93,14.003,17.933001,8.6731,16.65,12.751
9.901,7.9732,10.759,10.719,8.6731,11.271,5.0251,6.7974,20.034,10.719,8.6731,6.7961,6.7302,10.797,10.034,8.9552,9.9832,6.9333,17.410999,8.8455,10.809
10.891,9.9832,11.749,8.7582,3.8188,15.395,14.07,-1.0458,9.9832,8.7582,3.8188,8.7379,5.7778,5.9187,12.054,8.9552,8.9782,5.9333,13.528,10.797,13.722
18.812,8.9782,12.739,8.7582,0.90615,25.704,14.07,-20.653999,5.9631,8.7582,0.90615,11.65,8.6349,4.9431,13.064,7.9602,9.9832,7.9333,7.7023,10.797,9.8382
17.822001,11.993,13.729,7.7778,12.557,13.333,6.0302,15.621,2.9481,7.7778,12.557,9.7087,13.397,10.797,14.074,12.935,14.003,7.9333,9.644,11.772,11.78
12.871,20.034,17.690001,12.68,19.353001,3.0241,7.0352,31.306999,10.988,12.68,19.353001,10.68,19.111,22.504,17.104,21.891001,22.044001,-1.0667,12.557,14.699,19.547001
8.9109,25.059,19.67,11.699,10.615,10.241,18.09,20.523001,20.034,11.699,10.615,14.563,23.872999,27.382,19.125,26.865999,25.059,12.933,14.498,17.625999,23.43
31.683001,30.084,30.561001,16.601,13.528,31.889999,24.121,0.91503,20.034,16.601,13.528,25.243,33.396999,35.187,32.256001,34.826,34.104,21.933001,16.440001,28.358,30.226999
31.683001,34.104,33.530998,17.582001,8.6731,31.889999,30.150999,10.719,6.9682,17.582001,8.6731,27.184,37.206001,40.064999,36.296001,39.800999,38.124001,24.933001,23.236,34.210999,38.964001
12.871,20.034,18.68,10.719,11.586,18.488001,11.055,-7.9085,9.9832,10.719,11.586,13.592,26.73,29.333,21.145,27.861,25.059,8.9333,13.528,22.504,29.256001
4.9505,4.9581,6.7987,6.7974,12.557,11.271,-3.0151,11.699,3.9531,6.7974,12.557,3.8835,17.205999,18.601999,12.054,14.925,14.003,-1.0667,5.7605,14.699,18.576
