C3,C4,Cz,F1,F2,F3,F4,F7,F8,Fp1,Fp2,Fz,O1,O2,P3,P4,Pz,T3,T4,T5,T6
-8.594,12.444,-3.8835,2.9412,22.66,8.5024,16.504999,4.7896,24.325001,2.9412,22.66,9.8039,-21.052999,-2.9206,-16.127001,-11.538,-27.955,-4.9359,18.159,-17.646999,-5.9259
-9.5419,13.397,0.97087,31.372999,25.615999,-0.19324,21.358999,7.7023,17.496,31.372999,25.615999,9.8039,-21.052999,-1.0159,-15.175,-5.7692,-23.124001,-6.859,19.111,-18.627001,-3.9936
-3.8547,18.159,8.7379,31.372999,26.601,-1.1594,24.271999,2.8479,12.618,31.372999,26.601,15.686,-17.225,4.6984,-10.413,5.7692,-16.361,-9.7436,22.921,-16.667,4.7021
-1.9589,21.016001,13.592,7.8431,17.733999,15.266,25.243,-4.9191,16.52,7.8431,17.733999,18.627001,-15.311,4.6984,-6.6032,12.5,-13.462,-9.7436,17.205999,-13.725,8.5668
-1.0111,17.205999,15.534,3.9216,24.631001,14.3,23.301001,-4.9191,10.667,3.9216,24.631001,16.667,-13.397,6.6032,-1.8413,14.423,-9.5974,-8.7821,9.5873,-8.8235,7.6006
3.7283,15.302,16.504999,-3.9216,21.674999,-15.652,16.504999,-4.9191,7.7398,-3.9216,21.674999,12.745,-11.483,10.413,3.873,17.308001,-5.7327,-9.7436,13.397,-7.8431,9.533
6.5719,17.205999,15.534,-28.431,7.8818,-25.313999,8.7379,-15.599,-0.06504,-28.431,7.8818,11.765,-4.7847,15.175,5.7778,19.231001,-0.90177,-8.7821,4.8254,-3.9216,15.33
-0.06319,12.444,10.68,3.9216,7.8818,2.7053,0.97087,-14.628,-3.9675,3.9216,7.8818,5.8824,-2.8708,16.127001,2.9206,14.423,1.0306,-9.7436,-2.7937,-2.9412,9.533
-9.5419,7.6825,6.7961,24.51,6.8966,11.401,1.9417,-9.7735,-3.9675,24.51,6.8966,2.9412,-4.7847,10.413,-0.88889,5.7692,-3.8003,-10.705,-7.5556,-2.9412,-3.0274
-7.6461,9.5873,4.8544,0.0,24.631001,-11.787,3.8835,-8.8026,-4.9431,0.0,24.631001,0.0,-3.8278,5.6508,0.06349,-0.96154,-8.6312,-6.859,-11.365,-3.9216,-5.9259
-3.8547,7.6825,4.8544,-0.98039,31.527,-5.9903,9.7087,-0.06472,0.91057,-0.98039,31.527,1.9608,-2.8708,5.6508,0.06349,-6.7308,-11.53,3.7179,-9.4603,0.0,-9.7907
4.6761,9.5873,5.8252,5.8824,18.719,-4.058,24.271999,8.6731,11.642,5.8824,18.719,11.765,-3.8278,3.746,0.06349,-6.7308,-10.564,7.5641,-2.7937,1.9608,-10.757
8.4676,13.397,5.8252,8.8235,18.719,9.4686,22.33,13.528,14.569,8.8235,18.719,16.667,-5.7416,-1.9683,-0.88889,-4.8077,-9.5974,5.641,5.7778,-0.98039,-6.8921
14.155,12.444,8.7379,15.686,12.808,12.367,21.358999,16.440001,7.7398,15.686,12.808,19.608,-5.7416,-3.873,-2.7937,0.0,-7.6651,7.5641,12.444,-2.9412,-1.095
14.155,10.54,9.7087,29.412001,12.808,24.927999,16.504999,18.382,7.7398,29.412001,12.808,17.646999,-5.7416,-2.9206,-3.746,5.7692,-3.8003,11.41,6.7302,-1.9608,3.7359
16.051001,8.6349,11.65,27.451,24.631001,31.691,9.7087,21.294001,9.6911,27.451,24.631001,13.725,-9.5694,-3.873,-5.6508,5.7692,-2.8341,11.41,-1.8413,-4.902,2.7697
13.207,1.0159,8.7379,26.471001,30.542,10.435,1.9417,15.469,6.7642,26.471001,30.542,5.8824,-11.483,-5.7778,-7.5556,-2.8846,-5.7327,7.5641,1.0159,-3.9216,-2.0612
8.4676,-3.746,1.9417,-2.9412,11.823,3.6715,-7.767,17.410999,0.91057,-2.9412,11.823,3.9216,-12.44,-5.7778,-9.4603,-6.7308,-7.6651,13.333,4.8254,-0.98039,-2.0612
0.88468,-3.746,-8.7379,-1.9608,-7.8818,11.401,-8.7379,11.586,-5.9187,-1.9608,-7.8818,-1.9608,-15.311,-12.444,-13.27,-11.538,-14.428,13.333,1.0159,-4.902,-4.9597
-5.7504,-6.6032,-15.534,13.725,3.9409,2.7053,-4.8544,11.586,-2.9919,13.725,3.9409,-6.8627,-19.139,-21.016001,-18.983999,-16.346001,-22.158001,5.641,1.0159,-6.8627,-9.7907
-7.6461,-9.4603,-14.563,14.706,12.808,7.5362,-4.8544,8.6731,-2.0163,14.706,12.808,-4.902,-21.052999,-22.921,-24.698,-17.308001,-26.023001,4.6795,-4.6984,-9.8039,-10.757
-9.5419,-6.6032,-11.65,1.9608,4.9261,8.5024,1.9417,-0.06472,-2.0163,1.9608,4.9261,-1.9608,-17.225,-21.968,-22.794001,-17.308001,-25.056,1.7949,-0.88889,-6.8627,-7.8583
-6.6983,-1.8413,-5.8252,-2.9412,8.867,14.3,15.534,-1.0356,-7.8699,-2.9412,8.867,2.9412,-8.6124,-20.063,-18.032,-16.346001,-19.259001,-1.0897,-1.8413,-0.98039,-6.8921
5.624,5.7778,4.8544,13.725,12.808,21.063,11.65,3.8188,1.8862,13.725,12.808,10.784,-1.9139,-12.444,-12.317,-8.6538,-9.5974,-0.12821,-6.6032,2.9412,-3.9936
14.155,14.349,12.621,20.587999,11.823,8.5024,8.7379,10.615,2.8618,20.587999,11.823,11.765,4.7847,-3.873,1.9683,1.9231,2.963,6.6026,-1.8413,7.8431,6.6345
16.051001,14.349,16.504999,10.784,7.8818,10.435,2.9126,11.586,-2.0163,10.784,7.8818,11.765,7.6555,-0.06349,8.6349,6.7308,11.659,10.449,0.06349,9.8039,9.533
16.051001,7.6825,17.476,1.9608,5.9113,-1.1594,6.7961,4.7896,2.8618,1.9608,5.9113,12.745,6.6986,1.8413,11.492,4.8077,13.591,13.333,1.9683,8.8235,5.6683
17.945999,1.0159,16.504999,0.0,3.9409,12.367,12.621,8.6731,2.8618,0.0,3.9409,12.745,5.7416,-0.06349,17.205999,2.8846,12.625,16.218,2.9206,7.8431,-0.12882
16.997999,0.06349,16.504999,-18.627001,2.9557,4.6377,7.767,4.7896,-3.9675,-18.627001,2.9557,15.686,7.6555,1.8413,15.302,7.6923,14.557,13.333,-0.88889,6.8627,5.6683
12.259,0.06349,12.621,0.0,17.733999,14.3,0.0,4.7896,-0.06504,0.0,17.733999,11.765,10.526,5.6508,12.444,10.577,17.455999,12.372,-4.6984,9.8039,6.6345
13.207,2.9206,8.7379,23.528999,10.837,25.893999,7.767,16.440001,4.813,23.528999,10.837,9.8039,11.483,6.6032,12.444,9.6154,19.388,15.256,-4.6984,12.745,3.7359
9.4155,3.873,5.8252,15.686,10.837,4.6377,6.7961,8.6731,6.7642,15.686,10.837,9.8039,11.483,4.6984,9.5873,4.8077,16.49,11.41,-5.6508,10.784,-0.12882
6.5719,1.9683,5.8252,15.686,19.704,-10.821,5.8252,4.7896,0.91057,15.686,19.704,7.8431,12.44,4.6984,6.7302,1.9231,13.591,3.7179,-0.88889,7.8431,-4.9597
5.624,2.9206,5.8252,12.745,19.704,8.5024,3.8835,8.6731,5.7886,12.745,19.704,4.902,12.44,4.6984,5.7778,0.0,10.692,-0.12821,1.9683,5.8824,-5.9259
-1.9589,2.9206,-0.97087,7.8431,15.764,17.198,2.9126,8.6731,4.813,7.8431,15.764,0.98039,8.6124,0.88889,3.873,-3.8462,2.963,-1.0897,0.06349,4.902,-4.9597
-9.5419,0.06349,-9.7087,1.9608,3.9409,2.7053,1.9417,8.6731,-2.0163,1.9608,3.9409,-1.9608,1.9139,-3.873,0.06349,-8.6538,-3.8003,-0.12821,1.0159,1.9608,-10.757
-13.333,-1.8413,-16.504999,5.8824,5.9113,-2.1256,-1.9417,11.586,9.6911,5.8824,5.9113,-2.9412,-1.9139,-3.873,-4.6984,-11.538,-7.6651,-3.9744,6.7302,-0.98039,-9.7907
-13.333,-5.6508,-20.388,4.902,0.98522,-32.077,-2.9126,4.7896,11.642,4.902,0.98522,-5.8824,-2.8708,-2.9206,-8.5079,-12.5,-9.5974,-5.8974,10.54,-7.8431,-2.0612
-14.281,-7.5556,-18.447001,-2.9412,-5.9113,-26.280001,7.767,-3.9482,2.8618,-2.9412,-5.9113,-5.8824,-4.7847,0.88889,-14.222,-7.6923,-7.6651,-4.9359,7.6825,-10.784,6.6345
-16.177,-1.8413,-12.621,7.8431,11.823,11.401,3.8835,-5.89,5.7886,7.8431,11.823,-3.9216,-5.7416,6.6032,-17.079,0.96154,-4.7665,-4.9359,5.7778,-8.8235,12.432
-10.49,2.9206,-7.767,-3.9216,10.837,11.401,-8.7379,-5.89,-0.06504,-3.9216,10.837,0.98039,-5.7416,7.5556,-13.27,2.8846,-5.7327,-8.7821,7.6825,-6.8627,13.398
-5.7504,3.873,-5.8252,-12.745,-0.98522,4.6377,-4.8544,-7.8317,-2.0163,-12.745,-0.98522,3.9216,-6.6986,4.6984,-9.4603,2.8846,-7.6651,-11.667,2.9206,-4.902,10.499
-2.9068,2.9206,-5.8252,4.902,2.9557,-6.9565,0.0,-9.7735,1.8862,4.902,2.9557,1.9608,-7.6555,1.8413,-2.7937,5.7692,-7.6651,-8.7821,-0.88889,-2.9412,8.5668
-1.0111,1.9683,-4.8544,12.745,0.0,-11.787,0.0,-7.8317,-0.06504,12.745,0.0,0.0,-9.5694,-3.873,4.8254,5.7692,-6.6989,-3.0128,-3.746,-1.9608,3.7359
-1.0111,-1.8413,-4.8544,4.902,-6.8966,7.5362,-0.97087,-0.06472,-0.06504,4.902,-6.8966,-0.98039,-11.483,-8.6349,1.9683,0.96154,-7.6651,-2.0513,-2.7937,-2.9412,-5.9259
2.7804,-2.7937,-1.9417,-11.765,0.98522,-5.0242,4.8544,5.7605,3.8374,-11.765,0.98522,0.98039,-7.6555,-6.7302,2.9206,-0.96154,-4.7665,4.6795,1.0159,0.98039,-6.8921
4.6761,0.06349,1.9417,-1.9608,7.8818,-1.1594,5.8252,7.7023,4.813,-1.9608,7.8818,1.9608,-3.8278,-1.9683,5.7778,0.0,-1.868,6.6026,2.9206,3.9216,-3.0274
7.5197,4.8254,6.7961,11.765,12.808,14.3,7.767,11.586,2.8618,11.765,12.808,4.902,0.95694,2.7937,7.6825,3.8462,4.8953,6.6026,7.6825,4.902,1.8035
10.363,5.7778,7.767,24.51,18.719,24.927999,-0.97087,11.586,5.7886,24.51,18.719,3.9216,3.8278,6.6032,12.444,8.6538,9.7262,5.641,7.6825,6.8627,4.7021
12.259,7.6825,7.767,18.627001,14.778,13.333,-9.7087,7.7023,8.7154,18.627001,14.778,5.8824,6.6986,7.5556,16.254,10.577,11.659,3.7179,1.9683,7.8431,6.6345
11.311,4.8254,5.8252,0.0,0.98522,0.77295,-7.767,4.7896,5.7886,0.0,0.98522,5.8824,6.6986,5.6508,14.349,7.6923,10.692,8.5256,-1.8413,4.902,3.7359
8.4676,-0.88889,2.9126,2.9412,-4.9261,5.6039,0.97087,11.586,3.8374,2.9412,-4.9261,3.9216,7.6555,3.746,14.349,0.96154,9.7262,13.333,0.06349,5.8824,-4.9597
5.624,-3.746,0.97087,17.646999,-2.9557,1.7391,11.65,10.615,2.8618,17.646999,-2.9557,4.902,6.6986,2.7937,12.444,-3.8462,8.7601,13.333,5.7778,7.8431,-7.8583
-1.9589,-7.5556,-3.8835,18.627001,8.867,-15.652,6.7961,8.6731,-5.9187,18.627001,8.867,0.98039,0.0,-1.9683,3.873,-10.577,1.9968,7.5641,-0.88889,1.9608,-11.723
-4.8025,-7.5556,-5.8252,19.608,24.631001,0.77295,3.8835,5.7605,-3.9675,19.608,24.631001,0.98039,-2.8708,-2.9206,0.06349,-12.5,0.06441,6.6026,-0.88889,-0.98039,-12.689
-3.8547,-9.4603,-7.767,14.706,14.778,17.198,-3.8835,9.644,3.8374,14.706,14.778,0.98039,-2.8708,-1.0159,-0.88889,-9.6154,-1.868,5.641,0.06349,-2.9412,-8.8245
-7.6461,-10.413,-10.68,-10.784,-7.8818,6.57,-1.9417,3.8188,-6.8943,-10.784,-7.8818,0.0,-3.8278,-2.9206,-2.7937,-9.6154,-3.8003,-2.0513,-1.8413,-2.9412,-7.8583
-5.7504,-6.6032,-5.8252,1.9608,-0.98522,5.6039,-0.97087,-1.0356,-2.0163,1.9608,-0.98522,1.9608,0.0,-0.06349,-4.6984,-6.7308,0.06441,2.7564,-2.7937,0.0,-3.0274
-0.06319,-2.7937,-0.97087,5.8824,0.0,-4.058,3.8835,-2.0065,6.7642,5.8824,0.0,4.902,3.8278,0.88889,-2.7937,-4.8077,3.9291,7.5641,-2.7937,0.98039,1.8035
-1.0111,0.06349,-1.9417,3.9216,1.9704,-5.0242,5.8252,-1.0356,8.7154,3.9216,1.9704,4.902,0.95694,-1.9683,-1.8413,-2.8846,1.9968,4.6795,1.9683,1.9608,5.6683
-4.8025,-3.746,-7.767,5.8824,-2.9557,-4.058,-4.8544,-6.8608,3.8374,5.8824,-2.9557,-1.9608,-3.8278,-1.9683,-1.8413,-2.8846,-3.8003,-0.12821,1.9683,0.98039,5.6683
-5.7504,-6.6032,-13.592,0.0,3.9409,-3.0918,-8.7379,-10.744,-0.06504,0.0,3.9409,-8.8235,-6.6986,-3.873,1.0159,-3.8462,-10.564,-5.8974,2.9206,0.0,2.7697
-1.0111,-4.6984,-9.7087,-15.686,10.837,-14.686,-0.97087,-6.8608,3.8374,-15.686,10.837,-3.9216,-4.7847,-7.6825,1.9683,-5.7692,-12.496,-3.9744,4.8254,-0.98039,-0.12882
0.88468,-3.746,-6.7961,-7.8431,4.9261,-17.584999,-0.97087,-5.89,0.91057,-7.8431,4.9261,-3.9216,-1.9139,-6.7302,-3.746,-6.7308,-14.428,-5.8974,1.9683,0.0,1.8035
-1.9589,-2.7937,-6.7961,0.0,-7.8818,-3.0918,7.767,-0.06472,0.91057,0.0,-7.8818,-4.902,-1.9139,-4.8254,-8.5079,-5.7692,-14.428,-4.9359,3.873,-0.98039,2.7697
-1.9589,-3.746,-4.8544,-4.902,-17.733999,0.77295,7.767,-2.9773,-4.9431,-4.902,-17.733999,-4.902,0.0,-3.873,-9.4603,-2.8846,-11.53,-8.7821,-8.5079,-2.9412,2.7697
-1.0111,-5.6508,-4.8544,-18.627001,-5.9113,6.57,-8.7379,-2.9773,-11.772,-18.627001,-5.9113,-3.9216,0.95694,-4.8254,-11.365,-2.8846,-9.5974,-3.0128,-12.317,-2.9412,-0.12882
0.88468,-0.88889,0.97087,2.9412,8.867,1.7391,-8.7379,-2.9773,-4.9431,2.9412,8.867,-1.9608,3.8278,-3.873,-6.6032,-0.96154,-2.8341,5.641,-1.8413,-1.9608,0.83736
2.7804,2.9206,6.7961,5.8824,10.837,3.6715,-0.97087,-2.0065,4.813,5.8824,10.837,0.98039,2.8708,-5.7778,-4.6984,1.9231,1.9968,2.7564,6.7302,-2.9412,0.83736
6.5719,2.9206,10.68,3.9216,4.9261,9.4686,4.8544,3.8188,6.7642,3.9216,4.9261,5.8824,1.9139,-7.6825,-2.7937,2.8846,4.8953,2.7564,7.6825,-2.9412,-2.0612
11.311,3.873,16.504999,2.9412,-5.9113,0.77295,9.7087,8.6731,4.813,2.9412,-5.9113,11.765,5.7416,-5.7778,2.9206,7.6923,12.625,3.7179,6.7302,-0.98039,-1.095
4.6761,1.9683,12.621,9.8039,-2.9557,10.435,7.767,-2.0065,-2.9919,9.8039,-2.9557,4.902,6.6986,-1.9683,3.873,7.6923,14.557,-3.0128,1.0159,0.98039,3.7359
3.7283,1.9683,10.68,8.8235,-14.778,0.77295,5.8252,3.8188,-10.797,8.8235,-14.778,2.9412,6.6986,0.88889,3.873,3.8462,14.557,2.7564,0.06349,5.8824,1.8035
5.624,0.06349,8.7379,-1.9608,-9.8522,-10.821,-1.9417,-2.9773,-1.0407,-1.9608,-9.8522,2.9412,8.6124,0.88889,5.7778,-0.96154,14.557,11.41,-1.8413,9.8039,-3.0274
6.5719,-4.6984,7.767,4.902,6.8966,11.401,0.0,-6.8608,6.7642,4.902,6.8966,0.98039,12.44,3.746,9.5873,-1.9231,13.591,9.4872,-5.6508,11.765,-5.9259
11.311,-2.7937,10.68,-5.8824,7.8818,9.4686,0.97087,-2.9773,6.7642,-5.8824,7.8818,5.8824,16.268,11.365,13.397,1.9231,14.557,6.6026,-1.8413,14.706,-2.0612
14.155,5.7778,14.563,1.9608,19.704,-0.19324,10.68,0.90615,10.667,1.9608,19.704,8.8235,22.01,22.794001,20.063,11.538,20.354,3.7179,5.7778,17.646999,8.5668
8.4676,8.6349,8.7379,10.784,20.690001,1.7391,17.476,-4.9191,10.667,10.784,20.690001,8.8235,21.052999,26.603001,19.111,13.462,18.422001,-1.0897,8.6349,13.725,15.33
1.8325,6.7302,1.9417,7.8431,7.8818,-0.19324,14.563,-14.628,11.642,7.8431,7.8818,1.9608,16.268,23.746,14.349,14.423,12.625,-8.7821,8.6349,8.8235,18.229
-1.9589,1.9683,-1.9417,1.9608,-1.9704,-11.787,4.8544,-13.657,3.8374,1.9608,-1.9704,-7.8431,9.5694,19.937,10.54,16.346001,8.7601,-15.513,10.54,3.9216,21.127001
-2.9068,1.0159,-0.97087,-7.8431,-19.704,-29.179001,-2.9126,-10.744,-1.0407,-7.8431,-19.704,-12.745,4.7847,16.127001,7.6825,18.268999,8.7601,-12.628,5.7778,-3.9216,22.093
-8.594,0.06349,-1.9417,-13.725,-12.808,-34.009998,-8.7379,-12.686,-2.0163,-13.725,-12.808,-15.686,-3.8278,7.5556,-0.88889,11.538,4.8953,-9.7436,4.8254,-10.784,14.364
-12.385,-4.6984,-3.8835,-21.569,-4.9261,-18.551001,-18.447001,-10.744,-1.0407,-21.569,-4.9261,-12.745,-11.483,-1.9683,-10.413,1.9231,-0.90177,-9.7436,2.9206,-18.627001,2.7697
-10.49,0.06349,-0.97087,-7.8431,6.8966,-4.058,-6.7961,0.90615,3.8374,-7.8431,6.8966,-1.9608,-12.44,-7.6825,-15.175,0.0,-1.868,-3.0128,1.0159,-19.608,-3.0274
-10.49,1.9683,-1.9417,3.9216,2.9557,-3.0918,10.68,2.8479,2.8618,3.9216,2.9557,4.902,-12.44,-17.205999,-16.127001,-2.8846,-6.6989,-0.12821,1.0159,-19.608,-10.757
-7.6461,2.9206,-3.8835,16.667,2.9557,3.6715,3.8835,5.7605,-3.9675,16.667,2.9557,3.9216,-10.526,-18.159,-8.5079,-3.8462,-7.6651,4.6795,-0.88889,-13.725,-13.655
-3.8547,4.8254,-3.8835,18.627001,-13.793,10.435,3.8835,3.8188,2.8618,18.627001,-13.793,3.9216,-5.7416,-14.349,1.9683,0.0,-4.7665,7.5641,0.06349,-3.9216,-11.723
-2.9068,1.0159,-7.767,13.725,7.8818,13.333,4.8544,2.8479,10.667,13.725,7.8818,3.9216,-4.7847,-15.302,7.6825,-2.8846,-4.7665,3.7179,1.9683,1.9608,-15.588
-0.06319,-1.8413,-10.68,20.587999,27.586,21.063,9.7087,11.586,10.667,20.587999,27.586,5.8824,-5.7416,-13.397,7.6825,-3.8462,-9.5974,8.5256,-0.88889,4.902,-13.655
3.7283,1.0159,-10.68,10.784,5.9113,20.097,14.563,15.469,2.8618,10.784,5.9113,7.8431,-4.7847,-13.397,7.6825,-3.8462,-11.53,11.41,3.873,5.8824,-12.689
9.4155,2.9206,-3.8835,4.902,3.9409,10.435,10.68,9.644,-2.9919,4.902,3.9409,5.8824,-0.95694,-6.7302,11.492,0.0,-4.7665,9.4872,5.7778,8.8235,-9.7907
16.997999,3.873,5.8252,10.784,-5.9113,-8.8889,0.0,0.90615,-2.0163,10.784,-5.9113,3.9216,4.7847,5.6508,19.111,8.6538,6.8277,9.4872,1.0159,11.765,-2.0612
16.997999,4.8254,13.592,-0.98039,-6.8966,-7.9227,-7.767,0.90615,-2.9919,-0.98039,-6.8966,2.9412,9.5694,16.127001,22.921,16.346001,14.557,5.641,1.0159,17.646999,12.432
12.259,6.7302,14.563,-4.902,0.98522,17.198,-3.8835,3.8188,-2.0163,-4.902,0.98522,-0.98039,8.6124,18.983999,20.063,20.191999,16.49,1.7949,7.6825,18.627001,18.229
7.5197,8.6349,13.592,1.9608,-4.9261,20.097,6.7961,-1.0356,-3.9675,1.9608,-4.9261,0.0,5.7416,22.794001,14.349,22.115,14.557,-0.12821,5.7778,14.706,21.127001
0.88468,4.8254,10.68,-9.8039,-4.9261,-3.0918,1.9417,-2.0065,-4.9431,-9.8039,-4.9261,-1.9608,5.7416,23.746,9.5873,19.231001,10.692,-1.0897,6.7302,8.8235,19.195
-2.9068,-1.8413,6.7961,-6.8627,-10.837,-7.9227,-2.9126,-4.9191,-3.9675,-6.8627,-10.837,-3.9216,5.7416,18.983999,4.8254,15.385,5.8615,-4.9359,1.9683,3.9216,15.33
-6.6983,-1.8413,0.97087,3.9216,-9.8522,-10.821,0.97087,-7.8317,-9.8211,3.9216,-9.8522,-1.9608,1.9139,16.127001,1.0159,11.538,2.963,-8.7821,1.9683,-1.9608,14.364
-9.5419,-4.6984,-7.767,1.9608,8.867,-2.1256,1.9417,-2.9773,-2.9919,1.9608,8.867,0.0,-2.8708,8.5079,-3.746,2.8846,-2.8341,-8.7821,-1.8413,-6.8627,4.7021
-11.438,-11.365,-14.563,7.8431,16.749001,0.77295,0.0,0.90615,7.7398,7.8431,16.749001,0.0,-8.6124,-1.9683,-8.5079,-6.7308,-8.6312,-7.8205,-3.746,-11.765,-6.8921
-10.49,-13.27,-18.447001,6.8627,6.8966,-2.1256,4.8544,3.8188,9.6911,6.8627,6.8966,1.9608,-12.44,-5.7778,-14.222,-8.6538,-11.53,-6.859,1.9683,-16.667,-8.8245
-3.8547,-9.4603,-16.504999,12.745,15.764,9.4686,7.767,12.557,5.7886,12.745,15.764,4.902,-16.268,-8.6349,-16.127001,-8.6538,-11.53,1.7949,-0.88889,-18.627001,-9.7907
0.88468,-4.6984,-9.7087,35.293999,4.9261,20.097,9.7087,16.440001,3.8374,35.293999,4.9261,6.8627,-15.311,-8.6349,-11.365,-4.8077,-6.6989,7.5641,-0.88889,-16.667,-8.8245
6.5719,1.0159,-0.97087,34.313999,0.98522,12.367,12.621,20.323999,3.8374,34.313999,0.98522,10.784,-10.526,-4.8254,-3.746,-0.96154,-0.90177,10.449,4.8254,-10.784,-7.8583
5.624,2.9206,0.0,11.765,14.778,16.232,12.621,15.469,5.7886,11.765,14.778,10.784,-9.5694,-7.6825,1.9683,-0.96154,-1.868,9.4872,0.06349,-6.8627,-11.723
5.624,3.873,0.0,-5.8824,1.9704,-2.1256,5.8252,16.440001,3.8374,-5.8824,1.9704,6.8627,-8.6124,-9.5873,6.7302,-2.8846,-5.7327,5.641,-1.8413,-2.9412,-12.689
3.7283,0.06349,-0.97087,-14.706,-2.9557,-0.19324,-7.767,2.8479,-2.0163,-14.706,-2.9557,-2.9412,-5.7416,-8.6349,6.7302,-2.8846,-6.6989,5.641,1.0159,1.9608,-9.7907
-0.06319,-0.88889,-3.8835,-9.8039,-15.764,3.6715,-2.9126,1.877,-5.9187,-9.8039,-15.764,-10.784,-2.8708,-7.6825,4.8254,-2.8846,-8.6312,5.641,-4.6984,7.8431,-2.0612
-1.9589,-5.6508,-9.7087,-8.8235,-7.8818,-21.448999,-7.767,-3.9482,-4.9431,-8.8235,-7.8818,-16.667,-1.9139,-9.5873,0.06349,-8.6538,-12.496,-0.12821,-2.7937,6.8627,-3.9936
-8.594,-6.6032,-11.65,-9.8039,1.9704,-18.551001,-4.8544,-18.511,-5.9187,-9.8039,1.9704,-12.745,0.95694,-5.7778,-6.6032,-11.538,-12.496,-2.0513,-0.88889,8.8235,-5.9259
-14.281,-5.6508,-13.592,-15.686,-7.8818,-5.0242,-8.7379,-16.57,-8.8455,-15.686,-7.8818,-9.8039,2.8708,0.88889,-7.5556,-11.538,-13.462,-6.859,-3.746,9.8039,-4.9597
-13.333,-3.746,-14.563,-0.98039,0.0,-5.9903,-2.9126,-8.8026,-9.8211,-0.98039,0.0,-5.8824,3.8278,2.7937,-4.6984,-10.577,-14.428,-10.705,-4.6984,7.8431,-3.0274
-10.49,-6.6032,-14.563,7.8431,0.0,4.6377,5.8252,-5.89,-0.06504,7.8431,0.0,-2.9412,4.7847,3.746,-3.746,-10.577,-16.361,-9.7436,-12.317,6.8627,-2.0612
-7.6461,-10.413,-12.621,10.784,-4.9261,11.401,6.7961,-6.8608,6.7642,10.784,-4.9261,0.0,5.7416,9.4603,-0.88889,-9.6154,-16.361,-11.667,-17.079,5.8824,-1.095
-9.5419,-8.5079,-10.68,11.765,3.9409,3.6715,1.9417,-3.9482,-1.0407,11.765,3.9409,1.9608,4.7847,10.413,0.06349,-8.6538,-15.395,-6.859,-10.413,4.902,0.83736
-3.8547,-4.6984,-2.9126,10.784,1.9704,5.6039,0.0,-3.9482,1.8862,10.784,1.9704,6.8627,0.0,9.4603,-6.6032,-7.6923,-13.462,-4.9359,-2.7937,0.0,-2.0612
1.8325,3.873,1.9417,11.765,17.733999,-1.1594,6.7961,-2.9773,8.7154,11.765,17.733999,12.745,-6.6986,5.6508,-11.365,-6.7308,-10.564,-4.9359,3.873,-2.9412,-3.0274
5.624,13.397,5.8252,22.549,29.556999,16.232,18.447001,3.8188,10.667,22.549,29.556999,17.646999,-11.483,2.7937,-11.365,-4.8077,-5.7327,-1.0897,10.54,-2.9412,0.83736
10.363,20.063,11.65,28.431,22.66,31.691,24.271999,15.469,12.618,28.431,22.66,21.569,-13.397,-1.9683,-11.365,-3.8462,-4.7665,0.83333,19.111,-6.8627,-0.12882
11.311,19.111,16.504999,17.646999,10.837,14.3,26.214001,4.7896,16.52,17.646999,10.837,19.608,-16.268,-7.6825,-13.27,-5.7692,-7.6651,0.83333,20.063,-10.784,-2.0612
9.4155,14.349,16.504999,11.765,9.8522,2.7053,7.767,-7.8317,11.642,11.765,9.8522,15.686,-17.225,-10.54,-15.175,-7.6923,-9.5974,-2.0513,12.444,-13.725,-0.12882
5.624,12.444,13.592,9.8039,12.808,-3.0918,11.65,-7.8317,6.7642,9.8039,12.808,13.725,-14.354,-12.444,-14.222,-6.7308,-9.5974,-4.9359,2.9206,-15.686,2.7697
2.7804,6.7302,6.7961,-1.9608,4.9261,-1.1594,17.476,-7.8317,8.7154,-1.9608,4.9261,10.784,-9.5694,-14.349,-14.222,-7.6923,-8.6312,-7.8205,2.9206,-19.608,4.7021
-4.8025,2.9206,-1.9417,-8.8235,6.8966,-0.19324,9.7087,-12.686,13.593,-8.8235,6.8966,1.9608,-1.9139,-14.349,-15.175,-10.577,-9.5974,-11.667,2.9206,-14.706,4.7021
-16.177,-2.7937,-10.68,-8.8235,5.9113,-21.448999,8.7379,-21.424,9.6911,-8.8235,5.9113,-5.8824,0.95694,-13.397,-18.983999,-14.423,-12.496,-21.282,4.8254,-10.784,-1.095
-21.864,-4.6984,-11.65,-23.528999,-1.9704,-32.077,5.8252,-17.540001,11.642,-23.528999,-1.9704,-7.8431,1.9139,-7.6825,-20.889,-11.538,-13.462,-24.167,8.6349,-9.8039,-0.12882
-25.656,-6.6032,-12.621,-24.51,-9.8522,-33.042999,-0.97087,-20.452999,1.8862,-24.51,-9.8522,-11.765,3.8278,-2.9206,-18.983999,-7.6923,-13.462,-21.282,2.9206,-6.8627,3.7359
-22.812,-9.4603,-13.592,-25.49,-9.8522,-27.246,-16.504999,-22.395,-2.0163,-25.49,-9.8522,-15.686,5.7416,-1.0159,-16.127001,-6.7308,-11.53,-18.396999,-0.88889,-2.9412,3.7359
-20.916,-13.27,-18.447001,-18.627001,-8.867,-16.618,-25.243,-17.540001,-5.9187,-18.627001,-8.867,-18.627001,6.6986,-0.06349,-11.365,-5.7692,-9.5974,-12.628,-0.88889,0.98039,5.6683
-17.125,-9.4603,-20.388,-14.706,-15.764,-14.686,-22.33,-13.657,-10.797,-14.706,-15.764,-17.646999,5.7416,-1.9683,-6.6032,-2.8846,-7.6651,-5.8974,-5.6508,1.9608,8.5668
-4.8025,-3.746,-13.592,-13.725,-17.733999,-15.652,-16.504999,-4.9191,-9.8211,-13.725,-17.733999,-12.745,8.6124,-6.7302,-1.8413,0.96154,0.06441,-0.12821,-6.6032,4.902,5.6683
9.4155,0.06349,-1.9417,-7.8431,-14.778,2.7053,-11.65,6.7314,-7.8699,-7.8431,-14.778,-4.902,14.354,-11.492,8.6349,3.8462,12.625,9.4872,-10.413,11.765,-1.095
18.893999,3.873,8.7379,-3.9216,-9.8522,3.6715,0.97087,14.498,-7.8699,-3.9216,-9.8522,0.0,20.096001,-17.205999,21.016001,4.8077,22.287001,18.141001,-7.5556,17.646999,-7.8583
22.686001,4.8254,15.534,-12.745,-8.867,-0.19324,-1.9417,11.586,-6.8943,-12.745,-8.867,0.98039,22.966999,-21.016001,27.683001,2.8846,27.118,21.025999,0.06349,24.51,-13.655
23.632999,7.6825,18.447001,-16.667,-20.690001,10.435,-6.7961,11.586,-4.9431,-16.667,-20.690001,6.8627,22.966999,-19.111,27.683001,6.7308,28.084,21.025999,1.9683,26.471001,-6.8921
23.632999,8.6349,18.447001,6.8627,-8.867,29.757999,-2.9126,16.440001,-2.9919,6.8627,-8.867,6.8627,21.052999,-16.254,28.635,8.6538,27.118,20.063999,4.8254,23.528999,-2.0612
20.790001,6.7302,15.534,26.471001,10.837,15.266,-8.7379,11.586,-6.8943,26.471001,10.837,3.9216,21.052999,-12.444,28.635,4.8077,25.184999,20.063999,3.873,21.569,-3.0274
22.686001,3.873,13.592,19.608,12.808,3.6715,-8.7379,14.498,-2.9919,19.608,12.808,4.902,23.923,-4.8254,29.587,5.7692,26.150999,18.141001,-1.8413,20.587999,-2.0612
24.580999,3.873,14.563,6.8627,-0.98522,23.961,-7.767,17.410999,-2.0163,6.8627,-0.98522,6.8627,24.879999,3.746,30.540001,9.6154,27.118,18.141001,-7.5556,20.587999,2.7697
22.686001,1.9683,15.534,8.8235,-1.9704,30.725,-3.8835,16.440001,-6.8943,8.8235,-1.9704,7.8431,24.879999,9.4603,27.683001,11.538,22.287001,18.141001,-6.6032,15.686,3.7359
12.259,-2.7937,9.7087,-0.98039,1.9704,6.57,-3.8835,12.557,-4.9431,-0.98039,1.9704,5.8824,18.181999,14.222,18.159,9.6154,11.659,14.295,-6.6032,10.784,3.7359
9.4155,-4.6984,3.8835,-0.98039,-7.8818,2.7053,-3.8835,8.6731,-7.8699,-0.98039,-7.8818,2.9412,11.483,17.079,10.54,6.7308,4.8953,6.6026,-8.5079,5.8824,3.7359
6.5719,-5.6508,0.0,5.8824,-11.823,14.3,-6.7961,7.7023,-2.9919,5.8824,-11.823,-1.9608,7.6555,15.175,8.6349,1.9231,1.0306,-1.0897,-3.746,0.0,1.8035
4.6761,-4.6984,0.0,2.9412,-10.837,12.367,-5.8252,6.7314,-0.06504,2.9412,-10.837,-3.9216,6.6986,16.127001,11.492,0.96154,2.963,0.83333,1.9683,0.0,-0.12882
4.6761,-1.8413,1.9417,3.9216,-0.98522,3.6715,-6.7961,6.7314,0.91057,3.9216,-0.98522,0.0,7.6555,16.127001,15.302,1.9231,5.8615,1.7949,2.9206,0.0,-3.0274
-1.0111,0.06349,0.0,6.8627,14.778,-1.1594,3.8835,0.90615,0.91057,6.8627,14.778,2.9412,3.8278,10.413,15.302,0.96154,2.963,-1.0897,1.0159,-1.9608,-4.9597
-4.8025,1.9683,-2.9126,6.8627,11.823,-5.9903,8.7379,-0.06472,2.8618,6.8627,11.823,0.98039,-0.95694,4.6984,10.54,-0.96154,1.0306,-4.9359,1.0159,-4.902,-8.8245
-1.9589,4.8254,1.9417,0.0,2.9557,-9.8551,9.7087,10.615,6.7642,0.0,2.9557,1.9608,0.0,2.7937,9.5873,0.96154,5.8615,-2.0513,9.5873,-3.9216,-5.9259
-1.0111,9.5873,6.7961,-19.608,-6.8966,-23.382,2.9126,-3.9482,5.7886,-19.608,-6.8966,2.9412,1.9139,-1.0159,11.492,3.8462,11.659,-1.0897,9.5873,-1.9608,-3.9936
-2.9068,10.54,8.7379,-0.98039,-10.837,-13.72,4.8544,-7.8317,6.7642,-0.98039,-10.837,0.98039,2.8708,-3.873,10.54,11.538,16.49,4.6795,2.9206,2.9412,-1.095
1.8325,9.5873,7.767,2.9412,-3.9409,1.7391,6.7961,4.7896,0.91057,2.9412,-3.9409,0.98039,5.7416,4.6984,12.444,21.153999,22.287001,12.372,-4.6984,6.8627,5.6683
0.88468,7.6825,5.8252,-6.8627,4.9261,4.6377,-4.8544,-2.0065,-4.9431,-6.8627,4.9261,-1.9608,10.526,12.317,18.159,25.962,25.184999,12.372,-8.5079,6.8627,11.465
0.88468,2.9206,7.767,-8.8235,-6.8966,-1.1594,-12.621,-2.9773,-9.8211,-8.8235,-6.8966,-3.9216,11.483,17.079,18.159,25.0,24.219,8.5256,-2.7937,7.8431,11.465
2.7804,1.9683,10.68,-7.8431,-6.8966,-2.1256,-8.7379,6.7314,-11.772,-7.8431,-6.8966,-2.9412,11.483,21.841,19.111,22.115,26.150999,9.4872,-6.6032,6.8627,10.499
3.7283,1.9683,11.65,6.8627,4.9261,10.435,-8.7379,14.498,-5.9187,6.8627,4.9261,-2.9412,10.526,27.556,21.968,22.115,27.118,9.4872,-6.6032,6.8627,15.33
3.7283,-0.88889,10.68,1.9608,0.98522,7.5362,-6.7961,0.90615,-6.8943,1.9608,0.98522,-2.9412,6.6986,29.459999,19.111,20.191999,22.287001,6.6026,-4.6984,2.9412,15.33
-0.06319,-2.7937,3.8835,-5.8824,-8.867,0.77295,-5.8252,3.8188,-7.8699,-5.8824,-8.867,-3.9216,3.8278,30.413,9.5873,12.5,14.557,3.7179,-2.7937,3.9216,12.432
-5.7504,-7.5556,-3.8835,-18.627001,-12.808,-7.9227,-10.68,1.877,-14.699,-18.627001,-12.808,-8.8235,1.9139,23.746,1.0159,1.9231,8.7601,4.6795,-8.5079,3.9216,2.7697
-6.6983,-8.5079,-2.9126,-10.784,-10.837,-2.1256,-14.563,-1.0356,-12.748,-10.784,-10.837,-12.745,2.8708,18.032,-2.7937,-0.96154,6.8277,5.641,-15.175,2.9412,-0.12882
-12.385,-10.413,-5.8252,-13.725,-11.823,-6.9565,-11.65,-5.89,-9.8211,-13.725,-11.823,-17.646999,-2.8708,17.079,-7.5556,-3.8462,1.0306,-3.0128,-14.222,-4.902,-3.0274
-8.594,-6.6032,-5.8252,-22.549,-5.9113,-12.754,-7.767,-2.9773,1.8862,-22.549,-5.9113,-14.706,-7.6555,11.365,-10.413,-4.8077,1.9968,-9.7436,-4.6984,-10.784,-6.8921
-9.5419,-4.6984,-4.8544,-19.608,-17.733999,-21.448999,-5.8252,-11.715,10.667,-19.608,-17.733999,-16.667,-9.5694,7.5556,-9.4603,-1.9231,2.963,-12.628,1.9683,-14.706,-4.9597
-13.333,-4.6984,-3.8835,-23.528999,-15.764,-30.145,-7.767,-18.511,14.569,-23.528999,-15.764,-14.706,-7.6555,2.7937,-9.4603,0.96154,1.9968,-15.513,10.54,-15.686,-1.095
-11.438,-2.7937,0.0,-27.451,6.8966,-21.448999,-4.8544,-17.540001,10.667,-27.451,6.8966,-6.8627,-6.6986,-1.9683,-11.365,-2.8846,1.0306,-18.396999,11.492,-18.627001,-2.0612
-13.333,-3.746,0.0,-8.8235,14.778,-3.0918,0.0,-16.57,10.667,-8.8235,14.778,-0.98039,-7.6555,-5.7778,-17.079,-5.7692,-1.868,-19.358999,8.6349,-18.627001,-0.12882
-14.281,0.06349,0.0,-0.98039,6.8966,-2.1256,7.767,-5.89,8.7154,-0.98039,6.8966,4.902,-9.5694,-4.8254,-25.650999,-4.8077,-4.7665,-15.513,11.492,-18.627001,2.7697
-14.281,4.8254,0.0,-8.8235,0.98522,-12.754,2.9126,-9.7735,6.7642,-8.8235,0.98522,8.8235,-11.483,-2.9206,-28.507999,-2.8846,-6.6989,-14.551,12.444,-18.627001,7.6006
-18.073,1.0159,-4.8544,-24.51,-10.837,-10.821,-1.9417,-12.686,-3.9675,-24.51,-10.837,0.98039,-12.44,-2.9206,-28.507999,-3.8462,-10.564,-12.628,4.8254,-15.686,7.6006
-17.125,-7.5556,-9.7087,-23.528999,-5.9113,-5.9903,-4.8544,-9.7735,-3.9675,-23.528999,-5.9113,-8.8235,-15.311,-1.9683,-27.556,-6.7308,-16.361,-11.667,-0.88889,-13.725,3.7359
-12.385,-10.413,-14.563,-9.8039,-4.9261,-6.9565,-2.9126,-2.0065,-1.0407,-9.8039,-4.9261,-9.8039,-16.268,-3.873,-24.698,-13.462,-26.023001,-2.0513,-0.88889,-9.8039,0.83736
-13.333,-17.079,-22.33,-6.8627,-9.8522,-6.9565,-11.65,0.90615,-8.8455,-6.8627,-9.8522,-10.784,-21.052999,-11.492,-24.698,-22.115,-38.583,-0.12821,-13.27,-9.8039,-7.8583
-9.5419,-21.841,-24.271999,4.902,-14.778,-7.9227,-20.388,6.7314,-14.699,4.902,-14.778,-11.765,-24.879999,-15.302,-26.603001,-30.768999,-45.346001,-0.12821,-22.794001,-8.8235,-15.588
-1.9589,-22.794001,-20.388,7.8431,-19.704,7.5362,-23.301001,17.410999,-17.625999,7.8431,-19.704,-10.784,-22.966999,-18.159,-25.650999,-33.653999,-41.480999,8.5256,-22.794001,-5.8824,-21.385
7.5197,-16.127001,-11.65,-3.9216,-5.9113,23.961,-19.417,14.498,-12.748,-3.9216,-5.9113,-0.98039,-17.225,-21.968,-20.889,-31.731001,-27.955,12.372,-18.983999,-2.9412,-26.216
16.051001,-8.5079,0.0,14.706,11.823,23.961,-5.8252,20.323999,-2.9919,14.706,11.823,6.8627,-7.6555,-17.205999,-11.365,-22.115,-7.6651,13.333,-15.175,4.902,-21.385
8.4676,-9.4603,0.97087,14.706,3.9409,16.232,-5.8252,19.353001,-2.0163,14.706,3.9409,4.902,-0.95694,-15.302,-8.5079,-18.268999,1.9968,10.449,-10.413,4.902,-22.351
5.624,-3.746,1.9417,0.0,2.9557,-6.9565,2.9126,15.469,-8.8455,0.0,2.9557,0.98039,2.8708,-12.444,-5.6508,-16.346001,5.8615,5.641,-7.5556,3.9216,-20.419001
7.5197,-0.88889,5.8252,1.9608,8.867,-5.0242,4.8544,3.8188,3.8374,1.9608,8.867,0.98039,6.6986,-7.6825,-0.88889,-11.538,8.7601,-0.12821,2.9206,4.902,-13.655
2.7804,-4.6984,3.8835,1.9608,1.9704,9.4686,1.9417,-2.0065,16.52,1.9608,1.9704,-0.98039,1.9139,-4.8254,0.06349,-7.6923,6.8277,-3.9744,6.7302,0.0,-6.8921
1.8325,5.7778,6.7961,-3.9216,13.793,11.401,8.7379,0.90615,19.447001,-3.9216,13.793,2.9412,-2.8708,-0.06349,1.0159,-0.96154,5.8615,-8.7821,14.349,-3.9216,0.83736
4.6761,16.254,12.621,-10.784,6.8966,19.129999,22.33,5.7605,19.447001,-10.784,6.8966,10.784,-4.7847,8.5079,-0.88889,5.7692,4.8953,-13.59,26.73,-9.8039,8.5668
3.7283,21.968,13.592,-1.9608,2.9557,6.57,28.155001,-1.0356,19.447001,-1.9608,2.9557,13.725,-4.7847,20.889,-4.6984,15.385,3.9291,-15.513,26.73,-9.8039,17.261999
1.8325,25.778,11.65,4.902,22.66,-14.686,24.271999,-8.8026,21.398001,4.902,22.66,12.745,-2.8708,26.603001,-8.5079,21.153999,1.0306,-18.396999,18.159,-8.8235,24.025999
-2.9068,24.825001,6.7961,-8.8235,20.690001,-14.686,22.33,-16.57,6.7642,-8.8235,20.690001,7.8431,-5.7416,25.650999,-16.127001,22.115,-2.8341,-21.282,15.302,-10.784,24.025999
-6.6983,22.921,2.9126,-12.745,2.9557,-6.9565,18.447001,-16.57,8.7154,-12.745,2.9557,6.8627,-11.483,22.794001,-19.937,20.191999,-5.7327,-18.396999,18.159,-9.8039,20.160999
-7.6461,20.063,0.0,-5.8824,3.9409,-3.0918,19.417,-14.628,17.496,-5.8824,3.9409,2.9412,-14.354,18.983999,-17.079,14.423,-10.564,-14.551,20.063,-10.784,18.229
-8.594,16.254,0.0,-8.8235,7.8818,-7.9227,20.388,-13.657,16.52,-8.8235,7.8818,0.98039,-14.354,15.175,-15.175,10.577,-14.428,-11.667,19.111,-9.8039,16.296
-4.8025,13.397,-0.97087,-14.706,3.9409,-8.8889,4.8544,-6.8608,10.667,-14.706,3.9409,1.9608,-17.225,9.4603,-11.365,4.8077,-18.292999,-10.705,16.254,-10.784,10.499
-6.6983,7.6825,-4.8544,-5.8824,0.98522,-4.058,1.9417,-6.8608,10.667,-5.8824,0.98522,-1.9608,-21.052999,-0.06349,-9.4603,-4.8077,-23.124001,-10.705,11.492,-9.8039,2.7697
-7.6461,3.873,-6.7961,-8.8235,0.0,-11.787,10.68,-2.9773,5.7886,-8.8235,0.0,-0.98039,-23.923,-5.7778,-12.317,-9.6154,-24.09,-11.667,6.7302,-8.8235,-3.0274
-1.9589,4.8254,-3.8835,-5.8824,9.8522,-6.9565,17.476,-8.8026,5.7886,-5.8824,9.8522,3.9216,-22.966999,-5.7778,-12.317,-7.6923,-18.292999,-8.7821,4.8254,-8.8235,-3.9936
-1.0111,3.873,-2.9126,3.9216,14.778,4.6377,12.621,-12.686,1.8862,3.9216,14.778,2.9412,-21.052999,-6.7302,-14.222,-7.6923,-16.361,-3.9744,1.9683,-10.784,-7.8583
2.7804,2.9206,1.9417,4.902,0.0,-2.1256,13.592,-5.89,1.8862,4.902,0.0,3.9216,-17.225,-4.8254,-14.222,-6.7308,-11.53,-0.12821,2.9206,-9.8039,-10.757
5.624,1.9683,5.8252,-3.9216,11.823,-14.686,5.8252,-3.9482,6.7642,-3.9216,11.823,4.902,-13.397,0.88889,-11.365,-2.8846,-6.6989,-0.12821,3.873,-7.8431,-9.7907
3.7283,-1.8413,7.767,5.8824,16.749001,-2.1256,-3.8835,-4.9191,1.8862,5.8824,16.749001,1.9608,-11.483,4.6984,-8.5079,-0.96154,-2.8341,-1.0897,2.9206,-5.8824,-7.8583
3.7283,-2.7937,7.767,2.9412,0.98522,1.7391,-0.97087,-2.9773,-2.0163,2.9412,0.98522,1.9608,-10.526,3.746,-5.6508,-2.8846,-4.7665,-3.0128,-2.7937,-6.8627,-7.8583
4.6761,2.9206,10.68,0.98039,-3.9409,3.6715,16.504999,-0.06472,4.813,0.98039,-3.9409,9.8039,-9.5694,8.5079,-1.8413,-0.96154,-3.8003,-3.9744,1.0159,-1.9608,-3.0274
5.624,5.7778,12.621,6.8627,3.9409,9.4686,14.563,-2.0065,5.7886,6.8627,3.9409,15.686,-7.6555,12.317,0.06349,2.8846,-2.8341,-1.0897,6.7302,-0.98039,1.8035
6.5719,12.444,13.592,6.8627,24.631001,3.6715,6.7961,-9.7735,15.545,6.8627,24.631001,20.587999,-3.8278,15.175,1.0159,9.6154,1.0306,-2.0513,12.444,-2.9412,7.6006
5.624,18.159,15.534,12.745,31.527,5.6039,16.504999,-13.657,21.398001,12.745,31.527,23.528999,1.9139,17.079,3.873,19.231001,7.7939,-6.859,21.016001,-2.9412,18.229
4.6761,25.778,17.476,13.725,17.733999,4.6377,29.125999,-10.744,6.7642,13.725,17.733999,23.528999,3.8278,18.032,1.0159,30.768999,11.659,-7.8205,21.968,-5.8824,26.924
1.8325,27.683001,13.592,-2.9412,-0.98522,-6.9565,25.243,-9.7735,10.667,-2.9412,-0.98522,21.569,0.0,15.175,-3.746,26.923,6.8277,-6.859,22.921,-9.8039,24.025999
-0.06319,15.302,7.767,-7.8431,-5.9113,-17.584999,6.7961,-8.8026,15.545,-7.8431,-5.9113,13.725,-2.8708,8.5079,-7.5556,15.385,0.06441,-4.9359,16.254,-9.8039,15.33
0.88468,4.8254,1.9417,10.784,3.9409,-3.0918,0.97087,6.7314,8.7154,10.784,3.9409,7.8431,-2.8708,3.746,-10.413,8.6538,-6.6989,-2.0513,5.7778,-7.8431,9.533
-1.9589,1.9683,-6.7961,6.8627,0.0,7.5362,-2.9126,3.8188,-5.9187,6.8627,0.0,2.9412,-4.7847,0.88889,-9.4603,1.9231,-15.395,6.6026,-4.6984,-5.8824,3.7359
0.88468,-6.6032,-8.7379,2.9412,-1.9704,6.57,-5.8252,6.7314,-15.675,2.9412,-1.9704,3.9216,-5.7416,-1.9683,-7.5556,-3.8462,-17.327,16.218,-12.317,-1.9608,-1.095
1.8325,-14.222,-10.68,14.706,-6.8966,20.097,-6.7961,14.498,-20.552999,14.706,-6.8966,1.9608,-5.7416,-4.8254,-5.6508,-9.6154,-20.225,15.256,-15.175,1.9608,-6.8921
1.8325,-20.889,-15.534,15.686,-7.8818,20.097,-12.621,14.498,-21.528,15.686,-7.8818,-2.9412,-3.8278,-4.8254,0.06349,-13.462,-19.259001,14.295,-18.983999,2.9412,-7.8583
4.6761,-25.650999,-13.592,6.8627,-10.837,-2.1256,-19.417,15.469,-21.528,6.8627,-10.837,-6.8627,1.9139,-1.0159,1.9683,-12.5,-13.462,17.179001,-22.794001,5.8824,-6.8921
7.5197,-21.841,-10.68,13.725,-12.808,13.333,-22.33,22.264999,-20.552999,13.725,-12.808,-8.8235,9.5694,5.6508,6.7302,-6.7308,-5.7327,21.987,-23.746,12.745,-3.0274
8.4676,-22.794001,-12.621,14.706,-24.631001,26.860001,-25.243,24.207001,-21.528,14.706,-24.631001,-11.765,14.354,3.746,7.6825,-8.6538,-2.8341,22.948999,-26.603001,14.706,-6.8921
6.5719,-26.603001,-14.563,-2.9412,-20.690001,18.164,-25.243,15.469,-28.358,-2.9412,-20.690001,-16.667,14.354,0.88889,4.8254,-10.577,-3.8003,18.141001,-27.556,11.765,-10.757
5.624,-21.841,-11.65,-3.9216,-16.749001,14.3,-21.358999,18.382,-16.65,-3.9216,-16.749001,-17.646999,17.225,4.6984,10.54,-7.6923,0.06441,21.025999,-13.27,12.745,-5.9259
5.624,-18.983999,-7.767,2.9412,-30.542,2.7053,-32.039001,12.557,-6.8943,2.9412,-30.542,-20.587999,20.096001,4.6984,16.254,-6.7308,4.8953,21.025999,-7.5556,15.686,-3.9936
2.7804,-21.841,-8.7379,-1.9608,-22.66,-11.787,-34.951,-0.06472,-9.8211,-1.9608,-22.66,-24.51,20.096001,0.88889,16.254,-6.7308,3.9291,13.333,-8.5079,14.706,-1.095
-2.9068,-22.794001,-13.592,-10.784,-16.749001,-11.787,-23.301001,-5.89,-8.8455,-10.784,-16.749001,-28.431,19.139,-0.06349,13.397,-4.8077,2.963,5.641,-8.5079,11.765,0.83736
-8.594,-21.841,-16.504999,-14.706,-22.66,-22.415001,-22.33,-6.8608,-9.8211,-14.706,-22.66,-27.451,16.268,-3.873,6.7302,-3.8462,1.0306,1.7949,-15.175,9.8039,0.83736
-10.49,-18.983999,-16.504999,-29.412001,-27.586,-23.382,-19.417,-6.8608,-9.8211,-29.412001,-27.586,-23.528999,15.311,-6.7302,4.8254,-7.6923,-1.868,-2.0513,-9.4603,8.8235,-6.8921
-7.6461,-12.317,-12.621,-23.528999,-24.631001,-12.754,-14.563,-7.8317,-5.9187,-23.528999,-24.631001,-17.646999,15.311,-4.8254,3.873,-5.7692,1.9968,2.7564,-4.6984,9.8039,-5.9259
-8.594,-2.7937,-9.7087,-9.8039,-8.867,-29.179001,-7.767,-8.8026,3.8374,-9.8039,-8.867,-13.725,15.311,-3.873,3.873,0.0,1.9968,8.5256,3.873,8.8235,-0.12882
-8.594,0.06349,-6.7961,-10.784,-3.9409,-12.754,-4.8544,-2.0065,1.8862,-10.784,-3.9409,-10.784,15.311,-4.8254,6.7302,2.8846,1.9968,8.5256,8.6349,9.8039,4.7021
-4.8025,-4.6984,-3.8835,-8.8235,-8.867,-2.1256,-4.8544,4.7896,-4.9431,-8.8235,-8.867,-8.8235,14.354,-5.7778,7.6825,5.7692,3.9291,10.449,4.8254,10.784,4.7021
1.8325,-1.8413,0.97087,11.765,-8.867,-17.584999,-6.7961,1.877,-10.797,11.765,-8.867,-7.8431,11.483,-5.7778,15.302,6.7308,7.7939,11.41,2.9206,10.784,4.7021
8.4676,1.9683,5.8252,22.549,-8.867,8.5024,-0.97087,13.528,-2.9919,22.549,-8.867,-6.8627,13.397,-1.9683,22.921,9.6154,14.557,12.372,2.9206,12.745,5.6683
13.207,1.0159,9.7087,16.667,-4.9261,8.5024,2.9126,16.440001,1.8862,16.667,-4.9261,0.0,15.311,1.8413,21.016001,11.538,19.388,12.372,5.7778,12.745,5.6683
16.051001,1.0159,10.68,19.608,8.867,8.5024,-1.9417,17.410999,-0.06504,19.608,8.867,2.9412,15.311,-1.0159,21.968,9.6154,18.422001,17.179001,-4.6984,14.706,4.7021
18.893999,-7.5556,7.767,20.587999,-2.9557,24.927999,-2.9126,15.469,-6.8943,20.587999,-2.9557,1.9608,17.225,-5.7778,23.872999,1.9231,19.388,20.063999,-16.127001,13.725,-5.9259
15.103,-14.222,4.8544,17.646999,-2.9557,22.028999,-9.7087,16.440001,-12.748,17.646999,-2.9557,-1.9608,19.139,-6.7302,22.921,-3.8462,21.32,17.179001,-18.983999,16.667,-13.655
10.363,-11.365,5.8252,0.0,10.837,-4.058,-9.7087,9.644,-14.699,0.0,10.837,-0.98039,21.052999,-5.7778,25.778,-3.8462,23.253,10.449,-18.983999,19.608,-11.723
7.5197,-9.4603,5.8252,16.667,2.9557,0.77295,-10.68,3.8188,-13.724,16.667,2.9557,0.0,22.01,-1.9683,26.73,-3.8462,25.184999,4.6795,-20.889,19.608,-8.8245
-0.06319,-8.5079,3.8835,29.412001,0.0,2.7053,-5.8252,-4.9191,-9.8211,29.412001,0.0,-2.9412,22.01,4.6984,25.778,-0.96154,23.253,-2.0513,-18.032,18.627001,-3.0274
-3.8547,-2.7937,2.9126,4.902,-0.98522,-13.72,0.0,-5.89,-4.9431,4.902,-0.98522,-0.98039,17.225,8.5079,20.063,0.96154,19.388,-6.859,-10.413,14.706,-1.095
-1.0111,2.9206,9.7087,0.98039,0.0,-12.754,6.7961,-8.8026,1.8862,0.98039,0.0,4.902,17.225,8.5079,19.111,-0.96154,17.455999,-8.7821,3.873,12.745,-1.095
5.624,5.7778,15.534,6.8627,2.9557,1.7391,14.563,-7.8317,5.7886,6.8627,2.9557,12.745,17.225,6.6032,22.921,-3.8462,16.49,-3.0128,6.7302,12.745,-3.9936
9.4155,8.6349,16.504999,2.9412,6.8966,19.129999,15.534,0.90615,7.7398,2.9412,6.8966,13.725,10.526,4.6984,19.111,-3.8462,14.557,1.7949,6.7302,8.8235,-1.095
11.311,8.6349,11.65,0.0,-4.9261,21.063,15.534,8.6731,16.52,0.0,-4.9261,14.706,2.8708,-2.9206,15.302,-6.7308,8.7601,3.7179,13.397,2.9412,-3.9936
12.259,3.873,5.8252,2.9412,-1.9704,-0.19324,12.621,11.586,17.496,2.9412,-1.9704,12.745,0.0,-9.5873,14.349,-8.6538,2.963,4.6795,12.444,2.9412,-7.8583
13.207,-2.7937,1.9417,11.765,9.8522,18.164,0.97087,23.236,4.813,11.765,9.8522,7.8431,-0.95694,-13.397,15.302,-9.6154,1.0306,10.449,4.8254,6.8627,-9.7907
12.259,-5.6508,1.9417,24.51,-1.9704,30.725,-3.8835,13.528,-1.0407,24.51,-1.9704,2.9412,0.0,-19.111,20.063,-12.5,2.963,11.41,1.0159,8.8235,-14.622
11.311,-7.5556,4.8544,18.627001,-0.98522,24.927999,-6.7961,6.7314,-5.9187,18.627001,-0.98522,1.9608,2.8708,-19.111,21.968,-10.577,8.7601,7.5641,-8.5079,11.765,-14.622
10.363,-8.5079,5.8252,7.8431,6.8966,13.333,-4.8544,6.7314,-5.9187,7.8431,6.8966,0.98039,3.8278,-16.254,19.111,-6.7308,12.625,10.449,-14.222,11.765,-9.7907
7.5197,-4.6984,3.8835,-2.9412,0.0,-3.0918,-0.97087,0.90615,-5.9187,-2.9412,0.0,1.9608,4.7847,-12.444,15.302,-3.8462,11.659,10.449,-8.5079,9.8039,-3.9936
9.4155,-1.8413,6.7961,-16.667,-11.823,-1.1594,3.8835,0.90615,-12.748,-16.667,-11.823,4.902,5.7416,-10.54,11.492,0.96154,13.591,6.6026,-9.4603,4.902,-2.0612
9.4155,-0.88889,10.68,2.9412,-14.778,9.4686,0.97087,-0.06472,-16.65,2.9412,-14.778,6.8627,8.6124,-5.7778,11.492,5.7692,18.422001,6.6026,-12.317,7.8431,0.83736
9.4155,3.873,14.563,22.549,14.778,8.5024,-8.7379,2.8479,-10.797,22.549,14.778,5.8824,11.483,-1.9683,17.205999,8.6538,24.219,7.5641,-12.317,10.784,3.7359
10.363,6.7302,19.417,21.569,18.719,19.129999,-0.97087,4.7896,-6.8943,21.569,18.719,7.8431,13.397,0.88889,20.063,10.577,28.084,4.6795,-12.317,8.8235,5.6683
11.311,11.492,22.33,14.706,4.9261,3.6715,9.7087,0.90615,-0.06504,14.706,4.9261,11.765,13.397,1.8413,21.016001,11.538,29.049999,1.7949,-5.6508,6.8627,3.7359
9.4155,19.111,23.301001,3.9216,14.778,0.77295,22.33,0.90615,2.8618,3.9216,14.778,12.745,13.397,-1.0159,20.063,11.538,26.150999,-1.0897,5.7778,3.9216,-0.12882
6.5719,19.111,17.476,-6.8627,11.823,5.6039,26.214001,-3.9482,5.7886,-6.8627,11.823,9.8039,9.5694,-4.8254,13.397,9.6154,18.422001,-4.9359,5.7778,0.98039,0.83736
-1.0111,12.444,6.7961,0.98039,2.9557,2.7053,19.417,-4.9191,7.7398,0.98039,2.9557,1.9608,1.9139,-7.6825,1.9683,4.8077,6.8277,-5.8974,7.6825,-3.9216,-1.095
-6.6983,6.7302,-2.9126,-1.9608,1.9704,-11.787,13.592,-2.9773,12.618,-1.9608,1.9704,0.0,-4.7847,-9.5873,-7.5556,0.0,-7.6651,-6.859,9.5873,-6.8627,-0.12882
-7.6461,0.06349,-10.68,-7.8431,6.8966,-5.0242,0.0,-4.9191,12.618,-7.8431,6.8966,-1.9608,-7.6555,-13.397,-15.175,-3.8462,-17.327,-11.667,7.6825,-12.745,3.7359
-13.333,-6.6032,-21.358999,-3.9216,-0.98522,-0.19324,2.9126,-5.89,9.6911,-3.9216,-0.98522,-11.765,-10.526,-13.397,-20.889,-8.6538,-26.023001,-16.474001,8.6349,-14.706,6.6345
-21.864,-9.4603,-30.097,-3.9216,0.98522,-15.652,0.0,-13.657,5.7886,-3.9216,0.98522,-20.587999,-10.526,-8.6349,-18.983999,-10.577,-27.955,-23.205,6.7302,-10.784,7.6006
-20.916,-11.365,-28.155001,-15.686,0.98522,-19.517,-8.7379,-14.628,1.8862,-15.686,0.98522,-20.587999,-5.7416,-2.9206,-16.127001,-9.6154,-23.124001,-17.436001,2.9206,-6.8627,5.6683
-16.177,-8.5079,-20.388,-18.627001,-21.674999,-20.483,-10.68,-10.744,-5.9187,-18.627001,-21.674999,-15.686,-0.95694,5.6508,-11.365,-5.7692,-14.428,-8.7821,0.06349,-3.9216,4.7021
-12.385,-3.746,-13.592,-3.9216,-10.837,-5.9903,-13.592,-0.06472,-7.8699,-3.9216,-10.837,-11.765,2.8708,12.317,-7.5556,-0.96154,-5.7327,-5.8974,-2.7937,-1.9608,6.6345
-12.385,-2.7937,-10.68,-0.98039,-0.98522,1.7391,-12.621,-2.0065,-3.9675,-0.98039,-0.98522,-12.745,4.7847,13.27,-6.6032,1.9231,-0.90177,-4.9359,-2.7937,-0.98039,4.7021
-4.8025,-0.88889,-5.8252,-5.8824,-8.867,-8.8889,-5.8252,-1.0356,-2.9919,-5.8824,-8.867,-8.8235,8.6124,14.222,-0.88889,4.8077,8.7601,-0.12821,-2.7937,2.9412,-3.0274
6.5719,1.9683,1.9417,-14.706,-7.8818,-15.652,-0.97087,5.7605,-4.9431,-14.706,-7.8818,-4.902,11.483,15.175,8.6349,8.6538,16.49,5.641,-1.8413,2.9412,-3.9936
13.207,8.6349,9.7087,-10.784,-8.867,-13.72,-0.97087,1.877,-5.9187,-10.784,-8.867,0.0,16.268,15.175,18.159,13.462,22.287001,7.5641,-2.7937,8.8235,-1.095
12.259,10.54,13.592,-9.8039,-10.837,4.6377,-2.9126,0.90615,-4.9431,-9.8039,-10.837,0.98039,18.181999,14.222,19.111,17.308001,27.118,9.4872,-3.746,12.745,-0.12882
12.259,11.492,14.563,9.8039,6.8966,22.028999,1.9417,3.8188,-2.9919,9.8039,6.8966,1.9608,19.139,11.365,20.063,20.191999,30.016001,13.333,-1.8413,13.725,3.7359
17.945999,13.397,16.504999,20.587999,7.8818,10.435,3.8835,3.8188,-4.9431,20.587999,7.8818,5.8824,19.139,6.6032,22.921,20.191999,30.016001,15.256,-2.7937,15.686,5.6683
19.841999,11.492,19.417,10.784,-0.98522,-1.1594,-2.9126,4.7896,-11.772,10.784,-0.98522,7.8431,17.225,4.6984,21.016001,22.115,30.016001,13.333,-0.88889,13.725,8.5668
15.103,13.397,16.504999,1.9608,-0.98522,1.7391,3.8835,-0.06472,-7.8699,1.9608,-0.98522,8.8235,12.44,3.746,15.302,23.077,26.150999,6.6026,1.9683,10.784,13.398
1.8325,12.444,8.7379,-4.902,-1.9704,5.6039,3.8835,-0.06472,-0.06504,-4.902,-1.9704,4.902,7.6555,5.6508,7.6825,24.038,21.32,-2.0513,2.9206,8.8235,19.195
-7.6461,6.7302,2.9126,-9.8039,-2.9557,-6.9565,-3.8835,-7.8317,1.8862,-9.8039,-2.9557,0.98039,5.7416,7.5556,1.0159,24.038,19.388,-8.7821,5.7778,3.9216,23.059999
-5.7504,8.6349,0.97087,5.8824,-8.867,-8.8889,3.8835,-6.8608,-2.0163,5.8824,-8.867,0.0,5.7416,7.5556,1.9683,23.077,20.354,-14.551,0.06349,1.9608,24.025999
1.8325,7.6825,0.97087,9.8039,-0.98522,-4.058,3.8835,-1.0356,0.91057,9.8039,-0.98522,0.98039,2.8708,4.6984,3.873,18.268999,18.422001,-11.667,5.7778,0.98039,17.261999
5.624,3.873,0.97087,3.9216,12.808,-13.72,-5.8252,4.7896,5.7886,3.9216,12.808,1.9608,-3.8278,-1.9683,-2.7937,11.538,11.659,-3.9744,6.7302,-2.9412,4.7021
4.6761,5.7778,5.8252,-2.9412,12.808,2.7053,2.9126,7.7023,4.813,-2.9412,12.808,6.8627,-8.6124,-4.8254,-9.4603,10.577,8.7601,2.7564,2.9206,-3.9216,-0.12882
3.7283,11.492,11.65,2.9412,4.9261,26.860001,8.7379,10.615,3.8374,2.9412,4.9261,13.725,-11.483,-2.9206,-13.27,11.538,4.8953,4.6795,5.7778,-3.9216,0.83736
-0.06319,14.349,12.621,5.8824,14.778,31.691,10.68,11.586,5.7886,5.8824,14.778,19.608,-13.397,-2.9206,-20.889,8.6538,-0.90177,3.7179,6.7302,-8.8235,-3.9936
6.5719,19.111,16.504999,8.8235,10.837,26.860001,19.417,19.353001,7.7398,8.8235,10.837,24.51,-17.225,-2.9206,-24.698,5.7692,-4.7665,3.7179,10.54,-14.706,-6.8921
11.311,25.778,17.476,23.528999,15.764,22.995001,28.155001,11.586,20.423,23.528999,15.764,26.471001,-22.01,-3.873,-25.650999,5.7692,-11.53,-3.9744,20.063,-19.608,-7.8583
12.259,27.683001,18.447001,26.471001,30.542,14.3,32.039001,3.8188,27.252001,26.471001,30.542,28.431,-22.01,-4.8254,-22.794001,6.7308,-14.428,-3.0128,21.016001,-18.627001,-6.8921
10.363,27.683001,15.534,14.706,23.645,18.164,32.039001,-0.06472,25.301001,14.706,23.645,25.49,-21.052999,-4.8254,-16.127001,5.7692,-17.327,-2.0513,19.111,-16.667,-6.8921
3.7283,27.683001,9.7087,-1.9608,21.674999,13.333,32.039001,-5.89,20.423,-1.9608,21.674999,21.569,-21.052999,-9.5873,-11.365,2.8846,-18.292999,-3.9744,17.205999,-14.706,-6.8921
-1.0111,26.73,5.8252,-2.9412,20.690001,8.5024,27.184,-2.0065,15.545,-2.9412,20.690001,18.627001,-16.268,-9.5873,-10.413,6.7308,-12.496,-2.0513,12.444,-9.8039,-0.12882
-8.594,17.205999,0.97087,0.0,5.9113,-7.9227,22.33,-9.7735,8.7154,0.0,5.9113,7.8431,-13.397,-7.6825,-15.175,8.6538,-8.6312,-5.8974,11.492,-10.784,3.7359
-14.281,5.7778,-6.7961,0.0,4.9261,-15.652,6.7961,-11.715,4.813,0.0,4.9261,-2.9412,-11.483,-7.6825,-18.032,7.6923,-6.6989,-8.7821,5.7778,-8.8235,2.7697
-14.281,-2.7937,-10.68,1.9608,4.9261,-5.0242,-4.8544,-4.9191,2.8618,1.9608,4.9261,-6.8627,-7.6555,-4.8254,-14.222,8.6538,-2.8341,-10.705,1.0159,-4.902,5.6683
-10.49,-13.27,-14.563,-2.9412,-3.9409,-2.1256,-7.767,-2.0065,-2.0163,-2.9412,-3.9409,-12.745,-3.8278,-1.9683,-7.5556,7.6923,1.0306,-6.859,-6.6032,-0.98039,6.6345
-5.7504,-18.032,-15.534,-10.784,-10.837,-9.8551,-13.592,-6.8608,-8.8455,-10.784,-10.837,-14.706,0.95694,-1.0159,3.873,3.8462,2.963,-0.12821,-11.365,4.902,4.7021
-1.0111,-18.983999,-13.592,-13.725,-15.764,-0.19324,-27.184,0.90615,-14.699,-13.725,-15.764,-11.765,4.7847,-1.9683,9.5873,0.0,2.963,3.7179,-11.365,7.8431,-0.12882
7.5197,-15.175,-3.8835,-10.784,-22.66,9.4686,-25.243,5.7605,-9.8211,-10.784,-22.66,-2.9412,5.7416,0.88889,10.54,-0.96154,4.8953,3.7179,-7.5556,8.8235,0.83736
8.4676,-6.6032,4.8544,6.8627,-4.9261,12.367,-5.8252,9.644,-1.0407,6.8627,-4.9261,2.9412,6.6986,-0.06349,9.5873,0.0,5.8615,5.641,-6.6032,8.8235,3.7359
7.5197,-0.88889,8.7379,4.902,11.823,-8.8889,0.0,7.7023,3.8374,4.902,11.823,6.8627,6.6986,0.88889,3.873,0.0,3.9291,0.83333,-3.746,3.9216,1.8035
6.5719,-1.8413,4.8544,12.745,9.8522,-19.517,0.97087,5.7605,1.8862,12.745,9.8522,6.8627,1.9139,1.8413,-6.6032,-4.8077,-1.868,1.7949,1.0159,-0.98039,-5.9259
-1.9589,-1.8413,-1.9417,10.784,9.8522,16.232,-0.97087,1.877,3.8374,10.784,9.8522,5.8824,-3.8278,-1.9683,-12.317,-10.577,-8.6312,2.7564,-2.7937,-2.9412,-11.723
-10.49,0.06349,-3.8835,-5.8824,1.9704,22.995001,-7.767,-4.9191,3.8374,-5.8824,1.9704,6.8627,-6.6986,-8.6349,-13.27,-12.5,-10.564,-2.0513,-4.6984,-5.8824,-14.622
-15.229,1.9683,-3.8835,-11.765,9.8522,0.77295,1.9417,-6.8608,5.7886,-11.765,9.8522,6.8627,-9.5694,-13.397,-15.175,-11.538,-11.53,-5.8974,5.7778,-7.8431,-17.52
-17.125,2.9206,-4.8544,-7.8431,4.9261,-10.821,11.65,-9.7735,14.569,-7.8431,4.9261,4.902,-13.397,-21.968,-15.175,-12.5,-15.395,-10.705,17.205999,-10.784,-17.52
-20.916,-0.88889,-11.65,-5.8824,4.9261,-12.754,1.9417,-11.715,15.545,-5.8824,4.9261,-1.9608,-17.225,-32.444,-19.937,-22.115,-22.158001,-14.551,17.205999,-13.725,-20.419001
-19.021,-5.6508,-19.417,2.9412,14.778,-13.72,-0.97087,-7.8317,9.6911,2.9412,14.778,-5.8824,-19.139,-35.301998,-23.746,-28.846001,-26.989,-13.59,14.349,-13.725,-20.419001
-14.281,-5.6508,-21.358999,-6.8627,1.9704,-14.686,4.8544,-4.9191,12.618,-6.8627,1.9704,-4.902,-18.181999,-31.492001,-21.841,-27.885,-27.955,-9.7436,13.397,-13.725,-13.655
-12.385,-4.6984,-20.388,-14.706,-3.9409,-13.72,0.97087,-5.89,15.545,-14.706,-3.9409,-4.902,-14.354,-25.778,-19.937,-23.077,-28.921,-6.859,7.6825,-8.8235,-5.9259
-10.49,-6.6032,-17.476,0.0,5.9113,2.7053,-3.8835,-2.9773,7.7398,0.0,5.9113,-6.8627,-11.483,-20.063,-18.032,-17.308001,-27.955,-2.0513,2.9206,-4.902,-2.0612
-1.9589,-4.6984,-10.68,0.0,0.98522,11.401,1.9417,-0.06472,2.8618,0.0,0.98522,-4.902,-4.7847,-11.492,-10.413,-10.577,-19.259001,3.7179,0.06349,-1.9608,-0.12882
5.624,-3.746,-3.8835,-2.9412,-4.9261,4.6377,-2.9126,5.7605,-4.9431,-2.9412,-4.9261,-2.9412,1.9139,-6.7302,-0.88889,-3.8462,-12.496,5.641,-4.6984,2.9412,-0.12882
12.259,-5.6508,-1.9417,-5.8824,1.9704,6.57,-8.7379,10.615,-6.8943,-5.8824,1.9704,0.0,5.7416,-0.06349,3.873,1.9231,-9.5974,9.4872,-6.6032,4.902,5.6683
11.311,-7.5556,-3.8835,-7.8431,-5.9113,-3.0918,-3.8835,5.7605,-12.748,-7.8431,-5.9113,-0.98039,5.7416,4.6984,6.7302,2.8846,-10.564,8.5256,-11.365,5.8824,3.7359
8.4676,-5.6508,-5.8252,-3.9216,-6.8966,5.6039,-2.9126,6.7314,-6.8943,-3.9216,-6.8966,-1.9608,6.6986,8.5079,10.54,2.8846,-9.5974,4.6795,-10.413,3.9216,0.83736
-0.06319,-7.5556,-8.7379,-0.98039,-0.98522,5.6039,-11.65,4.7896,-2.9919,-0.98039,-0.98522,-5.8824,5.7416,8.5079,7.6825,-0.96154,-10.564,4.6795,-6.6032,3.9216,-3.9936
-9.5419,-10.413,-8.7379,2.9412,3.9409,-10.821,-8.7379,-4.9191,-5.9187,2.9412,3.9409,-9.8039,2.8708,4.6984,1.9683,-2.8846,-11.53,6.6026,-4.6984,2.9412,-7.8583
-11.438,-11.365,-9.7087,-3.9216,1.9704,-12.754,-3.8835,-3.9482,-1.0407,-3.9216,1.9704,-8.8235,-0.95694,-3.873,-2.7937,-7.6923,-13.462,5.641,-3.746,0.98039,-11.723
-12.385,-10.413,-13.592,-3.9216,1.9704,-14.686,-5.8252,-1.0356,0.91057,-3.9216,1.9704,-7.8431,-5.7416,-12.444,-7.5556,-12.5,-16.361,4.6795,-3.746,0.0,-15.588
-14.281,-7.5556,-14.563,-12.745,-1.9704,-24.348,-4.8544,-4.9191,3.8374,-12.745,-1.9704,-7.8431,-10.526,-19.111,-9.4603,-17.308001,-18.292999,1.7949,0.06349,0.0,-19.452
-10.49,-0.88889,-9.7087,-16.667,2.9557,-12.754,-0.97087,-5.89,7.7398,-16.667,2.9557,-5.8824,-6.6986,-17.205999,-3.746,-13.462,-14.428,-1.0897,0.06349,1.9608,-12.689
-12.385,-3.746,-9.7087,-3.9216,6.8966,-10.821,-5.8252,-12.686,2.8618,-3.9216,6.8966,-8.8235,-5.7416,-14.349,-5.6508,-15.385,-16.361,-5.8974,-2.7937,0.0,-11.723
-13.333,-5.6508,-5.8252,-8.8235,-6.8966,-16.618,-0.97087,-12.686,-6.8943,-8.8235,-6.8966,-7.8431,-4.7847,-7.6825,-9.4603,-13.462,-15.395,-14.551,0.06349,-2.9412,-9.7907
-8.594,3.873,2.9126,-10.784,-4.9261,-8.8889,10.68,-15.599,7.7398,-10.784,-4.9261,-3.9216,-0.95694,4.6984,-8.5079,-3.8462,-8.6312,-17.436001,9.5873,-2.9412,3.7359
-4.8025,5.7778,3.8835,-14.706,0.0,-4.058,5.8252,-15.599,8.7154,-14.706,0.0,-0.98039,0.95694,10.413,-6.6032,0.0,-6.6989,-15.513,12.444,-4.902,8.5668
2.7804,6.7302,3.8835,-15.686,-0.98522,-1.1594,7.767,-10.744,11.642,-15.686,-0.98522,6.8627,1.9139,19.937,-3.746,3.8462,-3.8003,-14.551,12.444,-5.8824,16.296
1.8325,4.8254,-1.9417,0.0,3.9409,5.6039,10.68,-4.9191,10.667,0.0,3.9409,6.8627,-2.8708,26.603001,-8.5079,5.7692,-7.6651,-14.551,11.492,-6.8627,23.059999
-1.9589,-4.6984,-8.7379,0.0,2.9557,0.77295,0.0,-3.9482,1.8862,0.0,2.9557,0.98039,-4.7847,25.650999,-11.365,2.8846,-15.395,-15.513,4.8254,-6.8627,22.093
-2.9068,-9.4603,-7.767,-12.745,-2.9557,5.6039,-8.7379,-14.628,-5.9187,-12.745,-2.9557,-0.98039,-2.8708,23.746,-5.6508,0.0,-14.428,-11.667,-2.7937,-4.902,16.296
-1.9589,-8.5079,-4.8544,-0.98039,-3.9409,2.7053,-6.7961,-10.744,-8.8455,-0.98039,-3.9409,0.0,-0.95694,19.937,-3.746,-1.9231,-13.462,-2.0513,-7.5556,-2.9412,14.364
-3.8547,-12.317,-11.65,2.9412,-3.9409,4.6377,-9.7087,-0.06472,-14.699,2.9412,-3.9409,-2.9412,-6.6986,9.4603,-11.365,-6.7308,-19.259001,-1.0897,-12.317,-6.8627,9.533
-6.6983,-14.222,-14.563,2.9412,-5.9113,5.6039,-6.7961,7.7023,-7.8699,2.9412,-5.9113,-3.9216,-12.44,5.6508,-16.127001,-8.6538,-18.292999,-0.12821,-8.5079,-6.8627,3.7359
-2.9068,-11.365,-9.7087,4.902,-4.9261,8.5024,-4.8544,7.7023,-3.9675,4.902,-4.9261,-2.9412,-11.483,2.7937,-10.413,-6.7308,-8.6312,3.7179,-7.5556,-3.9216,-2.0612
3.7283,-6.6032,0.97087,7.8431,2.9557,8.5024,-4.8544,6.7314,-5.9187,7.8431,2.9557,2.9412,-5.7416,-0.06349,-1.8413,-2.8846,2.963,5.641,-6.6032,0.0,-3.9936
11.311,-1.8413,12.621,7.8431,4.9261,-9.8551,0.0,8.6731,-2.0163,7.8431,4.9261,7.8431,-1.9139,-2.9206,5.7778,0.96154,13.591,10.449,-0.88889,0.98039,-3.9936
10.363,2.9206,14.563,12.745,1.9704,4.6377,2.9126,6.7314,-0.06504,12.745,1.9704,4.902,0.0,-2.9206,10.54,3.8462,18.422001,11.41,-6.6032,4.902,-1.095
1.8325,2.9206,9.7087,0.0,-1.9704,12.367,2.9126,6.7314,-1.0407,0.0,-1.9704,0.0,-2.8708,-1.9683,8.6349,0.96154,13.591,4.6795,-3.746,4.902,1.8035
-4.8025,-1.8413,1.9417,0.0,-4.9261,4.6377,-1.9417,-0.06472,-0.06504,0.0,-4.9261,-7.8431,-11.483,-4.8254,-0.88889,-2.8846,3.9291,-3.0128,0.06349,-2.9412,1.8035
-7.6461,-1.8413,-2.9126,-0.98039,-0.98522,-1.1594,-1.9417,-4.9191,5.7886,-0.98039,-0.98522,-7.8431,-16.268,-4.8254,-9.4603,-4.8077,-3.8003,-6.859,2.9206,-7.8431,2.7697
-5.7504,0.06349,-1.9417,-13.725,-5.9113,-7.9227,0.0,-3.9482,7.7398,-13.725,-5.9113,-2.9412,-13.397,-1.9683,-12.317,-2.8846,-6.6989,-9.7436,6.7302,-10.784,8.5668
-2.9068,-2.7937,0.0,-3.9216,-10.837,-4.058,-0.97087,-2.9773,3.8374,-3.9216,-10.837,0.0,-8.6124,0.88889,-13.27,-1.9231,-5.7327,-6.859,7.6825,-8.8235,4.7021
1.8325,1.0159,4.8544,11.765,0.0,-9.8551,3.8835,0.90615,-1.0407,11.765,0.0,2.9412,-0.95694,8.5079,-6.6032,2.8846,-0.90177,-1.0897,9.5873,-5.8824,5.6683
16.997999,8.6349,16.504999,1.9608,20.690001,-0.19324,10.68,7.7023,8.7154,1.9608,20.690001,13.725,5.7416,18.983999,6.7302,10.577,6.8277,1.7949,10.54,-0.98039,16.296
24.580999,10.54,19.417,16.667,16.749001,30.725,18.447001,9.644,16.52,16.667,16.749001,20.587999,8.6124,18.983999,15.302,11.538,9.7262,9.4872,17.205999,5.8824,14.364
22.686001,10.54,15.534,27.451,15.764,32.657001,17.476,4.7896,8.7154,27.451,15.764,19.608,8.6124,16.127001,21.016001,6.7308,9.7262,13.333,13.397,8.8235,8.5668
19.841999,7.6825,10.68,17.646999,16.749001,22.995001,8.7379,9.644,3.8374,17.646999,16.749001,18.627001,5.7416,10.413,19.111,0.96154,6.8277,8.5256,2.9206,6.8627,5.6683
16.997999,5.7778,9.7087,3.9216,7.8818,8.5024,7.767,3.8188,1.8862,3.9216,7.8818,14.706,2.8708,5.6508,11.492,0.0,5.8615,8.5256,-0.88889,5.8824,5.6683
15.103,13.397,8.7379,-3.9216,3.9409,-10.821,14.563,-1.0356,-1.0407,-3.9216,3.9409,10.784,2.8708,1.8413,7.6825,2.8846,9.7262,7.5641,0.06349,5.8824,9.533
9.4155,19.111,1.9417,2.9412,9.8522,14.3,16.504999,1.877,-9.8211,2.9412,9.8522,5.8824,2.8708,-1.0159,8.6349,6.7308,10.692,4.6795,-8.5079,9.8039,13.398
3.7283,13.397,-5.8252,11.765,7.8818,19.129999,2.9126,0.90615,0.91057,11.765,7.8818,-1.9608,4.7847,-1.0159,9.5873,3.8462,8.7601,5.641,-7.5556,9.8039,9.533
0.88468,7.6825,-5.8252,1.9608,7.8818,2.7053,-5.8252,-0.06472,5.7886,1.9608,7.8818,-7.8431,7.6555,-3.873,12.444,4.8077,10.692,9.4872,-1.8413,10.784,4.7021
2.7804,5.7778,0.97087,-8.8235,3.9409,0.77295,-6.7961,3.8188,3.8374,-8.8235,3.9409,-10.784,10.526,-0.06349,18.159,12.5,16.49,9.4872,6.7302,12.745,10.499
4.6761,5.7778,4.8544,-26.471001,-15.764,-8.8889,-12.621,-2.9773,-1.0407,-26.471001,-15.764,-10.784,13.397,5.6508,19.111,20.191999,22.287001,5.641,2.9206,10.784,15.33
7.5197,6.7302,7.767,-21.569,-12.808,-22.415001,-13.592,-2.9773,-2.9919,-21.569,-12.808,-4.902,17.225,14.222,21.968,25.0,29.049999,8.5256,0.06349,16.667,18.229
12.259,4.8254,8.7379,-5.8824,-8.867,-3.0918,-9.7087,4.7896,-6.8943,-5.8824,-8.867,-2.9412,22.01,15.175,24.825001,23.077,33.881001,12.372,-1.8413,20.587999,14.364
17.945999,4.8254,12.621,8.8235,-4.9261,22.028999,-4.8544,7.7023,-6.8943,8.8235,-4.9261,1.9608,26.794001,15.175,25.778,18.268999,34.847,14.295,-5.6508,21.569,8.5668
18.893999,8.6349,16.504999,10.784,0.0,16.232,-1.9417,6.7314,-4.9431,10.784,0.0,5.8824,28.708,13.27,24.825001,13.462,31.948,10.449,-1.8413,20.587999,1.8035
16.997999,10.54,17.476,4.902,-6.8966,14.3,-2.9126,1.877,-5.9187,4.902,-6.8966,5.8824,27.750999,10.413,25.778,9.6154,25.184999,9.4872,-0.88889,17.646999,-0.12882
15.103,11.492,16.504999,6.8627,-9.8522,16.232,-2.9126,9.644,-3.9675,6.8627,-9.8522,4.902,27.750999,13.27,25.778,9.6154,23.253,12.372,-2.7937,17.646999,5.6683
13.207,7.6825,12.621,7.8431,5.9113,11.401,-3.8835,12.557,-2.9919,7.8431,5.9113,2.9412,23.923,15.175,20.063,10.577,21.32,10.449,1.9683,13.725,7.6006
10.363,5.7778,11.65,0.0,8.867,5.6039,1.9417,5.7605,-3.9675,0.0,8.867,1.9608,16.268,10.413,16.254,8.6538,17.455999,5.641,1.9683,7.8431,2.7697
7.5197,10.54,13.592,-1.9608,4.9261,-6.9565,-0.97087,-1.0356,-1.0407,-1.9608,4.9261,3.9216,10.526,7.5556,12.444,9.6154,15.523,-1.0897,6.7302,2.9412,5.6683
4.6761,15.302,14.563,-0.98039,8.867,-1.1594,3.8835,-3.9482,3.8374,-0.98039,8.867,2.9412,10.526,10.413,8.6349,16.346001,18.422001,-5.8974,11.492,0.0,16.296
-1.9589,18.159,11.65,0.0,4.9261,-3.0918,15.534,-3.9482,9.6911,0.0,4.9261,2.9412,8.6124,10.413,3.873,17.308001,13.591,-7.8205,10.54,0.98039,18.229
-1.9589,17.205999,10.68,-10.784,-10.837,-18.551001,6.7961,-1.0356,9.6911,-10.784,-10.837,0.98039,3.8278,12.317,-1.8413,16.346001,4.8953,-8.7821,9.5873,-2.9412,19.195
-1.0111,12.444,8.7379,-3.9216,2.9557,-18.551001,4.8544,-2.9773,9.6911,-3.9216,2.9557,1.9608,-0.95694,17.079,-5.6508,17.308001,-0.90177,-3.9744,10.54,-5.8824,20.160999
-8.594,3.873,-2.9126,0.98039,15.764,-8.8889,3.8835,0.90615,6.7642,0.98039,15.764,-2.9412,-5.7416,12.317,-10.413,11.538,-8.6312,-2.0513,2.9206,-8.8235,14.364
-10.49,-1.8413,-9.7087,-4.902,6.8966,-11.787,-3.8835,1.877,5.7886,-4.902,6.8966,-5.8824,-6.6986,6.6032,-9.4603,4.8077,-12.496,-0.12821,-1.8413,-6.8627,8.5668
-8.594,-2.7937,-11.65,-16.667,-2.9557,-10.821,0.0,-2.0065,-1.0407,-16.667,-2.9557,-1.9608,-5.7416,1.8413,-5.6508,0.0,-11.53,2.7564,-0.88889,-3.9216,0.83736
-5.7504,-2.7937,-11.65,-2.9412,-6.8966,-3.0918,0.97087,2.8479,-2.9919,-2.9412,-6.8966,-4.902,-5.7416,-6.7302,-3.746,-6.7308,-12.496,3.7179,-8.5079,-1.9608,-8.8245
-3.8547,-5.6508,-9.7087,5.8824,2.9557,-5.0242,-2.9126,7.7023,-6.8943,5.8824,2.9557,-8.8235,-3.8278,-10.54,-3.746,-14.423,-11.53,4.6795,-16.127001,-0.98039,-15.588
-5.7504,-11.365,-12.621,-14.706,-1.9704,-22.415001,-4.8544,2.8479,-9.8211,-14.706,-1.9704,-10.784,-4.7847,-12.444,-8.5079,-20.191999,-12.496,1.7949,-12.317,-2.9412,-20.419001
-6.6983,-12.317,-13.592,-7.8431,-4.9261,-5.0242,-1.9417,0.90615,-8.8455,-7.8431,-4.9261,-6.8627,-7.6555,-14.349,-7.5556,-25.0,-13.462,5.641,-8.5079,-0.98039,-22.351
-3.8547,-8.5079,-10.68,10.784,9.8522,3.6715,-2.9126,3.8188,-3.9675,10.784,9.8522,-2.9412,-5.7416,-13.397,-2.7937,-23.077,-9.5974,8.5256,-1.8413,1.9608,-19.452
-2.9068,-8.5079,-8.7379,11.765,13.793,5.6039,0.0,3.8188,1.8862,11.765,13.793,-0.98039,-6.6986,-14.349,0.06349,-19.231001,-9.5974,2.7564,1.0159,-0.98039,-16.554001
-2.9068,-4.6984,-2.9126,10.784,9.8522,6.57,5.8252,0.90615,3.8374,10.784,9.8522,0.0,-4.7847,-13.397,3.873,-9.6154,-2.8341,-2.0513,-1.8413,-1.9608,-8.8245
-0.06319,-2.7937,3.8835,0.98039,2.9557,-2.1256,0.97087,-4.9191,-3.9675,0.98039,2.9557,-1.9608,0.95694,-12.444,4.8254,-1.9231,5.8615,-6.859,0.06349,-0.98039,-3.0274
2.7804,-0.88889,11.65,-8.8235,-12.808,-14.686,1.9417,-8.8026,-0.06504,-8.8235,-12.808,-0.98039,5.7416,-6.7302,5.7778,4.8077,12.625,-7.8205,3.873,0.0,2.7697
-1.9589,-1.8413,10.68,-4.902,-3.9409,-13.72,-3.8835,-11.715,2.8618,-4.902,-3.9409,0.0,2.8708,-2.9206,-2.7937,6.7308,10.692,-9.7436,-0.88889,-1.9608,5.6683
-15.229,-6.6032,2.9126,1.9608,5.9113,0.77295,-9.7087,-7.8317,3.8374,1.9608,5.9113,-3.9216,-9.5694,-5.7778,-18.983999,0.96154,-0.90177,-14.551,-0.88889,-11.765,3.7359
-18.073,-2.7937,0.97087,4.902,1.9704,-5.9903,0.0,-5.89,5.7886,4.902,1.9704,1.9608,-14.354,-6.7302,-24.698,-0.96154,-6.6989,-13.59,5.7778,-15.686,1.8035
-16.177,1.9683,0.97087,2.9412,5.9113,-3.0918,3.8835,-6.8608,13.593,2.9412,5.9113,6.8627,-13.397,-3.873,-21.841,0.0,-7.6651,-5.8974,7.6825,-15.686,1.8035
-17.125,1.9683,-4.8544,0.98039,17.733999,0.77295,8.7379,-6.8608,15.545,0.98039,17.733999,6.8627,-13.397,-6.7302,-17.079,-4.8077,-13.462,-5.8974,5.7778,-14.706,-2.0612
-17.125,-2.7937,-13.592,-7.8431,13.793,-24.348,8.7379,-5.89,12.618,-7.8431,13.793,3.9216,-14.354,-9.5873,-17.079,-14.423,-21.191999,-8.7821,3.873,-15.686,-5.9259
-15.229,-7.5556,-19.417,-1.9608,2.9557,-19.517,3.8835,-3.9482,6.7642,-1.9608,2.9557,2.9412,-15.311,-14.349,-19.937,-25.0,-27.955,-8.7821,1.0159,-17.646999,-15.588
-10.49,-10.413,-18.447001,0.98039,0.98522,12.367,0.0,9.644,1.8862,0.98039,0.98522,4.902,-11.483,-17.205999,-17.079,-29.808001,-27.955,-0.12821,0.06349,-9.8039,-24.283001
-6.6983,-18.032,-17.476,9.8039,-2.9557,9.4686,-4.8544,9.644,-2.9919,9.8039,-2.9557,-2.9412,-5.7416,-15.302,-13.27,-27.885,-23.124001,7.5641,-7.5556,0.98039,-26.216
-1.0111,-19.937,-12.621,2.9412,-11.823,-5.0242,-14.563,8.6731,-18.601999,2.9412,-11.823,-5.8824,0.95694,-9.5873,-3.746,-20.191999,-13.462,11.41,-16.127001,8.8235,-18.486
1.8325,-21.841,-10.68,-12.745,-21.674999,-10.821,-26.214001,4.7896,-25.431,-12.745,-21.674999,-12.745,5.7416,-4.8254,5.7778,-14.423,-4.7665,13.333,-20.889,12.745,-11.723
2.7804,-24.698,-8.7379,-10.784,-17.733999,-5.0242,-22.33,0.90615,-22.504,-10.784,-17.733999,-17.646999,6.6986,-1.9683,9.5873,-10.577,1.0306,14.295,-22.794001,13.725,-7.8583
0.88468,-24.698,-3.8835,-19.608,-26.601,-5.0242,-26.214001,-4.9191,-21.528,-19.608,-26.601,-19.608,6.6986,-0.06349,12.444,-3.8462,3.9291,13.333,-18.983999,12.745,-1.095
-0.06319,-18.983999,0.0,-9.8039,-22.66,-8.8889,-27.184,-3.9482,-19.577,-9.8039,-22.66,-17.646999,8.6124,1.8413,13.397,1.9231,6.8277,12.372,-9.4603,11.765,5.6683
-2.9068,-12.317,-0.97087,-0.98039,-6.8966,-4.058,-16.504999,-0.06472,-8.8455,-0.98039,-6.8966,-13.725,5.7416,-0.06349,3.873,1.9231,4.8953,9.4872,2.9206,6.8627,7.6006
-6.6983,-5.6508,-7.767,-2.9412,1.9704,-10.821,-8.7379,-1.0356,4.813,-2.9412,1.9704,-6.8627,-2.8708,-3.873,-8.5079,0.0,-1.868,1.7949,6.7302,-1.9608,7.6006
-8.594,-2.7937,-10.68,-2.9412,7.8818,-20.483,2.9126,-3.9482,16.52,-2.9412,7.8818,-2.9412,-5.7416,-5.7778,-14.222,-0.96154,-4.7665,-1.0897,14.349,-8.8235,4.7021
-9.5419,2.9206,-3.8835,-2.9412,9.8522,-10.821,15.534,-8.8026,15.545,-2.9412,9.8522,0.98039,-4.7847,-7.6825,-14.222,0.96154,-4.7665,-5.8974,18.159,-7.8431,-0.12882
-15.229,6.7302,0.0,-2.9412,2.9557,-3.0918,16.504999,-13.657,9.6911,-2.9412,2.9557,0.0,-4.7847,-8.6349,-14.222,2.8846,-4.7665,-15.513,8.6349,-7.8431,-4.9597
-11.438,13.397,6.7961,-0.98039,-0.98522,-3.0918,26.214001,-10.744,8.7154,-0.98039,-0.98522,3.9216,0.0,-3.873,-8.5079,5.7692,-2.8341,-13.59,4.8254,-4.902,-3.9936
-3.8547,12.444,10.68,14.706,17.733999,7.5362,13.592,0.90615,12.618,14.706,17.733999,8.8235,1.9139,-1.0159,-3.746,4.8077,-3.8003,-9.7436,1.9683,-4.902,-2.0612
-1.9589,3.873,6.7961,9.8039,14.778,8.5024,2.9126,-6.8608,4.813,9.8039,14.778,7.8431,-1.9139,1.8413,-6.6032,0.96154,-5.7327,-12.628,-4.6984,-7.8431,-6.8921
-1.9589,-2.7937,0.97087,9.8039,1.9704,10.435,0.97087,-4.9191,-2.9919,9.8039,1.9704,1.9608,-2.8708,1.8413,-6.6032,0.0,-6.6989,-8.7821,-4.6984,-6.8627,-8.8245
-1.0111,-8.5079,-5.8252,4.902,-0.98522,-7.9227,-7.767,-0.06472,-10.797,4.902,-0.98522,-3.9216,0.95694,7.5556,-1.8413,2.8846,-5.7327,-5.8974,-5.6508,-2.9412,-1.095
-1.0111,-11.365,-8.7379,-5.8824,-16.749001,0.77295,-8.7379,-1.0356,-15.675,-5.8824,-16.749001,-2.9412,5.7416,13.27,1.9683,4.8077,-2.8341,1.7949,-6.6032,-0.98039,2.7697
-3.8547,-13.27,-11.65,14.706,-18.719,21.063,-9.7087,5.7605,-14.699,14.706,-18.719,-3.9216,8.6124,12.317,2.9206,2.8846,-1.868,0.83333,-7.5556,1.9608,4.7021
-4.8025,-18.983999,-13.592,14.706,-4.9261,16.232,-16.504999,6.7314,-12.748,14.706,-4.9261,-7.8431,6.6986,11.365,6.7302,0.0,-1.868,3.7179,-6.6032,2.9412,5.6683
-2.9068,-23.746,-17.476,1.9608,-2.9557,8.5024,-16.504999,8.6731,-11.772,1.9608,-2.9557,-10.784,2.8708,6.6032,4.8254,-3.8462,-2.8341,11.41,-12.317,0.98039,5.6683
-2.9068,-19.937,-18.447001,-1.9608,-17.733999,-0.19324,-10.68,11.586,-5.9187,-1.9608,-17.733999,-8.8235,-1.9139,2.7937,-0.88889,-7.6923,-4.7665,12.372,-9.4603,-0.98039,1.8035
-3.8547,-11.365,-11.65,-9.8039,-17.733999,-7.9227,-7.767,5.7605,-10.797,-9.8039,-17.733999,-3.9216,-6.6986,4.6984,-2.7937,-4.8077,-4.7665,10.449,-5.6508,-3.9216,0.83736
-2.9068,-7.5556,-4.8544,-7.8431,-8.867,-14.686,-1.9417,1.877,-4.9431,-7.8431,-8.867,-4.902,-11.483,3.746,-8.5079,-5.7692,-5.7327,5.641,-2.7937,-6.8627,-3.9936
-2.9068,-3.746,1.9417,-1.9608,-0.98522,-13.72,2.9126,6.7314,6.7642,-1.9608,-0.98522,-2.9412,-14.354,4.6984,-9.4603,-5.7692,-5.7327,4.6795,3.873,-8.8235,-3.9936
-4.8025,1.0159,4.8544,5.8824,0.98522,1.7391,0.0,7.7023,8.7154,5.8824,0.98522,0.98039,-13.397,0.88889,-10.413,-5.7692,-8.6312,-1.0897,2.9206,-9.8039,-3.9936
-2.9068,4.8254,7.767,2.9412,2.9557,6.57,10.68,2.8479,11.642,2.9412,2.9557,5.8824,-16.268,-6.7302,-14.222,-9.6154,-14.428,-3.0128,9.5873,-10.784,-7.8583
-4.8025,10.54,6.7961,8.8235,10.837,-2.1256,16.504999,0.90615,15.545,8.8235,10.837,9.8039,-20.096001,-12.444,-18.983999,-10.577,-19.259001,-2.0513,8.6349,-9.8039,-9.7907
-3.8547,9.5873,2.9126,12.745,9.8522,-6.9565,11.65,3.8188,8.7154,12.745,9.8522,8.8235,-22.01,-16.254,-19.937,-11.538,-20.225,-5.8974,4.8254,-10.784,-10.757
-4.8025,1.0159,0.0,4.902,1.9704,-5.9903,9.7087,1.877,7.7398,4.902,1.9704,5.8824,-21.052999,-14.349,-18.032,-6.7308,-16.361,-8.7821,3.873,-12.745,-8.8245
-4.8025,-2.7937,0.97087,-2.9412,-14.778,-15.652,5.8252,-2.9773,1.8862,-2.9412,-14.778,5.8824,-16.268,-7.6825,-14.222,0.0,-9.5974,-8.7821,0.06349,-11.765,-4.9597
-0.06319,-3.746,0.97087,6.8627,0.98522,8.5024,3.8835,-1.0356,3.8374,6.8627,0.98522,3.9216,-11.483,-4.8254,-7.5556,3.8462,-3.8003,-8.7821,1.0159,-12.745,-2.0612
2.7804,-6.6032,-1.9417,8.8235,18.719,21.063,1.9417,3.8188,0.91057,8.8235,18.719,2.9412,-8.6124,-5.7778,-7.5556,4.8077,-1.868,-8.7821,-4.6984,-11.765,0.83736
-0.06319,-9.4603,-7.767,0.0,8.867,-0.19324,-0.97087,-4.9191,0.91057,0.0,8.867,1.9608,-7.6555,-5.7778,-8.5079,0.96154,-1.868,-11.667,-3.746,-12.745,-3.0274
-3.8547,-7.5556,-11.65,-4.902,-3.9409,-6.9565,0.97087,-12.686,4.813,-4.902,-3.9409,0.98039,-7.6555,-5.7778,-10.413,-1.9231,-3.8003,-12.628,1.9683,-14.706,-4.9597
-13.333,-9.4603,-13.592,-19.608,-12.808,-11.787,-8.7379,-14.628,-1.0407,-19.608,-12.808,-3.9216,-11.483,-8.6349,-18.032,-4.8077,-9.5974,-11.667,7.6825,-15.686,-5.9259
-19.021,-9.4603,-10.68,-10.784,-7.8818,-16.618,-5.8252,-14.628,-0.06504,-10.784,-7.8818,-9.8039,-15.311,-8.6349,-21.841,-7.6923,-14.428,-12.628,-1.8413,-13.725,-7.8583
-19.021,-5.6508,-4.8544,-1.9608,2.9557,-20.483,1.9417,-11.715,6.7642,-1.9608,2.9557,-11.765,-14.354,-7.6825,-18.983999,-7.6923,-16.361,-10.705,-2.7937,-12.745,-6.8921
-14.281,-2.7937,-2.9126,-7.8431,3.9409,-21.448999,1.9417,-13.657,5.7886,-7.8431,3.9409,-9.8039,-11.483,-10.54,-16.127001,-8.6538,-16.361,-11.667,1.0159,-10.784,-7.8583
-15.229,-3.746,-5.8252,-13.725,-13.793,-11.787,-1.9417,-14.628,-1.0407,-13.725,-13.793,-10.784,-10.526,-15.302,-14.222,-11.538,-16.361,-7.8205,0.06349,-6.8627,-11.723
-10.49,-4.6984,-6.7961,-14.706,-27.586,-25.313999,-13.592,-12.686,-6.8943,-14.706,-27.586,-16.667,-6.6986,-16.254,-5.6508,-10.577,-12.496,-5.8974,1.9683,-1.9608,-11.723
-1.9589,-0.88889,0.0,-15.686,-13.793,-29.179001,-5.8252,-10.744,-8.8455,-15.686,-13.793,-16.667,2.8708,-12.444,8.6349,-2.8846,0.06441,-1.0897,0.06349,5.8824,-7.8583
3.7283,-3.746,5.8252,-11.765,-12.808,-0.19324,-2.9126,-4.9191,-5.9187,-11.765,-12.808,-11.765,10.526,-5.7778,18.159,4.8077,11.659,4.6795,-0.88889,13.725,-3.0274
10.363,-1.8413,10.68,-1.9608,-13.793,9.4686,-6.7961,-3.9482,-4.9431,-1.9608,-13.793,-5.8824,18.181999,-1.0159,23.872999,9.6154,20.354,5.641,1.0159,17.646999,1.8035
16.997999,-1.8413,13.592,0.0,-2.9557,8.5024,-3.8835,-2.9773,-5.9187,0.0,-2.9557,0.0,22.01,1.8413,26.73,10.577,24.219,5.641,3.873,18.627001,4.7021
16.051001,-3.746,10.68,8.8235,1.9704,15.266,-4.8544,0.90615,-3.9675,8.8235,1.9704,1.9608,21.052999,6.6032,25.778,11.538,23.253,6.6026,-2.7937,18.627001,7.6006
16.997999,-1.8413,8.7379,17.646999,5.9113,14.3,-3.8835,3.8188,-6.8943,17.646999,5.9113,0.98039,19.139,7.5556,25.778,11.538,21.32,5.641,-9.4603,17.646999,9.533
15.103,-2.7937,8.7379,5.8824,1.9704,1.7391,-2.9126,3.8188,-9.8211,5.8824,1.9704,0.98039,14.354,4.6984,20.063,6.7308,15.523,1.7949,-2.7937,14.706,2.7697
14.155,-1.8413,10.68,-2.9412,-7.8818,-8.8889,0.0,5.7605,-5.9187,-2.9412,-7.8818,3.9216,10.526,5.6508,10.54,3.8462,11.659,-0.12821,2.9206,8.8235,-0.12882
9.4155,1.9683,10.68,3.9216,-4.9261,6.57,-0.97087,2.8479,-0.06504,3.9216,-4.9261,5.8824,5.7416,9.4603,1.0159,1.9231,5.8615,-2.0513,2.9206,-0.98039,0.83736
-1.0111,5.7778,11.65,21.569,5.9113,17.198,3.8835,-1.0356,5.7886,21.569,5.9113,6.8627,0.95694,8.5079,-6.6032,-0.96154,1.9968,-4.9359,2.9206,-7.8431,-4.9597
-2.9068,12.444,17.476,24.51,11.823,15.266,13.592,0.90615,9.6911,24.51,11.823,15.686,-0.95694,8.5079,-10.413,1.9231,2.963,-11.667,8.6349,-12.745,-5.9259
-4.8025,15.302,17.476,16.667,11.823,2.7053,12.621,-2.9773,11.642,16.667,11.823,18.627001,-2.8708,7.5556,-12.317,0.96154,0.06441,-21.282,9.5873,-19.608,-6.8921
-8.594,12.444,11.65,1.9608,1.9704,-7.9227,13.592,-9.7735,7.7398,1.9608,1.9704,12.745,-2.8708,6.6032,-8.5079,1.9231,-1.868,-27.051001,1.0159,-19.608,-3.9936
-10.49,7.6825,7.767,-2.9412,-0.98522,-13.72,10.68,-11.715,5.7886,-2.9412,-0.98522,3.9216,0.0,10.413,-1.8413,8.6538,3.9291,-28.974001,1.0159,-14.706,4.7021
-11.438,6.7302,5.8252,-0.98039,5.9113,-17.584999,9.7087,-16.57,4.813,-0.98039,5.9113,-0.98039,4.7847,14.222,6.7302,17.308001,9.7262,-22.243999,5.7778,-5.8824,14.364
-7.6461,6.7302,3.8835,-3.9216,6.8966,-5.9903,8.7379,-14.628,7.7398,-3.9216,6.8966,-2.9412,9.5694,14.222,14.349,19.231001,12.625,-13.59,8.6349,2.9412,16.296
5.624,7.6825,6.7961,-5.8824,1.9704,-0.19324,6.7961,-6.8608,9.6911,-5.8824,1.9704,-0.98039,15.311,18.032,22.921,22.115,21.32,-4.9359,7.6825,13.725,18.229
17.945999,8.6349,12.621,-11.765,-3.9409,-0.19324,2.9126,-4.9191,3.8374,-11.765,-3.9409,2.9412,22.01,21.841,32.444,25.0,31.948,1.7949,9.5873,20.587999,22.093
26.476999,12.444,18.447001,-3.9216,-2.9557,4.6377,7.767,-2.0065,0.91057,-3.9216,-2.9557,6.8627,27.750999,25.650999,38.159,25.962,36.778999,8.5256,9.5873,26.471001,24.025999
30.268999,11.492,22.33,11.765,6.8966,21.063,5.8252,9.644,-2.0163,11.765,6.8966,8.8235,29.665001,24.698,35.301998,25.962,38.712002,14.295,4.8254,30.392,23.059999
32.164001,10.54,28.155001,18.627001,9.8522,33.623001,0.97087,15.469,-2.9919,18.627001,9.8522,12.745,27.750999,23.746,34.348999,24.038,38.712002,15.256,6.7302,28.431,18.229
38.799,15.302,35.922001,28.431,9.8522,25.893999,6.7961,21.294001,-2.0163,28.431,9.8522,18.627001,24.879999,21.841,32.444,22.115,36.778999,21.025999,7.6825,27.451,14.364
39.747002,21.016001,39.806,30.392,0.0,32.657001,0.0,22.264999,-10.797,30.392,0.0,23.528999,19.139,19.937,23.872999,19.231001,31.948,26.795,3.873,23.528999,11.465
36.903999,19.111,38.834999,23.528999,9.8522,38.453999,12.621,23.236,-0.06504,23.528999,9.8522,26.471001,9.5694,16.127001,19.111,13.462,26.150999,23.91,-1.8413,18.627001,9.533
27.424999,16.254,30.097,22.549,18.719,39.419998,24.271999,24.207001,13.593,22.549,18.719,25.49,0.0,8.5079,12.444,5.7692,18.422001,14.295,4.8254,8.8235,1.8035
17.945999,13.397,20.388,18.627001,13.793,25.893999,18.447001,14.498,16.52,18.627001,13.793,24.51,-11.483,1.8413,3.873,-1.9231,7.7939,3.7179,17.205999,-1.9608,-7.8583
13.207,16.254,20.388,8.8235,22.66,8.5024,14.563,3.8188,22.374001,8.8235,22.66,25.49,-18.181999,-1.9683,-1.8413,-1.9231,4.8953,-1.0897,18.159,-7.8431,-9.7907
8.4676,22.921,24.271999,24.51,22.66,13.333,22.33,2.8479,22.374001,24.51,22.66,25.49,-13.397,-1.0159,-0.88889,2.8846,6.8277,-3.0128,13.397,-5.8824,-5.9259
5.624,25.778,20.388,22.549,22.66,5.6039,28.155001,-1.0356,22.374001,22.549,22.66,18.627001,-6.6986,0.88889,1.0159,10.577,8.7601,-6.859,7.6825,-2.9412,1.8035
0.88468,23.872999,14.563,6.8627,22.66,4.6377,27.184,-4.9191,14.569,6.8627,22.66,13.725,-2.8708,4.6984,0.06349,18.268999,10.692,-13.59,3.873,-2.9412,9.533
-0.06319,26.73,13.592,4.902,4.9261,-4.058,28.155001,-4.9191,15.545,4.902,4.9261,11.765,0.0,6.6032,0.06349,22.115,10.692,-13.59,12.444,-3.9216,14.364
-3.8547,26.73,8.7379,-5.8824,4.9261,-7.9227,20.388,-9.7735,20.423,-5.8824,4.9261,9.8039,-0.95694,3.746,-2.7937,18.268999,6.8277,-13.59,18.159,-7.8431,14.364
-11.438,22.921,1.9417,-4.902,13.793,-4.058,19.417,-13.657,20.423,-4.902,13.793,5.8824,-5.7416,3.746,-13.27,13.462,-2.8341,-18.396999,15.302,-13.725,14.364
-16.177,22.921,-1.9417,-20.587999,6.8966,-24.348,27.184,-20.452999,19.447001,-20.587999,6.8966,6.8627,-7.6555,2.7937,-19.937,9.6154,-11.53,-22.243999,20.063,-17.646999,15.33
-22.812,21.016001,-8.7379,-13.725,7.8818,-23.382,15.534,-22.395,12.618,-13.725,7.8818,2.9412,-10.526,-2.9206,-25.650999,2.8846,-21.191999,-23.205,17.205999,-18.627001,14.364
-23.76,14.349,-17.476,-10.784,3.9409,-8.8889,6.7961,-15.599,10.667,-10.784,3.9409,-4.902,-12.44,-5.7778,-27.556,-1.9231,-26.989,-24.167,11.492,-18.627001,13.398
-21.864,3.873,-22.33,-14.706,-7.8818,-9.8551,-13.592,-16.57,-2.0163,-14.706,-7.8818,-15.686,-12.44,-7.6825,-24.698,-4.8077,-28.921,-25.128,8.6349,-18.627001,15.33
-24.708,-10.413,-24.271999,-23.528999,-19.704,-19.517,-34.951,-15.599,-15.675,-23.528999,-19.704,-25.49,-11.483,-12.444,-24.698,-10.577,-31.82,-17.436001,-1.8413,-17.646999,15.33
-21.864,-18.032,-20.388,-28.431,-28.570999,-22.415001,-35.922001,-16.57,-22.504,-28.431,-28.570999,-27.451,-10.526,-12.444,-24.698,-16.346001,-31.82,-11.667,-8.5079,-16.667,4.7021
-14.281,-19.937,-13.592,-17.646999,-33.498001,-11.787,-36.893002,-8.8026,-27.382,-17.646999,-33.498001,-22.549,-7.6555,-9.5873,-19.937,-18.268999,-26.989,-10.705,-12.317,-13.725,-3.0274
-3.8547,-15.175,-3.8835,-28.431,-32.512001,-11.787,-27.184,-8.8026,-27.382,-28.431,-32.512001,-14.706,-3.8278,-7.6825,-13.27,-16.346001,-20.225,-7.8205,-9.4603,-14.706,-5.9259
2.7804,-12.317,0.97087,-10.784,-19.704,-1.1594,-25.243,-6.8608,-22.504,-10.784,-19.704,-8.8235,-0.95694,-3.873,-7.5556,-10.577,-9.5974,-3.9744,-16.127001,-9.8039,-3.9936
4.6761,-11.365,3.8835,1.9608,-10.837,2.7053,-20.388,1.877,-20.552999,1.9608,-10.837,-6.8627,0.95694,-0.06349,-5.6508,-4.8077,-0.90177,0.83333,-17.079,-4.902,-3.0274
8.4676,-6.6032,6.7961,-1.9608,-2.9557,13.333,-4.8544,5.7605,-12.748,-1.9608,-2.9557,-1.9608,1.9139,-0.06349,-0.88889,-0.96154,1.0306,3.7179,-12.317,-3.9216,-6.8921
9.4155,0.06349,9.7087,7.8431,2.9557,0.77295,7.767,5.7605,-5.9187,7.8431,2.9557,2.9412,4.7847,-0.06349,2.9206,3.8462,3.9291,8.5256,-9.4603,-0.98039,-6.8921
12.259,13.397,12.621,11.765,11.823,8.5024,22.33,14.498,3.8374,11.765,11.823,9.8039,7.6555,4.6984,5.7778,8.6538,8.7601,15.256,-0.88889,1.9608,-4.9597
11.311,24.825001,11.65,5.8824,19.704,16.232,34.951,14.498,11.642,5.8824,19.704,12.745,10.526,7.5556,5.7778,12.5,8.7601,14.295,7.6825,4.902,-3.0274
10.363,29.587,14.563,3.9216,28.570999,1.7391,40.777,18.382,27.252001,3.9216,28.570999,14.706,11.483,11.365,5.7778,15.385,10.692,16.218,12.444,5.8824,-0.12882
13.207,32.444,21.358999,6.8627,28.570999,9.4686,41.748001,19.353001,34.081001,6.8627,28.570999,16.667,13.397,16.127001,10.54,20.191999,18.422001,18.141001,17.205999,5.8824,7.6006
11.311,31.492001,19.417,5.8824,36.452999,14.3,35.922001,15.469,32.130001,5.8824,36.452999,13.725,14.354,16.127001,14.349,18.268999,19.388,16.218,22.921,7.8431,11.465
10.363,21.968,14.563,19.608,48.276001,9.4686,24.271999,14.498,30.179001,19.608,48.276001,11.765,14.354,16.127001,12.444,13.462,14.557,14.295,23.872999,8.8235,8.5668
9.4155,13.397,9.7087,45.098,51.231998,-4.058,13.592,15.469,23.35,45.098,51.231998,6.8627,14.354,15.175,6.7302,10.577,10.692,11.41,11.492,6.8627,7.6006
9.4155,11.492,8.7379,44.118,47.291,1.7391,16.504999,16.440001,17.496,44.118,47.291,7.8431,15.311,9.4603,5.7778,6.7308,5.8615,13.333,8.6349,6.8627,8.5668
10.363,5.7778,9.7087,31.372999,47.291,30.725,13.592,18.382,13.593,31.372999,47.291,8.8235,14.354,3.746,4.8254,3.8462,2.963,16.218,7.6825,7.8431,4.7021
10.363,-1.8413,5.8252,16.667,42.365002,20.097,7.767,16.440001,2.8618,16.667,42.365002,6.8627,11.483,-2.9206,1.9683,0.96154,1.0306,13.333,-3.746,3.9216,2.7697
5.624,-9.4603,-2.9126,28.431,36.452999,17.198,4.8544,13.528,3.8374,28.431,36.452999,5.8824,5.7416,-11.492,1.0159,-5.7692,-3.8003,12.372,-4.6984,3.9216,-1.095
2.7804,-15.175,-8.7379,32.353001,27.586,5.6039,-1.9417,12.557,4.813,32.353001,27.586,2.9412,0.0,-17.205999,-0.88889,-10.577,-8.6312,10.449,-5.6508,4.902,-4.9597
1.8325,-18.983999,-11.65,35.293999,27.586,14.3,-5.8252,16.440001,1.8862,35.293999,27.586,2.9412,-2.8708,-15.302,-1.8413,-13.462,-10.564,9.4872,-0.88889,3.9216,-10.757
1.8325,-18.983999,-19.417,32.353001,28.570999,5.6039,-9.7087,15.469,0.91057,32.353001,28.570999,0.0,-5.7416,-15.302,-2.7937,-19.231001,-18.292999,12.372,-5.6508,3.9216,-17.52
2.7804,-19.937,-26.214001,28.431,27.586,27.826,-11.65,19.353001,1.8862,28.431,27.586,-2.9412,-7.6555,-14.349,-3.746,-25.0,-25.056,13.333,-9.4603,4.902,-21.385
2.7804,-18.983999,-22.33,31.372999,23.645,44.250999,-3.8835,18.382,0.91057,31.372999,23.645,-1.9608,-5.7416,-7.6825,-0.88889,-24.038,-23.124001,19.103001,-6.6032,7.8431,-19.452
6.5719,-10.413,-13.592,26.471001,26.601,23.961,1.9417,11.586,4.813,26.471001,26.601,4.902,-2.8708,-1.0159,5.7778,-19.231001,-16.361,24.872,-2.7937,10.784,-15.588
7.5197,-2.7937,-5.8252,22.549,24.631001,21.063,10.68,9.644,8.7154,22.549,24.631001,9.8039,-1.9139,3.746,8.6349,-13.462,-10.564,21.025999,3.873,10.784,-10.757
7.5197,0.06349,0.0,32.353001,25.615999,16.232,11.65,10.615,13.593,32.353001,25.615999,12.745,-3.8278,1.8413,5.7778,-9.6154,-8.6312,18.141001,3.873,7.8431,-5.9259
11.311,0.06349,1.9417,33.333,28.570999,25.893999,8.7379,17.410999,13.593,33.333,28.570999,14.706,-4.7847,-2.9206,6.7302,-10.577,-6.6989,15.256,5.7778,7.8431,-7.8583
9.4155,-1.8413,1.9417,26.471001,20.690001,22.995001,8.7379,9.644,9.6911,26.471001,20.690001,12.745,-4.7847,-5.7778,6.7302,-11.538,-4.7665,10.449,4.8254,6.8627,-8.8245
7.5197,-7.5556,-0.97087,19.608,19.704,10.435,0.0,5.7605,12.618,19.608,19.704,6.8627,-4.7847,-6.7302,5.7778,-9.6154,-2.8341,6.6026,0.06349,4.902,-5.9259
6.5719,-14.222,-2.9126,17.646999,22.66,14.3,-9.7087,5.7605,3.8374,17.646999,22.66,0.0,-3.8278,-8.6349,7.6825,-8.6538,0.06441,5.641,-5.6508,5.8824,-5.9259
7.5197,-21.841,-4.8544,3.9216,14.778,13.333,-12.621,5.7605,-5.9187,3.9216,14.778,-4.902,-1.9139,-11.492,9.5873,-10.577,2.963,9.4872,-7.5556,6.8627,-7.8583
5.624,-23.746,-6.7961,0.98039,10.837,4.6377,-12.621,6.7314,-2.9919,0.98039,10.837,-4.902,0.0,-8.6349,10.54,-12.5,4.8953,7.5641,-6.6032,6.8627,-9.7907
3.7283,-18.983999,-5.8252,9.8039,11.823,-1.1594,-9.7087,1.877,-2.0163,9.8039,11.823,-2.9412,0.0,-4.8254,10.54,-13.462,4.8953,2.7564,-10.413,5.8824,-11.723
0.88468,-10.413,-2.9126,20.587999,16.749001,1.7391,-0.97087,0.90615,3.8374,20.587999,16.749001,1.9608,-3.8278,-7.6825,7.6825,-14.423,0.06441,-2.0513,-8.5079,2.9412,-11.723
-1.0111,-4.6984,-0.97087,14.706,23.645,0.77295,8.7379,3.8188,8.7154,14.706,23.645,7.8431,-6.6986,-8.6349,4.8254,-15.385,-0.90177,-3.9744,-0.88889,0.0,-10.757
-1.0111,-3.746,-2.9126,8.8235,20.690001,-5.0242,12.621,-2.9773,5.7886,8.8235,20.690001,5.8824,-8.6124,-8.6349,3.873,-13.462,0.06441,-3.0128,-0.88889,0.98039,-11.723
3.7283,-0.88889,0.97087,9.8039,13.793,-11.787,14.563,-2.0065,1.8862,9.8039,13.793,5.8824,-5.7416,-9.5873,8.6349,-11.538,1.9968,-0.12821,-5.6508,3.9216,-10.757
8.4676,2.9206,11.65,-0.98039,11.823,-5.0242,12.621,2.8479,-2.0163,-0.98039,11.823,6.8627,0.0,-5.7778,10.54,-3.8462,7.7939,10.449,-10.413,10.784,-3.0274
12.259,8.6349,17.476,-28.431,3.9409,-3.0918,14.563,-1.0356,0.91057,-28.431,3.9409,6.8627,1.9139,-2.9206,9.5873,0.96154,11.659,19.103001,0.06349,14.706,-1.095
9.4155,10.54,14.563,-31.372999,-2.9557,-11.787,4.8544,-5.89,2.8618,-31.372999,-2.9557,0.0,0.95694,-0.06349,9.5873,3.8462,10.692,17.179001,1.0159,11.765,-2.0612
10.363,13.397,14.563,-12.745,2.9557,2.7053,8.7379,-9.7735,15.545,-12.745,2.9557,-0.98039,3.8278,6.6032,11.492,10.577,14.557,14.295,4.8254,12.745,3.7359
15.103,16.254,14.563,-9.8039,3.9409,4.6377,15.534,-5.89,17.496,-9.8039,3.9409,2.9412,7.6555,12.317,17.205999,15.385,19.388,11.41,14.349,14.706,8.5668
17.945999,21.968,13.592,-4.902,2.9557,9.4686,18.447001,-5.89,18.472,-4.902,2.9557,8.8235,13.397,16.127001,23.872999,19.231001,22.287001,5.641,18.159,16.667,14.364
13.207,18.159,8.7379,-9.8039,0.98522,11.401,20.388,-17.540001,18.472,-9.8039,0.98522,8.8235,16.268,12.317,21.968,17.308001,20.354,-3.9744,22.921,12.745,14.364
1.8325,9.5873,0.97087,-30.392,-3.9409,-10.821,14.563,-25.306999,15.545,-30.392,-3.9409,3.9216,16.268,6.6032,13.397,12.5,13.591,-3.9744,23.872999,12.745,10.499
-8.594,2.9206,-8.7379,-35.293999,-7.8818,-22.415001,6.7961,-21.424,9.6911,-35.293999,-7.8818,-5.8824,14.354,2.7937,3.873,6.7308,3.9291,-0.12821,14.349,10.784,6.6345
-17.125,-7.5556,-19.417,-43.137001,-19.704,-21.448999,-7.767,-22.395,-1.0407,-43.137001,-19.704,-13.725,12.44,-0.06349,-5.6508,0.0,-3.8003,0.83333,1.0159,7.8431,0.83736
-23.76,-17.079,-31.068001,-41.175999,-24.631001,-22.415001,-8.7379,-17.540001,-9.8211,-41.175999,-24.631001,-19.608,9.5694,-3.873,-7.5556,-7.6923,-12.496,4.6795,-10.413,7.8431,-4.9597
-27.551001,-24.698,-40.777,-42.157001,-26.601,-33.042999,-12.621,-6.8608,-20.552999,-42.157001,-26.601,-24.51,4.7847,-8.6349,-7.5556,-16.346001,-20.225,7.5641,-19.937,5.8824,-9.7907
-26.603001,-27.556,-39.806,-28.431,-28.570999,-33.042999,-19.417,4.7896,-21.528,-28.431,-28.570999,-20.587999,2.8708,-9.5873,-6.6032,-19.231001,-22.158001,11.41,-23.746,4.902,-11.723
-24.708,-29.459999,-37.863998,-13.725,-23.645,-14.686,-24.271999,12.557,-24.455,-13.725,-23.645,-19.608,0.0,-11.492,-6.6032,-21.153999,-24.09,11.41,-26.603001,1.9608,-16.554001
-19.968,-34.222,-36.893002,0.0,-21.674999,4.6377,-33.980999,28.091,-35.187,0.0,-21.674999,-18.627001,-0.95694,-14.349,-7.5556,-23.077,-23.124001,13.333,-32.317001,1.9608,-18.486
-14.281,-35.174999,-33.009998,14.706,-21.674999,13.333,-33.980999,36.827999,-35.187,14.706,-21.674999,-11.765,-1.9139,-16.254,-6.6032,-24.038,-21.191999,21.025999,-33.27,4.902,-18.486
-4.8025,-32.317001,-28.155001,23.528999,-28.570999,-4.058,-36.893002,31.974001,-36.162998,23.528999,-28.570999,-3.9216,0.0,-15.302,-4.6984,-23.077,-17.327,25.833,-33.27,7.8431,-18.486
5.624,-29.459999,-21.358999,22.549,-21.674999,3.6715,-36.893002,35.858002,-45.918999,22.549,-21.674999,0.0,3.8278,-10.54,1.0159,-19.231001,-8.6312,29.679001,-37.078999,12.745,-18.486
8.4676,-27.556,-16.504999,26.471001,-7.8818,27.826,-34.951,41.682999,-44.943001,26.471001,-7.8818,2.9412,7.6555,-7.6825,6.7302,-14.423,-0.90177,32.563999,-35.174999,15.686,-17.52
6.5719,-27.556,-13.592,31.372999,-14.778,27.826,-33.009998,37.799,-32.259998,31.372999,-14.778,0.0,4.7847,-7.6825,9.5873,-10.577,4.8953,23.91,-30.413,12.745,-17.52
10.363,-22.794001,-3.8835,29.412001,-22.66,10.435,-32.039001,28.091,-28.358,29.412001,-22.66,0.0,7.6555,-8.6349,16.254,-5.7692,11.659,13.333,-19.937,11.765,-15.588
12.259,-17.079,2.9126,21.569,-35.467999,6.57,-31.068001,19.353001,-24.455,21.569,-35.467999,0.98039,10.526,-6.7302,21.016001,-1.9231,16.49,12.372,-20.889,9.8039,-10.757
13.207,-15.175,2.9126,22.549,-27.586,21.063,-21.358999,15.469,-15.675,22.549,-27.586,-0.98039,11.483,-5.7778,24.825001,1.9231,21.32,14.295,-20.889,11.765,-6.8921
14.155,-9.4603,4.8544,14.706,-29.556999,9.4686,-20.388,10.615,-17.625999,14.706,-29.556999,-2.9412,11.483,-2.9206,26.73,7.6923,26.150999,11.41,-15.175,12.745,-0.12882
6.5719,-9.4603,0.0,-10.784,-46.305,-3.0918,-25.243,-2.9773,-29.333,-10.784,-46.305,-8.8235,8.6124,-1.9683,21.968,7.6923,22.287001,4.6795,-16.127001,8.8235,4.7021
-0.06319,-12.317,-2.9126,-34.313999,-50.245998,-13.72,-27.184,-13.657,-26.407,-34.313999,-50.245998,-13.725,5.7416,0.88889,14.349,5.7692,16.49,-1.0897,-16.127001,5.8824,6.6345
-5.7504,-9.4603,-1.9417,-26.471001,-42.365002,-17.584999,-26.214001,-20.452999,-18.601999,-26.471001,-42.365002,-16.667,3.8278,3.746,8.6349,7.6923,12.625,-10.705,-11.365,2.9412,13.398
-10.49,-8.5079,-1.9417,-30.392,-40.394001,-19.517,-22.33,-25.306999,-15.675,-30.392,-40.394001,-18.627001,0.95694,3.746,5.7778,6.7308,8.7601,-14.551,-6.6032,0.98039,12.432
-12.385,-12.317,-4.8544,-42.157001,-49.261002,-25.313999,-23.301001,-29.191,-13.724,-42.157001,-49.261002,-22.549,-2.8708,4.6984,2.9206,4.8077,6.8277,-13.59,-3.746,-1.9608,8.5668
-13.333,-14.222,-6.7961,-44.118,-51.231998,-28.212999,-28.155001,-29.191,-14.699,-44.118,-51.231998,-23.528999,-3.8278,7.5556,1.0159,6.7308,4.8953,-15.513,-1.8413,-3.9216,9.533
-13.333,-14.222,-6.7961,-46.077999,-49.261002,-30.145,-28.155001,-24.337,-12.748,-46.077999,-49.261002,-24.51,-5.7416,8.5079,-2.7937,6.7308,0.06441,-18.396999,-0.88889,-5.8824,10.499
-11.438,-14.222,-2.9126,-44.118,-48.276001,-35.942001,-20.388,-29.191,-15.675,-44.118,-48.276001,-21.569,-4.7847,10.413,-4.6984,5.7692,1.9968,-17.436001,-1.8413,-5.8824,7.6006
-7.6461,-9.4603,1.9417,-48.039001,-44.334999,-25.313999,-23.301001,-30.162001,-19.577,-48.039001,-44.334999,-16.667,0.0,12.317,-3.746,8.6538,6.8277,-17.436001,-6.6032,-3.9216,7.6006
-1.9589,-2.7937,8.7379,-50.98,-32.512001,-17.584999,-20.388,-29.191,-20.552999,-50.98,-32.512001,-13.725,2.8708,10.413,0.06349,12.5,11.659,-16.474001,-7.5556,-3.9216,7.6006
0.88468,3.873,14.563,-37.255001,-29.556999,0.77295,-11.65,-27.249001,-10.797,-37.255001,-29.556999,-8.8235,0.95694,8.5079,1.0159,15.385,16.49,-17.436001,-8.5079,-1.9608,4.7021
4.6761,12.444,17.476,-15.686,-22.66,-1.1594,-1.9417,-20.452999,1.8862,-15.686,-22.66,-1.9608,-3.8278,3.746,1.0159,15.385,17.455999,-10.705,1.0159,-1.9608,1.8035
3.7283,20.063,18.447001,-17.646999,-12.808,-22.415001,3.8835,-26.278,13.593,-17.646999,-12.808,-0.98039,-7.6555,2.7937,1.0159,19.231001,15.523,-8.7821,13.397,-5.8824,6.6345
-1.0111,19.111,16.504999,-23.528999,-11.823,-12.754,6.7961,-29.191,11.642,-23.528999,-11.823,-1.9608,-8.6124,4.6984,-0.88889,23.077,14.557,-13.59,20.063,-7.8431,13.398
-7.6461,14.349,11.65,-27.451,-15.764,-13.72,2.9126,-29.191,6.7642,-27.451,-15.764,-5.8824,-8.6124,4.6984,-7.5556,17.308001,8.7601,-18.396999,20.063,-11.765,11.465
-15.229,12.444,4.8544,-46.077999,-11.823,-20.483,10.68,-30.162001,10.667,-46.077999,-11.823,-7.8431,-11.483,5.6508,-15.175,12.5,-0.90177,-25.128,21.968,-16.667,12.432
-20.916,11.492,1.9417,-49.02,-8.867,-23.382,5.8252,-38.900002,5.7886,-49.02,-8.867,-9.8039,-12.44,9.4603,-19.937,15.385,-5.7327,-29.936001,17.205999,-20.587999,18.229
-26.603001,7.6825,-3.8835,-33.333,-17.733999,-30.145,-4.8544,-36.958,5.7886,-33.333,-17.733999,-16.667,-11.483,12.317,-21.841,16.346001,-3.8003,-35.705002,10.54,-22.549,20.160999
-28.499001,2.9206,-8.7379,-32.353001,-20.690001,-45.604,-15.534,-39.870998,-2.0163,-32.353001,-20.690001,-24.51,-8.6124,12.317,-22.794001,16.346001,-4.7665,-36.667,9.5873,-18.627001,21.127001
-25.656,-0.88889,-9.7087,-44.118,-21.674999,-57.198002,-19.417,-45.695999,-2.9919,-44.118,-21.674999,-28.431,-6.6986,13.27,-22.794001,16.346001,-5.7327,-30.896999,12.444,-16.667,22.093
-23.76,-4.6984,-7.767,-50.0,-29.556999,-40.772999,-19.417,-39.870998,-0.06504,-50.0,-29.556999,-32.353001,-8.6124,12.317,-19.937,15.385,-4.7665,-27.051001,2.9206,-16.667,23.059999
-22.812,-6.6032,-6.7961,-55.882,-26.601,-41.738998,-18.447001,-36.958,-3.9675,-55.882,-26.601,-34.313999,-13.397,6.6032,-18.032,10.577,-6.6989,-24.167,-4.6984,-16.667,18.229
-18.073,-2.7937,-0.97087,-50.0,-28.570999,-49.469002,-14.563,-30.162001,-7.8699,-50.0,-28.570999,-24.51,-13.397,2.7937,-13.27,7.6923,-6.6989,-19.358999,-1.8413,-16.667,12.432
-10.49,1.9683,6.7961,-35.293999,-23.645,-12.754,-5.8252,-20.452999,-8.8455,-35.293999,-23.645,-13.725,-11.483,-0.06349,-7.5556,6.7308,-2.8341,-12.628,-2.7937,-13.725,6.6345
-5.7504,6.7302,9.7087,-21.569,-26.601,-2.1256,0.0,-16.57,-5.9187,-21.569,-26.601,-7.8431,-11.483,-5.7778,-6.6032,2.8846,-1.868,-8.7821,-3.746,-11.765,1.8035
-1.0111,9.5873,9.7087,-11.765,-12.808,-14.686,2.9126,-9.7735,0.91057,-11.765,-12.808,-1.9608,-12.44,-11.492,-11.365,-2.8846,-1.868,-8.7821,-0.88889,-14.706,-4.9597
0.88468,9.5873,5.8252,-8.8235,-5.9113,-13.72,5.8252,-6.8608,2.8618,-8.8235,-5.9113,0.98039,-12.44,-11.492,-17.079,-3.8462,-3.8003,-3.9744,1.9683,-12.745,-4.9597
-3.8547,11.492,1.9417,-16.667,-12.808,-5.0242,3.8835,-2.9773,4.813,-16.667,-12.808,0.0,-12.44,-10.54,-20.889,-4.8077,-9.5974,-3.0128,8.6349,-13.725,-3.9936
-4.8025,13.397,2.9126,-26.471001,-3.9409,-4.058,15.534,-2.0065,11.642,-26.471001,-3.9409,2.9412,-11.483,-9.5873,-21.841,-7.6923,-11.53,-3.9744,14.349,-14.706,-10.757
-2.9068,14.349,4.8544,-15.686,2.9557,-0.19324,20.388,-4.9191,16.52,-15.686,2.9557,5.8824,-7.6555,-3.873,-19.937,-6.7308,-10.564,-4.9359,14.349,-12.745,-10.757
-2.9068,15.302,3.8835,-3.9216,0.98522,-0.19324,22.33,-1.0356,14.569,-3.9216,0.98522,5.8824,-4.7847,0.88889,-15.175,-1.9231,-10.564,-6.859,14.349,-10.784,-3.0274
-8.594,8.6349,-0.97087,-13.725,-2.9557,-21.448999,5.8252,-2.9773,10.667,-13.725,-2.9557,0.98039,-5.7416,0.88889,-13.27,-0.96154,-11.53,-10.705,12.444,-10.784,3.7359
-11.438,2.9206,-7.767,-9.8039,-8.867,-2.1256,-2.9126,-2.0065,9.6911,-9.8039,-8.867,-2.9412,-7.6555,3.746,-14.222,0.96154,-12.496,-11.667,10.54,-9.8039,9.533
-15.229,1.9683,-13.592,-1.9608,-3.9409,7.5362,0.97087,-1.0356,9.6911,-1.9608,-3.9409,-7.8431,-10.526,1.8413,-18.032,0.0,-15.395,-4.9359,9.5873,-7.8431,9.533
-16.177,-0.88889,-14.563,-4.902,2.9557,-8.8889,7.767,-7.8317,5.7886,-4.902,2.9557,-8.8235,-12.44,-4.8254,-21.841,-3.8462,-20.225,-4.9359,8.6349,-8.8235,4.7021
-10.49,-1.8413,-12.621,-12.745,-0.98522,-9.8551,9.7087,-2.9773,2.8618,-12.745,-0.98522,-4.902,-13.397,-7.6825,-23.746,-5.7692,-19.259001,-5.8974,4.8254,-10.784,1.8035
-7.6461,1.0159,-11.65,-15.686,0.0,-15.652,6.7961,0.90615,3.8374,-15.686,0.0,-0.98039,-13.397,-5.7778,-21.841,-6.7308,-18.292999,-4.9359,2.9206,-11.765,-0.12882
-5.7504,2.9206,-10.68,-15.686,5.9113,-3.0918,5.8252,10.615,4.813,-15.686,5.9113,4.902,-16.268,-6.7302,-18.983999,-6.7308,-19.259001,-3.9744,6.7302,-13.725,-0.12882
-2.9068,3.873,-7.767,1.9608,8.867,6.57,11.65,15.469,10.667,1.9608,8.867,11.765,-20.096001,-11.492,-18.983999,-9.6154,-22.158001,-2.0513,1.9683,-14.706,-8.8245
-2.9068,3.873,-6.7961,6.8627,22.66,9.4686,23.301001,9.644,16.52,6.8627,22.66,14.706,-23.923,-18.159,-18.983999,-13.462,-25.056,-7.8205,3.873,-16.667,-16.554001
-4.8025,3.873,-7.767,9.8039,20.690001,16.232,30.097,10.615,14.569,9.8039,20.690001,14.706,-22.966999,-21.016001,-19.937,-14.423,-25.056,-4.9359,7.6825,-17.646999,-17.52
-4.8025,4.8254,-7.767,11.765,13.793,8.5024,28.155001,7.7023,10.667,11.765,13.793,14.706,-21.052999,-17.205999,-20.889,-12.5,-22.158001,-2.0513,3.873,-15.686,-16.554001
-3.8547,2.9206,-9.7087,7.8431,11.823,8.5024,18.447001,7.7023,4.813,7.8431,11.823,8.8235,-17.225,-10.54,-18.983999,-9.6154,-18.292999,-3.0128,-1.8413,-12.745,-12.689
-3.8547,-1.8413,-13.592,5.8824,14.778,-14.686,7.767,4.7896,7.7398,5.8824,14.778,4.902,-12.44,-2.9206,-16.127001,-8.6538,-16.361,-3.0128,0.06349,-7.8431,-8.8245
-5.7504,-5.6508,-15.534,-2.9412,14.778,-8.8889,3.8835,7.7023,9.6911,-2.9412,14.778,0.98039,-8.6124,1.8413,-15.175,-6.7308,-12.496,-3.0128,1.9683,-2.9412,-4.9597
-6.6983,-5.6508,-13.592,1.9608,10.837,14.3,0.97087,8.6731,2.8618,1.9608,10.837,0.0,-4.7847,4.6984,-11.365,-2.8846,-9.5974,-3.0128,0.06349,-1.9608,1.8035
-7.6461,-2.7937,-12.621,3.9216,11.823,10.435,0.97087,8.6731,4.813,3.9216,11.823,-1.9608,-1.9139,3.746,-7.5556,-1.9231,-10.564,-6.859,3.873,-1.9608,4.7021
-8.594,-1.8413,-12.621,1.9608,15.764,1.7391,6.7961,5.7605,4.813,1.9608,15.764,0.98039,0.95694,3.746,-5.6508,-1.9231,-9.5974,-8.7821,6.7302,0.0,7.6006
-5.7504,1.9683,-9.7087,3.9216,25.615999,2.7053,11.65,5.7605,5.7886,3.9216,25.615999,6.8627,1.9139,4.6984,-6.6032,0.0,-7.6651,-3.0128,7.6825,0.0,9.533
-1.9589,7.6825,-5.8252,21.569,33.498001,4.6377,17.476,9.644,8.7154,21.569,33.498001,11.765,1.9139,4.6984,-4.6984,0.96154,-6.6989,-1.0897,13.397,0.98039,10.499
5.624,10.54,-0.97087,35.293999,40.394001,-4.058,24.271999,16.440001,10.667,35.293999,40.394001,18.627001,0.95694,4.6984,-3.746,-0.96154,-5.7327,0.83333,6.7302,0.0,8.5668
5.624,6.7302,0.0,41.175999,51.231998,14.3,27.184,18.382,10.667,41.175999,51.231998,18.627001,-3.8278,0.88889,-4.6984,-8.6538,-7.6651,2.7564,0.06349,0.0,1.8035
5.624,6.7302,1.9417,31.372999,47.291,31.691,25.243,17.410999,6.7642,31.372999,47.291,19.608,-5.7416,-5.7778,-4.6984,-14.423,-8.6312,6.6026,-4.6984,1.9608,-6.8921
10.363,4.8254,4.8544,29.412001,44.334999,27.826,20.388,18.382,11.642,29.412001,44.334999,21.569,-6.6986,-10.54,-3.746,-17.308001,-6.6989,9.4872,-10.413,0.98039,-11.723
10.363,2.9206,1.9417,41.175999,53.202,21.063,22.33,25.177999,18.472,41.175999,53.202,19.608,-11.483,-10.54,-4.6984,-15.385,-5.7327,13.333,-8.5079,-0.98039,-8.8245
5.624,1.0159,-3.8835,31.372999,30.542,13.333,20.388,21.294001,16.52,31.372999,30.542,17.646999,-13.397,-9.5873,-4.6984,-13.462,-7.6651,15.256,2.9206,-2.9412,-8.8245
-1.9589,-5.6508,-10.68,33.333,29.556999,14.3,8.7379,17.410999,11.642,33.333,29.556999,10.784,-13.397,-13.397,-6.6032,-15.385,-13.462,11.41,3.873,-3.9216,-13.655
-7.6461,-12.317,-14.563,30.392,32.512001,14.3,2.9126,10.615,8.7154,30.392,32.512001,2.9412,-13.397,-13.397,-11.365,-15.385,-18.292999,5.641,3.873,-6.8627,-13.655
-7.6461,-9.4603,-11.65,21.569,22.66,8.5024,1.9417,6.7314,11.642,21.569,22.66,2.9412,-12.44,-9.5873,-12.317,-15.385,-20.225,-0.12821,3.873,-7.8431,-7.8583
-9.5419,-7.5556,-9.7087,21.569,18.719,-10.821,1.9417,-1.0356,8.7154,21.569,18.719,4.902,-10.526,-6.7302,-13.27,-13.462,-19.259001,-3.0128,2.9206,-6.8627,-3.9936
-9.5419,-8.5079,-10.68,13.725,13.793,8.5024,6.7961,6.7314,3.8374,13.725,13.793,9.8039,-10.526,0.88889,-15.175,-9.6154,-17.327,-8.7821,1.9683,-4.902,-0.12882
-15.229,-8.5079,-18.447001,9.8039,14.778,14.3,11.65,1.877,4.813,9.8039,14.778,9.8039,-11.483,4.6984,-13.27,-8.6538,-18.292999,-9.7436,1.0159,-3.9216,2.7697
-19.968,-10.413,-23.301001,17.646999,18.719,11.401,7.767,-2.9773,4.813,17.646999,18.719,3.9216,-10.526,5.6508,-9.4603,-8.6538,-19.259001,-10.705,0.06349,-4.902,3.7359
-20.916,-12.317,-20.388,22.549,7.8818,1.7391,-0.97087,-3.9482,0.91057,22.549,7.8818,2.9412,-6.6986,6.6032,-7.5556,-6.7308,-13.462,-8.7821,-0.88889,-2.9412,0.83736
-15.229,-9.4603,-11.65,24.51,-4.9261,-4.058,-5.8252,6.7314,-6.8943,24.51,-4.9261,5.8824,-3.8278,3.746,-0.88889,-5.7692,-6.6989,-3.0128,-9.4603,0.98039,-3.9936
-6.6983,-5.6508,-0.97087,28.431,0.98522,3.6715,-0.97087,11.586,-15.675,28.431,0.98522,10.784,1.9139,2.7937,3.873,-3.8462,0.06441,5.641,-19.937,5.8824,-7.8583
4.6761,-4.6984,5.8252,32.353001,0.0,18.164,-1.9417,19.353001,-17.625999,32.353001,0.0,19.608,3.8278,0.88889,3.873,-3.8462,5.8615,9.4872,-21.841,4.902,-10.757
11.311,-2.7937,8.7379,29.412001,2.9557,25.893999,1.9417,23.236,-11.772,29.412001,2.9557,23.528999,2.8708,-1.9683,3.873,-7.6923,7.7939,5.641,-17.079,1.9608,-13.655
11.311,-3.746,9.7087,21.569,0.98522,32.657001,0.0,17.410999,-5.9187,21.569,0.98522,24.51,1.9139,-6.7302,4.8254,-11.538,7.7939,7.5641,-9.4603,0.98039,-14.622
14.155,-8.5079,9.7087,29.412001,-1.9704,25.893999,-3.8835,17.410999,-4.9431,29.412001,-1.9704,23.528999,1.9139,-7.6825,3.873,-11.538,6.8277,8.5256,1.9683,0.0,-13.655
17.945999,-5.6508,12.621,45.098,7.8818,27.826,-0.97087,20.323999,3.8374,45.098,7.8818,25.49,0.0,-10.54,6.7302,-11.538,5.8615,8.5256,4.8254,-0.98039,-12.689
17.945999,0.06349,16.504999,41.175999,3.9409,36.521999,1.9417,25.177999,15.545,41.175999,3.9409,31.372999,-3.8278,-16.254,7.6825,-13.462,1.0306,8.5256,7.6825,0.98039,-14.622
18.893999,1.9683,17.476,44.118,-5.9113,24.927999,6.7961,27.120001,9.6911,44.118,-5.9113,33.333,-9.5694,-17.205999,4.8254,-15.385,-3.8003,7.5641,3.873,0.98039,-13.655
20.790001,1.0159,13.592,21.569,-0.98522,26.860001,5.8252,31.003,4.813,21.569,-0.98522,30.392,-12.44,-16.254,3.873,-18.268999,-8.6312,8.5256,3.873,0.0,-14.622
14.155,-3.746,4.8544,27.451,0.98522,33.623001,-0.97087,19.353001,6.7642,27.451,0.98522,19.608,-12.44,-15.302,0.06349,-18.268999,-12.496,4.6795,2.9206,0.0,-13.655
5.624,-7.5556,-0.97087,37.255001,-11.823,38.453999,-4.8544,7.7023,-6.8943,37.255001,-11.823,6.8627,-9.5694,-12.444,-4.6984,-14.423,-11.53,8.5256,-6.6032,1.9608,-8.8245
2.7804,-7.5556,0.0,13.725,-20.690001,26.860001,-17.476,12.557,-11.772,13.725,-20.690001,0.0,-6.6986,-10.54,-4.6984,-8.6538,-7.6651,12.372,-7.5556,2.9412,-5.9259
6.5719,-2.7937,3.8835,11.765,-25.615999,18.164,-18.447001,12.557,-11.772,11.765,-25.615999,-0.98039,-1.9139,-10.54,1.0159,-1.9231,0.06441,8.5256,-7.5556,3.9216,-4.9597
11.311,-1.8413,10.68,12.745,-37.438,26.860001,-17.476,18.382,-19.577,12.745,-37.438,0.98039,5.7416,-5.7778,10.54,2.8846,9.7262,10.449,-13.27,6.8627,-4.9597
11.311,-3.746,10.68,1.9608,-31.527,18.164,-20.388,8.6731,-25.431,1.9608,-31.527,-2.9412,8.6124,-3.873,15.302,2.8846,15.523,7.5641,-17.079,6.8627,-3.9936
11.311,-0.88889,11.65,-1.9608,-33.498001,-0.19324,-19.417,5.7605,-26.407,-1.9608,-33.498001,-1.9608,9.5694,-4.8254,18.159,0.96154,20.354,9.4872,-19.937,6.8627,-4.9597
16.997999,-3.746,12.621,-14.706,-33.498001,7.5362,-20.388,6.7314,-26.407,-14.706,-33.498001,-0.98039,7.6555,-3.873,15.302,1.9231,22.287001,9.4872,-17.079,4.902,-5.9259
17.945999,-7.5556,12.621,-12.745,-28.570999,23.961,-26.214001,9.644,-31.285,-12.745,-28.570999,-3.9216,9.5694,2.7937,11.492,2.8846,21.32,5.641,-21.841,9.8039,-1.095
19.841999,-7.5556,13.592,-11.765,-40.394001,27.826,-22.33,12.557,-35.187,-11.765,-40.394001,-5.8824,15.311,10.413,14.349,2.8846,19.388,13.333,-30.413,17.646999,0.83736
19.841999,-15.175,7.767,-8.8235,-41.379002,10.435,-26.214001,7.7023,-38.113998,-8.8235,-41.379002,-9.8039,18.181999,12.317,14.349,-3.8462,12.625,19.103001,-29.459999,21.569,-2.0612
16.997999,-23.746,-0.97087,-17.646999,-41.379002,2.7053,-33.009998,3.8188,-40.064999,-17.646999,-41.379002,-15.686,14.354,8.5079,12.444,-13.462,4.8953,16.218,-27.556,21.569,-7.8583
17.945999,-24.698,-3.8835,-20.587999,-37.438,9.4686,-39.806,1.877,-39.089001,-20.587999,-37.438,-13.725,11.483,3.746,17.205999,-21.153999,-0.90177,16.218,-23.746,22.549,-13.655
17.945999,-22.794001,-3.8835,-23.528999,-33.498001,12.367,-30.097,-0.06472,-31.285,-23.528999,-33.498001,-10.784,12.44,1.8413,21.968,-24.038,-2.8341,15.256,-22.794001,23.528999,-15.588
15.103,-20.889,-3.8835,-23.528999,-29.556999,1.7391,-20.388,-1.0356,-24.455,-23.528999,-29.556999,-11.765,11.483,0.88889,21.016001,-24.038,-3.8003,15.256,-21.841,21.569,-16.554001
9.4155,-11.365,-0.97087,-14.706,-26.601,1.7391,-13.592,-0.06472,-20.552999,-14.706,-26.601,-13.725,14.354,0.88889,17.205999,-14.423,-2.8341,9.4872,-18.983999,18.627001,-10.757
8.4676,1.0159,5.8252,-18.627001,-20.690001,1.7391,-6.7961,-2.9773,-17.625999,-18.627001,-20.690001,-13.725,19.139,6.6032,14.349,4.8077,4.8953,9.4872,-14.222,17.646999,2.7697
12.259,10.54,10.68,-29.412001,-17.733999,1.7391,-2.9126,-4.9191,-12.748,-29.412001,-17.733999,-11.765,21.052999,17.079,15.302,22.115,18.422001,12.372,-5.6508,15.686,12.432
15.103,17.205999,14.563,-20.587999,-16.749001,-0.19324,-1.9417,-4.9191,-12.748,-20.587999,-16.749001,-10.784,23.923,26.603001,21.968,35.577,30.982,11.41,3.873,16.667,24.025999
18.893999,20.063,16.504999,-22.549,-9.8522,-7.9227,0.0,-2.0065,-6.8943,-22.549,-9.8522,-9.8039,27.750999,31.365,28.635,41.346001,37.745998,11.41,4.8254,15.686,31.754999
19.841999,18.159,17.476,-9.8039,3.9409,-1.1594,8.7379,2.8479,-0.06504,-9.8039,3.9409,-3.9216,28.708,31.365,31.492001,40.384998,38.712002,13.333,6.7302,18.627001,29.823
20.790001,18.159,20.388,0.98039,15.764,3.6715,13.592,11.586,1.8862,0.98039,15.764,0.98039,29.665001,29.459999,33.396999,35.577,35.813,15.256,11.492,23.528999,26.924
18.893999,15.302,20.388,7.8431,18.719,-13.72,3.8835,9.644,-5.9187,7.8431,18.719,0.98039,32.535999,27.556,33.396999,28.846001,30.982,13.333,1.9683,26.471001,24.025999
14.155,5.7778,12.621,-0.98039,18.719,2.7053,-3.8835,5.7605,-17.625999,-0.98039,18.719,-4.902,34.450001,24.698,30.540001,20.191999,26.150999,17.179001,-6.6032,28.431,18.229
9.4155,-6.6032,1.9417,9.8039,13.793,17.198,-14.563,8.6731,-17.625999,9.8039,13.793,-11.765,32.535999,18.032,24.825001,5.7692,17.455999,19.103001,-12.317,25.49,9.533
3.7283,-18.983999,-8.7379,7.8431,20.690001,-1.1594,-23.301001,0.90615,-12.748,7.8431,20.690001,-15.686,28.708,10.413,19.111,-6.7308,7.7939,13.333,-13.27,21.569,0.83736
0.88468,-22.794001,-12.621,-5.8824,34.483002,-22.415001,-5.8252,0.90615,-5.9187,-5.8824,34.483002,-15.686,25.837,7.5556,16.254,-9.6154,3.9291,12.372,-11.365,17.646999,-3.0274
1.8325,-18.032,-9.7087,1.9608,37.438,-20.483,4.8544,7.7023,3.8374,1.9608,37.438,-13.725,22.01,5.6508,15.302,-8.6538,2.963,9.4872,-5.6508,15.686,-1.095
5.624,-14.222,-3.8835,24.51,26.601,-2.1256,0.0,6.7314,16.52,24.51,26.601,-11.765,18.181999,4.6984,16.254,-7.6923,3.9291,8.5256,1.9683,15.686,0.83736
9.4155,-11.365,0.0,27.451,16.749001,7.5362,-0.97087,8.6731,16.52,27.451,16.749001,-7.8431,13.397,3.746,16.254,-5.7692,4.8953,1.7949,1.9683,9.8039,5.6683
8.4676,-6.6032,0.97087,11.765,13.793,0.77295,3.8835,7.7023,19.447001,11.765,13.793,-2.9412,9.5694,2.7937,15.302,-5.7692,3.9291,-0.12821,6.7302,4.902,2.7697
5.624,-6.6032,-0.97087,4.902,8.867,-14.686,-0.97087,3.8188,14.569,4.902,8.867,-4.902,9.5694,2.7937,14.349,-4.8077,3.9291,-1.0897,6.7302,2.9412,1.8035
-0.06319,-11.365,-6.7961,-1.9608,-5.9113,-21.448999,-10.68,3.8188,-1.0407,-1.9608,-5.9113,-9.8039,7.6555,6.6032,10.54,-3.8462,3.9291,-6.859,1.0159,0.98039,2.7697
-6.6983,-12.317,-9.7087,-26.471001,-17.733999,-21.448999,-12.621,-1.0356,-2.9919,-26.471001,-17.733999,-11.765,6.6986,10.413,7.6825,-1.9231,1.9968,-6.859,-3.746,-1.9608,1.8035
-10.49,-11.365,-8.7379,-14.706,-13.793,-10.821,-21.358999,-9.7735,-2.9919,-14.706,-13.793,-16.667,8.6124,9.4603,6.7302,-1.9231,0.06441,-9.7436,-2.7937,-1.9608,1.8035
-11.438,-11.365,-5.8252,-0.98039,-16.749001,-11.787,-15.534,-12.686,-4.9431,-0.98039,-16.749001,-18.627001,9.5694,9.4603,5.7778,0.0,1.0306,-11.667,-4.6984,0.98039,1.8035
-7.6461,-11.365,-2.9126,-5.8824,-32.512001,-19.517,-16.504999,-12.686,-14.699,-5.8824,-32.512001,-14.706,10.526,13.27,8.6349,2.8846,6.8277,-10.705,-6.6032,3.9216,2.7697
-3.8547,-8.5079,0.0,-14.706,-28.570999,-10.821,-21.358999,-7.8317,-18.601999,-14.706,-28.570999,-14.706,13.397,12.317,13.397,6.7308,11.659,-12.628,-5.6508,5.8824,4.7021
-1.9589,-8.5079,0.97087,-22.549,-29.556999,-8.8889,-24.271999,-6.8608,-17.625999,-22.549,-29.556999,-13.725,14.354,7.5556,14.349,6.7308,13.591,-6.859,-5.6508,7.8431,0.83736
-4.8025,-11.365,-1.9417,-25.49,-31.527,-31.111,-23.301001,-12.686,-23.48,-25.49,-31.527,-16.667,10.526,1.8413,10.54,1.9231,8.7601,-0.12821,-3.746,6.8627,-5.9259
-11.438,-12.317,-4.8544,-23.528999,-34.483002,-31.111,-27.184,-13.657,-19.577,-23.528999,-34.483002,-22.549,7.6555,-6.7302,7.6825,-4.8077,3.9291,5.641,-15.175,7.8431,-6.8921
-17.125,-18.983999,-9.7087,-33.333,-40.394001,-28.212999,-33.980999,-12.686,-17.625999,-33.333,-40.394001,-28.431,1.9139,-14.349,1.0159,-11.538,-1.868,6.6026,-18.983999,5.8824,-12.689
-18.073,-18.983999,-10.68,-36.275002,-45.32,-34.976002,-31.068001,-11.715,-13.724,-36.275002,-45.32,-29.412001,0.0,-15.302,-0.88889,-12.5,-3.8003,7.5641,-10.413,2.9412,-17.52
-12.385,-9.4603,-7.767,-25.49,-39.409,-28.212999,-23.301001,-2.9773,-10.797,-25.49,-39.409,-22.549,-1.9139,-12.444,0.06349,-7.6923,-3.8003,8.5256,-7.5556,2.9412,-12.689
-8.594,-3.746,-4.8544,-18.627001,-19.704,-24.348,-16.504999,-2.0065,-5.9187,-18.627001,-19.704,-13.725,-5.7416,-11.492,-1.8413,-5.7692,-5.7327,9.4872,-3.746,2.9412,-6.8921
-1.0111,2.9206,1.9417,-15.686,-20.690001,-50.435001,-10.68,6.7314,-1.0407,-15.686,-20.690001,-3.9216,-7.6555,-8.6349,1.0159,-4.8077,-1.868,10.449,0.06349,2.9412,-3.0274
5.624,7.6825,7.767,-14.706,-14.778,-19.517,2.9126,6.7314,0.91057,-14.706,-14.778,8.8235,-6.6986,-5.7778,4.8254,-3.8462,1.9968,16.218,3.873,3.9216,-2.0612
9.4155,7.6825,9.7087,-0.98039,2.9557,18.164,8.7379,9.644,-2.0163,-0.98039,2.9557,11.765,-2.8708,-1.0159,5.7778,-1.9231,3.9291,21.025999,0.06349,3.9216,-0.12882
14.155,2.9206,6.7961,4.902,0.0,24.927999,5.8252,12.557,-8.8455,4.902,0.0,9.8039,-0.95694,-0.06349,7.6825,-2.8846,4.8953,21.025999,-8.5079,5.8824,-1.095
14.155,-0.88889,2.9126,12.745,-0.98522,20.097,-0.97087,10.615,-10.797,12.745,-0.98522,7.8431,1.9139,-1.0159,10.54,-5.7692,6.8277,18.141001,-13.27,8.8235,-3.9936
11.311,-3.746,1.9417,-2.9412,-1.9704,5.6039,-5.8252,2.8479,-7.8699,-2.9412,-1.9704,3.9216,5.7416,-1.9683,13.397,-5.7692,7.7939,15.256,-10.413,11.765,-5.9259
13.207,0.06349,7.767,-11.765,-16.749001,-9.8551,0.97087,1.877,-8.8455,-11.765,-16.749001,2.9412,12.44,-0.06349,19.111,0.0,13.591,16.218,-7.5556,14.706,-3.9936
12.259,3.873,10.68,-0.98039,-4.9261,-8.8889,-0.97087,-7.8317,-11.772,-0.98039,-4.9261,-0.98039,19.139,-2.9206,25.778,2.8846,16.49,14.295,-8.5079,20.587999,-4.9597
7.5197,5.7778,10.68,-5.8824,-1.9704,-18.551001,-1.9417,-11.715,-4.9431,-5.8824,-1.9704,-2.9412,20.096001,-11.492,28.635,1.9231,16.49,10.449,-4.6984,24.51,-10.757
14.155,10.54,17.476,-9.8039,4.9261,-15.652,12.621,-2.9773,1.8862,-9.8039,4.9261,2.9412,22.966999,-12.444,33.396999,5.7692,22.287001,15.256,2.9206,28.431,-10.757
16.997999,19.111,21.358999,-9.8039,9.8522,8.5024,19.417,-4.9191,0.91057,-9.8039,9.8522,7.8431,25.837,-6.7302,39.111,11.538,29.049999,18.141001,5.7778,30.392,-3.0274
15.103,22.921,23.301001,0.98039,15.764,-5.0242,19.417,-10.744,5.7886,0.98039,15.764,10.784,24.879999,0.88889,37.206001,16.346001,30.016001,13.333,7.6825,26.471001,6.6345
20.790001,26.73,27.184,-9.8039,13.793,-8.8889,23.301001,-9.7735,4.813,-9.8039,13.793,17.646999,20.096001,12.317,31.492001,22.115,30.016001,6.6026,6.7302,17.646999,16.296
19.841999,31.492001,32.039001,3.9216,9.8522,16.232,26.214001,-7.8317,0.91057,3.9216,9.8522,23.528999,16.268,22.794001,24.825001,27.885,27.118,-1.0897,1.9683,12.745,22.093
17.945999,35.301998,34.951,20.587999,23.645,27.826,26.214001,-1.0356,4.813,20.587999,23.645,26.471001,15.311,29.459999,19.111,34.615002,21.32,-6.859,7.6825,7.8431,26.924
13.207,29.587,27.184,10.784,22.66,12.367,25.243,-1.0356,5.7886,10.784,22.66,25.49,9.5694,30.413,8.6349,33.653999,11.659,-11.667,9.5873,0.0,27.889999
2.7804,21.016001,15.534,8.8235,14.778,3.6715,19.417,-4.9191,-0.06504,8.8235,14.778,18.627001,4.7847,28.507999,-1.8413,26.923,3.9291,-11.667,3.873,-5.8824,24.992001
-8.594,12.444,3.8835,7.8431,2.9557,-2.1256,14.563,-5.89,-2.9919,7.8431,2.9557,9.8039,2.8708,23.746,-9.4603,19.231001,-3.8003,-14.551,1.9683,-10.784,21.127001
-18.073,1.0159,-8.7379,-0.98039,-6.8966,-13.72,5.8252,-10.744,-4.9431,-0.98039,-6.8966,0.0,-1.9139,16.127001,-18.032,13.462,-11.53,-19.358999,-1.8413,-15.686,17.261999
-23.76,-7.5556,-16.504999,-25.49,-17.733999,-14.686,-15.534,-11.715,-4.9431,-25.49,-17.733999,-9.8039,-1.9139,9.4603,-20.889,8.6538,-15.395,-15.513,-1.8413,-15.686,13.398
-26.603001,-17.079,-20.388,-4.902,-19.704,-9.8551,-17.476,-9.7735,-8.8455,-4.902,-19.704,-18.627001,1.9139,2.7937,-18.032,2.8846,-15.395,-13.59,-3.746,-11.765,7.6006
-26.603001,-26.603001,-27.184,-3.9216,-31.527,-21.448999,-18.447001,-9.7735,-16.65,-3.9216,-31.527,-28.431,-0.95694,-1.9683,-16.127001,-2.8846,-16.361,-11.667,-9.4603,-10.784,1.8035
-23.76,-27.556,-30.097,-5.8824,-38.424,-16.618,-25.243,-2.0065,-18.601999,-5.8824,-38.424,-34.313999,-3.8278,-4.8254,-12.317,-7.6923,-15.395,-7.8205,-9.4603,-5.8824,-1.095
-15.229,-21.841,-27.184,-3.9216,-18.719,-11.787,-28.155001,5.7605,-15.675,-3.9216,-18.719,-31.372999,-2.8708,-1.9683,-8.5079,-7.6923,-12.496,2.7564,-9.4603,-3.9216,0.83736
-6.6983,-10.413,-17.476,-20.587999,-13.793,-11.787,-17.476,4.7896,-8.8455,-20.587999,-13.793,-21.569,-5.7416,1.8413,-8.5079,0.0,-7.6651,8.5256,-4.6984,-4.902,3.7359
4.6761,1.0159,-4.8544,-8.8235,-16.749001,27.826,-2.9126,15.469,-4.9431,-8.8235,-16.749001,-8.8235,-7.6555,5.6508,-6.6032,7.6923,-1.868,10.449,-1.8413,-4.902,7.6006
15.103,8.6349,5.8252,16.667,-9.8522,40.386002,7.767,24.207001,-1.0407,16.667,-9.8522,1.9608,-4.7847,7.5556,-0.88889,13.462,2.963,15.256,1.9683,-0.98039,9.533
24.580999,14.349,12.621,31.372999,2.9557,19.129999,15.534,30.032,2.8618,31.372999,2.9557,9.8039,-1.9139,12.317,2.9206,18.268999,7.7939,14.295,4.8254,1.9608,11.465
21.738001,15.302,11.65,23.528999,1.9704,26.860001,15.534,25.177999,-2.0163,23.528999,1.9704,10.784,-2.8708,11.365,0.06349,16.346001,7.7939,13.333,4.8254,2.9412,7.6006
16.051001,13.397,8.7379,19.608,5.9113,22.028999,9.7087,14.498,4.813,19.608,5.9113,8.8235,-2.8708,6.6032,1.0159,11.538,4.8953,4.6795,1.9683,5.8824,3.7359
11.311,6.7302,3.8835,8.8235,0.0,13.333,2.9126,7.7023,10.667,8.8235,0.0,8.8235,-2.8708,-0.06349,-2.7937,5.7692,-0.90177,2.7564,-0.88889,3.9216,-2.0612
8.4676,6.7302,2.9126,5.8824,3.9409,3.6715,9.7087,1.877,12.618,5.8824,3.9409,11.765,-1.9139,-2.9206,-5.6508,2.8846,-1.868,6.6026,2.9206,1.9608,-4.9597
0.88468,7.6825,1.9417,0.98039,10.837,12.367,9.7087,-4.9191,12.618,0.98039,10.837,9.8039,0.95694,-4.8254,-5.6508,3.8462,-2.8341,-2.0513,13.397,-0.98039,-3.0274
-7.6461,3.873,-2.9126,0.98039,8.867,11.401,8.7379,-8.8026,10.667,0.98039,8.867,2.9412,0.0,-5.7778,-9.4603,4.8077,-3.8003,-13.59,12.444,-7.8431,2.7697
-8.594,6.7302,-1.9417,1.9608,1.9704,-11.787,16.504999,-13.657,12.618,1.9608,1.9704,4.902,-3.8278,-1.9683,-12.317,7.6923,-2.8341,-17.436001,14.349,-15.686,7.6006
-13.333,10.54,-2.9126,1.9608,-0.98522,-5.9903,19.417,-14.628,13.593,1.9608,-0.98522,8.8235,-9.5694,-5.7778,-17.079,5.7692,-5.7327,-20.320999,18.159,-21.569,7.6006
-18.073,10.54,-5.8252,14.706,10.837,1.7391,15.534,-7.8317,16.52,14.706,10.837,9.8039,-14.354,-9.5873,-23.746,4.8077,-10.564,-20.320999,19.111,-24.51,3.7359
-14.281,15.302,-2.9126,17.646999,21.674999,2.7053,23.301001,-3.9482,27.252001,17.646999,21.674999,19.608,-19.139,-3.873,-24.698,9.6154,-10.564,-19.358999,22.921,-25.49,7.6006
-8.594,21.016001,3.8835,21.569,24.631001,13.333,27.184,-2.9773,31.153999,21.569,24.631001,29.412001,-22.01,-0.06349,-20.889,11.538,-10.564,-14.551,21.968,-24.51,8.5668
0.88468,28.635,12.621,34.313999,36.452999,19.129999,45.631001,0.90615,38.959,34.313999,36.452999,40.195999,-20.096001,3.746,-16.127001,14.423,-7.6651,-7.8205,27.683001,-19.608,11.465
8.4676,28.635,13.592,42.157001,55.172001,21.063,44.66,5.7605,37.984001,42.157001,55.172001,46.077999,-18.181999,7.5556,-12.317,16.346001,-3.8003,-3.0128,21.968,-13.725,13.398
9.4155,21.968,7.767,33.333,47.291,22.028999,31.068001,9.644,31.153999,33.333,47.291,45.098,-17.225,5.6508,-8.5079,9.6154,-6.6989,2.7564,19.111,-7.8431,8.5668
8.4676,14.349,3.8835,28.431,28.570999,24.927999,27.184,12.557,23.35,28.431,28.570999,38.235001,-16.268,-0.06349,-6.6032,1.9231,-10.564,7.5641,16.254,-2.9412,2.7697
6.5719,7.6825,0.0,30.392,17.733999,27.826,16.504999,11.586,19.447001,30.392,17.733999,26.471001,-13.397,-0.06349,-5.6508,0.0,-9.5974,3.7179,13.397,0.0,0.83736
7.5197,4.8254,-2.9126,15.686,0.0,12.367,11.65,6.7314,13.593,15.686,0.0,19.608,-6.6986,-1.0159,-2.7937,-0.96154,-6.6989,-0.12821,15.302,2.9412,-1.095
8.4676,6.7302,-0.97087,12.745,4.9261,17.198,12.621,5.7605,13.593,12.745,4.9261,15.686,-0.95694,-4.8254,1.0159,0.0,-4.7665,1.7949,17.205999,2.9412,-1.095
2.7804,1.9683,-5.8252,14.706,14.778,13.333,6.7961,-1.0356,23.35,14.706,14.778,7.8431,-2.8708,-8.6349,-3.746,-1.9231,-6.6989,-1.0897,24.825001,0.98039,-3.0274
-4.8025,-1.8413,-15.534,2.9412,10.837,-2.1256,8.7379,-5.89,25.301001,2.9412,10.837,0.0,-10.526,-17.205999,-10.413,-12.5,-14.428,-3.9744,22.921,-3.9216,-9.7907
-6.6983,0.06349,-17.476,-6.8627,4.9261,-14.686,12.621,1.877,20.423,-6.8627,4.9261,1.9608,-16.268,-24.825001,-11.365,-16.346001,-17.327,-5.8974,20.063,-7.8431,-13.655
-10.49,-1.8413,-18.447001,16.667,21.674999,0.77295,12.621,8.6731,24.325001,16.667,21.674999,3.9216,-20.096001,-22.921,-17.079,-14.423,-18.292999,-5.8974,18.159,-13.725,-16.554001
-13.333,-4.6984,-19.417,11.765,30.542,-4.058,8.7379,9.644,23.35,11.765,30.542,8.8235,-22.01,-18.159,-20.889,-12.5,-18.292999,-5.8974,8.6349,-18.627001,-14.622
-17.125,-2.7937,-22.33,21.569,32.512001,10.435,10.68,11.586,23.35,21.569,32.512001,10.784,-24.879999,-18.159,-27.556,-12.5,-23.124001,-5.8974,2.9206,-21.569,-12.689
-19.968,-1.8413,-23.301001,34.313999,32.512001,18.164,17.476,11.586,24.325001,34.313999,32.512001,11.765,-30.622,-20.063,-34.222,-14.423,-27.955,-3.0128,0.06349,-25.49,-16.554001
-20.916,1.0159,-18.447001,23.528999,40.394001,6.57,26.214001,4.7896,25.301001,23.528999,40.394001,13.725,-34.450001,-21.016001,-34.222,-15.385,-28.921,-2.0513,1.9683,-27.451,-15.588
-20.916,2.9206,-15.534,26.471001,42.365002,12.367,33.009998,3.8188,27.252001,26.471001,42.365002,12.745,-34.450001,-21.968,-31.365,-15.385,-32.785999,-4.9359,9.5873,-26.471001,-11.723
-17.125,5.7778,-9.7087,26.471001,24.631001,4.6377,25.243,4.7896,27.252001,26.471001,24.631001,9.8039,-31.579,-20.063,-28.507999,-11.538,-32.785999,-7.8205,15.302,-26.471001,-5.9259
-11.438,11.492,-3.8835,7.8431,27.586,-6.9565,22.33,-1.0356,27.252001,7.8431,27.586,11.765,-27.750999,-18.159,-25.650999,-10.577,-27.955,-10.705,20.063,-25.49,-3.0274
-9.5419,14.349,0.97087,-10.784,30.542,-0.19324,19.417,-11.715,35.056999,-10.784,30.542,12.745,-20.096001,-16.254,-18.983999,-9.6154,-22.158001,-14.551,24.825001,-22.549,-2.0612
-7.6461,15.302,6.7961,-1.9608,29.556999,7.5362,27.184,-15.599,42.862,-1.9608,29.556999,13.725,-12.44,-13.397,-15.175,-7.6923,-16.361,-17.436001,29.587,-18.627001,-0.12882
-5.7504,19.111,13.592,-10.784,16.749001,-11.787,33.009998,-26.278,38.959,-10.784,16.749001,17.646999,-5.7416,-5.7778,-10.413,-4.8077,-6.6989,-16.474001,32.444,-15.686,-0.12882
0.88468,29.587,22.33,-10.784,23.645,-3.0918,31.068001,-28.219999,42.862,-10.784,23.645,20.587999,2.8708,2.7937,1.0159,1.9231,6.8277,-18.396999,37.206001,-11.765,5.6683
5.624,35.301998,30.097,4.902,25.615999,-1.1594,24.271999,-22.395,35.056999,4.902,25.615999,24.51,6.6986,5.6508,7.6825,6.7308,16.49,-20.320999,31.492001,-9.8039,10.499
10.363,32.444,33.980999,4.902,23.645,5.6039,20.388,-17.540001,31.153999,4.902,23.645,22.549,6.6986,13.27,9.5873,13.462,22.287001,-21.282,26.73,-9.8039,13.398
13.207,31.492001,34.951,0.98039,10.837,18.164,29.125999,-9.7735,27.252001,0.98039,10.837,21.569,7.6555,18.983999,10.54,19.231001,27.118,-21.282,24.825001,-8.8235,18.229
13.207,27.683001,31.068001,-6.8627,19.704,7.5362,17.476,-9.7735,18.472,-6.8627,19.704,15.686,6.6986,18.032,7.6825,20.191999,27.118,-25.128,17.205999,-9.8039,19.195
11.311,22.921,26.214001,0.0,20.690001,0.77295,10.68,-11.715,15.545,0.0,20.690001,9.8039,4.7847,16.127001,4.8254,19.231001,26.150999,-24.167,12.444,-9.8039,17.261999
5.624,17.205999,21.358999,0.98039,4.9261,-8.8889,11.65,-9.7735,19.447001,0.98039,4.9261,3.9216,1.9139,10.413,1.0159,15.385,21.32,-16.474001,9.5873,-8.8235,12.432
-2.9068,6.7302,11.65,-14.706,1.9704,-11.787,3.8835,-9.7735,17.496,-14.706,1.9704,-5.8824,-2.8708,3.746,-5.6508,8.6538,11.659,-16.474001,8.6349,-9.8039,6.6345
-14.281,-3.746,0.97087,-17.646999,-17.733999,-14.686,-4.8544,-13.657,12.618,-17.646999,-17.733999,-18.627001,-2.8708,0.88889,-12.317,5.7692,3.9291,-18.396999,1.9683,-5.8824,3.7359
-20.916,-15.175,-10.68,-20.587999,-29.556999,-19.517,-17.476,-14.628,0.91057,-20.587999,-29.556999,-31.372999,-2.8708,-6.7302,-16.127001,-2.8846,-5.7327,-19.358999,-6.6032,-1.9608,-3.9936
-25.656,-27.556,-24.271999,-33.333,-34.483002,-26.280001,-33.980999,-15.599,-8.8455,-33.333,-34.483002,-41.175999,-6.6986,-17.205999,-19.937,-17.308001,-21.191999,-21.282,-15.175,-5.8824,-15.588
-25.656,-30.413,-27.184,-41.175999,-31.527,-23.382,-33.980999,-10.744,-11.772,-41.175999,-31.527,-39.216,-10.526,-23.872999,-22.794001,-23.077,-28.921,-20.320999,-13.27,-7.8431,-19.452
-23.76,-26.603001,-25.243,-32.353001,-26.601,-14.686,-29.125999,-5.89,-15.675,-32.353001,-26.601,-38.235001,-11.483,-22.921,-20.889,-25.0,-26.989,-21.282,-13.27,-8.8235,-16.554001
-24.708,-23.746,-22.33,-42.157001,-33.498001,-46.57,-24.271999,-14.628,-7.8699,-42.157001,-33.498001,-41.175999,-10.526,-16.254,-21.841,-21.153999,-26.989,-16.474001,-7.5556,-10.784,-8.8245
-24.708,-23.746,-22.33,-42.157001,-40.394001,-31.111,-29.125999,-19.482,-1.0407,-42.157001,-40.394001,-42.157001,-11.483,-5.7778,-28.507999,-15.385,-27.955,-16.474001,1.0159,-13.725,-3.0274
-27.551001,-23.746,-28.155001,-22.549,-38.424,-5.9903,-32.039001,-23.365999,-6.8943,-22.549,-38.424,-46.077999,-13.397,2.7937,-33.27,-12.5,-30.853001,-20.320999,-0.88889,-17.646999,2.7697
-28.499001,-24.698,-33.980999,-28.431,-34.483002,-15.652,-31.068001,-24.337,-12.748,-28.431,-34.483002,-47.058998,-14.354,2.7937,-34.222,-13.462,-31.82,-20.320999,-6.6032,-17.646999,1.8035
-23.76,-23.746,-30.097,-36.275002,-39.409,-32.077,-27.184,-16.57,-10.797,-36.275002,-39.409,-43.137001,-11.483,4.6984,-26.603001,-13.462,-25.056,-18.396999,-9.4603,-11.765,-3.0274
-17.125,-18.983999,-19.417,-53.922001,-34.483002,-46.57,-30.097,-9.7735,-6.8943,-53.922001,-34.483002,-40.195999,-5.7416,6.6032,-11.365,-7.6923,-13.462,-10.705,-6.6032,-4.902,-3.9936
-11.438,-18.032,-9.7087,-65.685997,-40.394001,-34.009998,-36.893002,-10.744,-11.772,-65.685997,-40.394001,-41.175999,-3.8278,1.8413,-1.8413,-4.8077,-6.6989,-7.8205,-7.5556,-3.9216,-4.9597
-6.6983,-15.175,-0.97087,-22.549,-36.452999,-4.058,-33.009998,-1.0356,-15.675,-22.549,-36.452999,-41.175999,-1.9139,3.746,2.9206,0.96154,1.0306,-3.0128,-13.27,-0.98039,-2.0612
-2.9068,-11.365,3.8835,-9.8039,-27.586,-12.754,-30.097,1.877,-14.699,-9.8039,-27.586,-39.216,3.8278,0.88889,6.7302,1.9231,6.8277,6.6026,-10.413,3.9216,-3.0274
-0.06319,-11.365,2.9126,-26.471001,-28.570999,-21.448999,-24.271999,-2.0065,-15.675,-26.471001,-28.570999,-30.392,2.8708,-6.7302,4.8254,-0.96154,5.8615,9.4872,-5.6508,4.902,-7.8583
4.6761,-11.365,-1.9417,-19.608,-16.749001,-5.0242,-20.388,4.7896,-14.699,-19.608,-16.749001,-21.569,-1.9139,-13.397,0.06349,-4.8077,1.9968,6.6026,-7.5556,1.9608,-8.8245
7.5197,-12.317,-3.8835,-18.627001,-7.8818,-26.280001,-12.621,0.90615,-14.699,-18.627001,-7.8818,-13.725,-3.8278,-15.302,-1.8413,-6.7308,1.0306,6.6026,-9.4603,3.9216,-8.8245
8.4676,-8.5079,2.9126,-32.353001,-7.8818,-15.652,-11.65,-2.0065,-14.699,-32.353001,-7.8818,-5.8824,0.95694,-16.254,3.873,-1.9231,5.8615,6.6026,-16.127001,9.8039,-5.9259
3.7283,-8.5079,6.7961,-24.51,-12.808,11.401,-15.534,-1.0356,-15.675,-24.51,-12.808,-4.902,4.7847,-13.397,6.7302,1.9231,10.692,0.83333,-17.079,9.8039,-4.9597
-4.8025,-13.27,4.8544,-16.667,-10.837,4.6377,-22.33,-13.657,-12.748,-16.667,-10.837,-11.765,8.6124,-7.6825,5.7778,0.0,9.7262,-1.0897,-12.317,7.8431,-7.8583
-7.6461,-12.317,3.8835,-8.8235,-12.808,-12.754,-18.447001,-19.482,-19.577,-8.8235,-12.808,-13.725,14.354,1.8413,6.7302,-0.96154,6.8277,-1.0897,-9.4603,6.8627,-3.0274
-4.8025,-10.413,2.9126,-9.8039,-8.867,-23.382,-13.592,-20.452999,-15.675,-9.8039,-8.867,-10.784,16.268,13.27,5.7778,1.9231,7.7939,-3.0128,-6.6032,7.8431,4.7021
-1.0111,-10.413,2.9126,-34.313999,-6.8966,-30.145,-12.621,-19.482,-13.724,-34.313999,-6.8966,-4.902,13.397,17.079,4.8254,3.8462,9.7262,-5.8974,-3.746,5.8824,8.5668
-2.9068,-6.6032,1.9417,-29.412001,-5.9113,-11.787,-8.7379,-18.511,-8.8455,-29.412001,-5.9113,-2.9412,12.44,20.889,3.873,2.8846,9.7262,-4.9359,-6.6032,6.8627,10.499
-6.6983,-7.5556,0.0,-18.627001,-18.719,-5.0242,-8.7379,-13.657,-11.772,-18.627001,-18.719,-0.98039,9.5694,21.841,1.0159,-2.8846,4.8953,-4.9359,-7.5556,5.8824,5.6683
-6.6983,-8.5079,0.0,3.9216,-1.9704,-0.19324,-3.8835,-7.8317,-11.772,3.9216,-1.9704,1.9608,3.8278,20.889,-2.7937,-6.7308,0.06441,-3.0128,-5.6508,0.98039,2.7697
-3.8547,-7.5556,-0.97087,1.9608,11.823,-12.754,-3.8835,-9.7735,-9.8211,1.9608,11.823,2.9412,-3.8278,8.5079,-4.6984,-8.6538,-5.7327,-6.859,-5.6508,-1.9608,-1.095
2.7804,-4.6984,0.97087,0.0,6.8966,-5.9903,-2.9126,-2.0065,-6.8943,0.0,6.8966,10.784,-10.526,-2.9206,-5.6508,-8.6538,-6.6989,1.7949,-3.746,-4.902,-3.9936
6.5719,0.06349,-0.97087,-0.98039,6.8966,6.57,-0.97087,4.7896,-7.8699,-0.98039,6.8966,15.686,-17.225,-6.7302,-9.4603,-7.6923,-9.5974,6.6026,1.9683,-8.8235,-5.9259
1.8325,0.06349,-6.7961,11.765,6.8966,15.266,0.97087,11.586,-5.9187,11.765,6.8966,15.686,-21.052999,-12.444,-15.175,-12.5,-18.292999,4.6795,-5.6508,-10.784,-7.8583
-7.6461,-5.6508,-10.68,27.451,11.823,14.3,3.8835,10.615,-4.9431,27.451,11.823,9.8039,-22.966999,-17.205999,-21.841,-16.346001,-22.158001,-0.12821,-8.5079,-11.765,-10.757
-13.333,-10.413,-10.68,22.549,7.8818,4.6377,0.97087,17.410999,-13.724,22.549,7.8818,4.902,-19.139,-16.254,-20.889,-13.462,-19.259001,-2.0513,-11.365,-10.784,-12.689
-17.125,-14.222,-14.563,2.9412,-0.98522,-14.686,-11.65,3.8188,-21.528,2.9412,-0.98522,-2.9412,-14.354,-13.397,-16.127001,-11.538,-17.327,-3.9744,-13.27,-8.8235,-9.7907
-18.073,-16.127001,-16.504999,0.0,-0.98522,-3.0918,-15.534,-3.9482,-21.528,0.0,-0.98522,-6.8627,-7.6555,-6.7302,-10.413,-9.6154,-14.428,-8.7821,-11.365,-4.902,-6.8921
-15.229,-13.27,-13.592,-8.8235,0.0,-19.517,-11.65,-5.89,-9.8211,-8.8235,0.0,-3.9216,-1.9139,-0.06349,-5.6508,-4.8077,-9.5974,-4.9359,-10.413,-4.902,-3.9936
-10.49,-6.6032,-8.7379,-2.9412,7.8818,-6.9565,-6.7961,-0.06472,1.8862,-2.9412,7.8818,1.9608,3.8278,2.7937,-2.7937,0.0,-3.8003,-0.12821,-0.88889,-0.98039,-3.0274
