C3,C4,Cz,F1,F2,F3,F4,F7,F8,Fp1,Fp2,Fz,O1,O2,P3,P4,Pz,T3,T4,T5,T6
1.8239,10.222,10.356,2.589,8.4553,8.7821,6.4412,-4.5513,9.5974,2.589,8.4553,9.8522,3.8095,12.057,3.2381,11.538,10.95,-11.667,8.9524,-3.9216,12.051
-1.3208,2.6032,5.178,5.178,7.1545,-2.1154,-4.5089,8.9103,2.5121,5.178,7.1545,1.9704,0.0,6.9537,-1.2063,5.1282,5.153,-3.9744,4.5079,-4.5752,3.7179
1.195,4.5079,5.8252,7.767,10.407,-2.7564,-1.2882,-7.1154,5.7327,7.767,10.407,-0.65681,3.1746,6.9537,1.9683,7.0513,5.7971,-0.12821,10.222,-1.3072,3.7179
6.8553,16.570999,11.65,8.4142,5.2033,3.6538,12.882,-23.141001,5.0886,8.4142,5.2033,7.8818,9.5238,14.609,8.3175,16.025999,12.238,-12.949,-0.57143,1.3072,15.256
8.7421,12.762,8.4142,1.2945,-13.659,3.0128,9.6618,-21.218,9.5974,1.2945,-13.659,6.5681,10.794,12.057,9.5873,12.179,11.594,-11.026,5.7778,1.3072,12.692
1.8239,3.873,2.589,-5.8252,-3.252,-3.3974,1.2882,1.859,8.3092,-5.8252,-3.252,-0.65681,7.619,8.2297,7.0476,5.1282,7.0853,-2.0513,13.397,3.9216,3.0769
3.0818,2.6032,3.2362,-3.2362,5.8537,-4.0385,-2.5765,7.6282,1.868,-3.2362,5.8537,-3.2841,6.3492,6.3158,8.9524,4.4872,8.3736,0.51282,12.762,6.5359,1.7949
10.0,7.0476,7.767,5.8252,11.057,1.0897,-0.64412,-3.2692,0.57971,5.8252,11.057,-1.3136,6.9841,7.5917,13.397,8.9744,12.882,-0.76923,-12.0,11.765,4.359
11.258,2.6032,7.1197,-9.0615,-1.3008,2.3718,1.9324,5.0641,-3.9291,-9.0615,-1.3008,-1.3136,3.8095,3.764,12.762,5.7692,10.95,3.7179,-5.0159,7.1895,0.51282
4.3396,-3.746,2.589,-16.181,-7.8049,-3.3974,-6.4412,0.57692,-1.3527,-16.181,-7.8049,-7.225,3.1746,3.764,9.5873,1.9231,7.7295,8.8462,5.7778,3.268,0.51282
3.7107,-3.1111,2.589,-2.589,-1.9512,-5.3205,-10.95,5.0641,7.0209,-2.589,-1.9512,-5.9113,1.2698,2.488,7.0476,1.2821,5.7971,8.2051,-3.746,4.5752,4.359
2.4528,-1.8413,2.589,5.8252,-7.1545,1.7308,-7.0853,-23.782,-0.70853,5.8252,-7.1545,-1.9704,-0.63492,-0.0638,3.873,0.0,1.9324,13.333,-5.6508,3.9216,2.4359
3.0818,0.69841,2.589,11.65,-1.9512,1.0897,1.2882,2.5,-8.438,11.65,-1.9512,-0.65681,-0.63492,-0.70175,2.6032,0.0,1.2882,7.5641,-1.8413,5.8824,-1.4103
1.195,-3.746,-1.2945,-1.9417,0.65041,-2.1154,-4.5089,15.321,-11.014,-1.9417,0.65041,-3.9409,-5.0794,-5.8054,-2.4762,-4.4872,-3.2206,-5.8974,-2.4762,-1.3072,-4.6154
6.2264,-2.4762,2.589,-7.767,-4.5528,7.5,-3.2206,-16.731001,-1.9968,-7.767,-4.5528,3.2841,-6.3492,-5.8054,-1.2063,-2.5641,-1.2882,1.1538,-1.2063,0.0,-4.6154
16.289,8.3175,11.65,-1.2945,2.6016,14.551,10.306,-5.1923,2.5121,-1.2945,2.6016,13.136,0.63492,-0.0638,9.5873,5.7692,7.0853,1.7949,10.857,5.8824,-0.76923
8.1132,6.4127,9.7087,4.5307,14.959,8.141,15.459,15.321,1.868,4.5307,14.959,13.136,4.4444,-0.70175,7.0476,3.8462,7.7295,12.692,5.1429,0.65359,-3.9744
8.7421,12.127,12.945,7.1197,20.163,10.705,18.035,13.397,12.174,7.1197,20.163,15.764,8.8889,3.764,10.222,9.6154,12.238,17.179001,-11.365,1.3072,-2.0513
18.176001,13.397,17.476,20.065001,21.462999,19.679001,18.035,5.7051,17.971001,20.065001,21.462999,20.361,10.794,6.9537,16.570999,13.462,17.391001,-14.872,1.3333,7.1895,4.359
13.774,11.492,14.887,25.889999,17.561001,14.551,12.238,17.243999,8.9533,25.889999,17.561001,17.077,6.3492,3.764,13.397,10.897,14.171,1.1538,5.1429,3.268,3.0769
11.887,7.0476,10.356,9.7087,7.1545,6.2179,9.0177,11.474,5.7327,9.7087,7.1545,12.479,3.1746,3.764,10.222,7.6923,10.306,11.41,7.6825,0.65359,-2.0513
10.629,7.6825,11.003,6.4725,4.5528,8.141,9.6618,7.6282,8.9533,6.4725,4.5528,11.823,5.0794,1.8501,9.5873,7.6923,10.306,13.974,1.9683,3.9216,-3.3333
12.516,15.302,16.181,12.298,9.1057,15.833,16.747,12.115,10.242,12.298,9.1057,17.733999,5.7143,2.488,12.127,12.179,12.238,15.256,-1.8413,9.8039,3.0769
7.4843,7.6825,9.7087,1.2945,-3.252,9.4231,13.527,-1.3462,-0.70853,1.2945,-3.252,11.823,1.9048,-1.9777,6.4127,3.8462,5.153,1.1538,4.5079,6.5359,0.51282
-0.06289,-3.1111,0.0,-5.8252,-2.6016,1.0897,4.5089,-18.653999,1.2238,-5.8252,-2.6016,1.9704,-2.5397,-7.0813,-2.4762,-5.7692,-3.8647,-0.76923,7.0476,0.0,-6.5385
-5.7233,-4.381,-5.178,-5.8252,0.65041,-4.6795,-4.5089,-34.679001,-5.8615,-5.8252,0.65041,-3.9409,-6.9841,-8.9952,-8.1905,-8.3333,-9.6618,-9.7436,-10.095,-5.8824,-7.1795
-3.2075,-4.381,-5.8252,3.8835,9.1057,-4.0385,-9.0177,-0.70513,-3.285,3.8835,9.1057,-5.2545,-4.4444,-7.7193,-5.0159,-5.7692,-7.7295,-12.308,-8.8254,-1.3072,-3.9744
-3.2075,-2.4762,-4.5307,-2.589,6.5041,-2.1154,-7.0853,12.756,-9.7262,-2.589,6.5041,-3.9409,-3.1746,-5.1675,-3.746,-3.2051,-5.153,0.51282,-5.0159,-0.65359,-0.76923
-3.8365,-6.2857,-6.4725,-2.589,-7.1545,-1.4744,-4.5089,-0.70513,-15.523,-2.589,-7.1545,-4.5977,-4.4444,-6.4434,-5.0159,-6.4103,-6.4412,5.0,-8.1905,-0.65359,-5.8974
1.8239,-7.5556,-3.2362,7.1197,-7.1545,3.0128,-1.9324,9.5513,-1.9968,7.1197,-7.1545,0.0,-3.1746,-7.0813,-1.2063,-7.0513,-3.8647,2.4359,-5.0159,0.0,-7.8205
1.195,-6.2857,-1.2945,9.7087,-3.9024,1.0897,-2.5765,12.115,4.4444,9.7087,-3.9024,0.65681,0.63492,-0.70175,1.9683,-3.8462,0.0,6.9231,-0.57143,1.9608,-5.8974
7.4843,0.69841,4.5307,8.4142,7.1545,6.859,6.4412,-16.731001,1.868,8.4142,7.1545,4.5977,6.3492,5.6778,7.6825,2.5641,5.7971,-2.0513,-1.8413,9.8039,1.7949
9.3711,3.873,7.767,12.298,3.252,13.269,7.7295,-31.474001,4.4444,12.298,3.252,7.8818,7.619,4.4019,9.5873,5.1282,7.7295,-11.667,-0.57143,7.8431,1.1538
6.8553,4.5079,6.4725,16.827999,13.659,10.705,3.2206,-10.962,5.0886,16.827999,13.659,6.5681,5.0794,4.4019,7.0476,5.1282,6.4412,3.7179,-4.381,0.65359,1.1538
-1.3208,1.9683,0.0,-0.64725,9.1057,1.0897,0.64412,14.679,-1.9968,-0.64725,9.1057,-0.65681,0.63492,3.126,0.06349,1.9231,1.2882,1.7949,-12.635,-5.8824,0.51282
-0.06289,7.6825,1.9417,-13.592,-7.8049,1.0897,8.3736,25.577,-0.06441,-13.592,-7.8049,2.6273,0.63492,3.764,0.06349,5.7692,3.2206,-9.7436,-7.5556,-4.5752,6.9231
-1.9497,1.3333,0.0,4.5307,0.0,-1.4744,4.5089,13.397,10.242,4.5307,0.0,1.3136,-3.1746,-1.9777,-2.4762,0.0,-0.64412,-2.6923,15.302,-5.8824,3.0769
-11.384,-5.0159,-5.8252,10.356,3.9024,-9.1667,0.0,-5.1923,-0.06441,10.356,3.9024,-3.9409,-7.619,-6.4434,-10.095,-5.7692,-7.0853,-0.76923,18.476,-11.765,-2.6923
-14.528,-3.746,-8.4142,-7.767,0.0,-9.1667,-3.8647,-5.1923,-0.70853,-7.767,0.0,-5.9113,-7.619,-5.1675,-12.635,-5.7692,-9.0177,-2.6923,5.1429,-9.1503,0.51282
-13.899,-6.2857,-11.65,-7.1197,-5.8537,-6.6026,-3.2206,10.192,-3.285,-7.1197,-5.8537,-7.225,-9.5238,-5.1675,-14.54,-7.0513,-12.238,4.359,5.7778,-9.1503,0.51282
-15.786,-6.9206,-14.239,1.9417,-13.008,-9.1667,-6.4412,7.6282,-1.9968,1.9417,-13.008,-9.1954,-13.333,-6.4434,-17.714001,-8.3333,-16.103001,10.128,-0.57143,-11.111,2.4359
-8.239,-11.365,-12.945,-3.2362,-6.5041,0.44872,-10.95,-3.2692,-3.285,-3.2362,-6.5041,-6.5681,-12.063,-6.4434,-14.54,-10.897,-17.391001,1.7949,-3.1111,-6.5359,-2.6923
-3.2075,-6.9206,-9.0615,-0.64725,1.3008,2.3718,-3.2206,13.397,-14.235,-0.64725,1.3008,-2.6273,-6.3492,-3.8915,-9.4603,-7.0513,-13.527,10.769,-12.635,0.65359,-2.0513
-3.2075,-4.381,-7.1197,3.8835,0.0,-1.4744,-4.5089,16.603001,-21.32,3.8835,0.0,-2.6273,-2.5397,-0.0638,-5.6508,-2.5641,-9.0177,11.41,-9.4603,3.9216,1.1538
-3.8365,-5.6508,-7.767,-5.8252,-3.9024,-2.7564,-8.3736,-2.6282,-12.303,-5.8252,-3.9024,-3.9409,-3.8095,-2.6156,-4.381,-3.8462,-7.7295,3.0769,-12.0,3.9216,-3.3333
-1.9497,-1.2063,-3.2362,5.178,-6.5041,0.44872,-6.4412,7.6282,-3.9291,5.178,-6.5041,-1.3136,-1.9048,-3.8915,-0.57143,-0.64103,-1.9324,21.667,-5.0159,2.6144,-3.9744
4.9686,5.1429,4.5307,21.358999,5.8537,6.2179,3.8647,33.269001,2.5121,21.358999,5.8537,6.5681,2.5397,-1.3397,6.4127,4.4872,6.4412,22.948999,2.6032,4.5752,-3.3333
9.3711,4.5079,7.1197,14.239,12.358,10.064,8.3736,28.141001,1.2238,14.239,12.358,9.8522,5.0794,-1.9777,9.5873,3.8462,8.3736,19.103001,-0.57143,7.1895,-5.8974
10.0,0.06349,6.4725,13.592,13.659,9.4231,8.3736,16.603001,4.4444,13.592,13.659,7.8818,4.4444,-1.3397,8.3175,0.64103,7.0853,10.128,-6.2857,4.5752,-5.2564
8.7421,2.6032,6.4725,1.2945,6.5041,11.987,8.3736,-0.0641,8.3092,1.2945,6.5041,7.8818,3.1746,0.57416,6.4127,1.2821,5.7971,-11.667,0.69841,0.0,-3.3333
4.9686,5.1429,5.178,4.5307,3.252,7.5,10.95,-5.1923,-4.5733,4.5307,3.252,8.5386,5.0794,2.488,4.5079,2.5641,4.5089,-13.59,6.4127,3.268,0.51282
1.8239,7.0476,3.8835,13.592,-0.65041,1.0897,9.0177,-5.1923,0.57971,13.592,-0.65041,4.5977,2.5397,4.4019,3.2381,4.4872,3.2206,-5.2564,4.5079,0.0,6.2821
0.56604,10.222,1.9417,12.945,11.707,-4.0385,2.5765,4.4231,12.174,12.945,11.707,0.65681,0.63492,6.3158,2.6032,7.6923,3.2206,0.51282,8.9524,-1.9608,11.41
-7.6101,4.5079,-3.8835,1.2945,13.659,-8.5256,-1.2882,9.5513,15.395,1.2945,13.659,-3.2841,-2.5397,5.6778,-4.381,3.8462,-1.9324,-0.12821,3.2381,-7.8431,10.128
-8.8679,-0.57143,-5.8252,0.0,3.252,-7.8846,0.0,3.141,8.9533,0.0,3.252,-3.2841,-5.7143,1.8501,-6.9206,0.0,-5.7971,-21.282,14.667,-9.8039,6.9231
-8.239,-3.746,-6.4725,-3.2362,-1.3008,-8.5256,-0.64412,-6.4744,-0.70853,-3.2362,-1.3008,-3.9409,-5.0794,-2.6156,-7.5556,-3.2051,-7.0853,-6.5385,19.746,-8.4967,2.4359
-5.0943,0.06349,-5.178,-16.827999,1.3008,-4.6795,-1.2882,1.859,-3.285,-16.827999,1.3008,-2.6273,-8.8889,-4.5295,-8.1905,-1.2821,-7.0853,3.0769,1.9683,-3.9216,3.7179
-1.9497,1.9683,-3.8835,4.5307,-0.65041,4.2949,0.0,-21.218,-10.37,4.5307,-0.65041,-1.3136,-6.3492,-0.70175,-6.2857,0.64103,-5.7971,5.641,-1.8413,-2.6144,5.0
-5.7233,-3.1111,-7.767,3.8835,-10.407,-2.7564,-4.5089,3.7821,-12.947,3.8835,-10.407,-7.225,-5.7143,-1.9777,-8.1905,-1.2821,-6.4412,-3.3333,1.3333,-7.8431,2.4359
-4.4654,-5.0159,-7.767,-8.4142,-3.252,-8.5256,-14.815,17.243999,-7.1498,-8.4142,-3.252,-12.479,-4.4444,-2.6156,-6.2857,-1.9231,-5.7971,-1.4103,-1.8413,-5.2288,-0.76923
-7.6101,-6.9206,-7.767,-1.9417,-0.65041,-10.449,-15.459,-11.603,-8.438,-1.9417,-0.65041,-13.793,-3.8095,-2.6156,-5.6508,-3.8462,-5.7971,1.7949,-8.1905,-5.8824,-0.76923
-1.3208,-8.1905,-5.8252,-16.181,-12.358,-4.6795,-7.7295,5.7051,-6.5056,-16.181,-12.358,-8.5386,-3.8095,-6.4434,-1.2063,-7.6923,-5.7971,3.0769,-4.381,1.9608,-6.5385
-1.3208,-6.9206,-5.8252,-3.8835,-15.61,-5.9615,-8.3736,7.6282,-1.9968,-3.8835,-15.61,-7.8818,-3.8095,-7.7193,-1.2063,-8.3333,-5.7971,12.051,-6.9206,3.9216,-11.667
3.0818,-6.2857,-2.589,0.64725,-9.1057,3.6538,0.0,-10.321,-0.70853,0.64725,-9.1057,0.65681,-3.1746,-7.0813,-1.2063,-8.9744,-5.153,-3.3333,-6.2857,0.65359,-9.1026
1.8239,-5.6508,-1.2945,5.178,0.65041,1.7308,-1.2882,12.756,-5.2174,5.178,0.65041,1.3136,-2.5397,-5.8054,-0.57143,-8.3333,-3.8647,7.5641,-1.2063,3.9216,-9.7436
3.7107,-3.1111,1.2945,12.945,13.008,1.7308,-1.2882,14.038,-0.70853,12.945,13.008,1.3136,2.5397,-2.6156,1.3333,-5.1282,-0.64412,3.7179,-1.8413,4.5752,-7.8205
3.0818,-1.8413,3.2362,2.589,11.707,4.2949,-1.2882,5.0641,3.8003,2.589,11.707,2.6273,4.4444,-0.70175,2.6032,-2.5641,1.9324,3.7179,3.873,1.9608,-4.6154
-0.06289,1.3333,3.8835,-3.8835,9.1057,0.44872,3.2206,11.474,7.6651,-3.8835,9.1057,2.6273,3.8095,0.57416,1.9683,0.64103,2.5765,3.7179,-1.8413,1.3072,-1.4103
-1.9497,3.2381,3.2362,-14.239,-1.9512,0.44872,6.4412,2.5,6.3768,-14.239,-1.9512,3.2841,0.0,1.8501,-2.4762,1.2821,-0.64412,-18.718,8.3175,-3.9216,-1.4103
3.7107,12.762,7.767,-2.589,-0.65041,6.859,14.815,4.4231,14.106,-2.589,-0.65041,10.509,3.1746,9.5056,1.3333,8.9744,3.2206,-5.2564,1.3333,1.3072,12.692
-2.5786,7.0476,1.2945,14.239,-1.9512,3.0128,7.0853,-44.294998,3.8003,14.239,-1.9512,5.9113,1.2698,11.419,-4.381,5.1282,-1.9324,-0.12821,5.7778,-0.65359,12.051
-10.126,2.6032,-5.178,18.122999,5.2033,-9.1667,-1.2882,-25.063999,-7.7939,18.122999,5.2033,-1.9704,-1.9048,7.5917,-8.1905,1.2821,-6.4412,-14.231,13.397,-4.5752,8.2051
-8.239,2.6032,-4.5307,2.589,9.1057,-10.449,-3.2206,6.3462,-1.9968,2.589,9.1057,-4.5977,0.63492,8.2297,-5.0159,3.2051,-3.8647,-25.768999,-4.381,-1.9608,8.8462
-3.8365,3.2381,-0.64725,-13.592,0.65041,-3.3974,-5.153,-3.9103,-0.70853,-13.592,0.65041,-1.9704,4.4444,11.419,-0.57143,6.4103,1.2882,-17.436001,-1.8413,1.9608,9.4872
-5.0943,-3.746,-1.9417,-11.65,3.252,-5.9615,-7.0853,1.859,1.2238,-11.65,3.252,-3.2841,6.9841,8.2297,0.06349,1.2821,0.64412,5.641,6.4127,7.8431,3.0769
-8.8679,-7.5556,-5.8252,-11.65,1.3008,-11.09,-6.4412,-3.9103,-1.9968,-11.65,1.3008,-7.8818,7.619,7.5917,0.06349,-2.5641,0.0,-5.2564,0.69841,7.1895,-0.76923
-7.6101,-10.095,-9.7087,-0.64725,-13.659,-9.1667,-2.5765,-28.268999,-12.947,-0.64725,-13.659,-9.8522,5.0794,1.2121,-1.8413,-7.6923,-3.2206,-8.4615,-10.73,1.9608,-7.1795
-5.7233,-12.635,-10.356,-12.945,-18.211,-7.8846,-10.306,-9.6795,-9.0821,-12.945,-18.211,-11.166,6.3492,-1.9777,-0.57143,-8.9744,-2.5765,8.8462,-14.54,5.8824,-9.7436
-6.3522,-13.27,-9.7087,-18.122999,-14.309,-6.6026,-10.95,9.5513,-5.2174,-18.122999,-14.309,-5.9113,2.5397,-5.1675,-3.1111,-12.179,-5.153,10.769,-20.889,3.268,-9.1026
-3.2075,-13.905,-6.4725,1.2945,-1.3008,1.0897,-5.153,10.192,-1.3527,1.2945,-1.3008,-0.65681,0.0,-7.0813,-4.381,-14.744,-6.4412,0.51282,-10.73,0.0,-12.949
3.0818,-6.2857,0.64725,7.767,14.959,6.2179,1.2882,3.141,4.4444,7.767,14.959,4.5977,1.9048,-6.4434,0.06349,-9.6154,-1.2882,-14.231,-12.0,2.6144,-16.153999
3.7107,0.69841,2.589,6.4725,11.707,4.2949,3.2206,-0.70513,2.5121,6.4725,11.707,4.5977,1.2698,-3.2536,1.9683,-2.5641,1.2882,1.7949,-3.746,4.5752,-9.7436
1.8239,5.1429,3.2362,1.2945,5.8537,-1.4744,9.0177,7.6282,1.2238,1.2945,5.8537,3.2841,0.63492,-0.70175,0.69841,1.9231,1.2882,16.538,1.9683,5.8824,-4.6154
3.7107,8.3175,5.178,5.8252,3.252,1.7308,6.4412,7.6282,6.3768,5.8252,3.252,3.2841,3.8095,5.6778,1.9683,7.0513,3.2206,-3.3333,-8.8254,0.0,1.7949
-1.3208,5.1429,1.2945,4.5307,0.65041,0.44872,3.8647,-13.526,-0.70853,4.5307,0.65041,1.3136,4.4444,8.2297,-1.2063,6.4103,1.2882,10.128,-5.6508,-1.9608,8.2051
-7.6101,-8.1905,-8.4142,-20.712,-7.8049,-8.5256,-7.7295,-6.4744,0.57971,-20.712,-7.8049,-9.1954,0.0,2.488,-6.2857,-4.4872,-6.4412,3.7179,6.4127,-2.6144,2.4359
-4.4654,-11.365,-11.003,-19.417,-11.057,-9.1667,-9.0177,7.6282,5.7327,-19.417,-11.057,-11.823,0.63492,1.2121,-4.381,-8.3333,-8.3736,-5.8974,12.762,0.65359,2.4359
-4.4654,-7.5556,-12.298,-5.178,-5.2033,-8.5256,-8.3736,-5.1923,-5.2174,-5.178,-5.2033,-11.823,-1.9048,-0.70175,-5.0159,-8.3333,-10.306,4.359,0.06349,2.6144,6.2821
-8.239,-8.8254,-15.534,-14.887,-9.7561,-11.09,-9.6618,-10.962,-1.9968,-14.887,-9.7561,-13.793,-6.9841,-7.0813,-9.4603,-12.179,-14.171,6.9231,-5.6508,-2.6144,0.51282
-13.27,-10.73,-14.887,-11.65,-9.7561,-17.5,-10.306,-16.731001,-2.6409,-11.65,-9.7561,-13.793,-8.254,-7.0813,-11.365,-12.821,-14.815,-5.2564,4.5079,-3.9216,-2.0513
-11.384,-8.8254,-8.4142,-1.2945,-9.7561,-13.013,-9.6618,-6.4744,-5.2174,-1.2945,-9.7561,-8.5386,-6.9841,-5.8054,-9.4603,-8.3333,-10.306,-21.282,8.9524,-4.5752,-0.12821
-5.0943,-1.2063,1.2945,-4.5307,-3.9024,0.44872,-4.5089,-7.7564,-0.70853,-4.5307,-3.9024,1.9704,-5.0794,-0.0638,-5.0159,0.0,-3.2206,-3.3333,6.4127,-7.1895,7.5641
-0.69182,4.5079,7.1197,-3.2362,1.9512,9.4231,3.8647,-26.346001,-0.70853,-3.2362,1.9512,9.1954,-3.1746,-0.0638,-1.2063,3.8462,1.2882,-13.59,3.873,-8.4967,5.641
-0.69182,6.4127,5.8252,-1.9417,-3.252,4.9359,9.6618,-1.9872,-1.3527,-1.9417,-3.252,7.8818,-6.3492,-3.8915,-3.1111,3.8462,0.64412,-20.0,-3.746,-9.8039,1.1538
-1.9497,8.3175,4.5307,-16.181,0.65041,1.0897,6.4412,7.6282,2.5121,-16.181,0.65041,3.9409,-3.8095,2.488,-1.8413,7.6923,2.5765,-3.3333,-1.2063,-4.5752,5.641
-0.06289,5.7778,2.589,-11.65,2.6016,-2.1154,-4.5089,-12.885,4.4444,-11.65,2.6016,-1.3136,-0.63492,2.488,-0.57143,6.4103,2.5765,-13.59,7.0476,-1.9608,4.359
-0.69182,8.3175,1.2945,5.178,-16.910999,-7.8846,0.0,-16.09,-9.0821,5.178,-16.910999,-5.9113,1.2698,2.488,-1.2063,7.0513,1.9324,-17.436001,-1.2063,-5.2288,3.7179
-5.7233,-1.8413,-4.5307,-5.8252,-20.163,-12.372,-5.153,-9.6795,-10.37,-5.8252,-20.163,-11.166,3.1746,1.8501,-3.1111,0.0,-1.9324,-0.12821,-1.8413,-2.6144,-2.0513
-6.3522,-11.365,-9.0615,-11.003,-3.252,-8.5256,-17.391001,1.2179,-3.9291,-11.003,-3.252,-13.793,1.9048,1.8501,-4.381,-5.7692,-5.153,-0.12821,7.0476,0.0,-3.9744
-10.126,-13.27,-11.65,-3.8835,-1.3008,-9.1667,-14.171,-8.3974,-1.9968,-3.8835,-1.3008,-11.823,-0.63492,-0.0638,-6.9206,-10.256,-8.3736,-3.3333,0.06349,-3.268,-2.6923
-6.3522,-10.095,-7.767,-16.181,-7.8049,-3.3974,-2.5765,-15.449,-0.06441,-16.181,-7.8049,-4.5977,5.0794,0.57416,-2.4762,-10.897,-6.4412,-9.7436,-1.2063,1.9608,-3.9744
0.56604,-5.0159,-2.589,-7.767,-7.8049,-2.1154,1.2882,-11.603,-3.9291,-7.767,-7.8049,-1.9704,10.159,3.764,3.2381,-7.0513,-1.2882,-4.6154,-4.381,7.8431,-1.4103
8.7421,3.873,6.4725,-1.9417,1.9512,6.859,4.5089,-22.5,3.8003,-1.9417,1.9512,3.9409,12.063,5.0399,8.9524,1.2821,6.4412,2.4359,-1.2063,11.765,2.4359
15.031,11.492,11.65,6.4725,5.8537,9.4231,10.95,-1.3462,4.4444,6.4725,5.8537,7.225,10.159,6.3158,12.127,8.9744,11.594,6.2821,0.69841,10.458,7.5641
10.0,19.111,11.65,16.827999,2.6016,7.5,14.815,16.603001,-12.303,16.827999,2.6016,7.8818,6.9841,8.8676,10.222,16.667,12.882,6.9231,-12.0,9.1503,15.897
2.4528,10.222,5.178,5.178,7.8049,6.2179,7.0853,2.5,-3.9291,5.178,7.8049,5.9113,1.9048,1.8501,3.873,10.256,7.7295,2.4359,1.9683,3.9216,6.9231
-1.3208,-1.2063,0.64725,1.9417,9.1057,0.44872,0.64412,0.57692,13.462,1.9417,9.1057,3.9409,-2.5397,-5.1675,-0.57143,1.2821,0.64412,-0.76923,15.937,1.3072,-5.2564
0.56604,0.06349,4.5307,3.8835,8.4553,0.44872,2.5765,-4.5513,15.395,3.8835,8.4553,7.225,-2.5397,-6.4434,0.06349,0.0,-0.64412,-14.872,12.127,-0.65359,-5.8974
8.1132,2.6032,11.003,7.1197,15.61,8.7821,5.153,-11.603,14.106,7.1197,15.61,11.166,-1.2698,-5.8054,3.873,0.64103,2.5765,-1.4103,9.5873,-2.6144,-5.8974
9.3711,1.3333,10.356,11.003,13.659,8.7821,5.7971,-1.3462,6.3768,11.003,13.659,9.8522,-1.9048,-8.9952,5.7778,-0.64103,3.8647,12.692,-1.2063,-1.3072,-11.667
8.1132,5.1429,7.1197,4.5307,1.9512,6.2179,10.306,0.57692,-2.6409,4.5307,1.9512,8.5386,-1.2698,-4.5295,5.7778,3.2051,5.153,6.2821,1.3333,0.65359,-7.8205
8.1132,6.4127,3.2362,-1.2945,0.0,10.064,5.7971,-9.0385,-3.9291,-1.2945,0.0,5.9113,1.9048,3.126,7.0476,6.4103,5.7971,1.7949,0.06349,5.8824,-1.4103
3.7107,6.4127,0.64725,8.4142,1.9512,2.3718,0.0,2.5,-5.2174,8.4142,1.9512,1.9704,4.4444,5.6778,5.1429,7.0513,5.153,10.128,-1.2063,7.8431,3.0769
-1.3208,5.1429,0.64725,11.65,-0.65041,-2.7564,-3.2206,19.167,-0.06441,11.65,-0.65041,0.65681,6.9841,7.5917,3.2381,7.0513,4.5089,10.128,-11.365,6.5359,5.641
2.4528,-1.2063,1.2945,9.0615,3.252,4.2949,-3.2206,8.9103,-1.9968,9.0615,3.252,3.9409,6.9841,6.3158,3.2381,2.5641,3.2206,-0.12821,-5.6508,4.5752,3.7179
2.4528,-6.2857,-1.9417,-1.9417,7.8049,4.9359,-3.8647,16.603001,-1.3527,-1.9417,7.8049,1.3136,1.9048,2.488,0.69841,-2.5641,0.0,-4.6154,1.3333,1.9608,1.1538
1.195,-3.1111,-2.589,1.9417,4.5528,4.9359,3.8647,14.679,-3.9291,1.9417,4.5528,3.9409,-0.63492,1.2121,-1.2063,-3.2051,-1.9324,3.7179,-12.0,-1.3072,-0.76923
1.195,0.69841,0.0,16.181,6.5041,3.0128,8.3736,13.397,5.0886,16.181,6.5041,5.2545,-1.9048,-0.0638,-1.2063,-2.5641,-1.2882,6.9231,-0.57143,-4.5752,-3.3333
0.56604,0.69841,0.0,8.4142,7.8049,6.2179,9.0177,5.7051,8.9533,8.4142,7.8049,3.9409,-6.3492,-2.6156,-3.1111,-2.5641,-1.2882,-6.5385,9.5873,-7.1895,-2.6923
-2.5786,-1.2063,-1.9417,-14.887,-6.5041,4.2949,1.2882,-20.577,-7.7939,-14.887,-6.5041,-1.3136,-6.9841,-3.2536,-3.1111,-1.9231,-1.9324,-2.6923,7.0476,-7.1895,-2.6923
-4.4654,-2.4762,-5.178,-8.4142,-16.910999,-4.0385,-5.153,-5.8333,-10.37,-8.4142,-16.910999,-7.8818,-6.9841,-5.1675,-3.1111,-2.5641,-2.5765,10.128,0.69841,-3.9216,-2.6923
-7.6101,-8.1905,-10.356,5.8252,-7.8049,-11.09,-16.103001,6.9872,1.2238,5.8252,-7.8049,-14.45,-5.0794,-5.8054,-3.1111,-5.1282,-3.8647,8.2051,1.3333,-3.268,-1.4103
-8.239,-9.4603,-11.65,-1.9417,-3.9024,-13.654,-19.323999,-7.1154,3.1562,-1.9417,-3.9024,-16.42,-4.4444,-6.4434,-3.1111,-6.4103,-5.153,1.7949,-6.2857,-2.6144,-5.2564
-6.3522,-10.095,-10.356,-18.122999,-8.4553,-11.731,-14.171,-18.013,-0.06441,-18.122999,-8.4553,-15.107,-3.1746,-6.4434,-3.1111,-7.6923,-5.7971,-5.2564,-6.9206,-1.9608,-4.6154
1.195,-3.746,-2.589,-17.476,-18.211,-5.9615,-3.8647,-10.962,-7.7939,-17.476,-18.211,-9.1954,6.3492,2.488,3.873,-1.2821,0.64412,-11.026,-0.57143,3.9216,0.51282
1.195,2.6032,0.64725,-15.534,-20.813,-5.3205,0.64412,0.57692,-16.167,-15.534,-20.813,-5.2545,5.0794,5.6778,2.6032,3.2051,3.2206,-3.3333,2.6032,0.0,3.7179
0.56604,7.6825,1.9417,-3.2362,-9.1057,-5.3205,4.5089,2.5,-16.812,-3.2362,-9.1057,-2.6273,4.4444,8.2297,2.6032,7.0513,4.5089,0.51282,-4.381,1.3072,8.8462
-0.69182,5.1429,-0.64725,1.9417,2.6016,-4.6795,-1.9324,0.57692,-7.7939,1.9417,2.6016,-1.9704,2.5397,6.9537,-0.57143,4.4872,1.2882,-2.0513,-3.746,-1.3072,10.769
-5.0943,-6.2857,-6.4725,1.2945,-0.65041,1.0897,-14.171,-21.858999,4.4444,1.2945,-0.65041,-5.2545,-2.5397,-1.3397,-5.6508,-3.8462,-5.7971,-1.4103,3.873,-2.6144,1.7949
-6.3522,-10.095,-7.1197,0.0,-1.9512,2.3718,-10.95,-2.6282,1.2238,0.0,-1.9512,-3.2841,-5.0794,-5.8054,-8.1905,-8.3333,-9.0177,3.7179,2.6032,-3.9216,-4.6154
-3.8365,-7.5556,-3.8835,6.4725,0.0,0.44872,0.64412,24.936001,2.5121,6.4725,0.0,0.65681,-6.9841,-8.3573,-6.2857,-8.9744,-8.3736,-2.6923,7.6825,-4.5752,-5.2564
0.56604,-8.1905,-4.5307,2.589,10.407,-0.19231,0.64412,5.7051,1.868,2.589,10.407,-0.65681,-5.7143,-8.3573,-4.381,-10.256,-7.7295,-1.4103,3.873,-3.9216,-7.8205
1.195,-4.381,-4.5307,-0.64725,5.2033,-0.19231,-2.5765,11.474,-2.6409,-0.64725,5.2033,-3.2841,-3.1746,-7.0813,-1.8413,-6.4103,-5.7971,-0.76923,-8.8254,-1.3072,-4.6154
3.7107,-1.2063,-2.589,11.65,-1.3008,-1.4744,1.9324,18.525999,3.8003,11.65,-1.3008,-2.6273,-1.2698,-5.1675,1.9683,-1.9231,-1.9324,16.538,6.4127,3.268,-3.9744
-0.06289,-2.4762,-3.8835,2.589,-3.252,-2.7564,-1.9324,12.756,-1.3527,2.589,-3.252,-5.2545,-1.2698,-4.5295,0.69841,-1.9231,-1.2882,25.513,0.69841,1.3072,-5.2564
-4.4654,-5.6508,-6.4725,-5.8252,-5.2033,-3.3974,-4.5089,-4.5513,-2.6409,-5.8252,-5.2033,-5.9113,-0.63492,-1.3397,-1.2063,-1.9231,-1.9324,10.769,-2.4762,-1.3072,-3.9744
-6.3522,-7.5556,-8.4142,-7.1197,-10.407,-3.3974,-9.0177,-9.6795,-2.6409,-7.1197,-10.407,-5.9113,-2.5397,-0.70175,-3.746,-3.2051,-2.5765,8.2051,-10.095,-1.9608,-3.9744
-1.9497,-1.2063,-2.589,-1.2945,-1.3008,0.44872,-2.5765,15.321,1.868,-1.2945,-1.3008,0.0,-3.8095,-0.0638,-3.1111,0.0,-0.64412,0.51282,-24.063,-4.5752,3.7179
4.3396,-4.381,1.9417,0.64725,7.1545,6.859,3.2206,19.808001,-2.6409,0.64725,7.1545,5.2545,-5.0794,-7.0813,-1.2063,-5.1282,-1.2882,-6.5385,-0.57143,-5.2288,-4.6154
8.7421,-1.8413,7.1197,0.0,2.6016,18.396999,9.0177,-3.2692,-3.285,0.0,2.6016,14.45,-2.5397,-5.1675,3.2381,-2.5641,1.2882,0.51282,13.397,0.65359,-5.8974
11.258,4.5079,9.7087,9.7087,9.1057,13.91,9.0177,1.859,-1.9968,9.7087,9.1057,13.136,2.5397,1.2121,7.0476,3.8462,6.4412,7.5641,2.6032,6.5359,1.7949
6.2264,5.1429,7.767,9.7087,7.1545,4.2949,-2.5765,15.321,3.8003,9.7087,7.1545,5.2545,2.5397,3.126,6.4127,7.0513,7.0853,19.743999,-0.57143,3.9216,5.641
1.8239,0.69841,4.5307,1.9417,-2.6016,-3.3974,-4.5089,8.9103,-2.6409,1.9417,-2.6016,-0.65681,2.5397,1.2121,4.5079,3.2051,4.5089,13.333,-4.381,2.6144,2.4359
-0.69182,-3.746,1.2945,1.9417,-7.8049,-5.9615,-7.0853,1.859,-6.5056,1.9417,-7.8049,-5.2545,1.2698,-0.0638,3.2381,0.64103,3.2206,-3.3333,-5.0159,1.3072,-2.6923
0.56604,1.9683,5.178,-5.178,-7.1545,-1.4744,2.5765,5.0641,-7.1498,-5.178,-7.1545,0.65681,4.4444,3.764,4.5079,5.1282,6.4412,0.51282,-8.1905,0.65359,0.51282
-0.69182,11.492,7.1197,-14.239,3.252,-3.3974,5.7971,-1.9872,-11.659,-14.239,3.252,-0.65681,5.0794,8.2297,4.5079,10.897,8.3736,-1.4103,-11.365,1.3072,5.641
-0.06289,6.4127,3.8835,-5.8252,8.4553,-3.3974,-5.7971,-21.858999,-3.285,-5.8252,8.4553,-4.5977,5.0794,6.3158,3.2381,8.3333,7.7295,-2.6923,-13.27,2.6144,3.0769
3.0818,1.9683,5.178,12.298,5.8537,2.3718,-6.4412,-7.1154,7.6651,12.298,5.8537,-1.3136,8.8889,6.9537,5.7778,7.0513,9.6618,-5.8974,6.4127,3.268,2.4359
4.9686,2.6032,5.8252,12.945,-3.252,4.2949,1.2882,16.603001,5.0886,12.945,-3.252,3.9409,4.4444,6.9537,5.7778,7.0513,9.0177,1.7949,4.5079,2.6144,6.9231
-0.69182,0.69841,1.9417,11.003,-1.3008,-1.4744,3.2206,8.2692,-2.6409,11.003,-1.3008,1.9704,0.0,2.488,0.69841,2.5641,4.5089,-3.3333,-4.381,-2.6144,5.0
-0.06289,0.06349,1.9417,2.589,7.8049,-0.19231,8.3736,11.474,-1.3527,2.589,7.8049,2.6273,1.2698,2.488,0.69841,0.64103,3.2206,-2.0513,9.5873,-1.9608,1.1538
5.5975,-2.4762,3.8835,8.4142,5.2033,6.2179,3.2206,2.5,8.9533,8.4142,5.2033,4.5977,3.1746,5.6778,4.5079,-1.2821,4.5089,-1.4103,3.873,-0.65359,-0.12821
8.7421,-2.4762,5.178,5.8252,9.7561,8.141,0.0,2.5,2.5121,5.8252,9.7561,3.9409,3.1746,0.57416,5.7778,-1.2821,4.5089,5.0,-1.8413,2.6144,-1.4103
5.5975,-0.57143,4.5307,-2.589,0.65041,4.9359,0.64412,0.57692,-0.06441,-2.589,0.65041,3.2841,2.5397,-2.6156,4.5079,-0.64103,3.8647,11.41,-3.1111,6.5359,-3.9744
1.195,3.2381,2.589,0.0,1.9512,2.3718,0.64412,8.9103,3.8003,0.0,1.9512,-0.65681,1.9048,3.126,1.3333,3.2051,2.5765,-12.308,-5.0159,2.6144,3.0769
-4.4654,2.6032,-1.9417,0.64725,0.0,-1.4744,-3.8647,-23.141001,-1.3527,0.64725,0.0,-3.9409,-1.9048,4.4019,-2.4762,4.4872,0.0,-18.718,1.9683,-3.268,7.5641
-9.4969,-2.4762,-5.8252,4.5307,-13.008,-5.3205,-6.4412,-7.1154,-9.7262,4.5307,-13.008,-6.5681,-2.5397,1.2121,-4.381,0.64103,-2.5765,12.051,5.1429,0.65359,3.7179
-1.3208,1.3333,-2.589,0.0,-12.358,-3.3974,-1.9324,12.756,-8.438,0.0,-12.358,-3.9409,0.63492,-0.0638,0.69841,2.5641,0.64412,21.025999,-3.1111,5.8824,5.0
6.8553,0.69841,1.2945,-10.356,0.0,-1.4744,-6.4412,12.756,-0.06441,-10.356,0.0,-3.9409,5.7143,1.2121,6.4127,3.2051,3.8647,5.0,-0.57143,8.4967,4.359
9.3711,3.2381,5.8252,-13.592,2.6016,4.2949,-4.5089,4.4231,-5.8615,-13.592,2.6016,0.65681,7.619,2.488,8.3175,4.4872,6.4412,6.2821,1.3333,7.1895,3.7179
3.7107,1.3333,3.8835,-7.1197,-11.707,1.0897,-2.5765,-1.9872,-12.947,-7.1197,-11.707,0.0,1.9048,-1.3397,3.873,1.9231,3.8647,7.5641,-1.2063,1.3072,-1.4103
3.0818,1.9683,3.8835,-7.1197,-9.7561,0.44872,1.9324,-9.0385,-11.659,-7.1197,-9.7561,1.9704,1.9048,-0.0638,4.5079,3.2051,4.5089,-13.59,2.6032,-0.65359,0.51282
2.4528,3.873,3.2362,-16.181,-7.1545,0.44872,-3.2206,-3.2692,-0.06441,-16.181,-7.1545,3.2841,4.4444,5.0399,5.7778,5.7692,6.4412,-25.128,0.69841,1.3072,4.359
3.0818,5.1429,5.178,4.5307,-3.9024,6.2179,5.7971,-3.2692,6.3768,4.5307,-3.9024,9.1954,8.254,8.8676,7.6825,7.0513,9.0177,0.51282,6.4127,4.5752,5.641
0.56604,4.5079,5.8252,20.065001,0.0,3.0128,12.882,-2.6282,8.3092,20.065001,0.0,8.5386,11.429,12.695,7.6825,5.7692,9.6618,3.0769,13.397,4.5752,7.5641
3.0818,3.873,5.8252,12.945,12.358,1.7308,5.7971,-40.449001,5.0886,12.945,12.358,6.5681,8.254,8.8676,7.6825,5.1282,9.0177,-9.1026,13.397,2.6144,6.9231
-0.69182,4.5079,3.8835,1.9417,19.511999,-1.4744,2.5765,-18.653999,8.3092,1.9417,19.511999,1.9704,3.8095,6.9537,4.5079,5.7692,9.0177,-2.6923,5.7778,-3.268,6.9231
-5.0943,6.4127,2.589,-11.65,5.2033,-4.6795,3.8647,6.9872,16.039,-11.65,5.2033,-0.65681,3.1746,6.9537,1.3333,7.0513,7.7295,-2.0513,-8.8254,-5.8824,5.0
-1.3208,9.5873,5.8252,0.0,-11.057,-1.4744,9.6618,8.9103,7.6651,0.0,-11.057,3.2841,4.4444,7.5917,1.9683,9.6154,7.7295,-2.6923,1.3333,-3.9216,6.9231
-1.9497,4.5079,1.9417,-11.003,-16.26,-0.19231,3.8647,5.7051,3.8003,-11.003,-16.26,0.65681,1.2698,7.5917,-0.57143,7.0513,3.2206,-18.077,8.3175,-3.9216,8.8462
-2.5786,0.06349,-2.589,-22.653999,-2.6016,-5.3205,-6.4412,-1.3462,-0.06441,-22.653999,-2.6016,-6.5681,-2.5397,6.3158,-2.4762,3.8462,0.0,-9.1026,0.69841,-1.3072,6.9231
-4.4654,-5.6508,-7.1197,-0.64725,0.65041,-8.5256,-9.0177,-14.808,-17.455999,-0.64725,0.65041,-13.793,-3.1746,2.488,-4.381,-1.9231,-4.5089,1.1538,3.2381,1.3072,1.1538
-5.0943,-8.1905,-8.4142,9.0615,-0.65041,-10.449,-7.7295,-12.885,-9.0821,9.0615,-0.65041,-13.136,-3.1746,1.8501,-4.381,-3.8462,-5.7971,4.359,7.0476,0.65359,1.1538
-1.9497,-5.6508,-6.4725,1.2945,3.252,-2.1154,-10.95,1.2179,0.57971,1.2945,3.252,-9.8522,-1.9048,1.8501,-2.4762,-2.5641,-4.5089,-6.5385,0.69841,-3.9216,3.0769
2.4528,-6.2857,-4.5307,-5.178,4.5528,0.44872,-7.7295,7.6282,3.8003,-5.178,4.5528,-5.2545,-1.2698,-1.9777,1.3333,-3.8462,-2.5765,-0.12821,-3.746,0.0,1.1538
1.8239,-5.6508,-3.8835,-8.4142,-7.1545,4.9359,-1.2882,5.7051,4.4444,-8.4142,-7.1545,0.0,-3.1746,-7.0813,1.3333,-6.4103,-3.2206,15.256,0.06349,1.9608,-3.3333
4.9686,-3.746,-0.64725,3.8835,-7.8049,11.987,4.5089,-18.013,2.5121,3.8835,-7.8049,6.5681,-1.9048,-6.4434,1.3333,-5.7692,-3.2206,15.256,1.9683,3.9216,-2.6923
6.2264,0.06349,0.64725,15.534,7.1545,11.987,5.153,2.5,7.0209,15.534,7.1545,7.225,-3.1746,-7.0813,0.69841,-5.7692,-4.5089,4.359,0.69841,3.9216,-5.8974
-2.5786,-1.8413,-3.8835,23.948,18.862,0.44872,2.5765,21.731001,9.5974,23.948,18.862,1.3136,-9.5238,-8.9952,-8.1905,-8.3333,-10.306,-5.2564,7.0476,-3.268,-8.4615
-9.4969,0.06349,-5.178,15.534,2.6016,1.0897,7.7295,18.525999,3.1562,15.534,2.6016,1.9704,-9.5238,-10.909,-13.905,-8.3333,-12.882,3.7179,-8.1905,-4.5752,-9.7436
-9.4969,-0.57143,-6.4725,1.2945,0.65041,0.44872,2.5765,2.5,3.1562,1.2945,0.65041,1.9704,-10.159,-9.6332,-14.54,-7.0513,-12.882,10.128,-10.095,-2.6144,-7.8205
-4.4654,-0.57143,-3.8835,0.0,8.4553,1.0897,3.2206,2.5,4.4444,0.0,8.4553,2.6273,-6.9841,-5.1675,-10.095,-3.8462,-8.3736,9.4872,3.873,-5.8824,-3.3333
-1.3208,-5.0159,-2.589,-3.8835,2.6016,3.6538,7.7295,2.5,5.7327,-3.8835,2.6016,4.5977,-6.9841,-8.3573,-6.9206,-6.4103,-7.7295,-6.5385,7.6825,-7.8431,-6.5385
6.2264,-3.746,2.589,-3.8835,1.3008,8.7821,7.0853,6.9872,-2.6409,-3.8835,1.3008,7.8818,-3.8095,-4.5295,-0.57143,-3.8462,-2.5765,-18.718,-4.381,-6.5359,-3.9744
3.7107,-0.57143,4.5307,3.2362,9.7561,8.141,3.2206,5.0641,3.8003,3.2362,9.7561,9.1954,-1.9048,-0.70175,0.69841,0.0,1.2882,1.1538,4.5079,-6.5359,0.51282
-9.4969,-6.9206,-3.8835,9.0615,5.8537,-2.7564,-5.7971,6.3462,5.7327,9.0615,5.8537,-0.65681,-8.254,-5.1675,-8.8254,-6.4103,-6.4412,5.641,5.1429,-12.418,-1.4103
-10.755,-4.381,-5.178,6.4725,-0.65041,-2.7564,0.64412,3.141,-0.06441,6.4725,-0.65041,0.65681,-7.619,-3.2536,-10.73,-6.4103,-8.3736,1.1538,1.9683,-9.1503,1.7949
-9.4969,-0.57143,-5.178,6.4725,-0.65041,0.44872,7.7295,5.0641,6.3768,6.4725,-0.65041,2.6273,-10.159,-6.4434,-13.27,-7.6923,-11.594,0.51282,1.9683,-8.4967,1.1538
-13.899,-7.5556,-11.65,-5.178,-8.4553,-4.0385,1.2882,3.7821,5.0886,-5.178,-8.4553,-3.2841,-14.603,-11.547,-19.618999,-15.385,-18.68,-0.76923,-1.8413,-11.111,-9.1026
-7.6101,-3.1111,-8.4142,-4.5307,-1.3008,-0.83333,2.5765,-1.3462,5.7327,-4.5307,-1.3008,0.0,-13.968,-11.547,-17.714001,-13.462,-18.035,-9.1026,-9.4603,-11.765,-12.308
-5.7233,-3.1111,-7.1197,2.589,8.4553,-0.19231,0.64412,-11.603,5.0886,2.589,8.4553,-0.65681,-11.429,-11.547,-13.905,-12.821,-16.103001,-11.026,2.6032,-8.4967,-12.949
-9.4969,-3.1111,-7.1197,1.9417,16.26,-7.2436,1.2882,11.474,-0.70853,1.9417,16.26,-3.2841,-13.968,-15.375,-14.54,-11.538,-16.103001,8.8462,4.5079,-5.8824,-12.949
-6.3522,0.69841,-2.589,13.592,11.707,-4.0385,0.0,22.372,-3.285,13.592,11.707,-1.3136,-13.333,-14.099,-10.095,-6.4103,-10.95,8.2051,-0.57143,-9.1503,-11.667
5.5975,6.4127,7.1197,16.181,-1.3008,8.7821,12.238,10.833,1.2238,16.181,-1.3008,9.1954,-6.3492,-7.7193,0.06349,1.2821,-0.64412,-4.6154,-1.2063,-6.5359,-3.9744
15.031,10.222,12.945,11.003,0.65041,11.346,12.882,14.679,14.75,11.003,0.65041,10.509,0.63492,-1.9777,10.222,7.6923,9.6618,0.51282,-6.9206,1.9608,-2.0513
16.289,8.9524,12.945,11.003,13.008,10.064,5.7971,9.5513,12.818,11.003,13.008,7.8818,5.7143,4.4019,14.667,10.256,13.527,1.1538,-5.6508,5.2288,2.4359
7.4843,1.9683,3.2362,-6.4725,8.4553,3.0128,-3.2206,-1.9872,2.5121,-6.4725,8.4553,0.65681,5.0794,3.764,8.9524,4.4872,7.0853,3.0769,-0.57143,5.8824,4.359
-5.0943,-8.1905,-7.767,-11.003,3.9024,-3.3974,-11.594,-8.3974,-5.2174,-11.003,3.9024,-7.225,0.0,-1.3397,-1.8413,-5.7692,-3.2206,-3.3333,1.9683,-1.9608,-2.6923
-15.157,-12.0,-13.592,-14.239,-4.5528,-7.8846,-6.4412,-2.6282,-6.5056,-14.239,-4.5528,-8.5386,-5.7143,-6.4434,-10.73,-12.179,-11.594,-3.3333,-3.1111,-8.4967,-6.5385
-12.013,-7.5556,-9.7087,-3.2362,-11.707,-4.6795,6.4412,-0.70513,-3.285,-3.2362,-11.707,-1.3136,-5.0794,-3.8915,-10.095,-12.179,-12.238,-3.3333,1.3333,-3.9216,-6.5385
-1.9497,0.69841,-1.9417,11.65,-4.5528,4.2949,15.459,6.9872,-7.7939,11.65,-4.5528,7.8818,-3.1746,-3.8915,-5.6508,-8.3333,-9.0177,4.359,-5.6508,2.6144,-4.6154
-1.3208,0.06349,-1.2945,14.239,-3.9024,6.2179,6.4412,5.0641,-1.9968,14.239,-3.9024,7.225,-3.1746,-7.0813,-6.2857,-8.9744,-8.3736,12.051,1.3333,2.6144,-9.1026
5.5975,1.3333,2.589,12.945,16.26,11.346,1.9324,3.141,14.75,12.945,16.26,8.5386,-1.2698,-5.1675,-1.8413,-4.4872,-1.9324,9.4872,5.1429,1.9608,-10.385
5.5975,7.0476,6.4725,5.178,24.715,10.705,2.5765,19.808001,19.259001,5.178,24.715,8.5386,-2.5397,-6.4434,0.69841,1.2821,3.2206,5.641,2.6032,0.65359,-9.1026
-0.69182,8.9524,5.8252,7.767,12.358,3.0128,3.8647,10.833,10.242,7.767,12.358,5.2545,-4.4444,-6.4434,-1.2063,3.2051,2.5765,-0.12821,5.1429,-1.9608,-7.8205
0.56604,8.9524,5.8252,6.4725,9.1057,3.6538,0.64412,3.141,4.4444,6.4725,9.1057,3.9409,-1.2698,1.2121,1.3333,7.0513,3.8647,2.4359,1.3333,-0.65359,1.7949
2.4528,6.4127,5.178,-5.8252,-6.5041,4.2949,5.153,4.4231,-3.9291,-5.8252,-6.5041,3.2841,2.5397,3.126,3.2381,7.6923,5.153,5.0,-12.0,-0.65359,6.2821
4.3396,0.69841,0.0,-7.1197,-14.309,-0.19231,2.5765,-2.6282,-5.2174,-7.1197,-14.309,-3.2841,3.1746,1.8501,4.5079,3.8462,1.9324,-11.026,-9.4603,3.268,3.0769
-0.06289,-6.2857,-5.8252,-0.64725,-13.008,-7.8846,-3.8647,-5.1923,-7.1498,-0.64725,-13.008,-10.509,-0.63492,0.57416,0.06349,-1.9231,-3.2206,-11.667,7.0476,-0.65359,3.0769
-0.06289,-5.0159,-5.178,3.8835,-1.3008,-9.1667,-14.815,-5.1923,0.57971,3.8835,-1.3008,-11.823,-0.63492,1.8501,-0.57143,-1.2821,-4.5089,-3.9744,6.4127,-1.3072,3.7179
-1.9497,-5.0159,-5.8252,-3.8835,8.4553,-7.2436,-19.968,-10.962,-6.5056,-3.8835,8.4553,-10.509,-1.2698,3.126,-2.4762,-1.2821,-5.153,1.1538,0.06349,-0.65359,2.4359
-10.126,-1.2063,-5.178,-8.4142,-7.1545,-5.9615,-14.171,-3.9103,-6.5056,-8.4142,-7.1545,-7.225,-2.5397,9.5056,-6.2857,1.9231,-3.8647,-10.385,-1.2063,-2.6144,8.2051
-12.642,-0.57143,-3.8835,-22.006001,-21.462999,-4.6795,-2.5765,-3.2692,-6.5056,-22.006001,-21.462999,-1.3136,-3.1746,11.419,-7.5556,3.2051,-2.5765,-5.8974,1.9683,-4.5752,11.41
-10.126,2.6032,0.0,-10.356,-12.358,-0.83333,10.95,-1.9872,-5.2174,-10.356,-12.358,3.2841,-1.9048,8.8676,-5.6508,3.8462,0.64412,-10.385,11.492,-6.5359,10.769
-3.8365,9.5873,6.4725,-10.356,1.3008,5.5769,16.103001,-5.1923,-1.3527,-10.356,1.3008,7.8818,4.4444,12.057,-0.57143,10.256,5.7971,-5.2564,-2.4762,-3.268,17.820999
3.7107,10.857,12.298,0.64725,12.358,6.859,9.6618,-11.603,7.6651,0.64725,12.358,11.166,7.619,12.057,5.1429,12.179,9.6618,-13.59,-6.9206,0.65359,12.692
4.9686,5.7778,12.298,18.122999,11.707,4.2949,1.9324,-10.321,5.0886,18.122999,11.707,10.509,9.5238,9.5056,8.3175,8.3333,10.95,-4.6154,-0.57143,3.9216,0.51282
10.0,7.6825,14.239,12.945,5.8537,5.5769,5.153,-5.8333,5.7327,12.945,5.8537,11.823,15.238,10.781,13.397,9.6154,12.882,8.2051,3.2381,12.418,2.4359
14.403,10.222,14.887,8.4142,7.1545,9.4231,10.95,-3.9103,3.8003,8.4142,7.1545,15.107,14.603,3.126,15.302,7.6923,10.95,-3.3333,0.06349,15.686,-0.76923
13.145,9.5873,12.298,-4.5307,11.707,8.141,11.594,5.0641,6.3768,-4.5307,11.707,13.136,8.8889,-4.5295,12.127,4.4872,6.4412,-11.667,-6.9206,15.033,-5.2564
7.4843,10.857,12.298,4.5307,11.707,4.9359,12.882,-0.70513,12.174,4.5307,11.707,10.509,5.0794,-2.6156,8.3175,5.1282,5.7971,3.7179,5.7778,12.418,-2.0513
7.4843,7.0476,11.003,8.4142,5.8537,4.9359,8.3736,-10.321,9.5974,8.4142,5.8537,8.5386,1.9048,-4.5295,7.0476,3.8462,5.7971,-4.6154,13.397,5.2288,-2.6923
5.5975,4.5079,7.767,-10.356,-3.9024,5.5769,1.9324,-8.3974,7.0209,-10.356,-3.9024,3.9409,1.9048,-3.2536,7.6825,5.1282,7.7295,-1.4103,3.873,2.6144,-2.0513
3.7107,6.4127,5.8252,-9.7087,-8.4553,1.7308,3.8647,-0.0641,-6.5056,-9.7087,-8.4553,1.9704,4.4444,3.126,8.3175,8.3333,10.306,6.9231,1.3333,7.1895,4.359
8.1132,10.222,7.1197,1.2945,1.3008,1.7308,-0.64412,-2.6282,-9.7262,1.2945,1.3008,1.3136,10.159,10.781,13.397,13.462,14.815,9.4872,-1.2063,11.765,12.692
12.516,8.3175,6.4725,-3.8835,1.3008,3.6538,-5.7971,-5.1923,-11.014,-3.8835,1.3008,1.3136,13.333,11.419,15.302,12.179,14.815,-5.2564,1.9683,13.725,10.769
6.2264,2.6032,2.589,-1.2945,-5.8537,-0.19231,-3.2206,1.2179,-11.014,-1.2945,-5.8537,0.65681,10.794,10.781,10.222,7.0513,9.0177,-2.0513,5.7778,11.111,8.2051
2.4528,4.5079,3.2362,5.8252,-3.9024,1.7308,3.2206,2.5,-3.285,5.8252,-3.9024,3.2841,8.254,14.609,5.7778,8.3333,6.4412,16.538,-7.5556,11.111,10.769
-1.3208,4.5079,3.8835,-0.64725,-3.9024,-0.19231,1.2882,1.2179,-0.70853,-0.64725,-3.9024,2.6273,4.4444,8.8676,1.9683,8.3333,4.5089,12.051,-9.4603,8.4967,5.0
4.9686,10.222,9.0615,-7.1197,0.0,6.859,5.153,5.7051,-3.9291,-7.1197,0.0,6.5681,5.7143,7.5917,5.1429,14.103,9.0177,-0.12821,-6.9206,3.9216,5.0
13.145,14.032,12.945,-2.589,3.252,10.064,9.0177,1.859,-1.9968,-2.589,3.252,9.1954,8.254,12.057,10.857,17.948999,14.815,3.7179,-12.635,3.268,8.2051
15.031,6.4127,9.7087,1.2945,-2.6016,6.2179,4.5089,-0.0641,0.57971,1.2945,-2.6016,7.225,6.9841,8.8676,12.762,12.821,14.171,14.615,3.2381,5.8824,2.4359
18.176001,1.3333,9.0615,7.1197,-4.5528,6.2179,1.2882,1.2179,-1.9968,7.1197,-4.5528,6.5681,1.9048,-1.9777,13.397,6.4103,10.95,10.128,4.5079,5.2288,-2.6923
17.547001,1.9683,11.65,14.887,12.358,13.91,8.3736,3.7821,7.0209,14.887,12.358,11.823,1.2698,-3.8915,14.032,3.2051,10.306,-1.4103,0.06349,5.2288,-3.3333
8.1132,-1.2063,7.767,10.356,9.1057,9.4231,4.5089,6.9872,12.818,10.356,9.1057,9.1954,1.9048,-8.3573,8.9524,-3.2051,6.4412,7.5641,6.4127,3.268,-12.308
4.3396,-2.4762,2.589,7.767,8.4553,5.5769,-1.9324,5.7051,12.174,7.767,8.4553,5.9113,-1.9048,-10.909,3.873,-5.7692,2.5765,8.2051,-4.381,1.3072,-14.231
1.195,-1.2063,-0.64725,0.64725,12.358,3.0128,3.2206,-0.70513,0.57971,0.64725,12.358,4.5977,-2.5397,-10.909,0.69841,-6.4103,-1.2882,-2.6923,-5.6508,-1.9608,-11.026
-4.4654,0.06349,-3.2362,-9.0615,-6.5041,-4.0385,5.7971,-12.885,-4.5733,-9.0615,-6.5041,1.3136,-1.9048,-12.185,-3.1111,-7.6923,-5.153,-3.3333,1.9683,-3.9216,-11.667
-1.3208,3.2381,0.0,-9.0615,-18.211,-1.4744,9.0177,-9.6795,-7.1498,-9.0615,-18.211,4.5977,1.9048,-7.7193,-1.2063,-4.4872,-4.5089,-8.4615,1.9683,1.3072,-5.2564
0.56604,3.873,1.2945,-11.003,-3.252,2.3718,1.2882,-3.2692,-6.5056,-11.003,-3.252,3.9409,5.0794,1.2121,-0.57143,-0.64103,-3.8647,-12.308,3.2381,6.5359,1.7949
-0.69182,6.4127,1.9417,3.2362,8.4553,0.44872,1.9324,-7.7564,0.57971,3.2362,8.4553,3.2841,5.0794,7.5917,-1.2063,3.2051,-2.5765,8.2051,-1.2063,7.1895,6.2821
-1.9497,6.4127,0.64725,11.65,-0.65041,-4.6795,-0.64412,-8.3974,2.5121,11.65,-0.65041,-0.65681,5.0794,10.144,0.69841,6.4103,0.64412,-2.6923,-3.746,4.5752,9.4872
-0.69182,6.4127,2.589,5.8252,-5.8537,-8.5256,-5.7971,-1.9872,-2.6409,5.8252,-5.8537,-3.2841,8.254,15.885,3.873,12.821,7.7295,-1.4103,-6.9206,1.3072,17.179001
-0.06289,7.0476,6.4725,-9.0615,-1.3008,-8.5256,-4.5089,-3.9103,-6.5056,-9.0615,-1.3008,-3.2841,12.698,18.437,8.9524,16.025999,14.171,3.7179,1.3333,7.1895,15.897
2.4528,4.5079,6.4725,-14.239,-7.8049,-5.9615,-1.2882,-12.885,-20.032,-14.239,-7.8049,-3.9409,10.794,17.160999,8.9524,13.462,14.171,-12.949,0.06349,5.2288,10.769
1.195,-0.57143,2.589,1.9417,-11.057,-4.0385,-8.3736,-9.6795,-13.591,1.9417,-11.057,-6.5681,7.619,13.971,5.1429,8.9744,10.306,-25.768999,-1.8413,-1.3072,10.769
-7.6101,-5.6508,-3.8835,-15.534,-11.057,-10.449,-10.95,-13.526,-9.7262,-15.534,-11.057,-11.823,3.8095,8.2297,-1.2063,3.2051,3.8647,-5.8974,6.4127,-4.5752,8.8462
-8.8679,-4.381,-5.178,-23.948,-20.813,-11.731,-10.306,-7.7564,-7.7939,-23.948,-20.813,-12.479,3.1746,5.0399,-3.1111,2.5641,1.2882,3.7179,-3.746,-1.3072,7.5641
-5.7233,-4.381,-3.8835,-9.7087,-14.959,-7.8846,-7.0853,-5.1923,4.4444,-9.7087,-14.959,-8.5386,1.9048,2.488,-1.8413,0.64103,0.0,-0.76923,-3.1111,-0.65359,3.7179
0.56604,-4.381,0.0,1.2945,0.65041,-4.0385,-4.5089,-7.1154,3.1562,1.2945,0.65041,-3.9409,2.5397,3.126,0.06349,-0.64103,0.64412,2.4359,0.06349,0.0,1.1538
8.7421,5.1429,5.8252,0.64725,2.6016,3.0128,-3.8647,4.4231,3.1562,0.64725,2.6016,1.9704,8.8889,8.8676,8.9524,6.4103,7.7295,8.2051,-16.444,9.1503,8.2051
6.2264,-0.57143,2.589,5.178,9.1057,-0.19231,-4.5089,6.3462,-3.9291,5.178,9.1057,-1.3136,10.159,5.0399,8.9524,1.2821,6.4412,17.179001,-2.4762,15.033,3.7179
3.7107,-11.365,-3.8835,5.8252,5.8537,-1.4744,-9.0177,6.3462,-8.438,5.8252,5.8537,-7.8818,6.9841,-1.3397,5.1429,-7.6923,0.0,-0.76923,10.222,11.765,-7.8205
1.195,-10.095,-5.8252,-3.8835,-5.2033,-2.7564,0.0,5.0641,-1.9968,-3.8835,-5.2033,-5.2545,4.4444,-3.8915,1.9683,-9.6154,-4.5089,-5.8974,7.6825,8.4967,-7.1795
1.8239,-7.5556,-5.178,-7.767,-7.1545,6.2179,3.2206,-12.885,3.1562,-7.767,-7.1545,-0.65681,1.9048,-4.5295,-0.57143,-9.6154,-7.0853,19.743999,0.69841,2.6144,-5.2564
6.8553,-6.2857,-1.2945,0.0,-10.407,6.859,8.3736,12.756,1.868,0.0,-10.407,3.9409,-0.63492,-5.1675,0.06349,-8.9744,-6.4412,31.282,1.3333,1.3072,-4.6154
6.2264,-3.1111,-0.64725,10.356,1.3008,0.44872,2.5765,27.5,9.5974,10.356,1.3008,3.2841,-0.63492,-3.8915,2.6032,-5.1282,-3.8647,20.385,1.3333,3.268,-2.6923
7.4843,2.6032,1.2945,4.5307,16.26,4.9359,0.0,12.115,13.462,4.5307,16.26,4.5977,-1.2698,-2.6156,3.873,0.64103,-0.64412,-3.3333,-6.2857,-1.3072,-0.12821
2.4528,7.0476,1.9417,1.9417,12.358,1.7308,-0.64412,13.397,7.6651,1.9417,12.358,2.6273,-1.9048,-0.0638,3.2381,6.4103,1.9324,8.8462,-1.2063,-3.268,5.641
-0.06289,5.1429,0.64725,13.592,3.252,-2.1154,-1.9324,9.5513,-6.5056,13.592,3.252,-1.3136,-3.1746,5.0399,1.3333,8.3333,3.8647,-11.667,0.06349,-5.2288,7.5641
-3.2075,3.873,1.2945,2.589,-5.2033,-7.8846,4.5089,3.141,-3.285,2.589,-5.2033,-1.9704,-2.5397,6.9537,1.3333,9.6154,6.4412,-4.6154,11.492,-8.4967,5.0
-6.3522,3.873,0.64725,-4.5307,-7.1545,-9.8077,5.153,-28.268999,1.2238,-4.5307,-7.1545,-2.6273,0.0,5.6778,1.3333,8.9744,8.3736,17.820999,19.746,-7.8431,6.9231
-1.9497,-1.2063,-1.9417,-3.2362,1.3008,-5.9615,-3.2206,-15.449,1.2238,-3.2362,1.3008,-6.5681,-5.0794,-3.8915,0.69841,1.9231,3.2206,-3.3333,3.873,-10.458,3.0769
2.4528,-5.6508,-3.2362,0.64725,3.9024,-3.3974,-7.0853,16.603001,4.4444,0.64725,3.9024,-5.2545,-4.4444,-6.4434,0.06349,-4.4872,-1.2882,3.0769,0.06349,-5.2288,1.1538
-5.7233,-12.635,-9.0615,3.2362,-3.9024,-6.6026,-12.882,16.603001,5.0886,3.2362,-3.9024,-6.5681,-7.619,-12.185,-8.1905,-14.744,-11.594,12.051,-0.57143,-5.8824,-5.8974
-9.4969,-11.365,-11.65,-1.2945,0.65041,-7.2436,-9.6618,5.0641,1.868,-1.2945,0.65041,-7.225,-8.254,-14.099,-12.635,-16.667,-16.747,-5.2564,-8.8254,-7.8431,-8.4615
-6.9811,-11.365,-12.298,-3.8835,1.3008,-6.6026,-3.8647,10.192,-3.9291,-3.8835,1.3008,-5.9113,-5.0794,-12.185,-10.73,-17.308001,-17.391001,-9.1026,-4.381,-3.268,-11.026
-9.4969,-13.27,-13.592,-9.0615,-6.5041,-3.3974,0.64412,4.4231,-7.7939,-9.0615,-6.5041,-4.5977,-6.3492,-16.013,-12.635,-21.153999,-19.968,0.51282,3.2381,-1.3072,-18.077
-7.6101,-7.5556,-9.0615,2.589,-1.3008,3.6538,9.0177,6.9872,-3.9291,2.589,-1.3008,0.65681,-3.1746,-9.6332,-11.365,-16.667,-16.747,17.179001,-6.2857,-1.3072,-12.949
-0.69182,1.3333,-2.589,21.358999,11.707,10.064,14.171,1.859,3.8003,21.358999,11.707,6.5681,-4.4444,-8.3573,-7.5556,-8.9744,-10.95,22.308001,-14.54,-3.9216,-7.1795
3.7107,-1.8413,-0.64725,3.8835,16.26,8.7821,3.2206,2.5,15.395,3.8835,16.26,5.9113,-6.9841,-9.6332,-4.381,-8.3333,-7.0853,10.769,1.9683,-4.5752,-10.385
8.1132,3.2381,5.178,4.5307,0.65041,5.5769,-1.9324,15.321,17.971001,4.5307,0.65041,5.9113,0.0,0.57416,3.873,0.64103,2.5765,-0.76923,7.6825,1.9608,-2.6923
10.0,5.7778,7.767,1.9417,6.5041,1.0897,2.5765,13.397,4.4444,1.9417,6.5041,1.9704,2.5397,5.6778,8.3175,7.0513,8.3736,-19.358999,8.3175,3.9216,7.5641
-3.2075,-0.57143,-2.589,0.0,4.5528,-11.09,-9.6618,-3.2692,-3.9291,0.0,4.5528,-11.823,-2.5397,3.126,0.69841,4.4872,3.2206,-6.5385,1.3333,-3.9216,8.8462
-5.7233,-2.4762,-6.4725,9.7087,0.0,-11.731,-9.0177,-3.9103,-3.285,9.7087,0.0,-13.136,-0.63492,6.3158,-1.2063,3.8462,1.9324,10.769,3.873,-3.268,10.128
-3.8365,-2.4762,-3.8835,-3.8835,-4.5528,-6.6026,-2.5765,-5.8333,2.5121,-3.8835,-4.5528,-8.5386,0.63492,8.8676,-0.57143,4.4872,1.9324,-2.6923,1.3333,-3.268,10.769
-0.69182,-0.57143,1.2945,-7.1197,-3.9024,-3.3974,0.0,1.859,3.8003,-7.1197,-3.9024,-1.3136,1.9048,6.3158,2.6032,5.7692,4.5089,1.7949,-2.4762,3.9216,5.0
4.3396,3.2381,6.4725,-3.8835,-5.2033,-0.83333,0.64412,-1.9872,-0.06441,-3.8835,-5.2033,2.6273,6.9841,5.0399,7.6825,8.9744,9.6618,-2.6923,3.873,3.268,1.1538
10.0,3.2381,9.7087,-0.64725,-1.9512,1.0897,-3.2206,-3.9103,-4.5733,-0.64725,-1.9512,1.9704,10.159,6.9537,12.127,10.256,12.882,-12.949,1.3333,3.9216,3.0769
5.5975,4.5079,8.4142,8.4142,4.5528,3.0128,-0.64412,4.4231,-10.37,8.4142,4.5528,1.9704,10.159,6.9537,9.5873,9.6154,12.238,-11.026,-9.4603,3.268,5.0
2.4528,5.1429,5.8252,-1.9417,-1.9512,6.859,0.0,3.141,-11.014,-1.9417,-1.9512,4.5977,5.0794,0.57416,5.7778,7.0513,7.7295,1.7949,-11.365,0.65359,1.7949
0.56604,-0.57143,2.589,1.9417,2.6016,5.5769,-1.9324,6.9872,-3.9291,1.9417,2.6016,3.2841,2.5397,-4.5295,2.6032,0.0,3.2206,5.641,5.1429,0.0,-8.4615
-6.9811,-3.1111,-2.589,-5.8252,-1.9512,-1.4744,-2.5765,-1.9872,-1.3527,-5.8252,-1.9512,-1.3136,-1.9048,-1.3397,-3.746,-2.5641,-1.2882,-0.76923,9.5873,-9.1503,-6.5385
-9.4969,-4.381,-5.8252,2.589,-0.65041,-5.9615,-2.5765,-3.9103,8.3092,2.589,-0.65041,-3.2841,-5.7143,-1.9777,-7.5556,-4.4872,-5.153,-0.76923,0.69841,-10.458,-4.6154
-6.3522,-5.6508,-5.8252,11.003,10.407,-4.0385,-4.5089,5.0641,5.0886,11.003,10.407,-3.2841,-5.0794,-2.6156,-6.2857,-4.4872,-4.5089,-12.308,-1.2063,-5.8824,-5.8974
-1.9497,-1.2063,-1.9417,5.8252,-1.9512,-1.4744,1.9324,1.859,1.2238,5.8252,-1.9512,0.65681,-1.2698,3.764,-2.4762,-1.2821,-1.9324,-8.4615,-3.1111,-1.9608,-0.12821
-1.9497,-0.57143,-1.2945,0.0,-6.5041,1.7308,7.0853,-28.268999,8.3092,0.0,-6.5041,1.9704,-2.5397,0.57416,-2.4762,-3.2051,-3.8647,3.7179,0.69841,-0.65359,-2.0513
4.3396,0.06349,0.64725,11.65,3.252,5.5769,7.0853,-2.6282,11.53,11.65,3.252,3.9409,-1.2698,-0.0638,1.3333,-2.5641,-3.2206,-0.12821,5.7778,4.5752,-0.76923
2.4528,1.3333,-1.9417,-7.1197,-0.65041,2.3718,6.4412,14.038,-1.3527,-7.1197,-0.65041,0.65681,-1.2698,-3.2536,1.9683,-3.8462,-4.5089,-0.12821,-4.381,9.8039,-5.2564
-5.7233,-6.9206,-9.0615,-15.534,0.65041,-7.2436,-5.153,4.4231,-1.9968,-15.534,0.65041,-5.9113,-6.9841,-8.3573,-6.2857,-10.256,-9.6618,8.2051,0.69841,1.9608,-8.4615
-1.3208,-6.9206,-7.1197,5.8252,5.2033,-4.0385,-12.238,0.57692,-1.3527,5.8252,5.2033,-7.225,-6.9841,-4.5295,-5.6508,-7.6923,-8.3736,4.359,0.06349,-2.6144,-2.0513
-0.06289,-5.0159,-4.5307,0.0,3.9024,-2.1154,-7.0853,-0.0641,5.0886,0.0,3.9024,-5.2545,-5.0794,-5.1675,-4.381,-7.0513,-6.4412,-2.6923,5.7778,-1.3072,-0.76923
-1.9497,-3.746,-2.589,-8.4142,-8.4553,-0.19231,-4.5089,-9.0385,-0.70853,-8.4142,-8.4553,-2.6273,-1.2698,-3.8915,-2.4762,-5.7692,-3.8647,-12.308,10.857,1.3072,-3.3333
-5.7233,-1.2063,-3.2362,-0.64725,-13.008,-4.6795,5.7971,-3.9103,-8.438,-0.64725,-13.008,-3.2841,-0.63492,-1.3397,-3.746,-3.2051,-2.5765,-8.4615,-3.1111,0.65359,-0.76923
-10.126,-3.1111,-7.1197,-1.9417,-4.5528,-10.449,0.0,-4.5513,-5.8615,-1.9417,-4.5528,-7.8818,-2.5397,-1.3397,-6.9206,-3.8462,-4.5089,-3.9744,1.9683,-5.2288,1.1538
-12.013,-6.2857,-10.356,0.0,-9.1057,-15.577,-13.527,-2.6282,-3.9291,0.0,-9.1057,-13.136,-5.7143,-1.9777,-8.8254,-4.4872,-7.0853,3.0769,-6.2857,-7.8431,5.0
-12.013,-3.746,-7.767,-3.8835,-3.9024,-17.5,-14.171,-11.603,-5.2174,-3.8835,-3.9024,-13.136,-5.7143,-0.70175,-8.1905,-3.8462,-5.7971,5.0,-17.714001,-5.8824,5.0
-10.126,-5.6508,-6.4725,-19.417,-5.2033,-12.372,-9.6618,-21.858999,-1.3527,-19.417,-5.2033,-11.166,-5.0794,2.488,-8.1905,-5.7692,-5.7971,-15.513,2.6032,-7.8431,1.1538
-13.27,-7.5556,-9.0615,-27.184,-9.7561,-12.372,-7.7295,-18.013,-1.9968,-27.184,-9.7561,-10.509,-3.1746,4.4019,-10.73,-6.4103,-8.3736,-16.795,12.127,-7.8431,1.7949
-13.27,-8.8254,-9.0615,-14.887,-11.707,-10.449,-5.153,-1.9872,-0.06441,-14.887,-11.707,-8.5386,-3.8095,1.8501,-12.0,-7.6923,-10.306,-20.0,3.2381,-5.8824,-1.4103
-9.4969,-5.6508,-4.5307,1.2945,-9.1057,-3.3974,8.3736,-1.9872,-3.285,1.2945,-9.1057,0.65681,-6.3492,-3.8915,-12.0,-7.6923,-10.306,-12.308,1.3333,-6.5359,-4.6154
-1.9497,5.1429,2.589,15.534,5.2033,6.2179,11.594,2.5,3.8003,15.534,5.2033,9.1954,-0.63492,1.8501,-5.6508,1.2821,-3.8647,-5.8974,-7.5556,-0.65359,6.2821
5.5975,3.873,4.5307,18.122999,11.707,8.7821,5.7971,7.6282,15.395,18.122999,11.707,9.8522,2.5397,1.8501,-0.57143,1.2821,-1.2882,-8.4615,7.0476,2.6144,3.0769
4.3396,3.873,5.178,5.8252,11.707,9.4231,3.8647,13.397,12.818,5.8252,11.707,8.5386,0.0,0.57416,-0.57143,1.9231,0.64412,5.641,14.667,0.0,-0.12821
1.195,8.3175,5.8252,-3.8835,9.7561,5.5769,10.95,3.141,4.4444,-3.8835,9.7561,7.225,-1.9048,-1.9777,-0.57143,3.8462,1.9324,16.538,7.0476,-2.6144,1.7949
3.0818,14.032,8.4142,-14.887,1.3008,5.5769,14.815,-6.4744,1.2238,-14.887,1.3008,7.8818,-1.2698,-1.9777,3.2381,7.6923,5.7971,17.179001,2.6032,0.0,0.51282
5.5975,8.9524,6.4725,1.2945,1.9512,6.2179,6.4412,6.9872,4.4444,1.2945,1.9512,5.9113,1.2698,-1.3397,4.5079,5.1282,4.5089,2.4359,5.1429,5.2288,-1.4103
3.7107,1.3333,2.589,21.358999,5.8537,6.859,-1.2882,6.3462,10.886,21.358999,5.8537,3.2841,-4.4444,-5.1675,0.69841,-0.64103,-0.64412,1.1538,13.397,1.3072,-3.9744
6.2264,3.2381,2.589,17.476,-1.9512,5.5769,3.2206,4.4231,12.174,17.476,-1.9512,4.5977,-4.4444,-5.1675,0.69841,-0.64103,-1.9324,1.7949,8.9524,0.65359,-2.6923
5.5975,1.9683,1.2945,5.178,1.3008,4.2949,6.4412,-17.372,7.0209,5.178,1.3008,3.9409,-5.0794,-5.1675,0.06349,-2.5641,-4.5089,-1.4103,0.69841,1.3072,-2.0513
6.2264,1.9683,1.9417,-9.0615,12.358,8.7821,7.0853,-9.0385,2.5121,-9.0615,12.358,5.2545,-5.0794,-4.5295,0.69841,-1.9231,-3.8647,-24.487,-5.0159,0.65359,-0.12821
6.2264,5.1429,4.5307,-12.945,6.5041,6.859,4.5089,9.5513,-1.3527,-12.945,6.5041,6.5681,-2.5397,2.488,1.9683,3.2051,0.64412,0.51282,-6.9206,-1.9608,6.9231
-1.9497,-2.4762,-1.2945,-8.4142,-3.9024,-1.4744,-4.5089,14.038,-8.438,-8.4142,-3.9024,-1.3136,-5.0794,-1.3397,-2.4762,-1.2821,-2.5765,22.308001,1.3333,-3.9216,3.7179
-2.5786,-2.4762,-3.8835,12.298,-8.4553,-2.1154,0.0,-0.70513,-14.879,12.298,-8.4553,-4.5977,-3.1746,-4.5295,-1.8413,-1.9231,-2.5765,16.538,-3.1111,1.9608,-2.0513
-3.8365,-3.1111,-6.4725,14.239,-8.4553,-5.9615,-5.7971,-0.0641,-9.0821,14.239,-8.4553,-7.225,0.0,-0.0638,-2.4762,-0.64103,-3.2206,-0.76923,5.1429,0.65359,0.51282
-8.8679,-9.4603,-11.65,4.5307,7.1545,-9.8077,-16.103001,-6.4744,7.0209,4.5307,7.1545,-10.509,-2.5397,-1.3397,-6.9206,-5.1282,-6.4412,-7.8205,5.7778,-3.268,-2.0513
-13.27,-8.1905,-12.945,-3.8835,5.8537,-12.372,-9.0177,-8.3974,7.0209,-3.8835,5.8537,-11.166,-3.8095,-4.5295,-9.4603,-6.4103,-9.0177,-12.308,-3.1111,-3.9216,-4.6154
-13.27,-5.6508,-10.356,-22.006001,-5.2033,-6.6026,1.2882,-3.2692,2.5121,-22.006001,-5.2033,-3.9409,-4.4444,-7.0813,-12.0,-7.0513,-11.594,-14.231,5.7778,-2.6144,-4.6154
-12.013,-1.8413,-7.1197,-22.653999,0.0,1.0897,3.8647,3.141,5.7327,-22.653999,0.0,1.3136,-6.9841,-8.9952,-14.54,-6.4103,-12.882,-9.7436,6.4127,-3.268,-3.9744
-10.755,0.69841,-5.178,4.5307,1.9512,-3.3974,6.4412,-1.3462,6.3768,4.5307,1.9512,1.9704,-12.063,-11.547,-15.175,-6.4103,-13.527,-1.4103,8.9524,-6.5359,-4.6154
-3.8365,2.6032,-2.589,20.712,3.9024,-4.0385,5.153,0.57692,8.9533,20.712,3.9024,-0.65681,-10.159,-7.7193,-9.4603,-3.8462,-9.6618,-6.5385,10.222,-5.8824,-2.6923
0.56604,3.2381,-1.9417,10.356,1.3008,-1.4744,-2.5765,3.141,5.0886,10.356,1.3008,-2.6273,-9.5238,-4.5295,-6.2857,-0.64103,-5.7971,6.2821,-10.095,-7.8431,2.4359
-0.06289,2.6032,-2.589,4.5307,10.407,-2.7564,-5.153,5.7051,-3.9291,4.5307,10.407,-5.9113,-8.254,-3.2536,-3.1111,0.0,-2.5765,6.9231,-11.365,-11.111,1.1538
0.56604,-6.2857,-3.8835,0.64725,1.9512,-2.7564,-2.5765,6.3462,0.57971,0.64725,1.9512,-5.2545,-6.9841,-6.4434,-1.2063,-6.4103,-2.5765,6.2821,8.9524,-9.8039,-5.8974
1.195,-12.0,-5.178,-9.0615,-13.008,-1.4744,-9.0177,3.141,1.868,-9.0615,-13.008,-3.9409,-5.7143,-9.6332,0.06349,-11.538,-3.8647,8.2051,10.222,-5.8824,-9.1026
3.7107,-8.8254,-3.8835,-3.8835,4.5528,1.0897,-7.7295,1.2179,1.2238,-3.8835,4.5528,-2.6273,-5.7143,-8.3573,1.9683,-9.6154,-3.8647,3.7179,-3.1111,-3.268,-7.8205
2.4528,-11.365,-5.8252,-3.2362,-1.9512,-3.3974,-8.3736,-1.3462,1.868,-3.2362,-1.9512,-5.9113,-5.7143,-8.3573,0.06349,-11.538,-6.4412,9.4872,-6.9206,1.3072,-6.5385
4.3396,-8.1905,-3.2362,4.5307,-1.9512,3.6538,-3.2206,16.603001,-5.8615,4.5307,-1.9512,-0.65681,-3.8095,-7.7193,0.69841,-8.9744,-5.7971,-0.12821,-5.0159,4.5752,-6.5385
1.8239,-8.8254,-5.178,12.298,-0.65041,3.0128,-2.5765,8.2692,-18.1,12.298,-0.65041,-1.9704,-3.8095,-7.0813,-2.4762,-9.6154,-7.7295,1.7949,0.06349,1.3072,-9.1026
-5.0943,-10.095,-8.4142,0.64725,-9.7561,-4.6795,-10.95,-8.3974,-11.659,0.64725,-9.7561,-6.5681,-4.4444,-8.3573,-6.2857,-10.897,-10.306,-0.12821,-17.079,-2.6144,-9.1026
-1.3208,-2.4762,-3.8835,-3.8835,-1.3008,-3.3974,-6.4412,-2.6282,-8.438,-3.8835,-1.3008,-1.9704,1.2698,-2.6156,-1.2063,-5.1282,-5.7971,6.2821,-15.81,1.9608,-3.9744
0.56604,-5.0159,-1.9417,-10.356,-5.2033,2.3718,-2.5765,3.7821,-16.167,-10.356,-5.2033,0.65681,3.8095,-3.2536,-0.57143,-6.4103,-4.5089,11.41,-4.381,6.5359,-9.1026
7.4843,0.06349,4.5307,-0.64725,-1.3008,6.2179,3.2206,0.57692,-6.5056,-0.64725,-1.3008,5.2545,10.794,0.57416,6.4127,0.0,2.5765,16.538,-6.2857,14.379,-7.1795
9.3711,7.0476,9.7087,14.239,0.65041,4.9359,7.0853,1.2179,5.0886,14.239,0.65041,7.225,13.333,3.764,10.222,6.4103,8.3736,10.769,1.3333,15.033,-2.6923
1.195,3.2381,5.8252,-4.5307,1.9512,0.44872,2.5765,-7.1154,6.3768,-4.5307,1.9512,1.9704,8.254,1.8501,5.1429,4.4872,7.0853,5.641,5.7778,8.4967,-2.0513
-3.2075,5.1429,3.8835,-6.4725,1.3008,-0.83333,1.9324,-8.3974,1.868,-6.4725,1.3008,0.0,6.3492,5.6778,2.6032,6.4103,6.4412,-17.436001,-2.4762,4.5752,3.7179
-5.7233,-0.57143,-0.64725,-0.64725,3.252,-4.0385,-6.4412,-0.70513,-1.3527,-0.64725,3.252,-3.2841,3.1746,3.764,-1.2063,1.9231,2.5765,-17.436001,0.69841,-0.65359,2.4359
-4.4654,-5.0159,-3.8835,0.64725,3.252,-2.7564,-12.238,-5.1923,-5.8615,0.64725,3.252,-6.5681,0.0,2.488,-1.8413,-1.9231,0.0,-5.8974,-3.746,-5.8824,2.4359
-6.3522,-5.0159,-5.8252,-5.8252,-5.2033,-10.449,-5.153,-7.7564,-5.8615,-5.8252,-5.2033,-9.1954,-1.2698,3.126,-3.1111,-3.2051,-1.2882,-2.6923,-10.095,-8.4967,3.0769
-1.9497,-1.8413,-1.2945,-15.534,-10.407,-7.2436,0.0,-5.8333,-1.3527,-15.534,-10.407,-4.5977,3.1746,8.2297,0.06349,0.64103,1.2882,-9.1026,-11.365,-4.5752,10.128
1.195,2.6032,1.9417,-1.2945,-11.707,0.44872,3.2206,-7.7564,-6.5056,-1.2945,-11.707,1.9704,4.4444,5.0399,1.3333,2.5641,3.2206,-9.1026,-3.746,-1.9608,5.0
-3.2075,-1.2063,-0.64725,-0.64725,-4.5528,-2.1154,-0.64412,-7.1154,-15.523,-0.64725,-4.5528,-1.9704,0.0,-1.9777,-2.4762,-1.9231,-0.64412,-4.6154,3.873,-6.5359,-5.2564
-1.3208,4.5079,1.2945,-5.8252,2.6016,-2.1154,-5.7971,-8.3974,-3.9291,-5.8252,2.6016,-4.5977,3.1746,2.488,1.9683,5.7692,5.153,-2.6923,-6.2857,-4.5752,-0.12821
2.4528,5.1429,3.8835,-2.589,-4.5528,-2.1154,-4.5089,2.5,-3.285,-2.589,-4.5528,-3.2841,6.9841,4.4019,7.6825,8.9744,10.95,-1.4103,-3.746,2.6144,-0.76923
7.4843,4.5079,5.8252,2.589,-10.407,1.0897,4.5089,3.7821,-9.0821,2.589,-10.407,1.3136,8.254,6.9537,11.492,9.6154,12.882,-7.1795,4.5079,6.5359,-0.12821
7.4843,4.5079,7.1197,7.1197,0.65041,5.5769,4.5089,-0.70513,-1.9968,7.1197,0.65041,5.2545,8.254,8.2297,10.857,9.6154,11.594,10.128,-1.8413,4.5752,2.4359
6.2264,7.6825,8.4142,-9.0615,8.4553,8.7821,3.8647,3.7821,2.5121,-9.0615,8.4553,7.225,7.619,9.5056,8.3175,10.256,9.6618,14.615,-8.1905,2.6144,6.2821
8.1132,8.3175,7.767,-7.1197,7.1545,8.141,8.3736,1.2179,-1.9968,-7.1197,7.1545,5.2545,5.0794,7.5917,6.4127,9.6154,8.3736,1.1538,-6.9206,3.268,9.4872
1.195,1.3333,1.2945,7.1197,-0.65041,-4.0385,-5.7971,-3.9103,-4.5733,7.1197,-0.65041,-4.5977,2.5397,6.3158,3.2381,6.4103,5.153,1.1538,-3.746,3.268,6.9231
-2.5786,-1.2063,-3.2362,-17.476,-7.1545,-6.6026,-10.95,-6.4744,4.4444,-17.476,-7.1545,-6.5681,2.5397,6.9537,0.06349,4.4872,2.5765,-9.1026,5.7778,3.268,5.0
-3.2075,3.2381,-1.2945,-11.65,-16.26,-5.9615,-2.5765,-9.0385,7.6651,-11.65,-16.26,-3.2841,2.5397,10.781,0.69841,7.0513,3.8647,-14.231,10.222,2.6144,8.8462
-1.9497,4.5079,0.64725,8.4142,-6.5041,-2.7564,1.9324,-4.5513,3.1562,8.4142,-6.5041,-1.9704,3.8095,9.5056,3.2381,7.0513,5.153,-3.3333,5.7778,7.8431,8.8462
1.195,5.7778,1.2945,5.178,-6.5041,-1.4744,0.64412,-3.2692,-7.7939,5.178,-6.5041,-3.2841,4.4444,7.5917,5.1429,7.0513,6.4412,3.0769,4.5079,7.1895,8.2051
6.8553,10.857,6.4725,-5.178,3.252,3.6538,6.4412,-1.3462,-8.438,-5.178,3.252,3.2841,10.159,12.057,10.222,10.897,11.594,4.359,-3.746,8.4967,8.8462
10.0,7.0476,7.1197,-11.003,6.5041,7.5,5.153,-2.6282,0.57971,-11.003,6.5041,4.5977,8.8889,8.8676,11.492,8.9744,11.594,-18.718,-1.8413,7.1895,7.5641
6.8553,1.9683,3.8835,-2.589,-2.6016,0.44872,1.9324,-4.5513,6.3768,-2.589,-2.6016,1.9704,3.8095,5.6778,7.0476,6.4103,7.7295,-3.3333,4.5079,3.9216,7.5641
1.8239,3.873,3.8835,-3.2362,1.9512,-2.7564,1.9324,-0.70513,-7.1498,-3.2362,1.9512,1.9704,5.0794,8.8676,4.5079,7.6923,6.4412,13.974,1.3333,3.268,7.5641
3.7107,8.9524,6.4725,12.298,7.1545,3.6538,7.0853,-0.70513,-4.5733,12.298,7.1545,5.9113,2.5397,8.8676,3.873,10.256,7.7295,8.8462,3.2381,5.2288,8.2051
0.56604,8.9524,3.2362,9.7087,-3.252,1.7308,8.3736,-3.2692,5.0886,9.7087,-3.252,1.9704,-3.1746,2.488,1.3333,7.6923,3.2206,6.9231,5.1429,2.6144,5.641
-1.3208,0.69841,-1.9417,-1.9417,-9.7561,-0.83333,4.5089,5.0641,2.5121,-1.9417,-9.7561,0.0,-5.0794,-2.6156,-0.57143,1.2821,-1.9324,8.2051,3.2381,3.268,-1.4103
3.7107,0.06349,0.0,7.1197,3.9024,0.44872,5.7971,7.6282,8.3092,7.1197,3.9024,1.9704,-3.8095,-2.6156,1.9683,0.64103,-0.64412,-12.308,1.9683,1.3072,-4.6154
6.2264,-0.57143,0.64725,-1.9417,16.910999,2.3718,-4.5089,4.4231,14.106,-1.9417,16.910999,0.0,-3.1746,-3.8915,3.2381,0.64103,0.0,-13.59,0.06349,3.268,-3.9744
4.3396,-5.0159,-1.9417,-0.64725,8.4553,-2.1154,-5.7971,1.859,0.57971,-0.64725,8.4553,-4.5977,-6.3492,-8.3573,0.06349,-4.4872,-3.8647,5.0,-0.57143,0.0,-3.9744
4.3396,-2.4762,-0.64725,-4.5307,1.9512,-0.83333,0.0,3.7821,1.2238,-4.5307,1.9512,-1.3136,-3.8095,-5.8054,1.9683,-3.2051,-1.2882,13.974,-8.8254,-0.65359,-4.6154
4.3396,3.2381,1.9417,9.7087,3.252,2.3718,7.0853,2.5,-0.70853,9.7087,3.252,3.9409,1.9048,-0.70175,4.5079,1.2821,3.2206,16.538,-10.73,3.268,-0.12821
-3.2075,0.06349,-1.9417,14.887,-5.8537,-0.83333,3.2206,-3.2692,-0.70853,14.887,-5.8537,0.0,2.5397,0.57416,0.69841,0.64103,1.2882,11.41,-1.2063,-0.65359,-0.12821
-6.9811,-3.746,-5.178,-11.003,-3.252,-2.1154,-4.5089,-4.5513,5.0886,-11.003,-3.252,-3.2841,-0.63492,0.57416,-3.746,-1.2821,-1.2882,2.4359,12.127,-0.65359,-1.4103
-1.9497,7.0476,1.2945,1.9417,3.9024,-0.83333,7.0853,2.5,6.3768,1.9417,3.9024,0.0,3.1746,4.4019,0.69841,5.7692,2.5765,-16.153999,9.5873,5.2288,4.359
-1.9497,5.7778,1.9417,12.298,7.1545,0.44872,5.153,-1.3462,-4.5733,12.298,7.1545,0.0,3.8095,3.126,-1.2063,5.1282,1.2882,-11.667,-1.8413,3.9216,2.4359
-5.7233,0.06349,-3.2362,-7.1197,-5.2033,-4.0385,-7.7295,-9.0385,-7.1498,-7.1197,-5.2033,-3.2841,-1.2698,-1.9777,-5.0159,1.2821,-2.5765,9.4872,-3.746,-2.6144,-0.76923
1.195,-1.8413,-2.589,-22.006001,-3.9024,-1.4744,-9.6618,-10.962,-2.6409,-22.006001,-3.9024,-3.2841,-3.8095,-3.8915,-3.1111,0.64103,-2.5765,-20.0,-4.381,-7.1895,-4.6154
0.56604,-1.8413,0.0,-7.767,-11.707,1.0897,-5.153,-1.9872,-1.9968,-7.767,-11.707,-1.9704,-0.63492,-0.70175,-1.2063,1.2821,0.64412,0.51282,-5.0159,-5.8824,-3.3333
-2.5786,-0.57143,0.0,5.178,-10.407,-1.4744,0.64412,-1.9872,-6.5056,5.178,-10.407,-2.6273,1.2698,0.57416,0.06349,2.5641,1.9324,16.538,-9.4603,0.0,-1.4103
-0.69182,-3.746,-1.9417,5.8252,3.252,-0.19231,-6.4412,4.4231,-9.0821,5.8252,3.252,-5.2545,0.63492,-2.6156,0.06349,-0.64103,0.64412,3.0769,-9.4603,-0.65359,-2.0513
-1.9497,-2.4762,-1.2945,12.298,3.252,0.44872,-8.3736,6.3462,-0.70853,12.298,3.252,-3.9409,0.63492,-4.5295,-0.57143,-0.64103,0.0,0.51282,-10.095,1.3072,0.51282
-3.2075,-3.1111,-0.64725,12.945,6.5041,0.44872,-1.2882,6.9872,-0.70853,12.945,6.5041,0.65681,1.9048,-6.4434,-1.2063,-3.8462,-1.9324,-5.2564,-0.57143,0.0,-5.8974
-0.69182,-3.1111,1.9417,1.9417,5.2033,5.5769,6.4412,5.0641,3.1562,1.9417,5.2033,6.5681,1.9048,-5.8054,-0.57143,-5.7692,-2.5765,3.7179,3.873,3.9216,-11.667
4.9686,5.1429,7.1197,-9.0615,0.65041,13.91,12.882,8.2692,4.4444,-9.0615,0.65041,14.45,2.5397,-0.0638,3.2381,0.64103,1.9324,10.128,0.69841,6.5359,-2.0513
4.3396,3.2381,5.178,2.589,1.9512,11.346,7.0853,5.0641,7.0209,2.589,1.9512,10.509,1.9048,-1.9777,3.873,0.0,1.2882,6.2821,0.06349,3.9216,-4.6154
3.0818,0.69841,3.2362,16.181,7.1545,5.5769,5.153,6.9872,1.868,16.181,7.1545,6.5681,2.5397,-1.3397,3.2381,-1.2821,1.9324,10.769,-3.1111,3.9216,-6.5385
4.9686,5.1429,5.8252,15.534,7.1545,3.6538,3.2206,12.115,-6.5056,15.534,7.1545,4.5977,4.4444,3.126,6.4127,3.8462,5.7971,3.0769,0.06349,5.8824,3.0769
11.258,8.9524,10.356,10.356,12.358,9.4231,8.3736,6.9872,1.2238,10.356,12.358,7.8818,4.4444,3.764,9.5873,7.6923,9.0177,-5.2564,7.0476,7.8431,6.9231
6.8553,7.6825,8.4142,-1.9417,4.5528,8.141,3.2206,0.57692,7.6651,-1.9417,4.5528,5.9113,5.0794,2.488,6.4127,6.4103,6.4412,1.1538,-1.8413,7.1895,5.0
-1.3208,4.5079,4.5307,-10.356,-4.5528,-0.19231,5.7971,-7.7564,3.8003,-10.356,-4.5528,4.5977,3.1746,2.488,0.69841,3.2051,2.5765,1.7949,-0.57143,0.65359,3.7179
1.195,7.0476,7.1197,-16.827999,-5.2033,1.7308,5.7971,-2.6282,-0.70853,-16.827999,-5.2033,6.5681,2.5397,3.126,1.3333,5.7692,4.5089,-6.5385,-3.1111,-1.9608,3.0769
6.8553,6.4127,9.0615,-1.9417,-2.6016,6.2179,3.8647,3.141,3.8003,-1.9417,-2.6016,7.225,4.4444,6.3158,4.5079,7.6923,6.4412,-4.6154,0.69841,1.3072,6.2821
-0.69182,1.9683,3.8835,5.178,-2.6016,-0.19231,1.2882,-9.6795,1.868,5.178,-2.6016,0.65681,1.2698,7.5917,0.69841,5.1282,3.2206,3.0769,7.0476,-3.9216,4.359
4.3396,5.7778,5.8252,9.0615,1.3008,1.7308,4.5089,2.5,4.4444,9.0615,1.3008,2.6273,3.8095,10.144,3.2381,8.3333,6.4412,-7.8205,1.9683,-3.268,10.128
-0.69182,1.3333,3.2362,7.767,2.6016,-0.83333,5.7971,-0.0641,-1.3527,7.767,2.6016,1.3136,3.1746,6.3158,1.3333,3.8462,4.5089,-8.4615,8.3175,-3.9216,4.359
-6.3522,-1.2063,0.64725,1.9417,1.3008,-4.0385,-0.64412,-9.6795,6.3768,1.9417,1.3008,-0.65681,0.0,1.8501,-2.4762,0.64103,2.5765,-11.667,7.0476,-3.9216,-0.76923
-0.69182,3.873,2.589,2.589,1.9512,-1.4744,0.64412,-6.4744,14.106,2.589,1.9512,1.9704,-1.9048,-0.0638,-1.2063,2.5641,1.9324,-25.128,-2.4762,-5.2288,3.0769
-0.69182,1.3333,1.2945,-5.178,5.8537,1.7308,-1.2882,-4.5513,-0.70853,-5.178,5.8537,0.0,-1.2698,-0.70175,-1.2063,0.64103,1.2882,0.51282,2.6032,-6.5359,1.7949
2.4528,1.3333,2.589,-10.356,10.407,3.0128,1.9324,-3.2692,-0.06441,-10.356,10.407,1.9704,3.1746,1.8501,2.6032,1.2821,3.2206,17.820999,3.2381,1.3072,0.51282
9.3711,6.4127,7.1197,0.64725,0.65041,6.859,9.0177,6.3462,12.174,0.64725,0.65041,7.8818,5.7143,5.6778,8.9524,5.7692,7.7295,0.51282,6.4127,6.5359,3.0769
12.516,12.762,11.003,7.767,-1.9512,4.9359,14.171,8.9103,3.1562,7.767,-1.9512,10.509,6.3492,7.5917,11.492,10.256,10.306,6.9231,-3.746,4.5752,8.8462
6.2264,8.9524,7.767,3.8835,1.3008,3.0128,7.0853,-1.3462,-0.06441,3.8835,1.3008,7.225,2.5397,6.3158,5.1429,5.7692,4.5089,-3.3333,-0.57143,-0.65359,5.0
1.8239,3.873,4.5307,13.592,15.61,4.9359,3.2206,1.859,5.0886,13.592,15.61,7.225,0.0,1.8501,-1.2063,0.64103,-1.2882,1.1538,10.222,-1.3072,1.1538
0.56604,1.3333,2.589,16.827999,11.707,4.2949,1.9324,6.9872,14.106,16.827999,11.707,5.2545,0.0,1.2121,-2.4762,-0.64103,-2.5765,6.2821,-5.0159,0.0,0.51282
-0.06289,1.3333,2.589,5.178,5.8537,6.2179,3.8647,1.859,8.3092,5.178,5.8537,7.225,-0.63492,1.2121,-4.381,-0.64103,-2.5765,7.5641,-5.0159,-2.6144,-2.0513
1.8239,0.69841,1.9417,-9.0615,3.252,4.2949,4.5089,2.5,-0.06441,-9.0615,3.252,4.5977,1.2698,-0.0638,-1.2063,-0.64103,0.0,-25.768999,10.222,-0.65359,-4.6154
-3.8365,1.9683,-0.64725,-9.7087,-9.1057,-4.0385,3.8647,-4.5513,-1.9968,-9.7087,-9.1057,0.65681,2.5397,4.4019,-1.2063,1.9231,1.2882,1.7949,5.1429,1.9608,4.359
-2.5786,5.7778,0.0,-11.65,-6.5041,-2.7564,7.0853,-0.70513,-1.3527,-11.65,-6.5041,0.65681,3.8095,3.764,0.06349,3.2051,1.9324,12.692,3.873,0.65359,4.359
-0.69182,1.9683,-1.2945,5.8252,1.3008,2.3718,2.5765,2.5,-0.06441,5.8252,1.3008,2.6273,-1.2698,-3.2536,-2.4762,-1.9231,-3.2206,2.4359,6.4127,-2.6144,-3.3333
-1.3208,1.3333,-0.64725,6.4725,0.0,0.44872,0.64412,0.57692,-0.70853,6.4725,0.0,1.3136,-5.7143,-5.8054,-3.746,-3.2051,-6.4412,-5.2564,-8.8254,-1.9608,-2.0513
4.3396,4.5079,3.8835,5.178,4.5528,3.0128,3.2206,4.4231,-0.70853,5.178,4.5528,3.2841,-1.9048,-3.2536,-0.57143,0.64103,-3.2206,5.0,-4.381,1.3072,2.4359
0.56604,-3.1111,-0.64725,2.589,6.5041,2.3718,0.64412,1.2179,-3.285,2.589,6.5041,1.9704,-3.8095,-4.5295,-4.381,-5.1282,-6.4412,1.7949,9.5873,-1.9608,-2.6923
-2.5786,-6.9206,-3.8835,3.8835,9.7561,-0.83333,-2.5765,3.7821,-1.9968,3.8835,9.7561,-0.65681,-5.0794,-1.3397,-5.6508,-6.4103,-6.4412,1.1538,3.2381,-3.9216,-2.6923
0.56604,-3.1111,-2.589,1.2945,-0.65041,1.0897,-1.9324,6.9872,3.8003,1.2945,-0.65041,-0.65681,-4.4444,-5.1675,-3.1111,-3.8462,-3.2206,8.2051,-1.8413,-0.65359,-2.6923
2.4528,-5.0159,-1.9417,-0.64725,0.0,7.5,-0.64412,8.2692,5.0886,-0.64725,0.0,2.6273,-1.9048,-7.0813,-1.2063,-4.4872,-0.64412,6.9231,1.9683,-1.9608,-5.8974
2.4528,-2.4762,-1.2945,-4.5307,-3.252,5.5769,-0.64412,8.9103,7.0209,-4.5307,-3.252,3.2841,0.63492,-3.8915,0.06349,-2.5641,1.2882,-0.76923,1.3333,-3.9216,-4.6154
3.0818,0.06349,-0.64725,0.0,-7.1545,1.0897,1.9324,5.7051,-0.06441,0.0,-7.1545,0.65681,3.1746,-1.9777,2.6032,0.0,3.8647,-3.3333,1.9683,0.65359,-2.6923
3.0818,0.06349,-1.2945,14.887,4.5528,1.0897,-1.9324,-3.2692,-8.438,14.887,4.5528,-1.9704,1.2698,0.57416,2.6032,1.2821,3.8647,-5.8974,2.6032,1.3072,0.51282
-0.69182,-1.8413,-4.5307,1.9417,7.8049,-0.83333,-10.306,5.0641,-7.7939,1.9417,7.8049,-5.2545,2.5397,1.2121,0.06349,0.0,0.64412,10.128,-3.1111,3.268,0.51282
2.4528,-0.57143,-1.9417,-15.534,7.1545,3.6538,-5.7971,14.679,1.2238,-15.534,7.1545,-1.3136,1.2698,3.126,1.3333,1.2821,-0.64412,21.667,-12.635,6.5359,8.2051
1.195,-5.0159,-3.2362,4.5307,-0.65041,5.5769,-5.153,5.7051,0.57971,4.5307,-0.65041,-1.9704,-3.8095,-1.9777,-1.8413,-4.4872,-6.4412,10.128,-1.2063,5.2288,1.1538
-0.06289,-7.5556,-4.5307,12.945,-9.1057,1.0897,-2.5765,0.57692,-1.9968,12.945,-9.1057,-1.3136,-3.8095,-5.1675,-3.1111,-8.3333,-8.3736,5.641,-10.095,3.268,-5.2564
3.7107,-3.1111,0.0,-6.4725,-1.9512,3.0128,2.5765,3.141,-2.6409,-6.4725,-1.9512,3.2841,0.63492,-0.70175,0.69841,-4.4872,-3.8647,5.0,-8.8254,3.9216,-4.6154
5.5975,-3.1111,1.9417,-3.2362,-1.3008,3.6538,4.5089,0.57692,-3.285,-3.2362,-1.3008,4.5977,3.8095,0.57416,3.873,-3.2051,0.64412,-0.76923,1.9683,5.2288,-3.3333
1.8239,-4.381,0.64725,1.2945,-9.1057,-1.4744,-2.5765,-1.9872,-8.438,1.2945,-9.1057,1.3136,2.5397,-0.0638,3.2381,-2.5641,1.2882,2.4359,2.6032,3.9216,-1.4103
4.9686,0.69841,3.2362,1.2945,0.65041,1.7308,-1.9324,-9.0385,-10.37,1.2945,0.65041,1.9704,3.1746,1.8501,5.1429,1.9231,4.5089,0.51282,3.873,3.268,1.7949
8.1132,3.873,6.4725,2.589,4.5528,6.2179,3.2206,0.57692,-2.6409,2.589,4.5528,4.5977,4.4444,1.2121,6.4127,2.5641,5.7971,-5.2564,3.873,3.268,-0.12821
4.3396,7.6825,7.1197,0.64725,4.5528,4.2949,7.0853,2.5,3.1562,0.64725,4.5528,5.9113,1.9048,1.8501,4.5079,5.1282,5.153,1.7949,-6.2857,1.3072,1.7949
-0.06289,4.5079,3.2362,-9.7087,2.6016,-0.83333,1.9324,-1.3462,5.7327,-9.7087,2.6016,2.6273,0.0,-0.70175,0.69841,1.2821,0.64412,-2.0513,-3.1111,1.9608,0.51282
-1.9497,0.69841,1.2945,-4.5307,3.252,-2.1154,-5.153,-2.6282,7.0209,-4.5307,3.252,0.65681,0.0,-1.9777,-0.57143,-0.64103,-1.2882,6.2821,1.3333,2.6144,-2.6923
3.0818,6.4127,7.767,6.4725,7.1545,3.0128,3.8647,5.7051,6.3768,6.4725,7.1545,5.9113,5.7143,4.4019,5.1429,5.7692,4.5089,8.8462,3.2381,5.2288,1.7949
8.7421,11.492,12.298,5.8252,2.6016,7.5,7.7295,3.141,1.868,5.8252,2.6016,10.509,8.254,8.2297,9.5873,10.897,9.0177,-1.4103,-1.8413,7.1895,9.4872
6.8553,12.127,10.356,9.0615,-2.6016,6.2179,12.238,0.57692,-10.37,9.0615,-2.6016,9.8522,5.0794,6.3158,7.6825,11.538,8.3736,-5.8974,-8.8254,5.2288,10.769
2.4528,6.4127,6.4725,1.9417,1.3008,3.0128,10.306,3.141,-9.0821,1.9417,1.3008,5.2545,4.4444,4.4019,4.5079,7.0513,6.4412,0.51282,5.1429,0.0,3.7179
-2.5786,-2.4762,-0.64725,-3.8835,6.5041,-1.4744,0.0,-7.1154,2.5121,-3.8835,6.5041,-0.65681,1.9048,1.8501,0.06349,0.0,1.9324,1.1538,15.302,-3.268,-2.0513
-5.0943,-6.2857,-4.5307,3.2362,2.6016,-5.3205,-9.0177,-2.6282,5.0886,3.2362,2.6016,-5.9113,0.0,-1.9777,-1.2063,-3.8462,-0.64412,-12.308,0.06349,-1.3072,-3.3333
-2.5786,-4.381,-2.589,1.2945,7.1545,-2.1154,-3.8647,-0.0641,2.5121,1.2945,7.1545,-1.3136,5.7143,1.8501,1.3333,-2.5641,0.64412,-3.3333,0.69841,2.6144,1.7949
-0.06289,-2.4762,0.0,-2.589,-4.5528,1.0897,2.5765,-2.6282,2.5121,-2.589,-4.5528,3.2841,3.1746,0.57416,1.9683,-1.9231,0.0,-3.9744,3.2381,3.9216,2.4359
-0.06289,-0.57143,1.2945,1.2945,-1.3008,1.7308,5.7971,1.2179,4.4444,1.2945,-1.3008,5.2545,-0.63492,-3.8915,-0.57143,-1.2821,-1.2882,-0.76923,5.7778,-2.6144,-0.12821
-1.3208,0.06349,0.0,3.2362,7.1545,0.44872,0.64412,6.3462,7.0209,3.2362,7.1545,2.6273,-2.5397,-5.8054,-2.4762,-1.9231,-3.2206,6.9231,1.3333,-5.8824,-2.6923
0.56604,2.6032,0.0,5.8252,0.65041,1.7308,0.64412,2.5,5.7327,5.8252,0.65041,3.2841,-0.63492,0.57416,-1.8413,0.64103,-2.5765,3.0769,-2.4762,-1.3072,2.4359
-4.4654,0.06349,-2.589,1.2945,-3.252,-0.83333,3.2206,-7.1154,-3.9291,1.2945,-3.252,0.0,-1.9048,-4.5295,-6.2857,-3.8462,-6.4412,-10.385,5.1429,-3.9216,-4.6154
-6.9811,-5.0159,-4.5307,-10.356,5.2033,-6.6026,-2.5765,-13.526,-7.7939,-10.356,5.2033,-6.5681,-5.0794,-5.8054,-7.5556,-6.4103,-7.7295,-3.3333,6.4127,-6.5359,-5.8974
-4.4654,3.873,-0.64725,-15.534,0.0,-7.8846,-1.9324,-3.9103,-3.285,-15.534,0.0,-5.9113,-0.63492,0.57416,-2.4762,0.64103,-1.2882,5.641,-18.983999,0.0,1.1538
-3.8365,-1.2063,-2.589,-3.8835,-11.707,-9.1667,-4.5089,-4.5513,4.4444,-3.8835,-11.707,-5.2545,-0.63492,-2.6156,-0.57143,-1.2821,-0.64412,-5.8974,-0.57143,3.9216,-2.6923
-5.7233,-6.2857,-5.8252,-1.2945,-9.1057,-9.1667,-4.5089,-7.1154,8.9533,-1.2945,-9.1057,-6.5681,0.63492,-2.6156,-0.57143,-3.8462,-0.64412,10.128,10.857,2.6144,-3.9744
-7.6101,-5.0159,-8.4142,-8.4142,-3.9024,-7.8846,-7.0853,-0.0641,0.57971,-8.4142,-3.9024,-8.5386,1.2698,-0.70175,-1.8413,-3.2051,-0.64412,8.2051,10.222,-2.6144,-4.6154
-1.3208,0.69841,-3.2362,-7.1197,1.9512,-3.3974,-1.2882,3.7821,2.5121,-7.1197,1.9512,-3.9409,1.9048,3.764,0.06349,1.9231,1.9324,-22.563999,5.7778,-2.6144,1.1538
-2.5786,5.1429,0.0,-16.827999,-1.9512,-1.4744,4.5089,0.57692,-4.5733,-16.827999,-1.9512,0.0,0.63492,6.9537,-1.8413,4.4872,1.9324,-9.1026,-7.5556,-1.9608,6.2821
-6.9811,-0.57143,-3.2362,3.2362,-14.959,-4.0385,1.2882,-5.8333,-8.438,3.2362,-14.959,-0.65681,-3.8095,2.488,-8.1905,-1.9231,-5.153,2.4359,-0.57143,-5.8824,1.7949
-6.9811,-6.2857,-5.8252,12.298,-1.9512,-4.6795,-3.8647,-11.603,-3.285,12.298,-1.9512,-2.6273,-5.0794,-0.0638,-8.8254,-5.7692,-7.7295,-4.6154,6.4127,-10.458,-2.0513
-4.4654,-5.6508,-5.178,14.239,10.407,-2.1154,1.2882,4.4231,6.3768,14.239,10.407,-1.3136,-6.3492,-1.9777,-7.5556,-6.4103,-7.0853,-9.1026,-5.6508,-5.8824,-2.0513
-6.9811,-8.8254,-7.767,8.4142,9.1057,-0.83333,-1.9324,8.2692,14.75,8.4142,9.1057,-2.6273,-8.8889,-8.3573,-8.8254,-10.256,-9.6618,-12.949,-0.57143,-7.8431,-6.5385
-1.3208,-3.1111,-1.9417,5.8252,11.707,3.6538,0.64412,10.833,7.6651,5.8252,11.707,0.65681,-1.2698,-5.8054,-1.8413,-5.7692,-3.8647,8.8462,-5.0159,-3.268,-6.5385
6.2264,5.1429,3.8835,-14.239,-1.3008,9.4231,3.8647,10.192,-1.9968,-14.239,-1.3008,5.9113,8.254,0.57416,6.4127,2.5641,3.8647,6.9231,-6.2857,7.8431,-1.4103
6.2264,1.3333,1.9417,-12.298,-5.2033,3.6538,3.8647,2.5,-6.5056,-12.298,-5.2033,2.6273,6.9841,-0.70175,6.4127,0.64103,3.8647,0.51282,5.7778,8.4967,-6.5385
4.9686,-2.4762,-1.9417,4.5307,-1.3008,-3.3974,-3.2206,-2.6282,-6.5056,4.5307,-1.3008,-5.9113,5.0794,1.2121,5.7778,-0.64103,3.2206,5.0,3.873,9.1503,-3.9744
3.0818,0.06349,-1.2945,19.417,-7.1545,-3.3974,-3.2206,4.4231,-7.7939,19.417,-7.1545,-5.9113,1.9048,0.57416,3.873,1.9231,3.2206,14.615,-2.4762,3.9216,2.4359
-7.6101,-7.5556,-7.1197,-0.64725,-10.407,-5.3205,-8.3736,3.141,-7.7939,-0.64725,-10.407,-9.1954,-4.4444,-3.8915,-5.0159,-3.8462,-3.8647,17.179001,1.9683,-1.9608,-3.3333
-10.755,-11.365,-11.003,-5.178,-3.9024,-7.2436,-14.171,-5.8333,7.0209,-5.178,-3.9024,-10.509,-6.3492,-1.9777,-10.095,-8.3333,-8.3736,0.51282,-6.9206,-5.2288,-3.9744
-10.126,-10.095,-11.65,-2.589,0.0,-11.09,-7.7295,-9.6795,7.6651,-2.589,0.0,-9.1954,-8.8889,-3.8915,-11.365,-10.256,-11.594,-13.59,-5.0159,-8.4967,-1.4103
-5.7233,-8.1905,-8.4142,-11.65,-4.5528,-6.6026,-4.5089,-1.3462,-3.285,-11.65,-4.5528,-6.5681,-8.8889,-3.8915,-8.8254,-9.6154,-10.95,-10.385,3.2381,-5.8824,0.51282
-3.8365,-6.2857,-6.4725,-15.534,-1.9512,-4.0385,-5.153,-7.1154,-5.8615,-15.534,-1.9512,-5.9113,-5.0794,0.57416,-5.6508,-7.0513,-7.7295,6.2821,0.69841,-2.6144,-0.76923
-2.5786,0.69841,-3.2362,-20.065001,-7.8049,-3.3974,-2.5765,-8.3974,-2.6409,-20.065001,-7.8049,-5.9113,-1.9048,1.2121,-1.8413,0.64103,-1.9324,9.4872,-10.73,-0.65359,0.51282
-2.5786,3.873,-1.2945,-7.1197,-10.407,-6.6026,-0.64412,-3.9103,-1.3527,-7.1197,-10.407,-4.5977,1.9048,1.2121,0.69841,7.0513,3.8647,-3.3333,-6.2857,-1.3072,3.7179
-0.06289,4.5079,0.64725,2.589,-0.65041,-0.19231,-3.2206,5.7051,-1.9968,2.589,-0.65041,-2.6273,2.5397,1.8501,3.2381,8.3333,6.4412,-4.6154,6.4127,-1.3072,1.1538
3.7107,4.5079,3.2362,11.65,0.0,5.5769,-1.9324,10.833,8.3092,11.65,0.0,1.9704,3.8095,1.8501,3.873,7.0513,6.4412,-6.5385,12.762,3.268,3.0769
-0.06289,3.2381,3.2362,13.592,-3.252,3.6538,1.2882,1.859,7.0209,13.592,-3.252,2.6273,-1.9048,0.57416,-0.57143,3.2051,1.9324,-2.0513,10.222,-4.5752,-0.76923
3.0818,3.2381,5.178,15.534,8.4553,3.6538,6.4412,3.7821,2.5121,15.534,8.4553,5.2545,-5.7143,-1.9777,-1.2063,1.2821,0.64412,6.2821,3.2381,-6.5359,-0.12821
0.56604,-4.381,-0.64725,10.356,9.7561,1.0897,3.8647,10.833,-9.7262,10.356,9.7561,2.6273,-9.5238,-7.0813,-6.2857,-6.4103,-7.0853,1.7949,-7.5556,-7.8431,-4.6154
-3.2075,-10.095,-5.8252,-3.8835,4.5528,-0.19231,-1.9324,3.141,-2.6409,-3.8835,4.5528,-0.65681,-12.698,-9.6332,-11.365,-13.462,-14.171,-3.9744,0.69841,-11.765,-9.7436
-1.9497,-6.9206,-3.2362,-5.8252,3.252,3.0128,-3.8647,3.7821,9.5974,-5.8252,3.252,1.3136,-6.9841,-8.3573,-8.8254,-12.179,-13.527,8.2051,4.5079,-3.268,-9.7436
-2.5786,-2.4762,-3.2362,-7.1197,-1.9512,1.7308,3.2206,3.141,8.9533,-7.1197,-1.9512,1.3136,-6.9841,-7.7193,-10.095,-10.256,-13.527,4.359,-3.1111,-3.268,-7.1795
1.8239,2.6032,-0.64725,-7.767,-9.1057,4.2949,7.0853,5.7051,-3.285,-7.767,-9.1057,1.3136,-6.9841,-6.4434,-6.9206,-4.4872,-9.0177,-3.9744,-3.746,-3.268,-2.6923
3.7107,7.0476,2.589,7.767,-6.5041,4.9359,5.153,-0.70513,-0.70853,7.767,-6.5041,3.9409,0.0,2.488,-0.57143,1.9231,-1.9324,10.769,1.3333,6.5359,3.0769
-4.4654,8.3175,-1.2945,5.178,-14.309,-3.3974,0.64412,-7.1154,-11.014,5.178,-14.309,0.0,0.0,6.9537,-2.4762,5.1282,0.0,-0.12821,-15.81,-1.3072,10.769
-6.3522,0.69841,-3.8835,-8.4142,0.0,-2.7564,-6.4412,-15.449,-6.5056,-8.4142,0.0,-3.9409,-1.2698,-0.0638,-3.746,0.64103,-0.64412,-14.872,1.3333,-7.1895,4.359
-5.0943,-1.8413,-2.589,-12.298,13.008,-4.0385,-9.6618,-10.321,8.9533,-12.298,13.008,-5.2545,1.2698,0.57416,-1.8413,1.2821,1.2882,-16.153999,12.762,-3.9216,0.51282
-5.0943,-2.4762,-1.9417,-5.8252,2.6016,-7.8846,-5.7971,-3.2692,1.868,-5.8252,2.6016,-5.9113,1.2698,1.2121,0.06349,2.5641,2.5765,-11.026,0.69841,-3.268,2.4359
-3.8365,-7.5556,-3.8835,1.2945,-5.2033,-7.8846,-5.153,-0.70513,2.5121,1.2945,-5.2033,-5.9113,-1.9048,-0.70175,-1.2063,-2.5641,-0.64412,-0.12821,4.5079,-4.5752,-2.0513
-1.9497,-6.2857,-3.8835,-4.5307,-7.1545,-3.3974,-2.5765,-0.0641,-1.3527,-4.5307,-7.1545,-3.9409,-0.63492,0.57416,-1.2063,-3.2051,-2.5765,7.5641,1.9683,0.0,-0.12821
3.0818,-5.0159,-1.9417,-7.767,-5.2033,3.0128,1.9324,2.5,0.57971,-7.767,-5.2033,1.3136,-1.2698,-1.3397,-1.8413,-3.2051,-5.153,8.2051,-1.8413,0.65359,0.51282
5.5975,2.6032,3.8835,7.767,7.8049,11.346,5.7971,1.859,0.57971,7.767,7.8049,8.5386,-3.1746,-0.0638,-1.2063,1.2821,-3.2206,8.8462,-10.73,1.9608,3.7179
-2.5786,2.6032,1.9417,4.5307,7.1545,4.2949,5.153,0.57692,-7.1498,4.5307,7.1545,5.2545,-6.9841,-5.1675,-6.2857,-2.5641,-6.4412,-0.12821,-6.9206,-5.2288,-4.6154
-1.9497,1.9683,2.589,-2.589,-3.9024,3.6538,1.2882,1.2179,-2.6409,-2.589,-3.9024,3.9409,-6.9841,-8.3573,-5.0159,-3.2051,-3.8647,-4.6154,-6.2857,-9.8039,-7.8205
5.5975,3.873,7.767,6.4725,2.6016,7.5,2.5765,8.9103,6.3768,6.4725,2.6016,7.225,1.9048,-2.6156,5.1429,1.2821,4.5089,-3.3333,-8.8254,-1.9608,-3.3333
6.2264,-0.57143,7.767,8.4142,5.2033,4.9359,1.2882,9.5513,8.3092,8.4142,5.2033,5.2545,8.8889,1.2121,9.5873,0.0,7.7295,3.0769,5.7778,5.2288,-4.6154
8.7421,-1.2063,8.4142,9.0615,9.7561,7.5,3.2206,6.3462,2.5121,9.0615,9.7561,5.9113,6.9841,-0.70175,9.5873,-0.64103,7.7295,-3.3333,10.857,4.5752,-3.9744
6.8553,1.3333,8.4142,7.767,-0.65041,1.7308,1.9324,1.2179,3.1562,7.767,-0.65041,3.2841,7.619,0.57416,9.5873,1.9231,9.0177,-1.4103,8.3175,6.5359,-3.3333
-0.06289,4.5079,6.4725,7.767,-3.9024,-6.6026,4.5089,-1.9872,-5.8615,7.767,-3.9024,0.65681,7.619,6.3158,7.0476,5.7692,9.0177,9.4872,8.9524,7.1895,1.7949
-1.3208,2.6032,4.5307,-14.239,-7.8049,-3.3974,0.0,-3.2692,-10.37,-14.239,-7.8049,-0.65681,5.7143,8.8676,4.5079,6.4103,7.0853,-8.4615,-0.57143,7.8431,5.0
-2.5786,-0.57143,0.0,-20.065001,-7.8049,-4.0385,-10.95,-1.3462,-2.6409,-20.065001,-7.8049,-4.5977,5.0794,11.419,1.3333,7.6923,3.8647,-6.5385,-8.8254,3.9216,12.692
-8.8679,-5.0159,-8.4142,-6.4725,-3.9024,-7.2436,-14.171,-7.7564,-3.285,-6.4725,-3.9024,-9.1954,3.8095,6.3158,-3.746,2.5641,-1.9324,-6.5385,-13.27,1.3072,9.4872
-12.642,-9.4603,-12.298,1.2945,-5.8537,-13.013,-9.6618,-16.09,-10.37,1.2945,-5.8537,-12.479,-0.63492,1.2121,-7.5556,-4.4872,-7.0853,0.51282,-3.746,-0.65359,0.51282
-10.755,-12.0,-10.356,3.8835,-4.5528,-13.013,-5.153,-12.885,-12.303,3.8835,-4.5528,-10.509,-4.4444,-6.4434,-8.8254,-8.9744,-9.0177,-5.2564,2.6032,-3.9216,-4.6154
-1.9497,-7.5556,-1.2945,-2.589,-5.8537,-3.3974,-4.5089,-0.0641,-2.6409,-2.589,-5.8537,-3.9409,-2.5397,-7.0813,-2.4762,-5.7692,-3.8647,-2.0513,-5.6508,-1.9608,-5.8974
7.4843,7.0476,10.356,-14.239,-3.252,6.859,9.0177,6.9872,2.5121,-14.239,-3.252,7.225,3.8095,0.57416,6.4127,6.4103,8.3736,-5.8974,-7.5556,-1.3072,3.7179
6.2264,4.5079,8.4142,-7.767,-0.65041,5.5769,5.153,0.57692,-2.6409,-7.767,-0.65041,5.2545,5.0794,1.8501,7.6825,6.4103,10.306,-4.6154,6.4127,-3.9216,-0.76923
9.3711,8.3175,11.65,3.8835,7.1545,9.4231,5.7971,5.0641,3.1562,3.8835,7.1545,9.1954,6.9841,5.6778,11.492,10.256,14.171,6.9231,12.127,-0.65359,-0.12821
12.516,14.032,13.592,8.4142,15.61,13.91,5.7971,10.192,12.818,8.4142,15.61,11.823,6.9841,6.9537,14.032,14.103,14.815,-3.3333,7.0476,1.9608,5.641
15.031,17.841,16.181,23.301001,3.9024,15.192,13.527,8.2692,8.3092,23.301001,3.9024,17.077,11.429,9.5056,15.937,16.667,16.747,-0.76923,2.6032,6.5359,12.051
9.3711,10.222,11.65,14.887,1.3008,6.859,9.0177,1.859,8.3092,14.887,1.3008,9.8522,10.159,6.3158,12.127,10.897,13.527,8.8462,8.9524,3.9216,6.2821
7.4843,2.6032,6.4725,0.0,5.2033,2.3718,3.2206,4.4231,7.6651,0.0,5.2033,3.2841,8.254,5.6778,10.222,7.0513,10.95,-0.12821,10.222,4.5752,2.4359
6.2264,1.3333,3.2362,-1.2945,0.65041,2.3718,1.2882,7.6282,0.57971,-1.2945,0.65041,0.0,6.3492,5.0399,8.3175,7.0513,9.6618,1.1538,0.69841,5.2288,4.359
3.7107,-3.1111,0.0,3.2362,-1.3008,-0.19231,0.0,0.57692,-3.285,3.2362,-1.3008,-3.9409,3.8095,3.764,7.0476,3.8462,7.0853,-1.4103,0.69841,8.4967,0.51282
-2.5786,-4.381,-2.589,4.5307,0.0,-4.0385,-7.7295,-1.3462,-4.5733,4.5307,0.0,-7.8818,-0.63492,3.764,0.69841,0.64103,1.2882,-7.8205,-12.635,3.268,0.51282
-5.7233,-8.8254,-7.1197,-5.8252,-5.2033,-4.6795,-9.0177,-1.9872,-5.8615,-5.8252,-5.2033,-7.8818,-3.8095,-1.9777,-5.0159,-6.4103,-5.7971,-6.5385,-9.4603,-0.65359,-3.9744
-8.8679,-15.175,-13.592,-1.9417,-7.1545,-5.3205,-14.815,-2.6282,-1.9968,-1.9417,-7.1545,-9.8522,-5.7143,-7.7193,-9.4603,-14.103,-12.238,17.820999,-5.0159,-3.9216,-10.385
-2.5786,-8.8254,-11.003,-7.1197,-3.9024,-0.19231,-10.95,-1.3462,-5.8615,-7.1197,-3.9024,-5.2545,-3.1746,-4.5295,-5.0159,-9.6154,-9.6618,16.538,-12.635,-0.65359,-4.6154
-1.9497,-10.095,-9.0615,0.64725,1.9512,0.44872,-8.3736,2.5,-4.5733,0.64725,1.9512,-3.9409,-5.0794,-7.0813,-4.381,-10.897,-9.6618,8.8462,0.69841,0.0,-7.8205
-4.4654,-10.095,-6.4725,-1.2945,5.8537,-2.1154,-6.4412,9.5513,1.868,-1.2945,5.8537,-5.9113,-6.9841,-7.0813,-5.0159,-10.256,-8.3736,-0.76923,10.222,-2.6144,-10.385
-1.9497,-2.4762,-1.2945,-1.9417,-7.8049,-2.7564,3.8647,8.2692,-2.6409,-1.9417,-7.8049,-1.9704,-5.0794,-2.6156,-3.1111,-2.5641,-4.5089,-0.12821,-1.8413,0.0,-2.6923
-0.69182,5.1429,3.8835,8.4142,0.0,2.3718,10.95,1.859,7.0209,8.4142,0.0,5.2545,-2.5397,1.2121,-1.8413,3.2051,0.0,5.641,-1.2063,1.3072,3.0769
1.195,10.222,7.1197,2.589,14.959,3.0128,10.306,2.5,9.5974,2.589,14.959,8.5386,-0.63492,5.6778,0.06349,8.3333,3.8647,-3.9744,2.6032,1.9608,10.128
4.3396,12.127,7.767,0.64725,2.6016,1.7308,9.0177,-5.8333,9.5974,0.64725,2.6016,7.8818,0.63492,6.3158,2.6032,10.897,5.153,-4.6154,7.0476,4.5752,13.974
5.5975,17.205999,9.7087,11.003,-0.65041,1.7308,11.594,-5.1923,13.462,11.003,-0.65041,8.5386,2.5397,8.8676,4.5079,14.744,8.3736,-3.9744,-14.54,2.6144,14.615
6.8553,13.397,10.356,7.1197,13.008,3.6538,4.5089,-3.2692,9.5974,7.1197,13.008,6.5681,4.4444,10.144,7.0476,12.179,10.306,-11.667,-1.2063,1.9608,10.128
3.0818,1.9683,5.8252,3.2362,12.358,3.0128,3.2206,-3.2692,1.868,3.2362,12.358,5.2545,1.2698,4.4019,2.6032,3.2051,5.7971,-9.1026,21.650999,-5.8824,3.7179
-1.9497,-0.57143,3.2362,4.5307,3.252,1.7308,4.5089,-3.9103,3.8003,4.5307,3.252,3.2841,1.2698,3.764,0.06349,0.0,3.2206,3.7179,17.205999,-6.5359,1.1538
-4.4654,1.3333,1.9417,0.64725,7.1545,-2.1154,4.5089,1.2179,-1.9968,0.64725,7.1545,1.3136,1.2698,3.764,-0.57143,1.2821,2.5765,-9.7436,4.5079,-2.6144,1.7949
-8.8679,-3.1111,-3.8835,-1.2945,-8.4553,-7.2436,-1.9324,-5.8333,-11.014,-1.2945,-8.4553,-3.9409,-1.2698,-0.0638,-3.746,-1.9231,-1.2882,-11.667,0.06349,-3.9216,-2.0513
-0.69182,1.9683,0.64725,3.8835,-7.1545,1.0897,5.7971,-0.0641,-3.9291,3.8835,-7.1545,3.2841,3.1746,5.0399,1.9683,3.8462,3.8647,-0.12821,2.6032,3.9216,4.359
0.56604,-0.57143,-0.64725,4.5307,1.3008,-0.19231,5.7971,-0.70513,7.6651,4.5307,1.3008,2.6273,4.4444,4.4019,3.2381,1.9231,1.9324,0.51282,-1.8413,8.4967,2.4359
1.8239,-3.746,-5.178,7.1197,9.1057,-0.83333,-2.5765,1.2179,7.6651,7.1197,9.1057,-3.9409,2.5397,1.8501,1.9683,-1.9231,-1.2882,-3.3333,-10.73,5.8824,1.1538
1.8239,-2.4762,-7.767,-5.8252,9.1057,-2.1154,-7.0853,-2.6282,1.868,-5.8252,9.1057,-7.225,4.4444,3.126,1.9683,-0.64103,-1.9324,-5.8974,-13.905,2.6144,7.5641
-5.0943,-8.1905,-13.592,-12.298,-9.1057,-7.2436,-13.527,-9.6795,0.57971,-12.298,-9.1057,-10.509,2.5397,2.488,-2.4762,-5.1282,-7.0853,-0.76923,-7.5556,1.3072,4.359
-3.2075,-6.9206,-12.298,-16.827999,-11.707,-7.8846,-9.0177,-5.8333,-3.9291,-16.827999,-11.707,-9.1954,-1.2698,1.2121,-3.746,-4.4872,-7.7295,10.769,7.6825,2.6144,1.7949
-5.0943,-1.2063,-7.767,-12.945,-14.959,-7.8846,-0.64412,-7.1154,-6.5056,-12.945,-14.959,-5.9113,-1.2698,3.126,-3.746,0.64103,-5.7971,13.974,6.4127,4.5752,6.2821
-4.4654,-1.8413,-4.5307,0.0,-3.9024,-4.6795,-1.2882,-5.8333,-0.06441,0.0,-3.9024,-3.9409,-3.1746,3.126,-3.746,-1.2821,-5.153,10.769,9.5873,3.9216,3.0769
-0.69182,1.3333,-0.64725,11.003,7.1545,-4.6795,0.0,5.0641,1.2238,11.003,7.1545,-4.5977,-2.5397,-0.70175,-1.2063,0.0,-2.5765,-7.1795,1.9683,0.65359,-0.12821
0.56604,-1.2063,0.0,2.589,5.8537,-6.6026,0.0,0.57692,-1.9968,2.589,5.8537,-3.2841,-3.1746,-3.2536,-0.57143,-1.9231,-1.2882,-17.436001,-6.2857,-2.6144,-3.9744
3.7107,5.7778,5.178,-5.178,3.252,-0.83333,6.4412,-3.9103,0.57971,-5.178,3.252,3.9409,1.9048,-1.3397,4.5079,2.5641,3.8647,0.51282,-7.5556,0.0,-0.76923
4.9686,7.6825,8.4142,-1.9417,1.3008,0.44872,8.3736,-11.603,-0.70853,-1.9417,1.3008,7.8818,10.794,5.0399,10.222,6.4103,9.6618,12.692,-7.5556,7.8431,3.7179
2.4528,2.6032,7.1197,-7.767,1.3008,2.3718,1.2882,-15.449,-5.8615,-7.767,1.3008,7.225,7.619,2.488,8.3175,3.8462,8.3736,7.5641,-5.0159,5.8824,2.4359
1.195,-0.57143,3.2362,-6.4725,2.6016,-0.83333,3.8647,-10.962,-1.9968,-6.4725,2.6016,3.2841,2.5397,-1.9777,5.1429,0.0,5.153,-7.1795,3.2381,0.0,0.51282
-1.9497,-3.1111,-1.9417,7.1197,-2.6016,-0.19231,5.153,-5.8333,-5.2174,7.1197,-2.6016,1.9704,1.9048,-1.9777,0.69841,-4.4872,0.0,-10.385,4.5079,-0.65359,-6.5385
-3.2075,-1.8413,-3.8835,16.827999,1.9512,3.6538,0.0,7.6282,-2.6409,16.827999,1.9512,1.9704,-0.63492,-0.70175,-3.746,-5.1282,-4.5089,-12.308,1.3333,-1.9608,-5.8974
-2.5786,-2.4762,-3.8835,8.4142,9.7561,3.0128,-2.5765,11.474,7.6651,8.4142,9.7561,0.65681,-1.9048,-0.70175,-4.381,-5.7692,-6.4412,1.7949,3.873,0.65359,-2.6923
-5.7233,-4.381,-7.1197,-3.8835,1.3008,-4.6795,-1.9324,5.7051,5.7327,-3.8835,1.3008,-5.2545,-3.8095,-1.3397,-7.5556,-5.7692,-9.0177,10.128,0.69841,-1.9608,-3.9744
-3.2075,-1.2063,-7.1197,-9.7087,-3.252,-4.6795,-3.2206,1.859,1.2238,-9.7087,-3.252,-6.5681,-4.4444,-1.9777,-5.6508,-2.5641,-7.7295,15.897,-5.6508,1.3072,-0.76923
3.7107,0.06349,-4.5307,-5.8252,-3.9024,-2.1154,-11.594,-10.962,-0.06441,-5.8252,-3.9024,-7.8818,-5.0794,-2.6156,-2.4762,-0.64103,-5.153,13.333,2.6032,1.9608,4.359
-0.06289,-2.4762,-4.5307,-7.767,-4.5528,-3.3974,-11.594,-3.2692,-0.70853,-7.767,-4.5528,-7.8818,-8.254,-7.0813,-5.0159,-2.5641,-6.4412,8.2051,10.222,-3.268,0.51282
4.3396,0.69841,1.9417,-5.8252,1.9512,6.859,-1.2882,17.243999,1.868,-5.8252,1.9512,0.65681,-6.3492,-7.0813,-1.8413,0.64103,-1.9324,0.51282,12.762,0.65359,-2.6923
5.5975,3.2381,2.589,14.887,5.2033,8.141,3.2206,18.525999,2.5121,14.887,5.2033,3.2841,-5.7143,-5.1675,-1.2063,1.9231,0.0,-11.026,3.873,-1.9608,1.1538
-2.5786,-0.57143,-2.589,16.827999,0.65041,0.44872,0.64412,10.833,-11.659,16.827999,0.65041,-1.3136,-8.254,-2.6156,-5.6508,-1.2821,-2.5765,1.7949,-5.6508,-10.458,0.51282
-0.06289,-0.57143,-0.64725,9.7087,0.0,8.7821,5.153,9.5513,-9.7262,9.7087,0.0,3.9409,-6.9841,-1.9777,-5.0159,-1.9231,-1.9324,19.103001,-6.9206,-8.4967,-1.4103
2.4528,-0.57143,0.64725,5.8252,-3.9024,11.346,4.5089,16.603001,-7.1498,5.8252,-3.9024,5.9113,-5.7143,-6.4434,-3.1111,-4.4872,-3.2206,17.179001,-18.983999,-5.8824,-5.2564
1.8239,-8.1905,-3.8835,-0.64725,-4.5528,4.2949,-0.64412,8.9103,-9.0821,-0.64725,-4.5528,1.9704,-5.7143,-9.6332,-5.0159,-11.538,-8.3736,12.692,-13.27,-5.8824,-9.1026
1.195,-12.635,-5.8252,-5.8252,-5.2033,-0.19231,-8.3736,5.0641,-2.6409,-5.8252,-5.2033,-1.9704,-4.4444,-9.6332,-3.746,-14.744,-10.306,-3.3333,-1.8413,0.0,-10.385
3.0818,-5.0159,-1.2945,-8.4142,0.65041,-0.19231,-3.8647,1.859,1.2238,-8.4142,0.65041,-0.65681,1.2698,-6.4434,1.3333,-7.6923,-5.153,-0.76923,-4.381,7.1895,-7.1795
4.9686,3.873,3.8835,-8.4142,3.9024,3.6538,8.3736,-0.70513,5.0886,-8.4142,3.9024,3.2841,5.0794,-5.1675,5.1429,-1.9231,0.0,12.051,1.3333,10.458,-8.4615
7.4843,5.1429,5.8252,12.298,0.0,3.0128,7.7295,2.5,3.8003,12.298,0.0,3.9409,5.0794,-5.1675,9.5873,0.64103,5.153,13.333,5.7778,11.111,-12.308
15.031,4.5079,8.4142,20.065001,-3.252,5.5769,0.0,6.9872,-7.1498,20.065001,-3.252,2.6273,11.429,-0.0638,17.841,4.4872,12.238,-0.12821,-1.8413,16.993,-8.4615
11.887,4.5079,6.4725,5.8252,-5.2033,4.2949,1.2882,8.2692,-7.1498,5.8252,-5.2033,1.9704,12.063,-0.70175,16.570999,5.1282,12.882,-2.0513,-8.1905,15.033,-6.5385
3.7107,0.69841,3.2362,0.64725,-3.252,-0.19231,-0.64412,5.7051,1.2238,0.64725,-3.252,-0.65681,7.619,-1.3397,8.9524,1.2821,7.0853,9.4872,-10.095,5.8824,-5.8974
1.195,1.3333,2.589,-0.64725,3.252,1.0897,0.64412,3.7821,-0.70853,-0.64725,3.252,3.9409,4.4444,-0.70175,4.5079,1.2821,4.5089,13.974,-3.746,2.6144,-0.76923
-3.2075,1.3333,0.64725,-3.2362,4.5528,1.0897,5.7971,-8.3974,5.0886,-3.2362,4.5528,4.5977,-2.5397,-0.70175,-2.4762,-0.64103,-0.64412,1.1538,11.492,-3.268,1.1538
-9.4969,-4.381,-5.8252,-0.64725,3.252,-2.1154,-4.5089,-7.7564,7.0209,-0.64725,3.252,-1.9704,-8.254,-3.2536,-11.365,-5.7692,-9.0177,-6.5385,10.857,-9.8039,-0.12821
-8.239,-2.4762,-5.8252,5.8252,9.1057,-1.4744,-3.2206,-2.6282,0.57971,5.8252,9.1057,-1.3136,-9.5238,-3.2536,-12.0,-4.4872,-10.306,-19.358999,3.873,-11.111,5.0
-2.5786,-1.2063,-2.589,7.767,5.2033,0.44872,1.9324,1.859,-0.06441,7.767,5.2033,1.9704,-5.7143,1.2121,-6.2857,-1.9231,-5.7971,-15.513,4.5079,-5.8824,6.9231
1.195,-0.57143,0.64725,10.356,-2.6016,1.0897,0.0,8.2692,-2.6409,10.356,-2.6016,2.6273,-2.5397,1.2121,-1.2063,0.64103,-1.2882,6.2821,2.6032,-4.5752,5.0
4.9686,2.6032,3.2362,-1.9417,-9.7561,1.0897,-2.5765,6.3462,-5.2174,-1.9417,-9.7561,1.3136,0.0,2.488,5.1429,4.4872,3.2206,6.9231,-6.2857,-0.65359,4.359
3.0818,0.06349,1.9417,-0.64725,-5.2033,-2.1154,1.2882,-5.8333,-1.9968,-0.64725,-5.2033,1.3136,0.0,-1.9777,3.873,0.64103,2.5765,2.4359,-7.5556,0.65359,-1.4103
-1.9497,-1.8413,-0.64725,-2.589,-3.9024,-3.3974,0.64412,-18.653999,0.57971,-2.589,-3.9024,0.0,-2.5397,-5.1675,-0.57143,-2.5641,-0.64412,-5.8974,-6.2857,-3.9216,-5.8974
-0.69182,1.3333,1.9417,-7.1197,9.1057,-4.0385,-5.153,-9.6795,4.4444,-7.1197,9.1057,-1.3136,1.2698,0.57416,1.3333,3.8462,2.5765,-3.3333,3.873,4.5752,1.1538
1.8239,10.222,6.4725,-12.945,6.5041,-4.0385,3.2206,-0.0641,4.4444,-12.945,6.5041,0.65681,5.0794,6.3158,5.1429,10.897,7.7295,-10.385,12.762,5.2288,5.641
-0.69182,12.127,6.4725,-16.181,-2.6016,-2.1154,10.95,-17.372,8.9533,-16.181,-2.6016,3.2841,3.8095,6.3158,2.6032,10.897,7.7295,-2.0513,15.302,-0.65359,3.7179
-4.4654,12.127,4.5307,1.2945,-1.9512,-4.0385,8.3736,-14.167,10.886,1.2945,-1.9512,3.2841,1.9048,3.126,0.06349,8.3333,5.153,6.2821,10.857,-0.65359,1.1538
-0.69182,8.9524,2.589,17.476,-0.65041,-5.9615,14.171,-5.8333,4.4444,17.476,-0.65041,1.9704,0.63492,0.57416,-0.57143,3.8462,1.9324,1.1538,8.3175,1.3072,-0.12821
1.195,-1.2063,-1.2945,-4.5307,4.5528,-5.3205,3.2206,-12.885,10.886,-4.5307,4.5528,-1.3136,0.0,-3.8915,-1.8413,-3.8462,-3.8647,-12.308,5.1429,3.268,-2.6923
1.195,-6.9206,-3.8835,-6.4725,7.1545,0.44872,-3.8647,-11.603,10.886,-6.4725,7.1545,-3.2841,0.0,-2.6156,-3.746,-7.0513,-7.0853,-21.282,7.0476,1.3072,-3.3333
1.8239,-6.2857,-3.8835,2.589,0.65041,1.7308,-3.8647,1.859,3.8003,2.589,0.65041,-1.9704,1.2698,-3.2536,-1.2063,-7.0513,-5.7971,-5.2564,8.3175,6.5359,-1.4103
2.4528,-5.6508,-3.8835,8.4142,7.8049,1.7308,-7.0853,3.7821,1.2238,8.4142,7.8049,-2.6273,-2.5397,-7.7193,-1.2063,-7.0513,-6.4412,13.333,3.2381,6.5359,-3.3333
3.7107,1.3333,-1.9417,-9.0615,1.3008,1.0897,-5.153,2.5,-5.8615,-9.0615,1.3008,-1.9704,-6.9841,-8.3573,-1.2063,-3.2051,-6.4412,15.897,-18.983999,4.5752,-2.6923
3.7107,-1.8413,-1.9417,-4.5307,-5.8537,1.7308,-7.7295,8.2692,-0.70853,-4.5307,-5.8537,-2.6273,-5.0794,-4.5295,0.69841,-3.2051,-4.5089,13.974,-10.73,2.6144,-2.6923
0.56604,-1.8413,-2.589,7.767,-1.9512,-0.83333,-1.2882,1.859,-3.9291,7.767,-1.9512,-2.6273,-1.9048,1.8501,0.69841,-1.9231,-1.9324,7.5641,1.3333,-2.6144,-0.12821
-4.4654,-6.2857,-5.8252,1.2945,-15.61,-4.0385,-2.5765,-5.1923,-9.7262,1.2945,-15.61,-5.9113,-0.63492,1.2121,-0.57143,-3.8462,-2.5765,6.2821,1.3333,-3.268,-0.76923
-5.7233,-8.1905,-6.4725,-14.887,-12.358,-2.7564,-1.2882,-7.1154,-9.0821,-14.887,-12.358,-5.2545,-6.3492,-2.6156,-4.381,-5.7692,-3.8647,3.0769,-5.0159,-9.1503,-0.12821
0.56604,-3.1111,-1.2945,0.0,1.9512,1.0897,-4.5089,0.57692,-9.0821,0.0,1.9512,-3.9409,-6.3492,-0.70175,-1.8413,0.0,-0.64412,-22.563999,-8.1905,-8.4967,3.0769
3.0818,-1.2063,0.0,7.1197,7.1545,4.2949,-10.95,3.7821,-12.303,7.1197,7.1545,-2.6273,-3.8095,2.488,-1.8413,3.2051,1.2882,-1.4103,5.1429,-8.4967,5.641
-1.3208,1.9683,0.0,0.0,1.3008,1.7308,-7.0853,-1.3462,-0.06441,0.0,1.3008,-1.9704,-1.9048,5.6778,-2.4762,6.4103,2.5765,4.359,2.6032,-8.4967,7.5641
-0.06289,6.4127,1.9417,-7.1197,-5.2033,1.7308,1.2882,-4.5513,13.462,-7.1197,-5.2033,1.9704,0.63492,7.5917,-2.4762,7.6923,3.2206,-12.308,-1.8413,-5.8824,5.641
-1.3208,5.7778,1.2945,-12.298,-0.65041,-1.4744,-2.5765,3.141,10.242,-12.298,-0.65041,-0.65681,-0.63492,3.126,-3.746,5.1282,1.2882,-5.2564,-6.9206,-1.3072,-0.12821
1.8239,2.6032,3.2362,-2.589,-5.8537,-0.19231,2.5765,1.859,6.3768,-2.589,-5.8537,0.0,-1.9048,-3.2536,-1.2063,1.9231,0.64412,5.641,7.0476,-1.3072,-5.8974
3.0818,1.9683,3.2362,16.827999,2.6016,-1.4744,5.7971,-1.3462,-0.06441,16.827999,2.6016,0.0,-1.2698,-8.9952,1.9683,-0.64103,0.64412,12.692,15.937,-1.3072,-6.5385
-1.3208,0.69841,-0.64725,14.239,13.008,-4.0385,-0.64412,5.0641,-11.659,14.239,13.008,-4.5977,1.2698,-8.3573,2.6032,-1.9231,1.2882,-0.12821,-5.6508,1.3072,-5.8974
-1.9497,-8.8254,-4.5307,-3.8835,1.9512,-2.7564,-7.7295,0.57692,-9.0821,-3.8835,1.9512,-5.2545,2.5397,-10.271,2.6032,-8.9744,-0.64412,-11.026,-6.2857,1.9608,-11.026
0.56604,-8.1905,-2.589,-3.8835,-4.5528,0.44872,-5.7971,-5.1923,4.4444,-3.8835,-4.5528,0.0,5.7143,-7.0813,5.1429,-9.6154,0.64412,-10.385,-9.4603,7.8431,-13.59
1.8239,-3.746,0.64725,3.2362,-3.9024,-0.19231,1.9324,1.2179,7.6651,3.2362,-3.9024,3.2841,3.8095,-4.5295,4.5079,-7.0513,0.64412,6.9231,-4.381,9.1503,-9.7436
-1.3208,0.69841,0.0,7.767,-1.3008,-1.4744,5.153,-6.4744,-2.6409,7.767,-1.3008,1.3136,-2.5397,-4.5295,-0.57143,-3.8462,-3.2206,14.615,-9.4603,1.9608,0.51282
-1.9497,-2.4762,-2.589,1.2945,3.252,-2.7564,-3.8647,-3.9103,0.57971,1.2945,3.252,-1.9704,-5.0794,-7.0813,-5.0159,-5.7692,-7.7295,3.7179,-2.4762,-3.268,-3.3333
-3.8365,-3.1111,-3.2362,-22.653999,-10.407,-4.0385,-6.4412,0.57692,3.8003,-22.653999,-10.407,-3.2841,-5.7143,-5.8054,-8.1905,-5.1282,-10.306,3.7179,-4.381,-4.5752,-3.3333
-5.0943,0.06349,-1.2945,-12.945,-6.5041,-1.4744,3.8647,-1.9872,-18.1,-12.945,-6.5041,0.0,-5.0794,-3.2536,-8.8254,-0.64103,-8.3736,-3.9744,-4.381,-5.2288,1.1538
3.0818,7.0476,5.8252,0.0,10.407,8.7821,4.5089,8.9103,-16.167,0.0,10.407,5.2545,5.0794,8.8676,1.3333,10.897,4.5089,-10.385,10.857,1.9608,8.2051
6.2264,7.0476,7.1197,-1.2945,1.3008,10.705,0.64412,12.115,-3.285,-1.2945,1.3008,5.9113,6.3492,10.781,5.7778,14.744,10.95,2.4359,1.9683,0.65359,9.4872
1.8239,6.4127,4.5307,9.7087,-3.9024,5.5769,-1.9324,-0.0641,9.5974,9.7087,-3.9024,1.9704,5.7143,12.057,6.4127,15.385,13.527,6.2821,-6.2857,-3.9216,8.8462
5.5975,8.9524,8.4142,15.534,3.252,7.5,-1.2882,1.2179,5.0886,15.534,3.252,4.5977,9.5238,17.799,10.857,18.59,18.68,-3.3333,-9.4603,-0.65359,14.615
1.8239,4.5079,6.4725,7.1197,-0.65041,0.44872,-2.5765,5.0641,1.868,7.1197,-0.65041,1.9704,6.9841,12.695,9.5873,12.821,14.815,-0.76923,-3.1111,-2.6144,10.128
-1.9497,0.69841,2.589,-7.1197,-0.65041,-4.0385,1.2882,3.141,-1.3527,-7.1197,-0.65041,0.65681,2.5397,3.764,4.5079,4.4872,7.7295,0.51282,4.5079,-3.9216,1.1538
0.56604,1.9683,3.2362,-8.4142,4.5528,0.44872,10.95,-2.6282,1.2238,-8.4142,4.5528,3.2841,1.2698,-1.3397,2.6032,1.2821,2.5765,7.5641,3.2381,-3.268,0.51282
5.5975,4.5079,6.4725,8.4142,8.4553,3.6538,11.594,1.859,4.4444,8.4142,8.4553,7.225,3.1746,1.8501,4.5079,1.2821,1.9324,11.41,5.1429,3.9216,6.2821
5.5975,5.1429,5.8252,2.589,9.1057,4.9359,5.7971,6.3462,7.6651,2.589,9.1057,6.5681,-3.1746,-3.2536,0.06349,-1.9231,-3.2206,0.51282,-3.746,-1.3072,0.51282
1.8239,1.3333,2.589,1.9417,3.252,-0.83333,1.9324,-3.9103,7.6651,1.9417,3.252,2.6273,-8.254,-7.7193,-3.746,-6.4103,-7.7295,-2.6923,5.1429,-3.9216,-5.2564
4.9686,3.873,4.5307,6.4725,3.9024,1.0897,4.5089,-1.9872,7.0209,6.4725,3.9024,3.9409,2.5397,-2.6156,2.6032,-1.9231,-2.5765,-12.308,1.3333,3.9216,-2.0513
11.887,7.6825,7.767,5.178,0.65041,9.4231,10.95,3.141,6.3768,5.178,0.65041,9.1954,9.5238,1.2121,11.492,3.8462,4.5089,-21.282,3.873,15.686,-0.76923
6.8553,3.2381,5.8252,0.0,3.9024,3.6538,7.7295,-4.5513,5.0886,0.0,3.9024,3.9409,10.794,1.8501,10.857,3.8462,7.0853,12.051,12.762,17.646999,-2.0513
-0.69182,-2.4762,1.9417,-17.476,-9.7561,-2.1154,3.2206,-5.1923,-5.2174,-17.476,-9.7561,-1.9704,5.0794,-0.70175,5.7778,2.5641,5.153,17.820999,-0.57143,4.5752,-3.3333
3.0818,0.06349,4.5307,-11.65,-1.3008,2.3718,0.64412,3.141,3.8003,-11.65,-1.3008,0.65681,5.7143,4.4019,6.4127,5.7692,8.3736,-2.0513,4.5079,3.268,3.0769
2.4528,0.69841,3.2362,15.534,12.358,1.0897,-7.7295,0.57692,14.75,15.534,12.358,0.0,5.0794,9.5056,5.1429,7.0513,8.3736,5.0,8.9524,2.6144,6.2821
-1.3208,0.69841,-0.64725,11.003,7.1545,2.3718,-3.8647,-3.2692,3.1562,11.003,7.1545,0.0,-0.63492,10.144,-2.4762,5.7692,3.2206,-9.7436,-2.4762,-5.2288,10.128
-12.013,-1.8413,-7.1197,0.0,-1.9512,-5.9615,-2.5765,-2.6282,-8.438,0.0,-1.9512,-5.2545,-3.1746,6.9537,-9.4603,1.2821,-1.9324,-14.231,-5.0159,-6.5359,6.2821
-11.384,1.3333,-5.8252,-1.2945,-5.2033,-5.3205,-1.2882,5.7051,-7.1498,-1.2945,-5.2033,-3.2841,-1.2698,7.5917,-8.8254,2.5641,-0.64412,-8.4615,-17.079,-5.8824,7.5641
-8.8679,-1.2063,-5.8252,-2.589,-15.61,-4.0385,1.2882,3.7821,-6.5056,-2.589,-15.61,-1.9704,-3.1746,3.126,-9.4603,-1.2821,-3.8647,-0.12821,-6.9206,-4.5752,2.4359
-12.013,-8.8254,-11.003,-10.356,-14.959,-8.5256,-3.2206,-0.70513,-7.7939,-10.356,-14.959,-7.225,-7.619,-4.5295,-15.175,-9.6154,-11.594,4.359,10.857,-9.8039,-5.2564
-9.4969,-10.73,-11.65,-11.003,3.9024,-5.9615,-11.594,7.6282,-8.438,-11.003,3.9024,-10.509,-6.3492,-7.7193,-13.27,-11.538,-13.527,6.9231,0.69841,-7.1895,-3.3333
-1.9497,-2.4762,-4.5307,1.9417,8.4553,0.44872,-5.7971,6.9872,7.0209,1.9417,8.4553,-2.6273,-3.1746,-4.5295,-6.2857,-5.1282,-7.7295,-2.6923,-4.381,-1.9608,0.51282
8.1132,0.69841,2.589,-2.589,-1.9512,6.2179,-5.153,8.9103,3.8003,-2.589,-1.9512,1.9704,0.0,-2.6156,2.6032,-1.2821,-1.9324,-18.077,-5.6508,3.268,-2.6923
11.887,6.4127,9.0615,-1.2945,-11.057,10.705,5.153,9.5513,-3.9291,-1.2945,-11.057,7.8818,2.5397,-1.3397,8.9524,3.8462,4.5089,10.128,1.9683,8.4967,-2.0513
7.4843,8.3175,7.767,1.2945,-3.9024,3.6538,4.5089,3.7821,-3.285,1.2945,-3.9024,5.2545,0.63492,-2.6156,7.6825,5.7692,5.153,30.641001,0.69841,7.8431,-0.76923
3.7107,7.6825,4.5307,3.2362,5.8537,-0.83333,3.8647,3.141,-6.5056,3.2362,5.8537,3.2841,2.5397,0.57416,6.4127,6.4103,5.7971,18.462,3.2381,3.9216,1.7949
-0.06289,5.7778,2.589,7.767,-1.9512,-2.1154,11.594,-0.70513,-3.9291,7.767,-1.9512,5.2545,4.4444,1.2121,5.1429,5.7692,5.7971,1.7949,-8.1905,5.8824,3.0769
6.2264,0.69841,2.589,-2.589,5.2033,3.6538,2.5765,1.859,8.3092,-2.589,5.2033,3.9409,5.7143,0.57416,7.6825,1.9231,6.4412,-11.026,-5.6508,5.8824,-2.6923
6.2264,-5.6508,1.9417,0.0,6.5041,4.9359,-4.5089,6.3462,10.242,0.0,6.5041,2.6273,5.7143,-0.0638,7.0476,-2.5641,4.5089,-5.8974,7.0476,5.2288,-4.6154
3.0818,-5.6508,0.64725,-9.7087,-8.4553,4.2949,0.0,5.0641,5.7327,-9.7087,-8.4553,3.9409,5.0794,0.57416,4.5079,-3.8462,3.8647,10.128,-1.2063,3.268,-4.6154
4.3396,-4.381,0.0,-1.2945,-7.8049,6.2179,1.9324,-1.9872,-7.7939,-1.2945,-7.8049,2.6273,2.5397,-0.0638,2.6032,-3.2051,1.9324,1.7949,-1.2063,0.0,-7.1795
-0.06289,-2.4762,-2.589,1.2945,-5.2033,3.0128,1.9324,-2.6282,-9.0821,1.2945,-5.2033,-1.3136,1.9048,1.2121,-1.2063,-1.2821,0.0,1.7949,-8.1905,1.3072,-4.6154
-6.3522,0.06349,-3.8835,1.2945,0.0,-5.3205,1.2882,2.5,-7.7939,1.2945,0.0,-3.9409,-3.8095,-1.3397,-5.6508,0.0,-3.2206,3.0769,-6.9206,-0.65359,-0.12821
-6.9811,1.3333,-1.9417,6.4725,1.3008,-5.9615,-2.5765,8.2692,-11.659,6.4725,1.3008,-3.9409,-3.8095,-0.0638,-6.9206,1.2821,-3.8647,0.51282,5.7778,-1.3072,4.359
-10.126,-2.4762,-5.178,-0.64725,-2.6016,-9.1667,-3.8647,0.57692,-11.659,-0.64725,-2.6016,-7.225,-6.3492,-1.3397,-10.73,-3.2051,-8.3736,-0.12821,4.5079,-5.2288,1.7949
-12.013,-6.2857,-10.356,5.178,1.9512,-9.8077,-10.306,-3.2692,1.868,5.178,1.9512,-11.823,-10.159,-7.7193,-12.635,-7.6923,-12.882,0.51282,1.3333,-8.4967,-0.12821
-7.6101,-5.6508,-9.0615,-7.767,-2.6016,-2.1154,-8.3736,-0.0641,7.6651,-7.767,-2.6016,-6.5681,-9.5238,-8.9952,-10.095,-6.4103,-11.594,5.0,-0.57143,-7.8431,-0.12821
-0.69182,0.06349,-3.2362,-4.5307,-0.65041,5.5769,2.5765,6.3462,10.886,-4.5307,-0.65041,1.9704,-5.0794,-3.8915,-3.746,-1.2821,-5.153,-27.691999,1.9683,-6.5359,3.7179
0.56604,4.5079,-0.64725,11.003,5.2033,3.0128,4.5089,5.7051,12.174,11.003,5.2033,2.6273,0.0,3.126,-0.57143,3.8462,-0.64412,-9.7436,-5.0159,-1.3072,9.4872
-7.6101,-4.381,-8.4142,-1.9417,-0.65041,-6.6026,-6.4412,-4.5513,-1.3527,-1.9417,-0.65041,-5.9113,-6.9841,-3.8915,-7.5556,-5.1282,-7.0853,9.4872,1.9683,-8.4967,-0.76923
-8.239,-7.5556,-8.4142,7.1197,-3.252,-2.7564,-6.4412,-5.1923,-2.6409,7.1197,-3.252,-4.5977,-8.254,-5.8054,-8.1905,-7.6923,-8.3736,8.2051,5.7778,-6.5359,-6.5385
-0.06289,-3.746,-0.64725,0.64725,3.252,2.3718,3.8647,-1.3462,1.868,0.64725,3.252,1.9704,-1.9048,-0.70175,-1.2063,-3.2051,-1.2882,4.359,4.5079,1.9608,-2.6923
2.4528,1.3333,3.2362,-14.239,1.3008,3.6538,14.171,2.5,5.0886,-14.239,1.3008,6.5681,0.63492,-0.0638,1.3333,0.0,1.9324,-7.1795,7.0476,0.0,-1.4103
0.56604,3.873,3.2362,-0.64725,1.9512,2.3718,11.594,-1.9872,1.2238,-0.64725,1.9512,6.5681,2.5397,-0.0638,0.69841,0.64103,1.9324,-9.1026,0.69841,-1.9608,-2.0513
-2.5786,2.6032,1.2945,5.8252,2.6016,-2.7564,4.5089,-4.5513,-0.70853,5.8252,2.6016,3.2841,3.1746,0.57416,-0.57143,0.64103,0.64412,-10.385,8.9524,-1.3072,-1.4103
-2.5786,3.2381,1.9417,-3.2362,1.3008,-2.1154,3.8647,-3.2692,-3.285,-3.2362,1.3008,2.6273,1.2698,3.126,-1.2063,1.9231,0.64412,-3.9744,5.1429,1.9608,2.4359
-2.5786,-1.2063,-1.2945,-0.64725,6.5041,-5.9615,-3.8647,-3.2692,-0.70853,-0.64725,6.5041,-3.9409,0.63492,1.2121,-1.2063,-1.2821,-1.2882,5.0,3.2381,0.65359,-2.0513
-1.3208,0.69841,-1.2945,1.9417,3.9024,-5.3205,-9.0177,-0.0641,8.3092,1.9417,3.9024,-5.2545,3.8095,5.0399,1.3333,1.2821,0.64412,1.1538,-13.905,2.6144,1.7949
-6.9811,2.6032,-4.5307,-9.0615,-4.5528,-5.9615,-4.5089,-5.8333,2.5121,-9.0615,-4.5528,-5.9113,0.63492,4.4019,-2.4762,1.2821,-0.64412,1.7949,-5.6508,-1.9608,3.7179
-4.4654,0.69841,-3.2362,-1.9417,-4.5528,-1.4744,3.8647,-6.4744,2.5121,-1.9417,-4.5528,-2.6273,-1.9048,2.488,-2.4762,0.64103,-0.64412,-2.6923,5.7778,-5.2288,6.9231
2.4528,-0.57143,0.64725,3.2362,-4.5528,6.2179,2.5765,4.4231,1.868,3.2362,-4.5528,3.2841,0.0,1.8501,2.6032,0.64103,1.9324,3.7179,11.492,3.268,4.359
0.56604,-3.746,-1.9417,-5.8252,3.9024,4.2949,0.0,5.7051,-3.9291,-5.8252,3.9024,1.3136,-4.4444,-5.1675,-1.2063,-4.4872,-3.2206,-0.76923,3.2381,-3.9216,-3.9744
-1.9497,-3.746,-3.8835,-9.7087,-2.6016,2.3718,4.5089,5.0641,-1.3527,-9.7087,-2.6016,-0.65681,-9.5238,-9.6332,-7.5556,-7.0513,-8.3736,-5.2564,-4.381,-12.418,-6.5385
-1.3208,-1.8413,-2.589,-5.178,-1.9512,1.0897,1.9324,3.141,1.868,-5.178,-1.9512,-1.3136,-10.159,-6.4434,-7.5556,-5.1282,-7.7295,-0.76923,-2.4762,-9.8039,-3.3333
-0.69182,-4.381,-1.9417,8.4142,10.407,-0.19231,-8.3736,0.57692,7.0209,8.4142,10.407,-3.2841,-6.3492,-4.5295,-5.0159,-5.1282,-6.4412,6.9231,8.9524,-7.8431,-5.2564
0.56604,0.69841,1.9417,16.827999,6.5041,1.0897,-3.2206,-3.9103,2.5121,16.827999,6.5041,1.3136,2.5397,4.4019,1.3333,1.2821,0.64412,6.9231,0.69841,-0.65359,1.1538
1.8239,3.2381,3.8835,3.2362,-3.9024,-0.19231,7.0853,-3.2692,1.868,3.2362,-3.9024,5.2545,5.0794,3.764,4.5079,2.5641,4.5089,-12.308,1.9683,-1.3072,-0.76923
-1.3208,1.9683,3.2362,-4.5307,-3.9024,-0.83333,5.7971,-1.9872,2.5121,-4.5307,-3.9024,3.2841,3.8095,2.488,3.873,2.5641,5.7971,-2.0513,-3.746,-3.268,-2.6923
1.195,4.5079,6.4725,3.2362,-1.9512,-2.1154,9.0177,-7.1154,3.8003,3.2362,-1.9512,3.2841,9.5238,8.2297,7.6825,5.7692,10.306,-4.6154,-1.8413,4.5752,0.51282
0.56604,3.2381,5.8252,-1.9417,0.0,-4.0385,1.9324,-7.7564,-0.70853,-1.9417,0.0,0.65681,11.429,8.8676,8.3175,5.7692,10.95,-6.5385,5.1429,5.2288,1.1538
2.4528,7.6825,9.7087,-11.65,11.057,-0.83333,3.2206,-9.0385,0.57971,-11.65,11.057,4.5977,12.698,10.144,10.222,9.6154,14.171,1.1538,4.5079,7.8431,3.7179
-0.06289,8.3175,7.767,-15.534,11.707,-2.1154,8.3736,-3.2692,1.2238,-15.534,11.707,3.2841,12.063,10.781,8.9524,9.6154,12.882,-1.4103,-2.4762,6.5359,3.0769
-5.7233,-1.2063,-1.2945,-8.4142,-7.8049,-8.5256,-0.64412,-18.013,-1.9968,-8.4142,-7.8049,-3.9409,6.3492,6.3158,1.9683,0.64103,5.153,-10.385,-6.9206,2.6144,-3.3333
-8.8679,-5.6508,-5.8252,-6.4725,-7.8049,-6.6026,-10.306,-14.808,2.5121,-6.4725,-7.8049,-6.5681,2.5397,4.4019,-3.1111,-3.2051,-0.64412,-20.641001,-6.2857,1.9608,-3.3333
-5.7233,-3.746,-3.2362,1.9417,-11.057,-2.7564,1.2882,2.5,0.57971,1.9417,-11.057,-1.3136,2.5397,5.0399,-3.1111,-2.5641,-1.2882,2.4359,1.3333,2.6144,2.4359
-3.2075,-3.746,-3.2362,5.8252,-7.1545,-0.83333,-3.2206,-1.9872,-0.06441,5.8252,-7.1545,-1.3136,-2.5397,0.57416,-4.381,-3.8462,-4.5089,-13.59,4.5079,-0.65359,3.0769
-5.0943,-6.2857,-5.8252,6.4725,7.8049,-3.3974,-9.6618,-4.5513,-1.9968,6.4725,7.8049,-3.2841,-8.254,-1.9777,-10.095,-7.0513,-8.3736,-2.0513,-0.57143,-8.4967,-0.76923
-3.2075,-1.2063,-2.589,-3.2362,12.358,0.44872,0.64412,3.141,4.4444,-3.2362,12.358,0.65681,-5.7143,0.57416,-7.5556,-2.5641,-5.153,6.2821,6.4127,-9.8039,5.0
7.4843,2.6032,4.5307,-7.767,-5.2033,11.987,12.238,13.397,1.868,-7.767,-5.2033,9.8522,-0.63492,1.8501,1.3333,1.9231,0.0,15.897,0.69841,-1.9608,6.9231
8.1132,5.7778,5.8252,13.592,5.8537,11.987,7.7295,4.4231,-9.7262,13.592,5.8537,10.509,-1.2698,1.2121,2.6032,3.8462,1.2882,10.128,-8.8254,-2.6144,3.7179
9.3711,7.0476,6.4725,22.006001,20.813,9.4231,-0.64412,9.5513,3.8003,22.006001,20.813,7.8818,-1.2698,1.8501,4.5079,6.4103,3.8647,-8.4615,-1.2063,-2.6144,3.7179
12.516,10.222,9.0615,21.358999,7.8049,7.5,3.8647,12.115,12.818,21.358999,7.8049,8.5386,1.2698,4.4019,8.9524,9.6154,7.7295,1.7949,1.3333,4.5752,4.359
6.8553,12.127,9.0615,12.298,2.6016,4.9359,5.7971,1.859,12.174,12.298,2.6016,7.225,4.4444,10.781,7.6825,13.462,10.306,4.359,7.0476,4.5752,8.2051
2.4528,5.7778,5.178,-2.589,1.9512,2.3718,1.2882,2.5,8.9533,-2.589,1.9512,3.2841,3.8095,10.144,5.1429,10.256,8.3736,3.0769,4.5079,2.6144,8.8462
-3.2075,-4.381,-2.589,-25.243,-7.1545,-0.83333,-0.64412,-3.9103,1.2238,-25.243,-7.1545,-1.9704,-1.2698,5.0399,0.06349,1.2821,1.9324,1.1538,1.3333,1.3072,2.4359
-5.7233,-8.8254,-6.4725,-20.712,-4.5528,-4.0385,-3.2206,-11.603,-8.438,-20.712,-4.5528,-5.2545,0.0,3.764,-1.8413,-4.4872,-1.2882,-9.1026,1.3333,3.9216,-0.12821
-8.8679,-8.8254,-7.1197,0.64725,-7.1545,-6.6026,-5.153,-8.3974,-11.659,0.64725,-7.1545,-6.5681,1.2698,1.2121,-4.381,-7.6923,-4.5089,-5.2564,-3.1111,0.65359,-3.9744
-6.9811,-5.0159,-3.8835,12.298,-1.3008,-7.2436,-1.9324,-5.8333,-2.6409,12.298,-1.3008,-3.2841,0.0,-3.2536,-5.0159,-8.3333,-6.4412,-7.8205,-8.8254,1.9608,-5.2564
-3.2075,1.3333,-0.64725,14.887,3.9024,-2.7564,0.64412,-1.9872,-1.9968,14.887,3.9024,-0.65681,-0.63492,-4.5295,-3.1111,-4.4872,-5.7971,-1.4103,-17.079,2.6144,-2.6923
-3.2075,0.69841,-1.9417,1.2945,4.5528,-0.83333,3.2206,-1.3462,-3.285,1.2945,4.5528,0.65681,0.0,-5.8054,-2.4762,-5.1282,-6.4412,8.2051,-2.4762,6.5359,-5.8974
-2.5786,5.1429,-0.64725,-7.1197,-1.9512,3.0128,10.306,-3.2692,1.868,-7.1197,-1.9512,3.2841,1.9048,-1.9777,-0.57143,0.0,-2.5765,-3.9744,0.69841,9.1503,-3.9744
6.2264,3.873,2.589,1.2945,5.8537,6.859,9.6618,2.5,8.9533,1.2945,5.8537,7.225,3.1746,0.57416,3.873,1.9231,0.64412,-5.2564,6.4127,8.4967,-0.76923
8.7421,-1.2063,1.9417,4.5307,13.008,6.859,-0.64412,1.859,5.0886,4.5307,13.008,3.2841,2.5397,-0.0638,4.5079,0.0,-0.64412,17.179001,7.0476,6.5359,-0.12821
8.7421,1.9683,3.8835,12.298,3.252,3.6538,0.0,8.2692,8.3092,12.298,3.252,3.2841,1.9048,-0.70175,5.1429,1.9231,-1.2882,27.436001,4.5079,9.8039,1.1538
8.1132,0.69841,0.64725,-6.4725,-3.9024,-0.19231,-2.5765,10.192,8.3092,-6.4725,-3.9024,0.65681,-0.63492,-5.1675,3.2381,-0.64103,-3.8647,6.9231,4.5079,7.1895,1.7949
1.8239,2.6032,-3.2362,-4.5307,-2.6016,1.0897,-2.5765,2.5,-0.06441,-4.5307,-2.6016,-1.9704,-3.8095,-2.6156,-3.1111,0.0,-6.4412,-0.12821,8.9524,-1.9608,5.641
-5.7233,0.06349,-7.1197,0.64725,-3.252,-3.3974,-5.153,3.7821,-3.285,0.64725,-3.252,-6.5681,-5.0794,-0.0638,-7.5556,-1.9231,-7.0853,-14.231,7.6825,-7.1895,2.4359
-10.755,3.2381,-7.1197,-1.9417,-0.65041,-8.5256,-2.5765,-9.0385,-10.37,-1.9417,-0.65041,-7.8818,-6.3492,1.2121,-9.4603,1.2821,-5.7971,-12.949,-6.9206,-7.8431,8.2051
-12.642,0.69841,-5.8252,-7.767,-13.008,-8.5256,1.2882,-8.3974,-10.37,-7.767,-13.008,-5.9113,-5.0794,2.488,-9.4603,1.2821,-3.8647,-2.0513,2.6032,-5.8824,8.2051
-8.239,-6.2857,-4.5307,-7.1197,-7.8049,-5.9615,-6.4412,-4.5513,-1.3527,-7.1197,-7.8049,-6.5681,-3.1746,1.2121,-6.2857,-1.2821,-1.2882,-3.3333,10.857,-3.268,3.7179
-4.4654,-6.9206,-2.589,-13.592,1.9512,-5.9615,-10.306,-3.9103,5.7327,-13.592,1.9512,-7.225,-2.5397,0.57416,-3.746,-2.5641,0.0,-7.8205,1.3333,-5.2288,0.51282
-2.5786,-2.4762,0.64725,-0.64725,-3.9024,-4.6795,-3.8647,-1.9872,1.2238,-0.64725,-3.9024,-3.9409,0.63492,2.488,-1.2063,-1.9231,0.64412,-5.2564,-15.175,-1.3072,-0.12821
2.4528,-3.746,1.9417,4.5307,-1.9512,-0.19231,-0.64412,-4.5513,-3.285,4.5307,-1.9512,-1.3136,2.5397,-0.70175,0.06349,-5.7692,-1.9324,-11.667,-3.746,2.6144,-2.6923
0.56604,-5.6508,0.0,-6.4725,-5.8537,-2.1154,-6.4412,-1.9872,-1.9968,-6.4725,-5.8537,-3.2841,5.0794,-0.70175,0.06349,-7.0513,-3.8647,2.4359,5.1429,1.9608,-4.6154
4.3396,0.69841,2.589,5.178,-7.8049,3.0128,-4.5089,9.5513,-5.2174,5.178,-7.8049,0.65681,7.619,0.57416,3.2381,-1.9231,-0.64412,5.0,-6.2857,5.2288,0.51282
4.9686,8.3175,5.8252,5.8252,1.9512,4.9359,-0.64412,-0.70513,-9.0821,5.8252,1.9512,1.9704,5.7143,-1.3397,5.7778,4.4872,1.9324,1.7949,-11.365,5.2288,1.1538
8.1132,13.397,9.7087,-2.589,2.6016,3.6538,16.103001,-3.2692,-7.7939,-2.589,2.6016,7.8818,8.8889,-0.70175,8.9524,8.3333,6.4412,10.128,-1.2063,7.8431,-0.76923
11.258,11.492,12.298,7.767,7.1545,4.9359,14.171,6.3462,0.57971,7.767,7.1545,7.8818,6.9841,1.2121,10.857,9.6154,9.0177,1.1538,8.3175,9.1503,-1.4103
8.1132,6.4127,9.0615,6.4725,15.61,1.0897,-1.2882,-0.70513,11.53,6.4725,15.61,2.6273,2.5397,-2.6156,7.6825,7.0513,7.7295,5.0,8.9524,3.268,-2.0513
4.9686,6.4127,7.1197,-3.8835,6.5041,0.44872,-0.64412,-1.3462,14.75,-3.8835,6.5041,3.2841,0.0,-1.9777,5.1429,7.0513,7.0853,6.9231,12.127,-0.65359,1.7949
3.0818,7.0476,5.8252,-1.9417,-4.5528,0.44872,7.0853,-7.1154,14.106,-1.9417,-4.5528,4.5977,-2.5397,1.2121,2.6032,6.4103,5.153,-7.8205,7.6825,-0.65359,6.2821
-3.8365,7.0476,0.64725,5.178,-1.9512,-0.83333,1.9324,-8.3974,7.6651,5.178,-1.9512,0.65681,-5.7143,1.8501,-3.1111,5.1282,0.64412,-18.077,3.2381,-7.8431,7.5641
-5.0943,3.2381,-3.2362,-12.298,1.9512,-0.83333,-2.5765,-1.9872,1.2238,-12.298,1.9512,-2.6273,-6.3492,1.8501,-5.0159,3.8462,-2.5765,-5.2564,9.5873,-9.8039,11.41
-3.8365,1.9683,-3.8835,-4.5307,-1.3008,-3.3974,1.2882,-2.6282,-3.9291,-4.5307,-1.3008,-3.9409,-3.8095,2.488,-3.1111,3.2051,-3.2206,12.051,11.492,-3.9216,11.41
-3.2075,1.9683,-4.5307,-7.1197,-9.1057,-6.6026,-2.5765,-4.5513,-8.438,-7.1197,-9.1057,-6.5681,0.0,3.764,-0.57143,4.4872,-1.2882,17.179001,-1.2063,2.6144,10.128
-1.3208,-6.2857,-6.4725,-5.178,-7.1545,-4.0385,-8.3736,-1.3462,-15.523,-5.178,-7.1545,-8.5386,-2.5397,1.2121,-1.2063,-1.9231,-3.2206,-14.231,-0.57143,1.9608,3.0769
1.195,-6.2857,-2.589,-1.2945,-5.8537,-2.1154,-10.306,7.6282,-6.5056,-1.2945,-5.8537,-7.225,-4.4444,-0.0638,0.06349,-3.2051,-1.9324,-0.76923,1.9683,1.9608,-2.0513
3.0818,-3.1111,0.64725,-4.5307,-11.707,-1.4744,-8.3736,6.9872,3.8003,-4.5307,-11.707,-1.9704,-2.5397,-0.0638,1.3333,-3.2051,0.64412,10.769,0.69841,3.9216,-3.9744
-0.69182,-5.0159,-1.9417,-0.64725,-12.358,-3.3974,-5.153,1.2179,-4.5733,-0.64725,-12.358,-3.2841,-1.2698,-1.9777,0.06349,-5.1282,-1.2882,11.41,-8.1905,6.5359,-2.0513
-2.5786,-8.1905,-5.8252,-5.8252,-1.9512,-4.0385,-3.2206,7.6282,-10.37,-5.8252,-1.9512,-6.5681,-2.5397,-7.7193,-2.4762,-10.897,-6.4412,12.051,-10.73,4.5752,-8.4615
-3.8365,-12.635,-9.0615,-9.7087,-3.252,-0.19231,-4.5089,5.7051,-13.591,-9.7087,-3.252,-6.5681,-8.254,-15.375,-7.5556,-16.667,-13.527,-8.4615,-11.365,-1.3072,-15.513
-1.3208,-8.1905,-7.767,5.8252,0.65041,2.3718,-5.7971,8.2692,-7.1498,5.8252,0.65041,-2.6273,-8.8889,-10.909,-8.1905,-11.538,-12.882,9.4872,-2.4762,-0.65359,-7.1795
-8.239,-8.8254,-10.356,3.8835,5.8537,-3.3974,-13.527,-7.7564,7.6651,3.8835,5.8537,-6.5681,-6.3492,-7.0813,-10.73,-9.6154,-13.527,21.667,-1.8413,-2.6144,-5.2564
-6.9811,-5.0159,-8.4142,3.2362,9.7561,-3.3974,-8.3736,-6.4744,7.0209,3.2362,9.7561,-3.2841,-3.8095,-7.0813,-10.095,-5.7692,-10.306,-2.6923,-0.57143,-5.2288,-7.1795
2.4528,7.6825,3.8835,11.65,6.5041,5.5769,10.306,10.833,0.57971,11.65,6.5041,9.8522,0.63492,-3.2536,-0.57143,3.8462,-0.64412,-2.0513,4.5079,-2.6144,-3.9744
14.403,19.746,17.476,16.827999,14.309,18.396999,24.476999,17.243999,8.9533,16.827999,14.309,24.959,6.9841,5.0399,11.492,15.385,12.238,6.9231,10.222,3.268,5.0
14.403,18.476,18.122999,3.2362,23.415001,19.679001,20.612,12.756,14.75,3.2362,23.415001,21.018,5.0794,5.0399,12.762,14.103,12.882,12.051,5.1429,3.268,3.7179
11.887,13.397,14.239,7.767,13.008,14.551,13.527,5.0641,7.0209,7.767,13.008,13.793,1.9048,2.488,10.857,10.897,12.238,-2.0513,3.2381,0.0,1.1538
11.258,9.5873,12.945,16.181,-0.65041,8.7821,9.0177,1.859,8.9533,16.181,-0.65041,11.166,5.7143,4.4019,13.397,9.6154,14.171,-11.026,0.69841,1.3072,3.0769
6.8553,2.6032,7.1197,9.7087,3.9024,3.6538,1.9324,-1.3462,6.3768,9.7087,3.9024,3.9409,3.1746,2.488,8.3175,2.5641,9.6618,-12.308,2.6032,-3.9216,-1.4103
3.0818,1.3333,3.2362,0.0,10.407,0.44872,-1.2882,-3.9103,1.2238,0.0,10.407,-1.3136,3.1746,-0.70175,5.1429,-1.9231,5.153,6.2821,-16.444,-0.65359,-4.6154
1.195,-5.0159,-0.64725,-0.64725,-2.6016,-2.7564,-5.7971,5.7051,-8.438,-0.64725,-2.6016,-3.9409,2.5397,-2.6156,3.873,-6.4103,1.2882,16.538,-10.73,5.8824,-8.4615
0.56604,-12.0,-3.2362,-8.4142,-16.26,-5.3205,-7.7295,3.141,-13.591,-8.4142,-16.26,-4.5977,-1.2698,-5.8054,-0.57143,-10.897,-3.8647,7.5641,-3.746,4.5752,-13.59
2.4528,-6.9206,0.0,-18.122999,-12.358,-0.19231,0.0,8.9103,-14.235,-18.122999,-12.358,0.0,0.0,-3.2536,-0.57143,-5.7692,-1.9324,1.1538,-5.0159,3.9216,-10.385
3.0818,-1.2063,1.9417,1.2945,-5.2033,1.7308,0.64412,3.7821,-9.0821,1.2945,-5.2033,0.65681,2.5397,1.8501,1.3333,0.0,1.2882,6.9231,-10.095,5.2288,0.51282
1.8239,-0.57143,1.9417,13.592,-0.65041,1.7308,-7.0853,2.5,-15.523,13.592,-0.65041,-2.6273,3.8095,1.8501,1.9683,2.5641,2.5765,-0.76923,-11.365,6.5359,4.359
8.7421,4.5079,7.767,16.181,2.6016,8.7821,-1.9324,12.756,-8.438,16.181,2.6016,5.9113,6.3492,3.126,8.3175,7.0513,7.0853,-4.6154,0.06349,8.4967,8.8462
13.145,2.6032,9.0615,14.887,9.7561,10.705,-4.5089,12.115,2.5121,14.887,9.7561,6.5681,7.619,3.126,12.127,6.4103,8.3736,16.538,3.2381,11.111,3.0769
15.66,1.9683,10.356,6.4725,16.26,9.4231,0.0,5.0641,-0.70853,6.4725,16.26,7.225,8.8889,1.8501,12.762,5.1282,7.7295,15.897,-1.2063,12.418,-0.12821
15.66,4.5079,13.592,7.1197,3.252,13.91,5.153,0.57692,-5.2174,7.1197,3.252,11.823,8.254,6.9537,12.127,8.3333,9.6618,13.974,-8.8254,7.8431,7.5641
11.887,3.2381,11.003,-2.589,-1.3008,10.705,7.0853,3.7821,-7.1498,-2.589,-1.3008,11.166,5.0794,7.5917,8.9524,7.0513,9.0177,11.41,-20.254,1.9608,6.9231
4.3396,-1.2063,4.5307,-9.0615,-5.8537,3.0128,5.153,-3.2692,-9.7262,-9.0615,-5.8537,3.2841,6.3492,8.8676,6.4127,3.8462,7.7295,3.0769,-4.381,0.0,2.4359
0.56604,-3.1111,0.64725,-5.178,-18.211,-0.83333,-0.64412,-10.321,-13.591,-5.178,-18.211,-0.65681,6.3492,8.8676,4.5079,1.9231,7.0853,-13.59,0.69841,-1.3072,4.359
-3.8365,-8.1905,-3.2362,-0.64725,-6.5041,-5.9615,-12.882,-15.449,-5.2174,-0.64725,-6.5041,-6.5681,5.7143,8.2297,1.3333,-1.9231,3.2206,-12.949,-0.57143,2.6144,4.359
-9.4969,-8.8254,-7.1197,-11.003,4.5528,-12.372,-13.527,-16.09,3.1562,-11.003,4.5528,-9.8522,3.8095,6.9537,-1.8413,-5.1282,-0.64412,-3.9744,-1.2063,-1.3072,3.7179
-9.4969,-6.2857,-5.8252,-16.181,-3.9024,-11.731,-3.8647,-12.885,4.4444,-16.181,-3.9024,-6.5681,3.1746,3.764,-2.4762,-6.4103,-1.2882,-13.59,-2.4762,-3.268,0.51282
-0.06289,-2.4762,0.64725,-11.65,-5.2033,-4.0385,0.64412,-8.3974,1.868,-11.65,-5.2033,0.0,5.7143,3.764,4.5079,-1.2821,3.2206,-22.563999,-6.2857,2.6144,-1.4103
1.8239,-0.57143,3.2362,-14.239,-1.3008,1.0897,0.0,-4.5513,-1.9968,-14.239,-1.3008,3.2841,5.7143,1.8501,5.1429,0.64103,4.5089,-9.1026,-11.365,2.6144,-4.6154
0.56604,2.6032,3.8835,12.945,4.5528,-0.19231,3.8647,-0.70513,-5.2174,12.945,4.5528,3.2841,6.9841,1.2121,5.1429,1.9231,4.5089,-1.4103,-14.54,4.5752,-7.8205
4.3396,1.3333,5.8252,27.832001,3.9024,3.6538,8.3736,1.859,-8.438,27.832001,3.9024,6.5681,7.619,0.57416,6.4127,1.9231,5.153,5.0,-9.4603,7.8431,-11.026
10.0,2.6032,9.0615,11.65,3.252,11.346,5.153,9.5513,-6.5056,11.65,3.252,10.509,11.429,3.764,9.5873,5.7692,9.0177,22.948999,-10.095,14.379,-7.8205
12.516,8.3175,11.65,19.417,6.5041,14.551,4.5089,18.525999,-9.0821,19.417,6.5041,12.479,13.333,10.144,10.222,12.179,12.238,28.718,-27.872999,15.686,3.0769
11.887,3.2381,8.4142,12.945,1.3008,14.551,-2.5765,23.013,-9.7262,12.945,1.3008,9.1954,8.8889,7.5917,8.3175,9.6154,9.6618,21.025999,-17.079,11.765,4.359
11.887,-1.2063,6.4725,6.4725,6.5041,15.192,-0.64412,23.013,-7.7939,6.4725,6.5041,7.225,3.1746,2.488,4.5079,3.2051,5.153,8.2051,-5.0159,1.9608,-2.6923
8.7421,0.69841,5.178,5.178,5.2033,9.4231,2.5765,14.038,2.5121,5.178,5.2033,5.2545,-0.63492,1.2121,1.9683,0.0,1.9324,2.4359,-5.0159,-1.9608,-5.2564
0.56604,-1.2063,0.64725,6.4725,-1.9512,3.0128,5.153,2.5,3.1562,6.4725,-1.9512,3.9409,-2.5397,-1.9777,-2.4762,-3.8462,-1.9324,5.641,-1.2063,-5.8824,-4.6154
-1.3208,-6.2857,-3.8835,1.9417,-5.8537,-0.19231,-3.2206,3.141,-1.9968,1.9417,-5.8537,-2.6273,0.63492,-3.8915,-2.4762,-6.4103,-3.2206,-11.026,0.06349,-5.2288,-4.6154
-3.8365,-5.6508,-5.8252,-9.7087,-5.2033,-5.3205,-7.7295,1.2179,1.2238,-9.7087,-5.2033,-7.225,1.2698,1.2121,-0.57143,-2.5641,0.64412,6.2821,-1.8413,-4.5752,5.641
-11.384,-8.1905,-9.7087,-3.2362,-5.2033,-12.372,-13.527,-1.9872,-7.7939,-3.2362,-5.2033,-13.793,-4.4444,-0.0638,-5.0159,-3.2051,-1.2882,6.2821,7.0476,-13.725,4.359
-8.239,-5.0159,-8.4142,-1.9417,-8.4553,-10.449,-10.95,-5.1923,-1.9968,-1.9417,-8.4553,-11.823,-4.4444,0.57416,-3.746,-0.64103,-0.64412,-7.8205,7.6825,-11.111,3.7179
-6.3522,-0.57143,-6.4725,-14.887,1.3008,-7.2436,-3.8647,-1.3462,9.5974,-14.887,1.3008,-8.5386,-2.5397,0.57416,-4.381,1.9231,-1.2882,-12.308,8.9524,-5.8824,5.0
-6.3522,2.6032,-5.8252,-16.181,1.9512,-5.3205,5.7971,-1.3462,10.242,-16.181,1.9512,-5.2545,-5.0794,-1.9777,-6.9206,1.9231,-4.5089,-33.462002,9.5873,-9.1503,6.2821
-13.27,-1.2063,-9.7087,-5.178,0.65041,-10.449,6.4412,-7.1154,10.886,-5.178,0.65041,-6.5681,-5.7143,-0.0638,-10.73,-0.64103,-7.7295,-16.153999,5.7778,-9.8039,5.0
-16.415001,-1.8413,-12.945,1.9417,-5.2033,-17.5,-4.5089,-7.1154,7.0209,1.9417,-5.2033,-11.823,-5.7143,1.2121,-11.365,-1.2821,-7.7295,3.7179,-1.2063,-8.4967,4.359
-10.755,-1.2063,-9.7087,3.8835,-5.2033,-16.218,-4.5089,-12.885,-0.06441,3.8835,-5.2033,-10.509,-1.2698,1.8501,-6.2857,0.64103,-3.2206,-11.026,10.857,-5.8824,1.7949
-5.0943,2.6032,-3.8835,-3.2362,0.0,-9.1667,-3.8647,-9.0385,3.8003,-3.2362,0.0,-7.8818,5.7143,6.3158,1.9683,5.1282,3.2206,1.7949,9.5873,4.5752,3.0769
-0.69182,0.06349,-3.8835,-17.476,-8.4553,-5.9615,-3.8647,-3.9103,-3.285,-17.476,-8.4553,-8.5386,6.9841,6.3158,4.5079,3.2051,4.5089,-7.8205,-1.8413,7.8431,3.0769
-3.2075,-2.4762,-5.178,-12.945,-14.309,-3.3974,-4.5089,-0.70513,-5.8615,-12.945,-14.309,-5.9113,4.4444,4.4019,3.2381,0.0,2.5765,-7.8205,-3.746,3.268,-0.12821
-1.3208,-3.1111,-2.589,1.2945,3.252,-0.83333,-4.5089,-1.9872,6.3768,1.2945,3.252,-2.6273,3.1746,3.126,3.2381,-1.2821,2.5765,-0.12821,3.873,4.5752,-0.12821
-0.69182,-1.8413,-1.2945,13.592,2.6016,0.44872,2.5765,-5.1923,1.2238,13.592,2.6016,0.0,4.4444,1.2121,3.2381,-1.2821,1.2882,0.51282,4.5079,5.2288,-1.4103
3.7107,5.1429,3.2362,13.592,-3.252,3.0128,10.306,-2.6282,8.9533,13.592,-3.252,4.5977,5.0794,3.126,5.1429,3.2051,3.2206,4.359,4.5079,3.9216,4.359
-1.3208,1.9683,-1.9417,-6.4725,-2.6016,-1.4744,2.5765,-3.2692,4.4444,-6.4725,-2.6016,-0.65681,-1.9048,-1.3397,-0.57143,-1.2821,-2.5765,-2.6923,17.205999,-1.9608,-0.76923
-3.2075,2.6032,-3.8835,-18.122999,1.9512,-5.3205,1.2882,-9.0385,7.6651,-18.122999,1.9512,-3.2841,-3.8095,0.57416,-3.1111,0.0,-3.2206,-5.8974,22.921,-3.9216,3.7179
-2.5786,5.1429,-1.2945,-9.7087,2.6016,-4.0385,0.0,-7.7564,15.395,-9.7087,2.6016,-1.3136,-1.9048,3.764,-1.2063,3.8462,0.0,-11.667,15.937,-4.5752,10.769
1.8239,8.3175,2.589,0.0,4.5528,1.0897,4.5089,-6.4744,12.174,0.0,4.5528,2.6273,-1.9048,5.6778,0.69841,6.4103,2.5765,-22.563999,3.873,-4.5752,10.128
0.56604,7.6825,3.8835,5.178,3.252,0.44872,10.306,-5.1923,13.462,5.178,3.252,5.2545,-3.1746,3.764,-0.57143,5.7692,1.9324,-8.4615,10.857,-6.5359,8.8462
-4.4654,7.6825,2.589,5.8252,-5.8537,-2.1154,14.815,-8.3974,15.395,5.8252,-5.8537,5.2545,-8.8889,-0.70175,-5.6508,3.8462,-0.64412,3.7179,15.302,-9.1503,5.641
-2.5786,7.0476,2.589,-6.4725,0.0,-0.83333,10.95,-14.167,12.818,-6.4725,0.0,3.9409,-8.8889,-1.9777,-3.746,3.2051,-0.64412,-16.153999,23.556,-8.4967,3.7179
-6.9811,3.873,0.0,0.0,8.4553,-4.6795,1.2882,-13.526,14.106,0.0,8.4553,0.65681,-8.8889,-4.5295,-6.2857,0.64103,-1.9324,-12.949,19.746,-9.8039,-1.4103
-5.7233,5.7778,1.2945,1.9417,13.008,-0.83333,4.5089,-4.5513,12.818,1.9417,13.008,2.6273,-6.9841,-3.2536,-5.6508,1.9231,-1.9324,-22.563999,3.873,-9.1503,1.7949
-8.8679,-1.2063,-4.5307,-1.2945,11.707,-2.7564,2.5765,-3.9103,1.868,-1.2945,11.707,-1.3136,-6.3492,-7.7193,-9.4603,-6.4103,-7.7295,-25.128,0.69841,-10.458,-6.5385
-6.9811,-5.0159,-4.5307,0.0,3.252,-4.0385,3.2206,-3.2692,-0.70853,0.0,3.252,-1.3136,-3.1746,-8.3573,-8.8254,-10.256,-9.0177,-5.2564,3.873,-5.8824,-12.308
-0.06289,-1.2063,1.2945,-2.589,-1.9512,-1.4744,2.5765,-9.0385,-1.3527,-2.589,-1.9512,1.9704,1.9048,-7.0813,-2.4762,-6.4103,-4.5089,12.692,-5.0159,5.2288,-12.949
4.9686,1.3333,6.4725,5.8252,-10.407,2.3718,3.8647,0.57692,-11.014,5.8252,-10.407,5.9113,1.9048,-5.8054,1.9683,-2.5641,-0.64412,15.256,-9.4603,6.5359,-10.385
8.7421,3.873,7.767,5.8252,-10.407,4.9359,0.0,-0.70513,-9.0821,5.8252,-10.407,5.2545,3.8095,-0.70175,5.1429,2.5641,2.5765,4.359,-8.8254,11.111,-1.4103
8.7421,2.6032,5.8252,-1.9417,3.252,2.3718,-3.2206,-1.9872,-2.6409,-1.9417,3.252,1.3136,7.619,1.2121,8.3175,3.2051,4.5089,-7.1795,-8.1905,14.379,-0.12821
6.8553,5.7778,5.178,-15.534,1.3008,5.5769,-1.9324,5.0641,-1.9968,-15.534,1.3008,1.9704,7.619,3.764,8.3175,6.4103,5.153,-9.7436,-13.905,11.765,3.7179
8.1132,8.3175,7.767,-8.4142,-1.3008,10.064,11.594,1.859,-0.70853,-8.4142,-1.3008,8.5386,7.619,5.6778,8.9524,8.9744,7.7295,-5.8974,3.2381,8.4967,6.2821
