C3,C4,Cz,F1,F2,F3,F4,F7,F8,Fp1,Fp2,Fz,O1,O2,P3,P4,Pz,T3,T4,T5,T6
-11.823,-15.142,-14.063,-17.646999,-17.540001,-13.471,-13.131,-11.83,-14.141,-17.646999,-17.540001,-11.707,-12.436,-9.6911,-14.07,-16.915001,-14.0,-0.067,-16.57,-13.662,-18.407
-12.808,-17.152,-16.052999,-17.646999,-18.511,-16.563999,-14.141,-16.732,-16.162001,-17.646999,-18.511,-12.683,-7.6282,-5.7886,-10.05,-15.92,-14.0,-8.1072,-22.395,0.13136,-15.48
-14.778,-20.167999,-19.038,-20.587999,-19.482,-16.563999,-16.162001,-20.653999,-16.162001,-20.587999,-19.482,-12.683,-8.5897,-9.6911,-13.065,-18.905001,-17.0,-25.193001,-22.395,-5.78,-17.431
-14.778,-19.162001,-18.042999,-18.627001,-19.482,-14.502,-15.152,-17.712,-17.172001,-18.627001,-19.482,-11.707,-5.7051,-6.7642,-12.06,-16.915001,-16.0,-21.173,-16.57,-10.706,-14.504
-16.749001,-22.177999,-20.033001,-17.646999,-18.511,-16.563999,-18.181999,-19.673,-19.191999,-17.646999,-18.511,-12.683,-9.5513,-14.569,-13.065,-20.896,-19.0,-17.152,-14.628,-9.7209,-17.431
-25.615999,-27.202999,-26.003,-23.528999,-20.452999,-23.780001,-23.232,-23.594999,-21.212,-23.528999,-20.452999,-21.462999,-19.167,-24.325001,-23.115999,-26.865999,-27.0,-12.127,-18.511,-18.587999,-23.285
-25.615999,-27.202999,-26.997999,-19.608,-18.511,-22.749001,-23.232,-19.673,-19.191999,-19.608,-18.511,-22.438999,-21.09,-24.325001,-25.125999,-25.871,-28.0,-19.162001,-28.219999,-20.558001,-20.358
-18.719,-26.198,-26.003,-16.667,-16.57,-17.594999,-22.222,-11.83,-18.181999,-16.667,-16.57,-20.488001,-16.282,-18.472,-19.094999,-22.886,-24.0,-21.173,-30.162001,-10.706,-16.455
-20.690001,-29.212999,-28.988001,-17.646999,-20.452999,-20.687,-27.273001,-19.673,-21.212,-17.646999,-20.452999,-23.415001,-15.321,-16.52,-20.101,-22.886,-24.0,-14.137,-20.452999,-14.647,-13.528
-18.719,-24.188,-25.007999,-12.745,-13.657,-15.533,-21.212,-14.771,-14.141,-12.745,-13.657,-18.537001,-11.474,-8.7154,-17.084999,-18.905001,-20.0,-4.0871,-12.686,-11.691,-6.6992
-22.66,-22.177999,-25.007999,-12.745,-13.657,-18.625,-19.191999,-11.83,-11.111,-12.745,-13.657,-18.537001,-14.359,-8.7154,-22.111,-19.9,-22.0,-9.1122,-7.8317,-13.662,-8.6504
-24.631001,-25.193001,-27.993,-20.587999,-21.424,-21.718,-23.232,-16.732,-15.152,-20.587999,-21.424,-24.389999,-22.051001,-14.569,-26.131001,-23.881001,-26.0,-14.137,-11.715,-15.632,-16.455
-15.764,-19.162001,-21.028,-19.608,-20.452999,-16.563999,-20.202,-12.81,-14.141,-19.608,-20.452999,-18.537001,-15.321,-8.7154,-17.084999,-17.91,-19.0,-13.132,-12.686,-8.7356,-11.577
-15.764,-20.167999,-20.033001,-20.587999,-21.424,-17.594999,-20.202,-14.771,-16.162001,-20.587999,-21.424,-18.537001,-12.436,-9.6911,-16.08,-16.915001,-18.0,-16.146999,-23.365999,-12.677,-12.553
-12.808,-17.152,-16.052999,-18.627001,-18.511,-17.594999,-17.172001,-12.81,-12.121,-18.627001,-18.511,-16.584999,-5.7051,-8.7154,-13.065,-12.935,-14.0,-6.0972,-13.657,-13.662,-10.602
-8.867,-14.137,-11.078,-18.627001,-17.540001,-16.563999,-15.152,-16.732,-12.121,-18.627001,-17.540001,-15.61,-2.8205,-5.7886,-9.0452,-10.945,-10.0,-8.1072,-6.8608,-7.7504,-6.6992
-15.764,-19.162001,-15.058,-22.549,-22.395,-22.749001,-21.212,-20.653999,-17.172001,-22.549,-22.395,-20.488001,-7.6282,-10.667,-15.075,-15.92,-15.0,-31.223,-21.424,-8.7356,-11.577
-22.66,-23.183001,-21.028,-25.49,-24.337,-27.903999,-26.263,-20.653999,-20.202,-25.49,-24.337,-26.341,-16.282,-18.472,-23.115999,-21.891001,-21.0,-19.162001,-13.657,-14.647,-17.431
-18.719,-24.188,-21.028,-26.471001,-22.395,-29.966,-26.263,-26.535999,-20.202,-26.471001,-22.395,-27.316999,-15.321,-17.496,-21.106001,-21.891001,-21.0,-20.167999,-21.424,-13.662,-17.431
-21.674999,-24.188,-21.028,-25.49,-22.395,-30.997,-27.273001,-29.476999,-21.212,-25.49,-22.395,-27.316999,-15.321,-19.447001,-22.111,-22.886,-21.0,-24.188,-29.191,-12.677,-19.382
-22.66,-24.188,-20.033001,-25.49,-24.337,-28.934999,-28.283001,-25.556,-23.232,-25.49,-24.337,-27.316999,-9.5513,-15.545,-17.084999,-20.896,-17.0,-2.0771,-26.278,-10.706,-20.358
-17.733999,-23.183001,-17.048,-28.431,-27.249001,-30.997,-30.302999,-30.458,-26.263,-28.431,-27.249001,-26.341,-4.7436,-9.6911,-12.06,-16.915001,-13.0,-16.146999,-25.306999,-12.677,-18.407
-16.749001,-18.157,-13.068,-30.392,-28.219999,-27.903999,-25.253,-27.516001,-22.222,-30.392,-28.219999,-24.389999,-6.6667,-8.7154,-10.05,-13.93,-9.0,-45.292999,-15.599,-13.662,-16.455
-14.778,-14.137,-9.0879,-28.431,-25.306999,-24.811001,-19.191999,-25.556,-16.162001,-28.431,-25.306999,-19.511999,-2.8205,-3.8374,-7.0352,-9.9502,-6.0,-31.223,-7.8317,-8.7356,-11.577
-10.837,-14.137,-8.0929,-25.49,-24.337,-20.687,-17.172001,-25.556,-18.181999,-25.49,-24.337,-16.584999,-3.7821,-2.8618,-5.0251,-9.9502,-6.0,-6.0972,-12.686,-4.7947,-9.626
-12.808,-15.142,-10.083,-20.587999,-20.452999,-17.594999,-16.162001,-20.653999,-16.162001,-20.587999,-20.452999,-13.659,-8.5897,-8.7154,-10.05,-13.93,-11.0,-10.117,-13.657,-9.7209,-11.577
-11.823,-18.157,-13.068,-22.549,-21.424,-16.563999,-18.181999,-23.594999,-17.172001,-22.549,-21.424,-16.584999,-7.6282,-9.6911,-7.0352,-15.92,-12.0,-6.0972,-22.395,-3.8095,-14.504
-3.9409,-8.1072,-7.0978,-21.569,-20.452999,-14.502,-15.152,-19.673,-12.121,-21.569,-20.452999,-13.659,0.0641,-3.8374,1.005,-6.9652,-4.0,-7.1022,-9.7735,2.1018,-7.6748
1.9704,4.9581,2.8524,-16.667,-14.628,-7.2852,-4.0404,-10.85,-4.0404,-16.667,-14.628,-4.878,7.7564,4.9431,8.0402,3.9801,5.0,-14.137,6.7314,7.0279,3.0569
-3.9409,2.9481,1.8574,-17.646999,-14.628,-9.3471,-4.0404,-7.9085,-7.0707,-17.646999,-14.628,-3.9024,0.0641,-2.8618,2.0101,0.99502,2.0,-21.173,-3.9482,2.1018,-1.8211
-6.8966,-3.0821,-2.1227,-18.627001,-16.57,-11.409,-6.0606,-16.732,-13.131,-18.627001,-16.57,-7.8049,-3.7821,-11.642,-2.0101,-4.9751,-3.0,-7.1022,-17.540001,2.1018,-10.602
-4.9261,-1.072,-2.1227,-18.627001,-15.599,-11.409,-6.0606,-19.673,-10.101,-18.627001,-15.599,-6.8293,-2.8205,-9.6911,0.0,-4.9751,-3.0,15.008,-6.8608,5.0575,-8.6504
-1.9704,1.943,-2.1227,-18.627001,-14.628,-10.378,-3.0303,-17.712,-7.0707,-18.627001,-14.628,-5.8537,-3.7821,-9.6911,0.0,-2.9851,-4.0,1.943,5.7605,4.0722,-5.7236
-8.867,-1.072,-7.0978,-21.569,-18.511,-16.563999,-7.0707,-22.614,-11.111,-21.569,-18.511,-9.7561,-5.7051,-9.6911,-7.0352,-5.9701,-9.0,-2.0771,1.877,-0.85386,-4.748
-14.778,-7.1022,-12.073,-22.549,-21.424,-20.687,-11.111,-22.614,-13.131,-22.549,-21.424,-14.634,-5.7051,-7.7398,-12.06,-8.9552,-13.0,-19.162001,-10.744,-6.7652,-2.7967
-20.690001,-10.117,-17.048,-21.569,-18.511,-22.749001,-13.131,-21.634001,-10.101,-21.569,-18.511,-18.537001,-5.7051,-6.7642,-15.075,-9.9502,-15.0,-30.218,-8.8026,-10.706,-1.8211
-20.690001,-11.122,-19.038,-24.51,-20.452999,-24.811001,-15.152,-20.653999,-9.0909,-24.51,-20.452999,-22.438999,-7.6282,-6.7642,-15.075,-11.94,-16.0,-12.127,-5.89,-5.78,-3.7724
-29.556999,-21.173,-28.988001,-37.255001,-31.132999,-35.119999,-27.273001,-27.516001,-18.181999,-37.255001,-31.132999,-34.146,-16.282,-14.569,-24.121,-22.886,-25.0,-9.1122,-14.628,-14.647,-13.528
-25.615999,-21.173,-25.007999,-32.353001,-30.162001,-30.997,-28.283001,-25.556,-19.191999,-32.353001,-30.162001,-30.243999,-11.474,-9.6911,-20.101,-20.896,-22.0,-16.146999,-14.628,-13.662,-9.626
-18.719,-19.162001,-20.033001,-27.451,-25.306999,-23.780001,-25.253,-21.634001,-16.162001,-27.451,-25.306999,-25.365999,-9.5513,-7.7398,-17.084999,-18.905001,-19.0,-8.1072,-7.8317,-12.677,-9.626
-21.674999,-21.173,-21.028,-28.431,-26.278,-27.903999,-27.273001,-20.653999,-18.181999,-28.431,-26.278,-27.316999,-13.397,-12.618,-18.09,-19.9,-20.0,-13.132,-5.89,-11.691,-14.504
-22.66,-19.162001,-19.038,-25.49,-23.365999,-25.841999,-24.242001,-17.712,-17.172001,-25.49,-23.365999,-25.365999,-11.474,-11.642,-16.08,-16.915001,-17.0,-21.173,-15.599,-12.677,-12.553
-15.764,-12.127,-12.073,-16.667,-18.511,-17.594999,-20.202,-13.791,-12.121,-16.667,-18.511,-18.537001,-8.5897,-8.7154,-13.065,-10.945,-11.0,-8.1072,-14.628,-14.647,-8.6504
-6.8966,-6.0972,-4.1128,-11.765,-14.628,-10.378,-13.131,-7.9085,-7.0707,-11.765,-14.628,-11.707,1.0256,-2.8618,-5.0251,-4.9751,-5.0,2.9481,0.90615,-6.7652,-4.748
0.98522,-0.067,1.8574,-9.8039,-10.744,-6.2543,-7.0707,-5.9477,-4.0404,-9.8039,-10.744,-3.9024,8.7179,2.0163,2.0101,0.99502,1.0,-12.127,5.7605,3.087,1.1057
-0.98522,2.9481,2.8524,-10.784,-10.744,-5.2234,-3.0303,-8.8889,-3.0303,-10.784,-10.744,-1.9512,8.7179,4.9431,1.005,3.9801,3.0,-2.0771,4.7896,4.0722,5.9837
3.9409,7.9732,8.8226,-10.784,-11.715,-3.1615,0.0,-7.9085,-2.0202,-10.784,-11.715,2.9268,10.641,8.8455,5.0251,7.9602,7.0,8.9782,6.7314,7.0279,10.862
0.98522,4.9581,6.8325,-15.686,-15.599,-3.1615,-1.0101,-10.85,-4.0404,-15.686,-15.599,0.97561,4.8718,2.9919,2.0101,0.99502,2.0,5.9631,1.877,5.0575,2.0813
-7.8818,-2.0771,0.86235,-16.667,-15.599,-7.2852,-4.0404,-16.732,-6.0606,-16.667,-15.599,-2.9268,-3.7821,-7.7398,-6.0302,-7.9602,-7.0,-17.152,-3.9482,-1.8391,-8.6504
-15.764,-11.122,-7.0978,-24.51,-24.337,-14.502,-13.131,-20.653999,-16.162001,-24.51,-24.337,-10.732,-12.436,-15.545,-16.08,-15.92,-16.0,-28.208,-9.7735,-12.677,-15.48
-14.778,-15.142,-11.078,-29.412001,-31.132999,-16.563999,-18.181999,-19.673,-24.242001,-29.412001,-31.132999,-15.61,-14.359,-14.569,-15.075,-17.91,-18.0,-19.162001,-22.395,-11.691,-15.48
-16.749001,-13.132,-13.068,-29.412001,-28.219999,-18.625,-17.172001,-17.712,-18.181999,-29.412001,-28.219999,-16.584999,-21.09,-12.618,-17.084999,-15.92,-18.0,-18.157,-18.511,-16.617001,-12.553
-15.764,-9.1122,-11.078,-27.451,-22.395,-18.625,-14.141,-22.614,-11.111,-27.451,-22.395,-14.634,-17.243999,-8.7154,-14.07,-11.94,-14.0,-13.132,-5.89,-13.662,-7.6748
-6.8966,-3.0821,-4.1128,-18.627001,-14.628,-11.409,-7.0707,-17.712,-4.0404,-18.627001,-14.628,-6.8293,-5.7051,-2.8618,-6.0302,-4.9751,-6.0,9.9832,-0.06472,-6.7652,0.13008
-4.9261,-1.072,-3.1177,-15.686,-13.657,-9.3471,-6.0606,-13.791,-3.0303,-15.686,-13.657,-6.8293,-2.8205,-1.8862,-4.0201,-2.9851,-4.0,0.93802,10.615,-5.78,3.0569
-6.8966,-4.0871,-6.1028,-12.745,-12.686,-10.378,-8.0808,-13.791,-7.0707,-12.745,-12.686,-7.8049,1.9872,-1.8862,-4.0201,-2.9851,-4.0,-14.137,0.90615,-3.8095,-0.84553
-13.793,-10.117,-12.073,-13.725,-13.657,-13.471,-12.121,-18.693001,-12.121,-13.725,-13.657,-12.683,-0.89744,-5.7886,-10.05,-8.9552,-10.0,-21.173,-14.628,-12.677,-10.602
-12.808,-8.1072,-11.078,-11.765,-9.7735,-13.471,-9.0909,-14.771,-10.101,-11.765,-9.7735,-9.7561,-4.7436,-5.7886,-11.055,-7.9602,-10.0,-28.208,-8.8026,-13.662,-6.6992
-13.793,-7.1022,-10.083,-12.745,-9.7735,-10.378,-8.0808,-5.9477,-7.0707,-12.745,-9.7735,-8.7805,-9.5513,-12.618,-13.065,-8.9552,-11.0,-13.132,0.90615,-14.647,-6.6992
-22.66,-15.142,-18.042999,-18.627001,-19.482,-18.625,-16.162001,-15.752,-12.121,-18.627001,-19.482,-15.61,-22.051001,-26.275999,-25.125999,-18.905001,-21.0,-0.067,-9.7735,-25.483999,-14.504
-13.793,-9.1122,-12.073,-11.765,-12.686,-9.3471,-8.0808,-10.85,-6.0606,-11.765,-12.686,-8.7805,-21.09,-19.447001,-19.094999,-13.93,-16.0,0.93802,5.7605,-18.587999,-6.6992
-22.66,-19.162001,-22.023001,-18.627001,-18.511,-19.656,-17.172001,-17.712,-8.0808,-18.627001,-18.511,-18.537001,-29.743999,-24.325001,-26.131001,-21.891001,-25.0,-19.162001,-6.8608,-20.558001,-16.455
-22.66,-24.188,-26.997999,-26.471001,-25.306999,-25.841999,-21.212,-24.575001,-13.131,-26.471001,-25.306999,-24.389999,-30.705,-23.35,-26.131001,-24.875999,-29.0,-31.223,-23.365999,-16.617001,-15.48
-26.601,-21.173,-26.997999,-27.451,-25.306999,-26.872999,-20.202,-21.634001,-13.131,-27.451,-25.306999,-24.389999,-30.705,-21.398001,-30.150999,-23.881001,-30.0,-15.142,-11.715,-18.587999,-14.504
-34.483002,-25.193001,-32.967999,-29.412001,-26.278,-28.934999,-25.253,-25.556,-15.152,-29.412001,-26.278,-29.268,-34.550999,-27.252001,-39.195999,-29.851,-37.0,-23.183001,-12.686,-29.424999,-20.358
-23.645,-19.162001,-25.007999,-27.451,-24.337,-23.780001,-21.212,-18.693001,-13.131,-27.451,-24.337,-25.365999,-21.09,-17.496,-26.131001,-21.891001,-28.0,-6.0972,-7.8317,-21.544001,-14.504
-18.719,-15.142,-21.028,-24.51,-21.424,-23.780001,-18.181999,-20.653999,-10.101,-24.51,-21.424,-23.415001,-13.397,-14.569,-18.09,-17.91,-22.0,-11.122,9.644,-16.617001,-13.528
-13.793,-14.137,-16.052999,-23.528999,-21.424,-19.656,-18.181999,-19.673,-12.121,-23.528999,-21.424,-20.488001,-7.6282,-10.667,-13.065,-14.925,-16.0,-23.183001,-0.06472,-12.677,-10.602
-7.8818,-13.132,-11.078,-17.646999,-17.540001,-12.44,-15.152,-12.81,-11.111,-17.646999,-17.540001,-15.61,-4.7436,-6.7642,-8.0402,-11.94,-11.0,-13.132,-14.628,-8.7356,-6.6992
-5.9113,-10.117,-9.0879,-14.706,-14.628,-7.2852,-11.111,-8.8889,-6.0606,-14.706,-14.628,-11.707,-8.5897,-10.667,-10.05,-12.935,-11.0,11.993,-7.8317,-9.7209,-7.6748
0.98522,-6.0972,-6.1028,-11.765,-11.715,-4.1924,-9.0909,-4.9673,-5.0505,-11.765,-11.715,-7.8049,-12.436,-12.618,-7.0352,-11.94,-10.0,7.9732,-1.0356,-11.691,-10.602
1.9704,-3.0821,-3.1177,-9.8039,-9.7735,-0.06873,-7.0707,-7.9085,-5.0505,-9.8039,-9.7735,-4.878,-14.359,-13.593,-3.0151,-8.9552,-6.0,-18.157,-1.0356,-11.691,-7.6748
2.9557,2.9481,1.8574,-3.9216,-6.8608,5.0859,-3.0303,2.8758,-3.0303,-3.9216,-6.8608,1.9512,-15.321,-15.545,-1.005,-3.9801,-2.0,-16.146999,4.7896,-11.691,-5.7236
0.98522,-0.067,1.8574,-4.902,-9.7735,5.0859,-3.0303,0.91503,-8.0808,-4.902,-9.7735,2.9268,-24.936001,-25.301001,-6.0302,-6.9652,-6.0,-1.072,-0.06472,-13.662,-9.626
-0.98522,-4.0871,0.86235,-3.9216,-10.744,3.0241,-5.0505,-3.9869,-13.131,-3.9216,-10.744,3.9024,-27.820999,-30.179001,-12.06,-12.935,-12.0,3.9531,-14.628,-16.617001,-17.431
0.98522,-2.0771,-0.13267,-3.9216,-8.8026,4.055,-2.0202,-3.0065,-10.101,-3.9216,-8.8026,3.9024,-23.974001,-24.325001,-13.065,-11.94,-14.0,9.9832,-16.57,-18.587999,-11.577
5.9113,2.9481,2.8524,-1.9608,-6.8608,6.1168,2.0202,2.8758,-5.0505,-1.9608,-6.8608,7.8049,-14.359,-11.642,-6.0302,-4.9751,-7.0,0.93802,1.877,-4.7947,-4.748
5.9113,2.9481,3.8474,-5.8824,-4.9191,6.1168,4.0404,-0.06536,-4.0404,-5.8824,-4.9191,6.8293,-3.7821,2.0163,-1.005,0.0,-2.0,-5.0921,11.586,1.1166,-2.7967
0.98522,-3.0821,0.86235,-6.8627,-4.9191,3.0241,2.0202,-5.9477,-5.0505,-6.8627,-4.9191,5.8537,1.9872,3.9675,-1.005,-1.99,-3.0,-17.152,-8.8026,-0.85386,-4.748
-5.9113,-4.0871,-3.1177,-6.8627,-2.9773,-1.0997,5.0505,-4.9673,-3.0303,-6.8627,-2.9773,4.878,0.0641,-0.91057,-5.0251,-3.9801,-5.0,-3.0821,-9.7735,-4.7947,-7.6748
-3.9409,-0.067,-2.1227,-4.902,-1.0356,-3.1615,8.0808,-8.8889,3.0303,-4.902,-1.0356,5.8537,-4.7436,-2.8618,-6.0302,-2.9851,-4.0,8.9782,-3.9482,-9.7209,-5.7236
1.9704,4.9581,3.8474,0.0,3.8188,3.0241,13.131,-6.9281,8.0808,0.0,3.8188,11.707,-6.6667,-3.8374,-4.0201,-0.99502,-1.0,-11.122,-3.9482,-10.706,-4.748
-1.9704,5.9631,2.8524,0.0,3.8188,3.0241,13.131,-4.9673,8.0808,0.0,3.8188,10.732,-13.397,-9.6911,-7.0352,-1.99,-3.0,-18.157,13.528,-7.7504,-3.7724
-6.8966,2.9481,-0.13267,-0.98039,1.877,-1.0997,7.0707,-4.9673,3.0303,-0.98039,1.877,5.8537,-14.359,-9.6911,-7.0352,-2.9851,-5.0,-8.1072,17.410999,-2.8243,-2.7967
-3.9409,-1.072,-1.1277,-2.9412,1.877,-1.0997,5.0505,-3.9869,2.0202,-2.9412,1.877,1.9512,-10.513,-8.7154,-5.0251,-3.9801,-5.0,-0.067,-3.9482,-5.78,-1.8211
-0.98522,-3.0821,-2.1227,-2.9412,1.877,-1.0997,3.0303,-5.9477,2.0202,-2.9412,1.877,1.9512,-6.6667,-6.7642,-6.0302,-3.9801,-5.0,2.9481,-4.9191,-5.78,-2.7967
-4.9261,-5.0921,-4.1128,-5.8824,-1.0356,-4.1924,-1.0101,-8.8889,-1.0101,-5.8824,-1.0356,-2.9268,-7.6282,-7.7398,-9.0452,-5.9701,-6.0,-5.0921,-6.8608,-10.706,-7.6748
-5.9113,-7.1022,-6.1028,-4.902,-2.9773,-4.1924,-3.0303,-0.06536,-3.0303,-4.902,-2.9773,-1.9512,-12.436,-12.618,-13.065,-8.9552,-8.0,-16.146999,-13.657,-23.514,-10.602
-6.8966,-4.0871,-4.1128,-4.902,-2.9773,-3.1615,-4.0404,-3.0065,-2.0202,-4.902,-2.9773,-2.9268,-13.397,-11.642,-11.055,-5.9701,-7.0,-5.0921,3.8188,-20.558001,-8.6504
0.0,0.93802,1.8574,-3.9216,-1.0356,-2.1306,-3.0303,-6.9281,-2.0202,-3.9216,-1.0356,0.0,-10.513,-9.6911,-6.0302,0.0,-2.0,-0.067,9.644,-13.662,-3.7724
2.9557,2.9481,4.8425,-4.902,-1.0356,-1.0997,-2.0202,-6.9281,-2.0202,-4.902,-1.0356,0.0,-8.5897,-9.6911,-1.005,0.99502,-1.0,-8.1072,5.7605,-3.8095,-0.84553
-3.9409,-3.0821,-1.1277,-6.8627,-4.9191,-4.1924,-7.0707,-9.8693,-6.0606,-6.8627,-4.9191,-3.9024,-9.5513,-9.6911,-5.0251,-4.9751,-8.0,-8.1072,-3.9482,3.087,0.13008
-8.867,-13.132,-10.083,-9.8039,-11.715,-7.2852,-12.121,-5.9477,-11.111,-9.8039,-11.715,-9.7561,-11.474,-10.667,-10.05,-14.925,-17.0,-4.0871,-15.599,4.0722,-5.7236
-6.8966,-17.152,-14.063,-9.8039,-11.715,-7.2852,-14.141,1.8954,-10.101,-9.8039,-11.715,-10.732,-10.513,-9.6911,-13.065,-19.9,-21.0,-4.0871,-10.744,-3.8095,-9.626
-3.9409,-12.127,-10.083,-5.8824,-8.8026,-4.1924,-11.111,0.91503,-9.0909,-5.8824,-8.8026,-7.8049,-2.8205,-3.8374,-9.0452,-14.925,-16.0,11.993,-0.06472,-1.8391,-4.748
3.9409,-1.072,-0.13267,0.0,-3.9482,4.055,-3.0303,5.817,-3.0303,0.0,-3.9482,1.9512,12.564,5.9187,3.0151,-3.9801,-4.0,18.023001,8.6731,11.954,0.13008
6.8966,3.9531,3.8474,0.98039,-2.9773,8.1787,3.0303,7.7778,-1.0101,0.98039,-2.9773,6.8293,19.295,9.8211,5.0251,0.99502,3.0,4.9581,7.7023,10.969,-0.84553
2.9557,0.93802,2.8524,-2.9412,-4.9191,6.1168,3.0303,2.8758,-3.0303,-2.9412,-4.9191,4.878,10.641,5.9187,0.0,0.0,2.0,3.9531,-3.9482,1.1166,-1.8211
6.8966,2.9481,6.8325,0.0,-0.06472,7.1478,6.0606,2.8758,1.0101,0.0,-0.06472,6.8293,4.8718,4.9431,1.005,3.9801,4.0,9.9832,-1.0356,3.087,5.0081
-0.98522,-3.0821,1.8574,-3.9216,-3.9482,0.9622,0.0,1.8954,-3.0303,-3.9216,-3.9482,0.0,-5.7051,-4.813,-6.0302,-2.9851,-3.0,-2.0771,-4.9191,-7.7504,2.0813
-8.867,-6.0972,-5.1078,-7.8431,-8.8026,-4.1924,-4.0404,-0.06536,-8.0808,-7.8431,-8.8026,-4.878,-14.359,-11.642,-13.065,-8.9552,-11.0,-16.146999,7.7023,-13.662,0.13008
-7.8818,-3.0821,-4.1128,-4.902,-3.9482,-2.1306,0.0,0.91503,-3.0303,-4.902,-3.9482,-1.9512,-11.474,-8.7154,-9.0452,-8.9552,-11.0,0.93802,13.528,-3.8095,1.1057
-2.9557,-5.0921,-2.1227,-1.9608,-2.9773,0.9622,1.0101,-1.0458,0.0,-1.9608,-2.9773,1.9512,-3.7821,-1.8862,-5.0251,-8.9552,-10.0,4.9581,-7.8317,1.1166,-2.7967
0.98522,-8.1072,-3.1177,-3.9216,-2.9773,-0.06873,-1.0101,-3.0065,-3.0303,-3.9216,-2.9773,-1.9512,-2.8205,1.0407,-1.005,-6.9652,-8.0,12.998,-15.599,1.1166,-2.7967
3.9409,-4.0871,-2.1227,-3.9216,0.90615,-1.0997,0.0,-3.9869,-3.0303,-3.9216,0.90615,-1.9512,1.0256,6.8943,2.0101,-1.99,-3.0,0.93802,-7.8317,8.0131,5.0081
-7.8818,-3.0821,-5.1078,-6.8627,-1.0356,-3.1615,0.0,-5.9477,-3.0303,-6.8627,-1.0356,-3.9024,6.7949,10.797,-5.0251,-2.9851,-7.0,-21.173,7.7023,5.0575,3.0569
-17.733999,-5.0921,-9.0879,-8.8235,-5.89,-9.3471,-4.0404,-4.9673,-6.0606,-8.8235,-5.89,-6.8293,10.641,12.748,-13.065,-5.9701,-12.0,-21.173,8.6731,-3.8095,1.1057
-13.793,-12.127,-10.083,-11.765,-7.8317,-10.378,-8.0808,-12.81,-11.111,-11.765,-7.8317,-8.7805,11.603,12.748,-13.065,-8.9552,-12.0,-4.0871,-14.628,-3.8095,0.13008
-0.98522,-12.127,-6.1028,-7.8431,-4.9191,-7.2852,-8.0808,-11.83,-10.101,-7.8431,-4.9191,-4.878,10.641,10.797,-5.0251,-6.9652,-6.0,2.9481,-12.686,-0.85386,3.0569
0.0,-9.1122,-4.1128,-4.902,-2.9773,-2.1306,-4.0404,-3.0065,-8.0808,-4.902,-2.9773,-1.9512,3.9103,4.9431,-4.0201,-3.9801,-3.0,4.9581,-9.7735,-3.8095,2.0813
-0.98522,-3.0821,1.8574,-2.9412,-1.0356,1.9931,1.0101,1.8954,-7.0707,-2.9412,-1.0356,4.878,-4.7436,-3.8374,-5.0251,-4.9751,-2.0,-12.127,-6.8608,-6.7652,-6.6992
0.0,-1.072,3.8474,-4.902,-1.0356,4.055,4.0404,-3.9869,-6.0606,-4.902,-1.0356,7.8049,-12.436,-12.618,-8.0402,-9.9502,-5.0,-17.152,-5.89,-13.662,-16.455
0.98522,0.93802,3.8474,-3.9216,0.90615,4.055,7.0707,-7.9085,-3.0303,-3.9216,0.90615,10.732,-17.243999,-16.52,-8.0402,-10.945,-6.0,-4.0871,-2.9773,-17.603001,-15.48
-5.9113,-2.0771,-1.1277,-1.9608,1.877,0.9622,6.0606,-5.9477,-1.0101,-1.9608,1.877,6.8293,-22.051001,-19.447001,-13.065,-13.93,-12.0,-20.167999,-2.9773,-19.573,-15.48
-5.9113,-1.072,-0.13267,-0.98039,3.8188,-1.0997,6.0606,-11.83,3.0303,-0.98039,3.8188,6.8293,-9.5513,-7.7398,-9.0452,-6.9652,-8.0,-19.162001,-1.0356,-14.647,-2.7967
-1.9704,2.9481,4.8425,1.9608,6.7314,1.9931,9.0909,-13.791,6.0606,1.9608,6.7314,10.732,1.0256,4.9431,-1.005,1.99,-1.0,-21.173,3.8188,-10.706,9.8862
-0.98522,3.9531,5.8375,2.9412,8.6731,4.055,11.111,-7.9085,8.0808,2.9412,8.6731,11.707,-0.89744,1.0407,-2.0101,2.9851,-1.0,-9.1122,5.7605,-4.7947,9.8862
-0.98522,8.9782,6.8325,9.8039,14.498,9.2096,15.152,-1.0458,14.141,9.8039,14.498,15.61,3.9103,2.9919,-3.0151,5.9701,-1.0,0.93802,14.498,-0.85386,11.837
1.9704,11.993,8.8226,9.8039,15.469,13.333,16.162001,-3.0065,15.152,9.8039,15.469,15.61,9.6795,12.748,0.0,10.945,2.0,5.9631,25.177999,0.13136,18.667
4.9261,6.9682,7.8275,10.784,14.498,11.271,12.121,-3.0065,9.0909,10.784,14.498,14.634,16.41,14.699,4.0201,10.945,5.0,-3.0821,11.586,6.0427,11.837
6.8966,5.9631,10.813,8.8235,12.557,11.271,11.111,-4.9673,7.0707,8.8235,12.557,13.659,17.372,14.699,10.05,9.9502,9.0,-7.1022,3.8188,9.9836,4.0325
3.9409,5.9631,11.808,7.8431,8.6731,9.2096,8.0808,-1.0458,6.0606,7.8431,8.6731,11.707,5.8333,5.9187,7.0352,7.9602,9.0,-9.1122,-0.06472,6.0427,2.0813
8.867,12.998,17.778,12.745,14.498,15.395,15.152,-0.06536,12.121,12.745,14.498,17.561001,6.7949,7.8699,8.0402,12.935,13.0,0.93802,3.8188,8.9984,5.9837
1.9704,4.9581,12.803,7.8431,8.6731,9.2096,9.0909,-3.0065,5.0505,7.8431,8.6731,12.683,2.9487,0.06504,0.0,1.99,4.0,5.9631,-4.9191,1.1166,-7.6748
0.0,1.943,8.8226,5.8824,5.7605,7.1478,7.0707,-0.06536,2.0202,5.8824,5.7605,8.7805,1.9872,-3.8374,-2.0101,-2.9851,1.0,-0.067,-3.9482,-2.8243,-8.6504
1.9704,3.9531,8.8226,5.8824,6.7314,4.055,4.0404,-3.0065,1.0101,5.8824,6.7314,4.878,1.9872,-6.7642,2.0101,-0.99502,3.0,2.9481,1.877,-5.78,-5.7236
8.867,10.988,11.808,3.9216,2.8479,4.055,3.0303,-3.9869,-3.0303,3.9216,2.8479,2.9268,5.8333,-2.8618,11.055,6.9652,10.0,10.988,11.586,6.0427,0.13008
13.793,18.023001,18.773001,8.8235,9.644,7.1478,11.111,2.8758,3.0303,8.8235,9.644,10.732,11.603,5.9187,20.101,15.92,18.0,19.028,14.498,17.865,9.8862
12.808,18.023001,21.757999,14.706,17.410999,8.1787,15.152,6.7974,9.0909,14.706,17.410999,14.634,15.449,9.8211,19.094999,19.9,21.0,9.9832,3.8188,18.851,16.715
10.837,17.018,21.757999,14.706,17.410999,8.1787,16.162001,2.8758,10.101,14.706,17.410999,14.634,21.218,16.65,20.101,22.886,22.0,5.9631,12.557,24.761999,21.593
6.8966,11.993,17.778,13.725,14.498,8.1787,13.131,-0.06536,6.0606,13.725,14.498,12.683,20.256001,17.625999,14.07,16.915001,16.0,0.93802,3.8188,20.820999,16.715
13.793,15.008,17.778,12.745,10.615,14.364,13.131,9.7386,6.0606,12.745,10.615,14.634,27.948999,23.48,18.09,15.92,17.0,17.018,13.528,23.777,14.764
23.645,19.028,18.773001,11.765,8.6731,17.457001,15.152,12.68,9.0909,11.765,8.6731,17.561001,29.872,23.48,21.106001,15.92,18.0,22.044001,24.207001,26.732,13.789
15.764,14.003,13.798,8.8235,5.7605,15.395,14.141,12.68,6.0606,8.8235,5.7605,15.61,20.256001,12.748,14.07,9.9502,12.0,2.9481,4.7896,17.865,5.0081
10.837,14.003,16.783001,8.8235,5.7605,14.364,16.162001,11.699,6.0606,8.8235,5.7605,18.537001,9.6795,2.9919,9.0452,6.9652,11.0,12.998,7.7023,8.0131,-1.8211
9.8522,11.993,17.778,7.8431,7.7023,15.395,18.181999,12.68,9.0909,7.8431,7.7023,19.511999,-0.89744,-2.8618,7.0352,3.9801,9.0,18.023001,1.877,4.0722,-5.7236
1.9704,6.9682,13.798,11.765,13.528,12.302,16.162001,9.7386,13.131,11.765,13.528,17.561001,-14.359,-16.52,-3.0151,-3.9801,0.0,4.9581,-2.0065,-5.78,-13.528
2.9557,6.9682,11.808,11.765,14.498,12.302,17.172001,5.817,10.101,11.765,14.498,17.561001,-16.282,-21.398001,-4.0201,-5.9701,-4.0,-6.0972,-2.9773,-5.78,-15.48
14.778,16.013,18.773001,13.725,16.440001,16.426001,21.212,11.699,11.111,13.725,16.440001,22.438999,-3.7821,-8.7154,6.0302,4.9751,5.0,-0.067,8.6731,1.1166,-1.8211
13.793,14.003,16.783001,15.686,19.353001,16.426001,19.191999,13.66,9.0909,15.686,19.353001,20.488001,1.0256,-0.91057,7.0352,8.9552,8.0,11.993,15.469,3.087,5.0081
6.8966,6.9682,10.813,17.646999,21.294001,12.302,15.152,12.68,11.111,17.646999,21.294001,15.61,1.9872,2.0163,7.0352,7.9602,8.0,15.008,8.6731,5.0575,8.9106
3.9409,7.9732,9.8176,19.608,25.177999,12.302,18.181999,15.621,14.141,19.608,25.177999,15.61,8.7179,7.8699,7.0352,9.9502,10.0,14.003,7.7023,6.0427,13.789
1.9704,14.003,14.793,22.549,28.091,11.271,21.212,11.699,15.152,22.549,28.091,19.511999,15.449,15.675,6.0302,13.93,13.0,1.943,3.8188,9.9836,17.691
5.9113,23.049,19.768,23.528999,30.032,15.395,27.273001,7.7778,17.172001,23.528999,30.032,22.438999,18.333,21.528,8.0402,20.896,18.0,0.93802,17.410999,9.9836,19.642
6.8966,22.044001,16.783001,21.569,27.120001,11.271,24.242001,7.7778,20.202,21.569,27.120001,18.537001,9.6795,14.699,8.0402,17.91,17.0,-8.1072,29.061001,7.0279,14.764
10.837,17.018,15.788,22.549,24.207001,13.333,20.202,8.7582,17.172001,22.549,24.207001,16.584999,9.6795,14.699,11.055,16.915001,16.0,8.9782,16.440001,8.9984,14.764
16.749001,17.018,21.757999,25.49,27.120001,16.426001,21.212,16.601,16.162001,25.49,27.120001,19.511999,18.333,24.455,18.09,19.9,19.0,19.028,11.586,13.924,21.593
18.719,15.008,21.757999,26.471001,30.032,16.426001,21.212,17.582001,19.191999,26.471001,30.032,19.511999,18.333,22.504,18.09,16.915001,17.0,17.018,13.528,13.924,20.618
15.764,10.988,15.788,23.528999,26.149,15.395,18.181999,19.542,14.141,23.528999,26.149,15.61,8.7179,13.724,12.06,11.94,11.0,18.023001,17.410999,8.9984,13.789
11.823,9.9832,9.8176,21.569,25.177999,10.241,14.141,10.719,14.141,21.569,25.177999,11.707,2.9487,4.9431,7.0352,6.9652,7.0,8.9782,8.6731,6.0427,5.0081
11.823,15.008,8.8226,25.49,29.061001,12.302,17.172001,12.68,21.212,25.49,29.061001,12.683,6.7949,-0.91057,12.06,8.9552,9.0,10.988,8.6731,12.939,2.0813
15.764,21.039,11.808,26.471001,31.003,14.364,20.202,16.601,26.263,26.471001,31.003,15.61,10.641,-4.813,18.09,10.945,12.0,5.9631,20.323999,19.836,1.1057
16.749001,23.049,14.793,22.549,27.120001,17.457001,23.232,12.68,22.222,22.549,27.120001,17.561001,14.487,1.0407,21.106001,12.935,15.0,5.9631,22.264999,22.791,5.9837
13.793,19.028,11.808,22.549,25.177999,14.364,21.212,12.68,20.202,22.549,25.177999,16.584999,16.41,7.8699,16.08,13.93,14.0,10.988,19.353001,15.895,15.74
6.8966,16.013,7.8275,22.549,27.120001,12.302,20.202,12.68,24.242001,22.549,27.120001,13.659,22.179001,22.504,11.055,18.905001,15.0,10.988,18.382,14.91,26.472
8.867,22.044001,15.788,26.471001,29.061001,17.457001,22.222,18.562,23.232,26.471001,29.061001,19.511999,35.640999,42.015999,16.08,31.841,25.0,4.9581,21.294001,23.777,39.153999
5.9113,16.013,11.808,23.528999,25.177999,15.395,19.191999,13.66,15.152,23.528999,25.177999,16.584999,36.603001,43.966999,13.065,29.851,23.0,-0.067,15.469,19.836,37.202999
8.867,14.003,10.813,26.471001,26.149,19.518999,21.212,13.66,13.131,26.471001,26.149,20.488001,32.756001,40.064999,15.075,26.865999,22.0,18.023001,13.528,18.851,30.374001
15.764,22.044001,17.778,30.392,31.974001,25.704,29.292999,19.542,21.212,30.392,31.974001,27.316999,27.948999,34.210999,20.101,27.861,25.0,5.9631,28.091,15.895,25.496
14.778,23.049,22.753,24.51,27.120001,20.549999,26.263,11.699,14.141,24.51,27.120001,26.341,15.449,20.552999,18.09,21.891001,22.0,7.9732,12.557,7.0279,17.691
20.690001,27.069,28.723,24.51,26.149,23.643,28.283001,11.699,15.152,24.51,26.149,27.316999,4.8718,7.8699,19.094999,17.91,20.0,22.044001,12.557,8.0131,10.862
20.690001,27.069,26.733,21.569,23.236,18.488001,25.253,12.68,15.152,21.569,23.236,23.415001,-0.89744,-0.91057,18.09,13.93,17.0,2.9481,15.469,8.0131,5.0081
20.690001,22.044001,18.773001,17.646999,17.410999,12.302,18.181999,9.7386,10.101,17.646999,17.410999,17.561001,0.0641,-2.8618,16.08,10.945,13.0,-3.0821,4.7896,8.9984,-0.84553
18.719,22.044001,18.773001,14.706,14.498,14.364,16.162001,9.7386,7.0707,14.706,14.498,15.61,6.7949,2.0163,17.084999,11.94,13.0,11.993,12.557,14.91,-0.84553
9.8522,16.013,17.778,11.765,9.644,11.271,11.111,7.7778,2.0202,11.765,9.644,13.659,5.8333,-0.91057,10.05,5.9701,6.0,5.9631,9.644,10.969,-1.8211
6.8966,10.988,15.788,7.8431,7.7023,7.1478,9.0909,4.8366,3.0303,7.8431,7.7023,9.7561,1.0256,-4.813,6.0302,0.0,1.0,-4.0871,-3.9482,9.9836,-2.7967
3.9409,10.988,10.813,6.8627,6.7314,5.0859,7.0707,3.8562,3.0303,6.8627,6.7314,7.8049,0.0641,-2.8618,4.0201,1.99,0.0,2.9481,7.7023,8.0131,5.0081
10.837,17.018,11.808,8.8235,9.644,10.241,12.121,7.7778,6.0606,8.8235,9.644,10.732,10.641,12.748,11.055,13.93,9.0,12.998,28.091,9.9836,19.642
9.8522,15.008,12.803,10.784,7.7023,12.302,10.101,13.66,1.0101,10.784,7.7023,12.683,11.603,20.552999,10.05,18.905001,13.0,8.9782,16.440001,6.0427,24.52
3.9409,11.993,13.798,7.8431,6.7314,8.1787,8.0808,9.7386,-1.0101,7.8431,6.7314,9.7561,13.526,24.455,10.05,19.9,15.0,8.9782,14.498,8.9984,23.545
4.9261,10.988,13.798,10.784,9.644,5.0859,7.0707,4.8366,1.0101,10.784,9.644,9.7561,21.218,26.407,14.07,16.915001,15.0,2.9481,13.528,14.91,22.569
5.9113,5.9631,8.8226,14.706,13.528,10.241,10.101,7.7778,3.0303,14.706,13.528,11.707,23.141001,23.48,14.07,8.9552,11.0,-3.0821,1.877,16.879999,16.715
-1.9704,-4.0871,-1.1277,13.725,13.528,6.1168,6.0606,5.817,2.0202,13.725,13.528,7.8049,15.449,15.675,5.0251,-0.99502,1.0,-7.1022,-9.7735,8.9984,7.935
-0.98522,-4.0871,-2.1227,10.784,12.557,6.1168,7.0707,8.7582,2.0202,10.784,12.557,6.8293,2.9487,5.9187,0.0,-5.9701,-4.0,7.9732,-4.9191,-1.8391,1.1057
7.8818,4.9581,6.8325,16.667,16.440001,11.271,12.121,13.66,5.0505,16.667,16.440001,13.659,-2.8205,-1.8862,1.005,-2.9851,-2.0,5.9631,9.644,-3.8095,1.1057
0.0,2.9481,4.8425,12.745,12.557,8.1787,8.0808,11.699,1.0101,12.745,12.557,7.8049,-10.513,-14.569,-5.0251,-7.9602,-6.0,-1.072,3.8188,-9.7209,-9.626
3.9409,2.9481,2.8524,12.745,11.586,9.2096,7.0707,11.699,2.0202,12.745,11.586,6.8293,-7.6282,-14.569,2.0101,-5.9701,-3.0,-1.072,5.7605,0.13136,-11.577
8.867,2.9481,1.8574,11.765,11.586,9.2096,6.0606,11.699,5.0505,11.765,11.586,4.878,-1.859,-7.7398,9.0452,-1.99,1.0,9.9832,3.8188,11.954,-6.6992
12.808,6.9682,5.8375,11.765,10.615,10.241,8.0808,12.68,6.0606,11.765,10.615,4.878,4.8718,-0.91057,12.06,5.9701,8.0,23.049,8.6731,14.91,3.0569
7.8818,4.9581,2.8524,12.745,8.6731,6.1168,3.0303,17.582001,3.0303,12.745,8.6731,0.97561,2.9487,1.0407,7.0352,9.9502,7.0,22.044001,3.8188,8.9984,6.9593
2.9557,1.943,-1.1277,4.902,0.90615,1.9931,-3.0303,13.66,-2.0202,4.902,0.90615,-4.878,7.7564,11.772,5.0251,12.935,8.0,5.9631,2.8479,7.0279,12.813
-3.9409,-6.0972,-9.0879,0.98039,-2.9773,-3.1615,-9.0909,8.7582,-6.0606,0.98039,-2.9773,-9.7561,9.6795,12.748,-1.005,5.9701,1.0,-5.0921,4.7896,1.1166,6.9593
-1.9704,-12.127,-13.068,-0.98039,-5.89,-2.1306,-11.111,11.699,-9.0909,-0.98039,-5.89,-11.707,15.449,16.65,4.0201,0.0,0.0,-2.0771,-3.9482,8.9984,5.0081
2.9557,-10.117,-8.0929,-3.9216,-7.8317,-0.06873,-9.0909,5.817,-10.101,-3.9216,-7.8317,-6.8293,23.141001,19.577,10.05,1.99,4.0,2.9481,-8.8026,17.865,6.9593
2.9557,-5.0921,-4.1128,-5.8824,-6.8608,-0.06873,-5.0505,1.8954,-6.0606,-5.8824,-6.8608,-3.9024,17.372,17.625999,9.0452,3.9801,5.0,29.079,-0.06472,13.924,9.8862
-2.9557,-7.1022,-6.1028,-7.8431,-9.7735,-6.2543,-7.0707,-1.0458,-10.101,-7.8431,-9.7735,-7.8049,0.0641,2.0163,-2.0101,-1.99,-2.0,-3.0821,-2.9773,-2.8243,1.1057
-2.9557,-3.0821,-2.1227,-2.9412,-2.9773,-3.1615,-2.0202,4.8366,-5.0505,-2.9412,-2.9773,-2.9268,-0.89744,-1.8862,-1.005,-1.99,-1.0,-5.0921,-8.8026,-0.85386,-1.8211
5.9113,-3.0821,-1.1277,0.0,0.90615,-1.0997,-1.0101,3.8562,-3.0303,0.0,0.90615,0.0,-6.6667,-7.7398,3.0151,-4.9751,-2.0,9.9832,-3.9482,0.13136,-7.6748
11.823,-3.0821,0.86235,0.0,2.8479,0.9622,0.0,4.8366,-4.0404,0.0,2.8479,0.97561,-12.436,-11.642,6.0302,-6.9652,-2.0,-1.072,-1.0356,1.1166,-9.626
7.8818,-1.072,1.8574,3.9216,5.7605,1.9931,2.0202,7.7778,-4.0404,3.9216,5.7605,2.9268,-15.321,-16.52,4.0201,-5.9701,-3.0,0.93802,-2.0065,7.0279,-8.6504
4.9261,0.93802,1.8574,4.902,4.7896,3.0241,3.0303,4.8366,-5.0505,4.902,4.7896,0.97561,-14.359,-15.545,5.0251,-2.9851,-1.0,6.9682,-9.7735,5.0575,-7.6748
13.793,12.998,9.8176,12.745,11.586,10.241,11.111,14.641,5.0505,12.745,11.586,8.7805,0.0641,-4.813,16.08,10.945,13.0,11.993,4.7896,10.969,2.0813
17.733999,18.023001,15.788,15.686,15.469,14.364,17.172001,21.503,11.111,15.686,15.469,13.659,5.8333,2.9919,20.101,18.905001,20.0,16.013,11.586,13.924,10.862
15.764,17.018,17.778,12.745,13.528,13.333,17.172001,13.66,9.0909,12.745,13.528,13.659,6.7949,8.8455,19.094999,20.896,23.0,16.013,10.615,12.939,13.789
18.719,18.023001,19.768,16.667,16.440001,16.426001,19.191999,15.621,8.0808,16.667,16.440001,17.561001,13.526,17.625999,19.094999,22.886,25.0,16.013,6.7314,13.924,20.618
6.8966,7.9732,9.8176,11.765,10.615,11.271,11.111,11.699,5.0505,11.765,10.615,9.7561,12.564,17.625999,9.0452,14.925,15.0,11.993,1.877,6.0427,14.764
4.9261,0.93802,2.8524,6.8627,3.8188,7.1478,4.0404,7.7778,-1.0101,6.8627,3.8188,4.878,8.7179,11.772,3.0151,6.9652,6.0,-0.067,1.877,2.1018,6.9593
0.0,-2.0771,1.8574,3.9216,1.877,4.055,0.0,6.7974,-7.0707,3.9216,1.877,0.97561,8.7179,8.8455,0.0,1.99,2.0,-12.127,-0.06472,-0.85386,1.1057
-1.9704,-1.072,2.8524,6.8627,3.8188,4.055,2.0202,6.7974,-5.0505,6.8627,3.8188,3.9024,5.8333,4.9431,-2.0101,0.0,1.0,-12.127,-2.9773,-5.78,0.13008
-4.9261,-6.0972,-5.1078,3.9216,3.8188,3.0241,0.0,4.8366,-4.0404,3.9216,3.8188,-0.97561,-11.474,-9.6911,-7.0352,-8.9552,-7.0,-9.1122,-5.89,-13.662,-7.6748
0.98522,-6.0972,-6.1028,4.902,1.877,3.0241,-2.0202,8.7582,-6.0606,4.902,1.877,-0.97561,-10.513,-14.569,-2.0101,-10.945,-7.0,3.9531,-5.89,-2.8243,-11.577
10.837,0.93802,3.8474,12.745,6.7314,14.364,4.0404,18.562,-4.0404,12.745,6.7314,6.8293,-2.8205,-7.7398,7.0352,-3.9801,1.0,20.034,-6.8608,1.1166,-8.6504
9.8522,1.943,6.8325,20.587999,14.498,18.488001,6.0606,27.386,1.0101,20.587999,14.498,10.732,-9.5513,-7.7398,3.0151,-2.9851,1.0,9.9832,-11.715,-6.7652,-6.6992
13.793,9.9832,10.813,17.646999,16.440001,16.426001,10.101,22.483999,5.0505,17.646999,16.440001,10.732,-8.5897,2.0163,9.0452,7.9602,8.0,9.9832,11.586,2.1018,10.862
19.704,17.018,10.813,18.627001,16.440001,14.364,11.111,18.562,10.101,18.627001,16.440001,10.732,-4.7436,6.8943,14.07,17.91,14.0,8.9782,25.177999,8.0131,23.545
23.645,19.028,12.803,19.608,20.323999,17.457001,15.152,20.523001,18.181999,19.608,20.323999,10.732,5.8333,13.724,23.115999,24.875999,20.0,6.9682,23.236,19.836,27.447001
16.749001,11.993,9.8176,15.686,16.440001,11.271,10.101,17.582001,16.162001,15.686,16.440001,5.8537,13.526,17.625999,21.106001,21.891001,19.0,14.003,16.440001,18.851,20.618
14.778,10.988,9.8176,13.725,13.528,9.2096,9.0909,16.601,16.162001,13.725,13.528,2.9268,18.333,18.601999,20.101,19.9,20.0,26.063999,16.440001,17.865,16.715
14.778,14.003,7.8275,13.725,15.469,7.1478,11.111,13.66,20.202,13.725,15.469,2.9268,22.179001,18.601999,20.101,18.905001,20.0,11.993,17.410999,17.865,15.74
11.823,12.998,2.8524,13.725,16.440001,6.1168,13.131,14.641,22.222,13.725,16.440001,4.878,18.333,13.724,16.08,13.93,15.0,4.9581,26.149,19.836,11.837
0.98522,7.9732,-2.1227,7.8431,15.469,1.9931,11.111,7.7778,16.162001,7.8431,15.469,2.9268,9.6795,4.9431,6.0302,5.9701,6.0,2.9481,22.264999,13.924,5.0081
0.0,2.9481,0.86235,10.784,15.469,5.0859,11.111,5.817,11.111,10.784,15.469,6.8293,9.6795,2.9919,2.0101,0.0,2.0,-16.146999,-2.9773,2.1018,1.1057
2.9557,-4.0871,-1.1277,12.745,12.557,8.1787,6.0606,13.66,4.0404,12.745,12.557,3.9024,-2.8205,-6.7642,-4.0201,-9.9502,-7.0,14.003,-13.657,-7.7504,-7.6748
0.0,-6.0972,-7.0978,11.765,10.615,3.0241,2.0202,10.719,4.0404,11.765,10.615,-0.97561,-18.205,-19.447001,-11.055,-16.915001,-16.0,16.013,-7.8317,-11.691,-15.48
-7.8818,-8.1072,-14.063,6.8627,6.7314,-1.0997,-1.0101,5.817,1.0101,6.8627,6.7314,-6.8293,-23.013,-25.301001,-15.075,-19.9,-21.0,-17.152,-8.8026,-17.603001,-20.358
-10.837,-6.0972,-12.073,7.8431,4.7896,-1.0997,-3.0303,9.7386,-1.0101,7.8431,4.7896,-4.878,-18.205,-23.35,-13.065,-14.925,-18.0,-12.127,4.7896,-10.706,-15.48
-7.8818,-5.0921,-7.0978,7.8431,4.7896,0.9622,-1.0101,8.7582,1.0101,7.8431,4.7896,-2.9268,-14.359,-16.52,-10.05,-7.9602,-12.0,3.9531,4.7896,-7.7504,-7.6748
0.0,1.943,1.8574,11.765,8.6731,5.0859,3.0303,11.699,6.0606,11.765,8.6731,2.9268,-3.7821,-3.8374,-1.005,1.99,-1.0,2.9481,1.877,0.13136,3.0569
12.808,9.9832,8.8226,9.8039,8.6731,9.2096,7.0707,10.719,10.101,9.8039,8.6731,5.8537,-1.859,4.9431,4.0201,8.9552,7.0,11.993,25.177999,1.1166,10.862
11.823,9.9832,10.813,6.8627,5.7605,7.1478,5.0505,9.7386,8.0808,6.8627,5.7605,3.9024,-1.859,9.8211,5.0251,9.9502,11.0,10.988,28.091,-0.85386,7.935
7.8818,-0.067,6.8325,2.9412,1.877,4.055,-1.0101,9.7386,1.0101,2.9412,1.877,-1.9512,-2.8205,9.8211,6.0302,6.9652,10.0,-2.0771,-17.540001,1.1166,0.13008
0.0,0.93802,6.8325,4.902,2.8479,3.0241,0.0,10.719,4.0404,4.902,2.8479,0.97561,-1.859,12.748,2.0101,8.9552,11.0,-8.1072,-21.424,-4.7947,2.0813
-2.9557,4.9581,6.8325,6.8627,6.7314,6.1168,4.0404,11.699,9.0909,6.8627,6.7314,3.9024,-2.8205,8.8455,-3.0151,6.9652,8.0,-6.0972,-9.7735,-8.7356,0.13008
-0.98522,3.9531,5.8375,7.8431,6.7314,7.1478,6.0606,14.641,11.111,7.8431,6.7314,5.8537,-5.7051,-0.91057,-6.0302,-0.99502,2.0,14.003,-11.715,-7.7504,-7.6748
-0.98522,-0.067,-0.13267,6.8627,7.7023,5.0859,4.0404,9.7386,9.0909,6.8627,7.7023,1.9512,-8.5897,-7.7398,-11.055,-7.9602,-5.0,10.988,-7.8317,-10.706,-12.553
4.9261,-2.0771,-1.1277,2.9412,2.8479,-0.06873,-1.0101,5.817,4.0404,2.9412,2.8479,-2.9268,-6.6667,-9.6911,-8.0402,-10.945,-7.0,-12.127,4.7896,-9.7209,-15.48
0.98522,-1.072,0.86235,0.0,-2.0065,-1.0997,-3.0303,4.8366,-1.0101,0.0,-2.0065,-2.9268,-2.8205,-10.667,-7.0352,-11.94,-7.0,-6.0972,13.528,-6.7652,-15.48
-4.9261,-0.067,1.8574,0.0,0.90615,1.9931,0.0,5.817,3.0303,0.0,0.90615,0.0,-4.7436,-11.642,-11.055,-11.94,-8.0,-4.0871,-0.06472,-13.662,-12.553
-1.9704,-0.067,-0.13267,5.8824,5.7605,6.1168,2.0202,6.7974,5.0505,5.8824,5.7605,2.9268,-5.7051,-12.618,-9.0452,-9.9502,-8.0,8.9782,-9.7735,-8.7356,-11.577
-2.9557,1.943,-1.1277,4.902,5.7605,4.055,3.0303,10.719,7.0707,4.902,5.7605,0.97561,-8.5897,-6.7642,-10.05,-4.9751,-7.0,3.9531,-9.7735,-4.7947,-3.7724
-13.793,-2.0771,-9.0879,2.9412,3.8188,-4.1924,-3.0303,4.8366,8.0808,2.9412,3.8188,-6.8293,-17.243999,-6.7642,-20.101,-3.9801,-14.0,-9.1122,-5.89,-11.691,-0.84553
-22.66,-17.152,-26.003,-2.9412,-2.9773,-14.502,-18.181999,1.8954,-1.0101,-2.9412,-2.9773,-23.415001,-26.858999,-14.569,-26.131001,-12.935,-25.0,-12.127,0.90615,-12.677,-5.7236
-20.690001,-26.198,-32.967999,-5.8824,-6.8608,-22.749001,-29.292999,-3.0065,-8.0808,-5.8824,-6.8608,-31.219999,-16.282,-4.813,-21.106001,-14.925,-25.0,-3.0821,-2.0065,-6.7652,-1.8211
-25.615999,-28.208,-34.959,-3.9216,-5.89,-22.749001,-28.283001,-0.06536,-10.101,-3.9216,-5.89,-32.195,-5.7051,2.0163,-18.09,-17.91,-22.0,1.943,-2.0065,-6.7652,0.13008
-19.704,-17.152,-21.028,0.98039,-0.06472,-15.533,-16.162001,1.8954,-4.0404,0.98039,-0.06472,-19.511999,2.9487,6.8943,-12.06,-13.93,-12.0,1.943,-2.9773,-8.7356,-4.748
-14.778,-12.127,-11.078,1.9608,0.90615,-6.2543,-6.0606,1.8954,0.0,1.9608,0.90615,-9.7561,6.7949,6.8943,-12.06,-11.94,-6.0,-22.177999,-12.686,-13.662,-11.577
-12.808,-7.1022,-5.1078,3.9216,2.8479,-2.1306,-2.0202,-1.0458,1.0101,3.9216,2.8479,-3.9024,16.41,11.772,-8.0402,-3.9801,1.0,-22.177999,-6.8608,-7.7504,-9.626
0.98522,1.943,1.8574,5.8824,5.7605,3.0241,3.0303,0.91503,5.0505,5.8824,5.7605,1.9512,19.295,17.625999,2.0101,6.9652,10.0,-17.152,-2.0065,-1.8391,3.0569
2.9557,5.9631,4.8425,3.9216,0.90615,1.9931,1.0101,0.91503,2.0202,3.9216,0.90615,1.9512,13.526,10.797,4.0201,9.9502,11.0,-24.188,0.90615,0.13136,7.935
-0.98522,4.9581,4.8425,0.0,-2.9773,-0.06873,-1.0101,-3.9869,-2.0202,0.0,-2.9773,-0.97561,13.526,6.8943,5.0251,4.9751,8.0,-5.0921,-3.9482,5.0575,5.9837
4.9261,2.9481,6.8325,3.9216,-2.0065,5.0859,0.0,-0.06536,-1.0101,3.9216,-2.0065,2.9268,14.487,5.9187,10.05,-0.99502,6.0,15.008,-8.8026,13.924,2.0813
7.8818,-0.067,4.8425,4.902,-0.06472,7.1478,3.0303,3.8562,0.0,4.902,-0.06472,6.8293,10.641,2.9919,9.0452,-5.9701,3.0,23.049,-3.9482,13.924,-4.748
11.823,2.9481,7.8275,3.9216,-1.0356,11.271,5.0505,4.8366,-3.0303,3.9216,-1.0356,11.707,10.641,9.8211,13.065,2.9851,9.0,19.028,1.877,16.879999,-0.84553
21.674999,12.998,15.788,9.8039,1.877,17.457001,9.0909,15.621,-3.0303,9.8039,1.877,16.584999,13.526,18.601999,23.115999,18.905001,22.0,4.9581,4.7896,21.806,8.9106
18.719,17.018,17.778,11.765,5.7605,17.457001,7.0707,22.483999,1.0101,11.765,5.7605,14.634,15.449,22.504,25.125999,26.865999,27.0,18.023001,11.586,28.702999,17.691
9.8522,14.003,12.803,12.745,6.7314,10.241,4.0404,17.582001,5.0505,12.745,6.7314,8.7805,10.641,17.625999,18.09,23.881001,23.0,7.9732,5.7605,16.879999,20.618
3.9409,9.9832,7.8275,12.745,8.6731,8.1787,3.0303,17.582001,11.111,12.745,8.6731,3.9024,8.7179,12.748,10.05,14.925,14.0,11.993,8.6731,7.0279,17.691
0.98522,2.9481,2.8524,14.706,10.615,6.1168,1.0101,15.621,11.111,14.706,10.615,0.97561,13.526,9.8211,3.0151,4.9751,5.0,23.049,20.323999,8.9984,10.862
0.98522,-3.0821,0.86235,11.765,5.7605,9.2096,-1.0101,13.66,3.0303,11.765,5.7605,0.0,10.641,8.8455,-4.0201,0.0,2.0,9.9832,2.8479,4.0722,5.9837
0.98522,-7.1022,-2.1227,6.8627,1.877,7.1478,-6.0606,11.699,-2.0202,6.8627,1.877,-0.97561,2.9487,2.9919,-9.0452,-0.99502,1.0,-10.117,-14.628,-7.7504,-2.7967
4.9261,-7.1022,-1.1277,1.9608,-1.0356,5.0859,-9.0909,4.8366,-6.0606,1.9608,-1.0356,-0.97561,5.8333,5.9187,-1.005,2.9851,7.0,1.943,-13.657,-4.7947,-5.7236
12.808,0.93802,5.8375,5.8824,1.877,8.1787,-4.0404,5.817,-1.0101,5.8824,1.877,4.878,15.449,13.724,14.07,9.9502,14.0,10.988,1.877,4.0722,0.13008
14.778,4.9581,7.8275,10.784,8.6731,8.1787,2.0202,7.7778,7.0707,10.784,8.6731,5.8537,19.295,12.748,21.106001,7.9602,13.0,-2.0771,4.7896,10.969,3.0569
3.9409,-4.0871,-1.1277,6.8627,2.8479,-2.1306,-6.0606,3.8562,0.0,6.8627,2.8479,-3.9024,12.564,2.0163,14.07,-4.9751,1.0,5.9631,-16.57,9.9836,-3.7724
-1.9704,-9.1122,-9.0879,-0.98039,-3.9482,-9.3471,-13.131,1.8954,-7.0707,-0.98039,-3.9482,-13.659,5.8333,-2.8618,5.0251,-10.945,-6.0,6.9682,-5.89,5.0575,-3.7724
-0.98522,-6.0972,-8.0929,-1.9608,-2.0065,-10.378,-12.121,2.8758,-5.0505,-1.9608,-2.0065,-14.634,4.8718,2.0163,0.0,-4.9751,-5.0,-7.1022,9.644,3.087,3.0569
1.9704,4.9581,-1.1277,6.8627,7.7023,-1.0997,-1.0101,10.719,6.0606,6.8627,7.7023,-4.878,4.8718,11.772,0.0,8.9552,2.0,24.054001,9.644,8.9984,16.715
0.0,6.9682,-0.13267,6.8627,6.7314,-0.06873,0.0,10.719,4.0404,6.8627,6.7314,-2.9268,1.0256,14.699,-1.005,16.915001,6.0,10.988,3.8188,5.0575,21.593
2.9557,10.988,3.8474,10.784,7.7023,5.0859,2.0202,12.68,1.0101,10.784,7.7023,1.9512,5.8333,16.65,4.0201,20.896,12.0,7.9732,8.6731,7.0279,19.642
12.808,15.008,13.798,23.528999,20.323999,15.395,11.111,24.444,7.0707,23.528999,20.323999,12.683,15.449,18.601999,17.084999,21.891001,20.0,19.028,3.8188,20.820999,11.837
23.645,17.018,19.768,31.372999,28.091,18.488001,17.172001,28.365999,13.131,31.372999,28.091,19.511999,22.179001,18.601999,26.131001,18.905001,24.0,17.018,8.6731,26.732,5.9837
21.674999,16.013,21.757999,32.353001,29.061001,19.518999,18.181999,26.405001,11.111,32.353001,29.061001,20.488001,28.91,20.552999,26.131001,16.915001,25.0,19.028,11.586,25.747,5.0081
18.719,14.003,22.753,33.333,30.032,22.612,17.172001,25.424999,10.101,33.333,30.032,22.438999,30.833,24.455,22.111,16.915001,27.0,25.059,-1.0356,18.851,7.935
18.719,15.008,24.743,32.353001,30.032,24.674,18.181999,21.503,13.131,32.353001,30.032,22.438999,30.833,28.358,22.111,18.905001,29.0,3.9531,1.877,14.91,12.813
24.631001,23.049,30.712999,35.293999,32.945,29.827999,22.222,21.503,18.181999,35.293999,32.945,27.316999,31.795,31.285,23.115999,24.875999,33.0,2.9481,15.469,9.9836,19.642
26.601,22.044001,29.718,30.392,31.003,27.766001,22.222,23.464001,16.162001,30.392,31.003,26.341,25.063999,25.431,22.111,21.891001,29.0,9.9832,15.469,8.0131,17.691
20.690001,12.998,20.763,25.49,25.177999,20.549999,12.121,23.464001,7.0707,25.49,25.177999,19.511999,8.7179,9.8211,13.065,9.9502,14.0,11.993,4.7896,3.087,8.9106
17.733999,12.998,15.788,21.569,19.353001,17.457001,11.111,15.621,6.0606,21.569,19.353001,16.584999,-0.89744,2.9919,10.05,6.9652,6.0,1.943,10.615,4.0722,5.0081
-1.9704,4.9581,2.8524,16.667,12.557,5.0859,3.0303,8.7582,2.0202,16.667,12.557,5.8537,-18.205,-11.642,-10.05,-1.99,-9.0,-12.127,1.877,-13.662,-3.7724
-10.837,1.943,-4.1128,10.784,6.7314,0.9622,-3.0303,5.817,-3.0303,10.784,6.7314,-1.9512,-20.128,-11.642,-19.094999,-0.99502,-14.0,-4.0871,4.7896,-18.587999,0.13008
2.9557,12.998,7.8275,12.745,7.7023,10.241,3.0303,11.699,0.0,12.745,7.7023,6.8293,0.0641,7.8699,0.0,15.92,4.0,19.028,6.7314,5.0575,16.715
9.8522,16.013,14.793,15.686,10.615,15.395,8.0808,16.601,4.0404,15.686,10.615,11.707,9.6795,18.601999,10.05,23.881001,14.0,21.039,10.615,13.924,23.545
9.8522,14.003,12.803,13.725,9.644,13.333,7.0707,20.523001,6.0606,13.725,9.644,10.732,6.7949,15.675,12.06,19.9,14.0,23.049,19.353001,10.969,19.642
14.778,16.013,12.803,15.686,11.586,14.364,9.0909,18.562,4.0404,15.686,11.586,12.683,16.41,22.504,20.101,20.896,18.0,19.028,15.469,16.879999,20.618
12.808,17.018,13.798,13.725,9.644,14.364,9.0909,11.699,3.0303,13.725,9.644,12.683,25.063999,28.358,22.111,22.886,23.0,-9.1122,6.7314,15.895,20.618
15.764,20.034,18.773001,15.686,10.615,16.426001,14.141,11.699,5.0505,15.686,10.615,17.561001,31.795,25.431,25.125999,21.891001,26.0,-9.1122,16.440001,19.836,16.715
13.793,15.008,15.788,13.725,10.615,15.395,13.131,10.719,5.0505,13.725,10.615,15.61,29.872,16.65,22.111,13.93,21.0,17.018,7.7023,18.851,5.0081
8.867,8.9782,8.8226,8.8235,6.7314,8.1787,7.0707,5.817,1.0101,8.8235,6.7314,10.732,21.218,7.8699,12.06,5.9701,12.0,8.9782,0.90615,8.0131,-2.7967
10.837,11.993,6.8325,5.8824,4.7896,7.1478,9.0909,3.8562,3.0303,5.8824,4.7896,8.7805,17.372,7.8699,10.05,7.9602,11.0,9.9832,10.615,4.0722,1.1057
9.8522,17.018,8.8226,4.902,3.8188,7.1478,12.121,3.8562,5.0505,4.902,3.8188,10.732,11.603,11.772,8.0402,10.945,10.0,6.9682,24.207001,-0.85386,7.935
7.8818,14.003,6.8325,3.9216,5.7605,7.1478,13.131,0.91503,8.0808,3.9216,5.7605,8.7805,2.9487,5.9187,3.0151,4.9751,3.0,-2.0771,19.353001,-3.8095,7.935
0.98522,2.9481,-0.13267,1.9608,1.877,4.055,6.0606,0.91503,3.0303,1.9608,1.877,3.9024,-9.5513,-7.7398,-4.0201,-6.9652,-10.0,1.943,-2.9773,0.13136,-0.84553
0.0,3.9531,-3.1177,0.0,-1.0356,5.0859,5.0505,1.8954,0.0,0.0,-1.0356,3.9024,-15.321,-6.7642,-8.0402,-4.9751,-14.0,-0.067,4.7896,-2.8243,4.0325
0.0,7.9732,-4.1128,0.98039,0.90615,3.0241,5.0505,-4.9673,1.0101,0.98039,0.90615,3.9024,-13.397,1.0407,-9.0452,3.9801,-12.0,-9.1122,21.294001,-7.7504,15.74
-2.9557,8.9782,-3.1177,2.9412,3.8188,3.0241,5.0505,-1.0458,1.0101,2.9412,3.8188,3.9024,-8.5897,9.8211,-7.0352,13.93,-4.0,-2.0771,8.6731,-2.8243,24.52
-1.9704,7.9732,-0.13267,5.8824,6.7314,5.0859,5.0505,2.8758,2.0202,5.8824,6.7314,4.878,-4.7436,12.748,-4.0201,15.92,2.0,-3.0821,-0.06472,-6.7652,24.52
0.98522,5.9631,0.86235,9.8039,7.7023,10.241,7.0707,4.8366,4.0404,9.8039,7.7023,7.8049,2.9487,13.724,-1.005,13.93,4.0,-2.0771,-0.06472,-5.78,16.715
0.0,0.93802,-2.1227,9.8039,6.7314,8.1787,4.0404,8.7582,1.0101,9.8039,6.7314,4.878,-0.89744,6.8943,-2.0101,5.9701,1.0,23.049,6.7314,-3.8095,7.935
2.9557,-0.067,-2.1227,9.8039,7.7023,8.1787,2.0202,6.7974,0.0,9.8039,7.7023,2.9268,2.9487,6.8943,1.005,2.9851,2.0,5.9631,8.6731,-3.8095,3.0569
5.9113,-0.067,-2.1227,10.784,8.6731,10.241,2.0202,6.7974,2.0202,10.784,8.6731,3.9024,11.603,7.8699,6.0302,0.99502,4.0,-6.0972,0.90615,5.0575,0.13008
7.8818,2.9481,0.86235,11.765,7.7023,14.364,4.0404,9.7386,2.0202,11.765,7.7023,6.8293,17.372,6.8943,9.0452,3.9801,7.0,-1.072,8.6731,9.9836,1.1057
4.9261,1.943,0.86235,11.765,6.7314,14.364,5.0505,9.7386,3.0303,11.765,6.7314,7.8049,8.7179,-3.8374,3.0151,-0.99502,2.0,6.9682,9.644,4.0722,-4.748
8.867,2.9481,5.8375,11.765,9.644,15.395,9.0909,12.68,5.0505,11.765,9.644,12.683,5.8333,-4.813,3.0151,0.0,1.0,8.9782,4.7896,3.087,-3.7724
12.808,5.9631,8.8226,7.8431,5.7605,16.426001,9.0909,16.601,3.0303,7.8431,5.7605,11.707,8.7179,3.9675,7.0352,4.9751,4.0,15.008,-0.06472,7.0279,5.0081
5.9113,1.943,1.8574,-0.98039,-3.9482,4.055,0.0,0.91503,-1.0101,-0.98039,-3.9482,1.9512,3.9103,2.0163,5.0251,1.99,0.0,17.018,-3.9482,2.1018,4.0325
9.8522,5.9631,3.8474,-3.9216,-4.9191,0.9622,-1.0101,-4.9673,-2.0202,-3.9216,-4.9191,-0.97561,8.7179,9.8211,11.055,8.9552,6.0,3.9531,6.7314,10.969,7.935
15.764,15.008,13.798,0.98039,1.877,6.1168,7.0707,-2.0261,6.0606,0.98039,1.877,8.7805,13.526,17.625999,18.09,18.905001,16.0,-1.072,18.382,18.851,17.691
10.837,12.998,11.808,4.902,4.7896,10.241,10.101,3.8562,8.0808,4.902,4.7896,11.707,6.7949,15.675,14.07,18.905001,16.0,17.018,13.528,15.895,18.667
4.9261,10.988,7.8275,7.8431,5.7605,9.2096,8.0808,5.817,4.0404,7.8431,5.7605,11.707,1.9872,8.8455,9.0452,16.915001,14.0,16.013,10.615,10.969,16.715
2.9557,5.9631,4.8425,4.902,5.7605,5.0859,6.0606,-0.06536,1.0101,4.902,5.7605,7.8049,1.9872,3.9675,7.0352,13.93,12.0,7.9732,0.90615,6.0427,13.789
4.9261,5.9631,7.8275,6.8627,7.7023,3.0241,7.0707,-3.0065,3.0303,6.8627,7.7023,9.7561,4.8718,3.9675,8.0402,12.935,13.0,2.9481,0.90615,6.0427,11.837
9.8522,14.003,13.798,8.8235,11.586,10.241,14.141,0.91503,12.121,8.8235,11.586,15.61,7.7564,7.8699,11.055,14.925,16.0,-12.127,30.032,4.0722,11.837
10.837,16.013,15.788,12.745,13.528,16.426001,16.162001,3.8562,12.121,12.745,13.528,20.488001,17.372,16.65,13.065,15.92,18.0,-15.142,17.410999,6.0427,12.813
10.837,11.993,15.788,14.706,13.528,19.518999,14.141,6.7974,6.0606,14.706,13.528,21.462999,22.179001,17.625999,12.06,12.935,16.0,7.9732,-5.89,9.9836,7.935
9.8522,4.9581,10.813,12.745,11.586,17.457001,8.0808,7.7778,0.0,12.745,11.586,16.584999,17.372,12.748,9.0452,5.9701,12.0,19.028,-8.8026,7.0279,-2.7967
9.8522,-1.072,4.8425,10.784,9.644,12.302,5.0505,7.7778,1.0101,10.784,9.644,10.732,9.6795,4.9431,6.0302,-0.99502,5.0,17.018,-5.89,2.1018,-8.6504
9.8522,-2.0771,-0.13267,9.8039,8.6731,10.241,5.0505,3.8562,4.0404,9.8039,8.6731,6.8293,-1.859,-6.7642,3.0151,-5.9701,-3.0,12.998,-1.0356,-0.85386,-10.602
6.8966,2.9481,2.8524,10.784,9.644,13.333,7.0707,12.68,8.0808,10.784,9.644,10.732,-4.7436,-9.6911,4.0201,-3.9801,-3.0,10.988,-3.9482,5.0575,-5.7236
0.0,-1.072,-3.1177,4.902,5.7605,11.271,2.0202,6.7974,6.0606,4.902,5.7605,5.8537,-15.321,-18.472,-5.0251,-7.9602,-10.0,-9.1122,-9.7735,-3.8095,-8.6504
0.0,-1.072,-4.1128,0.0,0.90615,5.0859,-1.0101,-1.0458,2.0202,0.0,0.90615,1.9512,-11.474,-12.618,-3.0151,-3.9801,-9.0,-2.0771,7.7023,1.1166,-0.84553
-2.9557,-10.117,-11.078,-6.8627,-3.9482,-4.1924,-8.0808,-6.9281,-4.0404,-6.8627,-3.9482,-6.8293,-0.89744,0.06504,0.0,-2.9851,-7.0,2.9481,-2.9773,9.9836,2.0813
-14.778,-18.157,-22.023001,-9.8039,-8.8026,-15.533,-15.152,-14.771,-7.0707,-9.8039,-8.8026,-14.634,-0.89744,1.0407,-8.0402,-7.9602,-12.0,-18.157,-14.628,0.13136,-0.84553
-6.8966,-6.0972,-13.068,-5.8824,-3.9482,-8.3162,-7.0707,-8.8889,-1.0101,-5.8824,-3.9482,-8.7805,7.7564,10.797,0.0,0.0,-2.0,-3.0821,1.877,8.0131,6.9593
3.9409,-5.0921,-5.1078,-1.9608,-2.9773,-2.1306,-7.0707,-1.0458,-1.0101,-1.9608,-2.9773,-3.9024,13.526,11.772,5.0251,0.0,3.0,23.049,-4.9191,15.895,3.0569
5.9113,-8.1072,-3.1177,-4.902,-4.9191,-0.06873,-9.0909,-2.0261,-4.0404,-4.902,-4.9191,-4.878,13.526,9.8211,3.0151,-0.99502,4.0,10.988,-7.8317,8.9984,0.13008
-0.98522,-6.0972,-4.1128,-2.9412,-3.9482,-3.1615,-8.0808,0.91503,-1.0101,-2.9412,-3.9482,-4.878,8.7179,6.8943,-2.0101,-0.99502,3.0,-1.072,-0.06472,-3.8095,-0.84553
-9.8522,-4.0871,-7.0978,-5.8824,-4.9191,-9.3471,-7.0707,-9.8693,0.0,-5.8824,-4.9191,-7.8049,2.9487,2.9919,-6.0302,-0.99502,1.0,-6.0972,8.6731,-9.7209,-2.7967
-6.8966,-0.067,-4.1128,-6.8627,-3.9482,-9.3471,-4.0404,-11.83,-1.0101,-6.8627,-3.9482,-5.8537,2.9487,1.0407,-3.0151,-0.99502,2.0,-11.122,5.7605,-4.7947,-5.7236
-4.9261,-7.1022,-3.1177,-8.8235,-7.8317,-8.3162,-6.0606,-8.8889,-5.0505,-8.8235,-7.8317,-6.8293,-6.6667,-6.7642,-6.0302,-8.9552,-3.0,-19.162001,-15.599,-11.691,-16.455
1.9704,-2.0771,3.8474,-8.8235,-7.8317,-4.1924,-2.0202,-5.9477,-1.0101,-8.8235,-7.8317,-0.97561,-10.513,-10.667,-1.005,-6.9652,-1.0,-7.1022,-5.89,-9.7209,-16.455
7.8818,4.9581,8.8226,-4.902,-4.9191,0.9622,4.0404,-3.9869,0.0,-4.902,-4.9191,5.8537,-12.436,-14.569,2.0101,-4.9751,0.0,9.9832,-2.9773,-3.8095,-14.504
1.9704,8.9782,7.8275,-5.8824,-2.9773,-0.06873,7.0707,-6.9281,3.0303,-5.8824,-2.9773,5.8537,-14.359,-16.52,-1.005,-3.9801,-4.0,-6.0972,-1.0356,-3.8095,-10.602
-5.9113,6.9682,1.8574,-7.8431,-3.9482,-4.1924,6.0606,-8.8889,8.0808,-7.8431,-3.9482,1.9512,-5.7051,-9.6911,-3.0151,-1.99,-7.0,-12.127,8.6731,3.087,-5.7236
-1.9704,2.9481,-0.13267,-6.8627,-5.89,-1.0997,1.0101,-6.9281,5.0505,-6.8627,-5.89,-0.97561,12.564,6.8943,6.0302,2.9851,0.0,1.943,-1.0356,11.954,0.13008
-2.9557,-8.1072,-5.1078,-11.765,-12.686,-5.2234,-9.0909,-7.9085,-8.0808,-11.765,-12.686,-6.8293,15.449,9.8211,4.0201,-0.99502,1.0,-0.067,-20.452999,6.0427,-3.7724
2.9557,-5.0921,-4.1128,-15.686,-14.628,-4.1924,-9.0909,-8.8889,-10.101,-15.686,-14.628,-6.8293,10.641,9.8211,9.0452,2.9851,8.0,2.9481,-12.686,7.0279,0.13008
3.9409,4.9581,0.86235,-10.784,-7.8317,-4.1924,0.0,-9.8693,-1.0101,-10.784,-7.8317,0.97561,6.7949,10.797,10.05,9.9502,13.0,-8.1072,5.7605,-0.85386,8.9106
-0.98522,2.9481,-0.13267,-9.8039,-5.89,-2.1306,2.0202,-6.9281,-1.0101,-9.8039,-5.89,1.9512,3.9103,5.9187,5.0251,5.9701,9.0,3.9531,-2.9773,-2.8243,3.0569
-0.98522,-0.067,0.86235,-6.8627,-5.89,3.0241,1.0101,-1.0458,-3.0303,-6.8627,-5.89,4.878,7.7564,3.9675,4.0201,0.99502,5.0,1.943,-11.715,4.0722,-2.7967
-6.8966,-3.0821,-2.1227,-6.8627,-6.8608,1.9931,-2.0202,-6.9281,-3.0303,-6.8627,-6.8608,0.97561,3.9103,0.06504,-3.0151,-3.9801,-2.0,-13.132,-2.0065,-1.8391,-4.748
-5.9113,-1.072,-4.1128,-8.8235,-9.7735,-5.2234,-6.0606,-10.85,-1.0101,-8.8235,-9.7735,-4.878,-2.8205,-5.7886,-6.0302,-5.9701,-5.0,-12.127,3.8188,-5.78,-4.748
-4.9261,1.943,-4.1128,-13.725,-12.686,-9.3471,-4.0404,-10.85,1.0101,-13.725,-12.686,-7.8049,0.0641,-2.8618,-1.005,0.0,0.0,1.943,5.7605,1.1166,1.1057
-2.9557,1.943,-4.1128,-16.667,-13.657,-9.3471,-4.0404,-10.85,-1.0101,-16.667,-13.657,-7.8049,1.0256,1.0407,2.0101,4.9751,3.0,-5.0921,0.90615,6.0427,3.0569
-6.8966,-1.072,-6.1028,-18.627001,-15.599,-9.3471,-5.0505,-13.791,-2.0202,-18.627001,-15.599,-8.7805,-4.7436,-1.8862,-5.0251,2.9851,-2.0,-16.146999,-7.8317,-4.7947,3.0569
-6.8966,-4.0871,-6.1028,-18.627001,-15.599,-10.378,-6.0606,-11.83,1.0101,-18.627001,-15.599,-8.7805,-8.5897,-3.8374,-8.0402,-0.99502,-7.0,-7.1022,-4.9191,-8.7356,1.1057
0.0,-1.072,-3.1177,-15.686,-12.686,-6.2543,-3.0303,-4.9673,4.0404,-15.686,-12.686,-5.8537,-4.7436,0.06504,1.005,0.99502,-3.0,1.943,-0.06472,3.087,-0.84553
-0.98522,-1.072,-3.1177,-15.686,-13.657,-9.3471,-5.0505,-4.9673,4.0404,-15.686,-13.657,-8.7805,-3.7821,-0.91057,4.0201,1.99,0.0,2.9481,2.8479,4.0722,-1.8211
4.9261,3.9531,-0.13267,-14.706,-12.686,-9.3471,-3.0303,-6.9281,6.0606,-14.706,-12.686,-6.8293,4.8718,5.9187,11.055,8.9552,8.0,3.9531,11.586,8.9984,6.9593
4.9261,4.9581,3.8474,-15.686,-12.686,-6.2543,0.0,-5.9477,5.0505,-15.686,-12.686,-3.9024,8.7179,8.8455,13.065,10.945,12.0,5.9631,4.7896,12.939,8.9106
5.9113,1.943,5.8375,-12.745,-12.686,-3.1615,0.0,-6.9281,3.0303,-12.745,-12.686,0.0,5.8333,5.9187,9.0452,6.9652,9.0,-3.0821,-4.9191,10.969,6.9593
2.9557,-2.0771,2.8524,-10.784,-10.744,0.9622,-1.0101,-1.0458,3.0303,-10.784,-10.744,0.0,3.9103,0.06504,5.0251,-0.99502,3.0,2.9481,-3.9482,8.9984,-0.84553
0.98522,-6.0972,-1.1277,-6.8627,-7.8317,1.9931,-2.0202,-2.0261,1.0101,-6.8627,-7.8317,0.97561,0.0641,-4.813,-1.005,-6.9652,-2.0,5.9631,-5.89,2.1018,-8.6504
-2.9557,-1.072,-0.13267,-7.8431,-6.8608,-0.06873,1.0101,-3.9869,3.0303,-7.8431,-6.8608,0.97561,-0.89744,-5.7886,-2.0101,-5.9701,-2.0,-1.072,10.615,1.1166,-8.6504
-2.9557,-0.067,-0.13267,-10.784,-8.8026,-4.1924,1.0101,-3.9869,5.0505,-10.784,-8.8026,0.97561,-2.8205,-10.667,-4.0201,-6.9652,-4.0,-3.0821,10.615,-4.7947,-8.6504
0.0,-4.0871,-0.13267,-12.745,-10.744,-4.1924,0.0,-6.9281,5.0505,-12.745,-10.744,0.0,-1.859,-9.6911,-3.0151,-7.9602,-5.0,-2.0771,-5.89,-3.8095,-5.7236
-4.9261,-9.1122,-4.1128,-18.627001,-18.511,-10.378,-8.0808,-12.81,-4.0404,-18.627001,-18.511,-5.8537,-3.7821,-8.7154,-8.0402,-9.9502,-10.0,-20.167999,-12.686,-6.7652,-2.7967
-10.837,-9.1122,-6.1028,-20.587999,-21.424,-9.3471,-9.0909,-10.85,-5.0505,-20.587999,-21.424,-8.7805,-8.5897,-6.7642,-13.065,-9.9502,-12.0,-10.117,-7.8317,-8.7356,1.1057
-10.837,-5.0921,-5.1078,-20.587999,-19.482,-9.3471,-9.0909,-11.83,-1.0101,-20.587999,-19.482,-8.7805,-8.5897,-0.91057,-11.055,-4.9751,-10.0,3.9531,-0.06472,-4.7947,4.0325
0.0,-1.072,-2.1227,-16.667,-13.657,-5.2234,-5.0505,-4.9673,0.0,-16.667,-13.657,-5.8537,-2.8205,6.8943,1.005,1.99,-2.0,8.9782,2.8479,5.0575,6.9593
4.9261,-0.067,0.86235,-9.8039,-7.8317,-2.1306,0.0,-1.0458,1.0101,-9.8039,-7.8317,0.0,1.0256,8.8455,9.0452,4.9751,5.0,5.9631,0.90615,10.969,9.8862
3.9409,-0.067,4.8425,-6.8627,-4.9191,-0.06873,2.0202,-2.0261,2.0202,-6.8627,-4.9191,1.9512,1.9872,2.9919,11.055,4.9751,9.0,8.9782,3.8188,9.9836,5.0081
10.837,5.9631,11.808,0.0,-2.0065,7.1478,2.0202,2.8758,3.0303,0.0,-2.0065,5.8537,8.7179,2.9919,16.08,7.9602,15.0,7.9732,7.7023,14.91,3.0569
14.778,10.988,14.793,6.8627,1.877,13.333,4.0404,8.7582,4.0404,6.8627,1.877,9.7561,11.603,7.8699,16.08,10.945,18.0,18.023001,17.410999,20.820999,6.9593
11.823,8.9782,10.813,8.8235,5.7605,15.395,6.0606,6.7974,5.0505,8.8235,5.7605,9.7561,13.526,9.8211,11.055,8.9552,14.0,5.9631,11.586,8.0131,5.9837
7.8818,4.9581,7.8275,9.8039,7.7023,12.302,7.0707,9.7386,6.0606,9.8039,7.7023,8.7805,17.372,10.797,10.05,7.9602,12.0,2.9481,-3.9482,4.0722,5.9837
12.808,9.9832,9.8176,9.8039,8.6731,10.241,10.101,8.7582,10.101,9.8039,8.6731,8.7805,24.103001,18.601999,19.094999,14.925,17.0,23.049,8.6731,19.836,15.74
15.764,16.013,11.808,9.8039,10.615,9.2096,11.111,10.719,13.131,9.8039,10.615,9.7561,26.987,22.504,23.115999,19.9,20.0,7.9732,19.353001,26.732,22.569
8.867,15.008,8.8226,8.8235,9.644,8.1787,8.0808,9.7386,13.131,8.8235,9.644,7.8049,13.526,12.748,10.05,14.925,11.0,6.9682,16.440001,14.91,15.74
10.837,12.998,10.813,16.667,12.557,15.395,10.101,12.68,13.131,16.667,12.557,12.683,0.0641,2.9919,4.0201,9.9502,5.0,15.008,16.440001,7.0279,10.862
20.690001,12.998,15.788,21.569,17.410999,22.612,16.162001,15.621,14.141,21.569,17.410999,17.561001,-3.7821,-0.91057,11.055,8.9552,8.0,21.039,14.498,9.9836,8.9106
21.674999,17.018,19.768,21.569,20.323999,18.488001,20.202,13.66,18.181999,21.569,20.323999,18.537001,4.8718,6.8943,19.094999,13.93,15.0,24.054001,21.294001,19.836,12.813
19.704,20.034,18.773001,20.587999,25.177999,14.364,22.222,15.621,25.253,20.587999,25.177999,17.561001,14.487,14.699,25.125999,20.896,21.0,23.049,19.353001,31.658001,19.642
19.704,22.044001,19.768,23.528999,27.120001,15.395,21.212,14.641,26.263,23.528999,27.120001,18.537001,22.179001,20.552999,26.131001,25.871,24.0,20.034,20.323999,31.658001,26.472
18.719,20.034,19.768,28.431,28.091,23.643,20.202,20.523001,22.222,28.431,28.091,21.462999,29.872,28.358,25.125999,26.865999,26.0,10.988,18.382,30.673,30.374001
23.645,18.023001,22.753,33.333,31.003,26.735001,20.202,23.464001,19.191999,33.333,31.003,24.389999,33.717999,33.236,27.136,23.881001,27.0,25.059,14.498,29.688,29.398001
23.645,21.039,22.753,33.333,31.974001,25.704,24.242001,21.503,24.242001,33.333,31.974001,24.389999,34.679001,32.259998,26.131001,22.886,27.0,22.044001,24.207001,23.777,27.447001
23.645,25.059,24.743,39.216,38.77,25.704,29.292999,24.444,32.323002,39.216,38.77,27.316999,31.795,28.358,25.125999,22.886,26.0,17.018,28.091,20.820999,25.496
16.749001,17.018,15.788,37.255001,36.827999,20.549999,23.232,20.523001,27.273001,37.255001,36.827999,22.438999,21.218,18.601999,14.07,15.92,17.0,4.9581,31.003,14.91,19.642
1.9704,5.9631,1.8574,29.412001,28.091,11.271,10.101,13.66,18.181999,29.412001,28.091,11.707,11.603,9.8211,2.0101,6.9652,3.0,6.9682,18.382,10.969,15.74
2.9557,4.9581,-0.13267,33.333,30.032,15.395,10.101,21.503,18.181999,33.333,30.032,10.732,2.9487,-0.91057,0.0,0.99502,-4.0,26.063999,10.615,10.969,11.837
18.719,10.988,10.813,38.235001,35.858002,27.766001,20.202,25.424999,24.242001,38.235001,35.858002,20.488001,-3.7821,-9.6911,9.0452,0.0,-1.0,23.049,10.615,15.895,5.0081
18.719,10.988,12.803,41.175999,40.712002,25.704,22.222,20.523001,26.263,41.175999,40.712002,23.415001,-14.359,-23.35,7.0352,-2.9851,-2.0,4.9581,10.615,9.9836,-3.7724
18.719,15.008,15.788,42.157001,41.682999,25.704,25.253,25.424999,27.273001,42.157001,41.682999,25.365999,-8.5897,-13.593,13.065,6.9652,7.0,11.993,16.440001,12.939,5.9837
18.719,16.013,16.783001,39.216,39.741001,21.580999,25.253,21.503,28.283001,39.216,39.741001,24.389999,5.8333,3.9675,17.084999,13.93,13.0,14.003,12.557,19.836,15.74
13.793,10.988,12.803,33.333,36.827999,15.395,21.212,14.641,24.242001,33.333,36.827999,18.537001,15.449,20.552999,16.08,13.93,10.0,25.059,12.557,25.747,20.618
10.837,7.9732,8.8226,31.372999,31.974001,14.364,17.172001,15.621,19.191999,31.372999,31.974001,15.61,21.218,28.358,11.055,10.945,6.0,31.089001,16.440001,25.747,20.618
5.9113,5.9631,3.8474,33.333,31.003,19.518999,17.172001,17.582001,19.191999,33.333,31.003,15.61,21.218,24.455,6.0302,4.9751,3.0,22.044001,18.382,17.865,13.789
12.808,8.9782,6.8325,31.372999,29.061001,22.612,18.181999,18.562,20.202,31.372999,29.061001,18.537001,20.256001,17.625999,12.06,4.9751,8.0,17.018,16.440001,17.865,8.9106
24.631001,17.018,18.773001,28.431,27.120001,25.704,23.232,21.503,18.181999,28.431,27.120001,24.389999,20.256001,13.724,22.111,12.935,20.0,9.9832,10.615,21.806,10.862
26.601,18.023001,21.757999,27.451,28.091,19.518999,24.242001,20.523001,16.162001,27.451,28.091,23.415001,14.487,7.8699,24.121,13.93,23.0,8.9782,5.7605,21.806,8.9106
25.615999,17.018,18.773001,22.549,26.149,17.457001,23.232,15.621,17.172001,22.549,26.149,20.488001,10.641,3.9675,22.111,11.94,20.0,28.073999,11.586,20.820999,3.0569
23.645,17.018,16.783001,24.51,26.149,21.580999,22.222,18.562,20.202,24.51,26.149,22.438999,10.641,5.9187,20.101,11.94,19.0,32.094002,10.615,22.791,5.0081
16.749001,18.023001,15.788,28.431,28.091,25.704,23.232,20.523001,22.222,28.431,28.091,22.438999,5.8333,4.9431,15.075,11.94,14.0,23.049,21.294001,19.836,7.935
9.8522,18.023001,13.798,30.392,31.003,22.612,24.242001,22.483999,27.273001,30.392,31.003,23.415001,-2.8205,-1.8862,5.0251,8.9552,5.0,8.9782,15.469,8.0131,8.9106
6.8966,14.003,9.8176,30.392,32.945,19.518999,25.253,15.621,27.273001,30.392,32.945,21.462999,-15.321,-13.593,-6.0302,1.99,-5.0,4.9581,5.7605,-8.7356,3.0569
10.837,12.998,8.8226,33.333,32.945,21.580999,25.253,18.562,23.232,33.333,32.945,21.462999,-15.321,-14.569,-4.0201,1.99,-5.0,6.9682,1.877,-4.7947,2.0813
12.808,9.9832,5.8375,31.372999,30.032,19.518999,21.212,21.503,20.202,31.372999,30.032,19.511999,-5.7051,-9.6911,2.0101,3.9801,-2.0,9.9832,3.8188,7.0279,3.0569
15.764,12.998,6.8325,27.451,27.120001,19.518999,20.202,16.601,21.212,27.451,27.120001,18.537001,6.7949,2.9919,12.06,10.945,7.0,19.028,28.091,16.879999,9.8862
13.793,11.993,9.8176,24.51,25.177999,17.457001,19.191999,11.699,20.202,24.51,25.177999,18.537001,10.641,11.772,13.065,15.92,12.0,11.993,28.091,11.954,18.667
5.9113,8.9782,8.8226,18.627001,20.323999,12.302,17.172001,10.719,15.152,18.627001,20.323999,14.634,11.603,16.65,10.05,11.94,12.0,1.943,8.6731,5.0575,19.642
-2.9557,0.93802,-0.13267,15.686,16.440001,3.0241,11.111,8.7582,11.111,15.686,16.440001,7.8049,8.7179,12.748,3.0151,0.99502,3.0,-5.0921,-2.9773,1.1166,9.8862
-5.9113,-2.0771,-7.0978,11.765,12.557,-0.06873,7.0707,2.8758,9.0909,11.765,12.557,1.9512,13.526,17.625999,2.0101,-1.99,-1.0,-10.117,-0.06472,8.9984,10.862
-9.8522,-9.1122,-16.052999,5.8824,3.8188,-4.1924,-3.0303,-0.06536,0.0,5.8824,3.8188,-5.8537,1.0256,5.9187,-11.055,-10.945,-13.0,-2.0771,2.8479,0.13136,3.0569
-0.98522,-5.0921,-9.0879,9.8039,9.644,6.1168,1.0101,8.7582,5.0505,9.8039,9.644,0.97561,-6.6667,-0.91057,-11.055,-8.9552,-11.0,11.993,1.877,-2.8243,-0.84553
12.808,0.93802,0.86235,12.745,9.644,14.364,4.0404,13.66,3.0303,12.745,9.644,8.7805,-11.474,-8.7154,-7.0352,-5.9701,-6.0,16.013,-1.0356,-4.7947,-4.748
15.764,0.93802,4.8425,12.745,8.6731,17.457001,6.0606,21.503,2.0202,12.745,8.6731,9.7561,-13.397,-20.423,-1.005,-9.9502,-5.0,15.008,1.877,-2.8243,-15.48
16.749001,0.93802,4.8425,15.686,10.615,14.364,8.0808,20.523001,6.0606,15.686,10.615,10.732,-8.5897,-22.374001,4.0201,-14.925,-6.0,24.054001,-3.9482,5.0575,-19.382
11.823,3.9531,4.8425,15.686,14.498,12.302,12.121,14.641,13.131,15.686,14.498,10.732,-9.5513,-20.423,1.005,-15.92,-9.0,18.023001,-0.06472,3.087,-13.528
10.837,14.003,11.808,17.646999,17.410999,15.395,18.181999,16.601,20.202,17.646999,17.410999,16.584999,-5.7051,-11.642,1.005,-4.9751,-5.0,-4.0871,9.644,4.0722,2.0813
11.823,17.018,11.808,15.686,15.469,18.488001,19.191999,11.699,19.191999,15.686,15.469,16.584999,-3.7821,-3.8374,-2.0101,3.9801,-4.0,-0.067,13.528,6.0427,10.862
1.9704,10.988,2.8524,10.784,11.586,10.241,12.121,9.7386,14.141,10.784,11.586,8.7805,-11.474,-6.7642,-13.065,2.9851,-12.0,12.998,8.6731,0.13136,9.8862
1.9704,10.988,2.8524,10.784,11.586,8.1787,13.131,8.7582,13.131,10.784,11.586,9.7561,-5.7051,2.0163,-9.0452,9.9502,-8.0,1.943,16.440001,2.1018,18.667
4.9261,4.9581,2.8524,9.8039,8.6731,9.2096,10.101,13.66,10.101,9.8039,8.6731,6.8293,5.8333,7.8699,0.0,8.9552,-1.0,0.93802,11.586,1.1166,14.764
4.9261,-6.0972,-2.1227,4.902,0.90615,1.9931,0.0,10.719,-1.0101,4.902,0.90615,0.0,12.564,6.8943,6.0302,-0.99502,3.0,3.9531,-6.8608,2.1018,-2.7967
12.808,-3.0821,-0.13267,2.9412,-2.0065,3.0241,-1.0101,7.7778,-6.0606,2.9412,-2.0065,-0.97561,21.218,13.724,19.094999,-0.99502,13.0,22.044001,-5.89,13.924,-5.7236
7.8818,-0.067,0.86235,2.9412,-3.9482,1.9931,-1.0101,9.7386,-8.0808,2.9412,-3.9482,-0.97561,16.41,11.772,12.06,-2.9851,10.0,8.9782,-5.89,9.9836,-5.7236
-2.9557,-1.072,-0.13267,-1.9608,-5.89,-0.06873,-1.0101,6.7974,-10.101,-1.9608,-5.89,-0.97561,8.7179,7.8699,-3.0151,-5.9701,0.0,-15.142,-8.8026,4.0722,-4.748
-4.9261,0.93802,-1.1277,-4.902,-7.8317,-2.1306,-1.0101,-2.0261,-8.0808,-4.902,-7.8317,-0.97561,-0.89744,2.0163,-13.065,-8.9552,-9.0,0.93802,6.7314,-6.7652,-0.84553
-7.8818,-4.0871,-7.0978,-3.9216,-5.89,-3.1615,-2.0202,-0.06536,-7.0707,-3.9216,-5.89,-2.9268,-8.5897,-4.813,-19.094999,-15.92,-15.0,-10.117,1.877,-11.691,-2.7967
-6.8966,-6.0972,-10.083,-2.9412,-6.8608,-2.1306,-4.0404,2.8758,-10.101,-2.9412,-6.8608,-3.9024,-5.7051,-5.7886,-18.09,-19.9,-17.0,-11.122,-3.9482,-11.691,-6.6992
-7.8818,-15.142,-16.052999,-4.902,-9.7735,-3.1615,-10.101,-1.0458,-15.152,-4.902,-9.7735,-8.7805,-7.6282,-13.593,-15.075,-26.865999,-21.0,-7.1022,-12.686,-8.7356,-19.382
1.9704,-16.146999,-13.068,-2.9412,-9.7735,-1.0997,-11.111,2.8758,-14.141,-2.9412,-9.7735,-5.8537,-8.5897,-21.398001,-5.0251,-24.875999,-17.0,-11.122,-23.365999,-3.8095,-25.236
9.8522,-8.1072,-3.1177,1.9608,-5.89,7.1478,-3.0303,14.641,-12.121,1.9608,-5.89,0.97561,-3.7821,-19.447001,7.0352,-13.93,-6.0,27.069,-27.249001,8.9984,-21.333
10.837,5.9631,7.8275,4.902,-1.0356,11.271,5.0505,14.641,-8.0808,4.902,-1.0356,8.7805,-0.89744,-13.593,10.05,0.99502,4.0,9.9832,-9.7735,8.9984,-10.602
10.837,17.018,13.798,7.8431,1.877,14.364,12.121,12.68,-6.0606,7.8431,1.877,12.683,-0.89744,-4.813,7.0352,13.93,11.0,8.9782,14.498,5.0575,5.0081
2.9557,14.003,10.813,6.8627,-0.06472,12.302,9.0909,16.601,-7.0707,6.8627,-0.06472,11.707,-5.7051,1.0407,-2.0101,13.93,6.0,1.943,7.7023,0.13136,13.789
-4.9261,3.9531,4.8425,4.902,-2.9773,11.271,4.0404,9.7386,-8.0808,4.902,-2.9773,9.7561,-13.397,0.06504,-16.08,3.9801,-6.0,-13.132,-3.9482,-16.617001,11.837
-6.8966,-2.0771,1.8574,1.9608,-4.9191,10.241,2.0202,3.8562,-9.0909,1.9608,-4.9191,7.8049,-13.397,2.0163,-21.106001,-1.99,-9.0,-9.1122,-5.89,-23.514,7.935
-6.8966,-6.0972,-3.1177,0.98039,-6.8608,7.1478,1.0101,6.7974,-11.111,0.98039,-6.8608,5.8537,-9.5513,5.9187,-21.106001,-3.9801,-9.0,-7.1022,-11.715,-23.514,1.1057
-4.9261,-7.1022,-5.1078,-2.9412,-9.7735,3.0241,-3.0303,2.8758,-13.131,-2.9412,-9.7735,0.97561,-6.6667,2.0163,-15.075,-5.9701,-6.0,-10.117,-11.715,-21.544001,-7.6748
0.0,-2.0771,-1.1277,-0.98039,-5.89,1.9931,-2.0202,2.8758,-10.101,-0.98039,-5.89,1.9512,-4.7436,-3.8374,-9.0452,-3.9801,-1.0,0.93802,-7.8317,-20.558001,-10.602
0.98522,-1.072,-1.1277,2.9412,-3.9482,5.0859,-3.0303,4.8366,-10.101,2.9412,-3.9482,1.9512,-6.6667,-9.6911,-8.0402,-6.9652,-4.0,6.9682,-7.8317,-16.617001,-12.553
-9.8522,-9.1122,-9.0879,2.9412,-3.9482,-1.0997,-7.0707,-0.06536,-11.111,2.9412,-3.9482,-2.9268,-15.321,-24.325001,-18.09,-20.896,-20.0,-0.067,-5.89,-16.617001,-22.309
-10.837,-14.137,-13.068,3.9216,-1.0356,-1.0997,-6.0606,4.8366,-8.0808,3.9216,-1.0356,-3.9024,-17.243999,-27.252001,-18.09,-31.841,-29.0,-14.137,-13.657,-9.7209,-27.187
-4.9261,-21.173,-16.052999,3.9216,-4.9191,-2.1306,-10.101,6.7974,-13.131,3.9216,-4.9191,-6.8293,-17.243999,-31.153999,-12.06,-41.791,-33.0,-16.146999,-25.306999,1.1166,-33.041
-1.9704,-11.122,-10.083,5.8824,-2.9773,3.0241,-4.0404,10.719,-10.101,5.8824,-2.9773,-1.9512,-4.7436,-25.301001,2.0101,-31.841,-22.0,18.023001,-2.9773,14.91,-27.187
4.9261,1.943,-3.1177,6.8627,-0.06472,4.055,-1.0101,13.66,-5.0505,6.8627,-0.06472,0.97561,8.7179,-9.6911,14.07,-9.9502,-5.0,23.049,-2.0065,20.820999,-6.6992
6.8966,7.9732,-1.1277,3.9216,-1.0356,0.9622,-1.0101,5.817,-2.0202,3.9216,-1.0356,-1.9512,18.333,7.8699,20.101,9.9502,8.0,2.9481,-0.06472,21.806,10.862
1.9704,9.9832,-0.13267,2.9412,-0.06472,-2.1306,-2.0202,7.7778,1.0101,2.9412,-0.06472,-2.9268,27.948999,25.431,21.106001,23.881001,19.0,7.9732,6.7314,20.820999,19.642
-9.8522,-3.0821,-8.0929,-1.9608,-5.89,-9.3471,-9.0909,1.8954,-4.0404,-1.9608,-5.89,-11.707,20.256001,28.358,7.0352,19.9,13.0,10.988,-4.9191,6.0427,12.813
-19.704,-15.142,-16.052999,-6.8627,-12.686,-13.471,-15.152,-3.0065,-13.131,-6.8627,-12.686,-15.61,4.8718,16.65,-11.055,7.9602,1.0,-10.117,-14.628,-7.7504,-0.84553
-25.615999,-15.142,-19.038,-6.8627,-11.715,-10.378,-13.131,-3.0065,-12.121,-6.8627,-11.715,-12.683,-5.7051,4.9431,-23.115999,-0.99502,-9.0,-11.122,-6.8608,-19.573,-9.626
-26.601,-9.1122,-12.073,-2.9412,-5.89,-5.2234,-5.0505,-3.0065,-4.0404,-2.9412,-5.89,-4.878,-14.359,-4.813,-31.156,-5.9701,-13.0,-28.208,-1.0356,-29.424999,-10.602
-21.674999,-4.0871,-4.1128,-2.9412,-2.0065,-1.0997,3.0303,-5.9477,2.0202,-2.9412,-2.0065,2.9268,-23.013,-12.618,-35.175999,-12.935,-17.0,-23.183001,-7.8317,-32.381001,-9.626
-13.793,-3.0821,-5.1078,-2.9412,-2.9773,0.9622,6.0606,-4.9673,3.0303,-2.9412,-2.9773,3.9024,-24.936001,-15.545,-31.156,-15.92,-18.0,-1.072,-6.8608,-30.410999,-6.6992
-5.9113,-3.0821,-7.0978,1.9608,-0.06472,4.055,5.0505,2.8758,3.0303,1.9608,-0.06472,4.878,-19.167,-15.545,-21.106001,-15.92,-18.0,1.943,5.7605,-18.587999,-3.7724
-2.9557,-4.0871,-9.0879,4.902,1.877,6.1168,5.0505,2.8758,3.0303,4.902,1.877,3.9024,-7.6282,-10.667,-10.05,-13.93,-15.0,7.9732,10.615,-3.8095,0.13008
5.9113,-1.072,-5.1078,5.8824,2.8479,6.1168,5.0505,2.8758,2.0202,5.8824,2.8479,5.8537,4.8718,-3.8374,3.0151,-9.9502,-10.0,6.9682,3.8188,10.969,3.0569
10.837,6.9682,2.8524,3.9216,1.877,6.1168,8.0808,1.8954,3.0303,3.9216,1.877,7.8049,14.487,1.0407,18.09,-1.99,0.0,-7.1022,7.7023,21.806,2.0813
15.764,14.003,11.808,5.8824,2.8479,7.1478,12.121,5.817,6.0606,5.8824,2.8479,11.707,24.103001,4.9431,31.156,8.9552,13.0,8.9782,2.8479,33.629002,2.0813
15.764,10.988,10.813,3.9216,0.90615,4.055,11.111,6.7974,5.0505,3.9216,0.90615,7.8049,23.141001,7.8699,32.160999,12.935,18.0,18.023001,-7.8317,33.629002,4.0325
8.867,7.9732,6.8325,0.98039,-1.0356,0.9622,5.0505,3.8562,1.0101,0.98039,-1.0356,3.9024,15.449,10.797,20.101,12.935,14.0,17.018,-10.744,16.879999,6.9593
4.9261,5.9631,3.8474,1.9608,-1.0356,5.0859,3.0303,6.7974,-2.0202,1.9608,-1.0356,3.9024,10.641,14.699,11.055,12.935,11.0,15.008,-5.89,9.9836,8.9106
0.98522,3.9531,2.8524,0.98039,-1.0356,3.0241,2.0202,3.8562,-1.0101,0.98039,-1.0356,2.9268,5.8333,12.748,5.0251,9.9502,9.0,-17.152,-1.0356,3.087,5.0081
-8.867,-1.072,-1.1277,-2.9412,-6.8608,0.9622,-3.0303,-5.9477,-4.0404,-2.9412,-6.8608,-1.9512,-2.8205,6.8943,-6.0302,6.9652,6.0,-8.1072,-3.9482,-6.7652,1.1057
-5.9113,8.9782,7.8275,-2.9412,-7.8317,0.9622,0.0,-3.0065,-4.0404,-2.9412,-7.8317,3.9024,-4.7436,6.8943,-8.0402,12.935,12.0,12.998,9.644,-15.632,7.935
-3.9409,8.9782,10.813,-3.9216,-6.8608,0.9622,3.0303,-2.0261,-2.0202,-3.9216,-6.8608,5.8537,-13.397,-2.8618,-15.075,7.9602,7.0,-3.0821,14.498,-22.528999,4.0325
-12.808,-3.0821,1.8574,-7.8431,-8.8026,-5.2234,-2.0202,-4.9673,-3.0303,-7.8431,-8.8026,-0.97561,-28.782,-17.496,-29.146,-9.9502,-11.0,-9.1122,2.8479,-31.396,-7.6748
-11.823,-16.146999,-6.1028,-9.8039,-12.686,-8.3162,-9.0909,-8.8889,-9.0909,-9.8039,-12.686,-5.8537,-29.743999,-23.35,-32.160999,-27.861,-26.0,-11.122,-12.686,-30.410999,-16.455
-19.704,-35.243,-21.028,-13.725,-18.511,-14.502,-21.212,-6.9281,-17.172001,-13.725,-18.511,-17.561001,-27.820999,-31.153999,-35.175999,-49.750999,-42.0,-13.132,-30.162001,-25.483999,-31.089001
-25.615999,-42.278,-30.978001,-20.587999,-26.278,-24.811001,-30.302999,-17.712,-23.232,-20.587999,-26.278,-28.292999,-15.321,-31.153999,-28.141001,-55.721001,-43.0,-19.162001,-33.074001,-10.706,-37.918999
-15.764,-26.198,-22.023001,-21.569,-23.365999,-23.780001,-24.242001,-19.673,-18.181999,-21.569,-23.365999,-24.389999,-3.7821,-22.374001,-11.055,-37.811001,-25.0,-0.067,-13.657,2.1018,-28.163
-6.8966,-4.0871,-9.0879,-17.646999,-16.57,-19.656,-15.152,-14.771,-9.0909,-17.646999,-16.57,-15.61,4.8718,-4.813,3.0151,-7.9602,-5.0,6.9682,0.90615,7.0279,-6.6992
9.8522,12.998,6.8325,-13.725,-11.715,-10.378,-3.0303,-9.8693,-1.0101,-13.725,-11.715,-4.878,13.526,10.797,20.101,19.9,14.0,10.988,6.7314,17.865,16.715
17.733999,16.013,13.798,-9.8039,-5.89,-5.2234,3.0303,-4.9673,6.0606,-9.8039,-5.89,1.9512,21.218,16.65,27.136,30.846001,22.0,2.9481,5.7605,26.732,25.496
6.8966,3.9531,4.8425,-15.686,-11.715,-10.378,-5.0505,-9.8693,-2.0202,-15.686,-11.715,-5.8537,18.333,18.601999,18.09,24.875999,15.0,-3.0821,1.877,22.791,21.593
-5.9113,-1.072,0.86235,-17.646999,-17.540001,-14.502,-13.131,-10.85,-9.0909,-17.646999,-17.540001,-9.7561,6.7949,14.699,2.0101,17.91,8.0,-10.117,0.90615,2.1018,16.715
-9.8522,-4.0871,-0.13267,-18.627001,-19.482,-14.502,-13.131,-14.771,-13.131,-18.627001,-19.482,-10.732,-2.8205,7.8699,-11.055,9.9502,3.0,-14.137,-2.9773,-15.632,6.9593
-7.8818,-1.072,1.8574,-15.686,-15.599,-10.378,-7.0707,-10.85,-7.0707,-15.686,-15.599,-4.878,-9.5513,-2.8618,-15.075,1.99,0.0,5.9631,1.877,-17.603001,-1.8211
-0.98522,-3.0821,1.8574,-13.725,-12.686,-4.1924,-1.0101,-7.9085,-3.0303,-13.725,-12.686,-0.97561,-9.5513,-8.7154,-10.05,-6.9652,-2.0,11.993,-0.06472,-15.632,-12.553
4.9261,-7.1022,-1.1277,-14.706,-12.686,-3.1615,-2.0202,-5.9477,-3.0303,-14.706,-12.686,-0.97561,-6.6667,-9.6911,-2.0101,-13.93,-2.0,-12.127,-7.8317,-11.691,-19.382
-0.98522,-7.1022,-5.1078,-16.667,-15.599,-7.2852,-3.0303,-8.8889,-4.0404,-16.667,-15.599,-3.9024,-6.6667,-9.6911,-1.005,-15.92,-4.0,-19.162001,-5.89,-10.706,-18.407
-1.9704,-7.1022,-7.0978,-16.667,-15.599,-9.3471,-5.0505,-14.771,-4.0404,-16.667,-15.599,-5.8537,-5.7051,-6.7642,1.005,-15.92,-6.0,-15.142,-1.0356,-11.691,-18.407
-5.9113,-8.1072,-10.083,-11.765,-9.7735,-9.3471,-6.0606,-8.8889,-3.0303,-11.765,-9.7735,-6.8293,-1.859,-3.8374,0.0,-15.92,-9.0,-4.0871,-3.9482,-5.78,-16.455
-3.9409,-7.1022,-9.0879,-10.784,-10.744,-10.378,-9.0909,-6.9281,-8.0808,-10.784,-10.744,-9.7561,6.7949,2.0163,5.0251,-7.9602,-6.0,10.988,-13.657,8.9984,-8.6504
4.9261,3.9531,0.86235,-7.8431,-9.7735,-5.2234,-6.0606,-3.9869,-9.0909,-7.8431,-9.7735,-4.878,19.295,14.699,17.084999,10.945,11.0,19.028,-0.06472,21.806,7.935
3.9409,7.9732,5.8375,-7.8431,-8.8026,-3.1615,-5.0505,-3.0065,-8.0808,-7.8431,-8.8026,-3.9024,26.025999,24.455,22.111,25.871,23.0,-3.0821,6.7314,22.791,19.642
0.98522,4.9581,4.8425,-10.784,-9.7735,-8.3162,-8.0808,-10.85,-8.0808,-10.784,-9.7735,-5.8537,25.063999,28.358,20.101,29.851,25.0,-10.117,5.7605,17.865,26.472
2.9557,6.9682,6.8325,-8.8235,-6.8608,-5.2234,-3.0303,-5.9477,-3.0303,-8.8235,-6.8608,-3.9024,22.179001,27.382,18.09,27.861,25.0,-8.1072,8.6731,13.924,26.472
0.98522,5.9631,4.8425,-4.902,-4.9191,-3.1615,-2.0202,0.91503,-3.0303,-4.902,-4.9191,-1.9512,8.7179,14.699,8.0402,18.905001,16.0,-0.067,8.6731,3.087,15.74
1.9704,3.9531,1.8574,-3.9216,-2.9773,0.9622,-2.0202,-0.06536,-1.0101,-3.9216,-2.9773,-1.9512,-2.8205,4.9431,2.0101,9.9502,8.0,7.9732,3.8188,-3.8095,3.0569
1.9704,4.9581,2.8524,-3.9216,-3.9482,0.9622,-1.0101,-3.0065,-1.0101,-3.9216,-3.9482,-0.97561,-4.7436,-2.8618,-1.005,5.9701,5.0,-6.0972,-5.89,-3.8095,-5.7236
-4.9261,3.9531,0.86235,-6.8627,-4.9191,-1.0997,0.0,-5.9477,-2.0202,-6.8627,-4.9191,-1.9512,-14.359,-17.496,-12.06,-0.99502,-2.0,-18.157,-9.7735,-17.603001,-14.504
-7.8818,0.93802,-3.1177,-8.8235,-5.89,-4.1924,-1.0101,-9.8693,-3.0303,-8.8235,-5.89,-2.9268,-18.205,-24.325001,-17.084999,-7.9602,-8.0,-12.127,-4.9191,-24.499001,-16.455
0.98522,-0.067,-3.1177,-8.8235,-4.9191,-2.1306,2.0202,-5.9477,2.0202,-8.8235,-4.9191,-0.97561,-5.7051,-13.593,-7.0352,-6.9652,-6.0,-3.0821,0.90615,-11.691,-9.626
-4.9261,-13.132,-14.063,-14.706,-11.715,-10.378,-9.0909,-7.9085,-4.0404,-14.706,-11.715,-10.732,0.0641,-9.6911,-6.0302,-16.915001,-13.0,-2.0771,-6.8608,-3.8095,-10.602
0.0,-15.142,-13.068,-12.745,-10.744,-8.3162,-11.111,-4.9673,-5.0505,-12.745,-10.744,-11.707,6.7949,-0.91057,5.0251,-17.91,-9.0,18.023001,-10.744,8.9984,-6.6992
9.8522,-7.1022,-6.1028,-9.8039,-7.8317,-6.2543,-8.0808,-4.9673,-3.0303,-9.8039,-7.8317,-8.7805,9.6795,5.9187,15.075,-9.9502,0.0,4.9581,-2.9773,11.954,0.13008
10.837,3.9531,0.86235,-8.8235,-4.9191,-7.2852,-2.0202,-11.83,4.0404,-8.8235,-4.9191,-6.8293,13.526,13.724,22.111,6.9652,13.0,-14.137,13.528,15.895,7.935
14.778,18.023001,12.803,-3.9216,0.90615,-3.1615,7.0707,-8.8889,9.0909,-3.9216,0.90615,1.9512,25.063999,27.382,31.156,27.861,31.0,11.993,21.294001,24.761999,14.764
22.66,25.059,21.757999,2.9412,5.7605,4.055,15.152,-2.0261,10.101,2.9412,5.7605,12.683,27.948999,30.309,33.166,38.806,39.0,19.028,21.294001,28.702999,18.667
11.823,21.039,18.773001,3.9216,5.7605,4.055,13.131,-0.06536,7.0707,3.9216,5.7605,11.707,19.295,24.455,21.106001,35.820999,32.0,6.9682,12.557,18.851,18.667
0.0,11.993,10.813,0.0,-2.0065,-3.1615,5.0505,-2.0261,-1.0101,0.0,-2.0065,3.9024,8.7179,13.724,8.0402,23.881001,19.0,0.93802,-6.8608,6.0427,9.8862
-0.98522,5.9631,5.8375,-5.8824,-3.9482,-7.2852,2.0202,-2.0261,1.0101,-5.8824,-3.9482,-2.9268,3.9103,5.9187,2.0101,12.935,9.0,-7.1022,-10.744,-0.85386,5.0081
-7.8818,-1.072,-2.1227,-10.784,-7.8317,-14.502,-3.0303,-12.81,2.0202,-10.784,-7.8317,-8.7805,2.9487,-0.91057,-4.0201,0.99502,0.0,-25.193001,4.7896,-5.78,1.1057
-7.8818,-6.0972,-5.1078,-11.765,-8.8026,-14.502,-6.0606,-12.81,0.0,-11.765,-8.8026,-11.707,7.7564,4.9431,-2.0101,-1.99,-1.0,-4.0871,1.877,1.1166,3.0569
-5.9113,-11.122,-8.0929,-11.765,-10.744,-14.502,-13.131,-9.8693,-5.0505,-11.765,-10.744,-14.634,2.9487,-0.91057,-4.0201,-7.9602,-5.0,1.943,-10.744,-1.8391,0.13008
-5.9113,-13.132,-12.073,-17.646999,-18.511,-14.502,-17.172001,-13.791,-14.141,-17.646999,-18.511,-17.561001,-5.7051,-10.667,-6.0302,-13.93,-9.0,3.9531,-2.9773,-4.7947,-11.577
0.98522,-7.1022,-8.0929,-17.646999,-17.540001,-12.44,-13.131,-14.771,-10.101,-17.646999,-17.540001,-13.659,-0.89744,-7.7398,2.0101,-8.9552,-5.0,3.9531,-2.0065,5.0575,-8.6504
-4.9261,-7.1022,-9.0879,-13.725,-9.7735,-14.502,-9.0909,-14.771,-1.0101,-13.725,-9.7735,-13.659,-1.859,-4.813,2.0101,-4.9751,-5.0,-12.127,-5.89,4.0722,-4.748
3.9409,4.9581,-0.13267,-7.8431,-2.0065,-8.3162,1.0101,-10.85,7.0707,-7.8431,-2.0065,-3.9024,10.641,11.772,14.07,8.9552,7.0,-8.1072,15.469,13.924,9.8862
9.8522,12.998,6.8325,-4.902,2.8479,-1.0997,6.0606,-3.9869,10.101,-4.902,2.8479,0.97561,16.41,21.528,19.094999,19.9,16.0,-4.0871,17.410999,17.865,20.618
5.9113,9.9832,5.8375,-2.9412,4.7896,-3.1615,5.0505,-3.9869,11.111,-2.9412,4.7896,0.0,8.7179,17.625999,12.06,18.905001,15.0,-1.072,9.644,9.9836,21.593
3.9409,5.9631,5.8375,-0.98039,5.7605,-3.1615,3.0303,-6.9281,13.131,-0.98039,5.7605,-0.97561,4.8718,12.748,6.0302,12.935,11.0,4.9581,-1.0356,-1.8391,13.789
11.823,11.993,12.803,1.9608,8.6731,4.055,9.0909,-3.9869,13.131,1.9608,8.6731,6.8293,8.7179,14.699,12.06,14.925,17.0,-3.0821,10.615,0.13136,12.813
18.719,11.993,15.788,0.0,5.7605,4.055,9.0909,-6.9281,8.0808,0.0,5.7605,7.8049,8.7179,10.797,15.075,12.935,18.0,-11.122,9.644,5.0575,5.9837
12.808,6.9682,10.813,-4.902,-0.06472,-1.0997,4.0404,-9.8693,5.0505,-4.902,-0.06472,1.9512,7.7564,6.8943,11.055,7.9602,13.0,1.943,4.7896,2.1018,-0.84553
-1.9704,-4.0871,-2.1227,-10.784,-5.89,-11.409,-4.0404,-12.81,2.0202,-10.784,-5.89,-7.8049,-4.7436,-6.7642,-4.0201,-4.9751,-3.0,12.998,1.877,-4.7947,-7.6748
-3.9409,-3.0821,-4.1128,-15.686,-9.7735,-15.533,-5.0505,-16.732,-1.0101,-15.686,-9.7735,-9.7561,-11.474,-16.52,-7.0352,-10.945,-10.0,-10.117,-2.9773,-6.7652,-5.7236
-5.9113,0.93802,-2.1227,-12.745,-7.8317,-14.502,-1.0101,-15.752,3.0303,-12.745,-7.8317,-6.8293,-12.436,-18.472,-8.0402,-10.945,-12.0,-17.152,2.8479,-5.78,-4.748
-14.778,-5.0921,-7.0978,-17.646999,-11.715,-20.687,-5.0505,-23.594999,0.0,-17.646999,-11.715,-11.707,-21.09,-28.228001,-14.07,-18.905001,-19.0,-13.132,1.877,-6.7652,-16.455
-7.8818,-1.072,-1.1277,-18.627001,-11.715,-17.594999,-2.0202,-25.556,-3.0303,-18.627001,-11.715,-6.8293,-10.513,-15.545,-4.0201,-9.9502,-9.0,-10.117,-2.9773,1.1166,-7.6748
1.9704,4.9581,6.8325,-10.784,-2.9773,-7.2852,5.0505,-17.712,2.0202,-10.784,-2.9773,1.9512,5.8333,5.9187,9.0452,4.9751,6.0,-1.072,-7.8317,8.0131,3.0569
4.9261,8.9782,9.8176,-6.8627,0.90615,-7.2852,7.0707,-12.81,4.0404,-6.8627,0.90615,4.878,15.449,19.577,15.075,14.925,16.0,-3.0821,-4.9191,7.0279,7.935
4.9261,10.988,11.808,-5.8824,0.90615,-5.2234,7.0707,-9.8693,5.0505,-5.8824,0.90615,4.878,20.256001,27.382,16.08,21.891001,22.0,-3.0821,-2.0065,5.0575,14.764
7.8818,9.9832,10.813,-3.9216,-1.0356,-3.1615,6.0606,-9.8693,1.0101,-3.9216,-1.0356,4.878,20.256001,25.431,14.07,20.896,21.0,-3.0821,-3.9482,7.0279,12.813
11.823,12.998,13.798,1.9608,4.7896,8.1787,12.121,-1.0458,1.0101,1.9608,4.7896,11.707,19.295,23.48,13.065,16.915001,18.0,0.93802,-4.9191,16.879999,8.9106
3.9409,12.998,10.813,5.8824,9.644,8.1787,14.141,-1.0458,7.0707,5.8824,9.644,15.61,4.8718,7.8699,0.0,6.9652,6.0,0.93802,12.557,-0.85386,0.13008
-2.9557,3.9531,2.8524,3.9216,7.7023,3.0241,10.101,-5.9477,4.0404,3.9216,7.7023,8.7805,-9.5513,-10.667,-12.06,-6.9652,-7.0,-6.0972,-0.06472,-17.603001,-8.6504
-9.8522,-6.0972,-7.0978,-1.9608,3.8188,-5.2234,3.0303,-12.81,0.0,-1.9608,3.8188,0.97561,-23.974001,-21.398001,-20.101,-16.915001,-18.0,-18.157,-10.744,-24.499001,-11.577
-14.778,-13.132,-14.063,-5.8824,-1.0356,-10.378,-2.0202,-17.712,1.0101,-5.8824,-1.0356,-4.878,-35.513,-34.081001,-27.136,-23.881001,-25.0,-11.122,-12.686,-30.410999,-15.48
-11.823,-18.157,-17.048,-10.784,-5.89,-12.44,-8.0808,-16.732,0.0,-10.784,-5.89,-9.7561,-37.436001,-38.959,-24.121,-27.861,-27.0,-14.137,-12.686,-23.514,-24.26
-11.823,-15.142,-16.052999,-14.706,-10.744,-14.502,-10.101,-18.693001,-7.0707,-14.706,-10.744,-13.659,-34.550999,-35.056999,-20.101,-22.886,-22.0,-29.212999,-7.8317,-20.558001,-25.236
0.0,2.9481,-4.1128,-10.784,-6.8608,-6.2543,-1.0101,-15.752,0.0,-10.784,-6.8608,-4.878,-14.359,-14.569,-1.005,-3.9801,-3.0,-12.127,8.6731,-6.7652,-8.6504
2.9557,2.9481,-3.1177,-8.8235,-4.9191,-8.3162,-1.0101,-13.791,3.0303,-8.8235,-4.9191,-6.8293,-0.89744,-4.813,6.0302,2.9851,2.0,-1.072,7.7023,1.1166,-1.8211
-0.98522,-3.0821,-5.1078,-10.784,-7.8317,-9.3471,-6.0606,-10.85,-1.0101,-10.784,-7.8317,-9.7561,7.7564,4.9431,7.0352,4.9751,2.0,-0.067,-12.686,5.0575,-0.84553
-5.9113,-4.0871,-5.1078,-12.745,-12.686,-11.409,-10.101,-12.81,-7.0707,-12.745,-12.686,-11.707,15.449,15.675,7.0352,7.9602,5.0,-2.0771,-19.482,7.0279,5.0081
-8.867,-6.0972,-8.0929,-15.686,-13.657,-12.44,-12.121,-13.791,-9.0909,-15.686,-13.657,-14.634,15.449,18.601999,7.0352,7.9602,6.0,-9.1122,-7.8317,8.9984,7.935
-6.8966,-5.0921,-8.0929,-13.725,-11.715,-12.44,-10.101,-9.8693,-6.0606,-13.725,-11.715,-12.683,13.526,16.65,6.0302,6.9652,7.0,-7.1022,-2.9773,8.9984,8.9106
-3.9409,-5.0921,-8.0929,-9.8039,-9.7735,-8.3162,-7.0707,-8.8889,-1.0101,-9.8039,-9.7735,-9.7561,7.7564,11.772,1.005,2.9851,4.0,-8.1072,17.410999,1.1166,9.8862
-10.837,-15.142,-14.063,-14.706,-15.599,-12.44,-13.131,-8.8889,-10.101,-14.706,-15.599,-13.659,-4.7436,-1.8862,-11.055,-8.9552,-6.0,2.9481,-2.9773,-9.7209,-1.8211
-8.867,-19.162001,-13.068,-17.646999,-16.57,-13.471,-13.131,-12.81,-15.152,-17.646999,-16.57,-12.683,-9.5513,-8.7154,-12.06,-17.91,-10.0,7.9732,-29.191,-12.677,-11.577
-7.8818,-20.167999,-10.083,-17.646999,-16.57,-13.471,-13.131,-19.673,-13.131,-17.646999,-16.57,-10.732,-21.09,-22.374001,-15.075,-27.861,-18.0,-21.173,-29.191,-17.603001,-22.309
-6.8966,-16.146999,-6.1028,-13.725,-8.8026,-8.3162,-7.0707,-17.712,-4.0404,-13.725,-8.8026,-6.8293,-25.896999,-31.153999,-16.08,-30.846001,-21.0,-29.212999,-11.715,-17.603001,-27.187
-7.8818,-15.142,-8.0929,-13.725,-8.8026,-9.3471,-9.0909,-17.712,-1.0101,-13.725,-8.8026,-6.8293,-25.896999,-32.130001,-16.08,-26.865999,-21.0,-19.162001,-0.06472,-17.603001,-24.26
-11.823,-16.146999,-12.073,-18.627001,-14.628,-16.563999,-15.152,-18.693001,-6.0606,-18.627001,-14.628,-13.659,-30.705,-33.105999,-16.08,-20.896,-21.0,-19.162001,-8.8026,-17.603001,-20.358
-8.867,-14.137,-11.078,-19.608,-17.540001,-18.625,-16.162001,-19.673,-6.0606,-19.608,-17.540001,-14.634,-23.974001,-26.275999,-11.055,-13.93,-17.0,1.943,-11.715,-10.706,-13.528
-7.8818,-11.122,-9.0879,-17.646999,-17.540001,-14.502,-14.141,-9.8693,-6.0606,-17.646999,-17.540001,-11.707,-8.5897,-11.642,-5.0251,-5.9701,-11.0,10.988,-6.8608,-0.85386,-5.7236
-10.837,-10.117,-11.078,-18.627001,-19.482,-16.563999,-14.141,-10.85,-8.0808,-18.627001,-19.482,-13.659,0.0641,-0.91057,-4.0201,-4.9751,-10.0,-4.0871,-4.9191,2.1018,-2.7967
-4.9261,-5.0921,-9.0879,-15.686,-15.599,-13.471,-10.101,-11.83,-5.0505,-15.686,-15.599,-10.732,7.7564,9.8211,0.0,-0.99502,-6.0,-30.218,-1.0356,5.0575,2.0813
-14.778,-7.1022,-11.078,-16.667,-16.57,-12.44,-10.101,-15.752,-8.0808,-16.667,-16.57,-13.659,2.9487,8.8455,-9.0452,-2.9851,-9.0,-25.193001,-4.9191,-5.78,1.1057
-18.719,-10.117,-12.073,-14.706,-14.628,-13.471,-11.111,-11.83,-8.0808,-14.706,-14.628,-12.683,-3.7821,3.9675,-15.075,-6.9652,-10.0,-4.0871,-13.657,-14.647,-2.7967
-12.808,-9.1122,-9.0879,-14.706,-11.715,-9.3471,-7.0707,-9.8693,-3.0303,-14.706,-11.715,-9.7561,-5.7051,1.0407,-10.05,-6.9652,-5.0,-0.067,-20.452999,-15.632,-0.84553
-11.823,-10.117,-7.0978,-18.627001,-15.599,-12.44,-8.0808,-11.83,-3.0303,-18.627001,-15.599,-9.7561,-11.474,-10.667,-13.065,-11.94,-7.0,-18.157,-19.482,-16.617001,-8.6504
-15.764,-9.1122,-7.0978,-18.627001,-14.628,-12.44,-4.0404,-13.791,1.0101,-18.627001,-14.628,-9.7561,-17.243999,-17.496,-18.09,-16.915001,-13.0,-19.162001,-8.8026,-20.558001,-16.455
-22.66,-10.117,-12.073,-18.627001,-12.686,-16.563999,-6.0606,-18.693001,-3.0303,-18.627001,-12.686,-11.707,-20.128,-18.472,-26.131001,-20.896,-19.0,-18.157,-1.0356,-25.483999,-21.333
-24.631001,-15.142,-17.048,-20.587999,-15.599,-18.625,-11.111,-21.634001,-9.0909,-20.587999,-15.599,-17.561001,-21.09,-18.472,-27.136,-23.881001,-21.0,-26.198,-16.57,-26.469999,-25.236
-14.778,-12.127,-14.063,-20.587999,-15.599,-18.625,-11.111,-18.693001,-7.0707,-20.587999,-15.599,-14.634,-22.051001,-18.472,-20.101,-18.905001,-15.0,-24.188,-23.365999,-26.469999,-24.26
-13.793,-8.1072,-10.083,-19.608,-12.686,-15.533,-8.0808,-19.673,-3.0303,-19.608,-12.686,-11.707,-22.051001,-20.423,-15.075,-12.935,-11.0,-11.122,-12.686,-23.514,-21.333
-9.8522,-1.072,-3.1177,-18.627001,-11.715,-13.471,-5.0505,-17.712,2.0202,-18.627001,-11.715,-7.8049,-16.282,-17.496,-5.0251,-4.9751,-7.0,-4.0871,-0.06472,-12.677,-12.553
-9.8522,-0.067,-4.1128,-22.549,-17.540001,-15.533,-7.0707,-14.771,-3.0303,-22.549,-17.540001,-11.707,-9.5513,-16.52,-3.0151,-2.9851,-8.0,-19.162001,1.877,-3.8095,-7.6748
-5.9113,-3.0821,-9.0879,-25.49,-23.365999,-17.594999,-12.121,-20.653999,-7.0707,-25.49,-23.365999,-15.61,0.0641,-11.642,-1.005,-2.9851,-10.0,-16.146999,4.7896,7.0279,0.13008
-10.837,-7.1022,-15.058,-25.49,-23.365999,-19.656,-15.152,-20.653999,-7.0707,-25.49,-23.365999,-19.511999,8.7179,1.0407,-3.0151,-2.9851,-12.0,-8.1072,3.8188,13.924,8.9106
-26.601,-16.146999,-24.013,-27.451,-25.306999,-24.811001,-20.202,-19.673,-7.0707,-27.451,-25.306999,-25.365999,9.6795,5.9187,-13.065,-10.945,-18.0,-7.1022,-0.06472,7.0279,6.9593
-35.467999,-27.202999,-31.973,-30.392,-27.249001,-29.966,-23.232,-23.594999,-9.0909,-30.392,-27.249001,-30.243999,2.9487,2.0163,-23.115999,-22.886,-25.0,-9.1122,-15.599,-6.7652,-2.7967
-37.438,-30.218,-33.964001,-29.412001,-26.278,-29.966,-24.242001,-25.556,-9.0909,-29.412001,-26.278,-29.268,-4.7436,-2.8618,-27.136,-25.871,-24.0,-17.152,-21.424,-19.573,-8.6504
-28.570999,-22.177999,-26.997999,-24.51,-23.365999,-23.780001,-21.212,-20.653999,-9.0909,-24.51,-23.365999,-23.415001,-12.436,-8.7154,-23.115999,-18.905001,-18.0,-21.173,-13.657,-26.469999,-10.602
-11.823,-7.1022,-12.073,-19.608,-16.57,-15.533,-11.111,-16.732,-3.0303,-19.608,-16.57,-14.634,-12.436,-6.7642,-12.06,-5.9701,-5.0,-22.177999,1.877,-21.544001,-7.6748
-0.98522,-0.067,-1.1277,-13.725,-11.715,-9.3471,-5.0505,-15.752,3.0303,-13.725,-11.715,-5.8537,-15.321,-11.642,-5.0251,-2.9851,0.0,-12.127,1.877,-11.691,-10.602
-6.8966,0.93802,-1.1277,-15.686,-9.7735,-9.3471,-3.0303,-16.732,5.0505,-15.686,-9.7735,-5.8537,-18.205,-14.569,-8.0402,-5.9701,-4.0,-9.1122,-2.0065,-11.691,-13.528
-10.837,-1.072,-4.1128,-17.646999,-12.686,-16.563999,-7.0707,-20.653999,-2.0202,-17.646999,-12.686,-10.732,-11.474,-12.618,-6.0302,-5.9701,-5.0,-11.122,4.7896,-6.7652,-11.577
-11.823,-9.1122,-8.0929,-24.51,-20.452999,-21.718,-14.141,-25.556,-11.111,-24.51,-20.452999,-17.561001,-7.6282,-10.667,-4.0201,-5.9701,-5.0,-16.146999,-8.8026,-2.8243,-6.6992
-21.674999,-14.137,-13.068,-29.412001,-27.249001,-28.934999,-20.202,-23.594999,-16.162001,-29.412001,-27.249001,-23.415001,-8.5897,-11.642,-8.0402,-5.9701,-6.0,-15.142,-15.599,-5.78,-5.7236
-21.674999,-15.142,-14.063,-31.372999,-29.191,-29.966,-22.222,-23.594999,-15.152,-31.372999,-29.191,-27.316999,-5.7051,-9.6911,-8.0402,-5.9701,-5.0,-2.0771,-11.715,-7.7504,-5.7236
-16.749001,-15.142,-17.048,-34.313999,-32.104,-29.966,-26.263,-21.634001,-17.172001,-34.313999,-32.104,-28.292999,-0.89744,-3.8374,-6.0302,-4.9751,-6.0,-20.167999,-5.89,-7.7504,-3.7724
-14.778,-14.137,-19.038,-33.333,-33.074001,-22.749001,-23.232,-15.752,-15.152,-33.333,-33.074001,-25.365999,0.0641,1.0407,-9.0452,-4.9751,-9.0,-12.127,-6.8608,-8.7356,-2.7967
-4.9261,-9.1122,-13.068,-25.49,-23.365999,-13.471,-15.152,-9.8693,-9.0909,-25.49,-23.365999,-16.584999,3.9103,9.8211,-3.0151,-3.9801,-7.0,6.9682,-8.8026,0.13136,0.13008
-6.8966,-15.142,-14.063,-25.49,-23.365999,-15.533,-15.152,-16.732,-12.121,-25.49,-23.365999,-16.584999,-0.89744,4.9431,-7.0352,-10.945,-11.0,-17.152,-9.7735,0.13136,-5.7236
-15.764,-18.157,-16.052999,-25.49,-20.452999,-19.656,-13.131,-16.732,-8.0808,-25.49,-20.452999,-16.584999,-3.7821,1.0407,-14.07,-15.92,-16.0,-9.1122,-2.9773,-4.7947,-5.7236
-30.542,-22.177999,-25.007999,-26.471001,-19.482,-25.841999,-16.162001,-22.614,-6.0606,-26.471001,-19.482,-20.488001,-10.513,-4.813,-26.131001,-21.891001,-25.0,-6.0972,-4.9191,-15.632,-4.748
-31.527,-16.146999,-25.007999,-23.528999,-17.540001,-25.841999,-13.131,-22.614,0.0,-23.528999,-17.540001,-20.488001,-19.167,-12.618,-29.146,-19.9,-26.0,-21.173,1.877,-20.558001,-3.7724
-18.719,-4.0871,-14.063,-15.686,-8.8026,-16.563999,-6.0606,-14.771,6.0606,-15.686,-8.8026,-10.732,-17.243999,-14.569,-21.106001,-10.945,-15.0,-12.127,9.644,-18.587999,-4.748
-10.837,0.93802,-6.1028,-9.8039,-3.9482,-11.409,-2.0202,-11.83,4.0404,-9.8039,-3.9482,-5.8537,-12.436,-16.52,-13.065,-5.9701,-5.0,-16.146999,-1.0356,-18.587999,-13.528
-5.9113,3.9531,-3.1177,-5.8824,-2.9773,-10.378,0.0,-8.8889,2.0202,-5.8824,-2.9773,-3.9024,-12.436,-20.423,-6.0302,-3.9801,-2.0,-19.162001,-0.06472,-13.662,-16.455
3.9409,6.9682,0.86235,-8.8235,-8.8026,-7.2852,0.0,-8.8889,-1.0101,-8.8235,-8.8026,-3.9024,-1.859,-10.667,5.0251,3.9801,5.0,2.9481,-2.9773,0.13136,-7.6748
4.9261,4.9581,0.86235,-13.725,-14.628,-10.378,-3.0303,-10.85,-4.0404,-13.725,-14.628,-5.8537,3.9103,0.06504,9.0452,8.9552,6.0,12.998,-12.686,8.0131,4.0325
-0.98522,-1.072,-5.1078,-19.608,-17.540001,-14.502,-8.0808,-10.85,-5.0505,-19.608,-17.540001,-12.683,1.9872,5.9187,3.0151,7.9602,0.0,5.9631,-2.0065,8.9984,8.9106
-5.9113,-1.072,-7.0978,-18.627001,-16.57,-15.533,-9.0909,-9.8693,-1.0101,-18.627001,-16.57,-14.634,2.9487,12.748,-4.0201,6.9652,-3.0,-3.0821,11.586,8.0131,15.74
-13.793,-4.0871,-11.078,-16.667,-14.628,-14.502,-10.101,-7.9085,1.0101,-16.667,-14.628,-16.584999,1.0256,11.772,-12.06,0.99502,-8.0,-11.122,7.7023,-0.85386,13.789
-16.749001,-6.0972,-14.063,-16.667,-14.628,-15.533,-10.101,-3.9869,1.0101,-16.667,-14.628,-16.584999,-1.859,3.9675,-13.065,-4.9751,-10.0,-4.0871,10.615,-5.78,5.0081
-8.867,-5.0921,-12.073,-15.686,-12.686,-13.471,-7.0707,-11.83,2.0202,-15.686,-12.686,-12.683,0.0641,0.06504,-6.0302,-4.9751,-6.0,-9.1122,14.498,-5.78,-0.84553
-2.9557,-1.072,-6.1028,-15.686,-12.686,-14.502,-7.0707,-12.81,3.0303,-15.686,-12.686,-10.732,2.9487,2.0163,3.0151,0.0,2.0,-13.132,7.7023,-2.8243,0.13008
5.9113,4.9581,2.8524,-13.725,-10.744,-8.3162,-6.0606,-4.9673,1.0101,-13.725,-10.744,-7.8049,3.9103,4.9431,11.055,7.9602,10.0,14.003,4.7896,4.0722,5.0081
14.778,8.9782,11.808,-7.8431,-5.89,0.9622,-2.0202,-1.0458,2.0202,-7.8431,-5.89,0.0,2.9487,2.0163,15.075,11.94,14.0,23.049,2.8479,4.0722,5.9837
7.8818,6.9682,11.808,-7.8431,-3.9482,-2.1306,0.0,-2.0261,3.0303,-7.8431,-3.9482,0.0,-2.8205,-3.8374,9.0452,8.9552,11.0,-1.072,-1.0356,-1.8391,3.0569
6.8966,6.9682,12.803,-5.8824,0.90615,-3.1615,3.0303,-3.9869,6.0606,-5.8824,0.90615,0.97561,1.0256,-1.8862,10.05,8.9552,11.0,1.943,2.8479,4.0722,5.9837
8.867,6.9682,11.808,-1.9608,3.8188,-4.1924,4.0404,-2.0261,5.0505,-1.9608,3.8188,1.9512,4.8718,2.9919,12.06,9.9502,13.0,8.9782,8.6731,8.0131,6.9593
5.9113,4.9581,8.8226,-6.8627,-0.06472,-8.3162,0.0,-3.0065,1.0101,-6.8627,-0.06472,-2.9268,6.7949,6.8943,11.055,10.945,13.0,-10.117,14.498,8.9984,6.9593
2.9557,1.943,3.8474,-9.8039,-4.9191,-13.471,-4.0404,-6.9281,-1.0101,-9.8039,-4.9191,-6.8293,6.7949,8.8455,5.0251,8.9552,9.0,-8.1072,4.7896,5.0575,2.0813
-9.8522,-6.0972,-7.0978,-16.667,-9.7735,-18.625,-11.111,-14.771,-3.0303,-16.667,-9.7735,-14.634,-2.8205,1.0407,-10.05,-0.99502,-3.0,-12.127,-0.06472,-8.7356,-5.7236
-24.631001,-11.122,-18.042999,-17.646999,-10.744,-26.872999,-16.162001,-16.732,-3.0303,-17.646999,-10.744,-20.488001,-13.397,-6.7642,-25.125999,-10.945,-17.0,-16.146999,6.7314,-19.573,-7.6748
-21.674999,-7.1022,-16.052999,-13.725,-7.8317,-21.718,-12.121,-9.8693,-1.0101,-13.725,-7.8317,-17.561001,-13.397,-5.7886,-22.111,-11.94,-19.0,3.9531,-0.06472,-15.632,-3.7724
-13.793,-6.0972,-13.068,-12.745,-8.8026,-17.594999,-11.111,-8.8889,-3.0303,-12.745,-8.8026,-13.659,-17.243999,-11.642,-19.094999,-13.93,-21.0,3.9531,-1.0356,-14.647,-3.7724
-16.749001,-10.117,-15.058,-18.627001,-14.628,-17.594999,-13.131,-12.81,-9.0909,-18.627001,-14.628,-16.584999,-22.051001,-17.496,-21.106001,-17.91,-25.0,-8.1072,-3.9482,-14.647,-4.748
-5.9113,-10.117,-11.078,-16.667,-13.657,-13.471,-14.141,-1.0458,-10.101,-16.667,-13.657,-13.659,-12.436,-12.618,-10.05,-12.935,-18.0,-5.0921,-8.8026,-0.85386,-1.8211
-4.9261,-13.132,-10.083,-18.627001,-15.599,-11.409,-15.152,-5.9477,-12.121,-18.627001,-15.599,-15.61,-3.7821,-6.7642,-5.0251,-9.9502,-12.0,-15.142,-16.57,5.0575,-4.748
-14.778,-16.146999,-13.068,-20.587999,-20.452999,-18.625,-19.191999,-12.81,-14.141,-20.587999,-20.452999,-18.537001,-2.8205,-2.8618,-10.05,-7.9602,-10.0,-26.198,-8.8026,-5.78,-5.7236
-9.8522,-9.1122,-8.0929,-15.686,-16.57,-14.502,-13.131,-7.9085,-7.0707,-15.686,-16.57,-14.634,4.8718,7.8699,-4.0201,1.99,0.0,0.93802,1.877,-5.78,1.1057
-4.9261,-3.0821,-4.1128,-12.745,-11.715,-9.3471,-8.0808,-3.9869,-4.0404,-12.745,-11.715,-9.7561,5.8333,10.797,0.0,7.9602,7.0,15.008,0.90615,-4.7947,3.0569
-5.9113,-5.0921,-6.1028,-12.745,-12.686,-9.3471,-10.101,-4.9673,-9.0909,-12.745,-12.686,-10.732,-1.859,2.9919,-3.0151,4.9751,4.0,7.9732,-4.9191,-9.7209,-1.8211
0.98522,-4.0871,-4.1128,-11.765,-13.657,-5.2234,-8.0808,-3.9869,-10.101,-11.765,-13.657,-8.7805,-3.7821,-2.8618,2.0101,1.99,3.0,11.993,-7.8317,-2.8243,-5.7236
5.9113,-2.0771,-0.13267,-6.8627,-7.8317,0.9622,-2.0202,-0.06536,-7.0707,-6.8627,-7.8317,-1.9512,-12.436,-14.569,-1.005,-5.9701,-3.0,-10.117,-3.9482,-3.8095,-13.528
-3.9409,-5.0921,-2.1227,-4.902,-5.89,-1.0997,-1.0101,-0.06536,-8.0808,-4.902,-5.89,-0.97561,-25.896999,-27.252001,-12.06,-15.92,-14.0,-20.167999,-6.8608,-10.706,-21.333
-9.8522,-9.1122,-7.0978,-5.8824,-6.8608,-6.2543,-4.0404,-3.0065,-9.0909,-5.8824,-6.8608,-3.9024,-34.550999,-34.081001,-22.111,-21.891001,-23.0,-9.1122,-11.715,-18.587999,-18.407
-11.823,-8.1072,-9.0879,-6.8627,-5.89,-8.3162,-6.0606,-3.9869,-7.0707,-6.8627,-5.89,-7.8049,-29.743999,-25.301001,-22.111,-18.905001,-22.0,-11.122,-7.8317,-16.617001,-13.528
-12.808,-7.1022,-9.0879,-4.902,-5.89,-9.3471,-8.0808,-1.0458,-7.0707,-4.902,-5.89,-8.7805,-18.205,-11.642,-19.094999,-10.945,-15.0,0.93802,-5.89,-15.632,-7.6748
-8.867,-4.0871,-6.1028,-7.8431,-6.8608,-8.3162,-6.0606,0.91503,-7.0707,-7.8431,-6.8608,-8.7805,-8.5897,-0.91057,-8.0402,0.0,-4.0,5.9631,-8.8026,-9.7209,-2.7967
3.9409,4.9581,2.8524,-3.9216,-3.9482,-1.0997,-2.0202,1.8954,-2.0202,-3.9216,-3.9482,-1.9512,4.8718,11.772,11.055,13.93,12.0,8.9782,5.7605,-0.85386,8.9106
13.793,5.9631,6.8325,-3.9216,-5.89,3.0241,-2.0202,4.8366,-4.0404,-3.9216,-5.89,-0.97561,11.603,10.797,22.111,16.915001,19.0,12.998,10.615,6.0427,1.1057
21.674999,3.9531,9.8176,0.0,-4.9191,8.1787,-4.0404,15.621,-8.0808,0.0,-4.9191,1.9512,18.333,8.8455,30.150999,13.93,22.0,14.003,-2.0065,22.791,-15.48
19.704,5.9631,11.808,2.9412,-1.0356,10.241,0.0,10.719,-10.101,2.9412,-1.0356,4.878,21.218,9.8211,29.146,12.935,22.0,12.998,-8.8026,27.718,-13.528
5.9113,1.943,5.8375,-0.98039,-2.0065,3.0241,-2.0202,2.8758,-10.101,-0.98039,-2.0065,1.9512,12.564,2.0163,11.055,5.9701,11.0,3.9531,-17.540001,13.924,-8.6504
-5.9113,-5.0921,-5.1078,-2.9412,-2.0065,-2.1306,-4.0404,-3.0065,-9.0909,-2.9412,-2.0065,-1.9512,1.9872,-3.8374,-8.0402,-3.9801,-4.0,-3.0821,-16.57,5.0575,-7.6748
-23.645,-19.162001,-23.018,-6.8627,-6.8608,-13.471,-15.152,-9.8693,-17.172001,-6.8627,-6.8608,-13.659,-17.243999,-16.52,-31.156,-17.91,-23.0,-3.0821,-9.7735,-15.632,-9.626
-22.66,-23.183001,-26.997999,-3.9216,-5.89,-9.3471,-16.162001,-5.9477,-16.162001,-3.9216,-5.89,-14.634,-26.858999,-20.423,-36.181,-20.896,-30.0,-4.0871,-2.9773,-27.455,-4.748
-12.808,-18.157,-21.028,0.98039,-3.9482,-1.0997,-13.131,2.8758,-14.141,0.98039,-3.9482,-6.8293,-32.627998,-21.398001,-28.141001,-19.9,-26.0,-2.0771,-3.9482,-24.499001,-3.7724
-4.9261,-10.117,-11.078,2.9412,-1.0356,3.0241,-6.0606,4.8366,-13.131,2.9412,-1.0356,0.0,-33.59,-23.35,-17.084999,-16.915001,-18.0,-20.167999,-1.0356,-22.528999,-4.748
-1.9704,-1.072,-3.1177,5.8824,0.90615,6.1168,-1.0101,3.8562,-11.111,5.8824,0.90615,4.878,-29.743999,-24.325001,-6.0302,-12.935,-10.0,-6.0972,4.7896,-19.573,-9.626
4.9261,6.9682,4.8425,9.8039,1.877,9.2096,3.0303,6.7974,-10.101,9.8039,1.877,7.8049,-17.243999,-16.52,6.0302,-2.9851,0.0,11.993,-4.9191,-7.7504,-7.6748
13.793,17.018,15.788,13.725,7.7023,10.241,11.111,2.8758,-1.0101,13.725,7.7023,13.659,1.9872,4.9431,16.08,15.92,17.0,11.993,-0.06472,7.0279,8.9106
27.586,28.073999,30.712999,20.587999,16.440001,20.549999,19.191999,3.8562,5.0505,20.587999,16.440001,25.365999,25.063999,32.259998,29.146,38.806,35.0,30.084,16.440001,21.806,28.423
28.570999,24.054001,30.712999,14.706,14.498,23.643,17.172001,6.7974,1.0101,14.706,14.498,25.365999,38.526001,45.918999,36.181,45.771,42.0,10.988,8.6731,28.702999,36.228001
15.764,11.993,17.778,6.8627,6.7314,13.333,9.0909,-1.0458,-2.0202,6.8627,6.7314,17.561001,33.717999,38.113998,29.146,36.816002,32.0,-11.122,0.90615,21.806,25.496
9.8522,7.9732,7.8275,1.9608,0.90615,8.1787,7.0707,-6.9281,-4.0404,1.9608,0.90615,10.732,29.872,32.259998,26.131001,28.856001,24.0,-3.0821,-0.06472,20.820999,21.593
5.9113,5.9631,1.8574,0.0,-2.0065,-1.0997,2.0202,-14.771,-5.0505,0.0,-2.0065,4.878,26.987,26.407,20.101,22.886,17.0,-2.0771,0.90615,20.820999,19.642
0.0,-0.067,-4.1128,-2.9412,-3.9482,-7.2852,-4.0404,-20.653999,-6.0606,-2.9412,-3.9482,-1.9512,13.526,12.748,7.0352,9.9502,6.0,11.993,-0.06472,12.939,5.9837
-2.9557,-3.0821,-3.1177,-6.8627,-6.8608,-13.471,-7.0707,-18.693001,-7.0707,-6.8627,-6.8608,-5.8537,-8.5897,-1.8862,-8.0402,0.99502,-3.0,9.9832,0.90615,-6.7652,-1.8211
-5.9113,-3.0821,-0.13267,-11.765,-6.8608,-15.533,-5.0505,-16.732,-3.0303,-11.765,-6.8608,-7.8049,-28.782,-16.52,-21.106001,-8.9552,-10.0,-4.0871,6.7314,-28.440001,-14.504
-12.808,-8.1072,-3.1177,-15.686,-12.686,-14.502,-9.0909,-13.791,-8.0808,-15.686,-12.686,-9.7561,-42.243999,-37.984001,-29.146,-22.886,-20.0,-19.162001,-2.9773,-38.292,-32.064999
-13.793,-9.1122,-6.1028,-16.667,-15.599,-11.409,-10.101,-12.81,-9.0909,-16.667,-15.599,-9.7561,-37.436001,-40.910999,-23.115999,-25.871,-20.0,-14.137,-16.57,-28.440001,-31.089001
-9.8522,-3.0821,-5.1078,-13.725,-14.628,-7.2852,-7.0707,-11.83,-7.0707,-13.725,-14.628,-6.8293,-22.051001,-29.202999,-9.0452,-14.925,-11.0,-2.0771,-3.9482,-10.706,-12.553
-8.867,0.93802,-4.1128,-12.745,-13.657,-8.3162,-7.0707,-12.81,-7.0707,-12.745,-13.657,-7.8049,-1.859,-9.6911,2.0101,0.0,0.0,-10.117,-0.06472,5.0575,4.0325
4.9261,7.9732,3.8474,-8.8235,-8.8026,-3.1615,-8.0808,-8.8889,-1.0101,-8.8235,-8.8026,-4.878,21.218,16.65,18.09,18.905001,16.0,-17.152,13.528,19.836,24.52
8.867,5.9631,4.8425,-11.765,-11.715,-6.2543,-13.131,-7.9085,-2.0202,-11.765,-11.715,-8.7805,24.103001,26.407,19.094999,22.886,19.0,-9.1122,22.264999,16.879999,28.423
4.9261,1.943,5.8375,-14.706,-12.686,-9.3471,-10.101,-4.9673,-1.0101,-14.706,-12.686,-8.7805,18.333,25.431,12.06,17.91,13.0,4.9581,9.644,8.0131,24.52
7.8818,-4.0871,4.8425,-16.667,-12.686,-10.378,-12.121,-7.9085,-1.0101,-16.667,-12.686,-8.7805,8.7179,14.699,3.0151,3.9801,2.0,17.018,-4.9191,-2.8243,9.8862
2.9557,-5.0921,1.8574,-18.627001,-11.715,-9.3471,-10.101,-11.83,1.0101,-18.627001,-11.715,-9.7561,-1.859,3.9675,-10.05,-4.9751,-6.0,0.93802,1.877,-13.662,2.0813
-0.98522,1.943,1.8574,-13.725,-7.8317,-4.1924,-2.0202,-8.8889,7.0707,-13.725,-7.8317,-3.9024,-3.7821,1.0407,-13.065,-3.9801,-5.0,5.9631,16.440001,-13.662,4.0325
-4.9261,2.9481,-1.1277,-12.745,-7.8317,1.9931,2.0202,-3.9869,4.0404,-12.745,-7.8317,-0.97561,-9.5513,-2.8618,-14.07,-5.9701,-7.0,-1.072,19.353001,-14.647,-0.84553
-10.837,-8.1072,-8.0929,-11.765,-7.8317,-2.1306,-3.0303,-4.9673,-2.0202,-11.765,-7.8317,-3.9024,-16.282,-11.642,-16.08,-13.93,-12.0,-23.183001,-11.715,-18.587999,-10.602
-3.9409,-9.1122,-7.0978,-8.8235,-3.9482,-1.0997,-3.0303,-3.9869,1.0101,-8.8235,-3.9482,-4.878,-12.436,-10.667,-5.0251,-12.935,-8.0,-5.0921,-15.599,-5.78,-6.6992
-7.8818,-11.122,-10.083,-8.8235,-6.8608,-9.3471,-7.0707,-8.8889,2.0202,-8.8235,-6.8608,-10.732,-16.282,-17.496,-6.0302,-15.92,-10.0,11.993,-6.8608,-4.7947,-9.626
-10.837,-14.137,-13.068,-13.725,-9.7735,-16.563999,-13.131,-10.85,-4.0404,-13.725,-9.7735,-17.561001,-20.128,-23.35,-8.0402,-18.905001,-14.0,-6.0972,-10.744,-6.7652,-18.407
-5.9113,-4.0871,-5.1078,-14.706,-11.715,-16.563999,-12.121,-10.85,-5.0505,-14.706,-11.715,-14.634,-14.359,-12.618,-3.0151,-8.9552,-7.0,-13.132,12.557,-6.7652,-13.528
-0.98522,5.9631,3.8474,-15.686,-7.8317,-14.502,-6.0606,-11.83,-2.0202,-15.686,-7.8317,-9.7561,-0.89744,2.0163,4.0201,3.9801,4.0,-5.0921,20.323999,-0.85386,0.13008
0.98522,4.9581,6.8325,-19.608,-8.8026,-20.687,-7.0707,-19.673,-3.0303,-19.608,-8.8026,-10.732,14.487,16.65,9.0452,10.945,11.0,-6.0972,-4.9191,10.969,7.935
-9.8522,-2.0771,-1.1277,-26.471001,-18.511,-25.841999,-14.141,-29.476999,-6.0606,-26.471001,-18.511,-19.511999,19.295,25.431,1.005,8.9552,9.0,-20.167999,-16.57,-0.85386,13.789
-17.733999,-3.0821,-5.1078,-25.49,-18.511,-22.749001,-13.131,-28.497,-4.0404,-25.49,-18.511,-18.537001,20.256001,30.309,-2.0101,9.9502,7.0,-20.167999,-7.8317,-6.7652,19.642
-15.764,-4.0871,-6.1028,-20.587999,-12.686,-17.594999,-10.101,-25.556,-5.0505,-20.587999,-12.686,-15.61,23.141001,28.358,-1.005,8.9552,7.0,-27.202999,2.8479,-2.8243,19.642
-5.9113,-4.0871,-2.1227,-15.686,-8.8026,-11.409,-8.0808,-21.634001,-5.0505,-15.686,-8.8026,-11.707,23.141001,21.528,7.0352,6.9652,8.0,-11.122,9.644,8.0131,11.837
1.9704,-2.0771,2.8524,-10.784,-6.8608,-5.2234,-7.0707,-17.712,-5.0505,-10.784,-6.8608,-6.8293,12.564,7.8699,8.0402,3.9801,6.0,8.9782,6.7314,7.0279,4.0325
7.8818,2.9481,9.8176,-8.8235,-7.8317,-3.1615,-7.0707,-9.8693,-3.0303,-8.8235,-7.8317,-2.9268,1.0256,-3.8374,12.06,1.99,7.0,10.988,16.440001,7.0279,-1.8211
7.8818,-0.067,9.8176,-11.765,-9.7735,-6.2543,-12.121,-7.9085,-6.0606,-11.765,-9.7735,-4.878,-7.6282,-12.618,11.055,-2.9851,5.0,2.9481,13.528,4.0722,-7.6748
10.837,-1.072,10.813,-12.745,-12.686,-4.1924,-10.101,-2.0261,-9.0909,-12.745,-12.686,-6.8293,-4.7436,-6.7642,14.07,-0.99502,9.0,1.943,-11.715,8.0131,-5.7236
5.9113,-3.0821,7.8275,-13.725,-15.599,-9.3471,-13.131,-3.0065,-11.111,-13.725,-15.599,-9.7561,-1.859,-0.91057,11.055,2.9851,11.0,-1.072,-17.540001,8.9984,-2.7967
1.9704,-5.0921,1.8574,-19.608,-18.511,-13.471,-18.181999,-8.8889,-14.141,-19.608,-18.511,-15.61,0.0641,1.0407,8.0402,3.9801,9.0,-15.142,-9.7735,3.087,-1.8211
-0.98522,-4.0871,0.86235,-14.706,-15.599,-7.2852,-17.172001,-5.9477,-14.141,-14.706,-15.599,-11.707,1.0256,4.9431,5.0251,6.9652,9.0,-3.0821,-7.8317,-4.7947,2.0813
-0.98522,0.93802,1.8574,-8.8235,-8.8026,-0.06873,-9.0909,-3.0065,-10.101,-8.8235,-8.8026,-5.8537,0.0641,8.8455,6.0302,11.94,11.0,1.943,-3.9482,-3.8095,7.935
10.837,10.988,9.8176,4.902,5.7605,9.2096,2.0202,4.8366,2.0202,4.902,5.7605,5.8537,9.6795,18.601999,16.08,20.896,18.0,10.988,7.7023,7.0279,16.715
21.674999,19.028,16.783001,13.725,16.440001,14.364,10.101,5.817,12.121,13.725,16.440001,12.683,23.141001,32.259998,27.136,28.856001,27.0,22.044001,16.440001,25.747,24.52
7.8818,7.9732,6.8325,5.8824,8.6731,-2.1306,1.0101,-5.9477,3.0303,5.8824,8.6731,0.0,25.063999,27.382,18.09,16.915001,17.0,-11.122,13.528,18.851,16.715
-3.9409,1.943,0.86235,5.8824,8.6731,-4.1924,0.0,0.91503,3.0303,5.8824,8.6731,-2.9268,25.063999,25.431,9.0452,7.9602,9.0,-8.1072,9.644,11.954,11.837
-12.808,-9.1122,-9.0879,1.9608,3.8188,-9.3471,-7.0707,-3.9869,-3.0303,1.9608,3.8188,-7.8049,8.7179,8.8455,-5.0251,-4.9751,-4.0,6.9682,-3.9482,1.1166,5.0081
-9.8522,-11.122,-9.0879,2.9412,4.7896,-7.2852,-6.0606,-5.9477,-3.0303,2.9412,4.7896,-4.878,-3.7821,-2.8618,-7.0352,-8.9552,-8.0,-0.067,-11.715,-6.7652,0.13008
-1.9704,-2.0771,0.86235,9.8039,10.615,1.9931,1.0101,1.8954,2.0202,9.8039,10.615,4.878,-7.6282,-5.7886,-3.0151,-3.9801,0.0,-1.072,-3.9482,-11.691,-3.7724
2.9557,5.9631,9.8176,6.8627,8.6731,5.0859,2.0202,0.91503,2.0202,6.8627,8.6731,7.8049,-5.7051,-3.8374,6.0302,4.9751,9.0,-4.0871,-0.06472,-5.78,-1.8211
11.823,12.998,15.788,2.9412,1.877,7.1478,5.0505,1.8954,2.0202,2.9412,1.877,9.7561,2.9487,1.0407,17.084999,14.925,18.0,0.93802,4.7896,8.9984,5.9837
7.8818,10.988,10.813,0.0,-0.06472,0.9622,1.0101,-3.9869,2.0202,0.0,-0.06472,3.9024,2.9487,0.06504,14.07,13.93,14.0,8.9782,10.615,9.9836,7.935
-7.8818,1.943,-3.1177,-7.8431,-2.9773,-10.378,-7.0707,-7.9085,1.0101,-7.8431,-2.9773,-9.7561,1.0256,2.0163,6.0302,9.9502,7.0,5.9631,6.7314,8.9984,9.8862
-9.8522,-3.0821,-9.0879,-3.9216,-2.0065,-12.44,-10.101,1.8954,2.0202,-3.9216,-2.0065,-11.707,7.7564,14.699,5.0251,10.945,7.0,16.013,9.644,12.939,15.74
-8.867,-11.122,-13.068,-5.8824,-4.9191,-11.409,-16.162001,-0.06536,-5.0505,-5.8824,-4.9191,-13.659,10.641,17.625999,2.0101,7.9602,4.0,6.9682,1.877,6.0427,13.789
-0.98522,-6.0972,-7.0978,2.9412,0.90615,-2.1306,-11.111,1.8954,-1.0101,2.9412,0.90615,-5.8537,17.372,21.528,4.0201,9.9502,6.0,21.039,10.615,5.0575,15.74
3.9409,-4.0871,-4.1128,9.8039,7.7023,5.0859,-4.0404,7.7778,6.0606,9.8039,7.7023,0.0,12.564,12.748,3.0151,3.9801,1.0,-1.072,7.7023,3.087,6.9593
4.9261,0.93802,0.86235,16.667,14.498,11.271,4.0404,11.699,10.101,16.667,14.498,8.7805,8.7179,6.8943,5.0251,0.99502,0.0,-7.1022,0.90615,4.0722,2.0813
2.9557,5.9631,3.8474,21.569,16.440001,15.395,11.111,9.7386,11.111,21.569,16.440001,12.683,2.9487,3.9675,4.0201,1.99,1.0,-5.0921,6.7314,-0.85386,5.9837
-0.98522,5.9631,2.8524,19.608,16.440001,9.2096,9.0909,4.8366,12.121,19.608,16.440001,9.7561,-5.7051,-2.8618,0.0,0.99502,0.0,-3.0821,10.615,-6.7652,4.0325
4.9261,8.9782,8.8226,22.549,20.323999,14.364,11.111,10.719,11.111,22.549,20.323999,12.683,1.9872,6.8943,6.0302,8.9552,8.0,17.018,12.557,0.13136,8.9106
2.9557,2.9481,5.8375,20.587999,17.410999,10.241,5.0505,11.699,6.0606,20.587999,17.410999,7.8049,2.9487,11.772,4.0201,9.9502,9.0,18.023001,1.877,-4.7947,6.9593
1.9704,-0.067,0.86235,16.667,13.528,5.0859,1.0101,5.817,7.0707,16.667,13.528,2.9268,2.9487,7.8699,5.0251,9.9502,9.0,-6.0972,0.90615,-3.8095,5.9837
7.8818,8.9782,7.8275,17.646999,16.440001,8.1787,4.0404,6.7974,12.121,17.646999,16.440001,6.8293,12.564,13.724,16.08,19.9,18.0,-10.117,7.7023,6.0427,11.837
15.764,17.018,16.783001,24.51,20.323999,15.395,9.0909,6.7974,14.141,24.51,20.323999,13.659,19.295,19.577,24.121,25.871,26.0,5.9631,11.586,15.895,15.74
15.764,22.044001,19.768,25.49,22.264999,17.457001,15.152,12.68,15.152,25.49,22.264999,16.584999,19.295,19.577,25.125999,25.871,26.0,16.013,11.586,17.865,18.667
16.749001,23.049,19.768,26.471001,24.207001,15.395,18.181999,14.641,17.172001,26.471001,24.207001,18.537001,16.41,15.675,22.111,22.886,23.0,12.998,12.557,18.851,17.691
6.8966,18.023001,13.798,24.51,24.207001,12.302,16.162001,10.719,16.162001,24.51,24.207001,13.659,10.641,8.8455,13.065,13.93,14.0,4.9581,19.353001,12.939,9.8862
8.867,14.003,13.798,27.451,28.091,14.364,15.152,13.66,11.111,27.451,28.091,15.61,14.487,10.797,11.055,10.945,12.0,18.023001,7.7023,13.924,7.935
12.808,12.998,14.793,29.412001,28.091,16.426001,17.172001,12.68,11.111,29.412001,28.091,16.584999,13.526,12.748,11.055,12.935,13.0,-12.127,-6.8608,10.969,7.935
1.9704,10.988,10.813,31.372999,29.061001,12.302,13.131,4.8366,15.152,31.372999,29.061001,13.659,1.9872,6.8943,-1.005,10.945,8.0,-21.173,4.7896,-4.7947,6.9593
10.837,17.018,15.788,39.216,36.827999,22.612,21.212,15.621,20.202,39.216,36.827999,21.462999,5.8333,11.772,6.0302,17.91,14.0,15.008,15.469,-3.8095,14.764
16.749001,16.013,17.778,44.118,38.77,29.827999,25.253,27.386,20.202,44.118,38.77,25.365999,5.8333,10.797,10.05,15.92,14.0,9.9832,9.644,1.1166,12.813
15.764,7.9732,12.803,40.195999,32.945,29.827999,17.172001,26.405001,18.181999,40.195999,32.945,21.462999,1.9872,5.9187,8.0402,5.9701,7.0,16.013,2.8479,4.0722,4.0325
13.793,4.9581,9.8176,36.275002,28.091,27.766001,10.101,24.444,13.131,36.275002,28.091,17.561001,-4.7436,-2.8618,5.0251,0.0,2.0,22.044001,-5.89,3.087,-1.8211
18.719,11.993,14.793,34.313999,25.177999,28.797001,13.131,27.386,12.121,34.313999,25.177999,19.511999,-2.8205,-1.8862,10.05,4.9751,7.0,9.9832,15.469,7.0279,-0.84553
6.8966,4.9581,7.8275,21.569,12.557,13.333,4.0404,19.542,6.0606,21.569,12.557,7.8049,-7.6282,-2.8618,5.0251,0.99502,4.0,7.9732,9.644,7.0279,-3.7724
-5.9113,-8.1072,-5.1078,5.8824,-1.0356,-4.1924,-9.0909,6.7974,-2.0202,5.8824,-1.0356,-7.8049,-12.436,-8.7154,-3.0151,-6.9652,-3.0,11.993,-13.657,3.087,-8.6504
6.8966,-4.0871,2.8524,5.8824,-1.0356,1.9931,-6.0606,12.68,-3.0303,5.8824,-1.0356,-0.97561,1.9872,0.06504,11.055,0.99502,7.0,21.039,-8.8026,11.954,0.13008
10.837,-0.067,5.8375,10.784,2.8479,10.241,-3.0303,16.601,-4.0404,10.784,2.8479,3.9024,7.7564,2.9919,13.065,3.9801,9.0,10.988,7.7023,10.969,5.0081
7.8818,-0.067,4.8425,12.745,3.8188,11.271,-2.0202,11.699,-2.0202,12.745,3.8188,4.878,11.603,6.8943,9.0452,2.9851,5.0,-5.0921,12.557,10.969,5.0081
1.9704,-7.1022,-2.1227,4.902,-2.9773,4.055,-7.0707,3.8562,-9.0909,4.902,-2.9773,0.0,9.6795,2.9919,2.0101,-4.9751,-4.0,2.9481,-6.8608,8.9984,-6.6992
0.0,-7.1022,-4.1128,0.0,-4.9191,1.9931,-7.0707,-2.0261,-12.121,0.0,-4.9191,-1.9512,5.8333,2.0163,0.0,-5.9701,-6.0,5.9631,-23.365999,7.0279,-8.6504
0.98522,0.93802,-0.13267,0.0,-4.9191,0.9622,-3.0303,-0.06536,-10.101,0.0,-4.9191,0.97561,1.9872,5.9187,0.0,1.99,-1.0,4.9581,-16.57,3.087,2.0813
0.0,4.9581,-0.13267,0.0,-4.9191,-1.0997,0.0,1.8954,-8.0808,0.0,-4.9191,0.97561,-5.7051,2.9919,-1.005,3.9801,0.0,-4.0871,-3.9482,-3.8095,5.0081
5.9113,8.9782,4.8425,4.902,-0.06472,3.0241,5.0505,3.8562,-4.0404,4.902,-0.06472,6.8293,-5.7051,2.0163,2.0101,6.9652,4.0,0.93802,2.8479,-5.78,7.935
7.8818,7.9732,6.8325,4.902,-2.0065,9.2096,3.0303,8.7582,-5.0505,4.902,-2.0065,7.8049,-0.89744,3.9675,6.0302,6.9652,8.0,2.9481,-1.0356,-1.8391,5.9837
6.8966,2.9481,4.8425,4.902,-1.0356,10.241,0.0,9.7386,-8.0808,4.902,-1.0356,6.8293,1.0256,-1.8862,7.0352,3.9801,7.0,9.9832,6.7314,5.0575,-1.8211
8.867,-4.0871,0.86235,1.9608,0.90615,11.271,1.0101,2.8758,-9.0909,1.9608,0.90615,5.8537,-4.7436,-9.6911,6.0302,-2.9851,2.0,-1.072,-2.0065,3.087,-8.6504
12.808,-2.0771,1.8574,4.902,2.8479,12.302,5.0505,5.817,-3.0303,4.902,2.8479,10.732,-3.7821,-9.6911,6.0302,-3.9801,1.0,-10.117,-11.715,1.1166,-7.6748
3.9409,-3.0821,-1.1277,0.0,-0.06472,5.0859,2.0202,1.8954,-5.0505,0.0,-0.06472,5.8537,-6.6667,-10.667,1.005,-4.9751,-3.0,-0.067,-15.599,-0.85386,-12.553
2.9557,1.943,0.86235,-0.98039,-2.9773,0.9622,1.0101,-3.0065,-8.0808,-0.98039,-2.9773,4.878,-1.859,-0.91057,3.0151,1.99,0.0,7.9732,-6.8608,2.1018,-3.7724
0.98522,6.9682,0.86235,-2.9412,-3.9482,-1.0997,0.0,-5.9477,-7.0707,-2.9412,-3.9482,1.9512,1.0256,5.9187,3.0151,7.9602,3.0,-3.0821,12.557,0.13136,5.0081
-0.98522,2.9481,-0.13267,-6.8627,-5.89,-4.1924,-4.0404,-10.85,-9.0909,-6.8627,-5.89,0.0,-0.89744,1.0407,0.0,4.9751,0.0,8.9782,9.644,-2.8243,5.0081
-0.98522,-5.0921,-3.1177,-7.8431,-6.8608,-6.2543,-8.0808,-7.9085,-15.152,-7.8431,-6.8608,-2.9268,-1.859,0.06504,0.0,0.0,-2.0,0.93802,-9.7735,3.087,4.0325
-5.9113,-11.122,-9.0879,-9.8039,-10.744,-12.44,-14.141,-10.85,-18.181999,-9.8039,-10.744,-9.7561,-1.859,-1.8862,-5.0251,-3.9801,-6.0,-1.072,-5.89,-1.8391,1.1057
-5.9113,-12.127,-10.083,-10.784,-11.715,-14.502,-17.172001,-9.8693,-19.191999,-10.784,-11.715,-12.683,1.9872,0.06504,-7.0352,-3.9801,-7.0,1.943,-1.0356,-4.7947,1.1057
-11.823,-14.137,-13.068,-14.706,-14.628,-16.563999,-17.172001,-9.8693,-20.202,-14.706,-14.628,-14.634,-7.6282,-8.7154,-13.065,-7.9602,-12.0,-21.173,-15.599,-11.691,-2.7967
-6.8966,-4.0871,-4.1128,-4.902,-6.8608,-8.3162,-5.0505,-6.9281,-10.101,-4.902,-6.8608,-3.9024,-8.5897,-7.7398,-9.0452,-2.9851,-7.0,-12.127,-1.0356,-11.691,3.0569
2.9557,1.943,3.8474,0.0,-2.0065,0.9622,-1.0101,-3.0065,-5.0505,0.0,-2.0065,3.9024,-6.6667,-4.813,-1.005,0.99502,-1.0,10.988,6.7314,-4.7947,-0.84553
7.8818,-0.067,4.8425,-0.98039,-4.9191,0.9622,-6.0606,-1.0458,-8.0808,-0.98039,-4.9191,2.9268,-9.5513,-7.7398,1.005,-1.99,-1.0,7.9732,-6.8608,-0.85386,-9.626
2.9557,-1.072,3.8474,-0.98039,-5.89,-0.06873,-5.0505,1.8954,-9.0909,-0.98039,-5.89,0.97561,-9.5513,-4.813,1.005,-0.99502,-1.0,9.9832,-8.8026,-0.85386,-6.6992
6.8966,3.9531,7.8275,2.9412,-3.9482,5.0859,1.0101,5.817,-5.0505,2.9412,-3.9482,6.8293,-3.7821,3.9675,6.0302,4.9751,5.0,5.9631,-2.9773,7.0279,4.0325
11.823,6.9682,10.813,6.8627,1.877,10.241,7.0707,9.7386,0.0,6.8627,1.877,9.7561,1.0256,5.9187,9.0452,8.9552,8.0,2.9481,7.7023,8.0131,10.862
4.9261,-0.067,4.8425,0.98039,-0.06472,1.9931,-2.0202,1.8954,-7.0707,0.98039,-0.06472,2.9268,1.9872,1.0407,5.0251,3.9801,3.0,8.9782,-0.06472,6.0427,6.9593
0.98522,-4.0871,0.86235,-5.8824,-3.9482,-0.06873,-6.0606,-7.9085,-10.101,-5.8824,-3.9482,-1.9512,5.8333,-0.91057,3.0151,0.0,1.0,-9.1122,-5.89,4.0722,-0.84553
-1.9704,-5.0921,-2.1227,-6.8627,-8.8026,-5.2234,-9.0909,-3.0065,-12.121,-6.8627,-8.8026,-4.878,6.7949,-0.91057,-1.005,-2.9851,-1.0,-3.0821,-4.9191,-0.85386,-4.748
-4.9261,-7.1022,-6.1028,-5.8824,-9.7735,-6.2543,-10.101,0.91503,-12.121,-5.8824,-9.7735,-7.8049,1.9872,-1.8862,-5.0251,-6.9652,-5.0,11.993,-5.89,-4.7947,-5.7236
0.0,-7.1022,-4.1128,-5.8824,-8.8026,-2.1306,-10.101,1.8954,-13.131,-5.8824,-8.8026,-5.8537,1.0256,-0.91057,-3.0151,-7.9602,-6.0,4.9581,-5.89,-1.8391,-8.6504
-0.98522,-8.1072,-4.1128,-6.8627,-9.7735,-1.0997,-10.101,0.91503,-16.162001,-6.8627,-9.7735,-5.8537,-0.89744,-1.8862,-3.0151,-6.9652,-6.0,8.9782,-15.599,5.0575,-8.6504
0.98522,-2.0771,-0.13267,-2.9412,-4.9191,1.9931,-5.0505,4.8366,-12.121,-2.9412,-4.9191,-0.97561,0.0641,1.0407,-1.005,-0.99502,-2.0,14.003,-12.686,7.0279,0.13008
1.9704,-0.067,-0.13267,0.0,-2.9773,-1.0997,-4.0404,-2.0261,-9.0909,0.0,-2.9773,-1.9512,-2.8205,-1.8862,0.0,0.0,-1.0,-9.1122,1.877,1.1166,0.13008
2.9557,1.943,0.86235,0.98039,-1.0356,-0.06873,-1.0101,-4.9673,-8.0808,0.98039,-1.0356,-1.9512,-6.6667,-4.813,3.0151,1.99,2.0,-5.0921,5.7605,0.13136,0.13008
1.9704,0.93802,0.86235,0.0,-1.0356,-0.06873,-1.0101,-1.0458,-8.0808,0.0,-1.0356,-0.97561,-9.5513,-5.7886,0.0,2.9851,3.0,7.9732,5.7605,-9.7209,-0.84553
2.9557,-0.067,0.86235,0.0,-1.0356,0.9622,0.0,2.8758,-6.0606,0.0,-1.0356,-0.97561,-5.7051,-2.8618,1.005,1.99,4.0,-0.067,-2.0065,-12.677,-3.7724
6.8966,-2.0771,-0.13267,2.9412,-1.0356,1.9931,-1.0101,0.91503,-5.0505,2.9412,-1.0356,0.0,0.0641,-2.8618,3.0151,0.0,2.0,-0.067,-10.744,-2.8243,-2.7967
1.9704,-4.0871,-4.1128,-4.902,-4.9191,-3.1615,-5.0505,-3.0065,-5.0505,-4.902,-4.9191,-5.8537,8.7179,1.0407,5.0251,-2.9851,-1.0,0.93802,-12.686,11.954,-0.84553
-0.98522,-7.1022,-6.1028,-8.8235,-6.8608,-9.3471,-9.0909,-5.9477,-7.0707,-8.8235,-6.8608,-8.7805,13.526,5.9187,5.0251,-2.9851,-3.0,1.943,-9.7735,16.879999,2.0813
2.9557,-3.0821,-5.1078,-5.8824,-4.9191,-2.1306,-5.0505,5.817,-3.0303,-5.8824,-4.9191,-4.878,17.372,9.8211,7.0352,0.0,-1.0,5.9631,5.7605,18.851,4.0325
4.9261,-3.0821,-4.1128,-0.98039,-1.0356,4.055,-1.0101,8.7582,-1.0101,-0.98039,-1.0356,0.0,16.41,8.8455,6.0302,0.99502,0.0,10.988,4.7896,17.865,3.0569
0.0,-0.067,-1.1277,0.98039,2.8479,6.1168,3.0303,6.7974,0.0,0.98039,2.8479,2.9268,7.7564,3.9675,1.005,1.99,1.0,19.028,13.528,6.0427,2.0813
0.0,4.9581,1.8574,4.902,5.7605,5.0859,7.0707,5.817,7.0707,4.902,5.7605,5.8537,-4.7436,-1.8862,-2.0101,3.9801,3.0,7.9732,13.528,-7.7504,4.0325
5.9113,7.9732,4.8425,7.8431,9.644,8.1787,12.121,6.7974,12.121,7.8431,9.644,8.7805,-10.513,-2.8618,1.005,6.9652,6.0,0.93802,-2.0065,-8.7356,5.0081
10.837,14.003,7.8275,12.745,13.528,14.364,16.162001,10.719,15.152,12.745,13.528,12.683,-3.7821,2.0163,8.0402,10.945,9.0,1.943,7.7023,0.13136,8.9106
16.749001,18.023001,10.813,19.608,20.323999,21.580999,22.222,16.601,18.181999,19.608,20.323999,18.537001,4.8718,5.9187,14.07,13.93,13.0,24.054001,20.323999,8.0131,9.8862
12.808,12.998,9.8176,21.569,21.294001,19.518999,19.191999,18.562,13.131,21.569,21.294001,18.537001,9.6795,2.9919,15.075,11.94,12.0,17.018,5.7605,13.924,5.0081
10.837,10.988,9.8176,22.549,21.294001,17.457001,14.141,15.621,12.121,22.549,21.294001,15.61,15.449,7.8699,17.084999,11.94,14.0,-10.117,5.7605,20.820999,5.9837
11.823,11.993,10.813,23.528999,24.207001,18.488001,16.162001,13.66,18.181999,23.528999,24.207001,17.561001,19.295,14.699,18.09,14.925,16.0,-6.0972,15.469,15.895,10.862
14.778,15.008,13.798,29.412001,29.061001,24.674,20.202,18.562,19.191999,29.412001,29.061001,22.438999,15.449,12.748,17.084999,15.92,15.0,18.023001,23.236,10.969,14.764
15.764,15.008,12.803,32.353001,30.032,26.735001,22.222,18.562,17.172001,32.353001,30.032,22.438999,5.8333,7.8699,11.055,12.935,10.0,25.059,18.382,2.1018,11.837
14.778,9.9832,7.8275,28.431,24.207001,21.580999,19.191999,20.523001,13.131,28.431,24.207001,18.537001,-3.7821,-1.8862,4.0201,3.9801,2.0,14.003,1.877,-2.8243,5.9837
0.0,-0.067,-2.1227,23.528999,20.323999,15.395,11.111,19.542,8.0808,23.528999,20.323999,9.7561,-11.474,-10.667,-7.0352,-4.9751,-9.0,9.9832,-4.9191,-3.8095,-2.7967
2.9557,1.943,0.86235,23.528999,22.264999,16.426001,12.121,19.542,9.0909,23.528999,22.264999,12.683,0.0641,0.06504,-1.005,0.0,-3.0,11.993,-1.0356,7.0279,3.0569
-1.9704,-6.0972,-6.1028,15.686,15.469,9.2096,5.0505,12.68,4.0404,15.686,15.469,4.878,-2.8205,-1.8862,-3.0151,-3.9801,-6.0,-3.0821,-5.89,3.087,-4.748
0.98522,-1.072,-3.1177,17.646999,16.440001,9.2096,8.0808,14.641,8.0808,17.646999,16.440001,5.8537,2.9487,-0.91057,3.0151,0.0,0.0,3.9531,2.8479,5.0575,-2.7967
5.9113,4.9581,1.8574,14.706,15.469,10.241,11.111,12.68,7.0707,14.706,15.469,8.7805,5.8333,2.0163,9.0452,5.9701,7.0,14.003,12.557,8.0131,0.13008
10.837,7.9732,6.8325,17.646999,17.410999,11.271,11.111,17.582001,7.0707,17.646999,17.410999,11.707,3.9103,2.0163,10.05,7.9602,9.0,8.9782,15.469,6.0427,0.13008
12.808,5.9631,5.8375,16.667,18.382,12.302,12.121,18.562,7.0707,16.667,18.382,10.732,1.9872,0.06504,7.0352,5.9701,6.0,10.988,0.90615,3.087,0.13008
8.867,4.9581,5.8375,18.627001,17.410999,12.302,13.131,18.562,8.0808,18.627001,17.410999,11.707,1.9872,1.0407,4.0201,4.9751,4.0,18.023001,-3.9482,2.1018,2.0813
1.9704,3.9531,1.8574,20.587999,21.294001,11.271,12.121,15.621,11.111,20.587999,21.294001,9.7561,0.0641,-0.91057,1.005,4.9751,1.0,-4.0871,-0.06472,1.1166,4.0325
6.8966,10.988,6.8325,28.431,27.120001,16.426001,15.152,23.464001,16.162001,28.431,27.120001,14.634,8.7179,8.8455,10.05,11.94,7.0,19.028,9.644,12.939,11.837
12.808,12.998,10.813,32.353001,29.061001,22.612,19.191999,28.365999,19.191999,32.353001,29.061001,18.537001,11.603,7.8699,12.06,11.94,9.0,24.054001,15.469,14.91,10.862
6.8966,5.9631,6.8325,30.392,26.149,16.426001,16.162001,24.444,14.141,30.392,26.149,15.61,-3.7821,-5.7886,1.005,0.99502,0.0,7.9732,11.586,-0.85386,-1.8211
8.867,9.9832,8.8226,31.372999,28.091,21.580999,20.202,27.386,16.162001,31.372999,28.091,19.511999,-8.5897,-8.7154,-2.0101,0.0,-1.0,2.9481,23.236,-6.7652,-3.7724
