C3,C4,Cz,F1,F2,F3,F4,F7,F8,Fp1,Fp2,Fz,O1,O2,P3,P4,Pz,T3,T4,T5,T6
9.4155,15.365,16.910999,5.7327,10.561,13.398,16.910999,-1.9968,14.175,5.7327,10.561,15.621,-10.159,-1.9777,-5.0159,3.2362,1.2882,-12.367,7.6461,-15.033,5.0242
-9.5419,0.12698,4.5528,3.1562,4.6205,3.6893,6.5041,2.5121,8.3495,3.1562,4.6205,6.4706,-20.952,-10.909,-16.444,-7.1197,-11.594,-6.57,3.8547,-19.608,-1.4171
-9.5419,-5.5873,-1.3008,1.2238,1.3201,1.7476,0.0,5.0886,5.7605,1.2238,1.3201,1.2418,-22.222,-11.547,-15.81,-9.7087,-14.815,-3.9936,3.2227,-17.646999,-2.0612
-1.327,-4.9524,-1.9512,-0.70853,-0.66007,1.7476,-5.8537,3.8003,3.1715,-0.70853,-0.66007,-2.6797,-15.873,-8.9952,-7.5556,-6.4725,-10.306,-3.3494,1.327,-11.765,-0.77295
0.56872,-8.127,-5.8537,-4.5733,-5.9406,-1.4887,-12.358,1.2238,-3.9482,-4.5733,-5.9406,-7.2549,-7.619,-7.0813,-1.2063,-4.5307,-7.0853,-2.0612,-1.2006,-1.3072,-0.77295
-7.0142,-13.841,-15.61,-10.37,-11.221,-9.9029,-18.862,-3.9291,-9.1262,-10.37,-11.221,-13.791,-1.9048,-5.8054,-2.4762,-6.4725,-9.0177,-5.2818,-4.3602,3.9216,-3.3494
-15.229,-18.285999,-23.415001,-12.947,-11.221,-16.375,-21.462999,-5.8615,-9.1262,-12.947,-11.221,-19.02,1.9048,-5.1675,-4.381,-8.4142,-10.95,-6.57,-4.9921,4.5752,-3.9936
-13.333,-16.381001,-24.715,-16.167,-15.182,-16.375,-24.715,-12.303,-10.421,-16.167,-15.182,-21.634001,3.1746,-5.8054,-5.6508,-9.0615,-10.95,-8.5024,-7.5197,1.9608,-3.3494
-17.125,-16.381001,-24.065001,-19.388,-19.142,-19.612,-26.016001,-14.235,-11.068,-19.388,-19.142,-24.247999,5.7143,-3.2536,-5.6508,-7.1197,-7.7295,-5.9259,-3.0964,2.6144,-0.12882
-18.389,-10.667,-20.813,-18.743999,-17.162001,-20.906,-22.764,-11.014,-7.8317,-18.743999,-17.162001,-22.941,8.254,1.8501,-3.746,-2.589,-3.8647,-2.7053,1.9589,4.5752,3.7359
-13.333,-6.2222,-15.61,-14.879,-11.221,-16.375,-15.61,-8.438,-5.2427,-14.879,-11.221,-17.712,4.4444,2.488,-3.746,-1.2945,-1.9324,-2.0612,1.9589,3.268,4.38
-8.91,-2.4127,-11.057,-12.303,-7.9208,-13.786,-9.7561,-9.0821,-2.6537,-12.303,-7.9208,-12.484,-0.63492,1.8501,-4.381,-1.2945,-3.2206,-3.3494,1.327,1.3072,3.0918
-3.2227,4.5714,-2.6016,-6.5056,-3.9604,-10.55,0.0,-4.5733,0.58252,-6.5056,-3.9604,-4.6405,-3.8095,-0.0638,-2.4762,0.0,-1.9324,-2.7053,1.9589,3.268,2.4477
6.2559,7.746,5.2033,-4.5733,-1.3201,-2.1359,6.5041,-3.9291,2.5243,-4.5733,-1.3201,1.2418,-6.9841,-2.6156,-2.4762,-0.64725,-2.5765,-1.4171,2.5908,0.65359,3.7359
3.0964,6.4762,3.252,-2.6409,1.3201,0.45307,7.8049,1.2238,3.1715,-2.6409,1.3201,1.8954,-10.159,-6.4434,-5.6508,-3.8835,-6.4412,1.1594,1.327,-2.6144,-0.12882
-3.2227,-1.7778,-2.6016,-1.9968,0.66007,-2.1359,3.252,-0.70853,1.2298,-1.9968,0.66007,-1.3725,-14.603,-13.461,-10.095,-10.356,-11.594,1.1594,-1.8325,-3.268,-5.9259
-7.0142,-6.2222,-4.5528,-3.9291,-2.6403,-3.4304,0.65041,-3.9291,-0.71197,-3.9291,-2.6403,-3.3333,-19.048,-21.754,-13.905,-16.827999,-16.103001,-0.77295,-6.2559,-6.5359,-11.723
1.8325,0.12698,5.2033,1.2238,1.9802,4.3366,6.5041,1.868,3.1715,1.2238,1.9802,3.8562,-11.429,-19.202999,-5.0159,-12.945,-9.0177,0.5153,-2.4645,0.0,-11.079
4.3602,2.6667,12.358,2.5121,1.9802,5.6311,7.8049,5.0886,3.8188,2.5121,1.9802,6.4706,-3.1746,-14.099,1.9683,-7.1197,-0.64412,3.0918,-0.56872,3.268,-9.7907
10.047,9.0159,17.561001,3.8003,3.3003,8.2201,11.057,7.6651,1.877,3.8003,3.3003,10.392,6.9841,-5.1675,8.3175,1.2945,9.6618,5.6683,-2.4645,3.9216,-6.57
19.525999,5.8413,20.163,6.3768,6.6007,14.045,10.407,8.9533,2.5243,6.3768,6.6007,13.66,20.316999,8.8676,19.111,12.298,21.9,6.9565,0.06319,9.1503,0.5153
23.318001,0.12698,14.959,-0.06441,-0.66007,9.5146,1.9512,-0.70853,-3.301,-0.06441,-0.66007,7.1242,26.667,19.075001,23.556,19.417,26.409,4.38,0.6951,12.418,7.6006
13.839,1.3968,8.4553,-3.9291,-4.6205,3.6893,-3.252,-4.5733,-5.2427,-3.9291,-4.6205,0.58824,27.302,23.541,20.381001,22.653999,25.764999,3.0918,2.5908,10.458,12.754
4.3602,2.0317,2.6016,-1.3527,-3.3003,-0.19417,-3.252,-2.6409,-2.0065,-1.3527,-3.3003,-0.71895,22.857,22.903,14.032,21.358999,19.323999,-3.9936,5.7504,9.8039,16.618
-8.91,1.3968,-5.8537,-1.9968,-3.9604,-6.0194,-3.252,-3.285,-1.3592,-1.9968,-3.9604,-2.6797,12.698,16.523001,-1.8413,14.239,6.4412,-9.1465,7.6461,-2.6144,15.974
-17.757,2.0317,-11.057,-3.285,-0.66007,-9.2557,-1.9512,-5.2174,1.2298,-3.285,-0.66007,-3.3333,4.4444,10.144,-12.0,7.767,-2.5765,-6.57,9.5419,-9.1503,14.042
-13.965,2.0317,-13.008,-1.3527,1.9802,-9.9029,-1.9512,-6.5056,3.8188,-1.3527,1.9802,-4.6405,1.2698,4.4019,-10.095,1.9417,-5.153,-5.2818,8.278,-7.1895,9.533
-4.4866,-0.50794,-7.8049,5.0886,5.9406,-5.3722,0.0,-1.3527,5.1133,5.0886,5.9406,-1.3725,0.63492,1.2121,-1.2063,0.0,-1.9324,-2.0612,7.6461,-2.6144,5.6683
10.047,-0.50794,0.0,9.5974,8.5809,1.7476,1.9512,1.868,5.1133,9.5974,8.5809,3.2026,0.63492,-0.70175,7.6825,0.0,1.9324,1.8035,4.4866,3.268,3.7359
6.8878,-2.4127,0.65041,10.242,9.2409,-0.19417,0.65041,1.868,2.5243,10.242,9.2409,3.2026,-1.2698,-3.2536,8.3175,-2.589,0.0,4.38,0.6951,5.8824,1.8035
8.1517,-4.9524,-0.65041,10.886,9.901,-0.19417,-1.3008,-1.3527,-0.71197,10.886,9.901,2.549,-1.2698,-4.5295,5.7778,-3.8835,-1.2882,6.9565,-1.2006,3.9216,-3.9936
4.9921,-4.3175,-3.252,13.462,9.2409,1.1003,-1.3008,2.5121,-1.3592,13.462,9.2409,2.549,-3.8095,-8.3573,0.69841,-6.4725,-4.5089,6.9565,-2.4645,-1.3072,-9.7907
-2.5908,0.12698,-2.6016,16.683001,10.561,1.1003,1.3008,9.5974,-0.71197,16.683001,10.561,3.8562,-6.9841,-9.6332,-5.0159,-5.8252,-5.7971,6.3124,-4.3602,-5.2288,-9.1465
4.9921,4.5714,5.8537,16.683001,11.881,4.9838,5.8537,7.6651,1.877,16.683001,11.881,7.1242,-5.0794,-5.8054,-2.4762,-0.64725,-0.64412,-0.77295,-1.8325,-5.2288,-6.57
8.1517,5.2063,13.008,14.75,12.541,8.8673,9.1057,5.7327,3.8188,14.75,12.541,10.392,0.0,0.57416,0.69841,3.8835,5.153,2.4477,1.327,-3.268,0.5153
8.7836,7.746,16.26,10.886,10.561,5.6311,10.407,4.4444,3.8188,10.886,10.561,9.7386,8.254,8.8676,5.7778,8.4142,10.306,2.4477,1.327,2.6144,2.4477
11.943,4.5714,13.008,3.8003,3.3003,3.0421,4.5528,1.2238,-1.3592,3.8003,3.3003,4.5098,13.968,16.523001,8.9524,11.003,14.171,0.5153,-3.0964,1.3072,1.8035
4.9921,-0.50794,7.8049,-0.06441,-0.66007,3.6893,-3.252,1.2238,-4.5955,-0.06441,-0.66007,-1.3725,17.143,21.627001,7.6825,14.239,14.815,5.6683,-1.8325,1.9608,5.0242
-2.5908,-4.3175,1.9512,0.57971,-2.6403,1.7476,-7.1545,0.57971,-5.2427,0.57971,-2.6403,-3.9869,13.333,21.627001,1.3333,13.592,11.594,3.7359,0.6951,-0.65359,7.6006
-4.4866,-1.7778,-1.9512,2.5121,-1.3201,2.3948,-3.252,-0.06441,-2.6537,2.5121,-1.3201,-2.0261,7.619,17.799,-4.381,9.7087,4.5089,-3.3494,1.327,-4.5752,8.2448
1.8325,2.6667,-0.65041,4.4444,4.6205,9.5146,5.8537,0.57971,3.8188,4.4444,4.6205,3.8562,1.2698,12.695,-7.5556,7.1197,0.0,-3.9936,6.3823,-6.5359,9.533
-3.8547,2.6667,-3.252,2.5121,5.2805,4.3366,7.8049,-0.06441,7.7023,2.5121,5.2805,1.8954,-6.3492,3.764,-12.0,1.9417,-6.4412,-9.7907,5.1185,-9.8039,6.9565
-11.438,3.3016,-5.2033,3.1562,5.9406,-0.84142,7.1545,0.57971,7.7023,3.1562,5.9406,-0.06536,-12.063,-3.2536,-13.27,-1.9417,-9.6618,-8.5024,6.3823,-11.111,6.9565
-7.6461,0.12698,-5.8537,5.0886,4.6205,1.1003,3.9024,3.8003,5.7605,5.0886,4.6205,-0.71895,-15.238,-10.271,-10.73,-5.8252,-10.95,-2.0612,5.1185,-9.8039,1.8035
-3.2227,-3.0476,-7.1545,3.8003,3.9604,3.6893,1.3008,5.0886,3.8188,3.8003,3.9604,-0.71895,-17.778,-17.289,-7.5556,-11.003,-11.594,1.1594,1.9589,-8.4967,-5.2818
13.207,-1.7778,-3.252,5.7327,5.2805,9.5146,4.5528,5.7327,5.7605,5.7327,5.2805,5.1634,-15.873,-21.754,0.69841,-14.239,-9.6618,0.5153,0.06319,-3.268,-10.435
13.839,3.9365,1.9512,7.0209,5.2805,12.751,10.407,8.9533,5.7605,7.0209,5.2805,11.699,-12.698,-22.392,3.873,-14.239,-7.7295,5.6683,-1.8325,-1.3072,-11.723
4.3602,4.5714,6.5041,4.4444,5.2805,6.2783,10.407,4.4444,4.466,4.4444,5.2805,11.046,-8.254,-16.013,4.5079,-9.0615,-3.2206,6.9565,-0.56872,0.65359,-8.5024
8.1517,5.2063,11.057,1.2238,3.3003,1.1003,5.8537,-3.285,1.877,1.2238,3.3003,7.1242,-1.9048,-4.5295,7.6825,1.9417,5.153,1.8035,0.6951,0.65359,-2.0612
2.4645,5.8413,8.4553,-4.5733,-3.3003,-4.7249,-0.65041,-4.5733,-2.0065,-4.5733,-3.3003,0.58824,1.2698,5.0399,6.4127,10.356,9.6618,-2.0612,3.8547,-1.3072,3.0918
-7.6461,2.0317,3.9024,-7.1498,-7.2607,-7.3139,-5.2033,-2.6409,-5.2427,-7.1498,-7.2607,-3.9869,0.63492,10.144,-1.2063,12.298,7.7295,0.5153,3.8547,-5.8824,5.6683
-4.4866,1.3968,3.252,-5.2174,-5.2805,-4.0777,-3.9024,-2.6409,-2.6537,-5.2174,-5.2805,-2.6797,-1.9048,10.144,-4.381,10.356,3.8647,-1.4171,1.9589,-4.5752,3.7359
-3.8547,-1.7778,-0.65041,-3.285,-4.6205,-1.4887,-3.252,1.2238,-1.3592,-3.285,-4.6205,-2.0261,-6.3492,5.0399,-8.8254,3.2362,-3.2206,-1.4171,0.06319,-3.268,3.0918
-7.0142,-3.0476,-7.8049,-3.9291,-4.6205,-2.7832,-2.6016,1.868,-3.301,-3.9291,-4.6205,-2.6797,-13.333,-2.6156,-14.54,-7.767,-13.527,1.1594,-3.7283,-5.8824,-0.12882
-3.2227,-7.4921,-12.358,-3.9291,-5.2805,-1.4887,-4.5528,-0.06441,-2.6537,-3.9291,-5.2805,-3.9869,-18.413,-7.7193,-13.905,-14.239,-18.035,-2.7053,-4.9921,-5.2288,-1.4171
-4.4866,-10.032,-16.26,-3.9291,-4.6205,-2.1359,-5.2033,-0.06441,-0.71197,-3.9291,-4.6205,-5.9477,-20.316999,-10.271,-12.635,-14.887,-18.68,-3.3494,-5.624,-5.2288,-2.0612
-8.91,-8.127,-17.561001,-2.6409,-3.3003,-3.4304,-5.8537,-0.70853,-0.71197,-2.6409,-3.3003,-6.6013,-21.587,-12.185,-13.27,-13.592,-18.68,-2.7053,0.6951,-7.8431,-1.4171
-13.333,-1.7778,-13.659,-2.6409,-0.66007,-3.4304,-1.9512,-3.285,0.58252,-2.6409,-0.66007,-4.6405,-20.952,-12.185,-15.81,-8.4142,-16.103001,-4.6377,5.1185,-12.418,1.1594
-15.861,-1.1429,-11.057,-5.2174,0.0,-7.3139,-1.9512,-5.2174,1.2298,-5.2174,0.0,-5.2941,-17.778,-12.823,-14.54,-6.4725,-12.882,-7.2142,3.2227,-10.458,-0.12882
-10.806,-3.6825,-8.4553,-5.2174,-0.66007,-9.2557,-3.252,-6.5056,-1.3592,-5.2174,-0.66007,-6.6013,-10.794,-11.547,-8.1905,-5.178,-7.7295,-7.2142,1.9589,-5.2288,1.8035
-3.2227,-4.3175,-6.5041,-3.9291,-3.9604,-7.3139,-5.8537,-5.2174,-3.9482,-3.9291,-3.9604,-7.9085,-4.4444,-8.9952,-2.4762,-5.8252,-4.5089,-9.1465,-2.4645,-1.9608,-2.0612
9.4155,-3.0476,0.65041,-4.5733,-4.6205,-2.1359,-3.9024,-3.9291,-3.9482,-4.5733,-4.6205,-4.6405,3.1746,-2.6156,3.2381,-2.589,1.2882,-6.57,-2.4645,1.3072,-2.7053
3.0964,-6.2222,2.6016,-7.1498,-6.6007,-2.7832,-5.2033,0.57971,-5.89,-7.1498,-6.6007,-4.6405,6.9841,1.2121,3.873,-1.2945,4.5089,2.4477,-5.624,3.268,-3.3494
-3.2227,-4.9524,2.6016,-8.438,-9.2409,-3.4304,-5.2033,1.868,-7.1845,-8.438,-9.2409,-3.9869,8.8889,5.0399,3.873,1.2945,7.0853,8.8889,-6.2559,2.6144,-3.9936
1.8325,0.12698,3.9024,-8.438,-8.5809,-0.84142,-2.6016,1.868,-4.5955,-8.438,-8.5809,-2.6797,8.8889,7.5917,5.1429,3.8835,7.7295,7.6006,-4.9921,2.6144,-2.0612
-1.327,2.6667,4.5528,-7.7939,-5.2805,1.1003,0.65041,2.5121,-3.301,-7.7939,-5.2805,-0.06536,4.4444,6.3158,1.9683,3.2362,4.5089,3.7359,-6.2559,2.6144,-1.4171
-1.9589,7.746,9.7561,-1.9968,-0.66007,6.9256,7.8049,3.8003,1.2298,-1.9968,-0.66007,7.1242,1.9048,6.3158,-1.2063,4.5307,3.2206,3.0918,0.6951,1.3072,1.1594
0.56872,12.825,13.008,2.5121,3.3003,9.5146,11.707,3.8003,4.466,2.5121,3.3003,11.046,0.63492,5.0399,-0.57143,5.178,3.2206,1.8035,5.1185,2.6144,4.38
3.7283,4.5714,7.1545,-0.70853,3.9604,3.6893,6.5041,-1.9968,3.8188,-0.70853,3.9604,5.817,0.63492,2.488,1.3333,1.2945,0.64412,-7.8583,3.2227,3.268,2.4477
-5.7504,-6.2222,-6.5041,-3.9291,-0.66007,-4.7249,-3.252,-6.5056,0.58252,-3.9291,-0.66007,-3.9869,0.0,-1.9777,-3.746,-4.5307,-5.7971,-5.9259,0.06319,0.0,-0.12882
-19.652,-12.571,-18.862,-6.5056,-3.9604,-13.139,-10.407,-6.5056,-4.5955,-6.5056,-3.9604,-12.484,-1.2698,-5.8054,-10.095,-11.65,-14.171,-2.0612,-4.3602,-4.5752,-2.0612
-11.438,-18.285999,-24.065001,-6.5056,-7.9208,-12.492,-14.309,-9.7262,-6.5372,-6.5056,-7.9208,-14.444,-2.5397,-9.6332,-10.095,-18.122999,-19.968,-9.1465,-7.5197,-4.5752,-5.9259
-13.965,-18.921,-24.065001,-4.5733,-6.6007,-9.9029,-13.008,-4.5733,-5.89,-4.5733,-6.6007,-12.484,-3.8095,-12.823,-10.73,-21.358999,-22.544001,-5.9259,-9.4155,-1.9608,-9.1465
-9.5419,-16.381001,-17.561001,-3.9291,-6.6007,-6.0194,-13.008,-2.6409,-6.5372,-3.9291,-6.6007,-10.523,-3.8095,-11.547,-7.5556,-18.122999,-18.035,-2.7053,-9.4155,-0.65359,-9.7907
-10.806,-17.650999,-14.309,-5.8615,-9.901,-7.3139,-14.959,-1.3527,-9.7735,-5.8615,-9.901,-11.176,-3.1746,-9.6332,-5.6508,-12.298,-11.594,-0.12882,-10.679,0.0,-9.7907
-11.438,-13.841,-10.407,-5.2174,-9.2409,-8.6084,-13.659,-0.06441,-9.1262,-5.2174,-9.2409,-9.2157,-0.63492,-4.5295,-3.746,-5.178,-5.153,1.1594,-8.7836,-0.65359,-4.6377
4.9921,-3.0476,-1.3008,-2.6409,-4.6205,-2.7832,-5.2033,-1.9968,-3.301,-2.6409,-4.6205,-2.0261,4.4444,1.8501,7.0476,3.8835,4.5089,-5.2818,0.06319,7.1895,1.1594
1.2006,4.5714,2.6016,-4.5733,-2.6403,1.1003,-1.3008,-2.6409,-0.06472,-4.5733,-2.6403,-0.71895,5.7143,4.4019,5.7778,7.767,8.3736,3.0918,4.4866,7.1895,3.7359
-3.8547,8.381,3.9024,-6.5056,-2.6403,-1.4887,0.65041,-2.6409,0.58252,-6.5056,-2.6403,-1.3725,6.9841,8.2297,4.5079,9.7087,10.306,6.9565,5.1185,5.8824,4.38
-2.5908,9.6508,7.1545,-5.8615,0.0,-2.7832,3.9024,-1.3527,4.466,-5.8615,0.0,-0.71895,9.5238,11.419,5.7778,12.298,12.882,2.4477,6.3823,7.8431,6.9565
3.7283,10.286,8.4553,-4.5733,0.66007,-0.19417,5.2033,-5.8615,4.466,-4.5733,0.66007,0.58824,10.159,12.695,6.4127,12.298,12.882,0.5153,4.4866,7.1895,6.9565
4.3602,7.1111,5.8537,-1.3527,1.3201,-0.19417,3.252,-0.70853,2.5243,-1.3527,1.3201,0.58824,10.159,11.419,5.7778,9.0615,10.306,-2.0612,3.2227,7.8431,5.6683
-1.9589,0.12698,2.6016,1.868,2.6403,-0.84142,1.3008,5.0886,1.877,1.868,2.6403,-0.71895,10.159,7.5917,5.7778,3.2362,6.4412,0.5153,-0.56872,11.111,3.0918
1.2006,-3.0476,2.6016,7.6651,4.6205,4.3366,1.3008,7.6651,-0.71197,7.6651,4.6205,1.8954,9.5238,1.8501,5.7778,-5.178,1.9324,7.6006,-4.9921,9.1503,-4.6377
1.8325,-6.8571,0.65041,6.3768,0.66007,5.6311,-2.6016,8.9533,-5.2427,6.3768,0.66007,-0.06536,6.3492,-5.8054,3.873,-13.592,-4.5089,9.533,-10.047,6.5359,-11.723
11.311,-7.4921,1.9512,3.1562,-2.6403,7.5728,-5.2033,5.7327,-8.479,3.1562,-2.6403,-1.3725,6.3492,-8.9952,7.0476,-15.534,-7.0853,3.0918,-13.207,9.8039,-12.367
11.311,-3.0476,5.2033,2.5121,-5.2805,7.5728,-5.2033,7.0209,-9.1262,2.5121,-5.2805,-0.71895,6.3492,-8.3573,7.6825,-10.356,-5.153,7.6006,-11.311,10.458,-9.7907
10.679,0.12698,9.7561,3.8003,-3.3003,10.162,-1.3008,7.6651,-5.2427,3.8003,-3.3003,2.549,5.7143,-6.4434,8.9524,-2.589,0.64412,12.754,-4.9921,9.1503,-6.57
15.103,2.6667,14.959,5.7327,0.0,12.104,2.6016,7.0209,-2.6537,5.7327,0.0,7.7778,5.7143,-1.9777,12.127,4.5307,7.0853,9.533,-1.2006,9.1503,-2.0612
18.893999,10.921,18.862,7.0209,4.6205,13.398,11.057,4.4444,2.5243,7.0209,4.6205,13.66,4.4444,3.126,14.667,12.298,12.238,7.6006,3.8547,10.458,4.38
13.839,12.19,14.959,7.0209,6.6007,12.104,11.707,5.0886,5.7605,7.0209,6.6007,12.353,1.2698,5.0399,12.127,14.887,12.882,8.2448,4.4866,6.5359,3.0918
4.9921,9.6508,7.8049,6.3768,6.6007,7.5728,10.407,5.7327,7.7023,6.3768,6.6007,9.085,-1.2698,5.6778,7.6825,14.887,10.306,6.9565,6.3823,5.2288,2.4477
15.735,12.19,7.8049,5.0886,9.2409,8.8673,12.358,-0.06441,11.586,5.0886,9.2409,10.392,-1.2698,7.5917,10.857,16.181,12.238,-2.7053,9.5419,7.1895,5.0242
8.7836,16.0,9.1057,11.53,17.162001,10.162,19.511999,3.8003,16.764,11.53,17.162001,15.621,-2.5397,6.3158,9.5873,14.239,11.594,-0.77295,10.806,5.2288,6.3124
-9.5419,8.381,2.6016,12.174,19.142,5.6311,18.211,5.0886,17.410999,12.174,19.142,13.66,-8.254,-0.0638,-1.2063,5.8252,3.8647,3.7359,7.6461,-0.65359,3.0918
-10.806,-0.50794,-3.9024,7.6651,17.162001,-0.84142,12.358,1.2238,14.175,7.6651,17.162001,7.7778,-8.254,-3.2536,-5.6508,-1.2945,-1.9324,1.8035,3.2227,-3.9216,0.5153
-2.5908,-0.50794,-3.9024,3.8003,15.182,0.45307,8.4553,-2.6409,11.586,3.8003,15.182,5.817,-1.9048,-1.3397,-1.2063,-3.2362,-1.2882,-1.4171,1.9589,0.65359,-0.12882
-3.2227,-1.7778,-8.4553,0.57971,9.2409,-2.1359,0.0,-4.5733,7.055,0.57971,9.2409,-0.06536,-1.9048,-3.2536,-4.381,-5.8252,-5.7971,-0.77295,-0.56872,-3.268,-2.7053
-10.174,-3.0476,-13.659,-1.3527,1.9802,-9.2557,-9.1057,-3.285,-0.06472,-1.3527,1.9802,-8.5621,-0.63492,-1.9777,-5.6508,-7.1197,-7.0853,-1.4171,-2.4645,-3.9216,-1.4171
-8.91,-3.6825,-13.008,-2.6409,-3.3003,-11.845,-14.959,-4.5733,-5.2427,-2.6409,-3.3003,-13.791,3.1746,0.57416,-1.2063,-6.4725,-4.5089,-2.0612,-6.2559,0.65359,-0.77295
-5.1185,-11.302,-10.407,-3.9291,-6.6007,-12.492,-17.561001,-5.8615,-9.1262,-3.9291,-6.6007,-14.444,1.9048,-2.6156,-1.2063,-10.356,-5.153,-2.7053,-7.5197,-1.3072,-3.9936
-7.6461,-13.841,-7.1545,-3.9291,-6.6007,-11.197,-18.211,-3.9291,-10.421,-3.9291,-6.6007,-13.791,-1.9048,-5.8054,-4.381,-12.298,-6.4412,-2.7053,-7.5197,-4.5752,-5.9259
-1.327,-7.4921,-1.9512,-3.9291,-5.9406,-6.6667,-13.008,-1.9968,-7.8317,-3.9291,-5.9406,-10.523,-5.0794,-6.4434,-5.6508,-9.0615,-5.7971,-2.7053,-6.8878,-7.1895,-3.9936
6.2559,-1.1429,3.9024,-2.6409,-6.6007,-1.4887,-8.4553,-0.70853,-4.5955,-2.6409,-6.6007,-5.9477,-6.3492,-5.1675,-3.1111,-5.178,-3.2206,-2.0612,-4.9921,-7.8431,-4.6377
14.471,4.5714,11.057,-1.3527,-4.6205,3.6893,-3.252,-1.9968,-2.6537,-1.3527,-4.6205,-0.71895,-3.8095,-0.0638,0.06349,3.2362,2.5765,-1.4171,-2.4645,-9.1503,-2.0612
15.735,15.365,18.211,1.868,2.6403,10.162,5.8537,-0.06441,4.466,1.868,2.6403,5.817,0.0,5.6778,5.1429,13.592,11.594,-0.77295,5.1185,-6.5359,3.7359
6.8878,20.444,20.813,4.4444,5.9406,13.398,14.309,3.1562,9.644,4.4444,5.9406,12.353,-1.9048,5.6778,3.2381,17.476,14.171,0.5153,8.91,-6.5359,4.38
4.3602,18.540001,20.163,6.3768,9.901,12.104,20.163,7.0209,13.528,6.3768,9.901,16.927999,-1.9048,5.6778,2.6032,16.181,13.527,0.5153,7.6461,-5.8824,3.7359
9.4155,17.27,21.462999,7.6651,16.502001,14.693,27.316999,5.7327,18.705999,7.6651,16.502001,22.809999,1.9048,6.9537,5.7778,15.534,14.171,-0.77295,12.07,-1.3072,5.6683
13.839,16.635,21.462999,11.53,20.462,19.871,30.569,7.6651,21.294001,11.53,20.462,26.077999,5.0794,6.3158,8.9524,12.298,13.527,-0.12882,13.333,4.5752,5.6683
15.735,17.27,20.813,16.039,24.422001,21.812,31.870001,10.242,20.646999,16.039,24.422001,27.386,5.7143,5.0399,9.5873,10.356,12.238,2.4477,11.438,2.6144,6.3124
12.575,16.635,16.26,17.971001,25.083,21.165001,29.268,10.886,20.0,17.971001,25.083,24.771,3.8095,3.126,5.1429,9.7087,8.3736,4.38,11.438,-0.65359,6.9565
6.2559,16.0,8.4553,16.683001,21.122,17.929001,22.114,10.886,15.469,16.683001,21.122,18.235001,1.9048,3.126,0.69841,8.4142,4.5089,5.6683,7.6461,0.65359,4.38
5.624,10.921,2.6016,10.886,17.162001,12.751,14.309,3.8003,10.291,10.886,17.162001,13.007,0.0,1.8501,-2.4762,5.8252,1.2882,1.1594,4.4866,-1.9608,3.0918
6.2559,6.4762,1.3008,6.3768,10.561,6.9256,7.1545,1.2238,5.7605,6.3768,10.561,8.4314,0.63492,3.126,-0.57143,4.5307,1.9324,-2.7053,3.2227,-2.6144,3.7359
-2.5908,3.3016,0.0,-0.06441,3.3003,1.1003,-0.65041,1.868,-2.6537,-0.06441,3.3003,2.549,1.2698,6.3158,0.06349,3.8835,1.9324,1.8035,-1.2006,-1.3072,3.7359
-0.6951,-3.0476,-2.6016,-2.6409,-3.3003,-2.1359,-9.7561,0.57971,-9.7735,-2.6409,-3.3003,-3.3333,-0.63492,6.9537,1.9683,1.9417,1.2882,1.1594,-5.624,-0.65359,1.1594
-0.06319,-10.667,-6.5041,0.57971,-7.2607,-1.4887,-16.26,3.1562,-14.304,0.57971,-7.2607,-7.2549,-4.4444,3.764,4.5079,-3.2362,-1.9324,3.0918,-10.679,1.3072,-2.7053
7.5197,-15.746,-7.1545,1.868,-9.2409,2.3948,-18.211,5.0886,-15.599,1.868,-9.2409,-6.6013,-8.8889,-3.2536,3.2381,-9.7087,-7.0853,3.7359,-11.311,0.0,-7.8583
1.8325,-13.206,-7.1545,1.868,-11.881,-0.19417,-16.26,7.6651,-16.246,1.868,-11.881,-7.2549,-10.794,-8.9952,-1.8413,-14.239,-12.238,6.3124,-10.679,-1.9608,-9.7907
-8.91,-16.381001,-7.1545,-2.6409,-17.162001,-7.3139,-17.561001,5.0886,-16.893,-2.6409,-17.162001,-9.8693,-8.254,-12.823,-5.6508,-16.181,-13.527,6.3124,-11.943,-1.3072,-12.367
-7.0142,-15.111,-4.5528,-8.438,-17.162001,-11.845,-13.659,-3.9291,-13.657,-8.438,-17.162001,-9.8693,-4.4444,-14.099,-6.2857,-14.887,-10.95,-0.77295,-9.4155,-1.3072,-13.011
-10.806,-8.7619,-5.2033,-9.7262,-11.881,-11.845,-9.1057,-5.2174,-8.479,-9.7262,-11.881,-9.2157,-1.2698,-10.271,-6.9206,-11.003,-7.7295,-3.9936,-5.624,-3.268,-8.5024
-6.3823,-4.9524,-0.65041,-8.438,-7.9208,-6.6667,-3.252,-3.9291,-3.9482,-8.438,-7.9208,-5.2941,5.7143,-1.9777,-0.57143,-2.589,0.64412,-4.6377,-0.56872,-0.65359,-0.12882
-1.327,0.7619,2.6016,-5.8615,-7.2607,-4.0777,0.0,-4.5733,-0.71197,-5.8615,-7.2607,-2.6797,9.5238,5.0399,1.9683,3.8835,7.0853,-6.57,0.6951,-2.6144,2.4477
-1.327,7.1111,4.5528,-5.2174,-1.9802,-3.4304,4.5528,-5.2174,2.5243,-5.2174,-1.9802,-0.06536,9.5238,9.5056,0.69841,10.356,10.306,-7.8583,2.5908,-5.8824,6.3124
-1.327,16.0,8.4553,-1.3527,3.9604,-0.84142,9.7561,-3.285,4.466,-1.3527,3.9604,5.1634,8.8889,13.971,0.06349,16.181,12.238,-5.9259,7.0142,-3.268,9.533
1.2006,14.095,7.8049,5.0886,6.6007,5.6311,11.057,2.5121,5.1133,5.0886,6.6007,9.085,8.254,15.885,1.3333,16.827999,12.238,-3.9936,9.5419,-0.65359,12.11
3.7283,7.746,3.9024,7.0209,8.5809,10.162,9.7561,7.6651,3.1715,7.0209,8.5809,9.7386,8.8889,14.609,4.5079,12.945,9.0177,5.0242,5.1185,7.8431,9.533
8.1517,4.5714,0.65041,9.5974,7.2607,14.693,9.7561,11.53,-0.71197,9.5974,7.2607,11.046,10.794,9.5056,8.9524,7.1197,4.5089,13.398,-2.4645,18.954,3.0918
11.311,1.3968,-1.3008,12.174,4.6205,15.987,9.1057,13.462,-3.9482,12.174,4.6205,11.699,9.5238,5.0399,8.3175,2.589,-0.64412,14.042,-7.5197,19.608,-0.77295
10.047,0.7619,-0.65041,13.462,5.2805,15.987,9.1057,12.818,-3.9482,13.462,5.2805,11.699,4.4444,-0.0638,3.873,-0.64725,-5.7971,13.398,-8.1517,16.993,-3.3494
1.8325,-3.0476,-2.6016,8.3092,1.9802,9.5146,3.252,8.3092,-7.8317,8.3092,1.9802,6.4706,-3.1746,-6.4434,-3.1111,-7.767,-12.238,11.465,-8.1517,11.111,-4.6377
-7.0142,-9.3968,-5.8537,3.1562,-4.6205,0.45307,-6.5041,5.7327,-13.01,3.1562,-4.6205,-1.3725,-8.254,-13.461,-6.9206,-17.476,-17.391001,8.8889,-11.943,6.5359,-9.7907
-4.4866,-17.016001,-7.8049,1.2238,-4.6205,-3.4304,-9.7561,3.8003,-11.068,1.2238,-4.6205,-3.9869,-11.429,-19.841,-6.9206,-25.243,-19.323999,4.38,-15.735,4.5752,-16.232
-0.6951,-15.111,-5.2033,2.5121,-2.6403,-2.1359,-7.8049,0.57971,-5.89,2.5121,-2.6403,-2.0261,-10.159,-20.478001,-5.6508,-23.948,-16.103001,-0.77295,-14.471,0.65359,-16.875999
-1.327,-9.3968,-1.9512,1.2238,-1.9802,-2.1359,-6.5041,-0.70853,-3.9482,1.2238,-1.9802,-2.0261,-5.7143,-14.737,-2.4762,-16.181,-7.7295,-4.6377,-8.1517,0.65359,-13.011
-1.9589,-3.6825,-1.3008,-2.6409,-7.2607,-4.0777,-9.7561,-3.9291,-5.2427,-2.6409,-7.2607,-5.9477,1.2698,-5.8054,0.69841,-5.178,0.64412,-4.6377,-1.2006,-1.9608,-6.57
-0.06319,0.7619,-0.65041,-4.5733,-6.6007,-6.0194,-9.7561,-7.1498,-3.301,-4.5733,-6.6007,-6.6013,5.0794,2.488,2.6032,4.5307,7.0853,-5.2818,0.6951,-5.2288,-0.12882
3.0964,3.9365,-1.3008,-1.9968,-1.9802,-6.6667,-8.4553,-4.5733,-2.0065,-1.9968,-1.9802,-7.2549,6.9841,8.2297,5.7778,8.4142,10.95,-9.1465,4.4866,-4.5752,5.6683
-2.5908,-4.3175,-5.2033,-0.70853,-1.3201,-4.7249,-10.407,-3.285,-2.0065,-0.70853,-1.3201,-9.2157,6.3492,9.5056,3.2381,5.8252,9.0177,-5.9259,5.1185,-6.5359,6.3124
-10.174,-10.667,-11.057,-0.70853,-1.9802,-6.6667,-13.008,-3.285,-2.0065,-0.70853,-1.9802,-11.176,3.1746,6.9537,-3.746,1.2945,2.5765,-4.6377,4.4866,-9.8039,7.6006
-9.5419,-8.7619,-14.309,1.2238,0.0,-8.6084,-12.358,-3.285,-2.0065,1.2238,0.0,-11.83,0.0,4.4019,-6.9206,-2.589,-3.2206,-7.8583,3.8547,-9.1503,6.9565
-12.07,-7.4921,-15.61,-0.06441,0.0,-12.492,-12.358,-9.0821,-2.0065,-0.06441,0.0,-14.444,-1.9048,1.8501,-8.8254,-3.8835,-7.0853,-9.1465,1.9589,-5.8824,5.6683
-17.757,-7.4921,-17.561001,-2.6409,-1.9802,-17.67,-13.008,-9.7262,-1.3592,-2.6409,-1.9802,-17.712,-5.0794,-2.6156,-11.365,-6.4725,-10.95,-9.1465,1.9589,-7.1895,4.38
-14.597,-2.4127,-14.309,-0.70853,1.3201,-13.786,-6.5041,-7.1498,-0.06472,-0.70853,1.3201,-11.83,-6.3492,-5.1675,-9.4603,-6.4725,-11.594,-4.6377,2.5908,-5.8824,4.38
-2.5908,5.8413,-6.5041,3.1562,9.2409,-6.6667,3.9024,-9.0821,6.4078,3.1562,9.2409,-2.6797,-6.3492,-8.9952,-3.746,-5.8252,-9.0177,-5.9259,2.5908,-1.3072,3.0918
-1.9589,7.1111,0.0,8.3092,15.842,-0.84142,11.707,-1.9968,11.586,8.3092,15.842,4.5098,-8.254,-10.909,-3.1111,-5.178,-7.0853,-4.6377,5.7504,-1.9608,0.5153
3.0964,9.0159,8.4553,15.395,20.462,8.2201,18.862,3.8003,16.117001,15.395,20.462,13.007,-5.7143,-6.4434,0.06349,0.0,-1.9324,-2.7053,10.806,-0.65359,2.4477
6.2559,12.825,13.659,21.836,23.761999,14.693,24.065001,7.6651,18.058001,21.836,23.761999,19.542,-1.2698,-0.0638,2.6032,6.4725,3.2206,-0.12882,10.806,-1.3072,5.0242
2.4645,12.825,9.7561,23.768,25.083,13.398,21.462999,10.886,16.764,23.768,25.083,18.235001,3.1746,4.4019,3.873,10.356,6.4412,3.0918,9.5419,-1.9608,5.0242
6.2559,11.556,6.5041,23.768,23.761999,15.987,20.163,12.818,14.175,23.768,23.761999,17.582001,8.8889,8.2297,8.3175,11.65,10.306,4.38,8.278,1.9608,3.7359
10.679,9.0159,7.1545,21.836,22.441999,17.929001,18.862,13.462,11.586,21.836,22.441999,18.235001,9.5238,8.8676,10.857,10.356,10.95,2.4477,3.8547,3.9216,0.5153
13.839,12.19,11.707,23.768,21.782,17.282,18.862,13.462,8.3495,23.768,21.782,20.195999,8.8889,10.144,7.6825,11.003,11.594,2.4477,1.327,1.9608,2.4477
10.679,5.8413,9.1057,18.615,14.521,14.693,11.707,9.5974,5.1133,18.615,14.521,14.314,5.0794,10.144,1.3333,9.7087,9.0177,3.0918,2.5908,-3.9216,3.0918
1.2006,0.7619,3.252,12.174,3.9604,6.9256,1.9512,10.886,-0.71197,12.174,3.9604,5.1634,0.63492,8.8676,-3.746,9.7087,5.7971,3.7359,2.5908,-8.4967,3.7359
-0.6951,1.3968,-0.65041,1.868,-3.9604,-2.7832,-6.5041,5.0886,-8.479,1.868,-3.9604,-4.6405,0.0,9.5056,-1.2063,11.65,6.4412,-2.0612,1.327,-5.2288,5.6683
-0.06319,-0.50794,-1.3008,-4.5733,-7.9208,-10.55,-11.057,-3.285,-9.1262,-4.5733,-7.9208,-9.8693,0.0,10.144,-0.57143,11.65,5.7971,-3.9936,3.2227,-7.8431,10.177
-3.2227,-3.0476,-1.3008,-6.5056,-10.561,-13.786,-13.008,-8.438,-7.8317,-6.5056,-10.561,-13.137,0.0,7.5917,-1.8413,9.0615,4.5089,-5.9259,1.9589,-8.4967,10.177
-3.8547,-3.6825,-3.252,-8.438,-9.901,-14.434,-14.309,-11.014,-7.8317,-8.438,-9.901,-14.444,0.63492,6.3158,-1.8413,6.4725,2.5765,-9.1465,1.327,-5.2288,9.533
-2.5908,-8.127,-7.1545,-12.303,-15.182,-15.728,-18.211,-11.659,-11.715,-12.303,-15.182,-17.712,2.5397,5.0399,1.3333,3.2362,1.2882,-11.079,-0.56872,0.65359,11.465
-10.174,-15.746,-14.309,-14.879,-19.802,-17.67,-22.114,-10.37,-13.657,-14.879,-19.802,-20.98,2.5397,1.8501,0.06349,-3.8835,-3.2206,-3.9936,-1.2006,3.268,6.3124
-7.0142,-15.111,-14.959,-14.879,-15.842,-18.316999,-19.511999,-15.523,-11.715,-14.879,-15.842,-19.02,3.8095,-0.70175,1.9683,-7.1197,-4.5089,-2.7053,-0.56872,6.5359,2.4477
-9.5419,-15.746,-13.008,-11.659,-12.541,-15.728,-15.61,-12.947,-8.479,-11.659,-12.541,-15.752,3.8095,-4.5295,0.06349,-10.356,-6.4412,-4.6377,-3.0964,11.111,-1.4171
-19.652,-11.937,-13.659,-5.8615,-5.9406,-12.492,-9.7561,-7.7939,-3.301,-5.8615,-5.9406,-11.176,-2.5397,-10.271,-10.095,-13.592,-12.882,-2.7053,-3.0964,1.9608,-5.2818
-17.125,-6.8571,-11.707,-0.70853,-1.9802,-5.3722,-2.6016,-2.6409,2.5243,-0.70853,-1.9802,-5.9477,-7.619,-13.461,-15.175,-15.534,-16.103001,-3.9936,-2.4645,-5.2288,-6.57
-13.333,-6.2222,-11.057,4.4444,-1.3201,-0.19417,0.65041,3.8003,1.2298,4.4444,-1.3201,-1.3725,-10.794,-14.099,-16.444,-16.827999,-17.391001,-1.4171,-3.7283,-5.8824,-10.435
-0.6951,-2.4127,-5.8537,8.9533,2.6403,6.2783,5.2033,8.3092,0.58252,8.9533,2.6403,6.4706,-9.5238,-9.6332,-8.1905,-11.003,-10.95,0.5153,-6.2559,-2.6144,-9.1465
8.1517,-0.50794,3.252,13.462,8.5809,16.634001,11.057,14.75,2.5243,13.462,8.5809,14.967,-5.0794,-1.9777,0.69841,-2.589,-1.9324,4.38,-1.2006,0.65359,-3.3494
18.893999,3.9365,12.358,14.106,11.881,21.165001,15.61,14.75,6.4078,14.106,11.881,19.542,0.63492,5.0399,10.857,5.178,7.7295,3.0918,1.327,5.2288,-1.4171
23.318001,10.286,16.910999,12.818,11.221,18.576,18.211,14.106,6.4078,12.818,11.221,20.195999,3.1746,6.9537,15.302,11.003,13.527,6.9565,3.2227,4.5752,-0.77295
16.367001,11.556,12.358,7.0209,5.2805,14.693,15.61,11.53,3.8188,7.0209,5.2805,15.621,3.8095,6.3158,14.032,12.945,13.527,14.042,3.2227,3.268,1.8035
9.4155,15.365,9.7561,1.868,1.9802,7.5728,14.959,9.5974,3.1715,1.868,1.9802,11.046,6.9841,6.3158,14.667,14.887,14.171,15.974,3.2227,5.2288,1.8035
11.943,13.46,10.407,-0.70853,1.3201,6.9256,11.707,7.6651,2.5243,-0.70853,1.3201,8.4314,9.5238,6.9537,15.302,15.534,14.815,9.533,3.2227,6.5359,1.8035
12.575,10.286,12.358,-3.9291,0.66007,3.0421,9.1057,-0.06441,2.5243,-3.9291,0.66007,5.817,13.333,9.5056,14.032,16.827999,15.459,5.6683,1.9589,7.1895,3.7359
-0.6951,10.286,10.407,-7.7939,-3.3003,-4.7249,6.5041,-3.9291,3.8188,-7.7939,-3.3003,0.58824,12.063,11.419,7.0476,16.827999,12.238,0.5153,7.6461,3.268,9.533
-3.8547,9.0159,7.1545,-12.947,-6.6007,-9.2557,1.9512,-5.8615,3.1715,-12.947,-6.6007,-3.3333,6.3492,8.2297,0.69841,12.945,7.7295,-9.7907,10.806,-3.9216,10.821
-3.8547,3.9365,1.3008,-14.879,-7.9208,-6.6667,-1.3008,-6.5056,1.877,-14.879,-7.9208,-4.6405,-3.8095,-1.3397,-8.8254,3.2362,-1.9324,-2.7053,7.0142,-9.1503,5.0242
-12.701,-0.50794,-5.8537,-11.659,-8.5809,-6.0194,-3.9024,-1.9968,1.2298,-11.659,-8.5809,-6.6013,-15.238,-11.547,-18.349001,-7.767,-12.238,1.8035,2.5908,-14.379,-0.12882
-3.8547,0.7619,-3.9024,-6.5056,-5.2805,-3.4304,-1.3008,1.2238,1.877,-6.5056,-5.2805,-3.3333,-20.952,-17.289,-16.444,-13.592,-15.459,-0.77295,1.327,-11.111,-4.6377
-4.4866,-4.9524,-3.9024,-3.9291,-4.6205,-0.84142,-3.252,5.7327,1.2298,-3.9291,-4.6205,-3.9869,-24.127001,-21.115999,-15.81,-18.77,-18.035,3.7359,-1.8325,-10.458,-9.7907
-4.4866,-8.127,-5.2033,-4.5733,-9.2409,-1.4887,-7.1545,8.3092,-3.9482,-4.5733,-9.2409,-7.2549,-24.127001,-21.115999,-14.54,-21.358999,-19.968,5.0242,-1.2006,-9.8039,-9.1465
1.2006,-11.937,-8.4553,-6.5056,-12.541,-0.19417,-11.707,7.0209,-8.479,-6.5056,-12.541,-9.2157,-19.683001,-19.841,-8.1905,-22.653999,-19.968,5.0242,-4.9921,-3.9216,-11.079
7.5197,-17.016001,-13.659,-5.2174,-14.521,1.1003,-13.659,8.9533,-11.068,-5.2174,-14.521,-9.2157,-13.968,-17.289,-4.381,-23.948,-19.323999,5.6683,-10.047,-1.9608,-12.367
6.8878,-17.650999,-14.959,-3.9291,-13.201,2.3948,-14.309,7.0209,-11.715,-3.9291,-13.201,-7.9085,-6.9841,-12.823,-0.57143,-20.712,-14.815,6.9565,-11.311,-0.65359,-12.367
-1.327,-14.476,-11.057,-1.9968,-11.221,2.3948,-11.707,8.9533,-13.01,-1.9968,-11.221,-5.2941,0.63492,-5.1675,1.9683,-13.592,-8.3736,8.2448,-11.311,3.9216,-9.7907
-1.327,-8.127,-5.8537,-1.3527,-9.901,3.6893,-7.8049,8.9533,-10.421,-1.3527,-9.901,-2.0261,6.9841,3.764,2.6032,-5.178,-2.5765,9.533,-7.5197,5.8824,-4.6377
-1.327,-5.5873,-1.9512,-1.9968,-8.5809,3.0421,-4.5528,5.0886,-8.479,-1.9968,-8.5809,-0.06536,7.619,8.2297,0.06349,1.9417,1.2882,5.6683,-3.7283,2.6144,-0.12882
1.2006,0.12698,1.9512,-1.9968,-6.6007,3.0421,-0.65041,3.1562,-5.89,-1.9968,-6.6007,2.549,7.619,12.057,2.6032,9.0615,7.0853,-3.3494,-0.56872,0.65359,3.0918
1.8325,5.2063,4.5528,-3.9291,-5.9406,1.1003,1.9512,-1.3527,-4.5955,-3.9291,-5.9406,3.2026,6.3492,12.695,4.5079,12.945,10.95,-2.0612,1.9589,-1.3072,5.6683
7.5197,9.0159,11.707,-7.1498,-7.2607,-0.19417,2.6016,-7.7939,-3.9482,-7.1498,-7.2607,3.8562,6.9841,14.609,8.3175,17.476,16.747,-3.9936,4.4866,-1.3072,10.177
5.624,10.921,14.309,-11.014,-8.5809,-5.3722,1.9512,-10.37,-3.9482,-11.014,-8.5809,1.8954,3.8095,10.781,6.4127,14.887,14.815,-4.6377,4.4866,-1.3072,11.465
-2.5908,5.8413,9.7561,-10.37,-5.2805,-6.0194,0.65041,-7.1498,-3.9482,-10.37,-5.2805,1.2418,-1.9048,2.488,-0.57143,5.8252,7.0853,-3.3494,1.9589,-2.6144,5.0242
2.4645,-1.1429,7.1545,-6.5056,-2.6403,-1.4887,0.0,-5.2174,-3.301,-6.5056,-2.6403,1.8954,-1.2698,-1.3397,0.06349,0.0,2.5765,-7.2142,2.5908,0.0,3.0918
-3.2227,-6.8571,-2.6016,-6.5056,-3.9604,-2.7832,-3.9024,-3.285,-3.9482,-6.5056,-3.9604,-2.0261,4.4444,-0.70175,-0.57143,-5.178,-2.5765,-2.7053,-1.8325,4.5752,1.1594
-5.1185,-9.3968,-12.358,-7.7939,-5.9406,-6.0194,-7.8049,-3.9291,-4.5955,-7.7939,-5.9406,-6.6013,12.063,1.2121,2.6032,-7.1197,-4.5089,-0.12882,-3.7283,9.1503,-2.0612
-6.3823,-11.302,-18.862,-6.5056,-3.9604,-6.6667,-8.4553,-4.5733,-2.0065,-6.5056,-3.9604,-7.9085,15.238,2.488,3.873,-7.767,-5.153,1.8035,-0.56872,8.4967,-2.7053
-6.3823,-8.7619,-20.163,-3.9291,0.0,-4.7249,-4.5528,-3.9291,3.1715,-3.9291,0.0,-5.2941,11.429,1.2121,1.9683,-7.1197,-6.4412,1.8035,0.06319,5.2288,-1.4171
0.56872,-4.9524,-11.707,0.57971,5.2805,1.1003,1.9512,-0.70853,7.055,0.57971,5.2805,1.2418,5.7143,0.57416,1.3333,-4.5307,-4.5089,-2.0612,2.5908,4.5752,-1.4171
-2.5908,2.0317,-4.5528,0.57971,5.2805,0.45307,3.252,1.2238,6.4078,0.57971,5.2805,2.549,-0.63492,-0.0638,-3.1111,-1.9417,-3.8647,-3.3494,4.4866,-0.65359,-2.0612
-1.327,2.6667,-0.65041,-1.3527,1.9802,-2.7832,1.3008,-5.2174,7.055,-1.3527,1.9802,0.58824,-3.8095,-0.0638,-5.0159,1.2945,-1.9324,-5.9259,5.7504,-3.9216,-0.12882
-8.91,1.3968,-0.65041,-1.3527,0.0,-4.0777,-0.65041,-3.285,5.1133,-1.3527,0.0,-2.0261,-6.9841,-2.6156,-6.2857,1.9417,-1.2882,-4.6377,3.8547,-2.6144,0.5153
-16.493,1.3968,-3.252,-1.3527,-0.66007,-6.6667,-1.3008,0.57971,2.5243,-1.3527,-0.66007,-3.3333,-10.794,-5.8054,-10.095,0.64725,-3.2206,-0.12882,1.327,-6.5359,-3.3494
-8.278,3.3016,-1.3008,-1.3527,2.6403,-3.4304,0.65041,1.868,4.466,-1.3527,2.6403,-1.3725,-9.5238,-3.2536,-8.1905,3.2362,-1.2882,1.8035,0.6951,-7.1895,-2.7053
-3.8547,2.6667,1.3008,-1.3527,1.3201,-0.84142,1.9512,1.2238,2.5243,-1.3527,1.3201,-0.06536,-6.3492,-1.3397,-4.381,3.2362,0.64412,0.5153,-1.2006,-2.6144,-3.9936
-2.5908,-1.7778,1.9512,-1.3527,-0.66007,-0.19417,0.0,1.2238,0.58252,-1.3527,-0.66007,-1.3725,-5.0794,-1.3397,-4.381,-0.64725,0.0,-1.4171,-3.7283,-2.6144,-5.2818
3.0964,-3.0476,2.6016,-1.9968,-1.9802,0.45307,-0.65041,-0.70853,-0.71197,-1.9968,-1.9802,-2.0261,-4.4444,-2.6156,-2.4762,-5.178,-1.9324,-2.7053,-5.624,0.0,-6.57
-4.4866,-9.3968,-2.6016,-5.2174,-6.6007,-6.0194,-5.2033,-0.70853,-3.9482,-5.2174,-6.6007,-6.6013,-5.7143,-6.4434,-5.6508,-11.65,-7.7295,2.4477,-10.679,0.65359,-11.079
-10.174,-13.841,-11.057,-7.1498,-9.2409,-8.6084,-9.7561,1.868,-7.8317,-7.1498,-9.2409,-11.83,-4.4444,-7.0813,-5.6508,-13.592,-11.594,5.0242,-9.4155,1.9608,-10.435
-1.327,-8.7619,-13.008,-6.5056,-7.2607,-5.3722,-7.8049,-1.3527,-5.89,-6.5056,-7.2607,-10.523,0.0,-0.70175,0.06349,-8.4142,-8.3736,1.1594,-4.9921,6.5359,-4.6377
4.3602,-3.6825,-12.358,-6.5056,-3.9604,0.45307,-4.5528,-3.285,-2.0065,-6.5056,-3.9604,-7.9085,-0.63492,1.8501,0.06349,-2.589,-5.7971,-1.4171,-2.4645,3.9216,-0.77295
-4.4866,0.12698,-9.1057,-7.7939,-3.3003,-0.19417,-3.9024,-1.3527,-2.0065,-7.7939,-3.3003,-5.9477,-5.0794,1.2121,-5.0159,1.9417,-3.2206,0.5153,0.06319,-1.3072,1.1594
-10.174,3.9365,-2.6016,-5.8615,-3.9604,-1.4887,-3.9024,-2.6409,-0.06472,-5.8615,-3.9604,-5.2941,-5.0794,1.2121,-5.0159,7.1197,1.2882,1.1594,1.9589,-1.3072,2.4477
-0.6951,1.3968,3.252,-5.2174,-4.6205,-0.84142,-5.8537,-4.5733,-0.06472,-5.2174,-4.6205,-4.6405,-0.63492,3.126,0.69841,9.7087,7.7295,-2.7053,2.5908,0.65359,3.7359
8.1517,0.7619,7.1545,-0.70853,-1.3201,4.3366,-4.5528,-1.3527,0.58252,-0.70853,-1.3201,-0.71895,5.7143,4.4019,8.3175,9.7087,11.594,-2.7053,0.6951,5.8824,3.0918
5.624,0.7619,7.1545,1.868,3.9604,4.9838,-1.3008,1.868,1.877,1.868,3.9604,1.8954,9.5238,3.764,9.5873,7.767,11.594,5.0242,2.5908,5.8824,1.8035
0.56872,-2.4127,4.5528,-0.70853,-0.66007,1.1003,-3.252,-0.70853,-0.71197,-0.70853,-0.66007,-0.06536,9.5238,1.8501,7.0476,3.2362,8.3736,5.0242,0.6951,3.9216,-2.7053
1.2006,-3.0476,5.2033,-4.5733,-7.9208,-1.4887,-5.2033,-3.9291,-5.2427,-4.5733,-7.9208,-0.71895,7.619,0.57416,6.4127,0.64725,6.4412,3.0918,-4.3602,3.9216,-5.2818
-0.06319,-4.9524,3.9024,-8.438,-10.561,-5.3722,-8.4553,-4.5733,-7.1845,-8.438,-10.561,-3.9869,6.3492,1.8501,5.7778,-0.64725,4.5089,4.38,-5.624,5.2288,-4.6377
-3.2227,-3.6825,0.65041,-7.1498,-9.2409,-9.2557,-7.8049,-1.3527,-5.89,-7.1498,-9.2409,-5.2941,6.3492,4.4019,4.5079,0.0,3.2206,5.0242,-4.3602,5.2288,-2.0612
10.047,-3.6825,1.3008,-2.6409,-5.2805,-2.7832,-5.8537,-0.06441,-4.5955,-2.6409,-5.2805,-1.3725,5.7143,6.3158,7.0476,-1.9417,1.2882,-2.7053,-5.624,4.5752,-1.4171
-1.327,-7.4921,-2.6016,-3.9291,-2.6403,-2.1359,-5.8537,-0.70853,-3.9482,-3.9291,-2.6403,-1.3725,-1.2698,1.8501,-0.57143,-8.4142,-7.7295,-1.4171,-6.2559,1.3072,-1.4171
-6.3823,-7.4921,-4.5528,-3.285,-3.3003,-0.84142,-4.5528,-0.06441,-3.301,-3.285,-3.3003,-1.3725,-7.619,-3.2536,-6.9206,-12.298,-13.527,4.38,-4.9921,-1.9608,-3.9936
-2.5908,-0.50794,-0.65041,0.57971,-0.66007,2.3948,0.65041,-1.3527,1.2298,0.57971,-0.66007,1.2418,-10.159,-4.5295,-8.1905,-9.0615,-10.306,1.8035,-1.2006,-5.2288,-2.0612
-0.6951,5.2063,5.2033,-0.70853,2.6403,0.45307,5.2033,-4.5733,3.8188,-0.70853,2.6403,2.549,-10.159,-3.2536,-6.2857,-1.9417,-4.5089,-2.7053,1.9589,-4.5752,1.8035
-1.327,10.286,10.407,-3.285,1.9802,-2.1359,7.8049,-4.5733,3.8188,-3.285,1.9802,3.8562,-7.619,-2.6156,-2.4762,3.8835,2.5765,-4.6377,3.8547,-3.9216,1.8035
1.8325,12.19,16.910999,-2.6409,5.2805,0.45307,11.707,-4.5733,5.1133,-2.6409,5.2805,8.4314,-0.63492,-0.0638,2.6032,9.0615,9.6618,-2.7053,6.3823,-1.3072,6.3124
6.8878,16.635,20.813,0.57971,5.9406,4.9838,14.309,-4.5733,6.4078,0.57971,5.9406,13.007,7.619,3.764,8.9524,12.298,14.171,-0.77295,5.7504,3.9216,5.0242
15.735,15.365,20.813,4.4444,7.2607,8.8673,14.959,-3.9291,8.9968,4.4444,7.2607,14.314,12.698,5.6778,12.127,12.298,15.459,-5.2818,7.0142,3.9216,3.7359
3.7283,10.921,13.659,1.2238,5.2805,6.2783,11.057,-1.3527,7.055,1.2238,5.2805,9.085,14.603,6.9537,7.6825,11.65,14.171,-1.4171,7.6461,1.3072,3.7359
-7.6461,10.921,7.1545,-2.6409,2.6403,-0.84142,7.8049,-4.5733,5.1133,-2.6409,2.6403,3.2026,13.968,8.8676,1.9683,12.298,12.882,-2.7053,6.3823,-1.3072,3.7359
-1.9589,9.6508,3.9024,-1.3527,5.2805,-2.7832,7.1545,-7.1498,8.3495,-1.3527,5.2805,1.8954,13.333,11.419,2.6032,12.298,10.95,-8.5024,7.6461,-0.65359,6.3124
-1.327,7.1111,1.3008,-0.06441,7.2607,-0.19417,7.8049,-5.8615,7.7023,-0.06441,7.2607,3.2026,9.5238,10.781,0.69841,8.4142,5.153,-5.9259,7.0142,0.0,5.6683
-3.2227,3.3016,0.0,-1.9968,5.2805,-0.84142,5.2033,-6.5056,7.055,-1.9968,5.2805,1.8954,6.9841,9.5056,0.69841,4.5307,0.64412,-3.9936,5.1185,1.9608,5.6683
0.56872,5.8413,3.252,-1.9968,3.3003,-2.1359,5.2033,-10.37,7.7023,-1.9968,3.3003,-0.06536,5.0794,10.144,3.873,4.5307,1.9324,-9.7907,6.3823,5.8824,8.2448
-4.4866,5.2063,0.0,-1.9968,2.6403,-7.3139,3.252,-11.014,8.3495,-1.9968,2.6403,-4.6405,-1.9048,6.3158,-1.2063,1.2945,-2.5765,-7.8583,7.0142,-0.65359,8.8889
-3.8547,0.12698,-4.5528,-5.2174,2.6403,-10.55,0.65041,-11.659,8.3495,-5.2174,2.6403,-8.5621,-9.5238,-1.9777,-5.6508,-4.5307,-9.0177,-6.57,3.8547,-5.2288,3.7359
-9.5419,0.7619,-7.8049,-5.2174,2.6403,-9.9029,0.65041,-7.1498,6.4078,-5.2174,2.6403,-9.2157,-15.873,-10.909,-9.4603,-10.356,-14.815,-2.7053,0.06319,-5.8824,-1.4171
-10.174,3.3016,-10.407,-3.285,2.6403,-8.6084,1.3008,-2.6409,6.4078,-3.285,2.6403,-7.9085,-16.507999,-15.375,-8.8254,-11.65,-15.459,1.1594,3.2227,-4.5752,-2.0612
-4.4866,2.6667,-7.1545,-1.3527,2.6403,-6.6667,1.3008,-1.3527,7.055,-1.3527,2.6403,-5.9477,-13.333,-15.375,-4.381,-8.4142,-10.306,1.8035,4.4866,-1.3072,-2.7053
1.2006,5.8413,1.9512,1.868,5.2805,-0.19417,5.8537,3.8003,7.7023,1.868,5.2805,0.58824,-6.9841,-11.547,0.69841,-2.589,-1.2882,5.0242,3.8547,1.3072,-2.0612
11.943,13.46,13.659,5.0886,7.2607,6.9256,11.707,5.0886,6.4078,5.0886,7.2607,9.085,1.9048,-3.8915,10.222,5.8252,10.306,3.7359,3.8547,9.1503,-0.77295
15.103,12.825,16.910999,4.4444,9.901,9.5146,13.008,6.3768,8.3495,4.4444,9.901,11.699,5.0794,-0.0638,10.857,9.0615,13.527,4.38,2.5908,7.8431,-1.4171
3.0964,6.4762,9.1057,3.8003,7.9208,5.6311,10.407,3.8003,8.3495,3.8003,7.9208,9.085,0.63492,-1.3397,-1.2063,3.8835,4.5089,5.0242,1.9589,-1.3072,-3.9936
-1.9589,4.5714,2.6016,2.5121,6.6007,6.9256,9.7561,1.868,8.3495,2.5121,6.6007,9.7386,-1.2698,0.57416,-6.9206,0.0,-2.5765,3.0918,0.06319,-3.268,-3.3494
2.4645,0.7619,0.0,5.0886,7.9208,10.809,9.1057,3.1562,6.4078,5.0886,7.9208,11.046,-2.5397,2.488,-7.5556,-3.2362,-5.7971,3.7359,-4.3602,-2.6144,-3.9936
6.2559,-3.6825,0.65041,8.3092,7.2607,14.045,5.8537,6.3768,3.8188,8.3092,7.2607,11.046,-3.1746,5.0399,-4.381,-2.589,-5.153,5.6683,-4.3602,0.0,-2.7053
13.839,-1.7778,6.5041,8.3092,6.6007,14.045,5.2033,5.7327,1.2298,8.3092,6.6007,11.046,-0.63492,7.5917,3.2381,2.589,0.64412,3.7359,-1.2006,8.4967,3.7359
3.0964,-1.1429,3.252,-0.06441,0.66007,3.6893,-2.6016,3.8003,-3.301,-0.06441,0.66007,1.8954,-3.8095,3.126,0.69841,1.2945,-1.9324,5.6683,-3.0964,3.9216,1.8035
-4.4866,-6.8571,-2.6016,-5.2174,-5.2805,-4.7249,-10.407,-0.06441,-7.1845,-5.2174,-5.2805,-6.6013,-6.3492,-2.6156,-1.2063,-2.589,-5.7971,4.38,-4.9921,0.65359,-1.4171
-5.7504,-8.127,-7.8049,-4.5733,-8.5809,-7.9612,-14.309,-5.8615,-9.7735,-4.5733,-8.5809,-11.176,-5.7143,-5.8054,0.06349,-5.178,-6.4412,-2.7053,-6.2559,0.65359,-1.4171
-6.3823,-3.0476,-7.1545,-5.2174,-7.2607,-8.6084,-10.407,-9.0821,-9.1262,-5.2174,-7.2607,-9.2157,-1.2698,-3.8915,1.9683,-2.589,-2.5765,-2.7053,-4.9921,1.9608,0.5153
-8.91,-1.7778,-5.2033,-2.6409,-1.9802,-7.3139,-6.5041,-7.7939,-6.5372,-2.6409,-1.9802,-6.6013,1.2698,-3.2536,0.06349,-1.2945,-0.64412,-2.0612,-3.0964,0.0,-0.12882
3.7283,5.2063,5.8537,2.5121,3.9604,-0.19417,3.252,-4.5733,-0.06472,2.5121,3.9604,3.2026,5.7143,-0.70175,4.5079,2.589,5.7971,-5.9259,0.6951,0.65359,1.1594
19.525999,14.73,18.211,7.0209,11.221,12.104,13.659,-1.9968,7.7023,7.0209,11.221,14.314,12.063,3.126,12.127,7.767,12.882,-3.9936,4.4866,5.2288,3.0918
8.1517,10.286,16.26,3.1562,8.5809,6.9256,11.707,0.57971,5.7605,3.1562,8.5809,10.392,9.5238,1.2121,7.0476,5.8252,10.95,-0.12882,1.9589,-1.3072,0.5153
4.3602,9.0159,16.910999,-0.70853,3.9604,1.1003,9.7561,1.868,4.466,-0.70853,3.9604,7.1242,9.5238,7.5917,8.3175,11.003,14.171,2.4477,2.5908,-5.2288,2.4477
11.943,12.19,18.211,-0.70853,1.3201,4.3366,11.057,1.868,5.1133,-0.70853,1.3201,7.7778,13.333,15.885,13.397,16.827999,18.68,3.0918,5.7504,-0.65359,7.6006
10.679,9.6508,13.659,1.2238,2.6403,4.9838,11.057,5.7327,5.1133,1.2238,2.6403,7.7778,13.333,17.799,12.127,13.592,16.103001,4.38,3.8547,1.9608,8.2448
13.839,7.746,12.358,-0.06441,5.2805,3.6893,11.057,1.2238,7.7023,-0.06441,5.2805,7.1242,12.698,17.799,11.492,10.356,12.882,-2.0612,3.8547,4.5752,8.2448
15.103,5.8413,9.7561,-1.9968,2.6403,3.0421,6.5041,-3.9291,3.1715,-1.9968,2.6403,3.8562,8.254,14.609,7.6825,7.1197,7.7295,-0.12882,3.2227,3.9216,6.3124
6.8878,3.9365,4.5528,-3.285,-3.9604,0.45307,-0.65041,-3.285,-0.71197,-3.285,-3.9604,-2.0261,4.4444,10.781,3.2381,7.1197,3.2206,3.0918,1.9589,4.5752,6.9565
-3.2227,-1.1429,-3.252,-6.5056,-7.9208,-2.7832,-7.8049,-1.9968,-4.5955,-6.5056,-7.9208,-8.5621,1.2698,7.5917,-1.8413,6.4725,-0.64412,3.7359,0.6951,3.268,6.3124
-1.9589,-3.6825,-7.8049,-3.285,-7.9208,1.7476,-9.7561,3.1562,-7.1845,-3.285,-7.9208,-7.2549,3.1746,5.6778,0.69841,4.5307,-0.64412,6.3124,-1.2006,7.8431,5.6683
4.9921,-3.0476,-7.1545,4.4444,-2.6403,10.809,-5.2033,8.9533,-5.89,4.4444,-2.6403,-0.06536,9.5238,3.764,7.0476,1.9417,1.9324,11.465,-4.3602,18.954,1.1594
4.9921,-9.3968,-10.407,5.0886,-1.3201,8.8673,-6.5041,10.886,-9.1262,5.0886,-1.3201,1.2418,8.8889,-2.6156,5.1429,-7.1197,-2.5765,10.821,-13.839,18.954,-10.435
3.0964,-10.032,-9.1057,5.0886,1.3201,6.9256,-5.2033,8.3092,-7.8317,5.0886,1.3201,2.549,6.9841,-5.1675,4.5079,-9.0615,-3.2206,8.2448,-14.471,14.379,-9.7907
6.8878,-6.8571,-5.2033,3.1562,0.0,6.2783,-5.8537,0.57971,-5.89,3.1562,0.0,1.8954,7.619,-2.6156,7.6825,-6.4725,0.64412,0.5153,-8.1517,12.418,-7.8583
-1.9589,-8.127,-5.2033,-2.6409,-5.9406,-0.84142,-8.4553,-5.2174,-5.2427,-2.6409,-5.9406,-2.6797,3.8095,-3.8915,2.6032,-4.5307,0.0,-1.4171,-5.624,3.9216,-7.2142
-6.3823,-5.5873,-3.252,-7.1498,-5.2805,-6.6667,-5.8537,-7.7939,0.58252,-7.1498,-5.2805,-3.3333,0.0,-1.9777,-1.8413,-0.64725,0.64412,-2.0612,-1.2006,-5.8824,-2.0612
-0.6951,0.7619,0.0,-6.5056,-3.3003,-4.7249,-0.65041,-8.438,5.1133,-6.5056,-3.3003,-0.71895,-1.2698,-1.3397,-1.2063,0.64725,1.2882,-5.2818,4.4866,-6.5359,0.5153
-2.5908,0.12698,0.0,-5.2174,-3.9604,-4.7249,-0.65041,-5.8615,5.1133,-5.2174,-3.9604,-0.71895,-4.4444,-3.2536,-2.4762,-2.589,-2.5765,-7.2142,5.1185,-7.1895,1.1594
-4.4866,-2.4127,0.0,-7.7939,-7.2607,-9.2557,-2.6016,-7.1498,0.58252,-7.7939,-7.2607,-3.9869,-3.8095,-0.70175,-3.1111,-2.589,-3.2206,-6.57,3.8547,-5.2288,2.4477
-3.8547,-0.50794,-1.9512,-10.37,-6.6007,-11.845,-1.3008,-12.303,1.877,-10.37,-6.6007,-6.6013,-3.8095,0.57416,-3.746,-1.2945,-4.5089,-7.2142,3.2227,-5.2288,4.38
-8.91,3.9365,-4.5528,-8.438,1.9802,-11.845,2.6016,-14.879,8.3495,-8.438,1.9802,-5.9477,-5.7143,1.8501,-7.5556,0.64725,-5.7971,-9.7907,3.2227,-7.1895,5.0242
-6.3823,1.3968,-9.7561,-9.0821,7.2607,-12.492,3.252,-20.032,11.586,-9.0821,7.2607,-5.9477,-6.3492,1.2121,-8.8254,-0.64725,-9.0177,-16.875999,7.0142,-5.8824,4.38
-17.125,-1.7778,-14.309,-9.7262,5.9406,-13.139,2.6016,-18.743999,12.233,-9.7262,5.9406,-6.6013,-8.8889,-0.0638,-16.444,-3.8835,-14.171,-14.944,8.278,-11.765,5.0242
-22.18,-0.50794,-12.358,-5.2174,5.9406,-11.197,3.252,-12.947,10.291,-5.2174,5.9406,-4.6405,-6.9841,0.57416,-17.714001,-5.178,-14.815,-9.7907,4.4866,-13.072,4.38
-17.125,-1.7778,-9.1057,-3.9291,3.9604,-11.197,1.3008,-12.947,7.055,-3.9291,3.9604,-4.6405,-3.8095,-2.6156,-12.0,-7.767,-11.594,-10.435,1.327,-9.8039,1.1594
-4.4866,0.12698,-2.6016,-1.3527,7.2607,-6.0194,3.252,-7.7939,8.3495,-1.3527,7.2607,-0.71895,3.1746,-4.5295,-0.57143,-7.1197,-3.2206,-9.1465,1.327,-5.2288,-2.0612
-0.6951,2.6667,2.6016,-0.70853,8.5809,-4.7249,2.6016,-7.7939,8.9968,-0.70853,8.5809,-0.71895,8.254,-5.1675,7.0476,-3.8835,4.5089,-4.6377,3.8547,0.0,-1.4171
-2.5908,3.9365,3.9024,-0.06441,6.6007,-5.3722,0.65041,-6.5056,7.7023,-0.06441,6.6007,-2.6797,7.619,-5.1675,10.222,-0.64725,8.3736,-2.7053,5.1185,0.0,-2.0612
4.3602,5.2063,7.8049,-0.70853,4.6205,-6.0194,-2.6016,-5.8615,5.1133,-0.70853,4.6205,-4.6405,8.254,-1.9777,16.570999,3.2362,13.527,-5.2818,3.8547,4.5752,-1.4171
8.7836,3.9365,9.1057,-1.3527,1.3201,-6.0194,-3.9024,-4.5733,4.466,-1.3527,1.3201,-5.9477,6.3492,2.488,14.667,7.1197,14.815,-3.3494,7.0142,0.65359,2.4477
8.1517,2.0317,5.2033,-4.5733,-2.6403,-6.6667,-5.2033,-5.2174,3.8188,-4.5733,-2.6403,-7.9085,2.5397,6.3158,8.3175,9.0615,11.594,-3.3494,10.174,-3.268,6.9565
-5.7504,-2.4127,-5.2033,-9.7262,-6.6007,-11.845,-8.4553,-8.438,0.58252,-9.7262,-6.6007,-12.484,-3.8095,6.9537,-5.0159,5.8252,1.2882,-3.9936,7.6461,-5.8824,8.2448
-9.5419,-3.6825,-11.057,-12.303,-8.5809,-11.197,-11.057,-7.7939,-2.0065,-12.303,-8.5809,-14.444,-5.7143,7.5917,-9.4603,3.8835,-4.5089,-6.57,4.4866,-5.8824,7.6006
-12.07,-7.4921,-15.61,-11.659,-11.221,-11.197,-14.959,-4.5733,-3.9482,-11.659,-11.221,-16.405001,-5.0794,7.5917,-12.0,2.589,-7.7295,-3.3494,2.5908,-5.2288,6.9565
-10.806,-5.5873,-14.959,-3.9291,-7.9208,-4.0777,-11.057,3.8003,-2.6537,-3.9291,-7.9208,-10.523,-5.0794,5.6778,-13.905,0.64725,-10.95,1.8035,-0.56872,-5.2288,6.3124
-7.0142,-4.9524,-13.008,3.8003,-0.66007,2.3948,-3.9024,8.9533,-0.06472,3.8003,-0.66007,-2.6797,-5.0794,2.488,-15.175,-3.2362,-14.171,2.4477,0.06319,-5.2288,4.38
-1.327,-4.9524,-10.407,10.242,5.9406,9.5146,1.3008,10.886,0.58252,10.242,5.9406,5.817,-3.1746,-0.0638,-13.27,-5.178,-14.815,4.38,0.6951,-2.6144,1.8035
0.56872,-2.4127,-7.1545,12.174,7.2607,12.104,3.9024,12.174,1.877,12.174,7.2607,9.085,-0.63492,-0.70175,-8.8254,-3.8835,-10.95,3.7359,0.06319,-3.268,1.1594
-0.6951,-4.9524,-6.5041,8.3092,1.9802,5.6311,1.3008,8.9533,0.58252,8.3092,1.9802,5.1634,0.0,-2.6156,-6.2857,-3.2362,-7.0853,3.7359,-1.2006,-7.8431,-1.4171
6.2559,-4.9524,-0.65041,3.1562,-1.9802,2.3948,-1.9512,5.0886,-0.71197,3.1562,-1.9802,1.8954,1.2698,-2.6156,1.9683,0.0,1.9324,3.0918,-1.2006,-7.8431,-2.7053
11.943,2.6667,9.1057,5.0886,1.3201,4.9838,1.9512,8.9533,-0.06472,5.0886,1.3201,5.1634,2.5397,-0.70175,10.222,4.5307,11.594,1.8035,1.327,-6.5359,-0.12882
13.839,10.286,14.959,8.9533,7.2607,6.2783,8.4553,7.6651,5.1133,8.9533,7.2607,9.7386,0.0,-1.9777,11.492,6.4725,15.459,1.1594,5.1185,-9.8039,1.1594
8.7836,11.556,14.959,7.0209,9.2409,4.3366,11.057,6.3768,8.3495,7.0209,9.2409,9.7386,-5.7143,-6.4434,7.0476,5.178,12.882,2.4477,1.9589,-9.8039,-1.4171
1.8325,5.8413,6.5041,3.8003,6.6007,-1.4887,7.1545,5.0886,7.055,3.8003,6.6007,3.8562,-14.603,-11.547,-0.57143,0.0,4.5089,1.8035,3.8547,-11.765,-4.6377
4.9921,1.3968,0.65041,3.1562,1.9802,-5.3722,2.6016,-0.06441,3.1715,3.1562,1.9802,-1.3725,-16.507999,-11.547,-1.8413,-1.2945,0.0,-5.9259,4.4866,-9.8039,-4.6377
-3.2227,-3.6825,-6.5041,0.57971,-3.9604,-6.6667,-4.5528,-0.06441,-2.6537,0.57971,-3.9604,-7.2549,-11.429,-8.3573,-4.381,-1.9417,-4.5089,-0.12882,0.6951,-1.9608,-2.7053
-13.965,-12.571,-13.659,-2.6409,-7.9208,-9.2557,-13.659,0.57971,-8.479,-2.6409,-7.9208,-13.137,-6.3492,-4.5295,-10.095,-3.8835,-8.3736,6.3124,-4.3602,-1.3072,-3.3494
-13.333,-15.746,-15.61,-3.9291,-6.6007,-9.9029,-16.910999,-2.6409,-6.5372,-3.9291,-6.6007,-15.752,-1.9048,-0.0638,-12.635,-4.5307,-9.0177,3.7359,-8.1517,-0.65359,-3.9936
-8.278,-10.667,-11.057,-1.9968,-2.6403,-6.6667,-13.008,-3.285,-4.5955,-1.9968,-2.6403,-11.83,2.5397,3.126,-8.1905,-3.2362,-7.0853,2.4477,-6.2559,4.5752,-2.7053
-10.806,-9.3968,-10.407,-7.1498,-5.2805,-8.6084,-11.057,-3.285,-5.89,-7.1498,-5.2805,-11.83,1.2698,1.8501,-9.4603,-4.5307,-7.7295,1.1594,-4.9921,3.268,-3.3494
-3.2227,-6.2222,-9.1057,-9.0821,-8.5809,-7.9612,-10.407,-4.5733,-5.89,-9.0821,-8.5809,-11.83,1.9048,3.764,-5.6508,-1.2945,-6.4412,-2.7053,-4.3602,3.9216,0.5153
-2.5908,-3.6825,-7.8049,-8.438,-9.2409,-8.6084,-10.407,-5.2174,-7.8317,-8.438,-9.2409,-11.176,1.9048,5.6778,-4.381,1.9417,-5.153,-0.12882,-3.7283,3.9216,2.4477
-1.327,0.7619,-2.6016,-2.6409,-5.9406,-5.3722,-6.5041,-0.70853,-7.1845,-2.6409,-5.9406,-5.9477,3.1746,8.2297,-1.2063,7.1197,-1.2882,1.8035,-3.7283,6.5359,4.38
3.0964,1.3968,2.6016,-0.70853,-3.9604,2.3948,-1.9512,0.57971,-5.89,-0.70853,-3.9604,0.58824,3.8095,8.8676,0.06349,9.7087,1.9324,5.0242,-0.56872,3.268,4.38
6.8878,4.5714,8.4553,0.57971,0.0,8.2201,3.9024,4.4444,-2.6537,0.57971,0.0,6.4706,6.3492,10.144,3.873,11.65,6.4412,5.0242,1.9589,0.65359,3.7359
13.207,9.0159,14.959,3.1562,1.3201,10.809,8.4553,6.3768,-0.71197,3.1562,1.3201,11.046,11.429,9.5056,11.492,11.65,11.594,3.0918,0.6951,5.8824,1.8035
16.997999,5.8413,18.862,5.7327,1.9802,12.104,9.7561,7.0209,-0.06472,5.7327,1.9802,12.353,13.968,5.0399,17.205999,8.4142,12.882,9.533,-1.8325,10.458,-2.0612
20.790001,4.5714,19.511999,10.242,6.6007,14.693,12.358,8.9533,1.2298,10.242,6.6007,15.621,14.603,-0.0638,19.746,4.5307,12.882,14.042,-3.7283,13.725,-3.9936
14.471,7.1111,14.309,16.683001,13.201,19.223,16.26,14.75,5.1133,16.683001,13.201,20.195999,6.9841,-7.7193,12.127,-0.64725,5.153,10.821,-3.7283,9.1503,-5.9259
10.679,12.825,11.707,23.124001,20.462,25.695999,23.415001,19.259001,7.7023,23.124001,20.462,28.039,-3.8095,-13.461,-1.2063,-5.8252,-5.7971,5.6683,0.6951,3.268,-6.57
8.7836,12.19,9.7561,21.836,19.802,23.107,22.114,15.395,10.291,21.836,19.802,26.732,-10.159,-11.547,-6.9206,-7.1197,-10.306,-0.77295,6.3823,-0.65359,-2.7053
-7.6461,3.9365,1.3008,10.242,9.2409,8.2201,9.7561,7.0209,5.1133,10.242,9.2409,12.353,-12.698,-5.8054,-14.54,-5.8252,-12.238,0.5153,5.1185,-7.1895,-0.12882
-10.806,-1.7778,-3.9024,4.4444,0.0,-1.4887,-1.3008,1.868,-0.71197,4.4444,0.0,-0.06536,-8.254,3.764,-12.0,-0.64725,-9.0177,0.5153,1.9589,-5.2288,3.7359
-7.6461,-8.127,-8.4553,-1.9968,-5.9406,-8.6084,-9.7561,-4.5733,-5.89,-1.9968,-5.9406,-9.2157,-1.9048,11.419,-5.0159,1.9417,-4.5089,-2.7053,-3.7283,1.3072,4.38
-2.5908,-11.302,-9.1057,-9.0821,-9.901,-11.197,-14.309,-7.1498,-8.479,-9.0821,-9.901,-13.791,5.0794,13.971,0.06349,0.64725,-1.2882,-3.3494,-5.624,3.9216,5.0242
-3.2227,-10.667,-9.7561,-9.0821,-9.901,-13.139,-14.309,-7.7939,-9.1262,-9.0821,-9.901,-15.098,10.159,13.971,3.2381,-0.64725,1.2882,-0.77295,-3.0964,6.5359,5.6683
-3.2227,-5.5873,-6.5041,-9.7262,-7.9208,-15.081,-11.707,-11.014,-9.7735,-9.7262,-7.9208,-14.444,15.238,13.333,6.4127,0.0,5.153,-0.12882,-2.4645,7.1895,4.38
-0.06319,-3.0476,-0.65041,-9.7262,-8.5809,-14.434,-9.7561,-11.659,-7.1845,-9.7262,-8.5809,-13.791,22.857,15.247,14.667,6.4725,12.882,-2.7053,-1.2006,14.379,6.3124
1.2006,-2.4127,1.3008,-12.947,-9.2409,-17.023001,-9.7561,-13.591,-5.89,-12.947,-9.2409,-15.098,23.492001,13.971,16.570999,9.7087,16.747,-2.7053,-1.2006,12.418,5.6683
2.4645,2.6667,2.6016,-11.014,-7.9208,-14.434,-7.1545,-9.7262,-3.9482,-11.014,-7.9208,-13.791,22.222,9.5056,17.841,9.7087,17.391001,1.1594,-2.4645,11.111,2.4477
-3.8547,-1.7778,0.0,-5.2174,-3.9604,-11.845,-3.9024,-5.2174,-1.3592,-5.2174,-3.9604,-10.523,12.698,-3.2536,11.492,0.64725,9.0177,3.7359,-4.3602,7.8431,-4.6377
-4.4866,-4.9524,-1.9512,-0.06441,5.9406,-2.1359,5.8537,-0.70853,4.466,-0.06441,5.9406,0.58824,0.0,-14.737,1.3333,-10.356,-3.2206,1.8035,-1.2006,1.9608,-7.2142
-4.4866,-4.3175,-1.9512,9.5974,15.842,10.162,18.211,3.1562,8.9968,9.5974,15.842,15.621,-12.063,-23.667999,-11.365,-21.358999,-17.391001,-3.9936,0.06319,-3.9216,-11.079
-10.174,-1.7778,-3.252,18.615,17.162001,18.576,20.163,12.174,8.9968,18.615,17.162001,23.464001,-22.222,-28.134001,-26.603001,-25.889999,-28.986,-3.3494,-3.0964,-12.418,-13.655
-13.333,-2.4127,-7.1545,17.971001,15.842,15.987,13.659,11.53,7.055,17.971001,15.842,18.235001,-26.032,-25.582001,-31.048,-22.653999,-30.917999,-0.12882,-2.4645,-14.379,-11.723
-8.278,-6.2222,-11.707,8.3092,5.9406,6.9256,1.9512,3.8003,2.5243,8.3092,5.9406,6.4706,-24.127001,-19.841,-23.429001,-17.476,-25.764999,-3.3494,-2.4645,-9.1503,-9.7907
5.624,-3.0476,-7.1545,4.4444,0.66007,4.3366,-2.6016,3.1562,-2.0065,4.4444,0.66007,2.549,-19.683001,-12.823,-10.095,-8.4142,-14.815,-3.9936,-3.0964,-7.8431,-5.2818
6.8878,-0.50794,-1.9512,5.0886,-1.3201,4.9838,-5.8537,7.0209,-6.5372,5.0886,-1.3201,-0.06536,-14.603,-8.3573,-1.2063,-0.64725,-4.5089,4.38,-1.8325,-5.8824,-2.0612
8.7836,6.4762,9.7561,8.3092,0.0,8.8673,-1.3008,8.3092,-4.5955,8.3092,0.0,3.8562,-6.9841,-3.2536,7.6825,8.4142,8.3736,11.465,1.327,-1.3072,-0.12882
16.367001,12.19,20.813,8.3092,3.9604,12.104,4.5528,11.53,-1.3592,8.3092,3.9604,9.085,1.9048,0.57416,17.205999,14.887,20.612,12.754,0.06319,2.6144,0.5153
24.580999,15.365,24.065001,7.0209,3.3003,14.045,4.5528,8.9533,-2.6537,7.0209,3.3003,8.4314,10.159,3.764,25.459999,18.77,28.986,12.754,0.06319,7.8431,1.8035
20.790001,7.746,18.211,7.0209,1.9802,9.5146,0.65041,10.242,-2.0065,7.0209,1.9802,3.8562,14.603,6.9537,26.094999,18.122999,28.986,10.177,-1.2006,9.1503,1.8035
13.839,-1.1429,9.1057,5.7327,1.9802,4.3366,-2.6016,6.3768,-0.06472,5.7327,1.9802,-0.71895,13.968,6.9537,22.285999,14.239,23.833,5.6683,-0.56872,9.1503,1.8035
5.624,-2.4127,1.9512,2.5121,0.0,-2.7832,-1.9512,-0.06441,-0.71197,2.5121,0.0,-2.6797,10.794,5.0399,12.762,8.4142,14.815,5.0242,-2.4645,3.9216,1.8035
1.2006,-3.6825,-5.2033,3.1562,0.66007,-1.4887,0.0,1.868,1.2298,3.1562,0.66007,-1.3725,8.254,2.488,7.6825,1.9417,5.7971,2.4477,1.9589,4.5752,3.0918
-14.597,-9.3968,-18.211,3.1562,3.3003,-1.4887,-0.65041,0.57971,1.877,3.1562,3.3003,-3.3333,-0.63492,-5.8054,-5.6508,-11.65,-10.306,-0.77295,1.327,-0.65359,-1.4171
-20.284,-12.571,-20.813,5.0886,7.2607,0.45307,0.65041,5.7327,3.1715,5.0886,7.2607,-0.06536,-9.5238,-14.737,-17.079,-23.948,-23.188,-0.77295,-4.9921,-5.2288,-9.1465
-10.174,-9.3968,-9.7561,7.6651,7.9208,6.2783,4.5528,3.1562,1.877,7.6651,7.9208,5.817,-13.968,-18.565001,-18.983999,-27.184,-25.764999,-2.7053,-5.624,-3.9216,-11.079
-9.5419,-8.7619,-2.6016,6.3768,5.9406,4.9838,2.6016,-1.3527,1.877,6.3768,5.9406,5.817,-17.143,-19.202999,-21.524,-25.243,-25.764999,-3.3494,-6.2559,-5.2288,-9.7907
-8.278,-6.2222,0.0,-0.06441,0.0,-1.4887,-1.9512,-1.9968,-1.3592,-0.06441,0.0,-0.06536,-15.238,-12.823,-17.079,-16.181,-18.68,-2.7053,-5.624,-4.5752,-5.2818
-0.6951,-4.9524,-2.6016,-7.7939,-9.2409,-6.6667,-11.707,-5.8615,-7.8317,-7.7939,-9.2409,-9.8693,-9.5238,-5.1675,-8.1905,-5.178,-9.6618,-1.4171,-4.9921,-3.268,-4.6377
6.2559,-3.6825,-6.5041,-10.37,-11.881,-7.9612,-15.61,-7.1498,-9.1262,-10.37,-11.881,-13.791,-1.2698,2.488,1.9683,3.8835,-0.64412,-3.3494,-3.0964,1.9608,-2.7053
5.624,-0.50794,-8.4553,-7.7939,-9.2409,-7.3139,-11.707,-5.2174,-6.5372,-7.7939,-9.2409,-12.484,0.63492,3.126,3.873,6.4725,3.2206,-3.9936,-2.4645,0.65359,-1.4171
1.8325,4.5714,-1.9512,-3.285,-1.9802,-4.0777,-1.3008,-1.9968,0.58252,-3.285,-1.9802,-4.6405,1.9048,5.0399,4.5079,9.7087,8.3736,-2.7053,1.9589,-1.9608,0.5153
-3.2227,9.6508,3.9024,-3.285,1.3201,-4.0777,3.9024,-3.285,3.8188,-3.285,1.3201,-0.06536,5.0794,8.2297,6.4127,14.239,14.171,-3.3494,5.7504,-0.65359,5.6683
-1.9589,7.1111,7.1545,-2.6409,1.3201,-4.0777,4.5528,-5.2174,3.8188,-2.6409,1.3201,1.2418,7.619,9.5056,9.5873,15.534,16.747,-3.3494,5.7504,0.65359,8.2448
2.4645,4.5714,9.1057,-0.06441,1.9802,-0.84142,4.5528,-1.9968,3.8188,-0.06441,1.9802,1.8954,12.063,10.781,17.205999,15.534,19.968,-3.9936,6.3823,9.1503,8.8889
1.2006,3.9365,7.1545,1.2238,3.3003,3.0421,5.2033,1.2238,3.1715,1.2238,3.3003,3.8562,13.333,10.781,16.570999,13.592,19.323999,0.5153,8.278,7.8431,8.8889
-3.2227,5.2063,3.9024,6.3768,6.6007,4.3366,7.8049,2.5121,5.7605,6.3768,6.6007,7.7778,11.429,9.5056,10.857,12.298,14.815,-0.12882,8.91,5.2288,8.8889
-8.278,8.381,0.65041,8.3092,8.5809,4.3366,9.7561,0.57971,6.4078,8.3092,8.5809,9.085,7.619,8.2297,2.6032,9.0615,7.0853,-5.2818,7.6461,4.5752,10.177
-5.7504,5.8413,-1.9512,3.1562,4.6205,4.3366,6.5041,-1.3527,1.877,3.1562,4.6205,7.7778,4.4444,5.6778,-3.746,1.9417,-1.9324,-5.9259,3.8547,3.9216,7.6006
-7.0142,1.3968,-3.9024,-3.285,-3.9604,-2.1359,-1.3008,-2.6409,-3.301,-3.285,-3.9604,-0.06536,5.0794,4.4019,-5.0159,-2.589,-5.7971,-1.4171,0.6951,3.9216,4.38
-0.6951,-4.3175,-5.8537,-7.1498,-10.561,-6.6667,-10.407,-5.2174,-9.7735,-7.1498,-10.561,-7.9085,8.8889,5.6778,0.06349,-5.178,-5.153,0.5153,-3.7283,6.5359,1.8035
3.0964,-10.667,-8.4553,-9.0821,-12.541,-7.3139,-15.61,-5.8615,-11.068,-9.0821,-12.541,-12.484,9.5238,3.126,3.873,-7.767,-5.7971,1.1594,-8.1517,8.4967,-2.7053
-0.6951,-11.937,-7.8049,-6.5056,-9.2409,-6.0194,-11.707,-0.06441,-8.479,-6.5056,-9.2409,-9.8693,6.9841,0.57416,4.5079,-8.4142,-5.7971,4.38,-7.5197,9.8039,-5.9259
8.1517,-2.4127,0.65041,-0.70853,-1.3201,-4.7249,-0.65041,0.57971,-1.3592,-0.70853,-1.3201,-1.3725,5.0794,2.488,5.7778,-2.589,-1.2882,2.4477,-3.7283,7.1895,-2.7053
1.2006,-3.0476,-0.65041,-2.6409,2.6403,-3.4304,3.252,-1.3527,3.8188,-2.6409,2.6403,-0.06536,-1.2698,-1.9777,-0.57143,-4.5307,-4.5089,1.8035,-4.3602,-0.65359,-5.2818
-8.91,-8.7619,-7.8049,-5.8615,-3.3003,-3.4304,-1.9512,0.57971,1.2298,-5.8615,-3.3003,-5.2941,-8.8889,-8.9952,-8.1905,-9.7087,-10.306,0.5153,-4.9921,-5.8824,-9.1465
-8.278,-7.4921,-8.4553,-2.6409,-3.9604,-2.7832,-1.9512,0.57971,-0.06472,-2.6409,-3.9604,-3.9869,-13.968,-13.461,-12.635,-11.65,-12.238,-1.4171,-2.4645,-8.4967,-9.1465
-10.174,0.7619,-5.2033,2.5121,1.9802,1.1003,3.9024,5.0886,2.5243,2.5121,1.9802,0.58824,-13.968,-12.823,-14.54,-8.4142,-10.95,-1.4171,1.327,-9.8039,-6.57
-3.8547,6.4762,2.6016,5.7327,7.9208,6.9256,11.057,5.7327,8.3495,5.7327,7.9208,8.4314,-10.794,-7.7193,-12.635,-1.2945,-5.153,-3.9936,6.3823,-8.4967,-2.0612
7.5197,10.921,13.008,7.0209,11.221,13.398,16.26,3.8003,11.586,7.0209,11.221,14.314,-5.0794,0.57416,-5.6508,7.767,3.2206,-3.9936,10.806,-6.5359,5.0242
10.047,10.286,11.707,2.5121,5.9406,8.8673,11.057,3.1562,6.4078,2.5121,5.9406,11.046,-1.9048,8.2297,-1.8413,11.003,7.7295,1.1594,7.0142,-9.1503,6.9565
5.624,7.1111,4.5528,0.57971,0.66007,4.9838,4.5528,3.8003,1.877,0.57971,0.66007,4.5098,0.63492,12.057,3.2381,12.298,9.6618,5.0242,5.7504,-7.1895,8.2448
3.7283,2.0317,0.0,-0.06441,-4.6205,4.3366,-1.9512,5.7327,-1.3592,-0.06441,-4.6205,-1.3725,4.4444,14.609,10.222,12.298,10.95,4.38,5.7504,-2.6144,10.177
4.3602,0.7619,1.3008,1.2238,-3.9604,5.6311,-1.9512,7.6651,-2.6537,1.2238,-3.9604,-0.06536,6.3492,15.885,11.492,11.65,11.594,5.0242,3.8547,-0.65359,9.533
11.311,8.381,11.707,4.4444,1.3201,13.398,5.2033,8.9533,0.58252,4.4444,1.3201,9.085,9.5238,17.160999,14.032,14.239,14.815,5.0242,3.8547,3.9216,11.465
11.311,7.1111,13.659,3.1562,-0.66007,10.809,5.2033,6.3768,-0.71197,3.1562,-0.66007,9.085,10.159,13.971,12.762,12.298,14.815,4.38,2.5908,2.6144,8.8889
5.624,2.6667,7.8049,-1.3527,-5.2805,4.3366,0.0,3.1562,-1.3592,-1.3527,-5.2805,3.2026,6.3492,8.8676,8.9524,7.767,9.6618,1.1594,0.06319,2.6144,5.0242
1.2006,0.7619,0.65041,-3.285,-5.2805,1.7476,-1.9512,1.2238,-0.71197,-3.285,-5.2805,0.58824,-1.2698,0.57416,0.06349,-0.64725,-0.64412,-1.4171,0.06319,-1.9608,1.1594
-2.5908,-4.3175,-4.5528,-2.6409,-5.2805,-0.19417,-5.2033,-0.06441,1.2298,-2.6409,-5.2805,-2.6797,-8.254,-8.9952,-6.2857,-10.356,-10.306,-0.77295,0.06319,-4.5752,-5.2818
7.5197,-1.1429,4.5528,1.2238,0.0,4.3366,-0.65041,3.8003,5.7605,1.2238,0.0,1.8954,-6.3492,-11.547,-1.2063,-9.7087,-6.4412,0.5153,1.9589,0.65359,-6.57
11.311,4.5714,14.309,-1.3527,-0.66007,4.9838,3.252,0.57971,4.466,-1.3527,-0.66007,5.1634,-5.7143,-10.909,1.3333,-5.8252,-0.64412,5.0242,1.327,0.65359,-9.1465
1.8325,5.2063,11.707,-3.285,-3.9604,-0.19417,1.9512,2.5121,1.2298,-3.285,-3.9604,2.549,-2.5397,-7.0813,3.2381,-1.9417,3.8647,9.533,-0.56872,3.268,-9.7907
-4.4866,1.3968,-2.6016,-4.5733,-7.2607,-5.3722,-5.2033,2.5121,-5.2427,-4.5733,-7.2607,-4.6405,0.0,-4.5295,3.2381,-2.589,2.5765,6.3124,-6.8878,1.9608,-11.079
-3.2227,-4.3175,-9.1057,-3.285,-4.6205,-6.0194,-7.1545,-1.3527,-4.5955,-3.285,-4.6205,-6.6013,1.9048,-1.3397,3.2381,-1.9417,1.2882,3.0918,-6.8878,1.3072,-7.8583
0.56872,-2.4127,-2.6016,0.57971,-0.66007,-0.84142,-1.9512,-0.06441,-0.06472,0.57971,-0.66007,-2.0261,5.7143,3.126,5.1429,0.64725,3.2206,3.0918,-0.56872,5.8824,-2.7053
-0.6951,5.8413,5.8537,-3.285,-1.3201,-3.4304,2.6016,-1.3527,1.2298,-3.285,-1.3201,-0.71895,4.4444,6.9537,2.6032,5.8252,5.7971,-0.77295,5.7504,1.3072,4.38
1.8325,14.095,16.26,-4.5733,-3.9604,-2.1359,5.8537,-1.3527,1.2298,-4.5733,-3.9604,1.8954,1.9048,10.781,-0.57143,12.945,9.6618,-5.9259,8.278,-5.8824,12.11
5.624,16.0,19.511999,-2.6409,-3.9604,2.3948,6.5041,-3.9291,-1.3592,-2.6409,-3.9604,3.8562,1.2698,13.333,-1.8413,15.534,10.306,-7.8583,8.278,-5.8824,14.686
-3.8547,9.6508,8.4553,-3.9291,-5.2805,0.45307,2.6016,-3.9291,-4.5955,-3.9291,-5.2805,0.58824,-1.9048,12.057,-8.1905,10.356,3.2206,-2.7053,4.4866,-5.8824,12.11
-0.06319,3.9365,1.3008,-1.3527,-2.6403,3.6893,2.6016,-2.6409,-3.9482,-1.3527,-2.6403,1.8954,-3.1746,10.144,-9.4603,5.178,-1.9324,-0.12882,1.327,-4.5752,9.533
4.9921,5.8413,1.9512,0.57971,1.3201,6.9256,6.5041,0.57971,-1.3592,0.57971,1.3201,5.817,-3.1746,7.5917,-4.381,1.9417,-3.2206,-0.77295,-0.56872,1.9608,8.2448
6.2559,3.3016,5.8537,3.1562,1.9802,10.162,5.2033,7.0209,1.2298,3.1562,1.9802,7.1242,-3.8095,5.0399,-1.8413,1.2945,-2.5765,3.0918,3.8547,0.65359,8.2448
7.5197,-1.1429,8.4553,-1.3527,-0.66007,4.3366,0.65041,1.868,-1.3592,-1.3527,-0.66007,3.2026,-2.5397,3.126,1.9683,0.64725,-0.64412,3.0918,3.8547,1.3072,5.6683
4.3602,0.12698,7.1545,-8.438,-7.2607,-1.4887,-3.9024,-5.8615,-3.301,-8.438,-7.2607,-2.0261,-0.63492,1.2121,5.1429,1.9417,1.9324,2.4477,-0.56872,3.268,1.8035
3.7283,-0.50794,3.9024,-2.6409,-6.6007,0.45307,-3.9024,1.868,-4.5955,-2.6409,-6.6007,-1.3725,0.63492,-2.6156,8.3175,1.9417,4.5089,3.0918,-1.8325,6.5359,-0.12882
13.207,-1.1429,0.65041,5.0886,1.3201,4.9838,1.9512,7.6651,-2.0065,5.0886,1.3201,3.2026,1.9048,-6.4434,12.127,-1.2945,4.5089,-0.12882,-5.624,7.8431,-4.6377
3.0964,2.6667,-8.4553,11.53,6.6007,6.2783,8.4553,12.174,-0.06472,11.53,6.6007,7.7778,2.5397,-10.909,7.6825,-5.178,0.64412,9.533,-3.7283,8.4967,-7.2142
2.4645,2.0317,-13.008,13.462,7.2607,10.809,10.407,14.106,1.2298,13.462,7.2607,9.085,2.5397,-13.461,5.1429,-8.4142,-2.5765,12.754,-1.2006,9.8039,-11.079
8.7836,5.2063,-5.2033,12.818,5.2805,13.398,11.707,10.886,3.1715,12.818,5.2805,11.046,4.4444,-12.823,7.0476,-5.8252,0.64412,9.533,-0.56872,7.8431,-13.011
-1.327,3.9365,-1.3008,8.3092,-1.3201,4.9838,2.6016,11.53,-2.6537,8.3092,-1.3201,3.2026,4.4444,-10.271,5.1429,-3.2362,2.5765,9.533,-3.7283,2.6144,-14.3
-0.6951,-1.1429,1.9512,3.8003,-6.6007,0.45307,-5.8537,10.242,-7.8317,3.8003,-6.6007,-3.3333,7.619,-2.6156,8.9524,0.0,7.0853,6.3124,-4.3602,5.8824,-9.1465
-0.6951,-6.2222,1.9512,-3.285,-9.2409,-6.6667,-12.358,2.5121,-9.7735,-3.285,-9.2409,-9.2157,6.3492,1.8501,6.4127,0.64725,6.4412,3.7359,-5.624,3.9216,-3.3494
-2.5908,-4.9524,1.3008,-7.7939,-10.561,-11.197,-13.659,-2.6409,-9.1262,-7.7939,-10.561,-13.137,1.9048,3.126,1.3333,0.64725,3.2206,-2.0612,-4.3602,1.3072,0.5153
-5.1185,3.3016,3.252,-8.438,-12.541,-12.492,-10.407,-5.8615,-9.7735,-8.438,-12.541,-11.83,-1.2698,5.0399,-3.1111,2.589,0.64412,-4.6377,0.6951,0.0,7.6006
-3.2227,-0.50794,3.252,-11.014,-15.842,-12.492,-12.358,-10.37,-11.715,-11.014,-15.842,-12.484,-3.1746,4.4019,-5.0159,0.0,-2.5765,-10.435,1.9589,1.9608,8.8889
-13.333,-10.032,-5.2033,-13.591,-18.482,-15.081,-17.561001,-9.7262,-15.599,-13.591,-18.482,-16.405001,-8.254,-0.70175,-13.27,-5.178,-10.306,-2.7053,-3.0964,0.0,4.38
-20.284,-12.571,-12.358,-10.37,-17.162001,-13.786,-19.511999,-3.9291,-16.246,-10.37,-17.162001,-16.405001,-12.063,-5.8054,-18.349001,-8.4142,-17.391001,4.38,-6.8878,1.3072,1.1594
-12.07,-14.476,-15.61,-5.8615,-11.881,-7.3139,-14.309,-4.5733,-13.657,-5.8615,-11.881,-11.176,-15.238,-11.547,-17.714001,-14.239,-22.544001,-0.12882,-11.311,1.9608,-4.6377
-7.0142,-12.571,-14.309,-0.70853,-3.9604,-1.4887,-4.5528,-1.3527,-5.89,-0.70853,-3.9604,-3.3333,-13.968,-14.099,-15.81,-17.476,-23.833,-0.77295,-8.7836,-0.65359,-7.2142
-4.4866,-6.8571,-13.659,1.2238,1.3201,1.1003,3.252,3.8003,-0.71197,1.2238,1.3201,1.2418,-5.7143,-10.909,-9.4603,-13.592,-16.747,-0.77295,-2.4645,1.9608,-4.6377
-7.0142,-3.6825,-14.959,0.57971,-0.66007,0.45307,1.3008,2.5121,-0.06472,0.57971,-0.66007,-2.0261,0.63492,-7.0813,-4.381,-7.767,-9.6618,-1.4171,-1.8325,0.65359,-5.2818
3.7283,1.3968,-5.2033,2.5121,-1.9802,3.0421,1.3008,4.4444,-3.9482,2.5121,-1.9802,-0.06536,8.254,-3.8915,7.6825,-3.2362,1.2882,-0.77295,-4.9921,5.8824,-6.57
13.207,-1.7778,5.2033,4.4444,-1.9802,4.9838,0.65041,8.3092,-5.2427,4.4444,-1.9802,3.8562,10.159,-2.6156,14.667,-1.9417,8.3736,5.6683,-7.5197,5.8824,-9.1465
19.525999,-1.7778,14.309,5.0886,-0.66007,10.809,5.2033,10.886,-3.9482,5.0886,-0.66007,9.7386,9.5238,-0.70175,17.841,0.0,12.882,8.2448,-7.5197,5.8824,-9.7907
31.532,8.381,24.065001,8.9533,3.3003,16.634001,13.008,10.886,1.2298,8.9533,3.3003,16.275,12.698,5.6778,24.190001,7.767,20.612,1.8035,-3.7283,11.111,-5.9259
20.158001,15.365,27.316999,8.3092,3.9604,16.634001,14.959,7.0209,1.2298,8.3092,3.9604,16.927999,10.159,8.2297,15.937,12.298,20.612,6.9565,-1.8325,6.5359,-2.0612
3.0964,15.365,22.114,3.8003,-1.3201,9.5146,8.4553,7.0209,-1.3592,3.8003,-1.3201,9.7386,3.1746,8.2297,3.873,14.887,15.459,8.8889,0.6951,0.0,1.8035
0.56872,12.19,12.358,-1.3527,-6.6007,-0.84142,-1.9512,2.5121,-3.301,-1.3527,-6.6007,-0.06536,-3.8095,6.9537,-1.8413,14.887,9.0177,-0.77295,4.4866,-5.2288,3.0918
-4.4866,9.0159,3.9024,-6.5056,-9.2409,-7.9612,-8.4553,-3.9291,-5.2427,-6.5056,-9.2409,-7.9085,-8.8889,3.126,-4.381,12.298,3.8647,-5.2818,6.3823,-5.2288,5.0242
-15.861,-3.0476,-8.4553,-8.438,-9.901,-14.434,-13.659,-8.438,-6.5372,-8.438,-9.901,-14.444,-16.507999,-4.5295,-13.905,1.2945,-9.0177,-10.435,2.5908,-13.072,4.38
-27.235001,-17.016001,-24.065001,-7.1498,-5.9406,-18.316999,-15.61,-11.014,-5.2427,-7.1498,-5.9406,-17.059,-23.492001,-14.099,-26.603001,-14.887,-27.052999,-13.011,-0.56872,-19.608,0.5153
-25.34,-22.094999,-31.870001,-2.6409,0.66007,-13.139,-11.707,-8.438,-1.3592,-2.6409,0.66007,-13.137,-22.857,-16.650999,-29.778,-23.948,-36.070999,-17.52,-0.56872,-15.686,0.5153
-28.499001,-27.174999,-37.723999,-0.70853,4.6205,-13.786,-11.707,-8.438,0.58252,-0.70853,4.6205,-13.137,-20.952,-17.927,-31.683001,-29.773001,-40.580002,-18.164,-3.7283,-18.301001,-0.77295
-27.867001,-24.635,-33.820999,-0.06441,1.9802,-14.434,-11.057,-7.7939,1.2298,-0.06441,1.9802,-13.137,-14.603,-17.289,-25.968,-29.773001,-34.783001,-11.723,-6.8878,-15.686,-6.57
-13.965,-17.016001,-20.813,-1.3527,-0.66007,-8.6084,-8.4553,-4.5733,-0.06472,-1.3527,-0.66007,-9.8693,-1.9048,-10.271,-8.8254,-18.77,-18.035,-4.6377,-2.4645,-6.5359,-6.57
-0.06319,-6.8571,-9.7561,-5.8615,-2.6403,-6.6667,-9.7561,-7.1498,-2.0065,-5.8615,-2.6403,-9.2157,13.333,1.2121,10.222,-3.2362,1.9324,-3.3494,-0.56872,5.2288,-2.0612
8.1517,0.7619,-0.65041,-3.9291,-3.3003,-4.0777,-9.7561,-5.2174,-3.9482,-3.9291,-3.3003,-8.5621,24.127001,10.781,21.650999,9.7087,16.747,-0.12882,0.6951,12.418,1.8035
14.471,3.3016,5.8537,0.57971,-2.6403,-0.19417,-7.8049,-0.70853,-3.9482,0.57971,-2.6403,-5.2941,27.302,16.523001,24.190001,16.827999,23.833,3.0918,1.9589,13.072,3.7359
11.311,4.5714,9.7561,2.5121,-0.66007,-0.19417,-3.9024,1.868,-5.2427,2.5121,-0.66007,-2.0261,25.396999,17.799,22.285999,19.417,26.409,3.0918,-1.2006,11.765,3.7359
14.471,9.6508,14.309,3.1562,0.0,1.7476,0.0,2.5121,-3.9482,3.1562,0.0,1.2418,23.492001,19.712999,22.921,22.006001,28.341,1.1594,0.6951,12.418,5.0242
8.1517,9.6508,13.659,4.4444,-0.66007,3.6893,2.6016,3.8003,-2.0065,4.4444,-0.66007,3.2026,17.143,15.885,15.937,18.77,23.188,7.6006,0.6951,9.8039,4.38
0.56872,5.2063,8.4553,5.0886,0.0,3.0421,2.6016,5.7327,-0.71197,5.0886,0.0,3.8562,8.254,8.8676,7.0476,11.003,12.882,8.2448,-1.2006,7.1895,1.8035
1.8325,-1.7778,0.65041,4.4444,2.6403,1.1003,1.9512,4.4444,-0.71197,4.4444,2.6403,1.8954,0.0,0.57416,0.69841,0.0,1.2882,-0.77295,-3.0964,5.2288,-0.77295
-4.4866,-5.5873,-7.8049,5.0886,2.6403,0.45307,0.0,3.8003,-1.3592,5.0886,2.6403,-1.3725,-8.254,-5.8054,-10.095,-8.4142,-10.306,2.4477,-0.56872,-2.6144,-1.4171
-7.6461,-11.937,-12.358,4.4444,0.66007,1.7476,-3.252,3.1562,-1.3592,4.4444,0.66007,-3.3333,-15.238,-9.6332,-18.983999,-12.298,-17.391001,1.8035,1.9589,-11.111,-1.4171
-12.07,-13.206,-13.659,1.2238,-0.66007,-2.1359,-3.252,-0.06441,-1.3592,1.2238,-0.66007,-3.3333,-18.413,-10.909,-24.063,-13.592,-20.612,-4.6377,-0.56872,-13.072,-3.9936
-12.701,-7.4921,-10.407,1.2238,2.6403,-3.4304,1.9512,-0.06441,1.877,1.2238,2.6403,-0.71895,-15.238,-8.9952,-21.524,-11.003,-16.747,-5.2818,-0.56872,-12.418,-1.4171
-4.4866,-3.6825,-7.1545,3.1562,3.9604,-0.84142,4.5528,-0.06441,3.1715,3.1562,3.9604,1.2418,-8.254,-5.1675,-10.73,-5.8252,-9.0177,-5.2818,0.6951,-5.8824,0.5153
-0.06319,-1.7778,-6.5041,-0.70853,1.3201,-5.3722,1.3008,-5.8615,1.877,-0.70853,1.3201,-2.0261,-0.63492,-0.70175,-0.57143,0.0,-1.2882,-7.2142,0.6951,-0.65359,3.0918
-5.7504,2.6667,-5.8537,-2.6409,0.0,-9.9029,-1.3008,-7.7939,0.58252,-2.6409,0.0,-5.2941,5.7143,3.126,2.6032,6.4725,4.5089,-4.6377,2.5908,-1.3072,5.6683
-0.6951,7.1111,0.0,-1.3527,-1.3201,-7.3139,-1.9512,-5.8615,-0.06472,-1.3527,-1.3201,-4.6405,12.063,8.2297,7.6825,14.239,11.594,-2.0612,7.6461,1.9608,8.8889
6.2559,7.746,7.1545,-0.06441,0.66007,-2.1359,0.0,-7.1498,-0.06472,-0.06441,0.66007,-0.71895,15.873,10.781,12.762,17.476,16.747,1.1594,7.0142,6.5359,10.821
4.9921,6.4762,11.057,-0.06441,1.3201,-2.7832,0.0,-6.5056,0.58252,-0.06441,1.3201,0.58824,17.778,10.781,15.302,15.534,18.035,2.4477,7.6461,8.4967,10.821
6.8878,7.746,11.707,0.57971,2.6403,-2.7832,1.3008,-3.285,1.2298,0.57971,2.6403,-0.71895,17.778,10.144,17.205999,12.945,17.391001,2.4477,7.6461,10.458,10.821
8.7836,4.5714,9.1057,1.868,1.9802,-3.4304,-0.65041,-0.06441,0.58252,1.868,1.9802,-2.0261,13.968,6.9537,14.667,7.767,13.527,4.38,1.9589,10.458,5.0242
13.207,3.3016,9.7561,5.0886,3.3003,3.6893,1.3008,2.5121,2.5243,5.0886,3.3003,3.2026,8.8889,2.488,10.857,3.8835,9.0177,3.0918,-0.56872,8.4967,-0.12882
8.7836,3.9365,6.5041,6.3768,5.2805,8.2201,3.252,7.0209,3.1715,6.3768,5.2805,5.1634,1.2698,-4.5295,4.5079,-3.2362,0.64412,3.7359,-3.7283,6.5359,-4.6377
1.8325,-1.7778,1.3008,7.0209,4.6205,5.6311,2.6016,7.0209,1.877,7.0209,4.6205,3.8562,-6.9841,-10.909,-4.381,-11.003,-8.3736,6.3124,-3.7283,0.65359,-8.5024
1.2006,-7.4921,0.0,5.0886,5.2805,2.3948,0.65041,4.4444,1.2298,5.0886,5.2805,1.8954,-13.333,-12.823,-10.095,-14.887,-13.527,5.0242,-3.7283,-4.5752,-9.7907
1.2006,-8.127,-1.9512,3.1562,3.9604,0.45307,0.0,1.868,-0.71197,3.1562,3.9604,1.2418,-16.507999,-12.823,-12.635,-15.534,-16.103001,-0.12882,-8.1517,-7.1895,-10.435
-3.8547,-8.127,-7.1545,5.0886,3.9604,1.7476,0.65041,-0.70853,-1.3592,5.0886,3.9604,2.549,-17.143,-9.6332,-17.079,-13.592,-17.391001,-2.7053,-6.8878,-11.111,-8.5024
-7.0142,-4.9524,-9.7561,8.9533,6.6007,6.2783,3.9024,4.4444,-0.06472,8.9533,6.6007,6.4706,-15.238,-5.8054,-17.079,-8.4142,-15.459,-0.12882,-5.624,-9.8039,-4.6377
-7.0142,-3.6825,-9.1057,8.3092,7.9208,5.6311,5.8537,6.3768,-0.71197,8.3092,7.9208,9.085,-12.698,-3.2536,-14.54,-5.8252,-11.594,2.4477,-5.624,-9.8039,-3.3494
1.8325,-2.4127,-2.6016,7.0209,4.6205,8.8673,6.5041,4.4444,-2.6537,7.0209,4.6205,10.392,-5.0794,3.126,-3.746,0.0,-2.5765,1.8035,-5.624,-2.6144,-1.4171
6.2559,2.0317,3.252,6.3768,3.9604,8.8673,5.8537,3.8003,-4.5955,6.3768,3.9604,10.392,3.1746,10.144,4.5079,7.1197,7.0853,1.8035,-1.2006,-0.65359,3.7359
11.311,-1.7778,7.1545,8.9533,3.9604,10.809,3.9024,5.7327,-3.301,8.9533,3.9604,11.046,5.7143,13.333,6.4127,9.7087,9.6618,1.8035,0.6951,-1.3072,6.9565
4.3602,-3.0476,5.8537,9.5974,6.6007,10.162,5.8537,5.0886,0.58252,9.5974,6.6007,11.699,5.7143,10.781,3.873,7.1197,7.0853,3.0918,1.327,-0.65359,5.6683
-3.8547,0.12698,1.9512,3.8003,5.9406,4.9838,5.8537,0.57971,3.1715,3.8003,5.9406,7.7778,5.7143,6.3158,1.9683,3.2362,3.8647,2.4477,2.5908,0.0,3.0918
0.56872,0.12698,0.65041,1.868,4.6205,3.0421,5.2033,-3.9291,3.8188,1.868,4.6205,5.1634,4.4444,2.488,1.9683,0.64725,2.5765,-0.12882,3.2227,1.3072,1.1594
-1.9589,0.7619,1.3008,2.5121,5.2805,-0.19417,4.5528,0.57971,7.055,2.5121,5.2805,3.2026,1.2698,-1.9777,2.6032,-2.589,1.9324,-0.77295,1.9589,1.3072,-3.3494
-1.327,1.3968,1.3008,1.868,4.6205,-2.1359,3.9024,0.57971,6.4078,1.868,4.6205,0.58824,-4.4444,-8.9952,0.69841,-7.1197,-0.64412,-2.7053,-1.8325,-1.3072,-8.5024
-1.327,3.9365,1.3008,3.1562,5.9406,0.45307,4.5528,-0.06441,7.7023,3.1562,5.9406,1.8954,-8.8889,-13.461,-3.746,-9.7087,-4.5089,-0.12882,-0.56872,-1.9608,-9.7907
-5.1185,3.9365,0.0,2.5121,7.2607,-0.84142,7.1545,0.57971,10.291,2.5121,7.2607,1.8954,-13.968,-14.737,-12.0,-9.7087,-9.6618,1.1594,1.9589,-7.8431,-8.5024
-3.8547,5.2063,0.0,-1.3527,5.2805,-2.7832,7.1545,-1.9968,10.291,-1.3527,5.2805,-0.06536,-17.143,-13.461,-16.444,-5.8252,-10.95,-5.9259,3.8547,-14.379,-5.2818
-8.91,8.381,-1.9512,-5.2174,2.6403,-7.3139,5.8537,-3.9291,8.3495,-5.2174,2.6403,-3.3333,-17.778,-9.6332,-17.714001,-1.9417,-10.95,-6.57,4.4866,-15.686,-1.4171
-8.278,7.746,-5.2033,-5.2174,0.66007,-9.2557,3.9024,-6.5056,7.7023,-5.2174,0.66007,-5.2941,-15.873,-5.1675,-15.81,0.0,-9.6618,-6.57,5.1185,-15.686,2.4477
-1.327,7.1111,-7.1545,-0.06441,1.9802,-3.4304,4.5528,-3.9291,7.7023,-0.06441,1.9802,-2.0261,-12.063,-0.70175,-10.73,1.2945,-9.0177,-8.5024,6.3823,-12.418,5.0242
-3.8547,6.4762,-8.4553,1.2238,3.3003,-4.0777,5.2033,-0.06441,7.7023,1.2238,3.3003,-1.3725,-8.254,1.2121,-9.4603,-0.64725,-10.306,-6.57,3.8547,-9.8039,6.9565
-5.7504,3.9365,-6.5041,-1.9968,3.3003,-6.6667,1.9512,-0.70853,5.7605,-1.9968,3.3003,-1.3725,-3.8095,2.488,-5.6508,-1.9417,-7.7295,-2.0612,4.4866,-5.2288,6.3124
1.8325,0.7619,-0.65041,-5.2174,-3.3003,-2.7832,-2.6016,-1.3527,0.58252,-5.2174,-3.3003,-2.0261,1.9048,5.0399,1.9683,0.64725,-1.9324,0.5153,4.4866,-1.3072,6.3124
2.4645,-1.7778,2.6016,-8.438,-9.901,-2.1359,-8.4553,-3.9291,-3.9482,-8.438,-9.901,-5.2941,5.0794,6.3158,5.7778,3.2362,2.5765,2.4477,3.2227,2.6144,8.2448
-0.6951,-1.7778,1.9512,-10.37,-8.5809,-6.0194,-8.4553,-7.1498,-4.5955,-10.37,-8.5809,-6.6013,6.9841,5.0399,7.0476,2.589,3.2206,1.8035,2.5908,5.8824,7.6006
4.9921,1.3968,1.9512,-2.6409,0.0,1.7476,1.3008,-3.9291,1.877,-2.6409,0.0,1.8954,8.254,2.488,8.9524,0.64725,2.5765,-2.0612,2.5908,7.8431,6.3124
1.8325,-1.1429,-0.65041,4.4444,7.9208,9.5146,7.8049,1.868,5.1133,4.4444,7.9208,9.7386,5.0794,-3.8915,1.9683,-4.5307,-2.5765,-0.12882,-0.56872,5.2288,0.5153
3.0964,0.12698,3.252,8.9533,12.541,14.045,10.407,2.5121,7.055,8.9533,12.541,14.314,5.7143,-5.8054,0.06349,-3.8835,-1.2882,0.5153,-1.2006,3.268,-3.3494
1.2006,7.746,9.7561,8.3092,11.881,10.162,11.057,2.5121,7.055,8.3092,11.881,13.66,8.8889,-2.6156,3.2381,2.589,5.153,-0.77295,3.2227,3.9216,-2.7053
1.2006,7.1111,13.659,5.0886,5.2805,4.9838,6.5041,2.5121,4.466,5.0886,5.2805,9.085,10.159,1.2121,5.7778,7.1197,10.306,1.1594,5.7504,1.3072,-0.77295
8.1517,6.4762,15.61,5.7327,3.3003,8.2201,4.5528,5.0886,3.1715,5.7327,3.3003,8.4314,12.063,4.4019,9.5873,10.356,14.171,5.0242,3.8547,3.9216,-0.12882
8.1517,4.5714,9.7561,6.3768,4.6205,8.2201,4.5528,8.3092,2.5243,6.3768,4.6205,7.1242,9.5238,3.126,8.9524,6.4725,10.306,5.0242,-0.56872,4.5752,-2.7053
8.1517,2.0317,3.9024,12.174,9.901,12.751,9.7561,10.886,5.1133,12.174,9.901,11.699,3.1746,-0.70175,3.873,-1.2945,1.2882,2.4477,-2.4645,1.3072,-5.2818
8.1517,4.5714,3.9024,13.462,13.201,15.34,15.61,12.818,7.7023,13.462,13.201,14.967,-3.8095,-5.1675,-1.8413,-5.178,-4.5089,2.4477,-3.0964,-1.9608,-7.8583
5.624,7.1111,7.8049,8.3092,9.2409,11.456,13.008,7.0209,6.4078,8.3092,9.2409,12.353,-5.7143,-3.8915,-2.4762,-2.589,-2.5765,1.1594,1.327,-1.3072,-5.9259
3.7283,11.556,11.707,2.5121,1.9802,4.3366,7.1545,4.4444,3.1715,2.5121,1.9802,5.817,-2.5397,0.57416,0.69841,4.5307,3.8647,3.0918,3.2227,-0.65359,-1.4171
6.2559,7.1111,13.008,-3.285,-3.9604,0.45307,0.0,1.2238,-2.0065,-3.285,-3.9604,-0.71895,1.2698,5.0399,5.7778,8.4142,10.306,5.0242,1.9589,0.65359,1.8035
6.2559,0.12698,8.4553,-7.1498,-6.6007,-3.4304,-3.9024,-3.9291,-3.9482,-7.1498,-6.6007,-5.2941,4.4444,7.5917,8.9524,6.4725,10.306,3.0918,1.9589,4.5752,3.0918
-0.6951,-0.50794,1.3008,-6.5056,-5.9406,-4.7249,-2.6016,-1.9968,-3.301,-6.5056,-5.9406,-5.2941,4.4444,6.3158,6.4127,3.2362,5.7971,2.4477,0.6951,5.2288,3.0918
-0.06319,0.7619,-1.3008,-3.285,0.0,1.1003,3.9024,1.2238,0.58252,-3.285,0.0,1.2418,0.63492,3.126,2.6032,0.64725,1.2882,-2.0612,-1.8325,1.9608,1.1594
6.8878,5.8413,3.9024,0.57971,6.6007,8.2201,10.407,2.5121,6.4078,0.57971,6.6007,9.085,-1.2698,1.2121,3.2381,2.589,1.2882,-3.9936,1.9589,1.3072,1.8035
9.4155,10.286,9.1057,0.57971,2.6403,8.8673,10.407,2.5121,5.1133,0.57971,2.6403,10.392,-1.9048,0.57416,3.2381,5.178,3.2206,-0.77295,3.8547,2.6144,2.4477
0.56872,7.746,6.5041,-0.70853,-3.3003,4.9838,5.2033,3.1562,1.877,-0.70853,-3.3003,6.4706,-5.7143,-1.9777,-1.8413,3.8835,1.2882,5.6683,2.5908,-1.3072,0.5153
1.2006,4.5714,6.5041,0.57971,0.66007,4.3366,5.2033,3.8003,3.8188,0.57971,0.66007,6.4706,-5.7143,-3.8915,-1.8413,2.589,1.9324,5.6683,3.8547,-1.9608,-0.12882
0.56872,2.0317,3.9024,-0.06441,2.6403,1.1003,3.252,1.2238,3.8188,-0.06441,2.6403,3.8562,-6.3492,-7.0813,-0.57143,-1.2945,0.0,2.4477,0.6951,0.0,-3.3494
0.56872,2.6667,3.252,2.5121,5.2805,1.7476,5.8537,2.5121,5.7605,2.5121,5.2805,5.1634,-5.0794,-7.0813,0.69841,-2.589,-1.2882,2.4477,-1.2006,1.3072,-4.6377
-1.9589,-1.7778,0.0,3.8003,6.6007,1.7476,3.9024,0.57971,5.7605,3.8003,6.6007,3.8562,-8.254,-8.9952,-3.746,-6.4725,-6.4412,-0.77295,-2.4645,-1.3072,-5.9259
-1.9589,-3.0476,1.9512,5.7327,9.2409,3.6893,3.252,1.868,3.8188,5.7327,9.2409,5.817,-10.159,-9.6332,-6.2857,-7.767,-8.3736,-3.3494,0.06319,-1.9608,-5.9259
-3.8547,-5.5873,-1.3008,3.1562,7.2607,3.6893,-0.65041,4.4444,2.5243,3.1562,7.2607,3.8562,-12.063,-10.271,-8.8254,-9.0615,-9.6618,-3.3494,-0.56872,-5.2288,-6.57
-7.6461,-5.5873,-6.5041,-0.06441,1.3201,-0.19417,-5.8537,3.1562,-0.71197,-0.06441,1.3201,-2.0261,-11.429,-9.6332,-10.73,-9.7087,-10.95,0.5153,-3.7283,-8.4967,-5.9259
-2.5908,-5.5873,-6.5041,-0.70853,-1.3201,-1.4887,-7.1545,-1.9968,-2.0065,-0.70853,-1.3201,-4.6405,-4.4444,-2.6156,-4.381,-4.5307,-5.7971,-2.7053,-2.4645,-2.6144,-1.4171
-7.0142,-4.9524,-9.7561,-1.9968,-2.6403,-9.2557,-8.4553,-6.5056,-2.0065,-1.9968,-2.6403,-8.5621,1.2698,4.4019,-2.4762,0.64725,-3.2206,-6.57,-1.8325,-3.268,3.7359
-13.965,-3.6825,-11.707,0.57971,-3.3003,-11.197,-11.057,-5.2174,-5.89,0.57971,-3.3003,-11.83,6.3492,9.5056,0.06349,4.5307,0.0,-1.4171,1.9589,0.0,8.2448
-5.1185,-4.3175,-9.7561,-2.6409,-3.3003,-7.9612,-12.358,-4.5733,-7.8317,-2.6409,-3.3003,-12.484,11.429,12.057,6.4127,6.4725,3.8647,1.1594,1.327,5.2288,10.177
3.7283,-4.3175,-6.5041,-0.70853,-3.3003,-4.7249,-9.1057,-2.6409,-6.5372,-0.70853,-3.3003,-8.5621,13.333,11.419,10.857,4.5307,6.4412,2.4477,0.06319,8.4967,6.9565
6.2559,-1.1429,-0.65041,2.5121,-2.6403,0.45307,-3.9024,0.57971,-4.5955,2.5121,-2.6403,-2.6797,12.698,8.8676,10.857,3.8835,7.0853,6.9565,-0.56872,8.4967,3.0918
4.9921,1.3968,1.3008,4.4444,0.66007,2.3948,-0.65041,1.2238,-2.6537,4.4444,0.66007,0.58824,10.159,6.3158,7.6825,2.589,5.7971,3.7359,-1.2006,5.8824,1.1594
-1.327,-1.7778,0.0,5.7327,3.9604,1.1003,-1.3008,0.57971,-0.71197,5.7327,3.9604,0.58824,5.7143,1.2121,2.6032,-1.2945,1.2882,-2.7053,-3.0964,5.2288,-3.9936
-3.2227,-4.9524,-0.65041,5.7327,8.5809,1.1003,0.65041,-0.70853,1.2298,5.7327,8.5809,2.549,-1.2698,-4.5295,-2.4762,-6.4725,-3.2206,-2.7053,-3.0964,1.3072,-7.2142
-0.06319,-3.6825,0.0,7.0209,7.2607,5.6311,2.6016,2.5121,3.8188,7.0209,7.2607,5.1634,-5.0794,-6.4434,-3.746,-7.1197,-3.8647,-0.12882,-1.2006,1.3072,-7.2142
-3.2227,-2.4127,-3.252,4.4444,3.3003,4.9838,2.6016,1.2238,1.2298,4.4444,3.3003,3.8562,-8.254,-8.3573,-6.9206,-8.4142,-6.4412,2.4477,-4.3602,0.0,-9.1465
-8.278,-1.7778,-6.5041,1.868,1.3201,0.45307,1.9512,-0.06441,1.2298,1.868,1.3201,1.2418,-9.5238,-8.3573,-7.5556,-7.767,-7.0853,-0.12882,-3.0964,0.0,-7.8583
-6.3823,-1.1429,-3.9024,2.5121,0.0,0.45307,1.9512,-0.06441,-0.06472,2.5121,0.0,1.2418,-8.8889,-5.8054,-7.5556,-3.8835,-4.5089,-2.0612,-0.56872,-5.8824,-3.3494
-7.6461,-2.4127,-5.2033,1.2238,3.9604,-0.84142,-1.3008,-1.9968,1.2298,1.2238,3.9604,-2.0261,-3.8095,-0.0638,-5.6508,0.64725,-1.9324,-1.4171,2.5908,-6.5359,1.8035
-7.6461,-2.4127,-9.7561,-1.9968,-0.66007,-4.7249,-5.2033,-3.285,-0.06472,-1.9968,-0.66007,-7.2549,1.9048,3.126,-0.57143,3.2362,0.0,-3.3494,2.5908,-2.6144,4.38
-1.9589,-3.0476,-11.057,-3.9291,-5.2805,-6.0194,-8.4553,-6.5056,-0.71197,-3.9291,-5.2805,-9.8693,7.619,6.9537,4.5079,6.4725,2.5765,-3.3494,1.327,0.65359,8.2448
0.56872,-3.0476,-10.407,-3.285,-1.3201,-6.6667,-6.5041,-5.2174,0.58252,-3.285,-1.3201,-9.2157,11.429,9.5056,9.5873,9.0615,5.7971,-5.2818,1.9589,3.9216,8.2448
4.9921,0.12698,-7.1545,-1.9968,1.3201,-4.7249,-1.9512,-5.2174,1.877,-1.9968,1.3201,-6.6013,13.968,10.781,13.397,9.7087,7.7295,-5.2818,3.2227,7.1895,6.9565
-3.2227,3.3016,-7.1545,-3.285,2.6403,-4.7249,-0.65041,-3.285,3.1715,-3.285,2.6403,-5.9477,12.063,9.5056,9.5873,8.4142,4.5089,2.4477,5.7504,9.8039,7.6006
-7.0142,2.0317,-7.8049,-6.5056,0.66007,-5.3722,-1.3008,-5.2174,1.877,-6.5056,0.66007,-6.6013,6.3492,4.4019,1.9683,2.589,-1.2882,5.0242,3.2227,3.268,5.0242
-1.9589,2.6667,-6.5041,-2.6409,-1.3201,-3.4304,0.0,-1.3527,1.2298,-2.6409,-1.3201,-3.3333,1.2698,-1.3397,-1.2063,-2.589,-4.5089,2.4477,-0.56872,0.65359,0.5153
-3.8547,1.3968,-6.5041,1.868,-0.66007,-0.84142,1.9512,3.8003,0.58252,1.868,-0.66007,-0.06536,-5.0794,-7.7193,-6.2857,-8.4142,-9.6618,2.4477,-1.8325,0.0,-4.6377
-0.06319,1.3968,-3.252,1.2238,0.66007,1.7476,4.5528,3.1562,1.877,1.2238,0.66007,3.2026,-11.429,-10.271,-8.1905,-9.7087,-10.95,0.5153,-1.2006,-3.268,-5.9259
3.7283,0.12698,1.3008,0.57971,1.9802,4.3366,5.2033,-0.06441,1.2298,0.57971,1.9802,5.817,-13.968,-10.909,-7.5556,-9.7087,-9.6618,1.8035,-0.56872,-3.9216,-5.9259
4.3602,-1.7778,1.3008,1.2238,-1.9802,5.6311,1.3008,1.2238,-0.71197,1.2238,-1.9802,5.1634,-13.968,-11.547,-6.2857,-9.7087,-8.3736,3.0918,-2.4645,-3.268,-7.2142
5.624,-0.50794,3.252,2.5121,-1.9802,6.9256,0.65041,4.4444,-1.3592,2.5121,-1.9802,6.4706,-8.254,-8.3573,-0.57143,-5.178,-3.8647,2.4477,-3.0964,4.5752,-5.9259
8.1517,2.0317,6.5041,2.5121,-2.6403,6.9256,0.65041,4.4444,-0.71197,2.5121,-2.6403,7.1242,-1.9048,-2.6156,3.2381,1.2945,1.9324,-0.12882,-1.2006,3.268,-3.3494
4.3602,4.5714,8.4553,1.2238,-1.3201,6.9256,0.65041,1.2238,-1.3592,1.2238,-1.3201,6.4706,4.4444,3.764,1.9683,7.1197,6.4412,3.7359,3.2227,0.65359,2.4477
1.8325,7.1111,8.4553,-1.9968,-5.2805,4.3366,-0.65041,-0.70853,-2.6537,-1.9968,-5.2805,2.549,9.5238,10.144,2.6032,12.945,9.6618,3.7359,5.1185,0.0,6.9565
0.56872,11.556,7.8049,-5.8615,-9.2409,-2.1359,-2.6016,-5.8615,-2.6537,-5.8615,-9.2409,-2.0261,12.698,15.247,4.5079,16.827999,12.238,-1.4171,7.0142,1.3072,13.398
-3.8547,4.5714,1.9512,-9.0821,-8.5809,-8.6084,-7.8049,-6.5056,-3.301,-9.0821,-8.5809,-7.9085,12.063,13.971,4.5079,12.945,10.306,-3.9936,5.7504,1.3072,12.754
-5.1185,-2.4127,-3.252,-10.37,-10.561,-15.728,-11.057,-9.7262,-3.301,-10.37,-10.561,-13.137,11.429,12.695,4.5079,8.4142,7.7295,-5.9259,3.8547,1.3072,10.177
-5.7504,-3.6825,-3.9024,-11.014,-7.9208,-13.786,-10.407,-11.014,-2.0065,-11.014,-7.9208,-13.137,8.254,8.8676,2.6032,3.8835,4.5089,-4.6377,1.327,1.3072,8.2448
-6.3823,-4.3175,-6.5041,-10.37,-5.9406,-9.9029,-9.1057,-6.5056,-1.3592,-10.37,-5.9406,-12.484,2.5397,3.126,-1.2063,-2.589,-1.9324,-5.2818,-1.8325,3.268,3.0918
-7.0142,-3.6825,-9.7561,-7.7939,-3.9604,-6.0194,-7.1545,-5.2174,-0.06472,-7.7939,-3.9604,-9.8693,-6.9841,-5.8054,-10.095,-9.0615,-11.594,-5.9259,-3.0964,-0.65359,-1.4171
-7.0142,-6.8571,-14.309,-6.5056,-2.6403,-7.9612,-6.5041,-3.285,0.58252,-6.5056,-2.6403,-9.8693,-15.873,-14.737,-17.714001,-15.534,-21.256001,-8.5024,-1.2006,-6.5359,-4.6377
-12.07,-8.127,-16.910999,-6.5056,-1.9802,-8.6084,-5.2033,-3.285,-0.06472,-6.5056,-1.9802,-9.8693,-21.587,-21.754,-20.889,-21.358999,-26.409,-2.0612,-1.8325,-9.1503,-9.1465
-10.174,-11.937,-11.057,-3.285,0.0,-4.7249,-2.6016,-0.70853,0.58252,-3.285,0.0,-6.6013,-20.952,-26.219999,-13.905,-25.243,-22.544001,5.6683,-6.8878,-4.5752,-14.944
-3.2227,-15.111,-3.9024,-0.70853,-0.66007,-2.1359,-1.3008,2.5121,-0.71197,-0.70853,-0.66007,-3.9869,-17.143,-25.582001,-5.6508,-25.243,-16.103001,5.0242,-9.4155,-1.9608,-16.232
-1.327,-12.571,-1.9512,-1.9968,-3.3003,-2.7832,-2.6016,1.868,-3.301,-1.9968,-3.3003,-4.6405,-13.968,-21.115999,-2.4762,-20.065001,-10.95,3.7359,-10.047,-1.3072,-15.588
-0.06319,-6.2222,0.65041,-1.3527,-1.9802,-0.19417,0.0,1.868,-2.0065,-1.3527,-1.9802,-0.71895,-9.5238,-13.461,-3.1111,-11.003,-6.4412,-1.4171,-6.2559,0.0,-10.435
-1.327,2.0317,3.9024,-3.285,-1.3201,3.0421,2.6016,1.868,1.877,-3.285,-1.3201,1.8954,-8.254,-5.8054,-8.1905,-1.9417,-3.8647,-2.0612,-2.4645,-6.5359,-5.2818
-0.6951,6.4762,5.8537,-3.285,-1.9802,3.6893,2.6016,0.57971,1.877,-3.285,-1.9802,2.549,-5.7143,0.57416,-8.1905,5.178,-0.64412,-2.7053,0.06319,-9.1503,-0.12882
6.2559,9.0159,7.8049,-1.3527,-2.6403,5.6311,1.3008,-1.9968,-0.06472,-1.3527,-2.6403,3.8562,-0.63492,5.0399,-0.57143,8.4142,3.8647,-3.9936,1.327,-5.8824,2.4477
10.679,9.6508,11.057,3.1562,0.66007,9.5146,5.8537,2.5121,1.877,3.1562,0.66007,8.4314,5.7143,8.8676,7.0476,10.356,9.6618,-2.0612,5.1185,-0.65359,5.0242
11.943,5.8413,10.407,3.1562,2.6403,9.5146,7.8049,2.5121,3.1715,3.1562,2.6403,9.7386,10.159,10.144,14.032,9.7087,12.238,-0.12882,5.7504,7.1895,4.38
6.2559,2.0317,5.8537,0.57971,1.3201,6.9256,5.8537,-1.9968,1.877,0.57971,1.3201,7.7778,11.429,7.5917,12.762,5.178,9.6618,5.6683,2.5908,8.4967,2.4477
-0.6951,0.7619,1.3008,-0.06441,-1.3201,2.3948,1.9512,1.2238,-2.0065,-0.06441,-1.3201,3.8562,12.698,6.3158,9.5873,4.5307,7.7295,8.8889,-1.2006,12.418,1.1594
-0.6951,0.7619,2.6016,2.5121,-0.66007,1.7476,0.0,5.0886,-3.9482,2.5121,-0.66007,3.8562,15.238,6.9537,9.5873,5.8252,7.7295,10.821,-3.0964,16.993,-0.12882
-0.06319,0.7619,7.1545,5.0886,1.9802,4.3366,1.9512,7.0209,-3.9482,5.0886,1.9802,7.7778,10.794,2.488,3.873,3.2362,3.8647,14.686,-5.624,16.34,-3.9936
1.2006,-0.50794,7.8049,7.0209,3.9604,6.2783,5.2033,7.0209,-1.3592,7.0209,3.9604,9.7386,0.63492,-6.4434,-3.1111,-3.8835,-3.2206,9.533,-8.7836,9.8039,-7.2142
-1.327,2.6667,5.8537,5.0886,5.2805,5.6311,7.1545,3.8003,1.2298,5.0886,5.2805,9.7386,-8.8889,-10.909,-8.8254,-8.4142,-9.0177,2.4477,-7.5197,1.3072,-9.1465
-4.4866,-2.4127,2.6016,-0.70853,1.9802,-0.84142,1.3008,-3.285,0.58252,-0.70853,1.9802,1.2418,-15.238,-12.185,-12.635,-9.7087,-11.594,-3.9936,-4.9921,-7.1895,-9.1465
-1.327,-6.2222,0.65041,-7.1498,-3.3003,-8.6084,-4.5528,-9.7262,-0.71197,-7.1498,-3.3003,-7.2549,-15.873,-8.3573,-9.4603,-5.178,-7.7295,-10.435,-3.0964,-10.458,-5.9259
5.624,-1.7778,3.9024,-8.438,-6.6007,-6.6667,-5.8537,-9.7262,-1.3592,-8.438,-6.6007,-8.5621,-7.619,-0.70175,0.69841,1.9417,1.2882,-12.367,-1.8325,-5.8824,-0.77295
1.2006,1.3968,3.9024,-9.0821,-5.2805,-5.3722,-3.9024,-3.9291,-3.301,-9.0821,-5.2805,-7.9085,0.63492,5.0399,3.873,5.8252,7.0853,-3.3494,-3.7283,-5.8824,1.1594
4.9921,0.7619,3.252,-7.1498,-3.3003,-2.1359,-3.9024,-0.70853,-3.301,-7.1498,-3.3003,-6.6013,8.8889,10.144,8.9524,5.8252,10.306,3.7359,-3.0964,-0.65359,2.4477
3.7283,-1.7778,0.65041,-7.7939,-6.6007,-4.7249,-6.5041,-1.3527,-6.5372,-7.7939,-6.6007,-8.5621,13.968,10.781,12.127,3.8835,9.6618,4.38,-4.9921,5.2288,3.0918
-0.6951,-3.6825,-2.6016,-9.0821,-7.9208,-9.2557,-9.7561,-1.9968,-8.479,-9.0821,-7.9208,-11.83,14.603,12.057,10.857,3.2362,9.0177,3.0918,-4.3602,5.2288,3.0918
-1.9589,-5.5873,-5.2033,-11.014,-11.221,-8.6084,-11.057,-4.5733,-9.7735,-11.014,-11.221,-13.137,13.333,10.144,7.6825,0.0,6.4412,-1.4171,-3.7283,3.9216,1.8035
-5.1185,-9.3968,-6.5041,-12.303,-9.2409,-6.6667,-10.407,-5.2174,-7.8317,-12.303,-9.2409,-10.523,9.5238,4.4019,3.2381,-4.5307,1.2882,-2.7053,-3.7283,2.6144,0.5153
-6.3823,-11.302,-5.2033,-7.7939,-6.6007,-4.7249,-7.8049,-3.285,-5.2427,-7.7939,-6.6007,-6.6013,3.8095,-1.3397,-0.57143,-8.4142,-2.5765,-3.9936,-3.7283,1.3072,-2.7053
-5.1185,-8.127,-2.6016,-1.9968,-4.6205,-0.84142,-3.9024,-1.9968,-2.6537,-1.9968,-4.6205,-2.6797,1.2698,-3.2536,-2.4762,-7.1197,-3.8647,-6.57,-2.4645,-1.3072,-2.0612
-1.9589,-1.7778,-1.3008,-0.06441,-3.3003,-0.19417,0.0,-5.2174,-2.0065,-0.06441,-3.3003,-0.06536,-0.63492,-0.0638,-5.6508,-1.2945,-2.5765,-5.9259,-2.4645,-5.8824,0.5153
-1.327,2.0317,0.65041,1.2238,1.3201,0.45307,2.6016,-2.6409,1.877,1.2238,1.3201,2.549,-1.2698,3.764,-5.6508,6.4725,1.2882,-5.2818,3.8547,-7.1895,5.6683
-5.1185,3.3016,0.65041,0.57971,0.0,0.45307,1.3008,0.57971,1.2298,0.57971,0.0,1.2418,-5.0794,3.764,-5.6508,8.4142,1.9324,-3.3494,5.1185,-7.1895,5.0242
-5.7504,0.7619,0.65041,0.57971,1.9802,0.45307,0.0,1.2238,0.58252,0.57971,1.9802,1.2418,-6.3492,2.488,-3.746,7.767,3.2206,-1.4171,3.2227,-7.8431,2.4477
1.2006,7.1111,4.5528,5.7327,8.5809,3.0421,5.2033,2.5121,5.1133,5.7327,8.5809,5.817,-4.4444,3.126,1.9683,10.356,6.4412,-3.9936,5.7504,-4.5752,4.38
4.3602,11.556,7.8049,8.9533,12.541,3.6893,10.407,1.2238,9.644,8.9533,12.541,8.4314,-5.0794,3.126,4.5079,11.65,7.0853,-4.6377,8.91,-2.6144,5.6683
3.0964,14.095,7.1545,10.242,13.201,4.9838,11.057,1.868,12.88,10.242,13.201,8.4314,-6.9841,3.126,1.9683,12.945,7.0853,-1.4171,12.07,-6.5359,7.6006
-1.327,14.73,3.252,7.0209,11.881,-0.19417,8.4553,3.1562,14.175,7.0209,11.881,3.8562,-7.619,3.126,-1.2063,11.65,5.153,-1.4171,11.438,-11.765,9.533
-1.9589,9.0159,-1.3008,1.868,9.2409,-6.0194,2.6016,-2.6409,10.939,1.868,9.2409,-1.3725,-5.7143,1.8501,-3.1111,5.8252,0.64412,-7.2142,13.333,-13.072,10.821
-3.8547,-0.50794,-6.5041,0.57971,5.9406,-7.9612,-1.3008,-6.5056,7.055,0.57971,5.9406,-4.6405,-3.8095,-0.0638,-6.9206,-3.2362,-5.153,-5.9259,8.278,-11.765,6.3124
-1.327,-5.5873,-8.4553,-3.9291,1.9802,-8.6084,-3.252,-6.5056,4.466,-3.9291,1.9802,-6.6013,0.63492,0.57416,-3.1111,-6.4725,-5.153,-5.9259,4.4866,-5.8824,2.4477
-3.8547,-3.0476,-7.1545,-4.5733,-1.9802,-7.3139,-3.252,-3.285,0.58252,-4.5733,-1.9802,-5.9477,5.0794,3.126,-0.57143,-3.8835,-1.9324,-2.7053,3.2227,-2.6144,3.0918
-3.8547,-1.1429,-4.5528,-3.285,-4.6205,-5.3722,-3.9024,-2.6409,-2.0065,-3.285,-4.6205,-5.2941,6.9841,6.9537,-0.57143,2.589,1.2882,-0.12882,1.327,-1.3072,4.38
-0.6951,2.0317,1.9512,-0.70853,1.3201,-0.84142,0.65041,-1.9968,3.8188,-0.70853,1.3201,-0.71895,9.5238,11.419,1.9683,10.356,7.0853,-3.9936,5.1185,2.6144,8.8889
3.7283,7.1111,8.4553,1.868,6.6007,5.6311,7.8049,-3.9291,10.291,1.868,6.6007,7.1242,8.254,10.781,0.69841,14.239,9.6618,-2.0612,6.3823,-0.65359,8.8889
4.9921,9.6508,11.057,1.868,9.2409,6.9256,11.707,-1.3527,8.9968,1.868,9.2409,10.392,6.9841,10.144,1.9683,14.887,10.95,-1.4171,6.3823,-1.3072,10.177
11.311,10.921,13.659,1.868,8.5809,7.5728,11.707,-1.9968,8.3495,1.868,8.5809,9.7386,6.9841,9.5056,8.9524,14.887,13.527,-0.77295,7.6461,4.5752,8.8889
8.7836,9.6508,11.057,-3.285,2.6403,2.3948,5.8537,-2.6409,4.466,-3.285,2.6403,3.8562,6.9841,8.8676,10.857,12.298,12.882,5.0242,7.0142,5.2288,6.3124
4.9921,9.6508,5.8537,-5.2174,-0.66007,-3.4304,1.3008,-1.9968,2.5243,-5.2174,-0.66007,-0.71895,5.0794,6.9537,10.222,11.003,11.594,6.3124,5.7504,6.5359,5.6683
10.679,9.6508,1.9512,-3.9291,-1.9802,-3.4304,0.0,-4.5733,3.1715,-3.9291,-1.9802,-2.0261,2.5397,5.0399,10.222,9.7087,9.0177,0.5153,6.3823,5.8824,6.9565
4.3602,0.7619,-3.9024,-1.9968,0.0,-4.0777,-1.3008,-3.285,4.466,-1.9968,0.0,-3.3333,-0.63492,2.488,5.1429,3.8835,3.2206,-0.77295,6.3823,-0.65359,5.6683
-5.1185,-3.6825,-5.8537,-0.06441,3.9604,-2.1359,-0.65041,-1.3527,6.4078,-0.06441,3.9604,-2.0261,-3.1746,-1.3397,-1.8413,-1.9417,-1.9324,2.4477,5.7504,-5.2288,3.0918
-7.0142,-1.1429,-2.6016,-1.3527,4.6205,-5.3722,1.3008,-3.9291,6.4078,-1.3527,4.6205,-1.3725,-4.4444,-4.5295,-5.6508,-5.8252,-4.5089,-0.12882,0.6951,-5.8824,-2.0612
-5.7504,2.6667,2.6016,-1.9968,5.2805,-7.3139,3.252,-5.8615,8.3495,-1.9968,5.2805,-1.3725,-2.5397,-3.8915,-5.0159,-3.2362,-2.5765,-3.9936,3.8547,-4.5752,-1.4171
-2.5908,5.2063,2.6016,-4.5733,3.9604,-7.9612,1.9512,-7.1498,7.055,-4.5733,3.9604,-3.3333,0.63492,-2.6156,-3.1111,-0.64725,0.0,-4.6377,4.4866,-3.268,-0.12882
4.3602,3.3016,2.6016,-6.5056,3.9604,-6.0194,-0.65041,-6.5056,7.055,-6.5056,3.9604,-4.6405,3.8095,-1.3397,2.6032,0.64725,2.5765,-6.57,3.2227,0.0,-0.12882
7.5197,-0.50794,2.6016,-3.9291,0.0,-2.1359,-2.6016,-5.2174,4.466,-3.9291,0.0,-2.6797,4.4444,-0.70175,3.873,0.0,1.9324,-2.0612,1.9589,1.9608,0.5153
10.047,-2.4127,2.6016,-2.6409,-2.6403,1.1003,-2.6016,-1.3527,1.877,-2.6409,-2.6403,-0.71895,4.4444,0.57416,5.1429,-1.2945,0.64412,-1.4171,-0.56872,6.5359,1.1594
6.2559,-4.9524,3.252,-7.1498,-3.3003,-1.4887,-0.65041,-3.285,2.5243,-7.1498,-3.3003,0.58824,5.0794,3.126,3.873,0.0,0.0,1.8035,-1.2006,4.5752,1.8035
-0.06319,-3.0476,2.6016,-8.438,-2.6403,-3.4304,0.65041,-2.6409,1.2298,-8.438,-2.6403,-0.06536,6.9841,5.6778,4.5079,3.2362,2.5765,5.0242,-2.4645,3.9216,3.0918
0.56872,2.6667,1.9512,-4.5733,-0.66007,0.45307,3.9024,-1.3527,1.2298,-4.5733,-0.66007,1.8954,12.063,10.144,9.5873,9.0615,7.7295,3.7359,1.327,7.1895,5.6683
3.0964,2.0317,0.0,-1.9968,-1.3201,2.3948,3.252,-1.3527,1.2298,-1.9968,-1.3201,2.549,15.238,12.057,12.127,9.7087,9.0177,1.8035,4.4866,8.4967,6.3124
5.624,2.0317,-0.65041,1.2238,0.66007,5.6311,3.9024,1.868,1.877,1.2238,0.66007,5.817,14.603,9.5056,12.762,6.4725,7.7295,3.7359,2.5908,9.1503,2.4477
13.839,2.6667,5.8537,6.3768,2.6403,10.162,7.1545,5.0886,2.5243,6.3768,2.6403,11.699,15.873,8.2297,17.205999,4.5307,10.306,4.38,0.6951,11.765,-2.0612
22.054001,5.8413,12.358,8.3092,5.2805,13.398,8.4553,4.4444,1.877,8.3092,5.2805,13.66,15.238,5.6778,19.746,3.8835,12.882,3.7359,-1.8325,13.725,-4.6377
10.679,3.3016,9.1057,5.0886,5.9406,8.2201,5.8537,3.8003,1.877,5.0886,5.9406,8.4314,8.8889,-0.70175,13.397,0.0,8.3736,6.9565,-1.8325,9.1503,-5.9259
2.4645,-0.50794,3.252,3.1562,2.6403,4.9838,2.6016,5.0886,-0.06472,3.1562,2.6403,5.817,0.0,-7.7193,4.5079,-4.5307,1.9324,6.3124,-4.3602,2.6144,-5.2818
13.207,2.6667,5.2033,4.4444,3.3003,9.5146,5.8537,2.5121,-0.06472,4.4444,3.3003,10.392,-3.1746,-7.7193,5.1429,-2.589,1.2882,3.0918,-1.8325,3.268,-3.3494
4.3602,0.12698,3.9024,4.4444,2.6403,7.5728,3.9024,3.8003,0.58252,4.4444,2.6403,9.085,-4.4444,-5.1675,1.3333,-1.9417,0.0,3.0918,-3.0964,2.6144,-2.7053
-2.5908,-1.7778,0.0,3.8003,-0.66007,3.0421,-0.65041,3.8003,-2.0065,3.8003,-0.66007,3.2026,-1.2698,1.2121,-0.57143,0.0,-0.64412,1.8035,-3.7283,1.3072,0.5153
-7.0142,-8.127,-7.1545,-1.3527,-7.2607,-4.7249,-9.7561,-0.06441,-7.1845,-1.3527,-7.2607,-7.2549,4.4444,6.3158,-0.57143,0.0,-1.9324,0.5153,-4.3602,4.5752,2.4477
-10.806,-10.667,-13.659,-6.5056,-9.2409,-9.2557,-13.659,-0.70853,-9.1262,-6.5056,-9.2409,-13.137,8.254,7.5917,-0.57143,-0.64725,-3.2206,-0.77295,-6.8878,6.5359,1.8035
-10.806,-15.111,-17.561001,-7.7939,-8.5809,-11.197,-16.26,-4.5733,-7.1845,-7.7939,-8.5809,-16.405001,11.429,6.9537,0.69841,-3.8835,-5.153,-4.6377,-6.8878,8.4967,0.5153
-13.333,-17.016001,-21.462999,-5.2174,-6.6007,-13.139,-14.309,-7.1498,-3.301,-5.2174,-6.6007,-15.752,9.5238,3.764,-3.746,-7.1197,-9.0177,-0.77295,-6.8878,3.9216,-1.4171
-17.125,-12.571,-29.268,-4.5733,-3.9604,-14.434,-11.707,-4.5733,-2.0065,-4.5733,-3.9604,-16.405001,4.4444,0.57416,-10.73,-9.7087,-14.171,-0.12882,-5.624,-1.3072,-2.7053
-13.965,-8.7619,-27.966999,-7.7939,-1.3201,-15.728,-9.7561,-5.8615,-0.71197,-7.7939,-1.3201,-16.405001,1.9048,-0.0638,-10.73,-7.1197,-12.238,-6.57,-1.8325,-1.9608,-2.0612
-7.0142,-2.4127,-14.959,-9.0821,-0.66007,-13.139,-6.5041,-7.7939,0.58252,-9.0821,-0.66007,-13.137,0.0,-0.0638,-8.1905,-1.9417,-7.0853,-4.6377,-1.2006,-3.268,-2.0612
0.56872,2.6667,-0.65041,-6.5056,-2.6403,-8.6084,-2.6016,-3.285,-0.71197,-6.5056,-2.6403,-7.9085,-3.1746,-1.9777,-3.746,0.0,-1.2882,-2.0612,-1.2006,-2.6144,-3.9936
5.624,5.8413,9.7561,-2.6409,-0.66007,-2.1359,1.9512,1.2238,-0.06472,-2.6409,-0.66007,-1.3725,-6.9841,-5.8054,-0.57143,-0.64725,1.9324,2.4477,-1.8325,-1.9608,-5.2818
7.5197,7.746,15.61,-0.06441,2.6403,1.7476,5.8537,3.1562,2.5243,-0.06441,2.6403,3.8562,-12.698,-12.185,0.69841,-3.8835,1.2882,3.7359,-1.2006,-1.3072,-7.2142
9.4155,7.746,20.163,1.868,3.3003,6.9256,9.1057,4.4444,3.8188,1.868,3.3003,9.085,-17.778,-17.289,-1.2063,-5.8252,0.64412,2.4477,-1.2006,-5.8824,-7.8583
11.311,9.6508,23.415001,3.8003,1.9802,8.2201,11.057,5.7327,2.5243,3.8003,1.9802,11.699,-17.143,-16.013,0.06349,-3.8835,2.5765,1.8035,-2.4645,-5.8824,-6.57
15.103,9.6508,22.764,3.1562,-0.66007,8.2201,11.057,2.5121,0.58252,3.1562,-0.66007,12.353,-9.5238,-9.6332,4.5079,-1.2945,5.153,2.4477,-1.2006,-1.3072,-3.3494
13.207,4.5714,18.211,1.2238,-2.6403,10.809,8.4553,3.8003,-1.3592,1.2238,-2.6403,10.392,-3.1746,-3.2536,5.7778,-1.2945,5.153,6.3124,0.06319,2.6144,-0.12882
8.7836,2.0317,13.008,3.1562,0.66007,12.104,7.1545,8.3092,-1.3592,3.1562,0.66007,9.7386,2.5397,3.126,5.1429,0.0,4.5089,7.6006,0.06319,3.9216,3.0918
8.7836,3.9365,8.4553,7.0209,1.9802,14.045,6.5041,8.9533,-2.0065,7.0209,1.9802,10.392,6.9841,8.8676,5.1429,3.8835,3.8647,5.6683,0.06319,7.1895,7.6006
0.56872,-1.1429,-1.9512,5.7327,1.3201,11.456,3.252,5.7327,-4.5955,5.7327,1.3201,5.817,5.7143,8.8676,-2.4762,1.9417,-3.2206,3.7359,-3.7283,1.3072,3.7359
-2.5908,-4.9524,-11.707,5.7327,1.9802,8.8673,2.6016,6.3768,-2.0065,5.7327,1.9802,4.5098,3.8095,8.2297,-6.2857,-0.64725,-8.3736,3.7359,-3.0964,-0.65359,3.0918
4.9921,-1.1429,-9.7561,9.5974,6.6007,12.751,6.5041,8.3092,1.2298,9.5974,6.6007,8.4314,1.9048,6.9537,-3.746,0.64725,-7.0853,-1.4171,1.9589,1.9608,3.7359
1.2006,2.0317,-4.5528,12.174,10.561,15.34,8.4553,11.53,1.877,12.174,10.561,11.046,-5.7143,0.57416,-6.9206,-1.9417,-8.3736,4.38,0.6951,-1.9608,-0.12882
10.047,2.6667,4.5528,14.106,11.881,18.576,11.057,12.174,4.466,14.106,11.881,14.314,-7.619,-5.1675,-0.57143,-4.5307,-5.153,8.2448,0.06319,1.3072,-3.9936
8.7836,1.3968,7.1545,14.106,11.221,16.634001,9.1057,13.462,3.8188,14.106,11.221,13.007,-8.8889,-11.547,5.1429,-9.0615,-3.2206,9.533,-1.2006,5.8824,-7.8583
6.2559,2.6667,5.8537,12.174,11.221,14.045,8.4553,12.818,2.5243,12.174,11.221,11.046,-13.333,-20.478001,3.2381,-13.592,-5.153,13.398,-3.0964,3.268,-13.011
10.047,1.3968,5.2033,10.886,7.2607,11.456,6.5041,9.5974,3.1715,10.886,7.2607,8.4314,-15.238,-26.858,3.2381,-14.887,-5.153,10.821,-4.9921,2.6144,-16.232
1.2006,-1.7778,1.3008,7.0209,3.9604,4.3366,1.3008,8.9533,1.2298,7.0209,3.9604,2.549,-16.507999,-26.219999,0.06349,-12.945,-5.153,7.6006,-5.624,-0.65359,-15.588
-5.1185,-3.0476,-0.65041,1.2238,0.66007,-3.4304,-3.252,1.868,0.58252,1.2238,0.66007,-3.3333,-14.603,-17.927,-4.381,-8.4142,-3.8647,-1.4171,-4.9921,-5.2288,-11.079
-10.806,-1.7778,-4.5528,-5.8615,-3.9604,-10.55,-8.4553,-6.5056,-2.0065,-5.8615,-3.9604,-9.8693,-8.8889,-2.6156,-9.4603,-1.2945,-3.2206,-5.2818,0.6951,-7.1895,-0.12882
-14.597,-4.3175,-13.659,-12.947,-9.901,-20.906,-14.309,-15.523,-5.89,-12.947,-9.901,-17.059,-2.5397,8.8676,-12.0,0.64725,-4.5089,-11.723,1.327,-5.8824,4.38
-14.597,-5.5873,-18.211,-12.947,-14.521,-16.375,-15.61,-12.947,-6.5372,-12.947,-14.521,-17.059,2.5397,15.247,-12.635,0.64725,-6.4412,-10.435,1.327,-7.1895,7.6006
-22.18,-8.7619,-22.764,-12.303,-15.842,-15.081,-16.26,-9.0821,-9.1262,-12.303,-15.842,-16.405001,2.5397,15.247,-17.079,-4.5307,-11.594,-4.6377,-2.4645,-10.458,6.9565
-15.861,-13.206,-18.862,-11.014,-12.541,-13.139,-14.309,-9.7262,-5.89,-11.014,-12.541,-13.791,5.0794,15.247,-14.54,-5.178,-10.95,-5.9259,-1.8325,-7.8431,5.6683
-7.0142,-7.4921,-7.1545,-8.438,-9.901,-9.2557,-7.1545,-7.1498,-2.0065,-8.438,-9.901,-7.9085,11.429,20.351,-5.6508,3.2362,-1.2882,-5.9259,3.2227,-1.9608,10.177
-3.8547,2.6667,1.9512,-8.438,-7.9208,-7.3139,-1.9512,-7.7939,-2.6537,-8.438,-7.9208,-4.6405,14.603,22.903,1.3333,12.298,8.3736,-5.9259,3.8547,1.3072,13.398
0.56872,10.286,7.8049,-5.2174,-3.9604,-2.7832,3.252,-8.438,-0.71197,-5.2174,-3.9604,0.58824,15.238,21.627001,7.0476,18.77,14.815,-5.2818,6.3823,3.9216,13.398
8.1517,14.095,11.057,1.2238,0.66007,4.9838,7.8049,-3.9291,3.1715,1.2238,0.66007,7.1242,12.698,17.160999,10.222,19.417,16.103001,-3.3494,9.5419,8.4967,10.177
6.2559,14.73,12.358,7.6651,5.2805,10.162,13.659,3.1562,5.7605,7.6651,5.2805,13.007,6.9841,7.5917,7.6825,13.592,12.882,4.38,8.91,6.5359,5.6683
7.5197,14.095,15.61,12.818,10.561,15.34,18.211,9.5974,8.9968,12.818,10.561,18.235001,3.1746,-1.9777,8.3175,6.4725,10.306,10.177,5.7504,5.2288,-0.77295
11.943,9.0159,16.26,14.106,15.182,15.987,17.561001,10.242,9.644,14.106,15.182,20.195999,1.2698,-8.3573,11.492,1.9417,9.6618,8.2448,2.5908,6.5359,-6.57
15.735,4.5714,13.008,13.462,13.201,17.282,14.309,11.53,8.3495,13.462,13.201,18.889,0.63492,-11.547,12.127,-1.2945,7.7295,8.2448,-0.56872,7.1895,-9.7907
6.2559,0.12698,3.252,12.818,9.901,14.045,10.407,11.53,6.4078,12.818,9.901,14.967,-3.8095,-16.013,5.1429,-8.4142,-1.2882,8.2448,-3.0964,3.268,-11.723
-0.6951,-3.0476,-4.5528,12.818,8.5809,11.456,6.5041,12.174,5.1133,12.818,8.5809,10.392,-8.254,-19.202999,-1.2063,-12.945,-9.6618,1.8035,-3.0964,1.3072,-10.435
-2.5908,-4.3175,-9.7561,10.242,6.6007,8.8673,1.3008,11.53,2.5243,10.242,6.6007,4.5098,-12.698,-18.565001,-10.095,-14.239,-16.103001,1.8035,-1.2006,-5.2288,-8.5024
-3.2227,-6.8571,-10.407,3.1562,0.0,3.6893,-5.2033,4.4444,-1.3592,3.1562,0.0,-2.0261,-12.063,-11.547,-13.27,-11.003,-16.103001,3.0918,0.6951,-7.8431,-3.9936
-7.6461,-3.6825,-9.1057,-3.285,-7.9208,-4.0777,-9.7561,-0.06441,-6.5372,-3.285,-7.9208,-7.2549,-8.8889,-4.5295,-12.0,-5.8252,-12.238,1.1594,-1.2006,-6.5359,-0.77295
-12.07,-8.127,-13.008,-6.5056,-12.541,-9.2557,-15.61,-4.5733,-11.068,-6.5056,-12.541,-14.444,-7.619,-0.70175,-10.73,-3.2362,-9.6618,-0.77295,-6.2559,-6.5359,-0.77295
-11.438,-12.571,-17.561001,-10.37,-13.201,-13.786,-19.511999,-6.5056,-12.362,-10.37,-13.201,-19.673,-3.1746,4.4019,-5.6508,0.64725,-5.7971,-3.9936,-2.4645,-3.9216,3.7359
-9.5419,-9.3968,-14.309,-10.37,-13.861,-15.728,-16.26,-4.5733,-10.421,-10.37,-13.861,-19.673,0.63492,7.5917,1.3333,2.589,-0.64412,-3.9936,1.9589,0.65359,6.3124
-5.1185,-7.4921,-7.1545,-7.7939,-11.881,-13.786,-12.358,-4.5733,-7.1845,-7.7939,-11.881,-14.444,1.9048,6.3158,3.873,1.2945,1.9324,-3.3494,-1.2006,2.6144,4.38
-1.327,-6.8571,-1.3008,-4.5733,-8.5809,-8.6084,-9.1057,-6.5056,-6.5372,-4.5733,-8.5809,-9.2157,0.63492,1.8501,3.873,-1.9417,1.2882,-1.4171,-1.8325,1.3072,0.5153
0.56872,-4.9524,1.3008,-1.3527,-4.6205,-6.6667,-6.5041,-3.285,-3.301,-1.3527,-4.6205,-5.9477,-1.2698,-3.2536,3.2381,-5.178,0.0,-4.6377,-1.2006,1.3072,-2.7053
0.56872,-0.50794,1.3008,-0.70853,0.66007,-4.7249,-3.252,-3.285,-1.3592,-0.70853,0.66007,-3.3333,-3.1746,-7.0813,0.69841,-6.4725,-1.9324,-4.6377,-2.4645,1.9608,-5.9259
-7.6461,-3.0476,-3.9024,1.2238,0.66007,-3.4304,-5.8537,0.57971,-2.0065,1.2238,0.66007,-3.3333,-6.9841,-12.185,-6.2857,-11.003,-7.0853,3.0918,-3.7283,-1.3072,-9.7907
-7.6461,-4.9524,-5.2033,1.2238,-1.3201,-2.1359,-5.2033,3.8003,-0.71197,1.2238,-1.3201,-3.3333,-8.8889,-14.737,-6.2857,-11.65,-7.7295,5.0242,-1.8325,-2.6144,-11.723
0.56872,-0.50794,-1.3008,-1.9968,-7.9208,-1.4887,-5.2033,-0.06441,-2.6537,-1.9968,-7.9208,-3.9869,-8.254,-14.099,-3.1111,-9.0615,-5.153,1.8035,-0.56872,-3.9216,-10.435
1.2006,-0.50794,0.65041,-5.2174,-11.221,-3.4304,-7.1545,-3.285,-5.2427,-5.2174,-11.221,-6.6013,-5.7143,-10.271,0.06349,-5.8252,-2.5765,-0.77295,-2.4645,0.0,-7.8583
1.2006,-2.4127,0.0,-5.8615,-11.881,-2.7832,-10.407,-2.6409,-7.1845,-5.8615,-11.881,-9.2157,-4.4444,-4.5295,-1.8413,-1.9417,-1.2882,-0.12882,-1.2006,-1.9608,-1.4171
-3.2227,-1.1429,-3.252,-7.1498,-13.201,-6.0194,-13.659,-3.285,-12.362,-7.1498,-13.201,-12.484,-4.4444,-0.70175,-6.2857,0.0,-3.2206,0.5153,-3.0964,-4.5752,3.0918
-0.6951,-1.1429,-1.9512,-7.7939,-14.521,-6.0194,-11.057,-3.285,-11.715,-7.7939,-14.521,-10.523,-3.8095,4.4019,-6.2857,3.2362,-3.2206,-9.7907,-4.3602,-3.268,5.6683
-8.278,-1.1429,-5.8537,-6.5056,-17.162001,-4.0777,-7.8049,-1.3527,-9.1262,-6.5056,-17.162001,-9.2157,-3.8095,8.8676,-8.8254,6.4725,-3.2206,-5.2818,0.6951,-5.8824,8.8889
-5.7504,-3.0476,-8.4553,-4.5733,-15.182,-2.7832,-5.2033,-0.70853,-8.479,-4.5733,-15.182,-7.2549,-1.2698,11.419,-4.381,6.4725,-1.9324,0.5153,1.9589,-2.6144,8.8889
1.8325,-3.6825,-5.8537,-1.3527,-8.5809,0.45307,-3.252,3.1562,-7.1845,-1.3527,-8.5809,-3.9869,3.8095,11.419,5.7778,5.8252,1.9324,0.5153,-2.4645,5.8824,8.2448
7.5197,-3.0476,1.3008,1.868,-3.9604,5.6311,1.3008,7.6651,-4.5955,1.868,-3.9604,1.8954,8.8889,10.144,11.492,3.8835,5.7971,5.0242,-3.0964,9.1503,6.3124
10.679,-3.0476,6.5041,2.5121,0.0,8.2201,5.8537,7.6651,-2.6537,2.5121,0.0,7.1242,8.8889,5.6778,11.492,0.0,5.7971,6.3124,-5.624,6.5359,-0.12882
7.5197,0.12698,10.407,7.6651,5.2805,12.104,11.057,11.53,-0.06472,7.6651,5.2805,13.007,6.3492,-0.0638,7.6825,-4.5307,3.2206,8.2448,-6.2559,5.2288,-5.2818
15.103,5.8413,14.959,10.242,9.901,18.576,15.61,9.5974,3.1715,10.242,9.901,18.889,3.8095,-5.8054,5.1429,-7.1197,0.64412,6.3124,-2.4645,4.5752,-7.2142
10.679,6.4762,14.309,12.174,11.221,17.282,16.26,10.886,7.055,12.174,11.221,19.542,-1.2698,-10.909,0.69841,-8.4142,-1.9324,3.0918,0.6951,1.3072,-9.1465
-1.9589,4.5714,7.1545,7.0209,7.2607,8.2201,9.7561,9.5974,7.055,7.0209,7.2607,11.699,-6.9841,-12.185,-5.6508,-5.178,-3.8647,3.7359,1.327,-3.268,-7.8583
-0.06319,5.8413,6.5041,1.868,3.3003,1.7476,4.5528,0.57971,5.1133,1.868,3.3003,5.1634,-10.794,-9.6332,-5.6508,3.2362,0.0,2.4477,3.2227,-5.8824,-3.9936
-2.5908,5.8413,4.5528,-3.285,-0.66007,-4.0777,-1.9512,-2.6409,1.877,-3.285,-0.66007,-1.3725,-12.698,-7.7193,-6.9206,7.1197,1.9324,-0.12882,4.4866,-9.1503,-0.77295
-3.8547,3.9365,1.9512,-5.8615,-4.6205,-7.3139,-5.8537,-4.5733,-2.0065,-5.8615,-4.6205,-5.2941,-9.5238,-2.6156,-5.0159,8.4142,1.9324,-2.0612,6.3823,-6.5359,5.0242
-6.3823,-2.4127,-3.252,-6.5056,-9.901,-9.9029,-12.358,-7.1498,-6.5372,-6.5056,-9.901,-10.523,-4.4444,1.2121,-3.1111,5.8252,0.64412,-3.9936,3.2227,-2.6144,6.3124
-7.6461,-4.9524,-7.8049,-9.7262,-13.861,-13.139,-17.561001,-9.0821,-11.715,-9.7262,-13.861,-15.752,1.2698,3.764,-1.2063,1.9417,-0.64412,-4.6377,-1.8325,0.0,3.7359
-5.1185,-10.032,-8.4553,-11.659,-17.162001,-13.786,-19.511999,-8.438,-14.304,-11.659,-17.162001,-17.712,6.9841,6.9537,3.2381,0.0,0.64412,-3.3494,-6.8878,3.9216,3.7359
0.56872,-11.937,-6.5041,-9.7262,-12.541,-10.55,-14.309,-7.7939,-11.715,-9.7262,-12.541,-13.791,12.063,8.8676,7.6825,-0.64725,2.5765,-2.0612,-6.2559,7.1895,3.0918
11.311,-6.2222,1.9512,-3.285,-4.6205,-3.4304,-3.252,-6.5056,-4.5955,-3.285,-4.6205,-4.6405,15.238,10.144,15.302,0.64725,7.0853,-6.57,-2.4645,14.379,3.7359
7.5197,-1.1429,6.5041,1.2238,-2.6403,4.3366,4.5528,-2.6409,-0.71197,1.2238,-2.6403,2.549,11.429,8.2297,7.6825,1.9417,6.4412,-0.12882,-1.2006,7.1895,4.38
-7.6461,3.3016,6.5041,3.1562,3.3003,4.9838,9.1057,1.868,2.5243,3.1562,3.3003,6.4706,4.4444,5.0399,-5.6508,2.589,1.9324,3.0918,0.6951,-2.6144,2.4477
-7.6461,8.381,9.7561,6.3768,8.5809,8.2201,13.008,-0.06441,7.055,6.3768,8.5809,9.7386,-0.63492,-0.0638,-8.8254,3.2362,1.2882,-1.4171,2.5908,-4.5752,-0.12882
-1.9589,9.6508,9.7561,8.9533,10.561,8.8673,14.309,2.5121,8.9968,8.9533,10.561,11.046,-3.1746,-5.1675,-5.6508,1.2945,0.0,-1.4171,2.5908,-3.9216,-3.3494
6.2559,12.825,9.1057,9.5974,11.221,8.8673,13.659,5.7327,8.3495,9.5974,11.221,11.046,-5.0794,-7.7193,0.69841,0.64725,1.2882,0.5153,-0.56872,-1.3072,-5.2818
8.1517,7.1111,6.5041,7.0209,11.221,6.9256,10.407,4.4444,7.055,7.0209,11.221,9.085,-5.0794,-5.1675,3.873,1.2945,2.5765,3.0918,1.327,0.65359,-4.6377
11.311,0.7619,3.9024,3.8003,6.6007,4.3366,4.5528,4.4444,3.1715,3.8003,6.6007,5.1634,-1.2698,-0.70175,7.0476,2.589,4.5089,3.0918,1.9589,3.9216,-3.3494
8.1517,-2.4127,1.9512,1.2238,-0.66007,3.0421,-1.9512,4.4444,-5.2427,1.2238,-0.66007,1.8954,4.4444,5.0399,7.6825,4.5307,5.153,10.177,-3.7283,8.4967,-3.3494
8.1517,-4.3175,1.3008,-0.06441,-3.3003,4.9838,-7.1545,8.3092,-11.715,-0.06441,-3.3003,-0.06536,8.8889,9.5056,7.6825,5.8252,5.7971,14.686,-8.1517,13.072,-3.3494
11.311,-6.2222,1.9512,-3.9291,-7.2607,1.7476,-9.7561,2.5121,-14.951,-3.9291,-7.2607,-3.9869,13.968,13.333,11.492,5.8252,8.3736,12.11,-10.047,16.993,-2.0612
4.3602,-7.4921,0.0,-6.5056,-11.881,-4.0777,-11.707,0.57971,-15.599,-6.5056,-11.881,-8.5621,17.778,15.885,12.762,5.8252,10.306,13.398,-10.679,16.34,0.5153
-0.06319,-3.6825,0.65041,-9.0821,-12.541,-7.9612,-9.7561,-0.06441,-13.657,-9.0821,-12.541,-9.8693,18.413,15.885,12.762,6.4725,11.594,8.8889,-8.7836,14.379,1.8035
4.9921,-3.6825,1.9512,-7.1498,-7.2607,-6.0194,-6.5041,-1.9968,-7.8317,-7.1498,-7.2607,-5.9477,15.873,12.695,11.492,6.4725,10.95,0.5153,-2.4645,9.8039,4.38
-4.4866,-4.9524,-0.65041,-7.1498,-3.3003,-6.0194,-5.2033,-5.2174,-4.5955,-7.1498,-3.3003,-4.6405,6.3492,6.3158,2.6032,1.9417,3.8647,-4.6377,1.327,4.5752,4.38
-11.438,-0.50794,-2.6016,-5.8615,-3.9604,-6.6667,-2.6016,-7.7939,-1.3592,-5.8615,-3.9604,-3.9869,-3.1746,0.57416,-9.4603,-0.64725,-3.8647,-8.5024,1.9589,-5.8824,3.7359
-12.07,3.3016,-1.3008,-2.6409,-2.6403,-4.0777,0.0,-6.5056,1.2298,-2.6409,-2.6403,-2.0261,-7.619,-1.9777,-15.175,-0.64725,-7.0853,-8.5024,4.4866,-11.111,3.7359
-10.174,3.9365,0.65041,-1.9968,0.66007,-2.1359,1.3008,-1.9968,1.877,-1.9968,0.66007,-0.71895,-8.8889,-5.1675,-12.635,-3.2362,-8.3736,-5.9259,2.5908,-7.8431,-0.12882
-2.5908,2.0317,2.6016,-1.3527,2.6403,-1.4887,0.65041,-3.285,2.5243,-1.3527,2.6403,-1.3725,-6.9841,-6.4434,-5.0159,-5.178,-6.4412,-6.57,1.327,-3.9216,-2.0612
3.7283,0.7619,3.252,-0.70853,1.3201,-0.84142,0.0,-2.6409,2.5243,-0.70853,1.3201,-2.0261,-4.4444,-5.1675,0.69841,-5.178,-3.2206,-3.3494,-1.2006,-3.9216,-2.7053
5.624,5.2063,5.2033,-0.06441,-0.66007,-0.19417,1.9512,-0.70853,3.8188,-0.06441,-0.66007,-0.06536,-0.63492,0.57416,6.4127,0.0,2.5765,-0.12882,1.9589,-3.268,-0.12882
10.679,3.9365,6.5041,3.1562,5.2805,4.9838,6.5041,-0.70853,8.9968,3.1562,5.2805,3.8562,3.8095,7.5917,11.492,5.8252,8.3736,-2.0612,6.3823,-1.3072,3.0918
7.5197,2.6667,6.5041,5.7327,8.5809,4.3366,7.1545,2.5121,10.291,5.7327,8.5809,5.1634,5.0794,9.5056,11.492,8.4142,10.306,-2.0612,5.7504,-1.3072,3.0918
7.5197,8.381,7.8049,5.0886,11.221,3.0421,9.1057,3.1562,9.644,5.0886,11.221,5.817,6.3492,11.419,9.5873,12.945,12.882,-1.4171,7.0142,-5.8824,5.6683
10.679,10.286,8.4553,5.7327,13.201,4.9838,10.407,1.2238,10.291,5.7327,13.201,7.1242,8.254,15.247,8.9524,16.827999,14.171,-2.0612,10.174,-6.5359,10.821
4.9921,9.6508,6.5041,5.7327,10.561,3.6893,9.7561,3.8003,9.644,5.7327,10.561,7.1242,7.619,14.609,5.1429,15.534,12.238,-2.0612,8.91,-4.5752,10.177
-3.2227,5.8413,0.65041,2.5121,3.9604,1.7476,4.5528,-0.06441,4.466,2.5121,3.9604,3.2026,5.0794,11.419,-0.57143,11.003,7.0853,-0.12882,5.7504,-4.5752,8.8889
-4.4866,6.4762,-4.5528,-0.70853,1.9802,-0.84142,2.6016,-1.3527,3.1715,-0.70853,1.9802,-0.06536,1.2698,5.0399,-4.381,4.5307,0.0,-5.9259,6.3823,-3.268,6.9565
-10.806,0.7619,-9.1057,-1.3527,3.9604,-3.4304,0.0,-3.285,5.7605,-1.3527,3.9604,-2.6797,-4.4444,-3.2536,-12.635,-3.2362,-9.0177,-5.2818,5.1185,-7.1895,4.38
-11.438,-0.50794,-8.4553,0.57971,7.9208,-1.4887,1.9512,-3.9291,8.3495,0.57971,7.9208,-0.06536,-8.8889,-10.271,-17.079,-8.4142,-14.171,-3.3494,4.4866,-9.1503,1.8035
-5.1185,1.3968,-3.9024,4.4444,11.221,3.6893,5.8537,-1.3527,8.9968,4.4444,11.221,5.817,-9.5238,-14.737,-13.27,-11.003,-14.815,-3.9936,5.7504,-3.9216,0.5153
-1.9589,0.7619,-2.6016,4.4444,9.2409,5.6311,7.1545,0.57971,9.644,4.4444,9.2409,7.7778,-12.063,-18.565001,-10.73,-14.239,-16.103001,-1.4171,3.2227,-5.2288,-3.3494
3.7283,0.12698,-0.65041,0.57971,7.9208,4.9838,7.1545,-0.06441,8.3495,0.57971,7.9208,7.1242,-11.429,-18.565001,-6.2857,-13.592,-12.882,-1.4171,0.06319,-5.8824,-7.2142
3.7283,2.0317,1.9512,-0.06441,5.9406,1.7476,5.2033,-0.06441,7.7023,-0.06441,5.9406,3.8562,-5.7143,-12.185,0.69841,-5.8252,-4.5089,-0.77295,0.6951,0.0,-4.6377
-0.6951,2.6667,0.0,-2.6409,0.66007,-4.7249,-1.3008,-2.6409,3.8188,-2.6409,0.66007,-1.3725,-1.2698,-3.8915,3.2381,1.9417,2.5765,1.1594,2.5908,0.0,-0.12882
-2.5908,3.3016,-3.252,-5.8615,-1.3201,-8.6084,-5.2033,-5.8615,2.5243,-5.8615,-1.3201,-5.9477,3.1746,3.764,3.873,7.767,6.4412,-0.77295,3.8547,0.65359,3.0918
-3.8547,6.4762,-7.1545,-2.6409,4.6205,-8.6084,-1.3008,-5.2174,4.466,-2.6409,4.6205,-3.9869,4.4444,8.8676,0.69841,9.7087,5.7971,-5.2818,5.1185,-0.65359,5.0242
-5.1185,3.3016,-9.1057,5.0886,9.2409,-3.4304,5.2033,-1.3527,8.9968,5.0886,9.2409,3.2026,0.63492,8.2297,-6.2857,4.5307,0.0,-6.57,3.2227,-4.5752,3.7359
-2.5908,2.6667,-2.6016,12.818,14.521,6.2783,13.659,5.7327,11.586,12.818,14.521,12.353,-1.9048,6.3158,-8.1905,0.0,-2.5765,-4.6377,4.4866,-5.2288,3.0918
-1.9589,0.7619,3.9024,13.462,17.162001,8.8673,14.959,4.4444,10.291,13.462,17.162001,14.314,-5.7143,3.764,-9.4603,-2.589,-3.2206,-2.7053,3.8547,-9.1503,1.8035
1.2006,1.3968,13.008,14.75,17.162001,11.456,14.959,5.0886,8.9968,14.75,17.162001,16.275,-5.0794,2.488,-5.0159,0.64725,0.64412,-0.12882,3.2227,-7.8431,2.4477
6.2559,6.4762,20.163,12.818,13.861,11.456,13.659,3.8003,8.3495,12.818,13.861,16.275,-1.9048,3.126,1.9683,5.8252,5.7971,0.5153,3.8547,-2.6144,4.38
14.471,7.1111,21.462999,7.0209,10.561,10.809,10.407,-0.06441,6.4078,7.0209,10.561,14.314,1.9048,2.488,7.6825,7.767,8.3736,0.5153,4.4866,0.65359,5.6683
17.629999,7.746,15.61,3.1562,5.9406,9.5146,6.5041,-2.6409,3.8188,3.1562,5.9406,9.085,5.7143,1.2121,12.127,6.4725,8.3736,-0.77295,5.1185,3.268,6.3124
5.624,1.3968,1.9512,-1.3527,-1.9802,-0.84142,-1.3008,-2.6409,0.58252,-1.3527,-1.9802,-1.3725,6.9841,-0.0638,9.5873,3.2362,3.8647,0.5153,3.8547,3.9216,5.0242
-1.327,-4.9524,-8.4553,-5.2174,-7.2607,-7.9612,-7.8049,-3.9291,-2.0065,-5.2174,-7.2607,-8.5621,8.8889,-0.0638,7.6825,1.2945,1.2882,-2.0612,0.06319,5.8824,5.0242
-1.9589,-5.5873,-11.707,-7.1498,-7.9208,-9.2557,-11.707,-5.8615,-5.89,-7.1498,-7.9208,-12.484,10.794,1.2121,7.0476,0.64725,1.2882,-0.77295,-1.8325,7.1895,3.7359
-5.7504,-3.6825,-9.7561,-5.8615,-5.9406,-9.2557,-10.407,-3.9291,-4.5955,-5.8615,-5.9406,-11.83,8.254,3.126,0.06349,1.2945,0.64412,1.8035,0.06319,1.3072,1.8035
-0.6951,-1.1429,-5.8537,-3.9291,-1.9802,-7.3139,-5.8537,-4.5733,0.58252,-3.9291,-1.9802,-7.9085,5.7143,3.764,-2.4762,0.64725,-0.64412,-2.0612,1.327,-0.65359,0.5153
3.7283,4.5714,-0.65041,-0.06441,5.9406,-2.7832,1.3008,-5.2174,6.4078,-0.06441,5.9406,-2.6797,3.8095,4.4019,-2.4762,0.0,0.0,-2.7053,0.6951,-0.65359,-0.77295
-1.327,3.3016,1.3008,1.2238,7.9208,-2.1359,3.252,-2.6409,8.9968,1.2238,7.9208,-0.71895,1.9048,5.0399,-2.4762,-0.64725,1.2882,-0.12882,0.6951,-1.3072,-2.0612
-1.9589,-0.50794,0.65041,1.868,8.5809,-3.4304,3.9024,-0.70853,8.9968,1.868,8.5809,-0.71895,3.8095,5.6778,1.3333,-0.64725,1.9324,0.5153,0.06319,0.65359,-2.7053
-0.6951,-1.7778,-1.9512,3.1562,8.5809,-3.4304,2.6016,1.2238,7.7023,3.1562,8.5809,-0.71895,3.8095,3.764,3.2381,-0.64725,1.2882,2.4477,3.8547,1.9608,-1.4171
-3.2227,-3.6825,-4.5528,3.1562,6.6007,-1.4887,1.3008,2.5121,4.466,3.1562,6.6007,-0.06536,-0.63492,-1.9777,0.06349,-4.5307,-3.8647,5.0242,1.9589,1.9608,-4.6377
3.7283,-2.4127,-2.6016,3.1562,4.6205,1.1003,1.9512,1.2238,3.1715,3.1562,4.6205,1.8954,-3.1746,-6.4434,0.69841,-6.4725,-7.0853,-0.77295,-1.2006,5.8824,-6.57
2.4645,-1.1429,-1.3008,3.1562,4.6205,4.3366,4.5528,4.4444,2.5243,3.1562,4.6205,3.8562,-8.254,-12.185,-5.6508,-9.7087,-12.238,4.38,-3.0964,0.65359,-7.2142
-5.1185,0.7619,-2.6016,1.868,3.9604,0.45307,5.2033,1.2238,2.5243,1.868,3.9604,2.549,-10.794,-14.737,-12.0,-11.65,-15.459,4.38,-5.624,-4.5752,-7.2142
-8.278,-1.1429,-5.8537,-0.70853,3.9604,-4.7249,2.6016,-3.285,0.58252,-0.70853,3.9604,-0.06536,-8.8889,-14.737,-10.73,-11.003,-13.527,-0.12882,-3.7283,-3.9216,-5.2818
-4.4866,-6.2222,-9.7561,-3.285,1.3201,-4.0777,-1.3008,-4.5733,-0.71197,-3.285,1.3201,-3.3333,-4.4444,-12.185,-5.6508,-8.4142,-9.0177,-0.12882,-3.0964,-1.9608,-4.6377
-0.6951,-6.2222,-9.1057,-3.9291,-1.9802,-4.0777,-3.9024,-0.70853,-2.6537,-3.9291,-1.9802,-5.2941,0.0,-7.7193,0.69841,-3.8835,-3.2206,0.5153,-5.624,2.6144,-3.9936
-5.7504,-6.2222,-8.4553,-0.06441,-2.6403,-2.1359,-6.5041,5.7327,-4.5955,-0.06441,-2.6403,-5.2941,-3.1746,-6.4434,-4.381,-2.589,-5.153,2.4477,-5.624,0.0,-2.0612
-7.6461,-3.6825,-3.9024,3.8003,0.66007,2.3948,-3.252,7.6651,-2.0065,3.8003,0.66007,-1.3725,-8.8889,-6.4434,-11.365,-2.589,-8.3736,-0.77295,-4.3602,-4.5752,-1.4171
-1.327,1.3968,3.9024,2.5121,1.9802,2.3948,1.3008,5.0886,2.5243,2.5121,1.9802,1.2418,-8.8889,-4.5295,-10.095,0.0,-6.4412,-4.6377,-0.56872,-6.5359,1.1594
-2.5908,2.6667,5.8537,-0.70853,-1.9802,-1.4887,0.65041,4.4444,1.2298,-0.70853,-1.9802,-2.0261,-6.9841,-4.5295,-5.6508,-1.2945,-3.2206,3.7359,1.327,-4.5752,1.1594
-5.7504,3.3016,0.65041,-2.6409,-4.6205,-7.9612,-3.252,1.868,-2.0065,-2.6409,-4.6205,-7.2549,-5.0794,-7.7193,-0.57143,-3.8835,-3.2206,6.9565,1.327,1.3072,-1.4171
-2.5908,-4.9524,-10.407,-5.2174,-6.6007,-11.197,-9.7561,-0.70853,-2.0065,-5.2174,-6.6007,-13.137,-3.1746,-10.909,3.2381,-8.4142,-4.5089,3.7359,-3.0964,3.268,-6.57
-1.9589,-13.841,-20.813,-2.6409,-4.6205,-6.6667,-12.358,1.2238,-2.6537,-2.6409,-4.6205,-13.791,-0.63492,-14.099,3.873,-16.181,-9.6618,5.6683,-8.1517,5.8824,-11.723
2.4645,-15.111,-18.862,5.0886,2.6403,1.1003,-7.8049,1.868,-0.71197,5.0886,2.6403,-7.2549,1.2698,-14.099,1.9683,-18.77,-12.238,2.4477,-8.7836,5.2288,-13.011
0.56872,-9.3968,-10.407,6.3768,7.2607,3.6893,-1.3008,-1.3527,1.877,6.3768,7.2607,-0.71895,3.8095,-8.9952,0.69841,-12.298,-9.6618,-0.77295,-4.9921,6.5359,-9.1465
-8.278,-4.3175,-3.252,1.868,5.9406,-2.1359,-0.65041,-1.9968,2.5243,1.868,5.9406,-1.3725,5.0794,-1.9777,-2.4762,-1.2945,-3.2206,-0.12882,-2.4645,0.0,-3.3494
-6.3823,0.7619,3.252,-3.285,-0.66007,-4.7249,-2.6016,-3.285,-2.0065,-3.285,-0.66007,-3.3333,8.254,6.3158,0.69841,10.356,5.153,-3.3494,-1.8325,-1.9608,2.4477
3.7283,9.0159,11.707,-3.285,-1.3201,-0.84142,0.65041,-4.5733,-2.6537,-3.285,-1.3201,0.58824,13.968,14.609,9.5873,20.712,14.815,-2.0612,4.4866,4.5752,10.177
4.9921,12.19,16.910999,1.2238,0.0,2.3948,4.5528,-2.6409,-1.3592,1.2238,0.0,5.1634,14.603,18.437,10.222,24.594999,19.323999,2.4477,7.0142,3.9216,14.042
6.2559,11.556,17.561001,3.1562,0.0,6.9256,5.2033,-0.70853,-0.06472,3.1562,0.0,7.7778,10.794,15.885,8.3175,23.301001,18.035,-0.12882,7.0142,2.6144,13.398
11.943,14.73,19.511999,5.7327,7.2607,11.456,10.407,4.4444,2.5243,5.7327,7.2607,13.007,8.254,13.333,8.9524,21.358999,16.747,-2.7053,7.6461,3.268,12.754
11.943,15.365,16.910999,8.3092,10.561,14.045,13.008,4.4444,5.7605,8.3092,10.561,15.621,5.0794,10.144,7.0476,16.827999,12.238,-2.0612,7.0142,2.6144,10.177
8.7836,10.286,11.707,10.242,9.901,13.398,12.358,3.8003,6.4078,10.242,9.901,14.967,0.63492,5.0399,4.5079,10.356,7.0853,3.7359,3.8547,0.0,5.6683
6.2559,5.8413,5.2033,11.53,8.5809,14.045,9.7561,7.0209,5.1133,11.53,8.5809,13.007,-4.4444,-1.3397,2.6032,3.8835,1.9324,7.6006,2.5908,0.65359,0.5153
8.1517,8.381,0.0,12.174,10.561,12.104,10.407,8.3092,6.4078,12.174,10.561,12.353,-3.1746,-3.2536,7.0476,1.9417,1.9324,5.0242,3.8547,4.5752,1.1594
10.047,6.4762,-2.6016,12.174,16.502001,11.456,12.358,7.0209,12.233,12.174,16.502001,13.007,-1.9048,-5.8054,8.9524,-1.9417,1.2882,6.3124,3.2227,5.8824,-2.0612
10.679,2.6667,1.3008,10.242,15.842,12.104,13.659,5.0886,14.822,10.242,15.842,14.314,0.0,-7.7193,10.222,-7.1197,1.9324,6.3124,4.4866,5.2288,-4.6377
13.839,3.3016,12.358,8.9533,14.521,12.751,16.910999,3.1562,12.233,8.9533,14.521,18.235001,4.4444,-5.1675,11.492,-7.1197,5.153,3.0918,3.2227,5.2288,-3.3494
11.943,5.2063,20.813,7.6651,11.881,12.751,17.561001,-0.06441,10.291,7.6651,11.881,19.542,7.619,0.57416,11.492,-1.9417,8.3736,-0.12882,0.6951,5.8824,-1.4171
12.575,7.1111,25.365999,8.3092,11.221,10.162,18.211,-1.3527,8.3495,8.3092,11.221,19.542,11.429,8.8676,11.492,6.4725,12.882,-2.0612,3.8547,2.6144,3.7359
7.5197,10.286,23.415001,3.1562,9.2409,6.2783,14.309,-3.285,5.7605,3.1562,9.2409,14.967,14.603,18.437,10.222,16.827999,17.391001,-2.0612,7.0142,1.9608,10.177
4.3602,12.19,18.862,-0.70853,3.9604,3.6893,9.1057,-8.438,1.877,-0.70853,3.9604,8.4314,15.238,24.816999,8.3175,24.594999,19.323999,-4.6377,7.0142,1.9608,14.686
-5.7504,13.46,10.407,-3.285,-1.3201,-2.7832,1.3008,-6.5056,-1.3592,-3.285,-1.3201,0.58824,11.429,24.816999,2.6032,24.594999,15.459,-5.9259,6.3823,-1.3072,14.686
-2.5908,9.0159,5.8537,-3.285,-3.3003,-4.0777,-2.6016,-5.8615,-2.0065,-3.285,-3.3003,-2.0261,8.8889,22.903,1.3333,22.006001,11.594,-9.1465,6.3823,-0.65359,15.33
-11.438,3.9365,-3.252,-5.8615,-4.6205,-6.6667,-7.1545,-5.8615,-3.301,-5.8615,-4.6205,-5.9477,3.1746,19.712999,-8.8254,16.827999,3.2206,-5.9259,7.6461,-5.2288,12.754
-20.284,2.6667,-9.1057,-7.1498,-5.2805,-8.6084,-7.1545,-4.5733,-3.301,-7.1498,-5.2805,-7.9085,-2.5397,14.609,-18.983999,12.298,-4.5089,-4.6377,7.0142,-7.1895,10.177
