C3,C4,Cz,F1,F2,F3,F4,F7,F8,Fp1,Fp2,Fz,O1,O2,P3,P4,Pz,T3,T4,T5,T6
6.1927,2.0415,7.2195,-0.06536,1.3201,-0.26016,3.9024,-1.3592,3.8374,-0.06536,1.3201,4.6434,6.9841,1.2063,10.921,0.64412,6.5056,19.129999,-6.2222,5.2545,-0.77295
4.297,-4.9761,0.71545,-2.6797,-3.3003,0.39024,0.65041,-0.06472,0.58537,-2.6797,-3.3003,1.99,4.4444,-7.6825,5.2063,-7.7295,-0.57971,-13.076,-3.0476,2.6273,-10.435
9.9842,-0.51037,6.5691,-0.06536,2.6403,6.8943,5.2033,3.8188,4.4878,-0.06536,2.6403,6.6335,8.8889,-6.4127,7.746,-5.153,1.9968,-25.313999,-1.1429,3.9409,-9.7907
5.5608,2.6794,7.2195,3.2026,4.6205,8.1951,5.8537,5.1133,7.0894,3.2026,4.6205,8.6235,11.429,-4.5079,5.8413,-2.5765,2.6409,19.129999,3.3016,8.5386,-1.4171
-2.0221,0.12759,1.3659,-0.06536,1.9802,4.2927,1.3008,0.58252,1.8862,-0.06536,1.9802,5.3068,8.254,-4.5079,-0.50794,-4.5089,-1.868,30.080999,1.3968,7.8818,-1.4171
-5.1817,-7.5279,-7.0894,-5.2941,-2.6403,1.0407,-3.252,-3.301,-4.6179,-5.2941,-2.6403,0.66335,3.1746,-8.9524,-4.9524,-11.594,-8.9533,-0.83736,3.3016,3.2841,-5.9259
-1.3902,-11.356,-10.341,-4.6405,-5.9406,-0.26016,-4.5528,-0.71197,-6.5691,-4.6405,-5.9406,-0.66335,1.9048,-14.032,-4.9524,-16.747,-13.462,-16.940001,-0.50794,2.6273,-11.723
-0.12638,-8.1659,-9.6911,-5.9477,-5.2805,-3.5122,-5.2033,-2.0065,-4.6179,-5.9477,-5.2805,-2.6534,2.5397,-13.397,-4.3175,-14.815,-13.462,-0.19324,-1.7778,7.8818,-7.2142
-5.8136,-8.1659,-13.593,-12.484,-10.561,-8.7154,-8.4553,-7.1845,-5.9187,-12.484,-10.561,-7.2968,1.9048,-11.492,-6.2222,-11.594,-13.462,6.8921,-4.9524,5.9113,-2.0612
-2.654,-5.614,-12.293,-8.5621,-15.842,-6.1138,-6.5041,-3.9482,-4.6179,-8.5621,-15.842,-5.3068,5.0794,-7.0476,-1.1429,-5.7971,-6.3768,4.9597,-8.7619,5.9113,-0.12882
4.9289,3.3174,-5.1382,-2.0261,-11.221,1.6911,-0.65041,2.5243,1.8862,-2.0261,-11.221,0.66335,10.159,1.2063,7.746,4.5089,4.5733,12.045,9.0159,10.509,5.6683
0.50553,-4.9761,-9.0407,-7.2549,-8.5809,-3.5122,-5.8537,-2.6537,-3.3171,-7.2549,-8.5809,-4.6434,1.2698,-3.873,2.6667,-0.64412,0.06441,3.6715,3.3016,0.65681,0.5153
1.1374,-6.89,-7.7398,-9.8693,-4.6205,-4.1626,-5.2033,-3.9482,-3.9675,-9.8693,-4.6205,-5.3068,-4.4444,-5.1429,2.0317,-1.2882,-0.57971,-3.4138,-9.3968,-7.225,-1.4171
3.0332,1.4035,-1.8862,-6.6013,-5.9406,0.39024,-1.3008,-2.0065,-0.06504,-6.6013,-5.9406,-1.3267,-2.5397,1.8413,6.4762,7.7295,7.7939,-3.4138,3.9365,-3.2841,6.9565
1.1374,4.5933,-0.58537,-4.6405,-4.6205,1.0407,0.0,-3.9482,1.2358,-4.6405,-4.6205,1.3267,-3.8095,3.1111,5.2063,9.6618,9.0821,3.0274,8.381,-1.9704,10.177
1.7694,7.7831,2.6667,-2.0261,0.66007,1.6911,1.3008,-3.301,4.4878,-2.0261,0.66007,3.3167,-3.8095,1.8413,3.3016,8.3736,7.1498,0.45089,5.8413,-1.3136,8.8889
3.0332,9.059,4.6179,-4.6405,-5.2805,-0.26016,0.0,-5.2427,3.187,-4.6405,-5.2805,1.99,-0.63492,1.8413,4.5714,8.3736,6.5056,-0.83736,5.8413,1.3136,8.2448
8.0885,5.2313,4.6179,-5.9477,-8.5809,-0.26016,-4.5528,-3.301,-0.71545,-5.9477,-8.5809,-0.66335,3.1746,5.0159,7.746,7.0853,7.7939,-13.076,-3.6825,3.2841,1.1594
9.9842,2.0415,2.0163,-4.6405,-12.541,1.6911,-5.2033,1.2298,-1.3659,-4.6405,-12.541,-1.3267,5.0794,5.6508,8.381,5.7971,7.7939,-5.3462,-2.4127,5.9113,-2.7053
9.3523,5.2313,5.9187,2.549,-1.9802,8.8455,1.9512,7.7023,3.8374,2.549,-1.9802,5.3068,8.254,6.2857,9.0159,7.0853,9.7262,10.757,6.4762,10.509,1.8035
0.50553,0.76555,2.0163,1.2418,1.3201,5.5935,-1.9512,3.8188,1.2358,1.2418,1.3201,2.6534,1.9048,-2.6032,0.7619,-1.9324,1.3527,16.554001,2.0317,4.5977,-5.2818
1.7694,-1.1483,0.06504,1.8954,-0.66007,2.9919,-4.5528,3.1715,-0.71545,1.8954,-0.66007,0.0,6.3492,-5.7778,2.0317,-5.7971,-1.2238,3.0274,-15.111,6.5681,-5.9259
6.8246,-4.3381,-3.187,3.8562,0.0,2.9919,-3.9024,5.7605,1.8862,3.8562,0.0,-1.3267,10.794,-7.0476,4.5714,-8.3736,-2.5121,-1.4815,-15.746,11.166,-3.9936
2.4013,-9.4418,-9.0407,2.549,-1.3201,1.6911,-4.5528,3.8188,1.8862,2.549,-1.3201,-3.9801,6.9841,-10.222,0.12698,-12.238,-7.0209,4.9597,-6.8571,5.9113,-5.9259
-1.3902,-9.4418,-10.341,1.8954,-0.66007,1.6911,-3.252,2.5243,3.187,1.8954,-0.66007,-3.3167,3.8095,-9.5873,-4.3175,-12.882,-8.3092,-3.4138,-1.1429,0.65681,-8.5024
0.50553,-4.9761,-7.0894,5.1634,0.0,4.9431,0.65041,5.1133,9.0407,5.1634,0.0,0.0,3.8095,-3.873,-3.0476,-9.0177,-5.7327,-16.296,5.8413,1.3136,-5.2818
-2.0221,-4.3381,-7.0894,4.5098,3.9604,4.2927,1.3008,3.1715,9.6911,4.5098,3.9604,-0.66335,0.0,-1.9683,-4.3175,-7.0853,-5.7327,1.7391,4.5714,1.3136,0.5153
-9.6051,-8.8038,-12.943,-0.71895,1.9802,-3.5122,-4.5528,-2.0065,4.4878,-0.71895,1.9802,-7.2968,-7.619,-3.2381,-10.667,-9.0177,-9.5974,8.8245,0.12698,-3.2841,-3.3494
-7.0774,-4.9761,-11.642,-3.9869,3.9604,-6.7642,-1.3008,-2.6537,3.8374,-3.9869,3.9604,-7.2968,-6.3492,-0.69841,-7.4921,-3.8647,-5.7327,-11.787,-8.127,-2.6273,-3.3494
-0.12638,0.12759,-5.7886,-2.0261,7.2607,-4.813,3.252,-1.3592,6.439,-2.0261,7.2607,-2.6534,-3.8095,3.1111,-1.1429,3.2206,0.06441,-15.008,-1.1429,0.0,5.6683
-0.75829,0.12759,-1.8862,-1.3725,4.6205,-6.1138,0.65041,-5.2427,4.4878,-1.3725,4.6205,-1.3267,-8.8889,-0.69841,-1.1429,3.2206,0.06441,1.095,5.2063,-5.2545,5.0242
2.4013,7.1451,7.8699,2.549,7.9208,-0.91057,5.2033,-4.5955,7.7398,2.549,7.9208,5.9701,-8.8889,1.8413,3.3016,8.3736,6.5056,9.4686,7.746,-7.225,7.6006
4.9289,16.715,15.024,7.7778,11.221,5.5935,13.659,-0.71197,15.545,7.7778,11.221,13.267,-2.5397,6.9206,7.746,15.459,13.591,-7.2786,20.444,-5.2545,10.177
6.8246,21.818001,13.724,10.392,17.162001,8.8455,20.163,3.1715,19.447001,10.392,17.162001,16.584,3.1746,10.73,9.0159,18.035,15.523,-15.652,14.095,1.3136,9.533
7.4566,22.455999,12.423,11.699,17.822001,8.1951,20.813,5.1133,18.797001,11.699,17.822001,16.584,3.1746,12.0,8.381,17.391001,14.235,2.3833,8.381,0.65681,15.33
1.1374,10.973,6.5691,3.8562,6.6007,-0.91057,9.7561,-2.0065,8.3902,3.8562,6.6007,6.6335,-3.8095,6.2857,2.0317,9.0177,5.8615,8.8245,3.9365,-6.5681,10.177
-3.9179,0.76555,0.06504,-4.6405,-2.6403,-8.065,1.9512,-10.421,1.8862,-4.6405,-2.6403,-0.66335,-8.8889,-1.9683,-4.3175,0.64412,-1.2238,-18.872999,3.9365,-13.136,1.8035
6.8246,8.4211,9.1707,4.5098,10.561,4.9431,11.057,1.2298,10.992,4.5098,10.561,10.614,1.2698,3.1111,3.3016,5.153,5.2174,-20.160999,13.46,-3.9409,5.6683
0.50553,4.5933,2.0163,3.2026,5.9406,4.2927,6.5041,2.5243,5.1382,3.2026,5.9406,7.2968,-0.63492,-0.69841,-3.0476,-0.64412,-0.57971,2.3833,0.7619,-2.6273,-0.12882
-7.7093,-0.51037,-9.0407,-2.0261,-4.6205,-3.5122,-0.65041,-2.0065,-0.71545,-2.0261,-4.6205,-1.99,-5.0794,-3.873,-11.302,-5.153,-7.0209,-18.229,-2.4127,-5.9113,-2.0612
4.297,6.5072,1.3659,4.5098,2.6403,3.6423,5.8537,6.4078,7.0894,4.5098,2.6403,4.6434,7.619,10.73,0.12698,6.4412,3.9291,-8.5668,10.921,5.2545,11.465
-3.2859,-1.1483,-1.2358,-0.06536,-0.66007,-2.8618,-1.9512,1.877,-2.0163,-0.06536,-0.66007,-0.66335,5.7143,8.8254,-3.0476,0.0,0.06441,22.351,0.7619,2.6273,0.5153
-8.9731,-10.08,-5.7886,-5.2941,-9.901,-8.065,-11.057,-3.301,-11.772,-5.2941,-9.901,-6.6335,2.5397,5.6508,-5.5873,-5.153,-5.0886,21.063,-6.2222,0.0,-9.7907
-2.0221,-6.89,-2.5366,-2.6797,-11.221,-4.1626,-9.1057,-1.3592,-10.472,-2.6797,-11.221,-5.3068,6.3492,9.4603,0.7619,0.0,0.06441,10.113,-6.2222,5.2545,-2.7053
-1.3902,-4.3381,-4.4878,-5.2941,-10.561,-5.4634,-9.1057,-0.71197,-9.8211,-5.2941,-10.561,-8.6235,3.8095,9.4603,1.3968,2.5765,2.6409,-10.499,-4.3175,2.6273,-2.0612
0.50553,-1.1483,-3.8374,-3.9869,-5.9406,-6.7642,-9.1057,1.2298,-7.8699,-3.9869,-5.9406,-9.9502,2.5397,8.1905,2.6667,4.5089,4.5733,-24.67,0.7619,-0.65681,-3.9936
12.512,12.249,9.8211,7.7778,3.9604,4.2927,4.5528,10.939,3.8374,7.7778,3.9604,3.3167,13.333,17.079,17.27,16.747,16.167,4.3156,9.6508,9.8522,8.8889
6.1927,8.4211,5.2683,3.8562,0.66007,1.0407,2.6016,4.466,0.58537,3.8562,0.66007,1.3267,8.8889,9.4603,12.19,10.306,9.0821,20.419001,5.2063,5.2545,8.8889
0.50553,2.6794,0.06504,-0.71895,-0.66007,-1.561,-2.6016,-1.3592,-3.9675,-0.71895,-0.66007,-2.6534,1.2698,-0.06349,4.5714,3.2206,1.9968,13.977,-0.50794,1.9704,3.7359
4.9289,7.7831,5.9187,3.2026,-1.3201,5.5935,1.9512,4.466,-1.3659,3.2026,-1.3201,3.3167,1.2698,2.4762,6.4762,6.4412,7.1498,10.113,4.5714,3.9409,4.38
0.50553,7.7831,1.3659,4.5098,0.66007,5.5935,2.6016,5.1133,-0.06504,4.5098,0.66007,2.6534,-4.4444,-1.3333,0.7619,3.2206,3.9291,-14.364,3.3016,-1.3136,-0.12882
-5.8136,0.12759,-8.3902,2.549,0.66007,2.3415,-0.65041,0.58252,-2.0163,2.549,0.66007,-1.3267,-11.429,-6.4127,-8.127,-3.2206,-5.0886,-29.179001,-1.7778,-8.5386,-3.9936
-5.1817,-1.1483,-6.439,4.5098,5.2805,4.2927,1.9512,-0.71197,0.58537,4.5098,5.2805,1.3267,-11.429,-6.4127,-8.127,-3.8647,-6.3768,-13.72,-1.1429,-6.5681,0.5153
0.50553,5.2313,2.0163,10.392,7.2607,8.8455,8.4553,3.1715,7.0894,10.392,7.2607,8.6235,-2.5397,-0.06349,-0.50794,3.2206,1.9968,15.266,3.9365,5.2545,8.2448
-1.3902,3.3174,0.06504,6.4706,3.3003,4.2927,5.8537,0.58252,5.7886,6.4706,3.3003,5.3068,2.5397,1.2063,0.7619,3.2206,3.9291,20.419001,5.8413,6.5681,9.533
-5.1817,-0.51037,-6.439,3.2026,8.5809,-0.91057,1.9512,-0.71197,4.4878,3.2026,8.5809,0.0,3.1746,0.57143,-2.4127,0.0,-1.2238,-2.7697,10.286,1.3136,4.38
-7.0774,-1.7863,-10.992,3.8562,9.901,-2.2114,0.65041,-1.3592,4.4878,3.8562,9.901,-1.99,1.2698,0.57143,-5.5873,-1.9324,-4.4444,-24.67,12.825,-2.6273,2.4477
-2.654,1.4035,-5.7886,8.4314,7.9208,0.39024,2.6016,3.8188,3.187,8.4314,7.9208,0.0,2.5397,2.4762,-1.7778,-0.64412,-1.868,-16.296,7.746,0.65681,2.4477
-4.5498,-4.3381,-4.4878,3.8562,3.9604,-2.8618,-0.65041,1.2298,-3.9675,3.8562,3.9604,-1.3267,-2.5397,-3.2381,-3.0476,-7.0853,-3.8003,-11.143,-2.4127,-2.6273,-5.9259
-8.3412,-8.8038,-6.439,-0.06536,0.66007,-4.813,-4.5528,-4.5955,-7.8699,-0.06536,0.66007,-3.9801,-5.0794,-7.0476,-5.5873,-10.95,-7.0209,-3.4138,-8.7619,-5.2545,-10.435
-10.237,-6.89,-7.7398,1.2418,-5.2805,-4.1626,-5.8537,-0.71197,-9.1707,1.2418,-5.2805,-4.6434,-5.7143,-6.4127,-6.8571,-7.0853,-7.0209,8.1804,-8.127,-3.2841,-5.9259
-6.4455,-1.1483,-3.187,6.4706,-1.3201,1.0407,-1.3008,7.7023,-5.2683,6.4706,-1.3201,0.0,-1.2698,0.57143,-3.0476,0.0,-1.2238,17.198,-0.50794,0.0,-1.4171
-3.9179,-1.1483,-0.58537,5.817,1.3201,2.3415,0.65041,7.055,-6.5691,5.817,1.3201,2.6534,1.2698,3.746,-1.1429,0.64412,0.06441,4.3156,-2.4127,0.0,-2.0612
1.1374,-3.0622,0.06504,3.8562,-1.9802,2.3415,0.0,7.7023,-10.472,3.8562,-1.9802,1.3267,2.5397,3.746,0.7619,0.64412,-1.2238,-19.517,-6.2222,0.65681,-0.77295
3.0332,-4.3381,0.06504,0.58824,-2.6403,0.39024,-3.252,4.466,-12.423,0.58824,-2.6403,-1.3267,2.5397,1.2063,1.3968,-1.2882,-2.5121,-5.9903,-10.032,4.5977,-3.3494
2.4013,1.4035,1.3659,1.2418,-0.66007,2.9919,-0.65041,7.055,-9.1707,1.2418,-0.66007,0.66335,1.9048,1.2063,2.0317,1.9324,-0.57971,30.080999,-6.8571,5.2545,-2.7053
-0.75829,2.0415,-1.2358,0.58824,-5.9406,4.9431,0.65041,8.3495,-10.472,0.58824,-5.9406,2.6534,-5.7143,-0.06349,-4.9524,1.9324,-2.5121,17.198,-3.6825,-3.2841,-2.0612
6.1927,6.5072,3.9675,9.085,-0.66007,12.748,6.5041,14.822,-4.6179,9.085,-0.66007,9.2869,-4.4444,4.381,-0.50794,7.0853,2.6409,16.554001,-1.1429,1.9704,8.2448
5.5608,2.6794,0.06504,8.4314,-0.66007,6.8943,2.6016,13.528,-7.2195,8.4314,-0.66007,3.3167,-10.794,-1.3333,-3.0476,0.64412,-1.868,-11.143,-2.4127,-4.5977,0.5153
3.6651,-3.0622,-5.1382,1.8954,-2.6403,0.39024,-3.252,7.055,-10.472,1.8954,-2.6403,-3.3167,-13.968,-5.7778,-6.2222,-5.153,-6.3768,-12.432,-9.3968,-6.5681,-3.9936
-3.9179,-4.3381,-8.3902,-3.3333,-8.5809,-5.4634,-6.5041,1.2298,-11.772,-3.3333,-8.5809,-7.2968,-11.429,-9.5873,-9.3968,-7.0853,-8.3092,13.977,-4.3175,-2.6273,-2.7053
-10.869,-5.614,-12.943,-3.9869,-13.861,-8.7154,-9.1057,0.58252,-11.772,-3.9869,-13.861,-9.2869,-10.794,-11.492,-12.571,-10.95,-12.174,-5.3462,-2.4127,-6.5681,-5.2818
-10.237,-8.1659,-11.642,-0.71895,-4.6205,-6.1138,-5.2033,2.5243,-8.5203,-0.71895,-4.6205,-5.9701,-8.8889,-11.492,-11.302,-12.882,-12.818,-8.5668,3.9365,-6.5681,-8.5024
-4.5498,-6.89,-9.0407,1.2418,0.66007,-3.5122,-1.9512,7.7023,-5.9187,1.2418,0.66007,-2.6534,-4.4444,-8.9524,-5.5873,-12.238,-8.9533,4.9597,-4.3175,0.65681,-7.8583
-6.4455,-10.718,-11.642,-5.2941,-5.9406,-10.016,-8.4553,1.2298,-11.772,-5.2941,-5.9406,-8.6235,-1.9048,-8.3175,-4.3175,-12.238,-7.6651,1.095,-9.3968,-1.9704,-7.2142
-3.9179,-7.5279,-7.0894,-2.0261,-7.9208,-8.7154,-7.8049,3.1715,-13.073,-2.0261,-7.9208,-5.9701,4.4444,-1.3333,1.3968,-6.4412,-1.868,-2.1256,-5.5873,-1.3136,-2.7053
-7.0774,-10.08,-9.6911,-2.0261,-11.881,-9.3659,-10.407,3.1715,-16.976,-2.0261,-11.881,-7.9602,0.63492,-2.6032,-2.4127,-8.3736,-5.0886,3.6715,-11.302,-4.5977,-5.9259
-9.6051,-11.994,-9.6911,-5.2941,-11.221,-9.3659,-12.358,1.2298,-18.927,-5.2941,-11.221,-9.9502,-1.2698,-2.6032,-5.5873,-7.7295,-6.3768,10.757,-10.032,-5.9113,-6.57
-2.654,-13.27,-7.0894,-5.2941,-11.881,-6.1138,-12.358,5.1133,-19.577,-5.2941,-11.881,-9.2869,0.63492,-0.06349,-1.7778,-6.4412,-5.0886,-5.3462,-8.7619,-2.6273,-3.9936
7.4566,-7.5279,-0.58537,-0.71895,-11.221,-0.26016,-9.7561,10.291,-15.675,-0.71895,-11.221,-5.3068,7.619,8.1905,7.746,1.9324,1.9968,4.9597,-2.4127,8.5386,2.4477
3.6651,-6.252,-1.2358,-4.6405,-15.842,-2.2114,-12.358,5.1133,-16.976,-4.6405,-15.842,-7.2968,5.7143,6.2857,5.8413,3.2206,1.9968,12.045,-0.50794,11.166,3.0918
1.7694,-7.5279,-3.8374,-4.6405,-15.182,-1.561,-14.959,6.4078,-19.577,-4.6405,-15.182,-9.2869,1.2698,3.1111,2.6667,1.2882,0.06441,-3.4138,-7.4921,12.479,1.1594
-5.1817,-12.632,-10.341,-7.9085,-17.822001,-6.7642,-19.511999,3.8188,-24.780001,-7.9085,-17.822001,-14.594,-5.7143,-0.06349,-5.5873,-3.2206,-5.7327,-13.076,-16.381001,-3.2841,-4.6377
-3.9179,-8.8038,-9.0407,-2.6797,-16.502001,-4.1626,-13.659,6.4078,-18.927,-2.6797,-16.502001,-10.614,-6.9841,-0.06349,-6.2222,-3.8647,-4.4444,7.5362,-10.667,-4.5977,-6.57
-5.8136,-12.632,-12.943,-3.9869,-16.502001,-5.4634,-14.309,4.466,-20.878,-3.9869,-16.502001,-11.277,-10.794,-6.4127,-8.7619,-9.0177,-8.3092,20.419001,-13.206,-2.6273,-9.1465
-8.9731,-14.545,-13.593,-3.3333,-13.201,-5.4634,-15.61,5.7605,-21.528,-3.3333,-13.201,-11.94,-11.429,-10.222,-11.302,-12.238,-11.53,15.91,-15.111,-3.2841,-9.7907
-5.8136,-6.252,-8.3902,-0.06536,-9.901,-0.91057,-10.407,8.9968,-15.024,-0.06536,-9.901,-7.2968,-7.619,-12.127,-9.3968,-10.95,-10.242,4.9597,-7.4921,-1.9704,-9.1465
1.7694,-1.1483,-2.5366,2.549,-8.5809,2.9919,-5.2033,11.586,-11.122,2.549,-8.5809,-2.6534,0.63492,-7.6825,-3.0476,-7.0853,-6.3768,-10.499,-1.7778,3.2841,-4.6377
6.8246,-3.7002,-3.187,4.5098,-7.2607,4.9431,-5.2033,11.586,-10.472,4.5098,-7.2607,-1.3267,2.5397,-5.7778,0.7619,-7.0853,-5.7327,-13.076,-0.50794,1.9704,-2.7053
4.297,-6.89,-6.439,3.8562,-3.3003,5.5935,-5.8537,12.88,-10.472,3.8562,-3.3003,-1.3267,-0.63492,-8.9524,-1.1429,-10.306,-9.5974,-5.3462,-5.5873,-1.9704,-7.2142
6.8246,2.0415,0.71545,11.046,3.3003,10.797,3.9024,16.117001,-3.3171,11.046,3.3003,5.9701,3.1746,-3.2381,3.3016,-5.7971,-4.4444,7.5362,-2.4127,2.6273,-3.9936
4.297,4.5933,3.9675,7.1242,-0.66007,7.5447,5.2033,8.3495,-5.2683,7.1242,-0.66007,6.6335,0.0,-2.6032,2.0317,-3.8647,-3.1562,-2.1256,0.7619,-0.65681,-3.3494
4.297,4.5933,5.9187,3.8562,-1.3201,5.5935,4.5528,5.7605,-5.2683,3.8562,-1.3201,5.9701,-1.2698,-0.06349,3.3016,-0.64412,0.06441,-5.3462,0.12698,-3.9409,-2.0612
6.8246,5.2313,6.5691,8.4314,1.9802,8.1951,7.1545,9.644,-3.9675,8.4314,1.9802,9.2869,3.1746,5.6508,7.1111,5.7971,5.8615,8.1804,-3.0476,2.6273,5.6683
0.50553,-1.1483,-1.2358,4.5098,-3.3003,4.2927,3.252,7.7023,-10.472,4.5098,-3.3003,5.3068,0.63492,3.746,1.3968,3.8647,1.3527,3.0274,-3.0476,-1.3136,5.0242
6.8246,3.3174,4.6179,6.4706,0.0,8.1951,7.1545,13.528,-5.9187,6.4706,0.0,8.6235,6.3492,8.1905,6.4762,7.7295,5.2174,4.9597,3.3016,4.5977,5.6683
6.1927,3.3174,6.5691,-1.3725,-9.2409,1.6911,1.3008,7.7023,-11.772,-1.3725,-9.2409,2.6534,8.254,6.2857,8.381,7.0853,7.7939,4.3156,1.3968,8.5386,3.0918
-5.8136,-6.89,-3.187,-15.752,-25.743,-13.919,-12.358,-6.5372,-26.732,-15.752,-25.743,-12.604,1.2698,-2.6032,-1.1429,-1.9324,0.70853,1.7391,-18.921,5.2545,-10.435
-5.1817,-6.89,-5.7886,-13.791,-21.122,-13.919,-11.707,-5.2427,-26.732,-13.791,-21.122,-12.604,5.7143,-0.06349,-0.50794,-2.5765,0.06441,8.1804,-22.73,7.8818,-12.367
1.7694,-3.0622,-2.5366,-3.3333,-6.6007,-6.1138,-5.8537,5.1133,-18.275999,-3.3333,-6.6007,-5.9701,7.619,-0.06349,2.6667,-1.2882,1.9968,-3.4138,-8.7619,7.8818,-5.9259
8.0885,3.3174,5.9187,3.2026,0.0,1.0407,0.0,8.9968,-8.5203,3.2026,0.0,0.0,8.8889,2.4762,7.746,3.2206,6.5056,5.6039,-2.4127,9.8522,2.4477
2.4013,0.12759,3.9675,-2.0261,-7.9208,-3.5122,-4.5528,3.8188,-9.8211,-2.0261,-7.9208,-4.6434,3.1746,-1.3333,5.2063,-1.2882,3.285,17.198,-3.0476,6.5681,-0.12882
1.1374,1.4035,3.9675,-0.71895,-4.6205,-3.5122,-2.6016,5.1133,-7.2195,-0.71895,-4.6205,-3.9801,-0.63492,-2.6032,3.9365,-2.5765,1.3527,21.707001,-6.2222,2.6273,-3.9936
15.671,11.611,15.675,11.046,8.5809,10.146,9.7561,18.058001,5.1382,11.046,8.5809,9.9502,6.3492,5.6508,15.365,6.4412,11.659,16.554001,2.6667,8.5386,5.0242
12.512,3.9553,10.472,6.4706,5.9406,8.8455,5.2033,12.88,-0.06504,6.4706,5.9406,7.2968,-1.2698,-2.6032,10.921,-0.64412,5.8615,-15.008,5.2063,0.0,1.8035
9.9842,2.6794,9.8211,4.5098,3.9604,7.5447,4.5528,8.9968,-2.0163,4.5098,3.9604,6.6335,-5.7143,-5.1429,7.1111,-3.2206,2.6409,-9.2109,2.0317,-3.9409,-5.2818
6.1927,3.9553,7.8699,2.549,0.66007,4.9431,3.9024,5.1133,0.58537,2.549,0.66007,4.6434,-3.8095,-5.1429,5.8413,-3.2206,1.3527,7.5362,-1.1429,-1.9704,-7.2142
4.297,4.5933,4.6179,3.8562,3.3003,4.2927,3.9024,5.1133,1.8862,3.8562,3.3003,3.9801,2.5397,-3.873,5.8413,-1.2882,1.9968,6.248,-4.9524,2.6273,-3.9936
1.1374,2.0415,2.6667,3.8562,3.9604,3.6423,2.6016,2.5243,-2.0163,3.8562,3.9604,3.9801,2.5397,-2.6032,2.6667,-1.9324,0.70853,8.8245,-8.127,-0.65681,-0.12882
1.7694,4.5933,4.6179,3.8562,1.9802,6.2439,2.6016,1.877,-1.3659,3.8562,1.9802,7.2968,1.2698,0.57143,1.3968,1.2882,2.6409,-2.1256,-3.0476,-1.9704,-0.12882
5.5608,8.4211,8.5203,6.4706,7.2607,10.146,6.5041,4.466,3.8374,6.4706,7.2607,11.277,6.3492,4.381,5.8413,5.7971,7.7939,1.095,4.5714,3.2841,4.38
6.8246,8.4211,8.5203,8.4314,6.6007,10.146,7.1545,5.7605,3.8374,8.4314,6.6007,11.277,8.8889,6.9206,9.6508,7.7295,9.7262,10.757,6.4762,7.8818,6.9565
4.297,4.5933,2.6667,5.817,3.9604,6.8943,3.9024,3.8188,0.58537,5.817,3.9604,7.2968,3.1746,5.6508,3.9365,6.4412,4.5733,-16.296,3.9365,0.65681,6.3124
3.6651,8.4211,4.6179,9.085,11.881,8.8455,7.8049,5.1133,7.0894,9.085,11.881,11.277,4.4444,7.5556,3.3016,9.6618,4.5733,-2.7697,13.46,1.3136,13.398
-2.654,3.3174,-0.58537,4.5098,6.6007,1.6911,4.5528,-2.0065,5.1382,4.5098,6.6007,7.2968,-0.63492,1.8413,-1.7778,5.153,0.06441,8.1804,7.1111,-4.5977,3.7359
-3.2859,-1.1483,-3.8374,-0.06536,0.66007,-1.561,0.0,-3.9482,2.5366,-0.06536,0.66007,3.3167,-4.4444,-1.9683,-3.6825,1.9324,-1.2238,-11.787,-4.3175,-10.509,-2.0612
-0.75829,-0.51037,-1.2358,-0.71895,1.3201,-0.91057,0.0,-3.9482,3.8374,-0.71895,1.3201,3.9801,-4.4444,-0.69841,-1.7778,2.5765,0.70853,-2.1256,0.12698,-7.8818,1.8035
1.7694,0.12759,2.6667,1.2418,8.5809,2.9919,3.9024,1.2298,5.7886,1.2418,8.5809,7.9602,0.63492,0.57143,1.3968,1.9324,1.9968,7.5362,3.9365,-0.65681,-0.12882
3.0332,-0.51037,3.9675,4.5098,7.2607,4.2927,4.5528,4.466,5.1382,4.5098,7.2607,8.6235,3.1746,-1.3333,1.3968,1.2882,1.3527,5.6039,0.12698,1.9704,0.5153
9.9842,5.2313,9.1707,9.085,9.901,6.8943,8.4553,9.644,9.6911,9.085,9.901,11.277,8.8889,1.8413,7.746,6.4412,6.5056,2.3833,1.3968,4.5977,5.0242
6.1927,1.4035,3.9675,-0.06536,6.6007,-1.561,2.6016,-2.0065,5.7886,-0.06536,6.6007,2.6534,6.3492,-0.69841,5.8413,4.5089,5.2174,-14.364,2.6667,-1.9704,3.7359
3.6651,2.0415,2.0163,0.58824,4.6205,-1.561,3.252,-4.5955,7.0894,0.58824,4.6205,1.3267,9.5238,4.381,9.0159,7.7295,9.0821,4.9597,5.8413,1.3136,8.2448
2.4013,4.5933,3.9675,5.817,9.2409,3.6423,5.8537,0.58252,10.992,5.817,9.2409,3.9801,10.159,4.381,9.0159,6.4412,9.0821,12.045,7.1111,1.3136,3.0918
3.0332,5.2313,7.2195,5.817,10.561,4.9431,5.8537,-0.71197,9.6911,5.817,10.561,5.9701,6.3492,0.57143,7.1111,1.9324,5.2174,13.977,5.2063,-0.65681,-4.6377
8.7204,7.1451,9.1707,5.817,11.881,6.8943,9.7561,1.2298,9.6911,5.817,11.881,9.2869,6.3492,3.1111,8.381,3.2206,5.8615,10.757,3.3016,1.9704,0.5153
4.297,2.6794,1.3659,4.5098,13.201,4.2927,7.1545,-0.71197,9.6911,4.5098,13.201,6.6335,1.2698,-2.6032,3.3016,-1.2882,0.70853,1.7391,3.9365,0.65681,-2.0612
4.297,2.0415,0.71545,7.1242,16.502001,6.8943,9.1057,1.2298,14.894,7.1242,16.502001,7.2968,0.63492,-3.873,2.0317,-1.9324,-0.57971,-10.499,4.5714,2.6273,-0.12882
7.4566,5.2313,5.9187,11.699,17.822001,12.748,13.008,6.4078,16.195,11.699,17.822001,11.277,2.5397,-1.9683,2.6667,0.0,0.06441,-8.5668,5.8413,5.2545,1.8035
-2.0221,-1.1483,0.71545,4.5098,5.9406,6.2439,5.2033,0.58252,7.0894,4.5098,5.9406,4.6434,-5.0794,-7.0476,-6.8571,-6.4412,-7.6651,3.0274,0.7619,-1.9704,-5.9259
-5.1817,-5.614,-3.8374,-3.3333,-1.9802,0.39024,-1.3008,-6.5372,1.8862,-3.3333,-1.9802,-1.3267,-6.3492,-3.873,-9.3968,-4.5089,-7.6651,-13.076,-10.032,-4.5977,-2.7053
0.50553,-1.1483,0.06504,-0.06536,6.6007,2.3415,0.65041,-5.2427,7.0894,-0.06536,6.6007,1.99,1.2698,5.6508,-0.50794,5.153,1.3527,6.8921,-6.2222,5.9113,8.8889
-1.3902,-3.0622,-3.187,-1.3725,7.2607,-0.91057,0.0,-7.8317,7.0894,-1.3725,7.2607,-1.3267,-1.9048,4.381,-1.7778,3.2206,-0.57971,6.248,2.6667,2.6273,2.4477
-0.75829,-1.1483,-3.8374,-1.3725,5.9406,-0.26016,1.9512,-5.89,7.0894,-1.3725,5.9406,-1.3267,-1.2698,6.9206,-1.7778,5.153,0.70853,-15.008,6.4762,-1.9704,-0.77295
4.9289,9.059,4.6179,2.549,8.5809,2.9919,6.5041,-2.0065,12.943,2.549,8.5809,2.6534,7.619,15.81,8.381,16.747,12.947,4.9597,12.825,5.2545,8.2448
3.0332,10.973,6.5691,0.58824,9.2409,0.39024,4.5528,-3.9482,13.593,0.58824,9.2409,0.66335,5.0794,13.27,9.0159,18.68,15.523,19.775,12.825,3.9409,14.686
2.4013,9.059,3.3171,-0.71895,5.2805,-0.26016,1.9512,-4.5955,12.943,-0.71895,5.2805,0.0,0.63492,6.9206,5.8413,13.527,11.014,3.6715,12.19,0.65681,10.177
1.1374,5.8692,0.71545,-1.3725,3.9604,-0.26016,1.3008,-7.1845,11.642,-1.3725,3.9604,0.66335,-1.9048,1.2063,0.7619,5.7971,3.9291,-17.584999,-0.50794,-3.9409,-1.4171
-0.75829,2.6794,0.71545,-3.9869,1.3201,-1.561,0.65041,-11.715,6.439,-3.9869,1.3201,0.66335,-4.4444,-5.7778,-3.6825,-1.2882,-1.2238,-22.738001,-6.8571,-6.5681,-3.3494
-4.5498,0.12759,0.71545,-2.0261,3.9604,-1.561,1.3008,-11.068,7.0894,-2.0261,3.9604,1.3267,-9.5238,-10.857,-8.7619,-5.153,-4.4444,-6.6345,2.6667,-7.225,-0.12882
-5.1817,-0.51037,0.71545,-1.3725,5.2805,-1.561,1.9512,-9.1262,7.0894,-1.3725,5.2805,1.99,-10.794,-10.857,-8.7619,-6.4412,-4.4444,10.113,4.5714,-3.9409,1.1594
-3.9179,0.76555,0.71545,-0.71895,6.6007,-0.26016,3.252,-7.1845,9.0407,-0.71895,6.6007,3.9801,-8.8889,-9.5873,-7.4921,-8.3736,-4.4444,1.095,0.7619,-1.3136,-3.9936
-7.7093,-1.1483,-1.2358,-2.6797,7.9208,-2.2114,1.9512,-10.421,10.992,-2.6797,7.9208,3.3167,-9.5238,-8.9524,-10.667,-9.0177,-5.7327,-11.787,-3.0476,-7.8818,-8.5024
-10.237,-0.51037,0.71545,-2.0261,9.901,-4.1626,3.9024,-14.304,12.943,-2.0261,9.901,3.3167,-7.619,-3.873,-10.032,-7.0853,-3.8003,1.7391,-1.1429,-7.8818,-5.2818
-5.8136,0.12759,3.3171,0.58824,11.221,-2.8618,7.8049,-10.421,14.894,0.58824,11.221,4.6434,-3.8095,1.2063,-5.5873,-3.8647,-0.57971,1.095,9.0159,-3.2841,-1.4171
-4.5498,-2.4242,-2.5366,-2.0261,7.9208,-6.1138,3.9024,-11.068,12.943,-2.0261,7.9208,-1.3267,-1.2698,3.1111,-5.5873,-1.9324,-1.2238,-20.160999,9.6508,-1.9704,1.1594
-4.5498,-3.0622,-7.7398,-4.6405,5.9406,-6.1138,-1.3008,-13.01,10.992,-4.6405,5.9406,-3.9801,-0.63492,3.1111,-6.2222,-1.2882,-3.1562,-33.688,7.746,0.0,6.3124
-7.7093,-2.4242,-5.7886,-3.3333,6.6007,-2.8618,0.0,-12.362,9.0407,-3.3333,6.6007,-1.3267,-6.3492,-2.6032,-10.667,-4.5089,-7.6651,-14.364,2.6667,-6.5681,3.7359
-8.9731,0.76555,-0.58537,0.58824,5.9406,-0.26016,5.2033,-11.068,11.642,0.58824,5.9406,3.3167,-6.9841,-3.2381,-10.032,-4.5089,-7.0209,15.91,-0.50794,-7.8818,-1.4171
-2.654,-1.7863,0.06504,1.2418,7.9208,1.6911,5.8537,-7.1845,11.642,1.2418,7.9208,5.3068,-1.9048,-2.6032,-4.9524,-4.5089,-6.3768,13.333,-1.1429,-4.5977,3.0918
8.0885,-3.0622,0.06504,3.8562,9.2409,4.2927,7.8049,-3.301,14.244,3.8562,9.2409,6.6335,5.7143,2.4762,3.9365,0.0,-1.868,13.333,6.4762,4.5977,9.533
7.4566,-4.3381,-3.187,-0.06536,6.6007,-0.91057,4.5528,-8.479,11.642,-0.06536,6.6007,0.66335,5.7143,3.1111,5.2063,-0.64412,-1.2238,5.6039,9.0159,5.2545,5.0242
-0.12638,-4.9761,-3.187,-5.9477,3.3003,-6.1138,-1.3008,-13.657,6.439,-5.9477,3.3003,-3.9801,4.4444,2.4762,1.3968,-1.2882,-3.1562,-0.83736,2.6667,0.0,0.5153
-3.9179,0.76555,2.0163,-6.6013,3.9604,-5.4634,0.0,-14.951,6.439,-6.6013,3.9604,-1.3267,4.4444,3.746,0.7619,1.2882,-0.57971,-3.4138,5.2063,0.0,1.8035
-0.75829,8.4211,9.1707,-1.3725,9.2409,-0.91057,6.5041,-10.421,11.642,-1.3725,9.2409,4.6434,6.9841,5.6508,5.2063,7.0853,5.2174,-2.1256,7.746,7.8818,9.533
6.8246,10.973,10.472,5.1634,13.861,5.5935,13.008,-3.301,16.195,5.1634,13.861,9.2869,11.429,8.8254,11.556,10.95,9.0821,-0.19324,7.1111,10.509,12.754
4.9289,5.2313,5.2683,1.8954,5.9406,3.6423,9.7561,-7.1845,12.943,1.8954,5.9406,5.9701,6.3492,3.746,6.4762,3.8647,3.285,-41.417,2.0317,0.65681,1.8035
0.50553,1.4035,2.0163,-3.3333,1.3201,-0.26016,4.5528,-11.715,9.6911,-3.3333,1.3201,0.0,-1.2698,-1.9683,-0.50794,-1.2882,-1.868,-33.688,0.7619,-1.9704,-3.9936
-8.3412,-2.4242,-3.187,-9.2157,-0.66007,-6.7642,-2.6016,-16.246,6.439,-9.2157,-0.66007,-6.6335,-3.8095,-7.0476,-5.5873,-7.0853,-4.4444,13.333,-0.50794,0.0,-7.8583
-13.397,-4.9761,-5.7886,-9.8693,-1.3201,-11.317,-6.5041,-18.188,3.187,-9.8693,-1.3201,-10.614,-5.0794,-5.7778,-6.8571,-7.7295,-3.8003,21.707001,-6.8571,0.0,-5.9259
-5.1817,-1.1483,-1.2358,-4.6405,2.6403,-6.1138,-1.3008,-12.362,5.7886,-4.6405,2.6403,-5.3068,-1.9048,-0.69841,0.7619,-2.5765,2.6409,16.554001,-6.2222,2.6273,-2.7053
-3.9179,-4.3381,-3.8374,-8.5621,0.66007,-7.4146,-1.9512,-15.599,4.4878,-8.5621,0.66007,-5.9701,-7.619,-4.5079,-1.1429,-7.7295,-0.57971,-0.19324,-15.111,-3.9409,-13.011
3.6651,-1.1483,-0.58537,-7.9085,3.3003,-2.2114,1.9512,-12.362,10.341,-7.9085,3.3003,-1.99,-3.1746,-0.69841,2.6667,-4.5089,1.9968,-38.841,0.12698,-3.9409,-11.079
14.408,8.4211,9.1707,2.549,10.561,6.8943,10.407,-3.301,18.797001,2.549,10.561,7.2968,10.794,12.0,14.095,9.0177,13.591,-24.67,13.46,7.8818,5.0242
5.5608,8.4211,5.9187,1.2418,6.6007,1.6911,7.8049,-9.1262,16.195,1.2418,6.6007,3.9801,10.794,15.175,10.286,11.594,12.303,13.977,8.381,6.5681,8.2448
-0.12638,7.1451,3.3171,0.58824,5.2805,1.0407,5.2033,-9.7735,12.293,0.58824,5.2805,2.6534,6.9841,15.175,5.8413,10.95,9.0821,19.775,11.556,0.65681,8.8889
0.50553,7.7831,4.6179,2.549,7.9208,3.6423,5.2033,-6.5372,14.894,2.549,7.9208,3.9801,2.5397,13.27,3.3016,10.306,6.5056,4.9597,14.095,-4.5977,8.2448
-2.0221,7.1451,2.6667,-2.0261,5.9406,0.39024,3.252,-9.1262,14.894,-2.0261,5.9406,0.66335,-6.3492,9.4603,-2.4127,8.3736,2.6409,-15.008,8.381,-13.136,5.6683
-2.654,7.7831,1.3659,-0.71895,8.5809,1.6911,5.2033,-7.8317,15.545,-0.71895,8.5809,1.99,-9.5238,9.4603,-4.9524,9.0177,0.70853,-13.076,3.9365,-13.136,10.177
-1.3902,5.8692,1.3659,4.5098,11.881,6.8943,5.8537,-2.6537,15.545,4.5098,11.881,5.3068,-10.794,6.9206,-4.9524,8.3736,-0.57971,-16.296,8.381,-10.509,8.8889
-2.654,2.6794,3.3171,3.2026,4.6205,5.5935,2.6016,-2.0065,11.642,3.2026,4.6205,5.3068,-12.698,-1.3333,-6.2222,3.8647,-2.5121,-8.5668,10.921,-9.8522,3.7359
-7.7093,-2.4242,0.71545,-2.6797,-3.3003,-0.91057,-3.252,-6.5372,4.4878,-2.6797,-3.3003,-0.66335,-13.333,-8.9524,-8.7619,-3.8647,-8.3092,6.8921,1.3968,-11.166,-2.7053
-5.1817,-3.7002,0.06504,-3.9869,-3.3003,-1.561,-3.252,-5.2427,2.5366,-3.9869,-3.3003,-1.3267,-10.794,-12.762,-9.3968,-8.3736,-10.886,0.45089,-2.4127,-8.5386,-5.2818
-1.3902,-4.3381,0.06504,-1.3725,-1.9802,1.0407,-3.9024,-2.0065,3.8374,-1.3725,-1.9802,0.0,-5.7143,-14.667,-6.8571,-10.306,-9.5974,7.5362,-6.8571,-0.65681,-7.2142
3.0332,-3.0622,2.6667,0.58824,-0.66007,4.9431,-3.252,1.2298,4.4878,0.58824,-0.66007,1.99,1.2698,-13.397,-0.50794,-8.3736,-5.0886,12.045,-6.8571,8.5386,-7.2142
4.9289,-0.51037,6.5691,1.8954,1.9802,6.8943,-1.3008,1.2298,7.0894,1.8954,1.9802,3.9801,4.4444,-12.762,2.6667,-8.3736,-2.5121,13.977,-4.9524,8.5386,-8.5024
3.6651,0.12759,8.5203,-0.06536,4.6205,2.3415,0.0,-2.6537,8.3902,-0.06536,4.6205,1.99,3.1746,-14.667,0.12698,-10.306,-3.1562,12.045,1.3968,3.9409,-11.079
9.3523,12.249,17.625999,5.1634,12.541,5.5935,11.057,3.1715,18.797001,5.1634,12.541,8.6235,9.5238,-5.1429,6.4762,0.0,5.8615,6.248,9.0159,8.5386,-1.4171
0.50553,7.1451,7.2195,-2.0261,6.6007,-2.8618,7.1545,-3.301,14.894,-2.0261,6.6007,2.6534,5.0794,-3.873,0.7619,-1.9324,1.9968,-3.4138,11.556,1.9704,0.5153
-0.75829,4.5933,3.3171,-4.6405,3.3003,-6.1138,4.5528,-3.9482,13.593,-4.6405,3.3003,0.0,5.0794,4.381,1.3968,3.2206,3.285,-6.6345,17.27,-0.65681,5.0242
-8.9731,0.12759,0.06504,-11.176,0.66007,-11.967,-1.9512,-9.7735,9.6911,-11.176,0.66007,-5.3068,-0.63492,6.2857,-3.6825,3.2206,1.9968,-4.058,5.2063,-7.8818,1.8035
-12.133,-1.1483,-0.58537,-12.484,-0.66007,-12.618,-3.252,-14.304,6.439,-12.484,-0.66007,-7.2968,-5.0794,6.9206,-9.3968,1.2882,0.70853,-10.499,-7.4921,-11.823,-2.7053
-8.9731,-0.51037,-1.2358,-10.523,-1.9802,-9.3659,-1.3008,-13.657,5.7886,-10.523,-1.9802,-5.3068,-3.1746,9.4603,-8.7619,1.9324,0.06441,-15.652,-1.7778,-9.1954,2.4477
-4.5498,-0.51037,-3.187,-11.83,-5.2805,-11.967,-1.3008,-11.715,6.439,-11.83,-5.2805,-6.6335,3.1746,9.4603,-2.4127,1.9324,1.9968,-15.652,9.0159,-0.65681,8.2448
-0.75829,0.76555,-1.2358,-13.137,-5.9406,-15.22,-1.9512,-10.421,5.7886,-13.137,-5.9406,-8.6235,8.8889,6.2857,5.2063,1.2882,3.285,-2.7697,12.19,7.225,3.0918
0.50553,5.2313,2.0163,-11.83,-2.6403,-13.919,-0.65041,-8.479,6.439,-11.83,-2.6403,-7.2968,13.333,8.1905,7.746,4.5089,5.2174,5.6039,7.1111,13.793,5.6683
-5.1817,-1.1483,-5.1382,-13.791,-11.221,-15.87,-6.5041,-10.421,1.2358,-13.791,-11.221,-10.614,5.0794,1.8413,-0.50794,0.0,-2.5121,-0.83736,-1.7778,9.1954,3.7359
-9.6051,-8.8038,-14.894,-15.098,-18.482,-17.820999,-11.707,-11.715,-4.6179,-15.098,-18.482,-14.594,-3.8095,-7.0476,-8.127,-8.3736,-11.53,-11.787,-7.4921,1.9704,-3.9936
-4.5498,-7.5279,-12.943,-9.2157,-9.901,-11.317,-7.1545,-4.5955,-2.0163,-9.2157,-9.901,-9.2869,-0.63492,-5.7778,-4.3175,-7.0853,-8.9533,-2.7697,-3.0476,4.5977,-2.7053
0.50553,-1.7863,-2.5366,-3.3333,-1.9802,-4.1626,-1.3008,0.58252,2.5366,-3.3333,-1.9802,-1.3267,3.8095,-0.69841,2.0317,-2.5765,-1.868,6.248,3.3016,9.1954,1.8035
-4.5498,-2.4242,-0.58537,-3.3333,-5.9406,-4.813,-2.6016,-3.9482,-1.3659,-3.3333,-5.9406,0.66335,-1.9048,-5.1429,-2.4127,-5.153,-3.1562,7.5362,-1.1429,4.5977,-3.3494
-2.654,-0.51037,2.0163,-2.6797,-8.5809,-2.2114,-0.65041,-4.5955,-3.9675,-2.6797,-8.5809,4.6434,-3.8095,-5.7778,-2.4127,-1.9324,-1.2238,9.4686,-3.0476,0.0,-0.77295
0.50553,2.0415,3.9675,2.549,-0.66007,2.9919,3.252,-0.06472,1.2358,2.549,-0.66007,8.6235,-3.8095,-2.6032,-0.50794,1.9324,1.3527,0.45089,4.5714,-3.2841,3.0918
12.512,13.525,15.024,13.66,10.561,16.65,15.61,10.291,16.195,13.66,10.561,21.226999,1.2698,3.1111,9.0159,9.0177,9.7262,-2.1256,13.46,0.0,11.465
11.248,16.077,16.976,11.699,9.901,17.951,16.910999,8.3495,16.846001,11.699,9.901,22.554001,-2.5397,-0.69841,7.1111,6.4412,8.438,-5.3462,14.095,-3.2841,3.7359
-2.654,5.2313,4.6179,2.549,1.3201,6.2439,7.1545,0.58252,6.439,2.549,1.3201,10.614,-8.8889,-7.6825,-4.3175,-3.2206,-2.5121,-7.9227,2.0317,-8.5386,-3.9936
-10.869,-3.0622,-6.439,-0.06536,-1.3201,1.6911,1.9512,-2.0065,3.187,-0.06536,-1.3201,3.9801,-12.063,-10.857,-11.937,-8.3736,-10.886,-11.143,-7.4921,-11.823,-2.0612
-11.501,-4.3381,-7.7398,3.2026,1.9802,4.9431,1.9512,3.8188,3.187,3.2026,1.9802,4.6434,-13.333,-12.762,-13.841,-10.306,-14.106,-4.058,-4.9524,-9.8522,-6.57
-8.3412,-3.7002,-4.4878,8.4314,0.0,9.4959,3.252,8.9968,5.1382,8.4314,0.0,8.6235,-10.794,-13.397,-13.206,-10.95,-14.106,12.045,0.7619,-1.9704,-5.9259
-3.9179,-0.51037,-1.2358,9.085,1.9802,10.146,2.6016,9.644,8.3902,9.085,1.9802,7.9602,-4.4444,-10.857,-9.3968,-7.7295,-11.53,10.757,9.6508,3.9409,1.1594
-1.3902,-1.7863,-5.7886,3.8562,1.9802,4.9431,0.0,8.3495,3.187,3.8562,1.9802,1.3267,-0.63492,-8.9524,-8.127,-8.3736,-12.818,4.3156,5.2063,5.2545,-0.12882
-3.2859,-8.8038,-13.593,-3.3333,-6.6007,-2.8618,-7.1545,3.1715,-4.6179,-3.3333,-6.6007,-8.6235,1.9048,-8.9524,-8.127,-10.95,-14.75,10.757,-4.3175,5.2545,-5.9259
-2.654,-11.994,-16.846001,-7.2549,-14.521,-6.7642,-11.707,1.877,-5.9187,-7.2549,-14.521,-14.594,2.5397,-7.6825,-5.5873,-10.306,-13.462,5.6039,-5.5873,2.6273,-9.1465
4.9289,-4.9761,-9.0407,-2.0261,-7.9208,-2.2114,-9.1057,8.3495,1.2358,-2.0261,-7.9208,-11.277,8.8889,2.4762,3.3016,0.64412,-3.1562,-13.72,3.9365,5.9113,0.5153
-2.0221,-6.252,-10.341,-7.2549,-5.9406,-8.065,-12.358,-0.71197,-2.0163,-7.2549,-5.9406,-15.92,8.8889,5.6508,2.0317,5.153,-0.57971,-15.652,3.3016,3.2841,7.6006
-10.869,-9.4418,-13.593,-9.8693,-9.2409,-12.618,-14.309,-4.5955,-9.1707,-9.8693,-9.2409,-19.237,8.8889,7.5556,0.12698,4.5089,0.06441,8.1804,-3.0476,2.6273,6.9565
-8.3412,-6.89,-10.992,-6.6013,-9.901,-8.7154,-10.407,1.2298,-8.5203,-6.6013,-9.901,-15.257,12.063,13.27,5.8413,7.7295,3.9291,20.419001,-3.0476,6.5681,5.0242
3.0332,0.12759,-3.187,-2.6797,-4.6205,-2.2114,-4.5528,6.4078,-3.3171,-2.6797,-4.6205,-9.9502,13.333,17.714001,12.825,10.95,9.0821,4.9597,1.3968,9.1954,4.38
10.616,5.8692,5.2683,2.549,0.66007,1.0407,-0.65041,9.644,-1.3659,2.549,0.66007,-5.3068,13.968,20.889,16.0,14.815,12.303,6.248,0.12698,11.166,8.2448
9.3523,5.2313,8.5203,3.2026,-1.3201,1.0407,0.0,6.4078,-2.6667,3.2026,-1.3201,-3.9801,12.063,15.81,14.73,13.527,11.659,8.1804,-0.50794,4.5977,10.177
6.1927,2.0415,4.6179,3.8562,-3.3003,1.0407,0.65041,5.1133,-2.6667,3.8562,-3.3003,-3.3167,7.619,6.2857,10.286,5.7971,6.5056,-2.7697,-3.0476,-2.6273,3.0918
8.0885,1.4035,2.6667,5.1634,-1.3201,2.9919,1.9512,9.644,-3.3171,5.1634,-1.3201,-0.66335,4.4444,-0.06349,9.6508,1.2882,3.9291,-0.19324,-3.0476,-1.3136,-0.12882
16.302999,6.5072,9.1707,10.392,3.3003,8.8455,5.8537,16.764,-0.71545,10.392,3.3003,5.3068,5.0794,-0.06349,14.73,3.8647,7.1498,10.757,10.286,5.2545,5.0242
11.248,3.9553,7.8699,5.817,-2.6403,6.2439,1.9512,12.233,-5.2683,5.817,-2.6403,3.9801,-1.2698,-4.5079,9.0159,0.0,3.285,1.7391,-1.1429,2.6273,-2.7053
1.1374,-2.4242,0.06504,1.2418,-1.9802,2.9919,-0.65041,7.7023,-7.8699,1.2418,-1.9802,1.3267,-8.8889,-7.0476,-1.7778,-2.5765,-3.8003,0.45089,-7.4921,-3.9409,-2.0612
-5.8136,-9.4418,-9.0407,1.2418,-1.9802,1.0407,-1.9512,3.8188,-9.8211,1.2418,-1.9802,0.66335,-15.873,-12.762,-10.032,-9.0177,-12.818,7.5362,-6.8571,-3.9409,-1.4171
-2.0221,-9.4418,-6.439,-0.06536,-9.2409,1.0407,-4.5528,6.4078,-11.772,-0.06536,-9.2409,-0.66335,-12.698,-14.032,-7.4921,-10.95,-12.174,13.333,-6.8571,3.2841,-9.7907
4.9289,-4.9761,1.3659,-2.6797,-12.541,0.39024,-5.8537,4.466,-15.024,-2.6797,-12.541,-1.3267,-3.1746,-5.1429,2.0317,-3.8647,-2.5121,1.095,-8.7619,11.823,-7.8583
-1.3902,-6.252,-2.5366,-7.9085,-11.881,-7.4146,-8.4553,-3.301,-17.625999,-7.9085,-11.881,-5.9701,-2.5397,-4.5079,-0.50794,-3.8647,-2.5121,6.8921,-10.667,8.5386,-4.6377
-8.3412,-4.9761,-7.0894,-6.6013,-9.2409,-8.7154,-4.5528,-2.6537,-11.772,-6.6013,-9.2409,-5.3068,-5.7143,-5.1429,-5.5873,-3.8647,-6.3768,-0.19324,1.3968,-0.65681,-0.12882
-2.654,-3.0622,-6.439,-0.06536,-1.9802,-0.91057,1.3008,7.055,-5.2683,-0.06536,-1.9802,1.99,-2.5397,-4.5079,-3.6825,-5.153,-6.3768,-29.823,1.3968,-2.6273,-1.4171
4.9289,-1.1483,-0.58537,1.8954,1.9802,2.9919,2.6016,11.586,-4.6179,1.8954,1.9802,4.6434,3.8095,-3.2381,2.0317,-4.5089,-3.1562,-10.499,-5.5873,2.6273,-1.4171
1.7694,0.12759,1.3659,-0.06536,-5.9406,-1.561,-2.6016,4.466,-7.8699,-0.06536,-5.9406,0.66335,7.619,-0.06349,3.3016,-1.2882,0.06441,25.572001,-4.3175,3.9409,1.1594
-2.0221,0.76555,-0.58537,-2.0261,-9.901,-5.4634,-5.8537,1.2298,-10.472,-2.0261,-9.901,-4.6434,6.3492,1.2063,0.7619,0.64412,0.70853,21.707001,-3.0476,0.0,-2.0612
-3.2859,3.9553,-1.2358,3.2026,-3.9604,-2.2114,0.65041,7.055,-3.3171,3.2026,-3.9604,-1.3267,4.4444,1.2063,-0.50794,0.64412,0.70853,8.1804,5.2063,-3.2841,-3.3494
-5.8136,-1.7863,-5.1382,3.2026,-3.9604,-0.26016,0.0,7.055,-3.9675,3.2026,-3.9604,-0.66335,-5.0794,-5.1429,-6.8571,-8.3736,-8.3092,-15.008,3.3016,-13.136,-11.723
1.1374,-3.0622,0.71545,3.2026,-0.66007,4.2927,0.65041,8.9968,-5.9187,3.2026,-0.66007,1.99,-6.9841,-3.2381,-3.0476,-6.4412,-6.3768,-15.652,-10.667,-13.136,-9.1465
8.7204,0.12759,8.5203,6.4706,-1.9802,8.1951,0.0,14.822,-9.1707,6.4706,-1.9802,3.9801,-4.4444,-0.69841,3.9365,0.0,1.3527,-6.6345,-13.206,-4.5977,0.5153
9.9842,2.0415,9.1707,9.085,-5.9406,9.4959,-0.65041,18.058001,-10.472,9.085,-5.9406,3.3167,-4.4444,-3.2381,5.2063,0.64412,3.285,3.6715,-0.50794,-1.3136,2.4477
1.1374,2.0415,3.3171,5.817,-5.2805,5.5935,-3.252,10.939,-11.772,5.817,-5.2805,0.66335,-6.3492,-5.1429,0.12698,-1.2882,-1.2238,22.995001,-3.6825,-3.2841,-2.0612
-7.0774,-3.0622,-1.8862,2.549,-4.6205,-0.26016,-6.5041,5.7605,-12.423,2.549,-4.6205,-4.6434,-12.063,-11.492,-7.4921,-6.4412,-7.0209,12.045,-7.4921,-6.5681,-5.9259
-2.654,-2.4242,0.06504,4.5098,-3.9604,-0.26016,-5.2033,10.291,-9.8211,4.5098,-3.9604,-5.3068,-11.429,-12.127,-5.5873,-3.8647,-4.4444,-5.9903,3.9365,-3.9409,-3.9936
4.9289,5.2313,7.8699,8.4314,-2.6403,4.2927,-1.3008,15.469,-5.2683,8.4314,-2.6403,-0.66335,-0.63492,-3.873,4.5714,5.7971,5.2174,3.6715,2.6667,7.225,2.4477
-0.75829,0.12759,2.6667,1.8954,-11.221,-0.26016,-7.1545,8.9968,-13.073,1.8954,-11.221,-5.3068,0.63492,-5.7778,1.3968,1.2882,0.70853,21.707001,-7.4921,8.5386,-1.4171
-4.5498,-6.252,-3.8374,0.58824,-8.5809,-0.91057,-11.707,6.4078,-16.976,0.58824,-8.5809,-7.9602,-3.8095,-14.032,-4.9524,-7.0853,-8.3092,6.248,-7.4921,3.2841,-6.57
2.4013,-3.0622,1.3659,8.4314,-3.3003,6.2439,-5.2033,14.822,-11.772,8.4314,-3.3003,-0.66335,0.63492,-9.5873,-1.7778,-3.8647,-5.7327,7.5362,-1.1429,5.2545,-1.4171
1.7694,-4.9761,1.3659,5.817,-7.9208,3.6423,-7.8049,13.528,-15.675,5.817,-7.9208,-2.6534,0.63492,-10.222,-2.4127,-5.153,-5.7327,-5.3462,-6.8571,1.3136,-6.57
3.6651,-3.0622,4.6179,4.5098,-1.9802,4.9431,-6.5041,8.3495,-13.073,4.5098,-1.9802,0.0,-0.63492,-7.0476,-1.1429,-2.5765,-2.5121,-7.9227,-8.127,-1.3136,-3.9936
0.50553,-0.51037,5.9187,5.1634,1.3201,6.8943,-3.9024,7.055,-7.8699,5.1634,1.3201,3.3167,-4.4444,-0.69841,-2.4127,1.9324,1.3527,13.333,-4.3175,-3.9409,-0.12882
-3.2859,-2.4242,2.0163,8.4314,-0.66007,6.8943,-1.3008,10.291,-7.8699,8.4314,-0.66007,4.6434,-8.8889,1.2063,-5.5873,0.64412,0.70853,12.045,-0.50794,-7.225,-3.3494
4.297,0.76555,6.5691,16.275,5.2805,12.748,5.8537,15.469,-2.0163,16.275,5.2805,10.614,-1.9048,6.2857,2.0317,4.5089,5.8615,1.7391,5.8413,-3.2841,0.5153
8.0885,0.76555,7.2195,13.66,8.5809,12.748,6.5041,14.175,-2.0163,13.66,8.5809,9.9502,1.2698,6.9206,5.2063,4.5089,5.8615,4.3156,3.9365,-1.9704,2.4477
8.7204,3.9553,11.122,15.621,11.881,15.35,7.8049,13.528,0.58537,15.621,11.881,13.267,5.0794,8.1905,7.1111,5.7971,8.438,15.91,0.7619,3.9409,6.3124
-1.3902,2.0415,7.8699,12.353,5.2805,11.447,5.8537,9.644,-2.0163,12.353,5.2805,11.277,1.2698,3.746,0.12698,3.2206,5.8615,15.266,-1.7778,-1.9704,1.1594
-10.237,-1.7863,0.06504,5.1634,0.66007,3.6423,3.252,4.466,-5.9187,5.1634,0.66007,6.6335,-1.9048,1.2063,-6.2222,-0.64412,0.70853,-11.143,0.12698,-9.8522,-3.9936
-1.3902,4.5933,3.9675,3.8562,3.3003,4.9431,7.8049,-0.06472,-0.71545,3.8562,3.3003,8.6235,5.0794,7.5556,-1.1429,5.153,4.5733,-53.654999,9.0159,-6.5681,1.1594
12.512,17.99,16.976,11.046,14.521,14.049,15.61,1.2298,10.992,11.046,14.521,17.91,17.143,20.254,11.556,20.612,17.455999,-22.738001,16.0,8.5386,15.33
9.3523,17.351999,18.275999,11.699,9.2409,12.748,13.659,-0.06472,7.0894,11.699,9.2409,16.584,15.238,15.81,10.921,18.68,16.812,22.351,9.0159,12.479,16.618
4.9289,10.973,15.024,9.7386,8.5809,11.447,11.707,4.466,1.8862,9.7386,8.5809,12.604,10.159,8.1905,6.4762,11.594,11.659,10.113,4.5714,9.1954,8.8889
1.7694,3.9553,6.5691,0.58824,6.6007,2.9919,2.6016,-0.06472,-7.2195,0.58824,6.6007,3.3167,5.7143,1.8413,2.0317,5.153,5.2174,-3.4138,-2.4127,2.6273,3.0918
-0.75829,0.12759,0.06504,-2.0261,-2.6403,-5.4634,-6.5041,-2.0065,-14.374,-2.0261,-2.6403,-5.3068,1.9048,-3.873,0.12698,1.2882,1.3527,-7.2786,-3.6825,1.3136,1.1594
1.7694,0.12759,2.6667,1.8954,-3.9604,-4.813,-5.8537,3.8188,-15.675,1.8954,-3.9604,-3.9801,3.8095,-1.3333,5.8413,2.5765,4.5733,-3.4138,-5.5873,5.2545,0.5153
0.50553,-3.7002,2.6667,1.8954,-5.2805,-2.8618,-5.8537,4.466,-17.625999,1.8954,-5.2805,-2.6534,1.9048,-2.6032,5.2063,-3.2206,3.285,-20.160999,-8.7619,-1.3136,-11.723
1.1374,-3.0622,5.9187,7.7778,3.9604,3.6423,-0.65041,10.939,-10.472,7.7778,3.9604,3.9801,2.5397,1.2063,4.5714,-1.9324,5.8615,-2.7697,-5.5873,-1.3136,-11.079
1.7694,3.3174,9.8211,12.353,7.9208,6.8943,4.5528,14.175,-5.9187,12.353,7.9208,7.9602,10.159,13.27,9.6508,7.7295,14.235,26.860001,-1.7778,7.8818,-0.12882
-1.3902,-1.1483,2.6667,5.1634,-2.6403,-2.8618,-3.9024,7.7023,-16.976,5.1634,-2.6403,-1.99,4.4444,10.73,7.1111,3.8647,9.7262,26.860001,-14.476,7.225,-7.8583
-0.12638,-6.89,-0.58537,-1.3725,-5.9406,-9.3659,-9.7561,0.58252,-24.129999,-1.3725,-5.9406,-8.6235,-0.63492,5.6508,5.8413,-1.2882,5.8615,15.266,-23.365,2.6273,-13.011
2.4013,-10.08,1.3659,0.58824,-5.2805,-7.4146,-8.4553,-0.06472,-24.780001,0.58824,-5.2805,-6.6335,-0.63492,8.8254,5.8413,-0.64412,5.2174,8.8245,-22.73,-0.65681,-7.2142
3.6651,-8.1659,3.3171,3.8562,-1.9802,-2.8618,-4.5528,4.466,-17.625999,3.8562,-1.9802,-2.6534,-0.63492,10.73,5.8413,1.9324,5.2174,8.1804,-13.206,0.65681,-0.12882
4.9289,-0.51037,5.2683,1.2418,0.0,-1.561,-0.65041,3.8188,-10.472,1.2418,0.0,-0.66335,0.63492,13.27,6.4762,7.0853,7.7939,-2.7697,-0.50794,1.3136,6.3124
8.0885,7.1451,9.1707,-0.06536,4.6205,-0.91057,2.6016,-0.06472,-6.5691,-0.06536,4.6205,1.3267,3.1746,13.905,8.381,12.238,10.37,-1.4815,2.0317,4.5977,9.533
5.5608,7.7831,7.8699,-2.6797,0.66007,-1.561,1.9512,-3.301,-5.9187,-2.6797,0.66007,0.66335,2.5397,8.1905,4.5714,11.594,8.438,13.333,2.0317,4.5977,5.0242
3.6651,10.335,7.8699,0.58824,3.3003,2.9919,7.8049,1.2298,-2.0163,0.58824,3.3003,5.3068,2.5397,4.381,0.7619,11.594,6.5056,2.3833,7.746,2.6273,7.6006
-1.3902,9.697,5.2683,5.1634,6.6007,2.9919,11.057,3.1715,1.2358,5.1634,6.6007,7.9602,-0.63492,-3.873,-4.3175,5.153,1.9968,-22.738001,7.746,-0.65681,3.7359
3.0332,14.163,10.472,9.085,9.901,4.9431,16.26,1.877,7.7398,9.085,9.901,11.94,1.9048,-0.69841,-0.50794,5.7971,4.5733,-17.584999,4.5714,1.9704,6.9565
4.9289,16.715,13.724,7.1242,7.9208,4.2927,15.61,-3.301,8.3902,7.1242,7.9208,12.604,3.8095,1.8413,3.3016,8.3736,8.438,3.0274,3.9365,0.65681,12.754
6.1927,17.351999,15.024,5.1634,9.901,4.9431,13.008,-5.2427,7.0894,5.1634,9.901,12.604,6.9841,5.0159,8.381,11.594,12.947,4.9597,9.0159,3.9409,14.042
13.776,19.903999,18.927,9.7386,19.142,12.098,18.211,-0.71197,10.341,9.7386,19.142,18.573999,15.873,15.175,17.905001,19.323999,20.676001,12.045,17.27,10.509,16.618
11.248,16.077,15.675,11.699,21.122,15.35,20.813,0.58252,10.992,11.699,21.122,22.554001,14.603,15.81,15.365,16.103001,17.455999,6.248,16.0,5.9113,12.754
10.616,12.249,14.374,9.7386,16.502001,16.0,22.114,0.58252,12.293,9.7386,16.502001,24.544001,10.159,12.635,11.556,8.3736,11.659,-7.9227,19.174999,0.0,3.0918
19.462999,14.801,20.878,9.7386,13.861,18.601999,22.764,7.055,9.0407,9.7386,13.861,27.861,17.143,15.175,19.809999,9.6618,16.167,0.45089,2.0317,7.8818,-0.12882
15.671,8.4211,13.724,4.5098,9.2409,12.748,13.008,4.466,-0.06504,4.5098,9.2409,20.563999,15.238,8.8254,16.0,5.153,11.659,-3.4138,-11.302,11.823,1.8035
3.6651,-4.9761,-1.8862,-5.9477,-3.9604,2.3415,-0.65041,-4.5955,-10.472,-5.9477,-3.9604,7.9602,4.4444,-0.06349,2.6667,-5.7971,-1.2238,-2.7697,-15.111,3.2841,-5.2818
-1.3902,-14.545,-11.642,-7.9085,-13.201,-0.26016,-7.1545,-4.5955,-13.724,-7.9085,-13.201,2.6534,0.63492,-3.2381,-3.0476,-13.527,-10.886,11.401,-15.746,0.65681,-13.655
-0.12638,-19.011,-10.341,-1.3725,-0.66007,2.9919,-5.2033,1.2298,-10.472,-1.3725,-0.66007,3.9801,-1.2698,-6.4127,-3.0476,-18.68,-14.106,14.622,-13.206,2.6273,-16.232
-1.3902,-20.924999,-7.0894,1.2418,3.3003,4.2927,-3.9024,3.8188,-9.1707,1.2418,3.3003,3.9801,-6.3492,-13.397,-7.4921,-24.476999,-17.971001,5.6039,-6.2222,-1.9704,-20.740999
1.7694,-12.632,-3.187,5.817,1.9802,9.4959,0.0,10.939,-5.2683,5.817,1.9802,5.9701,-1.2698,-7.6825,-5.5873,-16.103001,-12.818,-5.3462,-5.5873,3.2841,-9.1465
-5.1817,-10.718,-12.293,0.58824,-3.3003,1.0407,-6.5041,5.1133,-7.8699,0.58824,-3.3003,-1.99,-1.2698,-7.0476,-9.3968,-11.594,-13.462,-0.83736,-14.476,1.3136,-5.2818
-14.028,-14.545,-20.747999,-7.9085,-7.9208,-11.967,-13.659,-4.5955,-9.1707,-7.9085,-7.9208,-11.277,-5.7143,-10.857,-13.841,-11.594,-16.683001,12.689,-11.302,-1.3136,-5.9259
-16.556,-15.821,-21.398001,-13.137,-9.901,-15.87,-14.959,-9.1262,-8.5203,-13.137,-9.901,-13.93,-10.159,-12.127,-16.381001,-12.238,-19.259001,7.5362,-2.4127,-6.5681,-5.2818
-14.66,-14.545,-18.146,-9.2157,-8.5809,-10.016,-12.358,-5.89,-4.6179,-9.2157,-8.5809,-10.614,-12.063,-14.032,-16.381001,-13.527,-20.548,6.8921,1.3968,-6.5681,-2.0612
-12.133,-11.994,-15.545,-7.9085,-7.9208,-5.4634,-9.7561,-4.5955,-2.6667,-7.9085,-7.9208,-7.9602,-13.333,-17.205999,-15.746,-14.171,-17.971001,-1.4815,3.3016,-7.225,-5.2818
-8.3412,-1.7863,-11.642,-7.9085,-7.2607,-4.1626,-3.9024,-7.1845,1.2358,-7.9085,-7.2607,-5.3068,-10.794,-13.397,-11.937,-7.0853,-10.242,-25.313999,6.4762,-10.509,-3.3494
1.7694,12.249,-0.58537,-2.6797,0.0,-0.26016,4.5528,-3.301,10.341,-2.6797,0.0,0.66335,0.63492,-1.3333,0.12698,7.0853,3.285,-11.787,17.27,-3.2841,6.9565
3.6651,14.801,5.2683,-3.9869,1.9802,-1.561,3.252,-4.5955,11.642,-3.9869,1.9802,1.3267,3.1746,3.746,3.3016,11.594,8.438,0.45089,8.381,-1.3136,12.11
3.0332,12.249,7.8699,-6.6013,0.66007,-1.561,1.3008,-7.1845,7.7398,-6.6013,0.66007,0.66335,-1.2698,2.4762,1.3968,9.6618,7.7939,-0.19324,-0.50794,-4.5977,9.533
2.4013,10.335,6.5691,-5.2941,0.66007,-1.561,1.3008,-5.89,5.7886,-5.2941,0.66007,0.66335,-2.5397,-0.06349,1.3968,5.7971,6.5056,-10.499,2.0317,-5.2545,5.6683
5.5608,10.973,8.5203,-0.71895,5.2805,1.0407,6.5041,-2.6537,9.0407,-0.71895,5.2805,5.3068,1.9048,6.9206,5.8413,8.3736,9.7262,-3.4138,3.9365,-0.65681,5.0242
3.6651,6.5072,4.6179,-2.0261,0.0,-0.91057,4.5528,-4.5955,5.7886,-2.0261,0.0,3.3167,0.63492,4.381,2.6667,5.7971,6.5056,16.554001,3.9365,0.65681,1.1594
-2.0221,-3.0622,-5.7886,-9.2157,-5.9406,-8.7154,-3.9024,-9.1262,-2.0163,-9.2157,-5.9406,-6.6335,-3.1746,-4.5079,-3.0476,-1.9324,-2.5121,6.248,-3.0476,-2.6273,-4.6377
6.1927,0.12759,0.71545,-5.2941,0.0,-2.8618,-1.3008,-2.0065,5.1382,-5.2941,0.0,-4.6434,7.619,2.4762,7.1111,3.8647,3.9291,-7.2786,2.6667,5.9113,-0.77295
9.3523,-1.1483,1.3659,-6.6013,-4.6205,-2.2114,-3.9024,-2.6537,3.8374,-6.6013,-4.6205,-5.9701,9.5238,3.746,11.556,3.2206,5.8615,-27.246,6.4762,7.8818,3.7359
1.7694,-10.718,-10.341,-15.098,-13.201,-10.667,-10.407,-12.362,-5.9187,-15.098,-13.201,-13.93,1.9048,-1.9683,4.5714,-6.4412,-3.8003,-6.6345,-9.3968,3.9409,-3.3494
-4.5498,-12.632,-14.894,-16.405001,-16.502001,-13.268,-9.7561,-13.01,-7.2195,-16.405001,-16.502001,-14.594,-2.5397,-7.0476,-1.7778,-10.95,-8.3092,22.351,-11.302,3.2841,-7.8583
-7.7093,-9.4418,-13.593,-13.791,-13.201,-13.268,-7.1545,-11.715,-2.0163,-13.791,-13.201,-11.94,-5.0794,-8.9524,-4.9524,-11.594,-8.9533,17.198,-7.4921,0.65681,-11.079
-10.237,-6.252,-9.6911,-11.176,-7.9208,-10.016,-2.6016,-11.715,0.58537,-11.176,-7.9208,-6.6335,-8.8889,-8.9524,-8.7619,-10.306,-9.5974,-4.7021,-4.3175,-3.9409,-7.2142
-6.4455,-1.1483,-3.8374,-5.9477,-3.3003,-3.5122,3.9024,-7.8317,4.4878,-5.9477,-3.3003,0.0,-8.254,-7.0476,-10.032,-7.0853,-7.6651,-21.448999,3.9365,-6.5681,1.8035
-1.3902,2.6794,0.06504,-0.06536,3.9604,2.3415,8.4553,-3.9482,9.0407,-0.06536,3.9604,3.9801,-5.7143,-1.9683,-7.4921,-3.8647,-4.4444,-7.2786,5.8413,-5.2545,1.8035
-1.3902,3.9553,-1.8862,5.1634,11.221,5.5935,11.057,1.877,14.894,5.1634,11.221,5.9701,-5.0794,4.381,-6.2222,-1.2882,-3.8003,3.0274,10.921,-6.5681,4.38
-11.501,-4.3381,-12.293,-1.3725,2.6403,-2.2114,2.6016,-7.1845,11.642,-1.3725,2.6403,-2.6534,-11.429,1.2063,-12.571,-6.4412,-8.9533,-9.8551,6.4762,-15.764,-0.12882
-19.084,-6.89,-14.244,-5.9477,-1.9802,-7.4146,-2.6016,-12.362,9.6911,-5.9477,-1.9802,-7.2968,-16.507999,-4.5079,-17.650999,-9.0177,-11.53,-14.364,6.4762,-21.018,-3.9936
-16.556,-1.1483,-8.3902,-5.2941,3.9604,-5.4634,1.9512,-9.1262,13.593,-5.2941,3.9604,-3.9801,-14.603,-4.5079,-15.111,-5.7971,-8.3092,-31.111,11.556,-19.704,-0.12882
-11.501,0.12759,-7.0894,-5.9477,3.3003,-5.4634,3.9024,-9.7735,12.943,-5.9477,3.3003,-3.9801,-10.159,-1.9683,-10.032,-1.9324,-5.0886,-31.111,6.4762,-15.107,3.0918
-8.9731,5.8692,-7.0894,-2.0261,-0.66007,-4.1626,5.8537,-6.5372,16.846001,-2.0261,-0.66007,-3.9801,-6.9841,3.1111,-6.2222,4.5089,-0.57971,-16.296,16.0,-8.5386,6.3124
4.9289,17.99,4.6179,9.085,15.182,8.1951,14.959,5.1133,27.902,9.085,15.182,6.6335,5.0794,15.81,6.4762,18.68,12.303,1.095,23.618999,2.6273,21.127001
4.297,8.4211,0.71545,-0.06536,11.221,1.6911,3.252,-2.0065,14.894,-0.06536,11.221,-3.3167,4.4444,11.365,7.1111,12.238,7.7939,4.9597,14.73,2.6273,18.551001
-1.3902,-5.614,-10.341,-12.484,-2.6403,-11.967,-11.057,-13.657,0.58537,-12.484,-2.6403,-18.573999,3.1746,1.2063,1.3968,-1.9324,-5.0886,6.8921,0.12698,2.6273,3.7359
4.297,-7.5279,-10.341,-11.83,-7.2607,-11.967,-11.707,-9.1262,1.2358,-11.83,-7.2607,-17.91,10.159,2.4762,3.9365,-3.8647,-6.3768,0.45089,0.7619,7.225,3.0918
-1.3902,-11.994,-12.943,-14.444,-13.861,-13.919,-13.659,-9.1262,-3.3171,-14.444,-13.861,-18.573999,6.9841,-4.5079,-3.0476,-11.594,-12.174,-14.364,-4.3175,4.5977,-5.2818
-3.9179,-10.08,-10.341,-15.098,-11.881,-11.967,-10.407,-7.8317,-3.9675,-15.098,-11.881,-15.92,6.3492,-5.7778,-4.3175,-12.238,-11.53,-20.805,-7.4921,5.2545,-11.723
-2.0221,-7.5279,-5.7886,-9.8693,-9.2409,-7.4146,-6.5041,-3.301,-3.9675,-9.8693,-9.2409,-10.614,11.429,-3.873,0.12698,-10.95,-7.0209,10.757,-10.032,10.509,-13.011
1.1374,-6.252,-3.187,-3.3333,-6.6007,-5.4634,-4.5528,0.58252,-1.3659,-3.3333,-6.6007,-7.2968,15.238,-5.1429,3.9365,-11.594,-3.1562,32.657001,-8.127,13.793,-16.232
-3.9179,-14.545,-9.0407,-9.2157,-17.822001,-12.618,-13.008,-6.5372,-8.5203,-9.2157,-17.822001,-13.93,5.0794,-12.762,-2.4127,-18.035,-8.9533,-5.3462,-11.302,3.2841,-21.385
-4.5498,-17.735001,-11.642,-10.523,-12.541,-13.268,-15.61,-5.89,-8.5203,-10.523,-12.541,-13.93,-3.1746,-15.302,-6.8571,-19.968,-10.886,-2.7697,-10.667,-2.6273,-16.875999
-3.9179,-13.907,-7.0894,-5.9477,-1.3201,-8.065,-12.358,-2.6537,-1.3659,-5.9477,-1.3201,-7.9602,-6.9841,-12.762,-6.8571,-18.035,-9.5974,3.0274,-4.9524,-3.9409,-12.367
-3.9179,-8.8038,1.3659,-4.6405,-3.3003,-4.1626,-8.4553,-0.06472,-2.0163,-4.6405,-3.3003,-1.99,-10.159,-8.9524,-4.9524,-12.882,-4.4444,14.622,-2.4127,-2.6273,-10.435
-0.75829,-1.7863,7.8699,-2.6797,-4.6205,-0.91057,-4.5528,2.5243,-1.3659,-2.6797,-4.6205,1.3267,-13.968,-7.6825,-3.6825,-5.7971,0.70853,23.639,-1.1429,-3.2841,-1.4171
-0.12638,-2.4242,3.3171,-3.3333,-6.6007,0.39024,-5.8537,3.1715,-1.3659,-3.3333,-6.6007,0.66335,-18.413,-8.3175,-6.8571,-5.153,-1.868,0.45089,-1.1429,-13.793,-2.7053
7.4566,1.4035,4.6179,3.2026,1.3201,6.2439,-0.65041,8.3495,3.8374,3.2026,1.3201,5.3068,-15.873,-3.2381,-3.0476,-1.9324,-1.2238,-5.9903,1.3968,-13.793,-3.9936
7.4566,4.5933,3.9675,5.1634,0.66007,7.5447,1.9512,7.055,6.439,5.1634,0.66007,7.2968,-14.603,-1.9683,-2.4127,0.0,-1.868,-1.4815,5.8413,-14.45,-0.77295
2.4013,2.0415,3.9675,1.2418,-1.3201,5.5935,0.0,-0.06472,3.8374,1.2418,-1.3201,5.3068,-8.254,5.0159,-1.1429,3.8647,0.06441,9.4686,3.3016,-13.136,6.9565
1.7694,7.7831,9.8211,2.549,5.2805,6.8943,2.6016,-2.0065,7.7398,2.549,5.2805,7.9602,6.3492,14.54,4.5714,14.815,7.7939,-0.83736,9.0159,-1.3136,21.127001
1.1374,6.5072,5.2683,-2.6797,2.6403,2.9919,-1.3008,-7.1845,4.4878,-2.6797,2.6403,3.3167,13.333,15.175,5.2063,15.459,6.5056,-13.72,5.8413,5.2545,19.195
8.0885,10.973,9.1707,1.2418,3.9604,8.8455,3.9024,-2.6537,8.3902,1.2418,3.9604,7.9602,22.857,22.159,12.825,21.256001,12.303,-4.058,16.0,16.42,21.771
3.0332,9.697,5.9187,-2.6797,-3.9604,6.8943,0.65041,-8.479,3.8374,-2.6797,-3.9604,3.3167,20.952,20.889,10.286,18.68,12.303,-36.908001,7.1111,11.823,15.33
-0.12638,3.9553,2.0163,-5.9477,-5.9406,1.6911,-4.5528,-10.421,-0.71545,-5.9477,-5.9406,-2.6534,19.683001,19.618999,8.381,15.459,10.37,-29.823,-10.032,10.509,6.9565
-0.75829,2.0415,-1.2358,-9.8693,-5.9406,-3.5122,-7.1545,-9.7735,-0.71545,-9.8693,-5.9406,-8.6235,21.587,20.889,9.6508,16.747,11.014,14.622,-10.667,19.704,12.11
-5.1817,-4.3381,-8.3902,-15.098,-12.541,-11.317,-15.61,-9.7735,-5.9187,-15.098,-12.541,-19.237,17.778,17.714001,6.4762,14.171,7.7939,15.91,-1.1429,16.42,12.11
-8.9731,-11.356,-12.293,-15.098,-15.842,-17.820999,-21.462999,-9.7735,-7.2195,-15.098,-15.842,-27.197001,7.619,8.1905,0.7619,5.7971,1.3527,13.333,2.0317,5.2545,5.0242
-5.8136,-9.4418,-8.3902,-11.83,-15.842,-16.52,-16.26,-5.2427,-3.9675,-11.83,-15.842,-25.207001,3.1746,3.1111,1.3968,3.2206,1.3527,-14.364,0.7619,2.6273,6.3124
-0.75829,-8.1659,-7.7398,-9.2157,-9.901,-12.618,-10.407,-3.301,-0.06504,-9.2157,-9.901,-21.226999,3.1746,0.57143,2.6667,0.64412,-1.2238,-14.364,-1.1429,2.6273,5.0242
-7.0774,-12.632,-14.894,-7.9085,-7.2607,-15.22,-11.057,-3.301,1.8862,-7.9085,-7.2607,-23.216999,-3.8095,-9.5873,-4.9524,-9.0177,-9.5974,11.401,2.6667,-1.9704,-5.2818
-3.9179,-7.5279,-10.992,-3.3333,-1.9802,-9.3659,-7.1545,4.466,7.0894,-3.3333,-1.9802,-18.573999,-4.4444,-9.5873,-4.9524,-7.0853,-8.3092,4.3156,3.3016,-2.6273,-6.57
-5.8136,-6.89,-11.642,-6.6013,-1.9802,-10.667,-9.7561,3.8188,2.5366,-6.6013,-1.9802,-19.237,-6.3492,-10.222,-6.8571,-8.3736,-8.9533,9.4686,-8.127,-3.9409,-11.723
-13.397,-13.27,-14.244,-7.9085,-4.6205,-12.618,-11.057,0.58252,-4.6179,-7.9085,-4.6205,-19.237,-8.8889,-12.762,-11.937,-12.238,-12.818,22.995001,-10.032,-2.6273,-13.011
-14.66,-16.459,-14.244,-7.9085,-5.2805,-10.016,-9.7561,1.2298,-5.9187,-7.9085,-5.2805,-15.257,-10.159,-12.127,-13.841,-12.882,-14.106,-6.6345,-10.667,1.3136,-12.367
-11.501,-12.632,-11.642,-9.2157,-7.2607,-9.3659,-7.8049,-2.6537,-5.2683,-9.2157,-7.2607,-11.277,-10.794,-10.857,-11.302,-10.95,-12.818,-13.076,-11.937,-0.65681,-9.1465
2.4013,4.5933,3.3171,3.8562,3.9604,2.9919,6.5041,6.4078,8.3902,3.8562,3.9604,2.6534,-3.1746,1.2063,1.3968,4.5089,1.9968,23.639,7.746,1.9704,6.9565
0.50553,7.7831,5.2683,6.4706,1.9802,6.2439,8.4553,6.4078,9.6911,6.4706,1.9802,5.9701,-8.8889,-0.69841,-1.1429,5.153,1.9968,11.401,9.6508,-4.5977,8.2448
1.7694,11.611,8.5203,11.699,9.901,11.447,15.61,7.7023,15.545,11.699,9.901,13.93,-9.5238,-2.6032,-2.4127,4.5089,2.6409,-4.058,17.27,-5.2545,7.6006
11.88,21.18,17.625999,22.809999,27.723,23.153999,27.966999,16.764,26.601999,22.809999,27.723,27.197001,0.0,3.746,6.4762,10.306,9.7262,21.707001,23.618999,3.2841,12.11
9.3523,17.351999,13.724,19.542,27.063,21.202999,24.715,10.939,22.698999,19.542,27.063,26.534,-0.63492,1.8413,5.2063,7.7295,8.438,-5.3462,14.73,-4.5977,6.3124
9.3523,19.903999,15.675,18.235001,24.422001,20.552999,25.365999,7.055,20.747999,18.235001,24.422001,27.861,-1.2698,5.6508,6.4762,9.0177,10.37,-5.3462,6.4762,-9.8522,-0.12882
10.616,23.094,21.528,20.85,27.723,23.153999,29.919001,7.7023,22.698999,20.85,27.723,33.831001,2.5397,12.635,10.286,14.171,14.879,15.266,9.0159,-2.6273,8.8889
1.7694,12.249,12.423,11.699,21.122,12.748,21.462999,-5.89,14.244,11.699,21.122,25.871,2.5397,10.73,5.8413,8.3736,9.0821,-4.7021,-4.3175,-5.9113,3.7359
3.6651,7.1451,11.122,9.7386,15.182,8.1951,18.211,-8.479,10.992,9.7386,15.182,21.891001,10.159,15.81,10.286,9.6618,10.37,-11.143,-3.0476,-2.6273,1.1594
3.6651,7.1451,10.472,9.085,13.861,4.2927,14.959,-9.7735,13.593,9.085,13.861,17.247,15.238,18.349001,13.46,13.527,13.591,-21.448999,7.746,2.6273,8.8889
1.7694,9.697,8.5203,2.549,11.221,-0.26016,9.7561,-14.304,14.244,2.549,11.221,9.9502,12.698,16.444,11.556,16.103001,14.235,-24.67,14.73,0.65681,13.398
6.1927,17.99,14.374,7.7778,17.162001,4.9431,14.959,-10.421,21.398001,7.7778,17.162001,13.93,19.048,27.238001,16.0,25.764999,21.965,8.8245,22.349001,11.166,22.415001
2.4013,12.249,8.5203,5.817,15.182,3.6423,10.407,-11.715,19.447001,5.817,15.182,9.9502,15.238,24.063,12.825,19.968,16.167,16.554001,13.46,9.1954,15.974
5.5608,7.7831,7.2195,5.1634,15.842,2.9919,7.1545,-10.421,18.797001,5.1634,15.842,7.2968,11.429,13.27,11.556,11.594,11.659,1.095,10.921,5.2545,8.2448
6.8246,2.6794,6.5691,0.58824,11.221,0.39024,1.9512,-10.421,12.293,0.58824,11.221,1.99,10.794,3.746,11.556,5.153,9.0821,-2.1256,2.0317,8.5386,6.3124
7.4566,-1.7863,3.9675,-3.3333,5.9406,-3.5122,-2.6016,-9.1262,7.0894,-3.3333,5.9406,-3.9801,10.159,-1.3333,10.921,0.64412,7.1498,-4.7021,3.9365,9.8522,3.0918
7.4566,-2.4242,0.71545,-2.6797,5.2805,-3.5122,-3.252,-5.2427,7.7398,-2.6797,5.2805,-6.6335,10.794,-1.3333,9.6508,-1.9324,3.9291,8.1804,6.4762,12.479,-0.77295
7.4566,-1.7863,-3.187,1.8954,5.9406,-2.2114,-4.5528,1.2298,10.341,1.8954,5.9406,-8.6235,13.968,0.57143,9.6508,-1.9324,1.9968,4.3156,3.3016,13.136,2.4477
1.7694,-10.08,-12.293,-2.6797,-4.6205,-10.016,-13.008,-1.3592,1.8862,-2.6797,-4.6205,-18.573999,7.619,-7.0476,2.0317,-10.95,-6.3768,-2.1256,0.12698,6.5681,-7.8583
3.0332,-9.4418,-10.992,-5.2941,-11.221,-12.618,-14.959,-2.0065,-1.3659,-5.2941,-11.221,-20.563999,6.9841,-5.7778,2.6667,-10.306,-5.0886,-2.7697,-7.4921,9.1954,-10.435
-0.75829,-10.08,-11.642,-7.9085,-7.9208,-16.52,-17.561001,-6.5372,-5.9187,-7.9085,-7.9208,-23.881001,3.8095,-5.7778,1.3968,-9.0177,-5.0886,10.757,-11.302,5.9113,-7.8583
-4.5498,-7.5279,-12.293,-5.9477,-4.6205,-17.171,-14.959,-5.89,-5.2683,-5.9477,-4.6205,-20.563999,-2.5397,-10.857,-2.4127,-9.6618,-7.0209,3.0274,-8.127,1.3136,-5.9259
-7.7093,-2.4242,-9.6911,-2.6797,-4.6205,-11.967,-7.1545,-0.71197,-0.71545,-2.6797,-4.6205,-12.604,-12.063,-14.032,-7.4921,-10.95,-9.5974,-9.8551,-8.7619,-5.9113,-11.723
-10.237,-3.0622,-9.0407,0.58824,-1.9802,-7.4146,-1.9512,0.58252,-0.71545,0.58824,-1.9802,-5.9701,-22.222,-18.476,-12.571,-14.171,-12.818,-40.772999,-9.3968,-16.42,-15.588
4.297,9.059,7.8699,11.699,11.881,8.1951,12.358,8.9968,9.6911,11.699,11.881,11.94,-15.873,-8.3175,0.12698,-0.64412,1.9968,1.7391,-1.1429,-7.225,-0.12882
7.4566,12.887,14.374,10.392,12.541,12.748,13.008,7.055,11.642,10.392,12.541,16.584,-14.603,-5.7778,2.6667,3.2206,6.5056,33.945,-3.6825,-6.5681,2.4477
1.7694,3.3174,6.5691,1.8954,-0.66007,9.4959,3.252,-0.06472,1.8862,1.8954,-0.66007,9.9502,-20.316999,-16.570999,-6.2222,-7.7295,-3.1562,13.977,-8.7619,-17.733999,-9.7907
6.1927,3.3174,9.8211,4.5098,0.66007,14.049,6.5041,1.2298,-0.06504,4.5098,0.66007,13.93,-12.698,-12.762,-2.4127,-5.7971,0.06441,-1.4815,-10.667,-15.764,-11.723
9.3523,2.0415,10.472,1.2418,-4.6205,13.398,5.8537,-1.3592,-5.9187,1.2418,-4.6205,14.594,-3.8095,-6.4127,3.3016,-2.5765,5.8615,-32.398998,-18.921,-11.166,-11.079
11.88,3.3174,12.423,-0.06536,-4.6205,12.098,5.2033,-3.301,-2.6667,-0.06536,-4.6205,15.257,7.619,4.381,10.921,5.7971,12.947,-15.652,-13.206,-1.3136,-3.3494
5.5608,3.9553,11.122,-0.71895,1.9802,8.1951,5.8537,-7.1845,2.5366,-0.71895,1.9802,13.93,10.794,8.1905,9.0159,5.7971,12.303,6.248,-1.1429,5.9113,-3.3494
-1.3902,2.0415,6.5691,-0.71895,3.3003,4.2927,4.5528,-6.5372,2.5366,-0.71895,3.3003,11.277,8.254,6.2857,1.3968,2.5765,6.5056,1.095,2.6667,4.5977,-0.12882
6.8246,9.059,15.024,6.4706,10.561,9.4959,11.057,2.5243,11.642,6.4706,10.561,16.584,17.778,13.27,8.381,9.0177,11.659,-5.9903,9.0159,13.136,9.533
-2.0221,2.6794,8.5203,-3.9869,0.0,-2.8618,3.252,-8.479,5.1382,-3.9869,0.0,6.6335,15.238,6.9206,2.0317,0.64412,3.285,-12.432,-3.6825,13.136,-2.0612
-7.7093,0.12759,2.0163,-9.2157,-1.9802,-10.667,1.9512,-13.01,7.0894,-9.2157,-1.9802,0.66335,11.429,5.6508,-2.4127,-3.2206,-2.5121,-6.6345,5.8413,9.8522,-5.9259
-12.133,-6.252,-6.439,-11.83,-2.6403,-16.52,0.0,-13.01,7.0894,-11.83,-2.6403,-5.3068,6.9841,4.381,-6.8571,-7.0853,-7.0209,-9.8551,6.4762,5.2545,-2.7053
-15.924,-8.8038,-7.7398,-12.484,-5.9406,-16.52,-2.6016,-12.362,2.5366,-12.484,-5.9406,-7.2968,1.2698,5.0159,-10.032,-6.4412,-7.6651,3.0274,-0.50794,3.9409,-0.12882
-12.133,-2.4242,-0.58537,-6.6013,-3.9604,-9.3659,1.3008,-9.1262,3.8374,-6.6013,-3.9604,-2.6534,-4.4444,4.381,-10.667,-2.5765,-5.0886,1.7391,0.7619,0.0,3.7359
-4.5498,9.059,7.8699,-0.06536,-1.3201,-0.26016,9.7561,-4.5955,10.341,-0.06536,-1.3201,5.9701,-6.9841,4.381,-8.127,3.8647,0.06441,-8.5668,5.8413,-5.2545,11.465
-3.2859,9.059,4.6179,1.8954,2.6403,3.6423,12.358,-0.06472,11.642,1.8954,2.6403,7.9602,-12.698,-0.69841,-10.032,1.2882,-2.5121,-11.787,12.825,-10.509,5.6683
6.1927,8.4211,5.2683,9.7386,15.182,10.797,14.959,8.9968,14.894,9.7386,15.182,12.604,-8.8889,-0.69841,-1.1429,2.5765,1.3527,-0.19324,7.746,-4.5977,6.3124
10.616,5.2313,6.5691,11.699,15.842,12.748,13.008,8.3495,10.992,11.699,15.842,11.94,-11.429,-5.7778,2.0317,0.0,2.6409,-6.6345,-0.50794,-7.225,3.0918
14.408,10.973,15.675,16.275,13.861,18.601999,15.61,10.939,8.3902,16.275,13.861,17.247,-12.063,-10.857,4.5714,0.0,7.1498,17.198,2.0317,-5.9113,-3.9936
20.094999,16.715,25.431,20.195999,14.521,25.756001,18.211,16.764,7.7398,20.195999,14.521,23.216999,-6.9841,-8.3175,10.286,3.2206,12.947,20.419001,2.6667,-1.3136,-7.2142
17.566999,10.973,16.976,14.314,9.2409,21.854,11.057,14.175,3.8374,14.314,9.2409,17.247,-6.3492,-8.9524,7.1111,-1.9324,6.5056,-0.19324,-4.3175,-2.6273,-18.164
10.616,0.12759,0.71545,11.699,5.2805,15.35,5.2033,12.233,-1.3659,11.699,5.2805,9.2869,-2.5397,-9.5873,2.6667,-7.0853,-1.2238,8.1804,-12.571,2.6273,-16.875999
11.88,-3.0622,-1.2358,17.582001,11.221,17.951,7.8049,20.646999,0.58537,17.582001,11.221,10.614,4.4444,-4.5079,5.2063,-4.5089,0.70853,12.689,-13.841,11.823,-5.9259
2.4013,-9.4418,-7.0894,7.7778,3.3003,10.146,-3.252,13.528,-8.5203,7.7778,3.3003,0.0,-3.1746,-7.6825,-6.2222,-10.306,-6.3768,17.198,-18.285999,5.9113,-14.3
-4.5498,-8.8038,-7.7398,3.2026,-11.221,3.6423,-10.407,7.055,-14.374,3.2026,-11.221,-6.6335,-5.7143,-5.7778,-11.937,-9.0177,-7.6651,30.725,-14.476,1.9704,-12.367
-8.3412,-5.614,-4.4878,-0.71895,-17.162001,-2.8618,-11.707,2.5243,-16.976,-0.71895,-17.162001,-10.614,-3.8095,-0.69841,-10.667,-3.8647,-6.3768,21.707001,-8.127,1.9704,-2.0612
-14.028,-8.1659,-11.642,-5.2941,-16.502001,-11.317,-17.561001,-1.3592,-21.528,-5.2941,-16.502001,-17.91,-5.7143,-2.6032,-11.937,-6.4412,-9.5974,8.1804,-9.3968,-1.9704,-3.9936
-15.924,-11.356,-18.797001,-5.2941,-11.881,-12.618,-18.862,1.877,-20.228001,-5.2941,-11.881,-18.573999,-8.8889,-2.6032,-13.841,-7.0853,-13.462,4.9597,-10.667,-2.6273,-3.3494
-16.556,-13.27,-25.301001,-8.5621,-13.861,-14.569,-19.511999,-2.0065,-18.275999,-8.5621,-13.861,-19.9,-11.429,-0.69841,-17.650999,-6.4412,-15.395,-55.588001,-15.111,-11.166,-6.57
-5.1817,-4.3381,-18.146,-2.6797,-11.221,-8.065,-11.057,0.58252,-11.772,-2.6797,-11.221,-11.277,-3.1746,10.095,-8.7619,3.8647,-6.3768,-40.772999,-8.7619,-6.5681,1.8035
0.50553,5.8692,-4.4878,7.1242,1.9802,0.39024,1.3008,7.055,-0.06504,7.1242,1.9802,0.0,9.5238,20.254,2.0317,13.527,3.285,27.504,5.2063,5.9113,14.042
-2.0221,9.697,2.0163,11.046,11.221,4.2927,7.1545,8.3495,5.1382,11.046,11.221,3.9801,12.063,18.983999,5.2063,13.527,5.8615,32.657001,13.46,7.225,14.042
-6.4455,4.5933,-1.2358,5.1634,7.2607,0.39024,3.252,3.8188,1.2358,5.1634,7.2607,-0.66335,5.0794,12.635,2.0317,9.6618,3.285,13.977,-1.1429,0.0,7.6006
-2.654,0.12759,-4.4878,0.58824,0.0,-2.8618,-0.65041,2.5243,-2.6667,0.58824,0.0,-4.6434,1.2698,8.8254,2.0317,5.7971,1.9968,3.6715,-10.032,-2.6273,1.8035
8.7204,-1.7863,-2.5366,0.58824,-1.3201,0.39024,-2.6016,7.7023,-2.6667,0.58824,-1.3201,-3.9801,1.9048,7.5556,7.746,5.153,4.5733,-13.72,-3.0476,-0.65681,3.0918
9.3523,-5.614,-3.187,1.8954,0.0,2.3415,-2.6016,12.233,-2.0163,1.8954,0.0,-3.3167,-0.63492,3.1111,7.1111,1.9324,2.6409,8.1804,3.9365,1.9704,1.8035
1.1374,-6.89,-9.6911,1.2418,-3.9604,1.0407,-5.2033,10.291,-2.6667,1.2418,-3.9604,-5.9701,-8.254,-4.5079,-3.0476,-3.8647,-5.0886,13.333,2.0317,-0.65681,-9.7907
1.1374,-1.7863,-8.3902,6.4706,-0.66007,6.8943,-0.65041,16.117001,-0.06504,6.4706,-0.66007,-1.3267,-6.9841,-0.69841,-6.2222,0.64412,-5.0886,4.3156,5.8413,3.2841,-0.12882
-4.5498,-4.3381,-13.593,1.2418,0.66007,1.6911,-1.9512,10.291,-0.71545,1.2418,0.66007,-5.3068,-12.698,-7.6825,-12.571,-4.5089,-11.53,15.91,-2.4127,-2.6273,-0.12882
-9.6051,-11.994,-20.747999,-6.6013,-2.6403,-10.016,-5.8537,-0.71197,-3.9675,-6.6013,-2.6403,-12.604,-18.413,-17.841,-16.381001,-15.459,-20.548,22.995001,-7.4921,-6.5681,-5.9259
-6.4455,-13.907,-22.049,-8.5621,-3.3003,-11.317,-7.1545,-0.06472,-3.9675,-8.5621,-3.3003,-14.594,-17.143,-21.650999,-14.476,-20.612,-24.412001,-6.6345,5.2063,-5.9113,-7.8583
-3.2859,-8.8038,-19.447001,-3.9869,0.66007,-4.1626,-3.252,2.5243,-0.06504,-3.9869,0.66007,-7.2968,-16.507999,-19.746,-15.111,-16.747,-23.768,1.7391,6.4762,-3.2841,2.4477
-5.1817,-5.614,-14.894,-2.0261,1.9802,-1.561,-1.9512,0.58252,-0.06504,-2.0261,1.9802,-3.3167,-13.333,-14.667,-13.841,-10.95,-17.971001,17.841999,0.7619,-1.9704,1.8035
-0.75829,-3.7002,-7.0894,-0.71895,2.6403,1.0407,-1.3008,0.58252,1.2358,-0.71895,2.6403,0.0,-5.7143,-8.3175,-4.9524,-5.153,-8.3092,16.554001,4.5714,-0.65681,-0.77295
6.1927,4.5933,2.0163,4.5098,3.9604,4.9431,5.2033,5.1133,5.1382,4.5098,3.9604,5.9701,1.9048,-1.9683,4.5714,1.2882,0.06441,-4.058,19.174999,1.3136,1.1594
3.0332,7.1451,1.3659,3.2026,3.3003,2.3415,5.8537,4.466,3.187,3.2026,3.3003,5.9701,4.4444,-0.69841,3.3016,3.8647,0.06441,-7.9227,10.921,1.9704,4.38
-8.9731,3.9553,-5.1382,-5.2941,-3.9604,-7.4146,0.65041,-5.89,-5.2683,-5.2941,-3.9604,0.0,-0.63492,-1.3333,-5.5873,1.9324,-3.8003,-24.025999,-4.9524,-4.5977,3.0918
-11.501,5.2313,-3.8374,-8.5621,-11.221,-11.317,1.9512,-10.421,-5.9187,-8.5621,-11.221,-0.66335,1.2698,5.0159,-5.5873,5.7971,0.06441,-21.448999,-0.50794,-5.9113,1.8035
-8.9731,11.611,3.9675,-2.6797,-6.6007,-6.1138,9.1057,-5.89,-1.3659,-2.6797,-6.6007,5.9701,8.8889,15.175,1.3968,14.171,9.0821,12.689,3.9365,0.0,8.2448
-4.5498,15.439,8.5203,3.8562,5.2805,3.6423,14.309,-2.0065,3.8374,3.8562,5.2805,13.93,10.794,17.714001,4.5714,16.747,11.014,13.977,14.095,1.9704,13.398
6.1927,19.266001,15.024,11.699,15.182,14.699,18.862,3.8188,10.992,11.699,15.182,21.226999,13.968,23.429001,9.0159,21.256001,14.235,-6.6345,23.618999,3.9409,21.127001
10.616,15.439,14.374,6.4706,5.9406,14.699,13.008,1.2298,3.187,6.4706,5.9406,16.584,9.5238,20.889,9.0159,18.035,12.947,-4.7021,12.19,3.2841,16.618
9.9842,10.335,9.1707,3.2026,-0.66007,12.098,7.1545,1.877,-1.3659,3.2026,-0.66007,10.614,2.5397,10.095,5.2063,10.306,7.7939,6.8921,5.8413,0.0,6.9565
13.776,12.249,11.122,9.7386,2.6403,17.301001,9.1057,11.586,1.8862,9.7386,2.6403,13.267,1.9048,5.0159,7.1111,6.4412,7.1498,6.248,3.3016,2.6273,3.0918
15.671,6.5072,8.5203,10.392,-0.66007,17.951,5.8537,15.469,-0.06504,10.392,-0.66007,12.604,0.0,0.57143,6.4762,-0.64412,2.6409,-7.9227,3.3016,3.2841,3.0918
12.512,-2.4242,5.2683,8.4314,-2.6403,14.049,3.252,14.175,-1.3659,8.4314,-2.6403,9.9502,-1.2698,-3.873,5.2063,-9.0177,-2.5121,9.4686,2.6667,2.6273,1.1594
3.0332,-10.08,-2.5366,2.549,-5.2805,4.9431,-3.9024,5.7605,-1.3659,2.549,-5.2805,1.3267,-5.7143,-10.857,-0.50794,-18.035,-8.9533,8.8245,0.7619,-5.2545,-9.7907
-6.4455,-13.907,-7.0894,-2.6797,-9.2409,-2.2114,-10.407,1.2298,-3.3171,-2.6797,-9.2409,-6.6335,-7.619,-13.397,-4.9524,-19.968,-10.886,11.401,0.7619,-8.5386,-9.7907
-10.237,-13.907,-10.341,-3.3333,-6.6007,-4.813,-12.358,1.877,-3.3171,-3.3333,-6.6007,-11.94,-8.254,-13.397,-7.4921,-17.391001,-10.242,8.8245,-3.6825,-8.5386,-11.723
-3.9179,-5.614,-8.3902,-0.71895,0.66007,-2.8618,-9.7561,5.7605,1.2358,-0.71895,0.66007,-11.277,-0.63492,-8.9524,-3.0476,-8.3736,-5.7327,6.248,-7.4921,-0.65681,-7.2142
-0.75829,-3.0622,-6.439,-3.9869,-4.6205,-6.7642,-12.358,3.1715,-1.3659,-3.9869,-4.6205,-15.257,2.5397,-4.5079,-0.50794,-0.64412,-2.5121,6.8921,-5.5873,5.9113,2.4477
-5.8136,-8.8038,-11.642,-11.176,-13.861,-16.52,-20.813,-4.5955,-9.1707,-11.176,-13.861,-25.207001,0.0,-4.5079,-3.6825,-1.2882,-5.0886,-0.19324,0.7619,2.6273,0.5153
-9.6051,-13.907,-17.496,-15.752,-15.182,-23.024,-23.415001,-5.89,-9.8211,-15.752,-15.182,-31.177,0.0,-4.5079,-4.9524,-3.2206,-7.0209,-20.160999,3.3016,-1.9704,-3.3494
-8.3412,-11.356,-16.195,-12.484,-9.2409,-22.374001,-16.910999,-5.2427,-3.9675,-12.484,-9.2409,-27.197001,4.4444,0.57143,-1.1429,0.64412,-3.8003,-13.076,5.8413,0.65681,-0.77295
-1.3902,0.76555,-5.1382,-0.06536,4.6205,-13.919,-3.252,3.1715,10.992,-0.06536,4.6205,-15.257,10.794,8.1905,5.8413,10.306,5.8615,12.045,19.809999,9.8522,7.6006
-10.869,1.4035,-5.7886,-5.9477,0.66007,-19.122,-5.8537,-3.301,5.7886,-5.9477,0.66007,-18.573999,4.4444,3.1111,-1.1429,7.7295,4.5733,-1.4815,8.381,5.2545,5.6683
-17.188,-1.1483,-7.0894,-13.137,-7.2607,-24.976,-12.358,-13.657,-5.2683,-13.137,-7.2607,-22.554001,-1.2698,5.0159,-5.5873,6.4412,3.9291,-15.008,-6.8571,-1.3136,1.1594
-14.66,-1.7863,-6.439,-13.137,-11.221,-22.374001,-15.61,-13.657,-9.8211,-13.137,-11.221,-21.226999,-0.63492,9.4603,-3.6825,10.306,7.7939,3.6715,-7.4921,-0.65681,3.7359
-8.9731,-3.7002,-5.7886,-9.8693,-12.541,-16.52,-14.959,-10.421,-12.423,-9.8693,-12.541,-15.92,-3.8095,6.2857,-3.6825,8.3736,5.2174,12.689,-1.7778,-3.2841,6.3124
4.297,-4.3381,6.5691,1.8954,-0.66007,1.0407,-3.252,-0.71197,-6.5691,1.8954,-0.66007,0.66335,-7.619,0.57143,0.12698,1.9324,5.2174,6.8921,-2.4127,-3.2841,-1.4171
16.302999,-0.51037,20.228001,14.314,14.521,19.902,13.008,10.939,3.187,14.314,14.521,19.9,-8.8889,-5.7778,5.2063,-5.153,5.8615,5.6039,-4.3175,-2.6273,-4.6377
28.309999,13.525,31.934999,28.693001,29.042999,35.512001,27.316999,24.531,17.496,28.693001,29.042999,35.820999,-4.4444,-3.873,12.825,-1.9324,11.014,-6.6345,2.6667,1.9704,-4.6377
18.830999,9.697,21.528,23.464001,18.482,28.358,18.211,17.410999,9.0407,23.464001,18.482,27.861,-10.794,-12.762,5.2063,-9.6618,1.3527,-13.076,-1.1429,-7.225,-13.655
4.297,4.5933,13.724,13.66,9.901,14.699,11.707,3.1715,1.8862,13.66,9.901,19.237,-14.603,-19.746,-1.7778,-16.103001,-6.3768,12.045,-8.7619,-11.166,-16.232
0.50553,8.4211,17.625999,13.66,13.861,10.797,15.61,2.5243,7.7398,13.66,13.861,19.9,-11.429,-20.381001,-1.1429,-13.527,-3.8003,22.995001,-8.7619,-5.9113,-14.944
0.50553,6.5072,16.976,14.314,16.502001,8.8455,14.959,4.466,10.341,14.314,16.502001,19.9,-8.254,-20.381001,-1.1429,-12.882,-1.868,15.91,-4.9524,-1.3136,-13.655
1.7694,0.76555,8.5203,11.046,14.521,6.2439,9.1057,4.466,8.3902,11.046,14.521,13.267,-8.8889,-22.285999,-1.7778,-14.815,-4.4444,11.401,-1.7778,1.3136,-15.588
9.3523,-2.4242,2.0163,14.314,13.861,8.8455,5.2033,10.939,7.7398,14.314,13.861,9.9502,-4.4444,-17.841,2.0317,-14.171,-5.7327,17.841999,0.12698,7.8818,-16.232
10.616,-3.7002,-0.58537,14.314,12.541,8.1951,1.3008,11.586,6.439,14.314,12.541,5.3068,1.2698,-11.492,3.3016,-10.306,-5.7327,15.91,7.746,12.479,-11.079
5.5608,-3.7002,-0.58537,9.085,7.2607,2.9919,-2.6016,6.4078,5.1382,9.085,7.2607,-1.3267,2.5397,-9.5873,1.3968,-7.0853,-4.4444,-20.160999,11.556,9.8522,-4.6377
-8.3412,-11.994,-6.439,-4.6405,-6.6007,-10.667,-11.057,-6.5372,-2.6667,-4.6405,-6.6007,-13.93,-3.8095,-14.667,-9.3968,-13.527,-10.886,-41.417,2.0317,0.65681,-11.079
-17.188,-17.735001,-12.293,-13.137,-13.201,-18.472,-14.959,-11.715,-7.2195,-13.137,-13.201,-19.237,-5.7143,-15.937,-15.111,-16.747,-16.039,-25.958,-6.2222,-3.2841,-12.367
-15.292,-16.459,-14.244,-9.8693,-6.6007,-14.569,-11.057,-8.479,-2.0163,-9.8693,-6.6007,-16.584,-1.2698,-8.3175,-13.206,-10.306,-15.395,-5.9903,-3.0476,-1.9704,-1.4171
-13.397,-13.907,-18.146,-9.2157,-4.6205,-13.919,-11.707,-10.421,-1.3659,-9.2157,-4.6205,-17.91,2.5397,-3.2381,-9.3968,-5.7971,-14.75,3.0274,2.0317,0.65681,6.9565
-8.3412,-9.4418,-16.195,-9.8693,-3.9604,-12.618,-11.707,-11.715,-0.71545,-9.8693,-3.9604,-18.573999,3.8095,-0.69841,-3.6825,-0.64412,-10.886,-5.3462,7.746,0.0,10.177
-5.8136,-4.3381,-7.0894,-8.5621,-2.6403,-10.016,-9.7561,-8.479,-0.06504,-8.5621,-2.6403,-15.92,3.1746,3.1111,0.7619,4.5089,-4.4444,-4.7021,15.365,-1.3136,12.11
-2.654,-0.51037,0.71545,-5.9477,-3.3003,-7.4146,-7.1545,-7.1845,-0.06504,-5.9477,-3.3003,-12.604,1.9048,5.6508,2.0317,7.7295,0.70853,-29.179001,12.825,-1.3136,13.398
1.1374,0.76555,5.2683,-7.2549,-6.6007,-5.4634,-9.1057,-7.1845,-3.3171,-7.2549,-6.6007,-11.277,-3.8095,5.6508,0.7619,8.3736,2.6409,-37.551998,5.8413,-7.8818,11.465
1.7694,6.5072,10.472,-9.2157,-5.9406,-4.1626,-5.8537,-10.421,-2.6667,-9.2157,-5.9406,-7.2968,-6.9841,8.8254,2.6667,12.238,7.7939,-16.940001,2.6667,-9.8522,11.465
5.5608,14.163,15.024,-7.2549,-1.3201,-0.26016,1.3008,-9.7735,3.187,-7.2549,-1.3201,-0.66335,-3.8095,11.365,7.746,17.391001,12.947,-2.7697,3.3016,-5.9113,15.33
8.0885,16.715,14.374,-3.3333,-0.66007,1.0407,5.2033,-7.8317,3.8374,-3.3333,-0.66007,3.9801,2.5397,15.175,11.556,20.612,16.167,2.3833,10.921,1.3136,19.195
2.4013,10.973,7.2195,-4.6405,-3.9604,-4.813,2.6016,-11.068,-4.6179,-4.6405,-3.9604,0.66335,3.8095,10.73,9.0159,13.527,11.014,-25.313999,6.4762,3.2841,10.821
1.1374,7.7831,4.6179,-4.6405,-2.6403,-3.5122,3.252,-8.479,-10.472,-4.6405,-2.6403,3.3167,6.3492,9.4603,6.4762,8.3736,7.7939,-48.501999,-6.2222,3.9409,0.5153
8.0885,19.903999,15.024,7.7778,9.2409,7.5447,18.862,1.877,2.5366,7.7778,9.2409,17.91,20.952,21.524,16.635,18.68,18.743999,3.6715,3.9365,16.42,8.8889
-0.12638,16.715,10.472,5.1634,9.2409,0.39024,15.61,-5.2427,3.8374,5.1634,9.2409,13.267,17.778,16.444,10.921,15.459,14.235,19.129999,0.7619,9.1954,8.8889
2.4013,14.163,9.8211,3.2026,7.9208,-2.8618,12.358,-5.2427,2.5366,3.2026,7.9208,9.2869,13.968,16.444,7.746,13.527,10.37,8.1804,-1.7778,5.9113,10.177
8.7204,12.887,11.772,3.2026,5.9406,0.39024,11.707,-4.5955,2.5366,3.2026,5.9406,9.9502,12.698,18.349001,7.1111,13.527,9.0821,-25.313999,5.8413,1.9704,12.754
4.9289,9.697,9.1707,1.8954,5.2805,1.6911,9.1057,-3.9482,2.5366,1.8954,5.2805,9.2869,11.429,17.079,3.9365,9.6618,5.2174,-12.432,10.286,0.0,9.533
2.4013,9.697,9.8211,6.4706,11.881,6.8943,13.008,2.5243,6.439,6.4706,11.881,13.93,13.968,18.349001,5.2063,9.0177,5.8615,10.113,14.095,5.2545,11.465
-1.3902,7.1451,8.5203,4.5098,6.6007,8.1951,11.707,1.2298,3.187,4.5098,6.6007,15.257,11.429,15.81,2.6667,6.4412,3.9291,-5.9903,5.2063,5.2545,10.821
-7.7093,-1.7863,0.06504,-2.6797,-3.3003,1.0407,0.65041,-8.479,-9.1707,-2.6797,-3.3003,7.2968,3.8095,6.2857,-4.3175,-1.9324,-3.1562,-22.093,-7.4921,-4.5977,0.5153
-7.7093,-6.252,-2.5366,-2.0261,-1.9802,-2.2114,-5.2033,-11.715,-14.374,-2.0261,-1.9802,3.9801,4.4444,1.2063,-3.0476,-5.153,-4.4444,2.3833,-9.3968,-4.5977,-6.57
1.7694,-2.4242,3.9675,6.4706,7.2607,4.2927,0.65041,-0.71197,-9.8211,6.4706,7.2607,9.2869,10.794,3.1111,4.5714,-0.64412,1.3527,8.8245,-6.8571,0.65681,-3.9936
6.1927,-0.51037,7.2195,8.4314,7.9208,8.8455,1.9512,3.1715,-10.472,8.4314,7.9208,11.277,11.429,3.1111,7.746,0.64412,4.5733,8.1804,-9.3968,1.3136,-5.9259
11.88,5.8692,11.772,11.699,7.2607,13.398,5.2033,7.7023,-9.1707,11.699,7.2607,14.594,15.873,8.1905,13.46,7.0853,10.37,21.707001,-10.032,7.8818,-3.3494
15.671,7.7831,11.772,12.353,5.2805,14.699,6.5041,10.939,-9.1707,12.353,5.2805,13.267,17.143,8.1905,16.635,8.3736,12.303,12.045,-6.8571,11.823,-3.3494
17.566999,5.8692,9.1707,7.7778,3.3003,10.146,3.9024,5.7605,-9.8211,7.7778,3.3003,7.9602,16.507999,6.2857,17.27,7.0853,12.303,-15.652,-13.206,8.5386,-1.4171
12.512,3.3174,7.2195,3.8562,-1.9802,3.6423,0.65041,0.58252,-12.423,3.8562,-1.9802,3.3167,17.778,6.9206,16.635,7.0853,11.659,3.0274,-9.3968,9.1954,1.1594
11.248,4.5933,7.8699,6.4706,0.0,5.5935,2.6016,8.3495,-9.1707,6.4706,0.0,3.9801,20.316999,11.365,17.905001,10.306,14.235,15.266,-11.937,16.42,3.7359
4.297,-0.51037,2.6667,3.8562,0.0,3.6423,-1.3008,6.4078,-12.423,3.8562,0.0,0.66335,15.238,10.73,10.921,7.0853,9.7262,13.333,-14.476,11.823,-2.7053
-7.0774,-13.27,-10.992,0.58824,-3.9604,-4.813,-13.008,1.2298,-17.625999,0.58824,-3.9604,-9.2869,3.8095,0.57143,-3.6825,-3.8647,-3.8003,-9.2109,-18.921,0.65681,-9.1465
-2.0221,-13.907,-12.943,4.5098,-6.6007,-0.26016,-14.309,7.055,-15.024,4.5098,-6.6007,-7.9602,5.0794,2.4762,-3.6825,-1.2882,-5.7327,-11.143,-12.571,6.5681,-2.7053
3.0332,-11.994,-12.943,5.817,-7.2607,2.3415,-13.659,11.586,-12.423,5.817,-7.2607,-5.9701,5.0794,3.1111,-1.7778,0.64412,-6.3768,23.639,-4.9524,7.225,1.8035
-4.5498,-20.924999,-21.398001,-2.0261,-16.502001,-4.1626,-19.511999,2.5243,-16.325001,-2.0261,-16.502001,-12.604,-6.9841,-7.0476,-11.302,-7.7295,-16.683001,6.8921,-13.206,-3.9409,-2.0612
-7.7093,-18.372999,-19.447001,-2.6797,-11.221,-3.5122,-14.959,1.2298,-9.8211,-2.6797,-11.221,-9.9502,-14.603,-10.857,-14.476,-10.306,-20.548,0.45089,-4.9524,-7.225,-0.12882
-7.7093,-10.718,-14.894,-1.3725,-3.9604,-0.91057,-8.4553,1.2298,-5.2683,-1.3725,-3.9604,-5.3068,-17.778,-12.762,-14.476,-9.0177,-17.971001,-2.1256,-1.1429,-14.45,1.1594
-2.0221,-1.1483,-5.1382,4.5098,0.66007,6.8943,-0.65041,5.1133,-0.71545,4.5098,0.66007,2.6534,-15.238,-7.6825,-8.7619,-1.2882,-8.3092,-16.940001,-0.50794,-17.733999,5.0242
-0.12638,5.8692,2.0163,5.817,5.2805,8.1951,2.6016,6.4078,1.8862,5.817,5.2805,5.9701,-10.159,-2.6032,-3.0476,3.8647,0.70853,9.4686,5.2063,-12.479,8.2448
2.4013,7.7831,5.2683,4.5098,3.3003,8.1951,3.9024,7.7023,-0.06504,4.5098,3.3003,7.9602,-3.1746,3.746,2.6667,7.0853,6.5056,17.198,3.3016,-7.225,7.6006
6.8246,4.5933,1.3659,6.4706,1.9802,9.4959,4.5528,11.586,-2.6667,6.4706,1.9802,9.2869,0.0,5.0159,4.5714,5.153,5.2174,-12.432,5.8413,-6.5681,-0.12882
7.4566,1.4035,-3.187,7.1242,-2.6403,7.5447,3.9024,8.9968,-5.9187,7.1242,-2.6403,8.6235,1.2698,3.1111,5.2063,1.9324,3.9291,10.757,-1.7778,-1.3136,-0.12882
2.4013,-3.0622,-4.4878,3.8562,-5.9406,4.2927,0.65041,2.5243,-11.122,3.8562,-5.9406,5.9701,5.0794,4.381,5.2063,1.9324,3.9291,33.945,-9.3968,3.9409,-1.4171
7.4566,0.76555,0.71545,4.5098,0.66007,4.9431,2.6016,5.7605,-9.1707,4.5098,0.66007,5.9701,10.159,6.9206,10.286,4.5089,8.438,22.351,-10.667,9.8522,-8.5024
8.7204,2.6794,0.71545,4.5098,1.9802,2.9919,3.252,7.055,-7.8699,4.5098,1.9802,3.9801,13.333,5.6508,12.825,5.153,10.37,-0.83736,-4.9524,12.479,-6.57
8.7204,0.76555,-2.5366,3.2026,0.66007,0.39024,3.252,8.3495,-6.5691,3.2026,0.66007,1.3267,18.413,6.2857,14.095,4.5089,10.37,-13.076,0.7619,15.107,-1.4171
8.7204,-3.0622,-6.439,0.58824,0.66007,-2.2114,0.65041,5.1133,-5.2683,0.58824,0.66007,-1.99,19.683001,6.2857,13.46,1.9324,6.5056,-7.2786,-3.6825,16.42,1.1594
6.8246,-4.3381,-5.7886,3.8562,5.2805,0.39024,1.3008,7.055,-5.2683,3.8562,5.2805,0.0,18.413,4.381,10.286,-1.2882,2.6409,19.129999,-12.571,17.077,-4.6377
1.7694,-6.89,-7.7398,1.8954,1.9802,-1.561,-3.252,5.1133,-8.5203,1.8954,1.9802,-2.6534,12.698,0.57143,4.5714,-5.153,-2.5121,41.030998,-18.285999,17.077,-6.57
-5.1817,-10.08,-11.642,-2.0261,-2.6403,-5.4634,-7.8049,1.877,-10.472,-2.0261,-2.6403,-7.2968,4.4444,-4.5079,-1.7778,-6.4412,-6.3768,17.198,-11.302,7.8818,-8.5024
-4.5498,-5.614,-8.3902,3.2026,4.6205,-2.2114,-3.252,8.3495,-1.3659,3.2026,4.6205,-4.6434,1.9048,0.57143,-1.7778,-0.64412,-1.868,3.0274,2.0317,1.9704,-2.0612
-11.501,-7.5279,-12.293,-1.3725,0.0,-6.7642,-7.8049,0.58252,-3.9675,-1.3725,0.0,-8.6235,-6.3492,-2.6032,-8.7619,-2.5765,-5.7327,-16.296,1.3968,-5.9113,-3.9936
-10.237,-3.7002,-8.3902,1.2418,0.0,-4.1626,-5.2033,3.1715,-2.0163,1.2418,0.0,-3.9801,-6.3492,1.8413,-7.4921,3.8647,-2.5121,3.0274,-3.6825,-4.5977,0.5153
-10.237,-6.252,-9.0407,-2.0261,-4.6205,-5.4634,-8.4553,0.58252,-4.6179,-2.0261,-4.6205,-5.3068,-8.8889,2.4762,-8.127,4.5089,-2.5121,8.8245,-8.127,-7.8818,2.4477
-12.133,-9.4418,-11.642,-6.6013,-10.561,-6.7642,-10.407,-3.301,-7.2195,-6.6013,-10.561,-7.2968,-9.5238,1.8413,-8.127,1.9324,-3.8003,0.45089,-3.0476,-9.8522,1.1594
-7.0774,-4.9761,-5.1382,-3.3333,-1.9802,-0.91057,-3.9024,-0.06472,-2.0163,-3.3333,-1.9802,-1.3267,-6.9841,4.381,-3.6825,4.5089,0.06441,4.3156,2.6667,-7.8818,5.0242
-5.8136,1.4035,-0.58537,-3.3333,1.9802,-0.26016,-0.65041,-2.6537,0.58537,-3.3333,1.9802,0.66335,-8.8889,2.4762,-4.3175,5.153,1.3527,-36.264,1.3968,-12.479,3.0918
-3.9179,8.4211,6.5691,0.58824,2.6403,2.9919,5.2033,0.58252,5.1382,0.58824,2.6403,5.9701,-1.9048,8.1905,0.12698,11.594,7.7939,2.3833,3.3016,-4.5977,5.6683
-1.3902,11.611,9.1707,2.549,4.6205,4.9431,7.8049,3.8188,8.3902,2.549,4.6205,8.6235,6.3492,12.0,5.2063,15.459,12.303,35.877998,11.556,5.2545,10.177
5.5608,17.351999,11.122,7.7778,12.541,10.797,14.959,9.644,15.545,7.7778,12.541,15.92,15.238,17.079,10.286,19.968,15.523,15.91,21.079,15.107,18.551001
5.5608,19.266001,10.472,9.7386,16.502001,10.797,17.561001,7.7023,16.846001,9.7386,16.502001,18.573999,12.698,13.905,7.746,16.747,12.947,9.4686,23.618999,11.166,18.551001
-0.75829,10.335,4.6179,-0.71895,0.0,2.3415,6.5041,-1.3592,5.1382,-0.71895,0.0,7.9602,0.63492,-0.06349,-3.0476,3.8647,3.285,-10.499,11.556,-1.3136,6.3124
-2.0221,6.5072,3.9675,-5.9477,-5.9406,1.0407,3.252,-3.9482,-0.06504,-5.9477,-5.9406,5.9701,-3.1746,-4.5079,-6.2222,0.0,1.3527,2.3833,-0.50794,-1.3136,3.0918
-5.1817,5.2313,-1.2358,-2.6797,1.3201,1.6911,4.5528,-1.3592,4.4878,-2.6797,1.3201,5.9701,-3.8095,-1.3333,-8.7619,-1.2882,0.06441,-0.83736,0.7619,-3.2841,-3.9936
-2.0221,2.6794,-4.4878,-2.0261,1.3201,1.0407,3.9024,0.58252,2.5366,-2.0261,1.3201,3.9801,-5.0794,-3.2381,-8.127,-3.2206,-2.5121,-15.652,5.8413,-3.2841,-3.9936
-1.3902,0.76555,-5.1382,-3.3333,-0.66007,-2.8618,3.252,-0.06472,2.5366,-3.3333,-0.66007,0.66335,-4.4444,-4.5079,-5.5873,-4.5089,-3.1562,7.5362,9.6508,1.3136,3.7359
-6.4455,-3.0622,-9.0407,-9.2157,-4.6205,-10.016,-1.9512,-5.2427,1.8862,-9.2157,-4.6205,-5.9701,-6.9841,-5.7778,-7.4921,-7.7295,-7.6651,1.7391,7.746,0.0,1.8035
-5.8136,-7.5279,-10.341,-12.484,-8.5809,-11.967,-5.2033,-6.5372,-0.71545,-12.484,-8.5809,-9.2869,-12.063,-6.4127,-8.127,-9.0177,-10.886,-13.076,-0.50794,-1.9704,-0.77295
-3.2859,-4.9761,-9.6911,-8.5621,-5.2805,-9.3659,-1.3008,-3.301,3.187,-8.5621,-5.2805,-7.9602,-12.698,-1.3333,-5.5873,-5.7971,-8.9533,-2.7697,0.7619,-1.9704,1.8035
-2.0221,-5.614,-9.6911,-6.6013,-6.6007,-6.7642,-0.65041,-2.6537,3.8374,-6.6013,-6.6007,-7.2968,-9.5238,3.746,-2.4127,-1.2882,-5.0886,-0.19324,0.12698,-5.2545,6.9565
-2.654,-6.252,-9.0407,-11.83,-7.9208,-9.3659,-2.6016,-5.89,3.8374,-11.83,-7.9208,-9.2869,-8.254,3.1111,-1.1429,-0.64412,-3.8003,9.4686,5.2063,-7.8818,3.7359
-0.12638,3.9553,-1.2358,-11.83,-4.6205,-7.4146,1.9512,-4.5955,8.3902,-11.83,-4.6205,-5.9701,-2.5397,4.381,2.6667,5.153,1.9968,6.248,12.825,-5.9113,1.8035
-8.3412,6.5072,-1.2358,-14.444,-8.5809,-8.065,0.65041,-8.479,3.187,-14.444,-8.5809,-6.6335,-4.4444,3.1111,-2.4127,6.4412,1.3527,-20.160999,6.4762,-13.136,5.0242
-11.501,7.1451,-3.187,-11.83,-9.2409,-7.4146,0.65041,-8.479,1.8862,-11.83,-9.2409,-5.9701,-5.0794,3.1111,-3.6825,6.4412,1.9968,-17.584999,-1.1429,-14.45,3.7359
-5.8136,7.7831,1.3659,-9.2157,-9.901,-4.1626,1.3008,-5.89,1.2358,-9.2157,-9.901,-1.99,-1.9048,5.6508,2.6667,7.7295,7.1498,14.622,0.7619,-6.5681,6.3124
-5.8136,2.0415,-0.58537,-11.83,-13.861,-6.1138,-3.252,-7.1845,-4.6179,-11.83,-13.861,-4.6434,-8.8889,-5.1429,-3.0476,-3.2206,0.06441,12.689,5.2063,-8.5386,-2.7053
-2.0221,-1.7863,-0.58537,-8.5621,-11.221,-1.561,-2.6016,-2.0065,-3.9675,-8.5621,-11.221,-1.99,-14.603,-15.937,-8.7619,-14.171,-8.9533,-18.872999,4.5714,-11.823,-13.011
4.9289,2.0415,6.5691,-0.06536,-1.9802,8.1951,5.2033,5.7605,3.8374,-0.06536,-1.9802,7.2968,-11.429,-13.397,-4.9524,-12.238,-5.7327,1.095,1.3968,-2.6273,-11.079
5.5608,5.2313,9.1707,3.2026,0.66007,14.049,9.1057,7.055,8.3902,3.2026,0.66007,11.94,-8.8889,-9.5873,-3.6825,-8.3736,-1.2238,2.3833,2.0317,1.9704,-7.8583
-5.1817,-8.8038,-0.58537,-7.2549,-7.2607,2.9919,-2.6016,-4.5955,-2.0163,-7.2549,-7.2607,1.99,-12.063,-14.667,-10.032,-15.459,-7.6651,15.91,-13.841,-1.9704,-13.011
-4.5498,-15.821,-2.5366,-10.523,-9.901,-3.5122,-9.7561,-7.1845,-6.5691,-10.523,-9.901,-4.6434,-6.9841,-15.302,-7.4921,-17.391001,-8.9533,15.266,-9.3968,0.65681,-15.588
1.1374,-17.097,-4.4878,-9.8693,-13.861,-4.1626,-11.707,-0.71197,-6.5691,-9.8693,-13.861,-7.2968,-4.4444,-15.302,-6.2222,-21.256001,-12.174,6.248,-3.0476,0.65681,-14.944
3.0332,-16.459,-7.7398,-9.8693,-13.201,-4.813,-9.7561,-2.0065,-3.3171,-9.8693,-13.201,-7.9602,-5.0794,-15.302,-6.8571,-21.9,-14.75,-7.2786,9.6508,-3.2841,-13.655
5.5608,-9.4418,-8.3902,-7.9085,-8.5809,-4.813,-7.8049,-3.301,-0.06504,-7.9085,-8.5809,-8.6235,-0.63492,-8.3175,-1.1429,-15.459,-8.9533,-36.908001,7.746,-1.9704,-7.8583
4.297,0.76555,-1.8862,-4.6405,-0.66007,-2.8618,-3.9024,-0.06472,5.1382,-4.6405,-0.66007,-6.6335,6.3492,-0.06349,5.2063,-5.7971,-0.57971,-19.517,3.9365,7.8818,-2.0612
-7.7093,2.6794,0.71545,-3.9869,-0.66007,-2.8618,-4.5528,-2.0065,4.4878,-3.9869,-0.66007,-7.2968,3.1746,0.57143,-1.1429,-0.64412,0.06441,19.775,0.7619,5.2545,6.3124
-14.66,-4.9761,-5.7886,-5.2941,-11.221,-7.4146,-11.707,-5.89,-2.0163,-5.2941,-11.221,-12.604,-4.4444,-3.2381,-10.032,-1.9324,-5.7327,16.554001,3.3016,-5.9113,7.6006
-10.237,-9.4418,-8.3902,-4.6405,-11.881,-6.7642,-12.358,-4.5955,-3.9675,-4.6405,-11.881,-13.267,-5.7143,-5.7778,-8.127,-2.5765,-6.3768,12.045,5.8413,-6.5681,3.0918
-3.9179,-5.614,-9.0407,-0.06536,-1.3201,-1.561,-7.8049,1.877,0.58537,-0.06536,-1.3201,-10.614,-4.4444,-1.9683,-1.7778,2.5765,-1.868,4.3156,9.6508,-2.6273,9.533
3.6651,3.3174,-6.439,3.2026,4.6205,1.0407,-4.5528,5.7605,7.0894,3.2026,4.6205,-8.6235,-5.7143,1.2063,2.0317,7.7295,2.6409,-54.299999,11.556,-5.2545,4.38
4.297,8.4211,-0.58537,-2.0261,-1.3201,-3.5122,-5.2033,-0.71197,4.4878,-2.0261,-1.3201,-9.9502,-4.4444,6.9206,5.2063,14.171,8.438,-18.872999,4.5714,-1.9704,9.533
-5.1817,3.3174,-2.5366,-10.523,-12.541,-12.618,-9.7561,-10.421,-2.6667,-10.523,-12.541,-15.257,-9.5238,5.0159,0.7619,10.95,4.5733,33.300999,3.9365,-4.5977,12.11
-8.3412,-4.3381,-9.0407,-13.137,-16.502001,-13.919,-11.707,-10.421,-6.5691,-13.137,-16.502001,-16.584,-12.698,-0.06349,-6.2222,1.9324,-4.4444,22.351,-1.1429,-9.8522,1.8035
-4.5498,-4.3381,-8.3902,-4.6405,-7.2607,-2.8618,-4.5528,-1.3592,-1.3659,-4.6405,-7.2607,-7.2968,-10.794,-0.69841,-8.7619,0.0,-6.3768,15.91,0.12698,-8.5386,3.0918
2.4013,2.0415,0.06504,7.1242,4.6205,11.447,7.8049,10.291,7.7398,7.1242,4.6205,6.6335,-8.254,-0.06349,-6.8571,2.5765,-1.868,11.401,12.825,-3.9409,5.6683
11.248,6.5072,8.5203,11.046,9.901,17.301001,11.057,14.175,7.0894,11.046,9.901,13.267,-2.5397,1.2063,-0.50794,5.7971,3.9291,1.095,10.286,3.9409,6.3124
15.039,7.1451,13.724,11.046,8.5809,15.35,8.4553,9.644,3.187,11.046,8.5809,14.594,4.4444,3.746,5.8413,7.0853,7.7939,-2.1256,3.3016,9.1954,5.6683
6.1927,-2.4242,4.6179,-3.9869,-2.6403,2.3415,-3.252,-3.301,-7.2195,-3.9869,-2.6403,3.3167,-3.1746,-4.5079,-2.4127,-6.4412,-2.5121,-21.448999,-6.8571,0.0,-9.1465
-3.9179,-11.356,-4.4878,-9.8693,-8.5809,-4.813,-6.5041,-9.7735,-13.073,-9.8693,-8.5809,-1.99,-6.3492,-12.762,-10.032,-18.035,-14.106,-13.076,-17.650999,-1.9704,-16.875999
-9.6051,-19.649,-10.341,-9.2157,-7.9208,-6.7642,-7.8049,-11.715,-11.122,-9.2157,-7.9208,-3.3167,-6.9841,-16.570999,-13.206,-23.188,-18.615,3.6715,-15.111,-1.3136,-14.3
-7.0774,-19.649,-9.6911,-10.523,-7.9208,-9.3659,-8.4553,-11.715,-7.2195,-10.523,-7.9208,-5.9701,-3.1746,-14.667,-8.127,-21.256001,-14.106,-9.2109,-11.302,0.0,-11.079
-7.7093,-15.821,-6.439,-13.791,-11.221,-11.967,-9.7561,-14.304,-3.3171,-13.791,-11.221,-7.9602,2.5397,-8.9524,-3.0476,-14.815,-7.6651,-4.7021,-3.6825,1.9704,-3.9936
-10.869,-15.183,-8.3902,-11.83,-8.5809,-13.268,-12.358,-13.657,-1.3659,-11.83,-8.5809,-9.2869,0.63492,-8.9524,-4.9524,-13.527,-7.6651,3.6715,0.12698,0.0,-5.9259
-6.4455,-8.8038,-6.439,-5.2941,1.9802,-8.7154,-6.5041,-7.8317,3.8374,-5.2941,1.9802,-5.3068,3.1746,-3.2381,-1.1429,-7.7295,-4.4444,6.8921,5.2063,2.6273,-3.9936
-8.9731,-10.08,-9.0407,-8.5621,-1.9802,-10.016,-5.8537,-11.068,1.8862,-8.5621,-1.9802,-6.6335,-1.9048,-3.2381,-6.2222,-7.0853,-7.6651,-25.313999,5.2063,-3.9409,-2.0612
-3.9179,-5.614,-4.4878,-5.9477,-2.6403,-4.813,0.0,-7.1845,5.7886,-5.9477,-2.6403,-1.99,-4.4444,-1.9683,-6.8571,-3.2206,-5.7327,-51.723,2.6667,-5.2545,2.4477
1.7694,0.76555,3.3171,0.58824,2.6403,2.3415,7.8049,1.2298,11.642,0.58824,2.6403,5.9701,-1.2698,-0.06349,-3.6825,2.5765,-2.5121,-12.432,5.8413,-1.9704,10.821
1.7694,6.5072,6.5691,1.2418,2.6403,3.6423,9.7561,0.58252,9.6911,1.2418,2.6403,7.9602,0.63492,3.1111,-1.1429,6.4412,1.3527,26.216,11.556,2.6273,12.11
-2.654,10.973,5.2683,-0.71895,3.3003,1.6911,10.407,-2.6537,8.3902,-0.71895,3.3003,5.9701,0.0,3.1111,-2.4127,8.3736,1.9968,17.841999,9.6508,1.9704,7.6006
1.1374,19.266001,10.472,1.2418,6.6007,6.8943,16.910999,0.58252,12.943,1.2418,6.6007,10.614,0.0,8.1905,-0.50794,14.171,5.2174,10.757,14.095,0.65681,11.465
14.408,28.198,20.228001,7.7778,14.521,16.65,25.365999,8.9968,19.447001,7.7778,14.521,19.237,3.8095,14.54,7.746,20.612,11.014,-4.7021,15.365,3.9409,15.33
20.726999,25.007999,22.179001,7.7778,13.861,17.951,24.715,10.291,16.846001,7.7778,13.861,19.9,5.7143,12.635,10.921,18.035,11.014,-34.332001,7.746,4.5977,14.042
13.144,14.801,15.675,4.5098,3.3003,10.797,15.61,1.877,10.992,4.5098,3.3003,12.604,-0.63492,3.746,5.2063,9.6618,3.9291,-24.025999,-3.0476,0.0,8.2448
8.0885,10.335,14.374,4.5098,1.9802,8.1951,11.707,1.2298,6.439,4.5098,1.9802,10.614,-1.9048,1.8413,4.5714,6.4412,1.9968,19.129999,-3.6825,0.0,6.3124
8.7204,10.335,16.325001,4.5098,1.9802,10.146,12.358,2.5243,5.7886,4.5098,1.9802,11.94,2.5397,-0.06349,6.4762,2.5765,3.285,22.351,-1.7778,4.5977,-0.12882
9.3523,10.973,15.024,2.549,3.3003,10.146,11.707,1.2298,5.7886,2.549,3.3003,11.277,3.1746,-1.9683,6.4762,0.0,4.5733,15.91,0.7619,7.8818,-5.9259
10.616,9.697,13.073,0.58824,3.3003,9.4959,11.057,1.877,5.7886,0.58824,3.3003,10.614,4.4444,-0.69841,7.1111,-0.64412,5.8615,10.757,-6.2222,8.5386,-3.9936
4.9289,2.0415,4.6179,-2.6797,-1.3201,4.9431,5.8537,-1.3592,1.8862,-2.6797,-1.3201,5.3068,2.5397,-3.2381,2.6667,-8.3736,0.06441,-26.601999,-11.937,-1.9704,-17.52
12.512,8.4211,10.472,7.1242,9.901,13.398,12.358,7.7023,12.293,7.1242,9.901,12.604,12.063,7.5556,11.556,0.0,8.438,-6.6345,-4.9524,7.8818,-7.8583
-0.75829,-1.1483,1.3659,-0.71895,1.3201,4.9431,3.252,-0.71197,3.187,-0.71895,1.3201,3.9801,5.7143,0.57143,1.3968,-6.4412,0.70853,10.757,-9.3968,4.5977,-3.3494
-16.556,-13.907,-12.293,-12.484,-11.881,-9.3659,-8.4553,-12.362,-5.9187,-12.484,-11.881,-8.6235,-5.0794,-8.3175,-11.937,-16.747,-11.53,8.1804,-10.032,-5.9113,-13.655
-9.6051,-8.8038,-5.1382,-11.176,-13.201,-7.4146,-5.2033,-10.421,-1.3659,-11.176,-13.201,-5.9701,-0.63492,-5.7778,-4.3175,-12.882,-5.7327,3.0274,-3.0476,-0.65681,-16.232
-0.12638,-4.9761,-0.58537,-7.9085,-9.2409,-5.4634,-2.6016,-6.5372,-0.71545,-7.9085,-9.2409,-2.6534,6.9841,-1.9683,5.2063,-7.7295,0.06441,-11.143,0.12698,3.2841,-13.011
8.7204,-1.7863,2.0163,-3.3333,0.0,-0.91057,0.65041,-1.3592,2.5366,-3.3333,0.0,1.3267,13.333,5.0159,10.286,-0.64412,5.2174,-20.160999,-4.3175,7.225,-0.12882
10.616,2.0415,7.2195,1.8954,4.6205,3.6423,4.5528,1.877,8.3902,1.8954,4.6205,6.6335,18.413,10.73,12.19,7.0853,9.0821,13.977,-6.2222,16.42,4.38
4.297,2.0415,3.9675,-0.06536,0.0,1.0407,0.65041,0.58252,7.0894,-0.06536,0.0,3.3167,13.333,10.73,7.746,9.6618,7.1498,13.977,-3.0476,11.823,3.7359
-5.8136,-2.4242,-3.8374,-5.2941,-6.6007,-6.1138,-5.8537,-5.2427,1.2358,-5.2941,-6.6007,-5.3068,3.8095,6.2857,-1.1429,8.3736,0.70853,3.6715,2.6667,-0.65681,1.8035
-3.9179,3.3174,-1.2358,-2.0261,-0.66007,-4.813,0.0,-2.6537,6.439,-2.0261,-0.66007,-4.6434,1.2698,6.2857,-0.50794,11.594,3.285,14.622,11.556,-3.9409,4.38
0.50553,9.697,3.9675,-0.71895,0.0,-2.8618,3.9024,-2.0065,10.341,-0.71895,0.0,-1.99,-1.2698,6.9206,2.6667,14.171,7.1498,8.8245,7.1111,-5.2545,7.6006
1.7694,12.249,5.9187,-1.3725,-2.6403,-3.5122,5.2033,-2.6537,10.992,-1.3725,-2.6403,-1.3267,-5.0794,5.0159,2.0317,10.95,6.5056,6.8921,-2.4127,-7.225,3.7359
-0.12638,9.059,3.9675,-1.3725,-4.6205,-2.8618,2.6016,1.877,9.0407,-1.3725,-4.6205,-3.3167,-6.9841,1.8413,-0.50794,5.7971,3.9291,-3.4138,0.12698,-7.8818,0.5153
6.1927,7.7831,4.6179,2.549,-3.9604,2.3415,3.252,7.055,7.7398,2.549,-3.9604,-1.3267,0.63492,3.1111,4.5714,5.153,6.5056,-11.787,5.2063,0.0,1.1594
-0.12638,-4.9761,-5.7886,-7.9085,-13.861,-5.4634,-7.8049,-3.9482,-5.9187,-7.9085,-13.861,-11.277,-0.63492,-8.3175,-0.50794,-9.6618,-3.1562,-8.5668,-13.206,-1.3136,-13.655
3.6651,0.12759,0.71545,-5.2941,-9.901,-2.2114,-2.6016,-2.6537,-1.3659,-5.2941,-9.901,-7.2968,4.4444,-4.5079,3.9365,-7.0853,0.06441,-5.9903,-8.7619,1.9704,-10.435
6.8246,10.973,11.772,1.2418,0.0,4.9431,6.5041,1.2298,9.6911,1.2418,0.0,2.6534,10.794,5.6508,10.286,2.5765,8.438,-4.7021,2.6667,2.6273,4.38
0.50553,9.059,11.122,-3.9869,-3.9604,-0.26016,1.3008,-4.5955,5.7886,-3.9869,-3.9604,-0.66335,10.159,5.0159,9.6508,1.9324,9.7262,-0.83736,1.3968,0.0,3.0918
-3.2859,5.2313,7.2195,-5.2941,-9.2409,-6.1138,-2.6016,-7.1845,4.4878,-5.2941,-9.2409,-5.3068,10.794,3.746,7.746,-0.64412,7.1498,6.248,-2.4127,1.9704,-4.6377
-4.5498,-2.4242,0.71545,-5.2941,-9.2409,-9.3659,-4.5528,-9.1262,4.4878,-5.2941,-9.2409,-7.2968,8.8889,1.8413,3.9365,-6.4412,-0.57971,10.113,-2.4127,1.9704,-10.435
-0.12638,-3.7002,3.3171,-5.2941,-5.9406,-6.1138,-1.9512,-5.89,4.4878,-5.2941,-5.9406,-3.9801,10.159,3.1111,5.2063,-5.153,0.06441,1.095,7.1111,5.9113,-8.5024
-3.2859,-3.0622,5.2683,-7.2549,-5.9406,-6.7642,-2.6016,-7.1845,3.8374,-7.2549,-5.9406,-3.3167,8.254,2.4762,0.7619,-3.2206,0.70853,-32.398998,-1.1429,4.5977,-7.8583
-5.1817,0.76555,7.2195,-7.9085,-5.9406,-7.4146,-1.9512,-9.1262,4.4878,-7.9085,-5.9406,-1.99,8.8889,6.2857,-1.1429,1.2882,1.3527,-26.601999,-2.4127,5.2545,-1.4171
-3.9179,1.4035,5.9187,-5.9477,-1.3201,-6.7642,-1.3008,-9.1262,5.7886,-5.9477,-1.3201,0.0,9.5238,6.2857,0.7619,1.2882,1.3527,13.977,2.0317,9.1954,-0.12882
-3.2859,0.12759,2.6667,-5.2941,0.0,-6.7642,-1.3008,-8.479,4.4878,-5.2941,0.0,0.0,6.3492,3.1111,1.3968,-0.64412,0.06441,17.841999,0.12698,5.2545,0.5153
-2.654,2.0415,5.2683,-2.6797,0.0,-4.813,1.3008,-3.301,5.1382,-2.6797,0.0,1.3267,0.63492,1.8413,0.12698,1.2882,1.9968,6.8921,7.746,-1.9704,3.7359
-0.75829,10.973,9.8211,2.549,3.9604,-0.26016,7.1545,3.1715,11.642,2.549,3.9604,5.9701,-1.2698,4.381,1.3968,6.4412,7.1498,-12.432,12.19,-4.5977,2.4477
-5.8136,9.059,2.6667,-0.06536,3.9604,-4.1626,5.2033,-2.0065,5.7886,-0.06536,3.9604,2.6534,-8.254,-1.3333,-4.9524,3.2206,3.285,-33.688,-4.3175,-10.509,-1.4171
-2.0221,10.973,3.3171,5.1634,13.201,2.9919,12.358,3.1715,8.3902,5.1634,13.201,9.9502,-8.8889,1.8413,-4.3175,7.0853,3.9291,-4.058,-4.3175,-9.1954,8.2448
0.50553,11.611,4.6179,8.4314,9.2409,7.5447,14.309,7.055,8.3902,8.4314,9.2409,14.594,-12.063,1.8413,-4.3175,8.3736,3.285,13.333,3.9365,-11.823,9.533
1.7694,12.887,7.8699,11.046,6.6007,8.8455,13.008,9.644,7.0894,11.046,6.6007,13.93,-10.794,2.4762,-1.7778,10.95,5.2174,0.45089,7.746,-13.136,6.3124
3.6651,12.249,9.8211,7.1242,4.6205,4.9431,8.4553,6.4078,-0.06504,7.1242,4.6205,10.614,-5.0794,1.8413,4.5714,10.95,9.0821,6.248,0.7619,-6.5681,3.0918
4.297,6.5072,3.9675,2.549,-3.9604,-0.26016,0.65041,3.8188,-10.472,2.549,-3.9604,2.6534,-1.9048,-1.3333,6.4762,7.7295,7.7939,-0.19324,-9.3968,-5.2545,1.1594
0.50553,0.12759,-5.1382,0.58824,-4.6205,-2.8618,-5.2033,3.1715,-15.024,0.58824,-4.6205,-3.3167,-3.1746,-3.2381,2.0317,4.5089,2.6409,-27.889999,-13.841,-4.5977,-3.3494
-2.0221,-0.51037,-8.3902,3.8562,-2.6403,-0.91057,-5.8537,2.5243,-13.724,3.8562,-2.6403,-3.3167,-0.63492,0.57143,-1.7778,3.8647,0.06441,-13.076,-17.650999,0.65681,-2.7053
1.1374,-4.3381,-5.1382,13.007,3.9604,6.8943,-3.252,14.175,-7.8699,13.007,3.9604,1.3267,5.7143,6.2857,0.12698,3.8647,0.06441,15.266,-10.032,6.5681,2.4477
-3.2859,-15.821,-9.6911,7.7778,-5.2805,2.9919,-11.057,9.644,-14.374,7.7778,-5.2805,-5.3068,5.7143,1.2063,-3.0476,-5.7971,-6.3768,4.9597,-18.921,3.9409,-2.0612
-5.1817,-15.821,-12.293,1.8954,-12.541,-0.91057,-15.61,3.1715,-17.625999,1.8954,-12.541,-10.614,6.3492,-1.3333,-4.3175,-9.0177,-7.6651,0.45089,-20.825001,3.9409,-8.5024
-0.12638,-10.08,-8.3902,3.8562,-4.6205,2.3415,-12.358,7.055,-13.724,3.8562,-4.6205,-7.9602,10.159,1.8413,0.7619,-6.4412,-4.4444,21.063,-15.111,9.8522,-11.723
1.7694,-10.718,-9.0407,6.4706,-1.3201,2.3415,-11.057,8.3495,-13.073,6.4706,-1.3201,-6.6335,8.8889,0.57143,2.0317,-7.7295,-5.7327,6.248,-9.3968,7.225,-14.3
8.0885,-9.4418,-4.4878,13.66,6.6007,7.5447,-4.5528,14.822,-4.6179,13.66,6.6007,-0.66335,10.159,1.2063,7.1111,-5.153,-3.1562,-7.2786,-7.4921,5.9113,-7.8583
13.776,-4.9761,3.9675,18.889,15.842,12.098,2.6016,19.353001,2.5366,18.889,15.842,6.6335,12.698,1.2063,13.46,-2.5765,1.9968,17.841999,-4.3175,11.166,-1.4171
6.8246,-8.1659,0.06504,12.353,10.561,6.8943,-0.65041,11.586,-2.6667,12.353,10.561,2.6534,1.2698,-8.3175,7.1111,-10.306,-2.5121,26.216,-7.4921,2.6273,-9.7907
-0.75829,-11.994,-4.4878,8.4314,5.2805,3.6423,-3.9024,5.7605,-8.5203,8.4314,5.2805,0.0,-12.698,-15.302,-1.7778,-16.747,-7.6651,4.3156,-11.302,-9.8522,-21.385
5.5608,-4.3381,2.0163,12.353,9.2409,12.098,1.3008,10.291,-5.2683,12.353,9.2409,7.2968,-11.429,-9.5873,0.7619,-10.306,-2.5121,-4.7021,-7.4921,-7.8818,-16.875999
8.0885,-1.1483,3.3171,14.314,7.2607,17.301001,3.9024,12.88,-3.9675,14.314,7.2607,11.277,-8.8889,-5.7778,2.0317,-3.8647,0.70853,-11.787,-6.2222,-4.5977,-4.6377
14.408,3.3174,8.5203,18.235001,9.901,21.202999,5.8537,18.058001,0.58537,18.235001,9.901,15.257,-5.0794,-2.6032,5.8413,0.64412,5.2174,-0.83736,0.7619,-1.3136,0.5153
14.408,5.2313,10.472,14.314,7.9208,16.65,4.5528,14.822,-2.0163,14.314,7.9208,12.604,-3.1746,-1.3333,7.746,3.2206,7.7939,2.3833,4.5714,-0.65681,3.7359
5.5608,4.5933,8.5203,8.4314,10.561,7.5447,4.5528,5.1133,-4.6179,8.4314,10.561,9.2869,-1.9048,-3.2381,3.9365,2.5765,5.8615,7.5362,1.3968,1.9704,3.0918
-7.0774,2.0415,2.6667,5.1634,10.561,0.39024,2.6016,-3.301,-8.5203,5.1634,10.561,5.3068,-5.7143,-5.1429,-4.3175,-1.9324,0.70853,-0.83736,2.6667,-3.2841,-7.2142
-3.9179,7.7831,6.5691,6.4706,8.5809,2.3415,5.2033,-0.71197,-4.6179,6.4706,8.5809,7.9602,0.63492,4.381,0.12698,8.3736,8.438,-4.058,-1.7778,-0.65681,4.38
-2.0221,7.7831,3.9675,2.549,7.2607,0.39024,2.6016,-2.0065,-3.3171,2.549,7.2607,3.3167,5.0794,7.5556,2.0317,10.306,7.7939,-5.3462,1.3968,1.9704,10.821
-0.75829,5.8692,0.71545,1.8954,6.6007,-0.26016,1.3008,-1.3592,-5.9187,1.8954,6.6007,1.3267,8.254,8.8254,3.3016,8.3736,5.2174,-15.652,0.12698,3.2841,8.8889
6.8246,8.4211,2.6667,9.085,10.561,2.3415,5.2033,3.8188,-3.9675,9.085,10.561,4.6434,15.873,13.905,10.286,10.95,7.7939,-7.2786,7.1111,15.107,11.465
0.50553,-3.7002,-8.3902,1.2418,-1.3201,-8.7154,-5.8537,-2.6537,-15.024,1.2418,-1.3201,-7.9602,9.5238,3.1111,2.0317,-1.9324,-3.8003,-0.19324,-5.5873,11.166,-2.0612
-6.4455,-13.907,-16.195,-6.6013,-11.221,-17.820999,-14.959,-7.1845,-23.48,-6.6013,-11.221,-17.91,5.7143,-2.6032,-3.0476,-12.238,-12.174,5.6039,-11.937,5.9113,-13.011
-3.9179,-11.994,-13.593,-3.9869,-1.9802,-14.569,-12.358,-2.0065,-18.927,-3.9869,-1.9802,-15.257,8.254,1.8413,-0.50794,-9.0177,-9.5974,10.757,-11.937,7.225,-7.2142
-9.6051,-15.821,-16.195,-5.2941,0.0,-14.569,-14.309,-3.301,-18.275999,-5.2941,0.0,-15.92,1.9048,-1.3333,-7.4921,-12.882,-13.462,4.3156,-7.4921,2.6273,-7.8583
-7.0774,-13.907,-11.642,1.2418,3.9604,-9.3659,-8.4553,1.2298,-13.073,1.2418,3.9604,-9.9502,2.5397,-2.6032,-4.3175,-11.594,-10.886,11.401,-4.3175,3.2841,-3.3494
1.1374,-11.994,-6.439,5.1634,4.6205,-6.1138,-5.8537,5.1133,-11.122,5.1634,4.6205,-7.2968,2.5397,-5.1429,3.3016,-11.594,-6.3768,19.775,-10.667,5.2545,-6.57
13.776,-7.5279,2.0163,11.699,9.2409,1.0407,-0.65041,12.88,-3.3171,11.699,9.2409,-2.6534,5.0794,-2.6032,13.46,-6.4412,1.3527,3.6715,4.5714,9.8522,-3.3494
8.0885,-10.718,-3.187,8.4314,2.6403,-1.561,-5.2033,9.644,-4.6179,8.4314,2.6403,-6.6335,-3.1746,-7.0476,5.8413,-9.0177,-1.868,1.7391,9.6508,3.2841,-2.7053
-1.3902,-14.545,-9.6911,2.549,0.66007,-4.813,-9.7561,6.4078,-11.772,2.549,0.66007,-10.614,-10.159,-10.857,-4.3175,-10.306,-5.0886,-1.4815,-1.1429,-1.9704,-3.9936
-4.5498,-11.994,-7.7398,3.2026,2.6403,-2.8618,-9.7561,7.055,-12.423,3.2026,2.6403,-8.6235,-9.5238,-8.3175,-5.5873,-4.5089,-1.2238,12.045,-3.0476,0.0,-1.4171
-7.0774,-10.718,-5.7886,5.1634,-0.66007,-2.2114,-11.057,6.4078,-11.122,5.1634,-0.66007,-7.9602,-12.698,-8.9524,-7.4921,-1.9324,0.70853,15.266,0.7619,0.0,2.4477
-5.8136,-8.1659,-5.7886,7.1242,1.3201,-0.26016,-8.4553,8.9968,-11.772,7.1242,1.3201,-5.9701,-12.698,-8.9524,-6.8571,-0.64412,0.06441,5.6039,3.3016,1.3136,3.7359
-0.12638,-4.9761,-8.3902,9.7386,3.9604,4.2927,-5.8537,12.88,-11.122,9.7386,3.9604,-2.6534,-8.8889,-7.0476,-4.3175,-0.64412,-1.868,10.757,5.8413,3.9409,3.7359
6.1927,0.12759,-5.1382,11.699,7.9208,8.8455,-0.65041,12.88,-6.5691,11.699,7.9208,1.99,-2.5397,-0.69841,1.3968,2.5765,0.70853,20.419001,11.556,5.9113,6.9565
4.9289,3.3174,0.06504,8.4314,7.2607,8.8455,0.65041,7.055,-7.8699,8.4314,7.2607,3.9801,-3.1746,0.57143,-0.50794,3.8647,1.3527,4.3156,3.9365,-2.6273,7.6006
6.8246,11.611,9.1707,7.7778,2.6403,12.098,5.8537,7.7023,-7.2195,7.7778,2.6403,9.9502,0.63492,6.9206,1.3968,10.95,7.1498,-25.313999,-0.50794,-7.225,9.533
3.0332,13.525,11.772,9.7386,3.3003,10.146,7.8049,5.1133,-5.9187,9.7386,3.3003,11.94,0.63492,10.095,2.0317,12.882,8.438,-13.72,0.7619,-9.1954,10.177
-0.75829,11.611,9.1707,11.046,9.901,8.1951,6.5041,3.8188,-5.2683,11.046,9.901,11.94,-0.63492,6.9206,2.0317,11.594,7.1498,4.9597,7.746,-9.8522,10.177
3.0332,7.7831,8.5203,11.046,12.541,8.1951,6.5041,3.1715,-7.2195,11.046,12.541,11.94,-0.63492,5.6508,3.9365,9.6618,7.7939,-3.4138,-2.4127,-9.1954,6.9565
13.144,14.801,16.325001,14.314,13.201,13.398,13.659,10.291,-2.0163,14.314,13.201,15.92,5.0794,13.27,11.556,14.815,15.523,6.248,5.2063,-1.3136,11.465
16.302999,17.99,19.577,13.007,9.901,14.699,13.659,13.528,0.58537,13.007,9.901,14.594,7.619,16.444,13.46,15.459,16.812,13.333,11.556,5.2545,10.821
4.9289,9.697,8.5203,3.2026,-1.9802,5.5935,0.65041,5.1133,-10.472,3.2026,-1.9802,1.99,1.9048,8.1905,4.5714,7.7295,8.438,4.9597,0.12698,1.3136,0.5153
-5.8136,1.4035,-2.5366,-0.06536,-2.6403,-2.2114,-7.8049,-1.3592,-16.976,-0.06536,-2.6403,-6.6335,-2.5397,2.4762,-3.6825,1.9324,0.70853,8.8245,-6.2222,-1.9704,-0.77295
-9.6051,-3.7002,-7.0894,1.2418,3.3003,-4.813,-9.1057,-2.6537,-15.024,1.2418,3.3003,-7.2968,-2.5397,1.8413,-6.2222,0.0,-1.868,3.6715,-3.6825,-1.9704,0.5153
-7.7093,-3.7002,-5.1382,1.8954,-1.3201,-4.813,-7.1545,-2.0065,-12.423,1.8954,-1.3201,-6.6335,-1.2698,-0.06349,-5.5873,-1.2882,-1.868,-8.5668,-2.4127,-0.65681,-3.3494
-0.12638,3.9553,3.3171,7.1242,0.66007,1.0407,0.65041,5.1133,-3.9675,7.1242,0.66007,-1.3267,6.3492,7.5556,0.7619,5.7971,3.9291,-2.7697,8.381,7.8818,3.0918
-1.3902,4.5933,4.6179,4.5098,1.9802,-0.91057,0.65041,4.466,-3.3171,4.5098,1.9802,-3.3167,8.254,9.4603,1.3968,8.3736,5.2174,-4.7021,8.381,5.9113,8.2448
-3.9179,2.6794,0.06504,4.5098,3.9604,-2.8618,-2.6016,3.8188,-4.6179,4.5098,3.9604,-7.2968,5.0794,5.6508,0.12698,5.7971,2.6409,-4.7021,5.8413,-1.3136,5.0242
-7.7093,-4.9761,-9.0407,6.4706,4.6205,-3.5122,-3.9024,3.8188,-3.3171,6.4706,4.6205,-9.2869,-2.5397,-1.3333,-6.8571,-0.64412,-6.3768,-4.7021,3.3016,-7.225,2.4477
-10.869,-8.1659,-8.3902,10.392,9.901,-0.91057,-1.9512,3.1715,0.58537,10.392,9.901,-5.9701,-8.8889,-3.873,-11.302,-4.5089,-10.886,-2.7697,3.9365,-13.793,3.0918
-8.9731,-1.7863,0.06504,9.085,13.201,-0.26016,1.3008,1.877,4.4878,9.085,13.201,-1.3267,-12.063,-3.873,-8.7619,-1.2882,-7.0209,3.0274,11.556,-16.42,5.6683
-4.5498,7.1451,7.8699,5.817,11.221,-1.561,4.5528,1.2298,6.439,5.817,11.221,1.3267,-13.333,-3.2381,-2.4127,4.5089,1.3527,2.3833,19.809999,-18.391001,8.8889
3.0332,12.249,11.772,11.699,14.521,0.39024,9.1057,5.1133,9.0407,11.699,14.521,5.3068,-10.794,-0.06349,3.9365,8.3736,7.1498,-8.5668,17.27,-14.45,12.754
-0.12638,6.5072,5.9187,12.353,14.521,0.39024,8.4553,4.466,7.0894,12.353,14.521,5.3068,-13.968,-5.1429,-3.0476,0.0,-1.2238,-17.584999,12.19,-15.107,3.7359
-6.4455,-1.7863,1.3659,11.046,15.182,1.0407,5.8537,1.2298,3.8374,11.046,15.182,5.9701,-17.778,-11.492,-13.841,-10.95,-11.53,-25.313999,7.1111,-19.048,-2.7053
-5.8136,-1.7863,4.6179,13.66,17.162001,6.8943,5.2033,2.5243,3.187,13.66,17.162001,10.614,-11.429,-7.6825,-13.841,-7.0853,-9.5974,-10.499,5.2063,-11.166,2.4477
-4.5498,0.12759,5.9187,14.314,14.521,8.1951,5.8537,3.8188,0.58537,14.314,14.521,11.94,-6.9841,-4.5079,-11.302,-3.2206,-5.0886,-31.754999,-4.3175,-9.1954,0.5153
-2.654,-0.51037,1.3659,11.699,14.521,4.9431,5.2033,0.58252,-1.3659,11.699,14.521,10.614,-1.9048,-3.873,-7.4921,-3.8647,-3.8003,-15.008,-5.5873,-4.5977,-2.0612
3.0332,2.0415,1.3659,12.353,19.802,6.2439,10.407,2.5243,3.8374,12.353,19.802,11.94,8.254,-0.06349,0.12698,-0.64412,-1.2238,8.1804,7.1111,9.1954,-0.12882
2.4013,0.76555,0.06504,8.4314,16.502001,3.6423,10.407,-0.71197,3.187,8.4314,16.502001,9.2869,10.794,1.8413,0.12698,0.64412,-2.5121,1.095,3.9365,9.1954,3.0918
-0.75829,-2.4242,-0.58537,1.8954,5.9406,-0.26016,5.2033,-6.5372,-0.71545,1.8954,5.9406,4.6434,10.794,3.1111,-0.50794,3.2206,-3.8003,0.45089,3.3016,7.225,8.8889
-4.5498,-6.89,-3.8374,-2.6797,0.66007,-3.5122,-0.65041,-7.1845,-5.2683,-2.6797,0.66007,0.0,8.254,0.57143,-2.4127,1.2882,-5.7327,6.248,2.0317,6.5681,6.9565
-1.3902,-3.0622,-2.5366,-2.0261,7.9208,-0.26016,0.65041,-2.6537,-2.0163,-2.0261,7.9208,2.6534,9.5238,1.2063,2.6667,2.5765,-2.5121,-2.7697,4.5714,8.5386,8.2448
-2.0221,-3.0622,-5.7886,-2.0261,4.6205,-0.91057,0.0,-2.6537,-3.3171,-2.0261,4.6205,0.66335,3.1746,-1.9683,-0.50794,-0.64412,-5.0886,-4.058,4.5714,6.5681,5.0242
-3.9179,-3.0622,-5.1382,-2.6797,0.66007,-2.2114,-2.6016,-0.71197,-6.5691,-2.6797,0.66007,-1.3267,-0.63492,-2.6032,-2.4127,-3.8647,-6.3768,7.5362,2.0317,1.9704,-0.77295
1.7694,0.12759,2.6667,-0.71895,0.66007,-0.26016,-1.3008,3.8188,-5.2683,-0.71895,0.66007,-0.66335,4.4444,3.746,5.8413,3.2206,2.6409,-27.889999,8.381,1.9704,4.38
6.8246,0.76555,6.5691,3.2026,3.3003,0.39024,-1.3008,3.8188,-3.9675,3.2026,3.3003,-1.3267,6.3492,6.2857,12.19,7.0853,9.0821,-18.229,2.6667,3.2841,6.3124
-4.5498,-5.614,0.06504,-2.0261,0.66007,-6.1138,-6.5041,-3.301,-7.2195,-2.0261,0.66007,-7.2968,-3.1746,-0.69841,2.6667,0.64412,1.3527,17.198,-5.5873,-3.9409,1.1594
-6.4455,-2.4242,-1.2358,1.8954,0.0,-2.2114,-3.252,1.2298,-2.6667,1.8954,0.0,-4.6434,-6.3492,3.1111,-3.6825,2.5765,-0.57971,13.333,5.8413,-7.225,4.38
-3.9179,-3.0622,-7.0894,3.2026,-3.9604,-0.26016,-5.2033,2.5243,-5.9187,3.2026,-3.9604,-6.6335,-11.429,0.57143,-6.2222,1.9324,-1.2238,-12.432,1.3968,-11.166,0.5153
4.9289,-1.7863,-2.5366,6.4706,1.9802,3.6423,-5.2033,7.7023,-5.2683,6.4706,1.9802,-3.9801,-10.794,-2.6032,0.7619,2.5765,2.6409,-9.8551,-3.0476,-5.9113,-0.12882
13.776,6.5072,9.1707,11.046,8.5809,10.146,2.6016,13.528,-1.3659,11.046,8.5809,3.9801,-1.9048,1.2063,12.19,7.0853,9.7262,22.351,3.3016,7.8818,3.0918
6.8246,4.5933,6.5691,7.1242,6.6007,6.2439,1.9512,7.7023,-3.3171,7.1242,6.6007,1.3267,-1.9048,-1.9683,6.4762,1.9324,5.2174,5.6039,4.5714,7.8818,1.8035
3.0332,-0.51037,2.0163,3.8562,3.3003,2.9919,1.3008,3.8188,-3.3171,3.8562,3.3003,-1.3267,-1.2698,-3.2381,2.0317,-4.5089,-1.2238,-13.72,-4.3175,5.2545,-5.2818
0.50553,-3.7002,1.3659,3.8562,2.6403,1.0407,0.0,1.2298,-4.6179,3.8562,2.6403,-1.3267,1.9048,-3.873,2.0317,-6.4412,-5.7327,-1.4815,-10.032,6.5681,-3.9936
-1.3902,-5.614,0.71545,4.5098,0.0,-0.91057,-3.9024,2.5243,-7.8699,4.5098,0.0,-3.3167,4.4444,-3.873,1.3968,-7.0853,-7.0209,15.91,-11.302,7.8818,-2.0612
1.7694,-2.4242,-1.2358,5.817,2.6403,-0.26016,-2.6016,7.055,-4.6179,5.817,2.6403,-1.99,8.8889,1.2063,4.5714,-1.2882,-1.868,8.1804,-2.4127,9.8522,-0.77295
-0.12638,-2.4242,-10.341,4.5098,4.6205,-2.2114,-1.9512,5.1133,-2.6667,4.5098,4.6205,-2.6534,10.794,3.746,3.3016,0.64412,-3.1562,13.333,0.12698,11.166,1.8035
-5.1817,-6.89,-17.496,-0.06536,-0.66007,-6.7642,-5.2033,-0.06472,-5.2683,-0.06536,-0.66007,-5.9701,6.9841,1.2063,-1.7778,-4.5089,-8.9533,18.486,-4.3175,9.1954,-1.4171
-0.12638,-1.1483,-6.439,5.1634,2.6403,-1.561,0.0,6.4078,-1.3659,5.1634,2.6403,-0.66335,7.619,6.9206,0.7619,0.0,-3.8003,10.757,1.3968,7.8818,6.3124
-5.1817,-1.1483,-2.5366,3.8562,2.6403,-2.8618,-1.3008,5.1133,-2.6667,3.8562,2.6403,-1.99,-1.9048,5.0159,-4.9524,-0.64412,-4.4444,-8.5668,8.381,-0.65681,5.6683
-10.237,-4.9761,-4.4878,-2.6797,-1.3201,-7.4146,-7.1545,-3.301,-8.5203,-2.6797,-1.3201,-5.9701,-8.254,-0.69841,-8.7619,-4.5089,-7.6651,-22.093,-5.5873,-9.1954,0.5153
-5.1817,-5.614,-1.2358,-6.6013,-5.2805,-4.813,-6.5041,-5.89,-8.5203,-6.6013,-5.2805,-3.9801,-7.619,-0.69841,-5.5873,-1.9324,-5.7327,-12.432,-10.667,-9.1954,1.8035
1.7694,-1.1483,7.8699,-2.6797,-5.2805,2.9919,0.0,-0.06472,-5.9187,-2.6797,-5.2805,3.3167,-6.3492,1.8413,-0.50794,3.2206,-0.57971,-11.143,2.0317,-10.509,3.7359
6.1927,7.1451,16.325001,5.817,3.9604,10.146,7.8049,4.466,-1.3659,5.817,3.9604,11.94,-1.9048,3.1111,3.9365,8.3736,5.8615,9.4686,2.0317,-4.5977,6.3124
0.50553,7.1451,13.724,3.8562,4.6205,6.2439,3.9024,2.5243,-5.2683,3.8562,4.6205,6.6335,-3.8095,-0.69841,1.3968,7.7295,5.2174,24.283001,-1.7778,-0.65681,5.6683
4.297,7.7831,10.472,0.58824,1.3201,3.6423,1.3008,3.1715,-5.9187,0.58824,1.3201,1.99,-2.5397,-0.06349,3.3016,10.306,7.1498,7.5362,2.0317,0.0,8.2448
4.297,3.9553,5.2683,-5.2941,-3.9604,-1.561,-2.6016,-0.71197,-8.5203,-5.2941,-3.9604,-3.3167,-3.1746,-3.873,3.3016,5.7971,3.9291,3.0274,-3.6825,0.0,3.7359
-3.2859,-2.4242,-1.2358,-7.2549,-5.9406,-5.4634,-2.6016,-6.5372,-9.1707,-7.2549,-5.9406,-4.6434,-6.9841,-11.492,-3.0476,-3.8647,-3.8003,-11.143,-8.127,-4.5977,-7.8583
-2.654,0.76555,2.0163,2.549,6.6007,2.9919,7.8049,-2.0065,-0.71545,2.549,6.6007,7.2968,-5.0794,-13.397,-4.9524,-8.3736,-7.6651,-20.160999,-4.3175,-3.9409,-13.011
1.1374,2.0415,3.9675,5.1634,6.6007,7.5447,11.057,3.8188,0.58537,5.1634,6.6007,11.94,-1.2698,-12.762,-3.6825,-9.6618,-8.3092,0.45089,-10.032,0.65681,-15.588
10.616,7.1451,9.8211,6.4706,3.9604,9.4959,11.057,8.3495,3.8374,6.4706,3.9604,12.604,8.254,-2.6032,7.746,0.0,3.285,15.91,-5.5873,11.166,-3.9936
16.302999,12.249,13.724,7.7778,8.5809,9.4959,12.358,10.939,8.3902,7.7778,8.5809,12.604,15.873,10.095,17.27,11.594,14.235,36.521999,7.746,21.018,8.8889
1.1374,0.12759,-1.2358,-4.6405,0.66007,-4.1626,-1.9512,-0.06472,-3.9675,-4.6405,0.66007,-1.99,5.7143,-0.06349,3.9365,0.0,1.9968,34.589001,-1.1429,11.823,-2.0612
-12.765,-13.27,-14.894,-13.137,-9.2409,-13.268,-12.358,-7.1845,-14.374,-13.137,-9.2409,-12.604,-7.619,-14.032,-11.937,-16.103001,-15.395,1.095,-8.7619,-1.3136,-14.944
-5.8136,-11.994,-10.341,-5.9477,-7.9208,-6.7642,-7.8049,-2.0065,-11.772,-5.9477,-7.9208,-6.6335,-1.2698,-11.492,-6.8571,-16.747,-12.818,8.1804,-6.8571,3.9409,-14.944
-0.12638,-11.994,-5.1382,-5.2941,-4.6205,-6.7642,-7.1545,-3.9482,-11.122,-5.2941,-4.6205,-5.3068,4.4444,-10.222,-0.50794,-18.035,-9.5974,3.0274,-12.571,5.9113,-15.588
1.7694,-13.907,-3.8374,-7.2549,-4.6205,-7.4146,-8.4553,-5.89,-13.724,-7.2549,-4.6205,-5.9701,8.8889,-8.9524,1.3968,-18.035,-7.6651,-16.296,-15.746,7.8818,-17.52
2.4013,-11.356,-1.8862,-6.6013,-13.201,-6.1138,-10.407,-3.301,-16.325001,-6.6013,-13.201,-6.6335,17.143,1.8413,4.5714,-9.0177,-1.868,-2.1256,-17.016001,14.45,-14.3
-3.2859,-6.89,-3.8374,-6.6013,-13.201,-8.7154,-11.707,-3.301,-17.625999,-6.6013,-13.201,-9.9502,15.873,8.1905,3.9365,-0.64412,2.6409,24.927999,-15.111,10.509,-8.5024
-2.0221,4.5933,0.06504,1.2418,-0.66007,-2.8618,-3.9024,-0.06472,-5.9187,1.2418,-0.66007,-3.9801,12.698,10.73,5.2063,9.6618,9.0821,12.045,-3.0476,4.5977,2.4477
2.4013,7.7831,2.6667,3.2026,3.9604,1.0407,-1.3008,1.877,-2.0163,3.2026,3.9604,-1.3267,5.0794,6.2857,2.6667,10.95,9.0821,-34.976002,2.0317,-3.9409,6.9565
6.8246,7.7831,7.2195,1.8954,1.9802,2.3415,-1.3008,-0.06472,-5.2683,1.8954,1.9802,-0.66335,2.5397,5.0159,3.9365,12.238,10.37,-13.076,5.2063,-1.3136,10.821
7.4566,10.973,11.122,0.58824,-1.3201,1.0407,-1.3008,-0.06472,-5.2683,0.58824,-1.3201,0.0,5.0794,7.5556,8.381,13.527,13.591,24.927999,6.4762,1.9704,11.465
4.9289,5.2313,6.5691,-0.71895,-3.3003,-4.1626,-5.8537,-2.0065,-9.1707,-0.71895,-3.3003,-4.6434,5.0794,4.381,9.6508,6.4412,9.7262,12.045,-3.0476,0.0,3.0918
6.1927,2.0415,5.2683,4.5098,0.66007,-0.26016,-2.6016,2.5243,-7.8699,4.5098,0.66007,-1.99,3.8095,3.746,10.286,3.2206,7.1498,-1.4815,-7.4921,0.0,-0.12882
1.7694,-0.51037,3.3171,9.7386,6.6007,4.2927,2.6016,5.1133,-4.6179,9.7386,6.6007,1.99,-3.8095,4.381,1.3968,0.64412,2.6409,-21.448999,-8.127,-5.9113,-2.0612
3.0332,1.4035,6.5691,16.275,10.561,9.4959,7.8049,9.644,-0.71545,16.275,10.561,8.6235,-1.9048,9.4603,-0.50794,3.2206,1.9968,0.45089,-8.7619,0.0,-2.7053
-5.8136,-6.89,-2.5366,5.817,-1.9802,-0.26016,-0.65041,0.58252,-11.772,5.817,-1.9802,0.0,-8.8889,-0.06349,-10.032,-7.0853,-7.6651,4.9597,-15.111,-6.5681,-14.3
-2.0221,-10.08,-4.4878,1.8954,-5.2805,-0.91057,-3.9024,3.1715,-13.073,1.8954,-5.2805,-2.6534,-9.5238,-3.2381,-9.3968,-8.3736,-8.3092,-13.076,-20.190001,-7.8818,-16.232
4.297,-6.252,-1.8862,6.4706,4.6205,4.2927,-0.65041,11.586,-5.9187,6.4706,4.6205,0.0,-6.9841,-2.6032,-3.6825,-4.5089,-3.8003,-0.83736,-16.381001,-3.9409,-11.723
3.0332,-5.614,-3.187,10.392,9.901,3.6423,1.3008,12.233,-2.6667,10.392,9.901,0.66335,-5.7143,-2.6032,-3.6825,-3.8647,-3.1562,18.486,-11.302,-1.3136,-7.8583
-0.75829,-6.89,-7.7398,8.4314,9.2409,0.39024,0.0,8.3495,-3.3171,8.4314,9.2409,-1.3267,-2.5397,-1.9683,-5.5873,-5.153,-4.4444,3.0274,-6.2222,-1.9704,-8.5024
4.297,0.12759,-1.2358,13.66,15.182,6.2439,5.8537,14.822,2.5366,13.66,15.182,5.3068,8.8889,6.9206,2.6667,1.2882,3.285,13.977,2.6667,5.2545,-2.0612
-0.75829,-4.3381,-4.4878,7.1242,7.9208,1.6911,2.6016,8.9968,-3.3171,7.1242,7.9208,1.99,8.8889,3.1111,-0.50794,-6.4412,-1.2238,5.6039,-10.032,2.6273,-11.079
-7.0774,-13.907,-10.341,1.8954,3.9604,-4.1626,-1.9512,3.8188,-7.8699,1.8954,3.9604,-1.99,4.4444,-5.1429,-6.2222,-18.68,-11.53,17.841999,-14.476,-0.65681,-20.097
-1.3902,-11.356,-5.1382,4.5098,4.6205,-0.26016,1.3008,7.7023,-5.9187,4.5098,4.6205,3.3167,7.619,-3.873,-1.7778,-18.68,-9.5974,-1.4815,-13.206,4.5977,-18.808001
3.6651,-11.356,-3.187,1.2418,2.6403,2.3415,-1.3008,5.1133,-8.5203,1.2418,2.6403,5.3068,6.9841,-1.3333,0.12698,-14.171,-6.3768,-11.143,-13.841,1.9704,-12.367
1.7694,-11.994,-3.187,0.58824,1.3201,3.6423,-3.9024,3.1715,-9.8211,0.58824,1.3201,5.3068,2.5397,2.4762,-1.1429,-7.7295,-3.1562,6.248,-7.4921,-1.3136,-5.9259
3.0332,-4.3381,-1.8862,4.5098,2.6403,8.1951,-1.9512,6.4078,-9.1707,4.5098,2.6403,8.6235,-0.63492,5.6508,-0.50794,1.2882,-0.57971,6.8921,1.3968,0.0,3.0918
1.1374,2.6794,-3.8374,-1.3725,-3.3003,6.2439,-3.9024,1.2298,-13.073,-1.3725,-3.3003,5.9701,-8.8889,2.4762,-4.9524,4.5089,-1.2238,15.266,5.8413,-3.2841,4.38
-2.654,6.5072,-0.58537,-0.06536,-1.9802,6.8943,-3.252,3.1715,-12.423,-0.06536,-1.9802,6.6335,-14.603,0.57143,-8.127,7.0853,0.70853,21.707001,3.9365,-2.6273,6.3124
1.1374,8.4211,7.2195,7.1242,1.3201,10.797,-0.65041,8.3495,-11.772,7.1242,1.3201,9.9502,-12.063,5.0159,-3.6825,10.95,5.8615,13.333,-1.7778,-0.65681,10.177
1.1374,7.7831,6.5691,3.8562,-3.3003,7.5447,-3.252,5.1133,-16.325001,3.8562,-3.3003,7.2968,-12.063,2.4762,-4.9524,9.0177,5.8615,-29.179001,-6.8571,-5.9113,7.6006
-2.654,8.4211,0.71545,-0.71895,-7.2607,2.9919,-3.252,0.58252,-18.927,-0.71895,-7.2607,3.3167,-10.159,3.1111,-7.4921,9.0177,5.8615,-14.364,-11.302,-5.2545,1.1594
3.0332,17.99,5.2683,6.4706,-1.9802,8.1951,6.5041,8.3495,-10.472,6.4706,-1.9802,9.9502,1.2698,14.54,0.12698,21.256001,16.167,35.233002,-4.3175,4.5977,11.465
-3.2859,10.335,-1.8862,0.58824,-7.9208,-0.26016,0.0,4.466,-14.374,0.58824,-7.9208,1.3267,-1.2698,10.095,-4.3175,16.103001,9.7262,10.757,3.9365,0.65681,12.754
-3.2859,5.2313,-1.8862,-5.9477,-8.5809,-6.7642,-4.5528,1.877,-15.675,-5.9477,-8.5809,-5.3068,1.9048,8.1905,-1.1429,12.238,7.1498,-7.2786,10.921,1.9704,11.465
2.4013,5.8692,1.3659,-4.6405,-7.2607,-6.1138,-3.252,4.466,-12.423,-4.6405,-7.2607,-3.9801,6.3492,6.2857,5.8413,9.6618,8.438,-4.7021,-0.50794,6.5681,8.2448
-0.12638,-3.7002,-5.1382,-5.9477,-15.182,-10.016,-12.358,-0.71197,-17.625999,-5.9477,-15.182,-9.9502,5.7143,-0.69841,5.2063,1.2882,3.9291,13.977,-13.841,6.5681,-2.0612
2.4013,-7.5279,-5.7886,-5.2941,-15.842,-8.065,-14.959,1.2298,-19.577,-5.2941,-15.842,-11.277,9.5238,0.57143,9.0159,0.64412,5.2174,12.689,-9.3968,8.5386,-5.9259
4.297,-8.8038,-3.187,-0.06536,-9.901,-2.8618,-11.707,7.7023,-15.024,-0.06536,-9.901,-7.9602,11.429,1.8413,11.556,0.0,5.8615,2.3833,-4.9524,9.1954,-5.9259
3.0332,-12.632,-5.7886,-0.06536,-10.561,-2.8618,-11.707,7.7023,-15.675,-0.06536,-10.561,-7.9602,10.159,-0.06349,9.0159,-6.4412,0.06441,-13.72,-6.8571,5.2545,-14.3
5.5608,-12.632,-6.439,3.2026,-7.9208,1.6911,-8.4553,11.586,-14.374,3.2026,-7.9208,-3.9801,15.238,2.4762,12.19,-6.4412,0.70853,10.757,-15.746,10.509,-13.655
4.9289,-10.718,-6.439,5.1634,-3.9604,4.2927,-7.1545,10.939,-12.423,5.1634,-3.9604,-1.3267,14.603,3.746,10.921,-5.153,2.6409,28.792,-16.381001,14.45,-7.8583
4.297,-12.632,-6.439,1.8954,-7.2607,4.9431,-9.1057,9.644,-16.325001,1.8954,-7.2607,-1.99,6.9841,-0.06349,5.8413,-8.3736,0.06441,3.6715,-10.667,6.5681,-8.5024
6.8246,-10.718,-5.1382,2.549,-7.9208,5.5935,-7.8049,9.644,-15.675,2.549,-7.9208,-0.66335,5.7143,1.8413,5.8413,-7.7295,0.70853,-5.9903,-6.2222,3.9409,-9.7907
4.9289,-10.08,-7.7398,3.8562,-5.2805,1.6911,-7.8049,10.291,-15.675,3.8562,-5.2805,-3.9801,5.7143,3.1111,5.2063,-5.7971,-0.57971,-2.1256,-4.3175,3.2841,-9.7907
3.6651,-8.8038,-10.992,4.5098,-9.2409,1.0407,-6.5041,12.88,-16.325001,4.5098,-9.2409,-4.6434,7.619,5.0159,5.2063,-2.5765,-0.57971,9.4686,2.6667,5.2545,-5.9259
12.512,0.76555,-3.8374,13.66,0.0,12.748,6.5041,18.058001,-5.9187,13.66,0.0,9.2869,19.683001,12.0,12.825,7.0853,6.5056,21.063,6.4762,19.048,6.3124
8.7204,-0.51037,-4.4878,11.699,3.3003,10.146,4.5528,16.117001,-6.5691,11.699,3.3003,7.9602,16.507999,3.746,8.381,2.5765,2.6409,21.707001,-5.5873,18.391001,0.5153
2.4013,-3.0622,-5.7886,3.2026,-3.3003,2.3415,-2.6016,5.7605,-13.724,3.2026,-3.3003,0.0,5.7143,-8.3175,0.12698,-3.8647,-3.1562,8.1804,-13.841,8.5386,-8.5024
6.8246,7.1451,3.9675,3.8562,-0.66007,4.2927,1.3008,4.466,-9.8211,3.8562,-0.66007,3.3167,3.1746,-5.7778,3.3016,4.5089,3.9291,-9.8551,-3.0476,7.8818,-0.77295
2.4013,9.697,0.06504,3.8562,-0.66007,2.3415,0.0,6.4078,-9.1707,3.8562,-0.66007,0.66335,0.63492,-2.6032,0.12698,9.0177,5.2174,-21.448999,3.9365,2.6273,8.8889
-9.6051,4.5933,-12.943,-1.3725,-6.6007,-5.4634,-5.2033,2.5243,-11.772,-1.3725,-6.6007,-7.2968,-4.4444,-3.2381,-9.3968,7.0853,-1.868,-9.8551,3.9365,-2.6273,8.2448
-15.924,2.6794,-16.195,-0.06536,-8.5809,-9.3659,-5.2033,1.877,-11.772,-0.06536,-8.5809,-9.2869,-5.7143,-0.69841,-12.571,6.4412,-5.7327,5.6039,3.3016,-2.6273,8.8889
-8.3412,7.1451,-7.0894,3.8562,-2.6403,-6.7642,0.0,3.8188,-8.5203,3.8562,-2.6403,-4.6434,0.63492,5.6508,-3.6825,9.6618,-1.2238,13.333,8.381,1.3136,14.686
8.0885,15.439,10.472,11.046,7.2607,4.2927,11.707,9.644,1.8862,11.046,7.2607,7.9602,12.063,15.81,13.46,17.391001,11.659,7.5362,17.905001,7.8818,21.127001
3.6651,5.2313,7.2195,7.1242,-3.3003,-0.91057,6.5041,3.1715,-3.3171,7.1242,-3.3003,3.9801,7.619,6.9206,10.921,7.0853,7.1498,-2.1256,8.381,0.65681,9.533
-8.3412,-4.9761,-1.2358,1.2418,-7.9208,-7.4146,1.3008,-3.301,-9.1707,1.2418,-7.9208,-1.3267,0.63492,-4.5079,0.7619,-3.8647,-2.5121,-25.958,-1.7778,-7.8818,-2.0612
-3.2859,-0.51037,3.3171,8.4314,5.9406,2.3415,5.8537,6.4078,-2.0163,8.4314,5.9406,5.9701,3.8095,-2.6032,3.9365,1.2882,1.9968,-29.823,-2.4127,-4.5977,3.7359
-1.3902,-3.0622,0.71545,6.4706,4.6205,3.6423,-1.3008,6.4078,-7.2195,6.4706,4.6205,1.99,1.9048,-3.2381,3.3016,0.64412,1.9968,-17.584999,-9.3968,-2.6273,-0.12882
-2.654,-10.08,-5.7886,0.58824,-4.6205,-2.8618,-9.7561,-0.06472,-14.374,0.58824,-4.6205,-5.9701,-3.8095,-8.3175,0.12698,-6.4412,-4.4444,4.3156,-8.127,-2.6273,-3.3494
7.4566,-6.252,1.3659,9.085,-2.6403,3.6423,-1.9512,8.3495,-7.2195,9.085,-2.6403,1.3267,1.9048,-4.5079,7.1111,-4.5089,-0.57971,28.148001,0.12698,5.9113,1.1594
4.9289,-10.718,-0.58537,8.4314,-4.6205,4.2927,-2.6016,8.3495,-11.122,8.4314,-4.6205,1.99,-1.2698,-10.222,2.0317,-12.238,-6.3768,17.841999,-4.9524,3.2841,-4.6377
1.7694,-13.27,-1.2358,9.7386,-5.2805,5.5935,-4.5528,12.233,-13.073,9.7386,-5.2805,1.99,-3.1746,-11.492,-1.7778,-16.103001,-9.5974,8.1804,-1.7778,-0.65681,-12.367
3.6651,-8.8038,2.6667,9.085,-5.2805,6.8943,-3.252,10.939,-11.122,9.085,-5.2805,2.6534,0.0,-6.4127,2.0317,-10.306,-3.1562,-22.738001,-4.9524,-2.6273,-12.367
5.5608,-4.3381,3.3171,6.4706,-1.9802,5.5935,-2.6016,7.055,-8.5203,6.4706,-1.9802,1.3267,1.2698,-2.6032,4.5714,-4.5089,1.3527,-9.2109,-8.7619,-0.65681,-6.57
3.6651,-4.3381,0.71545,2.549,-3.3003,1.0407,-4.5528,4.466,-8.5203,2.549,-3.3003,-3.3167,-3.1746,-3.2381,2.0317,-2.5765,1.3527,10.757,-6.8571,0.0,-5.2818
2.4013,-2.4242,0.71545,-2.0261,-5.2805,-1.561,-5.8537,1.877,-9.1707,-2.0261,-5.2805,-6.6335,-3.8095,-1.3333,2.6667,1.9324,3.9291,3.6715,-8.127,0.65681,-3.9936
7.4566,11.611,11.122,10.392,6.6007,7.5447,7.1545,11.586,5.1382,10.392,6.6007,3.9801,6.3492,12.635,11.556,18.035,17.455999,21.063,4.5714,7.8818,14.042
1.7694,17.99,13.073,14.314,7.2607,7.5447,11.707,10.939,10.341,14.314,7.2607,6.6335,9.5238,20.889,10.286,27.052999,22.608999,12.689,19.174999,4.5977,24.348
-5.8136,14.163,5.9187,5.1634,2.6403,-0.26016,7.8049,0.58252,5.1382,5.1634,2.6403,0.0,4.4444,15.81,2.0317,23.188,15.523,-7.2786,14.73,-5.9113,19.839001
-3.9179,11.611,3.9675,0.58824,1.3201,-2.8618,5.8537,-0.06472,4.4878,0.58824,1.3201,-1.3267,1.9048,10.095,0.12698,18.035,11.659,-14.364,14.095,-9.1954,13.398
-5.1817,10.335,2.6667,-0.71895,0.66007,-6.1138,5.2033,-3.301,5.1382,-0.71895,0.66007,-3.3167,0.0,6.2857,0.12698,15.459,9.7262,-15.008,11.556,-8.5386,12.11
-7.0774,11.611,4.6179,-1.3725,0.66007,-7.4146,4.5528,-4.5955,3.187,-1.3725,0.66007,-3.9801,-2.5397,7.5556,-1.1429,17.391001,10.37,-13.076,12.825,-6.5681,12.11
-9.6051,13.525,5.9187,1.8954,-0.66007,-2.8618,2.6016,0.58252,1.8862,1.8954,-0.66007,-1.99,-7.619,9.4603,-6.2222,18.68,9.0821,-19.517,12.825,-11.823,15.33
-13.397,9.059,0.06504,2.549,-4.6205,-1.561,-2.6016,4.466,-1.3659,2.549,-4.6205,-4.6434,-12.698,5.0159,-14.476,12.238,1.3527,-9.8551,5.8413,-15.107,10.177
