C3,C4,Cz,F1,F2,F3,F4,F7,F8,Fp1,Fp2,Fz,O1,O2,P3,P4,Pz,T3,T4,T5,T6
-1.9497,18.159,9.644,-2.8846,0.91503,-2.1154,5.7327,-5.8615,5.7051,-2.8846,0.91503,1.877,4.6761,9.4603,-1.8325,7.6282,3.7821,-6.7624,5.6872,-1.9417,6.571
0.8805,16.254,10.615,-1.9231,2.8758,1.7308,8.6312,-4.8953,6.6667,-1.9231,2.8758,5.7605,3.7283,3.746,-0.88468,6.6667,4.7436,-1.9777,10.427,0.97087,7.5279
0.8805,6.7302,7.7023,-1.9231,1.8954,-0.19231,6.6989,-5.8615,4.7436,-1.9231,1.8954,3.8188,5.624,5.6508,1.0111,7.6282,6.6667,-1.9777,9.4787,0.97087,10.399
-2.8931,-1.8413,-0.06472,-0.96154,0.91503,-5.0,1.868,-6.8277,3.7821,-0.96154,0.91503,-2.0065,5.624,7.5556,1.0111,6.6667,5.7051,-1.9777,6.6351,1.9417,7.5279
-8.5535,-6.6032,-9.7735,-4.8077,-3.9869,-8.8462,-4.8953,-7.7939,4.7436,-4.8077,-3.9869,-7.8317,1.8325,2.7937,-2.7804,2.8205,0.89744,-5.8054,5.6872,0.0,5.614
-7.6101,-7.5556,-10.744,-3.8462,0.91503,-6.9231,-4.8953,-7.7939,4.7436,-3.8462,0.91503,-5.89,-0.06319,0.88889,-4.6761,-0.0641,-1.9872,-5.8054,4.7393,-1.9417,2.7432
-1.9497,4.8254,-5.89,0.0,1.8954,-1.1538,0.90177,-1.9968,1.859,0.0,1.8954,-1.0356,-0.06319,-0.06349,-1.8325,-0.0641,-2.9487,-1.9777,-4.7393,0.0,1.7863
-1.9497,0.06349,-6.8608,1.9231,1.8954,-0.19231,0.90177,1.868,0.89744,1.9231,1.8954,-0.06472,-3.8547,-3.873,-3.7283,-3.9103,-7.7564,-1.0207,-2.8436,-0.97087,-0.12759
-4.7799,5.7778,-6.8608,0.0,-0.06536,-2.1154,-1.9968,-0.06441,-3.9103,0.0,-0.06536,-0.06472,-10.49,-11.492,-6.5719,-5.8333,-10.641,-0.0638,-3.7915,-6.7961,-2.9984
-4.7799,-11.365,-9.7735,-2.8846,-2.0261,-3.0769,-3.9291,-4.8953,-1.0256,-2.8846,-2.0261,-2.9773,-9.5419,-7.6825,-5.624,-9.6795,-9.6795,1.8501,3.7915,-5.8252,-4.9123
-0.06289,-6.6032,-2.0065,0.0,-0.06536,-1.1538,4.7665,-2.963,-1.9872,0.0,-0.06536,-1.0356,-1.0111,0.88889,-0.88468,-4.8718,-1.9872,0.89314,4.7393,-0.97087,-4.9123
3.7107,6.7302,7.7023,0.0,0.91503,0.76923,3.8003,0.90177,1.859,0.0,0.91503,1.877,2.7804,2.7937,3.8547,3.7821,6.6667,0.89314,0.0,1.9417,-0.12759
6.5409,1.9683,10.615,0.0,1.8954,3.6538,-1.0306,-0.06441,3.7821,0.0,1.8954,4.7896,1.8325,1.8413,6.6983,3.7821,8.5897,-0.0638,2.8436,4.8544,1.7863
9.3711,10.54,14.498,0.0,-0.06536,6.5385,4.7665,-0.06441,1.859,0.0,-0.06536,7.7023,3.7283,3.746,7.6461,8.5897,13.397,-1.0207,-0.94787,1.9417,3.7002
10.314,12.444,13.528,0.96154,-0.06536,7.5,6.6989,-1.0306,-2.9487,0.96154,-0.06536,8.6731,9.4155,6.6032,7.6461,12.436,16.282,1.8501,0.94787,1.9417,7.5279
9.3711,9.5873,11.586,0.0,-0.06536,5.5769,4.7665,-1.0306,-2.9487,0.0,-0.06536,6.7314,9.4155,8.5079,9.5419,11.474,16.282,-0.0638,0.94787,5.8252,6.571
15.975,14.349,16.440001,1.9231,1.8954,7.5,6.6989,0.90177,-2.9487,1.9231,1.8954,8.6731,8.4676,7.5556,14.281,12.436,19.167,4.7209,0.0,9.7087,5.614
13.145,7.6825,15.469,0.0,0.91503,6.5385,3.8003,2.8341,-1.0256,0.0,0.91503,7.7023,9.4155,8.5079,13.333,12.436,18.205,4.7209,0.0,8.7379,5.614
10.314,4.8254,13.528,4.8077,4.8366,3.6538,6.6989,1.868,-1.0256,4.8077,4.8366,7.7023,10.363,11.365,11.438,14.359,15.321,0.89314,0.0,9.7087,6.571
6.5409,9.5873,8.6731,3.8462,1.8954,2.6923,3.8003,0.90177,-1.0256,3.8462,1.8954,4.7896,11.311,8.5079,8.594,12.436,11.474,-1.0207,-1.8957,7.767,7.5279
3.7107,5.7778,4.7896,2.8846,1.8954,0.76923,3.8003,1.868,-1.9872,2.8846,1.8954,3.8188,5.624,3.746,5.7504,6.6667,7.6282,5.6778,-2.8436,4.8544,3.7002
1.8239,2.9206,4.7896,2.8846,2.8758,2.6923,-0.06441,2.8341,0.89744,2.8846,2.8758,3.8188,2.7804,2.7937,2.9068,5.7051,6.6667,4.7209,1.8957,1.9417,-1.0845
1.8239,-2.7937,4.7896,4.8077,5.817,5.5769,2.8341,1.868,4.7436,4.8077,5.817,5.7605,3.7283,0.88889,1.9589,2.8205,5.7051,3.764,2.8436,1.9417,-1.0845
3.7107,8.6349,5.7605,7.6923,5.817,7.5,7.6651,2.8341,2.8205,7.6923,5.817,7.7023,3.7283,-1.0159,3.8547,2.8205,5.7051,0.89314,-3.7915,3.8835,-0.12759
7.4843,-0.88889,5.7605,9.6154,8.7582,8.4615,6.6989,6.6989,0.89744,9.6154,8.7582,8.6731,2.7804,0.88889,7.6461,0.89744,8.5897,0.89314,-2.8436,2.9126,-2.0415
14.088,-0.88889,10.615,3.8462,0.91503,10.385,3.8003,5.7327,-5.8333,3.8462,0.91503,9.644,4.6761,4.6984,13.333,3.7821,14.359,2.807,-4.7393,4.8544,-2.0415
15.031,6.7302,12.557,10.577,11.699,12.308,12.496,4.7665,2.8205,10.577,11.699,13.528,5.624,3.746,13.333,3.7821,14.359,3.764,-5.6872,5.8252,-2.0415
12.201,1.9683,8.6731,21.153999,24.444,13.269,13.462,7.6651,16.282,21.153999,24.444,15.469,3.7283,0.88889,8.594,-0.0641,9.5513,3.764,2.8436,5.8252,-2.9984
8.4277,6.7302,9.644,21.153999,26.405001,10.385,16.361,5.7327,20.128,21.153999,26.405001,13.528,4.6761,3.746,5.7504,1.859,6.6667,1.8501,7.5829,1.9417,-0.12759
3.7107,8.6349,6.7314,19.231001,28.365999,5.5769,16.361,0.90177,20.128,19.231001,28.365999,10.615,1.8325,3.746,0.06319,0.89744,2.8205,-1.0207,5.6872,0.0,1.7863
-1.9497,1.0159,1.877,16.346001,21.503,0.76923,7.6651,0.90177,14.359,16.346001,21.503,4.7896,0.88468,-0.06349,-3.7283,1.859,-1.0256,-8.6762,7.5829,-3.8835,-0.12759
-5.7233,8.6349,1.877,12.5,18.562,-1.1538,6.6989,-1.9968,13.397,12.5,18.562,3.8188,3.7283,2.7937,-6.5719,3.7821,-2.9487,-9.6332,0.94787,-4.8544,0.82935
-8.5535,6.7302,-2.0065,8.6538,12.68,-5.0,4.7665,-4.8953,6.6667,8.6538,12.68,-1.0356,-0.06319,-0.06349,-7.5197,-1.9872,-6.7949,-7.7193,-6.6351,-1.9417,-2.0415
-6.6667,-4.6984,-5.89,4.8077,7.7778,-6.9231,3.8003,-6.8277,3.7821,4.8077,7.7778,-3.9482,-2.9068,-3.873,-5.624,-5.8333,-9.6795,-1.9777,-1.8957,0.97087,-3.9553
-6.6667,-1.8413,-6.8608,3.8462,5.817,-7.8846,-1.0306,-6.8277,5.7051,3.8462,5.817,-5.89,1.8325,1.8413,-3.7283,-1.0256,-7.7564,-1.0207,-4.7393,1.9417,-3.9553
-5.7233,-9.4603,-11.715,5.7692,5.817,-5.9615,0.90177,-1.9968,-0.0641,5.7692,5.817,-5.89,0.88468,1.8413,-5.624,-4.8718,-8.7179,1.8501,-6.6351,0.97087,-1.0845
-9.4969,-14.222,-15.599,2.8846,-0.06536,-7.8846,-6.8277,-1.0306,-1.0256,2.8846,-0.06536,-9.7735,-7.6461,-6.7302,-8.4676,-8.7179,-12.564,-4.8485,-3.7915,-2.9126,-2.0415
-6.6667,-13.27,-9.7735,2.8846,1.8954,-5.9615,-10.692,-2.963,1.859,2.8846,1.8954,-8.8026,-2.9068,-2.9206,-4.6761,-2.9487,-5.8333,-2.9346,0.94787,0.0,-1.0845
-0.06289,4.8254,1.877,2.8846,2.8758,-2.1154,-6.8277,-1.9968,1.859,2.8846,2.8758,-3.9482,-0.06319,0.88889,1.9589,0.89744,1.859,-3.8915,-2.8436,2.9126,-2.0415
0.8805,-6.6032,1.877,3.8462,2.8758,-1.1538,-6.8277,0.90177,1.859,3.8462,2.8758,-2.9773,-1.9589,0.88889,1.9589,-0.0641,1.859,-3.8915,4.7393,-0.97087,0.82935
3.7107,-4.6984,2.8479,3.8462,2.8758,1.7308,-1.0306,3.8003,1.859,3.8462,2.8758,-0.06472,5.624,5.6508,2.9068,2.8205,3.7821,-0.0638,1.8957,-0.97087,0.82935
6.5409,0.06349,2.8479,6.7308,4.8366,4.6154,1.868,4.7665,3.7821,6.7308,4.8366,1.877,9.4155,7.5556,5.7504,4.7436,6.6667,6.6348,-0.94787,4.8544,0.82935
8.4277,3.873,5.7605,9.6154,5.817,6.5385,3.8003,6.6989,1.859,9.6154,5.817,4.7896,5.624,4.6984,6.6983,5.7051,6.6667,5.6778,-0.94787,4.8544,3.7002
9.3711,-1.8413,5.7605,6.7308,2.8758,8.4615,-0.06441,4.7665,-1.0256,6.7308,2.8758,5.7605,1.8325,-0.06349,4.8025,3.7821,4.7436,2.807,-1.8957,1.9417,4.6571
8.4277,1.0159,5.7605,3.8462,3.8562,7.5,4.7665,-0.06441,-3.9103,3.8462,3.8562,6.7314,-0.06319,-0.06349,4.8025,0.89744,4.7436,0.89314,-1.8957,2.9126,-0.12759
0.8805,3.873,0.90615,-0.96154,-0.06536,1.7308,2.8341,-2.963,-1.0256,-0.96154,-0.06536,2.8479,-0.06319,0.88889,1.0111,-0.0641,0.89744,-10.59,-0.94787,0.97087,-2.0415
-1.0063,6.7302,-1.0356,0.0,3.8562,-1.1538,2.8341,-7.7939,6.6667,0.0,3.8562,1.877,7.5197,9.4603,1.0111,4.7436,0.89744,-6.7624,4.7393,3.8835,5.614
-1.0063,2.9206,-1.0356,-0.96154,5.817,-3.0769,5.7327,-7.7939,8.5897,-0.96154,5.817,0.90615,10.363,9.4603,2.9068,5.7051,0.89744,-0.0638,3.7915,3.8835,6.571
-4.7799,-5.6508,-2.9773,0.96154,5.817,-4.0385,3.8003,-4.8953,4.7436,0.96154,5.817,0.90615,5.624,8.5079,-1.8325,1.859,-1.9872,-1.9777,2.8436,0.97087,3.7002
-6.6667,3.873,-3.9482,0.0,1.8954,-2.1154,-0.06441,-3.9291,1.859,0.0,1.8954,-0.06472,1.8325,3.746,-6.5719,2.8205,-4.8718,-4.8485,-7.5829,-2.9126,2.7432
-6.6667,-1.8413,-8.8026,-0.96154,1.8954,-2.1154,-1.9968,-2.963,4.7436,-0.96154,1.8954,-2.9773,-0.06319,-0.06349,-9.4155,-1.0256,-10.641,-7.7193,-1.8957,-3.8835,0.82935
-10.44,-13.27,-13.657,-3.8462,-3.0065,-6.9231,-7.7939,-4.8953,1.859,-3.8462,-3.0065,-8.8026,-4.8025,-1.0159,-13.207,-7.7564,-15.449,-6.7624,2.8436,-7.767,-4.9123
-4.7799,-0.88889,-4.9191,-0.96154,-1.0458,-5.0,-1.9968,-2.963,-4.8718,-0.96154,-1.0458,-4.9191,-7.6461,0.88889,-9.4155,-6.7949,-11.603,0.89314,-1.8957,-6.7961,-2.9984
0.8805,1.0159,1.877,-0.96154,-2.0261,-0.19231,-4.8953,1.868,-2.9487,-0.96154,-2.0261,-2.0065,-9.5419,-6.7302,-2.7804,-3.9103,-3.9103,2.807,-3.7915,-5.8252,0.82935
3.7107,-5.6508,4.7896,-0.96154,-1.0458,-0.19231,-6.8277,3.8003,-0.0641,-0.96154,-1.0458,-1.0356,-8.594,-5.7778,0.06319,-2.9487,1.859,2.807,0.0,-3.8835,-0.12759
5.5975,-0.88889,7.7023,-0.96154,-4.9673,0.76923,-7.7939,3.8003,-3.9103,-0.96154,-4.9673,-0.06472,-1.0111,0.88889,4.8025,-0.0641,4.7436,4.7209,-4.7393,2.9126,-2.9984
8.4277,3.873,9.644,-2.8846,-4.9673,0.76923,-1.9968,0.90177,-3.9103,-2.8846,-4.9673,1.877,4.6761,3.746,7.6461,4.7436,8.5897,5.6778,-5.6872,5.8252,1.7863
5.5975,-3.746,5.7605,-5.7692,-6.9281,-0.19231,-0.06441,-1.9968,-1.0256,-5.7692,-6.9281,0.90615,2.7804,0.88889,6.6983,6.6667,7.6282,0.89314,2.8436,0.97087,1.7863
3.7107,-6.6032,1.877,-3.8462,-4.9673,0.76923,-0.06441,-1.0306,-0.0641,-3.8462,-4.9673,0.90615,-1.9589,-2.9206,5.7504,0.89744,4.7436,0.89314,5.6872,1.9417,-2.9984
3.7107,-3.746,1.877,-1.9231,-1.0458,-0.19231,-0.06441,-1.0306,0.89744,-1.9231,-1.0458,1.877,-1.9589,-1.9683,4.8025,-1.0256,2.8205,-1.9777,2.8436,3.8835,-2.0415
3.7107,7.6825,3.8188,-0.96154,0.91503,0.76923,2.8341,-0.06441,5.7051,-0.96154,0.91503,1.877,2.7804,5.6508,2.9068,4.7436,2.8205,-0.0638,1.8957,0.0,1.7863
0.8805,9.5873,1.877,-0.96154,1.8954,0.76923,6.6989,-2.963,0.89744,-0.96154,1.8954,1.877,3.7283,5.6508,0.06319,3.7821,-1.0256,3.764,0.94787,-0.97087,4.6571
-3.8365,1.9683,-6.8608,-2.8846,-3.0065,-1.1538,-1.0306,-2.963,-0.0641,-2.8846,-3.0065,-2.0065,-1.0111,-1.0159,-3.7283,-2.9487,-6.7949,-1.9777,-2.8436,-0.97087,-1.0845
-2.8931,4.8254,-6.8608,0.0,0.91503,0.76923,3.8003,3.8003,2.8205,0.0,0.91503,0.90615,0.88468,-0.06349,-1.8325,-1.9872,-5.8333,-2.9346,-5.6872,1.9417,2.7432
-3.8365,-2.7937,-5.89,1.9231,1.8954,0.76923,1.868,5.7327,5.7051,1.9231,1.8954,1.877,-1.0111,-2.9206,-3.7283,-2.9487,-6.7949,-1.0207,5.6872,-1.9417,-2.0415
-1.0063,-14.222,-6.8608,3.8462,1.8954,1.7308,-0.06441,5.7327,5.7051,3.8462,1.8954,0.90615,-9.5419,-7.6825,-7.5197,-9.6795,-9.6795,4.7209,11.374,-7.767,-7.7831
-1.0063,-5.6508,-6.8608,0.96154,-1.0458,3.6538,-0.06441,7.6651,1.859,0.96154,-1.0458,-0.06472,-9.5419,-6.7302,-6.5719,-9.6795,-8.7179,1.8501,2.8436,-8.7379,-5.8692
3.7107,1.9683,-2.0065,1.9231,-3.0065,5.5769,-0.06441,9.5974,-5.8333,1.9231,-3.0065,0.90615,-1.9589,-1.9683,-1.8325,-5.8333,-2.9487,5.6778,-5.6872,-1.9417,-3.9553
6.5409,-0.88889,0.90615,0.96154,-5.9477,2.6923,-5.8615,6.6989,-8.7179,0.96154,-5.9477,-0.06472,-0.06319,-2.9206,2.9068,-2.9487,1.859,2.807,-13.27,3.8835,-5.8692
7.4843,1.9683,4.7896,0.96154,-4.9673,2.6923,-2.963,2.8341,-8.7179,0.96154,-4.9673,0.90615,-1.0111,-1.9683,3.8547,-0.0641,5.7051,3.764,-11.374,3.8835,-3.9553
3.7107,1.0159,2.8479,-3.8462,-8.8889,-0.19231,-2.963,0.90177,-10.641,-3.8462,-8.8889,-2.0065,-1.9589,-1.9683,1.9589,-0.0641,3.7821,1.8501,-12.322,1.9417,0.82935
-1.0063,-9.4603,-4.9191,-6.7308,-6.9281,-4.0385,-3.9291,-1.0306,-4.8718,-6.7308,-6.9281,-5.89,-0.06319,0.88889,-2.7804,-3.9103,-2.9487,-1.0207,0.0,-1.9417,-2.9984
-3.8365,-9.4603,-7.8317,-5.7692,-3.0065,-5.0,-8.7601,-1.0306,2.8205,-5.7692,-3.0065,-7.8317,0.88468,2.7937,-3.7283,-1.0256,-4.8718,-1.0207,7.5829,-1.9417,-3.9553
-3.8365,-4.6984,-6.8608,-2.8846,-2.0261,-5.9615,-1.9968,-1.0306,5.7051,-2.8846,-2.0261,-6.8608,-2.9068,-1.0159,-2.7804,-0.0641,-4.8718,-2.9346,6.6351,-0.97087,1.7863
-4.7799,-1.8413,-4.9191,-1.9231,-2.0261,-4.0385,4.7665,-3.9291,4.7436,-1.9231,-2.0261,-2.9773,-0.06319,1.8413,-2.7804,-0.0641,-3.9103,-3.8915,6.6351,-1.9417,4.6571
-1.0063,15.302,1.877,0.96154,3.8562,1.7308,6.6989,-1.0306,3.7821,0.96154,3.8562,3.8188,4.6761,4.6984,1.9589,5.7051,0.89744,-1.0207,-0.94787,1.9417,7.5279
-1.0063,8.6349,0.90615,0.96154,3.8562,-0.19231,5.7327,0.90177,1.859,0.96154,3.8562,3.8188,2.7804,1.8413,2.9068,3.7821,0.89744,0.89314,0.94787,5.8252,4.6571
-3.8365,-5.6508,-3.9482,-1.9231,-2.0261,-1.1538,-0.06441,0.90177,-1.0256,-1.9231,-2.0261,-1.0356,-0.06319,-1.9683,0.06319,-0.0641,-2.9487,-1.0207,2.8436,2.9126,1.7863
-2.8931,-12.317,-4.9191,-0.96154,-2.0261,-1.1538,-1.9968,1.868,-1.0256,-0.96154,-2.0261,-2.0065,-1.9589,-2.9206,-0.88468,-1.0256,-3.9103,1.8501,1.8957,-0.97087,-1.0845
-1.0063,-9.4603,-2.9773,0.0,-3.0065,1.7308,-2.963,2.8341,-2.9487,0.0,-3.0065,-1.0356,-0.06319,0.88889,0.06319,-0.0641,-2.9487,1.8501,-1.8957,0.0,-0.12759
2.7673,-2.7937,-1.0356,0.0,-3.9869,4.6154,-3.9291,2.8341,-8.7179,0.0,-3.9869,0.90615,0.88468,2.7937,0.06319,-0.0641,-1.0256,5.6778,-6.6351,0.97087,-2.0415
2.7673,-0.88889,1.877,-0.96154,-5.9477,4.6154,-5.8615,3.8003,-9.6795,-0.96154,-5.9477,1.877,1.8325,3.746,1.0111,-1.0256,1.859,4.7209,-6.6351,0.97087,-2.0415
4.6541,1.0159,6.7314,-3.8462,-5.9477,2.6923,-2.963,0.90177,-8.7179,-3.8462,-5.9477,2.8479,3.7283,1.8413,3.8547,2.8205,7.6282,1.8501,-3.7915,3.8835,2.7432
4.6541,6.7302,10.615,-11.538,-14.771,-2.1154,-7.7939,-5.8615,-13.526,-11.538,-14.771,-0.06472,7.5197,2.7937,7.6461,3.7821,9.5513,1.8501,-2.8436,8.7379,2.7432
4.6541,3.873,8.6731,2.8846,-2.0261,2.6923,0.90177,4.7665,-5.8333,2.8846,-2.0261,3.8188,2.7804,-1.0159,4.8025,-0.0641,4.7436,6.6348,0.0,6.7961,0.82935
5.5975,0.06349,6.7314,12.5,4.8366,7.5,2.8341,10.564,-1.0256,12.5,4.8366,7.7023,-1.9589,-1.0159,1.9589,-0.0641,1.859,2.807,1.8957,0.0,-2.0415
7.4843,1.9683,9.644,11.538,6.7974,10.385,3.8003,6.6989,-0.0641,11.538,6.7974,10.615,-0.06319,-0.06349,3.8547,2.8205,4.7436,2.807,3.7915,0.0,3.7002
3.7107,0.06349,6.7314,9.6154,6.7974,5.5769,0.90177,2.8341,1.859,9.6154,6.7974,5.7605,-2.9068,-4.8254,1.9589,-1.0256,1.859,1.8501,2.8436,0.97087,-2.0415
3.7107,6.7302,5.7605,5.7692,4.8366,0.76923,1.868,2.8341,-1.9872,5.7692,4.8366,2.8479,1.8325,-1.9683,4.8025,2.8205,3.7821,4.7209,-1.8957,5.8252,-0.12759
1.8239,5.7778,1.877,2.8846,-1.0458,0.76923,-6.8277,2.8341,-7.7564,2.8846,-1.0458,-0.06472,4.6761,1.8413,4.8025,1.859,1.859,-3.8915,-10.427,4.8544,0.82935
3.7107,1.0159,0.90615,6.7308,1.8954,5.5769,-4.8953,6.6989,-4.8718,6.7308,1.8954,3.8188,3.7283,1.8413,3.8547,-1.0256,-1.0256,5.6778,-3.7915,4.8544,-1.0845
5.5975,-5.6508,-1.0356,7.6923,0.91503,7.5,-1.0306,9.5974,-6.7949,7.6923,0.91503,6.7314,-1.9589,-1.9683,3.8547,-3.9103,-4.8718,16.204,-1.8957,4.8544,-2.9984
3.7107,-12.317,-4.9191,4.8077,-3.0065,6.5385,-3.9291,8.6312,-9.6795,4.8077,-3.0065,2.8479,-5.7504,-1.9683,1.0111,-5.8333,-7.7564,10.463,-2.8436,3.8835,-4.9123
0.8805,-2.7937,-2.9773,1.9231,-3.0065,4.6154,-1.0306,6.6989,-13.526,1.9231,-3.0065,0.90615,-4.8025,-2.9206,0.06319,-3.9103,-5.8333,5.6778,-5.6872,0.97087,-2.0415
1.8239,0.06349,0.90615,0.0,-4.9673,1.7308,-2.963,6.6989,-9.6795,0.0,-4.9673,-0.06472,0.88468,-0.06349,3.8547,0.89744,-1.0256,2.807,-3.7915,0.97087,2.7432
6.5409,3.873,5.7605,0.0,-3.0065,4.6154,-0.06441,7.6651,-6.7949,0.0,-3.0065,3.8188,3.7283,3.746,8.594,3.7821,4.7436,8.5486,-3.7915,3.8835,2.7432
8.4277,1.0159,6.7314,0.96154,-2.0261,7.5,-0.06441,8.6312,-2.9487,0.96154,-2.0261,5.7605,1.8325,2.7937,9.5419,2.8205,5.7051,4.7209,-1.8957,5.8252,-1.0845
8.4277,4.8254,6.7314,2.8846,0.91503,8.4615,4.7665,3.8003,-3.9103,2.8846,0.91503,7.7023,4.6761,2.7937,8.594,-1.0256,3.7821,5.6778,-3.7915,6.7961,-2.0415
5.5975,3.873,4.7896,-0.96154,-2.0261,5.5769,1.868,0.90177,-3.9103,-0.96154,-2.0261,4.7896,5.624,1.8413,4.8025,-1.0256,0.89744,2.807,-8.5308,3.8835,-3.9553
1.8239,1.0159,3.8188,-1.9231,-2.0261,2.6923,0.90177,-1.0306,-1.9872,-1.9231,-2.0261,3.8188,3.7283,1.8413,-0.88468,2.8205,0.89744,-2.9346,-3.7915,0.0,0.82935
-8.5535,-14.222,-5.89,-6.7308,-6.9281,-5.9615,-10.692,-5.8615,-2.9487,-6.7308,-6.9281,-4.9191,-3.8547,-1.9683,-9.4155,-4.8718,-5.8333,-12.504,4.7393,-9.7087,-2.9984
-9.4969,-10.413,-6.8608,-5.7692,-5.9477,-7.8846,-8.7601,-9.7262,-3.9103,-5.7692,-5.9477,-6.8608,-6.6983,-3.873,-9.4155,-5.8333,-4.8718,-12.504,2.8436,-7.767,-2.0415
-7.6101,-0.88889,-2.9773,-5.7692,-3.9869,-8.8462,-3.9291,-8.7601,1.859,-5.7692,-3.9869,-7.8317,1.8325,2.7937,-3.7283,1.859,1.859,-4.8485,0.0,-0.97087,4.6571
-9.4969,-3.746,-5.89,-5.7692,-3.0065,-9.8077,-1.0306,-6.8277,5.7051,-5.7692,-3.0065,-8.8026,3.7283,5.6508,-4.6761,3.7821,1.859,0.89314,7.5829,-1.9417,0.82935
-10.44,-0.88889,-7.8317,-6.7308,-3.9869,-11.731,-1.0306,-8.7601,4.7436,-6.7308,-3.9869,-10.744,1.8325,4.6984,-6.5719,0.89744,-1.9872,-1.9777,0.94787,-4.8544,-4.9123
-8.5535,6.7302,-7.8317,-2.8846,-2.0261,-10.769,-0.06441,-4.8953,-2.9487,-2.8846,-2.0261,-9.7735,-1.0111,-0.06349,-5.624,-4.8718,-4.8718,-3.8915,-10.427,1.9417,-5.8692
-11.384,-12.317,-12.686,-3.8462,-3.9869,-12.692,-9.7262,-2.963,-4.8718,-3.8462,-3.9869,-13.657,-5.7504,-7.6825,-8.4676,-8.7179,-11.603,-1.9777,-1.8957,-0.97087,-2.0415
-9.4969,-16.127001,-11.715,-5.7692,-5.9477,-10.769,-14.557,-1.0306,-1.9872,-5.7692,-5.9477,-12.686,-0.06319,-1.0159,-6.5719,-3.9103,-9.6795,1.8501,-2.8436,-2.9126,-0.12759
-7.6101,-6.6032,-9.7735,-7.6923,-6.9281,-8.8462,-10.692,-1.9968,-4.8718,-7.6923,-6.9281,-10.744,-4.8025,-7.6825,-6.5719,-6.7949,-8.7179,-0.0638,-2.8436,-3.8835,-2.9984
-5.7233,-7.5556,-8.8026,-8.6538,-11.83,-6.9231,-8.7601,-0.06441,-5.8333,-8.6538,-11.83,-9.7735,-6.6983,-6.7302,-5.624,-5.8333,-7.7564,-1.0207,3.7915,-1.9417,-3.9553
-1.9497,-5.6508,-2.0065,-5.7692,-9.8693,-3.0769,-5.8615,-1.0306,-6.7949,-5.7692,-9.8693,-3.9482,-1.9589,1.8413,-2.7804,-1.0256,-2.9487,1.8501,0.0,0.0,-0.12759
3.7107,5.7778,6.7314,-4.8077,-7.9085,3.6538,1.868,0.90177,-4.8718,-4.8077,-7.9085,2.8479,-1.9589,-1.9683,1.0111,3.7821,2.8205,1.8501,0.0,0.0,2.7432
6.5409,22.921,13.528,0.0,-4.9673,7.5,11.53,3.8003,-6.7949,0.0,-4.9673,8.6731,1.8325,-0.06349,2.9068,8.5897,9.5513,-1.9777,-6.6351,0.0,3.7002
2.7673,10.54,9.644,-1.9231,-4.9673,5.5769,5.7327,2.8341,-1.9872,-1.9231,-4.9673,4.7896,4.6761,7.5556,3.8547,8.5897,10.513,0.89314,0.0,0.0,2.7432
3.7107,4.8254,8.6731,-0.96154,1.8954,5.5769,9.5974,-1.0306,1.859,-0.96154,1.8954,4.7896,7.5197,7.5556,3.8547,8.5897,13.397,1.8501,7.5829,0.0,7.5279
0.8805,9.5873,8.6731,2.8846,5.817,2.6923,8.6312,-0.06441,12.436,2.8846,5.817,5.7605,-2.9068,-2.9206,1.9589,5.7051,10.513,-3.8915,11.374,-2.9126,4.6571
3.7107,16.254,10.615,8.6538,13.66,3.6538,15.395,1.868,20.128,8.6538,13.66,8.6731,-1.9589,0.88889,2.9068,8.5897,11.474,-4.8485,12.322,-3.8835,10.399
3.7107,7.6825,5.7605,4.8077,10.719,3.6538,13.462,1.868,18.205,4.8077,10.719,6.7314,-0.06319,0.88889,2.9068,3.7821,7.6282,-1.0207,12.322,-0.97087,4.6571
0.8805,-1.8413,-1.0356,2.8846,9.7386,2.6923,6.6989,-0.06441,12.436,2.8846,9.7386,4.7896,-3.8547,-1.9683,-0.88468,-3.9103,-0.0641,-0.0638,9.4787,-1.9417,-3.9553
-1.9497,1.0159,-2.9773,4.8077,4.8366,-0.19231,0.90177,-1.0306,4.7436,4.8077,4.8366,1.877,-7.6461,-4.8254,-4.6761,-4.8718,-5.8333,-1.0207,-0.94787,-5.8252,-5.8692
-6.6667,10.54,-4.9191,2.8846,3.8562,-3.0769,-0.06441,-0.06441,0.89744,2.8846,3.8562,-0.06472,-2.9068,-1.9683,-6.5719,-1.9872,-6.7949,1.8501,-6.6351,-7.767,-1.0845
-12.327,-18.983999,-16.57,-0.96154,0.91503,-6.9231,-11.659,-0.06441,0.89744,-0.96154,0.91503,-8.8026,-1.9589,-1.9683,-11.311,-9.6795,-15.449,-1.0207,0.0,-8.7379,-5.8692
-10.44,-30.413,-22.395,0.96154,-3.0065,-5.9615,-13.591,3.8003,-2.9487,0.96154,-3.0065,-11.715,-1.0111,0.88889,-8.4676,-11.603,-17.372,-0.0638,1.8957,-2.9126,-6.8262
-7.6101,-14.222,-15.599,0.96154,-2.0261,-7.8846,-6.8277,2.8341,-7.7564,0.96154,-2.0261,-9.7735,0.88468,0.88889,-5.624,-6.7949,-11.603,-0.0638,-5.6872,0.97087,-6.8262
-5.7233,-9.4603,-8.8026,-2.8846,-5.9477,-8.8462,-9.7262,-1.9968,-8.7179,-2.8846,-5.9477,-8.8026,2.7804,-1.0159,-1.8325,-2.9487,-4.8718,-3.8915,-12.322,1.9417,-4.9123
0.8805,-5.6508,-0.06472,-5.7692,-6.9281,-5.0,-7.7939,-4.8953,-7.7564,-5.7692,-6.9281,-4.9191,4.6761,2.7937,2.9068,-1.0256,1.859,0.89314,-7.5829,2.9126,-4.9123
5.5975,2.9206,7.7023,-6.7308,-7.9085,-1.1538,-4.8953,-4.8953,-6.7949,-6.7308,-7.9085,-2.0065,4.6761,5.6508,7.6461,4.7436,9.5513,4.7209,-6.6351,5.8252,-2.9984
9.3711,14.349,14.498,-6.7308,-6.9281,2.6923,-0.06441,-4.8953,-7.7564,-6.7308,-6.9281,1.877,11.311,11.365,11.438,13.397,16.282,-0.0638,-5.6872,8.7379,5.614
4.6541,4.8254,10.615,-10.577,-10.85,-1.1538,-5.8615,-5.8615,-9.6795,-10.577,-10.85,-1.0356,14.155,15.175,8.594,14.359,16.282,-2.9346,0.94787,7.767,5.614
3.7107,-5.6508,7.7023,-16.346001,-17.712,-4.0385,-5.8615,-9.7262,-17.372,-16.346001,-17.712,-3.9482,12.259,11.365,8.594,14.359,14.359,1.8501,0.94787,10.68,7.5279
1.8239,3.873,5.7605,-11.538,-7.9085,-3.0769,5.7327,-8.7601,-1.9872,-11.538,-7.9085,-1.0356,9.4155,6.6032,5.7504,13.397,9.5513,-1.0207,3.7915,7.767,9.4418
1.8239,10.54,5.7605,-3.8462,4.8366,-2.1154,13.462,-8.7601,6.6667,-3.8462,4.8366,2.8479,6.5719,6.6032,2.9068,10.513,5.7051,-2.9346,5.6872,3.8835,10.399
2.7673,12.444,7.7023,-4.8077,2.8758,0.76923,11.53,-6.8277,8.5897,-4.8077,2.8758,5.7605,2.7804,7.5556,1.9589,8.5897,4.7436,-2.9346,0.94787,0.0,10.399
7.4843,20.063,10.615,0.0,6.7974,5.5769,11.53,-1.9968,10.513,0.0,6.7974,8.6731,2.7804,7.5556,2.9068,8.5897,5.7051,1.8501,-4.7393,0.0,7.5279
7.4843,8.6349,9.644,-0.96154,1.8954,5.5769,1.868,-1.0306,4.7436,-0.96154,1.8954,5.7605,5.624,5.6508,7.6461,10.513,8.5897,2.807,0.0,6.7961,2.7432
5.5975,1.0159,6.7314,-2.8846,1.8954,6.5385,-2.963,-1.0306,4.7436,-2.8846,1.8954,4.7896,7.5197,7.5556,7.6461,7.6282,9.5513,2.807,7.5829,4.8544,4.6571
2.7673,-6.6032,1.877,0.96154,1.8954,6.5385,0.90177,-0.06441,6.6667,0.96154,1.8954,4.7896,1.8325,2.7937,3.8547,0.89744,4.7436,4.7209,6.6351,0.97087,1.7863
-1.0063,-9.4603,-2.0065,0.0,2.8758,3.6538,0.90177,-0.06441,4.7436,0.0,2.8758,2.8479,-2.9068,-1.9683,0.06319,-1.9872,-0.0641,-1.9777,5.6872,-0.97087,-0.12759
-1.0063,-6.6032,-2.9773,-1.9231,1.8954,1.7308,-0.06441,-0.06441,5.7051,-1.9231,1.8954,-0.06472,-2.9068,-6.7302,-0.88468,-1.9872,-1.9872,-1.0207,0.0,-0.97087,-1.0845
1.8239,5.7778,-0.06472,-4.8077,-3.0065,0.76923,2.8341,-1.9968,-1.9872,-4.8077,-3.0065,-2.0065,2.7804,-1.0159,3.8547,1.859,1.859,1.8501,-1.8957,5.8252,1.7863
1.8239,1.9683,-1.0356,-5.7692,-3.0065,-2.1154,-2.963,-1.9968,0.89744,-5.7692,-3.0065,-3.9482,-0.06319,-1.0159,1.9589,-0.0641,-1.0256,4.7209,2.8436,4.8544,3.7002
2.7673,0.06349,0.90615,-7.6923,-4.9673,-0.19231,-2.963,-0.06441,2.8205,-7.6923,-4.9673,-2.9773,-4.8025,-4.8254,1.9589,-1.9872,-1.9872,5.6778,6.6351,-0.97087,0.82935
5.5975,5.7778,7.7023,-5.7692,-3.9869,0.76923,-0.06441,-2.963,0.89744,-5.7692,-3.9869,-0.06472,-2.9068,-1.9683,3.8547,2.8205,2.8205,3.764,-0.94787,0.0,2.7432
6.5409,7.6825,10.615,-6.7308,-5.9477,1.7308,0.90177,-2.963,0.89744,-6.7308,-5.9477,-0.06472,0.88468,3.746,6.6983,5.7051,5.7051,-1.0207,0.0,1.9417,6.571
3.7107,-2.7937,7.7023,-7.6923,-5.9477,-2.1154,-1.0306,-6.8277,0.89744,-7.6923,-5.9477,-2.0065,4.6761,5.6508,5.7504,2.8205,5.7051,1.8501,6.6351,1.9417,4.6571
-0.06289,-6.6032,3.8188,-12.5,-9.8693,-6.9231,-5.8615,-8.7601,-0.0641,-12.5,-9.8693,-6.8608,11.311,7.5556,7.6461,1.859,7.6282,-1.9777,4.7393,7.767,0.82935
2.7673,10.54,3.8188,-11.538,-7.9085,-3.0769,-2.963,-7.7939,-4.8718,-11.538,-7.9085,-2.9773,7.5197,0.88889,6.6983,0.89744,5.7051,-2.9346,-4.7393,6.7961,0.82935
1.8239,1.0159,-1.0356,-10.577,-6.9281,-3.0769,1.868,-7.7939,-2.9487,-10.577,-6.9281,-4.9191,4.6761,0.88889,4.8025,-1.0256,2.8205,-0.0638,-1.8957,3.8835,-0.12759
2.7673,4.8254,2.8479,-6.7308,-2.0261,-3.0769,7.6651,-5.8615,3.7821,-6.7308,-2.0261,-2.0065,5.624,5.6508,5.7504,5.7051,5.7051,-1.0207,2.8436,5.8252,1.7863
2.7673,7.6825,6.7314,-8.6538,-3.0065,-1.1538,3.8003,-4.8953,7.6282,-8.6538,-3.0065,0.90615,6.5719,4.6984,6.6983,9.5513,8.5897,-0.0638,7.5829,4.8544,2.7432
4.6541,11.492,10.615,-5.7692,-2.0261,0.76923,5.7327,-5.8615,5.7051,-5.7692,-2.0261,3.8188,8.4676,3.746,9.5419,10.513,12.436,2.807,7.5829,7.767,4.6571
6.5409,11.492,11.586,-4.8077,1.8954,1.7308,5.7327,-3.9291,9.5513,-4.8077,1.8954,4.7896,9.4155,6.6032,10.49,13.397,14.359,-1.0207,4.7393,6.7961,8.4848
7.4843,8.6349,8.6731,-3.8462,2.8758,1.7308,3.8003,-2.963,6.6667,-3.8462,2.8758,1.877,12.259,10.413,10.49,12.436,14.359,-1.0207,3.7915,5.8252,11.356
5.5975,6.7302,4.7896,-0.96154,1.8954,0.76923,2.8341,-4.8953,4.7436,-0.96154,1.8954,-0.06472,10.363,9.4603,7.6461,8.5897,10.513,-0.0638,4.7393,3.8835,5.614
5.5975,1.0159,4.7896,3.8462,2.8758,3.6538,4.7665,1.868,4.7436,3.8462,2.8758,3.8188,0.88468,1.8413,3.8547,5.7051,6.6667,1.8501,8.5308,1.9417,6.571
0.8805,1.9683,4.7896,7.6923,5.817,3.6538,4.7665,7.6651,2.8205,7.6923,5.817,5.7605,-2.9068,-3.873,0.06319,0.89744,1.859,2.807,2.8436,0.0,2.7432
-1.9497,0.06349,3.8188,6.7308,6.7974,4.6154,5.7327,6.6989,2.8205,6.7308,6.7974,5.7605,-2.9068,-1.0159,-1.8325,-1.9872,-1.0256,2.807,2.8436,0.0,-3.9553
-0.06289,6.7302,4.7896,5.7692,9.7386,7.5,10.564,5.7327,6.6667,5.7692,9.7386,9.644,-4.8025,-1.9683,-3.7283,-3.9103,-2.9487,4.7209,2.8436,-0.97087,-5.8692
-1.0063,4.8254,2.8479,4.8077,6.7974,7.5,1.868,2.8341,6.6667,4.8077,6.7974,7.7023,-9.5419,-8.6349,-4.6761,-5.8333,-5.8333,-0.0638,-1.8957,-2.9126,-3.9553
4.6541,-6.6032,4.7896,4.8077,6.7974,4.6154,4.7665,3.8003,7.6282,4.8077,6.7974,6.7314,-2.9068,-1.0159,0.06319,-1.9872,-1.9872,-1.0207,8.5308,-2.9126,3.7002
10.314,1.9683,11.586,4.8077,5.817,5.5769,7.6651,4.7665,8.5897,4.8077,5.817,7.7023,2.7804,5.6508,8.594,3.7821,6.6667,3.764,8.5308,2.9126,5.614
15.975,13.397,16.440001,4.8077,6.7974,8.4615,9.5974,1.868,5.7051,4.8077,6.7974,11.586,5.624,8.5079,13.333,8.5897,11.474,4.7209,2.8436,6.7961,8.4848
15.975,21.016001,15.469,3.8462,4.8366,13.269,14.428,1.868,1.859,3.8462,4.8366,14.498,6.5719,6.6032,14.281,10.513,13.397,6.6348,5.6872,10.68,7.5279
11.258,12.444,10.615,3.8462,5.817,10.385,11.53,-1.0306,5.7051,3.8462,5.817,12.557,4.6761,4.6984,9.5419,7.6282,10.513,4.7209,9.4787,3.8835,5.614
5.5975,16.254,9.644,1.9231,3.8562,7.5,8.6312,-1.0306,7.6282,1.9231,3.8562,10.615,-2.9068,-1.0159,5.7504,9.5513,9.5513,-4.8485,6.6351,-3.8835,4.6571
4.6541,22.921,10.615,4.8077,10.719,7.5,18.292999,1.868,15.321,4.8077,10.719,13.528,-2.9068,-2.9206,3.8547,7.6282,6.6667,-1.0207,12.322,-1.9417,5.614
0.8805,8.6349,3.8188,11.538,16.601,6.5385,14.428,3.8003,20.128,11.538,16.601,9.644,-1.9589,-1.9683,-0.88468,0.89744,-1.9872,-0.0638,18.009001,-3.8835,4.6571
-3.8365,3.873,-2.0065,9.6154,13.66,1.7308,8.6312,4.7665,14.359,9.6154,13.66,3.8188,-3.8547,-0.06349,-5.624,-2.9487,-5.8333,-2.9346,8.5308,-6.7961,1.7863
-7.6101,4.8254,-7.8317,3.8462,5.817,-4.0385,1.868,-0.06441,7.6282,3.8462,5.817,-2.9773,-5.7504,-1.9683,-8.4676,-3.9103,-7.7564,-1.9777,0.94787,-8.7379,-0.12759
-7.6101,-2.7937,-11.715,2.8846,4.8366,-5.9615,-1.9968,-1.0306,9.5513,2.8846,4.8366,-6.8608,-7.6461,-6.7302,-8.4676,-4.8718,-8.7179,-0.0638,3.7915,-5.8252,-0.12759
-4.7799,-1.8413,-10.744,0.96154,-0.06536,-5.9615,-1.9968,-1.0306,1.859,0.96154,-0.06536,-6.8608,-2.9068,-2.9206,-5.624,-4.8718,-5.8333,-0.0638,-4.7393,-1.9417,-4.9123
-6.6667,-18.032,-14.628,-2.8846,-5.9477,-7.8846,-9.7262,-1.0306,-5.8333,-2.8846,-5.9477,-11.715,-4.8025,-3.873,-7.5197,-11.603,-8.7179,-3.8915,-1.8957,-4.8544,-11.611
-5.7233,-17.079,-13.657,-2.8846,-7.9085,-8.8462,-17.455999,-0.06441,-6.7949,-2.8846,-7.9085,-12.686,-5.7504,-6.7302,-6.5719,-9.6795,-6.7949,-4.8485,-6.6351,-3.8835,-11.611
-5.7233,-22.794001,-12.686,-4.8077,-9.8693,-7.8846,-19.388,0.90177,-3.9103,-4.8077,-9.8693,-13.657,-4.8025,-5.7778,-5.624,-8.7179,-4.8718,-1.0207,-6.6351,-4.8544,-6.8262
-5.7233,-21.841,-12.686,-3.8462,-6.9281,-6.9231,-14.557,-1.0306,-6.7949,-3.8462,-6.9281,-12.686,-2.9068,-3.873,-5.624,-8.7179,-4.8718,5.6778,-2.8436,-3.8835,-3.9553
-10.44,-19.937,-16.57,-3.8462,-7.9085,-9.8077,-18.422001,-1.0306,-6.7949,-3.8462,-7.9085,-15.599,-2.9068,-3.873,-7.5197,-8.7179,-7.7564,1.8501,-7.5829,-1.9417,-5.8692
-11.384,-16.127001,-16.57,-0.96154,-4.9673,-9.8077,-14.557,-0.06441,-10.641,-0.96154,-4.9673,-13.657,-2.9068,-3.873,-9.4155,-10.641,-12.564,-0.0638,-10.427,-0.97087,-5.8692
-10.44,-6.6032,-13.657,0.0,-4.9673,-4.0385,-10.692,0.90177,-9.6795,0.0,-4.9673,-9.7735,-0.06319,-1.0159,-9.4155,-8.7179,-12.564,-1.9777,-12.322,-1.9417,-6.8262
-12.327,-15.175,-13.657,4.8077,-3.0065,-3.0769,-7.7939,2.8341,-5.8333,4.8077,-3.0065,-5.89,-5.7504,-7.6825,-14.155,-11.603,-15.449,-4.8485,-1.8957,-8.7379,-8.74
-10.44,-7.5556,-9.7735,5.7692,0.91503,0.76923,-2.963,5.7327,-2.9487,5.7692,0.91503,0.90615,-11.438,-8.6349,-15.103,-11.603,-14.487,-7.7193,0.94787,-12.621,-8.74
1.8239,5.7778,-0.06472,8.6538,7.7778,9.4231,6.6989,7.6651,-1.0256,8.6538,7.7778,10.615,-2.9068,0.88889,-6.5719,-3.9103,-7.7564,-2.9346,-2.8436,-5.8252,1.7863
2.7673,-7.5556,-3.9482,8.6538,5.817,9.4231,2.8341,5.7327,4.7436,8.6538,5.817,9.644,-4.8025,-4.8254,-5.624,-10.641,-10.641,4.7209,2.8436,-5.8252,-2.0415
6.5409,-3.746,-1.0356,8.6538,6.7974,8.4615,3.8003,6.6989,2.8205,8.6538,6.7974,8.6731,-6.6983,-7.6825,-0.88468,-12.564,-8.7179,10.463,0.0,0.97087,-4.9123
6.5409,1.0159,1.877,5.7692,4.8366,6.5385,5.7327,3.8003,-0.0641,5.7692,4.8366,5.7605,-5.7504,-6.7302,1.9589,-9.6795,-4.8718,5.6778,-8.5308,2.9126,-7.7831
6.5409,1.0159,1.877,1.9231,3.8562,3.6538,2.8341,1.868,2.8205,1.9231,3.8562,1.877,-1.9589,-1.9683,3.8547,-4.8718,-1.0256,4.7209,-0.94787,1.9417,-4.9123
1.8239,-3.746,-1.0356,0.0,0.91503,-1.1538,-0.06441,-1.9968,-0.0641,0.0,0.91503,-2.0065,-2.9068,-1.0159,1.9589,-1.9872,-1.9872,2.807,5.6872,1.9417,-1.0845
-1.9497,-8.5079,-4.9191,0.0,-1.0458,-5.0,-5.8615,-1.9968,-0.0641,0.0,-1.0458,-4.9191,-1.0111,2.7937,1.0111,1.859,-1.9872,-0.0638,3.7915,3.8835,0.82935
-5.7233,1.0159,-3.9482,-0.96154,0.91503,-4.0385,-8.7601,-2.963,-1.0256,-0.96154,0.91503,-3.9482,2.7804,4.6984,-0.88468,7.6282,-0.0641,-6.7624,-1.8957,1.9417,4.6571
-6.6667,3.873,-1.0356,0.0,-0.06536,-1.1538,-1.0306,-1.0306,-0.0641,0.0,-0.06536,-0.06472,4.6761,4.6984,-3.7283,9.5513,-0.0641,-6.7624,-0.94787,0.0,4.6571
-7.6101,-0.88889,-2.0065,1.9231,1.8954,-2.1154,5.7327,-1.0306,-0.0641,1.9231,1.8954,0.90615,3.7283,3.746,-7.5197,5.7051,-3.9103,-1.0207,2.8436,-2.9126,5.614
-10.44,1.9683,-4.9191,0.96154,-0.06536,-4.0385,1.868,-1.9968,0.89744,0.96154,-0.06536,-1.0356,-4.8025,-1.9683,-12.259,-0.0641,-8.7179,-3.8915,0.0,-9.7087,2.7432
-9.4969,3.873,-5.89,0.96154,-1.0458,-3.0769,3.8003,-0.06441,-1.9872,0.96154,-1.0458,-1.0356,-6.6983,-1.0159,-16.051001,-1.0256,-9.6795,-1.9777,-8.5308,-14.563,0.82935
-9.4969,-1.8413,-8.8026,0.96154,-0.06536,-2.1154,1.868,2.8341,-1.0256,0.96154,-0.06536,-2.0065,-9.5419,-5.7778,-15.103,-6.7949,-12.564,-2.9346,-1.8957,-12.621,-2.0415
-8.5535,-11.365,-11.715,0.0,-0.06536,-5.0,-1.0306,-0.06441,-0.0641,0.0,-0.06536,-4.9191,-15.229,-12.444,-15.103,-14.487,-17.372,-2.9346,5.6872,-9.7087,-6.8262
-9.4969,-9.4603,-10.744,-1.9231,-2.0261,-8.8462,-1.9968,-2.963,1.859,-1.9231,-2.0261,-7.8317,-10.49,-9.5873,-13.207,-12.564,-16.41,-6.7624,6.6351,-7.767,-4.9123
-3.8365,-2.7937,-4.9191,0.96154,3.8562,-5.0,1.868,-4.8953,3.7821,0.96154,3.8562,-3.9482,-3.8547,-5.7778,-6.5719,-6.7949,-9.6795,-4.8485,7.5829,-6.7961,2.7432
-1.9497,2.9206,-3.9482,0.96154,1.8954,-1.1538,1.868,-1.0306,0.89744,0.96154,1.8954,-2.0065,-1.9589,-4.8254,-3.7283,-7.7564,-8.7179,-1.0207,0.94787,-3.8835,-0.12759
-0.06289,4.8254,-1.0356,2.8846,2.8758,1.7308,3.8003,2.8341,-0.0641,2.8846,2.8758,3.8188,-4.8025,-4.8254,-2.7804,-8.7179,-6.7949,-1.0207,-6.6351,-1.9417,-5.8692
1.8239,1.0159,2.8479,1.9231,0.91503,6.5385,3.8003,3.8003,-4.8718,1.9231,0.91503,5.7605,-4.8025,-6.7302,-1.8325,-10.641,-5.8333,-0.0638,-5.6872,-0.97087,-9.697
2.7673,-1.8413,4.7896,3.8462,2.8758,5.5769,-0.06441,2.8341,1.859,3.8462,2.8758,4.7896,-3.8547,-3.873,0.06319,-6.7949,-1.9872,0.89314,1.8957,1.9417,-2.0415
-1.9497,-1.8413,3.8188,0.96154,1.8954,1.7308,-1.0306,-1.0306,2.8205,0.96154,1.8954,1.877,-4.8025,-4.8254,-2.7804,-1.0256,-1.0256,-4.8485,0.94787,-1.9417,2.7432
0.8805,8.6349,7.7023,0.96154,0.91503,3.6538,4.7665,-1.0306,-1.9872,0.96154,0.91503,5.7605,1.8325,-0.06349,0.06319,2.8205,3.7821,-1.9777,-0.94787,0.0,2.7432
0.8805,1.0159,5.7605,0.0,-2.0261,1.7308,-1.0306,-0.06441,-2.9487,0.0,-2.0261,2.8479,2.7804,3.746,1.9589,1.859,3.7821,-1.9777,0.94787,1.9417,1.7863
3.7107,16.254,9.644,-0.96154,-3.0065,1.7308,-1.9968,0.90177,-3.9103,-0.96154,-3.0065,0.90615,1.8325,2.7937,4.8025,4.7436,7.6282,2.807,-7.5829,2.9126,1.7863
2.7673,12.444,7.7023,-3.8462,-4.9673,-1.1538,1.868,-1.9968,-4.8718,-3.8462,-4.9673,-2.0065,4.6761,5.6508,5.7504,8.5897,10.513,4.7209,-3.7915,1.9417,3.7002
1.8239,-8.5079,0.90615,-7.6923,-8.8889,-5.9615,-3.9291,-5.8615,-5.8333,-7.6923,-8.8889,-7.8317,5.624,5.6508,7.6461,9.5513,10.513,-0.0638,4.7393,4.8544,4.6571
2.7673,-10.413,-1.0356,-4.8077,-8.8889,-5.9615,-5.8615,-3.9291,-10.641,-4.8077,-8.8889,-7.8317,6.5719,4.6984,9.5419,10.513,9.5513,4.7209,2.8436,10.68,4.6571
0.8805,-8.5079,-3.9482,-7.6923,-11.83,-7.8846,-13.591,-1.9968,-9.6795,-7.6923,-11.83,-8.8026,8.4676,6.6032,8.594,6.6667,4.7436,3.764,-2.8436,10.68,0.82935
-0.06289,-4.6984,-5.89,-5.7692,-9.8693,-7.8846,-13.591,-1.9968,-11.603,-5.7692,-9.8693,-8.8026,8.4676,5.6508,4.8025,4.7436,0.89744,-1.9777,-5.6872,4.8544,2.7432
-2.8931,-0.88889,-7.8317,-4.8077,-8.8889,-7.8846,-11.659,-1.0306,-9.6795,-4.8077,-8.8889,-10.744,4.6761,4.6984,1.0111,2.8205,-1.0256,-3.8915,-13.27,0.97087,3.7002
-4.7799,-1.8413,-9.7735,-1.9231,-3.0065,-7.8846,-9.7262,-2.963,-3.9103,-1.9231,-3.0065,-9.7735,-1.0111,-2.9206,-1.8325,-2.9487,-4.8718,4.7209,-8.5308,2.9126,-0.12759
-6.6667,-10.413,-10.744,-0.96154,-1.0458,-5.0,-7.7939,-1.9968,-1.9872,-0.96154,-1.0458,-7.8317,-2.9068,-4.8254,-3.7283,-8.7179,-8.7179,2.807,0.0,2.9126,-6.8262
-5.7233,-18.983999,-8.8026,0.0,-1.0458,-5.0,-3.9291,-1.0306,-1.9872,0.0,-1.0458,-4.9191,-2.9068,-5.7778,-3.7283,-10.641,-6.7949,-1.0207,1.8957,0.0,-9.697
-4.7799,-14.222,-4.9191,-0.96154,-0.06536,-4.0385,-2.963,-1.0306,0.89744,-0.96154,-0.06536,-2.9773,-4.8025,-8.6349,-2.7804,-11.603,-4.8718,-7.7193,0.0,-1.9417,-11.611
-1.0063,-6.6032,0.90615,4.8077,3.8562,2.6923,-0.06441,1.868,0.89744,4.8077,3.8562,2.8479,-1.0111,-7.6825,0.06319,-7.7564,-0.0641,-8.6762,-0.94787,1.9417,-5.8692
2.7673,3.873,3.8188,5.7692,3.8562,4.6154,-0.06441,2.8341,-0.0641,5.7692,3.8562,6.7314,-1.9589,-9.5873,2.9068,-5.8333,1.859,-1.0207,-7.5829,2.9126,-4.9123
3.7107,9.5873,3.8188,4.8077,4.8366,4.6154,3.8003,3.8003,-1.9872,4.8077,4.8366,5.7605,0.88468,-4.8254,5.7504,-4.8718,1.859,10.463,-13.27,5.8252,-6.8262
-1.9497,1.0159,-2.9773,0.0,1.8954,-1.1538,-0.06441,0.90177,-4.8718,0.0,1.8954,-1.0356,-3.8547,-7.6825,0.06319,-6.7949,-2.9487,6.6348,-11.374,4.8544,-11.611
-1.9497,-6.6032,-2.9773,0.0,0.91503,-2.1154,-1.9968,0.90177,-0.0641,0.0,0.91503,-2.0065,0.88468,-3.873,0.06319,-2.9487,-1.0256,0.89314,-0.94787,4.8544,-3.9553
-1.0063,-11.365,-2.9773,0.96154,-0.06536,-0.19231,-2.963,0.90177,-1.0256,0.96154,-0.06536,-2.0065,-2.9068,-2.9206,-2.7804,-3.9103,-3.9103,-0.0638,2.8436,-1.9417,-2.0415
-2.8931,-7.5556,-2.9773,-3.8462,-5.9477,-3.0769,-6.8277,-1.0306,-4.8718,-3.8462,-5.9477,-3.9482,-3.8547,0.88889,-2.7804,-1.0256,-2.9487,-2.9346,0.0,-3.8835,0.82935
0.8805,2.9206,-0.06472,-4.8077,-5.9477,-5.0,-3.9291,-2.963,-6.7949,-4.8077,-5.9477,-4.9191,2.7804,3.746,4.8025,4.7436,4.7436,0.89314,-4.7393,2.9126,3.7002
2.7673,5.7778,2.8479,-6.7308,-7.9085,-4.0385,-3.9291,-4.8953,-6.7949,-6.7308,-7.9085,-6.8608,4.6761,3.746,8.594,10.513,11.474,0.89314,-3.7915,4.8544,8.4848
4.6541,10.54,8.6731,-0.96154,-2.0261,-1.1538,-1.0306,-1.0306,-4.8718,-0.96154,-2.0261,-1.0356,6.5719,5.6508,11.438,14.359,16.282,4.7209,-1.8957,7.767,11.356
2.7673,3.873,7.7023,0.96154,-0.06536,0.76923,-2.963,0.90177,0.89744,0.96154,-0.06536,1.877,3.7283,2.7937,9.5419,10.513,13.397,1.8501,0.94787,4.8544,5.614
4.6541,2.9206,8.6731,0.96154,1.8954,3.6538,5.7327,-1.9968,4.7436,0.96154,1.8954,5.7605,6.5719,7.5556,9.5419,10.513,12.436,3.764,6.6351,5.8252,5.614
0.8805,0.06349,3.8188,1.9231,2.8758,1.7308,4.7665,0.90177,5.7051,1.9231,2.8758,4.7896,3.7283,4.6984,4.8025,5.7051,6.6667,-2.9346,3.7915,4.8544,2.7432
-0.06289,4.8254,2.8479,5.7692,5.817,3.6538,5.7327,0.90177,2.8205,5.7692,5.817,7.7023,1.8325,3.746,0.06319,2.8205,2.8205,-5.8054,-1.8957,-0.97087,0.82935
-1.0063,0.06349,0.90615,1.9231,1.8954,3.6538,4.7665,-1.9968,2.8205,1.9231,1.8954,5.7605,-1.9589,-1.9683,-2.7804,0.89744,-1.0256,-5.8054,0.94787,-1.9417,-2.0415
-1.0063,-5.6508,0.90615,5.7692,7.7778,4.6154,4.7665,1.868,3.7821,5.7692,7.7778,5.7605,-2.9068,-2.9206,-6.5719,-0.0641,-1.9872,-9.6332,4.7393,-6.7961,-2.0415
-1.9497,7.6825,2.8479,9.6154,9.7386,6.5385,8.6312,6.6989,2.8205,9.6154,9.7386,6.7314,-4.8025,0.88889,-7.5197,1.859,-1.0256,-5.8054,-3.7915,-9.7087,1.7863
-0.06289,9.5873,2.8479,11.538,10.719,7.5,7.6651,6.6989,2.8205,11.538,10.719,6.7314,-0.06319,4.6984,-4.6761,4.7436,1.859,1.8501,-1.8957,-4.8544,4.6571
-0.06289,1.9683,1.877,8.6538,8.7582,3.6538,1.868,4.7665,2.8205,8.6538,8.7582,3.8188,1.8325,-0.06349,-1.8325,3.7821,2.8205,4.7209,0.0,0.0,0.82935
2.7673,4.8254,4.7896,6.7308,7.7778,2.6923,1.868,6.6989,4.7436,6.7308,7.7778,3.8188,-1.9589,-1.0159,1.0111,6.6667,5.7051,8.5486,-3.7915,-0.97087,-0.12759
0.8805,1.9683,1.877,3.8462,4.8366,-2.1154,3.8003,3.8003,2.8205,3.8462,4.8366,-0.06472,-3.8547,0.88889,-0.88468,2.8205,2.8205,3.764,1.8957,-5.8252,-1.0845
-1.0063,-0.88889,-2.0065,-0.96154,1.8954,-6.9231,4.7665,-1.0306,5.7051,-0.96154,1.8954,-3.9482,-1.9589,0.88889,-1.8325,0.89744,1.859,-1.0207,6.6351,-5.8252,-0.12759
0.8805,1.0159,-2.9773,-0.96154,2.8758,-5.9615,2.8341,-2.963,4.7436,-0.96154,2.8758,-4.9191,-1.9589,0.88889,0.06319,1.859,1.859,-0.0638,4.7393,-1.9417,1.7863
1.8239,5.7778,-5.89,-0.96154,-0.06536,-4.0385,-0.06441,-1.9968,5.7051,-0.96154,-0.06536,-5.89,-1.9589,-1.0159,2.9068,0.89744,0.89744,4.7209,2.8436,2.9126,0.82935
0.8805,-4.6984,-7.8317,0.0,3.8562,-3.0769,-0.06441,-0.06441,6.6667,0.0,3.8562,-4.9191,-3.8547,-3.873,0.06319,-1.0256,-2.9487,-0.0638,8.5308,0.97087,2.7432
-0.06289,9.5873,-2.0065,4.8077,7.7778,1.7308,7.6651,6.6989,5.7051,4.8077,7.7778,1.877,-1.9589,-3.873,0.06319,-0.0641,-2.9487,1.8501,3.7915,-0.97087,1.7863
0.8805,10.54,0.90615,7.6923,9.7386,5.5769,11.53,8.6312,7.6282,7.6923,9.7386,5.7605,-2.9068,-4.8254,0.06319,2.8205,-0.0641,4.7209,1.8957,0.0,2.7432
0.8805,-6.6032,-1.0356,6.7308,5.817,9.4231,3.8003,9.5974,14.359,6.7308,5.817,5.7605,-1.9589,-3.873,1.0111,-2.9487,-1.9872,2.807,11.374,-0.97087,-0.12759
8.4277,-5.6508,2.8479,10.577,6.7974,14.231,3.8003,13.462,8.5897,10.577,6.7974,9.644,-0.06319,-1.0159,5.7504,-2.9487,0.89744,7.5917,6.6351,2.9126,-1.0845
9.3711,2.9206,6.7314,9.6154,4.8366,13.269,5.7327,12.496,2.8205,9.6154,4.8366,8.6731,-1.9589,-1.0159,6.6983,-2.9487,2.8205,5.6778,0.94787,0.97087,-2.9984
11.258,5.7778,7.7023,9.6154,4.8366,10.385,5.7327,11.53,0.89744,9.6154,4.8366,9.644,-3.8547,-3.873,6.6983,-2.9487,3.7821,2.807,2.8436,0.97087,-2.0415
10.314,1.9683,6.7314,6.7308,0.91503,9.4231,1.868,9.5974,-1.9872,6.7308,0.91503,7.7023,-2.9068,-3.873,6.6983,-1.9872,2.8205,4.7209,-1.8957,2.9126,-1.0845
10.314,6.7302,6.7314,7.6923,4.8366,8.4615,-1.9968,6.6989,-1.9872,7.6923,4.8366,9.644,2.7804,1.8413,7.6461,-1.0256,4.7436,5.6778,-6.6351,4.8544,-2.9984
4.6541,6.7302,3.8188,4.8077,2.8758,5.5769,4.7665,4.7665,-3.9103,4.8077,2.8758,7.7023,-0.06319,-3.873,2.9068,-0.0641,2.8205,0.89314,0.0,0.97087,-3.9553
-1.9497,-4.6984,-2.0065,3.8462,4.8366,2.6923,3.8003,1.868,5.7051,3.8462,4.8366,3.8188,-2.9068,-2.9206,-4.6761,-1.9872,-2.9487,-1.9777,9.4787,-5.8252,-1.0845
-4.7799,-1.8413,-2.0065,3.8462,3.8562,-0.19231,2.8341,-2.963,9.5513,3.8462,3.8562,3.8188,-1.9589,0.88889,-8.4676,-5.8333,-4.8718,-3.8915,5.6872,-7.767,-1.0845
-3.8365,6.7302,1.877,2.8846,6.7974,0.76923,5.7327,-3.9291,9.5513,2.8846,6.7974,5.7605,-3.8547,-4.8254,-9.4155,-7.7564,-5.8333,-4.8485,-1.8957,-7.767,0.82935
-4.7799,1.0159,-0.06472,-0.96154,6.7974,-4.0385,5.7327,-7.7939,8.5897,-0.96154,6.7974,2.8479,-1.9589,-4.8254,-9.4155,-7.7564,-7.7564,-4.8485,0.0,-3.8835,-2.0415
-5.7233,2.9206,-2.9773,-2.8846,0.91503,-5.9615,3.8003,-5.8615,0.89744,-2.8846,0.91503,-2.0065,-2.9068,-3.873,-9.4155,-7.7564,-8.7179,-4.8485,-2.8436,-3.8835,-2.0415
-8.5535,-15.175,-11.715,0.96154,-1.0458,-7.8846,-7.7939,-1.0306,-1.9872,0.96154,-1.0458,-8.8026,-11.438,-11.492,-13.207,-13.526,-13.526,-3.8915,0.94787,-9.7087,-8.74
-7.6101,-18.032,-13.657,0.96154,-3.9869,-5.9615,-12.625,-0.06441,-2.9487,0.96154,-3.9869,-9.7735,-8.594,-5.7778,-12.259,-12.564,-14.487,-1.0207,1.8957,-9.7087,-9.697
-6.6667,-7.5556,-10.744,0.96154,-1.0458,-2.1154,-3.9291,0.90177,-4.8718,0.96154,-1.0458,-5.89,-4.8025,-2.9206,-11.311,-8.7179,-13.526,-1.0207,0.0,-7.767,-4.9123
-7.6101,-4.6984,-10.744,-1.9231,-5.9477,-3.0769,-4.8953,2.8341,-5.8333,-1.9231,-5.9477,-4.9191,-6.6983,-5.7778,-8.4676,-5.8333,-12.564,-2.9346,-3.7915,-5.8252,-2.9984
0.8805,-1.8413,-3.9482,-4.8077,-8.8889,-0.19231,-7.7939,0.90177,-7.7564,-4.8077,-8.8889,-1.0356,1.8325,1.8413,1.0111,1.859,-3.9103,-2.9346,-6.6351,2.9126,5.614
6.5409,7.6825,3.8188,-2.8846,-9.8693,3.6538,-5.8615,3.8003,-9.6795,-2.8846,-9.8693,0.90615,8.4676,8.5079,9.5419,8.5897,5.7051,1.8501,-10.427,7.767,6.571
8.4277,1.9683,5.7605,-3.8462,-8.8889,1.7308,-3.9291,2.8341,-12.564,-3.8462,-8.8889,-1.0356,5.624,8.5079,11.438,7.6282,7.6282,5.6778,-3.7915,4.8544,0.82935
2.7673,-14.222,-0.06472,-9.6154,-10.85,-5.9615,-12.625,-1.0306,-10.641,-9.6154,-10.85,-8.8026,-0.06319,-0.06349,8.594,1.859,4.7436,1.8501,0.94787,6.7961,-2.9984
2.7673,-5.6508,2.8479,-7.6923,-7.9085,-7.8846,-8.7601,-3.9291,-6.7949,-7.6923,-7.9085,-8.8026,3.7283,1.8413,9.5419,6.6667,9.5513,4.7209,1.8957,6.7961,3.7002
-0.06289,3.873,3.8188,-7.6923,-6.9281,-7.8846,-7.7939,-7.7939,-2.9487,-7.6923,-6.9281,-6.8608,3.7283,3.746,6.6983,6.6667,7.6282,3.764,3.7915,1.9417,4.6571
-5.7233,-0.88889,-1.0356,-11.538,-5.9477,-10.769,-5.8615,-14.557,-1.0256,-11.538,-5.9477,-7.8317,-0.06319,2.7937,-1.8325,2.8205,-0.0641,-4.8485,3.7915,-1.9417,4.6571
-8.5535,1.9683,-3.9482,-9.6154,-3.0065,-7.8846,0.90177,-14.557,4.7436,-9.6154,-3.0065,-4.9191,-2.9068,-0.06349,-6.5719,0.89744,-3.9103,-9.6332,1.8957,-2.9126,3.7002
-9.4969,5.7778,-6.8608,-5.7692,1.8954,-5.0,2.8341,-10.692,1.859,-5.7692,1.8954,-1.0356,-0.06319,-0.06349,-6.5719,-0.0641,-5.8333,-8.6762,0.0,-0.97087,-0.12759
-12.327,-11.365,-15.599,-2.8846,1.8954,-5.0,-4.8953,-9.7262,3.7821,-2.8846,1.8954,-3.9482,0.88468,-1.0159,-9.4155,-8.7179,-12.564,-12.504,-2.8436,-1.9417,-5.8692
-10.44,-12.317,-14.628,0.96154,1.8954,-3.0769,-6.8277,-4.8953,2.8205,0.96154,1.8954,-2.9773,0.88468,0.88889,-10.363,-10.641,-14.487,-5.8054,-4.7393,-4.8544,-6.8262
-7.6101,-14.222,-10.744,2.8846,0.91503,-4.0385,-7.7939,-1.0306,-2.9487,2.8846,0.91503,-2.9773,3.7283,3.746,-9.4155,-6.7949,-10.641,2.807,-5.6872,-3.8835,-2.9984
-3.8365,-14.222,-5.89,3.8462,0.91503,-2.1154,-5.8615,5.7327,-2.9487,3.8462,0.91503,-2.0065,-0.06319,-0.06349,-5.624,-7.7564,-6.7949,3.764,-1.8957,-0.97087,-5.8692
-0.06289,-4.6984,-0.06472,7.6923,4.8366,1.7308,-1.9968,10.564,-2.9487,7.6923,4.8366,1.877,-3.8547,-3.873,-3.7283,-5.8333,-1.0256,6.6348,-0.94787,-2.9126,-4.9123
1.8239,2.9206,3.8188,6.7308,0.91503,4.6154,-1.0306,11.53,-1.9872,6.7308,0.91503,3.8188,-0.06319,-0.06349,-0.88468,0.89744,4.7436,-0.0638,-3.7915,-3.8835,-2.9984
1.8239,0.06349,2.8479,2.8846,1.8954,1.7308,-2.963,5.7327,-3.9103,2.8846,1.8954,1.877,1.8325,1.8413,1.0111,4.7436,6.6667,-1.9777,-3.7915,-1.9417,-0.12759
-3.8365,3.873,-1.0356,-2.8846,-3.9869,-6.9231,-5.8615,2.8341,-6.7949,-2.8846,-3.9869,-5.89,3.7283,5.6508,0.06319,5.7051,4.7436,0.89314,-4.7393,-2.9126,5.614
-6.6667,-1.8413,-4.9191,-7.6923,-7.9085,-11.731,-3.9291,-3.9291,-9.6795,-7.6923,-7.9085,-10.744,5.624,8.5079,-0.88468,3.7821,0.89744,2.807,-3.7915,1.9417,4.6571
-5.7233,-13.27,-6.8608,-10.577,-10.85,-11.731,-11.659,-6.8277,-5.8333,-10.577,-10.85,-12.686,5.624,2.7937,-0.88468,1.859,-3.9103,2.807,-0.94787,5.8252,3.7002
-1.9497,-7.5556,-3.9482,-9.6154,-6.9281,-7.8846,-9.7262,-4.8953,-4.8718,-9.6154,-6.9281,-9.7735,-1.9589,-1.9683,0.06319,-0.0641,-4.8718,2.807,-2.8436,2.9126,2.7432
1.8239,6.7302,0.90615,-11.538,-5.9477,-5.9615,-0.06441,-5.8615,-5.8333,-11.538,-5.9477,-6.8608,-0.06319,-0.06349,3.8547,-0.0641,-1.0256,0.89314,-3.7915,2.9126,-2.0415
6.5409,-2.7937,1.877,-8.6538,-3.0065,-2.1154,-0.06441,-3.9291,-0.0641,-8.6538,-3.0065,-4.9191,6.5719,4.6984,9.5419,1.859,4.7436,1.8501,5.6872,6.7961,0.82935
10.314,-2.7937,5.7605,-3.8462,-0.06536,2.6923,-1.9968,-0.06441,3.7821,-3.8462,-0.06536,-0.06472,6.5719,2.7937,14.281,2.8205,9.5513,-1.9777,4.7393,10.68,0.82935
12.201,20.063,13.528,0.96154,4.8366,7.5,10.564,2.8341,7.6282,0.96154,4.8366,5.7605,6.5719,3.746,16.177,6.6667,15.321,4.7209,-2.8436,11.65,3.7002
7.4843,8.6349,10.615,0.96154,2.8758,2.6923,4.7665,-0.06441,5.7051,0.96154,2.8758,1.877,8.4676,5.6508,13.333,7.6282,14.359,6.6348,1.8957,8.7379,6.571
6.5409,1.9683,8.6731,0.96154,1.8954,1.7308,3.8003,0.90177,-0.0641,0.96154,1.8954,0.90615,10.363,10.413,13.333,9.5513,15.321,2.807,2.8436,9.7087,6.571
3.7107,-0.88889,3.8188,-0.96154,1.8954,3.6538,-0.06441,-1.9968,-1.0256,-0.96154,1.8954,1.877,7.5197,9.4603,6.6983,6.6667,8.5897,1.8501,0.0,6.7961,2.7432
-1.9497,-9.4603,-6.8608,-0.96154,-2.0261,4.6154,-8.7601,-3.9291,-2.9487,-0.96154,-2.0261,0.90615,0.88468,0.88889,-3.7283,-1.9872,-6.7949,-2.9346,-4.7393,2.9126,-3.9553
-4.7799,-7.5556,-9.7735,0.0,-3.0065,3.6538,-5.8615,-1.9968,-6.7949,0.0,-3.0065,2.8479,-3.8547,-3.873,-8.4676,-6.7949,-14.487,-4.8485,-5.6872,0.97087,-3.9553
-4.7799,-5.6508,-6.8608,-3.8462,-4.9673,-1.1538,-5.8615,-2.963,-4.8718,-3.8462,-4.9673,-0.06472,-1.9589,-1.0159,-7.5197,-5.8333,-10.641,-5.8054,-3.7915,0.0,-4.9123
-1.0063,10.54,3.8188,-4.8077,-7.9085,-3.0769,1.868,-7.7939,-11.603,-4.8077,-7.9085,0.90615,2.7804,0.88889,-2.7804,2.8205,-0.0641,1.8501,-11.374,-1.9417,0.82935
-2.8931,1.0159,3.8188,-7.6923,-6.9281,-4.0385,-0.06441,-8.7601,-3.9103,-7.6923,-6.9281,-2.0065,2.7804,-0.06349,-1.8325,4.7436,2.8205,-2.9346,0.0,-4.8544,2.7432
-0.06289,1.9683,4.7896,-2.8846,3.8562,-3.0769,4.7665,-4.8953,5.7051,-2.8846,3.8562,-1.0356,3.7283,2.7937,0.06319,4.7436,5.7051,0.89314,7.5829,-0.97087,5.614
-1.0063,1.0159,3.8188,-0.96154,2.8758,-4.0385,2.8341,-2.963,2.8205,-0.96154,2.8758,-3.9482,2.7804,2.7937,1.9589,1.859,6.6667,1.8501,6.6351,0.97087,2.7432
2.7673,-6.6032,2.8479,0.0,-0.06536,-2.1154,-1.9968,-3.9291,1.859,0.0,-0.06536,-4.9191,-0.06319,1.8413,3.8547,2.8205,7.6282,1.8501,6.6351,0.0,1.7863
8.4277,9.5873,11.586,0.96154,-0.06536,3.6538,2.8341,2.8341,1.859,0.96154,-0.06536,2.8479,3.7283,6.6032,9.5419,8.5897,13.397,1.8501,-0.94787,0.97087,3.7002
9.3711,13.397,13.528,-0.96154,1.8954,3.6538,6.6989,3.8003,2.8205,-0.96154,1.8954,4.7896,4.6761,3.746,10.49,8.5897,12.436,5.6778,0.94787,3.8835,4.6571
5.5975,18.159,11.586,-1.9231,2.8758,3.6538,6.6989,1.868,2.8205,-1.9231,2.8758,3.8188,5.624,7.5556,7.6461,10.513,9.5513,7.5917,-2.8436,2.9126,7.5279
-0.06289,3.873,1.877,-1.9231,1.8954,0.76923,2.8341,-0.06441,2.8205,-1.9231,1.8954,-0.06472,0.88468,5.6508,2.9068,7.6282,3.7821,2.807,8.5308,-0.97087,8.4848
-1.0063,-9.4603,-5.89,3.8462,5.817,2.6923,1.868,1.868,11.474,3.8462,5.817,1.877,-5.7504,-4.8254,-1.8325,0.89744,-3.9103,-1.0207,17.062,-3.8835,4.6571
-5.7233,-3.746,-8.8026,5.7692,8.7582,3.6538,3.8003,1.868,9.5513,5.7692,8.7582,2.8479,-10.49,-9.5873,-9.4155,-4.8718,-12.564,-6.7624,9.4787,-7.767,-2.0415
-6.6667,-2.7937,-8.8026,3.8462,7.7778,0.76923,5.7327,-0.06441,6.6667,3.8462,7.7778,-0.06472,-9.5419,-9.5873,-9.4155,-8.7179,-15.449,-3.8915,7.5829,-4.8544,-3.9553
-2.8931,1.9683,-5.89,-1.9231,2.8758,0.76923,4.7665,-4.8953,5.7051,-1.9231,2.8758,-2.9773,-5.7504,-3.873,-5.624,-2.9487,-10.641,-1.0207,-0.94787,-4.8544,2.7432
-2.8931,18.159,-0.06472,-3.8462,0.91503,-3.0769,3.8003,-7.7939,3.7821,-3.8462,0.91503,-2.9773,-2.9068,1.8413,-3.7283,-0.0641,-4.8718,-2.9346,-8.5308,-4.8544,3.7002
-4.7799,2.9206,0.90615,-2.8846,0.91503,-4.0385,1.868,-6.8277,9.5513,-2.8846,0.91503,-2.0065,-3.8547,-1.9683,-3.7283,0.89744,-1.9872,-6.7624,5.6872,-3.8835,-1.0845
-3.8365,-3.746,3.8188,0.0,3.8562,-2.1154,2.8341,-5.8615,7.6282,0.0,3.8562,0.90615,-2.9068,0.88889,-5.624,2.8205,0.89744,-8.6762,13.27,-6.7961,5.614
-5.7233,4.8254,2.8479,-2.8846,-1.0458,-5.9615,-1.9968,-4.8953,2.8205,-2.8846,-1.0458,-2.0065,2.7804,5.6508,-4.6761,6.6667,2.8205,-9.6332,7.5829,-4.8544,11.356
-10.44,-5.6508,-6.8608,-7.6923,-5.9477,-12.692,-7.7939,-9.7262,-1.9872,-7.6923,-5.9477,-11.715,4.6761,6.6032,-9.4155,2.8205,-2.9487,-7.7193,2.8436,-5.8252,5.614
-11.384,-9.4603,-12.686,-9.6154,-8.8889,-12.692,-12.625,-5.8615,-5.8333,-9.6154,-8.8889,-14.628,-1.0111,-1.0159,-10.363,-5.8333,-10.641,-3.8915,-6.6351,-2.9126,-1.0845
-7.6101,-11.365,-14.628,-6.7308,-7.9085,-7.8846,-9.7262,-1.9968,-7.7564,-6.7308,-7.9085,-11.715,-6.6983,-6.7302,-8.4676,-14.487,-14.487,3.764,-5.6872,0.97087,-7.7831
-7.6101,2.9206,-9.7735,-5.7692,-9.8693,-9.8077,-1.9968,-1.0306,-11.603,-5.7692,-9.8693,-9.7735,-5.7504,-6.7302,-5.624,-10.641,-11.603,2.807,-16.114,-0.97087,-8.74
-8.5535,-4.6984,-6.8608,-10.577,-10.85,-12.692,-6.8277,-2.963,-8.7179,-10.577,-10.85,-11.715,-1.9589,-3.873,-3.7283,-5.8333,-6.7949,-0.0638,-9.4787,0.0,-7.7831
-4.7799,-13.27,-2.9773,-12.5,-11.83,-7.8846,-11.659,-1.9968,-2.9487,-12.5,-11.83,-8.8026,-0.06319,-0.06349,-0.88468,-1.9872,-3.9103,-0.0638,0.0,1.9417,-4.9123
6.5409,-5.6508,5.7605,0.0,-3.9869,5.5769,0.90177,5.7327,0.89744,0.0,-3.9869,3.8188,9.4155,10.413,7.6461,6.6667,4.7436,6.6348,3.7915,8.7379,5.614
9.3711,4.8254,5.7605,2.8846,-0.06536,11.346,3.8003,8.6312,0.89744,2.8846,-0.06536,7.7023,3.7283,2.7937,7.6461,4.7436,4.7436,1.8501,-3.7915,6.7961,1.7863
11.258,5.7778,5.7605,0.0,0.91503,9.4231,4.7665,7.6651,-0.0641,0.0,0.91503,6.7314,0.88468,-1.9683,8.594,1.859,4.7436,7.5917,-1.8957,4.8544,-2.9984
11.258,13.397,9.644,0.0,-3.0065,6.5385,3.8003,5.7327,-3.9103,0.0,-3.0065,3.8188,1.8325,0.88889,9.5419,0.89744,7.6282,10.463,-5.6872,4.8544,-4.9123
11.258,4.8254,8.6731,2.8846,-2.0261,5.5769,-1.9968,6.6989,-3.9103,2.8846,-2.0261,2.8479,2.7804,2.7937,8.594,-0.0641,5.7051,9.5056,-3.7915,3.8835,-2.9984
5.5975,-0.88889,1.877,6.7308,1.8954,6.5385,2.8341,7.6651,-2.9487,6.7308,1.8954,4.7896,3.7283,0.88889,3.8547,-2.9487,0.89744,4.7209,0.94787,5.8252,-1.0845
-0.06289,-3.746,-5.89,7.6923,4.8366,7.5,5.7327,7.6651,1.859,7.6923,4.8366,4.7896,-4.8025,-4.8254,-0.88468,-5.8333,-5.8333,-0.0638,2.8436,4.8544,-2.9984
-1.9497,-3.746,-9.7735,7.6923,7.7778,6.5385,5.7327,4.7665,7.6282,7.6923,7.7778,3.8188,-7.6461,-4.8254,-4.6761,-7.7564,-9.6795,3.764,0.94787,1.9417,-0.12759
-5.7233,-3.746,-8.8026,4.8077,4.8366,4.6154,6.6989,3.8003,8.5897,4.8077,4.8366,4.7896,-4.8025,-4.8254,-8.4676,-8.7179,-10.641,-3.8915,5.6872,-3.8835,-1.0845
-2.8931,0.06349,0.90615,6.7308,8.7582,7.5,10.564,1.868,8.5897,6.7308,8.7582,11.586,-7.6461,-7.6825,-10.363,-7.7564,-8.7179,-7.7193,7.5829,-7.767,-0.12759
4.6541,28.635,17.410999,8.6538,12.68,14.231,22.158001,4.7665,9.5513,8.6538,12.68,21.294001,-8.594,-3.873,-5.624,-1.0256,-1.0256,-1.9777,-1.8957,-7.767,2.7432
4.6541,17.205999,18.382,7.6923,12.68,11.346,19.259001,-0.06441,11.474,7.6923,12.68,18.382,-5.7504,-0.06349,-5.624,0.89744,1.859,-0.0638,6.6351,-7.767,3.7002
3.7107,11.492,13.528,4.8077,11.699,7.5,12.496,0.90177,13.397,4.8077,11.699,11.586,0.88468,2.7937,-1.8325,4.7436,5.7051,-0.0638,9.4787,-4.8544,4.6571
5.5975,14.349,12.557,9.6154,12.68,5.5769,17.327,5.7327,10.513,9.6154,12.68,9.644,-0.06319,0.88889,3.8547,9.5513,12.436,4.7209,12.322,-0.97087,4.6571
8.4277,1.0159,9.644,10.577,8.7582,5.5769,8.6312,10.564,7.6282,10.577,8.7582,6.7314,0.88468,2.7937,8.594,9.5513,16.282,0.89314,10.427,2.9126,5.614
14.088,-3.746,10.615,12.5,9.7386,9.4231,6.6989,14.428,-1.0256,12.5,9.7386,7.7023,6.5719,6.6032,15.229,7.6282,19.167,5.6778,0.94787,8.7379,2.7432
15.975,-9.4603,4.7896,12.5,4.8366,12.308,-4.8953,16.361,-2.9487,12.5,4.8366,4.7896,5.624,2.7937,15.229,2.8205,13.397,13.333,-4.7393,10.68,-1.0845
14.088,-2.7937,1.877,10.577,1.8954,12.308,-6.8277,13.462,-4.8718,10.577,1.8954,4.7896,7.5197,1.8413,12.385,2.8205,9.5513,15.247,-10.427,10.68,-3.9553
8.4277,3.873,-0.06472,4.8077,-0.06536,7.5,-1.9968,4.7665,-6.7949,4.8077,-0.06536,4.7896,5.624,-3.873,7.6461,1.859,2.8205,8.5486,-10.427,9.7087,-3.9553
2.7673,-0.88889,-2.9773,0.96154,0.91503,3.6538,-1.0306,2.8341,-1.9872,0.96154,0.91503,5.7605,1.8325,-0.06349,1.9589,-1.9872,-3.9103,1.8501,-4.7393,3.8835,-2.0415
0.8805,7.6825,0.90615,2.8846,2.8758,2.6923,5.7327,0.90177,-1.0256,2.8846,2.8758,8.6731,-0.06319,5.6508,-0.88468,-0.0641,-4.8718,-3.8915,1.8957,0.0,3.7002
-5.7233,1.9683,-2.0065,0.96154,0.91503,-2.1154,3.8003,-4.8953,1.859,0.96154,0.91503,3.8188,-1.0111,4.6984,-5.624,1.859,-7.7564,-9.6332,9.4787,-4.8544,4.6571
-6.6667,-5.6508,-3.9482,-1.9231,-0.06536,-3.0769,1.868,-6.8277,1.859,-1.9231,-0.06536,0.90615,-2.9068,-1.0159,-5.624,-3.9103,-9.6795,-6.7624,10.427,-1.9417,0.82935
-6.6667,1.9683,-1.0356,-2.8846,-2.0261,-5.0,4.7665,-5.8615,4.7436,-2.8846,-2.0261,0.90615,-4.8025,-1.9683,-5.624,-4.8718,-7.7564,-4.8485,5.6872,-3.8835,-0.12759
-1.0063,13.397,4.7896,-0.96154,0.91503,-1.1538,7.6651,-1.0306,3.7821,-0.96154,0.91503,3.8188,2.7804,4.6984,-0.88468,1.859,-0.0641,-3.8915,0.94787,0.97087,2.7432
3.7107,17.205999,5.7605,-0.96154,0.91503,3.6538,5.7327,0.90177,-1.0256,-0.96154,0.91503,3.8188,4.6761,0.88889,4.8025,3.7821,4.7436,5.6778,-3.7915,6.7961,4.6571
1.8239,-2.7937,-2.0065,-1.9231,-2.0261,-1.1538,-1.0306,-0.06441,-1.9872,-1.9231,-2.0261,-2.9773,0.88468,-6.7302,1.9589,-2.9487,0.89744,6.6348,1.8957,1.9417,-0.12759
-0.06289,-11.365,-2.0065,-2.8846,-3.9869,-3.0769,-7.7939,-0.06441,0.89744,-2.8846,-3.9869,-6.8608,-1.0111,-1.0159,0.06319,-3.9103,0.89744,0.89314,1.8957,-2.9126,-1.0845
7.4843,-5.6508,6.7314,3.8462,0.91503,5.5769,-2.963,3.8003,0.89744,3.8462,0.91503,0.90615,-3.8547,-1.9683,1.9589,-1.0256,3.7821,2.807,-2.8436,-1.9417,-3.9553
5.5975,-8.5079,4.7896,5.7692,-0.06536,6.5385,-2.963,8.6312,-2.9487,5.7692,-0.06536,2.8479,-9.5419,-9.5873,-0.88468,-6.7949,-1.0256,4.7209,-2.8436,-2.9126,-7.7831
0.8805,-16.127001,-7.8317,9.6154,0.91503,3.6538,-8.7601,10.564,-5.8333,9.6154,0.91503,-1.0356,-13.333,-11.492,-4.6761,-14.487,-9.6795,3.764,-8.5308,-0.97087,-11.611
-2.8931,-2.7937,-12.686,6.7308,-0.06536,0.76923,-6.8277,7.6651,-4.8718,6.7308,-0.06536,-3.9482,-6.6983,-4.8254,-6.5719,-11.603,-10.641,3.764,-17.062,-2.9126,-9.697
-5.7233,-16.127001,-15.599,2.8846,0.91503,-2.1154,-4.8953,4.7665,-1.9872,2.8846,0.91503,-4.9191,-5.7504,-7.6825,-9.4155,-13.526,-15.449,4.7209,-2.8436,-3.8835,-8.74
-6.6667,-15.175,-8.8026,0.96154,0.91503,-4.0385,-2.963,-0.06441,-0.0641,0.96154,0.91503,-2.9773,-8.594,-14.349,-10.363,-10.641,-15.449,-2.9346,2.8436,-4.8544,-3.9553
-8.5535,1.9683,-2.9773,-2.8846,-3.0065,-6.9231,-1.0306,-3.9291,-2.9487,-2.8846,-3.0065,-2.0065,-8.594,-9.5873,-11.311,-9.6795,-12.564,-13.461,-4.7393,-8.7379,-5.8692
-8.5535,1.0159,-1.0356,-4.8077,-4.9673,-7.8846,-1.9968,-7.7939,-0.0641,-4.8077,-4.9673,-2.9773,-2.9068,-0.06349,-10.363,-4.8718,-8.7179,-4.8485,-5.6872,-6.7961,-3.9553
-7.6101,4.8254,-0.06472,-2.8846,-3.0065,-4.0385,-0.06441,-6.8277,-0.0641,-2.8846,-3.0065,-1.0356,-1.0111,0.88889,-6.5719,-1.9872,-4.8718,0.89314,0.94787,-2.9126,-1.0845
-3.8365,5.7778,-2.9773,-2.8846,-1.0458,-2.1154,1.868,-2.963,-3.9103,-2.8846,-1.0458,-0.06472,-4.8025,-2.9206,-3.7283,-1.0256,-1.9872,-0.0638,1.8957,0.97087,1.7863
-3.8365,7.6825,-2.0065,-0.96154,-2.0261,-1.1538,0.90177,-1.9968,-1.9872,-0.96154,-2.0261,-2.0065,-3.8547,-0.06349,-0.88468,2.8205,1.859,3.764,-4.7393,3.8835,1.7863
-4.7799,-10.413,-6.8608,-3.8462,-2.0261,-4.0385,-5.8615,-2.963,-1.9872,-3.8462,-2.0261,-4.9191,-3.8547,-0.06349,-0.88468,-0.0641,-0.0641,2.807,-1.8957,0.97087,-4.9123
-1.0063,-18.032,-7.8317,-4.8077,-4.9673,-4.0385,-13.591,-3.9291,-1.9872,-4.8077,-4.9673,-6.8608,-0.06319,-0.06349,1.0111,-1.9872,-1.0256,-5.8054,-1.8957,-0.97087,-5.8692
8.4277,-11.365,-0.06472,0.0,-2.0261,3.6538,-7.7939,1.868,-3.9103,0.0,-2.0261,-0.06472,9.4155,6.6032,8.594,2.8205,4.7436,-0.0638,-2.8436,7.767,-3.9553
15.031,1.0159,4.7896,4.8077,-0.06536,10.385,-0.06441,6.6989,-2.9487,4.8077,-0.06536,5.7605,7.5197,2.7937,13.333,5.7051,6.6667,10.463,-9.4787,13.592,-1.0845
15.031,-2.7937,1.877,6.7308,2.8758,11.346,2.8341,7.6651,-2.9487,6.7308,2.8758,6.7314,4.6761,-0.06349,11.438,1.859,3.7821,12.376,-5.6872,11.65,0.82935
12.201,-3.746,3.8188,3.8462,1.8954,11.346,2.8341,6.6989,0.89744,3.8462,1.8954,6.7314,3.7283,-1.9683,10.49,-0.0641,4.7436,6.6348,-2.8436,10.68,2.7432
8.4277,-0.88889,6.7314,0.96154,-1.0458,8.4615,0.90177,2.8341,-1.0256,0.96154,-1.0458,5.7605,-2.9068,-6.7302,6.6983,-1.0256,5.7051,3.764,-0.94787,5.8252,-2.0415
0.8805,-6.6032,4.7896,0.96154,-3.0065,0.76923,-1.0306,0.90177,-1.9872,0.96154,-3.0065,1.877,-1.9589,-2.9206,1.9589,-1.0256,5.7051,2.807,2.8436,0.97087,-4.9123
-1.0063,1.0159,5.7605,1.9231,0.91503,0.76923,-0.06441,3.8003,-1.9872,1.9231,0.91503,2.8479,2.7804,5.6508,2.9068,1.859,8.5897,0.89314,0.94787,5.8252,-2.0415
-7.6101,9.5873,1.877,0.0,-0.06536,-0.19231,0.90177,0.90177,-1.9872,0.0,-0.06536,0.90615,0.88468,4.6984,-1.8325,3.7821,5.7051,-0.0638,-6.6351,0.97087,-0.12759
-11.384,9.5873,-1.0356,0.0,1.8954,-2.1154,4.7665,-2.963,-1.0256,0.0,1.8954,-0.06472,-3.8547,3.746,-4.6761,6.6667,3.7821,0.89314,2.8436,-3.8835,2.7432
-4.7799,5.7778,2.8479,0.96154,-0.06536,-0.19231,3.8003,-1.0306,0.89744,0.96154,-0.06536,1.877,-0.06319,6.6032,1.0111,11.474,6.6667,-0.0638,1.8957,0.0,8.4848
7.4843,11.492,9.644,2.8846,1.8954,7.5,4.7665,4.7665,1.859,2.8846,1.8954,7.7023,2.7804,4.6984,6.6983,13.397,8.5897,1.8501,0.0,1.9417,11.356
13.145,8.6349,8.6731,2.8846,1.8954,11.346,3.8003,4.7665,-1.0256,2.8846,1.8954,8.6731,5.624,7.5556,8.594,11.474,7.6282,5.6778,3.7915,2.9126,9.4418
9.3711,-4.6984,-2.9773,-1.9231,-4.9673,4.6154,-5.8615,0.90177,-2.9487,-1.9231,-4.9673,-1.0356,1.8325,5.6508,5.7504,6.6667,-0.0641,2.807,0.94787,2.9126,5.614
7.4843,-3.746,-5.89,-6.7308,-6.9281,-2.1154,-10.692,-1.9968,-4.8718,-6.7308,-6.9281,-5.89,-0.06319,3.746,5.7504,2.8205,-2.9487,0.89314,0.0,6.7961,2.7432
5.5975,-6.6032,-2.9773,-7.6923,-8.8889,-3.0769,-12.625,-1.9968,-6.7949,-7.6923,-8.8889,-7.8317,-1.9589,2.7937,6.6983,-0.0641,-2.9487,5.6778,0.0,8.7379,-2.0415
7.4843,-3.746,4.7896,-2.8846,-3.9869,-0.19231,-2.963,-1.0306,-4.8718,-2.8846,-3.9869,-2.0065,-0.06319,-0.06349,6.6983,1.859,-0.0641,9.5056,0.94787,5.8252,2.7432
7.4843,9.5873,10.615,0.96154,-0.06536,0.76923,2.8341,2.8341,-2.9487,0.96154,-0.06536,1.877,-1.9589,-1.0159,5.7504,1.859,3.7821,1.8501,-2.8436,0.97087,0.82935
6.5409,7.6825,7.7023,3.8462,3.8562,1.7308,6.6989,-0.06441,1.859,3.8462,3.8562,3.8188,-0.06319,2.7937,3.8547,-0.0641,3.7821,3.764,-3.7915,2.9126,-1.0845
1.8239,6.7302,6.7314,3.8462,4.8366,3.6538,7.6651,-1.9968,6.6667,3.8462,4.8366,6.7314,-0.06319,2.7937,1.0111,-0.0641,3.7821,-0.0638,-1.8957,0.0,-0.12759
-3.8365,-2.7937,3.8188,0.96154,5.817,2.6923,10.564,-1.0306,7.6282,0.96154,5.817,6.7314,-5.7504,-2.9206,-3.7283,-2.9487,-0.0641,-4.8485,9.4787,-1.9417,-2.0415
-3.8365,8.6349,7.7023,-0.96154,1.8954,5.5769,13.462,1.868,3.7821,-0.96154,1.8954,9.644,-3.8547,-2.9206,-2.7804,-0.0641,1.859,-2.9346,10.427,-2.9126,1.7863
-4.7799,7.6825,5.7605,1.9231,3.8562,3.6538,6.6989,0.90177,4.7436,1.9231,3.8562,8.6731,-1.0111,-0.06349,-4.6761,0.89744,0.89744,0.89314,6.6351,-5.8252,3.7002
-6.6667,1.0159,-2.0065,0.0,-0.06536,-3.0769,0.90177,0.90177,5.7051,0.0,-0.06536,-0.06472,3.7283,6.6032,-5.624,-0.0641,-1.0256,-3.8915,3.7915,-3.8835,-0.12759
-1.0063,12.444,-2.0065,-0.96154,-3.0065,-3.0769,3.8003,3.8003,-1.9872,-0.96154,-3.0065,-2.0065,-0.06319,4.6984,-2.7804,2.8205,-0.0641,-1.0207,-7.5829,-2.9126,0.82935
1.8239,11.492,-3.9482,-3.8462,-4.9673,-3.0769,0.90177,4.7665,-3.9103,-3.8462,-4.9673,-3.9482,-6.6983,-4.8254,-1.8325,-1.0256,-2.9487,-1.0207,-8.5308,-2.9126,0.82935
4.6541,-6.6032,-3.9482,0.0,-3.0065,-2.1154,-2.963,5.7327,-2.9487,0.0,-3.0065,-3.9482,-1.0111,-1.9683,1.0111,-0.0641,-1.9872,0.89314,3.7915,0.97087,2.7432
5.5975,-7.5556,1.877,1.9231,-3.0065,-2.1154,-4.8953,1.868,-1.9872,1.9231,-3.0065,-2.9773,0.88468,2.7937,2.9068,2.8205,1.859,1.8501,1.8957,1.9417,4.6571
4.6541,3.873,5.7605,-6.7308,-5.9477,-4.0385,-2.963,-5.8615,-5.8333,-6.7308,-5.9477,-2.9773,2.7804,6.6032,4.8025,6.6667,4.7436,-1.0207,1.8957,2.9126,5.614
-2.8931,-8.5079,-2.9773,-5.7692,-5.9477,-8.8462,-9.7262,-6.8277,-4.8718,-5.7692,-5.9477,-9.7735,-3.8547,-1.0159,-2.7804,-1.9872,-1.9872,-4.8485,2.8436,-4.8544,-1.0845
-6.6667,-9.4603,-7.8317,-2.8846,-5.9477,-11.731,-8.7601,-1.0306,-4.8718,-2.8846,-5.9477,-11.715,-3.8547,-1.0159,-6.5719,-4.8718,-5.8333,-1.9777,-2.8436,-7.767,-3.9553
-10.44,-1.8413,-9.7735,-3.8462,-3.9869,-14.615,-8.7601,-2.963,-6.7949,-3.8462,-3.9869,-12.686,-4.8025,-5.7778,-7.5197,-5.8333,-6.7949,-1.9777,-13.27,-6.7961,-5.8692
-13.27,0.06349,-9.7735,-3.8462,-1.0458,-10.769,-8.7601,-5.8615,-1.9872,-3.8462,-1.0458,-7.8317,-5.7504,-7.6825,-9.4155,-6.7949,-6.7949,-3.8915,-12.322,-5.8252,-8.74
-14.214,-21.841,-14.628,-1.9231,-0.06536,-6.9231,-9.7262,-2.963,-3.9103,-1.9231,-0.06536,-3.9482,-5.7504,-6.7302,-12.259,-10.641,-10.641,-1.9777,0.94787,-6.7961,-8.74
-10.44,-27.556,-13.657,0.0,-3.0065,-0.19231,-6.8277,2.8341,-3.9103,0.0,-3.0065,0.90615,-2.9068,-5.7778,-9.4155,-11.603,-10.641,-1.9777,-0.94787,-1.9417,-12.568
-0.06289,-2.7937,-0.06472,2.8846,0.91503,10.385,9.5974,4.7665,-2.9487,2.8846,0.91503,12.557,0.88468,-1.9683,-4.6761,-2.9487,-2.9487,1.8501,-7.5829,-0.97087,-4.9123
1.8239,1.9683,5.7605,0.96154,0.91503,11.346,11.53,-0.06441,0.89744,0.96154,0.91503,13.528,1.8325,2.7937,-3.7283,-1.0256,0.89744,-1.9777,-3.7915,-3.8835,-6.8262
6.5409,17.205999,13.528,1.9231,7.7778,10.385,20.225,-1.9968,3.7821,1.9231,7.7778,16.440001,6.5719,9.4603,2.9068,3.7821,8.5897,-3.8915,-2.8436,1.9417,-2.9984
3.7107,21.016001,12.557,-0.96154,5.817,5.5769,19.259001,-4.8953,4.7436,-0.96154,5.817,12.557,10.363,9.4603,4.8025,8.5897,10.513,-10.59,2.8436,2.9126,4.6571
-1.0063,14.349,6.7314,-3.8462,0.91503,-4.0385,9.5974,-8.7601,2.8205,-3.8462,0.91503,1.877,3.7283,0.88889,1.9589,4.7436,6.6667,-6.7624,3.7915,1.9417,5.614
-3.8365,5.7778,0.90615,-5.7692,-4.9673,-11.731,-3.9291,-8.7601,-1.0256,-5.7692,-4.9673,-8.8026,-2.9068,-2.9206,0.06319,1.859,2.8205,-6.7624,-1.8957,0.0,-0.12759
-4.7799,-10.413,-4.9191,-7.6923,-7.9085,-15.577,-14.557,-8.7601,-3.9103,-7.6923,-7.9085,-16.57,2.7804,1.8413,1.0111,0.89744,0.89744,-2.9346,3.7915,2.9126,1.7863
-6.6667,-12.317,-9.7735,-11.538,-13.791,-18.462,-20.354,-10.692,-9.6795,-11.538,-13.791,-21.424,7.5197,2.7937,1.0111,0.89744,-1.0256,-1.0207,-1.8957,5.8252,1.7863
-10.44,-6.6032,-10.744,-12.5,-14.771,-18.462,-18.422001,-10.692,-11.603,-12.5,-14.771,-21.424,2.7804,0.88889,-2.7804,-0.0641,-3.9103,-2.9346,-9.4787,-0.97087,0.82935
-8.5535,-4.6984,-7.8317,-10.577,-9.8693,-11.731,-12.625,-9.7262,-6.7949,-10.577,-9.8693,-15.599,3.7283,3.746,-2.7804,3.7821,-1.9872,-0.0638,-3.7915,-2.9126,6.571
-5.7233,-10.413,-6.8608,-8.6538,-10.85,-7.8846,-15.523,-4.8953,-7.7564,-8.6538,-10.85,-13.657,8.4676,4.6984,-0.88468,2.8205,-0.0641,-1.0207,0.94787,0.0,4.6571
2.7673,-1.8413,-1.0356,-4.8077,-10.85,-2.1154,-11.659,2.8341,-12.564,-4.8077,-10.85,-6.8608,10.363,5.6508,4.8025,5.7051,5.7051,-1.0207,0.0,5.8252,3.7002
10.314,-1.8413,5.7605,-3.8462,-10.85,5.5769,-10.692,6.6989,-11.603,-3.8462,-10.85,-1.0356,11.311,11.365,10.49,10.513,12.436,2.807,-7.5829,6.7961,0.82935
15.031,-4.6984,9.644,-3.8462,-11.83,10.385,-1.0306,2.8341,-17.372,-3.8462,-11.83,4.7896,9.4155,9.4603,14.281,10.513,16.282,11.419,-9.4787,11.65,0.82935
15.975,1.9683,13.528,-4.8077,-10.85,9.4231,-1.9968,0.90177,-12.564,-4.8077,-10.85,3.8188,12.259,9.4603,17.125,13.397,18.205,12.376,-10.427,12.621,3.7002
13.145,5.7778,12.557,-2.8846,-5.9477,6.5385,0.90177,-1.9968,-3.9103,-2.8846,-5.9477,2.8479,15.103,11.365,15.229,12.436,16.282,6.6348,-1.8957,10.68,5.614
8.4277,5.7778,9.644,-3.8462,-1.0458,2.6923,4.7665,-5.8615,4.7436,-3.8462,-1.0458,0.90615,12.259,9.4603,9.5419,8.5897,11.474,-6.7624,11.374,4.8544,6.571
0.8805,13.397,8.6731,-0.96154,6.7974,-1.1538,8.6312,-6.8277,10.513,-0.96154,6.7974,0.90615,5.624,5.6508,2.9068,7.6282,8.5897,-5.8054,12.322,-0.97087,8.4848
-3.8365,20.063,9.644,-0.96154,6.7974,-3.0769,10.564,-4.8953,12.436,-0.96154,6.7974,2.8479,5.624,6.6032,1.0111,9.5513,7.6282,-5.8054,11.374,0.97087,10.399
-4.7799,14.349,7.7023,0.0,6.7974,-4.0385,10.564,-4.8953,8.5897,0.0,6.7974,2.8479,2.7804,3.746,-1.8325,7.6282,4.7436,-5.8054,8.5308,-0.97087,8.4848
-7.6101,9.5873,1.877,-2.8846,0.91503,-4.0385,2.8341,-4.8953,3.7821,-2.8846,0.91503,-1.0356,-2.9068,-4.8254,-6.5719,1.859,-1.9872,-2.9346,2.8436,-4.8544,4.6571
-1.9497,1.9683,-0.06472,-0.96154,0.91503,0.76923,1.868,0.90177,-0.0641,-0.96154,0.91503,-0.06472,-1.0111,-4.8254,-4.6761,2.8205,-1.9872,-1.9777,4.7393,-4.8544,0.82935
0.8805,-4.6984,-0.06472,-5.7692,-6.9281,2.6923,-3.9291,-1.0306,-2.9487,-5.7692,-6.9281,0.90615,-2.9068,0.88889,-3.7283,-1.0256,-3.9103,-1.0207,2.8436,-5.8252,0.82935
0.8805,-8.5079,-2.0065,0.0,1.8954,3.6538,-1.0306,1.868,3.7821,0.0,1.8954,3.8188,-7.6461,-1.0159,-5.624,-6.7949,-8.7179,-0.0638,1.8957,-6.7961,-0.12759
4.6541,3.873,4.7896,12.5,11.699,10.385,6.6989,9.5974,7.6282,12.5,11.699,12.557,-3.8547,-1.0159,-3.7283,-1.9872,-5.8333,-1.0207,-0.94787,-6.7961,-0.12759
6.5409,6.7302,6.7314,14.423,13.66,14.231,6.6989,8.6312,5.7051,14.423,13.66,16.440001,-3.8547,-0.06349,-2.7804,-1.0256,-2.9487,-3.8915,-3.7915,-7.767,-1.0845
2.7673,-0.88889,3.8188,15.385,16.601,10.385,9.5974,4.7665,8.5897,15.385,16.601,13.528,1.8325,5.6508,-3.7283,0.89744,-1.0256,-8.6762,-2.8436,-9.7087,0.82935
1.8239,1.9683,2.8479,12.5,11.699,5.5769,10.564,0.90177,8.5897,12.5,11.699,8.6731,14.155,7.5556,1.9589,5.7051,5.7051,-3.8915,-0.94787,-0.97087,1.7863
2.7673,4.8254,3.8188,9.6154,15.621,2.6923,8.6312,-2.963,11.474,9.6154,15.621,5.7605,11.311,9.4603,4.8025,8.5897,8.5897,1.8501,5.6872,2.9126,6.571
2.7673,4.8254,5.7605,4.8077,13.66,0.76923,8.6312,-5.8615,14.359,4.8077,13.66,2.8479,8.4676,7.5556,5.7504,7.6282,9.5513,-2.9346,6.6351,4.8544,3.7002
5.5975,5.7778,9.644,5.7692,15.621,2.6923,16.361,-3.9291,12.436,5.7692,15.621,6.7314,11.311,5.6508,6.6983,5.7051,9.5513,-5.8054,8.5308,4.8544,4.6571
3.7107,10.54,7.7023,6.7308,12.68,3.6538,10.564,-1.0306,15.321,6.7308,12.68,5.7605,13.207,7.5556,3.8547,6.6667,8.5897,-9.6332,8.5308,0.0,4.6571
2.7673,5.7778,3.8188,4.8077,10.719,0.76923,6.6989,-5.8615,16.282,4.8077,10.719,1.877,12.259,5.6508,2.9068,4.7436,7.6282,-6.7624,6.6351,0.0,6.571
-1.9497,0.06349,-0.06472,0.96154,2.8758,-2.1154,0.90177,-6.8277,9.5513,0.96154,2.8758,-2.9773,4.6761,1.8413,1.0111,2.8205,3.7821,-1.0207,9.4787,0.0,5.614
-2.8931,5.7778,-2.0065,3.8462,3.8562,-2.1154,-0.06441,-2.963,7.6282,3.8462,3.8562,-2.9773,0.88468,1.8413,-2.7804,-0.0641,-1.0256,-1.0207,9.4787,-1.9417,4.6571
-2.8931,2.9206,-4.9191,5.7692,3.8562,1.7308,-0.06441,2.8341,6.6667,5.7692,3.8562,-2.0065,-1.9589,-2.9206,-2.7804,-2.9487,-2.9487,-3.8915,8.5308,-2.9126,2.7432
-1.0063,1.0159,-4.9191,3.8462,3.8562,1.7308,3.8003,2.8341,2.8205,3.8462,3.8562,-1.0356,-1.0111,-3.873,-1.8325,-4.8718,-2.9487,2.807,5.6872,-0.97087,-1.0845
-1.0063,1.9683,-4.9191,2.8846,-0.06536,0.76923,0.90177,4.7665,-1.9872,2.8846,-0.06536,-2.0065,4.6761,-3.873,-0.88468,-4.8718,-2.9487,9.5056,-5.6872,1.9417,-6.8262
1.8239,2.9206,-2.9773,3.8462,0.91503,3.6538,0.90177,6.6989,-0.0641,3.8462,0.91503,-0.06472,14.155,5.6508,1.9589,0.89744,0.89744,5.6778,-7.5829,4.8544,-0.12759
-2.8931,-13.27,-8.8026,1.9231,-2.0261,-1.1538,-0.06441,5.7327,0.89744,1.9231,-2.0261,-2.9773,1.8325,-3.873,-2.7804,-7.7564,-6.7949,2.807,0.94787,-1.9417,-3.9553
-5.7233,-10.413,-10.744,2.8846,1.8954,-3.0769,0.90177,4.7665,1.859,2.8846,1.8954,-3.9482,-13.333,-13.397,-6.5719,-10.641,-11.603,3.764,-0.94787,-6.7961,-5.8692
-3.8365,2.9206,-6.8608,2.8846,4.8366,-2.1154,3.8003,0.90177,4.7436,2.8846,4.8366,-2.0065,-7.6461,-8.6349,-3.7283,-3.9103,-7.7564,5.6778,-0.94787,-1.9417,2.7432
-2.8931,-1.8413,-7.8317,0.0,1.8954,-4.0385,-1.0306,0.90177,3.7821,0.0,1.8954,-5.89,4.6761,2.7937,1.0111,0.89744,-1.9872,4.7209,0.94787,3.8835,-0.12759
-1.9497,4.8254,-5.89,-0.96154,2.8758,-5.9615,-2.963,0.90177,1.859,-0.96154,2.8758,-4.9191,10.363,7.5556,3.8547,4.7436,2.8205,4.7209,-6.6351,8.7379,-0.12759
-2.8931,3.873,-4.9191,-2.8846,-1.0458,-4.0385,-1.9968,-0.06441,0.89744,-2.8846,-1.0458,-2.9773,6.5719,5.6508,1.0111,2.8205,-0.0641,2.807,-4.7393,2.9126,-0.12759
0.8805,-10.413,-2.9773,-0.96154,1.8954,-0.19231,-0.06441,-0.06441,1.859,-0.96154,1.8954,0.90615,5.624,2.7937,0.06319,-1.9872,-2.9487,3.764,6.6351,0.97087,-2.9984
3.7107,-11.365,0.90615,0.96154,2.8758,1.7308,-2.963,1.868,4.7436,0.96154,2.8758,2.8479,8.4676,3.746,2.9068,-0.0641,1.859,2.807,6.6351,3.8835,-1.0845
4.6541,1.9683,5.7605,6.7308,8.7582,4.6154,5.7327,2.8341,1.859,6.7308,8.7582,6.7314,4.6761,1.8413,1.9589,-0.0641,4.7436,-1.9777,-1.8957,0.0,-1.0845
0.8805,2.9206,5.7605,8.6538,9.7386,4.6154,4.7665,4.7665,4.7436,8.6538,9.7386,6.7314,0.88468,-2.9206,0.06319,-3.9103,4.7436,-2.9346,0.0,-2.9126,-4.9123
0.8805,1.9683,5.7605,7.6923,8.7582,2.6923,1.868,0.90177,4.7436,7.6923,8.7582,4.7896,0.88468,-1.9683,0.06319,-2.9487,4.7436,-0.0638,0.0,-0.97087,-2.9984
-5.7233,4.8254,2.8479,1.9231,0.91503,-3.0769,-0.06441,-2.963,4.7436,1.9231,0.91503,-1.0356,0.88468,-0.06349,-3.7283,-1.9872,1.859,-6.7624,4.7393,-3.8835,0.82935
-7.6101,0.06349,-2.0065,-2.8846,-0.06536,-7.8846,1.868,-5.8615,6.6667,-2.8846,-0.06536,-5.89,-1.0111,-2.9206,-6.5719,-2.9487,-1.9872,-1.9777,3.7915,-4.8544,5.614
-10.44,-14.222,-9.7735,-8.6538,-5.9477,-14.615,-5.8615,-7.7939,0.89744,-8.6538,-5.9477,-13.657,0.88468,-1.0159,-8.4676,-4.8718,-5.8333,-0.0638,5.6872,-3.8835,4.6571
-10.44,-5.6508,-8.8026,-6.7308,-5.9477,-16.538,-6.8277,-7.7939,-4.8718,-6.7308,-5.9477,-14.628,1.8325,-0.06349,-7.5197,-3.9103,-4.8718,-1.9777,2.8436,-0.97087,1.7863
-4.7799,-4.6984,-5.89,-4.8077,-5.9477,-10.769,-10.692,-3.9291,-3.9103,-4.8077,-5.9477,-11.715,2.7804,0.88889,-2.7804,-2.9487,-3.9103,-1.0207,-2.8436,1.9417,-4.9123
1.8239,9.5873,2.8479,0.0,-3.0065,-2.1154,-1.0306,-1.0306,-4.8718,0.0,-3.0065,-2.0065,2.7804,4.6984,1.9589,2.8205,0.89744,-1.0207,-6.6351,2.9126,1.7863
1.8239,-4.6984,0.90615,0.96154,-2.0261,1.7308,-1.9968,-0.06441,-2.9487,0.96154,-2.0261,-0.06472,2.7804,1.8413,1.9589,-0.0641,-0.0641,-1.9777,1.8957,1.9417,2.7432
4.6541,-7.5556,1.877,4.8077,-0.06536,4.6154,-1.9968,2.8341,3.7821,4.8077,-0.06536,2.8479,0.88468,-3.873,3.8547,-1.0256,0.89744,5.6778,3.7915,3.8835,-0.12759
6.5409,0.06349,4.7896,5.7692,4.8366,6.5385,1.868,3.8003,5.7051,5.7692,4.8366,7.7023,0.88468,-0.06349,3.8547,0.89744,2.8205,6.6348,1.8957,2.9126,-1.0845
3.7107,-0.88889,4.7896,4.8077,2.8758,4.6154,0.90177,2.8341,4.7436,4.8077,2.8758,5.7605,3.7283,3.746,2.9068,2.8205,2.8205,3.764,0.0,0.97087,1.7863
6.5409,8.6349,7.7023,7.6923,5.817,4.6154,10.564,2.8341,7.6282,7.6923,5.817,7.7023,3.7283,2.7937,5.7504,4.7436,6.6667,2.807,2.8436,3.8835,4.6571
4.6541,26.73,12.557,3.8462,3.8562,6.5385,19.259001,3.8003,3.7821,3.8462,3.8562,9.644,2.7804,-0.06349,5.7504,9.5513,10.513,-5.8054,0.94787,1.9417,7.5279
0.8805,7.6825,5.7605,3.8462,3.8562,5.5769,10.564,1.868,2.8205,3.8462,3.8562,6.7314,1.8325,-1.0159,1.0111,5.7051,6.6667,-2.9346,4.7393,0.0,3.7002
-1.9497,0.06349,0.90615,4.8077,4.8366,3.6538,5.7327,2.8341,5.7051,4.8077,4.8366,3.8188,0.88468,1.8413,-1.8325,0.89744,1.859,1.8501,3.7915,-2.9126,-2.0415
-1.9497,0.06349,-1.0356,7.6923,7.7778,2.6923,7.6651,4.7665,5.7051,7.6923,7.7778,4.7896,-1.9589,-0.06349,-4.6761,-1.9872,-2.9487,-1.0207,4.7393,-3.8835,-1.0845
0.8805,1.9683,0.90615,5.7692,8.7582,4.6154,6.6989,2.8341,4.7436,5.7692,8.7582,5.7605,-0.06319,-1.0159,-1.8325,0.89744,-1.0256,0.89314,6.6351,-0.97087,-0.12759
2.7673,11.492,2.8479,3.8462,5.817,3.6538,10.564,0.90177,2.8205,3.8462,5.817,4.7896,2.7804,-0.06349,1.9589,1.859,2.8205,5.6778,0.94787,0.97087,3.7002
0.8805,2.9206,-0.06472,0.0,0.91503,-2.1154,1.868,-1.0306,4.7436,0.0,0.91503,-2.0065,0.88468,-0.06349,2.9068,0.89744,2.8205,-0.0638,4.7393,-1.9417,4.6571
4.6541,9.5873,4.7896,1.9231,2.8758,-2.1154,2.8341,0.90177,4.7436,1.9231,2.8758,-1.0356,-1.0111,-2.9206,4.8025,2.8205,4.7436,-1.0207,3.7915,-0.97087,4.6571
3.7107,4.8254,1.877,-1.9231,-0.06536,0.76923,0.90177,-1.9968,2.8205,-1.9231,-0.06536,-2.0065,-2.9068,-2.9206,2.9068,-2.9487,0.89744,0.89314,5.6872,2.9126,-2.9984
1.8239,-4.6984,-1.0356,-0.96154,-1.0458,0.76923,-1.0306,0.90177,-0.0641,-0.96154,-1.0458,-1.0356,2.7804,2.7937,2.9068,-4.8718,-1.0256,2.807,5.6872,1.9417,-3.9553
-0.06289,-6.6032,-2.0065,-0.96154,-2.0261,-0.19231,-3.9291,0.90177,-1.9872,-0.96154,-2.0261,-0.06472,-1.0111,-3.873,1.0111,-3.9103,-1.9872,3.764,0.0,-0.97087,-4.9123
0.8805,-2.7937,-0.06472,-4.8077,-3.9869,-0.19231,-4.8953,-1.0306,-1.9872,-4.8077,-3.9869,-0.06472,-3.8547,-7.6825,1.9589,-3.9103,-1.0256,7.5917,-1.8957,0.97087,-3.9553
3.7107,-1.8413,1.877,-5.7692,-5.9477,-0.19231,-4.8953,-1.0306,-4.8718,-5.7692,-5.9477,-2.0065,-2.9068,-5.7778,3.8547,-4.8718,-1.0256,6.6348,-4.7393,3.8835,-4.9123
-0.06289,-9.4603,-2.9773,-5.7692,-6.9281,-5.9615,-5.8615,-1.0306,-8.7179,-5.7692,-6.9281,-4.9191,1.8325,-1.9683,1.0111,-9.6795,-4.8718,-1.9777,-2.8436,2.9126,-9.697
-0.06289,1.0159,-1.0356,-2.8846,-4.9673,-4.0385,-2.963,-1.0306,-8.7179,-2.8846,-4.9673,-2.0065,-2.9068,-2.9206,1.0111,-5.8333,-2.9487,2.807,-12.322,0.97087,-6.8262
1.8239,1.0159,-0.06472,-2.8846,-3.9869,-1.1538,-5.8615,-0.06441,-3.9103,-2.8846,-3.9869,-0.06472,-7.6461,-5.7778,2.9068,-3.9103,-1.0256,4.7209,-6.6351,0.97087,-3.9553
2.7673,-8.5079,-1.0356,0.0,-2.0261,1.7308,-2.963,1.868,-5.8333,0.0,-2.0261,0.90615,-1.0111,-1.9683,2.9068,-1.9872,-1.0256,7.5917,1.8957,4.8544,0.82935
0.8805,-3.746,0.90615,0.96154,-2.0261,2.6923,-1.0306,1.868,-4.8718,0.96154,-2.0261,2.8479,0.88468,-1.0159,1.0111,1.859,-0.0641,3.764,-3.7915,4.8544,2.7432
0.8805,1.9683,2.8479,0.96154,-0.06536,2.6923,0.90177,2.8341,-6.7949,0.96154,-0.06536,3.8188,3.7283,2.7937,1.9589,4.7436,4.7436,-1.0207,-3.7915,2.9126,1.7863
-0.06289,-1.8413,1.877,-1.9231,-3.0065,0.76923,-4.8953,2.8341,-5.8333,-1.9231,-3.0065,0.90615,4.6761,6.6032,2.9068,4.7436,4.7436,2.807,0.0,3.8835,-1.0845
2.7673,-0.88889,3.8188,0.0,-2.0261,2.6923,-1.0306,2.8341,-6.7949,0.0,-2.0261,3.8188,3.7283,5.6508,2.9068,5.7051,2.8205,5.6778,-0.94787,3.8835,1.7863
5.5975,7.6825,5.7605,-0.96154,-2.0261,7.5,3.8003,5.7327,-1.9872,-0.96154,-2.0261,7.7023,2.7804,2.7937,3.8547,5.7051,2.8205,2.807,-3.7915,1.9417,1.7863
8.4277,3.873,6.7314,4.8077,3.8562,10.385,7.6651,4.7665,-1.0256,4.8077,3.8562,8.6731,0.88468,1.8413,3.8547,2.8205,2.8205,5.6778,2.8436,1.9417,4.6571
8.4277,6.7302,7.7023,4.8077,3.8562,10.385,2.8341,7.6651,0.89744,4.8077,3.8562,7.7023,2.7804,7.5556,4.8025,7.6282,4.7436,5.6778,0.0,0.97087,10.399
4.6541,-0.88889,2.8479,0.96154,-2.0261,5.5769,-1.0306,6.6989,-1.9872,0.96154,-2.0261,4.7896,-1.0111,0.88889,2.9068,2.8205,0.89744,2.807,4.7393,1.9417,4.6571
4.6541,1.0159,3.8188,-0.96154,-4.9673,5.5769,-0.06441,3.8003,-2.9487,-0.96154,-4.9673,3.8188,2.7804,0.88889,4.8025,1.859,1.859,3.764,6.6351,4.8544,-0.12759
6.5409,1.0159,3.8188,0.0,-3.0065,6.5385,-1.0306,2.8341,-3.9103,0.0,-3.0065,3.8188,4.6761,3.746,6.6983,1.859,2.8205,6.6348,0.94787,6.7961,0.82935
2.7673,4.8254,0.90615,0.0,-1.0458,3.6538,1.868,2.8341,-0.0641,0.0,-1.0458,1.877,1.8325,-0.06349,3.8547,0.89744,1.859,4.7209,-0.94787,2.9126,0.82935
-0.06289,2.9206,-1.0356,0.96154,-1.0458,0.76923,2.8341,1.868,-1.0256,0.96154,-1.0458,-1.0356,0.88468,1.8413,2.9068,1.859,3.7821,0.89314,0.0,0.97087,-1.0845
0.8805,7.6825,-1.0356,-0.96154,-2.0261,0.76923,-1.9968,0.90177,-3.9103,-0.96154,-2.0261,-1.0356,-0.06319,0.88889,1.9589,-1.0256,0.89744,1.8501,-7.5829,1.9417,-2.0415
-2.8931,-13.27,-6.8608,-3.8462,-5.9477,-4.0385,-8.7601,-1.0306,-1.9872,-3.8462,-5.9477,-4.9191,-5.7504,-5.7778,-2.7804,-9.6795,-6.7949,-3.8915,0.0,-1.9417,-3.9553
-4.7799,-13.27,-5.89,-3.8462,-3.9869,-5.9615,-3.9291,-3.9291,-3.9103,-3.8462,-3.9869,-4.9191,-8.594,-6.7302,-4.6761,-8.7179,-5.8333,-0.0638,5.6872,-1.9417,-1.0845
-5.7233,-0.88889,-2.9773,-4.8077,-3.9869,-5.9615,-5.8615,-4.8953,-0.0641,-4.8077,-3.9869,-5.89,-3.8547,-1.9683,-1.8325,-0.0641,-0.0641,0.89314,-0.94787,0.0,0.82935
-2.8931,2.9206,-0.06472,-4.8077,-2.0261,-4.0385,-2.963,-6.8277,1.859,-4.8077,-2.0261,-2.9773,-0.06319,-0.06349,-1.8325,-0.0641,0.89744,-1.9777,1.8957,-0.97087,0.82935
-3.8365,0.06349,-2.9773,-3.8462,-4.9673,-4.0385,-1.9968,-1.9968,-0.0641,-3.8462,-4.9673,-2.9773,-2.9068,-2.9206,-3.7283,-3.9103,-6.7949,-8.6762,0.94787,1.9417,1.7863
-1.9497,3.873,-5.89,-0.96154,-2.0261,-1.1538,-1.9968,1.868,-1.0256,-0.96154,-2.0261,-2.0065,-7.6461,-4.8254,-6.5719,-7.7564,-10.641,-4.8485,-6.6351,-2.9126,-1.0845
-1.9497,-1.8413,-5.89,1.9231,-0.06536,0.76923,-1.0306,0.90177,1.859,1.9231,-0.06536,-0.06472,-0.06319,4.6984,-4.6761,-5.8333,-7.7564,1.8501,0.0,-2.9126,-2.9984
-2.8931,-8.5079,-3.9482,2.8846,2.8758,-1.1538,-1.0306,0.90177,2.8205,2.8846,2.8758,0.90615,-1.0111,3.746,-3.7283,-3.9103,-5.8333,3.764,6.6351,-2.9126,0.82935
-4.7799,-7.5556,-2.0065,-1.9231,-1.0458,-3.0769,-2.963,-3.9291,1.859,-1.9231,-1.0458,-2.0065,-6.6983,-5.7778,-6.5719,-1.9872,-5.8333,-1.9777,5.6872,-4.8544,2.7432
-3.8365,1.0159,0.90615,-4.8077,-2.0261,-2.1154,-1.9968,-6.8277,-1.9872,-4.8077,-2.0261,-1.0356,0.88468,2.7937,-5.624,2.8205,-1.9872,-5.8054,0.94787,-1.9417,2.7432
-4.7799,3.873,-1.0356,-3.8462,-1.0458,-2.1154,-0.06441,-3.9291,1.859,-3.8462,-1.0458,-1.0356,1.8325,5.6508,-6.5719,3.7821,-2.9487,-7.7193,3.7915,-3.8835,4.6571
-7.6101,11.492,-3.9482,-1.9231,-1.0458,-5.0,5.7327,-0.06441,3.7821,-1.9231,-1.0458,-2.0065,-1.0111,3.746,-7.5197,2.8205,-3.9103,-2.9346,-2.8436,-1.9417,1.7863
-11.384,-2.7937,-8.8026,-0.96154,-1.0458,-5.9615,0.90177,-1.0306,0.89744,-0.96154,-1.0458,-3.9482,-2.9068,1.8413,-10.363,-2.9487,-8.7179,-1.9777,0.0,-4.8544,-3.9553
-7.6101,-10.413,-7.8317,-0.96154,0.91503,-0.19231,-2.963,0.90177,-0.0641,-0.96154,0.91503,-0.06472,-7.6461,-3.873,-9.4155,-5.8333,-10.641,-1.9777,0.94787,-5.8252,-4.9123
0.8805,-12.317,-3.9482,-0.96154,-0.06536,5.5769,-1.0306,2.8341,-1.9872,-0.96154,-0.06536,4.7896,-6.6983,-5.7778,-3.7283,-5.8333,-7.7564,2.807,-1.8957,-2.9126,-1.0845
3.7107,-13.27,-3.9482,0.96154,-1.0458,6.5385,-1.0306,3.8003,-1.9872,0.96154,-1.0458,3.8188,-1.9589,-0.06349,0.06319,-2.9487,-3.9103,1.8501,-2.8436,-0.97087,0.82935
2.7673,-4.6984,-5.89,-0.96154,-3.0065,-0.19231,-3.9291,-1.9968,-4.8718,-0.96154,-3.0065,-3.9482,1.8325,2.7937,1.9589,-0.0641,-0.0641,-0.0638,-3.7915,0.97087,-0.12759
1.8239,2.9206,-2.0065,-3.8462,-7.9085,-3.0769,-5.8615,-1.0306,-4.8718,-3.8462,-7.9085,-6.8608,-1.9589,0.88889,4.8025,0.89744,3.7821,-1.9777,-4.7393,3.8835,-2.9984
-0.06289,4.8254,3.8188,0.96154,-1.0458,-1.1538,-4.8953,2.8341,-1.9872,0.96154,-1.0458,-2.0065,-3.8547,-0.06349,2.9068,0.89744,3.7821,2.807,3.7915,0.97087,0.82935
-1.0063,19.111,7.7023,4.8077,2.8758,1.7308,-1.9968,5.7327,0.89744,4.8077,2.8758,3.8188,-1.9589,2.7937,0.06319,5.7051,2.8205,2.807,0.94787,-0.97087,6.571
-4.7799,0.06349,-2.9773,4.8077,1.8954,1.7308,-1.0306,2.8341,1.859,4.8077,1.8954,0.90615,-2.9068,-2.9206,-5.624,-1.9872,-5.8333,0.89314,2.8436,-2.9126,1.7863
-4.7799,-15.175,-10.744,1.9231,-2.0261,1.7308,-2.963,1.868,-1.9872,1.9231,-2.0261,-2.0065,-6.6983,-9.5873,-6.5719,-10.641,-12.564,2.807,2.8436,-3.8835,-5.8692
2.7673,-10.413,-5.89,2.8846,-1.0458,3.6538,-5.8615,1.868,-4.8718,2.8846,-1.0458,-0.06472,-5.7504,-6.7302,-2.7804,-8.7179,-9.6795,-0.0638,-8.5308,1.9417,-7.7831
-1.0063,-11.365,-8.8026,-0.96154,-3.9869,-2.1154,-11.659,-1.9968,-6.7949,-0.96154,-3.9869,-3.9482,-7.6461,-6.7302,-4.6761,-9.6795,-10.641,-4.8485,-12.322,-3.8835,-9.697
-4.7799,-18.032,-15.599,-2.8846,-2.0261,-8.8462,-9.7262,-3.9291,-6.7949,-2.8846,-2.0261,-9.7735,-2.9068,-2.9206,-5.624,-11.603,-11.603,-1.9777,-5.6872,-0.97087,-9.697
-5.7233,-17.079,-17.540001,-0.96154,-3.9869,-7.8846,-6.8277,-0.06441,-6.7949,-0.96154,-3.9869,-10.744,0.88468,-0.06349,-2.7804,-9.6795,-10.641,2.807,-7.5829,1.9417,-9.697
-1.0063,4.8254,-5.89,4.8077,1.8954,-0.19231,-0.06441,3.8003,-1.0256,4.8077,1.8954,-2.9773,-0.06319,0.88889,1.0111,-0.0641,-1.9872,4.7209,-15.166,5.8252,0.82935
0.8805,-7.5556,-0.06472,5.7692,2.8758,2.6923,-4.8953,2.8341,1.859,5.7692,2.8758,-0.06472,-3.8547,-5.7778,1.0111,-2.9487,-0.0641,4.7209,-3.7915,3.8835,-2.9984
0.8805,-14.222,1.877,1.9231,2.8758,1.7308,-6.8277,0.90177,1.859,1.9231,2.8758,-1.0356,-3.8547,-4.8254,1.0111,-2.9487,0.89744,-0.0638,1.8957,0.0,-5.8692
0.8805,-1.8413,-1.0356,-1.9231,-0.06536,-2.1154,-1.9968,-0.06441,-0.0641,-1.9231,-0.06536,-2.9773,-1.0111,1.8413,1.9589,-1.9872,-0.0641,-1.0207,-3.7915,0.97087,-6.8262
-1.0063,-0.88889,-3.9482,-1.9231,-1.0458,-5.0,-1.9968,-2.963,-0.0641,-1.9231,-1.0458,-5.89,-1.0111,3.746,-0.88468,-1.0256,-1.9872,0.89314,0.0,2.9126,-0.12759
0.8805,-2.7937,-1.0356,-2.8846,-0.06536,-5.0,-8.7601,-6.8277,0.89744,-2.8846,-0.06536,-4.9191,-5.7504,-8.6349,-2.7804,1.859,-1.0256,-3.8915,1.8957,-0.97087,3.7002
1.8239,3.873,4.7896,-1.9231,-3.9869,-1.1538,-2.963,-3.9291,-0.0641,-1.9231,-3.9869,-2.0065,-2.9068,-4.8254,-0.88468,3.7821,2.8205,-6.7624,-0.94787,-3.8835,1.7863
2.7673,12.444,7.7023,0.96154,0.91503,1.7308,3.8003,1.868,-2.9487,0.96154,0.91503,2.8479,1.8325,4.6984,1.0111,4.7436,5.7051,3.764,0.94787,0.0,2.7432
-1.9497,8.6349,3.8188,1.9231,4.8366,1.7308,6.6989,2.8341,0.89744,1.9231,4.8366,1.877,-0.06319,3.746,-1.8325,1.859,1.859,2.807,0.0,-1.9417,1.7863
-3.8365,-4.6984,-2.0065,2.8846,5.817,-0.19231,2.8341,-1.0306,6.6667,2.8846,5.817,-2.0065,3.7283,2.7937,-2.7804,1.859,1.859,-1.0207,0.94787,-2.9126,-1.0845
-3.8365,-13.27,-2.0065,0.96154,2.8758,-3.0769,-1.9968,-2.963,8.5897,0.96154,2.8758,-3.9482,3.7283,-3.873,1.9589,2.8205,3.7821,-1.0207,7.5829,1.9417,4.6571
-0.06289,-7.5556,2.8479,2.8846,4.8366,2.6923,6.6989,-1.9968,8.5897,2.8846,4.8366,3.8188,3.7283,-0.06349,5.7504,3.7821,5.7051,-3.8915,12.322,4.8544,4.6571
-1.0063,5.7778,5.7605,2.8846,1.8954,3.6538,3.8003,-1.9968,4.7436,2.8846,1.8954,6.7314,2.7804,6.6032,1.9589,3.7821,5.7051,-2.9346,2.8436,-1.9417,-2.9984
4.6541,9.5873,7.7023,2.8846,-0.06536,4.6154,4.7665,0.90177,-3.9103,2.8846,-0.06536,6.7314,1.8325,2.7937,4.8025,2.8205,7.6282,-1.9777,-3.7915,0.97087,-3.9553
11.258,19.111,11.586,0.96154,1.8954,8.4615,6.6989,1.868,-1.0256,0.96154,1.8954,8.6731,3.7283,2.7937,8.594,3.7821,7.6282,-0.0638,-11.374,4.8544,-0.12759
5.5975,6.7302,5.7605,0.96154,1.8954,4.6154,3.8003,1.868,-1.0256,0.96154,1.8954,4.7896,-2.9068,-3.873,1.0111,0.89744,0.89744,2.807,-3.7915,-2.9126,0.82935
1.8239,-7.5556,-0.06472,2.8846,0.91503,-0.19231,0.90177,4.7665,-1.0256,2.8846,0.91503,0.90615,-3.8547,-2.9206,-2.7804,-1.0256,-2.9487,-1.0207,0.94787,-5.8252,2.7432
3.7107,-8.5079,-2.0065,2.8846,-0.06536,-1.1538,-3.9291,4.7665,-1.9872,2.8846,-0.06536,-0.06472,1.8325,1.8413,1.0111,-2.9487,-2.9487,0.89314,-0.94787,1.9417,-1.0845
4.6541,-8.5079,-2.0065,-0.96154,-5.9477,-1.1538,-10.692,2.8341,-6.7949,-0.96154,-5.9477,-3.9482,5.624,3.746,5.7504,-3.9103,-1.9872,7.5917,-5.6872,10.68,-7.7831
1.8239,-6.6032,-0.06472,-4.8077,-8.8889,-2.1154,-12.625,-1.0306,-9.6795,-4.8077,-8.8889,-5.89,0.88468,-3.873,3.8547,-2.9487,-1.0256,3.764,-7.5829,5.8252,-8.74
-1.9497,11.492,5.7605,-6.7308,-5.9477,-2.1154,-1.9968,-4.8953,-5.8333,-6.7308,-5.9477,-2.0065,-1.0111,-2.9206,0.06319,1.859,1.859,-1.9777,-12.322,0.0,0.82935
-7.6101,2.9206,0.90615,-7.6923,-4.9673,-7.8846,3.8003,-5.8615,-1.9872,-7.6923,-4.9673,-3.9482,2.7804,3.746,-2.7804,0.89744,0.89744,-5.8054,-2.8436,-0.97087,2.7432
-12.327,-14.222,-7.8317,-11.538,-5.9477,-14.615,-2.963,-10.692,-0.0641,-11.538,-5.9477,-10.744,6.5719,5.6508,-3.7283,0.89744,-0.0641,-2.9346,5.6872,3.8835,2.7432
-14.214,-9.4603,-9.7735,-12.5,-10.85,-15.577,-7.7939,-13.591,-5.8333,-12.5,-10.85,-13.657,4.6761,5.6508,-4.6761,0.89744,-1.0256,-5.8054,-0.94787,1.9417,-2.9984
-6.6667,-5.6508,-2.9773,-6.7308,-6.9281,-5.0,-4.8953,-8.7601,-2.9487,-6.7308,-6.9281,-5.89,0.88468,4.6984,-3.7283,4.7436,2.8205,-7.7193,2.8436,-1.9417,2.7432
6.5409,7.6825,11.586,-0.96154,-2.0261,7.5,5.7327,-3.9291,4.7436,-0.96154,-2.0261,6.7314,7.5197,12.317,3.8547,15.321,11.474,-3.8915,6.6351,1.9417,12.313
14.088,36.254002,23.236,1.9231,6.7974,14.231,17.327,-2.963,7.6282,1.9231,6.7974,17.410999,9.4155,13.27,7.6461,19.167,18.205,-0.0638,5.6872,2.9126,17.097
13.145,27.683001,23.236,0.96154,9.7386,13.269,17.327,-1.9968,14.359,0.96154,9.7386,18.382,5.624,7.5556,7.6461,18.205,18.205,-4.8485,17.062,0.0,14.226
12.201,13.397,20.323999,2.8846,9.7386,11.346,18.292999,-1.9968,13.397,2.8846,9.7386,17.410999,5.624,9.4603,5.7504,15.321,15.321,-3.8915,19.905001,-2.9126,12.313
7.4843,11.492,13.528,5.7692,7.7778,10.385,11.53,2.8341,11.474,5.7692,7.7778,16.440001,8.4676,7.5556,1.9589,10.513,6.6667,-3.8915,17.062,-3.8835,8.4848
3.7107,10.54,5.7605,9.6154,9.7386,12.308,12.496,4.7665,6.6667,9.6154,9.7386,16.440001,1.8325,1.8413,-4.6761,2.8205,-2.9487,-6.7624,7.5829,-4.8544,5.614
-0.06289,0.06349,-1.0356,9.6154,5.817,10.385,5.7327,7.6651,4.7436,9.6154,5.817,10.615,-4.8025,-4.8254,-7.5197,-5.8333,-9.6795,0.89314,-1.8957,-3.8835,-1.0845
-1.9497,-3.746,-4.9191,7.6923,2.8758,8.4615,-2.963,10.564,-0.0641,7.6923,2.8758,5.7605,-4.8025,-4.8254,-8.4676,-7.7564,-10.641,7.5917,-2.8436,-2.9126,-2.9984
-5.7233,-2.7937,-10.744,5.7692,1.8954,5.5769,-5.8615,8.6312,-2.9487,5.7692,1.8954,0.90615,-13.333,-9.5873,-12.259,-8.7179,-12.564,-1.0207,-5.6872,-10.68,-6.8262
-9.4969,-15.175,-18.511,3.8462,2.8758,-2.1154,-9.7262,2.8341,0.89744,3.8462,2.8758,-4.9191,-13.333,-10.54,-11.311,-12.564,-14.487,-2.9346,-1.8957,-9.7087,-10.654
-7.6101,-13.27,-14.628,3.8462,1.8954,-5.9615,-7.7939,-0.06441,-1.0256,3.8462,1.8954,-8.8026,-4.8025,-3.873,-3.7283,-6.7949,-6.7949,-0.0638,-6.6351,-1.9417,-8.74
-1.0063,-15.175,-7.8317,-0.96154,-2.0261,-7.8846,-6.8277,-1.0306,-2.9487,-0.96154,-2.0261,-9.7735,-1.0111,-3.873,4.8025,-5.8333,-0.0641,3.764,-4.7393,6.7961,-7.7831
0.8805,-9.4603,-1.0356,-7.6923,-3.0065,-9.8077,-3.9291,-2.963,-1.0256,-7.6923,-3.0065,-8.8026,-1.0111,-7.6825,6.6983,-4.8718,3.7821,4.7209,-1.8957,6.7961,-4.9123
3.7107,5.7778,6.7314,-6.7308,-3.0065,-4.0385,3.8003,-1.0306,-1.0256,-6.7308,-3.0065,-2.0065,1.8325,-3.873,7.6461,-0.0641,7.6282,4.7209,-6.6351,1.9417,-2.0415
8.4277,4.8254,7.7023,-0.96154,-2.0261,-0.19231,5.7327,-0.06441,0.89744,-0.96154,-2.0261,1.877,5.624,1.8413,8.594,2.8205,8.5897,5.6778,-0.94787,3.8835,0.82935
7.4843,11.492,7.7023,-1.9231,-3.9869,1.7308,8.6312,0.90177,-3.9103,-1.9231,-3.9869,3.8188,6.5719,2.7937,7.6461,4.7436,8.5897,-0.0638,1.8957,3.8835,-1.0845
5.5975,6.7302,7.7023,-1.9231,-1.0458,3.6538,6.6989,1.868,0.89744,-1.9231,-1.0458,3.8188,-1.9589,-2.9206,4.8025,3.7821,6.6667,1.8501,7.5829,1.9417,0.82935
4.6541,11.492,10.615,-1.9231,0.91503,5.5769,7.6651,2.8341,6.6667,-1.9231,0.91503,4.7896,-2.9068,-0.06349,5.7504,9.5513,6.6667,1.8501,2.8436,0.0,8.4848
1.8239,12.444,9.644,-0.96154,1.8954,4.6154,8.6312,1.868,3.7821,-0.96154,1.8954,4.7896,0.88468,1.8413,3.8547,10.513,6.6667,0.89314,2.8436,0.97087,7.5279
-2.8931,3.873,2.8479,-6.7308,-3.9869,-3.0769,0.90177,-3.9291,2.8205,-6.7308,-3.9869,-2.0065,2.7804,2.7937,2.9068,5.7051,4.7436,-3.8915,1.8957,2.9126,3.7002
-3.8365,0.06349,-2.0065,-7.6923,-6.9281,-9.8077,-7.7939,-5.8615,-4.8718,-7.6923,-6.9281,-7.8317,0.88468,2.7937,1.9589,4.7436,5.7051,-3.8915,-0.94787,0.97087,4.6571
-2.8931,-3.746,-2.0065,-3.8462,-6.9281,-9.8077,-13.591,-2.963,-8.7179,-3.8462,-6.9281,-9.7735,3.7283,5.6508,4.8025,5.7051,7.6282,-1.9777,1.8957,3.8835,4.6571
-1.0063,-3.746,-0.06472,1.9231,-1.0458,-5.0,-11.659,-1.0306,-4.8718,1.9231,-1.0458,-4.9191,2.7804,6.6032,3.8547,4.7436,5.7051,4.7209,-1.8957,3.8835,4.6571
-0.06289,-18.983999,-4.9191,-1.9231,-5.9477,-1.1538,-15.523,-0.06441,-5.8333,-1.9231,-5.9477,-2.9773,-1.0111,-1.0159,-0.88468,-2.9487,-1.0256,1.8501,-4.7393,-1.9417,-2.0415
3.7107,-17.079,-3.9482,-1.9231,-3.9869,3.6538,-10.692,2.8341,-5.8333,-1.9231,-3.9869,1.877,-0.06319,-5.7778,1.0111,-3.9103,-1.9872,0.89314,-6.6351,-0.97087,-3.9553
6.5409,-7.5556,-2.9773,-1.9231,-0.06536,4.6154,-1.0306,2.8341,-6.7949,-1.9231,-0.06536,2.8479,5.624,-2.9206,5.7504,0.89744,1.859,-0.0638,-10.427,3.8835,-4.9123
2.7673,-9.4603,-6.8608,0.96154,1.8954,0.76923,-6.8277,1.868,-1.0256,0.96154,1.8954,-1.0356,9.4155,3.746,5.7504,-2.9487,0.89744,-1.9777,-13.27,7.767,-6.8262
1.8239,-9.4603,-3.9482,0.0,1.8954,-1.1538,-1.0306,-1.9968,-0.0641,0.0,1.8954,-1.0356,10.363,7.5556,5.7504,-4.8718,0.89744,-0.0638,-3.7915,7.767,-4.9123
2.7673,-3.746,1.877,-1.9231,-2.0261,-3.0769,2.8341,-4.8953,-1.0256,-1.9231,-2.0261,-0.06472,2.7804,3.746,6.6983,-1.0256,5.7051,0.89314,2.8436,2.9126,-4.9123
1.8239,8.6349,4.7896,-0.96154,2.8758,-5.0,3.8003,-7.7939,4.7436,-0.96154,2.8758,-1.0356,3.7283,0.88889,6.6983,7.6282,10.513,-2.9346,0.94787,1.9417,4.6571
-1.0063,0.06349,-2.0065,-0.96154,3.8562,-6.9231,2.8341,-4.8953,9.5513,-0.96154,3.8562,-5.89,6.5719,5.6508,4.8025,9.5513,8.5897,-6.7624,11.374,2.9126,7.5279
-3.8365,-2.7937,-7.8317,-0.96154,2.8758,-7.8846,1.868,-3.9291,7.6282,-0.96154,2.8758,-8.8026,0.88468,5.6508,0.06319,1.859,1.859,-3.8915,6.6351,0.0,4.6571
-5.7233,-2.7937,-9.7735,-0.96154,0.91503,-7.8846,-2.963,-2.963,9.5513,-0.96154,0.91503,-10.744,-0.06319,4.6984,-2.7804,-1.0256,-2.9487,-2.9346,2.8436,-0.97087,1.7863
-5.7233,-5.6508,-8.8026,0.0,2.8758,-4.0385,3.8003,-4.8953,9.5513,0.0,2.8758,-5.89,-1.9589,1.8413,-6.5719,-1.9872,-6.7949,2.807,10.427,-1.9417,1.7863
-3.8365,5.7778,-2.0065,0.96154,3.8562,3.6538,6.6989,-1.0306,6.6667,0.96154,3.8562,1.877,1.8325,0.88889,-6.5719,1.859,-4.8718,3.764,5.6872,-0.97087,4.6571
-1.0063,15.302,4.7896,8.6538,7.7778,9.4231,10.564,5.7327,4.7436,8.6538,7.7778,9.644,0.88468,-1.0159,-4.6761,1.859,-2.9487,5.6778,3.7915,-0.97087,6.571
2.7673,16.254,9.644,12.5,6.7974,13.269,6.6989,11.53,3.7821,12.5,6.7974,14.498,-3.8547,-3.873,-0.88468,0.89744,-1.0256,3.764,4.7393,-2.9126,6.571
11.258,10.54,14.498,10.577,4.8366,16.153999,6.6989,11.53,-1.9872,10.577,4.8366,17.410999,2.7804,2.7937,5.7504,1.859,4.7436,1.8501,2.8436,2.9126,3.7002
16.917999,22.921,19.353001,7.6923,2.8758,18.077,15.395,8.6312,-5.8333,7.6923,2.8758,19.353001,12.259,11.365,14.281,6.6667,12.436,7.5917,-4.7393,12.621,2.7432
12.201,3.873,9.644,4.8077,1.8954,13.269,5.7327,3.8003,-8.7179,4.8077,1.8954,14.498,-1.0111,-1.9683,7.6461,0.89744,5.7051,10.463,0.0,6.7961,1.7863
1.8239,-14.222,-2.9773,1.9231,-2.0261,3.6538,-7.7939,1.868,-7.7564,1.9231,-2.0261,4.7896,-9.5419,-9.5873,0.06319,-5.8333,-1.0256,4.7209,-0.94787,-2.9126,-5.8692
-0.06289,-0.88889,-2.0065,1.9231,-0.06536,-0.19231,-0.06441,2.8341,-2.9487,1.9231,-0.06536,3.8188,-2.9068,-5.7778,1.9589,3.7821,4.7436,5.6778,-4.7393,0.0,-2.9984
-6.6667,-0.88889,-6.8608,-1.9231,-2.0261,-6.9231,1.868,-2.963,-1.9872,-1.9231,-2.0261,-2.0065,-0.06319,-2.9206,0.06319,6.6667,4.7436,2.807,-3.7915,2.9126,3.7002
-18.931,-5.6508,-14.628,-6.7308,-3.9869,-17.5,-1.0306,-12.625,1.859,-6.7308,-3.9869,-9.7735,-3.8547,-2.9206,-10.363,0.89744,-3.9103,-11.547,-3.7915,-3.8835,2.7432
-20.818001,-4.6984,-14.628,-6.7308,1.8954,-16.538,-0.06441,-11.659,7.6282,-6.7308,1.8954,-7.8317,-4.8025,-1.9683,-16.051001,-2.9487,-11.603,-11.547,0.0,-5.8252,-2.0415
-18.931,-6.6032,-11.715,-3.8462,4.8366,-10.769,4.7665,-5.8615,11.474,-3.8462,4.8366,-3.9482,-2.9068,2.7937,-16.051001,-4.8718,-14.487,-7.7193,11.374,-6.7961,-2.0415
-17.987,-5.6508,-11.715,-2.8846,3.8562,-11.731,2.8341,-6.8277,6.6667,-2.8846,3.8562,-6.8608,-8.594,-4.8254,-18.893999,-8.7179,-17.372,-4.8485,11.374,-12.621,-0.12759
-17.044001,-8.5079,-13.657,-2.8846,-0.06536,-12.692,-4.8953,-7.7939,6.6667,-2.8846,-0.06536,-12.686,-14.281,-13.397,-17.945999,-10.641,-19.295,-7.7193,6.6351,-13.592,0.82935
-5.7233,3.873,-5.89,-0.96154,1.8954,-5.9615,-2.963,-3.9291,2.8205,-0.96154,1.8954,-10.744,-4.8025,-6.7302,-7.5197,-5.8333,-10.641,-9.6332,0.94787,-6.7961,4.6571
-6.6667,-0.88889,-6.8608,-8.6538,-4.9673,-11.731,-8.7601,-5.8615,-1.0256,-8.6538,-4.9673,-17.540001,-1.9589,-3.873,-4.6761,-6.7949,-7.7564,-5.8054,-3.7915,-5.8252,-2.9984
-3.8365,12.444,-1.0356,-9.6154,-6.9281,-16.538,-8.7601,-7.7939,-9.6795,-9.6154,-6.9281,-18.511,-4.8025,-2.9206,-1.8325,-1.9872,-2.9487,-1.0207,-13.27,-3.8835,2.7432
-5.7233,-11.365,-5.89,-9.6154,-11.83,-20.385,-19.388,-10.692,-11.603,-9.6154,-11.83,-24.337,-6.6983,-3.873,-2.7804,-6.7949,-5.8333,-0.0638,-6.6351,-2.9126,-2.9984
-10.44,-18.983999,-10.744,-10.577,-14.771,-22.308001,-23.253,-10.692,-12.564,-10.577,-14.771,-27.249001,-9.5419,-4.8254,-6.5719,-7.7564,-7.7564,-1.0207,-1.8957,-5.8252,-3.9553
-14.214,-17.079,-14.628,-11.538,-18.693001,-19.423,-25.184999,-5.8615,-13.526,-11.538,-18.693001,-26.278,-9.5419,-6.7302,-10.363,-9.6795,-13.526,-0.0638,-6.6351,-8.7379,-4.9123
-10.44,-18.032,-13.657,-9.6154,-14.771,-9.8077,-19.388,-0.06441,-12.564,-9.6154,-14.771,-16.57,-7.6461,-5.7778,-7.5197,-11.603,-14.487,1.8501,-7.5829,-4.8544,-9.697
0.8805,-5.6508,-2.0065,-0.96154,-10.85,4.6154,-7.7939,9.5974,-7.7564,-0.96154,-10.85,-1.0356,-5.7504,-4.8254,1.9589,-5.8333,-6.7949,5.6778,-9.4787,3.8835,-9.697
14.088,9.5873,10.615,5.7692,-3.0065,18.077,3.8003,13.462,-2.9487,5.7692,-3.0065,14.498,3.7283,0.88889,11.438,2.8205,4.7436,7.5917,-14.218,8.7379,-7.7831
16.917999,8.6349,15.469,8.6538,2.8758,24.808001,7.6651,15.395,-1.0256,8.6538,2.8758,21.294001,7.5197,0.88889,13.333,6.6667,9.5513,7.5917,-7.5829,8.7379,-4.9123
18.805,7.6825,16.440001,12.5,4.8366,25.768999,13.462,15.395,2.8205,12.5,4.8366,21.294001,6.5719,-0.06349,15.229,9.5513,12.436,10.463,-1.8957,9.7087,2.7432
19.747999,12.444,18.382,11.538,8.7582,22.885,13.462,12.496,6.6667,11.538,8.7582,20.323999,5.624,1.8413,14.281,4.7436,12.436,8.5486,1.8957,9.7087,-0.12759
15.031,2.9206,13.528,7.6923,5.817,15.192,6.6989,7.6651,5.7051,7.6923,5.817,12.557,3.7283,-0.06349,11.438,0.89744,9.5513,0.89314,9.4787,10.68,-2.9984
10.314,3.873,9.644,5.7692,4.8366,8.4615,8.6312,1.868,1.859,5.7692,4.8366,7.7023,1.8325,-1.0159,7.6461,1.859,7.6282,2.807,6.6351,5.8252,0.82935
1.8239,2.9206,3.8188,2.8846,2.8758,3.6538,3.8003,1.868,0.89744,2.8846,2.8758,3.8188,-1.0111,0.88889,1.0111,0.89744,3.7821,4.7209,0.94787,-3.8835,-2.9984
-0.06289,10.54,2.8479,4.8077,5.817,2.6923,5.7327,-0.06441,1.859,4.8077,5.817,4.7896,-1.9589,0.88889,-0.88468,0.89744,1.859,4.7209,-0.94787,0.0,0.82935
-4.7799,3.873,-1.0356,0.96154,3.8562,-0.19231,2.8341,-2.963,6.6667,0.96154,3.8562,2.8479,-2.9068,-1.0159,-3.7283,0.89744,-2.9487,-1.0207,8.5308,-1.9417,5.614
-3.8365,4.8254,0.90615,2.8846,6.7974,1.7308,6.6989,-2.963,8.5897,2.8846,6.7974,4.7896,0.88468,0.88889,-2.7804,5.7051,-1.0256,-5.8054,11.374,-1.9417,8.4848
-5.7233,12.444,-1.0356,3.8462,6.7974,1.7308,5.7327,-1.0306,9.5513,3.8462,6.7974,3.8188,-1.9589,3.746,-5.624,4.7436,-4.8718,-11.547,4.7393,-6.7961,7.5279
-7.6101,4.8254,-2.9773,8.6538,11.699,0.76923,9.5974,2.8341,8.5897,8.6538,11.699,3.8188,0.88468,5.6508,-7.5197,5.7051,-4.8718,-2.9346,10.427,-5.8252,12.313
-7.6101,7.6825,-2.0065,8.6538,11.699,1.7308,11.53,6.6989,8.5897,8.6538,11.699,4.7896,-2.9068,0.88889,-7.5197,2.8205,-5.8333,-0.0638,7.5829,-7.767,7.5279
-4.7799,1.0159,-3.9482,8.6538,11.699,2.6923,10.564,7.6651,8.5897,8.6538,11.699,3.8188,-13.333,-10.54,-9.4155,-8.7179,-9.6795,-0.0638,6.6351,-11.65,1.7863
-1.0063,0.06349,-0.06472,11.538,7.7778,4.6154,1.868,11.53,6.6667,11.538,7.7778,3.8188,-10.49,-9.5873,-6.5719,-8.7179,-6.7949,2.807,0.94787,-8.7379,-5.8692
1.8239,-7.5556,-0.06472,9.6154,9.7386,3.6538,-1.9968,8.6312,5.7051,9.6154,9.7386,2.8479,-8.594,-8.6349,-3.7283,-6.7949,-3.9103,0.89314,-0.94787,-5.8252,-7.7831
-1.0063,-9.4603,-2.9773,3.8462,2.8758,-1.1538,-4.8953,1.868,-2.9487,3.8462,2.8758,-2.0065,-4.8025,-3.873,-3.7283,-5.8333,-3.9103,-1.0207,-7.5829,-5.8252,-6.8262
0.8805,0.06349,-2.0065,0.96154,-1.0458,-3.0769,-2.963,0.90177,-7.7564,0.96154,-1.0458,-2.9773,2.7804,2.7937,1.9589,-1.9872,0.89744,0.89314,-7.5829,1.9417,-4.9123
-0.06289,-4.6984,-6.8608,-2.8846,-4.9673,-6.9231,-7.7939,-2.963,-10.641,-2.8846,-4.9673,-6.8608,-5.7504,-9.5873,1.9589,-8.7179,-4.8718,0.89314,-12.322,2.9126,-7.7831
-1.0063,-18.983999,-10.744,-7.6923,-11.83,-10.769,-18.422001,-7.7939,-11.603,-7.6923,-11.83,-13.657,-5.7504,-9.5873,1.0111,-11.603,-7.7564,2.807,-13.27,0.0,-10.654
2.7673,-17.079,-4.9191,-7.6923,-12.81,-9.8077,-11.659,-4.8953,-10.641,-7.6923,-12.81,-9.7735,-1.0111,-1.0159,4.8025,-6.7949,-3.9103,7.5917,-4.7393,3.8835,-9.697
3.7107,0.06349,3.8188,-9.6154,-13.791,-6.9231,-2.963,-2.963,-15.449,-9.6154,-13.791,-4.9191,-0.06319,0.88889,7.6461,-1.9872,-0.0641,6.6348,-8.5308,7.767,-5.8692
6.5409,5.7778,11.586,-4.8077,-9.8693,2.6923,-0.06441,1.868,-13.526,-4.8077,-9.8693,3.8188,3.7283,-1.0159,10.49,3.7821,5.7051,6.6348,-6.6351,7.767,0.82935
5.5975,5.7778,10.615,-0.96154,-4.9673,8.4615,-1.0306,7.6651,-1.9872,-0.96154,-4.9673,5.7605,6.5719,3.746,10.49,6.6667,8.5897,4.7209,-2.8436,7.767,1.7863
6.5409,21.968,13.528,5.7692,3.8562,8.4615,4.7665,8.6312,4.7436,5.7692,3.8562,8.6731,6.5719,8.5079,7.6461,11.474,11.474,1.8501,-1.8957,5.8252,5.614
6.5409,6.7302,9.644,4.8077,-0.06536,10.385,-0.06441,7.6651,3.7821,4.8077,-0.06536,7.7023,11.311,11.365,6.6983,11.474,11.474,-0.0638,8.5308,5.8252,7.5279
12.201,-1.8413,8.6731,2.8846,-0.06536,11.346,1.868,3.8003,1.859,2.8846,-0.06536,7.7023,11.311,11.365,7.6461,9.5513,10.513,0.89314,8.5308,6.7961,6.571
14.088,6.7302,10.615,0.96154,-2.0261,10.385,-0.06441,2.8341,-1.9872,0.96154,-2.0261,6.7314,15.103,11.365,10.49,12.436,13.397,3.764,0.0,4.8544,5.614
9.3711,-7.5556,2.8479,0.96154,-2.0261,5.5769,-4.8953,3.8003,-2.9487,0.96154,-2.0261,0.90615,6.5719,4.6984,6.6983,5.7051,7.6282,1.8501,2.8436,2.9126,2.7432
-0.06289,-14.222,-7.8317,0.96154,-3.0065,-3.0769,-3.9291,2.8341,-4.8718,0.96154,-3.0065,-4.9191,-0.06319,0.88889,-0.88468,-0.0641,-0.0641,-1.9777,-0.94787,-2.9126,-0.12759
-2.8931,2.9206,-6.8608,0.96154,-1.0458,-3.0769,0.90177,0.90177,-3.9103,0.96154,-1.0458,-2.9773,0.88468,1.8413,-2.7804,2.8205,-1.0256,-1.0207,-8.5308,-1.9417,3.7002
-8.5535,1.0159,-10.744,-1.9231,-2.0261,-5.9615,-1.0306,-2.963,-1.9872,-1.9231,-2.0261,-4.9191,-2.9068,-1.9683,-8.4676,-2.9487,-7.7564,-5.8054,-2.8436,-5.8252,-1.0845
-14.214,-15.175,-14.628,-1.9231,-0.06536,-11.731,-2.963,-2.963,1.859,-1.9231,-0.06536,-8.8026,-13.333,-12.444,-16.051001,-12.564,-17.372,-4.8485,6.6351,-11.65,-5.8692
-7.6101,1.0159,-2.9773,-0.96154,3.8562,-5.9615,5.7327,-2.963,5.7051,-0.96154,3.8562,-2.9773,-13.333,-9.5873,-11.311,-10.641,-14.487,2.807,6.6351,-7.767,-2.9984
0.8805,9.5873,5.7605,0.96154,4.8366,-1.1538,10.564,-1.9968,6.6667,0.96154,4.8366,2.8479,-5.7504,-0.06349,-2.7804,-3.9103,-6.7949,5.6778,4.7393,-0.97087,1.7863
0.8805,4.8254,4.7896,2.8846,7.7778,-2.1154,8.6312,0.90177,5.7051,2.8846,7.7778,2.8479,-6.6983,-7.6825,-2.7804,-4.8718,-6.7949,3.764,2.8436,0.0,4.6571
-1.0063,13.397,0.90615,4.8077,6.7974,0.76923,10.564,3.8003,4.7436,4.8077,6.7974,2.8479,-6.6983,-8.6349,-4.6761,-6.7949,-6.7949,2.807,-4.7393,-4.8544,-2.9984
1.8239,21.016001,2.8479,9.6154,10.719,4.6154,15.395,5.7327,-0.0641,9.6154,10.719,8.6731,1.8325,0.88889,0.06319,-1.0256,-1.0256,3.764,-0.94787,0.0,0.82935
-0.06289,3.873,-0.06472,6.7308,9.7386,3.6538,3.8003,2.8341,4.7436,6.7308,9.7386,5.7605,3.7283,3.746,-0.88468,1.859,-1.0256,-2.9346,5.6872,-0.97087,-0.12759
-0.06289,-8.5079,-0.06472,5.7692,7.7778,4.6154,-1.0306,-1.0306,6.6667,5.7692,7.7778,5.7605,-0.06319,1.8413,-1.8325,-0.0641,-3.9103,2.807,4.7393,0.97087,-0.12759
-2.8931,1.9683,-0.06472,5.7692,6.7974,4.6154,1.868,-1.0306,0.89744,5.7692,6.7974,4.7896,-2.9068,-1.0159,-1.8325,-2.9487,-5.8333,2.807,-3.7915,2.9126,-0.12759
-6.6667,-12.317,-5.89,5.7692,8.7582,-3.0769,-1.9968,0.90177,3.7821,5.7692,8.7582,0.90615,-0.06319,-2.9206,-2.7804,-2.9487,-5.8333,-0.0638,0.0,2.9126,-1.0845
-8.5535,-18.032,-9.7735,1.9231,4.8366,-6.9231,-4.8953,-0.06441,5.7051,1.9231,4.8366,-3.9482,-0.06319,-1.9683,-1.8325,-1.9872,-3.9103,-0.0638,0.0,1.9417,0.82935
-5.7233,3.873,-2.9773,0.96154,5.817,-4.0385,2.8341,-1.0306,3.7821,0.96154,5.817,-1.0356,3.7283,5.6508,1.0111,5.7051,2.8205,0.89314,-6.6351,1.9417,4.6571
-5.7233,-7.5556,-6.8608,-0.96154,0.91503,-5.0,2.8341,-3.9291,3.7821,-0.96154,0.91503,-3.9482,0.88468,4.6984,-1.8325,0.89744,-0.0641,-3.8915,0.94787,-0.97087,-2.9984
-3.8365,-13.27,-5.89,-3.8462,-1.0458,-6.9231,-3.9291,-5.8615,4.7436,-3.8462,-1.0458,-7.8317,4.6761,7.5556,-0.88468,0.89744,3.7821,-5.8054,8.5308,-1.9417,-2.9984
-1.0063,-0.88889,1.877,-9.6154,-6.9281,-9.8077,-6.8277,-7.7939,3.7821,-9.6154,-6.9281,-9.7735,9.4155,9.4603,2.9068,5.7051,9.5513,-5.8054,2.8436,1.9417,3.7002
3.7107,-2.7937,6.7314,-12.5,-7.9085,-9.8077,-2.963,-9.7262,2.8205,-12.5,-7.9085,-9.7735,5.624,5.6508,3.8547,3.7821,9.5513,-3.8915,3.7915,2.9126,3.7002
4.6541,1.0159,8.6731,-12.5,-8.8889,-8.8462,-9.7262,-7.7939,-1.0256,-12.5,-8.8889,-9.7735,5.624,4.6984,3.8547,5.7051,10.513,-1.9777,0.0,-0.97087,5.614
6.5409,8.6349,9.644,-9.6154,-9.8693,-6.9231,-8.7601,-4.8953,-5.8333,-9.6154,-9.8693,-8.8026,3.7283,4.6984,4.8025,7.6282,9.5513,4.7209,-0.94787,-0.97087,7.5279
2.7673,-3.746,0.90615,-11.538,-15.752,-7.8846,-11.659,-5.8615,-7.7564,-11.538,-15.752,-12.686,-2.9068,-1.0159,1.0111,1.859,1.859,0.89314,-1.8957,-2.9126,2.7432
2.7673,-6.6032,-1.0356,-12.5,-14.771,-6.9231,-9.7262,-4.8953,-9.6795,-12.5,-14.771,-11.715,0.88468,1.8413,2.9068,2.8205,0.89744,2.807,0.0,2.9126,2.7432
5.5975,1.0159,0.90615,-7.6923,-7.9085,-4.0385,-5.8615,-1.9968,-9.6795,-7.6923,-7.9085,-6.8608,3.7283,6.6032,6.6983,4.7436,4.7436,0.89314,-1.8957,8.7379,4.6571
4.6541,4.8254,2.8479,-6.7308,-5.9477,-1.1538,-5.8615,-1.9968,-2.9487,-6.7308,-5.9477,-3.9482,5.624,6.6032,7.6461,9.5513,8.5897,3.764,-4.7393,4.8544,0.82935
0.8805,0.06349,-1.0356,-4.8077,-4.9673,-1.1538,-7.7939,-1.9968,-3.9103,-4.8077,-4.9673,-2.9773,4.6761,8.5079,5.7504,8.5897,7.6282,7.5917,-2.8436,2.9126,2.7432
-1.0063,-2.7937,-2.9773,-3.8462,-5.9477,-0.19231,-2.963,-0.06441,-4.8718,-3.8462,-5.9477,-1.0356,6.5719,6.6032,5.7504,8.5897,5.7051,1.8501,-0.94787,7.767,2.7432
2.7673,5.7778,3.8188,1.9231,0.91503,7.5,6.6989,3.8003,-3.9103,1.9231,0.91503,8.6731,4.6761,1.8413,7.6461,4.7436,5.7051,4.7209,-3.7915,9.7087,1.7863
5.5975,8.6349,10.615,9.6154,11.699,17.115,12.496,9.5974,9.5513,9.6154,11.699,19.353001,-0.06319,-1.0159,5.7504,1.859,3.7821,3.764,0.0,2.9126,2.7432
10.314,13.397,12.557,15.385,15.621,22.885,18.292999,14.428,9.5513,15.385,15.621,25.177999,-4.8025,-5.7778,2.9068,-0.0641,2.8205,2.807,3.7915,-1.9417,0.82935
9.3711,3.873,8.6731,14.423,15.621,21.923,19.259001,15.395,9.5513,14.423,15.621,21.294001,-6.6983,-7.6825,3.8547,-1.9872,1.859,4.7209,7.5829,-3.8835,-0.12759
10.314,3.873,6.7314,17.308001,20.523001,18.077,19.259001,12.496,10.513,17.308001,20.523001,18.382,-4.8025,-5.7778,3.8547,-1.9872,0.89744,6.6348,5.6872,0.97087,-2.9984
8.4277,6.7302,6.7314,17.308001,15.621,16.153999,14.428,12.496,11.474,17.308001,15.621,17.410999,-1.9589,-0.06349,1.0111,-1.0256,-1.0256,1.8501,2.8436,-1.9417,-4.9123
7.4843,4.8254,3.8188,16.346001,15.621,14.231,11.53,13.462,11.474,16.346001,15.621,15.469,-2.9068,-0.06349,1.0111,-3.9103,-1.9872,0.89314,4.7393,-0.97087,-2.0415
7.4843,10.54,2.8479,11.538,13.66,12.308,12.496,10.564,6.6667,11.538,13.66,12.557,-1.0111,-1.9683,1.9589,-3.9103,-3.9103,5.6778,-2.8436,3.8835,-0.12759
6.5409,1.9683,-0.06472,10.577,12.68,9.4231,10.564,7.6651,6.6667,10.577,12.68,9.644,-2.9068,-2.9206,1.0111,-3.9103,-5.8333,5.6778,5.6872,6.7961,3.7002
4.6541,13.397,3.8188,10.577,11.699,6.5385,12.496,5.7327,5.7051,10.577,11.699,10.615,-7.6461,-6.7302,-0.88468,-4.8718,-5.8333,3.764,0.0,1.9417,-0.12759
0.8805,8.6349,1.877,7.6923,7.7778,2.6923,8.6312,2.8341,4.7436,7.6923,7.7778,6.7314,-5.7504,-6.7302,-3.7283,-6.7949,-7.7564,-1.9777,-2.8436,-1.9417,-5.8692
-3.8365,-11.365,-2.9773,1.9231,3.8562,-2.1154,-0.06441,-1.9968,0.89744,1.9231,3.8562,0.90615,-1.9589,-2.9206,-5.624,-8.7179,-8.7179,-6.7624,3.7915,-1.9417,-6.8262
-1.9497,-5.6508,1.877,-1.9231,-1.0458,-3.0769,0.90177,-2.963,-1.0256,-1.9231,-1.0458,-2.0065,-1.9589,-3.873,-1.8325,-4.8718,-1.9872,-1.9777,-0.94787,-0.97087,-4.9123
-0.06289,0.06349,3.8188,-7.6923,-3.9869,-7.8846,-3.9291,-8.7601,-1.9872,-7.6923,-3.9869,-5.89,-0.06319,-1.9683,1.9589,-0.0641,2.8205,4.7209,-3.7915,1.9417,0.82935
-0.06289,-0.88889,1.877,-12.5,-12.81,-10.769,-9.7262,-9.7262,-5.8333,-12.5,-12.81,-10.744,9.4155,8.5079,5.7504,5.7051,6.6667,3.764,-2.8436,7.767,5.614
-1.9497,-5.6508,-2.9773,-10.577,-10.85,-8.8462,-7.7939,-7.7939,-6.7949,-10.577,-10.85,-9.7735,8.4676,7.5556,1.9589,3.7821,1.859,-2.9346,0.94787,4.8544,3.7002
-8.5535,-2.7937,-10.744,-8.6538,-7.9085,-8.8462,-9.7262,-3.9291,-3.9103,-8.6538,-7.9085,-10.744,1.8325,2.7937,-6.5719,-1.9872,-7.7564,-1.0207,-2.8436,-2.9126,-2.9984
-11.384,1.9683,-12.686,-8.6538,-5.9477,-8.8462,-4.8953,-2.963,-5.8333,-8.6538,-5.9477,-9.7735,0.88468,4.6984,-10.363,-1.9872,-10.641,-3.8915,-8.5308,-7.767,-2.0415
-10.44,-10.413,-12.686,-12.5,-9.8693,-9.8077,-8.7601,-5.8615,-2.9487,-12.5,-9.8693,-10.744,2.7804,1.8413,-7.5197,-2.9487,-8.7179,-5.8054,2.8436,-3.8835,-2.0415
-4.7799,-7.5556,-5.89,-9.6154,-7.9085,-5.9615,-2.963,-6.8277,-3.9103,-9.6154,-7.9085,-7.8317,-0.06319,-1.0159,-2.7804,-0.0641,-3.9103,-1.0207,2.8436,-0.97087,3.7002
-2.8931,-5.6508,-4.9191,-6.7308,-7.9085,-3.0769,-4.8953,-2.963,-7.7564,-6.7308,-7.9085,-4.9191,-4.8025,-4.8254,-1.8325,-2.9487,-3.9103,0.89314,-3.7915,-0.97087,0.82935
0.8805,-11.365,-3.9482,-4.8077,-6.9281,-3.0769,-10.692,-1.9968,-6.7949,-4.8077,-6.9281,-3.9482,-1.0111,-1.9683,1.9589,-2.9487,-0.0641,0.89314,-4.7393,4.8544,-4.9123
2.7673,-3.746,1.877,-5.7692,-8.8889,-0.19231,-7.7939,-0.06441,-4.8718,-5.7692,-8.8889,-2.0065,8.4676,6.6032,6.6983,4.7436,7.6282,-0.0638,-3.7915,8.7379,-2.9984
6.5409,1.0159,5.7605,-2.8846,-3.0065,3.6538,0.90177,0.90177,-3.9103,-2.8846,-3.0065,2.8479,12.259,10.413,9.5419,9.5513,12.436,6.6348,1.8957,7.767,5.614
8.4277,-5.6508,4.7896,-0.96154,-3.0065,4.6154,-2.963,2.8341,-6.7949,-0.96154,-3.0065,0.90615,9.4155,8.5079,8.594,7.6282,9.5513,9.5056,1.8957,3.8835,8.4848
8.4277,-4.6984,5.7605,2.8846,-4.9673,4.6154,-8.7601,5.7327,-9.6795,2.8846,-4.9673,-0.06472,4.6761,3.746,5.7504,4.7436,6.6667,2.807,-4.7393,0.97087,4.6571
6.5409,2.9206,6.7314,2.8846,-3.0065,3.6538,-2.963,6.6989,-8.7179,2.8846,-3.0065,1.877,-1.0111,-3.873,3.8547,0.89744,2.8205,2.807,-9.4787,4.8544,-3.9553
4.6541,12.444,5.7605,0.96154,-3.0065,5.5769,0.90177,3.8003,-6.7949,0.96154,-3.0065,3.8188,-3.8547,-2.9206,1.9589,-0.0641,0.89744,-0.0638,-8.5308,0.97087,-2.0415
-0.06289,4.8254,-1.0356,2.8846,1.8954,3.6538,6.6989,1.868,-2.9487,2.8846,1.8954,2.8479,-5.7504,-7.6825,-0.88468,-3.9103,-5.8333,-2.9346,1.8957,0.97087,0.82935
-4.7799,1.9683,-4.9191,6.7308,5.817,2.6923,2.8341,5.7327,3.7821,6.7308,5.817,1.877,-7.6461,-6.7302,-3.7283,-9.6795,-9.6795,2.807,1.8957,-3.8835,-5.8692
0.8805,-2.7937,-1.0356,12.5,8.7582,7.5,0.90177,7.6651,7.6282,12.5,8.7582,6.7314,-3.8547,-4.8254,-2.7804,-7.7564,-6.7949,10.463,2.8436,-5.8252,-7.7831
1.8239,-0.88889,2.8479,8.6538,6.7974,9.4231,1.868,9.5974,4.7436,8.6538,6.7974,7.7023,-3.8547,-1.0159,-0.88468,-4.8718,-5.8333,4.7209,2.8436,-0.97087,-3.9553
2.7673,-0.88889,3.8188,7.6923,7.7778,10.385,3.8003,9.5974,2.8205,7.6923,7.7778,10.615,-3.8547,-2.9206,-0.88468,-4.8718,-5.8333,-0.0638,2.8436,1.9417,-0.12759
5.5975,9.5873,6.7314,7.6923,7.7778,12.308,8.6312,5.7327,7.6282,7.6923,7.7778,11.586,1.8325,0.88889,2.9068,3.7821,2.8205,-1.9777,-1.8957,0.97087,7.5279
6.5409,9.5873,5.7605,6.7308,4.8366,7.5,9.5974,2.8341,1.859,6.7308,4.8366,8.6731,6.5719,3.746,3.8547,6.6667,7.6282,6.6348,-3.7915,0.0,6.571
4.6541,1.9683,3.8188,0.0,-0.06536,0.76923,4.7665,0.90177,-1.9872,0.0,-0.06536,2.8479,3.7283,0.88889,3.8547,4.7436,6.6667,5.6778,0.94787,0.97087,-0.12759
3.7107,-4.6984,3.8188,-1.9231,-1.0458,-4.0385,4.7665,-2.963,-1.0256,-1.9231,-1.0458,-1.0356,3.7283,3.746,3.8547,4.7436,5.7051,2.807,9.4787,1.9417,2.7432
-1.0063,-1.8413,-0.06472,-7.6923,-6.9281,-7.8846,-5.8615,-10.692,-0.0641,-7.6923,-6.9281,-6.8608,-0.06319,-1.9683,1.0111,3.7821,2.8205,-4.8485,8.5308,0.97087,6.571
-4.7799,-4.6984,-5.89,-8.6538,-5.9477,-9.8077,-11.659,-9.7262,2.8205,-8.6538,-5.9477,-8.8026,-1.0111,0.88889,-3.7283,0.89744,-2.9487,-8.6762,9.4787,-1.9417,6.571
-7.6101,4.8254,-4.9191,-10.577,-5.9477,-10.769,-5.8615,-5.8615,3.7821,-10.577,-5.9477,-6.8608,4.6761,6.6032,-4.6761,4.7436,-2.9487,-2.9346,2.8436,-0.97087,6.571
-12.327,7.6825,-5.89,-12.5,-4.9673,-13.654,1.868,-9.7262,4.7436,-12.5,-4.9673,-8.8026,2.7804,9.4603,-6.5719,8.5897,-1.9872,-0.0638,6.6351,-1.9417,9.4418
-16.101,6.7302,-9.7735,-13.462,-8.8889,-16.538,-1.9968,-13.591,0.89744,-13.462,-8.8889,-12.686,-4.8025,1.8413,-10.363,1.859,-8.7179,-5.8054,4.7393,-4.8544,4.6571
-11.384,-7.5556,-11.715,-10.577,-9.8693,-10.769,-6.8277,-11.659,-0.0641,-10.577,-9.8693,-11.715,0.88468,1.8413,-7.5197,-2.9487,-10.641,-7.7193,6.6351,1.9417,0.82935
-0.06289,-6.6032,-3.9482,-5.7692,-3.0065,-0.19231,-0.06441,-4.8953,4.7436,-5.7692,-3.0065,-2.0065,6.5719,5.6508,0.06319,0.89744,-5.8333,-0.0638,8.5308,3.8835,4.6571
5.5975,6.7302,3.8188,-4.8077,-2.0261,6.5385,3.8003,1.868,1.859,-4.8077,-2.0261,5.7605,8.4676,3.746,4.8025,3.7821,-0.0641,0.89314,0.94787,3.8835,4.6571
12.201,15.302,11.586,-1.9231,-2.0261,9.4231,9.5974,0.90177,-2.9487,-1.9231,-2.0261,9.644,12.259,9.4603,11.438,8.5897,9.5513,0.89314,0.0,6.7961,5.614
15.975,2.9206,10.615,-0.96154,-3.9869,8.4615,3.8003,-0.06441,-0.0641,-0.96154,-3.9869,5.7605,11.311,11.365,16.177,9.5513,14.359,3.764,6.6351,10.68,3.7002
16.917999,-0.88889,9.644,2.8846,-3.0065,7.5,-2.963,6.6989,-5.8333,2.8846,-3.0065,4.7896,5.624,1.8413,16.177,5.7051,13.397,11.419,-3.7915,9.7087,0.82935
15.031,-1.8413,10.615,3.8462,-2.0261,9.4231,-1.9968,11.53,-2.9487,3.8462,-2.0261,6.7314,3.7283,-0.06349,14.281,4.7436,12.436,10.463,-6.6351,7.767,-2.0415
14.088,5.7778,15.469,6.7308,5.817,13.269,3.8003,9.5974,-0.0641,6.7308,5.817,12.557,2.7804,-0.06349,12.385,9.5513,13.397,9.5056,-5.6872,8.7379,1.7863
4.6541,-0.88889,7.7023,6.7308,4.8366,8.4615,1.868,5.7327,1.859,6.7308,4.8366,9.644,-2.9068,-1.0159,3.8547,0.89744,4.7436,3.764,-2.8436,2.9126,-1.0845
0.8805,6.7302,6.7314,4.8077,3.8562,7.5,12.496,-1.9968,1.859,4.8077,3.8562,9.644,-2.9068,-1.0159,-0.88468,-1.0256,1.859,0.89314,0.0,-0.97087,-0.12759
1.8239,6.7302,9.644,5.7692,6.7974,4.6154,13.462,-1.9968,5.7051,5.7692,6.7974,9.644,1.8325,-0.06349,2.9068,3.7821,4.7436,-1.9777,2.8436,0.0,-0.12759
3.7107,4.8254,10.615,7.6923,10.719,3.6538,10.564,-1.0306,8.5897,7.6923,10.719,10.615,4.6761,3.746,4.8025,4.7436,6.6667,-2.9346,9.4787,0.0,2.7432
7.4843,11.492,14.498,5.7692,8.7582,8.4615,11.53,-1.0306,8.5897,5.7692,8.7582,13.528,7.5197,5.6508,6.6983,6.6667,9.5513,-3.8915,7.5829,0.0,5.614
11.258,15.302,18.382,7.6923,14.641,12.308,16.361,1.868,13.397,7.6923,14.641,16.440001,0.88468,-1.0159,8.594,7.6282,11.474,0.89314,10.427,-0.97087,7.5279
12.201,18.159,16.440001,8.6538,9.7386,13.269,11.53,3.8003,11.474,8.6538,9.7386,13.528,0.88468,2.7937,9.5419,6.6667,11.474,0.89314,7.5829,0.97087,5.614
9.3711,10.54,8.6731,7.6923,6.7974,7.5,5.7327,5.7327,8.5897,7.6923,6.7974,7.7023,0.88468,1.8413,6.6983,4.7436,7.6282,-1.0207,5.6872,1.9417,4.6571
7.4843,6.7302,6.7314,2.8846,3.8562,3.6538,6.6989,4.7665,2.8205,2.8846,3.8562,3.8188,1.8325,-0.06349,4.8025,7.6282,6.6667,4.7209,1.8957,0.0,8.4848
4.6541,-3.746,2.8479,-2.8846,-3.0065,-1.1538,-4.8953,-1.0306,-1.0256,-2.8846,-3.0065,-2.9773,-1.0111,-0.06349,2.9068,1.859,1.859,1.8501,2.8436,-1.9417,2.7432
-0.06289,-5.6508,-3.9482,-8.6538,-6.9281,-6.9231,-7.7939,-3.9291,-5.8333,-8.6538,-6.9281,-8.8026,-7.6461,-2.9206,-1.8325,-3.9103,-3.9103,2.807,-0.94787,-1.9417,-2.0415
-7.6101,-8.5079,-12.686,-11.538,-12.81,-9.8077,-13.591,-5.8615,-7.7564,-11.538,-12.81,-14.628,-11.438,-7.6825,-8.4676,-6.7949,-11.603,-1.9777,-4.7393,-3.8835,-4.9123
-10.44,-16.127001,-16.57,-8.6538,-10.85,-10.769,-11.659,-5.8615,-6.7949,-8.6538,-10.85,-14.628,-3.8547,-6.7302,-11.311,-7.7564,-14.487,-1.0207,-2.8436,-0.97087,-2.9984
-12.327,-2.7937,-11.715,-5.7692,-7.9085,-9.8077,-3.9291,-1.9968,-7.7564,-5.7692,-7.9085,-9.7735,-1.9589,-3.873,-12.259,-7.7564,-14.487,-3.8915,-10.427,-2.9126,-5.8692
-12.327,-7.5556,-9.7735,-5.7692,-6.9281,-9.8077,-4.8953,-4.8953,-5.8333,-5.7692,-6.9281,-5.89,-6.6983,-4.8254,-15.103,-12.564,-14.487,-8.6762,-8.5308,-7.767,-12.568
-9.4969,-8.5079,-6.8608,-4.8077,-3.0065,-5.0,-4.8953,-2.963,-0.0641,-4.8077,-3.0065,-2.9773,-6.6983,-4.8254,-13.207,-12.564,-11.603,-6.7624,-0.94787,-10.68,-10.654
-3.8365,-2.7937,-2.0065,0.0,3.8562,0.76923,5.7327,-0.06441,6.6667,0.0,3.8562,4.7896,-1.9589,1.8413,-8.4676,-4.8718,-6.7949,-4.8485,0.0,-8.7379,-0.12759
-1.0063,-1.8413,0.90615,0.0,3.8562,3.6538,8.6312,-3.9291,7.6282,0.0,3.8562,5.7605,-2.9068,-0.06349,-4.6761,-2.9487,-2.9487,-5.8054,4.7393,-6.7961,0.82935
4.6541,12.444,8.6731,2.8846,6.7974,5.5769,11.53,-5.8615,4.7436,2.8846,6.7974,9.644,3.7283,3.746,3.8547,1.859,4.7436,-1.0207,0.94787,4.8544,3.7002
4.6541,21.016001,9.644,2.8846,5.817,4.6154,11.53,-2.963,5.7051,2.8846,5.817,7.7023,10.363,9.4603,5.7504,6.6667,6.6667,-6.7624,-0.94787,6.7961,4.6571
-0.06289,1.0159,-1.0356,0.96154,4.8366,1.7308,5.7327,0.90177,6.6667,0.96154,4.8366,2.8479,3.7283,4.6984,-0.88468,1.859,-1.0256,-4.8485,8.5308,0.0,0.82935
-2.8931,-5.6508,-7.8317,0.96154,-0.06536,-1.1538,-2.963,1.868,1.859,0.96154,-0.06536,-2.9773,-3.8547,-2.9206,-2.7804,-1.0256,-4.8718,3.764,7.5829,-2.9126,-1.0845
0.8805,0.06349,-3.9482,-0.96154,-3.0065,-2.1154,-1.9968,0.90177,-3.9103,-0.96154,-3.0065,-4.9191,-1.0111,-1.9683,1.0111,3.7821,-1.9872,6.6348,-0.94787,1.9417,4.6571
-2.8931,-10.413,-7.8317,-3.8462,-4.9673,-5.9615,-8.7601,0.90177,-4.8718,-3.8462,-4.9673,-9.7735,-5.7504,-4.8254,-2.7804,-4.8718,-7.7564,4.7209,-4.7393,0.97087,-0.12759
-8.5535,-17.079,-15.599,-1.9231,-4.9673,-9.8077,-14.557,1.868,-2.9487,-1.9231,-4.9673,-14.628,-9.5419,-5.7778,-7.5197,-8.7179,-11.603,-0.0638,-9.4787,-0.97087,-4.9123
-15.157,-8.5079,-19.482,-1.9231,-4.9673,-12.692,-9.7262,0.90177,-7.7564,-1.9231,-4.9673,-15.599,-10.49,-7.6825,-11.311,-7.7564,-10.641,-7.7193,-14.218,-5.8252,-5.8692
-17.987,-11.365,-20.452999,-4.8077,-5.9477,-14.615,-13.591,-1.0306,-5.8333,-4.8077,-5.9477,-15.599,-5.7504,-3.873,-12.259,-7.7564,-11.603,-4.8485,-6.6351,-6.7961,-7.7831
-15.157,-19.937,-18.511,-4.8077,-4.9673,-11.731,-11.659,-7.7939,-2.9487,-4.8077,-4.9673,-13.657,-5.7504,-4.8254,-12.259,-7.7564,-11.603,1.8501,0.94787,-7.767,-3.9553
-13.27,-18.032,-14.628,-4.8077,-4.9673,-9.8077,-12.625,-4.8953,-2.9487,-4.8077,-4.9673,-10.744,-7.6461,-5.7778,-13.207,-10.641,-13.526,-2.9346,-2.8436,-7.767,-6.8262
-9.4969,-10.413,-8.8026,0.0,-0.06536,-6.9231,-4.8953,-0.06441,-5.8333,0.0,-0.06536,-4.9191,-6.6983,-5.7778,-12.259,-6.7949,-12.564,-4.8485,-2.8436,-6.7961,-6.8262
-4.7799,-1.8413,-4.9191,0.96154,-0.06536,-5.0,-1.9968,-0.06441,-1.9872,0.96154,-0.06536,-2.0065,-1.9589,-3.873,-7.5197,1.859,-7.7564,-2.9346,-1.8957,-5.8252,-2.0415
4.6541,14.349,3.8188,2.8846,1.8954,1.7308,4.7665,-0.06441,-1.0256,2.8846,1.8954,4.7896,-1.0111,0.88889,1.9589,5.7051,-0.0641,2.807,-3.7915,0.97087,6.571
7.4843,21.016001,10.615,0.0,1.8954,5.5769,8.6312,-4.8953,6.6667,0.0,1.8954,8.6731,1.8325,3.746,6.6983,10.513,7.6282,-0.0638,0.94787,1.9417,16.139999
3.7107,9.5873,10.615,4.8077,10.719,3.6538,11.53,-5.8615,14.359,4.8077,10.719,8.6731,3.7283,2.7937,4.8025,10.513,8.5897,-1.9777,14.218,0.97087,11.356
0.8805,-3.746,4.7896,7.6923,13.66,4.6154,8.6312,-1.0306,14.359,7.6923,13.66,8.6731,0.88468,2.7937,3.8547,4.7436,5.7051,-4.8485,14.218,1.9417,0.82935
0.8805,-4.6984,0.90615,7.6923,10.719,4.6154,1.868,1.868,3.7821,7.6923,10.719,6.7314,4.6761,6.6032,4.8025,3.7821,4.7436,-3.8915,4.7393,1.9417,0.82935
-0.06289,-0.88889,-2.9773,5.7692,5.817,1.7308,-1.9968,1.868,-0.0641,5.7692,5.817,1.877,7.5197,7.5556,4.8025,1.859,2.8205,1.8501,-8.5308,1.9417,-2.9984
-2.8931,-8.5079,-11.715,0.0,-1.0458,-5.9615,-6.8277,-2.963,-8.7179,0.0,-1.0458,-5.89,3.7283,0.88889,-0.88468,-3.9103,-3.9103,1.8501,-13.27,0.97087,-4.9123
-6.6667,-11.365,-18.511,-1.9231,-5.9477,-11.731,-6.8277,-1.9968,-12.564,-1.9231,-5.9477,-11.715,-1.0111,-8.6349,-6.5719,-9.6795,-11.603,-0.0638,-17.062,0.97087,-11.611
-7.6101,-15.175,-18.511,-3.8462,-6.9281,-8.8462,-7.7939,-0.06441,-6.7949,-3.8462,-6.9281,-11.715,-0.06319,-1.0159,-6.5719,-10.641,-11.603,-0.0638,-13.27,2.9126,-14.482
-4.7799,-3.746,-8.8026,-3.8462,-3.9869,-2.1154,-1.9968,-1.0306,-2.9487,-3.8462,-3.9869,-2.0065,-2.9068,-0.06349,-6.5719,-7.7564,-7.7564,-5.8054,-7.5829,-1.9417,-10.654
-3.8365,-10.413,-4.9191,-2.8846,-3.0065,2.6923,-1.0306,-1.9968,-1.0256,-2.8846,-3.0065,2.8479,-4.8025,-6.7302,-7.5197,-6.7949,-7.7564,-2.9346,1.8957,-2.9126,-5.8692
-5.7233,-4.6984,-2.9773,0.96154,2.8758,3.6538,2.8341,-0.06441,1.859,0.96154,2.8758,5.7605,-1.9589,-2.9206,-7.5197,-0.0641,-4.8718,1.8501,3.7915,0.0,3.7002
-8.5535,4.8254,0.90615,0.96154,3.8562,1.7308,6.6989,-0.06441,3.7821,0.96154,3.8562,4.7896,-1.0111,1.8413,-5.624,5.7051,-1.0256,-4.8485,6.6351,-0.97087,9.4418
-7.6101,8.6349,3.8188,-0.96154,1.8954,-4.0385,4.7665,-2.963,2.8205,-0.96154,1.8954,-1.0356,2.7804,6.6032,-2.7804,5.7051,2.8205,-1.9777,10.427,0.97087,6.571
-5.7233,4.8254,0.90615,-7.6923,-5.9477,-9.8077,-7.7939,-7.7939,-1.0256,-7.6923,-5.9477,-10.744,3.7283,3.746,1.9589,4.7436,4.7436,-1.9777,2.8436,2.9126,3.7002
-3.8365,-6.6032,-8.8026,-12.5,-11.83,-17.5,-21.32,-13.591,-8.7179,-12.5,-11.83,-22.395,-1.0111,-1.0159,2.9068,0.89744,0.89744,-5.8054,-2.8436,4.8544,4.6571
-4.7799,-16.127001,-16.57,-15.385,-18.693001,-24.231001,-29.049999,-13.591,-13.526,-15.385,-18.693001,-30.162001,5.624,6.6032,4.8025,3.7821,-0.0641,-1.9777,-6.6351,2.9126,4.6571
-2.8931,-10.413,-15.599,-16.346001,-19.673,-25.191999,-30.016001,-17.455999,-12.564,-16.346001,-19.673,-31.132999,16.051001,14.222,7.6461,8.5897,2.8205,0.89314,-7.5829,6.7961,8.4848
-5.7233,-18.032,-16.57,-20.191999,-25.556,-26.153999,-35.813,-23.253,-17.372,-20.191999,-25.556,-32.104,16.051001,13.27,3.8547,7.6282,-0.0641,-10.59,-0.94787,6.7961,8.4848
-4.7799,-17.079,-9.7735,-17.308001,-19.673,-17.5,-27.118,-21.32,-19.295,-17.308001,-19.673,-20.452999,9.4155,11.365,-1.8325,3.7821,-2.9487,-10.59,0.0,2.9126,6.571
-6.6667,1.9683,0.90615,-15.385,-11.83,-8.8462,-8.7601,-21.32,-9.6795,-15.385,-11.83,-6.8608,5.624,5.6508,-5.624,4.7436,-0.0641,-15.375,-2.8436,0.0,3.7002
-1.9497,17.205999,15.469,-9.6154,-2.0261,-1.1538,14.428,-15.523,1.859,-9.6154,-2.0261,7.7023,14.155,11.365,1.0111,17.243999,14.359,-16.332001,4.7393,0.97087,9.4418
1.8239,14.349,22.264999,-3.8462,3.8562,10.385,24.09,-7.7939,14.359,-3.8462,3.8562,19.353001,8.4676,8.5079,2.9068,16.282,19.167,-8.6762,12.322,0.0,10.399
6.5409,25.778,30.032,5.7692,11.699,21.923,33.751999,4.7665,16.282,5.7692,11.699,31.974001,2.7804,6.6032,4.8025,15.321,23.013,-5.8054,6.6351,-0.97087,7.5279
10.314,23.872999,29.061001,18.268999,21.503,27.691999,31.82,17.327,14.359,18.268999,21.503,35.858002,10.363,10.413,6.6983,16.282,22.051001,-2.9346,2.8436,-0.97087,4.6571
6.5409,5.7778,12.557,23.077,23.464001,26.731001,22.158001,22.158001,16.282,23.077,23.464001,28.091,4.6761,3.746,2.9068,2.8205,10.513,5.6778,7.5829,-3.8835,-4.9123
4.6541,-0.88889,-1.0356,26.923,25.424999,20.962,15.395,24.09,18.205,26.923,25.424999,20.323999,-5.7504,-5.7778,-1.8325,-8.7179,-2.9487,15.247,9.4787,-5.8252,-9.697
1.8239,3.873,-7.8317,24.038,17.582001,13.269,6.6989,21.191999,9.5513,24.038,17.582001,11.586,-16.177,-18.159,-5.624,-15.449,-13.526,12.376,-3.7915,-7.767,-9.697
-1.0063,-6.6032,-13.657,13.462,11.699,6.5385,-0.06441,13.462,3.7821,13.462,11.699,1.877,-19.021,-18.159,-9.4155,-22.179001,-20.256001,7.5917,-1.8957,-10.68,-14.482
-1.0063,-6.6032,-13.657,5.7692,6.7974,-1.1538,-7.7939,7.6651,3.7821,5.7692,6.7974,-5.89,-16.177,-15.302,-5.624,-17.372,-18.333,4.7209,-1.8957,-5.8252,-11.611
2.7673,-11.365,-12.686,-1.9231,-1.0458,-8.8462,-9.7262,0.90177,-1.0256,-1.9231,-1.0458,-13.657,-14.281,-20.063,1.0111,-16.41,-15.449,9.5056,-0.94787,0.0,-5.8692
0.8805,-12.317,-11.715,-10.577,-11.83,-16.538,-13.591,-3.9291,-7.7564,-10.577,-11.83,-21.424,-13.333,-18.159,3.8547,-19.295,-12.564,3.764,-3.7915,1.9417,-13.525
5.5975,-3.746,0.90615,-9.6154,-10.85,-14.615,-10.692,-5.8615,-9.6795,-9.6154,-10.85,-17.540001,-9.5419,-12.444,9.5419,-10.641,-1.0256,10.463,-5.6872,6.7961,-10.654
10.314,4.8254,13.528,-9.6154,-9.8693,-8.8462,-3.9291,-6.8277,-3.9103,-9.6154,-9.8693,-10.744,1.8325,-1.9683,15.229,2.8205,12.436,12.376,-1.8957,8.7379,0.82935
12.201,21.016001,22.264999,-10.577,-6.9281,-4.0385,6.6989,-5.8615,-6.7949,-10.577,-6.9281,-1.0356,8.4676,3.746,18.073,9.5513,20.128,4.7209,-4.7393,11.65,2.7432
7.4843,16.254,19.353001,-11.538,-8.8889,-0.19231,7.6651,-2.963,-0.0641,-11.538,-8.8889,2.8479,9.4155,4.6984,15.229,13.397,21.09,0.89314,3.7915,9.7087,1.7863
-0.06289,2.9206,12.557,-4.8077,-1.0458,3.6538,10.564,-2.963,7.6282,-4.8077,-1.0458,6.7314,2.7804,6.6032,4.8025,14.359,15.321,-6.7624,12.322,0.97087,9.4418
-1.9497,8.6349,9.644,4.8077,6.7974,10.385,16.361,3.8003,11.474,4.8077,6.7974,15.469,-0.06319,5.6508,-1.8325,9.5513,7.6282,-8.6762,5.6872,-3.8835,5.614
2.7673,8.6349,8.6731,10.577,10.719,16.153999,21.191999,11.53,11.474,10.577,10.719,21.294001,2.7804,4.6984,-1.8325,6.6667,2.8205,-2.9346,5.6872,0.0,8.4848
1.8239,5.7778,1.877,9.6154,7.7778,15.192,16.361,8.6312,5.7051,9.6154,7.7778,16.440001,2.7804,3.746,-4.6761,2.8205,-3.9103,-3.8915,2.8436,-1.9417,4.6571
-2.8931,3.873,-5.89,6.7308,5.817,9.4231,1.868,7.6651,2.8205,6.7308,5.817,5.7605,-0.06319,1.8413,-9.4155,-2.9487,-9.6795,-4.8485,-3.7915,-1.9417,-2.9984
-7.6101,4.8254,-8.8026,2.8846,0.91503,-0.19231,-2.963,2.8341,-1.9872,2.8846,0.91503,-4.9191,-3.8547,-0.06349,-12.259,-4.8718,-12.564,-1.9777,-12.322,-4.8544,-4.9123
