C3,C4,Cz,F1,F2,F3,F4,F7,F8,Fp1,Fp2,Fz,O1,O2,P3,P4,Pz,T3,T4,T5,T6
-15.292,-8.4444,-15.469,-11.765,-3.9409,-18.615,-14.563,-3.9482,-2.9773,-11.765,-3.9409,-15.92,-8.5714,-6.7302,-11.302,-4.8077,-12.496,10.499,1.0742,-7.8818,2.7564
1.7694,-1.7778,-9.644,-1.9608,-3.9409,-12.818,-10.68,1.877,-2.9773,-1.9608,-3.9409,-10.945,-3.8095,-1.9683,-2.7302,1.9231,-4.7665,-4.9597,3.9179,-2.9557,7.5641
-8.6572,-0.8254,-9.644,-7.8431,-5.9113,-15.717,-9.7087,-6.8608,-4.9191,-7.8431,-5.9113,-13.93,-2.8571,-1.0159,-3.6825,2.8846,-2.8341,3.7359,2.97,-1.9704,4.6795
-13.397,-0.8254,-7.7023,-9.8039,-4.9261,-15.717,-9.7087,-22.395,-2.0065,-9.8039,-4.9261,-13.93,-3.8095,-1.9683,-3.6825,3.8462,-1.868,-12.689,2.97,-4.9261,3.7179
-2.0221,2.0317,-1.877,-7.8431,0.98522,-7.9871,-3.8835,-11.715,1.877,-7.8431,0.98522,-6.9652,1.9048,2.7937,2.0317,6.7308,3.9291,-23.316999,2.97,0.98522,6.6026
-6.7615,1.0794,-5.7605,-7.8431,0.0,-9.9195,-4.8544,3.8188,3.8188,-7.8431,0.0,-6.9652,2.8571,2.7937,-0.8254,5.7692,1.9968,0.83736,-2.7172,0.98522,3.7179
-2.97,1.0794,-6.7314,-3.9216,0.0,-3.1562,-2.9126,-2.9773,1.877,-3.9216,0.0,-4.9751,3.8095,1.8413,-1.7778,3.8462,1.0306,4.7021,0.12638,0.0,1.7949
-8.6572,2.9841,-4.7896,0.0,2.9557,-3.1562,0.97087,-2.9773,1.877,0.0,2.9557,-0.99502,3.8095,-0.06349,-2.7302,2.8846,1.0306,6.6345,3.9179,0.0,0.83333
-10.553,2.9841,-2.8479,2.9412,7.8818,-10.886,3.8835,5.7605,4.7896,2.9412,7.8818,0.99502,-0.95238,-2.9206,-5.5873,0.96154,-0.90177,1.8035,4.8657,-5.9113,0.83333
-6.7615,0.12698,-1.877,5.8824,8.867,-4.1224,4.8544,7.7023,5.7605,5.8824,8.867,2.9851,-3.8095,-5.7778,-6.5397,-3.8462,-3.8003,-13.655,2.97,-8.867,-3.0128
-2.0221,-2.7302,-2.8479,3.9216,7.8818,-0.25765,2.9126,-5.89,5.7605,3.9216,7.8818,1.99,-2.8571,-5.7778,-4.6349,-5.7692,-3.8003,-4.9597,0.12638,-4.9261,-3.9744
4.613,-1.7778,0.06472,0.0,2.9557,6.5056,2.9126,1.877,1.877,0.0,2.9557,3.9801,1.9048,-1.9683,1.0794,-4.8077,0.06441,-21.385,-5.5608,0.0,-4.9359
16.934999,0.12698,3.9482,-3.9216,4.9261,12.303,6.7961,-13.657,1.877,-3.9216,4.9261,7.9602,2.8571,-0.06349,5.8413,-4.8077,1.9968,-16.554001,-9.3523,0.98522,-5.8974
1.7694,-0.8254,2.9773,-0.98039,6.8966,3.6071,6.7961,-3.9482,0.90615,-0.98039,6.8966,7.9602,0.0,0.88889,2.0317,-4.8077,1.0306,11.465,-6.5087,-2.9557,-3.9744
1.7694,-4.6349,-0.90615,2.9412,1.9704,-1.2238,1.9417,4.7896,-6.8608,2.9412,1.9704,2.9851,-2.8571,-1.0159,-0.8254,-6.7308,-0.90177,2.7697,-5.5608,-4.9261,-5.8974
-2.0221,-5.5873,-4.7896,6.8627,5.9113,-1.2238,-1.9417,8.6731,-6.8608,6.8627,5.9113,-0.99502,-3.8095,-1.9683,-1.7778,-4.8077,-1.868,4.7021,-3.6651,-4.9261,-3.0128
-5.8136,-1.7778,-4.7896,4.902,5.9113,-3.1562,-2.9126,-0.06472,-1.0356,4.902,5.9113,-2.9851,-3.8095,0.88889,-0.8254,0.0,1.0306,3.7359,2.97,-2.9557,-0.12821
-0.12638,1.0794,-2.8479,0.0,2.9557,-3.1562,-2.9126,-11.715,-2.0065,0.0,2.9557,-4.9751,-1.9048,2.7937,2.0317,4.8077,3.9291,-5.9259,3.9179,-0.98522,1.7949
6.5087,8.6984,2.0065,0.0,-1.9704,-4.1224,-2.9126,-1.0356,-3.9482,0.0,-1.9704,-5.9701,3.8095,9.4603,8.6984,13.462,11.659,-6.8921,4.8657,7.8818,8.5256
-0.12638,11.556,2.9773,-2.9412,-2.9557,-5.0886,-1.9417,-9.7735,-1.0356,-2.9412,-2.9557,-8.9552,4.7619,12.317,7.746,18.268999,13.591,-2.0612,7.7093,4.9261,14.295
-7.7093,10.603,1.0356,-2.9412,0.0,-11.852,-3.8835,-4.9191,1.877,-2.9412,0.0,-10.945,6.6667,13.27,5.8413,18.268999,13.591,-0.12882,5.8136,0.0,14.295
-0.12638,9.6508,2.9773,0.98039,-0.98522,-7.0209,-4.8544,3.8188,-2.9773,0.98039,-0.98522,-8.9552,11.429,17.079,9.6508,20.191999,15.523,9.533,7.7093,5.9113,17.179001
0.82148,5.8413,0.06472,2.9412,-5.9113,-4.1224,-8.7379,8.6731,-10.744,2.9412,-5.9113,-8.9552,9.5238,15.175,9.6508,17.308001,13.591,9.533,3.9179,5.9113,13.333
10.3,2.0317,0.06472,-0.98039,-8.867,-7.9871,-12.621,-2.9773,-10.744,-0.98039,-8.867,-10.945,10.476,15.175,12.508,15.385,11.659,-0.12882,1.0742,6.8966,10.449
2.7172,-0.8254,-1.877,-3.9216,-7.8818,-8.9533,-13.592,-2.0065,-8.8026,-3.9216,-7.8818,-11.94,14.286,15.175,12.508,13.462,11.659,4.7021,-1.7694,12.808,9.4872
-3.9179,-2.7302,-1.877,-1.9608,-2.9557,-6.0548,-11.65,4.7896,-6.8608,-1.9608,-2.9557,-8.9552,13.333,13.27,10.603,10.577,9.7262,1.8035,-5.5608,11.823,6.6026
5.5608,-2.7302,2.9773,0.98039,0.0,7.4718,-2.9126,5.7605,-6.8608,0.98039,0.0,0.0,13.333,13.27,12.508,7.6923,9.7262,1.8035,-5.5608,10.837,4.6795
7.4566,-1.7778,4.9191,3.9216,3.9409,12.303,5.8252,-1.0356,-2.0065,3.9216,3.9409,5.9701,8.5714,9.4603,9.6508,2.8846,6.8277,2.7697,-5.5608,3.9409,1.7949
7.4566,-2.7302,3.9482,0.0,2.9557,-0.25765,5.8252,0.90615,-2.9773,0.0,2.9557,2.9851,3.8095,2.7937,4.8889,-3.8462,1.0306,-4.9597,-8.4044,-0.98522,-5.8974
-2.0221,-4.6349,-1.877,-2.9412,0.98522,-6.0548,0.97087,2.8479,-3.9482,-2.9412,0.98522,0.0,-1.9048,-3.873,-1.7778,-10.577,-7.6651,-1.095,-7.4566,-4.9261,-11.667
-7.7093,-7.4921,-6.7314,-6.8627,-1.9704,-3.1562,-2.9126,-11.715,-3.9482,-6.8627,-1.9704,-1.99,-12.381,-12.444,-12.254,-16.346001,-16.361,-11.723,-6.5087,-16.749001,-13.59
-12.449,-7.4921,-9.644,-3.9216,-1.9704,1.6747,-2.9126,-7.8317,-2.9773,-3.9216,-1.9704,0.0,-16.190001,-14.349,-17.968,-17.308001,-20.225,-27.181999,-0.82148,-19.704,-10.705
-10.553,-8.4444,-8.6731,0.0,1.9704,2.6409,1.9417,-7.8317,-0.06472,0.0,1.9704,2.9851,-14.286,-14.349,-17.968,-17.308001,-19.259001,-20.419001,6.7615,-16.749001,-6.859
-5.8136,-6.5397,-5.7605,5.8824,1.9704,-6.0548,2.9126,-3.9482,5.7605,5.8824,1.9704,1.99,-11.429,-10.54,-15.111,-13.462,-15.395,-8.8245,11.501,-14.778,-3.9744
-5.8136,-2.7302,-0.90615,-1.9608,2.9557,-2.19,3.8835,-18.511,6.7314,-1.9608,2.9557,1.99,-8.5714,-6.7302,-11.302,-8.6538,-9.5974,-3.9936,10.553,-8.867,-0.12821
-12.449,0.12698,-1.877,-11.765,-1.9704,-10.886,-1.9417,-20.452999,5.7605,-11.765,-1.9704,-5.9701,-5.7143,-3.873,-9.3968,-3.8462,-4.7665,-2.0612,7.7093,-3.9409,2.7564
-17.188,2.0317,-4.7896,-12.745,-4.9261,-21.514,-4.8544,-4.9191,4.7896,-12.745,-4.9261,-11.94,-2.8571,-0.06349,-7.4921,1.9231,0.06441,-5.9259,5.8136,-0.98522,4.6795
-2.0221,2.9841,-0.90615,-8.8235,-8.867,-10.886,-5.8252,2.8479,0.90615,-8.8235,-8.867,-9.9502,6.6667,7.5556,2.9841,8.6538,7.7939,-10.757,5.8136,5.9113,8.5256
3.6651,2.9841,2.9773,-7.8431,-9.8522,-5.0886,-6.7961,-3.9482,-3.9482,-7.8431,-9.8522,-8.9552,13.333,12.317,10.603,13.462,14.557,-6.8921,2.97,12.808,11.41
7.4566,2.9841,3.9482,-9.8039,-10.837,-1.2238,-5.8252,-32.104,-4.9191,-9.8039,-10.837,-7.9602,17.143,16.127001,14.413,16.346001,18.422001,4.7021,-2.7172,13.793,10.449
10.3,4.8889,4.9191,-13.725,-10.837,-6.0548,-2.9126,-10.744,-3.9482,-13.725,-10.837,-5.9701,20.0,18.983999,18.222,18.268999,21.32,-1.095,-2.7172,18.719,12.372
1.7694,4.8889,2.9773,-14.706,-11.823,-13.784,-3.8835,6.7314,-4.9191,-14.706,-11.823,-7.9602,20.952,17.079,16.316999,17.308001,20.354,-2.0612,-4.613,16.749001,12.372
-2.97,2.9841,2.9773,-9.8039,-10.837,-8.9533,-4.8544,-6.8608,-6.8608,-9.8039,-10.837,-7.9602,20.0,17.079,14.413,15.385,19.388,6.6345,-2.7172,16.749001,9.4872
7.4566,2.0317,2.9773,-5.8824,-9.8522,0.70853,-3.8835,-5.89,-4.9191,-5.8824,-9.8522,-5.9701,20.952,17.079,17.27,15.385,18.422001,8.5668,2.0221,17.733999,10.449
-1.0742,-0.8254,-0.90615,0.0,-5.9113,-1.2238,-3.8835,13.528,-3.9482,0.0,-5.9113,-3.9801,16.190001,14.222,11.556,10.577,12.625,15.33,0.12638,14.778,10.449
-2.97,-2.7302,-1.877,0.0,-3.9409,0.70853,-1.9417,11.586,-4.9191,0.0,-3.9409,0.0,12.381,10.413,5.8413,5.7692,6.8277,6.6345,-0.82148,9.8522,6.6026
0.82148,-2.7302,-0.90615,-3.9216,-1.9704,7.4718,0.97087,-7.8317,-6.8608,-3.9216,-1.9704,2.9851,8.5714,7.5556,3.9365,1.9231,3.9291,8.5668,-6.5087,7.8818,1.7949
-1.0742,-10.349,-7.7023,-5.8824,-0.98522,1.6747,-0.97087,-9.7735,-0.06472,-5.8824,-0.98522,-0.99502,0.0,-1.9683,-4.6349,-7.6923,-6.6989,-0.12882,-11.248,-0.98522,-4.9359
-0.12638,-13.206,-10.615,-2.9412,-0.98522,1.6747,-1.9417,-11.715,4.7896,-2.9412,-0.98522,-1.99,-5.7143,-7.6825,-8.4444,-14.423,-12.496,-9.7907,-12.196,-2.9557,-10.705
-9.6051,-13.206,-12.557,-1.9608,-0.98522,-3.1562,-1.9417,0.90615,3.8188,-1.9608,-0.98522,-2.9851,-9.5238,-13.397,-14.159,-18.268999,-17.327,0.83736,-11.248,-6.8966,-14.551
-2.97,-12.254,-9.644,-4.902,-0.98522,0.70853,-1.9417,-2.0065,3.8188,-4.902,-0.98522,-0.99502,-13.333,-17.205999,-15.111,-20.191999,-19.259001,-1.095,-7.4566,-8.867,-16.474001
0.82148,-7.4921,-3.8188,-3.9216,2.9557,10.37,7.767,1.877,4.7896,-3.9216,2.9557,7.9602,-15.238,-17.205999,-13.206,-18.268999,-17.327,-8.8245,-6.5087,-10.837,-12.628
-19.084,-6.5397,-6.7314,-2.9412,5.9113,-2.19,5.8252,4.7896,7.7023,-2.9412,5.9113,5.9701,-18.094999,-18.159,-20.825001,-18.268999,-20.225,-10.757,-4.613,-20.690001,-10.705
-10.553,-1.7778,-1.877,4.902,11.823,1.6747,6.7961,0.90615,10.615,4.902,11.823,8.9552,-11.429,-10.54,-14.159,-10.577,-12.496,-37.810001,4.8657,-16.749001,-3.9744
-8.6572,-2.7302,-8.6731,-2.9412,1.9704,-4.1224,-2.9126,-6.8608,5.7605,-2.9412,1.9704,-0.99502,-9.5238,-5.7778,-14.159,-6.7308,-10.564,-24.283001,7.7093,-14.778,-2.0513
-20.032,-6.5397,-15.469,-10.784,-6.8966,-15.717,-12.621,-9.7735,-1.0356,-10.784,-6.8966,-13.93,-4.7619,-1.0159,-16.063,-3.8462,-9.5974,-3.9936,-1.7694,-8.867,1.7949
-16.24,-5.5873,-12.557,-12.745,-10.837,-17.649,-13.592,-11.715,-3.9482,-12.745,-10.837,-17.91,1.9048,4.6984,-10.349,0.96154,-4.7665,-8.8245,-4.613,-2.9557,5.641
-20.979,-8.4444,-11.586,-11.765,-10.837,-19.580999,-12.621,-12.686,-6.8608,-11.765,-10.837,-18.905001,2.8571,4.6984,-9.3968,0.96154,-1.868,2.7697,-2.7172,0.0,4.6795
-3.9179,-9.3968,-7.7023,-14.706,-10.837,-16.683001,-11.65,-15.599,-6.8608,-14.706,-10.837,-15.92,6.6667,5.6508,-2.7302,1.9231,1.0306,-3.0274,-6.5087,3.9409,5.641
-0.12638,-9.3968,-6.7314,-14.706,-11.823,-8.9533,-14.563,-27.249001,-6.8608,-14.706,-11.823,-13.93,12.381,10.413,2.0317,2.8846,3.9291,-10.757,-8.4044,6.8966,5.641
-9.6051,-5.5873,-5.7605,-9.8039,-9.8522,-13.784,-13.592,0.90615,-5.89,-9.8039,-9.8522,-13.93,14.286,13.27,2.9841,5.7692,5.8615,-5.9259,-5.5608,8.867,6.6026
-0.12638,-0.8254,-0.90615,-8.8235,-7.8818,-5.0886,-8.7379,4.7896,-5.89,-8.8235,-7.8818,-5.9701,16.190001,14.222,5.8413,8.6538,8.7601,-3.9936,-2.7172,9.8522,7.5641
2.7172,-0.8254,2.0065,-2.9412,-6.8966,5.5395,-4.8544,-2.0065,-6.8608,-2.9412,-6.8966,0.99502,16.190001,14.222,5.8413,8.6538,9.7262,9.533,-3.6651,8.867,5.641
10.3,-1.7778,4.9191,3.9216,-5.9113,6.5056,-2.9126,0.90615,-2.9773,3.9216,-5.9113,1.99,17.143,14.222,9.6508,9.6154,11.659,7.6006,-4.613,11.823,7.5641
0.82148,-4.6349,2.9773,2.9412,-5.9113,-3.1562,-4.8544,13.528,-2.9773,2.9412,-5.9113,-2.9851,16.190001,10.413,7.746,5.7692,7.7939,14.364,-3.6651,12.808,4.6795
16.934999,-3.6825,4.9191,4.902,-6.8966,9.4042,-3.8835,12.557,-3.9482,4.902,-6.8966,0.0,10.476,5.6508,9.6508,1.9231,5.8615,3.7359,-4.613,8.867,-0.12821
15.987,-5.5873,0.06472,1.9608,-6.8966,4.5733,-5.8252,-0.06472,-4.9191,1.9608,-6.8966,-3.9801,1.9048,-1.0159,3.9365,-4.8077,-0.90177,-3.9936,-5.5608,3.9409,-3.0128
-7.7093,-13.206,-12.557,-2.9412,-12.808,-8.9533,-12.621,5.7605,-6.8608,-2.9412,-12.808,-12.935,-9.5238,-10.54,-10.349,-15.385,-14.428,4.7021,-5.5608,-7.8818,-9.7436
-17.188,-15.111,-12.557,-3.9216,-9.8522,-4.1224,-10.68,11.586,-6.8608,-3.9216,-9.8522,-7.9602,-18.094999,-17.205999,-19.872999,-21.153999,-21.191999,1.8035,-10.3,-16.749001,-13.59
-18.136,-14.159,-7.7023,-1.9608,-5.9113,9.4042,-5.8252,-10.744,-4.9191,-1.9608,-5.9113,1.99,-23.809999,-20.063,-22.73,-22.115,-22.158001,-11.723,-8.4044,-23.645,-12.628
-7.7093,-10.349,-4.7896,2.9412,-0.98522,4.5733,0.0,5.7605,-1.0356,2.9412,-0.98522,3.9801,-22.857,-20.063,-17.016001,-19.231001,-20.225,-19.452,-3.6651,-21.674999,-10.705
-2.97,-5.5873,-4.7896,2.9412,-0.98522,0.70853,0.97087,15.469,3.8188,2.9412,-0.98522,2.9851,-20.0,-17.205999,-11.302,-15.385,-16.361,2.7697,2.97,-16.749001,-8.7821
1.7694,-0.8254,-1.877,1.9608,0.98522,3.6071,3.8835,-0.06472,5.7605,1.9608,0.98522,3.9801,-17.143,-15.302,-7.4921,-12.5,-12.496,18.229,5.8136,-14.778,-8.7821
-9.6051,-0.8254,-4.7896,-5.8824,0.0,-5.0886,1.9417,-7.8317,7.7023,-5.8824,0.0,0.0,-19.048,-17.205999,-13.206,-12.5,-14.428,1.8035,3.9179,-18.719,-10.705
-15.292,-0.8254,-5.7605,-3.9216,1.9704,-4.1224,0.97087,-2.9773,7.7023,-3.9216,1.9704,-0.99502,-20.0,-16.254,-18.921,-11.538,-16.361,-10.757,4.8657,-20.690001,-7.8205
-18.136,-1.7778,-6.7314,-1.9608,2.9557,-6.0548,0.0,5.7605,9.644,-1.9608,2.9557,-0.99502,-18.094999,-15.302,-19.872999,-10.577,-15.395,-12.689,9.6051,-19.704,-5.8974
-6.7615,2.9841,-1.877,-2.9412,3.9409,-0.25765,3.8835,-4.9191,9.644,-2.9412,3.9409,1.99,-11.429,-12.444,-12.254,-6.7308,-9.5974,-17.52,12.449,-9.8522,-4.9359
-0.12638,5.8413,1.0356,-4.902,3.9409,4.5733,5.8252,-5.89,6.7314,-4.902,3.9409,1.99,-5.7143,-9.5873,-4.6349,-3.8462,-4.7665,-14.622,7.7093,-2.9557,-3.9744
-4.8657,6.7937,2.0065,0.98039,4.9261,-3.1562,4.8544,5.7605,5.7605,0.98039,4.9261,0.99502,-1.9048,-6.7302,-1.7778,-1.9231,-1.868,3.7359,2.97,1.9704,-3.0128
-1.0742,2.9841,1.0356,0.0,1.9704,-7.0209,2.9126,-2.0065,1.877,0.0,1.9704,-0.99502,-0.95238,-4.8254,0.12698,-4.8077,-1.868,10.499,-3.6651,4.9261,-5.8974
4.613,-2.7302,1.0356,-4.902,-3.9409,0.70853,-0.97087,2.8479,-3.9482,-4.902,-3.9409,0.0,0.0,-3.873,2.9841,-5.7692,-1.868,14.364,-7.4566,7.8818,-6.859
1.7694,-6.5397,1.0356,-1.9608,-2.9557,0.70853,-0.97087,15.469,-6.8608,-1.9608,-2.9557,1.99,0.0,-3.873,2.9841,-6.7308,-1.868,14.364,-9.3523,9.8522,-7.8205
3.6651,-6.5397,1.0356,3.9216,-3.9409,7.4718,-0.97087,12.557,-6.8608,3.9216,-3.9409,3.9801,0.95238,-2.9206,3.9365,-5.7692,-0.90177,10.499,-11.248,8.867,-9.7436
10.3,-3.6825,0.06472,4.902,-1.9704,4.5733,-0.97087,5.7605,-6.8608,4.902,-1.9704,1.99,0.95238,-1.9683,4.8889,-2.8846,0.06441,8.5668,-9.3523,7.8818,-6.859
-0.12638,-4.6349,-6.7314,0.0,-5.9113,-4.1224,-7.767,4.7896,-7.8317,0.0,-5.9113,-5.9701,-0.95238,-2.9206,0.12698,-3.8462,-1.868,21.127001,-3.6651,6.8966,-7.8205
-7.7093,-8.4444,-10.615,-1.9608,-5.9113,-5.0886,-10.68,0.90615,-6.8608,-1.9608,-5.9113,-9.9502,-4.7619,-5.7778,-4.6349,-5.7692,-5.7327,20.160999,-2.7172,2.9557,-6.859
-14.344,-12.254,-11.586,-3.9216,-5.9113,-8.9533,-12.621,8.6731,-4.9191,-3.9216,-5.9113,-11.94,-7.619,-7.6825,-8.4444,-7.6923,-7.6651,4.7021,-1.7694,-2.9557,-5.8974
-3.9179,-11.302,-6.7314,0.0,0.0,1.6747,-6.7961,-2.0065,-1.0356,0.0,0.0,-3.9801,-5.7143,-5.7778,-4.6349,-4.8077,-4.7665,-3.9936,1.0742,-0.98522,0.83333
-5.8136,-9.3968,-6.7314,0.0,-0.98522,-4.1224,-5.8252,-4.9191,-0.06472,0.0,-0.98522,-4.9751,-5.7143,-5.7778,-5.5873,-4.8077,-5.7327,-21.385,2.97,-3.9409,0.83333
-18.136,-8.4444,-10.615,-3.9216,-4.9261,-13.784,-9.7087,-10.744,-5.89,-3.9216,-4.9261,-10.945,-10.476,-7.6825,-12.254,-5.7692,-7.6651,0.83736,3.9179,-10.837,-1.0897
-14.344,0.12698,-5.7605,-2.9412,-3.9409,-8.9533,-7.767,-10.744,-3.9482,-2.9412,-3.9409,-7.9602,-7.619,-3.873,-10.349,0.96154,-4.7665,2.7697,7.7093,-14.778,5.641
-15.292,3.9365,-4.7896,-2.9412,-2.9557,-11.852,-3.8835,-1.0356,-0.06472,-2.9412,-2.9557,-5.9701,-5.7143,-0.06349,-11.302,4.8077,-2.8341,-17.52,7.7093,-19.704,10.449
-6.7615,3.9365,-2.8479,-1.9608,0.0,-1.2238,0.0,-12.686,4.7896,-1.9608,0.0,-1.99,-3.8095,2.7937,-10.349,6.7308,-1.868,-20.419001,9.6051,-19.704,13.333
-5.8136,0.12698,-2.8479,-1.9608,-0.98522,-2.19,-0.97087,-16.57,2.8479,-1.9608,-0.98522,0.0,-4.7619,1.8413,-11.302,3.8462,-3.8003,-19.452,7.7093,-18.719,11.41
-7.7093,-0.8254,1.0356,1.9608,0.98522,-5.0886,2.9126,-4.9191,-1.0356,1.9608,0.98522,1.99,-1.9048,1.8413,-6.5397,0.96154,-3.8003,-17.52,3.9179,-7.8818,8.5256
-2.0221,-4.6349,1.0356,-3.9216,-0.98522,0.70853,2.9126,-13.657,-1.0356,-3.9216,-0.98522,0.99502,1.9048,0.88889,-1.7778,-3.8462,-4.7665,-3.9936,1.0742,0.98522,2.7564
11.248,-8.4444,0.06472,-6.8627,-6.8966,-7.0209,-3.8835,4.7896,-8.8026,-6.8627,-6.8966,-2.9851,4.7619,-0.06349,3.9365,-7.6923,-4.7665,-4.9597,-9.3523,8.867,-3.0128
6.5087,-9.3968,-0.90615,-3.9216,-8.867,-4.1224,-8.7379,4.7896,-12.686,-3.9216,-8.867,-2.9851,8.5714,0.88889,6.7937,-8.6538,-3.8003,18.229,-12.196,20.690001,-5.8974
-1.0742,-12.254,-6.7314,-4.902,-11.823,-0.25765,-11.65,-13.657,-12.686,-4.902,-11.823,-5.9701,9.5238,-0.06349,3.9365,-11.538,-7.6651,32.721001,-9.3523,23.645,-4.9359
2.7172,-15.111,-9.644,-9.8039,-13.793,-3.1562,-12.621,-4.9191,-14.628,-9.8039,-13.793,-8.9552,9.5238,-0.06349,2.9841,-13.462,-8.6312,10.499,-10.3,24.631001,-8.7821
-4.8657,-16.063,-12.557,-11.765,-12.808,-11.852,-12.621,6.7314,-13.657,-11.765,-12.808,-11.94,8.5714,-1.0159,1.0794,-13.462,-8.6312,14.364,-10.3,19.704,-10.705
1.7694,-10.349,-6.7314,-11.765,-12.808,-7.9871,-11.65,1.877,-10.744,-11.765,-12.808,-11.94,11.429,2.7937,6.7937,-7.6923,-2.8341,19.195,-11.248,20.690001,-7.8205
23.57,-1.7778,2.9773,-8.8235,-9.8522,-2.19,-6.7961,-4.9191,-8.8026,-8.8235,-9.8522,-7.9602,14.286,7.5556,17.27,0.96154,6.8277,8.5668,-5.5608,21.674999,-0.12821
15.987,1.0794,2.9773,-6.8627,-10.837,-4.1224,-6.7961,-2.9773,-6.8608,-6.8627,-10.837,-7.9602,13.333,7.5556,19.174999,3.8462,9.7262,0.83736,-4.613,16.749001,4.6795
0.82148,-1.7778,-1.877,-12.745,-10.837,-8.9533,-9.7087,-13.657,-9.7735,-12.745,-10.837,-12.935,9.5238,4.6984,13.46,3.8462,7.7939,5.6683,-7.4566,12.808,4.6795
-0.12638,-0.8254,-1.877,-10.784,-9.8522,-11.852,-11.65,-2.0065,-8.8026,-10.784,-9.8522,-14.925,9.5238,4.6984,12.508,5.7692,8.7601,8.5668,-2.7172,10.837,6.6026
-1.0742,1.0794,0.06472,-3.9216,-7.8818,-10.886,-8.7379,14.498,-7.8317,-3.9216,-7.8818,-10.945,4.7619,1.8413,10.603,5.7692,9.7262,18.229,-4.613,9.8522,3.7179
6.5087,3.9365,3.9482,0.98039,-5.9113,-2.19,-3.8835,10.615,-6.8608,0.98039,-5.9113,-3.9801,0.95238,-1.0159,10.603,5.7692,8.7601,9.533,-2.7172,3.9409,1.7949
6.5087,4.8889,4.9191,2.9412,-1.9704,0.70853,-0.97087,7.7023,-3.9482,2.9412,-1.9704,0.0,0.95238,-1.9683,10.603,4.8077,7.7939,14.364,2.0221,0.98522,1.7949
4.613,4.8889,5.89,4.902,0.0,4.5733,1.9417,10.615,-5.89,4.902,0.0,2.9851,-2.8571,-4.8254,8.6984,1.9231,5.8615,13.398,1.0742,-2.9557,-1.0897
13.144,7.746,11.715,9.8039,3.9409,10.37,9.7087,15.469,-3.9482,9.8039,3.9409,9.9502,-4.7619,-4.8254,8.6984,2.8846,7.7939,7.6006,0.12638,-4.9261,-3.0128
26.414,13.46,19.482,9.8039,8.867,21.965,15.534,-1.0356,2.8479,9.8039,8.867,18.905001,-5.7143,-4.8254,11.556,5.7692,9.7262,-14.622,3.9179,-5.9113,-2.0513
33.049,18.222,27.249001,11.765,11.823,33.558998,20.388,0.90615,2.8479,11.765,11.823,27.861,-4.7619,-1.9683,13.46,10.577,13.591,1.8035,3.9179,-5.9113,-1.0897
16.934999,23.937,32.104,18.627001,15.764,29.694,30.097,34.887001,3.8188,18.627001,15.764,34.826,-0.95238,2.7937,13.46,15.385,18.422001,28.857,-0.82148,-3.9409,0.83333
15.987,26.794001,34.044998,24.51,21.674999,35.491001,34.951,34.887001,10.615,24.51,21.674999,40.796001,3.8095,8.5079,16.316999,18.268999,21.32,23.059999,-0.82148,0.0,3.7179
20.726999,22.983999,31.132999,28.431,25.615999,38.389999,35.922001,22.264999,13.528,28.431,25.615999,40.796001,5.7143,10.413,16.316999,16.346001,18.422001,12.432,4.8657,1.9704,4.6795
15.039,16.316999,20.452999,20.587999,21.674999,20.997999,27.184,17.410999,15.469,20.587999,21.674999,29.851,0.95238,4.6984,9.6508,8.6538,9.7262,-7.8583,3.9179,-0.98522,0.83333
10.3,9.6508,8.8026,9.8039,15.764,8.438,18.447001,5.7605,13.528,9.8039,15.764,16.915001,-4.7619,-1.9683,2.0317,0.96154,-0.90177,-20.419001,4.8657,-2.9557,-3.0128
2.7172,5.8413,2.9773,7.8431,12.808,6.5056,12.621,7.7023,13.528,7.8431,12.808,9.9502,-4.7619,-3.873,-1.7778,-3.8462,-5.7327,13.398,7.7093,3.9409,-4.9359
-5.8136,1.0794,-2.8479,9.8039,9.8522,1.6747,6.7961,11.586,14.498,9.8039,9.8522,4.9751,-5.7143,-5.7778,-6.5397,-6.7308,-10.564,25.958,9.6051,4.9261,-5.8974
-1.0742,-3.6825,-6.7314,2.9412,1.9704,-0.25765,-1.9417,-6.8608,7.7023,2.9412,1.9704,-2.9851,-6.6667,-7.6825,-7.4921,-9.6154,-13.462,-1.095,2.97,0.98522,-7.8205
2.7172,-5.5873,-8.6731,-2.9412,-0.98522,-1.2238,-5.8252,-13.657,2.8479,-2.9412,-0.98522,-5.9701,-5.7143,-6.7302,-5.5873,-6.7308,-11.53,0.83736,-1.7694,0.98522,-4.9359
-2.0221,-4.6349,-7.7023,-3.9216,-3.9409,-1.2238,-5.8252,0.90615,-0.06472,-3.9216,-3.9409,-7.9602,-3.8095,-3.873,-3.6825,-2.8846,-8.6312,8.5668,2.0221,4.9261,-0.12821
-6.7615,-0.8254,-5.7605,-4.902,-3.9409,-9.9195,-3.8835,16.440001,0.90615,-4.902,-3.9409,-6.9652,0.0,0.88889,-1.7778,2.8846,-2.8341,1.8035,2.97,5.9113,2.7564
-2.97,2.9841,-1.877,-1.9608,-1.9704,-7.0209,-0.97087,4.7896,-0.06472,-1.9608,-1.9704,-3.9801,1.9048,3.746,-0.8254,6.7308,1.0306,1.8035,6.7615,1.9704,4.6795
-9.6051,3.9365,-2.8479,-1.9608,-0.98522,-7.9871,-1.9417,-2.0065,-0.06472,-1.9608,-0.98522,-5.9701,5.7143,8.5079,-0.8254,9.6154,2.963,0.83736,13.397,1.9704,8.5256
-12.449,-0.8254,-8.6731,-5.8824,-0.98522,-12.818,-4.8544,-7.8317,1.877,-5.8824,-0.98522,-10.945,5.7143,8.5079,-4.6349,5.7692,-0.90177,-11.723,8.6572,-0.98522,7.5641
-13.397,-4.6349,-10.615,-2.9412,0.98522,-10.886,-4.8544,-2.0065,1.877,-2.9412,0.98522,-9.9502,3.8095,6.6032,-7.4921,1.9231,-3.8003,-15.588,3.9179,-5.9113,5.641
-6.7615,-1.7778,-6.7314,0.98039,5.9113,-4.1224,0.97087,-8.8026,2.8479,0.98039,5.9113,-3.9801,4.7619,7.5556,-5.5873,1.9231,-3.8003,-17.52,2.0221,-3.9409,6.6026
-1.0742,1.0794,-2.8479,6.8627,9.8522,0.70853,4.8544,-7.8317,6.7314,6.8627,9.8522,0.99502,4.7619,6.6032,-2.7302,0.0,-2.8341,-16.554001,0.12638,-2.9557,2.7564
-1.0742,2.9841,-0.90615,14.706,16.749001,0.70853,8.7379,10.615,10.615,14.706,16.749001,6.9652,4.7619,4.6984,-1.7778,-1.9231,-3.8003,-8.8245,2.0221,-0.98522,-0.12821
-2.97,3.9365,-2.8479,14.706,18.719,0.70853,10.68,10.615,13.528,14.706,18.719,7.9602,0.0,0.88889,-7.4921,-4.8077,-7.6651,-5.9259,2.0221,-7.8818,-2.0513
-10.553,2.0317,-4.7896,10.784,17.733999,-1.2238,10.68,3.8188,16.440001,10.784,17.733999,7.9602,-6.6667,-4.8254,-15.111,-8.6538,-13.462,-11.723,2.97,-14.778,-3.9744
-13.397,0.12698,-4.7896,8.8235,14.778,3.6071,9.7087,-6.8608,17.410999,8.8235,14.778,7.9602,-10.476,-7.6825,-17.016001,-9.6154,-14.428,-21.385,5.8136,-17.733999,-4.9359
-8.6572,0.12698,-2.8479,10.784,12.808,7.4718,7.767,-11.715,13.528,10.784,12.808,6.9652,-8.5714,-4.8254,-13.206,-7.6923,-9.5974,-22.351,7.7093,-15.764,-3.0128
-5.8136,0.12698,-0.90615,6.8627,7.8818,-1.2238,2.9126,-5.89,4.7896,6.8627,7.8818,2.9851,-3.8095,-1.0159,-6.5397,-1.9231,-2.8341,-10.757,7.7093,-12.808,0.83333
-5.8136,2.9841,2.9773,0.98039,6.8966,-6.0548,2.9126,-18.511,8.6731,0.98039,6.8966,1.99,-1.9048,1.8413,-2.7302,1.9231,1.0306,-11.723,7.7093,-10.837,3.7179
5.5608,8.6984,10.744,1.9608,6.8966,-4.1224,6.7961,-3.9482,13.528,1.9608,6.8966,3.9801,2.8571,5.6508,5.8413,7.6923,7.7939,-23.316999,11.501,-6.8966,8.5256
14.092,12.508,18.511,7.8431,9.8522,11.337,11.65,2.8479,11.586,7.8431,9.8522,12.935,6.6667,6.6032,14.413,10.577,13.591,-9.7907,13.397,0.98522,9.4872
7.4566,9.6508,15.599,12.745,11.823,11.337,8.7379,5.7605,8.6731,12.745,11.823,12.935,6.6667,5.6508,12.508,9.6154,12.625,10.499,6.7615,5.9113,7.5641
12.196,9.6508,13.657,11.765,8.867,16.167,8.7379,5.7605,4.7896,11.765,8.867,12.935,5.7143,3.746,11.556,9.6154,11.659,3.7359,4.8657,2.9557,6.6026
13.144,9.6508,14.628,11.765,7.8818,12.303,8.7379,-1.0356,2.8479,11.765,7.8818,11.94,4.7619,2.7937,11.556,10.577,12.625,-8.8245,2.97,0.0,5.641
2.7172,8.6984,12.686,9.8039,4.9261,6.5056,5.8252,-8.8026,-0.06472,9.8039,4.9261,7.9602,5.7143,4.6984,7.746,10.577,11.659,-7.8583,0.12638,-0.98522,6.6026
2.7172,4.8889,8.8026,9.8039,5.9113,7.4718,3.8835,7.7023,-2.0065,9.8039,5.9113,5.9701,4.7619,3.746,5.8413,7.6923,8.7601,6.6345,1.0742,-1.9704,6.6026
4.613,-2.7302,2.0065,7.8431,1.9704,3.6071,0.97087,16.440001,-4.9191,7.8431,1.9704,2.9851,0.95238,-0.06349,1.0794,0.96154,2.963,-2.0612,-3.6651,-1.9704,0.83333
-2.0221,-5.5873,-3.8188,9.8039,-0.98522,4.5733,-1.9417,4.7896,-3.9482,9.8039,-0.98522,0.0,-2.8571,-1.9683,-5.5873,-3.8462,-1.868,-10.757,-7.4566,-4.9261,-3.9744
7.4566,0.12698,2.0065,7.8431,0.0,11.337,0.97087,9.644,-0.06472,7.8431,0.0,2.9851,2.8571,1.8413,0.12698,0.0,1.9968,1.8035,-5.5608,0.0,-3.0128
-1.0742,1.0794,2.0065,3.9216,1.9704,-0.25765,2.9126,21.294001,-1.0356,3.9216,1.9704,0.99502,3.8095,1.8413,1.0794,0.96154,2.963,8.5668,-4.613,0.0,-3.0128
-3.9179,0.12698,2.0065,1.9608,0.98522,-1.2238,0.97087,14.498,-2.0065,1.9608,0.98522,0.0,0.95238,-1.9683,2.0317,-0.96154,1.9968,6.6345,-1.7694,-0.98522,-4.9359
20.726999,3.9365,8.8026,1.9608,2.9557,11.337,5.8252,18.382,1.877,1.9608,2.9557,5.9701,1.9048,-1.0159,10.603,1.9231,6.8277,14.364,-1.7694,1.9704,-4.9359
13.144,5.8413,8.8026,1.9608,6.8966,16.167,9.7087,-5.89,5.7605,1.9608,6.8966,9.9502,0.0,-1.0159,6.7937,1.9231,4.8953,17.261999,3.9179,0.0,-3.0128
11.248,5.8413,5.89,5.8824,11.823,12.303,13.592,-4.9191,9.644,5.8824,11.823,11.94,-1.9048,-0.06349,1.0794,0.96154,0.06441,3.7359,9.6051,-1.9704,0.83333
-3.9179,-2.7302,-7.7023,3.9216,5.9113,3.6071,2.9126,-0.06472,6.7314,3.9216,5.9113,1.99,-9.5238,-4.8254,-12.254,-6.7308,-11.53,-0.12882,6.7615,-9.8522,-3.0128
-16.24,-10.349,-18.382,0.98039,3.9409,-7.0209,-8.7379,10.615,3.8188,0.98039,3.9409,-6.9652,-15.238,-8.6349,-19.872999,-12.5,-20.225,-0.12882,3.9179,-14.778,-4.9359
-17.188,-13.206,-21.294001,0.0,1.9704,-10.886,-11.65,17.410999,2.8479,0.0,1.9704,-9.9502,-18.094999,-12.444,-21.778,-15.385,-23.124001,-4.9597,-0.82148,-14.778,-6.859
-14.344,-10.349,-15.469,1.9608,0.0,-8.9533,-5.8252,8.6731,2.8479,1.9608,0.0,-6.9652,-15.238,-10.54,-17.016001,-12.5,-19.259001,-3.0274,0.12638,-5.9113,-3.9744
-5.8136,-8.4444,-8.6731,0.0,-0.98522,-2.19,-2.9126,-1.0356,1.877,0.0,-0.98522,-2.9851,-12.381,-8.6349,-9.3968,-7.6923,-12.496,-0.12882,1.0742,-0.98522,-2.0513
5.5608,-8.4444,-5.7605,0.0,0.0,3.6071,-5.8252,-4.9191,-2.9773,0.0,0.0,-2.9851,-9.5238,-7.6825,-0.8254,-5.7692,-6.6989,-3.0274,-1.7694,1.9704,-2.0513
5.5608,-7.4921,-4.7896,-0.98039,-0.98522,0.70853,-7.767,5.7605,-6.8608,-0.98039,-0.98522,-3.9801,-4.7619,-4.8254,3.9365,-1.9231,-1.868,12.432,-7.4566,7.8818,-1.0897
4.613,-2.7302,-1.877,-4.902,-2.9557,-6.0548,-7.767,9.644,-5.89,-4.902,-2.9557,-5.9701,1.9048,-0.06349,7.746,2.8846,4.8953,22.093,-8.4044,14.778,0.83333
-0.12638,-0.8254,-1.877,-3.9216,-0.98522,-5.0886,-4.8544,-2.9773,-5.89,-3.9216,-0.98522,-3.9801,5.7143,1.8413,7.746,3.8462,7.7939,11.465,-6.5087,14.778,1.7949
-2.0221,-4.6349,-3.8188,-11.765,-7.8818,-4.1224,-6.7961,-16.57,-9.7735,-11.765,-7.8818,-4.9751,5.7143,1.8413,5.8413,0.96154,5.8615,8.5668,-7.4566,10.837,-1.0897
14.092,-1.7778,3.9482,-4.902,-3.9409,0.70853,-1.9417,-2.0065,-7.8317,-4.902,-3.9409,-0.99502,11.429,5.6508,14.413,1.9231,9.7262,2.7697,-6.5087,16.749001,-2.0513
12.196,1.0794,7.8317,-4.902,-0.98522,1.6747,1.9417,1.877,-4.9191,-4.902,-0.98522,0.0,14.286,7.5556,16.316999,3.8462,12.625,-5.9259,-6.5087,18.719,-1.0897
4.613,3.9365,7.8317,-7.8431,0.0,-4.1224,4.8544,-4.9191,-2.9773,-7.8431,0.0,-0.99502,14.286,9.4603,14.413,6.7308,13.591,9.533,-2.7172,17.733999,2.7564
6.5087,4.8889,4.9191,-9.8039,-2.9557,-2.19,1.9417,-3.9482,0.90615,-9.8039,-2.9557,-1.99,12.381,8.5079,12.508,6.7308,11.659,9.533,2.0221,13.793,4.6795
-2.97,0.12698,-0.90615,-6.8627,-5.9113,-4.1224,-3.8835,4.7896,-4.9191,-6.8627,-5.9113,-4.9751,4.7619,2.7937,3.9365,1.9231,4.8953,-3.9936,2.0221,5.9113,-1.0897
-11.501,-4.6349,-4.7896,-0.98039,-4.9261,-4.1224,-5.8252,8.6731,-3.9482,-0.98039,-4.9261,-4.9751,-3.8095,-2.9206,-7.4921,-5.7692,-4.7665,9.533,3.9179,-2.9557,-5.8974
-0.12638,-3.6825,-4.7896,0.0,-3.9409,5.5395,-3.8835,-18.511,-0.06472,0.0,-3.9409,-2.9851,-5.7143,-3.873,-8.4444,-5.7692,-7.6651,-2.0612,7.7093,-5.9113,-3.9744
-16.24,-5.5873,-13.528,-9.8039,-12.808,-9.9195,-10.68,-4.9191,-5.89,-9.8039,-12.808,-13.93,-9.5238,-3.873,-15.111,-5.7692,-11.53,-0.12882,3.9179,-10.837,-0.12821
-16.24,-4.6349,-15.469,-15.686,-14.778,-22.48,-13.592,10.615,-8.8026,-15.686,-14.778,-19.9,-8.5714,-1.0159,-13.206,-3.8462,-11.53,-4.9597,-1.7694,-7.8818,3.7179
-9.6051,-2.7302,-12.557,-11.765,-14.778,-14.75,-12.621,4.7896,-9.7735,-11.765,-14.778,-17.91,-4.7619,1.8413,-7.4921,-0.96154,-7.6651,0.83736,-5.5608,0.98522,6.6026
-2.97,-2.7302,-7.7023,-10.784,-14.778,-7.0209,-9.7087,-6.8608,-8.8026,-10.784,-14.778,-13.93,-0.95238,5.6508,-2.7302,1.9231,-3.8003,11.465,-0.82148,1.9704,8.5256
4.613,-3.6825,-3.8188,-9.8039,-12.808,-5.0886,-10.68,-14.628,-10.744,-9.8039,-12.808,-10.945,2.8571,10.413,1.0794,5.7692,1.0306,-1.095,2.97,1.9704,11.41
6.5087,-1.7778,0.06472,-8.8235,-11.823,-3.1562,-10.68,0.90615,-11.715,-8.8235,-11.823,-8.9552,8.5714,16.127001,8.6984,11.538,8.7601,-6.8921,-3.6651,7.8818,12.372
7.4566,3.9365,6.8608,-4.902,-8.867,2.6409,-5.8252,5.7605,-9.7735,-4.902,-8.867,-2.9851,19.048,23.746,18.222,18.268999,19.388,21.127001,-4.613,19.704,14.295
15.987,6.7937,10.744,-6.8627,-10.837,3.6071,-5.8252,0.90615,-14.628,-6.8627,-10.837,-0.99502,24.761999,25.650999,24.889,20.191999,25.184999,18.229,-10.3,26.601,13.333
13.144,9.6508,13.657,-2.9412,-7.8818,-0.25765,0.97087,9.644,-15.599,-2.9412,-7.8818,1.99,29.524,26.603001,25.841,21.153999,27.118,24.025999,-14.092,31.527,11.41
15.039,7.746,12.686,0.0,-6.8966,2.6409,2.9126,0.90615,-12.686,0.0,-6.8966,2.9851,28.570999,24.698,22.983999,18.268999,24.219,22.093,-8.4044,26.601,8.5256
8.4044,0.12698,6.8608,0.98039,-7.8818,4.5733,-2.9126,5.7605,-12.686,0.98039,-7.8818,1.99,22.857,19.937,14.413,11.538,17.455999,6.6345,-9.3523,15.764,4.6795
2.7172,-5.5873,3.9482,0.0,-7.8818,5.5395,-5.8252,16.440001,-11.715,0.0,-7.8818,0.99502,19.048,18.032,11.556,7.6923,13.591,9.533,-12.196,11.823,3.7179
3.6651,-8.4444,2.9773,0.98039,-4.9261,7.4718,-5.8252,2.8479,-12.686,0.98039,-4.9261,1.99,17.143,15.175,9.6508,3.8462,11.659,-3.9936,-11.248,7.8818,0.83333
4.613,-9.3968,2.9773,6.8627,-1.9704,6.5056,-3.8835,-2.9773,-10.744,6.8627,-1.9704,3.9801,14.286,13.27,8.6984,0.96154,8.7601,-3.0274,-8.4044,6.8966,-1.0897
-12.449,-11.302,-3.8188,5.8824,-3.9409,-7.9871,-5.8252,5.7605,-9.7735,5.8824,-3.9409,-1.99,5.7143,5.6508,-3.6825,-5.7692,-0.90177,4.7021,-12.196,-4.9261,-2.0513
-13.397,-9.3968,-5.7605,-0.98039,-5.9113,-9.9195,-6.7961,-3.9482,-5.89,-0.98039,-5.9113,-3.9801,-0.95238,-1.0159,-7.4921,-9.6154,-6.6989,0.83736,-5.5608,-9.8522,-3.0128
-8.6572,-9.3968,-6.7314,-5.8824,-6.8966,-7.0209,-7.767,-3.9482,-3.9482,-5.8824,-6.8966,-4.9751,-6.6667,-6.7302,-10.349,-11.538,-11.53,-7.8583,0.12638,-10.837,-5.8974
-2.0221,-10.349,-8.6731,-3.9216,-4.9261,-0.25765,-8.7379,-9.7735,-1.0356,-3.9216,-4.9261,-2.9851,-11.429,-10.54,-11.302,-12.5,-14.428,-22.351,1.0742,-10.837,-6.859
8.4044,-11.302,-11.586,-1.9608,-2.9557,3.6071,-7.767,-20.452999,2.8479,-1.9608,-2.9557,-3.9801,-15.238,-13.397,-13.206,-14.423,-17.327,-29.114,-0.82148,-10.837,-7.8205
-15.292,-17.016001,-23.236,-7.8431,-6.8966,-11.852,-12.621,-3.9482,-3.9482,-7.8431,-6.8966,-13.93,-20.952,-18.159,-24.635,-19.231001,-25.056,5.6683,-5.5608,-11.823,-9.7436
-36.145,-21.778,-30.032,-14.706,-8.867,-25.378,-18.447001,-5.89,-6.8608,-14.706,-8.867,-22.886,-23.809999,-21.016001,-32.254002,-22.115,-29.886999,10.499,-6.5087,-13.793,-9.7436
-23.823,-19.872999,-24.207001,-14.706,-9.8522,-18.615,-18.447001,-15.599,-7.8317,-14.706,-9.8522,-19.9,-21.905001,-20.063,-27.492001,-21.153999,-26.989,-6.8921,-4.613,-12.808,-8.7821
-13.397,-11.302,-15.469,-12.745,-9.8522,-18.615,-14.563,-6.8608,-2.9773,-12.745,-9.8522,-15.92,-14.286,-14.349,-17.016001,-12.5,-18.292999,-5.9259,-1.7694,-8.867,-4.9359
-2.0221,-5.5873,-7.7023,-8.8235,-7.8818,-12.818,-10.68,-4.9191,-0.06472,-8.8235,-7.8818,-10.945,-8.5714,-9.5873,-6.5397,-5.7692,-8.6312,-1.095,1.0742,-4.9261,-3.9744
1.7694,-6.5397,-5.7605,-9.8039,-9.8522,-5.0886,-11.65,-6.8608,-3.9482,-9.8039,-9.8522,-9.9502,-3.8095,-6.7302,0.12698,-3.8462,-2.8341,8.5668,-3.6651,0.0,-4.9359
5.5608,-5.5873,-1.877,-7.8431,-10.837,0.70853,-7.767,-11.715,-3.9482,-7.8431,-10.837,-5.9701,0.95238,-2.9206,3.9365,-1.9231,0.06441,10.499,-5.5608,4.9261,-3.0128
9.3523,-2.7302,2.0065,-7.8431,-7.8818,5.5395,-1.9417,-18.511,0.90615,-7.8431,-7.8818,-1.99,1.9048,-1.9683,4.8889,-0.96154,2.963,-5.9259,-1.7694,0.0,-2.0513
8.4044,3.9365,7.8317,-2.9412,0.98522,0.70853,4.8544,-1.0356,4.7896,-2.9412,0.98522,3.9801,2.8571,-0.06349,4.8889,3.8462,5.8615,-15.588,2.0221,-2.9557,1.7949
3.6651,11.556,12.686,-1.9608,2.9557,-1.2238,9.7087,5.7605,6.7314,-1.9608,2.9557,7.9602,5.7143,1.8413,5.8413,8.6538,10.692,-10.757,8.6572,-0.98522,5.641
-0.12638,14.413,14.628,1.9608,4.9261,2.6409,13.592,-2.9773,6.7314,1.9608,4.9261,11.94,8.5714,3.746,6.7937,9.6154,11.659,-11.723,9.6051,0.0,5.641
-3.9179,13.46,12.686,1.9608,2.9557,2.6409,12.621,-7.8317,6.7314,1.9608,2.9557,10.945,8.5714,3.746,3.9365,8.6538,10.692,-2.0612,5.8136,-0.98522,5.641
-1.0742,14.413,11.715,0.0,3.9409,3.6071,13.592,-14.628,5.7605,0.0,3.9409,8.9552,9.5238,4.6984,2.9841,9.6154,8.7601,-4.9597,9.6051,-0.98522,6.6026
-8.6572,11.556,7.8317,-8.8235,1.9704,-5.0886,8.7379,-14.628,0.90615,-8.8235,1.9704,3.9801,6.6667,3.746,-2.7302,6.7308,4.8953,-10.757,4.8657,-2.9557,3.7179
-20.032,6.7937,2.0065,-7.8431,0.98522,-9.9195,4.8544,-10.744,5.7605,-7.8431,0.98522,0.99502,2.8571,0.88889,-11.302,0.96154,-2.8341,-11.723,5.8136,-5.9113,1.7949
-17.188,0.12698,-4.7896,-7.8431,-1.9704,-8.9533,0.97087,-11.715,6.7314,-7.8431,-1.9704,-3.9801,-3.8095,-4.8254,-16.063,-5.7692,-11.53,-13.655,2.97,-8.867,-3.9744
-13.397,-3.6825,-8.6731,-6.8627,-5.9113,-5.0886,-2.9126,-8.8026,1.877,-6.8627,-5.9113,-6.9652,-7.619,-9.5873,-17.016001,-10.577,-15.395,-6.8921,-4.613,-6.8966,-9.7436
-10.553,-4.6349,-10.615,-3.9216,-2.9557,-7.9871,-1.9417,-5.89,2.8479,-3.9216,-2.9557,-8.9552,-10.476,-12.444,-15.111,-11.538,-16.361,2.7697,-1.7694,-4.9261,-8.7821
-4.8657,-3.6825,-8.6731,-1.9608,-1.9704,-6.0548,-1.9417,2.8479,2.8479,-1.9608,-1.9704,-7.9602,-13.333,-14.349,-12.254,-11.538,-15.395,2.7697,3.9179,-1.9704,-7.8205
-1.0742,-2.7302,-7.7023,0.0,1.9704,-5.0886,0.97087,8.6731,5.7605,0.0,1.9704,-4.9751,-16.190001,-16.254,-11.302,-11.538,-14.428,1.8035,3.9179,-4.9261,-8.7821
12.196,-1.7778,-4.7896,1.9608,2.9557,5.5395,0.97087,3.8188,6.7314,1.9608,2.9557,-1.99,-17.143,-17.205999,-6.5397,-10.577,-12.496,7.6006,-2.7172,-5.9113,-9.7436
4.613,-4.6349,-7.7023,2.9412,1.9704,5.5395,0.0,13.528,3.8188,2.9412,1.9704,-1.99,-18.094999,-17.205999,-6.5397,-10.577,-12.496,16.296,-2.7172,-4.9261,-9.7436
-1.0742,-5.5873,-10.615,1.9608,-0.98522,1.6747,-1.9417,9.644,1.877,1.9608,-0.98522,-3.9801,-15.238,-14.349,-4.6349,-8.6538,-11.53,8.5668,-0.82148,-2.9557,-6.859
1.7694,-4.6349,-9.644,-1.9608,-2.9557,1.6747,-1.9417,-1.0356,-2.0065,-1.9608,-2.9557,-5.9701,-12.381,-9.5873,-2.7302,-4.8077,-8.6312,-7.8583,-1.7694,0.98522,-2.0513
4.613,2.0317,-2.8479,-2.9412,-1.9704,3.6071,1.9417,-2.9773,0.90615,-2.9412,-1.9704,-1.99,-5.7143,-2.9206,2.9841,2.8846,0.06441,3.7359,3.9179,2.9557,4.6795
9.3523,3.9365,3.9482,0.98039,1.9704,6.5056,3.8835,-4.9191,0.90615,0.98039,1.9704,2.9851,0.0,1.8413,9.6508,8.6538,6.8277,8.5668,4.8657,1.9704,7.5641
13.144,3.9365,7.8317,3.9216,1.9704,7.4718,1.9417,6.7314,-1.0356,3.9216,1.9704,4.9751,5.7143,6.6032,15.365,10.577,12.625,4.7021,-0.82148,6.8966,7.5641
14.092,4.8889,10.744,3.9216,0.0,8.438,3.8835,2.8479,-3.9482,3.9216,0.0,7.9602,9.5238,8.5079,18.222,11.538,15.523,3.7359,-2.7172,10.837,5.641
3.6651,5.8413,10.744,0.0,0.0,0.70853,3.8835,5.7605,-3.9482,0.0,0.0,6.9652,10.476,9.4603,15.365,11.538,14.557,-7.8583,0.12638,7.8818,6.6026
1.7694,12.508,13.657,1.9608,3.9409,1.6747,10.68,4.7896,1.877,1.9608,3.9409,11.94,11.429,12.317,13.46,15.385,16.49,-15.588,4.8657,4.9261,10.449
15.987,16.316999,19.482,5.8824,8.867,17.134001,18.447001,-8.8026,6.7314,5.8824,8.867,20.896,10.476,11.365,15.365,17.308001,17.455999,-3.0274,8.6572,-0.98522,12.372
6.5087,17.27,18.511,10.784,13.793,17.134001,21.358999,-2.0065,11.586,10.784,13.793,22.886,5.7143,7.5556,8.6984,14.423,12.625,3.7359,8.6572,-8.867,8.5256
9.3523,17.27,19.482,10.784,17.733999,16.167,24.271999,1.877,18.382,10.784,17.733999,24.875999,1.9048,4.6984,6.7937,12.5,10.692,-9.7907,14.344,-8.867,6.6026
6.5087,16.316999,17.540001,11.765,18.719,13.269,24.271999,6.7314,19.353001,11.765,18.719,23.881001,-1.9048,-0.06349,4.8889,7.6923,7.7939,-3.0274,15.292,-9.8522,2.7564
6.5087,13.46,16.57,12.745,16.749001,18.1,21.358999,-1.0356,17.410999,12.745,16.749001,22.886,-3.8095,-3.873,3.9365,3.8462,4.8953,3.7359,14.344,-7.8818,-1.0897
5.5608,9.6508,11.715,11.765,10.837,11.337,16.504999,2.8479,13.528,11.765,10.837,16.915001,-5.7143,-5.7778,2.9841,1.9231,1.9968,-9.7907,12.449,-7.8818,-0.12821
6.5087,6.7937,8.8026,9.8039,7.8818,5.5395,12.621,3.8188,8.6731,9.8039,7.8818,12.935,-7.619,-6.7302,2.0317,-0.96154,-0.90177,-4.9597,12.449,-5.9113,-0.12821
4.613,5.8413,6.8608,4.902,3.9409,5.5395,6.7961,2.8479,5.7605,4.902,3.9409,9.9502,-5.7143,-5.7778,2.0317,-0.96154,-1.868,11.465,8.6572,-1.9704,-1.0897
6.5087,4.8889,6.8608,2.9412,0.98522,10.37,4.8544,3.8188,0.90615,2.9412,0.98522,7.9602,-2.8571,-2.9206,3.9365,0.0,0.06441,5.6683,1.0742,0.98522,1.7949
-2.97,-2.7302,-2.8479,-4.902,-4.9261,-1.2238,-5.8252,6.7314,-2.0065,-4.902,-4.9261,-2.9851,-2.8571,-4.8254,-0.8254,-4.8077,-4.7665,1.8035,-5.5608,0.0,-3.0128
-1.0742,-6.5397,-5.7605,-4.902,-2.9557,-4.1224,-8.7379,15.469,-2.0065,-4.902,-2.9557,-6.9652,-1.9048,-2.9206,-0.8254,-6.7308,-5.7327,12.432,-5.5608,2.9557,-4.9359
10.3,-5.5873,-3.8188,0.0,-1.9704,0.70853,-4.8544,2.8479,-1.0356,0.0,-1.9704,-3.9801,0.0,-1.9683,1.0794,-6.7308,-5.7327,6.6345,-1.7694,6.8966,-5.8974
-2.0221,-1.7778,-3.8188,2.9412,1.9704,-3.1562,-0.97087,5.7605,0.90615,2.9412,1.9704,-1.99,-1.9048,-2.9206,-3.6825,-5.7692,-6.6989,7.6006,0.12638,1.9704,-5.8974
-2.97,5.8413,2.9773,3.9216,5.9113,3.6071,7.767,-2.0065,4.7896,3.9216,5.9113,4.9751,-1.9048,0.88889,-2.7302,0.0,-2.8341,1.8035,2.97,-1.9704,-0.12821
-2.97,5.8413,1.0356,1.9608,4.9261,3.6071,7.767,-1.0356,3.8188,1.9608,4.9261,4.9751,-5.7143,-1.0159,-6.5397,-0.96154,-3.8003,-5.9259,2.0221,-7.8818,-2.0513
-6.7615,2.0317,-0.90615,3.9216,2.9557,2.6409,3.8835,10.615,-2.0065,3.9216,2.9557,2.9851,-6.6667,-2.9206,-8.4444,-2.8846,-4.7665,-1.095,2.0221,-8.867,-4.9359
-2.0221,2.0317,2.0065,10.784,6.8966,3.6071,4.8544,10.615,0.90615,10.784,6.8966,4.9751,-3.8095,-0.06349,-3.6825,-0.96154,-1.868,1.8035,0.12638,-5.9113,-2.0513
0.82148,1.0794,2.0065,10.784,2.9557,3.6071,2.9126,-5.89,-0.06472,10.784,2.9557,3.9801,-1.9048,0.88889,-0.8254,0.0,0.06441,-6.8921,-7.4566,-7.8818,-0.12821
-0.12638,2.0317,2.0065,3.9216,-1.9704,1.6747,1.9417,2.8479,-1.0356,3.9216,-1.9704,0.99502,0.95238,3.746,1.0794,2.8846,2.963,-8.8245,-3.6651,-6.8966,2.7564
-1.0742,2.9841,2.0065,2.9412,0.98522,-1.2238,0.97087,6.7314,1.877,2.9412,0.98522,0.0,3.8095,7.5556,3.9365,5.7692,6.8277,-12.689,4.8657,-0.98522,5.641
-2.0221,0.12698,1.0356,1.9608,0.98522,0.70853,-0.97087,3.8188,2.8479,1.9608,0.98522,-0.99502,4.7619,8.5079,2.9841,5.7692,5.8615,-12.689,10.553,-1.9704,8.5256
2.7172,-0.8254,2.0065,0.0,0.98522,-1.2238,0.97087,-4.9191,1.877,0.0,0.98522,0.0,5.7143,7.5556,2.9841,3.8462,5.8615,-3.9936,7.7093,-1.9704,6.6026
-2.0221,-0.8254,1.0356,0.98039,0.0,-3.1562,3.8835,-2.9773,1.877,0.98039,0.0,0.99502,4.7619,5.6508,1.0794,0.96154,2.963,-7.8583,2.0221,0.0,5.641
-3.9179,-1.7778,-0.90615,0.98039,3.9409,-1.2238,2.9126,-0.06472,2.8479,0.98039,3.9409,1.99,2.8571,3.746,-2.7302,-0.96154,-0.90177,-19.452,-0.82148,-0.98522,2.7564
1.7694,-0.8254,0.06472,2.9412,2.9557,3.6071,0.97087,-0.06472,1.877,2.9412,2.9557,3.9801,3.8095,3.746,-2.7302,0.0,0.06441,-8.8245,0.12638,4.9261,1.7949
-1.0742,-1.7778,-0.90615,2.9412,-1.9704,-0.25765,-3.8835,-0.06472,-4.9191,2.9412,-1.9704,-1.99,3.8095,3.746,-4.6349,0.96154,0.06441,-0.12882,-6.5087,3.9409,-0.12821
-3.9179,-4.6349,-1.877,3.9216,-4.9261,-3.1562,-8.7379,14.498,-11.715,3.9216,-4.9261,-3.9801,1.9048,1.8413,-4.6349,0.0,0.06441,6.6345,-14.092,1.9704,-1.0897
3.6651,-3.6825,3.9482,10.784,-0.98522,11.337,-3.8835,13.528,-11.715,10.784,-0.98522,2.9851,2.8571,2.7937,0.12698,0.0,2.963,17.261999,-12.196,4.9261,-3.0128
7.4566,-2.7302,5.89,16.667,1.9704,11.337,-0.97087,21.294001,-8.8026,16.667,1.9704,6.9652,3.8095,3.746,3.9365,1.9231,4.8953,26.924,-9.3523,6.8966,-4.9359
15.987,0.12698,5.89,17.646999,5.9113,10.37,2.9126,20.323999,-5.89,17.646999,5.9113,7.9602,3.8095,2.7937,4.8889,1.9231,3.9291,18.229,-6.5087,6.8966,-4.9359
4.613,0.12698,1.0356,9.8039,3.9409,5.5395,0.97087,8.6731,-4.9191,9.8039,3.9409,3.9801,-0.95238,-1.9683,-0.8254,-1.9231,-0.90177,3.7359,-2.7172,1.9704,-6.859
1.7694,2.0317,1.0356,3.9216,1.9704,4.5733,0.0,8.6731,-3.9482,3.9216,1.9704,1.99,-3.8095,-4.8254,-0.8254,-1.9231,-1.868,-2.0612,-1.7694,0.0,-5.8974
-0.12638,-0.8254,-2.8479,0.98039,-2.9557,-0.25765,-4.8544,3.8188,-4.9191,0.98039,-2.9557,-1.99,-6.6667,-9.5873,-2.7302,-5.7692,-5.7327,10.499,-10.3,-3.9409,-10.705
1.7694,-5.5873,-5.7605,0.0,-1.9704,-1.2238,-5.8252,-1.0356,-2.9773,0.0,-1.9704,-3.9801,-6.6667,-9.5873,-1.7778,-6.7308,-6.6989,12.432,-5.5608,-1.9704,-5.8974
4.613,-11.302,-9.644,0.98039,2.9557,2.6409,-3.8835,-1.0356,1.877,0.98039,2.9557,-2.9851,-5.7143,-9.5873,-1.7778,-8.6538,-8.6312,-0.12882,1.0742,-0.98522,-3.0128
0.82148,-13.206,-12.557,0.98039,3.9409,-0.25765,-1.9417,2.8479,5.7605,0.98039,3.9409,-1.99,-4.7619,-8.6349,-4.6349,-10.577,-9.5974,-6.8921,0.12638,-0.98522,-4.9359
-14.344,-10.349,-11.586,-0.98039,5.9113,-5.0886,0.0,1.877,7.7023,-0.98039,5.9113,-1.99,-4.7619,-8.6349,-9.3968,-10.577,-10.564,-9.7907,2.0221,-1.9704,-4.9359
-18.136,-8.4444,-10.615,-3.9216,1.9704,-7.9871,-0.97087,-6.8608,6.7314,-3.9216,1.9704,-3.9801,-6.6667,-11.492,-11.302,-13.462,-10.564,2.7697,0.12638,-4.9261,-5.8974
-8.6572,-3.6825,-2.8479,-0.98039,2.9557,-4.1224,0.0,2.8479,1.877,-0.98039,2.9557,-0.99502,-7.619,-10.54,-6.5397,-11.538,-7.6651,5.6683,1.0742,-4.9261,-4.9359
-2.0221,0.12698,2.0065,-3.9216,1.9704,-0.25765,0.97087,-3.9482,1.877,-3.9216,1.9704,0.99502,-5.7143,-10.54,-2.7302,-8.6538,-4.7665,-5.9259,-0.82148,-5.9113,-3.0128
0.82148,5.8413,5.89,-3.9216,3.9409,-1.2238,6.7961,-4.9191,5.7605,-3.9216,3.9409,1.99,-0.95238,-5.7778,2.0317,-0.96154,1.9968,-3.0274,1.0742,-1.9704,-0.12821
15.039,12.508,12.686,3.9216,8.867,7.4718,10.68,-2.9773,11.586,3.9216,8.867,6.9652,5.7143,0.88889,12.508,7.6923,11.659,-6.8921,7.7093,5.9113,3.7179
14.092,11.556,10.744,2.9412,6.8966,4.5733,8.7379,2.8479,11.586,2.9412,6.8966,4.9751,7.619,1.8413,15.365,10.577,13.591,5.6683,6.7615,9.8522,1.7949
15.039,6.7937,8.8026,-2.9412,0.98522,8.438,2.9126,-7.8317,2.8479,-2.9412,0.98522,1.99,8.5714,2.7937,17.27,9.6154,13.591,4.7021,1.0742,14.778,0.83333
14.092,3.9365,8.8026,0.98039,2.9557,4.5733,1.9417,-2.0065,-2.0065,0.98039,2.9557,2.9851,8.5714,3.746,18.222,8.6538,12.625,14.364,2.97,15.764,1.7949
15.987,3.9365,10.744,0.98039,3.9409,3.6071,2.9126,-2.0065,2.8479,0.98039,3.9409,4.9751,7.619,2.7937,16.316999,8.6538,12.625,3.7359,2.0221,11.823,1.7949
19.778999,6.7937,12.686,0.98039,6.8966,3.6071,4.8544,-4.9191,5.7605,0.98039,6.8966,5.9701,9.5238,5.6508,16.316999,11.538,13.591,2.7697,4.8657,10.837,4.6795
1.7694,8.6984,8.8026,3.9216,7.8818,-0.25765,2.9126,-2.0065,5.7605,3.9216,7.8818,3.9801,10.476,7.5556,12.508,14.423,13.591,9.533,7.7093,9.8522,4.6795
2.7172,9.6508,9.7735,7.8431,6.8966,5.5395,1.9417,-2.9773,1.877,7.8431,6.8966,3.9801,13.333,11.365,16.316999,18.268999,17.455999,8.5668,6.7615,13.793,7.5641
7.4566,8.6984,9.7735,8.8235,4.9261,4.5733,1.9417,4.7896,-2.9773,8.8235,4.9261,2.9851,17.143,13.27,20.127001,19.231001,19.388,0.83736,2.0221,16.749001,9.4872
8.4044,7.746,9.7735,5.8824,0.98522,2.6409,0.0,8.6731,-5.89,5.8824,0.98522,2.9851,18.094999,14.222,20.127001,19.231001,18.422001,-4.9597,-4.613,16.749001,12.372
12.196,6.7937,9.7735,8.8235,1.9704,6.5056,0.0,4.7896,-6.8608,8.8235,1.9704,3.9801,19.048,16.127001,19.174999,18.268999,17.455999,8.5668,2.0221,12.808,14.295
2.7172,2.9841,4.9191,4.902,0.98522,-2.19,-1.9417,3.8188,-6.8608,4.902,0.98522,0.99502,16.190001,15.175,12.508,12.5,11.659,2.7697,2.0221,7.8818,13.333
-0.12638,0.12698,1.0356,3.9216,6.8966,-5.0886,0.0,-8.8026,8.6731,3.9216,6.8966,0.0,12.381,10.413,5.8413,5.7692,4.8953,-5.9259,2.97,5.9113,10.449
-8.6572,0.12698,-3.8188,1.9608,6.8966,-8.9533,0.0,-8.8026,14.498,1.9608,6.8966,-2.9851,6.6667,5.6508,-0.8254,0.0,0.06441,-6.8921,2.97,1.9704,5.641
-3.9179,2.0317,-0.90615,-0.98039,4.9261,-1.2238,-0.97087,-24.337,8.6731,-0.98039,4.9261,-2.9851,8.5714,5.6508,2.0317,0.96154,1.9968,-3.9936,2.97,4.9261,5.641
4.613,6.7937,3.9482,0.98039,3.9409,6.5056,0.97087,-18.511,7.7023,0.98039,3.9409,0.99502,11.429,7.5556,7.746,5.7692,7.7939,-9.7907,5.8136,7.8818,8.5256
3.6651,8.6984,5.89,4.902,0.98522,0.70853,0.97087,2.8479,3.8188,4.902,0.98522,-0.99502,13.333,9.4603,8.6984,9.6154,10.692,-4.9597,5.8136,9.8522,9.4872
5.5608,5.8413,3.9482,2.9412,-2.9557,-0.25765,-2.9126,13.528,2.8479,2.9412,-2.9557,-1.99,14.286,10.413,6.7937,8.6538,8.7601,11.465,-1.7694,12.808,8.5256
5.5608,-2.7302,2.0065,-2.9412,-4.9261,-4.1224,-6.7961,6.7314,-3.9482,-2.9412,-4.9261,-4.9751,13.333,9.4603,2.0317,3.8462,4.8953,4.7021,-6.5087,9.8522,3.7179
-2.97,-10.349,-0.90615,-7.8431,-8.867,-6.0548,-10.68,-5.89,-8.8026,-7.8431,-8.867,-6.9652,12.381,9.4603,-2.7302,0.0,1.9968,0.83736,-10.3,4.9261,1.7949
-12.449,-13.206,-6.7314,-8.8235,-11.823,-8.9533,-12.621,-8.8026,-10.744,-8.8235,-11.823,-11.94,11.429,11.365,-8.4444,-0.96154,-1.868,-2.0612,-6.5087,1.9704,4.6795
-14.344,-16.063,-12.557,-14.706,-15.764,-12.818,-14.563,-21.424,-8.8026,-14.706,-15.764,-15.92,6.6667,9.4603,-13.206,-3.8462,-6.6989,-5.9259,-4.613,-0.98522,3.7179
-17.188,-17.016001,-17.410999,-12.745,-13.793,-13.784,-15.534,-17.540001,-7.8317,-12.745,-13.793,-15.92,4.7619,5.6508,-17.016001,-7.6923,-10.564,-7.8583,-4.613,-1.9704,-0.12821
-23.823,-15.111,-19.353001,-11.765,-11.823,-18.615,-13.592,-0.06472,-7.8317,-11.765,-11.823,-14.925,-1.9048,-1.0159,-20.825001,-11.538,-15.395,-5.9259,-7.4566,-10.837,-3.9744
-20.032,-11.302,-14.498,-9.8039,-9.8522,-11.852,-6.7961,-1.0356,-5.89,-9.8039,-9.8522,-9.9502,-2.8571,-2.9206,-17.968,-11.538,-13.462,8.5668,-7.4566,-9.8522,-8.7821
-7.7093,-4.6349,-5.7605,-7.8431,-6.8966,-5.0886,-1.9417,1.877,-4.9191,-7.8431,-6.8966,-4.9751,0.0,-1.9683,-9.3968,-7.6923,-6.6989,-2.0612,-7.4566,-4.9261,-5.8974
3.6651,1.0794,3.9482,-6.8627,-4.9261,-1.2238,2.9126,1.877,-0.06472,-6.8627,-4.9261,0.99502,3.8095,0.88889,1.0794,-1.9231,1.0306,-0.12882,-1.7694,-0.98522,-2.0513
14.092,4.8889,12.686,-6.8627,-1.9704,5.5395,8.7379,-0.06472,2.8479,-6.8627,-1.9704,6.9652,9.5238,5.6508,11.556,4.8077,8.7601,5.6683,2.97,6.8966,2.7564
15.987,11.556,19.482,-7.8431,0.98522,12.303,14.563,-9.7735,7.7023,-7.8431,0.98522,11.94,10.476,8.5079,15.365,10.577,12.625,-6.8921,2.0221,7.8818,7.5641
13.144,21.079,21.424,-6.8627,1.9704,10.37,16.504999,-3.9482,11.586,-6.8627,1.9704,11.94,9.5238,11.365,12.508,17.308001,16.49,-10.757,5.8136,1.9704,13.333
8.4044,22.983999,18.511,-7.8431,-0.98522,5.5395,11.65,-2.9773,11.586,-7.8431,-0.98522,6.9652,7.619,11.365,9.6508,20.191999,16.49,2.7697,11.501,0.0,16.218
14.092,22.032,16.57,-6.8627,-0.98522,9.4042,8.7379,-9.7735,9.644,-6.8627,-0.98522,6.9652,6.6667,11.365,10.603,20.191999,16.49,-3.9936,14.344,3.9409,15.256
15.039,19.174999,13.657,-6.8627,-6.8966,3.6071,3.8835,-4.9191,3.8188,-6.8627,-6.8966,3.9801,5.7143,9.4603,9.6508,17.308001,13.591,-1.095,10.553,5.9113,13.333
7.4566,15.365,9.7735,-6.8627,-7.8818,1.6747,0.97087,-6.8608,-1.0356,-6.8627,-7.8818,1.99,1.9048,5.6508,3.9365,11.538,8.7601,13.398,8.6572,2.9557,9.4872
-17.188,8.6984,0.06472,-8.8235,-7.8818,-6.0548,-0.97087,9.644,-2.0065,-8.8235,-7.8818,-0.99502,-6.6667,-1.9683,-10.349,2.8846,-2.8341,12.432,2.0221,-7.8818,1.7949
-27.615,2.9841,-6.7314,-2.9412,-1.9704,-8.9533,2.9126,9.644,1.877,-2.9412,-1.9704,1.99,-11.429,-6.7302,-20.825001,-2.8846,-11.53,2.7697,1.0742,-11.823,-1.0897
-24.771,-9.3968,-12.557,0.0,0.98522,-1.2238,-1.9417,-2.0065,3.8188,0.0,0.98522,3.9801,-14.286,-10.54,-24.635,-12.5,-19.259001,-6.8921,-1.7694,-14.778,-6.859
-18.136,-16.063,-14.498,-0.98039,-0.98522,4.5733,0.97087,-3.9482,-0.06472,-0.98039,-0.98522,4.9751,-17.143,-16.254,-21.778,-21.153999,-22.158001,-11.723,-6.5087,-15.764,-14.551
-5.8136,-20.825001,-11.586,0.0,-3.9409,2.6409,2.9126,-2.0065,-2.9773,0.0,-3.9409,3.9801,-17.143,-20.063,-13.206,-25.0,-20.225,-4.9597,-5.5608,-13.793,-21.282
1.7694,-21.778,-9.644,0.98039,1.9704,0.70853,-2.9126,5.7605,-2.0065,0.98039,1.9704,4.9751,-13.333,-21.016001,-5.5873,-25.962,-16.361,3.7359,-8.4044,-6.8966,-24.167
6.5087,-17.968,-7.7023,9.8039,8.867,-0.25765,-2.9126,4.7896,5.7605,9.8039,8.867,4.9751,-11.429,-21.016001,-0.8254,-24.038,-14.428,-6.8921,-9.3523,-1.9704,-25.128
5.5608,-11.302,-6.7314,9.8039,6.8966,0.70853,-0.97087,-2.9773,3.8188,9.8039,6.8966,1.99,-11.429,-20.063,-1.7778,-19.231001,-12.496,-16.554001,-0.82148,0.98522,-21.282
0.82148,-7.4921,-5.7605,3.9216,3.9409,-4.1224,-2.9126,3.8188,0.90615,3.9216,3.9409,-0.99502,-8.5714,-15.302,-2.7302,-12.5,-8.6312,-2.0612,2.97,0.98522,-13.59
-5.8136,-4.6349,-4.7896,-0.98039,-2.9557,-11.852,-3.8835,2.8479,0.90615,-0.98039,-2.9557,-5.9701,-7.619,-10.54,-6.5397,-6.7308,-5.7327,10.499,-1.7694,-4.9261,-6.859
-5.8136,0.12698,1.0356,-4.902,-1.9704,-9.9195,-1.9417,-10.744,0.90615,-4.902,-1.9704,-2.9851,-5.7143,-4.8254,-5.5873,0.96154,-0.90177,-3.0274,3.9179,-6.8966,2.7564
-10.553,4.8889,2.9773,-9.8039,-2.9557,-13.784,-0.97087,-19.482,2.8479,-9.8039,-2.9557,-4.9751,-3.8095,-1.0159,-4.6349,4.8077,1.9968,-9.7907,11.501,-6.8966,5.641
-12.449,7.746,3.9482,-9.8039,-2.9557,-18.615,-0.97087,-16.57,2.8479,-9.8039,-2.9557,-6.9652,-3.8095,1.8413,-5.5873,7.6923,2.963,-9.7907,12.449,-7.8818,7.5641
-5.8136,15.365,5.89,-12.745,-3.9409,-14.75,1.9417,-17.540001,4.7896,-12.745,-3.9409,-5.9701,0.95238,8.5079,-0.8254,15.385,8.7601,-11.723,10.553,-3.9409,12.372
-0.12638,15.365,4.9191,-6.8627,-2.9557,-6.0548,2.9126,-25.306999,1.877,-6.8627,-2.9557,-2.9851,3.8095,13.27,1.0794,17.308001,8.7601,-4.9597,10.553,-2.9557,15.256
-2.0221,10.603,-0.90615,0.0,-2.9557,1.6747,2.9126,-3.9482,-3.9482,0.0,-2.9557,0.99502,1.9048,12.317,-2.7302,13.462,3.9291,-15.588,2.97,-4.9261,13.333
-0.12638,7.746,-0.90615,2.9412,4.9261,6.5056,5.8252,7.7023,-2.9773,2.9412,4.9261,5.9701,0.0,10.413,-4.6349,10.577,1.0306,-10.757,1.0742,-4.9261,9.4872
-4.8657,2.0317,-2.8479,5.8824,2.9557,3.6071,4.8544,7.7023,-1.0356,5.8824,2.9557,4.9751,-4.7619,5.6508,-7.4921,3.8462,-3.8003,-2.0612,-4.613,-7.8818,4.6795
-2.97,2.0317,2.0065,12.745,6.8966,5.5395,6.7961,8.6731,-2.0065,12.745,6.8966,7.9602,-1.9048,6.6032,-1.7778,3.8462,-0.90177,9.533,-7.4566,-2.9557,2.7564
12.196,2.0317,6.8608,17.646999,10.837,7.4718,5.8252,14.498,-0.06472,17.646999,10.837,8.9552,2.8571,9.4603,5.8413,5.7692,4.8953,-4.9597,-4.613,2.9557,4.6795
12.196,2.0317,7.8317,18.627001,9.8522,14.235,4.8544,7.7023,0.90615,18.627001,9.8522,8.9552,3.8095,9.4603,8.6984,6.7308,5.8615,11.465,1.0742,0.98522,5.641
2.7172,0.12698,2.9773,11.765,3.9409,6.5056,-0.97087,10.615,-1.0356,11.765,3.9409,0.99502,2.8571,6.6032,5.8413,3.8462,2.963,12.432,-0.82148,0.98522,4.6795
0.82148,0.12698,-2.8479,2.9412,-0.98522,-1.2238,-6.7961,2.8479,-2.9773,2.9412,-0.98522,-5.9701,2.8571,5.6508,3.9365,1.9231,1.0306,-1.095,0.12638,2.9557,3.7179
1.7694,-1.7778,-6.7314,-0.98039,-4.9261,-6.0548,-9.7087,8.6731,-4.9191,-0.98039,-4.9261,-10.945,1.9048,3.746,2.9841,0.0,-0.90177,7.6006,0.12638,3.9409,0.83333
4.613,-3.6825,-6.7314,-1.9608,-7.8818,-7.0209,-12.621,4.7896,-6.8608,-1.9608,-7.8818,-12.935,0.0,-1.0159,2.9841,-2.8846,-2.8341,10.499,2.97,6.8966,-2.0513
4.613,-9.3968,-7.7023,2.9412,-7.8818,-4.1224,-14.563,-1.0356,-8.8026,2.9412,-7.8818,-11.94,-2.8571,-8.6349,2.9841,-9.6154,-5.7327,14.364,0.12638,10.837,-7.8205
7.4566,-13.206,-6.7314,7.8431,-5.9113,3.6071,-14.563,11.586,-8.8026,7.8431,-5.9113,-8.9552,-0.95238,-11.492,4.8889,-14.423,-6.6989,20.160999,-2.7172,14.778,-12.628
0.82148,-17.968,-10.615,3.9216,-5.9113,0.70853,-14.563,7.7023,-8.8026,3.9216,-5.9113,-9.9502,-5.7143,-17.205999,-1.7778,-20.191999,-12.496,8.5668,-6.5087,6.8966,-18.396999
-1.0742,-15.111,-11.586,0.0,-5.9113,0.70853,-9.7087,9.644,-6.8608,0.0,-5.9113,-5.9701,-8.5714,-18.159,-5.5873,-20.191999,-14.428,-6.8921,-5.5608,0.98522,-19.358999
-2.97,-5.5873,-5.7605,2.9412,-0.98522,5.5395,0.97087,10.615,-4.9191,2.9412,-0.98522,1.99,-9.5238,-16.254,-6.5397,-15.385,-11.53,2.7697,-4.613,-2.9557,-14.551
3.6651,2.9841,1.0356,7.8431,0.98522,2.6409,4.8544,15.469,-3.9482,7.8431,0.98522,4.9751,-7.619,-10.54,-4.6349,-6.7308,-5.7327,8.5668,-2.7172,-5.9113,-9.7436
8.4044,7.746,4.9191,5.8824,1.9704,4.5733,3.8835,-0.06472,-2.9773,5.8824,1.9704,3.9801,-3.8095,-2.9206,0.12698,1.9231,1.9968,-3.0274,-2.7172,-6.8966,-3.0128
0.82148,7.746,3.9482,0.0,-2.9557,3.6071,-1.9417,-6.8608,-3.9482,0.0,-2.9557,-0.99502,0.0,4.6984,2.9841,8.6538,6.8277,-1.095,0.12638,-4.9261,3.7179
-1.0742,5.8413,1.0356,-2.9412,-4.9261,-7.9871,-3.8835,2.8479,-4.9191,-2.9412,-4.9261,-6.9652,3.8095,10.413,5.8413,12.5,10.692,-15.588,0.12638,-3.9409,9.4872
-2.97,2.9841,-0.90615,-3.9216,-5.9113,-8.9533,-5.8252,-6.8608,-4.9191,-3.9216,-5.9113,-7.9602,4.7619,11.365,3.9365,11.538,8.7601,-6.8921,-1.7694,-6.8966,11.41
-2.0221,2.0317,0.06472,-1.9608,-2.9557,-2.19,-4.8544,-10.744,-4.9191,-1.9608,-2.9557,-4.9751,5.7143,12.317,2.0317,10.577,8.7601,-6.8921,-0.82148,-5.9113,11.41
-10.553,-0.8254,-1.877,0.0,-1.9704,-2.19,-5.8252,0.90615,-4.9191,0.0,-1.9704,-4.9751,2.8571,9.4603,-1.7778,8.6538,5.8615,-0.12882,-2.7172,-6.8966,10.449
-6.7615,-2.7302,-0.90615,6.8627,2.9557,-0.25765,0.0,9.644,-1.0356,6.8627,2.9557,1.99,0.0,5.6508,-2.7302,4.8077,2.963,5.6683,-1.7694,-4.9261,7.5641
-0.12638,-4.6349,0.06472,8.8235,8.867,5.5395,5.8252,10.615,1.877,8.8235,8.867,9.9502,-3.8095,-1.0159,-2.7302,-2.8846,-2.8341,1.8035,0.12638,-2.9557,0.83333
5.5608,-7.4921,-0.90615,7.8431,9.8522,6.5056,6.7961,7.7023,4.7896,7.8431,9.8522,10.945,-9.5238,-7.6825,-3.6825,-10.577,-8.6312,-9.7907,1.0742,-7.8818,-3.9744
7.4566,-9.3968,-2.8479,10.784,12.808,7.4718,8.7379,12.557,8.6731,10.784,12.808,8.9552,-12.381,-12.444,-3.6825,-16.346001,-11.53,-5.9259,-1.7694,-8.867,-8.7821
2.7172,-9.3968,-4.7896,9.8039,11.823,8.438,8.7379,1.877,7.7023,9.8039,11.823,7.9602,-13.333,-16.254,-7.4921,-20.191999,-15.395,-4.9597,-1.7694,-7.8818,-14.551
3.6651,-4.6349,-1.877,7.8431,11.823,16.167,11.65,0.90615,6.7314,7.8431,11.823,10.945,-13.333,-17.205999,-8.4444,-17.308001,-13.462,6.6345,3.9179,-5.9113,-16.474001
-2.97,1.0794,0.06472,10.784,11.823,8.438,11.65,23.236,8.6731,10.784,11.823,9.9502,-11.429,-14.349,-10.349,-11.538,-10.564,5.6683,2.97,-5.9113,-14.551
-2.0221,3.9365,0.06472,11.765,9.8522,0.70853,6.7961,24.207001,5.7605,11.765,9.8522,5.9701,-8.5714,-10.54,-9.3968,-7.6923,-7.6651,-0.12882,0.12638,-4.9261,-11.667
-1.0742,0.12698,-3.8188,4.902,0.98522,-1.2238,-1.9417,6.7314,-1.0356,4.902,0.98522,-1.99,-7.619,-10.54,-8.4444,-8.6538,-7.6651,13.398,-3.6651,-0.98522,-12.628
-3.9179,-4.6349,-6.7314,-0.98039,-1.9704,-5.0886,-6.7961,7.7023,-4.9191,-0.98039,-1.9704,-6.9652,-5.7143,-8.6349,-5.5873,-8.6538,-6.6989,20.160999,-3.6651,6.8966,-10.705
-0.12638,-7.4921,-7.7023,-2.9412,-3.9409,-4.1224,-7.767,3.8188,-5.89,-2.9412,-3.9409,-7.9602,-3.8095,-6.7302,-2.7302,-8.6538,-5.7327,2.7697,-5.5608,3.9409,-7.8205
-1.0742,-7.4921,-6.7314,-1.9608,-4.9261,2.6409,-5.8252,1.877,-7.8317,-1.9608,-4.9261,-6.9652,-4.7619,-5.7778,-4.6349,-8.6538,-5.7327,10.499,-5.5608,-0.98522,-6.859
-6.7615,-5.5873,-4.7896,-1.9608,-4.9261,-3.1562,-4.8544,4.7896,-7.8317,-1.9608,-4.9261,-5.9701,-5.7143,-3.873,-6.5397,-6.7308,-5.7327,5.6683,-5.5608,-2.9557,-3.9744
-3.9179,1.0794,0.06472,-0.98039,-0.98522,-3.1562,-0.97087,1.877,-5.89,-0.98039,-0.98522,-1.99,-0.95238,1.8413,-1.7778,-0.96154,0.06441,6.6345,-8.4044,-1.9704,0.83333
3.6651,5.8413,5.89,1.9608,0.98522,3.6071,2.9126,3.8188,-4.9191,1.9608,0.98522,3.9801,5.7143,8.5079,5.8413,6.7308,7.7939,-3.0274,-5.5608,1.9704,7.5641
9.3523,8.6984,10.744,2.9412,2.9557,8.438,5.8252,-0.06472,-2.9773,2.9412,2.9557,6.9652,9.5238,11.365,10.603,11.538,11.659,2.7697,-4.613,5.9113,10.449
9.3523,6.7937,9.7735,-1.9608,1.9704,8.438,5.8252,-3.9482,-0.06472,-1.9608,1.9704,4.9751,8.5714,9.4603,10.603,10.577,11.659,6.6345,-1.7694,4.9261,7.5641
4.613,3.9365,7.8317,0.98039,6.8966,2.6409,6.7961,8.6731,5.7605,0.98039,6.8966,3.9801,7.619,9.4603,9.6508,7.6923,9.7262,10.499,2.0221,3.9409,5.641
-0.12638,-3.6825,2.9773,3.9216,6.8966,0.70853,2.9126,0.90615,5.7605,3.9216,6.8966,1.99,3.8095,4.6984,4.8889,1.9231,4.8953,3.7359,2.0221,-0.98522,1.7949
-2.0221,-8.4444,-2.8479,3.9216,5.9113,8.438,0.0,-11.715,5.7605,3.9216,5.9113,0.0,-0.95238,0.88889,-1.7778,-1.9231,-0.90177,-1.095,2.0221,-4.9261,-0.12821
-6.7615,-9.3968,-6.7314,2.9412,6.8966,-0.25765,-1.9417,-1.0356,7.7023,2.9412,6.8966,-1.99,-4.7619,-3.873,-6.5397,-4.8077,-5.7327,-4.9597,4.8657,-6.8966,-1.0897
-10.553,-7.4921,-8.6731,-1.9608,3.9409,-9.9195,-3.8835,8.6731,6.7314,-1.9608,3.9409,-3.9801,-8.5714,-8.6349,-9.3968,-7.6923,-9.5974,-6.8921,7.7093,-5.9113,-4.9359
-8.6572,-5.5873,-10.615,-6.8627,-1.9704,-9.9195,-4.8544,-1.0356,2.8479,-6.8627,-1.9704,-6.9652,-9.5238,-9.5873,-10.349,-8.6538,-11.53,-2.0612,2.97,-5.9113,-5.8974
-2.97,-4.6349,-12.557,-9.8039,-6.8966,-9.9195,-8.7379,-3.9482,-2.9773,-9.8039,-6.8966,-10.945,-7.619,-8.6349,-7.4921,-8.6538,-10.564,-3.0274,-0.82148,-2.9557,-5.8974
-7.7093,-5.5873,-12.557,-5.8824,-7.8818,-8.9533,-10.68,-7.8317,-6.8608,-5.8824,-7.8818,-11.94,-2.8571,-4.8254,-5.5873,-5.7692,-9.5974,-8.8245,1.0742,4.9261,-2.0513
-13.397,-6.5397,-11.586,-7.8431,-9.8522,-10.886,-13.592,-6.8608,-9.7735,-7.8431,-9.8522,-12.935,-1.9048,-1.9683,-8.4444,-3.8462,-9.5974,-19.452,-3.6651,0.98522,-0.12821
-1.0742,-4.6349,-6.7314,-13.725,-11.823,-5.0886,-10.68,-24.337,-12.686,-13.725,-11.823,-8.9552,-0.95238,0.88889,-6.5397,0.0,-6.6989,-15.588,-5.5608,-0.98522,4.6795
-8.6572,-4.6349,-5.7605,-10.784,-11.823,-8.9533,-8.7379,-6.8608,-11.715,-10.784,-11.823,-8.9552,0.95238,2.7937,-6.5397,0.96154,-4.7665,3.7359,-8.4044,1.9704,5.641
-11.501,-2.7302,-4.7896,-9.8039,-6.8966,-14.75,-4.8544,-1.0356,-6.8608,-9.8039,-6.8966,-8.9552,5.7143,7.5556,-3.6825,2.8846,-0.90177,13.398,-3.6651,3.9409,5.641
-5.8136,-2.7302,-3.8188,-12.745,-5.9113,-15.717,-3.8835,-12.686,-2.0065,-12.745,-5.9113,-9.9502,6.6667,8.5079,-0.8254,4.8077,0.06441,3.7359,-0.82148,4.9261,6.6026
-2.0221,-2.7302,-4.7896,-12.745,-7.8818,-8.9533,-3.8835,-24.337,-2.0065,-12.745,-7.8818,-8.9552,5.7143,8.5079,0.12698,3.8462,1.0306,2.7697,-0.82148,5.9113,6.6026
0.82148,-3.6825,-4.7896,-12.745,-8.867,-5.0886,-4.8544,-16.57,-2.0065,-12.745,-8.867,-7.9602,5.7143,8.5079,1.0794,2.8846,0.06441,-17.52,-0.82148,5.9113,6.6026
-8.6572,-4.6349,-6.7314,-13.725,-7.8818,-11.852,-4.8544,-2.9773,-2.0065,-13.725,-7.8818,-8.9552,1.9048,5.6508,-4.6349,1.9231,-2.8341,-4.9597,-0.82148,1.9704,7.5641
-15.292,-5.5873,-9.644,-15.686,-8.867,-18.615,-5.8252,-10.744,-2.0065,-15.686,-8.867,-11.94,-2.8571,0.88889,-9.3968,-1.9231,-6.6989,0.83736,0.12638,-0.98522,5.641
-14.344,-5.5873,-8.6731,-12.745,-4.9261,-16.683001,-4.8544,-14.628,1.877,-12.745,-4.9261,-10.945,-3.8095,-0.06349,-9.3968,-2.8846,-6.6989,-6.8921,3.9179,-3.9409,3.7179
-10.553,-5.5873,-5.7605,-7.8431,-0.98522,-10.886,-1.9417,-11.715,3.8188,-7.8431,-0.98522,-6.9652,-3.8095,-0.06349,-6.5397,-3.8462,-5.7327,-15.588,2.97,-5.9113,1.7949
-10.553,-6.5397,-4.7896,-5.8824,-2.9557,-7.9871,-3.8835,-9.7735,-0.06472,-5.8824,-2.9557,-5.9701,-5.7143,-2.9206,-7.4921,-4.8077,-5.7327,-13.655,-2.7172,-4.9261,-0.12821
-5.8136,-4.6349,0.06472,-0.98039,-0.98522,-1.2238,-0.97087,-4.9191,2.8479,-0.98039,-0.98522,-0.99502,-2.8571,-1.9683,-3.6825,-2.8846,-1.868,2.7697,1.0742,-1.9704,0.83333
1.7694,-0.8254,2.9773,0.98039,1.9704,6.5056,0.97087,-14.628,5.7605,0.98039,1.9704,3.9801,-0.95238,-1.0159,0.12698,0.0,1.9968,-11.723,3.9179,-0.98522,0.83333
10.3,2.9841,5.89,3.9216,5.9113,13.269,6.7961,-15.599,5.7605,3.9216,5.9113,8.9552,0.0,-1.0159,2.0317,0.96154,2.963,-7.8583,4.8657,1.9704,1.7949
8.4044,2.9841,2.9773,2.9412,4.9261,4.5733,5.8252,2.8479,4.7896,2.9412,4.9261,6.9652,0.0,-1.9683,1.0794,0.96154,1.0306,5.6683,5.8136,2.9557,2.7564
-2.97,-0.8254,-1.877,1.9608,3.9409,-6.0548,0.97087,11.586,2.8479,1.9608,3.9409,1.99,0.0,-1.9683,-2.7302,-1.9231,-2.8341,2.7697,2.0221,0.0,0.83333
-1.0742,-3.6825,-1.877,3.9216,-0.98522,2.6409,-0.97087,8.6731,-2.0065,3.9216,-0.98522,2.9851,1.9048,-0.06349,1.0794,-1.9231,-1.868,4.7021,-1.7694,2.9557,0.83333
5.5608,-0.8254,0.06472,0.98039,-3.9409,7.4718,0.0,4.7896,-3.9482,0.98039,-3.9409,4.9751,5.7143,2.7937,5.8413,1.9231,1.9968,6.6345,-4.613,6.8966,1.7949
15.987,3.9365,4.9191,5.8824,-1.9704,15.201,1.9417,4.7896,-4.9191,5.8824,-1.9704,7.9602,8.5714,5.6508,11.556,5.7692,6.8277,12.432,-0.82148,11.823,4.6795
8.4044,3.9365,2.9773,8.8235,-0.98522,10.37,1.9417,10.615,-6.8608,8.8235,-0.98522,4.9751,5.7143,3.746,7.746,4.8077,4.8953,6.6345,-0.82148,8.867,4.6795
-0.12638,-1.7778,-1.877,4.902,-1.9704,3.6071,-2.9126,3.8188,-4.9191,4.902,-1.9704,-0.99502,-1.9048,-1.0159,0.12698,-0.96154,-0.90177,4.7021,0.12638,0.98522,-1.0897
-3.9179,-9.3968,-4.7896,1.9608,-3.9409,-2.19,-6.7961,3.8188,-7.8317,1.9608,-3.9409,-2.9851,-2.8571,-2.9206,-3.6825,-4.8077,-3.8003,16.296,0.12638,1.9704,-2.0513
1.7694,-7.4921,1.0356,0.98039,-3.9409,0.70853,-2.9126,12.557,-8.8026,0.98039,-3.9409,1.99,0.0,-1.0159,0.12698,-2.8846,0.06441,6.6345,-3.6651,1.9704,-3.0128
15.039,2.0317,10.744,6.8627,1.9704,14.235,4.8544,4.7896,-0.06472,6.8627,1.9704,8.9552,6.6667,4.6984,9.6508,3.8462,8.7601,12.432,-2.7172,3.9409,-0.12821
24.518,8.6984,16.57,10.784,6.8966,14.235,9.7087,6.7314,3.8188,10.784,6.8966,11.94,12.381,11.365,18.222,10.577,16.49,3.7359,2.0221,6.8966,4.6795
8.4044,6.7937,11.715,5.8824,4.9261,6.5056,7.767,8.6731,1.877,5.8824,4.9261,7.9602,11.429,9.4603,14.413,8.6538,14.557,-3.0274,3.9179,4.9261,4.6795
1.7694,4.8889,8.8026,3.9216,4.9261,2.6409,6.7961,3.8188,1.877,3.9216,4.9261,6.9652,7.619,6.6032,9.6508,5.7692,11.659,-7.8583,2.0221,3.9409,2.7564
3.6651,7.746,9.7735,5.8824,7.8818,6.5056,7.767,8.6731,6.7314,5.8824,7.8818,9.9502,8.5714,6.6032,9.6508,7.6923,11.659,-1.095,2.0221,2.9557,1.7949
7.4566,8.6984,9.7735,6.8627,9.8522,7.4718,10.68,-1.0356,8.6731,6.8627,9.8522,9.9502,11.429,9.4603,10.603,8.6538,11.659,6.6345,5.8136,3.9409,2.7564
5.5608,7.746,6.8608,1.9608,6.8966,6.5056,8.7379,0.90615,7.7023,1.9608,6.8966,7.9602,11.429,8.5079,9.6508,9.6154,9.7262,2.7697,5.8136,3.9409,1.7949
3.6651,7.746,5.89,3.9216,6.8966,5.5395,5.8252,4.7896,5.7605,3.9216,6.8966,5.9701,7.619,4.6984,8.6984,8.6538,7.7939,-2.0612,2.0221,3.9409,2.7564
5.5608,6.7937,4.9191,1.9608,3.9409,-0.25765,2.9126,2.8479,4.7896,1.9608,3.9409,2.9851,3.8095,-0.06349,7.746,5.7692,3.9291,-6.8921,7.7093,5.9113,4.6795
2.7172,1.0794,0.06472,0.98039,3.9409,-0.25765,0.0,-1.0356,5.7605,0.98039,3.9409,0.99502,-3.8095,-6.7302,1.0794,-2.8846,-4.7665,-3.9936,8.6572,2.9557,-0.12821
3.6651,-3.6825,-2.8479,0.98039,1.9704,6.5056,-2.9126,-9.7735,3.8188,0.98039,1.9704,1.99,-10.476,-12.444,-5.5873,-10.577,-12.496,4.7021,1.0742,-1.9704,-5.8974
-3.9179,-4.6349,-2.8479,5.8824,2.9557,2.6409,-0.97087,16.440001,2.8479,5.8824,2.9557,2.9851,-12.381,-12.444,-10.349,-11.538,-15.395,14.364,2.97,-4.9261,-4.9359
-5.8136,-4.6349,-3.8188,2.9412,0.98522,0.70853,0.0,5.7605,0.90615,2.9412,0.98522,1.99,-12.381,-11.492,-12.254,-11.538,-16.361,9.533,5.8136,-6.8966,-4.9359
-6.7615,-5.5873,-6.7314,-3.9216,-2.9557,-4.1224,-3.8835,-3.9482,-3.9482,-3.9216,-2.9557,-3.9801,-14.286,-13.397,-14.159,-12.5,-18.292999,-9.7907,0.12638,-8.867,-4.9359
-3.9179,-0.8254,-3.8188,-5.8824,-3.9409,-5.0886,-2.9126,3.8188,-3.9482,-5.8824,-3.9409,-2.9851,-13.333,-12.444,-9.3968,-9.6154,-14.428,-27.181999,-2.7172,-6.8966,-3.9744
1.7694,4.8889,2.9773,0.98039,-2.9557,1.6747,1.9417,0.90615,-1.0356,0.98039,-2.9557,1.99,-8.5714,-8.6349,-0.8254,-3.8462,-6.6989,8.5668,-1.7694,0.0,-3.0128
3.6651,4.8889,5.89,0.98039,-2.9557,4.5733,2.9126,-1.0356,0.90615,0.98039,-2.9557,3.9801,-3.8095,-3.873,3.9365,-0.96154,-1.868,23.059999,-0.82148,2.9557,-0.12821
9.3523,0.12698,6.8608,0.98039,-0.98522,7.4718,1.9417,-4.9191,0.90615,0.98039,-0.98522,4.9751,-1.9048,-1.9683,6.7937,-0.96154,1.0306,11.465,1.0742,3.9409,-0.12821
13.144,-4.6349,5.89,2.9412,0.0,3.6071,0.97087,7.7023,-1.0356,2.9412,0.0,3.9801,0.95238,-1.0159,9.6508,-2.8846,3.9291,6.6345,0.12638,7.8818,-2.0513
9.3523,-3.6825,5.89,1.9608,0.0,4.5733,0.97087,2.8479,0.90615,1.9608,0.0,3.9801,3.8095,1.8413,11.556,0.96154,8.7601,1.8035,-1.7694,4.9261,-1.0897
10.3,3.9365,9.7735,1.9608,2.9557,8.438,3.8835,-4.9191,2.8479,1.9608,2.9557,5.9701,8.5714,6.6032,15.365,8.6538,16.49,5.6683,-1.7694,3.9409,2.7564
8.4044,9.6508,12.686,-0.98039,0.98522,3.6071,4.8544,-3.9482,1.877,-0.98039,0.98522,4.9751,10.476,10.413,15.365,14.423,20.354,-2.0612,3.9179,2.9557,5.641
2.7172,15.365,14.628,0.98039,0.0,0.70853,7.767,-3.9482,0.90615,0.98039,0.0,5.9701,10.476,12.317,12.508,18.268999,21.32,-9.7907,6.7615,0.98522,6.6026
2.7172,14.413,13.657,0.0,-0.98522,3.6071,8.7379,1.877,1.877,0.0,-0.98522,7.9602,6.6667,10.413,8.6984,17.308001,19.388,-21.385,4.8657,-0.98522,5.641
-4.8657,9.6508,8.8026,-1.9608,-0.98522,1.6747,4.8544,1.877,0.90615,-1.9608,-0.98522,4.9751,1.9048,5.6508,1.0794,11.538,11.659,-5.9259,2.0221,-5.9113,4.6795
-1.0742,7.746,9.7735,-1.9608,-0.98522,4.5733,3.8835,-3.9482,-0.06472,-1.9608,-0.98522,7.9602,0.95238,4.6984,0.12698,8.6538,7.7939,1.8035,2.97,-2.9557,3.7179
5.5608,5.8413,9.7735,3.9216,0.98522,5.5395,6.7961,1.877,-1.0356,3.9216,0.98522,8.9552,2.8571,6.6032,2.0317,7.6923,6.8277,13.398,7.7093,1.9704,3.7179
-2.0221,2.0317,2.0065,0.98039,-0.98522,-0.25765,-0.97087,-0.06472,-2.9773,0.98039,-0.98522,1.99,1.9048,6.6032,0.12698,5.7692,2.963,12.432,2.0221,-0.98522,2.7564
-2.0221,0.12698,-1.877,-3.9216,-6.8966,-3.1562,-6.7961,-2.9773,-12.686,-3.9216,-6.8966,-4.9751,5.7143,10.413,2.9841,8.6538,4.8953,4.7021,-4.613,2.9557,5.641
2.7172,0.12698,-2.8479,-6.8627,-6.8966,-5.0886,-11.65,-6.8608,-11.715,-6.8627,-6.8966,-8.9552,7.619,11.365,4.8889,8.6538,4.8953,-3.0274,-2.7172,5.9113,5.641
1.7694,2.0317,-1.877,-8.8235,-3.9409,-11.852,-7.767,-2.0065,-1.0356,-8.8235,-3.9409,-10.945,8.5714,11.365,4.8889,8.6538,4.8953,-6.8921,-2.7172,7.8818,6.6026
1.7694,0.12698,-3.8188,-6.8627,-3.9409,-12.818,-8.7379,-11.715,0.90615,-6.8627,-3.9409,-11.94,5.7143,9.4603,2.0317,4.8077,1.0306,-4.9597,-6.5087,5.9113,5.641
-4.8657,-9.3968,-11.586,-9.8039,-5.9113,-14.75,-13.592,-6.8608,-2.9773,-9.8039,-5.9113,-16.915001,0.95238,3.746,-5.5873,-2.8846,-6.6989,-4.9597,-10.3,2.9557,1.7949
-16.24,-14.159,-17.410999,-11.765,-4.9261,-20.548,-14.563,-2.0065,-2.0065,-11.765,-4.9261,-19.9,0.0,2.7937,-10.349,-6.7308,-10.564,-0.12882,-6.5087,0.98522,-0.12821
-16.24,-11.302,-15.469,-9.8039,-0.98522,-16.683001,-11.65,-16.57,1.877,-9.8039,-0.98522,-15.92,1.9048,5.6508,-10.349,-5.7692,-9.5974,-3.0274,1.0742,-0.98522,-0.12821
-10.553,-2.7302,-7.7023,-4.902,0.98522,-10.886,-5.8252,-14.628,4.7896,-4.902,0.98522,-9.9502,3.8095,7.5556,-6.5397,-0.96154,-4.7665,-19.452,1.0742,-2.9557,2.7564
-6.7615,2.0317,-3.8188,-5.8824,-2.9557,-10.886,-1.9417,-7.8317,2.8479,-5.8824,-2.9557,-5.9701,3.8095,7.5556,-4.6349,0.96154,-1.868,-23.316999,-1.7694,-5.9113,2.7564
-1.0742,2.9841,-0.90615,-0.98039,0.98522,-4.1224,0.97087,-0.06472,4.7896,-0.98039,0.98522,0.0,5.7143,8.5079,-2.7302,3.8462,0.06441,-2.0612,2.97,0.98522,5.641
-9.6051,-1.7778,-3.8188,0.98039,2.9557,-2.19,-1.9417,7.7023,2.8479,0.98039,2.9557,0.99502,0.95238,4.6984,-8.4444,0.0,-2.8341,5.6683,1.0742,-2.9557,1.7949
-13.397,-7.4921,-6.7314,1.9608,3.9409,1.6747,-2.9126,-0.06472,-2.0065,1.9608,3.9409,0.99502,-4.7619,-1.9683,-13.206,-6.7308,-8.6312,-7.8583,-8.4044,-8.867,-4.9359
-2.0221,-5.5873,-0.90615,6.8627,6.8966,12.303,0.97087,-2.9773,-1.0356,6.8627,6.8966,6.9652,-2.8571,-3.873,-7.4921,-6.7308,-6.6989,1.8035,-9.3523,-2.9557,-10.705
6.5087,1.0794,6.8608,9.8039,10.837,14.235,8.7379,17.410999,4.7896,9.8039,10.837,12.935,-2.8571,-5.7778,0.12698,-4.8077,-1.868,11.465,-7.4566,2.9557,-10.705
15.039,3.9365,8.8026,8.8235,10.837,16.167,11.65,11.586,6.7314,8.8235,10.837,12.935,-1.9048,-6.7302,5.8413,-3.8462,0.06441,8.5668,-5.5608,5.9113,-10.705
14.092,3.9365,6.8608,4.902,7.8818,16.167,10.68,1.877,5.7605,4.902,7.8818,9.9502,-1.9048,-6.7302,6.7937,-2.8846,1.0306,13.398,-1.7694,5.9113,-6.859
5.5608,2.9841,2.0065,0.98039,2.9557,4.5733,4.8544,8.6731,3.8188,0.98039,2.9557,3.9801,-0.95238,-6.7302,3.9365,-2.8846,0.06441,16.296,2.0221,5.9113,-4.9359
0.82148,2.9841,-0.90615,0.98039,3.9409,-1.2238,1.9417,7.7023,3.8188,0.98039,3.9409,0.99502,-1.9048,-5.7778,2.0317,-1.9231,0.06441,0.83736,2.97,0.0,-3.9744
0.82148,4.8889,-0.90615,0.0,4.9261,-1.2238,3.8835,-2.9773,9.644,0.0,4.9261,0.0,-0.95238,-4.8254,2.9841,0.96154,2.963,1.8035,5.8136,-1.9704,-0.12821
-2.0221,2.9841,-1.877,-0.98039,4.9261,-4.1224,5.8252,-2.0065,9.644,-0.98039,4.9261,-1.99,-0.95238,-4.8254,2.9841,0.96154,2.963,5.6683,7.7093,-0.98522,1.7949
2.7172,2.0317,0.06472,-3.9216,4.9261,-0.25765,5.8252,-6.8608,9.644,-3.9216,4.9261,-0.99502,0.0,-2.9206,5.8413,0.96154,4.8953,-5.9259,8.6572,0.0,2.7564
6.5087,5.8413,4.9191,-0.98039,7.8818,2.6409,8.7379,-1.0356,10.615,-0.98039,7.8818,2.9851,4.7619,1.8413,9.6508,5.7692,8.7601,-3.9936,10.553,2.9557,5.641
7.4566,10.603,4.9191,0.98039,8.867,2.6409,6.7961,-1.0356,10.615,0.98039,8.867,2.9851,5.7143,5.6508,10.603,10.577,10.692,2.7697,13.397,4.9261,8.5256
-0.12638,10.603,1.0356,0.98039,3.9409,-4.1224,0.97087,2.8479,7.7023,0.98039,3.9409,-2.9851,3.8095,5.6508,5.8413,11.538,9.7262,5.6683,10.553,0.98522,8.5256
-2.97,9.6508,1.0356,5.8824,4.9261,-4.1224,1.9417,7.7023,4.7896,5.8824,4.9261,-2.9851,3.8095,4.6984,4.8889,10.577,7.7939,0.83736,6.7615,-0.98522,7.5641
0.82148,5.8413,2.9773,5.8824,3.9409,6.5056,3.8835,-4.9191,4.7896,5.8824,3.9409,1.99,0.95238,1.8413,3.9365,5.7692,5.8615,-8.8245,0.12638,0.0,1.7949
6.5087,0.12698,3.9482,7.8431,7.8818,6.5056,3.8835,9.644,2.8479,7.8431,7.8818,5.9701,-1.9048,-1.0159,2.0317,-1.9231,1.0306,-2.0612,-1.7694,-0.98522,-4.9359
0.82148,-6.5397,2.0065,7.8431,8.867,4.5733,3.8835,18.382,1.877,7.8431,8.867,6.9652,-4.7619,-4.8254,-2.7302,-7.6923,-2.8341,8.5668,-8.4044,-1.9704,-11.667
-0.12638,-10.349,0.06472,9.8039,8.867,7.4718,2.9126,11.586,3.8188,9.8039,8.867,6.9652,-6.6667,-6.7302,-4.6349,-11.538,-6.6989,-1.095,-11.248,-1.9704,-12.628
0.82148,-15.111,-5.7605,10.784,5.9113,4.5733,-1.9417,11.586,4.7896,10.784,5.9113,3.9801,-10.476,-10.54,-8.4444,-16.346001,-11.53,-3.0274,-9.3523,-4.9261,-15.513
-1.0742,-11.302,-6.7314,8.8235,7.8818,6.5056,1.9417,8.6731,3.8188,8.8235,7.8818,4.9751,-8.5714,-9.5873,-7.4921,-15.385,-12.496,13.398,-7.4566,-1.9704,-15.513
-2.0221,-2.7302,-3.8188,7.8431,7.8818,7.4718,4.8544,9.644,4.7896,7.8431,7.8818,6.9652,-4.7619,-6.7302,-6.5397,-9.6154,-9.5974,-0.12882,-3.6651,-0.98522,-9.7436
5.5608,3.9365,2.0065,3.9216,6.8966,7.4718,7.767,-3.9482,4.7896,3.9216,6.8966,7.9602,0.0,-1.9683,-0.8254,-2.8846,-2.8341,-3.0274,1.0742,1.9704,-3.9744
7.4566,6.7937,4.9191,-2.9412,2.9557,3.6071,3.8835,-9.7735,2.8479,-2.9412,2.9557,3.9801,3.8095,0.88889,3.9365,1.9231,1.0306,12.432,4.8657,7.8818,-1.0897
0.82148,2.0317,0.06472,-5.8824,-0.98522,-8.9533,-3.8835,-0.06472,1.877,-5.8824,-0.98522,-3.9801,1.9048,-0.06349,2.0317,0.96154,0.06441,3.7359,2.0221,6.8966,0.83333
-3.9179,-5.5873,-6.7314,-12.745,-4.9261,-14.75,-11.65,-15.599,-1.0356,-12.745,-4.9261,-11.94,0.0,-2.9206,-0.8254,-2.8846,-2.8341,-5.9259,1.0742,3.9409,0.83333
5.5608,-3.6825,-1.877,-5.8824,-0.98522,-2.19,-6.7961,-19.482,1.877,-5.8824,-0.98522,-5.9701,1.9048,-1.0159,3.9365,0.0,1.0306,2.7697,7.7093,4.9261,2.7564
-0.12638,0.12698,1.0356,-1.9608,0.0,-3.1562,-1.9417,-0.06472,3.8188,-1.9608,0.0,-1.99,1.9048,-1.0159,3.9365,1.9231,2.963,2.7697,9.6051,2.9557,3.7179
-2.0221,3.9365,2.9773,-5.8824,-4.9261,-6.0548,-0.97087,-4.9191,-0.06472,-5.8824,-4.9261,-2.9851,0.95238,-0.06349,3.9365,3.8462,4.8953,-9.7907,6.7615,-1.9704,3.7179
1.7694,12.508,9.7735,-6.8627,-1.9704,-5.0886,5.8252,-5.89,-1.0356,-6.8627,-1.9704,0.99502,4.7619,4.6984,9.6508,10.577,11.659,-4.9597,4.8657,0.0,7.5641
-1.0742,15.365,13.657,-5.8824,0.0,-4.1224,10.68,-14.628,0.90615,-5.8824,0.0,4.9751,9.5238,9.4603,11.556,14.423,15.523,-3.0274,4.8657,2.9557,9.4872
-2.97,12.508,12.686,-0.98039,2.9557,0.70853,10.68,-11.715,1.877,-0.98039,2.9557,7.9602,11.429,11.365,8.6984,12.5,15.523,-16.554001,-0.82148,1.9704,8.5256
1.7694,7.746,9.7735,4.902,3.9409,3.6071,8.7379,-2.9773,0.90615,4.902,3.9409,8.9552,9.5238,10.413,5.8413,9.6154,11.659,-19.452,0.12638,0.98522,8.5256
-6.7615,2.9841,3.9482,4.902,5.9113,-0.25765,7.767,-0.06472,0.90615,4.902,5.9113,6.9652,4.7619,5.6508,-0.8254,2.8846,3.9291,0.83736,2.0221,-4.9261,2.7564
-5.8136,2.0317,2.9773,2.9412,6.8966,0.70853,6.7961,-5.89,2.8479,2.9412,6.8966,5.9701,4.7619,4.6984,-0.8254,0.96154,1.0306,8.5668,2.97,-3.9409,0.83333
-4.8657,-1.7778,0.06472,-0.98039,3.9409,-1.2238,2.9126,-5.89,1.877,-0.98039,3.9409,2.9851,0.95238,-0.06349,-2.7302,-2.8846,-3.8003,-0.12882,5.8136,-5.9113,0.83333
-4.8657,-4.6349,-1.877,0.98039,1.9704,-6.0548,0.97087,1.877,2.8479,0.98039,1.9704,1.99,-2.8571,-3.873,-5.5873,-5.7692,-7.6651,-3.9936,6.7615,-5.9113,-0.12821
-0.12638,-7.4921,-1.877,3.9216,1.9704,0.70853,1.9417,-3.9482,1.877,3.9216,1.9704,4.9751,-5.7143,-7.6825,-7.4921,-10.577,-11.53,-13.655,2.97,-4.9261,-5.8974
15.039,-5.5873,1.0356,5.8824,2.9557,6.5056,4.8544,3.8188,-0.06472,5.8824,2.9557,6.9652,-8.5714,-11.492,-4.6349,-11.538,-11.53,-13.655,-2.7172,-4.9261,-9.7436
8.4044,0.12698,2.0065,7.8431,2.9557,10.37,5.8252,11.586,-2.0065,7.8431,2.9557,7.9602,-6.6667,-10.54,-4.6349,-7.6923,-9.5974,4.7021,-5.5608,-1.9704,-7.8205
2.7172,1.0794,1.0356,7.8431,-1.9704,8.438,0.97087,17.410999,-4.9191,7.8431,-1.9704,4.9751,-6.6667,-8.6349,-3.6825,-4.8077,-6.6989,24.025999,-4.613,-0.98522,-4.9359
9.3523,2.9841,4.9191,3.9216,-3.9409,7.4718,-0.97087,9.644,-8.8026,3.9216,-3.9409,3.9801,-2.8571,-4.8254,2.0317,0.96154,0.06441,20.160999,-2.7172,1.9704,-0.12821
15.039,5.8413,9.7735,1.9608,-3.9409,11.337,0.0,3.8188,-10.744,1.9608,-3.9409,4.9751,2.8571,0.88889,9.6508,6.7308,7.7939,8.5668,-4.613,6.8966,3.7179
12.196,4.8889,10.744,0.0,-5.9113,9.4042,-1.9417,5.7605,-11.715,0.0,-5.9113,3.9801,4.7619,3.746,11.556,8.6538,10.692,7.6006,-8.4044,8.867,3.7179
9.3523,2.9841,11.715,1.9608,-4.9261,12.303,-0.97087,9.644,-11.715,1.9608,-4.9261,5.9701,8.5714,6.6032,10.603,8.6538,11.659,8.5668,-11.248,5.9113,2.7564
4.613,1.0794,9.7735,4.902,-0.98522,8.438,0.97087,11.586,-8.8026,4.902,-0.98522,8.9552,9.5238,7.5556,6.7937,5.7692,8.7601,2.7697,-9.3523,0.98522,1.7949
-0.12638,0.12698,6.8608,4.902,0.98522,8.438,5.8252,0.90615,-2.0065,4.902,0.98522,9.9502,5.7143,6.6032,1.0794,2.8846,4.8953,-5.9259,-2.7172,-1.9704,1.7949
-11.501,-2.7302,-0.90615,-0.98039,-0.98522,2.6409,3.8835,-2.9773,-0.06472,-0.98039,-0.98522,2.9851,0.95238,3.746,-6.5397,0.0,0.06441,-17.52,-1.7694,-5.9113,1.7949
-11.501,-4.6349,-5.7605,-2.9412,0.98522,-3.1562,0.0,-0.06472,1.877,-2.9412,0.98522,-2.9851,0.0,0.88889,-7.4921,-1.9231,-1.868,-3.9936,-1.7694,-3.9409,-1.0897
-17.188,-9.3968,-12.557,-9.8039,-5.9113,-11.852,-8.7379,-1.0356,-2.0065,-9.8039,-5.9113,-11.94,-1.9048,-2.9206,-8.4444,-5.7692,-4.7665,-4.9597,-1.7694,-2.9557,-3.9744
-10.553,-9.3968,-10.615,-7.8431,-5.9113,-7.9871,-8.7379,-0.06472,-2.0065,-7.8431,-5.9113,-10.945,0.95238,-2.9206,-2.7302,-5.7692,-2.8341,-9.7907,1.0742,0.98522,-3.9744
-1.0742,-7.4921,-4.7896,0.98039,-3.9409,-0.25765,-3.8835,-2.0065,-1.0356,0.98039,-3.9409,-3.9801,1.9048,-1.9683,2.0317,-5.7692,0.06441,7.6006,1.0742,0.0,-4.9359
-0.12638,-6.5397,-3.8188,0.98039,-2.9557,-1.2238,-2.9126,1.877,-2.9773,0.98039,-2.9557,-3.9801,1.9048,-1.9683,2.0317,-4.8077,-0.90177,3.7359,2.0221,-2.9557,-1.0897
0.82148,-6.5397,-4.7896,-3.9216,-3.9409,-2.19,-5.8252,-2.9773,-3.9482,-3.9216,-3.9409,-5.9701,-1.9048,-3.873,0.12698,-6.7308,-4.7665,1.8035,-1.7694,-4.9261,-2.0513
-0.12638,-4.6349,-4.7896,-2.9412,-4.9261,-3.1562,-4.8544,5.7605,-3.9482,-2.9412,-4.9261,-4.9751,-7.619,-7.6825,-2.7302,-5.7692,-7.6651,16.296,-2.7172,-6.8966,-2.0513
8.4044,-1.7778,-1.877,0.0,-3.9409,-0.25765,-5.8252,14.498,-4.9191,0.0,-3.9409,-2.9851,-9.5238,-9.5873,-1.7778,-4.8077,-7.6651,0.83736,-2.7172,-6.8966,-1.0897
8.4044,-0.8254,-2.8479,4.902,-1.9704,2.6409,-3.8835,15.469,-3.9482,4.902,-1.9704,-0.99502,-13.333,-11.492,-4.6349,-6.7308,-10.564,-8.8245,-2.7172,-8.867,-3.0128
4.613,1.0794,-1.877,12.745,2.9557,8.438,0.97087,7.7023,-1.0356,12.745,2.9557,3.9801,-16.190001,-15.302,-7.4921,-8.6538,-12.496,7.6006,-0.82148,-7.8818,-5.8974
7.4566,0.12698,1.0356,13.725,6.8966,17.134001,5.8252,2.8479,1.877,13.725,6.8966,8.9552,-16.190001,-16.254,-6.5397,-10.577,-13.462,21.127001,-1.7694,0.0,-7.8205
2.7172,0.12698,2.9773,9.8039,6.8966,14.235,7.767,18.382,1.877,9.8039,6.8966,10.945,-19.048,-19.111,-8.4444,-12.5,-14.428,9.533,-5.5608,-2.9557,-11.667
3.6651,2.0317,5.89,9.8039,5.9113,11.337,8.7379,21.294001,1.877,9.8039,5.9113,10.945,-16.190001,-16.254,-5.5873,-10.577,-10.564,0.83736,-4.613,-2.9557,-11.667
12.196,5.8413,11.715,11.765,8.867,16.167,10.68,10.615,1.877,11.765,8.867,13.93,-10.476,-9.5873,1.0794,-4.8077,-2.8341,7.6006,-0.82148,3.9409,-7.8205
13.144,6.7937,13.657,11.765,8.867,16.167,8.7379,8.6731,1.877,11.765,8.867,13.93,-4.7619,-4.8254,5.8413,-0.96154,2.963,13.398,-3.6651,7.8818,-4.9359
9.3523,4.8889,10.744,7.8431,6.8966,11.337,6.7961,7.7023,1.877,7.8431,6.8966,10.945,0.95238,0.88889,7.746,1.9231,6.8277,8.5668,-0.82148,11.823,-2.0513
-0.12638,-0.8254,2.9773,0.98039,-1.9704,2.6409,0.0,1.877,-2.9773,0.98039,-1.9704,0.99502,2.8571,4.6984,5.8413,2.8846,6.8277,5.6683,1.0742,7.8818,-0.12821
-3.9179,-4.6349,-2.8479,-3.9216,-2.9557,-7.0209,-3.8835,0.90615,-2.9773,-3.9216,-2.9557,-6.9652,3.8095,6.6032,4.8889,4.8077,6.8277,1.8035,2.97,5.9113,2.7564
-4.8657,-2.7302,-4.7896,-2.9412,-2.9557,-7.9871,-1.9417,-8.8026,-0.06472,-2.9412,-2.9557,-7.9602,4.7619,8.5079,2.0317,5.7692,6.8277,-12.689,4.8657,1.9704,5.641
-9.6051,0.12698,-5.7605,-2.9412,-1.9704,-14.75,-0.97087,-5.89,-1.0356,-2.9412,-1.9704,-7.9602,4.7619,9.4603,-1.7778,5.7692,4.8953,-13.655,2.97,-1.9704,6.6026
-16.24,2.9841,-7.7023,-6.8627,-4.9261,-17.649,-5.8252,-11.715,-2.9773,-6.8627,-4.9261,-12.935,1.9048,8.5079,-7.4921,6.7308,1.9968,-0.12882,5.8136,-6.8966,8.5256
-9.6051,4.8889,-2.8479,-7.8431,-5.9113,-12.818,-5.8252,-9.7735,-2.9773,-7.8431,-5.9113,-10.945,3.8095,10.413,-2.7302,8.6538,5.8615,2.7697,6.7615,-5.9113,10.449
-3.9179,1.0794,-1.877,-7.8431,-6.8966,-9.9195,-6.7961,-2.0065,-2.9773,-7.8431,-6.8966,-8.9552,5.7143,9.4603,1.0794,7.6923,5.8615,-6.8921,3.9179,-2.9557,7.5641
-3.9179,-6.5397,-4.7896,-5.8824,-8.867,-7.0209,-6.7961,-1.0356,-7.8317,-5.8824,-8.867,-7.9602,3.8095,6.6032,-0.8254,0.96154,1.0306,0.83736,-3.6651,-0.98522,2.7564
1.7694,-8.4444,-3.8188,-4.902,-6.8966,-3.1562,-5.8252,-5.89,-7.8317,-4.902,-6.8966,-3.9801,4.7619,5.6508,1.0794,-0.96154,1.0306,0.83736,-5.5608,0.0,0.83333
1.7694,-4.6349,-0.90615,0.98039,-3.9409,-2.19,-2.9126,-2.0065,-4.9191,0.98039,-3.9409,-1.99,9.5238,9.4603,4.8889,1.9231,4.8953,-3.0274,-4.613,3.9409,-0.12821
6.5087,1.0794,2.9773,-0.98039,-4.9261,3.6071,0.0,-1.0356,-6.8608,-0.98039,-4.9261,0.99502,16.190001,13.27,10.603,4.8077,8.7601,-3.0274,-5.5608,12.808,1.7949
16.934999,2.0317,4.9191,-0.98039,-4.9261,5.5395,0.97087,3.8188,-6.8608,-0.98039,-4.9261,2.9851,18.094999,14.222,13.46,4.8077,8.7601,0.83736,-6.5087,14.778,2.7564
0.82148,-2.7302,-0.90615,1.9608,-3.9409,-3.1562,-0.97087,14.498,-9.7735,1.9608,-3.9409,-0.99502,13.333,9.4603,4.8889,0.0,1.0306,19.195,-10.3,11.823,2.7564
-9.6051,-5.5873,-4.7896,-0.98039,-6.8966,0.70853,-2.9126,6.7314,-10.744,-0.98039,-6.8966,-0.99502,8.5714,5.6508,-1.7778,-3.8462,-4.7665,15.33,-8.4044,10.837,1.7949
-9.6051,-5.5873,-6.7314,-6.8627,-7.8818,-2.19,-4.8544,-1.0356,-10.744,-6.8627,-7.8818,-4.9751,6.6667,4.6984,-4.6349,-1.9231,-5.7327,-3.9936,-8.4044,5.9113,3.7179
-11.501,0.12698,-7.7023,-10.784,-11.823,-7.9871,-8.7379,-4.9191,-7.8317,-10.784,-11.823,-9.9502,7.619,8.5079,-3.6825,5.7692,-1.868,-6.8921,2.0221,5.9113,13.333
5.5608,5.8413,-2.8479,-13.725,-13.793,-2.19,-6.7961,-23.365999,-6.8608,-13.725,-13.793,-10.945,10.476,11.365,3.9365,13.462,4.8953,-10.757,12.449,7.8818,20.063999
-9.6051,3.9365,-8.6731,-22.549,-16.749001,-12.818,-11.65,-20.452999,0.90615,-22.549,-16.749001,-20.896,5.7143,7.5556,-1.7778,12.5,1.9968,-9.7907,13.397,1.9704,16.218
-17.188,2.0317,-11.586,-25.49,-18.719,-21.514,-13.592,-13.657,4.7896,-25.49,-18.719,-24.875999,1.9048,4.6984,-5.5873,10.577,0.06441,-23.316999,14.344,-1.9704,13.333
-6.7615,3.9365,-7.7023,-25.49,-18.719,-18.615,-13.592,-14.628,2.8479,-25.49,-18.719,-21.891001,4.7619,7.5556,0.12698,12.5,3.9291,-9.7907,12.449,0.98522,14.295
-4.8657,2.0317,-7.7023,-22.549,-15.764,-20.548,-13.592,-8.8026,3.8188,-22.549,-15.764,-21.891001,5.7143,6.6032,2.0317,12.5,4.8953,14.364,10.553,3.9409,14.295
-5.8136,-1.7778,-9.644,-25.49,-16.749001,-19.580999,-16.504999,-21.424,1.877,-25.49,-16.749001,-20.896,2.8571,3.746,1.0794,7.6923,1.9968,12.432,6.7615,1.9704,9.4872
-3.9179,-1.7778,-6.7314,-21.569,-12.808,-16.683001,-12.621,-21.424,1.877,-21.569,-12.808,-16.915001,1.9048,3.746,1.0794,6.7308,1.9968,0.83736,7.7093,2.9557,9.4872
-4.8657,0.12698,-2.8479,-18.627001,-9.8522,-16.683001,-5.8252,-16.57,2.8479,-18.627001,-9.8522,-9.9502,0.95238,3.746,0.12698,5.7692,1.0306,-4.9597,6.7615,-0.98522,5.641
-1.0742,6.7937,3.9482,-10.784,-0.98522,-6.0548,5.8252,-15.599,7.7023,-10.784,-0.98522,0.99502,3.8095,5.6508,2.9841,7.6923,4.8953,-8.8245,4.8657,-2.9557,3.7179
-1.0742,9.6508,9.7735,-3.9216,6.8966,0.70853,12.621,-7.8317,12.557,-3.9216,6.8966,8.9552,5.7143,6.6032,3.9365,8.6538,6.8277,-13.655,4.8657,-0.98522,4.6795
-0.12638,6.7937,10.744,-0.98039,12.808,7.4718,16.504999,-8.8026,14.498,-0.98039,12.808,13.93,2.8571,2.7937,1.0794,3.8462,2.963,-6.8921,2.0221,-3.9409,0.83333
1.7694,4.8889,10.744,4.902,17.733999,5.5395,17.476,1.877,14.498,4.902,17.733999,16.915001,0.0,-0.06349,-0.8254,0.0,1.0306,-6.8921,-0.82148,-4.9261,-0.12821
0.82148,1.0794,6.8608,7.8431,18.719,2.6409,12.621,4.7896,15.469,7.8431,18.719,14.925,-2.8571,-3.873,-0.8254,-3.8462,-1.868,-17.52,2.0221,-6.8966,-3.0128
-1.0742,-4.6349,0.06472,4.902,11.823,-0.25765,2.9126,-5.89,8.6731,4.902,11.823,6.9652,-6.6667,-7.6825,-2.7302,-8.6538,-6.6989,-10.757,3.9179,-8.867,-3.9744
7.4566,-3.6825,0.06472,2.9412,6.8966,9.4042,0.0,-23.365999,6.7314,2.9412,6.8966,4.9751,-4.7619,-5.7778,-0.8254,-5.7692,-4.7665,-1.095,7.7093,-2.9557,-0.12821
-2.0221,-1.7778,-2.8479,3.9216,7.8818,5.5395,2.9126,-3.9482,7.7023,3.9216,7.8818,3.9801,-4.7619,-3.873,-4.6349,-4.8077,-6.6989,0.83736,8.6572,-4.9261,0.83333
-11.501,-2.7302,-9.644,3.9216,6.8966,-4.1224,0.97087,10.615,8.6731,3.9216,6.8966,-1.99,-8.5714,-6.7302,-11.302,-6.7308,-12.496,-6.8921,2.97,-11.823,-0.12821
-7.7093,-0.8254,-10.615,5.8824,4.9261,-3.1562,0.0,-0.06472,7.7023,5.8824,4.9261,-3.9801,-6.6667,-3.873,-9.3968,-4.8077,-11.53,-22.351,2.0221,-6.8966,2.7564
-3.9179,0.12698,-8.6731,3.9216,3.9409,-3.1562,-1.9417,2.8479,7.7023,3.9216,3.9409,-6.9652,0.95238,0.88889,-3.6825,0.0,-4.7665,-4.9597,7.7093,0.98522,4.6795
0.82148,-0.8254,-7.7023,0.0,2.9557,-2.19,-3.8835,-0.06472,3.8188,0.0,2.9557,-7.9602,4.7619,3.746,0.12698,3.8462,-1.868,0.83736,6.7615,6.8966,6.6026
-1.0742,-1.7778,-9.644,-1.9608,-0.98522,-4.1224,-5.8252,5.7605,0.90615,-1.9608,-0.98522,-10.945,2.8571,2.7937,-1.7778,1.9231,-3.8003,-4.9597,3.9179,6.8966,3.7179
8.4044,-2.7302,-7.7023,0.0,0.98522,-2.19,-4.8544,-4.9191,1.877,0.0,0.98522,-7.9602,1.9048,0.88889,0.12698,0.0,-3.8003,11.465,2.0221,10.837,1.7949
-2.97,-5.5873,-10.615,-0.98039,0.0,-7.9871,-7.767,1.877,2.8479,-0.98039,0.0,-10.945,0.95238,-1.9683,-2.7302,-2.8846,-5.7327,17.261999,0.12638,8.867,-3.0128
-9.6051,-5.5873,-8.6731,1.9608,0.0,-6.0548,-5.8252,-6.8608,1.877,1.9608,0.0,-9.9502,-0.95238,-3.873,-3.6825,-3.8462,-3.8003,1.8035,-0.82148,1.9704,-7.8205
7.4566,-0.8254,0.06472,2.9412,3.9409,9.4042,1.9417,-15.599,5.7605,2.9412,3.9409,-1.99,0.95238,-2.9206,4.8889,-2.8846,1.9968,-6.8921,-2.7172,5.9113,-9.7436
3.6651,1.0794,3.9482,6.8627,7.8818,1.6747,4.8544,9.644,9.644,6.8627,7.8818,0.99502,-1.9048,-5.7778,4.8889,-4.8077,1.9968,16.296,-2.7172,1.9704,-14.551
2.7172,4.8889,10.744,9.8039,10.837,-3.1562,9.7087,18.382,11.586,9.8039,10.837,6.9652,-2.8571,-6.7302,6.7937,-2.8846,4.8953,14.364,1.0742,0.0,-11.667
8.4044,8.6984,17.540001,11.765,12.808,8.438,13.592,10.615,14.498,11.765,12.808,15.92,0.0,-6.7302,11.556,0.0,9.7262,-3.0274,6.7615,-0.98522,-10.705
4.613,6.7937,14.628,13.725,13.793,8.438,11.65,13.528,13.528,13.725,13.793,16.915001,-2.8571,-8.6349,8.6984,-0.96154,6.8277,9.533,4.8657,-1.9704,-10.705
5.5608,4.8889,10.744,11.765,11.823,9.4042,9.7087,3.8188,10.615,11.765,11.823,12.935,-4.7619,-8.6349,4.8889,-2.8846,2.963,4.7021,2.0221,-6.8966,-8.7821
-2.0221,1.0794,3.9482,7.8431,5.9113,3.6071,3.8835,5.7605,3.8188,7.8431,5.9113,5.9701,-8.5714,-10.54,-2.7302,-6.7308,-1.868,-7.8583,-5.5608,-12.808,-10.705
-3.9179,-1.7778,0.06472,3.9216,0.0,-1.2238,-1.9417,1.877,-0.06472,3.9216,0.0,0.0,-9.5238,-8.6349,-6.5397,-6.7308,-4.7665,-27.181999,-1.7694,-14.778,-10.705
-1.0742,-1.7778,-1.877,2.9412,-0.98522,-1.2238,-2.9126,-5.89,0.90615,2.9412,-0.98522,-0.99502,-7.619,-4.8254,-6.5397,-3.8462,-3.8003,-9.7907,-0.82148,-14.778,-3.0128
-2.97,-2.7302,-3.8188,4.902,-2.9557,0.70853,-4.8544,-2.0065,-2.9773,4.902,-2.9557,-1.99,-6.6667,-2.9206,-6.5397,-2.8846,-4.7665,11.465,-2.7172,-11.823,-3.0128
-2.97,-1.7778,-1.877,7.8431,0.98522,1.6747,0.0,-5.89,-3.9482,7.8431,0.98522,1.99,-5.7143,-1.9683,-6.5397,-1.9231,-4.7665,11.465,0.12638,-8.867,-3.0128
1.7694,2.0317,1.0356,9.8039,3.9409,9.4042,4.8544,-0.06472,0.90615,9.8039,3.9409,7.9602,-2.8571,-1.0159,-3.6825,0.0,-2.8341,8.5668,-0.82148,-3.9409,-0.12821
0.82148,2.0317,-0.90615,6.8627,3.9409,6.5056,3.8835,21.294001,0.90615,6.8627,3.9409,4.9751,-1.9048,-1.9683,-3.6825,0.0,-3.8003,7.6006,-1.7694,-0.98522,-0.12821
3.6651,-0.8254,-3.8188,0.98039,0.0,1.6747,-1.9417,15.469,-1.0356,0.98039,0.0,-0.99502,-0.95238,-1.0159,-1.7778,0.0,-3.8003,0.83736,0.12638,-2.9557,-2.0513
14.092,-0.8254,-2.8479,0.0,0.0,0.70853,-4.8544,5.7605,-1.0356,0.0,0.0,-3.9801,2.8571,2.7937,3.9365,2.8846,1.0306,-12.689,0.12638,0.0,-1.0897
0.82148,-5.5873,-5.7605,0.98039,-0.98522,-5.0886,-8.7379,3.8188,-2.9773,0.98039,-0.98522,-9.9502,3.8095,2.7937,3.9365,1.9231,0.06441,-4.9597,-4.613,2.9557,-1.0897
-3.9179,-8.4444,-6.7314,-0.98039,-1.9704,-2.19,-8.7379,2.8479,-2.9773,-0.98039,-1.9704,-9.9502,4.7619,1.8413,3.9365,-0.96154,-0.90177,17.261999,-5.5608,4.9261,-3.0128
4.613,-5.5873,-1.877,0.0,-2.9557,-0.25765,-4.8544,11.586,-2.0065,0.0,-2.9557,-6.9652,6.6667,2.7937,7.746,0.0,1.0306,22.093,-3.6651,7.8818,-3.0128
3.6651,-4.6349,-0.90615,-2.9412,-5.9113,-3.1562,-8.7379,6.7314,-5.89,-2.9412,-5.9113,-8.9552,8.5714,2.7937,6.7937,0.0,1.0306,18.229,-2.7172,8.867,-2.0513
4.613,-5.5873,-0.90615,-4.902,-5.9113,-0.25765,-9.7087,-4.9191,-8.8026,-4.902,-5.9113,-7.9602,5.7143,0.88889,3.9365,-1.9231,-0.90177,-2.0612,-4.613,3.9409,-3.9744
5.5608,-6.5397,-0.90615,0.98039,-1.9704,4.5733,-6.7961,-1.0356,-5.89,0.98039,-1.9704,-1.99,4.7619,-0.06349,2.0317,-4.8077,-2.8341,-6.8921,-6.5087,2.9557,-6.859
-0.12638,-9.3968,-0.90615,7.8431,1.9704,2.6409,-3.8835,11.586,-2.9773,7.8431,1.9704,0.99502,2.8571,-1.9683,-0.8254,-8.6538,-4.7665,8.5668,-6.5087,1.9704,-8.7821
3.6651,-10.349,0.06472,8.8235,1.9704,5.5395,0.0,5.7605,-2.9773,8.8235,1.9704,4.9751,-0.95238,-5.7778,-1.7778,-13.462,-7.6651,-3.9936,-9.3523,-2.9557,-12.628
-2.97,-7.4921,2.0065,6.8627,2.9557,4.5733,3.8835,2.8479,-3.9482,6.8627,2.9557,8.9552,-5.7143,-10.54,-6.5397,-16.346001,-10.564,-6.8921,-11.248,-8.867,-14.551
-6.7615,-3.6825,2.9773,2.9412,1.9704,2.6409,3.8835,-2.9773,-2.0065,2.9412,1.9704,8.9552,-10.476,-12.444,-9.3968,-14.423,-10.564,-6.8921,-5.5608,-11.823,-13.59
-4.8657,4.8889,4.9191,0.98039,3.9409,-3.1562,6.7961,-3.9482,2.8479,0.98039,3.9409,7.9602,-8.5714,-8.6349,-7.4921,-4.8077,-4.7665,1.8035,7.7093,-8.867,-3.0128
-7.7093,11.556,5.89,-1.9608,2.9557,-7.9871,7.767,-6.8608,4.7896,-1.9608,2.9557,2.9851,-6.6667,-4.8254,-5.5873,3.8462,0.06441,6.6345,12.449,-5.9113,5.641
-4.8657,15.365,6.8608,-3.9216,3.9409,-5.0886,8.7379,-15.599,4.7896,-3.9216,3.9409,2.9851,-5.7143,-2.9206,-2.7302,8.6538,3.9291,-5.9259,12.449,-5.9113,9.4872
-3.9179,16.316999,7.8317,-2.9412,2.9557,-4.1224,9.7087,-9.7735,4.7896,-2.9412,2.9557,3.9801,-3.8095,-1.0159,-0.8254,10.577,6.8277,-10.757,13.397,0.0,9.4872
0.82148,12.508,8.8026,-0.98039,2.9557,-2.19,7.767,-1.0356,0.90615,-0.98039,2.9557,5.9701,-2.8571,-0.06349,2.9841,9.6154,8.7601,-2.0612,5.8136,0.98522,7.5641
6.5087,9.6508,10.744,2.9412,1.9704,4.5733,5.8252,-2.9773,-1.0356,2.9412,1.9704,8.9552,-1.9048,-1.0159,5.8413,6.7308,8.7601,0.83736,0.12638,1.9704,6.6026
10.3,6.7937,11.715,8.8235,3.9409,13.269,5.8252,-6.8608,-0.06472,8.8235,3.9409,10.945,0.95238,0.88889,10.603,5.7692,10.692,-12.689,2.97,4.9261,6.6026
14.092,6.7937,10.744,12.745,3.9409,17.134001,5.8252,-8.8026,0.90615,12.745,3.9409,10.945,2.8571,2.7937,13.46,6.7308,11.659,4.7021,3.9179,5.9113,6.6026
8.4044,6.7937,7.8317,10.784,4.9261,7.4718,4.8544,11.586,-0.06472,10.784,4.9261,6.9652,4.7619,5.6508,12.508,8.6538,12.625,10.499,-1.7694,6.8966,6.6026
5.5608,4.8889,3.9482,5.8824,3.9409,0.70853,0.97087,15.469,-2.0065,5.8824,3.9409,1.99,5.7143,7.5556,11.556,9.6154,10.692,5.6683,-0.82148,5.9113,7.5641
-0.12638,2.9841,0.06472,1.9608,0.0,-3.1562,-0.97087,13.528,-3.9482,1.9608,0.0,-1.99,5.7143,6.6032,6.7937,5.7692,5.8615,11.465,-4.613,5.9113,3.7179
-3.9179,0.12698,-1.877,0.0,-0.98522,-0.25765,0.97087,7.7023,-4.9191,0.0,-0.98522,-0.99502,4.7619,4.6984,2.0317,1.9231,1.9968,7.6006,-6.5087,3.9409,-0.12821
-3.9179,-1.7778,-3.8188,0.0,1.9704,1.6747,0.97087,4.7896,-0.06472,0.0,1.9704,0.0,4.7619,2.7937,-0.8254,0.0,-1.868,10.499,-6.5087,2.9557,-3.0128
-4.8657,-5.5873,-5.7605,0.98039,1.9704,-1.2238,0.97087,-1.0356,-0.06472,0.98039,1.9704,0.0,0.95238,-2.9206,-4.6349,-4.8077,-5.7327,1.8035,-11.248,1.9704,-6.859
-1.0742,-9.3968,-5.7605,2.9412,0.98522,3.6071,-0.97087,-2.0065,-2.9773,2.9412,0.98522,1.99,-3.8095,-6.7302,-6.5397,-7.6923,-9.5974,-11.723,-9.3523,-0.98522,-7.8205
-11.501,-16.063,-11.586,3.9216,0.98522,-6.0548,-5.8252,5.7605,-2.9773,3.9216,0.98522,-2.9851,-12.381,-14.349,-17.016001,-16.346001,-18.292999,-3.0274,-10.3,-7.8818,-13.59
-20.032,-18.921,-16.440001,-2.9412,-4.9261,-14.75,-9.7087,0.90615,-2.9773,-2.9412,-4.9261,-9.9502,-19.048,-19.111,-24.635,-21.153999,-25.056,-12.689,-6.5087,-12.808,-14.551
-14.344,-17.016001,-14.498,-4.902,-4.9261,-7.9871,-7.767,-11.715,-2.9773,-4.902,-4.9261,-6.9652,-20.0,-18.159,-23.683001,-21.153999,-26.023001,-25.25,4.8657,-12.808,-6.859
-14.344,-15.111,-14.498,-6.8627,-7.8818,-6.0548,-9.7087,-8.8026,-3.9482,-6.8627,-7.8818,-7.9602,-20.0,-18.159,-22.73,-21.153999,-25.056,-2.0612,4.8657,-11.823,-5.8974
-3.9179,-13.206,-11.586,-5.8824,-9.8522,-1.2238,-11.65,-10.744,-6.8608,-5.8824,-9.8522,-6.9652,-20.952,-18.159,-18.921,-19.231001,-22.158001,1.8035,3.9179,-8.867,-4.9359
-8.6572,-11.302,-11.586,-4.902,-13.793,-7.9871,-14.563,4.7896,-10.744,-4.902,-13.793,-9.9502,-21.905001,-17.205999,-17.968,-16.346001,-19.259001,-6.8921,2.0221,-11.823,-4.9359
-2.97,-4.6349,-4.7896,-2.9412,-11.823,-5.0886,-6.7961,6.7314,-10.744,-2.9412,-11.823,-5.9701,-16.190001,-11.492,-11.302,-8.6538,-11.53,7.6006,1.0742,-6.8966,-1.0897
0.82148,2.0317,1.0356,-2.9412,-8.867,1.6747,-2.9126,0.90615,-8.8026,-2.9412,-8.867,-0.99502,-11.429,-6.7302,-6.5397,-2.8846,-5.7327,7.6006,2.97,-4.9261,1.7949
-1.0742,3.9365,2.0065,0.98039,-4.9261,3.6071,0.97087,5.7605,-5.89,0.98039,-4.9261,1.99,-10.476,-4.8254,-4.6349,-0.96154,-2.8341,8.5668,0.12638,-4.9261,-0.12821
6.5087,6.7937,6.8608,7.8431,0.0,10.37,5.8252,6.7314,-3.9482,7.8431,0.0,9.9502,-6.6667,-2.9206,2.0317,1.9231,2.963,-5.9259,-0.82148,-0.98522,-2.0513
15.039,11.556,14.628,11.765,3.9409,16.167,12.621,19.353001,-0.06472,11.765,3.9409,16.915001,-0.95238,0.88889,8.6984,6.7308,9.7262,1.8035,-0.82148,2.9557,-0.12821
15.987,12.508,16.57,11.765,3.9409,18.1,14.563,9.644,-0.06472,11.765,3.9409,17.91,-2.8571,-1.9683,9.6508,5.7692,10.692,10.499,0.12638,0.98522,-0.12821
13.144,8.6984,15.599,8.8235,0.98522,16.167,12.621,7.7023,-2.0065,8.8235,0.98522,16.915001,-6.6667,-6.7302,7.746,0.96154,7.7939,12.432,0.12638,-1.9704,-4.9359
14.092,5.8413,14.628,13.725,5.9113,11.337,11.65,22.264999,-1.0356,13.725,5.9113,15.92,-4.7619,-6.7302,9.6508,-1.9231,5.8615,25.958,-4.613,-0.98522,-6.859
20.726999,1.0794,11.715,9.8039,5.9113,10.37,4.8544,13.528,-2.9773,9.8039,5.9113,11.94,-3.8095,-6.7302,10.603,-5.7692,2.963,8.5668,-10.3,-0.98522,-7.8205
16.934999,-5.5873,7.8317,3.9216,1.9704,14.235,0.0,-2.0065,-7.8317,3.9216,1.9704,8.9552,-2.8571,-6.7302,7.746,-8.6538,-1.868,-0.12882,-12.196,3.9409,-9.7436
-2.0221,-11.302,-1.877,1.9608,-0.98522,4.5733,-6.7961,1.877,-7.8317,1.9608,-0.98522,0.0,-1.9048,-6.7302,0.12698,-11.538,-7.6651,-0.12882,-13.144,6.8966,-9.7436
-5.8136,-13.206,-5.7605,-0.98039,-1.9704,-3.1562,-8.7379,0.90615,-9.7735,-0.98039,-1.9704,-4.9751,0.95238,-4.8254,-1.7778,-9.6154,-7.6651,2.7697,-15.987,8.867,-8.7821
-4.8657,-13.206,-5.7605,-4.902,-2.9557,-11.852,-9.7087,-2.9773,-8.8026,-4.902,-2.9557,-8.9552,7.619,-0.06349,1.0794,-5.7692,-2.8341,4.7021,-16.934999,12.808,-8.7821
-3.9179,-12.254,-6.7314,-7.8431,-3.9409,-10.886,-7.767,-18.511,-7.8317,-7.8431,-3.9409,-8.9552,9.5238,1.8413,2.9841,-4.8077,-0.90177,-2.0612,-14.092,14.778,-5.8974
-0.12638,-7.4921,-4.7896,-14.706,-7.8818,-7.9871,-9.7087,-24.337,-9.7735,-14.706,-7.8818,-9.9502,12.381,4.6984,4.8889,-1.9231,1.9968,2.7697,-5.5608,15.764,-2.0513
-6.7615,-4.6349,-6.7314,-17.646999,-9.8522,-17.649,-8.7379,-7.8317,-7.8317,-17.646999,-9.8522,-13.93,14.286,6.6032,2.9841,0.0,1.9968,-4.9597,-2.7172,14.778,2.7564
-2.97,0.12698,-4.7896,-15.686,-9.8522,-15.717,-5.8252,-11.715,-3.9482,-15.686,-9.8522,-12.935,17.143,11.365,5.8413,5.7692,5.8615,-13.655,3.9179,15.764,7.5641
1.7694,7.746,0.06472,-11.765,-3.9409,-8.9533,0.0,-19.482,1.877,-11.765,-3.9409,-7.9602,18.094999,16.127001,9.6508,13.462,12.625,-4.9597,8.6572,15.764,14.295
-0.12638,12.508,5.89,-9.8039,-1.9704,-8.9533,3.8835,-13.657,3.8188,-9.8039,-1.9704,-2.9851,18.094999,18.983999,10.603,19.231001,17.455999,-6.8921,12.449,13.793,17.179001
-0.12638,17.27,12.686,-7.8431,0.98522,-4.1224,8.7379,-18.511,5.7605,-7.8431,0.98522,2.9851,20.952,22.794001,14.413,25.0,24.219,0.83736,15.292,10.837,19.103001
1.7694,18.222,15.599,-10.784,1.9704,-5.0886,10.68,-12.686,7.7023,-10.784,1.9704,3.9801,23.809999,27.556,16.316999,27.885,29.049999,3.7359,17.188,7.8818,21.987
9.3523,20.127001,16.57,-5.8824,5.9113,0.70853,10.68,-12.686,8.6731,-5.8824,5.9113,5.9701,27.618999,32.317001,21.079,30.768999,32.915001,-15.588,14.344,7.8818,23.91
7.4566,18.222,13.657,2.9412,7.8818,2.6409,10.68,-0.06472,8.6731,2.9412,7.8818,7.9602,26.667,32.317001,20.127001,29.808001,30.982,-13.655,10.553,9.8522,22.948999
3.6651,14.413,10.744,3.9216,7.8818,3.6071,9.7087,1.877,7.7023,3.9216,7.8818,8.9552,21.905001,26.603001,15.365,23.077,24.219,1.8035,7.7093,3.9409,17.179001
3.6651,9.6508,11.715,7.8431,10.837,10.37,13.592,9.644,7.7023,7.8431,10.837,14.925,15.238,20.889,9.6508,15.385,17.455999,17.261999,6.7615,0.0,11.41
6.5087,6.7937,11.715,10.784,11.823,17.134001,16.504999,14.498,4.7896,10.784,11.823,17.91,9.5238,17.079,4.8889,10.577,10.692,7.6006,5.8136,-4.9261,7.5641
3.6651,5.8413,7.8317,10.784,13.793,13.269,18.447001,9.644,6.7314,10.784,13.793,17.91,-0.95238,8.5079,-3.6825,3.8462,1.9968,1.8035,2.0221,-10.837,2.7564
-1.0742,5.8413,2.9773,12.745,13.793,10.37,16.504999,7.7023,15.469,12.745,13.793,15.92,-11.429,-0.06349,-10.349,-0.96154,-6.6989,4.7021,4.8657,-13.793,0.83333
-1.0742,4.8889,1.0356,14.706,12.808,8.438,11.65,9.644,13.528,14.706,12.808,12.935,-16.190001,-5.7778,-11.302,-2.8846,-11.53,10.499,5.8136,-13.793,-2.0513
2.7172,7.746,1.0356,7.8431,6.8966,9.4042,7.767,11.586,6.7314,7.8431,6.8966,7.9602,-17.143,-8.6349,-8.4444,-1.9231,-10.564,-20.419001,0.12638,-11.823,-3.0128
5.5608,10.603,3.9482,1.9608,4.9261,6.5056,8.7379,8.6731,5.7605,1.9608,4.9261,6.9652,-11.429,-5.7778,-2.7302,2.8846,-3.8003,-3.0274,1.0742,-4.9261,-1.0897
9.3523,8.6984,5.89,-0.98039,1.9704,3.6071,2.9126,1.877,3.8188,-0.98039,1.9704,2.9851,-3.8095,-1.9683,3.9365,4.8077,1.9968,14.364,2.97,2.9557,-1.0897
-2.0221,0.12698,-1.877,-4.902,-3.9409,-6.0548,-5.8252,2.8479,-0.06472,-4.902,-3.9409,-6.9652,-1.9048,-1.0159,0.12698,1.9231,-0.90177,6.6345,-0.82148,0.98522,-1.0897
-7.7093,-6.5397,-9.644,-10.784,-7.8818,-8.9533,-14.563,-15.599,-2.9773,-10.784,-7.8818,-14.925,0.95238,1.8413,-2.7302,0.96154,-1.868,4.7021,-6.5087,2.9557,1.7949
-4.8657,-9.3968,-12.557,-15.686,-9.8522,-10.886,-15.534,-16.57,-2.9773,-15.686,-9.8522,-17.91,3.8095,3.746,-1.7778,0.0,-2.8341,-5.9259,-4.613,6.8966,4.6795
-9.6051,-8.4444,-12.557,-14.706,-8.867,-14.75,-12.621,-8.8026,-3.9482,-14.706,-8.867,-16.915001,3.8095,5.6508,-3.6825,0.0,-3.8003,0.83736,-4.613,3.9409,5.641
-13.397,-2.7302,-9.644,-7.8431,-5.9113,-12.818,-6.7961,-1.0356,-2.0065,-7.8431,-5.9113,-11.94,4.7619,6.6032,-5.5873,0.96154,-2.8341,-7.8583,-1.7694,0.98522,7.5641
-13.397,2.0317,-7.7023,-8.8235,-3.9409,-9.9195,-1.9417,1.877,-2.9773,-8.8235,-3.9409,-7.9602,3.8095,5.6508,-8.4444,1.9231,-4.7665,-14.622,-2.7172,0.98522,6.6026
-11.501,3.9365,-5.7605,-6.8627,0.0,-4.1224,0.97087,-4.9191,-1.0356,-6.8627,0.0,-2.9851,4.7619,7.5556,-9.3968,3.8462,-4.7665,-1.095,0.12638,2.9557,8.5256
-11.501,1.0794,-5.7605,-2.9412,2.9557,-5.0886,0.0,-4.9191,0.90615,-2.9412,2.9557,-1.99,1.9048,5.6508,-10.349,1.9231,-6.6989,-8.8245,0.12638,0.98522,7.5641
-5.8136,0.12698,-2.8479,1.9608,3.9409,-5.0886,0.0,0.90615,0.90615,1.9608,3.9409,0.0,0.95238,4.6984,-5.5873,3.8462,-3.8003,-9.7907,-1.7694,-3.9409,8.5256
9.3523,4.8889,7.8317,8.8235,9.8522,5.5395,6.7961,-1.0356,4.7896,8.8235,9.8522,7.9602,6.6667,7.5556,6.7937,9.6154,7.7939,-13.655,0.12638,-0.98522,8.5256
16.934999,2.0317,8.8026,7.8431,6.8966,9.4042,3.8835,2.8479,3.8188,7.8431,6.8966,7.9602,5.7143,4.6984,10.603,4.8077,8.7601,7.6006,-4.613,1.9704,2.7564
15.039,-0.8254,5.89,4.902,2.9557,9.4042,0.97087,-3.9482,-1.0356,4.902,2.9557,4.9751,0.95238,-1.0159,8.6984,-0.96154,5.8615,19.195,-1.7694,-0.98522,-1.0897
15.039,0.12698,7.8317,3.9216,0.98522,11.337,2.9126,4.7896,-0.06472,3.9216,0.98522,5.9701,0.0,-1.9683,8.6984,-0.96154,5.8615,19.195,2.97,-1.9704,-2.0513
20.726999,0.12698,9.7735,9.8039,3.9409,9.4042,2.9126,19.353001,1.877,9.8039,3.9409,6.9652,2.8571,-0.06349,11.556,0.0,8.7601,15.33,2.97,0.0,-2.0513
15.987,-4.6349,4.9191,5.8824,-1.9704,6.5056,-4.8544,12.557,-1.0356,5.8824,-1.9704,1.99,4.7619,1.8413,9.6508,0.96154,6.8277,5.6683,-0.82148,2.9557,0.83333
4.613,-12.254,-2.8479,-1.9608,-7.8818,3.6071,-11.65,0.90615,-4.9191,-1.9608,-7.8818,-4.9751,2.8571,0.88889,3.9365,-2.8846,1.0306,13.398,-5.5608,3.9409,-1.0897
-7.7093,-17.016001,-12.557,-7.8431,-10.837,-10.886,-18.447001,5.7605,-6.8608,-7.8431,-10.837,-12.935,1.9048,-0.06349,-4.6349,-7.6923,-5.7327,0.83736,-6.5087,1.9704,-3.0128
-9.6051,-13.206,-14.498,-5.8824,-5.9113,-10.886,-13.592,-6.8608,-2.0065,-5.8824,-5.9113,-12.935,5.7143,4.6984,-5.5873,-5.7692,-6.6989,-3.9936,-2.7172,2.9557,0.83333
-2.97,-9.3968,-11.586,-4.902,-4.9261,-7.0209,-10.68,-8.8026,-1.0356,-4.902,-4.9261,-10.945,9.5238,7.5556,-3.6825,-2.8846,-5.7327,-0.12882,-0.82148,8.867,1.7949
-13.397,-12.254,-15.469,-5.8824,-9.8522,-11.852,-13.592,5.7605,-4.9191,-5.8824,-9.8522,-12.935,5.7143,3.746,-10.349,-6.7308,-10.564,-5.9259,-1.7694,3.9409,0.83333
-12.449,-9.3968,-12.557,0.0,-7.8818,-7.9871,-9.7087,5.7605,-2.9773,0.0,-7.8818,-7.9602,2.8571,2.7937,-10.349,-6.7308,-10.564,2.7697,-4.613,0.98522,0.83333
-6.7615,-6.5397,-9.644,-1.9608,-5.9113,-1.2238,-4.8544,-5.89,-0.06472,-1.9608,-5.9113,-3.9801,2.8571,4.6984,-6.5397,-4.8077,-7.6651,-2.0612,1.0742,0.98522,-1.0897
-5.8136,-7.4921,-11.586,-1.9608,-3.9409,-3.1562,-5.8252,-2.0065,0.90615,-1.9608,-3.9409,-4.9751,0.95238,1.8413,-5.5873,-5.7692,-7.6651,-3.9936,1.0742,-0.98522,-3.0128
-0.12638,-5.5873,-8.6731,6.8627,1.9704,1.6747,-1.9417,10.615,2.8479,6.8627,1.9704,0.0,-2.8571,-0.06349,-1.7778,-5.7692,-6.6989,10.499,0.12638,-2.9557,-4.9359
5.5608,-2.7302,-2.8479,9.8039,4.9261,8.438,1.9417,4.7896,3.8188,9.8039,4.9261,3.9801,-4.7619,-1.9683,1.0794,-3.8462,-3.8003,15.33,4.8657,-2.9557,-3.9744
7.4566,1.0794,0.06472,4.902,1.9704,4.5733,0.97087,2.8479,3.8188,4.902,1.9704,3.9801,-6.6667,-2.9206,2.0317,-1.9231,-1.868,0.83736,3.9179,-4.9261,-3.0128
7.4566,3.9365,4.9191,2.9412,2.9557,4.5733,4.8544,8.6731,2.8479,2.9412,2.9557,5.9701,-6.6667,-4.8254,2.9841,-1.9231,1.0306,-7.8583,2.97,-6.8966,-4.9359
13.144,7.746,12.686,7.8431,6.8966,11.337,10.68,8.6731,3.8188,7.8431,6.8966,13.93,-4.7619,-4.8254,6.7937,-0.96154,4.8953,3.7359,5.8136,-1.9704,-4.9359
18.830999,12.508,19.482,13.725,13.793,19.066,18.447001,5.7605,6.7314,13.725,13.793,20.896,-1.9048,-4.8254,11.556,1.9231,9.7262,9.533,6.7615,-0.98522,-5.8974
10.3,12.508,18.511,13.725,12.808,14.235,19.417,10.615,6.7314,13.725,12.808,19.9,-0.95238,-5.7778,9.6508,2.8846,9.7262,1.8035,2.0221,-2.9557,-5.8974
-0.12638,6.7937,11.715,5.8824,9.8522,7.4718,12.621,5.7605,3.8188,5.8824,9.8522,12.935,-0.95238,-3.873,3.9365,1.9231,7.7939,-10.757,-0.82148,-4.9261,-3.9744
-6.7615,1.0794,4.9191,0.0,5.9113,-1.2238,2.9126,-3.9482,0.90615,0.0,5.9113,2.9851,-0.95238,-1.9683,-0.8254,0.96154,4.8953,-15.588,2.0221,-8.867,-0.12821
-10.553,-2.7302,-1.877,-0.98039,4.9261,-7.0209,-0.97087,-4.9191,4.7896,-0.98039,4.9261,-2.9851,-1.9048,-1.9683,-5.5873,0.0,1.0306,-11.723,9.6051,-7.8818,-0.12821
-13.397,-4.6349,-6.7314,-2.9412,3.9409,-8.9533,-0.97087,-13.657,6.7314,-2.9412,3.9409,-4.9751,-5.7143,-5.7778,-11.302,-4.8077,-4.7665,-20.419001,10.553,-12.808,-3.0128
-20.979,-3.6825,-10.615,-4.902,2.9557,-8.9533,0.97087,-22.395,10.615,-4.902,2.9557,-4.9751,-9.5238,-8.6349,-18.921,-6.7308,-10.564,-13.655,9.6051,-16.749001,-3.9744
-19.084,0.12698,-8.6731,-0.98039,5.9113,-8.9533,3.8835,-5.89,14.498,-0.98039,5.9113,-1.99,-9.5238,-7.6825,-17.016001,-4.8077,-10.564,-8.8245,10.553,-13.793,-3.0128
-9.6051,1.0794,-6.7314,1.9608,6.8966,-6.0548,3.8835,6.7314,12.557,1.9608,6.8966,-1.99,-8.5714,-7.6825,-10.349,-3.8462,-8.6312,-2.0612,12.449,-5.9113,-2.0513
-2.0221,-1.7778,-7.7023,0.98039,3.9409,-4.1224,-0.97087,7.7023,5.7605,0.98039,3.9409,-5.9701,-6.6667,-7.6825,-3.6825,-3.8462,-7.6651,13.398,7.7093,1.9704,-2.0513
3.6651,-0.8254,-5.7605,0.98039,0.98522,-2.19,-5.8252,9.644,2.8479,0.98039,0.98522,-8.9552,-1.9048,-3.873,4.8889,0.0,-1.868,23.059999,2.97,10.837,-0.12821
10.3,2.9841,-1.877,0.98039,-1.9704,-0.25765,-6.7961,10.615,-0.06472,0.98039,-1.9704,-8.9552,4.7619,1.8413,11.556,4.8077,4.8953,17.261999,4.8657,16.749001,3.7179
13.144,5.8413,1.0356,-2.9412,-6.8966,3.6071,-6.7961,1.877,-3.9482,-2.9412,-6.8966,-7.9602,11.429,7.5556,15.365,10.577,9.7262,1.8035,6.7615,17.733999,9.4872
12.196,6.7937,2.9773,-7.8431,-9.8522,1.6747,-5.8252,-0.06472,-7.8317,-7.8431,-9.8522,-6.9652,16.190001,12.317,18.222,14.423,14.557,10.499,2.97,19.704,12.372
13.144,8.6984,6.8608,-4.902,-8.867,0.70853,-2.9126,5.7605,-7.8317,-4.902,-8.867,-2.9851,20.952,15.175,22.032,16.346001,17.455999,14.364,-0.82148,23.645,13.333
15.039,7.746,7.8317,2.9412,-7.8818,8.438,0.97087,-0.06472,-12.686,2.9412,-7.8818,2.9851,19.048,15.175,19.174999,14.423,15.523,6.6345,-0.82148,19.704,12.372
13.144,8.6984,8.8026,-0.98039,-4.9261,6.5056,3.8835,5.7605,-8.8026,-0.98039,-4.9261,4.9751,16.190001,13.27,16.316999,13.462,12.625,-3.9936,-2.7172,13.793,9.4872
11.248,9.6508,10.744,0.0,0.0,6.5056,7.767,14.498,-3.9482,0.0,0.0,8.9552,15.238,12.317,14.413,12.5,12.625,5.6683,-3.6651,10.837,8.5256
10.3,8.6984,11.715,1.9608,-0.98522,11.337,8.7379,6.7314,-4.9191,1.9608,-0.98522,9.9502,14.286,12.317,13.46,12.5,13.591,13.398,-3.6651,7.8818,9.4872
9.3523,6.7937,10.744,3.9216,0.98522,10.37,7.767,8.6731,-4.9191,3.9216,0.98522,9.9502,11.429,12.317,8.6984,11.538,11.659,10.499,0.12638,4.9261,10.449
-6.7615,-0.8254,2.0065,0.98039,-0.98522,3.6071,1.9417,1.877,-5.89,0.98039,-0.98522,4.9751,0.0,4.6984,-6.5397,2.8846,1.0306,-14.622,-0.82148,-6.8966,2.7564
-19.084,-7.4921,-6.7314,-1.9608,0.0,-0.25765,-0.97087,-5.89,-3.9482,-1.9608,0.0,1.99,-10.476,-3.873,-19.872999,-5.7692,-10.564,-14.622,-2.7172,-17.733999,-2.0513
-27.615,-16.063,-15.469,-3.9216,-1.9704,-7.9871,-7.767,-10.744,-4.9191,-3.9216,-1.9704,-4.9751,-17.143,-10.54,-27.492001,-15.385,-20.225,-2.0612,-5.5608,-24.631001,-8.7821
-25.719,-19.872999,-18.382,-3.9216,-3.9409,-13.784,-10.68,-7.8317,-2.9773,-3.9216,-3.9409,-10.945,-18.094999,-12.444,-25.587,-21.153999,-23.124001,-4.9597,0.12638,-21.674999,-12.628
-14.344,-19.872999,-17.410999,-4.902,-2.9557,-11.852,-9.7087,-2.9773,0.90615,-4.902,-2.9557,-10.945,-16.190001,-14.349,-17.968,-24.038,-22.158001,-14.622,-1.7694,-15.764,-14.551
-11.501,-16.063,-13.528,0.0,0.0,-10.886,-7.767,1.877,3.8188,0.0,0.0,-8.9552,-14.286,-15.302,-12.254,-23.077,-18.292999,-12.689,-1.7694,-12.808,-15.513
-7.7093,-12.254,-9.644,1.9608,4.9261,-6.0548,-4.8544,3.8188,4.7896,1.9608,4.9261,-5.9701,-11.429,-14.349,-7.4921,-20.191999,-13.462,-9.7907,-2.7172,-8.867,-15.513
2.7172,-8.4444,-2.8479,1.9608,4.9261,0.70853,-1.9417,-2.9773,3.8188,1.9608,4.9261,-0.99502,-5.7143,-11.492,0.12698,-15.385,-6.6989,-9.7907,-10.3,-0.98522,-17.436001
14.092,-1.7778,4.9191,0.98039,2.9557,3.6071,1.9417,-10.744,-0.06472,0.98039,2.9557,1.99,0.0,-5.7778,6.7937,-6.7308,1.9968,-4.9597,-9.3523,3.9409,-11.667
8.4044,0.12698,5.89,-0.98039,-5.9113,-1.2238,-1.9417,-3.9482,-9.7735,-0.98039,-5.9113,-0.99502,3.8095,-0.06349,6.7937,-0.96154,5.8615,-1.095,-12.196,5.9113,-7.8205
2.7172,-0.8254,3.9482,-2.9412,-10.837,-0.25765,-5.8252,-4.9191,-15.599,-2.9412,-10.837,-4.9751,6.6667,5.6508,6.7937,3.8462,9.7262,10.499,-12.196,9.8522,-2.0513
3.6651,1.0794,2.0065,-7.8431,-10.837,-0.25765,-6.7961,-11.715,-6.8608,-7.8431,-10.837,-7.9602,9.5238,11.365,8.6984,8.6538,12.625,6.6345,-7.4566,10.837,5.641
3.6651,1.0794,2.0065,-10.784,-10.837,-3.1562,-5.8252,-2.0065,-2.9773,-10.784,-10.837,-8.9552,9.5238,12.317,8.6984,10.577,13.591,4.7021,-9.3523,8.867,7.5641
-1.0742,-0.8254,0.06472,-15.686,-15.764,-7.9871,-8.7379,2.8479,-6.8608,-15.686,-15.764,-9.9502,7.619,10.413,6.7937,10.577,11.659,6.6345,-9.3523,5.9113,8.5256
1.7694,1.0794,2.9773,-13.725,-11.823,-10.886,-5.8252,-3.9482,-5.89,-13.725,-11.823,-7.9602,7.619,9.4603,9.6508,10.577,12.625,-3.0274,-5.5608,5.9113,6.6026
-0.12638,0.12698,4.9191,-10.784,-8.867,-7.9871,-4.8544,-7.8317,-3.9482,-10.784,-8.867,-4.9751,5.7143,8.5079,8.6984,10.577,11.659,-10.757,-1.7694,5.9113,7.5641
-1.0742,-1.7778,2.0065,-7.8431,-5.9113,-5.0886,-3.8835,-5.89,-0.06472,-7.8431,-5.9113,-3.9801,2.8571,5.6508,4.8889,6.7308,6.8277,-5.9259,-0.82148,6.8966,5.641
-5.8136,-4.6349,-3.8188,-6.8627,-4.9261,-6.0548,-5.8252,-5.89,0.90615,-6.8627,-4.9261,-5.9701,-0.95238,0.88889,-0.8254,0.0,-0.90177,1.8035,1.0742,7.8818,-0.12821
-11.501,-9.3968,-10.615,-6.8627,-7.8818,-7.9871,-6.7961,-5.89,0.90615,-6.8627,-7.8818,-6.9652,-7.619,-3.873,-10.349,-7.6923,-11.53,-7.8583,-1.7694,0.98522,-2.0513
-10.553,-8.4444,-9.644,-6.8627,-8.867,-3.1562,-3.8835,-15.599,-0.06472,-6.8627,-8.867,-2.9851,-11.429,-5.7778,-14.159,-8.6538,-14.428,-6.8921,-2.7172,-6.8966,-2.0513
-8.6572,-6.5397,-7.7023,-9.8039,-7.8818,-2.19,-2.9126,-26.278,1.877,-9.8039,-7.8818,-1.99,-11.429,-6.7302,-15.111,-9.6154,-15.395,-6.8921,0.12638,-7.8818,-3.0128
-16.24,-5.5873,-8.6731,-6.8627,-3.9409,-8.9533,-0.97087,-3.9482,4.7896,-6.8627,-3.9409,-3.9801,-9.5238,-6.7302,-14.159,-8.6538,-14.428,-4.9597,2.97,-6.8966,-3.0128
-21.927,-4.6349,-8.6731,-3.9216,0.0,-10.886,-2.9126,-3.9482,8.6731,-3.9216,0.0,-5.9701,-8.5714,-6.7302,-15.111,-8.6538,-13.462,-3.9936,2.97,-8.867,-5.8974
-16.24,-2.7302,-6.7314,-0.98039,0.98522,-8.9533,-3.8835,-5.89,9.644,-0.98039,0.98522,-5.9701,-9.5238,-8.6349,-14.159,-9.6154,-12.496,-7.8583,0.12638,-9.8522,-8.7821
-13.397,0.12698,-3.8188,0.98039,2.9557,-7.9871,0.0,2.8479,11.586,0.98039,2.9557,-2.9851,-11.429,-12.444,-13.206,-9.6154,-11.53,-13.655,2.97,-7.8818,-10.705
-8.6572,2.0317,-1.877,4.902,5.9113,-0.25765,5.8252,2.8479,14.498,4.902,5.9113,3.9801,-13.333,-14.349,-13.206,-10.577,-12.496,-8.8245,7.7093,-9.8522,-9.7436
2.7172,4.8889,3.9482,7.8431,9.8522,12.303,11.65,4.7896,16.440001,7.8431,9.8522,12.935,-11.429,-14.349,-8.4444,-10.577,-9.5974,7.6006,9.6051,-7.8818,-11.667
8.4044,6.7937,6.8608,10.784,13.793,20.997999,15.534,10.615,16.440001,10.784,13.793,17.91,-9.5238,-14.349,-3.6825,-11.538,-7.6651,21.127001,10.553,-1.9704,-13.59
6.5087,2.9841,2.9773,6.8627,9.8522,15.201,8.7379,16.440001,11.586,6.8627,9.8522,12.935,-12.381,-16.254,-6.5397,-14.423,-11.53,-3.0274,5.8136,-4.9261,-14.551
5.5608,2.0317,1.0356,4.902,4.9261,10.37,4.8544,14.498,3.8188,4.902,4.9261,8.9552,-13.333,-14.349,-7.4921,-13.462,-11.53,7.6006,2.0221,-8.867,-10.705
8.4044,2.0317,2.9773,4.902,0.98522,16.167,4.8544,0.90615,1.877,4.902,0.98522,8.9552,-12.381,-10.54,-4.6349,-8.6538,-8.6312,7.6006,1.0742,-7.8818,-3.9744
5.5608,1.0794,2.0065,4.902,-1.9704,9.4042,5.8252,1.877,-1.0356,4.902,-1.9704,5.9701,-11.429,-8.6349,-3.6825,-5.7692,-6.6989,2.7697,-0.82148,-7.8818,0.83333
10.3,0.12698,4.9191,-1.9608,-5.9113,10.37,3.8835,-13.657,-4.9191,-1.9608,-5.9113,6.9652,-9.5238,-5.7778,1.0794,-2.8846,-1.868,2.7697,-4.613,-2.9557,-0.12821
10.3,0.12698,6.8608,-4.902,-4.9261,8.438,4.8544,-2.9773,-6.8608,-4.902,-4.9261,6.9652,-4.7619,-2.9206,5.8413,0.0,2.963,-2.0612,-7.4566,0.0,-1.0897
5.5608,-0.8254,6.8608,-1.9608,-2.9557,1.6747,4.8544,13.528,-6.8608,-1.9608,-2.9557,3.9801,-1.9048,-1.9683,8.6984,0.96154,4.8953,-8.8245,-10.3,0.0,-2.0513
8.4044,-0.8254,7.8317,1.9608,-0.98522,0.70853,2.9126,7.7023,-6.8608,1.9608,-0.98522,2.9851,0.0,-1.9683,11.556,1.9231,6.8277,-13.655,-10.3,3.9409,-2.0513
4.613,-0.8254,4.9191,0.0,-0.98522,-1.2238,0.0,-0.06472,-2.9773,0.0,-0.98522,0.0,-1.9048,-3.873,6.7937,0.96154,4.8953,2.7697,-9.3523,0.98522,-3.0128
2.7172,1.0794,3.9482,1.9608,1.9704,0.70853,1.9417,-3.9482,2.8479,1.9608,1.9704,0.0,-1.9048,-3.873,5.8413,2.8846,4.8953,9.533,-5.5608,0.98522,-0.12821
2.7172,3.9365,3.9482,6.8627,3.9409,2.6409,2.9126,2.8479,6.7314,6.8627,3.9409,1.99,-1.9048,-2.9206,4.8889,3.8462,5.8615,5.6683,2.0221,0.98522,-1.0897
5.5608,6.7937,4.9191,4.902,3.9409,5.5395,4.8544,-5.89,9.644,4.902,3.9409,3.9801,-0.95238,-1.9683,4.8889,5.7692,5.8615,7.6006,7.7093,0.98522,-0.12821
0.82148,9.6508,5.89,3.9216,3.9409,1.6747,7.767,-2.0065,8.6731,3.9216,3.9409,4.9751,-1.9048,-1.0159,2.0317,5.7692,4.8953,-1.095,8.6572,-2.9557,1.7949
-2.0221,9.6508,6.8608,6.8627,2.9557,0.70853,7.767,-10.744,7.7023,6.8627,2.9557,6.9652,0.95238,0.88889,0.12698,5.7692,3.9291,-5.9259,2.97,-1.9704,1.7949
5.5608,12.508,11.715,6.8627,5.9113,7.4718,12.621,-2.0065,7.7023,6.8627,5.9113,13.93,7.619,8.5079,4.8889,10.577,8.7601,-16.554001,5.8136,3.9409,6.6026
4.613,8.6984,9.7735,0.0,2.9557,7.4718,9.7087,-1.0356,6.7314,0.0,2.9557,11.94,7.619,9.4603,3.9365,8.6538,6.8277,-19.452,7.7093,0.98522,7.5641
-8.6572,2.0317,0.06472,-4.902,-0.98522,-6.0548,1.9417,-2.0065,0.90615,-4.902,-0.98522,2.9851,0.95238,5.6508,-4.6349,3.8462,-0.90177,-11.723,3.9179,-3.9409,7.5641
-2.97,3.9365,2.0065,-2.9412,-1.9704,-3.1562,1.9417,-5.89,-0.06472,-2.9412,-1.9704,2.9851,3.8095,8.5079,2.0317,7.6923,2.963,-4.9597,5.8136,3.9409,11.41
5.5608,7.746,5.89,-4.902,-0.98522,-4.1224,2.9126,-2.9773,-1.0356,-4.902,-0.98522,2.9851,7.619,11.365,9.6508,13.462,9.7262,3.7359,6.7615,7.8818,14.295
10.3,12.508,9.7735,-3.9216,0.0,2.6409,5.8252,1.877,-0.06472,-3.9216,0.0,4.9751,12.381,15.175,15.365,18.268999,15.523,7.6006,3.9179,12.808,17.179001
15.039,15.365,12.686,1.9608,0.98522,8.438,7.767,3.8188,-2.0065,1.9608,0.98522,6.9652,14.286,17.079,18.222,21.153999,19.388,-1.095,2.97,14.778,18.141001
16.934999,14.413,14.628,4.902,-0.98522,13.269,6.7961,-2.0065,-4.9191,4.902,-0.98522,7.9602,16.190001,17.079,20.127001,22.115,21.32,11.465,2.0221,13.793,18.141001
22.622,15.365,17.540001,5.8824,-1.9704,17.134001,5.8252,4.7896,-7.8317,5.8824,-1.9704,8.9552,20.0,19.937,25.841,25.962,26.150999,20.160999,2.97,18.719,21.025999
19.778999,13.46,16.57,1.9608,-1.9704,8.438,1.9417,-4.9191,-7.8317,1.9608,-1.9704,4.9751,21.905001,20.889,25.841,25.0,27.118,14.364,3.9179,18.719,19.103001
15.039,11.556,13.657,0.98039,-3.9409,0.70853,0.0,8.6731,-9.7735,0.98039,-3.9409,0.99502,20.0,18.983999,22.983999,23.077,25.184999,7.6006,-1.7694,15.764,14.295
15.039,10.603,11.715,2.9412,-4.9261,-1.2238,0.0,11.586,-11.715,2.9412,-4.9261,0.0,19.048,18.032,21.079,21.153999,23.253,10.499,-3.6651,14.778,13.333
8.4044,10.603,9.7735,0.0,-4.9261,-4.1224,-0.97087,9.644,-9.7735,0.0,-4.9261,-1.99,19.048,18.032,19.174999,21.153999,22.287001,21.127001,2.0221,11.823,13.333
8.4044,10.603,9.7735,0.0,-2.9557,3.6071,0.97087,-6.8608,-7.8317,0.0,-2.9557,0.0,20.0,17.079,18.222,20.191999,21.32,19.195,2.0221,11.823,13.333
7.4566,8.6984,8.8026,3.9216,3.9409,4.5733,2.9126,5.7605,-2.0065,3.9216,3.9409,3.9801,18.094999,13.27,16.316999,15.385,17.455999,11.465,2.97,9.8522,9.4872
2.7172,2.0317,2.9773,5.8824,5.9113,-0.25765,1.9417,11.586,0.90615,5.8824,5.9113,2.9851,11.429,5.6508,8.6984,4.8077,7.7939,-6.8921,0.12638,5.9113,1.7949
-2.97,-5.5873,-5.7605,3.9216,1.9704,-3.1562,-3.8835,0.90615,-1.0356,3.9216,1.9704,-1.99,3.8095,-0.06349,-0.8254,-3.8462,-1.868,-11.723,-1.7694,0.98522,-3.9744
-7.7093,-10.349,-10.615,1.9608,0.0,-2.19,-6.7961,-15.599,-2.0065,1.9608,0.0,-3.9801,-1.9048,-2.9206,-9.3968,-8.6538,-9.5974,-11.723,-0.82148,-5.9113,-3.9744
-17.188,-15.111,-17.410999,-4.902,-2.9557,-9.9195,-13.592,-6.8608,-0.06472,-4.902,-2.9557,-11.94,-7.619,-4.8254,-17.968,-12.5,-16.361,-25.25,-2.7172,-14.778,-5.8974
-18.136,-15.111,-21.294001,-6.8627,-2.9557,-19.580999,-13.592,-8.8026,1.877,-6.8627,-2.9557,-15.92,-7.619,-1.9683,-21.778,-10.577,-17.327,-20.419001,4.8657,-16.749001,-0.12821
-21.927,-11.302,-22.264999,-10.784,-5.9113,-23.445999,-14.563,-13.657,-0.06472,-10.784,-5.9113,-19.9,-6.6667,0.88889,-22.73,-5.7692,-16.361,-18.486,8.6572,-15.764,7.5641
-22.875,-7.4921,-18.382,-6.8627,-3.9409,-20.548,-13.592,-8.8026,-1.0356,-6.8627,-3.9409,-17.91,-0.95238,4.6984,-17.968,-0.96154,-11.53,-6.8921,8.6572,-8.867,11.41
-14.344,-1.7778,-11.586,-3.9216,-2.9557,-12.818,-9.7087,-3.9482,-1.0356,-3.9216,-2.9557,-11.94,4.7619,7.5556,-8.4444,5.7692,-3.8003,-8.8245,9.6051,0.98522,14.295
-6.7615,2.0317,-4.7896,-4.902,-4.9261,-7.9871,-5.8252,-9.7735,-4.9191,-4.902,-4.9261,-8.9552,9.5238,10.413,-1.7778,9.6154,2.963,-26.216,5.8136,1.9704,14.295
4.613,3.9365,2.0065,-4.902,-4.9261,-9.9195,-5.8252,-8.8026,-5.89,-4.902,-4.9261,-6.9652,15.238,13.27,6.7937,12.5,10.692,1.8035,-0.82148,7.8818,10.449
6.5087,2.9841,3.9482,-7.8431,-7.8818,-6.0548,-6.7961,-12.686,-8.8026,-7.8431,-7.8818,-6.9652,19.048,14.222,12.508,11.538,12.625,22.093,-0.82148,14.778,8.5256
1.7694,-1.7778,2.0065,-7.8431,-8.867,-9.9195,-6.7961,5.7605,-10.744,-7.8431,-8.867,-7.9602,17.143,11.365,9.6508,5.7692,9.7262,18.229,-0.82148,13.793,3.7179
0.82148,-4.6349,0.06472,-6.8627,-6.8966,-9.9195,-7.767,9.644,-12.686,-6.8627,-6.8966,-7.9602,13.333,6.6032,5.8413,0.96154,5.8615,8.5668,-2.7172,10.837,-0.12821
0.82148,-4.6349,0.06472,-3.9216,-6.8966,-6.0548,-8.7379,-0.06472,-15.599,-3.9216,-6.8966,-5.9701,9.5238,3.746,3.9365,-1.9231,3.9291,2.7697,-10.3,10.837,-3.0128
8.4044,2.0317,7.8317,-0.98039,-2.9557,1.6747,-0.97087,7.7023,-11.715,-0.98039,-2.9557,1.99,9.5238,3.746,9.6508,0.96154,7.7939,21.127001,-12.196,11.823,-3.9744
9.3523,4.8889,13.657,3.9216,2.9557,6.5056,4.8544,13.528,-4.9191,3.9216,2.9557,7.9602,7.619,0.88889,13.46,1.9231,8.7601,21.127001,-10.3,14.778,-4.9359
12.196,3.9365,14.628,3.9216,4.9261,9.4042,4.8544,10.615,-2.0065,3.9216,4.9261,9.9502,2.8571,-3.873,13.46,-0.96154,6.8277,8.5668,-6.5087,10.837,-5.8974
13.144,2.0317,13.657,7.8431,7.8818,10.37,6.7961,16.440001,0.90615,7.8431,7.8818,12.935,-0.95238,-6.7302,10.603,-4.8077,2.963,15.33,-6.5087,4.9261,-7.8205
12.196,-0.8254,8.8026,13.725,9.8522,10.37,5.8252,17.410999,2.8479,13.725,9.8522,11.94,-3.8095,-7.6825,6.7937,-6.7308,-0.90177,14.364,-2.7172,1.9704,-8.7821
7.4566,-2.7302,3.9482,10.784,9.8522,9.4042,4.8544,0.90615,4.7896,10.784,9.8522,9.9502,-6.6667,-9.5873,1.0794,-10.577,-6.6989,7.6006,2.97,-0.98522,-8.7821
2.7172,-1.7778,1.0356,9.8039,10.837,11.337,5.8252,5.7605,7.7023,9.8039,10.837,9.9502,-12.381,-12.444,-4.6349,-11.538,-11.53,-3.0274,5.8136,-6.8966,-9.7436
2.7172,0.12698,0.06472,13.725,14.778,9.4042,9.7087,9.644,10.615,13.725,14.778,11.94,-14.286,-13.397,-5.5873,-11.538,-12.496,-4.9597,4.8657,-7.8818,-8.7821
-5.8136,-1.7778,-6.7314,7.8431,8.867,1.6747,5.8252,4.7896,8.6731,7.8431,8.867,5.9701,-15.238,-14.349,-12.254,-13.462,-16.361,-3.9936,2.0221,-9.8522,-8.7821
-8.6572,-2.7302,-9.644,2.9412,6.8966,-1.2238,1.9417,-4.9191,8.6731,2.9412,6.8966,0.99502,-16.190001,-13.397,-15.111,-12.5,-17.327,-1.095,7.7093,-9.8522,-5.8974
-7.7093,-6.5397,-13.528,-4.902,-0.98522,-7.0209,-6.7961,-13.657,1.877,-4.902,-0.98522,-6.9652,-18.094999,-13.397,-18.921,-13.462,-19.259001,-5.9259,7.7093,-14.778,-7.8205
-14.344,-10.349,-16.440001,-7.8431,-5.9113,-11.852,-10.68,-8.8026,-2.9773,-7.8431,-5.9113,-12.935,-18.094999,-12.444,-21.778,-15.385,-21.191999,-3.0274,2.97,-12.808,-6.859
-13.397,-8.4444,-13.528,-7.8431,-5.9113,-7.9871,-6.7961,-4.9191,-2.9773,-7.8431,-5.9113,-10.945,-12.381,-6.7302,-17.968,-11.538,-16.361,6.6345,2.0221,-8.867,-3.9744
-8.6572,-8.4444,-10.615,-8.8235,-7.8818,-6.0548,-7.767,2.8479,-6.8608,-8.8235,-7.8818,-9.9502,-7.619,-4.8254,-13.206,-10.577,-12.496,6.6345,-1.7694,-5.9113,-3.9744
0.82148,-6.5397,-5.7605,-3.9216,-8.867,-0.25765,-8.7379,-2.9773,-8.8026,-3.9216,-8.867,-6.9652,-3.8095,-1.9683,-6.5397,-6.7308,-6.6989,7.6006,-6.5087,-0.98522,-2.0513
1.7694,-7.4921,-4.7896,0.98039,-6.8966,-1.2238,-10.68,7.7023,-11.715,0.98039,-6.8966,-6.9652,-0.95238,-0.06349,-0.8254,-4.8077,-2.8341,8.5668,-7.4566,2.9557,-2.0513
7.4566,-6.5397,-0.90615,4.902,-2.9557,-1.2238,-8.7379,15.469,-11.715,4.902,-2.9557,-4.9751,1.9048,1.8413,5.8413,-2.8846,1.0306,-2.0612,-6.5087,8.867,-2.0513
16.934999,-0.8254,5.89,7.8431,0.98522,6.5056,-1.9417,13.528,-7.8317,7.8431,0.98522,0.99502,5.7143,3.746,12.508,0.96154,7.7939,11.465,-9.3523,12.808,-2.0513
15.039,2.0317,8.8026,10.784,3.9409,8.438,2.9126,19.353001,-5.89,10.784,3.9409,3.9801,5.7143,1.8413,13.46,1.9231,8.7601,21.127001,-6.5087,11.823,-3.0128
11.248,2.9841,8.8026,12.745,7.8818,9.4042,7.767,12.557,2.8479,12.745,7.8818,6.9652,1.9048,-1.0159,10.603,0.0,4.8953,7.6006,-3.6651,5.9113,-4.9359
10.3,4.8889,9.7735,17.646999,16.749001,16.167,14.563,8.6731,9.644,17.646999,16.749001,13.93,0.95238,-1.9683,7.746,0.0,3.9291,13.398,-4.613,2.9557,-3.9744
4.613,2.9841,5.89,18.627001,17.733999,16.167,12.621,4.7896,9.644,18.627001,17.733999,11.94,0.0,-1.9683,3.9365,0.0,1.0306,14.364,1.0742,-0.98522,-1.0897
1.7694,-1.7778,-0.90615,11.765,14.778,10.37,6.7961,-6.8608,8.6731,11.765,14.778,5.9701,-2.8571,-3.873,-3.6825,-2.8846,-4.7665,-3.9936,-0.82148,-4.9261,-1.0897
-7.7093,-3.6825,-7.7023,4.902,10.837,0.70853,2.9126,-9.7735,7.7023,4.902,10.837,0.0,-3.8095,-4.8254,-10.349,-5.7692,-9.5974,-14.622,-0.82148,-6.8966,-4.9359
-17.188,-1.7778,-8.6731,5.8824,13.793,-8.9533,3.8835,-0.06472,10.615,5.8824,13.793,-1.99,-3.8095,-3.873,-13.206,-3.8462,-9.5974,-17.52,4.8657,-7.8818,-2.0513
-17.188,0.12698,-6.7314,3.9216,12.808,-7.9871,5.8252,1.877,11.586,3.9216,12.808,0.0,-5.7143,-3.873,-15.111,-2.8846,-10.564,-11.723,1.0742,-9.8522,-1.0897
-9.6051,2.9841,-1.877,0.98039,10.837,-3.1562,9.7087,-3.9482,9.644,0.98039,10.837,3.9801,-6.6667,-3.873,-14.159,-1.9231,-9.5974,0.83736,2.97,-7.8818,-1.0897
-5.8136,4.8889,0.06472,-1.9608,6.8966,-2.19,9.7087,-2.0065,8.6731,-1.9608,6.8966,4.9751,-7.619,-2.9206,-11.302,-1.9231,-9.5974,11.465,3.9179,-3.9409,0.83333
-0.12638,4.8889,2.0065,-0.98039,3.9409,-0.25765,6.7961,-1.0356,6.7314,-0.98039,3.9409,3.9801,-8.5714,-3.873,-7.4921,-1.9231,-7.6651,1.8035,2.0221,-3.9409,1.7949
2.7172,5.8413,3.9482,-0.98039,4.9261,-1.2238,5.8252,2.8479,6.7314,-0.98039,4.9261,2.9851,-8.5714,-5.7778,-2.7302,-1.9231,-3.8003,5.6683,2.97,0.0,-1.0897
12.196,5.8413,7.8317,4.902,7.8818,7.4718,8.7379,0.90615,9.644,4.902,7.8818,6.9652,-6.6667,-6.7302,5.8413,-1.9231,1.0306,12.432,5.8136,4.9261,-3.0128
19.778999,4.8889,9.7735,11.765,7.8818,16.167,7.767,0.90615,6.7314,11.765,7.8818,8.9552,-3.8095,-5.7778,12.508,0.0,3.9291,12.432,7.7093,7.8818,-2.0513
11.248,2.0317,3.9482,4.902,2.9557,6.5056,0.0,5.7605,1.877,4.902,2.9557,1.99,-3.8095,-4.8254,10.603,0.96154,3.9291,-0.12882,2.0221,4.9261,-0.12821
5.5608,3.9365,4.9191,0.98039,1.9704,4.5733,0.0,1.877,4.7896,0.98039,1.9704,0.99502,-1.9048,-1.0159,9.6508,5.7692,5.8615,2.7697,1.0742,1.9704,4.6795
12.196,10.603,10.744,8.8235,8.867,12.303,5.8252,3.8188,9.644,8.8235,8.867,8.9552,3.8095,4.6984,13.46,13.462,12.625,5.6683,4.8657,4.9261,9.4872
10.3,11.556,10.744,8.8235,11.823,7.4718,9.7087,14.498,10.615,8.8235,11.823,8.9552,6.6667,8.5079,14.413,16.346001,14.557,5.6683,10.553,5.9113,12.372
1.7694,6.7937,3.9482,1.9608,5.9113,0.70853,5.8252,5.7605,8.6731,1.9608,5.9113,3.9801,4.7619,8.5079,7.746,13.462,10.692,11.465,11.501,0.98522,10.449
-5.8136,-1.7778,-5.7605,-3.9216,-0.98522,-7.9871,-1.9417,-1.0356,2.8479,-3.9216,-0.98522,-4.9751,0.95238,3.746,-0.8254,5.7692,2.963,-3.9936,4.8657,-3.9409,4.6795
-8.6572,-6.5397,-8.6731,-8.8235,-5.9113,-8.9533,-7.767,-14.628,-2.9773,-8.8235,-5.9113,-8.9552,0.95238,2.7937,-4.6349,2.8846,-0.90177,-12.689,2.0221,-8.867,2.7564
-17.188,-11.302,-13.528,-8.8235,-6.8966,-14.75,-12.621,-10.744,-7.8317,-8.8235,-6.8966,-10.945,1.9048,1.8413,-10.349,-1.9231,-4.7665,-10.757,-0.82148,-10.837,1.7949
-21.927,-15.111,-18.382,-8.8235,-7.8818,-15.717,-13.592,-9.7735,-5.89,-8.8235,-7.8818,-12.935,-0.95238,-1.0159,-16.063,-7.6923,-10.564,-16.554001,-3.6651,-11.823,-1.0897
-18.136,-15.111,-19.353001,-5.8824,-3.9409,-8.9533,-10.68,-18.511,-1.0356,-5.8824,-3.9409,-9.9502,-4.7619,-6.7302,-18.921,-12.5,-15.395,-25.25,-6.5087,-13.793,-6.859
