C3,C4,Cz,F1,F2,F3,F4,F7,F8,Fp1,Fp2,Fz,O1,O2,P3,P4,Pz,T3,T4,T5,T6
7.5197,9.5873,14.634,3.9216,9.8522,3.6423,15.459,7.7023,9.644,3.9216,9.8522,12.745,2.8571,-5.7778,11.438,5.7971,9.7262,9.533,-3.746,4.902,-16.554001
5.624,6.7302,9.7561,-0.98039,7.8818,1.6911,6.7633,6.7314,6.7314,-0.98039,7.8818,7.8431,3.8095,-2.9206,12.385,7.7295,10.692,4.7021,0.06349,11.765,-13.655
0.88468,2.9206,-1.9512,-3.9216,0.98522,-3.187,0.96618,2.8479,2.8479,-3.9216,0.98522,-1.9608,1.9048,-1.9683,11.438,6.7633,7.7939,7.6006,3.873,17.646999,-3.9936
-2.9068,-3.746,-11.707,-9.8039,-5.9113,-6.1138,-4.8309,-2.9773,-2.9773,-9.8039,-5.9113,-9.8039,1.9048,-2.9206,10.49,2.8986,4.8953,11.465,-1.8413,16.667,0.83736
-2.9068,-5.6508,-10.732,-4.902,-9.8522,-9.0407,-7.7295,-3.9482,-7.8317,-4.902,-9.8522,-11.765,5.7143,0.88889,10.49,2.8986,4.8953,11.465,-4.6984,18.627001,-1.095
-4.8025,-4.6984,-7.8049,-8.8235,-13.793,-10.992,-11.594,-8.8026,-14.628,-8.8235,-13.793,-11.765,4.7619,3.746,5.7504,1.9324,2.963,1.8035,-4.6984,15.686,2.7697
-4.8025,-0.88889,-3.9024,-13.725,-15.764,-11.967,-13.527,-8.8026,-13.657,-13.725,-15.764,-11.765,3.8095,5.6508,3.8547,2.8986,1.9968,-1.095,0.06349,8.8235,11.465
-1.9589,1.0159,-2.9268,-11.765,-13.793,-7.0894,-9.6618,-4.9191,-11.715,-11.765,-13.793,-6.8627,6.6667,12.317,1.0111,2.8986,1.0306,-2.0612,-3.746,5.8824,17.261999
-5.7504,-7.5556,-9.7561,-11.765,-15.764,-4.1626,-11.594,-5.89,-12.686,-11.765,-15.764,-8.8235,1.9048,2.7937,-7.5197,-9.6618,-8.6312,-3.9936,-11.365,-3.9216,2.7697
-1.0111,-8.5079,-6.8293,-7.8431,-12.808,-0.26016,-8.6957,-2.0065,-10.744,-7.8431,-12.808,-5.8824,0.0,-1.0159,-5.624,-12.56,-9.5974,0.83736,-7.5556,-2.9412,1.8035
0.88468,1.0159,0.0,-2.9412,-4.9261,2.6667,-1.9324,-1.0356,-7.8317,-2.9412,-4.9261,-0.98039,2.8571,4.6984,-2.7804,-4.8309,-3.8003,1.8035,1.0159,-2.9412,10.499
4.6761,11.492,10.732,8.8235,2.9557,7.5447,3.8647,2.8479,-0.06472,8.8235,2.9557,8.8235,5.7143,7.5556,1.0111,5.7971,4.8953,2.7697,7.6825,-6.8627,13.398
11.311,17.205999,20.488001,21.569,10.837,15.35,10.628,13.528,4.7896,21.569,10.837,18.627001,5.7143,8.5079,3.8547,11.594,11.659,1.8035,7.6825,-7.8431,3.7359
18.893999,21.016001,25.365999,23.528999,17.733999,22.179001,23.188,13.528,11.586,23.528999,17.733999,25.49,4.7619,7.5556,7.6461,15.459,15.523,0.83736,6.7302,-8.8235,5.6683
22.686001,23.872999,27.316999,20.587999,21.674999,23.153999,28.018999,14.498,19.353001,20.587999,21.674999,26.471001,5.7143,12.317,12.385,21.256001,20.354,4.7021,9.5873,-6.8627,8.5668
17.945999,16.254,20.488001,16.667,16.749001,17.301001,18.357,10.615,10.615,16.667,16.749001,19.608,5.7143,7.5556,10.49,16.424999,17.455999,1.8035,4.8254,-3.9216,-7.8583
10.363,7.6825,12.683,13.725,11.823,10.472,16.424999,6.7314,5.7605,13.725,11.823,11.765,5.7143,1.8413,9.5419,10.628,12.625,-1.095,1.0159,4.902,-9.7907
2.7804,7.6825,5.8537,4.902,7.8818,3.6423,12.56,1.877,5.7605,4.902,7.8818,7.8431,1.9048,0.88889,8.594,8.6957,7.7939,11.465,3.873,11.765,-2.0612
-9.5419,-1.8413,-5.8537,1.9608,4.9261,-6.1138,2.8986,-2.0065,4.7896,1.9608,4.9261,0.98039,0.0,-1.0159,1.0111,-0.96618,-0.90177,5.6683,1.0159,5.8824,-3.9936
-14.281,-11.365,-14.634,2.9412,2.9557,-10.016,-3.8647,1.877,1.877,2.9412,2.9557,-6.8627,0.95238,-3.873,-2.7804,-9.6618,-6.6989,0.83736,-2.7937,4.902,-7.8583
-13.333,-21.841,-22.438999,0.98039,-0.98522,-10.992,-13.527,-1.0356,-3.9482,0.98039,-0.98522,-14.706,-0.95238,-8.6349,-5.624,-17.391001,-12.496,1.8035,-2.7937,5.8824,-2.0612
-5.7504,-30.413,-24.389999,-7.8431,-2.9557,-7.0894,-21.256001,-4.9191,-6.8608,-7.8431,-2.9557,-18.627001,-1.9048,-8.6349,-2.7804,-23.188,-15.395,2.7697,-10.413,7.8431,-8.8245
-0.06319,-32.317001,-22.438999,-10.784,-8.867,-7.0894,-20.290001,-3.9482,-12.686,-10.784,-8.867,-17.646999,-0.95238,-8.6349,1.0111,-24.155001,-15.395,9.533,-12.317,13.725,-10.757
-4.8025,-31.365,-24.389999,-13.725,-20.690001,-12.943,-23.188,-7.8317,-17.540001,-13.725,-20.690001,-21.569,0.0,-5.7778,-2.7804,-22.222,-16.361,4.7021,-14.222,11.765,-6.8921
-4.8025,-23.746,-19.511999,-12.745,-21.674999,-16.846001,-20.290001,-5.89,-18.511,-12.745,-21.674999,-19.608,2.8571,-5.7778,-2.7804,-16.424999,-13.462,3.7359,-12.317,8.8235,-7.8583
0.88468,-12.317,-8.7805,-9.8039,-18.719,-9.0407,-13.527,-1.0356,-16.57,-9.8039,-18.719,-12.745,4.7619,-1.9683,1.0111,-6.7633,-5.7327,6.6345,-5.6508,8.8235,-2.0612
13.207,1.0159,6.8293,-0.98039,-8.867,6.5691,-4.8309,4.7896,-13.657,-0.98039,-8.867,-0.98039,9.5238,7.5556,6.6983,4.8309,5.8615,4.7021,-2.7937,8.8235,1.8035
19.841999,15.302,19.511999,5.8824,0.98522,17.301001,3.8647,8.6731,-6.8608,5.8824,0.98522,10.784,12.381,11.365,10.49,15.459,14.557,8.5668,1.9683,7.8431,6.6345
17.945999,22.921,23.415001,9.8039,3.9409,15.35,13.527,7.7023,0.90615,9.8039,3.9409,16.667,9.5238,11.365,5.7504,18.357,15.523,6.6345,1.0159,-0.98039,10.499
13.207,27.683001,25.365999,13.725,9.8522,17.301001,21.256001,8.6731,8.6731,13.725,9.8522,21.569,2.8571,9.4603,-1.8325,18.357,11.659,-2.0612,4.8254,-8.8235,9.533
13.207,31.492001,28.292999,21.569,22.66,23.153999,28.986,11.586,17.410999,21.569,22.66,29.412001,0.0,7.5556,-1.8325,19.323999,11.659,-2.0612,12.444,-12.745,5.6683
9.4155,22.921,22.438999,23.528999,24.631001,18.275999,28.986,11.586,15.469,23.528999,24.631001,27.451,-0.95238,0.88889,-0.88468,11.594,7.7939,-0.12882,8.6349,-11.765,-3.0274
3.7283,10.54,13.659,16.667,16.749001,11.447,20.290001,10.615,8.6731,16.667,16.749001,18.627001,0.95238,-2.9206,3.8547,1.9324,4.8953,4.7021,1.9683,-2.9412,-8.8245
5.624,3.873,8.7805,11.765,11.823,9.4959,9.6618,8.6731,4.7896,11.765,11.823,11.765,6.6667,0.88889,14.281,-0.96618,8.7601,12.432,1.9683,11.765,-3.9936
3.7283,-6.6032,0.0,5.8824,0.0,2.6667,0.96618,5.7605,-2.0065,5.8824,0.0,0.0,9.5238,-2.9206,14.281,-8.6957,4.8953,6.6345,-3.746,12.745,-3.9936
-2.9068,-18.032,-11.707,0.0,-4.9261,-9.0407,-8.6957,0.90615,-3.9482,0.0,-4.9261,-11.765,7.619,-9.5873,7.6461,-20.290001,-4.7665,-0.12882,-8.5079,8.8235,-12.689
-9.5419,-26.603001,-21.462999,-8.8235,-7.8818,-16.846001,-23.188,-4.9191,-7.8317,-8.8235,-7.8818,-20.587999,4.7619,-9.5873,3.8547,-26.087,-11.53,-1.095,-10.413,8.8235,-19.452
-17.125,-29.459999,-28.292999,-13.725,-12.808,-22.698999,-26.087,-16.57,-12.686,-13.725,-12.808,-26.471001,-1.9048,-11.492,-4.6761,-26.087,-17.327,-3.9936,-8.5079,3.9216,-13.655
-19.968,-26.603001,-27.316999,-12.745,-15.764,-27.577,-24.155001,-12.686,-8.8026,-12.745,-15.764,-27.451,0.95238,-3.873,-4.6761,-17.391001,-14.428,-3.9936,-7.5556,5.8824,-8.8245
-22.812,-26.603001,-28.292999,-20.587999,-17.733999,-31.48,-28.986,-13.657,-10.744,-20.587999,-17.733999,-30.392,0.95238,-0.06349,-6.5719,-10.628,-12.496,-10.757,-5.6508,1.9608,0.83736
-24.708,-26.603001,-29.268,-22.549,-17.733999,-29.528,-31.884001,-18.511,-8.8026,-22.549,-17.733999,-31.372999,-1.9048,-0.06349,-10.363,-5.7971,-12.496,-11.723,0.06349,-1.9608,12.432
-21.864,-21.841,-23.415001,-15.686,-13.793,-23.674999,-22.222,-20.452999,-2.9773,-15.686,-13.793,-27.451,-3.8095,1.8413,-11.311,0.96618,-8.6312,-6.8921,-1.8413,-3.9216,20.160999
-19.968,-15.175,-18.537001,-16.667,-11.823,-21.724001,-19.323999,-22.395,-1.0356,-16.667,-11.823,-24.51,-7.619,2.7937,-16.997999,5.7971,-7.6651,-10.757,1.0159,-12.745,18.229
-15.229,-4.6984,-9.7561,-12.745,-4.9261,-13.919,-11.594,-18.511,3.8188,-12.745,-4.9261,-15.686,-8.5714,3.746,-19.841999,10.628,-4.7665,-18.486,6.7302,-18.627001,8.5668
-1.9589,12.444,5.8537,-5.8824,3.9409,0.71545,4.8309,-12.686,8.6731,-5.8824,3.9409,0.0,-2.8571,11.365,-12.259,20.290001,4.8953,-20.419001,11.492,-17.646999,8.5668
10.363,23.872999,17.561001,-2.9412,7.8818,9.4959,20.290001,-7.8317,11.586,-2.9412,7.8818,10.784,-0.95238,14.222,-6.5719,26.087,10.692,-11.723,11.492,-16.667,18.229
17.945999,30.540001,23.415001,4.902,10.837,12.423,21.256001,-1.0356,17.410999,4.902,10.837,16.667,1.9048,9.4603,0.06319,25.121,14.557,-6.8921,10.54,-15.686,15.33
23.632999,35.301998,29.268,12.745,14.778,16.325001,24.155001,4.7896,20.323999,12.745,14.778,21.569,5.7143,8.5079,8.594,25.121,18.422001,-3.0274,12.444,-5.8824,12.432
18.893999,34.348999,26.341,6.8627,12.808,16.325001,23.188,0.90615,16.440001,6.8627,12.808,21.569,0.95238,6.6032,7.6461,21.256001,14.557,-0.12882,15.302,-3.9216,14.364
13.207,26.73,22.438999,10.784,16.749001,19.252001,21.256001,4.7896,17.410999,10.784,16.749001,23.528999,0.95238,3.746,7.6461,14.493,10.692,2.7697,13.397,1.9608,6.6345
7.5197,19.111,15.61,17.646999,20.690001,12.423,20.290001,5.7605,18.382,17.646999,20.690001,21.569,1.9048,-0.06349,6.6983,6.7633,5.8615,6.6345,11.492,4.902,1.8035
-0.06319,12.444,6.8293,14.706,15.764,6.5691,20.290001,-0.06472,17.410999,14.706,15.764,14.706,1.9048,2.7937,2.9068,2.8986,1.9968,3.7359,10.54,1.9608,2.7697
-4.8025,3.873,-2.9268,5.8824,7.8818,0.71545,15.459,-1.0356,10.615,5.8824,7.8818,5.8824,0.0,-1.9683,-1.8325,-3.8647,-3.8003,-3.9936,6.7302,0.98039,5.6683
-10.49,-8.5079,-13.659,-1.9608,2.9557,-6.1138,4.8309,-2.0065,6.7314,-1.9608,2.9557,-4.902,-2.8571,-7.6825,-2.7804,-13.527,-10.564,-8.8245,-0.88889,1.9608,-7.8583
-13.333,-14.222,-20.488001,1.9608,0.98522,-6.1138,-4.8309,-5.89,1.877,1.9608,0.98522,-9.8039,-5.7143,-7.6825,-7.5197,-17.391001,-14.428,-4.9597,-5.6508,-0.98039,-5.9259
-17.125,-22.794001,-25.365999,-1.9608,-6.8966,-10.016,-16.424999,-2.9773,-2.0065,-1.9608,-6.8966,-15.686,-9.5238,-15.302,-12.259,-23.188,-18.292999,1.8035,-9.4603,-3.9216,-12.689
-18.073,-31.365,-28.292999,-9.8039,-8.867,-12.943,-25.121,-3.9482,-5.89,-9.8039,-8.867,-20.587999,-11.429,-17.205999,-15.103,-28.986,-21.191999,-1.095,-14.222,-6.8627,-23.316999
-15.229,-33.27,-26.341,-8.8235,-13.793,-14.894,-32.849998,-6.8608,-11.715,-8.8235,-13.793,-25.49,-12.381,-18.159,-12.259,-28.986,-19.259001,-5.9259,-15.175,-0.98039,-19.452
-6.6983,-29.459999,-19.511999,-4.902,-15.764,-14.894,-29.952,-2.9773,-16.57,-4.902,-15.764,-22.549,-11.429,-15.302,-7.5197,-23.188,-13.462,1.8035,-11.365,-3.9216,-13.655
2.7804,-24.698,-10.732,-6.8627,-11.823,-8.065,-23.188,-2.0065,-11.715,-6.8627,-11.823,-15.686,-7.619,-13.397,-3.7283,-19.323999,-8.6312,3.7359,-9.4603,-10.784,-11.723
11.311,-18.983999,-0.97561,-4.902,-5.9113,-2.2114,-13.527,-0.06472,-6.8608,-4.902,-5.9113,-6.8627,-3.8095,-12.444,1.0111,-14.493,-1.868,0.83736,-8.5079,-7.8431,-12.689
20.790001,-11.365,10.732,3.9216,1.9704,6.5691,-4.8309,5.7605,-2.0065,3.9216,1.9704,3.9216,2.8571,-5.7778,7.6461,-7.7295,5.8615,-3.0274,-6.6032,-3.9216,-9.7907
29.320999,2.9206,23.415001,8.8235,5.9113,20.228001,8.6957,9.644,3.8188,8.8235,5.9113,17.646999,9.5238,5.6508,17.125,4.8309,16.49,0.83736,0.06349,4.902,-8.8245
32.164001,18.159,33.171001,10.784,9.8522,23.153999,21.256001,10.615,10.615,10.784,9.8522,25.49,12.381,12.317,22.812,16.424999,23.253,10.499,6.7302,13.725,-3.9936
38.799,31.492001,42.926998,14.706,17.733999,26.080999,30.917999,10.615,15.469,14.706,17.733999,33.333,16.190001,14.222,29.447001,28.018999,30.982,13.398,13.397,20.587999,6.6345
43.539001,41.015999,50.731998,13.725,23.645,32.910999,36.715,14.498,17.410999,13.725,23.645,41.175999,19.048,18.983999,32.291,35.749001,35.813,14.364,16.254,23.528999,9.533
35.007999,43.873001,47.805,12.745,20.690001,29.007999,37.681,13.528,16.440001,12.745,20.690001,38.235001,13.333,17.079,22.812,36.715,30.016001,9.533,19.111,11.765,15.33
16.051001,39.111,34.146,12.745,16.749001,19.252001,33.816002,4.7896,20.323999,12.745,16.749001,30.392,3.8095,10.413,5.7504,28.986,16.49,0.83736,19.111,0.0,20.160999
-7.6461,28.635,16.584999,5.8824,13.793,3.6423,25.121,-3.9482,18.382,5.8824,13.793,18.627001,-6.6667,4.6984,-9.4155,19.323999,1.9968,-3.9936,18.159,-7.8431,24.025999
-22.812,15.302,0.97561,-2.9412,11.823,-5.1382,21.256001,-6.8608,14.498,-2.9412,11.823,9.8039,-11.429,3.746,-16.997999,8.6957,-6.6989,-6.8921,15.302,-9.8039,17.261999
-23.76,-4.6984,-11.707,-2.9412,6.8966,-10.016,7.7295,0.90615,9.644,-2.9412,6.8966,0.98039,-11.429,-2.9206,-16.051001,-7.7295,-12.496,-5.9259,2.9206,-8.8235,-9.7907
-22.812,-18.983999,-24.389999,-0.98039,0.98522,-16.846001,-6.7633,-1.0356,-0.06472,-0.98039,0.98522,-9.8039,-14.286,-13.397,-17.945999,-23.188,-21.191999,-8.8245,-11.365,-6.8627,-18.486
-24.708,-21.841,-31.219999,-4.902,-2.9557,-17.820999,-10.628,-4.9191,-2.9773,-4.902,-2.9557,-16.667,-17.143,-21.016001,-23.632999,-28.986,-27.955,-10.757,-14.222,-7.8431,-12.689
-25.656,-21.841,-34.146,-6.8627,-7.8818,-13.919,-13.527,-6.8608,-6.8608,-6.8627,-7.8818,-19.608,-19.048,-19.111,-26.476999,-28.018999,-29.886999,-9.7907,-8.5079,-10.784,-6.8921
-21.864,-23.746,-36.098,-11.765,-12.808,-13.919,-19.323999,-2.9773,-13.657,-11.765,-12.808,-24.51,-17.143,-16.254,-19.841999,-26.087,-27.955,1.8035,-9.4603,-8.8235,-8.8245
-17.125,-22.794001,-36.098,-8.8235,-15.764,-16.846001,-24.155001,-0.06472,-12.686,-8.8235,-15.764,-27.451,-10.476,-12.444,-13.207,-20.290001,-22.158001,2.7697,-7.5556,-6.8627,-3.9936
-15.229,-23.746,-34.146,-12.745,-21.674999,-20.747999,-30.917999,-3.9482,-10.744,-12.745,-21.674999,-32.353001,-6.6667,-6.7302,-12.259,-17.391001,-19.259001,-3.9936,-5.6508,-7.8431,-8.8245
-7.6461,-19.937,-25.365999,-14.706,-16.749001,-16.846001,-28.986,-4.9191,-8.8026,-14.706,-16.749001,-28.431,-2.8571,-2.9206,-4.6761,-9.6618,-10.564,-0.12882,-7.5556,-2.9412,-2.0612
-2.9068,-9.4603,-14.634,-12.745,-12.808,-9.0407,-23.188,-5.89,-7.8317,-12.745,-12.808,-21.569,0.95238,1.8413,1.0111,0.96618,-2.8341,-2.0612,-1.8413,0.98039,0.83736
1.8325,3.873,-1.9512,-8.8235,-8.867,-2.2114,-12.56,-3.9482,-5.89,-8.8235,-8.867,-11.765,3.8095,8.5079,3.8547,13.527,5.8615,-6.8921,6.7302,3.9216,10.499
9.4155,16.254,11.707,0.0,-4.9261,2.6667,4.8309,1.877,-4.9191,0.0,-4.9261,1.9608,8.5714,11.365,9.5419,23.188,14.557,-2.0612,10.54,5.8824,14.364
10.363,24.825001,20.488001,4.902,0.0,6.5691,12.56,1.877,0.90615,4.902,0.0,9.8039,8.5714,17.079,8.594,28.986,17.455999,-0.12882,7.6825,2.9412,10.499
10.363,27.683001,25.365999,4.902,6.8966,9.4959,13.527,-1.0356,10.615,4.902,6.8966,14.706,8.5714,18.032,7.6461,30.917999,19.388,-3.0274,11.492,-1.9608,15.33
6.5719,30.540001,26.341,9.8039,13.793,8.5203,16.424999,1.877,14.498,9.8039,13.793,17.646999,8.5714,20.889,5.7504,31.884001,18.422001,-2.0612,21.016001,-3.9216,20.160999
3.7283,29.587,26.341,11.765,15.764,11.447,19.323999,1.877,13.528,11.765,15.764,20.587999,6.6667,19.937,2.9068,28.018999,15.523,-4.9597,18.159,-5.8824,23.059999
0.88468,20.063,19.511999,0.98039,8.867,7.5447,14.493,-1.0356,8.6731,0.98039,8.867,16.667,2.8571,8.5079,-0.88468,15.459,7.7939,-3.0274,2.9206,-9.8039,10.499
5.624,16.254,18.537001,1.9608,8.867,2.6667,15.459,2.8479,4.7896,1.9608,8.867,15.686,4.7619,6.6032,4.8025,10.628,10.692,-0.12882,1.0159,0.98039,4.7021
6.5719,12.444,13.659,-0.98039,3.9409,0.71545,14.493,-2.9773,0.90615,-0.98039,3.9409,9.8039,5.7143,7.5556,7.6461,8.6957,10.692,-3.9936,1.0159,7.8431,4.7021
2.7804,7.6825,4.878,-3.9216,0.0,-2.2114,12.56,0.90615,-2.0065,-3.9216,0.0,2.9412,0.95238,0.88889,6.6983,2.8986,5.8615,4.7021,-4.6984,6.8627,1.8035
-11.438,1.0159,-4.878,-8.8235,-2.9557,-10.016,3.8647,0.90615,-2.0065,-8.8235,-2.9557,-5.8824,-0.95238,-1.9683,-2.7804,-2.8986,-1.868,-4.9597,-8.5079,0.98039,-2.0612
-30.395,-5.6508,-16.584999,-6.8627,-1.9704,-18.797001,-3.8647,-4.9191,-3.9482,-6.8627,-1.9704,-11.765,-3.8095,-3.873,-14.155,-8.6957,-10.564,-6.8921,-8.5079,-3.9216,-2.0612
-32.291,-8.5079,-19.511999,-2.9412,-3.9409,-17.820999,-8.6957,-3.9482,-7.8317,-2.9412,-3.9409,-12.745,-2.8571,-3.873,-14.155,-10.628,-12.496,4.7021,-10.413,-1.9608,-8.8245
-19.021,-9.4603,-16.584999,-1.9608,-4.9261,-10.992,-10.628,-0.06472,-12.686,-1.9608,-4.9261,-11.765,4.7619,-1.0159,-2.7804,-8.6957,-5.7327,8.5668,-12.317,7.8431,-10.757
-5.7504,-8.5079,-13.659,-3.9216,-7.8818,-8.065,-11.594,3.8188,-12.686,-3.9216,-7.8818,-13.725,9.5238,4.6984,4.8025,-3.8647,1.0306,3.7359,-13.27,10.784,1.8035
4.6761,-7.5556,-9.7561,-3.9216,-11.823,-1.2358,-15.459,3.8188,-11.715,-3.9216,-11.823,-12.745,9.5238,4.6984,7.6461,-3.8647,2.963,2.7697,-8.5079,6.8627,3.7359
12.259,-4.6984,-5.8537,0.98039,-7.8818,3.6423,-15.459,2.8479,-9.7735,0.98039,-7.8818,-8.8235,5.7143,-0.06349,10.49,-4.8309,2.963,10.499,-4.6984,9.8039,-2.0612
14.155,-0.88889,-2.9268,2.9412,-4.9261,7.5447,-6.7633,7.7023,-5.89,2.9412,-4.9261,-2.9412,0.95238,-4.8254,8.594,-6.7633,-0.90177,4.7021,-1.8413,6.8627,-8.8245
14.155,1.0159,-1.9512,0.98039,-4.9261,11.447,0.0,8.6731,-2.9773,0.98039,-4.9261,0.98039,-3.8095,-6.7302,2.9068,-6.7633,-4.7665,5.6683,-0.88889,0.98039,-2.0612
13.207,4.8254,2.9268,2.9412,-0.98522,14.374,3.8647,9.644,-2.0065,2.9412,-0.98522,6.8627,-2.8571,-6.7302,2.9068,-2.8986,-3.8003,9.533,1.9683,3.9216,-2.0612
11.311,7.6825,8.7805,-0.98039,1.9704,15.35,4.8309,8.6731,-2.9773,-0.98039,1.9704,10.784,-1.9048,-1.0159,1.9589,3.8647,0.06441,8.5668,6.7302,3.9216,-0.12882
4.6761,5.7778,8.7805,1.9608,-2.9557,8.5203,1.9324,4.7896,-3.9482,1.9608,-2.9557,7.8431,-2.8571,-1.0159,-3.7283,3.8647,-0.90177,-3.0274,-2.7937,-4.902,-1.095
1.8325,2.9206,7.8049,4.902,-2.9557,1.6911,0.96618,1.877,-4.9191,4.902,-2.9557,4.902,-2.8571,-1.0159,-6.5719,3.8647,0.06441,-9.7907,-3.746,-5.8824,4.7021
2.7804,1.9683,6.8293,0.98039,-3.9409,2.6667,-4.8309,1.877,-5.89,0.98039,-3.9409,1.9608,-0.95238,4.6984,-6.5719,6.7633,1.9968,-6.8921,0.06349,-7.8431,10.499
0.88468,0.06349,3.9024,-3.9216,-5.9113,-3.187,-4.8309,-3.9482,-5.89,-3.9216,-5.9113,-0.98039,1.9048,4.6984,-6.5719,5.7971,1.9968,-4.9597,-4.6984,-8.8235,3.7359
-3.8547,-2.7937,0.0,-10.784,-9.8522,-9.0407,-5.7971,-7.8317,-10.744,-10.784,-9.8522,-4.902,3.8095,11.365,-2.7804,2.8986,1.9968,-4.9597,-2.7937,-1.9608,8.5668
-10.49,-10.413,-4.878,-13.725,-10.837,-10.992,-8.6957,-8.8026,-14.628,-13.725,-10.837,-7.8431,0.0,-0.06349,-5.624,-5.7971,-3.8003,-1.095,-6.6032,-2.9412,1.8035
-20.916,-13.27,-8.7805,-8.8235,-4.9261,-18.797001,-5.7971,-7.8317,-4.9191,-8.8235,-4.9261,-10.784,-0.95238,-8.6349,-8.4676,-12.56,-7.6651,-3.0274,-10.413,-2.9412,-3.9936
-30.395,-9.4603,-11.707,-10.784,-2.9557,-23.674999,-3.8647,-8.8026,-2.0065,-10.784,-2.9557,-12.745,0.0,-6.7302,-9.4155,-10.628,-6.6989,-7.8583,-9.4603,-1.9608,-3.9936
-21.864,2.9206,-3.9024,-5.8824,-1.9704,-15.87,-0.96618,-5.89,-0.06472,-5.8824,-1.9704,-7.8431,1.9048,-2.9206,-0.88468,-1.9324,1.0306,-2.0612,-3.746,4.902,-1.095
-5.7504,10.54,3.9024,1.9608,0.0,-9.0407,3.8647,2.8479,0.90615,1.9608,0.0,-2.9412,4.7619,-0.06349,9.5419,3.8647,6.8277,3.7359,4.8254,12.745,10.499
1.8325,8.6349,4.878,-2.9412,0.98522,-6.1138,2.8986,4.7896,-2.9773,-2.9412,0.98522,-0.98039,5.7143,0.88889,12.385,2.8986,7.7939,8.5668,1.9683,6.8627,-1.095
8.4676,7.6825,5.8537,-2.9412,0.0,1.6911,1.9324,-1.0356,-6.8608,-2.9412,0.0,1.9608,7.619,3.746,15.229,2.8986,8.7601,11.465,1.9683,9.8039,-11.723
15.103,7.6825,6.8293,-6.8627,0.0,8.5203,4.8309,1.877,-4.9191,-6.8627,0.0,4.902,8.5714,1.8413,15.229,3.8647,8.7601,11.465,3.873,9.8039,-3.9936
16.997999,6.7302,5.8537,-4.902,-5.9113,11.447,3.8647,4.7896,-2.9773,-4.902,-5.9113,4.902,11.429,4.6984,13.333,5.7971,8.7601,9.533,1.0159,10.784,6.6345
16.051001,2.9206,2.9268,3.9216,-4.9261,9.4959,-2.8986,9.644,-3.9482,3.9216,-4.9261,4.902,10.476,8.5079,9.5419,4.8309,5.8615,9.533,0.06349,13.725,9.533
18.893999,3.873,6.8293,5.8824,0.98522,14.374,0.96618,10.615,-2.0065,5.8824,0.98522,9.8039,12.381,10.413,12.385,7.7295,8.7601,13.398,1.0159,21.569,10.499
24.580999,2.9206,13.659,12.745,1.9704,19.252001,6.7633,10.615,-1.0356,12.745,1.9704,16.667,15.238,11.365,16.177,6.7633,11.659,24.025999,-2.7937,22.549,4.7021
22.686001,0.06349,13.659,9.8039,1.9704,20.228001,7.7295,11.586,-3.9482,9.8039,1.9704,17.646999,11.429,9.4603,12.385,3.8647,9.7262,20.160999,-3.746,15.686,1.8035
14.155,-1.8413,8.7805,-0.98039,4.9261,16.325001,6.7633,5.7605,-4.9191,-0.98039,4.9261,13.725,5.7143,5.6508,1.9589,0.96618,2.963,0.83736,-0.88889,5.8824,2.7697
7.5197,-8.5079,1.9512,-6.8627,0.0,11.447,0.0,2.8479,-5.89,-6.8627,0.0,6.8627,0.0,-1.0159,-0.88468,-5.7971,-2.8341,-4.9597,-4.6984,0.0,-5.9259
-2.9068,-16.127001,-6.8293,-0.98039,-3.9409,-1.2358,-4.8309,2.8479,-8.8026,-0.98039,-3.9409,-0.98039,-3.8095,-1.9683,-4.6761,-12.56,-8.6312,-4.9597,-13.27,0.0,-3.0274
-8.594,-14.222,-9.7561,0.0,-0.98522,-7.0894,-1.9324,2.8479,-4.9191,0.0,-0.98522,-3.9216,-3.8095,-4.8254,-3.7283,-13.527,-10.564,1.8035,-14.222,2.9412,-10.757
-9.5419,-11.365,-10.732,0.0,0.0,-8.065,-1.9324,-1.0356,-4.9191,0.0,0.0,-4.902,-6.6667,-7.6825,-1.8325,-11.594,-10.564,5.6683,-7.5556,0.98039,-4.9597
-11.438,-10.413,-12.683,-1.9608,-4.9261,-5.1382,-5.7971,-2.9773,-6.8608,-1.9608,-4.9261,-8.8235,-9.5238,-8.6349,-4.6761,-12.56,-12.496,4.7021,-6.6032,-0.98039,-4.9597
-15.229,-11.365,-16.584999,-7.8431,-1.9704,-10.016,-10.628,-2.0065,-0.06472,-7.8431,-1.9704,-13.725,-11.429,-7.6825,-12.259,-12.56,-16.361,-3.9936,-1.8413,-12.745,-4.9597
-13.333,-11.365,-14.634,-9.8039,0.0,-14.894,-13.527,-8.8026,5.7605,-9.8039,0.0,-14.706,-10.476,-7.6825,-11.311,-11.594,-13.462,-9.7907,4.8254,-12.745,-6.8921
-3.8547,-8.5079,-5.8537,-12.745,-5.9113,-14.894,-8.6957,-10.744,-0.06472,-12.745,-5.9113,-9.8039,-1.9048,-2.9206,-1.8325,-5.7971,-2.8341,-6.8921,4.8254,-7.8431,-3.0274
1.8325,-4.6984,-0.97561,-8.8235,-6.8966,-9.0407,-7.7295,-6.8608,-6.8608,-8.8235,-6.8966,-7.8431,1.9048,-0.06349,4.8025,0.96618,2.963,-4.9597,2.9206,-3.9216,-0.12882
5.624,-0.88889,2.9268,-3.9216,-7.8818,-2.2114,-9.6618,0.90615,-11.715,-3.9216,-7.8818,-5.8824,0.95238,2.7937,9.5419,5.7971,6.8277,6.6345,1.9683,0.98039,0.83736
10.363,5.7778,8.7805,-4.902,-13.793,1.6911,-7.7295,5.7605,-16.57,-4.902,-13.793,-2.9412,7.619,8.5079,15.229,15.459,14.557,6.6345,0.06349,7.8431,8.5668
10.363,4.8254,8.7805,-7.8431,-15.764,1.6911,-9.6618,6.7314,-16.57,-7.8431,-15.764,-4.902,7.619,9.4603,13.333,16.424999,13.591,0.83736,-0.88889,9.8039,8.5668
11.311,1.0159,7.8049,-14.706,-17.733999,1.6911,-10.628,3.8188,-16.57,-14.706,-17.733999,-3.9216,7.619,10.413,13.333,15.459,13.591,6.6345,-0.88889,11.765,6.6345
5.624,-2.7937,5.8537,-17.646999,-21.674999,1.6911,-13.527,-0.06472,-18.511,-17.646999,-21.674999,-3.9216,4.7619,7.5556,5.7504,11.594,8.7601,4.7021,-1.8413,4.902,7.6006
-1.9589,-4.6984,0.97561,-20.587999,-20.690001,0.71545,-10.628,-2.0065,-14.628,-20.587999,-20.690001,-2.9412,-0.95238,1.8413,-6.5719,3.8647,-0.90177,-6.8921,-1.8413,-8.8235,0.83736
-9.5419,-7.5556,-3.9024,-12.745,-18.719,-3.187,-3.8647,-2.0065,-10.744,-12.745,-18.719,-2.9412,-7.619,-4.8254,-16.051001,-3.8647,-9.5974,-12.689,0.06349,-14.706,2.7697
-9.5419,-9.4603,-3.9024,-3.9216,-12.808,-2.2114,-1.9324,-2.9773,-6.8608,-3.9216,-12.808,-0.98039,-12.381,-6.7302,-14.155,-7.7295,-11.53,-3.9936,1.0159,-12.745,-1.095
-13.333,-17.079,-8.7805,-9.8039,-8.867,-6.1138,-15.459,-5.89,-6.8608,-9.8039,-8.867,-4.902,-18.094999,-11.492,-19.841999,-17.391001,-18.292999,-12.689,-2.7937,-19.608,-9.7907
-13.333,-16.127001,-9.7561,0.98039,-6.8966,-0.26016,1.9324,2.8479,-2.9773,0.98039,-6.8966,-0.98039,-20.952,-19.111,-20.790001,-20.290001,-20.225,-7.8583,-2.7937,-19.608,-9.7907
-19.021,-15.175,-14.634,1.9608,-0.98522,-0.26016,5.7971,10.615,6.7314,1.9608,-0.98522,-1.9608,-22.857,-25.778,-22.686001,-23.188,-22.158001,-7.8583,-3.746,-22.549,-21.385
-22.812,-14.222,-17.561001,0.98039,1.9704,-7.0894,-0.96618,6.7314,6.7314,0.98039,1.9704,-2.9412,-23.809999,-29.587,-22.686001,-25.121,-22.158001,-10.757,-6.6032,-25.49,-26.216
-16.177,-5.6508,-10.732,-0.98039,1.9704,-7.0894,7.7295,5.7605,2.8479,-0.98039,1.9704,-2.9412,-18.094999,-20.063,-11.311,-15.459,-12.496,-5.9259,-3.746,-16.667,-19.452
-6.6983,-1.8413,-3.9024,0.0,0.0,-6.1138,5.7971,3.8188,3.8188,0.0,0.0,-2.9412,-12.381,-16.254,1.0111,-6.7633,-2.8341,2.7697,-2.7937,-5.8824,-19.452
4.6761,4.8254,4.878,4.902,1.9704,-1.2358,3.8647,7.7023,3.8188,4.902,1.9704,0.98039,-1.9048,-8.6349,10.49,2.8986,7.7939,8.5668,-1.8413,-0.98039,-13.655
15.103,10.54,11.707,6.8627,2.9557,5.5935,5.7971,11.586,1.877,6.8627,2.9557,3.9216,8.5714,5.6508,19.968,13.527,17.455999,12.432,4.8254,3.9216,-3.0274
16.997999,12.444,11.707,-1.9608,-0.98522,6.5691,3.8647,7.7023,-0.06472,-1.9608,-0.98522,3.9216,15.238,15.175,20.916,17.391001,21.32,13.398,1.0159,13.725,-2.0612
15.103,7.6825,9.7561,-10.784,-6.8966,1.6911,-3.8647,0.90615,-1.0356,-10.784,-6.8966,-0.98039,16.190001,15.175,18.073,16.424999,18.422001,5.6683,-2.7937,18.627001,4.7021
13.207,7.6825,10.732,-7.8431,-9.8522,1.6911,-11.594,-4.9191,-3.9482,-7.8431,-9.8522,-2.9412,15.238,15.175,15.229,16.424999,15.523,-0.12882,3.873,15.686,13.398
4.6761,5.7778,5.8537,-13.725,-17.733999,-5.1382,-11.594,-7.8317,-6.8608,-13.725,-17.733999,-7.8431,12.381,13.27,5.7504,11.594,7.7939,-1.095,2.9206,7.8431,17.261999
-2.9068,-5.6508,-0.97561,-16.667,-21.674999,-10.016,-11.594,-6.8608,-13.657,-16.667,-21.674999,-9.8039,5.7143,6.6032,-1.8325,1.9324,-0.90177,-1.095,2.9206,5.8824,14.364
-8.594,-12.317,-6.8293,-13.725,-16.749001,-7.0894,-11.594,-4.9191,-10.744,-13.725,-16.749001,-6.8627,-1.9048,1.8413,-9.4155,-6.7633,-9.5974,-4.9597,1.0159,3.9216,2.7697
-13.333,-14.222,-12.683,-13.725,-9.8522,-2.2114,-7.7295,-7.8317,-4.9191,-13.725,-9.8522,-4.902,-12.381,-8.6349,-19.841999,-12.56,-17.327,-12.689,-3.746,-9.8039,-3.0274
-12.385,-11.365,-11.707,-4.902,-4.9261,4.6179,-2.8986,-6.8608,0.90615,-4.902,-4.9261,0.98039,-16.190001,-8.6349,-23.632999,-11.594,-18.292999,-13.655,1.9683,-12.745,4.7021
-9.5419,-9.4603,-7.8049,2.9412,-0.98522,4.6179,-0.96618,-0.06472,0.90615,2.9412,-0.98522,4.902,-19.048,-11.492,-22.686001,-12.56,-17.327,-8.8245,1.9683,-10.784,6.6345
-5.7504,-6.6032,-1.9512,6.8627,5.9113,6.5691,5.7971,6.7314,0.90615,6.8627,5.9113,8.8235,-17.143,-14.349,-18.893999,-12.56,-13.462,-7.8583,0.06349,-13.725,-1.095
-4.8025,-4.6984,2.9268,9.8039,10.837,6.5691,11.594,3.8188,6.7314,9.8039,10.837,12.745,-13.333,-8.6349,-13.207,-7.7295,-7.6651,-11.723,1.0159,-17.646999,-3.0274
1.8325,1.9683,8.7805,12.745,14.778,12.423,22.222,3.8188,16.440001,12.745,14.778,17.646999,-4.7619,-1.0159,-0.88468,1.9324,2.963,-0.12882,4.8254,-12.745,0.83736
5.624,1.0159,6.8293,14.706,21.674999,11.447,21.256001,9.644,21.294001,14.706,21.674999,15.686,1.9048,4.6984,6.6983,4.8309,9.7262,3.7359,2.9206,-5.8824,-3.9936
3.7283,-0.88889,0.97561,19.608,24.631001,5.5935,10.628,9.644,17.410999,19.608,24.631001,8.8235,3.8095,1.8413,11.438,3.8647,10.692,9.533,0.06349,-1.9608,-7.8583
8.4676,7.6825,4.878,20.587999,26.601,6.5691,14.493,11.586,16.440001,20.587999,26.601,10.784,6.6667,3.746,18.073,10.628,15.523,14.364,1.9683,3.9216,-6.8921
6.5719,7.6825,2.9268,16.667,18.719,3.6423,16.424999,9.644,15.469,16.667,18.719,7.8431,3.8095,-0.06349,13.333,5.7971,10.692,5.6683,5.7778,-0.98039,-14.622
6.5719,5.7778,2.9268,18.627001,14.778,5.5935,9.6618,10.615,13.528,18.627001,14.778,5.8824,5.7143,-1.0159,12.385,2.8986,6.8277,6.6345,3.873,0.0,-11.723
10.363,5.7778,4.878,13.725,11.823,8.5203,11.594,9.644,12.557,13.725,11.823,6.8627,8.5714,1.8413,14.281,1.9324,6.8277,4.7021,4.8254,10.784,-7.8583
10.363,1.9683,2.9268,3.9216,4.9261,5.5935,0.0,-0.06472,6.7314,3.9216,4.9261,1.9608,4.7619,-1.0159,14.281,0.0,3.9291,12.432,5.7778,13.725,-10.757
10.363,1.9683,1.9512,-2.9412,0.0,1.6911,-7.7295,-6.8608,4.7896,-2.9412,0.0,-3.9216,3.8095,-1.9683,11.438,2.8986,2.963,7.6006,6.7302,12.745,2.7697
2.7804,0.06349,-4.878,-13.725,-11.823,-7.0894,-11.594,-9.7735,-5.89,-13.725,-11.823,-12.745,2.8571,-1.0159,1.0111,1.9324,-1.868,-3.0274,5.7778,7.8431,3.7359
2.7804,3.873,-3.9024,-12.745,-14.778,-8.065,-12.56,-10.744,-6.8608,-12.745,-14.778,-12.745,5.7143,8.5079,1.9589,6.7633,1.0306,1.8035,4.8254,14.706,10.499
0.88468,5.7778,-2.9268,-13.725,-17.733999,-7.0894,-10.628,-12.686,-5.89,-13.725,-17.733999,-12.745,4.7619,9.4603,0.06319,8.6957,1.9968,-3.0274,3.873,10.784,15.33
-1.9589,7.6825,0.97561,-14.706,-14.778,-6.1138,-6.7633,-11.715,-6.8608,-14.706,-14.778,-7.8431,3.8095,11.365,-4.6761,10.628,2.963,-9.7907,1.9683,2.9412,19.195
-0.06319,9.5873,9.7561,-7.8431,-7.8818,-0.26016,-1.9324,-12.686,-4.9191,-7.8431,-7.8818,0.0,4.7619,12.317,-3.7283,11.594,5.8615,-5.9259,2.9206,2.9412,13.398
5.624,5.7778,16.584999,-3.9216,0.98522,8.5203,2.8986,-4.9191,-3.9482,-3.9216,0.98522,10.784,6.6667,10.413,0.06319,8.6957,7.7939,-3.9936,-0.88889,3.9216,9.533
8.4676,1.9683,14.634,5.8824,3.9409,10.472,6.7633,1.877,-0.06472,5.8824,3.9409,13.725,7.619,10.413,2.9068,5.7971,7.7939,-6.8921,-5.6508,6.8627,7.6006
14.155,2.9206,10.732,15.686,8.867,14.374,8.6957,5.7605,1.877,15.686,8.867,14.706,7.619,9.4603,7.6461,4.8309,9.7262,6.6345,-3.746,10.784,6.6345
9.4155,2.9206,6.8293,13.725,13.793,13.398,9.6618,8.6731,3.8188,13.725,13.793,13.725,5.7143,6.6032,4.8025,2.8986,6.8277,8.5668,-5.6508,-1.9608,0.83736
-1.0111,0.06349,-1.9512,15.686,18.719,9.4959,11.594,8.6731,12.557,15.686,18.719,12.745,-0.95238,-2.9206,-4.6761,-2.8986,-1.868,-3.0274,-7.5556,-11.765,-10.757
-1.9589,-0.88889,-3.9024,21.569,24.631001,6.5691,12.56,9.644,17.410999,21.569,24.631001,12.745,-4.7619,-7.6825,-2.7804,-5.7971,-5.7327,1.8035,1.0159,-6.8627,-17.52
-3.8547,0.06349,-4.878,13.725,20.690001,4.6179,13.527,6.7314,21.294001,13.725,20.690001,9.8039,-11.429,-14.349,-2.7804,-8.6957,-8.6312,5.6683,9.5873,-7.8431,-13.655
-3.8547,3.873,-4.878,13.725,20.690001,1.6911,15.459,7.7023,24.207001,13.725,20.690001,7.8431,-12.381,-17.205999,-2.7804,-7.7295,-7.6651,5.6683,7.6825,-7.8431,-17.52
0.88468,9.5873,0.0,10.784,17.733999,0.71545,14.493,6.7314,25.177999,10.784,17.733999,6.8627,-6.6667,-11.492,3.8547,0.0,-1.868,7.6006,6.7302,0.0,-16.554001
5.624,15.302,2.9268,5.8824,11.823,-1.2358,7.7295,-0.06472,21.294001,5.8824,11.823,2.9412,0.0,-1.9683,13.333,10.628,7.7939,10.499,13.397,12.745,0.83736
3.7283,15.302,2.9268,-1.9608,0.98522,-7.0894,3.8647,-8.8026,10.615,-1.9608,0.98522,-3.9216,6.6667,9.4603,14.281,17.391001,12.625,5.6683,13.397,9.8039,9.533
2.7804,15.302,2.9268,-9.8039,-1.9704,-10.016,1.9324,-15.599,7.7023,-9.8039,-1.9704,-4.902,10.476,12.317,10.49,19.323999,13.591,-0.12882,13.397,4.902,20.160999
6.5719,14.349,6.8293,-16.667,-6.8966,-9.0407,-2.8986,-13.657,5.7605,-16.667,-6.8966,-3.9216,14.286,14.222,12.385,20.290001,14.557,-3.0274,14.349,10.784,28.857
6.5719,13.397,7.8049,-18.627001,-8.867,-5.1382,-2.8986,-12.686,-2.9773,-18.627001,-8.867,-1.9608,12.381,17.079,8.594,16.424999,11.659,-0.12882,13.397,9.8039,22.093
1.8325,8.6349,2.9268,-17.646999,-9.8522,-1.2358,0.0,-11.715,-1.0356,-17.646999,-9.8522,-1.9608,5.7143,9.4603,1.0111,7.7295,2.963,0.83736,3.873,7.8431,8.5668
1.8325,2.9206,0.97561,-5.8824,-7.8818,0.71545,-1.9324,-3.9482,-0.06472,-5.8824,-7.8818,-0.98039,6.6667,6.6032,0.06319,1.9324,0.06441,0.83736,-0.88889,12.745,8.5668
-1.0111,-1.8413,-3.9024,1.9608,-7.8818,-0.26016,-5.7971,-2.9773,-2.9773,1.9608,-7.8818,-4.902,4.7619,2.7937,-2.7804,-3.8647,-4.7665,-0.12882,-2.7937,11.765,18.229
-1.9589,-6.6032,-7.8049,4.902,-1.9704,3.6423,-1.9324,0.90615,-2.0065,4.902,-1.9704,-2.9412,0.95238,-1.0159,-3.7283,-11.594,-9.5974,-3.0274,-3.746,9.8039,5.6683
-1.9589,-12.317,-10.732,0.98039,-1.9704,3.6423,0.0,-0.06472,-2.0065,0.98039,-1.9704,-1.9608,-2.8571,-4.8254,-5.624,-18.357,-12.496,-4.9597,-9.4603,4.902,-1.095
-1.0111,-11.365,-7.8049,3.9216,3.9409,1.6911,5.7971,-3.9482,-0.06472,3.9216,3.9409,1.9608,-4.7619,-3.873,-5.624,-18.357,-10.564,3.7359,-8.5079,-0.98039,-2.0612
-1.9589,-9.4603,-3.9024,5.8824,9.8522,2.6667,4.8309,-4.9191,5.7605,5.8824,9.8522,2.9412,-4.7619,-3.873,-7.5197,-15.459,-8.6312,-0.12882,-7.5556,-11.765,-13.655
-4.8025,-9.4603,-3.9024,6.8627,10.837,-0.26016,1.9324,-2.0065,9.644,6.8627,10.837,1.9608,-3.8095,-4.8254,-9.4155,-13.527,-6.6989,-8.8245,-6.6032,-16.667,-11.723
-5.7504,-7.5556,-4.878,2.9412,7.8818,-5.1382,1.9324,-1.0356,8.6731,2.9412,7.8818,0.0,-1.9048,-5.7778,-7.5197,-7.7295,-3.8003,-10.757,-3.746,-17.646999,-6.8921
-1.9589,1.9683,0.0,8.8235,9.8522,-2.2114,4.8309,-2.0065,5.7605,8.8235,9.8522,0.98039,4.7619,0.88889,1.9589,4.8309,5.8615,-7.8583,1.9683,-11.765,-5.9259
-1.9589,6.7302,0.0,5.8824,7.8818,-4.1626,6.7633,-3.9482,5.7605,5.8824,7.8818,0.98039,5.7143,3.746,5.7504,9.6618,9.7262,-2.0612,2.9206,-2.9412,-5.9259
-3.8547,0.06349,-2.9268,-1.9608,0.98522,-9.0407,-5.7971,-2.9773,4.7896,-1.9608,0.98522,-6.8627,4.7619,5.6508,5.7504,7.7295,7.7939,-3.9936,1.0159,4.902,-2.0612
-5.7504,-1.8413,-2.9268,-4.902,-0.98522,-10.992,-10.628,-6.8608,1.877,-4.902,-0.98522,-8.8235,4.7619,6.6032,1.9589,5.7971,4.8953,-2.0612,3.873,0.98039,3.7359
-3.8547,1.0159,1.9512,-5.8824,-0.98522,-8.065,-5.7971,-8.8026,1.877,-5.8824,-0.98522,-5.8824,8.5714,10.413,2.9068,8.6957,5.8615,0.83736,5.7778,1.9608,5.6683
-0.06319,2.9206,4.878,2.9412,0.0,-2.2114,0.0,-2.0065,0.90615,2.9412,0.0,0.0,8.5714,5.6508,2.9068,4.8309,3.9291,5.6683,-0.88889,6.8627,-0.12882
-3.8547,-1.8413,-0.97561,3.9216,0.0,-4.1626,-2.8986,4.7896,-2.0065,3.9216,0.0,0.0,3.8095,-3.873,-1.8325,-5.7971,-4.7665,6.6345,-3.746,9.8039,-11.723
-7.6461,-7.5556,-5.8537,0.98039,-1.9704,-4.1626,-2.8986,0.90615,-4.9191,0.98039,-1.9704,0.0,-3.8095,-11.492,-8.4676,-15.459,-13.462,3.7359,-3.746,4.902,-12.689
-7.6461,-9.4603,-4.878,0.0,-1.9704,0.71545,0.0,-2.0065,-4.9191,0.0,-1.9704,1.9608,-6.6667,-12.444,-13.207,-20.290001,-17.327,-5.9259,-9.4603,3.9216,-7.8583
1.8325,-11.365,1.9512,-0.98039,0.98522,8.5203,0.0,1.877,-5.89,-0.98039,0.98522,7.8431,-2.8571,-9.5873,-7.5197,-18.357,-12.496,-1.095,-10.413,11.765,-4.9597
11.311,-10.413,7.8049,2.9412,-1.9704,14.374,-2.8986,6.7314,-9.7735,2.9412,-1.9704,8.8235,1.9048,-7.6825,2.9068,-15.459,-5.7327,10.499,-8.5079,15.686,-4.9597
11.311,-11.365,5.8537,10.784,0.98522,12.423,-2.8986,5.7605,-9.7735,10.784,0.98522,7.8431,2.8571,-5.7778,1.9589,-13.527,-4.7665,9.533,-13.27,10.784,-9.7907
5.624,-11.365,0.0,6.8627,0.0,6.5691,-1.9324,1.877,-10.744,6.8627,0.0,3.9216,1.9048,-1.9683,0.06319,-10.628,-4.7665,6.6345,-15.175,8.8235,-10.757
2.7804,-10.413,-1.9512,6.8627,-1.9704,3.6423,-1.9324,2.8479,-10.744,6.8627,-1.9704,1.9608,1.9048,-1.0159,0.06319,-6.7633,-2.8341,-0.12882,-11.365,5.8824,-6.8921
3.7283,-3.746,1.9512,7.8431,5.9113,8.5203,0.96618,2.8479,-8.8026,7.8431,5.9113,5.8824,1.9048,-2.9206,1.0111,-0.96618,-0.90177,5.6683,-6.6032,3.9216,2.7697
4.6761,3.873,5.8537,10.784,7.8818,9.4959,10.628,7.7023,0.90615,10.784,7.8818,10.784,2.8571,0.88889,1.9589,5.7971,2.963,9.533,-2.7937,5.8824,2.7697
5.624,11.492,9.7561,20.587999,17.733999,12.423,14.493,10.615,9.644,20.587999,17.733999,14.706,3.8095,8.5079,3.8547,15.459,7.7939,6.6345,4.8254,3.9216,0.83736
2.7804,12.444,6.8293,22.549,22.66,7.5447,13.527,11.586,8.6731,22.549,22.66,9.8039,0.95238,7.5556,1.9589,17.391001,7.7939,3.7359,6.7302,-3.9216,2.7697
-1.0111,11.492,0.97561,15.686,18.719,0.71545,8.6957,10.615,7.7023,15.686,18.719,2.9412,0.0,9.4603,0.06319,17.391001,6.8277,-3.0274,6.7302,-7.8431,7.6006
-8.594,7.6825,-5.8537,7.8431,8.867,-4.1626,0.0,4.7896,5.7605,7.8431,8.867,-3.9216,-2.8571,6.6032,-6.5719,13.527,1.0306,-6.8921,4.8254,-15.686,6.6345
-4.8025,8.6349,-3.9024,9.8039,8.867,-0.26016,5.7971,5.7605,5.7605,9.8039,8.867,-0.98039,-3.8095,5.6508,-3.7283,12.56,2.963,6.6345,7.6825,-13.725,13.398
-5.7504,6.7302,-4.878,1.9608,3.9409,-3.187,3.8647,1.877,2.8479,1.9608,3.9409,-2.9412,-5.7143,0.88889,-4.6761,8.6957,0.06441,-2.0612,11.492,-15.686,17.261999
-9.5419,-1.8413,-7.8049,-9.8039,0.0,-10.992,-3.8647,-4.9191,-1.0356,-9.8039,0.0,-7.8431,-7.619,-2.9206,-10.363,-1.9324,-5.7327,-13.655,9.5873,-18.627001,6.6345
-9.5419,-12.317,-11.707,-3.9216,-1.9704,-12.943,-8.6957,-6.8608,-2.9773,-3.9216,-1.9704,-11.765,-6.6667,-4.8254,-11.311,-13.527,-11.53,-10.757,-3.746,-10.784,-7.8583
-10.49,-20.889,-15.61,-2.9412,-6.8966,-15.87,-12.56,-5.89,-6.8608,-2.9412,-6.8966,-14.706,-7.619,-5.7778,-10.363,-19.323999,-15.395,-8.8245,-4.6984,-6.8627,-4.9597
-9.5419,-19.937,-14.634,-9.8039,-10.837,-12.943,-19.323999,-6.8608,-4.9191,-9.8039,-10.837,-16.667,-5.7143,-4.8254,-7.5197,-17.391001,-13.462,-5.9259,-1.8413,-3.9216,3.7359
-5.7504,-16.127001,-8.7805,-11.765,-13.793,-9.0407,-21.256001,-10.744,-6.8608,-11.765,-13.793,-14.706,-2.8571,0.88889,-1.8325,-11.594,-7.6651,-4.9597,-0.88889,1.9608,2.7697
-3.8547,-11.365,-1.9512,-16.667,-16.749001,-10.992,-20.290001,-14.628,-12.686,-16.667,-16.749001,-13.725,-0.95238,-1.0159,1.0111,-8.6957,-3.8003,-4.9597,-1.8413,2.9412,0.83736
-2.9068,-8.5079,1.9512,-19.608,-17.733999,-11.967,-16.424999,-14.628,-12.686,-19.608,-17.733999,-11.765,0.0,-1.9683,0.06319,-6.7633,-1.868,-5.9259,-6.6032,0.98039,4.7021
-4.8025,-8.5079,0.97561,-14.706,-16.749001,-9.0407,-13.527,-7.8317,-11.715,-14.706,-16.749001,-9.8039,-3.8095,-6.7302,-5.624,-10.628,-6.6989,-10.757,-8.5079,-0.98039,-1.095
-8.594,-5.6508,-0.97561,-8.8235,-10.837,-6.1138,-12.56,-3.9482,-8.8026,-8.8235,-10.837,-7.8431,-10.476,-11.492,-12.259,-11.594,-10.564,-8.8245,-5.6508,-8.8235,-6.8921
-9.5419,-3.746,-2.9268,-0.98039,-6.8966,-2.2114,-8.6957,-2.0065,-5.89,-0.98039,-6.8966,-4.902,-11.429,-11.492,-14.155,-8.6957,-10.564,-11.723,-4.6984,-8.8235,-4.9597
-6.6983,-1.8413,-2.9268,4.902,-2.9557,2.6667,-5.7971,4.7896,-3.9482,4.902,-2.9557,-2.9412,-11.429,-8.6349,-10.363,-4.8309,-6.6989,-4.9597,1.0159,-10.784,-3.9936
-6.6983,-0.88889,-2.9268,7.8431,-2.9557,0.71545,-2.8986,1.877,-3.9482,7.8431,-2.9557,-0.98039,-9.5238,-5.7778,-8.4676,-1.9324,-3.8003,-6.8921,1.0159,-12.745,-3.9936
-5.7504,1.9683,-0.97561,0.98039,-1.9704,-1.2358,2.8986,-1.0356,-0.06472,0.98039,-1.9704,0.0,-8.5714,-6.7302,-5.624,0.0,-0.90177,-4.9597,1.9683,-13.725,-5.9259
1.8325,9.5873,4.878,0.0,1.9704,3.6423,6.7633,1.877,0.90615,0.0,1.9704,4.902,-4.7619,-2.9206,1.0111,6.7633,3.9291,-1.095,6.7302,-10.784,1.8035
10.363,17.205999,9.7561,11.765,3.9409,11.447,11.594,9.644,6.7314,11.765,3.9409,9.8039,0.95238,2.7937,10.49,14.493,11.659,-0.12882,11.492,0.0,11.465
16.051001,18.159,11.707,12.745,10.837,14.374,14.493,11.586,6.7314,12.745,10.837,12.745,3.8095,5.6508,12.385,16.424999,14.557,2.7697,7.6825,0.0,2.7697
13.207,10.54,7.8049,10.784,7.8818,12.423,9.6618,7.7023,4.7896,10.784,7.8818,10.784,0.0,4.6984,6.6983,10.628,9.7262,3.7359,6.7302,-3.9216,-1.095
8.4676,4.8254,3.9024,4.902,5.9113,5.5935,9.6618,1.877,2.8479,4.902,5.9113,6.8627,-1.9048,2.7937,3.8547,5.7971,5.8615,2.7697,2.9206,-4.902,6.6345
1.8325,4.8254,1.9512,2.9412,4.9261,1.6911,5.7971,-0.06472,3.8188,2.9412,4.9261,1.9608,-3.8095,2.7937,1.0111,5.7971,3.9291,3.7359,1.9683,-2.9412,5.6683
-7.6461,-0.88889,-3.9024,5.8824,5.9113,-6.1138,2.8986,-0.06472,3.8188,5.8824,5.9113,-3.9216,-3.8095,1.8413,-3.7283,0.96618,-0.90177,-3.0274,3.873,-3.9216,6.6345
-13.333,-3.746,-6.8293,0.0,7.8818,-12.943,-1.9324,-2.0065,0.90615,0.0,7.8818,-8.8235,-5.7143,-1.9683,-8.4676,-1.9324,-3.8003,-10.757,3.873,-6.8627,10.499
-10.49,-4.6984,-4.878,1.9608,7.8818,-10.992,1.9324,-3.9482,4.7896,1.9608,7.8818,-5.8824,-6.6667,1.8413,-8.4676,-2.8986,-4.7665,-6.8921,1.0159,-4.902,13.398
-8.594,-10.413,-2.9268,0.98039,7.8818,-5.1382,5.7971,-2.0065,6.7314,0.98039,7.8818,-0.98039,-8.5714,-6.7302,-10.363,-12.56,-9.5974,-2.0612,-2.7937,-7.8431,-7.8583
-4.8025,-7.5556,0.97561,-1.9608,7.8818,2.6667,5.7971,-2.9773,3.8188,-1.9608,7.8818,4.902,-9.5238,-12.444,-10.363,-13.527,-9.5974,-3.9936,-3.746,-6.8627,-17.52
7.5197,2.9206,11.707,8.8235,15.764,11.447,8.6957,2.8479,5.7605,8.8235,15.764,12.745,-3.8095,-8.6349,-0.88468,-5.7971,-0.90177,2.7697,-3.746,-0.98039,-10.757
12.259,6.7302,14.634,13.725,14.778,15.35,11.594,8.6731,6.7314,13.725,14.778,15.686,-0.95238,-9.5873,5.7504,-1.9324,2.963,4.7021,0.06349,3.9216,-7.8583
12.259,7.6825,12.683,12.745,10.837,17.301001,18.357,9.644,6.7314,12.745,10.837,17.646999,0.0,-5.7778,5.7504,0.0,2.963,9.533,-1.8413,5.8824,-5.9259
9.4155,10.54,14.634,11.765,12.808,14.374,15.459,3.8188,3.8188,11.765,12.808,17.646999,4.7619,-1.9683,8.594,2.8986,6.8277,10.499,-2.7937,4.902,-7.8583
11.311,15.302,20.488001,10.784,14.778,11.447,15.459,4.7896,3.8188,10.784,14.778,17.646999,13.333,9.4603,16.177,12.56,16.49,8.5668,-0.88889,7.8431,-3.0274
16.051001,18.159,22.438999,6.8627,2.9557,8.5203,16.424999,3.8188,1.877,6.8627,2.9557,12.745,19.048,16.127001,21.864,19.323999,24.219,6.6345,0.06349,13.725,5.6683
17.945999,18.159,17.561001,2.9412,-0.98522,5.5935,7.7295,0.90615,-1.0356,2.9412,-0.98522,5.8824,19.048,18.983999,23.76,23.188,26.150999,7.6006,3.873,15.686,16.296
15.103,12.444,7.8049,-1.9608,-1.9704,2.6667,-5.7971,-1.0356,-4.9191,-1.9608,-1.9704,-3.9216,18.094999,22.794001,19.968,21.256001,21.32,11.465,4.8254,15.686,15.33
6.5719,1.9683,-1.9512,-3.9216,-5.9113,-7.0894,-10.628,-2.9773,-6.8608,-3.9216,-5.9113,-10.784,12.381,17.079,9.5419,13.527,10.692,3.7359,2.9206,7.8431,11.465
-1.9589,-2.7937,-7.8049,-2.9412,-7.8818,-10.016,-12.56,-4.9191,-4.9191,-2.9412,-7.8818,-13.725,5.7143,13.27,0.06319,9.6618,2.963,-3.0274,6.7302,3.9216,22.093
-8.594,-5.6508,-12.683,-13.725,-8.867,-10.016,-15.459,-9.7735,-5.89,-13.725,-8.867,-15.686,3.8095,12.317,-4.6761,5.7971,-1.868,-4.9597,2.9206,0.0,22.093
-15.229,-12.317,-20.488001,-16.667,-12.808,-13.919,-16.424999,-13.657,-8.8026,-16.667,-12.808,-20.587999,0.0,3.746,-10.363,-1.9324,-7.6651,-7.8583,3.873,-6.8627,19.195
-17.125,-16.127001,-22.438999,-8.8235,-9.8522,-12.943,-17.391001,-8.8026,-8.8026,-8.8235,-9.8522,-19.608,-2.8571,0.88889,-11.311,-6.7633,-10.564,-12.689,1.9683,-8.8235,10.499
-16.177,-17.079,-21.462999,-3.9216,-13.793,-14.894,-17.391001,-2.0065,-11.715,-3.9216,-13.793,-20.587999,-5.7143,-5.7778,-11.311,-11.594,-12.496,-18.486,-2.7937,-9.8039,-4.9597
-4.8025,-9.4603,-11.707,-5.8824,-12.808,-10.016,-14.493,-1.0356,-11.715,-5.8824,-12.808,-15.686,-5.7143,-5.7778,-4.6761,-6.7633,-6.6989,-4.9597,3.873,-2.9412,-1.095
6.5719,-1.8413,0.97561,-4.902,-9.8522,-0.26016,-9.6618,0.90615,-6.8608,-4.902,-9.8522,-7.8431,-0.95238,-1.9683,5.7504,-1.9324,1.0306,15.33,-2.7937,3.9216,-5.9259
15.103,8.6349,12.683,0.98039,-2.9557,3.6423,0.96618,2.8479,-2.9773,0.98039,-2.9557,1.9608,3.8095,-3.873,15.229,5.7971,9.7262,23.059999,1.9683,14.706,-1.095
6.5719,7.6825,9.7561,5.8824,6.8966,1.6911,1.9324,1.877,-0.06472,5.8824,6.8966,5.8824,3.8095,-2.9206,7.6461,4.8309,5.8615,5.6683,1.0159,4.902,-10.757
3.7283,6.7302,8.7805,9.8039,10.837,9.4959,7.7295,1.877,6.7314,9.8039,10.837,10.784,6.6667,2.7937,3.8547,6.7633,5.8615,-0.12882,-0.88889,0.0,-12.689
9.4155,15.302,15.61,18.627001,21.674999,18.275999,22.222,6.7314,11.586,18.627001,21.674999,20.587999,11.429,10.413,9.5419,15.459,11.659,4.7021,5.7778,5.8824,1.8035
11.311,15.302,15.61,23.528999,23.645,15.35,19.323999,9.644,14.498,23.528999,23.645,18.627001,7.619,7.5556,10.49,14.493,11.659,6.6345,1.9683,7.8431,-1.095
14.155,15.302,16.584999,20.587999,23.645,11.447,14.493,8.6731,15.469,20.587999,23.645,17.646999,8.5714,7.5556,13.333,15.459,12.625,0.83736,1.0159,10.784,4.7021
16.997999,17.205999,20.488001,16.667,20.690001,13.398,18.357,2.8479,13.528,16.667,20.690001,17.646999,10.476,14.222,15.229,18.357,15.523,1.8035,8.6349,11.765,15.33
17.945999,12.444,17.561001,13.725,18.719,16.325001,11.594,-2.0065,13.528,13.725,18.719,15.686,7.619,11.365,14.281,14.493,13.591,6.6345,9.5873,10.784,15.33
9.4155,4.8254,9.7561,12.745,16.749001,11.447,7.7295,-2.0065,11.586,12.745,16.749001,12.745,4.7619,6.6032,6.6983,5.7971,6.8277,1.8035,6.7302,3.9216,11.465
-0.06319,-3.746,-1.9512,7.8431,13.793,5.5935,8.6957,-0.06472,7.7023,7.8431,13.793,6.8627,1.9048,1.8413,-0.88468,-2.8986,-0.90177,-0.12882,6.7302,-6.8627,5.6683
-5.7504,-10.413,-11.707,3.9216,7.8818,-0.26016,-0.96618,-6.8608,-0.06472,3.9216,7.8818,-1.9608,0.0,2.7937,-2.7804,-6.7633,-4.7665,-0.12882,2.9206,-5.8824,-0.12882
-15.229,-11.365,-19.511999,0.0,1.9704,-11.967,0.96618,-5.89,0.90615,0.0,1.9704,-8.8235,-1.9048,-1.9683,-7.5197,-10.628,-9.5974,-9.7907,-2.7937,-0.98039,5.6683
-19.021,-7.5556,-20.488001,0.98039,0.98522,-15.87,-3.8647,-4.9191,3.8188,0.98039,0.98522,-12.745,-0.95238,-1.0159,-9.4155,-8.6957,-11.53,-7.8583,-6.6032,1.9608,3.7359
-18.073,-6.6032,-19.511999,3.9216,0.0,-13.919,-5.7971,-5.89,-2.0065,3.9216,0.0,-11.765,-4.7619,-2.9206,-12.259,-8.6957,-12.496,-9.7907,-0.88889,-2.9412,-5.9259
-12.385,-1.8413,-14.634,2.9412,2.9557,-8.065,-1.9324,-10.744,-1.0356,2.9412,2.9557,-8.8235,-6.6667,-3.873,-8.4676,-3.8647,-9.5974,-8.8245,5.7778,-5.8824,3.7359
-3.8547,1.9683,-7.8049,0.98039,11.823,-4.1626,3.8647,0.90615,8.6731,0.98039,11.823,-2.9412,-3.8095,-2.9206,-0.88468,0.96618,-3.8003,-3.9936,6.7302,-3.9216,2.7697
-2.9068,1.0159,-6.8293,-0.98039,4.9261,-4.1626,1.9324,2.8479,6.7314,-0.98039,4.9261,-1.9608,-6.6667,-8.6349,-5.624,-1.9324,-6.6989,2.7697,1.9683,-8.8235,-12.689
0.88468,3.873,0.0,4.902,4.9261,-2.2114,0.96618,0.90615,5.7605,4.902,4.9261,0.0,-4.7619,-5.7778,-3.7283,0.96618,-2.8341,5.6683,-0.88889,-6.8627,-13.655
3.7283,4.8254,3.9024,5.8824,10.837,-1.2358,1.9324,-1.0356,5.7605,5.8824,10.837,1.9608,-1.9048,-2.9206,-0.88468,3.8647,0.06441,3.7359,-0.88889,-2.9412,-3.0274
7.5197,0.06349,6.8293,9.8039,11.823,3.6423,3.8647,6.7314,6.7314,9.8039,11.823,5.8824,-1.9048,-6.7302,1.9589,-0.96618,0.06441,9.533,-1.8413,1.9608,-9.7907
4.6761,-3.746,4.878,16.667,12.808,5.5935,3.8647,8.6731,6.7314,16.667,12.808,6.8627,-1.9048,-5.7778,0.06319,-3.8647,-0.90177,6.6345,-5.6508,1.9608,-11.723
-1.0111,-10.413,0.97561,6.8627,3.9409,1.6911,-5.7971,1.877,-0.06472,6.8627,3.9409,0.0,0.0,-4.8254,-2.7804,-9.6618,-4.7665,-3.0274,-9.4603,4.902,-11.723
-1.0111,-18.032,0.0,-3.9216,-3.9409,-0.26016,-12.56,-0.06472,-5.89,-3.9216,-3.9409,-2.9412,0.95238,-4.8254,-2.7804,-14.493,-5.7327,-5.9259,-7.5556,2.9412,-18.486
-0.06319,-16.127001,0.97561,-8.8235,-10.837,-0.26016,-8.6957,-1.0356,-9.7735,-8.8235,-10.837,-4.902,4.7619,2.7937,0.06319,-9.6618,-1.868,-5.9259,-3.746,0.98039,-4.9597
-4.8025,-14.222,-3.9024,-8.8235,-9.8522,-4.1626,-12.56,-4.9191,-6.8608,-8.8235,-9.8522,-8.8235,5.7143,5.6508,-1.8325,-4.8309,-1.868,-0.12882,-2.7937,-2.9412,5.6683
-12.385,-11.365,-9.7561,-11.765,-10.837,-12.943,-15.459,-7.8317,-4.9191,-11.765,-10.837,-13.725,3.8095,8.5079,-4.6761,-1.9324,-3.8003,-1.095,-1.8413,-4.902,11.465
-14.281,-0.88889,-8.7805,-11.765,-7.8818,-11.967,-5.7971,-9.7735,-2.9773,-11.765,-7.8818,-10.784,7.619,14.222,-3.7283,5.7971,-0.90177,-6.8921,3.873,4.902,21.127001
-20.916,1.0159,-12.683,-10.784,-9.8522,-14.894,-3.8647,-12.686,-2.0065,-10.784,-9.8522,-11.765,5.7143,8.5079,-9.4155,3.8647,-4.7665,-14.622,1.0159,2.9412,19.195
-25.656,-1.8413,-18.537001,-14.706,-15.764,-21.724001,-12.56,-12.686,-8.8026,-14.706,-15.764,-16.667,-1.9048,1.8413,-16.051001,0.0,-10.564,-20.419001,1.9683,-0.98039,12.432
-22.812,0.06349,-16.584999,-15.686,-15.764,-19.771999,-15.459,-11.715,-8.8026,-15.686,-15.764,-16.667,-3.8095,2.7937,-12.259,1.9324,-7.6651,-12.689,7.6825,0.98039,12.432
-12.385,1.9683,-9.7561,-9.8039,-8.867,-10.992,-8.6957,-7.8317,-4.9191,-9.8039,-8.867,-10.784,-0.95238,1.8413,-2.7804,4.8309,-0.90177,-2.0612,3.873,3.9216,12.432
-5.7504,0.06349,-8.7805,-7.8431,-4.9261,-4.1626,-0.96618,-3.9482,-3.9482,-7.8431,-4.9261,-5.8824,-3.8095,-2.9206,0.06319,0.0,-0.90177,2.7697,-0.88889,2.9412,1.8035
-2.9068,-2.7937,-10.732,-5.8824,-2.9557,-0.26016,0.0,2.8479,0.90615,-5.8824,-2.9557,-2.9412,-7.619,-6.7302,-3.7283,-5.7971,-5.7327,3.7359,-1.8413,-2.9412,-3.9936
2.7804,1.9683,-3.9024,3.9216,0.98522,0.71545,5.7971,10.615,3.8188,3.9216,0.98522,1.9608,-8.5714,-9.5873,-1.8325,-4.8309,-4.7665,10.499,0.06349,-5.8824,-8.8245
9.4155,4.8254,2.9268,9.8039,5.9113,4.6179,8.6957,14.498,3.8188,9.8039,5.9113,6.8627,-6.6667,-11.492,2.9068,-5.7971,-0.90177,9.533,-5.6508,-1.9608,-18.486
15.103,1.0159,8.7805,10.784,13.793,13.398,8.6957,13.528,7.7023,10.784,13.793,12.745,-5.7143,-16.254,7.6461,-8.6957,1.0306,12.432,-7.5556,5.8824,-24.283001
19.841999,-0.88889,13.659,15.686,17.733999,23.153999,12.56,12.557,10.615,15.686,17.733999,19.608,-0.95238,-16.254,10.49,-9.6618,2.963,21.127001,-4.6984,6.8627,-23.316999
24.580999,0.06349,17.561001,22.549,20.690001,25.106001,14.493,22.264999,11.586,22.549,20.690001,23.528999,7.619,-3.873,15.229,-4.8309,8.7601,17.261999,1.0159,12.745,-11.723
21.738001,0.06349,17.561001,13.725,13.793,19.252001,10.628,20.323999,8.6731,13.725,13.793,19.608,10.476,-3.873,17.125,-2.8986,9.7262,14.364,1.0159,16.667,-12.689
20.790001,1.9683,20.488001,7.8431,8.867,13.398,13.527,13.528,8.6731,7.8431,8.867,17.646999,13.333,-0.06349,18.073,0.96618,12.625,14.364,-1.8413,16.667,-11.723
16.997999,4.8254,22.438999,1.9608,-1.9704,8.5203,10.628,9.644,0.90615,1.9608,-1.9704,11.765,17.143,8.5079,19.021,8.6957,15.523,12.432,-0.88889,18.627001,-3.9936
15.103,9.5873,20.488001,-9.8039,-8.867,9.4959,2.8986,0.90615,-4.9191,-9.8039,-8.867,6.8627,20.952,18.032,19.021,16.424999,17.455999,11.465,-0.88889,22.549,6.6345
8.4676,11.492,17.561001,-10.784,-12.808,0.71545,-5.7971,-2.0065,-7.8317,-10.784,-12.808,0.98039,19.048,19.937,14.281,20.290001,15.523,10.499,-2.7937,20.587999,12.432
3.7283,13.397,13.659,-14.706,-16.749001,-6.1138,-6.7633,-6.8608,-12.686,-14.706,-16.749001,-2.9412,14.286,21.841,10.49,21.256001,12.625,7.6006,4.8254,16.667,17.261999
-1.9589,10.54,7.8049,-24.51,-19.704,-9.0407,-3.8647,-10.744,-12.686,-24.51,-19.704,-4.902,8.5714,18.983999,4.8025,16.424999,6.8277,-3.0274,5.7778,8.8235,21.127001
-8.594,6.7302,0.0,-17.646999,-13.793,-15.87,-4.8309,-8.8026,-7.8317,-17.646999,-13.793,-7.8431,5.7143,10.413,-1.8325,10.628,1.9968,-3.0274,1.9683,3.9216,17.261999
-14.281,0.06349,-8.7805,-14.706,-13.793,-17.820999,-9.6618,-6.8608,-6.8608,-14.706,-13.793,-13.725,1.9048,6.6032,-7.5197,5.7971,-2.8341,-2.0612,-0.88889,0.98039,13.398
-16.177,-5.6508,-15.61,-18.627001,-19.704,-20.747999,-10.628,-10.744,-9.7735,-18.627001,-19.704,-19.608,-5.7143,-0.06349,-9.4155,-1.9324,-7.6651,-8.8245,-2.7937,0.98039,3.7359
-12.385,-7.5556,-16.584999,-20.587999,-17.733999,-16.846001,-7.7295,-11.715,-9.7735,-20.587999,-17.733999,-17.646999,-10.476,-6.7302,-10.363,-5.7971,-9.5974,-8.8245,-3.746,-5.8824,-1.095
-9.5419,-8.5079,-16.584999,-10.784,-9.8522,-8.065,-9.6618,-2.9773,-4.9191,-10.784,-9.8522,-11.765,-14.286,-9.5873,-14.155,-10.628,-13.462,-6.8921,-5.6508,-16.667,-4.9597
-5.7504,-10.413,-18.537001,-2.9412,-0.98522,-0.26016,-8.6957,4.7896,-0.06472,-2.9412,-0.98522,-6.8627,-15.238,-12.444,-14.155,-16.424999,-17.327,3.7359,-7.5556,-17.646999,-9.7907
-1.0111,-12.317,-17.561001,0.0,3.9409,4.6179,-6.7633,3.8188,0.90615,0.0,3.9409,-2.9412,-14.286,-17.205999,-9.4155,-20.290001,-16.361,-0.12882,-2.7937,-12.745,-14.622
4.6761,-10.413,-12.683,7.8431,2.9557,3.6423,-2.8986,9.644,-2.9773,7.8431,2.9557,0.0,-10.476,-12.444,-3.7283,-17.391001,-11.53,4.7021,0.06349,-8.8235,-10.757
5.624,-6.6032,-4.878,12.745,2.9557,4.6179,1.9324,14.498,-1.0356,12.745,2.9557,1.9608,-6.6667,-9.5873,-0.88468,-12.56,-6.6989,6.6345,-5.6508,-8.8235,-12.689
12.259,-0.88889,6.8293,10.784,7.8818,15.35,10.628,13.528,5.7605,10.784,7.8818,12.745,0.0,-7.6825,6.6983,-4.8309,1.9968,4.7021,-5.6508,-3.9216,-14.622
19.841999,4.8254,17.561001,13.725,14.778,22.179001,15.459,12.557,13.528,13.725,14.778,21.569,3.8095,-0.06349,13.333,2.8986,9.7262,6.6345,1.0159,0.98039,-13.655
16.997999,5.7778,18.537001,16.667,19.704,19.252001,17.391001,8.6731,19.353001,16.667,19.704,23.528999,0.95238,-2.9206,9.5419,3.8647,7.7939,-2.0612,6.7302,-3.9216,-11.723
14.155,10.54,20.488001,17.646999,19.704,18.275999,19.323999,5.7605,23.236,17.646999,19.704,23.528999,-0.95238,-3.873,3.8547,7.7295,6.8277,-4.9597,13.397,-9.8039,-3.0274
9.4155,13.397,20.488001,10.784,17.733999,13.398,20.290001,1.877,22.264999,10.784,17.733999,21.569,-0.95238,-0.06349,1.9589,11.594,6.8277,-3.9936,18.159,-6.8627,4.7021
-0.06319,13.397,15.61,0.98039,10.837,3.6423,14.493,-3.9482,22.264999,0.98039,10.837,11.765,-3.8095,2.7937,0.06319,12.56,4.8953,-2.0612,19.111,-1.9608,12.432
-9.5419,9.5873,8.7805,-7.8431,0.98522,-9.0407,7.7295,-13.657,12.557,-7.8431,0.98522,1.9608,-2.8571,6.6032,-7.5197,11.594,1.9968,-11.723,13.397,-4.902,12.432
-11.438,7.6825,4.878,-12.745,-7.8818,-12.943,0.96618,-16.57,5.7605,-12.745,-7.8818,-3.9216,0.0,5.6508,-7.5197,8.6957,1.0306,-9.7907,7.6825,0.0,4.7021
-3.8547,11.492,7.8049,-12.745,-6.8966,-9.0407,4.8309,-15.599,5.7605,-12.745,-6.8966,-0.98039,4.7619,10.413,0.06319,11.594,5.8615,-7.8583,5.7778,8.8235,12.432
-5.7504,4.8254,2.9268,-22.549,-9.8522,-12.943,1.9324,-23.365999,1.877,-22.549,-9.8522,-5.8824,1.9048,4.6984,-2.7804,3.8647,1.9968,-11.723,1.0159,2.9412,9.533
-7.6461,-1.8413,-2.9268,-23.528999,-16.749001,-14.894,-5.7971,-24.337,-4.9191,-23.528999,-16.749001,-11.765,-0.95238,-0.06349,-2.7804,-3.8647,-1.868,-5.9259,0.06349,0.98039,5.6683
-9.5419,-5.6508,-7.8049,-20.587999,-19.704,-18.797001,-10.628,-18.511,-6.8608,-20.587999,-19.704,-15.686,-1.9048,-0.06349,-5.624,-7.7295,-5.7327,-5.9259,0.06349,-5.8824,6.6345
-8.594,-6.6032,-9.7561,-19.608,-17.733999,-15.87,-12.56,-13.657,-3.9482,-19.608,-17.733999,-14.706,-2.8571,0.88889,-6.5719,-8.6957,-6.6989,-7.8583,-1.8413,-8.8235,13.398
-8.594,-10.413,-13.659,-14.706,-10.837,-12.943,-9.6618,-9.7735,-2.0065,-14.706,-10.837,-11.765,-5.7143,-5.7778,-8.4676,-14.493,-10.564,-7.8583,-3.746,-4.902,4.7021
-10.49,-18.032,-19.511999,-11.765,-7.8818,-9.0407,-9.6618,-6.8608,-2.0065,-11.765,-7.8818,-10.784,-12.381,-12.444,-13.207,-24.155001,-17.327,-6.8921,-6.6032,-8.8235,-16.554001
-8.594,-18.983999,-19.511999,-5.8824,-2.9557,-2.2114,-7.7295,-2.0065,-1.0356,-5.8824,-2.9557,-6.8627,-15.238,-16.254,-14.155,-25.121,-19.259001,-6.8921,-4.6984,-10.784,-21.385
-2.9068,-13.27,-14.634,6.8627,0.98522,2.6667,-5.7971,9.644,1.877,6.8627,0.98522,-2.9412,-13.333,-12.444,-7.5197,-17.391001,-13.462,5.6683,-5.6508,-6.8627,-11.723
4.6761,-1.8413,-4.878,10.784,2.9557,14.374,-3.8647,10.615,0.90615,10.784,2.9557,4.902,-6.6667,-1.9683,-0.88468,-2.8986,-2.8341,6.6345,4.8254,-8.8235,-1.095
9.4155,5.7778,4.878,11.765,1.9704,21.202999,4.8309,8.6731,3.8188,11.765,1.9704,10.784,0.0,3.746,2.9068,5.7971,4.8953,5.6683,3.873,-12.745,1.8035
11.311,4.8254,9.7561,14.706,4.9261,20.228001,10.628,14.498,5.7605,14.706,4.9261,15.686,1.9048,2.7937,3.8547,5.7971,6.8277,1.8035,-2.7937,-11.765,-2.0612
9.4155,1.0159,9.7561,14.706,6.8966,17.301001,4.8309,15.469,5.7605,14.706,6.8966,15.686,1.9048,-0.06349,3.8547,3.8647,5.8615,-2.0612,0.06349,-7.8431,-4.9597
6.5719,-0.88889,9.7561,16.667,7.8818,13.398,6.7633,11.586,0.90615,16.667,7.8818,13.725,2.8571,-1.0159,6.6983,3.8647,6.8277,5.6683,2.9206,-0.98039,-5.9259
3.7283,-0.88889,9.7561,12.745,5.9113,7.5447,1.9324,13.528,1.877,12.745,5.9113,8.8235,5.7143,3.746,9.5419,5.7971,8.7601,8.5668,1.9683,6.8627,-3.0274
-1.0111,-3.746,6.8293,3.9216,0.98522,0.71545,-7.7295,2.8479,1.877,3.9216,0.98522,1.9608,6.6667,3.746,6.6983,1.9324,6.8277,4.7021,-5.6508,9.8039,-4.9597
1.8325,-2.7937,7.8049,0.98039,-4.9261,4.6179,-10.628,-11.715,-6.8608,0.98039,-4.9261,-0.98039,7.619,5.6508,7.6461,1.9324,5.8615,8.5668,-2.7937,16.667,-5.9259
1.8325,-2.7937,5.8537,-6.8627,-9.8522,-4.1626,-8.6957,-5.89,-7.8317,-6.8627,-9.8522,-4.902,5.7143,3.746,6.6983,0.0,3.9291,10.499,-1.8413,14.706,3.7359
0.88468,-4.6984,2.9268,-8.8235,-7.8818,-10.992,-4.8309,1.877,-5.89,-8.8235,-7.8818,-7.8431,1.9048,1.8413,4.8025,-1.9324,1.0306,8.5668,-1.8413,12.745,4.7021
-0.06319,-6.6032,1.9512,-13.725,-4.9261,-5.1382,-2.8986,-1.0356,-3.9482,-13.725,-4.9261,-4.902,0.0,-1.9683,0.06319,-3.8647,-1.868,-4.9597,-4.6984,9.8039,-0.12882
-0.06319,-7.5556,0.0,-14.706,-4.9261,-7.0894,-0.96618,-5.89,-6.8608,-14.706,-4.9261,-3.9216,0.0,-0.06349,0.06319,-5.7971,-1.868,-4.9597,-6.6032,8.8235,-2.0612
2.7804,-4.6984,1.9512,-4.902,-9.8522,-9.0407,0.96618,-9.7735,-6.8608,-4.902,-9.8522,-5.8824,-0.95238,-1.9683,1.9589,-2.8986,0.06441,2.7697,-3.746,10.784,0.83736
6.5719,2.9206,6.8293,-0.98039,-5.9113,-5.1382,0.0,-2.9773,-3.9482,-0.98039,-5.9113,-1.9608,0.0,-3.873,3.8547,0.96618,3.9291,3.7359,-2.7937,7.8431,-2.0612
10.363,11.492,10.732,0.98039,-1.9704,4.6179,3.8647,3.8188,-0.06472,0.98039,-1.9704,3.9216,4.7619,7.5556,7.6461,9.6618,9.7262,9.533,-0.88889,4.902,2.7697
9.4155,17.205999,9.7561,6.8627,0.0,9.4959,10.628,1.877,-1.0356,6.8627,0.0,6.8627,3.8095,7.5556,5.7504,12.56,9.7262,4.7021,2.9206,-0.98039,5.6683
10.363,18.159,10.732,4.902,2.9557,11.447,12.56,5.7605,2.8479,4.902,2.9557,9.8039,3.8095,10.413,5.7504,14.493,10.692,5.6683,5.7778,-1.9608,5.6683
14.155,17.205999,12.683,13.725,10.837,14.374,13.527,10.615,8.6731,13.725,10.837,15.686,4.7619,10.413,4.8025,13.527,11.659,2.7697,6.7302,-0.98039,0.83736
13.207,15.302,10.732,13.725,13.793,17.301001,19.323999,11.586,10.615,13.725,13.793,17.646999,2.8571,6.6032,1.9589,10.628,8.7601,-2.0612,6.7302,-5.8824,2.7697
10.363,11.492,4.878,12.745,11.823,17.301001,17.391001,9.644,13.528,12.745,11.823,13.725,0.95238,6.6032,1.9589,9.6618,6.8277,-1.095,10.54,-2.9412,3.7359
1.8325,5.7778,-5.8537,6.8627,4.9261,9.4959,9.6618,5.7605,10.615,6.8627,4.9261,4.902,-1.9048,0.88889,-2.7804,3.8647,-0.90177,-3.0274,10.54,-6.8627,5.6683
-4.8025,6.7302,-7.8049,2.9412,3.9409,6.5691,12.56,1.877,5.7605,2.9412,3.9409,3.9216,-3.8095,-1.9683,-3.7283,3.8647,-4.7665,-8.8245,15.302,-5.8824,18.229
-11.438,4.8254,-6.8293,5.8824,2.9557,0.71545,11.594,-1.0356,4.7896,5.8824,2.9557,1.9608,-2.8571,0.88889,-7.5197,0.96618,-6.6989,-11.723,5.7778,-8.8235,2.7697
-12.385,4.8254,-4.878,3.9216,0.0,-8.065,6.7633,-2.9773,4.7896,3.9216,0.0,-0.98039,-0.95238,3.746,-4.6761,1.9324,-4.7665,-2.0612,1.9683,-7.8431,-6.8921
-14.281,1.9683,-7.8049,-8.8235,-7.8818,-17.820999,-1.9324,-8.8026,-4.9191,-8.8235,-7.8818,-9.8039,-1.9048,2.7937,-5.624,2.8986,-4.7665,-1.095,1.9683,-1.9608,0.83736
-11.438,-0.88889,-9.7561,-15.686,-13.793,-18.797001,-11.594,-10.744,-12.686,-15.686,-13.793,-15.686,1.9048,3.746,-1.8325,4.8309,-1.868,-0.12882,-3.746,4.902,7.6006
-4.8025,3.873,-3.9024,-15.686,-15.764,-12.943,-14.493,-9.7735,-11.715,-15.686,-15.764,-12.745,7.619,10.413,4.8025,10.628,3.9291,1.8035,1.0159,9.8039,15.33
-4.8025,0.06349,-1.9512,-11.765,-18.719,-11.967,-15.459,-7.8317,-14.628,-11.765,-18.719,-12.745,7.619,9.4603,5.7504,8.6957,4.8953,1.8035,-4.6984,10.784,8.5668
-1.9589,-2.7937,0.0,-6.8627,-16.749001,-12.943,-13.527,-3.9482,-16.57,-6.8627,-16.749001,-11.765,5.7143,9.4603,4.8025,6.7633,4.8953,0.83736,-7.5556,6.8627,7.6006
-0.06319,-4.6984,0.97561,-14.706,-14.778,-10.016,-14.493,-5.89,-19.482,-14.706,-14.778,-11.765,3.8095,6.6032,2.9068,3.8647,2.963,0.83736,-8.5079,2.9412,5.6683
1.8325,-3.746,0.97561,-5.8824,-3.9409,-4.1626,-7.7295,-2.9773,-10.744,-5.8824,-3.9409,-4.902,2.8571,2.7937,0.06319,0.96618,1.9968,-4.9597,-5.6508,1.9608,5.6683
5.624,0.06349,3.9024,5.8824,0.98522,3.6423,0.96618,0.90615,-0.06472,5.8824,0.98522,2.9412,1.9048,0.88889,0.06319,-0.96618,1.0306,-2.0612,-2.7937,1.9608,9.533
13.207,-0.88889,9.7561,9.8039,10.837,19.252001,4.8309,7.7023,2.8479,9.8039,10.837,12.745,3.8095,0.88889,4.8025,-3.8647,3.9291,6.6345,-5.6508,7.8431,-3.9936
13.207,-4.6984,9.7561,18.627001,14.778,21.202999,10.628,11.586,6.7314,18.627001,14.778,14.706,2.8571,-2.9206,4.8025,-10.628,2.963,8.5668,-7.5556,3.9216,-12.689
15.103,-6.6032,9.7561,26.471001,20.690001,18.275999,13.527,17.410999,12.557,26.471001,20.690001,18.627001,1.9048,-8.6349,6.6983,-13.527,2.963,8.5668,-2.7937,2.9412,-17.52
16.051001,-7.5556,8.7805,33.333,26.601,24.129999,14.493,16.440001,15.469,33.333,26.601,22.549,2.8571,-7.6825,7.6461,-12.56,3.9291,12.432,-4.6984,1.9608,-17.52
11.311,-12.317,2.9268,29.412001,24.631001,25.106001,9.6618,12.557,11.586,29.412001,24.631001,18.627001,0.95238,-5.7778,3.8547,-12.56,1.9968,6.6345,-0.88889,0.98039,-12.689
0.88468,-16.127001,-6.8293,19.608,17.733999,14.374,1.9324,16.440001,8.6731,19.608,17.733999,8.8235,-4.7619,-13.397,-1.8325,-16.424999,-6.6989,2.7697,-6.6032,-3.9216,-14.622
-10.49,-15.175,-14.634,12.745,10.837,2.6667,-1.9324,11.586,3.8188,12.745,10.837,0.0,-10.476,-19.111,-8.4676,-16.424999,-12.496,-3.0274,-6.6032,-9.8039,-16.554001
-16.177,-10.413,-19.511999,10.784,4.9261,-4.1626,-3.8647,0.90615,4.7896,10.784,4.9261,-6.8627,-14.286,-16.254,-10.363,-11.594,-15.395,-6.8921,4.8254,-8.8235,-6.8921
-17.125,-9.4603,-22.438999,2.9412,0.98522,-11.967,-10.628,-3.9482,1.877,2.9412,0.98522,-14.706,-13.333,-14.349,-8.4676,-11.594,-16.361,-4.9597,6.7302,-4.902,-2.0612
-18.073,-7.5556,-23.415001,-8.8235,-4.9261,-18.797001,-14.493,-7.8317,-4.9191,-8.8235,-4.9261,-20.587999,-12.381,-15.302,-10.363,-11.594,-17.327,-5.9259,1.0159,-3.9216,-2.0612
-18.073,-0.88889,-20.488001,-15.686,-12.808,-22.698999,-16.424999,-10.744,-5.89,-15.686,-12.808,-22.549,-13.333,-12.444,-13.207,-6.7633,-16.361,-9.7907,1.0159,-8.8235,-1.095
-14.281,1.9683,-15.61,-16.667,-12.808,-21.724001,-12.56,-13.657,-4.9191,-16.667,-12.808,-19.608,-10.476,-9.5873,-11.311,-1.9324,-12.496,-5.9259,2.9206,-6.8627,5.6683
-6.6983,6.7302,-8.7805,-13.725,-14.778,-16.846001,-4.8309,-9.7735,-4.9191,-13.725,-14.778,-13.725,-4.7619,0.88889,-3.7283,5.7971,-4.7665,-0.12882,10.54,2.9412,17.261999
2.7804,11.492,0.0,-9.8039,-11.823,-4.1626,5.7971,-8.8026,-0.06472,-9.8039,-11.823,-4.902,0.95238,6.6032,1.9589,11.594,1.9968,7.6006,4.8254,4.902,19.195
-0.06319,8.6349,1.9512,-13.725,-4.9261,-2.2114,0.96618,-8.8026,0.90615,-13.725,-4.9261,-2.9412,3.8095,5.6508,-3.7283,9.6618,1.0306,-3.9936,-3.746,-2.9412,10.499
-1.0111,6.7302,4.878,-7.8431,-2.9557,-2.2114,-2.8986,-9.7735,-2.9773,-7.8431,-2.9557,0.0,6.6667,5.6508,-5.624,8.6957,1.0306,-15.588,-2.7937,-2.9412,8.5668
0.88468,7.6825,9.7561,-3.9216,-0.98522,-4.1626,0.96618,-7.8317,-1.0356,-3.9216,-0.98522,2.9412,5.7143,9.4603,-5.624,9.6618,1.9968,-15.588,-0.88889,-2.9412,13.398
4.6761,14.349,16.584999,4.902,8.867,1.6911,11.594,-0.06472,3.8188,4.902,8.867,12.745,5.7143,10.413,-4.6761,10.628,3.9291,-6.8921,2.9206,-2.9412,9.533
5.624,11.492,18.537001,11.765,10.837,10.472,15.459,-1.0356,8.6731,11.765,10.837,16.667,6.6667,8.5079,-3.7283,7.7295,4.8953,-0.12882,2.9206,0.0,-0.12882
5.624,5.7778,17.561001,7.8431,13.793,11.447,12.56,2.8479,6.7314,7.8431,13.793,17.646999,7.619,8.5079,-2.7804,5.7971,5.8615,-2.0612,6.7302,-3.9216,3.7359
7.5197,5.7778,17.561001,10.784,12.808,8.5203,14.493,8.6731,5.7605,10.784,12.808,16.667,8.5714,15.175,3.8547,8.6957,9.7262,2.7697,3.873,0.0,2.7697
4.6761,0.06349,7.8049,8.8235,8.867,6.5691,8.6957,3.8188,5.7605,8.8235,8.867,7.8431,7.619,10.413,4.8025,3.8647,7.7939,1.8035,-2.7937,0.0,2.7697
-2.9068,-10.413,-8.7805,2.9412,0.98522,0.71545,-6.7633,4.7896,1.877,2.9412,0.98522,-5.8824,6.6667,3.746,4.8025,-3.8647,1.9968,2.7697,-0.88889,1.9608,-4.9597
-3.8547,-14.222,-15.61,4.902,-2.9557,-4.1626,-16.424999,10.615,-2.9773,4.902,-2.9557,-12.745,7.619,4.6984,10.49,-6.7633,1.0306,12.432,-0.88889,13.725,-3.0274
-7.6461,-19.937,-21.462999,1.9608,-3.9409,-7.0894,-15.459,8.6731,-7.8317,1.9608,-3.9409,-15.686,5.7143,0.88889,5.7504,-13.527,-5.7327,5.6683,-8.5079,10.784,-3.0274
-8.594,-19.937,-21.462999,4.902,-2.9557,-8.065,-13.527,8.6731,-10.744,4.902,-2.9557,-13.725,2.8571,-6.7302,1.9589,-17.391001,-8.6312,-0.12882,-9.4603,8.8235,-10.757
-4.8025,-19.937,-17.561001,-1.9608,-4.9261,-6.1138,-12.56,7.7023,-14.628,-1.9608,-4.9261,-11.765,3.8095,-7.6825,6.6983,-16.424999,-6.6989,13.398,-12.317,14.706,-15.588
-4.8025,-18.983999,-15.61,-6.8627,-9.8522,-7.0894,-14.493,7.7023,-15.599,-6.8627,-9.8522,-12.745,5.7143,-3.873,7.6461,-12.56,-4.7665,16.296,-15.175,15.686,-6.8921
-2.9068,-15.175,-11.707,-5.8824,-11.823,-4.1626,-14.493,7.7023,-14.628,-5.8824,-11.823,-11.765,4.7619,0.88889,6.6983,-5.7971,-1.868,16.296,-12.317,17.646999,1.8035
-5.7504,-15.175,-10.732,-3.9216,-13.793,-6.1138,-17.391001,2.8479,-12.686,-3.9216,-13.793,-12.745,1.9048,-1.9683,1.0111,-5.7971,-3.8003,11.465,-11.365,13.725,0.83736
-6.6983,-12.317,-6.8293,-1.9608,-9.8522,-7.0894,-12.56,2.8479,-10.744,-1.9608,-9.8522,-9.8039,-1.9048,-3.873,-5.624,-4.8309,-5.7327,3.7359,-7.5556,4.902,4.7021
-4.8025,-6.6032,-0.97561,-3.9216,-4.9261,-4.1626,-6.7633,0.90615,-6.8608,-3.9216,-4.9261,-4.902,-4.7619,-1.9683,-7.5197,0.0,-4.7665,-0.12882,-3.746,-4.902,6.6345
-0.06319,1.9683,5.8537,-3.9216,-1.9704,-0.26016,0.96618,-3.9482,-6.8608,-3.9216,-1.9704,1.9608,-2.8571,2.7937,-4.6761,5.7971,-0.90177,1.8035,-1.8413,-2.9412,4.7021
2.7804,11.492,13.659,-5.8824,-1.9704,4.6179,6.7633,-3.9482,-0.06472,-5.8824,-1.9704,7.8431,0.0,5.6508,-3.7283,11.594,4.8953,-3.9936,4.8254,-3.9216,3.7359
5.624,21.016001,21.462999,-4.902,-2.9557,5.5935,11.594,-2.9773,3.8188,-4.902,-2.9557,12.745,4.7619,11.365,-0.88468,20.290001,11.659,-6.8921,9.5873,-10.784,17.261999
4.6761,21.968,22.438999,-4.902,-3.9409,2.6667,13.527,-4.9191,2.8479,-4.902,-3.9409,11.765,6.6667,12.317,0.06319,21.256001,13.591,-8.8245,10.54,-10.784,19.195
6.5719,19.111,22.438999,-8.8235,0.98522,5.5935,8.6957,-4.9191,-2.9773,-8.8235,0.98522,11.765,7.619,9.4603,2.9068,17.391001,14.557,-8.8245,4.8254,-4.902,-0.12882
12.259,18.159,23.415001,-3.9216,4.9261,9.4959,8.6957,2.8479,1.877,-3.9216,4.9261,15.686,8.5714,8.5079,8.594,16.424999,15.523,-0.12882,0.06349,-2.9412,-7.8583
10.363,11.492,16.584999,1.9608,1.9704,8.5203,9.6618,0.90615,6.7314,1.9608,1.9704,13.725,4.7619,6.6032,8.594,12.56,12.625,-2.0612,-0.88889,-0.98039,-1.095
5.624,4.8254,10.732,0.98039,4.9261,5.5935,9.6618,-2.0065,6.7314,0.98039,4.9261,11.765,1.9048,1.8413,5.7504,7.7295,6.8277,-0.12882,2.9206,-1.9608,1.8035
4.6761,7.6825,11.707,5.8824,10.837,11.447,9.6618,5.7605,9.644,5.8824,10.837,12.745,0.95238,3.746,3.8547,7.7295,5.8615,4.7021,6.7302,-2.9412,1.8035
-2.9068,1.0159,2.9268,7.8431,8.867,9.4959,1.9324,6.7314,7.7023,7.8431,8.867,6.8627,-3.8095,-2.9206,-6.5719,-1.9324,-1.868,-9.7907,1.0159,-9.8039,-1.095
-16.177,-14.222,-16.584999,-2.9412,0.0,-6.1138,-9.6618,2.8479,0.90615,-2.9412,0.0,-11.765,-12.381,-14.349,-17.945999,-17.391001,-16.361,-10.757,-4.6984,-14.706,-12.689
-25.656,-26.603001,-35.122002,-9.8039,-10.837,-17.820999,-18.357,-4.9191,-10.744,-9.8039,-10.837,-25.49,-20.952,-23.872999,-25.528999,-29.952,-28.921,-6.8921,-5.6508,-19.608,-20.419001
-24.708,-28.507999,-39.023998,-5.8824,-10.837,-18.797001,-22.222,-3.9482,-6.8608,-5.8824,-10.837,-29.412001,-19.048,-19.111,-22.686001,-29.952,-28.921,-9.7907,-7.5556,-15.686,-13.655
-22.812,-26.603001,-37.073002,-7.8431,-8.867,-22.698999,-25.121,-4.9191,-2.0065,-7.8431,-8.867,-30.392,-18.094999,-23.872999,-19.841999,-30.917999,-26.989,-9.7907,-6.6032,-10.784,-10.757
-19.021,-22.794001,-32.195,-15.686,-13.793,-23.674999,-21.256001,-6.8608,-3.9482,-15.686,-13.793,-31.372999,-17.143,-22.921,-16.051001,-27.052999,-24.09,-6.8921,-2.7937,-8.8235,-3.9936
-8.594,-17.079,-22.438999,-14.706,-11.823,-17.820999,-19.323999,-4.9191,-6.8608,-14.706,-11.823,-24.51,-11.429,-16.254,-7.5197,-19.323999,-15.395,0.83736,-0.88889,0.98039,0.83736
-5.7504,-9.4603,-15.61,-13.725,-9.8522,-15.87,-18.357,-5.89,-4.9191,-13.725,-9.8522,-19.608,-8.5714,-10.54,-4.6761,-10.628,-8.6312,-0.12882,4.8254,-1.9608,0.83736
-1.0111,-4.6984,-7.8049,-11.765,-6.8966,-12.943,-13.527,-9.7735,-1.0356,-11.765,-6.8966,-14.706,-3.8095,-3.873,-2.7804,-1.9324,-2.8341,-6.8921,2.9206,-7.8431,-3.0274
9.4155,7.6825,5.8537,-5.8824,-0.98522,-3.187,-1.9324,-7.8317,5.7605,-5.8824,-0.98522,-1.9608,1.9048,3.746,3.8547,10.628,7.7939,-7.8583,5.7778,-5.8824,-1.095
19.841999,21.016001,21.462999,0.98039,4.9261,8.5203,14.493,-2.0065,8.6731,0.98039,4.9261,12.745,8.5714,10.413,14.281,25.121,20.354,1.8035,13.397,2.9412,15.33
27.424999,32.444,34.146,3.9216,10.837,18.275999,22.222,2.8479,12.557,3.9216,10.837,24.51,14.286,16.127001,20.916,34.783001,30.016001,3.7359,17.205999,7.8431,13.398
29.320999,37.206001,38.049,7.8431,12.808,21.202999,26.087,0.90615,9.644,7.8431,12.808,29.412001,14.286,15.175,21.864,35.749001,31.948,2.7697,12.444,5.8824,5.6683
29.320999,40.063,40.0,12.745,12.808,24.129999,30.917999,-2.0065,12.557,12.745,12.808,32.353001,14.286,18.983999,22.812,36.715,31.948,7.6006,10.54,7.8431,14.364
28.372999,33.396999,39.023998,12.745,15.764,29.007999,31.884001,1.877,14.498,12.745,15.764,36.275002,10.476,16.127001,18.073,29.952,27.118,0.83736,13.397,6.8627,11.465
23.632999,24.825001,32.195,10.784,18.719,28.033001,30.917999,6.7314,13.528,10.784,18.719,34.313999,3.8095,6.6032,9.5419,18.357,17.455999,-0.12882,9.5873,2.9412,0.83736
16.051001,20.063,24.389999,7.8431,14.778,24.129999,28.986,3.8188,13.528,7.8431,14.778,29.412001,-3.8095,-0.06349,1.9589,8.6957,8.7601,0.83736,7.6825,-2.9412,0.83736
7.5197,15.302,13.659,7.8431,10.837,12.423,16.424999,4.7896,10.615,7.8431,10.837,20.587999,-9.5238,-4.8254,-3.7283,0.96618,1.0306,-1.095,5.7778,-4.902,6.6345
-5.7504,6.7302,-1.9512,5.8824,3.9409,-2.2114,8.6957,2.8479,3.8188,5.8824,3.9409,7.8431,-14.286,-13.397,-14.155,-9.6618,-10.564,-3.0274,-0.88889,-15.686,-2.0612
-11.438,1.0159,-10.732,0.0,1.9704,-6.1138,2.8986,-2.0065,1.877,0.0,1.9704,-0.98039,-17.143,-15.302,-16.051001,-12.56,-15.395,-3.9936,-2.7937,-12.745,-4.9597
-12.385,-3.746,-14.634,-2.9412,-3.9409,-6.1138,0.0,-1.0356,-3.9482,-2.9412,-3.9409,-7.8431,-13.333,-10.54,-13.207,-12.56,-14.428,-4.9597,-2.7937,-9.8039,-5.9259
-10.49,-9.4603,-18.537001,-3.9216,-7.8818,-8.065,-2.8986,2.8479,-3.9482,-3.9216,-7.8818,-12.745,-8.5714,-8.6349,-7.5197,-12.56,-11.53,2.7697,-3.746,-9.8039,-9.7907
-8.594,-7.5556,-19.511999,-4.902,-2.9557,-8.065,-2.8986,3.8188,1.877,-4.902,-2.9557,-14.706,-4.7619,-4.8254,-0.88468,-9.6618,-8.6312,3.7359,2.9206,0.0,-6.8921
-5.7504,-3.746,-14.634,-4.902,-0.98522,-9.0407,-0.96618,1.877,-0.06472,-4.902,-0.98522,-10.784,1.9048,3.746,4.8025,-4.8309,-3.8003,10.499,4.8254,10.784,0.83736
-9.5419,-7.5556,-15.61,-8.8235,-12.808,-12.943,-11.594,-3.9482,-4.9191,-8.8235,-12.808,-14.706,1.9048,-0.06349,0.06319,-6.7633,-6.6989,6.6345,-6.6032,5.8824,1.8035
-7.6461,-4.6984,-11.707,-10.784,-7.8818,-10.016,-14.493,-6.8608,-8.8026,-10.784,-7.8818,-12.745,4.7619,2.7937,1.9589,-1.9324,-3.8003,0.83736,-4.6984,10.784,-0.12882
-0.06319,3.873,-1.9512,-7.8431,-4.9261,-3.187,-2.8986,-2.0065,-2.0065,-7.8431,-4.9261,-4.902,10.476,7.5556,7.6461,5.7971,2.963,6.6345,1.9683,12.745,3.7359
3.7283,10.54,7.8049,2.9412,-0.98522,-2.2114,7.7295,-1.0356,7.7023,2.9412,-0.98522,2.9412,12.381,10.413,6.6983,13.527,8.7601,-0.12882,6.7302,5.8824,0.83736
8.4676,11.492,14.634,9.8039,1.9704,1.6911,8.6957,-0.06472,4.7896,9.8039,1.9704,6.8627,12.381,13.27,7.6461,17.391001,14.557,-7.8583,5.7778,0.0,-1.095
18.893999,16.254,23.415001,8.8235,5.9113,12.423,11.594,1.877,0.90615,8.8235,5.9113,13.725,17.143,18.983999,15.229,24.155001,23.253,-2.0612,1.0159,6.8627,8.5668
25.528999,19.111,26.341,7.8431,7.8818,16.325001,12.56,4.7896,0.90615,7.8431,7.8818,17.646999,18.094999,24.698,19.021,28.018999,27.118,3.7359,0.06349,11.765,19.195
27.424999,15.302,23.415001,6.8627,0.0,18.275999,9.6618,11.586,-0.06472,6.8627,0.0,16.667,16.190001,18.032,20.916,24.155001,25.184999,16.296,1.9683,17.646999,13.398
23.632999,9.5873,20.488001,3.9216,4.9261,13.398,0.0,7.7023,-1.0356,3.9216,4.9261,12.745,14.286,11.365,19.021,16.424999,20.354,10.499,-0.88889,17.646999,0.83736
15.103,3.873,14.634,1.9608,4.9261,6.5691,-6.7633,1.877,-2.9773,1.9608,4.9261,6.8627,7.619,7.5556,12.385,8.6957,11.659,6.6345,-2.7937,13.725,-0.12882
9.4155,-0.88889,9.7561,0.0,0.98522,6.5691,-0.96618,1.877,-0.06472,0.0,0.98522,5.8824,0.95238,-0.06349,5.7504,-1.9324,3.9291,7.6006,-2.7937,5.8824,0.83736
3.7283,-7.5556,5.8537,0.98039,-2.9557,-1.2358,-4.8309,-0.06472,-3.9482,0.98039,-2.9557,0.0,-3.8095,-3.873,3.8547,-9.6618,-0.90177,9.533,-3.746,-0.98039,-6.8921
-0.06319,-11.365,0.97561,-2.9412,-3.9409,-5.1382,-5.7971,1.877,-5.89,-2.9412,-3.9409,-2.9412,-4.7619,-3.873,2.9068,-12.56,-3.8003,4.7021,-5.6508,3.9216,-5.9259
-5.7504,-15.175,-5.8537,-1.9608,-5.9113,-6.1138,-8.6957,3.8188,-4.9191,-1.9608,-5.9113,-7.8431,-5.7143,-8.6349,-0.88468,-17.391001,-8.6312,-0.12882,-11.365,3.9216,-7.8583
-12.385,-18.983999,-15.61,-1.9608,-7.8818,-11.967,-11.594,1.877,-2.9773,-1.9608,-7.8818,-13.725,-5.7143,-9.5873,-5.624,-17.391001,-13.462,3.7359,-7.5556,-0.98039,-5.9259
-20.916,-21.841,-24.389999,-9.8039,-11.823,-17.820999,-17.391001,-3.9482,-3.9482,-9.8039,-11.823,-21.569,-4.7619,-6.7302,-9.4155,-16.424999,-15.395,0.83736,-4.6984,-0.98039,-5.9259
-24.708,-18.983999,-25.365999,-10.784,-9.8522,-19.771999,-15.459,-5.89,-4.9191,-10.784,-9.8522,-21.569,-3.8095,-4.8254,-12.259,-12.56,-14.428,-8.8245,-5.6508,-3.9216,-0.12882
-21.864,-11.365,-20.488001,-6.8627,-4.9261,-15.87,-8.6957,-4.9191,-2.0065,-6.8627,-4.9261,-16.667,-1.9048,-1.0159,-9.4155,-5.7971,-9.5974,-8.8245,-2.7937,-0.98039,8.5668
-20.916,-6.6032,-17.561001,-6.8627,-2.9557,-14.894,-6.7633,-10.744,-0.06472,-6.8627,-2.9557,-12.745,-1.9048,1.8413,-13.207,-3.8647,-8.6312,-14.622,-1.8413,-7.8431,9.533
-15.229,-1.8413,-12.683,-6.8627,0.98522,-11.967,-2.8986,-6.8608,1.877,-6.8627,0.98522,-7.8431,0.0,6.6032,-12.259,1.9324,-4.7665,-13.655,2.9206,-13.725,2.7697
-6.6983,4.8254,-5.8537,-2.9412,3.9409,-5.1382,2.8986,0.90615,3.8188,-2.9412,3.9409,-0.98039,4.7619,11.365,-6.5719,9.6618,1.9968,-7.8583,3.873,-4.902,4.7021
3.7283,11.492,2.9268,0.98039,4.9261,5.5935,4.8309,3.8188,5.7605,0.98039,4.9261,4.902,8.5714,13.27,2.9068,15.459,8.7601,0.83736,6.7302,0.98039,4.7021
14.155,18.159,10.732,4.902,9.8522,10.472,8.6957,8.6731,3.8188,4.902,9.8522,10.784,12.381,15.175,13.333,21.256001,15.523,4.7021,5.7778,9.8039,8.5668
16.051001,15.302,13.659,2.9412,7.8818,11.447,8.6957,5.7605,2.8479,2.9412,7.8818,11.765,11.429,14.222,15.229,20.290001,15.523,6.6345,7.6825,6.8627,13.398
13.207,10.54,12.683,3.9216,2.9557,7.5447,11.594,-1.0356,-1.0356,3.9216,2.9557,7.8431,7.619,7.5556,14.281,13.527,12.625,8.5668,6.7302,0.98039,11.465
11.311,2.9206,8.7805,6.8627,0.98522,6.5691,4.8309,-2.0065,-2.0065,6.8627,0.98522,5.8824,5.7143,3.746,10.49,4.8309,6.8277,7.6006,1.0159,4.902,3.7359
7.5197,-6.6032,0.97561,4.902,-1.9704,6.5691,-4.8309,1.877,-1.0356,4.902,-1.9704,1.9608,1.9048,-1.0159,6.6983,-4.8309,0.06441,5.6683,-1.8413,3.9216,-6.8921
5.624,-7.5556,-0.97561,0.0,0.0,6.5691,-3.8647,8.6731,-0.06472,0.0,0.0,2.9412,-0.95238,-2.9206,4.8025,-8.6957,-2.8341,-3.0274,-0.88889,6.8627,-11.723
2.7804,-7.5556,0.0,1.9608,0.98522,5.5935,0.96618,5.7605,-2.9773,1.9608,0.98522,5.8824,-4.7619,-5.7778,-0.88468,-10.628,-6.6989,-2.0612,0.06349,0.98039,-3.0274
2.7804,-10.413,3.9024,3.9216,2.9557,11.447,3.8647,3.8188,-6.8608,3.9216,2.9557,10.784,-8.5714,-12.444,-4.6761,-16.424999,-9.5974,4.7021,-4.6984,0.0,-8.8245
3.7283,-10.413,4.878,11.765,8.867,13.398,3.8647,12.557,2.8479,11.765,8.867,12.745,-11.429,-14.349,-6.5719,-15.459,-10.564,8.5668,-8.5079,-3.9216,-6.8921
-7.6461,-13.27,-4.878,11.765,4.9261,0.71545,2.8986,8.6731,4.7896,11.765,4.9261,3.9216,-15.238,-14.349,-16.997999,-18.357,-16.361,-2.0612,-3.746,-18.627001,-8.8245
-16.177,-12.317,-12.683,3.9216,2.9557,-6.1138,0.0,-0.06472,1.877,3.9216,2.9557,-3.9216,-14.286,-16.254,-19.841999,-17.391001,-18.292999,-7.8583,1.0159,-18.627001,-8.8245
-18.073,-7.5556,-12.683,-1.9608,1.9704,-8.065,-2.8986,-4.9191,0.90615,-1.9608,1.9704,-5.8824,-10.476,-10.54,-15.103,-10.628,-13.462,-8.8245,4.8254,-10.784,-15.588
-21.864,-4.6984,-11.707,-8.8235,-1.9704,-15.87,-4.8309,-3.9482,-0.06472,-8.8235,-1.9704,-8.8235,-5.7143,-7.6825,-13.207,-6.7633,-10.564,-12.689,-1.8413,-10.784,-13.655
-19.968,-4.6984,-11.707,-7.8431,-1.9704,-14.894,-8.6957,-1.0356,-0.06472,-7.8431,-1.9704,-10.784,-3.8095,-3.873,-10.363,-5.7971,-8.6312,-8.8245,-7.5556,-7.8431,-5.9259
-13.333,-4.6984,-13.659,-6.8627,-4.9261,-10.992,-7.7295,0.90615,-2.0065,-6.8627,-4.9261,-11.765,-0.95238,-3.873,-2.7804,-4.8309,-5.7327,-1.095,-5.6508,0.0,-5.9259
-10.49,-1.8413,-13.659,-5.8824,-4.9261,-9.0407,-4.8309,-3.9482,-1.0356,-5.8824,-4.9261,-9.8039,3.8095,-3.873,0.06319,-0.96618,-1.868,-2.0612,-5.6508,1.9608,-4.9597
-2.9068,1.9683,-7.8049,-3.9216,-1.9704,-5.1382,-1.9324,-2.9773,0.90615,-3.9216,-1.9704,-6.8627,8.5714,1.8413,7.6461,3.8647,3.9291,-1.095,0.06349,6.8627,-0.12882
1.8325,2.9206,-4.878,-2.9412,-4.9261,-2.2114,-4.8309,-2.0065,-3.9482,-2.9412,-4.9261,-6.8627,7.619,3.746,11.438,5.7971,5.8615,4.7021,4.8254,10.784,4.7021
6.5719,-1.8413,-2.9268,0.0,-4.9261,-0.26016,-4.8309,2.8479,-4.9191,0.0,-4.9261,-5.8824,9.5238,5.6508,12.385,3.8647,6.8277,7.6006,-0.88889,11.765,-1.095
9.4155,-2.7937,-0.97561,-1.9608,-6.8966,1.6911,-0.96618,9.644,-6.8608,-1.9608,-6.8966,-4.902,9.5238,8.5079,12.385,4.8309,7.7939,7.6006,-3.746,13.725,-0.12882
9.4155,-2.7937,-0.97561,-3.9216,-2.9557,2.6667,-2.8986,4.7896,-3.9482,-3.9216,-2.9557,-3.9216,3.8095,3.746,9.5419,1.9324,3.9291,12.432,-3.746,14.706,6.6345
5.624,-2.7937,0.97561,2.9412,2.9557,3.6423,-6.7633,3.8188,-0.06472,2.9412,2.9557,-2.9412,0.0,1.8413,4.8025,0.96618,1.0306,12.432,-3.746,9.8039,-0.12882
2.7804,-4.6984,3.9024,8.8235,3.9409,3.6423,-3.8647,8.6731,-1.0356,8.8235,3.9409,0.98039,-3.8095,-5.7778,-0.88468,-2.8986,-2.8341,9.533,-2.7937,4.902,-3.0274
0.88468,-6.6032,3.9024,12.745,3.9409,7.5447,1.9324,7.7023,-2.0065,12.745,3.9409,4.902,-4.7619,-9.5873,-4.6761,-7.7295,-5.7327,2.7697,-4.6984,1.9608,-6.8921
-1.0111,-9.4603,3.9024,10.784,8.867,8.5203,3.8647,4.7896,-2.0065,10.784,8.867,8.8235,-6.6667,-7.6825,-8.4676,-9.6618,-8.6312,-7.8583,-6.6032,-4.902,-7.8583
1.8325,-10.413,5.8537,2.9412,1.9704,11.447,2.8986,2.8479,-4.9191,2.9412,1.9704,10.784,-5.7143,-4.8254,-9.4155,-10.628,-7.6651,-3.0274,-1.8413,-5.8824,-3.9936
-3.8547,-18.032,-1.9512,4.902,0.98522,11.447,-2.8986,10.615,-5.89,4.902,0.98522,5.8824,-11.429,-10.54,-14.155,-17.391001,-14.428,4.7021,-8.5079,-10.784,-3.9936
-10.49,-18.032,-9.7561,6.8627,0.0,4.6179,-5.7971,14.498,-5.89,6.8627,0.0,-0.98039,-14.286,-12.444,-18.893999,-19.323999,-18.292999,1.8035,-9.4603,-16.667,-7.8583
-6.6983,-12.317,-6.8293,5.8824,-1.9704,1.6911,-3.8647,16.440001,-7.8317,5.8824,-1.9704,-1.9608,-9.5238,-10.54,-11.311,-13.527,-11.53,0.83736,-6.6032,-9.8039,-6.8921
-5.7504,-14.222,-6.8293,1.9608,-4.9261,-1.2358,-7.7295,18.382,-12.686,1.9608,-4.9261,-4.902,-3.8095,-10.54,-3.7283,-14.493,-7.6651,3.7359,-13.27,0.98039,-24.283001
-0.06319,-8.5079,-0.97561,-0.98039,-5.9113,1.6911,-5.7971,18.382,-15.599,-0.98039,-5.9113,-0.98039,4.7619,-4.8254,5.7504,-7.7295,0.06441,9.533,-11.365,10.784,-24.283001
0.88468,-6.6032,0.97561,-0.98039,-8.867,2.6667,-8.6957,18.382,-22.395,-0.98039,-8.867,-0.98039,8.5714,0.88889,7.6461,-2.8986,1.9968,11.465,-11.365,10.784,-12.689
0.88468,-4.6984,0.0,-1.9608,-9.8522,0.71545,-9.6618,18.382,-20.452999,-1.9608,-9.8522,-2.9412,9.5238,-1.0159,11.438,0.0,3.9291,16.296,-10.413,12.745,-8.8245
-0.06319,-2.7937,-0.97561,-1.9608,-9.8522,-2.2114,-11.594,13.528,-22.395,-1.9608,-9.8522,-5.8824,9.5238,-1.0159,12.385,1.9324,5.8615,14.364,-8.5079,14.706,-3.0274
-7.6461,-3.746,-6.8293,-3.9216,-9.8522,-9.0407,-13.527,3.8188,-26.278,-3.9216,-9.8522,-11.765,3.8095,-1.0159,6.6983,0.96618,1.0306,6.6345,-5.6508,13.725,1.8035
-10.49,-2.7937,-10.732,-1.9608,-6.8966,-9.0407,-11.594,3.8188,-29.191,-1.9608,-6.8966,-12.745,0.0,1.8413,1.9589,0.96618,-1.868,8.5668,0.06349,8.8235,12.432
-10.49,-4.6984,-12.683,-5.8824,-12.808,-10.016,-12.56,0.90615,-31.132999,-5.8824,-12.808,-14.706,-1.9048,-2.9206,-1.8325,-1.9324,-5.7327,11.465,-8.5079,4.902,-4.9597
-9.5419,-6.6032,-11.707,-12.745,-16.749001,-11.967,-10.628,-1.0356,-30.162001,-12.745,-16.749001,-14.706,-2.8571,-6.7302,-7.5197,-4.8309,-8.6312,0.83736,-17.079,-0.98039,-12.689
-4.8025,-5.6508,-3.9024,-9.8039,-13.793,-8.065,-16.424999,1.877,-20.452999,-9.8039,-13.793,-9.8039,-2.8571,-3.873,-6.5719,-3.8647,-5.7327,-3.9936,-9.4603,-5.8824,-13.655
-1.0111,-2.7937,0.97561,-8.8235,-12.808,-2.2114,-14.493,1.877,-8.8026,-8.8235,-12.808,-3.9216,-3.8095,1.8413,-7.5197,-1.9324,-3.8003,-12.689,1.0159,-5.8824,-0.12882
-6.6983,-10.413,-6.8293,-13.725,-15.764,-3.187,-10.628,-0.06472,-8.8026,-13.725,-15.764,-6.8627,-10.476,-7.6825,-16.051001,-11.594,-12.496,-14.622,-6.6032,-12.745,-3.9936
-6.6983,-13.27,-10.732,-13.725,-16.749001,-3.187,-5.7971,-0.06472,-9.7735,-13.725,-16.749001,-6.8627,-13.333,-14.349,-16.051001,-14.493,-15.395,0.83736,-11.365,-14.706,2.7697
-7.6461,-12.317,-6.8293,-14.706,-14.778,-0.26016,-4.8309,-2.0065,-6.8608,-14.706,-14.778,-3.9216,-14.286,-13.397,-18.893999,-15.459,-14.428,-8.8245,-3.746,-18.627001,-0.12882
-6.6983,-10.413,-4.878,-15.686,-14.778,0.71545,-1.9324,-1.0356,-1.0356,-15.686,-14.778,-2.9412,-16.190001,-14.349,-17.945999,-17.391001,-14.428,-7.8583,4.8254,-18.627001,-9.7907
-3.8547,-8.5079,-2.9268,-16.667,-12.808,1.6911,0.0,-2.0065,3.8188,-16.667,-12.808,-1.9608,-16.190001,-16.254,-15.103,-17.391001,-13.462,-8.8245,4.8254,-19.608,-14.622
1.8325,-1.8413,5.8537,-7.8431,-6.8966,8.5203,6.7633,4.7896,7.7023,-7.8431,-6.8966,6.8627,-10.476,-11.492,-10.363,-8.6957,-5.7327,-10.757,1.0159,-19.608,-10.757
6.5719,3.873,11.707,-1.9608,-7.8818,9.4959,7.7295,9.644,10.615,-1.9608,-7.8818,10.784,-4.7619,-3.873,-3.7283,0.0,2.963,-3.9936,1.9683,-17.646999,-4.9597
8.4676,8.6349,14.634,-1.9608,-4.9261,9.4959,7.7295,7.7023,14.498,-1.9608,-4.9261,11.765,1.9048,1.8413,1.9589,8.6957,11.659,-7.8583,8.6349,-15.686,0.83736
8.4676,13.397,14.634,-5.8824,-6.8966,6.5691,8.6957,4.7896,9.644,-5.8824,-6.8966,9.8039,6.6667,4.6984,6.6983,15.459,15.523,-8.8245,9.5873,-11.765,8.5668
9.4155,17.205999,14.634,-10.784,-6.8966,4.6179,7.7295,4.7896,8.6731,-10.784,-6.8966,5.8824,11.429,6.6032,11.438,19.323999,17.455999,-0.12882,9.5873,-1.9608,3.7359
10.363,16.254,15.61,-17.646999,-12.808,-0.26016,6.7633,-2.0065,2.8479,-17.646999,-12.808,0.98039,14.286,8.5079,17.125,19.323999,19.388,7.6006,6.7302,10.784,-5.9259
1.8325,8.6349,5.8537,-24.51,-21.674999,-11.967,-9.6618,-8.8026,-2.9773,-24.51,-21.674999,-8.8235,9.5238,7.5556,9.5419,13.527,11.659,0.83736,1.0159,13.725,-6.8921
-5.7504,4.8254,-2.9268,-34.313999,-27.586,-19.771999,-18.357,-11.715,-8.8026,-34.313999,-27.586,-16.667,4.7619,3.746,1.0111,8.6957,4.8953,0.83736,-0.88889,7.8431,3.7359
-7.6461,5.7778,-4.878,-34.313999,-34.483002,-22.698999,-14.493,-14.628,-12.686,-34.313999,-34.483002,-20.587999,5.7143,10.413,1.9589,10.628,4.8953,2.7697,1.9683,9.8039,15.33
-8.594,5.7778,-5.8537,-31.372999,-35.467999,-23.674999,-18.357,-19.482,-13.657,-31.372999,-35.467999,-21.569,5.7143,14.222,2.9068,11.594,5.8615,-0.12882,0.06349,8.8235,20.160999
-11.438,1.0159,-8.7805,-37.255001,-34.483002,-25.625999,-24.155001,-24.337,-13.657,-37.255001,-34.483002,-25.49,0.0,7.5556,-1.8325,6.7633,1.0306,-7.8583,1.9683,4.902,24.992001
-10.49,-3.746,-10.732,-33.333,-28.570999,-21.724001,-15.459,-21.424,-14.628,-33.333,-28.570999,-21.569,-3.8095,-0.06349,-8.4676,0.0,-3.8003,-8.8245,1.0159,0.0,15.33
-3.8547,-3.746,-6.8293,-22.549,-20.690001,-10.992,-7.7295,-10.744,-3.9482,-22.549,-20.690001,-11.765,-1.9048,2.7937,-5.624,-0.96618,-2.8341,-6.8921,1.0159,1.9608,13.398
-4.8025,-7.5556,-4.878,-16.667,-15.764,-7.0894,-4.8309,-12.686,2.8479,-16.667,-15.764,-5.8824,-5.7143,-1.9683,-7.5197,-7.7295,-6.6989,-8.8245,0.06349,0.98039,3.7359
-5.7504,-12.317,-3.9024,-18.627001,-10.837,-4.1626,-1.9324,-10.744,1.877,-18.627001,-10.837,-2.9412,-8.5714,-7.6825,-10.363,-14.493,-10.564,-3.0274,4.8254,-2.9412,-2.0612
-1.9589,-9.4603,2.9268,-7.8431,-8.867,-2.2114,2.8986,-7.8317,-0.06472,-7.8431,-8.867,0.98039,-5.7143,-2.9206,-9.4155,-11.594,-6.6989,-5.9259,2.9206,-4.902,1.8035
-0.06319,-7.5556,4.878,-3.9216,-7.8818,-0.26016,5.7971,-8.8026,4.7896,-3.9216,-7.8818,1.9608,-8.5714,-6.7302,-9.4155,-9.6618,-5.7327,-11.723,-3.746,-10.784,-3.9936
6.5719,1.9683,9.7561,0.98039,5.9113,7.5447,9.6618,2.8479,14.498,0.98039,5.9113,8.8235,-7.619,-4.8254,-1.8325,-0.96618,1.0306,-8.8245,1.0159,-10.784,-0.12882
14.155,12.444,17.561001,13.725,15.764,16.325001,19.323999,9.644,19.353001,13.725,15.764,17.646999,-1.9048,-1.9683,6.6983,8.6957,9.7262,1.8035,5.7778,-8.8235,-1.095
16.997999,19.111,20.488001,16.667,19.704,19.252001,21.256001,9.644,19.353001,16.667,19.704,20.587999,-0.95238,1.8413,9.5419,16.424999,14.557,5.6683,5.7778,-7.8431,-3.0274
16.997999,20.063,21.462999,13.725,14.778,15.35,18.357,7.7023,14.498,13.725,14.778,17.646999,0.0,-1.9683,12.385,16.424999,15.523,7.6006,10.54,0.0,-2.0612
17.945999,17.205999,17.561001,9.8039,9.8522,12.423,10.628,3.8188,7.7023,9.8039,9.8522,12.745,4.7619,-1.0159,17.125,15.459,18.422001,12.432,5.7778,4.902,-6.8921
14.155,15.302,10.732,6.8627,2.9557,9.4959,6.7633,0.90615,5.7605,6.8627,2.9557,7.8431,11.429,6.6032,17.125,15.459,17.455999,2.7697,2.9206,3.9216,-6.8921
9.4155,14.349,3.9024,0.98039,-1.9704,1.6911,1.9324,-1.0356,3.8188,0.98039,-1.9704,0.0,17.143,15.175,17.125,17.391001,15.523,2.7697,4.8254,8.8235,5.6683
6.5719,9.5873,-2.9268,1.9608,-0.98522,-1.2358,-2.8986,-2.0065,1.877,1.9608,-0.98522,-3.9216,18.094999,16.127001,16.177,12.56,11.659,6.6345,1.9683,16.667,11.465
-0.06319,2.9206,-9.7561,-2.9412,-5.9113,-3.187,-6.7633,-8.8026,-2.0065,-2.9412,-5.9113,-8.8235,11.429,10.413,8.594,4.8309,2.963,6.6345,-0.88889,15.686,11.465
-3.8547,-0.88889,-10.732,-8.8235,-6.8966,-4.1626,-2.8986,-7.8317,-3.9482,-8.8235,-6.8966,-9.8039,5.7143,12.317,3.8547,0.0,-1.868,8.5668,3.873,11.765,8.5668
-7.6461,-1.8413,-11.707,-9.8039,-11.823,-5.1382,-4.8309,-8.8026,-5.89,-9.8039,-11.823,-9.8039,2.8571,8.5079,-2.7804,-3.8647,-5.7327,-1.095,3.873,9.8039,7.6006
-12.385,-6.6032,-14.634,-7.8431,-11.823,-10.016,-9.6618,-16.57,-3.9482,-7.8431,-11.823,-9.8039,0.95238,2.7937,-8.4676,-7.7295,-10.564,-13.655,1.9683,6.8627,8.5668
-9.5419,-8.5079,-12.683,-6.8627,-6.8966,-11.967,-7.7295,-18.511,-2.0065,-6.8627,-6.8966,-7.8431,-0.95238,1.8413,-6.5719,-7.7295,-8.6312,-13.655,-2.7937,3.9216,8.5668
-4.8025,-4.6984,-4.878,-6.8627,-7.8818,-8.065,1.9324,-15.599,-2.0065,-6.8627,-7.8818,-2.9412,1.9048,6.6032,-5.624,-3.8647,-3.8003,-6.8921,-6.6032,0.98039,7.6006
2.7804,0.06349,5.8537,0.98039,-1.9704,-2.2114,2.8986,-12.686,-2.9773,0.98039,-1.9704,1.9608,8.5714,16.127001,0.06319,4.8309,4.8953,-1.095,-6.6032,0.0,5.6683
8.4676,4.8254,11.707,11.765,11.823,1.6911,4.8309,-2.0065,0.90615,11.765,11.823,5.8824,10.476,15.175,6.6983,10.628,11.659,-3.0274,-0.88889,2.9412,6.6345
9.4155,2.9206,9.7561,16.667,16.749001,5.5935,6.7633,1.877,4.7896,16.667,16.749001,5.8824,7.619,12.317,6.6983,9.6618,10.692,-0.12882,-0.88889,1.9608,8.5668
12.259,3.873,10.732,19.608,24.631001,9.4959,8.6957,1.877,8.6731,19.608,24.631001,9.8039,6.6667,11.365,9.5419,9.6618,11.659,-0.12882,1.0159,1.9608,9.533
16.051001,4.8254,12.683,29.412001,28.570999,14.374,11.594,9.644,10.615,29.412001,28.570999,14.706,6.6667,7.5556,12.385,8.6957,12.625,1.8035,-1.8413,2.9412,-3.9936
19.841999,7.6825,16.584999,33.333,28.570999,22.179001,15.459,11.586,10.615,33.333,28.570999,19.608,7.619,6.6032,16.177,10.628,15.523,1.8035,-4.6984,4.902,-10.757
16.051001,9.5873,13.659,29.412001,22.66,18.275999,16.424999,11.586,11.586,29.412001,22.66,18.627001,5.7143,4.6984,13.333,8.6957,12.625,6.6345,-2.7937,1.9608,-4.9597
10.363,10.54,8.7805,24.51,23.645,15.35,12.56,9.644,13.528,24.51,23.645,15.686,1.9048,1.8413,8.594,6.7633,7.7939,11.465,1.9683,-0.98039,-4.9597
6.5719,13.397,5.8537,19.608,22.66,11.447,15.459,5.7605,11.586,19.608,22.66,13.725,-2.8571,-2.9206,5.7504,5.7971,3.9291,8.5668,6.7302,0.98039,0.83736
2.7804,13.397,3.9024,17.646999,19.704,7.5447,12.56,6.7314,13.528,17.646999,19.704,10.784,-4.7619,-4.8254,3.8547,5.7971,1.9968,12.432,12.444,5.8824,5.6683
-2.9068,4.8254,-3.9024,12.745,12.808,0.71545,1.9324,0.90615,3.8188,12.745,12.808,2.9412,-6.6667,-4.8254,-1.8325,0.0,-3.8003,9.533,16.254,0.98039,1.8035
-3.8547,-0.88889,-7.8049,8.8235,6.8966,3.6423,0.0,-1.0356,5.7605,8.8235,6.8966,-0.98039,-5.7143,-4.8254,-2.7804,-3.8647,-7.6651,4.7021,10.54,1.9608,-1.095
-3.8547,-4.6984,-8.7805,7.8431,2.9557,3.6423,-0.96618,-2.9773,5.7605,7.8431,2.9557,-1.9608,-4.7619,-5.7778,0.06319,-7.7295,-7.6651,0.83736,2.9206,8.8235,-0.12882
-8.594,-7.5556,-9.7561,8.8235,2.9557,-3.187,-2.8986,-3.9482,3.8188,8.8235,2.9557,-3.9216,-4.7619,-7.6825,-4.6761,-11.594,-9.5974,-5.9259,-1.8413,1.9608,-3.0274
-6.6983,-2.7937,-4.878,10.784,10.837,-2.2114,2.8986,-2.9773,6.7314,10.784,10.837,0.98039,0.95238,0.88889,-4.6761,-4.8309,-4.7665,0.83736,0.06349,3.9216,6.6345
-2.9068,1.0159,0.0,8.8235,6.8966,-0.26016,3.8647,-8.8026,4.7896,8.8235,6.8966,2.9412,5.7143,9.4603,0.06319,2.8986,1.0306,-1.095,5.7778,3.9216,15.33
-1.0111,0.06349,0.97561,3.9216,3.9409,-1.2358,1.9324,-12.686,-4.9191,3.9216,3.9409,1.9608,8.5714,11.365,-0.88468,3.8647,2.963,-5.9259,2.9206,2.9412,15.33
-1.9589,2.9206,2.9268,4.902,4.9261,-2.2114,3.8647,-7.8317,-1.0356,4.902,4.9261,1.9608,9.5238,12.317,-1.8325,7.7295,3.9291,-11.723,1.9683,0.98039,18.229
3.7283,6.7302,7.8049,8.8235,8.867,1.6911,9.6618,-6.8608,0.90615,8.8235,8.867,7.8431,9.5238,11.365,0.06319,7.7295,5.8615,-9.7907,-4.6984,1.9608,11.465
5.624,5.7778,9.7561,4.902,9.8522,2.6667,7.7295,-4.9191,-2.0065,4.902,9.8522,8.8235,6.6667,8.5079,-0.88468,5.7971,4.8953,-6.8921,-7.5556,0.0,7.6006
8.4676,7.6825,11.707,10.784,9.8522,5.5935,5.7971,-2.9773,0.90615,10.784,9.8522,10.784,4.7619,9.4603,1.9589,6.7633,6.8277,0.83736,-0.88889,-1.9608,5.6683
16.051001,10.54,16.584999,18.627001,13.793,12.423,9.6618,1.877,4.7896,18.627001,13.793,15.686,8.5714,10.413,9.5419,9.6618,11.659,1.8035,-1.8413,5.8824,-0.12882
16.051001,10.54,15.61,22.549,18.719,13.398,8.6957,4.7896,8.6731,22.549,18.719,16.667,10.476,6.6032,11.438,7.7295,11.659,5.6683,0.06349,8.8235,1.8035
11.311,6.7302,10.732,17.646999,18.719,12.423,11.594,5.7605,6.7314,17.646999,18.719,14.706,4.7619,1.8413,7.6461,3.8647,6.8277,7.6006,5.7778,6.8627,1.8035
9.4155,6.7302,6.8293,12.745,16.749001,9.4959,13.527,2.8479,9.644,12.745,16.749001,10.784,2.8571,1.8413,9.5419,3.8647,5.8615,12.432,5.7778,7.8431,-2.0612
0.88468,1.9683,-1.9512,11.765,15.764,-0.26016,6.7633,2.8479,10.615,11.765,15.764,2.9412,-0.95238,-4.8254,1.9589,-1.9324,-0.90177,0.83736,4.8254,0.98039,-2.0612
-2.9068,1.0159,-3.9024,7.8431,16.749001,3.6423,3.8647,4.7896,11.586,7.8431,16.749001,1.9608,-3.8095,-9.5873,-2.7804,-4.8309,-4.7665,-4.9597,5.7778,-3.9216,-7.8583
0.88468,5.7778,0.97561,20.587999,20.690001,9.4959,12.56,14.498,16.440001,20.587999,20.690001,9.8039,-1.9048,-3.873,0.06319,-1.9324,-2.8341,5.6683,8.6349,-1.9608,-1.095
-4.8025,1.9683,-4.878,21.569,15.764,5.5935,9.6618,15.469,15.469,21.569,15.764,6.8627,-5.7143,-7.6825,-2.7804,-8.6957,-7.6651,8.5668,5.7778,0.0,0.83736
-8.594,-5.6508,-12.683,10.784,13.793,3.6423,3.8647,4.7896,7.7023,10.784,13.793,1.9608,-7.619,-9.5873,-5.624,-14.493,-13.462,5.6683,4.8254,-0.98039,-3.0274
-15.229,-13.27,-19.511999,4.902,8.867,1.6911,-3.8647,-2.0065,1.877,4.902,8.867,-3.9216,-8.5714,-10.54,-15.103,-19.323999,-19.259001,-3.0274,-1.8413,-10.784,-11.723
-18.073,-18.032,-22.438999,2.9412,3.9409,-4.1626,-8.6957,-2.0065,-2.9773,2.9412,3.9409,-8.8235,-9.5238,-11.492,-19.841999,-21.256001,-22.158001,-16.554001,-6.6032,-11.765,-11.723
-16.177,-20.889,-23.415001,-5.8824,0.0,-10.016,-10.628,-2.0065,-2.0065,-5.8824,0.0,-11.765,-9.5238,-14.349,-16.997999,-23.188,-22.158001,-13.655,-7.5556,-12.745,-13.655
-10.49,-17.079,-18.537001,-5.8824,-0.98522,-10.992,-9.6618,-5.89,-0.06472,-5.8824,-0.98522,-8.8235,-6.6667,-10.54,-11.311,-17.391001,-16.361,-2.0612,-5.6508,-6.8627,-4.9597
-5.7504,-11.365,-11.707,-0.98039,-1.9704,-10.016,-7.7295,-5.89,-2.0065,-0.98039,-1.9704,-7.8431,-3.8095,-3.873,-5.624,-9.6618,-9.5974,4.7021,-6.6032,0.0,3.7359
-3.8547,-9.4603,-6.8293,0.0,-1.9704,-7.0894,-10.628,-6.8608,-7.8317,0.0,-1.9704,-9.8039,-1.9048,-1.0159,-3.7283,-6.7633,-4.7665,-0.12882,-7.5556,-0.98039,2.7697
-4.8025,-7.5556,-3.9024,-3.9216,-4.9261,-9.0407,-15.459,-8.8026,-7.8317,-3.9216,-4.9261,-9.8039,-0.95238,-1.9683,-2.7804,-3.8647,-2.8341,-4.9597,-4.6984,4.902,2.7697
-3.8547,-4.6984,-1.9512,-5.8824,-3.9409,-10.016,-11.594,-5.89,-4.9191,-5.8824,-3.9409,-8.8235,-0.95238,-1.9683,-0.88468,0.0,0.06441,-2.0612,-0.88889,2.9412,-3.0274
-1.0111,1.9683,4.878,1.9608,4.9261,-4.1626,-0.96618,1.877,2.8479,1.9608,4.9261,-0.98039,1.9048,2.7937,0.06319,6.7633,4.8953,-3.0274,3.873,0.0,-0.12882
-3.8547,-0.88889,2.9268,-0.98039,0.98522,-1.2358,-1.9324,-4.9191,-0.06472,-0.98039,0.98522,-1.9608,-0.95238,-3.873,-4.6761,1.9324,1.0306,-10.757,2.9206,-3.9216,-4.9597
-1.9589,-1.8413,3.9024,1.9608,4.9261,0.71545,0.0,-3.9482,-0.06472,1.9608,4.9261,0.98039,-1.9048,-4.8254,-1.8325,0.96618,1.9968,-4.9597,1.9683,-3.9216,-9.7907
0.88468,1.0159,5.8537,4.902,6.8966,1.6911,3.8647,1.877,1.877,4.902,6.8966,2.9412,0.0,-0.06349,1.9589,3.8647,3.9291,4.7021,1.9683,-0.98039,-5.9259
0.88468,-0.88889,2.9268,7.8431,11.823,3.6423,2.8986,6.7314,5.7605,7.8431,11.823,3.9216,-0.95238,-3.873,0.06319,-0.96618,1.0306,2.7697,-4.6984,2.9412,-3.9936
-4.8025,-3.746,-1.9512,9.8039,14.778,3.6423,0.96618,9.644,6.7314,9.8039,14.778,3.9216,-3.8095,-7.6825,-5.624,-6.7633,-5.7327,1.8035,-2.7937,0.98039,-3.9936
-9.5419,-6.6032,-4.878,9.8039,9.8522,0.71545,2.8986,7.7023,3.8188,9.8039,9.8522,1.9608,-6.6667,-8.6349,-9.4155,-11.594,-11.53,3.7359,-6.6032,-1.9608,-10.757
-5.7504,-5.6508,-2.9268,6.8627,3.9409,-0.26016,1.9324,9.644,0.90615,6.8627,3.9409,0.98039,-2.8571,-4.8254,-2.7804,-8.6957,-7.6651,2.7697,-8.5079,5.8824,-11.723
4.6761,-1.8413,1.9512,11.765,7.8818,9.4959,1.9324,12.557,0.90615,11.765,7.8818,6.8627,5.7143,1.8413,6.6983,-1.9324,0.06441,15.33,-2.7937,12.745,-3.0274
11.311,1.0159,3.9024,13.725,8.867,19.252001,5.7971,-2.0065,0.90615,13.725,8.867,10.784,9.5238,4.6984,10.49,0.96618,3.9291,14.364,-5.6508,12.745,-0.12882
5.624,2.9206,0.97561,6.8627,5.9113,8.5203,8.6957,-2.9773,1.877,6.8627,5.9113,7.8431,10.476,6.6032,8.594,2.8986,3.9291,6.6345,-0.88889,10.784,2.7697
7.5197,8.6349,2.9268,-2.9412,2.9557,-1.2358,4.8309,2.8479,-0.06472,-2.9412,2.9557,5.8824,12.381,11.365,14.281,9.6618,8.7601,13.398,1.9683,13.725,5.6683
7.5197,6.7302,0.97561,0.98039,2.9557,-1.2358,1.9324,7.7023,-2.9773,0.98039,2.9557,3.9216,11.429,9.4603,12.385,8.6957,7.7939,15.33,0.06349,10.784,4.7021
1.8325,-0.88889,-6.8293,0.98039,0.0,-2.2114,-6.7633,6.7314,-7.8317,0.98039,0.0,-3.9216,7.619,8.5079,5.7504,3.8647,1.0306,10.499,-3.746,8.8235,6.6345
-1.0111,-1.8413,-8.7805,1.9608,-1.9704,-3.187,-8.6957,4.7896,-8.8026,1.9608,-1.9704,-6.8627,4.7619,7.5556,1.0111,1.9324,-1.868,-2.0612,0.06349,2.9412,8.5668
-0.06319,0.06349,-5.8537,1.9608,0.0,-0.26016,-4.8309,-0.06472,-4.9191,1.9608,0.0,-5.8824,0.95238,4.6984,1.9589,2.8986,0.06441,3.7359,3.873,0.98039,7.6006
-1.0111,1.9683,-1.9512,-2.9412,0.0,-2.2114,-4.8309,-5.89,-3.9482,-2.9412,0.0,-5.8824,0.0,0.88889,0.06319,3.8647,1.0306,-3.9936,2.9206,-6.8627,13.398
-2.9068,0.06349,0.0,-7.8431,-0.98522,-4.1626,-2.8986,-4.9191,-2.9773,-7.8431,-0.98522,-3.9216,-0.95238,-1.0159,-3.7283,0.96618,1.0306,-9.7907,1.0159,-9.8039,1.8035
-3.8547,-3.746,0.97561,-5.8824,-3.9409,-5.1382,1.9324,0.90615,-5.89,-5.8824,-3.9409,-2.9412,-2.8571,-2.9206,-4.6761,-1.9324,0.06441,-4.9597,-2.7937,-10.784,-10.757
-2.9068,-7.5556,0.97561,-4.902,-2.9557,-6.1138,-4.8309,-2.9773,-8.8026,-4.902,-2.9557,-4.902,-5.7143,-8.6349,-3.7283,-6.7633,-0.90177,1.8035,-3.746,-8.8235,-11.723
-1.9589,-5.6508,3.9024,-3.9216,0.0,-3.187,-10.628,-1.0356,-5.89,-3.9216,0.0,-2.9412,-5.7143,-6.7302,-2.7804,-6.7633,-0.90177,1.8035,-5.6508,-6.8627,-6.8921
0.88468,-0.88889,6.8293,0.98039,0.98522,-0.26016,-2.8986,-1.0356,-0.06472,0.98039,0.98522,0.0,-5.7143,-5.7778,-0.88468,-5.7971,-0.90177,-7.8583,-1.8413,-2.9412,2.7697
-3.8547,-6.6032,0.0,5.8824,1.9704,-4.1626,1.9324,-0.06472,0.90615,5.8824,1.9704,-0.98039,-10.476,-17.205999,-5.624,-15.459,-8.6312,-14.622,-5.6508,-5.8824,-14.622
-6.6983,-14.222,-3.9024,-2.9412,3.9409,-3.187,-1.9324,-2.0065,-1.0356,-2.9412,3.9409,0.0,-10.476,-21.968,-7.5197,-21.256001,-12.496,-9.7907,-8.5079,-4.902,-29.114
-3.8547,-11.365,1.9512,-0.98039,7.8818,-1.2358,1.9324,-5.89,2.8479,-0.98039,7.8818,3.9216,-6.6667,-15.302,-1.8325,-14.493,-7.6651,-0.12882,-5.6508,-0.98039,-19.452
-0.06319,-3.746,7.8049,2.9412,6.8966,2.6667,5.7971,-6.8608,1.877,2.9412,6.8966,6.8627,-2.8571,-4.8254,0.06319,-2.8986,0.06441,0.83736,-0.88889,-3.9216,-4.9597
3.7283,3.873,11.707,0.98039,8.867,4.6179,8.6957,-1.0356,6.7314,0.98039,8.867,8.8235,2.8571,1.8413,3.8547,6.7633,7.7939,-3.0274,7.6825,-2.9412,4.7021
8.4676,7.6825,13.659,0.98039,12.808,3.6423,3.8647,0.90615,11.586,0.98039,12.808,7.8431,5.7143,5.6508,8.594,13.527,12.625,-2.0612,12.444,0.0,14.364
5.624,8.6349,10.732,-2.9412,2.9557,-2.2114,0.0,-3.9482,4.7896,-2.9412,2.9557,1.9608,3.8095,7.5556,4.8025,17.391001,11.659,-2.0612,16.254,-4.902,20.160999
4.6761,12.444,7.8049,-9.8039,-1.9704,-3.187,0.96618,-4.9191,3.8188,-9.8039,-1.9704,-0.98039,5.7143,16.127001,4.8025,24.155001,13.591,-1.095,15.302,-1.9608,31.754999
0.88468,11.492,3.9024,-14.706,-6.8966,-6.1138,0.0,-6.8608,1.877,-14.706,-6.8966,-3.9216,5.7143,18.983999,-0.88468,24.155001,10.692,-9.7907,16.254,-8.8235,22.093
-4.8025,8.6349,-0.97561,-17.646999,-9.8522,-7.0894,-0.96618,-11.715,-3.9482,-17.646999,-9.8522,-5.8824,3.8095,14.222,-5.624,19.323999,5.8615,-10.757,13.397,-11.765,13.398
-1.0111,12.444,1.9512,-12.745,-7.8818,-2.2114,2.8986,-12.686,-2.9773,-12.745,-7.8818,-0.98039,6.6667,14.222,-1.8325,21.256001,9.7262,-6.8921,9.5873,-8.8235,21.127001
-2.9068,6.7302,-1.9512,-14.706,-10.837,-3.187,-3.8647,-8.8026,-5.89,-14.706,-10.837,-3.9216,6.6667,11.365,-3.7283,12.56,5.8615,-8.8245,1.0159,-9.8039,9.533
-1.9589,4.8254,-2.9268,-7.8431,-9.8522,-5.1382,0.96618,-2.9773,-7.8317,-7.8431,-9.8522,-3.9216,5.7143,9.4603,-0.88468,8.6957,4.8953,-6.8921,-0.88889,-3.9216,6.6345
4.6761,7.6825,2.9268,0.0,-3.9409,1.6911,2.8986,2.8479,-4.9191,0.0,-3.9409,0.98039,5.7143,6.6032,7.6461,7.7295,7.7939,0.83736,0.06349,6.8627,0.83736
5.624,4.8254,5.8537,0.0,0.98522,4.6179,2.8986,-1.0356,-2.0065,0.0,0.98522,5.8824,4.7619,-1.9683,7.6461,1.9324,5.8615,5.6683,-6.6032,5.8824,-8.8245
4.6761,4.8254,6.8293,-1.9608,2.9557,3.6423,11.594,0.90615,1.877,-1.9608,2.9557,8.8235,4.7619,-3.873,7.6461,0.96618,4.8953,5.6683,-6.6032,3.9216,-10.757
5.624,7.6825,7.8049,0.98039,4.9261,3.6423,12.56,4.7896,3.8188,0.98039,4.9261,8.8235,2.8571,-1.0159,7.6461,2.8986,5.8615,2.7697,-2.7937,6.8627,-3.0274
7.5197,5.7778,8.7805,8.8235,7.8818,4.6179,9.6618,7.7023,7.7023,8.8235,7.8818,9.8039,0.95238,-1.9683,10.49,1.9324,4.8953,7.6006,-1.8413,12.745,-0.12882
4.6761,0.06349,5.8537,9.8039,7.8818,4.6179,6.7633,7.7023,7.7023,9.8039,7.8818,8.8235,-1.9048,-3.873,4.8025,-2.8986,0.06441,1.8035,1.0159,5.8824,-4.9597
-3.8547,-8.5079,-1.9512,3.9216,0.98522,-0.26016,0.0,1.877,4.7896,3.9216,0.98522,0.98039,-6.6667,-5.7778,-2.7804,-9.6618,-7.6651,-3.0274,1.0159,-2.9412,-1.095
-7.6461,-12.317,-6.8293,0.98039,-0.98522,-4.1626,-7.7295,-2.9773,0.90615,0.98039,-0.98522,-4.902,-9.5238,-7.6825,-5.624,-12.56,-10.564,-6.8921,0.06349,-3.9216,-1.095
-12.385,-16.127001,-13.659,-6.8627,-2.9557,-10.016,-13.527,-6.8608,-0.06472,-6.8627,-2.9557,-12.745,-11.429,-10.54,-8.4676,-13.527,-13.462,-11.723,1.0159,-3.9216,-0.12882
-14.281,-18.983999,-18.537001,-9.8039,-8.867,-14.894,-20.290001,-5.89,-2.9773,-9.8039,-8.867,-18.627001,-12.381,-10.54,-11.311,-15.459,-15.395,-9.7907,-1.8413,-7.8431,-3.0274
-14.281,-16.127001,-19.511999,-10.784,-12.808,-13.919,-17.391001,-1.0356,-7.8317,-10.784,-12.808,-18.627001,-14.286,-16.254,-14.155,-15.459,-16.361,-4.9597,-4.6984,-12.745,-6.8921
-10.49,-10.413,-16.584999,-10.784,-15.764,-11.967,-12.56,-2.9773,-6.8608,-10.784,-15.764,-17.646999,-17.143,-16.254,-11.311,-9.6618,-13.462,2.7697,0.06349,-10.784,-2.0612
0.88468,2.9206,-5.8537,-6.8627,-10.837,-2.2114,-4.8309,4.7896,-4.9191,-6.8627,-10.837,-9.8039,-9.5238,-6.7302,-1.8325,1.9324,-2.8341,10.499,8.6349,-1.9608,-0.12882
8.4676,10.54,2.9268,-2.9412,-5.9113,1.6911,0.0,3.8188,-1.0356,-2.9412,-5.9113,-2.9412,0.95238,3.746,6.6983,10.628,5.8615,8.5668,6.7302,0.98039,7.6006
11.311,12.444,5.8537,-7.8431,-0.98522,5.5935,3.8647,-2.0065,3.8188,-7.8431,-0.98522,1.9608,6.6667,7.5556,8.594,12.56,8.7601,7.6006,4.8254,3.9216,6.6345
7.5197,9.5873,1.9512,-8.8235,-6.8966,2.6667,0.0,-6.8608,-0.06472,-8.8235,-6.8966,-1.9608,5.7143,9.4603,6.6983,10.628,6.8277,5.6683,2.9206,3.9216,0.83736
15.103,15.302,9.7561,2.9412,-1.9704,6.5691,5.7971,1.877,1.877,2.9412,-1.9704,5.8824,10.476,11.365,15.229,14.493,12.625,5.6683,2.9206,13.725,4.7021
16.997999,17.205999,15.61,0.0,0.98522,13.398,10.628,4.7896,3.8188,0.0,0.98522,11.765,10.476,9.4603,17.125,15.459,14.557,12.432,5.7778,15.686,8.5668
13.207,14.349,13.659,2.9412,3.9409,11.447,11.594,3.8188,4.7896,2.9412,3.9409,13.725,8.5714,6.6032,11.438,11.594,11.659,12.432,5.7778,7.8431,9.533
6.5719,9.5873,8.7805,5.8824,0.98522,4.6179,11.594,-1.0356,4.7896,5.8824,0.98522,9.8039,5.7143,3.746,4.8025,5.7971,5.8615,-1.095,1.9683,1.9608,-5.9259
2.7804,6.7302,6.8293,0.0,1.9704,1.6911,11.594,-2.9773,5.7605,0.0,1.9704,6.8627,1.9048,-0.06349,1.0111,1.9324,2.963,-5.9259,1.0159,0.0,-6.8921
-0.06319,4.8254,3.9024,-5.8824,3.9409,1.6911,6.7633,-2.9773,6.7314,-5.8824,3.9409,4.902,-0.95238,1.8413,-3.7283,0.96618,0.06441,-3.9936,3.873,-1.9608,4.7021
-1.9589,-0.88889,0.0,1.9608,3.9409,0.71545,1.9324,-2.9773,5.7605,1.9608,3.9409,1.9608,-4.7619,-1.0159,-8.4676,-3.8647,-3.8003,-6.8921,4.8254,-3.9216,5.6683
-0.06319,-4.6984,-0.97561,5.8824,4.9261,2.6667,2.8986,2.8479,4.7896,5.8824,4.9261,1.9608,-7.619,-4.8254,-5.624,-6.7633,-4.7665,-0.12882,2.9206,-0.98039,-3.0274
-0.06319,-6.6032,-2.9268,3.9216,2.9557,4.6179,0.0,3.8188,5.7605,3.9216,2.9557,1.9608,-9.5238,-8.6349,-5.624,-6.7633,-5.7327,1.8035,4.8254,-1.9608,-2.0612
-2.9068,-6.6032,-3.9024,6.8627,0.98522,-2.2114,0.0,4.7896,6.7314,6.8627,0.98522,0.0,-6.6667,-4.8254,-5.624,-3.8647,-4.7665,-0.12882,1.9683,-6.8627,-1.095
-8.594,-6.6032,-6.8293,0.0,0.98522,-8.065,1.9324,-0.06472,2.8479,0.0,0.98522,-3.9216,-3.8095,-4.8254,-4.6761,-2.8986,-3.8003,-3.0274,0.06349,-9.8039,-4.9597
-11.438,-5.6508,-8.7805,-1.9608,-3.9409,-12.943,-2.8986,-3.9482,-2.0065,-1.9608,-3.9409,-6.8627,-2.8571,-4.8254,-4.6761,-1.9324,-3.8003,-3.9936,-0.88889,-8.8235,-2.0612
-9.5419,-1.8413,-5.8537,-0.98039,-2.9557,-12.943,-3.8647,-2.9773,-0.06472,-0.98039,-2.9557,-5.8824,1.9048,0.88889,1.0111,2.8986,1.0306,-2.0612,-2.7937,-3.9216,7.6006
-5.7504,1.9683,-2.9268,-2.9412,1.9704,-7.0894,-3.8647,-2.0065,-0.06472,-2.9412,1.9704,-4.902,5.7143,7.5556,4.8025,6.7633,4.8953,-2.0612,-2.7937,-0.98039,8.5668
-4.8025,-2.7937,-4.878,-6.8627,-3.9409,-7.0894,-13.527,-5.89,-6.8608,-6.8627,-3.9409,-8.8235,4.7619,3.746,5.7504,1.9324,2.963,-0.12882,-0.88889,3.9216,0.83736
-0.06319,-5.6508,-2.9268,-5.8824,-10.837,-6.1138,-16.424999,-7.8317,-8.8026,-5.8824,-10.837,-9.8039,4.7619,-1.0159,7.6461,-1.9324,2.963,3.7359,-2.7937,8.8235,-0.12882
4.6761,-3.746,0.0,-5.8824,-10.837,-2.2114,-11.594,-2.0065,-4.9191,-5.8824,-10.837,-6.8627,4.7619,-1.9683,8.594,-1.9324,2.963,4.7021,-5.6508,13.725,-0.12882
10.363,-1.8413,3.9024,0.0,-4.9261,5.5935,-0.96618,4.7896,-1.0356,0.0,-4.9261,0.0,3.8095,-2.9206,11.438,-2.8986,3.9291,15.33,-5.6508,17.646999,-3.9936
15.103,0.06349,9.7561,8.8235,0.98522,11.447,2.8986,11.586,1.877,8.8235,0.98522,7.8431,4.7619,2.7937,11.438,-0.96618,5.8615,11.465,-6.6032,14.706,-6.8921
12.259,-2.7937,8.7805,5.8824,2.9557,10.472,0.96618,8.6731,0.90615,5.8824,2.9557,9.8039,-1.9048,-6.7302,2.9068,-8.6957,-0.90177,3.7359,-6.6032,4.902,-15.588
5.624,-6.6032,5.8537,4.902,0.98522,9.4959,-1.9324,5.7605,-1.0356,4.902,0.98522,7.8431,-6.6667,-15.302,-4.6761,-14.493,-6.6989,5.6683,-5.6508,0.0,-18.486
7.5197,-2.7937,8.7805,8.8235,5.9113,11.447,2.8986,9.644,-0.06472,8.8235,5.9113,11.765,-2.8571,-6.7302,-2.7804,-7.7295,-2.8341,7.6006,-2.7937,3.9216,-4.9597
-0.06319,-4.6984,0.97561,8.8235,6.8966,9.4959,3.8647,6.7314,5.7605,8.8235,6.8966,6.8627,-8.5714,-11.492,-9.4155,-10.628,-9.5974,3.7359,-1.8413,-0.98039,-6.8921
-9.5419,-8.5079,-9.7561,12.745,9.8522,2.6667,3.8647,5.7605,16.440001,12.745,9.8522,0.98039,-13.333,-13.397,-18.893999,-14.493,-17.327,-2.0612,-2.7937,-8.8235,-5.9259
-15.229,-10.413,-11.707,9.8039,11.823,-6.1138,2.8986,2.8479,18.382,9.8039,11.823,-2.9412,-11.429,-9.5873,-21.738001,-15.459,-19.259001,-3.9936,-3.746,-10.784,-6.8921
-19.968,-13.27,-15.61,2.9412,4.9261,-11.967,0.96618,-3.9482,11.586,2.9412,4.9261,-9.8039,-12.381,-11.492,-20.790001,-16.424999,-20.225,-6.8921,-3.746,-9.8039,-12.689
-17.125,-7.5556,-13.659,-0.98039,2.9557,-13.919,4.8309,-8.8026,8.6731,-0.98039,2.9557,-10.784,-10.476,-9.5873,-14.155,-9.6618,-15.395,-4.9597,0.06349,-8.8235,-9.7907
-16.177,-2.7937,-12.683,-7.8431,0.0,-13.919,-2.8986,-12.686,6.7314,-7.8431,0.0,-11.765,-8.5714,-5.7778,-9.4155,-1.9324,-9.5974,-13.655,9.5873,-9.8039,-1.095
-9.5419,-0.88889,-8.7805,-6.8627,-0.98522,-10.992,-1.9324,-9.7735,10.615,-6.8627,-0.98522,-8.8235,-1.9048,1.8413,0.06319,5.7971,-1.868,-3.0274,9.5873,1.9608,6.6345
-7.6461,-0.88889,-7.8049,-7.8431,0.98522,-10.992,0.0,-9.7735,8.6731,-7.8431,0.98522,-8.8235,0.0,0.88889,1.9589,5.7971,1.0306,-3.9936,1.9683,-3.9216,0.83736
-9.5419,0.06349,-10.732,-9.8039,0.98522,-15.87,-6.7633,-11.715,2.8479,-9.8039,0.98522,-12.745,-1.9048,-2.9206,-1.8325,4.8309,-0.90177,-7.8583,2.9206,-11.765,6.6345
-2.9068,4.8254,-5.8537,-7.8431,-2.9557,-13.919,-2.8986,-9.7735,2.8479,-7.8431,-2.9557,-8.8235,0.95238,1.8413,2.9068,8.6957,2.963,-0.12882,4.8254,-5.8824,11.465
5.624,8.6349,0.0,-3.9216,-1.9704,-6.1138,0.0,-2.9773,5.7605,-3.9216,-1.9704,-1.9608,3.8095,5.6508,6.6983,9.6618,6.8277,0.83736,4.8254,-2.9412,8.5668
12.259,9.5873,7.8049,-0.98039,-1.9704,6.5691,4.8309,0.90615,5.7605,-0.98039,-1.9704,5.8824,4.7619,3.746,8.594,8.6957,8.7601,3.7359,8.6349,1.9608,10.499
16.051001,10.54,13.659,3.9216,1.9704,11.447,8.6957,-0.06472,1.877,3.9216,1.9704,13.725,6.6667,4.6984,9.5419,6.7633,9.7262,5.6683,4.8254,6.8627,6.6345
14.155,11.492,13.659,0.98039,0.98522,12.423,10.628,-1.0356,-4.9191,0.98039,0.98522,15.686,5.7143,2.7937,6.6983,3.8647,5.8615,7.6006,5.7778,6.8627,6.6345
16.051001,6.7302,13.659,0.0,0.0,18.275999,8.6957,-0.06472,-4.9191,0.0,0.0,18.627001,2.8571,-0.06349,3.8547,-2.8986,1.9968,9.533,1.0159,4.902,2.7697
16.051001,-3.746,12.683,10.784,1.9704,25.106001,-4.8309,2.8479,2.8479,10.784,1.9704,19.608,1.9048,-0.06349,1.9589,-10.628,-0.90177,4.7021,-10.413,5.8824,-10.757
16.051001,-5.6508,12.683,20.587999,9.8522,27.056999,7.7295,14.498,4.7896,20.587999,9.8522,24.51,1.9048,-2.9206,-0.88468,-12.56,-2.8341,-3.9936,-7.5556,2.9412,-13.655
11.311,-5.6508,9.7561,17.646999,5.9113,19.252001,14.493,14.498,0.90615,17.646999,5.9113,18.627001,2.8571,-5.7778,-1.8325,-8.6957,-2.8341,-3.9936,-5.6508,0.98039,-7.8583
2.7804,-3.746,1.9512,13.725,0.98522,5.5935,1.9324,9.644,0.90615,13.725,0.98522,4.902,1.9048,-3.873,-5.624,-3.8647,-2.8341,-2.0612,-0.88889,-2.9412,-1.095
-0.06319,-1.8413,0.0,11.765,1.9704,0.71545,0.0,5.7605,1.877,11.765,1.9704,-2.9412,1.9048,-1.0159,-5.624,0.96618,-0.90177,2.7697,0.06349,-4.902,2.7697
1.8325,0.06349,3.9024,-0.98039,1.9704,0.71545,0.96618,1.877,3.8188,-0.98039,1.9704,-3.9216,4.7619,3.746,-0.88468,3.8647,4.8953,-0.12882,-0.88889,-0.98039,-5.9259
-0.06319,3.873,5.8537,-2.9412,-1.9704,-3.187,1.9324,-2.0065,3.8188,-2.9412,-1.9704,-3.9216,2.8571,3.746,-1.8325,6.7633,4.8953,-4.9597,1.0159,-0.98039,-7.8583
-1.9589,9.5873,4.878,0.98039,1.9704,-2.2114,0.0,-0.06472,6.7314,0.98039,1.9704,-2.9412,2.8571,8.5079,0.06319,11.594,4.8953,-3.9936,5.7778,-0.98039,2.7697
-6.6983,6.7302,-1.9512,-3.9216,0.98522,-6.1138,-2.8986,-0.06472,1.877,-3.9216,0.98522,-5.8824,3.8095,4.6984,0.06319,7.7295,1.9968,-5.9259,5.7778,0.0,4.7021
-6.6983,7.6825,-3.9024,-5.8824,-5.9113,-8.065,-1.9324,-1.0356,-4.9191,-5.8824,-5.9113,-9.8039,7.619,7.5556,3.8547,9.6618,2.963,2.7697,2.9206,3.9216,14.364
-7.6461,7.6825,-6.8293,-9.8039,-8.867,-10.992,-5.7971,-1.0356,-8.8026,-9.8039,-8.867,-11.765,7.619,11.365,2.9068,10.628,1.9968,6.6345,1.9683,0.98039,19.195
-4.8025,7.6825,-5.8537,-10.784,-8.867,-9.0407,-5.7971,-1.0356,-10.744,-10.784,-8.867,-9.8039,13.333,13.27,5.7504,10.628,3.9291,7.6006,-3.746,5.8824,11.465
7.5197,13.397,3.9024,-1.9608,-4.9261,-2.2114,2.8986,2.8479,-5.89,-1.9608,-4.9261,0.0,20.952,18.983999,17.125,17.391001,13.591,12.432,1.9683,18.627001,18.229
14.155,11.492,9.7561,0.98039,-3.9409,0.71545,1.9324,7.7023,-1.0356,0.98039,-3.9409,5.8824,21.905001,21.841,21.864,17.391001,18.422001,17.261999,1.9683,22.549,14.364
16.997999,7.6825,13.659,1.9608,0.98522,6.5691,1.9324,9.644,-0.06472,1.9608,0.98522,9.8039,19.048,19.937,20.916,14.493,18.422001,22.093,1.0159,22.549,11.465
17.945999,9.5873,15.61,1.9608,3.9409,13.398,6.7633,6.7314,0.90615,1.9608,3.9409,13.725,16.190001,12.317,19.021,10.628,15.523,14.364,0.06349,22.549,6.6345
17.945999,14.349,17.561001,0.98039,5.9113,16.325001,10.628,8.6731,2.8479,0.98039,5.9113,17.646999,14.286,7.5556,16.177,10.628,15.523,4.7021,1.0159,20.587999,1.8035
16.997999,10.54,18.537001,5.8824,6.8966,17.301001,13.527,10.615,0.90615,5.8824,6.8966,19.608,11.429,3.746,13.333,6.7633,13.591,8.5668,-6.6032,15.686,-3.9936
14.155,-0.88889,12.683,14.706,5.9113,17.301001,12.56,8.6731,-1.0356,14.706,5.9113,18.627001,2.8571,-4.8254,7.6461,-3.8647,6.8277,8.5668,-8.5079,8.8235,-17.52
8.4676,-4.6984,8.7805,13.725,9.8522,14.374,12.56,3.8188,2.8479,13.725,9.8522,16.667,-2.8571,-7.6825,0.06319,-7.7295,1.0306,4.7021,-5.6508,-1.9608,-14.622
0.88468,-5.6508,4.878,7.8431,8.867,6.5691,9.6618,1.877,4.7896,7.8431,8.867,10.784,-7.619,-9.5873,-7.5197,-9.6618,-2.8341,-6.8921,-3.746,-10.784,-9.7907
-1.9589,-2.7937,2.9268,3.9216,7.8818,2.6667,4.8309,1.877,7.7023,3.9216,7.8818,4.902,-9.5238,-8.6349,-8.4676,-5.7971,-3.8003,-9.7907,1.9683,-7.8431,-4.9597
-5.7504,-3.746,-2.9268,-4.902,4.9261,0.71545,-2.8986,-0.06472,5.7605,-4.902,4.9261,-3.9216,-11.429,-9.5873,-10.363,-5.7971,-6.6989,-13.655,1.9683,-10.784,-6.8921
-9.5419,-9.4603,-8.7805,-8.8235,0.0,-6.1138,-5.7971,-2.9773,3.8188,-8.8235,0.0,-8.8235,-16.190001,-14.349,-14.155,-11.594,-12.496,-9.7907,0.06349,-14.706,-15.588
-11.438,-14.222,-10.732,-3.9216,-2.9557,-8.065,-7.7295,-0.06472,2.8479,-3.9216,-2.9557,-9.8039,-17.143,-15.302,-16.997999,-15.459,-17.327,-9.7907,-2.7937,-17.646999,-14.622
-6.6983,-13.27,-8.7805,2.9412,0.0,-4.1626,-4.8309,1.877,2.8479,2.9412,0.0,-5.8824,-17.143,-14.349,-13.207,-15.459,-15.395,-5.9259,1.0159,-14.706,-6.8921
-3.8547,-9.4603,-6.8293,0.98039,0.98522,-1.2358,-3.8647,0.90615,1.877,0.98039,0.98522,-5.8824,-14.286,-10.54,-9.4155,-12.56,-12.496,-3.0274,3.873,-17.646999,-3.9936
-1.9589,-5.6508,-4.878,-7.8431,-0.98522,0.71545,-6.7633,-1.0356,-2.0065,-7.8431,-0.98522,-6.8627,-8.5714,-8.6349,-2.7804,-6.7633,-7.6651,-3.9936,4.8254,-14.706,-0.12882
-2.9068,0.06349,-4.878,-7.8431,-5.9113,-6.1138,-3.8647,-5.89,-2.0065,-7.8431,-5.9113,-9.8039,-1.9048,-4.8254,0.06319,0.0,-2.8341,-4.9597,8.6349,-5.8824,5.6683
-2.9068,6.7302,-2.9268,-8.8235,0.0,-4.1626,0.0,-4.9191,2.8479,-8.8235,0.0,-5.8824,3.8095,1.8413,1.9589,5.7971,1.9968,-3.0274,4.8254,1.9608,4.7021
-3.8547,7.6825,-0.97561,-6.8627,0.0,-3.187,0.96618,-2.9773,0.90615,-6.8627,0.0,-0.98039,3.8095,4.6984,2.9068,7.7295,2.963,-0.12882,3.873,2.9412,6.6345
-1.9589,9.5873,1.9512,0.98039,1.9704,-1.2358,2.8986,-0.06472,0.90615,0.98039,1.9704,5.8824,2.8571,5.6508,1.0111,7.7295,2.963,-5.9259,3.873,0.0,4.7021
-1.0111,10.54,3.9024,5.8824,2.9557,3.6423,7.7295,2.8479,3.8188,5.8824,2.9557,10.784,0.95238,1.8413,0.06319,6.7633,2.963,-0.12882,1.9683,-0.98039,-1.095
-1.9589,10.54,5.8537,5.8824,4.9261,3.6423,10.628,1.877,2.8479,5.8824,4.9261,12.745,1.9048,6.6032,1.0111,8.6957,4.8953,-0.12882,4.8254,0.98039,8.5668
-5.7504,4.8254,0.97561,-3.9216,1.9704,-2.2114,3.8647,-1.0356,-1.0356,-3.9216,1.9704,4.902,-0.95238,6.6032,-2.7804,6.7633,2.963,-1.095,5.7778,-4.902,9.533
-10.49,-4.6984,-6.8293,-7.8431,-2.9557,-4.1626,0.96618,-1.0356,-4.9191,-7.8431,-2.9557,-2.9412,-4.7619,-2.9206,-8.4676,-1.9324,-2.8341,-7.8583,1.0159,-8.8235,1.8035
-6.6983,-6.6032,-5.8537,-1.9608,0.0,-3.187,-2.8986,1.877,-1.0356,-1.9608,0.0,-2.9412,-3.8095,-2.9206,-5.624,-2.8986,-2.8341,-7.8583,-2.7937,0.0,-9.7907
-2.9068,-7.5556,-4.878,-4.902,0.0,-3.187,-4.8309,0.90615,-0.06472,-4.902,0.0,-1.9608,-1.9048,-0.06349,-1.8325,-3.8647,-1.868,-0.12882,-4.6984,1.9608,-8.8245
-3.8547,-10.413,-8.7805,-5.8824,0.0,-3.187,-7.7295,-1.0356,-0.06472,-5.8824,0.0,-5.8824,-4.7619,-3.873,-1.8325,-5.7971,-3.8003,-3.0274,-1.8413,0.98039,-1.095
-6.6983,-17.079,-13.659,-8.8235,-3.9409,-7.0894,-11.594,-8.8026,-2.0065,-8.8235,-3.9409,-13.725,-7.619,-3.873,-2.7804,-7.7295,-6.6989,-2.0612,-2.7937,-0.98039,-1.095
-8.594,-18.032,-13.659,-6.8627,-5.9113,-11.967,-8.6957,-6.8608,-3.9482,-6.8627,-5.9113,-14.706,-7.619,-4.8254,-5.624,-7.7295,-6.6989,-5.9259,-1.8413,-5.8824,-0.12882
-8.594,-9.4603,-8.7805,-5.8824,-1.9704,-11.967,-9.6618,-2.9773,-0.06472,-5.8824,-1.9704,-12.745,-5.7143,-1.9683,-4.6761,-2.8986,-4.7665,-10.757,1.9683,-5.8824,5.6683
-10.49,-5.6508,-9.7561,-4.902,-1.9704,-10.992,-7.7295,-3.9482,-0.06472,-4.902,-1.9704,-10.784,-6.6667,-4.8254,-5.624,-4.8309,-6.6989,-4.9597,1.9683,-4.902,6.6345
-11.438,-5.6508,-11.707,-3.9216,-4.9261,-10.016,-4.8309,-4.9191,-1.0356,-3.9216,-4.9261,-10.784,-7.619,-6.7302,-7.5197,-7.7295,-9.5974,2.7697,-1.8413,-3.9216,-2.0612
-13.333,-7.5556,-12.683,-9.8039,-4.9261,-12.943,-5.7971,-2.9773,-8.8026,-9.8039,-4.9261,-12.745,-6.6667,-2.9206,-9.4155,-7.7295,-9.5974,1.8035,-2.7937,-5.8824,-4.9597
-10.49,-4.6984,-8.7805,-9.8039,-4.9261,-9.0407,-8.6957,-3.9482,-4.9191,-9.8039,-4.9261,-10.784,-6.6667,0.88889,-6.5719,-3.8647,-6.6989,-4.9597,-0.88889,-0.98039,1.8035
-1.0111,1.9683,0.97561,-6.8627,-3.9409,-3.187,-3.8647,-2.0065,1.877,-6.8627,-3.9409,-4.902,-0.95238,5.6508,1.0111,4.8309,1.9968,-2.0612,1.0159,1.9608,6.6345
8.4676,9.5873,12.683,0.0,-4.9261,3.6423,0.96618,4.7896,-0.06472,0.0,-4.9261,1.9608,7.619,10.413,10.49,12.56,11.659,5.6683,2.9206,6.8627,14.364
14.155,11.492,17.561001,1.9608,-4.9261,8.5203,1.9324,5.7605,-5.89,1.9608,-4.9261,7.8431,11.429,13.27,15.229,16.424999,16.49,8.5668,6.7302,10.784,16.296
17.945999,12.444,20.488001,1.9608,-1.9704,14.374,3.8647,2.8479,-4.9191,1.9608,-1.9704,14.706,12.381,11.365,17.125,15.459,17.455999,9.533,4.8254,6.8627,10.499
19.841999,11.492,22.438999,9.8039,8.867,17.301001,13.527,6.7314,4.7896,9.8039,8.867,21.569,9.5238,5.6508,15.229,10.628,15.523,10.499,3.873,1.9608,6.6345
17.945999,8.6349,19.511999,11.765,12.808,16.325001,15.459,7.7023,8.6731,11.765,12.808,20.587999,7.619,4.6984,14.281,5.7971,12.625,7.6006,0.06349,2.9412,-6.8921
14.155,8.6349,15.61,12.745,8.867,14.374,11.594,6.7314,4.7896,12.745,8.867,15.686,6.6667,4.6984,12.385,4.8309,11.659,4.7021,-1.8413,4.902,-10.757
10.363,7.6825,8.7805,14.706,10.837,11.447,11.594,4.7896,6.7314,14.706,10.837,10.784,3.8095,-0.06349,9.5419,5.7971,8.7601,0.83736,-0.88889,4.902,-7.8583
2.7804,6.7302,0.97561,5.8824,9.8522,5.5935,10.628,-2.0065,9.644,5.8824,9.8522,5.8824,0.0,-2.9206,2.9068,5.7971,4.8953,3.7359,1.9683,2.9412,-1.095
-2.9068,4.8254,-3.9024,8.8235,7.8818,0.71545,10.628,-3.9482,11.586,8.8235,7.8818,3.9216,-1.9048,0.88889,-1.8325,5.7971,0.06441,2.7697,2.9206,6.8627,-3.9936
-9.5419,0.06349,-9.7561,4.902,2.9557,-5.1382,2.8986,-6.8608,4.7896,4.902,2.9557,-1.9608,-5.7143,-0.06349,-10.363,0.0,-6.6989,-3.9936,-0.88889,-1.9608,-8.8245
-10.49,0.06349,-11.707,-1.9608,1.9704,-6.1138,2.8986,-5.89,3.8188,-1.9608,1.9704,-4.902,-7.619,-4.8254,-12.259,-2.8986,-10.564,-1.095,2.9206,-8.8235,6.6345
-10.49,-6.6032,-15.61,-0.98039,1.9704,-8.065,-2.8986,-4.9191,2.8479,-0.98039,1.9704,-9.8039,-6.6667,-8.6349,-10.363,-8.6957,-12.496,-0.12882,1.9683,-1.9608,-2.0612
-13.333,-14.222,-21.462999,0.98039,0.0,-14.894,-12.56,-6.8608,2.8479,0.98039,0.0,-15.686,-6.6667,-6.7302,-9.4155,-12.56,-14.428,-1.095,0.06349,-0.98039,-3.0274
-14.281,-16.127001,-21.462999,-3.9216,-4.9261,-17.820999,-16.424999,-11.715,0.90615,-3.9216,-4.9261,-19.608,-3.8095,-2.9206,-7.5197,-10.628,-12.496,-7.8583,3.873,-1.9608,-2.0612
-3.8547,-10.413,-10.732,-8.8235,-4.9261,-9.0407,-8.6957,-10.744,-2.9773,-8.8235,-4.9261,-12.745,1.9048,2.7937,-0.88468,-3.8647,-3.8003,-6.8921,2.9206,2.9412,2.7697
6.5719,-3.746,0.0,-1.9608,-1.9704,0.71545,-4.8309,0.90615,-1.0356,-1.9608,-1.9704,-4.902,6.6667,4.6984,7.6461,0.96618,3.9291,-2.0612,-0.88889,7.8431,4.7021
10.363,1.0159,5.8537,1.9608,0.98522,0.71545,-2.8986,1.877,2.8479,1.9608,0.98522,-0.98039,8.5714,8.5079,12.385,6.7633,8.7601,9.533,1.9683,7.8431,7.6006
8.4676,5.7778,8.7805,5.8824,-2.9557,2.6667,2.8986,-2.0065,-2.0065,5.8824,-2.9557,2.9412,6.6667,7.5556,9.5419,8.6957,9.7262,6.6345,4.8254,0.0,12.432
7.5197,6.7302,11.707,3.9216,2.9557,5.5935,9.6618,0.90615,2.8479,3.9216,2.9557,7.8431,4.7619,3.746,5.7504,8.6957,9.7262,-2.0612,5.7778,-3.9216,5.6683
6.5719,2.9206,13.659,5.8824,8.867,6.5691,7.7295,3.8188,3.8188,5.8824,8.867,9.8039,3.8095,3.746,2.9068,6.7633,8.7601,0.83736,0.06349,-6.8627,-0.12882
1.8325,-0.88889,11.707,5.8824,5.9113,5.5935,1.9324,0.90615,2.8479,5.8824,5.9113,7.8431,3.8095,4.6984,-2.7804,3.8647,5.8615,-5.9259,-0.88889,-8.8235,-2.0612
-5.7504,1.0159,4.878,0.0,3.9409,-1.2358,-1.9324,-2.0065,3.8188,0.0,3.9409,2.9412,3.8095,2.7937,-5.624,3.8647,2.963,-6.8921,-1.8413,-4.902,-3.9936
-2.9068,9.5873,5.8537,4.902,3.9409,0.71545,7.7295,0.90615,5.7605,4.902,3.9409,4.902,9.5238,4.6984,1.9589,9.6618,7.7939,-0.12882,1.9683,0.0,-2.0612
-1.0111,11.492,7.8049,7.8431,3.9409,0.71545,11.594,2.8479,2.8479,7.8431,3.9409,5.8824,10.476,5.6508,3.8547,8.6957,8.7601,2.7697,0.06349,0.98039,-8.8245
1.8325,8.6349,6.8293,0.0,0.0,-1.2358,4.8309,0.90615,-1.0356,0.0,0.0,2.9412,7.619,3.746,3.8547,5.7971,5.8615,1.8035,-4.6984,1.9608,-3.0274
6.5719,5.7778,7.8049,-4.902,-3.9409,2.6667,0.96618,1.877,-3.9482,-4.902,-3.9409,1.9608,6.6667,6.6032,6.6983,4.8309,5.8615,0.83736,-4.6984,5.8824,0.83736
1.8325,1.0159,0.0,-11.765,-13.793,-0.26016,-5.7971,-2.9773,-8.8026,-11.765,-13.793,-4.902,0.95238,1.8413,2.9068,0.96618,1.0306,6.6345,-1.8413,3.9216,4.7021
-3.8547,-7.5556,-9.7561,-10.784,-17.733999,-7.0894,-9.6618,-8.8026,-12.686,-10.784,-17.733999,-12.745,-1.9048,-3.873,-0.88468,-6.7633,-4.7665,6.6345,-5.6508,4.902,-0.12882
-8.594,-10.413,-16.584999,-15.686,-18.719,-10.992,-14.493,-12.686,-11.715,-15.686,-18.719,-18.627001,-1.9048,-1.9683,-3.7283,-7.7295,-7.6651,-0.12882,-5.6508,7.8431,5.6683
-7.6461,-6.6032,-15.61,-10.784,-10.837,-10.992,-12.56,-7.8317,-7.8317,-10.784,-10.837,-15.686,0.95238,1.8413,-0.88468,-3.8647,-6.6989,-0.12882,-0.88889,9.8039,11.465
-9.5419,-3.746,-13.659,-5.8824,-5.9113,-11.967,-6.7633,-2.9773,-2.9773,-5.8824,-5.9113,-13.725,-0.95238,2.7937,-3.7283,-2.8986,-7.6651,-0.12882,2.9206,1.9608,16.296
-11.438,-6.6032,-12.683,-6.8627,-5.9113,-11.967,-4.8309,-3.9482,-1.0356,-6.8627,-5.9113,-10.784,-3.8095,-1.0159,-9.4155,-6.7633,-11.53,-3.9936,2.9206,-5.8824,12.432
-7.6461,-9.4603,-6.8293,-3.9216,-2.9557,-2.2114,-5.7971,0.90615,0.90615,-3.9216,-2.9557,-2.9412,-5.7143,-3.873,-8.4676,-10.628,-12.496,-0.12882,1.0159,-3.9216,3.7359
-4.8025,-8.5079,-2.9268,7.8431,4.9261,7.5447,-0.96618,7.7023,2.8479,7.8431,4.9261,4.902,-8.5714,-9.5873,-10.363,-11.594,-11.53,-1.095,5.7778,-2.9412,-1.095
-1.9589,-1.8413,0.0,10.784,6.8966,11.447,6.7633,5.7605,4.7896,10.784,6.8966,11.765,-7.619,-6.7302,-9.4155,-7.7295,-8.6312,-3.9936,3.873,-3.9216,-3.0274
-0.06319,1.0159,3.9024,14.706,9.8522,11.447,14.493,4.7896,2.8479,14.706,9.8522,15.686,-5.7143,-6.7302,-6.5719,-4.8309,-4.7665,-3.9936,0.06349,0.0,-6.8921
2.7804,2.9206,7.8049,18.627001,15.764,10.472,15.459,8.6731,4.7896,18.627001,15.764,17.646999,-0.95238,-3.873,-1.8325,-0.96618,1.0306,-4.9597,0.06349,-4.902,-9.7907
7.5197,6.7302,11.707,18.627001,18.719,10.472,17.391001,8.6731,8.6731,18.627001,18.719,17.646999,2.8571,1.8413,3.8547,5.7971,7.7939,-3.0274,0.06349,-6.8627,1.8035
6.5719,3.873,9.7561,10.784,12.808,10.472,10.628,5.7605,5.7605,10.784,12.808,13.725,6.6667,1.8413,6.6983,6.7633,9.7262,5.6683,-2.7937,-5.8824,-1.095
4.6761,1.0159,6.8293,8.8235,5.9113,5.5935,0.0,8.6731,1.877,8.8235,5.9113,6.8627,7.619,2.7937,7.6461,6.7633,9.7262,4.7021,-1.8413,-2.9412,-4.9597
3.7283,2.9206,5.8537,5.8824,1.9704,1.6911,0.0,2.8479,0.90615,5.8824,1.9704,4.902,5.7143,0.88889,7.6461,6.7633,8.7601,1.8035,3.873,2.9412,-3.9936
4.6761,2.9206,3.9024,2.9412,0.98522,1.6911,0.96618,2.8479,0.90615,2.9412,0.98522,2.9412,2.8571,-4.8254,8.594,1.9324,5.8615,6.6345,1.0159,11.765,-8.8245
2.7804,1.9683,1.9512,2.9412,2.9557,-4.1626,2.8986,1.877,-1.0356,2.9412,2.9557,0.98039,0.0,-5.7778,5.7504,0.0,1.9968,7.6006,1.0159,13.725,0.83736
-1.9589,-2.7937,-5.8537,-6.8627,-4.9261,-9.0407,-2.8986,-5.89,-6.8608,-6.8627,-4.9261,-7.8431,-1.9048,-6.7302,1.9589,-3.8647,-2.8341,6.6345,0.06349,8.8235,-5.9259
-3.8547,-3.746,-9.7561,-13.725,-8.867,-10.016,-9.6618,-5.89,-3.9482,-13.725,-8.867,-12.745,-1.9048,-5.7778,-0.88468,-4.8309,-4.7665,4.7021,-5.6508,8.8235,-13.655
-4.8025,-0.88889,-10.732,-6.8627,-7.8818,-9.0407,-6.7633,-2.0065,1.877,-6.8627,-7.8818,-12.745,-3.8095,-5.7778,-3.7283,-3.8647,-7.6651,-0.12882,-3.746,6.8627,-2.0612
-4.8025,1.0159,-7.8049,-0.98039,-4.9261,-8.065,-3.8647,0.90615,2.8479,-0.98039,-4.9261,-7.8431,-6.6667,-4.8254,-8.4676,-3.8647,-10.564,-3.9936,6.7302,-1.9608,-0.12882
-3.8547,1.9683,-4.878,-4.902,-4.9261,-5.1382,-0.96618,-1.0356,-2.0065,-4.902,-4.9261,-4.902,-7.619,-3.873,-10.363,-4.8309,-10.564,-4.9597,2.9206,-6.8627,-0.12882
-7.6461,-1.8413,-6.8293,-10.784,-5.9113,-6.1138,0.96618,-9.7735,-8.8026,-10.784,-5.9113,-6.8627,-10.476,-7.6825,-13.207,-7.7295,-13.462,-6.8921,-3.746,-6.8627,3.7359
-7.6461,-1.8413,-6.8293,-6.8627,-2.9557,-3.187,-3.8647,-6.8608,-4.9191,-6.8627,-2.9557,-4.902,-5.7143,-3.873,-9.4155,-5.7971,-10.564,-2.0612,-2.7937,0.0,7.6006
1.8325,1.9683,0.97561,5.8824,2.9557,7.5447,5.7971,3.8188,5.7605,5.8824,2.9557,4.902,0.95238,5.6508,-0.88468,0.96618,-1.868,3.7359,-0.88889,4.902,16.296
4.6761,0.06349,5.8537,10.784,5.9113,10.472,12.56,7.7023,4.7896,10.784,5.9113,8.8235,0.95238,-1.0159,-1.8325,-1.9324,-0.90177,1.8035,-0.88889,-0.98039,2.7697
5.624,-5.6508,6.8293,12.745,10.837,12.423,7.7295,11.586,2.8479,12.745,10.837,10.784,3.8095,-2.9206,-3.7283,-6.7633,-1.868,-0.12882,-6.6032,-3.9216,-18.486
5.624,-8.5079,5.8537,15.686,12.808,13.398,2.8986,14.498,3.8188,15.686,12.808,9.8039,6.6667,0.88889,0.06319,-6.7633,0.06441,3.7359,-10.413,1.9608,-16.554001
4.6761,-8.5079,0.97561,14.706,8.867,9.4959,0.0,19.353001,0.90615,14.706,8.867,5.8824,5.7143,-1.9683,5.7504,-5.7971,1.0306,9.533,-0.88889,8.8235,-11.723
8.4676,-7.5556,2.9268,13.725,5.9113,11.447,5.7971,20.323999,-0.06472,13.725,5.9113,6.8627,8.5714,-3.873,12.385,-4.8309,4.8953,16.296,-2.7937,13.725,-16.554001
