C3,C4,Cz,F1,F2,F3,F4,F7,F8,Fp1,Fp2,Fz,O1,O2,P3,P4,Pz,T3,T4,T5,T6
-0.12638,-3.7179,-1.9512,-8.8235,-5.8824,-7.0894,-2.8986,-11.772,-4.9191,-8.8235,-5.8824,-5.8824,1.9048,-0.06349,3.9365,-2.9126,0.06441,-6.89,-0.8254,4.9261,0.83736
-1.0742,-3.7179,-1.9512,1.9608,5.8824,-8.065,-4.8309,-6.8943,1.877,1.9608,5.8824,-3.9216,5.7143,0.88889,6.7937,-2.9126,0.06441,-3.0622,-0.8254,8.867,-1.095
-2.97,-1.7949,-0.97561,4.902,10.784,-6.1138,-2.8986,-3.9675,6.7314,4.902,10.784,-1.9608,2.8571,-1.9683,3.9365,-4.8544,-1.868,-2.1053,0.12698,7.8818,-3.9936
-2.0221,4.9359,1.9512,6.8627,8.8235,-2.2114,4.8309,-1.0407,6.7314,6.8627,8.8235,1.9608,-2.8571,-4.8254,1.0794,-3.8835,-2.8341,-3.0622,-0.8254,4.9261,-3.0274
3.6651,7.8205,6.8293,5.8824,7.8431,4.6179,7.7295,2.8618,4.7896,5.8824,7.8431,5.8824,0.0,-3.873,2.0317,-1.9417,0.06441,0.76555,2.0317,3.9409,-2.0612
4.613,4.9359,5.8537,5.8824,1.9608,6.5691,4.8309,4.813,1.877,5.8824,1.9608,4.902,-1.9048,-4.8254,0.12698,-2.9126,-0.90177,0.76555,3.9365,0.0,-3.0274
1.7694,-0.83333,-0.97561,-0.98039,-4.902,6.5691,1.9324,4.813,-2.0065,-0.98039,-4.902,0.0,-5.7143,-5.7778,-1.7778,-4.8544,-3.8003,1.7225,0.12698,-1.9704,-3.0274
-1.0742,-6.6026,-8.7805,2.9412,4.902,1.6911,0.0,4.813,0.90615,2.9412,4.902,-1.9608,-2.8571,-3.873,-0.8254,-5.8252,-4.7665,2.6794,-0.8254,3.9409,-3.0274
-3.9179,-7.5641,-12.683,9.8039,14.706,-0.26016,0.0,10.667,6.7314,9.8039,14.706,0.0,-1.9048,-2.9206,1.0794,-4.8544,-3.8003,6.5072,-1.7778,6.8966,-3.9936
-4.8657,-3.7179,-7.8049,6.8627,8.8235,-0.26016,0.0,9.6911,5.7605,6.8627,8.8235,0.98039,-0.95238,-1.9683,2.0317,-0.97087,-1.868,8.4211,-1.7778,7.8818,-1.095
-2.97,-0.83333,-1.9512,-1.9608,-1.9608,-2.2114,-2.8986,1.8862,0.90615,-1.9608,-1.9608,-0.98039,1.9048,0.88889,2.9841,1.9417,1.0306,3.6364,-1.7778,6.8966,1.8035
1.7694,3.9744,3.9024,-10.784,-7.8431,-0.26016,1.9324,-3.9675,-2.9773,-10.784,-7.8431,-0.98039,0.95238,1.8413,2.9841,2.9126,1.9968,1.7225,-0.8254,5.9113,1.8035
1.7694,3.0128,3.9024,-8.8235,-8.8235,-0.26016,1.9324,-2.9919,-4.9191,-8.8235,-8.8235,-0.98039,0.0,-1.0159,2.9841,-0.97087,-1.868,0.76555,1.0794,4.9261,-2.0612
3.6651,-3.7179,0.97561,4.902,5.8824,-1.2358,-1.9324,3.8374,0.90615,4.902,5.8824,-0.98039,1.9048,-1.0159,2.0317,-4.8544,-4.7665,-0.19139,2.9841,4.9261,-3.9936
1.7694,-4.6795,-0.97561,2.9412,4.902,-1.2358,-3.8647,2.8618,5.7605,2.9412,4.902,-1.9608,0.95238,-1.0159,0.12698,-4.8544,-5.7327,-1.1483,3.9365,2.9557,-3.9936
0.82148,-0.83333,-0.97561,0.98039,3.9216,-1.2358,-0.96618,-1.0407,8.6731,0.98039,3.9216,-0.98039,1.9048,-1.0159,1.0794,-1.9417,-2.8341,0.76555,4.8889,4.9261,-2.0612
-6.7615,-0.83333,-7.8049,-1.9608,4.902,-5.1382,0.96618,-3.9675,8.6731,-1.9608,4.902,-2.9412,1.9048,-0.06349,-1.7778,-0.97087,-2.8341,-0.19139,4.8889,2.9557,-0.12882
-9.6051,1.0897,-9.7561,-8.8235,2.9412,-0.26016,5.7971,-5.9187,8.6731,-8.8235,2.9412,0.98039,3.8095,2.7937,-3.6825,0.97087,-1.868,-1.1483,5.8413,0.98522,3.7359
-6.7615,3.9744,-4.878,0.98039,6.8627,0.71545,11.594,-5.9187,11.586,0.98039,6.8627,5.8824,3.8095,3.746,-2.7302,0.97087,1.0306,-4.0191,3.9365,0.0,4.7021
-6.7615,-1.7949,-2.9268,6.8627,14.706,-6.1138,8.6957,-8.8455,9.644,6.8627,14.706,3.9216,0.95238,-0.06349,-3.6825,-4.8544,-1.868,-7.8469,2.9841,-2.9557,-1.095
-4.8657,-5.641,-2.9268,3.9216,13.725,-8.065,2.8986,-8.8455,6.7314,3.9216,13.725,0.98039,-1.9048,-1.0159,-2.7302,-6.7961,-1.868,-8.8038,2.9841,-0.98522,-3.0274
-3.9179,-4.6795,-4.878,-0.98039,4.902,-6.1138,-0.96618,-9.8211,3.8188,-0.98039,4.902,-1.9608,-0.95238,-0.06349,-2.7302,-3.8835,-0.90177,-5.933,1.0794,-2.9557,-1.095
-3.9179,-2.7564,-6.8293,-2.9412,-3.9216,-1.2358,-1.9324,-5.9187,-2.0065,-2.9412,-3.9216,-1.9608,-0.95238,-1.0159,-6.5397,-2.9126,-3.8003,-4.9761,0.12698,-7.8818,-2.0612
-5.8136,-3.7179,-10.732,-4.902,-4.902,1.6911,-4.8309,-0.06504,-3.9482,-4.902,-4.902,-2.9412,-5.7143,-3.873,-11.302,-4.8544,-8.6312,-4.9761,0.12698,-8.867,-4.9597
-7.7093,-3.7179,-9.7561,4.902,4.902,-3.187,-4.8309,2.8618,0.90615,4.902,4.902,-2.9412,-6.6667,-4.8254,-13.206,-5.8252,-9.5974,-3.0622,1.0794,-8.867,-3.9936
-10.553,-1.7949,-8.7805,6.8627,4.902,-4.1626,-4.8309,4.813,2.8479,6.8627,4.902,-2.9412,-7.619,-5.7778,-13.206,-4.8544,-8.6312,-2.1053,3.9365,-9.8522,-4.9597
-12.449,-0.83333,-10.732,3.9216,1.9608,-4.1626,-5.7971,3.8374,2.8479,3.9216,1.9608,-4.902,-10.476,-8.6349,-13.206,-3.8835,-6.6989,-3.0622,2.0317,-13.793,-5.9259
-10.553,1.0897,-9.7561,-1.9608,-2.9412,-2.2114,-3.8647,2.8618,1.877,-1.9608,-2.9412,-3.9216,-8.5714,-6.7302,-8.4444,0.97087,0.06441,-0.19139,4.8889,-11.823,-4.9597
-4.8657,1.0897,-4.878,-1.9608,-5.8824,3.6423,0.0,3.8374,-1.0356,-1.9608,-5.8824,0.0,-4.7619,-4.8254,-3.6825,1.9417,2.963,3.6364,2.9841,-6.8966,-5.9259
2.7172,-0.83333,0.0,9.8039,3.9216,5.5935,-1.9324,12.618,2.8479,9.8039,3.9216,1.9608,-3.8095,-4.8254,-0.8254,0.0,1.9968,8.4211,2.0317,-4.9261,-7.8583
8.4044,-2.7564,5.8537,15.686,14.706,7.5447,0.96618,13.593,8.6731,15.686,14.706,4.902,-2.8571,-3.873,2.0317,-2.9126,1.0306,11.292,2.9841,-1.9704,-7.8583
5.5608,-3.7179,4.878,2.9412,4.902,2.6667,0.96618,2.8618,6.7314,2.9412,4.902,0.98039,-1.9048,-3.873,2.0317,-5.8252,1.0306,5.5502,1.0794,-2.9557,-8.8245
2.7172,-2.7564,1.9512,-2.9412,2.9412,-2.2114,1.9324,-3.9675,5.7605,-2.9412,2.9412,-0.98039,0.95238,-1.0159,2.9841,-3.8835,3.9291,0.76555,1.0794,-1.9704,-6.8921
3.6651,-0.83333,1.9512,-15.686,-2.9412,-0.26016,3.8647,-9.8211,3.8188,-15.686,-2.9412,0.0,5.7143,3.746,5.8413,-0.97087,6.8277,-0.19139,2.9841,1.9704,-3.0274
1.7694,1.0897,3.9024,-1.9608,4.902,-0.26016,3.8647,-2.0163,5.7605,-1.9608,4.902,0.0,5.7143,3.746,4.8889,0.0,6.8277,0.76555,2.0317,0.98522,-1.095
0.82148,3.9744,6.8293,9.8039,7.8431,-0.26016,0.0,3.8374,6.7314,9.8039,7.8431,0.0,3.8095,0.88889,2.0317,0.0,6.8277,0.76555,2.9841,-2.9557,-1.095
-1.0742,3.9744,8.7805,3.9216,-1.9608,-0.26016,0.0,2.8618,4.7896,3.9216,-1.9608,0.0,1.9048,-0.06349,-1.7778,0.0,5.8615,-3.0622,3.9365,-8.867,-1.095
-2.97,2.0513,7.8049,-2.9412,-3.9216,-3.187,1.9324,-2.9919,0.90615,-2.9412,-3.9216,-0.98039,-0.95238,-1.9683,-6.5397,-2.9126,0.06441,-9.7608,2.0317,-14.778,-2.0612
-3.9179,0.12821,2.9268,-6.8627,-5.8824,-0.26016,2.8986,-3.9675,0.90615,-6.8627,-5.8824,-0.98039,-0.95238,-0.06349,-7.4921,-2.9126,-2.8341,-8.8038,-0.8254,-14.778,-0.12882
-2.0221,-2.7564,-3.9024,-1.9608,-1.9608,1.6911,0.0,0.91057,0.90615,-1.9608,-1.9608,0.0,-3.8095,1.8413,-7.4921,-0.97087,-3.8003,-4.0191,2.0317,-12.808,2.7697
-2.97,-4.6795,-8.7805,7.8431,3.9216,0.71545,-3.8647,9.6911,-1.0356,7.8431,3.9216,-2.9412,-3.8095,1.8413,-8.4444,-0.97087,-4.7665,-2.1053,2.0317,-9.8522,4.7021
-2.97,-6.6026,-7.8049,9.8039,4.902,1.6911,-2.8986,12.618,-1.0356,9.8039,4.902,-2.9412,-3.8095,0.88889,-8.4444,-1.9417,-6.6989,0.76555,-0.8254,-6.8966,2.7697
-2.0221,-6.6026,-2.9268,3.9216,-3.9216,2.6667,-2.8986,12.618,-1.0356,3.9216,-3.9216,-2.9412,-2.8571,0.88889,-5.5873,-1.9417,-5.7327,3.6364,-2.7302,-3.9409,-0.12882
-0.12638,-2.7564,2.9268,-0.98039,-6.8627,2.6667,-0.96618,10.667,-4.9191,-0.98039,-6.8627,-2.9412,-0.95238,0.88889,-2.7302,0.97087,-1.868,3.6364,-1.7778,-1.9704,0.83736
0.82148,2.0513,6.8293,-2.9412,-7.8431,0.71545,-1.9324,8.7154,-5.89,-2.9412,-7.8431,-2.9412,-2.8571,-1.0159,-1.7778,2.9126,1.0306,1.7225,0.12698,-4.9261,-1.095
6.5087,5.8974,9.7561,-0.98039,0.0,1.6911,0.96618,7.7398,-3.9482,-0.98039,0.0,0.0,-1.9048,-1.0159,2.0317,5.8252,5.8615,7.4641,0.12698,0.0,-0.12882
9.3523,4.9359,6.8293,0.98039,0.98039,2.6667,0.96618,8.7154,-2.0065,0.98039,0.98039,0.98039,-0.95238,-1.0159,5.8413,3.8835,5.8615,8.4211,-0.8254,3.9409,-0.12882
13.144,4.9359,6.8293,2.9412,-0.98039,2.6667,4.8309,7.7398,-2.0065,2.9412,-0.98039,2.9412,0.95238,-0.06349,9.6508,4.8544,6.8277,11.292,1.0794,6.8966,1.8035
10.3,7.8205,6.8293,-4.902,-3.9216,1.6911,3.8647,5.7886,-2.9773,-4.902,-3.9216,1.9608,2.8571,0.88889,9.6508,6.7961,6.8277,8.4211,2.0317,5.9113,2.7697
5.5608,9.7436,3.9024,-3.9216,-1.9608,-0.26016,1.9324,2.8618,-4.9191,-3.9216,-1.9608,0.0,2.8571,1.8413,7.746,10.68,8.7601,6.5072,2.9841,4.9261,5.6683
1.7694,8.7821,1.9512,-0.98039,-4.902,-1.2358,0.96618,3.8374,-3.9482,-0.98039,-4.902,-0.98039,5.7143,6.6032,8.6984,13.592,12.625,5.5502,2.9841,3.9409,6.6345
2.7172,5.8974,2.9268,-1.9608,-2.9412,0.71545,0.96618,5.7886,-0.06472,-1.9608,-2.9412,-0.98039,9.5238,10.413,11.556,13.592,16.49,4.5933,2.0317,3.9409,6.6345
5.5608,3.9744,6.8293,0.98039,-0.98039,2.6667,4.8309,2.8618,-1.0356,0.98039,-0.98039,2.9412,13.333,11.365,13.46,11.65,18.422001,5.5502,1.0794,5.9113,4.7021
8.4044,6.859,10.732,7.8431,1.9608,5.5935,7.7295,2.8618,0.90615,7.8431,1.9608,7.8431,16.190001,12.317,16.316999,10.68,19.388,5.5502,1.0794,8.867,4.7021
7.4566,5.8974,10.732,5.8824,5.8824,5.5935,6.7633,1.8862,0.90615,5.8824,5.8824,9.8039,13.333,7.5556,15.365,6.7961,15.523,6.5072,1.0794,7.8818,1.8035
9.3523,4.9359,7.8049,2.9412,2.9412,7.5447,4.8309,4.813,-0.06472,2.9412,2.9412,8.8235,10.476,4.6984,14.413,3.8835,10.692,6.5072,0.12698,6.8966,0.83736
6.5087,3.0128,2.9268,1.9608,0.98039,6.5691,5.7971,2.8618,0.90615,1.9608,0.98039,6.8627,5.7143,4.6984,6.7937,0.97087,4.8953,6.5072,1.0794,0.98522,-0.12882
3.6651,0.12821,0.97561,0.0,-1.9608,6.5691,3.8647,-0.06504,0.90615,0.0,-1.9608,5.8824,0.95238,2.7937,1.0794,-2.9126,-0.90177,4.5933,2.0317,-2.9557,-2.0612
3.6651,0.12821,0.0,4.902,0.98039,8.5203,4.8309,4.813,-2.9773,4.902,0.98039,6.8627,0.0,2.7937,-0.8254,-1.9417,-2.8341,0.76555,2.0317,-2.9557,-0.12882
-0.12638,0.12821,-1.9512,7.8431,2.9412,7.5447,3.8647,6.7642,-2.0065,7.8431,2.9412,5.8824,-4.7619,-1.0159,-3.6825,-2.9126,-6.6989,-0.19139,-0.8254,-2.9557,1.8035
-1.0742,-1.7949,-1.9512,8.8235,2.9412,9.4959,2.8986,5.7886,1.877,8.8235,2.9412,6.8627,-8.5714,-6.7302,-7.4921,-6.7961,-12.496,1.7225,0.12698,-3.9409,-1.095
-3.9179,-5.641,-2.9268,10.784,3.9216,9.4959,0.0,7.7398,3.8188,10.784,3.9216,5.8824,-10.476,-10.54,-10.349,-9.7087,-15.395,-2.1053,1.0794,-5.9113,-3.0274
-10.553,-15.256,-10.732,6.8627,0.0,3.6423,-4.8309,3.8374,-2.9773,6.8627,0.0,-1.9608,-15.238,-15.302,-17.016001,-15.534,-21.191999,-2.1053,-2.7302,-9.8522,-6.8921
-13.397,-22.948999,-18.537001,0.98039,-2.9412,-1.2358,-7.7295,1.8862,-3.9482,0.98039,-2.9412,-6.8627,-16.190001,-16.254,-19.872999,-18.447001,-24.09,-4.0191,-3.6825,-10.837,-7.8583
-12.449,-18.141001,-18.537001,3.9216,0.98039,-2.2114,-5.7971,0.91057,-0.06472,3.9216,0.98039,-7.8431,-12.381,-11.492,-17.968,-12.621,-20.225,-4.0191,-2.7302,-9.8522,-2.0612
-8.6572,-7.5641,-12.683,6.8627,-2.9412,0.71545,-4.8309,-1.0407,-2.9773,6.8627,-2.9412,-5.8824,-8.5714,-6.7302,-12.254,-3.8835,-11.53,-2.1053,-1.7778,-8.867,2.7697
-5.8136,0.12821,-5.8537,4.902,-3.9216,1.6911,-4.8309,-2.0163,-4.9191,4.902,-3.9216,-5.8824,-5.7143,-3.873,-9.3968,1.9417,-4.7665,-4.0191,1.0794,-7.8818,3.7359
-4.8657,4.9359,-0.97561,-1.9608,-0.98039,0.71545,-7.7295,-2.0163,-3.9482,-1.9608,-0.98039,-5.8824,-2.8571,-0.06349,-3.6825,6.7961,1.0306,-6.89,-0.8254,-3.9409,6.6345
-1.0742,5.8974,0.97561,-1.9608,0.0,-0.26016,-5.7971,-1.0407,-2.9773,-1.9608,0.0,-5.8824,-1.9048,0.88889,2.9841,8.7379,5.8615,-7.8469,2.0317,0.0,8.5668
3.6651,4.9359,3.9024,-2.9412,-2.9412,0.71545,-2.8986,-3.9675,-1.0356,-2.9412,-2.9412,-2.9412,0.95238,1.8413,7.746,9.7087,8.7601,-2.1053,3.9365,4.9261,7.6006
4.613,5.8974,4.878,1.9608,-0.98039,1.6911,0.0,-4.9431,-2.0065,1.9608,-0.98039,-1.9608,3.8095,5.6508,10.603,10.68,11.659,-3.0622,3.9365,5.9113,6.6345
2.7172,3.0128,2.9268,-2.9412,-3.9216,-3.187,0.96618,-10.797,-0.06472,-2.9412,-3.9216,-3.9216,3.8095,5.6508,8.6984,9.7087,10.692,-3.0622,3.9365,4.9261,6.6345
-0.12638,1.0897,0.0,-8.8235,1.9608,-5.1382,0.96618,-7.8699,3.8188,-8.8235,1.9608,-4.902,4.7619,4.6984,8.6984,5.8252,7.7939,-3.0622,2.0317,5.9113,4.7021
2.7172,3.0128,2.9268,-4.902,6.8627,-5.1382,4.8309,-3.9675,5.7605,-4.902,6.8627,-0.98039,5.7143,3.746,9.6508,2.9126,6.8277,-4.9761,-1.7778,8.867,-0.12882
4.613,3.9744,6.8293,-3.9216,3.9216,-2.2114,6.7633,-3.9675,7.7023,-3.9216,3.9216,2.9412,5.7143,4.6984,10.603,1.9417,6.8277,0.76555,0.12698,9.8522,-2.0612
8.4044,5.8974,10.732,2.9412,3.9216,2.6667,10.628,0.91057,4.7896,2.9412,3.9216,6.8627,3.8095,4.6984,9.6508,1.9417,5.8615,7.4641,2.9841,6.8966,-2.0612
9.3523,6.859,11.707,-1.9608,0.98039,3.6423,7.7295,0.91057,2.8479,-1.9608,0.98039,5.8824,1.9048,1.8413,7.746,1.9417,5.8615,4.5933,-0.8254,2.9557,-3.0274
9.3523,4.9359,10.732,-6.8627,1.9608,2.6667,1.9324,-1.0407,1.877,-6.8627,1.9608,2.9412,2.8571,3.746,6.7937,3.8835,6.8277,0.76555,-0.8254,2.9557,-0.12882
5.5608,3.0128,4.878,-5.8824,0.0,-2.2114,-2.8986,-2.9919,-1.0356,-5.8824,0.0,-0.98039,3.8095,4.6984,3.9365,4.8544,4.8953,-3.0622,1.0794,0.98522,1.8035
2.7172,1.0897,1.9512,-0.98039,0.98039,-5.1382,-4.8309,-4.9431,-1.0356,-0.98039,0.98039,-1.9608,2.8571,3.746,2.0317,2.9126,1.9968,-3.0622,-0.8254,0.98522,0.83736
-2.0221,-3.7179,-2.9268,-1.9608,0.0,-7.0894,-3.8647,-4.9431,3.8188,-1.9608,0.0,-3.9216,0.95238,1.8413,-1.7778,-1.9417,-2.8341,-5.933,2.0317,0.0,0.83736
-8.6572,-7.5641,-6.8293,-9.8039,-5.8824,-10.992,-3.8647,-12.748,2.8479,-9.8039,-5.8824,-7.8431,-2.8571,-1.9683,-7.4921,-6.7961,-8.6312,-8.8038,2.0317,-5.9113,-1.095
-9.6051,-6.6026,-6.8293,-13.725,-8.8235,-12.943,-6.7633,-16.65,-2.0065,-13.725,-8.8235,-10.784,-3.8095,-4.8254,-8.4444,-5.8252,-9.5974,-9.7608,0.12698,-8.867,-2.0612
-4.8657,-3.7179,-3.9024,-4.902,-2.9412,-10.992,-7.7295,-9.8211,-1.0356,-4.902,-2.9412,-7.8431,-0.95238,-2.9206,-4.6349,-1.9417,-5.7327,-6.89,0.12698,-4.9261,0.83736
0.82148,-0.83333,-0.97561,2.9412,0.98039,-4.1626,-5.7971,-2.0163,-0.06472,2.9412,0.98039,-1.9608,0.0,1.8413,0.12698,3.8835,-0.90177,-3.0622,2.9841,1.9704,4.7021
1.7694,0.12821,0.0,-2.9412,-2.9412,-0.26016,-2.8986,-3.9675,-4.9191,-2.9412,-2.9412,0.0,-0.95238,2.7937,2.0317,3.8835,0.06441,-1.1483,-0.8254,2.9557,5.6683
2.7172,1.0897,3.9024,-1.9608,-3.9216,-2.2114,0.0,-5.9187,-2.9773,-1.9608,-3.9216,2.9412,0.95238,2.7937,2.0317,3.8835,1.0306,-1.1483,-1.7778,2.9557,4.7021
3.6651,3.9744,7.8049,-0.98039,1.9608,-1.2358,1.9324,-6.8943,-0.06472,-0.98039,1.9608,5.8824,2.8571,5.6508,3.9365,4.8544,2.963,0.76555,-0.8254,5.9113,5.6683
5.5608,5.8974,12.683,3.9216,8.8235,1.6911,7.7295,-2.0163,0.90615,3.9216,8.8235,9.8039,5.7143,6.6032,5.8413,5.8252,5.8615,7.4641,-2.7302,5.9113,4.7021
5.5608,8.7821,14.634,8.8235,6.8627,5.5935,11.594,4.813,4.7896,8.8235,6.8627,13.725,4.7619,4.6984,7.746,6.7961,8.7601,7.4641,-3.6825,6.8966,1.8035
7.4566,6.859,11.707,10.784,11.765,8.5203,13.527,6.7642,5.7605,10.784,11.765,15.686,2.8571,1.8413,7.746,4.8544,7.7939,6.5072,-1.7778,6.8966,-0.12882
5.5608,4.9359,4.878,8.8235,8.8235,8.5203,11.594,3.8374,3.8188,8.8235,8.8235,12.745,0.95238,-1.0159,3.9365,0.97087,2.963,4.5933,0.12698,4.9261,-1.095
-0.12638,2.0513,-0.97561,-3.9216,0.98039,7.5447,10.628,-2.0163,-3.9482,-3.9216,0.98039,9.8039,-1.9048,-2.9206,-2.7302,-3.8835,-2.8341,-0.19139,-1.7778,-0.98522,-3.9936
-2.0221,1.0897,0.97561,0.98039,5.8824,4.6179,4.8309,0.91057,4.7896,0.98039,5.8824,8.8235,-2.8571,-1.9683,-2.7302,-2.9126,-1.868,-0.19139,2.0317,-4.9261,-3.9936
-0.12638,3.9744,6.8293,16.667,17.646999,3.6423,5.7971,1.8862,12.557,16.667,17.646999,11.765,0.0,2.7937,-0.8254,0.97087,1.0306,1.7225,4.8889,-4.9261,1.8035
1.7694,5.8974,8.7805,13.725,8.8235,6.5691,10.628,2.8618,5.7605,13.725,8.8235,12.745,0.95238,3.746,-1.7778,2.9126,1.9968,-1.1483,2.9841,-4.9261,5.6683
3.6651,5.8974,6.8293,7.8431,9.8039,10.472,12.56,2.8618,1.877,7.8431,9.8039,12.745,1.9048,3.746,-1.7778,1.9417,1.9968,-1.1483,2.9841,-3.9409,4.7021
4.613,4.9359,3.9024,0.0,3.9216,13.398,9.6618,-0.06504,-0.06472,0.0,3.9216,10.784,4.7619,2.7937,-0.8254,0.97087,2.963,-1.1483,-0.8254,-2.9557,1.8035
3.6651,6.859,2.9268,0.98039,6.8627,7.5447,5.7971,0.91057,2.8479,0.98039,6.8627,7.8431,7.619,5.6508,2.9841,4.8544,7.7939,-4.9761,-5.5873,0.0,1.8035
2.7172,8.7821,3.9024,7.8431,3.9216,0.71545,3.8647,-1.0407,-1.0356,7.8431,3.9216,4.902,13.333,11.365,7.746,9.7087,12.625,-2.1053,-2.7302,2.9557,4.7021
1.7694,4.9359,3.9024,2.9412,-0.98039,-0.26016,0.96618,-2.0163,-2.9773,2.9412,-0.98039,1.9608,18.094999,17.079,10.603,11.65,14.557,1.7225,0.12698,6.8966,6.6345
-2.0221,-0.83333,-0.97561,-3.9216,-4.902,-5.1382,-3.8647,-7.8699,-5.89,-3.9216,-4.902,-4.902,18.094999,18.032,8.6984,11.65,11.659,-0.19139,0.12698,8.867,8.5668
-4.8657,-3.7179,-4.878,-9.8039,-5.8824,-7.0894,-6.7633,-8.8455,-2.9773,-9.8039,-5.8824,-8.8235,12.381,16.127001,5.8413,9.7087,8.7601,-4.9761,-0.8254,3.9409,6.6345
-1.0742,1.0897,-1.9512,-5.8824,3.9216,-6.1138,-4.8309,-5.9187,3.8188,-5.8824,3.9216,-5.8824,11.429,14.222,7.746,11.65,10.692,-2.1053,2.0317,4.9261,3.7359
-0.12638,5.8974,0.0,-2.9412,-5.8824,-4.1626,-0.96618,-0.06504,2.8479,-2.9412,-5.8824,-3.9216,10.476,12.317,8.6984,11.65,10.692,1.7225,5.8413,6.8966,2.7697
-1.0742,3.0128,-2.9268,-2.9412,-3.9216,-4.1626,-1.9324,-1.0407,1.877,-2.9412,-3.9216,-5.8824,8.5714,7.5556,7.746,6.7961,6.8277,1.7225,3.9365,8.867,0.83736
-3.9179,-1.7949,-5.8537,-9.8039,-4.902,-6.1138,-5.7971,-2.9919,2.8479,-9.8039,-4.902,-9.8039,4.7619,3.746,5.8413,2.9126,1.9968,2.6794,1.0794,8.867,-1.095
-6.7615,-5.641,-8.7805,-8.8235,-1.9608,-11.967,-10.628,-4.9431,2.8479,-8.8235,-1.9608,-14.706,-1.9048,1.8413,-0.8254,0.0,-3.8003,-0.19139,3.9365,1.9704,0.83736
-12.449,-11.41,-16.584999,-13.725,-6.8627,-17.820999,-17.391001,-6.8943,-1.0356,-13.725,-6.8627,-20.587999,-4.7619,-1.0159,-8.4444,-4.8544,-12.496,-4.9761,2.0317,-1.9704,0.83736
-13.397,-14.295,-20.488001,-13.725,-16.667,-17.820999,-15.459,-8.8455,-10.744,-13.725,-16.667,-19.608,-6.6667,-5.7778,-13.206,-9.7087,-19.259001,-3.0622,-0.8254,-0.98522,-0.12882
-13.397,-11.41,-17.561001,-12.745,-12.745,-13.919,-12.56,-7.8699,-9.7735,-12.745,-12.745,-15.686,-8.5714,-7.6825,-14.159,-9.7087,-19.259001,-3.0622,-1.7778,-0.98522,-0.12882
-14.344,-9.4872,-14.634,-6.8627,-0.98039,-12.943,-10.628,-4.9431,-2.0065,-6.8627,-0.98039,-12.745,-10.476,-9.5873,-13.206,-11.65,-19.259001,-4.9761,-3.6825,-0.98522,-2.0612
-12.449,-8.5256,-11.707,2.9412,4.902,-11.967,-4.8309,-2.0163,2.8479,2.9412,4.902,-7.8431,-10.476,-11.492,-10.349,-13.592,-18.292999,-5.933,-4.6349,-0.98522,-3.9936
-4.8657,-7.5641,-4.878,1.9608,8.8235,-8.065,0.96618,-1.0407,4.7896,1.9608,8.8235,-2.9412,-4.7619,-8.6349,-4.6349,-11.65,-13.462,-4.0191,-4.6349,2.9557,-2.0612
1.7694,-10.449,-4.878,-4.902,-0.98039,-4.1626,0.0,-2.9919,-1.0356,-4.902,-0.98039,-1.9608,-3.8095,-6.7302,-1.7778,-12.621,-10.564,-5.933,-6.5397,4.9261,-3.0274
7.4566,-7.5641,-0.97561,-2.9412,0.0,-0.26016,0.96618,-5.9187,-3.9482,-2.9412,0.0,1.9608,-1.9048,-3.873,2.9841,-9.7087,-3.8003,-2.1053,-5.5873,3.9409,-3.0274
10.3,-2.7564,4.878,0.0,5.8824,2.6667,0.96618,-5.9187,-0.06472,0.0,5.8824,4.902,-1.9048,-2.9206,3.9365,-6.7961,-0.90177,-0.19139,-5.5873,0.98522,-2.0612
10.3,1.0897,10.732,6.8627,2.9412,2.6667,2.8986,-0.06504,1.877,6.8627,2.9412,7.8431,-2.8571,-3.873,4.8889,-3.8835,1.0306,-4.9761,-2.7302,-1.9704,-3.9936
12.196,5.8974,15.61,7.8431,2.9412,4.6179,4.8309,2.8618,0.90615,7.8431,2.9412,8.8235,-0.95238,-2.9206,8.6984,0.0,5.8615,-2.1053,-0.8254,-0.98522,-2.0612
8.4044,4.9359,14.634,4.902,5.8824,5.5935,2.8986,2.8618,3.8188,4.902,5.8824,6.8627,-2.8571,-2.9206,6.7937,0.0,6.8277,-0.19139,-1.7778,-2.9557,-4.9597
6.5087,5.8974,14.634,2.9412,7.8431,8.5203,8.6957,5.7886,3.8188,2.9412,7.8431,9.8039,-2.8571,-5.7778,2.9841,-2.9126,4.8953,-2.1053,2.0317,-3.9409,-10.757
8.4044,5.8974,13.659,5.8824,6.8627,16.325001,10.628,6.7642,10.615,5.8824,6.8627,13.725,-1.9048,-7.6825,2.9841,-4.8544,1.9968,4.5933,5.8413,-2.9557,-13.655
8.4044,3.9744,6.8293,13.725,10.784,15.35,8.6957,13.593,11.586,13.725,10.784,11.765,-4.7619,-10.54,2.0317,-8.7379,0.06441,7.4641,5.8413,-2.9557,-15.588
7.4566,2.0513,-0.97561,13.725,5.8824,12.423,5.7971,18.472,8.6731,13.725,5.8824,7.8431,-6.6667,-12.444,1.0794,-10.68,-3.8003,3.6364,5.8413,-2.9557,-16.554001
6.5087,1.0897,-4.878,7.8431,2.9412,11.447,5.7971,14.569,8.6731,7.8431,2.9412,6.8627,-8.5714,-13.397,-1.7778,-10.68,-7.6651,4.5933,4.8889,-2.9557,-12.689
2.7172,3.9744,-3.9024,3.9216,3.9216,8.5203,4.8309,8.7154,11.586,3.9216,3.9216,5.8824,-7.619,-11.492,-3.6825,-5.8252,-9.5974,3.6364,5.8413,-5.9113,-6.8921
-4.8657,3.9744,-4.878,-2.9412,0.98039,0.71545,0.96618,0.91057,9.644,-2.9412,0.98039,0.98039,-8.5714,-11.492,-9.3968,-3.8835,-10.564,-3.0622,9.6508,-6.8966,-2.0612
-13.397,-2.7564,-9.7561,-9.8039,-9.8039,-8.065,-7.7295,-3.9675,1.877,-9.8039,-9.8039,-7.8431,-13.333,-11.492,-15.111,-5.8252,-15.395,-9.7608,7.746,-9.8522,-1.095
-13.397,-5.641,-9.7561,-7.8431,-8.8235,-10.992,-9.6618,-0.06504,-0.06472,-7.8431,-8.8235,-9.8039,-11.429,-9.5873,-14.159,-5.8252,-14.428,-10.718,6.7937,-7.8818,1.8035
-9.6051,-5.641,-6.8293,-8.8235,-12.745,-11.967,-9.6618,-3.9675,-4.9191,-8.8235,-12.745,-9.8039,-7.619,-4.8254,-9.3968,-2.9126,-9.5974,-4.0191,3.9365,-1.9704,4.7021
-7.7093,-7.5641,-6.8293,-12.745,-15.686,-14.894,-11.594,-9.8211,-8.8026,-12.745,-15.686,-11.765,-2.8571,-1.0159,-4.6349,-0.97087,-5.7327,-2.1053,-2.7302,2.9557,4.7021
-0.12638,-4.6795,-0.97561,-12.745,-11.765,-7.0894,-7.7295,-4.9431,-6.8608,-12.745,-11.765,-5.8824,5.7143,4.6984,4.8889,3.8835,2.963,2.6794,-6.5397,12.808,7.6006
5.5608,0.12821,5.8537,-10.784,-9.8039,-2.2114,-1.9324,-2.9919,-10.744,-10.784,-9.8039,0.98039,12.381,8.5079,12.508,5.8252,8.7601,6.5072,-9.3968,20.690001,8.5668
11.248,3.9744,12.683,0.0,0.98039,-1.2358,0.96618,-1.0407,-7.8317,0.0,0.98039,3.9216,15.238,10.413,17.27,7.767,12.625,7.4641,-4.6349,20.690001,10.499
9.3523,5.8974,12.683,2.9412,2.9412,-1.2358,1.9324,-1.0407,-1.0356,2.9412,2.9412,2.9412,11.429,9.4603,16.316999,8.7379,13.591,4.5933,1.0794,16.749001,10.499
4.613,5.8974,9.7561,-8.8235,-2.9412,-0.26016,1.9324,-8.8455,-0.06472,-8.8235,-2.9412,0.98039,6.6667,5.6508,10.603,7.767,8.7601,2.6794,5.8413,9.8522,8.5668
4.613,6.859,9.7561,-5.8824,-5.8824,1.6911,3.8647,-4.9431,-1.0356,-5.8824,-5.8824,1.9608,3.8095,3.746,8.6984,6.7961,6.8277,0.76555,8.6984,7.8818,5.6683
10.3,8.7821,14.634,9.8039,8.8235,7.5447,8.6957,4.813,3.8188,9.8039,8.8235,8.8235,3.8095,1.8413,11.556,6.7961,8.7601,6.5072,7.746,8.867,3.7359
14.092,8.7821,12.683,13.725,9.8039,13.398,8.6957,11.642,4.7896,13.725,9.8039,10.784,2.8571,1.8413,12.508,5.8252,9.7262,11.292,2.0317,7.8818,0.83736
17.882999,6.859,13.659,14.706,8.8235,18.275999,11.594,16.52,3.8188,14.706,8.8235,13.725,4.7619,0.88889,13.46,4.8544,11.659,15.12,2.0317,5.9113,-1.095
15.039,5.8974,11.707,11.765,8.8235,19.252001,9.6618,16.52,3.8188,11.765,8.8235,13.725,1.9048,-0.06349,10.603,1.9417,9.7262,15.12,2.0317,3.9409,-3.9936
8.4044,0.12821,4.878,11.765,10.784,14.374,1.9324,12.618,2.8479,11.765,10.784,6.8627,-3.8095,-1.0159,0.12698,-1.9417,3.9291,10.335,0.12698,-5.9113,-5.9259
2.7172,-3.7179,1.9512,12.745,5.8824,8.5203,-1.9324,13.593,2.8479,12.745,5.8824,1.9608,-3.8095,-1.9683,-4.6349,-3.8835,-0.90177,5.5502,-3.6825,-10.837,-6.8921
0.82148,-4.6795,0.97561,6.8627,0.98039,5.5935,-1.9324,9.6911,1.877,6.8627,0.98039,0.0,-2.8571,-2.9206,-4.6349,-3.8835,-2.8341,4.5933,-0.8254,-6.8966,-5.9259
-1.0742,-6.6026,-3.9024,3.9216,-1.9608,1.6911,-4.8309,5.7886,-2.0065,3.9216,-1.9608,-3.9216,-5.7143,-6.7302,-8.4444,-6.7961,-7.6651,0.76555,2.0317,-8.867,-5.9259
-4.8657,-8.5256,-10.732,0.0,-1.9608,-1.2358,-7.7295,4.813,-1.0356,0.0,-1.9608,-6.8627,-11.429,-9.5873,-13.206,-8.7379,-12.496,-2.1053,-1.7778,-10.837,-4.9597
-11.501,-10.449,-19.511999,-4.902,-1.9608,-5.1382,-10.628,-0.06504,-1.0356,-4.902,-1.9608,-10.784,-12.381,-9.5873,-17.016001,-8.7379,-15.395,-3.0622,-0.8254,-10.837,-3.0274
-16.24,-10.449,-24.389999,-11.765,-4.902,-11.967,-12.56,-8.8455,-1.0356,-11.765,-4.902,-14.706,-9.5238,-5.7778,-18.921,-4.8544,-14.428,-8.8038,1.0794,-8.867,1.8035
-17.188,-5.641,-21.462999,-13.725,-9.8039,-15.87,-11.594,-14.699,-3.9482,-13.725,-9.8039,-15.686,-5.7143,-1.0159,-17.016001,0.0,-12.496,-7.8469,1.0794,-7.8818,6.6345
-16.24,-2.7564,-15.61,-3.9216,-5.8824,-14.894,-9.6618,-6.8943,-1.0356,-3.9216,-5.8824,-12.745,-1.9048,2.7937,-12.254,1.9417,-8.6312,-4.9761,0.12698,-4.9261,7.6006
-15.292,-0.83333,-13.659,-0.98039,-0.98039,-13.919,-6.7633,-3.9675,0.90615,-0.98039,-0.98039,-9.8039,-1.9048,3.746,-11.302,3.8835,-7.6651,-6.89,-0.8254,-3.9409,7.6006
-15.292,1.0897,-13.659,-6.8627,-4.902,-12.943,-4.8309,-6.8943,-1.0356,-6.8627,-4.902,-8.8235,0.0,4.6984,-10.349,4.8544,-6.6989,-4.9761,-1.7778,0.98522,8.5668
-14.344,-0.83333,-16.584999,-8.8235,-5.8824,-13.919,-4.8309,-5.9187,-3.9482,-8.8235,-5.8824,-9.8039,0.95238,2.7937,-8.4444,2.9126,-6.6989,-4.0191,-0.8254,3.9409,5.6683
-12.449,-1.7949,-16.584999,-8.8235,-8.8235,-12.943,-5.7971,-4.9431,-7.8317,-8.8235,-8.8235,-10.784,2.8571,1.8413,-5.5873,0.0,-5.7327,-0.19139,-0.8254,4.9261,3.7359
-8.6572,-4.6795,-12.683,-5.8824,-4.902,-9.0407,-3.8647,-3.9675,-7.8317,-5.8824,-4.902,-6.8627,2.8571,-1.0159,-3.6825,-3.8835,-6.6989,4.5933,0.12698,5.9113,-0.12882
-5.8136,-5.641,-7.8049,-0.98039,0.98039,-6.1138,-3.8647,-0.06504,-2.0065,-0.98039,0.98039,-3.9216,1.9048,-2.9206,-2.7302,-6.7961,-6.6989,3.6364,-2.7302,4.9261,-3.9936
-2.97,-3.7179,-2.9268,5.8824,4.902,-4.1626,0.96618,5.7886,-0.06472,5.8824,4.902,0.0,0.0,-4.8254,0.12698,-5.8252,-4.7665,4.5933,-2.7302,4.9261,-4.9597
-0.12638,-4.6795,-2.9268,4.902,1.9608,-1.2358,-1.9324,7.7398,-0.06472,4.902,1.9608,-0.98039,-2.8571,-7.6825,0.12698,-6.7961,-4.7665,6.5072,-0.8254,1.9704,-8.8245
3.6651,-5.641,-0.97561,8.8235,0.0,4.6179,-1.9324,9.6911,-2.0065,8.8235,0.0,0.98039,-2.8571,-5.7778,2.9841,-4.8544,0.06441,5.5502,-2.7302,0.98522,-7.8583
6.5087,-3.7179,2.9268,9.8039,3.9216,7.5447,0.0,11.642,-2.9773,9.8039,3.9216,2.9412,-1.9048,-4.8254,5.8413,-1.9417,3.9291,8.4211,-5.5873,3.9409,-6.8921
3.6651,-3.7179,4.878,7.8431,9.8039,6.5691,0.96618,10.667,-2.0065,7.8431,9.8039,3.9216,-3.8095,-5.7778,2.9841,-2.9126,4.8953,8.4211,-4.6349,0.0,-8.8245
0.82148,-4.6795,4.878,6.8627,2.9412,4.6179,0.0,7.7398,-3.9482,6.8627,2.9412,1.9608,-2.8571,-2.9206,0.12698,-1.9417,3.9291,1.7225,-1.7778,-4.9261,-7.8583
1.7694,-0.83333,6.8293,6.8627,-1.9608,6.5691,0.96618,5.7886,-3.9482,6.8627,-1.9608,3.9216,1.9048,1.8413,0.12698,2.9126,6.8277,0.76555,-2.7302,-5.9113,-3.9936
2.7172,3.9744,7.8049,6.8627,1.9608,6.5691,3.8647,1.8862,-4.9191,6.8627,1.9608,4.902,0.95238,2.7937,0.12698,5.8252,8.7601,-4.9761,-1.7778,-6.8966,-1.095
3.6651,7.8205,8.7805,6.8627,3.9216,4.6179,3.8647,-2.0163,-1.0356,6.8627,3.9216,5.8824,2.8571,2.7937,0.12698,7.767,9.7262,-6.89,2.0317,-7.8818,1.8035
3.6651,7.8205,10.732,4.902,4.902,3.6423,3.8647,-2.9919,1.877,4.902,4.902,5.8824,6.6667,5.6508,0.12698,8.7379,12.625,-6.89,1.0794,-7.8818,3.7359
2.7172,7.8205,10.732,-1.9608,1.9608,1.6911,2.8986,-3.9675,-2.0065,-1.9608,1.9608,3.9216,10.476,10.413,1.0794,10.68,15.523,-7.8469,0.12698,-7.8818,3.7359
0.82148,7.8205,11.707,-3.9216,0.0,-0.26016,3.8647,-6.8943,-6.8608,-3.9216,0.0,2.9412,15.238,14.222,2.0317,12.621,17.455999,-4.0191,2.9841,-3.9409,5.6683
-1.0742,6.859,8.7805,-5.8824,-6.8627,-0.26016,2.8986,-6.8943,-2.9773,-5.8824,-6.8627,0.98039,13.333,14.222,2.0317,11.65,14.557,-4.0191,2.0317,-2.9557,5.6683
0.82148,4.9359,5.8537,-0.98039,0.0,1.6911,2.8986,-0.06504,-2.0065,-0.98039,0.0,2.9412,11.429,11.365,2.0317,8.7379,10.692,-0.19139,-1.7778,-0.98522,5.6683
2.7172,2.0513,3.9024,0.98039,3.9216,4.6179,0.96618,2.8618,-2.9773,0.98039,3.9216,2.9412,11.429,10.413,3.9365,6.7961,7.7939,2.6794,-3.6825,0.98522,4.7021
6.5087,1.0897,4.878,4.902,0.0,5.5935,0.96618,2.8618,-5.89,4.902,0.0,2.9412,10.476,10.413,7.746,5.8252,6.8277,4.5933,-8.4444,4.9261,5.6683
5.5608,0.12821,5.8537,-0.98039,-2.9412,3.6423,-3.8647,2.8618,-7.8317,-0.98039,-2.9412,0.0,9.5238,8.5079,9.6508,4.8544,5.8615,7.4641,-7.4921,6.8966,2.7697
7.4566,2.0513,7.8049,-2.9412,-0.98039,4.6179,-0.96618,5.7886,-2.9773,-2.9412,-0.98039,0.98039,7.619,7.5556,11.556,6.7961,6.8277,7.4641,-2.7302,9.8522,3.7359
4.613,-1.7949,1.9512,-0.98039,-3.9216,3.6423,-1.9324,5.7886,-0.06472,-0.98039,-3.9216,0.0,2.8571,0.88889,8.6984,1.9417,1.9968,5.5502,0.12698,8.867,-1.095
1.7694,-5.641,-2.9268,0.0,-0.98039,1.6911,-3.8647,3.8374,0.90615,0.0,-0.98039,-1.9608,-1.9048,-4.8254,5.8413,-3.8835,-2.8341,6.5072,-2.7302,8.867,-5.9259
-1.0742,-6.6026,-2.9268,-2.9412,-1.9608,-2.2114,-4.8309,-1.0407,-2.0065,-2.9412,-1.9608,-4.902,-3.8095,-7.6825,2.0317,-5.8252,-5.7327,3.6364,-5.5873,4.9261,-6.8921
-1.0742,-4.6795,-0.97561,-0.98039,-3.9216,-0.26016,-2.8986,0.91057,-2.9773,-0.98039,-3.9216,-2.9412,-3.8095,-7.6825,-0.8254,-4.8544,-5.7327,6.5072,-4.6349,2.9557,-5.9259
-1.0742,-1.7949,-0.97561,1.9608,-3.9216,0.71545,0.96618,5.7886,-2.9773,1.9608,-3.9216,0.0,-5.7143,-5.7778,-1.7778,-1.9417,-3.8003,7.4641,-1.7778,0.0,-3.9936
-1.0742,2.0513,-0.97561,2.9412,2.9412,1.6911,3.8647,5.7886,0.90615,2.9412,2.9412,2.9412,-5.7143,-3.873,-3.6825,0.0,-1.868,3.6364,-0.8254,-6.8966,-3.0274
-2.0221,2.0513,-0.97561,5.8824,7.8431,2.6667,5.7971,4.813,6.7314,5.8824,7.8431,5.8824,-4.7619,-2.9206,-7.4921,-0.97087,-2.8341,0.76555,0.12698,-11.823,-2.0612
-2.0221,3.0128,0.0,6.8627,6.8627,3.6423,6.7633,1.8862,7.7023,6.8627,6.8627,6.8627,-1.9048,-0.06349,-7.4921,0.0,-0.90177,-0.19139,2.9841,-9.8522,1.8035
-1.0742,3.9744,2.9268,0.98039,1.9608,0.71545,4.8309,-3.9675,1.877,0.98039,1.9608,3.9216,-0.95238,-0.06349,-6.5397,1.9417,1.0306,-4.0191,2.9841,-9.8522,3.7359
-4.8657,3.9744,0.0,-3.9216,-4.902,-4.1626,2.8986,-4.9431,-2.0065,-3.9216,-4.902,0.0,0.0,2.7937,-5.5873,4.8544,2.963,-4.9761,4.8889,-9.8522,6.6345
-6.7615,3.9744,-1.9512,-6.8627,-4.902,-5.1382,1.9324,-4.9431,0.90615,-6.8627,-4.902,-0.98039,-1.9048,3.746,-5.5873,6.7961,2.963,-5.933,8.6984,-9.8522,7.6006
-4.8657,3.9744,0.0,-7.8431,1.9608,-2.2114,2.8986,-9.8211,2.8479,-7.8431,1.9608,0.98039,0.95238,5.6508,-2.7302,6.7961,3.9291,-8.8038,7.746,-7.8818,7.6006
-1.0742,4.9359,3.9024,-5.8824,4.902,-0.26016,7.7295,-11.772,1.877,-5.8824,4.902,2.9412,3.8095,6.6032,1.0794,6.7961,3.9291,-5.933,3.9365,-3.9409,9.533
0.82148,5.8974,5.8537,-0.98039,2.9412,0.71545,7.7295,-8.8455,4.7896,-0.98039,2.9412,3.9216,4.7619,7.5556,2.9841,5.8252,3.9291,-4.0191,0.12698,0.0,8.5668
2.7172,7.8205,6.8293,1.9608,0.98039,5.5935,9.6618,-2.0163,0.90615,1.9608,0.98039,6.8627,2.8571,8.5079,4.8889,8.7379,6.8277,-3.0622,2.0317,2.9557,8.5668
1.7694,6.859,4.878,0.0,0.0,4.6179,6.7633,-0.06504,-1.0356,0.0,0.0,4.902,1.9048,6.6032,4.8889,7.767,6.8277,-2.1053,2.0317,2.9557,3.7359
3.6651,5.8974,5.8537,1.9608,2.9412,4.6179,4.8309,-0.06504,3.8188,1.9608,2.9412,4.902,1.9048,4.6984,3.9365,5.8252,6.8277,2.6794,2.0317,1.9704,-0.12882
7.4566,8.7821,9.7561,5.8824,1.9608,8.5203,6.7633,5.7886,3.8188,5.8824,1.9608,7.8431,2.8571,6.6032,6.7937,7.767,10.692,4.5933,2.0317,1.9704,0.83736
8.4044,6.859,8.7805,4.902,-0.98039,8.5203,4.8309,7.7398,-0.06472,4.902,-0.98039,5.8824,5.7143,7.5556,7.746,5.8252,12.625,5.5502,2.0317,0.98522,-0.12882
8.4044,5.8974,7.8049,1.9608,-4.902,8.5203,5.7971,6.7642,-3.9482,1.9608,-4.902,3.9216,6.6667,6.6032,8.6984,3.8835,10.692,7.4641,0.12698,1.9704,-2.0612
9.3523,6.859,8.7805,6.8627,2.9412,10.472,8.6957,7.7398,-0.06472,6.8627,2.9412,7.8431,5.7143,5.6508,7.746,3.8835,8.7601,5.5502,0.12698,2.9557,-1.095
10.3,7.8205,10.732,12.745,10.784,9.4959,8.6957,7.7398,5.7605,12.745,10.784,10.784,3.8095,4.6984,6.7937,4.8544,5.8615,2.6794,2.0317,0.0,0.83736
7.4566,5.8974,8.7805,9.8039,7.8431,5.5935,8.6957,1.8862,6.7314,9.8039,7.8431,9.8039,1.9048,2.7937,4.8889,3.8835,2.963,-1.1483,4.8889,-0.98522,1.8035
4.613,4.9359,7.8049,2.9412,4.902,4.6179,10.628,-4.9431,3.8188,2.9412,4.902,9.8039,1.9048,1.8413,3.9365,2.9126,1.0306,-4.0191,3.9365,0.98522,2.7697
2.7172,3.9744,5.8537,0.0,1.9608,2.6667,7.7295,-8.8455,1.877,0.0,1.9608,6.8627,-0.95238,0.88889,3.9365,1.9417,-0.90177,-4.9761,2.0317,2.9557,3.7359
2.7172,3.0128,3.9024,-3.9216,3.9216,0.71545,5.7971,-11.772,1.877,-3.9216,3.9216,5.8824,-0.95238,-0.06349,3.9365,0.97087,-2.8341,-4.0191,4.8889,0.98522,2.7697
4.613,3.9744,3.9024,-3.9216,0.98039,-0.26016,3.8647,-10.797,3.8188,-3.9216,0.98039,3.9216,3.8095,0.88889,6.7937,1.9417,-1.868,-6.89,3.9365,0.98522,2.7697
6.5087,5.8974,6.8293,-2.9412,1.9608,-1.2358,3.8647,-10.797,3.8188,-2.9412,1.9608,3.9216,1.9048,1.8413,7.746,2.9126,0.06441,-6.89,3.9365,4.9261,4.7021
4.613,5.8974,5.8537,-4.902,-1.9608,-2.2114,2.8986,-10.797,3.8188,-4.902,-1.9608,2.9412,0.0,0.88889,6.7937,2.9126,0.06441,-5.933,3.9365,1.9704,5.6683
0.82148,3.0128,2.9268,-5.8824,1.9608,-3.187,1.9324,-11.772,3.8188,-5.8824,1.9608,0.98039,1.9048,-1.0159,4.8889,0.97087,-0.90177,-4.9761,4.8889,0.98522,3.7359
2.7172,3.0128,2.9268,-5.8824,0.98039,-3.187,1.9324,-12.748,-0.06472,-5.8824,0.98039,0.0,2.8571,-1.0159,5.8413,0.97087,0.06441,-2.1053,4.8889,0.0,2.7697
6.5087,5.8974,4.878,-1.9608,2.9412,0.71545,4.8309,-2.0163,2.8479,-1.9608,2.9412,2.9412,0.0,-1.0159,5.8413,2.9126,1.0306,1.7225,2.9841,-12.808,3.7359
6.5087,1.0897,1.9512,0.98039,1.9608,5.5935,0.0,4.813,1.877,0.98039,1.9608,2.9412,0.0,-2.9206,2.0317,-0.97087,-0.90177,1.7225,-0.8254,-9.8522,-0.12882
2.7172,-2.7564,-1.9512,5.8824,1.9608,3.6423,-3.8647,7.7398,-2.9773,5.8824,1.9608,0.0,-1.9048,-4.8254,-1.7778,-4.8544,-4.7665,5.5502,-6.5397,0.0,-3.0274
-0.12638,-7.5641,-5.8537,1.9608,-1.9608,2.6667,-6.7633,8.7154,-5.89,1.9608,-1.9608,-2.9412,-5.7143,-7.6825,-3.6825,-8.7379,-7.6651,6.5072,-5.5873,0.0,-4.9597
0.82148,-8.5256,-5.8537,-0.98039,-4.902,2.6667,-5.7971,7.7398,-7.8317,-0.98039,-4.902,-3.9216,-6.6667,-8.6349,-3.6825,-10.68,-9.5974,6.5072,-5.5873,3.9409,-6.8921
1.7694,-8.5256,-4.878,2.9412,-7.8431,2.6667,-2.8986,6.7642,-5.89,2.9412,-7.8431,-1.9608,-5.7143,-7.6825,-2.7302,-8.7379,-9.5974,7.4641,-4.6349,0.98522,-3.9936
-0.12638,-8.5256,-6.8293,2.9412,-2.9412,0.71545,-6.7633,8.7154,-5.89,2.9412,-2.9412,-3.9216,-6.6667,-7.6825,-1.7778,-7.767,-8.6312,5.5502,-4.6349,2.9557,-3.9936
-2.0221,-9.4872,-8.7805,2.9412,0.98039,-1.2358,-9.6618,10.667,-4.9191,2.9412,0.98039,-6.8627,-4.7619,-7.6825,-0.8254,-7.767,-7.6651,6.5072,-6.5397,3.9409,-6.8921
-2.97,-9.4872,-8.7805,-2.9412,-3.9216,-1.2358,-7.7295,7.7398,-7.8317,-2.9412,-3.9216,-6.8627,-4.7619,-8.6349,-1.7778,-9.7087,-8.6312,3.6364,-7.4921,0.0,-8.8245
-2.97,-7.5641,-5.8537,0.98039,0.98039,0.71545,-3.8647,7.7398,-2.0065,0.98039,0.98039,-1.9608,-4.7619,-9.5873,-5.5873,-9.7087,-9.5974,2.6794,-5.5873,-1.9704,-7.8583
-3.9179,-7.5641,-5.8537,4.902,0.98039,0.71545,-4.8309,9.6911,1.877,4.902,0.98039,-1.9608,-5.7143,-8.6349,-7.4921,-8.7379,-9.5974,-0.19139,-4.6349,0.0,-4.9597
-2.0221,-9.4872,-5.8537,1.9608,-5.8824,-0.26016,-7.7295,5.7886,-3.9482,1.9608,-5.8824,-3.9216,-7.619,-6.7302,-6.5397,-6.7961,-8.6312,1.7225,-3.6825,-1.9704,-2.0612
-2.97,-10.449,-8.7805,-3.9216,-6.8627,-2.2114,-9.6618,-0.06504,-9.7735,-3.9216,-6.8627,-6.8627,-5.7143,-3.873,-6.5397,-5.8252,-8.6312,0.76555,-6.5397,0.0,-1.095
-4.8657,-11.41,-10.732,-9.8039,-6.8627,-4.1626,-6.7633,-2.9919,-9.7735,-9.8039,-6.8627,-6.8627,-5.7143,-3.873,-8.4444,-7.767,-9.5974,-4.0191,-1.7778,0.98522,-1.095
-8.6572,-10.449,-10.732,-5.8824,0.0,-7.0894,-6.7633,-2.0163,-0.06472,-5.8824,0.0,-7.8431,-2.8571,-0.06349,-9.3968,-6.7961,-10.564,-7.8469,-0.8254,0.98522,1.8035
-10.553,-8.5256,-9.7561,-3.9216,3.9216,-11.967,-7.7295,-6.8943,0.90615,-3.9216,3.9216,-9.8039,-0.95238,2.7937,-10.349,-2.9126,-8.6312,-8.8038,-1.7778,1.9704,6.6345
-11.501,-3.7179,-7.8049,-7.8431,-5.8824,-11.967,-7.7295,-9.8211,-2.9773,-7.8431,-5.8824,-8.8235,0.95238,4.6984,-10.349,0.97087,-5.7327,-10.718,0.12698,0.0,7.6006
-8.6572,2.0513,-4.878,-5.8824,-5.8824,-7.0894,-1.9324,-9.8211,-0.06472,-5.8824,-5.8824,-5.8824,6.6667,9.4603,-7.4921,5.8252,-0.90177,-7.8469,3.9365,1.9704,9.533
-6.7615,5.8974,-2.9268,-4.902,-3.9216,-5.1382,0.96618,-6.8943,-2.0065,-4.902,-3.9216,-3.9216,7.619,9.4603,-4.6349,5.8252,1.0306,-4.0191,2.0317,-1.9704,7.6006
-2.97,2.0513,-0.97561,-5.8824,0.98039,-3.187,0.96618,-4.9431,0.90615,-5.8824,0.98039,-1.9608,8.5714,8.5079,-2.7302,1.9417,0.06441,-3.0622,1.0794,0.0,4.7021
-1.0742,-0.83333,0.97561,-2.9412,6.8627,-1.2358,0.96618,-1.0407,4.7896,-2.9412,6.8627,0.0,7.619,8.5079,-1.7778,0.97087,1.0306,-2.1053,1.0794,1.9704,3.7359
-0.12638,2.0513,3.9024,-0.98039,2.9412,-2.2114,4.8309,-1.0407,3.8188,-0.98039,2.9412,1.9608,4.7619,6.6032,0.12698,2.9126,2.963,-1.1483,2.0317,1.9704,3.7359
-0.12638,2.0513,1.9512,-1.9608,-4.902,-1.2358,6.7633,-0.06504,0.90615,-1.9608,-4.902,1.9608,2.8571,4.6984,0.12698,1.9417,1.9968,-0.19139,2.9841,0.98522,2.7697
-1.0742,-3.7179,-5.8537,-1.9608,-1.9608,0.71545,0.96618,0.91057,-0.06472,-1.9608,-1.9608,-0.98039,0.0,0.88889,-1.7778,-2.9126,-2.8341,2.6794,-0.8254,0.98522,-1.095
-0.12638,-7.5641,-7.8049,0.0,7.8431,0.71545,-2.8986,6.7642,3.8188,0.0,7.8431,-1.9608,0.0,0.88889,-0.8254,-4.8544,-3.8003,6.5072,-0.8254,5.9113,-3.9936
-2.0221,-9.4872,-8.7805,-0.98039,4.902,-2.2114,-5.7971,6.7642,1.877,-0.98039,4.902,-3.9216,-1.9048,0.88889,0.12698,-6.7961,-4.7665,6.5072,-4.6349,3.9409,-4.9597
-1.0742,-7.5641,-4.878,0.98039,-0.98039,-2.2114,-1.9324,4.813,-2.0065,0.98039,-0.98039,-1.9608,-2.8571,-1.0159,0.12698,-6.7961,-4.7665,5.5502,-3.6825,3.9409,-4.9597
-1.0742,-3.7179,-2.9268,1.9608,-6.8627,-1.2358,1.9324,2.8618,-2.0065,1.9608,-6.8627,0.0,-1.9048,-1.9683,-0.8254,-6.7961,-4.7665,-0.19139,-1.7778,4.9261,-5.9259
-0.12638,-0.83333,-1.9512,2.9412,1.9608,1.6911,1.9324,0.91057,1.877,2.9412,1.9608,1.9608,-1.9048,-1.0159,-1.7778,-2.9126,-2.8341,0.76555,0.12698,3.9409,-2.0612
0.82148,2.0513,0.0,-0.98039,4.902,2.6667,0.0,4.813,2.8479,-0.98039,4.902,0.98039,-2.8571,-0.06349,-0.8254,0.0,-0.90177,5.5502,1.0794,3.9409,0.83736
0.82148,2.0513,0.97561,-3.9216,0.98039,-0.26016,0.96618,3.8374,-0.06472,-3.9216,0.98039,0.0,-2.8571,-0.06349,0.12698,0.0,-0.90177,3.6364,2.9841,0.98522,1.8035
1.7694,3.0128,1.9512,-3.9216,-4.902,-2.2114,-0.96618,-2.9919,-1.0356,-3.9216,-4.902,-1.9608,0.0,1.8413,2.9841,1.9417,1.0306,-0.19139,2.9841,2.9557,3.7359
3.6651,3.9744,2.9268,-8.8235,-10.784,-3.187,-0.96618,-10.797,-2.9773,-8.8235,-10.784,-3.9216,0.0,2.7937,4.8889,4.8544,2.963,-1.1483,2.9841,4.9261,4.7021
1.7694,3.9744,1.9512,-12.745,-7.8431,-5.1382,-2.8986,-7.8699,-3.9482,-12.745,-7.8431,-3.9216,0.0,3.746,4.8889,5.8252,2.963,-2.1053,1.0794,1.9704,5.6683
-0.12638,2.0513,-0.97561,-2.9412,1.9608,-7.0894,-2.8986,-3.9675,0.90615,-2.9412,1.9608,-3.9216,2.8571,5.6508,3.9365,5.8252,3.9291,-1.1483,1.0794,-1.9704,6.6345
-0.12638,3.0128,-0.97561,-0.98039,1.9608,-5.1382,-1.9324,-5.9187,2.8479,-0.98039,1.9608,-3.9216,6.6667,8.5079,3.9365,7.767,5.8615,-2.1053,2.9841,0.98522,7.6006
0.82148,4.9359,0.97561,-4.902,-3.9216,-2.2114,0.0,-9.8211,-2.9773,-4.902,-3.9216,-3.9216,5.7143,7.5556,4.8889,8.7379,6.8277,-1.1483,0.12698,5.9113,7.6006
3.6651,4.9359,4.878,-4.902,-4.902,-0.26016,0.96618,-6.8943,-2.0065,-4.902,-4.902,-0.98039,5.7143,6.6032,7.746,8.7379,8.7601,-0.19139,-0.8254,8.867,6.6345
6.5087,5.8974,6.8293,2.9412,2.9412,0.71545,1.9324,-0.06504,2.8479,2.9412,2.9412,1.9608,5.7143,6.6032,12.508,10.68,11.659,2.6794,3.9365,10.837,4.7021
6.5087,5.8974,4.878,4.902,3.9216,-0.26016,1.9324,-1.0407,4.7896,4.902,3.9216,0.98039,4.7619,3.746,12.508,8.7379,10.692,0.76555,4.8889,10.837,1.8035
6.5087,3.9744,4.878,-2.9412,-1.9608,0.71545,2.8986,-4.9431,2.8479,-2.9412,-1.9608,0.98039,2.8571,1.8413,11.556,5.8252,9.7262,-0.19139,3.9365,11.823,-1.095
7.4566,3.0128,5.8537,-0.98039,1.9608,1.6911,2.8986,-1.0407,0.90615,-0.98039,1.9608,2.9412,3.8095,2.7937,11.556,3.8835,8.7601,7.4641,3.9365,8.867,-1.095
6.5087,5.8974,6.8293,2.9412,0.98039,2.6667,3.8647,1.8862,2.8479,2.9412,0.98039,3.9216,7.619,4.6984,11.556,5.8252,10.692,8.4211,2.0317,9.8522,-0.12882
5.5608,5.8974,7.8049,4.902,6.8627,3.6423,2.8986,6.7642,1.877,4.902,6.8627,4.902,6.6667,4.6984,8.6984,5.8252,10.692,7.4641,0.12698,10.837,-1.095
4.613,4.9359,7.8049,1.9608,0.98039,5.5935,0.0,7.7398,-2.0065,1.9608,0.98039,3.9216,4.7619,4.6984,5.8413,3.8835,7.7939,3.6364,-4.6349,8.867,-2.0612
5.5608,3.9744,8.7805,4.902,-1.9608,7.5447,1.9324,6.7642,-3.9482,4.902,-1.9608,5.8824,4.7619,5.6508,5.8413,4.8544,7.7939,4.5933,-0.8254,7.8818,1.8035
0.82148,3.0128,4.878,3.9216,0.98039,2.6667,0.96618,3.8374,-0.06472,3.9216,0.98039,3.9216,1.9048,4.6984,2.0317,3.8835,5.8615,-4.0191,0.12698,0.98522,3.7359
-0.12638,3.9744,4.878,0.0,0.98039,1.6911,3.8647,-0.06504,1.877,0.0,0.98039,3.9216,0.95238,4.6984,1.0794,3.8835,5.8615,-5.933,2.0317,-1.9704,4.7021
-1.0742,3.0128,4.878,-0.98039,0.98039,-1.2358,1.9324,-3.9675,-0.06472,-0.98039,0.98039,1.9608,0.0,1.8413,0.12698,2.9126,3.9291,-4.0191,2.0317,-0.98522,4.7021
-1.0742,3.0128,4.878,-1.9608,-1.9608,-3.187,0.0,-4.9431,-1.0356,-1.9608,-1.9608,0.0,-0.95238,0.88889,1.0794,3.8835,4.8953,-3.0622,0.12698,0.0,5.6683
1.7694,5.8974,6.8293,-5.8824,-3.9216,-3.187,0.0,-4.9431,-1.0356,-5.8824,-3.9216,0.0,0.95238,2.7937,3.9365,7.767,7.7939,-2.1053,3.9365,2.9557,9.533
-0.12638,5.8974,4.878,-3.9216,-1.9608,-2.2114,1.9324,-3.9675,-0.06472,-3.9216,-1.9608,0.98039,3.8095,3.746,3.9365,8.7379,7.7939,-4.0191,2.9841,5.9113,10.499
-0.12638,-0.83333,0.0,-2.9412,-3.9216,-1.2358,0.0,-4.9431,-0.06472,-2.9412,-3.9216,0.98039,1.9048,-0.06349,2.0317,1.9417,2.963,-3.0622,3.9365,4.9261,3.7359
0.82148,-3.7179,0.0,-0.98039,-0.98039,-0.26016,0.0,-2.9919,-0.06472,-0.98039,-0.98039,1.9608,0.95238,-2.9206,2.0317,-1.9417,1.0306,0.76555,2.9841,4.9261,0.83736
0.82148,-0.83333,1.9512,1.9608,1.9608,0.71545,0.96618,0.91057,-1.0356,1.9608,1.9608,2.9412,-1.9048,-4.8254,0.12698,-1.9417,-0.90177,3.6364,1.0794,3.9409,-0.12882
-1.0742,1.0897,1.9512,-0.98039,1.9608,1.6911,1.9324,3.8374,1.877,-0.98039,1.9608,2.9412,-2.8571,-4.8254,-0.8254,-0.97087,-0.90177,2.6794,3.9365,0.98522,-3.0274
-1.0742,4.9359,1.9512,2.9412,0.98039,2.6667,5.7971,1.8862,2.8479,2.9412,0.98039,3.9216,-1.9048,-3.873,-0.8254,0.0,0.06441,-0.19139,5.8413,0.0,-3.0274
-1.0742,5.8974,-0.97561,6.8627,3.9216,4.6179,7.7295,3.8374,5.7605,6.8627,3.9216,4.902,-1.9048,-3.873,-2.7302,0.0,-0.90177,2.6794,4.8889,0.98522,-3.9936
-1.0742,1.0897,-3.9024,0.98039,0.0,4.6179,3.8647,0.91057,2.8479,0.98039,0.0,3.9216,-2.8571,-6.7302,-3.6825,-3.8835,-3.8003,1.7225,-0.8254,0.0,-7.8583
-1.0742,-1.7949,-2.9268,5.8824,-0.98039,4.6179,0.0,2.8618,1.877,5.8824,-0.98039,2.9412,-0.95238,-9.5873,-3.6825,-8.7379,-6.6989,3.6364,-0.8254,0.98522,-11.723
-1.0742,-2.7564,0.0,8.8235,4.902,2.6667,2.8986,3.8374,3.8188,8.8235,4.902,4.902,0.0,-7.6825,-4.6349,-9.7087,-6.6989,0.76555,-1.7778,0.98522,-10.757
-2.0221,-3.7179,-0.97561,4.902,4.902,2.6667,0.0,5.7886,-2.0065,4.902,4.902,2.9412,1.9048,-4.8254,-4.6349,-7.767,-5.7327,-0.19139,-2.7302,1.9704,-7.8583
-2.0221,-3.7179,-3.9024,3.9216,0.0,-0.26016,0.0,2.8618,-2.0065,3.9216,0.0,0.98039,3.8095,-1.9683,-2.7302,-6.7961,-5.7327,1.7225,-2.7302,2.9557,-6.8921
-4.8657,-3.7179,-6.8293,-3.9216,-5.8824,-2.2114,-2.8986,-1.0407,0.90615,-3.9216,-5.8824,-1.9608,2.8571,-1.9683,-5.5873,-6.7961,-7.6651,0.76555,-3.6825,-0.98522,-5.9259
-4.8657,-1.7949,-2.9268,-6.8627,-0.98039,-0.26016,-3.8647,-2.9919,-1.0356,-6.8627,-0.98039,-0.98039,0.95238,-1.0159,-7.4921,-3.8835,-6.6989,-2.1053,-5.5873,-5.9113,-3.0274
-3.9179,-3.7179,0.97561,-1.9608,0.0,-1.2358,-5.7971,-3.9675,-2.9773,-1.9608,0.0,-1.9608,1.9048,0.88889,-4.6349,-2.9126,-3.8003,-3.0622,-2.7302,-5.9113,-1.095
1.7694,-1.7949,7.8049,4.902,-1.9608,-0.26016,-3.8647,0.91057,-2.9773,4.902,-1.9608,0.98039,3.8095,2.7937,1.0794,1.9417,1.9968,-2.1053,1.0794,-2.9557,1.8035
3.6651,-0.83333,5.8537,-2.9412,-4.902,3.6423,-3.8647,2.8618,-0.06472,-2.9412,-4.902,0.98039,5.7143,3.746,2.0317,2.9126,1.9968,-3.0622,0.12698,-0.98522,3.7359
1.7694,-2.7564,0.0,1.9608,0.0,0.71545,-3.8647,0.91057,0.90615,1.9608,0.0,-0.98039,3.8095,2.7937,1.0794,1.9417,1.0306,-4.0191,1.0794,0.98522,1.8035
0.82148,-2.7564,-3.9024,6.8627,3.9216,-2.2114,-3.8647,-1.0407,2.8479,6.8627,3.9216,-2.9412,1.9048,4.6984,2.0317,2.9126,1.9968,-1.1483,0.12698,0.0,2.7697
0.82148,-1.7949,-3.9024,0.0,2.9412,-3.187,-1.9324,-3.9675,0.90615,0.0,2.9412,-3.9216,1.9048,4.6984,2.0317,2.9126,1.9968,-3.0622,0.12698,0.0,3.7359
1.7694,-0.83333,0.97561,-4.902,-2.9412,-2.2114,-1.9324,-4.9431,1.877,-4.902,-2.9412,-2.9412,0.95238,0.88889,2.9841,0.97087,1.0306,-4.0191,-0.8254,0.98522,2.7697
6.5087,0.12821,5.8537,-1.9608,-2.9412,0.71545,-2.8986,-2.0163,0.90615,-1.9608,-2.9412,0.0,0.95238,-0.06349,6.7937,1.9417,3.9291,1.7225,1.0794,2.9557,1.8035
4.613,-0.83333,4.878,3.9216,1.9608,-0.26016,-1.9324,-0.06504,2.8479,3.9216,1.9608,-0.98039,-0.95238,-3.873,4.8889,0.0,2.963,1.7225,2.9841,3.9409,-1.095
-1.0742,-3.7179,0.97561,3.9216,3.9216,-1.2358,-0.96618,-0.06504,7.7023,3.9216,3.9216,-2.9412,-6.6667,-9.5873,-0.8254,-5.8252,-1.868,-0.19139,1.0794,-0.98522,-6.8921
0.82148,-5.641,0.0,3.9216,10.784,1.6911,1.9324,1.8862,10.615,3.9216,10.784,-0.98039,-5.7143,-10.54,-0.8254,-7.767,-0.90177,2.6794,-0.8254,-0.98522,-9.7907
-2.97,-7.5641,-4.878,-0.98039,5.8824,-0.26016,-0.96618,-0.06504,4.7896,-0.98039,5.8824,-2.9412,-4.7619,-11.492,-1.7778,-9.7087,-3.8003,0.76555,-3.6825,-2.9557,-11.723
-5.8136,-8.5256,-8.7805,0.98039,1.9608,-4.1626,-2.8986,-3.9675,3.8188,0.98039,1.9608,-3.9216,-4.7619,-9.5873,-3.6825,-9.7087,-5.7327,-0.19139,-5.5873,-3.9409,-10.757
-7.7093,-7.5641,-8.7805,1.9608,5.8824,-7.0894,-3.8647,-2.9919,3.8188,1.9608,5.8824,-4.902,-5.7143,-6.7302,-5.5873,-6.7961,-5.7327,-4.0191,-3.6825,-3.9409,-5.9259
-9.6051,-7.5641,-8.7805,3.9216,5.8824,-9.0407,-1.9324,-3.9675,6.7314,3.9216,5.8824,-4.902,-7.619,-5.7778,-8.4444,-5.8252,-7.6651,-6.89,-0.8254,-6.8966,-1.095
-11.501,-4.6795,-9.7561,-4.902,-1.9608,-8.065,-1.9324,-6.8943,2.8479,-4.902,-1.9608,-5.8824,-6.6667,-3.873,-10.349,-3.8835,-6.6989,-6.89,-1.7778,-9.8522,0.83736
-9.6051,-0.83333,-7.8049,-7.8431,1.9608,-4.1626,0.96618,-4.9431,-1.0356,-7.8431,1.9608,-2.9412,-5.7143,-4.8254,-10.349,-1.9417,-6.6989,-4.0191,0.12698,-7.8818,1.8035
-8.6572,-2.7564,-5.8537,3.9216,4.902,-5.1382,-3.8647,-0.06504,0.90615,3.9216,4.902,-4.902,-8.5714,-7.6825,-10.349,-2.9126,-7.6651,-5.933,-5.5873,-8.867,-1.095
-6.7615,-3.7179,-3.9024,6.8627,6.8627,-5.1382,-5.7971,1.8862,0.90615,6.8627,6.8627,-4.902,-8.5714,-6.7302,-6.5397,-1.9417,-4.7665,-2.1053,-5.5873,-7.8818,-2.0612
-1.0742,-2.7564,0.0,2.9412,-2.9412,0.71545,-1.9324,2.8618,-2.9773,2.9412,-2.9412,-1.9608,-5.7143,-3.873,-0.8254,-0.97087,-0.90177,1.7225,-2.7302,-4.9261,-1.095
2.7172,-1.7949,0.97561,-0.98039,-0.98039,4.6179,0.0,0.91057,-2.0065,-0.98039,-0.98039,0.98039,-4.7619,-3.873,-0.8254,-1.9417,-2.8341,1.7225,-4.6349,-2.9557,-2.0612
0.82148,0.12821,1.9512,-1.9608,1.9608,2.6667,0.0,0.91057,-2.0065,-1.9608,1.9608,0.98039,-1.9048,-1.9683,-2.7302,-0.97087,-3.8003,0.76555,-5.5873,-0.98522,-1.095
-0.12638,1.0897,2.9268,0.0,-1.9608,1.6911,-0.96618,-1.0407,-2.9773,0.0,-1.9608,0.0,0.95238,1.8413,-0.8254,1.9417,-0.90177,1.7225,-3.6825,-2.9557,0.83736
2.7172,3.0128,5.8537,-1.9608,-3.9216,0.71545,0.0,-2.0163,-3.9482,-1.9608,-3.9216,0.98039,4.7619,3.746,4.8889,4.8544,4.8953,3.6364,-1.7778,0.0,3.7359
7.4566,7.8205,8.7805,-0.98039,-1.9608,5.5935,5.7971,-0.06504,0.90615,-0.98039,-1.9608,5.8824,8.5714,4.6984,10.603,6.7961,9.7262,1.7225,-1.7778,3.9409,2.7697
9.3523,7.8205,8.7805,0.98039,2.9412,7.5447,9.6618,-0.06504,2.8479,0.98039,2.9412,8.8235,6.6667,1.8413,9.6508,4.8544,8.7601,2.6794,2.0317,2.9557,-1.095
6.5087,4.9359,5.8537,-1.9608,4.902,4.6179,6.7633,-1.0407,3.8188,-1.9608,4.902,6.8627,4.7619,3.746,8.6984,3.8835,7.7939,2.6794,3.9365,0.0,-1.095
2.7172,1.0897,1.9512,-5.8824,2.9412,2.6667,2.8986,-4.9431,-0.06472,-5.8824,2.9412,3.9216,5.7143,4.6984,3.9365,1.9417,4.8953,-3.0622,4.8889,-1.9704,-1.095
-1.0742,-0.83333,-0.97561,-1.9608,-3.9216,-1.2358,-0.96618,-6.8943,-1.0356,-1.9608,-3.9216,0.0,4.7619,4.6984,0.12698,0.97087,1.9968,-4.0191,3.9365,-6.8966,-2.0612
-2.97,0.12821,0.0,1.9608,0.98039,-1.2358,-0.96618,-3.9675,2.8479,1.9608,0.98039,0.0,4.7619,5.6508,-0.8254,2.9126,2.963,-2.1053,3.9365,-5.9113,-1.095
-6.7615,-0.83333,-1.9512,-3.9216,1.9608,-2.2114,-1.9324,-2.9919,5.7605,-3.9216,1.9608,-0.98039,2.8571,2.7937,-2.7302,0.97087,1.0306,-4.0191,2.9841,-7.8818,-2.0612
-5.8136,-0.83333,-3.9024,-1.9608,-3.9216,-2.2114,0.96618,-2.9919,2.8479,-1.9608,-3.9216,0.0,0.95238,2.7937,-2.7302,0.97087,0.06441,-4.9761,2.0317,-10.837,0.83736
-5.8136,-2.7564,-2.9268,-3.9216,-7.8431,-2.2114,0.0,-4.9431,1.877,-3.9216,-7.8431,-0.98039,0.0,1.8413,-2.7302,0.0,-2.8341,-5.933,6.7937,-9.8522,-1.095
-5.8136,-3.7179,-2.9268,-5.8824,-1.9608,-3.187,-0.96618,-3.9675,-1.0356,-5.8824,-1.9608,-0.98039,-0.95238,-0.06349,-1.7778,-0.97087,-2.8341,-4.9761,5.8413,-7.8818,-1.095
-7.7093,-4.6795,-3.9024,-4.902,-1.9608,-6.1138,-2.8986,-2.9919,1.877,-4.902,-1.9608,-2.9412,-0.95238,1.8413,-1.7778,0.0,-2.8341,-5.933,2.0317,-6.8966,1.8035
-7.7093,-3.7179,-4.878,-2.9412,-0.98039,-6.1138,-0.96618,-7.8699,5.7605,-2.9412,-0.98039,-1.9608,-2.8571,1.8413,-6.5397,0.97087,-4.7665,-5.933,2.9841,-7.8818,4.7021
-8.6572,-2.7564,-5.8537,-5.8824,-1.9608,-3.187,1.9324,-7.8699,4.7896,-5.8824,-1.9608,-0.98039,-8.5714,-2.9206,-11.302,-1.9417,-7.6651,-5.933,2.9841,-8.867,2.7697
-7.7093,0.12821,-4.878,-4.902,1.9608,-4.1626,0.96618,-3.9675,1.877,-4.902,1.9608,-1.9608,-10.476,-6.7302,-12.254,-0.97087,-7.6651,-7.8469,-0.8254,-16.749001,-0.12882
-3.9179,3.0128,1.9512,3.9216,2.9412,-2.2114,3.8647,1.8862,4.7896,3.9216,2.9412,1.9608,-7.619,-5.7778,-8.4444,1.9417,-1.868,-6.89,4.8889,-14.778,-0.12882
0.82148,4.9359,5.8537,6.8627,5.8824,0.71545,7.7295,2.8618,8.6731,6.8627,5.8824,4.902,-8.5714,-4.8254,-4.6349,0.97087,1.0306,-4.0191,6.7937,-10.837,-1.095
5.5608,4.9359,6.8293,6.8627,9.8039,3.6423,8.6957,2.8618,9.644,6.8627,9.8039,6.8627,-6.6667,-4.8254,0.12698,0.97087,2.963,1.7225,3.9365,-6.8966,-2.0612
7.4566,4.9359,6.8293,1.9608,9.8039,6.5691,7.7295,5.7886,7.7023,1.9608,9.8039,7.8431,-4.7619,-3.873,2.0317,0.97087,3.9291,1.7225,3.9365,-1.9704,-2.0612
5.5608,5.8974,5.8537,4.902,3.9216,6.5691,11.594,5.7886,5.7605,4.902,3.9216,8.8235,-6.6667,-4.8254,2.0317,0.97087,3.9291,3.6364,2.0317,-6.8966,-0.12882
5.5608,6.859,7.8049,3.9216,5.8824,6.5691,8.6957,2.8618,4.7896,3.9216,5.8824,7.8431,-3.8095,-1.9683,2.9841,1.9417,4.8953,3.6364,2.0317,-3.9409,0.83736
5.5608,4.9359,9.7561,9.8039,10.784,4.6179,8.6957,6.7642,4.7896,9.8039,10.784,7.8431,-2.8571,-1.0159,2.9841,0.97087,3.9291,2.6794,4.8889,-0.98522,0.83736
4.613,5.8974,8.7805,11.765,13.725,6.5691,10.628,10.667,8.6731,11.765,13.725,9.8039,-3.8095,-2.9206,2.0317,0.0,1.0306,0.76555,8.6984,-0.98522,-0.12882
7.4566,7.8205,6.8293,10.784,13.725,11.447,15.459,10.667,10.615,10.784,13.725,11.765,-5.7143,-2.9206,3.9365,0.97087,1.0306,2.6794,8.6984,-1.9704,2.7697
8.4044,7.8205,3.9024,9.8039,4.902,11.447,12.56,11.642,8.6731,9.8039,4.902,9.8039,-5.7143,-3.873,4.8889,1.9417,0.06441,2.6794,7.746,-0.98522,1.8035
8.4044,6.859,5.8537,4.902,5.8824,8.5203,7.7295,9.6911,6.7314,4.902,5.8824,7.8431,-2.8571,-3.873,4.8889,0.97087,-0.90177,8.4211,6.7937,4.9261,2.7697
6.5087,5.8974,6.8293,5.8824,8.8235,7.5447,4.8309,9.6911,4.7896,5.8824,8.8235,5.8824,-1.9048,-2.9206,4.8889,0.97087,-0.90177,9.378,2.9841,6.8966,2.7697
5.5608,3.9744,3.9024,8.8235,6.8627,5.5935,4.8309,7.7398,5.7605,8.8235,6.8627,3.9216,-1.9048,-2.9206,3.9365,0.0,-1.868,7.4641,4.8889,6.8966,1.8035
8.4044,3.9744,3.9024,8.8235,0.0,7.5447,6.7633,9.6911,6.7314,8.8235,0.0,5.8824,-0.95238,-1.0159,6.7937,0.97087,-0.90177,10.335,6.7937,8.867,2.7697
10.3,3.0128,5.8537,0.0,0.98039,10.472,5.7971,11.642,2.8479,0.0,0.98039,6.8627,0.0,0.88889,7.746,0.97087,-0.90177,12.249,3.9365,11.823,1.8035
11.248,3.0128,6.8293,1.9608,6.8627,10.472,4.8309,13.593,1.877,1.9608,6.8627,7.8431,0.95238,1.8413,8.6984,0.0,-0.90177,14.163,0.12698,5.9113,1.8035
10.3,1.0897,6.8293,7.8431,6.8627,11.447,3.8647,13.593,3.8188,7.8431,6.8627,7.8431,0.0,-1.0159,8.6984,-2.9126,-1.868,11.292,0.12698,0.98522,-2.0612
7.4566,-0.83333,4.878,7.8431,6.8627,11.447,2.8986,13.593,8.6731,7.8431,6.8627,6.8627,-3.8095,-3.873,3.9365,-4.8544,-3.8003,12.249,2.0317,2.9557,-4.9597
4.613,-0.83333,1.9512,3.9216,1.9608,9.4959,1.9324,10.667,6.7314,3.9216,1.9608,2.9412,-5.7143,-3.873,0.12698,-4.8544,-4.7665,10.335,1.0794,3.9409,-3.0274
2.7172,-0.83333,2.9268,2.9412,3.9216,6.5691,0.96618,6.7642,1.877,2.9412,3.9216,1.9608,-5.7143,-4.8254,-1.7778,-4.8544,-5.7327,7.4641,1.0794,2.9557,-3.0274
-2.0221,-3.7179,0.0,-1.9608,3.9216,0.71545,-3.8647,3.8374,2.8479,-1.9608,3.9216,-0.98039,-5.7143,-4.8254,-3.6825,-3.8835,-4.7665,1.7225,2.0317,1.9704,-2.0612
-4.8657,-4.6795,-0.97561,1.9608,1.9608,-2.2114,-4.8309,2.8618,3.8188,1.9608,1.9608,-0.98039,-5.7143,-2.9206,-6.5397,-2.9126,-5.7327,-3.0622,1.0794,0.0,1.8035
-4.8657,-2.7564,-0.97561,1.9608,3.9216,-1.2358,-2.8986,0.91057,5.7605,1.9608,3.9216,0.0,-5.7143,-1.9683,-8.4444,-2.9126,-5.7327,-3.0622,0.12698,-0.98522,0.83736
-3.9179,-0.83333,-1.9512,0.98039,6.8627,0.71545,3.8647,-1.0407,1.877,0.98039,6.8627,2.9412,-5.7143,-1.0159,-8.4444,-2.9126,-3.8003,-4.9761,-0.8254,0.0,0.83736
-4.8657,1.0897,-2.9268,6.8627,7.8431,0.71545,5.7971,-1.0407,3.8188,6.8627,7.8431,3.9216,-3.8095,-1.0159,-7.4921,-2.9126,-2.8341,-3.0622,-0.8254,-1.9704,-0.12882
-3.9179,3.0128,-0.97561,7.8431,10.784,1.6911,7.7295,-1.0407,7.7023,7.8431,10.784,5.8824,-1.9048,-0.06349,-6.5397,-0.97087,-0.90177,-1.1483,2.0317,-2.9557,-1.095
-3.9179,3.0128,-0.97561,4.902,11.765,1.6911,6.7633,-1.0407,7.7023,4.902,11.765,5.8824,-0.95238,-0.06349,-6.5397,-0.97087,0.06441,-4.0191,-2.7302,0.98522,-2.0612
-2.0221,0.12821,-0.97561,10.784,10.784,3.6423,7.7295,3.8374,6.7314,10.784,10.784,7.8431,0.0,0.88889,-4.6349,0.0,1.0306,-1.1483,-2.7302,1.9704,0.83736
-3.9179,-5.641,-5.8537,12.745,10.784,1.6911,2.8986,4.813,3.8188,12.745,10.784,3.9216,0.0,0.88889,-5.5873,-1.9417,-0.90177,-3.0622,-0.8254,-1.9704,-0.12882
-9.6051,-7.5641,-12.683,8.8235,10.784,-3.187,-1.9324,-2.0163,1.877,8.8235,10.784,-0.98039,0.0,0.88889,-7.4921,-1.9417,-1.868,-4.9761,-0.8254,-5.9113,-0.12882
-11.501,-7.5641,-14.634,0.0,0.98039,-5.1382,-5.7971,-7.8699,-0.06472,0.0,0.98039,-4.902,3.8095,3.746,-6.5397,-0.97087,-0.90177,-10.718,-2.7302,-2.9557,-1.095
-10.553,-7.5641,-11.707,-2.9412,0.0,-5.1382,-7.7295,-3.9675,1.877,-2.9412,0.0,-5.8824,6.6667,4.6984,-4.6349,0.0,1.0306,-9.7608,-1.7778,0.0,-0.12882
-8.6572,-7.5641,-10.732,-4.902,-0.98039,-8.065,-7.7295,-6.8943,-1.0356,-4.902,-0.98039,-6.8627,3.8095,3.746,-2.7302,0.0,1.0306,-4.0191,-1.7778,-0.98522,2.7697
-8.6572,-8.5256,-11.707,-0.98039,-3.9216,-12.943,-9.6618,-8.8455,-4.9191,-0.98039,-3.9216,-8.8235,3.8095,4.6984,-0.8254,0.0,0.06441,-4.0191,-5.5873,4.9261,3.7359
-6.7615,-7.5641,-11.707,-3.9216,-7.8431,-10.992,-9.6618,-5.9187,-6.8608,-3.9216,-7.8431,-9.8039,3.8095,5.6508,-1.7778,2.9126,1.9968,-4.9761,-4.6349,0.98522,5.6683
-8.6572,-6.6026,-11.707,-7.8431,-14.706,-12.943,-12.56,-7.8699,-10.744,-7.8431,-14.706,-12.745,1.9048,5.6508,-3.6825,2.9126,1.9968,-6.89,-4.6349,-1.9704,4.7021
-4.8657,-4.6795,-6.8293,-11.765,-10.784,-12.943,-13.527,-8.8455,-10.744,-11.765,-10.784,-12.745,2.8571,5.6508,-2.7302,3.8835,1.0306,-8.8038,-1.7778,0.0,3.7359
-3.9179,-3.7179,-2.9268,-12.745,-9.8039,-12.943,-13.527,-6.8943,-9.7735,-12.745,-9.8039,-12.745,1.9048,3.746,-2.7302,2.9126,0.06441,-4.0191,-0.8254,-2.9557,4.7021
-4.8657,-5.641,-2.9268,-10.784,-15.686,-14.894,-10.628,-8.8455,-16.57,-10.784,-15.686,-12.745,1.9048,1.8413,-2.7302,0.0,-1.868,-0.19139,-3.6825,-1.9704,2.7697
-6.7615,-7.5641,-5.8537,-18.627001,-23.528999,-14.894,-12.56,-11.772,-16.57,-18.627001,-23.528999,-14.706,0.95238,-1.0159,-2.7302,-3.8835,-4.7665,-0.19139,-5.5873,-4.9261,-0.12882
-2.97,-3.7179,-2.9268,-15.686,-13.725,-11.967,-11.594,-5.9187,-9.7735,-15.686,-13.725,-12.745,5.7143,1.8413,2.0317,-0.97087,0.06441,0.76555,-4.6349,0.0,0.83736
1.7694,3.9744,4.878,-7.8431,-10.784,-8.065,-7.7295,0.91057,-6.8608,-7.8431,-10.784,-7.8431,7.619,4.6984,7.746,6.7961,6.8277,-0.19139,-4.6349,3.9409,4.7021
2.7172,4.9359,5.8537,-8.8235,-14.706,-6.1138,-5.7971,-2.9919,-10.744,-8.8235,-14.706,-5.8824,2.8571,2.7937,7.746,7.767,7.7939,1.7225,-1.7778,4.9261,2.7697
2.7172,3.0128,5.8537,-11.765,-14.706,-6.1138,-5.7971,-4.9431,-12.686,-11.765,-14.706,-4.902,3.8095,3.746,7.746,5.8252,5.8615,-1.1483,-2.7302,7.8818,-0.12882
5.5608,3.0128,7.8049,-8.8235,-12.745,-1.2358,-1.9324,-2.9919,-7.8317,-8.8235,-12.745,-1.9608,2.8571,3.746,7.746,3.8835,4.8953,1.7225,-2.7302,3.9409,-1.095
7.4566,3.0128,8.7805,-5.8824,-5.8824,3.6423,-2.8986,1.8862,-3.9482,-5.8824,-5.8824,0.0,1.9048,2.7937,8.6984,2.9126,4.8953,6.5072,-3.6825,3.9409,-1.095
7.4566,3.0128,6.8293,-8.8235,-5.8824,4.6179,-3.8647,-0.06504,-5.89,-8.8235,-5.8824,0.0,1.9048,2.7937,8.6984,1.9417,4.8953,6.5072,-4.6349,1.9704,-1.095
4.613,0.12821,1.9512,-7.8431,-7.8431,3.6423,-2.8986,0.91057,-6.8608,-7.8431,-7.8431,-0.98039,0.95238,-1.9683,6.7937,-3.8835,1.0306,6.5072,-3.6825,0.98522,-6.8921
5.5608,0.12821,0.97561,2.9412,-4.902,6.5691,0.0,9.6911,-6.8608,2.9412,-4.902,1.9608,1.9048,-1.0159,6.7937,-4.8544,1.0306,7.4641,-6.5397,6.8966,-7.8583
6.5087,-2.7564,2.9268,7.8431,-1.9608,9.4959,0.0,11.642,-6.8608,7.8431,-1.9608,3.9216,3.8095,0.88889,5.8413,-4.8544,1.9968,9.378,-6.5397,10.837,-4.9597
5.5608,-4.6795,0.97561,5.8824,-0.98039,10.472,-2.8986,8.7154,-3.9482,5.8824,-0.98039,3.9216,2.8571,-0.06349,3.9365,-6.7961,1.0306,6.5072,-6.5397,5.9113,-3.9936
2.7172,-4.6795,-1.9512,5.8824,0.0,8.5203,-3.8647,7.7398,-4.9191,5.8824,0.0,2.9412,1.9048,0.88889,0.12698,-4.8544,0.06441,1.7225,-4.6349,-1.9704,-2.0612
-2.97,-6.6026,-6.8293,6.8627,1.9608,5.5935,-4.8309,5.7886,-6.8608,6.8627,1.9608,0.98039,0.0,0.88889,-3.6825,-4.8544,-2.8341,0.76555,-0.8254,-4.9261,-3.0274
-1.0742,-4.6795,-4.878,14.706,2.9412,8.5203,1.9324,5.7886,-4.9191,14.706,2.9412,5.8824,2.8571,2.7937,-2.7302,-2.9126,-2.8341,2.6794,-4.6349,0.0,0.83736
-2.97,-2.7564,-5.8537,12.745,3.9216,5.5935,0.0,3.8374,-4.9191,12.745,3.9216,3.9216,6.6667,4.6984,-3.6825,-0.97087,-2.8341,-4.0191,-6.5397,2.9557,2.7697
-4.8657,0.12821,-5.8537,14.706,5.8824,0.71545,-0.96618,1.8862,-3.9482,14.706,5.8824,1.9608,5.7143,5.6508,-2.7302,1.9417,-0.90177,-5.933,-2.7302,0.98522,4.7021
-5.8136,-0.83333,-6.8293,7.8431,0.0,0.71545,-3.8647,-2.0163,-4.9191,7.8431,0.0,0.0,2.8571,3.746,-2.7302,2.9126,-1.868,-6.89,1.0794,1.9704,4.7021
-5.8136,-3.7179,-4.878,1.9608,0.0,-0.26016,-3.8647,-4.9431,-2.0065,1.9608,0.0,-0.98039,-1.9048,0.88889,-5.5873,0.97087,-3.8003,-7.8469,2.0317,0.98522,0.83736
-1.0742,-1.7949,0.0,3.9216,0.98039,2.6667,-0.96618,-2.9919,-0.06472,3.9216,0.98039,1.9608,-0.95238,0.88889,-2.7302,0.97087,-2.8341,-5.933,0.12698,3.9409,-0.12882
4.613,2.0513,3.9024,9.8039,0.98039,2.6667,3.8647,3.8374,-0.06472,9.8039,0.98039,2.9412,1.9048,1.8413,3.9365,3.8835,1.0306,6.5072,0.12698,0.98522,0.83736
3.6651,4.9359,2.9268,6.8627,-1.9608,-0.26016,1.9324,2.8618,-1.0356,6.8627,-1.9608,0.0,1.9048,0.88889,5.8413,3.8835,1.9968,9.378,2.0317,1.9704,-1.095
2.7172,4.9359,1.9512,-2.9412,-4.902,-3.187,0.0,-1.0407,-2.0065,-2.9412,-4.902,-3.9216,0.95238,-1.0159,3.9365,3.8835,1.0306,4.5933,1.0794,5.9113,-3.0274
4.613,3.0128,4.878,-8.8235,-8.8235,-3.187,-0.96618,-3.9675,-4.9191,-8.8235,-8.8235,-4.902,1.9048,-1.0159,5.8413,2.9126,1.0306,6.5072,2.0317,7.8818,-3.9936
5.5608,2.0513,8.7805,-5.8824,-5.8824,-3.187,-0.96618,-1.0407,-2.0065,-5.8824,-5.8824,-3.9216,1.9048,-0.06349,5.8413,1.9417,1.0306,6.5072,2.0317,7.8818,-2.0612
4.613,2.0513,6.8293,-4.902,-4.902,-4.1626,0.96618,-1.0407,-2.0065,-4.902,-4.902,-1.9608,2.8571,-0.06349,2.9841,0.0,0.06441,4.5933,0.12698,10.837,-2.0612
5.5608,3.9744,4.878,-0.98039,-2.9412,-0.26016,4.8309,1.8862,0.90615,-0.98039,-2.9412,1.9608,5.7143,2.7937,2.9841,1.9417,1.0306,5.5502,0.12698,8.867,-0.12882
1.7694,2.0513,0.97561,-4.902,-6.8627,-3.187,2.8986,0.91057,-1.0356,-4.902,-6.8627,0.98039,-0.95238,-1.0159,-0.8254,-0.97087,-0.90177,3.6364,-0.8254,1.9704,-2.0612
4.613,2.0513,4.878,-5.8824,-7.8431,-0.26016,0.96618,-0.06504,-2.9773,-5.8824,-7.8431,0.98039,-2.8571,-1.9683,0.12698,0.0,-0.90177,7.4641,-0.8254,-5.9113,-3.9936
10.3,7.8205,13.659,-1.9608,-2.9412,2.6667,7.7295,3.8374,-2.9773,-1.9608,-2.9412,5.8824,1.9048,1.8413,2.9841,3.8835,2.963,7.4641,0.12698,0.98522,0.83736
8.4044,7.8205,15.61,-2.9412,-2.9412,3.6423,8.6957,1.8862,-3.9482,-2.9412,-2.9412,6.8627,3.8095,3.746,2.0317,2.9126,2.963,2.6794,0.12698,2.9557,2.7697
5.5608,3.0128,8.7805,0.0,-1.9608,3.6423,4.8309,1.8862,-2.0065,0.0,-1.9608,4.902,2.8571,1.8413,-1.7778,-0.97087,1.0306,1.7225,2.0317,-1.9704,1.8035
1.7694,2.0513,0.0,0.0,-3.9216,1.6911,3.8647,2.8618,0.90615,0.0,-3.9216,2.9412,2.8571,3.746,-3.6825,0.0,1.9968,-0.19139,2.0317,-1.9704,1.8035
-1.0742,3.9744,-3.9024,0.0,-5.8824,-1.2358,3.8647,-0.06504,-0.06472,0.0,-5.8824,0.98039,2.8571,5.6508,-3.6825,2.9126,2.963,-3.0622,-1.7778,-1.9704,3.7359
-0.12638,3.0128,-3.9024,-0.98039,-1.9608,-1.2358,-0.96618,-1.0407,-0.06472,-0.98039,-1.9608,-1.9608,2.8571,5.6508,-2.7302,3.8835,1.9968,-2.1053,-0.8254,-0.98522,5.6683
-1.0742,1.0897,-3.9024,-1.9608,-0.98039,-0.26016,-2.8986,-2.9919,-4.9191,-1.9608,-0.98039,-2.9412,1.9048,2.7937,-2.7302,1.9417,0.06441,-1.1483,2.0317,0.0,5.6683
-2.0221,2.0513,0.0,-1.9608,-7.8431,1.6911,0.0,1.8862,-2.0065,-1.9608,-7.8431,-1.9608,-0.95238,-0.06349,-4.6349,0.0,-3.8003,-2.1053,1.0794,-0.98522,2.7697
-3.9179,-1.7949,-1.9512,-4.902,-4.902,-1.2358,-0.96618,2.8618,2.8479,-4.902,-4.902,-2.9412,-6.6667,-3.873,-7.4921,-3.8835,-8.6312,-0.19139,3.9365,-5.9113,-0.12882
-5.8136,-4.6795,-10.732,-0.98039,-2.9412,-2.2114,-3.8647,2.8618,4.7896,-0.98039,-2.9412,-5.8824,-5.7143,-3.873,-7.4921,-4.8544,-10.564,-0.19139,4.8889,-4.9261,0.83736
-3.9179,-5.641,-15.61,0.0,-2.9412,-1.2358,-4.8309,2.8618,1.877,0.0,-2.9412,-5.8824,-4.7619,-5.7778,-5.5873,-5.8252,-10.564,2.6794,2.0317,-4.9261,-1.095
-3.9179,-8.5256,-17.561001,-0.98039,-1.9608,-0.26016,-4.8309,3.8374,-1.0356,-0.98039,-1.9608,-5.8824,-4.7619,-9.5873,-6.5397,-9.7087,-13.462,2.6794,2.0317,-6.8966,-4.9597
-4.8657,-10.449,-15.61,-1.9608,-1.9608,0.71545,-5.7971,4.813,0.90615,-1.9608,-1.9608,-4.902,-9.5238,-13.397,-9.3968,-13.592,-17.327,1.7225,0.12698,-6.8966,-9.7907
-5.8136,-9.4872,-12.683,0.0,0.0,-0.26016,-4.8309,6.7642,1.877,0.0,0.0,-4.902,-10.476,-14.349,-8.4444,-13.592,-17.327,4.5933,-1.7778,-4.9261,-8.8245
-3.9179,-8.5256,-9.7561,2.9412,0.0,-0.26016,-4.8309,5.7886,1.877,2.9412,0.0,-3.9216,-9.5238,-11.492,-6.5397,-10.68,-14.428,1.7225,1.0794,-8.867,-6.8921
-4.8657,-5.641,-6.8293,1.9608,1.9608,-0.26016,-0.96618,3.8374,1.877,1.9608,1.9608,-1.9608,-7.619,-9.5873,-7.4921,-6.7961,-11.53,2.6794,2.9841,-6.8966,-4.9597
-6.7615,-4.6795,-9.7561,1.9608,3.9216,-2.2114,-0.96618,0.91057,2.8479,1.9608,3.9216,-1.9608,-8.5714,-8.6349,-8.4444,-5.8252,-11.53,3.6364,1.0794,-4.9261,-3.0274
-4.8657,-4.6795,-9.7561,4.902,7.8431,-0.26016,1.9324,1.8862,4.7896,4.902,7.8431,0.98039,-6.6667,-7.6825,-7.4921,-6.7961,-11.53,-1.1483,2.0317,-8.867,-3.9936
-5.8136,-5.641,-9.7561,4.902,2.9412,-1.2358,0.96618,1.8862,3.8188,4.902,2.9412,-0.98039,-3.8095,-6.7302,-6.5397,-7.767,-9.5974,-3.0622,1.0794,-8.867,-4.9597
-8.6572,-6.6026,-9.7561,0.0,3.9216,-4.1626,-2.8986,-2.0163,1.877,0.0,3.9216,-3.9216,-0.95238,-2.9206,-5.5873,-3.8835,-5.7327,-4.9761,0.12698,-5.9113,-0.12882
-10.553,-6.6026,-12.683,-7.8431,-6.8627,-9.0407,-6.7633,-9.8211,-3.9482,-7.8431,-6.8627,-9.8039,-1.9048,-1.0159,-6.5397,-1.9417,-3.8003,-6.89,-1.7778,-4.9261,0.83736
-9.6051,-4.6795,-10.732,-4.902,-0.98039,-10.992,-5.7971,-10.797,-2.0065,-4.902,-0.98039,-8.8235,-0.95238,-1.0159,-6.5397,-0.97087,-3.8003,-5.933,-0.8254,-1.9704,1.8035
-7.7093,-3.7179,-6.8293,-3.9216,-0.98039,-10.992,-2.8986,-8.8455,-0.06472,-3.9216,-0.98039,-6.8627,0.95238,-1.0159,-3.6825,-1.9417,-4.7665,-3.0622,-0.8254,1.9704,-0.12882
-0.12638,0.12821,-0.97561,-0.98039,2.9412,-4.1626,0.96618,-2.9919,-0.06472,-0.98039,2.9412,-0.98039,4.7619,-0.06349,2.9841,0.0,0.06441,-1.1483,-0.8254,7.8818,0.83736
5.5608,2.0513,1.9512,-3.9216,3.9216,1.6911,3.8647,-2.9919,-0.06472,-3.9216,3.9216,2.9412,6.6667,2.7937,6.7937,1.9417,2.963,1.7225,-1.7778,11.823,1.8035
4.613,3.0128,1.9512,-0.98039,0.0,2.6667,3.8647,-2.9919,-2.0065,-0.98039,0.0,2.9412,7.619,4.6984,6.7937,4.8544,2.963,3.6364,-1.7778,13.793,2.7697
4.613,3.9744,3.9024,0.98039,3.9216,0.71545,2.8986,-3.9675,-1.0356,0.98039,3.9216,1.9608,6.6667,3.746,8.6984,5.8252,5.8615,2.6794,0.12698,4.9261,1.8035
4.613,5.8974,8.7805,1.9608,2.9412,0.71545,1.9324,-0.06504,-0.06472,1.9608,2.9412,2.9412,7.619,4.6984,10.603,6.7961,9.7262,4.5933,0.12698,8.867,1.8035
5.5608,5.8974,11.707,-1.9608,2.9412,3.6423,1.9324,-0.06504,-3.9482,-1.9608,2.9412,3.9216,8.5714,5.6508,10.603,6.7961,12.625,3.6364,-4.6349,12.808,1.8035
10.3,4.9359,13.659,0.0,1.9608,7.5447,2.8986,-0.06504,-5.89,0.0,1.9608,5.8824,9.5238,7.5556,15.365,6.7961,15.523,4.5933,-5.5873,9.8522,0.83736
11.248,2.0513,10.732,3.9216,0.98039,4.6179,0.96618,0.91057,-5.89,3.9216,0.98039,3.9216,8.5714,7.5556,16.316999,4.8544,14.557,1.7225,-1.7778,8.867,0.83736
8.4044,2.0513,7.8049,1.9608,0.98039,1.6911,-1.9324,-2.9919,-1.0356,1.9608,0.98039,0.98039,8.5714,7.5556,13.46,4.8544,11.659,-1.1483,1.0794,9.8522,2.7697
6.5087,3.9744,7.8049,-2.9412,-1.9608,-1.2358,-0.96618,-5.9187,-1.0356,-2.9412,-1.9608,-0.98039,8.5714,6.6032,12.508,6.7961,11.659,-0.19139,2.0317,12.808,2.7697
6.5087,6.859,10.732,-7.8431,-1.9608,-1.2358,0.0,-5.9187,-1.0356,-7.8431,-1.9608,-0.98039,10.476,7.5556,13.46,8.7379,12.625,-2.1053,1.0794,13.793,3.7359
5.5608,8.7821,13.659,-9.8039,-5.8824,-1.2358,0.0,-6.8943,-2.9773,-9.8039,-5.8824,-0.98039,7.619,7.5556,11.556,9.7087,11.659,-0.19139,-0.8254,11.823,5.6683
6.5087,9.7436,17.561001,-4.902,-2.9412,-0.26016,-0.96618,-4.9431,-3.9482,-4.902,-2.9412,0.98039,6.6667,7.5556,10.603,9.7087,11.659,-0.19139,-2.7302,9.8522,7.6006
10.3,8.7821,19.511999,2.9412,6.8627,3.6423,1.9324,-2.9919,-1.0356,2.9412,6.8627,5.8824,8.5714,8.5079,12.508,10.68,12.625,0.76555,-1.7778,10.837,8.5668
11.248,7.8205,16.584999,4.902,5.8824,5.5935,3.8647,-2.9919,0.90615,4.902,5.8824,7.8431,10.476,8.5079,16.316999,10.68,13.591,2.6794,0.12698,7.8818,6.6345
10.3,7.8205,12.683,0.0,1.9608,3.6423,6.7633,-3.9675,-1.0356,0.0,1.9608,5.8824,9.5238,8.5079,15.365,9.7087,13.591,1.7225,-1.7778,8.867,4.7021
11.248,9.7436,13.659,-6.8627,-4.902,4.6179,6.7633,-1.0407,-2.0065,-6.8627,-4.902,5.8824,9.5238,9.4603,14.413,11.65,15.523,-0.19139,0.12698,11.823,6.6345
14.092,12.628,17.561001,-1.9608,2.9412,7.5447,8.6957,0.91057,-0.06472,-1.9608,2.9412,7.8431,12.381,13.27,16.316999,17.476,20.354,0.76555,4.8889,13.793,9.533
12.196,13.59,19.511999,3.9216,6.8627,7.5447,9.6618,0.91057,2.8479,3.9216,6.8627,8.8235,12.381,14.222,16.316999,17.476,21.32,5.5502,4.8889,13.793,11.465
11.248,11.667,18.537001,2.9412,3.9216,5.5935,9.6618,0.91057,3.8188,2.9412,3.9216,7.8431,8.5714,9.4603,13.46,12.621,16.49,4.5933,2.0317,8.867,7.6006
10.3,8.7821,16.584999,2.9412,0.98039,8.5203,9.6618,1.8862,4.7896,2.9412,0.98039,8.8235,1.9048,3.746,9.6508,6.7961,11.659,-0.19139,3.9365,5.9113,2.7697
7.4566,6.859,10.732,7.8431,0.0,8.5203,8.6957,3.8374,1.877,7.8431,0.0,7.8431,-1.9048,0.88889,4.8889,4.8544,7.7939,-1.1483,8.6984,2.9557,2.7697
1.7694,3.9744,1.9512,4.902,2.9412,4.6179,5.7971,0.91057,1.877,4.902,2.9412,2.9412,-2.8571,0.88889,0.12698,2.9126,3.9291,-0.19139,4.8889,0.0,3.7359
-2.0221,-0.83333,-2.9268,-0.98039,3.9216,0.71545,-0.96618,-0.06504,1.877,-0.98039,3.9216,-1.9608,-1.9048,0.88889,-2.7302,0.97087,0.06441,-2.1053,4.8889,-2.9557,1.8035
-0.12638,-2.7564,-0.97561,1.9608,3.9216,0.71545,0.0,1.8862,3.8188,1.9608,3.9216,-0.98039,0.0,-0.06349,-2.7302,-1.9417,-0.90177,-2.1053,3.9365,-6.8966,-0.12882
-2.97,-0.83333,0.97561,4.902,1.9608,-0.26016,2.8986,2.8618,2.8479,4.902,1.9608,0.98039,-2.8571,-1.0159,-4.6349,-2.9126,-2.8341,-3.0622,2.0317,-10.837,-1.095
-3.9179,2.0513,2.9268,3.9216,1.9608,0.71545,5.7971,1.8862,2.8479,3.9216,1.9608,2.9412,-3.8095,-0.06349,-4.6349,0.0,-0.90177,-3.0622,1.0794,-6.8966,0.83736
-2.97,3.0128,1.9512,1.9608,2.9412,0.71545,1.9324,1.8862,5.7605,1.9608,2.9412,2.9412,-0.95238,0.88889,-0.8254,1.9417,1.0306,-3.0622,0.12698,-3.9409,-0.12882
-4.8657,0.12821,-3.9024,4.902,4.902,-1.2358,-0.96618,1.8862,1.877,4.902,4.902,0.0,-2.8571,-1.9683,-2.7302,-0.97087,-1.868,-3.0622,0.12698,-0.98522,-2.0612
-3.9179,0.12821,-5.8537,4.902,1.9608,-0.26016,-0.96618,-0.06504,-0.06472,4.902,1.9608,-0.98039,0.95238,-1.0159,-0.8254,-0.97087,-0.90177,-0.19139,1.0794,1.9704,-2.0612
-0.12638,3.9744,-0.97561,4.902,0.98039,1.6911,3.8647,0.91057,-0.06472,4.902,0.98039,1.9608,3.8095,3.746,2.9841,3.8835,3.9291,0.76555,2.0317,0.98522,2.7697
-2.0221,2.0513,0.0,2.9412,-0.98039,0.71545,0.0,-0.06504,1.877,2.9412,-0.98039,0.0,1.9048,2.7937,1.0794,2.9126,1.9968,-1.1483,1.0794,0.0,4.7021
-0.12638,0.12821,0.97561,1.9608,0.98039,-0.26016,-1.9324,0.91057,3.8188,1.9608,0.98039,-0.98039,2.8571,4.6984,2.0317,3.8835,2.963,-4.0191,2.0317,0.98522,6.6345
4.613,2.0513,3.9024,3.9216,1.9608,1.6911,-0.96618,1.8862,1.877,3.9216,1.9608,0.0,7.619,11.365,8.6984,8.7379,8.7601,3.6364,3.9365,2.9557,9.533
6.5087,3.0128,3.9024,1.9608,1.9608,1.6911,3.8647,0.91057,-1.0356,1.9608,1.9608,1.9608,9.5238,12.317,9.6508,8.7379,8.7601,5.5502,0.12698,6.8966,8.5668
2.7172,1.0897,-0.97561,-0.98039,-2.9412,-0.26016,1.9324,-0.06504,-1.0356,-0.98039,-2.9412,0.0,3.8095,6.6032,4.8889,2.9126,3.9291,3.6364,0.12698,2.9557,2.7697
-0.12638,-1.7949,-5.8537,-1.9608,-3.9216,-1.2358,-2.8986,-0.06504,-0.06472,-1.9608,-3.9216,-3.9216,-0.95238,2.7937,2.0317,0.0,1.0306,2.6794,-0.8254,2.9557,0.83736
-0.12638,-1.7949,-2.9268,-3.9216,-2.9412,-4.1626,-4.8309,-3.9675,-3.9482,-3.9216,-2.9412,-4.902,0.0,1.8413,2.9841,0.97087,1.9968,1.7225,-3.6825,5.9113,0.83736
0.82148,0.12821,0.0,0.0,1.9608,-2.2114,-2.8986,-1.0407,0.90615,0.0,1.9608,-1.9608,0.0,0.88889,2.9841,0.97087,0.06441,2.6794,1.0794,0.0,1.8035
0.82148,0.12821,0.0,0.0,3.9216,-1.2358,1.9324,-0.06504,2.8479,0.0,3.9216,0.98039,-1.9048,-1.9683,-1.7778,-1.9417,-4.7665,-1.1483,4.8889,-1.9704,-0.12882
-1.0742,1.0897,0.0,0.98039,1.9608,-2.2114,1.9324,0.91057,4.7896,0.98039,1.9608,0.98039,-1.9048,-2.9206,-1.7778,-3.8835,-5.7327,-2.1053,2.9841,0.0,-3.9936
-2.97,-0.83333,-2.9268,-1.9608,-4.902,-4.1626,0.0,-2.0163,0.90615,-1.9608,-4.902,-1.9608,-1.9048,-2.9206,-2.7302,-3.8835,-5.7327,-2.1053,1.0794,-1.9704,-4.9597
-2.0221,-3.7179,-6.8293,-4.902,-0.98039,-4.1626,-3.8647,-3.9675,-0.06472,-4.902,-0.98039,-3.9216,-0.95238,-1.9683,-2.7302,-4.8544,-3.8003,-2.1053,-1.7778,-2.9557,-3.9936
-1.0742,-6.6026,-6.8293,-3.9216,2.9412,-3.187,-5.7971,-2.0163,1.877,-3.9216,2.9412,-3.9216,-0.95238,-1.0159,-2.7302,-4.8544,-2.8341,-2.1053,-1.7778,-1.9704,-2.0612
-0.12638,-4.6795,-3.9024,-1.9608,-1.9608,-1.2358,-3.8647,-1.0407,-1.0356,-1.9608,-1.9608,-2.9412,-1.9048,-1.9683,-1.7778,-3.8835,-1.868,-4.0191,-2.7302,0.98522,-1.095
0.82148,-4.6795,-0.97561,-1.9608,-3.9216,-0.26016,-0.96618,-0.06504,-1.0356,-1.9608,-3.9216,-0.98039,-3.8095,-2.9206,-2.7302,-4.8544,-3.8003,-4.0191,-4.6349,0.0,-2.0612
-1.0742,-4.6795,-0.97561,-2.9412,-4.902,0.71545,-1.9324,-2.0163,-4.9191,-2.9412,-4.902,-0.98039,-2.8571,-1.9683,-3.6825,-3.8835,-5.7327,-5.933,-4.6349,-1.9704,-2.0612
1.7694,0.12821,2.9268,1.9608,-1.9608,3.6423,0.96618,2.8618,-4.9191,1.9608,-1.9608,1.9608,1.9048,2.7937,1.0794,1.9417,0.06441,-0.19139,-1.7778,0.0,1.8035
4.613,3.0128,3.9024,6.8627,2.9412,6.5691,0.96618,7.7398,-0.06472,6.8627,2.9412,3.9216,4.7619,4.6984,3.9365,4.8544,3.9291,3.6364,-4.6349,2.9557,0.83736
7.4566,4.9359,5.8537,5.8824,2.9412,7.5447,1.9324,4.813,-1.0356,5.8824,2.9412,4.902,6.6667,6.6032,3.9365,5.8252,5.8615,4.5933,-3.6825,5.9113,-0.12882
8.4044,3.9744,9.7561,-1.9608,-2.9412,9.4959,2.8986,0.91057,-2.9773,-1.9608,-2.9412,5.8824,6.6667,7.5556,6.7937,4.8544,9.7262,3.6364,-1.7778,4.9261,-0.12882
8.4044,1.0897,8.7805,1.9608,-2.9412,7.5447,0.0,2.8618,-3.9482,1.9608,-2.9412,4.902,7.619,6.6032,9.6508,2.9126,9.7262,3.6364,-2.7302,1.9704,-0.12882
6.5087,-0.83333,5.8537,2.9412,-3.9216,4.6179,0.96618,3.8374,-4.9191,2.9412,-3.9216,2.9412,9.5238,6.6032,9.6508,1.9417,7.7939,1.7225,-3.6825,5.9113,-0.12882
4.613,-0.83333,2.9268,0.98039,-6.8627,3.6423,2.8986,3.8374,-2.9773,0.98039,-6.8627,2.9412,4.7619,3.746,7.746,0.97087,5.8615,0.76555,-0.8254,4.9261,1.8035
2.7172,0.12821,0.97561,0.98039,0.98039,2.6667,1.9324,1.8862,-2.0065,0.98039,0.98039,1.9608,1.9048,3.746,3.9365,2.9126,5.8615,3.6364,0.12698,-0.98522,3.7359
0.82148,2.0513,0.0,-3.9216,0.98039,1.6911,-0.96618,-2.9919,-2.0065,-3.9216,0.98039,0.0,2.8571,5.6508,0.12698,3.8835,5.8615,0.76555,-0.8254,-1.9704,4.7021
1.7694,7.8205,2.9268,-1.9608,-1.9608,0.71545,3.8647,-2.9919,-0.06472,-1.9608,-1.9608,2.9412,5.7143,7.5556,0.12698,5.8252,7.7939,-1.1483,1.0794,-4.9261,4.7021
0.82148,4.9359,2.9268,1.9608,0.98039,0.71545,3.8647,0.91057,4.7896,1.9608,0.98039,3.9216,7.619,7.5556,0.12698,3.8835,6.8277,-3.0622,3.9365,-3.9409,2.7697
-2.97,-2.7564,-0.97561,-0.98039,1.9608,-3.187,0.96618,-2.0163,1.877,-0.98039,1.9608,1.9608,6.6667,3.746,-0.8254,-1.9417,2.963,-7.8469,2.0317,0.0,-1.095
-2.0221,-3.7179,-0.97561,-3.9216,-0.98039,-3.187,-0.96618,-3.9675,-0.06472,-3.9216,-0.98039,0.98039,8.5714,4.6984,2.0317,-1.9417,2.963,-4.0191,1.0794,-2.9557,-1.095
-1.0742,-3.7179,-1.9512,-8.8235,-2.9412,-1.2358,0.0,-5.9187,-2.0065,-8.8235,-2.9412,0.98039,7.619,3.746,1.0794,-3.8835,1.0306,-0.19139,2.9841,-7.8818,-2.0612
-6.7615,-8.5256,-7.8049,-7.8431,-2.9412,-7.0894,-6.7633,-6.8943,-2.9773,-7.8431,-2.9412,-4.902,6.6667,1.8413,-3.6825,-6.7961,-3.8003,-3.0622,0.12698,-5.9113,-4.9597
-6.7615,-9.4872,-7.8049,0.0,0.98039,-10.016,-8.6957,-1.0407,0.90615,0.0,0.98039,-6.8627,6.6667,0.88889,-3.6825,-7.767,-5.7327,-2.1053,-4.6349,0.0,-5.9259
-7.7093,-11.41,-8.7805,-0.98039,-6.8627,-8.065,-6.7633,-2.0163,-1.0356,-0.98039,-6.8627,-5.8824,4.7619,0.88889,-5.5873,-9.7087,-8.6312,-3.0622,-6.5397,-0.98522,-5.9259
-6.7615,-8.5256,-7.8049,-0.98039,-1.9608,-1.2358,-3.8647,0.91057,-2.0065,-0.98039,-1.9608,-0.98039,4.7619,1.8413,-5.5873,-7.767,-7.6651,0.76555,-0.8254,1.9704,-3.9936
-4.8657,-2.7564,-2.9268,1.9608,1.9608,-0.26016,-1.9324,2.8618,1.877,1.9608,1.9608,1.9608,2.8571,2.7937,-5.5873,-1.9417,-3.8003,1.7225,2.0317,0.0,-2.0612
-2.97,0.12821,-1.9512,0.98039,2.9412,-3.187,-1.9324,1.8862,-0.06472,0.98039,2.9412,0.0,-0.95238,2.7937,-4.6349,1.9417,-1.868,-1.1483,2.0317,-6.8966,0.83736
-2.97,-3.7179,-4.878,-1.9608,-2.9412,-4.1626,-3.8647,-1.0407,-0.06472,-1.9608,-2.9412,-2.9412,-4.7619,-0.06349,-4.6349,-0.97087,-4.7665,-4.0191,1.0794,-5.9113,1.8035
-0.12638,-5.641,-4.878,-0.98039,-1.9608,-2.2114,-0.96618,0.91057,2.8479,-0.98039,-1.9608,-0.98039,-6.6667,-3.873,-1.7778,-3.8835,-7.6651,-0.19139,1.0794,-1.9704,-1.095
-0.12638,-4.6795,-4.878,2.9412,2.9412,-1.2358,0.0,4.813,4.7896,2.9412,2.9412,0.0,-5.7143,-5.7778,-1.7778,-5.8252,-8.6312,4.5933,3.9365,2.9557,-3.9936
-7.7093,-7.5641,-10.732,0.98039,1.9608,-7.0894,-5.7971,1.8862,3.8188,0.98039,1.9608,-5.8824,-7.619,-8.6349,-7.4921,-8.7379,-13.462,-1.1483,1.0794,2.9557,-5.9259
-9.6051,-6.6026,-12.683,-3.9216,5.8824,-9.0407,-6.7633,-2.9919,2.8479,-3.9216,5.8824,-6.8627,-3.8095,-6.7302,-7.4921,-6.7961,-11.53,-2.1053,2.0317,4.9261,-3.9936
-9.6051,-3.7179,-9.7561,-5.8824,0.0,-9.0407,-4.8309,-4.9431,4.7896,-5.8824,0.0,-5.8824,-4.7619,-5.7778,-7.4921,-4.8544,-9.5974,-5.933,4.8889,1.9704,-3.9936
-6.7615,-0.83333,-1.9512,-2.9412,-3.9216,-4.1626,1.9324,-3.9675,2.8479,-2.9412,-3.9216,0.0,-6.6667,-5.7778,-6.5397,-2.9126,-6.6989,-2.1053,5.8413,-0.98522,-2.0612
-1.0742,3.9744,2.9268,4.902,2.9412,-0.26016,3.8647,2.8618,6.7314,4.902,2.9412,3.9216,-4.7619,-5.7778,-3.6825,0.0,-2.8341,0.76555,4.8889,0.0,-1.095
1.7694,5.8974,0.0,9.8039,10.784,1.6911,6.7633,8.7154,5.7605,9.8039,10.784,5.8824,-2.8571,-4.8254,-0.8254,0.0,1.0306,5.5502,2.9841,0.0,-1.095
0.82148,6.859,-2.9268,7.8431,11.765,2.6667,6.7633,6.7642,7.7023,7.8431,11.765,4.902,0.95238,-1.0159,0.12698,1.9417,4.8953,6.5072,2.9841,2.9557,-0.12882
-1.0742,5.8974,-1.9512,1.9608,6.8627,-0.26016,4.8309,0.91057,7.7023,1.9608,6.8627,1.9608,-0.95238,-1.9683,-4.6349,1.9417,2.963,1.7225,2.0317,0.0,0.83736
-2.0221,3.0128,-0.97561,-4.902,-2.9412,-1.2358,6.7633,-3.9675,6.7314,-4.902,-2.9412,1.9608,-6.6667,-4.8254,-9.3968,-1.9417,-2.8341,-4.0191,3.9365,-6.8966,0.83736
-4.8657,0.12821,0.0,-3.9216,2.9412,-3.187,8.6957,-2.9919,7.7023,-3.9216,2.9412,1.9608,-10.476,-8.6349,-13.206,-6.7961,-10.564,-7.8469,4.8889,-13.793,-1.095
-9.6051,-0.83333,-3.9024,0.98039,8.8235,-5.1382,5.7971,-0.06504,10.615,0.98039,8.8235,0.98039,-13.333,-11.492,-16.063,-8.7379,-14.428,-7.8469,6.7937,-12.808,-3.0274
-9.6051,3.0128,-6.8293,3.9216,5.8824,-1.2358,8.6957,0.91057,10.615,3.9216,5.8824,2.9412,-12.381,-10.54,-16.063,-4.8544,-11.53,-6.89,7.746,-10.837,-2.0612
-3.9179,10.705,-1.9512,3.9216,8.8235,3.6423,11.594,1.8862,11.586,3.9216,8.8235,5.8824,-10.476,-6.7302,-11.302,1.9417,-3.8003,-4.0191,7.746,-12.808,0.83736
0.82148,13.59,2.9268,1.9608,7.8431,4.6179,10.628,-1.0407,14.498,1.9608,7.8431,5.8824,-9.5238,-5.7778,-8.4444,4.8544,0.06441,-4.9761,6.7937,-13.793,-0.12882
2.7172,10.705,5.8537,-2.9412,3.9216,3.6423,8.6957,-2.0163,12.557,-2.9412,3.9216,4.902,-7.619,-4.8254,-3.6825,6.7961,4.8953,-4.9761,5.8413,-11.823,0.83736
2.7172,6.859,4.878,-1.9608,5.8824,0.71545,3.8647,-1.0407,7.7023,-1.9608,5.8824,2.9412,-7.619,-1.0159,0.12698,6.7961,5.8615,-2.1053,4.8889,-5.9113,2.7697
-0.12638,2.0513,0.97561,-5.8824,2.9412,-2.2114,1.9324,-5.9187,2.8479,-5.8824,2.9412,0.0,-6.6667,-1.9683,0.12698,3.8835,1.0306,-1.1483,3.9365,-3.9409,1.8035
-2.97,-0.83333,-5.8537,-4.902,-6.8627,-5.1382,-1.9324,-3.9675,-1.0356,-4.902,-6.8627,-4.902,-6.6667,-1.9683,-0.8254,0.0,-3.8003,-0.19139,-0.8254,-0.98522,-0.12882
-2.0221,-4.6795,-6.8293,-7.8431,-4.902,-4.1626,-4.8309,-5.9187,-0.06472,-7.8431,-4.902,-4.902,-4.7619,-2.9206,-0.8254,-1.9417,-6.6989,-0.19139,-3.6825,1.9704,0.83736
-1.0742,-6.6026,-4.878,-9.8039,-4.902,-0.26016,-5.7971,-6.8943,-2.0065,-9.8039,-4.902,-2.9412,-2.8571,-5.7778,-0.8254,-5.8252,-8.6312,-2.1053,-2.7302,0.98522,-3.0274
4.613,-4.6795,2.9268,2.9412,1.9608,3.6423,0.96618,2.8618,-1.0356,2.9412,1.9608,3.9216,0.0,-3.873,2.9841,-3.8835,-3.8003,4.5933,-1.7778,3.9409,-3.0274
1.7694,-4.6795,1.9512,6.8627,1.9608,1.6911,0.0,3.8374,0.90615,6.8627,1.9608,2.9412,-1.9048,-4.8254,2.9841,-3.8835,-2.8341,-0.19139,-2.7302,0.98522,-3.9936
-3.9179,-6.6026,-3.9024,1.9608,0.98039,-0.26016,-0.96618,-0.06504,3.8188,1.9608,0.98039,0.0,-4.7619,-6.7302,0.12698,-4.8544,-2.8341,-1.1483,2.0317,-4.9261,-4.9597
-9.6051,-4.6795,-8.7805,-3.9216,-3.9216,-5.1382,-1.9324,-4.9431,2.8479,-3.9216,-3.9216,-4.902,-4.7619,-7.6825,-2.7302,-2.9126,-3.8003,-3.0622,2.0317,-3.9409,-3.9936
-9.6051,-1.7949,-7.8049,-6.8627,-3.9216,-6.1138,-1.9324,-8.8455,0.90615,-6.8627,-3.9216,-5.8824,-7.619,-7.6825,-4.6349,-1.9417,-4.7665,-4.0191,3.9365,-8.867,-2.0612
-9.6051,-3.7179,-5.8537,-4.902,0.98039,-7.0894,-3.8647,-2.9919,2.8479,-4.902,0.98039,-5.8824,-7.619,-7.6825,-7.4921,-3.8835,-6.6989,-4.0191,3.9365,-9.8522,-3.9936
-7.7093,-4.6795,-3.9024,0.98039,-1.9608,-7.0894,-6.7633,-0.06504,1.877,0.98039,-1.9608,-6.8627,-3.8095,-5.7778,-7.4921,-5.8252,-6.6989,-1.1483,-0.8254,-3.9409,-3.9936
-3.9179,-1.7949,-0.97561,4.902,-0.98039,-1.2358,-3.8647,2.8618,-0.06472,4.902,-0.98039,-3.9216,-0.95238,-1.9683,-6.5397,-2.9126,-3.8003,1.7225,-2.7302,0.0,-3.0274
-2.97,2.0513,0.0,0.98039,0.0,0.71545,0.0,1.8862,-1.0356,0.98039,0.0,-2.9412,0.95238,-1.9683,-6.5397,0.0,-1.868,-0.19139,-4.6349,0.98522,-2.0612
-2.97,3.0128,-0.97561,0.0,-3.9216,1.6911,0.0,0.91057,-0.06472,0.0,-3.9216,-1.9608,-1.9048,-1.9683,-6.5397,0.97087,-0.90177,0.76555,-0.8254,-1.9704,-3.0274
-2.97,0.12821,-0.97561,0.98039,-0.98039,-0.26016,0.0,0.91057,2.8479,0.98039,-0.98039,0.0,2.8571,2.7937,-3.6825,1.9417,1.9968,0.76555,1.0794,-0.98522,-2.0612
-2.0221,-1.7949,0.97561,1.9608,1.9608,-1.2358,-1.9324,1.8862,0.90615,1.9608,1.9608,-0.98039,7.619,5.6508,0.12698,2.9126,2.963,1.7225,-1.7778,2.9557,-0.12882
-2.97,-1.7949,0.0,0.98039,0.0,-1.2358,-3.8647,-2.0163,-3.9482,0.98039,0.0,-1.9608,8.5714,6.6032,1.0794,2.9126,2.963,0.76555,-1.7778,0.98522,-0.12882
-2.97,-2.7564,-3.9024,-0.98039,-4.902,-0.26016,-4.8309,-5.9187,-3.9482,-0.98039,-4.902,-2.9412,7.619,6.6032,2.0317,2.9126,1.9968,-1.1483,-5.5873,3.9409,1.8035
-4.8657,-4.6795,-5.8537,-2.9412,-4.902,-4.1626,-8.6957,-2.9919,-3.9482,-2.9412,-4.902,-5.8824,4.7619,5.6508,1.0794,1.9417,-0.90177,-5.933,-2.7302,4.9261,3.7359
-3.9179,-1.7949,-2.9268,1.9608,5.8824,-5.1382,-4.8309,0.91057,0.90615,1.9608,5.8824,-4.902,4.7619,4.6984,-0.8254,1.9417,-2.8341,-4.9761,2.0317,1.9704,4.7021
-4.8657,-2.7564,-3.9024,-0.98039,-0.98039,-7.0894,-3.8647,-3.9675,0.90615,-0.98039,-0.98039,-5.8824,2.8571,1.8413,-3.6825,0.0,-6.6989,-3.0622,0.12698,0.98522,3.7359
-4.8657,-4.6795,-6.8293,-1.9608,-5.8824,-6.1138,-3.8647,-4.9431,-3.9482,-1.9608,-5.8824,-5.8824,0.95238,-0.06349,-6.5397,-2.9126,-10.564,-6.89,-0.8254,-1.9704,3.7359
-1.0742,-3.7179,-5.8537,-0.98039,-4.902,-1.2358,-3.8647,-2.0163,-2.0065,-0.98039,-4.902,-2.9412,-0.95238,-1.9683,-3.6825,-1.9417,-9.5974,-1.1483,1.0794,-1.9704,4.7021
2.7172,-2.7564,-2.9268,0.0,0.0,0.71545,-2.8986,0.91057,-2.9773,0.0,0.0,0.0,-2.8571,-5.7778,-1.7778,-1.9417,-8.6312,2.6794,1.0794,0.98522,4.7021
3.6651,0.12821,1.9512,-0.98039,5.8824,0.71545,-1.9324,1.8862,-1.0356,-0.98039,5.8824,0.98039,-3.8095,-5.7778,-0.8254,-0.97087,-6.6989,-1.1483,0.12698,1.9704,2.7697
5.5608,4.9359,7.8049,2.9412,5.8824,3.6423,3.8647,2.8618,4.7896,2.9412,5.8824,4.902,-2.8571,-4.8254,2.0317,2.9126,-1.868,2.6794,1.0794,2.9557,3.7359
4.613,3.0128,6.8293,1.9608,3.9216,3.6423,2.8986,1.8862,4.7896,1.9608,3.9216,4.902,-3.8095,-3.873,2.0317,1.9417,-0.90177,5.5502,1.0794,0.0,1.8035
1.7694,0.12821,0.0,0.98039,0.98039,1.6911,1.9324,-1.0407,-0.06472,0.98039,0.98039,2.9412,-5.7143,-6.7302,-1.7778,-0.97087,-2.8341,0.76555,0.12698,-1.9704,-1.095
-0.12638,2.0513,-2.9268,1.9608,5.8824,1.6911,3.8647,1.8862,-1.0356,1.9608,5.8824,2.9412,-4.7619,-4.8254,-1.7778,0.0,-1.868,2.6794,0.12698,-0.98522,0.83736
-3.9179,2.0513,-4.878,3.9216,8.8235,-2.2114,0.0,1.8862,2.8479,3.9216,8.8235,-0.98039,-2.8571,-1.9683,-1.7778,1.9417,0.06441,0.76555,-0.8254,0.0,2.7697
-3.9179,0.12821,-3.9024,3.9216,2.9412,-4.1626,-1.9324,-1.0407,1.877,3.9216,2.9412,-3.9216,-1.9048,-1.0159,-0.8254,2.9126,1.0306,-1.1483,1.0794,0.0,2.7697
-0.12638,1.0897,0.97561,2.9412,2.9412,-0.26016,-0.96618,-0.06504,2.8479,2.9412,2.9412,-0.98039,0.95238,0.88889,2.0317,3.8835,4.8953,-0.19139,2.0317,0.0,1.8035
4.613,3.0128,5.8537,2.9412,2.9412,4.6179,2.8986,1.8862,0.90615,2.9412,2.9412,3.9216,0.0,-0.06349,3.9365,3.8835,6.8277,2.6794,-0.8254,0.98522,0.83736
6.5087,3.0128,2.9268,5.8824,4.902,7.5447,4.8309,4.813,2.8479,5.8824,4.902,6.8627,0.0,-0.06349,6.7937,1.9417,6.8277,4.5933,2.0317,1.9704,-1.095
6.5087,3.0128,0.97561,6.8627,6.8627,9.4959,4.8309,7.7398,2.8479,6.8627,6.8627,7.8431,2.8571,0.88889,8.6984,1.9417,6.8277,4.5933,3.9365,4.9261,-0.12882
6.5087,3.0128,1.9512,3.9216,2.9412,7.5447,0.96618,7.7398,0.90615,3.9216,2.9412,4.902,1.9048,0.88889,6.7937,1.9417,5.8615,3.6364,1.0794,4.9261,0.83736
7.4566,2.0513,5.8537,3.9216,4.902,8.5203,0.96618,5.7886,1.877,3.9216,4.902,4.902,1.9048,1.8413,7.746,1.9417,6.8277,8.4211,-0.8254,1.9704,0.83736
9.3523,1.0897,9.7561,3.9216,-0.98039,6.5691,0.96618,6.7642,-2.9773,3.9216,-0.98039,4.902,2.8571,1.8413,9.6508,0.97087,6.8277,7.4641,0.12698,4.9261,0.83736
9.3523,3.9744,11.707,4.902,-4.902,5.5935,4.8309,6.7642,-5.89,4.902,-4.902,5.8824,3.8095,2.7937,9.6508,1.9417,7.7939,4.5933,-2.7302,6.8966,1.8035
9.3523,5.8974,9.7561,4.902,0.0,7.5447,5.7971,2.8618,-4.9191,4.902,0.0,6.8627,3.8095,3.746,9.6508,3.8835,7.7939,4.5933,-0.8254,7.8818,1.8035
10.3,4.9359,5.8537,3.9216,6.8627,8.5203,3.8647,4.813,0.90615,3.9216,6.8627,7.8431,2.8571,1.8413,9.6508,2.9126,5.8615,3.6364,-0.8254,8.867,2.7697
7.4566,3.9744,4.878,1.9608,3.9216,6.5691,0.0,4.813,2.8479,1.9608,3.9216,4.902,1.9048,0.88889,6.7937,2.9126,1.9968,3.6364,-2.7302,8.867,3.7359
5.5608,-1.7949,4.878,-2.9412,-5.8824,1.6911,-5.7971,-1.0407,-4.9191,-2.9412,-5.8824,-0.98039,1.9048,-0.06349,3.9365,0.97087,-0.90177,0.76555,-2.7302,4.9261,2.7697
3.6651,-4.6795,3.9024,-6.8627,-14.706,-2.2114,-7.7295,-3.9675,-12.686,-6.8627,-14.706,-4.902,0.0,-0.06349,2.9841,0.0,-1.868,-1.1483,-2.7302,1.9704,2.7697
-2.0221,-3.7179,-0.97561,-6.8627,-10.784,-6.1138,-7.7295,-4.9431,-8.8026,-6.8627,-10.784,-7.8431,0.95238,1.8413,2.0317,0.97087,-2.8341,-1.1483,-2.7302,3.9409,3.7359
-8.6572,-3.7179,-6.8293,-5.8824,-0.98039,-10.992,-9.6618,-3.9675,-1.0356,-5.8824,-0.98039,-8.8235,1.9048,2.7937,-2.7302,0.0,-5.7327,-4.0191,-1.7778,3.9409,4.7021
-10.553,-7.5641,-9.7561,-8.8235,-2.9412,-12.943,-11.594,-6.8943,-2.9773,-8.8235,-2.9412,-10.784,-0.95238,-1.0159,-6.5397,-3.8835,-9.5974,-5.933,-5.5873,0.98522,2.7697
-4.8657,-11.41,-8.7805,-6.8627,-10.784,-7.0894,-9.6618,-4.9431,-8.8026,-6.8627,-10.784,-7.8431,-3.8095,-4.8254,-5.5873,-9.7087,-13.462,-2.1053,-5.5873,1.9704,-3.0274
-0.12638,-10.449,-3.9024,-1.9608,-8.8235,-2.2114,-7.7295,1.8862,-6.8608,-1.9608,-8.8235,-3.9216,-3.8095,-4.8254,-2.7302,-10.68,-11.53,1.7225,-4.6349,1.9704,-6.8921
1.7694,-7.5641,0.97561,5.8824,-0.98039,-0.26016,-5.7971,3.8374,-2.9773,5.8824,-0.98039,-0.98039,-3.8095,-4.8254,-0.8254,-8.7379,-7.6651,5.5502,-4.6349,0.98522,-6.8921
0.82148,-5.641,0.97561,4.902,2.9412,0.71545,-6.7633,4.813,-0.06472,4.902,2.9412,-0.98039,-4.7619,-6.7302,-2.7302,-9.7087,-6.6989,3.6364,-3.6825,-0.98522,-8.8245
-2.0221,-5.641,-0.97561,0.98039,4.902,1.6911,-4.8309,3.8374,-1.0356,0.98039,4.902,-0.98039,-6.6667,-6.7302,-7.4921,-8.7379,-7.6651,-0.19139,-1.7778,-5.9113,-9.7907
-4.8657,-4.6795,-6.8293,0.0,0.0,0.71545,-2.8986,1.8862,0.90615,0.0,0.0,-2.9412,-4.7619,-4.8254,-8.4444,-7.767,-6.6989,-2.1053,-0.8254,-6.8966,-7.8583
-3.9179,-4.6795,-9.7561,0.98039,1.9608,1.6911,0.0,-0.06504,2.8479,0.98039,1.9608,-1.9608,-4.7619,-2.9206,-6.5397,-6.7961,-3.8003,2.6794,-1.7778,-4.9261,-4.9597
-5.8136,-6.6026,-10.732,0.0,2.9412,-2.2114,-4.8309,2.8618,4.7896,0.0,2.9412,-3.9216,-3.8095,-2.9206,-5.5873,-7.767,-5.7327,-0.19139,-2.7302,-5.9113,-6.8921
-7.7093,-10.449,-9.7561,2.9412,1.9608,-5.1382,-7.7295,2.8618,2.8479,2.9412,1.9608,-4.902,-3.8095,-4.8254,-8.4444,-9.7087,-7.6651,-1.1483,-0.8254,-6.8966,-8.8245
-5.8136,-7.5641,-5.8537,4.902,-1.9608,-2.2114,-4.8309,1.8862,-2.9773,4.902,-1.9608,-2.9412,-2.8571,-2.9206,-5.5873,-6.7961,-3.8003,-0.19139,2.0317,-4.9261,-3.9936
-4.8657,-3.7179,-1.9512,1.9608,0.0,-0.26016,-0.96618,1.8862,-0.06472,1.9608,0.0,0.0,-3.8095,-3.873,-5.5873,-4.8544,-2.8341,-0.19139,2.0317,-5.9113,-2.0612
-1.0742,0.12821,1.9512,0.0,0.0,2.6667,5.7971,-2.0163,6.7314,0.0,0.0,4.902,-3.8095,-3.873,-2.7302,-3.8835,0.06441,0.76555,3.9365,-4.9261,-0.12882
2.7172,3.0128,2.9268,4.902,7.8431,4.6179,8.6957,0.91057,7.7023,4.902,7.8431,7.8431,-1.9048,-3.873,0.12698,0.0,1.9968,2.6794,3.9365,-1.9704,0.83736
1.7694,4.9359,0.97561,7.8431,9.8039,1.6911,6.7633,1.8862,6.7314,7.8431,9.8039,5.8824,-2.8571,-2.9206,0.12698,1.9417,2.963,-2.1053,3.9365,-3.9409,2.7697
1.7694,6.859,1.9512,6.8627,7.8431,1.6911,5.7971,1.8862,5.7605,6.8627,7.8431,4.902,-0.95238,-0.06349,1.0794,3.8835,2.963,-2.1053,1.0794,-0.98522,3.7359
-2.0221,0.12821,-1.9512,0.98039,2.9412,-1.2358,0.96618,-3.9675,2.8479,0.98039,2.9412,0.0,-1.9048,-0.06349,-2.7302,0.0,-2.8341,-0.19139,2.0317,0.0,-0.12882
-3.9179,-3.7179,-5.8537,-4.902,-7.8431,-1.2358,-2.8986,-5.9187,-1.0356,-4.902,-7.8431,-1.9608,-3.8095,-1.9683,-5.5873,-2.9126,-6.6989,-1.1483,1.0794,-1.9704,-2.0612
-0.12638,-1.7949,-2.9268,-4.902,-1.9608,4.6179,2.8986,0.91057,-2.0065,-4.902,-1.9608,2.9412,-5.7143,-2.9206,-6.5397,-3.8835,-6.6989,0.76555,2.0317,-5.9113,-3.9936
0.82148,-1.7949,-2.9268,0.98039,5.8824,4.6179,4.8309,2.8618,4.7896,0.98039,5.8824,5.8824,-6.6667,-2.9206,-6.5397,-5.8252,-7.6651,-2.1053,3.9365,-6.8966,-2.0612
-4.8657,-3.7179,-8.7805,5.8824,4.902,-4.1626,1.9324,-1.0407,5.7605,5.8824,4.902,0.0,-2.8571,-1.9683,-5.5873,-5.8252,-6.6989,-4.9761,2.9841,-3.9409,-0.12882
-11.501,-6.6026,-13.659,0.0,0.98039,-8.065,-4.8309,-2.9919,0.90615,0.0,0.98039,-7.8431,-2.8571,-4.8254,-6.5397,-8.7379,-7.6651,-5.933,0.12698,-1.9704,-4.9597
-9.6051,-6.6026,-11.707,1.9608,-1.9608,-5.1382,-3.8647,-2.0163,-2.9773,1.9608,-1.9608,-6.8627,-0.95238,-3.873,-5.5873,-6.7961,-5.7327,-1.1483,-0.8254,-0.98522,-4.9597
-6.7615,-6.6026,-9.7561,-0.98039,-5.8824,-2.2114,-1.9324,1.8862,-5.89,-0.98039,-5.8824,-4.902,-0.95238,-1.9683,-3.6825,-4.8544,-2.8341,1.7225,-2.7302,-0.98522,-4.9597
-1.0742,-2.7564,-5.8537,-0.98039,-1.9608,-1.2358,-2.8986,3.8374,-1.0356,-0.98039,-1.9608,-3.9216,-0.95238,-1.0159,-1.7778,-0.97087,-0.90177,5.5502,-4.6349,-0.98522,-1.095
-2.0221,-4.6795,-5.8537,-1.9608,-3.9216,-6.1138,-10.628,1.8862,-2.0065,-1.9608,-3.9216,-7.8431,-2.8571,-1.9683,-2.7302,-2.9126,-3.8003,2.6794,-2.7302,-2.9557,-2.0612
0.82148,-1.7949,-0.97561,2.9412,-2.9412,-4.1626,-6.7633,1.8862,-4.9191,2.9412,-2.9412,-4.902,0.0,0.88889,0.12698,0.0,0.06441,4.5933,2.0317,0.0,-1.095
3.6651,1.0897,3.9024,0.98039,-1.9608,-0.26016,-1.9324,1.8862,-2.9773,0.98039,-1.9608,-0.98039,2.8571,4.6984,3.9365,2.9126,3.9291,1.7225,1.0794,0.0,-0.12882
5.5608,-1.7949,5.8537,-1.9608,0.0,1.6911,1.9324,2.8618,-2.9773,-1.9608,0.0,1.9608,3.8095,3.746,6.7937,0.97087,4.8953,3.6364,0.12698,0.98522,-2.0612
8.4044,-2.7564,6.8293,-7.8431,-2.9412,6.5691,1.9324,2.8618,-2.9773,-7.8431,-2.9412,3.9216,2.8571,2.7937,7.746,-0.97087,4.8953,8.4211,-0.8254,3.9409,-4.9597
8.4044,-0.83333,9.7561,3.9216,2.9412,5.5935,1.9324,5.7886,1.877,3.9216,2.9412,5.8824,0.0,2.7937,5.8413,0.97087,3.9291,8.4211,1.0794,1.9704,-2.0612
4.613,3.9744,10.732,14.706,6.8627,5.5935,4.8309,9.6911,4.7896,14.706,6.8627,7.8431,0.95238,1.8413,2.9841,2.9126,3.9291,6.5072,-0.8254,0.0,1.8035
0.82148,5.8974,9.7561,8.8235,3.9216,6.5691,4.8309,8.7154,-0.06472,8.8235,3.9216,7.8431,-2.8571,-0.06349,2.0317,3.8835,3.9291,1.7225,-3.6825,-0.98522,0.83736
3.6651,3.0128,9.7561,4.902,-0.98039,6.5691,5.7971,6.7642,-1.0356,4.902,-0.98039,7.8431,0.95238,0.88889,5.8413,2.9126,4.8953,3.6364,1.0794,2.9557,0.83736
4.613,0.12821,6.8293,-2.9412,-5.8824,8.5203,6.7633,4.813,-2.0065,-2.9412,-5.8824,6.8627,2.8571,0.88889,6.7937,2.9126,5.8615,3.6364,3.9365,3.9409,-1.095
5.5608,2.0513,7.8049,1.9608,0.98039,5.5935,6.7633,3.8374,-0.06472,1.9608,0.98039,6.8627,0.95238,0.88889,6.7937,2.9126,7.7939,4.5933,1.0794,0.98522,-3.0274
6.5087,2.0513,7.8049,6.8627,4.902,2.6667,3.8647,4.813,0.90615,6.8627,4.902,4.902,-1.9048,-0.06349,5.8413,0.97087,5.8615,2.6794,2.0317,-2.9557,-2.0612
4.613,4.9359,6.8293,4.902,6.8627,2.6667,5.7971,2.8618,2.8479,4.902,6.8627,5.8824,-1.9048,-0.06349,3.9365,0.97087,3.9291,0.76555,2.0317,-1.9704,-1.095
7.4566,8.7821,9.7561,0.98039,0.98039,6.5691,8.6957,2.8618,2.8479,0.98039,0.98039,8.8235,1.9048,2.7937,5.8413,4.8544,6.8277,0.76555,2.9841,1.9704,1.8035
9.3523,8.7821,9.7561,1.9608,1.9608,9.4959,10.628,4.813,-0.06472,1.9608,1.9608,10.784,3.8095,4.6984,7.746,3.8835,5.8615,0.76555,0.12698,1.9704,2.7697
5.5608,3.9744,5.8537,5.8824,4.902,7.5447,8.6957,7.7398,1.877,5.8824,4.902,9.8039,2.8571,3.746,5.8413,0.97087,3.9291,-0.19139,0.12698,0.0,-1.095
2.7172,1.0897,1.9512,9.8039,8.8235,5.5935,8.6957,3.8374,4.7896,9.8039,8.8235,7.8431,1.9048,1.8413,4.8889,-0.97087,2.963,0.76555,4.8889,-0.98522,-2.0612
0.82148,1.0897,0.97561,9.8039,5.8824,4.6179,5.7971,0.91057,3.8188,9.8039,5.8824,6.8627,-1.9048,-1.0159,1.0794,-1.9417,1.9968,-0.19139,2.9841,0.98522,-2.0612
1.7694,3.0128,1.9512,6.8627,5.8824,6.5691,4.8309,2.8618,1.877,6.8627,5.8824,6.8627,0.95238,-0.06349,-0.8254,-0.97087,1.9968,1.7225,2.9841,2.9557,-0.12882
-2.0221,1.0897,-0.97561,0.0,3.9216,3.6423,0.96618,-2.0163,-1.0356,0.0,3.9216,0.98039,2.8571,1.8413,-2.7302,-1.9417,-0.90177,-0.19139,1.0794,0.98522,-0.12882
-5.8136,0.12821,-4.878,-8.8235,-4.902,-4.1626,0.0,-3.9675,-2.0065,-8.8235,-4.902,-3.9216,1.9048,3.746,-6.5397,-0.97087,-3.8003,-5.933,1.0794,0.0,2.7697
-5.8136,0.12821,-4.878,0.0,-4.902,-5.1382,0.0,-3.9675,-2.9773,0.0,-4.902,-2.9412,0.95238,3.746,-8.4444,-0.97087,-5.7327,-8.8038,0.12698,-1.9704,3.7359
-4.8657,-1.7949,-4.878,1.9608,-2.9412,-3.187,-0.96618,-2.9919,-0.06472,1.9608,-2.9412,-1.9608,0.95238,4.6984,-8.4444,-1.9417,-4.7665,-4.0191,-1.7778,-5.9113,0.83736
-3.9179,-2.7564,-3.9024,-2.9412,-1.9608,-3.187,0.0,-2.9919,-1.0356,-2.9412,-1.9608,-2.9412,5.7143,8.5079,-3.6825,0.0,-0.90177,-1.1483,-2.7302,-1.9704,2.7697
-5.8136,-2.7564,-6.8293,-1.9608,0.0,-6.1138,-3.8647,-1.0407,-3.9482,-1.9608,0.0,-5.8824,10.476,11.365,-2.7302,1.9417,1.9968,-1.1483,-0.8254,-2.9557,3.7359
-5.8136,-4.6795,-6.8293,-3.9216,-5.8824,-8.065,-5.7971,-0.06504,-3.9482,-3.9216,-5.8824,-7.8431,11.429,10.413,-2.7302,0.0,2.963,-1.1483,-1.7778,-4.9261,1.8035
-4.8657,-4.6795,-4.878,-8.8235,-7.8431,-8.065,-5.7971,-4.9431,-3.9482,-8.8235,-7.8431,-8.8235,7.619,11.365,-0.8254,0.97087,3.9291,-2.1053,-2.7302,-2.9557,-0.12882
-4.8657,-1.7949,-2.9268,-7.8431,-5.8824,-7.0894,-4.8309,-5.9187,-3.9482,-7.8431,-5.8824,-6.8627,5.7143,10.413,0.12698,2.9126,3.9291,-0.19139,-2.7302,0.98522,0.83736
-6.7615,1.0897,-4.878,-9.8039,-7.8431,-7.0894,-2.8986,-4.9431,-2.9773,-9.8039,-7.8431,-6.8627,8.5714,13.27,2.9841,6.7961,4.8953,-2.1053,-1.7778,4.9261,4.7021
-5.8136,2.0513,-6.8293,-2.9412,-2.9412,-8.065,-1.9324,-2.0163,-0.06472,-2.9412,-2.9412,-5.8824,9.5238,13.27,5.8413,7.767,5.8615,1.7225,-3.6825,5.9113,7.6006
-4.8657,-0.83333,-7.8049,-0.98039,-3.9216,-8.065,-3.8647,-0.06504,-2.9773,-0.98039,-3.9216,-5.8824,7.619,10.413,4.8889,4.8544,2.963,-1.1483,-5.5873,3.9409,4.7021
-4.8657,-5.641,-7.8049,-2.9412,0.98039,-5.1382,-1.9324,-2.9919,-4.9191,-2.9412,0.98039,-4.902,4.7619,8.5079,1.0794,1.9417,0.06441,-3.0622,-4.6349,3.9409,3.7359
-3.9179,-6.6026,-5.8537,-2.9412,-2.9412,-1.2358,-1.9324,-5.9187,-2.0065,-2.9412,-2.9412,-1.9608,4.7619,7.5556,2.0317,0.97087,0.06441,-4.0191,-0.8254,3.9409,0.83736
-0.12638,-4.6795,-1.9512,0.0,-0.98039,0.71545,-0.96618,-3.9675,-0.06472,0.0,-0.98039,0.0,3.8095,5.6508,3.9365,1.9417,1.0306,-1.1483,-0.8254,3.9409,-0.12882
-2.0221,-2.7564,-3.9024,1.9608,0.0,-2.2114,-1.9324,0.91057,-5.89,1.9608,0.0,-1.9608,3.8095,4.6984,1.0794,3.8835,1.0306,-4.0191,-1.7778,-0.98522,2.7697
-2.0221,0.12821,-2.9268,0.98039,-0.98039,-2.2114,0.0,0.91057,-3.9482,0.98039,-0.98039,-0.98039,7.619,7.5556,1.0794,6.7961,2.963,-3.0622,-1.7778,-0.98522,7.6006
-0.12638,2.0513,-0.97561,0.0,-3.9216,-0.26016,-0.96618,-2.0163,-3.9482,0.0,-3.9216,0.0,6.6667,8.5079,2.0317,8.7379,4.8953,0.76555,-2.7302,-0.98522,9.533
3.6651,2.0513,4.878,0.0,0.98039,1.6911,-1.9324,-1.0407,-2.0065,0.0,0.98039,0.98039,5.7143,7.5556,2.9841,8.7379,5.8615,1.7225,-0.8254,0.0,9.533
2.7172,1.0897,5.8537,-0.98039,1.9608,-2.2114,-1.9324,-5.9187,-2.0065,-0.98039,1.9608,0.0,0.95238,2.7937,2.0317,3.8835,4.8953,-1.1483,-0.8254,-3.9409,3.7359
6.5087,1.0897,6.8293,0.98039,0.98039,-0.26016,0.0,-3.9675,-2.0065,0.98039,0.98039,1.9608,0.0,0.88889,3.9365,3.8835,6.8277,-1.1483,1.0794,-4.9261,-0.12882
9.3523,2.0513,8.7805,1.9608,-0.98039,4.6179,4.8309,-0.06504,-0.06472,1.9608,-0.98039,4.902,0.0,-0.06349,6.7937,3.8835,7.7939,3.6364,2.0317,-0.98522,-1.095
10.3,3.9744,11.707,0.0,2.9412,6.5691,3.8647,2.8618,-0.06472,0.0,2.9412,5.8824,0.0,-0.06349,6.7937,4.8544,7.7939,2.6794,0.12698,-1.9704,1.8035
8.4044,4.9359,14.634,0.98039,2.9412,5.5935,3.8647,1.8862,-1.0356,0.98039,2.9412,6.8627,1.9048,2.7937,5.8413,5.8252,8.7601,3.6364,0.12698,-2.9557,3.7359
2.7172,5.8974,12.683,-1.9608,-2.9412,1.6911,1.9324,-2.0163,-2.0065,-1.9608,-2.9412,2.9412,0.95238,2.7937,2.9841,5.8252,9.7262,2.6794,-3.6825,-2.9557,4.7021
-0.12638,4.9359,7.8049,-5.8824,-1.9608,-1.2358,0.0,-2.9919,-2.0065,-5.8824,-1.9608,0.0,-0.95238,2.7937,0.12698,6.7961,7.7939,-1.1483,0.12698,-0.98522,4.7021
-3.9179,3.9744,0.0,-4.902,-2.9412,-3.187,-3.8647,-2.0163,-1.0356,-4.902,-2.9412,-3.9216,-1.9048,0.88889,-2.7302,6.7961,6.8277,-4.0191,4.8889,-2.9557,3.7359
-3.9179,3.0128,-0.97561,0.0,-1.9608,-3.187,-2.8986,-2.9919,-0.06472,0.0,-1.9608,-3.9216,-3.8095,-1.9683,-2.7302,3.8835,5.8615,-6.89,3.9365,-5.9113,0.83736
-2.0221,2.0513,2.9268,-1.9608,0.0,-2.2114,-2.8986,-1.0407,-1.0356,-1.9608,0.0,-1.9608,-1.9048,-2.9206,-0.8254,2.9126,5.8615,-2.1053,2.0317,-1.9704,-1.095
-2.0221,0.12821,1.9512,-2.9412,-5.8824,-3.187,-1.9324,-1.0407,-4.9191,-2.9412,-5.8824,-2.9412,-2.8571,-3.873,-1.7778,0.97087,1.9968,-0.19139,0.12698,-1.9704,0.83736
-5.8136,0.12821,0.0,-5.8824,-5.8824,-6.1138,-2.8986,-5.9187,-2.0065,-5.8824,-5.8824,-4.902,-4.7619,-2.9206,-4.6349,1.9417,0.06441,-5.933,0.12698,-1.9704,2.7697
-5.8136,1.0897,-3.9024,-6.8627,-2.9412,-8.065,-5.7971,-6.8943,-2.0065,-6.8627,-2.9412,-7.8431,-4.7619,-2.9206,-4.6349,3.8835,1.0306,-4.9761,-0.8254,0.98522,4.7021
-4.8657,-0.83333,-7.8049,-1.9608,-5.8824,-8.065,-8.6957,-0.06504,-4.9191,-1.9608,-5.8824,-10.784,-1.9048,-2.9206,-2.7302,3.8835,0.06441,-0.19139,-1.7778,4.9261,3.7359
-6.7615,-5.641,-10.732,-4.902,-5.8824,-8.065,-10.628,-1.0407,-2.9773,-4.902,-5.8824,-11.765,-3.8095,-3.873,-3.6825,-0.97087,-1.868,-2.1053,-2.7302,4.9261,-1.095
-3.9179,-5.641,-7.8049,-3.9216,-3.9216,-3.187,-6.7633,-3.9675,-1.0356,-3.9216,-3.9216,-7.8431,-2.8571,-3.873,-0.8254,-3.8835,-3.8003,-1.1483,-1.7778,5.9113,-3.0274
3.6651,-0.83333,0.97561,0.0,-6.8627,4.6179,1.9324,0.91057,-4.9191,0.0,-6.8627,0.0,-1.9048,-5.7778,2.9841,-4.8544,-3.8003,2.6794,-1.7778,6.8966,-4.9597
5.5608,0.12821,4.878,0.98039,0.98039,5.5935,3.8647,4.813,-2.0065,0.98039,0.98039,3.9216,-0.95238,-6.7302,2.0317,-5.8252,-3.8003,4.5933,-2.7302,6.8966,-4.9597
5.5608,0.12821,3.9024,4.902,5.8824,4.6179,3.8647,3.8374,4.7896,4.902,5.8824,5.8824,-2.8571,-5.7778,-1.7778,-4.8544,-5.7327,3.6364,-1.7778,3.9409,-4.9597
6.5087,5.8974,4.878,3.9216,5.8824,4.6179,4.8309,-0.06504,2.8479,3.9216,5.8824,5.8824,-0.95238,-3.873,-0.8254,0.0,-3.8003,2.6794,3.9365,3.9409,-2.0612
6.5087,9.7436,4.878,0.0,2.9412,4.6179,4.8309,-1.0407,5.7605,0.0,2.9412,3.9216,0.95238,0.88889,1.0794,3.8835,-0.90177,2.6794,5.8413,3.9409,1.8035
5.5608,8.7821,5.8537,2.9412,0.0,3.6423,5.7971,-2.0163,3.8188,2.9412,0.0,3.9216,2.8571,2.7937,1.0794,4.8544,0.06441,1.7225,3.9365,7.8818,4.7021
2.7172,3.9744,3.9024,0.0,-0.98039,-0.26016,2.8986,-0.06504,1.877,0.0,-0.98039,1.9608,1.9048,0.88889,1.0794,0.0,-2.8341,-0.19139,1.0794,7.8818,2.7697
2.7172,2.0513,2.9268,-1.9608,2.9412,0.71545,3.8647,-0.06504,4.7896,-1.9608,2.9412,3.9216,-2.8571,-3.873,1.0794,-3.8835,-6.6989,-3.0622,-0.8254,4.9261,0.83736
1.7694,3.0128,3.9024,2.9412,6.8627,2.6667,4.8309,2.8618,7.7023,2.9412,6.8627,4.902,-3.8095,-5.7778,1.0794,-2.9126,-5.7327,0.76555,2.0317,3.9409,0.83736
3.6651,7.8205,4.878,12.745,13.725,8.5203,10.628,8.7154,10.615,12.745,13.725,9.8039,-0.95238,-1.9683,2.0317,2.9126,-0.90177,4.5933,6.7937,6.8966,4.7021
2.7172,6.859,0.97561,19.608,18.627001,10.472,9.6618,10.667,11.586,19.608,18.627001,9.8039,-0.95238,-1.9683,2.0317,3.8835,-0.90177,3.6364,2.9841,5.9113,3.7359
3.6651,3.0128,-2.9268,32.353001,33.333,13.398,9.6618,15.545,8.6731,32.353001,33.333,9.8039,-2.8571,-2.9206,1.0794,0.97087,-3.8003,2.6794,0.12698,4.9261,2.7697
6.5087,3.0128,-0.97561,57.842999,56.862999,20.228001,14.493,24.325001,20.323999,57.842999,56.862999,15.686,0.95238,-1.9683,3.9365,0.97087,-2.8341,4.5933,3.9365,6.8966,2.7697
10.3,4.9359,2.9268,88.235001,84.314003,27.056999,21.256001,33.105999,30.032,88.235001,84.314003,23.528999,4.7619,0.88889,6.7937,2.9126,-0.90177,10.335,7.746,6.8966,2.7697
16.934999,10.705,9.7561,105.879997,101.959999,33.886002,28.018999,37.984001,31.003,105.879997,101.959999,32.353001,8.5714,6.6032,13.46,7.767,4.8953,14.163,8.6984,10.837,7.6006
23.57,17.436001,17.561001,124.510002,117.650002,38.764,32.849998,47.740002,38.77,124.510002,117.650002,39.216,13.333,11.365,21.079,13.592,12.625,17.99,10.603,16.749001,11.465
26.414,18.396999,19.511999,124.510002,124.510002,40.715,36.715,55.544998,38.77,124.510002,124.510002,42.157001,14.286,11.365,22.983999,13.592,15.523,20.861,11.556,16.749001,11.465
26.414,19.358999,19.511999,116.669998,112.75,41.691002,35.749001,45.789001,37.799,116.669998,112.75,41.175999,11.429,8.5079,21.079,12.621,15.523,16.077,13.46,13.793,7.6006
26.414,19.358999,22.438999,105.879997,100.0,36.813,31.884001,40.910999,37.799,105.879997,100.0,38.235001,9.5238,7.5556,19.174999,13.592,16.49,16.077,9.6508,12.808,6.6345
28.309999,21.282,27.316999,96.078003,91.176003,34.862,31.884001,39.935001,31.974001,96.078003,91.176003,37.255001,12.381,9.4603,22.032,14.563,17.455999,20.861,13.46,10.837,8.5668
24.518,17.436001,25.365999,73.528999,71.569,29.983999,28.986,30.179001,28.091,73.528999,71.569,31.372999,8.5714,3.746,17.27,9.7087,14.557,17.033001,14.413,8.867,3.7359
15.039,12.628,17.561001,50.0,47.058998,20.228001,18.357,21.398001,22.264999,50.0,47.058998,20.587999,2.8571,0.88889,10.603,4.8544,11.659,8.4211,9.6508,5.9113,-1.095
8.4044,8.7821,11.707,27.451,23.528999,11.447,11.594,6.7642,10.615,27.451,23.528999,12.745,0.95238,1.8413,6.7937,3.8835,11.659,5.5502,5.8413,2.9557,-0.12882
1.7694,4.9359,4.878,5.8824,3.9216,0.71545,1.9324,-1.0407,-0.06472,5.8824,3.9216,1.9608,-0.95238,2.7937,3.9365,4.8544,8.7601,-1.1483,0.12698,-0.98522,1.8035
-3.9179,2.0513,0.0,-8.8235,-7.8431,-9.0407,-1.9324,-5.9187,-2.0065,-8.8235,-7.8431,-4.902,0.0,4.6984,-0.8254,4.8544,5.8615,-5.933,1.0794,-3.9409,5.6683
-11.501,-4.6795,-6.8293,-24.51,-23.528999,-16.846001,-10.628,-17.625999,-5.89,-24.51,-23.528999,-12.745,-2.8571,-0.06349,-6.5397,-0.97087,0.06441,-9.7608,-0.8254,-8.867,-0.12882
-12.449,-9.4872,-8.7805,-33.333,-28.431,-21.724001,-14.493,-21.528,-7.8317,-33.333,-28.431,-15.686,-8.5714,-6.7302,-8.4444,-5.8252,-4.7665,-10.718,-1.7778,-7.8818,-3.9936
-10.553,-8.5256,-6.8293,-44.118,-38.235001,-17.820999,-15.459,-22.504,-10.744,-44.118,-38.235001,-15.686,-10.476,-9.5873,-7.4921,-5.8252,-6.6989,-12.632,-2.7302,-7.8818,-5.9259
-9.6051,-5.641,-5.8537,-39.216,-36.275002,-16.846001,-13.527,-18.601999,-10.744,-39.216,-36.275002,-13.725,-12.381,-13.397,-8.4444,-7.767,-7.6651,-7.8469,-1.7778,-8.867,-8.8245
-10.553,-4.6795,-5.8537,-38.235001,-35.293999,-15.87,-11.594,-16.65,-8.8026,-38.235001,-35.293999,-11.765,-14.286,-14.349,-10.349,-9.7087,-10.564,-4.9761,-2.7302,-10.837,-10.757
-6.7615,-1.7949,-1.9512,-38.235001,-38.235001,-10.992,-6.7633,-14.699,-8.8026,-38.235001,-38.235001,-6.8627,-10.476,-10.54,-8.4444,-6.7961,-7.6651,-2.1053,-6.5397,-7.8818,-7.8583
-2.97,-0.83333,0.0,-44.118,-45.098,-8.065,-5.7971,-17.625999,-11.715,-44.118,-45.098,-5.8824,-6.6667,-6.7302,-1.7778,-0.97087,0.06441,-4.0191,-4.6349,-2.9557,-3.9936
-1.0742,-1.7949,0.97561,-50.98,-48.039001,-10.992,-9.6618,-20.552999,-12.686,-50.98,-48.039001,-9.8039,-2.8571,-1.9683,3.9365,4.8544,6.8277,-4.9761,-2.7302,-0.98522,-0.12882
-0.12638,-2.7564,0.0,-58.824001,-54.902,-13.919,-12.56,-22.504,-18.511,-58.824001,-54.902,-13.725,0.95238,2.7937,8.6984,8.7379,11.659,-3.0622,-1.7778,0.98522,2.7697
-1.0742,-4.6795,-3.9024,-60.784,-58.824001,-17.820999,-18.357,-23.48,-22.395,-60.784,-58.824001,-18.627001,5.7143,5.6508,10.603,7.767,12.625,-4.0191,-1.7778,5.9113,1.8035
-2.97,-9.4872,-5.8537,-62.744999,-59.804001,-19.771999,-20.290001,-23.48,-23.365999,-62.744999,-59.804001,-21.569,9.5238,8.5079,10.603,5.8252,11.659,-2.1053,-2.7302,7.8818,4.7021
-5.8136,-11.41,-7.8049,-64.706001,-63.724998,-19.771999,-22.222,-23.48,-21.424,-64.706001,-63.724998,-22.549,8.5714,5.6508,8.6984,1.9417,6.8277,-2.1053,-5.5873,9.8522,2.7697
-3.9179,-10.449,-6.8293,-58.824001,-57.842999,-17.820999,-19.323999,-19.577,-21.424,-58.824001,-57.842999,-19.608,5.7143,1.8413,6.7937,-3.8835,2.963,0.76555,-7.4921,9.8522,-3.0274
-2.0221,-7.5641,-3.9024,-56.862999,-54.902,-14.894,-13.527,-18.601999,-19.482,-56.862999,-54.902,-17.646999,0.0,-4.8254,4.8889,-7.767,0.06441,-2.1053,-5.5873,4.9261,-9.7907
0.82148,-2.7564,-0.97561,-51.960999,-50.98,-10.016,-3.8647,-18.601999,-11.715,-51.960999,-50.98,-12.745,-3.8095,-6.7302,2.0317,-6.7961,0.06441,-1.1483,0.12698,-2.9557,-8.8245
-3.9179,-1.7949,-2.9268,-50.0,-49.02,-11.967,-2.8986,-18.601999,-8.8026,-50.0,-49.02,-12.745,-6.6667,-8.6349,-2.7302,-6.7961,-2.8341,-4.0191,-1.7778,-8.867,-6.8921
-8.6572,-3.7179,-7.8049,-50.98,-44.118,-14.894,-5.7971,-19.577,-12.686,-50.98,-44.118,-15.686,-9.5238,-9.5873,-9.3968,-9.7087,-7.6651,-8.8038,1.0794,-13.793,-5.9259
-12.449,-9.4872,-11.707,-54.902,-46.077999,-14.894,-11.594,-18.601999,-13.657,-54.902,-46.077999,-16.667,-11.429,-10.54,-16.063,-11.65,-12.496,-13.589,0.12698,-18.719,-4.9597
-16.24,-14.295,-13.659,-49.02,-46.077999,-15.87,-14.493,-20.552999,-13.657,-49.02,-46.077999,-17.646999,-9.5238,-7.6825,-19.872999,-12.621,-14.428,-15.502,-2.7302,-17.733999,-3.0274
-20.979,-18.141001,-18.537001,-44.118,-47.058998,-22.698999,-19.323999,-21.528,-16.57,-44.118,-47.058998,-22.549,-5.7143,-2.9206,-21.778,-13.592,-16.361,-16.459,-4.6349,-20.690001,-3.0274
-20.979,-18.141001,-19.511999,-46.077999,-45.098,-24.65,-22.222,-23.48,-18.511,-46.077999,-45.098,-23.528999,-2.8571,-1.9683,-22.73,-14.563,-18.292999,-18.372999,-9.3968,-18.719,-4.9597
-17.188,-16.218,-15.61,-42.157001,-41.175999,-19.771999,-19.323999,-20.552999,-17.540001,-42.157001,-41.175999,-20.587999,-2.8571,-2.9206,-19.872999,-15.534,-18.292999,-18.372999,-6.5397,-12.808,-7.8583
-15.292,-16.218,-13.659,-47.058998,-37.255001,-16.846001,-20.290001,-20.552999,-15.599,-47.058998,-37.255001,-18.627001,-2.8571,-4.8254,-17.016001,-14.563,-17.327,-13.589,-4.6349,-11.823,-6.8921
-11.501,-13.333,-8.7805,-40.195999,-35.293999,-15.87,-18.357,-17.625999,-12.686,-40.195999,-35.293999,-15.686,0.95238,-2.9206,-12.254,-11.65,-13.462,-7.8469,-8.4444,-9.8522,-4.9597
-2.97,-6.6026,-0.97561,-28.431,-29.412001,-10.016,-10.628,-8.8455,-12.686,-28.431,-29.412001,-7.8431,3.8095,1.8413,-3.6825,-5.8252,-4.7665,-3.0622,-6.5397,-2.9557,-2.0612
-1.0742,-4.6795,0.0,-26.471001,-24.51,-8.065,-7.7295,-8.8455,-12.686,-26.471001,-24.51,-5.8824,2.8571,1.8413,-0.8254,-5.8252,-0.90177,-0.19139,-8.4444,0.0,-4.9597
-1.0742,-2.7564,0.97561,-27.451,-23.528999,-7.0894,-6.7633,-7.8699,-8.8026,-27.451,-23.528999,-5.8824,6.6667,5.6508,2.9841,-2.9126,2.963,0.76555,-10.349,2.9557,-3.0274
-1.0742,-0.83333,1.9512,-30.392,-24.51,-6.1138,-3.8647,-8.8455,-7.8317,-30.392,-24.51,-5.8824,13.333,11.365,5.8413,1.9417,7.7939,0.76555,-5.5873,7.8818,1.8035
-3.9179,-2.7564,-0.97561,-29.412001,-28.431,-10.992,-6.7633,-11.772,-9.7735,-29.412001,-28.431,-9.8039,13.333,12.317,4.8889,2.9126,5.8615,-0.19139,-4.6349,3.9409,2.7697
-5.8136,-3.7179,-2.9268,-27.451,-23.528999,-13.919,-9.6618,-11.772,-10.744,-27.451,-23.528999,-11.765,11.429,13.27,3.9365,5.8252,5.8615,-2.1053,-0.8254,3.9409,5.6683
-9.6051,-5.641,-6.8293,-29.412001,-27.451,-16.846001,-13.527,-14.699,-12.686,-29.412001,-27.451,-15.686,7.619,10.413,2.0317,5.8252,3.9291,-4.0191,-1.7778,3.9409,5.6683
-7.7093,-2.7564,-4.878,-25.49,-23.528999,-12.943,-9.6618,-15.675,-7.8317,-25.49,-23.528999,-11.765,6.6667,8.5079,2.0317,4.8544,3.9291,-6.89,0.12698,4.9261,4.7021
-3.9179,2.0513,0.0,-22.549,-19.608,-8.065,-4.8309,-10.797,-2.0065,-22.549,-19.608,-5.8824,6.6667,7.5556,2.0317,6.7961,5.8615,-7.8469,2.0317,3.9409,2.7697
-2.0221,4.9359,1.9512,-18.627001,-19.608,-5.1382,0.96618,-6.8943,-3.9482,-18.627001,-19.608,-1.9608,3.8095,7.5556,2.0317,7.767,8.7601,-4.9761,4.8889,0.98522,3.7359
-1.0742,3.0128,1.9512,-14.706,-13.725,-5.1382,0.0,-6.8943,-5.89,-14.706,-13.725,-0.98039,2.8571,4.6984,2.0317,5.8252,8.7601,-2.1053,2.9841,0.98522,3.7359
0.82148,1.0897,2.9268,-5.8824,-2.9412,-1.2358,2.8986,-0.06504,-6.8608,-5.8824,-2.9412,2.9412,0.0,1.8413,1.0794,2.9126,5.8615,-1.1483,-0.8254,0.0,0.83736
2.7172,1.0897,2.9268,-2.9412,-4.902,5.5935,3.8647,6.7642,-3.9482,-2.9412,-4.902,5.8824,-2.8571,-1.9683,0.12698,-0.97087,1.9968,0.76555,-5.5873,-3.9409,-2.0612
4.613,2.0513,3.9024,2.9412,-6.8627,7.5447,5.7971,10.667,-2.0065,2.9412,-6.8627,5.8824,-2.8571,-2.9206,-0.8254,-1.9417,-0.90177,2.6794,-1.7778,-6.8966,-6.8921
5.5608,3.0128,3.9024,0.0,-5.8824,12.423,8.6957,7.7398,0.90615,0.0,-5.8824,8.8235,-5.7143,-3.873,-1.7778,-2.9126,-1.868,2.6794,1.0794,-7.8818,-6.8921
3.6651,1.0897,1.9512,3.9216,-4.902,10.472,6.7633,9.6911,7.7023,3.9216,-4.902,9.8039,-7.619,-4.8254,-3.6825,-3.8835,-3.8003,1.7225,0.12698,-8.867,-5.9259
1.7694,2.0513,0.0,11.765,3.9216,8.5203,4.8309,14.569,10.615,11.765,3.9216,6.8627,-7.619,-3.873,-3.6825,-1.9417,-2.8341,5.5502,0.12698,-7.8818,-4.9597
0.82148,0.12821,-3.9024,8.8235,4.902,7.5447,0.0,11.642,5.7605,8.8235,4.902,1.9608,-8.5714,-4.8254,-3.6825,-1.9417,-2.8341,5.5502,5.8413,-4.9261,-3.0274
-2.97,-2.7564,-7.8049,1.9608,-1.9608,4.6179,-1.9324,5.7886,-1.0356,1.9608,-1.9608,-1.9608,-9.5238,-4.8254,-7.4921,-2.9126,-6.6989,1.7225,7.746,-7.8818,-3.0274
-3.9179,-5.641,-9.7561,-0.98039,-5.8824,0.71545,-5.7971,2.8618,-2.0065,-0.98039,-5.8824,-5.8824,-6.6667,-2.9206,-6.5397,-2.9126,-7.6651,-0.19139,3.9365,-7.8818,-2.0612
-3.9179,-9.4872,-11.707,0.98039,-5.8824,-3.187,-11.594,3.8374,-0.06472,0.98039,-5.8824,-8.8235,-3.8095,-1.0159,-3.6825,-2.9126,-6.6989,1.7225,0.12698,-4.9261,0.83736
-6.7615,-11.41,-13.659,0.0,-9.8039,-5.1382,-14.493,2.8618,-2.9773,0.0,-9.8039,-11.765,-5.7143,-2.9206,-5.5873,-3.8835,-9.5974,1.7225,-3.6825,-3.9409,-0.12882
-3.9179,-8.5256,-11.707,0.0,-3.9216,-2.2114,-9.6618,1.8862,-4.9191,0.0,-3.9216,-7.8431,-4.7619,-1.9683,-5.5873,-3.8835,-10.564,1.7225,-9.3968,-2.9557,0.83736
-2.0221,-5.641,-7.8049,-3.9216,-7.8431,2.6667,-5.7971,3.8374,-7.8317,-3.9216,-7.8431,-5.8824,-2.8571,-0.06349,-4.6349,-1.9417,-8.6312,2.6794,-4.6349,0.0,2.7697
-4.8657,-7.5641,-8.7805,-8.8235,-2.9412,-3.187,-7.7295,2.8618,-8.8026,-8.8235,-2.9412,-8.8235,-3.8095,-1.0159,-5.5873,-3.8835,-8.6312,1.7225,-0.8254,-5.9113,1.8035
-6.7615,-8.5256,-9.7561,-7.8431,-5.8824,-9.0407,-11.594,-2.9919,-3.9482,-7.8431,-5.8824,-12.745,-3.8095,-1.9683,-6.5397,-4.8544,-9.5974,-3.0622,-2.7302,-8.867,-2.0612
-2.97,-4.6795,-4.878,-8.8235,-7.8431,-5.1382,-7.7295,-5.9187,-1.0356,-8.8235,-7.8431,-8.8235,0.95238,-0.06349,-2.7302,-2.9126,-5.7327,-0.19139,0.12698,-0.98522,-1.095
-2.97,-3.7179,-4.878,-7.8431,-0.98039,-7.0894,-8.6957,-4.9431,-0.06472,-7.8431,-0.98039,-9.8039,5.7143,1.8413,-0.8254,-2.9126,-3.8003,-0.19139,0.12698,0.0,-0.12882
-3.9179,-2.7564,-6.8293,-10.784,-3.9216,-10.992,-8.6957,-5.9187,1.877,-10.784,-3.9216,-12.745,4.7619,1.8413,-0.8254,-2.9126,-3.8003,-2.1053,1.0794,0.0,-1.095
-6.7615,-2.7564,-7.8049,-7.8431,-1.9608,-11.967,-5.7971,-5.9187,5.7605,-7.8431,-1.9608,-10.784,4.7619,2.7937,-1.7778,-3.8835,-4.7665,-4.0191,2.9841,0.98522,-1.095
-6.7615,-1.7949,-6.8293,-6.8627,1.9608,-10.992,-3.8647,-9.8211,4.7896,-6.8627,1.9608,-7.8431,7.619,4.6984,-1.7778,-2.9126,-5.7327,-3.0622,2.0317,3.9409,0.83736
-4.8657,-0.83333,-3.9024,-7.8431,0.0,-7.0894,-0.96618,-8.8455,1.877,-7.8431,0.0,-3.9216,5.7143,4.6984,-1.7778,-1.9417,-5.7327,-2.1053,6.7937,2.9557,1.8035
-3.9179,0.12821,0.0,-2.9412,4.902,-4.1626,0.96618,-7.8699,0.90615,-2.9412,4.902,0.0,5.7143,4.6984,-0.8254,-0.97087,-5.7327,-4.9761,5.8413,3.9409,0.83736
0.82148,4.9359,5.8537,4.902,11.765,-2.2114,3.8647,-6.8943,2.8479,4.902,11.765,5.8824,7.619,6.6032,2.9841,2.9126,-1.868,-2.1053,1.0794,8.867,3.7359
4.613,7.8205,10.732,4.902,9.8039,1.6911,6.7633,-5.9187,2.8479,4.902,9.8039,8.8235,7.619,7.5556,6.7937,5.8252,1.9968,-4.0191,2.0317,11.823,6.6345
5.5608,6.859,9.7561,2.9412,10.784,5.5935,9.6618,-9.8211,2.8479,2.9412,10.784,12.745,4.7619,3.746,5.8413,4.8544,1.0306,-6.89,2.9841,8.867,3.7359
3.6651,7.8205,8.7805,6.8627,14.706,8.5203,13.527,-2.0163,8.6731,6.8627,14.706,16.667,0.0,-0.06349,2.0317,3.8835,0.06441,-4.9761,0.12698,3.9409,1.8035
2.7172,5.8974,5.8537,21.569,22.549,8.5203,13.527,8.7154,10.615,21.569,22.549,16.667,-3.8095,-4.8254,-0.8254,0.0,-2.8341,-1.1483,2.0317,-5.9113,-1.095
-2.97,-0.83333,-1.9512,21.569,16.667,6.5691,6.7633,11.642,7.7023,21.569,16.667,10.784,-8.5714,-8.6349,-9.3968,-4.8544,-9.5974,-4.9761,1.0794,-12.808,-3.0274
-5.8136,-1.7949,-6.8293,18.627001,15.686,7.5447,5.7971,12.618,7.7023,18.627001,15.686,8.8235,-12.381,-7.6825,-14.159,-4.8544,-12.496,-3.0622,2.0317,-10.837,-2.0612
-1.0742,-1.7949,-4.878,19.608,13.725,12.423,5.7971,17.496,9.644,19.608,13.725,9.8039,-11.429,-8.6349,-12.254,-4.8544,-11.53,1.7225,2.0317,-5.9113,-1.095
-1.0742,-1.7949,-3.9024,15.686,7.8431,12.423,3.8647,12.618,6.7314,15.686,7.8431,6.8627,-11.429,-10.54,-9.3968,-5.8252,-10.564,6.5072,2.0317,-3.9409,-3.0274
-1.0742,-0.83333,-1.9512,20.587999,8.8235,9.4959,2.8986,14.569,4.7896,20.587999,8.8235,6.8627,-10.476,-10.54,-6.5397,-4.8544,-8.6312,9.378,0.12698,-0.98522,-3.9936
6.5087,4.9359,3.9024,26.471001,16.667,12.423,6.7633,20.423,4.7896,26.471001,16.667,12.745,-6.6667,-7.6825,-0.8254,-1.9417,-3.8003,12.249,-1.7778,4.9261,-1.095
9.3523,5.8974,6.8293,20.587999,14.706,14.374,5.7971,18.472,3.8188,20.587999,14.706,11.765,-4.7619,-4.8254,2.9841,0.0,-0.90177,14.163,0.12698,8.867,-0.12882
11.248,4.9359,8.7805,14.706,10.784,14.374,6.7633,12.618,2.8479,14.706,10.784,10.784,-2.8571,-3.873,3.9365,0.0,-0.90177,14.163,0.12698,9.8522,-0.12882
12.196,6.859,12.683,11.765,10.784,13.398,8.6957,10.667,1.877,11.765,10.784,10.784,-2.8571,-2.9206,5.8413,1.9417,0.06441,10.335,-2.7302,8.867,0.83736
12.196,6.859,13.659,9.8039,4.902,11.447,6.7633,7.7398,-0.06472,9.8039,4.902,7.8431,-1.9048,-1.0159,8.6984,3.8835,2.963,3.6364,-0.8254,9.8522,0.83736
9.3523,7.8205,12.683,9.8039,6.8627,8.5203,5.7971,5.7886,-0.06472,9.8039,6.8627,5.8824,2.8571,3.746,10.603,7.767,7.7939,2.6794,-1.7778,8.867,4.7021
6.5087,9.7436,9.7561,6.8627,8.8235,3.6423,3.8647,0.91057,-1.0356,6.8627,8.8235,2.9412,6.6667,9.4603,12.508,12.621,11.659,1.7225,2.0317,6.8966,9.533
8.4044,11.667,12.683,4.902,3.9216,1.6911,4.8309,-4.9431,-0.06472,4.902,3.9216,1.9608,12.381,14.222,15.365,17.476,17.455999,1.7225,2.0317,11.823,12.432
8.4044,10.705,13.659,0.98039,4.902,0.71545,2.8986,-5.9187,1.877,0.98039,4.902,0.0,18.094999,18.032,18.222,17.476,20.354,0.76555,3.9365,13.793,12.432
2.7172,6.859,7.8049,0.0,6.8627,-6.1138,2.8986,-9.8211,5.7605,0.0,6.8627,-3.9216,13.333,14.222,13.46,11.65,15.523,-4.9761,4.8889,7.8818,8.5668
-4.8657,0.12821,-1.9512,0.98039,6.8627,-10.992,-0.96618,-11.772,10.615,0.98039,6.8627,-8.8235,2.8571,5.6508,3.9365,2.9126,4.8953,-7.8469,4.8889,0.98522,1.8035
-5.8136,-3.7179,-6.8293,8.8235,18.627001,-7.0894,-0.96618,-3.9675,12.557,8.8235,18.627001,-6.8627,-4.7619,-1.0159,-1.7778,-2.9126,-1.868,-5.933,2.0317,-3.9409,-3.0274
-2.97,-3.7179,-4.878,8.8235,17.646999,-0.26016,-0.96618,3.8374,8.6731,8.8235,17.646999,-3.9216,-5.7143,-1.9683,-1.7778,-2.9126,-2.8341,-0.19139,-1.7778,-4.9261,-4.9597
-0.12638,-4.6795,-4.878,4.902,6.8627,5.5935,1.9324,5.7886,1.877,4.902,6.8627,-0.98039,-5.7143,-3.873,-0.8254,-3.8835,-3.8003,9.378,-0.8254,-1.9704,-3.9936
-1.0742,-2.7564,-1.9512,17.646999,11.765,4.6179,1.9324,14.569,5.7605,17.646999,11.765,1.9608,-5.7143,-5.7778,-3.6825,-2.9126,-4.7665,8.4211,-0.8254,-2.9557,-3.0274
-2.97,-1.7949,-3.9024,25.49,22.549,0.71545,-0.96618,16.52,5.7605,25.49,22.549,0.98039,-6.6667,-4.8254,-5.5873,-1.9417,-5.7327,5.5502,-4.6349,-2.9557,-3.9936
-2.0221,-2.7564,-8.7805,17.646999,17.646999,3.6423,-0.96618,12.618,6.7314,17.646999,17.646999,0.0,-6.6667,-3.873,-4.6349,-1.9417,-5.7327,9.378,-1.7778,0.0,-2.0612
1.7694,-1.7949,-7.8049,15.686,16.667,6.5691,2.8986,12.618,6.7314,15.686,16.667,2.9412,-4.7619,-3.873,-1.7778,-2.9126,-7.6651,12.249,0.12698,4.9261,-0.12882
2.7172,-0.83333,-4.878,6.8627,11.765,7.5447,4.8309,8.7154,5.7605,6.8627,11.765,4.902,-5.7143,-3.873,-0.8254,-2.9126,-6.6989,12.249,-1.7778,5.9113,-0.12882
4.613,0.12821,2.9268,5.8824,10.784,7.5447,5.7971,5.7886,2.8479,5.8824,10.784,7.8431,-5.7143,-3.873,2.0317,-1.9417,-3.8003,8.4211,-1.7778,2.9557,-0.12882
4.613,1.0897,6.8293,4.902,8.8235,2.6667,3.8647,2.8618,-0.06472,4.902,8.8235,6.8627,-4.7619,-1.9683,1.0794,0.97087,-1.868,1.7225,-1.7778,1.9704,1.8035
3.6651,3.9744,7.8049,2.9412,-1.9608,-1.2358,0.96618,-2.0163,-1.0356,2.9412,-1.9608,2.9412,1.9048,4.6984,2.9841,7.767,3.9291,2.6794,1.0794,3.9409,6.6345
7.4566,8.7821,10.732,0.0,-0.98039,-1.2358,2.8986,-5.9187,-1.0356,0.0,-0.98039,3.9216,6.6667,9.4603,7.746,13.592,10.692,3.6364,4.8889,10.837,10.499
10.3,9.7436,9.7561,-2.9412,1.9608,3.6423,5.7971,-6.8943,3.8188,-2.9412,1.9608,5.8824,5.7143,8.5079,11.556,12.621,9.7262,3.6364,6.7937,13.793,9.533
12.196,7.8205,11.707,-0.98039,5.8824,4.6179,6.7633,-6.8943,6.7314,-0.98039,5.8824,7.8431,6.6667,7.5556,13.46,8.7379,9.7262,2.6794,5.8413,11.823,7.6006
10.3,8.7821,13.659,2.9412,5.8824,2.6667,6.7633,-5.9187,6.7314,2.9412,5.8824,7.8431,11.429,9.4603,13.46,9.7087,11.659,-5.933,4.8889,9.8522,8.5668
7.4566,11.667,14.634,5.8824,8.8235,0.71545,7.7295,-11.772,8.6731,5.8824,8.8235,5.8824,11.429,11.365,11.556,12.621,14.557,-10.718,9.6508,6.8966,11.465
2.7172,11.667,11.707,-0.98039,1.9608,-5.1382,6.7633,-19.577,7.7023,-0.98039,1.9608,1.9608,12.381,13.27,7.746,12.621,14.557,-14.545,6.7937,3.9409,10.499
0.82148,12.628,11.707,0.0,4.902,-4.1626,8.6957,-15.675,5.7605,0.0,4.902,1.9608,15.238,16.127001,5.8413,13.592,14.557,-11.675,4.8889,3.9409,10.499
-0.12638,7.8205,7.8049,1.9608,6.8627,-2.2114,3.8647,-11.772,9.644,1.9608,6.8627,0.98039,13.333,15.175,4.8889,10.68,13.591,-9.7608,7.746,2.9557,5.6683
-1.0742,3.0128,1.9512,2.9412,5.8824,-0.26016,0.96618,-5.9187,7.7023,2.9412,5.8824,0.98039,11.429,12.317,3.9365,6.7961,11.659,-6.89,7.746,-0.98522,3.7359
1.7694,3.0128,1.9512,4.902,0.0,5.5935,1.9324,1.8862,-1.0356,4.902,0.0,1.9608,9.5238,6.6032,3.9365,3.8835,8.7601,-3.0622,2.9841,0.98522,1.8035
3.6651,3.0128,2.9268,12.745,1.9608,6.5691,1.9324,7.7398,-3.9482,12.745,1.9608,2.9412,2.8571,0.88889,2.0317,0.97087,2.963,1.7225,-0.8254,0.98522,-2.0612
4.613,0.12821,3.9024,14.706,7.8431,5.5935,-1.9324,10.667,-2.0065,14.706,7.8431,1.9608,-0.95238,-1.9683,1.0794,-2.9126,-1.868,6.5072,-3.6825,0.0,-3.0274
4.613,-3.7179,6.8293,12.745,7.8431,6.5691,-4.8309,9.6911,-1.0356,12.745,7.8431,1.9608,0.95238,-1.0159,1.0794,-3.8835,-1.868,9.378,-4.6349,1.9704,-3.0274
3.6651,-3.7179,4.878,3.9216,-0.98039,5.5935,-4.8309,6.7642,-5.89,3.9216,-0.98039,0.0,2.8571,0.88889,1.0794,-1.9417,-0.90177,7.4641,-5.5873,4.9261,-1.095
1.7694,-3.7179,0.0,1.9608,-2.9412,2.6667,-4.8309,6.7642,-12.686,1.9608,-2.9412,-1.9608,0.0,-1.0159,1.0794,-2.9126,-0.90177,5.5502,-8.4444,0.98522,-3.0274
3.6651,-0.83333,0.97561,9.8039,8.8235,3.6423,-0.96618,8.7154,-2.9773,9.8039,8.8235,1.9608,-0.95238,-1.9683,2.0317,-1.9417,1.9968,6.5072,-6.5397,0.98522,-3.0274
2.7172,-0.83333,2.9268,6.8627,11.765,3.6423,-0.96618,4.813,2.8479,6.8627,11.765,1.9608,-2.8571,-4.8254,1.0794,-1.9417,1.9968,4.5933,-2.7302,0.98522,-3.0274
1.7694,0.12821,7.8049,0.0,3.9216,0.71545,1.9324,-4.9431,-1.0356,0.0,3.9216,2.9412,-4.7619,-8.6349,0.12698,-3.8835,0.06441,-2.1053,2.0317,-0.98522,-4.9597
1.7694,4.9359,9.7561,0.98039,5.8824,0.71545,7.7295,-5.9187,2.8479,0.98039,5.8824,5.8824,-1.9048,-7.6825,1.0794,-2.9126,1.0306,-2.1053,0.12698,3.9409,-3.9936
0.82148,7.8205,9.7561,0.98039,11.765,-0.26016,9.6618,-6.8943,5.7605,0.98039,11.765,7.8431,0.0,-5.7778,1.0794,-0.97087,2.963,0.76555,1.0794,4.9261,-3.9936
4.613,11.667,13.659,5.8824,14.706,1.6911,12.56,-4.9431,7.7023,5.8824,14.706,10.784,0.95238,-3.873,4.8889,1.9417,3.9291,-2.1053,2.9841,4.9261,-2.0612
7.4566,11.667,15.61,3.9216,12.745,2.6667,15.459,-5.9187,6.7314,3.9216,12.745,12.745,1.9048,-1.9683,5.8413,3.8835,4.8953,-4.9761,5.8413,5.9113,-0.12882
3.6651,7.8205,10.732,-2.9412,3.9216,1.6911,9.6618,-10.797,3.8188,-2.9412,3.9216,8.8235,-0.95238,-3.873,3.9365,2.9126,3.9291,-5.933,7.746,2.9557,-0.12882
2.7172,6.859,8.7805,2.9412,5.8824,-0.26016,6.7633,-8.8455,4.7896,2.9412,5.8824,7.8431,0.95238,-1.9683,2.9841,3.8835,4.8953,-6.89,6.7937,3.9409,1.8035
2.7172,8.7821,5.8537,2.9412,9.8039,-0.26016,5.7971,-7.8699,7.7023,2.9412,9.8039,5.8824,3.8095,-1.0159,3.9365,5.8252,5.8615,-9.7608,4.8889,0.0,4.7021
2.7172,10.705,2.9268,4.902,9.8039,1.6911,8.6957,-6.8943,6.7314,4.902,9.8039,6.8627,2.8571,0.88889,3.9365,8.7379,6.8277,-7.8469,6.7937,0.98522,6.6345
3.6651,11.667,4.878,3.9216,2.9412,4.6179,12.56,-8.8455,3.8188,3.9216,2.9412,8.8235,3.8095,1.8413,5.8413,9.7087,7.7939,-7.8469,5.8413,3.9409,6.6345
7.4566,8.7821,8.7805,8.8235,5.8824,8.5203,15.459,-0.06504,5.7605,8.8235,5.8824,13.725,3.8095,1.8413,9.6508,7.767,9.7262,-4.0191,6.7937,5.9113,4.7021
8.4044,3.9744,9.7561,14.706,13.725,9.4959,9.6618,6.7642,10.615,14.706,13.725,12.745,6.6667,2.7937,11.556,4.8544,9.7262,0.76555,7.746,7.8818,2.7697
9.3523,3.0128,8.7805,6.8627,8.8235,9.4959,2.8986,4.813,5.7605,6.8627,8.8235,8.8235,3.8095,1.8413,8.6984,1.9417,6.8277,4.5933,3.9365,7.8818,0.83736
10.3,2.0513,7.8049,1.9608,-1.9608,7.5447,2.8986,2.8618,-4.9191,1.9608,-1.9608,5.8824,-0.95238,-1.9683,6.7937,-1.9417,2.963,4.5933,0.12698,4.9261,-1.095
9.3523,3.0128,3.9024,1.9608,-2.9412,5.5935,1.9324,2.8618,-4.9191,1.9608,-2.9412,2.9412,-1.9048,-1.9683,6.7937,0.0,2.963,8.4211,2.0317,4.9261,0.83736
6.5087,3.0128,-1.9512,-1.9608,-0.98039,2.6667,-0.96618,0.91057,0.90615,-1.9608,-0.98039,-0.98039,-0.95238,-2.9206,5.8413,1.9417,1.9968,8.4211,1.0794,3.9409,2.7697
3.6651,-0.83333,-3.9024,-1.9608,-1.9608,1.6911,-4.8309,2.8618,-0.06472,-1.9608,-1.9608,-2.9412,-5.7143,-5.7778,2.9841,-0.97087,-0.90177,6.5072,-2.7302,0.0,0.83736
6.5087,-3.7179,1.9512,4.902,-0.98039,2.6667,-4.8309,6.7642,-5.89,4.902,-0.98039,-1.9608,-5.7143,-3.873,4.8889,-1.9417,-1.868,11.292,-5.5873,-4.9261,0.83736
5.5608,-8.5256,2.9268,0.0,-8.8235,1.6911,-6.7633,5.7886,-11.715,0.0,-8.8235,-3.9216,-2.8571,-3.873,4.8889,-5.8252,-2.8341,10.335,-5.5873,-3.9409,-1.095
4.613,-10.449,0.97561,-5.8824,-3.9216,1.6911,-7.7295,1.8862,-7.8317,-5.8824,-3.9216,-3.9216,0.95238,-3.873,3.9365,-7.767,-2.8341,8.4211,-2.7302,0.0,-3.9936
-0.12638,-8.5256,-2.9268,-5.8824,-0.98039,-0.26016,-8.6957,1.8862,-2.0065,-5.8824,-0.98039,-5.8824,-2.8571,-3.873,0.12698,-5.8252,-2.8341,3.6364,-2.7302,0.0,-3.9936
0.82148,-2.7564,-0.97561,5.8824,1.9608,1.6911,-1.9324,7.7398,-0.06472,5.8824,1.9608,-0.98039,-5.7143,-2.9206,-2.7302,-3.8835,-2.8341,5.5502,-3.6825,0.98522,-1.095
0.82148,0.12821,0.0,7.8431,0.0,2.6667,-1.9324,11.642,-2.9773,7.8431,0.0,0.98039,-6.6667,-4.8254,-5.5873,-1.9417,-2.8341,7.4641,-5.5873,-1.9704,-0.12882
