C3,C4,Cz,F1,F2,F3,F4,F7,F8,Fp1,Fp2,Fz,O1,O2,P3,P4,Pz,T3,T4,T5,T6
-2.0221,0.12759,-1.2358,-5.2941,-1.3201,-4.1626,-2.6016,1.877,-2.0163,-5.2941,-1.3201,-3.3167,4.4444,3.1111,0.12698,-0.64412,-0.57971,8.8245,1.3968,3.9409,3.0918
-0.75829,2.0415,0.06504,-5.2941,-3.9604,-4.1626,1.3008,-1.3592,-2.6667,-5.2941,-3.9604,-1.99,2.5397,1.8413,-2.4127,0.0,-1.868,-19.517,2.0317,0.65681,2.4477
3.6651,8.4211,7.2195,-1.3725,-0.66007,-0.26016,6.5041,1.2298,1.2358,-1.3725,-0.66007,3.3167,2.5397,4.381,-0.50794,3.2206,0.70853,-8.5668,-0.50794,5.2545,1.8035
2.4013,10.335,7.8699,0.58824,1.9802,1.6911,6.5041,4.466,3.8374,0.58824,1.9802,5.3068,1.9048,5.0159,0.7619,6.4412,2.6409,17.841999,1.3968,5.9113,5.6683
-3.2859,1.4035,1.3659,-2.6797,-5.9406,-1.561,0.0,-0.71197,-3.3171,-2.6797,-5.9406,0.66335,-5.0794,-4.5079,-3.6825,0.0,-1.868,11.401,0.7619,-2.6273,0.5153
-3.2859,0.12759,2.6667,-2.0261,-5.9406,-1.561,0.65041,-1.3592,-2.0163,-2.0261,-5.9406,0.66335,-8.254,-6.4127,-4.3175,1.2882,-0.57971,12.689,0.12698,-5.2545,3.7359
-1.3902,5.8692,5.2683,-0.71895,4.6205,-2.8618,3.9024,-3.301,6.439,-0.71895,4.6205,0.66335,-10.159,-2.6032,-3.0476,5.7971,3.285,-18.229,12.825,-9.1954,7.6006
2.4013,5.8692,3.9675,-0.06536,4.6205,-4.813,1.3008,-5.2427,6.439,-0.06536,4.6205,-1.99,-8.254,-0.06349,1.3968,6.4412,4.5733,-15.652,12.19,-9.8522,8.8889
2.4013,2.6794,2.6667,0.58824,1.3201,-3.5122,1.3008,-5.2427,3.187,0.58824,1.3201,-2.6534,-1.9048,3.1111,5.2063,3.8647,3.9291,-9.2109,3.9365,-6.5681,5.0242
-0.12638,-0.51037,-1.8862,1.8954,2.6403,-1.561,1.9512,-1.3592,1.8862,1.8954,2.6403,-1.3267,5.0794,7.5556,5.2063,1.2882,1.9968,9.4686,2.6667,-1.9704,-1.4171
-2.0221,-2.4242,-4.4878,3.2026,0.0,-2.2114,-1.9512,-0.71197,-1.3659,3.2026,0.0,-3.9801,8.8889,13.27,3.9365,3.2206,1.3527,1.095,-7.4921,0.65681,-0.77295
5.5608,3.9553,2.0163,9.085,5.9406,0.39024,1.9512,0.58252,5.1382,9.085,5.9406,0.0,17.778,25.333,10.286,14.171,9.7262,-5.3462,7.1111,9.1954,13.398
4.297,8.4211,5.2683,13.66,11.881,-0.26016,5.2033,1.2298,13.593,13.66,11.881,1.3267,19.683001,31.048,10.921,20.612,15.523,1.7391,24.254,15.107,21.127001
-10.237,-4.3381,-7.0894,3.8562,4.6205,-10.016,-5.2033,-9.1262,3.8374,3.8562,4.6205,-8.6235,2.5397,17.079,-4.3175,7.0853,1.9968,-15.008,5.8413,0.0,9.533
-11.501,-9.4418,-11.642,5.1634,4.6205,-6.1138,-5.8537,-7.8317,-0.06504,5.1634,4.6205,-7.2968,-5.7143,6.2857,-10.667,-3.8647,-7.0209,-22.738001,2.0317,-7.225,1.1594
-2.0221,-3.7002,-4.4878,15.621,11.221,3.6423,3.252,-0.06472,3.8374,15.621,11.221,2.6534,-3.8095,-0.69841,-3.6825,-5.153,-6.3768,1.7391,-1.7778,-1.3136,2.4477
3.0332,-1.1483,0.71545,17.582001,11.221,5.5935,5.8537,-0.06472,3.187,17.582001,11.221,6.6335,-8.254,-12.762,-1.7778,-9.6618,-6.3768,-3.4138,-9.3968,-4.5977,-4.6377
7.4566,5.2313,7.2195,20.85,12.541,10.146,10.407,5.7605,5.1382,20.85,12.541,11.277,-10.159,-15.302,0.7619,-8.3736,-2.5121,-8.5668,-4.3175,-5.2545,-7.2142
6.8246,8.4211,7.8699,21.503,15.182,10.146,12.358,7.7023,8.3902,21.503,15.182,12.604,-9.5238,-12.127,1.3968,-7.7295,-2.5121,0.45089,-6.8571,-1.3136,-9.7907
3.6651,6.5072,6.5691,21.503,19.142,7.5447,11.057,6.4078,12.943,21.503,19.142,11.277,-4.4444,-6.4127,2.0317,-5.7971,-1.2238,10.757,0.12698,3.2841,-5.2818
3.6651,5.2313,5.2683,16.927999,12.541,5.5935,10.407,8.9968,7.7398,16.927999,12.541,9.2869,3.8095,-0.69841,3.3016,-2.5765,0.70853,-4.058,2.6667,3.9409,-2.0612
-3.2859,-2.4242,-3.8374,8.4314,4.6205,-2.8618,0.65041,3.8188,-2.0163,8.4314,4.6205,-1.3267,3.1746,-2.6032,-3.0476,-5.153,-3.8003,0.45089,-4.9524,1.9704,-7.8583
-7.0774,-6.252,-9.6911,7.7778,5.2805,-5.4634,-5.2033,3.1715,-7.2195,7.7778,5.2805,-6.6335,0.0,-2.6032,-7.4921,-5.7971,-7.6651,19.775,-9.3968,3.2841,-5.9259
-7.0774,-3.7002,-9.6911,7.1242,6.6007,-4.813,0.0,2.5243,-2.6667,7.1242,6.6007,-5.3068,-4.4444,-3.873,-10.032,-5.7971,-10.242,20.419001,0.12698,1.3136,-1.4171
-2.0221,-1.1483,-5.7886,11.699,13.861,0.39024,3.252,8.3495,4.4878,11.699,13.861,0.0,-5.7143,-7.0476,-8.7619,-8.3736,-12.174,15.266,0.12698,2.6273,-2.0612
-2.0221,-5.614,-7.0894,7.7778,3.3003,-1.561,0.65041,5.7605,-2.6667,7.7778,3.3003,-2.6534,-8.254,-10.222,-8.127,-13.527,-14.106,1.7391,-5.5873,-1.3136,-8.5024
2.4013,-3.0622,-4.4878,9.085,3.3003,-0.26016,1.3008,6.4078,-0.06504,9.085,3.3003,-1.3267,-6.3492,-10.222,-1.7778,-10.95,-8.3092,-15.008,-8.7619,0.0,-13.011
8.7204,2.6794,3.9675,18.235001,16.502001,10.146,7.1545,14.175,9.6911,18.235001,16.502001,8.6235,-0.63492,-3.2381,3.9365,-1.2882,0.70853,-5.9903,-3.6825,4.5977,-4.6377
9.9842,2.6794,8.5203,16.927999,15.842,14.699,7.8049,12.233,7.0894,16.927999,15.842,12.604,1.9048,-2.6032,4.5714,2.5765,3.9291,-5.3462,-0.50794,-0.65681,1.8035
12.512,2.6794,11.772,12.353,11.881,14.699,5.2033,8.3495,-0.71545,12.353,11.881,11.94,5.7143,-0.69841,7.746,3.2206,6.5056,8.1804,-0.50794,-1.3136,2.4477
9.9842,2.6794,11.122,9.7386,7.9208,11.447,3.252,5.1133,-2.6667,9.7386,7.9208,8.6235,10.159,3.1111,10.921,3.2206,7.1498,32.657001,0.12698,2.6273,1.1594
6.8246,3.9553,7.8699,11.046,7.9208,11.447,3.9024,5.1133,1.8862,11.046,7.9208,8.6235,12.063,10.095,9.6508,5.7971,7.1498,17.841999,7.1111,5.9113,3.0918
6.1927,3.9553,6.5691,12.353,11.221,15.35,5.8537,10.291,5.1382,12.353,11.221,11.277,9.5238,16.444,5.8413,9.0177,5.2174,-16.940001,7.1111,5.9113,3.0918
3.0332,-1.1483,5.2683,6.4706,7.2607,10.146,3.9024,5.1133,0.58537,6.4706,7.2607,8.6235,3.1746,17.714001,0.12698,8.3736,0.06441,-0.19324,2.0317,3.2841,4.38
-3.2859,-10.08,-0.58537,-4.6405,-6.6007,-0.91057,-6.5041,-7.1845,-9.8211,-4.6405,-6.6007,-1.3267,-3.8095,10.73,-4.9524,2.5765,-6.3768,13.333,-7.4921,0.0,1.8035
-3.2859,-10.718,-2.5366,-9.8693,-13.201,-4.1626,-11.057,-7.1845,-11.772,-9.8693,-13.201,-7.2968,-4.4444,4.381,-2.4127,-0.64412,-6.3768,-7.2786,-8.7619,0.0,-2.0612
-7.0774,-3.7002,-4.4878,-3.3333,-1.3201,0.39024,-4.5528,-0.06472,-2.0163,-3.3333,-1.3201,-2.6534,-3.1746,-0.69841,-4.3175,-1.2882,-5.7327,-7.2786,0.12698,-0.65681,1.8035
-13.397,-2.4242,-8.3902,-0.71895,1.3201,-0.91057,1.9512,3.8188,-0.06504,-0.71895,1.3201,-1.3267,-8.254,-12.127,-13.206,-7.7295,-10.886,-3.4138,-1.7778,-7.8818,-1.4171
-8.9731,-3.7002,-2.5366,-5.2941,-3.9604,-5.4634,0.65041,-0.71197,-5.2683,-5.2941,-3.9604,-1.99,-9.5238,-23.556,-13.206,-13.527,-12.818,4.9597,-0.50794,-7.8818,-6.57
3.0332,-1.1483,7.8699,-6.6013,-5.2805,-2.2114,-1.9512,1.2298,-4.6179,-6.6013,-5.2805,-0.66335,-1.2698,-21.016001,-2.4127,-9.0177,-4.4444,-5.3462,3.3016,-1.3136,-4.6377
11.88,4.5933,13.724,-5.2941,-1.9802,1.6911,-0.65041,5.7605,-1.3659,-5.2941,-1.9802,1.99,6.3492,-10.857,8.381,-1.2882,5.8615,-8.5668,-1.1429,2.6273,-3.3494
5.5608,5.2313,6.5691,-3.3333,3.3003,1.0407,0.0,5.7605,1.2358,-3.3333,3.3003,0.66335,5.0794,-3.873,4.5714,-0.64412,4.5733,3.6715,-1.7778,1.9704,-3.3494
-9.6051,-2.4242,-7.0894,-7.2549,-4.6205,-4.1626,-3.9024,-1.3592,-3.3171,-7.2549,-4.6205,-4.6434,-5.0794,-2.6032,-8.7619,-5.7971,-5.7327,8.1804,-4.3175,-7.225,-7.2142
-5.8136,-1.7863,-2.5366,-7.2549,-7.2607,-1.561,-1.3008,1.2298,-3.3171,-7.2549,-7.2607,-1.99,-3.1746,6.2857,-6.8571,-1.2882,-3.1562,-7.9227,-1.1429,-4.5977,-5.2818
-3.2859,-2.4242,0.71545,-12.484,-9.2409,-6.1138,-5.8537,-2.6537,-7.2195,-12.484,-9.2409,-5.9701,-1.9048,10.095,-3.0476,2.5765,0.06441,-6.6345,-1.1429,-1.3136,-3.9936
-4.5498,-8.8038,-3.187,-18.365999,-15.182,-10.667,-10.407,-8.479,-12.423,-18.365999,-15.182,-11.94,-3.1746,7.5556,-3.6825,1.9324,-1.868,-6.6345,-10.667,-3.2841,-0.12882
-3.9179,-8.8038,-7.0894,-15.098,-14.521,-8.065,-9.1057,-5.2427,-9.8211,-15.098,-14.521,-11.277,0.0,4.381,-1.7778,1.9324,-3.1562,1.095,-1.1429,-1.9704,3.7359
-7.0774,-6.252,-8.3902,-12.484,-11.221,-4.813,-10.407,-3.301,-9.1707,-12.484,-11.221,-7.9602,4.4444,1.2063,-1.7778,0.64412,-4.4444,24.927999,0.12698,4.5977,3.7359
-10.237,-6.252,-8.3902,-10.523,-8.5809,-6.1138,-9.7561,-3.301,-10.472,-10.523,-8.5809,-7.9602,5.0794,1.2063,-4.3175,-2.5765,-6.3768,2.3833,-6.2222,2.6273,-3.9936
-5.1817,-4.9761,-3.8374,-13.137,-11.221,-7.4146,-8.4553,-5.89,-13.724,-13.137,-11.221,-7.2968,5.7143,3.746,-1.7778,-2.5765,-2.5121,-34.332001,-13.841,0.0,-13.011
-0.75829,-1.1483,3.3171,-14.444,-11.881,-5.4634,-5.2033,-9.7735,-9.1707,-14.444,-11.881,-3.3167,6.3492,8.1905,3.3016,4.5089,4.5733,-7.9227,-13.206,2.6273,-1.4171
6.8246,10.335,13.724,-5.2941,0.0,3.6423,7.8049,-3.301,4.4878,-5.2941,0.0,7.9602,10.794,15.175,11.556,15.459,15.523,12.045,10.921,9.8522,19.195
8.7204,12.887,13.724,-3.9869,0.0,7.5447,9.7561,-2.0065,5.1382,-3.9869,0.0,11.277,5.0794,10.73,9.6508,12.882,14.235,-4.7021,17.27,3.9409,14.042
1.1374,7.1451,7.8699,-4.6405,-4.6205,7.5447,9.1057,-3.9482,1.8862,-4.6405,-4.6205,11.277,-4.4444,3.1111,0.7619,5.153,5.8615,5.6039,9.6508,-3.9409,5.0242
-3.9179,3.9553,2.6667,-3.3333,0.66007,5.5935,5.2033,-4.5955,2.5366,-3.3333,0.66007,9.2869,-7.619,1.8413,-3.6825,3.2206,1.9968,-11.143,3.3016,-4.5977,2.4477
-2.654,2.0415,-1.8862,-4.6405,1.3201,1.0407,-1.3008,-4.5955,-0.06504,-4.6405,1.3201,3.9801,-6.9841,1.8413,-2.4127,1.9324,0.06441,-22.093,-6.8571,-5.2545,-0.12882
-6.4455,-3.7002,-8.3902,-8.5621,-3.9604,-4.813,-5.2033,-6.5372,-7.2195,-8.5621,-3.9604,-1.99,-7.619,-1.9683,-4.9524,-1.2882,-4.4444,8.1804,-3.6825,-4.5977,1.8035
-9.6051,-6.89,-10.992,-9.8693,-6.6007,-7.4146,-7.1545,-1.3592,-9.1707,-9.8693,-6.6007,-5.3068,-6.9841,-3.2381,-8.7619,-3.2206,-8.3092,-1.4815,2.6667,-1.3136,2.4477
-10.237,-10.718,-14.894,-11.176,-9.2409,-10.667,-11.707,0.58252,-9.8211,-11.176,-9.2409,-10.614,-8.254,-9.5873,-14.476,-10.95,-16.683001,-14.364,3.3016,-2.6273,-7.8583
-12.133,-17.097,-19.447001,-11.176,-11.221,-12.618,-15.61,-2.0065,-13.073,-11.176,-11.221,-13.93,-9.5238,-12.127,-18.285999,-16.747,-23.124001,6.8921,-6.2222,0.0,-8.5024
-16.556,-22.839001,-25.301001,-15.752,-19.142,-16.52,-20.813,-6.5372,-18.927,-15.752,-19.142,-19.9,-11.429,-14.667,-21.459999,-22.544001,-26.989,-0.83736,-16.381001,-3.2841,-14.944
-14.028,-20.924999,-21.398001,-16.405001,-19.142,-17.171,-19.511999,-6.5372,-18.927,-16.405001,-19.142,-19.9,-7.619,-15.302,-15.746,-22.544001,-22.48,7.5362,-17.016001,-1.9704,-16.875999
-6.4455,-15.821,-14.244,-13.791,-15.842,-13.919,-15.61,-3.9482,-16.325001,-13.791,-15.842,-15.257,-1.2698,-10.857,-4.9524,-16.747,-14.106,10.757,-17.016001,1.9704,-13.655
4.9289,-7.5279,-7.7398,-5.2941,-10.561,-5.4634,-6.5041,5.7605,-7.2195,-5.2941,-10.561,-7.9602,7.619,-2.6032,5.8413,-7.7295,-4.4444,-7.9227,-5.5873,5.9113,-5.9259
-2.654,-7.5279,-10.341,-7.2549,-7.9208,-7.4146,-7.1545,1.877,-6.5691,-7.2549,-7.9208,-9.2869,1.9048,-3.2381,-0.50794,-5.7971,-6.3768,4.9597,-3.0476,-1.3136,-2.7053
-9.6051,-6.252,-10.992,-11.83,-9.2409,-11.967,-8.4553,-5.89,-7.2195,-11.83,-9.2409,-11.94,-3.1746,-2.6032,-6.2222,-1.9324,-5.0886,6.8921,5.2063,-8.5386,0.5153
-5.8136,0.12759,-3.8374,-11.83,-6.6007,-11.967,-2.6016,-7.8317,-2.0163,-11.83,-6.6007,-9.2869,1.9048,5.6508,0.12698,7.0853,5.2174,-6.6345,5.8413,-7.8818,6.3124
-7.0774,4.5933,1.3659,-11.83,-5.9406,-12.618,-2.6016,-7.1845,-2.0163,-11.83,-5.9406,-9.2869,3.8095,9.4603,0.7619,10.95,9.7262,-15.652,3.3016,-5.2545,6.3124
-0.12638,12.887,8.5203,-3.3333,2.6403,-4.813,3.252,2.5243,5.7886,-3.3333,2.6403,-2.6534,9.5238,14.54,5.8413,16.747,15.523,-29.179001,7.1111,0.65681,8.8889
-2.0221,6.5072,3.3171,-2.6797,0.66007,-3.5122,3.252,0.58252,1.8862,-2.6797,0.66007,-2.6534,5.7143,10.73,3.3016,12.238,10.37,8.1804,0.12698,1.9704,9.533
-8.9731,-3.0622,-9.0407,-7.9085,-9.2409,-7.4146,-2.6016,-6.5372,-3.9675,-7.9085,-9.2409,-6.6335,-2.5397,1.8413,-4.9524,3.2206,-0.57971,28.148001,-1.1429,-1.9704,2.4477
-2.0221,3.9553,-3.187,-2.6797,0.0,0.39024,2.6016,-0.71197,1.8862,-2.6797,0.0,1.99,0.0,0.57143,-1.1429,5.7971,1.9968,15.266,5.8413,3.2841,1.1594
4.297,9.059,7.8699,-0.06536,9.2409,6.2439,5.8537,1.877,5.7886,-0.06536,9.2409,7.2968,1.9048,-1.9683,3.3016,9.6618,6.5056,-18.229,7.746,2.6273,7.6006
0.50553,8.4211,10.472,-2.6797,3.3003,3.6423,4.5528,-2.0065,3.8374,-2.6797,3.3003,4.6434,0.0,-5.1429,-0.50794,7.0853,5.2174,-33.042999,3.3016,-4.5977,6.3124
-2.0221,7.7831,12.423,-1.3725,1.9802,3.6423,3.9024,-2.0065,1.2358,-1.3725,1.9802,5.9701,6.9841,2.4762,2.0317,10.95,9.0821,-0.19324,3.9365,0.65681,10.821
-1.3902,3.9553,8.5203,0.58824,0.66007,4.2927,2.6016,-0.06472,-2.6667,0.58824,0.66007,6.6335,11.429,9.4603,3.3016,11.594,8.438,19.129999,5.2063,3.2841,14.686
-0.12638,-1.7863,3.9675,1.8954,-0.66007,3.6423,-0.65041,1.877,-3.3171,1.8954,-0.66007,4.6434,11.429,6.2857,3.3016,4.5089,3.9291,27.504,-1.7778,3.9409,7.6006
4.9289,2.6794,5.9187,7.1242,1.9802,6.2439,1.9512,9.644,2.5366,7.1242,1.9802,7.2968,17.143,10.73,8.381,5.7971,6.5056,24.927999,4.5714,9.8522,1.8035
-3.2859,-8.1659,-5.7886,-3.3333,-4.6205,-2.8618,-9.1057,-0.06472,-9.1707,-3.3333,-4.6205,-3.9801,6.9841,1.2063,-0.50794,-5.153,-2.5121,-40.772999,-18.285999,-3.2841,-11.723
-0.75829,-14.545,-8.3902,-7.9085,-11.221,-6.1138,-14.309,-5.2427,-15.024,-7.9085,-11.221,-7.9602,5.7143,-0.69841,2.0317,-6.4412,-2.5121,-27.246,-23.365,-0.65681,-9.7907
8.7204,-8.1659,0.71545,-0.71895,-6.6007,0.39024,-6.5041,1.877,-7.2195,-0.71895,-6.6007,0.0,12.063,1.2063,12.825,-0.64412,4.5733,31.368999,-6.8571,16.42,-2.0612
12.512,-2.4242,7.8699,3.8562,3.3003,7.5447,0.0,7.7023,-0.71545,3.8562,3.3003,6.6335,12.063,-2.6032,14.73,0.0,6.5056,21.707001,2.0317,21.674999,-1.4171
8.0885,-1.1483,6.5691,2.549,2.6403,5.5935,1.3008,6.4078,-0.06504,2.549,2.6403,5.3068,1.9048,-7.6825,7.746,-3.2206,3.285,12.045,8.381,11.823,-9.1465
0.50553,-3.7002,-1.2358,-0.71895,-0.66007,-0.91057,-1.3008,1.2298,-2.6667,-0.71895,-0.66007,-0.66335,-5.0794,-7.6825,2.6667,-3.8647,0.06441,20.419001,-3.0476,3.9409,-10.435
-3.2859,-6.252,-9.6911,-7.2549,-5.9406,-6.7642,-4.5528,-6.5372,-5.9187,-7.2549,-5.9406,-7.2968,-7.619,-4.5079,0.7619,-2.5765,-1.2238,-13.076,-10.032,-5.2545,-5.9259
-3.9179,-6.89,-10.341,-10.523,-11.881,-10.016,-5.8537,-11.715,-5.2683,-10.523,-11.881,-11.277,-7.619,-3.873,-0.50794,-2.5765,-1.868,-24.67,-6.8571,-9.8522,-6.57
-6.4455,-5.614,-7.7398,-7.9085,-9.901,-9.3659,-9.7561,-7.1845,-2.6667,-7.9085,-9.901,-11.94,-5.7143,-3.2381,-3.0476,-1.9324,-2.5121,-0.19324,-6.8571,-7.225,-0.77295
-0.75829,0.12759,-1.2358,-0.06536,-1.9802,-1.561,-6.5041,3.1715,1.2358,-0.06536,-1.9802,-5.3068,2.5397,5.0159,0.12698,3.8647,0.06441,-2.7697,3.9365,0.0,6.3124
0.50553,2.6794,0.06504,-2.6797,-1.9802,-1.561,-3.9024,-0.06472,1.2358,-2.6797,-1.9802,-3.9801,5.7143,9.4603,1.3968,5.7971,0.70853,-2.1256,12.825,1.9704,7.6006
-7.0774,-3.7002,-8.3902,-7.2549,-7.2607,-8.7154,-8.4553,-5.89,-5.2683,-7.2549,-7.2607,-9.9502,-1.2698,4.381,-4.3175,1.9324,-4.4444,7.5362,4.5714,-2.6273,4.38
-9.6051,-5.614,-12.943,-10.523,-11.881,-10.667,-8.4553,-9.1262,-5.2683,-10.523,-11.881,-11.277,-6.9841,2.4762,-9.3968,0.0,-7.6651,-21.448999,-5.5873,-7.8818,-0.77295
-15.292,-6.252,-15.545,-13.137,-8.5809,-11.317,-8.4553,-14.951,-3.3171,-13.137,-8.5809,-10.614,-9.5238,0.57143,-15.746,-2.5765,-11.53,-24.025999,-4.9524,-8.5386,-0.77295
-12.765,-3.7002,-10.992,-11.176,-3.9604,-8.065,-3.252,-13.01,-0.71545,-11.176,-3.9604,-5.9701,-7.619,0.57143,-14.476,-3.8647,-10.242,-23.382,-5.5873,-5.9113,-0.77295
-6.4455,0.12759,-1.8862,-7.2549,-2.6403,-2.8618,2.6016,-8.479,2.5366,-7.2549,-2.6403,0.66335,-1.9048,0.57143,-6.8571,-3.2206,-4.4444,3.6715,-3.6825,-0.65681,-0.77295
-7.7093,1.4035,0.71545,-5.9477,-1.9802,-3.5122,4.5528,-11.068,3.187,-5.9477,-1.9802,2.6534,-0.63492,-1.3333,-3.6825,-2.5765,-0.57971,16.554001,1.3968,0.0,3.7359
0.50553,4.5933,2.0163,-1.3725,2.6403,2.3415,6.5041,-3.9482,5.1382,-1.3725,2.6403,7.9602,1.2698,-0.69841,2.6667,0.0,4.5733,15.91,1.3968,3.9409,1.8035
4.9289,5.8692,3.3171,-2.6797,3.3003,4.9431,5.8537,-0.06472,6.439,-2.6797,3.3003,8.6235,-0.63492,-3.873,3.9365,-1.2882,5.2174,8.8245,11.556,3.2841,-5.2818
2.4013,2.6794,3.9675,-5.9477,-1.9802,2.3415,4.5528,-2.6537,1.2358,-5.9477,-1.9802,5.9701,-8.254,-14.032,-1.7778,-9.6618,-1.2238,-13.72,5.8413,-4.5977,-10.435
6.1927,3.9553,10.472,-2.6797,0.66007,6.2439,9.7561,1.2298,-0.06504,-2.6797,0.66007,9.9502,-6.3492,-12.762,0.12698,-7.0853,0.06441,-21.448999,-6.8571,-1.9704,-3.3494
-2.0221,-1.1483,5.9187,-5.2941,-4.6205,0.39024,3.252,-0.71197,-1.3659,-5.2941,-4.6205,3.3167,-5.0794,-11.492,-3.6825,-6.4412,-3.1562,2.3833,-8.127,-2.6273,-3.3494
-10.869,-5.614,-3.8374,-11.176,-11.881,-8.7154,-5.8537,-4.5955,-3.9675,-11.176,-11.881,-7.2968,-5.7143,-11.492,-9.3968,-7.7295,-8.3092,5.6039,-8.7619,-7.225,-9.7907
-14.028,-6.89,-8.3902,-15.098,-13.201,-14.569,-9.1057,-7.1845,-8.5203,-15.098,-13.201,-13.267,-10.159,-12.127,-14.476,-8.3736,-12.174,-22.738001,-4.3175,-13.793,-12.367
-3.9179,5.8692,5.2683,-8.5621,-2.6403,-6.1138,0.0,-0.06472,3.187,-8.5621,-2.6403,-3.3167,-1.2698,3.1111,-4.3175,7.0853,-0.57971,3.0274,1.3968,-2.6273,6.3124
-6.4455,5.2313,6.5691,-12.484,-10.561,-9.3659,-3.252,-2.0065,-0.71545,-12.484,-10.561,-6.6335,-4.4444,5.6508,-5.5873,6.4412,-1.868,-7.2786,-5.5873,-7.225,8.2448
-11.501,0.76555,2.0163,-17.712,-18.482,-16.52,-8.4553,-7.8317,-8.5203,-17.712,-18.482,-14.594,-10.159,3.746,-9.3968,2.5765,-6.3768,-5.9903,-3.6825,-11.166,3.0918
-8.9731,1.4035,2.0163,-19.02,-20.462,-15.22,-8.4553,-5.89,-10.472,-19.02,-20.462,-15.257,-10.159,4.381,-8.7619,2.5765,-5.0886,-29.823,-5.5873,-9.8522,2.4477
-3.9179,2.0415,2.6667,-13.791,-11.881,-10.016,-3.9024,-0.06472,-3.9675,-13.791,-11.881,-10.614,-5.0794,6.2857,-4.9524,5.153,-0.57971,-0.19324,6.4762,-1.9704,6.9565
-7.0774,-1.7863,0.06504,-12.484,-10.561,-10.016,-6.5041,-2.6537,-7.2195,-12.484,-10.561,-11.277,-3.8095,2.4762,-6.2222,1.9324,-1.2238,42.319,-0.50794,2.6273,2.4477
-12.133,-7.5279,-5.7886,-19.02,-20.462,-14.569,-13.008,-7.1845,-15.024,-19.02,-20.462,-16.584,-13.968,-10.222,-12.571,-10.306,-8.9533,-7.2786,-16.381001,-7.8818,-15.588
1.1374,-2.4242,1.3659,-11.176,-11.221,-4.813,-4.5528,2.5243,-3.9675,-11.176,-11.221,-7.2968,-13.968,-12.127,-4.9524,-10.306,-4.4444,-9.2109,-7.4921,-5.9113,-15.588
6.8246,0.12759,6.5691,-3.9869,-2.6403,2.9919,1.9512,5.7605,-0.71545,-3.9869,-2.6403,1.3267,-10.159,-13.397,0.7619,-10.306,-0.57971,24.283001,-3.0476,0.0,-11.079
16.934999,10.335,18.275999,10.392,7.2607,16.0,15.61,16.117001,10.341,10.392,7.2607,15.92,3.1746,-6.4127,12.19,-1.9324,9.7262,37.166,8.381,10.509,-1.4171
15.039,9.697,16.976,9.7386,6.6007,16.65,14.959,12.88,9.0407,9.7386,6.6007,15.92,8.8889,-7.6825,13.46,-3.8647,10.37,21.707001,13.46,11.166,-5.2818
8.0885,0.12759,7.2195,-0.71895,-4.6205,8.1951,1.9512,3.8188,-2.0163,-0.71895,-4.6205,5.3068,6.9841,-12.762,7.746,-12.238,3.285,-10.499,3.3016,2.6273,-14.944
8.7204,-0.51037,3.9675,-2.6797,-9.901,6.2439,-1.9512,3.8188,-3.3171,-2.6797,-9.901,1.99,6.9841,-5.7778,5.2063,-9.6618,1.9968,-14.364,5.8413,1.3136,-9.1465
5.5608,-0.51037,0.06504,-4.6405,-11.221,4.2927,-1.3008,-0.06472,-2.0163,-4.6405,-11.221,1.3267,2.5397,3.746,0.12698,-7.0853,-1.868,3.0274,-0.50794,-0.65681,-3.3494
2.4013,-5.614,-6.439,-5.9477,-7.2607,2.9919,-4.5528,-1.3592,-2.6667,-5.9477,-7.2607,-1.3267,-6.3492,1.8413,-6.2222,-10.95,-10.886,-4.058,-4.9524,-7.8818,-3.9936
4.297,-5.614,-6.439,-3.3333,-6.6007,3.6423,-5.8537,3.8188,-3.9675,-3.3333,-6.6007,-1.99,-12.698,-0.69841,-6.8571,-11.594,-14.75,-7.9227,-1.1429,-9.8522,-3.3494
-0.75829,-7.5279,-5.7886,-6.6013,-9.2409,1.0407,-7.8049,0.58252,-5.2683,-6.6013,-9.2409,-3.9801,-17.143,-1.9683,-10.032,-10.306,-14.75,-4.058,1.3968,-11.166,-1.4171
-5.8136,-6.252,-7.0894,-7.2549,-9.2409,-2.2114,-5.8537,-2.6537,-3.9675,-7.2549,-9.2409,-4.6434,-18.413,-1.9683,-11.937,-7.0853,-12.174,-26.601999,-1.1429,-13.793,1.8035
2.4013,5.2313,-0.58537,3.2026,-1.9802,3.6423,3.9024,7.7023,4.4878,3.2026,-1.9802,3.3167,-6.9841,6.2857,-3.0476,3.8647,-1.2238,-24.67,10.286,-3.9409,8.2448
3.6651,7.1451,-0.58537,5.817,1.9802,4.2927,4.5528,7.055,5.7886,5.817,1.9802,3.9801,0.63492,11.365,3.9365,9.6618,4.5733,20.419001,7.1111,5.2545,13.398
-8.3412,-3.0622,-10.341,-3.9869,-3.9604,-5.4634,-5.8537,-3.301,-2.0163,-3.9869,-3.9604,-7.2968,-4.4444,2.4762,-3.6825,1.9324,-3.1562,32.657001,-0.50794,-0.65681,8.2448
-8.9731,-4.9761,-10.992,-5.9477,-5.2805,-6.7642,-5.8537,-2.6537,-1.3659,-5.9477,-5.2805,-9.2869,-3.1746,-3.873,-4.9524,-1.9324,-6.3768,28.148001,0.7619,0.65681,-1.4171
-3.2859,-1.7863,-8.3902,-3.3333,-6.6007,-2.8618,-1.3008,-0.71197,-2.6667,-3.3333,-6.6007,-5.9701,0.63492,-6.4127,-1.7778,-3.2206,-3.8003,-8.5668,-1.1429,-0.65681,-5.2818
2.4013,5.2313,-1.8862,0.58824,-2.6403,1.0407,6.5041,3.8188,3.187,0.58824,-2.6403,0.0,6.3492,-0.69841,5.2063,2.5765,4.5733,-18.229,0.7619,1.9704,1.1594
-1.3902,7.1451,-0.58537,-0.71895,3.3003,-2.8618,7.8049,1.877,7.0894,-0.71895,3.3003,-0.66335,6.9841,-1.3333,4.5714,2.5765,6.5056,16.554001,0.7619,4.5977,-1.4171
-5.8136,7.1451,0.06504,-0.06536,7.2607,-3.5122,7.8049,-0.06472,9.6911,-0.06536,7.2607,-1.3267,3.8095,-1.3333,0.7619,0.64412,4.5733,4.3156,6.4762,1.3136,-2.7053
3.0332,7.7831,4.6179,6.4706,9.2409,4.2927,10.407,8.3495,14.244,6.4706,9.2409,3.9801,4.4444,1.8413,4.5714,2.5765,6.5056,4.9597,11.556,1.9704,1.1594
0.50553,-1.1483,0.06504,-0.06536,3.9604,-0.91057,3.252,2.5243,7.0894,-0.06536,3.9604,-1.3267,-2.5397,-1.9683,1.3968,-3.2206,1.3527,21.063,3.3016,-1.9704,-1.4171
-2.654,-2.4242,-1.8862,-5.2941,-0.66007,-4.813,-2.6016,-2.6537,3.8374,-5.2941,-0.66007,-3.9801,-7.619,-1.9683,-1.1429,-3.2206,0.06441,-1.4815,5.2063,-4.5977,-1.4171
-1.3902,3.3174,0.06504,-2.0261,-0.66007,-2.2114,0.0,-2.0065,5.7886,-2.0261,-0.66007,-0.66335,-6.9841,-0.06349,-1.1429,0.64412,1.3527,-4.7021,3.9365,-6.5681,0.5153
-0.75829,2.6794,1.3659,1.2418,3.9604,0.39024,1.9512,-1.3592,6.439,1.2418,3.9604,1.99,-6.9841,-0.69841,-2.4127,0.0,-0.57971,-13.076,1.3968,-8.5386,1.1594
2.4013,-0.51037,2.0163,2.549,3.3003,2.9919,1.9512,0.58252,5.7886,2.549,3.3003,3.3167,-6.3492,-1.9683,-1.1429,0.64412,-1.2238,-21.448999,5.2063,-6.5681,5.0242
1.7694,0.12759,3.9675,-0.06536,-1.9802,2.9919,2.6016,-1.3592,5.7886,-0.06536,-1.9802,3.9801,-5.7143,-1.9683,-0.50794,1.9324,-1.2238,6.248,8.381,-2.6273,8.2448
0.50553,4.5933,6.5691,0.58824,0.66007,2.9919,5.2033,-1.3592,5.1382,0.58824,0.66007,7.2968,-3.1746,0.57143,-1.7778,5.153,0.06441,13.333,9.6508,0.65681,8.8889
4.9289,9.697,9.8211,7.7778,8.5809,9.4959,13.008,5.1133,8.3902,7.7778,8.5809,15.257,5.7143,6.9206,3.3016,10.95,3.9291,21.063,10.286,8.5386,15.33
3.0332,2.6794,4.6179,5.817,3.9604,8.1951,9.1057,2.5243,1.2358,5.817,3.9604,12.604,3.8095,1.2063,0.12698,2.5765,-2.5121,-1.4815,1.3968,3.9409,6.9565
8.7204,3.3174,9.8211,6.4706,3.3003,10.797,8.4553,3.8188,0.58537,6.4706,3.3003,13.93,8.254,2.4762,6.4762,3.8647,1.9968,-0.83736,-0.50794,5.2545,2.4477
12.512,9.059,17.625999,9.085,7.2607,13.398,11.707,6.4078,5.1382,9.085,7.2607,17.247,14.603,8.8254,12.19,10.306,11.014,12.045,-3.6825,11.166,2.4477
15.039,14.163,18.927,14.967,13.201,14.699,15.61,10.291,7.0894,14.967,13.201,18.573999,18.413,14.54,15.365,13.527,15.523,-8.5668,-1.1429,16.42,4.38
9.3523,9.059,10.472,11.046,11.881,8.8455,10.407,1.877,3.187,11.046,11.881,12.604,14.603,11.365,10.286,7.7295,9.7262,-4.058,0.7619,9.8522,1.1594
-1.3902,-1.1483,0.71545,5.817,7.9208,2.9919,3.9024,-3.301,1.8862,5.817,7.9208,5.9701,5.0794,3.746,0.7619,-1.2882,-0.57971,12.689,-5.5873,0.65681,-4.6377
-0.12638,-3.0622,-1.2358,7.7778,3.9604,3.6423,1.9512,-0.71197,0.58537,7.7778,3.9604,3.9801,1.2698,-1.9683,-1.7778,-4.5089,-3.8003,1.7391,-9.3968,0.65681,-5.9259
9.3523,7.1451,7.2195,15.621,11.221,10.797,9.1057,7.055,12.943,15.621,11.221,9.9502,8.8889,3.1111,7.1111,3.8647,4.5733,22.351,11.556,9.1954,3.7359
4.9289,3.3174,-0.58537,14.967,13.861,7.5447,5.2033,6.4078,14.894,14.967,13.861,3.9801,5.7143,-0.06349,3.3016,1.2882,1.3527,6.8921,9.6508,3.2841,1.8035
-6.4455,-6.89,-12.293,9.085,5.9406,-2.8618,-4.5528,-0.71197,4.4878,9.085,5.9406,-7.2968,-3.1746,-8.9524,-5.5873,-8.3736,-6.3768,-6.6345,-0.50794,-5.2545,-6.57
-9.6051,-8.8038,-10.992,5.817,5.2805,-5.4634,-7.8049,-7.1845,2.5366,5.817,5.2805,-8.6235,-5.7143,-12.127,-6.8571,-11.594,-7.0209,5.6039,-1.7778,-4.5977,-5.9259
-5.1817,-10.718,-7.7398,5.1634,3.9604,-4.813,-11.707,-5.2427,1.2358,5.1634,3.9604,-9.2869,-8.254,-15.302,-4.9524,-14.815,-8.3092,-39.485001,-4.3175,-7.225,-7.2142
6.8246,-10.08,-4.4878,7.1242,5.2805,-0.91057,-8.4553,-2.0065,4.4878,7.1242,5.2805,-7.2968,-0.63492,-13.397,3.9365,-15.459,-7.6651,-27.889999,-8.127,0.0,-8.5024
8.7204,-8.1659,-1.8862,5.1634,9.2409,-0.91057,-5.8537,-5.89,7.7398,5.1634,9.2409,-5.3068,8.254,-6.4127,11.556,-12.238,-5.0886,22.995001,-3.6825,9.1954,-5.9259
3.6651,-10.08,-8.3902,5.817,5.2805,-4.1626,-7.8049,-7.1845,5.7886,5.817,5.2805,-7.2968,10.159,-0.06349,10.286,-8.3736,-3.8003,22.995001,2.6667,7.225,-0.77295
9.3523,-3.0622,-5.7886,13.66,11.221,2.9919,-0.65041,3.8188,11.642,13.66,11.221,-0.66335,14.603,14.54,12.825,4.5089,5.2174,-10.499,8.381,8.5386,9.533
6.1927,-2.4242,-6.439,9.085,7.2607,2.3415,-0.65041,0.58252,7.7398,9.085,7.2607,-2.6534,10.794,17.714001,7.746,10.306,6.5056,-9.8551,8.381,6.5681,13.398
-3.2859,-9.4418,-10.341,-1.3725,-2.6403,-7.4146,-9.1057,-9.1262,-1.3659,-1.3725,-2.6403,-11.277,5.7143,15.175,1.3968,7.7295,1.9968,13.977,-1.1429,3.2841,9.533
-7.0774,-9.4418,-9.0407,-4.6405,-4.6205,-10.667,-11.057,-11.715,-3.3171,-4.6405,-4.6205,-12.604,0.0,12.0,-3.0476,5.153,0.06441,-24.025999,-0.50794,-5.2545,1.1594
1.7694,6.5072,3.9675,2.549,6.6007,-2.2114,1.3008,-5.2427,9.6911,2.549,6.6007,-1.3267,4.4444,18.983999,3.9365,15.459,11.014,-15.652,7.746,-0.65681,8.2448
-2.0221,10.973,5.9187,1.8954,7.2607,-1.561,5.2033,-5.2427,11.642,1.8954,7.2607,1.99,3.8095,17.079,2.0317,16.747,12.303,21.707001,-0.50794,1.9704,9.533
-3.9179,9.059,2.6667,3.2026,6.6007,-0.26016,5.2033,-3.301,10.341,3.2026,6.6007,3.3167,1.2698,13.27,-0.50794,14.815,9.7262,19.775,2.6667,1.3136,10.821
-2.654,6.5072,-1.2358,3.8562,3.9604,-0.91057,4.5528,-4.5955,9.6911,3.8562,3.9604,1.99,-5.7143,6.9206,-4.3175,10.306,5.2174,-8.5668,2.6667,-3.9409,3.7359
-2.654,8.4211,2.0163,3.8562,4.6205,-0.91057,6.5041,-5.89,10.992,3.8562,4.6205,1.99,-10.794,1.8413,-5.5873,7.7295,3.9291,-18.872999,7.746,-6.5681,1.1594
-0.75829,12.249,8.5203,3.2026,9.2409,0.39024,9.7561,-6.5372,11.642,3.2026,9.2409,5.9701,-8.8889,1.8413,-1.7778,9.6618,7.1498,-7.2786,12.19,-5.2545,8.2448
8.0885,18.628,16.976,7.1242,17.822001,5.5935,15.61,-2.6537,17.496,7.1242,17.822001,12.604,-2.5397,3.746,7.746,12.882,13.591,-15.652,16.0,-2.6273,14.686
14.408,17.99,20.878,12.353,20.462,10.797,17.561001,3.1715,20.747999,12.353,20.462,17.247,-0.63492,1.2063,12.825,10.95,14.235,8.8245,21.079,2.6273,10.821
13.776,11.611,16.976,11.699,14.521,12.098,15.61,3.1715,16.195,11.699,14.521,17.247,-1.9048,-5.7778,10.921,3.8647,9.0821,10.757,12.19,0.0,5.0242
8.0885,10.335,12.423,8.4314,9.901,10.146,13.659,-2.0065,12.293,8.4314,9.901,15.257,-0.63492,-7.6825,8.381,1.9324,5.2174,-7.2786,5.8413,-2.6273,1.1594
8.0885,15.439,16.325001,6.4706,15.182,10.146,18.211,-5.89,13.593,6.4706,15.182,17.91,4.4444,-0.06349,10.286,7.7295,9.7262,-31.754999,8.381,-1.3136,3.0918
9.9842,15.439,20.878,5.817,15.182,9.4959,18.211,-8.479,12.293,5.817,15.182,18.573999,5.7143,3.746,12.19,8.3736,12.303,-24.025999,3.9365,3.2841,3.0918
5.5608,7.7831,16.325001,-0.06536,9.2409,3.6423,10.407,-14.304,7.7398,-0.06536,9.2409,12.604,5.0794,6.9206,10.921,7.0853,11.014,17.841999,3.9365,6.5681,6.3124
0.50553,1.4035,6.5691,-3.3333,5.9406,-1.561,4.5528,-14.304,6.439,-3.3333,5.9406,5.3068,3.1746,7.5556,5.8413,3.2206,6.5056,25.572001,4.5714,3.9409,3.7359
-8.3412,-8.8038,-7.7398,-9.8693,-3.3003,-8.7154,-4.5528,-16.246,-3.3171,-9.8693,-3.3003,-4.6434,-1.2698,1.2063,-4.9524,-8.3736,-5.0886,-7.9227,-8.127,-1.9704,-8.5024
-1.3902,-6.89,-5.7886,-7.2549,-2.6403,-3.5122,-0.65041,-8.479,-2.6667,-7.2549,-2.6403,-0.66335,5.0794,4.381,-1.7778,-7.0853,-3.8003,-34.976002,-3.0476,5.9113,-11.723
1.1374,-4.3381,-0.58537,-7.9085,-3.9604,-0.91057,0.0,-7.1845,-3.9675,-7.9085,-3.9604,1.3267,6.9841,3.746,1.3968,-3.8647,1.3527,-11.787,-4.9524,7.225,-10.435
-1.3902,0.12759,2.6667,-6.6013,-7.9208,-2.2114,3.252,-8.479,-2.0163,-6.6013,-7.9208,1.99,3.1746,2.4762,0.7619,0.0,5.2174,15.91,-11.937,0.65681,-5.9259
1.1374,8.4211,5.2683,0.58824,1.9802,2.3415,7.8049,-0.71197,7.0894,0.58824,1.9802,6.6335,1.2698,4.381,0.12698,7.0853,7.7939,20.419001,-0.50794,-0.65681,3.7359
-3.2859,9.697,-1.2358,-0.06536,7.9208,2.9919,4.5528,3.1715,6.439,-0.06536,7.9208,3.9801,-7.619,-1.9683,-8.7619,5.7971,0.06441,-1.4815,3.3016,-3.9409,5.0242
-8.3412,5.2313,-8.3902,-2.0261,3.9604,-0.26016,2.6016,-0.71197,1.8862,-2.0261,3.9604,-0.66335,-13.333,-5.7778,-15.111,1.2882,-8.9533,-12.432,1.3968,-6.5681,3.0918
-1.3902,1.4035,-10.341,1.8954,3.9604,1.0407,0.65041,3.1715,3.8374,1.8954,3.9604,0.0,-8.254,-5.7778,-8.127,-1.2882,-10.886,1.7391,7.1111,-1.9704,3.7359
1.1374,-6.252,-12.943,-0.06536,-0.66007,-0.26016,-3.9024,1.2298,-0.06504,-0.06536,-0.66007,-2.6534,-8.8889,-13.397,-5.5873,-9.6618,-16.683001,-8.5668,0.7619,-2.6273,-0.12882
0.50553,-7.5279,-8.3902,-0.06536,-1.3201,1.0407,-1.3008,-0.06472,-2.6667,-0.06536,-1.3201,0.0,-9.5238,-14.032,-6.2222,-10.306,-16.039,4.9597,-6.2222,-1.9704,-3.9936
6.1927,9.059,7.8699,7.7778,9.2409,11.447,12.358,11.586,9.0407,7.7778,9.2409,12.604,5.0794,3.746,3.9365,7.0853,1.3527,17.198,7.746,10.509,3.0918
-0.12638,10.335,4.6179,5.817,5.9406,6.8943,7.8049,10.291,7.7398,5.817,5.9406,6.6335,5.7143,6.9206,1.3968,9.0177,3.9291,-15.008,3.9365,4.5977,1.8035
6.8246,9.697,5.2683,9.085,6.6007,6.8943,5.2033,9.644,7.7398,9.085,6.6007,4.6434,15.238,13.905,10.286,14.171,10.37,4.9597,3.3016,9.8522,10.177
8.7204,2.0415,1.3659,3.2026,0.0,1.0407,-3.252,3.1715,-0.06504,3.2026,0.0,-3.3167,17.143,14.54,12.825,9.6618,7.7939,29.436001,0.12698,9.8522,3.7359
0.50553,-10.718,-7.7398,-4.6405,-7.9208,-6.7642,-11.707,-3.9482,-8.5203,-4.6405,-7.9208,-11.94,7.619,6.9206,3.3016,-2.5765,-2.5121,7.5362,-15.111,-2.6273,-8.5024
0.50553,-11.356,-5.7886,-1.3725,-3.3003,-3.5122,-9.1057,-0.71197,-4.6179,-1.3725,-3.3003,-7.9602,3.8095,7.5556,1.3968,-2.5765,-2.5121,-12.432,-11.302,-3.9409,-2.7053
-4.5498,-8.8038,-5.7886,1.8954,0.66007,-3.5122,-9.1057,-1.3592,0.58537,1.8954,0.66007,-7.2968,-1.2698,6.2857,-1.7778,-3.2206,-2.5121,-12.432,-1.7778,-4.5977,-2.7053
-7.7093,-11.994,-9.6911,-0.71895,-1.3201,-8.065,-12.358,-6.5372,-0.71545,-0.71895,-1.3201,-11.94,-5.7143,-1.9683,-4.3175,-7.7295,-6.3768,-3.4138,-2.4127,-6.5681,-6.57
-3.2859,-10.08,-8.3902,-0.71895,5.2805,-6.7642,-7.8049,-5.2427,4.4878,-0.71895,5.2805,-8.6235,-1.2698,-10.222,0.12698,-10.306,-5.7327,9.4686,0.12698,1.9704,-3.9936
-3.2859,-10.08,-7.0894,-0.71895,5.2805,-6.1138,-7.1545,-7.1845,1.8862,-0.71895,5.2805,-6.6335,1.2698,-18.476,1.3968,-14.171,-5.7327,-23.382,0.7619,3.2841,-13.011
-5.1817,-6.89,-4.4878,-0.06536,-0.66007,-6.7642,-7.1545,-6.5372,-2.0163,-0.06536,-0.66007,-5.9701,4.4444,-19.111,3.3016,-11.594,-1.868,-0.83736,1.3968,7.8818,-11.723
-7.0774,-7.5279,-4.4878,-2.0261,-3.9604,-10.016,-9.7561,-5.89,-4.6179,-2.0261,-3.9604,-8.6235,2.5397,-19.746,0.7619,-10.95,-2.5121,-2.1256,-1.1429,7.225,-11.079
3.0332,-1.7863,2.6667,3.2026,5.2805,-4.1626,-3.252,0.58252,3.187,3.2026,5.2805,-3.3167,6.9841,-10.222,5.2063,-4.5089,2.6409,1.095,7.1111,10.509,-7.2142
1.1374,-4.9761,-2.5366,-0.71895,0.0,-8.065,-6.5041,-1.3592,-2.6667,-0.71895,0.0,-8.6235,3.8095,-7.0476,0.12698,-5.7971,-1.868,17.198,1.3968,5.9113,-8.5024
-3.2859,-8.8038,-8.3902,-3.9869,-5.9406,-12.618,-10.407,-4.5955,-5.9187,-3.9869,-5.9406,-13.267,3.1746,-1.9683,-3.6825,-5.7971,-4.4444,3.0274,-6.2222,2.6273,-5.2818
-6.4455,-8.8038,-9.0407,-6.6013,-6.6007,-13.919,-11.707,-5.2427,-5.2683,-6.6013,-6.6007,-14.594,3.1746,3.1111,-4.9524,-3.8647,-3.8003,-6.6345,-1.7778,1.3136,3.0918
-5.1817,-6.89,-5.7886,-5.9477,-6.6007,-10.016,-9.7561,-4.5955,-4.6179,-5.9477,-6.6007,-11.277,-0.63492,2.4762,-4.9524,-3.2206,-3.1562,-16.940001,-2.4127,-0.65681,1.8035
1.1374,0.76555,3.3171,3.8562,5.2805,0.39024,-0.65041,2.5243,2.5366,3.8562,5.2805,-1.3267,-3.1746,3.746,-2.4127,-0.64412,0.70853,-14.364,-4.3175,-2.6273,1.1594
-0.75829,3.3174,5.2683,9.085,9.2409,4.9431,7.1545,5.1133,7.7398,9.085,9.2409,3.9801,-6.3492,-0.69841,-1.7778,-3.2206,0.70853,10.113,-1.7778,-4.5977,-3.9936
1.1374,2.6794,5.2683,9.085,7.9208,6.2439,9.1057,3.8188,5.7886,9.085,7.9208,6.6335,-5.0794,-1.3333,1.3968,-2.5765,1.3527,4.9597,-3.6825,-3.2841,-5.2818
4.9289,1.4035,7.8699,6.4706,8.5809,6.8943,9.7561,1.877,1.2358,6.4706,8.5809,7.2968,0.0,-0.69841,7.746,-1.9324,3.9291,8.8245,-11.937,1.3136,-3.9936
10.616,4.5933,13.724,9.7386,9.2409,10.146,11.707,2.5243,3.187,9.7386,9.2409,11.277,6.9841,-3.2381,12.19,-1.2882,6.5056,1.095,-4.9524,1.3136,-5.2818
9.3523,10.335,17.625999,14.967,18.482,13.398,16.910999,4.466,10.992,14.967,18.482,17.91,10.794,-4.5079,12.19,2.5765,9.0821,6.248,2.0317,1.9704,-3.9936
11.248,21.18,23.48,16.927999,21.122,17.301001,24.715,4.466,21.398001,16.927999,21.122,25.207001,13.968,1.8413,12.825,11.594,14.879,-9.8551,13.46,4.5977,5.6683
13.144,24.370001,26.080999,12.353,19.802,16.65,24.065001,1.877,19.447001,12.353,19.802,24.544001,13.968,6.2857,14.73,16.103001,18.743999,-5.9903,16.0,3.9409,12.11
9.3523,19.903999,23.48,8.4314,15.842,12.748,18.862,-2.6537,15.545,8.4314,15.842,20.563999,9.5238,4.381,13.46,13.527,18.1,12.045,7.1111,2.6273,9.533
4.297,12.887,18.275999,3.8562,11.221,8.1951,13.008,-8.479,12.943,3.8562,11.221,15.92,2.5397,1.8413,7.746,8.3736,12.947,-13.72,6.4762,-2.6273,3.0918
-0.75829,9.697,12.423,4.5098,11.221,4.9431,10.407,-5.89,10.992,4.5098,11.221,13.93,-1.9048,4.381,2.6667,7.7295,7.7939,0.45089,7.746,-5.2545,2.4477
-7.0774,2.0415,2.0163,1.8954,3.9604,-0.26016,3.252,-7.1845,3.8374,1.8954,3.9604,7.2968,-6.3492,5.6508,-4.3175,3.8647,-0.57971,6.248,3.3016,-6.5681,2.4477
-2.0221,-3.0622,-3.8374,-0.06536,-0.66007,0.39024,-0.65041,-2.0065,-1.3659,-0.06536,-0.66007,2.6534,-3.1746,10.095,-4.3175,3.2206,-4.4444,-20.805,8.381,-4.5977,5.6683
3.0332,-1.1483,-2.5366,4.5098,3.3003,4.2927,0.65041,4.466,1.8862,4.5098,3.3003,4.6434,3.1746,16.444,-0.50794,9.0177,-0.57971,-9.2109,13.46,5.2545,14.042
-12.133,-10.08,-14.894,-5.2941,-5.9406,-7.4146,-12.358,-3.301,-6.5691,-5.2941,-5.9406,-7.2968,-7.619,3.1111,-13.841,-1.9324,-11.53,-4.7021,5.2063,-3.9409,5.6683
-17.188,-13.27,-18.797001,-7.9085,-6.6007,-8.7154,-14.959,-3.301,-11.122,-7.9085,-6.6007,-9.9502,-10.794,-3.873,-18.285999,-6.4412,-16.039,15.91,-6.8571,-4.5977,0.5153
-12.133,-11.994,-14.894,-3.9869,-9.2409,-4.1626,-13.659,-0.71197,-12.423,-3.9869,-9.2409,-7.2968,-8.254,-6.4127,-12.571,-5.7971,-13.462,26.216,-8.127,-1.3136,-1.4171
-5.8136,-9.4418,-9.0407,-5.9477,-13.201,-3.5122,-11.057,1.2298,-11.772,-5.9477,-13.201,-6.6335,-10.159,-12.127,-8.7619,-6.4412,-10.886,10.113,-6.8571,-6.5681,-1.4171
-1.3902,-3.7002,-4.4878,-5.2941,-9.901,-2.2114,-3.9024,-0.71197,-4.6179,-5.2941,-9.901,-3.9801,-8.8889,-12.127,-4.9524,-3.2206,-5.7327,-9.2109,0.12698,-7.225,-2.0612
1.1374,-0.51037,-5.1382,-4.6405,-5.2805,-1.561,-2.6016,0.58252,-2.6667,-4.6405,-5.2805,-4.6434,-8.8889,-12.127,-3.0476,-1.9324,-3.8003,-52.367001,-5.5873,-10.509,-5.2818
13.144,13.525,7.8699,6.4706,9.2409,10.797,10.407,12.233,12.293,6.4706,9.2409,7.9602,4.4444,3.1111,10.921,12.238,11.659,-2.7697,2.6667,7.8818,6.3124
1.7694,4.5933,2.0163,0.58824,2.6403,4.9431,3.252,3.8188,3.8374,0.58824,2.6403,2.6534,-0.63492,1.8413,3.3016,5.7971,6.5056,37.810001,-3.0476,5.2545,1.8035
-6.4455,-5.614,-5.1382,-4.6405,-3.9604,-1.561,-4.5528,-2.0065,-3.9675,-4.6405,-3.9604,-5.3068,-5.0794,-3.2381,-4.3175,-3.2206,-1.868,33.300999,-6.8571,-1.3136,-5.9259
4.297,3.3174,4.6179,1.8954,3.3003,4.9431,3.252,3.1715,3.187,1.8954,3.3003,2.6534,6.9841,6.2857,5.2063,4.5089,6.5056,21.063,0.7619,10.509,-0.12882
10.616,12.887,7.2195,2.549,3.9604,6.8943,7.8049,5.1133,7.0894,2.549,3.9604,5.3068,12.698,12.0,12.19,9.6618,12.947,4.9597,8.381,9.1954,3.0918
9.3523,12.887,3.9675,-2.6797,-1.3201,1.6911,5.8537,-0.06472,5.7886,-2.6797,-1.3201,2.6534,11.429,12.0,11.556,10.306,11.659,-8.5668,5.2063,3.2841,4.38
6.8246,10.973,5.2683,-6.6013,-3.9604,-0.26016,6.5041,-2.6537,4.4878,-6.6013,-3.9604,2.6534,6.3492,8.8254,7.1111,9.0177,9.0821,-41.417,7.746,-1.9704,8.8889
6.1927,11.611,10.472,-3.3333,3.3003,1.6911,9.1057,-1.3592,9.6911,-3.3333,3.3003,5.9701,6.9841,13.27,7.1111,12.238,11.014,-3.4138,14.095,2.6273,14.042
-3.2859,8.4211,5.9187,-5.9477,3.3003,-2.8618,5.2033,-7.8317,7.7398,-5.9477,3.3003,1.99,2.5397,9.4603,2.0317,11.594,8.438,29.436001,3.9365,4.5977,9.533
-7.7093,5.2313,-3.187,-10.523,-5.9406,-6.7642,1.3008,-12.362,3.187,-10.523,-5.9406,-3.3167,-2.5397,3.1111,-3.0476,9.0177,3.9291,4.3156,-3.6825,-2.6273,7.6006
-7.0774,3.3174,-5.7886,-11.176,-7.9208,-7.4146,-1.3008,-12.362,0.58537,-11.176,-7.9208,-4.6434,-3.8095,3.1111,-3.6825,10.306,3.9291,-0.19324,2.6667,-5.9113,12.11
-2.654,4.5933,-1.2358,-7.9085,-4.6205,-7.4146,0.65041,-10.421,2.5366,-7.9085,-4.6205,-3.3167,0.63492,7.5556,0.7619,12.238,6.5056,-14.364,12.825,-2.6273,17.261999
-0.12638,2.6794,0.71545,-8.5621,-2.6403,-8.065,-0.65041,-7.8317,1.8862,-8.5621,-2.6403,-5.3068,3.1746,5.6508,2.0317,8.3736,4.5733,-24.025999,14.73,-3.2841,10.177
8.0885,5.8692,4.6179,-2.6797,1.3201,0.39024,2.6016,0.58252,5.7886,-2.6797,1.3201,0.66335,10.794,6.9206,6.4762,9.0177,5.8615,-10.499,12.825,7.225,5.0242
-0.12638,0.12759,-4.4878,-3.9869,-6.6007,-0.26016,-3.252,1.2298,-0.06504,-3.9869,-6.6007,-1.99,7.619,1.8413,-1.1429,1.9324,-2.5121,9.4686,-1.1429,5.2545,-1.4171
-7.7093,-8.8038,-12.943,-3.3333,-9.2409,-0.91057,-7.1545,1.2298,-3.9675,-3.3333,-9.2409,-5.3068,0.63492,-6.4127,-10.032,-7.0853,-10.886,19.129999,-11.937,1.3136,-4.6377
-7.7093,-13.907,-12.293,-0.06536,-1.9802,-0.91057,-5.8537,2.5243,-4.6179,-0.06536,-1.9802,-4.6434,-7.619,-15.937,-13.841,-14.815,-14.75,-0.19324,-11.937,-2.6273,-9.1465
-5.1817,-12.632,-7.0894,1.8954,1.3201,-0.26016,-2.6016,4.466,-3.9675,1.8954,1.3201,-2.6534,-14.603,-20.381001,-13.841,-19.323999,-15.395,-13.076,-7.4921,-4.5977,-14.3
-3.2859,-8.8038,-3.8374,3.8562,0.66007,1.0407,0.0,6.4078,-1.3659,3.8562,0.66007,-0.66335,-17.778,-20.381001,-13.206,-19.968,-13.462,-1.4815,0.7619,-4.5977,-13.011
-5.1817,-5.614,-6.439,3.8562,-1.3201,1.6911,-2.6016,6.4078,-1.3659,3.8562,-1.3201,-1.99,-22.857,-21.016001,-15.746,-19.323999,-13.462,-10.499,-2.4127,-11.823,-16.875999
8.0885,5.8692,3.9675,13.007,10.561,14.049,6.5041,14.822,7.0894,13.007,10.561,8.6235,-13.968,-10.857,-4.9524,-7.0853,-1.2238,1.7391,-5.5873,-5.9113,-10.435
3.0332,2.0415,3.9675,7.1242,7.9208,9.4959,4.5528,5.7605,4.4878,7.1242,7.9208,6.6335,-10.159,-8.3175,-3.0476,-4.5089,-0.57971,28.792,-5.5873,-3.9409,-0.77295
-0.12638,3.9553,5.2683,5.817,3.9604,4.2927,7.1545,2.5243,6.439,5.817,3.9604,5.3068,-1.2698,1.8413,1.3968,3.2206,3.285,13.977,9.0159,-1.3136,10.821
-0.75829,5.2313,0.06504,2.549,1.3201,-0.91057,3.9024,0.58252,3.8374,2.549,1.3201,0.66335,4.4444,7.5556,3.3016,5.7971,4.5733,-15.652,10.286,-0.65681,8.2448
-9.6051,-3.0622,-10.992,-7.2549,-7.9208,-11.317,-7.1545,-8.479,-5.9187,-7.2549,-7.9208,-10.614,0.63492,6.2857,-4.3175,1.9324,-3.8003,-13.076,3.9365,-4.5977,2.4477
-5.1817,-1.1483,-7.0894,-4.6405,-3.3003,-8.7154,-6.5041,-6.5372,-3.3171,-4.6405,-3.3003,-7.9602,3.1746,12.0,-1.1429,7.0853,-1.2238,2.3833,4.5714,0.0,8.8889
-8.9731,-1.1483,-6.439,-5.2941,-6.6007,-10.016,-6.5041,-9.1262,-2.0163,-5.2941,-6.6007,-9.2869,1.2698,9.4603,-4.3175,5.153,-1.868,-15.008,0.7619,-2.6273,5.6683
-0.75829,9.697,2.6667,-0.71895,0.0,-2.8618,4.5528,-4.5955,6.439,-0.71895,0.0,-1.99,5.0794,12.0,2.6667,11.594,7.1498,-8.5668,7.1111,2.6273,12.754
3.6651,14.163,6.5691,1.2418,5.9406,-0.26016,6.5041,-0.06472,5.1382,1.2418,5.9406,0.66335,7.619,16.444,7.746,16.103001,12.947,-3.4138,8.381,1.9704,18.551001
1.1374,11.611,2.6667,0.58824,0.66007,-2.2114,0.0,-0.06472,-2.0163,0.58824,0.66007,-1.99,3.1746,12.635,3.9365,12.882,9.0821,10.113,3.9365,-1.9704,11.465
3.6651,8.4211,2.6667,3.8562,0.66007,1.6911,1.3008,3.1715,-2.0163,3.8562,0.66007,1.3267,-2.5397,5.6508,0.12698,6.4412,3.285,-1.4815,3.3016,-3.9409,5.0242
6.8246,5.8692,9.1707,8.4314,4.6205,8.8455,7.1545,8.3495,1.2358,8.4314,4.6205,8.6235,-2.5397,1.2063,0.7619,1.2882,2.6409,-25.313999,6.4762,-3.2841,1.8035
5.5608,4.5933,13.724,9.7386,3.9604,11.447,9.1057,10.939,1.2358,9.7386,3.9604,12.604,0.0,1.2063,2.0317,0.64412,3.9291,-0.19324,3.3016,1.3136,3.0918
1.1374,-1.7863,7.8699,5.1634,0.0,4.2927,0.65041,8.9968,-8.5203,5.1634,0.0,5.3068,-3.8095,-3.873,-3.6825,-6.4412,-3.1562,1.7391,-8.127,-1.3136,-6.57
-2.0221,-10.718,-2.5366,2.549,-6.6007,-2.8618,-9.1057,7.055,-13.724,2.549,-6.6007,-5.3068,-6.9841,-7.0476,-8.127,-12.882,-12.174,10.113,-19.556,-2.6273,-11.723
-3.2859,-15.821,-9.0407,1.8954,-7.2607,-4.813,-11.057,7.055,-14.374,1.8954,-7.2607,-8.6235,-6.3492,-6.4127,-9.3968,-14.171,-16.683001,31.368999,-15.746,1.3136,-7.2142
-8.9731,-20.924999,-10.992,3.2026,-7.9208,-3.5122,-12.358,9.644,-13.724,3.2026,-7.9208,-8.6235,-9.5238,-8.9524,-14.476,-19.323999,-21.836,3.6715,-10.032,-2.6273,-10.435
-5.1817,-15.821,0.06504,11.046,2.6403,6.2439,-0.65041,15.469,-3.3171,11.046,2.6403,1.99,-5.7143,-6.4127,-9.3968,-14.815,-16.039,-4.7021,-3.6825,-1.3136,-7.2142
-0.75829,-11.356,6.5691,11.699,5.9406,8.1951,2.6016,13.528,-1.3659,11.699,5.9406,5.9701,-4.4444,-7.6825,-4.9524,-12.882,-10.242,6.248,-4.9524,-0.65681,-8.5024
1.7694,-10.718,5.2683,6.4706,-0.66007,6.2439,-5.8537,10.939,-7.8699,6.4706,-0.66007,0.66335,-7.619,-10.222,-4.3175,-10.95,-7.6651,-8.5668,-4.3175,-1.3136,-10.435
3.6651,-9.4418,2.6667,3.8562,-4.6205,6.2439,-7.8049,9.644,-10.472,3.8562,-4.6205,-0.66335,-5.0794,-6.4127,-1.7778,-6.4412,-5.0886,-7.9227,1.3968,2.6273,-4.6377
-1.3902,-8.1659,-2.5366,3.8562,-3.3003,3.6423,-5.8537,7.7023,-9.8211,3.8562,-3.3003,-0.66335,-3.1746,-5.7778,-3.0476,-6.4412,-6.3768,25.572001,-3.6825,1.9704,-3.9936
-7.7093,-6.252,-4.4878,2.549,-1.3201,0.39024,-3.252,1.877,-5.2683,2.549,-1.3201,-0.66335,-5.7143,-7.0476,-6.8571,-8.3736,-8.9533,17.841999,-8.7619,-4.5977,-5.2818
2.4013,2.6794,9.8211,9.085,7.9208,10.146,6.5041,9.644,2.5366,9.085,7.9208,9.9502,-1.2698,-0.06349,0.12698,-1.9324,0.70853,-7.2786,-0.50794,-3.2841,-3.3494
9.3523,8.4211,18.927,13.66,10.561,16.0,11.057,14.822,4.4878,13.66,10.561,13.93,2.5397,6.9206,5.2063,4.5089,7.1498,-6.6345,10.921,1.3136,0.5153
-0.75829,4.5933,12.423,5.1634,6.6007,6.8943,5.2033,4.466,1.2358,5.1634,6.6007,5.3068,-1.2698,5.6508,-1.1429,3.2206,3.9291,10.757,5.2063,-1.3136,2.4477
-7.0774,0.76555,3.9675,-0.71895,-0.66007,-0.26016,0.0,-3.9482,-4.6179,-0.71895,-0.66007,-0.66335,-8.254,0.57143,-6.8571,-1.2882,-1.868,4.9597,-6.8571,-4.5977,0.5153
-2.0221,3.9553,4.6179,5.817,3.3003,2.3415,3.9024,2.5243,-3.9675,5.817,3.3003,1.99,-8.254,1.2063,-4.9524,0.64412,-2.5121,-3.4138,-6.2222,-0.65681,-0.12882
-5.1817,0.12759,4.6179,2.549,-1.3201,-0.91057,1.3008,1.877,-7.2195,2.549,-1.3201,-1.99,-11.429,-4.5079,-8.7619,-4.5089,-8.3092,-20.160999,-8.7619,-3.9409,-3.3494
-6.4455,-1.1483,11.122,1.8954,1.3201,-2.8618,1.9512,0.58252,-5.9187,1.8954,1.3201,-2.6534,-8.254,-5.1429,-6.2222,-5.153,-7.0209,-24.67,-10.032,-1.9704,-4.6377
-7.7093,-2.4242,13.073,2.549,3.3003,-6.1138,0.0,1.877,-5.9187,2.549,3.3003,-3.9801,-1.9048,-6.4127,-3.0476,-7.0853,-5.7327,-3.4138,-8.127,-1.3136,-8.5024
4.9289,1.4035,21.528,12.353,10.561,2.3415,3.9024,13.528,-3.9675,12.353,10.561,5.3068,13.333,1.8413,9.0159,0.0,3.285,21.707001,-4.9524,8.5386,1.8035
6.1927,-3.0622,16.976,9.085,7.9208,-0.91057,0.0,8.3495,-5.9187,9.085,7.9208,0.66335,15.238,3.746,9.6508,-0.64412,3.9291,28.148001,-8.7619,7.225,-0.12882
8.0885,-4.9761,13.073,5.817,5.2805,-3.5122,-1.9512,5.1133,-6.5691,5.817,5.2805,-3.3167,12.063,2.4762,9.6508,-2.5765,3.9291,16.554001,-7.4921,3.9409,-4.6377
12.512,-1.7863,16.325001,9.7386,7.2607,4.2927,2.6016,11.586,-5.2683,9.7386,7.2607,1.3267,10.159,5.0159,9.6508,-1.9324,4.5733,-5.3462,-4.9524,2.6273,-11.079
13.776,-0.51037,18.275999,14.314,7.2607,12.748,5.8537,18.058001,-1.3659,14.314,7.2607,7.2968,6.9841,6.9206,7.746,-1.9324,3.285,-29.179001,-6.8571,1.9704,-9.7907
3.6651,-5.614,10.472,9.085,1.9802,4.9431,-0.65041,7.7023,-5.2683,9.085,1.9802,1.99,1.2698,1.8413,1.3968,-5.153,-2.5121,-9.8551,-11.302,-1.3136,-0.12882
-4.5498,-8.1659,2.6667,1.8954,-4.6205,-5.4634,-5.8537,-3.301,-7.8699,1.8954,-4.6205,-5.3068,-0.63492,-0.06349,-2.4127,-5.7971,-5.7327,17.198,-6.2222,-1.3136,2.4477
-0.75829,-8.8038,0.06504,3.2026,-3.3003,-6.1138,-8.4553,1.2298,-9.8211,3.2026,-3.3003,-7.9602,1.9048,1.8413,0.7619,-3.8647,-4.4444,18.486,-2.4127,3.9409,1.1594
0.50553,-6.89,0.06504,5.1634,1.9802,-5.4634,-7.8049,3.8188,-9.8211,5.1634,1.9802,-7.9602,3.1746,2.4762,2.6667,0.64412,-1.868,19.129999,0.12698,5.9113,4.38
1.7694,1.4035,3.9675,5.1634,1.9802,-2.2114,-4.5528,3.8188,-4.6179,5.1634,1.9802,-4.6434,4.4444,3.746,3.3016,5.7971,1.3527,-7.9227,12.19,5.9113,10.177
4.297,10.335,9.1707,9.7386,8.5809,3.6423,1.9512,7.7023,2.5366,9.7386,8.5809,2.6534,5.7143,6.2857,4.5714,10.306,5.8615,-13.72,15.365,5.2545,12.11
-0.12638,10.973,5.9187,8.4314,8.5809,2.3415,3.252,3.1715,1.2358,8.4314,8.5809,2.6534,1.9048,5.0159,2.0317,9.6618,4.5733,11.401,1.3968,3.2841,10.177
1.1374,5.8692,0.06504,3.2026,2.6403,-0.26016,-1.9512,-2.6537,-4.6179,3.2026,2.6403,-1.3267,1.2698,3.746,2.0317,5.7971,1.3527,8.1804,-2.4127,0.65681,6.9565
4.9289,4.5933,1.3659,1.8954,0.0,0.39024,-1.9512,-2.6537,-3.9675,1.8954,0.0,-1.3267,-0.63492,0.57143,3.3016,3.8647,1.3527,-18.229,2.0317,-3.9409,4.38
11.88,12.887,11.122,9.085,7.2607,7.5447,7.8049,3.1715,5.1382,9.085,7.2607,7.9602,3.1746,6.9206,10.921,10.95,9.0821,-2.1256,12.19,0.65681,12.11
11.248,17.351999,14.374,11.699,10.561,10.146,11.707,2.5243,6.439,11.699,10.561,13.267,7.619,12.0,12.825,15.459,12.947,17.841999,14.095,3.9409,13.398
5.5608,15.439,10.472,12.353,11.221,8.1951,9.7561,-0.06472,3.8374,12.353,11.221,12.604,8.254,10.095,9.6508,12.882,9.7262,12.689,10.286,2.6273,9.533
-2.654,5.8692,-0.58537,7.7778,7.9208,0.39024,1.3008,-5.89,-2.6667,7.7778,7.9208,4.6434,3.8095,2.4762,2.0317,4.5089,1.3527,-1.4815,2.6667,-1.3136,3.0918
-2.0221,3.3174,-1.2358,5.817,7.9208,-0.91057,0.0,-8.479,-1.3659,5.817,7.9208,3.3167,5.7143,1.2063,4.5714,3.8647,1.9968,8.1804,2.0317,1.9704,3.7359
6.8246,11.611,7.8699,13.007,14.521,7.5447,9.7561,1.2298,7.7398,13.007,14.521,11.94,13.333,6.2857,12.19,11.594,11.659,-13.076,13.46,7.225,11.465
8.7204,14.163,5.9187,14.314,17.162001,9.4959,12.358,4.466,9.6911,14.314,17.162001,13.267,8.254,4.381,5.8413,10.306,9.0821,-73.623001,15.365,-1.3136,5.6683
0.50553,9.697,0.06504,9.7386,15.182,4.9431,10.407,-4.5955,4.4878,9.7386,15.182,10.614,2.5397,3.1111,-0.50794,6.4412,3.9291,-14.364,-3.0476,-3.9409,2.4477
0.50553,5.8692,2.0163,13.007,13.861,6.8943,8.4553,-2.6537,4.4878,13.007,13.861,12.604,2.5397,4.381,2.6667,7.0853,4.5733,49.403999,-2.4127,3.9409,6.9565
-1.3902,-6.252,-5.1382,7.7778,5.9406,2.9919,0.0,-3.301,-6.5691,7.7778,5.9406,6.6335,-5.7143,-4.5079,-2.4127,-2.5765,-2.5121,17.841999,-3.6825,-1.3136,-1.4171
-2.654,-6.252,-5.7886,5.1634,7.2607,1.6911,1.3008,-3.301,-7.8699,5.1634,7.2607,5.9701,-5.7143,-4.5079,-4.3175,-3.2206,-2.5121,20.419001,-4.9524,1.3136,-3.9936
-6.4455,-7.5279,-9.6911,1.8954,5.9406,-0.91057,-0.65041,-3.301,-9.8211,1.8954,5.9406,3.3167,-6.3492,-7.0476,-9.3968,-6.4412,-6.3768,8.1804,-10.032,2.6273,-9.7907
1.1374,-6.252,-7.0894,4.5098,5.2805,4.9431,0.65041,6.4078,-11.122,4.5098,5.2805,5.9701,0.0,-3.873,-4.9524,-5.153,-4.4444,-9.8551,-7.4921,7.225,-11.079
11.88,-3.0622,-6.439,5.817,-1.9802,8.8455,0.65041,10.291,-11.772,5.817,-1.9802,5.3068,3.1746,-0.69841,2.0317,-2.5765,-1.2238,-65.25,-3.6825,3.2841,-9.1465
11.88,1.4035,-6.439,9.7386,7.9208,7.5447,3.252,8.3495,-3.9675,9.7386,7.9208,5.9701,6.3492,1.2063,7.746,2.5765,1.3527,7.5362,-10.667,9.1954,1.8035
7.4566,3.9553,-6.439,14.314,15.182,5.5935,6.5041,8.9968,1.8862,14.314,15.182,6.6335,9.5238,2.4762,10.286,6.4412,4.5733,63.575001,-2.4127,13.793,10.821
-2.654,-2.4242,-12.293,6.4706,3.3003,-3.5122,-1.3008,3.8188,-6.5691,6.4706,3.3003,-1.99,-1.2698,-5.1429,2.0317,0.0,-0.57971,31.368999,-4.3175,-0.65681,-0.77295
-3.2859,-0.51037,-10.341,4.5098,2.6403,-6.1138,-1.3008,2.5243,-7.2195,4.5098,2.6403,-3.9801,-9.5238,-8.9524,0.7619,-1.2882,-0.57971,12.689,-3.6825,-9.1954,-6.57
5.5608,3.9553,-3.8374,6.4706,1.3201,-0.91057,1.9512,4.466,-3.3171,6.4706,1.3201,0.0,-10.159,-2.6032,5.8413,5.153,5.2174,-12.432,7.746,-11.823,-0.77295
1.7694,-1.1483,-7.0894,4.5098,0.0,-1.561,-4.5528,-0.06472,-7.2195,4.5098,0.0,-1.99,-12.698,-3.2381,2.0317,5.7971,4.5733,-1.4815,0.12698,-12.479,0.5153
-3.9179,0.76555,-6.439,9.085,9.2409,1.6911,-1.9512,-1.3592,-3.3171,9.085,9.2409,2.6534,-8.8889,1.2063,-0.50794,9.6618,5.2174,2.3833,-2.4127,-8.5386,6.3124
-7.0774,0.76555,-7.7398,11.046,10.561,4.9431,0.65041,-2.0065,-2.6667,11.046,10.561,5.9701,-6.3492,1.2063,-6.2222,8.3736,1.9968,-29.823,-1.7778,-9.1954,4.38
3.6651,7.7831,0.06504,22.157,16.502001,15.35,6.5041,11.586,3.8374,22.157,16.502001,13.267,4.4444,7.5556,-0.50794,11.594,6.5056,2.3833,5.8413,4.5977,5.6683
2.4013,1.4035,-6.439,17.582001,7.9208,9.4959,-0.65041,8.3495,-2.6667,17.582001,7.9208,5.9701,3.8095,3.1111,-3.6825,2.5765,0.06441,10.113,-0.50794,4.5977,-0.77295
1.1374,-2.4242,-13.593,14.967,6.6007,5.5935,-4.5528,6.4078,-5.9187,14.967,6.6007,0.66335,3.8095,-0.69841,-6.2222,-3.2206,-5.0886,1.7391,-11.302,4.5977,-6.57
-1.3902,-3.0622,-12.293,17.582001,11.881,6.8943,-1.3008,8.3495,-5.2683,17.582001,11.881,3.3167,6.9841,-0.06349,-4.9524,-3.8647,-4.4444,11.401,-10.667,3.9409,-7.2142
-7.7093,-4.3381,-9.0407,20.195999,13.201,4.9431,1.3008,8.3495,-2.6667,20.195999,13.201,4.6434,4.4444,-3.873,-4.9524,-5.7971,-1.868,15.91,2.0317,-1.3136,-7.8583
-3.9179,-0.51037,-3.8374,22.809999,16.502001,2.9919,6.5041,9.644,2.5366,22.809999,16.502001,5.3068,1.2698,-6.4127,-0.50794,-5.7971,1.9968,-22.093,0.12698,-4.5977,-9.1465
8.7204,1.4035,-1.2358,24.118,21.782,2.3415,8.4553,12.88,7.0894,24.118,21.782,5.3068,3.1746,-7.6825,9.0159,-4.5089,5.2174,-20.805,-5.5873,0.65681,-7.2142
14.408,-1.1483,-5.7886,26.077999,21.782,2.3415,5.2033,14.822,3.8374,26.077999,21.782,1.99,4.4444,-10.222,13.46,-3.8647,5.2174,33.945,-3.0476,11.166,-0.12882
12.512,-3.7002,-9.6911,26.732,19.142,1.6911,-0.65041,15.469,0.58537,26.732,19.142,-1.99,3.1746,-10.857,10.921,-3.2206,3.285,35.233002,2.0317,11.166,-0.12882
1.1374,-8.8038,-16.846001,18.235001,10.561,-7.4146,-7.8049,7.7023,-3.9675,18.235001,10.561,-11.277,-1.9048,-9.5873,2.6667,-4.5089,-3.1562,11.401,1.3968,1.3136,0.5153
-13.397,-10.08,-21.398001,9.085,7.9208,-17.171,-10.407,-3.9482,-5.2683,9.085,7.9208,-17.91,-3.1746,-2.6032,-3.6825,-1.2882,-5.0886,3.0274,0.12698,-1.3136,5.6683
-14.028,-3.0622,-15.545,7.7778,12.541,-14.569,-6.5041,-3.301,-1.3659,7.7778,12.541,-13.93,-0.63492,8.1905,-3.0476,7.0853,-0.57971,-23.382,2.0317,-3.2841,10.821
-7.0774,1.4035,-7.7398,9.7386,10.561,-6.1138,-5.2033,-0.71197,-0.71545,9.7386,10.561,-7.9602,1.9048,17.079,-0.50794,14.171,5.2174,-23.382,4.5714,-5.9113,15.974
3.0332,3.9553,0.06504,11.699,11.221,2.3415,-3.9024,-0.71197,-1.3659,11.699,11.221,-1.99,5.7143,21.524,5.8413,16.747,10.37,8.1804,4.5714,2.6273,15.33
10.616,3.9553,5.2683,14.314,11.221,8.8455,-2.6016,1.877,-2.0163,14.314,11.221,3.3167,9.5238,20.889,11.556,14.171,11.014,26.860001,2.0317,11.823,8.8889
13.776,3.3174,5.9187,14.314,7.9208,8.8455,-1.9512,3.8188,-3.3171,14.314,7.9208,5.3068,15.238,22.159,16.635,13.527,12.303,21.707001,2.0317,17.077,7.6006
16.934999,8.4211,9.8211,14.967,8.5809,10.797,3.9024,6.4078,1.2358,14.967,8.5809,10.614,24.761999,25.333,22.983999,16.103001,16.167,27.504,7.746,24.302,12.754
13.144,7.7831,7.8699,9.7386,5.9406,6.8943,3.9024,4.466,0.58537,9.7386,5.9406,9.9502,19.683001,17.079,17.27,8.3736,11.659,-19.517,8.381,18.391001,3.0918
5.5608,5.8692,6.5691,6.4706,7.9208,2.9919,3.9024,-5.2427,-1.3659,6.4706,7.9208,11.277,12.063,6.2857,9.0159,0.0,6.5056,-39.485001,-3.6825,10.509,-5.2818
1.7694,5.8692,11.772,9.085,11.881,4.9431,9.1057,-9.7735,-0.06504,9.085,11.881,17.91,10.159,0.57143,7.1111,-1.2882,7.7939,7.5362,-8.7619,10.509,-5.2818
0.50553,3.9553,11.772,11.699,14.521,4.9431,10.407,-5.2427,1.8862,11.699,14.521,19.9,6.9841,-10.857,5.2063,-5.7971,7.1498,25.572001,-6.2222,8.5386,-8.5024
11.88,10.335,15.675,17.582001,17.822001,10.146,14.959,2.5243,7.0894,17.582001,17.822001,25.207001,9.5238,-13.397,12.825,-1.9324,12.303,22.995001,3.3016,11.166,-0.77295
13.776,10.335,12.423,12.353,14.521,8.8455,13.008,-1.3592,4.4878,12.353,14.521,23.216999,5.7143,-15.937,12.825,-3.2206,11.659,4.3156,3.3016,1.9704,-3.9936
16.934999,13.525,13.724,13.66,14.521,13.398,18.211,-0.06472,9.0407,13.66,14.521,28.524,6.3492,-8.9524,14.73,-1.9324,13.591,-22.738001,6.4762,-1.9704,-3.9936
11.88,10.973,9.8211,13.66,13.201,12.098,16.910999,-2.6537,10.341,13.66,13.201,28.524,-1.2698,-5.1429,8.381,-3.2206,8.438,-40.129002,5.2063,-8.5386,-1.4171
7.4566,10.335,8.5203,13.007,15.182,10.146,14.959,-5.89,7.7398,13.007,15.182,26.534,-7.619,3.1111,3.9365,0.64412,6.5056,-13.076,5.2063,-11.166,8.8889
3.0332,10.335,8.5203,11.699,15.842,6.8943,10.407,-7.1845,3.187,11.699,15.842,21.226999,-5.7143,13.905,3.9365,7.0853,7.7939,14.622,10.286,-10.509,14.042
1.1374,9.059,4.6179,9.085,11.221,3.6423,4.5528,-8.479,1.2358,9.085,11.221,15.257,-2.5397,20.254,5.2063,11.594,9.7262,-7.9227,13.46,-14.45,14.686
1.7694,9.697,2.0163,13.66,12.541,6.8943,6.5041,-2.0065,8.3902,13.66,12.541,16.584,1.9048,24.698,7.746,15.459,11.659,-5.9903,19.809999,-11.166,15.33
1.7694,7.7831,0.06504,14.967,9.2409,7.5447,6.5041,2.5243,8.3902,14.967,9.2409,15.92,4.4444,22.794001,7.1111,15.459,10.37,4.3156,10.921,-6.5681,10.821
12.512,10.335,7.2195,16.275,13.201,12.098,9.1057,12.88,6.439,16.275,13.201,17.247,11.429,22.159,16.0,18.68,15.523,-24.67,3.9365,1.9704,13.398
15.039,6.5072,7.8699,12.353,7.9208,8.1951,3.252,7.7023,-2.6667,12.353,7.9208,10.614,9.5238,10.73,17.27,13.527,13.591,-15.008,-5.5873,5.2545,12.11
3.0332,-3.0622,-3.8374,5.1634,-3.3003,-2.8618,-7.8049,-3.301,-11.122,5.1634,-3.3003,-0.66335,2.5397,-4.5079,7.746,2.5765,3.285,19.775,-11.937,2.6273,3.7359
-7.7093,-9.4418,-15.545,3.2026,-5.9406,-6.7642,-9.7561,-2.0065,-11.122,3.2026,-5.9406,-5.3068,-2.5397,-14.667,-4.3175,-8.3736,-8.9533,6.248,-7.4921,-1.9704,-7.2142
-8.3412,-4.3381,-12.943,2.549,-3.9604,-4.1626,-2.6016,1.2298,-5.2683,2.549,-3.9604,-1.99,-0.63492,-12.762,-7.4921,-7.0853,-9.5974,-16.296,-2.4127,-0.65681,-5.2818
-4.5498,0.12759,-3.8374,1.8954,0.66007,-2.8618,0.65041,-0.06472,-0.06504,1.8954,0.66007,0.66335,4.4444,-7.0476,-3.0476,-2.5765,-1.2238,-26.601999,-0.50794,3.2841,-3.9936
6.1927,5.2313,6.5691,1.8954,3.9604,1.6911,2.6016,2.5243,2.5366,1.8954,3.9604,3.9801,14.603,2.4762,8.381,5.7971,10.37,8.8245,-3.6825,13.793,-0.77295
11.88,5.2313,6.5691,1.2418,1.9802,6.8943,3.9024,5.1133,3.187,1.2418,1.9802,4.6434,16.507999,4.381,11.556,5.7971,11.014,30.725,-2.4127,16.42,-0.77295
9.3523,5.8692,3.9675,9.085,7.2607,12.748,8.4553,12.233,9.6911,9.085,7.2607,9.9502,12.063,3.746,7.1111,3.2206,6.5056,32.013,4.5714,11.166,-0.77295
2.4013,5.2313,2.0163,9.085,6.6007,10.797,8.4553,12.88,9.0407,9.085,6.6007,9.9502,4.4444,-1.9683,-0.50794,-2.5765,0.06441,26.216,4.5714,3.2841,-9.7907
0.50553,7.7831,4.6179,3.2026,5.9406,4.9431,8.4553,8.3495,9.6911,3.2026,5.9406,7.2968,0.63492,-1.3333,-1.7778,-3.2206,0.70853,6.8921,6.4762,0.0,-13.655
1.7694,7.1451,5.9187,-5.2941,0.66007,-0.26016,5.2033,3.1715,6.439,-5.2941,0.66007,2.6534,-6.3492,-5.1429,-3.6825,-5.153,-0.57971,-27.246,3.3016,-6.5681,-16.232
6.1927,5.8692,6.5691,-6.6013,-0.66007,1.6911,3.252,2.5243,5.1382,-6.6013,-0.66007,2.6534,-7.619,-3.2381,-0.50794,-1.9324,2.6409,-9.2109,-6.2222,-3.9409,-7.2142
1.1374,-4.3381,0.71545,-9.2157,-2.6403,-1.561,-3.252,-2.6537,0.58537,-9.2157,-2.6403,-1.3267,-11.429,-5.1429,-4.3175,-5.153,-1.868,28.148001,-8.7619,-1.9704,-2.0612
-4.5498,-11.356,-5.7886,-9.2157,-5.9406,-0.91057,-5.2033,-0.06472,-2.0163,-9.2157,-5.9406,-2.6534,-14.603,-8.3175,-11.302,-11.594,-10.242,13.977,-8.127,-0.65681,-8.5024
-5.8136,-11.356,-9.0407,-7.2549,-7.9208,-0.26016,-3.9024,3.8188,-2.6667,-7.2549,-7.9208,-2.6534,-14.603,-9.5873,-15.111,-14.171,-16.683001,14.622,-6.2222,-0.65681,-9.7907
-2.0221,-4.9761,-6.439,-3.9869,-4.6205,1.0407,-1.9512,9.644,-0.06504,-3.9869,-4.6205,-1.3267,-10.159,-7.6825,-12.571,-9.6618,-14.75,2.3833,7.746,1.9704,-2.0612
-0.75829,-5.614,-9.0407,-6.6013,-9.2409,-2.2114,-3.9024,7.7023,-0.71545,-6.6013,-9.2409,-5.3068,-9.5238,-8.3175,-13.206,-10.95,-16.683001,-42.705002,-3.6825,-3.2841,-6.57
-14.028,-13.27,-18.146,-18.365999,-17.822001,-15.22,-9.7561,-8.479,-9.1707,-18.365999,-17.822001,-13.93,-10.159,-12.762,-18.921,-17.391001,-23.124001,-13.076,-15.746,-4.5977,-11.723
-19.716,-13.907,-20.098,-17.712,-11.881,-16.52,-7.1545,-9.7735,-7.8699,-17.712,-11.881,-12.604,-1.9048,-7.6825,-17.016001,-16.103001,-21.836,24.927999,-13.841,3.2841,-6.57
-15.292,-13.907,-18.146,-11.83,-4.6205,-10.667,-3.252,-0.06472,-3.9675,-11.83,-4.6205,-6.6335,5.7143,-0.06349,-11.302,-13.527,-17.971001,22.351,-13.206,5.2545,-5.9259
-3.2859,-11.994,-11.642,-7.2549,-2.6403,-4.813,-2.6016,7.055,-2.6667,-7.2549,-2.6403,-4.6434,13.333,7.5556,-1.1429,-9.0177,-8.9533,12.045,-8.7619,8.5386,-5.9259
4.297,-9.4418,-5.7886,-7.2549,-5.9406,-2.2114,-4.5528,8.3495,-4.6179,-7.2549,-5.9406,-6.6335,12.698,6.9206,3.3016,-7.0853,-1.868,-20.805,-1.7778,4.5977,-12.367
9.3523,-0.51037,6.5691,-3.9869,-3.9604,4.2927,0.65041,9.644,0.58537,-3.9869,-3.9604,-1.3267,13.968,8.8254,7.1111,0.64412,8.438,-12.432,-2.4127,5.9113,-10.435
1.1374,-2.4242,5.2683,-7.9085,-6.6007,1.0407,-2.6016,3.8188,-2.0163,-7.9085,-6.6007,-3.3167,10.159,6.2857,2.6667,2.5765,9.0821,27.504,-8.7619,5.2545,-6.57
-3.9179,-7.5279,0.06504,-13.137,-13.201,-2.8618,-8.4553,0.58252,-5.2683,-13.137,-13.201,-8.6235,2.5397,2.4762,-1.1429,0.64412,6.5056,37.810001,-3.6825,-0.65681,-7.2142
1.7694,-6.252,3.3171,-9.8693,-13.201,2.3415,-6.5041,5.1133,-2.0163,-9.8693,-13.201,-6.6335,-2.5397,-0.06349,2.0317,0.64412,7.7939,16.554001,-2.4127,-3.9409,-8.5024
6.8246,-3.7002,6.5691,-3.3333,-12.541,10.146,-4.5528,13.528,-0.06504,-3.3333,-12.541,-2.6534,-2.5397,-0.06349,6.4762,0.64412,9.0821,15.91,2.0317,0.0,-8.5024
5.5608,-4.9761,2.6667,-3.3333,-10.561,8.8455,-11.057,10.939,-4.6179,-3.3333,-10.561,-7.2968,-5.0794,-3.873,3.9365,-2.5765,4.5733,-2.7697,0.7619,-1.3136,-5.9259
4.297,-4.3381,1.3659,-6.6013,-11.221,4.2927,-13.008,3.8188,-5.2683,-6.6013,-11.221,-9.9502,-4.4444,-8.9524,2.6667,-5.153,0.70853,-0.83736,-8.7619,2.6273,-8.5024
9.9842,0.76555,5.2683,-5.9477,-7.9208,5.5935,-7.8049,3.8188,-1.3659,-5.9477,-7.9208,-6.6335,2.5397,-8.3175,7.746,-3.8647,1.9968,15.91,-4.3175,9.8522,-9.7907
13.776,3.3174,7.2195,-6.6013,-5.9406,8.1951,-3.9024,3.8188,1.2358,-6.6013,-5.9406,-2.6534,9.5238,-7.6825,12.19,-3.8647,1.9968,18.486,-0.50794,13.793,-7.2142
9.9842,-1.1483,-1.2358,-9.8693,-12.541,4.9431,-3.9024,1.877,-3.3171,-9.8693,-12.541,-5.3068,5.7143,-13.397,4.5714,-12.882,-8.3092,-25.313999,-4.9524,6.5681,-14.944
9.9842,-1.1483,-5.1382,-7.2549,-9.901,5.5935,0.0,7.055,-2.6667,-7.2549,-9.901,-3.9801,6.3492,-11.492,1.3968,-14.815,-13.462,-21.448999,-4.3175,8.5386,-13.011
6.8246,0.12759,-5.1382,-5.9477,-7.9208,5.5935,2.6016,3.8188,1.8862,-5.9477,-7.9208,-1.3267,13.968,-5.7778,3.3016,-10.95,-12.174,22.995001,-2.4127,15.764,-9.7907
-0.12638,-5.614,-8.3902,-11.176,-13.861,-1.561,-3.252,-3.301,-2.0163,-11.176,-13.861,-7.2968,15.238,-4.5079,0.7619,-11.594,-12.818,25.572001,-7.4921,13.793,-9.7907
1.7694,-2.4242,-3.8374,-8.5621,-9.901,-0.91057,-0.65041,1.2298,-0.06504,-8.5621,-9.901,-5.3068,15.873,1.8413,2.6667,-5.153,-7.0209,17.198,-2.4127,12.479,-2.0612
-8.3412,-3.0622,-9.0407,-13.791,-14.521,-8.065,-3.252,-5.2427,-2.0163,-13.791,-14.521,-9.2869,5.0794,0.57143,-6.8571,-5.7971,-8.9533,-35.619999,3.3016,-3.9409,-3.3494
-12.133,-0.51037,-9.6911,-15.752,-15.182,-9.3659,-4.5528,-7.1845,-1.3659,-15.752,-15.182,-9.2869,-1.9048,-0.69841,-11.937,-3.2206,-7.6651,-51.078999,-1.1429,-13.136,1.1594
-19.084,3.3174,-5.1382,-11.83,-7.2607,-10.016,-1.9512,-9.7735,3.187,-11.83,-7.2607,-6.6335,-7.619,-1.3333,-13.206,0.64412,-2.5121,5.6039,2.0317,-11.823,6.9565
-19.716,6.5072,1.3659,-9.2157,-1.3201,-9.3659,3.252,-8.479,7.0894,-9.2157,-1.3201,-2.6534,-10.159,-0.06349,-10.667,5.153,3.9291,26.860001,9.0159,-13.136,10.821
-10.237,9.697,7.2195,-4.6405,1.3201,-3.5122,8.4553,-0.06472,9.6911,-4.6405,1.3201,1.99,-10.794,0.57143,-4.9524,7.7295,9.0821,10.113,10.921,-13.136,12.11
-2.654,10.335,8.5203,-3.9869,-1.9802,0.39024,7.8049,1.877,8.3902,-3.9869,-1.9802,1.99,-12.063,-0.69841,-2.4127,5.7971,7.7939,-9.2109,8.381,-16.42,10.177
-2.0221,9.697,7.2195,-5.2941,-7.2607,1.0407,4.5528,1.877,3.8374,-5.2941,-7.2607,0.0,-11.429,1.2063,-3.0476,5.7971,5.8615,-18.872999,14.095,-14.45,13.398
-10.237,1.4035,-1.8862,-9.8693,-15.842,-4.813,-2.6016,-3.301,-3.3171,-9.8693,-15.842,-7.2968,-11.429,-0.06349,-7.4921,1.9324,-0.57971,-25.313999,5.8413,-13.793,8.8889
-7.7093,-4.3381,-6.439,-13.791,-18.482,-8.7154,-5.2033,-5.89,-5.2683,-13.791,-18.482,-9.9502,-3.8095,1.2063,-4.9524,-0.64412,-4.4444,-29.823,0.12698,-6.5681,1.8035
-3.2859,-7.5279,-7.0894,-14.444,-13.861,-10.016,-7.1545,-3.9482,-5.9187,-14.444,-13.861,-11.277,5.7143,1.2063,-1.1429,-1.9324,-7.6651,6.248,-8.127,6.5681,-0.12882
4.297,-5.614,-5.1382,-11.83,-9.2409,-6.1138,-8.4553,4.466,-4.6179,-11.83,-9.2409,-9.9502,15.238,8.8254,3.9365,5.153,-3.8003,9.4686,-6.2222,17.077,8.2448
0.50553,-8.8038,-7.0894,-17.712,-21.782,-10.016,-14.959,-0.06472,-11.772,-17.712,-21.782,-15.257,15.873,10.095,3.3016,6.4412,-3.8003,14.622,-4.3175,19.704,12.754
-12.133,-16.459,-14.244,-26.209,-31.683001,-17.820999,-23.415001,-9.7735,-22.829,-26.209,-31.683001,-23.216999,5.0794,1.2063,-6.8571,-2.5765,-12.174,5.6039,-10.667,8.5386,-0.77295
-9.6051,-13.907,-10.341,-20.327,-27.063,-11.317,-15.61,-5.89,-18.275999,-20.327,-27.063,-15.92,4.4444,6.2857,-5.5873,0.0,-10.242,-17.584999,-11.302,7.225,1.1594
-8.3412,-10.718,-9.6911,-19.02,-25.083,-10.016,-13.659,-5.2427,-15.024,-19.02,-25.083,-13.267,3.1746,7.5556,-3.6825,1.9324,-8.3092,1.7391,-12.571,8.5386,-0.12882
-5.1817,-9.4418,-9.6911,-18.365999,-23.761999,-10.016,-14.959,-1.3592,-11.772,-18.365999,-23.761999,-12.604,1.2698,9.4603,-1.7778,4.5089,-4.4444,6.248,-6.8571,9.8522,3.7359
-8.3412,-14.545,-12.293,-21.634001,-27.723,-12.618,-20.163,-6.5372,-14.374,-21.634001,-27.723,-14.594,-8.254,1.2063,-6.8571,-1.9324,-7.6651,8.8245,-4.9524,3.2841,-2.0612
-9.6051,-14.545,-9.6911,-20.327,-18.482,-10.016,-17.561001,-7.1845,-12.423,-20.327,-18.482,-11.94,-12.698,-4.5079,-9.3968,-6.4412,-9.5974,17.841999,-5.5873,-1.3136,-5.2818
-7.0774,-11.994,-5.7886,-12.484,-10.561,-3.5122,-11.057,-0.06472,-5.2683,-12.484,-10.561,-5.9701,-10.794,-0.69841,-9.3968,-5.153,-8.3092,15.266,-1.7778,-2.6273,-0.12882
-13.397,-15.821,-11.642,-16.405001,-18.482,-10.016,-13.659,-3.9482,-8.5203,-16.405001,-18.482,-9.9502,-12.698,-6.4127,-14.476,-10.95,-14.75,1.7391,-3.0476,-11.166,-4.6377
-11.501,-10.718,-11.642,-19.02,-21.122,-13.919,-13.008,-8.479,-9.1707,-19.02,-21.122,-10.614,-8.8889,-7.6825,-12.571,-9.0177,-12.174,-28.535,3.3016,-14.45,-4.6377
-4.5498,-3.7002,-7.0894,-17.059,-16.502001,-12.618,-9.1057,-7.1845,-5.9187,-17.059,-16.502001,-7.2968,-3.8095,-5.7778,-7.4921,-5.7971,-7.0209,-62.673,0.12698,-12.479,-2.7053
-14.66,-4.3381,-7.7398,-20.98,-19.802,-17.171,-9.7561,-14.304,-9.1707,-20.98,-19.802,-8.6235,-4.4444,-8.3175,-11.937,-5.7971,-8.3092,-5.3462,-5.5873,-9.1954,2.4477
-22.875,-1.1483,-5.1382,-20.98,-21.122,-17.171,-7.8049,-16.246,-7.8699,-20.98,-21.122,-7.9602,-5.7143,-5.7778,-15.111,0.0,-6.3768,25.572001,-1.7778,-9.1954,9.533
-20.979,3.9553,-1.8862,-17.712,-17.162001,-13.919,-2.6016,-11.068,-2.0163,-17.712,-17.162001,-5.3068,-8.254,-0.06349,-13.206,6.4412,-2.5121,-0.83736,7.746,-11.166,12.11
-13.397,5.8692,1.3659,-11.83,-5.2805,-9.3659,5.2033,-7.8317,4.4878,-11.83,-5.2805,-1.3267,-2.5397,8.1905,-3.6825,10.306,3.285,11.401,12.825,-5.2545,14.042
2.4013,12.887,9.8211,-0.71895,8.5809,1.6911,15.61,3.8188,14.244,-0.71895,8.5809,6.6335,8.8889,20.254,12.19,19.968,14.879,10.113,20.444,5.2545,19.839001
9.9842,16.715,8.5203,1.2418,5.9406,6.2439,14.309,6.4078,12.293,1.2418,5.9406,6.6335,12.063,24.063,17.905001,25.121,18.743999,-19.517,23.618999,9.1954,22.415001
4.9289,12.249,-0.58537,-5.9477,-9.2409,-0.26016,6.5041,-0.71197,4.4878,-5.9477,-9.2409,-1.3267,5.7143,17.079,11.556,21.256001,12.947,-45.925999,16.635,-2.6273,14.042
-4.5498,7.7831,-5.1382,-12.484,-11.881,-9.3659,1.3008,-6.5372,-0.06504,-12.484,-11.881,-8.6235,3.1746,14.54,7.746,19.968,11.659,3.0274,0.7619,-4.5977,9.533
-9.6051,5.2313,-5.7886,-15.098,-10.561,-15.22,-6.5041,-11.068,-2.6667,-15.098,-10.561,-13.93,3.1746,13.905,5.2063,18.68,11.014,19.129999,-5.5873,-2.6273,11.465
-4.5498,2.0415,-4.4878,-11.83,-9.901,-13.268,-9.1057,-7.1845,-0.06504,-11.83,-9.901,-13.267,1.9048,10.73,4.5714,15.459,7.7939,3.6715,7.1111,-1.9704,13.398
-1.3902,-2.4242,-6.439,-7.2549,-7.2607,-7.4146,-7.8049,-0.06472,1.2358,-7.2549,-7.2607,-11.94,-3.8095,1.8413,-1.1429,6.4412,0.06441,-4.058,10.286,-5.9113,6.3124
1.1374,-3.0622,-5.1382,-3.9869,-6.6007,-1.561,-5.2033,7.7023,5.1382,-3.9869,-6.6007,-9.9502,-8.254,-7.0476,-5.5873,1.9324,-3.8003,-49.146999,16.0,-8.5386,3.7359
-0.75829,-7.5279,-7.0894,-5.9477,-10.561,-2.2114,-8.4553,8.9968,0.58537,-5.9477,-10.561,-12.604,-10.159,-14.667,-8.127,-3.8647,-7.6651,-9.2109,3.9365,-3.9409,3.0918
-10.869,-15.183,-16.195,-14.444,-17.162001,-11.967,-14.959,-2.0065,-8.5203,-14.444,-17.162001,-19.9,-16.507999,-22.921,-15.111,-14.171,-16.039,33.300999,-8.127,-5.9113,-5.2818
-12.133,-14.545,-18.146,-17.712,-19.802,-13.919,-12.358,-5.2427,-10.472,-17.712,-19.802,-19.9,-18.413,-22.921,-15.746,-18.035,-17.971001,24.283001,-8.127,-9.1954,-15.588
-2.654,-7.5279,-10.341,-13.791,-17.162001,-6.1138,-5.2033,2.5243,-5.2683,-13.791,-17.162001,-11.94,-15.238,-15.937,-9.3968,-12.882,-11.53,8.8245,-5.5873,-8.5386,-13.655
6.8246,2.0415,2.0163,-7.2549,-7.9208,3.6423,1.3008,8.3495,1.2358,-7.2549,-7.9208,-2.6534,-8.8889,-5.1429,-0.50794,-1.2882,0.06441,4.3156,3.9365,-4.5977,1.1594
9.3523,7.1451,7.8699,-7.2549,-7.2607,5.5935,5.2033,4.466,0.58537,-7.2549,-7.2607,0.66335,-3.1746,1.8413,5.8413,5.7971,7.1498,2.3833,6.4762,0.0,5.6683
6.1927,3.3174,3.3171,-11.176,-13.861,-0.26016,1.9512,-2.0065,-4.6179,-11.176,-13.861,-3.9801,-5.0794,-0.69841,3.3016,1.9324,3.9291,-33.688,-1.1429,-1.3136,-2.0612
3.6651,-1.7863,0.06504,-15.752,-16.502001,-3.5122,-4.5528,-3.301,-9.1707,-15.752,-16.502001,-7.9602,-5.7143,-2.6032,0.7619,-3.2206,0.06441,-9.2109,-17.016001,0.65681,-10.435
-0.75829,-6.252,0.71545,-20.327,-20.462,-5.4634,-9.1057,-7.8317,-15.675,-20.327,-20.462,-8.6235,-7.619,-4.5079,-3.0476,-6.4412,-3.1562,28.792,-16.381001,1.9704,-9.7907
-1.3902,-5.614,3.3171,-15.098,-19.802,-2.2114,-7.1545,-3.301,-11.772,-15.098,-19.802,-5.3068,-13.968,-6.4127,-6.8571,-7.0853,-4.4444,11.401,-3.0476,-1.3136,-3.3494
0.50553,-3.0622,4.6179,-13.137,-15.842,-0.91057,-5.2033,-2.0065,-7.8699,-13.137,-15.842,-2.6534,-17.778,-8.9524,-8.127,-7.7295,-5.7327,-5.3462,-1.1429,-7.8818,0.5153
-3.2859,-4.3381,0.71545,-11.176,-10.561,-2.8618,-5.8537,-0.06472,-7.8699,-11.176,-10.561,-3.3167,-18.413,-15.302,-10.667,-14.171,-10.886,-9.2109,-1.1429,-9.1954,-5.9259
-2.654,-4.3381,-0.58537,-5.9477,-7.9208,-1.561,-3.9024,5.7605,-5.9187,-5.9477,-7.9208,-1.99,-19.683001,-23.556,-13.841,-20.612,-16.683001,-25.313999,-0.50794,-10.509,-13.655
1.1374,3.3174,7.8699,1.2418,-1.3201,6.8943,5.8537,11.586,3.187,1.2418,-1.3201,7.9602,-11.429,-21.016001,-10.667,-16.103001,-12.174,1.095,-4.3175,-2.6273,-5.9259
-4.5498,-1.7863,5.2683,-0.71895,-3.9604,5.5935,3.252,8.9968,-0.06504,-0.71895,-3.9604,5.3068,-10.794,-22.921,-13.206,-19.323999,-14.75,24.927999,-2.4127,-1.3136,-7.2142
-0.12638,-4.9761,3.3171,-0.06536,-3.9604,6.8943,1.3008,9.644,-0.71545,-0.06536,-3.9604,5.9701,-5.7143,-20.381001,-8.127,-20.612,-13.462,5.6039,-1.1429,-3.9409,-14.944
1.7694,-8.8038,0.06504,-1.3725,-7.9208,6.8943,-0.65041,9.644,-2.6667,-1.3725,-7.9208,5.9701,-2.5397,-19.111,-3.6825,-20.612,-11.53,4.9597,-3.6825,-5.9113,-19.452
0.50553,-6.89,2.0163,-1.3725,-6.6007,7.5447,1.9512,10.291,-2.0163,-1.3725,-6.6007,8.6235,-1.2698,-16.570999,-1.1429,-16.747,-7.0209,14.622,-5.5873,-3.2841,-20.740999
4.9289,0.12759,8.5203,0.58824,-2.6403,11.447,3.9024,12.88,-0.06504,0.58824,-2.6403,12.604,6.3492,-5.7778,7.1111,-7.7295,2.6409,-0.83736,-3.0476,0.0,-15.588
13.144,3.3174,11.772,1.8954,-0.66007,13.398,3.252,15.469,-0.06504,1.8954,-0.66007,13.267,16.507999,5.0159,17.27,1.2882,10.37,-4.7021,0.12698,7.225,-7.2142
11.88,-3.0622,3.9675,-3.3333,-7.2607,6.2439,-1.9512,9.644,-5.9187,-3.3333,-7.2607,6.6335,14.603,-0.69841,16.0,-3.2206,5.8615,12.689,-4.9524,9.1954,-9.7907
5.5608,-7.5279,-5.1382,-7.9085,-10.561,-0.26016,-7.8049,4.466,-8.5203,-7.9085,-10.561,-0.66335,5.0794,-8.3175,7.1111,-8.3736,-2.5121,6.248,-6.2222,3.9409,-8.5024
2.4013,-5.614,-5.7886,-9.2157,-11.881,-0.26016,-7.8049,4.466,-8.5203,-9.2157,-11.881,-1.3267,0.0,-7.6825,3.3016,-5.7971,-3.1562,-0.83736,-4.9524,3.2841,-6.57
8.0885,7.7831,4.6179,3.2026,-2.6403,8.8455,3.252,16.117001,1.8862,3.2026,-2.6403,9.2869,10.159,1.8413,10.286,6.4412,6.5056,14.622,7.1111,17.733999,-0.12882
1.7694,3.9553,0.06504,1.2418,-3.9604,3.6423,0.0,11.586,-5.2683,1.2418,-3.9604,5.3068,7.619,0.57143,3.9365,3.2206,1.9968,-13.72,-5.5873,8.5386,-2.7053
-10.869,-7.5279,-12.293,-11.83,-13.861,-11.317,-11.057,-3.9482,-13.073,-11.83,-13.861,-7.9602,-2.5397,-5.7778,-10.032,-5.153,-8.3092,-22.738001,-17.016001,-5.9113,-7.8583
-17.188,-11.356,-17.496,-13.137,-15.182,-19.122,-14.309,-7.8317,-10.472,-13.137,-15.182,-13.267,-5.0794,-7.6825,-14.476,-6.4412,-10.242,10.113,-9.3968,-5.9113,-3.9936
-18.452,-9.4418,-15.545,-12.484,-10.561,-19.122,-13.008,-5.2427,-6.5691,-12.484,-10.561,-12.604,-6.3492,-7.0476,-13.206,-5.153,-7.6651,3.0274,1.3968,-8.5386,-3.3494
-15.924,-5.614,-10.341,-9.2157,-6.6007,-13.268,-9.7561,-0.71197,-1.3659,-9.2157,-6.6007,-9.2869,-8.8889,-3.873,-13.206,-4.5089,-5.7327,-13.72,4.5714,-11.823,-2.7053
-15.292,-4.9761,-9.0407,-8.5621,-5.2805,-11.317,-8.4553,-0.06472,-0.06504,-8.5621,-5.2805,-8.6235,-9.5238,-4.5079,-12.571,-3.8647,-4.4444,-1.4815,2.0317,-9.8522,-0.12882
-12.765,-3.7002,-7.7398,-8.5621,-7.9208,-11.967,-8.4553,-0.06472,-1.3659,-8.5621,-7.9208,-9.2869,-8.254,-5.1429,-8.7619,-4.5089,-1.868,6.8921,-1.1429,-8.5386,-5.9259
-4.5498,0.76555,0.71545,-3.9869,-7.9208,-6.1138,-3.252,3.8188,1.8862,-3.9869,-7.9208,-2.6534,-3.8095,-3.873,0.7619,-0.64412,4.5733,2.3833,3.3016,-5.2545,-5.2818
10.616,11.611,15.024,5.1634,6.6007,4.9431,7.1545,12.88,11.642,5.1634,6.6007,9.2869,3.1746,-1.9683,13.46,6.4412,13.591,7.5362,17.27,4.5977,5.0242
13.776,14.163,16.976,5.817,9.901,9.4959,9.7561,14.175,11.642,5.817,9.901,12.604,-1.2698,-8.3175,10.921,4.5089,10.37,-4.7021,9.0159,2.6273,4.38
8.0885,7.7831,11.122,1.2418,0.0,7.5447,5.2033,8.9968,2.5366,1.2418,0.0,9.2869,-10.794,-17.841,2.0317,-3.2206,0.70853,-5.9903,-3.6825,-3.2841,-2.0612
6.1927,2.6794,9.1707,1.2418,-3.3003,7.5447,3.252,7.7023,-1.3659,1.2418,-3.3003,8.6235,-13.968,-22.921,-1.1429,-8.3736,-3.8003,12.045,-3.0476,-1.3136,-5.2818
4.297,1.4035,7.2195,-0.71895,-3.3003,4.9431,3.252,4.466,-0.71545,-0.71895,-3.3003,6.6335,-10.794,-22.285999,-1.1429,-9.6618,-6.3768,9.4686,-1.7778,3.2841,-4.6377
2.4013,0.12759,-0.58537,-5.9477,-5.2805,1.0407,-0.65041,1.877,-0.71545,-5.9477,-5.2805,2.6534,-5.0794,-17.841,-3.6825,-10.306,-10.242,-4.058,-0.50794,4.5977,-2.0612
3.0332,-4.3381,-4.4878,-9.2157,-9.901,0.39024,-7.1545,2.5243,-6.5691,-9.2157,-9.901,-0.66335,-0.63492,-12.762,-4.3175,-10.306,-12.174,-21.448999,-4.9524,3.9409,-5.9259
13.144,2.0415,3.9675,-1.3725,-4.6205,6.8943,-1.9512,8.3495,-4.6179,-1.3725,-4.6205,5.3068,17.778,4.381,9.0159,1.2882,0.70853,-12.432,-4.9524,17.733999,-2.0612
5.5608,-4.9761,-0.58537,-8.5621,-13.201,-2.2114,-8.4553,-3.301,-14.374,-8.5621,-13.201,-1.3267,23.492001,9.4603,8.381,1.9324,1.9968,14.622,-18.921,19.704,-2.0612
-3.9179,-13.907,-5.7886,-13.137,-17.822001,-7.4146,-11.707,-11.715,-20.228001,-13.137,-17.822001,-5.3068,19.048,8.1905,2.0317,-3.2206,-2.5121,22.995001,-24.635,12.479,-5.2818
1.1374,-7.5279,0.06504,-6.6013,-9.2409,1.0407,-3.252,-3.9482,-12.423,-6.6013,-9.2409,1.99,20.316999,15.81,6.4762,3.2206,3.9291,13.977,-15.111,11.823,0.5153
4.297,-3.0622,0.71545,-9.2157,-11.221,-0.91057,-5.2033,-1.3592,-11.122,-9.2157,-11.221,-1.99,14.603,15.81,7.746,5.7971,8.438,-27.246,-4.9524,0.65681,0.5153
5.5608,1.4035,0.71545,-13.791,-16.502001,-6.1138,-9.1057,-3.9482,-10.472,-13.791,-16.502001,-7.9602,7.619,10.73,7.746,7.7295,11.659,-36.264,1.3968,-5.2545,-0.77295
1.7694,4.5933,1.3659,-9.2157,-10.561,-6.7642,-8.4553,-2.0065,-6.5691,-9.2157,-10.561,-8.6235,3.1746,10.73,6.4762,11.594,14.235,15.266,6.4762,-1.3136,6.3124
-5.1817,3.3174,-1.8862,-5.9477,-7.9208,-5.4634,-6.5041,0.58252,-3.9675,-5.9477,-7.9208,-7.9602,-5.7143,5.6508,-0.50794,7.7295,9.7262,14.622,1.3968,-5.2545,1.8035
-4.5498,2.6794,-0.58537,-0.06536,1.9802,1.0407,0.65041,4.466,2.5366,-0.06536,1.9802,-1.99,-8.254,-0.06349,-1.7778,4.5089,7.7939,4.9597,-1.1429,-6.5681,-2.7053
3.0332,5.2313,7.2195,7.7778,10.561,10.797,10.407,12.88,9.6911,7.7778,10.561,7.9602,-2.5397,-0.69841,3.9365,4.5089,9.0821,12.045,9.0159,-0.65681,-1.4171
4.297,5.2313,7.8699,6.4706,8.5809,12.098,11.707,10.939,8.3902,6.4706,8.5809,9.9502,-0.63492,-0.06349,4.5714,3.8647,7.1498,-0.19324,1.3968,-1.9704,-2.0612
0.50553,3.3174,3.3171,-0.06536,3.9604,6.2439,8.4553,0.58252,2.5366,-0.06536,3.9604,5.3068,1.2698,1.8413,1.3968,3.2206,3.9291,9.4686,-3.6825,-1.9704,0.5153
1.1374,5.8692,4.6179,-0.06536,-0.66007,4.9431,7.8049,0.58252,5.1382,-0.06536,-0.66007,3.9801,8.8889,10.095,5.2063,10.306,7.7939,16.554001,5.8413,6.5681,10.177
-2.654,3.9553,1.3659,-3.3333,-4.6205,1.0407,1.9512,-1.3592,3.187,-3.3333,-4.6205,-0.66335,8.8889,12.0,2.0317,10.306,6.5056,-9.2109,5.8413,5.9113,12.754
-3.9179,0.12759,-1.2358,-5.9477,-5.9406,-0.91057,-1.3008,-3.301,2.5366,-5.9477,-5.9406,-3.9801,5.7143,8.1905,-1.7778,6.4412,1.3527,-7.9227,7.746,3.9409,11.465
-0.75829,-0.51037,0.06504,-3.9869,1.9802,1.0407,1.9512,-1.3592,6.439,-3.9869,1.9802,-1.99,8.8889,11.365,0.12698,7.7295,2.6409,5.6039,10.921,5.2545,12.11
2.4013,1.4035,0.71545,-0.71895,6.6007,1.6911,1.9512,-0.71197,5.1382,-0.71895,6.6007,-0.66335,10.159,14.54,1.3968,9.0177,4.5733,-6.6345,3.9365,1.9704,11.465
-1.3902,-2.4242,-2.5366,-5.9477,-1.3201,-2.2114,-2.6016,-4.5955,-2.0163,-5.9477,-1.3201,-5.3068,3.8095,8.1905,-3.0476,3.2206,-0.57971,-15.652,-2.4127,-3.2841,5.6683
-5.1817,-1.7863,-2.5366,-7.2549,-3.9604,-4.1626,-3.252,-5.89,-3.9675,-7.2549,-3.9604,-5.9701,-0.63492,5.6508,-6.2222,0.64412,-3.1562,-5.9903,-0.50794,-4.5977,0.5153
-3.2859,0.76555,-0.58537,-7.2549,-2.6403,-3.5122,-0.65041,-8.479,-3.3171,-7.2549,-2.6403,-4.6434,0.63492,7.5556,-4.3175,3.2206,-0.57971,-5.9903,-4.3175,-5.2545,1.8035
3.6651,0.12759,2.0163,-3.3333,-0.66007,-0.91057,1.9512,-5.2427,-0.06504,-3.3333,-0.66007,-1.99,6.3492,12.635,2.0317,5.153,2.6409,5.6039,-5.5873,3.2841,5.6683
3.0332,-4.3381,-1.8862,-4.6405,-3.9604,-2.8618,-3.9024,-4.5955,-3.9675,-4.6405,-3.9604,-5.3068,6.3492,11.365,2.0317,2.5765,1.3527,13.977,-6.8571,2.6273,4.38
1.1374,-1.1483,-2.5366,-2.6797,-1.9802,-2.2114,-3.9024,-2.0065,-0.71545,-2.6797,-1.9802,-5.9701,5.0794,10.73,0.7619,3.2206,1.9968,-17.584999,0.7619,-0.65681,6.9565
-2.654,0.12759,-3.187,-0.06536,3.9604,-0.26016,-2.6016,1.2298,3.8374,-0.06536,3.9604,-5.3068,0.0,6.9206,-4.3175,-1.9324,-1.868,-33.688,10.921,-1.9704,5.6683
-9.6051,-6.89,-8.3902,-3.9869,1.3201,-4.1626,-8.4553,-3.9482,-1.3659,-3.9869,1.3201,-9.9502,-10.159,-5.7778,-11.937,-12.882,-10.886,-16.296,3.3016,-7.8818,-5.9259
-7.7093,-10.08,-9.6911,-7.9085,-4.6205,-6.1138,-9.7561,-7.8317,-5.2683,-7.9085,-4.6205,-10.614,-14.603,-10.857,-10.667,-17.391001,-12.174,-9.8551,-10.032,-9.1954,-11.723
4.297,-5.614,-3.8374,-2.6797,-1.9802,0.39024,-3.252,1.2298,1.2358,-2.6797,-1.9802,-3.3167,-10.159,-8.9524,-1.7778,-13.527,-7.0209,-14.364,-8.7619,-4.5977,-9.1465
0.50553,-8.8038,-4.4878,-0.06536,0.66007,-0.26016,0.65041,-1.3592,2.5366,-0.06536,0.66007,-1.3267,-11.429,-15.937,-3.0476,-16.747,-10.242,12.689,-4.9524,-3.9409,-7.2142
-5.1817,-6.89,-5.1382,1.2418,3.9604,-1.561,5.8537,-3.301,5.1382,1.2418,3.9604,1.99,-12.063,-16.570999,-6.2222,-15.459,-12.818,18.486,-1.1429,-5.2545,-4.6377
-5.1817,3.9553,-1.8862,7.7778,5.9406,5.5935,12.358,7.055,12.943,7.7778,5.9406,9.2869,-9.5238,-8.3175,-6.2222,-4.5089,-8.3092,6.8921,5.2063,-6.5681,1.8035
-6.4455,10.973,-0.58537,11.046,8.5809,10.146,13.659,9.644,16.846001,11.046,8.5809,12.604,-10.159,-1.9683,-8.127,3.8647,-5.0886,-5.9903,21.079,-9.8522,12.754
-10.869,5.2313,-8.3902,-3.3333,0.66007,-2.2114,2.6016,-5.89,3.8374,-3.3333,0.66007,-0.66335,-13.333,-3.873,-11.937,2.5765,-7.6651,-24.67,12.825,-15.107,10.821
-8.9731,5.2313,-10.341,-9.8693,-4.6205,-11.967,-1.3008,-13.01,-0.06504,-9.8693,-4.6205,-8.6235,-7.619,1.2063,-6.8571,8.3736,-3.1562,-5.9903,2.6667,-10.509,10.821
-10.237,5.8692,-12.943,-7.9085,-5.9406,-15.22,-3.252,-11.068,1.2358,-7.9085,-5.9406,-10.614,-5.0794,5.6508,-5.5873,12.882,-0.57971,1.095,3.3016,-5.2545,11.465
-9.6051,-0.51037,-15.545,-3.9869,-3.9604,-13.268,-5.8537,-5.2427,-0.71545,-3.9869,-3.9604,-10.614,-3.1746,7.5556,-6.2222,10.306,-3.1562,2.3833,2.0317,-3.9409,8.8889
-4.5498,-3.0622,-10.992,-1.3725,-0.66007,-6.1138,-3.9024,-2.0065,0.58537,-1.3725,-0.66007,-4.6434,0.0,8.8254,-4.9524,7.7295,-4.4444,-12.432,7.746,-1.3136,9.533
-2.0221,-3.0622,-7.0894,0.58824,1.3201,-2.2114,-1.3008,-2.0065,-0.06504,0.58824,1.3201,-0.66335,1.2698,10.095,-4.3175,6.4412,-4.4444,-7.9227,-3.6825,1.3136,6.3124
2.4013,-1.1483,-3.187,5.817,3.3003,2.3415,1.9512,1.2298,3.187,5.817,3.3003,3.3167,6.3492,15.175,2.0317,10.306,1.3527,15.91,-9.3968,3.9409,8.8889
0.50553,-5.614,-8.3902,4.5098,-0.66007,-0.91057,-1.9512,-2.0065,-1.3659,4.5098,-0.66007,0.66335,3.1746,11.365,2.0317,4.5089,0.06441,12.689,-8.127,-0.65681,-0.12882
3.6651,-4.3381,-6.439,4.5098,1.3201,0.39024,1.3008,-2.6537,-0.06504,4.5098,1.3201,2.6534,3.1746,12.635,5.2063,4.5089,1.9968,12.045,-5.5873,0.0,-1.4171
9.9842,3.3174,3.9675,9.7386,8.5809,8.1951,8.4553,3.1715,7.0894,9.7386,8.5809,9.9502,5.0794,12.635,9.0159,6.4412,6.5056,6.248,5.2063,-0.65681,3.0918
15.671,6.5072,11.772,13.007,14.521,15.35,10.407,7.055,10.341,13.007,14.521,15.92,5.7143,8.8254,11.556,5.153,9.0821,-29.179001,13.46,-3.9409,-0.12882
14.408,7.1451,14.374,12.353,13.201,15.35,8.4553,4.466,9.6911,12.353,13.201,17.247,5.0794,3.746,11.556,1.9324,9.0821,-4.7021,7.746,-2.6273,-5.2818
9.3523,3.3174,11.122,7.7778,5.9406,11.447,5.8537,0.58252,5.7886,7.7778,5.9406,12.604,3.8095,-2.6032,9.0159,-3.8647,5.2174,25.572001,-0.50794,0.0,-7.8583
9.3523,1.4035,8.5203,5.817,4.6205,8.1951,5.2033,1.2298,4.4878,5.817,4.6205,9.2869,4.4444,-4.5079,8.381,-5.153,3.9291,13.333,0.7619,1.9704,-5.2818
13.776,6.5072,11.122,7.7778,10.561,8.1951,8.4553,3.8188,7.7398,7.7778,10.561,10.614,10.794,1.8413,13.46,1.2882,9.0821,13.977,4.5714,10.509,-0.12882
3.6651,1.4035,2.0163,1.8954,3.3003,-0.91057,0.65041,-1.3592,1.2358,1.8954,3.3003,1.3267,6.9841,-0.06349,5.2063,-1.2882,2.6409,11.401,-1.7778,5.9113,-3.3494
-7.0774,-5.614,-6.439,-1.3725,-1.3201,-4.813,-3.9024,-2.6537,-3.3171,-1.3725,-1.3201,-4.6434,-3.1746,-7.6825,-7.4921,-7.7295,-7.6651,-4.7021,-4.9524,-3.2841,-6.57
-10.869,-4.9761,-8.3902,-1.3725,-1.3201,-3.5122,-1.9512,-1.3592,-1.3659,-1.3725,-1.3201,-2.6534,-8.8889,-12.762,-14.476,-10.95,-13.462,-14.364,1.3968,-5.9113,-7.8583
-8.9731,0.12759,-3.8374,0.58824,0.0,-2.2114,0.65041,-0.71197,2.5366,0.58824,0.0,0.66335,-6.9841,-7.0476,-10.667,-4.5089,-8.9533,3.6715,7.1111,-3.9409,-0.77295
-8.3412,2.6794,-2.5366,-0.71895,0.0,-6.7642,0.0,-1.3592,1.8862,-0.71895,0.0,-1.99,-6.9841,-1.9683,-7.4921,0.0,-4.4444,4.9597,-0.50794,-6.5681,0.5153
-11.501,0.12759,-4.4878,-7.2549,-3.9604,-11.317,-4.5528,-5.89,-3.3171,-7.2549,-3.9604,-7.9602,-10.159,-0.69841,-8.7619,1.9324,-3.8003,-4.7021,-6.8571,-10.509,1.8035
-9.6051,1.4035,-0.58537,-5.2941,-3.9604,-6.7642,-1.9512,-4.5955,-2.6667,-5.2941,-3.9604,-3.9801,-7.619,3.1111,-8.7619,4.5089,-0.57971,5.6039,-1.1429,-7.8818,4.38
-6.4455,0.76555,-0.58537,-0.71895,-1.3201,-2.2114,0.0,1.2298,0.58537,-0.71895,-1.3201,-0.66335,-5.0794,1.8413,-6.2222,2.5765,-0.57971,8.1804,2.0317,-5.9113,1.8035
8.7204,7.7831,7.2195,10.392,11.221,6.8943,10.407,10.939,10.341,10.392,11.221,7.9602,5.7143,6.9206,7.1111,7.7295,7.1498,14.622,6.4762,5.9113,5.0242
16.302999,9.697,9.8211,6.4706,8.5809,8.1951,9.7561,10.939,8.3902,6.4706,8.5809,7.9602,7.619,4.381,10.286,6.4412,6.5056,-55.588001,7.746,0.0,-0.77295
6.8246,7.1451,5.9187,-2.0261,-0.66007,3.6423,4.5528,-0.06472,3.187,-2.0261,-0.66007,3.9801,2.5397,-2.6032,4.5714,1.9324,1.9968,-31.111,-1.1429,-3.9409,-7.2142
1.7694,9.059,6.5691,1.2418,3.9604,4.9431,5.8537,-0.06472,5.7886,1.2418,3.9604,5.9701,5.0794,-1.3333,5.2063,3.8647,5.2174,28.792,-3.0476,3.2841,-3.9936
1.1374,6.5072,3.9675,-2.6797,-1.3201,3.6423,3.9024,-1.3592,2.5366,-2.6797,-1.3201,3.3167,3.1746,-3.873,4.5714,0.0,3.9291,22.351,-6.2222,2.6273,-9.1465
6.1927,2.0415,4.6179,-3.3333,2.6403,3.6423,4.5528,-1.3592,2.5366,-3.3333,2.6403,4.6434,5.0794,-3.873,7.746,-3.2206,3.285,22.351,-7.4921,7.225,-10.435
9.3523,-3.0622,5.9187,-0.71895,7.2607,5.5935,7.8049,-0.06472,3.8374,-0.71895,7.2607,7.9602,6.3492,-5.1429,7.746,-9.0177,-1.868,1.7391,-4.3175,11.166,-9.7907
8.0885,-1.7863,4.6179,-0.06536,7.2607,6.2439,10.407,-0.06472,7.7398,-0.06536,7.2607,9.9502,6.3492,-6.4127,3.9365,-10.306,-3.8003,-7.9227,3.3016,10.509,-11.079
5.5608,2.0415,3.3171,-0.71895,6.6007,3.6423,5.8537,-1.3592,7.0894,-0.71895,6.6007,5.9701,8.8889,-0.06349,2.6667,-3.8647,-0.57971,-15.008,2.0317,7.8818,-6.57
-4.5498,-4.9761,-3.187,-5.9477,-3.3003,-5.4634,-6.5041,-8.479,-2.0163,-5.9477,-3.3003,-3.9801,1.9048,-1.9683,-4.3175,-7.0853,-4.4444,-5.9903,-6.8571,0.65681,-11.723
-9.6051,-12.632,-8.3902,-7.2549,-8.5809,-10.667,-13.008,-11.715,-7.8699,-7.2549,-8.5809,-9.9502,-5.7143,-7.0476,-10.032,-10.95,-9.5974,-4.7021,-11.937,-2.6273,-11.723
-7.7093,-12.632,-5.1382,-5.9477,-7.9208,-9.3659,-11.057,-9.1262,-5.9187,-5.9477,-7.9208,-8.6235,-5.7143,-3.2381,-7.4921,-8.3736,-7.6651,4.3156,-5.5873,-1.3136,-3.3494
-8.3412,-11.994,-5.1382,-6.6013,-5.9406,-8.065,-11.057,-6.5372,-3.9675,-6.6013,-5.9406,-9.2869,-10.159,-3.2381,-6.8571,-7.0853,-6.3768,10.757,-1.1429,-7.225,-6.57
3.0332,-0.51037,3.9675,1.8954,6.6007,1.0407,-1.9512,-0.71197,5.1382,1.8954,6.6007,-1.99,-6.9841,2.4762,2.6667,2.5765,4.5733,-15.652,9.0159,-7.225,0.5153
12.512,7.1451,10.472,10.392,13.201,8.8455,5.2033,5.1133,11.642,10.392,13.201,4.6434,-1.9048,4.381,10.286,8.3736,11.014,-14.364,11.556,-4.5977,10.821
8.7204,2.6794,4.6179,5.817,6.6007,5.5935,2.6016,2.5243,4.4878,5.817,6.6007,1.3267,-5.0794,-6.4127,5.8413,-0.64412,2.6409,-18.872999,1.3968,-7.8818,3.7359
14.408,8.4211,11.772,9.085,10.561,10.797,9.7561,5.1133,6.439,9.085,10.561,8.6235,5.7143,-0.69841,16.0,3.8647,9.0821,17.198,3.9365,5.2545,7.6006
11.88,7.1451,10.472,7.7778,9.901,8.8455,8.4553,1.2298,5.7886,7.7778,9.901,6.6335,6.3492,-0.69841,16.635,3.2206,9.7262,17.841999,5.2063,4.5977,5.6683
8.0885,7.7831,9.1707,5.1634,9.901,7.5447,7.1545,-0.71197,7.7398,5.1634,9.901,5.3068,1.9048,-3.873,9.6508,1.2882,7.1498,3.0274,0.7619,-0.65681,-1.4171
7.4566,12.887,12.423,3.8562,9.2409,7.5447,11.057,-2.0065,10.341,3.8562,9.2409,7.2968,5.0794,3.1111,8.381,7.7295,9.7262,8.1804,3.9365,3.2841,3.7359
7.4566,14.801,10.472,5.1634,5.2805,4.9431,12.358,-1.3592,10.992,5.1634,5.2805,6.6335,9.5238,9.4603,10.286,13.527,12.947,4.9597,9.6508,8.5386,7.6006
5.5608,15.439,9.1707,7.7778,9.2409,2.9919,12.358,1.2298,9.6911,7.7778,9.2409,7.9602,13.968,12.0,12.19,14.815,14.879,-0.83736,8.381,13.136,5.0242
4.297,11.611,7.8699,1.2418,6.6007,-2.2114,8.4553,-5.2427,5.1382,1.2418,6.6007,4.6434,13.333,10.73,10.286,10.95,12.303,-33.042999,-1.7778,9.8522,1.1594
0.50553,5.2313,5.9187,-3.3333,5.2805,-4.1626,4.5528,-11.068,3.8374,-3.3333,5.2805,1.99,5.0794,5.0159,0.7619,2.5765,3.285,-13.076,-1.7778,4.5977,1.8035
2.4013,5.8692,11.122,7.1242,12.541,6.8943,8.4553,-2.6537,7.7398,7.1242,12.541,9.2869,1.2698,5.0159,-2.4127,1.2882,0.70853,13.977,5.2063,7.8818,3.7359
-3.2859,-0.51037,6.5691,5.817,9.2409,4.9431,4.5528,-4.5955,5.7886,5.817,9.2409,5.3068,-6.3492,-0.69841,-7.4921,-3.8647,-3.8003,10.113,-4.3175,0.65681,1.1594
-7.0774,-6.252,0.71545,-1.3725,3.3003,-0.91057,-1.3008,-6.5372,3.187,-1.3725,3.3003,-1.3267,-10.794,-6.4127,-8.7619,-6.4412,-7.0209,11.401,-3.0476,-5.2545,0.5153
-0.12638,-0.51037,3.9675,-1.3725,7.9208,1.0407,1.9512,-3.9482,9.0407,-1.3725,7.9208,1.3267,-3.8095,-0.06349,-1.7778,0.0,-1.2238,3.6715,10.921,-1.9704,7.6006
-0.12638,2.6794,0.71545,-1.3725,5.9406,-1.561,3.9024,-7.8317,11.642,-1.3725,5.9406,0.66335,-3.8095,-0.69841,-1.7778,1.2882,-1.2238,-0.83736,16.0,-1.3136,10.821
2.4013,5.8692,3.3171,4.5098,7.9208,-0.26016,6.5041,-4.5955,14.894,4.5098,7.9208,2.6534,-3.1746,-0.69841,0.12698,3.8647,1.3527,-29.823,16.635,-2.6273,13.398
-5.8136,1.4035,0.71545,-0.71895,5.2805,-5.4634,0.0,-10.421,7.7398,-0.71895,5.2805,-2.6534,-7.619,-5.7778,-3.0476,-1.2882,-1.868,-9.8551,12.19,-6.5681,5.0242
-9.6051,-0.51037,-2.5366,-3.3333,1.9802,-7.4146,-4.5528,-13.657,3.8374,-3.3333,1.9802,-6.6335,-6.9841,-7.6825,-3.0476,-3.8647,-2.5121,13.977,-0.50794,-5.2545,-1.4171
-7.0774,-1.1483,-5.7886,-2.6797,1.3201,-6.7642,-5.2033,-10.421,1.8862,-2.6797,1.3201,-6.6335,-3.8095,-5.1429,-1.1429,-1.9324,-1.2238,6.8921,-4.9524,-3.2841,-2.0612
-3.9179,-3.7002,-9.6911,-2.6797,-1.3201,-4.813,-5.2033,-9.1262,-2.6667,-2.6797,-1.3201,-6.6335,0.63492,0.57143,0.12698,-0.64412,-0.57971,1.095,-10.032,5.2545,-1.4171
-0.75829,-3.7002,-10.341,-0.71895,-1.9802,-0.26016,-2.6016,-7.8317,-3.3171,-0.71895,-1.9802,-3.3167,6.3492,4.381,1.3968,1.9324,0.70853,-10.499,-9.3968,9.1954,-0.12882
0.50553,2.0415,-3.187,3.8562,4.6205,4.2927,1.3008,-5.2427,1.8862,3.8562,4.6205,2.6534,8.8889,5.6508,3.9365,7.0853,4.5733,-4.7021,0.12698,8.5386,6.3124
3.0332,9.059,5.2683,6.4706,9.2409,6.8943,5.8537,-2.6537,7.0894,6.4706,9.2409,7.2968,7.619,5.6508,6.4762,10.95,8.438,-11.787,9.0159,5.9113,8.8889
3.6651,10.973,7.2195,7.7778,11.221,5.5935,7.1545,-1.3592,9.6911,7.7778,11.221,7.2968,9.5238,7.5556,8.381,12.882,10.37,12.689,6.4762,9.8522,6.9565
-0.12638,9.059,3.9675,5.817,15.182,1.6911,7.1545,-5.89,10.341,5.817,15.182,5.3068,12.063,9.4603,6.4762,10.95,8.438,18.486,3.3016,9.1954,4.38
1.1374,7.7831,3.3171,9.7386,19.802,4.2927,11.057,-3.9482,14.894,9.7386,19.802,8.6235,12.063,11.365,5.8413,10.306,7.1498,-2.7697,2.0317,6.5681,5.6683
-0.12638,2.6794,-1.8862,7.7778,17.162001,1.6911,9.7561,-3.301,13.593,7.7778,17.162001,5.9701,4.4444,8.8254,1.3968,4.5089,0.70853,2.3833,1.3968,2.6273,2.4477
-0.75829,4.5933,-0.58537,3.8562,14.521,-0.91057,9.7561,-5.89,14.244,3.8562,14.521,3.3167,0.0,7.5556,0.12698,3.2206,-0.57971,-0.83736,4.5714,0.65681,-0.12882
-0.12638,3.9553,3.3171,3.8562,7.9208,-0.26016,8.4553,-6.5372,12.293,3.8562,7.9208,1.99,0.0,6.2857,1.3968,3.8647,1.3527,-5.3462,11.556,-0.65681,3.7359
-7.7093,-3.0622,-1.8862,1.8954,4.6205,-3.5122,1.3008,-9.7735,8.3902,1.8954,4.6205,-3.9801,-2.5397,-0.06349,-3.6825,0.64412,-1.868,6.8921,0.12698,-7.225,3.7359
-10.869,-6.252,-4.4878,1.8954,7.9208,-4.1626,-1.9512,-7.8317,8.3902,1.8954,7.9208,-5.9701,-4.4444,-1.9683,-6.8571,0.0,-2.5121,6.8921,-1.1429,-11.166,3.7359
-1.3902,-0.51037,3.9675,7.7778,11.881,2.3415,4.5528,0.58252,16.195,7.7778,11.881,0.0,-3.8095,1.8413,-0.50794,5.153,3.9291,-0.19324,14.095,-6.5681,9.533
0.50553,-1.1483,6.5691,3.8562,9.901,-0.26016,3.9024,-5.2427,12.943,3.8562,9.901,-1.3267,-5.7143,2.4762,0.7619,5.7971,5.8615,-16.296,14.73,-9.8522,8.8889
-5.8136,-4.3381,3.3171,-0.71895,5.9406,-6.1138,-1.9512,-11.715,7.0894,-0.71895,5.9406,-6.6335,-6.9841,1.2063,-2.4127,3.2206,3.9291,-22.738001,9.6508,-12.479,7.6006
-10.237,-4.9761,-0.58537,-1.3725,5.9406,-6.7642,-3.252,-11.068,5.1382,-1.3725,5.9406,-6.6335,-8.8889,-0.69841,-6.2222,1.2882,1.3527,-0.83736,7.746,-9.8522,6.3124
-10.237,-3.0622,-1.8862,0.58824,3.9604,-6.1138,-3.9024,-7.1845,5.7886,0.58824,3.9604,-6.6335,-6.9841,-0.69841,-4.3175,1.9324,3.285,3.0274,1.3968,-3.9409,3.0918
-6.4455,-7.5279,-3.187,-1.3725,-5.2805,-9.3659,-7.1545,-9.1262,1.8862,-1.3725,-5.2805,-11.94,-6.9841,-5.1429,-3.0476,-2.5765,1.3527,-19.517,0.7619,-3.2841,-2.7053
-0.75829,-8.8038,-1.2358,-3.3333,-5.9406,-8.065,-8.4553,-10.421,-2.6667,-3.3333,-5.9406,-11.277,-2.5397,-5.1429,0.12698,-3.8647,0.70853,-6.6345,0.12698,1.9704,-4.6377
3.6651,-5.614,0.71545,-2.0261,0.66007,-4.1626,-8.4553,-4.5955,-0.71545,-2.0261,0.66007,-8.6235,3.1746,-0.69841,3.3016,-1.9324,1.9968,13.333,-1.1429,8.5386,-2.7053
5.5608,2.0415,4.6179,4.5098,6.6007,0.39024,-1.9512,2.5243,4.4878,4.5098,6.6007,-2.6534,10.159,5.6508,5.8413,3.8647,5.8615,19.775,3.3016,13.793,5.6683
-5.1817,0.12759,-1.2358,1.8954,3.3003,-4.1626,-3.252,-3.9482,-0.06504,1.8954,3.3003,-5.9701,3.8095,-1.9683,-3.6825,-2.5765,-2.5121,7.5362,0.7619,5.2545,1.1594
-7.7093,-1.7863,-5.7886,-3.3333,-2.6403,-7.4146,-5.2033,-11.068,-3.9675,-3.3333,-2.6403,-7.2968,-3.1746,-9.5873,-9.3968,-8.3736,-9.5974,-17.584999,-8.127,-2.6273,-5.2818
-1.3902,2.0415,-3.187,-3.3333,-1.9802,-4.813,-1.3008,-8.479,1.2358,-3.3333,-1.9802,-4.6434,-1.9048,-7.6825,-6.2222,-5.153,-8.9533,-14.364,-4.3175,-1.9704,-2.7053
2.4013,0.76555,-3.8374,-3.3333,0.66007,-5.4634,0.65041,-5.89,3.8374,-3.3333,0.66007,-5.3068,0.0,-5.7778,-3.0476,-1.9324,-7.6651,-15.008,5.2063,-0.65681,4.38
0.50553,-1.7863,-5.1382,-2.6797,2.6403,-6.7642,-0.65041,-5.89,1.8862,-2.6797,2.6403,-7.2968,1.2698,-5.7778,-1.1429,0.0,-5.7327,4.3156,3.3016,0.65681,9.533
-7.0774,-3.0622,-7.7398,-5.9477,-3.3003,-9.3659,-2.6016,-9.7735,-2.6667,-5.9477,-3.3003,-9.2869,0.0,-6.4127,-4.3175,-0.64412,-7.0209,19.775,-3.0476,1.3136,6.9565
-7.7093,0.12759,-6.439,-3.9869,1.3201,-7.4146,0.0,-9.1262,1.2358,-3.9869,1.3201,-6.6335,0.63492,-1.9683,-4.9524,1.2882,-6.3768,13.977,2.6667,3.2841,7.6006
-2.654,3.9553,-2.5366,1.2418,9.2409,-1.561,1.9512,-3.301,6.439,1.2418,9.2409,-3.3167,1.9048,-0.06349,-2.4127,3.2206,-4.4444,9.4686,9.0159,6.5681,7.6006
8.0885,10.335,3.9675,8.4314,14.521,6.8943,8.4553,5.1133,14.244,8.4314,14.521,2.6534,10.794,9.4603,7.1111,11.594,5.2174,-4.058,17.905001,11.823,16.618
5.5608,4.5933,0.71545,4.5098,4.6205,3.6423,3.9024,-0.06472,5.7886,4.5098,4.6205,-0.66335,12.063,12.0,7.746,10.306,5.8615,-8.5668,6.4762,7.8818,11.465
-3.2859,-3.7002,-8.3902,-3.9869,-5.9406,-4.1626,-6.5041,-8.479,-6.5691,-3.9869,-5.9406,-9.9502,8.254,6.2857,2.0317,3.8647,0.06441,-18.229,-6.8571,2.6273,-1.4171
-3.2859,-6.89,-9.0407,-5.2941,-7.9208,-7.4146,-11.057,-9.1262,-9.8211,-5.2941,-7.9208,-13.93,11.429,8.1905,5.2063,5.7971,0.70853,2.3833,-4.3175,7.225,3.7359
1.7694,-5.614,-3.187,-4.6405,-5.9406,-5.4634,-9.1057,-5.89,-7.2195,-4.6405,-5.9406,-11.94,13.333,13.27,10.921,9.0177,5.8615,24.927999,0.7619,11.166,10.177
8.7204,1.4035,5.9187,1.2418,0.66007,2.9919,-3.252,-0.71197,-2.6667,1.2418,0.66007,-3.3167,16.507999,19.618999,16.635,12.238,11.659,21.063,0.7619,16.42,10.821
8.7204,2.0415,5.9187,-0.71895,3.3003,5.5935,-1.3008,-2.0065,-0.71545,-0.71895,3.3003,-1.99,14.603,16.444,14.73,7.7295,10.37,-6.6345,0.12698,12.479,8.2448
9.9842,-1.7863,1.3659,-0.06536,3.3003,5.5935,-1.9512,-1.3592,-0.71545,-0.06536,3.3003,-3.3167,12.698,12.0,12.19,2.5765,7.1498,-27.246,-0.50794,7.225,3.0918
9.9842,-3.7002,-0.58537,1.2418,0.66007,2.9919,-2.6016,-0.71197,-1.3659,1.2418,0.66007,-3.9801,12.698,8.8254,12.19,-0.64412,5.2174,0.45089,-4.3175,5.9113,-1.4171
3.6651,-8.1659,-2.5366,-1.3725,-3.3003,-1.561,-4.5528,-3.9482,-5.9187,-1.3725,-3.3003,-5.9701,10.159,2.4762,9.0159,-5.153,1.9968,24.283001,-8.7619,4.5977,-7.2142
1.7694,-7.5279,-0.58537,0.58824,-7.9208,-0.26016,-4.5528,-2.6537,-8.5203,0.58824,-7.9208,-3.9801,6.9841,-0.69841,5.8413,-5.7971,0.70853,9.4686,-9.3968,2.6273,-7.8583
0.50553,-2.4242,0.71545,2.549,-7.2607,3.6423,0.0,-2.0065,-6.5691,2.549,-7.2607,0.0,3.1746,-0.06349,2.6667,-1.2882,1.9968,-2.7697,-4.3175,-0.65681,-2.0612
1.7694,3.9553,2.6667,7.7778,5.2805,10.146,7.8049,1.2298,-0.06504,7.7778,5.2805,7.9602,1.2698,1.2063,2.0317,3.2206,4.5733,4.3156,1.3968,0.65681,-0.12882
6.8246,9.059,7.8699,9.085,11.221,14.049,10.407,2.5243,3.187,9.085,11.221,13.267,0.0,3.746,4.5714,7.0853,7.7939,-2.7697,3.3016,2.6273,1.8035
13.776,13.525,13.724,11.046,16.502001,17.301001,13.008,5.7605,8.3902,11.046,16.502001,17.247,0.63492,7.5556,7.746,12.238,10.37,-11.143,5.8413,7.225,6.3124
8.0885,10.973,8.5203,7.1242,15.182,10.797,11.057,1.877,9.6911,7.1242,15.182,12.604,-2.5397,6.2857,2.0317,8.3736,4.5733,-7.2786,4.5714,3.9409,3.0918
-1.3902,7.1451,1.3659,4.5098,7.9208,2.9919,9.1057,-1.3592,6.439,4.5098,7.9208,6.6335,-6.3492,3.746,-5.5873,3.8647,-0.57971,4.9597,-3.6825,1.9704,-0.77295
-3.9179,9.059,2.0163,5.817,3.3003,3.6423,10.407,1.2298,5.7886,5.817,3.3003,7.2968,-7.619,4.381,-8.7619,3.8647,-0.57971,15.91,0.7619,1.3136,1.8035
-2.654,11.611,5.2683,7.1242,5.2805,7.5447,11.057,5.1133,8.3902,7.1242,5.2805,9.9502,-12.063,2.4762,-11.937,3.8647,-0.57971,-2.7697,9.0159,-8.5386,3.7359
-3.2859,12.249,6.5691,8.4314,13.201,9.4959,11.057,6.4078,11.642,8.4314,13.201,11.277,-15.238,0.57143,-13.841,1.2882,-3.1562,-9.2109,5.8413,-16.42,-0.12882
-7.0774,8.4211,3.3171,7.7778,11.881,3.6423,9.7561,1.2298,10.341,7.7778,11.881,9.2869,-13.968,-0.06349,-14.476,-1.2882,-6.3768,-4.7021,2.0317,-15.764,-1.4171
-7.7093,3.9553,2.0163,5.817,10.561,-3.5122,7.8049,-2.6537,9.0407,5.817,10.561,5.9701,-9.5238,-1.9683,-11.302,-2.5765,-6.3768,-13.076,0.12698,-15.107,-4.6377
0.50553,6.5072,11.122,7.1242,14.521,-0.26016,11.057,-0.06472,12.293,7.1242,14.521,10.614,-0.63492,1.2063,-0.50794,3.2206,1.3527,-15.008,5.2063,-8.5386,-3.9936
4.9289,9.059,16.976,4.5098,9.2409,3.6423,9.1057,-1.3592,9.6911,4.5098,9.2409,13.267,5.7143,5.6508,5.8413,7.7295,5.8615,-2.7697,3.3016,-3.2841,0.5153
9.9842,10.335,18.927,4.5098,9.901,8.8455,8.4553,0.58252,9.0407,4.5098,9.901,15.257,12.698,10.095,10.286,10.95,8.438,1.7391,6.4762,3.9409,-0.12882
8.0885,1.4035,13.724,-0.71895,0.0,4.2927,2.6016,-3.9482,1.2358,-0.71895,0.0,9.9502,12.063,6.9206,9.6508,5.7971,3.9291,4.9597,5.2063,5.9113,-2.7053
6.1927,-6.89,7.8699,-4.6405,-7.2607,-1.561,-2.6016,-7.1845,-5.2683,-4.6405,-7.2607,2.6534,12.063,6.9206,10.286,1.2882,1.3527,10.113,2.0317,8.5386,-1.4171
4.297,-11.994,1.3659,-7.9085,-4.6205,-6.7642,-6.5041,-9.7735,-7.2195,-7.9085,-4.6205,-3.3167,11.429,6.9206,7.746,-3.8647,-2.5121,6.248,-5.5873,6.5681,-3.9936
3.0332,-14.545,-3.187,-7.9085,-2.6403,-8.7154,-9.1057,-8.479,-8.5203,-7.9085,-2.6403,-6.6335,8.8889,4.381,3.9365,-5.7971,-3.8003,3.6715,-8.127,5.2545,-4.6377
6.1927,-8.8038,0.71545,-4.6405,-3.9604,-4.1626,-4.5528,-5.2427,-3.9675,-4.6405,-3.9604,-3.3167,8.8889,5.6508,5.2063,-1.2882,0.06441,1.7391,-1.1429,10.509,4.38
3.6651,-4.9761,3.3171,-4.6405,-3.3003,-2.2114,-1.3008,-5.89,-2.6667,-4.6405,-3.3003,-0.66335,3.1746,4.381,0.7619,-3.2206,-1.2238,-7.9227,1.3968,7.8818,5.0242
-2.654,-2.4242,3.3171,0.58824,3.9604,-0.91057,1.3008,-3.9482,-1.3659,0.58824,3.9604,1.3267,-5.7143,0.57143,-7.4921,-5.7971,-5.0886,4.3156,2.0317,1.9704,1.1594
-8.3412,-3.0622,-1.2358,0.58824,2.6403,-2.8618,-1.3008,-5.2427,-2.0163,0.58824,2.6403,-1.3267,-15.873,-8.3175,-15.111,-10.95,-10.242,8.1804,-1.1429,-6.5681,-6.57
-8.9731,-4.9761,-7.0894,-3.3333,-1.3201,-6.7642,-3.9024,-7.8317,-0.71545,-3.3333,-1.3201,-5.9701,-26.032,-16.570999,-18.921,-16.103001,-14.106,-43.348999,-6.8571,-20.361,-14.944
-2.0221,3.9553,-1.2358,4.5098,5.2805,-1.561,5.8537,-0.06472,9.0407,4.5098,5.2805,0.66335,-27.302,-15.937,-11.937,-9.6618,-6.3768,-24.025999,-3.6825,-16.42,-9.7907
-3.2859,10.973,4.6179,12.353,15.842,3.6423,13.659,5.7605,13.593,12.353,15.842,7.2968,-27.302,-12.127,-8.7619,-3.2206,0.70853,8.8245,5.2063,-13.136,-0.12882
-13.397,3.3174,-3.8374,7.7778,10.561,-0.26016,5.8537,0.58252,7.0894,7.7778,10.561,2.6534,-33.015999,-19.111,-18.285999,-10.306,-8.3092,-11.787,3.3016,-24.959,-5.9259
-7.0774,4.5933,-3.187,11.046,11.881,2.9919,7.1545,5.1133,9.6911,11.046,11.881,4.6434,-24.761999,-15.937,-13.841,-8.3736,-7.0209,-0.19324,7.746,-21.018,-5.9259
1.1374,11.611,4.6179,13.66,13.861,6.8943,12.358,8.9968,12.943,13.66,13.861,7.9602,-11.429,-7.6825,-2.4127,-0.64412,2.6409,24.283001,11.556,-11.823,1.8035
-2.0221,9.059,3.3171,6.4706,8.5809,1.6911,7.1545,2.5243,9.6911,6.4706,8.5809,1.99,-7.619,-8.9524,-1.7778,-2.5765,2.6409,8.8245,5.2063,-11.823,-4.6377
-6.4455,3.3174,-1.2358,3.8562,5.2805,-2.8618,1.3008,0.58252,5.7886,3.8562,5.2805,-3.3167,-6.3492,-12.127,-4.9524,-7.0853,-1.2238,-27.246,1.3968,-13.136,-11.079
-7.7093,-1.7863,-5.1382,3.2026,2.6403,-3.5122,-2.6016,2.5243,-0.06504,3.2026,2.6403,-5.3068,-3.1746,-12.127,-6.8571,-9.6618,-5.0886,-32.398998,-1.1429,-10.509,-9.1465
-11.501,-9.4418,-10.992,-0.06536,-4.6205,-6.7642,-7.1545,-1.3592,-7.2195,-0.06536,-4.6205,-8.6235,-0.63492,-12.127,-10.032,-12.882,-10.886,5.6039,-6.2222,-3.2841,-7.8583
-7.7093,-7.5279,-11.642,4.5098,-1.9802,-2.2114,-4.5528,3.8188,-3.3171,4.5098,-1.9802,-5.3068,7.619,-3.873,-6.8571,-7.7295,-9.5974,21.063,-0.50794,5.9113,0.5153
-6.4455,-6.89,-12.943,3.2026,-5.2805,-0.91057,-4.5528,3.8188,-3.3171,3.2026,-5.2805,-5.9701,10.159,-2.6032,-5.5873,-6.4412,-8.9533,12.045,-1.1429,9.1954,0.5153
-6.4455,-5.614,-11.642,2.549,-2.6403,-2.2114,-5.2033,3.1715,-2.6667,2.549,-2.6403,-7.2968,8.254,-0.06349,-3.6825,-5.153,-7.0209,7.5362,0.12698,7.225,-1.4171
-9.6051,-8.8038,-14.894,-0.71895,-1.9802,-6.7642,-8.4553,-1.3592,-4.6179,-0.71895,-1.9802,-11.94,5.0794,4.381,-4.9524,-4.5089,-7.0209,6.8921,-3.0476,1.9704,-0.77295
-14.66,-17.097,-22.049,-8.5621,-9.901,-12.618,-13.659,-7.1845,-9.1707,-8.5621,-9.901,-18.573999,0.63492,2.4762,-10.667,-10.95,-14.106,-2.7697,-15.111,-3.2841,-9.1465
-10.237,-17.097,-18.797001,-3.9869,-3.9604,-8.7154,-11.707,-2.6537,-5.2683,-3.9869,-3.9604,-13.93,2.5397,4.381,-8.127,-10.306,-11.53,-4.7021,-8.7619,-0.65681,-3.3494
-8.9731,-12.632,-11.642,-3.9869,-4.6205,-6.1138,-10.407,-2.0065,-5.9187,-3.9869,-4.6205,-10.614,0.0,4.381,-5.5873,-7.7295,-5.0886,-6.6345,-6.2222,-1.9704,0.5153
-5.1817,-2.4242,-0.58537,-0.71895,-4.6205,-2.2114,-4.5528,-2.0065,-5.2683,-0.71895,-4.6205,-3.9801,-5.7143,3.746,-3.6825,-4.5089,1.9968,-19.517,-3.6825,-7.225,-2.7053
6.8246,10.973,15.675,9.7386,3.3003,10.146,9.1057,7.055,3.8374,9.7386,3.3003,10.614,-1.2698,10.095,7.1111,5.153,14.235,1.7391,5.2063,-3.2841,2.4477
6.8246,12.887,15.675,7.7778,5.9406,9.4959,11.707,2.5243,4.4878,7.7778,5.9406,12.604,-1.2698,6.2857,7.1111,3.8647,12.947,-3.4138,7.1111,-5.9113,1.8035
5.5608,9.059,11.122,7.1242,11.221,8.1951,12.358,-1.3592,5.7886,7.1242,11.221,13.93,-6.9841,-5.7778,4.5714,-3.8647,4.5733,3.0274,2.0317,-8.5386,-5.2818
8.7204,5.8692,12.423,7.7778,10.561,10.797,13.008,0.58252,5.1382,7.7778,10.561,17.247,-10.794,-13.397,3.9365,-9.0177,-1.2238,13.977,-4.3175,-7.8818,-8.5024
16.302999,9.059,16.325001,11.046,9.901,16.65,14.959,7.055,7.0894,11.046,9.901,22.554001,-10.794,-14.667,4.5714,-7.7295,-3.1562,-0.19324,2.0317,-4.5977,-5.9259
11.88,8.4211,12.423,9.085,6.6007,13.398,7.8049,8.3495,1.2358,9.085,6.6007,17.91,-12.698,-15.937,-1.1429,-5.7971,-5.7327,-5.9903,2.0317,-1.9704,-5.9259
9.9842,14.163,11.772,11.046,7.9208,12.098,7.8049,10.291,3.8374,11.046,7.9208,17.247,-5.0794,-5.1429,-0.50794,7.7295,1.9968,-0.83736,9.0159,5.9113,11.465
0.50553,10.335,3.3171,1.2418,0.0,1.6911,1.9512,-0.71197,-3.3171,1.2418,0.0,7.9602,-2.5397,-0.69841,-4.9524,9.6618,0.70853,3.6715,2.6667,5.9113,12.754
-6.4455,3.9553,-3.8374,-7.9085,-9.901,-5.4634,-2.6016,-8.479,-11.772,-7.9085,-9.901,1.3267,1.9048,1.8413,-6.2222,6.4412,-2.5121,5.6039,-8.7619,5.2545,3.7359
-5.8136,0.76555,-4.4878,-3.9869,-9.2409,-3.5122,-0.65041,-6.5372,-7.8699,-3.9869,-9.2409,3.3167,8.8889,5.0159,-3.0476,4.5089,-3.1562,14.622,1.3968,8.5386,1.1594
1.1374,-2.4242,-4.4878,-0.71895,-2.6403,0.39024,0.65041,1.877,-2.6667,-0.71895,-2.6403,3.9801,8.8889,5.6508,-1.1429,1.9324,-5.0886,-38.195999,0.12698,2.6273,1.8035
-0.75829,-4.9761,-5.1382,-4.6405,-4.6205,-2.8618,-1.9512,-5.2427,-5.2683,-4.6405,-4.6205,-0.66335,6.3492,5.0159,-1.1429,-1.2882,-5.0886,-13.72,-11.302,1.3136,1.1594
-7.7093,-8.8038,-9.6911,-11.176,-10.561,-10.016,-9.1057,-14.304,-9.1707,-11.176,-10.561,-7.9602,1.2698,4.381,-3.6825,-3.2206,-5.7327,3.6715,-17.650999,-1.3136,-2.7053
-4.5498,-5.614,-6.439,-8.5621,-8.5809,-6.7642,-5.2033,-9.7735,-7.8699,-8.5621,-8.5809,-5.9701,0.0,6.9206,0.12698,2.5765,1.3527,4.9597,-4.3175,-1.3136,-0.12882
-0.75829,1.4035,2.0163,0.58824,2.6403,2.3415,3.9024,-0.06472,0.58537,0.58824,2.6403,2.6534,0.0,10.095,3.3016,8.3736,8.438,27.504,7.746,2.6273,5.6683
-6.4455,-4.3381,-3.187,-3.3333,-0.66007,0.39024,-3.252,-2.6537,-2.0163,-3.3333,-0.66007,-3.3167,-8.8889,-1.9683,-4.9524,-1.2882,0.06441,6.8921,3.3016,-4.5977,-2.0612
-5.1817,-6.89,-7.0894,-7.9085,-10.561,-2.8618,-7.8049,-3.9482,-7.8699,-7.9085,-10.561,-7.9602,-10.794,-7.6825,-7.4921,-6.4412,-4.4444,-25.958,-1.7778,-9.8522,-9.1465
9.9842,6.5072,3.3171,-0.06536,3.9604,4.9431,1.9512,3.1715,3.8374,-0.06536,3.9604,1.3267,2.5397,1.8413,7.746,5.7971,8.438,-30.466999,0.7619,1.3136,1.1594
7.4566,5.8692,3.3171,-1.3725,2.6403,-0.26016,-0.65041,-2.6537,3.187,-1.3725,2.6403,-0.66335,3.1746,1.2063,9.6508,5.153,9.0821,10.113,-2.4127,4.5977,3.0918
-0.75829,-1.1483,-0.58537,-7.2549,-5.9406,-8.065,-5.2033,-7.8317,-2.6667,-7.2549,-5.9406,-5.9701,-0.63492,-1.3333,6.4762,-0.64412,4.5733,25.572001,-3.0476,0.0,-1.4171
1.7694,0.12759,0.71545,-4.6405,-1.3201,-6.1138,-1.3008,-2.0065,-0.06504,-4.6405,-1.3201,-3.9801,5.0794,7.5556,10.921,4.5089,8.438,13.977,3.3016,2.6273,0.5153
7.4566,8.4211,3.9675,3.8562,9.2409,2.3415,7.1545,6.4078,7.7398,3.8562,9.2409,3.3167,14.603,18.983999,16.635,13.527,15.523,10.113,9.6508,9.8522,7.6006
-3.2859,-1.1483,-9.6911,-3.3333,-3.3003,-6.7642,-4.5528,-2.0065,-1.3659,-3.3333,-3.3003,-7.9602,9.5238,13.27,5.8413,7.7295,5.2174,-20.160999,2.6667,5.2545,4.38
-9.6051,-11.356,-18.797001,-12.484,-15.182,-15.22,-15.61,-10.421,-9.1707,-12.484,-15.182,-18.573999,7.619,9.4603,-1.7778,1.9324,-2.5121,-8.5668,0.7619,3.2841,1.8035
-5.8136,-10.08,-15.545,-11.83,-12.541,-12.618,-14.959,-6.5372,-11.122,-11.83,-12.541,-16.584,9.5238,7.5556,-0.50794,1.9324,-3.1562,-15.008,-5.5873,3.2841,-0.12882
-7.0774,-10.08,-13.593,-11.83,-14.521,-12.618,-14.959,-7.1845,-13.073,-11.83,-14.521,-15.257,3.8095,5.0159,-1.7778,0.64412,-4.4444,-7.9227,-10.667,1.9704,-0.12882
-1.3902,-4.9761,-8.3902,-6.6013,-7.9208,-7.4146,-7.1545,-1.3592,-2.6667,-6.6013,-7.9208,-9.2869,5.0794,8.8254,2.6667,5.7971,0.06441,17.198,3.3016,6.5681,7.6006
4.297,-2.4242,-2.5366,-3.9869,-2.6403,-2.2114,-3.252,2.5243,2.5366,-3.9869,-2.6403,-3.9801,5.7143,9.4603,7.746,8.3736,4.5733,20.419001,0.7619,9.8522,6.9565
4.297,-1.7863,-1.2358,-3.9869,-1.9802,-0.91057,-4.5528,-0.06472,-1.3659,-3.9869,-1.9802,-1.99,0.63492,3.1111,5.8413,4.5089,3.9291,10.757,-9.3968,5.2545,-0.12882
3.0332,-1.1483,-2.5366,-3.3333,-4.6205,1.0407,-4.5528,-0.06472,-3.9675,-3.3333,-4.6205,0.0,-3.1746,-1.9683,0.7619,0.64412,0.70853,6.248,-5.5873,0.0,-5.9259
3.0332,-0.51037,-1.8862,-2.6797,-5.2805,2.9919,-1.3008,-2.0065,-3.9675,-2.6797,-5.2805,1.99,-0.63492,-4.5079,0.12698,0.0,0.06441,4.3156,-4.9524,-0.65681,-5.2818
4.297,1.4035,-1.8862,-2.0261,0.66007,2.3415,1.3008,-1.3592,-0.71545,-2.0261,0.66007,1.99,2.5397,-3.873,2.0317,1.2882,0.70853,5.6039,-0.50794,-1.3136,-1.4171
6.8246,2.6794,-1.2358,0.58824,3.9604,2.3415,4.5528,1.877,5.1382,0.58824,3.9604,1.99,4.4444,-3.873,4.5714,1.2882,0.06441,-11.787,0.7619,1.3136,-3.9936
3.6651,3.9553,-1.2358,1.2418,4.6205,-0.26016,5.8537,0.58252,8.3902,1.2418,4.6205,1.99,5.7143,-1.3333,3.9365,3.2206,0.70853,-15.008,3.3016,3.9409,-0.77295
-2.0221,7.1451,1.3659,-0.71895,2.6403,-0.91057,8.4553,0.58252,5.7886,-0.71895,2.6403,3.3167,5.0794,5.0159,1.3968,7.7295,1.9968,1.7391,9.0159,5.9113,5.6683
-6.4455,5.2313,2.0163,-0.06536,3.9604,-2.2114,5.2033,-1.3592,3.187,-0.06536,3.9604,2.6534,2.5397,7.5556,-1.1429,8.3736,1.9968,14.622,0.12698,4.5977,6.9565
-7.0774,-0.51037,1.3659,-2.6797,2.6403,-5.4634,-1.3008,-7.8317,-0.06504,-2.6797,2.6403,-0.66335,0.0,5.6508,-1.7778,4.5089,0.06441,14.622,-3.6825,1.9704,3.7359
-1.3902,-3.0622,2.0163,-6.6013,-4.6205,-4.813,-4.5528,-10.421,-1.3659,-6.6013,-4.6205,-1.3267,1.9048,5.6508,2.0317,1.9324,0.06441,-5.9903,-9.3968,1.3136,1.1594
3.6651,-6.89,1.3659,-9.8693,-10.561,-4.813,-7.1545,-10.421,-6.5691,-9.8693,-10.561,-2.6534,7.619,5.0159,5.8413,-0.64412,0.06441,-20.805,-7.4921,6.5681,-0.12882
3.6651,-12.632,-1.8862,-11.83,-13.201,-7.4146,-10.407,-9.7735,-15.675,-11.83,-13.201,-6.6335,9.5238,1.2063,5.8413,-6.4412,-1.868,-12.432,-13.206,11.823,-8.5024
2.4013,-8.8038,2.0163,-9.2157,-12.541,-6.1138,-8.4553,-8.479,-16.976,-9.2157,-12.541,-5.3068,10.794,-0.06349,4.5714,-7.7295,-0.57971,1.095,-15.111,13.136,-11.079
12.512,9.697,19.577,3.2026,1.3201,7.5447,7.1545,3.8188,1.2358,3.2026,1.3201,8.6235,13.968,10.095,13.46,5.153,13.591,9.4686,5.2063,12.479,4.38
11.88,13.525,21.528,3.8562,4.6205,8.8455,11.707,1.877,9.6911,3.8562,4.6205,9.9502,6.3492,6.2857,12.19,4.5089,14.879,22.351,14.73,5.9113,6.3124
2.4013,2.0415,6.5691,-3.3333,-2.6403,1.6911,0.65041,-2.6537,1.8862,-3.3333,-2.6403,-1.3267,-8.254,-10.222,0.12698,-10.306,0.70853,6.8921,-6.8571,-6.5681,-7.8583
3.6651,-1.1483,1.3659,-0.06536,-1.3201,4.2927,-0.65041,1.877,-0.06504,-0.06536,-1.3201,-0.66335,-10.159,-15.302,-2.4127,-12.238,-3.8003,-12.432,-15.111,-6.5681,-9.1465
1.7694,1.4035,2.0163,3.2026,2.6403,8.8455,5.2033,2.5243,4.4878,3.2026,2.6403,4.6434,-9.5238,-12.762,-2.4127,-6.4412,-2.5121,1.7391,0.12698,-3.2841,-2.0612
1.7694,8.4211,6.5691,8.4314,11.221,12.748,10.407,5.7605,10.992,8.4314,11.221,9.2869,-4.4444,-4.5079,-0.50794,3.8647,2.6409,16.554001,10.921,-2.6273,5.6683
1.7694,12.887,5.9187,9.085,12.541,8.8455,9.1057,6.4078,12.943,9.085,12.541,5.3068,1.9048,-1.3333,2.6667,9.6618,5.8615,-11.787,17.27,-0.65681,8.2448
1.7694,9.059,-1.8862,1.2418,3.9604,0.39024,1.9512,-0.71197,6.439,1.2418,3.9604,-3.3167,1.9048,-3.873,2.0317,7.7295,3.285,-25.958,12.825,-4.5977,1.8035
3.6651,8.4211,-1.2358,-0.06536,2.6403,-2.8618,0.65041,-3.301,5.1382,-0.06536,2.6403,-3.9801,6.3492,-0.06349,5.8413,10.306,5.2174,0.45089,-1.7778,-1.9704,2.4477
-0.12638,4.5933,-3.187,-2.0261,-0.66007,-7.4146,-1.9512,-5.2427,-0.06504,-2.0261,-0.66007,-6.6335,6.9841,0.57143,3.9365,7.7295,3.285,9.4686,-6.2222,0.0,2.4477
-2.0221,2.0415,-3.187,-2.6797,-1.3201,-5.4634,-2.6016,-1.3592,-2.0163,-2.6797,-1.3201,-5.9701,6.9841,2.4762,1.3968,6.4412,0.70853,-14.364,4.5714,0.0,6.3124
-1.3902,3.9553,0.06504,0.58824,-3.9604,-0.91057,-1.9512,3.8188,0.58537,0.58824,-3.9604,-1.99,8.8889,8.8254,0.7619,9.6618,1.9968,-8.5668,7.1111,4.5977,7.6006
-3.9179,1.4035,-2.5366,-2.0261,-7.2607,-2.2114,-7.8049,1.2298,-2.6667,-2.0261,-7.2607,-5.9701,4.4444,10.095,-3.6825,9.6618,0.70853,-9.2109,0.7619,2.6273,1.8035
4.297,3.9553,2.0163,1.2418,1.9802,0.39024,-5.2033,3.8188,-0.71545,1.2418,1.9802,-3.3167,7.619,13.27,3.3016,14.171,7.1498,6.8921,4.5714,7.8818,9.533
1.1374,-3.0622,-4.4878,-5.2941,-2.6403,-6.7642,-9.1057,-2.6537,-4.6179,-5.2941,-2.6403,-9.2869,-1.2698,1.8413,-0.50794,3.2206,-1.2238,-2.7697,-0.50794,1.3136,4.38
-6.4455,-10.08,-10.992,-9.8693,-7.2607,-13.268,-13.008,-5.89,-5.2683,-9.8693,-7.2607,-14.594,-10.159,-7.0476,-7.4921,-6.4412,-10.886,-2.1256,0.7619,-5.9113,3.0918
-10.237,-10.718,-11.642,-9.8693,-7.2607,-13.268,-11.057,-5.89,-3.3171,-9.8693,-7.2607,-11.94,-14.603,-10.857,-10.667,-9.6618,-13.462,-8.5668,-2.4127,-11.166,0.5153
-13.397,-10.08,-10.992,-9.2157,-3.9604,-10.667,-8.4553,-6.5372,-3.3171,-9.2157,-3.9604,-7.9602,-18.413,-11.492,-12.571,-10.95,-13.462,-12.432,-1.7778,-14.45,-3.9936
-10.869,-4.9761,-5.1382,-0.06536,1.9802,-3.5122,-0.65041,2.5243,-0.71545,-0.06536,1.9802,0.0,-17.143,-9.5873,-10.032,-6.4412,-8.3092,13.977,3.9365,-12.479,-1.4171
-6.4455,-3.0622,-0.58537,4.5098,3.3003,1.6911,5.8537,7.055,1.2358,4.5098,3.3003,4.6434,-18.413,-12.762,-7.4921,-7.0853,-6.3768,-2.7697,0.7619,-12.479,0.5153
11.248,9.697,11.122,17.582001,15.182,16.65,20.813,18.058001,15.545,17.582001,15.182,19.9,-6.3492,-9.5873,5.2063,1.9324,2.6409,5.6039,6.4762,4.5977,8.2448
6.1927,4.5933,5.2683,11.699,13.861,12.748,14.959,8.3495,10.992,11.699,13.861,15.257,-5.0794,-12.762,3.3016,-0.64412,-0.57971,17.841999,5.8413,5.2545,3.7359
1.1374,2.6794,3.9675,1.2418,11.881,4.9431,7.1545,-2.6537,7.7398,1.2418,11.881,8.6235,-2.5397,-8.9524,2.0317,1.9324,1.3527,-13.076,7.1111,-0.65681,2.4477
4.9289,13.525,13.073,4.5098,14.521,6.2439,11.707,1.2298,12.943,4.5098,14.521,11.94,6.9841,0.57143,8.381,12.238,11.014,-3.4138,10.921,7.225,8.2448
-1.3902,15.439,13.073,2.549,9.2409,1.6911,11.707,-0.06472,8.3902,2.549,9.2409,8.6235,10.159,5.0159,6.4762,14.815,14.235,1.095,4.5714,5.2545,7.6006
-0.75829,13.525,10.472,1.2418,3.3003,0.39024,12.358,-0.71197,7.7398,1.2418,3.3003,6.6335,13.968,9.4603,5.8413,14.815,14.235,3.6715,8.381,6.5681,6.3124
2.4013,6.5072,3.9675,-2.0261,0.66007,-2.2114,6.5041,-5.2427,3.8374,-2.0261,0.66007,1.3267,12.063,6.2857,5.2063,7.7295,7.1498,13.977,2.0317,6.5681,2.4477
15.039,7.7831,9.8211,3.2026,9.2409,5.5935,10.407,2.5243,10.341,3.2026,9.2409,6.6335,17.778,10.095,14.73,8.3736,11.014,10.757,6.4762,11.823,8.2448
15.671,7.7831,12.423,1.8954,6.6007,8.1951,9.1057,5.7605,7.0894,1.8954,6.6007,7.2968,13.968,6.2857,15.365,4.5089,11.014,11.401,7.1111,9.8522,5.6683
7.4566,7.1451,8.5203,1.2418,3.9604,5.5935,5.2033,5.1133,3.8374,1.2418,3.9604,4.6434,6.3492,1.8413,7.746,0.0,6.5056,6.248,3.9365,5.9113,3.7359
0.50553,3.9553,0.06504,-2.0261,1.9802,1.6911,0.65041,1.877,-0.71545,-2.0261,1.9802,0.66335,-3.1746,-1.9683,-1.7778,-4.5089,-1.2238,-25.313999,-1.1429,-1.3136,-2.0612
-6.4455,-4.9761,-7.7398,-7.2549,-5.2805,-4.1626,-5.8537,-3.9482,-10.472,-7.2549,-5.2805,-4.6434,-10.794,-6.4127,-9.3968,-9.0177,-8.3092,-24.025999,-8.127,-7.225,-8.5024
-8.9731,-6.89,-9.0407,-5.2941,-8.5809,-4.813,-5.8537,-1.3592,-10.472,-5.2941,-8.5809,-3.9801,-13.333,-8.3175,-11.937,-8.3736,-9.5974,-4.058,-8.127,-7.225,-6.57
-5.1817,3.9553,0.06504,5.817,0.0,5.5935,4.5528,7.7023,-3.9675,5.817,0.0,7.2968,-4.4444,1.8413,-4.3175,3.2206,0.70853,21.063,-4.9524,-0.65681,3.0918
-6.4455,3.3174,-1.2358,6.4706,0.66007,7.5447,2.6016,7.7023,-7.2195,6.4706,0.66007,7.9602,-2.5397,3.1111,-4.9524,3.8647,1.9968,25.572001,-5.5873,-3.2841,6.3124
-6.4455,-2.4242,-6.439,7.1242,0.66007,6.2439,-1.3008,8.3495,-6.5691,7.1242,0.66007,3.9801,-3.8095,0.57143,-7.4921,-1.9324,-3.1562,10.113,-4.3175,-5.9113,2.4477
-3.9179,-4.9761,-6.439,7.1242,2.6403,7.5447,1.9512,7.7023,-3.9675,7.1242,2.6403,4.6434,-1.9048,1.2063,-4.9524,-3.2206,-4.4444,0.45089,-4.3175,-5.9113,-2.0612
-4.5498,-6.89,-3.8374,4.5098,1.9802,5.5935,0.65041,4.466,-5.2683,4.5098,1.9802,2.6534,-1.2698,-1.3333,-4.3175,-4.5089,-5.0886,2.3833,-3.0476,-4.5977,-5.2818
-3.9179,-6.252,-1.8862,2.549,0.66007,6.2439,-2.6016,5.1133,-4.6179,2.549,0.66007,1.3267,-4.4444,-5.1429,-5.5873,-4.5089,-5.0886,-17.584999,-10.032,-5.2545,-4.6377
1.1374,-4.3381,-2.5366,4.5098,-2.6403,9.4959,-1.9512,8.9968,-3.3171,4.5098,-2.6403,1.3267,-3.8095,-3.2381,-4.3175,-1.9324,-3.1562,-24.67,-11.302,-2.6273,-3.3494
7.4566,1.4035,0.71545,11.046,3.9604,13.398,4.5528,12.88,7.0894,11.046,3.9604,5.3068,3.1746,1.8413,3.9365,4.5089,2.6409,18.486,3.9365,12.479,5.0242
7.4566,3.3174,2.6667,11.046,9.2409,11.447,5.8537,13.528,12.943,11.046,9.2409,4.6434,4.4444,-0.69841,5.8413,5.153,2.6409,36.521999,11.556,14.45,11.465
3.6651,2.6794,2.6667,3.8562,9.901,4.2927,3.252,7.055,13.593,3.8562,9.901,-0.66335,-0.63492,-7.6825,2.0317,0.0,-0.57971,25.572001,12.825,9.1954,1.8035
-3.9179,-1.7863,-1.2358,-5.9477,1.3201,-6.1138,-3.252,-2.0065,8.3902,-5.9477,1.3201,-9.9502,-6.3492,-15.302,-4.3175,-5.153,-5.0886,6.8921,9.0159,2.6273,-6.57
-7.0774,-1.7863,-3.8374,-5.9477,-3.9604,-9.3659,-3.9024,-3.301,10.341,-5.9477,-3.9604,-11.94,-9.5238,-15.937,-9.3968,-6.4412,-7.0209,-3.4138,10.286,-2.6273,-4.6377
-7.7093,0.76555,-3.187,-5.9477,1.3201,-6.7642,0.65041,-5.2427,16.195,-5.9477,1.3201,-7.2968,-10.794,-15.937,-11.302,-7.0853,-7.6651,-30.466999,17.905001,-8.5386,-2.7053
3.6651,8.4211,7.2195,-3.9869,5.9406,1.6911,9.1057,-1.3592,15.545,-3.9869,5.9406,3.3167,-5.0794,-11.492,-2.4127,-1.9324,0.06441,-51.723,13.46,-6.5681,-1.4171
6.1927,10.973,15.024,-3.9869,4.6205,2.3415,9.7561,-1.3592,14.894,-3.9869,4.6205,5.9701,-2.5397,-7.0476,1.3968,2.5765,5.8615,-7.9227,0.12698,-1.3136,3.0918
-3.2859,7.1451,10.472,-10.523,-1.3201,-7.4146,1.3008,-9.1262,10.992,-10.523,-1.3201,-1.99,-3.8095,-4.5079,-2.4127,2.5765,4.5733,30.725,-1.1429,-1.3136,5.0242
-7.7093,2.0415,1.3659,-14.444,-3.3003,-12.618,-5.2033,-11.068,4.4878,-14.444,-3.3003,-8.6235,-4.4444,-5.7778,-4.3175,-3.8647,0.06441,24.927999,2.6667,-3.2841,-3.9936
-1.3902,2.0415,3.3171,-7.9085,1.9802,-4.1626,-0.65041,-2.0065,7.0894,-7.9085,1.9802,-1.99,1.2698,-0.06349,0.12698,-1.2882,1.3527,25.572001,5.2063,4.5977,1.8035
-3.9179,-6.252,-0.58537,-5.9477,3.9604,-0.91057,-1.3008,-0.06472,6.439,-5.9477,3.9604,-1.3267,-3.1746,-2.6032,-6.2222,-7.7295,-5.7327,0.45089,0.7619,0.0,-2.0612
-3.9179,-13.27,-5.1382,-5.2941,0.66007,-0.91057,-6.5041,-1.3592,1.2358,-5.2941,0.66007,-3.9801,-5.0794,-5.7778,-10.667,-13.527,-11.53,-29.179001,-8.7619,-3.9409,-10.435
5.5608,-5.614,2.6667,1.8954,0.66007,7.5447,0.65041,3.8188,0.58537,1.8954,0.66007,3.9801,6.9841,3.746,0.7619,-5.7971,-2.5121,-5.9903,-2.4127,6.5681,-3.3494
3.0332,-4.9761,2.0163,-0.06536,-1.3201,5.5935,0.0,1.2298,-0.06504,-0.06536,-1.3201,3.3167,6.9841,-1.9683,2.0317,-10.95,-3.8003,15.266,-10.667,7.225,-11.723
6.8246,-5.614,2.6667,1.2418,0.66007,8.1951,2.6016,4.466,4.4878,1.2418,0.66007,5.9701,3.1746,-8.3175,2.6667,-17.391001,-7.0209,8.1804,-10.032,2.6273,-20.097
8.7204,-1.7863,4.6179,7.1242,8.5809,13.398,8.4553,5.7605,8.3902,7.1242,8.5809,12.604,2.5397,-8.3175,3.9365,-16.103001,-5.7327,22.995001,-10.667,3.9409,-18.164
8.0885,7.1451,7.2195,15.621,19.802,19.902,16.26,12.88,14.894,15.621,19.802,19.9,5.0794,-3.2381,5.8413,-8.3736,0.06441,15.266,-1.1429,7.225,-10.435
-5.1817,-1.7863,-5.1382,9.7386,15.842,7.5447,6.5041,2.5243,11.642,9.7386,15.842,7.9602,-3.8095,-8.9524,-4.3175,-12.238,-7.0209,-9.8551,-4.3175,-5.2545,-11.723
-11.501,-11.994,-15.545,-3.9869,3.3003,-7.4146,-5.8537,-12.362,3.8374,-3.9869,3.3003,-5.3068,-10.159,-17.205999,-10.667,-18.68,-13.462,-20.160999,-4.3175,-14.45,-18.808001
-1.3902,-7.5279,-10.992,-3.3333,3.3003,-4.813,-3.252,-9.7735,7.0894,-3.3333,3.3003,-1.3267,-1.2698,-14.032,-2.4127,-12.882,-7.6651,-10.499,5.8413,-3.9409,-8.5024
1.1374,-4.3381,-9.0407,-0.71895,7.2607,-4.1626,-1.3008,-8.479,11.642,-0.71895,7.2607,0.0,2.5397,-12.127,0.7619,-10.306,-5.7327,8.1804,2.6667,1.3136,-5.2818
-8.9731,-8.8038,-17.496,-7.9085,-1.9802,-12.618,-9.7561,-18.834999,7.7398,-7.9085,-1.9802,-9.9502,-2.5397,-11.492,-5.5873,-9.6618,-8.9533,3.6715,4.5714,-4.5977,-4.6377
-8.9731,-7.5279,-17.496,-9.8693,-4.6205,-13.268,-12.358,-18.834999,5.7886,-9.8693,-4.6205,-12.604,0.0,-2.6032,-3.6825,-1.2882,-5.0886,3.6715,12.825,-2.6273,6.3124
-4.5498,-4.9761,-14.244,-9.8693,0.0,-11.317,-11.707,-12.362,6.439,-9.8693,0.0,-11.94,1.9048,4.381,0.12698,4.5089,-2.5121,-21.448999,13.46,0.0,9.533
-5.1817,-4.3381,-10.992,-5.2941,0.0,-8.065,-10.407,-6.5372,7.0894,-5.2941,0.0,-11.94,0.0,6.2857,-1.7778,6.4412,-2.5121,-10.499,11.556,-0.65681,14.042
-10.869,-7.5279,-12.293,-7.9085,-9.2409,-12.618,-14.959,-7.8317,1.2358,-7.9085,-9.2409,-18.573999,-6.3492,3.1111,-8.127,2.5765,-5.7327,-18.872999,5.2063,-9.1954,9.533
-8.3412,-6.252,-10.992,-11.83,-15.182,-15.87,-14.959,-7.8317,-2.0163,-11.83,-15.182,-21.891001,-5.7143,3.746,-6.8571,3.2206,-5.0886,-24.67,2.6667,-10.509,8.2448
-4.5498,-0.51037,-4.4878,-10.523,-12.541,-13.919,-9.1057,-3.9482,-1.3659,-10.523,-12.541,-17.91,0.0,8.8254,-1.1429,7.7295,-0.57971,-1.4815,2.0317,-4.5977,10.177
-3.2859,0.76555,-4.4878,-9.8693,-9.2409,-14.569,-7.1545,-3.301,-0.71545,-9.8693,-9.2409,-16.584,3.1746,10.73,0.12698,7.0853,-0.57971,18.486,1.3968,0.0,6.3124
-2.0221,0.12759,-5.7886,-10.523,-9.2409,-13.268,-4.5528,-3.301,0.58537,-10.523,-9.2409,-15.92,3.8095,8.1905,-1.1429,5.153,-1.868,21.707001,0.12698,1.3136,4.38
-3.2859,-4.9761,-10.341,-13.791,-9.2409,-13.268,-7.8049,-3.301,-0.06504,-13.791,-9.2409,-19.237,0.0,5.0159,-3.6825,2.5765,-4.4444,-13.72,-0.50794,-3.9409,3.0918
6.8246,0.76555,-1.8862,-6.6013,0.66007,-2.2114,-1.3008,3.8188,5.7886,-6.6013,0.66007,-10.614,8.254,13.27,6.4762,10.95,5.2174,-20.160999,2.0317,1.9704,7.6006
4.297,3.3174,2.0163,-1.3725,1.9802,1.0407,2.6016,3.1715,8.3902,-1.3725,1.9802,-4.6434,11.429,14.54,8.381,12.238,8.438,24.927999,-3.0476,7.8818,6.3124
0.50553,-1.1483,-0.58537,-3.9869,-1.9802,-2.2114,0.65041,0.58252,6.439,-3.9869,-1.9802,-5.9701,5.0794,5.6508,4.5714,3.8647,3.285,26.216,-6.8571,3.2841,-1.4171
3.0332,-1.1483,2.0163,-7.2549,0.0,-1.561,1.3008,-2.0065,5.1382,-7.2549,0.0,-3.3167,3.1746,-0.69841,7.1111,-1.2882,2.6409,9.4686,-7.4921,1.9704,-7.8583
3.6651,1.4035,6.5691,-8.5621,2.6403,-0.26016,4.5528,-4.5955,7.0894,-8.5621,2.6403,1.99,1.2698,-3.2381,7.1111,-3.2206,2.6409,-3.4138,-0.50794,0.0,-9.1465
8.0885,8.4211,14.374,-3.3333,3.3003,4.9431,12.358,-1.3592,12.943,-3.3333,3.3003,9.9502,0.0,-1.9683,9.0159,0.0,5.2174,-5.9903,9.0159,1.3136,-3.9936
8.0885,9.697,16.325001,-1.3725,5.2805,6.8943,13.659,-2.6537,14.894,-1.3725,5.2805,13.93,-1.2698,-0.06349,8.381,1.2882,6.5056,13.333,7.746,3.9409,-0.12882
2.4013,2.6794,11.122,-4.6405,4.6205,4.2927,9.1057,-9.1262,11.642,-4.6405,4.6205,12.604,-5.0794,-2.6032,2.6667,-2.5765,1.3527,12.045,3.9365,1.3136,-0.77295
8.0885,4.5933,16.325001,-0.71895,9.2409,10.797,13.008,-3.9482,13.593,-0.71895,9.2409,19.237,0.0,1.8413,5.2063,0.64412,3.9291,-10.499,9.0159,3.2841,5.0242
8.0885,3.3174,14.374,-3.9869,2.6403,9.4959,9.7561,-3.301,10.992,-3.9869,2.6403,17.247,2.5397,-2.6032,5.2063,-0.64412,3.9291,-25.958,9.6508,2.6273,3.7359
-2.654,0.76555,4.6179,-11.176,-5.2805,-1.561,1.9512,-10.421,3.8374,-11.176,-5.2805,7.9602,0.63492,-8.3175,1.3968,-1.9324,0.06441,4.9597,4.5714,1.3136,0.5153
-6.4455,1.4035,0.06504,-9.8693,-5.2805,-7.4146,-1.9512,-11.068,2.5366,-9.8693,-5.2805,1.99,0.63492,-7.6825,0.12698,-1.2882,-1.868,-7.9227,12.19,-4.5977,-1.4171
-3.9179,-0.51037,-1.2358,-9.8693,-7.9208,-8.065,-4.5528,-7.8317,-0.06504,-9.8693,-7.9208,0.0,1.9048,-5.7778,-0.50794,-1.9324,-2.5121,-20.160999,-4.9524,-9.1954,-5.2818
-7.7093,-2.4242,-3.187,-9.8693,-9.2409,-10.016,-6.5041,-7.8317,-2.0163,-9.8693,-9.2409,-2.6534,1.2698,-3.2381,-3.0476,0.64412,-3.1562,5.6039,-9.3968,-5.2545,2.4477
-11.501,-8.8038,-9.0407,-16.405001,-16.502001,-16.52,-13.008,-13.01,-6.5691,-16.405001,-16.502001,-11.277,-1.2698,-0.06349,-6.8571,0.64412,-5.0886,0.45089,-1.7778,-6.5681,6.3124
-0.12638,-2.4242,-3.8374,-13.137,-15.182,-13.268,-12.358,-6.5372,-3.3171,-13.137,-15.182,-11.94,5.7143,11.365,1.3968,10.306,3.285,-1.4815,5.2063,1.9704,11.465
3.0332,-1.1483,-4.4878,-11.83,-13.201,-12.618,-15.61,-2.6537,-5.2683,-11.83,-13.201,-13.93,8.254,15.175,2.6667,12.882,5.2174,-6.6345,3.9365,1.3136,10.821
-3.9179,-5.614,-12.943,-15.752,-15.182,-17.171,-20.813,-5.2427,-9.8211,-15.752,-15.182,-19.9,4.4444,11.365,-3.0476,9.0177,0.70853,-6.6345,-2.4127,-5.2545,4.38
-4.5498,-3.0622,-12.943,-13.791,-13.201,-17.171,-15.61,-6.5372,-5.9187,-13.791,-13.201,-17.91,5.0794,9.4603,-2.4127,7.0853,1.9968,9.4686,-2.4127,-3.2841,0.5153
-3.9179,-1.7863,-7.7398,-11.83,-13.201,-13.919,-11.057,-9.1262,-6.5691,-11.83,-13.201,-13.267,3.8095,6.2857,-0.50794,3.2206,2.6409,13.333,-8.127,-1.3136,-6.57
1.1374,-0.51037,0.06504,-6.6013,-7.9208,-7.4146,-5.8537,-6.5372,-4.6179,-6.6013,-7.9208,-5.9701,3.8095,5.0159,1.3968,3.2206,5.2174,-15.008,-10.667,0.0,-7.8583
6.1927,2.6794,7.2195,-2.0261,0.66007,-2.8618,0.0,-2.6537,2.5366,-2.0261,0.66007,0.0,5.0794,6.2857,4.5714,6.4412,9.0821,4.9597,-9.3968,6.5681,2.4477
5.5608,2.6794,7.2195,-3.9869,-2.6403,-3.5122,1.3008,-3.301,2.5366,-3.9869,-2.6403,-1.3267,5.7143,5.6508,6.4762,5.153,9.0821,18.486,-7.4921,10.509,0.5153
4.297,-3.0622,0.06504,-6.6013,-7.9208,-4.813,-1.9512,-4.5955,-3.3171,-6.6013,-7.9208,-4.6434,3.8095,0.57143,5.8413,-1.2882,4.5733,0.45089,-4.3175,9.8522,-6.57
10.616,2.6794,5.9187,5.1634,6.6007,6.8943,8.4553,4.466,7.7398,5.1634,6.6007,6.6335,8.254,3.1111,9.6508,-0.64412,5.8615,-27.889999,5.8413,9.1954,-7.8583
2.4013,2.0415,9.8211,7.7778,14.521,10.146,12.358,-0.06472,9.0407,7.7778,14.521,12.604,5.7143,2.4762,3.9365,-4.5089,2.6409,-8.5668,-0.50794,2.6273,-9.7907
-3.9179,-1.7863,9.1707,1.8954,10.561,5.5935,7.8049,-8.479,5.7886,1.8954,10.561,9.2869,0.0,-0.69841,-2.4127,-8.3736,-1.2238,-4.7021,-8.7619,-5.2545,-12.367
1.7694,1.4035,10.472,-2.0261,9.2409,4.2927,7.1545,-7.1845,8.3902,-2.0261,9.2409,7.9602,3.1746,2.4762,2.6667,-5.153,1.9968,-19.517,-1.7778,-7.225,-13.011
15.039,7.1451,15.024,2.549,9.2409,11.447,11.707,1.2298,10.992,2.549,9.2409,13.267,12.063,10.095,12.825,4.5089,9.0821,-22.093,-4.3175,3.2841,5.0242
9.9842,-3.7002,2.6667,0.58824,0.66007,5.5935,1.9512,-2.6537,-2.0163,0.58824,0.66007,5.3068,6.3492,8.1905,7.746,-1.2882,1.3527,-0.83736,-5.5873,2.6273,3.7359
3.6651,-12.632,-7.0894,-3.3333,-7.9208,-0.26016,-3.252,-2.0065,-7.8699,-3.3333,-7.9208,-1.3267,-2.5397,1.8413,0.12698,-8.3736,-5.7327,12.689,-0.50794,-1.9704,-6.57
0.50553,-8.8038,-5.7886,3.8562,-0.66007,2.3415,0.65041,5.7605,-1.3659,3.8562,-0.66007,1.3267,-5.7143,-0.06349,-3.6825,-7.0853,-5.7327,12.689,1.3968,-3.2841,-7.8583
-15.924,-11.994,-12.293,-0.71895,-1.3201,-4.1626,-4.5528,-2.0065,-6.5691,-0.71895,-1.3201,-3.9801,-12.698,-5.7778,-16.381001,-10.95,-12.174,20.419001,-12.571,-9.8522,-9.7907
-23.507,-11.994,-18.146,-3.3333,-1.3201,-6.1138,-6.5041,-4.5955,-9.1707,-3.3333,-1.3201,-7.2968,-16.507999,-8.3175,-24.635,-12.238,-16.683001,-2.7697,-14.476,-17.077,-9.7907
-19.084,-6.89,-14.894,3.8562,3.3003,-0.91057,-0.65041,2.5243,-3.3171,3.8562,3.3003,-2.6534,-13.333,-3.873,-22.094999,-6.4412,-12.818,-22.738001,-4.3175,-15.764,-3.3494
