C3,C4,Cz,F1,F2,F3,F4,F7,F8,Fp1,Fp2,Fz,O1,O2,P3,P4,Pz,T3,T4,T5,T6
5.5975,6.7302,5.7605,7.6923,8.7582,13.269,10.564,8.6312,6.6667,7.6923,8.7582,15.469,2.7804,3.746,1.0111,8.5897,4.7436,-4.8485,5.6872,-1.9417,2.7432
2.7673,7.6825,0.90615,11.538,10.719,16.153999,12.496,14.428,11.474,11.538,10.719,16.440001,-2.9068,-7.6825,-0.88468,6.6667,-2.9487,3.764,7.5829,1.9417,10.399
-1.0063,2.9206,-2.9773,10.577,11.699,14.231,15.395,10.564,9.5513,10.577,11.699,15.469,-11.438,-11.492,-8.4676,-9.6795,-13.526,9.5056,3.7915,-4.8544,-1.0845
2.7673,1.9683,0.90615,8.6538,9.7386,15.192,13.462,11.53,9.5513,8.6538,9.7386,15.469,-12.385,-13.397,-8.4676,-17.372,-14.487,7.5917,1.8957,-9.7087,-11.611
7.4843,3.873,5.7605,7.6923,9.7386,15.192,13.462,8.6312,8.5897,7.6923,9.7386,15.469,-14.281,-15.302,-3.7283,-13.526,-9.6795,2.807,1.8957,-4.8544,-8.74
11.258,3.873,7.7023,5.7692,5.817,11.346,6.6989,8.6312,5.7051,5.7692,5.817,9.644,-7.6461,-9.5873,4.8025,-7.7564,-1.0256,8.5486,1.8957,-0.97087,-2.9984
12.201,1.0159,7.7023,1.9231,2.8758,6.5385,-0.06441,6.6989,2.8205,1.9231,2.8758,1.877,10.363,6.6032,13.333,6.6667,12.436,10.463,2.8436,7.767,2.7432
7.4843,-0.88889,3.8188,-4.8077,-4.9673,-3.0769,-6.8277,-1.9968,-2.9487,-4.8077,-4.9673,-7.8317,15.103,14.222,14.281,12.436,18.205,-5.8054,0.0,9.7087,2.7432
7.4843,-2.7937,4.7896,-4.8077,-5.9477,-5.9615,-8.7601,-2.963,-4.8718,-4.8077,-5.9477,-8.8026,9.4155,11.365,13.333,11.474,19.167,-1.0207,-0.94787,10.68,3.7002
7.4843,1.0159,8.6731,-4.8077,-3.0065,-5.9615,-5.8615,0.90177,-2.9487,-4.8077,-3.0065,-6.8608,11.311,11.365,14.281,15.321,20.128,10.463,0.0,13.592,10.399
2.7673,2.9206,6.7314,-3.8462,-3.0065,-7.8846,-3.9291,-1.0306,-2.9487,-3.8462,-3.0065,-6.8608,10.363,7.5556,10.49,14.359,15.321,5.6778,1.8957,10.68,10.399
-3.8365,1.9683,0.90615,-2.8846,-2.0261,-7.8846,-1.9968,-1.9968,-1.0256,-2.8846,-2.0261,-6.8608,6.5719,4.6984,1.9589,3.7821,4.7436,0.89314,1.8957,-0.97087,-1.0845
-5.7233,6.7302,-0.06472,-0.96154,0.91503,-4.0385,2.8341,-2.963,0.89744,-0.96154,0.91503,-2.0065,2.7804,-0.06349,-3.7283,1.859,-1.0256,-0.0638,2.8436,-1.9417,8.4848
-2.8931,12.444,4.7896,1.9231,5.817,4.6154,10.564,-0.06441,0.89744,1.9231,5.817,6.7314,-1.9589,0.88889,-4.6761,2.8205,-3.9103,-4.8485,4.7393,0.97087,12.313
2.7673,12.444,8.6731,1.9231,3.8562,7.5,9.5974,-1.9968,3.7821,1.9231,3.8562,9.644,-0.06319,5.6508,-0.88468,0.89744,-3.9103,-4.8485,5.6872,0.0,2.7432
5.5975,5.7778,5.7605,-2.8846,-2.0261,4.6154,1.868,-6.8277,-2.9487,-2.8846,-2.0261,5.7605,0.88468,1.8413,1.0111,-1.0256,-4.8718,-5.8054,1.8957,1.9417,-0.12759
5.5975,1.9683,0.90615,-7.6923,-9.8693,1.7308,-5.8615,-5.8615,-10.641,-7.6923,-9.8693,-1.0356,-1.9589,-4.8254,5.7504,2.8205,-4.8718,2.807,-1.8957,10.68,14.226
7.4843,-2.7937,-1.0356,-5.7692,-9.8693,-0.19231,-8.7601,-2.963,-13.526,-5.7692,-9.8693,-2.9773,2.7804,2.7937,10.49,2.8205,-1.0256,7.5917,-6.6351,13.592,7.5279
1.8239,-9.4603,-5.89,-4.8077,-9.8693,-1.1538,-11.659,3.8003,-12.564,-4.8077,-9.8693,-4.9191,8.4676,14.222,3.8547,-1.9872,-1.9872,-2.9346,-8.5308,-2.9126,-9.697
-2.8931,-9.4603,-6.8608,-0.96154,-3.9869,-2.1154,-7.7939,1.868,-9.6795,-0.96154,-3.9869,-3.9482,4.6761,8.5079,-2.7804,-2.9487,-4.8718,-6.7624,-5.6872,-4.8544,-4.9123
-1.0063,-5.6508,-3.9482,0.0,-3.0065,-0.19231,-4.8953,2.8341,-5.8333,0.0,-3.0065,-1.0356,-3.8547,-8.6349,1.0111,0.89744,-3.9103,2.807,-3.7915,1.9417,6.571
1.8239,-2.7937,-0.06472,4.8077,2.8758,4.6154,0.90177,7.6651,-3.9103,4.8077,2.8758,3.8188,-5.7504,-5.7778,-2.7804,-1.9872,-5.8333,5.6778,-0.94787,-4.8544,3.7002
-4.7799,-0.88889,-1.0356,9.6154,5.817,2.6923,2.8341,4.7665,-0.0641,9.6154,5.817,4.7896,-6.6983,-1.9683,-10.363,-5.8333,-10.641,-7.7193,0.0,-10.68,-2.9984
-8.5535,1.0159,-3.9482,13.462,11.699,2.6923,7.6651,5.7327,1.859,13.462,11.699,5.7605,-7.6461,-2.9206,-15.103,-7.7564,-13.526,-5.8054,2.8436,-11.65,-3.9553
-3.8365,-0.88889,-5.89,12.5,10.719,3.6538,2.8341,8.6312,1.859,12.5,10.719,3.8188,-5.7504,-1.9683,-13.207,-4.8718,-13.526,0.89314,2.8436,-10.68,1.7863
-0.06289,-2.7937,-2.9773,9.6154,7.7778,2.6923,-1.9968,8.6312,-1.0256,9.6154,7.7778,0.90615,2.7804,5.6508,-4.6761,-1.9872,-5.8333,8.5486,-1.8957,-0.97087,-0.12759
0.8805,-1.8413,-1.0356,7.6923,7.7778,1.7308,-1.9968,6.6989,-1.9872,7.6923,7.7778,0.90615,1.8325,3.746,0.06319,0.89744,0.89744,6.6348,-3.7915,0.97087,-0.12759
4.6541,-0.88889,1.877,8.6538,4.8366,2.6923,-1.9968,7.6651,-1.0256,8.6538,4.8366,0.90615,5.624,3.746,5.7504,9.5513,7.6282,1.8501,-2.8436,5.8252,5.614
0.8805,-0.88889,1.877,4.8077,3.8562,-3.0769,-2.963,-0.06441,-4.8718,4.8077,3.8562,-1.0356,1.8325,0.88889,4.8025,12.436,8.5897,-3.8915,-1.8957,2.9126,15.183
-2.8931,-6.6032,-0.06472,0.96154,-1.0458,-5.0,-6.8277,-0.06441,-11.603,0.96154,-1.0458,-4.9191,4.6761,11.365,4.8025,3.7821,6.6667,3.764,-10.427,4.8544,-5.8692
0.8805,-8.5079,-0.06472,0.0,-0.06536,-4.0385,-6.8277,0.90177,-7.7564,0.0,-0.06536,-4.9191,7.5197,9.4603,6.6983,-2.9487,5.7051,7.5917,-10.427,4.8544,-18.309
1.8239,-5.6508,-1.0356,-6.7308,-3.9869,-5.0,-7.7939,-4.8953,-1.9872,-6.7308,-3.9869,-7.8317,3.7283,-2.9206,5.7504,-1.0256,4.7436,5.6778,-2.8436,-0.97087,-2.9984
7.4843,-4.6984,-0.06472,-7.6923,-6.9281,-1.1538,-3.9291,-1.0306,-6.7949,-7.6923,-6.9281,-4.9191,1.8325,0.88889,6.6983,-1.0256,2.8205,4.7209,-2.8436,2.9126,-0.12759
2.7673,-2.7937,-0.06472,-6.7308,-6.9281,-1.1538,-1.9968,-0.06441,-3.9103,-6.7308,-6.9281,-4.9191,-3.8547,-9.5873,2.9068,-0.0641,-2.9487,1.8501,-3.7915,6.7961,4.6571
5.5975,1.0159,2.8479,-0.96154,-2.0261,1.7308,2.8341,3.8003,-2.9487,-0.96154,-2.0261,0.90615,-5.7504,-7.6825,2.9068,-4.8718,-3.9103,6.6348,-0.94787,9.7087,-2.9984
-1.9497,0.06349,-0.06472,-0.96154,-3.9869,0.76923,-0.06441,8.6312,-1.0256,-0.96154,-3.9869,-1.0356,-8.594,-6.7302,-7.5197,-13.526,-9.6795,-5.8054,-0.94787,-13.592,-16.396
-5.7233,1.0159,-1.0356,-7.6923,-6.9281,-5.9615,-1.9968,-1.9968,-3.9103,-7.6923,-6.9281,-4.9191,-6.6983,-8.6349,-10.363,-10.641,-8.7179,-5.8054,0.94787,-14.563,-4.9123
-1.9497,1.0159,1.877,-6.7308,-8.8889,-3.0769,-5.8615,-1.0306,-5.8333,-6.7308,-8.8889,-2.9773,-6.6983,-5.7778,-4.6761,-3.9103,-1.9872,0.89314,0.94787,-5.8252,0.82935
4.6541,1.9683,5.7605,-2.8846,-7.9085,3.6538,-3.9291,5.7327,-7.7564,-2.8846,-7.9085,1.877,-2.9068,-0.06349,1.9589,-0.0641,3.7821,6.6348,-1.8957,1.9417,0.82935
6.5409,1.0159,7.7023,-4.8077,-8.8889,2.6923,-5.8615,1.868,-4.8718,-4.8077,-8.8889,1.877,2.7804,-1.9683,8.594,6.6667,8.5897,6.6348,-0.94787,9.7087,2.7432
8.4277,2.9206,8.6731,-5.7692,-5.9477,1.7308,-5.8615,1.868,-3.9103,-5.7692,-5.9477,0.90615,5.624,-1.9683,7.6461,10.513,9.5513,1.8501,2.8436,4.8544,18.054001
3.7107,-0.88889,2.8479,-5.7692,-6.9281,-1.1538,-6.8277,-0.06441,-6.7949,-5.7692,-6.9281,-2.0065,1.8325,3.746,3.8547,1.859,4.7436,-1.9777,-1.8957,4.8544,-2.0415
-2.8931,-5.6508,-2.0065,-4.8077,-6.9281,-0.19231,-7.7939,1.868,-7.7564,-4.8077,-6.9281,-1.0356,1.8325,8.5079,0.06319,-2.9487,-0.0641,2.807,-5.6872,1.9417,-15.439
-2.8931,-2.7937,-2.0065,-1.9231,-3.9869,1.7308,-1.9968,-0.06441,-5.8333,-1.9231,-3.9869,1.877,2.7804,0.88889,0.06319,0.89744,-1.0256,8.5486,-0.94787,0.97087,-2.9984
0.8805,-0.88889,-2.0065,0.96154,-3.9869,5.5769,0.90177,3.8003,-1.9872,0.96154,-3.9869,5.7605,3.7283,-4.8254,4.8025,0.89744,-1.9872,7.5917,0.94787,11.65,4.6571
4.6541,-0.88889,-2.0065,0.96154,-1.0458,4.6154,3.8003,3.8003,-2.9487,0.96154,-1.0458,4.7896,7.5197,1.8413,8.594,-1.0256,-1.0256,6.6348,0.0,15.534,-2.0415
2.7673,1.0159,-0.06472,-0.96154,-2.0261,1.7308,0.90177,1.868,-0.0641,-0.96154,-2.0261,1.877,1.8325,-1.9683,2.9068,0.89744,0.89744,0.89314,2.8436,0.0,2.7432
3.7107,5.7778,4.7896,-3.8462,-3.0065,0.76923,1.868,0.90177,-1.9872,-3.8462,-3.0065,0.90615,0.88468,0.88889,3.8547,5.7051,5.7051,-2.9346,0.94787,0.0,8.4848
10.314,8.6349,9.644,-3.8462,-3.0065,2.6923,1.868,3.8003,-1.0256,-3.8462,-3.0065,2.8479,12.259,10.413,12.385,9.5513,14.359,-0.0638,1.8957,12.621,4.6571
4.6541,3.873,4.7896,-2.8846,-2.0261,-2.1154,0.90177,-1.9968,-1.0256,-2.8846,-2.0261,-0.06472,1.8325,2.7937,6.6983,4.7436,10.513,4.7209,1.8957,7.767,-2.0415
-4.7799,-0.88889,-1.0356,-5.7692,-6.9281,-5.9615,-2.963,-3.9291,-4.8718,-5.7692,-6.9281,-4.9191,2.7804,9.4603,0.06319,3.7821,5.7051,3.764,-2.8436,-5.8252,-2.9984
-2.8931,0.06349,0.90615,-4.8077,-4.9673,-4.0385,-1.9968,-2.963,-4.8718,-4.8077,-4.9673,-2.0065,4.6761,4.6984,-0.88468,4.7436,6.6667,1.8501,-2.8436,-6.7961,-0.12759
2.7673,8.6349,7.7023,-5.7692,-4.9673,-0.19231,2.8341,-3.9291,-4.8718,-5.7692,-4.9673,0.90615,1.8325,-8.6349,7.6461,10.513,11.474,-1.9777,0.94787,7.767,12.313
1.8239,7.6825,4.7896,-4.8077,-3.0065,-1.1538,2.8341,-5.8615,-1.0256,-4.8077,-3.0065,0.90615,0.88468,0.88889,6.6983,6.6667,7.6282,-1.9777,3.7915,5.8252,7.5279
-1.9497,3.873,-1.0356,-2.8846,-2.0261,-0.19231,2.8341,-2.963,2.8205,-2.8846,-2.0261,0.90615,0.88468,4.6984,1.9589,-1.0256,-1.0256,-4.8485,4.7393,1.9417,1.7863
3.7107,4.8254,-0.06472,1.9231,1.8954,6.5385,7.6651,2.8341,3.7821,1.9231,1.8954,5.7605,3.7283,-1.0159,1.9589,1.859,-1.9872,-0.0638,6.6351,0.97087,10.399
0.8805,-1.8413,-4.9191,-0.96154,-2.0261,-0.19231,-1.0306,-1.9968,-1.9872,-0.96154,-2.0261,-0.06472,0.88468,-0.06349,2.9068,-3.9103,-7.7564,2.807,-1.8957,10.68,-2.0415
-3.8365,-4.6984,-6.8608,-3.8462,-4.9673,-5.9615,-6.8277,-2.963,-6.7949,-3.8462,-4.9673,-5.89,0.88468,0.88889,1.0111,-1.9872,-8.7179,3.764,-3.7915,10.68,-1.0845
-6.6667,-2.7937,-5.89,-3.8462,-5.9477,-8.8462,-7.7939,-4.8953,-6.7949,-3.8462,-5.9477,-8.8026,3.7283,3.746,-1.8325,1.859,-5.8333,-0.0638,-1.8957,-0.97087,0.82935
-6.6667,-1.8413,-6.8608,-2.8846,-5.9477,-8.8462,-5.8615,-2.963,-6.7949,-2.8846,-5.9477,-10.744,2.7804,-0.06349,-1.8325,2.8205,-3.9103,-0.0638,-0.94787,0.0,2.7432
-8.5535,-5.6508,-8.8026,-0.96154,-3.0065,-8.8462,-7.7939,-1.0306,-5.8333,-0.96154,-3.0065,-10.744,-1.9589,-3.873,-6.5719,-1.0256,-4.8718,-1.0207,-0.94787,-4.8544,3.7002
-3.8365,-3.746,-3.9482,0.96154,-0.06536,-1.1538,-5.8615,4.7665,-1.9872,0.96154,-0.06536,-3.9482,-5.7504,-1.0159,-4.6761,-1.0256,-1.9872,-1.0207,0.0,-4.8544,2.7432
2.7673,-3.746,0.90615,3.8462,1.8954,3.6538,-1.9968,4.7665,-2.9487,3.8462,1.8954,1.877,-8.594,-8.6349,-0.88468,-1.0256,-0.0641,4.7209,-3.7915,7.767,-4.9123
-0.06289,-2.7937,0.90615,3.8462,1.8954,2.6923,0.90177,-0.06441,-1.0256,3.8462,1.8954,3.8188,-1.0111,-1.9683,-0.88468,1.859,-0.0641,-1.9777,-3.7915,1.9417,-3.9553
0.8805,1.9683,1.877,7.6923,6.7974,5.5769,8.6312,1.868,0.89744,7.6923,6.7974,7.7023,3.7283,8.5079,-4.6761,1.859,0.89744,-3.8915,0.0,-13.592,-1.0845
1.8239,10.54,8.6731,11.538,11.699,10.385,14.428,5.7327,7.6282,11.538,11.699,13.528,7.5197,14.222,-3.7283,6.6667,5.7051,0.89314,6.6351,-16.504999,8.4848
3.7107,13.397,13.528,12.5,14.641,11.346,17.327,6.6989,8.5897,12.5,14.641,17.410999,4.6761,9.4603,-0.88468,5.7051,5.7051,1.8501,4.7393,-5.8252,1.7863
6.5409,12.444,13.528,10.577,12.68,10.385,16.361,2.8341,7.6282,10.577,12.68,15.469,5.624,7.5556,3.8547,4.7436,6.6667,-3.8915,1.8957,0.0,-6.8262
8.4277,10.54,11.586,10.577,11.699,10.385,11.53,2.8341,5.7051,10.577,11.699,13.528,-1.9589,4.6984,5.7504,4.7436,8.5897,-4.8485,1.8957,5.8252,2.7432
12.201,9.5873,12.557,3.8462,2.8758,10.385,4.7665,3.8003,-0.0641,3.8462,2.8758,9.644,-1.9589,-1.9683,11.438,8.5897,12.436,8.5486,0.94787,10.68,8.4848
11.258,5.7778,11.586,3.8462,3.8562,3.6538,1.868,-2.963,-2.9487,3.8462,3.8562,3.8188,7.5197,1.8413,15.229,9.5513,15.321,12.376,0.94787,16.504999,4.6571
8.4277,0.06349,5.7605,7.6923,6.7974,-1.1538,-1.0306,-3.9291,-1.0256,7.6923,6.7974,0.90615,11.311,9.4603,13.333,3.7821,9.5513,-3.8915,-2.8436,14.563,-5.8692
3.7107,-5.6508,-2.9773,9.6154,9.7386,-2.1154,-1.0306,-1.9968,-1.0256,9.6154,9.7386,-1.0356,6.5719,7.5556,4.8025,-1.0256,-0.0641,-5.8054,-2.8436,0.97087,-2.0415
-1.9497,-7.5556,-8.8026,14.423,12.68,-1.1538,-1.0306,0.90177,1.859,14.423,12.68,-0.06472,0.88468,-0.06349,-0.88468,-2.9487,-7.7564,-3.8915,-0.94787,0.97087,3.7002
-6.6667,-1.8413,-6.8608,15.385,12.68,2.6923,3.8003,8.6312,1.859,15.385,12.68,2.8479,-3.8547,-2.9206,-6.5719,-3.9103,-10.641,-1.0207,0.94787,-1.9417,2.7432
-6.6667,3.873,-2.0065,9.6154,9.7386,1.7308,4.7665,2.8341,3.7821,9.6154,9.7386,3.8188,-4.8025,-1.9683,-9.4155,-1.9872,-10.641,-1.0207,3.7915,-9.7087,3.7002
-0.06289,4.8254,1.877,8.6538,6.7974,6.5385,2.8341,9.5974,3.7821,8.6538,6.7974,5.7605,-1.9589,-1.0159,-2.7804,0.89744,-4.8718,5.6778,4.7393,1.9417,8.4848
0.8805,-1.8413,-0.06472,4.8077,1.8954,2.6923,-1.0306,4.7665,-4.8718,4.8077,1.8954,1.877,-1.0111,-4.8254,1.0111,-0.0641,-1.0256,4.7209,-1.8957,10.68,0.82935
1.8239,-5.6508,-1.0356,-0.96154,-3.0065,-0.19231,-6.8277,1.868,-6.7949,-0.96154,-3.0065,-2.9773,0.88468,0.88889,1.0111,-1.9872,1.859,-0.0638,-5.6872,0.0,-6.8262
6.5409,-1.8413,4.7896,-0.96154,-2.0261,-2.1154,-5.8615,0.90177,-6.7949,-0.96154,-2.0261,-2.9773,3.7283,-0.06349,4.8025,2.8205,8.5897,-1.9777,-4.7393,-2.9126,3.7002
10.314,1.9683,11.586,-6.7308,-6.9281,-3.0769,-5.8615,-3.9291,-6.7949,-6.7308,-6.9281,-2.0065,6.5719,5.6508,11.438,4.7436,15.321,-5.8054,-5.6872,2.9126,-6.8262
17.862,5.7778,18.382,-3.8462,-3.0065,3.6538,1.868,-1.0306,-4.8718,-3.8462,-3.0065,5.7605,6.5719,6.6032,18.073,4.7436,20.128,5.6778,-1.8957,13.592,-10.654
17.862,9.5873,20.323999,4.8077,2.8758,13.269,9.5974,10.564,0.89744,4.8077,2.8758,15.469,12.259,8.5079,16.177,7.6282,19.167,18.118,2.8436,12.621,-2.0415
7.4843,6.7302,12.557,10.577,8.7582,16.153999,12.496,11.53,3.7821,10.577,8.7582,18.382,5.624,1.8413,1.0111,-1.0256,6.6667,4.7209,4.7393,-3.8835,-1.0845
0.8805,7.6825,6.7314,9.6154,5.817,17.115,12.496,7.6651,2.8205,9.6154,5.817,18.382,-11.438,-22.921,-7.5197,-4.8718,-3.9103,0.89314,3.7915,-10.68,14.226
2.7673,13.397,10.615,9.6154,10.719,18.077,19.259001,5.7327,6.6667,9.6154,10.719,22.264999,-12.385,-17.205999,-6.5719,-4.8718,-4.8718,-2.9346,3.7915,-14.563,7.5279
2.7673,8.6349,8.6731,9.6154,8.7582,14.231,14.428,6.6989,7.6282,9.6154,8.7582,17.410999,-4.8025,-1.0159,-3.7283,-7.7564,-3.9103,-2.9346,1.8957,-7.767,-17.351999
8.4277,5.7778,9.644,8.6538,5.817,9.4231,8.6312,7.6651,2.8205,8.6538,5.817,12.557,0.88468,7.5556,5.7504,-1.0256,3.7821,4.7209,1.8957,7.767,-12.568
10.314,1.9683,7.7023,0.96154,-2.0261,2.6923,1.868,1.868,-3.9103,0.96154,-2.0261,3.8188,9.4155,7.5556,10.49,4.7436,8.5897,5.6778,-0.94787,6.7961,-3.9553
7.4843,-2.7937,2.8479,-0.96154,-5.9477,-1.1538,-4.8953,1.868,-4.8718,-0.96154,-5.9477,-2.9773,2.7804,-1.0159,6.6983,3.7821,6.6667,4.7209,-2.8436,-2.9126,3.7002
7.4843,-5.6508,0.90615,0.96154,-4.9673,1.7308,-6.8277,7.6651,-3.9103,0.96154,-4.9673,-2.9773,-2.9068,-1.0159,7.6461,-1.0256,4.7436,9.5056,-4.7393,0.97087,-3.9553
3.7107,-9.4603,-2.9773,0.96154,-4.9673,1.7308,-7.7939,8.6312,-3.9103,0.96154,-4.9673,-2.9773,4.6761,4.6984,4.8025,-4.8718,1.859,4.7209,-6.6351,3.8835,-11.611
-4.7799,-13.27,-11.715,-3.8462,-5.9477,-6.9231,-11.659,0.90177,-5.8333,-3.8462,-5.9477,-9.7735,-0.06319,-4.8254,-1.8325,-7.7564,-5.8333,-4.8485,-7.5829,4.8544,-9.697
-4.7799,-12.317,-14.628,-4.8077,-7.9085,-8.8462,-15.523,-1.0306,-4.8718,-4.8077,-7.9085,-11.715,-5.7504,-15.302,-1.8325,-7.7564,-9.6795,-5.8054,-3.7915,3.8835,-0.12759
-4.7799,-11.365,-14.628,-1.9231,-4.9673,-5.9615,-12.625,0.90177,-3.9103,-1.9231,-4.9673,-10.744,-6.6983,-11.492,-6.5719,-11.603,-14.487,0.89314,-1.8957,-2.9126,-1.0845
-6.6667,-11.365,-15.599,-0.96154,-4.9673,-5.0,-10.692,2.8341,-1.9872,-0.96154,-4.9673,-10.744,-10.49,-7.6825,-11.311,-20.256001,-20.256001,4.7209,-2.8436,-8.7379,-17.351999
-11.384,-4.6984,-12.686,-1.9231,-1.0458,-8.8462,-4.8953,-1.9968,1.859,-1.9231,-1.0458,-9.7735,-10.49,-3.873,-15.103,-15.449,-19.295,3.764,2.8436,-10.68,-10.654
-9.4969,1.0159,-7.8317,-5.7692,-3.9869,-8.8462,-2.963,-4.8953,1.859,-5.7692,-3.9869,-8.8026,-8.594,-3.873,-9.4155,-4.8718,-11.603,-1.9777,5.6872,-0.97087,1.7863
-3.8365,1.9683,-3.9482,-3.8462,-3.9869,-3.0769,-1.9968,-0.06441,-1.0256,-3.8462,-3.9869,-4.9191,1.8325,0.88889,-0.88468,4.7436,-2.9487,-3.8915,5.6872,5.8252,10.399
-5.7233,2.9206,-2.9773,-9.6154,-8.8889,-5.9615,-4.8953,-7.7939,-2.9487,-9.6154,-8.8889,-5.89,8.4676,1.8413,2.9068,14.359,4.7436,-7.7193,4.7393,6.7961,21.882
-11.384,0.06349,-5.89,-4.8077,-3.0065,-11.731,-3.9291,-8.7601,-0.0641,-4.8077,-3.0065,-9.7735,-1.0111,-0.06349,-2.7804,10.513,3.7821,-5.8054,0.94787,0.0,12.313
-16.101,-5.6508,-7.8317,-1.9231,-4.9673,-14.615,-10.692,-4.8953,-1.9872,-1.9231,-4.9673,-15.599,3.7283,12.317,-4.6761,7.6282,6.6667,-4.8485,-1.8957,-8.7379,-5.8692
-6.6667,-3.746,-0.06472,-4.8077,-5.9477,-10.769,-9.7262,-3.9291,-3.9103,-4.8077,-5.9477,-11.715,15.103,21.841,4.8025,11.474,15.321,1.8501,0.94787,2.9126,-0.12759
4.6541,0.06349,3.8188,-1.9231,-3.9869,-1.1538,-4.8953,-0.06441,-1.9872,-1.9231,-3.9869,-4.9191,10.363,7.5556,11.438,11.474,16.282,1.8501,2.8436,9.7087,9.4418
13.145,-0.88889,5.7605,5.7692,2.8758,8.4615,-0.06441,12.496,-1.0256,5.7692,2.8758,3.8188,0.88468,-2.9206,19.021,4.7436,13.397,6.6348,0.0,30.097,3.7002
7.4843,-2.7937,1.877,11.538,7.7778,7.5,0.90177,12.496,2.8205,11.538,7.7778,4.7896,-1.9589,-5.7778,7.6461,-1.0256,3.7821,9.5056,-1.8957,1.9417,-0.12759
-4.7799,-8.5079,-6.8608,4.8077,3.8562,-2.1154,-1.9968,0.90177,0.89744,4.8077,3.8562,-2.0065,1.8325,-0.06349,-9.4155,-8.7179,-7.7564,-1.9777,-6.6351,-27.184,-12.568
0.8805,-6.6032,-4.9191,0.96154,-0.06536,-2.1154,-1.0306,1.868,-1.9872,0.96154,-0.06536,-2.9773,-1.9589,-1.0159,-6.5719,-10.641,-8.7179,-3.8915,-3.7915,-15.534,-13.525
3.7107,0.06349,-0.06472,1.9231,0.91503,1.7308,-0.06441,5.7327,-0.0641,1.9231,0.91503,-1.0356,-5.7504,-1.9683,-1.8325,-3.9103,-4.8718,4.7209,0.94787,-6.7961,-3.9553
8.4277,6.7302,6.7314,6.7308,4.8366,6.5385,5.7327,11.53,-1.0256,6.7308,4.8366,3.8188,-1.0111,-1.0159,5.7504,5.7051,1.859,3.764,4.7393,8.7379,12.313
2.7673,4.8254,0.90615,2.8846,1.8954,0.76923,2.8341,4.7665,-1.0256,2.8846,1.8954,-2.0065,-0.06319,1.8413,3.8547,7.6282,1.859,-6.7624,1.8957,1.9417,9.4418
-4.7799,3.873,-4.9191,-4.8077,-0.06536,-7.8846,3.8003,-6.8277,-1.9872,-4.8077,-0.06536,-8.8026,2.7804,11.365,1.0111,11.474,3.7821,-3.8915,3.7915,0.0,11.356
-7.6101,1.9683,-5.89,-5.7692,-2.0261,-11.731,-2.963,-6.8277,1.859,-5.7692,-2.0261,-11.715,4.6761,10.413,1.9589,12.436,5.7051,-1.0207,1.8957,6.7961,12.313
-7.6101,0.06349,-2.9773,-8.6538,-5.9477,-12.692,-5.8615,-10.692,-2.9487,-8.6538,-5.9477,-9.7735,3.7283,11.365,-0.88468,7.6282,4.7436,-4.8485,-0.94787,-1.9417,0.82935
-14.214,-1.8413,-6.8608,-11.538,-7.9085,-15.577,-7.7939,-15.523,-1.9872,-11.538,-7.9085,-9.7735,-1.9589,7.5556,-8.4676,-0.0641,-4.8718,-11.547,-0.94787,-6.7961,-1.0845
-18.931,-4.6984,-13.657,-6.7308,-2.0261,-14.615,-3.9291,-14.557,0.89744,-6.7308,-2.0261,-8.8026,-4.8025,-2.9206,-17.945999,-4.8718,-16.41,-8.6762,2.8436,-17.476,1.7863
-20.818001,-7.5556,-21.424,-8.6538,-6.9281,-11.731,-4.8953,-9.7262,-0.0641,-8.6538,-6.9281,-11.715,-8.594,-3.873,-25.528999,-13.526,-28.91,-10.59,0.94787,-18.447001,-9.697
-17.987,-9.4603,-21.424,-9.6154,-8.8889,-8.8462,-5.8615,-7.7939,-4.8718,-9.6154,-8.8889,-10.744,-13.333,-11.492,-23.632999,-15.449,-30.833,-17.289,-1.8957,-8.7379,-4.9123
-10.44,-10.413,-16.57,-7.6923,-11.83,-3.0769,-5.8615,-3.9291,-8.7179,-7.6923,-11.83,-7.8317,-13.333,-13.397,-16.051001,-14.487,-26.025999,-5.8054,-5.6872,-4.8544,1.7863
-1.9497,-9.4603,-9.7735,-5.7692,-10.85,0.76923,-7.7939,0.90177,-7.7564,-5.7692,-10.85,-4.9191,-6.6983,-11.492,-4.6761,-8.7179,-14.487,6.6348,-6.6351,2.9126,-0.12759
-6.6667,-15.175,-9.7735,-3.8462,-10.85,0.76923,-12.625,1.868,-6.7949,-3.8462,-10.85,-6.8608,-1.9589,-2.9206,-9.4155,-14.487,-11.603,-6.7624,-13.27,-16.504999,-24.051001
-7.6101,-14.222,-6.8608,-3.8462,-7.9085,-1.1538,-11.659,1.868,-5.8333,-3.8462,-7.9085,-5.89,-1.0111,-2.9206,-10.363,-11.603,-6.7949,-3.8915,-12.322,-18.447001,-23.094
-1.0063,-9.4603,-2.9773,-0.96154,-3.0065,1.7308,-7.7939,5.7327,-1.9872,-0.96154,-3.0065,-3.9482,-1.0111,-2.9206,-0.88468,-6.7949,-0.0641,8.5486,-7.5829,0.0,-11.611
-1.0063,-6.6032,-2.0065,-2.8846,-3.9869,-1.1538,-7.7939,1.868,-1.0256,-2.8846,-3.9869,-5.89,-5.7504,-5.7778,1.0111,-6.7949,-0.0641,5.6778,-2.8436,2.9126,-8.74
-2.8931,-7.5556,-4.9191,0.0,1.8954,-1.1538,-4.8953,3.8003,0.89744,0.0,1.8954,-4.9191,-12.385,-9.5873,-3.7283,-10.641,-4.8718,-1.0207,-1.8957,-1.9417,-7.7831
-1.0063,-5.6508,-2.9773,3.8462,5.817,1.7308,-1.9968,6.6989,4.7436,3.8462,5.817,-1.0356,-13.333,-12.444,-2.7804,-7.7564,-6.7949,-1.9777,0.0,2.9126,3.7002
3.7107,-1.8413,0.90615,3.8462,7.7778,3.6538,4.7665,2.8341,2.8205,3.8462,7.7778,3.8188,-4.8025,-2.9206,-0.88468,-4.8718,-4.8718,-2.9346,1.8957,-2.9126,1.7863
3.7107,-3.746,-0.06472,-0.96154,0.91503,4.6154,-1.9968,4.7665,-0.0641,-0.96154,0.91503,1.877,-1.0111,-5.7778,0.06319,-3.9103,-3.9103,7.5917,-0.94787,-0.97087,-4.9123
-2.8931,-7.5556,-6.8608,-5.7692,-5.9477,-1.1538,-6.8277,-2.963,-5.8333,-5.7692,-5.9477,-4.9191,-3.8547,-8.6349,-2.7804,-6.7949,-7.7564,7.5917,-6.6351,0.97087,-7.7831
-2.8931,-5.6508,-6.8608,-9.6154,-10.85,-3.0769,-7.7939,-4.8953,-7.7564,-9.6154,-10.85,-6.8608,5.624,0.88889,0.06319,-2.9487,-3.9103,-0.0638,-3.7915,1.9417,-2.9984
3.7107,-0.88889,-0.06472,-7.6923,-9.8693,0.76923,-4.8953,-2.963,-6.7949,-7.6923,-9.8693,-2.9773,11.311,8.5079,5.7504,3.7821,4.7436,1.8501,-0.94787,9.7087,4.6571
5.5975,3.873,6.7314,-8.6538,-10.85,2.6923,-2.963,-3.9291,-5.8333,-8.6538,-10.85,0.90615,8.4676,7.5556,7.6461,8.5897,9.5513,-5.8054,0.94787,6.7961,10.399
11.258,8.6349,13.528,-6.7308,-6.9281,6.5385,4.7665,-4.8953,-4.8718,-6.7308,-6.9281,6.7314,3.7283,8.5079,12.385,8.5897,15.321,-6.7624,2.8436,11.65,6.571
11.258,10.54,15.469,-10.577,-7.9085,7.5,5.7327,-3.9291,-0.0641,-10.577,-7.9085,7.7023,6.5719,7.5556,14.281,10.513,17.243999,-1.0207,4.7393,8.7379,5.614
6.5409,4.8254,7.7023,-2.8846,-2.0261,7.5,5.7327,1.868,5.7051,-2.8846,-2.0261,6.7314,0.88468,-1.0159,6.6983,4.7436,10.513,-1.9777,5.6872,-0.97087,5.614
-3.8365,-0.88889,-0.06472,-4.8077,-6.9281,1.7308,0.90177,-0.06441,1.859,-4.8077,-6.9281,1.877,-2.9068,-3.873,-2.7804,-1.9872,1.859,2.807,0.94787,-2.9126,-2.9984
-11.384,-6.6032,-8.8026,-10.577,-12.81,-5.9615,-6.8277,-2.963,-5.8333,-10.577,-12.81,-6.8608,-2.9068,-1.0159,-8.4676,-3.9103,-4.8718,5.6778,-4.7393,-3.8835,-2.0415
-17.987,-16.127001,-19.482,-16.346001,-20.653999,-18.462,-19.388,-6.8277,-12.564,-16.346001,-20.653999,-19.482,-7.6461,-4.8254,-13.207,-7.7564,-10.641,-3.8915,-8.5308,-6.7961,-3.9553
-18.931,-19.937,-25.306999,-23.077,-27.516001,-26.153999,-27.118,-10.692,-18.333,-23.077,-27.516001,-28.219999,-5.7504,-6.7302,-12.259,-8.7179,-12.564,-4.8485,-11.374,-4.8544,-8.74
-18.931,-18.032,-26.278,-23.077,-23.594999,-29.038,-22.287001,-15.523,-15.449,-23.077,-23.594999,-29.191,-0.06319,-0.06349,-11.311,-8.7179,-12.564,-10.59,-9.4787,-2.9126,-4.9123
-19.874001,-12.317,-20.452999,-24.038,-20.653999,-26.153999,-14.557,-16.49,-13.526,-24.038,-20.653999,-23.365999,7.5197,4.6984,-10.363,-1.9872,-10.641,-7.7193,-6.6351,0.97087,-1.0845
-17.987,-7.5556,-13.657,-19.231001,-14.771,-22.308001,-8.7601,-16.49,-7.7564,-19.231001,-14.771,-16.57,4.6761,-0.06349,-9.4155,-1.0256,-10.641,1.8501,-4.7393,3.8835,2.7432
-12.327,-3.746,-8.8026,-13.462,-9.8693,-12.692,-4.8953,-11.659,-1.9872,-13.462,-9.8693,-7.8317,-1.0111,-1.9683,-11.311,-5.8333,-11.603,-8.6762,-1.8957,-7.767,-0.12759
-6.6667,1.0159,-2.9773,-3.8462,0.91503,-1.1538,5.7327,-2.963,4.7436,-3.8462,0.91503,3.8188,-0.06319,5.6508,-12.259,-4.8718,-8.7179,-8.6762,3.7915,-12.621,-3.9553
0.8805,8.6349,5.7605,0.0,5.817,6.5385,11.53,-0.06441,9.5513,0.0,5.817,10.615,-1.9589,5.6508,-4.6761,1.859,-0.0641,-3.8915,7.5829,0.0,-0.12759
11.258,15.302,16.440001,4.8077,8.7582,12.308,14.428,1.868,11.474,4.8077,8.7582,16.440001,-9.5419,-5.7778,-0.88468,7.6282,6.6667,-8.6762,12.322,-7.767,11.356
11.258,13.397,18.382,1.9231,3.8562,12.308,9.5974,1.868,8.5897,1.9231,3.8562,13.528,-6.6983,-3.873,1.9589,8.5897,10.513,-3.8915,7.5829,-12.621,9.4418
7.4843,5.7778,12.557,-2.8846,1.8954,3.6538,2.8341,-2.963,2.8205,-2.8846,1.8954,4.7896,4.6761,8.5079,2.9068,5.7051,11.474,-1.0207,3.7915,-8.7379,2.7432
4.6541,0.06349,4.7896,-5.7692,-3.9869,-1.1538,-3.9291,-2.963,-1.9872,-5.7692,-3.9869,-2.9773,5.624,4.6984,5.7504,4.7436,8.5897,-1.9777,0.0,3.8835,-0.12759
1.8239,-3.746,0.90615,-6.7308,-6.9281,-3.0769,-6.8277,-5.8615,-8.7179,-6.7308,-6.9281,-5.89,5.624,6.6032,6.6983,5.7051,5.7051,0.89314,-3.7915,10.68,3.7002
-0.06289,-7.5556,-2.0065,-7.6923,-10.85,-4.0385,-12.625,-7.7939,-10.641,-7.6923,-10.85,-7.8317,3.7283,2.7937,6.6983,1.859,2.8205,-1.9777,-6.6351,12.621,-2.0415
-0.06289,-9.4603,-2.0065,-6.7308,-9.8693,-3.0769,-12.625,-3.9291,-9.6795,-6.7308,-9.8693,-6.8608,5.624,-0.06349,3.8547,2.8205,2.8205,1.8501,-7.5829,8.7379,-2.9984
-0.06289,-7.5556,-2.0065,-1.9231,-5.9477,-2.1154,-7.7939,-2.963,-8.7179,-1.9231,-5.9477,-4.9191,6.5719,-1.9683,1.0111,0.89744,-0.0641,3.764,-5.6872,2.9126,3.7002
-4.7799,-9.4603,-5.89,2.8846,-1.0458,-0.19231,-4.8953,2.8341,-3.9103,2.8846,-1.0458,-2.0065,-1.0111,-3.873,-7.5197,-9.6795,-8.7179,-5.8054,-6.6351,-6.7961,-5.8692
-4.7799,-4.6984,-2.9773,5.7692,3.8562,1.7308,0.90177,5.7327,0.89744,5.7692,3.8562,1.877,-10.49,-8.6349,-11.311,-10.641,-8.7179,-1.9777,-4.7393,-14.563,-4.9123
-0.06289,-1.8413,-0.06472,7.6923,5.817,2.6923,2.8341,6.6989,3.7821,7.6923,5.817,2.8479,-15.229,-11.492,-7.5197,-9.6795,-4.8718,1.8501,0.94787,-11.65,-2.9984
-0.06289,-1.8413,0.90615,6.7308,7.7778,2.6923,3.8003,3.8003,5.7051,6.7308,7.7778,2.8479,-7.6461,-2.9206,-4.6761,-7.7564,-1.9872,6.6348,0.0,-7.767,-13.525
-6.6667,-0.88889,-1.0356,3.8462,4.8366,-1.1538,1.868,-0.06441,4.7436,3.8462,4.8366,0.90615,-1.0111,2.7937,-8.4676,-1.9872,-2.9487,-1.0207,0.0,-10.68,-9.697
-8.5535,1.9683,-0.06472,2.8846,4.8366,-3.0769,3.8003,-1.9968,1.859,2.8846,4.8366,1.877,1.8325,0.88889,-7.5197,-0.0641,-2.9487,-7.7193,-0.94787,-4.8544,-2.9984
-3.8365,3.873,1.877,-0.96154,0.91503,-3.0769,2.8341,-3.9291,1.859,-0.96154,0.91503,-0.06472,3.7283,1.8413,-1.8325,3.7821,-1.0256,-10.59,-3.7915,0.97087,2.7432
-0.06289,8.6349,5.7605,0.0,3.8562,-2.1154,5.7327,-1.9968,4.7436,0.0,3.8562,0.90615,6.5719,5.6508,2.9068,7.6282,2.8205,-2.9346,0.94787,6.7961,12.313
4.6541,8.6349,8.6731,0.96154,1.8954,0.76923,3.8003,-0.06441,3.7821,0.96154,1.8954,1.877,7.5197,7.5556,8.594,6.6667,5.7051,4.7209,0.0,10.68,1.7863
9.3711,11.492,10.615,0.0,1.8954,4.6154,6.6989,-2.963,0.89744,0.0,1.8954,4.7896,-4.8025,-5.7778,6.6983,4.7436,3.7821,1.8501,2.8436,2.9126,4.6571
13.145,14.349,13.528,0.96154,2.8758,9.4231,9.5974,-1.9968,4.7436,0.96154,2.8758,9.644,-3.8547,-6.7302,9.5419,8.5897,5.7051,5.6778,7.5829,2.9126,17.097
18.805,11.492,14.498,4.8077,6.7974,15.192,13.462,4.7665,4.7436,4.8077,6.7974,13.528,9.4155,11.365,16.177,9.5513,11.474,10.463,6.6351,10.68,2.7432
11.258,6.7302,7.7023,0.0,0.91503,7.5,7.6651,-1.9968,2.8205,0.0,0.91503,6.7314,3.7283,5.6508,12.385,6.6667,8.5897,2.807,1.8957,7.767,-2.9984
8.4277,6.7302,4.7896,0.96154,2.8758,2.6923,8.6312,-4.8953,2.8205,0.96154,2.8758,3.8188,7.5197,6.6032,11.438,10.513,9.5513,1.8501,4.7393,9.7087,6.571
5.5975,7.6825,3.8188,2.8846,3.8562,4.6154,9.5974,1.868,4.7436,2.8846,3.8562,5.7605,5.624,6.6032,9.5419,10.513,7.6282,4.7209,5.6872,9.7087,8.4848
5.5975,6.7302,5.7605,6.7308,6.7974,8.4615,9.5974,7.6651,3.7821,6.7308,6.7974,8.6731,3.7283,3.746,9.5419,12.436,10.513,13.333,4.7393,8.7379,11.356
5.5975,2.9206,6.7314,9.6154,7.7778,9.4231,6.6989,9.5974,1.859,9.6154,7.7778,10.615,6.5719,7.5556,6.6983,8.5897,8.5897,10.463,1.8957,4.8544,6.571
2.7673,1.0159,4.7896,11.538,6.7974,9.4231,3.8003,10.564,1.859,11.538,6.7974,9.644,1.8325,4.6984,1.9589,4.7436,3.7821,8.5486,1.8957,2.9126,3.7002
2.7673,1.9683,3.8188,12.5,9.7386,9.4231,4.7665,11.53,2.8205,12.5,9.7386,9.644,-1.0111,3.746,-0.88468,0.89744,-0.0641,5.6778,1.8957,-1.9417,-2.9984
4.6541,4.8254,3.8188,11.538,9.7386,9.4231,6.6989,12.496,4.7436,11.538,9.7386,10.615,-4.8025,-3.873,0.06319,-0.0641,-1.0256,-0.0638,0.0,1.9417,-2.0415
7.4843,8.6349,7.7023,12.5,11.699,10.385,8.6312,9.5974,5.7051,12.5,11.699,12.557,-3.8547,-7.6825,2.9068,0.89744,2.8205,2.807,2.8436,0.0,4.6571
7.4843,6.7302,7.7023,8.6538,6.7974,8.4615,3.8003,4.7665,2.8205,8.6538,6.7974,8.6731,0.88468,-0.06349,3.8547,-1.9872,3.7821,0.89314,0.94787,-2.9126,-5.8692
3.7107,2.9206,2.8479,4.8077,5.817,3.6538,1.868,-0.06441,0.89744,4.8077,5.817,3.8188,0.88468,-0.06349,1.9589,-4.8718,-1.0256,0.89314,-0.94787,3.8835,-12.568
0.8805,1.0159,-2.0065,0.0,0.91503,0.76923,-1.9968,0.90177,2.8205,0.0,0.91503,-1.0356,-2.9068,-5.7778,-0.88468,-1.0256,-5.8333,-0.0638,3.7915,0.0,4.6571
-4.7799,-6.6032,-8.8026,0.0,-0.06536,-3.0769,-3.9291,1.868,0.89744,0.0,-0.06536,-4.9191,-1.9589,-1.9683,-4.6761,-5.8333,-10.641,-1.0207,-0.94787,0.0,-1.0845
-9.4969,-11.365,-10.744,-1.9231,-3.0065,-6.9231,-7.7939,-4.8953,-1.9872,-1.9231,-3.0065,-7.8317,-2.9068,-0.06349,-5.624,-7.7564,-11.603,-1.0207,-5.6872,0.97087,-5.8692
-6.6667,-9.4603,-7.8317,-0.96154,-0.06536,-5.0,-3.9291,-4.8953,-1.0256,-0.96154,-0.06536,-3.9482,-9.5419,-5.7778,-5.624,-5.8333,-10.641,0.89314,-2.8436,1.9417,3.7002
-2.8931,-8.5079,-5.89,0.96154,1.8954,-0.19231,-1.0306,-1.0306,0.89744,0.96154,1.8954,-0.06472,-10.49,-7.6825,-4.6761,-8.7179,-10.641,0.89314,0.94787,-1.9417,-3.9553
-0.06289,-4.6984,-3.9482,4.8077,4.8366,1.7308,2.8341,3.8003,2.8205,4.8077,4.8366,2.8479,-8.594,-6.7302,-5.624,-10.641,-8.7179,1.8501,0.0,-7.767,-9.697
4.6541,-0.88889,1.877,3.8462,0.91503,3.6538,0.90177,4.7665,-0.0641,3.8462,0.91503,3.8188,-3.8547,-4.8254,0.06319,-5.8333,-1.9872,3.764,-1.8957,-2.9126,-6.8262
14.088,5.7778,8.6731,4.8077,0.91503,10.385,2.8341,9.5974,-1.0256,4.8077,0.91503,8.6731,-0.06319,-3.873,8.594,0.89744,6.6667,10.463,0.94787,1.9417,2.7432
14.088,11.492,10.615,5.7692,1.8954,11.346,5.7327,9.5974,0.89744,5.7692,1.8954,9.644,-0.06319,-7.6825,7.6461,5.7051,8.5897,0.89314,2.8436,-2.9126,13.27
9.3711,13.397,10.615,7.6923,4.8366,12.308,9.5974,14.428,4.7436,7.6923,4.8366,12.557,6.5719,4.6984,6.6983,7.6282,8.5897,5.6778,4.7393,1.9417,10.399
3.7107,11.492,7.7023,5.7692,5.817,8.4615,8.6312,9.5974,4.7436,5.7692,5.817,8.6731,1.8325,3.746,1.9589,4.7436,5.7051,5.6778,3.7915,0.0,-2.0415
2.7673,6.7302,7.7023,3.8462,1.8954,4.6154,3.8003,5.7327,0.89744,3.8462,1.8954,3.8188,-1.9589,-3.873,2.9068,6.6667,7.6282,5.6778,1.8957,2.9126,-3.9553
6.5409,3.873,8.6731,5.7692,1.8954,5.5769,1.868,6.6989,-0.0641,5.7692,1.8954,3.8188,5.624,5.6508,7.6461,6.6667,10.513,13.333,0.94787,7.767,-0.12759
5.5975,-3.746,0.90615,2.8846,-1.0458,3.6538,-3.9291,4.7665,-1.9872,2.8846,-1.0458,-1.0356,7.5197,13.27,5.7504,1.859,4.7436,4.7209,-3.7915,6.7961,-2.9984
-1.0063,-12.317,-9.7735,0.96154,-1.0458,-2.1154,-7.7939,3.8003,-3.9103,0.96154,-1.0458,-6.8608,-1.0111,2.7937,0.06319,-4.8718,-3.9103,1.8501,-6.6351,2.9126,-2.9984
-1.9497,-14.222,-12.686,-0.96154,-3.9869,-5.0,-10.692,2.8341,-3.9103,-0.96154,-3.9869,-9.7735,-2.9068,-4.8254,1.0111,-7.7564,-4.8718,0.89314,-6.6351,1.9417,-2.9984
-1.9497,-12.317,-8.8026,-2.8846,-5.9477,-7.8846,-9.7262,-5.8615,-6.7949,-2.8846,-5.9477,-9.7735,-1.0111,-7.6825,-0.88468,-5.8333,-5.8333,-1.0207,-8.5308,0.0,-5.8692
-4.7799,-5.6508,-3.9482,-4.8077,-6.9281,-7.8846,-6.8277,-7.7939,-4.8718,-4.8077,-6.9281,-7.8317,3.7283,-3.873,-1.8325,-2.9487,-5.8333,-8.6762,-3.7915,2.9126,0.82935
-8.5535,-1.8413,-2.9773,-6.7308,-5.9477,-11.731,-6.8277,-12.625,-2.9487,-6.7308,-5.9477,-8.8026,-3.8547,-14.349,-5.624,-1.0256,-5.8333,-12.504,2.8436,0.97087,13.27
-10.44,-1.8413,-4.9191,-7.6923,-6.9281,-9.8077,-5.8615,-9.7262,-1.0256,-7.6923,-6.9281,-7.8317,-1.0111,-1.0159,-8.4676,-4.8718,-6.7949,-2.9346,2.8436,-5.8252,-7.7831
-4.7799,3.873,1.877,-2.8846,-0.06536,-2.1154,3.8003,-3.9291,1.859,-2.8846,-0.06536,0.90615,7.5197,13.27,-2.7804,-1.0256,-1.0256,2.807,4.7393,-0.97087,-4.9123
2.7673,5.7778,6.7314,-1.9231,0.91503,4.6154,6.6989,-4.8953,4.7436,-1.9231,0.91503,7.7023,7.5197,10.413,2.9068,3.7821,1.859,-1.9777,7.5829,6.7961,-0.12759
0.8805,8.6349,5.7605,0.0,4.8366,2.6923,10.564,-8.7601,9.5513,0.0,4.8366,8.6731,8.4676,10.413,1.0111,9.5513,2.8205,-1.0207,12.322,4.8544,7.5279
-1.9497,6.7302,-1.0356,0.0,3.8562,0.76923,7.6651,-5.8615,9.5513,0.0,3.8562,4.7896,6.5719,7.5556,0.06319,8.5897,1.859,0.89314,11.374,1.9417,13.27
1.8239,3.873,-2.9773,1.9231,2.8758,2.6923,4.7665,0.90177,5.7051,1.9231,2.8758,1.877,6.5719,4.6984,3.8547,7.6282,4.7436,7.5917,6.6351,3.8835,10.399
10.314,2.9206,2.8479,3.8462,2.8758,7.5,2.8341,6.6989,2.8205,3.8462,2.8758,4.7896,6.5719,3.746,10.49,6.6667,6.6667,6.6348,3.7915,12.621,6.571
11.258,2.9206,7.7023,6.7308,2.8758,11.346,1.868,10.564,0.89744,6.7308,2.8758,8.6731,-4.8025,-12.444,7.6461,4.7436,4.7436,3.764,0.94787,7.767,7.5279
9.3711,3.873,10.615,6.7308,3.8562,11.346,6.6989,9.5974,-2.9487,6.7308,3.8562,10.615,-6.6983,-2.9206,1.9589,-1.9872,0.89744,0.89314,-1.8957,-0.97087,-2.0415
4.6541,2.9206,6.7314,2.8846,1.8954,4.6154,2.8341,6.6989,-1.0256,2.8846,1.8954,5.7605,-2.9068,8.5079,0.06319,-4.8718,-1.9872,1.8501,-2.8436,0.0,-10.654
1.8239,5.7778,5.7605,2.8846,3.8562,0.76923,1.868,4.7665,1.859,2.8846,3.8562,1.877,0.88468,4.6984,0.06319,4.7436,-0.0641,4.7209,3.7915,2.9126,15.183
-0.06289,2.9206,1.877,1.9231,1.8954,0.76923,-0.06441,5.7327,1.859,1.9231,1.8954,0.90615,-2.9068,-2.9206,-1.8325,1.859,-4.8718,6.6348,1.8957,-0.97087,9.4418
-6.6667,-2.7937,-5.89,0.96154,0.91503,-3.0769,-1.9968,-1.0306,-1.0256,0.96154,0.91503,-2.0065,-5.7504,-4.8254,-5.624,-2.9487,-10.641,5.6778,-2.8436,-3.8835,-4.9123
-9.4969,-5.6508,-10.744,-4.8077,-3.9869,-7.8846,-6.8277,-5.8615,-1.9872,-4.8077,-3.9869,-7.8317,-1.9589,-8.6349,-4.6761,-1.0256,-9.6795,-9.6332,-1.8957,-1.9417,-0.12759
-5.7233,-6.6032,-10.744,-4.8077,-3.9869,-7.8846,-5.8615,-5.8615,-1.9872,-4.8077,-3.9869,-9.7735,0.88468,-1.9683,-4.6761,-3.9103,-7.7564,-5.8054,0.0,-5.8252,-3.9553
-4.7799,-7.5556,-8.8026,-4.8077,-4.9673,-5.9615,-5.8615,-4.8953,-0.0641,-4.8077,-4.9673,-8.8026,-3.8547,-1.9683,-3.7283,-12.564,-8.7179,-1.9777,-0.94787,-0.97087,-11.611
2.7673,-3.746,-2.0065,-0.96154,0.91503,-0.19231,0.90177,-0.06441,-1.0256,-0.96154,0.91503,-0.06472,-4.8025,-4.8254,1.9589,-9.6795,-3.9103,0.89314,0.0,7.767,-5.8692
7.4843,0.06349,2.8479,0.0,-0.06536,2.6923,0.90177,0.90177,1.859,0.0,-0.06536,2.8479,-0.06319,-4.8254,6.6983,-1.9872,1.859,0.89314,0.0,0.0,0.82935
2.7673,0.06349,2.8479,-2.8846,-1.0458,-0.19231,0.90177,-0.06441,2.8205,-2.8846,-1.0458,0.90615,9.4155,5.6508,1.9589,-0.0641,5.7051,3.764,1.8957,-7.767,-6.8262
-1.0063,2.9206,2.8479,-5.7692,-2.0261,-5.0,2.8341,-6.8277,3.7821,-5.7692,-2.0261,-2.0065,7.5197,1.8413,0.06319,2.8205,6.6667,-3.8915,3.7915,-3.8835,0.82935
-1.9497,7.6825,4.7896,-4.8077,1.8954,-6.9231,8.6312,-11.659,5.7051,-4.8077,1.8954,-0.06472,2.7804,-0.06349,1.0111,7.6282,7.6282,-9.6332,5.6872,1.9417,14.226
5.5975,13.397,8.6731,2.8846,9.7386,2.6923,14.428,-1.9968,11.474,2.8846,9.7386,9.644,-0.06319,-0.06349,6.6983,12.436,6.6667,-1.0207,10.427,14.563,28.580999
-0.06289,5.7778,0.90615,5.7692,11.699,3.6538,13.462,-1.0306,11.474,5.7692,11.699,9.644,-3.8547,1.8413,-1.8325,2.8205,-2.9487,1.8501,8.5308,0.97087,2.7432
-8.5535,-2.7937,-5.89,4.8077,7.7778,0.76923,6.6989,-0.06441,7.6282,4.8077,7.7778,4.7896,-5.7504,2.7937,-13.207,-12.564,-11.603,-1.0207,0.94787,-17.476,-25.965
-5.7233,-2.7937,-2.9773,4.8077,4.8366,2.6923,2.8341,3.8003,3.7821,4.8077,4.8366,3.8188,-7.6461,-3.873,-11.311,-12.564,-9.6795,-0.0638,0.0,-16.504999,-12.568
1.8239,0.06349,1.877,4.8077,4.8366,4.6154,3.8003,4.7665,2.8205,4.8077,4.8366,5.7605,-6.6983,-7.6825,-4.6761,-8.7179,-4.8718,-1.9777,-0.94787,-7.767,-5.8692
4.6541,4.8254,3.8188,4.8077,4.8366,7.5,5.7327,8.6312,5.7051,4.8077,4.8366,6.7314,-1.9589,-7.6825,1.0111,-1.0256,-0.0641,-5.8054,1.8957,1.9417,8.4848
-0.06289,1.9683,-2.9773,2.8846,3.8562,1.7308,4.7665,3.8003,3.7821,2.8846,3.8562,2.8479,-6.6983,-13.397,-2.7804,-1.9872,-3.9103,-0.0638,0.0,-0.97087,8.4848
-4.7799,-5.6508,-9.7735,-1.9231,-1.0458,-4.0385,-2.963,-0.06441,1.859,-1.9231,-1.0458,-4.9191,-6.6983,-3.873,-4.6761,-5.8333,-5.8333,3.764,-2.8436,-5.8252,-8.74
-3.8365,-4.6984,-4.9191,-1.9231,-0.06536,-5.0,0.90177,-1.0306,-1.9872,-1.9231,-0.06536,-3.9482,-0.06319,0.88889,-1.8325,-2.9487,-0.0641,-1.0207,-1.8957,0.0,-9.697
-1.0063,1.0159,3.8188,-0.96154,-0.06536,-1.1538,0.90177,-1.0306,2.8205,-0.96154,-0.06536,-0.06472,5.624,-0.06349,3.8547,4.7436,6.6667,2.807,2.8436,7.767,0.82935
1.8239,1.9683,6.7314,0.0,0.91503,1.7308,0.90177,0.90177,2.8205,0.0,0.91503,3.8188,-1.0111,-2.9206,3.8547,4.7436,6.6667,-2.9346,2.8436,10.68,5.614
-2.8931,1.9683,1.877,-0.96154,0.91503,-0.19231,0.90177,-0.06441,1.859,-0.96154,0.91503,0.90615,-1.9589,1.8413,-2.7804,3.7821,0.89744,-5.8054,2.8436,-6.7961,5.614
-3.8365,0.06349,-4.9191,-2.8846,-1.0458,-5.9615,-1.9968,-1.0306,-0.0641,-2.8846,-1.0458,-4.9191,-4.8025,-11.492,-2.7804,-0.0641,-3.9103,10.463,1.8957,-1.9417,10.399
-6.6667,-5.6508,-8.8026,-6.7308,-7.9085,-11.731,-9.7262,-2.963,-4.8718,-6.7308,-7.9085,-13.657,-5.7504,-12.444,-1.8325,-6.7949,-6.7949,2.807,-2.8436,0.97087,-2.9984
-7.6101,-6.6032,-7.8317,-6.7308,-5.9477,-11.731,-9.7262,-3.9291,-2.9487,-6.7308,-5.9477,-11.715,-4.8025,0.88889,-5.624,-9.6795,-8.7179,-6.7624,-1.8957,-4.8544,-6.8262
-6.6667,-1.8413,-2.0065,-1.9231,-1.0458,-3.0769,-1.0306,-1.9968,2.8205,-1.9231,-1.0458,-2.0065,0.88468,4.6984,-6.5719,-6.7949,-7.7564,-4.8485,2.8436,-6.7961,-7.7831
-3.8365,3.873,2.8479,2.8846,5.817,2.6923,7.6651,-5.8615,4.7436,2.8846,5.817,8.6731,2.7804,-1.0159,-3.7283,-1.9872,-4.8718,-1.9777,3.7915,-3.8835,-4.9123
1.8239,6.7302,7.7023,5.7692,8.7582,8.4615,11.53,-1.9968,4.7436,5.7692,8.7582,14.498,8.4676,5.6508,4.8025,2.8205,2.8205,1.8501,0.94787,6.7961,-0.12759
10.314,5.7778,10.615,5.7692,7.7778,10.385,8.6312,-1.0306,5.7051,5.7692,7.7778,13.528,12.259,12.317,13.333,9.5513,12.436,-1.0207,0.0,12.621,1.7863
15.975,9.5873,15.469,5.7692,7.7778,9.4231,7.6651,-1.0306,4.7436,5.7692,7.7778,12.557,16.051001,10.413,19.021,18.205,21.09,-2.9346,0.94787,13.592,11.356
17.862,7.6825,17.410999,4.8077,3.8562,9.4231,5.7327,4.7665,3.7821,4.8077,3.8562,9.644,17.945999,18.032,20.916,16.282,24.936001,0.89314,0.0,14.563,2.7432
13.145,4.8254,13.528,1.9231,3.8562,1.7308,2.8341,1.868,1.859,1.9231,3.8562,3.8188,11.311,15.175,15.229,13.397,22.051001,7.5917,1.8957,7.767,1.7863
1.8239,3.873,6.7314,-5.7692,-2.0261,-11.731,-4.8953,-9.7262,-0.0641,-5.7692,-2.0261,-6.8608,1.8325,-1.0159,7.6461,11.474,14.359,-0.0638,3.7915,3.8835,11.356
-7.6101,-0.88889,-2.0065,-2.8846,-2.0261,-15.577,-6.8277,-8.7601,-1.0256,-2.8846,-2.0261,-11.715,-1.9589,-1.9683,-1.8325,1.859,3.7821,-3.8915,1.8957,3.8835,-1.0845
-10.44,-3.746,-6.8608,1.9231,0.91503,-9.8077,-5.8615,-1.0306,1.859,1.9231,0.91503,-8.8026,-3.8547,-1.0159,-7.5197,-3.9103,-4.8718,1.8501,0.0,-0.97087,-7.7831
-7.6101,-2.7937,-6.8608,6.7308,4.8366,-2.1154,0.90177,6.6989,-0.0641,6.7308,4.8366,-2.0065,-7.6461,-11.492,-9.4155,-2.9487,-9.6795,5.6778,-1.8957,-1.9417,2.7432
-8.5535,-4.6984,-8.8026,6.7308,2.8758,-0.19231,-1.9968,7.6651,-0.0641,6.7308,2.8758,-1.0356,-13.333,-16.254,-14.155,-6.7949,-16.41,-1.0207,-3.7915,-10.68,1.7863
-5.7233,-8.5079,-9.7735,4.8077,1.8954,-0.19231,-3.9291,6.6989,-1.0256,4.8077,1.8954,-1.0356,-15.229,-4.8254,-14.155,-12.564,-18.333,2.807,-3.7915,-15.534,-2.0415
-0.06289,-9.4603,-6.8608,1.9231,-2.0261,0.76923,-3.9291,7.6651,-3.9103,1.9231,-2.0261,-2.0065,-7.6461,2.7937,-4.6761,-10.641,-12.564,8.5486,-4.7393,1.9417,-6.8262
3.7107,-6.6032,-4.9191,2.8846,-0.06536,3.6538,-2.963,11.53,-1.9872,2.8846,-0.06536,-1.0356,1.8325,4.6984,0.06319,-1.9872,-4.8718,6.6348,-1.8957,-0.97087,-2.9984
1.8239,-7.5556,-4.9191,-2.8846,-5.9477,-0.19231,-7.7939,6.6989,-5.8333,-2.8846,-5.9477,-6.8608,4.6761,8.5079,1.0111,3.7821,1.859,-1.9777,-1.8957,-6.7961,-1.0845
-2.8931,-4.6984,-3.9482,-7.6923,-8.8889,-6.9231,-10.692,-4.8953,-6.7949,-7.6923,-8.8889,-10.744,2.7804,3.746,-0.88468,8.5897,7.6282,-5.8054,0.0,-8.7379,6.571
-2.8931,0.06349,1.877,-5.7692,-7.9085,-6.9231,-7.7939,-7.7939,-4.8718,-5.7692,-7.9085,-7.8317,1.8325,1.8413,1.0111,9.5513,10.513,-1.0207,0.94787,-4.8544,4.6571
4.6541,8.6349,11.586,-0.96154,-1.0458,0.76923,0.90177,-3.9291,-0.0641,-0.96154,-1.0458,1.877,6.5719,9.4603,9.5419,13.397,15.321,-3.8915,7.5829,11.65,8.4848
8.4277,14.349,15.469,1.9231,4.8366,6.5385,8.6312,-3.9291,3.7821,1.9231,4.8366,9.644,7.5197,1.8413,12.385,16.282,15.321,-0.0638,9.4787,13.592,21.882
4.6541,9.5873,10.615,3.8462,5.817,7.5,9.5974,-3.9291,4.7436,3.8462,5.817,10.615,3.7283,3.746,2.9068,6.6667,6.6667,1.8501,5.6872,-5.8252,5.614
5.5975,4.8254,7.7023,3.8462,4.8366,9.4231,6.6989,-1.9968,2.8205,3.8462,4.8366,10.615,6.5719,11.365,0.06319,1.859,3.7821,0.89314,0.94787,-5.8252,-2.9984
14.088,3.873,9.644,4.8077,4.8366,15.192,2.8341,8.6312,2.8205,4.8077,4.8366,12.557,7.5197,6.6032,9.5419,4.7436,5.7051,1.8501,0.0,14.563,0.82935
19.747999,5.7778,13.528,8.6538,8.7582,16.153999,6.6989,8.6312,4.7436,8.6538,8.7582,16.440001,4.6761,1.8413,12.385,6.6667,6.6667,0.89314,1.8957,11.65,7.5279
7.4843,2.9206,7.7023,5.7692,5.817,10.385,4.7665,3.8003,2.8205,5.7692,5.817,11.586,1.8325,4.6984,1.0111,0.89744,-0.0641,-2.9346,-0.94787,-5.8252,-3.9553
5.5975,-1.8413,0.90615,3.8462,3.8562,6.5385,1.868,4.7665,-1.0256,3.8462,3.8562,6.7314,2.7804,7.5556,-0.88468,-7.7564,-2.9487,7.5917,-1.8957,-3.8835,-17.351999
9.3711,0.06349,0.90615,2.8846,2.8758,2.6923,-0.06441,4.7665,-0.0641,2.8846,2.8758,2.8479,2.7804,2.7937,7.6461,-2.9487,2.8205,13.333,-0.94787,10.68,-5.8692
1.8239,1.9683,2.8479,1.9231,2.8758,-3.0769,-0.06441,-1.0306,-2.9487,1.9231,2.8758,-0.06472,-1.9589,-7.6825,1.9589,-1.0256,3.7821,7.5917,0.0,2.9126,2.7432
-5.7233,1.9683,1.877,0.96154,-0.06536,-5.0,-0.06441,-1.9968,-1.9872,0.96154,-0.06536,-2.0065,-4.8025,-11.492,-4.6761,-4.8718,-1.0256,-1.0207,-1.8957,-5.8252,-4.9123
-6.6667,1.9683,-0.06472,4.8077,2.8758,-1.1538,3.8003,2.8341,1.859,4.8077,2.8758,0.90615,-5.7504,-7.6825,-10.363,-12.564,-7.7564,-3.8915,0.0,-9.7087,-8.74
-4.7799,3.873,-2.0065,4.8077,3.8562,3.6538,5.7327,7.6651,2.8205,4.8077,3.8562,1.877,-10.49,-14.349,-10.363,-13.526,-11.603,0.89314,0.94787,-6.7961,-2.9984
2.7673,3.873,-1.0356,4.8077,4.8366,4.6154,3.8003,7.6651,4.7436,4.8077,4.8366,0.90615,-4.8025,-13.397,-1.8325,-7.7564,-6.7949,-0.0638,2.8436,2.9126,6.571
0.8805,-7.5556,-4.9191,-0.96154,-4.9673,-4.0385,-6.8277,-1.0306,-2.9487,-0.96154,-4.9673,-7.8317,-1.0111,-4.8254,1.9589,-12.564,-5.8333,3.764,-6.6351,3.8835,-16.396
1.8239,-10.413,-4.9191,-1.9231,-4.9673,-5.9615,-8.7601,-1.0306,-5.8333,-1.9231,-4.9673,-10.744,-2.9068,-0.06349,5.7504,-9.6795,-2.9487,7.5917,-8.5308,1.9417,-19.266001
12.201,-4.6984,1.877,-0.96154,-2.0261,0.76923,-4.8953,2.8341,-3.9103,-0.96154,-2.0261,-4.9191,2.7804,3.746,15.229,0.89744,5.7051,10.463,-4.7393,11.65,-2.0415
14.088,1.9683,4.7896,-0.96154,-3.0065,3.6538,-1.0306,0.90177,-1.0256,-0.96154,-3.0065,-1.0356,7.5197,2.7937,18.073,9.5513,11.474,11.419,0.0,13.592,7.5279
12.201,2.9206,1.877,0.0,-0.06536,3.6538,-0.06441,1.868,0.89744,0.0,-0.06536,0.90615,4.6761,-1.0159,12.385,8.5897,7.6282,5.6778,4.7393,3.8835,12.313
10.314,-0.88889,-2.0065,1.9231,-1.0458,6.5385,-0.06441,6.6989,-0.0641,1.9231,-1.0458,2.8479,4.6761,0.88889,11.438,0.89744,1.859,3.764,0.0,7.767,-3.9553
5.5975,-1.8413,-2.9773,6.7308,3.8562,10.385,4.7665,11.53,-0.0641,6.7308,3.8562,7.7023,-0.06319,3.746,4.8025,-7.7564,-4.8718,-1.9777,-3.7915,8.7379,-13.525
0.8805,1.9683,-0.06472,6.7308,5.817,9.4231,8.6312,5.7327,1.859,6.7308,5.817,9.644,-2.9068,-1.9683,1.0111,-6.7949,-5.8333,-2.9346,0.0,5.8252,7.5279
-2.8931,1.0159,0.90615,7.6923,7.7778,6.5385,7.6651,2.8341,3.7821,7.6923,7.7778,8.6731,-11.438,-22.921,-2.7804,-4.8718,-3.9103,0.89314,0.94787,2.9126,13.27
-11.384,-7.5556,-5.89,2.8846,2.8758,-1.1538,-0.06441,-0.06441,3.7821,2.8846,2.8758,0.90615,-9.5419,-14.349,-12.259,-11.603,-7.7564,-3.8915,-3.7915,-15.534,-10.654
-8.5535,-9.4603,-5.89,0.96154,0.91503,-5.0,-1.9968,-4.8953,-1.0256,0.96154,0.91503,-2.9773,6.5719,6.6032,-6.5719,-9.6795,-1.9872,-4.8485,-4.7393,-7.767,-19.266001
-6.6667,-7.5556,-5.89,-4.8077,-5.9477,-8.8462,-7.7939,-7.7939,-2.9487,-4.8077,-5.9477,-8.8026,13.207,14.222,0.06319,-0.0641,4.7436,-8.6762,-2.8436,-0.97087,-5.8692
-5.7233,-1.8413,-2.9773,-5.7692,-5.9477,-12.692,-7.7939,-8.7601,-4.8718,-5.7692,-5.9477,-11.715,7.5197,10.413,3.8547,8.5897,10.513,-5.8054,0.94787,4.8544,13.27
-6.6667,3.873,1.877,-7.6923,-4.9673,-15.577,-8.7601,-9.7262,-2.9487,-7.6923,-4.9673,-13.657,12.259,15.175,7.6461,19.167,16.282,-5.8054,3.7915,13.592,12.313
-1.9497,8.6349,5.7605,-4.8077,-1.0458,-10.769,-4.8953,-3.9291,-0.0641,-4.8077,-1.0458,-9.7735,19.841999,20.889,7.6461,21.09,19.167,-2.9346,4.7393,4.8544,11.356
-1.0063,9.5873,6.7314,-4.8077,-3.0065,-11.731,-3.9291,-9.7262,-2.9487,-4.8077,-3.0065,-9.7735,22.686001,18.983999,7.6461,23.013,18.205,-1.0207,4.7393,3.8835,16.139999
1.8239,6.7302,5.7605,-4.8077,-3.0065,-9.8077,-7.7939,-9.7262,-3.9103,-4.8077,-3.0065,-9.7735,12.259,12.317,10.49,16.282,12.436,-2.9346,2.8436,14.563,16.139999
3.7107,6.7302,5.7605,0.96154,-0.06536,-0.19231,-2.963,-1.0306,-0.0641,0.96154,-0.06536,-2.0065,-2.9068,-1.0159,3.8547,7.6282,1.859,-1.0207,2.8436,0.0,13.27
4.6541,6.7302,7.7023,5.7692,5.817,7.5,7.6651,6.6989,3.7821,5.7692,5.817,8.6731,-5.7504,-1.9683,-1.8325,-0.0641,-3.9103,4.7209,3.7915,-4.8544,3.7002
5.5975,4.8254,7.7023,4.8077,5.817,11.346,11.53,4.7665,4.7436,4.8077,5.817,12.557,-4.8025,0.88889,-3.7283,-6.7949,-5.8333,2.807,0.94787,-7.767,-12.568
5.5975,5.7778,8.6731,3.8462,3.8562,13.269,11.53,4.7665,3.7821,3.8462,3.8562,13.528,-5.7504,-5.7778,-4.6761,-4.8718,-3.9103,-1.0207,0.0,-12.621,-10.654
3.7107,5.7778,5.7605,3.8462,4.8366,11.346,12.496,3.8003,3.7821,3.8462,4.8366,13.528,-6.6983,-7.6825,-2.7804,-1.0256,-1.9872,-3.8915,5.6872,-2.9126,6.571
-5.7233,-0.88889,-2.9773,0.0,-1.0458,3.6538,3.8003,0.90177,-1.0256,0.0,-1.0458,4.7896,-8.594,-8.6349,-6.5719,-2.9487,-4.8718,-4.8485,1.8957,-5.8252,1.7863
-5.7233,-1.8413,-4.9191,-0.96154,-0.06536,-1.1538,2.8341,-1.9968,-0.0641,-0.96154,-0.06536,0.90615,1.8325,1.8413,-6.5719,1.859,-1.0256,-1.9777,1.8957,-5.8252,3.7002
-8.5535,-0.88889,-3.9482,-1.9231,-1.0458,-3.0769,1.868,-1.0306,-0.0641,-1.9231,-1.0458,-0.06472,0.88468,-0.06349,-3.7283,7.6282,2.8205,-3.8915,2.8436,2.9126,13.27
-6.6667,-1.8413,-1.0356,2.8846,2.8758,0.76923,1.868,0.90177,1.859,2.8846,2.8758,3.8188,-1.9589,-1.0159,-3.7283,5.7051,4.7436,2.807,0.94787,-6.7961,-2.9984
-2.8931,-0.88889,-0.06472,6.7308,5.817,7.5,2.8341,5.7327,4.7436,6.7308,5.817,8.6731,2.7804,11.365,-4.6761,1.859,3.7821,-4.8485,0.0,-14.563,-12.568
-1.9497,0.06349,-3.9482,12.5,10.719,10.385,7.6651,11.53,4.7436,12.5,10.719,11.586,-0.06319,7.5556,-7.5197,-1.9872,-3.9103,1.8501,0.94787,-12.621,-8.74
0.8805,5.7778,-3.9482,15.385,13.66,11.346,9.5974,14.428,9.5513,15.385,13.66,11.586,-7.6461,-6.7302,-5.624,1.859,-8.7179,3.764,6.6351,-0.97087,10.399
1.8239,2.9206,-4.9191,8.6538,8.7582,6.5385,5.7327,6.6989,3.7821,8.6538,8.7582,5.7605,-7.6461,-7.6825,-5.624,-3.9103,-11.603,-3.8915,1.8957,4.8544,1.7863
-2.8931,-2.7937,-5.89,-0.96154,-1.0458,-1.1538,-2.963,-1.9968,-2.9487,-0.96154,-1.0458,-2.0065,-2.9068,-4.8254,-6.5719,-4.8718,-10.641,-1.0207,-5.6872,2.9126,-7.7831
-3.8365,-1.8413,-3.9482,-2.8846,-2.0261,-2.1154,-1.0306,-2.963,-1.9872,-2.8846,-2.0261,-2.0065,0.88468,0.88889,-7.5197,-3.9103,-6.7949,0.89314,-2.8436,-7.767,-4.9123
-6.6667,-2.7937,-3.9482,-6.7308,-5.9477,-6.9231,-2.963,-9.7262,-3.9103,-6.7308,-5.9477,-5.89,1.8325,5.6508,-9.4155,-6.7949,-7.7564,-7.7193,-3.7915,-11.65,-15.439
2.7673,3.873,4.7896,-7.6923,-4.9673,-4.0385,-0.06441,-5.8615,-4.8718,-7.6923,-4.9673,-2.9773,-1.9589,-2.9206,2.9068,4.7436,0.89744,4.7209,0.94787,9.7087,7.5279
3.7107,2.9206,7.7023,-9.6154,-7.9085,-6.9231,-2.963,-9.7262,-2.9487,-9.6154,-7.9085,-4.9191,-1.9589,0.88889,3.8547,2.8205,3.7821,3.764,0.94787,6.7961,4.6571
4.6541,2.9206,9.644,-6.7308,-3.9869,-5.0,-1.0306,-6.8277,2.8205,-6.7308,-3.9869,-2.0065,2.7804,8.5079,2.9068,2.8205,7.6282,-4.8485,0.0,-0.97087,-3.9553
4.6541,4.8254,11.586,0.96154,4.8366,1.7308,6.6989,-1.0306,8.5897,0.96154,4.8366,4.7896,5.624,6.6032,2.9068,8.5897,11.474,-2.9346,3.7915,-4.8544,3.7002
0.8805,1.9683,8.6731,4.8077,4.8366,2.6923,3.8003,2.8341,4.7436,4.8077,4.8366,4.7896,5.624,8.5079,1.9589,8.5897,11.474,2.807,3.7915,0.97087,-2.0415
-3.8365,0.06349,2.8479,6.7308,3.8562,-0.19231,1.868,2.8341,3.7821,6.7308,3.8562,1.877,2.7804,1.8413,-0.88468,7.6282,6.6667,1.8501,2.8436,1.9417,4.6571
-5.7233,0.06349,-1.0356,6.7308,2.8758,-0.19231,0.90177,3.8003,3.7821,6.7308,2.8758,0.90615,-1.0111,0.88889,-4.6761,1.859,-0.0641,-1.9777,2.8436,-1.9417,2.7432
-8.5535,-1.8413,-5.89,7.6923,4.8366,2.6923,1.868,6.6989,1.859,7.6923,4.8366,1.877,-10.49,-7.6825,-11.311,-6.7949,-9.6795,-3.8915,0.94787,-4.8544,2.7432
-5.7233,-2.7937,-7.8317,6.7308,4.8366,3.6538,2.8341,6.6989,3.7821,6.7308,4.8366,0.90615,-10.49,-11.492,-7.5197,-5.8333,-10.641,1.8501,-0.94787,-0.97087,-2.9984
-1.9497,-4.6984,-8.8026,5.7692,6.7974,2.6923,4.7665,4.7665,2.8205,5.7692,6.7974,-0.06472,-1.0111,-0.06349,-4.6761,-6.7949,-10.641,0.89314,-0.94787,-1.9417,-9.697
-0.06289,-5.6508,-6.8608,-1.9231,-4.9673,-0.19231,-4.8953,1.868,-4.8718,-1.9231,-4.9673,-3.9482,0.88468,4.6984,-1.8325,-3.9103,-8.7179,-2.9346,-3.7915,-2.9126,-3.9553
3.7107,-4.6984,-2.0065,-4.8077,-4.9673,-3.0769,-4.8953,-2.963,-2.9487,-4.8077,-4.9673,-3.9482,-0.06319,2.7937,1.9589,-0.0641,-4.8718,0.89314,0.0,-0.97087,-0.12759
-0.06289,-1.8413,-1.0356,-2.8846,2.8758,-5.0,0.90177,-8.7601,8.5897,-2.8846,2.8758,-2.9773,2.7804,5.6508,-0.88468,-1.0256,-2.9487,-3.8915,2.8436,-4.8544,3.7002
1.8239,0.06349,0.90615,-2.8846,5.817,-4.0385,3.8003,-7.7939,12.436,-2.8846,5.817,-1.0356,-3.8547,-4.8254,1.0111,-4.8718,-1.9872,-5.8054,6.6351,4.8544,8.4848
-1.0063,-2.7937,-2.9773,-4.8077,2.8758,-6.9231,2.8341,-7.7939,10.513,-4.8077,2.8758,-3.9482,-15.229,-15.302,0.06319,-11.603,-4.8718,-4.8485,4.7393,0.97087,-4.9123
-1.0063,2.9206,2.8479,-3.8462,5.817,-5.9615,5.7327,-10.692,14.359,-3.8462,5.817,-2.0065,-5.7504,-1.9683,-0.88468,-3.9103,1.859,-11.547,7.5829,-10.68,-2.0415
-1.0063,12.444,10.615,-6.7308,2.8758,-5.0,8.6312,-11.659,13.397,-6.7308,2.8758,-0.06472,-0.06319,-2.9206,1.0111,9.5513,8.5897,-2.9346,14.218,-4.8544,19.968
-6.6667,10.54,6.7314,-10.577,-0.06536,-9.8077,6.6989,-16.49,7.6282,-10.577,-0.06536,-3.9482,-1.9589,1.8413,-3.7283,3.7821,2.8205,-7.7193,10.427,-6.7961,10.399
-4.7799,5.7778,1.877,-9.6154,-2.0261,-9.8077,0.90177,-12.625,5.7051,-9.6154,-2.0261,-5.89,-0.06319,7.5556,-2.7804,1.859,1.859,-5.8054,6.6351,-2.9126,-2.0415
-6.6667,0.06349,-4.9191,-9.6154,-3.9869,-12.692,-5.8615,-9.7262,5.7051,-9.6154,-3.9869,-11.715,-1.0111,1.8413,-1.8325,2.8205,0.89744,0.89314,4.7393,-2.9126,1.7863
-1.0063,-1.8413,-4.9191,-6.7308,-3.0065,-8.8462,-5.8615,-1.9968,1.859,-6.7308,-3.0065,-10.744,3.7283,6.6032,1.9589,3.7821,3.7821,0.89314,2.8436,1.9417,3.7002
5.5975,-0.88889,0.90615,-2.8846,-2.0261,-1.1538,-4.8953,0.90177,3.7821,-2.8846,-2.0261,-4.9191,3.7283,7.5556,6.6983,2.8205,5.7051,-2.9346,2.8436,5.8252,1.7863
12.201,3.873,9.644,3.8462,3.8562,6.5385,3.8003,2.8341,3.7821,3.8462,3.8562,4.7896,2.7804,0.88889,9.5419,6.6667,9.5513,2.807,2.8436,2.9126,8.4848
10.314,4.8254,8.6731,3.8462,2.8758,8.4615,3.8003,5.7327,2.8205,3.8462,2.8758,7.7023,4.6761,-3.873,12.385,8.5897,11.474,6.6348,0.0,8.7379,9.4418
6.5409,1.9683,3.8188,5.7692,1.8954,7.5,3.8003,4.7665,0.89744,5.7692,1.8954,5.7605,9.4155,6.6032,12.385,5.7051,12.436,-2.9346,-3.7915,8.7379,0.82935
1.8239,0.06349,-0.06472,3.8462,-0.06536,5.5769,1.868,7.6651,-0.0641,3.8462,-0.06536,1.877,9.4155,8.5079,6.6983,4.7436,11.474,2.807,-4.7393,-1.9417,-6.8262
0.8805,1.0159,2.8479,3.8462,2.8758,3.6538,2.8341,5.7327,-1.0256,3.8462,2.8758,1.877,7.5197,2.7937,4.8025,7.6282,10.513,8.5486,-3.7915,-1.9417,-3.9553
5.5975,3.873,7.7023,4.8077,3.8562,6.5385,6.6989,3.8003,-1.9872,4.8077,3.8562,5.7605,7.5197,3.746,8.594,8.5897,11.474,3.764,-4.7393,7.767,0.82935
15.975,4.8254,11.586,9.6154,7.7778,13.269,9.5974,8.6312,3.7821,9.6154,7.7778,11.586,7.5197,3.746,16.177,6.6667,13.397,12.376,-1.8957,17.476,2.7432
13.145,2.9206,7.7023,8.6538,7.7778,11.346,7.6651,9.5974,8.5897,8.6538,7.7778,9.644,1.8325,-2.9206,13.333,3.7821,8.5897,8.5486,0.0,12.621,-3.9553
11.258,1.9683,1.877,7.6923,9.7386,11.346,8.6312,11.53,8.5897,7.6923,9.7386,8.6731,-4.8025,-4.8254,5.7504,-0.0641,3.7821,7.5917,0.94787,-3.8835,-2.0415
2.7673,-5.6508,-6.8608,4.8077,5.817,1.7308,1.868,7.6651,4.7436,4.8077,5.817,0.90615,-6.6983,-2.9206,-0.88468,-8.7179,-3.9103,6.6348,-5.6872,-1.9417,-13.525
-9.4969,-13.27,-15.599,-0.96154,-0.06536,-12.692,-8.7601,-2.963,-0.0641,-0.96154,-0.06536,-11.715,-4.8025,-2.9206,-5.624,-12.564,-9.6795,0.89314,-8.5308,2.9126,-16.396
-16.101,-17.079,-19.482,-7.6923,-6.9281,-21.346001,-15.523,-7.7939,-2.9487,-7.6923,-6.9281,-22.395,-4.8025,-2.9206,-11.311,-10.641,-11.603,-7.7193,-6.6351,-5.8252,-7.7831
-17.987,-17.079,-20.452999,-9.6154,-9.8693,-25.191999,-18.422001,-9.7262,-4.8718,-9.6154,-9.8693,-26.278,-4.8025,-7.6825,-9.4155,-5.8333,-8.7179,-8.6762,-5.6872,-3.8835,-0.12759
-17.987,-14.222,-18.511,-8.6538,-6.9281,-24.231001,-13.591,-11.659,-7.7564,-8.6538,-6.9281,-23.365999,-1.9589,-4.8254,-9.4155,-4.8718,-8.7179,-1.9777,-3.7915,0.0,-1.0845
-18.931,-15.175,-19.482,-6.7308,-7.9085,-17.5,-14.557,-6.8277,-5.8333,-6.7308,-7.9085,-18.511,-2.9068,-4.8254,-14.155,-11.603,-13.526,-2.9346,-6.6351,-1.9417,-9.697
-18.931,-18.032,-24.337,-3.8462,-4.9673,-11.731,-13.591,-4.8953,-3.9103,-3.8462,-4.9673,-14.628,-11.438,-10.54,-18.893999,-18.333,-21.218,-10.59,-7.5829,-9.7087,-8.74
-19.874001,-20.889,-28.219999,-7.6923,-7.9085,-11.731,-14.557,-6.8277,-5.8333,-7.6923,-7.9085,-15.599,-7.6461,-14.349,-17.945999,-16.41,-24.103001,-17.289,-7.5829,-12.621,-7.7831
-17.044001,-22.794001,-27.249001,-7.6923,-8.8889,-10.769,-13.591,-5.8615,-7.7564,-7.6923,-8.8889,-14.628,-7.6461,-9.5873,-15.103,-16.41,-22.179001,-3.8915,-7.5829,-8.7379,-6.8262
-6.6667,-18.983999,-19.482,-4.8077,-8.8889,-5.0,-13.591,-2.963,-5.8333,-4.8077,-8.8889,-10.744,-6.6983,-8.6349,-1.8325,-11.603,-14.487,-1.0207,-5.6872,2.9126,-5.8692
4.6541,-15.175,-10.744,-1.9231,-3.9869,2.6923,-9.7262,1.868,-4.8718,-1.9231,-3.9869,-5.89,-0.06319,-0.06349,2.9068,-12.564,-6.7949,2.807,-7.5829,0.0,-11.611
1.8239,-13.27,-8.8026,-4.8077,-5.9477,-2.1154,-10.692,-3.9291,-3.9103,-4.8077,-5.9477,-8.8026,3.7283,8.5079,2.9068,-11.603,-2.9487,0.89314,-6.6351,0.0,-17.351999
3.7107,-6.6032,-4.9191,-3.8462,-3.0065,-4.0385,-5.8615,-8.7601,-0.0641,-3.8462,-3.0065,-7.8317,1.8325,2.7937,6.6983,-6.7949,0.89744,-2.9346,-0.94787,5.8252,-8.74
-0.06289,-0.88889,-2.9773,-0.96154,-1.0458,-3.0769,-1.9968,-4.8953,1.859,-0.96154,-1.0458,-4.9191,-9.5419,-14.349,-0.88468,-7.7564,-2.9487,-1.9777,2.8436,-4.8544,0.82935
-2.8931,1.9683,-3.9482,3.8462,3.8562,0.76923,4.7665,1.868,2.8205,3.8462,3.8562,0.90615,-13.333,-16.254,-7.5197,-8.7179,-6.7949,5.6778,4.7393,-9.7087,-0.12759
-6.6667,1.0159,-5.89,9.6154,6.7974,5.5769,4.7665,10.564,6.6667,9.6154,6.7974,4.7896,-7.6461,-10.54,-11.311,-5.8333,-10.641,1.8501,4.7393,-12.621,2.7432
-10.44,-0.88889,-9.7735,9.6154,7.7778,5.5769,3.8003,6.6989,5.7051,9.6154,7.7778,5.7605,-6.6983,-12.444,-13.207,-6.7949,-15.449,-2.9346,5.6872,-1.9417,11.356
-15.157,-9.4603,-17.540001,5.7692,2.8758,0.76923,-1.0306,1.868,-0.0641,5.7692,2.8758,-0.06472,-8.594,-5.7778,-17.945999,-17.372,-25.063999,-4.8485,-1.8957,-4.8544,-4.9123
-20.818001,-18.032,-25.306999,-1.9231,-4.9673,-7.8846,-11.659,-2.963,-6.7949,-1.9231,-4.9673,-9.7735,-8.594,-1.0159,-21.738001,-23.141001,-28.91,-4.8485,-10.427,-8.7379,-20.223
-13.27,-20.889,-22.395,-3.8462,-8.8889,-7.8846,-16.49,1.868,-13.526,-3.8462,-8.8889,-12.686,-4.8025,2.7937,-14.155,-19.295,-21.218,1.8501,-15.166,1.9417,-22.136999
-8.5535,-16.127001,-14.628,-6.7308,-11.83,-7.8846,-17.455999,-1.0306,-16.41,-6.7308,-11.83,-12.686,-1.9589,-2.9206,-10.363,-9.6795,-13.526,2.807,-13.27,-1.9417,-2.0415
-5.7233,-10.413,-6.8608,-7.6923,-8.8889,-9.8077,-12.625,-6.8277,-15.449,-7.6923,-8.8889,-9.7735,-1.9589,-5.7778,-8.4676,-7.7564,-8.7179,2.807,-12.322,-3.8835,-6.8262
-0.06289,-3.746,1.877,-3.8462,-3.9869,-4.0385,-6.8277,-3.9291,-8.7179,-3.8462,-3.9869,-2.9773,-1.9589,-1.9683,-3.7283,-5.8333,-2.9487,0.89314,-11.374,0.0,-8.74
7.4843,3.873,11.586,1.9231,1.8954,1.7308,-0.06441,-0.06441,-4.8718,1.9231,1.8954,4.7896,8.4676,8.5079,4.8025,7.6282,8.5897,-1.9777,-4.7393,5.8252,8.4848
19.747999,8.6349,20.323999,4.8077,2.8758,10.385,4.7665,3.8003,-6.7949,4.8077,2.8758,10.615,8.4676,10.413,20.916,13.397,19.167,3.764,-3.7915,25.243,8.4848
15.975,7.6825,20.323999,5.7692,3.8562,11.346,4.7665,3.8003,-6.7949,5.7692,3.8562,13.528,6.5719,6.6032,18.073,8.5897,18.205,9.5056,-5.6872,9.7087,-1.0845
13.145,9.5873,20.323999,2.8846,-1.0458,10.385,0.90177,3.8003,-6.7949,2.8846,-1.0458,12.557,13.207,15.175,17.125,14.359,18.205,11.419,-2.8436,4.8544,1.7863
17.862,15.302,22.264999,2.8846,-0.06536,12.308,5.7327,2.8341,-7.7564,2.8846,-0.06536,13.528,19.841999,19.937,20.916,23.974001,21.09,12.376,1.8957,14.563,18.054001
9.3711,18.159,15.469,-2.8846,-3.9869,5.5769,4.7665,-5.8615,-5.8333,-2.8846,-3.9869,9.644,10.363,5.6508,13.333,22.051001,11.474,0.89314,5.6872,10.68,30.493999
8.4277,16.254,10.615,-4.8077,-3.0065,5.5769,6.6989,-2.963,-4.8718,-4.8077,-3.0065,8.6731,2.7804,3.746,14.281,13.397,2.8205,2.807,8.5308,22.33,24.753
-4.7799,3.873,-2.0065,0.0,-3.9869,1.7308,-0.06441,4.7665,-7.7564,0.0,-3.9869,3.8188,-1.0111,7.5556,-4.6761,-4.8718,-13.526,-0.0638,-3.7915,-2.9126,-9.697
-3.8365,5.7778,1.877,2.8846,-2.0261,2.6923,2.8341,3.8003,-7.7564,2.8846,-2.0261,6.7314,2.7804,9.4603,-9.4155,-1.9872,-11.603,0.89314,-1.8957,-14.563,-7.7831
6.5409,14.349,11.586,1.9231,-1.0458,10.385,11.53,4.7665,-7.7564,1.9231,-1.0458,14.498,-1.9589,-2.9206,1.9589,5.7051,-1.9872,0.89314,4.7393,0.97087,10.399
-1.9497,12.444,5.7605,8.6538,4.8366,10.385,12.496,9.5974,-1.9872,8.6538,4.8366,14.498,-6.6983,-2.9206,-5.624,0.89744,-3.9103,-1.9777,5.6872,-7.767,11.356
-3.8365,12.444,3.8188,13.462,11.699,11.346,15.395,10.564,6.6667,13.462,11.699,14.498,-3.8547,-3.873,-7.5197,2.8205,-1.9872,-3.8915,9.4787,-6.7961,7.5279
-6.6667,9.5873,1.877,10.577,10.719,8.4615,15.395,9.5974,8.5897,10.577,10.719,11.586,-2.9068,0.88889,-10.363,-0.0641,-1.9872,-10.59,8.5308,-7.767,-4.9123
-9.4969,12.444,5.7605,7.6923,10.719,2.6923,16.361,3.8003,11.474,7.6923,10.719,9.644,-1.0111,5.6508,-10.363,1.859,0.89744,-6.7624,12.322,-3.8835,5.614
-11.384,12.444,5.7605,2.8846,6.7974,-1.1538,12.496,-0.06441,9.5513,2.8846,6.7974,5.7605,1.8325,6.6032,-11.311,5.7051,1.859,-9.6332,10.427,-7.767,6.571
-3.8365,9.5873,7.7023,0.96154,5.817,0.76923,8.6312,-1.9968,3.7821,0.96154,5.817,4.7896,7.5197,9.4603,-6.5719,6.6667,3.7821,-3.8915,7.5829,-3.8835,3.7002
0.8805,3.873,4.7896,0.0,0.91503,-0.19231,-1.9968,-1.0306,-1.0256,0.0,0.91503,0.90615,5.624,5.6508,-0.88468,4.7436,2.8205,3.764,5.6872,0.0,8.4848
8.4277,1.9683,6.7314,-1.9231,-3.0065,-1.1538,-6.8277,-1.9968,-7.7564,-1.9231,-3.0065,-2.0065,2.7804,-6.7302,7.6461,11.474,8.5897,1.8501,4.7393,3.8835,24.753
14.088,1.9683,12.557,-5.7692,-10.85,-0.19231,-8.7601,-2.963,-12.564,-5.7692,-10.85,-2.9773,1.8325,-2.9206,16.177,14.359,16.282,-6.7624,-2.8436,10.68,10.399
20.691999,5.7778,20.323999,-3.8462,-5.9477,1.7308,-1.9968,-4.8953,-4.8718,-3.8462,-5.9477,2.8479,13.207,17.079,23.76,9.5513,23.013,10.463,-0.94787,9.7087,-6.8262
23.521999,11.492,25.177999,-2.8846,-2.0261,6.5385,3.8003,-2.963,2.8205,-2.8846,-2.0261,8.6731,16.997999,18.983999,26.603001,11.474,27.820999,17.160999,2.8436,10.68,-5.8692
25.409,17.205999,28.091,-0.96154,-1.0458,10.385,9.5974,-0.06441,-0.0641,-0.96154,-1.0458,12.557,12.259,9.4603,29.447001,22.051001,32.627998,13.333,3.7915,24.271999,6.571
18.805,22.921,27.120001,0.0,-0.06536,10.385,10.564,4.7665,1.859,0.0,-0.06536,13.528,10.363,10.413,23.76,29.743999,31.667,0.89314,8.5308,12.621,22.839001
5.5975,21.968,19.353001,1.9231,3.8562,8.4615,14.428,5.7327,5.7051,1.9231,3.8562,13.528,5.624,9.4603,8.594,23.974001,22.051001,-1.0207,9.4787,-3.8835,10.399
-7.6101,16.254,8.6731,3.8462,4.8366,6.5385,13.462,5.7327,8.5897,3.8462,4.8366,11.586,-0.06319,6.6032,-7.5197,12.436,5.7051,1.8501,8.5308,-12.621,-3.9553
-4.7799,7.6825,0.90615,4.8077,4.8366,8.4615,10.564,9.5974,7.6282,4.8077,4.8366,10.615,-2.9068,1.8413,-9.4155,2.8205,-4.8718,6.6348,6.6351,-3.8835,-5.8692
-1.0063,-1.8413,-4.9191,0.0,-2.0261,6.5385,1.868,6.6989,4.7436,0.0,-2.0261,3.8188,-13.333,-13.397,-9.4155,-5.8333,-14.487,0.89314,3.7915,-4.8544,2.7432
-0.06289,-11.365,-9.7735,-5.7692,-8.8889,0.76923,-8.7601,1.868,-1.0256,-5.7692,-8.8889,-5.89,-8.594,-9.5873,-4.6761,-11.603,-17.372,1.8501,-1.8957,1.9417,-2.9984
1.8239,-16.127001,-11.715,-9.6154,-11.83,-5.0,-15.523,0.90177,-5.8333,-9.6154,-11.83,-13.657,-5.7504,-9.5873,1.0111,-14.487,-14.487,6.6348,-5.6872,5.8252,-8.74
3.7107,-13.27,-10.744,-11.538,-12.81,-11.731,-16.49,-4.8953,-3.9103,-11.538,-12.81,-17.540001,-2.9068,-14.349,6.6983,-7.7564,-6.7949,1.8501,-4.7393,8.7379,-7.7831
-1.9497,-11.365,-11.715,-12.5,-10.85,-18.462,-15.523,-7.7939,-3.9103,-12.5,-10.85,-20.452999,1.8325,0.88889,4.8025,-5.8333,-1.0256,-1.9777,-3.7915,1.9417,-7.7831
-5.7233,-10.413,-11.715,-12.5,-10.85,-20.385,-14.557,-8.7601,-2.9487,-12.5,-10.85,-21.424,-1.9589,0.88889,3.8547,-1.0256,2.8205,-2.9346,-2.8436,3.8835,-3.9553
0.8805,-3.746,-3.9482,-5.7692,-3.9869,-12.692,-6.8277,-4.8953,-0.0641,-5.7692,-3.9869,-13.657,4.6761,6.6032,9.5419,6.6667,9.5513,2.807,0.0,11.65,2.7432
2.7673,5.7778,3.8188,-0.96154,0.91503,-4.0385,-0.06441,-1.9968,6.6667,-0.96154,0.91503,-4.9191,12.259,7.5556,10.49,16.282,14.359,5.6778,6.6351,7.767,14.226
-1.0063,8.6349,3.8188,1.9231,7.7778,-0.19231,5.7327,-3.9291,10.513,1.9231,7.7778,0.90615,8.4676,6.6032,0.06319,15.321,8.5897,-4.8485,12.322,-5.8252,10.399
-15.157,3.873,-8.8026,-2.8846,3.8562,-7.8846,2.8341,-16.49,9.5513,-2.8846,3.8562,-4.9191,-0.06319,6.6032,-14.155,3.7821,-6.7949,-17.289,12.322,-14.563,6.571
-17.044001,0.06349,-16.57,-3.8462,3.8562,-9.8077,0.90177,-14.557,8.5897,-3.8462,3.8562,-6.8608,-3.8547,3.746,-16.997999,-6.7949,-18.333,-16.332001,10.427,-7.767,14.226
-14.214,-5.6508,-18.511,-1.9231,1.8954,-5.0,-1.9968,-4.8953,5.7051,-1.9231,1.8954,-4.9191,-11.438,-11.492,-16.051001,-17.372,-26.025999,-6.7624,0.94787,-2.9126,-7.7831
-10.44,-8.5079,-16.57,0.96154,1.8954,0.76923,-0.06441,2.8341,1.859,0.96154,1.8954,-2.9773,-16.177,-17.205999,-16.997999,-26.025999,-26.987,3.764,-2.8436,-4.8544,-23.094
-11.384,-8.5079,-13.657,-2.8846,-2.0261,-5.9615,-3.9291,-1.9968,1.859,-2.8846,-2.0261,-6.8608,-10.49,-11.492,-18.893999,-20.256001,-21.218,-7.7193,-1.8957,-16.504999,-11.611
-9.4969,-6.6032,-7.8317,-4.8077,-4.9673,-8.8462,-6.8277,-4.8953,-1.9872,-4.8077,-4.9673,-10.744,-5.7504,-11.492,-12.259,-8.7179,-7.7564,-10.59,-1.8957,-16.504999,1.7863
-1.0063,-4.6984,-0.06472,-2.8846,-3.9869,-5.9615,-7.7939,0.90177,-2.9487,-2.8846,-3.9869,-8.8026,-4.8025,-10.54,0.06319,0.89744,4.7436,-1.9777,-1.8957,0.0,2.7432
7.4843,-0.88889,8.6731,-1.9231,-2.0261,-3.0769,-5.8615,-0.06441,-3.9103,-1.9231,-2.0261,-3.9482,6.5719,9.4603,8.594,6.6667,14.359,-1.9777,-2.8436,1.9417,-1.0845
9.3711,3.873,14.498,-4.8077,-3.9869,-4.0385,-3.9291,-1.0306,-6.7949,-4.8077,-3.9869,-2.9773,9.4155,11.365,8.594,12.436,18.205,-1.0207,0.0,3.8835,11.356
0.8805,2.9206,9.644,-7.6923,-7.9085,-8.8462,-8.7601,-3.9291,-5.8333,-7.6923,-7.9085,-7.8317,2.7804,6.6032,4.8025,12.436,14.359,-1.0207,2.8436,1.9417,12.313
-6.6667,-5.6508,-2.0065,-9.6154,-11.83,-12.692,-14.557,-6.8277,-8.7179,-9.6154,-11.83,-13.657,-1.0111,6.6032,-1.8325,1.859,4.7436,2.807,-3.7915,-2.9126,-2.0415
-8.5535,-9.4603,-10.744,-8.6538,-13.791,-10.769,-15.523,-3.9291,-10.641,-8.6538,-13.791,-15.599,-3.8547,0.88889,-5.624,-2.9487,-2.9487,0.89314,-10.427,-6.7961,-3.9553
-6.6667,-8.5079,-11.715,-4.8077,-7.9085,-5.0,-11.659,-1.0306,-8.7179,-4.8077,-7.9085,-9.7735,-5.7504,-3.873,-6.5719,-2.9487,-7.7564,5.6778,-7.5829,0.0,-3.9553
-9.4969,-7.5556,-14.628,-6.7308,-8.8889,-5.0,-10.692,-1.9968,-9.6795,-6.7308,-8.8889,-7.8317,-1.0111,-4.8254,-6.5719,-0.0641,-12.564,1.8501,-5.6872,3.8835,-0.12759
-11.384,-8.5079,-18.511,-3.8462,-5.9477,-5.0,-6.8277,-3.9291,-7.7564,-3.8462,-5.9477,-4.9191,-1.0111,-1.9683,-8.4676,-3.9103,-17.372,-1.9777,-6.6351,3.8835,1.7863
-8.5535,-8.5079,-15.599,0.0,-3.0065,1.7308,-3.9291,1.868,-4.8718,0.0,-3.0065,-0.06472,0.88468,5.6508,-5.624,-3.9103,-15.449,-2.9346,-5.6872,0.0,1.7863
-1.9497,-9.4603,-10.744,3.8462,-1.0458,6.5385,-1.9968,3.8003,-6.7949,3.8462,-1.0458,4.7896,2.7804,6.6032,-2.7804,-1.9872,-11.603,-10.59,-8.5308,-5.8252,-2.0415
-2.8931,-12.317,-8.8026,0.0,-3.0065,2.6923,-3.9291,-1.0306,-8.7179,0.0,-3.0065,1.877,0.88468,0.88889,-2.7804,-5.8333,-9.6795,-4.8485,-12.322,-6.7961,-14.482
0.8805,-7.5556,-1.0356,0.0,-1.0458,0.76923,-2.963,-2.963,-6.7949,0.0,-1.0458,1.877,4.6761,3.746,3.8547,-1.9872,-0.0641,7.5917,-8.5308,6.7961,-10.654
10.314,1.0159,9.644,0.96154,-1.0458,6.5385,-0.06441,0.90177,-2.9487,0.96154,-1.0458,6.7314,2.7804,1.8413,9.5419,6.6667,9.5513,8.5486,-5.6872,3.8835,11.356
13.145,1.9683,11.586,3.8462,1.8954,9.4231,4.7665,2.8341,-1.9872,3.8462,1.8954,10.615,2.7804,5.6508,11.438,2.8205,11.474,6.6348,-6.6351,13.592,-2.0415
7.4843,0.06349,7.7023,5.7692,2.8758,7.5,2.8341,5.7327,-1.9872,5.7692,2.8758,7.7023,3.7283,0.88889,6.6983,2.8205,7.6282,2.807,-5.6872,6.7961,-5.8692
-6.6667,-2.7937,-2.0065,1.9231,3.8562,-3.0769,0.90177,-1.0306,-1.0256,1.9231,3.8562,-0.06472,2.7804,-1.9683,-6.5719,0.89744,-1.9872,-4.8485,-2.8436,-7.767,-1.0845
-11.384,-5.6508,-6.8608,-0.96154,2.8758,-7.8846,-1.9968,-2.963,1.859,-0.96154,2.8758,-5.89,0.88468,4.6984,-11.311,-5.8333,-8.7179,-1.9777,-4.7393,-6.7961,-7.7831
-7.6101,-4.6984,-4.9191,0.0,2.8758,-6.9231,-1.0306,-3.9291,2.8205,0.0,2.8758,-4.9191,-1.0111,3.746,-9.4155,-9.6795,-9.6795,-2.9346,-2.8436,-2.9126,-10.654
-3.8365,-2.7937,-2.0065,0.96154,3.8562,-3.0769,1.868,-1.0306,1.859,0.96154,3.8562,-1.0356,-1.0111,-6.7302,-4.6761,-7.7564,-8.7179,3.764,-2.8436,1.9417,-3.9553
1.8239,-1.8413,-2.0065,0.0,1.8954,-0.19231,1.868,1.868,1.859,0.0,1.8954,-0.06472,-4.8025,-10.54,2.9068,-8.7179,-8.7179,4.7209,-3.7915,14.563,3.7002
5.5975,-0.88889,-1.0356,3.8462,4.8366,3.6538,5.7327,3.8003,3.7821,3.8462,4.8366,3.8188,-1.0111,-5.7778,6.6983,-5.8333,-3.9103,5.6778,-1.8957,16.504999,-0.12759
7.4843,-2.7937,-2.0065,6.7308,4.8366,6.5385,5.7327,9.5974,4.7436,6.7308,4.8366,4.7896,-0.06319,-3.873,9.5419,-3.9103,1.859,5.6778,-0.94787,0.97087,-12.568
14.088,-2.7937,3.8188,7.6923,5.817,9.4231,4.7665,9.5974,2.8205,7.6923,5.817,6.7314,3.7283,0.88889,15.229,-1.9872,9.5513,10.463,0.0,-1.9417,-8.74
16.917999,1.0159,11.586,7.6923,4.8366,12.308,4.7665,9.5974,2.8205,7.6923,4.8366,8.6731,3.7283,2.7937,19.968,-1.0256,15.321,18.118,0.0,6.7961,0.82935
19.747999,4.8254,18.382,8.6538,7.7778,14.231,9.5974,14.428,5.7051,8.6538,7.7778,12.557,4.6761,-2.9206,19.021,2.8205,17.243999,17.160999,1.8957,7.767,0.82935
13.145,7.6825,16.440001,5.7692,4.8366,11.346,11.53,11.53,7.6282,5.7692,4.8366,10.615,2.7804,-1.9683,11.438,1.859,14.359,5.6778,2.8436,0.0,-5.8692
6.5409,10.54,12.557,6.7308,6.7974,8.4615,15.395,3.8003,4.7436,6.7308,6.7974,11.586,-1.9589,-0.06349,5.7504,-1.9872,9.5513,0.89314,1.8957,-0.97087,-5.8692
14.088,17.205999,15.469,7.6923,5.817,14.231,14.428,6.6989,6.6667,7.6923,5.817,16.440001,-0.06319,-8.6349,17.125,11.474,13.397,6.6348,4.7393,21.358999,19.011
10.314,11.492,10.615,4.8077,3.8562,12.308,7.6651,2.8341,3.7821,4.8077,3.8562,12.557,6.5719,4.6984,8.594,9.5513,10.513,2.807,3.7915,-2.9126,8.4848
2.7673,5.7778,6.7314,0.96154,-0.06536,5.5769,1.868,-1.0306,0.89744,0.96154,-0.06536,5.7605,9.4155,12.317,1.0111,4.7436,7.6282,-0.0638,1.8957,-11.65,-6.8262
8.4277,8.6349,9.644,-0.96154,-2.0261,5.5769,0.90177,-0.06441,-2.9487,-0.96154,-2.0261,4.7896,6.5719,0.88889,11.438,16.282,13.397,4.7209,1.8957,14.563,7.5279
9.3711,11.492,13.528,-1.9231,-0.06536,9.4231,2.8341,2.8341,-0.0641,-1.9231,-0.06536,8.6731,8.4676,3.746,14.281,20.128,16.282,3.764,4.7393,14.563,15.183
-0.06289,10.54,10.615,0.0,3.8562,5.5769,3.8003,-4.8953,2.8205,0.0,3.8562,8.6731,11.311,19.937,1.0111,13.397,8.5897,-2.9346,6.6351,-4.8544,3.7002
-7.6101,6.7302,2.8479,0.0,3.8562,-2.1154,2.8341,-9.7262,4.7436,0.0,3.8562,4.7896,1.8325,8.5079,-12.259,3.7821,-5.8333,-8.6762,6.6351,-13.592,2.7432
-3.8365,8.6349,0.90615,2.8846,6.7974,-0.19231,8.6312,-2.963,8.5897,2.8846,6.7974,5.7605,-1.0111,1.8413,-7.5197,4.7436,-8.7179,-8.6762,8.5308,0.97087,7.5279
-0.06289,11.492,0.90615,7.6923,12.68,2.6923,15.395,0.90177,11.474,7.6923,12.68,8.6731,-1.0111,-4.8254,-1.8325,3.7821,-7.7564,-1.0207,7.5829,6.7961,8.4848
6.5409,10.54,3.8188,7.6923,13.66,9.4231,14.428,6.6989,14.359,7.6923,13.66,11.586,3.7283,1.8413,2.9068,1.859,-4.8718,7.5917,7.5829,4.8544,7.5279
6.5409,7.6825,6.7314,8.6538,14.641,7.5,13.462,2.8341,12.436,8.6538,14.641,10.615,3.7283,5.6508,2.9068,-0.0641,-0.0641,5.6778,9.4787,2.9126,0.82935
5.5975,8.6349,9.644,6.7308,9.7386,5.5769,10.564,2.8341,9.5513,6.7308,9.7386,7.7023,4.6761,0.88889,4.8025,6.6667,7.6282,4.7209,7.5829,3.8835,4.6571
10.314,10.54,13.528,8.6538,9.7386,7.5,10.564,7.6651,8.5897,8.6538,9.7386,7.7023,1.8325,1.8413,9.5419,10.513,14.359,3.764,7.5829,6.7961,13.27
13.145,10.54,15.469,10.577,10.719,10.385,9.5974,12.496,9.5513,10.577,10.719,7.7023,1.8325,6.6032,13.333,9.5513,17.243999,2.807,6.6351,10.68,4.6571
14.088,11.492,15.469,14.423,15.621,12.308,11.53,12.496,9.5513,14.423,15.621,11.586,0.88468,9.4603,8.594,6.6667,14.359,3.764,5.6872,-2.9126,-2.0415
13.145,15.302,17.410999,15.385,16.601,15.192,13.462,12.496,10.513,15.385,16.601,14.498,0.88468,5.6508,6.6983,9.5513,13.397,3.764,6.6351,-5.8252,5.614
15.975,16.254,18.382,17.308001,16.601,14.231,14.428,13.462,7.6282,17.308001,16.601,15.469,0.88468,-0.06349,10.49,12.436,15.321,2.807,6.6351,4.8544,11.356
12.201,10.54,13.528,14.423,12.68,9.4231,8.6312,11.53,6.6667,14.423,12.68,9.644,2.7804,0.88889,9.5419,7.6282,11.474,6.6348,5.6872,3.8835,8.4848
6.5409,4.8254,5.7605,17.308001,17.582001,8.4615,9.5974,12.496,12.436,17.308001,17.582001,8.6731,-2.9068,1.8413,2.9068,-2.9487,2.8205,13.333,3.7915,0.97087,-4.9123
2.7673,2.9206,1.877,22.115,20.523001,12.308,12.496,16.361,11.474,22.115,20.523001,13.528,-6.6983,-2.9206,-1.8325,-5.8333,-3.9103,12.376,1.8957,-4.8544,-6.8262
4.6541,1.9683,0.90615,19.231001,18.562,15.192,12.496,16.361,9.5513,19.231001,18.562,15.469,-0.06319,-1.9683,0.06319,-4.8718,-3.9103,6.6348,1.8957,0.97087,-3.9553
0.8805,-4.6984,-5.89,15.385,15.621,9.4231,6.6989,12.496,6.6667,15.385,15.621,8.6731,-3.8547,-10.54,-2.7804,-8.7179,-9.6795,1.8501,-3.7915,1.9417,-2.9984
-1.9497,-11.365,-10.744,14.423,12.68,1.7308,-0.06441,6.6989,0.89744,14.423,12.68,0.90615,-2.9068,-5.7778,-1.8325,-11.603,-9.6795,-1.9777,-8.5308,4.8544,-3.9553
-1.0063,-11.365,-8.8026,9.6154,7.7778,-1.1538,-1.9968,2.8341,-3.9103,9.6154,7.7778,-2.0065,0.88468,0.88889,1.0111,-7.7564,-3.9103,-0.0638,-9.4787,3.8835,-9.697
0.8805,-9.4603,-4.9191,5.7692,7.7778,-1.1538,-2.963,0.90177,-0.0641,5.7692,7.7778,-2.0065,1.8325,-1.9683,4.8025,-5.8333,1.859,5.6778,-8.5308,8.7379,-14.482
0.8805,-5.6508,-0.06472,2.8846,9.7386,-2.1154,-1.9968,-3.9291,4.7436,2.8846,9.7386,-1.0356,4.6761,-3.873,5.7504,-1.9872,5.7051,2.807,-0.94787,11.65,-5.8692
2.7673,-0.88889,3.8188,4.8077,6.7974,-1.1538,-1.0306,-1.0306,5.7051,4.8077,6.7974,0.90615,-0.06319,-1.9683,4.8025,0.89744,5.7051,0.89314,2.8436,8.7379,1.7863
-0.06289,1.0159,1.877,5.7692,5.817,-2.1154,1.868,-1.9968,2.8205,5.7692,5.817,-0.06472,-3.8547,-0.06349,-5.624,-2.9487,-0.0641,-1.9777,1.8957,-12.621,-0.12759
-3.8365,1.9683,-0.06472,4.8077,5.817,0.76923,1.868,4.7665,6.6667,4.8077,5.817,-0.06472,-3.8547,-1.0159,-11.311,-2.9487,-3.9103,-3.8915,3.7915,-18.447001,1.7863
-5.7233,3.873,-1.0356,3.8462,6.7974,-2.1154,4.7665,-1.0306,6.6667,3.8462,6.7974,0.90615,-5.7504,-2.9206,-9.4155,-2.9487,-4.8718,-1.0207,4.7393,-5.8252,4.6571
-8.5535,1.9683,-3.9482,2.8846,5.817,-4.0385,1.868,-0.06441,6.6667,2.8846,5.817,-2.0065,-4.8025,-1.0159,-10.363,-2.9487,-7.7564,-11.547,2.8436,-8.7379,5.614
-4.7799,-0.88889,-4.9191,0.96154,-0.06536,-5.9615,-1.9968,-0.06441,-1.9872,0.96154,-0.06536,-4.9191,-6.6983,-5.7778,-7.5197,-1.9872,-7.7564,-2.9346,-2.8436,-1.9417,-1.0845
-10.44,-2.7937,-9.7735,-4.8077,-5.9477,-12.692,-3.9291,-6.8277,-3.9103,-4.8077,-5.9477,-11.715,0.88468,2.7937,-6.5719,-1.9872,-7.7564,-2.9346,-5.6872,-0.97087,-2.9984
-14.214,-2.7937,-12.686,-3.8462,-2.0261,-10.769,-1.9968,-4.8953,1.859,-3.8462,-2.0261,-9.7735,1.8325,4.6984,-9.4155,0.89744,-6.7949,-3.8915,-1.8957,-3.8835,2.7432
-7.6101,-4.6984,-10.744,-1.9231,-1.0458,-2.1154,-2.963,-1.9968,0.89744,-1.9231,-1.0458,-2.0065,-2.9068,-0.06349,-9.4155,-1.9872,-6.7949,-4.8485,-0.94787,-7.767,-1.0845
-2.8931,-9.4603,-7.8317,0.96154,-0.06536,3.6538,-3.9291,0.90177,-2.9487,0.96154,-0.06536,3.8188,-4.8025,-1.9683,-8.4676,-7.7564,-7.7564,-4.8485,-4.7393,-10.68,-8.74
-1.0063,-13.27,-4.9191,0.96154,-0.06536,2.6923,-5.8615,-1.0306,-3.9103,0.96154,-0.06536,3.8188,-10.49,-7.6825,-7.5197,-13.526,-9.6795,-3.8915,-6.6351,-8.7379,-13.525
5.5975,-9.4603,-0.06472,4.8077,2.8758,6.5385,-2.963,0.90177,0.89744,4.8077,2.8758,4.7896,-9.5419,-8.6349,-2.7804,-10.641,-6.7949,0.89314,-2.8436,-4.8544,-0.12759
6.5409,-7.5556,0.90615,2.8846,2.8758,6.5385,0.90177,-0.06441,1.859,2.8846,2.8758,4.7896,-6.6983,-8.6349,-0.88468,-9.6795,-5.8333,3.764,0.94787,-2.9126,2.7432
2.7673,-5.6508,1.877,0.96154,2.8758,5.5769,2.8341,-1.0306,5.7051,0.96154,2.8758,5.7605,-5.7504,-10.54,-1.8325,-12.564,-4.8718,4.7209,1.8957,-2.9126,-7.7831
3.7107,-3.746,3.8188,1.9231,4.8366,4.6154,5.7327,-0.06441,4.7436,1.9231,4.8366,8.6731,1.8325,-1.0159,2.9068,-9.6795,-0.0641,-1.0207,0.0,2.9126,-13.525
0.8805,-0.88889,5.7605,0.0,0.91503,2.6923,3.8003,-1.0306,-1.9872,0.0,0.91503,6.7314,7.5197,4.6984,3.8547,-2.9487,4.7436,-2.9346,-2.8436,4.8544,-10.654
0.8805,5.7778,7.7023,2.8846,5.817,1.7308,8.6312,-0.06441,5.7051,2.8846,5.817,7.7023,5.624,1.8413,5.7504,3.7821,8.5897,0.89314,4.7393,11.65,4.6571
-6.6667,6.7302,0.90615,-1.9231,4.8366,-5.0,7.6651,-6.8277,12.436,-1.9231,4.8366,1.877,1.8325,0.88889,-0.88468,3.7821,3.7821,-4.8485,8.5308,-0.97087,12.313
-7.6101,4.8254,-3.9482,0.96154,8.7582,-5.9615,7.6651,-6.8277,9.5513,0.96154,8.7582,0.90615,-1.0111,-3.873,-8.4676,-0.0641,-2.9487,-1.9777,7.5829,-12.621,3.7002
-7.6101,-0.88889,-9.7735,-2.8846,-0.06536,-4.0385,-1.9968,-1.9968,0.89744,-2.8846,-0.06536,-2.9773,-1.9589,-1.0159,-8.4676,-5.8333,-6.7949,-0.0638,2.8436,-8.7379,-8.74
-1.9497,-5.6508,-11.715,-1.9231,-3.0065,-4.0385,-7.7939,-0.06441,-4.8718,-1.9231,-3.0065,-6.8608,-1.0111,-1.9683,-3.7283,-8.7179,-8.7179,1.8501,-1.8957,2.9126,-6.8262
-0.06289,-7.5556,-12.686,-1.9231,-4.9673,-3.0769,-10.692,2.8341,-4.8718,-1.9231,-4.9673,-8.8026,-9.5419,-12.444,-2.7804,-9.6795,-12.564,7.5917,-3.7915,8.7379,-2.0415
0.8805,-3.746,-8.8026,-5.7692,-4.9673,-5.0,-5.8615,-1.0306,-4.8718,-5.7692,-4.9673,-7.8317,-12.385,-18.159,-0.88468,-2.9487,-11.603,-1.9777,0.0,7.767,11.356
5.5975,0.06349,-2.0065,-3.8462,-5.9477,0.76923,-3.9291,3.8003,-2.9487,-3.8462,-5.9477,-4.9191,-4.8025,-15.302,3.8547,5.7051,-3.9103,-1.9777,0.94787,4.8544,17.097
1.8239,-4.6984,-2.0065,-5.7692,-8.8889,-4.0385,-8.7601,-3.9291,-7.7564,-5.7692,-8.8889,-6.8608,0.88468,6.6032,4.8025,-0.0641,-0.0641,5.6778,-5.6872,1.9417,-4.9123
-11.384,-10.413,-9.7735,-12.5,-11.83,-16.538,-13.591,-13.591,-6.7949,-12.5,-11.83,-16.57,7.5197,18.983999,-4.6761,-4.8718,-2.9487,-6.7624,-6.6351,-6.7961,-18.309
-13.27,-4.6984,-8.8026,-10.577,-7.9085,-18.462,-8.7601,-12.625,-1.0256,-10.577,-7.9085,-17.540001,12.259,12.317,-2.7804,7.6282,3.7821,-8.6762,1.8957,0.0,3.7002
-7.6101,0.06349,-2.9773,-7.6923,-5.9477,-14.615,-3.9291,-9.7262,-0.0641,-7.6923,-5.9477,-12.686,15.103,13.27,4.8025,15.321,10.513,-3.8915,4.7393,10.68,12.313
-2.8931,-0.88889,-2.0065,-9.6154,-5.9477,-11.731,-2.963,-11.659,-1.9872,-9.6154,-5.9477,-9.7735,12.259,13.27,2.9068,10.513,7.6282,-19.202999,1.8957,0.97087,4.6571
-2.8931,-2.7937,-3.9482,-7.6923,-7.9085,-8.8462,-6.8277,-7.7939,-5.8333,-7.6923,-7.9085,-8.8026,6.5719,-1.0159,0.06319,6.6667,1.859,-1.9777,-1.8957,0.97087,11.356
0.8805,-0.88889,-1.0356,-4.8077,-5.9477,-3.0769,-4.8953,-2.963,-3.9103,-4.8077,-5.9477,-4.9191,1.8325,-9.5873,1.0111,3.7821,0.89744,7.5917,-1.8957,-1.9417,10.399
3.7107,-2.7937,0.90615,-5.7692,-3.9869,0.76923,-2.963,-3.9291,-5.8333,-5.7692,-3.9869,-2.9773,-1.0111,-2.9206,-1.8325,-5.8333,-1.0256,-0.0638,-2.8436,-9.7087,-4.9123
5.5975,-6.6032,0.90615,-7.6923,-8.8889,0.76923,-10.692,-4.8953,-7.7564,-7.6923,-8.8889,-3.9482,-2.9068,-4.8254,2.9068,-10.641,-1.0256,-1.9777,-7.5829,6.7961,-14.482
9.3711,-2.7937,5.7605,-4.8077,-6.9281,4.6154,-8.7601,-1.9968,-8.7179,-4.8077,-6.9281,0.90615,-2.9068,-1.9683,5.7504,-6.7949,3.7821,-1.0207,-5.6872,5.8252,-3.9553
6.5409,0.06349,7.7023,-5.7692,-6.9281,3.6538,-5.8615,-2.963,-7.7564,-5.7692,-6.9281,0.90615,-0.06319,0.88889,6.6983,-1.0256,8.5897,-4.8485,-3.7915,-2.9126,-1.0845
4.6541,0.06349,6.7314,-5.7692,-5.9477,-0.19231,-4.8953,-4.8953,-6.7949,-5.7692,-5.9477,-0.06472,7.5197,5.6508,8.594,5.7051,11.474,3.764,-3.7915,1.9417,1.7863
-1.0063,-2.7937,3.8188,-7.6923,-8.8889,-4.0385,-8.7601,-5.8615,-8.7179,-7.6923,-8.8889,-3.9482,8.4676,9.4603,7.6461,5.7051,10.513,-1.9777,-7.5829,4.8544,-3.9553
-1.9497,-3.746,1.877,-7.6923,-6.9281,-7.8846,-8.7601,-9.7262,-7.7564,-7.6923,-6.9281,-6.8608,10.363,9.4603,5.7504,8.5897,12.436,-2.9346,-5.6872,6.7961,0.82935
-7.6101,-7.5556,-2.9773,-8.6538,-9.8693,-10.769,-13.591,-6.8277,-9.6795,-8.6538,-9.8693,-10.744,9.4155,10.413,1.9589,5.7051,10.513,-3.8915,-8.5308,2.9126,-5.8692
-3.8365,-3.746,-1.0356,-2.8846,-5.9477,-5.9615,-9.7262,-1.9968,-10.641,-2.8846,-5.9477,-5.89,11.311,11.365,4.8025,7.6282,10.513,2.807,-6.6351,12.621,4.6571
-8.5535,-7.5556,-7.8317,-2.8846,-6.9281,-5.0,-11.659,-1.9968,-8.7179,-2.8846,-6.9281,-5.89,-0.06319,2.7937,-4.6761,-3.9103,-5.8333,-1.0207,-7.5829,5.8252,-0.12759
-9.4969,-7.5556,-12.686,0.96154,-2.0261,-0.19231,-7.7939,2.8341,-5.8333,0.96154,-2.0261,-0.06472,-9.5419,-9.5873,-15.103,-11.603,-20.256001,-4.8485,-4.7393,-6.7961,2.7432
-6.6667,-2.7937,-10.744,4.8077,1.8954,8.4615,1.868,8.6312,-1.0256,4.8077,1.8954,6.7314,-18.073,-18.159,-19.841999,-12.564,-26.025999,-3.8915,-3.7915,-19.417,2.7432
-9.4969,-8.5079,-14.628,0.0,-3.0065,4.6154,-1.0306,2.8341,-3.9103,0.0,-3.0065,2.8479,-23.76,-12.444,-22.686001,-20.256001,-29.872,-5.8054,-7.5829,-21.358999,-19.266001
-7.6101,-11.365,-13.657,-4.8077,-7.9085,-0.19231,-4.8953,-2.963,-7.7564,-4.8077,-7.9085,-2.9773,-13.333,-1.0159,-16.051001,-18.333,-23.141001,-12.504,-6.6351,-12.621,-22.136999
-3.8365,-5.6508,-8.8026,-7.6923,-10.85,-4.0385,-5.8615,-3.9291,-7.7564,-7.6923,-10.85,-8.8026,-1.0111,1.8413,-4.6761,-2.9487,-8.7179,-1.9777,-1.8957,-0.97087,4.6571
-2.8931,-5.6508,-6.8608,-11.538,-12.81,-10.769,-8.7601,-6.8277,-7.7564,-11.538,-12.81,-15.599,0.88468,-1.0159,3.8547,7.6282,0.89744,7.5917,-1.8957,8.7379,13.27
-5.7233,-10.413,-9.7735,-15.385,-16.732,-18.462,-15.523,-14.557,-8.7179,-15.385,-16.732,-23.365999,9.4155,7.5556,4.8025,5.7051,1.859,-2.9346,-4.7393,6.7961,-2.0415
-5.7233,-7.5556,-5.89,-13.462,-13.791,-20.385,-14.557,-14.557,-7.7564,-13.462,-13.791,-23.365999,14.155,11.365,4.8025,8.5897,4.7436,-4.8485,0.0,11.65,8.4848
-5.7233,-0.88889,-1.0356,-8.6538,-9.8693,-16.538,-9.7262,-9.7262,-2.9487,-8.6538,-9.8693,-17.540001,8.4676,7.5556,3.8547,6.6667,5.7051,-2.9346,3.7915,9.7087,12.313
-8.5535,0.06349,2.8479,-4.8077,-3.9869,-13.654,-5.8615,-9.7262,-0.0641,-4.8077,-3.9869,-11.715,7.5197,11.365,-6.5719,0.89744,2.8205,-8.6762,1.8957,-14.563,-6.8262
-6.6667,2.9206,7.7023,-3.8462,-3.0065,-7.8846,-2.963,-6.8277,3.7821,-3.8462,-3.0065,-5.89,5.624,10.413,-5.624,5.7051,6.6667,-10.59,3.7915,-12.621,-2.9984
-0.06289,10.54,14.498,1.9231,5.817,-2.1154,6.6989,-7.7939,6.6667,1.9231,5.817,1.877,6.5719,1.8413,0.06319,13.397,12.436,-7.7193,6.6351,-0.97087,6.571
11.258,17.205999,20.323999,7.6923,11.699,13.269,15.395,1.868,12.436,7.6923,11.699,14.498,0.88468,4.6984,6.6983,13.397,11.474,-0.0638,9.4787,7.767,10.399
15.975,19.111,21.294001,19.231001,18.562,23.846001,21.191999,13.462,13.397,19.231001,18.562,24.207001,-1.9589,4.6984,3.8547,11.474,8.5897,7.5917,11.374,0.97087,11.356
14.088,14.349,17.410999,19.231001,15.621,22.885,16.361,16.361,8.5897,19.231001,15.621,22.264999,-0.06319,0.88889,4.8025,5.7051,5.7051,9.5056,5.6872,5.8252,-1.0845
15.975,15.302,18.382,19.231001,17.582001,22.885,20.225,17.327,7.6282,19.231001,17.582001,23.236,3.7283,3.746,4.8025,3.7821,8.5897,6.6348,5.6872,-6.7961,-2.9984
16.917999,14.349,20.323999,19.231001,16.601,22.885,16.361,16.361,9.5513,19.231001,16.601,22.264999,3.7283,3.746,6.6983,6.6667,12.436,6.6348,5.6872,-11.65,-2.0415
21.635,15.302,23.236,18.268999,15.621,23.846001,13.462,18.292999,9.5513,18.268999,15.621,21.294001,1.8325,0.88889,14.281,10.513,19.167,10.463,6.6351,2.9126,0.82935
23.521999,17.205999,24.207001,14.423,9.7386,20.962,12.496,15.395,4.7436,14.423,9.7386,19.353001,-2.9068,-10.54,19.021,13.397,23.974001,5.6778,7.5829,11.65,11.356
21.635,16.254,21.294001,9.6154,6.7974,17.115,10.564,12.496,5.7051,9.6154,6.7974,14.498,-1.0111,-3.873,19.968,15.321,24.936001,8.5486,7.5829,13.592,10.399
19.747999,7.6825,11.586,12.5,8.7582,13.269,4.7665,18.292999,5.7051,12.5,8.7582,7.7023,5.624,6.6032,17.125,8.5897,19.167,13.333,2.8436,7.767,-4.9123
13.145,1.0159,2.8479,4.8077,-2.0261,7.5,-2.963,13.462,-2.9487,4.8077,-2.0261,0.90615,7.5197,5.6508,12.385,6.6667,11.474,7.5917,-1.8957,8.7379,-4.9123
6.5409,1.0159,-0.06472,-2.8846,-4.9673,1.7308,-1.9968,5.7327,-5.8333,-2.8846,-4.9673,-1.0356,-5.7504,-9.5873,9.5419,3.7821,3.7821,15.247,0.0,15.534,7.5279
-4.7799,-4.6984,-6.8608,-0.96154,-5.9477,-0.19231,-3.9291,5.7327,-3.9103,-0.96154,-5.9477,-3.9482,-11.438,-8.6349,-4.6761,-5.8333,-6.7949,-1.9777,-1.8957,-8.7379,-3.9553
-1.0063,-1.8413,-2.9773,1.9231,-3.9869,4.6154,0.90177,8.6312,-5.8333,1.9231,-3.9869,1.877,-2.9068,2.7937,-2.7804,-2.9487,-3.9103,3.764,0.0,-5.8252,-2.0415
0.8805,1.0159,1.877,-0.96154,-5.9477,6.5385,-0.06441,5.7327,-1.9872,-0.96154,-5.9477,3.8188,2.7804,2.7937,1.0111,2.8205,0.89744,7.5917,1.8957,-1.9417,1.7863
2.7673,1.0159,3.8188,0.0,-3.0065,9.4231,0.90177,6.6989,-1.9872,0.0,-3.0065,6.7314,1.8325,-1.0159,4.8025,2.8205,3.7821,1.8501,0.0,8.7379,-0.12759
6.5409,4.8254,7.7023,1.9231,-1.0458,12.308,3.8003,6.6989,-1.0256,1.9231,-1.0458,10.615,-0.06319,-1.9683,7.6461,2.8205,6.6667,-1.0207,-0.94787,5.8252,2.7432
5.5975,9.5873,13.528,3.8462,4.8366,13.269,9.5974,5.7327,3.7821,3.8462,4.8366,15.469,7.5197,8.5079,5.7504,6.6667,10.513,-1.9777,1.8957,-1.9417,1.7863
8.4277,13.397,17.410999,6.7308,7.7778,15.192,13.462,11.53,7.6282,6.7308,7.7778,17.410999,7.5197,2.7937,7.6461,11.474,12.436,-6.7624,7.5829,9.7087,5.614
6.5409,12.444,12.557,7.6923,8.7582,12.308,13.462,9.5974,7.6282,7.6923,8.7582,14.498,-0.06319,-1.9683,2.9068,6.6667,6.6667,0.89314,11.374,-0.97087,12.313
-4.7799,2.9206,-0.06472,2.8846,2.8758,1.7308,4.7665,0.90177,3.7821,2.8846,2.8758,3.8188,-8.594,-3.873,-9.4155,-6.7949,-5.8333,3.764,4.7393,-13.592,4.6571
-12.327,-3.746,-8.8026,0.0,-1.0458,-4.0385,-1.0306,0.90177,-1.9872,0.0,-1.0458,-2.0065,-11.438,-3.873,-14.155,-10.641,-11.603,-0.0638,0.0,-17.476,-4.9123
-10.44,-6.6032,-9.7735,-0.96154,-4.9673,-5.9615,-3.9291,1.868,-2.9487,-0.96154,-4.9673,-3.9482,-8.594,-7.6825,-12.259,-10.641,-11.603,-1.9777,-2.8436,-13.592,-9.697
-2.8931,-7.5556,-6.8608,-5.7692,-8.8889,-8.8462,-7.7939,-2.963,-4.8718,-5.7692,-8.8889,-8.8026,-4.8025,-8.6349,-3.7283,-6.7949,-7.7564,-6.7624,-1.8957,0.97087,-0.12759
-2.8931,-10.413,-6.8608,-10.577,-13.791,-15.577,-14.557,-7.7939,-6.7949,-10.577,-13.791,-15.599,-4.8025,-11.492,-2.7804,-3.9103,-4.8718,-2.9346,-2.8436,0.97087,2.7432
-3.8365,-13.27,-7.8317,-14.423,-19.673,-19.423,-22.287001,-8.7601,-11.603,-14.423,-19.673,-21.424,-1.9589,-0.06349,-3.7283,-4.8718,-2.9487,6.6348,-7.5829,-6.7961,-8.74
-1.0063,-13.27,-4.9191,-15.385,-19.673,-16.538,-20.354,-5.8615,-14.487,-15.385,-19.673,-21.424,1.8325,6.6032,-1.8325,-4.8718,-0.0641,3.764,-7.5829,-1.9417,-7.7831
0.8805,-12.317,-3.9482,-14.423,-21.634001,-13.654,-20.354,-2.963,-13.526,-14.423,-21.634001,-20.452999,0.88468,-1.0159,-0.88468,-3.9103,1.859,-0.0638,-6.6351,-2.9126,-5.8692
-1.9497,-13.27,-5.89,-10.577,-17.712,-12.692,-17.455999,-2.963,-14.487,-10.577,-17.712,-18.511,-5.7504,-1.9683,-2.7804,-6.7949,-0.0641,1.8501,-9.4787,-6.7961,-14.482
-1.9497,-10.413,-5.89,-8.6538,-15.752,-7.8846,-14.557,-1.0306,-11.603,-8.6538,-15.752,-12.686,-4.8025,-2.9206,-0.88468,-5.8333,-1.9872,-2.9346,-8.5308,0.97087,-12.568
-5.7233,-4.6984,-8.8026,-4.8077,-9.8693,-2.1154,-6.8277,0.90177,-8.7179,-4.8077,-9.8693,-5.89,-6.6983,-15.302,-3.7283,-3.9103,-8.7179,2.807,-3.7915,6.7961,5.614
-14.214,-4.6984,-15.599,-4.8077,-6.9281,-2.1154,-2.963,-1.0306,-2.9487,-4.8077,-6.9281,-3.9482,-9.5419,-11.492,-13.207,-7.7564,-19.295,2.807,-0.94787,-5.8252,7.5279
-19.874001,-2.7937,-18.511,-0.96154,-1.0458,-1.1538,6.6989,-1.0306,-0.0641,-0.96154,-1.0458,1.877,-7.6461,-3.873,-20.790001,-12.564,-27.948999,-1.0207,0.94787,-8.7379,-3.9553
-20.818001,-0.88889,-19.482,-0.96154,-0.06536,-0.19231,7.6651,-3.9291,2.8205,-0.96154,-0.06536,4.7896,-5.7504,3.746,-21.738001,-15.449,-32.756001,-11.547,3.7915,-6.7961,-10.654
-8.5535,4.8254,-8.8026,0.96154,4.8366,5.5769,12.496,-4.8953,5.7051,0.96154,4.8366,11.586,-1.9589,-0.06349,-11.311,-5.8333,-22.179001,-4.8485,7.5829,-0.97087,3.7002
-2.8931,8.6349,-1.0356,0.0,3.8562,9.4231,13.462,-1.0306,5.7051,0.0,3.8562,13.528,-4.8025,-4.8254,-7.5197,-3.9103,-13.526,-5.8054,7.5829,-8.7379,5.614
-0.06289,6.7302,0.90615,0.0,6.7974,4.6154,12.496,-5.8615,5.7051,0.0,6.7974,9.644,-3.8547,-1.9683,-0.88468,-3.9103,-4.8718,-3.8915,4.7393,-0.97087,0.82935
5.5975,3.873,3.8188,0.0,6.7974,0.76923,8.6312,-8.7601,3.7821,0.0,6.7974,6.7314,5.624,4.6984,5.7504,-1.0256,2.8205,2.807,1.8957,5.8252,-2.9984
4.6541,5.7778,6.7314,1.9231,6.7974,0.76923,8.6312,-4.8953,3.7821,1.9231,6.7974,7.7023,4.6761,1.8413,3.8547,2.8205,5.7051,-1.0207,3.7915,1.9417,0.82935
4.6541,8.6349,10.615,3.8462,7.7778,1.7308,9.5974,-0.06441,5.7051,3.8462,7.7778,8.6731,-4.8025,-8.6349,4.8025,9.5513,9.5513,2.807,4.7393,6.7961,10.399
4.6541,4.8254,7.7023,3.8462,6.7974,0.76923,8.6312,0.90177,2.8205,3.8462,6.7974,3.8188,-1.9589,-0.06349,5.7504,6.6667,9.5513,0.89314,2.8436,3.8835,7.5279
-1.9497,-2.7937,-2.0065,3.8462,5.817,-4.0385,-1.0306,3.8003,0.89744,3.8462,5.817,-3.9482,11.311,16.127001,0.06319,1.859,6.6667,-1.9777,0.0,-4.8544,2.7432
-4.7799,-6.6032,-6.8608,0.96154,0.91503,-5.9615,-8.7601,3.8003,-1.9872,0.96154,0.91503,-9.7735,3.7283,-1.0159,-0.88468,-0.0641,0.89744,-1.9777,-1.8957,-0.97087,7.5279
-8.5535,-10.413,-10.744,-1.9231,-1.0458,-11.731,-10.692,-1.9968,-6.7949,-1.9231,-1.0458,-13.657,-10.49,-13.397,-2.7804,-7.7564,-7.7564,-2.9346,-6.6351,3.8835,-5.8692
-15.157,-14.222,-14.628,-5.7692,-5.9477,-15.577,-14.557,-5.8615,-7.7564,-5.7692,-5.9477,-16.57,-4.8025,-3.873,-9.4155,-13.526,-14.487,-0.0638,-10.427,-7.767,-20.223
-10.44,-15.175,-13.657,-5.7692,-4.9673,-9.8077,-12.625,-3.9291,-8.7179,-5.7692,-4.9673,-12.686,1.8325,-1.9683,-6.5719,-10.641,-12.564,0.89314,-10.427,-2.9126,-12.568
-4.7799,-11.365,-8.8026,-10.577,-10.85,-9.8077,-15.523,-5.8615,-10.641,-10.577,-10.85,-12.686,9.4155,-1.9683,2.9068,1.859,-3.9103,4.7209,-12.322,5.8252,5.614
2.7673,-11.365,-4.9191,-10.577,-12.81,-9.8077,-17.455999,-6.8277,-16.41,-10.577,-12.81,-11.715,7.5197,-1.9683,10.49,-1.0256,0.89744,6.6348,-12.322,12.621,1.7863
7.4843,-8.5079,0.90615,-19.231001,-19.673,-9.8077,-18.422001,-9.7262,-17.372,-19.231001,-19.673,-12.686,5.624,8.5079,15.229,-1.9872,7.6282,5.6778,-10.427,14.563,-8.74
9.3711,-4.6984,3.8188,-18.268999,-18.693001,-9.8077,-15.523,-9.7262,-15.449,-18.268999,-18.693001,-11.715,12.259,11.365,18.073,6.6667,13.397,8.5486,-7.5829,18.447001,-5.8692
6.5409,-2.7937,0.90615,-12.5,-15.752,-6.9231,-9.7262,-4.8953,-12.564,-12.5,-15.752,-9.7735,11.311,9.4603,14.281,8.5897,9.5513,4.7209,-6.6351,13.592,-2.0415
-1.9497,-2.7937,-2.0065,-12.5,-13.791,-6.9231,-6.8277,-4.8953,-5.8333,-12.5,-13.791,-7.8317,4.6761,5.6508,1.0111,-0.0641,-0.0641,-0.0638,-2.8436,-5.8252,-5.8692
-5.7233,-4.6984,-2.0065,-14.423,-13.791,-5.0,-6.8277,-4.8953,-1.9872,-14.423,-13.791,-3.9482,-6.6983,-6.7302,-6.5719,-8.7179,-7.7564,-5.8054,-4.7393,-9.7087,-6.8262
3.7107,1.9683,5.7605,-13.462,-11.83,3.6538,1.868,-5.8615,-2.9487,-13.462,-11.83,5.7605,-1.0111,-4.8254,1.9589,-1.0256,-1.0256,-1.0207,0.0,4.8544,0.82935
8.4277,7.6825,9.644,-8.6538,-6.9281,11.346,8.6312,-1.0306,2.8205,-8.6538,-6.9281,12.557,0.88468,-1.9683,2.9068,4.7436,0.89744,-0.0638,4.7393,4.8544,8.4848
3.7107,6.7302,3.8188,-1.9231,-1.0458,11.346,10.564,3.8003,5.7051,-1.9231,-1.0458,12.557,0.88468,5.6508,-0.88468,2.8205,-1.0256,0.89314,3.7915,0.97087,2.7432
-0.06289,1.9683,-0.06472,-3.8462,-3.9869,6.5385,4.7665,2.8341,2.8205,-3.8462,-3.9869,5.7605,1.8325,5.6508,-1.8325,-1.0256,-1.9872,-1.9777,1.8957,0.97087,-3.9553
2.7673,1.9683,1.877,-6.7308,-6.9281,2.6923,-0.06441,0.90177,0.89744,-6.7308,-6.9281,0.90615,-0.06319,-1.9683,0.06319,3.7821,-0.0641,-0.0638,2.8436,2.9126,12.313
-3.8365,-1.8413,-1.0356,-9.6154,-9.8693,-5.9615,-4.8953,-4.8953,-2.9487,-9.6154,-9.8693,-5.89,-0.06319,-5.7778,-4.6761,1.859,-2.9487,-1.0207,0.94787,-1.9417,10.399
-6.6667,-8.5079,-6.8608,-6.7308,-10.85,-6.9231,-9.7262,1.868,-3.9103,-6.7308,-10.85,-9.7735,-0.06319,3.746,-8.4676,-3.9103,-5.8333,-1.0207,-3.7915,-6.7961,-8.74
-7.6101,-8.5079,-12.686,-2.8846,-3.9869,-10.769,-3.9291,-1.0306,-3.9103,-2.8846,-3.9869,-11.715,-1.9589,1.8413,-10.363,-6.7949,-9.6795,0.89314,-5.6872,-6.7961,-8.74
-12.327,-14.222,-18.511,-5.7692,-6.9281,-14.615,-9.7262,-4.8953,-0.0641,-5.7692,-6.9281,-16.57,-11.438,-5.7778,-14.155,-16.41,-17.372,-1.0207,-7.5829,-10.68,-16.396
-8.5535,-14.222,-15.599,-4.8077,-3.9869,-12.692,-8.7601,-3.9291,0.89744,-4.8077,-3.9869,-13.657,-14.281,-12.444,-13.207,-18.333,-17.372,-1.9777,-5.6872,-9.7087,-10.654
-5.7233,-9.4603,-10.744,-5.7692,-4.9673,-8.8462,-6.8277,-1.0306,2.8205,-5.7692,-4.9673,-9.7735,-9.5419,-17.205999,-8.4676,-11.603,-12.564,-5.8054,-0.94787,-4.8544,1.7863
-4.7799,-6.6032,-9.7735,-4.8077,-1.0458,-6.9231,-1.9968,-4.8953,4.7436,-4.8077,-1.0458,-7.8317,-7.6461,-6.7302,-8.4676,-10.641,-11.603,-13.461,2.8436,-6.7961,-2.0415
-5.7233,-0.88889,-5.89,-4.8077,-1.0458,-5.0,0.90177,-5.8615,6.6667,-4.8077,-1.0458,-4.9191,-2.9068,-7.6825,-6.5719,-2.9487,-7.7564,-4.8485,8.5308,-9.7087,8.4848
-1.9497,2.9206,0.90615,-3.8462,-0.06536,-2.1154,3.8003,-3.9291,4.7436,-3.8462,-0.06536,-0.06472,0.88468,-3.873,1.0111,-1.0256,-1.0256,7.5917,7.5829,2.9126,2.7432
-1.0063,4.8254,3.8188,-5.7692,-2.0261,-0.19231,3.8003,-9.7262,3.7821,-5.7692,-2.0261,1.877,2.7804,5.6508,0.06319,-0.0641,1.859,-1.9777,3.7915,-6.7961,-2.0415
3.7107,5.7778,6.7314,-1.9231,-1.0458,7.5,6.6989,-0.06441,2.8205,-1.9231,-1.0458,6.7314,3.7283,7.5556,1.0111,0.89744,2.8205,-1.0207,3.7915,-6.7961,-0.12759
-1.0063,2.9206,1.877,-3.8462,-2.0261,0.76923,1.868,-3.9291,2.8205,-3.8462,-2.0261,1.877,-1.0111,1.8413,-0.88468,-1.9872,-0.0641,-5.8054,1.8957,0.97087,-4.9123
-7.6101,2.9206,-1.0356,-3.8462,0.91503,-6.9231,1.868,-9.7262,6.6667,-3.8462,0.91503,-1.0356,-3.8547,0.88889,-4.6761,-0.0641,-1.0256,-4.8485,4.7393,-6.7961,0.82935
-7.6101,7.6825,0.90615,-2.8846,2.8758,-5.0,5.7327,-6.8277,7.6282,-2.8846,2.8758,0.90615,-1.9589,3.746,-4.6761,3.7821,0.89744,-4.8485,7.5829,-8.7379,1.7863
2.7673,12.444,6.7314,0.96154,4.8366,3.6538,8.6312,-1.9968,8.5897,0.96154,4.8366,6.7314,5.624,6.6032,3.8547,8.5897,6.6667,-2.9346,10.427,5.8252,8.4848
3.7107,12.444,7.7023,4.8077,5.817,9.4231,9.5974,3.8003,7.6282,4.8077,5.817,9.644,3.7283,-7.6825,5.7504,11.474,7.6282,-0.0638,9.4787,8.7379,19.011
-2.8931,1.0159,-1.0356,3.8462,1.8954,6.5385,1.868,5.7327,2.8205,3.8462,1.8954,4.7896,-5.7504,-3.873,-2.7804,1.859,-1.0256,-1.9777,2.8436,-1.9417,5.614
-0.06289,-5.6508,-3.9482,6.7308,3.8562,6.5385,0.90177,7.6651,0.89744,6.7308,3.8562,4.7896,-1.0111,7.5556,-3.7283,-0.0641,-1.0256,0.89314,0.0,-4.8544,-2.0415
9.3711,-1.8413,-0.06472,6.7308,5.817,8.4615,4.7665,9.5974,1.859,6.7308,5.817,5.7605,1.8325,2.7937,6.6983,4.7436,2.8205,1.8501,0.94787,7.767,0.82935
1.8239,-4.6984,-3.9482,5.7692,5.817,1.7308,3.8003,2.8341,4.7436,5.7692,5.817,1.877,-1.9589,-1.9683,-1.8325,-2.9487,-1.9872,-0.0638,-2.8436,-5.8252,-3.9553
-7.6101,-7.5556,-8.8026,2.8846,2.8758,-5.0,-2.963,-1.0306,5.7051,2.8846,2.8758,-3.9482,2.7804,0.88889,-8.4676,-7.7564,-4.8718,-1.9777,-4.7393,-10.68,-6.8262
-6.6667,-7.5556,-8.8026,1.9231,3.8562,-5.0,-3.9291,-1.0306,2.8205,1.9231,3.8562,-4.9191,-2.9068,-5.7778,-8.4676,-7.7564,-5.8333,-2.9346,-2.8436,-5.8252,-4.9123
-10.44,-2.7937,-5.89,0.96154,3.8562,-7.8846,-1.0306,-5.8615,4.7436,0.96154,3.8562,-5.89,-4.8025,-2.9206,-8.4676,-7.7564,-6.7949,-10.59,-0.94787,-5.8252,-4.9123
-4.7799,4.8254,2.8479,3.8462,8.7582,-5.9615,6.6989,-7.7939,8.5897,3.8462,8.7582,-0.06472,3.7283,2.7937,0.06319,0.89744,1.859,-9.6332,4.7393,7.767,1.7863
-1.0063,8.6349,4.7896,0.96154,3.8562,-5.0,5.7327,-8.7601,6.6667,0.96154,3.8562,-0.06472,9.4155,3.746,7.6461,8.5897,7.6282,-0.0638,4.7393,14.563,7.5279
-3.8365,6.7302,1.877,-2.8846,3.8562,-6.9231,5.7327,-12.625,4.7436,-2.8846,3.8562,-2.0065,5.624,1.8413,3.8547,7.6282,6.6667,-1.9777,3.7915,5.8252,4.6571
-2.8931,8.6349,3.8188,-3.8462,2.8758,-5.0,5.7327,-11.659,3.7821,-3.8462,2.8758,-1.0356,-0.06319,-1.9683,-0.88468,11.474,5.7051,-3.8915,5.6872,-6.7961,16.139999
4.6541,12.444,10.615,-0.96154,4.8366,-1.1538,11.53,-7.7939,3.7821,-0.96154,4.8366,3.8188,11.311,12.317,4.8025,14.359,11.474,1.8501,8.5308,2.9126,19.011
9.3711,12.444,13.528,-0.96154,4.8366,0.76923,10.564,-7.7939,5.7051,-0.96154,4.8366,5.7605,10.363,15.175,9.5419,9.5513,11.474,-0.0638,7.5829,11.65,0.82935
8.4277,11.492,11.586,0.96154,4.8366,2.6923,8.6312,-1.0306,8.5897,0.96154,4.8366,5.7605,6.5719,14.222,7.6461,5.7051,9.5513,-1.0207,8.5308,7.767,-0.12759
0.8805,6.7302,3.8188,-0.96154,1.8954,-2.1154,3.8003,2.8341,2.8205,-0.96154,1.8954,-0.06472,7.5197,9.4603,2.9068,5.7051,5.7051,-1.0207,6.6351,1.9417,5.614
-3.8365,1.0159,-3.9482,-1.9231,-2.0261,-5.9615,-1.9968,0.90177,-2.9487,-1.9231,-2.0261,-5.89,2.7804,1.8413,1.9589,5.7051,1.859,2.807,0.94787,9.7087,7.5279
-1.9497,-2.7937,-4.9191,0.96154,-1.0458,-3.0769,-1.0306,4.7665,-2.9487,0.96154,-1.0458,-3.9482,-2.9068,-1.0159,-0.88468,1.859,-1.9872,8.5486,-0.94787,4.8544,1.7863
-1.9497,-9.4603,-6.8608,0.0,-3.9869,-3.0769,-5.8615,3.8003,-4.8718,0.0,-3.9869,-5.89,-1.9589,-0.06349,-4.6761,-3.9103,-5.8333,-3.8915,-4.7393,-2.9126,-5.8692
-3.8365,-11.365,-8.8026,0.96154,-1.0458,-5.0,-7.7939,2.8341,-5.8333,0.96154,-1.0458,-5.89,2.7804,3.746,-4.6761,-2.9487,-6.7949,3.764,-4.7393,-1.9417,0.82935
-8.5535,-11.365,-11.715,0.96154,-3.0065,-6.9231,-10.692,3.8003,-5.8333,0.96154,-3.0065,-8.8026,-1.0111,-1.0159,-8.4676,-3.9103,-9.6795,7.5917,-5.6872,-6.7961,-1.0845
-4.7799,-10.413,-8.8026,0.0,-2.0261,-8.8462,-10.692,-1.0306,-8.7179,0.0,-2.0261,-10.744,-4.8025,-1.9683,-7.5197,-3.9103,-6.7949,-1.0207,-6.6351,-6.7961,-2.0415
-4.7799,-8.5079,-4.9191,-1.9231,-4.9673,-9.8077,-9.7262,-2.963,-9.6795,-1.9231,-4.9673,-10.744,-8.594,-3.873,-2.7804,-5.8333,-3.9103,1.8501,-9.4787,0.0,-6.8262
-3.8365,-9.4603,-4.9191,0.0,-2.0261,-8.8462,-9.7262,1.868,-6.7949,0.0,-2.0261,-10.744,-7.6461,-11.492,-1.8325,-7.7564,-4.8718,-1.9777,-9.4787,2.9126,-7.7831
-4.7799,-5.6508,-5.89,0.0,-2.0261,-9.8077,-10.692,1.868,-3.9103,0.0,-2.0261,-11.715,-1.0111,-11.492,2.9068,-0.0641,-1.9872,2.807,-4.7393,12.621,14.226
-6.6667,-4.6984,-8.8026,0.0,-1.0458,-10.769,-8.7601,-1.0306,-4.8718,0.0,-1.0458,-11.715,6.5719,-1.0159,2.9068,-0.0641,-1.9872,6.6348,-5.6872,11.65,6.571
-8.5535,-10.413,-11.715,-0.96154,-4.9673,-11.731,-13.591,-4.8953,-7.7564,-0.96154,-4.9673,-12.686,2.7804,3.746,1.0111,-6.7949,-5.8333,1.8501,-10.427,7.767,-19.266001
-3.8365,-8.5079,-7.8317,0.96154,-3.0065,-5.0,-9.7262,-1.9968,-6.7949,0.96154,-3.0065,-7.8317,3.7283,7.5556,0.06319,-4.8718,-2.9487,3.764,-7.5829,-0.97087,-10.654
3.7107,-4.6984,-1.0356,4.8077,1.8954,4.6154,-3.9291,7.6651,-1.0256,4.8077,1.8954,0.90615,6.5719,8.5079,2.9068,0.89744,1.859,3.764,-1.8957,-3.8835,-2.0415
13.145,1.9683,6.7314,6.7308,4.8366,11.346,3.8003,7.6651,-0.0641,6.7308,4.8366,7.7023,9.4155,9.4603,11.438,8.5897,9.5513,7.5917,2.8436,9.7087,5.614
15.031,8.6349,10.615,5.7692,6.7974,12.308,9.5974,5.7327,3.7821,5.7692,6.7974,10.615,7.5197,-1.0159,17.125,14.359,15.321,7.5917,7.5829,13.592,17.097
11.258,9.5873,10.615,6.7308,8.7582,11.346,13.462,4.7665,6.6667,6.7308,8.7582,12.557,1.8325,-1.9683,11.438,6.6667,11.474,8.5486,5.6872,4.8544,1.7863
15.031,9.5873,13.528,9.6154,9.7386,15.192,13.462,7.6651,6.6667,9.6154,9.7386,16.440001,1.8325,3.746,11.438,3.7821,12.436,10.463,5.6872,0.97087,-4.9123
16.917999,12.444,16.440001,17.308001,15.621,21.923,17.327,18.292999,12.436,17.308001,15.621,21.294001,8.4676,5.6508,12.385,5.7051,13.397,4.7209,5.6872,3.8835,-2.9984
15.031,16.254,17.410999,21.153999,21.503,20.962,23.124001,15.395,14.359,21.153999,21.503,24.207001,0.88468,-4.8254,8.594,5.7051,12.436,5.6778,9.4787,0.97087,7.5279
16.917999,19.111,19.353001,19.231001,17.582001,18.077,21.191999,14.428,15.321,19.231001,17.582001,22.264999,-1.9589,-2.9206,12.385,9.5513,15.321,13.333,9.4787,7.767,11.356
13.145,12.444,13.528,12.5,10.719,12.308,14.428,9.5974,7.6282,12.5,10.719,14.498,-1.0111,-1.0159,10.49,3.7821,11.474,14.29,4.7393,2.9126,-1.0845
13.145,7.6825,8.6731,6.7308,4.8366,10.385,6.6989,9.5974,3.7821,6.7308,4.8366,9.644,3.7283,-1.9683,10.49,4.7436,8.5897,8.5486,4.7393,2.9126,-0.12759
12.201,3.873,4.7896,13.462,9.7386,12.308,6.6989,14.428,5.7051,13.462,9.7386,8.6731,-1.0111,-5.7778,6.6983,1.859,3.7821,2.807,3.7915,1.9417,2.7432
-1.9497,-1.8413,-2.9773,5.7692,4.8366,2.6923,-1.0306,4.7665,3.7821,5.7692,4.8366,-0.06472,-7.6461,-6.7302,-3.7283,-7.7564,-4.8718,4.7209,-1.8957,-2.9126,-9.697
-5.7233,-3.746,-6.8608,0.96154,1.8954,-4.0385,-2.963,-0.06441,0.89744,0.96154,1.8954,-4.9191,-8.594,-6.7302,-5.624,-7.7564,-6.7949,4.7209,-0.94787,-0.97087,-6.8262
-7.6101,-5.6508,-9.7735,-3.8462,-3.9869,-7.8846,-6.8277,-3.9291,-1.0256,-3.8462,-3.9869,-8.8026,-4.8025,-2.9206,-3.7283,-3.9103,-6.7949,-1.0207,0.0,1.9417,-0.12759
-6.6667,-7.5556,-10.744,-6.7308,-4.9673,-10.769,-3.9291,-5.8615,-4.8718,-6.7308,-4.9673,-10.744,-1.9589,0.88889,-3.7283,-3.9103,-6.7949,-1.9777,-1.8957,2.9126,-3.9553
-4.7799,-7.5556,-7.8317,-5.7692,-4.9673,-8.8462,-6.8277,-3.9291,-1.0256,-5.7692,-4.9673,-10.744,-0.06319,-0.06349,-2.7804,-2.9487,-3.9103,-5.8054,-2.8436,1.9417,-4.9123
-1.9497,-0.88889,-2.9773,-3.8462,-2.0261,-6.9231,-3.9291,-3.9291,3.7821,-3.8462,-2.0261,-7.8317,2.7804,-4.8254,-0.88468,5.7051,1.859,0.89314,3.7915,0.97087,11.356
-1.9497,1.0159,-3.9482,-2.8846,-1.0458,-6.9231,-1.9968,-5.8615,3.7821,-2.8846,-1.0458,-6.8608,5.624,1.8413,0.06319,5.7051,1.859,2.807,4.7393,-0.97087,14.226
-3.8365,0.06349,-4.9191,-1.9231,0.91503,-5.9615,-0.06441,-4.8953,4.7436,-1.9231,0.91503,-5.89,3.7283,9.4603,-0.88468,0.89744,-0.0641,-5.8054,3.7915,0.97087,-2.0415
-2.8931,5.7778,0.90615,-0.96154,2.8758,-5.0,5.7327,-6.8277,6.6667,-0.96154,2.8758,-1.0356,2.7804,6.6032,1.0111,4.7436,2.8205,-6.7624,6.6351,3.8835,3.7002
-0.06289,9.5873,6.7314,-0.96154,1.8954,-1.1538,7.6651,-4.8953,7.6282,-0.96154,1.8954,2.8479,1.8325,1.8413,1.9589,9.5513,4.7436,-1.9777,6.6351,-1.9417,12.313
3.7107,7.6825,7.7023,0.96154,3.8562,3.6538,7.6651,-1.0306,5.7051,0.96154,3.8562,6.7314,1.8325,5.6508,0.06319,5.7051,4.7436,-1.0207,5.6872,-5.8252,-0.12759
0.8805,5.7778,7.7023,1.9231,2.8758,4.6154,5.7327,-0.06441,3.7821,1.9231,2.8758,6.7314,3.7283,5.6508,-1.8325,5.7051,3.7821,-6.7624,5.6872,-8.7379,-0.12759
1.8239,6.7302,9.644,5.7692,5.817,9.4231,12.496,2.8341,1.859,5.7692,5.817,13.528,-4.8025,-8.6349,-3.7283,3.7821,0.89744,-3.8915,4.7393,-9.7087,7.5279
6.5409,3.873,8.6731,9.6154,6.7974,16.153999,10.564,8.6312,5.7051,9.6154,6.7974,17.410999,-8.594,-6.7302,-1.8325,-5.8333,-1.9872,-4.8485,-1.8957,-3.8835,-9.697
15.031,4.8254,13.528,16.346001,14.641,22.885,14.428,14.428,9.5513,16.346001,14.641,23.236,-5.7504,-3.873,2.9068,-7.7564,0.89744,11.419,0.94787,-3.8835,-14.482
20.691999,9.5873,19.353001,18.268999,15.621,26.731001,16.361,19.259001,11.474,18.268999,15.621,26.149,-6.6983,-5.7778,7.6461,-5.8333,4.7436,15.247,5.6872,-1.9417,-9.697
16.917999,9.5873,18.382,18.268999,17.582001,23.846001,17.327,15.395,9.5513,18.268999,17.582001,26.149,-7.6461,-8.6349,4.8025,-7.7564,3.7821,9.5056,5.6872,-1.9417,-4.9123
6.5409,6.7302,10.615,15.385,14.641,17.115,14.428,11.53,9.5513,15.385,14.641,20.323999,-9.5419,-15.302,-1.8325,-6.7949,-1.0256,0.89314,4.7393,-4.8544,0.82935
-0.06289,1.0159,0.90615,12.5,10.719,10.385,9.5974,7.6651,5.7051,12.5,10.719,13.528,-5.7504,-6.7302,-5.624,-7.7564,-3.9103,-0.0638,0.94787,-2.9126,-4.9123
-5.7233,-4.6984,-5.89,7.6923,5.817,4.6154,2.8341,3.8003,2.8205,7.6923,5.817,5.7605,-0.06319,1.8413,-7.5197,-6.7949,-6.7949,-1.0207,-0.94787,-5.8252,-6.8262
-7.6101,-3.746,-7.8317,6.7308,8.7582,1.7308,2.8341,1.868,4.7436,6.7308,8.7582,3.8188,0.88468,2.7937,-8.4676,-4.8718,-8.7179,-11.547,2.8436,-4.8544,-1.0845
-7.6101,-1.8413,-6.8608,4.8077,7.7778,0.76923,3.8003,-0.06441,5.7051,4.8077,7.7778,2.8479,-1.9589,-2.9206,-9.4155,-4.8718,-9.6795,-2.9346,3.7915,-1.9417,2.7432
-6.6667,-0.88889,-6.8608,1.9231,7.7778,-1.1538,7.6651,-4.8953,3.7821,1.9231,7.7778,1.877,-12.385,-13.397,-10.363,-5.8333,-11.603,-3.8915,2.8436,-5.8252,2.7432
-1.9497,-0.88889,-4.9191,-1.9231,3.8562,-2.1154,3.8003,-9.7262,4.7436,-1.9231,3.8562,-0.06472,-8.594,-13.397,-6.5719,-7.7564,-9.6795,-3.8915,0.94787,-2.9126,-1.0845
-2.8931,0.06349,-1.0356,-5.7692,-1.0458,-5.0,-1.0306,-8.7601,2.8205,-5.7692,-1.0458,-2.9773,-1.9589,-5.7778,-1.8325,-4.8718,-3.9103,-1.0207,1.8957,1.9417,0.82935
-4.7799,-1.8413,-1.0356,-7.6923,-4.9673,-5.9615,-3.9291,-6.8277,-1.0256,-7.6923,-4.9673,-5.89,-4.8025,-0.06349,-4.6761,-6.7949,-2.9487,-3.8915,1.8957,-9.7087,-3.9553
-1.9497,-4.6984,-4.9191,-6.7308,-7.9085,-5.9615,-7.7939,-1.9968,-1.9872,-6.7308,-7.9085,-8.8026,-1.0111,2.7937,-2.7804,-5.8333,-2.9487,-1.0207,0.0,-7.767,-6.8262
5.5975,-2.7937,-3.9482,-3.8462,-4.9673,-1.1538,-5.8615,3.8003,-1.0256,-3.8462,-4.9673,-5.89,4.6761,2.7937,5.7504,0.89744,1.859,5.6778,1.8957,6.7961,2.7432
2.7673,-3.746,-5.89,-6.7308,-9.8693,-4.0385,-9.7262,0.90177,-3.9103,-6.7308,-9.8693,-8.8026,4.6761,2.7937,5.7504,3.7821,-0.0641,2.807,0.94787,7.767,8.4848
-6.6667,-9.4603,-12.686,-7.6923,-12.81,-9.8077,-13.591,-2.963,-9.6795,-7.6923,-12.81,-12.686,-3.8547,-5.7778,-4.6761,-3.9103,-10.641,-2.9346,-3.7915,0.97087,2.7432
-16.101,-14.222,-19.482,-7.6923,-11.83,-9.8077,-13.591,-1.0306,-8.7179,-7.6923,-11.83,-12.686,-8.594,-5.7778,-16.051001,-14.487,-19.295,-2.9346,-7.5829,-11.65,-16.396
-14.214,-10.413,-15.599,-4.8077,-5.9477,-5.9615,-5.8615,1.868,-3.9103,-4.8077,-5.9477,-4.9191,-2.9068,-1.0159,-16.051001,-12.564,-17.372,0.89314,-3.7915,-7.767,-15.439
-9.4969,-4.6984,-7.8317,-3.8462,-3.9869,-1.1538,-0.06441,-1.0306,-1.0256,-3.8462,-3.9869,0.90615,-5.7504,-4.8254,-11.311,-7.7564,-11.603,-5.8054,-0.94787,-4.8544,-4.9123
-3.8365,-1.8413,-2.0065,0.0,-0.06536,1.7308,3.8003,-1.0306,-4.8718,0.0,-0.06536,5.7605,-11.438,-10.54,-7.5197,-4.8718,-7.7564,-4.8485,-1.8957,-3.8835,3.7002
-3.8365,-6.6032,-3.9482,0.0,-2.0261,1.7308,-2.963,-0.06441,-5.8333,0.0,-2.0261,2.8479,-11.438,-10.54,-4.6761,-7.7564,-6.7949,-5.8054,-5.6872,-4.8544,-4.9123
-1.9497,-3.746,-2.0065,1.9231,0.91503,2.6923,-1.9968,-1.0306,-1.9872,1.9231,0.91503,4.7896,-2.9068,-1.0159,-1.8325,-4.8718,-2.9487,-6.7624,-2.8436,-3.8835,-3.9553
0.8805,2.9206,1.877,3.8462,3.8562,3.6538,2.8341,-0.06441,0.89744,3.8462,3.8562,6.7314,1.8325,3.746,1.0111,3.7821,1.859,-1.9777,0.94787,2.9126,7.5279
6.5409,7.6825,4.7896,6.7308,7.7778,7.5,7.6651,6.6989,2.8205,6.7308,7.7778,9.644,1.8325,-1.0159,4.8025,7.6282,5.7051,1.8501,3.7915,3.8835,16.139999
2.7673,5.7778,2.8479,8.6538,8.7582,6.5385,8.6312,5.7327,3.7821,8.6538,8.7582,9.644,4.6761,1.8413,1.0111,4.7436,2.8205,4.7209,-0.94787,-1.9417,-2.0415
0.8805,2.9206,1.877,6.7308,7.7778,4.6154,7.6651,1.868,2.8205,6.7308,7.7778,8.6731,4.6761,4.6984,-1.8325,-0.0641,-0.0641,1.8501,-5.6872,-1.9417,-14.482
3.7107,1.9683,1.877,4.8077,6.7974,4.6154,5.7327,1.868,1.859,4.8077,6.7974,6.7314,-1.9589,1.8413,-1.8325,-1.9872,-1.9872,-2.9346,-5.6872,-2.9126,-5.8692
3.7107,0.06349,-0.06472,4.8077,7.7778,3.6538,3.8003,4.7665,4.7436,4.8077,7.7778,3.8188,0.88468,3.746,1.0111,-0.0641,-0.0641,-1.9777,-1.8957,0.0,1.7863
-1.0063,-1.8413,-2.9773,4.8077,7.7778,-0.19231,0.90177,6.6989,5.7051,4.8077,7.7778,-0.06472,-1.9589,-1.0159,-0.88468,-2.9487,-1.9872,4.7209,0.94787,0.97087,-0.12759
-8.5535,-9.4603,-9.7735,-2.8846,-1.0458,-8.8462,-8.7601,0.90177,-1.0256,-2.8846,-1.0458,-9.7735,-4.8025,-8.6349,-4.6761,-7.7564,-7.7564,-0.0638,-3.7915,0.0,-6.8262
-5.7233,-8.5079,-8.8026,-7.6923,-6.9281,-10.769,-13.591,-2.963,-6.7949,-7.6923,-6.9281,-13.657,-8.594,-21.016001,1.9589,-0.0641,-4.8718,6.6348,-3.7915,15.534,18.054001
-8.5535,-13.27,-14.628,-9.6154,-9.8693,-10.769,-17.455999,-2.963,-7.7564,-9.6154,-9.8693,-16.57,-12.385,-17.205999,-1.8325,-6.7949,-8.7179,3.764,-5.6872,-1.9417,-0.12759
-10.44,-17.079,-17.540001,-9.6154,-11.83,-11.731,-17.455999,-5.8615,-10.641,-9.6154,-11.83,-18.511,-2.9068,3.746,-8.4676,-12.564,-10.641,-6.7624,-8.5308,-20.388,-19.266001
-5.7233,-13.27,-10.744,-10.577,-13.791,-6.9231,-14.557,-2.963,-12.564,-10.577,-13.791,-14.628,6.5719,9.4603,-2.7804,-3.9103,-2.9487,-6.7624,-8.5308,-12.621,-11.611
2.7673,-9.4603,-1.0356,-4.8077,-9.8693,-1.1538,-9.7262,3.8003,-9.6795,-4.8077,-9.8693,-6.8608,5.624,3.746,6.6983,3.7821,6.6667,1.8501,-4.7393,2.9126,-4.9123
5.5975,-5.6508,4.7896,-3.8462,-8.8889,0.76923,-8.7601,0.90177,-7.7564,-3.8462,-8.8889,-2.9773,5.624,0.88889,9.5419,5.7051,9.5513,5.6778,-3.7915,7.767,-4.9123
12.201,1.0159,10.615,0.96154,-1.0458,4.6154,-1.9968,1.868,-3.9103,0.96154,-1.0458,3.8188,11.311,7.5556,15.229,9.5513,15.321,10.463,-1.8957,12.621,1.7863
11.258,5.7778,10.615,5.7692,2.8758,6.5385,1.868,5.7327,2.8205,5.7692,2.8758,5.7605,5.624,5.6508,14.281,9.5513,14.359,-1.0207,0.94787,11.65,7.5279
9.3711,7.6825,10.615,5.7692,5.817,7.5,5.7327,9.5974,3.7821,5.7692,5.817,5.7605,5.624,1.8413,13.333,12.436,13.397,2.807,2.8436,12.621,9.4418
0.8805,3.873,4.7896,1.9231,1.8954,2.6923,1.868,1.868,1.859,1.9231,1.8954,1.877,5.624,2.7937,4.8025,6.6667,7.6282,0.89314,-0.94787,5.8252,2.7432
-1.9497,1.9683,2.8479,0.96154,0.91503,0.76923,1.868,-0.06441,1.859,0.96154,0.91503,0.90615,6.5719,9.4603,0.06319,3.7821,4.7436,-1.0207,-1.8957,-2.9126,-4.9123
1.8239,1.9683,3.8188,0.96154,0.91503,2.6923,-0.06441,-0.06441,1.859,0.96154,0.91503,1.877,7.5197,13.27,0.06319,3.7821,4.7436,-1.9777,0.0,-4.8544,-7.7831
3.7107,1.9683,4.7896,1.9231,-1.0458,2.6923,-1.0306,1.868,-0.0641,1.9231,-1.0458,1.877,6.5719,13.27,1.9589,4.7436,4.7436,3.764,0.94787,-1.9417,-2.0415
1.8239,-0.88889,2.8479,-1.9231,-4.9673,-0.19231,-5.8615,-1.0306,-5.8333,-1.9231,-4.9673,-2.0065,-2.9068,-0.06349,-0.88468,0.89744,0.89744,1.8501,-0.94787,-2.9126,1.7863
1.8239,1.0159,4.7896,-6.7308,-7.9085,-1.1538,-4.8953,-4.8953,-5.8333,-6.7308,-7.9085,-2.9773,-2.9068,-5.7778,1.0111,4.7436,1.859,-1.9777,-0.94787,3.8835,6.571
9.3711,4.8254,8.6731,-1.9231,-3.0065,2.6923,-0.06441,-1.0306,-1.9872,-1.9231,-3.0065,0.90615,5.624,0.88889,8.594,10.513,8.5897,-0.0638,0.0,12.621,9.4418
3.7107,1.9683,2.8479,0.96154,-1.0458,3.6538,1.868,2.8341,-3.9103,0.96154,-1.0458,0.90615,6.5719,7.5556,4.8025,6.6667,4.7436,-2.9346,-1.8957,9.7087,3.7002
-1.9497,0.06349,-1.0356,3.8462,2.8758,2.6923,1.868,-0.06441,-1.0256,3.8462,2.8758,1.877,-0.06319,1.8413,-1.8325,2.8205,-1.0256,0.89314,-1.8957,-0.97087,0.82935
-0.06289,0.06349,-0.06472,4.8077,2.8758,5.5769,0.90177,1.868,0.89744,4.8077,2.8758,4.7896,0.88468,3.746,-2.7804,1.859,-1.9872,-2.9346,-1.8957,-5.8252,-3.9553
-1.9497,1.0159,0.90615,4.8077,4.8366,1.7308,2.8341,0.90177,-0.0641,4.8077,4.8366,3.8188,-0.06319,5.6508,-3.7283,0.89744,-1.0256,-1.0207,-0.94787,-0.97087,-0.12759
-1.9497,1.9683,1.877,4.8077,4.8366,0.76923,2.8341,-0.06441,2.8205,4.8077,4.8366,2.8479,-1.9589,1.8413,-4.6761,3.7821,-1.9872,-2.9346,0.94787,0.0,6.571
0.8805,2.9206,1.877,7.6923,7.7778,2.6923,5.7327,3.8003,4.7436,7.6923,7.7778,4.7896,-1.0111,-5.7778,-2.7804,5.7051,-2.9487,0.89314,2.8436,0.97087,13.27
-1.0063,1.0159,1.877,4.8077,5.817,0.76923,2.8341,1.868,3.7821,4.8077,5.817,2.8479,4.6761,6.6032,-0.88468,2.8205,-1.0256,-1.0207,0.94787,1.9417,3.7002
2.7673,2.9206,4.7896,6.7308,7.7778,2.6923,6.6989,-0.06441,3.7821,6.7308,7.7778,6.7314,-1.9589,4.6984,0.06319,-0.0641,1.859,-5.8054,0.0,2.9126,-2.9984
3.7107,7.6825,6.7314,8.6538,9.7386,6.5385,11.53,2.8341,7.6282,8.6538,9.7386,8.6731,-4.8025,-1.9683,0.06319,1.859,3.7821,-4.8485,3.7915,-7.767,-0.12759
5.5975,12.444,8.6731,8.6538,10.719,8.4615,13.462,5.7327,9.5513,8.6538,10.719,9.644,-0.06319,-3.873,3.8547,10.513,8.5897,3.764,8.5308,-3.8835,8.4848
8.4277,12.444,10.615,5.7692,6.7974,7.5,7.6651,4.7665,6.6667,5.7692,6.7974,6.7314,6.5719,-0.06349,10.49,12.436,12.436,11.419,7.5829,9.7087,13.27
5.5975,2.9206,4.7896,-0.96154,-3.0065,-1.1538,-7.7939,-0.06441,-2.9487,-0.96154,-3.0065,-3.9482,-0.06319,-2.9206,10.49,7.6282,8.5897,5.6778,-0.94787,9.7087,9.4418
-1.9497,-10.413,-5.89,-6.7308,-10.85,-10.769,-20.354,-5.8615,-10.641,-6.7308,-10.85,-14.628,-1.9589,-2.9206,1.9589,-0.0641,1.859,1.8501,-8.5308,-2.9126,-5.8692
-1.0063,-13.27,-7.8317,-7.6923,-12.81,-10.769,-19.388,-1.9968,-13.526,-7.6923,-12.81,-14.628,3.7283,4.6984,1.9589,-1.9872,-0.0641,-3.8915,-6.6351,-2.9126,-7.7831
6.5409,-8.5079,-3.9482,-4.8077,-9.8693,-2.1154,-14.557,1.868,-9.6795,-4.8077,-9.8693,-6.8608,4.6761,8.5079,5.7504,-1.0256,0.89744,0.89314,-2.8436,3.8835,2.7432
4.6541,-2.7937,-2.0065,-4.8077,-6.9281,2.6923,-6.8277,1.868,-3.9103,-4.8077,-6.9281,-1.0356,3.7283,0.88889,5.7504,2.8205,0.89744,8.5486,-0.94787,7.767,11.356
1.8239,1.0159,-1.0356,-1.9231,-1.0458,4.6154,2.8341,3.8003,-1.9872,-1.9231,-1.0458,2.8479,8.4676,6.6032,6.6983,1.859,2.8205,4.7209,-2.8436,6.7961,3.7002
-1.0063,1.9683,-1.0356,1.9231,1.8954,4.6154,6.6989,4.7665,1.859,1.9231,1.8954,3.8188,7.5197,8.5079,3.8547,-0.0641,0.89744,5.6778,-4.7393,-1.9417,-13.525
-1.0063,3.873,-1.0356,5.7692,6.7974,4.6154,9.5974,4.7665,3.7821,5.7692,6.7974,4.7896,-0.06319,0.88889,0.06319,-0.0641,-1.0256,4.7209,0.94787,-2.9126,-0.12759
-2.8931,4.8254,-0.06472,5.7692,5.817,1.7308,6.6989,3.8003,4.7436,5.7692,5.817,3.8188,-2.9068,-6.7302,-0.88468,1.859,-1.0256,2.807,4.7393,-2.9126,7.5279
-5.7233,4.8254,0.90615,2.8846,5.817,-4.0385,6.6989,-2.963,3.7821,2.8846,5.817,0.90615,-0.06319,-1.9683,-5.624,-1.0256,-1.0256,-2.9346,3.7915,-5.8252,-6.8262
-11.384,1.9683,-2.0065,-0.96154,1.8954,-9.8077,2.8341,-8.7601,4.7436,-0.96154,1.8954,-4.9191,2.7804,6.6032,-7.5197,-4.8718,-3.9103,-9.6332,3.7915,0.97087,-6.8262
-5.7233,3.873,-2.0065,0.96154,5.817,-6.9231,3.8003,-2.963,7.6282,0.96154,5.817,-2.9773,-4.8025,-5.7778,-4.6761,0.89744,-4.8718,0.89314,8.5308,7.767,11.356
-4.7799,-1.8413,-7.8317,3.8462,4.8366,-4.0385,1.868,0.90177,8.5897,3.8462,4.8366,-3.9482,-11.438,-9.5873,-8.4676,-4.8718,-9.6795,-9.6332,4.7393,-7.767,1.7863
-8.5535,-9.4603,-13.657,1.9231,1.8954,-5.9615,-3.9291,-1.0306,3.7821,1.9231,1.8954,-6.8608,-4.8025,-1.0159,-13.207,-8.7179,-11.603,-3.8915,0.94787,-16.504999,-6.8262
-3.8365,-11.365,-12.686,1.9231,-0.06536,-5.0,-7.7939,-1.9968,-0.0641,1.9231,-0.06536,-8.8026,-1.0111,4.6984,-9.4155,-7.7564,-10.641,0.89314,-5.6872,-5.8252,-6.8262
-6.6667,-9.4603,-10.744,1.9231,1.8954,-5.0,-5.8615,-1.0306,-0.0641,1.9231,1.8954,-7.8317,-2.9068,0.88889,-11.311,-7.7564,-13.526,-2.9346,-2.8436,-6.7961,1.7863
-10.44,-6.6032,-8.8026,0.96154,0.91503,-5.9615,-1.0306,-2.963,-2.9487,0.96154,0.91503,-5.89,-1.0111,1.8413,-12.259,-5.8333,-12.564,-1.9777,-0.94787,-0.97087,-2.9984
-7.6101,-4.6984,-3.9482,2.8846,-0.06536,-2.1154,-1.9968,-1.0306,-1.0256,2.8846,-0.06536,-2.9773,0.88468,1.8413,-9.4155,-5.8333,-8.7179,-3.8915,-3.7915,-3.8835,-12.568
-5.7233,-3.746,-2.0065,4.8077,2.8758,-0.19231,-1.0306,-0.06441,0.89744,4.8077,2.8758,0.90615,-12.385,-9.5873,-11.311,-10.641,-9.6795,-2.9346,-3.7915,-13.592,-9.697
4.6541,2.9206,7.7023,9.6154,8.7582,8.4615,4.7665,6.6989,3.7821,9.6154,8.7582,8.6731,-7.6461,-5.7778,-1.8325,-3.9103,-0.0641,-1.9777,-0.94787,-6.7961,-5.8692
10.314,6.7302,14.498,12.5,12.68,10.385,7.6651,5.7327,5.7051,12.5,12.68,12.557,-1.0111,-7.6825,5.7504,3.7821,9.5513,2.807,0.94787,0.0,0.82935
5.5975,5.7778,12.557,9.6154,9.7386,5.5769,4.7665,0.90177,5.7051,9.6154,9.7386,7.7023,-1.0111,-3.873,7.6461,4.7436,11.474,3.764,0.94787,4.8544,-0.12759
2.7673,1.9683,6.7314,5.7692,6.7974,-0.19231,2.8341,-0.06441,3.7821,5.7692,6.7974,2.8479,-2.9068,-1.0159,7.6461,1.859,10.513,-3.8915,0.0,7.767,-1.0845
-1.0063,0.06349,1.877,2.8846,3.8562,-5.9615,-1.0306,-1.9968,3.7821,2.8846,3.8562,-3.9482,-1.0111,-2.9206,5.7504,3.7821,8.5897,-6.7624,2.8436,4.8544,5.614
-0.06289,0.06349,0.90615,0.0,1.8954,-8.8462,-4.8953,-7.7939,0.89744,0.0,1.8954,-6.8608,7.5197,6.6032,5.7504,5.7051,8.5897,4.7209,2.8436,4.8544,0.82935
-1.9497,-0.88889,1.877,-6.7308,-6.9281,-12.692,-10.692,-10.692,-5.8333,-6.7308,-6.9281,-9.7735,14.155,14.222,7.6461,6.6667,8.5897,3.764,0.0,7.767,-0.12759
-5.7233,-2.7937,-2.9773,-10.577,-10.85,-14.615,-14.557,-10.692,-11.603,-10.577,-10.85,-13.657,4.6761,6.6032,1.0111,4.7436,2.8205,2.807,-1.8957,0.0,10.399
-8.5535,-4.6984,-7.8317,-11.538,-13.791,-14.615,-13.591,-9.7262,-12.564,-11.538,-13.791,-15.599,-0.06319,2.7937,-2.7804,0.89744,-4.8718,-3.8915,-4.7393,1.9417,8.4848
-6.6667,-6.6032,-6.8608,-8.6538,-9.8693,-7.8846,-10.692,-1.9968,-9.6795,-8.6538,-9.8693,-9.7735,0.88468,4.6984,-4.6761,-3.9103,-7.7564,-1.9777,-4.7393,0.97087,-2.9984
-0.06289,-3.746,-1.0356,-7.6923,-6.9281,1.7308,-4.8953,1.868,-5.8333,-7.6923,-6.9281,-1.0356,0.88468,-0.06349,-1.8325,-3.9103,-5.8333,1.8501,-3.7915,1.9417,-6.8262
4.6541,2.9206,5.7605,-5.7692,-3.0065,5.5769,4.7665,-1.0306,-3.9103,-5.7692,-3.0065,6.7314,-1.0111,-4.8254,1.0111,0.89744,-0.0641,-0.0638,-0.94787,1.9417,3.7002
6.5409,4.8254,7.7023,-7.6923,-4.9673,4.6154,5.7327,-3.9291,-3.9103,-7.6923,-4.9673,6.7314,-0.06319,-0.06349,4.8025,1.859,4.7436,0.89314,-0.94787,1.9417,0.82935
9.3711,8.6349,10.615,-8.6538,-3.9869,3.6538,7.6651,-2.963,-1.9872,-8.6538,-3.9869,4.7896,5.624,8.5079,10.49,8.5897,11.474,0.89314,2.8436,6.7961,7.5279
7.4843,7.6825,10.615,-10.577,-6.9281,-0.19231,2.8341,-6.8277,-3.9103,-10.577,-6.9281,0.90615,12.259,12.317,11.438,12.436,14.359,3.764,0.94787,7.767,4.6571
12.201,10.54,14.498,-10.577,-9.8693,1.7308,0.90177,-5.8615,-4.8718,-10.577,-9.8693,0.90615,14.155,10.413,15.229,16.282,19.167,3.764,0.0,9.7087,2.7432
13.145,12.444,16.440001,-6.7308,-3.9869,1.7308,2.8341,-4.8953,-1.9872,-6.7308,-3.9869,0.90615,10.363,10.413,16.177,17.243999,19.167,5.6778,4.7393,12.621,11.356
4.6541,8.6349,9.644,-4.8077,-3.9869,-2.1154,-0.06441,-1.9968,0.89744,-4.8077,-3.9869,-3.9482,9.4155,13.27,8.594,13.397,14.359,2.807,5.6872,0.0,14.226
1.8239,3.873,3.8188,-3.8462,-3.0065,-5.0,-1.9968,-2.963,1.859,-3.8462,-3.0065,-7.8317,10.363,11.365,4.8025,8.5897,9.5513,-0.0638,4.7393,-1.9417,11.356
-1.0063,4.8254,-0.06472,-4.8077,-3.9869,-5.9615,-1.0306,-3.9291,3.7821,-4.8077,-3.9869,-7.8317,3.7283,2.7937,1.9589,9.5513,6.6667,-2.9346,6.6351,0.97087,16.139999
-3.8365,1.0159,-2.9773,-1.9231,-0.06536,-5.9615,0.90177,-3.9291,5.7051,-1.9231,-0.06536,-4.9191,-1.9589,0.88889,-3.7283,2.8205,-0.0641,-2.9346,5.6872,-2.9126,1.7863
-1.9497,-0.88889,-2.0065,0.96154,1.8954,1.7308,1.868,0.90177,6.6667,0.96154,1.8954,1.877,-4.8025,-0.06349,-3.7283,-1.0256,-1.9872,-5.8054,4.7393,-3.8835,-6.8262
-1.0063,2.9206,0.90615,3.8462,5.817,4.6154,8.6312,-0.06441,6.6667,3.8462,5.817,7.7023,-1.0111,2.7937,-2.7804,-1.0256,-0.0641,-8.6762,4.7393,-1.9417,-2.9984
4.6541,8.6349,6.7314,4.8077,7.7778,10.385,11.53,6.6989,10.513,4.8077,7.7778,11.586,7.5197,6.6032,3.8547,4.7436,5.7051,1.8501,7.5829,4.8544,5.614
6.5409,8.6349,8.6731,4.8077,9.7386,8.4615,12.496,3.8003,9.5513,4.8077,9.7386,10.615,1.8325,-0.06349,3.8547,0.89744,6.6667,6.6348,6.6351,5.8252,2.7432
4.6541,5.7778,6.7314,3.8462,6.7974,3.6538,7.6651,-1.0306,8.5897,3.8462,6.7974,6.7314,-4.8025,-7.6825,0.06319,-0.0641,3.7821,-0.0638,4.7393,-2.9126,3.7002
2.7673,6.7302,6.7314,7.6923,8.7582,5.5769,8.6312,4.7665,7.6282,7.6923,8.7582,8.6731,-1.9589,-6.7302,-0.88468,2.8205,2.8205,-1.0207,5.6872,-4.8544,15.183
-0.06289,1.9683,2.8479,10.577,10.719,4.6154,7.6651,5.7327,5.7051,10.577,10.719,8.6731,-0.06319,-1.0159,-2.7804,-2.9487,-1.0256,-1.9777,0.94787,-0.97087,-2.9984
0.8805,1.9683,0.90615,15.385,17.582001,5.5769,11.53,6.6989,8.5897,15.385,17.582001,11.586,-1.9589,0.88889,-1.8325,-7.7564,-3.9103,-5.8054,-1.8957,1.9417,-13.525
-0.06289,6.7302,3.8188,21.153999,24.444,9.4231,15.395,11.53,11.474,21.153999,24.444,15.469,0.88468,1.8413,-2.7804,-0.0641,-2.9487,3.764,2.8436,-0.97087,-0.12759
-1.0063,8.6349,4.7896,19.231001,22.483999,7.5,15.395,5.7327,10.513,19.231001,22.483999,13.528,2.7804,3.746,-3.7283,0.89744,-1.9872,-1.0207,4.7393,-6.7961,2.7432
4.6541,8.6349,6.7314,15.385,20.523001,6.5385,14.428,2.8341,11.474,15.385,20.523001,11.586,7.5197,7.5556,1.9589,0.89744,1.859,-0.0638,4.7393,0.97087,-1.0845
4.6541,5.7778,6.7314,18.268999,21.503,9.4231,9.5974,10.564,11.474,18.268999,21.503,9.644,2.7804,1.8413,2.9068,2.8205,1.859,12.376,2.8436,4.8544,1.7863
3.7107,7.6825,6.7314,16.346001,20.523001,7.5,8.6312,6.6989,8.5897,16.346001,20.523001,9.644,-3.8547,-9.5873,1.9589,5.7051,0.89744,1.8501,3.7915,6.7961,19.968
2.7673,3.873,3.8188,8.6538,14.641,3.6538,5.7327,0.90177,7.6282,8.6538,14.641,5.7605,-1.0111,0.88889,2.9068,2.8205,-0.0641,-1.9777,0.94787,4.8544,1.7863
7.4843,-2.7937,-0.06472,7.6923,11.699,1.7308,1.868,-0.06441,5.7051,7.6923,11.699,1.877,-0.06319,2.7937,7.6461,-1.0256,1.859,3.764,-0.94787,7.767,-8.74
2.7673,-5.6508,-2.0065,-3.8462,-0.06536,-4.0385,-2.963,-2.963,-0.0641,-3.8462,-0.06536,-6.8608,7.5197,7.5556,6.6983,1.859,4.7436,6.6348,-4.7393,2.9126,-7.7831
-2.8931,-6.6032,-4.9191,-10.577,-8.8889,-8.8462,-6.8277,-5.8615,-5.8333,-10.577,-8.8889,-10.744,6.5719,6.6032,1.9589,2.8205,3.7821,0.89314,-5.6872,-2.9126,-3.9553
-1.0063,-3.746,-2.9773,-13.462,-12.81,-5.9615,-5.8615,-5.8615,-5.8333,-13.462,-12.81,-7.8317,3.7283,3.746,1.9589,4.7436,3.7821,-5.8054,-1.8957,0.97087,4.6571
5.5975,-0.88889,0.90615,-8.6538,-7.9085,0.76923,-1.0306,-2.963,-1.9872,-8.6538,-7.9085,-1.0356,8.4676,8.5079,5.7504,6.6667,6.6667,-1.0207,-0.94787,3.8835,4.6571
-1.0063,-2.7937,-2.9773,-9.6154,-8.8889,0.76923,-1.9968,-1.9968,-2.9487,-9.6154,-8.8889,-2.0065,4.6761,3.746,1.0111,0.89744,0.89744,-1.9777,-3.7915,4.8544,-3.9553
-3.8365,-2.7937,-2.9773,-11.538,-10.85,-4.0385,-4.8953,-3.9291,-2.9487,-11.538,-10.85,-4.9191,2.7804,-0.06349,-0.88468,-0.0641,-1.0256,1.8501,-1.8957,5.8252,-2.9984
-2.8931,1.9683,0.90615,-15.385,-14.771,-5.9615,-4.8953,-7.7939,-1.9872,-15.385,-14.771,-4.9191,2.7804,-0.06349,1.0111,4.7436,2.8205,-1.0207,0.94787,2.9126,8.4848
0.8805,3.873,5.7605,-18.268999,-16.732,-3.0769,-1.0306,-6.8277,-3.9103,-18.268999,-16.732,-2.0065,4.6761,3.746,3.8547,2.8205,5.7051,-1.0207,0.0,8.7379,0.82935
0.8805,1.0159,3.8188,-19.231001,-19.673,-4.0385,-5.8615,-5.8615,-8.7179,-19.231001,-19.673,-2.9773,7.5197,4.6984,3.8547,-1.0256,3.7821,3.764,-3.7915,8.7379,-6.8262
2.7673,1.9683,4.7896,-22.115,-23.594999,-5.9615,-7.7939,-8.7601,-11.603,-22.115,-23.594999,-4.9191,-1.9589,-5.7778,5.7504,1.859,4.7436,-2.9346,-1.8957,5.8252,4.6571
0.8805,1.9683,4.7896,-23.077,-24.575001,-8.8462,-8.7601,-10.692,-10.641,-23.077,-24.575001,-8.8026,-0.06319,-1.0159,3.8547,3.7821,6.6667,-5.8054,0.94787,-2.9126,1.7863
-1.0063,1.9683,1.877,-25.0,-24.575001,-10.769,-6.8277,-12.625,-11.603,-25.0,-24.575001,-10.744,2.7804,3.746,3.8547,4.7436,6.6667,-0.0638,3.7915,0.97087,3.7002
-2.8931,-1.8413,-4.9191,-22.115,-19.673,-10.769,-9.7262,-8.7601,-6.7949,-22.115,-19.673,-11.715,-0.06319,0.88889,1.0111,3.7821,-0.0641,6.6348,3.7915,6.7961,9.4418
-11.384,-8.5079,-15.599,-18.268999,-18.693001,-11.731,-10.692,-7.7939,-1.9872,-18.268999,-18.693001,-13.657,-6.6983,-3.873,-10.363,-6.7949,-14.487,-1.0207,2.8436,-5.8252,4.6571
-14.214,-12.317,-19.482,-14.423,-13.791,-11.731,-6.8277,-6.8277,-2.9487,-14.423,-13.791,-11.715,-11.438,-6.7302,-17.945999,-17.372,-24.103001,-5.8054,1.8957,-13.592,-2.0415
-14.214,-11.365,-17.540001,-14.423,-13.791,-9.8077,-5.8615,-7.7939,-1.9872,-14.423,-13.791,-9.7735,-15.229,-14.349,-19.841999,-19.295,-25.063999,-6.7624,-0.94787,-17.476,-4.9123
-9.4969,-8.5079,-12.686,-10.577,-10.85,-5.0,-2.963,-4.8953,-2.9487,-10.577,-10.85,-4.9191,-18.073,-14.349,-17.945999,-19.295,-21.218,-2.9346,-3.7915,-12.621,-10.654
-8.5535,-8.5079,-11.715,-12.5,-15.752,-4.0385,-6.8277,-2.963,-5.8333,-12.5,-15.752,-6.8608,-15.229,-10.54,-13.207,-17.372,-17.372,-0.0638,-2.8436,-8.7379,-16.396
-3.8365,-7.5556,-7.8317,-12.5,-15.752,-5.0,-8.7601,-1.0306,-8.7179,-12.5,-15.752,-7.8317,-8.594,-12.444,-7.5197,-8.7179,-8.7179,-3.8915,-0.94787,-9.7087,-4.9123
-0.06289,-5.6508,-2.9773,-14.423,-16.732,-8.8462,-9.7262,-7.7939,-6.7949,-14.423,-16.732,-9.7735,1.8325,-1.0159,1.9589,-1.0256,1.859,-2.9346,-0.94787,-1.9417,-0.12759
2.7673,-1.8413,3.8188,-10.577,-11.83,-6.9231,-5.8615,-7.7939,-3.9103,-10.577,-11.83,-6.8608,9.4155,10.413,8.594,5.7051,10.513,6.6348,1.8957,5.8252,2.7432
-2.8931,-0.88889,2.8479,-7.6923,-9.8693,-7.8846,-5.8615,-6.8277,-1.9872,-7.6923,-9.8693,-7.8317,2.7804,2.7937,4.8025,5.7051,8.5897,3.764,1.8957,3.8835,9.4418
-7.6101,-2.7937,-2.0065,-6.7308,-7.9085,-7.8846,-4.8953,-3.9291,-3.9103,-6.7308,-7.9085,-8.8026,-2.9068,-2.9206,-0.88468,0.89744,0.89744,-6.7624,1.8957,2.9126,9.4418
-4.7799,-2.7937,-3.9482,-5.7692,-6.9281,-5.9615,-7.7939,-1.0306,-0.0641,-5.7692,-6.9281,-7.8317,-2.9068,-4.8254,1.0111,1.859,-2.9487,3.764,1.8957,13.592,7.5279
