C3,C4,Cz,F1,F2,F3,F4,F7,F8,Fp1,Fp2,Fz,O1,O2,P3,P4,Pz,T3,T4,T5,T6
-6.4455,-6.252,-9.0407,-9.2157,-5.9406,1.6911,-5.8537,-3.9482,1.2358,-9.2157,-5.9406,-2.6534,-12.698,-12.127,-9.3968,-5.7971,-8.9533,-27.246,-1.1429,-0.65681,6.9565
-15.292,-10.718,-13.593,-6.6013,-3.9604,-10.016,-7.1545,-9.7735,-5.9187,-6.6013,-3.9604,-8.6235,-16.507999,-12.762,-14.476,-6.4412,-11.53,1.7391,-4.9524,-3.2841,-2.7053
-20.979,-14.545,-16.846001,-7.9085,-7.2607,-24.976,-14.309,-11.068,-10.472,-7.9085,-7.2607,-17.91,-15.238,-10.857,-17.016001,-5.7971,-12.174,21.707001,-6.8571,-5.2545,-7.2142
-21.611,-18.372999,-20.747999,-14.444,-19.142,-29.528,-24.065001,-13.01,-18.275999,-14.444,-19.142,-27.197001,-16.507999,-11.492,-18.921,-7.7295,-14.75,4.9597,-15.111,-3.2841,-13.655
-17.82,-20.924999,-22.698999,-15.098,-26.403,-28.228001,-27.966999,-13.01,-25.431,-15.098,-26.403,-31.841,-15.873,-12.127,-17.650999,-10.306,-16.039,-15.652,-19.556,-2.6273,-19.452
0.50553,-6.252,-5.7886,-13.791,-16.502001,-8.065,-15.61,-9.7735,-11.772,-13.791,-16.502001,-17.247,3.8095,4.381,2.0317,5.153,1.3527,-17.584999,-8.127,13.136,-2.7053
2.4013,0.12759,2.0163,-9.8693,-7.9208,-2.8618,-4.5528,-3.9482,-7.8699,-9.8693,-7.9208,-9.9502,7.619,11.365,9.0159,10.306,7.1498,5.6039,-1.7778,10.509,3.7359
-2.654,-3.7002,0.06504,-9.2157,-8.5809,-7.4146,-7.1545,-1.3592,-15.024,-9.2157,-8.5809,-9.9502,1.2698,6.2857,3.9365,5.7971,3.285,3.0274,-6.2222,1.9704,1.1594
0.50553,-3.7002,1.3659,0.58824,-1.9802,-0.91057,-9.7561,3.1715,-13.724,0.58824,-1.9802,-3.9801,-3.1746,3.746,2.0317,3.8647,1.9968,10.113,-14.476,-1.9704,-0.12882
1.7694,-4.9761,1.3659,10.392,-0.66007,4.2927,-7.8049,10.939,-14.374,10.392,-0.66007,0.66335,-8.8889,0.57143,-0.50794,1.2882,-0.57971,10.113,-10.032,-11.823,-4.6377
6.1927,-3.7002,3.9675,7.7778,3.3003,9.4959,-3.9024,10.939,-11.122,7.7778,3.3003,3.3167,-6.9841,2.4762,1.3968,2.5765,2.6409,2.3833,-5.5873,-10.509,-3.3494
7.4566,-3.7002,3.3171,5.1634,3.9604,12.748,-3.9024,8.3495,-10.472,5.1634,3.9604,1.99,-8.8889,-2.6032,-0.50794,-1.9324,0.06441,-18.229,-3.6825,-7.225,-2.0612
5.5608,-2.4242,0.06504,3.8562,-1.3201,5.5935,-1.3008,7.7023,-12.423,3.8562,-1.3201,-0.66335,-8.254,-7.6825,-3.0476,-7.7295,-3.8003,-31.111,-3.0476,-2.6273,-11.723
5.5608,-0.51037,1.3659,5.1634,-0.66007,2.3415,1.3008,10.291,-10.472,5.1634,-0.66007,0.0,1.9048,-0.06349,2.0317,-3.2206,0.06441,1.095,-10.032,5.2545,-3.3494
1.1374,-2.4242,-1.8862,4.5098,1.3201,0.39024,-5.2033,8.9968,-10.472,4.5098,1.3201,-3.3167,5.0794,1.2063,1.3968,-4.5089,-1.868,0.45089,-13.841,7.8818,-3.9936
0.50553,-4.9761,-3.8374,2.549,-2.6403,-1.561,-5.8537,6.4078,-5.2683,2.549,-2.6403,-5.9701,5.0794,-2.6032,0.7619,-7.0853,-3.8003,4.3156,-3.0476,3.9409,-3.3494
-1.3902,-6.89,-5.7886,-7.9085,-3.3003,-6.1138,-9.1057,7.055,-3.3171,-7.9085,-3.3003,-9.2869,6.9841,-4.5079,2.0317,-9.0177,-3.8003,19.129999,2.6667,0.0,-3.9936
-3.2859,-8.8038,-8.3902,-4.6405,-3.9604,-5.4634,-13.008,4.466,-7.2195,-4.6405,-3.9604,-11.277,6.9841,-3.873,2.0317,-7.7295,-3.1562,5.6039,9.6508,-4.5977,-3.9936
0.50553,-3.7002,-3.8374,1.2418,-7.2607,-4.1626,-7.1545,5.7605,-7.2195,1.2418,-7.2607,-9.9502,12.698,1.2063,7.746,-1.2882,2.6409,-0.19324,5.8413,2.6273,-0.77295
-0.12638,-1.7863,-2.5366,-7.9085,-10.561,-10.667,-9.7561,-0.06472,-7.2195,-7.9085,-10.561,-13.93,13.333,0.57143,7.746,-1.9324,2.6409,-31.754999,-11.302,3.2841,-9.7907
4.9289,0.12759,2.6667,-5.9477,-6.6007,-8.7154,-8.4553,1.2298,-5.2683,-5.9477,-6.6007,-11.277,13.333,-0.69841,12.19,-1.2882,3.9291,-21.448999,-14.476,8.5386,-4.6377
6.1927,0.76555,6.5691,-7.9085,-3.9604,-2.2114,-5.2033,-0.06472,-2.0163,-7.9085,-3.9604,-5.3068,12.063,1.2063,14.095,0.64412,5.8615,18.486,0.12698,7.8818,6.9565
-4.5498,-4.3381,-3.187,-12.484,-9.901,-4.813,-11.707,-5.2427,-7.2195,-12.484,-9.901,-9.2869,3.1746,-3.2381,2.6667,-2.5765,-1.868,6.248,7.746,-1.9704,5.0242
-5.8136,-4.3381,-6.439,-5.9477,-6.6007,-4.813,-9.1057,-2.6537,-7.8699,-5.9477,-6.6007,-9.2869,0.0,-4.5079,-1.7778,-1.2882,-3.8003,-4.7021,8.381,-1.9704,6.3124
-0.75829,-1.7863,0.06504,1.8954,-7.2607,-4.813,-2.6016,-0.06472,-9.8211,1.8954,-7.2607,-5.9701,0.63492,-1.3333,0.7619,1.2882,0.06441,-18.229,7.746,-1.3136,3.0918
2.4013,-0.51037,4.6179,-5.2941,-3.9604,1.0407,-1.9512,-2.0065,-11.122,-5.2941,-3.9604,-1.3267,-0.63492,0.57143,1.3968,2.5765,1.9968,-11.143,-6.2222,-2.6273,-0.77295
8.0885,2.0415,7.8699,-2.6797,-3.9604,8.8455,0.65041,4.466,-6.5691,-2.6797,-3.9604,5.9701,1.9048,8.8254,5.2063,7.7295,5.2174,-7.2786,-6.2222,1.9704,5.6683
8.7204,2.0415,7.2195,2.549,-6.6007,10.797,1.3008,6.4078,-5.9187,2.549,-6.6007,9.2869,3.1746,13.905,5.8413,11.594,6.5056,23.639,-3.0476,6.5681,16.618
6.1927,3.9553,9.1707,-0.06536,0.0,11.447,7.1545,5.7605,0.58537,-0.06536,0.0,13.267,2.5397,13.905,4.5714,10.95,5.8615,35.233002,3.3016,9.8522,17.261999
8.0885,6.5072,13.724,3.2026,9.901,12.098,12.358,5.7605,7.0894,3.2026,9.901,17.247,5.7143,10.095,6.4762,7.7295,6.5056,3.6715,8.381,6.5681,13.398
11.248,5.8692,13.073,3.2026,1.3201,8.8455,10.407,1.877,3.187,3.2026,1.3201,13.93,5.0794,5.6508,6.4762,3.2206,3.9291,-13.076,12.19,-2.6273,12.754
8.7204,2.0415,7.2195,-2.0261,-5.9406,8.1951,5.2033,-1.3592,-0.06504,-2.0261,-5.9406,9.2869,0.0,-1.3333,2.6667,-6.4412,-1.868,1.095,15.365,-1.3136,-0.77295
9.3523,2.6794,7.8699,4.5098,-5.2805,10.146,6.5041,3.8188,-0.71545,4.5098,-5.2805,13.267,-5.7143,-4.5079,1.3968,-10.306,-3.8003,4.9597,-1.7778,0.0,-13.011
8.7204,2.0415,5.9187,13.007,2.6403,14.699,9.7561,6.4078,-0.06504,13.007,2.6403,17.91,-12.698,-7.0476,-3.6825,-12.882,-7.0209,-2.1256,-20.190001,-5.9113,-16.232
6.8246,5.8692,7.2195,9.085,7.2607,15.35,15.61,10.939,4.4878,9.085,7.2607,22.554001,-8.8889,-3.873,-2.4127,-8.3736,-5.0886,-2.1256,-7.4921,-2.6273,-8.5024
6.1927,5.2313,8.5203,5.817,10.561,16.0,18.211,10.939,3.8374,5.817,10.561,23.881001,-3.8095,-3.2381,-0.50794,-8.3736,-4.4444,7.5362,4.5714,5.9113,-1.4171
5.5608,0.12759,3.9675,7.1242,8.5809,17.301001,14.959,7.055,4.4878,7.1242,8.5809,19.9,-0.63492,-6.4127,-1.1429,-10.95,-7.0209,20.419001,0.12698,12.479,-3.9936
3.0332,-3.0622,-1.8862,3.8562,7.2607,12.098,7.1545,4.466,2.5366,3.8562,7.2607,13.267,1.2698,-7.6825,-1.7778,-9.0177,-8.3092,25.572001,-1.1429,4.5977,-3.3494
3.0332,1.4035,-3.8374,5.817,7.2607,6.2439,5.8537,4.466,5.7886,5.817,7.2607,8.6235,5.0794,-1.9683,-1.1429,-0.64412,-4.4444,13.333,1.3968,-0.65681,-0.12882
1.1374,5.2313,-5.1382,1.8954,-1.9802,1.0407,1.3008,3.1715,3.187,1.8954,-1.9802,3.3167,10.794,3.746,0.12698,6.4412,-0.57971,-0.83736,9.0159,6.5681,5.0242
1.7694,12.887,0.71545,-7.9085,-8.5809,-1.561,0.65041,-0.71197,0.58537,-7.9085,-8.5809,0.0,17.143,14.54,5.8413,18.035,9.7262,-22.093,10.921,8.5386,15.33
-13.397,1.4035,-8.3902,-15.098,-13.201,-15.22,-13.659,-14.304,-2.6667,-15.098,-13.201,-13.93,8.8889,12.0,-3.6825,12.882,3.285,-22.093,5.2063,-0.65681,18.551001
-14.028,-6.252,-10.992,-12.484,-9.2409,-15.22,-20.163,-16.893,0.58537,-12.484,-9.2409,-17.91,10.159,12.0,-2.4127,9.6618,1.3527,8.1804,5.2063,-0.65681,14.686
-7.7093,-10.718,-12.293,-9.2157,-9.2409,-17.171,-18.211,-15.599,-2.6667,-9.2157,-9.2409,-16.584,15.238,9.4603,3.3016,3.8647,-2.5121,26.216,4.5714,9.1954,6.9565
-2.0221,-10.08,-9.0407,-7.2549,-7.2607,-15.87,-12.358,-13.01,-0.71545,-7.2549,-7.2607,-12.604,17.143,7.5556,6.4762,0.64412,-3.8003,21.707001,3.9365,11.166,3.0918
4.297,-4.9761,-1.2358,-12.484,-5.9406,-5.4634,-5.8537,-11.068,-0.71545,-12.484,-5.9406,-6.6335,14.603,6.9206,8.381,1.2882,0.70853,-19.517,-2.4127,2.6273,-2.0612
5.5608,-1.1483,5.2683,-7.9085,-6.6007,-2.8618,-1.9512,-7.8317,1.8862,-7.9085,-6.6007,-2.6534,8.254,7.5556,9.6508,6.4412,6.5056,-7.9227,1.3968,1.3136,8.2448
3.6651,-5.614,3.9675,-7.2549,-5.9406,-3.5122,-7.1545,-10.421,-2.0163,-7.2549,-5.9406,-5.3068,-0.63492,4.381,7.1111,5.153,5.2174,6.8921,-4.9524,0.65681,8.8889
-2.0221,-9.4418,-1.2358,-14.444,-8.5809,-6.1138,-11.707,-14.951,-5.2683,-14.444,-8.5809,-8.6235,-7.619,-0.06349,2.0317,-0.64412,0.70853,6.248,-8.7619,-2.6273,0.5153
1.1374,-3.0622,3.9675,-2.6797,0.0,-6.1138,-3.9024,-9.7735,1.2358,-2.6797,0.0,-2.6534,-5.7143,-0.06349,3.9365,1.2882,3.9291,-5.9903,0.7619,-2.6273,-0.12882
1.7694,4.5933,7.8699,8.4314,7.2607,-0.91057,4.5528,-5.89,13.593,8.4314,7.2607,4.6434,-5.0794,-2.6032,3.9365,0.0,5.2174,1.7391,10.286,-2.6273,-0.77295
1.1374,7.7831,6.5691,5.1634,9.901,3.6423,10.407,-5.2427,20.098,5.1634,9.901,7.9602,-5.0794,-7.0476,-1.1429,-5.7971,1.3527,-18.872999,13.46,-5.2545,-7.8583
1.7694,7.7831,7.2195,0.58824,0.66007,4.9431,13.008,-7.8317,16.846001,0.58824,0.66007,9.2869,-2.5397,-6.4127,-2.4127,-7.0853,2.6409,-29.179001,-1.7778,-2.6273,-14.3
10.616,14.163,15.675,7.1242,7.9208,14.049,24.065001,-2.0065,22.698999,7.1242,7.9208,17.91,10.159,3.1111,8.381,3.2206,13.591,3.6715,2.6667,3.2841,-2.7053
9.9842,17.351999,16.976,11.046,19.142,11.447,22.764,-2.0065,26.601999,11.046,19.142,20.563999,17.143,9.4603,11.556,7.7295,16.167,4.3156,12.825,1.9704,1.8035
9.3523,19.266001,16.976,13.66,26.403,9.4959,18.862,-0.71197,26.601999,13.66,26.403,21.226999,16.507999,10.73,9.6508,8.3736,14.879,10.757,23.618999,2.6273,3.7359
9.3523,19.266001,16.325001,11.699,25.743,17.301001,22.764,1.2298,24.65,11.699,25.743,21.891001,10.794,10.73,7.1111,9.0177,12.947,1.7391,21.079,3.2841,8.2448
2.4013,7.1451,3.3171,-0.71895,5.9406,10.146,14.309,-4.5955,11.642,-0.71895,5.9406,11.277,-3.8095,0.57143,-2.4127,-1.2882,1.3527,-3.4138,8.381,-1.3136,4.38
-3.9179,-0.51037,-5.7886,-0.06536,-2.6403,1.6911,3.252,-6.5372,5.1382,-0.06536,-2.6403,2.6534,-14.603,-4.5079,-9.3968,-5.7971,-6.3768,-9.8551,6.4762,-9.1954,3.0918
-2.654,2.6794,-3.8374,9.085,1.9802,7.5447,4.5528,1.877,10.992,9.085,1.9802,7.2968,-12.698,-0.69841,-8.127,-1.9324,-5.7327,-1.4815,14.095,-5.9113,8.2448
-12.133,-6.252,-11.642,5.817,-1.9802,2.3415,0.0,0.58252,-0.06504,5.817,-1.9802,1.99,-17.143,-7.0476,-14.476,-9.0177,-13.462,12.045,5.2063,-11.166,5.0242
-9.6051,-8.8038,-11.642,4.5098,7.9208,-0.91057,-1.9512,2.5243,2.5366,4.5098,7.9208,-0.66335,-12.698,-7.6825,-8.7619,-9.0177,-10.886,6.248,-0.50794,-5.9113,3.0918
1.1374,-3.7002,-5.7886,8.4314,9.901,4.2927,3.252,8.3495,5.7886,8.4314,9.901,2.6534,-2.5397,-3.873,3.3016,-1.9324,-0.57971,3.0274,0.12698,-3.9409,6.9565
2.4013,-0.51037,-4.4878,5.1634,6.6007,2.9919,3.9024,7.7023,3.187,5.1634,6.6007,3.3167,1.2698,-3.873,7.746,1.9324,5.2174,8.1804,6.4762,-3.9409,3.7359
3.6651,2.0415,1.3659,9.085,8.5809,4.2927,5.2033,5.7605,4.4878,9.085,8.5809,4.6434,4.4444,-5.1429,7.746,3.2206,7.7939,-1.4815,5.2063,-1.3136,-7.2142
3.0332,5.8692,5.9187,8.4314,1.9802,4.9431,5.2033,4.466,3.8374,8.4314,1.9802,5.9701,5.7143,-7.0476,5.2063,2.5765,6.5056,-2.1256,-3.0476,0.0,-10.435
0.50553,5.2313,5.2683,1.2418,-1.9802,2.3415,5.8537,3.1715,-1.3659,1.2418,-1.9802,3.3167,8.254,-5.7778,3.9365,1.9324,5.2174,-11.143,-11.302,2.6273,-8.5024
-1.3902,3.9553,2.0163,-5.9477,-7.2607,2.3415,9.7561,1.2298,-3.3171,-5.9477,-7.2607,0.0,8.254,-5.7778,3.3016,1.2882,4.5733,-9.2109,-6.8571,9.8522,-8.5024
-0.12638,5.2313,1.3659,-0.71895,4.6205,6.2439,9.7561,5.7605,5.1382,-0.71895,4.6205,0.66335,6.9841,-1.3333,3.9365,6.4412,6.5056,11.401,1.3968,13.136,4.38
-8.3412,-1.7863,-5.1382,3.2026,13.861,-8.065,-4.5528,0.58252,6.439,3.2026,13.861,-7.9602,-2.5397,-3.2381,-4.9524,3.2206,0.06441,10.113,2.6667,-2.6273,2.4477
-9.6051,-5.614,-5.7886,3.2026,8.5809,-15.22,-8.4553,-5.89,5.1382,3.2026,8.5809,-11.94,-8.254,-4.5079,-9.3968,-1.9324,-5.0886,12.045,1.3968,-7.225,-7.8583
1.7694,1.4035,5.2683,6.4706,8.5809,-6.1138,0.65041,0.58252,9.0407,6.4706,8.5809,-3.3167,-1.2698,1.2063,0.12698,2.5765,0.70853,15.91,0.7619,3.2841,-6.57
9.9842,11.611,15.675,-2.0261,4.6205,2.9919,9.1057,0.58252,16.846001,-2.0261,4.6205,5.3068,7.619,5.6508,9.0159,9.6618,10.37,3.6715,5.2063,8.5386,3.7359
9.9842,13.525,18.927,-11.83,7.9208,7.5447,15.61,-5.2427,11.642,-11.83,7.9208,8.6235,8.254,6.2857,10.921,9.6618,11.659,-2.1256,5.2063,7.225,5.0242
7.4566,11.611,16.325001,-2.0261,5.2805,1.6911,16.26,-6.5372,9.6911,-2.0261,5.2805,6.6335,6.3492,5.6508,9.0159,6.4412,8.438,3.0274,2.6667,4.5977,2.4477
2.4013,2.0415,6.5691,3.2026,5.2805,-4.1626,4.5528,-7.1845,11.642,3.2026,5.2805,-1.3267,0.0,-5.1429,1.3968,-3.8647,0.06441,-24.025999,9.0159,0.65681,-5.2818
6.8246,3.3174,13.073,5.817,12.541,2.3415,3.252,-1.3592,14.244,5.817,12.541,1.3267,2.5397,-4.5079,5.2063,-1.2882,3.285,-19.517,13.46,9.1954,4.38
2.4013,3.9553,13.073,0.58824,3.9604,4.9431,3.9024,-0.71197,10.341,0.58824,3.9604,1.99,0.63492,-5.1429,2.6667,-1.2882,3.285,9.4686,9.6508,-3.9409,6.9565
-2.654,2.6794,7.8699,-5.9477,-5.2805,1.6911,3.9024,-0.71197,1.8862,-5.9477,-5.2805,0.66335,-5.0794,-7.0476,-1.7778,-2.5765,0.06441,8.1804,5.2063,-15.764,6.3124
4.9289,6.5072,9.8211,-9.2157,-5.9406,6.8943,9.1057,1.877,1.2358,-9.2157,-5.9406,6.6335,-5.0794,-6.4127,2.6667,-2.5765,1.3527,-4.7021,1.3968,-7.225,5.0242
8.0885,4.5933,10.472,-9.2157,-5.2805,7.5447,6.5041,0.58252,-2.0163,-9.2157,-5.2805,7.9602,-4.4444,-8.9524,3.9365,-6.4412,0.06441,10.757,-8.127,-3.2841,-5.9259
9.9842,4.5933,12.423,2.549,-6.6007,8.1951,4.5528,4.466,-7.2195,2.549,-6.6007,9.2869,0.63492,-7.0476,7.746,-6.4412,2.6409,19.775,-17.016001,7.8818,-10.435
8.7204,4.5933,11.122,6.4706,-7.2607,8.8455,2.6016,6.4078,-5.9187,6.4706,-7.2607,8.6235,1.2698,-7.6825,6.4762,-7.0853,3.285,-2.1256,-13.841,9.1954,-10.435
10.616,4.5933,9.1707,9.7386,0.0,12.748,1.9512,7.055,-5.9187,9.7386,0.0,8.6235,4.4444,-4.5079,7.746,-3.8647,4.5733,-14.364,-8.7619,11.166,-7.8583
9.3523,0.12759,4.6179,9.085,3.3003,11.447,-1.9512,3.1715,-6.5691,9.085,3.3003,5.3068,5.0794,-6.4127,7.1111,-5.7971,0.06441,13.977,-4.3175,11.823,-11.723
10.616,-3.0622,3.3171,0.58824,-0.66007,6.2439,-3.252,3.1715,-4.6179,0.58824,-0.66007,3.9801,5.0794,-8.9524,7.1111,-9.6618,-2.5121,8.8245,-6.8571,13.136,-14.944
9.9842,-1.7863,8.5203,-5.9477,1.9802,5.5935,-0.65041,5.7605,-2.6667,-5.9477,1.9802,8.6235,10.159,-5.1429,10.921,-5.7971,1.9968,22.995001,-11.302,17.733999,-7.8583
1.7694,-4.9761,4.6179,-2.0261,-6.6007,0.39024,0.0,0.58252,-6.5691,-2.0261,-6.6007,4.6434,5.7143,-7.0476,5.8413,-10.306,-0.57971,33.945,-16.381001,14.45,-14.3
5.5608,-4.3381,3.3171,4.5098,-3.3003,1.6911,1.3008,3.8188,-5.9187,4.5098,-3.3003,1.99,3.1746,-5.1429,5.8413,-8.3736,-0.57971,16.554001,-15.111,13.136,-14.3
8.7204,-3.7002,0.71545,-0.71895,4.6205,3.6423,-1.3008,5.7605,-4.6179,-0.71895,4.6205,-0.66335,0.63492,-5.7778,5.8413,-8.3736,-3.1562,6.248,-8.7619,12.479,-18.164
3.6651,-1.7863,-3.8374,1.8954,1.9802,4.9431,1.3008,3.1715,-0.71545,1.8954,1.9802,0.66335,-1.2698,-5.7778,0.12698,-9.0177,-6.3768,-6.6345,-11.302,4.5977,-20.097
-1.3902,0.12759,-8.3902,9.7386,0.66007,1.0407,5.2033,3.8188,1.8862,9.7386,0.66007,0.66335,-6.3492,-5.7778,-4.9524,-5.7971,-7.0209,-23.382,-6.2222,-5.2545,-13.011
-5.1817,0.76555,-9.0407,4.5098,-0.66007,-3.5122,3.9024,1.877,4.4878,4.5098,-0.66007,-1.99,-13.333,-5.1429,-9.3968,-2.5765,-7.0209,-0.83736,6.4762,-7.225,1.8035
1.1374,7.1451,0.06504,3.2026,12.541,6.2439,7.8049,6.4078,15.545,3.2026,12.541,3.3167,-11.429,2.4762,-4.3175,5.7971,0.06441,28.148001,20.444,-3.2841,15.974
-5.8136,-0.51037,-7.7398,-0.06536,6.6007,-2.8618,-1.9512,1.877,9.0407,-0.06536,6.6007,-6.6335,-17.778,-3.2381,-11.302,-1.2882,-7.0209,3.0274,16.635,-11.166,1.8035
-10.869,-6.89,-12.293,1.8954,-1.3201,-8.7154,-5.8537,2.5243,3.8374,1.8954,-1.3201,-11.277,-16.507999,-2.6032,-13.841,-2.5765,-9.5974,3.6715,-1.1429,-9.8522,1.1594
-12.765,-10.08,-14.894,-2.6797,-4.6205,-10.016,-7.1545,2.5243,1.2358,-2.6797,-4.6205,-12.604,-15.873,-5.7778,-15.746,-3.8647,-11.53,-4.7021,-0.50794,-9.1954,3.0918
-15.292,-10.718,-16.846001,-7.9085,-7.2607,-10.667,-8.4553,-6.5372,-4.6179,-7.9085,-7.2607,-15.92,-19.683001,-11.492,-20.190001,-7.7295,-14.75,-40.129002,5.2063,-21.018,-5.2818
-8.3412,-1.7863,-6.439,-5.2941,-4.6205,-4.813,-3.252,-0.06472,-0.06504,-5.2941,-4.6205,-8.6235,-12.063,-4.5079,-12.571,-0.64412,-6.3768,-13.076,8.381,-13.793,2.4477
-5.8136,3.9553,0.71545,1.2418,-1.3201,-3.5122,-1.9512,5.1133,2.5366,1.2418,-1.3201,-3.9801,-4.4444,-0.06349,-4.9524,3.8647,-0.57971,25.572001,11.556,-1.3136,12.11
-8.3412,1.4035,-1.2358,0.58824,-3.3003,-7.4146,-5.8537,-2.0065,-2.6667,0.58824,-3.3003,-7.9602,-4.4444,-4.5079,-4.3175,-0.64412,-1.868,19.129999,2.6667,-2.6273,5.6683
-9.6051,-2.4242,-7.7398,-3.9869,-9.2409,-10.667,-11.057,-5.2427,-9.1707,-3.9869,-9.2409,-13.93,-3.8095,-7.0476,-6.2222,-7.0853,-7.6651,-6.6345,-1.7778,-3.2841,-6.57
-10.869,-6.252,-9.6911,-10.523,-13.201,-10.667,-9.7561,-6.5372,-10.472,-10.523,-13.201,-14.594,-1.9048,-7.0476,-8.127,-9.0177,-10.242,-14.364,-18.921,0.0,-10.435
-7.7093,-6.89,-5.1382,-15.752,-9.901,-6.7642,-7.1545,-7.1845,-11.772,-15.752,-9.901,-9.2869,1.9048,-1.3333,-7.4921,-3.8647,-7.0209,-15.008,-17.016001,7.8818,-2.0612
-7.7093,-7.5279,-3.8374,-12.484,-3.3003,-6.1138,-8.4553,-6.5372,-13.724,-12.484,-3.3003,-7.2968,2.5397,4.381,-7.4921,-0.64412,-5.0886,-0.83736,-3.6825,10.509,4.38
-6.4455,-10.08,-4.4878,-4.6405,-1.3201,-4.813,-9.7561,-1.3592,-16.325001,-4.6405,-1.3201,-5.3068,2.5397,5.0159,-6.8571,-3.2206,-6.3768,8.8245,-6.8571,-1.3136,-0.77295
3.0332,-6.252,0.06504,1.8954,0.66007,2.3415,0.65041,7.055,-6.5691,1.8954,0.66007,3.9801,8.254,10.095,1.3968,-0.64412,-3.1562,3.0274,-1.7778,0.0,0.5153
1.7694,-6.89,-1.8862,5.817,-3.9604,1.6911,2.6016,3.1715,-3.9675,5.817,-3.9604,5.3068,5.7143,8.8254,0.7619,-1.2882,-3.8003,2.3833,-7.4921,2.6273,2.4477
-5.8136,-5.614,-3.8374,2.549,-5.2805,-0.26016,0.65041,-2.6537,-5.2683,2.549,-5.2805,1.99,-0.63492,5.0159,-6.2222,-1.2882,-4.4444,-5.9903,-6.8571,-5.2545,-0.77295
-6.4455,-0.51037,-1.8862,0.58824,-1.3201,1.6911,2.6016,-3.301,-0.06504,0.58824,-1.3201,3.9801,0.0,6.9206,-6.8571,1.9324,-2.5121,-27.889999,-0.50794,-7.225,6.3124
-2.654,3.9553,1.3659,5.817,7.9208,6.2439,7.1545,1.2298,5.1382,5.817,7.9208,9.2869,4.4444,12.635,-1.7778,8.3736,3.285,-9.8551,4.5714,-6.5681,15.33
-1.3902,5.8692,3.3171,8.4314,17.822001,5.5935,4.5528,1.877,5.7886,8.4314,17.822001,8.6235,6.9841,14.54,4.5714,10.306,7.1498,26.860001,6.4762,3.2841,11.465
4.297,10.973,6.5691,7.7778,15.842,10.146,5.2033,3.1715,9.0407,7.7778,15.842,9.9502,8.8889,17.079,10.921,14.171,12.303,21.707001,21.714001,7.225,7.6006
6.8246,12.887,5.9187,7.1242,1.9802,9.4959,7.8049,4.466,9.6911,7.1242,1.9802,9.2869,8.8889,13.27,10.286,13.527,11.659,1.095,21.714001,3.2841,7.6006
6.1927,10.335,2.0163,2.549,-1.3201,5.5935,4.5528,1.877,8.3902,2.549,-1.3201,5.3068,5.7143,8.8254,5.8413,10.306,7.1498,-20.160999,0.7619,-5.9113,8.2448
2.4013,2.6794,-2.5366,-3.3333,3.3003,1.6911,-1.3008,-0.06472,-0.71545,-3.3333,3.3003,0.66335,0.63492,5.6508,2.0317,5.7971,1.9968,-25.313999,-1.7778,-9.8522,3.7359
-0.75829,0.76555,-1.8862,-4.6405,-5.2805,1.0407,-3.252,-0.06472,-4.6179,-4.6405,-5.2805,-0.66335,0.0,5.6508,2.0317,7.0853,1.3527,-0.19324,1.3968,-3.9409,8.8889
4.9289,7.7831,4.6179,4.5098,-1.3201,3.6423,2.6016,5.1133,2.5366,4.5098,-1.3201,2.6534,4.4444,10.095,6.4762,13.527,6.5056,10.757,14.73,7.225,15.974
-0.75829,3.9553,-1.8862,3.8562,-3.3003,-4.1626,-3.252,2.5243,-5.2683,3.8562,-3.3003,-5.3068,3.1746,5.6508,1.3968,8.3736,1.3527,22.351,-4.9524,7.225,5.6683
-7.0774,-4.3381,-10.992,-5.9477,-12.541,-10.667,-14.309,-2.0065,-16.325001,-5.9477,-12.541,-13.93,2.5397,3.1111,-3.6825,4.5089,-3.8003,27.504,-14.476,12.479,5.6683
-5.1817,-4.9761,-9.0407,-7.9085,-13.861,-7.4146,-14.959,-2.0065,-15.024,-7.9085,-13.861,-15.257,5.7143,6.9206,-0.50794,8.3736,0.70853,6.248,0.12698,7.8818,12.754
-5.8136,-2.4242,-5.7886,-9.2157,-8.5809,-10.016,-13.008,-5.89,-11.122,-9.2157,-8.5809,-16.584,1.2698,5.6508,-1.7778,7.7295,2.6409,-4.058,-1.7778,-3.9409,5.0242
1.1374,3.9553,2.0163,-1.3725,-2.6403,-6.7642,-4.5528,-3.301,-4.6179,-1.3725,-2.6403,-11.94,-1.2698,6.2857,0.7619,9.6618,5.8615,-9.2109,4.5714,-1.3136,3.7359
0.50553,3.3174,0.06504,-5.9477,-13.861,-5.4634,-3.9024,-4.5955,-7.2195,-5.9477,-13.861,-11.277,-3.8095,5.6508,-1.1429,7.7295,3.9291,-44.638,0.12698,-5.9113,1.1594
1.7694,1.4035,-1.2358,-7.9085,-11.221,-6.1138,-3.9024,-3.301,-7.8699,-7.9085,-11.221,-9.2869,-0.63492,11.365,1.3968,9.6618,5.8615,-28.535,-3.0476,-2.6273,6.3124
3.0332,2.6794,4.6179,1.2418,2.6403,0.39024,-2.6016,1.2298,-2.0163,1.2418,2.6403,-3.3167,3.1746,15.81,5.2063,12.238,9.0821,6.248,0.7619,1.3136,12.754
6.8246,9.697,13.724,8.4314,9.2409,6.8943,3.252,5.7605,4.4878,8.4314,9.2409,1.99,8.8889,17.714001,10.921,16.103001,15.523,19.775,5.2063,5.2545,12.754
5.5608,7.1451,14.374,7.7778,3.9604,2.3415,1.9512,1.877,5.1382,7.7778,3.9604,-1.3267,8.254,11.365,11.556,12.238,13.591,23.639,0.12698,5.9113,6.3124
-0.12638,0.76555,8.5203,-3.9869,-4.6205,-6.1138,-0.65041,-3.301,1.2358,-3.9869,-4.6205,-5.9701,2.5397,1.2063,4.5714,3.2206,5.2174,7.5362,0.12698,1.3136,-0.12882
1.7694,5.2313,7.2195,-6.6013,3.9604,-2.2114,4.5528,1.2298,6.439,-6.6013,3.9604,-0.66335,2.5397,3.746,2.6667,7.0853,2.6409,-7.9227,14.73,3.9409,13.398
-5.8136,2.6794,-1.8862,-0.71895,0.66007,-8.065,-0.65041,-3.301,3.8374,-0.71895,0.66007,-5.9701,-3.1746,1.2063,-5.5873,1.9324,-5.0886,-5.3462,16.0,-3.9409,10.821
-12.765,-2.4242,-7.7398,-3.3333,-11.881,-11.317,-5.2033,-9.7735,-4.6179,-3.3333,-11.881,-13.267,-8.8889,-1.3333,-13.206,-3.2206,-10.886,-3.4138,4.5714,-9.1954,-0.12882
-10.869,-0.51037,-3.187,-9.8693,-9.901,-11.967,-6.5041,-10.421,-7.2195,-9.8693,-9.901,-12.604,-8.254,0.57143,-12.571,-1.9324,-9.5974,-18.229,2.0317,-3.9409,-1.4171
-10.237,-1.1483,-2.5366,-5.2941,2.6403,-13.919,-9.1057,-3.9482,0.58537,-5.2941,2.6403,-9.9502,-7.619,3.1111,-12.571,1.2882,-9.5974,-15.008,-1.7778,-3.9409,8.2448
-10.237,-4.9761,-5.1382,-5.2941,1.9802,-11.317,-7.1545,1.2298,6.439,-5.2941,1.9802,-8.6235,-8.254,1.8413,-13.206,1.9324,-10.242,10.113,3.3016,-3.9409,13.398
-10.869,-11.356,-10.992,-5.9477,-6.6007,-10.016,-11.057,0.58252,-2.6667,-5.9477,-6.6007,-10.614,-13.333,-5.7778,-15.111,-3.8647,-13.462,-9.8551,10.921,-8.5386,1.8035
-10.237,-10.718,-9.0407,1.2418,-3.9604,-2.8618,-9.1057,-1.3592,-6.5691,1.2418,-3.9604,-7.2968,-13.968,-10.222,-14.476,-6.4412,-13.462,-4.058,0.12698,-8.5386,-7.8583
-10.237,-6.89,-4.4878,1.2418,-1.3201,-4.813,-7.1545,-4.5955,-9.8211,1.2418,-1.3201,-4.6434,-13.968,-12.762,-11.302,-5.153,-9.5974,4.3156,-6.8571,-8.5386,-7.2142
-4.5498,-5.614,-2.5366,0.58824,1.9802,-9.3659,-6.5041,1.2298,-7.8699,0.58824,1.9802,-3.3167,-10.159,-12.762,-5.5873,-3.8647,-5.0886,-6.6345,-9.3968,-6.5681,-6.57
1.7694,-7.5279,-2.5366,-0.71895,-1.3201,-3.5122,-7.8049,3.1715,-11.772,-0.71895,-1.3201,-2.6534,-3.8095,-10.222,-1.1429,-3.2206,-2.5121,-20.160999,-9.3968,-3.9409,-3.3494
5.5608,-8.1659,-1.2358,1.2418,-0.66007,3.6423,-3.9024,4.466,-7.2195,1.2418,-0.66007,0.66335,1.9048,-3.873,3.3016,-2.5765,-0.57971,3.6715,-3.0476,7.225,-0.77295
0.50553,-8.1659,-3.187,3.8562,-5.2805,3.6423,-1.9512,1.877,-4.6179,3.8562,-5.2805,0.0,0.0,-0.06349,1.3968,-5.153,-2.5121,19.129999,-1.1429,2.6273,-5.9259
1.1374,-5.614,-1.8862,5.1634,0.0,-4.1626,-1.9512,-1.3592,-3.9675,5.1634,0.0,-1.3267,-1.9048,1.2063,2.0317,-5.7971,-1.2238,-9.8551,-8.7619,-7.8818,-7.8583
5.5608,0.12759,7.2195,3.2026,3.9604,-1.561,3.9024,-0.06472,1.2358,3.2026,3.9604,3.9801,1.9048,3.1111,7.1111,-2.5765,4.5733,-3.4138,-10.032,-6.5681,-6.57
4.297,2.6794,9.8211,3.2026,1.3201,2.3415,7.8049,1.2298,3.8374,3.2026,1.3201,7.2968,5.0794,3.1111,8.381,-1.2882,6.5056,17.198,-3.6825,1.3136,-5.2818
1.7694,-2.4242,4.6179,-0.71895,1.3201,2.9919,0.65041,-0.06472,-0.06504,-0.71895,1.3201,3.9801,5.7143,3.1111,3.9365,-3.2206,1.9968,-7.2786,2.6667,-1.9704,-5.9259
10.616,1.4035,9.1707,-2.6797,3.9604,16.0,1.9512,3.1715,3.187,-2.6797,3.9604,9.9502,12.698,10.73,9.0159,2.5765,5.2174,-9.8551,0.12698,3.9409,1.1594
14.408,5.8692,15.024,-0.06536,5.9406,12.098,11.057,5.1133,3.8374,-0.06536,5.9406,13.267,17.143,13.905,13.46,5.153,7.7939,9.4686,0.7619,15.107,5.6683
7.4566,5.8692,14.374,11.046,9.901,1.6911,12.358,1.877,2.5366,11.046,9.901,11.277,8.8889,6.2857,5.8413,1.2882,1.9968,9.4686,-1.1429,13.793,3.7359
-7.0774,0.12759,5.2683,11.699,9.901,-2.2114,3.9024,-1.3592,-0.71545,11.699,9.901,4.6434,-3.8095,-2.6032,-9.3968,-5.153,-8.3092,10.757,-8.7619,4.5977,-0.77295
-11.501,-6.252,-4.4878,-3.9869,-3.3003,-4.1626,-8.4553,-3.301,-9.1707,-3.9869,-3.3003,-3.9801,-8.8889,-5.1429,-15.746,-7.7295,-13.462,9.4686,-8.127,1.3136,-11.723
-5.1817,-7.5279,-5.7886,-14.444,-14.521,-9.3659,-11.707,-5.89,-15.024,-14.444,-14.521,-7.9602,-6.9841,-5.1429,-11.302,-5.153,-10.242,-8.5668,-15.746,2.6273,-12.367
-1.3902,-3.7002,0.71545,-11.176,-7.2607,-7.4146,-7.1545,-7.1845,-10.472,-11.176,-7.2607,-5.3068,0.63492,-3.873,-3.6825,-0.64412,-3.8003,1.095,-4.9524,1.3136,-10.435
1.7694,2.0415,9.8211,4.5098,-0.66007,6.2439,4.5528,-0.06472,-1.3659,4.5098,-0.66007,3.9801,8.8889,3.746,4.5714,5.7971,4.5733,5.6039,5.2063,-1.3136,-0.12882
1.7694,3.9553,12.423,11.046,1.9802,6.8943,5.8537,5.7605,1.2358,11.046,1.9802,5.9701,11.429,5.0159,8.381,8.3736,7.7939,8.1804,5.8413,4.5977,10.821
-0.12638,2.6794,6.5691,-0.71895,-1.9802,4.9431,-0.65041,3.1715,1.8862,-0.71895,-1.9802,1.99,5.7143,2.4762,5.2063,5.7971,5.2174,2.3833,2.0317,0.0,6.9565
11.88,15.439,16.325001,3.8562,11.881,12.748,10.407,12.88,12.943,3.8562,11.881,11.94,11.429,13.27,13.46,15.459,13.591,3.6715,9.6508,6.5681,18.551001
13.144,15.439,19.577,8.4314,9.2409,10.146,13.008,11.586,9.6911,8.4314,9.2409,11.277,11.429,15.81,14.73,14.171,14.235,-10.499,6.4762,4.5977,10.821
4.9289,4.5933,14.374,5.1634,-0.66007,0.39024,0.0,-0.71197,-1.3659,5.1634,-0.66007,0.0,5.0794,12.0,9.6508,8.3736,10.37,-6.6345,-6.2222,-4.5977,-5.2818
2.4013,3.9553,13.724,5.1634,7.9208,-0.91057,-1.9512,-3.301,-0.71545,5.1634,7.9208,0.0,8.254,15.81,9.0159,12.882,13.591,-3.4138,0.7619,-5.9113,3.0918
0.50553,-1.1483,6.5691,0.58824,0.66007,-0.91057,0.65041,-3.301,-4.6179,0.58824,0.66007,0.0,10.794,13.905,7.1111,9.6618,9.7262,-0.19324,2.0317,0.0,6.3124
-1.3902,-6.252,1.3659,-4.6405,-6.6007,0.39024,-0.65041,-1.3592,-7.2195,-4.6405,-6.6007,-0.66335,10.159,8.8254,3.9365,2.5765,2.6409,10.113,3.3016,4.5977,3.0918
0.50553,-6.252,3.3171,-7.2549,-9.2409,1.0407,-3.9024,-2.0065,-6.5691,-7.2549,-9.2409,-2.6534,7.619,3.746,3.3016,-1.2882,0.70853,-15.652,-2.4127,3.2841,-0.77295
2.4013,-4.9761,7.8699,-6.6013,-6.6007,-0.26016,-1.3008,-1.3592,-3.9675,-6.6013,-6.6007,-1.3267,6.9841,3.746,5.2063,0.0,2.6409,-9.2109,-5.5873,3.9409,1.1594
1.7694,-1.7863,8.5203,0.58824,-3.3003,-4.1626,-3.252,-0.06472,-5.2683,0.58824,-3.3003,-1.3267,6.9841,6.9206,5.8413,4.5089,5.2174,11.401,-6.8571,7.8818,1.8035
-1.3902,-3.7002,0.71545,-1.3725,1.9802,-8.065,-11.057,-1.3592,-5.9187,-1.3725,1.9802,-5.3068,2.5397,2.4762,0.7619,2.5765,0.70853,-5.3462,-10.667,7.8818,-0.77295
3.6651,3.3174,4.6179,0.58824,5.9406,4.9431,-0.65041,1.877,5.7886,0.58824,5.9406,3.3167,6.9841,4.381,5.2063,5.153,4.5733,-5.3462,3.3016,7.225,2.4477
3.6651,5.2313,8.5203,-4.6405,0.0,7.5447,5.2033,-0.71197,7.0894,-4.6405,0.0,5.9701,8.8889,1.2063,7.1111,4.5089,6.5056,10.757,13.46,3.9409,6.3124
6.8246,6.5072,13.073,-0.71895,2.6403,2.9919,7.8049,-0.06472,8.3902,-0.71895,2.6403,7.9602,8.254,-4.5079,9.0159,0.0,7.7939,-9.8551,16.0,3.9409,4.38
7.4566,9.697,16.325001,7.1242,11.881,2.9919,11.707,3.8188,8.3902,7.1242,11.881,9.9502,7.619,-5.1429,9.0159,-1.2882,8.438,3.0274,7.746,5.2545,-1.4171
1.1374,7.7831,9.8211,4.5098,7.9208,2.3415,9.1057,1.877,7.0894,4.5098,7.9208,5.9701,0.0,-6.4127,2.6667,-1.9324,3.9291,12.689,3.3016,0.0,-4.6377
-2.654,-2.4242,-1.8862,-1.3725,0.0,2.9919,0.65041,-1.3592,2.5366,-1.3725,0.0,0.66335,-9.5238,-11.492,-4.3175,-7.7295,-5.0886,-1.4815,0.12698,-5.9113,-4.6377
1.1374,-2.4242,-1.8862,-3.9869,-3.3003,3.6423,0.0,-0.71197,-3.3171,-3.9869,-3.3003,0.66335,-8.8889,-10.857,-0.50794,-7.7295,-4.4444,9.4686,0.12698,0.0,-6.57
8.0885,8.4211,9.1707,7.1242,-1.9802,4.2927,6.5041,4.466,1.2358,7.1242,-1.9802,6.6335,-3.8095,-4.5079,6.4762,0.64412,4.5733,14.622,8.381,3.2841,-2.7053
11.88,16.715,16.976,8.4314,12.541,10.146,12.358,6.4078,7.7398,8.4314,12.541,12.604,1.2698,2.4762,9.6508,8.3736,12.303,4.3156,7.746,0.0,8.2448
2.4013,9.059,8.5203,1.8954,15.842,8.1951,6.5041,1.877,3.8374,1.8954,15.842,6.6335,-0.63492,-0.69841,2.0317,3.8647,6.5056,-18.872999,1.3968,-7.8818,-1.4171
-1.3902,2.0415,0.06504,5.1634,5.9406,4.2927,0.65041,1.877,1.8862,5.1634,5.9406,1.3267,-1.9048,-5.7778,-1.1429,-1.2882,1.9968,-9.8551,2.0317,-4.5977,-7.8583
-3.2859,-0.51037,-4.4878,0.58824,-5.2805,-1.561,-5.8537,-2.6537,-3.3171,0.58824,-5.2805,-2.6534,-1.2698,-9.5873,-0.50794,-2.5765,0.70853,1.7391,4.5714,-2.6273,-6.57
-1.3902,0.12759,-5.1382,0.58824,-10.561,-6.1138,-4.5528,-4.5955,-4.6179,0.58824,-10.561,-3.3167,-1.2698,-12.762,0.12698,-4.5089,-0.57971,-4.7021,3.9365,-2.6273,-4.6377
1.7694,3.3174,-2.5366,-5.2941,-0.66007,-4.1626,3.252,-2.6537,-0.06504,-5.2941,-0.66007,1.3267,-1.9048,-10.857,2.6667,-3.2206,0.06441,-0.19324,0.7619,4.5977,-1.4171
2.4013,3.9553,-1.8862,-6.6013,1.3201,1.6911,3.9024,-4.5955,0.58537,-6.6013,1.3201,2.6534,-2.5397,-7.6825,2.0317,-1.2882,0.70853,-17.584999,-3.0476,3.9409,-3.3494
4.9289,4.5933,2.0163,3.2026,5.2805,11.447,8.4553,-1.3592,4.4878,3.2026,5.2805,7.2968,1.9048,1.2063,5.8413,5.153,6.5056,1.7391,3.9365,5.9113,6.9565
0.50553,0.76555,-1.8862,-1.3725,2.6403,4.9431,1.3008,-3.301,3.187,-1.3725,2.6403,3.3167,-1.2698,0.57143,3.3016,1.2882,3.9291,16.554001,7.1111,0.0,4.38
3.6651,2.0415,-2.5366,-1.3725,1.3201,-2.2114,0.65041,-0.06472,5.7886,-1.3725,1.3201,1.99,-3.1746,-1.9683,2.6667,-1.2882,3.285,0.45089,4.5714,-3.9409,0.5153
3.6651,1.4035,-3.187,1.8954,5.2805,-2.2114,3.252,4.466,5.1382,1.8954,5.2805,3.3167,-4.4444,-2.6032,1.3968,-2.5765,0.70853,-7.2786,3.9365,-1.9704,-3.9936
0.50553,0.76555,-2.5366,3.2026,5.9406,2.9919,5.2033,2.5243,7.7398,3.2026,5.9406,4.6434,-4.4444,-3.2381,-1.7778,-4.5089,-1.868,7.5362,7.1111,0.0,-7.2142
-0.75829,-3.0622,-3.187,4.5098,-2.6403,4.9431,2.6016,-0.06472,0.58537,4.5098,-2.6403,3.9801,-7.619,-11.492,-5.5873,-10.306,-6.3768,8.1804,-1.7778,3.2841,-7.8583
-0.75829,-5.614,-4.4878,3.8562,-1.9802,4.2927,1.9512,1.2298,-3.9675,3.8562,-1.9802,2.6534,-10.794,-15.937,-7.4921,-12.882,-9.5974,4.3156,-11.937,5.2545,-9.7907
1.7694,-3.0622,-6.439,6.4706,3.3003,6.8943,5.8537,7.7023,0.58537,6.4706,3.3003,4.6434,-8.254,-10.857,-5.5873,-10.95,-10.242,15.266,-4.9524,8.5386,-4.6377
-3.9179,-11.356,-18.146,0.58824,-3.3003,0.39024,-3.252,5.1133,-5.2683,0.58824,-3.3003,-2.6534,-11.429,-11.492,-11.937,-16.103001,-17.327,-22.093,-10.667,-4.5977,-8.5024
2.4013,-10.08,-15.545,5.1634,3.3003,2.9919,-1.9512,11.586,-1.3659,5.1634,3.3003,-0.66335,-5.0794,-3.873,-6.2222,-10.95,-12.818,-20.160999,-11.302,-5.2545,-9.7907
-0.12638,-6.89,-9.0407,1.8954,7.2607,3.6423,-0.65041,8.3495,-5.9187,1.8954,7.2607,0.66335,-2.5397,-2.6032,-3.0476,-7.7295,-7.0209,13.333,-13.841,-2.6273,-7.8583
0.50553,-2.4242,0.06504,3.8562,3.3003,8.1951,5.2033,3.8188,-5.2683,3.8562,3.3003,5.3068,1.2698,-2.6032,2.0317,-3.2206,0.70853,26.216,-17.016001,1.9704,-7.2142
10.616,6.5072,7.8699,14.967,5.9406,18.601999,13.659,10.291,0.58537,14.967,5.9406,13.267,8.8889,2.4762,9.6508,5.153,9.0821,22.351,-5.5873,9.1954,-0.77295
11.248,5.8692,4.6179,12.353,6.6007,14.699,9.7561,10.291,1.8862,12.353,6.6007,11.277,7.619,5.0159,10.286,7.7295,10.37,-4.058,-1.7778,13.136,3.0918
6.8246,3.9553,-1.2358,5.1634,3.3003,8.8455,7.1545,5.1133,-0.71545,5.1634,3.3003,7.9602,2.5397,3.746,5.2063,6.4412,8.438,-25.313999,-8.127,2.6273,1.1594
0.50553,0.76555,-3.187,3.2026,5.2805,8.1951,8.4553,3.1715,-3.9675,3.2026,5.2805,9.9502,-4.4444,2.4762,0.12698,3.2206,5.2174,22.351,-9.3968,-5.2545,-0.12882
1.7694,-0.51037,-3.187,11.699,12.541,6.8943,7.1545,7.7023,-0.06504,11.699,12.541,10.614,-6.9841,2.4762,-0.50794,1.9324,3.285,35.877998,1.3968,0.0,-3.3494
9.9842,8.4211,2.0163,22.157,23.761999,16.65,10.407,15.469,13.593,22.157,23.761999,17.247,-0.63492,8.8254,3.3016,8.3736,7.7939,22.351,16.0,5.9113,3.7359
2.4013,2.6794,-3.8374,11.699,13.861,15.35,4.5528,5.1133,9.0407,11.699,13.861,11.277,-8.254,3.1111,-7.4921,1.9324,0.06441,-9.8551,6.4762,-6.5681,-0.77295
-10.869,-1.7863,-11.642,10.392,1.9802,3.6423,3.252,-2.0065,6.439,10.392,1.9802,2.6534,-13.968,-3.873,-17.650999,-4.5089,-7.0209,-11.143,0.12698,-18.391001,-7.8583
-8.9731,3.9553,-8.3902,18.235001,11.221,1.0407,8.4553,4.466,9.0407,18.235001,11.221,5.9701,-4.4444,2.4762,-9.3968,1.9324,0.70853,-1.4815,3.3016,-9.1954,2.4477
-8.9731,0.12759,-10.992,9.7386,10.561,-2.2114,4.5528,-0.71197,1.2358,9.7386,10.561,0.66335,-4.4444,1.8413,-6.2222,-1.2882,0.06441,3.0274,-2.4127,-5.2545,2.4477
-7.7093,-3.0622,-8.3902,-3.3333,9.901,-5.4634,0.0,-5.2427,1.2358,-3.3333,9.901,-3.3167,-6.3492,0.57143,-4.3175,-4.5089,-0.57971,-7.9227,-4.3175,-8.5386,1.8035
-4.5498,-2.4242,-2.5366,-1.3725,11.221,-6.1138,-2.6016,-3.9482,4.4878,-1.3725,11.221,-3.3167,-1.9048,3.1111,0.12698,-1.2882,3.285,-5.9903,3.9365,-7.8818,6.9565
-5.1817,-0.51037,-1.2358,0.58824,6.6007,-3.5122,-2.6016,-5.2427,6.439,0.58824,6.6007,-3.9801,1.2698,5.6508,0.7619,0.0,3.9291,10.113,7.746,-5.9113,0.5153
-8.3412,-3.0622,-5.7886,1.2418,-9.2409,-7.4146,-2.6016,-5.89,3.187,1.2418,-9.2409,-6.6335,0.63492,6.2857,-3.0476,-1.2882,-1.868,-5.3462,3.9365,-8.5386,-5.9259
-8.9731,-6.89,-10.341,-0.06536,-8.5809,-14.569,-6.5041,-7.1845,-2.6667,-0.06536,-8.5809,-10.614,-0.63492,5.0159,-5.5873,-1.9324,-6.3768,-18.229,2.6667,-5.2545,-3.9936
-6.4455,-3.0622,-12.293,-0.71895,-0.66007,-11.317,-7.8049,-7.1845,-1.3659,-0.71895,-0.66007,-11.277,1.2698,7.5556,-5.5873,2.5765,-5.7327,-33.042999,8.381,0.65681,0.5153
-8.9731,-6.89,-16.195,-9.2157,-2.6403,-10.667,-13.659,-7.1845,-2.6667,-9.2157,-2.6403,-14.594,1.2698,6.9206,-8.127,4.5089,-6.3768,-9.2109,-1.1429,2.6273,11.465
-6.4455,-8.1659,-13.593,-13.137,-0.66007,-8.7154,-18.211,-5.89,-2.6667,-13.137,-0.66007,-16.584,4.4444,3.746,-5.5873,5.153,-5.0886,-7.9227,-3.6825,-1.3136,10.821
4.9289,5.8692,0.71545,3.8562,-0.66007,-2.8618,-5.8537,1.2298,1.8862,3.8562,-0.66007,-7.2968,13.968,12.0,5.8413,14.815,7.7939,-4.7021,12.825,5.9113,18.551001
-0.75829,6.5072,0.71545,3.2026,-6.6007,-11.967,-7.1545,-5.2427,-1.3659,3.2026,-6.6007,-9.9502,7.619,5.6508,2.0317,10.306,5.2174,14.622,9.0159,4.5977,14.686
-8.3412,2.6794,-4.4878,-7.9085,-10.561,-16.52,-11.057,-12.362,-2.6667,-7.9085,-10.561,-12.604,-5.7143,-3.2381,-6.8571,0.64412,-3.1562,4.9597,-1.1429,-7.225,-1.4171
-6.4455,5.8692,-0.58537,-11.83,-14.521,-11.317,-5.2033,-10.421,-2.6667,-11.83,-14.521,-7.9602,-9.5238,-3.873,-6.2222,0.64412,-1.868,7.5362,-1.1429,-8.5386,-5.2818
6.1927,13.525,11.122,-15.098,-9.2409,3.6423,5.8537,-5.89,5.7886,-15.098,-9.2409,3.3167,-5.0794,1.2063,3.9365,6.4412,7.1498,-4.058,11.556,0.0,3.7359
8.7204,12.887,15.024,-11.83,-10.561,9.4959,11.057,-3.9482,9.0407,-11.83,-10.561,8.6235,-4.4444,1.2063,6.4762,5.153,9.0821,-7.9227,10.286,-3.2841,6.9565
8.0885,10.973,13.073,-0.71895,-3.9604,4.9431,12.358,1.2298,8.3902,-0.71895,-3.9604,9.2869,-3.8095,-0.69841,4.5714,1.2882,7.1498,0.45089,3.9365,-3.2841,3.0918
11.88,14.163,11.772,1.8954,5.2805,8.8455,12.358,8.3495,13.593,1.8954,5.2805,11.94,-0.63492,2.4762,3.9365,3.2206,7.1498,-13.72,9.0159,3.2841,5.0242
6.8246,8.4211,5.2683,-7.9085,-7.2607,9.4959,10.407,1.877,10.341,-7.9085,-7.2607,8.6235,0.0,1.2063,-2.4127,0.64412,1.3527,0.45089,3.3016,-4.5977,3.7359
3.6651,4.5933,2.6667,-8.5621,-1.9802,8.1951,8.4553,-3.9482,7.0894,-8.5621,-1.9802,5.9701,3.8095,1.2063,-1.1429,-1.9324,0.06441,13.333,5.8413,-7.8818,-2.7053
3.6651,3.9553,3.3171,-7.2549,1.3201,7.5447,9.7561,-3.301,5.7886,-7.2549,1.3201,6.6335,8.254,-0.06349,3.3016,-2.5765,1.9968,0.45089,-2.4127,-1.3136,-4.6377
9.3523,12.887,9.1707,3.2026,-1.3201,6.2439,18.862,3.8188,12.293,3.2026,-1.3201,12.604,15.238,8.1905,10.921,7.0853,9.0821,-8.5668,7.1111,7.225,4.38
6.8246,10.335,7.8699,1.2418,-1.9802,-1.561,14.959,-2.0065,10.992,1.2418,-1.9802,9.9502,17.143,12.635,11.556,8.3736,9.7262,-20.805,8.381,10.509,6.3124
-0.12638,3.9553,3.3171,-12.484,0.66007,-5.4634,8.4553,-10.421,3.8374,-12.484,0.66007,5.9701,15.238,12.635,9.6508,5.7971,7.1498,12.045,-5.5873,11.823,3.7359
1.7694,7.1451,5.9187,-6.6013,11.221,-0.26016,10.407,-6.5372,8.3902,-6.6013,11.221,8.6235,12.698,13.27,11.556,9.0177,9.0821,25.572001,1.3968,20.361,5.6683
-0.75829,7.1451,2.6667,-7.9085,8.5809,-0.26016,7.8049,-7.8317,9.0407,-7.9085,8.5809,5.9701,1.9048,5.0159,5.2063,5.153,4.5733,-9.2109,9.6508,10.509,2.4477
0.50553,6.5072,2.6667,-2.6797,0.0,6.2439,8.4553,-9.1262,9.6911,-2.6797,0.0,5.9701,-3.1746,-0.06349,2.0317,3.2206,0.70853,-3.4138,7.746,0.65681,3.0918
3.0332,5.2313,2.0163,3.8562,5.9406,6.8943,9.1057,-6.5372,9.0407,3.8562,5.9406,5.3068,-6.9841,-1.9683,0.12698,1.9324,-1.868,-16.940001,7.1111,-3.9409,5.0242
-3.2859,3.3174,-2.5366,0.58824,4.6205,-5.4634,3.9024,-7.8317,3.187,0.58824,4.6205,1.3267,-13.333,-5.7778,-7.4921,-2.5765,-7.6651,-14.364,-1.1429,-8.5386,-1.4171
-10.869,-4.3381,-5.1382,-5.2941,-7.2607,-6.7642,-2.6016,-11.068,0.58537,-5.2941,-7.2607,-0.66335,-13.333,-5.1429,-10.667,-5.7971,-10.886,6.8921,-0.50794,-3.9409,0.5153
-7.7093,-10.08,-2.5366,-1.3725,1.9802,-0.91057,-5.2033,-4.5955,1.8862,-1.3725,1.9802,0.66335,-8.8889,-5.1429,-6.8571,-8.3736,-10.242,12.045,3.9365,4.5977,1.1594
-0.12638,-8.1659,2.0163,1.8954,7.2607,2.9919,-1.3008,1.2298,5.7886,1.8954,7.2607,3.3167,-6.9841,-7.0476,-3.0476,-8.3736,-8.3092,-16.296,7.1111,0.0,-3.3494
5.5608,0.76555,8.5203,10.392,11.881,8.8455,6.5041,7.7023,16.195,10.392,11.881,9.2869,2.5397,-0.69841,4.5714,0.64412,0.06441,-6.6345,9.0159,0.0,1.8035
2.4013,0.76555,5.2683,11.046,13.201,2.3415,0.0,7.7023,14.894,11.046,13.201,4.6434,5.0794,2.4762,3.9365,2.5765,1.3527,-3.4138,-11.302,-2.6273,-2.0612
-6.4455,-6.89,-4.4878,5.817,11.221,-7.4146,-5.8537,2.5243,6.439,5.817,11.221,-4.6434,-1.9048,-3.2381,-4.3175,-1.9324,-4.4444,-16.296,-6.2222,-10.509,-2.0612
-8.3412,-10.718,-8.3902,5.1634,7.9208,-10.016,-6.5041,3.8188,2.5366,5.1634,7.9208,-9.2869,-6.3492,-5.7778,-8.7619,-3.2206,-8.3092,-5.3462,9.6508,-13.136,5.0242
-7.7093,-11.994,-10.341,5.1634,-1.9802,-2.2114,-10.407,2.5243,0.58537,5.1634,-1.9802,-10.614,-8.254,-7.0476,-11.302,-5.7971,-10.886,12.045,2.6667,-14.45,1.8035
-8.3412,-11.356,-8.3902,5.1634,-2.6403,-0.91057,-11.057,1.2298,-1.3659,5.1634,-2.6403,-9.9502,-14.603,-9.5873,-13.206,-7.7295,-11.53,17.198,3.9365,-14.45,-2.7053
-10.869,-9.4418,-5.1382,1.8954,2.6403,-8.065,-9.1057,1.2298,-5.2683,1.8954,2.6403,-10.614,-22.222,-10.857,-15.746,-7.7295,-11.53,10.113,2.0317,-14.45,-2.0612
-7.7093,-4.3381,-0.58537,3.2026,0.66007,-10.667,-8.4553,3.8188,-2.0163,3.2026,0.66007,-9.9502,-22.222,-5.7778,-11.937,-3.2206,-8.3092,-13.72,6.4762,-3.9409,1.1594
-9.6051,-9.4418,-7.7398,-3.9869,-14.521,-15.87,-15.61,-2.6537,-7.2195,-3.9869,-14.521,-16.584,-26.032,-9.5873,-15.746,-9.6618,-14.106,-19.517,-10.032,-11.166,-10.435
-17.82,-17.097,-16.195,-15.752,-26.403,-25.625999,-20.813,-11.068,-16.976,-15.752,-26.403,-25.207001,-27.302,-14.667,-21.459999,-16.103001,-21.191999,-5.3462,-18.921,-15.764,-14.3
-19.084,-16.459,-13.593,-17.059,-21.122,-29.528,-19.511999,-14.951,-18.275999,-17.059,-21.122,-23.881001,-19.683001,-13.397,-18.921,-14.815,-17.971001,-11.787,-6.2222,-8.5386,-9.7907
-13.397,-6.252,-3.187,-11.176,-11.881,-23.674999,-9.1057,-14.304,-9.1707,-11.176,-11.881,-13.93,-4.4444,-7.0476,-7.4921,-5.7971,-6.3768,5.6039,-5.5873,2.6273,-3.9936
-13.397,-6.89,-4.4878,-11.176,-9.2409,-21.724001,-9.1057,-18.188,-9.1707,-11.176,-9.2409,-13.93,1.2698,-7.6825,-3.6825,-7.7295,-5.0886,11.401,-0.50794,8.5386,-3.3494
-5.8136,-3.7002,-5.7886,-13.791,-1.3201,-15.87,-6.5041,-14.951,-6.5691,-13.791,-1.3201,-13.267,5.0794,-5.1429,1.3968,-7.0853,-3.1562,-3.4138,4.5714,5.9113,-3.9936
1.1374,-1.7863,-3.8374,-16.405001,0.66007,-8.7154,-5.8537,-9.7735,-3.9675,-16.405001,0.66007,-11.277,8.8889,-3.873,5.8413,-5.7971,-0.57971,-9.8551,-3.6825,3.9409,-3.9936
2.4013,-6.252,-4.4878,-12.484,-2.6403,-6.7642,-11.057,-6.5372,-5.2683,-12.484,-2.6403,-12.604,6.9841,-11.492,4.5714,-12.882,-4.4444,-16.940001,-10.667,0.65681,-14.3
4.297,-3.7002,0.71545,-5.9477,-5.2805,-1.561,-5.2033,-2.6537,-2.0163,-5.9477,-5.2805,-7.2968,11.429,-10.222,9.0159,-9.0177,-1.868,11.401,-11.937,7.8818,-9.7907
4.9289,-3.7002,0.06504,-3.3333,-6.6007,-0.26016,0.0,1.877,-0.71545,-3.3333,-6.6007,-3.9801,10.794,-8.9524,9.6508,-7.0853,-1.2238,-16.940001,-11.302,6.5681,-6.57
3.0332,-1.1483,-3.8374,-3.9869,-3.9604,-0.91057,1.3008,7.7023,-5.9187,-3.9869,-3.9604,-3.3167,8.8889,-7.6825,6.4762,-3.8647,-0.57971,-22.738001,-10.667,-1.3136,-9.7907
3.0332,2.6794,-1.8862,-2.0261,-2.6403,2.9919,2.6016,7.7023,-6.5691,-2.0261,-2.6403,0.66335,6.3492,-3.873,5.8413,1.9324,3.285,21.063,-6.8571,-1.3136,-3.3494
3.6651,1.4035,-0.58537,1.2418,-3.3003,8.8455,2.6016,7.7023,-4.6179,1.2418,-3.3003,3.3167,0.63492,-5.1429,2.6667,1.2882,1.9968,26.216,6.4762,-1.3136,1.1594
0.50553,-1.1483,-4.4878,2.549,-1.9802,3.6423,-2.6016,7.055,-4.6179,2.549,-1.9802,0.0,-7.619,-7.6825,-3.6825,-1.9324,-2.5121,4.9597,3.9365,-6.5681,-5.9259
3.6651,4.5933,-1.8862,3.8562,1.9802,5.5935,0.65041,10.291,1.8862,3.8562,1.9802,1.99,-5.7143,-2.6032,-1.1429,3.2206,1.3527,1.095,-3.6825,-1.3136,-4.6377
-1.3902,2.0415,-5.1382,-10.523,-7.9208,1.0407,-3.252,0.58252,-5.2683,-10.523,-7.9208,-3.9801,-7.619,-2.6032,-2.4127,2.5765,1.3527,15.266,-2.4127,0.65681,-2.0612
-6.4455,-1.7863,-9.0407,-23.594999,-21.782,-7.4146,-6.5041,-6.5372,-13.073,-23.594999,-21.782,-9.2869,-14.603,-7.6825,-7.4921,-1.2882,-3.1562,-11.143,-0.50794,-8.5386,-1.4171
-2.0221,-1.1483,-5.1382,-9.8693,-9.2409,-3.5122,-5.8537,-1.3592,-9.8211,-9.8693,-9.2409,-3.3167,-12.698,-5.7778,-4.9524,1.2882,-1.2238,-25.958,-3.0476,-9.1954,2.4477
-6.4455,-3.7002,-6.439,2.549,-4.6205,-5.4634,-10.407,-3.301,-14.374,2.549,-4.6205,-3.9801,-13.968,-2.6032,-7.4921,1.2882,-1.2238,-17.584999,-15.111,-9.1954,-0.77295
-14.028,-6.89,-9.6911,-0.71895,-11.221,-8.065,-14.959,-8.479,-17.625999,-0.71895,-11.221,-7.2968,-16.507999,-1.3333,-13.206,-0.64412,-3.8003,-1.4815,-10.032,-13.136,-2.0612
-14.028,-11.356,-12.943,-5.9477,-15.182,-10.016,-18.211,-9.7735,-16.325001,-5.9477,-15.182,-10.614,-11.429,-3.2381,-12.571,-5.153,-7.6651,9.4686,-8.127,-8.5386,-7.2142
-9.6051,-15.183,-14.244,-10.523,-15.842,-11.317,-16.910999,-9.1262,-16.976,-10.523,-15.842,-11.277,-8.254,-5.7778,-10.032,-10.306,-10.886,3.0274,-11.302,-6.5681,-10.435
0.50553,-6.89,-4.4878,-3.3333,-9.2409,-2.8618,-7.1545,-4.5955,-9.8211,-3.3333,-9.2409,-1.3267,-1.2698,-1.9683,-1.1429,-5.7971,-3.8003,6.8921,-22.094999,3.2841,-7.2142
4.297,-4.3381,-1.2358,-3.3333,-5.2805,6.2439,-4.5528,-6.5372,-9.1707,-3.3333,-5.2805,2.6534,3.1746,-0.06349,2.6667,-4.5089,0.06441,-15.008,-15.111,5.2545,-10.435
5.5608,-4.3381,-0.58537,-2.6797,-5.9406,9.4959,-3.9024,-6.5372,-8.5203,-2.6797,-5.9406,3.3167,10.794,6.9206,6.4762,0.64412,3.9291,-36.264,-3.6825,-0.65681,-2.0612
2.4013,0.12759,1.3659,-2.0261,-1.9802,6.2439,-3.9024,-5.2427,-3.3171,-2.0261,-1.9802,2.6534,18.413,11.365,9.6508,6.4412,7.1498,-29.179001,0.7619,-1.3136,6.9565
-2.0221,-1.1483,-1.8862,-0.06536,-4.6205,-6.1138,-6.5041,-7.1845,-4.6179,-0.06536,-4.6205,-3.3167,20.316999,14.54,9.6508,9.6618,7.1498,-3.4138,7.746,1.3136,10.821
-5.8136,-2.4242,-5.1382,-3.9869,-4.6205,-10.667,-7.1545,-11.068,-0.06504,-3.9869,-4.6205,-6.6335,18.413,17.079,7.746,11.594,7.1498,14.622,10.286,0.65681,13.398
3.6651,10.335,3.9675,-3.3333,9.901,-2.8618,3.9024,-4.5955,12.293,-3.3333,9.901,1.99,19.683001,22.794001,14.73,19.968,16.167,4.3156,23.618999,5.9113,15.974
5.5608,13.525,7.2195,-0.71895,5.2805,-3.5122,4.5528,-5.2427,9.6911,-0.71895,5.2805,2.6534,11.429,19.618999,12.825,19.323999,16.167,-15.652,18.540001,0.0,14.042
3.6651,11.611,7.2195,-2.0261,-7.2607,-1.561,3.9024,-7.8317,5.1382,-2.0261,-7.2607,0.66335,4.4444,15.175,9.0159,15.459,14.235,-12.432,7.1111,-9.1954,13.398
3.6651,9.059,4.6179,-2.0261,-3.3003,2.3415,2.6016,-8.479,1.8862,-2.0261,-3.3003,-0.66335,1.9048,9.4603,6.4762,11.594,11.659,-9.2109,9.0159,-10.509,11.465
4.297,8.4211,2.6667,4.5098,7.2607,2.3415,3.9024,-0.71197,7.7398,4.5098,7.2607,1.3267,0.0,6.9206,3.9365,12.238,10.37,-16.940001,16.635,-7.225,13.398
2.4013,0.76555,-5.1382,-3.3333,0.0,-3.5122,-4.5528,3.1715,-0.06504,-3.3333,0.0,-3.3167,-6.3492,-2.6032,-1.7778,3.8647,1.9968,-30.466999,2.6667,-9.8522,3.7359
-3.2859,-4.9761,-12.293,-9.2157,-6.6007,-6.1138,-9.1057,0.58252,-10.472,-9.2157,-6.6007,-7.9602,-6.3492,-10.222,-5.5873,-5.7971,-6.3768,-0.19324,-23.365,-5.2545,-12.367
-3.9179,-10.718,-15.545,-7.2549,-10.561,-4.1626,-11.707,2.5243,-15.675,-7.2549,-10.561,-7.9602,-2.5397,-10.857,-4.3175,-8.3736,-9.5974,26.216,-23.365,7.225,-9.1465
-0.75829,-13.27,-15.545,-6.6013,-7.2607,1.0407,-12.358,3.1715,-14.374,-6.6013,-7.2607,-6.6335,3.8095,-6.4127,-0.50794,-7.0853,-8.3092,26.216,-10.032,9.8522,-3.3494
1.1374,-10.718,-12.943,-4.6405,-10.561,-2.2114,-8.4553,2.5243,-13.724,-4.6405,-10.561,-4.6434,6.9841,-2.6032,3.3016,-3.8647,-4.4444,25.572001,-8.127,9.8522,-3.3494
0.50553,-8.8038,-9.6911,-2.0261,-15.842,-7.4146,-5.2033,3.1715,-15.675,-2.0261,-15.842,-2.6534,5.7143,-5.1429,3.3016,-4.5089,-3.1562,-13.076,-12.571,7.225,-14.3
9.3523,-1.7863,0.06504,11.046,1.9802,2.9919,0.0,14.175,-7.8699,11.046,1.9802,6.6335,12.063,-1.3333,9.6508,1.2882,2.6409,-2.1256,-11.937,19.048,-7.8583
1.1374,-6.89,-6.439,7.1242,1.9802,-0.26016,-3.252,11.586,-12.423,7.1242,1.9802,3.3167,7.619,-7.6825,2.6667,-5.153,-4.4444,35.233002,-9.3968,17.733999,-5.9259
-5.1817,-14.545,-16.195,-3.9869,-8.5809,-4.1626,-9.7561,1.2298,-16.325001,-3.9869,-8.5809,-4.6434,0.0,-13.397,-6.2222,-16.103001,-14.106,17.198,-12.571,7.225,-14.944
-7.0774,-19.649,-21.398001,-11.83,-15.182,-4.1626,-16.26,-2.6537,-17.625999,-11.83,-15.182,-8.6235,-3.1746,-14.667,-10.667,-20.612,-18.615,-0.83736,-27.174999,2.6273,-18.808001
-7.7093,-19.649,-21.398001,-16.405001,-19.802,-4.813,-16.910999,-2.6537,-15.024,-16.405001,-19.802,-6.6335,-7.619,-14.667,-13.841,-19.968,-19.259001,1.095,-25.27,1.9704,-13.655
-0.75829,-8.1659,-10.341,1.2418,-8.5809,2.9919,-5.2033,3.1715,-3.3171,1.2418,-8.5809,5.9701,-4.4444,-6.4127,-9.3968,-10.306,-12.174,3.6715,-5.5873,3.9409,-7.2142
1.1374,-1.7863,-4.4878,10.392,0.0,6.8943,2.6016,5.7605,3.187,10.392,0.0,10.614,-4.4444,-1.9683,-6.8571,-5.7971,-7.6651,22.995001,3.3016,0.0,-0.77295
5.5608,4.5933,-1.8862,13.007,9.901,10.146,9.1057,10.291,7.7398,13.007,9.901,12.604,-5.0794,1.2063,-3.0476,-0.64412,-2.5121,2.3833,19.809999,-2.6273,5.0242
11.88,9.059,2.6667,15.621,17.162001,19.252001,14.309,15.469,9.6911,15.621,17.162001,17.91,-1.9048,4.381,0.7619,3.8647,1.9968,-10.499,15.365,1.9704,10.177
8.0885,9.697,3.3171,3.8562,15.182,17.951,15.61,10.291,8.3902,3.8562,15.182,17.91,-1.9048,2.4762,-1.1429,3.8647,1.9968,-3.4138,12.19,1.9704,10.177
6.1927,10.335,3.3171,-4.6405,0.66007,11.447,13.659,3.1715,7.7398,-4.6405,0.66007,15.257,-2.5397,-0.06349,0.12698,3.2206,1.9968,4.9597,8.381,2.6273,3.7359
12.512,15.439,9.8211,-0.06536,0.66007,10.146,16.26,2.5243,12.293,-0.06536,0.66007,17.91,5.0794,6.9206,10.286,9.6618,11.014,8.8245,17.905001,12.479,8.2448
13.776,18.628,11.122,7.7778,8.5809,8.1951,15.61,-0.06472,18.146,7.7778,8.5809,18.573999,11.429,11.365,14.095,14.171,15.523,11.401,21.079,7.225,13.398
9.9842,14.801,5.9187,7.7778,10.561,5.5935,10.407,-3.301,13.593,7.7778,10.561,13.267,11.429,10.095,11.556,12.238,12.947,-18.872999,4.5714,-1.9704,14.042
11.248,13.525,6.5691,4.5098,14.521,4.9431,11.707,-2.0065,7.7398,4.5098,14.521,11.94,11.429,11.365,12.825,12.882,13.591,-13.72,3.3016,2.6273,14.686
8.0885,12.887,5.9187,-4.6405,9.901,7.5447,11.707,-1.3592,5.1382,-4.6405,9.901,9.9502,9.5238,6.9206,10.921,10.306,11.014,19.129999,12.19,5.2545,8.8889
4.297,5.8692,-1.2358,-11.83,-0.66007,4.9431,5.2033,-0.06472,-0.71545,-11.83,-0.66007,3.9801,5.0794,-1.3333,5.2063,2.5765,3.9291,6.248,5.8413,3.2841,-0.77295
3.0332,3.3174,-7.0894,-5.9477,-14.521,-1.561,1.9512,6.4078,-1.3659,-5.9477,-14.521,-0.66335,1.2698,-6.4127,2.0317,-1.2882,-0.57971,0.45089,-3.0476,5.9113,-2.0612
-2.654,-4.3381,-9.6911,0.58824,-13.861,-8.7154,-1.9512,8.9968,-4.6179,0.58824,-13.861,-3.9801,-0.63492,-6.4127,-1.1429,-3.2206,-3.1562,8.1804,-3.6825,5.9113,-3.3494
8.0885,3.3174,1.3659,9.7386,11.221,1.0407,7.8049,15.469,-0.71545,9.7386,11.221,4.6434,8.8889,3.1111,9.0159,3.8647,5.2174,10.757,-4.9524,11.166,-2.0612
6.8246,-3.0622,-2.5366,5.817,8.5809,4.2927,0.65041,10.291,-2.0163,5.817,8.5809,1.3267,6.9841,-0.06349,6.4762,-2.5765,0.06441,24.927999,-12.571,12.479,-9.1465
2.4013,-10.08,-10.992,-0.06536,0.66007,1.6911,-8.4553,5.1133,-3.9675,-0.06536,0.66007,-4.6434,1.2698,-5.1429,-1.1429,-10.306,-7.6651,24.283001,-11.937,3.9409,-14.944
4.9289,-2.4242,-4.4878,3.8562,3.3003,6.2439,1.3008,9.644,-0.71545,3.8562,3.3003,1.3267,6.9841,-0.69841,2.6667,-3.8647,-2.5121,26.216,2.6667,9.1954,1.1594
1.7694,0.12759,0.06504,7.7778,-5.2805,3.6423,3.9024,8.9968,1.2358,7.7778,-5.2805,3.3167,8.254,-1.3333,3.3016,-2.5765,-0.57971,15.266,9.6508,9.8522,1.1594
4.297,-1.1483,1.3659,8.4314,-5.9406,1.0407,1.3008,8.3495,1.8862,8.4314,-5.9406,3.3167,9.5238,-1.9683,6.4762,-2.5765,1.9968,-22.738001,0.7619,5.9113,-5.9259
6.8246,1.4035,2.6667,8.4314,11.221,2.9919,0.0,6.4078,4.4878,8.4314,11.221,3.9801,12.698,0.57143,10.921,2.5765,7.1498,-10.499,-3.0476,6.5681,-3.3494
5.5608,1.4035,2.6667,6.4706,15.842,4.9431,-3.252,-0.06472,2.5366,6.4706,15.842,3.9801,8.254,2.4762,8.381,4.5089,5.8615,-2.1256,-0.50794,-1.9704,5.0242
8.0885,5.8692,7.2195,9.7386,7.2607,9.4959,1.9512,1.2298,7.0894,9.7386,7.2607,7.2968,7.619,3.746,10.921,7.0853,7.7939,12.689,2.6667,1.9704,6.3124
5.5608,5.8692,7.2195,5.1634,5.2805,4.2927,2.6016,-0.71197,7.7398,5.1634,5.2805,5.9701,8.8889,5.6508,11.556,9.0177,10.37,-13.72,10.921,3.2841,6.3124
3.0332,3.3174,3.3171,3.2026,7.2607,2.9919,0.0,-1.3592,3.187,3.2026,7.2607,1.99,8.254,8.8254,8.381,9.6618,8.438,-8.5668,12.19,0.65681,9.533
1.1374,4.5933,2.0163,-2.6797,-1.9802,1.0407,0.65041,-9.7735,-2.6667,-2.6797,-1.9802,-0.66335,3.8095,6.2857,5.2063,9.6618,6.5056,-3.4138,9.6508,2.6273,14.042
9.3523,12.887,9.8211,0.58824,0.0,6.2439,9.7561,4.466,5.7886,0.58824,0.0,8.6235,6.3492,5.0159,7.746,10.95,9.0821,12.045,16.0,7.8818,18.551001
5.5608,8.4211,7.2195,5.1634,5.9406,6.8943,7.1545,8.9968,-0.71545,5.1634,5.9406,7.2968,-0.63492,-5.1429,1.3968,1.9324,2.6409,24.283001,2.6667,5.9113,6.3124
0.50553,0.76555,1.3659,5.817,3.9604,8.1951,2.6016,8.9968,-10.472,5.817,3.9604,4.6434,-9.5238,-10.857,-5.5873,-7.0853,-5.7327,10.757,-7.4921,-2.6273,-7.8583
3.0332,0.76555,-1.2358,7.7778,3.3003,8.1951,1.9512,12.88,-10.472,7.7778,3.3003,4.6434,-10.159,-8.9524,-3.0476,-7.0853,-5.0886,-6.6345,-5.5873,-5.2545,-12.367
3.6651,-2.4242,-1.8862,7.7778,2.6403,6.2439,-0.65041,11.586,-9.8211,7.7778,2.6403,1.99,-10.159,-8.3175,-1.1429,-5.153,-3.1562,-22.738001,-6.8571,0.0,-7.2142
3.0332,-4.3381,-0.58537,4.5098,2.6403,8.8455,-1.3008,10.291,-9.8211,4.5098,2.6403,2.6534,-9.5238,-6.4127,-1.1429,-4.5089,-1.2238,2.3833,-11.302,-2.6273,-5.2818
-0.12638,-3.0622,0.06504,-0.71895,3.9604,10.146,-1.3008,6.4078,-9.8211,-0.71895,3.9604,3.9801,-6.3492,-1.9683,-1.7778,-3.2206,0.06441,15.266,-6.8571,-5.9113,-9.1465
-5.8136,-3.7002,-5.1382,-9.2157,-9.901,-0.26016,-1.3008,-2.0065,-14.374,-9.2157,-9.901,-3.3167,-5.0794,-1.3333,-4.9524,-3.8647,-1.868,1.7391,-9.3968,-4.5977,-7.2142
-8.9731,-5.614,-10.341,-11.83,-12.541,-11.317,-5.8537,-5.89,-13.073,-11.83,-12.541,-9.9502,1.2698,3.1111,-4.9524,-3.8647,-3.1562,11.401,-4.9524,0.0,-5.2818
-9.6051,-7.5279,-12.293,-8.5621,-7.2607,-19.122,-11.057,-2.6537,-9.8211,-8.5621,-7.2607,-13.93,6.9841,8.8254,-4.3175,-4.5089,-4.4444,14.622,0.12698,5.9113,-5.9259
-8.9731,-9.4418,-12.293,-7.2549,-15.182,-14.569,-11.057,2.5243,-13.073,-7.2549,-15.182,-13.267,5.7143,7.5556,-7.4921,-7.7295,-8.3092,-19.517,-6.8571,1.9704,-7.8583
-12.765,-15.183,-15.545,-14.444,-18.482,-10.667,-14.309,-0.06472,-16.325001,-14.444,-18.482,-13.267,0.63492,1.2063,-12.571,-10.95,-12.174,-18.229,-10.667,-3.2841,-6.57
-6.4455,-8.1659,-9.0407,-7.2549,-9.2409,-6.7642,-9.1057,3.8188,-12.423,-7.2549,-9.2409,-9.2869,4.4444,5.6508,-4.3175,-3.2206,-3.8003,19.775,-8.7619,5.2545,-2.7053
-2.0221,-6.252,-7.0894,-9.2157,-18.482,-8.7154,-7.8049,0.58252,-15.024,-9.2157,-18.482,-12.604,5.7143,5.0159,0.7619,-1.2882,-0.57971,17.841999,-8.7619,4.5977,-0.12882
-0.12638,-5.614,-7.0894,-17.712,-15.182,-8.065,-11.707,-1.3592,-13.724,-17.712,-15.182,-13.93,4.4444,4.381,0.12698,-1.2882,-2.5121,10.757,4.5714,0.65681,3.0918
-6.4455,-6.252,-9.0407,-15.752,-13.861,-10.016,-15.61,-0.71197,-11.122,-15.752,-13.861,-13.267,3.1746,2.4762,-4.3175,-3.8647,-7.0209,17.841999,6.4762,-1.3136,-0.12882
-10.237,-9.4418,-13.593,-7.9085,-15.182,-10.016,-15.61,-0.06472,-13.073,-7.9085,-15.182,-14.594,-1.9048,-2.6032,-8.7619,-7.0853,-11.53,-13.076,-1.1429,-2.6273,-4.6377
-4.5498,-8.1659,-10.341,-3.9869,-10.561,-6.1138,-12.358,2.5243,-13.724,-3.9869,-10.561,-11.277,0.0,-0.06349,-3.6825,-1.9324,-5.7327,-15.008,-5.5873,0.65681,-0.77295
-2.0221,-7.5279,-7.7398,-7.2549,-19.142,-8.065,-12.358,3.1715,-13.073,-7.2549,-19.142,-12.604,0.0,0.57143,-1.7778,0.0,-3.1562,-9.8551,-15.111,-0.65681,-0.77295
0.50553,-2.4242,-2.5366,-0.71895,-13.861,1.6911,-4.5528,5.1133,-5.2683,-0.71895,-13.861,-5.3068,2.5397,5.6508,-0.50794,3.2206,-0.57971,5.6039,-2.4127,0.0,6.3124
-5.1817,-4.3381,-5.7886,-2.6797,-0.66007,4.2927,-3.252,1.877,-3.3171,-2.6797,-0.66007,-4.6434,-4.4444,0.57143,-6.2222,-1.9324,-5.7327,17.841999,0.12698,-2.6273,3.7359
-7.0774,-3.7002,-4.4878,-2.0261,-1.9802,-1.561,-2.6016,1.877,-5.2683,-2.0261,-1.9802,-4.6434,-12.063,-4.5079,-8.127,-3.8647,-5.0886,12.689,-4.3175,-7.225,-1.4171
-2.654,3.9553,2.6667,-0.71895,2.6403,2.9919,2.6016,2.5243,-2.0163,-0.71895,2.6403,0.66335,-14.603,-2.6032,-5.5873,0.64412,0.70853,4.3156,-1.7778,-7.225,-2.7053
-0.75829,4.5933,1.3659,-0.06536,3.3003,6.8943,3.252,1.877,2.5366,-0.06536,3.3003,2.6534,-17.778,-5.1429,-6.8571,-1.9324,-2.5121,-15.008,2.0317,-9.8522,-5.9259
-1.3902,3.3174,-1.2358,3.2026,2.6403,2.9919,5.2033,4.466,6.439,3.2026,2.6403,1.99,-12.698,-4.5079,-5.5873,-2.5765,-3.8003,-11.787,-2.4127,-5.2545,-3.9936
-5.1817,2.6794,-2.5366,-0.71895,4.6205,1.0407,4.5528,2.5243,7.0894,-0.71895,4.6205,0.0,-3.8095,-2.6032,-2.4127,-1.9324,-1.2238,10.113,0.12698,-1.9704,-2.0612
-4.5498,3.9553,-4.4878,-0.06536,0.66007,1.0407,5.2033,0.58252,3.8374,-0.06536,0.66007,-2.6534,3.1746,1.2063,0.7619,0.64412,1.9968,1.095,3.9365,-3.2841,-1.4171
-2.654,3.9553,-4.4878,5.1634,-1.3201,-1.561,1.9512,0.58252,1.2358,5.1634,-1.3201,-5.3068,8.8889,5.0159,2.6667,3.2206,3.9291,6.8921,3.3016,-0.65681,-2.0612
-5.1817,3.3174,-7.7398,1.8954,3.3003,-5.4634,-0.65041,1.2298,3.187,1.8954,3.3003,-7.9602,10.159,5.0159,0.7619,3.2206,2.6409,-4.058,7.1111,2.6273,-3.9936
-11.501,-0.51037,-14.244,-1.3725,-0.66007,-7.4146,-4.5528,-0.06472,2.5366,-1.3725,-0.66007,-11.277,5.7143,1.2063,-4.9524,-1.2882,-1.2238,-25.958,-6.2222,-0.65681,-9.1465
-14.028,-6.89,-18.146,-5.9477,-8.5809,-9.3659,-5.8537,-0.06472,3.187,-5.9477,-8.5809,-13.93,3.8095,-1.3333,-6.2222,-3.8647,-4.4444,-4.7021,-11.302,3.2841,-3.3494
-12.765,-10.08,-14.894,-3.3333,1.3201,-10.667,-2.6016,-1.3592,3.187,-3.3333,1.3201,-11.94,6.9841,5.0159,-4.9524,-1.9324,-3.8003,3.0274,-0.50794,2.6273,4.38
-13.397,-13.907,-17.496,-4.6405,0.0,-12.618,-11.057,-5.2427,-4.6179,-4.6405,0.0,-16.584,1.2698,0.57143,-10.032,-6.4412,-8.3092,-24.025999,-2.4127,-9.1954,-6.57
-10.237,-10.718,-15.545,-14.444,-6.6007,-11.967,-11.707,-12.362,-5.2683,-14.444,-6.6007,-16.584,-0.63492,-2.6032,-9.3968,-5.7971,-8.3092,-18.229,-6.2222,-5.9113,-2.7053
-5.1817,-7.5279,-9.0407,-3.9869,0.0,-10.016,-2.6016,-3.301,-3.3171,-3.9869,0.0,-9.9502,0.63492,-0.69841,-3.6825,-4.5089,-4.4444,10.757,-4.9524,-0.65681,2.4477
-5.8136,-10.718,-7.0894,3.8562,-3.3003,-7.4146,-3.9024,3.1715,-7.2195,3.8562,-3.3003,-8.6235,-5.0794,-3.873,-4.3175,-8.3736,-6.3768,20.419001,-8.127,-9.1954,-3.3494
1.7694,-3.0622,1.3659,13.007,4.6205,4.9431,1.9512,8.9968,3.8374,13.007,4.6205,0.66335,-3.8095,-0.06349,0.12698,-1.2882,-1.2238,22.351,0.7619,-3.9409,-0.12882
1.1374,0.76555,1.3659,12.353,19.142,7.5447,2.6016,7.7023,10.341,12.353,19.142,1.99,-9.5238,-3.873,-4.3175,-1.2882,-3.8003,7.5362,2.6667,-7.8818,1.8035
-1.3902,2.6794,-0.58537,7.1242,17.162001,10.146,5.2033,1.877,6.439,7.1242,17.162001,4.6434,-9.5238,-5.1429,-8.127,-1.2882,-7.0209,1.7391,-2.4127,-6.5681,0.5153
0.50553,4.5933,-0.58537,9.7386,8.5809,10.797,7.8049,2.5243,5.1382,9.7386,8.5809,7.2968,-5.7143,-4.5079,-7.4921,-3.2206,-7.6651,-9.8551,-3.0476,2.6273,-9.7907
3.0332,-1.1483,-0.58537,10.392,11.881,6.2439,7.8049,4.466,5.7886,10.392,11.881,6.6335,-3.1746,-4.5079,-6.8571,-6.4412,-9.5974,-0.83736,-4.9524,0.65681,-7.2142
3.6651,-1.7863,0.71545,3.2026,6.6007,6.8943,12.358,5.1133,10.992,3.2026,6.6007,7.9602,-1.2698,-3.873,-5.5873,-5.7971,-9.5974,10.757,2.0317,1.9704,-0.77295
6.1927,0.76555,2.6667,6.4706,3.9604,6.8943,13.659,5.1133,11.642,6.4706,3.9604,8.6235,-0.63492,-1.9683,-4.9524,-5.153,-7.6651,-7.2786,10.286,0.65681,-2.7053
3.6651,0.76555,2.6667,5.1634,9.2409,6.8943,7.1545,1.2298,9.0407,5.1634,9.2409,5.3068,-1.2698,-0.69841,-3.6825,-4.5089,-5.0886,-9.8551,3.3016,-3.2841,-5.2818
-0.75829,-1.1483,2.6667,6.4706,5.2805,2.3415,1.3008,0.58252,3.187,6.4706,5.2805,3.3167,-4.4444,-3.2381,-4.3175,-4.5089,-2.5121,-2.7697,-5.5873,-3.9409,-3.9936
-3.2859,-1.7863,2.0163,10.392,3.9604,-2.2114,2.6016,1.877,1.2358,10.392,3.9604,2.6534,-6.3492,-7.0476,-4.9524,-7.0853,-3.1562,11.401,-1.7778,-3.9409,-2.7053
-0.12638,-1.1483,1.3659,7.1242,9.2409,1.0407,3.252,2.5243,3.8374,7.1242,9.2409,3.9801,-5.0794,-11.492,-3.0476,-10.306,-5.0886,24.283001,2.6667,-3.2841,-2.7053
8.7204,2.6794,6.5691,4.5098,13.201,7.5447,5.2033,7.055,8.3902,4.5098,13.201,9.2869,-2.5397,-11.492,2.0317,-9.6618,-3.1562,-0.19324,2.6667,-2.6273,-3.3494
8.7204,4.5933,10.472,-0.71895,2.6403,15.35,9.7561,4.466,7.0894,-0.71895,2.6403,11.94,-4.4444,-10.857,0.7619,-7.7295,-3.1562,-16.296,3.9365,-1.3136,-4.6377
6.1927,7.7831,15.024,4.5098,5.9406,19.902,13.008,3.8188,8.3902,4.5098,5.9406,14.594,-3.8095,-7.6825,1.3968,-2.5765,1.9968,-1.4815,11.556,-1.9704,-0.77295
0.50553,6.5072,11.772,8.4314,-0.66007,2.9919,4.5528,1.877,3.187,8.4314,-0.66007,5.9701,-6.9841,-7.6825,0.12698,-2.5765,1.9968,15.91,3.3016,-9.8522,-1.4171
-0.75829,4.5933,5.9187,3.2026,-0.66007,-8.7154,-1.9512,-0.71197,-1.3659,3.2026,-0.66007,-0.66335,-10.794,-9.5873,-1.7778,-3.2206,-0.57971,-7.9227,-6.8571,-11.166,-3.9936
3.0332,0.76555,5.2683,-0.06536,1.3201,-6.7642,-3.9024,-2.0065,-5.2683,-0.06536,1.3201,-1.99,-12.698,-7.0476,-1.1429,-0.64412,-0.57971,-31.754999,-3.6825,-8.5386,4.38
4.297,-3.0622,4.6179,-2.0261,-5.9406,-3.5122,-12.358,-3.301,-6.5691,-2.0261,-5.9406,-6.6335,-8.8889,-0.69841,0.12698,5.153,1.3527,-18.229,6.4762,-0.65681,12.754
4.297,-1.1483,5.2683,-9.2157,-3.9604,1.0407,-11.057,-3.9482,-3.3171,-9.2157,-3.9604,-7.2968,-1.2698,6.2857,4.5714,8.3736,5.8615,22.351,3.9365,8.5386,10.821
4.297,1.4035,4.6179,-2.6797,-1.9802,-1.561,-7.1545,-3.301,0.58537,-2.6797,-1.9802,-5.3068,1.2698,5.6508,5.8413,7.0853,5.2174,25.572001,0.7619,7.225,5.6683
8.7204,8.4211,8.5203,4.5098,-2.6403,1.0407,0.65041,-1.3592,5.7886,4.5098,-2.6403,0.66335,2.5397,6.2857,7.746,9.0177,5.8615,-0.83736,3.3016,8.5386,7.6006
8.0885,12.887,13.724,3.8562,1.3201,1.6911,10.407,-0.71197,8.3902,3.8562,1.3201,5.3068,7.619,12.0,10.921,14.171,11.014,12.045,14.73,11.166,10.821
3.0332,13.525,13.073,5.1634,9.2409,-3.5122,10.407,-3.301,9.6911,5.1634,9.2409,4.6434,10.794,13.27,11.556,16.103001,12.947,14.622,3.9365,5.9113,9.533
-0.12638,7.7831,7.2195,-0.06536,7.2607,-4.1626,3.252,-7.1845,8.3902,-0.06536,7.2607,1.3267,6.9841,9.4603,7.746,10.95,9.0821,-27.889999,-2.4127,-4.5977,5.0242
11.88,12.887,15.675,5.1634,15.182,12.748,10.407,1.2298,14.244,5.1634,15.182,10.614,11.429,15.175,15.365,15.459,14.879,-25.958,13.46,1.9704,11.465
8.7204,7.7831,11.122,7.7778,11.881,6.8943,7.8049,2.5243,11.642,7.7778,11.881,5.9701,3.8095,8.8254,10.286,9.0177,10.37,-1.4815,13.46,-4.5977,9.533
4.9289,0.76555,4.6179,7.1242,3.9604,-6.1138,-0.65041,1.2298,2.5366,7.1242,3.9604,-2.6534,-1.2698,1.2063,5.8413,1.2882,4.5733,14.622,7.746,-5.9113,5.0242
7.4566,3.9553,5.2683,3.2026,6.6007,-0.91057,1.9512,1.2298,4.4878,3.2026,6.6007,-0.66335,5.0794,3.1111,8.381,1.2882,5.2174,21.707001,11.556,3.2841,6.3124
-8.3412,0.76555,-3.8374,-3.3333,-0.66007,-0.26016,0.65041,-3.9482,4.4878,-3.3333,-0.66007,-2.6534,-1.9048,-3.873,-3.6825,-5.153,-3.8003,-5.3462,1.3968,-3.2841,-2.0612
-8.9731,2.6794,-1.8862,3.8562,-0.66007,1.0407,4.5528,0.58252,6.439,3.8562,-0.66007,1.3267,-3.1746,-2.6032,-6.8571,-2.5765,-3.1562,-22.738001,2.6667,-3.9409,-0.77295
-2.0221,3.3174,3.3171,10.392,5.2805,0.39024,6.5041,1.877,7.0894,10.392,5.2805,4.6434,-0.63492,-0.69841,-1.7778,-1.2882,-1.2238,-5.9903,-3.6825,1.9704,-0.77295
0.50553,-4.3381,-1.8862,5.817,7.2607,-5.4634,0.65041,-2.0065,1.2358,5.817,7.2607,-0.66335,-0.63492,-5.1429,-1.7778,-7.0853,-5.7327,0.45089,-8.7619,2.6273,-3.9936
6.8246,-4.9761,-2.5366,5.1634,10.561,-1.561,1.3008,1.877,3.187,5.1634,10.561,0.66335,6.3492,0.57143,3.9365,-3.8647,-3.1562,4.3156,3.3016,9.1954,1.8035
4.297,-6.252,-5.7886,5.817,6.6007,-0.26016,-0.65041,-0.71197,-0.06504,5.817,6.6007,-1.3267,6.3492,1.8413,4.5714,-2.5765,-2.5121,19.129999,0.7619,11.823,1.1594
-2.0221,-6.252,-6.439,2.549,0.0,-0.26016,-1.3008,-0.06472,-5.2683,2.549,0.0,-1.99,4.4444,1.2063,2.0317,-1.2882,-2.5121,24.283001,-1.7778,11.823,-0.77295
-7.0774,-4.3381,-4.4878,-3.3333,-5.9406,2.3415,1.3008,1.2298,-1.3659,-3.3333,-5.9406,0.66335,0.0,0.57143,-1.7778,-0.64412,-2.5121,13.333,2.0317,10.509,-4.6377
-2.654,2.0415,1.3659,7.7778,1.3201,8.1951,9.7561,4.466,4.4878,7.7778,1.3201,7.2968,-0.63492,3.1111,-0.50794,2.5765,1.3527,-11.143,-9.3968,3.9409,-3.9936
0.50553,0.76555,0.71545,2.549,-0.66007,3.6423,4.5528,1.2298,-0.06504,2.549,-0.66007,5.3068,0.0,1.2063,0.7619,1.9324,1.3527,-22.093,-13.841,1.9704,-1.4171
-0.75829,-2.4242,-2.5366,-0.71895,2.6403,0.39024,-0.65041,-0.71197,-0.06504,-0.71895,2.6403,3.3167,0.63492,-0.69841,1.3968,0.64412,0.70853,9.4686,-9.3968,3.9409,-3.3494
-0.12638,-4.9761,-1.8862,9.7386,14.521,-0.26016,-1.9512,0.58252,1.8862,9.7386,14.521,4.6434,1.2698,-1.9683,2.6667,0.0,0.06441,13.333,-2.4127,7.225,-3.9936
5.5608,-1.1483,3.9675,12.353,13.861,4.9431,5.2033,1.877,7.0894,12.353,13.861,9.9502,3.1746,0.57143,3.9365,1.9324,0.70853,-14.364,5.8413,6.5681,-2.0612
8.0885,5.2313,9.1707,9.7386,10.561,15.35,14.959,5.7605,12.943,9.7386,10.561,17.247,4.4444,1.2063,1.3968,3.2206,-0.57971,-16.296,1.3968,-0.65681,5.0242
7.4566,7.1451,9.1707,7.1242,11.221,21.854,18.862,6.4078,15.545,7.1242,11.221,19.9,9.5238,5.0159,2.6667,7.0853,1.3527,10.113,6.4762,6.5681,12.754
-3.2859,-3.7002,-5.7886,0.58824,5.9406,6.8943,3.252,-3.301,6.439,0.58824,5.9406,5.9701,5.0794,-1.3333,-2.4127,-2.5765,-6.3768,10.113,4.5714,2.6273,1.1594
-10.237,-14.545,-14.894,-0.71895,-8.5809,-8.065,-9.1057,-4.5955,-2.6667,-0.71895,-8.5809,-5.9701,0.63492,-8.3175,-7.4921,-12.882,-12.818,8.1804,-8.127,-3.2841,-3.9936
-9.6051,-17.097,-12.293,-2.0261,-12.541,-8.7154,-8.4553,-1.3592,-6.5691,-2.0261,-12.541,-7.2968,-0.63492,-7.6825,-8.127,-14.815,-11.53,3.0274,-6.8571,-5.9113,-6.57
-8.9731,-15.821,-12.293,-3.3333,-8.5809,-5.4634,-9.7561,1.877,-7.2195,-3.3333,-8.5809,-6.6335,-1.9048,-8.3175,-10.032,-17.391001,-10.886,-36.264,-15.111,-4.5977,-18.164
-8.3412,-12.632,-10.341,1.2418,1.3201,-1.561,-6.5041,5.7605,-3.3171,1.2418,1.3201,-3.3167,0.63492,-7.6825,-8.127,-14.171,-8.9533,-2.7697,-7.4921,1.9704,-9.7907
-10.237,-10.08,-10.992,1.8954,0.66007,1.0407,-4.5528,5.1133,-7.8699,1.8954,0.66007,-4.6434,-0.63492,-10.222,-8.7619,-12.238,-10.886,22.995001,2.6667,0.65681,-3.3494
-7.0774,-5.614,-7.0894,1.8954,-1.3201,-1.561,-7.1545,5.7605,-5.2683,1.8954,-1.3201,-5.9701,1.2698,-4.5079,-5.5873,-5.153,-7.0209,13.333,3.9365,5.9113,3.0918
-6.4455,-3.0622,-3.8374,1.8954,-5.9406,-8.065,-10.407,1.877,-6.5691,1.8954,-5.9406,-8.6235,-0.63492,-1.3333,-4.9524,-1.9324,-4.4444,0.45089,-1.1429,1.3136,0.5153
-3.2859,1.4035,0.06504,-0.71895,-7.2607,-8.065,-7.8049,-0.06472,-5.2683,-0.71895,-7.2607,-7.2968,0.63492,2.4762,-1.7778,3.2206,0.70853,-5.9903,-0.50794,1.3136,1.8035
-3.2859,0.76555,-1.8862,-5.2941,-6.6007,-6.7642,-5.2033,-0.71197,-3.3171,-5.2941,-6.6007,-7.2968,2.5397,2.4762,-0.50794,3.2206,0.70853,8.1804,-3.6825,1.3136,-3.3494
-7.0774,-2.4242,-5.1382,-3.9869,-11.221,-10.016,-3.252,-5.2427,-2.0163,-3.9869,-11.221,-7.2968,3.1746,2.4762,-2.4127,1.9324,-1.2238,-4.058,-8.7619,-2.6273,-1.4171
5.5608,8.4211,5.9187,7.7778,5.9406,-0.91057,9.7561,4.466,9.6911,7.7778,5.9406,3.3167,12.698,15.175,9.6508,14.815,10.37,-5.3462,5.8413,9.8522,15.974
3.0332,9.059,4.6179,-0.06536,12.541,-2.2114,6.5041,-2.6537,11.642,-0.06536,12.541,-1.3267,4.4444,5.0159,5.2063,9.0177,6.5056,-16.940001,10.286,6.5681,8.8889
-2.654,9.059,3.3171,-1.3725,11.881,-5.4634,5.2033,-9.7735,13.593,-1.3725,11.881,-1.99,-3.1746,-3.873,0.12698,3.2206,1.3527,-7.9227,8.381,-7.8818,9.533
-4.5498,9.059,4.6179,7.1242,17.162001,-5.4634,11.707,-7.1845,20.098,7.1242,17.162001,3.9801,-5.0794,-3.873,0.12698,2.5765,0.70853,8.1804,21.714001,-9.8522,12.754
-5.1817,10.335,9.1707,5.1634,9.2409,-2.8618,16.26,-8.479,22.698999,5.1634,9.2409,8.6235,-8.254,-6.4127,-2.4127,1.9324,1.3527,6.248,18.540001,-8.5386,5.0242
-5.8136,10.973,13.724,-0.71895,10.561,-0.26016,13.659,-9.7735,17.496,-0.71895,10.561,9.2869,-11.429,-6.4127,-4.9524,3.2206,2.6409,-25.958,17.905001,-7.225,2.4477
3.0332,15.439,20.228001,5.817,19.802,6.8943,18.211,-2.0065,17.496,5.817,19.802,13.93,-5.0794,-0.06349,2.6667,8.3736,9.7262,-10.499,10.921,-3.2841,2.4477
0.50553,7.7831,12.423,7.7778,8.5809,1.0407,7.8049,-5.89,7.0894,7.7778,8.5809,5.9701,-6.9841,-3.873,0.7619,1.9324,4.5733,-15.008,-3.6825,-8.5386,-9.1465
-1.3902,-2.4242,4.6179,0.58824,-0.66007,-7.4146,-1.9512,-10.421,-3.9675,0.58824,-0.66007,-1.99,-6.9841,-7.6825,-1.7778,-3.8647,-0.57971,-28.535,-8.7619,-1.3136,-11.723
-3.9179,-8.1659,3.3171,-13.791,-11.881,-6.7642,-4.5528,-12.362,-7.2195,-13.791,-11.881,-2.6534,-3.8095,-5.7778,-3.0476,-5.153,-1.2238,9.4686,-10.667,3.2841,-6.57
-7.0774,-8.8038,2.6667,-13.791,-20.462,-4.1626,-5.2033,-11.068,-10.472,-13.791,-20.462,-3.3167,-0.63492,0.57143,-4.9524,-3.2206,0.06441,30.080999,-13.841,0.0,-8.5024
3.6651,0.76555,11.122,-1.3725,-4.6205,1.6911,4.5528,-3.301,-3.9675,-1.3725,-4.6205,2.6534,7.619,13.27,5.2063,6.4412,10.37,10.757,-4.9524,5.2545,-4.6377
14.408,9.059,18.927,1.8954,10.561,10.797,3.9024,-0.71197,3.187,1.8954,10.561,7.2968,14.603,20.254,16.635,13.527,19.388,9.4686,9.6508,5.9113,1.8035
25.782,12.887,25.431,12.353,13.201,22.504,5.2033,8.3495,7.7398,12.353,13.201,12.604,19.048,20.254,24.889,14.171,23.253,-2.7697,12.19,11.823,5.6683
23.886,10.973,26.080999,14.967,5.2805,16.0,9.1057,8.3495,7.7398,14.967,5.2805,13.93,17.143,14.54,23.618999,7.7295,20.032,17.198,0.7619,14.45,4.38
13.776,7.1451,18.927,1.2418,-5.2805,2.3415,4.5528,0.58252,-2.0163,1.2418,-5.2805,5.3068,6.3492,2.4762,13.46,-1.2882,11.014,-17.584999,-7.4921,3.2841,-11.079
13.144,7.7831,16.325001,-9.2157,-1.9802,4.9431,1.3008,-0.06472,-3.3171,-9.2157,-1.9802,1.99,0.63492,-1.9683,9.6508,0.0,9.0821,-24.025999,-8.7619,-2.6273,-8.5024
9.3523,11.611,16.976,-10.523,2.6403,8.8455,2.6016,-0.06472,1.2358,-10.523,2.6403,3.9801,-0.63492,-1.9683,7.746,3.8647,9.7262,14.622,-4.3175,-0.65681,-0.77295
5.5608,14.163,16.976,2.549,3.9604,9.4959,5.2033,-1.3592,2.5366,2.549,3.9604,5.9701,-3.8095,-4.5079,4.5714,3.2206,9.0821,4.3156,2.0317,-0.65681,-3.9936
15.039,22.455999,27.382,16.927999,19.802,14.049,13.008,6.4078,10.992,16.927999,19.802,15.92,3.1746,1.8413,13.46,11.594,18.1,16.554001,3.3016,5.2545,6.3124
15.671,21.18,25.431,14.314,11.221,11.447,11.707,5.1133,11.642,14.314,11.221,15.257,3.1746,-0.06349,13.46,10.95,16.167,15.266,8.381,7.8818,6.3124
17.566999,20.542,22.179001,9.7386,5.9406,11.447,14.309,3.8188,9.6911,9.7386,5.9406,14.594,5.0794,2.4762,12.825,10.95,14.879,2.3833,4.5714,7.225,8.8889
19.462999,19.903999,23.48,5.817,5.2805,12.098,16.910999,1.877,3.8374,5.817,5.2805,17.91,10.794,11.365,16.0,14.171,17.455999,-13.72,0.12698,4.5977,10.177
14.408,19.266001,21.528,1.8954,8.5809,11.447,14.309,-0.06472,8.3902,1.8954,8.5809,16.584,14.603,18.349001,14.73,18.035,18.1,-11.787,2.0317,3.9409,10.821
5.5608,12.887,13.724,1.2418,8.5809,4.2927,7.8049,-6.5372,16.846001,1.2418,8.5809,8.6235,13.968,20.889,10.286,18.035,14.879,-0.19324,12.19,4.5977,16.618
-2.0221,6.5072,5.2683,-2.6797,0.0,-4.813,3.252,-17.540001,15.545,-2.6797,0.0,-1.3267,11.429,20.254,5.2063,16.747,9.7262,6.248,19.809999,5.2545,22.415001
-5.8136,3.3174,-1.2358,-8.5621,1.9802,-12.618,-1.9512,-18.834999,10.992,-8.5621,1.9802,-6.6335,10.794,17.714001,2.0317,14.171,5.8615,12.045,21.079,4.5977,19.195
-3.2859,2.6794,-3.187,-5.2941,3.3003,-10.016,-3.9024,-11.068,10.992,-5.2941,3.3003,-5.9701,10.159,12.0,2.0317,9.0177,3.285,8.1804,21.714001,6.5681,8.8889
-3.2859,0.12759,-3.187,-0.06536,-5.2805,-7.4146,-5.2033,-8.479,6.439,-0.06536,-5.2805,-3.9801,5.0794,6.9206,-0.50794,3.8647,0.06441,-17.584999,8.381,-2.6273,3.7359
-4.5498,-4.9761,-5.7886,1.8954,-4.6205,-9.3659,-7.1545,-7.1845,3.187,1.8954,-4.6205,-3.9801,1.9048,2.4762,-3.0476,-1.9324,-3.8003,-22.093,-3.0476,-5.9113,3.0918
-3.9179,-5.614,-9.6911,-4.6405,-4.6205,-8.065,-10.407,-6.5372,1.8862,-4.6405,-4.6205,-5.9701,1.2698,-1.3333,-4.9524,-4.5089,-7.0209,-21.448999,-5.5873,-3.2841,-3.9936
5.5608,-1.7863,-4.4878,-3.9869,-2.6403,0.39024,-6.5041,1.877,6.439,-3.9869,-2.6403,-2.6534,8.254,6.2857,3.3016,3.2206,-0.57971,6.248,2.0317,4.5977,11.465
1.1374,-8.1659,-9.6911,-6.6013,-8.5809,-2.2114,-12.358,-0.06472,-0.71545,-6.6013,-8.5809,-7.9602,1.2698,2.4762,-1.1429,-1.9324,-4.4444,24.927999,-3.0476,-0.65681,4.38
-3.2859,-14.545,-12.293,-7.2549,-13.201,-4.813,-13.659,-0.71197,-4.6179,-7.2549,-13.201,-11.277,-9.5238,-8.3175,-8.7619,-11.594,-10.242,-7.9227,-8.7619,-11.823,-15.588
3.0332,-8.1659,-1.8862,1.8954,1.9802,4.9431,-2.6016,7.055,6.439,1.8954,1.9802,0.66335,-6.9841,-9.5873,-4.3175,-10.306,-3.8003,0.45089,0.7619,-5.2545,-16.232
-0.75829,-5.614,0.71545,9.085,9.2409,9.4959,0.0,5.1133,6.439,9.085,9.2409,6.6335,-8.8889,-15.937,-4.9524,-12.238,-2.5121,7.5362,-3.6825,-5.2545,-14.944
0.50553,-1.1483,2.0163,10.392,8.5809,6.2439,2.6016,4.466,6.439,10.392,8.5809,6.6335,-8.254,-16.570999,-3.6825,-9.6618,0.06441,-11.143,-1.1429,-7.8818,-11.079
-0.12638,2.6794,2.6667,2.549,2.6403,-1.561,3.9024,-0.71197,5.1382,2.549,2.6403,3.3167,-6.3492,-14.032,-3.0476,-6.4412,0.06441,0.45089,2.0317,-8.5386,-9.7907
1.1374,2.6794,2.0163,-4.6405,1.3201,2.9919,5.2033,-0.71197,7.0894,-4.6405,1.3201,3.9801,-5.7143,-9.5873,-2.4127,-5.153,-1.2238,18.486,3.3016,-3.9409,-7.2142
4.9289,0.76555,0.71545,-2.0261,-1.3201,6.8943,7.1545,1.2298,5.1382,-2.0261,-1.3201,6.6335,-9.5238,-4.5079,-3.0476,-3.8647,-3.1562,-22.093,3.9365,-5.2545,-3.3494
4.297,0.12759,-1.2358,3.8562,3.3003,6.2439,7.8049,3.1715,3.8374,3.8562,3.3003,9.2869,-6.3492,3.746,-1.7778,0.64412,-2.5121,-6.6345,5.8413,1.9704,7.6006
-4.5498,-1.1483,-5.1382,4.5098,2.6403,0.39024,4.5528,0.58252,2.5366,4.5098,2.6403,7.2968,-5.0794,4.381,-5.5873,1.2882,-4.4444,22.995001,1.3968,7.225,14.042
-8.3412,3.9553,-3.187,-3.9869,2.6403,2.3415,4.5528,-0.71197,5.7886,-3.9869,2.6403,7.2968,-4.4444,5.0159,-6.8571,4.5089,-2.5121,-2.7697,-1.1429,6.5681,17.907
-3.2859,9.697,1.3659,-1.3725,5.9406,8.8455,7.8049,-0.06472,7.7398,-1.3725,5.9406,9.9502,-4.4444,8.1905,-4.9524,9.0177,0.70853,-10.499,10.286,-2.6273,17.261999
-1.3902,6.5072,0.71545,7.7778,9.2409,8.1951,7.8049,1.2298,3.8374,7.7778,9.2409,9.2869,-1.2698,10.095,-2.4127,9.0177,1.9968,-6.6345,4.5714,-5.9113,7.6006
-1.3902,-1.7863,-3.8374,4.5098,4.6205,-0.26016,1.9512,-3.9482,-0.71545,4.5098,4.6205,3.9801,3.8095,12.0,1.3968,8.3736,1.9968,-13.076,-2.4127,-2.6273,6.9565
0.50553,-0.51037,-4.4878,-0.06536,2.6403,1.6911,0.0,-3.9482,1.2358,-0.06536,2.6403,2.6534,8.8889,12.635,5.8413,10.306,4.5733,2.3833,3.3016,3.2841,10.177
-3.2859,-0.51037,-5.1382,0.58824,-7.2607,1.6911,1.9512,-0.06472,-3.9675,0.58824,-7.2607,-0.66335,6.3492,7.5556,2.6667,5.153,2.6409,7.5362,0.12698,1.9704,2.4477
-9.6051,-3.7002,-8.3902,3.8562,-5.9406,-6.1138,-0.65041,2.5243,-6.5691,3.8562,-5.9406,-5.3068,2.5397,0.57143,-3.6825,-1.9324,-2.5121,9.4686,-8.127,-0.65681,-5.2818
-8.9731,-5.614,-10.341,14.967,13.861,-6.7642,-5.2033,8.3495,-0.71545,14.967,13.861,-5.9701,3.8095,1.8413,-4.9524,-2.5765,-2.5121,3.6715,-9.3968,-0.65681,-9.1465
-6.4455,-10.718,-14.894,21.503,24.422001,-6.7642,-12.358,9.644,3.8374,21.503,24.422001,-10.614,3.8095,3.1111,-4.9524,-2.5765,-3.1562,-20.805,-15.111,-9.1954,-11.723
-2.0221,-11.994,-13.593,31.306999,27.063,-2.8618,-10.407,12.88,9.6911,31.306999,27.063,-9.2869,5.0794,3.1111,-1.1429,-0.64412,-2.5121,-3.4138,-3.0476,-7.225,-5.2818
-0.12638,-10.718,-10.341,46.34,36.964001,2.9919,-2.6016,16.764,15.545,46.34,36.964001,-3.3167,5.0794,-0.69841,-0.50794,-1.2882,-3.1562,-4.058,-0.50794,-0.65681,0.5153
0.50553,-5.614,-9.0407,62.026001,50.165001,7.5447,5.8537,20.0,25.951,62.026001,50.165001,1.3267,0.63492,-2.6032,-2.4127,-3.8647,-4.4444,-9.8551,1.3968,-2.6273,-0.77295
-3.2859,0.12759,-9.0407,63.333,60.726002,12.098,12.358,20.646999,34.407001,63.333,60.726002,4.6434,-2.5397,-3.2381,-3.6825,-3.8647,-4.4444,22.351,10.286,5.9113,-3.9936
-3.9179,2.0415,-6.439,66.600998,67.327003,17.951,16.910999,17.410999,35.707001,66.600998,67.327003,8.6235,-6.3492,-7.0476,-5.5873,-7.0853,-4.4444,9.4686,2.0317,-1.3136,-7.8583
-2.0221,3.9553,-1.2358,82.288002,65.347,15.35,24.065001,15.469,37.007999,82.288002,65.347,13.93,-6.9841,-8.9524,-4.9524,-7.7295,-3.8003,13.333,0.12698,-5.2545,-3.3494
-1.3902,4.5933,0.06504,82.941002,69.967003,8.8455,27.316999,12.88,36.358002,82.941002,69.967003,15.257,-8.8889,-10.857,-4.9524,-8.3736,-3.8003,5.6039,8.381,-3.2841,-4.6377
6.8246,9.697,3.9675,77.058998,73.927002,15.35,26.667,16.764,41.561001,77.058998,73.927002,17.91,-5.7143,-7.6825,0.7619,-1.9324,0.70853,-4.7021,18.540001,3.2841,1.8035
5.5608,9.059,1.3659,58.105,58.745998,11.447,15.61,8.9968,35.056999,58.105,58.745998,13.93,-4.4444,-7.0476,1.3968,-0.64412,0.70853,-5.9903,14.095,5.9113,0.5153
7.4566,14.163,5.2683,43.724998,50.165001,10.146,14.309,9.644,34.407001,43.724998,50.165001,15.257,5.0794,5.0159,7.746,9.6618,7.7939,-10.499,15.365,7.8818,12.754
6.8246,19.266001,10.472,27.386,39.604,13.398,19.511999,3.8188,28.552999,27.386,39.604,15.92,11.429,13.905,12.825,19.323999,15.523,14.622,19.174999,15.764,28.857
-0.12638,12.887,7.2195,7.1242,23.101999,6.8943,13.659,-5.2427,12.943,7.1242,23.101999,7.9602,10.159,13.27,8.381,14.171,12.303,21.063,11.556,9.1954,17.907
-3.9179,9.697,2.6667,3.8562,13.201,-3.5122,9.1057,-7.8317,6.439,3.8562,13.201,2.6534,9.5238,11.365,5.2063,8.3736,8.438,7.5362,1.3968,-1.3136,-2.0612
-0.75829,8.4211,2.0163,-4.6405,3.3003,-4.1626,8.4553,-7.8317,3.187,-4.6405,3.3003,3.3167,10.159,9.4603,5.8413,7.0853,6.5056,3.6715,2.6667,-1.3136,-2.7053
-2.654,2.0415,-0.58537,-13.791,-13.201,-4.813,3.252,-11.715,-5.9187,-13.791,-13.201,0.66335,5.7143,5.6508,2.0317,1.2882,0.70853,-11.143,-9.3968,5.9113,-7.2142
1.7694,-0.51037,2.6667,-12.484,-9.2409,-2.2114,4.5528,-3.9482,-4.6179,-12.484,-9.2409,2.6534,2.5397,2.4762,1.3968,0.0,1.3527,-38.841,-6.2222,3.2841,-3.3494
-0.12638,-1.7863,3.9675,-24.902,-5.9406,-6.1138,3.9024,-2.0065,-7.8699,-24.902,-5.9406,1.3267,-1.9048,-0.69841,-0.50794,0.0,1.9968,-5.9903,8.381,-3.9409,1.1594
-5.1817,-3.7002,-1.2358,-37.32,-12.541,-7.4146,2.6016,-5.89,-13.724,-37.32,-12.541,-0.66335,-6.9841,-1.9683,-3.0476,-1.2882,-0.57971,34.589001,0.12698,-5.9113,1.1594
-5.1817,-4.9761,-3.8374,-30.131001,-17.822001,-6.1138,-1.3008,-6.5372,-14.374,-30.131001,-17.822001,-2.6534,-11.429,-7.0476,-6.2222,-5.153,-5.0886,10.757,-5.5873,-7.225,-3.3494
-3.2859,-5.614,-3.8374,-25.556,-34.323002,-5.4634,-7.1545,-5.2427,-12.423,-25.556,-34.323002,-3.3167,-13.968,-11.492,-8.7619,-10.306,-8.9533,-16.296,-4.3175,-8.5386,-9.1465
3.6651,-1.7863,2.0163,-28.823999,-25.743,2.9919,-6.5041,0.58252,-5.9187,-28.823999,-25.743,3.3167,-8.8889,-9.5873,-3.0476,-8.3736,-6.3768,-9.8551,-7.4921,-3.2841,-10.435
-2.654,-7.5279,-2.5366,-34.051998,-26.403,-3.5122,-11.057,-3.9482,-15.024,-34.051998,-26.403,0.0,-10.794,-12.127,-7.4921,-10.306,-9.5974,-0.83736,-1.1429,-8.5386,-4.6377
-11.501,-15.821,-10.992,-49.084999,-32.342999,-11.317,-20.163,-14.304,-24.129999,-49.084999,-32.342999,-9.9502,-16.507999,-17.205999,-15.746,-14.815,-17.327,-0.83736,2.6667,-15.107,-2.7053
-10.869,-12.632,-7.7398,-47.778,-31.683001,-9.3659,-16.26,-13.657,-20.228001,-47.778,-31.683001,-8.6235,-11.429,-14.667,-14.476,-10.95,-15.395,8.8245,3.3016,-8.5386,-5.9259
-13.397,-9.4418,-7.0894,-39.280998,-34.323002,-13.268,-11.707,-13.657,-22.179001,-39.280998,-34.323002,-9.2869,-8.254,-10.222,-15.746,-9.6618,-14.75,3.0274,-9.3968,-2.6273,-13.655
-11.501,-8.1659,-8.3902,-37.32,-37.624001,-18.472,-10.407,-14.304,-20.878,-37.32,-37.624001,-11.94,-5.0794,-10.857,-12.571,-8.3736,-12.818,8.1804,-8.7619,6.5681,-10.435
-7.0774,-8.1659,-5.1382,-32.744999,-36.304001,-11.317,-10.407,-11.068,-20.228001,-32.744999,-36.304001,-7.9602,0.0,-10.222,-7.4921,-5.7971,-9.5974,-6.6345,-1.1429,5.2545,-0.12882
-7.7093,-11.356,-4.4878,-35.359001,-37.624001,-11.317,-16.910999,-14.304,-20.878,-35.359001,-37.624001,-9.2869,-0.63492,-5.7778,-6.8571,-7.0853,-10.242,-9.8551,-2.4127,-3.2841,-3.9936
-7.7093,-8.1659,-3.8374,-41.242001,-34.983002,-13.268,-18.211,-13.657,-17.625999,-41.242001,-34.983002,-9.9502,-1.9048,-1.3333,-5.5873,-4.5089,-10.242,-3.4138,-1.7778,2.6273,-1.4171
6.8246,2.0415,7.2195,-34.706001,-23.101999,1.0407,-5.8537,-2.0065,-10.472,-34.706001,-23.101999,-0.66335,2.5397,10.095,5.2063,7.7295,0.70853,-14.364,0.7619,1.3136,10.821
6.1927,-1.1483,7.8699,-32.091999,-27.063,-0.91057,-7.1545,-5.89,-13.073,-32.091999,-27.063,-2.6534,-0.63492,12.635,6.4762,7.7295,1.9968,2.3833,3.9365,-6.5681,9.533
1.1374,-3.7002,7.8699,-28.17,-30.363001,-9.3659,-11.707,-11.715,-15.024,-28.17,-30.363001,-4.6434,-1.9048,10.73,5.2063,7.0853,1.3527,18.486,2.6667,9.1954,13.398
1.1374,-1.7863,9.8211,-29.476999,-27.723,-8.065,-6.5041,-10.421,-18.275999,-29.476999,-27.723,-2.6534,-2.5397,12.0,3.3016,7.7295,1.9968,8.8245,-3.6825,1.9704,11.465
1.7694,-1.7863,7.2195,-34.706001,-31.023001,-6.1138,-9.1057,-10.421,-21.528,-34.706001,-31.023001,-5.9701,-1.2698,7.5556,3.3016,6.4412,1.9968,6.8921,-1.1429,-0.65681,6.3124
6.8246,0.12759,9.1707,-34.051998,-33.662998,-9.3659,-11.057,-6.5372,-21.528,-34.051998,-33.662998,-7.9602,5.0794,3.746,8.381,5.7971,5.2174,-9.8551,-4.9524,3.9409,3.0918
7.4566,-1.1483,8.5203,-32.744999,-36.964001,-13.919,-11.707,-7.1845,-20.878,-32.744999,-36.964001,-10.614,6.9841,-1.3333,10.286,2.5765,5.2174,-15.008,-9.3968,7.225,-3.9936
5.5608,-1.7863,5.9187,-36.013,-41.584,-7.4146,-12.358,-8.479,-20.228001,-36.013,-41.584,-12.604,6.9841,-3.873,7.746,0.64412,3.285,-21.448999,-8.127,3.2841,-5.9259
4.9289,-2.4242,7.8699,-31.438,-34.323002,-4.1626,-11.057,-3.9482,-19.577,-31.438,-34.323002,-9.2869,12.063,-0.06349,9.6508,3.2206,6.5056,11.401,-9.3968,10.509,-0.12882
13.776,6.5072,18.275999,-15.752,-15.842,-0.26016,2.6016,3.8188,-18.275999,-15.752,-15.842,1.3267,21.587,8.8254,21.714001,11.594,17.455999,32.657001,-1.7778,26.273001,6.3124
13.776,10.335,19.577,-14.444,-11.221,-0.26016,2.6016,2.5243,-13.073,-14.444,-11.221,1.3267,19.048,8.8254,20.444,12.882,17.455999,6.8921,7.1111,13.793,9.533
1.7694,8.4211,11.122,-23.594999,-13.201,-6.1138,-5.2033,-8.479,-5.9187,-23.594999,-13.201,-5.3068,10.794,3.746,10.286,9.6618,11.659,6.8921,9.0159,-1.9704,7.6006
-4.5498,8.4211,4.6179,-23.594999,-15.842,-11.967,-5.8537,-11.068,-4.6179,-23.594999,-15.842,-7.9602,7.619,3.746,5.2063,8.3736,8.438,-7.2786,3.3016,-1.9704,5.0242
-3.9179,3.9553,-0.58537,-21.634001,-23.761999,-9.3659,-5.2033,-9.1262,-7.8699,-21.634001,-23.761999,-9.9502,3.1746,2.4762,2.6667,4.5089,4.5733,-27.246,2.0317,-3.9409,5.6683
1.7694,6.5072,5.2683,-18.365999,-25.083,1.6911,1.3008,-3.9482,-5.2683,-18.365999,-25.083,-3.9801,7.619,6.9206,8.381,9.0177,9.0821,-8.5668,7.746,6.5681,9.533
0.50553,5.2313,4.6179,-15.098,-25.743,-5.4634,-1.9512,-8.479,-8.5203,-15.098,-25.743,-7.2968,8.254,6.9206,7.746,9.0177,9.0821,-13.72,10.921,3.9409,8.8889
2.4013,3.9553,2.0163,-17.059,-21.122,-11.317,-5.8537,-9.1262,-11.122,-17.059,-21.122,-10.614,6.9841,5.0159,7.746,7.7295,7.1498,3.6715,3.9365,2.6273,11.465
8.0885,4.5933,2.0163,-19.673,-10.561,-5.4634,-7.1545,-4.5955,-7.2195,-19.673,-10.561,-7.2968,8.254,6.2857,10.286,7.7295,6.5056,11.401,2.0317,5.2545,10.821
4.9289,1.4035,0.71545,-16.405001,-11.881,-6.7642,-5.8537,-2.0065,-7.8699,-16.405001,-11.881,-6.6335,6.9841,5.6508,6.4762,3.8647,2.6409,9.4686,-1.1429,3.9409,6.3124
-2.654,-3.7002,-3.8374,-18.365999,-21.782,-7.4146,-6.5041,-4.5955,-11.772,-18.365999,-21.782,-9.2869,1.2698,-0.69841,-1.7778,-1.9324,-3.1562,14.622,-7.4921,-2.6273,-2.0612
-4.5498,-4.3381,-5.1382,-18.365999,-21.122,-3.5122,-6.5041,-3.9482,-12.423,-18.365999,-21.122,-9.2869,-0.63492,-5.1429,-5.5873,-3.8647,-5.0886,1.095,-1.7778,-3.9409,-5.9259
-0.75829,-6.252,-5.1382,-18.365999,-23.101999,-3.5122,-7.8049,-0.71197,-15.675,-18.365999,-23.101999,-7.9602,1.9048,-6.4127,-2.4127,-5.7971,-5.0886,-20.160999,-3.6825,-1.9704,-7.8583
8.7204,-4.9761,-0.58537,-4.6405,-16.502001,4.9431,-5.2033,7.7023,-13.073,-4.6405,-16.502001,-2.6534,9.5238,-1.3333,7.1111,-3.8647,0.70853,7.5362,-13.841,9.1954,-7.8583
7.4566,-1.7863,2.0163,0.58824,-3.3003,2.3415,-3.252,9.644,-9.8211,0.58824,-3.3003,-0.66335,10.159,1.8413,8.381,-1.9324,2.6409,31.368999,-20.825001,13.793,-13.011
12.512,2.0415,7.8699,0.58824,-1.3201,2.9919,0.0,13.528,-6.5691,0.58824,-1.3201,3.9801,12.063,9.4603,11.556,5.7971,9.0821,-11.143,-11.937,11.166,-2.7053
12.512,0.76555,8.5203,-5.2941,-6.6007,6.8943,-4.5528,12.233,-10.472,-5.2941,-6.6007,5.3068,12.063,11.365,13.46,7.7295,11.659,11.401,-11.302,12.479,0.5153
-2.0221,-8.1659,-5.7886,-13.791,-15.182,-5.4634,-16.26,-1.3592,-20.228001,-13.791,-15.182,-9.9502,-0.63492,-0.69841,0.7619,-3.2206,-0.57971,-1.4815,-18.921,-2.6273,-13.655
-7.0774,-11.356,-10.341,-6.6013,-27.063,-9.3659,-14.959,-6.5372,-23.48,-6.6013,-27.063,-15.257,-7.619,-5.1429,-4.3175,-7.0853,-5.7327,-10.499,-21.459999,-6.5681,-10.435
-7.0774,-10.08,-5.7886,-3.9869,-25.083,-2.8618,-9.1057,-2.6537,-18.275999,-3.9869,-25.083,-10.614,-5.7143,-0.69841,-3.0476,-2.5765,-2.5121,8.1804,-8.7619,-4.5977,1.8035
-8.3412,-8.1659,-4.4878,-7.2549,-12.541,-7.4146,-10.407,-3.301,-12.423,-7.2549,-12.541,-11.94,-8.254,-2.6032,-4.9524,-1.2882,-2.5121,13.977,3.9365,-0.65681,5.0242
-3.2859,0.12759,0.71545,-6.6013,0.0,-6.1138,-6.5041,1.877,-2.6667,-6.6013,0.0,-6.6335,-11.429,-1.3333,-4.3175,1.2882,-0.57971,15.91,11.556,-1.9704,6.9565
0.50553,4.5933,3.3171,-0.06536,2.6403,-0.91057,-3.252,3.1715,-2.0163,-0.06536,2.6403,-1.99,-10.794,0.57143,-4.3175,2.5765,0.06441,-0.19324,8.381,-11.166,8.2448
6.1927,6.5072,7.8699,-0.06536,2.6403,8.1951,3.252,4.466,-0.06504,-0.06536,2.6403,3.9801,-5.0794,0.57143,0.7619,2.5765,1.3527,5.6039,3.3016,-7.8818,6.3124
4.9289,2.0415,5.9187,-0.71895,-2.6403,6.2439,2.6016,1.2298,-0.71545,-0.71895,-2.6403,1.3267,-5.7143,-5.1429,-0.50794,-2.5765,-3.1562,7.5362,2.0317,-1.3136,-2.7053
4.9289,-1.1483,4.6179,5.817,-5.9406,4.9431,-1.3008,0.58252,0.58537,5.817,-5.9406,-1.99,-5.7143,-7.0476,-0.50794,-4.5089,-3.8003,-7.9227,3.3016,-1.9704,-3.3494
13.776,9.697,15.024,12.353,10.561,13.398,6.5041,12.233,7.7398,12.353,10.561,5.9701,2.5397,3.1111,7.1111,4.5089,5.8615,-22.093,11.556,1.3136,5.6683
4.297,7.1451,9.1707,8.4314,7.9208,-0.26016,0.65041,7.7023,3.8374,8.4314,7.9208,0.0,0.0,-0.69841,2.0317,1.9324,3.285,-0.83736,7.1111,6.5681,2.4477
-5.1817,-3.0622,-3.187,-0.06536,-0.66007,-9.3659,-7.1545,-1.3592,-1.3659,-0.06536,-0.66007,-8.6235,-3.1746,-9.5873,-3.0476,-7.0853,-5.0886,15.266,-1.1429,3.9409,-7.8583
1.7694,-3.0622,1.3659,-7.9085,3.3003,-0.26016,-2.6016,1.877,1.2358,-7.9085,3.3003,-4.6434,-0.63492,-9.5873,0.12698,-7.7295,-3.1562,-2.7697,-12.571,-3.2841,-11.723
4.297,-6.252,3.9675,-2.6797,-7.9208,10.797,1.3008,4.466,-4.6179,-2.6797,-7.9208,-1.3267,-0.63492,-12.127,1.3968,-10.306,-2.5121,1.095,-22.73,-2.6273,-16.232
1.7694,-7.5279,2.0163,12.353,-6.6007,8.1951,-1.9512,8.3495,-7.8699,12.353,-6.6007,-1.99,-1.9048,-9.5873,-0.50794,-10.306,-3.1562,5.6039,-11.937,-1.9704,-12.367
0.50553,-5.614,1.3659,18.889,2.6403,3.6423,-6.5041,8.9968,-5.2683,18.889,2.6403,-3.3167,-1.2698,-2.6032,0.7619,-3.8647,-1.2238,12.689,-4.3175,3.2841,-3.9936
-0.75829,-8.8038,-5.7886,11.699,0.66007,-0.91057,-9.7561,6.4078,-7.8699,11.699,0.66007,-6.6335,-3.1746,-0.69841,-0.50794,-1.9324,-3.1562,6.248,-2.4127,5.2545,-2.0612
-2.654,-4.3381,-5.1382,5.1634,-4.6205,-4.1626,-4.5528,6.4078,-3.9675,5.1634,-4.6205,-4.6434,-3.8095,0.57143,-1.7778,1.9324,-2.5121,8.8245,5.2063,-0.65681,5.0242
-3.9179,-1.1483,-1.2358,-2.6797,-3.3003,-4.1626,-3.9024,3.1715,-0.06504,-2.6797,-3.3003,-3.3167,-1.9048,1.8413,-1.7778,0.64412,-1.2238,-3.4138,-3.0476,-6.5681,-2.7053
-7.0774,-4.9761,-3.187,-7.9085,1.9802,-5.4634,-9.1057,-0.06472,-8.5203,-7.9085,1.9802,-5.9701,-6.3492,-4.5079,-5.5873,-5.7971,-5.0886,-14.364,-3.6825,-7.8818,-13.655
-5.1817,-4.3381,-5.7886,1.8954,3.3003,0.39024,-5.8537,-0.71197,-5.2683,1.8954,3.3003,-5.3068,-9.5238,-8.3175,-6.8571,-5.7971,-7.0209,-16.296,-4.9524,-10.509,-11.079
-8.3412,-5.614,-9.6911,3.8562,1.3201,5.5935,-1.9512,-1.3592,-0.06504,3.8562,1.3201,-2.6534,-10.794,-7.6825,-9.3968,-3.8647,-7.0209,6.248,-6.8571,-12.479,-0.12882
-7.0774,-0.51037,-7.0894,12.353,12.541,1.6911,2.6016,7.055,6.439,12.353,12.541,2.6534,-6.9841,-1.9683,-6.8571,1.9324,-2.5121,26.860001,2.0317,-5.2545,10.177
3.0332,11.611,5.2683,22.157,19.802,4.2927,14.309,15.469,16.846001,22.157,19.802,11.94,-0.63492,4.381,1.3968,7.7295,5.8615,4.3156,7.746,1.9704,11.465
-2.654,9.059,5.2683,6.4706,8.5809,-0.26016,11.057,4.466,13.593,6.4706,8.5809,6.6335,-5.7143,-1.9683,-4.3175,0.64412,0.70853,-2.7697,2.6667,-5.9113,1.1594
-5.1817,3.9553,2.6667,2.549,5.9406,-0.91057,11.707,2.5243,10.341,2.549,5.9406,4.6434,-8.8889,-3.873,-7.4921,-1.9324,-2.5121,7.5362,7.746,-10.509,3.7359
-0.75829,2.6794,1.3659,15.621,16.502001,4.9431,15.61,5.1133,9.6911,15.621,16.502001,7.2968,-6.3492,-1.3333,-4.3175,-1.2882,-1.868,-0.83736,11.556,-5.2545,4.38
-2.0221,3.9553,-1.8862,9.7386,19.142,6.8943,12.358,-0.06472,9.6911,9.7386,19.142,5.9701,-6.9841,-3.873,-4.9524,-1.2882,-1.868,-38.841,10.921,-5.2545,-5.2818
-2.654,6.5072,-4.4878,12.353,13.201,8.1951,9.7561,1.877,16.195,12.353,13.201,5.3068,-8.254,-4.5079,-6.2222,0.0,-1.2238,-29.179001,5.8413,-8.5386,-5.9259
-12.133,-1.7863,-10.992,7.1242,2.6403,-5.4634,1.3008,-3.301,7.0894,7.1242,2.6403,-3.9801,-12.698,-10.857,-12.571,-5.153,-7.6651,3.6715,-5.5873,-11.823,-2.0612
-10.869,-4.9761,-8.3902,-3.9869,2.6403,-10.667,-1.3008,-1.3592,3.187,-3.9869,2.6403,-6.6335,-8.254,-8.9524,-10.667,-6.4412,-8.9533,9.4686,-8.7619,-7.8818,-3.3494
-5.8136,-10.08,-10.992,-7.9085,-3.9604,-10.667,-6.5041,-1.3592,-2.6667,-7.9085,-3.9604,-9.9502,-6.3492,-5.7778,-8.7619,-9.6618,-12.174,-1.4815,-8.7619,-3.9409,-11.723
-8.9731,-17.735001,-18.797001,-8.5621,-13.201,-15.87,-16.26,-7.1845,-13.073,-8.5621,-13.201,-18.573999,-8.254,-7.0476,-11.937,-11.594,-17.327,10.113,-9.3968,1.3136,-7.2142
-10.869,-20.924999,-24.65,-11.176,-20.462,-15.87,-24.065001,-11.715,-20.228001,-11.176,-20.462,-25.871,-10.159,-9.5873,-13.841,-14.171,-19.903,-2.1256,-16.381001,2.6273,-11.079
1.7694,-4.9761,-10.992,1.2418,-3.9604,-5.4634,-11.057,1.2298,-5.2683,1.2418,-3.9604,-12.604,3.8095,5.0159,2.0317,0.64412,-1.868,-0.83736,-0.50794,9.8522,-2.7053
4.297,4.5933,-5.1382,9.7386,7.2607,-5.4634,0.0,6.4078,5.7886,9.7386,7.2607,-3.9801,3.1746,7.5556,5.2063,5.153,3.9291,12.045,12.19,7.225,6.9565
8.7204,7.1451,-0.58537,5.817,8.5809,3.6423,6.5041,4.466,9.0407,5.817,8.5809,3.9801,-1.2698,6.9206,5.8413,3.8647,3.9291,6.248,13.46,-0.65681,6.9565
6.1927,3.9553,2.0163,-6.6013,5.9406,6.8943,5.2033,-2.6537,3.187,-6.6013,5.9406,5.9701,-6.3492,3.1111,2.6667,0.0,2.6409,-28.535,-3.0476,-11.166,3.0918
4.9289,3.3174,5.2683,1.8954,0.66007,5.5935,3.252,-2.6537,2.5366,1.8954,0.66007,6.6335,-5.0794,3.1111,2.6667,0.64412,5.2174,-41.417,-3.0476,-9.8522,1.8035
6.8246,5.2313,10.472,16.927999,9.901,8.1951,5.2033,-3.9482,5.7886,16.927999,9.901,7.9602,3.1746,9.4603,9.6508,6.4412,12.303,-3.4138,-0.50794,-1.3136,4.38
6.8246,5.8692,9.1707,9.085,7.9208,3.6423,2.6016,-6.5372,3.8374,9.085,7.9208,5.3068,7.619,9.4603,12.19,8.3736,14.235,6.8921,0.7619,4.5977,6.3124
11.248,10.335,9.1707,5.817,3.3003,4.2927,7.8049,5.1133,3.8374,5.817,3.3003,6.6335,10.794,10.095,13.46,9.6618,14.879,12.045,5.2063,7.225,6.9565
5.5608,12.249,6.5691,9.7386,7.2607,4.2927,9.7561,4.466,9.6911,9.7386,7.2607,5.9701,5.7143,5.6508,5.2063,9.0177,9.7262,9.4686,5.8413,-0.65681,10.177
-1.3902,9.059,2.6667,9.7386,9.901,2.3415,5.2033,-2.6537,11.642,9.7386,9.901,3.9801,-3.8095,-0.69841,-5.5873,2.5765,1.3527,-11.143,3.3016,-8.5386,0.5153
0.50553,9.059,7.2195,8.4314,15.182,6.2439,8.4553,-3.301,13.593,8.4314,15.182,10.614,-6.9841,-1.3333,-5.5873,1.2882,-0.57971,-25.313999,21.714001,-7.225,3.0918
10.616,16.715,16.976,16.275,21.122,20.552999,19.511999,3.8188,24.65,16.275,21.122,22.554001,-3.1746,5.6508,3.3016,8.3736,6.5056,-22.093,34.412998,-1.9704,15.974
8.0885,15.439,15.024,15.621,15.182,16.65,14.959,-0.06472,20.098,15.621,15.182,19.237,-5.7143,3.1111,3.9365,5.153,6.5056,10.113,17.905001,-1.3136,6.9565
6.8246,10.973,11.122,7.7778,11.221,10.146,11.057,-2.0065,10.341,7.7778,11.221,12.604,-10.159,-3.873,1.3968,3.8647,4.5733,-5.3462,2.6667,-2.6273,7.6006
6.8246,6.5072,7.8699,-2.0261,3.9604,6.8943,9.1057,-3.9482,4.4878,-2.0261,3.9604,8.6235,-10.159,-6.4127,-1.1429,1.9324,1.9968,-29.179001,0.7619,-9.1954,5.6683
-3.2859,0.76555,2.0163,-0.06536,-3.3003,2.9919,1.3008,-7.8317,-3.9675,-0.06536,-3.3003,1.99,-5.0794,-6.4127,-4.9524,-2.5765,-2.5121,3.0274,-13.841,-5.9113,-5.9259
-3.9179,4.5933,2.0163,13.66,7.9208,1.0407,1.9512,-0.06472,-0.71545,13.66,7.9208,1.99,4.4444,-1.3333,0.12698,2.5765,1.3527,29.436001,-0.50794,5.9113,-4.6377
-0.12638,0.12759,0.06504,5.1634,1.3201,-3.5122,-0.65041,2.5243,-3.9675,5.1634,1.3201,-3.3167,8.8889,1.2063,4.5714,3.8647,2.6409,9.4686,8.381,11.166,5.6683
6.8246,-2.4242,2.0163,-2.0261,-10.561,-4.813,-3.9024,2.5243,-7.8699,-2.0261,-10.561,-5.3068,12.063,4.381,10.286,5.153,5.8615,1.095,5.8413,13.793,7.6006
14.408,7.1451,8.5203,3.2026,-1.9802,7.5447,1.9512,9.644,2.5366,3.2026,-1.9802,3.9801,16.507999,12.0,16.635,11.594,12.303,3.0274,7.1111,10.509,10.177
4.9289,2.0415,-1.2358,-5.2941,-5.2805,3.6423,-1.9512,2.5243,0.58537,-5.2941,-5.2805,-0.66335,6.9841,3.1111,3.9365,2.5765,1.3527,-37.551998,-3.6825,-2.6273,1.8035
-8.9731,-4.3381,-9.0407,-2.6797,-3.9604,-4.813,-8.4553,-4.5955,-1.3659,-2.6797,-3.9604,-4.6434,1.2698,-4.5079,-5.5873,-5.153,-7.6651,3.0274,-2.4127,-1.9704,-5.9259
-12.133,-3.0622,-8.3902,2.549,5.2805,-7.4146,-7.8049,-3.301,-0.06504,2.549,5.2805,-5.9701,4.4444,-6.4127,-5.5873,-3.8647,-7.0209,41.674999,0.12698,9.8522,-0.12882
-10.237,-4.9761,-8.3902,-5.2941,3.9604,-12.618,-9.1057,-1.3592,-4.6179,-5.2941,3.9604,-10.614,-1.2698,-9.5873,-6.2222,-7.0853,-8.3092,-6.6345,-2.4127,6.5681,-4.6377
-6.4455,-2.4242,-6.439,-7.9085,-2.6403,-10.667,-3.252,-1.3592,-0.06504,-7.9085,-2.6403,-8.6235,-1.9048,-5.7778,-4.9524,-5.153,-5.7327,-21.448999,-4.3175,1.9704,-3.9936
-10.869,-3.7002,-12.943,-3.9869,-8.5809,-8.065,0.0,-3.9482,3.187,-3.9869,-8.5809,-8.6235,-5.0794,-3.873,-8.127,-3.2206,-5.7327,-0.83736,-2.4127,-4.5977,-1.4171
-10.869,-9.4418,-18.797001,-2.0261,-2.6403,-14.569,-5.2033,-5.2427,1.2358,-2.0261,-2.6403,-11.94,-5.7143,-0.06349,-6.8571,-2.5765,-5.7327,3.0274,-0.50794,-5.9113,-0.12882
-5.1817,-2.4242,-10.341,-2.0261,3.9604,-12.618,-1.3008,-2.6537,5.7886,-2.0261,3.9604,-6.6335,-1.2698,5.0159,-0.50794,2.5765,-1.2238,15.266,6.4762,1.3136,5.6683
3.0332,10.973,8.5203,3.8562,9.2409,2.9919,13.659,5.7605,14.894,3.8562,9.2409,8.6235,1.2698,8.1905,5.2063,8.3736,6.5056,24.927999,20.444,3.9409,11.465
3.6651,15.439,15.024,8.4314,18.482,8.8455,19.511999,8.9968,15.545,8.4314,18.482,14.594,-1.2698,3.1111,3.3016,6.4412,7.1498,13.977,14.095,-1.3136,4.38
1.7694,7.7831,8.5203,6.4706,9.2409,11.447,11.707,3.1715,9.6911,6.4706,9.2409,13.267,-8.254,-5.1429,-3.0476,-0.64412,1.3527,-4.7021,-2.4127,-5.9113,-3.3494
3.0332,6.5072,4.6179,9.085,7.2607,16.0,11.057,3.8188,10.992,9.085,7.2607,14.594,-5.0794,-2.6032,-1.7778,1.2882,1.9968,1.7391,2.6667,3.9409,-2.0612
7.4566,7.7831,3.3171,7.7778,6.6007,13.398,9.7561,5.7605,12.943,7.7778,6.6007,14.594,5.0794,5.6508,5.2063,5.7971,7.1498,11.401,8.381,6.5681,5.0242
2.4013,6.5072,-0.58537,4.5098,7.9208,6.2439,8.4553,2.5243,5.7886,4.5098,7.9208,9.9502,6.9841,5.0159,2.6667,4.5089,5.2174,7.5362,10.921,3.2841,5.0242
-0.75829,6.5072,0.71545,12.353,15.842,3.6423,9.7561,3.1715,3.8374,12.353,15.842,9.2869,4.4444,3.1111,-1.7778,3.8647,3.285,11.401,11.556,2.6273,8.2448
-2.0221,3.3174,-1.8862,9.7386,2.6403,-0.91057,3.9024,2.5243,2.5366,9.7386,2.6403,5.3068,1.2698,1.8413,-4.9524,-0.64412,-1.2238,-26.601999,1.3968,-3.9409,-5.2818
0.50553,0.12759,-3.187,3.8562,2.6403,1.6911,3.9024,-0.06472,1.2358,3.8562,2.6403,5.3068,3.1746,2.4762,-1.1429,-1.9324,-1.2238,-6.6345,-11.302,1.9704,-8.5024
1.7694,-3.0622,-4.4878,1.2418,5.9406,3.6423,-1.3008,-0.71197,-0.06504,1.2418,5.9406,3.3167,3.1746,0.57143,0.7619,-0.64412,-0.57971,12.045,-10.032,5.9113,0.5153
1.7694,-3.7002,-3.187,0.58824,2.6403,3.6423,-5.2033,1.2298,-5.9187,0.58824,2.6403,1.3267,1.2698,-1.3333,2.0317,-1.2882,0.70853,17.841999,2.0317,5.9113,-0.77295
5.5608,-1.1483,-1.8862,4.5098,-1.9802,6.8943,-5.8537,5.7605,-7.8699,4.5098,-1.9802,0.66335,1.9048,0.57143,5.8413,0.64412,2.6409,24.927999,2.6667,11.823,0.5153
1.1374,-6.252,-10.341,4.5098,-7.2607,0.39024,-12.358,2.5243,-9.1707,4.5098,-7.2607,-9.2869,-1.9048,1.8413,-0.50794,-0.64412,-2.5121,1.7391,2.0317,1.9704,-0.12882
-2.654,-6.89,-14.894,-0.06536,-0.66007,-5.4634,-9.7561,3.1715,-3.9675,-0.06536,-0.66007,-12.604,-2.5397,1.2063,-4.3175,-3.2206,-5.0886,6.248,-0.50794,-3.2841,-5.2818
-3.2859,-8.1659,-11.642,-3.3333,-1.9802,-6.1138,-9.1057,3.8188,-4.6179,-3.3333,-1.9802,-12.604,-2.5397,-3.873,-4.3175,-6.4412,-5.0886,-4.7021,-6.8571,-0.65681,-9.7907
1.7694,0.12759,-0.58537,0.58824,-0.66007,2.3415,-3.252,3.8188,-0.06504,0.58824,-0.66007,-5.9701,-1.2698,-1.3333,1.3968,-0.64412,3.285,-18.229,-7.4921,-1.9704,-5.9259
3.0332,3.3174,4.6179,5.817,9.901,3.6423,-0.65041,5.7605,4.4878,5.817,9.901,-1.3267,0.0,1.2063,3.3016,4.5089,7.7939,-21.448999,-0.50794,-7.225,3.7359
1.7694,4.5933,4.6179,11.046,11.221,-0.26016,0.0,6.4078,4.4878,11.046,11.221,1.99,4.4444,3.1111,3.9365,7.0853,7.7939,-7.9227,2.0317,-0.65681,8.2448
10.616,13.525,13.073,21.503,17.162001,12.098,14.959,8.3495,11.642,21.503,17.162001,13.267,13.333,11.365,12.825,13.527,15.523,12.045,9.0159,10.509,11.465
6.8246,12.249,13.724,15.621,11.221,6.8943,16.910999,-2.0065,14.894,15.621,11.221,11.94,12.063,10.095,12.825,10.95,14.235,12.689,10.286,3.9409,3.7359
4.297,11.611,14.374,-0.71895,7.9208,-0.91057,13.008,-9.7735,13.593,-0.71895,7.9208,8.6235,10.159,11.365,11.556,10.95,12.947,17.198,10.921,5.2545,5.6683
6.1927,14.163,15.024,-1.3725,9.901,7.5447,15.61,-4.5955,15.545,-1.3725,9.901,13.267,9.5238,16.444,11.556,14.815,14.235,15.266,17.905001,2.6273,14.686
-0.75829,7.1451,3.9675,-3.9869,-1.3201,2.3415,9.1057,-5.89,5.7886,-3.9869,-1.3201,7.2968,0.0,8.1905,0.7619,5.7971,3.285,-22.738001,17.905001,-11.166,4.38
-3.2859,3.9553,-1.8862,1.2418,4.6205,-4.1626,4.5528,-5.2427,-2.0163,1.2418,4.6205,3.3167,-6.9841,3.1111,-4.9524,1.2882,-2.5121,-62.673,-1.1429,-15.764,-4.6377
-6.4455,0.76555,2.0163,0.58824,11.221,-2.2114,3.252,-6.5372,-0.71545,0.58824,11.221,5.9701,-6.3492,5.0159,-4.3175,3.8647,0.70853,-19.517,-9.3968,-11.166,3.7359
-6.4455,-1.7863,8.5203,1.8954,9.901,2.9919,5.8537,-5.89,3.8374,1.8954,9.901,12.604,-1.2698,8.1905,-1.7778,6.4412,4.5733,17.841999,5.2063,-3.2841,10.821
-2.654,-4.9761,9.8211,1.8954,2.6403,6.8943,4.5528,-8.479,-2.6667,1.8954,2.6403,13.267,0.0,5.0159,0.12698,3.2206,4.5733,12.045,-0.50794,-0.65681,10.177
6.1927,-2.4242,11.122,-4.6405,-4.6205,10.146,4.5528,-3.301,-6.5691,-4.6405,-4.6205,13.267,5.0794,4.381,7.1111,3.2206,6.5056,9.4686,-3.6825,0.65681,2.4477
9.3523,2.0415,11.122,3.2026,-5.2805,10.797,5.2033,3.8188,-6.5691,3.2026,-5.2805,13.93,12.063,8.8254,9.6508,6.4412,9.7262,9.4686,-3.6825,5.9113,1.1594
3.0332,0.12759,7.8699,4.5098,-1.9802,6.2439,3.9024,3.8188,-9.1707,4.5098,-1.9802,9.9502,12.063,9.4603,3.9365,3.8647,5.8615,8.8245,-5.5873,9.1954,0.5153
5.5608,2.0415,13.073,8.4314,9.901,10.146,4.5528,9.644,-2.6667,8.4314,9.901,13.93,15.873,8.8254,7.1111,2.5765,7.7939,8.8245,-0.50794,13.136,-4.6377
10.616,-0.51037,14.374,11.699,10.561,10.146,1.9512,10.291,-2.6667,11.699,10.561,12.604,17.143,7.5556,10.921,2.5765,9.7262,-11.787,-18.921,9.1954,-4.6377
11.248,-4.3381,9.8211,1.2418,1.9802,6.2439,-0.65041,5.7605,-7.2195,1.2418,1.9802,6.6335,12.698,3.746,10.286,2.5765,7.7939,-2.1256,-15.746,7.225,-3.3494
10.616,-3.7002,5.2683,-0.06536,-3.9604,2.9919,0.0,2.5243,-8.5203,-0.06536,-3.9604,3.9801,8.254,0.57143,9.6508,1.2882,5.2174,13.977,-10.667,4.5977,-3.9936
8.0885,-4.3381,-0.58537,5.817,-0.66007,-2.2114,-3.252,1.2298,-5.9187,5.817,-0.66007,0.0,3.8095,-2.6032,7.1111,-1.9324,1.9968,-8.5668,-13.841,5.9113,-7.8583
8.7204,2.0415,3.9675,9.7386,5.9406,1.6911,0.65041,7.7023,6.439,9.7386,5.9406,3.9801,8.254,5.6508,10.921,5.7971,7.1498,13.977,-1.1429,11.823,4.38
-0.12638,0.76555,1.3659,14.967,13.201,2.3415,0.0,6.4078,9.6911,14.967,13.201,1.3267,6.3492,5.6508,3.9365,5.7971,4.5733,23.639,8.381,3.2841,8.2448
-1.3902,-2.4242,-3.187,21.503,25.083,1.0407,-0.65041,6.4078,14.894,21.503,25.083,-2.6534,4.4444,1.2063,-0.50794,2.5765,0.70853,-6.6345,10.286,-3.9409,-0.77295
4.297,-1.1483,-1.8862,37.842999,38.944,4.9431,4.5528,11.586,25.951,37.842999,38.944,0.0,7.619,-0.06349,2.0317,1.2882,0.06441,-13.72,7.746,1.3136,-3.9936
4.9289,0.12759,-3.187,62.026001,58.745998,8.1951,10.407,17.410999,32.455002,62.026001,58.745998,3.9801,5.7143,-3.873,0.12698,-1.9324,-3.8003,6.248,2.6667,4.5977,-2.0612
6.1927,7.7831,3.9675,82.941002,81.848,15.35,20.813,22.589001,42.862,82.941002,81.848,13.93,3.8095,-1.3333,1.3968,1.9324,-0.57971,10.113,6.4762,9.8522,6.3124
15.671,21.818001,20.228001,82.941002,83.828003,29.659,39.674999,35.534,61.073002,82.941002,83.828003,30.514,10.794,8.8254,10.921,14.171,12.947,1.7391,21.079,8.5386,21.127001
9.3523,22.455999,20.878,82.941002,83.828003,35.512001,41.625999,33.591999,66.276001,82.941002,83.828003,33.167,3.1746,6.9206,5.8413,13.527,12.947,10.113,29.968,-5.2545,18.551001
3.6651,16.077,15.675,82.941002,83.828003,34.210999,35.771999,30.356001,61.073002,82.941002,83.828003,29.187,-3.1746,3.1111,-0.50794,6.4412,7.1498,19.775,23.618999,-5.2545,5.6683
8.7204,14.163,15.675,82.941002,83.828003,35.512001,40.976002,34.238998,57.820999,82.941002,83.828003,31.177,0.0,3.746,2.0317,2.5765,5.8615,1.7391,2.0317,-1.3136,-3.9936
11.88,8.4211,12.423,82.941002,83.828003,32.259998,38.374001,35.534,53.918999,82.941002,83.828003,31.177,3.1746,3.746,2.6667,0.0,3.9291,-7.2786,-5.5873,2.6273,-0.12882
13.144,7.1451,12.423,82.941002,83.828003,28.358,32.52,34.887001,48.064999,82.941002,83.828003,31.841,6.9841,6.2857,4.5714,1.2882,3.285,5.6039,0.12698,9.8522,6.3124
3.6651,3.3174,8.5203,82.941002,83.828003,21.854,22.764,27.120001,37.007999,82.941002,83.828003,25.207001,1.2698,1.2063,-1.7778,-5.7971,-3.1562,15.266,-1.7778,2.6273,-2.7053
-1.3902,-3.0622,5.9187,69.869003,65.347,16.0,18.211,20.0,23.35,69.869003,65.347,19.237,-2.5397,-5.1429,-5.5873,-12.238,-10.242,17.198,-1.1429,-0.65681,-9.7907
3.0332,-5.614,5.9187,46.993,40.924,10.797,15.61,16.764,14.894,46.993,40.924,17.247,-3.1746,-6.4127,-4.3175,-12.238,-12.818,16.554001,-1.7778,2.6273,-8.5024
5.5608,-6.89,2.0163,18.889,20.462,7.5447,5.8537,6.4078,9.0407,18.889,20.462,9.9502,-6.3492,-9.5873,-4.3175,-13.527,-14.106,0.45089,-11.302,3.9409,-14.3
7.4566,-9.4418,-0.58537,4.5098,8.5809,3.6423,0.0,3.8188,-2.0163,4.5098,8.5809,3.3167,-3.8095,-11.492,-2.4127,-14.171,-12.818,7.5362,-17.650999,5.9113,-16.232
10.616,-4.9761,7.8699,-0.71895,0.66007,8.1951,5.2033,6.4078,-6.5691,-0.71895,0.66007,7.9602,3.8095,-10.222,3.9365,-9.6618,-5.7327,17.198,-7.4921,11.166,-7.8583
6.8246,0.76555,11.772,-13.137,-1.9802,11.447,6.5041,3.8188,-3.3171,-13.137,-1.9802,9.9502,1.2698,-14.032,2.0317,-10.306,-5.0886,10.113,6.4762,6.5681,-9.1465
-0.75829,1.4035,7.2195,-23.594999,-11.881,6.8943,3.9024,-2.6537,-4.6179,-23.594999,-11.881,5.3068,-5.0794,-17.205999,-4.3175,-10.95,-8.3092,-0.83736,1.3968,4.5977,-9.7907
-0.75829,4.5933,7.2195,-32.091999,-21.122,-1.561,2.6016,-7.8317,-5.9187,-32.091999,-21.122,3.3167,-4.4444,-12.127,-3.6825,-5.153,-5.7327,-5.3462,-1.1429,0.0,-0.12882
-2.654,6.5072,7.8699,-45.162998,-32.342999,-6.7642,-0.65041,-11.715,-8.5203,-45.162998,-32.342999,0.0,-3.1746,-3.873,-4.9524,1.2882,-3.1562,-21.448999,2.6667,-9.1954,7.6006
-4.5498,12.249,11.122,-43.202999,-36.964001,-1.561,1.9512,-11.715,-7.8699,-43.202999,-36.964001,1.3267,-1.2698,1.8413,-6.2222,7.0853,1.3527,-9.8551,-1.1429,-9.8522,4.38
-5.8136,9.059,11.122,-42.549,-31.683001,1.6911,0.0,-10.421,-10.472,-42.549,-31.683001,1.99,-1.9048,4.381,-8.127,7.0853,1.3527,-25.958,5.8413,-9.8522,6.9565
-7.7093,3.3174,9.1707,-47.778,-34.323002,-2.2114,-5.2033,-12.362,-15.024,-47.778,-34.323002,-0.66335,-0.63492,10.73,-8.7619,8.3736,1.9968,-4.058,7.746,-7.8818,14.686
-11.501,-0.51037,3.3171,-56.275002,-42.903999,-10.667,-12.358,-18.188,-16.976,-56.275002,-42.903999,-8.6235,0.63492,13.905,-7.4921,9.0177,2.6409,12.045,8.381,-8.5386,15.33
-12.765,0.12759,1.3659,-53.007,-42.243999,-11.967,-9.7561,-20.129,-16.325001,-53.007,-42.243999,-10.614,0.63492,13.905,-6.8571,8.3736,3.285,2.3833,14.73,-9.8522,8.2448
-10.869,-0.51037,0.71545,-51.699001,-46.205002,-8.7154,-5.8537,-18.834999,-18.927,-51.699001,-46.205002,-7.2968,2.5397,14.54,-4.9524,7.0853,2.6409,-2.1256,4.5714,-7.225,6.9565
-10.237,-7.5279,-6.439,-62.157001,-55.445999,-10.016,-11.057,-19.482,-25.431,-62.157001,-55.445999,-10.614,-0.63492,6.9206,-8.127,-2.5765,-5.7327,-40.772999,-7.4921,-11.166,-2.0612
-8.3412,-14.545,-12.943,-65.425003,-60.726002,-12.618,-13.659,-20.777,-28.683001,-65.425003,-60.726002,-15.257,-3.1746,-1.9683,-10.032,-9.6618,-11.53,-29.823,-11.302,-10.509,-3.9936
-11.501,-23.476999,-21.398001,-66.732002,-62.706001,-20.423,-24.065001,-24.013,-32.584999,-66.732002,-62.706001,-23.216999,-5.7143,-9.5873,-11.302,-18.68,-18.615,-7.2786,-18.921,-4.5977,-9.1465
-13.397,-29.856001,-26.601999,-66.732002,-71.946999,-26.927,-32.52,-22.718,-39.089001,-66.732002,-71.946999,-29.187,-8.254,-15.302,-13.206,-23.833,-24.412001,0.45089,-15.746,-2.6273,-11.079
-15.924,-33.683998,-29.854,-63.464001,-70.626999,-27.577,-34.472,-21.424,-42.992001,-63.464001,-70.626999,-30.514,-7.619,-17.205999,-15.746,-26.409,-27.632999,4.9597,-18.285999,-1.3136,-11.723
-20.979,-37.512001,-33.756001,-65.425003,-66.007004,-26.927,-37.723999,-22.070999,-46.894001,-65.425003,-66.007004,-31.841,-9.5238,-20.381001,-18.921,-30.917999,-32.141998,6.8921,-23.365,-2.6273,-19.452
-17.82,-33.046001,-31.153999,-64.117996,-58.085999,-24.976,-36.423,-16.246,-41.041,-64.117996,-58.085999,-30.514,-7.619,-16.570999,-14.476,-27.697001,-27.632999,0.45089,-19.556,-2.6273,-22.028999
-12.765,-27.943001,-24.65,-70.653999,-58.745998,-23.024,-33.820999,-14.951,-37.789001,-70.653999,-58.745998,-27.197001,-8.254,-13.397,-11.302,-23.188,-21.191999,-31.754999,-20.190001,-3.9409,-19.452
-4.5498,-17.097,-12.293,-55.620998,-62.046001,-18.472,-25.365999,-7.8317,-32.584999,-55.620998,-62.046001,-17.247,-5.7143,-9.5873,-4.9524,-14.815,-10.886,-2.7697,-17.650999,-0.65681,-14.944
1.1374,-9.4418,-4.4878,-39.935001,-52.145,-13.919,-17.561001,-2.0065,-27.382,-39.935001,-52.145,-9.2869,-5.0794,-5.7778,0.12698,-9.0177,-5.0886,19.129999,-10.667,7.225,-14.944
3.6651,-4.9761,-2.5366,-37.32,-42.243999,-3.5122,-11.707,-0.71197,-20.878,-37.32,-42.243999,-3.9801,-8.254,-4.5079,0.7619,-4.5089,-3.8003,22.351,-4.9524,8.5386,-7.2142
2.4013,-5.614,-5.1382,-34.706001,-46.205002,0.39024,-13.659,-2.6537,-22.829,-34.706001,-46.205002,-6.6335,-13.333,-8.3175,-3.0476,-5.153,-6.3768,5.6039,-2.4127,0.0,-9.1465
-2.0221,-11.356,-9.6911,-41.242001,-44.223999,-5.4634,-18.862,-3.9482,-28.033001,-41.242001,-44.223999,-13.267,-11.429,-8.3175,-4.3175,-3.8647,-8.3092,12.689,-5.5873,1.9704,-3.3494
-3.2859,-10.08,-11.642,-41.242001,-41.584,-10.016,-18.211,-3.9482,-24.129999,-41.242001,-41.584,-15.92,-10.159,-5.7778,-5.5873,0.0,-7.0209,4.3156,-5.5873,-2.6273,3.7359
0.50553,-1.1483,-7.0894,-31.438,-40.924,-8.7154,-9.7561,2.5243,-13.724,-31.438,-40.924,-10.614,-7.619,-4.5079,-3.6825,3.8647,-3.1562,10.757,5.8413,1.9704,4.38
-1.3902,1.4035,-6.439,-24.902,-39.604,-6.1138,-3.252,2.5243,-11.122,-24.902,-39.604,-7.2968,-6.9841,-3.2381,-4.9524,2.5765,-1.868,2.3833,2.0317,-5.2545,-1.4171
-8.3412,1.4035,-9.0407,-30.784,-33.002998,-5.4634,-1.3008,-6.5372,-9.8211,-30.784,-33.002998,-9.2869,-8.254,-1.3333,-8.127,1.9324,-1.868,-35.619999,-1.7778,-18.391001,-5.9259
-3.9179,7.7831,-1.2358,-32.744999,-20.462,-3.5122,2.6016,-5.89,-3.3171,-32.744999,-20.462,-3.9801,1.9048,10.095,2.0317,12.882,8.438,0.45089,9.0159,-3.9409,11.465
-1.3902,7.7831,0.06504,-33.398998,-22.441999,-6.7642,-5.2033,-5.89,-3.9675,-33.398998,-22.441999,-6.6335,5.7143,13.27,5.8413,14.815,10.37,3.6715,9.6508,-3.9409,12.11
-5.1817,-3.0622,-9.6911,-34.051998,-34.323002,-13.919,-14.309,-9.1262,-10.472,-34.051998,-34.323002,-16.584,-1.9048,5.6508,-1.1429,5.7971,1.3527,-14.364,0.12698,-11.823,5.6683
-10.237,-11.994,-17.496,-30.784,-40.264,-20.423,-16.910999,-10.421,-20.228001,-30.784,-40.264,-23.216999,-6.9841,-3.873,-7.4921,-3.2206,-7.0209,-6.6345,-3.6825,-12.479,-2.7053
-10.869,-13.907,-16.846001,-35.359001,-36.964001,-19.122,-20.163,-12.362,-24.780001,-35.359001,-36.964001,-22.554001,-2.5397,-3.2381,-5.5873,-5.153,-8.3092,7.5362,-13.841,2.6273,-4.6377
-13.397,-17.097,-19.447001,-29.476999,-33.002998,-23.024,-25.365999,-12.362,-23.48,-29.476999,-33.002998,-24.544001,-5.7143,-7.6825,-8.7619,-10.306,-12.818,4.9597,-11.937,1.3136,-2.7053
-5.8136,-12.632,-17.496,-18.365999,-28.382999,-23.674999,-21.462999,-1.3592,-15.024,-18.365999,-28.382999,-23.881001,-1.9048,-5.1429,-4.3175,-9.6618,-10.886,-0.19324,-10.032,5.2545,-7.2142
-2.0221,-15.183,-19.447001,-26.863001,-28.382999,-19.771999,-24.065001,0.58252,-18.275999,-26.863001,-28.382999,-25.871,-3.8095,-8.9524,-3.6825,-14.815,-12.174,-22.738001,-19.556,4.5977,-17.52
-11.501,-20.924999,-25.301001,-34.051998,-34.983002,-19.122,-25.365999,-8.479,-26.080999,-34.051998,-34.983002,-27.861,-8.8889,-14.667,-10.667,-19.968,-17.971001,6.8921,-18.921,-0.65681,-16.232
-14.028,-16.459,-22.698999,-32.091999,-31.683001,-15.22,-17.561001,-5.89,-22.829,-32.091999,-31.683001,-22.554001,-6.3492,-10.857,-11.302,-15.459,-16.683001,28.792,-13.841,1.3136,-8.5024
-17.188,-15.183,-22.698999,-29.476999,-26.403,-19.771999,-17.561001,-7.1845,-14.374,-29.476999,-26.403,-22.554001,-5.0794,-9.5873,-12.571,-16.103001,-17.327,11.401,-13.206,0.65681,-13.655
-12.133,-10.718,-20.747999,-16.405001,-23.101999,-19.122,-14.309,-3.9482,-9.8211,-16.405001,-23.101999,-19.9,-2.5397,-7.0476,-9.3968,-11.594,-13.462,6.248,-5.5873,3.2841,-10.435
-5.8136,-4.9761,-16.195,-9.2157,-15.182,-13.268,-7.8049,1.2298,-7.2195,-9.2157,-15.182,-15.257,0.63492,-1.9683,-4.9524,-6.4412,-7.6651,3.0274,-3.6825,3.9409,-5.2818
-0.75829,-1.7863,-10.992,-13.137,-4.6205,-3.5122,-5.2033,5.7605,-0.71545,-13.137,-4.6205,-10.614,3.8095,-1.3333,-1.1429,-2.5765,-3.1562,-11.787,-3.0476,6.5681,-0.77295
-7.7093,-8.1659,-16.195,-20.327,-23.101999,-5.4634,-14.309,-5.2427,-7.8699,-20.327,-23.101999,-15.257,-2.5397,-8.9524,-4.9524,-8.3736,-8.3092,1.095,-5.5873,0.0,-9.1465
-12.765,-13.907,-19.447001,-20.98,-31.683001,-13.268,-18.211,-11.715,-15.675,-20.98,-31.683001,-19.9,-11.429,-15.937,-10.032,-12.882,-13.462,8.1804,-13.841,-5.9113,-12.367
-10.237,-12.632,-15.545,-13.137,-28.382999,-15.87,-16.26,-8.479,-20.228001,-13.137,-28.382999,-17.247,-12.063,-14.667,-10.667,-10.95,-12.174,1.095,-11.937,-7.8818,-7.8583
-3.2859,-3.0622,-9.6911,-9.2157,-16.502001,-4.1626,-8.4553,-3.301,-9.1707,-9.2157,-16.502001,-7.2968,-6.9841,-8.9524,-6.8571,-4.5089,-7.0209,-15.652,0.7619,-3.2841,-3.3494
6.8246,12.887,3.9675,-1.3725,3.3003,14.049,7.8049,8.9968,12.293,-1.3725,3.3003,9.2869,3.8095,1.2063,5.2063,7.7295,5.2174,-0.19324,21.714001,0.65681,6.3124
8.0885,16.715,9.8211,-2.0261,5.2805,18.601999,16.26,5.7605,15.545,-2.0261,5.2805,14.594,5.0794,2.4762,9.6508,9.6618,9.0821,22.995001,17.905001,0.65681,12.11
2.4013,11.611,5.9187,-1.3725,1.9802,10.146,13.659,-1.3592,8.3902,-1.3725,1.9802,9.9502,-1.9048,-3.2381,2.6667,3.8647,3.285,-0.83736,7.1111,-1.9704,11.465
-1.3902,9.059,3.3171,3.2026,4.6205,1.6911,8.4553,-2.0065,9.0407,3.2026,4.6205,7.9602,-6.3492,-7.0476,-1.7778,2.5765,0.70853,0.45089,9.6508,-2.6273,10.821
-5.8136,5.8692,-1.8862,3.2026,1.3201,-2.8618,3.9024,-4.5955,6.439,3.2026,1.3201,4.6434,-8.8889,-12.127,-3.6825,-2.5765,-1.2238,1.7391,0.7619,-7.8818,-3.3494
-4.5498,2.0415,-5.7886,1.8954,-1.3201,-4.1626,1.9512,-3.301,-0.06504,1.8954,-1.3201,3.9801,-8.8889,-11.492,-4.3175,-3.8647,-2.5121,-20.160999,2.6667,-10.509,-3.9936
-0.75829,2.0415,-1.8862,-5.2941,-1.9802,-0.26016,3.252,1.877,-0.71545,-5.2941,-1.9802,5.9701,-3.1746,-7.0476,-0.50794,-1.2882,1.3527,-7.9227,-0.50794,-3.2841,-0.12882
3.6651,0.76555,2.0163,-9.2157,-9.2409,7.5447,3.252,1.2298,-1.3659,-9.2157,-9.2409,6.6335,3.1746,-2.6032,3.3016,0.64412,4.5733,5.6039,-8.127,7.225,1.8035
3.6651,-3.0622,-0.58537,1.8954,-8.5809,2.3415,-2.6016,-0.71197,-6.5691,1.8954,-8.5809,3.3167,4.4444,1.2063,3.9365,0.64412,2.6409,15.91,1.3968,8.5386,3.7359
3.0332,-3.7002,-4.4878,2.549,-0.66007,-3.5122,-9.1057,-2.0065,-3.3171,2.549,-0.66007,0.66335,0.0,-0.69841,2.6667,-3.2206,-0.57971,-3.4138,3.9365,-3.2841,-3.9936
7.4566,3.9553,-0.58537,3.8562,6.6007,0.39024,0.0,3.1715,3.8374,3.8562,6.6007,5.3068,0.63492,-0.69841,5.8413,-0.64412,1.3527,-7.2786,0.7619,3.9409,-4.6377
1.7694,7.7831,2.0163,7.7778,11.221,-1.561,9.7561,3.1715,7.7398,7.7778,11.221,5.9701,0.63492,0.57143,3.3016,0.0,1.9968,17.198,9.0159,5.2545,-4.6377
-6.4455,2.0415,-0.58537,3.2026,3.3003,-10.016,3.252,-1.3592,6.439,3.2026,3.3003,0.0,-3.8095,-5.1429,-3.6825,-3.8647,0.06441,4.3156,2.6667,-0.65681,-5.9259
-3.9179,0.76555,-0.58537,-3.3333,-5.2805,-10.667,-2.6016,-2.6537,2.5366,-3.3333,-5.2805,-4.6434,-3.8095,-6.4127,-3.0476,-3.2206,1.3527,-8.5668,-5.5873,-3.9409,-2.0612
-0.75829,2.0415,0.06504,-2.6797,-0.66007,-4.1626,-3.252,-6.5372,3.8374,-2.6797,-0.66007,-5.3068,-2.5397,-5.7778,0.7619,-0.64412,3.9291,6.8921,-0.50794,-1.3136,-0.77295
2.4013,5.8692,3.3171,6.4706,5.2805,-3.5122,1.9512,-4.5955,9.0407,6.4706,5.2805,-2.6534,0.0,-0.06349,3.3016,5.153,7.1498,-16.940001,14.73,0.65681,5.0242
5.5608,17.351999,12.423,12.353,20.462,-1.561,13.008,1.2298,15.545,12.353,20.462,5.3068,10.794,14.54,10.286,18.68,16.812,-12.432,25.524,5.2545,21.771
3.6651,21.818001,15.024,9.7386,23.761999,-2.2114,12.358,-0.06472,18.797001,9.7386,23.761999,5.3068,13.333,20.254,13.46,24.476999,21.965,-11.787,24.254,2.6273,25.636
7.4566,25.646,17.625999,16.275,17.822001,-2.8618,13.008,-2.6537,20.098,16.275,17.822001,5.3068,12.698,19.618999,17.27,26.409,24.541,-1.4815,20.444,1.9704,22.415001
11.88,26.284,19.577,13.66,19.802,2.9919,14.959,-3.9482,20.098,13.66,19.802,7.2968,9.5238,17.714001,19.174999,26.409,25.829,12.045,14.73,5.2545,23.059999
7.4566,16.715,13.073,-2.0261,7.9208,0.39024,5.2033,-9.1262,9.6911,-2.0261,7.9208,0.66335,5.0794,13.905,12.825,19.968,18.1,-10.499,10.921,-0.65681,17.261999
-0.12638,6.5072,5.9187,-3.3333,-8.5809,-0.26016,-2.6016,-11.715,-2.0163,-3.3333,-8.5809,-4.6434,2.5397,9.4603,5.2063,12.882,11.014,-22.093,5.8413,-5.9113,8.2448
1.1374,4.5933,4.6179,8.4314,0.0,0.39024,-1.3008,-5.2427,-2.0163,8.4314,0.0,-1.99,3.1746,8.8254,5.8413,11.594,9.7262,-11.143,3.3016,-0.65681,10.177
3.0332,1.4035,0.71545,9.7386,8.5809,-5.4634,-3.9024,-3.9482,0.58537,9.7386,8.5809,-2.6534,1.9048,6.2857,5.8413,7.0853,5.8615,-22.738001,0.7619,3.9409,6.9565
3.0332,2.6794,0.06504,8.4314,10.561,-4.813,-1.3008,-0.06472,1.8862,8.4314,10.561,-0.66335,3.1746,4.381,5.2063,3.8647,3.285,-0.19324,-1.7778,5.9113,-0.77295
2.4013,2.6794,2.6667,11.699,9.901,0.39024,0.0,-0.06472,0.58537,11.699,9.901,3.9801,5.7143,5.0159,5.2063,3.8647,5.2174,28.792,-6.8571,5.9113,-0.77295
7.4566,1.4035,7.8699,14.967,11.221,8.1951,1.3008,6.4078,0.58537,14.967,11.221,9.9502,7.619,3.1111,6.4762,3.8647,7.7939,3.6715,-12.571,7.8818,-3.9936
16.934999,5.2313,14.374,20.195999,20.462,21.202999,8.4553,16.117001,5.1382,20.195999,20.462,18.573999,12.063,3.746,12.825,6.4412,12.303,-6.6345,-1.7778,8.5386,-2.0612
11.88,2.6794,9.8211,20.195999,21.122,20.552999,5.8537,12.233,3.8374,20.195999,21.122,17.247,8.8889,-0.06349,9.6508,2.5765,9.0821,13.977,-3.6825,6.5681,-3.3494
4.297,-1.1483,3.9675,16.927999,9.2409,14.049,4.5528,9.644,0.58537,16.927999,9.2409,11.277,3.1746,-5.1429,3.9365,-3.2206,3.285,-0.19324,-4.3175,0.65681,-9.1465
7.4566,8.4211,11.772,24.118,15.842,16.0,11.057,11.586,11.642,24.118,15.842,15.257,8.8889,3.746,9.6508,3.8647,10.37,-1.4815,7.746,3.9409,-9.7907
6.8246,7.7831,12.423,22.809999,19.802,10.146,11.707,3.1715,7.0894,22.809999,19.802,13.93,12.063,6.9206,10.286,5.7971,11.014,2.3833,0.12698,7.8818,-1.4171
0.50553,-2.4242,2.6667,18.889,15.842,6.2439,7.1545,6.4078,-5.9187,18.889,15.842,7.2968,2.5397,-1.3333,-0.50794,-1.9324,0.70853,5.6039,-3.6825,0.65681,3.0918
4.297,-3.0622,1.3659,26.732,17.822001,13.398,3.252,22.589001,-7.8699,26.732,17.822001,8.6235,0.63492,-3.2381,-1.1429,-5.153,-1.868,32.013,-10.667,1.3136,-3.9936
7.4566,-1.7863,2.0163,21.503,11.881,14.699,0.65041,25.825001,-13.724,21.503,11.881,5.9701,0.0,-3.873,2.0317,-5.7971,0.06441,29.436001,-10.032,0.0,-10.435
6.8246,-1.1483,2.6667,17.582001,8.5809,12.098,-3.252,28.414,-20.228001,17.582001,8.5809,1.3267,-3.8095,-3.873,4.5714,-1.9324,3.285,15.91,0.7619,-2.6273,-3.9936
9.3523,1.4035,5.2683,14.967,6.6007,11.447,-5.2033,31.65,-25.431,14.967,6.6007,0.0,-4.4444,-0.06349,7.746,1.9324,7.1498,-5.9903,3.9365,-3.2841,-4.6377
9.9842,1.4035,4.6179,9.7386,-2.6403,14.049,-5.2033,33.591999,-29.333,9.7386,-2.6403,-1.3267,0.0,8.1905,9.0159,7.0853,9.7262,-11.787,-1.7778,0.65681,-0.77295
1.1374,-3.7002,-3.187,3.8562,-11.221,10.146,-9.7561,34.887001,-37.789001,3.8562,-11.221,-6.6335,-2.5397,8.1905,0.7619,5.153,3.285,7.5362,-9.3968,-3.9409,-1.4171
-1.3902,-8.1659,-6.439,-5.2941,-20.462,1.6911,-15.61,34.238998,-46.243999,-5.2941,-20.462,-10.614,-5.7143,6.2857,-4.9524,2.5765,-1.868,-16.296,-11.302,-11.166,-1.4171
3.6651,-4.3381,0.06504,-9.2157,-21.782,2.9919,-14.309,36.181,-47.544998,-9.2157,-21.782,-7.9602,-4.4444,8.8254,-2.4127,5.153,1.3527,1.7391,-14.476,-5.2545,0.5153
5.5608,0.12759,5.2683,-14.444,-25.083,4.9431,-11.707,32.945,-47.544998,-14.444,-25.083,-4.6434,-3.8095,8.1905,1.3968,5.153,4.5733,30.725,-16.381001,0.0,-1.4171
-1.3902,-10.08,-1.8862,-25.556,-38.944,-2.8618,-14.959,24.531,-53.397999,-25.556,-38.944,-9.9502,-11.429,-2.6032,-6.2222,-5.153,-3.8003,5.6039,-18.285999,-4.5977,-5.9259
-3.9179,-16.459,-5.7886,-26.209,-41.584,-4.1626,-17.561001,19.353001,-51.446999,-26.209,-41.584,-11.277,-15.873,-8.9524,-10.667,-12.882,-10.242,-0.83736,-20.190001,-5.9113,-12.367
-3.9179,-16.459,-4.4878,-19.02,-35.644001,-1.561,-19.511999,20.646999,-47.544998,-19.02,-35.644001,-8.6235,-12.063,-9.5873,-7.4921,-14.815,-8.9533,-0.19324,-29.079,-6.5681,-24.605
-3.2859,-15.183,-2.5366,-11.83,-31.023001,-3.5122,-16.26,23.882999,-44.292999,-11.83,-31.023001,-6.6335,0.63492,-2.6032,0.12698,-10.306,-1.868,-21.448999,-20.190001,-4.5977,-22.673
-1.3902,-12.632,-2.5366,-9.8693,-25.743,-10.667,-14.959,18.705999,-39.740002,-9.8693,-25.743,-8.6235,10.159,4.381,5.2063,-5.153,2.6409,-28.535,-17.016001,-1.9704,-11.723
-0.12638,-11.994,-2.5366,-14.444,-25.743,-10.667,-14.309,13.528,-38.438999,-14.444,-25.743,-8.6235,14.603,6.9206,6.4762,-3.8647,3.285,8.8245,-22.094999,6.5681,-11.079
-3.2859,-10.718,-1.2358,-16.405001,-21.782,-6.1138,-9.7561,12.88,-31.285,-16.405001,-21.782,-5.3068,10.794,6.9206,1.3968,-4.5089,0.70853,8.8245,-13.206,10.509,-9.7907
-4.5498,-4.9761,2.6667,-17.059,-15.182,0.39024,-1.3008,14.822,-26.732,-17.059,-15.182,0.0,6.3492,10.73,-3.6825,0.0,1.3527,5.6039,-14.476,11.823,-3.9936
-9.6051,-6.252,-1.2358,-13.791,-19.142,-5.4634,-3.9024,11.586,-29.983999,-13.791,-19.142,-3.3167,1.2698,6.2857,-8.127,-3.2206,-3.8003,25.572001,-17.016001,3.2841,-7.8583
-11.501,-13.27,-9.0407,-9.8693,-23.761999,-11.967,-17.561001,8.9968,-30.634001,-9.8693,-23.761999,-11.277,-4.4444,-0.06349,-10.667,-9.0177,-9.5974,21.707001,-7.4921,-3.9409,-10.435
-4.5498,-11.994,-8.3902,-4.6405,-19.802,-3.5122,-19.511999,12.88,-24.129999,-4.6405,-19.802,-8.6235,-7.619,-0.69841,-8.127,-6.4412,-8.3092,-2.1256,1.3968,-5.9113,-5.2818
1.7694,-4.3381,-1.8862,2.549,-16.502001,6.8943,-9.1057,16.764,-16.976,2.549,-16.502001,-0.66335,-11.429,-1.3333,-5.5873,-2.5765,-3.8003,1.7391,0.7619,-8.5386,-4.6377
-2.654,-4.3381,0.71545,-2.0261,-18.482,1.0407,-8.4553,12.233,-14.374,-2.0261,-18.482,0.0,-19.048,-6.4127,-8.127,-3.8647,-4.4444,17.841999,-6.8571,-11.166,-0.12882
-5.1817,-3.7002,-0.58537,-6.6013,-8.5809,-2.2114,-6.5041,8.9968,-9.8211,-6.6013,-8.5809,-1.3267,-21.587,-10.222,-10.667,-5.7971,-7.0209,-21.448999,-13.206,-14.45,0.5153
-0.75829,-1.7863,-2.5366,-4.6405,-3.3003,1.6911,-3.252,6.4078,-5.2683,-4.6405,-3.3003,-1.99,-12.698,-5.1429,-7.4921,-2.5765,-5.7327,-29.823,1.3968,-7.8818,4.38
-0.75829,-1.7863,-4.4878,-4.6405,-7.2607,2.3415,0.65041,7.7023,-4.6179,-4.6405,-7.2607,-3.3167,-2.5397,-1.3333,-3.0476,1.9324,-3.1562,16.554001,0.12698,4.5977,8.8889
-1.3902,-5.614,-3.187,0.58824,-8.5809,1.0407,-1.3008,5.1133,-9.1707,0.58824,-8.5809,-5.3068,6.3492,-1.3333,1.3968,0.64412,-0.57971,36.521999,-4.3175,7.8818,6.3124
7.4566,-2.4242,7.2195,-1.3725,-10.561,7.5447,-3.252,-4.5955,-20.228001,-1.3725,-10.561,-0.66335,15.238,5.6508,9.6508,4.5089,5.8615,1.095,-3.0476,7.225,-0.77295
5.5608,2.0415,8.5203,5.1634,7.2607,3.6423,0.0,-6.5372,-0.71545,5.1634,7.2607,0.66335,14.603,7.5556,9.0159,5.7971,5.2174,-5.9903,0.7619,8.5386,3.7359
-1.3902,2.0415,2.0163,18.235001,28.382999,-6.7642,3.9024,-5.2427,24.0,18.235001,28.382999,-0.66335,10.159,4.381,3.9365,3.2206,0.70853,7.5362,3.9365,7.225,4.38
-6.4455,-5.614,-7.0894,26.077999,37.624001,-8.7154,3.252,-11.715,28.552999,26.077999,37.624001,-3.3167,5.7143,0.57143,-1.7778,-2.5765,-6.3768,-9.8551,1.3968,6.5681,3.0918
-6.4455,-2.4242,-7.0894,30.653999,38.944,-4.1626,9.7561,-14.951,40.910999,30.653999,38.944,0.66335,3.8095,-2.6032,-3.0476,-3.8647,-7.6651,-25.313999,12.825,3.9409,5.6683
-5.8136,1.4035,-3.187,36.535999,54.785,2.9919,18.211,-19.482,53.268002,36.535999,54.785,7.2968,1.9048,-1.9683,-4.3175,-3.8647,-7.6651,-22.738001,14.095,0.65681,1.8035
4.297,9.697,6.5691,43.724998,78.547997,15.35,29.919001,-15.599,70.829002,43.724998,78.547997,20.563999,8.254,8.8254,3.9365,6.4412,0.70853,3.0274,18.540001,8.5386,15.974
4.297,14.801,8.5203,52.222,76.568001,10.797,33.820999,-20.129,77.333,52.222,76.568001,23.216999,9.5238,12.0,5.2063,9.0177,4.5733,19.775,20.444,7.225,12.754
-1.3902,14.801,7.8699,52.875999,72.607002,4.2927,33.171001,-29.191,76.032997,52.875999,72.607002,20.563999,7.619,10.73,2.0317,9.0177,5.2174,-2.1256,28.698,-1.9704,8.8889
1.7694,19.266001,11.772,45.033001,77.227997,11.447,39.023998,-27.249001,78.634003,45.033001,77.227997,21.891001,10.159,13.27,4.5714,12.238,8.438,-10.499,36.317001,0.0,12.754
4.297,24.370001,13.724,39.804001,71.946999,14.049,38.374001,-24.013,78.634003,39.804001,71.946999,21.891001,13.333,13.27,7.1111,14.171,10.37,10.113,33.143002,10.509,16.618
-2.0221,16.715,7.2195,31.306999,48.845001,6.2439,27.966999,-29.837999,61.723999,31.306999,48.845001,13.267,7.619,5.0159,2.0317,6.4412,3.285,1.095,20.444,3.9409,13.398
6.1927,17.99,11.772,29.346001,40.264,6.2439,29.268,-22.070999,59.771999,29.346001,40.264,17.247,8.8889,3.746,7.1111,5.7971,5.2174,-3.4138,22.983999,4.5977,16.618
7.4566,14.801,11.122,27.386,42.903999,6.8943,27.316999,-18.834999,56.52,27.386,42.903999,18.573999,6.3492,0.57143,6.4762,1.2882,3.285,-7.9227,17.27,-1.9704,6.9565
8.7204,16.715,12.423,23.464001,44.223999,10.797,26.016001,-16.246,54.569,23.464001,44.223999,19.237,5.7143,3.746,7.746,3.8647,6.5056,-26.601999,21.079,-2.6273,2.4477
6.8246,17.99,14.374,20.85,36.304001,9.4959,24.065001,-17.540001,54.569,20.85,36.304001,17.247,6.9841,6.9206,9.0159,9.6618,10.37,-2.1256,16.0,2.6273,12.11
8.0885,19.903999,15.675,18.889,34.323002,12.748,23.415001,-19.482,51.317001,18.889,34.323002,16.584,7.619,12.635,11.556,16.747,14.235,19.129999,23.618999,7.8818,24.348
13.776,23.732,19.577,22.157,31.023001,17.301001,29.919001,-12.362,50.015999,22.157,31.023001,21.891001,12.063,20.889,15.365,20.612,18.743999,-8.5668,26.794001,9.8522,21.771
4.9289,17.99,12.423,17.582001,25.083,10.146,25.365999,-13.01,44.813,17.582001,25.083,17.91,10.159,19.618999,7.746,14.815,12.947,-25.313999,15.365,-3.2841,12.754
-4.5498,9.697,2.6667,13.007,27.063,-1.561,13.008,-20.129,37.007999,13.007,27.063,7.2968,6.3492,16.444,-0.50794,9.0177,5.8615,-12.432,12.19,-8.5386,12.11
-0.12638,8.4211,2.6667,9.085,17.162001,-9.3659,9.7561,-23.365999,29.854,9.085,17.162001,1.99,9.5238,18.983999,3.3016,10.95,7.1498,-5.3462,16.0,0.0,12.11
3.6651,8.4211,3.9675,-0.71895,8.5809,-5.4634,9.1057,-25.306999,25.951,-0.71895,8.5809,3.3167,14.603,24.063,7.1111,13.527,8.438,12.689,8.381,6.5681,12.11
-3.2859,2.0415,0.06504,3.2026,19.802,-4.1626,6.5041,-25.955,34.407001,3.2026,19.802,2.6534,10.159,19.618999,0.7619,9.6618,1.3527,19.129999,9.0159,3.9409,14.686
