C3,C4,Cz,F1,F2,F3,F4,F7,F8,Fp1,Fp2,Fz,O1,O2,P3,P4,Pz,T3,T4,T5,T6
0.88468,-1.8413,-5.8537,0.0,3.9409,1.6911,0.0,0.90615,1.877,0.0,3.9409,-1.9608,0.0,0.88889,-3.7283,-2.8986,-4.7665,0.83736,-1.8413,1.9608,-4.9597
-0.06319,-0.88889,-6.8293,0.0,1.9704,-5.1382,-1.9324,-2.9773,-2.0065,0.0,1.9704,-4.902,3.8095,7.5556,-1.8325,1.9324,-0.90177,-3.9936,-2.7937,5.8824,5.6683
-2.9068,0.06349,-5.8537,-2.9412,-3.9409,-7.0894,-4.8309,-6.8608,-4.9191,-2.9412,-3.9409,-6.8627,2.8571,7.5556,0.06319,3.8647,0.06441,0.83736,-0.88889,5.8824,9.533
2.7804,6.7302,0.97561,-4.902,-0.98522,0.71545,-0.96618,-1.0356,-1.0356,-4.902,-0.98522,0.0,6.6667,11.365,8.594,9.6618,6.8277,8.5668,2.9206,11.765,21.127001
4.6761,4.8254,0.97561,-1.9608,-3.9409,1.6911,-2.8986,-2.0065,-2.0065,-1.9608,-3.9409,0.0,7.619,10.413,11.438,8.6957,7.7939,8.5668,0.06349,10.784,16.296
6.5719,4.8254,1.9512,1.9608,-1.9704,-1.2358,0.0,0.90615,-2.0065,1.9608,-1.9704,0.0,8.5714,8.5079,13.333,7.7295,9.7262,6.6345,1.0159,8.8235,15.33
1.8325,3.873,0.97561,-7.8431,-3.9409,-5.1382,0.0,-2.0065,-2.9773,-7.8431,-3.9409,-1.9608,4.7619,2.7937,8.594,4.8309,7.7939,0.83736,1.0159,1.9608,10.499
-0.06319,1.9683,0.97561,-4.902,-0.98522,-1.2358,2.8986,-3.9482,-3.9482,-4.902,-0.98522,1.9608,1.9048,-1.9683,4.8025,0.96618,3.9291,-1.095,-0.88889,-1.9608,-0.12882
1.8325,4.8254,4.878,9.8039,2.9557,4.6179,9.6618,0.90615,-0.06472,9.8039,2.9557,7.8431,0.0,0.88889,2.9068,1.9324,3.9291,-1.095,-2.7937,-3.9216,0.83736
-1.9589,2.9206,0.97561,10.784,1.9704,4.6179,9.6618,0.90615,2.8479,10.784,1.9704,6.8627,-6.6667,-4.8254,-5.624,-1.9324,-1.868,-4.9597,0.06349,-8.8235,-5.9259
-2.9068,1.0159,-0.97561,5.8824,2.9557,0.71545,3.8647,2.8479,2.8479,5.8824,2.9557,2.9412,-8.5714,-5.7778,-7.5197,-3.8647,-4.7665,-2.0612,0.06349,-8.8235,-9.7907
-3.8547,-0.88889,-0.97561,12.745,12.808,1.6911,3.8647,6.7314,5.7605,12.745,12.808,3.9216,-7.619,-4.8254,-10.363,-5.7971,-6.6989,-0.12882,-0.88889,-11.765,-5.9259
-11.438,-9.4603,-7.8049,5.8824,7.8818,-2.2114,-2.8986,0.90615,0.90615,5.8824,7.8818,-2.9412,-11.429,-8.6349,-19.841999,-13.527,-15.395,-10.757,-6.6032,-14.706,-11.723
-12.385,-10.413,-6.8293,1.9608,2.9557,-3.187,-4.8309,-2.0065,0.90615,1.9608,2.9557,-2.9412,-9.5238,-5.7778,-17.945999,-13.527,-15.395,-9.7907,-5.6508,-7.8431,-9.7907
-6.6983,-4.6984,-1.9512,4.902,5.9113,-0.26016,-0.96618,-1.0356,4.7896,4.902,5.9113,0.98039,-4.7619,-1.9683,-10.363,-6.7633,-8.6312,-3.9936,2.9206,0.0,0.83736
1.8325,-0.88889,1.9512,-0.98039,6.8966,4.6179,3.8647,0.90615,7.7023,-0.98039,6.8966,3.9216,2.8571,1.8413,1.9589,0.0,-0.90177,-0.12882,4.8254,9.8039,0.83736
6.5719,0.06349,3.9024,4.902,7.8818,3.6423,5.7971,1.877,6.7314,4.902,7.8818,3.9216,8.5714,1.8413,10.49,1.9324,4.8953,8.5668,1.0159,15.686,-2.0612
10.363,1.0159,5.8537,8.8235,8.867,4.6179,4.8309,5.7605,5.7605,8.8235,8.867,3.9216,12.381,1.8413,17.125,2.8986,9.7262,11.465,-0.88889,19.608,-3.9936
14.155,5.7778,8.7805,8.8235,11.823,8.5203,8.6957,7.7023,8.6731,8.8235,11.823,7.8431,11.429,1.8413,19.968,4.8309,12.625,14.364,2.9206,17.646999,-4.9597
11.311,7.6825,8.7805,11.765,11.823,5.5935,9.6618,6.7314,8.6731,11.765,11.823,8.8235,6.6667,-0.06349,17.125,3.8647,10.692,13.398,6.7302,12.745,-0.12882
2.7804,5.7778,2.9268,4.902,6.8966,-0.26016,9.6618,0.90615,5.7605,4.902,6.8966,7.8431,-1.9048,-11.492,4.8025,-4.8309,1.0306,7.6006,4.8254,1.9608,-6.8921
-8.594,1.9683,-4.878,-3.9216,2.9557,-6.1138,7.7295,-3.9482,6.7314,-3.9216,2.9557,3.9216,-14.286,-21.016001,-11.311,-12.56,-10.564,-3.0274,4.8254,-17.646999,-11.723
-12.385,1.9683,-7.8049,-2.9412,4.9261,-3.187,10.628,-2.0065,10.615,-2.9412,4.9261,4.902,-18.094999,-16.254,-17.945999,-12.56,-15.395,-7.8583,9.5873,-22.549,-3.0274
-16.177,-2.7937,-14.634,1.9608,6.8966,-1.2358,7.7295,-1.0356,8.6731,1.9608,6.8966,2.9412,-17.143,-16.254,-24.580999,-15.459,-20.225,-15.588,3.873,-28.431,-14.622
-15.229,-2.7937,-13.659,8.8235,10.837,-2.2114,4.8309,-0.06472,8.6731,8.8235,10.837,2.9412,-10.476,-9.5873,-20.790001,-10.628,-15.395,-14.622,2.9206,-26.471001,-17.52
-11.438,1.0159,-6.8293,0.98039,6.8966,-6.1138,0.96618,-2.9773,6.7314,0.98039,6.8966,0.98039,-0.95238,5.6508,-10.363,0.96618,-4.7665,-12.689,4.8254,-16.667,-4.9597
-10.49,-0.88889,-4.878,-3.9216,0.98522,-10.016,-4.8309,-8.8026,-0.06472,-3.9216,0.98522,-4.902,3.8095,8.5079,-5.624,5.7971,0.06441,-10.757,2.9206,-7.8431,2.7697
-4.8025,-2.7937,-2.9268,-8.8235,-5.9113,-10.016,-8.6957,-8.8026,-3.9482,-8.8235,-5.9113,-8.8235,7.619,8.5079,3.8547,7.7295,3.9291,0.83736,1.0159,7.8431,8.5668
-2.9068,-5.6508,-6.8293,-9.8039,-10.837,-9.0407,-12.56,-9.7735,-7.8317,-9.8039,-10.837,-13.725,9.5238,9.4603,7.6461,6.7633,4.8953,0.83736,-0.88889,12.745,10.499
-3.8547,-6.6032,-7.8049,-6.8627,-11.823,-11.967,-14.493,-8.8026,-11.715,-6.8627,-11.823,-15.686,9.5238,7.5556,9.5419,6.7633,5.8615,-4.9597,-2.7937,12.745,12.432
4.6761,0.06349,2.9268,-3.9216,-3.9409,-7.0894,-8.6957,-2.9773,-4.9191,-3.9216,-3.9409,-7.8431,13.333,13.27,16.177,13.527,13.591,5.6683,0.06349,18.627001,13.398
6.5719,2.9206,8.7805,-9.8039,-6.8966,-8.065,-6.7633,-4.9191,-3.9482,-9.8039,-6.8966,-6.8627,13.333,13.27,15.229,13.527,15.523,5.6683,1.0159,14.706,10.499
3.7283,1.9683,4.878,-8.8235,-11.823,-8.065,-9.6618,-5.89,-7.8317,-8.8235,-11.823,-9.8039,5.7143,4.6984,8.594,7.7295,7.7939,0.83736,0.06349,8.8235,9.533
2.7804,3.873,0.97561,0.98039,-4.9261,-3.187,-2.8986,1.877,-3.9482,0.98039,-4.9261,-6.8627,0.0,1.8413,1.9589,3.8647,1.9968,3.7359,1.9683,0.98039,13.398
0.88468,2.9206,-1.9512,1.9608,0.98522,2.6667,0.96618,5.7605,-0.06472,1.9608,0.98522,-2.9412,-8.5714,-6.7302,-4.6761,-1.9324,-4.7665,6.6345,1.9683,-6.8627,6.6345
3.7283,1.0159,2.9268,7.8431,10.837,11.447,6.7633,8.6731,3.8188,7.8431,10.837,7.8431,-14.286,-15.302,-10.363,-7.7295,-9.5974,0.83736,-0.88889,-9.8039,-4.9597
6.5719,1.9683,9.7561,14.706,14.778,17.301001,11.594,13.528,6.7314,14.706,14.778,16.667,-17.143,-16.254,-13.207,-8.6957,-10.564,1.8035,-1.8413,-11.765,-9.7907
6.5719,5.7778,12.683,18.627001,12.808,15.35,12.56,13.528,5.7605,18.627001,12.808,17.646999,-14.286,-10.54,-13.207,-4.8309,-7.6651,3.7359,0.06349,-12.745,-4.9597
4.6761,7.6825,8.7805,13.725,6.8966,10.472,11.594,9.644,5.7605,13.725,6.8966,14.706,-8.5714,-5.7778,-9.4155,-1.9324,-3.8003,2.7697,0.06349,-9.8039,-1.095
2.7804,6.7302,5.8537,14.706,8.867,9.4959,13.527,9.644,5.7605,14.706,8.867,12.745,-3.8095,-4.8254,-4.6761,-0.96618,0.06441,2.7697,1.0159,-7.8431,0.83736
5.624,3.873,5.8537,9.8039,11.823,10.472,10.628,13.528,6.7314,9.8039,11.823,10.784,5.7143,3.746,4.8025,2.8986,5.8615,5.6683,-0.88889,-1.9608,-2.0612
5.624,-0.88889,3.9024,9.8039,12.808,7.5447,6.7633,10.615,6.7314,9.8039,12.808,8.8235,14.286,8.5079,12.385,3.8647,10.692,2.7697,0.06349,5.8824,-3.9936
-0.06319,-4.6984,-1.9512,4.902,5.9113,-1.2358,0.0,2.8479,1.877,4.902,5.9113,0.98039,17.143,10.413,14.281,1.9324,8.7601,-0.12882,-0.88889,11.765,-2.0612
-8.594,-8.5079,-10.732,-5.8824,-5.9113,-11.967,-10.628,-5.89,-6.8608,-5.8824,-5.9113,-8.8235,14.286,7.5556,10.49,0.0,3.9291,0.83736,-3.746,14.706,3.7359
-11.438,-9.4603,-15.61,-3.9216,-8.867,-14.894,-12.56,-10.744,-9.7735,-3.9216,-8.867,-14.706,7.619,2.7937,6.6983,-2.8986,-1.868,0.83736,-1.8413,13.725,2.7697
-13.333,-15.175,-18.537001,-13.725,-12.808,-16.846001,-15.459,-13.657,-8.8026,-13.725,-12.808,-17.646999,0.0,-3.873,-1.8325,-9.6618,-8.6312,-3.0274,-4.6984,8.8235,-1.095
-7.6461,-16.127001,-13.659,-19.608,-10.837,-10.992,-13.527,-7.8317,-8.8026,-19.608,-10.837,-12.745,-2.8571,-8.6349,-4.6761,-10.628,-9.5974,2.7697,-9.4603,7.8431,-5.9259
-0.06319,-9.4603,-6.8293,-9.8039,-10.837,-3.187,-8.6957,-3.9482,-12.686,-9.8039,-10.837,-6.8627,-1.9048,-4.8254,-3.7283,-6.7633,-7.6651,4.7021,-9.4603,11.765,-2.0612
2.7804,-1.8413,-1.9512,-7.8431,-8.867,-0.26016,-3.8647,-0.06472,-12.686,-7.8431,-8.867,-2.9412,-5.7143,-5.7778,-4.6761,-3.8647,-6.6989,10.499,-7.5556,6.8627,-0.12882
9.4155,10.54,7.8049,1.9608,-1.9704,5.5935,2.8986,8.6731,-3.9482,1.9608,-1.9704,5.8824,-2.8571,-2.9206,-0.88468,4.8309,0.06441,14.364,-1.8413,1.9608,-1.095
12.259,16.254,12.683,5.8824,-2.9557,10.472,3.8647,4.7896,-2.9773,5.8824,-2.9557,9.8039,0.0,-1.0159,1.0111,8.6957,3.9291,9.533,1.0159,1.9608,-1.095
20.790001,20.063,22.438999,2.9412,0.0,17.301001,11.594,7.7023,-2.9773,2.9412,0.0,17.646999,9.5238,6.6032,11.438,15.459,12.625,16.296,1.0159,10.784,3.7359
29.320999,20.063,31.219999,8.8235,9.8522,26.080999,20.290001,17.410999,1.877,8.8235,9.8522,27.451,19.048,12.317,19.968,19.323999,21.32,16.296,-0.88889,16.667,5.6683
33.112,19.111,30.243999,15.686,12.808,30.959,21.256001,22.264999,7.7023,15.686,12.808,28.431,21.905001,19.937,25.656,21.256001,26.150999,15.33,-2.7937,18.627001,-1.095
28.372999,16.254,25.365999,16.667,12.808,27.056999,23.188,20.323999,6.7314,16.667,12.808,25.49,22.857,18.032,24.708,21.256001,26.150999,14.364,-1.8413,13.725,2.7697
16.051001,13.397,19.511999,14.706,11.823,18.275999,18.357,13.528,5.7605,14.706,11.823,20.587999,17.143,13.27,17.125,17.391001,19.388,3.7359,-1.8413,6.8627,-0.12882
8.4676,13.397,16.584999,16.667,11.823,12.423,15.459,9.644,6.7314,16.667,11.823,17.646999,16.190001,14.222,13.333,15.459,15.523,3.7359,-2.7937,7.8431,-2.0612
-0.06319,6.7302,7.8049,8.8235,5.9113,3.6423,8.6957,4.7896,3.8188,8.8235,5.9113,9.8039,12.381,10.413,6.6983,7.7295,6.8277,4.7021,-1.8413,6.8627,0.83736
-7.6461,-2.7937,-1.9512,3.9216,0.98522,-3.187,0.96618,-1.0356,-1.0356,3.9216,0.98522,0.98039,5.7143,4.6984,-0.88468,-1.9324,-2.8341,-1.095,-2.7937,5.8824,5.6683
-12.385,-14.222,-10.732,0.0,-3.9409,-8.065,-7.7295,-2.0065,-5.89,0.0,-3.9409,-6.8627,1.9048,0.88889,-5.624,-11.594,-10.564,-3.0274,-6.6032,5.8824,1.8035
-15.229,-27.556,-20.488001,-7.8431,-3.9409,-10.992,-19.323999,-3.9482,-10.744,-7.8431,-3.9409,-15.686,-4.7619,-4.8254,-10.363,-22.222,-18.292999,-3.0274,-9.4603,0.0,-4.9597
-19.021,-36.126999,-29.268,-16.667,-10.837,-16.846001,-28.986,-9.7735,-11.715,-16.667,-10.837,-24.51,-10.476,-9.5873,-14.155,-28.018999,-24.09,-2.0612,-9.4603,-4.902,-3.9936
-21.864,-37.078999,-33.171001,-16.667,-18.719,-18.797001,-31.884001,-15.599,-12.686,-16.667,-18.719,-29.412001,-17.143,-15.302,-20.790001,-29.952,-27.955,-5.9259,-6.6032,-12.745,-3.0274
-16.177,-27.556,-26.341,-19.608,-19.704,-19.771999,-25.121,-18.511,-10.744,-19.608,-19.704,-26.471001,-15.238,-9.5873,-18.893999,-20.290001,-22.158001,-8.8245,0.06349,-13.725,7.6006
-8.594,-16.127001,-16.584999,-13.725,-15.764,-17.820999,-17.391001,-16.57,-8.8026,-13.725,-15.764,-21.569,-11.429,-0.06349,-11.311,-8.6957,-13.462,-4.9597,2.9206,-8.8235,15.33
-2.9068,-10.413,-9.7561,-11.765,-12.808,-14.894,-16.424999,-11.715,-8.8026,-11.765,-12.808,-17.646999,-9.5238,-3.873,-6.5719,-3.8647,-8.6312,-3.9936,1.0159,-4.902,9.533
2.7804,-4.6984,-1.9512,-11.765,-9.8522,-8.065,-12.56,-4.9191,-5.89,-11.765,-9.8522,-9.8039,-4.7619,-1.0159,-3.7283,2.8986,-1.868,-5.9259,1.9683,-7.8431,2.7697
4.6761,2.9206,4.878,-5.8824,-7.8818,0.71545,-6.7633,-4.9191,-5.89,-5.8824,-7.8818,-1.9608,-0.95238,7.5556,-3.7283,10.628,2.963,-8.8245,3.873,-13.725,4.7021
6.5719,11.492,12.683,-1.9608,-1.9704,4.6179,2.8986,-2.9773,-0.06472,-1.9608,-1.9704,5.8824,4.7619,12.317,0.06319,19.323999,10.692,-5.9259,5.7778,-9.8039,6.6345
7.5197,18.159,19.511999,2.9412,3.9409,6.5691,10.628,-0.06472,5.7605,2.9412,3.9409,11.765,8.5714,14.222,3.8547,24.155001,15.523,-4.9597,8.6349,-4.902,11.465
9.4155,24.825001,25.365999,6.8627,4.9261,10.472,18.357,-1.0356,9.644,6.8627,4.9261,17.646999,10.476,16.127001,7.6461,27.052999,20.354,-6.8921,11.492,-1.9608,11.465
13.207,28.635,29.268,11.765,12.808,15.35,27.052999,2.8479,14.498,11.765,12.808,23.528999,11.429,15.175,10.49,28.018999,23.253,-5.9259,12.444,0.0,9.533
8.4676,23.872999,23.415001,6.8627,15.764,11.447,25.121,1.877,14.498,6.8627,15.764,21.569,7.619,10.413,6.6983,21.256001,16.49,-5.9259,9.5873,-3.9216,5.6683
2.7804,15.302,13.659,4.902,10.837,7.5447,22.222,0.90615,11.586,4.902,10.837,15.686,2.8571,7.5556,1.0111,11.594,8.7601,-4.9597,7.6825,-5.8824,4.7021
-0.06319,3.873,3.9024,9.8039,5.9113,5.5935,9.6618,4.7896,6.7314,9.8039,5.9113,6.8627,-1.9048,1.8413,-2.7804,-0.96618,0.06441,-3.9936,3.873,-4.902,4.7021
-8.594,-5.6508,-7.8049,6.8627,5.9113,-1.2358,0.0,-1.0356,4.7896,6.8627,5.9113,-0.98039,-8.5714,-6.7302,-10.363,-12.56,-10.564,-5.9259,2.9206,-9.8039,2.7697
-18.073,-13.27,-19.511999,0.98039,1.9704,-8.065,-4.8309,-6.8608,3.8188,0.98039,1.9704,-8.8235,-20.0,-19.111,-21.738001,-26.087,-24.09,-12.689,0.06349,-17.646999,-5.9259
-22.812,-16.127001,-25.365999,-5.8824,-1.9704,-17.820999,-8.6957,-10.744,2.8479,-5.8824,-1.9704,-15.686,-25.714001,-25.778,-25.528999,-30.917999,-29.886999,-15.588,1.0159,-18.627001,-3.0274
-19.968,-15.175,-23.415001,-1.9608,0.0,-17.820999,-8.6957,-11.715,1.877,-1.9608,0.0,-15.686,-24.761999,-25.778,-21.738001,-28.986,-26.023001,-7.8583,1.0159,-18.627001,-13.655
-17.125,-12.317,-18.537001,-2.9412,-1.9704,-12.943,-7.7295,-10.744,-2.0065,-2.9412,-1.9704,-14.706,-20.0,-18.159,-16.997999,-23.188,-19.259001,-4.9597,-3.746,-13.725,-17.52
-16.177,-14.222,-18.537001,-7.8431,-6.8966,-17.820999,-11.594,-10.744,-2.9773,-7.8431,-6.8966,-17.646999,-11.429,-14.349,-9.4155,-16.424999,-11.53,-7.8583,-4.6984,-1.9608,-12.689
-12.385,-10.413,-14.634,-11.765,-12.808,-16.846001,-18.357,-11.715,-2.9773,-11.765,-12.808,-20.587999,-2.8571,-3.873,-0.88468,-4.8309,-1.868,-7.8583,-1.8413,1.9608,-5.9259
-5.7504,-0.88889,-4.878,-15.686,-12.808,-14.894,-12.56,-12.686,-4.9191,-15.686,-12.808,-16.667,2.8571,3.746,3.8547,7.7295,7.7939,-13.655,1.0159,-2.9412,5.6683
6.5719,10.54,5.8537,-13.725,-10.837,-5.1382,-3.8647,-8.8026,-2.0065,-13.725,-10.837,-7.8431,9.5238,12.317,13.333,19.323999,18.422001,-6.8921,4.8254,5.8824,11.465
15.103,19.111,17.561001,-7.8431,-5.9113,5.5935,3.8647,-2.9773,-2.0065,-7.8431,-5.9113,1.9608,14.286,18.032,19.021,27.052999,26.150999,1.8035,3.873,8.8235,11.465
16.051001,23.872999,21.462999,-3.9216,-4.9261,6.5691,7.7295,-1.0356,-2.0065,-3.9216,-4.9261,7.8431,15.238,17.079,16.177,29.952,26.150999,-2.0612,5.7778,5.8824,12.432
19.841999,29.587,26.341,5.8824,4.9261,10.472,14.493,0.90615,3.8188,5.8824,4.9261,16.667,16.190001,21.841,18.073,31.884001,27.118,6.6345,10.54,9.8039,20.160999
17.945999,27.683001,26.341,2.9412,10.837,14.374,22.222,0.90615,9.644,2.9412,10.837,22.549,9.5238,14.222,8.594,25.121,19.388,2.7697,8.6349,0.0,9.533
11.311,20.063,20.488001,6.8627,10.837,14.374,20.290001,-0.06472,13.528,6.8627,10.837,22.549,-1.9048,3.746,-5.624,13.527,6.8277,-6.8921,9.5873,-9.8039,0.83736
12.259,17.205999,18.537001,13.725,12.808,15.35,19.323999,4.7896,16.440001,13.725,12.808,22.549,-7.619,-3.873,-8.4676,7.7295,1.0306,-3.9936,11.492,-9.8039,1.8035
15.103,17.205999,18.537001,12.745,13.793,19.252001,22.222,9.644,14.498,12.745,13.793,24.51,-8.5714,-7.6825,-3.7283,5.7971,1.0306,-0.12882,9.5873,-4.902,-1.095
16.051001,16.254,17.561001,12.745,15.764,21.202999,21.256001,11.586,13.528,12.745,15.764,25.49,-3.8095,-4.8254,2.9068,4.8309,2.963,2.7697,8.6349,0.98039,2.7697
12.259,7.6825,11.707,10.784,14.778,20.228001,15.459,10.615,9.644,10.784,14.778,21.569,-3.8095,-6.7302,4.8025,-0.96618,1.0306,8.5668,4.8254,2.9412,4.7021
7.5197,-4.6984,2.9268,12.745,8.867,15.35,7.7295,9.644,6.7314,12.745,8.867,12.745,-3.8095,-8.6349,5.7504,-8.6957,-2.8341,12.432,-0.88889,5.8824,-3.0274
3.7283,-12.317,-4.878,8.8235,2.9557,8.5203,-0.96618,10.615,3.8188,8.8235,2.9557,1.9608,-2.8571,-10.54,7.6461,-12.56,-2.8341,11.465,-3.746,5.8824,-7.8583
1.8325,-14.222,-7.8049,13.725,-0.98522,3.6423,-5.7971,8.6731,-0.06472,13.725,-0.98522,-4.902,1.9048,-6.7302,11.438,-11.594,1.0306,7.6006,-4.6984,9.8039,-5.9259
-4.8025,-18.032,-12.683,-0.98039,-7.8818,-7.0894,-14.493,-0.06472,-5.89,-0.98039,-7.8818,-15.686,5.7143,-2.9206,13.333,-10.628,2.963,10.499,-6.6032,10.784,-5.9259
-6.6983,-18.983999,-15.61,-10.784,-7.8818,-13.919,-18.357,-2.9773,-5.89,-10.784,-7.8818,-20.587999,10.476,0.88889,13.333,-8.6957,3.9291,8.5668,-6.6032,14.706,-6.8921
-6.6983,-19.937,-18.537001,-5.8824,-2.9557,-14.894,-19.323999,-5.89,-2.9773,-5.8824,-2.9557,-21.569,7.619,0.88889,9.5419,-9.6618,1.0306,3.7359,-4.6984,11.765,-8.8245
-9.5419,-21.841,-20.488001,-3.9216,0.0,-16.846001,-18.357,-8.8026,-2.9773,-3.9216,0.0,-20.587999,4.7619,-2.9206,2.9068,-13.527,-4.7665,-1.095,-4.6984,7.8431,-11.723
-14.281,-19.937,-22.438999,-2.9412,-1.9704,-19.771999,-19.323999,-16.57,-2.9773,-2.9412,-1.9704,-22.549,0.0,-6.7302,-7.5197,-14.493,-11.53,-9.7907,-0.88889,1.9608,-6.8921
-16.177,-13.27,-19.511999,-1.9608,-3.9409,-17.820999,-17.391001,-15.599,-5.89,-1.9608,-3.9409,-20.587999,-6.6667,-7.6825,-15.103,-11.594,-15.395,-10.757,1.9683,-7.8431,-4.9597
-12.385,-4.6984,-13.659,4.902,0.0,-10.016,-11.594,-8.8026,-4.9191,4.902,0.0,-13.725,-13.333,-9.5873,-19.841999,-8.6957,-17.327,-7.8583,5.7778,-11.765,1.8035
-3.8547,1.0159,-4.878,24.51,15.764,3.6423,0.0,3.8188,5.7605,24.51,15.764,0.0,-13.333,-5.7778,-21.738001,-3.8647,-14.428,-7.8583,5.7778,-19.608,1.8035
7.5197,4.8254,5.8537,42.157001,25.615999,16.325001,8.6957,13.528,8.6731,42.157001,25.615999,11.765,-8.5714,-2.9206,-14.155,0.0,-6.6989,-3.0274,3.873,-18.627001,-7.8583
19.841999,13.397,17.561001,50.0,35.467999,27.056999,20.290001,20.323999,13.528,50.0,35.467999,23.528999,0.95238,3.746,1.0111,10.628,5.8615,4.7021,3.873,-5.8824,-2.0612
20.790001,21.016001,23.415001,40.195999,37.438,27.056999,26.087,22.264999,15.469,40.195999,37.438,27.451,5.7143,10.413,9.5419,18.357,14.557,8.5668,6.7302,0.98039,8.5668
12.259,21.968,20.488001,26.471001,27.586,21.202999,22.222,14.498,7.7023,26.471001,27.586,24.51,0.95238,9.4603,5.7504,17.391001,11.659,10.499,7.6825,0.98039,11.465
4.6761,21.016001,15.61,24.51,20.690001,16.325001,18.357,8.6731,3.8188,24.51,20.690001,19.608,1.9048,10.413,2.9068,17.391001,9.7262,4.7021,5.7778,3.9216,11.465
-1.9589,16.254,7.8049,17.646999,11.823,6.5691,11.594,2.8479,-2.0065,17.646999,11.823,10.784,6.6667,10.413,2.9068,15.459,7.7939,0.83736,1.0159,8.8235,7.6006
-8.594,7.6825,0.0,2.9412,-4.9261,-7.0894,2.8986,-3.9482,-6.8608,2.9412,-4.9261,-0.98039,9.5238,10.413,3.8547,10.628,4.8953,-1.095,0.06349,10.784,10.499
-16.177,-6.6032,-11.707,-14.706,-12.808,-18.797001,-7.7295,-10.744,-10.744,-14.706,-12.808,-12.745,5.7143,2.7937,1.9589,-2.8986,-4.7665,-1.095,-4.6984,13.725,4.7021
-20.916,-18.032,-22.438999,-18.627001,-14.778,-20.747999,-14.493,-11.715,-9.7735,-18.627001,-14.778,-19.608,2.8571,-2.9206,-2.7804,-16.424999,-13.462,-1.095,-4.6984,12.745,2.7697
-20.916,-26.603001,-31.219999,-15.686,-15.764,-16.846001,-18.357,-4.9191,-8.8026,-15.686,-15.764,-23.528999,-0.95238,-10.54,-10.363,-27.052999,-22.158001,-0.12882,-4.6984,7.8431,-4.9597
-15.229,-28.507999,-32.195,-14.706,-12.808,-13.919,-17.391001,-1.0356,-8.8026,-14.706,-12.808,-21.569,-6.6667,-16.254,-13.207,-30.917999,-25.056,0.83736,-8.5079,2.9412,-15.588
-13.333,-26.603001,-29.268,-15.686,-20.690001,-15.87,-21.256001,-2.9773,-10.744,-15.686,-20.690001,-22.549,-14.286,-19.111,-19.841999,-28.986,-26.989,-5.9259,-9.4603,-12.745,-19.452
-4.8025,-14.222,-16.584999,-12.745,-19.704,-9.0407,-16.424999,3.8188,-7.8317,-12.745,-19.704,-15.686,-11.429,-16.254,-13.207,-17.391001,-17.327,-3.9936,-9.4603,-11.765,-16.554001
0.88468,-1.8413,-4.878,-7.8431,-13.793,-0.26016,-9.6618,7.7023,-4.9191,-7.8431,-13.793,-7.8431,-4.7619,-9.5873,-5.624,-4.8309,-7.6651,2.7697,-6.6032,-5.8824,-10.757
3.7283,9.5873,4.878,-0.98039,-4.9261,4.6179,-2.8986,8.6731,-3.9482,-0.98039,-4.9261,-0.98039,-0.95238,-1.0159,-1.8325,8.6957,1.9968,4.7021,0.06349,-6.8627,1.8035
12.259,20.063,16.584999,6.8627,0.98522,11.447,5.7971,8.6731,2.8479,6.8627,0.98522,8.8235,4.7619,8.5079,6.6983,20.290001,12.625,8.5668,4.8254,-1.9608,4.7021
14.155,24.825001,22.438999,9.8039,8.867,12.423,13.527,4.7896,5.7605,9.8039,8.867,15.686,6.6667,13.27,9.5419,26.087,18.422001,1.8035,7.6825,-3.9216,6.6345
16.997999,26.73,27.316999,11.765,13.793,12.423,17.391001,0.90615,8.6731,11.765,13.793,18.627001,11.429,17.079,15.229,28.986,24.219,-3.9936,8.6349,3.9216,10.499
20.790001,28.635,32.195,18.627001,23.645,14.374,25.121,0.90615,16.440001,18.627001,23.645,24.51,19.048,22.794001,22.812,31.884001,30.016001,3.7359,12.444,13.725,13.398
19.841999,31.492001,36.098,16.667,27.586,14.374,27.052999,-0.06472,18.382,16.667,27.586,27.451,21.905001,25.650999,23.76,31.884001,30.982,6.6345,16.254,16.667,20.160999
16.997999,30.540001,34.146,15.686,25.615999,19.252001,28.018999,-3.9482,15.469,15.686,25.615999,29.412001,19.048,21.841,19.021,27.052999,27.118,6.6345,11.492,10.784,14.364
16.997999,22.921,29.268,15.686,21.674999,25.106001,28.018999,-0.06472,13.528,15.686,21.674999,31.372999,17.143,14.222,14.281,17.391001,19.388,7.6006,7.6825,9.8039,9.533
12.259,8.6349,16.584999,3.9216,11.823,15.35,22.222,4.7896,7.7023,3.9216,11.823,23.528999,7.619,3.746,6.6983,2.8986,6.8277,8.5668,2.9206,5.8824,8.5668
-0.06319,-7.5556,1.9512,-1.9608,4.9261,-0.26016,8.6957,4.7896,3.8188,-1.9608,4.9261,9.8039,-0.95238,-7.6825,-5.624,-12.56,-6.6989,-0.12882,-3.746,-0.98039,-3.0274
-11.438,-14.222,-9.7561,-6.8627,-2.9557,-9.0407,1.9324,-0.06472,1.877,-6.8627,-2.9557,-1.9608,-9.5238,-16.254,-14.155,-19.323999,-15.395,-4.9597,-4.6984,-4.902,-9.7907
-20.916,-18.032,-22.438999,-17.646999,-9.8522,-16.846001,-8.6957,-5.89,-4.9191,-17.646999,-9.8522,-11.765,-20.952,-26.73,-23.632999,-26.087,-25.056,-5.9259,-7.5556,-11.765,-14.622
-19.968,-18.983999,-24.389999,-8.8235,-11.823,-15.87,-13.527,-2.0065,-6.8608,-8.8235,-11.823,-14.706,-22.857,-27.683001,-22.686001,-26.087,-25.056,-1.095,-9.4603,-12.745,-23.316999
-10.49,-16.127001,-18.537001,-10.784,-14.778,-10.992,-11.594,1.877,-5.89,-10.784,-14.778,-13.725,-14.286,-20.063,-13.207,-19.323999,-17.327,3.7359,-8.5079,-7.8431,-20.419001
-1.0111,-12.317,-10.732,-18.627001,-17.733999,-8.065,-14.493,2.8479,-5.89,-18.627001,-17.733999,-12.745,-4.7619,-7.6825,-3.7283,-9.6618,-6.6989,2.7697,-7.5556,-2.9412,-13.655
7.5197,-4.6984,-3.9024,-14.706,-15.764,-4.1626,-10.628,3.8188,-6.8608,-14.706,-15.764,-8.8235,2.8571,2.7937,5.7504,0.0,2.963,1.8035,-5.6508,-0.98039,-4.9597
10.363,2.9206,0.97561,-17.646999,-12.808,-2.2114,-6.7633,1.877,-6.8608,-17.646999,-12.808,-4.902,9.5238,9.4603,10.49,6.7633,9.7262,0.83736,-5.6508,0.98039,-0.12882
10.363,9.5873,6.8293,-17.646999,-16.749001,-1.2358,-2.8986,-3.9482,-6.8608,-17.646999,-16.749001,-1.9608,16.190001,18.032,14.281,13.527,15.523,-3.0274,-1.8413,4.902,11.465
8.4676,10.54,10.732,-15.686,-13.793,-0.26016,-0.96618,-4.9191,-6.8608,-15.686,-13.793,1.9608,19.048,19.937,15.229,15.459,17.455999,-4.9597,-0.88889,8.8235,15.33
11.311,5.7778,13.659,-9.8039,-7.8818,5.5935,0.96618,-5.89,-8.8026,-9.8039,-7.8818,7.8431,19.048,16.127001,16.177,9.6618,15.523,0.83736,-3.746,15.686,12.432
17.945999,3.873,19.511999,0.98039,0.0,15.35,9.6618,1.877,-2.9773,0.98039,0.0,18.627001,18.094999,12.317,16.177,5.7971,14.557,10.499,-5.6508,17.646999,8.5668
14.155,0.06349,15.61,-6.8627,-3.9409,14.374,7.7295,1.877,-2.9773,-6.8627,-3.9409,16.667,11.429,5.6508,5.7504,-1.9324,5.8615,6.6345,-7.5556,11.765,3.7359
8.4676,-0.88889,7.8049,-12.745,-12.808,10.472,-1.9324,4.7896,-8.8026,-12.745,-12.808,6.8627,5.7143,4.6984,-1.8325,-4.8309,-0.90177,8.5668,-7.5556,9.8039,1.8035
2.7804,0.06349,1.9512,-10.784,-19.704,2.6667,-8.6957,8.6731,-11.715,-10.784,-19.704,-1.9608,5.7143,4.6984,-4.6761,-1.9324,-1.868,8.5668,-6.6032,7.8431,4.7021
-5.7504,-4.6984,-6.8293,-16.667,-25.615999,-8.065,-15.459,0.90615,-14.628,-16.667,-25.615999,-11.765,3.8095,2.7937,-8.4676,-1.9324,-3.8003,1.8035,-6.6032,2.9412,3.7359
-13.333,-7.5556,-10.732,-20.587999,-24.631001,-16.846001,-17.391001,-5.89,-13.657,-20.587999,-24.631001,-16.667,4.7619,5.6508,-7.5197,0.96618,-2.8341,-2.0612,-3.746,0.98039,5.6683
-15.229,-8.5079,-7.8049,-17.646999,-16.749001,-18.797001,-13.527,-5.89,-9.7735,-17.646999,-16.749001,-14.706,5.7143,8.5079,-1.8325,3.8647,1.9968,-1.095,0.06349,5.8824,3.7359
-11.438,-10.413,-5.8537,-15.686,-12.808,-16.846001,-12.56,-9.7735,-7.8317,-15.686,-12.808,-12.745,7.619,8.5079,2.9068,4.8309,3.9291,-0.12882,-1.8413,5.8824,0.83736
-3.8547,-5.6508,-2.9268,-11.765,-7.8818,-13.919,-9.6618,-12.686,-5.89,-11.765,-7.8818,-11.765,11.429,10.413,8.594,8.6957,7.7939,-2.0612,0.06349,6.8627,3.7359
4.6761,1.0159,0.0,-5.8824,-9.8522,-9.0407,-9.6618,-9.7735,-6.8608,-5.8824,-9.8522,-11.765,16.190001,16.127001,17.125,15.459,14.557,3.7359,2.9206,12.745,11.465
10.363,1.9683,1.9512,-9.8039,-4.9261,-3.187,-6.7633,-5.89,-4.9191,-9.8039,-4.9261,-6.8627,14.286,14.222,21.864,14.493,16.49,3.7359,2.9206,12.745,4.7021
4.6761,-3.746,-1.9512,-5.8824,-0.98522,-2.2114,-4.8309,-3.9482,-0.06472,-5.8824,-0.98522,-3.9216,5.7143,3.746,11.438,2.8986,6.8277,-2.0612,0.06349,1.9608,-0.12882
-2.9068,-8.5079,-5.8537,-1.9608,0.98522,-4.1626,-3.8647,-4.9191,-1.0356,-1.9608,0.98522,-1.9608,1.9048,-0.06349,2.9068,-3.8647,-0.90177,-4.9597,-0.88889,0.0,-3.0274
-2.9068,-4.6984,-2.9268,-6.8627,-2.9557,-3.187,0.0,-4.9191,-2.0065,-6.8627,-2.9557,0.0,0.95238,-0.06349,1.9589,-1.9324,-0.90177,-3.9936,-0.88889,1.9608,0.83736
-1.9589,-2.7937,-0.97561,-6.8627,-5.9113,-2.2114,-1.9324,-7.8317,-2.9773,-6.8627,-5.9113,-0.98039,-1.9048,-2.9206,0.06319,0.0,0.06441,-3.9936,-0.88889,-3.9216,2.7697
-1.9589,-1.8413,-1.9512,-9.8039,-10.837,-5.1382,-4.8309,-7.8317,-2.0065,-9.8039,-10.837,-3.9216,-2.8571,-3.873,-1.8325,-0.96618,-0.90177,-4.9597,-1.8413,-4.902,-4.9597
-4.8025,-0.88889,-2.9268,-11.765,-13.793,-8.065,-6.7633,-4.9191,-2.9773,-11.765,-13.793,-7.8431,-1.9048,0.88889,-5.624,0.0,-1.868,-5.9259,-0.88889,-3.9216,-3.9936
-6.6983,-0.88889,-3.9024,-27.451,-16.749001,-10.016,-6.7633,-10.744,-0.06472,-27.451,-16.749001,-11.765,-2.8571,0.88889,-6.5719,0.0,-2.8341,-4.9597,1.9683,-5.8824,4.7021
-7.6461,-3.746,-4.878,-36.275002,-22.66,-14.894,-7.7295,-13.657,-1.0356,-36.275002,-22.66,-15.686,-4.7619,-1.0159,-9.4155,-1.9324,-3.8003,-11.723,0.06349,-12.745,-3.0274
-1.9589,-2.7937,0.0,-21.569,-16.749001,-10.992,-4.8309,-4.9191,-0.06472,-21.569,-16.749001,-12.745,-2.8571,-0.06349,-6.5719,-0.96618,0.06441,-10.757,-1.8413,-13.725,-6.8921
2.7804,-0.88889,1.9512,-20.587999,-15.764,-8.065,-2.8986,-1.0356,2.8479,-20.587999,-15.764,-10.784,-2.8571,-1.0159,-3.7283,0.0,1.0306,-4.9597,-1.8413,-9.8039,-7.8583
0.88468,0.06349,-1.9512,-25.49,-17.733999,-8.065,-4.8309,-3.9482,-0.06472,-25.49,-17.733999,-11.765,-7.619,-1.0159,-4.6761,0.0,-0.90177,-0.12882,1.9683,-10.784,0.83736
-7.6461,-3.746,-8.7805,-24.51,-16.749001,-10.992,-7.7295,-5.89,-2.9773,-24.51,-16.749001,-13.725,-10.476,-1.0159,-10.363,-3.8647,-6.6989,-7.8583,-1.8413,-9.8039,1.8035
-18.073,-11.365,-15.61,-18.627001,-12.808,-17.820999,-6.7633,-5.89,-3.9482,-18.627001,-12.808,-13.725,-17.143,-11.492,-18.893999,-14.493,-16.361,-13.655,-4.6984,-16.667,-6.8921
-23.76,-20.889,-19.511999,-18.627001,-19.704,-20.747999,-12.56,-3.9482,-6.8608,-18.627001,-19.704,-16.667,-21.905001,-17.205999,-20.790001,-23.188,-23.124001,-8.8245,-7.5556,-13.725,-15.588
-22.812,-24.698,-20.488001,-29.412001,-22.66,-20.747999,-13.527,-8.8026,-9.7735,-29.412001,-22.66,-18.627001,-19.048,-18.159,-18.893999,-23.188,-23.124001,-3.9936,-9.4603,-12.745,-13.655
-12.385,-17.079,-12.683,-20.587999,-19.704,-12.943,-12.56,-4.9191,-4.9191,-20.587999,-19.704,-12.745,-12.381,-13.397,-11.311,-13.527,-15.395,0.83736,-3.746,-8.8235,-5.9259
-6.6983,-11.365,-8.7805,-15.686,-17.733999,-10.016,-15.459,-1.0356,-6.8608,-15.686,-17.733999,-10.784,-8.5714,-8.6349,-5.624,-7.7295,-10.564,-0.12882,-2.7937,-2.9412,1.8035
-2.9068,-8.5079,-7.8049,-12.745,-13.793,-7.0894,-15.459,3.8188,-4.9191,-12.745,-13.793,-9.8039,-4.7619,-5.7778,1.0111,-3.8647,-5.7327,2.7697,-3.746,3.9216,-1.095
1.8325,-6.6032,-3.9024,-5.8824,-8.867,0.71545,-10.628,8.6731,-1.0356,-5.8824,-8.867,-5.8824,2.8571,-1.9683,8.594,0.0,1.0306,7.6006,-1.8413,12.745,-3.0274
-2.9068,-10.413,-6.8293,-8.8235,-7.8818,-3.187,-10.628,2.8479,-2.9773,-8.8235,-7.8818,-7.8431,1.9048,-2.9206,5.7504,-3.8647,-0.90177,0.83736,-2.7937,8.8235,-3.9936
-4.8025,-9.4603,-5.8537,-3.9216,-2.9557,-6.1138,-7.7295,-2.0065,0.90615,-3.9216,-2.9557,-5.8824,-1.9048,-3.873,0.06319,-3.8647,-2.8341,-3.9936,-0.88889,0.0,-3.0274
-8.594,-6.6032,-5.8537,-3.9216,-5.9113,-9.0407,-6.7633,-7.8317,0.90615,-3.9216,-5.9113,-7.8431,-7.619,-4.8254,-6.5719,-4.8309,-6.6989,-10.757,1.9683,-6.8627,-1.095
-6.6983,-1.8413,-4.878,-2.9412,-4.9261,-6.1138,-3.8647,-7.8317,1.877,-2.9412,-4.9261,-4.902,-8.5714,-3.873,-8.4676,-3.8647,-6.6989,-10.757,5.7778,-10.784,0.83736
-9.5419,-3.746,-7.8049,-5.8824,-3.9409,-4.1626,-1.9324,-8.8026,2.8479,-5.8824,-3.9409,-4.902,-12.381,-6.7302,-13.207,-7.7295,-11.53,-12.689,4.8254,-13.725,-0.12882
-9.5419,-7.5556,-7.8049,-9.8039,-3.9409,1.6911,-1.9324,-4.9191,0.90615,-9.8039,-3.9409,-3.9216,-13.333,-6.7302,-13.207,-10.628,-12.496,-11.723,1.9683,-10.784,-1.095
-2.9068,-9.4603,-3.9024,-1.9608,-1.9704,4.6179,-1.9324,1.877,-0.06472,-1.9608,-1.9704,-1.9608,-9.5238,-4.8254,-7.5197,-9.6618,-9.5974,-4.9597,1.9683,-9.8039,2.7697
-2.9068,-7.5556,-4.878,-0.98039,-2.9557,-0.26016,-2.8986,-1.0356,-1.0356,-0.98039,-2.9557,-4.902,-7.619,-1.9683,-2.7804,-6.7633,-5.7327,-3.0274,1.9683,-5.8824,8.5668
-4.8025,-2.7937,-6.8293,2.9412,-0.98522,-7.0894,0.0,-2.9773,-1.0356,2.9412,-0.98522,-6.8627,-4.7619,-1.0159,1.0111,-3.8647,-3.8003,-0.12882,2.9206,0.0,2.7697
-5.7504,2.9206,-4.878,0.98039,2.9557,-6.1138,1.9324,-2.0065,1.877,0.98039,2.9557,-5.8824,5.7143,5.6508,3.8547,2.8986,1.0306,3.7359,-0.88889,7.8431,0.83736
-6.6983,2.9206,-3.9024,-5.8824,0.0,-6.1138,1.9324,-3.9482,-0.06472,-5.8824,0.0,-6.8627,10.476,9.4603,4.8025,6.7633,2.963,4.7021,-1.8413,12.745,2.7697
-4.8025,1.0159,-1.9512,1.9608,1.9704,-6.1138,-0.96618,0.90615,0.90615,1.9608,1.9704,-5.8824,8.5714,10.413,6.6983,7.7295,4.8953,4.7021,-1.8413,10.784,1.8035
-1.0111,0.06349,0.97561,9.8039,4.9261,-3.187,-0.96618,5.7605,0.90615,9.8039,4.9261,-3.9216,9.5238,9.4603,7.6461,6.7633,4.8953,6.6345,-2.7937,8.8235,0.83736
-1.9589,-0.88889,-0.97561,6.8627,5.9113,-2.2114,0.0,4.7896,-0.06472,6.8627,5.9113,-4.902,5.7143,5.6508,4.8025,3.8647,2.963,0.83736,-0.88889,2.9412,3.7359
-1.0111,1.0159,0.97561,2.9412,5.9113,-0.26016,1.9324,4.7896,0.90615,2.9412,5.9113,-2.9412,5.7143,4.6984,3.8547,3.8647,1.9968,5.6683,0.06349,3.9216,1.8035
-2.9068,1.9683,0.97561,-2.9412,0.98522,0.71545,0.96618,3.8188,0.90615,-2.9412,0.98522,-1.9608,1.9048,0.88889,1.0111,3.8647,0.06441,8.5668,1.9683,2.9412,3.7359
-3.8547,1.0159,0.0,2.9412,4.9261,0.71545,2.8986,0.90615,1.877,2.9412,4.9261,1.9608,-2.8571,-1.0159,-3.7283,0.96618,-2.8341,2.7697,3.873,-2.9412,-2.0612
-4.8025,-2.7937,-0.97561,7.8431,5.9113,1.6911,3.8647,-4.9191,-0.06472,7.8431,5.9113,4.902,-3.8095,-6.7302,-2.7804,-3.8647,-3.8003,1.8035,0.06349,-3.9216,-9.7907
-2.9068,-4.6984,-0.97561,13.725,6.8966,2.6667,3.8647,-6.8608,-0.06472,13.725,6.8966,5.8824,-5.7143,-6.7302,-3.7283,-4.8309,-3.8003,-3.9936,1.0159,-5.8824,-5.9259
2.7804,1.0159,2.9268,5.8824,7.8818,5.5935,3.8647,-5.89,3.8188,5.8824,7.8818,5.8824,-0.95238,1.8413,1.9589,1.9324,1.0306,-0.12882,6.7302,-1.9608,5.6683
7.5197,7.6825,7.8049,0.98039,10.837,6.5691,8.6957,-1.0356,6.7314,0.98039,10.837,8.8235,6.6667,4.6984,9.5419,7.7295,7.7939,1.8035,6.7302,4.902,2.7697
9.4155,8.6349,9.7561,8.8235,10.837,4.6179,10.628,-0.06472,3.8188,8.8235,10.837,7.8431,9.5238,3.746,12.385,7.7295,10.692,1.8035,1.9683,10.784,-4.9597
14.155,11.492,11.707,10.784,5.9113,10.472,9.6618,0.90615,0.90615,10.784,5.9113,7.8431,12.381,11.365,18.073,12.56,14.557,3.7359,1.9683,16.667,1.8035
16.051001,12.444,13.659,13.725,5.9113,8.5203,8.6957,0.90615,1.877,13.725,5.9113,7.8431,16.190001,17.079,19.968,16.424999,17.455999,3.7359,4.8254,14.706,11.465
14.155,11.492,14.634,20.587999,6.8966,5.5935,6.7633,4.7896,0.90615,20.587999,6.8966,6.8627,18.094999,18.983999,20.916,17.391001,18.422001,8.5668,2.9206,17.646999,12.432
10.363,9.5873,11.707,10.784,4.9261,4.6179,3.8647,3.8188,-1.0356,10.784,4.9261,4.902,14.286,15.175,15.229,13.527,14.557,5.6683,0.06349,10.784,5.6683
7.5197,8.6349,6.8293,0.98039,0.98522,1.6911,0.0,1.877,-0.06472,0.98039,0.98522,0.98039,9.5238,11.365,11.438,11.594,9.7262,-0.12882,0.06349,6.8627,5.6683
6.5719,9.5873,5.8537,3.9216,3.9409,2.6667,3.8647,5.7605,2.8479,3.9216,3.9409,1.9608,7.619,6.6032,9.5419,10.628,7.7939,6.6345,3.873,4.902,7.6006
-1.9589,1.9683,-1.9512,6.8627,5.9113,1.6911,1.9324,7.7023,2.8479,6.8627,5.9113,0.0,-0.95238,-2.9206,-0.88468,0.96618,-1.868,3.7359,1.0159,-1.9608,-2.0612
-3.8547,-0.88889,-1.9512,-0.98039,0.98522,5.5935,5.7971,6.7314,1.877,-0.98039,0.98522,4.902,-4.7619,-6.7302,-5.624,-5.7971,-6.6989,1.8035,-0.88889,-0.98039,-4.9597
-5.7504,-3.746,-1.9512,13.725,10.837,7.5447,11.594,8.6731,8.6731,13.725,10.837,10.784,-11.429,-14.349,-10.363,-10.628,-11.53,1.8035,0.06349,-5.8824,-7.8583
-3.8547,-0.88889,1.9512,29.412001,23.645,8.5203,17.391001,5.7605,13.528,29.412001,23.645,15.686,-10.476,-9.5873,-9.4155,-7.7295,-9.5974,-3.9936,2.9206,-9.8039,-2.0612
4.6761,11.492,10.732,34.313999,33.498001,15.35,25.121,8.6731,20.323999,34.313999,33.498001,21.569,-3.8095,-0.06349,-0.88468,4.8309,1.0306,-1.095,10.54,-5.8824,9.533
9.4155,18.159,11.707,43.137001,44.334999,17.301001,26.087,7.7023,23.236,43.137001,44.334999,22.549,0.95238,7.5556,6.6983,13.527,8.7601,5.6683,14.349,-0.98039,10.499
11.311,18.159,11.707,35.293999,35.467999,16.325001,21.256001,3.8188,17.410999,35.293999,35.467999,19.608,5.7143,8.5079,12.385,14.493,11.659,6.6345,12.444,6.8627,2.7697
15.103,19.111,17.561001,27.451,27.586,17.301001,22.222,-0.06472,16.440001,27.451,27.586,20.587999,10.476,10.413,16.177,16.424999,16.49,6.6345,10.54,6.8627,4.7021
20.790001,18.159,23.415001,22.549,23.645,13.398,18.357,0.90615,15.469,22.549,23.645,20.587999,13.333,15.175,20.916,17.391001,20.354,13.398,10.54,7.8431,6.6345
16.051001,10.54,17.561001,9.8039,11.823,7.5447,7.7295,1.877,8.6731,9.8039,11.823,13.725,11.429,11.365,14.281,11.594,13.591,7.6006,5.7778,3.9216,5.6683
3.7283,3.873,4.878,-2.9412,-4.9261,-0.26016,-3.8647,-4.9191,0.90615,-2.9412,-4.9261,1.9608,5.7143,4.6984,1.0111,3.8647,3.9291,-4.9597,1.0159,-0.98039,3.7359
-2.9068,-3.746,-6.8293,-13.725,-22.66,-6.1138,-10.628,-2.9773,-2.0065,-13.725,-22.66,-7.8431,0.95238,-1.9683,-2.7804,-4.8309,-4.7665,-3.9936,-2.7937,1.9608,-3.9936
-4.8025,-8.5079,-10.732,-19.608,-28.570999,-5.1382,-8.6957,-0.06472,-0.06472,-19.608,-28.570999,-9.8039,-3.8095,-6.7302,-5.624,-11.594,-10.564,-1.095,-2.7937,2.9412,-4.9597
-8.594,-13.27,-13.659,-19.608,-33.498001,-7.0894,-12.56,-0.06472,-3.9482,-19.608,-33.498001,-12.745,-9.5238,-14.349,-11.311,-18.357,-16.361,-2.0612,-5.6508,-3.9216,-6.8921
-11.438,-17.079,-15.61,-29.412001,-36.452999,-10.992,-14.493,-4.9191,-6.8608,-29.412001,-36.452999,-15.686,-15.238,-20.063,-15.103,-22.222,-19.259001,-6.8921,-7.5556,-8.8235,-10.757
-12.385,-15.175,-13.659,-37.255001,-39.409,-12.943,-14.493,-8.8026,-6.8608,-37.255001,-39.409,-15.686,-17.143,-20.063,-14.155,-18.357,-18.292999,-5.9259,-3.746,-7.8431,-12.689
-8.594,-5.6508,-7.8049,-24.51,-35.467999,-8.065,-8.6957,-4.9191,-4.9191,-24.51,-35.467999,-9.8039,-14.286,-14.349,-11.311,-9.6618,-12.496,-5.9259,0.06349,-7.8431,-12.689
-8.594,1.0159,-6.8293,-23.528999,-27.586,-7.0894,-5.7971,-2.0065,-2.0065,-23.528999,-27.586,-7.8431,-10.476,-6.7302,-11.311,-3.8647,-9.5974,-4.9597,0.06349,-5.8824,-7.8583
-9.5419,-1.8413,-8.7805,-30.392,-29.556999,-11.967,-7.7295,-4.9191,-2.9773,-30.392,-29.556999,-9.8039,-10.476,-2.9206,-12.259,-4.8309,-10.564,-3.0274,2.9206,-11.765,-2.0612
-3.8547,-1.8413,-3.9024,-18.627001,-24.631001,-4.1626,-6.7633,-2.9773,-3.9482,-18.627001,-24.631001,-5.8824,-8.5714,-2.9206,-9.4155,-4.8309,-7.6651,-0.12882,2.9206,-10.784,3.7359
3.7283,1.9683,3.9024,-19.608,-21.674999,2.6667,-3.8647,-0.06472,-1.0356,-19.608,-21.674999,0.0,-3.8095,-1.0159,-6.5719,-0.96618,-1.868,0.83736,2.9206,-11.765,3.7359
4.6761,2.9206,7.8049,-18.627001,-17.733999,3.6423,-0.96618,0.90615,4.7896,-18.627001,-17.733999,2.9412,0.95238,1.8413,-3.7283,1.9324,2.963,-0.12882,1.9683,-9.8039,-1.095
2.7804,3.873,6.8293,-9.8039,-12.808,1.6911,1.9324,-2.0065,3.8188,-9.8039,-12.808,2.9412,3.8095,3.746,0.06319,2.8986,4.8953,-3.0274,1.9683,-2.9412,-0.12882
-0.06319,3.873,2.9268,-16.667,-15.764,-6.1138,-4.8309,-6.8608,-1.0356,-16.667,-15.764,-3.9216,4.7619,6.6032,2.9068,4.8309,3.9291,-1.095,3.873,-0.98039,7.6006
3.7283,-1.8413,0.97561,-13.725,-16.749001,-6.1138,-8.6957,-4.9191,-2.9773,-13.725,-16.749001,-6.8627,4.7619,1.8413,8.594,-0.96618,2.963,4.7021,-2.7937,5.8824,-3.0274
3.7283,-11.365,-4.878,-6.8627,-15.764,-6.1138,-11.594,-2.0065,-6.8608,-6.8627,-15.764,-6.8627,4.7619,-5.7778,8.594,-11.594,-2.8341,6.6345,-9.4603,11.765,-12.689
-3.8547,-19.937,-12.683,-4.902,-20.690001,-7.0894,-17.391001,-2.9773,-9.7735,-4.902,-20.690001,-11.765,0.0,-10.54,1.9589,-19.323999,-11.53,4.7021,-8.5079,11.765,-13.655
-9.5419,-20.889,-16.584999,-13.725,-17.733999,-9.0407,-17.391001,-2.9773,-7.8317,-13.725,-17.733999,-14.706,-0.95238,-9.5873,-3.7283,-18.357,-14.428,-0.12882,-5.6508,7.8431,-7.8583
-15.229,-17.079,-19.511999,-20.587999,-19.704,-14.894,-21.256001,-7.8317,-9.7735,-20.587999,-19.704,-19.608,-4.7619,-13.397,-9.4155,-16.424999,-16.361,-3.0274,-4.6984,0.98039,-5.9259
-16.177,-10.413,-17.561001,-17.646999,-16.749001,-17.820999,-19.323999,-10.744,-11.715,-17.646999,-16.749001,-18.627001,-9.5238,-12.444,-15.103,-12.56,-16.361,-3.9936,-2.7937,-5.8824,-2.0612
-10.49,-2.7937,-9.7561,-11.765,-10.837,-12.943,-13.527,-6.8608,-6.8608,-11.765,-10.837,-11.765,-6.6667,-4.8254,-11.311,-4.8309,-9.5974,-1.095,0.06349,-2.9412,5.6683
-2.9068,1.9683,0.0,0.98039,-7.8818,-2.2114,-3.8647,3.8188,-4.9191,0.98039,-7.8818,-0.98039,0.95238,1.8413,-5.624,0.96618,-2.8341,-4.9597,-1.8413,2.9412,1.8035
-1.9589,-0.88889,0.97561,3.9216,-3.9409,2.6667,-1.9324,4.7896,-4.9191,3.9216,-3.9409,1.9608,4.7619,5.6508,-4.6761,1.9324,0.06441,-3.0274,-4.6984,2.9412,-1.095
-1.0111,-5.6508,0.0,4.902,0.0,1.6911,-3.8647,4.7896,-6.8608,4.902,0.0,1.9608,7.619,7.5556,-2.7804,1.9324,1.0306,2.7697,-7.5556,6.8627,0.83736
0.88468,-4.6984,0.0,8.8235,6.8966,5.5935,0.96618,10.615,-5.89,8.8235,6.8966,4.902,7.619,5.6508,-0.88468,1.9324,2.963,5.6683,-7.5556,8.8235,-1.095
0.88468,-2.7937,-1.9512,4.902,7.8818,7.5447,3.8647,8.6731,-5.89,4.902,7.8818,5.8824,6.6667,7.5556,-1.8325,0.0,1.0306,7.6006,-9.4603,6.8627,-2.0612
2.7804,1.0159,-1.9512,12.745,6.8966,11.447,0.96618,6.7314,-2.9773,12.745,6.8966,4.902,3.8095,3.746,1.0111,0.0,1.0306,4.7021,-8.5079,6.8627,-3.0274
0.88468,1.9683,-1.9512,8.8235,12.808,5.5935,4.8309,3.8188,2.8479,8.8235,12.808,4.902,2.8571,-1.0159,1.9589,0.0,1.0306,5.6683,-6.6032,4.902,-7.8583
-2.9068,0.06349,-0.97561,4.902,9.8522,-2.2114,5.7971,3.8188,3.8188,4.902,9.8522,2.9412,3.8095,-1.0159,1.0111,-0.96618,-0.90177,7.6006,-6.6032,1.9608,-7.8583
-2.9068,-0.88889,-0.97561,7.8431,7.8818,-2.2114,2.8986,2.8479,0.90615,7.8431,7.8818,1.9608,2.8571,-0.06349,1.0111,-0.96618,-0.90177,7.6006,-2.7937,2.9412,-1.095
-0.06319,-1.8413,0.97561,3.9216,7.8818,-0.26016,0.96618,2.8479,-2.0065,3.9216,7.8818,2.9412,3.8095,1.8413,3.8547,0.0,1.0306,8.5668,-2.7937,6.8627,8.5668
1.8325,-3.746,0.0,3.9216,2.9557,3.6423,-2.8986,5.7605,-2.9773,3.9216,2.9557,1.9608,0.95238,3.746,4.8025,0.96618,1.9968,6.6345,-0.88889,7.8431,5.6683
-0.06319,-1.8413,0.0,-0.98039,3.9409,0.71545,-2.8986,2.8479,0.90615,-0.98039,3.9409,0.0,1.9048,2.7937,3.8547,2.8986,1.9968,1.8035,4.8254,5.8824,1.8035
-7.6461,0.06349,-4.878,-2.9412,1.9704,-7.0894,-5.7971,-3.9482,-2.0065,-2.9412,1.9704,-6.8627,0.0,1.8413,-3.7283,3.8647,-0.90177,-6.8921,4.8254,-3.9216,4.7021
-8.594,-0.88889,-6.8293,-0.98039,0.0,-10.016,-6.7633,-6.8608,-5.89,-0.98039,0.0,-8.8235,-2.8571,0.88889,-6.5719,0.96618,-3.8003,-6.8921,1.9683,-7.8431,3.7359
-2.9068,-2.7937,-3.9024,2.9412,2.9557,-7.0894,-3.8647,-3.9482,-3.9482,2.9412,2.9557,-4.902,-3.8095,-2.9206,-3.7283,-1.9324,-2.8341,-11.723,1.9683,-3.9216,2.7697
2.7804,-2.7937,0.97561,3.9216,9.8522,0.71545,1.9324,-2.0065,1.877,3.9216,9.8522,1.9608,-3.8095,-3.873,0.06319,-0.96618,1.0306,-4.9597,1.0159,0.98039,0.83736
-0.06319,-1.8413,0.97561,2.9412,10.837,3.6423,2.8986,-2.9773,-2.0065,2.9412,10.837,2.9412,-7.619,-4.8254,-1.8325,-0.96618,0.06441,-3.0274,-1.8413,-3.9216,-3.0274
-1.0111,-0.88889,0.97561,7.8431,9.8522,3.6423,2.8986,-2.9773,-4.9191,7.8431,9.8522,4.902,-10.476,-8.6349,-5.624,-2.8986,-1.868,-3.9936,-2.7937,-6.8627,-6.8921
-1.0111,0.06349,0.97561,4.902,8.867,1.6911,1.9324,-2.0065,-2.0065,4.902,8.867,2.9412,-12.381,-9.5873,-7.5197,-2.8986,-2.8341,-6.8921,-0.88889,-13.725,-3.9936
1.8325,3.873,2.9268,14.706,14.778,-0.26016,6.7633,0.90615,2.8479,14.706,14.778,3.9216,-9.5238,-6.7302,-5.624,1.9324,1.0306,-8.8245,0.06349,-14.706,0.83736
6.5719,8.6349,7.8049,17.646999,17.733999,4.6179,7.7295,2.8479,4.7896,17.646999,17.733999,6.8627,-2.8571,-1.0159,2.9068,7.7295,7.7939,-0.12882,-1.8413,-5.8824,-3.0274
6.5719,5.7778,7.8049,10.784,16.749001,7.5447,4.8309,1.877,1.877,10.784,16.749001,6.8627,-0.95238,-1.0159,4.8025,7.7295,8.7601,2.7697,-2.7937,-3.9216,-8.8245
10.363,3.873,12.683,18.627001,14.778,9.4959,5.7971,7.7023,2.8479,18.627001,14.778,9.8039,4.7619,3.746,8.594,7.7295,11.659,2.7697,1.0159,-0.98039,-1.095
8.4676,0.06349,8.7805,17.646999,11.823,7.5447,2.8986,3.8188,0.90615,17.646999,11.823,9.8039,8.5714,6.6032,7.6461,5.7971,10.692,0.83736,0.06349,1.9608,4.7021
1.8325,-2.7937,1.9512,8.8235,11.823,3.6423,0.0,-2.9773,-2.9773,8.8235,11.823,2.9412,5.7143,7.5556,2.9068,3.8647,5.8615,-3.0274,1.0159,-0.98039,4.7021
1.8325,1.9683,0.0,3.9216,11.823,2.6667,0.96618,-2.0065,-2.9773,3.9216,11.823,0.98039,5.7143,10.413,3.8547,6.7633,5.8615,-1.095,5.7778,3.9216,11.465
-1.0111,4.8254,-0.97561,7.8431,12.808,2.6667,4.8309,-0.06472,1.877,7.8431,12.808,0.0,2.8571,4.6984,1.9589,4.8309,3.9291,-4.9597,4.8254,2.9412,10.499
-2.9068,3.873,0.97561,10.784,13.793,3.6423,6.7633,3.8188,6.7314,10.784,13.793,1.9608,1.9048,1.8413,0.06319,3.8647,1.9968,-4.9597,4.8254,0.98039,7.6006
-2.9068,0.06349,0.97561,6.8627,7.8818,1.6911,3.8647,1.877,1.877,6.8627,7.8818,1.9608,-2.8571,-0.06349,-4.6761,-0.96618,-1.868,-3.9936,1.9683,-1.9608,9.533
-1.0111,0.06349,0.97561,12.745,13.793,3.6423,4.8309,4.7896,1.877,12.745,13.793,4.902,-5.7143,-3.873,-6.5719,-2.8986,-2.8341,-2.0612,-0.88889,-5.8824,1.8035
3.7283,2.9206,2.9268,16.667,15.764,6.5691,7.7295,7.7023,4.7896,16.667,15.764,8.8235,-5.7143,-2.9206,-2.7804,-0.96618,-0.90177,4.7021,2.9206,-4.902,0.83736
6.5719,5.7778,6.8293,17.646999,21.674999,10.472,11.594,10.615,8.6731,17.646999,21.674999,11.765,-7.619,-4.8254,1.0111,1.9324,1.9968,7.6006,2.9206,-4.902,-1.095
2.7804,1.0159,5.8537,9.8039,20.690001,8.5203,8.6957,3.8188,3.8188,9.8039,20.690001,9.8039,-12.381,-11.492,-2.7804,-3.8647,-0.90177,2.7697,-2.7937,-10.784,-11.723
6.5719,2.9206,9.7561,13.725,16.749001,11.447,9.6618,5.7605,5.7605,13.725,16.749001,12.745,-8.5714,-7.6825,-0.88468,0.0,2.963,1.8035,-0.88889,-9.8039,-11.723
16.997999,6.7302,15.61,26.471001,19.704,21.202999,15.459,13.528,10.615,26.471001,19.704,19.608,-0.95238,-1.0159,8.594,3.8647,9.7262,7.6006,4.8254,-2.9412,-4.9597
20.790001,7.6825,17.561001,14.706,21.674999,21.202999,16.424999,11.586,10.615,14.706,21.674999,19.608,3.8095,1.8413,14.281,5.7971,12.625,11.465,4.8254,4.902,-3.9936
19.841999,12.444,17.561001,15.686,21.674999,18.275999,16.424999,12.557,14.498,15.686,21.674999,19.608,5.7143,3.746,13.333,9.6618,13.591,6.6345,8.6349,3.9216,4.7021
7.5197,10.54,10.732,20.587999,15.764,9.4959,10.628,8.6731,12.557,20.587999,15.764,11.765,1.9048,-1.0159,6.6983,6.7633,6.8277,-3.9936,9.5873,0.0,-0.12882
-0.06319,9.5873,5.8537,15.686,12.808,3.6423,10.628,3.8188,9.644,15.686,12.808,7.8431,0.95238,1.8413,2.9068,5.7971,2.963,-3.0274,11.492,2.9412,1.8035
-0.06319,6.7302,4.878,20.587999,15.764,3.6423,10.628,5.7605,10.615,20.587999,15.764,7.8431,4.7619,6.6032,1.9589,3.8647,1.9968,1.8035,10.54,7.8431,4.7021
-1.0111,-1.8413,0.0,12.745,13.793,0.71545,2.8986,1.877,3.8188,12.745,13.793,3.9216,1.9048,0.88889,-1.8325,-1.9324,-3.8003,0.83736,2.9206,7.8431,1.8035
1.8325,-1.8413,0.0,0.98039,5.9113,-0.26016,-1.9324,0.90615,-2.0065,0.98039,5.9113,0.0,1.9048,1.8413,-0.88468,-0.96618,-2.8341,1.8035,-1.8413,8.8235,6.6345
-1.0111,-2.7937,-3.9024,-8.8235,-6.8966,-4.1626,-8.6957,-3.9482,-8.8026,-8.8235,-6.8966,-6.8627,0.0,1.8413,-2.7804,-1.9324,-4.7665,-0.12882,-3.746,7.8431,5.6683
-1.0111,-1.8413,-4.878,-1.9608,-1.9704,-2.2114,-6.7633,-2.9773,-8.8026,-1.9608,-1.9704,-4.902,0.0,1.8413,-3.7283,-1.9324,-5.7327,1.8035,-2.7937,4.902,6.6345
-3.8547,-1.8413,-4.878,2.9412,-1.9704,-1.2358,-3.8647,-1.0356,-7.8317,2.9412,-1.9704,-3.9216,1.9048,4.6984,-2.7804,-1.9324,-3.8003,3.7359,-5.6508,4.902,6.6345
-8.594,-5.6508,-8.7805,-0.98039,-0.98522,-3.187,-3.8647,-2.0065,-9.7735,-0.98039,-0.98522,-3.9216,-0.95238,1.8413,-4.6761,-4.8309,-6.6989,1.8035,-8.5079,0.98039,1.8035
-10.49,-8.5079,-8.7805,0.98039,1.9704,-1.2358,-2.8986,-2.0065,-6.8608,0.98039,1.9704,-3.9216,-5.7143,-3.873,-7.5197,-8.6957,-8.6312,0.83736,-5.6508,-4.902,-1.095
-5.7504,-7.5556,-3.9024,0.98039,2.9557,2.6667,3.8647,3.8188,-3.9482,0.98039,2.9557,0.0,-5.7143,-3.873,-4.6761,-7.7295,-6.6989,1.8035,-5.6508,-5.8824,-2.0612
6.5719,-0.88889,4.878,7.8431,5.9113,9.4959,6.7633,9.644,-1.0356,7.8431,5.9113,6.8627,0.95238,1.8413,4.8025,-1.9324,1.9968,9.533,-3.746,0.98039,-3.9936
12.259,2.9206,7.8049,5.8824,7.8818,8.5203,5.7971,8.6731,-1.0356,5.8824,7.8818,8.8235,2.8571,-0.06349,8.594,0.0,4.8953,8.5668,-2.7937,1.9608,-9.7907
16.051001,2.9206,8.7805,4.902,5.9113,5.5935,3.8647,9.644,0.90615,4.902,5.9113,6.8627,4.7619,-1.0159,11.438,0.96618,7.7939,6.6345,-3.746,3.9216,-10.757
17.945999,4.8254,10.732,14.706,10.837,8.5203,7.7295,12.557,3.8188,14.706,10.837,9.8039,6.6667,-1.0159,13.333,4.8309,10.692,9.533,-1.8413,5.8824,-5.9259
11.311,4.8254,7.8049,11.765,8.867,5.5935,6.7633,6.7314,1.877,11.765,8.867,7.8431,3.8095,1.8413,12.385,4.8309,8.7601,9.533,1.0159,7.8431,-4.9597
2.7804,4.8254,5.8537,11.765,8.867,2.6667,6.7633,2.8479,3.8188,11.765,8.867,6.8627,4.7619,3.746,7.6461,5.7971,5.8615,6.6345,4.8254,3.9216,-0.12882
0.88468,9.5873,8.7805,11.765,13.793,4.6179,8.6957,2.8479,8.6731,11.765,13.793,7.8431,9.5238,6.6032,4.8025,9.6618,5.8615,3.7359,8.6349,6.8627,5.6683
-0.06319,7.6825,5.8537,3.9216,3.9409,2.6667,3.8647,-0.06472,4.7896,3.9216,3.9409,2.9412,7.619,5.6508,1.9589,6.7633,2.963,-1.095,8.6349,6.8627,10.499
-3.8547,1.0159,-1.9512,-2.9412,-2.9557,-4.1626,-1.9324,-4.9191,-0.06472,-2.9412,-2.9557,-2.9412,1.9048,-0.06349,-3.7283,-1.9324,-4.7665,-4.9597,5.7778,2.9412,8.5668
-2.9068,-1.8413,-3.9024,-3.9216,0.98522,-4.1626,0.0,-5.89,-0.06472,-3.9216,0.98522,-2.9412,-0.95238,-0.06349,-5.624,-4.8309,-7.6651,-4.9597,3.873,3.9216,6.6345
-4.8025,-4.6984,-6.8293,1.9608,6.8966,-3.187,-0.96618,-2.9773,0.90615,1.9608,6.8966,-2.9412,-3.8095,-2.9206,-10.363,-6.7633,-9.5974,-4.9597,1.9683,-1.9608,3.7359
-6.6983,-7.5556,-7.8049,1.9608,2.9557,-5.1382,-3.8647,-3.9482,-3.9482,1.9608,2.9557,-5.8824,-8.5714,-7.6825,-13.207,-9.6618,-10.564,-4.9597,-3.746,-6.8627,-3.0274
-1.9589,-1.8413,0.0,12.745,3.9409,2.6667,0.96618,-0.06472,-2.0065,12.745,3.9409,1.9608,-7.619,-1.0159,-9.4155,-3.8647,-4.7665,-2.0612,-1.8413,-6.8627,-3.9936
4.6761,1.0159,5.8537,12.745,5.9113,9.4959,3.8647,2.8479,-0.06472,12.745,5.9113,7.8431,-3.8095,-1.9683,-1.8325,-0.96618,0.06441,2.7697,-0.88889,-2.9412,-1.095
6.5719,-0.88889,3.9024,4.902,5.9113,11.447,1.9324,2.8479,-1.0356,4.902,5.9113,6.8627,0.0,-1.9683,2.9068,-0.96618,1.9968,2.7697,-4.6984,-0.98039,-1.095
4.6761,-1.8413,1.9512,5.8824,7.8818,9.4959,2.8986,3.8188,0.90615,5.8824,7.8818,6.8627,-1.9048,-0.06349,0.06319,-0.96618,1.0306,-0.12882,-3.746,-8.8235,4.7021
1.8325,-5.6508,-0.97561,8.8235,6.8966,0.71545,0.0,2.8479,-1.0356,8.8235,6.8966,4.902,-5.7143,-1.9683,-2.7804,-4.8309,-1.868,-3.9936,-2.7937,-13.725,-0.12882
-1.0111,-3.746,-0.97561,3.9216,6.8966,4.6179,6.7633,2.8479,0.90615,3.9216,6.8966,6.8627,-7.619,-4.8254,-4.6761,-6.7633,-3.8003,-7.8583,-3.746,-12.745,-11.723
-0.06319,2.9206,1.9512,3.9216,6.8966,13.398,11.594,2.8479,3.8188,3.9216,6.8966,7.8431,-6.6667,-5.7778,-4.6761,-4.8309,-2.8341,-3.9936,1.9683,-12.745,-3.0274
4.6761,7.6825,6.8293,14.706,8.867,5.5935,6.7633,4.7896,3.8188,14.706,8.867,8.8235,1.9048,0.88889,3.8547,1.9324,4.8953,2.7697,2.9206,-3.9216,-1.095
7.5197,5.7778,6.8293,28.431,12.808,1.6911,3.8647,10.615,5.7605,28.431,12.808,7.8431,6.6667,3.746,7.6461,2.8986,5.8615,4.7021,2.9206,1.9608,-4.9597
3.7283,1.0159,2.9268,15.686,12.808,1.6911,0.0,10.615,3.8188,15.686,12.808,2.9412,7.619,2.7937,5.7504,0.0,1.9968,2.7697,1.0159,4.902,-3.9936
3.7283,-0.88889,1.9512,5.8824,10.837,3.6423,-0.96618,10.615,1.877,5.8824,10.837,1.9608,6.6667,3.746,4.8025,0.96618,1.0306,4.7021,0.06349,6.8627,0.83736
2.7804,-1.8413,0.97561,2.9412,-0.98522,2.6667,-4.8309,6.7314,-2.9773,2.9412,-0.98522,-0.98039,5.7143,3.746,2.9068,0.96618,0.06441,4.7021,0.06349,9.8039,0.83736
1.8325,-0.88889,0.97561,2.9412,-6.8966,-0.26016,-6.7633,1.877,-8.8026,2.9412,-6.8966,-3.9216,2.8571,-0.06349,1.0111,0.96618,-0.90177,1.8035,-1.8413,8.8235,-0.12882
4.6761,1.0159,1.9512,-1.9608,-5.9113,1.6911,-3.8647,2.8479,-7.8317,-1.9608,-5.9113,-2.9412,1.9048,0.88889,3.8547,1.9324,1.0306,4.7021,-2.7937,8.8235,0.83736
6.5719,1.0159,0.97561,-5.8824,-2.9557,1.6911,-3.8647,4.7896,-4.9191,-5.8824,-2.9557,-2.9412,2.8571,1.8413,5.7504,2.8986,1.9968,9.533,-0.88889,8.8235,3.7359
1.8325,-3.746,-1.9512,-4.902,-4.9261,-1.2358,-5.7971,0.90615,-6.8608,-4.902,-4.9261,-4.902,-0.95238,-0.06349,1.0111,0.0,-0.90177,5.6683,-1.8413,5.8824,3.7359
-0.06319,0.06349,0.0,-3.9216,-7.8818,-2.2114,-3.8647,-2.0065,-5.89,-3.9216,-7.8818,-4.902,-2.8571,0.88889,0.06319,1.9324,0.06441,1.8035,4.8254,1.9608,13.398
1.8325,1.0159,1.9512,-4.902,-2.9557,-0.26016,0.96618,-2.9773,-3.9482,-4.902,-2.9557,0.0,-2.8571,-1.9683,0.06319,0.96618,1.0306,3.7359,1.9683,0.98039,1.8035
-1.0111,-0.88889,-1.9512,-0.98039,-4.9261,1.6911,0.0,-3.9482,-4.9191,-0.98039,-4.9261,-0.98039,-5.7143,-5.7778,-3.7283,-2.8986,-2.8341,-2.0612,-1.8413,-5.8824,-3.0274
0.88468,0.06349,-0.97561,-8.8235,0.0,9.4959,2.8986,0.90615,-2.9773,-8.8235,0.0,2.9412,-2.8571,-2.9206,-1.8325,-0.96618,-0.90177,-6.8921,-1.8413,-7.8431,-5.9259
-2.9068,0.06349,-0.97561,-0.98039,1.9704,2.6667,1.9324,2.8479,-0.06472,-0.98039,1.9704,2.9412,-1.9048,-1.0159,-2.7804,-0.96618,0.06441,-4.9597,-0.88889,-7.8431,-6.8921
-3.8547,1.0159,1.9512,6.8627,3.9409,-8.065,2.8986,1.877,2.8479,6.8627,3.9409,2.9412,0.0,-0.06349,-1.8325,0.0,1.0306,-1.095,1.0159,-8.8235,-1.095
-1.0111,3.873,4.878,6.8627,7.8818,-6.1138,4.8309,0.90615,2.8479,6.8627,7.8818,4.902,3.8095,2.7937,1.9589,3.8647,3.9291,-1.095,1.9683,-3.9216,3.7359
-1.0111,4.8254,2.9268,3.9216,2.9557,-5.1382,2.8986,-0.06472,-0.06472,3.9216,2.9557,3.9216,3.8095,3.746,1.0111,4.8309,2.963,-4.9597,1.9683,-5.8824,6.6345
5.624,10.54,7.8049,2.9412,5.9113,1.6911,8.6957,2.8479,5.7605,2.9412,5.9113,8.8235,5.7143,10.413,6.6983,9.6618,7.7939,-3.9936,2.9206,-2.9412,3.7359
3.7283,10.54,7.8049,5.8824,11.823,4.6179,13.527,1.877,4.7896,5.8824,11.823,12.745,6.6667,7.5556,7.6461,9.6618,8.7601,-0.12882,1.0159,2.9412,0.83736
0.88468,8.6349,6.8293,4.902,11.823,5.5935,13.527,-0.06472,5.7605,4.902,11.823,13.725,8.5714,6.6032,6.6983,7.7295,6.8277,3.7359,2.9206,7.8431,7.6006
4.6761,7.6825,8.7805,9.8039,11.823,8.5203,14.493,1.877,9.644,9.8039,11.823,14.706,10.476,8.5079,8.594,7.7295,7.7939,7.6006,5.7778,11.765,7.6006
4.6761,2.9206,3.9024,1.9608,6.8966,6.5691,6.7633,1.877,6.7314,1.9608,6.8966,7.8431,5.7143,2.7937,7.6461,1.9324,2.963,6.6345,2.9206,11.765,-1.095
7.5197,1.0159,0.0,-6.8627,-1.9704,5.5935,2.8986,2.8479,1.877,-6.8627,-1.9704,1.9608,4.7619,-0.06349,10.49,0.0,2.963,10.499,1.0159,14.706,-0.12882
7.5197,-0.88889,-2.9268,-9.8039,-3.9409,3.6423,-2.8986,-0.06472,-1.0356,-9.8039,-3.9409,-3.9216,4.7619,2.7937,8.594,0.0,1.9968,4.7021,1.0159,13.725,-1.095
3.7283,-3.746,-4.878,0.98039,0.98522,0.71545,-11.594,3.8188,-2.9773,0.98039,0.98522,-5.8824,2.8571,-1.0159,3.8547,-2.8986,-1.868,5.6683,-2.7937,12.745,-7.8583
-1.0111,-4.6984,-3.9024,13.725,0.98522,-3.187,-7.7295,6.7314,-2.9773,13.725,0.98522,-3.9216,2.8571,-1.0159,1.0111,-3.8647,-2.8341,8.5668,-5.6508,14.706,-3.9936
-10.49,-8.5079,-7.8049,2.9412,-0.98522,-9.0407,-7.7295,1.877,-4.9191,2.9412,-0.98522,-8.8235,-0.95238,-4.8254,-4.6761,-6.7633,-6.6989,6.6345,-8.5079,10.784,-4.9597
-6.6983,-5.6508,-4.878,0.0,-2.9557,-8.065,-5.7971,3.8188,-1.0356,0.0,-2.9557,-6.8627,4.7619,2.7937,-0.88468,-0.96618,-1.868,9.533,-3.746,10.784,3.7359
-1.9589,-3.746,-4.878,-5.8824,-10.837,-5.1382,-8.6957,3.8188,-4.9191,-5.8824,-10.837,-8.8235,7.619,6.6032,1.9589,0.96618,1.0306,6.6345,-5.6508,10.784,3.7359
7.5197,1.0159,0.97561,-5.8824,-5.9113,0.71545,-4.8309,3.8188,-5.89,-5.8824,-5.9113,-3.9216,8.5714,9.4603,6.6983,3.8647,5.8615,5.6683,-2.7937,8.8235,5.6683
10.363,-0.88889,0.97561,-3.9216,-6.8966,4.6179,-2.8986,0.90615,-4.9191,-3.9216,-6.8966,-1.9608,8.5714,8.5079,10.49,3.8647,6.8277,5.6683,-0.88889,8.8235,4.7021
5.624,-3.746,-1.9512,-14.706,-6.8966,13.398,4.8309,-5.89,-3.9482,-14.706,-6.8966,0.0,3.8095,1.8413,5.7504,-0.96618,1.9968,7.6006,-4.6984,2.9412,-0.12882
-4.8025,-5.6508,-4.878,-10.784,-3.9409,7.5447,-0.96618,-2.0065,-3.9482,-10.784,-3.9409,-0.98039,-1.9048,-5.7778,-2.7804,-5.7971,-3.8003,-2.0612,-2.7937,-6.8627,-3.0274
-10.49,-0.88889,-1.9512,5.8824,0.0,-11.967,3.8647,3.8188,-2.9773,5.8824,0.0,0.0,0.0,-1.9683,-3.7283,-0.96618,-2.8341,-4.9597,0.06349,-5.8824,2.7697
-9.5419,1.9683,0.97561,4.902,-4.9261,-17.820999,0.96618,0.90615,-2.9773,4.902,-4.9261,-1.9608,1.9048,4.6984,-0.88468,4.8309,1.0306,-0.12882,-1.8413,-3.9216,1.8035
-3.8547,4.8254,3.9024,-1.9608,-8.867,-13.919,-5.7971,-4.9191,-5.89,-1.9608,-8.867,-4.902,5.7143,8.5079,3.8547,10.628,6.8277,-0.12882,0.06349,0.98039,3.7359
-1.0111,2.9206,0.97561,-2.9412,-5.9113,-11.967,-5.7971,-2.0065,-3.9482,-2.9412,-5.9113,-6.8627,4.7619,6.6032,2.9068,6.7633,4.8953,-2.0612,0.06349,0.0,2.7697
-0.06319,0.06349,-2.9268,-2.9412,-1.9704,-4.1626,-4.8309,-2.0065,-2.9773,-2.9412,-1.9704,-3.9216,-2.8571,-1.0159,-0.88468,0.96618,0.06441,-7.8583,-0.88889,-4.902,-1.095
2.7804,-1.8413,0.97561,9.8039,5.9113,4.6179,-0.96618,2.8479,-2.9773,9.8039,5.9113,3.9216,-4.7619,-3.873,-0.88468,-0.96618,0.06441,-3.9936,-2.7937,-1.9608,-1.095
1.8325,-3.746,1.9512,5.8824,7.8818,5.5935,0.0,2.8479,-2.9773,5.8824,7.8818,4.902,-2.8571,-1.9683,-0.88468,-2.8986,-0.90177,-1.095,-3.746,0.0,1.8035
0.88468,-6.6032,0.0,-4.902,3.9409,0.71545,-2.8986,-1.0356,-3.9482,-4.902,3.9409,0.98039,-4.7619,-4.8254,-1.8325,-5.7971,-2.8341,-0.12882,-3.746,0.98039,-1.095
3.7283,-6.6032,-0.97561,-6.8627,-1.9704,1.6911,-5.7971,0.90615,-5.89,-6.8627,-1.9704,-2.9412,-4.7619,-6.7302,1.0111,-5.7971,-2.8341,2.7697,-6.6032,0.98039,-4.9597
4.6761,-5.6508,-1.9512,-3.9216,-4.9261,1.6911,-5.7971,-0.06472,-5.89,-3.9216,-4.9261,-2.9412,-3.8095,-7.6825,1.0111,-6.7633,-3.8003,1.8035,-4.6984,1.9608,-4.9597
2.7804,-5.6508,-2.9268,-3.9216,-5.9113,3.6423,-5.7971,0.90615,-5.89,-3.9216,-5.9113,-3.9216,-6.6667,-9.5873,-2.7804,-7.7295,-5.7327,-0.12882,-3.746,-0.98039,-4.9597
-1.9589,-4.6984,-2.9268,4.902,-1.9704,3.6423,-4.8309,-1.0356,-5.89,4.902,-1.9704,-2.9412,-6.6667,-8.6349,-5.624,-6.7633,-6.6989,-3.0274,-2.7937,-4.902,-3.0274
-6.6983,-2.7937,-3.9024,-6.8627,-5.9113,-1.2358,-4.8309,-3.9482,-2.0065,-6.8627,-5.9113,-5.8824,-5.7143,-4.8254,-5.624,-3.8647,-4.7665,-7.8583,0.06349,-3.9216,-1.095
-6.6983,1.9683,-2.9268,-14.706,-6.8966,-4.1626,-2.8986,-2.9773,0.90615,-14.706,-6.8966,-6.8627,-3.8095,-1.0159,-5.624,0.96618,-1.868,-7.8583,5.7778,-4.902,0.83736
-4.8025,5.7778,-2.9268,-4.902,-4.9261,-0.26016,0.96618,-0.06472,1.877,-4.902,-4.9261,-3.9216,-3.8095,3.746,-6.5719,3.8647,-0.90177,-3.0274,7.6825,-9.8039,5.6683
-5.7504,1.0159,-5.8537,1.9608,-1.9704,3.6423,0.96618,1.877,-0.06472,1.9608,-1.9704,-0.98039,-7.619,-2.9206,-13.207,-0.96618,-5.7327,-4.9597,4.8254,-16.667,4.7021
-7.6461,-4.6984,-8.7805,-0.98039,-2.9557,1.6911,-2.8986,-0.06472,-2.9773,-0.98039,-2.9557,-1.9608,-11.429,-8.6349,-16.051001,-6.7633,-9.5974,-7.8583,1.0159,-21.569,-1.095
-6.6983,-6.6032,-7.8049,-13.725,-7.8818,-3.187,-6.7633,-7.8317,-4.9191,-13.725,-7.8818,-2.9412,-11.429,-8.6349,-12.259,-7.7295,-8.6312,-8.8245,1.0159,-18.627001,-8.8245
3.7283,1.9683,4.878,-1.9608,-0.98522,4.6179,3.8647,0.90615,1.877,-1.9608,-0.98522,7.8431,-1.9048,-1.9683,1.0111,0.96618,1.9968,0.83736,0.06349,-6.8627,-4.9597
6.5719,7.6825,9.7561,14.706,7.8818,5.5935,10.628,3.8188,6.7314,14.706,7.8818,13.725,0.0,-0.06349,4.8025,4.8309,5.8615,0.83736,1.0159,-3.9216,-1.095
8.4676,8.6349,8.7805,9.8039,9.8522,7.5447,9.6618,0.90615,8.6731,9.8039,9.8522,12.745,0.0,1.8413,5.7504,5.7971,5.8615,0.83736,3.873,0.0,0.83736
6.5719,5.7778,5.8537,1.9608,5.9113,4.6179,4.8309,-0.06472,7.7023,1.9608,5.9113,8.8235,0.0,5.6508,5.7504,5.7971,4.8953,-0.12882,2.9206,1.9608,1.8035
4.6761,3.873,5.8537,1.9608,2.9557,3.6423,1.9324,-2.9773,3.8188,1.9608,2.9557,6.8627,-0.95238,2.7937,4.8025,4.8309,3.9291,-6.8921,1.0159,3.9216,2.7697
6.5719,5.7778,10.732,10.784,6.8966,6.5691,7.7295,2.8479,5.7605,10.784,6.8966,8.8235,1.9048,3.746,6.6983,6.7633,5.8615,0.83736,0.06349,5.8824,3.7359
4.6761,5.7778,9.7561,9.8039,3.9409,0.71545,5.7971,1.877,0.90615,9.8039,3.9409,3.9216,0.0,1.8413,3.8547,5.7971,4.8953,5.6683,-0.88889,3.9216,2.7697
2.7804,5.7778,5.8537,0.98039,1.9704,-4.1626,1.9324,-1.0356,1.877,0.98039,1.9704,-0.98039,-0.95238,1.8413,1.9589,5.7971,3.9291,-3.0274,1.0159,2.9412,3.7359
0.88468,3.873,0.97561,-10.784,-0.98522,-4.1626,0.0,-2.9773,3.8188,-10.784,-0.98522,-3.9216,-0.95238,3.746,0.06319,4.8309,1.0306,-0.12882,3.873,0.0,5.6683
-7.6461,-2.7937,-5.8537,-14.706,-5.9113,-9.0407,-4.8309,-12.686,-2.0065,-14.706,-5.9113,-8.8235,-8.5714,-4.8254,-9.4155,-4.8309,-6.6989,-4.9597,2.9206,-5.8824,3.7359
-4.8025,-1.8413,0.0,-2.9412,-1.9704,-4.1626,1.9324,-6.8608,-1.0356,-2.9412,-1.9704,0.0,-6.6667,-4.8254,-8.4676,-4.8309,-4.7665,-4.9597,0.06349,-4.902,-3.0274
-3.8547,-3.746,0.97561,2.9412,-0.98522,1.6911,1.9324,-3.9482,1.877,2.9412,-0.98522,3.9216,-3.8095,-3.873,-7.5197,-6.7633,-4.7665,-3.9936,-2.7937,-5.8824,-5.9259
-2.9068,-4.6984,-1.9512,-3.9216,0.0,9.4959,4.8309,-4.9191,3.8188,-3.9216,0.0,4.902,-4.7619,-6.7302,-6.5719,-8.6957,-4.7665,-6.8921,1.9683,-4.902,-4.9597
-5.7504,-4.6984,-5.8537,-15.686,-4.9261,4.6179,-0.96618,-12.686,-0.06472,-15.686,-4.9261,-0.98039,-5.7143,-6.7302,-4.6761,-7.7295,-5.7327,-3.0274,4.8254,-3.9216,-1.095
-2.9068,-2.7937,-3.9024,-7.8431,-2.9557,-2.2114,-1.9324,-4.9191,0.90615,-7.8431,-2.9557,-1.9608,-2.8571,-2.9206,-1.8325,-2.8986,-1.868,1.8035,1.9683,-3.9216,-3.9936
-0.06319,3.873,1.9512,11.765,3.9409,-5.1382,1.9324,6.7314,3.8188,11.765,3.9409,0.98039,2.8571,1.8413,3.8547,3.8647,4.8953,3.7359,1.9683,0.98039,-3.0274
1.8325,8.6349,4.878,9.8039,7.8818,-3.187,3.8647,4.7896,6.7314,9.8039,7.8818,1.9608,7.619,7.5556,6.6983,9.6618,9.7262,5.6683,4.8254,3.9216,8.5668
0.88468,5.7778,0.97561,4.902,0.0,-5.1382,0.0,1.877,2.8479,4.902,0.0,-2.9412,7.619,9.4603,7.6461,10.628,9.7262,4.7021,1.9683,5.8824,8.5668
5.624,5.7778,0.97561,7.8431,-2.9557,-6.1138,-1.9324,-0.06472,-3.9482,7.8431,-2.9557,-4.902,12.381,13.27,13.333,14.493,14.557,3.7359,0.06349,10.784,7.6006
3.7283,3.873,0.0,-3.9216,-4.9261,-5.1382,-2.8986,-1.0356,-0.06472,-3.9216,-4.9261,-5.8824,9.5238,10.413,9.5419,12.56,11.659,5.6683,1.0159,6.8627,2.7697
2.7804,6.7302,4.878,-5.8824,0.0,-3.187,2.8986,-2.0065,8.6731,-5.8824,0.0,-0.98039,5.7143,8.5079,4.8025,11.594,9.7262,4.7021,2.9206,5.8824,5.6683
5.624,9.5873,9.7561,3.9216,6.8966,3.6423,7.7295,-2.9773,13.528,3.9216,6.8966,6.8627,5.7143,8.5079,4.8025,12.56,10.692,0.83736,7.6825,5.8824,9.533
1.8325,6.7302,3.9024,7.8431,5.9113,1.6911,5.7971,-4.9191,9.644,7.8431,5.9113,2.9412,2.8571,4.6984,3.8547,8.6957,6.8277,0.83736,5.7778,5.8824,8.5668
-3.8547,2.9206,-4.878,7.8431,10.837,-3.187,2.8986,-9.7735,6.7314,7.8431,10.837,-1.9608,-1.9048,2.7937,-2.7804,2.8986,0.06441,-3.0274,4.8254,-0.98039,3.7359
-3.8547,1.9683,-6.8293,7.8431,13.793,-2.2114,5.7971,-10.744,14.498,7.8431,13.793,-1.9608,0.0,1.8413,-2.7804,0.96618,-1.868,-3.9936,3.873,-3.9216,2.7697
-1.9589,-0.88889,-4.878,6.8627,7.8818,-1.2358,4.8309,-13.657,11.586,6.8627,7.8818,-1.9608,1.9048,-0.06349,-0.88468,0.0,-0.90177,-10.757,1.9683,-3.9216,3.7359
-5.7504,-3.746,-7.8049,-8.8235,-2.9557,0.71545,1.9324,-13.657,7.7023,-8.8235,-2.9557,-5.8824,0.0,-0.06349,-3.7283,-1.9324,-3.8003,-10.757,3.873,-3.9216,5.6683
-7.6461,-8.5079,-10.732,-14.706,-6.8966,-3.187,1.9324,-8.8026,2.8479,-14.706,-6.8966,-7.8431,0.0,-1.0159,-1.8325,-5.7971,-5.7327,0.83736,-2.7937,0.98039,-3.0274
-9.5419,-12.317,-12.683,-14.706,-9.8522,-5.1382,-5.7971,-9.7735,-2.9773,-14.706,-9.8522,-9.8039,-1.9048,-4.8254,-4.6761,-10.628,-8.6312,6.6345,-4.6984,-0.98039,-15.588
-11.438,-14.222,-14.634,-15.686,-10.837,-13.919,-19.323999,-6.8608,-4.9191,-15.686,-10.837,-12.745,-3.8095,-7.6825,-10.363,-13.527,-12.496,-0.12882,-1.8413,-7.8431,-9.7907
-8.594,-13.27,-10.732,1.9608,-8.867,-18.797001,-18.357,5.7605,-2.9773,1.9608,-8.867,-11.765,-1.9048,-3.873,-6.5719,-10.628,-9.5974,-3.0274,-1.8413,-1.9608,-6.8921
-5.7504,-10.413,-7.8049,11.765,-4.9261,-11.967,-9.6618,7.7023,-2.9773,11.765,-4.9261,-6.8627,-0.95238,-1.9683,-3.7283,-8.6957,-6.6989,0.83736,-3.746,1.9608,-3.9936
-5.7504,-7.5556,-6.8293,4.902,-10.837,-7.0894,-8.6957,4.7896,-2.0065,4.902,-10.837,-5.8824,-0.95238,-1.0159,-4.6761,-5.7971,-4.7665,-0.12882,-3.746,-1.9608,0.83736
-2.9068,-1.8413,-2.9268,-3.9216,-10.837,-4.1626,-2.8986,2.8479,3.8188,-3.9216,-10.837,-3.9216,-1.9048,1.8413,-3.7283,0.0,-1.868,-2.0612,2.9206,-2.9412,4.7021
-2.9068,0.06349,-2.9268,-14.706,-9.8522,-4.1626,-2.8986,-1.0356,1.877,-14.706,-9.8522,-4.902,-4.7619,-2.9206,-3.7283,-1.9324,-2.8341,-5.9259,4.8254,-4.902,5.6683
0.88468,0.06349,-1.9512,-7.8431,-3.9409,1.6911,0.0,1.877,3.8188,-7.8431,-3.9409,0.0,-4.7619,-7.6825,-2.7804,-3.8647,-2.8341,-3.9936,2.9206,-1.9608,-3.9936
4.6761,2.9206,0.97561,-4.902,-4.9261,4.6179,1.9324,4.7896,5.7605,-4.902,-4.9261,2.9412,-1.9048,-2.9206,1.0111,0.0,1.0306,-1.095,3.873,2.9412,-3.9936
0.88468,-1.8413,-0.97561,-3.9216,-7.8818,5.5935,0.0,3.8188,4.7896,-3.9216,-7.8818,0.0,-3.8095,-2.9206,-0.88468,-1.9324,-0.90177,0.83736,2.9206,0.0,-1.095
0.88468,-3.746,-0.97561,-6.8627,-4.9261,3.6423,-0.96618,2.8479,3.8188,-6.8627,-4.9261,0.0,-4.7619,-5.7778,-0.88468,-3.8647,-1.868,6.6345,2.9206,-6.8627,0.83736
-3.8547,-7.5556,-4.878,-24.51,-13.793,1.6911,-1.9324,-6.8608,-1.0356,-24.51,-13.793,-4.902,-4.7619,-9.5873,-4.6761,-7.7295,-4.7665,-2.0612,-0.88889,-10.784,-5.9259
-4.8025,-7.5556,-6.8293,-22.549,-21.674999,-3.187,0.96618,-10.744,-2.0065,-22.549,-21.674999,-7.8431,-0.95238,-1.9683,-5.624,-6.7633,-5.7327,-3.9936,-2.7937,-6.8627,-8.8245
-8.594,-9.4603,-12.683,-24.51,-28.570999,-10.016,-16.424999,-10.744,-5.89,-24.51,-28.570999,-15.686,-3.8095,-6.7302,-7.5197,-9.6618,-9.5974,-4.9597,-3.746,-5.8824,-6.8921
-13.333,-14.222,-15.61,-14.706,-18.719,-20.747999,-29.952,-7.8317,-4.9191,-14.706,-18.719,-21.569,-6.6667,-8.6349,-9.4155,-12.56,-12.496,-5.9259,-3.746,-3.9216,-6.8921
-17.125,-17.079,-15.61,-0.98039,-12.808,-27.577,-25.121,-4.9191,-2.9773,-0.98039,-12.808,-22.549,-7.619,-7.6825,-11.311,-13.527,-13.462,-7.8583,-5.6508,-3.9216,-10.757
-13.333,-15.175,-11.707,-4.902,-16.749001,-20.747999,-19.323999,-2.9773,-6.8608,-4.902,-16.749001,-17.646999,-5.7143,-4.8254,-10.363,-11.594,-12.496,-5.9259,-8.5079,-4.902,-8.8245
-7.6461,-9.4603,-5.8537,-6.8627,-15.764,-11.967,-12.56,0.90615,-3.9482,-6.8627,-15.764,-12.745,1.9048,1.8413,-4.6761,-4.8309,-6.6989,-3.0274,-4.6984,0.98039,-0.12882
-3.8547,-6.6032,-4.878,-8.8235,-13.793,-8.065,-8.6957,-1.0356,-1.0356,-8.8235,-13.793,-10.784,4.7619,1.8413,-0.88468,-2.8986,-3.8003,-6.8921,-2.7937,4.902,2.7697
-2.9068,-2.7937,-4.878,-8.8235,-7.8818,-4.1626,-6.7633,-1.0356,1.877,-8.8235,-7.8818,-8.8235,1.9048,0.88889,-0.88468,-1.9324,-3.8003,-6.8921,-0.88889,3.9216,4.7021
-2.9068,-3.746,-6.8293,-8.8235,-3.9409,-3.187,-3.8647,-3.9482,0.90615,-8.8235,-3.9409,-5.8824,-2.8571,-2.9206,-2.7804,-3.8647,-6.6989,-5.9259,0.06349,0.98039,5.6683
0.88468,-1.8413,-1.9512,0.98039,0.98522,3.6423,0.96618,-0.06472,2.8479,0.98039,0.98522,1.9608,-2.8571,-3.873,-1.8325,-2.8986,-4.7665,-1.095,1.0159,1.9608,5.6683
8.4676,2.9206,7.8049,3.9216,1.9704,10.472,5.7971,6.7314,5.7605,3.9216,1.9704,8.8235,0.95238,-2.9206,3.8547,1.9324,1.9968,4.7021,1.0159,5.8824,1.8035
9.4155,2.9206,9.7561,0.0,-1.9704,7.5447,1.9324,2.8479,-0.06472,0.0,-1.9704,6.8627,0.0,-1.0159,6.6983,2.8986,4.8953,7.6006,1.0159,5.8824,0.83736
10.363,5.7778,10.732,-1.9608,0.98522,6.5691,1.9324,1.877,-0.06472,-1.9608,0.98522,6.8627,3.8095,0.88889,10.49,5.7971,7.7939,5.6683,1.9683,7.8431,0.83736
8.4676,3.873,7.8049,-3.9216,1.9704,2.6667,0.96618,0.90615,-2.9773,-3.9216,1.9704,3.9216,1.9048,-1.0159,7.6461,3.8647,5.8615,2.7697,-1.8413,1.9608,-4.9597
2.7804,-2.7937,1.9512,-3.9216,-5.9113,-0.26016,-4.8309,-2.0065,-5.89,-3.9216,-5.9113,-1.9608,-0.95238,-5.7778,1.9589,-1.9324,0.06441,4.7021,-7.5556,0.0,-8.8245
6.5719,1.9683,7.8049,9.8039,1.9704,5.5935,2.8986,2.8479,0.90615,9.8039,1.9704,5.8824,6.6667,4.6984,8.594,3.8647,6.8277,7.6006,0.06349,4.902,-0.12882
3.7283,2.9206,7.8049,6.8627,5.9113,7.5447,3.8647,5.7605,2.8479,6.8627,5.9113,7.8431,9.5238,9.4603,6.6983,6.7633,7.7939,6.6345,4.8254,3.9216,2.7697
-2.9068,0.06349,1.9512,-4.902,0.0,3.6423,0.0,2.8479,-2.9773,-4.902,0.0,2.9412,4.7619,6.6032,0.06319,3.8647,1.9968,1.8035,1.9683,4.902,4.7021
-2.9068,2.9206,0.97561,-3.9216,-1.9704,6.5691,1.9324,-0.06472,-1.0356,-3.9216,-1.9704,0.98039,5.7143,7.5556,-1.8325,5.7971,1.0306,-5.9259,0.06349,1.9608,1.8035
-5.7504,-0.88889,-2.9268,-7.8431,-1.9704,-3.187,0.0,-6.8608,-3.9482,-7.8431,-1.9704,-2.9412,0.95238,3.746,-7.5197,1.9324,-3.8003,-6.8921,-2.7937,-5.8824,3.7359
-2.9068,-1.8413,-3.9024,2.9412,0.98522,-7.0894,-3.8647,-4.9191,-3.9482,2.9412,0.98522,-2.9412,0.95238,1.8413,-6.5719,0.96618,-3.8003,-5.9259,0.06349,-4.902,5.6683
0.88468,-0.88889,-1.9512,10.784,4.9261,-4.1626,-0.96618,0.90615,-2.0065,10.784,4.9261,0.0,8.5714,6.6032,0.06319,2.8986,0.06441,1.8035,1.9683,4.902,6.6345
-0.06319,1.0159,-0.97561,3.9216,2.9557,-3.187,0.0,1.877,-2.9773,3.9216,2.9557,0.0,8.5714,7.5556,1.0111,4.8309,1.0306,6.6345,1.9683,8.8235,7.6006
2.7804,3.873,1.9512,2.9412,3.9409,3.6423,2.8986,3.8188,-2.0065,2.9412,3.9409,3.9216,10.476,9.4603,4.8025,6.7633,3.9291,7.6006,1.9683,10.784,8.5668
4.6761,3.873,0.97561,8.8235,3.9409,2.6667,2.8986,3.8188,-3.9482,8.8235,3.9409,1.9608,11.429,6.6032,9.5419,4.8309,3.9291,12.432,-4.6984,15.686,4.7021
5.624,2.9206,-0.97561,0.0,3.9409,3.6423,-1.9324,2.8479,-4.9191,0.0,3.9409,-0.98039,8.5714,5.6508,10.49,4.8309,3.9291,14.364,-5.6508,16.667,0.83736
9.4155,2.9206,3.9024,-5.8824,3.9409,14.374,5.7971,2.8479,-4.9191,-5.8824,3.9409,2.9412,9.5238,9.4603,12.385,5.7971,6.8277,17.261999,-9.4603,14.706,-4.9597
11.311,6.7302,11.707,1.9608,5.9113,7.5447,13.527,5.7605,-4.9191,1.9608,5.9113,8.8235,13.333,9.4603,16.177,8.6957,12.625,15.33,-11.365,12.745,-3.9936
5.624,6.7302,11.707,10.784,5.9113,-4.1626,10.628,7.7023,-4.9191,10.784,5.9113,8.8235,11.429,6.6032,12.385,8.6957,11.659,8.5668,-5.6508,9.8039,1.8035
1.8325,5.7778,8.7805,0.0,-0.98522,-5.1382,3.8647,5.7605,-2.0065,0.0,-0.98522,4.902,7.619,4.6984,8.594,6.7633,7.7939,7.6006,-4.6984,7.8431,1.8035
2.7804,7.6825,7.8049,-7.8431,-8.867,-5.1382,2.8986,1.877,-2.0065,-7.8431,-8.867,1.9608,8.5714,5.6508,7.6461,5.7971,7.7939,4.7021,-3.746,7.8431,-2.0612
0.88468,1.9683,3.9024,-20.587999,-19.704,-6.1138,-1.9324,-2.9773,-3.9482,-20.587999,-19.704,-2.9412,6.6667,5.6508,1.0111,1.9324,3.9291,-1.095,-3.746,0.0,-6.8921
-0.06319,-1.8413,1.9512,-28.431,-27.586,-8.065,-5.7971,-6.8608,-5.89,-28.431,-27.586,-6.8627,4.7619,4.6984,-2.7804,0.96618,1.9968,-7.8583,-0.88889,-5.8824,-1.095
-4.8025,-2.7937,0.0,-28.431,-35.467999,-10.016,-9.6618,-12.686,-7.8317,-28.431,-35.467999,-10.784,1.9048,2.7937,-6.5719,0.0,-0.90177,-13.655,2.9206,-8.8235,3.7359
-6.6983,-0.88889,0.97561,-27.451,-34.483002,-10.992,-8.6957,-11.715,-5.89,-27.451,-34.483002,-8.8235,-1.9048,-1.0159,-7.5197,0.0,-1.868,-10.757,5.7778,-8.8235,4.7021
-8.594,-1.8413,-0.97561,-30.392,-34.483002,-10.992,-9.6618,-11.715,-8.8026,-30.392,-34.483002,-8.8235,-5.7143,-1.9683,-8.4676,-1.9324,-3.8003,-9.7907,1.0159,-8.8235,-3.0274
-5.7504,-1.8413,-2.9268,-31.372999,-28.570999,-7.0894,-7.7295,-7.8317,-6.8608,-31.372999,-28.570999,-7.8431,-2.8571,-1.9683,-4.6761,-1.9324,-3.8003,-7.8583,-1.8413,-2.9412,-0.12882
-2.9068,-7.5556,-5.8537,-29.412001,-36.452999,-8.065,-13.527,-3.9482,-11.715,-29.412001,-36.452999,-11.765,-2.8571,-2.9206,-0.88468,-3.8647,-3.8003,-2.0612,-2.7937,-1.9608,-1.095
-1.0111,-10.413,-4.878,-22.549,-35.467999,-9.0407,-13.527,-3.9482,-15.599,-22.549,-35.467999,-12.745,-2.8571,-4.8254,0.06319,-5.7971,-3.8003,-2.0612,-4.6984,-2.9412,-3.9936
-2.9068,-10.413,-5.8537,-23.528999,-35.467999,-10.992,-15.459,-6.8608,-17.540001,-23.528999,-35.467999,-13.725,-4.7619,-5.7778,-1.8325,-6.7633,-5.7327,-6.8921,-7.5556,-4.902,-2.0612
-5.7504,-5.6508,-6.8293,-25.49,-30.542,-10.016,-13.527,-8.8026,-13.657,-25.49,-30.542,-12.745,-6.6667,-2.9206,-3.7283,-1.9324,-5.7327,-4.9597,-3.746,-6.8627,3.7359
-3.8547,1.9683,-3.9024,-21.569,-19.704,-5.1382,-6.7633,-5.89,-6.8608,-21.569,-19.704,-8.8235,-3.8095,1.8413,0.06319,3.8647,-0.90177,4.7021,2.9206,-3.9216,4.7021
-3.8547,1.0159,-4.878,-16.667,-18.719,-7.0894,-6.7633,-6.8608,-5.89,-16.667,-18.719,-7.8431,-3.8095,1.8413,0.06319,2.8986,-0.90177,-0.12882,3.873,-4.902,2.7697
-4.8025,-2.7937,-4.878,-13.725,-19.704,-6.1138,-7.7295,-5.89,-5.89,-13.725,-19.704,-8.8235,-7.619,-5.7778,-2.7804,-0.96618,-3.8003,-5.9259,1.0159,-9.8039,1.8035
1.8325,6.7302,3.9024,-0.98039,-9.8522,-0.26016,1.9324,1.877,3.8188,-0.98039,-9.8522,-0.98039,-0.95238,2.7937,1.0111,6.7633,1.9968,-4.9597,6.7302,-6.8627,9.533
0.88468,7.6825,2.9268,0.0,-0.98522,-0.26016,6.7633,4.7896,6.7314,0.0,-0.98522,2.9412,-1.9048,-1.0159,-2.7804,3.8647,0.06441,-3.0274,4.8254,-8.8235,-6.8921
-3.8547,3.873,-0.97561,-1.9608,1.9704,-0.26016,7.7295,6.7314,7.7023,-1.9608,1.9704,2.9412,-6.6667,-7.6825,-8.4676,-2.8986,-5.7327,-6.8921,2.9206,-11.765,-15.588
-3.8547,2.9206,-0.97561,-0.98039,4.9261,3.6423,8.6957,5.7605,8.6731,-0.98039,4.9261,5.8824,-7.619,-6.7302,-8.4676,-3.8647,-5.7327,-6.8921,5.7778,-8.8235,-6.8921
-3.8547,0.06349,-1.9512,2.9412,4.9261,7.5447,9.6618,7.7023,8.6731,2.9412,4.9261,5.8824,-6.6667,-3.873,-8.4676,-2.8986,-5.7327,-3.9936,4.8254,-7.8431,-0.12882
-3.8547,0.06349,-1.9512,1.9608,-0.98522,3.6423,5.7971,-0.06472,4.7896,1.9608,-0.98522,2.9412,-3.8095,2.7937,-6.5719,-1.9324,-3.8003,-2.0612,6.7302,-6.8627,9.533
-0.06319,4.8254,1.9512,3.9216,-0.98522,1.6911,4.8309,0.90615,4.7896,3.9216,-0.98522,1.9608,-1.9048,1.8413,-0.88468,0.96618,-0.90177,-0.12882,6.7302,0.98039,5.6683
1.8325,3.873,2.9268,0.98039,1.9704,1.6911,3.8647,2.8479,5.7605,0.98039,1.9704,1.9608,-1.9048,-2.9206,1.9589,0.96618,-0.90177,1.8035,2.9206,5.8824,2.7697
2.7804,3.873,3.9024,-0.98039,3.9409,2.6667,4.8309,2.8479,6.7314,-0.98039,3.9409,2.9412,-5.7143,-3.873,0.06319,0.0,-1.868,-1.095,2.9206,-1.9608,6.6345
-1.0111,1.0159,0.97561,2.9412,2.9557,3.6423,3.8647,0.90615,3.8188,2.9412,2.9557,1.9608,-8.5714,-3.873,-4.6761,-1.9324,-3.8003,-3.9936,2.9206,-4.902,9.533
-4.8025,-5.6508,-2.9268,2.9412,3.9409,0.71545,0.0,-0.06472,1.877,2.9412,3.9409,0.0,-13.333,-6.7302,-9.4155,-6.7633,-7.6651,-3.0274,-1.8413,-7.8431,-4.9597
-1.0111,-7.5556,-1.9512,13.725,7.8818,3.6423,2.8986,2.8479,3.8188,13.725,7.8818,3.9216,-17.143,-10.54,-8.4676,-9.6618,-7.6651,-1.095,-3.746,-6.8627,-13.655
5.624,-2.7937,3.9024,4.902,6.8966,8.5203,5.7971,-1.0356,0.90615,4.902,6.8966,6.8627,-11.429,-7.6825,-2.7804,-4.8309,-1.868,4.7021,-1.8413,-4.902,-7.8583
7.5197,0.06349,5.8537,-0.98039,10.837,7.5447,5.7971,-1.0356,6.7314,-0.98039,10.837,6.8627,-6.6667,-5.7778,1.0111,-1.9324,1.9968,3.7359,1.0159,-4.902,-7.8583
2.7804,2.9206,4.878,8.8235,12.808,1.6911,7.7295,0.90615,16.440001,8.8235,12.808,4.902,-8.5714,-7.6825,-0.88468,-0.96618,1.0306,-2.0612,6.7302,-7.8431,-4.9597
2.7804,11.492,6.8293,9.8039,9.8522,0.71545,12.56,-1.0356,20.323999,9.8039,9.8522,7.8431,-6.6667,-3.873,0.06319,4.8309,3.9291,-3.9936,11.492,-7.8431,-1.095
4.6761,18.159,6.8293,12.745,13.793,4.6179,18.357,-1.0356,23.236,12.745,13.793,11.765,-1.9048,0.88889,2.9068,10.628,7.7939,-2.0612,16.254,-6.8627,3.7359
1.8325,15.302,1.9512,13.725,16.749001,4.6179,17.391001,0.90615,24.207001,13.725,16.749001,8.8235,-0.95238,-0.06349,1.0111,7.7295,4.8953,-1.095,15.302,-3.9216,4.7021
-0.06319,7.6825,-1.9512,14.706,14.778,1.6911,13.527,-5.89,16.440001,14.706,14.778,4.902,2.8571,1.8413,2.9068,3.8647,2.963,-0.12882,9.5873,2.9412,2.7697
3.7283,6.7302,2.9268,13.725,18.719,4.6179,12.56,-3.9482,16.440001,13.725,18.719,6.8627,7.619,8.5079,9.5419,6.7633,7.7939,3.7359,7.6825,8.8235,2.7697
3.7283,5.7778,4.878,7.8431,17.733999,3.6423,16.424999,-1.0356,14.498,7.8431,17.733999,8.8235,6.6667,7.5556,8.594,6.7633,6.8277,1.8035,6.7302,6.8627,0.83736
-5.7504,-0.88889,-1.9512,6.8627,7.8818,-1.2358,8.6957,-5.89,7.7023,6.8627,7.8818,1.9608,3.8095,4.6984,-1.8325,0.0,-0.90177,-5.9259,1.0159,-3.9216,0.83736
-6.6983,-3.746,-5.8537,1.9608,3.9409,-3.187,0.0,-5.89,-1.0356,1.9608,3.9409,-1.9608,2.8571,2.7937,-4.6761,-1.9324,-3.8003,-3.0274,-3.746,-2.9412,1.8035
-4.8025,-1.8413,-4.878,1.9608,6.8966,-1.2358,-0.96618,-1.0356,-0.06472,1.9608,6.8966,-1.9608,3.8095,4.6984,-1.8325,0.96618,-1.868,0.83736,-4.6984,6.8627,7.6006
-0.06319,2.9206,-0.97561,7.8431,10.837,1.6911,4.8309,4.7896,5.7605,7.8431,10.837,1.9608,2.8571,4.6984,1.0111,2.8986,1.0306,4.7021,-3.746,12.745,5.6683
-1.0111,0.06349,-1.9512,6.8627,7.8818,0.71545,1.9324,3.8188,0.90615,6.8627,7.8818,0.0,-1.9048,1.8413,-1.8325,0.0,-1.868,2.7697,-2.7937,6.8627,2.7697
1.8325,-2.7937,1.9512,8.8235,8.867,4.6179,1.9324,0.90615,-3.9482,8.8235,8.867,2.9412,-2.8571,-0.06349,-1.8325,-2.8986,-1.868,0.83736,-4.6984,1.9608,-0.12882
6.5719,-1.8413,5.8537,10.784,9.8522,6.5691,2.8986,5.7605,-1.0356,10.784,9.8522,5.8824,-0.95238,-0.06349,3.8547,-2.8986,1.0306,5.6683,-6.6032,8.8235,-4.9597
10.363,-0.88889,8.7805,16.667,13.793,14.374,6.7633,6.7314,3.8188,16.667,13.793,10.784,-1.9048,-2.9206,6.6983,-2.8986,3.9291,10.499,-1.8413,10.784,-9.7907
11.311,1.0159,11.707,13.725,19.704,16.325001,13.527,6.7314,8.6731,13.725,19.704,14.706,-2.8571,-5.7778,5.7504,-2.8986,3.9291,3.7359,1.0159,0.98039,-5.9259
8.4676,3.873,11.707,14.706,20.690001,11.447,15.459,6.7314,13.528,14.706,20.690001,16.667,-4.7619,-6.7302,0.06319,-1.9324,1.9968,-4.9597,4.8254,-10.784,-3.0274
8.4676,5.7778,12.683,17.646999,24.631001,10.472,15.459,1.877,15.469,17.646999,24.631001,17.646999,-2.8571,-2.9206,1.0111,1.9324,3.9291,-3.9936,7.6825,-10.784,-3.0274
11.311,7.6825,12.683,16.667,26.601,12.423,15.459,-2.0065,16.440001,16.667,26.601,17.646999,1.9048,-1.0159,6.6983,5.7971,7.7939,1.8035,6.7302,-2.9412,-2.0612
8.4676,13.397,12.683,19.608,23.645,13.398,18.357,-0.06472,15.469,19.608,23.645,17.646999,6.6667,2.7937,7.6461,10.628,10.692,-1.095,12.444,-3.9216,-1.095
8.4676,21.016001,17.561001,22.549,25.615999,12.423,19.323999,5.7605,16.440001,22.549,25.615999,18.627001,12.381,14.222,9.5419,19.323999,14.557,-3.0274,15.302,0.0,14.364
7.5197,21.968,18.537001,27.451,25.615999,9.4959,18.357,7.7023,15.469,27.451,25.615999,18.627001,13.333,13.27,7.6461,19.323999,14.557,-3.9936,13.397,4.902,11.465
4.6761,17.205999,12.683,16.667,16.749001,4.6179,11.594,7.7023,10.615,16.667,16.749001,11.765,11.429,10.413,6.6983,15.459,11.659,1.8035,8.6349,6.8627,6.6345
-2.9068,5.7778,0.0,2.9412,5.9113,-5.1382,0.0,-0.06472,0.90615,2.9412,5.9113,-1.9608,7.619,10.413,1.9589,8.6957,4.8953,1.8035,3.873,5.8824,12.432
-4.8025,-0.88889,-6.8293,1.9608,1.9704,-7.0894,-5.7971,-0.06472,-2.0065,1.9608,1.9704,-7.8431,8.5714,10.413,2.9068,4.8309,2.963,0.83736,1.0159,12.745,10.499
-1.9589,-4.6984,-7.8049,0.0,2.9557,-5.1382,-7.7295,1.877,-2.9773,0.0,2.9557,-6.8627,6.6667,4.6984,5.7504,0.96618,1.9968,9.533,-2.7937,15.686,7.6006
2.7804,-4.6984,-5.8537,0.0,4.9261,2.6667,-4.8309,0.90615,-5.89,0.0,4.9261,-3.9216,1.9048,-1.0159,6.6983,-0.96618,1.9968,13.398,-6.6032,12.745,-1.095
9.4155,0.06349,-0.97561,11.765,9.8522,6.5691,4.8309,2.8479,-4.9191,11.765,9.8522,2.9412,3.8095,0.88889,9.5419,0.96618,3.9291,15.33,-5.6508,9.8039,-1.095
6.5719,-6.6032,-3.9024,2.9412,0.98522,1.6911,-4.8309,-1.0356,-8.8026,2.9412,0.98522,-1.9608,3.8095,-0.06349,7.6461,-4.8309,1.0306,7.6006,-7.5556,10.784,0.83736
3.7283,-14.222,-6.8293,-6.8627,-3.9409,-5.1382,-13.527,-4.9191,-12.686,-6.8627,-3.9409,-7.8431,0.95238,-3.873,5.7504,-10.628,-1.868,2.7697,-14.222,7.8431,-5.9259
5.624,-11.365,-1.9512,6.8627,-1.9704,-5.1382,-8.6957,-3.9482,-11.715,6.8627,-1.9704,-5.8824,2.8571,-2.9206,7.6461,-7.7295,1.0306,-0.12882,-12.317,4.902,-3.0274
6.5719,-7.5556,1.9512,1.9608,2.9557,-1.2358,-10.628,-4.9191,-7.8317,1.9608,2.9557,-2.9412,2.8571,-0.06349,5.7504,-4.8309,2.963,-0.12882,-4.6984,3.9216,0.83736
9.4155,-2.7937,5.8537,3.9216,11.823,4.6179,-3.8647,-0.06472,-2.0065,3.9216,11.823,3.9216,2.8571,-2.9206,6.6983,-3.8647,3.9291,4.7021,-1.8413,4.902,-2.0612
7.5197,1.9683,5.8537,11.765,12.808,5.5935,3.8647,2.8479,2.8479,11.765,12.808,6.8627,0.95238,-1.9683,3.8547,-0.96618,2.963,-2.0612,1.0159,0.0,-0.12882
2.7804,2.9206,2.9268,13.725,9.8522,5.5935,5.7971,2.8479,4.7896,13.725,9.8522,6.8627,1.9048,3.746,-1.8325,0.96618,1.9968,-3.0274,5.7778,-6.8627,8.5668
2.7804,2.9206,4.878,16.667,13.793,10.472,10.628,8.6731,9.644,16.667,13.793,9.8039,6.6667,4.6984,0.06319,0.96618,3.9291,2.7697,4.8254,-1.9608,1.8035
2.7804,4.8254,7.8049,12.745,20.690001,10.472,11.594,12.557,9.644,12.745,20.690001,12.745,3.8095,-0.06349,0.06319,0.96618,3.9291,4.7021,3.873,-0.98039,-2.0612
0.88468,5.7778,7.8049,12.745,17.733999,8.5203,8.6957,9.644,5.7605,12.745,17.733999,11.765,0.95238,-1.0159,1.0111,0.96618,2.963,5.6683,3.873,0.98039,1.8035
3.7283,6.7302,7.8049,12.745,17.733999,10.472,8.6957,7.7023,3.8188,12.745,17.733999,10.784,3.8095,3.746,3.8547,3.8647,4.8953,3.7359,6.7302,5.8824,5.6683
3.7283,6.7302,4.878,6.8627,11.823,8.5203,6.7633,6.7314,3.8188,6.8627,11.823,6.8627,4.7619,3.746,7.6461,6.7633,5.8615,4.7021,5.7778,12.745,2.7697
3.7283,6.7302,3.9024,10.784,8.867,8.5203,8.6957,5.7605,2.8479,10.784,8.867,5.8824,7.619,3.746,9.5419,6.7633,6.8277,8.5668,2.9206,12.745,-3.0274
6.5719,11.492,7.8049,4.902,5.9113,7.5447,9.6618,0.90615,1.877,4.902,5.9113,7.8431,12.381,9.4603,12.385,12.56,10.692,8.5668,6.7302,11.765,7.6006
8.4676,10.54,8.7805,6.8627,11.823,4.6179,9.6618,4.7896,4.7896,6.8627,11.823,8.8235,8.5714,7.5556,11.438,9.6618,9.7262,9.533,5.7778,7.8431,4.7021
5.624,2.9206,3.9024,18.627001,12.808,3.6423,1.9324,1.877,-0.06472,18.627001,12.808,4.902,0.0,-0.06349,3.8547,1.9324,2.963,9.533,-1.8413,0.0,-3.0274
2.7804,0.06349,1.9512,15.686,12.808,0.71545,-0.96618,-2.9773,-2.9773,15.686,12.808,2.9412,-1.9048,-0.06349,-1.8325,0.0,0.06441,-0.12882,-3.746,-0.98039,4.7021
-6.6983,-8.5079,-7.8049,0.0,9.8522,-8.065,-6.7633,-7.8317,-5.89,0.0,9.8522,-5.8824,-6.6667,-1.9683,-9.4155,-6.7633,-7.6651,-8.8245,-3.746,-4.902,4.7021
-7.6461,-11.365,-10.732,4.902,9.8522,-6.1138,-7.7295,-5.89,-7.8317,4.902,9.8522,-5.8824,-5.7143,-4.8254,-11.311,-9.6618,-8.6312,-7.8583,-6.6032,-5.8824,3.7359
-3.8547,-7.5556,-6.8293,10.784,11.823,-1.2358,-3.8647,-1.0356,-5.89,10.784,11.823,-0.98039,-2.8571,-3.873,-7.5197,-7.7295,-6.6989,-3.9936,-7.5556,-4.902,4.7021
4.6761,0.06349,0.97561,13.725,14.778,5.5935,1.9324,3.8188,-2.0065,13.725,14.778,4.902,1.9048,0.88889,1.0111,-1.9324,0.06441,1.8035,-1.8413,4.902,5.6683
3.7283,0.06349,0.0,7.8431,14.778,4.6179,-1.9324,4.7896,-2.9773,7.8431,14.778,2.9412,2.8571,-0.06349,2.9068,-0.96618,1.0306,1.8035,-4.6984,1.9608,-2.0612
-1.0111,-3.746,-3.9024,7.8431,14.778,1.6911,-0.96618,3.8188,-0.06472,7.8431,14.778,0.0,1.9048,-1.9683,0.06319,-2.8986,-0.90177,0.83736,-4.6984,-3.9216,-3.9936
-0.06319,-5.6508,-3.9024,10.784,14.778,3.6423,1.9324,5.7605,1.877,10.784,14.778,0.98039,4.7619,-1.0159,2.9068,-2.8986,0.06441,-0.12882,-3.746,-2.9412,-10.757
-0.06319,-6.6032,-2.9268,10.784,9.8522,3.6423,0.0,6.7314,-1.0356,10.784,9.8522,0.98039,2.8571,-2.9206,1.9589,-3.8647,-0.90177,4.7021,-3.746,-0.98039,-14.622
7.5197,1.9683,3.9024,19.608,12.808,8.5203,5.7971,9.644,1.877,19.608,12.808,7.8431,7.619,6.6032,7.6461,4.8309,4.8953,12.432,3.873,5.8824,0.83736
9.4155,5.7778,4.878,14.706,16.749001,12.423,4.8309,9.644,4.7896,14.706,16.749001,8.8235,9.5238,5.6508,8.594,9.6618,7.7939,14.364,4.8254,6.8627,3.7359
8.4676,5.7778,1.9512,9.8039,13.793,10.472,3.8647,10.615,1.877,9.8039,13.793,5.8824,8.5714,3.746,8.594,8.6957,6.8277,12.432,3.873,10.784,4.7021
6.5719,7.6825,3.9024,12.745,11.823,11.447,5.7971,14.498,1.877,12.745,11.823,7.8431,8.5714,6.6032,7.6461,10.628,7.7939,10.499,1.9683,10.784,5.6683
9.4155,10.54,9.7561,17.646999,11.823,15.35,11.594,21.294001,1.877,17.646999,11.823,14.706,10.476,7.5556,10.49,11.594,8.7601,19.195,-0.88889,14.706,0.83736
13.207,11.492,11.707,22.549,11.823,18.275999,13.527,23.236,-0.06472,22.549,11.823,16.667,11.429,6.6032,12.385,8.6957,8.7601,18.229,-1.8413,15.686,-3.9936
14.155,11.492,11.707,23.528999,17.733999,16.325001,11.594,21.294001,3.8188,23.528999,17.733999,16.667,13.333,7.5556,11.438,9.6618,9.7262,16.296,1.0159,11.765,-1.095
9.4155,5.7778,4.878,19.608,16.749001,7.5447,3.8647,15.469,4.7896,19.608,16.749001,8.8235,10.476,5.6508,7.6461,4.8309,5.8615,15.33,1.0159,11.765,-2.0612
-1.0111,-3.746,-5.8537,0.0,-0.98522,-5.1382,-5.7971,1.877,-3.9482,0.0,-0.98522,-2.9412,1.9048,-1.0159,-2.7804,-3.8647,-4.7665,3.7359,-5.6508,3.9216,1.8035
-5.7504,-9.4603,-7.8049,-3.9216,-1.9704,-5.1382,-9.6618,-2.0065,-4.9191,-3.9216,-1.9704,-4.902,-3.8095,-3.873,-7.5197,-9.6618,-9.5974,4.7021,-5.6508,0.0,0.83736
-6.6983,-12.317,-6.8293,-2.9412,-0.98522,-3.187,-10.628,-2.9773,-3.9482,-2.9412,-0.98522,-4.902,-7.619,-9.5873,-10.363,-13.527,-12.496,2.7697,-6.6032,-0.98039,-5.9259
-13.333,-13.27,-10.732,-7.8431,-8.867,-9.0407,-13.527,-4.9191,-9.7735,-7.8431,-8.867,-9.8039,-11.429,-12.444,-16.997999,-15.459,-16.361,-7.8583,-7.5556,-8.8235,-1.095
-12.385,-12.317,-10.732,-5.8824,-1.9704,-10.992,-13.527,-3.9482,-6.8608,-5.8824,-1.9704,-11.765,-13.333,-11.492,-16.051001,-14.493,-16.361,-8.8245,-4.6984,-11.765,-3.0274
-11.438,-14.222,-11.707,-3.9216,-2.9557,-9.0407,-12.56,-4.9191,-2.9773,-3.9216,-2.9557,-11.765,-13.333,-12.444,-16.051001,-16.424999,-16.361,-13.655,-1.8413,-14.706,-9.7907
-15.229,-18.983999,-17.561001,-7.8431,-8.867,-11.967,-16.424999,-8.8026,-4.9191,-7.8431,-8.867,-17.646999,-14.286,-13.397,-17.945999,-21.256001,-21.191999,-21.385,-4.6984,-19.608,-12.689
-17.125,-16.127001,-17.561001,-4.902,-3.9409,-11.967,-11.594,-10.744,-2.0065,-4.902,-3.9409,-16.667,-13.333,-14.349,-18.893999,-19.323999,-20.225,-18.486,-2.7937,-18.627001,-8.8245
-19.021,-6.6032,-10.732,0.98039,3.9409,-10.992,-2.8986,-4.9191,5.7605,0.98039,3.9409,-8.8235,-13.333,-13.397,-18.893999,-12.56,-16.361,-13.655,2.9206,-20.587999,-1.095
-18.073,-1.8413,-5.8537,2.9412,10.837,-11.967,0.96618,-2.9773,9.644,2.9412,10.837,-3.9216,-13.333,-9.5873,-16.051001,-7.7295,-11.53,-11.723,5.7778,-17.646999,0.83736
-10.49,1.0159,-0.97561,1.9608,9.8522,-7.0894,3.8647,-5.89,11.586,1.9608,9.8522,-1.9608,-8.5714,-5.7778,-9.4155,-1.9324,-4.7665,-8.8245,9.5873,-11.765,-3.0274
-1.9589,3.873,0.97561,-1.9608,1.9704,-3.187,3.8647,-2.0065,7.7023,-1.9608,1.9704,-0.98039,-6.6667,-3.873,-3.7283,2.8986,0.06441,-3.9936,7.6825,-6.8627,2.7697
-3.8547,1.9683,-1.9512,-5.8824,-2.9557,-4.1626,1.9324,-2.9773,6.7314,-5.8824,-2.9557,-5.8824,-7.619,-3.873,-4.6761,1.9324,-1.868,-9.7907,5.7778,-8.8235,-0.12882
0.88468,1.9683,0.97561,2.9412,6.8966,0.71545,4.8309,2.8479,11.586,2.9412,6.8966,0.0,-4.7619,-3.873,-1.8325,2.8986,1.0306,-2.0612,5.7778,-3.9216,-8.8245
3.7283,2.9206,4.878,0.0,9.8522,2.6667,5.7971,5.7605,13.528,0.0,9.8522,1.9608,-2.8571,-1.9683,1.0111,3.8647,2.963,4.7021,5.7778,3.9216,-6.8921
5.624,4.8254,5.8537,-2.9412,8.867,2.6667,6.7633,-0.06472,10.615,-2.9412,8.867,3.9216,-0.95238,-1.0159,1.9589,5.7971,3.9291,3.7359,6.7302,1.9608,3.7359
2.7804,1.9683,0.97561,-2.9412,4.9261,0.71545,0.96618,-2.9773,6.7314,-2.9412,4.9261,0.0,-4.7619,-4.8254,0.06319,0.96618,0.06441,3.7359,6.7302,-0.98039,3.7359
-0.06319,1.9683,-1.9512,-0.98039,3.9409,-0.26016,3.8647,-2.9773,7.7023,-0.98039,3.9409,0.98039,-4.7619,-1.0159,-1.8325,0.0,-1.868,-3.9936,7.6825,-2.9412,4.7021
-4.8025,-0.88889,-3.9024,-4.902,0.0,-2.2114,4.8309,-2.9773,4.7896,-4.902,0.0,-0.98039,-10.476,-5.7778,-7.5197,-4.8309,-6.6989,-4.9597,1.9683,-5.8824,2.7697
-6.6983,-0.88889,-2.9268,-2.9412,0.0,-4.1626,2.8986,-2.9773,2.8479,-2.9412,0.0,-1.9608,-12.381,-8.6349,-10.363,-5.7971,-7.6651,-3.9936,1.9683,-8.8235,-1.095
-10.49,0.06349,-3.9024,-7.8431,-5.9113,-7.0894,-0.96618,-4.9191,2.8479,-7.8431,-5.9113,-4.902,-9.5238,-2.9206,-12.259,-1.9324,-6.6989,-9.7907,5.7778,-11.765,2.7697
-12.385,-0.88889,-6.8293,-12.745,-4.9261,-10.992,-4.8309,-4.9191,0.90615,-12.745,-4.9261,-7.8431,-10.476,-4.8254,-12.259,-2.8986,-7.6651,-10.757,5.7778,-10.784,5.6683
-10.49,-1.8413,-7.8049,-2.9412,1.9704,-9.0407,-1.9324,-6.8608,-0.06472,-2.9412,1.9704,-5.8824,-8.5714,-2.9206,-10.363,-2.8986,-5.7327,-13.655,4.8254,-11.765,-0.12882
-11.438,-5.6508,-7.8049,-0.98039,-2.9557,-10.016,-5.7971,-7.8317,-2.9773,-0.98039,-2.9557,-6.8627,-6.6667,-1.0159,-11.311,-3.8647,-6.6989,-15.588,-0.88889,-15.686,-0.12882
-5.7504,-3.746,-4.878,-7.8431,-4.9261,-6.1138,-2.8986,-5.89,-3.9482,-7.8431,-4.9261,-5.8824,-3.8095,2.7937,-3.7283,-0.96618,-2.8341,-5.9259,-0.88889,-6.8627,7.6006
-1.0111,0.06349,0.0,-8.8235,-3.9409,-2.2114,0.0,-2.9773,-1.0356,-8.8235,-3.9409,-3.9216,-3.8095,1.8413,1.9589,1.9324,1.9968,-5.9259,5.7778,-2.9412,7.6006
5.624,1.9683,4.878,1.9608,-0.98522,1.6911,0.96618,2.8479,-2.9773,1.9608,-0.98522,0.0,2.8571,1.8413,9.5419,2.8986,6.8277,-0.12882,1.0159,1.9608,-1.095
11.311,1.9683,7.8049,6.8627,1.9704,5.5935,0.0,5.7605,-2.9773,6.8627,1.9704,3.9216,8.5714,3.746,14.281,2.8986,10.692,2.7697,-3.746,8.8235,-3.9936
9.4155,0.06349,4.878,2.9412,0.0,4.6179,0.0,1.877,-5.89,2.9412,0.0,2.9412,3.8095,3.746,12.385,1.9324,8.7601,6.6345,-4.6984,10.784,2.7697
4.6761,-0.88889,3.9024,0.98039,-0.98522,2.6667,-0.96618,-1.0356,-4.9191,0.98039,-0.98522,2.9412,-2.8571,-3.873,6.6983,-0.96618,4.8953,5.6683,-3.746,4.902,-7.8583
0.88468,-2.7937,2.9268,0.98039,-1.9704,3.6423,-0.96618,2.8479,-2.0065,0.98039,-1.9704,3.9216,-5.7143,-5.7778,0.06319,-2.8986,1.9968,1.8035,-1.8413,-0.98039,-10.757
-1.0111,-4.6984,1.9512,-6.8627,-0.98522,7.5447,-2.8986,-0.06472,-2.9773,-6.8627,-0.98522,3.9216,-2.8571,-2.9206,-1.8325,-2.8986,0.06441,-0.12882,-2.7937,-4.902,-5.9259
-0.06319,-3.746,0.97561,0.98039,-0.98522,9.4959,-0.96618,2.8479,-2.9773,0.98039,-0.98522,3.9216,0.0,2.7937,-0.88468,-0.96618,1.9968,3.7359,-2.7937,-2.9412,2.7697
0.88468,-1.8413,0.0,7.8431,-3.9409,1.6911,-0.96618,6.7314,-4.9191,7.8431,-3.9409,1.9608,1.9048,5.6508,0.06319,0.96618,1.9968,4.7021,-1.8413,1.9608,1.8035
1.8325,0.06349,0.0,9.8039,-3.9409,-0.26016,-0.96618,4.7896,-5.89,9.8039,-3.9409,0.98039,0.95238,0.88889,0.06319,0.96618,2.963,-0.12882,-2.7937,6.8627,-3.0274
3.7283,3.873,2.9268,3.9216,-2.9557,2.6667,1.9324,6.7314,-2.9773,3.9216,-2.9557,3.9216,-0.95238,-1.0159,0.06319,3.8647,4.8953,5.6683,0.06349,4.902,-3.0274
6.5719,4.8254,4.878,2.9412,-1.9704,5.5935,1.9324,3.8188,-3.9482,2.9412,-1.9704,4.902,0.0,0.88889,2.9068,5.7971,6.8277,7.6006,1.0159,4.902,0.83736
9.4155,7.6825,6.8293,5.8824,3.9409,9.4959,4.8309,1.877,-3.9482,5.8824,3.9409,8.8235,1.9048,4.6984,4.8025,8.6957,8.7601,3.7359,0.06349,5.8824,2.7697
6.5719,7.6825,5.8537,-0.98039,0.0,4.6179,3.8647,-0.06472,-3.9482,-0.98039,0.0,5.8824,1.9048,8.5079,3.8547,8.6957,7.7939,-1.095,-0.88889,1.9608,3.7359
6.5719,7.6825,5.8537,-0.98039,-0.98522,2.6667,3.8647,-2.0065,-2.9773,-0.98039,-0.98522,3.9216,5.7143,9.4603,5.7504,9.6618,8.7601,-0.12882,2.9206,0.98039,15.33
4.6761,3.873,4.878,-6.8627,-7.8818,0.71545,0.0,-2.9773,-7.8317,-6.8627,-7.8818,0.98039,3.8095,4.6984,5.7504,5.7971,6.8277,0.83736,-1.8413,0.0,8.5668
8.4676,5.7778,7.8049,-2.9412,-7.8818,2.6667,0.96618,-2.0065,-5.89,-2.9412,-7.8818,1.9608,6.6667,5.6508,9.5419,6.7633,8.7601,0.83736,-2.7937,3.9216,6.6345
6.5719,7.6825,6.8293,4.902,-5.9113,2.6667,0.0,-3.9482,-4.9191,4.902,-5.9113,1.9608,8.5714,9.4603,10.49,8.6957,8.7601,-0.12882,-0.88889,4.902,9.533
4.6761,6.7302,4.878,2.9412,-3.9409,-2.2114,1.9324,-2.9773,-5.89,2.9412,-3.9409,-0.98039,8.5714,11.365,8.594,7.7295,7.7939,-3.0274,1.0159,5.8824,11.465
8.4676,10.54,6.8293,2.9412,-0.98522,4.6179,4.8309,1.877,-2.9773,2.9412,-0.98522,3.9216,12.381,11.365,12.385,11.594,10.692,5.6683,2.9206,13.725,8.5668
10.363,8.6349,7.8049,-1.9608,0.98522,7.5447,5.7971,3.8188,-2.9773,-1.9608,0.98522,6.8627,13.333,9.4603,12.385,9.6618,10.692,5.6683,-2.7937,16.667,-2.0612
5.624,1.9683,1.9512,0.98039,-2.9557,6.5691,-0.96618,2.8479,-6.8608,0.98039,-2.9557,3.9216,9.5238,4.6984,7.6461,3.8647,5.8615,2.7697,-9.4603,12.745,-8.8245
1.8325,-1.8413,-1.9512,0.98039,-3.9409,1.6911,-1.9324,-2.0065,-4.9191,0.98039,-3.9409,0.98039,3.8095,0.88889,3.8547,0.0,1.0306,2.7697,-7.5556,8.8235,-4.9597
-1.9589,-4.6984,-2.9268,2.9412,-1.9704,-3.187,-0.96618,-3.9482,-2.9773,2.9412,-1.9704,-0.98039,-1.9048,-1.9683,-0.88468,-2.8986,-2.8341,-3.9936,-4.6984,1.9608,-5.9259
-3.8547,-0.88889,-1.9512,4.902,3.9409,-2.2114,0.96618,-2.9773,-1.0356,4.902,3.9409,0.0,-4.7619,-1.0159,-5.624,-0.96618,-3.8003,-4.9597,-2.7937,-5.8824,-4.9597
0.88468,3.873,2.9268,0.98039,6.8966,2.6667,4.8309,-1.0356,1.877,0.98039,6.8966,3.9216,-3.8095,0.88889,-3.7283,2.8986,-0.90177,1.8035,0.06349,-1.9608,1.8035
4.6761,4.8254,5.8537,3.9216,6.8966,6.5691,5.7971,1.877,1.877,3.9216,6.8966,6.8627,0.0,3.746,0.06319,3.8647,1.9968,7.6006,0.06349,-0.98039,5.6683
0.88468,1.0159,1.9512,7.8431,3.9409,3.6423,5.7971,-0.06472,-1.0356,7.8431,3.9409,5.8824,1.9048,2.7937,-0.88468,0.96618,0.06441,0.83736,0.06349,0.0,5.6683
-1.0111,-0.88889,0.0,3.9216,0.98522,0.71545,4.8309,-1.0356,-0.06472,3.9216,0.98522,2.9412,1.9048,2.7937,-0.88468,-0.96618,0.06441,-3.0274,1.0159,0.98039,4.7021
0.88468,-1.8413,1.9512,-4.902,-0.98522,1.6911,-1.9324,-2.0065,-1.0356,-4.902,-0.98522,2.9412,0.95238,0.88889,1.9589,0.0,1.0306,-2.0612,1.0159,3.9216,4.7021
-1.0111,-1.8413,0.0,-12.745,-6.8966,-0.26016,-5.7971,-6.8608,-3.9482,-12.745,-6.8966,-0.98039,1.9048,-0.06349,1.9589,0.96618,1.0306,-4.9597,-0.88889,0.98039,1.8035
-0.06319,1.9683,1.9512,-2.9412,-3.9409,-1.2358,-3.8647,-11.715,-7.8317,-2.9412,-3.9409,-0.98039,5.7143,4.6984,3.8547,4.8309,3.9291,-2.0612,0.06349,-0.98039,4.7021
-3.8547,2.9206,-1.9512,0.0,-1.9704,-5.1382,-3.8647,-4.9191,-6.8608,0.0,-1.9704,-2.9412,6.6667,6.6032,2.9068,4.8309,2.963,-2.0612,2.9206,1.9608,6.6345
-8.594,-3.746,-6.8293,-2.9412,-5.9113,-9.0407,-5.7971,0.90615,-7.8317,-2.9412,-5.9113,-6.8627,2.8571,-0.06349,-1.8325,-2.8986,-2.8341,-6.8921,-1.8413,2.9412,1.8035
0.88468,-1.8413,0.97561,4.902,0.98522,1.6911,0.96618,11.586,-2.9773,4.902,0.98522,2.9412,4.7619,1.8413,1.0111,-0.96618,0.06441,1.8035,-1.8413,2.9412,2.7697
2.7804,-0.88889,2.9268,7.8431,0.98522,6.5691,2.8986,12.557,-2.0065,7.8431,0.98522,4.902,4.7619,1.8413,1.0111,0.0,-0.90177,4.7021,2.9206,1.9608,2.7697
-4.8025,-9.4603,-6.8293,-1.9608,-6.8966,-0.26016,-9.6618,3.8188,-7.8317,-1.9608,-6.8966,-6.8627,-0.95238,0.88889,-6.5719,-3.8647,-7.6651,-1.095,-1.8413,-2.9412,-2.0612
-7.6461,-12.317,-13.659,-6.8627,-6.8966,-5.1382,-16.424999,0.90615,-11.715,-6.8627,-6.8966,-12.745,-4.7619,-4.8254,-8.4676,-8.6957,-10.564,1.8035,-6.6032,-4.902,-4.9597
-9.5419,-9.4603,-13.659,0.98039,-10.837,-8.065,-9.6618,2.8479,-11.715,0.98039,-10.837,-12.745,-2.8571,-6.7302,-8.4676,-8.6957,-10.564,2.7697,-9.4603,-3.9216,-13.655
-6.6983,-4.6984,-7.8049,2.9412,-5.9113,-5.1382,-2.8986,5.7605,-6.8608,2.9412,-5.9113,-6.8627,-3.8095,-3.873,-8.4676,-4.8309,-7.6651,0.83736,-6.6032,-3.9216,-11.723
-1.0111,0.06349,0.0,-0.98039,-0.98522,-1.2358,0.96618,8.6731,-2.9773,-0.98039,-0.98522,-0.98039,-2.8571,-1.0159,-3.7283,0.0,-1.868,4.7021,-1.8413,-2.9412,0.83736
4.6761,0.06349,1.9512,-1.9608,-3.9409,2.6667,-1.9324,8.6731,-6.8608,-1.9608,-3.9409,0.0,-1.9048,-1.0159,1.9589,-0.96618,0.06441,4.7021,-3.746,3.9216,-2.0612
7.5197,-0.88889,0.97561,-1.9608,0.98522,6.5691,-4.8309,7.7023,-4.9191,-1.9608,0.98522,0.98039,0.95238,0.88889,4.8025,-0.96618,1.0306,6.6345,-4.6984,6.8627,-2.0612
-1.0111,-2.7937,-3.9024,0.98039,-2.9557,3.6423,-5.7971,4.7896,-4.9191,0.98039,-2.9557,-3.9216,-0.95238,0.88889,-0.88468,-3.8647,-3.8003,3.7359,-4.6984,-1.9608,-3.0274
-1.0111,-2.7937,-1.9512,9.8039,0.0,1.6911,-1.9324,5.7605,-4.9191,9.8039,0.0,-0.98039,-1.9048,-3.873,0.06319,-4.8309,-3.8003,1.8035,-5.6508,-2.9412,-5.9259
3.7283,-4.6984,2.9268,3.9216,0.98522,3.6423,-1.9324,6.7314,-0.06472,3.9216,0.98522,1.9608,0.95238,-4.8254,3.8547,-5.7971,-0.90177,5.6683,-6.6032,3.9216,-5.9259
3.7283,-7.5556,0.97561,-2.9412,-0.98522,2.6667,-4.8309,2.8479,-2.0065,-2.9412,-0.98522,0.98039,2.8571,0.88889,3.8547,-4.8309,-0.90177,6.6345,-6.6032,6.8627,-3.0274
-0.06319,-7.5556,-4.878,-7.8431,-6.8966,-4.1626,-10.628,-2.9773,-5.89,-7.8431,-6.8966,-5.8824,1.9048,1.8413,1.9589,-1.9324,-1.868,-0.12882,-2.7937,4.902,-0.12882
-4.8025,-4.6984,-7.8049,-10.784,-12.808,-9.0407,-10.628,-4.9191,-7.8317,-10.784,-12.808,-8.8235,2.8571,0.88889,0.06319,1.9324,-0.90177,-3.0274,-2.7937,2.9412,4.7021
-4.8025,-1.8413,-5.8537,-3.9216,-9.8522,-6.1138,-7.7295,-1.0356,-7.8317,-3.9216,-9.8522,-6.8627,3.8095,2.7937,0.06319,3.8647,-0.90177,-3.9936,-1.8413,2.9412,7.6006
0.88468,-1.8413,0.97561,5.8824,-0.98522,5.5935,-2.8986,6.7314,-5.89,5.8824,-0.98522,2.9412,8.5714,4.6984,3.8547,4.8309,2.963,0.83736,-2.7937,5.8824,5.6683
1.8325,-1.8413,4.878,2.9412,0.0,9.4959,-3.8647,8.6731,-5.89,2.9412,0.0,5.8824,3.8095,1.8413,1.9589,2.8986,2.963,0.83736,-4.6984,0.98039,3.7359
1.8325,-1.8413,3.9024,1.9608,3.9409,6.5691,-0.96618,6.7314,-3.9482,1.9608,3.9409,6.8627,-1.9048,-1.9683,-1.8325,-0.96618,1.0306,-1.095,-4.6984,-3.9216,0.83736
2.7804,-1.8413,3.9024,1.9608,0.98522,4.6179,0.0,1.877,-3.9482,1.9608,0.98522,4.902,-2.8571,-5.7778,-0.88468,-2.8986,0.06441,2.7697,-4.6984,-1.9608,-4.9597
2.7804,-3.746,2.9268,-1.9608,-4.9261,1.6911,-1.9324,-1.0356,-8.8026,-1.9608,-4.9261,1.9608,-3.8095,-6.7302,-1.8325,-3.8647,-0.90177,5.6683,-3.746,-3.9216,-4.9597
4.6761,0.06349,4.878,0.98039,-2.9557,4.6179,2.8986,3.8188,-3.9482,0.98039,-2.9557,4.902,-2.8571,-3.873,-1.8325,-1.9324,-0.90177,7.6006,-2.7937,-1.9608,-5.9259
0.88468,0.06349,1.9512,-0.98039,-2.9557,2.6667,2.8986,1.877,-2.0065,-0.98039,-2.9557,3.9216,-3.8095,-1.9683,-4.6761,-1.9324,-3.8003,3.7359,-1.8413,0.0,-1.095
-1.0111,-2.7937,-0.97561,-3.9216,-4.9261,-2.2114,0.0,-2.0065,-4.9191,-3.9216,-4.9261,-0.98039,-0.95238,0.88889,0.06319,-0.96618,-1.868,0.83736,-1.8413,7.8431,1.8035
1.8325,-3.746,0.0,-8.8235,-4.9261,-3.187,-2.8986,-1.0356,-3.9482,-8.8235,-4.9261,-2.9412,5.7143,0.88889,4.8025,0.0,2.963,4.7021,-4.6984,8.8235,-4.9597
5.624,-2.7937,2.9268,-6.8627,-5.9113,-4.1626,-6.7633,2.8479,-4.9191,-6.8627,-5.9113,-3.9216,12.381,4.6984,11.438,2.8986,7.7939,12.432,-4.6984,16.667,-4.9597
9.4155,-1.8413,4.878,-5.8824,-8.867,-4.1626,-6.7633,2.8479,-9.7735,-5.8824,-8.867,-6.8627,19.048,10.413,19.021,5.7971,11.659,14.364,-7.5556,26.471001,-3.0274
11.311,-0.88889,6.8293,-7.8431,-9.8522,-5.1382,-5.7971,0.90615,-12.686,-7.8431,-9.8522,-7.8431,21.905001,14.222,23.76,7.7295,15.523,18.229,-5.6508,24.51,1.8035
11.311,-0.88889,5.8537,-6.8627,-9.8522,-7.0894,-5.7971,3.8188,-9.7735,-6.8627,-9.8522,-7.8431,24.761999,17.079,25.656,8.6957,17.455999,20.160999,-5.6508,22.549,-0.12882
6.5719,-3.746,0.97561,-7.8431,-8.867,-3.187,-7.7295,3.8188,-8.8026,-7.8431,-8.867,-7.8431,20.0,9.4603,19.021,3.8647,11.659,14.364,-8.5079,18.627001,-1.095
-1.0111,-7.5556,-4.878,-3.9216,-6.8966,2.6667,-10.628,6.7314,-6.8608,-3.9216,-6.8966,-5.8824,7.619,2.7937,6.6983,-3.8647,1.0306,7.6006,-7.5556,6.8627,-3.9936
-1.0111,-3.746,-0.97561,3.9216,0.98522,6.5691,-1.9324,4.7896,-0.06472,3.9216,0.98522,1.9608,0.95238,-0.06349,1.0111,-4.8309,-2.8341,3.7359,0.06349,0.0,-3.9936
3.7283,1.0159,5.8537,3.9216,3.9409,9.4959,6.7633,3.8188,4.7896,3.9216,3.9409,8.8235,-1.9048,-1.9683,0.06319,-1.9324,-1.868,0.83736,0.06349,0.0,-3.0274
7.5197,7.6825,11.707,0.0,3.9409,10.472,10.628,1.877,5.7605,0.0,3.9409,12.745,-3.8095,-1.0159,-2.7804,2.8986,1.0306,-7.8583,4.8254,-7.8431,-0.12882
4.6761,10.54,10.732,-8.8235,0.98522,5.5935,6.7633,-6.8608,1.877,-8.8235,0.98522,7.8431,-7.619,-2.9206,-6.5719,4.8309,1.0306,-10.757,8.6349,-16.667,2.7697
4.6761,8.6349,7.8049,1.9608,0.98522,0.71545,3.8647,-5.89,2.8479,1.9608,0.98522,6.8627,-7.619,-3.873,-5.624,5.7971,1.0306,-9.7907,5.7778,-15.686,-0.12882
2.7804,6.7302,4.878,1.9608,-0.98522,-1.2358,2.8986,-3.9482,6.7314,1.9608,-0.98522,4.902,-2.8571,1.8413,-3.7283,8.6957,2.963,-5.9259,4.8254,-12.745,3.7359
-2.9068,6.7302,0.97561,-6.8627,-2.9557,-7.0894,3.8647,-6.8608,6.7314,-6.8627,-2.9557,0.98039,0.0,4.6984,-3.7283,10.628,1.9968,-5.9259,8.6349,-7.8431,12.432
-6.6983,6.7302,-1.9512,-9.8039,-5.9113,-11.967,2.8986,-10.744,4.7896,-9.8039,-5.9113,-3.9216,2.8571,6.6032,-2.7804,9.6618,1.0306,-7.8583,7.6825,-0.98039,10.499
-6.6983,6.7302,-2.9268,-15.686,-7.8818,-15.87,0.0,-12.686,1.877,-15.686,-7.8818,-8.8235,2.8571,7.5556,-0.88468,8.6957,1.0306,-5.9259,7.6825,0.0,11.465
-7.6461,1.9683,-4.878,-17.646999,-12.808,-18.797001,-2.8986,-15.599,-0.06472,-17.646999,-12.808,-13.725,4.7619,7.5556,1.9589,6.7633,1.0306,-3.0274,7.6825,2.9412,10.499
-11.438,-4.6984,-8.7805,-18.627001,-15.764,-18.797001,-7.7295,-14.628,-1.0356,-18.627001,-15.764,-18.627001,4.7619,8.5079,0.06319,1.9324,-1.868,-9.7907,1.9683,2.9412,4.7021
-11.438,-5.6508,-9.7561,-15.686,-9.8522,-14.894,-6.7633,-12.686,0.90615,-15.686,-9.8522,-14.706,3.8095,4.6984,-2.7804,-0.96618,-3.8003,-8.8245,1.0159,0.0,0.83736
-12.385,-3.746,-9.7561,-16.667,-6.8966,-11.967,-7.7295,-13.657,-1.0356,-16.667,-6.8966,-11.765,-0.95238,-1.9683,-6.5719,-2.8986,-5.7327,-11.723,2.9206,-3.9216,-3.0274
-3.8547,1.0159,-1.9512,-5.8824,-0.98522,-4.1626,1.9324,-5.89,2.8479,-5.8824,-0.98522,-1.9608,-1.9048,-1.9683,-3.7283,-0.96618,-2.8341,-3.9936,-1.8413,-6.8627,0.83736
0.88468,5.7778,4.878,3.9216,6.8966,3.6423,11.594,2.8479,10.615,3.9216,6.8966,6.8627,-2.8571,-3.873,0.06319,1.9324,1.0306,1.8035,4.8254,-5.8824,0.83736
-1.9589,2.9206,3.9024,2.9412,5.9113,4.6179,3.8647,-2.0065,10.615,2.9412,5.9113,4.902,-6.6667,-6.7302,-4.6761,0.96618,-0.90177,-11.723,5.7778,-15.686,-3.0274
-2.9068,3.873,4.878,9.8039,6.8966,5.5935,3.8647,-2.0065,9.644,9.8039,6.8966,4.902,-8.5714,-3.873,-8.4676,3.8647,0.06441,-15.588,3.873,-22.549,-3.9936
5.624,7.6825,10.732,15.686,12.808,8.5203,9.6618,6.7314,9.644,15.686,12.808,11.765,-6.6667,-1.0159,-3.7283,7.7295,3.9291,-3.0274,3.873,-15.686,1.8035
8.4676,9.5873,12.683,20.587999,11.823,9.4959,10.628,9.644,8.6731,20.587999,11.823,13.725,-3.8095,0.88889,0.06319,8.6957,5.8615,-2.0612,1.9683,-7.8431,2.7697
7.5197,8.6349,10.732,9.8039,12.808,8.5203,11.594,5.7605,7.7023,9.8039,12.808,12.745,-1.9048,2.7937,1.0111,8.6957,5.8615,-1.095,2.9206,-2.9412,1.8035
2.7804,4.8254,4.878,0.98039,5.9113,4.6179,4.8309,2.8479,7.7023,0.98039,5.9113,5.8824,-2.8571,3.746,1.0111,5.7971,2.963,-0.12882,6.7302,-0.98039,2.7697
-3.8547,0.06349,-2.9268,1.9608,-2.9557,-0.26016,-1.9324,2.8479,5.7605,1.9608,-2.9557,-1.9608,-3.8095,2.7937,-4.6761,1.9324,-1.868,-3.9936,6.7302,-4.902,9.533
-10.49,-5.6508,-10.732,-4.902,-6.8966,-8.065,-8.6957,-2.0065,1.877,-4.902,-6.8966,-9.8039,-6.6667,-1.9683,-10.363,-4.8309,-8.6312,-4.9597,5.7778,-3.9216,1.8035
-11.438,-10.413,-14.634,-5.8824,-7.8818,-10.992,-10.628,-4.9191,-2.0065,-5.8824,-7.8818,-13.725,-9.5238,-10.54,-13.207,-12.56,-13.462,-4.9597,1.0159,-6.8627,-7.8583
-15.229,-14.222,-17.561001,-15.686,-14.778,-15.87,-14.493,-9.7735,-5.89,-15.686,-14.778,-17.646999,-13.333,-17.205999,-15.103,-19.323999,-18.292999,-3.9936,-3.746,-7.8431,-4.9597
-12.385,-13.27,-15.61,-12.745,-10.837,-10.992,-13.527,-7.8317,-0.06472,-12.745,-10.837,-14.706,-8.5714,-13.397,-10.363,-18.357,-14.428,-0.12882,-0.88889,-5.8824,-5.9259
-8.594,-9.4603,-12.683,-2.9412,-2.9557,-4.1626,-5.7971,-3.9482,8.6731,-2.9412,-2.9557,-9.8039,-4.7619,-8.6349,-6.5719,-12.56,-9.5974,-1.095,4.8254,-4.902,-6.8921
-10.49,-8.5079,-13.659,-6.8627,-7.8818,-7.0894,-5.7971,-6.8608,6.7314,-6.8627,-7.8818,-12.745,-6.6667,-6.7302,-6.5719,-10.628,-8.6312,-3.0274,4.8254,-2.9412,-3.9936
-9.5419,-8.5079,-11.707,-12.745,-10.837,-10.992,-6.7633,-7.8317,3.8188,-12.745,-10.837,-12.745,-7.619,-5.7778,-6.5719,-9.6618,-8.6312,-5.9259,0.06349,-3.9216,-3.9936
-6.6983,-8.5079,-9.7561,-15.686,-9.8522,-10.992,-6.7633,-6.8608,1.877,-15.686,-9.8522,-10.784,-10.476,-9.5873,-6.5719,-10.628,-8.6312,-7.8583,-2.7937,-4.902,-7.8583
-0.06319,-3.746,-2.9268,-1.9608,0.0,-1.2358,2.8986,-3.9482,5.7605,-1.9608,0.0,-0.98039,-6.6667,-5.7778,-2.7804,-7.7295,-3.8003,-2.0612,0.06349,-3.9216,-3.9936
5.624,1.9683,4.878,10.784,6.8966,6.5691,9.6618,0.90615,10.615,10.784,6.8966,7.8431,-1.9048,0.88889,1.9589,-0.96618,1.9968,-0.12882,0.06349,0.0,0.83736
4.6761,4.8254,6.8293,8.8235,7.8818,5.5935,11.594,2.8479,10.615,8.8235,7.8818,9.8039,-2.8571,-0.06349,2.9068,1.9324,4.8953,-1.095,2.9206,1.9608,4.7021
3.7283,6.7302,7.8049,-0.98039,8.867,6.5691,10.628,0.90615,8.6731,-0.98039,8.867,8.8235,-1.9048,1.8413,2.9068,5.7971,5.8615,0.83736,2.9206,1.9608,6.6345
4.6761,5.7778,7.8049,6.8627,10.837,8.5203,10.628,2.8479,8.6731,6.8627,10.837,9.8039,0.0,2.7937,2.9068,4.8309,4.8953,1.8035,0.06349,2.9412,-0.12882
-0.06319,4.8254,2.9268,4.902,2.9557,1.6911,7.7295,-3.9482,6.7314,4.902,2.9557,4.902,0.0,2.7937,-1.8325,2.8986,1.0306,-2.0612,4.8254,-2.9412,1.8035
-0.06319,8.6349,2.9268,0.98039,5.9113,-1.2358,8.6957,-1.0356,9.644,0.98039,5.9113,5.8824,-0.95238,4.6984,-3.7283,3.8647,0.06441,-0.12882,11.492,-2.9412,3.7359
0.88468,7.6825,1.9512,6.8627,11.823,2.6667,10.628,3.8188,12.557,6.8627,11.823,7.8431,-0.95238,-2.9206,-3.7283,-0.96618,-3.8003,2.7697,10.54,0.0,-4.9597
1.8325,3.873,0.0,4.902,9.8522,6.5691,10.628,4.7896,10.615,4.902,9.8522,7.8431,0.0,-6.7302,-1.8325,-4.8309,-4.7665,6.6345,6.7302,1.9608,0.83736
2.7804,2.9206,0.97561,8.8235,9.8522,3.6423,8.6957,4.7896,7.7023,8.8235,9.8522,7.8431,-1.9048,-5.7778,-0.88468,-4.8309,-4.7665,2.7697,3.873,1.9608,-0.12882
3.7283,2.9206,2.9268,13.725,11.823,4.6179,8.6957,3.8188,9.644,13.725,11.823,9.8039,-4.7619,-8.6349,-0.88468,-4.8309,-4.7665,-0.12882,2.9206,0.98039,-7.8583
-0.06319,0.06349,-0.97561,7.8431,8.867,2.6667,7.7295,1.877,6.7314,7.8431,8.867,4.902,-8.5714,-8.6349,-6.5719,-6.7633,-7.6651,1.8035,3.873,-4.902,-3.9936
-2.9068,-0.88889,-6.8293,-0.98039,4.9261,-0.26016,0.96618,-0.06472,6.7314,-0.98039,4.9261,-2.9412,-6.6667,-1.9683,-6.5719,-4.8309,-6.6989,-0.12882,4.8254,-2.9412,2.7697
-7.6461,-1.8413,-7.8049,-7.8431,2.9557,-7.0894,-1.9324,-5.89,5.7605,-7.8431,2.9557,-7.8431,-7.619,-2.9206,-8.4676,-3.8647,-6.6989,-3.9936,3.873,-3.9216,4.7021
-7.6461,0.06349,-3.9024,-10.784,-2.9557,-9.0407,-1.9324,-9.7735,2.8479,-10.784,-2.9557,-7.8431,-3.8095,1.8413,-5.624,1.9324,-1.868,-6.8921,2.9206,-3.9216,8.5668
-0.06319,5.7778,2.9268,-3.9216,-0.98522,-1.2358,3.8647,-5.89,0.90615,-3.9216,-0.98522,-0.98039,3.8095,7.5556,2.9068,8.6957,5.8615,-3.0274,2.9206,2.9412,6.6345
2.7804,5.7778,0.97561,0.0,0.0,0.71545,2.8986,-2.9773,5.7605,0.0,0.0,-1.9608,6.6667,8.5079,7.6461,10.628,8.7601,2.7697,2.9206,5.8824,3.7359
4.6761,4.8254,0.0,-8.8235,-4.9261,-2.2114,0.96618,-6.8608,7.7023,-8.8235,-4.9261,-4.902,11.429,10.413,12.385,11.594,12.625,3.7359,2.9206,9.8039,10.499
3.7283,4.8254,0.97561,-15.686,-8.867,-5.1382,-0.96618,-6.8608,5.7605,-15.686,-8.867,-5.8824,14.286,16.127001,11.438,11.594,12.625,-1.095,1.9683,6.8627,8.5668
-2.9068,-1.8413,-2.9268,-17.646999,-14.778,-10.016,-6.7633,-10.744,-0.06472,-17.646999,-14.778,-9.8039,10.476,9.4603,5.7504,5.7971,6.8277,-5.9259,-0.88889,0.98039,4.7021
-4.8025,-4.6984,-4.878,-18.627001,-15.764,-11.967,-9.6618,-11.715,-2.9773,-18.627001,-15.764,-10.784,8.5714,9.4603,5.7504,3.8647,3.9291,-3.0274,0.06349,6.8627,4.7021
-2.9068,0.06349,-1.9512,-13.725,-6.8966,-8.065,-0.96618,-8.8026,-0.06472,-13.725,-6.8966,-4.902,6.6667,4.6984,4.8025,3.8647,3.9291,1.8035,3.873,4.902,4.7021
-1.0111,1.9683,-0.97561,-11.765,-12.808,-4.1626,-1.9324,-5.89,1.877,-11.765,-12.808,-2.9412,6.6667,2.7937,6.6983,2.8986,3.9291,1.8035,1.0159,6.8627,2.7697
1.8325,1.9683,0.97561,-9.8039,-11.823,-1.2358,-4.8309,-6.8608,2.8479,-9.8039,-11.823,-0.98039,7.619,1.8413,6.6983,3.8647,4.8953,4.7021,1.9683,4.902,5.6683
1.8325,2.9206,4.878,-6.8627,-5.9113,3.6423,0.96618,-2.9773,5.7605,-6.8627,-5.9113,4.902,2.8571,0.88889,3.8547,3.8647,3.9291,4.7021,2.9206,1.9608,0.83736
1.8325,4.8254,6.8293,1.9608,1.9704,7.5447,14.493,0.90615,11.586,1.9608,1.9704,12.745,-4.7619,-2.9206,-1.8325,1.9324,0.06441,-1.095,6.7302,-1.9608,-0.12882
5.624,6.7302,10.732,8.8235,11.823,10.472,21.256001,1.877,16.440001,8.8235,11.823,18.627001,-8.5714,-2.9206,0.06319,1.9324,0.06441,5.6683,10.54,0.0,-3.0274
0.88468,4.8254,5.8537,-3.9216,7.8818,4.6179,13.527,0.90615,13.528,-3.9216,7.8818,12.745,-10.476,-4.8254,-4.6761,-0.96618,-3.8003,-3.9936,6.7302,-6.8627,-2.0612
0.88468,7.6825,1.9512,1.9608,2.9557,2.6667,11.594,-1.0356,10.615,1.9608,2.9557,9.8039,-8.5714,-3.873,-5.624,0.96618,-3.8003,-3.9936,5.7778,-8.8235,3.7359
-0.06319,5.7778,-0.97561,0.98039,-0.98522,-0.26016,6.7633,-2.0065,6.7314,0.98039,-0.98522,4.902,-5.7143,-2.9206,-4.6761,0.0,-3.8003,-0.12882,4.8254,-4.902,2.7697
-0.06319,3.873,1.9512,-2.9412,1.9704,0.71545,6.7633,-2.0065,6.7314,-2.9412,1.9704,5.8824,-4.7619,-5.7778,-4.6761,-2.8986,-2.8341,2.7697,1.9683,-1.9608,-0.12882
-1.0111,1.0159,1.9512,2.9412,1.9704,2.6667,2.8986,0.90615,4.7896,2.9412,1.9704,3.9216,-4.7619,-5.7778,-4.6761,-2.8986,-1.868,0.83736,1.9683,-6.8627,0.83736
-1.0111,-3.746,-1.9512,0.0,0.98522,0.71545,0.96618,3.8188,0.90615,0.0,0.98522,0.0,-0.95238,-1.9683,-3.7283,-3.8647,-0.90177,-0.12882,1.9683,-3.9216,-1.095
-2.9068,-7.5556,-7.8049,-5.8824,-5.9113,-4.1626,-5.7971,3.8188,-6.8608,-5.8824,-5.9113,-6.8627,1.9048,-1.0159,-1.8325,-4.8309,-1.868,1.8035,-2.7937,0.0,-4.9597
-1.0111,-8.5079,-8.7805,0.98039,-5.9113,-2.2114,-8.6957,2.8479,-5.89,0.98039,-5.9113,-7.8431,5.7143,-1.9683,1.9589,-5.7971,-1.868,3.7359,-5.6508,5.8824,-3.9936
-0.06319,-9.4603,-6.8293,0.98039,-6.8966,2.6667,-4.8309,1.877,-2.0065,0.98039,-6.8966,-6.8627,8.5714,-0.06349,5.7504,-5.7971,0.06441,5.6683,-6.6032,8.8235,-5.9259
-0.06319,-7.5556,-5.8537,-6.8627,-5.9113,-0.26016,-5.7971,-0.06472,-2.0065,-6.8627,-5.9113,-5.8824,6.6667,2.7937,4.8025,-2.8986,0.06441,2.7697,-2.7937,3.9216,1.8035
-1.0111,-5.6508,-7.8049,-10.784,-4.9261,-5.1382,-7.7295,-4.9191,-2.0065,-10.784,-4.9261,-8.8235,6.6667,5.6508,3.8547,-0.96618,-0.90177,-2.0612,0.06349,3.9216,7.6006
-2.9068,-6.6032,-9.7561,0.98039,-2.9557,-5.1382,-5.7971,-3.9482,-1.0356,0.98039,-2.9557,-8.8235,3.8095,2.7937,0.06319,-2.8986,-3.8003,-2.0612,-0.88889,3.9216,2.7697
-5.7504,-7.5556,-8.7805,-1.9608,-7.8818,-6.1138,-5.7971,-0.06472,-3.9482,-1.9608,-7.8818,-8.8235,1.9048,2.7937,-1.8325,-2.8986,-4.7665,-7.8583,-4.6984,5.8824,-0.12882
-3.8547,-4.6984,-4.878,-2.9412,-4.9261,-3.187,-3.8647,0.90615,-2.9773,-2.9412,-4.9261,-5.8824,0.95238,2.7937,-2.7804,-0.96618,-3.8003,-3.9936,-2.7937,4.902,1.8035
-1.9589,-3.746,-0.97561,-7.8431,0.0,-2.2114,-4.8309,5.7605,-1.0356,-7.8431,0.0,-3.9216,-3.8095,-1.0159,-2.7804,-0.96618,-3.8003,3.7359,-0.88889,0.98039,-2.0612
-0.06319,-0.88889,1.9512,-7.8431,-0.98522,-3.187,-0.96618,4.7896,0.90615,-7.8431,-0.98522,-1.9608,-4.7619,-2.9206,1.0111,0.0,-0.90177,8.5668,1.0159,4.902,-4.9597
0.88468,-2.7937,3.9024,0.98039,0.0,-1.2358,-1.9324,4.7896,-2.0065,0.98039,0.0,-0.98039,-2.8571,-3.873,1.0111,-0.96618,1.0306,2.7697,-0.88889,1.9608,-8.8245
1.8325,-3.746,5.8537,-0.98039,-1.9704,0.71545,-6.7633,3.8188,-4.9191,-0.98039,-1.9704,0.0,-3.8095,-4.8254,-0.88468,-3.8647,1.0306,3.7359,-4.6984,-0.98039,-9.7907
2.7804,0.06349,8.7805,5.8824,0.98522,-0.26016,0.0,0.90615,-2.9773,5.8824,0.98522,4.902,-2.8571,-4.8254,-0.88468,-1.9324,1.9968,3.7359,-1.8413,-1.9608,-1.095
1.8325,0.06349,7.8049,6.8627,2.9557,1.6911,2.8986,4.7896,-1.0356,6.8627,2.9557,4.902,0.95238,-4.8254,0.06319,-3.8647,1.0306,4.7021,-0.88889,0.0,-6.8921
-4.8025,-3.746,0.0,-0.98039,0.0,-2.2114,0.0,-0.06472,-3.9482,-0.98039,0.0,-0.98039,-0.95238,-7.6825,-3.7283,-8.6957,-4.7665,-1.095,0.06349,-2.9412,-4.9597
-10.49,-6.6032,-6.8293,-5.8824,-0.98522,-9.0407,-5.7971,-4.9191,-3.9482,-5.8824,-0.98522,-7.8431,-0.95238,-8.6349,-6.5719,-10.628,-8.6312,-5.9259,-0.88889,-1.9608,-1.095
-7.6461,-7.5556,-5.8537,2.9412,0.98522,-6.1138,-4.8309,-2.0065,-4.9191,2.9412,0.98522,-5.8824,1.9048,-4.8254,-4.6761,-9.6618,-7.6651,-3.0274,-1.8413,-2.9412,1.8035
-4.8025,-3.746,-5.8537,-0.98039,-4.9261,-3.187,-2.8986,-2.0065,-3.9482,-0.98039,-4.9261,-3.9216,1.9048,-1.9683,-4.6761,-8.6957,-8.6312,-2.0612,-1.8413,-2.9412,2.7697
-2.9068,-1.8413,-4.878,-1.9608,-3.9409,0.71545,0.0,-0.06472,-1.0356,-1.9608,-3.9409,-1.9608,3.8095,1.8413,-2.7804,-5.7971,-7.6651,-4.9597,-0.88889,0.0,1.8035
-5.7504,-2.7937,-8.7805,-2.9412,-2.9557,-1.2358,-2.8986,-1.0356,-2.9773,-2.9412,-2.9557,-4.902,0.95238,5.6508,-4.6761,-3.8647,-9.5974,-8.8245,-0.88889,-0.98039,1.8035
-4.8025,-1.8413,-8.7805,-3.9216,-3.9409,-2.2114,-3.8647,1.877,-3.9482,-3.9216,-3.9409,-3.9216,0.0,4.6984,-2.7804,0.0,-6.6989,-2.0612,-2.7937,2.9412,-0.12882
3.7283,3.873,0.97561,-2.9412,0.98522,3.6423,1.9324,4.7896,-1.0356,-2.9412,0.98522,2.9412,6.6667,10.413,6.6983,7.7295,3.9291,5.6683,-2.7937,8.8235,2.7697
16.997999,11.492,12.683,8.8235,2.9557,11.447,5.7971,3.8188,-6.8608,8.8235,2.9557,10.784,16.190001,18.983999,19.968,17.391001,16.49,16.296,-2.7937,21.569,4.7021
18.893999,4.8254,12.683,16.667,4.9261,15.35,0.0,13.528,-7.8317,16.667,4.9261,9.8039,18.094999,14.222,21.864,12.56,16.49,19.195,-7.5556,24.51,-3.0274
11.311,-3.746,4.878,7.8431,0.0,9.4959,-7.7295,17.410999,-10.744,7.8431,0.0,2.9412,12.381,6.6032,13.333,4.8309,9.7262,14.364,-9.4603,16.667,-5.9259
9.4155,-3.746,3.9024,0.0,-1.9704,5.5935,-9.6618,16.440001,-13.657,0.0,-1.9704,-0.98039,11.429,1.8413,12.385,1.9324,9.7262,19.195,-10.413,16.667,-7.8583
2.7804,-6.6032,0.97561,5.8824,0.0,2.6667,-10.628,14.498,-14.628,5.8824,0.0,-2.9412,2.8571,-5.7778,3.8547,-3.8647,1.9968,13.398,-10.413,7.8431,-6.8921
0.88468,-3.746,0.97561,4.902,0.98522,6.5691,-3.8647,13.528,-12.686,4.902,0.98522,0.98039,-2.8571,-7.6825,-2.7804,-5.7971,-2.8341,9.533,-6.6032,5.8824,-4.9597
-3.8547,-3.746,-1.9512,5.8824,1.9704,9.4959,-0.96618,8.6731,-15.599,5.8824,1.9704,2.9412,-9.5238,-13.397,-12.259,-10.628,-10.564,1.8035,-6.6032,-7.8431,-10.757
-14.281,-10.413,-9.7561,-5.8824,0.98522,-4.1626,-6.7633,-0.06472,-16.57,-5.8824,0.98522,-3.9216,-18.094999,-18.159,-25.528999,-18.357,-21.191999,-8.8245,-9.4603,-24.51,-9.7907
-17.125,-13.27,-12.683,-2.9412,-3.9409,-13.919,-13.527,-0.06472,-14.628,-2.9412,-3.9409,-9.8039,-14.286,-12.444,-23.632999,-17.391001,-21.191999,-10.757,-6.6032,-21.569,-1.095
-13.333,-11.365,-10.732,5.8824,0.0,-10.016,-10.628,2.8479,-9.7735,5.8824,0.0,-9.8039,-6.6667,-6.7302,-13.207,-11.594,-14.428,-7.8583,-1.8413,-10.784,5.6683
-8.594,-8.5079,-8.7805,3.9216,1.9704,-7.0894,-7.7295,-0.06472,-5.89,3.9216,1.9704,-9.8039,-4.7619,-0.06349,-6.5719,-5.7971,-8.6312,-9.7907,1.0159,-4.902,8.5668
-1.9589,-6.6032,-5.8537,0.98039,-0.98522,-4.1626,-7.7295,-0.06472,-6.8608,0.98039,-0.98522,-8.8235,-2.8571,4.6984,1.9589,-1.9324,-1.868,1.8035,0.06349,-0.98039,2.7697
4.6761,-4.6984,-0.97561,-7.8431,-1.9704,-1.2358,-9.6618,-1.0356,-8.8026,-7.8431,-1.9704,-5.8824,2.8571,6.6032,9.5419,1.9324,2.963,4.7021,-2.7937,2.9412,-0.12882
6.5719,-3.746,1.9512,-8.8235,-1.9704,-2.2114,-7.7295,-2.0065,-10.744,-8.8235,-1.9704,-3.9216,7.619,6.6032,11.438,4.8309,6.8277,0.83736,-2.7937,4.902,1.8035
9.4155,1.9683,5.8537,0.98039,3.9409,0.71545,0.0,2.8479,-5.89,0.98039,3.9409,0.98039,11.429,11.365,18.073,9.6618,12.625,8.5668,-1.8413,11.765,-1.095
5.624,1.0159,3.9024,5.8824,6.8966,0.71545,-0.96618,2.8479,-2.9773,5.8824,6.8966,0.98039,9.5238,7.5556,11.438,7.7295,10.692,2.7697,-3.746,3.9216,-3.0274
2.7804,0.06349,0.97561,6.8627,7.8818,3.6423,-0.96618,1.877,-1.0356,6.8627,7.8818,1.9608,4.7619,-1.0159,2.9068,1.9324,4.8953,-0.12882,-2.7937,-0.98039,-5.9259
2.7804,3.873,2.9268,4.902,9.8522,9.4959,7.7295,-0.06472,0.90615,4.902,9.8522,6.8627,-2.8571,-4.8254,-0.88468,0.96618,1.9968,-1.095,0.06349,-2.9412,-1.095
-0.06319,4.8254,2.9268,1.9608,8.867,9.4959,10.628,3.8188,0.90615,1.9608,8.867,7.8431,-6.6667,-5.7778,-7.5197,-0.96618,-2.8341,-3.9936,1.0159,-8.8235,-0.12882
-3.8547,1.9683,-1.9512,9.8039,6.8966,-0.26016,5.7971,5.7605,0.90615,9.8039,6.8966,3.9216,-13.333,-13.397,-11.311,-6.7633,-8.6312,-2.0612,1.9683,-12.745,-3.9936
-2.9068,-0.88889,-1.9512,21.569,5.9113,-0.26016,1.9324,6.7314,1.877,21.569,5.9113,3.9216,-11.429,-13.397,-10.363,-8.6957,-8.6312,-3.0274,0.06349,-10.784,-11.723
-3.8547,-0.88889,-0.97561,6.8627,10.837,-0.26016,4.8309,4.7896,3.8188,6.8627,10.837,2.9412,-5.7143,-6.7302,-8.4676,-5.7971,-6.6989,-6.8921,0.06349,-11.765,-8.8245
-6.6983,-0.88889,-1.9512,-0.98039,3.9409,-2.2114,6.7633,-1.0356,1.877,-0.98039,3.9409,1.9608,-5.7143,-3.873,-8.4676,-2.8986,-4.7665,-6.8921,-0.88889,-12.745,-0.12882
-0.06319,1.9683,2.9268,4.902,6.8966,1.6911,6.7633,3.8188,1.877,4.902,6.8966,5.8824,-3.8095,0.88889,0.06319,1.9324,1.0306,2.7697,3.873,-2.9412,2.7697
0.88468,-1.8413,0.97561,5.8824,2.9557,0.71545,0.0,-0.06472,-0.06472,5.8824,2.9557,1.9608,-4.7619,0.88889,0.06319,1.9324,1.0306,2.7697,1.9683,-5.8824,12.432
-3.8547,-8.5079,-5.8537,-6.8627,-3.9409,-4.1626,-6.7633,-6.8608,-5.89,-6.8627,-3.9409,-6.8627,-4.7619,-0.06349,-2.7804,-2.8986,-2.8341,-5.9259,-5.6508,-6.8627,3.7359
-0.06319,-3.746,-1.9512,-1.9608,0.98522,-1.2358,-1.9324,-2.0065,-2.0065,-1.9608,0.98522,-2.9412,2.8571,6.6032,2.9068,0.0,1.9968,-5.9259,-2.7937,1.9608,4.7021
4.6761,1.0159,4.878,8.8235,1.9704,4.6179,0.96618,2.8479,3.8188,8.8235,1.9704,3.9216,8.5714,10.413,8.594,3.8647,8.7601,1.8035,1.0159,13.725,7.6006
2.7804,-0.88889,3.9024,3.9216,4.9261,1.6911,0.0,-1.0356,-0.06472,3.9216,4.9261,4.902,4.7619,3.746,4.8025,0.96618,5.8615,2.7697,0.06349,11.765,0.83736
3.7283,0.06349,3.9024,3.9216,11.823,3.6423,4.8309,-0.06472,3.8188,3.9216,11.823,5.8824,-0.95238,-2.9206,1.9589,-0.96618,2.963,1.8035,1.0159,5.8824,0.83736
5.624,1.0159,3.9024,6.8627,10.837,6.5691,5.7971,3.8188,6.7314,6.8627,10.837,7.8431,-6.6667,-7.6825,0.06319,-0.96618,1.0306,2.7697,2.9206,1.9608,-2.0612
5.624,1.0159,1.9512,11.765,7.8818,7.5447,4.8309,5.7605,3.8188,11.765,7.8818,7.8431,-12.381,-14.349,-2.7804,-3.8647,-1.868,4.7021,-0.88889,-2.9412,-9.7907
6.5719,3.873,4.878,11.765,12.808,9.4959,4.8309,7.7023,7.7023,11.765,12.808,9.8039,-15.238,-19.111,-5.624,-3.8647,-2.8341,0.83736,1.0159,-12.745,-11.723
7.5197,3.873,5.8537,14.706,11.823,8.5203,3.8647,8.6731,9.644,14.706,11.823,8.8235,-14.286,-16.254,-4.6761,-1.9324,-1.868,-4.9597,5.7778,-13.725,-11.723
2.7804,-0.88889,0.0,6.8627,6.8966,2.6667,0.0,-2.0065,5.7605,6.8627,6.8966,1.9608,-11.429,-10.54,-4.6761,-3.8647,-3.8003,-3.9936,1.9683,-12.745,-9.7907
-2.9068,-3.746,-6.8293,-10.784,0.98522,-3.187,-4.8309,-7.8317,-0.06472,-10.784,0.98522,-5.8824,-5.7143,-2.9206,-3.7283,-2.8986,-4.7665,-1.095,0.06349,-9.8039,-3.0274
-3.8547,-1.8413,-6.8293,-11.765,-3.9409,-4.1626,-5.7971,-6.8608,0.90615,-11.765,-3.9409,-7.8431,0.95238,4.6984,0.06319,1.9324,0.06441,-6.8921,2.9206,-4.902,2.7697
-3.8547,1.0159,-4.878,-3.9216,-2.9557,-5.1382,0.0,-7.8317,2.8479,-3.9216,-2.9557,-6.8627,10.476,15.175,5.7504,7.7295,5.8615,-6.8921,1.9683,0.98039,5.6683
-5.7504,0.06349,-5.8537,-0.98039,-6.8966,-14.894,-4.8309,-10.744,-0.06472,-0.98039,-6.8966,-12.745,15.238,20.889,9.5419,10.628,8.7601,-1.095,0.06349,7.8431,14.364
-2.9068,-1.8413,-4.878,-2.9412,-9.8522,-20.747999,-9.6618,-11.715,-5.89,-2.9412,-9.8522,-15.686,20.952,23.746,16.177,12.56,13.591,0.83736,-1.8413,16.667,16.296
-1.0111,-1.8413,-0.97561,-9.8039,-6.8966,-15.87,-10.628,-9.7735,-7.8317,-9.8039,-6.8966,-13.725,22.857,21.841,17.125,14.493,16.49,-1.095,-2.7937,20.587999,14.364
3.7283,1.9683,2.9268,-10.784,-3.9409,-7.0894,-2.8986,-4.9191,-2.0065,-10.784,-3.9409,-5.8824,18.094999,17.079,16.177,13.527,16.49,4.7021,1.9683,19.608,15.33
4.6761,2.9206,4.878,-3.9216,0.0,-0.26016,0.0,-2.9773,1.877,-3.9216,0.0,1.9608,9.5238,6.6032,7.6461,7.7295,11.659,1.8035,0.06349,11.765,2.7697
-0.06319,2.9206,3.9024,7.8431,2.9557,0.71545,2.8986,-2.0065,1.877,7.8431,2.9557,3.9216,0.95238,-2.9206,-3.7283,0.96618,2.963,-3.0274,-1.8413,0.98039,-6.8921
-4.8025,1.9683,0.0,2.9412,0.98522,-0.26016,2.8986,-2.9773,-0.06472,2.9412,0.98522,1.9608,-7.619,-11.492,-11.311,-5.7971,-5.7327,-4.9597,-2.7937,-5.8824,-8.8245
-5.7504,0.06349,-1.9512,-0.98039,4.9261,1.6911,4.8309,0.90615,2.8479,-0.98039,4.9261,3.9216,-15.238,-19.111,-14.155,-9.6618,-9.5974,-1.095,-0.88889,-8.8235,-7.8583
0.88468,3.873,1.9512,7.8431,9.8522,12.423,11.594,8.6731,9.644,7.8431,9.8522,11.765,-14.286,-14.349,-8.4676,-6.7633,-7.6651,5.6683,3.873,-5.8824,-8.8245
4.6761,8.6349,6.8293,13.725,15.764,18.275999,18.357,12.557,11.586,13.725,15.764,19.608,-10.476,-11.492,-3.7283,-3.8647,-4.7665,7.6006,7.6825,-3.9216,-5.9259
2.7804,10.54,6.8293,11.765,8.867,12.423,18.357,7.7023,8.6731,11.765,8.867,16.667,-11.429,-13.397,-2.7804,-2.8986,-6.6989,5.6683,5.7778,-3.9216,-10.757
3.7283,14.349,6.8293,13.725,4.9261,9.4959,15.459,3.8188,8.6731,13.725,4.9261,13.725,-3.8095,-1.9683,1.0111,4.8309,-2.8341,5.6683,5.7778,0.0,-1.095
4.6761,13.397,5.8537,0.0,1.9704,6.5691,9.6618,-2.9773,4.7896,0.0,1.9704,7.8431,6.6667,10.413,5.7504,10.628,2.963,1.8035,5.7778,0.98039,6.6345
3.7283,7.6825,2.9268,-11.765,-7.8818,-2.2114,-3.8647,-8.8026,-5.89,-11.765,-7.8818,-1.9608,12.381,18.032,8.594,15.459,7.7939,-6.8921,3.873,-0.98039,15.33
9.4155,4.8254,7.8049,-7.8431,-14.778,-3.187,-9.6618,-3.9482,-8.8026,-7.8431,-14.778,-4.902,21.905001,27.556,19.021,22.222,18.422001,1.8035,-0.88889,12.745,18.229
10.363,3.873,11.707,-8.8235,-15.764,-2.2114,-8.6957,-2.0065,-7.8317,-8.8235,-15.764,-4.902,25.714001,30.413,21.864,23.188,22.287001,9.533,-3.746,17.646999,14.364
9.4155,9.5873,14.634,-3.9216,-3.9409,1.6911,-0.96618,-2.9773,-2.9773,-3.9216,-3.9409,1.9608,26.667,28.507999,19.021,24.155001,23.253,-1.095,1.9683,12.745,19.195
-1.0111,7.6825,5.8537,-5.8824,-8.867,-4.1626,0.0,-11.715,-4.9191,-5.8824,-8.867,-1.9608,15.238,17.079,5.7504,15.459,12.625,-12.689,1.9683,1.9608,17.261999
-4.8025,1.9683,-0.97561,-0.98039,-11.823,-8.065,-3.8647,-7.8317,-6.8608,-0.98039,-11.823,-4.902,5.7143,9.4603,-1.8325,6.7633,2.963,-6.8921,-1.8413,0.0,10.499
-6.6983,-4.6984,-5.8537,-2.9412,-8.867,-7.0894,-8.6957,-2.9773,-6.8608,-2.9412,-8.867,-7.8431,0.95238,2.7937,-4.6761,-0.96618,-3.8003,-2.0612,-4.6984,1.9608,1.8035
-9.5419,-11.365,-12.683,-5.8824,-3.9409,-9.0407,-8.6957,-2.0065,-8.8026,-5.8824,-3.9409,-9.8039,-5.7143,-5.7778,-10.363,-11.594,-12.496,-2.0612,-8.5079,0.98039,-6.8921
-6.6983,-15.175,-11.707,0.0,0.98522,-2.2114,-8.6957,3.8188,-2.9773,0.0,0.98522,-6.8627,-6.6667,-11.492,-10.363,-16.424999,-15.395,2.7697,-8.5079,0.98039,-10.757
-0.06319,-14.222,-6.8293,10.784,9.8522,6.5691,-2.8986,10.615,1.877,10.784,9.8522,1.9608,-4.7619,-11.492,-7.5197,-17.391001,-13.462,8.5668,-8.5079,1.9608,-8.8245
1.8325,-11.365,-3.9024,17.646999,14.778,11.447,1.9324,12.557,6.7314,17.646999,14.778,6.8627,-8.5714,-14.349,-6.5719,-17.391001,-12.496,7.6006,-5.6508,-1.9608,-13.655
0.88468,-10.413,-2.9268,18.627001,13.793,12.423,3.8647,8.6731,7.7023,18.627001,13.793,6.8627,-14.286,-20.063,-8.4676,-19.323999,-13.462,2.7697,-1.8413,-11.765,-22.351
0.88468,-8.5079,-1.9512,11.765,4.9261,4.6179,0.0,4.7896,2.8479,11.765,4.9261,3.9216,-13.333,-21.016001,-6.5719,-16.424999,-10.564,-0.12882,-3.746,-13.725,-23.316999
11.311,3.873,8.7805,9.8039,10.837,6.5691,4.8309,10.615,4.7896,9.8039,10.837,9.8039,-1.9048,-8.6349,7.6461,0.96618,3.9291,4.7021,1.9683,-2.9412,-15.588
16.051001,12.444,15.61,8.8235,6.8966,9.4959,7.7295,7.7023,5.7605,8.8235,6.8966,11.765,9.5238,7.5556,17.125,18.357,16.49,2.7697,5.7778,5.8824,-3.9936
15.103,16.254,17.561001,-1.9608,3.9409,8.5203,5.7971,-0.06472,4.7896,-1.9608,3.9409,8.8235,16.190001,18.983999,21.864,28.986,23.253,7.6006,6.7302,13.725,7.6006
11.311,15.302,15.61,0.98039,1.9704,4.6179,3.8647,-2.9773,2.8479,0.98039,1.9704,4.902,18.094999,19.937,19.021,28.986,22.287001,4.7021,8.6349,15.686,11.465
6.5719,11.492,10.732,-4.902,-9.8522,0.71545,-0.96618,-6.8608,-2.9773,-4.902,-9.8522,0.0,15.238,19.937,14.281,25.121,18.422001,1.8035,5.7778,11.765,18.229
10.363,19.111,16.584999,-9.8039,-6.8966,2.6667,5.7971,-6.8608,-2.0065,-9.8039,-6.8966,7.8431,18.094999,25.650999,15.229,29.952,20.354,1.8035,8.6349,15.686,31.754999
5.624,21.016001,14.634,-8.8235,-2.9557,0.71545,9.6618,-8.8026,0.90615,-8.8235,-2.9557,7.8431,17.143,21.841,10.49,24.155001,15.523,-6.8921,9.5873,14.706,24.992001
-5.7504,6.7302,0.0,-15.686,-8.867,-9.0407,0.96618,-14.628,-0.06472,-15.686,-8.867,-2.9412,3.8095,6.6032,-2.7804,4.8309,-0.90177,-5.9259,3.873,3.9216,10.499
-13.333,-2.7937,-9.7561,-13.725,-16.749001,-14.894,-3.8647,-14.628,0.90615,-13.725,-16.749001,-8.8235,-6.6667,-1.0159,-13.207,-6.7633,-12.496,-3.9936,0.06349,-3.9216,6.6345
-15.229,-3.746,-10.732,-7.8431,-9.8522,-12.943,0.96618,-11.715,5.7605,-7.8431,-9.8522,-5.8824,-8.5714,-4.8254,-17.945999,-12.56,-16.361,-6.8921,1.9683,-6.8627,7.6006
-15.229,-1.8413,-10.732,-9.8039,-6.8966,-10.016,2.8986,-13.657,4.7896,-9.8039,-6.8966,-3.9216,-10.476,-7.6825,-19.841999,-14.493,-18.292999,-6.8921,0.06349,-10.784,5.6683
