C3,C4,Cz,F1,F2,F3,F4,F7,F8,Fp1,Fp2,Fz,O1,O2,P3,P4,Pz,T3,T4,T5,T6
-8.9731,-6.252,-7.0894,-1.3725,-1.9802,-15.87,-9.1057,0.58252,-6.5691,-1.3725,-1.9802,-9.9502,6.9841,4.381,-3.6825,-5.153,-3.8003,8.1804,-6.8571,3.2841,-13.011
-6.4455,-6.89,-11.642,5.1634,-4.6205,-11.967,-5.2033,-0.06472,-5.2683,5.1634,-4.6205,-7.9602,11.429,3.746,-0.50794,-4.5089,-5.7327,6.248,-1.1429,6.5681,-9.7907
-2.0221,-6.89,-10.341,-0.71895,-6.6007,-4.813,-1.3008,-0.71197,-2.6667,-0.71895,-6.6007,-3.9801,13.333,4.381,2.6667,-2.5765,-3.8003,4.9597,-3.0476,9.8522,-6.57
4.9289,3.9553,3.3171,-1.3725,8.5809,6.8943,6.5041,1.2298,7.0894,-1.3725,8.5809,5.9701,13.968,10.095,8.381,7.7295,5.8615,8.8245,0.12698,8.5386,5.0242
8.7204,16.715,15.675,9.085,19.142,10.146,13.008,2.5243,12.943,9.085,19.142,13.267,13.333,17.714001,12.19,18.68,16.167,-3.4138,13.46,4.5977,12.754
5.5608,21.18,17.625999,12.353,9.901,0.39024,11.707,-1.3592,7.0894,12.353,9.901,11.94,8.254,17.079,10.286,21.256001,18.1,-4.7021,17.27,1.9704,14.042
-1.3902,18.628,11.772,6.4706,3.3003,-5.4634,8.4553,-11.715,11.642,6.4706,3.3003,7.2968,-2.5397,12.0,3.9365,18.035,12.947,-9.8551,16.635,-5.9113,12.11
6.8246,21.18,12.423,7.7778,16.502001,5.5935,14.309,-10.421,26.601999,7.7778,16.502001,13.93,0.63492,15.81,10.286,20.612,15.523,-11.143,22.349001,-2.6273,19.839001
5.5608,13.525,6.5691,8.4314,22.441999,9.4959,12.358,-12.362,24.65,8.4314,22.441999,13.267,-3.1746,6.2857,6.4762,9.6618,7.7939,-10.499,12.19,-8.5386,12.11
2.4013,3.9553,3.3171,5.1634,15.842,8.1951,7.8049,-7.8317,17.496,5.1634,15.842,11.277,-8.254,-0.06349,1.3968,0.64412,1.3527,-4.7021,2.0317,-10.509,7.6006
-0.12638,-1.7863,2.0163,8.4314,6.6007,7.5447,2.6016,0.58252,7.0894,8.4314,6.6007,7.9602,-9.5238,-1.9683,-2.4127,-3.8647,-2.5121,3.0274,-0.50794,-7.8818,4.38
-5.8136,-5.614,-2.5366,13.007,7.2607,2.9919,-1.3008,3.1715,-1.3659,13.007,7.2607,1.99,-12.063,-7.6825,-9.3968,-10.95,-8.9533,9.4686,-4.9524,-10.509,-2.7053
-3.2859,-6.252,-5.7886,13.66,7.2607,4.2927,-1.9512,8.3495,-0.71545,13.66,7.2607,0.66335,-7.619,-7.6825,-7.4921,-10.306,-8.9533,8.8245,0.12698,-0.65681,-4.6377
-2.0221,-11.994,-11.642,3.8562,-5.2805,-0.26016,-11.057,3.1715,-5.2683,3.8562,-5.2805,-6.6335,-8.254,-7.6825,-6.8571,-10.95,-10.242,-1.4815,-2.4127,0.65681,-9.7907
-0.12638,-12.632,-11.642,-0.71895,-13.861,-6.1138,-15.61,-1.3592,-7.8699,-0.71895,-13.861,-11.94,-6.3492,-2.6032,-4.9524,-6.4412,-7.6651,-13.72,-10.032,-4.5977,-5.9259
-0.75829,-8.1659,-7.7398,-4.6405,-10.561,-4.813,-12.358,-2.0065,-7.2195,-4.6405,-10.561,-11.277,-3.1746,2.4762,-3.0476,-0.64412,-2.5121,-15.652,-4.9524,-3.9409,1.1594
3.0332,-0.51037,0.06504,-4.6405,2.6403,7.5447,-5.8537,5.7605,-0.71545,-4.6405,2.6403,-1.99,1.2698,5.6508,0.7619,4.5089,3.9291,-3.4138,0.12698,-0.65681,3.7359
4.297,-3.7002,-0.58537,-2.0261,-3.9604,7.5447,-7.8049,1.877,-3.9675,-2.0261,-3.9604,0.0,2.5397,-0.06349,1.3968,-1.9324,0.06441,6.8921,-10.667,1.9704,-5.2818
9.3523,-4.3381,2.6667,-0.71895,-5.9406,8.8455,-5.8537,1.2298,-8.5203,-0.71895,-5.9406,3.9801,7.619,-2.6032,7.1111,-5.7971,0.06441,10.113,-14.476,11.823,-12.367
7.4566,0.12759,5.9187,-1.3725,1.3201,8.1951,1.3008,1.2298,-7.2195,-1.3725,1.3201,5.3068,12.063,0.57143,9.0159,-2.5765,2.6409,7.5362,-7.4921,11.166,-7.2142
-0.75829,2.0415,3.3171,-0.06536,-3.3003,-0.26016,7.8049,-2.6537,-2.6667,-0.06536,-3.3003,1.99,9.5238,3.1111,3.3016,-1.2882,1.3527,10.757,-8.127,6.5681,-3.3494
-0.12638,5.2313,5.9187,-1.3725,-5.2805,-2.8618,9.1057,-1.3592,0.58537,-1.3725,-5.2805,2.6534,6.3492,6.2857,2.0317,3.8647,2.6409,-0.83736,0.7619,5.9113,6.3124
7.4566,12.249,11.122,-3.9869,3.3003,4.2927,11.707,3.1715,7.7398,-3.9869,3.3003,7.9602,4.4444,11.365,5.2063,10.306,7.1498,-12.432,14.73,1.9704,13.398
5.5608,7.1451,5.2683,1.2418,3.3003,1.6911,5.2033,-0.06472,7.7398,1.2418,3.3003,4.6434,-2.5397,8.1905,0.7619,5.153,1.9968,-0.83736,6.4762,-9.1954,6.9565
0.50553,-1.1483,-1.2358,5.1634,1.9802,0.39024,1.3008,-7.8317,3.8374,5.1634,1.9802,1.99,-8.8889,0.57143,-3.6825,-3.8647,-5.0886,13.977,-0.50794,-9.1954,2.4477
3.6651,0.76555,3.9675,-0.71895,7.9208,7.5447,9.1057,-3.9482,6.439,-0.71895,7.9208,9.2869,-10.794,-1.9683,-2.4127,-6.4412,-5.7327,4.3156,3.9365,-5.2545,-0.77295
-1.3902,0.12759,2.6667,-3.9869,9.901,4.9431,8.4553,-4.5955,5.7886,-3.9869,9.901,7.2968,-13.968,-3.2381,-8.127,-6.4412,-7.0209,-7.9227,0.12698,-11.823,-1.4171
-8.3412,-1.1483,0.06504,-5.9477,5.2805,-1.561,2.6016,-3.9482,1.2358,-5.9477,5.2805,1.3267,-15.238,-3.873,-13.206,-3.8647,-7.6651,-6.6345,5.8413,-11.166,1.1594
-9.6051,-1.1483,-2.5366,2.549,-3.3003,-8.065,-0.65041,-0.71197,-4.6179,2.549,-3.3003,-2.6534,-10.159,-2.6032,-11.302,-0.64412,-5.0886,-7.2786,5.8413,-5.2545,5.6683
-5.1817,-1.1483,-7.7398,3.8562,-5.9406,-9.3659,-3.252,2.5243,-3.9675,3.8562,-5.9406,-5.3068,-1.2698,1.2063,-5.5873,1.2882,-3.8003,-10.499,-5.5873,3.2841,3.7359
-5.8136,-6.89,-16.195,-3.3333,-13.861,-8.065,-9.7561,0.58252,-6.5691,-3.3333,-13.861,-11.277,2.5397,-0.06349,-5.5873,-5.153,-9.5974,-6.6345,-4.9524,7.8818,-3.9936
-12.133,-13.27,-23.35,-8.5621,-17.162001,-15.22,-17.561001,-5.89,-12.423,-8.5621,-17.162001,-20.563999,0.0,-7.0476,-10.667,-10.95,-15.395,-6.6345,-5.5873,0.65681,-9.7907
-10.869,-15.821,-22.049,-13.791,-11.881,-17.820999,-19.511999,-4.5955,-14.374,-13.791,-11.881,-22.554001,3.1746,-7.0476,-7.4921,-9.0177,-12.174,-0.19324,-11.302,0.65681,-6.57
-8.9731,-17.735001,-23.35,-13.137,-17.162001,-18.472,-22.114,-1.3592,-15.024,-13.137,-17.162001,-23.216999,4.4444,-8.9524,-4.9524,-8.3736,-10.886,-31.754999,-13.206,3.9409,-5.2818
-0.75829,-11.356,-17.496,-3.3333,-6.6007,-6.1138,-14.959,7.055,-9.1707,-3.3333,-6.6007,-13.267,10.794,-3.2381,2.6667,-2.5765,-3.8003,-8.5668,-2.4127,9.8522,-0.77295
0.50553,-8.1659,-14.894,-7.2549,-5.9406,-1.561,-11.057,7.055,-9.8211,-7.2549,-5.9406,-7.9602,8.254,-3.2381,4.5714,-3.2206,-3.1562,13.333,-7.4921,7.225,-0.12882
4.297,-3.0622,-5.7886,-1.3725,-10.561,1.0407,-4.5528,5.7605,-6.5691,-1.3725,-10.561,-3.9801,9.5238,-1.3333,9.0159,-1.2882,1.3527,17.841999,-10.032,11.166,1.1594
8.7204,-0.51037,2.6667,7.1242,-4.6205,2.3415,-3.9024,6.4078,-4.6179,7.1242,-4.6205,-1.99,10.794,3.746,14.095,2.5765,7.7939,-2.1256,-9.3968,7.225,-1.4171
9.9842,2.0415,6.5691,6.4706,4.6205,4.2927,-1.3008,7.7023,-2.0163,6.4706,4.6205,0.66335,10.159,9.4603,16.635,7.7295,13.591,3.0274,0.12698,3.2841,1.8035
2.4013,-1.1483,0.71545,1.8954,-1.3201,3.6423,-1.9512,3.8188,-3.3171,1.8954,-1.3201,-1.3267,4.4444,6.2857,9.0159,4.5089,8.438,0.45089,3.3016,-3.2841,-2.7053
-3.9179,-6.89,-7.7398,-9.8693,-20.462,-6.7642,-9.7561,-3.9482,-11.122,-9.8693,-20.462,-9.9502,-1.2698,-4.5079,-1.1429,-5.7971,-0.57971,-38.195999,-4.3175,-9.8522,-14.944
1.7694,-3.0622,-1.8862,-16.405001,-15.182,-8.7154,-7.8049,-2.6537,-11.122,-16.405001,-15.182,-9.9502,6.3492,-1.3333,3.3016,-1.2882,3.9291,-31.754999,-22.094999,5.9113,-10.435
4.297,2.0415,5.9187,-9.2157,-2.6403,-2.2114,-6.5041,-2.0065,-7.2195,-9.2157,-2.6403,-5.3068,11.429,8.1905,6.4762,6.4412,9.0821,0.45089,-23.365,11.166,-0.77295
1.7694,4.5933,10.472,-2.6797,1.9802,2.9919,0.65041,-5.2427,-1.3659,-2.6797,1.9802,1.99,6.3492,12.635,3.9365,9.0177,9.0821,13.977,-5.5873,2.6273,4.38
-0.12638,5.8692,9.8211,-3.3333,1.3201,2.3415,3.9024,-10.421,3.8374,-3.3333,1.3201,5.3068,0.63492,12.635,1.3968,8.3736,7.1498,21.707001,10.921,-3.9409,7.6006
4.9289,9.697,11.122,0.58824,1.3201,7.5447,5.2033,-7.1845,6.439,0.58824,1.3201,7.9602,0.63492,11.365,2.6667,10.95,8.438,6.8921,17.905001,-1.3136,10.821
1.7694,7.7831,7.8699,-3.3333,-6.6007,2.9919,3.9024,-5.2427,2.5366,-3.3333,-6.6007,3.9801,-3.8095,5.6508,-1.7778,7.7295,5.2174,-1.4815,11.556,-2.6273,4.38
-2.654,0.12759,3.9675,-0.06536,-3.9604,-4.813,-1.3008,-2.6537,-3.3171,-0.06536,-3.9604,0.0,-5.0794,1.8413,-4.9524,1.9324,1.9968,-9.2109,-7.4921,-2.6273,2.4477
1.1374,-8.1659,2.6667,2.549,-1.3201,-0.91057,-6.5041,-0.71197,-7.2195,2.549,-1.3201,0.0,-4.4444,-3.2381,-2.4127,-5.153,-0.57971,-14.364,-6.2222,1.3136,-0.12882
7.4566,-8.1659,2.6667,-0.71895,1.3201,4.2927,-4.5528,1.2298,-9.8211,-0.71895,1.3201,2.6534,1.9048,-5.7778,3.3016,-7.7295,0.06441,-9.2109,-8.7619,0.65681,-6.57
10.616,-3.0622,5.9187,-0.71895,-1.9802,6.2439,0.0,1.877,-11.772,-0.71895,-1.9802,3.9801,10.159,-0.06349,10.286,-3.2206,5.8615,13.977,-3.0476,3.9409,-9.7907
4.297,2.6794,5.9187,3.8562,1.3201,5.5935,3.9024,-0.06472,-0.71545,3.8562,1.3201,4.6434,9.5238,0.57143,7.1111,1.2882,7.1498,34.589001,2.6667,7.8818,-2.0612
-4.5498,3.9553,2.6667,0.58824,6.6007,2.3415,1.3008,-4.5955,9.6911,0.58824,6.6007,3.3167,1.2698,-0.69841,-4.3175,1.9324,3.285,1.095,-2.4127,1.3136,-0.77295
-4.5498,-1.7863,0.71545,-1.3725,5.9406,2.9919,2.6016,-4.5955,9.6911,-1.3725,5.9406,3.3167,-3.1746,-1.3333,-6.2222,0.0,0.06441,-9.2109,-1.7778,-2.6273,0.5153
10.616,1.4035,3.3171,11.699,9.901,12.098,10.407,6.4078,15.545,11.699,9.901,9.9502,1.2698,-1.3333,5.8413,1.9324,3.285,8.1804,3.9365,7.225,1.8035
14.408,3.3174,-1.2358,5.1634,7.9208,10.797,7.1545,3.8188,13.593,5.1634,7.9208,7.2968,-5.7143,-5.7778,7.746,0.0,1.3527,15.91,9.6508,4.5977,-1.4171
13.144,5.8692,-1.8862,-5.9477,7.9208,13.398,6.5041,-0.71197,12.293,-5.9477,7.9208,4.6434,-11.429,-5.1429,5.8413,2.5765,1.3527,22.995001,12.825,-1.3136,1.1594
9.3523,9.059,-0.58537,2.549,7.2607,7.5447,7.8049,1.2298,13.593,2.549,7.2607,3.9801,-13.333,-3.2381,3.9365,5.153,1.9968,19.129999,3.3016,-9.8522,7.6006
-0.12638,8.4211,-1.2358,9.7386,8.5809,2.9919,13.008,2.5243,13.593,9.7386,8.5809,7.2968,-14.603,-2.6032,-3.6825,3.8647,-1.868,8.1804,9.6508,-13.793,6.9565
-2.654,12.249,2.0163,11.046,19.802,14.699,21.462999,4.466,20.747999,11.046,19.802,17.247,-13.968,1.2063,-7.4921,5.7971,-1.868,-23.382,21.714001,-9.1954,12.11
-7.0774,13.525,1.3659,6.4706,18.482,10.797,19.511999,-0.71197,20.747999,6.4706,18.482,13.267,-15.873,-1.3333,-11.302,5.153,-3.1562,-20.805,20.444,-13.793,10.177
-1.3902,15.439,4.6179,6.4706,10.561,-0.26016,16.910999,-2.6537,17.496,6.4706,10.561,7.9602,-5.0794,3.1111,-1.7778,10.95,4.5733,-7.2786,18.540001,-9.1954,9.533
9.9842,19.266001,9.8211,-3.3333,8.5809,1.0407,13.659,-2.6537,18.146,-3.3333,8.5809,7.9602,11.429,12.635,14.095,20.612,15.523,6.248,14.73,4.5977,18.551001
8.0885,10.335,2.6667,-13.791,4.6205,-6.1138,5.8537,-6.5372,11.642,-13.791,4.6205,-0.66335,14.603,12.635,14.73,15.459,12.303,24.283001,7.1111,14.45,13.398
3.6651,0.12759,-7.7398,-7.2549,-6.6007,-11.317,1.3008,-7.8317,1.2358,-7.2549,-6.6007,-6.6335,13.333,7.5556,9.6508,6.4412,4.5733,21.707001,2.6667,13.136,0.5153
1.7694,-3.0622,-10.992,-0.06536,-17.162001,-12.618,-2.6016,-5.2427,-4.6179,-0.06536,-17.162001,-8.6235,12.698,6.9206,7.1111,3.2206,1.9968,4.3156,0.12698,7.8818,-2.0612
-2.654,-4.3381,-10.341,-7.2549,-14.521,-13.268,-7.1545,-2.6537,-11.122,-7.2549,-14.521,-9.9502,9.5238,4.381,3.9365,1.2882,0.06441,3.6715,-4.3175,3.9409,-3.9936
-3.9179,-4.9761,-5.1382,-6.6013,-0.66007,-7.4146,-6.5041,-1.3592,-9.8211,-6.6013,-0.66007,-7.2968,5.7143,2.4762,-0.50794,-1.2882,-0.57971,-15.008,-17.650999,3.2841,-9.1465
-6.4455,-3.7002,2.0163,-3.3333,3.3003,0.39024,-1.9512,0.58252,-5.2683,-3.3333,3.3003,-0.66335,3.8095,1.2063,-3.0476,-1.9324,-0.57971,-7.2786,-14.476,7.225,-6.57
2.4013,3.3174,10.472,8.4314,5.2805,9.4959,5.8537,8.9968,7.7398,8.4314,5.2805,10.614,8.8889,7.5556,3.9365,5.7971,7.1498,6.248,7.1111,12.479,7.6006
2.4013,-0.51037,3.9675,-0.06536,4.6205,6.2439,-1.3008,4.466,5.1382,-0.06536,4.6205,5.3068,1.2698,4.381,2.0317,1.9324,3.9291,6.248,13.46,4.5977,8.2448
3.0332,-2.4242,2.0163,-1.3725,4.6205,0.39024,-1.9512,1.2298,-0.06504,-1.3725,4.6205,0.66335,-3.1746,-1.3333,1.3968,-2.5765,1.3527,14.622,10.921,1.9704,-1.4171
8.7204,0.76555,6.5691,3.8562,1.3201,1.6911,1.9512,5.7605,0.58537,3.8562,1.3201,3.9801,0.0,-0.69841,5.2063,-1.2882,2.6409,1.7391,-1.1429,3.9409,1.8035
3.0332,-0.51037,3.9675,4.5098,-1.3201,6.8943,2.6016,3.1715,0.58537,4.5098,-1.3201,5.3068,-3.1746,-1.9683,-0.50794,-3.8647,-1.868,6.8921,-10.032,-6.5681,-5.9259
2.4013,2.0415,4.6179,5.1634,4.6205,12.098,5.8537,2.5243,0.58537,5.1634,4.6205,7.9602,-3.1746,0.57143,-1.1429,-0.64412,-1.2238,1.7391,-3.0476,-7.225,-6.57
3.0332,2.6794,2.6667,3.2026,1.3201,5.5935,2.6016,4.466,-3.9675,3.2026,1.3201,5.3068,0.63492,2.4762,1.3968,3.8647,1.3527,-2.1256,10.286,-1.9704,1.8035
3.6651,-2.4242,-3.187,5.1634,-1.3201,-2.2114,-3.9024,4.466,-5.9187,5.1634,-1.3201,-1.99,3.8095,-0.69841,0.12698,0.0,-1.2238,-13.72,2.6667,-3.2841,-0.12882
1.7694,-5.614,-4.4878,-0.06536,0.0,-2.8618,-11.057,3.8188,-3.3171,-0.06536,0.0,-3.9801,6.9841,0.57143,-1.1429,-2.5765,-3.8003,-2.7697,-4.3175,1.3136,-2.7053
-5.8136,-8.1659,-5.1382,-7.9085,-1.9802,1.0407,-11.057,-1.3592,-3.3171,-7.9085,-1.9802,-3.9801,5.0794,-0.69841,-6.2222,-2.5765,-7.0209,12.689,-4.9524,8.5386,3.0918
-5.8136,-4.9761,-2.5366,-1.3725,-3.3003,4.2927,-6.5041,-2.0065,-2.6667,-1.3725,-3.3003,-2.6534,8.254,5.6508,-3.6825,2.5765,-2.5121,6.248,2.0317,6.5681,7.6006
-2.654,-1.7863,-2.5366,-0.06536,0.66007,-0.91057,-5.8537,-4.5955,-3.9675,-0.06536,0.66007,-3.9801,10.159,8.1905,0.12698,4.5089,1.3527,8.1804,3.3016,4.5977,4.38
-0.75829,-4.3381,-3.8374,2.549,-3.9604,-8.065,-6.5041,-1.3592,-5.2683,2.549,-3.9604,-5.9701,5.7143,4.381,0.12698,0.0,-1.868,-4.7021,1.3968,9.1954,-1.4171
-7.7093,-12.632,-9.6911,-2.6797,-15.182,-13.919,-10.407,-5.89,-9.8211,-2.6797,-15.182,-9.9502,-0.63492,-0.69841,-6.2222,-8.3736,-8.9533,-5.3462,-2.4127,5.9113,-5.2818
-10.237,-13.907,-9.6911,-7.9085,-9.901,-4.813,-5.8537,-6.5372,-10.472,-7.9085,-9.901,-7.2968,-3.8095,-1.3333,-9.3968,-8.3736,-10.242,-25.313999,-8.127,-8.5386,-5.2818
-8.3412,-7.5279,-5.1382,-9.2157,-3.9604,4.2927,-3.9024,-4.5955,-5.9187,-9.2157,-3.9604,-2.6534,-4.4444,-1.3333,-8.127,-6.4412,-7.0209,-23.382,-4.9524,-12.479,-9.7907
-5.1817,-4.3381,-3.187,-2.6797,-5.9406,1.0407,-6.5041,-2.0065,-10.472,-2.6797,-5.9406,-2.6534,-3.1746,-1.3333,-6.2222,-3.2206,-5.7327,3.0274,-11.937,-3.2841,-6.57
-0.12638,-5.614,-1.8862,3.8562,0.66007,4.2927,-4.5528,4.466,-8.5203,3.8562,0.66007,0.66335,0.0,2.4762,-3.6825,0.0,-4.4444,3.0274,-6.2222,5.2545,3.0918
-1.3902,-3.7002,-1.2358,3.8562,4.6205,3.6423,-1.3008,3.8188,1.8862,3.8562,4.6205,2.6534,1.9048,6.9206,-1.1429,2.5765,-0.57971,8.8245,-5.5873,2.6273,4.38
-3.9179,1.4035,-1.2358,3.2026,7.2607,1.0407,3.252,2.5243,3.187,3.2026,7.2607,2.6534,2.5397,5.6508,1.3968,5.7971,3.285,5.6039,-1.7778,-3.9409,5.0242
0.50553,6.5072,1.3659,4.5098,9.901,7.5447,7.8049,6.4078,2.5366,4.5098,9.901,7.2968,2.5397,3.746,2.0317,6.4412,3.9291,-25.958,0.12698,-4.5977,-0.12882
6.1927,11.611,6.5691,13.007,6.6007,12.748,12.358,8.9968,3.8374,13.007,6.6007,13.93,6.9841,10.73,6.4762,10.95,7.1498,-0.19324,-0.50794,7.225,3.7359
2.4013,2.6794,-0.58537,15.621,1.9802,6.8943,7.1545,5.7605,2.5366,15.621,1.9802,7.9602,4.4444,6.2857,3.9365,3.8647,0.06441,13.977,-5.5873,6.5681,2.4477
4.297,0.76555,-0.58537,13.007,9.2409,1.6911,5.8537,4.466,5.7886,13.007,9.2409,3.9801,6.9841,4.381,7.1111,3.8647,0.70853,8.1804,6.4762,7.8818,5.6683
9.3523,9.059,6.5691,7.1242,5.9406,6.8943,9.7561,7.7023,8.3902,7.1242,5.9406,7.9602,10.794,7.5556,11.556,10.95,6.5056,24.927999,13.46,15.107,14.042
4.297,10.335,5.2683,-2.0261,5.2805,9.4959,7.8049,3.1715,3.187,-2.0261,5.2805,5.9701,5.0794,5.6508,6.4762,9.6618,5.2174,12.689,11.556,4.5977,6.3124
1.7694,12.249,5.2683,1.8954,11.881,2.9919,6.5041,-0.06472,2.5366,1.8954,11.881,5.3068,2.5397,7.5556,5.2063,10.95,7.1498,-5.3462,10.921,-0.65681,3.7359
0.50553,10.973,3.9675,4.5098,8.5809,-0.91057,1.3008,-3.9482,3.187,4.5098,8.5809,3.3167,-1.9048,6.9206,3.3016,9.0177,7.1498,-28.535,10.921,-7.225,3.0918
4.9289,9.059,7.8699,5.817,3.3003,0.39024,7.1545,-0.71197,4.4878,5.817,3.3003,6.6335,-2.5397,8.1905,4.5714,9.0177,7.1498,-18.872999,5.2063,-7.225,7.6006
9.3523,9.697,12.423,1.2418,3.3003,6.8943,16.26,-2.0065,6.439,1.2418,3.3003,11.277,0.63492,8.8254,7.1111,9.0177,8.438,2.3833,2.0317,0.65681,8.8889
5.5608,11.611,16.325001,-3.3333,3.9604,10.146,13.008,-6.5372,7.0894,-3.3333,3.9604,10.614,4.4444,12.635,9.0159,10.95,12.947,-2.1256,1.3968,4.5977,7.6006
4.9289,14.163,21.528,3.8562,12.541,4.2927,11.057,-0.71197,3.187,3.8562,12.541,9.9502,8.8889,15.175,12.825,14.815,18.743999,8.8245,8.381,10.509,12.11
-2.0221,5.2313,13.724,-6.6013,8.5809,-0.91057,1.3008,-5.89,-3.9675,-6.6013,8.5809,2.6534,1.9048,5.6508,4.5714,4.5089,10.37,8.1804,4.5714,-5.9113,1.1594
-0.75829,0.12759,7.2195,-0.06536,-4.6205,-5.4634,-1.9512,-5.2427,-2.6667,-0.06536,-4.6205,0.66335,-1.2698,-0.06349,1.3968,-3.2206,2.6409,-24.025999,-2.4127,-13.793,-2.0612
12.512,9.059,14.374,11.699,1.9802,1.6911,11.707,3.1715,7.7398,11.699,1.9802,9.9502,5.7143,3.746,9.6508,2.5765,7.7939,-22.738001,7.1111,1.3136,-1.4171
4.297,8.4211,9.1707,4.5098,9.901,-0.91057,9.1057,-2.6537,2.5366,4.5098,9.901,5.3068,0.0,-0.69841,2.6667,0.64412,3.285,-2.1256,-4.3175,5.9113,-3.3494
-6.4455,5.2313,3.3171,2.549,9.2409,-8.7154,3.252,-2.0065,-5.9187,2.549,9.2409,-0.66335,-4.4444,-4.5079,-5.5873,-1.2882,-1.868,20.419001,-4.9524,-1.3136,0.5153
-5.1817,2.6794,0.71545,0.58824,5.9406,-2.8618,1.9512,0.58252,-2.0163,0.58824,5.9406,0.0,-1.2698,-3.2381,-4.9524,-3.8647,-3.8003,13.333,-4.3175,-2.6273,-4.6377
-7.0774,-3.0622,-5.1382,-5.2941,-5.9406,-4.813,-2.6016,-3.9482,-0.71545,-5.2941,-5.9406,-5.3068,-0.63492,-4.5079,-6.2222,-6.4412,-6.3768,1.7391,-6.8571,-5.9113,-9.7907
-10.237,-6.89,-8.3902,-5.9477,-7.9208,-11.317,-3.9024,-3.9482,-2.0163,-5.9477,-7.9208,-8.6235,-3.1746,-9.5873,-8.127,-10.306,-8.3092,0.45089,-3.6825,-9.1954,-8.5024
-7.7093,-6.252,-7.0894,-0.06536,-5.2805,-12.618,-0.65041,-2.0065,-2.0163,-0.06536,-5.2805,-7.2968,-6.3492,-10.857,-6.8571,-9.6618,-8.3092,-21.448999,-1.1429,-1.9704,-2.0612
-10.237,-6.89,-10.341,-7.2549,0.0,-13.919,-5.8537,-4.5955,-6.5691,-7.2549,0.0,-11.277,-11.429,-17.841,-10.032,-12.238,-12.174,-13.72,-4.3175,-0.65681,-4.6377
-11.501,-5.614,-12.293,-7.9085,0.0,-11.967,-5.2033,-3.301,-7.2195,-7.9085,0.0,-13.267,-11.429,-20.381001,-11.937,-12.238,-14.106,19.129999,-0.50794,-1.3136,-3.9936
-5.8136,-1.7863,-7.0894,-3.3333,-7.2607,-0.91057,0.0,-0.06472,-3.9675,-3.3333,-7.2607,-7.9602,-10.159,-17.205999,-8.7619,-7.0853,-9.5974,24.927999,4.5714,-3.2841,0.5153
-0.75829,-0.51037,-2.5366,2.549,-1.9802,1.6911,0.65041,7.055,1.8862,2.549,-1.9802,-2.6534,-9.5238,-15.937,-4.9524,-5.7971,-5.7327,19.129999,6.4762,0.65681,-2.0612
-4.5498,-4.9761,-5.1382,3.8562,-1.3201,-5.4634,-7.8049,7.055,-1.3659,3.8562,-1.3201,-4.6434,-13.968,-17.841,-9.3968,-10.95,-10.242,8.8245,-1.1429,-7.225,-9.1465
-3.2859,-5.614,-4.4878,-2.6797,-0.66007,-0.91057,-10.407,7.055,-5.2683,-2.6797,-0.66007,-3.3167,-13.333,-13.397,-10.032,-9.6618,-10.242,-13.72,-8.7619,-13.793,-10.435
1.1374,-3.7002,0.06504,-0.71895,-6.6007,4.9431,-7.8049,5.7605,-7.2195,-0.71895,-6.6007,0.0,-6.3492,-2.6032,-4.3175,-3.2206,-5.0886,-2.1256,-3.0476,-5.9113,-5.2818
-0.12638,-3.7002,0.71545,-0.06536,-15.182,2.3415,-7.1545,1.877,-13.724,-0.06536,-15.182,-0.66335,-2.5397,-0.06349,-1.7778,-1.2882,-1.868,12.045,-3.6825,1.3136,-3.3494
4.9289,2.0415,8.5203,5.817,-7.9208,10.797,0.65041,3.8188,-8.5203,5.817,-7.9208,7.2968,4.4444,3.746,4.5714,2.5765,3.9291,11.401,-8.7619,5.9113,-0.77295
10.616,6.5072,13.724,13.007,3.3003,15.35,9.1057,7.7023,0.58537,13.007,3.3003,14.594,8.8889,5.6508,9.0159,4.5089,7.7939,-17.584999,4.5714,-0.65681,1.8035
7.4566,4.5933,9.1707,7.1242,7.2607,8.1951,5.2033,5.1133,2.5366,7.1242,7.2607,9.9502,3.1746,-0.69841,5.2063,0.64412,3.9291,-28.535,12.825,-2.6273,-0.12882
2.4013,3.3174,5.2683,-3.9869,2.6403,-1.561,0.65041,-2.0065,1.8862,-3.9869,2.6403,3.3167,2.5397,0.57143,2.6667,-1.2882,0.70853,-16.940001,3.9365,-2.6273,-2.7053
1.7694,3.3174,5.2683,-2.6797,0.66007,-2.8618,0.65041,-3.301,2.5366,-2.6797,0.66007,2.6534,0.0,-0.69841,1.3968,-2.5765,0.06441,-5.9903,-4.3175,-5.9113,1.1594
-3.2859,0.76555,3.9675,-0.06536,1.9802,-0.26016,-0.65041,-3.301,-1.3659,-0.06536,1.9802,2.6534,-9.5238,-8.9524,-6.8571,-8.3736,-5.0886,7.5362,-6.8571,-7.225,-2.7053
-2.0221,7.7831,6.5691,2.549,-0.66007,6.2439,7.8049,2.5243,2.5366,2.549,-0.66007,8.6235,-10.794,-5.7778,-6.8571,-3.8647,-2.5121,17.198,2.6667,-2.6273,-3.3494
1.1374,7.1451,4.6179,-0.71895,1.3201,10.146,8.4553,1.877,2.5366,-0.71895,1.3201,7.2968,-8.254,-3.873,-4.9524,-1.2882,-1.2238,-1.4815,8.381,-1.9704,-0.77295
4.297,3.3174,2.0163,-4.6405,3.3003,4.2927,1.3008,1.877,0.58537,-4.6405,3.3003,1.99,-3.1746,-1.9683,-1.7778,-0.64412,-1.868,-2.1256,0.7619,1.9704,-1.4171
1.1374,-0.51037,-2.5366,-1.3725,-5.9406,-8.065,-5.2033,2.5243,-5.2683,-1.3725,-5.9406,-4.6434,-2.5397,-0.06349,-4.3175,-0.64412,-5.0886,7.5362,0.12698,5.9113,0.5153
-7.7093,-4.9761,-7.7398,-5.9477,-6.6007,-13.919,-10.407,-0.06472,-8.5203,-5.9477,-6.6007,-11.277,-2.5397,-0.06349,-9.3968,-1.2882,-8.3092,14.622,2.0317,3.9409,5.0242
-5.8136,-1.7863,-3.187,-7.2549,-3.9604,-11.967,-9.1057,3.8188,-6.5691,-7.2549,-3.9604,-11.277,2.5397,4.381,-5.5873,2.5765,-3.1562,22.995001,-1.1429,6.5681,5.0242
-4.5498,-1.1483,-2.5366,-5.9477,-7.2607,-11.967,-7.1545,6.4078,-7.8699,-5.9477,-7.2607,-12.604,-0.63492,0.57143,-4.9524,1.2882,-2.5121,19.129999,-7.4921,5.2545,-3.3494
3.0332,0.76555,0.71545,-6.6013,-9.901,-1.561,-3.252,7.055,-0.06504,-6.6013,-9.901,-7.2968,-2.5397,-3.2381,-1.7778,-1.2882,-2.5121,-5.9903,0.7619,1.9704,-2.0612
12.512,2.6794,4.6179,8.4314,0.0,7.5447,1.9512,10.939,3.187,8.4314,0.0,1.99,3.8095,-1.9683,6.4762,-1.2882,0.06441,9.4686,9.6508,9.8522,1.1594
3.6651,-3.0622,-2.5366,10.392,-1.3201,1.6911,-2.6016,8.3495,-1.3659,10.392,-1.3201,-1.99,-5.7143,-11.492,-1.7778,-8.3736,-7.0209,3.0274,1.3968,-1.3136,-5.2818
-2.0221,-1.1483,-1.8862,6.4706,1.3201,-1.561,-0.65041,6.4078,1.8862,6.4706,1.3201,-1.99,-11.429,-13.397,-4.9524,-7.7295,-5.7327,4.9597,1.3968,-11.166,-5.9259
1.7694,4.5933,5.2683,1.2418,14.521,-0.26016,6.5041,5.1133,8.3902,1.2418,14.521,3.9801,-4.4444,-7.0476,2.0317,-1.2882,2.6409,-0.19324,2.0317,-7.225,-1.4171
10.616,9.697,12.423,-0.06536,17.822001,6.8943,13.008,6.4078,13.593,-0.06536,17.822001,10.614,5.0794,-0.06349,12.19,5.7971,11.014,-2.1256,6.4762,1.3136,10.821
4.9289,1.4035,3.3171,-7.2549,-1.9802,5.5935,5.8537,-5.2427,1.2358,-7.2549,-1.9802,4.6434,3.8095,-2.6032,7.746,0.0,4.5733,-25.313999,-4.9524,-5.9113,4.38
2.4013,-2.4242,0.71545,-0.06536,-6.6007,1.6911,0.0,-9.7735,-4.6179,-0.06536,-6.6007,1.3267,5.0794,-0.06349,5.8413,0.0,3.285,-23.382,-9.3968,-5.9113,-3.3494
5.5608,1.4035,8.5203,13.007,8.5809,2.3415,4.5528,-2.0065,1.2358,13.007,8.5809,7.2968,11.429,9.4603,10.921,7.7295,10.37,13.333,2.0317,9.8522,2.4477
-3.2859,-2.4242,3.9675,7.7778,5.2805,0.39024,3.9024,-3.301,1.2358,7.7778,5.2805,4.6434,7.619,5.0159,3.9365,2.5765,3.9291,17.841999,3.9365,10.509,-0.77295
-2.654,-3.7002,-1.2358,-0.71895,3.3003,1.0407,0.0,1.877,3.8374,-0.71895,3.3003,3.3167,2.5397,0.57143,-2.4127,-1.9324,-3.8003,11.401,7.746,5.2545,3.0918
-3.2859,-6.89,-9.6911,-3.3333,-2.6403,1.6911,-5.8537,0.58252,-0.71545,-3.3333,-2.6403,0.66335,0.0,-3.873,-7.4921,-7.0853,-10.242,3.0274,0.7619,-1.9704,-3.9936
-3.9179,-6.252,-12.943,-8.5621,-9.901,0.39024,-1.9512,-5.89,-2.0163,-8.5621,-9.901,-1.99,-1.2698,-5.7778,-8.127,-9.0177,-11.53,3.6715,-10.032,0.65681,-7.2142
-5.1817,-0.51037,-5.7886,0.58824,-5.2805,-2.2114,1.9512,-2.0065,2.5366,0.58824,-5.2805,0.66335,0.0,-1.9683,-5.5873,-1.9324,-3.8003,-25.313999,-1.7778,-0.65681,1.1594
-7.0774,3.3174,3.3171,7.7778,0.0,-0.26016,1.9512,-0.71197,3.187,7.7778,0.0,3.3167,-0.63492,-1.9683,-4.3175,0.64412,1.9968,-22.738001,5.8413,-6.5681,0.5153
-0.12638,8.4211,10.472,7.7778,8.5809,7.5447,7.8049,5.1133,7.0894,7.7778,8.5809,7.9602,2.5397,3.746,1.3968,7.7295,7.7939,5.6039,12.19,1.3136,8.2448
3.6651,5.2313,5.9187,3.8562,8.5809,6.8943,5.8537,3.8188,2.5366,3.8562,8.5809,3.3167,0.63492,3.746,2.6667,8.3736,5.2174,4.3156,9.0159,3.9409,12.11
-3.9179,-6.252,-5.7886,-12.484,-6.6007,1.0407,-7.1545,-5.89,-7.2195,-12.484,-6.6007,-7.2968,-5.0794,-1.9683,-2.4127,-1.9324,-3.1562,8.8245,-3.0476,3.2841,-3.3494
-12.133,-14.545,-16.846001,-5.9477,-9.2409,-13.919,-16.26,-7.1845,-7.2195,-5.9477,-9.2409,-13.93,-9.5238,-3.873,-7.4921,-8.3736,-8.9533,-9.2109,-15.111,-7.225,-13.655
-9.6051,-14.545,-22.049,5.1634,0.66007,-19.771999,-11.707,-3.9482,-2.6667,5.1634,0.66007,-11.94,-8.254,-3.873,-5.5873,-9.0177,-10.886,-18.872999,-17.650999,-13.136,-9.1465
-0.12638,-8.1659,-13.593,5.1634,11.221,-8.065,-2.6016,1.2298,2.5366,5.1634,11.221,-2.6534,-0.63492,-1.9683,4.5714,-5.7971,-4.4444,4.3156,0.7619,-1.9704,-1.4171
3.0332,-3.0622,-0.58537,5.1634,9.901,-0.26016,0.0,0.58252,1.2358,5.1634,9.901,1.3267,1.9048,-0.06349,7.746,-2.5765,2.6409,3.0274,9.0159,3.2841,3.0918
-0.75829,-1.1483,5.2683,-7.2549,-3.9604,2.3415,0.65041,-4.5955,-2.0163,-7.2549,-3.9604,0.66335,0.0,-1.3333,3.3016,-2.5765,3.285,-25.958,-1.7778,-7.8818,0.5153
-2.654,-2.4242,6.5691,-1.3725,-3.9604,-0.91057,1.3008,-3.9482,-2.0163,-1.3725,-3.9604,0.66335,-2.5397,-3.873,0.12698,-5.7971,0.70853,-8.5668,-3.6825,-12.479,-5.9259
2.4013,-0.51037,11.772,3.8562,7.9208,1.6911,3.252,0.58252,3.187,3.8562,7.9208,3.9801,0.0,-1.9683,3.9365,-3.8647,3.285,12.045,-8.127,-4.5977,-6.57
6.8246,3.3174,16.325001,5.1634,6.6007,6.2439,2.6016,1.877,4.4878,5.1634,6.6007,5.9701,0.0,-1.3333,7.1111,-2.5765,6.5056,-3.4138,-10.032,0.0,-6.57
8.7204,9.059,22.179001,9.7386,9.2409,6.8943,5.2033,1.2298,5.7886,9.7386,9.2409,9.2869,2.5397,3.1111,9.0159,1.9324,11.014,-14.364,-3.0476,-0.65681,-0.77295
-0.12638,5.2313,16.976,-3.3333,1.3201,4.2927,5.2033,-6.5372,1.2358,-3.3333,1.3201,5.3068,-0.63492,0.57143,2.0317,-0.64412,5.8615,-5.9903,5.2063,-1.9704,3.7359
-1.3902,1.4035,12.423,-5.2941,-7.9208,-4.1626,3.252,-9.1262,-3.3171,-5.2941,-7.9208,0.0,1.9048,1.2063,1.3968,0.0,3.9291,2.3833,6.4762,8.5386,-1.4171
3.0332,1.4035,10.472,-4.6405,-11.221,-8.7154,-1.9512,-9.7735,-9.8211,-4.6405,-11.221,-2.6534,6.9841,7.5556,5.8413,5.153,5.8615,11.401,-1.7778,16.42,-3.3494
8.0885,4.5933,9.1707,5.817,7.2607,-1.561,-1.3008,1.2298,-9.1707,5.817,7.2607,-0.66335,7.619,8.1905,7.1111,7.7295,5.2174,6.8921,-3.6825,19.048,5.0242
14.408,10.973,13.724,18.235001,23.101999,10.797,6.5041,12.88,1.2358,18.235001,23.101999,8.6235,9.5238,11.365,11.556,12.882,9.7262,-7.9227,5.8413,11.166,14.042
7.4566,7.1451,9.8211,21.503,15.182,12.748,4.5528,10.291,-4.6179,21.503,15.182,7.9602,6.3492,6.2857,7.1111,8.3736,7.1498,8.8245,-1.1429,4.5977,6.9565
3.6651,3.3174,5.9187,31.306999,22.441999,12.748,3.9024,18.058001,-4.6179,31.306999,22.441999,7.9602,5.7143,3.746,2.6667,7.0853,3.285,21.063,-3.6825,10.509,6.9565
4.297,2.0415,4.6179,31.306999,25.743,12.748,3.252,19.353001,-0.71545,31.306999,25.743,7.2968,4.4444,1.8413,0.7619,4.5089,0.70853,-5.3462,1.3968,6.5681,5.6683
9.9842,0.12759,3.3171,26.732,20.462,12.748,1.3008,18.705999,-3.9675,26.732,20.462,6.6335,3.8095,-3.873,2.0317,-0.64412,-1.868,-9.2109,0.7619,4.5977,-3.3494
17.566999,4.5933,7.8699,23.464001,18.482,16.65,7.1545,23.236,-3.9675,23.464001,18.482,12.604,6.9841,-1.3333,9.6508,4.5089,3.9291,19.775,-3.6825,15.764,4.38
13.144,2.0415,2.6667,14.967,9.2409,11.447,7.8049,20.646999,-6.5691,14.967,9.2409,10.614,-0.63492,-4.5079,5.8413,1.2882,1.3527,13.977,-5.5873,11.166,-2.0612
11.248,4.5933,3.3171,7.7778,7.2607,11.447,8.4553,14.822,-3.3171,7.7778,7.2607,10.614,-1.2698,-0.06349,6.4762,4.5089,3.9291,6.248,-3.6825,1.9704,-3.3494
4.9289,2.0415,2.6667,11.699,7.9208,9.4959,3.252,10.291,-7.2195,11.699,7.9208,7.9602,-6.3492,-0.06349,2.0317,3.8647,3.9291,8.8245,-6.8571,-8.5386,1.1594
0.50553,-0.51037,0.06504,16.275,11.881,5.5935,-2.6016,8.3495,-10.472,16.275,11.881,4.6434,-10.794,-1.3333,-2.4127,0.64412,1.3527,7.5362,-5.5873,-13.793,-4.6377
1.7694,0.76555,-1.2358,10.392,13.861,2.3415,-3.9024,9.644,-3.9675,10.392,13.861,3.3167,-6.9841,3.746,0.12698,3.8647,3.285,2.3833,3.3016,-8.5386,-2.7053
-3.2859,-6.252,-7.7398,1.2418,0.0,-7.4146,-5.8537,6.4078,-7.8699,1.2418,0.0,-2.6534,-3.1746,3.746,-2.4127,0.0,-1.2238,-5.3462,-1.7778,-7.8818,-0.12882
-7.7093,-9.4418,-12.293,-1.3725,-3.3003,-11.317,-7.8049,-0.06472,-13.073,-1.3725,-3.3003,-7.9602,-0.63492,5.0159,-5.5873,-2.5765,-4.4444,-10.499,-8.127,-9.8522,1.8035
-8.9731,-8.1659,-10.341,-3.3333,-0.66007,-9.3659,-9.7561,-1.3592,-9.8211,-3.3333,-0.66007,-9.2869,3.8095,10.73,-5.5873,-1.9324,-2.5121,-5.3462,-2.4127,-9.8522,1.1594
-6.4455,-4.9761,-7.0894,-1.3725,-11.881,-0.91057,-9.1057,-2.6537,-7.2195,-1.3725,-11.881,-8.6235,8.8889,15.81,-3.0476,1.9324,1.3527,17.198,-1.1429,0.65681,0.5153
-0.12638,1.4035,-3.187,1.8954,-8.5809,4.2927,-1.9512,3.1715,-1.3659,1.8954,-8.5809,-3.3167,15.238,19.618999,3.3016,7.7295,7.1498,12.045,9.6508,8.5386,6.9565
-4.5498,-3.7002,-12.943,-6.6013,-5.2805,-8.7154,-8.4553,-2.0065,-1.3659,-6.6013,-5.2805,-11.277,6.3492,8.1905,-3.0476,0.0,-1.2238,-0.19324,5.2063,-0.65681,-0.12882
-8.3412,-7.5279,-19.447001,-7.9085,-3.3003,-11.967,-11.707,-6.5372,-2.0163,-7.9085,-3.3003,-15.257,-2.5397,-0.69841,-8.7619,-3.8647,-8.3092,-15.652,0.12698,-8.5386,-0.12882
-6.4455,-3.0622,-14.244,-9.2157,0.0,-4.1626,-1.9512,-4.5955,4.4878,-9.2157,0.0,-7.9602,-4.4444,-3.2381,-6.8571,-0.64412,-6.3768,-17.584999,4.5714,-5.2545,7.6006
-12.133,-5.614,-16.195,-4.6405,-1.3201,-6.7642,-6.5041,-4.5955,3.187,-4.6405,-1.3201,-9.2869,-13.968,-13.397,-10.667,-5.7971,-8.9533,-11.787,2.6667,-1.9704,1.8035
-10.869,-6.89,-13.593,1.8954,1.3201,-8.065,-7.1545,1.877,2.5366,1.8954,1.3201,-8.6235,-16.507999,-15.937,-8.7619,-5.7971,-7.6651,-5.3462,-1.7778,-3.9409,-3.9936
-10.869,-7.5279,-12.293,-5.9477,-1.9802,-6.7642,-3.252,3.1715,2.5366,-5.9477,-1.9802,-6.6335,-17.778,-17.205999,-10.032,-6.4412,-9.5974,6.248,3.9365,-9.1954,-4.6377
-10.869,-8.8038,-12.943,-3.3333,-3.9604,-4.1626,-4.5528,1.2298,-0.71545,-3.3333,-3.9604,-4.6434,-18.413,-19.746,-13.841,-10.95,-14.75,8.1804,-9.3968,-8.5386,-11.723
-7.7093,-5.614,-8.3902,-0.71895,-1.3201,0.39024,0.65041,1.877,-3.3171,-0.71895,-1.3201,0.0,-14.603,-18.476,-12.571,-9.6618,-14.75,4.9597,-10.032,-6.5681,-7.2142
-5.8136,2.0415,-0.58537,-5.9477,5.2805,8.1951,5.8537,3.8188,4.4878,-5.9477,5.2805,7.2968,-10.159,-11.492,-8.7619,-1.2882,-6.3768,8.1804,5.8413,-3.9409,6.9565
-5.1817,2.6794,0.71545,-2.0261,2.6403,6.2439,7.8049,1.2298,5.1382,-2.0261,2.6403,7.9602,-8.8889,-6.4127,-5.5873,0.0,-2.5121,2.3833,2.0317,-9.1954,-0.12882
6.1927,2.6794,5.9187,11.046,1.3201,8.1951,10.407,8.9968,5.1382,11.046,1.3201,11.94,-0.63492,-0.69841,5.2063,1.2882,4.5733,4.3156,0.12698,-3.9409,-7.2142
18.830999,7.7831,15.675,13.66,7.2607,17.951,16.910999,15.469,9.6911,13.66,7.2607,20.563999,10.794,10.73,18.540001,9.6618,16.167,1.095,1.3968,6.5681,-1.4171
19.462999,7.7831,17.625999,10.392,3.3003,19.252001,12.358,8.9968,2.5366,10.392,3.3003,18.573999,19.048,18.349001,22.983999,12.882,21.32,3.6715,-4.3175,15.107,1.1594
8.0885,2.0415,11.772,-2.0261,-1.3201,11.447,0.65041,-1.3592,-9.1707,-2.0261,-1.3201,7.9602,20.952,15.81,17.27,9.0177,18.1,12.689,-10.032,15.107,-1.4171
-2.654,-3.0622,3.9675,-15.752,-5.2805,2.3415,-4.5528,-8.479,-16.976,-15.752,-5.2805,-1.99,15.238,10.095,7.1111,0.64412,9.0821,-1.4815,-17.650999,8.5386,-9.7907
-5.1817,-3.7002,0.06504,-9.8693,-12.541,-8.7154,-5.2033,-7.8317,-11.772,-9.8693,-12.541,-6.6335,12.063,9.4603,3.3016,-2.5765,3.9291,4.3156,-10.667,11.166,-12.367
-0.12638,-0.51037,2.6667,-11.176,-7.2607,-10.016,-8.4553,-7.1845,-2.6667,-11.176,-7.2607,-6.6335,14.603,13.27,7.746,0.64412,5.8615,13.977,-10.667,18.391001,-7.8583
3.0332,-1.1483,1.3659,-18.365999,-14.521,-11.967,-13.008,-13.01,-5.9187,-18.365999,-14.521,-12.604,12.063,10.73,7.1111,1.2882,4.5733,-4.7021,-10.032,12.479,-1.4171
-0.75829,-1.7863,-1.8862,-17.059,-16.502001,-15.22,-13.008,-12.362,-8.5203,-17.059,-16.502001,-15.92,8.8889,9.4603,3.3016,1.9324,2.6409,-10.499,-4.3175,6.5681,2.4477
-9.6051,-4.9761,-8.3902,-19.673,-19.142,-15.87,-14.959,-13.01,-9.8211,-19.673,-19.142,-18.573999,3.1746,8.8254,-5.5873,0.0,-3.8003,-9.2109,-4.9524,3.9409,-0.12882
-12.765,-4.9761,-9.0407,-12.484,-19.142,-15.22,-13.659,-9.1262,-7.8699,-12.484,-19.142,-17.247,-0.63492,6.2857,-9.3968,-0.64412,-5.0886,1.7391,0.12698,-1.3136,3.7359
-8.9731,-4.3381,-7.0894,-20.327,-15.842,-11.317,-12.358,-8.479,-9.1707,-20.327,-15.842,-15.92,-6.3492,-0.69841,-9.3968,-2.5765,-6.3768,-15.652,6.4762,-5.2545,5.0242
-5.1817,-6.252,-6.439,-22.288,-19.802,-10.016,-7.1545,-9.1262,-8.5203,-22.288,-19.802,-13.267,-10.159,-7.0476,-9.3968,-7.7295,-9.5974,-2.1256,0.12698,-8.5386,-2.0612
1.7694,-4.9761,-2.5366,-9.8693,-21.782,-4.1626,-5.2033,-2.0065,-2.0163,-9.8693,-21.782,-5.9701,-6.9841,-7.0476,-4.3175,-7.7295,-7.0209,17.198,-2.4127,-5.2545,-2.0612
10.616,-4.9761,3.3171,-5.2941,-11.221,6.2439,-3.252,1.877,1.2358,-5.2941,-11.221,1.99,3.1746,-0.69841,7.1111,-3.2206,1.9968,15.91,1.3968,3.9409,-0.77295
15.039,-0.51037,9.1707,1.8954,0.66007,11.447,1.9512,5.7605,5.7886,1.8954,0.66007,7.9602,10.159,6.2857,15.365,4.5089,10.37,10.757,8.381,0.0,3.7359
12.512,7.7831,13.724,2.549,5.2805,11.447,7.1545,7.055,5.7886,2.549,5.2805,13.267,9.5238,10.095,13.46,9.0177,11.659,-12.432,3.3016,-4.5977,3.0918
6.1927,12.887,15.675,-2.0261,1.9802,12.748,9.7561,-0.06472,2.5366,-2.0261,1.9802,13.93,3.1746,6.2857,6.4762,10.306,9.7262,-12.432,0.12698,-3.2841,3.0918
13.144,21.818001,22.829,3.2026,3.9604,20.552999,17.561001,8.3495,9.6911,3.2026,3.9604,20.563999,5.7143,7.5556,9.6508,18.035,16.167,-5.3462,0.7619,3.2841,4.38
8.7204,11.611,12.423,-1.3725,-7.2607,15.35,10.407,6.4078,1.8862,-1.3725,-7.2607,11.277,1.2698,-0.06349,3.3016,9.0177,6.5056,2.3833,2.0317,0.0,-0.77295
-3.2859,-6.89,-2.5366,-9.8693,-16.502001,-2.2114,1.3008,-2.6537,-5.9187,-9.8693,-16.502001,-1.99,-6.9841,-8.9524,-6.8571,-5.153,-6.3768,15.91,-0.50794,-3.2841,-3.9936
-6.4455,-10.718,-1.2358,-11.83,-3.9604,-10.016,-2.6016,-3.301,-2.6667,-11.83,-3.9604,-5.3068,-8.8889,-14.032,-8.127,-12.238,-8.9533,15.266,-8.127,2.6273,-7.8583
-0.12638,2.0415,13.724,-3.3333,1.3201,0.39024,3.9024,-0.06472,0.58537,-3.3333,1.3201,5.3068,-0.63492,-5.7778,0.7619,-5.7971,0.70853,10.757,2.6667,10.509,-5.2818
-4.5498,1.4035,10.472,11.699,7.2607,1.0407,5.8537,2.5243,7.7398,11.699,7.2607,5.3068,-3.8095,-7.6825,-4.9524,-10.95,-5.7327,-15.652,3.3016,0.65681,-13.655
-8.3412,-3.0622,3.3171,11.046,12.541,1.6911,4.5528,-2.6537,13.593,11.046,12.541,3.3167,-8.8889,-10.857,-9.3968,-15.459,-10.242,-16.940001,-6.2222,-7.225,-13.655
4.297,4.5933,10.472,20.85,23.761999,8.1951,14.959,0.58252,22.049,20.85,23.761999,13.267,1.9048,-3.873,3.3016,-5.7971,1.3527,8.8245,0.7619,5.9113,1.1594
7.4566,2.6794,10.472,23.464001,30.363001,4.9431,14.959,1.877,22.698999,23.464001,30.363001,11.94,2.5397,-6.4127,6.4762,-7.0853,3.9291,-7.2786,5.2063,2.6273,-5.9259
9.3523,2.6794,14.374,21.503,15.182,2.9919,14.309,1.2298,21.398001,21.503,15.182,8.6235,3.8095,-5.1429,9.6508,-5.153,6.5056,-14.364,5.2063,0.0,-11.723
8.0885,9.059,18.275999,14.967,13.861,4.2927,11.707,1.2298,18.146,14.967,13.861,7.9602,6.9841,1.2063,10.921,3.2206,11.014,-2.7697,9.6508,5.9113,4.38
-0.75829,10.335,14.374,4.5098,17.162001,5.5935,5.8537,-6.5372,13.593,4.5098,17.162001,4.6434,5.0794,6.2857,4.5714,8.3736,9.7262,2.3833,12.19,-1.9704,12.754
-4.5498,7.7831,9.1707,-3.3333,13.861,4.9431,2.6016,-11.715,11.642,-3.3333,13.861,1.3267,3.1746,7.5556,0.12698,9.6618,7.1498,-0.19324,10.921,-8.5386,10.177
-1.3902,5.2313,5.9187,-3.3333,4.6205,-2.8618,3.9024,-9.7735,12.293,-3.3333,4.6205,-0.66335,3.1746,5.0159,1.3968,8.3736,2.6409,10.113,10.286,-1.9704,11.465
-0.75829,4.5933,2.6667,1.2418,-3.3003,-9.3659,4.5528,-9.7735,9.6911,1.2418,-3.3003,-3.9801,1.9048,3.746,-0.50794,4.5089,-3.1562,-5.3462,17.905001,-2.6273,11.465
-1.3902,2.6794,1.3659,0.58824,0.0,-12.618,0.0,-10.421,8.3902,0.58824,0.0,-7.9602,4.4444,3.746,-1.1429,5.153,-3.1562,-7.2786,14.095,-0.65681,12.754
1.7694,0.76555,5.9187,0.58824,0.0,-4.813,-3.9024,-4.5955,9.6911,0.58824,0.0,-4.6434,7.619,7.5556,2.6667,8.3736,1.9968,8.1804,4.5714,3.9409,16.618
-2.654,-4.9761,5.2683,0.58824,-0.66007,1.6911,-7.8049,-5.2427,6.439,0.58824,-0.66007,-5.3068,-0.63492,1.2063,-2.4127,1.9324,-0.57971,-0.83736,0.7619,-3.2841,8.8889
-5.1817,-5.614,0.71545,-2.6797,4.6205,-4.1626,-5.8537,-6.5372,3.8374,-2.6797,4.6205,-8.6235,-5.0794,-1.3333,-4.9524,-1.2882,-3.8003,-2.1256,2.0317,-9.1954,1.1594
-2.0221,-1.7863,-3.187,-10.523,-1.9802,-10.016,-10.407,-7.8317,3.187,-10.523,-1.9802,-11.94,-3.1746,-0.06349,-1.7778,-0.64412,-2.5121,6.248,9.6508,-6.5681,-2.0612
0.50553,0.12759,-3.8374,-9.2157,-5.2805,-11.317,-9.1057,-9.1262,1.2358,-9.2157,-5.2805,-13.267,-4.4444,-0.06349,-0.50794,-1.9324,-3.1562,-1.4815,-1.1429,-4.5977,-2.7053
2.4013,0.76555,0.71545,-3.3333,-5.2805,-8.065,0.65041,-5.2427,2.5366,-3.3333,-5.2805,-6.6335,-3.8095,1.2063,0.12698,-1.9324,-1.868,-3.4138,-4.9524,1.3136,2.4477
-0.12638,-6.252,0.71545,-5.9477,-11.881,1.6911,0.0,-7.8317,-0.71545,-5.9477,-11.881,-4.6434,-5.7143,-0.69841,-4.9524,-6.4412,-5.7327,-9.2109,-4.3175,1.9704,2.4477
-5.8136,-8.8038,-1.2358,-9.8693,-9.901,-0.91057,-3.252,-6.5372,-3.9675,-9.8693,-9.901,-7.2968,-7.619,-3.2381,-11.302,-9.6618,-9.5974,-33.042999,-9.3968,-5.9113,-2.7053
-8.9731,-1.7863,-0.58537,-7.2549,0.0,-12.618,-6.5041,-7.8317,-2.0163,-7.2549,0.0,-8.6235,-3.8095,1.2063,-10.032,-2.5765,-4.4444,-7.2786,2.6667,-5.9113,-1.4171
-7.7093,4.5933,-1.2358,-3.3333,-1.9802,-15.87,-5.2033,-12.362,1.8862,-3.3333,-1.9802,-7.9602,3.8095,7.5556,-2.4127,6.4412,2.6409,17.841999,9.0159,1.9704,3.7359
-4.5498,5.2313,-3.187,-12.484,-3.3003,-10.667,-1.9512,-14.304,3.187,-12.484,-3.3003,-5.9701,5.7143,6.2857,0.12698,7.0853,3.285,6.8921,7.746,2.6273,8.8889
4.297,9.697,5.9187,-13.791,-8.5809,5.5935,7.8049,-13.01,8.3902,-13.791,-8.5809,3.9801,7.619,6.9206,5.2063,9.6618,5.8615,5.6039,6.4762,6.5681,14.042
10.616,15.439,15.024,2.549,1.3201,14.699,16.910999,-1.3592,16.846001,2.549,1.3201,13.267,13.333,15.81,9.6508,16.103001,11.659,-11.143,12.825,9.1954,19.195
-1.3902,7.7831,5.2683,7.1242,6.6007,1.0407,6.5041,-1.3592,9.0407,7.1242,6.6007,5.3068,5.7143,12.0,-1.1429,10.306,2.6409,-24.025999,18.540001,-3.2841,12.754
-14.66,-0.51037,-8.3902,-3.3333,3.3003,-11.967,-5.8537,-9.7735,1.8862,-3.3333,3.3003,-6.6335,-5.7143,2.4762,-11.302,1.9324,-7.6651,-9.2109,9.0159,-9.8522,5.6683
-12.765,-5.614,-13.593,-13.137,-3.9604,-8.7154,-6.5041,-9.1262,1.2358,-13.137,-3.9604,-7.9602,-8.254,-3.873,-11.937,-5.153,-12.818,6.8921,-2.4127,-2.6273,-0.12882
-0.12638,-8.8038,-10.341,-8.5621,-9.901,3.6423,-2.6016,-2.0065,4.4878,-8.5621,-9.901,-2.6534,-5.7143,-6.4127,-6.8571,-9.6618,-14.75,7.5362,2.0317,0.65681,-0.12882
4.297,-8.8038,-7.0894,-4.6405,-12.541,5.5935,-1.3008,1.2298,-1.3659,-4.6405,-12.541,-2.6534,-4.4444,-8.9524,-4.9524,-10.95,-14.75,-10.499,2.0317,-1.3136,-2.0612
-3.9179,-10.718,-9.6911,-3.9869,-10.561,-7.4146,-10.407,0.58252,-11.122,-3.9869,-10.561,-10.614,-6.3492,-13.397,-6.8571,-11.594,-14.106,-5.3462,-6.2222,-1.3136,-5.9259
-7.7093,-10.08,-9.0407,1.2418,-1.3201,-13.268,-13.659,1.877,-8.5203,1.2418,-1.3201,-11.94,-6.3492,-16.570999,-6.2222,-9.0177,-9.5974,4.9597,-3.0476,-1.9704,-5.2818
-6.4455,-9.4418,-9.0407,-4.6405,-3.3003,-4.813,-7.8049,3.8188,-2.0163,-4.6405,-3.3003,-5.9701,-12.698,-22.285999,-10.032,-12.882,-12.818,4.9597,-1.7778,-6.5681,-7.2142
-3.2859,-9.4418,-9.0407,-5.9477,-6.6007,3.6423,-5.8537,2.5243,-1.3659,-5.9477,-6.6007,-2.6534,-18.413,-24.190001,-11.302,-17.391001,-16.683001,9.4686,0.7619,-3.2841,-13.011
6.8246,-3.0622,-2.5366,-0.71895,-5.9406,5.5935,-0.65041,7.7023,0.58537,-0.71895,-5.9406,0.0,-11.429,-17.841,-2.4127,-12.882,-9.5974,-40.772999,-1.1429,-4.5977,-14.3
3.0332,-3.0622,-1.2358,-0.06536,-9.901,-5.4634,-3.252,5.7605,-4.6179,-0.06536,-9.901,-3.9801,-6.3492,-12.762,-1.1429,-9.0177,-5.7327,-26.601999,-13.841,-5.9113,-9.7907
-9.6051,-5.614,-7.0894,-5.9477,-10.561,-16.52,-9.7561,-0.06472,-11.122,-5.9477,-10.561,-9.9502,-5.7143,-10.857,-6.8571,-7.7295,-7.0209,23.639,-13.841,-0.65681,-5.2818
-15.924,-8.1659,-13.593,-19.673,-13.201,-12.618,-13.008,-6.5372,-13.724,-19.673,-13.201,-11.94,-9.5238,-12.762,-15.111,-9.6618,-12.174,10.113,-6.8571,-7.225,-9.1465
-8.9731,-6.252,-8.3902,-16.405001,-12.541,-7.4146,-5.8537,-5.2427,-12.423,-16.405001,-12.541,-7.2968,-1.2698,-2.6032,-9.3968,-3.2206,-6.3768,4.9597,-8.127,-3.2841,-7.2142
-2.654,-1.7863,0.06504,-5.9477,-11.221,-9.3659,-1.9512,-5.2427,-8.5203,-5.9477,-11.221,-4.6434,8.8889,9.4603,2.6667,7.0853,4.5733,12.689,-1.1429,6.5681,3.7359
-0.75829,2.6794,3.3171,-0.06536,-13.201,-4.1626,-1.9512,-3.9482,-4.6179,-0.06536,-13.201,-2.6534,12.063,17.079,7.1111,12.882,10.37,14.622,-1.1429,9.1954,8.2448
-1.3902,2.0415,-0.58537,-11.83,-9.901,-1.561,-4.5528,-7.1845,-3.3171,-11.83,-9.901,-2.6534,10.159,14.54,3.9365,11.594,7.1498,5.6039,-0.50794,5.2545,7.6006
1.1374,2.0415,-0.58537,-12.484,-1.9802,-0.91057,-5.2033,-7.1845,-2.6667,-12.484,-1.9802,-0.66335,8.254,13.27,3.3016,9.6618,5.2174,-3.4138,2.6667,0.0,9.533
9.3523,5.8692,9.8211,-3.9869,-1.9802,5.5935,2.6016,-1.3592,0.58537,-3.9869,-1.9802,7.9602,9.5238,16.444,8.381,12.238,9.0821,-6.6345,6.4762,1.3136,10.821
8.0885,7.7831,13.073,-6.6013,-1.3201,8.1951,5.2033,-5.2427,5.7886,-6.6013,-1.3201,10.614,5.7143,12.0,6.4762,10.95,8.438,-9.2109,8.381,-0.65681,9.533
-0.12638,4.5933,4.6179,-0.06536,4.6205,5.5935,0.65041,-10.421,12.293,-0.06536,4.6205,6.6335,-2.5397,2.4762,0.12698,4.5089,0.06441,-5.9903,10.921,-4.5977,9.533
-2.654,2.6794,-3.187,8.4314,4.6205,2.9919,5.2033,-6.5372,13.593,8.4314,4.6205,7.2968,-6.3492,-2.6032,-4.3175,1.2882,-5.7327,4.9597,8.381,-5.9113,8.8889
1.7694,2.6794,-3.187,9.7386,7.2607,4.9431,8.4553,-0.71197,9.6911,9.7386,7.2607,7.2968,-7.619,-5.1429,-4.3175,-0.64412,-7.0209,12.689,4.5714,-5.2545,5.0242
11.88,7.7831,7.2195,13.66,13.201,10.797,14.309,7.055,12.943,13.66,13.201,13.267,-0.63492,0.57143,5.2063,5.7971,2.6409,9.4686,9.6508,7.225,5.6683
12.512,9.059,12.423,13.007,9.2409,14.049,14.309,8.3495,13.593,13.007,9.2409,15.257,1.2698,2.4762,7.746,7.0853,7.1498,14.622,16.635,7.225,4.38
-1.3902,0.76555,-0.58537,-2.6797,1.3201,7.5447,1.9512,-0.06472,7.7398,-2.6797,1.3201,3.9801,-3.1746,-5.1429,-3.0476,-2.5765,-1.868,-4.058,5.2063,-4.5977,-5.9259
-7.7093,-4.3381,-11.642,-8.5621,-3.3003,-2.2114,-7.8049,-2.6537,0.58537,-8.5621,-3.3003,-5.9701,-0.63492,-7.0476,-6.8571,-6.4412,-6.3768,-18.229,-10.032,-5.2545,-9.7907
-0.75829,-1.1483,-9.6911,-1.3725,-7.2607,-3.5122,-6.5041,1.2298,-0.06504,-1.3725,-7.2607,-7.2968,8.8889,-1.3333,2.0317,-1.9324,-1.2238,-2.7697,-8.127,7.8818,-3.9936
3.6651,-2.4242,-5.7886,-4.6405,-13.861,-5.4634,-5.2033,1.2298,-5.2683,-4.6405,-13.861,-8.6235,11.429,-0.06349,7.746,-1.2882,2.6409,3.6715,-6.2222,7.8818,-3.9936
-1.3902,-6.89,-5.7886,-3.3333,-6.6007,-8.065,-4.5528,0.58252,-6.5691,-3.3333,-6.6007,-7.9602,6.3492,-5.7778,3.9365,-5.7971,1.3527,1.095,-17.016001,3.2841,-12.367
-6.4455,-8.8038,-10.341,-0.06536,-2.6403,-5.4634,-5.8537,1.2298,-9.8211,-0.06536,-2.6403,-8.6235,3.8095,-4.5079,0.12698,-6.4412,-1.2238,7.5362,-18.285999,3.2841,-12.367
-5.1817,-3.0622,-9.6911,3.2026,-3.9604,-2.8618,-2.6016,4.466,-5.2683,3.2026,-3.9604,-6.6335,6.9841,3.1111,4.5714,0.64412,3.9291,14.622,-4.3175,11.166,-1.4171
-8.3412,0.76555,-10.341,-5.9477,-5.9406,-9.3659,-6.5041,-3.9482,-6.5691,-5.9477,-5.9406,-10.614,3.8095,4.381,2.0317,3.2206,3.9291,4.9597,-5.5873,3.9409,-2.0612
-8.9731,1.4035,-8.3902,-11.83,-9.901,-6.7642,-1.3008,-8.479,-5.9187,-11.83,-9.901,-9.9502,-0.63492,1.8413,-2.4127,1.2882,0.70853,-0.83736,-8.7619,-1.3136,-3.9936
-9.6051,-5.614,-12.293,-11.83,-5.2805,-7.4146,1.9512,-9.7735,-0.06504,-11.83,-5.2805,-8.6235,-5.7143,-2.6032,-8.127,-6.4412,-7.0209,3.0274,-3.6825,-1.9704,-4.6377
-11.501,-9.4418,-18.146,-5.2941,-4.6205,-14.569,-7.8049,-7.1845,1.2358,-5.2941,-4.6205,-11.277,-11.429,-3.873,-10.032,-8.3736,-10.886,-13.076,5.2063,-4.5977,0.5153
-3.2859,7.1451,-3.8374,1.2418,0.66007,-3.5122,1.9512,3.8188,9.6911,1.2418,0.66007,-0.66335,-6.9841,5.6508,-1.7778,6.4412,1.9968,-16.296,18.540001,-5.2545,15.33
-6.4455,10.973,1.3659,-7.9085,8.5809,2.3415,5.8537,-1.3592,7.0894,-7.9085,8.5809,1.3267,-15.238,0.57143,-7.4921,4.5089,0.70853,-11.787,10.921,-13.136,8.2448
-5.1817,7.1451,4.6179,-0.71895,6.6007,2.9919,7.1545,-2.0065,3.8374,-0.71895,6.6007,4.6434,-18.413,-6.4127,-9.3968,-1.2882,-2.5121,-0.83736,9.0159,-11.166,-0.77295
-2.0221,-0.51037,2.6667,4.5098,-3.9604,1.6911,7.8049,-3.9482,2.5366,4.5098,-3.9604,7.9602,-16.507999,-8.9524,-6.2222,-7.0853,-5.0886,2.3833,8.381,-12.479,-3.3494
-2.0221,-5.614,0.06504,-2.0261,-1.3201,-2.2114,6.5041,-5.2427,3.8374,-2.0261,-1.3201,5.9701,-14.603,-9.5873,-4.9524,-9.0177,-5.7327,-4.058,-1.1429,-9.8522,-7.8583
-3.2859,-3.0622,0.71545,-11.176,-2.6403,-5.4634,-1.3008,-1.3592,1.8862,-11.176,-2.6403,1.99,-10.159,-6.4127,-4.3175,-2.5765,-1.868,1.095,0.12698,-3.2841,-3.9936
-12.765,-8.8038,-8.3902,-18.365999,-17.822001,-13.268,-14.959,-7.1845,-12.423,-18.365999,-17.822001,-9.9502,-6.3492,-6.4127,-10.032,-4.5089,-6.3768,1.7391,-3.0476,-3.2841,-8.5024
-7.7093,-10.718,-9.0407,-7.9085,-20.462,-12.618,-14.309,-5.2427,-20.878,-7.9085,-20.462,-11.94,5.0794,0.57143,-3.6825,-1.2882,-3.8003,5.6039,-10.667,5.9113,-5.9259
-0.12638,-9.4418,-5.1382,-0.06536,-13.861,-6.1138,-9.1057,-3.301,-15.675,-0.06536,-13.861,-5.9701,12.698,6.9206,3.3016,3.8647,1.3527,-11.787,-10.032,13.136,8.8889
-1.3902,-7.5279,-3.8374,-9.2157,-9.2409,-6.1138,-4.5528,-2.6537,-7.8699,-9.2157,-9.2409,-3.3167,7.619,4.381,0.7619,1.9324,-0.57971,-14.364,-2.4127,5.2545,6.9565
-3.2859,-0.51037,-1.2358,-15.752,-4.6205,-4.1626,-1.9512,-1.3592,-4.6179,-15.752,-4.6205,0.66335,6.3492,3.746,-1.7778,3.2206,-0.57971,0.45089,-0.50794,-1.9704,2.4477
-5.1817,0.76555,-3.187,-13.791,-6.6007,-2.2114,-3.9024,-3.301,-5.9187,-13.791,-6.6007,0.66335,6.3492,5.0159,-1.7778,3.8647,-1.868,6.248,-8.127,0.65681,0.5153
6.8246,2.0415,0.71545,7.1242,-2.6403,2.3415,1.3008,5.1133,-2.6667,7.1242,-2.6403,5.3068,15.238,11.365,10.286,7.7295,4.5733,6.248,0.7619,13.793,6.9565
10.616,-0.51037,-1.2358,10.392,-1.9802,6.2439,3.9024,2.5243,-2.6667,10.392,-1.9802,4.6434,15.238,7.5556,12.825,3.8647,4.5733,4.9597,0.12698,10.509,5.0242
6.1927,0.76555,-2.5366,4.5098,5.9406,5.5935,2.6016,2.5243,-1.3659,4.5098,5.9406,3.9801,8.8889,3.1111,8.381,0.64412,2.6409,3.0274,-1.7778,2.6273,2.4477
2.4013,1.4035,-3.8374,-0.71895,3.3003,2.3415,0.65041,6.4078,-2.0163,-0.71895,3.3003,3.3167,3.1746,1.8413,2.6667,-0.64412,-0.57971,-4.7021,-1.7778,-2.6273,-1.4171
3.6651,3.3174,-5.1382,-8.5621,1.3201,7.5447,1.3008,3.8188,-0.71545,-8.5621,1.3201,3.9801,-0.63492,1.8413,0.12698,1.2882,-0.57971,-11.143,-3.0476,-6.5681,-4.6377
3.6651,5.2313,-4.4878,1.8954,5.2805,10.797,3.9024,2.5243,0.58537,1.8954,5.2805,5.9701,-0.63492,3.1111,0.7619,3.8647,2.6409,5.6039,2.0317,-3.9409,3.0918
1.1374,3.3174,-6.439,9.7386,-0.66007,5.5935,3.252,0.58252,3.187,9.7386,-0.66007,3.3167,-2.5397,1.2063,-1.7778,1.2882,0.70853,1.7391,3.3016,-5.9113,2.4477
4.297,7.1451,-5.1382,10.392,2.6403,10.146,5.2033,3.8188,7.0894,10.392,2.6403,4.6434,-2.5397,-1.3333,-1.1429,2.5765,1.3527,5.6039,13.46,-1.3136,4.38
5.5608,9.697,-3.187,12.353,7.2607,8.1951,8.4553,8.9968,9.0407,12.353,7.2607,5.9701,-1.9048,-5.7778,1.3968,0.64412,1.9968,-11.787,10.286,1.9704,1.8035
1.7694,0.12759,-7.0894,-0.06536,2.6403,4.2927,0.0,3.1715,3.187,-0.06536,2.6403,1.3267,-1.2698,-10.857,0.12698,-5.153,-1.2238,-11.143,-1.1429,-3.9409,-1.4171
2.4013,-4.3381,-6.439,-3.3333,4.6205,5.5935,-1.9512,1.877,1.2358,-3.3333,4.6205,1.99,3.1746,-6.4127,2.0317,-3.8647,0.06441,3.0274,0.12698,-1.9704,5.6683
-0.75829,-8.1659,-12.293,-1.3725,-1.9802,-0.91057,-3.9024,-0.06472,-0.06504,-1.3725,-1.9802,-3.9801,-0.63492,-7.0476,-2.4127,-7.0853,-5.0886,5.6039,-0.50794,3.2841,1.8035
5.5608,-0.51037,-7.7398,11.046,-0.66007,5.5935,1.9512,7.7023,3.187,11.046,-0.66007,0.0,5.0794,-0.06349,2.6667,0.0,0.06441,9.4686,11.556,8.5386,0.5153
3.6651,2.6794,-6.439,7.7778,3.3003,6.2439,3.9024,8.3495,3.187,7.7778,3.3003,1.99,8.8889,0.57143,5.2063,1.9324,2.6409,11.401,7.1111,5.9113,-0.77295
-0.12638,-4.9761,-7.0894,0.58824,4.6205,2.3415,-3.252,7.7023,-0.06504,0.58824,4.6205,1.3267,4.4444,-5.7778,2.0317,-5.153,-1.2238,8.8245,-3.0476,1.3136,-4.6377
2.4013,-8.1659,-5.1382,5.817,7.2607,4.2927,-1.9512,8.9968,-1.3659,5.817,7.2607,1.99,2.5397,-7.6825,2.0317,-7.0853,-1.868,-15.008,-6.8571,1.3136,-5.9259
10.616,1.4035,0.71545,14.314,6.6007,10.797,3.9024,15.469,0.58537,14.314,6.6007,7.9602,9.5238,3.1111,9.6508,3.8647,7.1498,2.3833,0.7619,6.5681,-1.4171
5.5608,0.12759,-5.1382,8.4314,-7.2607,8.1951,0.0,8.3495,-3.9675,8.4314,-7.2607,2.6534,6.3492,0.57143,5.8413,3.8647,4.5733,10.757,-2.4127,6.5681,-0.12882
-1.3902,-2.4242,-7.0894,6.4706,-6.6007,4.2927,-2.6016,0.58252,-9.8211,6.4706,-6.6007,-1.99,1.9048,-3.2381,1.3968,2.5765,3.285,-9.2109,-8.7619,1.9704,2.4477
4.9289,4.5933,2.0163,7.1242,9.2409,5.5935,5.2033,3.8188,-3.9675,7.1242,9.2409,5.3068,7.619,5.0159,9.0159,9.0177,11.014,-2.1256,2.0317,5.2545,4.38
6.8246,7.7831,5.2683,-0.06536,15.182,7.5447,9.7561,2.5243,4.4878,-0.06536,15.182,9.9502,8.254,6.2857,10.921,7.7295,11.659,-18.229,3.9365,-2.6273,-3.3494
5.5608,9.697,7.2195,3.2026,9.901,8.1951,12.358,0.58252,7.7398,3.2026,9.901,13.267,7.619,7.5556,10.286,9.0177,11.659,-18.872999,-1.7778,-1.3136,0.5153
13.144,19.266001,16.976,14.967,8.5809,10.797,22.114,10.291,12.293,14.967,8.5809,20.563999,12.698,16.444,17.905001,18.035,20.032,13.977,8.381,9.1954,11.465
7.4566,16.715,12.423,10.392,7.2607,2.9919,16.26,6.4078,6.439,10.392,7.2607,11.94,5.0794,12.0,11.556,13.527,15.523,13.977,3.9365,1.9704,2.4477
0.50553,10.973,4.6179,1.8954,9.901,-2.2114,7.1545,-0.71197,4.4878,1.8954,9.901,4.6434,-0.63492,8.1905,5.2063,9.6618,8.438,5.6039,6.4762,1.3136,1.8035
-1.3902,6.5072,0.06504,1.8954,7.9208,-0.91057,3.252,-3.301,3.187,1.8954,7.9208,3.3167,-1.2698,6.9206,0.7619,7.7295,3.9291,-7.9227,3.3016,-0.65681,3.0918
-2.0221,0.12759,-3.8374,-2.6797,7.9208,-6.1138,-1.9512,-9.1262,0.58537,-2.6797,7.9208,-0.66335,-2.5397,3.746,-1.7778,3.2206,0.70853,-0.19324,-1.1429,0.65681,6.3124
2.4013,2.0415,0.06504,-5.9477,3.9604,-4.1626,-1.3008,-5.89,1.2358,-5.9477,3.9604,0.66335,3.1746,5.6508,4.5714,3.8647,5.2174,3.6715,2.6667,2.6273,4.38
-3.2859,-2.4242,-3.8374,-4.6405,-5.2805,-8.065,-7.8049,-1.3592,-8.5203,-4.6405,-5.2805,-3.9801,0.0,-1.3333,0.12698,-1.9324,0.06441,-5.3462,-0.50794,-2.6273,-2.0612
-5.1817,-6.252,-7.7398,-0.06536,-5.2805,-10.016,-9.1057,5.7605,-14.374,-0.06536,-5.2805,-5.3068,-0.63492,-3.2381,-3.0476,-4.5089,-3.8003,12.045,-3.6825,3.9409,-2.0612
1.7694,-5.614,-5.7886,5.817,-10.561,-6.7642,-5.8537,12.88,-18.275999,5.817,-10.561,-0.66335,0.63492,-1.9683,-1.7778,-5.153,-5.0886,22.995001,-7.4921,8.5386,-6.57
4.297,-6.89,-4.4878,6.4706,-7.2607,-2.2114,-7.8049,15.469,-20.878,6.4706,-7.2607,0.66335,-3.8095,-7.0476,-3.6825,-8.3736,-8.3092,11.401,-5.5873,1.3136,-11.079
8.7204,-3.0622,-0.58537,1.2418,-1.3201,5.5935,-3.9024,12.233,-19.577,1.2418,-1.3201,4.6434,1.9048,-4.5079,3.3016,-4.5089,-2.5121,-0.19324,-9.3968,7.8818,-8.5024
9.3523,-4.3381,-3.187,2.549,-4.6205,4.2927,-4.5528,7.7023,-21.528,2.549,-4.6205,2.6534,4.4444,-3.2381,7.746,-1.9324,1.3527,2.3833,-14.476,13.793,-3.3494
8.0885,-1.1483,-2.5366,2.549,1.3201,7.5447,-3.9024,9.644,-16.325001,2.549,1.3201,3.9801,6.3492,0.57143,10.286,3.2206,7.1498,2.3833,-11.302,9.1954,1.1594
8.0885,0.76555,-1.2358,5.817,0.0,6.8943,-2.6016,12.233,-11.772,5.817,0.0,4.6434,9.5238,5.0159,11.556,5.153,11.014,4.9597,-15.746,6.5681,-0.12882
9.3523,1.4035,2.0163,7.7778,1.3201,3.6423,0.0,11.586,-12.423,7.7778,1.3201,5.9701,11.429,10.095,12.19,5.7971,14.235,12.045,-9.3968,1.3136,-3.3494
6.8246,2.6794,3.9675,2.549,-0.66007,10.146,4.5528,11.586,-11.122,2.549,-0.66007,9.9502,8.8889,6.9206,9.0159,3.2206,12.947,5.6039,-8.7619,-2.6273,-12.367
4.9289,5.2313,4.6179,3.2026,0.0,13.398,6.5041,13.528,-7.2195,3.2026,0.0,11.94,5.0794,5.0159,5.2063,5.153,12.303,0.45089,-4.9524,1.3136,-6.57
4.9289,9.059,7.2195,11.046,15.182,16.65,4.5528,14.822,-2.6667,11.046,15.182,12.604,4.4444,11.365,6.4762,12.238,15.523,10.757,9.0159,1.9704,1.8035
-0.12638,4.5933,3.3171,10.392,9.901,7.5447,2.6016,8.9968,-3.3171,10.392,9.901,5.9701,-3.1746,6.9206,1.3968,5.7971,9.7262,-14.364,0.7619,-5.9113,-5.9259
1.1374,4.5933,3.3171,6.4706,3.3003,9.4959,8.4553,10.939,3.187,6.4706,3.3003,7.2968,-5.0794,5.6508,0.7619,3.8647,7.1498,-9.8551,-3.6825,-3.2841,-1.4171
-10.237,-3.7002,-6.439,3.2026,0.66007,-3.5122,1.9512,7.7023,-3.9675,3.2026,0.66007,-0.66335,-12.698,-3.2381,-9.3968,-5.153,-5.0886,6.248,-6.8571,-6.5681,-0.12882
-15.924,-13.27,-14.244,-4.6405,-8.5809,-15.87,-9.7561,0.58252,-11.122,-4.6405,-8.5809,-9.2869,-13.968,-9.5873,-14.476,-14.171,-14.75,6.8921,-7.4921,-4.5977,-5.9259
-6.4455,-7.5279,-9.0407,-8.5621,-1.9802,-4.1626,-7.1545,1.877,-5.9187,-8.5621,-1.9802,-5.3068,-5.0794,-5.7778,-7.4921,-10.306,-12.174,-6.6345,-1.7778,-2.6273,-2.0612
-3.9179,-3.7002,-7.0894,-9.2157,-1.9802,1.0407,-4.5528,-1.3592,-3.3171,-9.2157,-1.9802,-3.3167,0.0,-4.5079,-4.3175,-6.4412,-10.242,-2.1256,-4.3175,-3.9409,3.7359
-0.75829,-3.7002,-4.4878,-6.6013,-2.6403,-0.26016,-3.252,-1.3592,-6.5691,-6.6013,-2.6403,-0.66335,1.2698,-0.69841,-2.4127,-4.5089,-8.9533,2.3833,-3.6825,-1.9704,2.4477
-0.75829,-3.7002,-4.4878,-0.71895,5.2805,1.6911,-1.9512,4.466,-4.6179,-0.71895,5.2805,2.6534,-0.63492,1.8413,-3.6825,-1.9324,-8.3092,6.248,-2.4127,0.0,2.4477
-2.654,0.12759,-3.187,9.7386,0.0,1.6911,-2.6016,8.3495,2.5366,9.7386,0.0,3.3167,0.0,3.1111,-4.3175,1.9324,-4.4444,4.3156,2.6667,-5.9113,2.4477
-2.0221,2.6794,-0.58537,7.7778,-5.9406,2.9919,0.0,6.4078,0.58537,7.7778,-5.9406,3.9801,-0.63492,1.8413,-4.9524,1.9324,-3.1562,-9.8551,6.4762,-8.5386,0.5153
2.4013,5.2313,2.6667,6.4706,-3.9604,4.2927,5.8537,4.466,-2.0163,6.4706,-3.9604,7.2968,1.2698,0.57143,-0.50794,1.9324,0.06441,4.3156,-2.4127,3.2841,-2.7053
5.5608,6.5072,4.6179,3.8562,5.9406,9.4959,9.7561,6.4078,2.5366,3.8562,5.9406,10.614,2.5397,2.4762,2.6667,3.2206,3.9291,8.8245,0.12698,7.225,-2.7053
6.1927,3.9553,2.0163,-2.0261,7.2607,16.65,10.407,6.4078,-1.3659,-2.0261,7.2607,9.9502,-1.2698,4.381,0.7619,2.5765,3.9291,-0.19324,-1.7778,1.3136,-2.7053
13.144,9.059,9.1707,12.353,13.861,23.153999,13.659,15.469,4.4878,12.353,13.861,15.92,3.1746,12.0,7.1111,10.306,11.014,12.689,2.0317,12.479,7.6006
4.9289,4.5933,3.9675,10.392,13.861,8.8455,6.5041,10.939,3.8374,10.392,13.861,7.2968,-3.8095,3.746,1.3968,4.5089,5.8615,1.7391,3.9365,5.9113,10.177
-3.9179,0.12759,-3.187,3.2026,-3.9604,-6.1138,-2.6016,1.2298,1.8862,3.2026,-3.9604,-3.3167,-13.333,-8.9524,-7.4921,-6.4412,-3.8003,-9.2109,-3.0476,-7.8818,-4.6377
-2.654,-4.3381,-6.439,1.8954,-5.2805,-4.813,-3.9024,-2.0065,-0.06504,1.8954,-5.2805,-6.6335,-17.143,-12.127,-9.3968,-10.95,-8.3092,-16.296,-7.4921,-12.479,-5.9259
-2.0221,-6.252,-8.3902,-4.6405,0.66007,0.39024,-4.5528,-3.9482,0.58537,-4.6405,0.66007,-7.2968,-17.143,-12.127,-8.127,-9.6618,-8.3092,-9.8551,4.5714,-10.509,-0.12882
-3.2859,-6.252,-8.3902,-11.176,-8.5809,1.0407,-3.9024,-5.89,-0.71545,-11.176,-8.5809,-7.2968,-13.968,-8.9524,-8.127,-7.0853,-8.3092,-3.4138,7.746,-8.5386,0.5153
-5.8136,-6.252,-8.3902,-7.9085,-4.6205,-5.4634,-1.9512,-4.5955,-0.06504,-7.9085,-4.6205,-8.6235,-8.254,-4.5079,-9.3968,-4.5089,-9.5974,-2.1256,5.2063,-3.9409,5.0242
-7.0774,-9.4418,-9.0407,-2.6797,0.0,-13.268,-7.1545,-4.5955,-2.6667,-2.6797,0.0,-10.614,-2.5397,-4.5079,-10.032,-7.7295,-13.462,8.1804,-0.50794,0.0,3.7359
-5.8136,-12.632,-9.6911,-3.9869,-5.9406,-9.3659,-12.358,-5.2427,-5.2683,-3.9869,-5.9406,-11.94,0.63492,-3.873,-10.032,-10.306,-14.75,-15.008,-1.1429,-5.2545,-2.7053
1.1374,-4.3381,-3.187,-0.71895,-5.9406,-2.2114,-5.2033,-1.3592,-2.0163,-0.71895,-5.9406,-5.9701,6.3492,2.4762,-1.7778,-5.153,-7.6651,-9.2109,2.0317,0.65681,-2.7053
0.50553,-2.4242,0.06504,-0.71895,-3.3003,-2.8618,-3.252,-4.5955,-0.71545,-0.71895,-3.3003,-3.3167,8.8889,7.5556,1.3968,-1.2882,-3.8003,0.45089,-0.50794,7.225,3.0918
-2.0221,-2.4242,0.06504,-1.3725,-0.66007,1.6911,-1.3008,-7.1845,1.8862,-1.3725,-0.66007,-0.66335,8.8889,8.8254,1.3968,1.2882,-2.5121,3.6715,-7.4921,1.9704,11.465
2.4013,-1.1483,3.9675,-0.06536,-3.9604,8.1951,1.3008,-1.3592,3.187,-0.06536,-3.9604,3.9801,9.5238,6.9206,5.2063,1.9324,0.06441,2.3833,-2.4127,0.0,3.7359
13.776,2.6794,10.472,-1.3725,-1.3201,10.146,1.9512,0.58252,3.8374,-1.3725,-1.3201,7.2968,12.698,8.8254,13.46,4.5089,5.2174,-7.2786,7.1111,5.2545,-1.4171
18.198999,8.4211,18.275999,1.8954,1.3201,7.5447,7.8049,-1.3592,1.2358,1.8954,1.3201,10.614,16.507999,9.4603,20.444,8.3736,12.303,4.9597,3.3016,15.764,-0.12882
16.302999,12.249,21.528,13.007,7.9208,9.4959,12.358,5.7605,-0.06504,13.007,7.9208,13.93,19.048,6.2857,20.444,10.306,16.167,10.757,-4.9524,15.764,-0.77295
4.9289,3.9553,7.8699,10.392,3.9604,1.0407,3.252,6.4078,-0.71545,10.392,3.9604,5.3068,8.8889,-5.7778,7.1111,-1.2882,4.5733,-8.5668,-10.667,4.5977,-13.011
-7.7093,-7.5279,-5.1382,5.1634,3.9604,-8.065,-6.5041,-0.71197,-2.0163,5.1634,3.9604,-5.9701,-1.2698,-15.937,-5.5873,-12.882,-8.3092,4.9597,-10.032,0.65681,-17.52
-10.237,-10.718,-8.3902,-3.9869,0.66007,-10.667,-10.407,-3.9482,-3.3171,-3.9869,0.66007,-11.277,-5.0794,-21.016001,-9.3968,-16.747,-13.462,9.4686,-9.3968,1.3136,-16.232
-4.5498,-6.89,-3.187,-3.9869,-2.6403,-4.813,-7.8049,-0.06472,-2.6667,-3.9869,-2.6403,-9.2869,-5.0794,-14.667,-7.4921,-10.306,-8.9533,-0.19324,-4.3175,7.8818,-3.3494
-2.654,-0.51037,-1.8862,-0.06536,-0.66007,-0.26016,-2.6016,5.1133,1.8862,-0.06536,-0.66007,-6.6335,-6.3492,-4.5079,-6.2222,0.64412,-2.5121,-7.9227,5.2063,3.2841,12.754
-12.133,-10.08,-15.545,-13.791,-20.462,-10.667,-11.057,-8.479,-6.5691,-13.791,-20.462,-17.91,-15.873,-7.6825,-15.111,-5.153,-10.242,-38.841,-1.1429,-21.018,3.0918
-13.397,-11.356,-16.846001,-12.484,-14.521,-11.967,-11.057,-11.068,-4.6179,-12.484,-14.521,-17.91,-13.333,-4.5079,-13.841,-5.7971,-12.174,-9.2109,1.3968,-17.077,0.5153
-17.188,-10.718,-13.593,-13.137,-6.6007,-17.171,-13.008,-11.068,-2.6667,-13.137,-6.6007,-18.573999,-12.063,-2.6032,-14.476,-3.8647,-12.818,8.1804,3.9365,-7.8818,1.8035
-19.716,-9.4418,-12.943,-16.405001,-1.3201,-19.771999,-14.309,-11.715,-2.6667,-16.405001,-1.3201,-21.226999,-12.698,-2.6032,-15.111,-3.8647,-12.818,1.095,1.3968,-9.1954,-0.77295
-16.556,-8.8038,-12.293,-12.484,-1.9802,-18.472,-14.959,-10.421,-1.3659,-12.484,-1.9802,-20.563999,-9.5238,-0.06349,-11.937,-0.64412,-10.886,4.9597,-3.6825,-7.225,8.8889
-5.1817,-4.3381,-7.0894,-5.2941,-3.9604,-7.4146,-5.2033,-3.9482,5.1382,-5.2941,-3.9604,-11.277,-0.63492,6.2857,-3.0476,3.8647,-4.4444,-2.7697,6.4762,4.5977,13.398
-2.0221,-1.1483,-2.5366,-5.2941,-4.6205,-0.91057,3.9024,-4.5955,5.7886,-5.2941,-4.6205,-3.9801,0.0,1.8413,-2.4127,0.64412,-3.8003,-11.143,6.4762,1.3136,6.3124
-3.9179,1.4035,0.71545,-6.6013,-6.6007,-2.2114,8.4553,-7.8317,2.5366,-6.6013,-6.6007,-0.66335,-5.0794,-3.873,-6.2222,-2.5765,-5.0886,-4.058,-1.7778,-7.8818,-3.3494
1.7694,7.7831,7.2195,4.5098,5.2805,-1.561,8.4553,-1.3592,4.4878,4.5098,5.2805,3.9801,-1.9048,-1.9683,-1.1429,0.64412,-0.57971,9.4686,7.746,4.5977,-0.77295
3.6651,9.059,8.5203,3.8562,8.5809,-3.5122,3.252,-0.71197,7.0894,3.8562,8.5809,2.6534,-2.5397,-3.873,0.7619,-1.2882,0.06441,-4.058,9.6508,0.65681,-3.3494
3.6651,9.697,7.2195,-3.3333,7.9208,2.3415,5.2033,-5.89,12.293,-3.3333,7.9208,2.6534,-3.8095,-8.9524,1.3968,-3.8647,0.06441,-4.058,1.3968,-0.65681,-7.2142
3.0332,11.611,6.5691,-3.9869,11.221,6.2439,12.358,-3.301,19.447001,-3.9869,11.221,8.6235,0.63492,-8.9524,3.9365,-2.5765,2.6409,10.113,0.12698,5.2545,-5.2818
-1.3902,7.7831,3.3171,3.2026,9.2409,-1.561,10.407,-3.301,12.943,3.2026,9.2409,5.3068,0.63492,-10.222,-0.50794,-5.153,-0.57971,-1.4815,10.286,2.6273,-5.2818
-0.75829,5.2313,5.9187,7.1242,3.9604,-5.4634,11.057,-0.06472,7.0894,7.1242,3.9604,3.3167,-0.63492,-10.222,-1.1429,-5.7971,-1.2238,-11.787,12.19,5.2545,-2.0612
-5.1817,-0.51037,5.2683,-3.3333,0.66007,-10.016,5.8537,-4.5955,1.2358,-3.3333,0.66007,-1.3267,-5.0794,-13.397,-4.9524,-10.306,-5.0886,5.6039,-2.4127,-0.65681,-7.8583
-5.8136,-2.4242,3.9675,-6.6013,-0.66007,-6.1138,2.6016,-6.5372,3.8374,-6.6013,-0.66007,-1.3267,-4.4444,-12.127,-5.5873,-9.0177,-5.7327,10.757,-3.0476,-5.9113,-7.8583
-3.9179,-1.1483,2.0163,-4.6405,0.66007,-6.1138,0.0,-5.2427,4.4878,-4.6405,0.66007,-1.99,0.0,-3.873,-2.4127,-3.2206,-1.2238,3.0274,2.6667,-5.9113,-2.0612
0.50553,3.3174,5.2683,-3.3333,-1.9802,-5.4634,-1.3008,-0.06472,3.8374,-3.3333,-1.9802,-0.66335,6.3492,6.2857,4.5714,5.7971,7.1498,6.8921,2.0317,0.0,1.1594
-0.12638,3.9553,8.5203,-4.6405,-5.2805,-6.1138,-6.5041,-5.89,-1.3659,-4.6405,-5.2805,-3.3167,6.3492,7.5556,6.4762,7.7295,9.7262,4.9597,0.7619,-0.65681,0.5153
-0.12638,2.0415,11.772,-7.2549,-2.6403,-3.5122,-5.8537,-7.8317,-5.2683,-7.2549,-2.6403,-3.3167,4.4444,8.8254,5.8413,7.7295,9.0821,-2.7697,1.3968,-1.3136,4.38
0.50553,0.76555,11.122,-6.6013,-7.9208,-5.4634,-2.6016,-7.8317,-8.5203,-6.6013,-7.9208,-3.3167,2.5397,10.73,2.6667,9.0177,6.5056,-20.160999,-3.0476,1.9704,10.177
-2.654,-0.51037,5.9187,-13.791,-19.142,-11.317,-6.5041,-12.362,-7.8699,-13.791,-19.142,-9.2869,-0.63492,9.4603,0.12698,9.6618,3.285,-5.3462,-4.9524,0.65681,13.398
-2.654,-0.51037,2.6667,-15.752,-15.842,-6.1138,-7.8049,-13.01,-4.6179,-15.752,-15.842,-9.9502,-1.2698,12.0,1.3968,13.527,5.8615,8.1804,5.8413,-1.3136,17.261999
-2.654,0.76555,-0.58537,-5.9477,-8.5809,-4.1626,-7.1545,-9.1262,-2.6667,-5.9477,-8.5809,-8.6235,3.1746,17.079,3.3016,15.459,8.438,6.8921,12.825,-1.9704,15.974
-3.9179,-0.51037,-1.8862,-3.3333,-5.9406,-8.065,-7.1545,-6.5372,1.8862,-3.3333,-5.9406,-7.2968,1.9048,8.8254,0.7619,7.0853,2.6409,-1.4815,3.3016,-1.9704,1.8035
1.7694,2.6794,8.5203,2.549,4.6205,-0.91057,0.0,0.58252,5.7886,2.549,4.6205,0.66335,1.9048,5.6508,4.5714,5.7971,5.2174,0.45089,5.8413,2.6273,1.1594
3.6651,0.76555,11.772,1.2418,9.901,2.3415,0.0,2.5243,2.5366,1.2418,9.901,1.99,-0.63492,5.0159,5.2063,5.7971,7.7939,-0.83736,-1.7778,1.3136,2.4477
6.8246,1.4035,12.423,-0.71895,1.9802,2.3415,-2.6016,1.2298,1.8862,-0.71895,1.9802,1.99,1.9048,5.6508,7.746,4.5089,9.0821,-5.9903,-5.5873,1.3136,-0.77295
10.616,2.0415,13.073,3.2026,-3.3003,6.8943,-0.65041,1.2298,4.4878,3.2026,-3.3003,4.6434,5.0794,3.1111,9.0159,0.64412,7.1498,-13.076,1.3968,3.2841,-3.3494
7.4566,-1.7863,5.9187,5.1634,1.9802,6.8943,3.252,1.2298,5.7886,5.1634,1.9802,3.3167,4.4444,-2.6032,5.2063,-5.7971,0.70853,8.1804,-3.0476,5.2545,-7.8583
2.4013,-3.0622,-0.58537,0.58824,5.2805,5.5935,5.8537,0.58252,9.6911,0.58824,5.2805,1.99,1.9048,-5.1429,2.0317,-7.7295,-3.1562,12.689,-4.9524,1.9704,-10.435
-0.75829,-3.0622,-0.58537,1.8954,8.5809,1.6911,7.1545,5.1133,7.0894,1.8954,8.5809,3.3167,0.0,-9.5873,-0.50794,-9.0177,-5.0886,5.6039,-1.7778,-3.9409,-10.435
3.6651,2.6794,6.5691,5.1634,19.802,4.2927,13.659,10.939,10.341,5.1634,19.802,9.2869,5.7143,-5.7778,4.5714,-3.8647,-0.57971,16.554001,1.3968,1.9704,-6.57
4.297,4.5933,7.2195,5.817,16.502001,4.2927,13.659,7.7023,12.293,5.817,16.502001,9.2869,4.4444,-4.5079,4.5714,-1.2882,-0.57971,6.8921,6.4762,7.8818,6.3124
-2.654,-1.1483,2.0163,5.817,1.3201,-4.1626,5.2033,-2.0065,7.0894,5.817,1.3201,0.0,-5.7143,-9.5873,-3.6825,-5.7971,-7.0209,-1.4815,2.0317,2.6273,1.1594
-3.2859,-4.9761,2.0163,0.58824,5.2805,-2.2114,-1.3008,-5.89,7.0894,0.58824,5.2805,-2.6534,-8.254,-10.222,-4.9524,-9.0177,-7.6651,-23.382,-5.5873,-4.5977,-9.7907
-0.12638,-8.1659,1.3659,-0.71895,1.9802,-2.2114,-3.252,-2.0065,3.187,-0.71895,1.9802,-3.3167,-5.7143,-7.6825,-2.4127,-9.0177,-6.3768,-9.8551,-8.7619,-5.2545,-11.723
0.50553,-9.4418,0.71545,-14.444,-6.6007,-2.8618,-6.5041,-2.6537,-2.0163,-14.444,-6.6007,-6.6335,-2.5397,-2.6032,0.7619,-5.153,-3.8003,16.554001,-6.2222,2.6273,-5.9259
-1.3902,-5.614,3.3171,-11.176,-5.2805,-6.1138,-4.5528,-6.5372,-7.8699,-11.176,-5.2805,-8.6235,1.9048,1.2063,4.5714,0.0,1.3527,9.4686,-7.4921,3.9409,-2.7053
-3.2859,-3.0622,4.6179,3.8562,-9.2409,-11.317,-5.8537,-8.479,-14.374,3.8562,-9.2409,-10.614,5.7143,6.2857,4.5714,5.7971,4.5733,4.9597,-14.476,1.9704,-4.6377
0.50553,-0.51037,7.8699,2.549,-17.162001,-4.1626,-5.8537,-7.1845,-12.423,2.549,-17.162001,-6.6335,8.254,12.635,5.8413,11.594,7.7939,-6.6345,-15.111,3.9409,1.8035
-0.12638,3.3174,9.8211,4.5098,-5.2805,-0.26016,-2.6016,-5.2427,-6.5691,4.5098,-5.2805,-0.66335,7.619,16.444,4.5714,16.103001,9.0821,1.095,0.12698,0.65681,13.398
-0.12638,3.3174,7.8699,-3.3333,2.6403,2.3415,-1.9512,-4.5955,-0.71545,-3.3333,2.6403,0.66335,3.1746,13.27,0.7619,12.238,5.8615,-6.6345,5.8413,-3.9409,10.821
1.7694,2.6794,10.472,-9.8693,3.9604,3.6423,0.65041,-5.2427,2.5366,-9.8693,3.9604,3.9801,5.7143,10.73,3.3016,8.3736,5.2174,-2.1256,5.2063,3.9409,6.9565
-5.8136,-1.1483,5.9187,1.2418,6.6007,-5.4634,-5.2033,-3.9482,1.8862,1.2418,6.6007,-1.99,1.2698,0.57143,-3.0476,-0.64412,-1.868,5.6039,0.7619,-2.6273,1.8035
-12.133,-4.9761,-4.4878,2.549,0.0,-14.569,-7.8049,-2.6537,2.5366,2.549,0.0,-9.9502,-6.9841,-8.9524,-12.571,-10.306,-11.53,-3.4138,-8.7619,-9.1954,-7.8583
-10.869,-6.252,-6.439,-6.6013,-8.5809,-12.618,-7.1545,-1.3592,-2.0163,-6.6013,-8.5809,-9.9502,-9.5238,-11.492,-15.111,-11.594,-14.106,7.5362,-3.6825,-6.5681,-5.9259
-7.7093,-4.3381,-3.187,-9.2157,-13.861,-4.1626,-5.2033,-1.3592,-2.0163,-9.2157,-13.861,-5.3068,-10.159,-12.127,-13.206,-11.594,-12.174,-13.72,9.6508,-7.225,-5.9259
-3.9179,-0.51037,2.0163,-3.9869,-9.901,4.9431,-1.9512,-0.06472,5.7886,-3.9869,-9.901,0.0,-7.619,-10.857,-7.4921,-9.0177,-7.0209,-7.9227,13.46,-3.9409,-5.9259
-6.4455,2.0415,2.6667,-9.2157,-12.541,2.3415,0.0,-0.71197,6.439,-9.2157,-12.541,-1.3267,-3.8095,-8.9524,-3.6825,-5.153,-3.8003,14.622,12.19,-1.9704,0.5153
-7.0774,1.4035,-1.8862,-13.791,-13.201,-4.813,3.252,-1.3592,6.439,-13.791,-13.201,-3.3167,-3.8095,-7.6825,-4.9524,-5.7971,-5.7327,-5.3462,4.5714,-2.6273,-2.7053
1.1374,0.76555,0.06504,-2.0261,0.0,-2.2114,1.9512,4.466,8.3902,-2.0261,0.0,0.66335,1.2698,-0.69841,-0.50794,-2.5765,-3.8003,-9.2109,5.2063,-3.9409,2.4477
-0.12638,-4.3381,-0.58537,-7.2549,0.0,-2.2114,-5.2033,-1.3592,-0.06504,-7.2549,0.0,-1.3267,1.9048,1.2063,0.12698,-1.9324,-3.1562,10.757,5.2063,-5.2545,3.7359
1.1374,-1.1483,3.3171,-3.3333,-2.6403,-0.26016,-2.6016,-2.6537,-3.9675,-3.3333,-2.6403,0.0,2.5397,6.9206,2.0317,3.8647,1.3527,10.757,8.381,-2.6273,6.9565
-1.3902,1.4035,1.3659,-0.71895,-2.6403,-0.91057,-3.252,-2.6537,1.8862,-0.71895,-2.6403,-0.66335,1.9048,8.8254,0.12698,6.4412,1.9968,-5.3462,21.079,-5.2545,9.533
-7.0774,-1.7863,-8.3902,-9.2157,-5.9406,-4.1626,-5.2033,-7.8317,0.58537,-9.2157,-5.9406,-5.9701,-6.3492,2.4762,-7.4921,0.64412,-5.0886,-15.008,9.0159,-7.225,5.0242
-5.1817,-3.0622,-10.992,-14.444,-9.901,-5.4634,-7.8049,-8.479,-2.6667,-14.444,-9.901,-7.9602,-8.254,-0.06349,-9.3968,-1.2882,-7.0209,-7.9227,-6.8571,-5.9113,-0.12882
1.1374,0.12759,-3.8374,-12.484,-18.482,-2.8618,-6.5041,-6.5372,-3.3171,-12.484,-18.482,-3.9801,-5.0794,3.746,-2.4127,1.2882,-0.57971,6.8921,-1.7778,-4.5977,-2.0612
4.297,5.8692,5.9187,-6.6013,-12.541,1.0407,3.252,-3.9482,-2.0163,-6.6013,-12.541,3.3167,-1.9048,9.4603,3.3016,7.0853,6.5056,7.5362,1.3968,-1.9704,5.6683
7.4566,10.335,12.423,1.8954,5.2805,6.8943,9.1057,4.466,5.1382,1.8954,5.2805,10.614,3.1746,16.444,8.381,11.594,11.659,1.7391,2.0317,-1.3136,8.8889
2.4013,4.5933,3.9675,4.5098,-1.9802,4.2927,3.252,2.5243,-1.3659,4.5098,-1.9802,6.6335,0.0,10.73,2.6667,4.5089,5.8615,-18.872999,1.3968,-11.166,4.38
-2.0221,0.12759,-5.1382,-0.06536,-5.2805,-0.26016,-2.6016,1.2298,-4.6179,-0.06536,-5.2805,1.3267,0.0,3.1111,-1.7778,-1.9324,0.70853,-2.7697,0.12698,-8.5386,-3.9936
7.4566,8.4211,2.0163,3.8562,9.901,6.8943,3.9024,12.233,6.439,3.8562,9.901,7.9602,13.968,10.095,8.381,7.7295,9.7262,12.689,12.825,7.8818,1.1594
3.6651,5.2313,2.6667,1.8954,-3.3003,4.9431,1.9512,6.4078,-0.06504,1.8954,-3.3003,4.6434,10.159,4.381,4.5714,5.153,6.5056,-1.4815,5.2063,8.5386,0.5153
-2.0221,0.12759,0.71545,-5.9477,-11.881,3.6423,-3.252,-2.6537,-4.6179,-5.9477,-11.881,0.0,3.1746,-5.7778,0.7619,-1.9324,-1.2238,-0.19324,-4.3175,5.9113,-2.0612
-0.12638,0.12759,-1.2358,-6.6013,-6.6007,1.0407,-4.5528,-3.9482,-7.8699,-6.6013,-6.6007,-0.66335,2.5397,-9.5873,0.7619,-5.7971,-4.4444,-5.9903,-10.032,3.2841,-3.9936
7.4566,0.76555,-1.2358,-2.0261,-2.6403,1.6911,-0.65041,0.58252,-8.5203,-2.0261,-2.6403,2.6534,5.0794,-7.6825,5.2063,-5.153,-1.868,6.8921,-11.937,11.166,-6.57
8.0885,0.76555,-0.58537,4.5098,-1.3201,2.9919,-0.65041,2.5243,-5.2683,4.5098,-1.3201,5.9701,6.3492,-2.6032,7.1111,-0.64412,2.6409,14.622,-3.6825,12.479,0.5153
3.6651,0.76555,0.71545,2.549,1.3201,3.6423,0.65041,1.877,-1.3659,2.549,1.3201,5.9701,1.9048,-1.3333,3.9365,1.2882,3.9291,1.7391,2.6667,1.9704,1.1594
2.4013,2.0415,1.3659,0.58824,-4.6205,8.8455,3.252,2.5243,3.187,0.58824,-4.6205,7.2968,-1.9048,2.4762,1.3968,5.153,3.9291,4.3156,14.095,-0.65681,5.0242
2.4013,2.6794,-1.2358,1.2418,-3.9604,6.2439,-0.65041,-2.0065,1.8862,1.2418,-3.9604,3.3167,-2.5397,5.0159,0.12698,7.0853,1.9968,6.8921,12.19,4.5977,10.821
1.1374,3.3174,-5.1382,-2.0261,-0.66007,-0.91057,-2.6016,-5.2427,-2.6667,-2.0261,-0.66007,-1.99,-2.5397,6.2857,0.7619,7.7295,1.3527,8.1804,5.2063,3.2841,11.465
-2.0221,1.4035,-7.0894,-7.2549,-9.901,-7.4146,-5.8537,-5.2427,-5.9187,-7.2549,-9.901,-5.9701,-3.1746,5.0159,-1.1429,5.153,0.06441,-5.3462,4.5714,-7.225,8.8889
-1.3902,0.76555,-5.7886,-4.6405,-9.2409,-5.4634,-5.2033,-3.301,-6.5691,-4.6405,-9.2409,-5.9701,-1.2698,3.746,0.7619,2.5765,-0.57971,-13.076,4.5714,-5.9113,2.4477
5.5608,8.4211,1.3659,-2.0261,4.6205,-0.91057,1.3008,-1.3592,5.1382,-2.0261,4.6205,-0.66335,5.7143,8.8254,7.746,9.0177,5.8615,-13.076,8.381,1.9704,8.8889
5.5608,13.525,3.3171,-5.2941,6.6007,1.6911,2.6016,-5.2427,9.6911,-5.2941,6.6007,0.0,8.254,11.365,9.6508,12.882,11.014,-21.448999,5.8413,3.2841,10.821
1.7694,13.525,2.0163,-2.6797,3.9604,-0.91057,3.252,-9.7735,4.4878,-2.6797,3.9604,-1.3267,8.8889,13.905,9.0159,16.103001,14.235,-4.058,8.381,3.2841,11.465
-2.654,9.697,1.3659,1.8954,1.9802,-4.1626,4.5528,-9.7735,3.8374,1.8954,1.9802,0.0,6.3492,10.73,5.2063,12.238,11.659,8.8245,5.8413,0.65681,10.177
-3.9179,5.2313,2.0163,1.2418,-1.9802,-7.4146,4.5528,-7.1845,3.187,1.2418,-1.9802,-1.3267,4.4444,3.1111,3.9365,5.153,7.7939,-0.19324,1.3968,-1.3136,3.0918
9.9842,11.611,11.122,1.8954,8.5809,1.6911,8.4553,4.466,7.0894,1.8954,8.5809,4.6434,13.968,10.73,14.73,11.594,16.167,-5.9903,3.9365,11.823,8.2448
9.3523,12.887,11.122,-3.9869,5.2805,8.8455,5.8537,5.7605,7.0894,-3.9869,5.2805,6.6335,16.507999,15.175,14.73,13.527,18.743999,3.6715,1.3968,6.5681,6.3124
-5.8136,0.76555,-3.8374,-2.0261,0.0,2.9919,0.0,-1.3592,-1.3659,-2.0261,0.0,-0.66335,5.0794,3.746,-1.1429,1.2882,5.2174,9.4686,-5.5873,-3.2841,-4.6377
-10.237,-6.252,-11.642,8.4314,3.3003,-2.8618,0.65041,-0.06472,-1.3659,8.4314,3.3003,-2.6534,-2.5397,-5.1429,-9.3968,-7.0853,-5.0886,-1.4815,-3.6825,-4.5977,-9.1465
-5.1817,-5.614,-7.0894,11.699,7.2607,0.39024,1.3008,5.1133,3.8374,11.699,7.2607,0.0,-4.4444,-7.6825,-7.4921,-7.7295,-5.7327,-11.143,3.3016,-5.9113,-5.2818
0.50553,-6.252,-5.1382,5.1634,2.6403,0.39024,-1.9512,3.1715,0.58537,5.1634,2.6403,-2.6534,-5.7143,-11.492,-3.0476,-9.6618,-5.7327,-21.448999,1.3968,0.0,-6.57
4.9289,-2.4242,-3.187,-6.6013,-3.3003,-3.5122,-3.252,-0.71197,-2.0163,-6.6013,-3.3003,-4.6434,-0.63492,-8.3175,4.5714,-5.7971,0.06441,-1.4815,-4.3175,5.9113,-4.6377
-0.75829,-1.7863,-7.7398,-17.059,-7.2607,-6.1138,-1.9512,-4.5955,-3.9675,-17.059,-7.2607,-5.9701,0.63492,-8.3175,1.3968,-5.153,-1.2238,14.622,-6.8571,3.2841,-1.4171
-4.5498,-2.4242,-10.341,-1.3725,-1.9802,-5.4634,-0.65041,-3.9482,-2.6667,-1.3725,-1.9802,-5.3068,-3.1746,-9.5873,-6.2222,-7.7295,-6.3768,9.4686,2.6667,-1.9704,-1.4171
-3.9179,2.0415,-7.7398,14.314,8.5809,-2.8618,3.252,-0.71197,3.8374,14.314,8.5809,0.0,-3.8095,-3.873,-6.8571,-3.8647,-5.0886,-6.6345,7.746,-1.3136,-0.77295
-3.9179,5.2313,-4.4878,11.699,9.901,5.5935,5.2033,-0.06472,1.8862,11.699,9.901,4.6434,-3.8095,0.57143,-4.9524,2.5765,-0.57971,-6.6345,7.1111,2.6273,8.8889
-3.9179,5.2313,-5.7886,14.314,11.221,9.4959,5.8537,7.055,2.5366,14.314,11.221,7.9602,-5.0794,-0.06349,-4.9524,3.2206,0.06441,-0.19324,8.381,-1.3136,11.465
0.50553,5.2313,-7.0894,15.621,18.482,7.5447,9.1057,15.469,7.0894,15.621,18.482,9.9502,-1.9048,1.8413,-1.1429,1.9324,0.06441,6.248,2.6667,-1.9704,2.4477
-0.75829,-1.1483,-9.6911,1.2418,13.861,6.8943,5.2033,8.9968,3.8374,1.2418,13.861,4.6434,-5.7143,-0.06349,-4.3175,-3.8647,-4.4444,-25.958,-3.6825,-8.5386,-8.5024
4.297,1.4035,-3.8374,7.7778,14.521,11.447,7.8049,10.939,4.4878,7.7778,14.521,5.9701,-3.8095,1.8413,-1.7778,0.64412,-1.2238,-36.908001,-0.50794,-8.5386,-2.7053
2.4013,7.7831,1.3659,22.809999,19.142,5.5935,9.7561,7.7023,6.439,22.809999,19.142,7.2968,1.9048,4.381,2.0317,6.4412,3.285,6.8921,8.381,0.0,2.4477
3.0332,12.249,2.6667,28.693001,23.761999,7.5447,10.407,8.9968,8.3902,28.693001,23.761999,9.2869,6.3492,6.9206,4.5714,9.6618,5.8615,22.351,4.5714,9.1954,6.3124
3.0332,7.1451,2.0163,23.464001,13.861,16.0,11.057,9.644,7.0894,23.464001,13.861,11.94,3.8095,1.2063,0.7619,3.8647,1.9968,5.6039,-4.9524,2.6273,0.5153
-1.3902,-0.51037,1.3659,7.7778,4.6205,11.447,5.2033,5.1133,-1.3659,7.7778,4.6205,8.6235,-1.9048,-2.6032,-3.6825,-2.5765,-1.2238,0.45089,-13.841,-5.9113,-7.8583
3.0332,-1.7863,7.2195,1.8954,8.5809,6.8943,3.252,7.7023,-5.2683,1.8954,8.5809,7.9602,-0.63492,1.2063,0.7619,-0.64412,3.285,-12.432,-9.3968,-3.2841,-6.57
8.0885,-2.4242,9.1707,11.699,12.541,10.797,5.8537,10.291,-6.5691,11.699,12.541,9.2869,2.5397,1.8413,6.4762,-0.64412,5.8615,3.6715,-5.5873,4.5977,-2.7053
8.0885,-1.7863,7.8699,14.967,13.861,14.049,6.5041,11.586,-3.9675,14.967,13.861,9.9502,6.9841,2.4762,7.746,-0.64412,5.8615,7.5362,-6.8571,8.5386,-1.4171
4.9289,-1.1483,5.9187,16.275,11.221,12.098,3.252,10.291,-2.0163,16.275,11.221,5.3068,7.619,1.2063,5.2063,-2.5765,3.9291,-0.19324,-0.50794,7.225,-4.6377
1.7694,-4.9761,4.6179,1.2418,1.3201,3.6423,-3.9024,4.466,-9.1707,1.2418,1.3201,-1.99,-1.2698,-4.5079,-0.50794,-9.0177,-0.57971,-14.364,-10.032,-1.3136,-12.367
8.0885,-3.7002,9.1707,-5.2941,-7.2607,8.8455,-0.65041,6.4078,-7.8699,-5.2941,-7.2607,2.6534,-1.9048,-5.1429,2.6667,-8.3736,0.06441,-7.2786,-10.032,-0.65681,-13.011
13.776,-3.0622,11.772,11.046,0.0,9.4959,0.0,12.233,-2.6667,11.046,0.0,8.6235,4.4444,-2.6032,7.1111,-7.0853,0.06441,17.198,-5.5873,7.225,-11.723
6.1927,-9.4418,7.2195,11.046,3.3003,-0.26016,-4.5528,6.4078,-7.8699,11.046,3.3003,2.6534,2.5397,-3.2381,2.0317,-9.0177,-5.0886,21.707001,-8.7619,8.5386,-6.57
3.6651,-4.3381,7.8699,7.1242,5.9406,-0.26016,0.0,5.7605,-5.9187,7.1242,5.9406,1.3267,5.0794,3.1111,1.3968,-0.64412,-1.868,21.707001,0.12698,13.793,2.4477
1.7694,0.12759,4.6179,-2.0261,1.9802,-1.561,-1.3008,2.5243,-0.71545,-2.0261,1.9802,-3.3167,3.1746,4.381,-1.1429,3.2206,-1.2238,12.045,5.2063,5.2545,5.0242
1.7694,1.4035,4.6179,-4.6405,-0.66007,-0.91057,-1.3008,-1.3592,-2.6667,-4.6405,-0.66007,-3.9801,-4.4444,1.8413,-3.6825,3.2206,-3.1562,8.1804,-2.4127,-5.9113,5.0242
8.0885,8.4211,12.423,9.7386,1.3201,1.6911,6.5041,3.8188,4.4878,9.7386,1.3201,3.9801,-9.5238,1.8413,-0.50794,4.5089,-1.868,10.757,5.2063,-7.8818,5.0242
9.3523,9.697,14.374,7.7778,1.9802,1.0407,6.5041,5.1133,7.0894,7.7778,1.9802,6.6335,-11.429,-1.3333,0.7619,3.8647,-1.868,-10.499,10.921,-6.5681,7.6006
6.8246,10.335,14.374,1.2418,5.2805,1.6911,3.252,0.58252,1.8862,1.2418,5.2805,3.9801,-8.254,0.57143,2.6667,7.0853,2.6409,-11.787,-3.0476,-3.2841,8.2448
1.1374,8.4211,9.8211,-5.2941,5.2805,0.39024,0.65041,-1.3592,-2.6667,-5.2941,5.2805,0.66335,-5.7143,2.4762,1.3968,9.6618,4.5733,1.7391,-1.1429,-2.6273,8.2448
-0.12638,5.2313,7.2195,-2.0261,-0.66007,3.6423,3.9024,1.2298,-3.3171,-2.0261,-0.66007,1.99,0.0,4.381,3.3016,9.6618,4.5733,18.486,2.6667,1.9704,8.8889
1.7694,1.4035,7.2195,5.1634,0.0,2.3415,1.9512,3.8188,-2.0163,5.1634,0.0,2.6534,3.1746,-0.69841,5.2063,5.153,3.285,21.063,-1.1429,5.9113,5.0242
6.8246,0.12759,10.472,7.1242,1.9802,1.6911,-1.9512,5.7605,-1.3659,7.1242,1.9802,2.6534,2.5397,-5.7778,7.746,0.64412,3.285,13.977,-2.4127,5.9113,-0.77295
11.248,0.76555,13.073,7.7778,0.66007,2.9919,2.6016,7.055,1.2358,7.7778,0.66007,3.9801,2.5397,-4.5079,10.286,-1.2882,4.5733,6.248,-6.2222,5.9113,-5.2818
3.0332,-4.9761,3.3171,0.58824,-9.901,-6.1138,-2.6016,1.2298,-3.9675,0.58824,-9.901,-5.3068,-4.4444,-7.0476,2.0317,-6.4412,-1.868,-21.448999,-7.4921,0.0,-11.079
-4.5498,-6.89,-2.5366,-7.9085,-5.2805,-4.813,-7.8049,-0.06472,-4.6179,-7.9085,-5.2805,-7.9602,-8.8889,-4.5079,-5.5873,-3.8647,-4.4444,-10.499,-1.1429,0.0,-5.2818
-14.66,-6.89,-2.5366,-5.2941,0.0,-4.1626,-7.1545,-2.0065,-2.6667,-5.2941,0.0,-7.9602,-12.698,-4.5079,-13.206,-5.7971,-7.0209,9.4686,-0.50794,-4.5977,-0.77295
-18.452,-8.8038,-0.58537,-6.6013,0.0,-6.1138,-7.1545,-2.6537,-5.9187,-6.6013,0.0,-8.6235,-12.698,-5.1429,-16.381001,-7.7295,-8.3092,8.8245,-4.9524,-9.1954,-4.6377
-12.765,-7.5279,3.3171,-2.0261,-1.3201,-10.667,-7.1545,-2.0065,-4.6179,-2.0261,-1.3201,-7.9602,-8.254,-5.1429,-11.937,-7.7295,-6.3768,3.6715,-0.50794,-7.225,-5.9259
-6.4455,-6.89,1.3659,5.1634,-1.9802,-10.667,-7.1545,-1.3592,-0.06504,5.1634,-1.9802,-8.6235,-7.619,-9.5873,-8.7619,-9.0177,-7.6651,-4.7021,5.2063,-7.225,-6.57
0.50553,-6.89,-1.2358,2.549,-5.2805,-4.1626,-5.2033,3.1715,-3.3171,2.549,-5.2805,-7.2968,-6.3492,-9.5873,-4.9524,-7.7295,-7.6651,1.095,-2.4127,-6.5681,-5.9259
-4.5498,-12.632,-9.6911,-7.2549,-8.5809,-6.7642,-13.659,0.58252,-6.5691,-7.2549,-8.5809,-13.267,-8.254,-11.492,-7.4921,-10.95,-12.174,-0.19324,-14.476,-6.5681,-10.435
-1.3902,-10.08,-8.3902,-3.3333,-3.9604,0.39024,-12.358,2.5243,-0.71545,-3.3333,-3.9604,-11.94,-3.1746,-4.5079,-3.6825,-5.153,-8.9533,-5.9903,-4.3175,-0.65681,0.5153
-2.654,-7.5279,-3.187,-1.3725,-1.3201,1.0407,-9.7561,-0.06472,1.8862,-1.3725,-1.3201,-7.9602,-3.8095,-4.5079,-4.3175,-3.2206,-7.0209,-7.9227,-1.1429,-3.9409,4.38
-6.4455,-6.252,-1.2358,1.2418,-5.2805,-3.5122,-7.8049,-4.5955,-0.71545,1.2418,-5.2805,-5.3068,-6.3492,-8.3175,-8.127,-5.7971,-8.9533,-4.058,2.6667,-7.225,3.0918
-3.2859,-3.0622,2.6667,4.5098,-1.9802,-2.2114,1.9512,-2.0065,-0.71545,4.5098,-1.9802,-0.66335,-0.63492,-7.0476,-3.0476,-2.5765,-5.7327,4.3156,3.3016,1.9704,6.3124
-0.12638,-1.1483,4.6179,-3.9869,7.2607,-0.26016,5.2033,-2.0065,3.8374,-3.9869,7.2607,1.99,4.4444,-7.0476,2.0317,-0.64412,-2.5121,12.045,2.6667,6.5681,4.38
5.5608,6.5072,11.772,-5.9477,10.561,4.9431,7.1545,1.877,9.6911,-5.9477,10.561,7.9602,11.429,-0.69841,9.0159,5.153,4.5733,8.1804,9.6508,9.8522,1.1594
3.6651,8.4211,14.374,5.817,9.2409,8.8455,9.1057,5.7605,8.3902,5.817,9.2409,11.277,6.9841,-1.3333,5.2063,3.8647,3.9291,4.3156,3.3016,5.2545,-1.4171
3.0332,2.6794,13.724,11.699,4.6205,7.5447,6.5041,5.7605,2.5366,11.699,4.6205,9.2869,-1.2698,-5.1429,0.12698,-1.9324,0.06441,11.401,-4.9524,0.65681,-3.9936
6.8246,-1.1483,13.073,8.4314,-1.9802,3.6423,3.9024,3.8188,-0.71545,8.4314,-1.9802,4.6434,-4.4444,-7.0476,2.0317,-3.8647,0.70853,-6.6345,-4.9524,-1.3136,-3.3494
9.3523,3.3174,14.374,1.8954,-2.6403,2.9919,5.8537,4.466,1.2358,1.8954,-2.6403,4.6434,-3.8095,-6.4127,3.9365,-2.5765,3.285,-4.058,4.5714,-2.6273,-3.3494
3.6651,5.2313,14.374,-0.06536,1.3201,3.6423,7.8049,1.2298,4.4878,-0.06536,1.3201,5.9701,-1.9048,-7.0476,2.6667,-1.9324,3.9291,5.6039,2.6667,-1.9704,-8.5024
3.0332,3.3174,12.423,7.1242,7.9208,4.2927,7.8049,5.1133,7.7398,7.1242,7.9208,8.6235,5.7143,-5.1429,4.5714,-2.5765,4.5733,12.689,-3.0476,1.3136,-7.2142
5.5608,-4.3381,5.2683,3.8562,3.3003,5.5935,2.6016,5.7605,1.8862,3.8562,3.3003,4.6434,6.9841,-7.6825,5.2063,-9.0177,-1.2238,13.333,-7.4921,0.65681,-12.367
4.9289,-11.356,-1.2358,-4.6405,-2.6403,2.3415,-4.5528,0.58252,-5.9187,-4.6405,-2.6403,-2.6534,4.4444,-10.857,3.3016,-14.815,-6.3768,-0.83736,-14.476,4.5977,-16.875999
7.4566,-3.7002,5.2683,-0.71895,-0.66007,1.0407,-4.5528,3.8188,-0.06504,-0.71895,-0.66007,-1.99,8.8889,-0.69841,9.0159,-6.4412,0.06441,-2.7697,1.3968,8.5386,-7.8583
1.7694,-1.7863,6.5691,2.549,-9.901,-6.7642,-9.1057,4.466,2.5366,2.549,-9.901,-3.9801,6.9841,5.0159,7.1111,-1.9324,1.3527,0.45089,4.5714,4.5977,-5.2818
-3.9179,-7.5279,0.71545,-4.6405,-7.9208,-11.967,-11.057,1.2298,-3.9675,-4.6405,-7.9208,-7.9602,1.2698,0.57143,-1.1429,-6.4412,-5.0886,-8.5668,0.12698,-4.5977,-5.2818
-8.9731,-11.356,-3.8374,-2.0261,-5.2805,-10.016,-11.707,-5.2427,-5.9187,-2.0261,-5.2805,-10.614,-4.4444,-8.3175,-7.4921,-12.238,-11.53,-8.5668,-5.5873,-5.9113,-6.57
-14.66,-8.8038,-4.4878,-2.6797,0.66007,-6.1138,-10.407,-11.068,-2.0163,-2.6797,0.66007,-9.2869,-8.8889,-11.492,-12.571,-10.306,-12.174,2.3833,-5.5873,-8.5386,-0.77295
-14.66,-3.0622,-3.8374,-8.5621,-1.9802,-0.91057,-5.8537,-10.421,-0.06504,-8.5621,-1.9802,-7.2968,-13.333,-14.032,-15.746,-7.0853,-11.53,-5.3462,2.6667,-11.823,4.38
-8.9731,-2.4242,-2.5366,-5.9477,-13.861,-2.8618,-3.9024,-3.301,-2.0163,-5.9477,-13.861,-6.6335,-12.063,-13.397,-11.937,-7.7295,-10.242,2.3833,-1.7778,-2.6273,-0.12882
-5.8136,-5.614,-3.187,-7.9085,-14.521,-10.016,-5.2033,1.2298,-3.9675,-7.9085,-14.521,-8.6235,-6.3492,-6.4127,-8.7619,-7.0853,-8.3092,-1.4815,-7.4921,-4.5977,-3.3494
-8.9731,-9.4418,-6.439,-11.83,-12.541,-12.618,-9.7561,-6.5372,-7.2195,-11.83,-12.541,-11.94,-4.4444,-2.6032,-10.032,-7.0853,-9.5974,-18.872999,-5.5873,-7.8818,-6.57
-8.9731,-10.718,-5.7886,-3.9869,-5.9406,-11.967,-11.707,-9.1262,-5.9187,-3.9869,-5.9406,-11.94,-3.8095,0.57143,-8.127,-4.5089,-7.0209,-22.738001,-6.2222,-0.65681,-2.7053
-3.9179,-5.614,-1.2358,-3.9869,-6.6007,-7.4146,-9.1057,-8.479,-1.3659,-3.9869,-6.6007,-6.6335,-1.2698,5.6508,-2.4127,1.9324,-0.57971,-8.5668,-4.9524,1.3136,5.0242
-0.12638,-2.4242,-1.8862,-9.2157,-1.9802,-2.8618,-8.4553,-9.1262,-2.0163,-9.2157,-1.9802,-3.3167,0.0,6.2857,1.3968,3.8647,3.285,-3.4138,-1.1429,0.65681,3.7359
4.9289,0.12759,-1.2358,-16.405001,0.0,-0.91057,-3.252,-3.9482,0.58537,-16.405001,0.0,-0.66335,2.5397,5.6508,5.8413,4.5089,3.9291,4.3156,5.2063,3.9409,5.0242
7.4566,2.6794,2.0163,-6.6013,-1.3201,0.39024,5.8537,1.2298,1.2358,-6.6013,-1.3201,1.99,6.3492,5.0159,8.381,3.2206,4.5733,12.045,3.3016,9.8522,0.5153
4.297,1.4035,1.3659,7.1242,-7.2607,-0.91057,5.8537,-2.0065,-1.3659,7.1242,-7.2607,1.99,5.7143,0.57143,6.4762,0.0,3.285,-7.2786,-1.7778,5.2545,-7.8583
4.9289,-1.1483,1.3659,2.549,-11.881,1.0407,3.252,-3.301,-0.71545,2.549,-11.881,3.9801,8.8889,-0.06349,7.746,-0.64412,5.2174,-3.4138,-9.3968,5.2545,-3.9936
13.776,6.5072,12.423,7.1242,11.881,9.4959,10.407,5.7605,6.439,7.1242,11.881,13.93,19.048,7.5556,17.27,5.7971,14.879,22.351,-2.4127,15.764,3.7359
11.88,3.9553,9.8211,3.8562,5.9406,6.2439,5.8537,2.5243,-2.6667,3.8562,5.9406,9.9502,18.413,5.6508,15.365,0.64412,12.947,13.333,-4.9524,12.479,-3.9936
5.5608,-5.614,0.71545,-15.098,-5.9406,4.2927,-4.5528,-3.301,-13.724,-15.098,-5.9406,0.0,13.333,-0.06349,8.381,-6.4412,4.5733,9.4686,-9.3968,10.509,-17.52
1.7694,-6.89,-3.187,-7.9085,-1.9802,-0.91057,-7.8049,-2.6537,-12.423,-7.9085,-1.9802,-3.3167,8.8889,-0.69841,3.3016,-7.0853,0.70853,-9.8551,-13.206,7.225,-17.52
-3.9179,-3.7002,-3.8374,4.5098,-3.3003,-7.4146,-1.9512,-5.2427,-5.9187,4.5098,-3.3003,-1.3267,5.0794,4.381,-1.1429,-1.2882,-1.2238,-1.4815,-15.111,4.5977,-3.9936
-4.5498,2.6794,-2.5366,7.1242,0.0,-4.1626,6.5041,-3.9482,1.8862,7.1242,0.0,2.6534,0.63492,9.4603,-4.3175,6.4412,0.06441,5.6039,-1.7778,0.65681,10.821
-1.3902,10.973,2.0163,6.4706,6.6007,2.3415,13.659,2.5243,10.341,6.4706,6.6007,8.6235,0.0,13.905,-3.0476,14.171,4.5733,4.3156,11.556,0.65681,17.261999
-12.765,8.4211,-5.1382,-5.9477,1.9802,-2.8618,5.8537,-4.5955,6.439,-5.9477,1.9802,2.6534,-12.063,6.2857,-13.206,10.306,-2.5121,3.0274,10.921,-6.5681,10.821
-14.028,5.8692,-9.6911,-5.2941,0.0,-0.26016,3.9024,-4.5955,4.4878,-5.2941,0.0,0.66335,-15.238,1.2063,-15.746,6.4412,-7.0209,-5.3462,16.0,-6.5681,11.465
1.1374,3.9553,-8.3902,7.7778,3.3003,2.9919,3.9024,2.5243,5.7886,7.7778,3.3003,1.99,-4.4444,0.57143,-3.0476,5.153,-4.4444,-4.058,16.0,1.9704,10.821
8.0885,3.9553,-6.439,9.085,3.3003,0.39024,0.0,-0.71197,1.8862,9.085,3.3003,0.0,3.1746,1.8413,5.8413,5.153,0.06441,0.45089,-0.50794,4.5977,4.38
2.4013,3.9553,-6.439,-7.9085,-1.3201,-2.8618,0.65041,-6.5372,-3.9675,-7.9085,-1.3201,-2.6534,5.7143,6.9206,5.8413,7.0853,3.9291,-0.19324,-9.3968,3.2841,3.0918
-2.0221,2.6794,-7.7398,-11.83,0.0,-4.813,1.9512,-3.9482,-0.71545,-11.83,0.0,-2.6534,5.0794,12.635,3.9365,10.95,5.8615,-7.9227,2.0317,-1.3136,9.533
0.50553,4.5933,-5.1382,-2.6797,-4.6205,1.6911,2.6016,0.58252,6.439,-2.6797,-4.6205,1.3267,4.4444,15.81,4.5714,12.882,8.438,-17.584999,8.381,-7.8818,9.533
8.0885,5.8692,-1.2358,9.085,1.3201,10.146,5.2033,5.7605,11.642,9.085,1.3201,7.2968,3.8095,15.175,8.381,12.882,11.014,-16.940001,14.095,-6.5681,9.533
8.7204,4.5933,-1.8862,10.392,7.9208,7.5447,4.5528,1.877,8.3902,10.392,7.9208,5.3068,-1.9048,6.9206,7.1111,8.3736,7.7939,4.3156,7.746,-2.6273,8.8889
11.248,5.8692,-1.2358,2.549,7.9208,10.146,5.2033,-0.71197,8.3902,2.549,7.9208,7.2968,-3.1746,1.8413,6.4762,5.153,5.8615,4.9597,3.3016,-3.2841,3.7359
7.4566,7.1451,1.3659,-0.71895,7.2607,11.447,9.1057,2.5243,11.642,-0.71895,7.2607,11.277,-0.63492,3.1111,5.8413,5.7971,7.1498,13.977,5.2063,3.2841,3.7359
0.50553,4.5933,-0.58537,-0.06536,7.2607,9.4959,11.057,1.2298,10.341,-0.06536,7.2607,11.94,-0.63492,1.8413,2.6667,4.5089,6.5056,15.266,9.6508,-0.65681,3.0918
1.1374,0.12759,-3.187,8.4314,7.9208,4.2927,7.8049,0.58252,7.0894,8.4314,7.9208,8.6235,2.5397,-0.06349,2.6667,1.9324,3.285,-6.6345,4.5714,-5.9113,3.0918
3.0332,-5.614,-9.6911,9.7386,5.9406,-1.561,1.9512,-2.0065,0.58537,9.7386,5.9406,1.99,3.8095,-4.5079,2.6667,-5.153,-3.8003,-11.787,-2.4127,-3.2841,-3.3494
8.0885,-3.7002,-8.3902,1.8954,3.9604,2.9919,1.9512,-2.6537,1.2358,1.8954,3.9604,3.3167,10.794,-2.6032,7.746,-4.5089,-2.5121,1.095,-0.50794,5.9113,-3.9936
3.0332,-0.51037,-10.341,0.58824,9.901,-0.91057,1.3008,-1.3592,9.6911,0.58824,9.901,3.3167,14.603,-1.3333,7.1111,-1.2882,-0.57971,13.333,8.381,9.8522,1.8035
-8.9731,-1.1483,-12.943,-2.0261,7.2607,-2.2114,0.0,-2.6537,13.593,-2.0261,7.2607,0.66335,6.3492,-3.2381,-1.7778,-1.2882,-2.5121,-1.4815,12.19,3.9409,1.8035
-10.237,1.4035,-8.3902,-2.0261,0.0,2.9919,7.1545,-1.3592,12.293,-2.0261,0.0,5.3068,1.2698,-1.3333,-4.9524,1.2882,0.06441,-13.72,10.921,-1.3136,3.7359
1.7694,11.611,1.3659,10.392,11.221,8.8455,17.561001,3.1715,18.797001,10.392,11.221,13.267,3.8095,5.0159,2.6667,9.6618,7.7939,3.6715,14.73,4.5977,13.398
4.297,6.5072,-3.8374,7.1242,10.561,3.6423,10.407,-2.6537,8.3902,7.1242,10.561,7.2968,-1.9048,1.2063,2.6667,4.5089,4.5733,1.7391,7.1111,-1.3136,7.6006
-0.12638,-0.51037,-10.992,-7.2549,6.6007,-2.8618,0.65041,-9.7735,3.187,-7.2549,6.6007,-0.66335,-9.5238,-3.873,-1.1429,-1.2882,-0.57971,-11.143,2.6667,-9.8522,-1.4171
0.50553,0.12759,-9.0407,-8.5621,3.9604,-2.8618,3.252,-7.1845,1.8862,-8.5621,3.9604,-0.66335,-8.254,-1.3333,-1.1429,-0.64412,-1.2238,-7.2786,-1.1429,-5.2545,-2.7053
1.1374,4.5933,-5.1382,-5.2941,2.6403,-4.1626,7.1545,-2.6537,4.4878,-5.2941,2.6403,1.3267,-3.8095,5.6508,1.3968,5.153,1.3527,1.095,1.3968,4.5977,9.533
-0.75829,5.2313,-4.4878,1.8954,-2.6403,-8.7154,3.252,-2.0065,5.1382,1.8954,-2.6403,-1.3267,0.0,10.095,1.3968,8.3736,3.285,-12.432,-1.1429,0.65681,10.821
-2.654,4.5933,-5.7886,-0.71895,-9.901,-6.1138,-1.3008,-2.0065,1.8862,-0.71895,-9.901,-3.3167,1.9048,12.0,0.12698,9.0177,4.5733,-13.076,3.3016,-5.9113,4.38
-2.654,4.5933,-5.1382,-3.9869,-1.9802,1.0407,-0.65041,-2.0065,-0.71545,-3.9869,-1.9802,0.0,-3.1746,8.8254,-2.4127,6.4412,3.285,4.9597,-0.50794,-7.225,-1.4171
-0.12638,7.7831,-3.8374,-4.6405,5.2805,7.5447,5.8537,-0.06472,3.8374,-4.6405,5.2805,5.9701,-8.254,3.1111,-3.0476,1.2882,0.70853,3.6715,-4.3175,-4.5977,-3.9936
0.50553,9.059,-1.8862,-3.3333,-0.66007,6.2439,10.407,-0.71197,4.4878,-3.3333,-0.66007,8.6235,-8.254,-0.69841,-3.0476,0.0,0.06441,3.0274,-4.3175,-7.8818,-3.3494
1.7694,7.1451,-1.2358,7.1242,1.3201,1.6911,10.407,1.2298,0.58537,7.1242,1.3201,7.2968,-1.9048,1.2063,-0.50794,0.0,1.9968,9.4686,0.7619,-6.5681,-2.0612
6.1927,7.1451,-0.58537,14.967,8.5809,8.1951,12.358,7.7023,4.4878,14.967,8.5809,8.6235,6.9841,6.2857,4.5714,3.8647,4.5733,7.5362,7.746,3.2841,3.7359
4.9289,-1.7863,-8.3902,-3.3333,3.3003,9.4959,1.3008,2.5243,4.4878,-3.3333,3.3003,1.99,3.1746,1.8413,0.7619,-3.2206,-3.1562,-24.67,5.2063,3.2841,-2.7053
1.7694,-8.8038,-12.293,-5.9477,-3.3003,-1.561,-12.358,-1.3592,1.2358,-5.9477,-3.3003,-5.3068,1.2698,-1.9683,-1.1429,-9.0177,-7.6651,-4.058,2.6667,6.5681,-9.7907
1.7694,-6.89,-9.0407,3.8562,-5.9406,-7.4146,-14.309,0.58252,-3.3171,3.8562,-5.9406,-7.9602,5.7143,-1.3333,2.6667,-6.4412,-3.1562,9.4686,-4.9524,13.793,-6.57
-2.654,-10.08,-9.0407,-1.3725,-6.6007,-5.4634,-13.008,-2.6537,-13.073,-1.3725,-6.6007,-9.9502,3.8095,-4.5079,0.7619,-9.0177,-4.4444,-2.7697,-13.841,11.166,-4.6377
-7.7093,-14.545,-13.593,-1.3725,-4.6205,-2.2114,-13.008,-0.71197,-12.423,-1.3725,-4.6205,-9.9502,-3.1746,-9.5873,-5.5873,-16.747,-9.5974,6.8921,-15.746,2.6273,-14.944
-5.1817,-8.8038,-10.341,-2.6797,3.3003,0.39024,-8.4553,4.466,-5.2683,-2.6797,3.3003,-5.3068,-3.1746,-8.3175,-4.9524,-14.815,-7.0209,14.622,-3.0476,3.2841,-18.164
-4.5498,-7.5279,-7.7398,-3.3333,-8.5809,-3.5122,-9.1057,0.58252,-7.2195,-3.3333,-8.5809,-7.9602,-8.8889,-10.857,-6.2222,-12.882,-5.7327,12.045,-7.4921,-1.3136,-14.944
-2.0221,-6.252,-2.5366,9.085,-15.842,-4.813,-7.8049,3.1715,-7.2195,9.085,-15.842,-6.6335,-9.5238,-10.222,-4.3175,-9.6618,-2.5121,2.3833,-11.302,-2.6273,-9.1465
-0.75829,-7.5279,-5.1382,3.2026,-11.221,-3.5122,-7.1545,2.5243,-7.8699,3.2026,-11.221,-5.9701,-9.5238,-11.492,-4.9524,-10.95,-3.8003,-24.025999,-7.4921,-2.6273,-8.5024
0.50553,-1.7863,-4.4878,-5.2941,-0.66007,2.9919,0.65041,1.2298,-2.0163,-5.2941,-0.66007,-1.99,-3.8095,-5.1429,-3.6825,-3.8647,-1.2238,-11.787,-4.9524,1.3136,1.1594
-0.12638,3.3174,-1.2358,-4.6405,7.9208,3.6423,2.6016,1.877,-2.0163,-4.6405,7.9208,0.66335,2.5397,1.8413,-1.7778,3.2206,3.285,6.8921,2.6667,7.225,5.6683
-7.0774,2.6794,-2.5366,-0.71895,-0.66007,-8.065,-2.6016,-4.5955,-5.2683,-0.71895,-0.66007,-3.3167,2.5397,6.2857,-4.3175,5.7971,3.9291,12.689,0.7619,-1.9704,3.7359
-0.12638,8.4211,4.6179,6.4706,2.6403,-4.1626,3.9024,-0.06472,2.5366,6.4706,2.6403,3.3167,8.8889,20.254,4.5714,16.747,12.303,22.351,2.0317,0.0,14.686
6.1927,10.973,8.5203,5.817,5.2805,2.9919,9.1057,-0.06472,9.6911,5.817,5.2805,7.9602,12.063,25.333,10.921,21.9,16.812,6.248,9.0159,10.509,19.839001
5.5608,8.4211,3.3171,-2.6797,3.9604,4.9431,8.4553,-5.2427,9.0407,-2.6797,3.9604,7.2968,8.254,19.618999,9.0159,18.035,14.235,-33.042999,6.4762,1.9704,11.465
8.7204,10.973,8.5203,-2.6797,1.3201,8.1951,12.358,-3.9482,9.6911,-2.6797,1.3201,12.604,8.254,18.349001,10.921,18.035,15.523,-11.787,6.4762,-1.3136,10.177
8.0885,10.335,10.472,-0.71895,6.6007,8.8455,14.959,-4.5955,9.0407,-0.71895,6.6007,14.594,5.0794,14.54,9.6508,14.815,13.591,12.689,5.8413,3.2841,12.11
6.1927,7.7831,9.1707,7.1242,11.221,6.2439,12.358,-6.5372,6.439,7.1242,11.221,13.267,2.5397,10.73,8.381,11.594,11.014,4.3156,10.286,1.3136,14.042
7.4566,7.1451,5.9187,13.007,18.482,6.2439,10.407,-2.0065,14.894,13.007,18.482,11.94,1.2698,9.4603,9.0159,10.95,9.7262,12.689,17.905001,-0.65681,15.33
6.1927,6.5072,-0.58537,9.7386,19.142,10.146,11.057,5.1133,18.797001,9.7386,19.142,11.94,-0.63492,6.2857,4.5714,5.7971,5.2174,-6.6345,20.444,0.0,10.177
8.0885,8.4211,3.3171,14.314,20.462,18.601999,16.26,11.586,20.098,14.314,20.462,17.91,2.5397,6.2857,3.3016,3.8647,5.2174,-0.83736,15.365,4.5977,3.7359
1.7694,-3.7002,-3.187,3.8562,9.901,10.797,8.4553,6.4078,8.3902,3.8562,9.901,9.2869,-6.9841,-5.7778,-6.2222,-8.3736,-6.3768,-11.787,-8.127,-2.6273,-8.5024
-3.9179,-13.907,-11.642,3.8562,-2.6403,0.39024,1.9512,7.7023,-2.6667,3.8562,-2.6403,0.66335,-11.429,-15.937,-11.937,-16.103001,-16.039,-2.1256,-12.571,-3.2841,-13.655
-6.4455,-14.545,-16.846001,9.085,-2.6403,-2.2114,-1.3008,8.3495,-0.06504,9.085,-2.6403,-2.6534,-6.3492,-15.937,-10.667,-14.171,-16.683001,24.283001,-5.5873,0.65681,-12.367
-6.4455,-15.821,-18.797001,10.392,1.3201,1.6911,-5.8537,7.7023,-2.0163,10.392,1.3201,-4.6434,-3.8095,-18.476,-8.127,-14.815,-16.683001,17.198,-6.8571,3.2841,-12.367
-8.3412,-15.183,-20.098,5.1634,-0.66007,-2.2114,-7.1545,3.8188,-4.6179,5.1634,-0.66007,-9.2869,-7.619,-24.190001,-12.571,-19.323999,-19.259001,-10.499,-3.6825,-3.9409,-16.875999
-7.0774,-10.718,-16.195,1.2418,2.6403,-3.5122,-4.5528,3.8188,-2.0163,1.2418,2.6403,-8.6235,-7.619,-19.111,-13.206,-16.747,-17.327,-15.652,-7.4921,-4.5977,-15.588
-5.8136,-4.9761,-10.992,-2.0261,7.2607,-4.1626,-3.252,5.7605,0.58537,-2.0261,7.2607,-6.6335,-3.1746,-5.7778,-8.127,-7.0853,-8.3092,13.977,-10.032,1.3136,-4.6377
-9.6051,-3.7002,-10.341,-12.484,-2.6403,-7.4146,-1.9512,0.58252,-3.3171,-12.484,-2.6403,-6.6335,-5.7143,1.8413,-7.4921,-3.8647,-4.4444,6.248,-3.6825,-6.5681,-3.3494
-7.0774,-0.51037,-5.1382,-0.71895,-7.2607,-6.1138,3.252,-0.06472,-0.71545,-0.71895,-7.2607,-1.99,-1.9048,5.6508,-1.7778,-1.2882,0.70853,9.4686,-0.50794,-4.5977,-3.9936
-7.7093,0.76555,-4.4878,11.699,4.6205,-7.4146,0.65041,-0.71197,0.58537,11.699,4.6205,-1.3267,-1.9048,2.4762,-3.6825,-1.9324,-0.57971,3.6715,-6.2222,-6.5681,-5.9259
-6.4455,4.5933,-3.187,5.1634,8.5809,-2.2114,-0.65041,-0.06472,1.2358,5.1634,8.5809,0.66335,-3.1746,1.2063,-6.2222,0.0,-1.2238,-14.364,-1.1429,-6.5681,-0.77295
-8.3412,6.5072,-1.8862,5.817,3.9604,-0.26016,1.9512,0.58252,3.8374,5.817,3.9604,2.6534,-6.3492,-3.873,-8.127,0.64412,-0.57971,-0.19324,12.19,-7.225,3.0918
-2.0221,12.249,4.6179,13.007,11.221,3.6423,8.4553,7.7023,11.642,13.007,11.221,8.6235,-5.0794,-2.6032,-1.7778,4.5089,5.8615,-8.5668,14.73,-7.8818,8.8889
1.7694,10.335,5.9187,5.817,7.2607,2.3415,11.057,2.5243,8.3902,5.817,7.2607,8.6235,-5.0794,-1.9683,1.3968,4.5089,6.5056,-15.652,11.556,-7.8818,10.821
-0.12638,5.2313,0.71545,-4.6405,2.6403,-1.561,6.5041,-7.8317,4.4878,-4.6405,2.6403,3.3167,-6.3492,-3.873,-1.1429,-0.64412,0.70853,-2.1256,-1.1429,-7.8818,1.8035
-2.0221,-1.1483,-5.7886,-9.2157,1.3201,-2.8618,-2.6016,-9.7735,0.58537,-9.2157,1.3201,-4.6434,-9.5238,-4.5079,-5.5873,-4.5089,-5.7327,-4.058,-0.50794,-8.5386,-1.4171
-5.8136,-7.5279,-10.341,-9.8693,-5.2805,-4.813,-12.358,-8.479,-7.2195,-9.8693,-5.2805,-9.9502,-10.159,-3.2381,-7.4921,-5.153,-7.0209,-6.6345,1.3968,-0.65681,-4.6377
-9.6051,-10.718,-10.992,-11.176,-9.2409,-0.91057,-16.910999,-6.5372,-11.772,-11.176,-9.2409,-9.9502,-7.619,-4.5079,-9.3968,-6.4412,-7.0209,-4.7021,-9.3968,-4.5977,-8.5024
-7.7093,-10.718,-9.0407,-0.06536,-12.541,-3.5122,-15.61,1.2298,-11.122,-0.06536,-12.541,-5.9701,-3.1746,-7.6825,-8.127,-7.7295,-8.3092,-3.4138,-11.302,-4.5977,-10.435
-2.654,-11.994,-7.7398,1.8954,-17.162001,-5.4634,-11.057,5.7605,-8.5203,1.8954,-17.162001,-2.6534,0.0,-9.5873,-4.3175,-10.306,-10.242,10.113,-12.571,5.2545,-11.079
-3.9179,-16.459,-10.992,-6.6013,-12.541,-4.1626,-8.4553,1.2298,-13.073,-6.6013,-12.541,-4.6434,-3.1746,-15.937,-5.5873,-16.103001,-15.395,-22.738001,-11.302,2.6273,-12.367
-3.9179,-11.994,-9.0407,-4.6405,-7.9208,-2.2114,-7.8049,1.2298,-9.1707,-4.6405,-7.9208,-5.3068,-1.9048,-14.032,-4.9524,-14.815,-12.174,-22.093,-6.8571,-1.3136,-14.3
-7.7093,-6.89,-5.7886,7.1242,-3.9604,-3.5122,-7.1545,5.1133,-3.9675,7.1242,-3.9604,-3.9801,1.9048,-6.4127,-4.3175,-9.0177,-6.3768,17.198,-11.302,3.9409,-8.5024
-7.0774,-8.8038,-8.3902,6.4706,-5.2805,-5.4634,-6.5041,5.1133,-7.8699,6.4706,-5.2805,-4.6434,1.9048,-6.4127,-4.9524,-10.306,-7.6651,21.707001,-14.476,8.5386,-3.3494
4.9289,-5.614,-5.1382,7.1242,-0.66007,1.0407,-0.65041,8.3495,-3.3171,7.1242,-0.66007,0.0,8.8889,-1.9683,4.5714,-7.0853,-2.5121,13.977,-0.50794,11.166,1.1594
7.4566,-3.7002,-2.5366,-2.6797,-0.66007,4.2927,-2.6016,3.8188,-0.71545,-2.6797,-0.66007,-0.66335,8.8889,1.2063,8.381,-5.153,1.3527,8.1804,-1.7778,3.2841,-0.12882
3.0332,-3.7002,-1.2358,-11.176,-6.6007,7.5447,-1.9512,-5.89,-1.3659,-11.176,-6.6007,-0.66335,3.8095,5.6508,5.2063,-2.5765,3.285,-1.4815,-5.5873,-3.9409,-0.12882
-4.5498,0.12759,-1.8862,-2.0261,-0.66007,4.9431,2.6016,-6.5372,1.2358,-2.0261,-0.66007,0.66335,-1.2698,8.8254,-0.50794,0.64412,2.6409,-9.8551,1.3968,-8.5386,-2.7053
-5.8136,-0.51037,-5.1382,1.8954,5.9406,-0.26016,1.9512,-4.5955,-2.6667,1.8954,5.9406,0.0,-3.1746,11.365,-3.6825,3.2206,0.70853,-31.754999,-2.4127,-13.136,-0.12882
3.0332,3.3174,-2.5366,4.5098,5.2805,2.3415,7.8049,-2.0065,3.8374,4.5098,5.2805,3.3167,3.8095,19.618999,3.9365,12.882,5.8615,-3.4138,5.2063,1.9704,13.398
1.1374,5.8692,-1.2358,-1.3725,-1.3201,-1.561,3.9024,-7.1845,7.0894,-1.3725,-1.3201,0.0,3.1746,19.618999,2.6667,16.747,6.5056,10.113,5.8413,1.9704,15.974
-2.0221,8.4211,-1.2358,-11.83,-2.6403,-7.4146,-1.3008,-10.421,3.187,-11.83,-2.6403,-4.6434,1.9048,17.079,0.12698,18.035,5.8615,-3.4138,15.365,0.65681,17.907
-2.0221,9.059,-1.8862,-17.059,-9.2409,-9.3659,-0.65041,-13.01,-3.9675,-17.059,-9.2409,-7.9602,2.5397,13.905,0.7619,16.747,5.2174,1.7391,15.365,1.3136,21.771
-0.12638,9.697,0.06504,-17.059,-11.881,-6.7642,1.3008,-14.304,-2.6667,-17.059,-11.881,-7.2968,4.4444,10.095,3.3016,14.171,5.2174,-3.4138,6.4762,0.65681,10.177
9.9842,10.335,5.9187,-15.098,-1.9802,2.3415,1.9512,-7.1845,1.2358,-15.098,-1.9802,-1.99,6.3492,12.0,9.0159,14.815,8.438,-17.584999,-5.5873,3.9409,6.9565
16.302999,11.611,13.724,-2.6797,7.2607,6.2439,5.8537,-0.71197,3.187,-2.6797,7.2607,4.6434,9.5238,16.444,15.365,19.323999,13.591,3.6715,-0.50794,9.8522,13.398
9.3523,6.5072,11.122,-1.3725,-3.9604,1.6911,-0.65041,-3.301,-2.0163,-1.3725,-3.9604,0.66335,5.7143,12.635,11.556,13.527,9.0821,17.198,0.12698,11.166,9.533
6.1927,2.0415,7.8699,-2.6797,-7.2607,1.0407,-3.9024,1.877,-3.9675,-2.6797,-7.2607,-1.99,6.9841,12.0,9.0159,10.306,7.1498,12.689,4.5714,7.8818,6.3124
2.4013,-3.7002,1.3659,-9.8693,-9.901,-2.2114,-10.407,-0.06472,-5.9187,-9.8693,-9.901,-9.2869,8.8889,10.73,7.1111,6.4412,5.2174,2.3833,7.746,3.9409,5.0242
-3.2859,-6.252,-3.187,-15.752,-16.502001,-8.7154,-11.057,-5.89,-5.2683,-15.752,-16.502001,-13.93,8.254,5.0159,1.3968,0.0,0.70853,-20.160999,-5.5873,1.3136,0.5153
0.50553,-1.7863,3.9675,-3.9869,-4.6205,-9.3659,-3.9024,0.58252,-3.9675,-3.9869,-4.6205,-7.2968,13.333,4.381,5.8413,1.2882,3.9291,-9.2109,-8.7619,3.9409,-1.4171
4.297,0.12759,9.1707,1.2418,3.9604,-2.8618,-2.6016,3.1715,-3.9675,1.2418,3.9604,0.0,13.333,1.2063,9.6508,0.64412,6.5056,3.6715,-6.8571,6.5681,-0.77295
3.6651,-0.51037,11.772,1.2418,3.3003,1.0407,-3.252,-0.06472,-2.6667,1.2418,3.3003,4.6434,12.063,-0.69841,11.556,-0.64412,6.5056,16.554001,-6.2222,2.6273,-4.6377
8.0885,4.5933,16.325001,2.549,0.66007,8.1951,5.8537,3.8188,-2.0163,2.549,0.66007,11.277,16.507999,6.2857,16.0,4.5089,11.659,8.1804,-4.3175,2.6273,-5.9259
13.776,13.525,21.528,8.4314,5.9406,12.748,18.211,7.7023,2.5366,8.4314,5.9406,17.91,22.857,17.714001,22.349001,15.459,19.388,3.6715,6.4762,11.166,6.9565
15.039,19.903999,23.48,16.275,13.861,8.1951,18.211,6.4078,10.992,16.275,13.861,16.584,21.587,18.983999,23.618999,19.323999,21.32,-5.3462,7.1111,7.225,5.6683
12.512,23.094,22.179001,16.927999,19.142,8.8455,11.707,1.2298,15.545,16.927999,19.142,14.594,17.778,17.079,19.174999,19.968,19.388,-17.584999,4.5714,3.9409,13.398
13.144,27.559999,23.48,17.582001,22.441999,12.098,18.211,6.4078,17.496,17.582001,22.441999,17.247,18.413,20.889,19.174999,25.121,21.965,8.8245,16.0,11.823,26.280001
10.616,22.455999,18.275999,13.66,18.482,11.447,13.008,5.1133,15.545,13.66,18.482,13.267,11.429,16.444,14.095,19.968,18.1,13.333,22.349001,5.9113,17.261999
14.408,21.818001,18.275999,7.7778,16.502001,12.098,13.008,5.7605,18.146,7.7778,16.502001,11.94,10.794,18.349001,16.635,21.256001,18.743999,3.6715,24.889,1.9704,20.483
13.144,17.99,14.374,1.8954,7.9208,5.5935,10.407,2.5243,10.992,1.8954,7.9208,7.2968,9.5238,17.714001,16.635,20.612,16.812,5.6039,19.809999,4.5977,21.771
3.6651,14.163,7.2195,8.4314,3.3003,-3.5122,8.4553,-2.0065,3.8374,8.4314,3.3003,3.3167,0.0,10.095,7.1111,14.171,9.0821,2.3833,7.746,-2.6273,15.33
-0.75829,14.163,7.2195,9.7386,5.2805,-4.813,11.057,-3.301,4.4878,9.7386,5.2805,5.3068,-3.8095,6.2857,0.7619,11.594,6.5056,-7.9227,5.2063,-5.9113,10.821
3.6651,16.715,13.724,5.1634,3.3003,2.9919,16.910999,-2.0065,9.0407,5.1634,3.3003,11.277,1.9048,8.1905,5.8413,15.459,12.303,13.333,11.556,5.2545,11.465
1.7694,9.059,8.5203,-9.2157,3.3003,-1.561,7.1545,-3.9482,7.0894,-9.2157,3.3003,4.6434,2.5397,5.0159,4.5714,9.0177,8.438,13.977,6.4762,2.6273,5.0242
-5.1817,-4.3381,-5.1382,-15.752,-1.3201,-10.667,-8.4553,-8.479,-1.3659,-15.752,-1.3201,-9.2869,-1.9048,-1.3333,-3.0476,-1.2882,-1.868,5.6039,-3.6825,-2.6273,-4.6377
-10.869,-13.27,-18.146,-13.791,-15.842,-15.87,-20.813,-11.068,-12.423,-13.791,-15.842,-20.563999,-5.7143,-7.6825,-10.032,-8.3736,-12.174,-22.738001,-5.5873,-4.5977,-8.5024
-3.2859,-11.356,-14.244,1.2418,-3.3003,-11.317,-16.910999,3.1715,-9.8211,1.2418,-3.3003,-15.92,-3.1746,-8.9524,-5.5873,-7.7295,-9.5974,-11.143,-9.3968,1.9704,-9.1465
2.4013,-13.27,-9.0407,7.1242,2.6403,-6.1138,-10.407,13.528,-7.2195,7.1242,2.6403,-10.614,-5.7143,-12.762,-2.4127,-10.306,-8.3092,21.707001,-6.8571,3.2841,-11.079
3.0332,-19.649,-7.7398,-0.06536,-0.66007,-0.26016,-16.910999,10.291,-9.1707,-0.06536,-0.66007,-10.614,-10.794,-19.746,-3.6825,-17.391001,-10.886,18.486,-8.127,1.9704,-18.164
5.5608,-18.372999,-4.4878,-5.9477,-11.881,2.9919,-17.561001,9.644,-14.374,-5.9477,-11.881,-10.614,-13.333,-23.556,-3.6825,-18.035,-9.5974,7.5362,-13.206,0.0,-22.028999
3.6651,-13.907,-1.2358,-3.9869,-18.482,0.39024,-13.008,8.3495,-19.577,-3.9869,-18.482,-7.9602,-8.254,-22.285999,-2.4127,-15.459,-7.0209,17.198,-17.016001,4.5977,-18.808001
-0.75829,-12.632,-3.187,-11.83,-13.201,-1.561,-14.309,1.2298,-18.275999,-11.83,-13.201,-5.3068,-5.7143,-19.111,-6.2222,-15.459,-9.5974,16.554001,-17.650999,1.3136,-15.588
2.4013,-6.252,-3.8374,-7.9085,-1.9802,2.9919,-8.4553,2.5243,-9.1707,-7.9085,-1.9802,1.99,-3.8095,-12.127,-4.9524,-10.306,-8.9533,15.266,3.3016,3.2841,-8.5024
13.144,2.0415,2.6667,8.4314,4.6205,8.1951,3.9024,10.939,1.8862,8.4314,4.6205,10.614,2.5397,-0.69841,2.6667,-2.5765,-3.8003,12.045,11.556,5.9113,4.38
11.248,-1.1483,3.3171,3.8562,-1.3201,12.748,2.6016,7.7023,-0.71545,3.8562,-1.3201,7.2968,2.5397,1.8413,3.3016,-2.5765,-3.8003,-9.8551,7.746,0.0,4.38
9.9842,2.0415,5.2683,11.046,5.2805,10.146,1.9512,11.586,1.8862,11.046,5.2805,7.9602,4.4444,5.0159,7.1111,2.5765,0.70853,-0.83736,14.095,1.3136,9.533
7.4566,8.4211,7.2195,12.353,8.5809,4.2927,3.9024,10.291,4.4878,12.353,8.5809,7.2968,8.254,13.27,8.381,10.306,5.2174,15.91,2.6667,4.5977,14.042
-4.5498,2.6794,-0.58537,-3.3333,-6.6007,-2.2114,-4.5528,-2.0065,-3.9675,-3.3333,-6.6007,-1.99,3.1746,12.635,-0.50794,7.0853,0.06441,-5.3462,-8.7619,-1.9704,8.8889
-5.8136,3.9553,0.71545,-6.6013,0.0,-4.813,-3.252,-0.06472,-4.6179,-6.6013,0.0,-2.6534,2.5397,11.365,-4.3175,8.3736,1.3527,-3.4138,-5.5873,-2.6273,6.3124
-5.1817,8.4211,3.9675,1.2418,3.3003,-3.5122,2.6016,3.8188,-4.6179,1.2418,3.3003,0.0,3.1746,10.095,-3.6825,11.594,3.285,-6.6345,0.12698,-5.2545,4.38
-3.9179,9.059,2.6667,8.4314,2.6403,-4.813,1.3008,3.8188,-1.3659,8.4314,2.6403,0.0,1.2698,5.6508,-3.0476,9.6618,2.6409,-16.296,2.6667,-5.2545,1.1594
-4.5498,4.5933,-1.2358,5.1634,7.2607,-7.4146,-1.9512,1.2298,-0.71545,5.1634,7.2607,-1.99,-1.2698,1.8413,-2.4127,5.153,0.06441,15.266,-11.937,3.2841,-2.0612
-3.2859,0.12759,0.71545,-0.06536,0.0,-4.1626,-1.3008,-1.3592,-2.6667,-0.06536,0.0,0.0,-6.3492,-3.873,-4.3175,0.0,-3.8003,15.91,-11.937,-1.3136,-4.6377
3.0332,5.8692,9.1707,1.8954,-6.6007,4.9431,8.4553,1.877,2.5366,1.8954,-6.6007,6.6335,-5.7143,-1.9683,-1.1429,0.64412,0.06441,-1.4815,-5.5873,-4.5977,-2.7053
-0.75829,6.5072,8.5203,-3.9869,0.66007,2.9919,8.4553,0.58252,2.5366,-3.9869,0.66007,3.3167,-7.619,-3.2381,-3.6825,-1.2882,-1.2238,4.3156,2.6667,-5.2545,-3.9936
-3.9179,4.5933,3.9675,0.58824,8.5809,-3.5122,5.2033,2.5243,3.8374,0.58824,8.5809,0.0,-12.063,-7.0476,-7.4921,-4.5089,-5.0886,10.113,9.0159,-10.509,-2.0612
-2.0221,-1.1483,-3.187,2.549,1.9802,-6.7642,-4.5528,3.1715,5.7886,2.549,1.9802,-4.6434,-14.603,-10.222,-6.8571,-8.3736,-8.9533,10.757,8.381,-12.479,-2.7053
-2.654,-10.08,-10.992,1.8954,-3.9604,-10.667,-11.707,-2.0065,1.2358,1.8954,-3.9604,-10.614,-15.238,-17.205999,-5.5873,-14.815,-14.75,-4.7021,1.3968,-10.509,-9.1465
-6.4455,-14.545,-14.894,1.8954,-4.6205,-12.618,-11.057,-5.2427,-2.6667,1.8954,-4.6205,-11.94,-15.238,-22.921,-7.4921,-21.9,-19.903,-11.787,-5.5873,-9.1954,-11.723
-8.3412,-15.821,-11.642,-3.9869,-0.66007,0.39024,-7.8049,-0.71197,-1.3659,-3.9869,-0.66007,-5.9701,-12.063,-24.190001,-10.032,-25.121,-21.191999,-9.2109,-1.1429,-1.9704,-13.655
-5.8136,-8.1659,-0.58537,3.2026,10.561,2.9919,2.6016,12.233,5.1382,3.2026,10.561,1.99,-3.8095,-15.302,-6.8571,-16.103001,-12.818,-7.2786,12.19,3.9409,-2.0612
1.1374,-1.7863,6.5691,13.66,10.561,2.3415,6.5041,16.117001,3.8374,13.66,10.561,4.6434,6.3492,-7.0476,1.3968,-7.0853,-2.5121,8.1804,5.2063,10.509,3.0918
-1.3902,-8.1659,0.71545,7.7778,-1.9802,0.39024,-2.6016,3.8188,-5.9187,7.7778,-1.9802,-1.99,1.9048,-12.762,-1.7778,-10.95,-5.0886,8.8245,-12.571,1.3136,-5.9259
1.7694,-4.9761,0.71545,3.8562,-8.5809,2.9919,-2.6016,-0.06472,-7.8699,3.8562,-8.5809,-0.66335,-1.2698,-10.857,-0.50794,-7.7295,-2.5121,1.7391,-12.571,0.65681,-7.8583
4.9289,-1.7863,0.06504,-3.3333,-15.842,10.146,-0.65041,-1.3592,-15.024,-3.3333,-15.842,2.6534,-5.0794,-8.9524,-0.50794,-2.5765,0.06441,-22.093,-13.206,-3.9409,-8.5024
-0.75829,-2.4242,-2.5366,-3.9869,-7.2607,5.5935,-2.6016,-1.3592,-14.374,-3.9869,-7.2607,3.9801,-9.5238,-8.9524,-4.3175,-1.9324,-0.57971,-17.584999,-6.2222,-9.1954,-5.9259
-4.5498,-0.51037,-0.58537,4.5098,5.2805,1.6911,-2.6016,1.877,-7.2195,4.5098,5.2805,7.9602,-10.794,-7.6825,-6.2222,0.0,0.06441,-2.1256,-5.5873,-4.5977,-2.0612
-6.4455,5.2313,5.2683,4.5098,6.6007,3.6423,3.9024,2.5243,-1.3659,4.5098,6.6007,11.277,-8.8889,-3.873,-7.4921,4.5089,3.285,4.3156,-1.1429,-6.5681,1.8035
-7.7093,7.1451,5.9187,0.58824,-1.3201,-0.26016,5.8537,0.58252,-5.9187,0.58824,-1.3201,7.9602,-5.7143,1.8413,-7.4921,8.3736,6.5056,6.8921,-0.50794,-5.2545,6.9565
-8.3412,5.8692,3.3171,3.8562,-7.2607,-2.2114,1.9512,-2.6537,-7.8699,3.8562,-7.2607,2.6534,-5.7143,4.381,-6.2222,7.7295,7.1498,10.113,-13.841,-0.65681,0.5153
-5.8136,6.5072,4.6179,9.085,1.3201,2.3415,2.6016,-1.3592,0.58537,9.085,1.3201,3.9801,-6.9841,4.381,-4.3175,4.5089,5.8615,4.9597,-18.285999,-3.2841,-7.2142
-0.75829,-0.51037,2.0163,6.4706,1.9802,3.6423,0.0,-0.06472,4.4878,6.4706,1.9802,3.3167,-6.3492,1.8413,-1.7778,-1.9324,0.06441,-11.143,-11.302,-7.8818,-7.2142
0.50553,-7.5279,-5.1382,-2.6797,-1.9802,-2.8618,-2.6016,-1.3592,-1.3659,-2.6797,-1.9802,-1.99,-6.3492,-3.873,-2.4127,-9.6618,-7.6651,1.095,-9.3968,-1.3136,-8.5024
-0.75829,-6.89,-7.7398,-7.2549,0.66007,-4.1626,-3.9024,-2.6537,3.8374,-7.2549,0.66007,-1.99,-6.9841,-10.857,-4.9524,-15.459,-13.462,4.9597,1.3968,0.0,-11.079
1.7694,-1.7863,-3.8374,-1.3725,9.901,1.6911,0.65041,1.877,11.642,-1.3725,9.901,4.6434,-1.9048,-12.762,-3.6825,-13.527,-11.53,6.8921,9.6508,3.9409,-5.9259
3.6651,2.6794,0.71545,6.4706,12.541,8.8455,6.5041,3.1715,12.943,6.4706,12.541,7.9602,0.63492,-10.857,-2.4127,-9.0177,-7.0209,-0.19324,8.381,4.5977,-3.3494
-1.3902,-0.51037,-2.5366,3.8562,-4.6205,5.5935,1.3008,-4.5955,10.341,3.8562,-4.6205,1.3267,-2.5397,-13.397,-4.9524,-9.0177,-8.3092,-12.432,9.0159,-1.9704,-2.7053
-5.1817,-1.7863,-6.439,-6.6013,-7.2607,-4.813,-3.9024,-9.1262,9.6911,-6.6013,-7.2607,-5.9701,-6.9841,-15.302,-4.9524,-9.6618,-7.6651,1.095,8.381,-2.6273,-5.2818
-5.1817,-0.51037,-5.1382,-5.2941,-4.6205,-8.065,-1.3008,-4.5955,7.7398,-5.2941,-4.6205,-6.6335,-8.8889,-11.492,-4.9524,-7.0853,-5.7327,-12.432,6.4762,-9.1954,-3.9936
-5.1817,0.12759,-3.8374,-4.6405,1.9802,-9.3659,-5.8537,-5.2427,6.439,-4.6405,1.9802,-6.6335,-5.7143,-4.5079,-4.9524,-3.8647,-3.8003,-10.499,3.3016,-9.8522,0.5153
-3.2859,2.0415,-1.2358,-5.2941,1.3201,-3.5122,-3.9024,-2.0065,7.0894,-5.2941,1.3201,-5.3068,1.2698,3.746,-1.1429,1.2882,0.70853,-4.7021,11.556,-5.9113,5.0242
-3.2859,2.6794,0.71545,-3.3333,-7.2607,-0.26016,-1.9512,1.2298,6.439,-3.3333,-7.2607,-3.9801,6.3492,6.9206,0.7619,3.8647,5.2174,-0.19324,3.3016,-1.9704,2.4477
-5.1817,-2.4242,-3.8374,-12.484,-10.561,-2.8618,-6.5041,-3.9482,-0.06504,-12.484,-10.561,-7.9602,1.2698,-0.06349,-4.3175,-1.9324,0.70853,-0.19324,-1.1429,-1.3136,-0.12882
-10.237,-10.718,-12.293,-17.712,-18.482,-8.065,-13.008,-7.8317,-6.5691,-17.712,-18.482,-13.93,-5.7143,-7.0476,-11.937,-10.95,-7.6651,-9.8551,0.12698,-3.9409,-7.2142
-10.237,-12.632,-12.943,-8.5621,-17.822001,-10.667,-11.057,-3.9482,-9.1707,-8.5621,-17.822001,-13.267,-6.3492,-8.9524,-10.667,-13.527,-8.9533,4.9597,-8.127,0.0,-9.7907
-9.6051,-11.356,-8.3902,-4.6405,-12.541,-8.7154,-7.8049,0.58252,-12.423,-4.6405,-12.541,-10.614,-6.3492,-13.397,-8.7619,-16.747,-7.6651,-12.432,-6.8571,6.5681,-18.164
-2.654,-4.3381,-1.2358,-2.0261,-13.201,1.6911,-3.9024,3.1715,-12.423,-2.0261,-13.201,-3.9801,-1.2698,-12.762,-3.6825,-13.527,-3.8003,-11.787,-15.111,4.5977,-22.028999
8.0885,-0.51037,5.2683,5.1634,-1.9802,13.398,0.65041,12.88,-7.2195,5.1634,-1.9802,5.3068,5.0794,-9.5873,5.2063,-9.6618,1.3527,19.775,-18.921,8.5386,-12.367
11.248,-1.7863,5.2683,11.046,0.66007,12.748,1.9512,16.117001,-4.6179,11.046,0.66007,8.6235,3.1746,-14.667,7.1111,-12.882,-1.2238,35.233002,-18.921,9.8522,-14.3
13.776,5.8692,10.472,13.66,9.2409,17.951,11.057,16.117001,3.187,13.66,9.2409,16.584,4.4444,-11.492,9.6508,-6.4412,2.6409,26.216,-6.8571,10.509,-9.1465
9.3523,2.6794,6.5691,5.817,9.901,19.252001,9.7561,8.3495,4.4878,5.817,9.901,15.257,1.2698,-12.762,5.2063,-7.0853,-1.2238,-7.2786,3.9365,3.9409,-9.1465
4.9289,0.12759,-0.58537,-5.2941,-0.66007,12.098,5.8537,1.2298,5.1382,-5.2941,-0.66007,7.2968,-0.63492,-13.397,1.3968,-9.6618,-6.3768,-12.432,3.3016,1.3136,-16.875999
-0.12638,0.76555,-6.439,-0.06536,-5.2805,-0.91057,4.5528,-2.0065,3.8374,-0.06536,-5.2805,0.66335,2.5397,-9.5873,0.12698,-7.7295,-7.0209,10.113,-1.1429,7.225,-13.011
-2.654,3.9553,-8.3902,2.549,-1.3201,-5.4634,6.5041,-1.3592,8.3902,2.549,-1.3201,0.0,5.7143,-3.2381,-0.50794,-1.2882,-4.4444,6.248,3.9365,8.5386,-3.3494
-6.4455,3.3174,-7.7398,1.8954,11.221,-2.2114,10.407,-5.89,12.293,1.8954,11.221,1.3267,1.9048,-0.69841,-4.9524,1.2882,-5.0886,-2.1256,10.286,-1.9704,8.8889
-11.501,3.3174,-6.439,-0.06536,17.162001,-4.1626,13.008,-11.068,15.545,-0.06536,17.162001,0.66335,-1.9048,1.2063,-8.7619,1.2882,-6.3768,-17.584999,11.556,-7.225,10.821
-18.452,-4.9761,-14.244,-22.288,6.6007,-13.919,1.9512,-21.424,8.3902,-22.288,6.6007,-9.9502,-5.0794,-2.6032,-13.206,-2.5765,-10.886,-25.958,8.381,-11.166,5.0242
-19.716,-6.89,-16.846001,-17.712,-1.3201,-19.771999,-4.5528,-21.424,7.0894,-17.712,-1.3201,-13.267,-4.4444,-0.06349,-12.571,0.64412,-8.3092,-4.7021,14.73,-7.8818,10.821
-16.556,-3.0622,-13.593,-9.2157,-3.3003,-19.122,0.65041,-19.482,12.943,-9.2157,-3.3003,-9.9502,-6.3492,2.4762,-12.571,3.8647,-5.7327,-5.9903,17.905001,-7.225,16.618
-12.133,1.4035,-7.0894,-7.2549,-3.9604,-12.618,5.8537,-14.951,14.894,-7.2549,-3.9604,-3.9801,-3.8095,5.6508,-10.032,7.0853,-1.868,-7.9227,22.983999,-3.9409,21.771
-7.0774,5.2313,0.06504,-5.9477,-1.9802,-7.4146,1.9512,-12.362,11.642,-5.9477,-1.9802,-2.6534,0.0,9.4603,-3.6825,10.306,3.285,-5.9903,21.714001,-1.9704,21.771
-8.9731,2.0415,-1.8862,-13.137,-1.3201,-11.317,-5.8537,-13.01,4.4878,-13.137,-1.3201,-8.6235,-5.0794,9.4603,-4.9524,7.7295,1.9968,-15.008,17.905001,-10.509,17.261999
-5.8136,-1.1483,-3.187,-7.9085,5.2805,-9.3659,-4.5528,-5.89,-0.06504,-7.9085,5.2805,-7.9602,-10.794,5.6508,-6.2222,4.5089,-0.57971,-18.229,11.556,-11.166,14.042
-1.3902,-3.0622,0.06504,-6.6013,0.0,-5.4634,-5.2033,-1.3592,-2.6667,-6.6013,0.0,-4.6434,-11.429,-2.6032,-4.3175,-1.2882,-3.1562,1.7391,-6.2222,-3.2841,3.0918
-0.75829,-11.994,-0.58537,-2.6797,-13.201,-5.4634,-7.1545,-2.0065,-9.8211,-2.6797,-13.201,-6.6335,-12.063,-10.222,-4.9524,-10.95,-8.3092,3.6715,-17.016001,-4.5977,-11.079
4.9289,-13.27,3.9675,8.4314,-13.861,2.3415,-6.5041,6.4078,-13.724,8.4314,-13.861,-2.6534,-5.0794,-7.6825,0.12698,-10.95,-5.0886,2.3833,-13.206,-1.3136,-13.011
12.512,-6.89,11.772,10.392,1.9802,13.398,-4.5528,14.822,-9.8211,10.392,1.9802,7.2968,5.7143,-0.06349,6.4762,-4.5089,1.9968,23.639,-13.206,11.166,-9.7907
19.462999,3.3174,17.625999,10.392,9.2409,20.552999,3.9024,18.705999,-6.5691,10.392,9.2409,15.257,10.794,2.4762,11.556,0.64412,8.438,21.707001,-7.4921,14.45,-5.9259
17.566999,7.1451,20.228001,9.085,9.2409,19.252001,5.8537,13.528,-3.9675,9.085,9.2409,17.247,8.254,1.2063,10.286,0.0,9.0821,13.333,-4.3175,4.5977,-4.6377
11.88,8.4211,20.878,9.085,9.2409,17.951,7.8049,7.7023,1.2358,9.085,9.2409,17.247,5.7143,0.57143,7.1111,-1.2882,7.7939,8.8245,-5.5873,2.6273,-5.2818
10.616,13.525,20.878,19.542,9.2409,17.951,13.659,11.586,9.6911,19.542,9.2409,17.247,6.3492,3.746,7.1111,1.9324,9.0821,10.113,-0.50794,6.5681,-4.6377
4.9289,12.887,14.374,13.66,5.2805,10.146,12.358,8.3495,5.7886,13.66,5.2805,10.614,1.9048,2.4762,2.6667,2.5765,6.5056,5.6039,4.5714,3.2841,0.5153
1.1374,13.525,10.472,7.7778,7.2607,1.0407,11.707,5.1133,8.3902,7.7778,7.2607,6.6335,0.63492,6.2857,0.12698,6.4412,7.1498,-7.9227,10.921,-1.3136,4.38
-4.5498,10.335,5.2683,7.7778,11.221,-5.4634,9.7561,3.1715,14.244,7.7778,11.221,2.6534,-0.63492,8.1905,-2.4127,7.7295,5.2174,-22.093,14.73,-5.2545,2.4477
-5.8136,5.2313,0.06504,13.007,15.842,-5.4634,7.8049,1.877,14.894,13.007,15.842,0.66335,1.2698,11.365,-3.0476,10.306,2.6409,-21.448999,15.365,1.3136,16.618
-7.7093,5.2313,-1.2358,22.157,21.122,-2.2114,10.407,0.58252,17.496,22.157,21.122,3.3167,8.254,17.079,-1.7778,16.103001,3.9291,-6.6345,14.095,0.0,25.636
-12.133,3.3174,-7.0894,31.961,30.363001,-4.813,9.1057,-2.0065,25.951,31.961,30.363001,0.66335,6.9841,17.714001,-4.3175,16.103001,1.9968,0.45089,16.635,-5.9113,21.127001
-11.501,-0.51037,-10.992,41.111,39.604,-6.1138,3.252,-2.6537,27.252001,41.111,39.604,-4.6434,4.4444,18.349001,-4.3175,14.815,0.06441,-16.940001,18.540001,-5.2545,15.33
2.4013,7.7831,-0.58537,67.254997,61.386002,7.5447,14.309,9.644,43.512001,67.254997,61.386002,5.9701,13.968,27.872999,7.1111,25.121,9.0821,-16.940001,32.507999,9.1954,30.145
-2.654,2.0415,-4.4878,76.404999,59.405998,12.748,14.959,8.9968,48.715,76.404999,59.405998,7.2968,10.794,19.618999,3.9365,18.035,3.9291,-24.025999,17.905001,4.5977,26.280001
-7.0774,-4.9761,-10.992,82.941002,64.685997,17.301001,13.008,9.644,40.259998,82.941002,64.685997,6.6335,2.5397,9.4603,-3.0476,7.7295,-3.8003,-2.7697,1.3968,-1.3136,14.686
-7.0774,-4.3381,-10.992,82.941002,83.828003,19.902,10.407,14.822,41.561001,82.941002,83.828003,8.6235,-5.0794,4.381,-8.7619,4.5089,-5.7327,13.977,12.19,-1.9704,13.398
-3.2859,-4.3381,-7.0894,82.941002,83.828003,18.601999,8.4553,18.058001,43.512001,82.941002,83.828003,7.9602,-6.3492,3.1111,-7.4921,-0.64412,-5.0886,15.91,5.8413,0.0,-0.77295
3.6651,-4.9761,0.06504,82.941002,82.508003,16.0,13.008,20.646999,42.210999,82.941002,82.508003,9.2869,1.2698,2.4762,1.3968,-3.2206,0.70853,14.622,-5.5873,1.3136,-7.8583
5.5608,-12.632,-1.2358,82.941002,64.026001,12.748,7.1545,20.0,28.552999,82.941002,64.026001,6.6335,0.63492,-3.2381,3.3016,-10.306,-0.57971,-2.7697,-17.650999,0.0,-12.367
13.144,-13.27,2.6667,82.941002,55.445999,24.455,7.8049,26.472,22.698999,82.941002,55.445999,13.267,7.619,-0.06349,9.6508,-10.306,2.6409,0.45089,-17.650999,7.8818,-17.52
9.3523,-8.8038,3.3171,79.019997,56.105999,25.106001,9.1057,22.589001,22.049,79.019997,56.105999,17.247,9.5238,0.57143,7.746,-9.0177,2.6409,27.504,-10.032,12.479,-22.028999
8.7204,-1.7863,8.5203,69.216003,57.425999,21.202999,15.61,16.764,15.545,69.216003,57.425999,20.563999,6.3492,1.8413,5.2063,-4.5089,3.9291,22.351,-8.7619,12.479,-14.944
18.198999,10.973,22.829,61.373001,57.425999,23.153999,24.065001,18.058001,20.747999,61.373001,57.425999,28.524,12.063,12.0,13.46,7.0853,14.879,15.266,-2.4127,14.45,-5.2818
15.039,13.525,23.48,39.150002,42.243999,16.65,18.211,9.644,16.195,39.150002,42.243999,24.544001,12.698,11.365,13.46,7.0853,14.235,15.91,-5.5873,10.509,-12.367
15.039,14.801,22.829,20.85,26.403,14.049,17.561001,4.466,10.341,20.85,26.403,22.554001,15.873,13.905,15.365,9.6618,14.235,15.266,-3.6825,15.107,-7.2142
16.302999,17.99,24.129999,1.2418,10.561,20.552999,18.862,-0.06472,9.6911,1.2418,10.561,24.544001,18.413,19.618999,19.174999,16.747,18.743999,10.113,3.9365,14.45,10.821
6.8246,15.439,16.976,-16.405001,-2.6403,12.098,16.26,-9.7735,2.5366,-16.405001,-2.6403,16.584,9.5238,14.54,10.286,12.882,15.523,-32.398998,10.286,-2.6273,10.821
6.1927,18.628,19.577,-9.8693,1.3201,4.2927,19.511999,-9.1262,5.1382,-9.8693,1.3201,16.584,10.159,15.81,10.286,16.103001,18.1,-22.738001,8.381,-2.6273,10.177
-2.654,16.715,15.675,-15.752,1.9802,-6.1138,14.959,-16.893,3.187,-15.752,1.9802,11.277,6.9841,11.365,4.5714,14.171,13.591,1.7391,9.6508,-3.2841,12.754
-12.133,9.059,4.6179,-36.013,-4.6205,-14.569,8.4553,-31.132999,-5.2683,-36.013,-4.6205,1.3267,-4.4444,3.746,-4.9524,8.3736,3.9291,-9.2109,15.365,-12.479,8.8889
-8.3412,3.3174,-0.58537,-47.778,-21.122,-13.919,3.9024,-31.780001,-9.1707,-47.778,-21.122,-1.99,-6.9841,5.6508,-6.2222,6.4412,-0.57971,-26.601999,10.286,-14.45,10.177
-7.7093,-0.51037,-5.1382,-58.235001,-35.644001,-15.22,-1.3008,-29.191,-12.423,-58.235001,-35.644001,-5.9701,-7.619,8.8254,-7.4921,5.153,-3.8003,-28.535,5.8413,-14.45,12.754
-7.0774,-2.4242,-9.0407,-54.966999,-37.624001,-16.52,-3.9024,-24.66,-13.724,-54.966999,-37.624001,-9.9502,-12.698,8.8254,-11.302,3.2206,-6.3768,-34.976002,3.3016,-18.391001,14.042
-7.7093,-1.7863,-9.6911,-49.084999,-33.662998,-13.919,-7.8049,-20.129,-16.325001,-49.084999,-33.662998,-12.604,-14.603,8.1905,-11.937,1.9324,-7.0209,-9.2109,-5.5873,-17.077,7.6006
-8.3412,-1.1483,-7.7398,-49.084999,-34.983002,-10.667,-12.358,-13.657,-15.024,-49.084999,-34.983002,-13.267,-14.603,9.4603,-9.3968,2.5765,-5.0886,19.775,-9.3968,-11.823,3.0918
-11.501,-8.8038,-15.545,-60.849998,-40.264,-17.820999,-23.415001,-18.834999,-22.179001,-60.849998,-40.264,-23.216999,-15.873,5.0159,-10.667,-1.2882,-8.9533,3.0274,-3.6825,-17.077,1.1594
-12.765,-16.459,-20.098,-68.039001,-48.185001,-30.829,-27.316999,-22.718,-32.584999,-68.039001,-48.185001,-32.504002,-9.5238,4.381,-6.8571,-3.8647,-8.9533,-4.7021,-10.667,-15.764,-5.2818
-5.8136,-15.821,-14.244,-61.502998,-50.825001,-32.779999,-24.065001,-17.540001,-33.886002,-61.502998,-50.825001,-31.177,3.8095,8.1905,3.3016,-0.64412,-0.57971,-17.584999,-21.459999,-3.2841,-9.7907
-1.3902,-15.183,-10.341,-61.502998,-52.805,-27.577,-25.365999,-16.893,-31.285,-61.502998,-52.805,-28.524,10.159,8.8254,7.746,1.2882,3.9291,-28.535,-29.079,4.5977,-10.435
5.5608,-8.1659,-1.8862,-58.235001,-49.505001,-13.268,-18.211,-10.421,-24.780001,-58.235001,-49.505001,-19.237,22.857,14.54,16.635,9.6618,12.947,-2.7697,-18.285999,15.107,-0.77295
4.9289,-11.356,-3.187,-62.157001,-50.165001,-6.1138,-17.561001,-11.715,-31.934999,-62.157001,-50.165001,-16.584,24.761999,10.73,14.73,5.7971,10.37,19.129999,-15.746,17.733999,-1.4171
-4.5498,-15.183,-8.3902,-62.810001,-53.465,-12.618,-21.462999,-15.599,-33.886002,-62.810001,-53.465,-17.91,19.048,1.8413,5.2063,-3.2206,1.9968,22.995001,-15.746,19.048,-13.655
-8.3412,-11.994,-8.3902,-44.509998,-40.264,-17.820999,-22.114,-11.715,-25.431,-44.509998,-40.264,-15.257,16.507999,-0.06349,2.0317,-5.153,0.06441,16.554001,-11.302,13.793,-19.452
-7.0774,-9.4418,-6.439,-38.626999,-35.644001,-15.87,-20.163,-9.7735,-24.780001,-38.626999,-35.644001,-11.94,13.968,-1.9683,2.6667,-5.153,0.06441,-2.1256,-11.937,6.5681,-17.52
-5.8136,-5.614,-4.4878,-43.855999,-42.243999,-11.317,-16.26,-7.1845,-24.780001,-43.855999,-42.243999,-8.6235,10.159,-3.2381,2.6667,-3.8647,0.06441,-2.7697,-14.476,3.2841,-11.723
-5.8136,-6.252,-3.8374,-40.588001,-39.604,-11.967,-12.358,-10.421,-23.48,-40.588001,-39.604,-7.2968,6.3492,-3.2381,0.7619,-4.5089,-2.5121,-11.143,-11.937,3.9409,-7.8583
-3.2859,-4.3381,-1.8862,-39.280998,-32.342999,-8.065,-5.8537,-12.362,-18.275999,-39.280998,-32.342999,-3.9801,1.9048,0.57143,0.12698,-0.64412,-1.868,-5.9903,1.3968,-1.3136,-0.77295
-7.0774,-4.3381,-3.8374,-46.471001,-33.002998,-10.016,-8.4553,-15.599,-16.976,-46.471001,-33.002998,-5.9701,-8.8889,-3.2381,-5.5873,-1.9324,-5.7327,5.6039,5.2063,-12.479,-2.0612
-5.8136,-1.7863,-3.187,-41.895,-36.964001,-13.268,-9.1057,-16.893,-15.024,-41.895,-36.964001,-5.9701,-15.873,-7.6825,-8.7619,-3.2206,-7.0209,4.3156,2.0317,-10.509,-2.7053
-4.5498,-6.89,-5.7886,-48.431,-44.883999,-10.667,-14.309,-20.777,-23.48,-48.431,-44.883999,-8.6235,-22.222,-15.937,-13.841,-10.306,-12.818,0.45089,-12.571,-15.107,-11.723
-1.3902,-11.356,-7.0894,-51.699001,-48.185001,-6.1138,-20.163,-19.482,-31.285,-51.699001,-48.185001,-10.614,-23.492001,-20.381001,-14.476,-14.815,-16.683001,-6.6345,-13.206,-11.166,-16.232
4.9289,-6.252,-2.5366,-37.973999,-31.683001,1.0407,-15.61,-8.479,-22.829,-37.973999,-31.683001,-3.3167,-18.413,-15.302,-8.127,-10.306,-13.462,-7.2786,-1.7778,-3.2841,-6.57
0.50553,-1.7863,-3.8374,-31.438,-34.983002,-0.91057,-9.1057,-3.301,-13.724,-31.438,-34.983002,-0.66335,-14.603,-12.127,-8.7619,-6.4412,-11.53,8.1804,2.6667,-5.2545,3.0918
1.7694,7.1451,-1.2358,-16.405001,-25.743,1.0407,2.6016,4.466,-4.6179,-16.405001,-25.743,3.9801,-4.4444,-4.5079,-4.3175,2.5765,-4.4444,-22.093,9.6508,-3.2841,8.8889
-3.9179,4.5933,-5.1382,-26.863001,-24.422001,-2.8618,-0.65041,-3.9482,-6.5691,-26.863001,-24.422001,-1.3267,-1.9048,-1.9683,-4.3175,3.8647,-3.1562,-5.3462,7.746,-1.9704,7.6006
-6.4455,0.12759,-6.439,-36.667,-23.761999,-9.3659,-7.8049,-13.01,-10.472,-36.667,-23.761999,-9.2869,0.0,0.57143,-1.7778,3.8647,-1.868,21.707001,3.3016,-3.2841,6.3124
-2.654,0.76555,-3.8374,-34.051998,-18.482,-8.065,-6.5041,-10.421,-3.3171,-34.051998,-18.482,-11.277,4.4444,8.8254,3.3016,8.3736,1.9968,4.3156,12.19,1.9704,12.11
-0.12638,3.9553,-0.58537,-26.209,-17.822001,-9.3659,-3.9024,-5.2427,-0.71545,-26.209,-17.822001,-9.9502,8.8889,17.079,7.1111,14.171,6.5056,-5.9903,14.73,2.6273,17.907
