C3,C4,Cz,F1,F2,F3,F4,F7,F8,Fp1,Fp2,Fz,O1,O2,P3,P4,Pz,T3,T4,T5,T6
10.047,3.9365,7.8049,-7.7939,0.66007,-6.0194,-4.5528,-11.014,7.055,-7.7939,0.66007,-5.9477,26.667,19.075001,24.190001,9.7087,23.833,-1.4171,4.4866,12.418,4.38
8.7836,-4.3175,5.2033,-6.5056,2.6403,-6.0194,-1.9512,-11.659,8.3495,-6.5056,2.6403,-3.9869,26.667,15.885,20.381001,1.9417,18.035,0.5153,3.2227,11.111,1.8035
3.0964,-6.8571,7.1545,-5.2174,6.6007,-7.9612,3.252,-9.7262,9.644,-5.2174,6.6007,-0.71895,22.857,11.419,14.032,-4.5307,12.238,2.4477,1.327,6.5359,-1.4171
1.2006,0.7619,13.008,-5.8615,8.5809,-7.9612,11.057,-12.303,12.233,-5.8615,8.5809,4.5098,17.143,5.6778,10.222,-5.178,9.0177,1.1594,3.2227,5.8824,-1.4171
2.4645,8.381,16.910999,-7.1498,8.5809,-5.3722,15.61,-14.879,14.822,-7.1498,8.5809,7.7778,6.9841,-1.3397,5.1429,-3.8835,4.5089,-3.9936,9.5419,0.0,1.8035
1.8325,13.46,15.61,-11.659,5.9406,-7.3139,15.61,-17.455999,14.175,-11.659,5.9406,7.7778,-3.1746,-5.8054,-1.2063,-1.9417,-2.5765,-9.1465,13.965,-5.2288,5.6683
0.56872,16.635,12.358,-12.947,4.6205,-6.0194,14.309,-18.1,14.175,-12.947,4.6205,7.7778,-10.159,-6.4434,-6.2857,1.9417,-7.0853,-11.079,15.229,-9.1503,10.177
0.56872,19.809999,7.8049,-9.7262,5.9406,-2.1359,14.959,-14.235,13.528,-9.7262,5.9406,9.085,-13.333,-4.5295,-8.8254,6.4725,-9.0177,-9.7907,16.493,-10.458,13.398
0.56872,19.809999,1.9512,-6.5056,7.2607,-0.19417,15.61,-13.591,16.117001,-6.5056,7.2607,9.085,-13.333,-1.3397,-9.4603,11.003,-8.3736,-9.1465,18.389,-9.8039,15.974
-4.4866,19.174999,-3.252,-7.1498,7.9208,-4.0777,14.959,-11.014,16.764,-7.1498,7.9208,5.1634,-8.8889,1.2121,-5.6508,14.239,-5.7971,-10.435,15.861,-4.5752,15.974
-1.9589,17.905001,-2.6016,-4.5733,4.6205,-6.0194,9.7561,-5.2174,12.233,-4.5733,4.6205,0.58824,-2.5397,4.4019,0.06349,16.181,-0.64412,-9.1465,11.438,-1.9608,15.33
-1.9589,10.286,-2.6016,-1.9968,0.0,-7.3139,0.65041,-5.8615,5.1133,-1.9968,0.0,-5.9477,3.1746,6.9537,1.3333,14.887,1.9324,-1.4171,7.6461,0.0,14.042
-13.333,0.7619,-9.1057,-8.438,-5.2805,-15.728,-11.057,-7.7939,-3.301,-8.438,-5.2805,-16.405001,4.4444,6.9537,-4.381,9.7087,-1.2882,1.1594,2.5908,1.3072,9.533
-15.229,-4.9524,-9.7561,-8.438,-4.6205,-18.316999,-12.358,-6.5056,-5.2427,-8.438,-4.6205,-17.059,5.7143,6.3158,-9.4603,7.767,-1.9324,-1.4171,-1.8325,1.3072,6.9565
-10.174,-2.4127,-3.9024,-1.3527,0.0,-8.6084,-4.5528,-2.6409,-4.5955,-1.3527,0.0,-6.6013,5.7143,6.3158,-11.365,6.4725,-1.2882,-2.0612,-4.9921,1.3072,4.38
-0.6951,2.0317,5.8537,10.242,9.2409,9.5146,11.057,6.3768,1.2298,10.242,9.2409,11.046,6.3492,6.3158,-8.1905,5.178,1.9324,-0.12882,-5.624,1.3072,1.1594
13.839,-4.9524,15.61,21.191999,19.142,28.285,22.114,14.75,7.055,21.191999,19.142,28.693001,7.619,2.488,-0.57143,-4.5307,3.2206,4.38,-9.4155,3.268,-5.2818
24.580999,-11.302,24.065001,28.277,24.422001,39.935001,27.966999,23.768,7.7023,28.277,24.422001,40.458,8.254,-3.8915,8.3175,-16.827999,3.2206,10.821,-13.207,7.1895,-14.3
34.060001,-8.127,31.870001,30.853001,26.403,44.466,28.618,26.989,7.7023,30.853001,26.403,45.033001,8.8889,-8.9952,17.205999,-20.712,5.153,12.11,-12.575,15.033,-20.097
34.060001,-3.6825,27.966999,25.056,21.122,36.699001,20.813,21.191999,7.7023,25.056,21.122,35.882,4.4444,-12.823,17.205999,-19.417,2.5765,8.2448,-11.311,12.418,-20.097
15.103,-2.4127,10.407,12.818,9.901,17.282,7.8049,11.53,3.8188,12.818,9.901,15.621,-3.1746,-13.461,5.7778,-14.887,-4.5089,8.8889,-7.5197,6.5359,-14.944
-7.6461,-1.7778,-10.407,0.57971,-1.3201,-2.1359,-3.252,3.1562,-0.06472,0.57971,-1.3201,-3.9869,-8.8889,-12.823,-5.6508,-9.7087,-11.594,8.8889,-6.2559,2.6144,-9.7907
-14.597,3.9365,-20.813,-5.8615,-7.9208,-11.197,-7.1545,-1.3527,-3.9482,-5.8615,-7.9208,-13.791,-8.8889,-7.7193,-6.9206,-1.2945,-10.95,4.38,-3.7283,1.3072,-2.7053
-12.701,4.5714,-24.065001,-9.7262,-9.2409,-14.434,-10.407,-3.9291,-3.9482,-9.7262,-9.2409,-19.02,-5.0794,-1.9777,-3.1111,7.1197,-7.0853,1.8035,3.8547,1.9608,5.0242
-6.3823,2.6667,-23.415001,-11.014,-12.541,-14.434,-14.959,-7.1498,-4.5955,-11.014,-12.541,-22.288,-0.63492,1.8501,0.69841,12.298,-3.2206,0.5153,6.3823,3.9216,8.8889
-4.4866,0.7619,-20.813,-13.591,-15.842,-13.139,-20.813,-8.438,-7.1845,-13.591,-15.842,-24.902,5.0794,5.0399,3.2381,16.181,0.64412,1.1594,3.8547,6.5359,11.465
-12.07,-6.8571,-21.462999,-18.1,-19.142,-17.67,-27.966999,-10.37,-11.715,-18.1,-19.142,-29.476999,8.254,6.3158,0.69841,14.887,1.2882,-2.0612,1.327,7.1895,10.821
-17.757,-10.667,-18.862,-18.1,-18.482,-21.552999,-30.569,-11.659,-11.715,-18.1,-18.482,-30.784,10.159,6.9537,-1.8413,12.298,1.2882,-3.9936,-0.56872,9.1503,8.2448
-16.493,-11.937,-13.659,-18.1,-15.842,-22.201,-26.016001,-16.167,-9.7735,-18.1,-15.842,-28.17,13.333,8.2297,-1.2063,10.356,3.2206,-5.9259,-1.8325,8.4967,6.9565
-14.597,-13.841,-13.659,-20.032,-17.162001,-24.142,-24.715,-18.743999,-10.421,-20.032,-17.162001,-28.17,14.603,8.2297,1.3333,6.4725,3.8647,-5.9259,-4.9921,7.8431,4.38
-13.965,-14.476,-13.008,-19.388,-15.182,-22.848,-20.813,-16.167,-11.068,-19.388,-15.182,-24.247999,16.507999,7.5917,3.2381,3.2362,4.5089,1.1594,-6.2559,10.458,1.8035
-10.806,-17.650999,-9.7561,-16.167,-13.201,-20.259001,-16.910999,-14.879,-9.1262,-16.167,-13.201,-19.673,17.778,6.9537,5.7778,0.64725,4.5089,3.7359,-5.624,11.111,-1.4171
1.2006,-15.746,-1.9512,-14.235,-11.881,-14.434,-12.358,-12.947,-7.1845,-14.235,-11.881,-13.791,20.952,8.8676,12.762,1.9417,8.3736,3.0918,-4.9921,15.033,-1.4171
6.8878,-7.4921,7.1545,-12.947,-8.5809,-9.9029,-6.5041,-9.7262,-5.89,-12.947,-8.5809,-8.5621,22.222,10.144,16.570999,4.5307,12.882,6.3124,-5.624,16.993,-2.0612
8.7836,-0.50794,12.358,-10.37,-7.9208,-6.0194,-1.3008,-4.5733,-3.301,-10.37,-7.9208,-3.9869,18.413,7.5917,17.841,3.8835,13.527,6.3124,-6.8878,18.954,-4.6377
9.4155,2.6667,13.008,-6.5056,-5.2805,-0.84142,3.252,0.57971,-0.06472,-6.5056,-5.2805,0.58824,10.159,1.2121,12.127,-0.64725,10.306,8.2448,-7.5197,13.072,-9.1465
11.311,2.6667,11.057,-0.70853,1.3201,5.6311,6.5041,5.7327,2.5243,-0.70853,1.3201,5.817,3.1746,-4.5295,7.6825,-5.178,5.7971,8.2448,-5.624,5.8824,-11.723
9.4155,3.3016,4.5528,0.57971,2.6403,4.9838,7.1545,1.868,1.2298,0.57971,2.6403,6.4706,-1.9048,-7.7193,2.6032,-7.767,0.64412,1.8035,-4.3602,0.65359,-11.079
9.4155,1.3968,-1.9512,-0.70853,7.2607,2.3948,7.8049,-5.2174,5.7605,-0.70853,7.2607,5.817,-4.4444,-5.8054,1.3333,-6.4725,-2.5765,-11.079,0.06319,-2.6144,-4.6377
-10.174,-2.4127,-9.1057,0.57971,7.9208,-3.4304,5.8537,-5.8615,5.7605,0.57971,7.9208,2.549,-6.9841,-3.2536,-6.9206,-6.4725,-8.3736,-8.5024,3.2227,-7.1895,-0.12882
-25.972,0.7619,-10.407,-0.06441,3.9604,-6.6667,5.8537,-11.659,3.8188,-0.06441,3.9604,1.8954,-6.3492,1.8501,-15.81,-3.8835,-10.95,-9.7907,5.1185,-12.418,4.38
-27.867001,5.8413,-7.1545,-0.06441,3.3003,-8.6084,6.5041,-16.812,1.877,-0.06441,3.3003,1.8954,-1.2698,8.8676,-20.254,1.2945,-10.306,-18.164,7.6461,-14.379,10.177
-27.235001,6.4762,-8.4553,-2.6409,1.9802,-13.786,1.9512,-16.812,-0.71197,-2.6409,1.9802,-3.3333,6.3492,15.247,-18.349001,5.178,-7.7295,-19.452,5.7504,-9.8039,12.11
-12.701,7.1111,-5.8537,-1.3527,3.9604,-6.0194,2.6016,-11.659,-2.0065,-1.3527,3.9604,-1.3725,17.143,20.989,-6.9206,9.7087,0.64412,-14.3,2.5908,0.0,12.754
-0.06319,10.921,-0.65041,5.7327,5.9406,4.9838,5.8537,-3.285,-0.71197,5.7327,5.9406,5.1634,24.127001,22.264999,4.5079,11.65,8.3736,-5.9259,1.9589,4.5752,10.177
13.839,10.921,7.1545,8.9533,5.9406,14.693,11.057,6.3768,1.877,8.9533,5.9406,13.007,27.302,19.712999,17.205999,11.65,14.171,3.0918,2.5908,11.111,7.6006
29.004999,11.556,18.862,12.818,7.9208,24.400999,18.211,13.462,3.8188,12.818,7.9208,22.809999,28.570999,15.247,29.27,10.356,19.323999,10.177,0.06319,18.301001,3.0918
35.956001,15.365,29.919001,15.395,13.861,28.285,25.365999,14.75,6.4078,15.395,13.861,30.0,23.492001,10.144,33.714001,9.7087,20.612,10.177,-1.2006,18.954,-1.4171
27.740999,14.73,26.667,14.75,11.881,21.812,22.764,12.818,5.1133,14.75,11.881,26.077999,15.238,5.6778,28.0,8.4142,17.391001,9.533,0.6951,15.686,-0.77295
13.839,7.746,9.7561,12.174,6.6007,12.104,12.358,11.53,0.58252,12.174,6.6007,14.967,5.0794,-1.9777,16.570999,2.589,7.7295,10.821,0.6951,10.458,-2.7053
3.7283,-1.7778,-6.5041,8.3092,2.6403,4.3366,-0.65041,8.3092,-3.301,8.3092,2.6403,2.549,-4.4444,-12.185,7.0476,-3.8835,-2.5765,8.8889,-5.624,10.458,-8.5024
-5.7504,-8.7619,-15.61,4.4444,-0.66007,-2.1359,-11.707,6.3768,-7.8317,4.4444,-0.66007,-8.5621,-15.238,-21.115999,-4.381,-11.65,-11.594,7.6006,-10.047,0.0,-14.944
-12.701,-20.825001,-21.462999,4.4444,-3.9604,-7.9612,-22.764,7.6651,-11.715,4.4444,-3.9604,-17.059,-20.952,-27.496,-12.0,-20.712,-18.68,5.6683,-15.103,-6.5359,-20.740999
-22.18,-35.429001,-29.919001,1.868,-7.2607,-13.139,-33.820999,5.0886,-14.304,1.868,-7.2607,-25.556,-21.587,-29.41,-17.714001,-30.421,-25.121,2.4477,-21.422001,-6.5359,-25.25
-26.603001,-40.507999,-33.820999,-1.3527,-5.9406,-18.316999,-35.122002,2.5121,-14.304,-1.3527,-5.9406,-29.476999,-19.048,-26.219999,-20.889,-36.245998,-28.341,-2.7053,-25.844999,-7.1895,-25.25
-20.284,-33.523998,-26.667,-3.9291,-6.6007,-15.728,-24.065001,-0.06441,-10.421,-3.9291,-6.6007,-23.594999,-10.794,-17.927,-17.714001,-33.009998,-24.476999,-4.6377,-20.790001,-4.5752,-20.097
-7.6461,-18.921,-12.358,-3.9291,-4.6205,-4.0777,-5.8537,-1.9968,-3.301,-3.9291,-4.6205,-9.8693,-2.5397,-8.3573,-13.905,-23.948,-16.103001,-2.0612,-8.1517,-1.3072,-12.367
-3.8547,-3.6825,-1.3008,-3.9291,-3.3003,4.9838,6.5041,-2.6409,1.877,-3.9291,-3.3003,1.2418,1.2698,-2.6156,-15.175,-13.592,-10.95,-4.6377,-1.2006,-5.8824,-5.9259
-15.229,4.5714,-0.65041,-5.2174,-3.3003,3.6893,11.057,-3.285,4.466,-5.2174,-3.3003,5.817,-1.9048,-0.0638,-25.333,-6.4725,-12.238,-7.8583,1.9589,-16.34,0.5153
-25.34,12.19,-4.5528,-7.7939,-2.6403,-3.4304,9.1057,-7.1498,3.1715,-7.7939,-2.6403,3.2026,-5.7143,2.488,-31.683001,-0.64725,-14.815,-14.3,5.1185,-22.222,6.3124
-25.972,10.286,-6.5041,-10.37,-4.6205,-7.9612,3.252,-9.7262,2.5243,-10.37,-4.6205,-1.3725,-6.9841,3.764,-28.507999,3.8835,-13.527,-19.452,9.5419,-22.222,9.533
-22.18,4.5714,-7.8049,-14.235,-9.901,-14.434,-6.5041,-14.879,0.58252,-14.235,-9.901,-9.2157,-6.9841,3.764,-22.159,5.178,-10.306,-19.452,10.806,-20.261,10.821
-17.757,0.7619,-7.8049,-17.455999,-13.201,-17.67,-16.26,-16.167,-2.6537,-17.455999,-13.201,-16.405001,-5.0794,3.764,-13.905,6.4725,-5.153,-16.875999,8.91,-15.686,10.821
-11.438,-4.9524,-10.407,-18.743999,-14.521,-20.259001,-24.715,-16.812,-5.2427,-18.743999,-14.521,-23.594999,-6.3492,1.8501,-8.8254,3.2362,-3.2206,-15.588,8.278,-13.072,9.533
-8.91,-11.937,-14.959,-18.1,-13.861,-23.495001,-29.268,-18.743999,-7.8317,-18.1,-13.861,-27.516001,-8.8889,-1.9777,-6.9206,-3.2362,-5.153,-13.011,6.3823,-9.1503,5.6683
-7.6461,-17.650999,-17.561001,-12.303,-9.2409,-18.964001,-25.365999,-12.303,-5.2427,-12.303,-9.2409,-24.247999,-13.333,-7.0813,-8.8254,-10.356,-9.6618,-8.5024,0.6951,-10.458,1.1594
-3.8547,-15.111,-16.26,-7.1498,-3.9604,-9.2557,-14.309,-6.5056,-2.0065,-7.1498,-3.9604,-15.098,-15.238,-10.271,-8.1905,-16.827999,-12.238,-4.6377,-2.4645,-9.8039,-3.9936
-7.6461,-11.302,-10.407,-1.3527,0.66007,-0.84142,0.65041,2.5121,2.5243,-1.3527,0.66007,-2.0261,-13.968,-10.909,-7.5556,-18.122999,-12.238,2.4477,-2.4645,-5.2288,-6.57
-5.7504,-6.2222,-1.3008,5.7327,5.9406,8.2201,13.008,8.9533,7.055,5.7327,5.9406,10.392,-11.429,-8.9952,-6.9206,-12.945,-8.3736,5.0242,-5.624,-4.5752,-5.9259
5.624,7.746,14.309,13.462,12.541,19.223,25.365999,7.0209,10.939,13.462,12.541,24.118,-6.3492,-2.6156,-2.4762,1.2945,-0.64412,2.4477,-0.56872,-1.9608,-1.4171
9.4155,21.714001,25.365999,14.75,17.822001,21.165001,32.52,8.9533,14.175,14.75,17.822001,30.653999,-1.9048,5.0399,1.3333,17.476,9.0177,-2.0612,5.7504,1.9608,5.0242
9.4155,29.968,26.667,14.106,16.502001,18.576,31.219999,9.5974,13.528,14.106,16.502001,28.693001,2.5397,10.144,2.6032,27.832001,14.171,1.1594,9.5419,0.0,9.533
10.047,33.143002,24.065001,11.53,9.901,15.34,23.415001,6.3768,10.939,11.53,9.901,21.503,8.254,16.523001,6.4127,33.657001,18.68,4.38,14.597,-0.65359,14.686
16.367001,31.872999,20.163,8.3092,5.2805,10.162,14.959,5.0886,6.4078,8.3092,5.2805,13.66,12.698,17.799,14.032,33.657001,20.612,-0.12882,15.229,4.5752,17.261999
11.311,22.349001,11.707,3.1562,-1.3201,4.9838,2.6016,4.4444,-0.06472,3.1562,-1.3201,3.2026,11.429,13.333,12.762,24.594999,15.459,3.7359,8.91,5.2288,14.042
8.1517,9.0159,4.5528,1.868,-2.6403,3.6893,-3.9024,5.7327,-1.3592,1.868,-2.6403,-2.0261,8.8889,8.2297,10.222,14.887,9.6618,5.6683,8.278,5.8824,8.8889
6.2559,1.3968,-2.6016,4.4444,0.0,3.6893,-6.5041,6.3768,0.58252,4.4444,0.0,-3.3333,5.0794,3.764,8.3175,6.4725,3.8647,0.5153,8.278,8.4967,6.9565
-1.9589,-1.7778,-8.4553,2.5121,-0.66007,1.7476,-6.5041,5.0886,0.58252,2.5121,-0.66007,-3.9869,-2.5397,-1.3397,-1.2063,-0.64725,-3.8647,1.8035,3.8547,1.3072,3.7359
-4.4866,-4.3175,-8.4553,1.2238,-3.3003,-0.84142,-5.8537,3.1562,-0.06472,1.2238,-3.3003,-3.3333,-6.3492,-5.8054,-4.381,-4.5307,-6.4412,0.5153,0.6951,-1.3072,-0.12882
1.8325,-4.3175,-1.9512,3.1562,1.3201,2.3948,-1.3008,3.1562,1.2298,3.1562,1.3201,2.549,-6.3492,-8.9952,-1.2063,-7.1197,-5.153,3.0918,-2.4645,3.268,-3.9936
15.103,-5.5873,5.8537,8.3092,7.2607,13.398,5.2033,5.7327,3.1715,8.3092,7.2607,11.699,-6.3492,-11.547,3.2381,-9.7087,-3.8647,8.2448,-4.9921,6.5359,-7.2142
27.740999,-1.7778,16.26,15.395,11.221,23.754,12.358,10.886,3.8188,15.395,11.221,21.503,-5.0794,-11.547,10.222,-8.4142,1.2882,7.6006,-6.8878,11.111,-9.1465
27.108999,3.3016,26.667,18.615,12.541,29.579,18.211,17.327,3.8188,18.615,12.541,29.346001,-0.63492,-7.0813,15.302,-2.589,9.6618,13.398,-5.624,14.379,-9.1465
19.525999,9.0159,31.219999,17.971001,13.861,26.99,20.813,16.039,5.1133,17.971001,13.861,30.0,3.1746,-0.70175,16.570999,6.4725,16.747,10.821,-1.2006,15.033,-5.9259
11.943,16.635,29.919001,14.106,13.201,18.576,19.511999,8.3092,5.1133,14.106,13.201,24.771,5.0794,5.6778,15.302,14.887,21.9,7.6006,1.327,10.458,-1.4171
4.9921,17.905001,22.764,7.0209,7.2607,8.8673,9.1057,1.2238,1.2298,7.0209,7.2607,13.007,7.619,11.419,13.397,22.653999,24.476999,5.0242,3.8547,7.1895,3.7359
1.2006,11.556,10.407,0.57971,0.0,-1.4887,-0.65041,-3.285,-2.0065,0.57971,0.0,1.8954,7.619,12.057,10.857,22.653999,19.968,-1.4171,3.2227,7.1895,7.6006
5.624,8.381,3.9024,-1.9968,1.3201,-4.7249,-3.252,-5.8615,0.58252,-1.9968,1.3201,-2.0261,6.9841,11.419,10.222,20.065001,14.171,-2.7053,7.0142,7.8431,10.821
-1.327,5.2063,-3.9024,-3.9291,2.6403,-7.9612,-3.9024,-8.438,1.2298,-3.9291,2.6403,-6.6013,4.4444,10.144,3.873,15.534,5.7971,1.1594,8.278,5.2288,12.11
-5.1185,3.3016,-10.407,-7.1498,0.0,-9.9029,-5.2033,-9.7262,1.2298,-7.1498,0.0,-9.2157,2.5397,11.419,-0.57143,12.298,0.64412,1.1594,8.91,2.6144,14.686
-5.1185,3.3016,-9.1057,-5.8615,-4.6205,-9.9029,-4.5528,-6.5056,-1.3592,-5.8615,-4.6205,-9.2157,3.8095,12.057,0.69841,11.003,0.0,-2.0612,8.278,5.2288,15.33
-9.5419,-1.7778,-7.8049,-7.1498,-8.5809,-9.2557,-7.8049,-4.5733,-4.5955,-7.1498,-8.5809,-9.2157,1.2698,9.5056,-3.1111,6.4725,-2.5765,1.8035,5.7504,0.0,12.754
-3.8547,-6.2222,-4.5528,-5.2174,-4.6205,-5.3722,-7.8049,-2.6409,-4.5955,-5.2174,-4.6205,-5.9477,1.2698,6.9537,-1.8413,2.589,-2.5765,3.0918,0.06319,-0.65359,7.6006
6.2559,-6.8571,-1.3008,-1.9968,-1.9802,1.1003,-5.8537,1.2238,-4.5955,-1.9968,-1.9802,-1.3725,3.8095,3.764,5.1429,-3.2362,-1.2882,5.6683,-4.3602,4.5752,1.8035
14.471,-10.032,3.9024,0.57971,-3.3003,6.2783,-3.252,6.3768,-7.1845,0.57971,-3.3003,3.2026,8.8889,1.8501,14.032,-7.767,3.8647,13.398,-6.2559,12.418,-3.9936
18.261999,-12.571,7.1545,1.2238,-9.2409,7.5728,-5.2033,10.242,-12.362,1.2238,-9.2409,1.2418,14.603,1.8501,22.285999,-8.4142,10.306,19.839001,-11.311,20.915001,-9.7907
14.471,-15.746,3.252,-1.3527,-12.541,2.3948,-9.1057,11.53,-15.599,-1.3527,-12.541,-5.2941,15.873,-0.70175,25.459999,-8.4142,13.527,22.415001,-19.525999,25.49,-16.875999
10.679,-13.206,1.9512,-3.285,-11.221,-0.19417,-9.1057,10.242,-14.951,-3.285,-11.221,-6.6013,13.968,-5.1675,22.921,-8.4142,13.527,22.415001,-22.054001,26.797001,-20.097
7.5197,-8.127,0.65041,-3.9291,-11.221,-0.19417,-7.8049,6.3768,-13.657,-3.9291,-11.221,-6.6013,6.9841,-10.271,14.667,-9.0615,7.7295,17.261999,-20.158001,22.875999,-20.740999
1.2006,-8.127,-3.9024,-3.9291,-9.2409,-1.4887,-5.8537,4.4444,-8.479,-3.9291,-9.2409,-5.2941,-1.2698,-14.737,3.2381,-11.003,-1.2882,9.533,-15.103,11.765,-18.808001
-15.229,-8.7619,-13.008,-0.70853,-6.6007,-2.7832,-5.8537,6.3768,-6.5372,-0.70853,-6.6007,-4.6405,-13.333,-21.115999,-12.635,-14.887,-12.882,6.9565,-12.575,-3.268,-18.808001
-20.284,-6.8571,-18.211,-2.6409,-5.9406,-6.6667,-6.5041,2.5121,-7.1845,-2.6409,-5.9406,-7.2549,-20.952,-24.306,-22.159,-18.122999,-22.544001,1.8035,-10.679,-11.111,-18.164
-15.861,-7.4921,-18.862,-5.8615,-9.2409,-9.2557,-9.1057,-1.9968,-7.8317,-5.8615,-9.2409,-11.176,-22.857,-22.392,-23.429001,-18.122999,-25.121,-4.6377,-5.624,-13.072,-12.367
-12.07,-11.302,-19.511999,-8.438,-12.541,-9.2557,-13.008,-3.285,-11.068,-8.438,-12.541,-15.098,-22.222,-19.202999,-21.524,-18.122999,-24.476999,-5.2818,-4.3602,-13.725,-8.5024
-3.8547,-15.111,-15.61,-7.7939,-9.2409,-9.2557,-15.61,-5.2174,-11.068,-7.7939,-9.2409,-15.752,-15.238,-13.461,-10.095,-16.181,-18.035,-7.8583,-4.3602,-5.2288,-5.2818
-3.8547,-15.746,-14.309,-7.7939,-9.2409,-10.55,-17.561001,-4.5733,-13.657,-7.7939,-9.2409,-15.752,-12.063,-10.909,-6.9206,-16.827999,-15.459,-5.2818,-5.624,-6.5359,-3.9936
-5.7504,-17.016001,-12.358,-7.7939,-11.881,-12.492,-18.211,-3.9291,-13.657,-7.7939,-11.881,-15.752,-10.794,-8.9952,-6.2857,-15.534,-12.882,-2.0612,-9.4155,-9.1503,-4.6377
1.8325,-10.032,-3.252,-8.438,-12.541,-9.2557,-14.309,-7.7939,-11.068,-8.438,-12.541,-12.484,-6.3492,-2.6156,-0.57143,-7.1197,-4.5089,-4.6377,-5.624,-7.1895,-0.12882
-2.5908,-5.5873,-1.3008,-10.37,-13.861,-11.197,-13.659,-9.0821,-9.7735,-10.37,-13.861,-13.137,-3.8095,1.8501,0.06349,-0.64725,0.64412,-5.9259,-1.8325,-5.2288,3.0918
-11.438,-3.0476,-2.6016,-10.37,-9.901,-11.845,-12.358,-6.5056,-7.1845,-10.37,-9.901,-13.791,-2.5397,5.6778,-3.1111,5.178,2.5765,-3.9936,0.6951,-6.5359,5.6683
-14.597,-1.1429,-7.1545,-9.0821,-5.2805,-9.9029,-9.7561,-5.2174,-3.301,-9.0821,-5.2805,-11.83,-4.4444,6.3158,-8.1905,6.4725,0.0,-7.2142,2.5908,-9.8039,8.2448
-11.438,-1.7778,-9.7561,-4.5733,-1.9802,-6.6667,-2.6016,-3.9291,0.58252,-4.5733,-1.9802,-5.9477,-7.619,3.126,-10.095,2.589,-4.5089,-10.435,3.8547,-7.1895,6.9565
-12.701,-1.7778,-9.1057,-0.70853,-0.66007,-4.7249,3.9024,-1.9968,3.8188,-0.70853,-0.66007,-0.71895,-12.698,-3.2536,-14.54,-5.178,-9.6618,-7.8583,3.2227,-11.111,3.7359
-12.701,-1.1429,-5.2033,0.57971,2.6403,-3.4304,6.5041,1.2238,3.8188,0.57971,2.6403,1.8954,-14.603,-7.0813,-15.81,-9.0615,-10.95,-3.9936,3.8547,-14.379,0.5153
-4.4866,5.2063,2.6016,0.57971,1.9802,-1.4887,7.8049,1.868,4.466,0.57971,1.9802,3.2026,-10.794,-4.5295,-10.73,-5.8252,-5.153,-4.6377,4.4866,-11.111,0.5153
-3.8547,3.3016,0.0,-1.9968,-0.66007,-2.7832,1.3008,-0.70853,3.8188,-1.9968,-0.66007,-2.0261,-7.619,-0.0638,-8.8254,-1.2945,-2.5765,-2.7053,3.2227,-10.458,1.1594
3.0964,2.0317,0.65041,0.57971,2.6403,0.45307,-0.65041,1.2238,4.466,0.57971,2.6403,-2.0261,0.0,6.9537,-3.1111,6.4725,3.2206,-0.12882,8.91,-6.5359,4.38
17.629999,7.1111,7.1545,2.5121,1.9802,6.9256,0.65041,2.5121,3.8188,2.5121,1.9802,1.8954,8.8889,13.333,8.9524,16.181,12.882,0.5153,11.438,0.0,6.9565
14.471,8.381,9.1057,-0.70853,-0.66007,4.3366,0.0,3.1562,0.58252,-0.70853,-0.66007,1.2418,15.873,15.885,15.937,20.065001,17.391001,5.0242,7.6461,9.1503,8.2448
11.943,7.746,10.407,-1.3527,-1.9802,2.3948,-1.3008,2.5121,-0.06472,-1.3527,-1.9802,0.58824,16.507999,15.247,15.937,19.417,16.747,5.6683,7.0142,5.2288,10.177
12.575,3.9365,11.057,1.868,-3.3003,3.6893,-1.3008,4.4444,-1.3592,1.868,-3.3003,1.8954,13.968,12.057,12.762,13.592,12.882,4.38,5.1185,1.3072,10.177
7.5197,2.0317,9.1057,3.1562,-2.6403,3.6893,0.0,3.8003,-2.0065,3.1562,-2.6403,4.5098,10.794,10.781,8.9524,9.7087,8.3736,1.8035,4.4866,2.6144,10.177
4.9921,5.2063,9.1057,2.5121,-1.3201,4.9838,4.5528,1.868,-1.3592,2.5121,-1.3201,7.1242,5.7143,8.2297,2.6032,7.1197,3.8647,-2.0612,5.7504,0.0,11.465
5.624,6.4762,7.1545,3.8003,-0.66007,6.2783,4.5528,1.868,-0.71197,3.8003,-0.66007,7.1242,1.9048,5.6778,-1.8413,5.8252,0.64412,-5.9259,5.7504,-1.3072,11.465
1.2006,5.8413,5.8537,1.2238,-1.9802,4.9838,5.2033,-0.06441,0.58252,1.2238,-1.9802,6.4706,-2.5397,3.126,-7.5556,5.8252,-1.2882,-2.0612,5.1185,-3.268,10.177
-2.5908,2.6667,2.6016,-1.3527,-3.9604,1.1003,1.3008,-0.06441,-0.71197,-1.3527,-3.9604,1.8954,-8.254,-0.70175,-11.365,1.9417,-4.5089,-2.7053,4.4866,-5.8824,6.3124
0.56872,0.7619,-1.3008,-1.3527,-5.2805,-0.19417,-1.3008,-3.9291,-2.0065,-1.3527,-5.2805,-1.3725,-8.8889,-1.9777,-8.8254,-0.64725,-5.153,-6.57,4.4866,-4.5752,3.7359
-5.7504,-6.2222,-9.7561,-1.3527,-4.6205,-0.84142,-3.9024,-0.70853,-2.6537,-1.3527,-4.6205,-4.6405,-11.429,-5.8054,-13.27,-7.1197,-10.306,-3.3494,0.06319,-9.1503,-0.77295
-8.278,-7.4921,-11.707,0.57971,-2.6403,-0.84142,-2.6016,3.8003,-1.3592,0.57971,-2.6403,-3.9869,-12.063,-8.3573,-12.635,-11.003,-12.238,-0.77295,-2.4645,-9.1503,-4.6377
0.56872,-4.3175,-4.5528,-0.70853,-2.6403,1.7476,0.0,1.2238,-2.0065,-0.70853,-2.6403,-1.3725,-10.794,-8.9952,-5.6508,-9.7087,-9.0177,-0.77295,-2.4645,-5.8824,-4.6377
3.0964,-5.5873,-1.9512,-4.5733,-6.6007,-1.4887,-1.9512,1.2238,-3.9482,-4.5733,-6.6007,-4.6405,-10.794,-11.547,-1.8413,-10.356,-7.7295,-0.12882,-1.8325,-6.5359,-6.57
7.5197,-5.5873,0.0,-2.6409,-7.9208,-1.4887,-2.6016,3.8003,-3.301,-2.6409,-7.9208,-5.2941,-8.254,-10.909,3.873,-9.0615,-5.153,-0.12882,-1.8325,-3.9216,-7.2142
8.1517,-1.1429,-3.252,-1.9968,-7.2607,-1.4887,-2.6016,1.868,-3.301,-1.9968,-7.2607,-5.2941,-6.3492,-10.271,5.1429,-7.767,-3.8647,-0.77295,-2.4645,-3.9216,-7.2142
1.2006,1.3968,-10.407,-0.70853,-5.9406,-4.0777,-1.3008,1.2238,-2.0065,-0.70853,-5.9406,-5.2941,-5.0794,-7.0813,1.3333,-5.8252,-5.153,1.1594,0.06319,-5.2288,-3.9936
1.2006,4.5714,-9.7561,-0.70853,-2.6403,-2.7832,0.65041,-1.3527,1.877,-0.70853,-2.6403,-3.9869,0.0,-0.70175,1.3333,0.0,-1.2882,-1.4171,5.7504,-0.65359,1.8035
-0.6951,4.5714,-6.5041,-1.3527,-0.66007,-4.7249,1.3008,-0.70853,1.877,-1.3527,-0.66007,-4.6405,-0.63492,2.488,-3.1111,3.2362,-0.64412,-3.9936,8.91,-4.5752,5.6683
-6.3823,4.5714,-5.2033,-0.06441,-1.3201,-3.4304,0.65041,1.2238,0.58252,-0.06441,-1.3201,-3.3333,-3.8095,3.126,-11.365,3.8835,-2.5765,-0.12882,7.6461,-8.4967,6.3124
-8.278,3.3016,-0.65041,4.4444,0.66007,2.3948,3.9024,10.242,-0.71197,4.4444,0.66007,2.549,-5.7143,2.488,-13.905,1.9417,-4.5089,2.4477,4.4866,-8.4967,5.0242
-2.5908,4.5714,6.5041,9.5974,1.3201,9.5146,8.4553,15.395,-2.0065,9.5974,1.3201,10.392,-8.8889,-1.3397,-14.54,-1.9417,-5.7971,4.38,0.6951,-8.4967,1.1594
8.1517,0.12698,11.057,12.174,5.2805,15.987,11.707,14.106,-0.71197,12.174,5.2805,17.582001,-12.698,-5.1675,-12.0,-4.5307,-6.4412,3.7359,-3.7283,-6.5359,-2.0612
13.839,-2.4127,9.1057,11.53,5.9406,14.693,9.7561,12.174,-0.06472,11.53,5.9406,16.275,-14.603,-6.4434,-8.8254,-4.5307,-6.4412,-2.0612,-1.8325,-5.8824,-2.0612
13.207,-3.0476,3.9024,8.3092,0.66007,9.5146,5.2033,8.3092,-2.0065,8.3092,0.66007,9.7386,-15.238,-7.0813,-8.1905,-4.5307,-7.0853,0.5153,-0.56872,-9.1503,-0.77295
10.047,-5.5873,-1.3008,3.8003,-5.9406,3.0421,-2.6016,5.0886,-5.2427,3.8003,-5.9406,0.58824,-13.333,-7.0813,-6.9206,-5.8252,-7.0853,3.7359,-3.0964,-9.8039,-3.3494
10.679,-5.5873,-2.6016,2.5121,-5.9406,-2.1359,-3.9024,1.868,-5.89,2.5121,-5.9406,-3.3333,-7.619,-5.1675,-1.8413,-6.4725,-4.5089,-0.12882,-4.9921,-5.8824,-3.3494
9.4155,-4.9524,-3.252,-1.9968,-5.2805,-3.4304,-3.9024,-0.70853,-5.2427,-1.9968,-5.2805,-4.6405,-0.63492,-2.6156,1.3333,-5.8252,-2.5765,-1.4171,-4.9921,-2.6144,-2.7053
3.0964,-4.3175,-4.5528,-3.285,-4.6205,-5.3722,-4.5528,-1.3527,-6.5372,-3.285,-4.6205,-5.9477,3.8095,1.2121,0.69841,-3.8835,-1.2882,-0.77295,-3.7283,-1.9608,-2.0612
4.9921,0.12698,-1.3008,-2.6409,-7.9208,-4.7249,-4.5528,-2.6409,-7.1845,-2.6409,-7.9208,-4.6405,10.159,8.2297,4.5079,4.5307,5.153,-0.12882,-1.8325,2.6144,0.5153
6.8878,2.0317,4.5528,-0.06441,-8.5809,-0.84142,-3.9024,0.57971,-7.1845,-0.06441,-8.5809,-1.3725,13.968,12.695,8.3175,11.003,11.594,-1.4171,-1.8325,7.1895,1.8035
9.4155,4.5714,10.407,0.57971,-5.2805,2.3948,0.0,3.8003,-5.89,0.57971,-5.2805,2.549,17.143,15.247,11.492,14.887,16.103001,0.5153,-0.56872,7.8431,3.0918
14.471,5.8413,11.707,1.2238,-3.3003,6.2783,3.252,5.0886,-5.2427,1.2238,-3.3003,5.817,20.316999,17.160999,14.667,14.239,18.035,4.38,-0.56872,8.4967,3.0918
16.997999,1.3968,8.4553,2.5121,-2.6403,5.6311,4.5528,7.0209,-5.2427,2.5121,-2.6403,5.1634,20.952,17.160999,18.476,9.0615,16.103001,3.7359,-0.56872,11.765,1.8035
18.261999,0.7619,8.4553,1.2238,-3.9604,4.3366,4.5528,6.3768,-4.5955,1.2238,-3.9604,4.5098,21.587,15.885,19.746,7.767,15.459,6.9565,-1.8325,15.033,0.5153
10.047,0.12698,7.8049,-2.6409,-8.5809,-0.19417,-1.3008,3.8003,-7.1845,-2.6409,-8.5809,-0.71895,20.952,14.609,15.937,8.4142,14.171,10.177,-2.4645,15.033,1.8035
5.624,0.7619,4.5528,-5.2174,-13.201,-5.3722,-10.407,2.5121,-10.421,-5.2174,-13.201,-9.8693,19.048,14.609,13.397,11.003,12.882,3.0918,-0.56872,16.34,5.6683
-7.6461,-4.3175,-8.4553,-9.0821,-20.462,-15.081,-20.813,-3.285,-14.304,-9.0821,-20.462,-21.634001,12.063,9.5056,3.873,8.4142,5.7971,-0.12882,-1.8325,8.4967,5.0242
-17.125,-12.571,-22.764,-11.659,-23.761999,-18.964001,-27.316999,-8.438,-16.246,-11.659,-23.761999,-27.516001,4.4444,3.126,-5.0159,1.2945,-4.5089,-0.77295,-3.0964,1.3072,3.0918
-22.812,-16.381001,-30.569,-9.0821,-19.142,-16.375,-25.365999,-3.9291,-14.304,-9.0821,-19.142,-26.209,-1.9048,-3.8915,-12.635,-7.1197,-14.815,-2.0612,-5.624,-2.6144,0.5153
-22.18,-15.746,-33.820999,-4.5733,-13.201,-9.9029,-19.511999,2.5121,-11.068,-4.5733,-13.201,-19.673,-10.794,-11.547,-21.524,-16.181,-26.409,-3.9936,-7.5197,-6.5359,-2.7053
-20.284,-13.841,-29.919001,-0.06441,-6.6007,-5.3722,-11.707,5.7327,-7.8317,-0.06441,-6.6007,-10.523,-17.778,-16.650999,-28.507999,-21.358999,-32.206001,-5.2818,-4.3602,-12.418,-4.6377
-13.333,-11.937,-19.511999,1.868,-5.9406,-1.4887,-7.8049,7.6651,-7.1845,1.868,-5.9406,-3.9869,-19.683001,-17.289,-25.968,-22.653999,-28.986,-8.5024,-1.8325,-13.072,-4.6377
-7.0142,-11.937,-7.1545,3.1562,-7.2607,1.7476,-5.8537,8.3092,-9.7735,3.1562,-7.2607,-0.06536,-16.507999,-15.375,-16.444,-20.712,-19.323999,-3.3494,-4.3602,-7.1895,-7.2142
-0.6951,-4.9524,3.9024,5.0886,-4.6205,3.6893,-1.9512,7.6651,-9.7735,5.0886,-4.6205,3.8562,-10.159,-11.547,-4.381,-12.945,-5.7971,2.4477,-6.2559,-6.5359,-6.57
6.8878,-0.50794,11.707,5.7327,-4.6205,5.6311,0.65041,10.242,-10.421,5.7327,-4.6205,6.4706,-1.9048,-6.4434,8.3175,-5.8252,6.4412,5.0242,-6.2559,-3.9216,-3.9936
13.839,-2.4127,16.26,8.3092,-1.9802,9.5146,2.6016,13.462,-8.479,8.3092,-1.9802,10.392,5.0794,-2.6156,18.476,-1.9417,13.527,8.8889,-5.624,3.9216,-3.9936
23.318001,0.12698,22.114,10.242,1.9802,14.693,7.1545,12.174,-3.9482,10.242,1.9802,14.314,8.8889,0.57416,24.190001,1.2945,16.747,6.9565,-4.3602,9.1503,-3.9936
24.580999,7.746,24.715,10.886,3.9604,15.987,13.008,9.5974,-0.06472,10.886,3.9604,16.927999,9.5238,3.764,21.650999,6.4725,18.035,5.0242,0.6951,7.8431,-1.4171
13.207,12.19,22.114,12.818,3.9604,14.045,14.959,12.174,3.1715,12.818,3.9604,15.621,8.254,5.6778,15.302,9.7087,16.103001,8.2448,5.1185,6.5359,0.5153
6.8878,13.46,19.511999,12.818,5.9406,12.751,15.61,13.462,3.8188,12.818,5.9406,14.967,7.619,5.6778,13.397,9.7087,14.815,10.177,3.8547,7.8431,-0.77295
6.2559,12.825,16.910999,9.5974,5.2805,12.104,14.959,9.5974,3.8188,9.5974,5.2805,14.314,5.0794,2.488,11.492,7.767,12.882,6.3124,1.9589,5.2288,-2.7053
-0.06319,10.286,11.707,8.9533,4.6205,10.809,13.659,11.53,3.8188,8.9533,4.6205,13.66,1.9048,-1.3397,6.4127,3.8835,7.7295,5.6683,0.06319,3.268,-4.6377
-3.2227,10.286,5.8537,13.462,8.5809,12.104,12.358,11.53,5.1133,13.462,8.5809,13.007,0.63492,-3.2536,3.2381,0.64725,2.5765,6.3124,0.06319,3.9216,-5.2818
-6.3823,1.3968,-8.4553,10.886,5.9406,6.2783,4.5528,7.6651,1.877,10.886,5.9406,4.5098,-1.9048,-7.0813,-1.8413,-6.4725,-6.4412,6.3124,-1.2006,4.5752,-6.57
-14.597,-13.206,-27.316999,3.8003,0.0,-3.4304,-9.1057,6.3768,-3.9482,3.8003,0.0,-8.5621,-7.619,-14.099,-9.4603,-17.476,-20.612,3.7359,-8.7836,2.6144,-12.367
-13.965,-16.381001,-27.966999,2.5121,-1.3201,-4.7249,-11.057,5.7327,-5.2427,2.5121,-1.3201,-10.523,-10.159,-16.013,-10.73,-19.417,-22.544001,1.1594,-8.1517,1.9608,-12.367
-2.5908,-11.302,-14.309,5.0886,-0.66007,0.45307,-6.5041,5.7327,-3.301,5.0886,-0.66007,-5.2941,-11.429,-13.461,-6.9206,-14.887,-16.103001,-2.7053,-3.7283,-1.3072,-8.5024
4.3602,-4.9524,1.3008,3.8003,-0.66007,3.6893,-1.3008,3.8003,-2.6537,3.8003,-0.66007,0.58824,-8.254,-5.8054,-1.8413,-5.8252,-5.153,-0.12882,-1.8325,-3.268,-4.6377
-0.06319,-1.7778,8.4553,-0.70853,-4.6205,-0.84142,-2.6016,2.5121,-7.1845,-0.70853,-4.6205,-0.71895,-1.9048,3.126,4.5079,4.5307,5.7971,-0.12882,-3.0964,-0.65359,-0.12882
-1.9589,0.12698,11.707,-4.5733,-8.5809,-4.0777,-6.5041,3.1562,-11.068,-4.5733,-8.5809,-3.9869,6.3492,12.057,10.857,14.239,15.459,-1.4171,-2.4645,1.3072,4.38
4.9921,9.0159,16.910999,-3.9291,-13.201,-2.1359,-5.8537,1.2238,-11.715,-3.9291,-13.201,-3.3333,15.238,20.989,15.302,24.594999,23.833,-1.4171,1.327,4.5752,10.177
-0.6951,10.286,13.659,-5.8615,-14.521,-5.3722,-7.1545,-0.70853,-10.421,-5.8615,-14.521,-5.9477,17.143,21.627001,11.492,27.184,23.833,-2.0612,6.3823,5.8824,12.754
-6.3823,12.19,7.8049,-9.0821,-11.221,-7.3139,-5.2033,-5.2174,-5.89,-9.0821,-11.221,-6.6013,15.238,19.075001,7.6825,22.653999,18.68,-5.9259,9.5419,7.1895,12.754
-6.3823,9.0159,3.252,-7.1498,-8.5809,-6.0194,-2.6016,-3.9291,-2.0065,-7.1498,-8.5809,-5.2941,12.063,13.333,5.1429,13.592,12.238,-5.9259,8.91,5.8824,8.8889
-5.1185,4.5714,3.252,-5.2174,-5.2805,-2.7832,0.65041,-2.6409,1.2298,-5.2174,-5.2805,-1.3725,6.3492,6.3158,1.3333,2.589,6.4412,-3.3494,5.1185,3.268,3.0918
-8.91,0.7619,1.9512,-2.6409,-5.9406,1.1003,0.65041,-0.06441,1.2298,-2.6409,-5.9406,0.58824,-1.2698,-3.2536,-5.0159,-8.4142,-1.9324,-0.77295,-2.4645,1.9608,-3.9936
-11.438,-4.9524,-2.6016,-0.70853,-6.6007,1.7476,-3.252,4.4444,-2.6537,-0.70853,-6.6007,-2.0261,-6.9841,-11.547,-10.73,-16.181,-10.306,-2.7053,-4.3602,0.0,-9.1465
-12.07,-7.4921,-9.1057,-3.285,-9.2409,-0.19417,-7.1545,5.0886,-6.5372,-3.285,-9.2409,-4.6405,-12.063,-16.013,-13.905,-21.358999,-17.391001,-0.77295,-4.9921,-1.9608,-11.079
-10.806,-11.937,-16.26,-3.285,-7.9208,-0.19417,-7.8049,5.0886,-5.89,-3.285,-7.9208,-5.9477,-15.873,-19.202999,-15.175,-25.889999,-24.476999,2.4477,-7.5197,-4.5752,-13.011
-8.91,-15.111,-22.114,-6.5056,-9.901,-3.4304,-11.057,2.5121,-5.89,-6.5056,-9.901,-8.5621,-18.413,-20.478001,-14.54,-27.184,-28.341,1.8035,-8.7836,-7.1895,-14.3
-5.1185,-10.667,-18.862,-6.5056,-11.881,-4.0777,-9.7561,1.2238,-7.1845,-6.5056,-11.881,-8.5621,-16.507999,-16.650999,-12.0,-18.122999,-23.833,-0.12882,-6.8878,-6.5359,-9.1465
4.3602,-5.5873,-11.707,-7.1498,-9.901,-1.4887,-8.4553,-0.70853,-6.5372,-7.1498,-9.901,-6.6013,-10.794,-8.3573,-5.6508,-4.5307,-14.815,-2.7053,-1.2006,-2.6144,-1.4171
-5.1185,-2.4127,-9.1057,-7.1498,-8.5809,-3.4304,-7.1545,-1.3527,-6.5372,-7.1498,-8.5809,-5.9477,-4.4444,-1.9777,-5.0159,3.2362,-8.3736,1.8035,-1.2006,-1.9608,2.4477
-8.278,-1.1429,-4.5528,-3.285,-4.6205,-2.7832,-5.8537,4.4444,-5.89,-3.285,-4.6205,-4.6405,5.7143,3.764,2.6032,8.4142,0.64412,3.0918,-2.4645,6.5359,3.7359
2.4645,0.12698,2.6016,-0.70853,-0.66007,-0.84142,-1.9512,1.868,-3.9482,-0.70853,-0.66007,-0.71895,13.968,6.9537,10.857,9.7087,9.0177,3.0918,-2.4645,9.1503,3.7359
1.8325,5.2063,6.5041,0.57971,0.66007,1.1003,1.3008,-0.06441,-3.301,0.57971,0.66007,2.549,17.143,8.2297,12.127,9.7087,12.238,6.9565,-5.624,9.1503,2.4477
-1.327,4.5714,9.1057,3.8003,3.9604,1.7476,3.9024,1.868,0.58252,3.8003,3.9604,5.1634,17.143,9.5056,12.127,9.7087,14.171,6.3124,-2.4645,11.765,1.8035
-0.06319,3.9365,10.407,4.4444,6.6007,4.9838,5.8537,-2.6409,3.8188,4.4444,6.6007,7.7778,15.873,9.5056,10.222,10.356,14.815,2.4477,1.327,11.765,2.4477
-0.6951,3.9365,7.1545,1.2238,8.5809,3.6893,5.8537,-4.5733,6.4078,1.2238,8.5809,5.817,11.429,5.6778,7.0476,8.4142,12.238,-0.77295,0.6951,7.8431,1.1594
4.9921,0.12698,4.5528,4.4444,11.221,4.9838,6.5041,-0.70853,8.3495,4.4444,11.221,6.4706,9.5238,3.764,8.9524,3.2362,10.95,-3.9936,0.06319,8.4967,-1.4171
4.3602,-4.3175,1.3008,5.7327,11.221,5.6311,7.1545,0.57971,9.644,5.7327,11.221,5.817,5.7143,0.57416,6.4127,-3.8835,6.4412,1.1594,-1.2006,5.2288,-5.2818
-0.6951,-3.6825,2.6016,7.0209,13.201,5.6311,9.7561,1.2238,9.644,7.0209,13.201,7.7778,1.9048,-0.70175,1.9683,-7.1197,2.5765,5.6683,-3.0964,1.3072,-7.2142
1.2006,-1.1429,5.2033,5.7327,14.521,3.6893,10.407,-1.9968,10.939,5.7327,14.521,7.1242,0.0,-0.0638,3.2381,-5.8252,3.2206,1.1594,-2.4645,1.3072,-5.2818
-0.06319,5.2063,4.5528,5.7327,13.861,1.7476,8.4553,-2.6409,8.3495,5.7327,13.861,5.1634,-3.8095,0.57416,1.3333,-1.2945,3.2206,0.5153,0.06319,-3.9216,-2.7053
-5.7504,-1.7778,-2.6016,3.8003,9.901,-0.84142,-0.65041,-1.9968,5.1133,3.8003,9.901,-0.06536,-8.8889,0.57416,-3.746,-1.2945,-1.2882,-0.77295,-3.7283,-9.1503,-1.4171
-1.9589,-4.9524,-4.5528,6.3768,6.6007,2.3948,-2.6016,-0.06441,3.1715,6.3768,6.6007,0.58824,-8.8889,0.57416,-2.4762,-1.2945,-4.5089,-3.9936,-0.56872,-8.4967,2.4477
-0.06319,-1.1429,-2.6016,5.0886,6.6007,3.6893,-1.3008,-1.3527,1.877,5.0886,6.6007,1.8954,-7.619,-0.0638,-3.1111,0.0,-5.7971,-1.4171,1.9589,-10.458,3.0918
4.9921,3.9365,3.9024,6.3768,9.901,5.6311,2.6016,-0.06441,2.5243,6.3768,9.901,5.1634,-1.2698,3.764,0.69841,5.8252,-0.64412,-0.77295,1.327,-6.5359,5.6683
4.9921,10.921,11.057,5.7327,9.901,4.9838,5.2033,-2.6409,3.1715,5.7327,9.901,5.817,6.9841,8.8676,5.1429,12.945,6.4412,-0.77295,1.9589,0.0,9.533
-1.327,12.825,11.057,0.57971,8.5809,0.45307,3.252,-7.7939,3.1715,0.57971,8.5809,3.2026,10.794,12.057,3.873,16.827999,9.6618,-2.0612,3.8547,0.65359,12.11
-2.5908,10.921,5.2033,0.57971,8.5809,-2.1359,2.6016,-9.0821,5.7605,0.57971,8.5809,1.2418,12.698,11.419,3.873,16.181,9.0177,-5.9259,8.91,3.268,13.398
6.2559,12.19,5.2033,5.7327,13.861,5.6311,8.4553,-7.7939,10.291,5.7327,13.861,5.1634,15.873,10.781,11.492,11.003,9.6618,-8.5024,9.5419,13.072,11.465
-5.7504,3.3016,-1.3008,3.8003,15.182,0.45307,7.8049,-7.7939,12.88,3.8003,15.182,2.549,11.429,3.764,5.7778,0.0,3.2206,-0.77295,3.8547,10.458,5.0242
-13.333,-8.7619,-5.2033,-1.3527,11.221,-8.6084,1.3008,-12.303,11.586,-1.3527,11.221,-4.6405,6.3492,-3.2536,1.3333,-9.7087,-1.9324,0.5153,-0.56872,7.8431,-1.4171
-5.7504,-12.571,1.3008,-3.9291,7.2607,-9.2557,-1.9512,-12.947,7.055,-3.9291,7.2607,-5.9477,8.8889,-3.2536,7.6825,-11.003,1.9324,-0.12882,-5.624,14.379,-5.2818
5.624,-9.3968,10.407,-3.285,5.2805,-5.3722,-3.252,-9.7262,4.466,-3.285,5.2805,-4.6405,15.238,-0.0638,17.841,-5.178,10.95,1.8035,-3.0964,22.222,-3.9936
8.7836,-3.6825,6.5041,-2.6409,5.9406,-4.7249,-2.6016,-11.014,4.466,-2.6409,5.9406,-4.6405,15.873,-0.70175,19.111,-1.9417,11.594,2.4477,-1.8325,19.608,-4.6377
-2.5908,1.3968,-1.9512,-1.3527,9.2409,-6.6667,-1.3008,-10.37,6.4078,-1.3527,9.2409,-4.6405,12.063,-3.8915,10.857,-3.2362,5.7971,1.8035,-1.2006,10.458,-7.8583
-3.2227,3.3016,-1.3008,3.1562,12.541,-2.7832,2.6016,-9.0821,8.9968,3.1562,12.541,-0.06536,8.254,-6.4434,5.7778,-5.178,1.9324,-2.0612,-1.8325,6.5359,-9.1465
-4.4866,3.3016,1.3008,3.1562,9.2409,-0.84142,3.9024,-7.7939,8.9968,3.1562,9.2409,1.8954,2.5397,-7.7193,-1.2063,-6.4725,-2.5765,-3.9936,-3.0964,-0.65359,-10.435
-7.6461,2.6667,0.0,3.8003,9.2409,-1.4887,4.5528,-8.438,8.3495,3.8003,9.2409,1.8954,-3.8095,-6.4434,-11.365,-5.178,-7.0853,-7.2142,-4.9921,-9.8039,-7.2142
-9.5419,2.6667,-2.6016,5.7327,12.541,1.1003,5.2033,-6.5056,8.3495,5.7327,12.541,3.8562,-8.8889,-3.8915,-18.349001,-3.2362,-11.594,-11.723,-1.2006,-16.34,-2.0612
-15.229,0.7619,-5.2033,8.3092,15.842,5.6311,7.8049,0.57971,9.644,8.3092,15.842,7.1242,-15.238,-3.2536,-25.968,-4.5307,-18.035,-8.5024,2.5908,-23.528999,0.5153
-10.806,2.6667,-1.3008,10.242,17.822001,10.809,13.008,3.8003,12.88,10.242,17.822001,13.007,-17.778,-1.3397,-24.698,-4.5307,-19.323999,-8.5024,5.7504,-22.222,5.0242
-3.2227,3.9365,2.6016,9.5974,15.182,10.162,16.26,1.868,14.175,9.5974,15.182,14.967,-20.952,0.57416,-22.159,-5.8252,-18.68,-9.1465,7.6461,-22.222,7.6006
-4.4866,3.3016,1.9512,5.7327,11.221,4.3366,13.659,0.57971,10.939,5.7327,11.221,10.392,-20.952,-0.0638,-17.079,-7.1197,-16.103001,-5.2818,5.1185,-18.301001,6.3124
-1.327,-1.7778,-0.65041,1.868,9.901,1.1003,10.407,-0.06441,8.3495,1.868,9.901,5.817,-15.873,-1.3397,-7.5556,-6.4725,-11.594,-0.12882,1.327,-7.1895,3.7359
1.8325,-3.0476,-5.8537,0.57971,5.9406,-1.4887,7.1545,-0.06441,5.1133,0.57971,5.9406,1.8954,-5.7143,1.2121,3.2381,-1.2945,-4.5089,6.9565,-3.0964,9.1503,3.0918
6.2559,-3.0476,-9.7561,-3.9291,1.3201,-1.4887,0.65041,-3.9291,-0.06472,-3.9291,1.3201,-2.6797,4.4444,5.0399,8.9524,3.8835,0.64412,14.686,-3.7283,18.954,1.8035
10.047,-1.1429,-5.8537,-7.7939,-1.9802,-2.1359,-2.6016,-4.5733,-3.9482,-7.7939,-1.9802,-4.6405,11.429,8.8676,12.762,9.0615,6.4412,14.686,-3.0964,22.222,0.5153
3.7283,3.3016,0.0,-10.37,-3.9604,-4.7249,-4.5528,-5.2174,-5.2427,-10.37,-3.9604,-5.9477,15.238,10.144,12.127,13.592,10.95,13.398,-4.3602,22.222,0.5153
-0.06319,7.746,4.5528,-12.303,-4.6205,-7.9612,-5.2033,-5.8615,-4.5955,-12.303,-4.6205,-6.6013,16.507999,12.695,12.127,16.827999,15.459,8.2448,-0.56872,16.34,3.0918
2.4645,10.286,9.1057,-11.014,-5.9406,-6.6667,-3.252,-9.7262,-2.6537,-11.014,-5.9406,-5.2941,17.778,14.609,14.667,18.77,20.612,0.5153,1.9589,12.418,4.38
-4.4866,3.3016,7.8049,-5.8615,-1.3201,-4.0777,1.3008,-5.2174,2.5243,-5.8615,-1.3201,-0.71895,15.238,10.144,10.222,11.65,18.035,0.5153,1.327,8.4967,0.5153
-4.4866,3.9365,9.7561,1.868,7.9208,3.6893,10.407,1.2238,10.939,1.868,7.9208,7.7778,11.429,6.3158,5.7778,5.8252,14.171,-3.9936,0.6951,0.0,-2.7053
2.4645,10.286,14.309,9.5974,17.162001,14.045,20.813,6.3768,16.764,9.5974,17.162001,18.889,8.8889,4.4019,2.6032,2.589,10.95,-1.4171,6.3823,-6.5359,-2.7053
3.7283,10.286,13.008,10.886,17.162001,15.34,20.813,8.3092,16.764,10.886,17.162001,20.195999,3.1746,-0.0638,0.06349,-1.9417,3.8647,2.4477,7.6461,-7.1895,-3.9936
9.4155,10.921,11.707,10.242,15.842,13.398,18.211,5.7327,16.117001,10.242,15.842,17.582001,-1.9048,-3.2536,1.3333,-1.2945,0.0,-0.12882,7.6461,-7.1895,-3.3494
4.3602,7.1111,1.3008,3.8003,8.5809,4.9838,8.4553,2.5121,12.88,3.8003,8.5809,5.1634,-13.968,-10.271,-5.0159,-3.8835,-9.6618,-3.3494,7.0142,-14.379,-3.9936
3.0964,5.8413,-5.2033,-3.9291,3.9604,-2.7832,2.6016,-1.9968,11.586,-3.9291,3.9604,-3.3333,-25.396999,-16.650999,-7.5556,-6.4725,-14.815,-10.435,8.278,-14.379,-3.9936
3.7283,7.1111,-6.5041,-5.2174,1.3201,-6.6667,0.65041,-7.1498,8.9968,-5.2174,1.3201,-5.9477,-35.556,-24.306,-12.0,-11.003,-18.68,-11.079,6.3823,-19.608,-3.9936
-5.7504,2.6667,-8.4553,-4.5733,0.0,-8.6084,0.0,-4.5733,7.055,-4.5733,0.0,-6.6013,-41.904999,-27.496,-17.079,-14.887,-21.256001,-5.2818,1.9589,-22.875999,-5.9259
-0.06319,-1.1429,-5.2033,-4.5733,1.9802,-3.4304,-0.65041,-3.9291,6.4078,-4.5733,1.9802,-3.3333,-40.0,-24.944,-15.175,-13.592,-17.391001,-5.9259,3.8547,-18.954,-5.2818
2.4645,1.3968,0.0,-2.6409,1.3201,-2.1359,-1.3008,-3.285,5.1133,-2.6409,1.3201,-1.3725,-31.111,-16.013,-11.365,-7.1197,-9.0177,-3.3494,5.7504,-15.033,-2.0612
1.2006,5.2063,7.8049,-0.70853,0.66007,-2.1359,-0.65041,-2.6409,3.8188,-0.70853,0.66007,-0.06536,-16.507999,-4.5295,-5.0159,3.2362,3.2206,0.5153,3.8547,-7.1895,0.5153
3.7283,7.1111,14.309,-2.6409,1.9802,-0.84142,1.9512,-3.9291,3.8188,-2.6409,1.9802,3.2026,-2.5397,5.6778,3.2381,9.0615,13.527,-3.9936,3.2227,0.65359,4.38
0.56872,5.2063,11.707,-3.285,3.3003,-0.19417,4.5528,-6.5056,3.8188,-3.285,3.3003,5.1634,3.8095,10.781,2.6032,7.767,14.171,-4.6377,4.4866,-2.6144,6.3124
-2.5908,3.3016,4.5528,-0.70853,3.9604,0.45307,6.5041,-6.5056,6.4078,-0.70853,3.9604,5.817,6.3492,10.144,0.06349,2.589,9.6618,-5.2818,5.1185,-1.9608,6.9565
-10.806,-4.3175,-6.5041,-0.06441,3.3003,-4.0777,3.9024,-7.1498,4.466,-0.06441,3.3003,1.2418,5.7143,6.9537,-5.0159,-5.178,0.64412,-7.2142,2.5908,-1.9608,4.38
-3.8547,-6.2222,-9.1057,-3.285,0.66007,-5.3722,-0.65041,-9.7262,3.1715,-3.285,0.66007,-2.6797,6.9841,6.3158,-4.381,-5.178,-2.5765,-9.7907,0.6951,0.0,5.0242
-2.5908,-4.3175,-9.7561,-4.5733,-2.6403,-6.6667,-5.8537,-9.7262,-0.71197,-4.5733,-2.6403,-6.6013,8.8889,8.8676,-5.0159,-0.64725,-2.5765,-11.079,3.2227,0.0,8.2448
-9.5419,-4.3175,-9.7561,-7.1498,-3.9604,-11.845,-9.7561,-6.5056,-3.301,-7.1498,-3.9604,-11.176,10.159,10.144,-4.381,3.2362,-1.9324,-7.2142,3.8547,2.6144,8.2448
-9.5419,-0.50794,-7.8049,-11.659,-11.221,-15.081,-11.707,-7.7939,-8.479,-11.659,-11.221,-13.137,9.5238,8.8676,-3.1111,5.178,0.0,-0.12882,0.06319,1.3072,6.3124
-5.1185,2.6667,-3.9024,-9.7262,-7.9208,-13.139,-8.4553,-9.0821,-4.5955,-9.7262,-7.9208,-10.523,6.9841,6.9537,-0.57143,5.8252,0.64412,-0.77295,0.6951,-1.9608,5.0242
2.4645,2.6667,0.0,-9.0821,-1.9802,-9.9029,-3.9024,-11.659,-0.06472,-9.0821,-1.9802,-5.9477,4.4444,5.6778,2.6032,7.1197,2.5765,-3.3494,4.4866,-1.3072,6.3124
2.4645,0.7619,0.0,-5.8615,0.0,-7.3139,-3.9024,-7.1498,1.2298,-5.8615,0.0,-4.6405,3.1746,5.6778,3.2381,7.767,3.2206,-1.4171,3.8547,-2.6144,6.3124
2.4645,2.6667,0.0,-0.70853,4.6205,-1.4887,0.0,-0.70853,4.466,-0.70853,4.6205,-0.71895,1.2698,3.764,2.6032,7.767,2.5765,0.5153,5.1185,-1.3072,6.3124
10.047,5.2063,2.6016,6.3768,9.2409,9.5146,5.8537,1.868,7.7023,6.3768,9.2409,7.7778,-0.63492,1.8501,2.6032,6.4725,2.5765,-5.2818,7.0142,-1.3072,5.6683
4.9921,5.8413,1.3008,9.5974,14.521,13.398,11.057,4.4444,10.939,9.5974,14.521,12.353,-2.5397,-1.3397,-2.4762,1.9417,-1.2882,-2.0612,7.6461,-6.5359,4.38
-3.2227,2.6667,-1.9512,9.5974,12.541,6.2783,12.358,5.0886,11.586,9.5974,12.541,11.046,0.0,-2.6156,-3.746,-2.589,-4.5089,3.0918,3.8547,-5.8824,3.0918
-5.1185,-4.9524,-9.1057,5.7327,7.9208,-0.19417,5.2033,3.1562,8.9968,5.7327,7.9208,3.2026,4.4444,-1.9777,-1.2063,-5.8252,-5.7971,3.0918,2.5908,-1.3072,1.1594
-1.9589,-10.032,-14.959,-1.3527,3.3003,-4.7249,-3.9024,-1.3527,3.1715,-1.3527,3.3003,-5.9477,8.8889,-0.0638,3.2381,-7.1197,-4.5089,4.38,1.327,2.6144,-0.12882
-0.06319,-15.111,-16.26,-7.7939,-3.9604,-10.55,-11.707,-5.8615,-0.06472,-7.7939,-3.9604,-13.137,10.794,-0.0638,5.1429,-7.1197,-3.2206,1.8035,-2.4645,3.9216,-1.4171
1.8325,-11.302,-9.7561,-8.438,-7.2607,-8.6084,-11.057,-6.5056,-0.71197,-8.438,-7.2607,-12.484,12.063,1.8501,4.5079,-4.5307,-0.64412,0.5153,0.6951,2.6144,0.5153
5.624,-5.5873,-3.252,-9.0821,-7.2607,-6.0194,-7.8049,-8.438,-1.3592,-9.0821,-7.2607,-8.5621,11.429,0.57416,4.5079,-2.589,1.2882,-3.9936,1.327,5.2288,1.1594
5.624,-1.1429,2.6016,-9.0821,-5.2805,-3.4304,-3.9024,-5.2174,-0.06472,-9.0821,-5.2805,-5.2941,9.5238,-2.6156,3.2381,-3.2362,1.9324,-3.3494,0.06319,2.6144,-0.12882
7.5197,1.3968,5.2033,-11.659,-5.9406,-4.7249,-3.252,-7.7939,-0.06472,-11.659,-5.9406,-5.2941,8.254,-3.2536,3.873,-2.589,2.5765,-3.3494,-4.3602,1.9608,-2.7053
7.5197,3.3016,6.5041,-9.7262,-8.5809,-4.0777,-2.6016,-5.8615,-1.3592,-9.7262,-8.5809,-4.6405,9.5238,0.57416,7.0476,1.9417,4.5089,0.5153,-1.2006,5.8824,0.5153
2.4645,7.746,3.252,-9.7262,-9.901,-6.0194,-2.6016,-6.5056,-2.6537,-9.7262,-9.901,-3.9869,10.159,5.0399,7.6825,7.1197,5.7971,4.38,2.5908,7.1895,3.7359
-1.327,6.4762,-1.9512,-9.7262,-6.6007,-7.9612,-3.252,-7.7939,-1.3592,-9.7262,-6.6007,-4.6405,10.794,10.144,5.7778,11.65,6.4412,2.4477,3.8547,6.5359,6.3124
-8.91,3.3016,-9.7561,-8.438,-1.3201,-9.2557,-4.5528,-5.2174,-0.06472,-8.438,-1.3201,-7.2549,12.063,15.247,1.9683,13.592,5.153,-1.4171,3.8547,5.8824,8.2448
-11.438,2.6667,-12.358,-5.2174,0.0,-9.2557,-4.5528,-5.8615,-1.3592,-5.2174,0.0,-6.6013,12.063,17.160999,-1.8413,12.945,3.8647,-4.6377,3.8547,1.3072,9.533
-12.07,-1.1429,-9.1057,2.5121,1.3201,-3.4304,-3.9024,-3.9291,-0.06472,2.5121,1.3201,-2.6797,8.254,14.609,-6.2857,7.767,1.9324,-2.0612,1.9589,-2.6144,7.6006
-9.5419,-6.2222,-3.252,5.0886,3.3003,1.7476,-0.65041,3.1562,2.5243,5.0886,3.3003,2.549,0.63492,6.9537,-7.5556,-0.64725,-3.2206,1.8035,2.5908,-2.6144,2.4477
1.2006,-8.127,5.2033,3.8003,6.6007,4.3366,4.5528,4.4444,4.466,3.8003,6.6007,8.4314,-7.619,-0.70175,-6.9206,-7.1197,-6.4412,3.0918,0.6951,-4.5752,-1.4171
8.7836,0.12698,11.707,6.3768,8.5809,7.5728,8.4553,5.7327,4.466,6.3768,8.5809,11.699,-12.698,-5.1675,-5.0159,-7.767,-6.4412,1.1594,-1.8325,-5.2288,-3.9936
12.575,4.5714,13.659,6.3768,9.901,9.5146,11.707,5.7327,8.9968,6.3768,9.901,13.007,-19.683001,-11.547,-5.6508,-7.1197,-6.4412,0.5153,-1.8325,-7.8431,-7.8583
4.9921,5.8413,9.1057,8.3092,9.901,8.2201,12.358,7.0209,10.939,8.3092,9.901,11.046,-27.302,-17.927,-10.73,-8.4142,-10.306,3.0918,-1.2006,-11.765,-8.5024
-0.06319,7.746,3.9024,6.3768,8.5809,6.2783,12.358,7.0209,8.9968,6.3768,8.5809,8.4314,-30.476,-20.478001,-15.175,-9.0615,-14.815,3.7359,3.2227,-16.993,-7.2142
0.56872,8.381,0.0,0.57971,3.9604,1.7476,7.8049,3.8003,6.4078,0.57971,3.9604,3.2026,-29.205999,-21.754,-14.54,-8.4142,-16.747,0.5153,3.8547,-16.34,-7.2142
-3.8547,5.8413,-3.9024,-3.9291,-1.3201,-4.7249,0.65041,-1.3527,2.5243,-3.9291,-1.3201,-3.9869,-27.302,-23.030001,-14.54,-9.7087,-18.035,-2.7053,0.06319,-13.725,-7.8583
-9.5419,2.0317,-7.1545,-7.1498,-7.2607,-10.55,-6.5041,-6.5056,-0.71197,-7.1498,-7.2607,-10.523,-23.492001,-20.478001,-15.81,-8.4142,-16.747,-5.9259,-1.8325,-12.418,-8.5024
-14.597,2.0317,-9.1057,-9.0821,-7.2607,-13.786,-7.8049,-7.1498,-1.3592,-9.0821,-7.2607,-13.791,-16.507999,-12.823,-15.81,-2.589,-11.594,-6.57,-1.8325,-9.8039,-5.9259
-12.07,4.5714,-8.4553,-8.438,-3.3003,-11.197,-5.2033,-9.7262,-0.06472,-8.438,-3.3003,-11.176,-9.5238,-3.8915,-15.175,5.178,-5.153,-9.1465,-0.56872,-9.1503,-1.4171
-11.438,3.3016,-6.5041,-6.5056,-1.3201,-9.9029,-3.252,-7.7939,0.58252,-6.5056,-1.3201,-7.2549,-0.63492,5.0399,-10.73,12.298,2.5765,-11.723,3.8547,-5.2288,4.38
-14.597,-0.50794,-3.9024,-3.9291,-2.6403,-8.6084,-5.2033,-3.285,-0.71197,-3.9291,-2.6403,-6.6013,8.254,10.144,-5.6508,13.592,7.7295,-8.5024,3.8547,-1.3072,6.9565
-7.6461,-1.7778,2.6016,-3.285,-3.9604,-4.0777,-3.252,-4.5733,-0.71197,-3.285,-3.9604,-2.6797,13.968,11.419,-0.57143,11.003,10.95,-2.7053,0.6951,0.0,7.6006
0.56872,-5.5873,6.5041,1.2238,0.66007,2.3948,0.0,-1.3527,1.2298,1.2238,0.66007,3.2026,18.413,11.419,7.0476,5.8252,12.882,2.4477,1.327,5.2288,7.6006
8.1517,-8.127,9.1057,2.5121,1.9802,4.3366,1.9512,1.2238,-0.06472,2.5121,1.9802,5.1634,22.857,12.695,15.937,1.9417,15.459,5.0242,0.06319,11.111,6.3124
14.471,-9.3968,9.7561,-1.3527,0.66007,3.0421,1.3008,0.57971,-2.6537,-1.3527,0.66007,3.2026,26.667,13.971,22.285999,1.9417,17.391001,6.3124,-0.56872,15.033,5.6683
16.367001,-4.3175,11.057,-3.9291,-3.3003,1.7476,-0.65041,1.2238,-3.301,-3.9291,-3.3003,0.58824,28.570999,15.885,28.0,5.178,19.968,8.8889,1.327,18.954,5.6683
16.997999,3.9365,10.407,-5.8615,-7.9208,0.45307,-1.9512,0.57971,-4.5955,-5.8615,-7.9208,-1.3725,27.937,15.247,29.905001,9.0615,21.256001,8.8889,0.6951,19.608,5.6683
15.735,2.6667,6.5041,-6.5056,-8.5809,0.45307,-2.6016,0.57971,-4.5955,-6.5056,-8.5809,-2.0261,24.761999,12.057,28.635,8.4142,18.035,5.6683,0.6951,20.261,3.0918
18.261999,1.3968,5.2033,-1.3527,-3.9604,8.2201,0.65041,1.868,-3.301,-1.3527,-3.9604,3.2026,18.413,6.3158,21.016001,4.5307,11.594,9.533,-1.2006,15.686,-0.77295
10.679,3.9365,1.9512,5.0886,1.3201,10.162,4.5528,8.3092,0.58252,5.0886,1.3201,7.1242,9.5238,0.57416,10.857,1.9417,3.2206,10.177,-1.2006,10.458,-3.3494
-2.5908,5.8413,-3.252,6.3768,4.6205,8.2201,5.8537,11.53,2.5243,6.3768,4.6205,7.7778,1.2698,-2.6156,0.06349,0.64725,-4.5089,8.8889,-3.0964,5.8824,-5.9259
-6.3823,7.1111,-4.5528,4.4444,1.9802,7.5728,4.5528,8.3092,1.877,4.4444,1.9802,6.4706,-3.8095,-3.2536,-6.2857,3.2362,-5.7971,8.2448,-0.56872,2.6144,-4.6377
-7.0142,5.8413,-6.5041,3.8003,0.66007,4.3366,3.252,5.7327,-0.06472,3.8003,0.66007,3.2026,-7.619,-3.2536,-10.73,5.178,-6.4412,1.8035,2.5908,0.0,-2.0612
-5.1185,3.3016,-7.1545,3.8003,0.66007,2.3948,1.3008,4.4444,-1.3592,3.8003,0.66007,1.8954,-6.9841,-1.9777,-7.5556,5.178,-3.8647,0.5153,1.327,3.268,-1.4171
-3.8547,2.6667,-4.5528,5.0886,1.3201,3.6893,3.9024,5.0886,-2.0065,5.0886,1.3201,3.8562,-5.0794,-1.3397,-4.381,3.8835,-1.2882,4.38,-0.56872,1.9608,-0.12882
0.56872,-2.4127,0.65041,4.4444,3.3003,6.2783,5.8537,4.4444,-0.71197,4.4444,3.3003,6.4706,-3.1746,-0.70175,-1.2063,1.2945,0.64412,1.8035,-3.0964,-0.65359,-0.12882
4.9921,-7.4921,7.8049,5.7327,7.2607,10.162,9.1057,2.5121,-0.06472,5.7327,7.2607,11.699,-0.63492,1.2121,1.9683,-2.589,1.9324,1.8035,-1.8325,1.3072,1.1594
1.8325,-8.127,9.7561,4.4444,2.6403,6.9256,6.5041,2.5121,-2.0065,4.4444,2.6403,9.085,1.9048,2.488,4.5079,-5.8252,2.5765,3.7359,-2.4645,2.6144,1.1594
2.4645,-6.2222,9.1057,-1.3527,-1.9802,2.3948,0.0,2.5121,-5.89,-1.3527,-1.9802,2.549,7.619,6.9537,11.492,-2.589,7.0853,3.7359,-0.56872,6.5359,3.7359
11.311,-3.6825,9.1057,-4.5733,-4.6205,-1.4887,-5.2033,0.57971,-6.5372,-4.5733,-4.6205,-3.3333,13.333,8.8676,19.746,1.9417,12.882,2.4477,0.06319,11.111,5.6683
10.679,1.3968,9.7561,0.57971,-1.3201,-0.84142,-3.9024,3.1562,-3.9482,0.57971,-1.3201,-2.6797,14.603,6.9537,21.650999,3.8835,14.815,5.6683,-1.2006,15.033,3.0918
4.9921,2.6667,7.8049,2.5121,1.3201,2.3948,-3.252,6.3768,-3.301,2.5121,1.3201,-2.0261,8.8889,0.57416,13.397,1.9417,9.6618,7.6006,-1.2006,7.8431,0.5153
6.8878,7.1111,3.9024,1.2238,0.66007,3.0421,-3.252,5.7327,-3.301,1.2238,0.66007,-2.0261,3.8095,-3.8915,7.6825,1.2945,4.5089,1.1594,-0.56872,1.3072,0.5153
2.4645,4.5714,-3.9024,-0.70853,-3.3003,-0.19417,-5.8537,5.0886,-3.9482,-0.70853,-3.3003,-4.6405,1.2698,-7.0813,5.7778,0.64725,1.9324,-0.12882,-0.56872,1.9608,-1.4171
-10.806,0.7619,-14.309,-1.9968,-7.2607,-4.7249,-10.407,3.8003,-4.5955,-1.9968,-7.2607,-9.2157,-4.4444,-10.909,-1.8413,-0.64725,-1.9324,2.4477,-0.56872,-1.3072,-3.3494
-18.389,0.12698,-18.211,0.57971,-1.9802,-4.0777,-7.1545,1.868,-2.0065,0.57971,-1.9802,-6.6013,-12.063,-12.823,-12.635,-3.2362,-9.0177,1.1594,-0.56872,-5.8824,-5.2818
-13.333,0.12698,-13.008,5.0886,3.9604,2.3948,1.3008,1.868,3.8188,5.0886,3.9604,1.8954,-17.778,-13.461,-19.618999,-7.1197,-14.171,-2.0612,0.6951,-7.1895,-6.57
-7.6461,-2.4127,-7.1545,8.3092,8.5809,6.2783,6.5041,5.7327,5.7605,8.3092,8.5809,8.4314,-20.952,-14.099,-22.794001,-12.298,-18.68,-5.9259,0.06319,-9.1503,-8.5024
-3.8547,-9.3968,0.0,7.6651,7.2607,6.9256,5.2033,8.3092,3.8188,7.6651,7.2607,9.085,-19.048,-14.099,-22.159,-18.77,-20.612,-0.77295,-5.624,-10.458,-11.079
1.8325,-10.667,9.1057,6.3768,3.9604,7.5728,4.5528,7.6651,-0.71197,6.3768,3.9604,10.392,-13.968,-12.823,-15.81,-20.712,-16.103001,4.38,-10.679,-6.5359,-13.011
8.1517,-9.3968,12.358,3.8003,-0.66007,5.6311,3.252,5.0886,-1.3592,3.8003,-0.66007,9.085,-8.254,-8.3573,-5.0159,-14.887,-9.0177,2.4477,-10.047,-1.3072,-10.435
10.679,-3.0476,10.407,3.1562,-0.66007,5.6311,4.5528,3.1562,0.58252,3.1562,-0.66007,7.7778,0.0,-2.6156,4.5079,-5.8252,-1.9324,3.7359,-2.4645,3.268,-2.7053
11.311,6.4762,5.8537,-0.70853,0.66007,1.7476,3.9024,-0.70853,1.877,-0.70853,0.66007,3.8562,5.0794,1.2121,12.127,2.589,3.8647,-0.77295,5.7504,7.1895,3.7359
11.311,12.825,2.6016,-3.285,1.9802,-0.19417,3.9024,-6.5056,3.1715,-3.285,1.9802,0.58824,6.9841,2.488,14.667,9.0615,6.4412,-1.4171,8.91,9.8039,7.6006
3.7283,12.825,-0.65041,-3.9291,-1.3201,-6.0194,0.0,-4.5733,1.877,-3.9291,-1.3201,-5.2941,3.8095,1.8501,10.222,11.003,6.4412,-0.12882,7.0142,3.9216,7.6006
-0.6951,10.921,0.65041,-3.285,-3.3003,-6.6667,-2.6016,-3.285,0.58252,-3.285,-3.3003,-7.9085,0.0,1.2121,5.7778,12.298,6.4412,-0.12882,7.6461,-0.65359,7.6006
-5.7504,9.6508,1.3008,-4.5733,-1.9802,-7.3139,-4.5528,-5.2174,-0.06472,-4.5733,-1.9802,-9.8693,-0.63492,3.126,2.6032,14.239,7.7295,-3.3494,8.278,-1.3072,9.533
-9.5419,9.6508,-3.9024,-3.285,-1.3201,-9.2557,-5.2033,-5.2174,0.58252,-3.285,-1.3201,-10.523,-1.2698,4.4019,0.06349,13.592,6.4412,-7.8583,7.0142,-2.6144,8.8889
-17.757,5.2063,-10.407,2.5121,3.3003,-5.3722,-1.3008,-0.70853,5.1133,2.5121,3.3003,-6.6013,-3.8095,3.764,-9.4603,9.7087,-1.2882,-5.9259,4.4866,-5.8824,6.3124
-18.389,-1.1429,-14.309,8.9533,7.9208,-0.84142,0.65041,1.868,5.7605,8.9533,7.9208,-2.0261,-7.619,0.57416,-15.81,0.64725,-10.306,-6.57,1.327,-7.8431,2.4477
-10.806,-5.5873,-11.057,8.9533,8.5809,3.0421,2.6016,3.8003,4.466,8.9533,8.5809,1.8954,-10.794,-3.2536,-17.079,-7.767,-15.459,-6.57,-1.8325,-7.8431,-2.0612
-7.6461,-11.302,-7.1545,5.0886,3.9604,2.3948,1.3008,3.8003,1.2298,5.0886,3.9604,1.8954,-14.603,-8.9952,-18.349001,-16.827999,-19.323999,-1.4171,-6.8878,-10.458,-8.5024
-0.6951,-13.841,-3.9024,4.4444,0.0,2.3948,0.0,1.2238,-2.0065,4.4444,0.0,1.8954,-14.603,-13.461,-14.54,-22.006001,-18.035,0.5153,-10.679,-9.1503,-13.011
7.5197,-11.937,-1.3008,5.0886,-0.66007,4.9838,1.3008,3.8003,-3.301,5.0886,-0.66007,3.8562,-12.063,-16.013,-5.0159,-22.653999,-14.171,2.4477,-11.311,-3.268,-14.3
10.047,-8.7619,0.0,3.8003,0.0,6.9256,3.252,8.9533,-3.9482,3.8003,0.0,5.817,-8.8889,-16.013,1.3333,-20.712,-10.306,6.3124,-10.679,0.0,-14.3
15.735,-1.7778,3.252,3.8003,3.3003,6.9256,5.2033,5.0886,0.58252,3.8003,3.3003,7.7778,-4.4444,-12.185,7.0476,-13.592,-5.153,1.8035,-8.1517,2.6144,-10.435
8.7836,-1.7778,6.5041,2.5121,1.3201,4.9838,3.9024,4.4444,2.5243,2.5121,1.3201,7.1242,0.0,-7.0813,8.3175,-3.8835,0.64412,4.38,-1.8325,5.8824,-3.9936
4.9921,0.7619,9.1057,-0.70853,1.3201,4.3366,2.6016,2.5121,2.5243,-0.70853,1.3201,5.817,3.8095,-2.6156,7.0476,3.8835,5.7971,5.6683,3.8547,1.9608,0.5153
5.624,4.5714,9.1057,-0.06441,0.66007,2.3948,1.9512,2.5121,1.877,-0.06441,0.66007,3.8562,7.619,3.764,7.0476,9.7087,9.0177,0.5153,5.1185,1.3072,5.0242
-1.327,3.3016,1.3008,-1.9968,-3.3003,-0.84142,-2.6016,-0.06441,-0.71197,-1.9968,-3.3003,-1.3725,10.794,8.2297,5.7778,12.298,9.0177,0.5153,5.7504,3.9216,8.8889
-3.8547,2.6667,-3.9024,-0.70853,-3.3003,-0.84142,-1.9512,-2.6409,1.877,-0.70853,-3.3003,-2.0261,9.5238,8.8676,2.6032,9.7087,5.7971,-0.12882,7.0142,1.3072,9.533
-3.2227,0.12698,-7.8049,1.868,-2.6403,1.7476,-0.65041,3.1562,1.877,1.868,-2.6403,-0.06536,6.9841,5.6778,0.69841,3.2362,-0.64412,1.8035,3.2227,1.9608,5.6683
1.2006,1.3968,-5.2033,3.1562,3.9604,4.9838,2.6016,5.0886,1.877,3.1562,3.9604,2.549,2.5397,0.57416,-1.8413,-3.2362,-5.7971,1.8035,-3.0964,3.268,-0.12882
3.0964,1.3968,0.0,7.6651,5.2805,7.5728,3.252,3.8003,1.877,7.6651,5.2805,5.1634,-1.2698,-2.6156,-2.4762,-4.5307,-7.0853,0.5153,-2.4645,3.9216,-2.0612
-3.8547,-5.5873,-2.6016,5.0886,3.9604,3.6893,-1.9512,1.868,-1.3592,5.0886,3.9604,1.8954,-6.3492,-5.8054,-6.9206,-5.8252,-9.0177,1.8035,0.6951,-0.65359,-3.9936
-6.3823,-8.7619,-4.5528,-0.06441,1.3201,-1.4887,-4.5528,-1.3527,-3.9482,-0.06441,1.3201,-1.3725,-8.254,-9.6332,-6.9206,-8.4142,-9.0177,0.5153,-1.8325,-3.9216,-6.57
-4.4866,-5.5873,-1.3008,1.868,-0.66007,-1.4887,-1.9512,-0.70853,-5.2427,1.868,-0.66007,-0.71895,-5.7143,-10.271,0.06349,-6.4725,-4.5089,-2.7053,-4.3602,0.65359,-7.8583
-4.4866,0.7619,3.252,1.2238,1.9802,-0.84142,1.3008,-2.6409,-3.301,1.2238,1.9802,1.2418,-3.1746,-9.6332,1.9683,-3.2362,-0.64412,1.1594,-1.8325,0.0,-5.2818
-1.9589,5.8413,6.5041,-2.6409,-3.3003,-2.7832,0.0,-5.2174,-2.0065,-2.6409,-3.3003,-0.71895,0.63492,-7.0813,5.1429,2.589,3.8647,1.8035,1.9589,1.9608,-0.77295
3.7283,12.19,8.4553,-7.7939,-7.9208,-4.0777,-3.252,-5.8615,-3.9482,-7.7939,-7.9208,-3.3333,6.9841,-1.9777,11.492,9.0615,10.306,-2.0612,5.1185,7.8431,3.0918
4.9921,8.381,5.2033,-9.7262,-8.5809,-5.3722,-7.1545,-7.7939,-3.301,-9.7262,-8.5809,-7.2549,10.794,3.126,12.762,11.003,12.238,-0.77295,5.1185,7.8431,6.9565
4.9921,0.7619,-0.65041,-9.0821,-9.901,-5.3722,-10.407,-8.438,-4.5955,-9.0821,-9.901,-9.8693,12.063,7.5917,10.857,9.7087,10.95,-0.77295,0.6951,6.5359,7.6006
1.8325,-2.4127,-5.8537,-8.438,-9.901,-6.0194,-12.358,-5.2174,-3.301,-8.438,-9.901,-11.83,12.063,10.781,8.3175,9.0615,9.0177,-2.0612,1.9589,8.4967,9.533
-5.7504,-6.8571,-11.057,-7.7939,-9.901,-7.3139,-13.008,-3.9291,-3.9482,-7.7939,-9.901,-13.137,7.619,10.781,0.06349,5.178,1.2882,-2.7053,2.5908,4.5752,8.8889
-9.5419,-10.667,-16.910999,-9.0821,-11.221,-7.9612,-14.959,-5.8615,-7.1845,-9.0821,-11.221,-14.444,1.2698,6.9537,-6.9206,-3.2362,-9.0177,-3.3494,-3.7283,1.9608,5.6683
-15.229,-11.937,-21.462999,-7.1498,-6.6007,-7.9612,-11.707,-7.1498,-6.5372,-7.1498,-6.6007,-11.176,-5.0794,1.2121,-13.27,-11.003,-18.035,-4.6377,-4.3602,3.268,2.4477
-20.284,-8.127,-19.511999,-1.3527,-2.6403,-5.3722,-6.5041,-3.9291,-5.2427,-1.3527,-2.6403,-5.9477,-14.603,-6.4434,-24.063,-16.181,-25.764999,-4.6377,-5.624,-7.1895,-2.0612
-10.174,-6.8571,-10.407,1.868,-1.3201,-0.19417,-1.3008,-2.6409,-3.301,1.868,-1.3201,0.58824,-19.048,-10.271,-24.063,-16.181,-23.833,-7.8583,-3.7283,-11.111,-2.7053
-11.438,-6.2222,-3.252,-0.70853,-0.66007,-2.1359,0.0,-4.5733,-0.71197,-0.70853,-0.66007,1.2418,-19.683001,-10.909,-20.889,-12.945,-17.391001,-6.57,-2.4645,-11.765,-1.4171
-9.5419,-4.9524,0.65041,0.57971,1.3201,-2.1359,0.0,-0.70853,-0.71197,0.57971,1.3201,1.2418,-17.778,-10.909,-15.175,-9.7087,-10.95,-3.3494,-2.4645,-10.458,-2.7053
-0.6951,-2.4127,1.3008,1.2238,3.3003,-0.19417,0.65041,-0.06441,-0.06472,1.2238,3.3003,0.58824,-11.429,-7.7193,-5.6508,-5.8252,-3.8647,-3.9936,0.6951,-6.5359,-1.4171
0.56872,-1.7778,-0.65041,-0.70853,0.0,-2.1359,-1.3008,0.57971,-1.3592,-0.70853,0.0,-1.3725,-4.4444,-6.4434,0.06349,-4.5307,0.0,-0.77295,-0.56872,-3.9216,-3.3494
4.9921,0.7619,1.3008,3.1562,0.0,3.0421,0.65041,5.0886,-0.06472,3.1562,0.0,2.549,1.9048,-5.1675,6.4127,-4.5307,3.2206,2.4477,-1.8325,1.9608,-4.6377
10.047,3.3016,6.5041,3.8003,-0.66007,5.6311,3.252,7.0209,-0.06472,3.8003,-0.66007,4.5098,6.3492,-3.8915,9.5873,-3.8835,7.0853,5.0242,-3.0964,3.9216,-7.2142
13.207,-0.50794,11.057,0.57971,-1.9802,7.5728,3.252,8.3092,-2.6537,0.57971,-1.9802,4.5098,10.159,-1.3397,12.127,-3.2362,10.95,12.754,-6.2559,8.4967,-10.435
15.735,-2.4127,14.309,-0.70853,-4.6205,8.8673,1.9512,8.3092,-3.9482,-0.70853,-4.6205,4.5098,13.968,4.4019,17.205999,1.9417,15.459,14.686,-6.8878,14.379,-9.1465
15.103,2.6667,14.309,4.4444,-3.9604,8.2201,2.6016,11.53,-5.89,4.4444,-3.9604,5.1634,16.507999,10.781,18.476,9.7087,19.323999,17.261999,-7.5197,18.301001,-7.2142
10.679,5.8413,9.1057,3.8003,-3.3003,7.5728,0.0,11.53,-8.479,3.8003,-3.3003,3.8562,15.873,13.333,15.302,13.592,18.035,18.551001,-10.047,21.569,-5.9259
6.8878,5.8413,6.5041,1.868,-2.6403,5.6311,0.0,8.9533,-9.7735,1.868,-2.6403,4.5098,10.159,10.781,9.5873,12.298,11.594,12.754,-8.7836,18.954,-4.6377
10.047,5.8413,8.4553,3.8003,-3.3003,5.6311,1.9512,5.7327,-8.479,3.8003,-3.3003,5.817,2.5397,6.3158,3.873,8.4142,4.5089,3.7359,-4.9921,9.1503,-3.3494
-1.327,2.0317,7.1545,3.8003,-3.3003,3.0421,3.252,1.868,-8.479,3.8003,-3.3003,5.1634,-9.5238,-0.70175,-8.1905,1.9417,-3.8647,3.0918,-4.3602,-2.6144,-3.3494
-7.0142,-0.50794,5.8537,-1.3527,-3.9604,-1.4887,1.3008,-3.285,-7.8317,-1.3527,-3.9604,1.2418,-20.316999,-6.4434,-14.54,-1.9417,-9.0177,-3.9936,-4.9921,-11.765,-5.2818
-5.1185,0.7619,5.2033,-2.6409,-2.6403,-2.7832,0.65041,-4.5733,-5.89,-2.6409,-2.6403,0.58824,-24.127001,-7.7193,-13.27,-2.589,-8.3736,-7.2142,-3.7283,-16.34,-4.6377
-8.278,-3.6825,0.0,-1.3527,-1.3201,-4.0777,-3.252,-2.6409,-2.6537,-1.3527,-1.3201,-3.3333,-22.222,-7.7193,-13.27,-3.8835,-8.3736,-5.2818,-3.0964,-17.646999,-4.6377
-5.1185,-3.6825,-4.5528,-1.3527,0.0,-2.7832,-3.252,-3.9291,1.877,-1.3527,0.0,-4.6405,-15.873,-5.8054,-9.4603,-3.8835,-7.0853,-8.5024,-1.8325,-12.418,-3.9936
-4.4866,0.7619,-9.1057,-1.3527,2.6403,-2.1359,0.0,-0.06441,5.1133,-1.3527,2.6403,-3.3333,-8.8889,-5.8054,-7.5556,-5.8252,-7.7295,-4.6377,0.06319,-10.458,-2.7053
1.8325,-4.3175,-13.659,1.868,6.6007,1.7476,0.65041,1.2238,6.4078,1.868,6.6007,-0.71895,-4.4444,-8.3573,-4.381,-10.356,-9.6618,-1.4171,1.327,-7.8431,-5.9259
2.4645,-6.2222,-12.358,3.1562,8.5809,3.6893,1.9512,3.8003,6.4078,3.1562,8.5809,1.2418,1.2698,-8.9952,1.9683,-10.356,-7.0853,1.1594,1.327,-1.9608,-7.2142
3.0964,-0.50794,-5.2033,3.8003,2.6403,3.6893,3.9024,5.0886,3.1715,3.8003,2.6403,2.549,8.8889,-3.8915,8.3175,-3.2362,1.2882,0.5153,0.6951,3.268,-3.9936
3.7283,6.4762,0.0,3.8003,6.6007,1.1003,7.1545,-1.3527,7.7023,3.8003,6.6007,3.2026,11.429,0.57416,9.5873,2.589,7.0853,-3.9936,1.9589,1.3072,-2.0612
-3.8547,7.746,1.9512,1.2238,13.861,-5.3722,8.4553,-5.8615,14.175,1.2238,13.861,1.2418,10.159,1.2121,6.4127,4.5307,8.3736,-8.5024,3.8547,0.65359,-0.77295
-8.91,3.3016,1.9512,1.2238,13.861,-7.3139,9.1057,-8.438,16.117001,1.2238,13.861,1.2418,5.7143,-0.0638,-0.57143,1.2945,5.7971,-6.57,6.3823,-5.2288,-0.12882
-15.861,-2.4127,-1.3008,-1.3527,8.5809,-9.2557,4.5528,-8.438,12.88,-1.3527,8.5809,-1.3725,-1.9048,-5.1675,-8.8254,-4.5307,-0.64412,-5.2818,2.5908,-10.458,-2.0612
-17.125,-6.2222,-5.8537,-3.285,2.6403,-9.2557,-3.252,-9.7262,3.8188,-3.285,2.6403,-5.9477,-10.159,-8.9952,-13.905,-8.4142,-7.0853,-7.8583,-1.8325,-14.379,-3.3494
-18.389,-9.3968,-11.057,-7.7939,-3.9604,-13.139,-11.707,-9.7262,-2.0065,-7.7939,-3.9604,-12.484,-19.048,-10.909,-17.714001,-8.4142,-12.238,-11.723,-2.4645,-17.646999,-2.7053
-10.806,-6.2222,-6.5041,-9.7262,-5.9406,-11.845,-14.309,-11.659,-3.301,-9.7262,-5.9406,-13.137,-20.952,-4.5295,-15.81,-1.2945,-9.6618,-11.079,3.8547,-18.301001,4.38
-5.1185,-3.6825,-1.9512,-9.7262,-6.6007,-7.3139,-14.309,-9.0821,-3.9482,-9.7262,-6.6007,-11.176,-17.778,1.8501,-13.27,3.2362,-7.0853,-11.079,7.0142,-15.033,9.533
-5.1185,0.12698,-1.3008,-5.8615,-10.561,-4.7249,-10.407,-3.9291,-3.301,-5.8615,-10.561,-8.5621,-13.968,5.0399,-12.635,2.589,-9.0177,-9.7907,5.7504,-14.379,10.177
8.1517,-2.4127,-1.3008,-2.6409,-6.6007,1.7476,-3.9024,-1.9968,1.877,-2.6409,-6.6007,-2.0261,-8.254,5.6778,-7.5556,-1.9417,-10.95,-9.1465,7.6461,-10.458,10.821
8.7836,-4.3175,-3.9024,-2.6409,-2.6403,4.3366,0.0,3.1562,3.8188,-2.6409,-2.6403,1.2418,-1.2698,6.9537,-3.1111,-3.8835,-9.6618,1.1594,6.3823,-3.9216,10.177
7.5197,-0.50794,-3.9024,-1.9968,-0.66007,2.3948,1.9512,1.2238,2.5243,-1.9968,-0.66007,0.58824,6.9841,10.781,3.2381,1.2945,-1.9324,3.7359,4.4866,4.5752,10.821
4.9921,5.8413,-0.65041,-0.06441,1.3201,3.0421,2.6016,-0.06441,3.1715,-0.06441,1.3201,0.58824,12.698,15.885,6.4127,10.356,7.0853,2.4477,7.6461,3.9216,12.754
0.56872,9.0159,2.6016,-1.3527,0.66007,-0.84142,1.3008,-1.3527,4.466,-1.3527,0.66007,-2.0261,17.143,19.075001,8.9524,18.122999,16.103001,0.5153,12.07,7.8431,14.686
1.8325,9.6508,2.6016,-1.3527,0.66007,-3.4304,0.0,-3.285,3.8188,-1.3527,0.66007,-3.3333,16.507999,15.885,6.4127,20.065001,18.035,-1.4171,8.91,3.268,12.754
-3.8547,3.9365,0.0,-0.70853,0.66007,-4.7249,-1.9512,-1.3527,2.5243,-0.70853,0.66007,-4.6405,12.063,9.5056,1.3333,13.592,13.527,-0.77295,5.1185,-1.3072,7.6006
-4.4866,-3.6825,-1.9512,0.57971,1.9802,-4.0777,-2.6016,1.2238,3.1715,0.57971,1.9802,-3.9869,8.8889,3.764,0.69841,5.8252,9.0177,-1.4171,1.9589,0.0,3.7359
8.1517,-6.8571,-0.65041,3.8003,5.9406,3.0421,-0.65041,-0.06441,3.8188,3.8003,5.9406,0.58824,6.9841,1.2121,5.7778,0.64725,5.7971,-5.2818,-1.8325,1.9608,0.5153
3.0964,-4.9524,-1.9512,5.0886,4.6205,1.7476,-0.65041,1.868,1.877,5.0886,4.6205,1.8954,5.0794,0.57416,4.5079,-1.2945,1.9324,-0.12882,-3.7283,1.9608,-0.77295
1.2006,-1.1429,0.65041,1.2238,1.3201,1.1003,0.65041,0.57971,-0.06472,1.2238,1.3201,2.549,5.0794,3.126,3.873,1.2945,1.2882,4.38,-1.2006,3.9216,1.1594
4.3602,3.9365,3.252,-0.06441,-1.9802,2.3948,1.9512,-0.06441,-2.0065,-0.06441,-1.9802,2.549,3.8095,5.6778,3.2381,3.2362,-0.64412,3.7359,0.06319,2.6144,1.8035
1.8325,6.4762,3.252,-0.70853,-3.3003,1.7476,4.5528,-1.3527,-3.9482,-0.70853,-3.3003,3.8562,0.63492,5.6778,-1.2063,2.589,-3.8647,2.4477,0.06319,1.3072,3.0918
4.9921,9.6508,3.9024,2.5121,2.6403,3.6893,11.057,-1.9968,1.2298,2.5121,2.6403,7.7778,-5.0794,1.8501,-4.381,-1.9417,-8.3736,-2.7053,0.06319,-0.65359,1.8035
4.3602,5.8413,5.8537,7.0209,10.561,7.5728,16.26,3.8003,6.4078,7.0209,10.561,12.353,-9.5238,-2.6156,-6.9206,-6.4725,-10.306,-0.12882,-1.8325,-3.268,-0.77295
6.2559,4.5714,13.008,8.9533,9.901,11.456,16.910999,7.0209,6.4078,8.9533,9.901,15.621,-6.3492,-1.3397,0.06349,-2.589,-2.5765,1.8035,3.2227,0.65359,1.1594
13.207,7.746,20.163,9.5974,8.5809,12.104,16.910999,6.3768,6.4078,9.5974,8.5809,16.275,2.5397,3.764,12.127,7.1197,10.306,5.0242,7.0142,9.1503,5.6683
18.261999,8.381,19.511999,6.3768,7.2607,10.809,12.358,5.0886,3.8188,6.3768,7.2607,12.353,10.794,7.5917,19.746,12.945,18.68,10.177,4.4866,11.111,6.9565
20.158001,7.1111,14.309,1.2238,1.9802,6.9256,8.4553,3.8003,1.877,1.2238,1.9802,7.1242,15.873,9.5056,22.285999,12.945,19.323999,7.6006,2.5908,11.111,6.3124
11.943,5.2063,5.8537,-0.70853,-0.66007,3.6893,5.8537,-0.70853,1.877,-0.70853,-0.66007,3.2026,17.143,10.144,17.205999,10.356,15.459,4.38,2.5908,9.8039,6.9565
0.56872,2.0317,-1.3008,-1.3527,1.3201,-0.19417,2.6016,-0.06441,2.5243,-1.3527,1.3201,-0.71895,13.968,8.2297,7.6825,5.178,8.3736,2.4477,4.4866,3.9216,6.3124
-2.5908,2.6667,-0.65041,-0.70853,0.66007,-2.1359,1.9512,1.2238,1.877,-0.70853,0.66007,-0.71895,10.794,6.3158,2.6032,1.9417,4.5089,-0.77295,1.327,0.65359,2.4477
0.56872,-1.1429,1.3008,-2.6409,0.0,0.45307,1.3008,1.2238,2.5243,-2.6409,0.0,1.2418,7.619,4.4019,1.3333,0.0,3.2206,-0.12882,-0.56872,-0.65359,-0.12882
3.7283,-4.3175,0.0,-2.6409,0.0,0.45307,1.3008,-0.06441,2.5243,-2.6409,0.0,1.8954,5.0794,1.8501,2.6032,-2.589,1.2882,-2.0612,0.06319,2.6144,-2.0612
2.4645,-4.3175,-4.5528,1.2238,1.3201,2.3948,1.3008,2.5121,1.877,1.2238,1.3201,2.549,-0.63492,-2.6156,0.06349,-6.4725,-4.5089,1.1594,-3.7283,0.65359,-5.2818
-2.5908,-1.7778,-5.8537,1.2238,1.3201,-0.19417,1.9512,3.8003,1.877,1.2238,1.3201,1.2418,-8.254,-7.0813,-7.5556,-7.1197,-9.0177,4.38,-3.0964,-3.268,-6.57
-1.327,5.8413,0.65041,1.868,2.6403,1.1003,5.8537,5.0886,5.1133,1.868,2.6403,4.5098,-12.698,-8.3573,-10.095,-2.589,-7.7295,1.8035,3.2227,-5.2288,-4.6377
4.3602,8.381,5.8537,1.868,3.3003,4.3366,7.1545,4.4444,3.8188,1.868,3.3003,5.817,-12.698,-8.9952,-6.9206,1.2945,-5.153,-0.12882,4.4866,-3.9216,-2.7053
1.2006,8.381,3.252,-0.70853,-1.3201,1.1003,1.9512,2.5121,-0.06472,-0.70853,-1.3201,1.2418,-6.3492,-5.8054,-3.1111,2.589,-1.9324,3.0918,2.5908,1.3072,-0.12882
4.3602,3.3016,0.65041,-2.6409,-3.3003,-0.19417,-1.3008,-1.3527,-0.71197,-2.6409,-3.3003,-2.0261,1.2698,-1.3397,2.6032,2.589,1.2882,5.0242,3.2227,5.2288,1.8035
-1.327,-3.0476,-5.2033,-6.5056,-5.2805,-7.9612,-5.8537,-4.5733,-2.0065,-6.5056,-5.2805,-8.5621,3.1746,-1.3397,3.873,-1.9417,0.0,0.5153,-1.2006,7.1895,-0.77295
-1.9589,-2.4127,-5.8537,-8.438,-6.6007,-11.197,-5.8537,-7.1498,-2.6537,-8.438,-6.6007,-10.523,4.4444,1.2121,2.6032,-1.2945,0.64412,-2.0612,-0.56872,2.6144,-0.12882
-2.5908,-3.0476,-3.252,-9.7262,-7.9208,-10.55,-9.1057,-5.8615,-4.5955,-9.7262,-7.9208,-11.83,6.3492,4.4019,1.9683,0.64725,3.2206,-2.0612,-0.56872,1.9608,2.4477
-7.0142,-7.4921,-3.252,-9.7262,-11.881,-10.55,-12.358,-3.285,-8.479,-9.7262,-11.881,-13.137,5.7143,5.0399,0.06349,-0.64725,2.5765,-0.77295,-6.2559,2.6144,1.1594
-3.8547,-9.3968,-1.3008,-5.8615,-10.561,-6.0194,-11.057,-3.285,-7.8317,-5.8615,-10.561,-9.8693,5.0794,4.4019,0.69841,-1.9417,3.2206,0.5153,-6.8878,1.3072,0.5153
3.0964,-1.7778,-1.3008,-0.06441,-5.2805,-2.1359,-3.252,-3.285,-4.5955,-0.06441,-5.2805,-4.6405,5.7143,4.4019,5.1429,-1.2945,5.7971,-3.3494,-2.4645,1.9608,1.1594
-3.8547,-1.1429,-8.4553,1.2238,0.0,-3.4304,0.0,-0.06441,1.2298,1.2238,0.0,-3.9869,2.5397,1.8501,1.9683,-3.2362,1.2882,-2.7053,1.327,2.6144,1.8035
-5.1185,-3.0476,-11.707,-0.70853,1.3201,-4.7249,-1.3008,-1.3527,2.5243,-0.70853,1.3201,-5.2941,-2.5397,-0.70175,-4.381,-3.2362,-2.5765,-5.2818,0.6951,-3.268,1.1594
-0.6951,1.3968,-4.5528,1.2238,3.9604,1.1003,1.9512,-1.9968,2.5243,1.2238,3.9604,-0.06536,-5.7143,-0.0638,-7.5556,0.0,-3.8647,-2.0612,1.9589,-5.8824,3.0918
2.4645,5.2063,3.252,5.0886,6.6007,6.2783,7.1545,1.2238,5.7605,5.0886,6.6007,6.4706,-6.9841,-0.70175,-5.0159,1.9417,-2.5765,-0.12882,1.327,-4.5752,2.4477
10.047,7.1111,13.659,10.886,11.221,10.809,13.008,7.0209,7.7023,10.886,11.221,13.007,-1.2698,2.488,5.7778,4.5307,4.5089,1.8035,3.2227,1.3072,1.1594
11.311,7.746,18.862,8.3092,11.881,11.456,12.358,8.3092,6.4078,8.3092,11.881,13.007,4.4444,4.4019,12.127,6.4725,10.306,7.6006,2.5908,5.8824,-0.12882
9.4155,11.556,19.511999,4.4444,7.2607,7.5728,11.057,7.0209,3.8188,4.4444,7.2607,10.392,8.8889,5.6778,15.302,8.4142,13.527,9.533,1.9589,9.1503,-0.12882
7.5197,10.286,14.959,2.5121,1.9802,3.6893,7.8049,3.8003,3.8188,2.5121,1.9802,7.1242,10.794,5.6778,15.302,9.0615,12.238,6.3124,3.8547,11.765,0.5153
6.2559,6.4762,10.407,2.5121,3.3003,4.3366,6.5041,1.2238,4.466,2.5121,3.3003,7.1242,7.619,1.8501,7.6825,5.178,6.4412,3.0918,2.5908,7.1895,-0.77295
-0.06319,5.8413,4.5528,5.0886,6.6007,5.6311,6.5041,2.5121,5.7605,5.0886,6.6007,7.7778,1.9048,-1.9777,-1.8413,0.0,-1.2882,3.0918,1.327,2.6144,-2.0612
0.56872,1.3968,-1.3008,10.242,7.2607,10.809,7.8049,7.0209,5.1133,10.242,7.2607,9.7386,-3.1746,-5.8054,-5.0159,-7.1197,-7.7295,3.0918,0.6951,3.268,-3.9936
7.5197,-3.6825,-4.5528,8.9533,6.6007,14.045,6.5041,7.0209,3.1715,8.9533,6.6007,9.7386,-5.0794,-8.9952,-3.746,-12.945,-9.6618,3.7359,-1.2006,1.9608,-5.9259
1.8325,-8.127,-5.8537,2.5121,0.66007,5.6311,1.3008,3.8003,-0.71197,2.5121,0.66007,3.2026,-3.8095,-10.271,-0.57143,-14.239,-7.7295,6.3124,-5.624,3.268,-7.2142
-0.06319,-8.7619,-4.5528,-2.6409,-3.9604,-1.4887,-5.2033,2.5121,-4.5955,-2.6409,-3.9604,-3.3333,-1.2698,-7.0813,3.873,-9.0615,-1.2882,4.38,-10.047,3.268,-5.9259
-0.6951,-2.4127,0.0,-1.9968,-4.6205,-1.4887,-5.8537,3.1562,-6.5372,-1.9968,-4.6205,-3.3333,0.0,-1.9777,5.1429,-0.64725,4.5089,4.38,-6.8878,3.9216,-2.7053
-2.5908,-3.0476,0.65041,-0.06441,-1.9802,1.1003,-4.5528,3.1562,-5.89,-0.06441,-1.9802,-0.71895,-2.5397,-1.3397,-1.2063,2.589,2.5765,5.0242,-0.56872,-1.3072,-0.12882
-1.327,-0.50794,0.65041,2.5121,0.0,2.3948,-0.65041,0.57971,-3.301,2.5121,0.0,2.549,-4.4444,-1.3397,-6.9206,1.9417,-1.9324,0.5153,0.6951,-3.9216,-0.12882
-2.5908,3.9365,-0.65041,1.868,0.0,3.0421,2.6016,-0.70853,-0.71197,1.868,0.0,3.8562,-5.7143,-2.6156,-8.1905,0.0,-5.153,-3.3494,0.06319,-3.268,-2.0612
-10.806,2.0317,-5.8537,-0.06441,1.9802,-2.7832,1.9512,-3.285,2.5243,-0.06441,1.9802,0.58824,-8.254,-5.1675,-10.73,-3.8835,-9.0177,-4.6377,-0.56872,-5.8824,-3.9936
-11.438,0.7619,-7.8049,-1.3527,1.3201,-6.0194,0.65041,-5.8615,4.466,-1.3527,1.3201,-2.0261,-6.3492,-3.2536,-7.5556,-3.8835,-9.0177,-5.9259,-3.0964,-4.5752,-4.6377
-1.327,3.3016,-1.3008,-2.6409,0.66007,-2.7832,2.6016,-4.5733,6.4078,-2.6409,0.66007,-0.06536,-0.63492,2.488,0.06349,1.2945,-1.9324,-3.9936,1.9589,-1.3072,-1.4171
0.56872,7.1111,5.2033,-3.9291,2.6403,-1.4887,5.2033,-3.285,6.4078,-3.9291,2.6403,1.2418,3.8095,6.9537,5.7778,6.4725,5.153,-0.12882,3.8547,2.6144,1.1594
-3.2227,3.9365,3.252,-4.5733,0.0,-4.0777,1.3008,0.57971,5.1133,-4.5733,0.0,-1.3725,3.1746,5.6778,4.5079,6.4725,6.4412,2.4477,1.9589,-1.3072,-1.4171
0.56872,-1.1429,3.252,1.868,0.66007,-0.19417,0.65041,5.7327,3.1715,1.868,0.66007,1.8954,4.4444,1.8501,5.7778,5.178,7.7295,6.3124,0.06319,1.3072,-3.3494
9.4155,-1.7778,5.8537,5.7327,3.3003,6.2783,1.3008,5.0886,-0.06472,5.7327,3.3003,5.817,4.4444,-1.3397,9.5873,1.9417,7.7295,3.7359,-4.3602,4.5752,-5.2818
5.624,-4.3175,3.9024,3.8003,2.6403,3.6893,0.0,3.1562,-3.9482,3.8003,2.6403,4.5098,1.2698,-4.5295,7.0476,-1.2945,4.5089,3.0918,-4.9921,3.268,-4.6377
2.4645,-6.8571,0.65041,-0.06441,0.66007,1.7476,-4.5528,0.57971,-7.8317,-0.06441,0.66007,-0.06536,0.0,-3.8915,3.873,-2.589,1.9324,0.5153,-5.624,2.6144,-2.7053
-7.6461,-6.2222,-5.2033,1.2238,-3.9604,-2.1359,-6.5041,-0.70853,-9.1262,1.2238,-3.9604,-3.9869,-1.2698,-0.70175,-2.4762,-0.64725,-0.64412,-3.9936,-3.0964,-0.65359,1.1594
-19.021,-4.3175,-13.008,-1.9968,-7.2607,-7.3139,-9.7561,-2.6409,-9.7735,-1.9968,-7.2607,-8.5621,-2.5397,3.126,-11.365,2.589,-3.8647,-4.6377,-1.2006,-3.268,5.0242
-17.757,-1.1429,-14.309,-5.8615,-7.9208,-9.2557,-11.057,-7.1498,-11.715,-5.8615,-7.9208,-10.523,-4.4444,5.0399,-15.81,2.589,-5.7971,-3.9936,0.06319,-7.1895,6.3124
-13.965,-1.7778,-11.057,-3.9291,-5.9406,-7.3139,-9.1057,-1.9968,-8.479,-3.9291,-5.9406,-9.2157,-4.4444,5.0399,-13.27,2.589,-5.153,-3.9936,2.5908,-7.1895,6.9565
-9.5419,-1.7778,-6.5041,-3.285,-6.6007,-6.0194,-7.1545,-3.285,-4.5955,-3.285,-6.6007,-7.9085,-3.1746,6.3158,-7.5556,3.2362,-1.9324,-5.9259,1.9589,-4.5752,6.9565
-2.5908,0.12698,-1.9512,-3.285,-5.2805,-6.0194,-3.252,-5.2174,-0.71197,-3.285,-5.2805,-5.2941,0.63492,7.5917,-0.57143,2.589,1.9324,-4.6377,3.2227,-1.9608,6.9565
-3.8547,-2.4127,-4.5528,-2.6409,-0.66007,-7.3139,-3.252,-3.9291,1.2298,-2.6409,-0.66007,-5.9477,4.4444,7.5917,3.873,-0.64725,2.5765,-2.7053,0.6951,0.0,4.38
5.624,-6.8571,-3.9024,-0.70853,2.6403,-2.7832,-3.9024,-3.285,1.2298,-0.70853,2.6403,-2.6797,8.254,6.9537,10.857,-3.2362,3.8647,-3.9936,0.06319,6.5359,1.8035
8.7836,-6.2222,-0.65041,2.5121,-0.66007,3.0421,-3.9024,1.868,-0.71197,2.5121,-0.66007,0.58824,8.8889,3.764,12.127,-5.178,3.2206,-0.77295,-1.2006,7.1895,-1.4171
3.0964,-6.8571,0.65041,1.868,-3.3003,2.3948,-5.2033,1.868,-4.5955,1.868,-3.3003,-0.06536,5.0794,-1.3397,4.5079,-7.767,-0.64412,4.38,-3.7283,1.3072,-4.6377
2.4645,-6.2222,6.5041,-0.70853,-3.9604,1.1003,-5.8537,-1.9968,-5.2427,-0.70853,-3.9604,0.58824,1.9048,-5.1675,1.3333,-5.178,-0.64412,5.6683,-3.7283,1.9608,-7.2142
-0.6951,-0.50794,9.7561,1.868,-1.9802,-0.19417,-4.5528,1.868,-5.2427,1.868,-1.9802,1.2418,3.1746,-4.5295,2.6032,1.2945,3.2206,5.6683,-2.4645,2.6144,-7.2142
-1.9589,6.4762,9.1057,1.2238,0.0,-2.1359,-1.9512,2.5121,-3.301,1.2238,0.0,1.2418,6.9841,0.57416,5.1429,7.767,7.0853,4.38,-3.0964,3.9216,-4.6377
-2.5908,7.746,4.5528,-2.6409,-4.6205,-4.7249,-1.3008,-1.3527,-2.6537,-2.6409,-4.6205,-1.3725,9.5238,4.4019,5.1429,11.003,8.3736,2.4477,-0.56872,5.2288,-1.4171
-2.5908,3.9365,-2.6016,-4.5733,-7.2607,-5.3722,-5.8537,-3.9291,-3.9482,-4.5733,-7.2607,-5.9477,9.5238,6.3158,5.7778,9.7087,6.4412,-0.77295,0.6951,9.1503,0.5153
-2.5908,0.12698,-5.2033,-6.5056,-9.901,-6.6667,-7.8049,-1.9968,-5.89,-6.5056,-9.901,-8.5621,6.9841,7.5917,3.2381,8.4142,3.8647,1.8035,-2.4645,5.8824,2.4477
-1.327,1.3968,-3.252,-8.438,-12.541,-9.2557,-7.8049,-2.6409,-5.89,-8.438,-12.541,-9.8693,3.1746,8.8676,0.06349,8.4142,3.2206,-5.2818,0.06319,-1.3072,5.6683
-4.4866,1.3968,0.0,-11.014,-11.221,-9.9029,-7.1545,-4.5733,-6.5372,-11.014,-11.221,-9.8693,0.0,8.2297,-2.4762,7.1197,2.5765,-3.9936,0.6951,-2.6144,8.2448
-10.806,-3.0476,-1.3008,-11.014,-9.901,-9.9029,-7.1545,-7.1498,-6.5372,-11.014,-9.901,-9.2157,-4.4444,4.4019,-8.8254,2.589,-1.9324,-1.4171,-1.8325,-6.5359,6.3124
-12.07,-4.3175,-4.5528,-5.8615,-6.6007,-6.6667,-4.5528,-8.438,-3.301,-5.8615,-6.6007,-5.9477,-8.8889,0.57416,-12.635,-1.9417,-6.4412,-6.57,0.06319,-10.458,4.38
-11.438,0.12698,-9.1057,-1.3527,-1.9802,-4.7249,0.65041,-5.8615,1.877,-1.3527,-1.9802,-2.0261,-10.159,-0.70175,-13.27,-3.2362,-9.0177,-9.7907,6.3823,-11.111,5.6683
-7.6461,1.3968,-11.707,-1.3527,2.6403,-3.4304,1.9512,-2.6409,5.1133,-1.3527,2.6403,-0.71895,-10.159,-1.9777,-9.4603,-3.8835,-9.6618,-9.1465,8.91,-7.8431,5.6683
-5.1185,3.9365,-8.4553,-1.3527,4.6205,-2.7832,2.6016,-2.6409,5.7605,-1.3527,4.6205,-0.71895,-8.254,-3.8915,-4.381,-4.5307,-8.3736,-2.0612,6.3823,-5.8824,3.0918
-1.327,2.0317,-2.6016,-0.06441,5.9406,-0.84142,1.3008,-1.3527,4.466,-0.06441,5.9406,0.58824,-6.3492,-5.8054,0.69841,-5.8252,-5.7971,1.8035,4.4866,-3.268,-0.12882
2.4645,0.7619,2.6016,3.8003,7.9208,1.7476,1.9512,-0.06441,3.8188,3.8003,7.9208,2.549,-5.0794,-8.9952,3.2381,-8.4142,-4.5089,1.1594,-1.2006,0.0,-3.9936
6.8878,2.0317,8.4553,8.3092,4.6205,6.2783,3.252,2.5121,3.1715,8.3092,4.6205,6.4706,-3.8095,-9.6332,3.873,-8.4142,-2.5765,-0.12882,-2.4645,1.3072,-5.9259
8.7836,1.3968,13.008,5.7327,1.3201,7.5728,3.9024,7.0209,2.5243,5.7327,1.3201,7.7778,-0.63492,-6.4434,4.5079,-5.178,0.64412,1.8035,-0.56872,3.268,-5.9259
10.047,-0.50794,11.057,-1.3527,-1.9802,3.6893,-1.3008,-1.3527,-1.3592,-1.3527,-1.9802,3.2026,3.8095,-0.70175,4.5079,-1.2945,3.8647,4.38,-1.2006,5.2288,-3.9936
4.3602,0.12698,8.4553,-1.9968,-4.6205,0.45307,-4.5528,-1.9968,-7.1845,-1.9968,-4.6205,-1.3725,8.8889,5.0399,7.0476,3.8835,7.0853,3.7359,-4.3602,10.458,-0.77295
0.56872,1.3968,5.8537,-0.70853,-5.2805,1.1003,-3.9024,3.1562,-9.1262,-0.70853,-5.2805,-0.71895,8.254,8.2297,5.1429,6.4725,7.7295,6.9565,-5.624,6.5359,1.1594
5.624,2.0317,5.2033,1.868,-4.6205,6.9256,0.0,5.0886,-9.7735,1.868,-4.6205,5.1634,7.619,9.5056,3.873,6.4725,6.4412,6.9565,-6.2559,3.9216,2.4477
5.624,2.6667,5.2033,2.5121,-2.6403,10.809,3.252,4.4444,-8.479,2.5121,-2.6403,9.085,5.0794,8.8676,1.3333,4.5307,3.2206,5.6683,-3.0964,3.268,3.7359
8.7836,3.9365,7.8049,2.5121,-5.2805,12.104,5.2033,4.4444,-7.8317,2.5121,-5.2805,10.392,3.8095,8.2297,2.6032,3.2362,2.5765,5.6683,-0.56872,3.9216,4.38
8.7836,-3.0476,5.2033,-1.3527,-8.5809,8.8673,0.0,3.8003,-7.8317,-1.3527,-8.5809,5.1634,5.0794,6.3158,5.7778,0.64725,1.9324,3.7359,-1.2006,5.8824,2.4477
4.9921,-6.8571,-2.6016,-7.1498,-9.2409,0.45307,-5.2033,-1.9968,-8.479,-7.1498,-9.2409,-2.6797,5.0794,4.4019,5.7778,-1.9417,0.0,1.8035,-1.2006,4.5752,1.8035
0.56872,-4.3175,-9.7561,-8.438,-11.221,-3.4304,-7.1545,-3.9291,-6.5372,-8.438,-11.221,-7.9085,3.1746,2.488,3.873,-1.9417,-1.2882,1.8035,-1.8325,4.5752,1.1594
8.1517,0.12698,-7.8049,-6.5056,-7.2607,-0.84142,-3.252,-5.2174,-1.3592,-6.5056,-7.2607,-5.9477,1.2698,1.2121,4.5079,-0.64725,0.0,-3.9936,0.6951,1.3072,0.5153
-4.4866,0.7619,-8.4553,-5.2174,0.0,-3.4304,0.0,-4.5733,3.1715,-5.2174,0.0,-4.6405,-6.3492,-5.1675,-6.2857,-4.5307,-5.153,-2.0612,2.5908,-7.8431,-1.4171
-17.125,-0.50794,-9.1057,-3.9291,1.9802,-6.0194,1.9512,-0.70853,5.1133,-3.9291,1.9802,-3.9869,-12.063,-10.909,-14.54,-8.4142,-10.95,-1.4171,1.9589,-12.418,-2.7053
-8.91,2.6667,-3.252,1.2238,6.6007,-0.84142,6.5041,1.2238,9.644,1.2238,6.6007,1.8954,-12.063,-11.547,-11.365,-7.1197,-9.6618,-5.2818,3.8547,-9.1503,-2.0612
-6.3823,5.2063,0.0,2.5121,6.6007,-0.19417,5.2033,0.57971,7.7023,2.5121,6.6007,1.8954,-11.429,-10.271,-9.4603,-5.178,-7.7295,-3.9936,3.2227,-7.8431,-1.4171
-3.8547,0.12698,-0.65041,-1.9968,1.3201,-2.1359,-0.65041,-1.9968,4.466,-1.9968,1.3201,-2.6797,-9.5238,-6.4434,-6.9206,-1.9417,-5.7971,-7.2142,3.8547,-5.8824,-0.12882
-5.7504,-1.1429,0.0,-4.5733,-2.6403,-3.4304,-3.9024,-1.3527,2.5243,-4.5733,-2.6403,-5.2941,-6.3492,-3.2536,-5.6508,0.64725,-2.5765,-3.9936,4.4866,-2.6144,1.1594
-1.327,-1.7778,1.3008,-5.2174,-5.9406,-2.7832,-4.5528,-1.9968,-2.0065,-5.2174,-5.9406,-4.6405,-3.8095,-1.3397,-5.0159,0.0,-1.2882,-2.7053,-0.56872,-3.9216,-0.77295
1.2006,-2.4127,3.9024,-1.9968,-5.2805,0.45307,-2.6016,-2.6409,-2.6537,-1.9968,-5.2805,-0.71895,0.63492,1.8501,-2.4762,0.0,1.2882,1.1594,-1.8325,-2.6144,-2.0612
6.8878,-3.0476,6.5041,-0.70853,-1.3201,4.9838,0.0,1.868,-4.5955,-0.70853,-1.3201,3.2026,7.619,6.3158,5.7778,1.9417,5.7971,6.9565,-3.0964,7.1895,-2.7053
13.839,-4.3175,7.8049,-2.6409,-4.6205,6.9256,-1.9512,3.8003,-7.1845,-2.6409,-4.6205,3.2026,12.698,8.2297,13.397,2.589,9.6618,12.754,-6.2559,13.725,-3.9936
16.367001,-1.1429,9.7561,-1.9968,-9.2409,7.5728,-1.3008,9.5974,-10.421,-1.9968,-9.2409,3.8562,17.778,6.9537,22.285999,3.2362,14.171,19.195,-10.047,24.183001,-6.57
22.054001,3.3016,12.358,0.57971,-9.2409,12.104,0.65041,14.106,-13.01,0.57971,-9.2409,7.1242,20.316999,5.6778,26.73,3.2362,16.103001,21.771,-13.207,28.757999,-9.1465
23.318001,3.3016,14.309,3.8003,-4.6205,17.282,5.8537,14.75,-9.1262,3.8003,-4.6205,12.353,17.778,3.126,25.459999,3.2362,14.815,19.195,-9.4155,30.065001,-8.5024
19.525999,2.6667,12.358,0.57971,-3.3003,17.929001,7.8049,12.174,-5.89,0.57971,-3.3003,12.353,10.159,-1.3397,17.841,1.2945,9.6618,16.618,-7.5197,17.646999,-6.57
15.735,4.5714,8.4553,-1.9968,-3.3003,14.045,7.1545,7.0209,-4.5955,-1.9968,-3.3003,9.7386,3.8095,-4.5295,10.222,0.0,4.5089,12.754,-3.7283,7.1895,-4.6377
8.1517,5.8413,4.5528,-3.9291,-5.2805,8.8673,5.2033,4.4444,-2.6537,-3.9291,-5.2805,4.5098,-2.5397,-5.8054,5.1429,1.2945,1.2882,8.2448,0.6951,1.3072,-2.7053
8.1517,6.4762,0.65041,-3.9291,-7.9208,4.3366,2.6016,2.5121,-0.06472,-3.9291,-7.9208,-0.71895,-8.254,-3.8915,0.06349,3.2362,-1.9324,-2.7053,3.8547,-5.8824,1.1594
-4.4866,3.9365,-6.5041,-1.9968,-3.3003,1.1003,1.3008,-1.3527,3.1715,-1.9968,-3.3003,-2.6797,-13.333,-1.9777,-10.73,2.589,-8.3736,-5.9259,5.7504,-12.418,3.7359
-13.965,1.3968,-11.707,-1.9968,6.6007,-1.4887,5.2033,-2.6409,8.3495,-1.9968,6.6007,-0.71895,-15.873,-1.3397,-19.618999,-1.2945,-14.815,-8.5024,5.1185,-15.033,3.7359
-15.229,0.7619,-13.008,3.1562,11.221,-0.84142,11.057,-1.9968,11.586,3.1562,11.221,3.8562,-16.507999,-3.2536,-21.524,-7.767,-18.68,-9.1465,2.5908,-15.686,-0.12882
-12.07,-6.2222,-14.309,6.3768,11.221,0.45307,10.407,-0.70853,12.88,6.3768,11.221,5.1634,-17.143,-5.8054,-20.889,-13.592,-21.256001,-7.8583,0.06319,-18.954,-3.3494
-8.91,-10.032,-13.659,4.4444,9.2409,-2.1359,5.2033,-0.70853,11.586,4.4444,9.2409,0.58824,-13.333,-3.2536,-14.54,-12.298,-16.103001,-6.57,1.9589,-15.686,-2.7053
1.8325,-2.4127,-4.5528,1.2238,6.6007,-2.7832,2.6016,-1.3527,10.939,1.2238,6.6007,-2.0261,-3.1746,3.764,1.3333,-0.64725,-1.9324,-7.8583,6.3823,-6.5359,2.4477
6.8878,7.1111,4.5528,-1.3527,5.9406,-0.84142,4.5528,1.868,8.9968,-1.3527,5.9406,-0.71895,5.0794,8.8676,12.127,10.356,10.95,-0.77295,8.91,-1.9608,5.6683
4.3602,12.825,8.4553,-7.1498,1.9802,-6.6667,3.252,-3.9291,7.7023,-7.1498,1.9802,-3.3333,7.619,8.8676,15.302,15.534,16.747,0.5153,8.91,1.3072,5.6683
3.0964,16.0,11.057,-8.438,-3.3003,-8.6084,3.252,-7.1498,7.055,-8.438,-3.3003,-3.9869,8.254,8.2297,13.397,18.122999,19.323999,-3.3494,10.806,1.9608,7.6006
1.2006,17.905001,11.057,-5.8615,-2.6403,-6.6667,3.252,-7.1498,7.055,-5.8615,-2.6403,-2.6797,6.9841,5.6778,7.0476,16.181,15.459,-8.5024,9.5419,3.268,7.6006
-4.4866,13.46,5.2033,-6.5056,-1.3201,-7.3139,1.9512,-7.1498,6.4078,-6.5056,-1.3201,-3.9869,1.2698,-0.70175,-5.0159,9.0615,5.153,-7.8583,8.91,-3.9216,4.38
-5.7504,5.2063,-0.65041,-7.7939,-1.9802,-6.6667,-2.6016,-5.2174,3.1715,-7.7939,-1.9802,-7.2549,-2.5397,-3.8915,-11.365,1.9417,-2.5765,-4.6377,8.91,-8.4967,3.7359
-10.806,0.7619,-6.5041,-11.014,-8.5809,-11.845,-9.7561,-6.5056,0.58252,-11.014,-8.5809,-12.484,-3.8095,-3.2536,-13.905,-1.2945,-6.4412,-7.2142,5.7504,-9.8039,3.7359
-12.701,-2.4127,-9.1057,-12.303,-12.541,-15.081,-14.959,-7.7939,-2.6537,-12.303,-12.541,-16.405001,-2.5397,1.8501,-13.27,0.0,-6.4412,-10.435,5.1185,-11.111,7.6006
-12.701,-8.7619,-13.659,-12.303,-11.221,-17.67,-17.561001,-9.7262,-5.2427,-12.303,-11.221,-19.02,-3.1746,5.0399,-12.635,-1.2945,-8.3736,-13.655,3.2227,-11.765,8.8889
-13.965,-14.476,-16.910999,-7.1498,-7.9208,-13.139,-13.659,-7.7939,-4.5955,-7.1498,-7.9208,-13.791,-6.9841,2.488,-15.81,-7.767,-14.171,-9.1465,-3.0964,-11.765,5.0242
-9.5419,-17.650999,-15.61,-0.06441,0.0,-4.0777,-2.6016,-2.6409,1.2298,-0.06441,0.0,-2.0261,-11.429,-2.6156,-17.714001,-16.181,-19.968,-8.5024,-4.9921,-12.418,-0.77295
-1.9589,-13.206,-10.407,3.8003,6.6007,4.3366,5.8537,-1.3527,3.1715,3.8003,6.6007,7.1242,-12.698,-7.0813,-15.81,-20.712,-21.256001,-6.57,-3.7283,-11.765,-2.7053
3.0964,-10.667,-7.1545,3.1562,2.6403,5.6311,3.9024,1.2238,1.877,3.1562,2.6403,6.4706,-10.159,-7.0813,-10.095,-17.476,-16.103001,-4.6377,-3.0964,-9.8039,-3.3494
-1.9589,-9.3968,-9.7561,-0.70853,-1.9802,-0.84142,-0.65041,0.57971,0.58252,-0.70853,-1.9802,-0.06536,-8.254,-6.4434,-8.1905,-11.65,-11.594,-3.9936,-2.4645,-9.1503,-2.0612
-2.5908,-2.4127,-6.5041,-1.3527,-2.6403,-1.4887,0.65041,-0.70853,2.5243,-1.3527,-2.6403,-0.06536,-5.7143,-3.8915,-5.0159,-3.8835,-4.5089,-2.0612,0.06319,-6.5359,-0.12882
2.4645,6.4762,2.6016,1.2238,3.3003,3.6893,7.1545,1.2238,4.466,1.2238,3.3003,5.817,-0.63492,0.57416,0.06349,4.5307,3.2206,-1.4171,2.5908,-2.6144,1.8035
8.1517,13.46,9.7561,4.4444,7.9208,8.2201,13.008,4.4444,8.9968,4.4444,7.9208,9.7386,4.4444,4.4019,5.1429,11.003,9.6618,-2.7053,5.7504,0.65359,3.7359
9.4155,18.540001,13.659,8.3092,14.521,10.162,16.910999,7.0209,12.88,8.3092,14.521,12.353,8.254,7.5917,8.9524,16.181,14.171,2.4477,7.0142,3.268,5.0242
13.207,20.444,16.910999,10.242,13.201,10.162,14.959,8.3092,11.586,10.242,13.201,11.046,13.333,11.419,15.302,21.358999,19.968,5.0242,9.5419,7.1895,5.6683
16.997999,21.079,18.211,10.242,9.2409,7.5728,11.707,7.0209,7.7023,10.242,9.2409,9.085,18.413,13.333,22.285999,23.948,25.121,4.38,9.5419,14.379,5.6683
11.943,14.095,14.309,8.3092,5.2805,6.2783,4.5528,7.6651,3.1715,8.3092,5.2805,4.5098,17.143,10.781,18.476,22.006001,21.9,9.533,2.5908,11.765,3.7359
12.575,7.1111,13.008,10.242,7.2607,8.8673,2.6016,8.3092,1.877,10.242,7.2607,4.5098,13.333,6.9537,13.397,17.476,16.747,10.821,3.2227,9.1503,3.7359
12.575,1.3968,8.4553,9.5974,9.2409,6.9256,1.3008,3.8003,0.58252,9.5974,9.2409,3.8562,6.3492,3.126,7.6825,11.003,10.306,3.0918,5.7504,5.8824,4.38
4.9921,-5.5873,1.3008,4.4444,6.6007,0.45307,-2.6016,-1.9968,-1.3592,4.4444,6.6007,-0.06536,-1.9048,-1.3397,-0.57143,3.2362,1.9324,-2.7053,2.5908,-1.3072,1.8035
-3.8547,-11.302,-5.2033,1.868,0.0,-6.0194,-5.2033,-3.9291,-3.301,1.868,0.0,-3.9869,-7.619,-5.1675,-5.6508,-5.8252,-6.4412,-5.2818,-4.3602,-3.9216,-2.0612
-12.07,-20.190001,-13.008,-0.70853,-1.3201,-9.9029,-7.8049,-1.9968,-5.89,-0.70853,-1.3201,-6.6013,-13.968,-11.547,-12.0,-18.122999,-17.391001,-2.7053,-8.7836,-7.1895,-6.57
-11.438,-18.921,-14.309,-3.285,-2.6403,-9.9029,-5.8537,-3.285,-6.5372,-3.285,-2.6403,-5.9477,-17.143,-13.461,-13.27,-23.301001,-22.544001,-3.9936,-10.679,-6.5359,-7.2142
-10.174,-13.206,-9.7561,-5.2174,-6.6007,-8.6084,-3.9024,-5.2174,-3.9482,-5.2174,-6.6007,-4.6405,-17.143,-10.909,-15.175,-18.122999,-19.968,-5.2818,-8.1517,-11.765,-4.6377
-10.174,-7.4921,-5.2033,-9.7262,-11.881,-11.197,-6.5041,-7.7939,-4.5955,-9.7262,-11.881,-7.9085,-12.698,-5.1675,-13.905,-9.0615,-12.238,-5.9259,-2.4645,-13.725,-0.77295
-8.278,-1.7778,-1.9512,-11.014,-14.521,-11.197,-10.407,-7.7939,-6.5372,-11.014,-14.521,-11.176,-3.1746,2.488,-5.6508,1.9417,-0.64412,-5.9259,5.1185,-7.8431,5.0242
-5.1185,0.7619,-3.252,-12.303,-14.521,-13.786,-13.008,-9.0821,-7.1845,-12.303,-14.521,-13.791,4.4444,5.0399,1.3333,6.4725,6.4412,-3.9936,3.8547,-3.268,5.6683
4.3602,3.3016,-2.6016,-11.014,-9.901,-9.9029,-11.707,-10.37,-4.5955,-11.014,-9.901,-12.484,10.794,6.9537,8.9524,9.0615,10.95,-0.12882,2.5908,3.9216,3.7359
13.839,6.4762,1.3008,-5.2174,-7.9208,-5.3722,-8.4553,-3.9291,-2.6537,-5.2174,-7.9208,-8.5621,17.143,6.9537,16.570999,11.65,15.459,-0.12882,1.9589,9.8039,2.4477
7.5197,7.1111,0.0,-1.3527,-7.2607,-4.0777,-6.5041,1.2238,-2.6537,-1.3527,-7.2607,-6.6013,15.238,2.488,12.762,7.767,12.238,3.0918,-1.2006,9.8039,-3.3494
-0.6951,2.6667,-1.3008,3.8003,-0.66007,-0.19417,-1.3008,4.4444,0.58252,3.8003,-0.66007,-1.3725,9.5238,-3.2536,1.3333,0.64725,4.5089,6.9565,-4.3602,3.268,-7.8583
-4.4866,0.7619,0.65041,8.9533,5.9406,3.6893,3.252,7.0209,3.1715,8.9533,5.9406,3.8562,2.5397,-5.8054,-7.5556,-4.5307,-1.9324,5.0242,-3.0964,-1.9608,-7.8583
-3.2227,-4.3175,3.252,12.174,12.541,8.2201,5.8537,7.0209,3.1715,12.174,12.541,8.4314,-1.9048,-6.4434,-10.73,-9.0615,-6.4412,1.8035,-4.3602,-3.268,-7.2142
-0.6951,-12.571,4.5528,13.462,13.861,9.5146,3.9024,7.0209,-0.71197,13.462,13.861,9.7386,-4.4444,-5.8054,-9.4603,-13.592,-9.0177,-0.12882,-10.047,-3.9216,-8.5024
-0.06319,-14.476,5.8537,13.462,11.881,8.8673,3.252,6.3768,-4.5955,13.462,11.881,9.7386,-5.0794,-3.2536,-6.2857,-14.239,-8.3736,0.5153,-11.311,-2.6144,-7.2142
-0.6951,-11.937,2.6016,8.9533,5.9406,4.9838,0.0,1.868,-4.5955,8.9533,5.9406,5.1634,-5.0794,-0.0638,-2.4762,-10.356,-5.153,-1.4171,-9.4155,-1.9608,-2.7053
1.8325,-4.3175,-2.6016,1.868,-2.6403,-2.7832,-4.5528,-3.285,-4.5955,1.868,-2.6403,-3.9869,-3.1746,2.488,3.873,-2.589,-1.2882,-7.2142,-4.3602,2.6144,3.0918
-0.6951,2.0317,-7.1545,-4.5733,-5.9406,-9.9029,-8.4553,-9.0821,-5.89,-4.5733,-5.9406,-10.523,-2.5397,3.126,4.5079,3.8835,1.2882,-5.2818,1.9589,0.65359,6.3124
-5.7504,2.0317,-9.7561,-5.8615,-9.2409,-10.55,-12.358,-7.7939,-6.5372,-5.8615,-9.2409,-13.791,0.0,2.488,3.873,7.767,1.9324,3.0918,3.2227,1.9608,6.9565
-3.8547,3.9365,-7.8049,-5.2174,-9.901,-8.6084,-12.358,-3.285,-6.5372,-5.2174,-9.901,-13.137,4.4444,3.764,4.5079,9.7087,3.8647,1.8035,2.5908,3.268,6.3124
3.7283,10.286,0.65041,-4.5733,-5.9406,-2.7832,-6.5041,-1.9968,-2.6537,-4.5733,-5.9406,-5.2941,9.5238,5.0399,6.4127,12.298,7.7295,-0.12882,8.91,4.5752,7.6006
1.8325,10.286,6.5041,-4.5733,-3.9604,1.1003,-1.3008,-1.9968,-0.71197,-4.5733,-3.9604,0.58824,10.794,3.764,4.5079,11.65,7.7295,1.8035,8.278,5.8824,6.3124
1.8325,9.6508,9.7561,-3.9291,-3.3003,1.7476,1.3008,-2.6409,0.58252,-3.9291,-3.3003,3.2026,12.698,2.488,5.7778,10.356,9.0177,1.8035,6.3823,7.1895,4.38
6.2559,7.746,13.008,1.2238,3.9604,4.3366,5.8537,-0.70853,3.1715,1.2238,3.9604,7.1242,17.143,5.0399,13.397,11.003,13.527,1.1594,7.0142,13.725,3.0918
14.471,5.2063,13.008,5.7327,4.6205,7.5728,7.1545,3.1562,1.877,5.7327,4.6205,9.085,18.413,4.4019,17.841,6.4725,14.815,1.8035,1.9589,13.725,-0.12882
16.367001,-5.5873,10.407,9.5974,8.5809,12.751,7.1545,7.0209,2.5243,9.5974,8.5809,11.699,12.698,-2.6156,14.032,-5.178,9.0177,8.8889,-6.2559,10.458,-7.8583
12.575,-13.841,5.2033,15.395,14.521,15.987,7.8049,10.886,3.1715,15.395,14.521,13.66,4.4444,-11.547,7.0476,-17.476,-1.2882,12.754,-11.943,8.4967,-16.232
12.575,-11.937,5.2033,21.836,15.182,19.223,9.7561,15.395,1.877,21.836,15.182,17.582001,0.63492,-14.099,7.0476,-20.712,-4.5089,14.042,-14.471,8.4967,-18.164
18.261999,-4.3175,12.358,17.971001,12.541,19.223,9.1057,12.818,0.58252,17.971001,12.541,16.927999,5.0794,-7.0813,15.937,-10.356,4.5089,13.398,-12.575,17.646999,-13.011
11.943,5.2063,14.309,10.242,8.5809,9.5146,6.5041,9.5974,-0.06472,10.242,8.5809,10.392,6.9841,-0.0638,18.476,3.2362,12.882,10.821,-7.5197,11.765,-5.9259
4.9921,8.381,9.1057,3.8003,3.3003,-0.19417,0.65041,4.4444,-2.0065,3.8003,3.3003,0.58824,8.8889,5.0399,15.302,13.592,16.103001,5.0242,0.06319,6.5359,2.4477
2.4645,9.6508,3.9024,0.57971,0.0,-2.7832,-3.9024,-0.70853,-3.301,0.57971,0.0,-5.2941,11.429,10.781,12.127,19.417,15.459,-3.3494,5.1185,6.5359,8.2448
-5.1185,9.6508,-2.6016,-4.5733,-3.3003,-7.3139,-5.2033,-5.8615,-2.6537,-4.5733,-3.3003,-9.2157,8.254,12.057,2.6032,19.417,9.0177,-5.2818,7.0142,1.3072,10.177
-11.438,7.1111,-8.4553,-9.0821,-5.2805,-8.6084,-6.5041,-7.1498,-0.71197,-9.0821,-5.2805,-10.523,5.0794,12.695,-4.381,17.476,2.5765,-0.77295,7.0142,-1.9608,10.821
-13.333,3.3016,-11.707,-9.7262,-7.2607,-9.9029,-7.8049,-5.8615,-0.71197,-9.7262,-7.2607,-11.83,3.8095,13.971,-6.2857,13.592,-1.2882,-2.0612,7.6461,-3.268,10.821
-12.07,0.7619,-14.959,-7.7939,-5.9406,-9.9029,-8.4553,-7.7939,-0.06472,-7.7939,-5.9406,-13.137,0.63492,12.057,-8.8254,7.1197,-6.4412,-6.57,5.7504,-4.5752,9.533
-13.965,-6.2222,-19.511999,-1.3527,-2.6403,-4.7249,-5.8537,-3.9291,2.5243,-1.3527,-2.6403,-9.8693,-4.4444,6.3158,-13.905,-3.2362,-13.527,-7.8583,3.2227,-7.8431,5.0242
-12.701,-11.937,-18.862,5.0886,3.9604,0.45307,-1.9512,5.0886,3.1715,5.0886,3.9604,-3.9869,-7.619,0.57416,-15.81,-12.298,-16.747,-2.7053,0.06319,-9.8039,0.5153
-5.7504,-13.206,-11.707,9.5974,7.9208,4.3366,2.6016,7.0209,1.2298,9.5974,7.9208,3.2026,-8.8889,-4.5295,-13.27,-20.065001,-18.035,0.5153,-4.9921,-7.8431,-5.9259
4.3602,-14.476,-3.252,13.462,10.561,10.809,6.5041,9.5974,1.2298,13.462,10.561,11.046,-10.159,-8.3573,-6.2857,-24.594999,-16.747,1.8035,-8.7836,-3.268,-11.079
10.047,-12.571,3.9024,16.683001,14.521,16.634001,9.7561,12.174,3.1715,16.683001,14.521,16.275,-12.063,-12.185,-4.381,-24.594999,-14.815,3.0918,-10.047,-2.6144,-13.655
8.1517,-4.9524,7.1545,14.75,12.541,14.045,9.1057,8.3092,4.466,14.75,12.541,14.314,-12.698,-14.737,-1.8413,-19.417,-10.306,3.7359,-9.4155,1.3072,-13.655
3.0964,4.5714,9.7561,10.242,8.5809,9.5146,9.1057,7.0209,5.7605,10.242,8.5809,10.392,-8.8889,-11.547,2.6032,-8.4142,-1.2882,8.2448,-1.8325,0.65359,-8.5024
0.56872,7.746,8.4553,3.8003,3.9604,2.3948,4.5528,5.0886,5.1133,3.8003,3.9604,3.2026,-6.9841,-9.6332,3.2381,-0.64725,3.8647,6.9565,3.8547,-3.268,-3.9936
6.8878,9.6508,9.7561,0.57971,3.3003,1.1003,3.252,-0.06441,5.7605,0.57971,3.3003,1.8954,-1.9048,-3.8915,5.7778,5.8252,7.7295,1.8035,6.3823,-1.9608,1.1594
1.8325,8.381,6.5041,-1.9968,-0.66007,-2.7832,0.0,-2.6409,1.877,-1.9968,-0.66007,-2.0261,2.5397,3.126,4.5079,9.0615,6.4412,-0.12882,4.4866,0.65359,4.38
-5.7504,7.1111,-1.9512,-7.1498,-7.2607,-7.3139,-3.252,-6.5056,-1.3592,-7.1498,-7.2607,-5.9477,1.2698,6.9537,-2.4762,9.0615,0.0,-7.2142,3.8547,-3.9216,6.3124
-12.701,7.746,-7.1545,-6.5056,-4.6205,-7.9612,-1.3008,-6.5056,2.5243,-6.5056,-4.6205,-4.6405,1.2698,10.781,-10.095,11.65,-3.8647,-11.079,6.3823,-5.2288,10.821
-12.07,6.4762,-8.4553,-1.3527,1.9802,-2.1359,0.65041,-5.2174,3.8188,-1.3527,1.9802,-0.71895,0.63492,12.695,-12.0,13.592,-3.8647,-9.1465,8.278,-8.4967,13.398
-10.174,3.3016,-6.5041,2.5121,3.3003,-0.84142,0.65041,-3.285,3.1715,2.5121,3.3003,1.8954,0.0,11.419,-10.095,11.65,-2.5765,-5.2818,9.5419,-8.4967,12.754
-9.5419,-1.7778,-5.8537,4.4444,4.6205,0.45307,1.3008,-0.70853,3.1715,4.4444,4.6205,3.8562,-1.9048,6.9537,-7.5556,5.8252,-4.5089,-2.7053,7.0142,-7.8431,9.533
-2.5908,-6.2222,-4.5528,7.6651,4.6205,4.9838,1.9512,3.1562,0.58252,7.6651,4.6205,6.4706,-0.63492,4.4019,-1.8413,-0.64725,-4.5089,-0.77295,1.327,-2.6144,5.0242
6.2559,-9.3968,-0.65041,12.818,6.6007,9.5146,3.252,5.0886,-0.06472,12.818,6.6007,9.7386,0.0,3.126,3.873,-3.2362,-2.5765,1.8035,0.06319,1.3072,3.0918
10.679,-3.0476,5.8537,13.462,9.901,13.398,6.5041,7.6651,-1.3592,13.462,9.901,13.007,-0.63492,1.8501,5.1429,-1.9417,0.0,1.1594,-1.8325,3.9216,1.8035
9.4155,2.6667,10.407,14.75,14.521,17.929001,10.407,12.174,2.5243,14.75,14.521,16.927999,-0.63492,2.488,5.1429,2.589,3.2206,5.0242,-1.8325,7.1895,1.8035
10.047,7.1111,11.707,17.971001,13.201,19.871,13.659,14.106,3.1715,17.971001,13.201,18.889,-1.2698,2.488,2.6032,5.8252,5.153,7.6006,-0.56872,2.6144,1.1594
7.5197,10.286,13.659,19.259001,11.221,17.929001,15.61,16.039,3.8188,19.259001,11.221,18.889,-2.5397,1.2121,1.3333,7.1197,6.4412,9.533,0.6951,-1.3072,0.5153
7.5197,11.556,17.561001,14.75,13.861,14.693,16.26,13.462,5.7605,14.75,13.861,17.582001,0.63492,1.8501,5.7778,8.4142,10.306,8.8889,1.327,1.3072,-0.12882
9.4155,10.921,17.561001,9.5974,9.901,8.8673,11.057,9.5974,4.466,9.5974,9.901,11.046,5.0794,2.488,12.127,9.0615,14.171,8.2448,0.6951,5.2288,-0.77295
12.575,12.825,15.61,7.0209,5.2805,4.9838,6.5041,8.9533,2.5243,7.0209,5.2805,5.1634,11.429,5.0399,19.746,11.65,19.323999,6.9565,-0.56872,9.8039,-0.12882
13.207,8.381,7.8049,1.2238,2.6403,1.7476,0.0,1.868,1.877,1.2238,2.6403,-1.3725,12.698,5.6778,19.746,11.003,18.035,6.3124,0.6951,9.8039,1.1594
10.679,0.12698,3.252,1.2238,2.6403,3.6893,-1.3008,3.8003,3.1715,1.2238,2.6403,-0.71895,12.698,5.0399,17.205999,7.767,14.171,3.0918,1.327,11.765,-0.12882
11.311,0.7619,5.2033,7.0209,7.2607,10.809,7.1545,8.9533,7.055,7.0209,7.2607,7.7778,9.5238,2.488,10.222,3.8835,9.0177,6.9565,1.327,5.8824,-2.0612
8.1517,2.0317,7.1545,10.886,11.881,14.045,13.659,10.242,7.7023,10.886,11.881,14.967,6.9841,0.57416,4.5079,0.0,5.153,12.11,0.6951,3.9216,-5.2818
3.7283,2.0317,9.7561,13.462,13.861,14.045,14.959,10.242,7.055,13.462,13.861,17.582001,4.4444,-1.3397,2.6032,-2.589,3.8647,9.533,-2.4645,3.268,-7.8583
2.4645,0.12698,9.7561,10.242,9.2409,9.5146,8.4553,5.7327,5.1133,10.242,9.2409,13.007,2.5397,-1.3397,0.69841,-1.9417,2.5765,4.38,-2.4645,1.3072,-7.2142
-4.4866,0.12698,1.3008,5.7327,4.6205,2.3948,1.3008,3.8003,1.2298,5.7327,4.6205,3.8562,-1.2698,-5.1675,-3.746,-5.178,-3.2206,3.0918,-4.3602,1.3072,-7.8583
-5.1185,-3.0476,-5.8537,4.4444,3.9604,0.45307,-1.3008,1.868,2.5243,4.4444,3.9604,-0.71895,-5.0794,-10.271,-5.6508,-10.356,-10.95,-0.77295,-3.0964,4.5752,-9.1465
4.3602,-4.3175,-7.1545,7.6651,7.2607,3.0421,1.3008,0.57971,4.466,7.6651,7.2607,1.8954,-6.9841,-12.823,-6.2857,-13.592,-15.459,-4.6377,-1.8325,1.3072,-8.5024
-1.9589,-1.7778,-9.1057,8.9533,5.9406,0.45307,1.3008,1.2238,3.8188,8.9533,5.9406,0.58824,-10.794,-14.737,-10.73,-13.592,-18.68,-3.9936,-3.7283,-3.9216,-8.5024
-10.174,0.12698,-9.7561,1.868,2.6403,-6.0194,-1.3008,-1.9968,1.2298,1.868,2.6403,-4.6405,-10.794,-13.461,-11.365,-9.7087,-16.103001,-0.77295,-3.0964,-3.9216,-5.9259
-5.7504,3.3016,-7.1545,-3.9291,-2.6403,-7.3139,-6.5041,-5.2174,-2.0065,-3.9291,-2.6403,-9.2157,-5.0794,-5.8054,-2.4762,1.2945,-4.5089,-0.12882,0.06319,-1.3072,-2.7053
-7.0142,5.2063,-6.5041,-5.2174,-7.9208,-10.55,-11.057,-5.8615,-4.5955,-5.2174,-7.9208,-13.137,2.5397,3.126,3.873,11.003,5.153,0.5153,3.2227,3.268,3.0918
-4.4866,5.2063,-5.8537,-2.6409,-7.2607,-8.6084,-11.057,-1.3527,-4.5955,-2.6409,-7.2607,-12.484,6.9841,6.9537,8.3175,14.239,9.6618,-0.12882,5.7504,7.8431,5.0242
-0.6951,1.3968,-3.252,3.8003,1.3201,-0.84142,-5.2033,3.8003,-2.6537,3.8003,1.3201,-4.6405,6.9841,5.0399,6.4127,9.0615,8.3736,4.38,5.1185,5.2288,2.4477
1.8325,-8.7619,-1.9512,12.174,9.2409,8.8673,5.2033,7.6651,2.5243,12.174,9.2409,7.1242,3.1746,-1.9777,1.9683,-3.8835,1.9324,4.38,-1.2006,1.9608,-5.2818
6.8878,-15.746,1.3008,19.903,15.842,13.398,14.309,12.174,5.7605,19.903,15.842,16.275,-2.5397,-10.271,0.69841,-17.476,-3.8647,2.4477,-10.047,1.3072,-13.011
2.4645,-22.73,-1.3008,17.327,13.201,10.809,7.8049,14.75,-0.06472,17.327,13.201,12.353,-6.9841,-15.375,-2.4762,-24.594999,-8.3736,5.0242,-15.735,0.65359,-17.52
-7.0142,-25.27,-10.407,12.818,6.6007,4.9838,-2.6016,11.53,-5.2427,12.818,6.6007,3.2026,-8.8889,-16.650999,-8.8254,-25.889999,-14.171,7.6006,-16.367001,-0.65359,-18.164
-9.5419,-15.746,-15.61,10.886,2.6403,3.0421,-5.2033,8.3092,-5.89,10.886,2.6403,-0.06536,-10.159,-16.650999,-14.54,-23.301001,-19.323999,5.0242,-15.103,-1.3072,-15.588
-9.5419,-6.2222,-14.959,8.3092,0.66007,1.1003,-6.5041,6.3768,-7.1845,8.3092,0.66007,-2.6797,-12.698,-17.927,-18.349001,-20.065001,-22.544001,-0.77295,-11.943,-1.9608,-14.3
-3.8547,-1.1429,-7.8049,7.0209,2.6403,-1.4887,-5.8537,3.1562,-6.5372,7.0209,2.6403,-2.6797,-10.794,-14.737,-15.175,-12.945,-18.68,-2.7053,-4.9921,-5.2288,-9.1465
-3.2227,2.6667,-1.3008,-1.3527,-2.6403,-7.9612,-7.8049,-5.2174,-7.8317,-1.3527,-2.6403,-7.9085,-6.3492,-10.909,-7.5556,-5.8252,-9.6618,-2.7053,-1.8325,-3.9216,-3.9936
-4.4866,4.5714,-0.65041,-7.7939,-9.901,-15.728,-13.659,-13.591,-9.7735,-7.7939,-9.901,-15.752,0.0,-3.8915,0.06349,1.9417,-0.64412,-7.2142,4.4866,-0.65359,3.7359
-9.5419,3.3016,-8.4553,-11.659,-13.861,-24.142,-21.462999,-18.1,-9.7735,-11.659,-13.861,-25.556,1.9048,1.2121,1.9683,7.1197,3.2206,-13.011,8.278,-1.3072,8.8889
-20.916,-1.1429,-20.813,-14.235,-15.182,-28.025999,-27.316999,-16.167,-11.068,-14.235,-15.182,-32.744999,-2.5397,-0.0638,-5.0159,5.178,-1.2882,-12.367,7.0142,-3.9216,9.533
-24.076,-3.0476,-24.715,-11.659,-12.541,-24.142,-26.016001,-12.303,-8.479,-11.659,-12.541,-30.784,-6.3492,-0.70175,-8.8254,3.8835,-4.5089,-9.7907,6.3823,-5.8824,10.177
-7.0142,1.3968,-13.659,-6.5056,-7.9208,-13.786,-13.659,-7.7939,-4.5955,-6.5056,-7.9208,-17.712,-5.0794,-0.0638,-2.4762,3.8835,-2.5765,-11.723,8.91,-0.65359,10.821
-1.9589,-1.1429,-0.65041,0.57971,-3.3003,-2.1359,-2.6016,0.57971,-2.0065,0.57971,-3.3003,-3.3333,-6.9841,-1.9777,-1.8413,0.0,-2.5765,-0.12882,7.6461,0.0,6.9565
0.56872,-3.0476,9.7561,8.3092,2.6403,8.2201,7.1545,8.3092,-1.3592,8.3092,2.6403,10.392,-6.9841,-3.8915,-1.8413,-2.589,-2.5765,10.177,1.9589,1.9608,3.0918
7.5197,-5.5873,9.1057,10.886,5.9406,15.987,10.407,11.53,-2.6537,10.886,5.9406,16.275,-6.3492,-6.4434,0.06349,-7.1197,-5.153,11.465,-6.2559,5.2288,-3.9936
13.839,-8.127,5.2033,15.395,9.901,22.459999,13.008,16.039,-0.71197,15.395,9.901,20.195999,-3.8095,-9.6332,3.2381,-12.298,-7.0853,15.33,-10.047,9.1503,-8.5024
19.525999,-10.667,3.9024,17.327,7.9208,24.400999,12.358,19.903,-1.3592,17.327,7.9208,20.195999,-1.9048,-13.461,7.0476,-16.827999,-7.7295,15.33,-14.471,13.072,-13.011
23.318001,-4.3175,9.7561,14.75,7.2607,23.754,14.309,19.259001,-0.71197,14.75,7.2607,20.85,1.9048,-12.823,11.492,-14.239,-4.5089,18.551001,-11.311,15.686,-14.944
22.054001,5.2063,17.561001,10.886,6.6007,21.165001,15.61,19.903,-0.06472,10.886,6.6007,20.195999,9.5238,-7.0813,17.841,-4.5307,4.5089,21.771,-6.2559,23.528999,-11.723
21.422001,8.381,24.065001,5.0886,3.3003,14.045,11.707,15.395,-2.6537,5.0886,3.3003,14.967,12.698,-1.9777,21.016001,3.2362,12.238,23.059999,-7.5197,23.528999,-11.079
17.629999,12.19,24.715,-1.3527,-2.6403,4.9838,7.8049,5.7327,-3.9482,-1.3527,-2.6403,7.7778,12.698,0.57416,19.746,9.0615,16.747,21.127001,-6.2559,19.608,-10.435
9.4155,12.825,14.309,-6.5056,-7.2607,-4.7249,1.3008,-0.70853,-2.6537,-6.5056,-7.2607,-2.6797,8.254,0.57416,14.032,11.65,14.171,9.533,-3.0964,13.072,-6.57
1.8325,12.825,-0.65041,-9.0821,-3.9604,-9.2557,0.0,-6.5056,1.2298,-9.0821,-3.9604,-7.9085,1.9048,0.57416,4.5079,11.003,7.7295,-0.77295,1.327,2.6144,-1.4171
-8.278,11.556,-11.057,-7.1498,2.6403,-9.2557,1.9512,-8.438,5.7605,-7.1498,2.6403,-7.2549,-3.8095,-0.70175,-4.381,8.4142,0.64412,-7.2142,8.91,-5.8824,3.0918
-13.333,11.556,-10.407,-2.6409,7.9208,-8.6084,6.5041,-5.8615,10.291,-2.6409,7.9208,-3.9869,-8.8889,-0.70175,-8.8254,7.1197,-2.5765,-13.011,12.701,-13.725,8.2448
-15.861,13.46,-0.65041,-0.70853,7.2607,-6.6667,7.1545,-3.285,9.644,-0.70853,7.2607,-1.3725,-10.794,1.2121,-11.365,7.767,-1.9324,-13.011,13.965,-18.954,12.754
-4.4866,5.8413,7.1545,-0.70853,3.9604,-3.4304,3.252,-7.1498,5.7605,-0.70853,3.9604,-0.71895,-10.794,3.126,-10.73,7.1197,0.0,-12.367,12.701,-19.608,14.042
-8.278,-5.5873,3.252,-4.5733,-1.9802,-5.3722,-6.5041,-5.8615,-1.3592,-4.5733,-1.9802,-6.6013,-12.698,0.57416,-13.27,1.9417,-4.5089,-7.8583,5.7504,-17.646999,10.177
-11.438,-10.032,-2.6016,-5.2174,-7.2607,-4.7249,-11.707,-1.9968,-6.5372,-5.2174,-7.2607,-8.5621,-14.603,-3.2536,-14.54,-3.2362,-8.3736,-3.3494,-1.8325,-13.725,5.6683
-0.6951,-9.3968,-1.9512,-1.9968,-5.2805,0.45307,-11.707,-1.9968,-5.89,-1.9968,-5.2805,-5.2941,-13.333,-4.5295,-9.4603,-3.8835,-7.0853,-3.3494,-6.2559,-9.8039,1.8035
4.9921,-5.5873,0.0,-1.3527,-4.6205,3.0421,-9.7561,0.57971,-4.5955,-1.3527,-4.6205,-2.0261,-8.8889,-2.6156,-1.8413,-2.589,-3.2206,0.5153,-4.3602,-3.268,1.8035
14.471,-2.4127,1.9512,-1.3527,-5.9406,4.9838,-8.4553,-0.06441,-4.5955,-1.3527,-5.9406,-0.06536,-4.4444,-0.0638,7.0476,0.64725,0.0,-2.7053,-1.8325,2.6144,1.8035
12.575,4.5714,4.5528,-3.285,-6.6007,2.3948,-3.252,-1.9968,-3.9482,-3.285,-6.6007,0.58824,-3.8095,2.488,6.4127,3.2362,1.9324,-2.7053,-1.8325,0.0,2.4477
6.8878,4.5714,6.5041,-5.2174,-7.9208,0.45307,-1.3008,-3.9291,-2.0065,-5.2174,-7.9208,0.58824,-2.5397,5.0399,2.6032,5.178,2.5765,1.1594,0.6951,-3.9216,3.7359
-1.327,2.0317,3.9024,-5.2174,-6.6007,-2.7832,-1.9512,-1.9968,-0.71197,-5.2174,-6.6007,-2.0261,-1.2698,6.9537,-1.2063,5.178,2.5765,-2.0612,2.5908,-4.5752,4.38
1.8325,4.5714,3.9024,-6.5056,-4.6205,-3.4304,0.0,-6.5056,1.2298,-6.5056,-4.6205,-2.0261,1.2698,10.781,-2.4762,8.4142,5.153,-11.079,7.0142,-6.5359,7.6006
-3.2227,5.8413,1.9512,-5.2174,-5.2805,-2.7832,0.0,-9.0821,2.5243,-5.2174,-5.2805,-2.0261,5.7143,16.523001,-1.8413,12.298,8.3736,-11.079,10.174,-5.2288,11.465
-13.965,3.3016,-5.8537,-4.5733,-3.9604,-7.3139,-2.6016,-7.1498,2.5243,-4.5733,-3.9604,-5.2941,8.254,19.075001,-2.4762,12.298,9.6618,-12.367,6.3823,-3.9216,10.821
-13.965,0.7619,-11.057,-4.5733,0.0,-7.3139,-2.6016,-7.7939,4.466,-4.5733,0.0,-5.2941,8.254,17.799,-2.4762,9.7087,8.3736,-13.655,9.5419,-6.5359,11.465
-15.229,-3.6825,-18.211,-5.8615,1.3201,-9.2557,-2.6016,-8.438,5.7605,-5.8615,1.3201,-6.6013,4.4444,10.781,-5.6508,0.0,0.0,-14.3,9.5419,-9.1503,8.2448
-13.333,-2.4127,-21.462999,-5.2174,0.66007,-9.9029,-1.9512,-7.1498,5.7605,-5.2174,0.66007,-7.9085,0.0,3.764,-6.9206,-7.1197,-6.4412,-13.655,5.1185,-9.1503,3.7359
-9.5419,-3.0476,-19.511999,-1.3527,1.3201,-5.3722,0.65041,-3.285,5.7605,-1.3527,1.3201,-5.2941,-2.5397,-0.0638,-8.8254,-9.0615,-9.0177,-6.57,1.9589,-7.8431,1.1594
-8.278,-3.0476,-13.008,-0.70853,3.3003,-3.4304,3.252,1.2238,7.055,-0.70853,3.3003,-2.6797,-3.1746,-1.9777,-9.4603,-7.1197,-7.0853,-0.77295,1.9589,-5.8824,0.5153
8.7836,1.3968,0.65041,0.57971,3.3003,4.3366,5.8537,3.8003,5.7605,0.57971,3.3003,1.8954,-1.2698,0.57416,-1.8413,0.0,0.64412,1.1594,1.9589,-1.9608,2.4477
14.471,5.2063,9.1057,0.57971,1.3201,4.9838,3.252,3.1562,3.8188,0.57971,1.3201,1.8954,-1.2698,2.488,3.873,5.8252,6.4412,3.0918,-1.2006,1.3072,2.4477
9.4155,5.8413,11.707,-0.06441,-3.3003,1.1003,0.65041,5.7327,1.2298,-0.06441,-3.3003,-0.06536,-3.8095,1.2121,3.873,7.767,7.7295,6.3124,0.06319,0.0,3.0918
8.7836,-0.50794,10.407,-1.9968,-7.2607,-0.19417,-5.8537,3.8003,-2.6537,-1.9968,-7.2607,-2.6797,-5.0794,-1.3397,3.2381,5.178,5.7971,5.0242,0.6951,-1.3072,3.0918
5.624,-2.4127,8.4553,-5.2174,-5.2805,-4.7249,-7.1545,-1.3527,-3.301,-5.2174,-5.2805,-3.9869,-1.9048,-0.70175,4.5079,3.8835,6.4412,-0.77295,0.6951,0.0,4.38
2.4645,-3.0476,6.5041,-7.7939,-4.6205,-8.6084,-7.8049,-5.8615,-3.301,-7.7939,-4.6205,-6.6013,3.1746,3.764,5.1429,5.8252,7.7295,-5.2818,0.6951,-1.3072,5.6683
-0.06319,-4.9524,3.9024,-7.1498,-6.6007,-9.2557,-9.1057,-12.303,-5.2427,-7.1498,-6.6007,-7.2549,9.5238,10.144,5.7778,9.7087,9.6618,-9.1465,0.06319,1.9608,6.9565
-2.5908,-2.4127,0.0,-11.659,-6.6007,-12.492,-10.407,-14.879,-7.1845,-11.659,-6.6007,-9.2157,15.238,15.885,5.1429,14.239,10.95,-11.079,1.327,0.0,10.177
-14.597,-4.9524,-10.407,-15.523,-10.561,-19.612,-13.008,-16.812,-7.1845,-15.523,-10.561,-13.791,13.333,12.695,-1.8413,8.4142,3.8647,-9.7907,2.5908,-3.268,8.2448
-22.18,-9.3968,-21.462999,-11.659,-7.9208,-18.316999,-8.4553,-16.812,-3.301,-11.659,-7.9208,-9.8693,3.8095,3.764,-14.54,-5.178,-11.594,-9.7907,-0.56872,-7.8431,3.0918
-21.548,-13.206,-26.667,-5.2174,-1.9802,-13.139,-3.252,-14.235,0.58252,-5.2174,-1.9802,-4.6405,-3.8095,-3.8915,-22.794001,-17.476,-23.188,-12.367,-1.8325,-9.8039,-1.4171
-25.34,-13.841,-24.715,-3.9291,-1.3201,-11.845,-1.3008,-9.7262,-0.06472,-3.9291,-1.3201,-3.9869,-6.9841,-6.4434,-24.698,-20.065001,-24.476999,-9.7907,-1.2006,-9.8039,-2.7053
-20.284,-6.8571,-14.959,-5.8615,-2.6403,-9.9029,-2.6016,-7.7939,0.58252,-5.8615,-2.6403,-4.6405,-5.7143,-1.9777,-19.618999,-12.298,-16.103001,-11.079,-1.2006,-8.4967,-0.12882
-15.229,-5.5873,-8.4553,-9.0821,-6.6007,-9.2557,-5.8537,-5.8615,-0.06472,-9.0821,-6.6007,-7.9085,-5.7143,0.57416,-16.444,-6.4725,-10.306,-8.5024,0.06319,-7.1895,2.4477
-11.438,-6.2222,-7.8049,-11.659,-11.221,-10.55,-11.057,-8.438,-3.301,-11.659,-11.221,-12.484,-6.3492,0.57416,-14.54,-3.8835,-8.3736,-3.9936,-1.8325,-6.5359,3.7359
-10.174,-4.9524,-10.407,-14.235,-11.221,-13.786,-12.358,-8.438,-5.89,-14.235,-11.221,-15.752,-5.0794,1.8501,-11.365,-2.589,-7.0853,-1.4171,-3.0964,-6.5359,4.38
-7.0142,-3.6825,-7.8049,-11.659,-7.9208,-11.845,-9.1057,-3.285,-3.9482,-11.659,-7.9208,-13.791,0.0,3.764,-4.381,0.0,-4.5089,-0.12882,-1.8325,-0.65359,5.0242
3.0964,0.7619,0.0,-5.8615,-3.9604,-4.7249,-1.3008,-1.9968,-1.3592,-5.8615,-3.9604,-5.9477,6.3492,3.764,3.873,2.589,0.0,-0.12882,-2.4645,5.8824,5.6683
6.2559,0.12698,3.252,-2.6409,-1.3201,-1.4887,0.0,-0.06441,-2.0065,-2.6409,-1.3201,-2.6797,8.8889,1.8501,7.6825,1.2945,0.64412,3.0918,-1.2006,8.4967,3.7359
0.56872,-3.0476,1.9512,-1.9968,-1.9802,-2.7832,-3.252,2.5121,-5.2427,-1.9968,-1.9802,-3.9869,9.5238,-0.70175,6.4127,-1.9417,-0.64412,6.9565,-1.8325,9.8039,-0.12882
5.624,-1.7778,1.9512,-1.9968,-3.9604,-0.19417,-3.9024,1.2238,-6.5372,-1.9968,-3.9604,-3.9869,12.063,-0.70175,8.3175,-2.589,-0.64412,5.6683,-5.624,11.111,-2.0612
1.8325,-4.9524,-4.5528,-1.9968,0.0,-3.4304,-1.3008,-0.06441,-2.0065,-1.9968,0.0,-3.9869,13.333,-0.0638,7.6825,-3.8835,-1.9324,1.1594,-4.3602,11.765,-3.3494
-4.4866,-6.8571,-13.008,1.868,6.6007,-4.0777,3.9024,1.868,5.1133,1.868,6.6007,-2.0261,11.429,0.57416,0.69841,-5.178,-5.7971,-2.7053,-0.56872,6.5359,-2.7053
-10.806,-5.5873,-18.211,3.1562,9.901,-2.1359,5.8537,-0.70853,7.055,3.1562,9.901,-0.71895,4.4444,-1.9777,-10.73,-7.1197,-12.238,-3.3494,-1.2006,-3.9216,-4.6377
-15.229,-2.4127,-13.659,5.0886,11.881,-0.84142,7.1545,1.868,6.4078,5.0886,11.881,1.8954,-0.63492,-1.9777,-18.983999,-6.4725,-14.171,-2.7053,-1.8325,-7.1895,-5.2818
-12.07,4.5714,-4.5528,3.1562,7.2607,2.3948,7.8049,3.1562,7.055,3.1562,7.2607,4.5098,-3.8095,-1.3397,-20.254,-1.9417,-11.594,-3.3494,3.2227,-8.4967,-2.7053
-0.06319,8.381,3.252,1.2238,6.6007,4.3366,8.4553,-1.3527,9.644,1.2238,6.6007,5.817,-5.7143,-2.6156,-15.81,0.0,-7.0853,-7.2142,7.6461,-7.8431,-2.0612
-4.4866,4.5714,2.6016,-0.70853,7.9208,1.1003,5.2033,-3.285,10.939,-0.70853,7.9208,2.549,-8.8889,-5.8054,-15.175,-3.2362,-7.0853,-4.6377,5.1185,-8.4967,-3.9936
-5.7504,6.4762,4.5528,-3.285,7.9208,-0.19417,6.5041,-5.2174,8.9968,-3.285,7.9208,2.549,-6.9841,-7.7193,-8.8254,-5.178,-5.153,-3.3494,1.9589,-2.6144,-3.9936
0.56872,2.6667,7.8049,-4.5733,6.6007,-0.84142,5.2033,-3.9291,7.7023,-4.5733,6.6007,3.2026,-3.1746,-8.9952,-1.2063,-6.4725,-1.9324,-0.77295,-0.56872,-0.65359,-3.9936
7.5197,-1.7778,9.7561,-10.37,-1.9802,-6.0194,-0.65041,-12.303,1.2298,-10.37,-1.9802,-2.6797,3.8095,-6.4434,8.9524,-5.8252,3.2206,2.4477,-4.3602,3.268,-3.3494
13.839,-1.7778,10.407,-21.32,-14.521,-13.786,-10.407,-17.455999,-7.8317,-21.32,-14.521,-11.83,13.968,1.8501,20.381001,0.64725,10.95,-1.4171,-4.9921,11.765,1.1594
7.5197,-3.0476,9.1057,-28.406,-21.782,-20.259001,-16.910999,-16.812,-12.362,-28.406,-21.782,-19.02,20.316999,10.781,22.285999,7.1197,15.459,3.7359,-2.4645,15.686,6.9565
6.2559,-4.9524,7.1545,-25.184999,-19.802,-18.316999,-16.910999,-16.812,-12.362,-25.184999,-19.802,-18.365999,23.492001,15.885,21.650999,9.0615,15.459,6.9565,-4.9921,16.34,8.2448
6.8878,-8.127,1.3008,-15.523,-11.221,-10.55,-9.1057,-9.7262,-7.8317,-15.523,-11.221,-10.523,23.492001,16.523001,21.016001,5.178,11.594,5.6683,-4.9921,16.34,6.9565
4.3602,-6.2222,-11.057,-4.5733,2.6403,-1.4887,1.9512,-3.285,1.877,-4.5733,2.6403,-2.0261,19.683001,12.695,14.032,-1.2945,1.9324,2.4477,-3.7283,11.765,3.0918
-3.2227,-2.4127,-19.511999,1.868,11.881,3.0421,10.407,-1.3527,10.291,1.868,11.881,4.5098,14.603,8.8676,5.1429,-2.589,-5.153,-3.3494,0.6951,7.1895,3.0918
-13.333,3.3016,-16.26,3.8003,15.842,2.3948,13.008,0.57971,15.469,3.8003,15.842,5.817,7.619,8.2297,-5.6508,3.2362,-5.7971,-3.9936,5.1185,-3.268,4.38
-9.5419,15.365,1.9512,5.0886,15.182,3.6893,15.61,1.868,16.117001,5.0886,15.182,8.4314,6.9841,12.057,-4.381,15.534,4.5089,-3.9936,8.91,-5.8824,7.6006
-1.327,23.618999,20.813,4.4444,16.502001,6.2783,18.211,0.57971,16.764,4.4444,16.502001,12.353,11.429,17.799,3.873,25.889999,18.035,-4.6377,13.333,-1.9608,10.177
10.047,25.524,32.52,7.6651,19.802,10.809,22.114,2.5121,17.410999,7.6651,19.802,17.582001,15.873,20.351,12.762,30.421,28.986,-2.0612,13.333,1.9608,8.8889
20.158001,22.983999,34.472,10.886,17.822001,17.282,22.764,3.8003,16.764,10.886,17.822001,20.85,18.413,18.437,19.111,28.479,33.493999,5.6683,10.806,6.5359,5.6683
18.893999,17.905001,29.268,8.9533,11.881,17.282,16.910999,9.5974,13.528,8.9533,11.881,17.582001,20.316999,15.247,21.016001,24.594999,32.849998,12.11,9.5419,8.4967,2.4477
22.054001,19.174999,29.268,7.6651,10.561,16.634001,13.659,10.242,10.939,7.6651,10.561,16.275,22.857,14.609,25.459999,23.948,33.493999,10.177,9.5419,12.418,1.8035
22.054001,22.983999,31.219999,4.4444,7.2607,14.693,11.057,8.9533,7.7023,4.4444,7.2607,14.314,22.857,12.695,26.094999,22.653999,33.493999,11.465,7.0142,11.111,2.4477
31.532,21.079,34.472,0.57971,1.3201,13.398,9.7561,5.7327,5.1133,0.57971,1.3201,13.007,22.857,13.333,29.27,22.653999,34.138,6.9565,3.8547,10.458,4.38
23.318001,13.46,28.618,-1.3527,-4.6205,9.5146,5.8537,3.8003,2.5243,-1.3527,-4.6205,8.4314,20.952,13.333,26.73,19.417,29.629999,11.465,4.4866,11.111,6.9565
11.943,4.5714,17.561001,-0.06441,-5.2805,6.2783,1.9512,7.0209,-3.301,-0.06441,-5.2805,4.5098,19.048,12.057,23.556,12.945,21.9,14.686,1.9589,11.765,6.9565
6.2559,-3.6825,3.9024,0.57971,-3.3003,3.0421,0.0,5.7327,-5.2427,0.57971,-3.3003,1.8954,15.238,9.5056,19.111,4.5307,12.238,8.8889,-1.8325,8.4967,4.38
-0.6951,-8.127,-13.659,1.868,-1.9802,-2.1359,-1.3008,6.3768,-6.5372,1.868,-1.9802,-2.6797,13.333,8.2297,16.570999,-1.2945,5.153,5.0242,-3.0964,8.4967,2.4477
-10.174,-13.206,-30.569,1.2238,-6.6007,-7.3139,-9.7561,3.1562,-10.421,1.2238,-6.6007,-11.176,8.8889,4.4019,9.5873,-6.4725,-3.2206,4.38,-6.8878,7.1895,0.5153
-10.806,-15.111,-34.472,1.868,-7.2607,-6.0194,-14.309,-0.70853,-10.421,1.868,-7.2607,-13.791,3.8095,1.2121,4.5079,-8.4142,-7.7295,-0.77295,-1.2006,8.4967,1.8035
-18.389,-13.841,-29.919001,2.5121,-3.3003,-4.0777,-12.358,0.57971,-8.479,2.5121,-3.3003,-11.176,-6.9841,-5.8054,-10.73,-11.65,-16.103001,-5.2818,-0.56872,-1.9608,-0.77295
-23.444,-11.302,-15.61,2.5121,0.0,-2.7832,-4.5528,1.868,-3.9482,2.5121,0.0,-2.6797,-19.048,-14.737,-25.968,-14.239,-22.544001,-7.2142,-3.0964,-13.072,-5.2818
-12.701,-2.4127,2.6016,4.4444,1.3201,3.0421,3.252,1.868,-0.71197,4.4444,1.3201,5.817,-21.587,-15.375,-25.968,-8.4142,-16.103001,-9.1465,-1.8325,-13.072,-6.57
-0.06319,4.5714,13.008,4.4444,-1.9802,5.6311,5.8537,1.868,-0.71197,4.4444,-1.9802,7.1242,-19.048,-13.461,-17.079,-2.589,-6.4412,-5.2818,-2.4645,-9.8039,-7.8583
3.0964,5.8413,13.659,-3.9291,-7.9208,3.0421,1.9512,1.868,-2.6537,-3.9291,-7.9208,1.8954,-15.238,-12.823,-8.1905,-1.2945,0.0,1.8035,-3.7283,-5.2288,-9.7907
8.7836,5.8413,14.309,-8.438,-9.2409,0.45307,-2.6016,-0.06441,-4.5955,-8.438,-9.2409,-2.0261,-8.8889,-7.7193,1.9683,2.589,6.4412,2.4477,-4.3602,0.0,-7.2142
16.997999,5.8413,14.309,-6.5056,-11.221,0.45307,-5.8537,-0.06441,-7.1845,-6.5056,-11.221,-3.3333,0.63492,0.57416,14.032,8.4142,13.527,3.7359,0.6951,9.8039,-2.0612
11.943,2.6667,8.4553,-4.5733,-13.201,-0.84142,-9.7561,0.57971,-9.1262,-4.5733,-13.201,-5.2941,4.4444,6.9537,15.302,12.298,16.747,7.6006,5.1185,5.8824,4.38
6.2559,3.9365,5.8537,-3.9291,-10.561,-2.1359,-7.8049,-0.70853,-9.1262,-3.9291,-10.561,-3.9869,3.8095,9.5056,11.492,12.298,15.459,6.3124,6.3823,-0.65359,8.8889
8.1517,3.3016,11.707,-2.6409,-5.2805,1.7476,-0.65041,-0.70853,-4.5955,-2.6409,-5.2805,2.549,3.1746,10.144,11.492,9.7087,14.171,4.38,5.7504,0.0,10.177
12.575,3.9365,20.163,1.868,3.3003,6.2783,9.7561,-0.70853,1.877,1.868,3.3003,12.353,3.1746,10.781,12.127,8.4142,13.527,1.8035,8.278,0.65359,10.177
7.5197,6.4762,18.862,6.3768,6.6007,7.5728,14.959,1.2238,6.4078,6.3768,6.6007,15.621,0.0,8.8676,7.6825,6.4725,9.0177,0.5153,9.5419,-1.9608,9.533
11.943,9.0159,16.26,10.886,9.2409,12.104,18.211,3.8003,7.7023,10.886,9.2409,18.235001,-4.4444,6.3158,3.873,3.8835,3.2206,-3.9936,8.278,-3.9216,8.2448
11.311,7.746,11.707,12.174,10.561,15.987,14.959,8.3092,6.4078,12.174,10.561,18.235001,-10.159,0.57416,-2.4762,-1.2945,-4.5089,-3.3494,3.2227,-6.5359,4.38
4.3602,6.4762,6.5041,11.53,9.2409,14.693,9.7561,10.886,4.466,11.53,9.2409,13.66,-15.238,-5.8054,-8.1905,-5.8252,-10.306,3.0918,0.6951,-7.1895,0.5153
2.4645,5.8413,1.9512,7.0209,2.6403,8.8673,1.9512,7.0209,2.5243,7.0209,2.6403,4.5098,-17.143,-9.6332,-9.4603,-6.4725,-12.882,1.8035,1.9589,-5.2288,-2.0612
-0.06319,7.1111,-0.65041,0.57971,-3.9604,2.3948,-3.9024,5.0886,-0.71197,0.57971,-3.9604,-3.3333,-15.873,-9.6332,-8.8254,-4.5307,-10.95,1.8035,2.5908,-5.2288,-0.77295
-3.2227,-1.1429,-7.1545,-4.5733,-9.2409,-3.4304,-10.407,1.868,-2.6537,-4.5733,-9.2409,-9.8693,-13.333,-8.9952,-8.1905,-5.178,-10.306,1.1594,-0.56872,-6.5359,-2.7053
-5.1185,-7.4921,-15.61,-3.9291,-6.6007,-4.0777,-11.057,-0.06441,-3.9482,-3.9291,-6.6007,-10.523,-9.5238,-8.3573,-6.2857,-7.767,-10.95,-0.12882,-2.4645,-3.268,-5.9259
-7.0142,-14.476,-19.511999,0.57971,-3.9604,-2.1359,-9.7561,5.0886,-4.5955,0.57971,-3.9604,-8.5621,-5.0794,-8.3573,-4.381,-12.298,-12.238,4.38,-6.8878,1.9608,-11.079
-5.7504,-17.016001,-15.61,2.5121,-1.9802,-0.19417,-7.8049,5.7327,-4.5955,2.5121,-1.9802,-5.2941,0.0,-6.4434,-1.2063,-13.592,-10.306,5.6683,-9.4155,5.8824,-13.011
-4.4866,-11.937,-9.1057,-0.70853,-0.66007,-1.4887,-3.9024,0.57971,-2.6537,-0.70853,-0.66007,-3.3333,3.1746,-3.8915,0.69841,-11.65,-7.7295,5.6683,-10.047,9.1503,-12.367
-1.327,-6.2222,-3.252,-1.9968,0.66007,-1.4887,0.0,-2.6409,0.58252,-1.9968,0.66007,-0.06536,4.4444,-0.70175,0.69841,-8.4142,-5.153,-0.77295,-3.0964,10.458,-7.8583
-10.174,-2.4127,-2.6016,-0.06441,0.66007,-3.4304,0.0,-1.9968,1.877,-0.06441,0.66007,-0.06536,-0.63492,-1.9777,-9.4603,-5.8252,-9.6618,-0.77295,1.327,4.5752,-5.2818
-15.229,1.3968,-1.9512,3.8003,3.9604,0.45307,2.6016,1.2238,3.8188,3.8003,3.9604,3.2026,-7.619,-5.8054,-17.714001,-5.178,-15.459,1.1594,0.06319,3.268,-4.6377
-10.806,1.3968,-0.65041,7.0209,8.5809,4.3366,6.5041,3.1562,3.1715,7.0209,8.5809,7.7778,-13.333,-10.909,-21.524,-9.7087,-19.968,-0.12882,-3.7283,-3.268,-6.57
3.0964,-1.1429,3.252,7.6651,9.2409,10.162,7.1545,3.8003,2.5243,7.6651,9.2409,11.046,-12.063,-12.823,-13.27,-12.298,-18.035,0.5153,-3.0964,-2.6144,-6.57
3.0964,0.12698,3.9024,3.1562,2.6403,6.9256,3.9024,4.4444,-0.71197,3.1562,2.6403,7.1242,-9.5238,-12.185,-5.0159,-11.003,-12.882,2.4477,-1.8325,-0.65359,-3.9936
-1.9589,2.0317,0.0,-1.9968,-4.6205,-0.84142,-1.9512,1.868,-3.9482,-1.9968,-4.6205,-0.71895,-7.619,-10.271,-0.57143,-8.4142,-8.3736,1.8035,-1.8325,-1.9608,-2.0612
1.2006,3.3016,1.3008,-5.2174,-5.9406,-2.7832,-3.252,-1.3527,-2.6537,-5.2174,-5.9406,-3.3333,-3.1746,-5.8054,4.5079,-1.9417,-0.64412,-0.12882,-1.2006,-1.3072,0.5153
5.624,3.3016,5.2033,-4.5733,-3.3003,-2.1359,-2.6016,-1.9968,-0.06472,-4.5733,-3.3003,-2.6797,3.8095,1.8501,10.222,4.5307,8.3736,-1.4171,2.5908,0.65359,3.0918
15.103,2.0317,9.1057,-3.9291,-1.3201,-0.84142,-0.65041,-4.5733,0.58252,-3.9291,-1.3201,-0.71895,10.794,8.8676,18.476,8.4142,16.747,-2.0612,3.8547,4.5752,4.38
10.679,0.7619,7.1545,-4.5733,-4.6205,-3.4304,-2.6016,-5.8615,-1.3592,-4.5733,-4.6205,-3.3333,14.603,11.419,21.016001,7.1197,18.68,1.1594,-1.8325,8.4967,2.4477
2.4645,2.6667,7.1545,-4.5733,-3.3003,-2.7832,-1.9512,-2.6409,-1.3592,-4.5733,-3.3003,-1.3725,14.603,10.781,17.841,7.1197,16.747,8.2448,-1.2006,7.8431,-0.12882
1.2006,4.5714,9.7561,-0.06441,1.9802,3.6893,5.2033,1.2238,1.877,-0.06441,1.9802,6.4706,8.254,7.5917,8.9524,7.1197,11.594,7.6006,0.6951,3.268,-2.7053
-0.6951,9.0159,10.407,5.7327,5.2805,10.162,11.057,4.4444,5.1133,5.7327,5.2805,13.66,-1.2698,3.764,-2.4762,6.4725,3.2206,3.0918,5.1185,0.0,-2.7053
1.8325,17.27,12.358,10.242,7.9208,15.987,16.910999,7.6651,9.644,10.242,7.9208,18.235001,-6.9841,3.764,-10.095,9.7087,0.0,1.1594,7.6461,-4.5752,1.1594
3.7283,17.905001,11.057,11.53,5.9406,14.045,14.309,9.5974,8.3495,11.53,5.9406,15.621,-9.5238,2.488,-9.4603,10.356,0.0,1.1594,9.5419,-4.5752,3.0918
6.8878,13.46,8.4553,4.4444,1.9802,8.2201,7.1545,7.0209,2.5243,4.4444,1.9802,8.4314,-7.619,1.8501,-2.4762,9.7087,2.5765,3.7359,8.91,-1.3072,3.7359
11.311,9.6508,9.1057,-3.285,-1.9802,3.0421,0.65041,2.5121,-1.3592,-3.285,-1.9802,3.2026,0.0,3.764,10.857,11.65,10.306,4.38,5.1185,9.1503,5.0242
15.103,5.8413,10.407,-3.285,-3.9604,1.7476,-1.3008,1.2238,-5.2427,-3.285,-3.9604,1.2418,5.7143,5.6778,18.476,11.65,16.103001,5.0242,3.2227,10.458,6.3124
11.311,3.3016,7.1545,-2.6409,-5.9406,1.1003,-3.252,-0.70853,-8.479,-2.6409,-5.9406,-0.06536,6.9841,3.764,16.570999,9.0615,14.171,8.2448,-1.2006,9.1503,5.0242
11.943,0.7619,5.2033,-1.9968,-6.6007,1.1003,-3.252,-1.3527,-9.1262,-1.9968,-6.6007,-0.06536,7.619,3.764,14.032,7.1197,12.238,3.7359,-1.2006,10.458,5.0242
5.624,-3.6825,1.9512,-3.285,-4.6205,-0.84142,-5.2033,-1.3527,-8.479,-3.285,-4.6205,-2.6797,6.9841,3.764,10.857,4.5307,9.0177,2.4477,-1.8325,9.1503,5.6683
-5.7504,-6.2222,-3.9024,-5.8615,-5.2805,-4.7249,-7.8049,-0.06441,-7.1845,-5.8615,-5.2805,-6.6013,4.4444,2.488,4.5079,3.2362,4.5089,5.6683,-4.3602,5.8824,4.38
-5.7504,-6.8571,-5.8537,-5.8615,-8.5809,-6.6667,-11.707,-1.9968,-7.1845,-5.8615,-8.5809,-10.523,4.4444,3.764,3.873,3.2362,3.8647,1.1594,-5.624,3.268,3.7359
-4.4866,-7.4921,-4.5528,-4.5733,-9.2409,-7.9612,-12.358,-3.9291,-6.5372,-4.5733,-9.2409,-11.83,3.1746,3.764,3.873,1.9417,3.2206,-2.7053,-2.4645,2.6144,3.7359
-7.0142,-10.667,-6.5041,-5.8615,-7.2607,-7.9612,-11.707,-4.5733,-5.89,-5.8615,-7.2607,-10.523,-2.5397,-1.9777,-1.8413,-5.178,-2.5765,-5.2818,-2.4645,-3.268,-0.12882
-4.4866,-8.7619,-7.8049,-1.9968,-0.66007,-2.7832,-1.9512,-1.3527,-0.71197,-1.9968,-0.66007,-2.0261,-8.254,-8.3573,-6.2857,-13.592,-9.6618,-3.3494,-3.7283,-3.268,-6.57
-1.9589,-8.127,-7.1545,5.0886,7.2607,5.6311,7.8049,1.2238,6.4078,5.0886,7.2607,7.1242,-15.873,-16.013,-12.635,-20.065001,-17.391001,-0.77295,-3.7283,-7.1895,-11.723
6.8878,-1.7778,-3.252,10.242,11.881,12.104,15.61,3.1562,11.586,10.242,11.881,14.967,-19.048,-18.565001,-12.0,-18.77,-17.391001,-1.4171,-1.8325,-9.1503,-13.011
3.0964,5.2063,-0.65041,9.5974,9.901,10.809,14.959,7.6651,10.939,9.5974,9.901,13.66,-17.143,-17.289,-8.8254,-11.65,-11.594,1.8035,1.327,-7.1895,-11.079
-0.06319,7.1111,2.6016,3.1562,5.9406,6.9256,7.8049,7.0209,7.7023,3.1562,5.9406,7.1242,-15.238,-14.099,-5.6508,-4.5307,-4.5089,3.0918,0.06319,-9.8039,-9.1465
4.9921,10.921,7.1545,1.868,6.6007,5.6311,5.8537,4.4444,5.7605,1.868,6.6007,5.817,-8.8889,-7.0813,1.9683,3.2362,3.8647,0.5153,2.5908,-3.268,-4.6377
4.3602,5.8413,7.8049,4.4444,3.9604,5.6311,5.8537,5.0886,4.466,4.4444,3.9604,5.817,-2.5397,-1.9777,5.1429,5.8252,8.3736,5.0242,1.9589,-1.3072,-2.7053
11.943,5.2063,9.1057,8.3092,3.3003,8.8673,9.7561,7.6651,1.877,8.3092,3.3003,9.7386,5.0794,3.126,10.222,5.8252,10.306,8.2448,-0.56872,3.9216,-1.4171
13.207,-1.1429,6.5041,10.242,3.9604,12.104,9.7561,10.886,0.58252,10.242,3.9604,10.392,11.429,5.6778,12.762,1.9417,7.7295,12.11,-5.624,13.725,-2.0612
5.624,-5.5873,1.3008,7.0209,2.6403,8.2201,5.8537,11.53,-4.5955,7.0209,2.6403,6.4706,13.968,6.3158,8.9524,-1.2945,3.8647,19.195,-10.679,19.608,-4.6377
-1.327,-4.9524,-3.252,0.57971,-3.9604,-0.19417,-3.252,5.0886,-11.068,0.57971,-3.9604,-2.0261,9.5238,5.0399,1.9683,-1.2945,0.0,15.33,-13.207,16.34,-5.9259
-8.278,-4.9524,-7.8049,-4.5733,-11.881,-6.6667,-11.707,-1.9968,-15.599,-4.5733,-11.881,-9.2157,4.4444,4.4019,-5.6508,0.0,-3.8647,5.6683,-13.207,9.8039,-3.3494
