C3,C4,Cz,F1,F2,F3,F4,F7,F8,Fp1,Fp2,Fz,O1,O2,P3,P4,Pz,T3,T4,T5,T6
-1.9589,-5.6508,-1.8862,-22.438999,-11.823,-4.0976,-4.8309,-14.628,8.7154,-22.438999,-11.823,-6.8966,3.8095,-1.9683,2.9206,-3.8462,2.963,0.83736,-1.7694,4.9261,-4.9359
-2.9068,0.06349,-0.91057,-19.511999,-17.733999,-8.9756,-3.8647,-14.628,6.7642,-19.511999,-17.733999,-7.8818,4.7619,2.7937,2.9206,2.8846,4.8953,-1.095,-4.613,0.98522,2.7564
-6.6983,2.9206,-0.91057,-16.584999,-15.764,-14.829,-3.8647,-9.7735,8.7154,-16.584999,-15.764,-8.867,4.7619,4.6984,1.9683,4.8077,5.8615,1.8035,2.0221,2.9557,3.7179
-8.594,4.8254,0.06504,-21.462999,-14.778,-14.829,-2.8986,-15.599,9.6911,-21.462999,-14.778,-7.8818,3.8095,8.5079,1.9683,7.6923,6.8277,-3.0274,10.553,4.9261,6.6026
-10.49,2.9206,-1.8862,-24.389999,-18.719,-15.805,-0.96618,-17.540001,6.7642,-24.389999,-18.719,-7.8818,-0.95238,5.6508,-0.88889,6.7308,4.8953,-4.9597,4.8657,-3.9409,7.5641
-12.385,3.873,-0.91057,-27.316999,-22.66,-18.732,-0.96618,-20.452999,6.7642,-27.316999,-22.66,-6.8966,-2.8571,6.6032,-1.8413,7.6923,4.8953,-8.8245,-4.613,-9.8522,7.5641
-8.594,1.9683,0.06504,-31.219999,-16.749001,-10.927,0.0,-35.015999,4.813,-31.219999,-16.749001,-4.9261,-4.7619,3.746,-2.7937,5.7692,2.963,-9.7907,2.97,-7.8818,5.641
-14.281,-3.746,-4.813,-37.073002,-16.749001,-20.683001,-4.8309,-27.249001,5.7886,-37.073002,-16.749001,-9.8522,-10.476,-1.9683,-7.5556,-0.96154,-2.8341,-11.723,9.6051,-9.8522,3.7179
-19.968,-2.7937,-6.7642,-33.171001,-18.719,-27.511999,-9.6618,-16.57,3.8374,-33.171001,-18.719,-12.808,-15.238,-1.9683,-11.365,-1.9231,-5.7327,-13.655,5.8136,-12.808,5.641
-20.916,-0.88889,-7.7398,-29.268,-20.690001,-30.438999,-7.7295,-22.395,1.8862,-29.268,-20.690001,-13.793,-17.143,-1.9683,-13.27,-1.9231,-6.6989,-20.419001,3.9179,-15.764,8.5256
-19.021,-3.746,-8.7154,-32.195,-19.704,-25.561001,-6.7633,-25.306999,-0.06504,-32.195,-19.704,-14.778,-16.190001,-1.9683,-15.175,-6.7308,-8.6312,-19.452,2.0221,-16.749001,3.7179
-17.125,-4.6984,-8.7154,-30.243999,-18.719,-19.707001,-7.7295,-26.278,-1.0407,-30.243999,-18.719,-13.793,-14.286,-5.7778,-15.175,-9.6154,-9.5974,-13.655,6.7615,-15.764,-2.0513
-19.021,-3.746,-10.667,-32.195,-27.586,-21.659,-5.7971,-26.278,-6.8943,-32.195,-27.586,-14.778,-12.381,-8.6349,-15.175,-9.6154,-9.5974,-18.486,8.6572,-13.793,-2.0513
-18.073,-1.8413,-11.642,-26.341,-22.66,-19.707001,-5.7971,-15.599,-6.8943,-26.341,-22.66,-13.793,-7.619,-8.6349,-13.27,-9.6154,-9.5974,-11.723,2.0221,-6.8966,-3.9744
-8.594,1.9683,-6.7642,-21.462999,-17.733999,-13.854,-4.8309,-2.0065,-4.9431,-21.462999,-17.733999,-8.867,-1.9048,-6.7302,-7.5556,-4.8077,-5.7327,-0.12882,-3.6651,-3.9409,-0.12821
-2.9068,1.9683,-2.8618,-18.537001,-11.823,-7.0244,-0.96618,1.877,-2.0163,-18.537001,-11.823,-3.9409,-1.9048,-8.6349,-5.6508,-5.7692,-6.6989,1.8035,1.0742,-2.9557,-6.859
6.5719,4.8254,2.9919,-8.7805,-2.9557,8.5854,0.96618,1.877,-1.0407,-8.7805,-2.9557,3.9409,0.95238,-5.7778,0.06349,-1.9231,-2.8341,4.7021,2.0221,0.98522,-11.667
7.5197,6.7302,2.9919,-8.7805,-3.9409,8.5854,2.8986,4.7896,-4.9431,-8.7805,-3.9409,3.9409,1.9048,-1.9683,1.0159,0.96154,-1.868,5.6683,-8.4044,2.9557,-9.7436
9.4155,7.6825,4.9431,-8.7805,-8.867,2.7317,0.96618,7.7023,-5.9187,-8.7805,-8.867,2.9557,3.8095,5.6508,3.873,5.7692,1.9968,3.7359,0.12638,3.9409,-2.0513
10.363,2.9206,6.8943,-7.8049,-11.823,6.6341,5.7971,0.90615,-6.8943,-7.8049,-11.823,2.9557,4.7619,11.365,7.6825,6.7308,4.8953,4.7021,-1.7694,3.9409,2.7564
9.4155,2.9206,6.8943,-7.8049,-13.793,6.6341,4.8309,1.877,-8.8455,-7.8049,-13.793,1.9704,4.7619,16.127001,8.6349,9.6154,6.8277,3.7359,-8.4044,1.9704,9.4872
8.4676,2.9206,5.9187,-10.732,-13.793,3.7073,-1.9324,0.90615,-9.8211,-10.732,-13.793,0.98522,0.0,13.27,6.7302,6.7308,4.8953,-1.095,7.7093,-2.9557,8.5256
2.7804,-1.8413,2.0163,-12.683,-7.8818,-0.19512,-4.8309,-2.0065,-8.8455,-12.683,-7.8818,-2.9557,-6.6667,6.6032,1.9683,0.0,-1.868,-3.0274,9.6051,-5.9113,2.7564
3.7283,-3.746,3.9675,-14.634,-6.8966,1.7561,-0.96618,-2.9773,-5.9187,-14.634,-6.8966,-0.98522,-11.429,-0.06349,1.0159,-2.8846,-5.7327,-6.8921,-6.5087,-5.9113,2.7564
3.7283,-2.7937,4.9431,-15.61,-12.808,2.7317,-1.9324,-4.9191,-3.9675,-15.61,-12.808,0.0,-15.238,-8.6349,0.06349,-4.8077,-8.6312,-13.655,-1.7694,-9.8522,0.83333
2.7804,1.0159,4.9431,-10.732,-8.867,-0.19512,1.9324,-3.9482,-0.06504,-10.732,-8.867,1.9704,-11.429,-10.54,1.9683,-1.9231,-7.6651,-6.8921,8.6572,-4.9261,2.7564
3.7283,4.8254,4.9431,-7.8049,-4.9261,-0.19512,-0.96618,-1.0356,-2.9919,-7.8049,-4.9261,2.9557,-3.8095,-11.492,4.8254,-0.96154,-3.8003,-5.9259,5.8136,1.9704,2.7564
2.7804,4.8254,2.9919,-8.7805,-5.9113,5.6585,4.8309,-15.599,-2.9919,-8.7805,-5.9113,2.9557,0.95238,-7.6825,4.8254,0.0,-1.868,-7.8583,4.8657,2.9557,4.6795
-2.9068,5.7778,1.0407,-9.7561,-11.823,-8.0,4.8309,-7.8317,-6.8943,-9.7561,-11.823,-2.9557,4.7619,-3.873,1.9683,2.8846,-0.90177,-9.7907,7.7093,0.98522,9.4872
-10.49,2.9206,-3.8374,-9.7561,-6.8966,-15.805,-6.7633,-2.0065,-9.8211,-9.7561,-6.8966,-6.8966,6.6667,-3.873,-2.7937,1.9231,-0.90177,-10.757,10.553,-2.9557,4.6795
-10.49,2.9206,-2.8618,-10.732,-1.9704,-12.878,-7.7295,-8.8026,-7.8699,-10.732,-1.9704,-7.8818,9.5238,0.88889,-3.746,4.8077,1.0306,-14.622,2.0221,0.0,5.641
-3.8547,6.7302,2.9919,-9.7561,-4.9261,-6.0488,-1.9324,-8.8026,-6.8943,-9.7561,-4.9261,-3.9409,15.238,12.317,1.9683,12.5,7.7939,-10.757,2.97,4.9261,15.256
-0.06319,10.54,6.8943,-9.7561,-2.9557,-4.0976,-2.8986,-5.89,-4.9431,-9.7561,-2.9557,-1.9704,15.238,17.079,4.8254,16.346001,11.659,-11.723,11.501,3.9409,18.141001
-1.0111,11.492,6.8943,-8.7805,-8.867,-9.9512,0.0,-3.9482,-5.9187,-8.7805,-8.867,-0.98522,12.381,14.222,2.9206,15.385,9.7262,-11.723,1.0742,3.9409,15.256
2.7804,8.6349,6.8943,-6.8293,-3.9409,1.7561,1.9324,-9.7735,-3.9675,-6.8293,-3.9409,2.9557,10.476,13.27,1.9683,12.5,7.7939,-9.7907,2.0221,1.9704,12.372
-4.8025,4.8254,2.0163,-5.8537,-3.9409,-6.0488,-0.96618,-2.0065,-5.9187,-5.8537,-3.9409,-1.9704,7.619,12.317,-2.7937,8.6538,3.9291,-8.8245,1.0742,-2.9557,10.449
-7.6461,2.9206,0.06504,-3.9024,-0.98522,-8.9756,-3.8647,-3.9482,-4.9431,-3.9024,-0.98522,-3.9409,4.7619,12.317,-6.6032,7.6923,1.9968,-6.8921,0.12638,-4.9261,12.372
-12.385,-1.8413,-4.813,-4.878,-2.9557,-11.902,-9.6618,-5.89,-5.9187,-4.878,-2.9557,-7.8818,0.0,8.5079,-11.365,3.8462,-1.868,-7.8583,6.7615,-6.8966,7.5641
-11.438,-5.6508,-6.7642,-7.8049,-5.9113,-11.902,-11.594,-4.9191,-6.8943,-7.8049,-5.9113,-8.867,-4.7619,4.6984,-13.27,-0.96154,-4.7665,-10.757,10.553,-8.867,0.83333
-8.594,-4.6984,-5.7886,-6.8293,-7.8818,-6.0488,-9.6618,-4.9191,-8.8455,-6.8293,-7.8818,-6.8966,-6.6667,3.746,-11.365,-1.9231,-4.7665,-8.8245,5.8136,-12.808,0.83333
-6.6983,-3.746,-5.7886,-7.8049,-10.837,-5.0732,-5.7971,-2.9773,-8.8455,-7.8049,-10.837,-7.8818,-7.619,-0.06349,-9.4603,-3.8462,-4.7665,-5.9259,1.0742,-13.793,1.7949
-4.8025,-5.6508,-7.7398,-11.707,-11.823,-9.9512,-12.56,-1.0356,-9.8211,-11.707,-11.823,-11.823,-9.5238,-9.5873,-7.5556,-7.6923,-6.6989,-8.8245,-8.4044,-8.867,-3.9744
2.7804,-5.6508,-1.8862,-7.8049,-8.867,-4.0976,-6.7633,1.877,-5.9187,-7.8049,-8.867,-6.8966,-6.6667,-11.492,-0.88889,-4.8077,-0.90177,-0.12882,-2.7172,-0.98522,-1.0897
4.6761,-3.746,2.0163,-1.9512,-2.9557,2.7317,-1.9324,0.90615,-4.9431,-1.9512,-2.9557,-1.9704,-7.619,-16.254,2.9206,-4.8077,1.0306,3.7359,5.8136,0.98522,-6.859
8.4676,1.9683,5.9187,0.0,0.0,8.5854,-4.8309,-4.9191,-7.8699,0.0,0.0,0.0,-8.5714,-21.968,4.8254,-2.8846,0.06441,1.8035,9.6051,-0.98522,-8.7821
6.5719,3.873,4.9431,0.97561,-0.98522,1.7561,0.96618,0.90615,-4.9431,0.97561,-0.98522,0.0,-7.619,-23.872999,4.8254,-2.8846,-1.868,-1.095,-6.5087,0.98522,-8.7821
5.624,1.9683,2.0163,4.878,3.9409,0.78049,4.8309,0.90615,-2.0163,4.878,3.9409,-0.98522,-6.6667,-21.016001,2.9206,-3.8462,-3.8003,-3.0274,-3.6651,4.9261,-5.8974
2.7804,1.0159,0.06504,4.878,4.9261,-4.0976,4.8309,6.7314,-1.0407,4.878,4.9261,-2.9557,-4.7619,-11.492,1.9683,-1.9231,-4.7665,-6.8921,2.97,5.9113,2.7564
-0.06319,3.873,-1.8862,3.9024,1.9704,-8.0,2.8986,10.615,-0.06504,3.9024,1.9704,-3.9409,0.0,-0.06349,1.9683,0.96154,-1.868,-2.0612,9.6051,4.9261,6.6026
-8.594,0.06349,-7.7398,0.0,4.9261,-8.9756,0.0,-2.0065,-2.9919,0.0,4.9261,-7.8818,0.0,2.7937,-4.6984,-2.8846,-6.6989,-4.9597,11.501,-1.9704,2.7564
-10.49,1.0159,-9.6911,-2.9268,0.98522,-7.0244,4.8309,-4.9191,-3.9675,-2.9268,0.98522,-7.8818,-1.9048,7.5556,-8.5079,-3.8462,-8.6312,-12.689,5.8136,-5.9113,2.7564
-11.438,-0.88889,-8.7154,0.0,7.8818,-7.0244,4.8309,-5.89,1.8862,0.0,7.8818,-5.9113,0.95238,12.317,-9.4603,-1.9231,-6.6989,-8.8245,1.0742,-3.9409,5.641
-12.385,-1.8413,-8.7154,10.732,20.690001,-8.0,2.8986,-1.0356,6.7642,10.732,20.690001,-3.9409,2.8571,12.317,-10.413,-3.8462,-8.6312,-8.8245,1.0742,-2.9557,3.7179
-10.49,0.06349,-4.813,13.659,19.704,-8.0,8.6957,6.7314,6.7642,13.659,19.704,0.0,0.95238,10.413,-10.413,-3.8462,-8.6312,-9.7907,-11.248,-4.9261,5.641
-6.6983,0.06349,-2.8618,12.683,18.719,-0.19512,8.6957,0.90615,6.7642,12.683,18.719,3.9409,-0.95238,5.6508,-10.413,-6.7308,-11.53,-11.723,2.97,-4.9261,-2.0513
-6.6983,-3.746,-2.8618,11.707,14.778,4.6829,7.7295,-3.9482,4.813,11.707,14.778,3.9409,-8.5714,-2.9206,-15.175,-12.5,-17.327,-13.655,6.7615,-11.823,-10.705
-7.6461,1.9683,2.0163,15.61,11.823,2.7317,10.628,5.7605,3.8374,15.61,11.823,5.9113,-11.429,-9.5873,-16.127001,-11.538,-18.292999,-6.8921,6.7615,-14.778,-12.628
2.7804,10.54,14.699,27.316999,20.690001,13.463,22.222,2.8479,8.7154,27.316999,20.690001,17.733999,-5.7143,-5.7778,-7.5556,0.0,-7.6651,-2.0612,5.8136,-3.9409,-4.9359
8.4676,17.205999,21.528,29.268,28.570999,18.341,25.121,15.469,12.618,29.268,28.570999,22.66,1.9048,-4.8254,0.06349,7.6923,1.0306,6.6345,-2.7172,-2.9557,-2.0513
10.363,21.968,25.431,29.268,30.542,20.292999,25.121,21.294001,11.642,29.268,30.542,24.631001,4.7619,-7.6825,3.873,14.423,6.8277,10.499,7.7093,0.98522,1.7949
9.4155,19.111,23.48,27.316999,22.66,18.341,18.357,12.557,4.813,27.316999,22.66,21.674999,0.0,-11.492,1.0159,13.462,5.8615,-1.095,16.24,-2.9557,2.7564
8.4676,16.254,19.577,29.268,25.615999,15.415,15.459,8.6731,4.813,29.268,25.615999,18.719,-5.7143,-14.349,-1.8413,11.538,2.963,-3.0274,9.6051,-4.9261,1.7949
8.4676,19.111,17.625999,22.438999,22.66,13.463,16.424999,6.7314,3.8374,22.438999,22.66,16.749001,-6.6667,-8.6349,0.06349,15.385,4.8953,3.7359,14.344,-6.8966,6.6026
6.5719,14.349,11.772,19.511999,15.764,14.439,6.7633,0.90615,-0.06504,19.511999,15.764,10.837,-6.6667,-1.9683,-0.88889,15.385,3.9291,2.7697,8.6572,-8.867,13.333
0.88468,6.7302,2.9919,18.537001,14.778,8.5854,-2.8986,3.8188,-0.06504,18.537001,14.778,3.9409,-9.5238,2.7937,-6.6032,10.577,-0.90177,-5.9259,-4.613,-11.823,12.372
-3.8547,2.9206,-2.8618,17.561001,7.8818,9.561,-1.9324,3.8188,-2.9919,17.561001,7.8818,0.0,-7.619,11.365,-8.5079,8.6538,-2.8341,-3.9936,-6.5087,-9.8522,17.179001
-3.8547,-0.88889,-6.7642,13.659,3.9409,5.6585,-11.594,5.7605,-4.9431,13.659,3.9409,-3.9409,-4.7619,18.983999,-8.5079,7.6923,-2.8341,1.8035,4.8657,-7.8818,20.063999
-1.9589,-1.8413,-5.7886,7.8049,5.9113,-1.1707,-12.56,12.557,-1.0407,7.8049,5.9113,-6.8966,-1.9048,23.746,-3.746,8.6538,0.06441,5.6683,2.0221,-7.8818,21.025999
-3.8547,-4.6984,-8.7154,4.878,-1.9704,-5.0732,-8.6957,9.644,-5.9187,4.878,-1.9704,-8.867,-1.9048,21.841,-4.6984,4.8077,0.06441,3.7359,0.12638,-6.8966,14.295
-6.6983,-11.365,-13.593,4.878,0.0,-5.0732,-9.6618,5.7605,-7.8699,4.878,0.0,-11.823,-3.8095,17.079,-6.6032,-1.9231,-2.8341,-4.9597,-1.7694,-7.8818,4.6795
-9.5419,-13.27,-16.52,5.8537,10.837,-5.0732,-11.594,2.8479,-5.9187,5.8537,10.837,-11.823,-3.8095,15.175,-9.4603,-3.8462,-3.8003,-3.0274,-9.3523,-9.8522,0.83333
-8.594,-12.317,-14.569,4.878,8.867,-7.0244,-10.628,1.877,-2.0163,4.878,8.867,-8.867,0.0,18.032,-7.5556,-3.8462,-1.868,1.8035,-9.3523,-7.8818,2.7564
-6.6983,-13.27,-13.593,1.9512,3.9409,-3.122,-7.7295,-3.9482,0.91057,1.9512,3.9409,-7.8818,0.0,11.365,-6.6032,-7.6923,-2.8341,-3.0274,-18.830999,-4.9261,-3.0128
-6.6983,-13.27,-13.593,-7.8049,4.9261,-7.0244,-11.594,-1.0356,0.91057,-7.8049,4.9261,-9.8522,2.8571,5.6508,-3.746,-8.6538,-0.90177,-3.9936,-18.830999,-3.9409,-7.8205
-5.7504,-12.317,-12.618,-0.97561,3.9409,-7.0244,-3.8647,-0.06472,3.8374,-0.97561,3.9409,-8.867,6.6667,4.6984,-0.88889,-8.6538,0.06441,-0.12882,-2.7172,-0.98522,-8.7821
-2.9068,-10.413,-11.642,2.9268,9.8522,-5.0732,0.96618,-2.0065,7.7398,2.9268,9.8522,-7.8818,5.7143,-1.0159,-0.88889,-7.6923,-0.90177,-1.095,2.0221,-1.9704,-9.7436
-6.6983,-6.6032,-12.618,-2.9268,12.808,-9.9512,-4.8309,0.90615,5.7886,-2.9268,12.808,-9.8522,0.0,-8.6349,-3.746,-6.7308,-3.8003,-2.0612,4.8657,-4.9261,-11.667
-6.6983,-2.7937,-9.6911,-3.9024,7.8818,-7.0244,-5.7971,-2.9773,3.8374,-3.9024,7.8818,-8.867,-2.8571,-13.397,-4.6984,-5.7692,-3.8003,-1.095,11.501,-7.8818,-10.705
-8.594,-2.7937,-9.6911,-6.8293,-3.9409,-8.9756,-0.96618,-3.9482,0.91057,-6.8293,-3.9409,-9.8522,-8.5714,-18.159,-8.5079,-7.6923,-8.6312,-7.8583,-0.82148,-10.837,-10.705
-5.7504,0.06349,-6.7642,-5.8537,-6.8966,-4.0976,4.8309,-8.8026,-0.06504,-5.8537,-6.8966,-6.8966,-9.5238,-13.397,-8.5079,-6.7308,-8.6312,-6.8921,-2.7172,-9.8522,-5.8974
-7.6461,1.0159,-6.7642,-7.8049,-3.9409,-13.854,-0.96618,-0.06472,-2.0163,-7.8049,-3.9409,-6.8966,-10.476,-4.8254,-8.5079,-3.8462,-6.6989,-4.9597,-0.82148,-12.808,-1.0897
-8.594,-0.88889,-6.7642,-7.8049,-2.9557,-14.829,-0.96618,4.7896,-1.0407,-7.8049,-2.9557,-4.9261,-11.429,-1.0159,-9.4603,-0.96154,-5.7327,-3.0274,4.8657,-16.749001,2.7564
-1.9589,1.9683,-1.8862,-3.9024,-8.867,-2.1463,0.96618,-1.0356,-2.9919,-3.9024,-8.867,-0.98522,-5.7143,8.5079,-4.6984,4.8077,0.06441,-1.095,2.0221,-12.808,11.41
3.7283,2.9206,1.0407,-4.878,-1.9704,5.6585,0.96618,-2.9773,-4.9431,-4.878,-1.9704,0.98522,0.0,13.27,1.0159,6.7308,3.9291,-0.12882,2.0221,-3.9409,11.41
3.7283,3.873,1.0407,-1.9512,-0.98522,7.6098,-2.8986,0.90615,-5.9187,-1.9512,-0.98522,1.9704,2.8571,13.27,2.9206,6.7308,4.8953,3.7359,2.0221,0.0,8.5256
3.7283,1.0159,1.0407,0.97561,-5.9113,11.512,1.9324,-1.0356,-7.8699,0.97561,-5.9113,1.9704,5.7143,13.27,4.8254,6.7308,6.8277,-1.095,-10.3,5.9113,9.4872
6.5719,-3.746,1.0407,-3.9024,-16.749001,5.6585,-2.8986,-2.0065,-13.724,-3.9024,-16.749001,-0.98522,10.476,14.222,8.6349,6.7308,8.7601,-1.095,-13.144,7.8818,9.4872
6.5719,-6.6032,2.9919,-7.8049,-19.704,-1.1707,-5.7971,6.7314,-13.724,-7.8049,-19.704,-0.98522,17.143,18.032,12.444,5.7692,11.659,5.6683,-11.248,14.778,11.41
6.5719,-7.5556,2.9919,-5.8537,-15.764,2.7317,-0.96618,1.877,-7.8699,-5.8537,-15.764,0.98522,20.0,16.127001,13.397,3.8462,11.659,0.83736,-1.7694,18.719,8.5256
12.259,-2.7937,6.8943,-7.8049,-7.8818,9.561,-0.96618,-7.8317,-1.0407,-7.8049,-7.8818,4.9261,22.857,16.127001,15.302,6.7308,14.557,-0.12882,-6.5087,18.719,8.5256
9.4155,-2.7937,6.8943,-10.732,-4.9261,7.6098,-0.96618,-11.715,1.8862,-10.732,-4.9261,4.9261,21.905001,11.365,13.397,3.8462,12.625,-3.9936,-14.092,16.749001,0.83333
6.5719,-0.88889,7.8699,-5.8537,-7.8818,12.488,5.7971,-12.686,6.7642,-5.8537,-7.8818,8.867,19.048,4.6984,9.5873,0.96154,9.7262,-9.7907,3.9179,9.8522,-4.9359
5.624,0.06349,7.8699,-4.878,-2.9557,6.6341,5.7971,-7.8317,6.7642,-4.878,-2.9557,8.867,20.0,4.6984,7.6825,0.0,8.7601,-14.622,7.7093,5.9113,-1.0897
6.5719,1.9683,6.8943,-7.8049,-4.9261,1.7561,6.7633,-7.8317,2.8618,-7.8049,-4.9261,6.8966,20.952,6.6032,8.6349,1.9231,8.7601,-18.486,6.7615,7.8818,3.7179
5.624,4.8254,5.9187,-8.7805,-4.9261,3.7073,1.9324,-16.57,-0.06504,-8.7805,-4.9261,4.9261,22.857,8.5079,9.5873,4.8077,10.692,-18.486,-0.82148,10.837,6.6026
4.6761,4.8254,4.9431,-11.707,-6.8966,-0.19512,-1.9324,-12.686,-0.06504,-11.707,-6.8966,0.98522,25.714001,7.5556,12.444,6.7308,13.591,-10.757,0.12638,18.719,5.641
8.4676,5.7778,8.8455,-12.683,-11.823,-3.122,-3.8647,-7.8317,-2.0163,-12.683,-11.823,0.98522,29.524,9.4603,18.159,11.538,19.388,2.7697,-9.3523,25.615999,7.5641
10.363,5.7778,10.797,-7.8049,-5.9113,3.7073,-1.9324,-8.8026,-0.06504,-7.8049,-5.9113,1.9704,32.381001,13.27,21.968,14.423,23.253,5.6683,0.12638,24.631001,7.5641
7.5197,4.8254,6.8943,-11.707,-11.823,-1.1707,-9.6618,-2.0065,-2.0163,-11.707,-11.823,-3.9409,28.570999,13.27,20.063,11.538,22.287001,3.7359,6.7615,23.645,4.6795
10.363,2.9206,4.9431,-8.7805,-8.867,-5.0732,-11.594,4.7896,-5.9187,-8.7805,-8.867,-6.8966,27.618999,16.127001,22.921,11.538,23.253,11.465,7.7093,24.631001,7.5641
11.311,-3.746,2.9919,-8.7805,-11.823,-6.0488,-11.594,0.90615,-6.8943,-8.7805,-11.823,-8.867,23.809999,20.889,22.921,9.6154,22.287001,5.6683,2.0221,20.690001,10.449
14.155,-3.746,4.9431,-10.732,-13.793,1.7561,-12.56,-5.89,-5.9187,-10.732,-13.793,-5.9113,21.905001,24.698,22.921,10.577,22.287001,7.6006,-15.987,17.733999,12.372
9.4155,-3.746,2.9919,-15.61,-11.823,-1.1707,-13.527,-9.7735,-8.8455,-15.61,-11.823,-7.8818,19.048,29.459999,19.111,10.577,21.32,9.533,-16.934999,12.808,17.179001
-0.06319,-8.5079,-2.8618,-18.537001,-18.719,-13.854,-19.323999,-8.8026,-10.797,-18.537001,-18.719,-13.793,14.286,27.556,11.492,6.7308,16.49,0.83736,-3.6651,8.867,14.295
-3.8547,-9.4603,-2.8618,-18.537001,-17.733999,-16.780001,-15.459,-7.8317,-7.8699,-18.537001,-17.733999,-13.793,14.286,28.507999,7.6825,5.7692,16.49,0.83736,-0.82148,4.9261,10.449
-5.7504,-7.5556,-1.8862,-21.462999,-18.719,-11.902,-10.628,-4.9191,-4.9431,-21.462999,-18.719,-10.837,12.381,23.746,5.7778,5.7692,16.49,-3.9936,-3.6651,1.9704,6.6026
-5.7504,-2.7937,0.06504,-13.659,-16.749001,-8.9756,-10.628,-5.89,-2.0163,-13.659,-16.749001,-7.8818,9.5238,17.079,6.7302,6.7308,17.455999,-3.9936,-3.6651,1.9704,2.7564
-1.9589,0.06349,2.0163,-9.7561,-5.9113,-7.0244,-5.7971,-7.8317,-1.0407,-9.7561,-5.9113,-5.9113,7.619,10.413,7.6825,7.6923,18.422001,-7.8583,-10.3,-3.9409,-0.12821
-1.0111,3.873,2.9919,-11.707,0.0,-6.0488,0.96618,-3.9482,0.91057,-11.707,0.0,-4.9261,3.8095,5.6508,7.6825,8.6538,17.455999,-7.8583,-1.7694,-8.867,0.83333
-1.0111,4.8254,2.9919,-9.7561,-4.9261,-1.1707,3.8647,-10.744,0.91057,-9.7561,-4.9261,-2.9557,-0.95238,-1.9683,6.7302,6.7308,14.557,-4.9597,9.6051,-9.8522,-1.0897
-0.06319,5.7778,4.9431,-8.7805,-3.9409,-3.122,5.7971,-7.8317,2.8618,-8.7805,-3.9409,-0.98522,-2.8571,-7.6825,6.7302,5.7692,12.625,-3.9936,2.97,-7.8818,-0.12821
-6.6983,4.8254,2.0163,-10.732,-2.9557,-14.829,6.7633,-2.9773,3.8374,-10.732,-2.9557,-4.9261,-5.7143,-17.205999,0.06349,0.0,3.9291,-6.8921,2.97,-9.8522,-9.7436
-10.49,3.873,-1.8862,-10.732,-10.837,-14.829,2.8986,-2.9773,2.8618,-10.732,-10.837,-4.9261,-7.619,-16.254,-5.6508,-3.8462,-1.868,-6.8921,5.8136,-11.823,-11.667
-9.5419,2.9206,-3.8374,-8.7805,-9.8522,-8.0,2.8986,-10.744,3.8374,-8.7805,-9.8522,-3.9409,-7.619,-9.5873,-7.5556,-4.8077,-5.7327,-10.757,2.97,-9.8522,-5.8974
-13.333,1.0159,-6.7642,-10.732,-3.9409,-11.902,1.9324,-6.8608,4.813,-10.732,-3.9409,-4.9261,-6.6667,-1.9683,-10.413,-6.7308,-7.6651,-10.757,-6.5087,-12.808,-2.0513
-16.177,-0.88889,-6.7642,-4.878,2.9557,-12.878,8.6957,2.8479,3.8374,-4.878,2.9557,-2.9557,-1.9048,9.4603,-12.317,-8.6538,-6.6989,-10.757,-1.7694,-11.823,3.7179
-15.229,-2.7937,-7.7398,0.0,3.9409,-8.9756,13.527,-0.06472,3.8374,0.0,3.9409,0.98522,0.0,12.317,-14.222,-10.577,-7.6651,-8.8245,3.9179,-10.837,1.7949
-7.6461,-1.8413,-2.8618,2.9268,6.8966,-0.19512,10.628,1.877,1.8862,2.9268,6.8966,6.8966,2.8571,14.222,-11.365,-9.6154,-3.8003,-3.0274,-6.5087,-7.8818,1.7949
-2.9068,-0.88889,1.0407,6.8293,9.8522,2.7317,11.594,12.557,5.7886,6.8293,9.8522,10.837,5.7143,16.127001,-7.5556,-5.7692,-0.90177,1.8035,-1.7694,-6.8966,1.7949
-5.7504,-2.7937,-1.8862,6.8293,10.837,1.7561,11.594,4.7896,14.569,6.8293,10.837,8.867,-1.9048,4.6984,-13.27,-11.538,-8.6312,-3.0274,6.7615,-11.823,-5.8974
-5.7504,1.9683,-3.8374,3.9024,8.867,6.6341,8.6957,-7.8317,21.398001,3.9024,8.867,8.867,-6.6667,-6.7302,-16.127001,-14.423,-14.428,-9.7907,2.97,-11.823,-13.59
-4.8025,6.7302,-0.91057,2.9268,8.867,3.7073,11.594,-7.8317,23.35,2.9268,8.867,8.867,-7.619,-11.492,-15.175,-10.577,-15.395,-9.7907,5.8136,-11.823,-10.705
-5.7504,8.6349,-1.8862,6.8293,12.808,1.7561,13.527,-3.9482,32.130001,6.8293,12.808,6.8966,-10.476,-19.111,-14.222,-6.7308,-16.361,-7.8583,14.344,-9.8522,-10.705
-1.9589,9.5873,0.06504,7.8049,15.764,7.6098,9.6618,-11.715,33.105999,7.8049,15.764,5.9113,-8.5714,-21.968,-9.4603,-1.9231,-13.462,-6.8921,16.24,-3.9409,-9.7436
-0.06319,5.7778,-1.8862,10.732,16.749001,6.6341,3.8647,-7.8317,28.228001,10.732,16.749001,1.9704,-9.5238,-23.872999,-6.6032,0.0,-12.496,-0.12882,12.449,0.0,-9.7436
2.7804,9.5873,1.0407,9.7561,12.808,0.78049,3.8647,3.8188,21.398001,9.7561,12.808,0.0,-5.7143,-19.111,0.06349,8.6538,-5.7327,4.7021,4.8657,0.98522,-1.0897
-0.06319,8.6349,1.0407,7.8049,0.98522,-5.0732,2.8986,-0.06472,12.618,7.8049,0.98522,-4.9261,-2.8571,-15.302,1.9683,11.538,-1.868,0.83736,1.0742,-0.98522,-0.12821
-2.9068,10.54,0.06504,0.97561,-1.9704,-7.0244,-4.8309,-12.686,7.7398,0.97561,-1.9704,-9.8522,0.0,-10.54,3.873,14.423,1.0306,-1.095,13.397,4.9261,2.7564
-4.8025,9.5873,0.06504,-8.7805,-7.8818,-10.927,-8.6957,-18.511,4.813,-8.7805,-7.8818,-14.778,2.8571,-2.9206,5.7778,16.346001,3.9291,-3.9936,17.188,4.9261,8.5256
-5.7504,4.8254,0.06504,-13.659,-9.8522,-18.732,-15.459,-16.57,-0.06504,-13.659,-9.8522,-18.719,7.619,5.6508,6.7302,17.308001,5.8615,-5.9259,8.6572,5.9113,14.295
-4.8025,-0.88889,0.06504,-11.707,-11.823,-19.707001,-16.424999,-13.657,-6.8943,-11.707,-11.823,-17.733999,12.381,12.317,7.6825,14.423,7.7939,-3.0274,-0.82148,9.8522,16.218
1.8325,-5.6508,2.9919,-3.9024,-11.823,-7.0244,-16.424999,-12.686,-14.699,-3.9024,-11.823,-11.823,18.094999,18.032,12.444,11.538,10.692,4.7021,-15.987,15.764,17.179001
5.624,-9.4603,3.9675,5.8537,-2.9557,-4.0976,-8.6957,3.8188,-16.65,5.8537,-2.9557,-3.9409,22.857,20.889,15.302,5.7692,11.659,12.432,-24.518,19.704,8.5256
3.7283,-17.079,1.0407,13.659,0.98522,2.7317,-3.8647,7.7023,-14.699,13.659,0.98522,-1.9704,24.761999,18.983999,12.444,-2.8846,8.7601,22.093,-15.987,23.645,-2.0513
1.8325,-20.889,-2.8618,9.7561,2.9557,10.537,-5.7971,13.528,-4.9431,9.7561,2.9557,-0.98522,24.761999,16.127001,9.5873,-8.6538,5.8615,24.992001,-16.934999,25.615999,-5.8974
-4.8025,-25.650999,-12.618,5.8537,0.0,5.6585,-11.594,7.7023,2.8618,5.8537,0.0,-5.9113,19.048,8.5079,2.9206,-18.268999,-2.8341,19.195,-11.248,22.66,-11.667
-12.385,-32.317001,-23.35,1.9512,-2.9557,-11.902,-18.357,11.586,4.813,1.9512,-2.9557,-14.778,10.476,-1.9683,-4.6984,-28.846001,-13.462,14.364,-6.5087,17.733999,-17.436001
-16.177,-35.174999,-28.228001,-4.878,-8.867,-16.780001,-23.188,8.6731,3.8374,-4.878,-8.867,-19.704,1.9048,-10.54,-10.413,-36.537998,-23.124001,10.499,-9.3523,10.837,-22.243999
-11.438,-25.650999,-24.325001,-6.8293,-6.8966,-11.902,-15.459,0.90615,4.813,-6.8293,-6.8966,-14.778,-0.95238,-14.349,-10.413,-32.692001,-24.09,7.6006,-4.613,9.8522,-20.320999
-6.6983,-13.27,-16.52,-4.878,2.9557,-0.19512,-10.628,1.877,8.7154,-4.878,2.9557,-5.9113,-4.7619,-16.254,-9.4603,-25.962,-21.191999,1.8035,0.12638,8.867,-16.474001
-4.8025,-6.6032,-10.667,-3.9024,5.9113,6.6341,0.0,-2.9773,9.6911,-3.9024,5.9113,0.98522,-7.619,-18.159,-8.5079,-18.268999,-18.292999,0.83736,6.7615,5.9113,-10.705
1.8325,1.0159,-1.8862,-8.7805,-1.9704,5.6585,9.6618,3.8188,7.7398,-8.7805,-1.9704,3.9409,-10.476,-24.825001,-4.6984,-11.538,-12.496,9.533,17.188,5.9113,-12.628
4.6761,7.6825,5.9187,-7.8049,-1.9704,-0.19512,10.628,1.877,5.7886,-7.8049,-1.9704,3.9409,-13.333,-28.635,-0.88889,-4.8077,-6.6989,6.6345,20.979,-1.9704,-13.59
11.311,16.254,16.65,-4.878,4.9261,5.6585,12.56,-8.8026,6.7642,-4.878,4.9261,8.867,-11.429,-24.825001,4.8254,5.7692,2.963,-0.12882,20.032,-1.9704,-4.9359
17.945999,24.825001,24.455,-1.9512,0.0,13.463,16.424999,-2.0065,5.7886,-1.9512,0.0,13.793,-10.476,-19.111,11.492,17.308001,12.625,1.8035,19.084,1.9704,2.7564
23.632999,30.540001,32.259998,2.9268,-2.9557,16.389999,20.290001,0.90615,4.813,2.9268,-2.9557,17.733999,-6.6667,-10.54,17.205999,28.846001,22.287001,2.7697,9.6051,3.9409,9.4872
26.476999,30.540001,33.236,0.97561,5.9113,18.341,16.424999,-5.89,2.8618,0.97561,5.9113,16.749001,-2.8571,-0.06349,22.921,35.577,29.049999,1.8035,2.97,6.8966,17.179001
25.528999,24.825001,29.333,1.9512,10.837,13.463,8.6957,-5.89,1.8862,1.9512,10.837,11.823,0.95238,8.5079,23.872999,34.615002,30.016001,-6.8921,15.292,4.9261,17.179001
16.051001,19.111,21.528,-1.9512,0.0,-1.1707,0.0,-2.0065,-1.0407,-1.9512,0.0,1.9704,2.8571,16.127001,19.111,31.731001,27.118,-4.9597,16.24,0.98522,16.218
13.207,18.159,16.65,-4.878,-1.9704,-8.0,0.0,-3.9482,-5.9187,-4.878,-1.9704,-1.9704,7.619,22.794001,17.205999,30.768999,26.150999,2.7697,16.24,2.9557,20.063999
2.7804,10.54,4.9431,-3.9024,-1.9704,-12.878,-4.8309,-4.9191,-5.9187,-3.9024,-1.9704,-7.8818,4.7619,22.794001,7.6825,21.153999,16.49,-3.0274,8.6572,0.98522,18.141001
-3.8547,5.7778,-2.8618,-3.9024,0.98522,-9.9512,-4.8309,-6.8608,-1.0407,-3.9024,0.98522,-7.8818,0.0,19.937,-1.8413,11.538,5.8615,-7.8583,4.8657,-3.9409,14.295
-4.8025,4.8254,-6.7642,2.9268,1.9704,-1.1707,1.9324,-4.9191,3.8374,2.9268,1.9704,-1.9704,-5.7143,13.27,-11.365,1.9231,-3.8003,-3.9936,0.12638,-13.793,6.6026
-1.0111,1.9683,-5.7886,16.584999,15.764,13.463,10.628,-5.89,15.545,16.584999,15.764,5.9113,-8.5714,8.5079,-16.127001,-2.8846,-8.6312,-3.9936,2.0221,-15.764,0.83333
-4.8025,-0.88889,-6.7642,17.561001,20.690001,6.6341,10.628,5.7605,21.398001,17.561001,20.690001,4.9261,-12.381,2.7937,-19.937,-5.7692,-10.564,-4.9597,2.97,-17.733999,-5.8974
-10.49,-2.7937,-9.6911,11.707,18.719,-2.1463,2.8986,8.6731,22.374001,11.707,18.719,0.98522,-15.238,-2.9206,-21.841,-9.6154,-12.496,-12.689,3.9179,-21.674999,-14.551
-11.438,-5.6508,-9.6911,6.8293,7.8818,-2.1463,-0.96618,-0.06472,16.52,6.8293,7.8818,0.0,-17.143,-10.54,-19.937,-12.5,-12.496,-7.8583,4.8657,-19.704,-19.358999
-8.594,-5.6508,-6.7642,6.8293,4.9261,-1.1707,0.0,0.90615,8.7154,6.8293,4.9261,0.0,-15.238,-12.444,-15.175,-10.577,-9.5974,-0.12882,0.12638,-17.733999,-15.513
-4.8025,-4.6984,-2.8618,8.7805,9.8522,9.561,-0.96618,-6.8608,6.7642,8.7805,9.8522,0.98522,-11.429,-12.444,-8.5079,-7.6923,-4.7665,0.83736,-7.4566,-11.823,-10.705
-3.8547,-7.5556,-1.8862,2.9268,-4.9261,0.78049,-6.7633,2.8479,-0.06504,2.9268,-4.9261,-3.9409,-11.429,-16.254,-3.746,-6.7308,-2.8341,1.8035,-3.6651,-5.9113,-9.7436
-0.06319,-6.6032,1.0407,0.97561,-6.8966,-4.0976,-11.594,6.7314,-2.0163,0.97561,-6.8966,-6.8966,-9.5238,-14.349,1.9683,-3.8462,1.0306,4.7021,-3.6651,-4.9261,-5.8974
5.624,-2.7937,6.8943,2.9268,-1.9704,-0.19512,-13.527,3.8188,-2.0163,2.9268,-1.9704,-5.9113,-2.8571,-8.6349,9.5873,2.8846,7.7939,9.533,-6.5087,3.9409,-1.0897
6.5719,-9.4603,7.8699,0.0,-9.8522,-0.19512,-13.527,-3.9482,-8.8455,0.0,-9.8522,-7.8818,-1.9048,-9.5873,12.444,0.0,8.7601,4.7021,-7.4566,7.8818,-7.8205
7.5197,-11.365,9.8211,0.0,-10.837,-1.1707,-13.527,-0.06472,-10.797,0.0,-10.837,-8.867,1.9048,-5.7778,16.254,0.96154,10.692,4.7021,-21.674999,11.823,-7.8205
7.5197,-10.413,11.772,-1.9512,-1.9704,-0.19512,-14.493,4.7896,-10.797,-1.9512,-1.9704,-7.8818,10.476,2.7937,19.111,2.8846,13.591,10.499,-18.830999,19.704,-2.0513
5.624,-14.222,9.8211,2.9268,-3.9409,-8.0,-20.290001,10.615,-12.748,2.9268,-3.9409,-10.837,12.381,6.6032,19.111,0.0,12.625,11.465,-13.144,20.690001,-1.0897
3.7283,-18.032,6.8943,2.9268,-12.808,-12.878,-20.290001,7.7023,-18.601999,2.9268,-12.808,-13.793,13.333,9.4603,16.254,-2.8846,9.7262,10.499,-24.518,17.733999,-2.0513
2.7804,-21.841,6.8943,-2.9268,-20.690001,-11.902,-20.290001,-1.0356,-23.48,-2.9268,-20.690001,-13.793,17.143,12.317,14.349,-7.6923,7.7939,5.6683,-38.736,18.719,-4.9359
4.6761,-20.889,7.8699,-4.878,-20.690001,-8.9756,-15.459,-1.0356,-21.528,-4.878,-20.690001,-11.823,21.905001,15.175,14.349,-10.577,5.8615,1.8035,-39.683998,18.719,-3.9744
3.7283,-26.603001,3.9675,-7.8049,-15.764,-9.9512,-15.459,-2.0065,-15.675,-7.8049,-15.764,-12.808,23.809999,17.079,10.54,-14.423,1.9968,-2.0612,-25.466,21.674999,-5.8974
0.88468,-24.698,2.0163,-9.7561,-11.823,-11.902,-13.527,-2.0065,-12.748,-9.7561,-11.823,-10.837,21.905001,18.032,7.6825,-14.423,1.0306,-1.095,-20.726999,16.749001,-5.8974
-1.0111,-20.889,1.0407,-8.7805,-3.9409,-9.9512,-17.391001,-6.8608,-12.748,-8.7805,-3.9409,-7.8818,13.333,11.365,2.9206,-14.423,-2.8341,-6.8921,-28.309999,0.98522,-7.8205
2.7804,-17.079,4.9431,-4.878,-0.98522,-4.0976,-10.628,-7.8317,-9.8211,-4.878,-0.98522,0.0,11.429,9.4603,2.9206,-11.538,-1.868,-17.52,-30.205,-2.9557,-5.8974
2.7804,-12.317,7.8699,-5.8537,-6.8966,-5.0732,-0.96618,-7.8317,-5.9187,-5.8537,-6.8966,3.9409,4.7619,3.746,1.9683,-10.577,-0.90177,-19.452,-22.622,-6.8966,-9.7436
0.88468,-8.5079,8.8455,-1.9512,-1.9704,-5.0732,0.96618,-2.9773,-2.9919,-1.9512,-1.9704,5.9113,-1.9048,-2.9206,1.0159,-9.6154,-0.90177,-18.486,-27.362,-9.8522,-17.436001
6.5719,1.0159,15.675,2.9268,4.9261,6.6341,7.7295,-4.9191,7.7398,2.9268,4.9261,13.793,-4.7619,-6.7302,4.8254,-1.9231,3.9291,-16.554001,-17.882999,-10.837,-14.551
13.207,8.6349,24.455,5.8537,9.8522,15.415,20.290001,-6.8608,14.569,5.8537,9.8522,23.645,-7.619,-7.6825,8.6349,4.8077,7.7939,-16.554001,2.0221,-11.823,-9.7436
13.207,16.254,30.309,7.8049,12.808,15.415,28.018999,-6.8608,17.496,7.8049,12.808,29.556999,-12.381,-11.492,8.6349,8.6538,8.7601,-12.689,3.9179,-15.764,-8.7821
16.997999,28.635,37.138,13.659,24.631001,18.341,42.512001,1.877,29.202999,13.659,24.631001,37.438,-16.190001,-13.397,12.444,14.423,9.7262,-8.8245,15.292,-15.764,-4.9359
21.738001,40.063,41.041,19.511999,30.542,19.316999,52.174,6.7314,34.081001,19.511999,30.542,43.349998,-20.0,-13.397,14.349,18.268999,9.7262,-10.757,20.979,-15.764,-2.0513
24.580999,44.825001,43.966999,21.462999,32.512001,23.219999,55.071999,8.6731,39.935001,21.462999,32.512001,48.276001,-23.809999,-12.444,14.349,20.191999,7.7939,-10.757,15.292,-17.733999,-0.12821
27.424999,43.873001,42.992001,27.316999,42.365002,32.976002,54.105999,11.586,43.837002,27.316999,42.365002,52.216999,-23.809999,-9.5873,15.302,21.153999,4.8953,-3.9936,20.032,-14.778,6.6026
27.424999,36.254002,36.162998,28.292999,43.349998,44.682999,52.174,1.877,39.935001,28.292999,43.349998,53.202,-27.618999,-14.349,10.54,14.423,-2.8341,-1.095,31.406,-17.733999,1.7949
24.580999,33.396999,32.259998,33.171001,39.409,38.828999,51.208,18.382,37.007999,33.171001,39.409,53.202,-29.524,-15.302,5.7778,9.6154,-7.6651,4.7021,33.301998,-21.674999,-2.0513
24.580999,35.301998,32.259998,39.023998,43.349998,36.877998,52.174,31.974001,36.033001,39.023998,43.349998,53.202,-26.667,-14.349,6.7302,9.6154,-5.7327,5.6683,21.927,-18.719,-1.0897
25.528999,36.254002,31.285,35.122002,44.334999,39.805,55.071999,25.177999,29.202999,35.122002,44.334999,52.216999,-24.761999,-15.302,6.7302,10.577,-4.7665,12.432,17.188,-14.778,-3.0128
21.738001,34.348999,28.358,37.073002,41.379002,33.951,49.275002,25.177999,27.252001,37.073002,41.379002,48.276001,-25.714001,-14.349,2.9206,10.577,-5.7327,11.465,23.823,-15.764,1.7949
14.155,26.73,18.601999,33.171001,36.452999,28.098,36.715,20.323999,25.301001,33.171001,36.452999,40.394001,-32.381001,-23.872999,-7.5556,1.9231,-14.428,-0.12882,24.771,-22.66,-8.7821
11.311,21.968,11.772,30.243999,34.483002,30.049,31.884001,19.353001,25.301001,30.243999,34.483002,34.483002,-32.381001,-25.778,-12.317,-1.9231,-18.292999,3.7359,18.136,-21.674999,-13.59
8.4676,13.397,2.9919,27.316999,27.586,28.098,25.121,15.469,21.398001,27.316999,27.586,25.615999,-34.285999,-31.492001,-16.127001,-7.6923,-23.124001,5.6683,9.6051,-24.631001,-16.474001
4.6761,5.7778,-6.7642,22.438999,22.66,20.292999,17.391001,19.353001,18.472,22.438999,22.66,16.749001,-37.143002,-39.111,-21.841,-13.462,-29.886999,2.7697,14.344,-27.586,-20.320999
-1.0111,0.06349,-16.52,19.511999,17.733999,14.439,9.6618,24.207001,17.496,19.511999,17.733999,9.8522,-38.095001,-42.921001,-28.507999,-18.268999,-36.651001,3.7359,23.823,-25.615999,-19.358999
-2.9068,-0.88889,-22.374001,20.488001,16.749001,18.341,1.9324,16.440001,15.545,20.488001,16.749001,6.8966,-40.952,-43.873001,-34.222,-20.191999,-40.514999,7.6006,20.979,-25.615999,-17.436001
-5.7504,-4.6984,-27.252001,19.511999,11.823,15.415,-3.8647,18.382,12.618,19.511999,11.823,2.9557,-41.904999,-39.111,-37.078999,-22.115,-42.448002,7.6006,13.397,-26.601,-13.59
-9.5419,-11.365,-33.105999,14.634,6.8966,10.537,-9.6618,13.528,6.7642,14.634,6.8966,-3.9409,-39.048,-32.444,-37.078999,-23.077,-41.480999,5.6683,7.7093,-27.586,-8.7821
-10.49,-11.365,-36.033001,12.683,3.9409,10.537,-14.493,12.557,1.8862,12.683,3.9409,-7.8818,-33.333,-23.872999,-34.222,-19.231001,-36.651001,7.6006,2.97,-21.674999,0.83333
-15.229,-18.983999,-42.862,13.659,6.8966,-0.19512,-19.323999,21.294001,0.91057,13.659,6.8966,-14.778,-31.429001,-23.872999,-36.126999,-25.0,-38.583,7.6006,17.188,-18.719,-3.9744
-18.073,-25.650999,-46.764,17.561001,9.8522,-1.1707,-26.087,17.410999,0.91057,17.561001,9.8522,-17.733999,-32.381001,-27.683001,-36.126999,-29.808001,-41.480999,12.432,20.032,-16.749001,-9.7436
-19.968,-25.650999,-45.789001,15.61,5.9113,-4.0976,-22.222,12.557,-0.06504,15.61,5.9113,-19.704,-27.618999,-23.872999,-33.27,-28.846001,-38.583,15.33,12.449,-10.837,-5.8974
-26.603001,-29.459999,-49.691002,8.7805,-0.98522,-12.878,-29.952,10.615,-3.9675,8.7805,-0.98522,-24.631001,-22.857,-19.111,-32.317001,-30.768999,-37.617001,12.432,2.97,-6.8966,-4.9359
-25.656,-31.365,-50.667,5.8537,-3.9409,-11.902,-33.816002,9.644,-10.797,5.8537,-3.9409,-27.586,-17.143,-15.302,-27.556,-31.731001,-34.717999,17.261999,1.0742,-0.98522,-2.0513
-19.968,-31.365,-48.715,9.7561,-3.9409,-1.1707,-35.749001,-3.9482,-12.748,9.7561,-3.9409,-24.631001,-9.5238,-10.54,-21.841,-29.808001,-30.853001,21.127001,3.9179,3.9409,1.7949
-20.916,-32.317001,-44.813,9.7561,0.98522,-10.927,-30.917999,7.7023,-12.748,9.7561,0.98522,-25.615999,-4.7619,-9.5873,-18.983999,-31.731001,-28.921,27.889999,2.0221,10.837,-3.0128
-19.968,-32.317001,-40.910999,7.8049,4.9261,-18.732,-28.986,17.410999,-11.772,7.8049,4.9261,-25.615999,0.0,-9.5873,-14.222,-30.768999,-26.023001,26.924,1.0742,18.719,-6.859
-12.385,-24.698,-31.153999,10.732,10.837,-8.0,-23.188,15.469,-7.8699,10.732,10.837,-16.749001,6.6667,-4.8254,-5.6508,-22.115,-17.327,26.924,-6.5087,20.690001,-3.9744
-6.6983,-17.079,-24.325001,8.7805,1.9704,-5.0732,-20.290001,15.469,-16.65,8.7805,1.9704,-13.793,10.476,-2.9206,0.06349,-13.462,-9.5974,31.754999,-3.6651,24.631001,-1.0897
-1.0111,-17.079,-19.447001,15.61,4.9261,-0.19512,-21.256001,17.410999,-15.675,15.61,4.9261,-11.823,6.6667,-7.6825,1.0159,-12.5,-8.6312,36.585999,-5.5608,21.674999,-3.0128
6.5719,-12.317,-8.7154,15.61,5.9113,10.537,-12.56,6.7314,-10.797,15.61,5.9113,-1.9704,8.5714,-8.6349,5.7778,-7.6923,-2.8341,35.619999,-15.039,22.66,0.83333
8.4676,-6.6032,1.0407,8.7805,-0.98522,10.537,-8.6957,7.7023,-15.675,8.7805,-0.98522,2.9557,12.381,-3.873,9.5873,-2.8846,4.8953,28.857,-9.3523,23.645,2.7564
8.4676,0.06349,6.8943,2.9268,-2.9557,2.7317,-5.7971,10.615,-20.552999,2.9268,-2.9557,3.9409,12.381,0.88889,11.492,3.8462,12.625,21.127001,-9.3523,19.704,5.641
9.4155,10.54,15.675,-5.8537,-0.98522,-1.1707,0.96618,3.8188,-18.601999,-5.8537,-0.98522,5.9113,19.048,15.175,20.063,19.231001,25.184999,17.261999,-5.5608,21.674999,19.103001
12.259,18.159,25.431,-10.732,-3.9409,-0.19512,7.7295,-9.7735,-17.625999,-10.732,-3.9409,6.8966,26.667,26.603001,29.587,30.768999,36.778999,13.398,-2.7172,28.570999,32.563999
13.207,26.73,32.259998,-9.7561,-9.8522,-5.0732,9.6618,-8.8026,-17.625999,-9.7561,-9.8522,6.8966,35.237999,35.174999,35.301998,39.423,43.542999,4.7021,0.12638,31.527,41.217999
15.103,37.206001,37.138,-7.8049,-3.9409,2.7317,16.424999,-13.657,-10.797,-7.8049,-3.9409,12.808,42.856998,46.603001,38.159,48.077,49.34,2.7697,4.8657,36.452999,50.833
10.363,41.967999,32.259998,-14.634,-0.98522,-6.0488,19.323999,-10.744,-4.9431,-14.634,-0.98522,8.867,49.523998,58.032001,38.159,54.807999,54.171001,6.6345,10.553,38.424,58.526001
2.7804,37.206001,22.504,-22.438999,-15.764,-16.780001,16.424999,-9.7735,-5.9187,-22.438999,-15.764,-0.98522,52.381001,60.889,34.348999,51.923,52.237999,8.5668,9.6051,40.394001,53.717999
-4.8025,19.111,6.8943,-26.341,-21.674999,-20.683001,-0.96618,-24.337,-5.9187,-26.341,-21.674999,-13.793,47.618999,54.222,25.778,37.5,42.576,-0.12882,16.24,36.452999,43.140999
-17.125,3.873,-8.7154,-30.243999,-13.793,-32.389999,-16.424999,-29.191,-7.8699,-30.243999,-13.793,-26.601,44.762001,51.365002,16.254,25.962,33.881001,-5.9259,13.397,33.498001,38.333
-25.656,-3.746,-19.447001,-29.268,-11.823,-37.268002,-24.155001,-29.191,-9.8211,-29.268,-11.823,-34.483002,42.856998,49.459999,8.6349,18.268999,25.184999,-9.7907,4.8657,27.586,34.487
-29.447001,-8.5079,-29.202999,-24.389999,-17.733999,-37.268002,-26.087,-28.219999,-11.772,-24.389999,-17.733999,-39.409,38.095001,42.793999,0.06349,10.577,16.49,-9.7907,2.0221,23.645,28.718
-35.133999,-15.175,-39.935001,-23.415001,-11.823,-37.268002,-23.188,-28.219999,-5.9187,-23.415001,-11.823,-41.379002,32.381001,38.032001,-8.5079,1.9231,6.8277,-9.7907,1.0742,16.749001,21.987
-35.133999,-18.983999,-43.837002,-18.537001,-1.9704,-42.146,-22.222,-16.57,1.8862,-18.537001,-1.9704,-43.349998,30.476,33.27,-12.317,-4.8077,1.0306,-6.8921,-13.144,14.778,17.179001
-37.978001,-25.650999,-47.740002,-14.634,2.9557,-43.122002,-24.155001,-16.57,4.813,-14.634,2.9557,-43.349998,25.714001,22.794001,-17.079,-15.385,-6.6989,-9.7907,-6.5087,9.8522,4.6795
-38.925999,-29.459999,-47.740002,-7.8049,2.9557,-37.268002,-19.323999,-18.511,10.667,-7.8049,2.9557,-38.424,15.238,12.317,-23.746,-24.038,-14.428,-16.554001,8.6572,1.9704,-7.8205
-30.395,-19.937,-37.984001,-1.9512,7.8818,-20.683001,-6.7633,-21.424,15.545,-1.9512,7.8818,-23.645,11.429,7.5556,-22.794001,-22.115,-14.428,-15.588,12.449,-1.9704,-9.7436
-22.812,-13.27,-28.228001,4.878,24.631001,-10.927,5.7971,-9.7735,21.398001,4.878,24.631001,-9.8522,4.7619,-1.0159,-21.841,-22.115,-16.361,-14.622,3.9179,-9.8522,-14.551
-8.594,-1.8413,-12.618,16.584999,42.365002,1.7561,27.052999,0.90615,32.130001,16.584999,42.365002,8.867,1.9048,-3.873,-16.127001,-17.308001,-13.462,-4.9597,-1.7694,-9.8522,-14.551
-5.7504,8.6349,-0.91057,18.537001,43.349998,6.6341,45.410999,6.7314,32.130001,18.537001,43.349998,21.674999,-3.8095,-6.7302,-16.127001,-12.5,-13.462,-4.9597,2.97,-9.8522,-13.59
-5.7504,11.492,2.0163,26.341,47.291,13.463,44.444,1.877,31.153999,26.341,47.291,28.570999,-14.286,-15.302,-21.841,-15.385,-20.225,-9.7907,16.24,-18.719,-20.320999
-7.6461,16.254,2.9919,30.243999,47.291,23.219999,35.749001,3.8188,35.056999,30.243999,47.291,32.512001,-23.809999,-25.778,-27.556,-17.308001,-26.023001,-8.8245,14.344,-27.586,-26.09
-6.6983,15.302,5.9187,27.316999,36.452999,19.316999,43.478001,10.615,35.056999,27.316999,36.452999,31.527,-27.618999,-30.540001,-28.507999,-18.268999,-28.921,-10.757,12.449,-31.527,-26.09
-6.6983,11.492,4.9431,23.415001,30.542,15.415,37.681,13.528,27.252001,23.415001,30.542,28.570999,-32.381001,-37.206001,-30.413,-22.115,-32.785999,-9.7907,5.8136,-32.512001,-30.896999
-4.8025,7.6825,5.9187,24.389999,40.394001,18.341,32.849998,17.410999,22.374001,24.389999,40.394001,28.570999,-33.333,-41.967999,-29.459999,-25.0,-34.717999,-5.9259,5.8136,-27.586,-33.782001
-0.06319,1.9683,5.9187,25.365999,31.527,20.292999,28.986,20.323999,16.52,25.365999,31.527,27.586,-31.429001,-43.873001,-26.603001,-27.885,-34.717999,6.6345,2.97,-21.674999,-35.705002
5.624,-1.8413,7.8699,30.243999,24.631001,22.243999,24.155001,20.323999,8.7154,30.243999,24.631001,26.601,-24.761999,-41.015999,-21.841,-28.846001,-31.82,13.398,-10.3,-16.749001,-34.743999
9.4155,-9.4603,7.8699,32.195,18.719,27.122,19.323999,22.264999,1.8862,32.195,18.719,25.615999,-20.0,-41.015999,-17.079,-32.692001,-28.921,11.465,-15.987,-8.867,-40.513
10.363,-15.175,6.8943,35.122002,16.749001,32.976002,9.6618,15.469,-4.9431,35.122002,16.749001,22.66,-13.333,-36.254002,-14.222,-33.653999,-26.023001,12.432,-27.362,-7.8818,-41.473999
10.363,-18.032,5.9187,33.171001,13.793,31.024,0.0,14.498,-13.724,33.171001,13.793,17.733999,-5.7143,-25.778,-9.4603,-26.923,-18.292999,5.6683,-18.830999,-4.9261,-31.858999
2.7804,-20.889,0.06504,27.316999,-0.98522,14.439,-8.6957,18.382,-17.625999,27.316999,-0.98522,5.9113,-4.7619,-21.016001,-9.4603,-22.115,-15.395,-1.095,-14.092,-3.9409,-26.09
1.8325,-20.889,0.06504,21.462999,-8.867,9.561,-12.56,12.557,-19.577,21.462999,-8.867,0.98522,-2.8571,-14.349,-6.6032,-16.346001,-9.5974,-2.0612,-21.674999,-3.9409,-19.358999
11.311,-12.317,8.8455,20.488001,-2.9557,16.389999,-11.594,9.644,-19.577,20.488001,-2.9557,4.9261,6.6667,0.88889,4.8254,-1.9231,4.8953,0.83736,-23.57,3.9409,-4.9359
13.207,-7.5556,11.772,19.511999,-2.9557,16.389999,-12.56,6.7314,-21.528,19.511999,-2.9557,3.9409,11.429,10.413,10.54,5.7692,12.625,-3.0274,-26.414,6.8966,-1.0897
15.103,-1.8413,10.797,17.561001,-5.9113,20.292999,-12.56,0.90615,-23.48,17.561001,-5.9113,4.9261,13.333,13.27,13.397,10.577,16.49,-6.8921,-15.039,4.9261,-1.0897
14.155,1.9683,9.8211,14.634,-5.9113,14.439,-10.628,4.7896,-22.504,14.634,-5.9113,3.9409,18.094999,18.032,16.254,16.346001,22.287001,0.83736,-17.882999,7.8818,3.7179
12.259,4.8254,11.772,12.683,-5.9113,6.6341,-9.6618,6.7314,-20.552999,12.683,-5.9113,0.98522,22.857,25.650999,19.111,25.0,28.084,0.83736,-14.092,10.837,12.372
5.624,9.5873,9.8211,5.8537,-5.9113,4.6829,-12.56,-9.7735,-16.65,5.8537,-5.9113,-4.9261,20.0,25.650999,16.254,26.923,27.118,-12.689,-3.6651,0.0,16.218
-3.8547,10.54,2.0163,-5.8537,-13.793,-7.0244,-12.56,-22.395,-11.772,-5.8537,-13.793,-13.793,14.286,20.889,8.6349,24.038,19.388,-22.351,0.12638,-4.9261,17.179001
-12.385,8.6349,-5.7886,-16.584999,-17.733999,-21.659,-8.6957,-27.249001,-7.8699,-16.584999,-17.733999,-19.704,7.619,16.127001,0.06349,19.231001,10.692,-29.114,-5.5608,-4.9261,19.103001
-19.968,8.6349,-11.642,-26.341,-16.749001,-25.561001,-10.628,-41.812,-3.9675,-26.341,-16.749001,-22.66,0.0,5.6508,-7.5556,13.462,1.0306,-37.810001,8.6572,-9.8522,16.218
-24.708,7.6825,-14.569,-32.195,-18.719,-35.317001,-8.6957,-41.812,-1.0407,-32.195,-18.719,-25.615999,-6.6667,-1.9683,-14.222,9.6154,-5.7327,-38.776001,21.927,-10.837,10.449
-23.76,9.5873,-12.618,-31.219999,-22.66,-39.220001,-8.6957,-36.958,0.91057,-31.219999,-22.66,-24.631001,-9.5238,-5.7778,-14.222,8.6538,-6.6989,-31.047001,21.927,-10.837,8.5256
-17.125,8.6349,-7.7398,-32.195,-15.764,-31.415001,-6.7633,-34.044998,1.8862,-32.195,-15.764,-20.690001,-9.5238,-7.6825,-10.413,10.577,-4.7665,-20.419001,19.084,-4.9261,9.4872
-10.49,9.5873,-2.8618,-27.316999,-11.823,-24.584999,-9.6618,-23.365999,-1.0407,-27.316999,-11.823,-16.749001,-10.476,-7.6825,-5.6508,10.577,-2.8341,-12.689,9.6051,-1.9704,9.4872
-1.0111,9.5873,4.9431,-19.511999,-7.8818,-10.927,2.8986,-15.599,0.91057,-19.511999,-7.8818,-5.9113,-10.476,-9.5873,0.06349,9.6154,-0.90177,-1.095,10.553,0.0,11.41
4.6761,7.6825,11.772,-15.61,-8.867,-8.0,7.7295,-1.0356,1.8862,-15.61,-8.867,0.98522,-11.429,-11.492,1.9683,4.8077,-1.868,6.6345,19.084,0.0,4.6795
12.259,12.444,17.625999,-12.683,-6.8966,-3.122,13.527,8.6731,0.91057,-12.683,-6.8966,9.8522,-8.5714,-10.54,7.6825,4.8077,0.06441,4.7021,9.6051,3.9409,1.7949
22.686001,14.349,23.48,-8.7805,2.9557,13.463,25.121,3.8188,1.8862,-8.7805,2.9557,21.674999,-5.7143,-8.6349,11.492,5.7692,2.963,7.6006,6.7615,5.9113,2.7564
24.580999,12.444,22.504,-1.9512,7.8818,16.389999,26.087,13.528,4.813,-1.9512,7.8818,26.601,-6.6667,-6.7302,12.444,5.7692,3.9291,15.33,3.9179,6.8966,0.83333
29.320999,15.302,26.407,7.8049,16.749001,22.243999,27.052999,17.410999,3.8374,7.8049,16.749001,31.527,0.95238,0.88889,19.111,12.5,12.625,18.229,2.97,7.8818,5.641
34.060001,18.159,31.285,18.537001,22.66,30.049,27.052999,23.236,5.7886,18.537001,22.66,34.483002,8.5714,10.413,25.778,21.153999,22.287001,19.195,-6.5087,8.867,12.372
30.268999,12.444,25.431,11.707,16.749001,19.316999,20.290001,25.177999,1.8862,11.707,16.749001,26.601,8.5714,10.413,23.872999,21.153999,22.287001,14.364,4.8657,7.8818,10.449
17.945999,6.7302,13.724,0.97561,2.9557,10.537,3.8647,10.615,-6.8943,0.97561,2.9557,12.808,3.8095,7.5556,16.254,16.346001,17.455999,2.7697,13.397,1.9704,5.641
10.363,2.9206,6.8943,-1.9512,-5.9113,6.6341,-4.8309,-1.0356,-15.675,-1.9512,-5.9113,2.9557,3.8095,7.5556,13.397,16.346001,15.523,-1.095,6.7615,1.9704,8.5256
4.6761,-1.8413,0.06504,-1.9512,-4.9261,-2.1463,-9.6618,-0.06472,-14.699,-1.9512,-4.9261,-6.8966,4.7619,10.413,12.444,15.385,14.557,-1.095,-2.7172,5.9113,9.4872
3.7283,-4.6984,-2.8618,-5.8537,-5.9113,-3.122,-15.459,-6.8608,-11.772,-5.8537,-5.9113,-10.837,7.619,14.222,15.302,15.385,16.49,-0.12882,-6.5087,6.8966,12.372
1.8325,-8.5079,-4.813,-9.7561,-6.8966,-5.0732,-18.357,-8.8026,-13.724,-9.7561,-6.8966,-13.793,10.476,18.983999,16.254,15.385,17.455999,2.7697,1.0742,6.8966,15.256
0.88468,-9.4603,-5.7886,-4.878,-13.793,-7.0244,-18.357,5.7605,-16.65,-4.878,-13.793,-14.778,12.381,19.937,17.205999,16.346001,17.455999,10.499,0.12638,10.837,16.218
-1.9589,-8.5079,-7.7398,-4.878,-14.778,-11.902,-17.391001,13.528,-19.577,-4.878,-14.778,-16.749001,11.429,20.889,16.254,17.308001,17.455999,15.33,-9.3523,13.793,20.063999
-4.8025,-10.413,-8.7154,-13.659,-14.778,-12.878,-28.986,9.644,-25.431,-13.659,-14.778,-19.704,9.5238,23.746,14.349,15.385,15.523,9.533,-6.5087,10.837,20.063999
-3.8547,-12.317,-7.7398,-11.707,-16.749001,-8.0,-31.884001,-2.9773,-30.309,-11.707,-16.749001,-16.749001,4.7619,19.937,10.54,11.538,11.659,0.83736,-5.5608,8.867,15.256
-6.6983,-8.5079,-2.8618,-9.7561,-15.764,-11.902,-18.357,3.8188,-27.382,-9.7561,-15.764,-11.823,-1.9048,16.127001,5.7778,7.6923,6.8277,-1.095,-15.987,1.9704,14.295
-5.7504,-4.6984,1.0407,-12.683,-23.645,-11.902,-6.7633,1.877,-27.382,-12.683,-23.645,-6.8966,-7.619,12.317,1.9683,5.7692,2.963,-4.9597,-19.778999,-5.9113,14.295
-5.7504,-2.7937,3.9675,-12.683,-20.690001,-7.0244,-1.9324,-5.89,-23.48,-12.683,-20.690001,0.98522,-14.286,7.5556,-2.7937,3.8462,-0.90177,-15.588,-9.3523,-13.793,13.333
2.7804,4.8254,15.675,-6.8293,-9.8522,1.7561,12.56,0.90615,-17.625999,-6.8293,-9.8522,14.778,-14.286,6.6032,0.06349,9.6154,2.963,-9.7907,-3.6651,-11.823,18.141001
14.155,15.302,28.358,0.97561,5.9113,14.439,23.188,3.8188,-7.8699,0.97561,5.9113,29.556999,-14.286,2.7937,5.7778,14.423,7.7939,-9.7907,0.12638,-11.823,15.256
17.945999,20.063,35.187,4.878,13.793,22.243999,32.849998,3.8188,-3.9675,4.878,13.793,38.424,-16.190001,-1.0159,6.7302,17.308001,9.7262,-9.7907,2.97,-12.808,11.41
26.476999,31.492001,43.966999,9.7561,15.764,31.024,45.410999,6.7314,-2.0163,9.7561,15.764,46.305,-11.429,4.6984,13.397,26.923,17.455999,-6.8921,-4.613,-8.867,17.179001
33.112,41.967999,51.771999,15.61,17.733999,40.779999,50.242001,7.7023,2.8618,15.61,17.733999,53.202,-9.5238,7.5556,18.159,35.577,22.287001,-5.9259,8.6572,-5.9113,22.948999
34.060001,43.873001,50.797001,13.659,16.749001,32.976002,50.242001,18.382,4.813,13.659,16.749001,51.231998,-8.5714,7.5556,19.111,37.5,22.287001,0.83736,13.397,-7.8818,22.948999
36.903999,42.921001,49.820999,10.732,15.764,32.976002,49.275002,21.294001,5.7886,10.732,15.764,50.245998,-2.8571,9.4603,22.921,38.462002,24.219,3.7359,15.292,-0.98522,22.948999
38.799,41.967999,46.894001,10.732,19.704,36.877998,43.478001,19.353001,6.7642,10.732,19.704,46.305,2.8571,13.27,25.778,40.384998,26.150999,6.6345,13.397,6.8966,25.833
36.903999,39.111,41.041,11.707,15.764,38.828999,35.749001,11.586,9.6911,11.707,15.764,41.379002,0.95238,12.317,23.872999,37.5,23.253,13.398,17.188,5.9113,23.91
29.320999,33.396999,33.236,7.8049,8.867,32.0,31.884001,12.557,10.667,7.8049,8.867,33.498001,-3.8095,8.5079,20.063,32.692001,19.388,10.499,19.084,1.9704,17.179001
26.476999,31.492001,28.358,5.8537,8.867,30.049,30.917999,7.7023,9.6911,5.8537,8.867,26.601,-4.7619,3.746,20.063,28.846001,17.455999,8.5668,14.344,2.9557,12.372
22.686001,19.111,17.625999,1.9512,4.9261,18.341,18.357,10.615,3.8374,1.9512,4.9261,15.764,-4.7619,0.88889,20.063,22.115,14.557,5.6683,8.6572,4.9261,9.4872
20.790001,8.6349,10.797,1.9512,-0.98522,12.488,1.9324,14.498,2.8618,1.9512,-0.98522,7.8818,-1.9048,1.8413,21.968,19.231001,15.523,12.432,0.12638,6.8966,6.6026
9.4155,2.9206,2.9919,-4.878,-14.778,6.6341,-9.6618,7.7023,-2.9919,-4.878,-14.778,-3.9409,0.95238,0.88889,19.111,15.385,13.591,13.398,-0.82148,8.867,4.6795
-1.0111,-7.5556,-7.7398,-10.732,-16.749001,-4.0976,-23.188,1.877,-7.8699,-10.732,-16.749001,-17.733999,1.9048,-1.0159,14.349,6.7308,8.7601,7.6006,-5.5608,6.8966,1.7949
-9.5419,-18.983999,-20.423,-20.488001,-21.674999,-18.732,-36.715,-6.8608,-12.748,-20.488001,-21.674999,-32.512001,0.0,-6.7302,6.7302,-5.7692,0.06441,-1.095,-9.3523,2.9557,-5.8974
-19.968,-30.413,-36.033001,-31.219999,-32.512001,-25.561001,-51.208,-14.628,-16.65,-31.219999,-32.512001,-45.32,-2.8571,-14.349,-2.7937,-18.268999,-10.564,-10.757,-12.196,0.0,-15.513
-29.447001,-39.937,-47.740002,-37.073002,-43.349998,-35.317001,-57.971001,-19.482,-15.675,-37.073002,-43.349998,-57.143002,-7.619,-15.302,-13.27,-26.923,-18.292999,-11.723,-9.3523,-8.867,-14.551
-37.978001,-42.793999,-52.618,-40.0,-48.276001,-48.0,-61.835999,-18.511,-15.675,-40.0,-48.276001,-65.025002,-7.619,-5.7778,-20.889,-26.923,-21.191999,-20.419001,0.12638,-14.778,-6.859
-43.665001,-42.793999,-51.641998,-40.0,-48.276001,-48.976002,-61.835999,-19.482,-18.601999,-40.0,-48.276001,-65.025002,-5.7143,3.746,-25.650999,-24.038,-20.225,-20.419001,-4.613,-14.778,-1.0897
-43.665001,-36.126999,-49.691002,-42.926998,-52.216999,-44.098,-57.971001,-25.306999,-21.528,-42.926998,-52.216999,-61.084,-6.6667,8.5079,-29.459999,-20.191999,-20.225,-23.316999,-7.4566,-16.749001,0.83333
-36.082001,-26.603001,-37.984001,-35.122002,-46.305,-34.341,-48.308998,-25.306999,-21.528,-35.122002,-46.305,-48.276001,-2.8571,16.127001,-24.698,-13.462,-14.428,-23.316999,-6.5087,-15.764,4.6795
-25.656,-10.413,-20.423,-32.195,-47.291,-25.561001,-33.816002,-14.628,-22.504,-32.195,-47.291,-33.498001,4.7619,21.841,-13.27,-0.96154,-3.8003,-16.554001,-12.196,-7.8818,10.449
-19.021,-4.6984,-9.6911,-33.171001,-44.334999,-25.561001,-19.323999,-7.8317,-20.552999,-33.171001,-44.334999,-24.631001,5.7143,21.841,-8.5079,0.96154,-0.90177,-12.689,-2.7172,-5.9113,8.5256
-9.5419,-2.7937,-1.8862,-30.243999,-31.527,-14.829,-15.459,-1.0356,-13.724,-30.243999,-31.527,-15.764,5.7143,17.079,-4.6984,0.96154,0.06441,-4.9597,4.8657,-6.8966,3.7179
-2.9068,4.8254,6.8943,-19.511999,-20.690001,-2.1463,-4.8309,3.8188,-5.9187,-19.511999,-20.690001,-5.9113,7.619,16.127001,1.0159,5.7692,3.9291,4.7021,3.9179,-2.9557,5.641
5.624,12.444,16.65,-11.707,-18.719,6.6341,2.8986,10.615,0.91057,-11.707,-18.719,3.9409,9.5238,16.127001,6.7302,10.577,9.7262,14.364,2.0221,1.9704,7.5641
14.155,17.205999,23.48,-11.707,-16.749001,12.488,13.527,9.644,3.8374,-11.707,-16.749001,11.823,10.476,12.317,11.492,12.5,11.659,17.261999,3.9179,2.9557,6.6026
19.841999,16.254,25.431,-4.878,-9.8522,16.389999,18.357,8.6731,4.813,-4.878,-9.8522,17.733999,11.429,7.5556,14.349,7.6923,12.625,14.364,7.7093,8.867,-2.0513
17.945999,12.444,23.48,-2.9268,-11.823,9.561,13.527,19.353001,3.8374,-2.9268,-11.823,18.719,11.429,1.8413,14.349,1.9231,10.692,14.364,6.7615,5.9113,-7.8205
21.738001,12.444,27.382,2.9268,0.98522,14.439,22.222,27.120001,8.7154,2.9268,0.98522,23.645,13.333,2.7937,17.205999,1.9231,13.591,20.160999,6.7615,9.8522,-5.8974
24.580999,10.54,26.407,6.8293,1.9704,24.195,29.952,18.382,8.7154,6.8293,1.9704,28.570999,12.381,0.88889,16.254,0.0,11.659,11.465,1.0742,10.837,-7.8205
20.790001,7.6825,22.504,6.8293,3.9409,22.243999,28.018999,14.498,5.7886,6.8293,3.9409,26.601,9.5238,-3.873,13.397,-2.8846,8.7601,10.499,1.0742,9.8522,-10.705
15.103,7.6825,16.65,4.878,10.837,20.292999,20.290001,10.615,5.7886,4.878,10.837,24.631001,4.7619,-9.5873,7.6825,-6.7308,2.963,17.261999,-5.5608,10.837,-11.667
11.311,9.5873,11.772,11.707,11.823,23.219999,21.256001,7.7023,4.813,11.707,11.823,23.645,-0.95238,-12.444,1.0159,-7.6923,-2.8341,16.296,-2.7172,4.9261,-13.59
2.7804,6.7302,3.9675,10.732,5.9113,8.5854,19.323999,9.644,2.8618,10.732,5.9113,16.749001,-3.8095,-14.349,-7.5556,-8.6538,-8.6312,4.7021,3.9179,-2.9557,-14.551
-4.8025,3.873,-5.7886,3.9024,3.9409,2.7317,12.56,1.877,0.91057,3.9024,3.9409,8.867,-9.5238,-14.349,-16.127001,-10.577,-14.428,-3.9936,12.449,-7.8818,-9.7436
-14.281,-4.6984,-19.447001,-0.97561,-3.9409,-2.1463,2.8986,-2.9773,-2.0163,-0.97561,-3.9409,-1.9704,-17.143,-18.159,-24.698,-17.308001,-23.124001,-8.8245,6.7615,-13.793,-11.667
-17.125,-7.5556,-26.275999,0.97561,-1.9704,-8.9756,-9.6618,-0.06472,-2.9919,0.97561,-1.9704,-9.8522,-19.048,-17.205999,-27.556,-17.308001,-26.023001,-10.757,0.12638,-15.764,-9.7436
-17.125,-12.317,-27.252001,2.9268,0.0,-7.0244,-16.424999,-4.9191,-2.0163,2.9268,0.0,-11.823,-15.238,-10.54,-26.603001,-13.462,-24.09,-9.7907,-3.6651,-15.764,-4.9359
-14.281,-16.127001,-25.301001,9.7561,2.9557,2.7317,-18.357,-2.0065,-0.06504,9.7561,2.9557,-10.837,-12.381,-6.7302,-23.746,-10.577,-20.225,-6.8921,-3.6651,-12.808,0.83333
-19.021,-24.698,-29.202999,3.9024,-4.9261,-12.878,-26.087,1.877,-5.9187,3.9024,-4.9261,-19.704,-15.238,-12.444,-24.698,-17.308001,-22.158001,-3.9936,-0.82148,-12.808,-6.859
-20.916,-32.317001,-31.153999,-2.9268,-10.837,-21.659,-28.986,-0.06472,-7.8699,-2.9268,-10.837,-24.631001,-14.286,-16.254,-22.794001,-22.115,-22.158001,-0.12882,0.12638,-11.823,-15.513
-19.968,-34.222,-28.228001,-4.878,-5.9113,-18.732,-29.952,-3.9482,-8.8455,-4.878,-5.9113,-23.645,-7.619,-12.444,-18.032,-22.115,-19.259001,0.83736,-8.4044,-5.9113,-14.551
-19.968,-32.317001,-26.275999,-2.9268,-7.8818,-18.732,-32.849998,-4.9191,-9.8211,-2.9268,-7.8818,-24.631001,-2.8571,-8.6349,-15.175,-24.038,-16.361,0.83736,-10.3,-4.9261,-13.59
-19.968,-33.27,-25.301001,-5.8537,-11.823,-20.683001,-33.816002,-7.8317,-11.772,-5.8537,-11.823,-24.631001,1.9048,-6.7302,-15.175,-25.962,-15.395,-3.9936,-5.5608,-4.9261,-12.628
-19.968,-33.27,-24.325001,-10.732,-13.793,-15.805,-28.986,-13.657,-10.797,-10.732,-13.793,-23.645,2.8571,-5.7778,-16.127001,-27.885,-16.361,-1.095,-11.248,-1.9704,-14.551
-22.812,-28.507999,-23.35,-8.7805,-12.808,-19.707001,-21.256001,-10.744,-9.8211,-8.7805,-12.808,-21.674999,0.0,-8.6349,-18.983999,-29.808001,-18.292999,-0.12882,-12.196,-4.9261,-19.358999
-22.812,-20.889,-22.374001,-10.732,-13.793,-28.488001,-21.256001,-6.8608,-9.8211,-10.732,-13.793,-22.66,-2.8571,-11.492,-19.937,-29.808001,-20.225,-3.0274,-8.4044,-4.9261,-25.128
-15.229,-13.27,-12.618,-9.7561,-8.867,-18.732,-14.493,-7.8317,-7.8699,-9.7561,-8.867,-15.764,1.9048,-5.7778,-13.27,-22.115,-12.496,-4.9597,-3.6651,2.9557,-22.243999
-6.6983,-7.5556,-2.8618,-6.8293,-7.8818,-8.0,-3.8647,-3.9482,-2.9919,-6.8293,-7.8818,-5.9113,4.7619,-0.06349,-6.6032,-13.462,-5.7327,0.83736,-11.248,5.9113,-17.436001
1.8325,0.06349,3.9675,-3.9024,-1.9704,-2.1463,7.7295,1.877,1.8862,-3.9024,-1.9704,1.9704,4.7619,0.88889,-0.88889,-6.7308,0.06441,10.499,-3.6651,6.8966,-13.59
3.7283,2.9206,3.9675,0.0,5.9113,4.6829,2.8986,-1.0356,2.8618,0.0,5.9113,3.9409,1.9048,0.88889,-1.8413,-3.8462,0.06441,7.6006,5.8136,4.9261,-9.7436
4.6761,3.873,3.9675,0.97561,4.9261,0.78049,1.9324,7.7023,1.8862,0.97561,4.9261,3.9409,3.8095,5.6508,0.06349,0.0,3.9291,10.499,-0.82148,9.8522,-5.8974
8.4676,7.6825,5.9187,3.9024,2.9557,5.6585,7.7295,10.615,0.91057,3.9024,2.9557,6.8966,6.6667,5.6508,3.873,1.9231,5.8615,11.465,0.12638,11.823,-2.0513
9.4155,5.7778,4.9431,4.878,2.9557,9.561,11.594,8.6731,2.8618,4.878,2.9557,9.8522,4.7619,0.88889,2.9206,-1.9231,2.963,11.465,-1.7694,11.823,-7.8205
11.311,2.9206,2.9919,12.683,7.8818,16.389999,9.6618,6.7314,3.8374,12.683,7.8818,13.793,1.9048,-4.8254,1.0159,-6.7308,-2.8341,18.229,-10.3,11.823,-13.59
13.207,2.9206,2.9919,17.561001,12.808,21.268,11.594,12.557,5.7886,17.561001,12.808,17.733999,1.9048,-6.7302,0.06349,-8.6538,-5.7327,16.296,-5.5608,12.808,-13.59
7.5197,-4.6984,-3.8374,13.659,6.8966,14.439,10.628,17.410999,2.8618,13.659,6.8966,13.793,0.0,-12.444,-4.6984,-15.385,-10.564,17.261999,-0.82148,9.8522,-15.513
3.7283,-9.4603,-7.7398,8.7805,5.9113,15.415,7.7295,14.498,-1.0407,8.7805,5.9113,10.837,-4.7619,-18.159,-8.5079,-18.268999,-14.428,15.33,-8.4044,5.9113,-14.551
5.624,-10.413,-7.7398,11.707,5.9113,18.341,2.8986,10.615,-2.9919,11.707,5.9113,8.867,-8.5714,-23.872999,-9.4603,-22.115,-16.361,15.33,-5.5608,3.9409,-20.320999
3.7283,-14.222,-10.667,9.7561,-0.98522,8.5854,-2.8986,14.498,-6.8943,9.7561,-0.98522,0.98522,-9.5238,-25.778,-8.5079,-24.038,-17.327,13.398,-6.5087,1.9704,-26.09
5.624,-15.175,-11.642,9.7561,3.9409,5.6585,-10.628,15.469,-3.9675,9.7561,3.9409,-2.9557,-6.6667,-21.016001,-2.7937,-20.191999,-12.496,15.33,-15.987,5.9113,-21.282
3.7283,-17.079,-14.569,3.9024,-0.98522,4.6829,-19.323999,9.644,-5.9187,3.9024,-0.98522,-8.867,-5.7143,-19.111,-0.88889,-18.268999,-8.6312,14.364,-17.882999,7.8818,-18.396999
2.7804,-17.079,-16.52,-1.9512,-9.8522,4.6829,-20.290001,5.7605,-9.8211,-1.9512,-9.8522,-13.793,-5.7143,-16.254,2.9206,-13.462,-4.7665,14.364,-12.196,7.8818,-14.551
3.7283,-16.127001,-15.545,-4.878,-11.823,3.7073,-19.323999,3.8188,-9.8211,-4.878,-11.823,-14.778,-1.9048,-9.5873,6.7302,-7.6923,1.0306,11.465,0.12638,10.837,-5.8974
5.624,-16.127001,-14.569,-7.8049,-18.719,-1.1707,-21.256001,0.90615,-11.772,-7.8049,-18.719,-15.764,-0.95238,-7.6825,8.6349,-5.7692,2.963,9.533,5.8136,11.823,-4.9359
0.88468,-14.222,-13.593,-14.634,-25.615999,-10.927,-22.222,-0.06472,-12.748,-14.634,-25.615999,-18.719,0.0,-2.9206,8.6349,-1.9231,4.8953,13.398,2.97,6.8966,-2.0513
-1.9589,-5.6508,-7.7398,-13.659,-13.793,-11.902,-16.424999,4.7896,-7.8699,-13.659,-13.793,-15.764,0.95238,-0.06349,8.6349,4.8077,7.7939,13.398,-1.7694,8.867,4.6795
-1.0111,2.9206,1.0407,-9.7561,-7.8818,-7.0244,-7.7295,-0.06472,-2.9919,-9.7561,-7.8818,-10.837,0.95238,0.88889,9.5873,9.6154,10.692,6.6345,-3.6651,4.9261,6.6026
-1.0111,3.873,5.9187,-7.8049,-3.9409,-7.0244,-0.96618,-7.8317,1.8862,-7.8049,-3.9409,-6.8966,-0.95238,0.88889,7.6825,8.6538,8.7601,-1.095,4.8657,0.98522,8.5256
1.8325,5.7778,11.772,-11.707,-0.98522,-2.1463,6.7633,-13.657,9.6911,-11.707,-0.98522,-0.98522,0.95238,1.8413,6.7302,9.6154,8.7601,-4.9597,2.97,0.98522,9.4872
-0.06319,6.7302,12.748,-10.732,-0.98522,-6.0488,10.628,-10.744,14.569,-10.732,-0.98522,1.9704,0.95238,1.8413,1.9683,7.6923,4.8953,-7.8583,4.8657,-3.9409,6.6026
-2.9068,8.6349,14.699,-7.8049,0.0,-8.9756,8.6957,-8.8026,14.569,-7.8049,0.0,1.9704,0.95238,4.6984,-0.88889,6.7308,2.963,-15.588,7.7093,-5.9113,1.7949
1.8325,12.444,21.528,-3.9024,-0.98522,0.78049,16.424999,-11.715,13.593,-3.9024,-0.98522,7.8818,5.7143,10.413,1.9683,9.6154,6.8277,-10.757,-6.5087,-2.9557,2.7564
6.5719,16.254,26.407,-0.97561,1.9704,9.561,18.357,-14.628,7.7398,-0.97561,1.9704,12.808,12.381,18.032,6.7302,14.423,12.625,-9.7907,-12.196,-2.9557,4.6795
13.207,13.397,28.358,-2.9268,3.9409,10.537,15.459,-2.9773,8.7154,-2.9268,3.9409,14.778,18.094999,24.698,12.444,15.385,18.422001,-7.8583,-0.82148,-0.98522,6.6026
18.893999,11.492,28.358,-0.97561,7.8818,9.561,15.459,3.8188,5.7886,-0.97561,7.8818,15.764,20.952,26.603001,16.254,14.423,21.32,-6.8921,3.9179,1.9704,8.5256
20.790001,13.397,26.407,1.9512,5.9113,10.537,13.527,-2.0065,5.7886,1.9512,5.9113,15.764,24.761999,26.603001,18.159,12.5,21.32,-8.8245,2.97,0.98522,4.6795
16.997999,13.397,23.48,-0.97561,-0.98522,6.6341,9.6618,-0.06472,4.813,-0.97561,-0.98522,12.808,24.761999,24.698,15.302,10.577,19.388,-13.655,-5.5608,-0.98522,2.7564
17.945999,12.444,20.552999,-3.9024,-9.8522,9.561,9.6618,-2.9773,3.8374,-3.9024,-9.8522,10.837,27.618999,22.794001,17.205999,10.577,20.354,-16.554001,-8.4044,1.9704,4.6795
16.997999,9.5873,17.625999,-4.878,-1.9704,8.5854,3.8647,-2.0065,1.8862,-4.878,-1.9704,5.9113,32.381001,22.794001,19.111,10.577,22.287001,-4.9597,-5.5608,8.867,7.5641
17.945999,8.6349,13.724,-0.97561,-1.9704,11.512,-4.8309,-14.628,-2.0163,-0.97561,-1.9704,0.98522,35.237999,24.698,20.063,12.5,23.253,-2.0612,-1.7694,11.823,13.333
16.051001,5.7778,10.797,0.97561,-8.867,4.6829,-3.8647,-2.0065,-4.9431,0.97561,-8.867,-3.9409,36.189999,25.650999,21.016001,13.462,23.253,1.8035,-3.6651,16.749001,19.103001
9.4155,0.06349,3.9675,-3.9024,-7.8818,-5.0732,-15.459,4.7896,-5.9187,-3.9024,-7.8818,-10.837,34.285999,23.746,18.159,9.6154,20.354,-0.12882,2.0221,17.733999,17.179001
0.88468,-6.6032,-2.8618,-9.7561,-9.8522,-10.927,-20.290001,0.90615,-7.8699,-9.7561,-9.8522,-16.749001,30.476,19.937,13.397,6.7308,17.455999,-3.0274,0.12638,15.764,12.372
-2.9068,-8.5079,-6.7642,-3.9024,-3.9409,-7.0244,-20.290001,-8.8026,-6.8943,-3.9024,-3.9409,-16.749001,27.618999,18.983999,11.492,6.7308,17.455999,-9.7907,-8.4044,15.764,13.333
-6.6983,-6.6032,-7.7398,0.0,-2.9557,-9.9512,-18.357,-8.8026,-3.9675,0.0,-2.9557,-15.764,28.570999,21.841,10.54,7.6923,18.422001,-10.757,4.8657,14.778,17.179001
-10.49,-10.413,-9.6911,-0.97561,-4.9261,-12.878,-16.424999,-9.7735,-2.9919,-0.97561,-4.9261,-13.793,27.618999,19.937,8.6349,3.8462,17.455999,-7.8583,6.7615,13.793,14.295
-15.229,-15.175,-13.593,-3.9024,0.0,-21.659,-18.357,-5.89,-3.9675,-3.9024,0.0,-15.764,21.905001,15.175,3.873,-2.8846,12.625,-5.9259,-0.82148,12.808,10.449
-13.333,-12.317,-10.667,2.9268,2.9557,-19.707001,-8.6957,-1.0356,-2.0163,2.9268,2.9557,-9.8522,18.094999,11.365,2.9206,-4.8077,8.7601,-1.095,5.8136,9.8522,8.5256
-14.281,-11.365,-10.667,4.878,4.9261,-12.878,-0.96618,-2.9773,1.8862,4.878,4.9261,-4.9261,11.429,2.7937,-1.8413,-10.577,2.963,-2.0612,0.12638,6.8966,-1.0897
-13.333,-8.5079,-9.6911,6.8293,1.9704,-6.0488,8.6957,-9.7735,7.7398,6.8293,1.9704,0.0,4.7619,-6.7302,-5.6508,-14.423,-3.8003,-3.9936,1.0742,2.9557,-7.8205
-14.281,-9.4603,-11.642,13.659,7.8818,-6.0488,10.628,0.90615,7.7398,13.659,7.8818,3.9409,1.9048,-14.349,-8.5079,-16.346001,-10.564,-4.9597,4.8657,2.9557,-10.705
-12.385,-7.5556,-11.642,15.61,16.749001,0.78049,4.8309,2.8479,5.7886,15.61,16.749001,6.8966,-1.9048,-20.063,-11.365,-16.346001,-15.395,-5.9259,2.0221,-1.9704,-12.628
-12.385,-3.746,-13.593,15.61,15.764,1.7561,6.7633,5.7605,7.7398,15.61,15.764,5.9113,-2.8571,-18.159,-13.27,-15.385,-19.259001,0.83736,-1.7694,-3.9409,-9.7436
-13.333,-1.8413,-14.569,12.683,14.778,-3.122,6.7633,9.644,1.8862,12.683,14.778,2.9557,-2.8571,-10.54,-13.27,-12.5,-19.259001,2.7697,-8.4044,-0.98522,-2.0513
-13.333,-2.7937,-14.569,3.9024,11.823,-7.0244,3.8647,-0.06472,-1.0407,3.9024,11.823,0.98522,-3.8095,-5.7778,-12.317,-10.577,-18.292999,-5.9259,1.0742,-2.9557,-1.0897
-9.5419,-3.746,-11.642,-2.9268,4.9261,-5.0732,2.8986,-6.8608,-1.0407,-2.9268,4.9261,0.98522,-1.9048,-2.9206,-8.5079,-8.6538,-15.395,-7.8583,11.501,0.0,-1.0897
-3.8547,0.06349,-5.7886,2.9268,1.9704,0.78049,2.8986,-1.0356,-1.0407,2.9268,1.9704,3.9409,2.8571,3.746,-0.88889,-2.8846,-8.6312,1.8035,3.9179,0.0,3.7179
2.7804,6.7302,1.0407,5.8537,-0.98522,6.6341,10.628,-3.9482,1.8862,5.8537,-0.98522,6.8966,6.6667,7.5556,5.7778,3.8462,-0.90177,5.6683,2.0221,3.9409,8.5256
2.7804,8.6349,3.9675,2.9268,-2.9557,2.7317,6.7633,-0.06472,0.91057,2.9268,-2.9557,4.9261,8.5714,6.6032,9.5873,7.6923,3.9291,1.8035,2.0221,6.8966,8.5256
2.7804,8.6349,4.9431,5.8537,7.8818,2.7317,2.8986,9.644,1.8862,5.8537,7.8818,2.9557,8.5714,6.6032,10.54,9.6154,5.8615,2.7697,3.9179,8.867,9.4872
-1.0111,4.8254,-1.8862,0.0,7.8818,-0.19512,-1.9324,1.877,4.813,0.0,7.8818,-2.9557,3.8095,-1.0159,5.7778,5.7692,0.06441,0.83736,-0.82148,4.9261,6.6026
-1.9589,-0.88889,-5.7886,-7.8049,0.98522,-3.122,-6.7633,-8.8026,0.91057,-7.8049,0.98522,-8.867,-1.9048,-9.5873,1.9683,0.96154,-4.7665,-0.12882,5.8136,-3.9409,-0.12821
-5.7504,-5.6508,-10.667,-6.8293,-5.9113,-7.0244,-11.594,-6.8608,-1.0407,-6.8293,-5.9113,-13.793,-2.8571,-11.492,-0.88889,-1.9231,-7.6651,-3.0274,10.553,-3.9409,-2.0513
-4.8025,-4.6984,-10.667,-7.8049,-10.837,-7.0244,-11.594,-12.686,-3.9675,-7.8049,-10.837,-12.808,-1.9048,-8.6349,0.06349,-0.96154,-7.6651,-1.095,4.8657,0.0,3.7179
-6.6983,-8.5079,-14.569,-10.732,-9.8522,-13.854,-11.594,-7.8317,-4.9431,-10.732,-9.8522,-14.778,-4.7619,-5.7778,-2.7937,-3.8462,-10.564,1.8035,-0.82148,-1.9704,4.6795
-6.6983,-11.365,-15.545,-10.732,-13.793,-12.878,-11.594,-2.9773,-3.9675,-10.732,-13.793,-14.778,-5.7143,-1.0159,-3.746,-2.8846,-9.5974,-1.095,-0.82148,-2.9557,8.5256
-3.8547,-8.5079,-11.642,-10.732,-8.867,-4.0976,-10.628,-12.686,-4.9431,-10.732,-8.867,-10.837,-4.7619,6.6032,-2.7937,1.9231,-5.7327,-5.9259,-7.4566,-3.9409,12.372
-4.8025,-11.365,-9.6911,-7.8049,-4.9261,-3.122,-3.8647,-10.744,-2.9919,-7.8049,-4.9261,-8.867,-4.7619,10.413,-1.8413,3.8462,-2.8341,-4.9597,7.7093,-1.9704,10.449
-2.9068,-6.6032,-2.8618,-3.9024,0.98522,-4.0976,3.8647,-4.9191,0.91057,-3.9024,0.98522,-3.9409,-6.6667,8.5079,0.06349,6.7308,1.0306,-1.095,13.397,-2.9557,6.6026
0.88468,3.873,2.9919,-0.97561,9.8522,1.7561,5.7971,-5.89,4.813,-0.97561,9.8522,2.9557,-7.619,6.6032,1.0159,11.538,1.9968,-3.0274,4.8657,-5.9113,8.5256
-1.0111,8.6349,3.9675,-0.97561,7.8818,-1.1707,7.7295,-3.9482,5.7886,-0.97561,7.8818,2.9557,-13.333,1.8413,-3.746,11.538,-0.90177,-6.8921,4.8657,-11.823,6.6026
-3.8547,18.159,7.8699,-0.97561,4.9261,-4.0976,11.594,-3.9482,3.8374,-0.97561,4.9261,3.9409,-15.238,0.88889,-5.6508,16.346001,-0.90177,-15.588,2.97,-14.778,7.5641
-1.9589,25.778,12.748,-0.97561,7.8818,-0.19512,15.459,-2.9773,3.8374,-0.97561,7.8818,7.8818,-11.429,3.746,-3.746,21.153999,2.963,-7.8583,-4.613,-13.793,7.5641
5.624,27.683001,17.625999,1.9512,0.98522,8.5854,17.391001,-3.9482,4.813,1.9512,0.98522,12.808,-5.7143,3.746,2.9206,24.038,7.7939,2.7697,7.7093,-7.8818,10.449
6.5719,17.205999,14.699,-1.9512,-0.98522,7.6098,16.424999,-2.0065,-1.0407,-1.9512,-0.98522,9.8522,-4.7619,-2.9206,4.8254,17.308001,6.8277,1.8035,15.292,-4.9261,-0.12821
11.311,11.492,15.675,-1.9512,2.9557,13.463,10.628,2.8479,-0.06504,-1.9512,2.9557,9.8522,1.9048,-2.9206,11.492,15.385,11.659,8.5668,5.8136,4.9261,-4.9359
16.051001,11.492,17.625999,2.9268,1.9704,10.537,8.6957,12.557,4.813,2.9268,1.9704,8.867,7.619,-0.06349,17.205999,17.308001,16.49,15.33,-0.82148,10.837,-2.0513
16.997999,10.54,16.65,1.9512,-1.9704,4.6829,5.7971,12.557,5.7886,1.9512,-1.9704,7.8818,6.6667,-1.0159,18.159,14.423,16.49,12.432,-2.7172,12.808,-2.0513
20.790001,9.5873,19.577,-5.8537,-1.9704,8.5854,5.7971,6.7314,6.7642,-5.8537,-1.9704,9.8522,4.7619,-2.9206,20.063,12.5,18.422001,7.6006,-6.5087,12.808,-2.0513
19.841999,11.492,21.528,-7.8049,-3.9409,9.561,5.7971,0.90615,6.7642,-7.8049,-3.9409,9.8522,3.8095,0.88889,21.016001,13.462,20.354,4.7021,-12.196,9.8522,1.7949
18.893999,9.5873,22.504,-5.8537,-1.9704,9.561,7.7295,1.877,9.6911,-5.8537,-1.9704,10.837,2.8571,3.746,19.111,8.6538,19.388,9.533,-0.82148,8.867,-2.0513
18.893999,4.8254,21.528,-3.9024,0.0,13.463,8.6957,-9.7735,12.618,-3.9024,0.0,11.823,0.0,4.6984,17.205999,4.8077,16.49,8.5668,5.8136,8.867,-5.8974
15.103,2.9206,18.601999,-0.97561,-1.9704,6.6341,3.8647,-2.9773,11.642,-0.97561,-1.9704,8.867,0.95238,8.5079,16.254,4.8077,15.523,5.6683,-5.5608,7.8818,-2.0513
12.259,4.8254,14.699,-2.9268,-5.9113,0.78049,3.8647,-3.9482,9.6911,-2.9268,-5.9113,6.8966,4.7619,16.127001,14.349,6.7308,15.523,4.7021,-2.7172,4.9261,2.7564
6.5719,1.0159,5.9187,-8.7805,-6.8966,-3.122,-4.8309,-4.9191,3.8374,-8.7805,-6.8966,-0.98522,1.9048,14.222,6.7302,2.8846,8.7601,-3.0274,-7.4566,-1.9704,0.83333
5.624,4.8254,5.9187,-6.8293,-6.8966,-2.1463,-0.96618,-1.0356,5.7886,-6.8293,-6.8966,0.0,3.8095,17.079,7.6825,5.7692,9.7262,-4.9597,-10.3,1.9704,5.641
-1.0111,1.9683,0.06504,-11.707,-8.867,-7.0244,0.96618,-7.8317,4.813,-11.707,-8.867,-3.9409,0.0,12.317,1.0159,0.96154,2.963,-17.52,-5.5608,-5.9113,-1.0897
-4.8025,0.06349,-5.7886,-13.659,-6.8966,-3.122,0.0,-14.628,1.8862,-13.659,-6.8966,-4.9261,-5.7143,6.6032,-4.6984,-3.8462,-2.8341,-16.554001,3.9179,-12.808,-6.859
-6.6983,2.9206,-4.813,-5.8537,1.9704,-8.0,0.0,-2.0065,6.7642,-5.8537,1.9704,-2.9557,-6.6667,5.6508,-5.6508,-1.9231,-1.868,-6.8921,4.8657,-13.793,-4.9359
-3.8547,3.873,-0.91057,0.0,4.9261,-6.0488,0.0,2.8479,7.7398,0.0,4.9261,-0.98522,-6.6667,3.746,-2.7937,1.9231,0.06441,-2.0612,4.8657,-11.823,-3.0128
0.88468,5.7778,2.9919,2.9268,1.9704,0.78049,6.7633,2.8479,9.6911,2.9268,1.9704,2.9557,-6.6667,1.8413,-0.88889,4.8077,2.963,1.8035,3.9179,-14.778,-0.12821
0.88468,4.8254,3.9675,0.97561,2.9557,3.7073,6.7633,-0.06472,7.7398,0.97561,2.9557,3.9409,-9.5238,-0.06349,-3.746,4.8077,1.0306,-0.12882,2.97,-20.690001,5.641
-1.9589,3.873,0.06504,3.9024,5.9113,0.78049,3.8647,-3.9482,4.813,3.9024,5.9113,0.98522,-13.333,-3.873,-6.6032,0.96154,-2.8341,-4.9597,-4.613,-18.719,2.7564
-1.0111,-0.88889,0.06504,4.878,1.9704,-4.0976,4.8309,5.7605,6.7642,4.878,1.9704,0.0,-10.476,-6.7302,-3.746,-2.8846,-1.868,-6.8921,7.7093,-17.733999,-2.0513
-1.0111,-5.6508,0.06504,3.9024,3.9409,-2.1463,-3.8647,12.557,3.8374,3.9024,3.9409,0.0,-6.6667,-9.5873,0.06349,-7.6923,-2.8341,1.8035,8.6572,-9.8522,-4.9359
-1.9589,-3.746,0.06504,4.878,2.9557,-0.19512,-3.8647,11.586,2.8618,4.878,2.9557,0.98522,-4.7619,-10.54,0.06349,-9.6154,-3.8003,4.7021,-6.5087,-5.9113,-6.859
-1.0111,-7.5556,-0.91057,0.0,3.9409,-0.19512,5.7971,4.7896,0.91057,0.0,3.9409,0.0,-4.7619,-14.349,-1.8413,-12.5,-6.6989,2.7697,1.0742,-5.9113,-8.7821
-4.8025,-4.6984,-1.8862,0.97561,6.8966,1.7561,7.7295,-2.9773,-1.0407,0.97561,6.8966,0.0,-3.8095,-13.397,-3.746,-11.538,-6.6989,1.8035,4.8657,-2.9557,-7.8205
-8.594,0.06349,-3.8374,0.97561,5.9113,-4.0976,3.8647,-2.0065,1.8862,0.97561,5.9113,-2.9557,-3.8095,-9.5873,-6.6032,-7.6923,-6.6989,-7.8583,-2.7172,-4.9261,-1.0897
-9.5419,-2.7937,-6.7642,-2.9268,6.8966,-9.9512,1.9324,-8.8026,3.8374,-2.9268,6.8966,-5.9113,-5.7143,-6.7302,-10.413,-6.7308,-7.6651,-15.588,-1.7694,-5.9113,-1.0897
-14.281,-7.5556,-12.618,-3.9024,-0.98522,-12.878,-2.8986,-16.57,-0.06504,-3.9024,-0.98522,-9.8522,-12.381,-7.6825,-16.127001,-10.577,-13.462,-13.655,1.0742,-10.837,-3.9744
-17.125,-6.6032,-15.545,-3.9024,3.9409,-15.805,-9.6618,-13.657,-2.9919,-3.9024,3.9409,-13.793,-10.476,-2.9206,-17.079,-8.6538,-13.462,-11.723,-1.7694,-12.808,0.83333
-15.229,-5.6508,-16.52,-0.97561,1.9704,-9.9512,-12.56,-19.482,-3.9675,-0.97561,1.9704,-12.808,-8.5714,2.7937,-17.079,-5.7692,-10.564,-16.554001,4.8657,-11.823,7.5641
-17.125,-5.6508,-18.472,-2.9268,-0.98522,-17.756001,-11.594,-11.715,-2.9919,-2.9268,-0.98522,-16.749001,-7.619,5.6508,-17.079,-3.8462,-10.564,-17.52,8.6572,-7.8818,11.41
-17.125,-7.5556,-19.447001,-6.8293,-0.98522,-20.683001,-12.56,-11.715,-4.9431,-6.8293,-0.98522,-19.704,-8.5714,2.7937,-15.175,-3.8462,-10.564,-14.622,-7.4566,-7.8818,7.5641
-7.6461,-2.7937,-11.642,-0.97561,-0.98522,-8.9756,-11.594,-9.7735,-5.9187,-0.97561,-0.98522,-16.749001,1.9048,9.4603,-3.746,4.8077,0.06441,-9.7907,-6.5087,0.0,14.295
-6.6983,-2.7937,-9.6911,1.9512,-4.9261,-8.9756,-16.424999,-3.9482,-10.797,1.9512,-4.9261,-16.749001,6.6667,10.413,0.06349,6.7308,4.8953,-7.8583,-1.7694,5.9113,10.449
-4.8025,-4.6984,-7.7398,-1.9512,-5.9113,-8.0,-15.459,-2.0065,-13.724,-1.9512,-5.9113,-14.778,8.5714,7.5556,1.9683,5.7692,6.8277,4.7021,4.8657,11.823,3.7179
2.7804,-0.88889,0.06504,2.9268,-7.8818,3.7073,-8.6957,-0.06472,-12.748,2.9268,-7.8818,-7.8818,12.381,8.5079,7.6825,10.577,11.659,14.364,2.97,16.749001,3.7179
11.311,0.06349,5.9187,3.9024,-6.8966,7.6098,-5.7971,1.877,-15.675,3.9024,-6.8966,-2.9557,16.190001,6.6032,13.397,11.538,14.557,18.229,-8.4044,22.66,1.7949
16.997999,1.9683,10.797,4.878,-7.8818,8.5854,-4.8309,13.528,-16.65,4.878,-7.8818,1.9704,19.048,5.6508,18.159,11.538,17.455999,23.059999,-16.934999,24.631001,-1.0897
17.945999,1.0159,13.724,5.8537,-6.8966,9.561,-6.7633,18.382,-14.699,5.8537,-6.8966,4.9261,17.143,1.8413,20.063,10.577,18.422001,21.127001,-22.622,23.645,-3.0128
16.997999,-2.7937,12.748,4.878,-15.764,12.488,-7.7295,15.469,-16.65,4.878,-15.764,4.9261,12.381,-10.54,18.159,2.8846,13.591,17.261999,-12.196,24.631001,-15.513
16.997999,-1.8413,16.65,4.878,-9.8522,17.365999,0.96618,10.615,-14.699,4.878,-9.8522,7.8818,10.476,-18.159,19.111,0.0,12.625,18.229,-7.4566,21.674999,-22.243999
17.945999,1.9683,16.65,4.878,1.9704,18.341,5.7971,15.469,-7.8699,4.878,1.9704,11.823,7.619,-19.111,19.111,0.0,11.659,22.093,-8.4044,19.704,-19.358999
16.051001,2.9206,13.724,6.8293,2.9557,10.537,4.8309,17.410999,-3.9675,6.8293,2.9557,9.8522,2.8571,-15.302,15.302,-0.96154,6.8277,20.160999,-6.5087,16.749001,-12.628
10.363,2.9206,10.797,5.8537,3.9409,2.7317,3.8647,11.586,-3.9675,5.8537,3.9409,6.8966,-0.95238,-11.492,9.5873,-1.9231,2.963,12.432,-6.5087,12.808,-9.7436
7.5197,5.7778,10.797,0.97561,1.9704,6.6341,8.6957,1.877,-2.9919,0.97561,1.9704,8.867,-3.8095,-6.7302,6.7302,0.0,1.9968,1.8035,6.7615,7.8818,-5.8974
10.363,8.6349,13.724,1.9512,1.9704,12.488,11.594,-5.89,-2.9919,1.9512,1.9704,11.823,-3.8095,-2.9206,6.7302,4.8077,3.9291,0.83736,4.8657,6.8966,-0.12821
11.311,12.444,18.601999,5.8537,8.867,15.415,10.628,-13.657,-5.9187,5.8537,8.867,14.778,-3.8095,2.7937,6.7302,10.577,5.8615,-11.723,-0.82148,-0.98522,6.6026
3.7283,15.302,18.601999,2.9268,0.98522,3.7073,8.6957,-4.9191,-7.8699,2.9268,0.98522,10.837,-1.9048,5.6508,3.873,14.423,7.7939,-13.655,3.9179,-3.9409,11.41
-1.0111,16.254,16.65,-1.9512,-0.98522,-7.0244,6.7633,-7.8317,-9.8211,-1.9512,-0.98522,7.8818,-1.9048,9.4603,1.9683,16.346001,8.7601,-10.757,8.6572,-4.9261,14.295
-0.06319,18.159,17.625999,-3.9024,-1.9704,-6.0488,12.56,-10.744,-7.8699,-3.9024,-1.9704,9.8522,0.0,16.127001,1.0159,21.153999,11.659,-14.622,5.8136,-5.9113,20.063999
4.6761,19.111,19.577,-3.9024,0.0,2.7317,17.391001,-6.8608,-3.9675,-3.9024,0.0,15.764,0.95238,15.175,1.9683,22.115,13.591,-8.8245,1.0742,-2.9557,20.063999
11.311,17.205999,20.552999,0.97561,3.9409,15.415,17.391001,-2.0065,-4.9431,0.97561,3.9409,19.704,0.95238,11.365,3.873,19.231001,13.591,-0.12882,11.501,-1.9704,12.372
15.103,11.492,19.577,3.9024,3.9409,20.292999,16.424999,10.615,-4.9431,3.9024,3.9409,20.690001,0.0,4.6984,3.873,14.423,10.692,7.6006,7.7093,-4.9261,4.6795
11.311,7.6825,11.772,10.732,4.9261,13.463,8.6957,24.207001,-5.9187,10.732,4.9261,15.764,-6.6667,-4.8254,-1.8413,5.7692,2.963,13.398,-3.6651,-10.837,-2.0513
6.5719,-1.8413,2.0163,17.561001,4.9261,10.537,5.7971,27.120001,-2.9919,17.561001,4.9261,10.837,-10.476,-13.397,-7.5556,-3.8462,-4.7665,11.465,-0.82148,-9.8522,-9.7436
4.6761,-12.317,-5.7886,18.537001,7.8818,19.316999,0.0,15.469,1.8862,18.537001,7.8818,7.8818,-14.286,-21.016001,-12.317,-14.423,-13.462,13.398,-10.3,-5.9113,-18.396999
-1.0111,-17.079,-12.618,13.659,5.9113,13.463,-10.628,18.382,1.8862,13.659,5.9113,0.98522,-17.143,-23.872999,-14.222,-22.115,-21.191999,18.229,-11.248,-2.9557,-20.320999
-9.5419,-21.841,-19.447001,6.8293,-7.8818,1.7561,-12.56,19.353001,-4.9431,6.8293,-7.8818,-8.867,-20.952,-28.635,-17.079,-27.885,-26.989,16.296,-3.6651,-3.9409,-23.205
-15.229,-24.698,-24.325001,2.9268,-8.867,-2.1463,-19.323999,11.586,-8.8455,2.9268,-8.867,-15.764,-20.0,-28.635,-18.032,-29.808001,-29.886999,10.499,-0.82148,-1.9704,-25.128
-13.333,-23.746,-23.35,-0.97561,-4.9261,-5.0732,-23.188,2.8479,-9.8211,-0.97561,-4.9261,-20.690001,-16.190001,-22.921,-15.175,-25.962,-27.955,7.6006,-1.7694,3.9409,-17.436001
-14.281,-19.937,-22.374001,-10.732,-8.867,-16.780001,-25.121,2.8479,-9.8211,-10.732,-8.867,-24.631001,-12.381,-16.254,-13.27,-20.191999,-25.056,1.8035,-1.7694,5.9113,-8.7821
-18.073,-12.317,-20.423,-15.61,-11.823,-19.707001,-23.188,-0.06472,-9.8211,-15.61,-11.823,-26.601,-9.5238,-8.6349,-15.175,-15.385,-23.124001,1.8035,-1.7694,4.9261,-1.0897
-20.916,-9.4603,-18.472,-17.561001,-20.690001,-20.683001,-20.290001,-7.8317,-11.772,-17.561001,-20.690001,-26.601,-7.619,-6.7302,-17.079,-13.462,-22.158001,-2.0612,-7.4566,0.0,0.83333
-16.177,-7.5556,-11.642,-12.683,-17.733999,-16.780001,-14.493,-9.7735,-12.748,-12.683,-17.733999,-23.645,-3.8095,-1.0159,-14.222,-7.6923,-17.327,-9.7907,-1.7694,0.98522,6.6026
-13.333,-3.746,-6.7642,-11.707,-14.778,-15.805,-14.493,-13.657,-11.772,-11.707,-14.778,-19.704,-1.9048,1.8413,-12.317,-4.8077,-13.462,-13.655,8.6572,0.98522,6.6026
-6.6983,1.0159,-0.91057,-11.707,-18.719,-9.9512,-6.7633,-24.337,-10.797,-11.707,-18.719,-12.808,0.0,3.746,-9.4603,-0.96154,-7.6651,-17.52,5.8136,-1.9704,4.6795
-5.7504,5.7778,3.9675,-7.8049,-10.837,-3.122,2.8986,-24.337,-8.8455,-7.8049,-10.837,-5.9113,1.9048,7.5556,-7.5556,2.8846,-2.8341,-21.385,-1.7694,-4.9261,7.5641
-13.333,6.7302,2.9919,-6.8293,0.98522,-10.927,2.8986,-13.657,-8.8455,-6.8293,0.98522,-6.8966,0.95238,7.5556,-12.317,4.8077,-1.868,-28.148001,-9.3523,-9.8522,6.6026
-17.125,5.7778,1.0407,-8.7805,4.9261,-14.829,1.9324,-13.657,-3.9675,-8.7805,4.9261,-4.9261,-3.8095,3.746,-17.079,4.8077,-3.8003,-35.877998,-3.6651,-19.704,7.5641
-13.333,8.6349,5.9187,-0.97561,11.823,-6.0488,17.391001,-14.628,6.7642,-0.97561,11.823,4.9261,-8.5714,0.88889,-19.937,6.7308,-3.8003,-38.776001,7.7093,-25.615999,8.5256
-9.5419,11.492,8.8455,9.7561,16.749001,4.6829,25.121,-10.744,16.52,9.7561,16.749001,15.764,-13.333,-5.7778,-21.841,3.8462,-6.6989,-33.945,16.24,-29.556999,3.7179
-8.594,10.54,8.8455,16.584999,19.704,6.6341,24.155001,-4.9191,22.374001,16.584999,19.704,19.704,-15.238,-9.5873,-23.746,0.96154,-9.5974,-27.181999,24.771,-33.498001,-2.0513
-9.5419,12.444,4.9431,15.61,24.631001,10.537,22.222,-8.8026,21.398001,15.61,24.631001,18.719,-16.190001,-11.492,-23.746,-1.9231,-12.496,-22.351,20.032,-35.467999,-3.9744
-16.177,5.7778,-5.7886,11.707,19.704,0.78049,9.6618,-1.0356,16.52,11.707,19.704,8.867,-17.143,-10.54,-24.698,-7.6923,-17.327,-18.486,9.6051,-31.527,-3.0128
-13.333,-2.7937,-11.642,10.732,7.8818,-3.122,4.8309,5.7605,9.6911,10.732,7.8818,4.9261,-13.333,-4.8254,-20.889,-10.577,-17.327,-13.655,2.97,-19.704,-0.12821
-6.6983,-6.6032,-13.593,6.8293,-2.9557,5.6585,-2.8986,-2.9773,1.8862,6.8293,-2.9557,1.9704,-11.429,-1.0159,-14.222,-11.538,-16.361,-9.7907,2.0221,-6.8966,2.7564
-4.8025,-8.5079,-14.569,2.9268,-2.9557,0.78049,-6.7633,-0.06472,-3.9675,2.9268,-2.9557,-2.9557,-6.6667,2.7937,-8.5079,-10.577,-13.462,-6.8921,9.6051,-0.98522,5.641
-5.7504,-7.5556,-14.569,1.9512,-3.9409,-3.122,-6.7633,7.7023,-4.9431,1.9512,-3.9409,-5.9113,-2.8571,5.6508,-2.7937,-6.7308,-10.564,2.7697,6.7615,3.9409,10.449
-6.6983,-10.413,-15.545,-0.97561,-12.808,-8.9756,-14.493,9.644,-7.8699,-0.97561,-12.808,-10.837,-0.95238,0.88889,1.0159,-6.7308,-7.6651,6.6345,-2.7172,8.867,2.7564
-1.0111,-9.4603,-9.6911,-4.878,-8.867,-6.0488,-17.391001,8.6731,-7.8699,-4.878,-8.867,-12.808,6.6667,1.8413,8.6349,0.0,0.06441,7.6006,2.0221,17.733999,0.83333
5.624,-6.6032,-3.8374,-1.9512,-6.8966,-0.19512,-13.527,3.8188,-10.797,-1.9512,-6.8966,-10.837,12.381,4.6984,16.254,3.8462,7.7939,11.465,3.9179,22.66,2.7564
8.4676,-8.5079,-3.8374,0.97561,-6.8966,-1.1707,-12.56,7.7023,-12.748,0.97561,-6.8966,-8.867,16.190001,5.6508,19.111,3.8462,9.7262,11.465,-6.5087,27.586,3.7179
6.5719,-6.6032,-2.8618,-5.8537,-8.867,-2.1463,-10.628,1.877,-13.724,-5.8537,-8.867,-6.8966,19.048,9.4603,19.111,4.8077,11.659,13.398,-9.3523,25.615999,6.6026
1.8325,-6.6032,-2.8618,-11.707,-14.778,-5.0732,-12.56,-10.744,-14.699,-11.707,-14.778,-7.8818,17.143,7.5556,15.302,4.8077,11.659,5.6683,-9.3523,20.690001,4.6795
-2.9068,-5.6508,-2.8618,-13.659,-13.793,-10.927,-8.6957,-12.686,-9.8211,-13.659,-13.793,-10.837,13.333,6.6032,10.54,4.8077,10.692,-12.689,-13.144,14.778,4.6795
-4.8025,-5.6508,-2.8618,-10.732,-3.9409,-11.902,-0.96618,-6.8608,-1.0407,-10.732,-3.9409,-6.8966,12.381,4.6984,7.6825,0.96154,7.7939,-8.8245,-4.613,11.823,-3.0128
-0.06319,0.06349,2.9919,-0.97561,11.823,-5.0732,6.7633,1.877,5.7886,-0.97561,11.823,3.9409,14.286,3.746,10.54,1.9231,10.692,8.5668,1.0742,12.808,-7.8205
5.624,6.7302,11.772,0.97561,13.793,0.78049,12.56,7.7023,8.7154,0.97561,13.793,11.823,13.333,2.7937,13.397,4.8077,14.557,12.432,-3.6651,13.793,-7.8205
11.311,7.6825,15.675,5.8537,12.808,11.512,17.391001,9.644,9.6911,5.8537,12.808,18.719,8.5714,-3.873,11.492,2.8846,12.625,15.33,-9.3523,8.867,-11.667
12.259,5.7778,14.699,10.732,12.808,9.561,18.357,22.264999,8.7154,10.732,12.808,20.690001,3.8095,-5.7778,8.6349,0.96154,9.7262,16.296,-12.196,1.9704,-6.859
9.4155,1.0159,6.8943,3.9024,3.9409,6.6341,13.527,22.264999,0.91057,3.9024,3.9409,16.749001,-3.8095,-9.5873,1.9683,-3.8462,2.963,15.33,-4.613,-4.9261,-9.7436
10.363,1.0159,5.9187,0.97561,-3.9409,8.5854,7.7295,17.410999,-1.0407,0.97561,-3.9409,14.778,-6.6667,-6.7302,0.06349,-3.8462,1.0306,7.6006,2.97,-7.8818,-6.859
11.311,1.9683,7.8699,1.9512,-1.9704,13.463,5.7971,6.7314,-2.9919,1.9512,-1.9704,13.793,-6.6667,3.746,0.06349,0.96154,1.9968,4.7021,8.6572,-9.8522,2.7564
8.4676,2.9206,2.9919,-2.9268,-8.867,7.6098,2.8986,5.7605,-8.8455,-2.9268,-8.867,10.837,-7.619,8.5079,-1.8413,1.9231,0.06441,10.499,7.7093,-9.8522,9.4872
6.5719,2.9206,-1.8862,-3.9024,-2.9557,8.5854,0.0,5.7605,-6.8943,-3.9024,-2.9557,8.867,-7.619,10.413,-1.8413,0.96154,-1.868,15.33,0.12638,-8.867,11.41
8.4676,1.0159,-0.91057,1.9512,2.9557,8.5854,1.9324,12.557,-7.8699,1.9512,2.9557,8.867,-5.7143,13.27,0.06349,2.8846,-0.90177,14.364,0.12638,-5.9113,14.295
5.624,1.9683,1.0407,-3.9024,-1.9704,4.6829,-0.96618,15.469,-9.8211,-3.9024,-1.9704,5.9113,-4.7619,16.127001,0.06349,5.7692,0.06441,17.261999,1.0742,-1.9704,18.141001
-1.0111,-1.8413,-2.8618,-2.9268,-3.9409,0.78049,-4.8309,9.644,-10.797,-2.9268,-3.9409,1.9704,-5.7143,13.27,-2.7937,1.9231,-2.8341,18.229,0.12638,-4.9261,11.41
-2.9068,-5.6508,-8.7154,0.0,-10.837,0.78049,-7.7295,5.7605,-11.772,0.0,-10.837,-1.9704,-6.6667,8.5079,-5.6508,-2.8846,-7.6651,15.33,4.8657,-9.8522,5.641
-2.9068,-9.4603,-9.6911,-5.8537,-10.837,0.78049,-8.6957,4.7896,-6.8943,-5.8537,-10.837,-3.9409,-5.7143,3.746,-5.6508,-6.7308,-9.5974,7.6006,1.0742,-5.9113,3.7179
-1.9589,-8.5079,-6.7642,0.0,-6.8966,0.78049,-8.6957,5.7605,-3.9675,0.0,-6.8966,-2.9557,-4.7619,-1.9683,-5.6508,-8.6538,-11.53,5.6683,-6.5087,-1.9704,-0.12821
1.8325,-5.6508,-3.8374,2.9268,-1.9704,2.7317,-1.9324,4.7896,1.8862,2.9268,-1.9704,1.9704,-4.7619,-6.7302,-4.6984,-9.6154,-13.462,9.533,-0.82148,-0.98522,-3.0128
0.88468,-2.7937,-3.8374,5.8537,5.9113,1.7561,-3.8647,9.644,5.7886,5.8537,5.9113,3.9409,-3.8095,-7.6825,-5.6508,-8.6538,-15.395,11.465,1.0742,0.0,-1.0897
-0.06319,-3.746,-3.8374,3.9024,6.8966,3.7073,-1.9324,8.6731,5.7886,3.9024,6.8966,3.9409,-3.8095,-13.397,-5.6508,-10.577,-15.395,10.499,1.0742,-0.98522,-9.7436
0.88468,-4.6984,-3.8374,-0.97561,-3.9409,3.7073,0.0,0.90615,2.8618,-0.97561,-3.9409,0.0,-1.9048,-19.111,-3.746,-12.5,-14.428,9.533,-8.4044,1.9704,-21.282
-2.9068,-9.4603,-6.7642,-4.878,-4.9261,-0.19512,-4.8309,2.8479,1.8862,-4.878,-4.9261,-2.9557,0.95238,-19.111,-2.7937,-12.5,-11.53,11.465,-6.5087,5.9113,-22.243999
-2.9068,-10.413,-8.7154,-1.9512,-1.9704,-2.1463,-7.7295,6.7314,-2.9919,-1.9512,-1.9704,-5.9113,5.7143,-12.444,1.0159,-10.577,-5.7327,14.364,-3.6651,6.8966,-17.436001
-1.9589,-10.413,-9.6911,0.0,-6.8966,-6.0488,-10.628,10.615,-4.9431,0.0,-6.8966,-7.8818,5.7143,-3.873,1.9683,-7.6923,-1.868,16.296,-12.196,7.8818,-10.705
-0.06319,-6.6032,-5.7886,0.0,-9.8522,-3.122,-11.594,10.615,-5.9187,0.0,-9.8522,-4.9261,7.619,3.746,2.9206,-4.8077,1.9968,16.296,-13.144,6.8966,-2.0513
1.8325,-4.6984,-3.8374,0.0,-10.837,2.7317,-4.8309,5.7605,-6.8943,0.0,-10.837,-0.98522,7.619,6.6032,1.9683,-4.8077,2.963,11.465,-0.82148,3.9409,-3.0128
-1.0111,-2.7937,-2.8618,-3.9024,-8.867,0.78049,0.0,-0.06472,-3.9675,-3.9024,-8.867,0.0,3.8095,8.5079,-0.88889,-2.8846,3.9291,3.7359,5.8136,0.0,-0.12821
4.6761,5.7778,6.8943,-2.9268,2.9557,7.6098,6.7633,-4.9191,2.8618,-2.9268,2.9557,4.9261,5.7143,15.175,4.8254,7.6923,11.659,5.6683,8.6572,1.9704,9.4872
10.363,11.492,13.724,-4.878,4.9261,3.7073,11.594,2.8479,4.813,-4.878,4.9261,6.8966,10.476,18.032,12.444,16.346001,20.354,12.432,7.7093,6.8966,14.295
10.363,16.254,15.675,-5.8537,-0.98522,0.78049,9.6618,3.8188,4.813,-5.8537,-0.98522,6.8966,12.381,20.889,15.302,21.153999,24.219,9.533,2.97,10.837,16.218
9.4155,15.302,14.699,1.9512,2.9557,1.7561,7.7295,1.877,7.7398,1.9512,2.9557,6.8966,14.286,22.794001,15.302,21.153999,24.219,8.5668,11.501,11.823,18.141001
7.5197,13.397,11.772,0.97561,2.9557,-2.1463,6.7633,-2.0065,7.7398,0.97561,2.9557,3.9409,8.5714,18.032,12.444,19.231001,21.32,4.7021,2.97,6.8966,18.141001
3.7283,7.6825,7.8699,-3.9024,-5.9113,-2.1463,3.8647,-8.8026,5.7886,-3.9024,-5.9113,-0.98522,2.8571,8.5079,7.6825,12.5,15.523,-2.0612,7.7093,0.0,8.5256
-0.06319,1.0159,2.9919,-5.8537,-7.8818,0.78049,-2.8986,-13.657,2.8618,-5.8537,-7.8818,-2.9557,0.0,-0.06349,3.873,4.8077,9.7262,-9.7907,13.397,-0.98522,-1.0897
1.8325,1.0159,2.0163,-4.878,0.0,-2.1463,0.0,-7.8317,3.8374,-4.878,0.0,-2.9557,-1.9048,-6.7302,3.873,0.96154,7.7939,-13.655,1.0742,-2.9557,-5.8974
4.6761,2.9206,6.8943,2.9268,7.8818,-3.122,5.7971,-0.06472,7.7398,2.9268,7.8818,2.9557,-0.95238,-14.349,5.7778,-0.96154,7.7939,-1.095,-4.613,-1.9704,-11.667
12.259,3.873,13.724,10.732,10.837,7.6098,7.7295,4.7896,12.618,10.732,10.837,10.837,0.0,-21.016001,8.6349,-1.9231,6.8277,7.6006,-5.5608,3.9409,-12.628
12.259,1.0159,10.797,11.707,1.9704,12.488,8.6957,0.90615,10.667,11.707,1.9704,11.823,-3.8095,-28.635,2.9206,-9.6154,0.06441,5.6683,4.8657,1.9704,-22.243999
5.624,-4.6984,2.9919,13.659,5.9113,11.512,8.6957,9.644,8.7154,13.659,5.9113,8.867,-11.429,-33.396999,-5.6508,-18.268999,-10.564,7.6006,-5.5608,-5.9113,-30.896999
1.8325,-6.6032,-0.91057,17.561001,14.778,14.439,3.8647,13.528,6.7642,17.561001,14.778,7.8818,-15.238,-29.587,-12.317,-22.115,-18.292999,7.6006,-10.3,-8.867,-28.013
0.88468,-7.5556,-2.8618,14.634,11.823,9.561,0.0,16.440001,6.7642,14.634,11.823,5.9113,-17.143,-20.063,-13.27,-21.153999,-22.158001,7.6006,-6.5087,-7.8818,-21.282
-2.9068,-7.5556,-6.7642,11.707,7.8818,1.7561,-0.96618,18.382,2.8618,11.707,7.8818,2.9557,-17.143,-10.54,-15.175,-20.191999,-25.056,7.6006,-9.3523,-9.8522,-13.59
-7.6461,-5.6508,-12.618,11.707,7.8818,1.7561,-3.8647,8.6731,1.8862,11.707,7.8818,0.98522,-19.048,-4.8254,-20.889,-18.268999,-27.955,3.7359,-5.5608,-14.778,-6.859
-12.385,-10.413,-19.447001,2.9268,2.9557,-3.122,-4.8309,1.877,0.91057,2.9268,2.9557,-4.9261,-20.952,-1.9683,-25.650999,-19.231001,-31.82,0.83736,-0.82148,-16.749001,-3.0128
-12.385,-10.413,-19.447001,-4.878,1.9704,-5.0732,-7.7295,-1.0356,-1.0407,-4.878,1.9704,-7.8818,-17.143,2.7937,-23.746,-15.385,-28.921,2.7697,-1.7694,-8.867,2.7564
-11.438,-6.6032,-17.496,0.0,0.98522,-6.0488,-9.6618,-2.9773,-2.0163,0.0,0.98522,-7.8818,-13.333,8.5079,-18.983999,-7.6923,-23.124001,0.83736,2.97,-7.8818,13.333
-17.125,-9.4603,-22.374001,-7.8049,-14.778,-16.780001,-14.493,-2.9773,-7.8699,-7.8049,-14.778,-15.764,-14.286,5.6508,-19.937,-8.6538,-23.124001,-1.095,2.0221,-9.8522,10.449
-16.177,-8.5079,-21.398001,-11.707,-17.733999,-16.780001,-17.391001,-14.628,-10.797,-11.707,-17.733999,-17.733999,-12.381,6.6032,-16.127001,-6.7308,-18.292999,-7.8583,-1.7694,-6.8966,9.4872
-13.333,-10.413,-17.496,-11.707,-12.808,-15.805,-17.391001,-10.744,-11.772,-11.707,-12.808,-18.719,-6.6667,7.5556,-9.4603,-2.8846,-11.53,-6.8921,2.97,0.0,12.372
-11.438,-11.365,-14.569,-14.634,-10.837,-14.829,-22.222,-7.8317,-13.724,-14.634,-10.837,-18.719,-3.8095,6.6032,-4.6984,-0.96154,-7.6651,-9.7907,6.7615,0.98522,11.41
-10.49,-6.6032,-11.642,-13.659,-13.793,-12.878,-17.391001,-12.686,-10.797,-13.659,-13.793,-14.778,-0.95238,7.5556,-1.8413,1.9231,-3.8003,-11.723,0.12638,5.9113,14.295
-9.5419,-1.8413,-7.7398,-10.732,-8.867,-7.0244,-2.8986,-16.57,-4.9431,-10.732,-8.867,-8.867,0.95238,8.5079,0.06349,5.7692,0.06441,-10.757,-0.82148,4.9261,15.256
-7.6461,1.9683,-2.8618,-9.7561,-0.98522,-8.0,0.96618,-11.715,-2.0163,-9.7561,-0.98522,-4.9261,0.95238,3.746,1.9683,5.7692,1.9968,-6.8921,3.9179,4.9261,7.5641
-1.9589,4.8254,2.9919,-8.7805,-2.9557,-7.0244,3.8647,-3.9482,-1.0407,-8.7805,-2.9557,0.0,-0.95238,-4.8254,5.7778,4.8077,2.963,0.83736,2.97,8.867,-2.0513
7.5197,8.6349,9.8211,-0.97561,1.9704,4.6829,11.594,0.90615,2.8618,-0.97561,1.9704,8.867,-2.8571,-13.397,10.54,4.8077,4.8953,7.6006,2.97,8.867,-5.8974
16.051001,13.397,16.65,13.659,5.9113,19.316999,19.323999,7.7023,4.813,13.659,5.9113,17.733999,0.0,-17.205999,18.159,7.6923,10.692,14.364,2.0221,11.823,-10.705
18.893999,11.492,19.577,15.61,11.823,16.389999,17.391001,19.353001,2.8618,15.61,11.823,18.719,1.9048,-20.063,21.016001,8.6538,14.557,17.261999,2.97,9.8522,-12.628
22.686001,9.5873,20.552999,14.634,15.764,18.341,15.459,18.382,2.8618,14.634,15.764,19.704,4.7619,-21.968,24.825001,8.6538,16.49,18.229,1.0742,11.823,-14.551
24.580999,10.54,21.528,18.537001,11.823,19.316999,23.188,21.294001,3.8374,18.537001,11.823,20.690001,9.5238,-17.205999,26.73,11.538,18.422001,14.364,-9.3523,17.733999,-9.7436
19.841999,7.6825,14.699,7.8049,5.9113,18.341,8.6957,14.498,2.8618,7.8049,5.9113,15.764,9.5238,-13.397,21.968,10.577,15.523,12.432,-1.7694,13.793,-6.859
7.5197,1.9683,2.9919,0.0,2.9557,9.561,-0.96618,1.877,-2.9919,0.0,2.9557,4.9261,4.7619,-9.5873,11.492,4.8077,5.8615,9.533,-6.5087,6.8966,-5.8974
5.624,4.8254,2.0163,1.9512,-4.9261,9.561,1.9324,-3.9482,-2.0163,1.9512,-4.9261,2.9557,7.619,3.746,9.5873,8.6538,5.8615,-1.095,-8.4044,7.8818,5.641
2.7804,-0.88889,-0.91057,-4.878,-7.8818,-1.1707,-1.9324,-2.0065,-1.0407,-4.878,-7.8818,-1.9704,8.5714,9.4603,5.7778,5.7692,3.9291,-0.12882,2.97,5.9113,7.5641
-0.06319,-7.5556,-5.7886,-6.8293,-2.9557,-2.1463,-2.8986,-7.8317,-2.9919,-6.8293,-2.9557,-3.9409,6.6667,13.27,1.0159,0.96154,0.06441,-3.9936,12.449,0.98522,5.641
-1.9589,-6.6032,-5.7886,-4.878,0.0,-2.1463,-5.7971,-6.8608,-3.9675,-4.878,0.0,-3.9409,6.6667,17.079,-1.8413,1.9231,0.06441,-10.757,-0.82148,0.0,8.5256
-6.6983,-6.6032,-8.7154,-8.7805,-5.9113,-6.0488,-5.7971,-13.657,-2.9919,-8.7805,-5.9113,-5.9113,6.6667,15.175,-4.6984,0.0,-0.90177,-21.385,0.12638,0.0,7.5641
-6.6983,-1.8413,-5.7886,-8.7805,-1.9704,-6.0488,2.8986,-14.628,2.8618,-8.7805,-1.9704,-3.9409,9.5238,17.079,-3.746,2.8846,1.9968,-23.316999,-1.7694,-1.9704,12.372
-10.49,0.06349,-4.813,-12.683,-3.9409,-14.829,-3.8647,-15.599,4.813,-12.683,-3.9409,-6.8966,8.5714,11.365,-3.746,0.0,2.963,-18.486,-0.82148,-4.9261,6.6026
-9.5419,-4.6984,-3.8374,-9.7561,-5.9113,-16.780001,-4.8309,-20.452999,3.8374,-9.7561,-5.9113,-7.8818,5.7143,3.746,-2.7937,-3.8462,1.9968,-21.385,10.553,-11.823,-0.12821
-2.9068,-2.7937,2.9919,-6.8293,-5.9113,-3.122,0.0,-27.249001,6.7642,-6.8293,-5.9113,-2.9557,5.7143,0.88889,-0.88889,-1.9231,3.9291,-20.419001,9.6051,-8.867,-1.0897
4.6761,3.873,7.8699,-3.9024,1.9704,3.7073,3.8647,-9.7735,6.7642,-3.9024,1.9704,3.9409,4.7619,-5.7778,2.9206,0.96154,5.8615,-11.723,0.12638,-1.9704,-3.9744
9.4155,8.6349,13.724,8.7805,8.867,5.6585,10.628,8.6731,7.7398,8.7805,8.867,9.8522,0.95238,-9.5873,6.7302,4.8077,8.7601,-3.9936,5.8136,-0.98522,-4.9359
14.155,12.444,18.601999,14.634,17.733999,14.439,10.628,13.528,12.618,14.634,17.733999,14.778,-0.95238,-12.444,9.5873,8.6538,11.659,2.7697,-2.7172,-3.9409,-6.859
16.997999,13.397,19.577,15.61,20.690001,21.268,15.459,10.615,12.618,15.61,20.690001,18.719,-1.9048,-13.397,9.5873,10.577,12.625,-0.12882,0.12638,-4.9261,-3.9744
12.259,7.6825,14.699,10.732,10.837,12.488,9.6618,16.440001,8.7154,10.732,10.837,13.793,-3.8095,-15.302,6.7302,4.8077,8.7601,3.7359,8.6572,-3.9409,-6.859
14.155,5.7778,10.797,7.8049,7.8818,13.463,5.7971,15.469,3.8374,7.8049,7.8818,10.837,-3.8095,-13.397,5.7778,1.9231,5.8615,11.465,5.8136,-1.9704,-8.7821
10.363,2.9206,5.9187,5.8537,-0.98522,7.6098,0.0,7.7023,-1.0407,5.8537,-0.98522,6.8966,-2.8571,-7.6825,3.873,0.96154,3.9291,9.533,-7.4566,-1.9704,-3.9744
14.155,-0.88889,4.9431,4.878,-3.9409,8.5854,5.7971,5.7605,-2.9919,4.878,-3.9409,7.8818,4.7619,1.8413,6.7302,1.9231,6.8277,9.533,-12.196,3.9409,-0.12821
19.841999,0.06349,6.8943,0.0,-1.9704,16.389999,1.9324,1.877,-3.9675,0.0,-1.9704,6.8966,13.333,11.365,12.444,5.7692,11.659,11.465,-8.4044,11.823,4.6795
11.311,1.0159,3.9675,-0.97561,-2.9557,3.7073,-3.8647,4.7896,-6.8943,-0.97561,-2.9557,0.0,15.238,19.937,9.5873,8.6538,12.625,7.6006,-7.4566,10.837,11.41
0.88468,-3.746,-2.8618,-8.7805,-9.8522,-9.9512,-9.6618,1.877,-9.8211,-8.7805,-9.8522,-9.8522,11.429,18.983999,2.9206,4.8077,7.7939,3.7359,-0.82148,4.9261,8.5256
-4.8025,-3.746,-5.7886,-11.707,-10.837,-16.780001,-11.594,-2.9773,-7.8699,-11.707,-10.837,-14.778,11.429,20.889,1.9683,4.8077,6.8277,-13.655,1.0742,0.98522,8.5256
-9.5419,0.06349,-4.813,-13.659,-7.8818,-21.659,-10.628,-5.89,-3.9675,-13.659,-7.8818,-15.764,14.286,26.603001,2.9206,11.538,11.659,-12.689,-2.7172,0.0,17.179001
-10.49,6.7302,-1.8862,-10.732,-9.8522,-16.780001,-12.56,-20.452999,-3.9675,-10.732,-9.8522,-14.778,16.190001,30.413,5.7778,18.268999,17.455999,-11.723,0.12638,0.98522,22.948999
-15.229,4.8254,-1.8862,-12.683,-8.867,-24.584999,-13.527,-20.452999,-2.0163,-12.683,-8.867,-16.749001,13.333,27.556,4.8254,17.308001,17.455999,-16.554001,1.0742,0.0,19.103001
-15.229,4.8254,1.0407,-13.659,-9.8522,-25.561001,-3.8647,-16.57,1.8862,-13.659,-9.8522,-13.793,11.429,25.650999,4.8254,17.308001,17.455999,-19.452,5.8136,-1.9704,17.179001
-12.385,13.397,8.8455,-10.732,1.9704,-19.707001,7.7295,-15.599,6.7642,-10.732,1.9704,-5.9113,17.143,28.507999,10.54,25.0,24.219,-16.554001,18.136,3.9409,21.987
-7.6461,17.205999,13.724,0.97561,10.837,-9.9512,9.6618,-13.657,10.667,0.97561,10.837,0.98522,16.190001,22.794001,14.349,25.0,27.118,-11.723,19.084,5.9113,18.141001
4.6761,17.205999,18.601999,11.707,11.823,3.7073,14.493,-0.06472,13.593,11.707,11.823,10.837,12.381,9.4603,17.205999,18.268999,24.219,-2.0612,10.553,5.9113,6.6026
16.997999,21.016001,25.431,19.511999,18.719,22.243999,23.188,10.615,16.52,19.511999,18.719,22.66,12.381,-1.9683,21.016001,15.385,23.253,7.6006,3.9179,6.8966,-1.0897
17.945999,21.016001,25.431,24.389999,15.764,24.195,27.052999,24.207001,13.593,24.389999,15.764,24.631001,3.8095,-14.349,16.254,10.577,17.455999,10.499,10.553,3.9409,-10.705
13.207,15.302,17.625999,21.462999,12.808,18.341,18.357,27.120001,11.642,21.462999,12.808,18.719,-8.5714,-23.872999,5.7778,2.8846,6.8277,13.398,6.7615,-1.9704,-18.396999
11.311,5.7778,10.797,20.488001,17.733999,18.341,7.7295,17.410999,9.6911,20.488001,17.733999,14.778,-15.238,-22.921,-0.88889,-2.8846,-2.8341,13.398,2.0221,-6.8966,-14.551
6.5719,-1.8413,2.0163,15.61,12.808,16.389999,0.96618,9.644,6.7642,15.61,12.808,8.867,-14.286,-16.254,-5.6508,-6.7308,-8.6312,10.499,0.12638,-5.9113,-8.7821
3.7283,-7.5556,-4.813,6.8293,0.98522,10.537,-2.8986,7.7023,-2.0163,6.8293,0.98522,0.98522,-7.619,-5.7778,-5.6508,-8.6538,-9.5974,11.465,0.12638,1.9704,-3.0128
-0.06319,-10.413,-10.667,2.9268,-8.867,4.6829,-12.56,6.7314,-5.9187,2.9268,-8.867,-6.8966,0.0,4.6984,-3.746,-7.6923,-7.6651,4.7021,-2.7172,4.9261,-1.0897
-1.9589,-12.317,-13.593,-1.9512,-8.867,-3.122,-14.493,7.7023,-7.8699,-1.9512,-8.867,-12.808,8.5714,11.365,-0.88889,-5.7692,-3.8003,2.7697,-5.5608,10.837,0.83333
-0.06319,-12.317,-11.642,-6.8293,-10.837,-5.0732,-16.424999,0.90615,-9.8211,-6.8293,-10.837,-13.793,18.094999,18.032,4.8254,-3.8462,1.9968,1.8035,-3.6651,12.808,5.641
2.7804,-11.365,-7.7398,-10.732,-15.764,-1.1707,-13.527,-9.7735,-9.8211,-10.732,-15.764,-12.808,21.905001,21.841,7.6825,-1.9231,4.8953,-2.0612,-9.3523,12.808,7.5641
-3.8547,-13.27,-9.6911,-15.61,-14.778,-9.9512,-13.527,-15.599,-6.8943,-15.61,-14.778,-16.749001,20.0,20.889,3.873,-2.8846,2.963,-6.8921,-15.987,10.837,7.5641
-11.438,-12.317,-13.593,-17.561001,-12.808,-11.902,-16.424999,-20.452999,-6.8943,-17.561001,-12.808,-18.719,18.094999,20.889,-1.8413,-3.8462,-0.90177,-12.689,-8.4044,4.9261,10.449
-13.333,-8.5079,-14.569,-17.561001,-6.8966,-18.732,-15.459,-25.306999,-4.9431,-17.561001,-6.8966,-19.704,14.286,18.983999,-5.6508,-6.7308,-4.7665,-20.419001,0.12638,0.0,5.641
-19.968,-10.413,-14.569,-21.462999,-5.9113,-29.462999,-10.628,-21.424,-2.0163,-21.462999,-5.9113,-21.674999,9.5238,14.222,-10.413,-10.577,-9.5974,-28.148001,2.0221,-7.8818,-0.12821
-22.812,-8.5079,-11.642,-21.462999,-6.8966,-28.488001,-6.7633,-25.306999,4.813,-21.462999,-6.8966,-18.719,7.619,11.365,-12.317,-8.6538,-9.5974,-34.910999,2.97,-12.808,0.83333
-20.916,0.06349,-7.7398,-17.561001,-4.9261,-23.610001,0.96618,-35.015999,6.7642,-17.561001,-4.9261,-14.778,1.9048,6.6032,-14.222,-3.8462,-7.6651,-44.573002,-2.7172,-17.733999,3.7179
-16.177,5.7778,-1.8862,-13.659,0.98522,-13.854,4.8309,-33.074001,9.6911,-13.659,0.98522,-7.8818,1.9048,7.5556,-9.4603,3.8462,-0.90177,-32.013,9.6051,-10.837,6.6026
-13.333,6.7302,2.0163,-10.732,9.8522,-8.9756,1.9324,-29.191,12.618,-10.732,9.8522,-3.9409,0.0,-1.0159,-7.5556,4.8077,1.9968,-31.047001,16.24,-12.808,0.83333
-9.5419,9.5873,5.9187,-2.9268,13.793,-8.9756,7.7295,-8.8026,11.642,-2.9268,13.793,0.0,-3.8095,-13.397,-7.5556,3.8462,1.0306,-19.452,8.6572,-17.733999,-6.859
-1.0111,9.5873,8.8455,5.8537,9.8522,3.7073,13.527,9.644,13.593,5.8537,9.8522,7.8818,-2.8571,-20.063,-3.746,2.8846,1.0306,-0.12882,4.8657,-9.8522,-12.628
5.624,8.6349,9.8211,13.659,10.837,15.415,16.424999,9.644,11.642,13.659,10.837,13.793,-6.6667,-23.872999,-2.7937,1.9231,0.06441,9.533,3.9179,-6.8966,-15.513
4.6761,5.7778,5.9187,8.7805,11.823,10.537,5.7971,12.557,3.8374,8.7805,11.823,10.837,-9.5238,-19.111,-3.746,0.0,-1.868,11.465,-6.5087,-6.8966,-11.667
2.7804,-0.88889,0.06504,1.9512,0.98522,11.512,3.8647,8.6731,-4.9431,1.9512,0.98522,3.9409,-12.381,-11.492,-7.5556,-5.7692,-8.6312,9.533,-8.4044,-6.8966,-6.859
-4.8025,-7.5556,-10.667,9.7561,0.98522,1.7561,-4.8309,21.294001,-7.8699,9.7561,0.98522,-2.9557,-16.190001,-4.8254,-14.222,-13.462,-18.292999,12.432,-7.4566,-8.867,-3.0128
-13.333,-15.175,-20.423,13.659,2.9557,-7.0244,-7.7295,22.264999,-7.8699,13.659,2.9557,-7.8818,-21.905001,-1.9683,-22.794001,-20.191999,-27.955,11.465,-10.3,-8.867,-3.9744
-13.333,-17.079,-24.325001,7.8049,0.98522,-0.19512,-7.7295,11.586,-11.772,7.8049,0.98522,-8.867,-22.857,1.8413,-26.603001,-22.115,-31.82,11.465,-5.5608,-7.8818,-1.0897
-16.177,-18.983999,-26.275999,1.9512,0.98522,-6.0488,-14.493,6.7314,-14.699,1.9512,0.98522,-13.793,-20.952,6.6032,-26.603001,-22.115,-31.82,4.7021,-1.7694,-7.8818,1.7949
-15.229,-20.889,-27.252001,-2.9268,-2.9557,-2.1463,-19.323999,-10.744,-15.675,-2.9268,-2.9557,-16.749001,-15.238,9.4603,-22.794001,-19.231001,-26.989,4.7021,-11.248,-7.8818,3.7179
-14.281,-15.175,-26.275999,-4.878,-7.8818,-11.902,-20.290001,3.8188,-14.699,-4.878,-7.8818,-18.719,-6.6667,13.27,-16.127001,-12.5,-18.292999,9.533,-5.5608,-0.98522,8.5256
-17.125,-14.222,-25.301001,-8.7805,-14.778,-20.683001,-17.391001,5.7605,-14.699,-8.7805,-14.778,-21.674999,0.0,16.127001,-12.317,-7.6923,-11.53,2.7697,-4.613,2.9557,9.4872
-10.49,-9.4603,-17.496,-10.732,-5.9113,-12.878,-11.594,-9.7735,-11.772,-10.732,-5.9113,-17.733999,7.619,18.983999,-3.746,0.0,0.06441,-0.12882,-0.82148,5.9113,11.41
-5.7504,-1.8413,-5.7886,-4.878,5.9113,-9.9512,-5.7971,-5.89,-6.8943,-4.878,5.9113,-9.8522,14.286,19.937,4.8254,6.7308,9.7262,-4.9597,2.0221,8.867,12.372
-4.8025,3.873,2.0163,-1.9512,2.9557,-4.0976,2.8986,-10.744,-4.9431,-1.9512,2.9557,-0.98522,14.286,17.079,6.7302,9.6154,13.591,-3.9936,4.8657,6.8966,10.449
-1.0111,10.54,8.8455,0.97561,9.8522,-3.122,13.527,-3.9482,4.813,0.97561,9.8522,7.8818,14.286,17.079,7.6825,14.423,15.523,-7.8583,-2.7172,4.9261,13.333
1.8325,15.302,11.772,7.8049,14.778,-0.19512,16.424999,-0.06472,11.642,7.8049,14.778,15.764,9.5238,7.5556,4.8254,14.423,11.659,-13.655,9.6051,-3.9409,7.5641
-1.0111,14.349,11.772,12.683,17.733999,6.6341,16.424999,-2.0065,11.642,12.683,17.733999,17.733999,0.0,-3.873,-1.8413,8.6538,2.963,-18.486,20.979,-10.837,-2.0513
-1.0111,9.5873,8.8455,15.61,13.793,12.488,13.527,-2.9773,11.642,15.61,13.793,17.733999,-9.5238,-14.349,-9.4603,0.96154,-7.6651,-15.588,14.344,-15.764,-7.8205
-1.0111,7.6825,4.9431,15.61,16.749001,13.463,13.527,-1.0356,11.642,15.61,16.749001,16.749001,-14.286,-19.111,-13.27,-3.8462,-14.428,-6.8921,2.97,-19.704,-6.859
-0.06319,1.9683,-1.8862,13.659,12.808,8.5854,4.8309,10.615,7.7398,13.659,12.808,14.778,-17.143,-21.968,-15.175,-11.538,-21.191999,1.8035,4.8657,-16.749001,-10.705
-1.0111,-4.6984,-8.7154,17.561001,10.837,5.6585,9.6618,19.353001,7.7398,17.561001,10.837,11.823,-20.0,-22.921,-18.032,-18.268999,-26.989,8.5668,2.0221,-16.749001,-14.551
-3.8547,-10.413,-12.618,17.561001,7.8818,4.6829,5.7971,20.323999,4.813,17.561001,7.8818,6.8966,-20.952,-20.063,-18.983999,-20.191999,-26.023001,6.6345,4.8657,-16.749001,-11.667
-2.9068,-13.27,-13.593,10.732,-1.9704,8.5854,-5.7971,13.528,-2.0163,10.732,-1.9704,0.98522,-18.094999,-17.205999,-16.127001,-18.268999,-22.158001,8.5668,8.6572,-8.867,-8.7821
-2.9068,-14.222,-13.593,5.8537,-4.9261,2.7317,-12.56,11.586,-6.8943,5.8537,-4.9261,-4.9261,-15.238,-15.302,-10.413,-16.346001,-17.327,20.160999,-1.7694,-1.9704,-8.7821
-0.06319,-12.317,-10.667,3.9024,-2.9557,3.7073,-15.459,13.528,-7.8699,3.9024,-2.9557,-4.9261,-10.476,-9.5873,-4.6984,-11.538,-11.53,23.059999,-12.196,-0.98522,-4.9359
-1.9589,-10.413,-7.7398,5.8537,-2.9557,8.5854,-12.56,6.7314,-9.8211,5.8537,-2.9557,-2.9557,-7.619,-5.7778,-3.746,-7.6923,-6.6989,20.160999,-11.248,0.0,-2.0513
-2.9068,-2.7937,-1.8862,6.8293,-5.9113,-1.1707,-6.7633,16.440001,-8.8455,6.8293,-5.9113,-1.9704,-0.95238,3.746,1.0159,0.96154,1.0306,22.093,-11.248,6.8966,7.5641
-1.0111,-4.6984,0.06504,1.9512,-7.8818,-6.0488,-2.8986,15.469,-7.8699,1.9512,-7.8818,-2.9557,0.95238,8.5079,3.873,3.8462,5.8615,17.261999,-0.82148,4.9261,7.5641
0.88468,-3.746,1.0407,-0.97561,-10.837,-3.122,0.96618,5.7605,-7.8699,-0.97561,-10.837,-1.9704,0.0,8.5079,5.7778,5.7692,8.7601,7.6006,7.7093,3.9409,5.641
3.7283,1.0159,3.9675,4.878,-0.98522,-1.1707,2.8986,3.8188,-2.0163,4.878,-0.98522,1.9704,1.9048,10.413,8.6349,8.6538,11.659,5.6683,2.0221,2.9557,7.5641
1.8325,3.873,2.9919,9.7561,10.837,0.78049,3.8647,-0.06472,1.8862,9.7561,10.837,3.9409,3.8095,10.413,8.6349,9.6154,12.625,5.6683,0.12638,4.9261,8.5256
-0.06319,2.9206,2.0163,8.7805,3.9409,3.7073,5.7971,-6.8608,1.8862,8.7805,3.9409,3.9409,4.7619,8.5079,7.6825,7.6923,10.692,1.8035,-11.248,8.867,5.641
2.7804,-0.88889,-0.91057,6.8293,11.823,0.78049,5.7971,-3.9482,3.8374,6.8293,11.823,1.9704,5.7143,4.6984,7.6825,4.8077,8.7601,1.8035,-9.3523,7.8818,4.6795
-1.9589,-5.6508,-4.813,6.8293,15.764,-8.0,-0.96618,5.7605,1.8862,6.8293,15.764,-2.9557,4.7619,-0.06349,4.8254,-0.96154,5.8615,7.6006,2.0221,8.867,-4.9359
-0.06319,-6.6032,-4.813,10.732,13.793,-5.0732,-2.8986,11.586,4.813,10.732,13.793,-1.9704,9.5238,-0.06349,8.6349,0.0,7.7939,9.533,-0.82148,12.808,-9.7436
9.4155,1.0159,4.9431,15.61,14.778,8.5854,7.7295,10.615,9.6911,15.61,14.778,6.8966,14.286,-1.0159,15.302,5.7692,14.557,15.33,-3.6651,17.733999,-8.7821
16.051001,7.6825,11.772,15.61,11.823,11.512,12.56,16.440001,12.618,15.61,11.823,12.808,14.286,-3.873,19.111,10.577,17.455999,19.195,-2.7172,20.690001,-9.7436
17.945999,11.492,16.65,22.438999,20.690001,13.463,18.357,13.528,17.496,22.438999,20.690001,17.733999,6.6667,-10.54,18.159,10.577,16.49,19.195,-3.6651,16.749001,-10.705
16.997999,15.302,20.552999,23.415001,22.66,15.415,20.290001,11.586,17.496,23.415001,22.66,20.690001,-1.9048,-16.254,14.349,10.577,12.625,12.432,-7.4566,7.8818,-10.705
16.051001,12.444,18.601999,18.537001,20.690001,19.316999,20.290001,4.7896,16.52,18.537001,20.690001,21.674999,-9.5238,-20.063,9.5873,5.7692,5.8615,4.7021,2.97,-2.9557,-12.628
11.311,9.5873,14.699,14.634,19.704,10.537,14.493,10.615,12.618,14.634,19.704,15.764,-15.238,-22.921,4.8254,0.0,0.06441,2.7697,17.188,-7.8818,-16.474001
10.363,7.6825,12.748,10.732,13.793,6.6341,9.6618,9.644,11.642,10.732,13.793,11.823,-14.286,-17.205999,5.7778,-1.9231,-0.90177,-1.095,12.449,-4.9261,-10.705
10.363,1.9683,8.8455,5.8537,5.9113,8.5854,4.8309,-2.9773,6.7642,5.8537,5.9113,7.8818,-12.381,-9.5873,5.7778,-4.8077,-3.8003,1.8035,7.7093,-6.8966,-3.0128
2.7804,-1.8413,2.0163,-4.878,-4.9261,-2.1463,-3.8647,-1.0356,1.8862,-4.878,-4.9261,-0.98522,-11.429,-9.5873,0.06349,-9.6154,-10.564,0.83736,1.0742,-8.867,-2.0513
0.88468,-2.7937,-0.91057,-7.8049,-10.837,-1.1707,-6.7633,-1.0356,-2.0163,-7.8049,-10.837,-2.9557,-9.5238,-8.6349,-2.7937,-12.5,-14.428,-2.0612,-14.092,-2.9557,-1.0897
1.8325,-2.7937,-0.91057,-3.9024,-14.778,3.7073,-3.8647,2.8479,-3.9675,-3.9024,-14.778,-1.9704,-4.7619,-3.873,-2.7937,-10.577,-14.428,1.8035,-6.5087,1.9704,4.6795
4.6761,-4.6984,-0.91057,-2.9268,-12.808,8.5854,0.0,1.877,-7.8699,-2.9268,-12.808,-0.98522,-2.8571,-2.9206,-3.746,-11.538,-15.395,2.7697,8.6572,1.9704,2.7564
1.8325,-4.6984,-0.91057,-6.8293,-11.823,-0.19512,-7.7295,3.8188,-7.8699,-6.8293,-11.823,-3.9409,-0.95238,-2.9206,-3.746,-9.6154,-15.395,2.7697,2.97,5.9113,0.83333
1.8325,-0.88889,1.0407,-9.7561,-11.823,-2.1463,-4.8309,4.7896,-7.8699,-9.7561,-11.823,-1.9704,1.9048,-2.9206,-1.8413,-3.8462,-11.53,1.8035,-10.3,9.8522,3.7179
3.7283,0.06349,0.06504,-6.8293,-10.837,-0.19512,-5.7971,-0.06472,-6.8943,-6.8293,-10.837,-1.9704,1.9048,-4.8254,0.06349,0.0,-8.6312,-0.12882,-4.613,12.808,4.6795
3.7283,-0.88889,0.06504,-5.8537,-7.8818,1.7561,-0.96618,-4.9191,-5.9187,-5.8537,-7.8818,-0.98522,1.9048,-3.873,1.0159,2.8846,-5.7327,-1.095,-2.7172,8.867,4.6795
4.6761,0.06349,1.0407,-5.8537,-3.9409,1.7561,-6.7633,-3.9482,-4.9431,-5.8537,-3.9409,-0.98522,3.8095,-2.9206,1.9683,5.7692,-0.90177,-0.12882,-3.6651,6.8966,5.641
3.7283,-1.8413,2.0163,-4.878,-4.9261,0.78049,-3.8647,3.8188,-0.06504,-4.878,-4.9261,-0.98522,4.7619,-4.8254,3.873,5.7692,4.8953,3.7359,3.9179,9.8522,-0.12821
6.5719,1.9683,4.9431,-4.878,-4.9261,5.6585,2.8986,2.8479,3.8374,-4.878,-4.9261,1.9704,7.619,-4.8254,8.6349,9.6154,11.659,7.6006,7.7093,11.823,-3.0128
7.5197,5.7778,7.8699,-2.9268,0.0,2.7317,0.0,1.877,6.7642,-2.9268,0.0,2.9557,10.476,-5.7778,12.444,11.538,16.49,4.7021,4.8657,14.778,-2.0513
7.5197,4.8254,10.797,-4.878,2.9557,5.6585,3.8647,-6.8608,10.667,-4.878,2.9557,4.9261,6.6667,-11.492,12.444,9.6154,17.455999,1.8035,-0.82148,8.867,-6.859
11.311,8.6349,14.699,-2.9268,-0.98522,5.6585,9.6618,0.90615,10.667,-2.9268,-0.98522,7.8818,6.6667,-9.5873,12.444,13.462,19.388,1.8035,-10.3,5.9113,-3.9744
10.363,8.6349,13.724,-2.9268,0.98522,-0.19512,10.628,1.877,11.642,-2.9268,0.98522,5.9113,5.7143,-4.8254,10.54,12.5,18.422001,-3.0274,2.0221,5.9113,-2.0513
6.5719,6.7302,10.797,-6.8293,4.9261,0.78049,3.8647,-10.744,7.7398,-6.8293,4.9261,3.9409,2.8571,-1.9683,6.7302,8.6538,13.591,-14.622,15.292,0.98522,-3.0128
5.624,4.8254,11.772,-9.7561,-0.98522,3.7073,2.8986,-10.744,6.7642,-9.7561,-0.98522,4.9261,1.9048,0.88889,4.8254,5.7692,9.7262,-8.8245,10.553,-3.9409,-3.9744
1.8325,0.06349,8.8455,-12.683,-8.867,-5.0732,1.9324,-10.744,5.7886,-12.683,-8.867,0.98522,0.95238,3.746,1.9683,1.9231,6.8277,-7.8583,4.8657,-12.808,-2.0513
-1.0111,0.06349,3.9675,-13.659,-8.867,-8.0,-0.96618,-12.686,1.8862,-13.659,-8.867,-0.98522,-1.9048,5.6508,-2.7937,-0.96154,1.0306,-16.554001,-5.5608,-14.778,-0.12821
-5.7504,0.06349,-1.8862,-6.8293,-5.9113,-5.0732,-1.9324,-15.599,-1.0407,-6.8293,-5.9113,-3.9409,-3.8095,3.746,-7.5556,-4.8077,-4.7665,-15.588,0.12638,-10.837,-0.12821
-11.438,-3.746,-7.7398,-7.8049,-2.9557,-9.9512,-2.8986,-10.744,-1.0407,-7.8049,-2.9557,-8.867,-5.7143,2.7937,-13.27,-8.6538,-10.564,-13.655,3.9179,-10.837,0.83333
-14.281,-5.6508,-11.642,-13.659,-6.8966,-16.780001,-8.6957,-2.9773,-2.0163,-13.659,-6.8966,-12.808,-6.6667,0.88889,-15.175,-12.5,-16.361,-10.757,-15.987,-10.837,-1.0897
-13.333,-10.413,-13.593,-8.7805,-7.8818,-11.902,-5.7971,-2.9773,-2.9919,-8.7805,-7.8818,-12.808,-7.619,-2.9206,-16.127001,-16.346001,-20.225,-6.8921,-4.613,-8.867,-2.0513
-12.385,-13.27,-14.569,-4.878,-9.8522,-9.9512,-2.8986,-2.0065,-2.9919,-4.878,-9.8522,-11.823,-9.5238,-10.54,-17.079,-21.153999,-24.09,-7.8583,4.8657,-7.8818,-8.7821
-7.6461,-15.175,-13.593,-1.9512,-7.8818,-1.1707,-7.7295,-5.89,-3.9675,-1.9512,-7.8818,-9.8522,-7.619,-15.302,-14.222,-22.115,-24.09,-4.9597,0.12638,-4.9261,-13.59
-2.9068,-10.413,-8.7154,-1.9512,-2.9557,-0.19512,-9.6618,-0.06472,-3.9675,-1.9512,-2.9557,-6.8966,-4.7619,-14.349,-7.5556,-16.346001,-17.327,9.533,-5.5608,3.9409,-10.705
1.8325,-6.6032,-5.7886,-3.9024,-4.9261,-0.19512,-6.7633,3.8188,-2.0163,-3.9024,-4.9261,-3.9409,-4.7619,-14.349,-2.7937,-11.538,-12.496,15.33,-7.4566,3.9409,-8.7821
2.7804,-3.746,-2.8618,0.97561,0.0,-1.1707,-4.8309,12.557,-1.0407,0.97561,0.0,-2.9557,-0.95238,-10.54,0.06349,-6.7308,-7.6651,16.296,-10.3,5.9113,-2.0513
4.6761,-3.746,-1.8862,5.8537,6.8966,2.7317,-4.8309,10.615,2.8618,5.8537,6.8966,-1.9704,2.8571,-6.7302,3.873,-3.8462,-1.868,13.398,-8.4044,10.837,-5.8974
6.5719,-2.7937,2.0163,4.878,5.9113,4.6829,-7.7295,3.8188,3.8374,4.878,5.9113,-0.98522,4.7619,-5.7778,6.7302,-1.9231,2.963,5.6683,-1.7694,11.823,-8.7821
3.7283,-2.7937,3.9675,0.0,3.9409,8.5854,-3.8647,-5.89,5.7886,0.0,3.9409,0.98522,4.7619,-2.9206,7.6825,0.96154,5.8615,2.7697,-5.5608,10.837,-5.8974
2.7804,-1.8413,4.9431,5.8537,7.8818,2.7317,2.8986,-2.0065,10.667,5.8537,7.8818,1.9704,6.6667,3.746,6.7302,2.8846,8.7601,0.83736,-6.5087,8.867,-1.0897
2.7804,1.0159,4.9431,14.634,8.867,3.7073,4.8309,-0.06472,13.593,14.634,8.867,3.9409,7.619,6.6032,5.7778,4.8077,8.7601,-3.0274,3.9179,5.9113,1.7949
1.8325,3.873,4.9431,16.584999,17.733999,4.6829,7.7295,-3.9482,14.569,16.584999,17.733999,5.9113,6.6667,7.5556,3.873,6.7308,8.7601,-3.0274,6.7615,2.9557,3.7179
5.624,9.5873,9.8211,18.537001,23.645,8.5854,9.6618,-3.9482,12.618,18.537001,23.645,9.8522,7.619,11.365,5.7778,10.577,10.692,-1.095,1.0742,4.9261,8.5256
4.6761,8.6349,7.8699,28.292999,29.556999,14.439,12.56,8.6731,15.545,28.292999,29.556999,12.808,1.9048,3.746,1.0159,4.8077,4.8953,4.7021,2.0221,0.98522,1.7949
4.6761,6.7302,5.9187,38.049,40.394001,13.463,15.459,16.440001,19.447001,38.049,40.394001,16.749001,-1.9048,-0.06349,-1.8413,0.96154,1.0306,7.6006,12.449,-0.98522,-4.9359
8.4676,5.7778,5.9187,45.854,41.379002,16.389999,23.188,10.615,18.472,45.854,41.379002,20.690001,0.0,2.7937,1.0159,0.96154,2.963,13.398,10.553,3.9409,-1.0897
8.4676,6.7302,4.9431,44.877998,39.409,19.316999,19.323999,13.528,16.52,44.877998,39.409,19.704,-1.9048,2.7937,0.06349,0.0,1.0306,13.398,-3.6651,-0.98522,-0.12821
6.5719,7.6825,5.9187,36.098,36.452999,13.463,16.424999,12.557,18.472,36.098,36.452999,18.719,-0.95238,3.746,0.06349,0.0,1.0306,9.533,2.97,0.0,2.7564
2.7804,5.7778,2.9919,31.219999,37.438,8.5854,11.594,3.8188,17.496,31.219999,37.438,15.764,-3.8095,1.8413,-2.7937,-0.96154,-2.8341,5.6683,6.7615,-0.98522,7.5641
-5.7504,1.0159,-5.7886,27.316999,35.467999,-2.1463,9.6618,-2.9773,17.496,27.316999,35.467999,6.8966,-9.5238,-4.8254,-10.413,-6.7308,-9.5974,-3.0274,9.6051,-7.8818,2.7564
-11.438,0.06349,-11.642,14.634,22.66,-9.9512,3.8647,-6.8608,12.618,14.634,22.66,0.0,-13.333,-9.5873,-14.222,-8.6538,-13.462,-8.8245,6.7615,-9.8522,-1.0897
-13.333,-0.88889,-12.618,5.8537,18.719,-3.122,1.9324,-19.482,11.642,5.8537,18.719,-2.9557,-13.333,-6.7302,-15.175,-7.6923,-13.462,-12.689,6.7615,-16.749001,2.7564
-17.125,-3.746,-15.545,0.0,3.9409,-10.927,-0.96618,-18.511,7.7398,0.0,3.9409,-7.8818,-11.429,-5.7778,-17.079,-8.6538,-14.428,-14.622,1.0742,-21.674999,3.7179
-19.021,-7.5556,-15.545,-3.9024,-2.9557,-17.756001,-7.7295,-10.744,2.8618,-3.9024,-2.9557,-11.823,-8.5714,-1.0159,-16.127001,-7.6923,-12.496,-12.689,-2.7172,-12.808,8.5256
-17.125,-9.4603,-16.52,-5.8537,-2.9557,-15.805,-6.7633,-10.744,0.91057,-5.8537,-2.9557,-12.808,-6.6667,1.8413,-15.175,-8.6538,-13.462,-12.689,9.6051,-6.8966,6.6026
-11.438,-6.6032,-12.618,-8.7805,-7.8818,-6.0488,-8.6957,-15.599,-1.0407,-8.7805,-7.8818,-8.867,-1.9048,5.6508,-11.365,-5.7692,-10.564,-15.588,3.9179,-4.9261,4.6795
-7.6461,-3.746,-8.7154,-5.8537,-5.9113,-4.0976,-3.8647,-6.8608,-2.9919,-5.8537,-5.9113,-4.9261,-0.95238,7.5556,-7.5556,-3.8462,-6.6989,-4.9597,-4.613,-1.9704,6.6026
1.8325,-0.88889,0.06504,0.0,4.9261,3.7073,5.7971,-3.9482,-0.06504,0.0,4.9261,3.9409,3.8095,13.27,1.0159,1.9231,1.0306,5.6683,-3.6651,5.9113,8.5256
9.4155,5.7778,7.8699,1.9512,5.9113,5.6585,1.9324,4.7896,-3.9675,1.9512,5.9113,7.8818,5.7143,12.317,8.6349,7.6923,7.7939,10.499,-0.82148,12.808,8.5256
13.207,9.5873,10.797,1.9512,-2.9557,9.561,9.6618,6.7314,-2.0163,1.9512,-2.9557,9.8522,1.9048,3.746,11.492,11.538,9.7262,10.499,-13.144,10.837,2.7564
20.790001,16.254,17.625999,7.8049,3.9409,22.243999,21.256001,2.8479,5.7886,7.8049,3.9409,17.733999,1.9048,0.88889,16.254,18.268999,15.523,11.465,-4.613,9.8522,6.6026
16.051001,12.444,13.724,7.8049,9.8522,16.389999,13.527,10.615,6.7642,7.8049,9.8522,14.778,-1.9048,-7.6825,14.349,15.385,13.591,15.33,13.397,7.8818,-2.0513
14.155,8.6349,12.748,1.9512,-2.9557,10.537,5.7971,6.7314,4.813,1.9512,-2.9557,10.837,-0.95238,-12.444,13.397,12.5,13.591,8.5668,9.6051,9.8522,-5.8974
13.207,9.5873,12.748,-0.97561,-2.9557,13.463,1.9324,-7.8317,2.8618,-0.97561,-2.9557,9.8522,1.9048,-7.6825,14.349,13.462,15.523,-0.12882,3.9179,9.8522,0.83333
3.7283,4.8254,6.8943,-9.7561,-4.9261,-3.122,-2.8986,-3.9482,-0.06504,-9.7561,-4.9261,-0.98522,5.7143,2.7937,11.492,13.462,14.557,-4.9597,-1.7694,7.8818,6.6026
-1.0111,2.9206,1.0407,-18.537001,-9.8522,-11.902,-8.6957,-2.0065,-7.8699,-18.537001,-9.8522,-7.8818,12.381,16.127001,10.54,12.5,14.557,-3.0274,-10.3,7.8818,13.333
-5.7504,-0.88889,-0.91057,-20.488001,-18.719,-10.927,-7.7295,-11.715,-12.748,-20.488001,-18.719,-9.8522,17.143,22.794001,6.7302,9.6154,12.625,-5.9259,-5.5608,8.867,17.179001
-10.49,-9.4603,-4.813,-22.438999,-20.690001,-14.829,-10.628,-14.628,-15.675,-22.438999,-20.690001,-12.808,15.238,22.794001,0.06349,1.9231,6.8277,-13.655,-0.82148,4.9261,11.41
-15.229,-11.365,-8.7154,-23.415001,-23.645,-17.756001,-18.357,-17.540001,-18.601999,-23.415001,-23.645,-14.778,11.429,21.841,-6.6032,-2.8846,1.0306,-16.554001,-1.7694,-2.9557,6.6026
-19.968,-8.5079,-11.642,-23.415001,-26.601,-20.683001,-18.357,-23.365999,-18.601999,-23.415001,-26.601,-17.733999,8.5714,21.841,-12.317,-2.8846,-2.8341,-16.554001,-8.4044,-8.867,9.4872
-15.229,-10.413,-13.593,-20.488001,-21.674999,-9.9512,-18.357,-30.162001,-16.65,-20.488001,-21.674999,-15.764,5.7143,18.983999,-14.222,-4.8077,-5.7327,-15.588,-6.5087,-10.837,7.5641
-14.281,-12.317,-15.545,-21.462999,-20.690001,-14.829,-20.290001,-14.628,-15.675,-21.462999,-20.690001,-17.733999,2.8571,15.175,-14.222,-6.7308,-8.6312,-13.655,-6.5087,-10.837,5.641
-17.125,-15.175,-17.496,-24.389999,-17.733999,-24.584999,-23.188,-5.89,-18.601999,-24.389999,-17.733999,-21.674999,-1.9048,8.5079,-15.175,-9.6154,-11.53,-11.723,-24.518,-12.808,1.7949
-10.49,-12.317,-12.618,-20.488001,-13.793,-17.756001,-14.493,-6.8608,-17.625999,-20.488001,-13.793,-15.764,-0.95238,7.5556,-10.413,-7.6923,-8.6312,-9.7907,-6.5087,-5.9113,-1.0897
-6.6983,-10.413,-9.6911,-16.584999,-21.674999,-10.927,-9.6618,-6.8608,-13.724,-16.584999,-21.674999,-13.793,0.95238,11.365,-4.6984,-3.8462,-3.8003,-5.9259,2.97,-1.9704,-1.0897
-3.8547,-8.5079,-7.7398,-12.683,-14.778,-6.0488,-8.6957,-4.9191,-9.8211,-12.683,-14.778,-9.8522,0.95238,8.5079,0.06349,-1.9231,-0.90177,-0.12882,-6.5087,2.9557,-2.0513
-1.0111,-6.6032,-3.8374,-9.7561,-5.9113,-10.927,-8.6957,-0.06472,-5.9187,-9.7561,-5.9113,-7.8818,-0.95238,3.746,3.873,-2.8846,1.0306,-2.0612,-8.4044,0.98522,-6.859
1.8325,-3.746,2.0163,-3.9024,-3.9409,-9.9512,-3.8647,-0.06472,-2.9919,-3.9024,-3.9409,-4.9261,0.95238,1.8413,8.6349,0.0,5.8615,0.83736,-6.5087,0.98522,-7.8205
8.4676,3.873,9.8211,-0.97561,0.0,2.7317,2.8986,-8.8026,3.8374,-0.97561,0.0,0.98522,6.6667,2.7937,14.349,7.6923,12.625,2.7697,-11.248,7.8818,-3.0128
3.7283,5.7778,8.8455,-5.8537,-2.9557,-1.1707,2.8986,-7.8317,6.7642,-5.8537,-2.9557,0.0,8.5714,-0.06349,13.397,8.6538,12.625,-5.9259,-0.82148,6.8966,-3.9744
-0.06319,7.6825,6.8943,-8.7805,-8.867,1.7561,5.7971,-11.715,5.7886,-8.7805,-8.867,0.0,9.5238,-1.9683,10.54,6.7308,10.692,-8.8245,10.553,5.9113,-6.859
-1.9589,8.6349,5.9187,-11.707,-11.823,-5.0732,3.8647,-7.8317,1.8862,-11.707,-11.823,-0.98522,5.7143,-2.9206,7.6825,5.7692,7.7939,-13.655,9.6051,2.9557,-3.9744
-2.9068,10.54,5.9187,-13.659,-11.823,-9.9512,7.7295,-9.7735,2.8618,-13.659,-11.823,-1.9704,6.6667,2.7937,6.7302,8.6538,8.7601,-22.351,2.97,0.0,3.7179
-1.0111,10.54,6.8943,-19.511999,-2.9557,-9.9512,9.6618,-18.511,4.813,-19.511999,-2.9557,-2.9557,10.476,11.365,7.6825,13.462,11.659,-26.216,7.7093,-1.9704,13.333
-3.8547,10.54,3.9675,-18.537001,-11.823,-11.902,4.8309,-20.452999,-0.06504,-18.537001,-11.823,-3.9409,12.381,19.937,6.7302,17.308001,13.591,-25.25,15.292,-6.8966,22.948999
-4.8025,9.5873,2.9919,-18.537001,-10.837,-10.927,2.8986,-21.424,0.91057,-18.537001,-10.837,-3.9409,12.381,23.746,5.7778,16.346001,13.591,-26.216,17.188,-7.8818,22.948999
2.7804,12.444,7.8699,-18.537001,-9.8522,-0.19512,2.8986,-26.278,0.91057,-18.537001,-9.8522,1.9704,16.190001,29.459999,9.5873,19.231001,17.455999,-30.080999,10.553,-5.9113,22.948999
2.7804,13.397,10.797,-18.537001,-17.733999,-7.0244,1.9324,-18.511,-2.9919,-18.537001,-17.733999,0.98522,23.809999,35.174999,14.349,22.115,21.32,-26.216,13.397,1.9704,25.833
-1.9589,8.6349,6.8943,-20.488001,-13.793,-11.902,-1.9324,-15.599,-9.8211,-20.488001,-13.793,-2.9557,24.761999,32.317001,11.492,17.308001,20.354,-20.419001,17.188,0.0,22.948999
-3.8547,3.873,1.0407,-20.488001,-18.719,-4.0976,-7.7295,-23.365999,-8.8455,-20.488001,-18.719,-4.9261,25.714001,29.459999,8.6349,13.462,16.49,-20.419001,3.9179,-2.9557,21.025999
-8.594,-6.6032,-7.7398,-14.634,-17.733999,-6.0488,-9.6618,-13.657,-9.8211,-14.634,-17.733999,-8.867,20.952,18.032,2.9206,3.8462,8.7601,-14.622,2.0221,0.98522,8.5256
-9.5419,-11.365,-10.667,-7.8049,-9.8522,-6.0488,-12.56,-2.0065,-6.8943,-7.8049,-9.8522,-9.8522,12.381,4.6984,-2.7937,-4.8077,0.06441,-8.8245,1.0742,0.98522,-4.9359
-9.5419,-11.365,-11.642,-7.8049,-10.837,-4.0976,-13.527,2.8479,-5.9187,-7.8049,-10.837,-9.8522,2.8571,-9.5873,-8.5079,-10.577,-7.6651,-3.9936,-8.4044,-3.9409,-14.551
-3.8547,-7.5556,-7.7398,2.9268,-3.9409,7.6098,-9.6618,1.877,-0.06504,2.9268,-3.9409,-4.9261,-3.8095,-19.111,-8.5079,-11.538,-8.6312,0.83736,-7.4566,-5.9113,-16.474001
-4.8025,-11.365,-8.7154,6.8293,-7.8818,0.78049,-6.7633,16.440001,1.8862,6.8293,-7.8818,-5.9113,-11.429,-27.683001,-9.4603,-14.423,-11.53,5.6683,-0.82148,-6.8966,-24.167
-4.8025,-13.27,-10.667,3.9024,-6.8966,-5.0732,-11.594,22.264999,-0.06504,3.9024,-6.8966,-8.867,-18.094999,-32.444,-10.413,-16.346001,-13.462,17.261999,1.0742,-4.9261,-25.128
-2.9068,-11.365,-8.7154,3.9024,-3.9409,-1.1707,-13.527,19.353001,-0.06504,3.9024,-3.9409,-6.8966,-25.714001,-36.254002,-10.413,-14.423,-13.462,24.025999,0.12638,-6.8966,-22.243999
-0.06319,-8.5079,-4.813,3.9024,-7.8818,1.7561,-7.7295,18.382,-2.9919,3.9024,-7.8818,-5.9113,-28.570999,-34.348999,-7.5556,-11.538,-11.53,20.160999,0.12638,-9.8522,-17.436001
5.624,-3.746,0.06504,1.9512,-7.8818,10.537,-0.96618,14.498,-2.9919,1.9512,-7.8818,0.0,-22.857,-23.872999,-3.746,-5.7692,-7.6651,20.160999,-2.7172,-8.867,-8.7821
2.7804,-1.8413,-1.8862,0.97561,-4.9261,4.6829,-6.7633,22.264999,-3.9675,0.97561,-4.9261,-1.9704,-17.143,-14.349,-2.7937,-2.8846,-6.6989,20.160999,-1.7694,-2.9557,-2.0513
1.8325,2.9206,-1.8862,0.97561,-6.8966,-1.1707,-8.6957,20.323999,-5.9187,0.97561,-6.8966,-4.9261,-9.5238,-1.9683,0.06349,3.8462,-2.8341,19.195,-10.3,2.9557,6.6026
7.5197,5.7778,2.0163,-3.9024,-8.867,1.7561,-3.8647,3.8188,-5.9187,-3.9024,-8.867,-3.9409,-0.95238,9.4603,4.8254,8.6538,1.9968,17.261999,1.0742,9.8522,10.449
5.624,0.06349,0.06504,-12.683,-10.837,-5.0732,-4.8309,1.877,-4.9431,-12.683,-10.837,-8.867,1.9048,13.27,5.7778,6.7308,1.9968,9.533,9.6051,8.867,11.41
1.8325,-2.7937,0.06504,-16.584999,-17.733999,-6.0488,-2.8986,-0.06472,-4.9431,-16.584999,-17.733999,-8.867,6.6667,17.079,5.7778,4.8077,1.9968,8.5668,5.8136,6.8966,13.333
-1.9589,-0.88889,1.0407,-14.634,-16.749001,-5.0732,-1.9324,-7.8317,-4.9431,-14.634,-16.749001,-7.8818,7.619,19.937,3.873,3.8462,1.0306,-1.095,7.7093,5.9113,14.295
-1.0111,1.9683,2.9919,-14.634,-8.867,-8.0,0.0,-5.89,-2.0163,-14.634,-8.867,-5.9113,8.5714,19.937,3.873,5.7692,2.963,-1.095,2.0221,5.9113,15.256
-1.0111,6.7302,4.9431,-14.634,-3.9409,-8.9756,-1.9324,-3.9482,4.813,-14.634,-3.9409,-1.9704,9.5238,18.983999,2.9206,8.6538,4.8953,2.7697,-7.4566,5.9113,14.295
-1.9589,5.7778,4.9431,-19.511999,-4.9261,-3.122,0.96618,-11.715,3.8374,-19.511999,-4.9261,-0.98522,5.7143,12.317,0.06349,5.7692,1.9968,-2.0612,-0.82148,0.0,10.449
-2.9068,1.9683,2.9919,-17.561001,-7.8818,-5.0732,1.9324,-6.8608,2.8618,-17.561001,-7.8818,-1.9704,0.95238,-0.06349,-3.746,0.0,-1.868,-2.0612,10.553,-3.9409,-2.0513
0.88468,4.8254,8.8455,-2.9268,0.98522,0.78049,8.6957,-1.0356,6.7642,-2.9268,0.98522,5.9113,-0.95238,-6.7302,-2.7937,0.0,0.06441,-1.095,12.449,-1.9704,-8.7821
7.5197,10.54,15.675,7.8049,8.867,12.488,16.424999,6.7314,11.642,7.8049,8.867,15.764,-3.8095,-15.302,0.06349,2.8846,1.9968,6.6345,10.553,-1.9704,-13.59
13.207,15.302,23.48,14.634,15.764,18.341,25.121,24.207001,13.593,14.634,15.764,22.66,-5.7143,-22.921,2.9206,6.7308,5.8615,18.229,5.8136,0.0,-16.474001
19.841999,19.111,28.358,19.511999,18.719,24.195,26.087,31.003,16.52,19.511999,18.719,28.570999,-9.5238,-29.587,6.7302,8.6538,6.8277,20.160999,7.7093,-0.98522,-14.551
19.841999,16.254,24.455,17.561001,12.808,25.171,20.290001,21.294001,13.593,17.561001,12.808,26.601,-14.286,-30.540001,4.8254,6.7308,2.963,15.33,1.0742,-2.9557,-10.705
20.790001,14.349,20.552999,17.561001,14.778,28.098,18.357,12.557,8.7154,17.561001,14.778,25.615999,-11.429,-16.254,5.7778,8.6538,2.963,13.398,2.97,4.9261,-4.9359
18.893999,13.397,16.65,13.659,7.8818,23.219999,18.357,15.469,2.8618,13.659,7.8818,21.674999,-10.476,-1.0159,4.8254,9.6154,1.9968,16.296,2.97,6.8966,1.7949
13.207,9.5873,10.797,4.878,3.9409,15.415,9.6618,11.586,0.91057,4.878,3.9409,14.778,-9.5238,10.413,1.9683,7.6923,-0.90177,15.33,2.97,4.9261,11.41
6.5719,3.873,2.9919,0.0,-6.8966,8.5854,0.96618,10.615,-2.9919,0.0,-6.8966,5.9113,-6.6667,17.079,-0.88889,4.8077,-3.8003,7.6006,8.6572,0.98522,14.295
-1.0111,-1.8413,-5.7886,2.9268,-3.9409,4.6829,-1.9324,5.7605,-4.9431,2.9268,-3.9409,0.0,-4.7619,17.079,-5.6508,-0.96154,-7.6651,2.7697,3.9179,-0.98522,12.372
