C3,C4,Cz,F1,F2,F3,F4,F7,F8,Fp1,Fp2,Fz,O1,O2,P3,P4,Pz,T3,T4,T5,T6
-15.229,-11.365,-19.417,-26.471001,-39.409,-35.942001,-36.893002,-16.57,-36.162998,-26.471001,-39.409,-35.293999,-17.225,-8.6349,-18.983999,-1.9231,-17.327,-15.513,-18.032,-16.667,-1.095
-18.073,-17.079,-19.417,-27.451,-40.394001,-26.280001,-40.777,-15.599,-41.041,-27.451,-40.394001,-38.235001,-17.225,-11.492,-17.079,-3.8462,-14.428,-8.7821,-21.841,-14.706,-3.0274
-17.125,-16.127001,-16.504999,-22.549,-37.438,-18.551001,-36.893002,-10.744,-38.113998,-22.549,-37.438,-32.353001,-15.311,-11.492,-13.27,-1.9231,-10.564,-3.0128,-20.889,-10.784,-2.0612
-17.125,-18.983999,-15.534,-19.608,-35.467999,-25.313999,-33.980999,-8.8026,-36.162998,-19.608,-35.467999,-27.451,-15.311,-11.492,-16.127001,-3.8462,-10.564,-2.0513,-19.937,-10.784,-1.095
-15.229,-20.889,-18.447001,-20.587999,-32.512001,-16.618,-33.980999,-4.9191,-34.210999,-20.587999,-32.512001,-23.528999,-12.44,-10.54,-18.032,-6.7308,-13.462,0.83333,-19.937,-9.8039,-2.0612
-12.385,-21.841,-19.417,-13.725,-30.542,-8.8889,-30.097,0.90615,-32.259998,-13.725,-30.542,-16.667,-8.6124,-10.54,-16.127001,-9.6154,-18.292999,2.7564,-18.032,-7.8431,-5.9259
-8.594,-21.841,-15.534,-3.9216,-26.601,-5.0242,-26.214001,5.7605,-30.309,-3.9216,-26.601,-9.8039,-5.7416,-11.492,-13.27,-13.462,-22.158001,6.6026,-20.889,-4.902,-11.723
-1.9589,-16.127001,-9.7087,4.902,-13.793,8.5024,-21.358999,11.586,-25.431,4.902,-13.793,0.98039,-3.8278,-11.492,-9.4603,-16.346001,-22.158001,11.41,-18.032,-0.98039,-15.588
3.7283,-12.317,-6.7961,12.745,-4.9261,16.232,-15.534,14.498,-22.504,12.745,-4.9261,7.8431,-4.7847,-15.302,-7.5556,-21.153999,-24.09,13.333,-17.079,-0.98039,-21.385
8.4676,-11.365,-1.9417,22.549,-7.8818,22.995001,-14.563,16.440001,-20.552999,22.549,-7.8818,9.8039,-6.6986,-20.063,-7.5556,-26.923,-24.09,14.295,-16.127001,-0.98039,-28.148001
12.259,-9.4603,2.9126,27.451,-10.837,23.961,-14.563,19.353001,-16.65,27.451,-10.837,11.765,-6.6986,-21.016001,-5.6508,-27.885,-19.259001,15.256,-17.079,-1.9608,-30.080999
19.841999,-3.746,10.68,22.549,-8.867,28.792,-6.7961,23.236,-13.724,22.549,-8.867,14.706,-2.8708,-21.968,-0.88889,-25.962,-11.53,14.295,-17.079,0.0,-28.148001
26.476999,-1.8413,15.534,23.528999,-4.9261,32.657001,-5.8252,24.207001,-6.8943,23.528999,-4.9261,16.667,-2.8708,-21.968,2.9206,-24.038,-7.6651,18.141001,-10.413,0.98039,-22.351
30.268999,-2.7937,16.504999,14.706,0.98522,31.691,-8.7379,23.236,-2.9919,14.706,0.98522,15.686,-4.7847,-17.205999,4.8254,-21.153999,-4.7665,22.948999,-5.6508,1.9608,-18.486
28.372999,-4.6984,14.563,13.725,-4.9261,31.691,-5.8252,24.207001,-6.8943,13.725,-4.9261,8.8235,-6.6986,-13.397,2.9206,-19.231001,-4.7665,22.948999,-12.317,0.98039,-16.554001
27.424999,-5.6508,14.563,11.765,-9.8522,33.623001,-5.8252,25.177999,-6.8943,11.765,-9.8522,4.902,-5.7416,-6.7302,2.9206,-17.308001,-5.7327,20.063999,-14.222,1.9608,-12.689
25.528999,-7.5556,12.621,6.8627,-23.645,30.725,-7.767,21.294001,-2.9919,6.8627,-23.645,2.9412,-1.9139,-1.9683,3.873,-13.462,-5.7327,18.141001,-10.413,3.9216,-9.7907
19.841999,-6.6032,7.767,6.8627,-21.674999,19.129999,-7.767,14.498,-2.9919,6.8627,-21.674999,-1.9608,1.9139,1.8413,5.7778,-10.577,-7.6651,15.256,-9.4603,6.8627,-6.8921
13.207,-5.6508,3.8835,6.8627,-11.823,11.401,-9.7087,6.7314,-2.9919,6.8627,-11.823,-5.8824,2.8708,3.746,9.5873,-9.6154,-9.5974,11.41,-8.5079,9.8039,-5.9259
7.5197,-5.6508,-0.97087,4.902,-13.793,7.5362,-8.7379,1.877,-0.06504,4.902,-13.793,-4.902,2.8708,1.8413,8.6349,-7.6923,-10.564,9.4872,-7.5556,11.765,-6.8921
0.88468,-1.8413,-5.8252,4.902,0.98522,0.77295,-1.9417,-2.9773,5.7886,4.902,0.98522,0.98039,1.9139,-3.873,5.7778,-7.6923,-13.462,9.4872,-3.746,11.765,-8.8245
-3.8547,2.9206,-2.9126,-3.9216,17.733999,-5.0242,16.504999,-5.89,16.52,-3.9216,17.733999,10.784,-0.95694,-9.5873,3.873,-10.577,-13.462,6.6026,1.0159,10.784,-13.655
-5.7504,12.444,3.8835,12.745,28.570999,-3.0918,33.009998,-5.89,27.252001,12.745,28.570999,17.646999,-1.9139,-15.302,2.9206,-14.423,-9.5974,3.7179,1.0159,8.8235,-22.351
-3.8547,21.016001,8.7379,15.686,35.467999,-4.058,37.863998,-1.0356,35.056999,15.686,35.467999,18.627001,-1.9139,-19.111,3.873,-17.308001,-6.6989,2.7564,6.7302,6.8627,-31.047001
2.7804,24.825001,11.65,18.627001,31.527,0.77295,40.777,4.7896,37.984001,18.627001,31.527,18.627001,-4.7847,-23.872999,6.7302,-21.153999,-6.6989,9.4872,13.397,7.8431,-33.945
9.4155,25.778,14.563,21.569,30.542,8.5024,39.806,11.586,35.056999,21.569,30.542,17.646999,-8.6124,-27.683001,7.6825,-24.038,-6.6989,21.025999,11.492,9.8039,-33.945
17.945999,27.683001,16.504999,16.667,29.556999,7.5362,47.573002,18.382,33.105999,16.667,29.556999,21.569,-11.483,-26.73,9.5873,-21.153999,-2.8341,27.756001,13.397,11.765,-29.114
22.686001,29.587,17.476,17.646999,33.498001,18.164,48.543999,23.236,32.130001,17.646999,33.498001,26.471001,-11.483,-24.825001,12.444,-16.346001,0.06441,26.795,14.349,10.784,-23.316999
24.580999,28.635,20.388,17.646999,39.409,24.927999,45.631001,24.207001,30.179001,17.646999,39.409,30.392,-10.526,-20.063,13.397,-9.6154,2.963,23.91,17.205999,9.8039,-13.655
22.686001,25.778,17.476,12.745,34.483002,20.097,36.893002,20.323999,26.275999,12.745,34.483002,31.372999,-6.6986,-13.397,12.444,-2.8846,4.8953,21.025999,18.159,7.8431,-4.9597
18.893999,20.063,11.65,12.745,28.570999,16.232,27.184,16.440001,19.447001,12.745,28.570999,26.471001,-1.9139,-8.6349,13.397,-0.96154,3.9291,18.141001,13.397,6.8627,-2.0612
15.103,9.5873,9.7087,4.902,12.808,11.401,20.388,11.586,11.642,4.902,12.808,19.608,0.95694,-5.7778,15.302,-4.8077,2.963,12.372,9.5873,6.8627,-3.0274
13.207,0.06349,9.7087,0.98039,11.823,7.5362,9.7087,6.7314,1.8862,0.98039,11.823,15.686,4.7847,-4.8254,17.205999,-8.6538,1.9968,7.5641,-0.88889,8.8235,-5.9259
11.311,-6.6032,10.68,4.902,10.837,10.435,-3.8835,1.877,-2.9919,4.902,10.837,11.765,8.6124,-6.7302,18.159,-12.5,1.9968,4.6795,-9.4603,11.765,-9.7907
9.4155,-11.365,11.65,0.98039,6.8966,7.5362,-7.767,-2.9773,-3.9675,0.98039,6.8966,10.784,9.5694,-8.6349,15.302,-19.231001,1.0306,5.641,-10.413,12.745,-13.655
6.5719,-15.175,7.767,-7.8431,1.9704,-5.9903,-8.7379,-9.7735,-4.9431,-7.8431,1.9704,6.8627,6.6986,-12.444,8.6349,-24.038,-2.8341,6.6026,-13.27,10.784,-21.385
1.8325,-12.317,2.9126,-13.725,-1.9704,-7.9227,-14.563,-13.657,-3.9675,-13.725,-1.9704,1.9608,2.8708,-18.159,6.7302,-27.885,-4.7665,2.7564,-10.413,7.8431,-27.181999
-0.06319,-5.6508,2.9126,-18.627001,-3.9409,-11.787,-12.621,-14.628,0.91057,-18.627001,-3.9409,0.98039,0.95694,-18.159,6.7302,-26.923,-3.8003,-0.12821,-8.5079,5.8824,-27.181999
-2.9068,-1.8413,0.0,-25.49,-3.9409,-19.517,-4.8544,-14.628,5.7886,-25.49,-3.9409,-0.98039,-2.8708,-19.111,4.8254,-25.0,-3.8003,-2.0513,-4.6984,2.9412,-26.216
-6.6983,-1.8413,-3.8835,-24.51,-6.8966,-23.382,-2.9126,-14.628,6.7642,-24.51,-6.8966,-3.9216,-5.7416,-18.159,5.7778,-22.115,-6.6989,-2.0513,2.9206,0.98039,-22.351
-9.5419,-2.7937,-5.8252,-22.549,-9.8522,-28.212999,-6.7961,-13.657,6.7642,-22.549,-9.8522,-6.8627,-5.7416,-13.397,8.6349,-14.423,-6.6989,-3.0128,6.7302,1.9608,-15.588
-12.385,-3.746,-7.767,-25.49,-6.8966,-26.280001,-6.7961,-12.686,3.8374,-25.49,-6.8966,-8.8235,-1.9139,-8.6349,8.6349,-8.6538,-4.7665,-3.0128,7.6825,3.9216,-7.8583
-15.229,-5.6508,-13.592,-26.471001,-8.867,-14.686,-11.65,-11.715,1.8862,-26.471001,-8.867,-13.725,0.0,-4.8254,6.7302,-3.8462,-2.8341,-6.859,5.7778,3.9216,-0.12882
-16.177,-12.317,-17.476,-30.392,-16.749001,-12.754,-18.447001,-13.657,-0.06504,-30.392,-16.749001,-18.627001,0.0,-0.06349,4.8254,0.0,-1.868,-10.705,3.873,2.9412,5.6683
-16.177,-23.746,-21.358999,-32.353001,-22.66,-19.517,-31.068001,-16.57,-5.9187,-32.353001,-22.66,-25.49,0.95694,2.7937,3.873,-3.8462,-3.8003,-9.7436,3.873,6.8627,6.6345
-15.229,-33.27,-25.243,-38.235001,-28.570999,-29.179001,-33.009998,-17.540001,-7.8699,-38.235001,-28.570999,-31.372999,3.8278,2.7937,5.7778,-10.577,-5.7327,-7.8205,-1.8413,10.784,3.7359
-15.229,-38.032001,-26.214001,-49.02,-26.601,-28.212999,-28.155001,-20.452999,-8.8455,-49.02,-26.601,-34.313999,6.6986,1.8413,7.6825,-17.308001,-7.6651,-10.705,-11.365,12.745,1.8035
-14.281,-34.222,-22.33,-38.235001,-28.570999,-27.246,-30.097,-20.452999,-10.797,-38.235001,-28.570999,-32.353001,11.483,3.746,11.492,-18.268999,-8.6312,-5.8974,-12.317,16.667,0.83736
-14.281,-25.650999,-20.388,-32.353001,-33.498001,-29.179001,-26.214001,-19.482,-13.724,-32.353001,-33.498001,-32.353001,12.44,4.6984,12.444,-17.308001,-8.6312,-0.12821,-11.365,17.646999,-1.095
-12.385,-19.937,-16.504999,-32.353001,-30.542,-29.179001,-26.214001,-20.452999,-13.724,-32.353001,-30.542,-33.333,12.44,4.6984,13.397,-13.462,-5.7327,-3.0128,-11.365,17.646999,-2.0612
-7.6461,-14.222,-7.767,-28.431,-28.570999,-29.179001,-30.097,-20.452999,-10.797,-28.431,-28.570999,-29.412001,14.354,6.6032,17.205999,-3.8462,2.963,-3.0128,-5.6508,16.667,3.7359
-1.9589,-4.6984,0.97087,-24.51,-26.601,-24.348,-23.301001,-17.540001,-3.9675,-24.51,-26.601,-21.569,17.225,10.413,23.872999,7.6923,12.625,-3.9744,2.9206,15.686,9.533
1.8325,2.9206,5.8252,-23.528999,-18.719,-16.618,-13.592,-14.628,0.91057,-23.528999,-18.719,-14.706,19.139,11.365,28.635,18.268999,20.354,-4.9359,7.6825,14.706,14.364
4.6761,6.7302,9.7087,-23.528999,-17.733999,-7.9227,-10.68,-10.744,3.8374,-23.528999,-17.733999,-14.706,19.139,13.27,26.73,26.923,25.184999,-3.9744,11.492,12.745,17.261999
9.4155,11.492,16.504999,-21.569,-20.690001,2.7053,-7.767,-5.89,6.7642,-21.569,-20.690001,-13.725,18.181999,11.365,22.921,32.692001,29.049999,-1.0897,13.397,9.8039,16.296
9.4155,16.254,18.447001,-11.765,-25.615999,2.7053,-3.8835,-2.9773,12.618,-11.765,-25.615999,-12.745,17.225,8.5079,21.016001,30.768999,30.016001,-1.0897,16.254,7.8431,14.364
5.624,14.349,11.65,-10.784,-21.674999,-5.0242,-0.97087,-4.9191,17.496,-10.784,-21.674999,-14.706,14.354,7.5556,17.205999,23.077,27.118,-1.0897,20.063,5.8824,11.465
0.88468,9.5873,2.9126,-17.646999,-18.719,-7.9227,0.0,-7.8317,19.447001,-17.646999,-18.719,-17.646999,11.483,6.6032,14.349,16.346001,21.32,0.83333,23.872999,4.902,11.465
-2.9068,4.8254,0.0,-18.627001,-18.719,-13.72,-6.7961,-10.744,20.423,-18.627001,-18.719,-21.569,10.526,3.746,10.54,10.577,14.557,-1.0897,22.921,3.9216,11.465
-5.7504,1.0159,2.9126,-18.627001,-18.719,-16.618,-2.9126,-12.686,17.496,-18.627001,-18.719,-22.549,5.7416,4.6984,4.8254,8.6538,10.692,-5.8974,17.205999,2.9412,11.465
-6.6983,-0.88889,3.8835,-16.667,-11.823,-8.8889,1.9417,-11.715,17.496,-16.667,-11.823,-20.587999,2.8708,8.5079,1.0159,8.6538,8.7601,-7.8205,18.159,0.0,13.398
-10.49,-4.6984,-4.8544,-14.706,-9.8522,-8.8889,-0.97087,-11.715,19.447001,-14.706,-9.8522,-20.587999,-1.9139,5.6508,-5.6508,1.9231,2.963,-10.705,18.159,-5.8824,10.499
-12.385,-8.5079,-9.7087,-15.686,-2.9557,-11.787,0.0,-10.744,22.374001,-15.686,-2.9557,-17.646999,-6.6986,1.8413,-12.317,-4.8077,-3.8003,-10.705,15.302,-8.8235,4.7021
-14.281,-11.365,-10.68,-4.902,-5.9113,-10.821,-1.9417,-4.9191,20.423,-4.902,-5.9113,-15.686,-9.5694,-1.0159,-18.032,-7.6923,-6.6989,-8.7821,12.444,-10.784,-0.12882
-17.125,-12.317,-12.621,0.98039,-2.9557,-10.821,2.9126,-2.9773,21.398001,0.98039,-2.9557,-17.646999,-11.483,-1.0159,-18.983999,-5.7692,-6.6989,-11.667,11.492,-12.745,-2.0612
-16.177,-11.365,-8.7379,0.98039,2.9557,-9.8551,5.8252,-4.9191,25.301001,0.98039,2.9557,-16.667,-11.483,1.8413,-18.032,0.0,-5.7327,-12.628,15.302,-14.706,1.8035
-15.229,-9.4603,-6.7961,2.9412,0.98522,-12.754,0.0,-2.9773,25.301001,2.9412,0.98522,-15.686,-5.7416,1.8413,-15.175,5.7692,-2.8341,-7.8205,19.111,-13.725,2.7697
-14.281,-5.6508,-8.7379,6.8627,9.8522,-12.754,3.8835,-3.9482,28.228001,6.8627,9.8522,-12.745,-1.9139,0.88889,-12.317,7.6923,-0.90177,-7.8205,17.205999,-11.765,0.83736
-16.177,-4.6984,-10.68,12.745,11.823,-3.0918,7.767,-2.0065,27.252001,12.745,11.823,-10.784,-0.95694,-0.06349,-12.317,9.6154,1.0306,-8.7821,17.205999,-12.745,1.8035
-16.177,-4.6984,-16.504999,10.784,1.9704,-1.1594,3.8835,2.8479,22.374001,10.784,1.9704,-9.8039,-3.8278,-1.9683,-15.175,10.577,-0.90177,-5.8974,19.111,-13.725,2.7697
-17.125,-3.746,-23.301001,7.8431,5.9113,-1.1594,-2.9126,3.8188,24.325001,7.8431,5.9113,-8.8235,-8.6124,-6.7302,-16.127001,6.7308,-5.7327,-6.859,21.016001,-16.667,3.7359
-16.177,-5.6508,-26.214001,13.725,13.793,-7.9227,2.9126,0.90615,31.153999,13.725,13.793,-4.902,-11.483,-13.397,-18.032,-0.96154,-10.564,-8.7821,25.778,-17.646999,0.83736
-17.125,-11.365,-30.097,16.667,16.749001,-8.8889,9.7087,-0.06472,35.056999,16.667,16.749001,-1.9608,-13.397,-16.254,-19.937,-7.6923,-16.361,-7.8205,29.587,-17.646999,-3.0274
-19.021,-14.222,-31.068001,20.587999,15.764,-0.19324,6.7961,-0.06472,36.033001,20.587999,15.764,-4.902,-15.311,-15.302,-18.983999,-7.6923,-19.259001,-6.859,32.444,-16.667,-2.0612
-19.021,-15.175,-26.214001,27.451,15.764,1.7391,0.0,0.90615,36.033001,27.451,15.764,-7.8431,-15.311,-8.6349,-18.032,-6.7308,-18.292999,-8.7821,25.778,-15.686,-0.12882
-19.021,-13.27,-20.388,28.431,15.764,-5.0242,-2.9126,0.90615,34.081001,28.431,15.764,-7.8431,-12.44,-1.9683,-17.079,-6.7308,-14.428,-9.7436,22.921,-13.725,2.7697
-17.125,-10.413,-17.476,21.569,6.8966,-3.0918,-5.8252,2.8479,29.202999,21.569,6.8966,-3.9216,-8.6124,-0.06349,-12.317,-10.577,-11.53,-12.628,24.825001,-8.8235,0.83736
-14.281,-14.222,-16.504999,21.569,5.9113,-4.058,-4.8544,5.7605,25.301001,21.569,5.9113,-0.98039,-5.7416,-1.9683,-7.5556,-20.191999,-11.53,-5.8974,18.159,-3.9216,-5.9259
-16.177,-25.650999,-25.243,9.8039,8.867,-6.9565,-9.7087,3.8188,21.398001,9.8039,8.867,-3.9216,-6.6986,-3.873,-10.413,-26.923,-17.327,-2.0513,15.302,-4.902,-9.7907
-19.021,-27.556,-33.009998,11.765,2.9557,-0.19324,-12.621,1.877,19.447001,11.765,2.9557,-6.8627,-8.6124,-1.9683,-15.175,-21.153999,-20.225,-3.9744,17.205999,-7.8431,-4.9597
-18.073,-26.603001,-35.922001,11.765,0.98522,7.5362,-10.68,0.90615,21.398001,11.765,0.98522,-6.8627,-9.5694,-1.0159,-18.032,-13.462,-20.225,-8.7821,22.921,-9.8039,1.8035
-18.073,-23.746,-38.834999,13.725,7.8818,0.77295,-5.8252,0.90615,26.275999,13.725,7.8818,-5.8824,-11.483,0.88889,-20.889,-2.8846,-19.259001,-10.705,33.396999,-12.745,7.6006
-16.177,-9.4603,-33.980999,17.646999,9.8522,-4.058,8.7379,2.8479,31.153999,17.646999,9.8522,4.902,-12.44,0.88889,-19.937,7.6923,-17.327,-8.7821,39.111,-14.706,10.499
-12.385,4.8254,-19.417,30.392,24.631001,11.401,21.358999,7.7023,33.105999,30.392,24.631001,17.646999,-13.397,-1.9683,-17.079,13.462,-12.496,-6.859,39.111,-16.667,9.533
-5.7504,13.397,-1.9417,40.195999,35.467999,28.792,27.184,14.498,33.105999,40.195999,35.467999,25.49,-12.44,-0.06349,-12.317,17.308001,-5.7327,1.7949,38.159,-13.725,7.6006
-1.0111,19.111,6.7961,38.235001,40.394001,27.826,33.009998,19.353001,30.179001,38.235001,40.394001,30.392,-10.526,-1.0159,-10.413,19.231001,-0.90177,9.4872,35.301998,-10.784,4.7021
-0.06319,24.825001,7.767,34.313999,40.394001,23.961,37.863998,20.323999,26.275999,34.313999,40.394001,30.392,-7.6555,0.88889,-9.4603,20.191999,1.0306,9.4872,30.540001,-8.8235,7.6006
2.7804,30.540001,9.7087,29.412001,38.424,21.063,41.748001,20.323999,22.374001,29.412001,38.424,30.392,-4.7847,5.6508,-8.5079,23.077,3.9291,12.372,23.872999,-6.8627,13.398
8.4676,33.396999,13.592,32.353001,38.424,23.961,39.806,20.323999,17.496,32.353001,38.424,33.333,-1.9139,8.5079,-9.4603,24.038,5.8615,18.141001,19.111,-5.8824,14.364
7.5197,30.540001,12.621,38.235001,38.424,22.995001,33.980999,22.264999,9.6911,38.235001,38.424,32.353001,-1.9139,6.6032,-11.365,22.115,3.9291,16.218,13.397,-5.8824,11.465
5.624,21.968,9.7087,36.275002,34.483002,22.028999,25.243,22.264999,-2.0163,36.275002,34.483002,27.451,-4.7847,4.6984,-12.317,16.346001,1.0306,14.295,3.873,-6.8627,9.533
5.624,14.349,10.68,33.333,28.570999,22.995001,14.563,22.264999,-10.797,33.333,28.570999,25.49,-5.7416,1.8413,-11.365,9.6154,-0.90177,13.333,-6.6032,-6.8627,7.6006
3.7283,10.54,10.68,38.235001,31.527,26.860001,10.68,22.264999,-12.748,38.235001,31.527,28.431,-7.6555,-3.873,-10.413,-0.96154,-6.6989,9.4872,-12.317,-8.8235,0.83736
1.8325,2.9206,4.8544,42.157001,26.601,30.725,7.767,22.264999,-10.797,42.157001,26.601,29.412001,-10.526,-6.7302,-15.175,-11.538,-13.462,5.641,-12.317,-9.8039,-3.9936
-1.0111,-10.413,-7.767,40.195999,23.645,23.961,3.8835,20.323999,-12.748,40.195999,23.645,23.528999,-13.397,-10.54,-20.889,-23.077,-23.124001,2.7564,-17.079,-10.784,-10.757
-2.9068,-23.746,-19.417,30.392,23.645,9.4686,-4.8544,15.469,-16.65,30.392,23.645,14.706,-14.354,-13.397,-18.983999,-32.692001,-31.82,-0.12821,-21.841,-10.784,-19.452
-5.7504,-27.556,-24.271999,25.49,16.749001,10.435,-9.7087,11.586,-17.625999,25.49,16.749001,5.8824,-14.354,-17.205999,-16.127001,-34.615002,-31.82,-3.0128,-21.841,-9.8039,-26.216
-9.5419,-21.841,-23.301001,19.608,15.764,8.5024,-10.68,8.6731,-18.601999,19.608,15.764,2.9412,-15.311,-20.063,-16.127001,-29.808001,-26.989,2.7564,-16.127001,-9.8039,-26.216
-12.385,-11.365,-17.476,6.8627,15.764,-6.9565,-5.8252,5.7605,-16.65,6.8627,15.764,2.9412,-13.397,-18.159,-16.127001,-18.268999,-21.191999,5.641,-14.222,-6.8627,-17.52
-13.333,-0.88889,-10.68,1.9608,10.837,-12.754,7.767,2.8479,-16.65,1.9608,10.837,2.9412,-11.483,-18.159,-14.222,-7.6923,-15.395,4.6795,-16.127001,-4.902,-8.8245
-10.49,10.54,-5.8252,0.0,3.9409,-11.787,15.534,1.877,-19.577,0.0,3.9409,4.902,-8.6124,-12.444,-10.413,3.8462,-8.6312,5.641,-13.27,-3.9216,-1.095
-5.7504,22.921,2.9126,0.98039,5.9113,-7.9227,19.417,0.90615,-19.577,0.98039,5.9113,6.8627,-5.7416,-1.9683,-5.6508,17.308001,1.9968,5.641,-6.6032,-3.9216,9.533
0.88468,31.492001,13.592,-3.9216,8.867,-5.9903,21.358999,1.877,-19.577,-3.9216,8.867,12.745,-2.8708,5.6508,-1.8413,29.808001,11.659,4.6795,-3.746,-2.9412,20.160999
8.4676,38.159,25.243,-1.9608,11.823,2.7053,28.155001,3.8188,-17.625999,-1.9608,11.823,23.528999,0.95694,12.317,2.9206,38.462002,18.422001,4.6795,-3.746,0.0,24.992001
16.051001,41.015999,34.951,7.8431,19.704,9.4686,30.097,4.7896,-16.65,7.8431,19.704,29.412001,5.7416,17.079,10.54,42.307999,24.219,6.6026,-7.5556,3.9216,29.823
23.632999,41.015999,41.748001,14.706,18.719,14.3,30.097,5.7605,-12.748,14.706,18.719,33.333,13.397,18.983999,19.111,40.384998,30.016001,7.5641,-6.6032,10.784,29.823
25.528999,36.254002,39.806,11.765,10.837,11.401,28.155001,3.8188,-13.724,11.765,10.837,32.353001,17.225,18.983999,22.921,35.577,30.982,4.6795,-9.4603,14.706,25.958
20.790001,26.73,31.068001,1.9608,2.9557,10.435,23.301001,-0.06472,-15.675,1.9608,2.9557,26.471001,17.225,15.175,22.921,25.962,24.219,6.6026,-13.27,16.667,18.229
18.893999,16.254,23.301001,-9.8039,-3.9409,-5.0242,13.592,-0.06472,-16.65,-9.8039,-3.9409,17.646999,15.311,10.413,21.968,12.5,15.523,11.41,-14.222,16.667,9.533
18.893999,4.8254,15.534,-18.627001,-16.749001,-1.1594,0.97087,-1.0356,-19.577,-18.627001,-16.749001,7.8431,15.311,5.6508,21.016001,0.0,8.7601,10.449,-14.222,17.646999,0.83736
12.259,-8.5079,2.9126,-24.51,-24.631001,-1.1594,-14.563,-4.9191,-24.455,-24.51,-24.631001,-7.8431,16.268,-2.9206,18.159,-13.462,0.06441,8.5256,-17.079,16.667,-11.723
6.5719,-17.079,-3.8835,-27.451,-30.542,-10.821,-30.097,-10.744,-29.333,-27.451,-30.542,-20.587999,17.225,-10.54,16.254,-18.268999,-3.8003,4.6795,-16.127001,16.667,-18.486
3.7283,-17.079,-0.97087,-34.313999,-35.467999,-12.754,-33.980999,-12.686,-30.309,-34.313999,-35.467999,-23.528999,18.181999,-9.5873,16.254,-11.538,3.9291,3.7179,-19.937,15.686,-13.655
7.5197,-4.6984,9.7087,-31.372999,-30.542,-10.821,-20.388,-10.744,-25.431,-31.372999,-30.542,-13.725,21.052999,-2.9206,20.063,1.9231,19.388,1.7949,-17.079,14.706,-3.9936
12.259,6.7302,19.417,-19.608,-19.704,-5.9903,-10.68,-7.8317,-17.625999,-19.608,-19.704,-0.98039,24.879999,5.6508,25.778,11.538,33.881001,-1.0897,-8.5079,12.745,5.6683
17.945999,15.302,27.184,-13.725,-6.8966,5.6039,5.8252,-2.9773,-9.8211,-13.725,-6.8966,11.765,27.750999,13.27,29.587,16.346001,43.542999,-4.9359,-6.6032,13.725,11.465
22.686001,26.73,36.893002,0.0,5.9113,18.164,20.388,1.877,-0.06504,0.0,5.9113,24.51,29.665001,17.079,29.587,20.191999,47.407001,0.83333,-1.8413,14.706,11.465
26.476999,37.206001,42.717999,12.745,12.808,23.961,32.039001,4.7896,9.6911,12.745,12.808,33.333,28.708,18.983999,27.683001,24.038,47.407001,4.6795,5.7778,14.706,10.499
26.476999,39.111,39.806,14.706,15.764,28.792,36.893002,3.8188,12.618,14.706,15.764,34.313999,26.794001,20.889,23.872999,25.962,44.508999,2.7564,8.6349,13.725,11.465
25.528999,33.396999,30.097,9.8039,12.808,25.893999,23.301001,-0.06472,10.667,9.8039,12.808,26.471001,22.966999,22.794001,23.872999,24.038,36.778999,4.6795,9.5873,15.686,10.499
22.686001,23.872999,17.476,0.98039,5.9113,16.232,18.447001,-4.9191,7.7398,0.98039,5.9113,17.646999,17.225,19.937,22.921,16.346001,22.287001,2.7564,7.6825,17.646999,6.6345
20.790001,12.444,3.8835,-12.745,2.9557,10.435,10.68,-7.8317,4.813,-12.745,2.9557,8.8235,9.5694,12.317,19.111,5.7692,7.7939,3.7179,5.7778,15.686,-0.12882
20.790001,2.9206,0.97087,-7.8431,-3.9409,4.6377,0.0,-5.89,-0.06504,-7.8431,-3.9409,-0.98039,5.7416,5.6508,18.159,1.9231,-0.90177,7.5641,4.8254,14.706,-3.9936
21.738001,-2.7937,3.8835,-7.8431,-15.764,-7.9227,-8.7379,-3.9482,-7.8699,-7.8431,-15.764,-7.8431,8.6124,-0.06349,21.016001,1.9231,-0.90177,10.449,-1.8413,16.667,-5.9259
21.738001,-5.6508,4.8544,-11.765,-19.704,-4.058,-10.68,-0.06472,-12.748,-11.765,-19.704,-10.784,11.483,-2.9206,22.921,6.7308,2.963,13.333,-11.365,18.627001,-6.8921
14.155,-6.6032,2.9126,-10.784,-29.556999,-0.19324,-11.65,1.877,-14.699,-10.784,-29.556999,-13.725,11.483,-4.8254,19.111,13.462,5.8615,12.372,-11.365,17.646999,-7.8583
4.6761,-4.6984,-0.97087,-12.745,-24.631001,-7.9227,-17.476,-0.06472,-14.699,-12.745,-24.631001,-18.627001,11.483,-2.9206,15.302,21.153999,9.7262,7.5641,-7.5556,15.686,-3.9936
-1.9589,-2.7937,0.0,-10.784,-25.615999,-11.787,-18.447001,0.90615,-13.724,-10.784,-25.615999,-20.587999,13.397,2.7937,14.349,27.885,17.455999,9.4872,-6.6032,11.765,4.7021
-3.8547,-2.7937,2.9126,-5.8824,-22.66,-8.8889,-18.447001,1.877,-12.748,-5.8824,-22.66,-16.667,16.268,13.27,16.254,31.731001,25.184999,7.5641,-6.6032,9.8039,14.364
-5.7504,-2.7937,2.9126,-2.9412,-14.778,-5.9903,-21.358999,-0.06472,-10.797,-2.9412,-14.778,-12.745,21.052999,22.794001,17.205999,28.846001,27.118,0.83333,-7.5556,6.8627,18.229
-10.49,-4.6984,-0.97087,0.98039,-10.837,-5.0242,-18.447001,-2.9773,-9.8211,0.98039,-10.837,-9.8039,21.052999,30.413,12.444,27.885,25.184999,-5.8974,-6.6032,3.9216,21.127001
-15.229,-3.746,-6.7961,0.0,-10.837,-6.9565,-8.7379,-2.9773,-9.8211,0.0,-10.837,-3.9216,16.268,33.27,0.06349,23.077,17.455999,-9.7436,-6.6032,-0.98039,16.296
-13.333,0.06349,-6.7961,5.8824,-2.9557,0.77295,0.0,0.90615,-5.9187,5.8824,-2.9557,3.9216,10.526,24.698,-9.4603,10.577,5.8615,-5.8974,-8.5079,-4.902,5.6683
-6.6983,3.873,0.0,22.549,6.8966,8.5024,9.7087,5.7605,2.8618,22.549,6.8966,11.765,4.7847,18.032,-15.175,0.0,-1.868,-2.0513,-1.8413,-7.8431,-1.095
-1.0111,5.7778,4.8544,32.353001,17.733999,9.4686,17.476,10.615,13.593,32.353001,17.733999,18.627001,-4.7847,10.413,-20.889,-12.5,-11.53,-1.0897,4.8254,-13.725,-9.7907
2.7804,4.8254,3.8835,28.431,22.66,18.164,22.33,10.615,20.423,28.431,22.66,21.569,-13.397,-0.06349,-23.746,-23.077,-24.09,-3.9744,10.54,-18.627001,-18.486
0.88468,1.9683,-1.9417,21.569,13.793,22.995001,18.447001,5.7605,26.275999,21.569,13.793,18.627001,-17.225,-3.873,-23.746,-25.962,-28.921,-16.474001,19.111,-19.608,-18.486
-4.8025,0.06349,-9.7087,14.706,12.808,11.401,12.621,-3.9482,30.179001,14.706,12.808,12.745,-16.268,-2.9206,-20.889,-20.191999,-26.023001,-25.128,25.778,-17.646999,-12.689
-5.7504,1.9683,-11.65,2.9412,16.749001,-4.058,9.7087,-11.715,29.202999,2.9412,16.749001,1.9608,-8.6124,0.88889,-12.317,-7.6923,-16.361,-29.936001,28.635,-10.784,-3.9936
-5.7504,3.873,-3.8835,-1.9608,7.8818,-5.9903,5.8252,-17.540001,23.35,-1.9608,7.8818,-7.8431,0.0,3.746,1.9683,5.7692,-1.868,-30.896999,26.73,-3.9216,4.7021
-0.06319,3.873,6.7961,-2.9412,-0.98522,-4.058,1.9417,-19.482,17.496,-2.9412,-0.98522,-11.765,7.6555,5.6508,14.349,16.346001,12.625,-25.128,21.968,2.9412,10.499
9.4155,6.7302,15.534,-9.8039,-3.9409,-7.9227,0.0,-18.511,12.618,-9.8039,-3.9409,-11.765,16.268,7.5556,24.825001,25.0,28.084,-15.513,17.205999,11.765,16.296
16.997999,6.7302,26.214001,-12.745,-6.8966,-10.821,-3.8835,-16.57,8.7154,-12.745,-6.8966,-7.8431,24.879999,11.365,35.301998,29.808001,39.678001,-4.9359,15.302,20.587999,21.127001
16.051001,6.7302,25.243,-4.902,-5.9113,-10.821,-3.8835,-14.628,6.7642,-4.902,-5.9113,-2.9412,28.708,14.222,36.254002,28.846001,40.644001,3.7179,9.5873,25.49,19.195
9.4155,9.5873,17.476,0.98039,1.9704,-13.72,0.0,-10.744,4.813,0.98039,1.9704,1.9608,29.665001,13.27,32.444,25.0,37.745998,6.6026,1.0159,24.51,15.33
6.5719,11.492,17.476,0.98039,2.9557,-17.584999,5.8252,-4.9191,2.8618,0.98039,2.9557,5.8824,27.750999,15.175,27.683001,24.038,33.881001,6.6026,-3.746,19.608,16.296
2.7804,9.5873,17.476,-0.98039,-3.9409,-3.0918,8.7379,0.90615,-2.0163,-0.98039,-3.9409,5.8824,18.181999,14.222,13.397,22.115,26.150999,6.6026,-5.6508,11.765,18.229
0.88468,9.5873,13.592,8.8235,3.9409,11.401,5.8252,7.7023,-2.9919,8.8235,3.9409,4.902,5.7416,9.4603,-3.746,18.268999,12.625,3.7179,-8.5079,2.9412,17.261999
1.8325,9.5873,9.7087,9.8039,8.867,11.401,1.9417,10.615,-2.9919,9.8039,8.867,3.9216,-4.7847,5.6508,-16.127001,15.385,1.0306,0.83333,-4.6984,-4.902,15.33
3.7283,7.6825,1.9417,7.8431,2.9557,5.6039,-0.97087,11.586,0.91057,7.8431,2.9557,0.98039,-11.483,-0.06349,-19.937,6.7308,-9.5974,5.641,-0.88889,-7.8431,8.5668
1.8325,0.06349,-8.7379,7.8431,-0.98522,5.6039,-5.8252,12.557,4.813,7.8431,-0.98522,-1.9608,-13.397,-6.7302,-17.079,-6.7308,-17.327,8.5256,1.9683,-5.8824,-1.095
2.7804,-10.413,-15.534,8.8235,0.0,12.367,-1.9417,15.469,5.7886,8.8235,0.0,0.0,-10.526,-15.302,-10.413,-24.038,-20.225,9.4872,-0.88889,-1.9608,-12.689
11.311,-19.937,-14.563,9.8039,0.0,11.401,3.8835,20.323999,4.813,9.8039,0.0,5.8824,-10.526,-21.968,-2.7937,-36.537998,-16.361,15.256,-2.7937,4.902,-25.25
21.738001,-21.841,-7.767,21.569,8.867,24.927999,0.97087,25.177999,3.8374,21.569,8.867,15.686,-12.44,-25.778,5.7778,-41.346001,-9.5974,18.141001,-6.6032,8.8235,-33.945
29.320999,-18.983999,0.0,35.293999,20.690001,39.419998,7.767,29.061001,6.7642,35.293999,20.690001,26.471001,-9.5694,-31.492001,10.54,-44.230999,-3.8003,18.141001,-11.365,6.8627,-37.810001
29.320999,-17.079,1.9417,38.235001,19.704,39.419998,12.621,27.120001,10.667,38.235001,19.704,31.372999,-7.6555,-34.348999,8.6349,-43.269001,-4.7665,13.333,-10.413,1.9608,-36.844002
25.528999,-15.175,1.9417,35.293999,22.66,31.691,11.65,22.264999,11.642,35.293999,22.66,29.412001,-6.6986,-29.587,6.7302,-33.653999,-4.7665,10.449,-3.746,-1.9608,-31.047001
19.841999,-14.222,3.8835,28.431,17.733999,22.995001,10.68,15.469,12.618,28.431,17.733999,24.51,-3.8278,-21.016001,4.8254,-24.038,-3.8003,4.6795,-1.8413,-3.9216,-19.452
9.4155,-11.365,3.8835,18.627001,17.733999,11.401,8.7379,4.7896,11.642,18.627001,17.733999,18.627001,-2.8708,-10.54,1.9683,-15.385,-3.8003,-7.8205,0.06349,-6.8627,-6.8921
-1.9589,-2.7937,1.9417,12.745,16.749001,-2.1256,7.767,-4.9191,11.642,12.745,16.749001,10.784,-0.95694,1.8413,-3.746,0.0,-0.90177,-17.436001,3.873,-12.745,5.6683
-11.438,8.6349,0.97087,2.9412,17.733999,-11.787,9.7087,-10.744,10.667,2.9412,17.733999,5.8824,-1.9139,9.4603,-12.317,13.462,-2.8341,-22.243999,12.444,-18.627001,19.195
-22.812,14.349,-1.9417,10.784,16.749001,-4.058,8.7379,-14.628,10.667,10.784,16.749001,0.98039,-10.526,14.222,-27.556,19.231001,-11.53,-28.974001,18.159,-29.412001,28.857
-32.291,16.254,-7.767,21.569,16.749001,-0.19324,10.68,-14.628,9.6911,21.569,16.749001,-3.9216,-19.139,18.032,-43.745998,21.153999,-18.292999,-37.627998,15.302,-37.255001,32.721001
-34.186001,18.159,-10.68,21.569,21.674999,-0.19324,19.417,-11.715,3.8374,21.569,21.674999,-1.9608,-22.01,18.983999,-46.603001,16.346001,-22.158001,-41.473999,5.7778,-38.235001,25.958
-25.656,16.254,-11.65,21.569,21.674999,-2.1256,23.301001,-5.89,-5.9187,21.569,21.674999,2.9412,-20.096001,14.222,-39.937,5.7692,-22.158001,-35.705002,-5.6508,-31.372999,14.364
-18.073,8.6349,-15.534,18.627001,15.764,0.77295,20.388,-2.0065,-13.724,18.627001,15.764,5.8824,-19.139,1.8413,-37.078999,-6.7308,-21.191999,-25.128,-13.27,-24.51,-0.12882
-12.385,0.06349,-16.504999,10.784,1.9704,4.6377,13.592,-0.06472,-14.699,10.784,1.9704,4.902,-13.397,-9.5873,-32.317001,-17.308001,-18.292999,-16.474001,-14.222,-15.686,-12.689
-5.7504,-6.6032,-12.621,7.8431,-1.9704,5.6039,1.9417,1.877,-9.8211,7.8431,-1.9704,1.9608,0.0,-14.349,-16.127001,-22.115,-4.7665,-4.9359,-14.222,-0.98039,-18.486
4.6761,-10.413,0.97087,4.902,3.9409,9.4686,-3.8835,6.7314,-5.9187,4.902,3.9409,2.9412,14.354,-11.492,6.7302,-19.231001,14.557,6.6026,-17.079,10.784,-18.486
20.790001,-5.6508,21.358999,8.8235,8.867,21.063,2.9126,15.469,-2.0163,8.8235,8.867,10.784,25.837,-5.7778,24.825001,-9.6154,34.847,19.103001,-11.365,22.549,-10.757
31.216,0.06349,33.980999,17.646999,6.8966,33.623001,1.9417,22.264999,-1.0407,17.646999,6.8966,18.627001,33.493,0.88889,35.301998,1.9231,49.34,26.795,-5.6508,29.412001,-0.12882
35.956001,0.06349,38.834999,20.587999,0.0,31.691,1.9417,25.177999,-2.9919,20.587999,0.0,20.587999,38.278,9.4603,40.063,10.577,53.205002,28.718,-3.746,29.412001,6.6345
31.216,-4.6984,32.039001,9.8039,-0.98522,24.927999,0.0,22.264999,-2.9919,9.8039,-0.98522,13.725,33.493,14.222,35.301998,11.538,42.576,21.025999,-2.7937,22.549,8.5668
18.893999,-12.317,16.504999,7.8431,-0.98522,22.028999,-9.7087,16.440001,-2.9919,7.8431,-0.98522,2.9412,21.052999,12.317,19.111,7.6923,21.32,13.333,-1.8413,11.765,6.6345
7.5197,-15.175,-2.9126,7.8431,-4.9261,13.333,-13.592,10.615,-0.06504,7.8431,-4.9261,-3.9216,6.6986,8.5079,0.06349,-0.96154,-1.868,7.5641,-0.88889,0.98039,1.8035
-1.9589,-14.222,-20.388,4.902,-3.9409,7.5362,-8.7379,5.7605,3.8374,4.902,-3.9409,-3.9216,-4.7847,3.746,-14.222,-8.6538,-20.225,-1.0897,4.8254,-9.8039,-0.12882
-10.49,-10.413,-26.214001,-0.98039,-0.98522,-2.1256,-2.9126,-1.0356,8.7154,-0.98039,-0.98522,-3.9216,-14.354,-0.06349,-21.841,-13.462,-28.921,-9.7436,2.9206,-19.608,-0.12882
-15.229,-5.6508,-21.358999,-7.8431,2.9557,-12.754,1.9417,-7.8317,7.7398,-7.8431,2.9557,-4.902,-19.139,-2.9206,-26.603001,-16.346001,-30.853001,-14.551,-1.8413,-21.569,-0.12882
-18.073,0.06349,-19.417,-14.706,-1.9704,-16.618,3.8835,-11.715,4.813,-14.706,-1.9704,-5.8824,-20.096001,-6.7302,-25.650999,-18.268999,-31.82,-15.513,-0.88889,-22.549,-3.0274
-22.812,1.9683,-19.417,-17.646999,-1.9704,-18.551001,5.8252,-13.657,1.8862,-17.646999,-1.9704,-6.8627,-19.139,-12.444,-23.746,-21.153999,-34.717999,-18.396999,-2.7937,-22.549,-8.8245
-26.603001,-1.8413,-17.476,-21.569,-3.9409,-22.415001,3.8835,-14.628,-3.9675,-21.569,-3.9409,-6.8627,-20.096001,-18.159,-25.650999,-25.962,-34.717999,-17.436001,-7.5556,-21.569,-14.622
-24.708,-4.6984,-14.563,-21.569,-4.9261,-17.584999,-3.8835,-11.715,-8.8455,-21.569,-4.9261,-7.8431,-18.181999,-18.159,-26.603001,-25.0,-28.921,-10.705,-10.413,-18.627001,-17.52
-19.968,-5.6508,-9.7087,-17.646999,-3.9409,-20.483,-5.8252,-9.7735,-10.797,-17.646999,-3.9409,-6.8627,-14.354,-18.159,-23.746,-23.077,-21.191999,-3.9744,-10.413,-13.725,-17.52
-15.229,-9.4603,-5.8252,-20.587999,-11.823,-14.686,-9.7087,-7.8317,-11.772,-20.587999,-11.823,-6.8627,-9.5694,-18.159,-18.983999,-21.153999,-14.428,0.83333,-9.4603,-10.784,-19.452
-10.49,-11.365,-3.8835,-18.627001,-11.823,-4.058,-11.65,-2.0065,-12.748,-18.627001,-11.823,-6.8627,-4.7847,-16.254,-13.27,-18.268999,-7.6651,9.4872,-11.365,-4.902,-18.486
-6.6983,-7.5556,-1.9417,-20.587999,-17.733999,2.7053,-9.7087,2.8479,-12.748,-20.587999,-17.733999,-5.8824,-0.95694,-9.5873,-6.6032,-10.577,-3.8003,15.256,-10.413,0.0,-12.689
-1.9589,-5.6508,-1.9417,-20.587999,-14.778,6.57,-16.504999,5.7605,-13.724,-20.587999,-14.778,-7.8431,2.8708,-2.9206,-0.88889,-0.96154,-0.90177,17.179001,-8.5079,2.9412,-4.9597
0.88468,-5.6508,-5.8252,-16.667,-13.793,1.7391,-17.476,6.7314,-12.748,-16.667,-13.793,-11.765,5.7416,2.7937,3.873,5.7692,0.06441,17.179001,-8.5079,5.8824,-1.095
3.7283,-4.6984,-4.8544,-15.686,-16.749001,-5.0242,-12.621,6.7314,-11.772,-15.686,-16.749001,-12.745,9.5694,8.5079,13.397,8.6538,3.9291,15.256,-8.5079,10.784,1.8035
8.4676,-4.6984,0.0,-14.706,-21.674999,-10.821,-17.476,4.7896,-11.772,-14.706,-21.674999,-11.765,12.44,13.27,21.968,9.6154,11.659,13.333,-10.413,15.686,1.8035
12.259,-1.8413,1.9417,-19.608,-16.749001,-8.8889,-20.388,3.8188,-11.772,-19.608,-16.749001,-7.8431,12.44,11.365,21.968,6.7308,17.455999,13.333,-13.27,17.646999,0.83736
14.155,2.9206,5.8252,-14.706,-11.823,1.7391,-11.65,3.8188,-8.8455,-14.706,-11.823,0.0,14.354,7.5556,21.968,1.9231,19.388,11.41,-10.413,16.667,-0.12882
13.207,1.0159,7.767,-1.9608,-2.9557,7.5362,-4.8544,0.90615,-6.8943,-1.9608,-2.9557,1.9608,13.397,-0.06349,19.111,-2.8846,16.49,5.641,-8.5079,14.706,-3.9936
9.4155,-4.6984,4.8544,-5.8824,-2.9557,-4.058,-4.8544,-4.9191,-7.8699,-5.8824,-2.9557,-1.9608,10.526,-6.7302,13.397,-9.6154,10.692,1.7949,-9.4603,10.784,-9.7907
2.7804,-10.413,-3.8835,-8.8235,-13.793,-5.0242,-10.68,-9.7735,-9.8211,-8.8235,-13.793,-6.8627,4.7847,-8.6349,6.7302,-15.385,1.9968,-1.0897,-9.4603,7.8431,-10.757
-6.6983,-18.032,-11.65,-18.627001,-14.778,-5.9903,-15.534,-10.744,-9.8211,-18.627001,-14.778,-10.784,-0.95694,-12.444,-4.6984,-20.191999,-9.5974,-3.9744,-9.4603,2.9412,-12.689
-17.125,-23.746,-18.447001,-23.528999,-7.8818,-13.72,-17.476,-12.686,-8.8455,-23.528999,-7.8818,-14.706,-8.6124,-12.444,-18.032,-26.923,-23.124001,-6.859,-8.5079,-5.8824,-13.655
-24.708,-22.794001,-23.301001,-26.471001,-4.9261,-21.448999,-11.65,-11.715,-6.8943,-26.471001,-4.9261,-15.686,-15.311,-13.397,-28.507999,-30.768999,-33.751999,-8.7821,-5.6508,-12.745,-14.622
-29.447001,-18.032,-22.33,-24.51,-7.8818,-19.517,-8.7379,-7.8317,-6.8943,-24.51,-7.8818,-13.725,-19.139,-13.397,-33.27,-27.885,-37.617001,-7.8205,-10.413,-16.667,-13.655
-31.343,-11.365,-21.358999,-24.51,-14.778,-19.517,-7.767,-4.9191,-9.8211,-24.51,-14.778,-13.725,-22.966999,-10.54,-34.222,-20.191999,-37.617001,-5.8974,-11.365,-17.646999,-6.8921
-31.343,-7.5556,-23.301001,-19.608,-16.749001,-16.618,-14.563,-4.9191,-9.8211,-19.608,-16.749001,-18.627001,-28.708,-7.6825,-32.317001,-12.5,-39.549,-2.0513,-7.5556,-18.627001,-1.095
-26.603001,-9.4603,-24.271999,-16.667,-16.749001,-17.584999,-17.476,-3.9482,-9.8211,-16.667,-16.749001,-23.528999,-28.708,-8.6349,-27.556,-7.6923,-37.617001,0.83333,-7.5556,-16.667,2.7697
-19.968,-12.317,-24.271999,-24.51,-22.66,-24.348,-24.271999,-4.9191,-12.748,-24.51,-22.66,-27.451,-24.879999,-9.5873,-23.746,-2.8846,-31.82,1.7949,-9.4603,-11.765,1.8035
-6.6983,-11.365,-18.447001,-21.569,-22.66,-18.551001,-27.184,-2.9773,-15.675,-21.569,-22.66,-24.51,-15.311,-7.6825,-15.175,0.0,-20.225,4.6795,-14.222,-1.9608,-1.095
5.624,-7.5556,-4.8544,-22.549,-21.674999,-3.0918,-22.33,-1.0356,-17.625999,-22.549,-21.674999,-18.627001,-1.9139,-2.9206,0.06349,0.96154,-3.8003,6.6026,-13.27,8.8235,0.83736
13.207,-6.6032,7.767,-22.549,-22.66,5.6039,-18.447001,-2.0065,-18.601999,-22.549,-22.66,-13.725,9.5694,1.8413,15.302,0.96154,11.659,7.5641,-15.175,17.646999,-2.0612
19.841999,-3.746,17.476,-14.706,-20.690001,7.5362,-16.504999,-1.0356,-17.625999,-14.706,-20.690001,-5.8824,16.268,4.6984,28.635,0.96154,24.219,8.5256,-15.175,23.528999,-5.9259
25.528999,1.9683,27.184,-10.784,-11.823,6.57,-2.9126,-2.0065,-11.772,-10.784,-11.823,2.9412,22.01,6.6032,36.254002,1.9231,30.982,5.641,-9.4603,24.51,-8.8245
25.528999,4.8254,31.068001,-2.9412,-6.8966,3.6715,0.97087,-3.9482,-4.9431,-2.9412,-6.8966,8.8235,24.879999,4.6984,39.111,2.8846,33.881001,4.6795,-3.746,26.471001,-8.8245
22.686001,5.7778,28.155001,0.98039,2.9557,8.5024,2.9126,-2.9773,-1.0407,0.98039,2.9557,11.765,24.879999,5.6508,37.206001,5.7692,32.915001,1.7949,0.06349,24.51,-3.9936
18.893999,5.7778,23.301001,-4.902,1.9704,11.401,3.8835,-2.9773,1.8862,-4.902,1.9704,10.784,18.181999,7.5556,29.587,7.6923,27.118,-3.0128,4.8254,16.667,1.8035
11.311,3.873,21.358999,-4.902,-0.98522,12.367,-1.9417,-2.0065,2.8618,-4.902,-0.98522,8.8235,4.7847,6.6032,12.444,6.7308,17.455999,-4.9359,6.7302,7.8431,5.6683
-0.06319,1.9683,15.534,-7.8431,-4.9261,-0.19324,0.0,-2.9773,0.91057,-7.8431,-4.9261,2.9412,-4.7847,8.5079,-2.7937,7.6923,5.8615,-8.7821,10.54,-0.98039,11.465
-13.333,-1.8413,2.9126,-14.706,-9.8522,-12.754,-5.8252,-5.89,-2.0163,-14.706,-9.8522,-7.8431,-9.5694,6.6032,-11.365,9.6154,-3.8003,-13.59,3.873,-4.902,14.364
-19.968,-8.5079,-9.7087,-22.549,-9.8522,-24.348,-12.621,-7.8317,-4.9431,-22.549,-9.8522,-17.646999,-11.483,4.6984,-16.127001,8.6538,-8.6312,-10.705,-3.746,-5.8824,13.398
-19.021,-13.27,-18.447001,-21.569,-12.808,-28.212999,-21.358999,-8.8026,-5.9187,-21.569,-12.808,-26.471001,-11.483,1.8413,-15.175,7.6923,-9.5974,-5.8974,-4.6984,-4.902,12.432
-15.229,-15.175,-18.447001,-24.51,-15.764,-37.874001,-27.184,-9.7735,-7.8699,-24.51,-15.764,-29.412001,-9.5694,-1.0159,-8.5079,4.8077,-8.6312,-3.9744,-5.6508,-1.9608,9.533
-10.49,-14.222,-15.534,-18.627001,-18.719,-28.212999,-20.388,-10.744,-9.8211,-18.627001,-18.719,-29.412001,-5.7416,-0.06349,-1.8413,2.8846,-4.7665,-2.0513,-6.6032,1.9608,6.6345
-7.6461,-11.365,-9.7087,-15.686,-22.66,-13.72,-17.476,-10.744,-10.797,-15.686,-22.66,-23.528999,-1.9139,-0.06349,0.06349,1.9231,-2.8341,-0.12821,-4.6984,2.9412,2.7697
-5.7504,-8.5079,-5.8252,-22.549,-15.764,-17.584999,-15.534,-10.744,-8.8455,-22.549,-15.764,-16.667,-1.9139,-1.9683,-0.88889,-1.9231,-2.8341,-2.0513,-3.746,1.9608,-1.095
-6.6983,-7.5556,-2.9126,-19.608,-7.8818,-19.517,-4.8544,-10.744,-5.9187,-19.608,-7.8818,-9.8039,-6.6986,-7.6825,-5.6508,-9.6154,-7.6651,-2.0513,-4.6984,-0.98039,-6.8921
-7.6461,-3.746,-2.9126,-14.706,1.9704,-12.754,1.9417,-7.8317,-1.0407,-14.706,1.9704,-2.9412,-13.397,-12.444,-10.413,-14.423,-13.462,0.83333,-6.6032,-4.902,-12.689
-9.5419,-1.8413,-3.8835,-5.8824,12.808,-5.0242,3.8835,-6.8608,1.8862,-5.8824,12.808,-1.9608,-17.225,-12.444,-14.222,-15.385,-21.191999,-0.12821,-2.7937,-6.8627,-13.655
-9.5419,0.06349,-6.7961,-3.9216,11.823,-5.9903,4.8544,-6.8608,1.8862,-3.9216,11.823,-1.9608,-16.268,-12.444,-15.175,-11.538,-22.158001,-2.0513,2.9206,-6.8627,-7.8583
-9.5419,5.7778,-7.767,-1.9608,2.9557,-0.19324,2.9126,-6.8608,1.8862,-1.9608,2.9557,1.9608,-12.44,-7.6825,-13.27,-2.8846,-17.327,-5.8974,7.6825,-6.8627,-0.12882
-9.5419,4.8254,-4.8544,-1.9608,2.9557,-4.058,-4.8544,-5.89,0.91057,-1.9608,2.9557,0.0,-9.5694,-2.9206,-9.4603,4.8077,-11.53,-9.7436,7.6825,-6.8627,8.5668
-6.6983,0.06349,-1.9417,2.9412,-0.98522,-3.0918,-3.8835,-2.9773,-0.06504,2.9412,-0.98522,-3.9216,-6.6986,3.746,-4.6984,12.5,-3.8003,-12.628,8.6349,-7.8431,16.296
-5.7504,-5.6508,-2.9126,0.0,-6.8966,-1.1594,-12.621,-2.0065,-1.0407,0.0,-6.8966,-7.8431,-4.7847,7.5556,-1.8413,16.346001,2.963,-11.667,10.54,-3.9216,19.195
1.8325,-8.5079,-1.9417,0.0,-14.778,3.6715,-14.563,-1.0356,-2.0163,0.0,-14.778,-10.784,1.9139,5.6508,8.6349,15.385,9.7262,-9.7436,7.6825,2.9412,15.33
9.4155,-10.413,0.0,0.98039,-16.749001,7.5362,-14.563,0.90615,-1.0407,0.98039,-16.749001,-12.745,7.6555,4.6984,21.016001,9.6154,15.523,-5.8974,2.9206,9.8039,7.6006
13.207,-12.317,-1.9417,-5.8824,-10.837,-1.1594,-14.563,3.8188,-2.0163,-5.8824,-10.837,-10.784,11.483,2.7937,26.73,0.96154,14.557,2.7564,-3.746,14.706,-0.12882
16.051001,-15.175,-1.9417,-9.8039,-4.9261,-9.8551,-10.68,4.7896,-6.8943,-9.8039,-4.9261,-8.8235,13.397,-1.0159,27.683001,-7.6923,13.591,10.449,-9.4603,17.646999,-5.9259
16.051001,-15.175,1.9417,-7.8431,-4.9261,0.77295,-9.7087,5.7605,-10.797,-7.8431,-4.9261,-6.8627,15.311,-0.06349,25.778,-8.6538,14.557,15.256,-13.27,19.608,-8.8245
16.051001,-12.317,4.8544,-2.9412,-7.8818,4.6377,-4.8544,3.8188,-11.772,-2.9412,-7.8818,-4.902,13.397,0.88889,20.063,-9.6154,14.557,16.218,-13.27,17.646999,-9.7907
13.207,-7.5556,6.7961,-2.9412,-6.8966,-2.1256,0.0,1.877,-8.8455,-2.9412,-6.8966,-2.9412,8.6124,-0.06349,13.397,-10.577,9.7262,13.333,-10.413,12.745,-8.8245
9.4155,-1.8413,10.68,-0.98039,-1.9704,-1.1594,4.8544,1.877,-2.9919,-0.98039,-1.9704,0.98039,0.0,-1.9683,6.7302,-8.6538,1.0306,6.6026,-3.746,4.902,-7.8583
1.8325,1.0159,5.8252,3.9216,3.9409,-6.9565,8.7379,-1.0356,1.8862,3.9216,3.9409,2.9412,-10.526,-4.8254,-3.746,-2.8846,-9.5974,-2.0513,1.9683,-6.8627,-6.8921
-5.7504,6.7302,1.9417,0.0,8.867,-8.8889,13.592,-3.9482,7.7398,0.0,8.867,4.902,-18.181999,-1.0159,-15.175,4.8077,-17.327,-9.7436,8.6349,-17.646999,1.8035
-11.438,12.444,3.8835,1.9608,12.808,-2.1256,19.417,-5.89,13.593,1.9608,12.808,7.8431,-22.01,3.746,-23.746,10.577,-20.225,-16.474001,18.159,-24.51,11.465
-11.438,16.254,2.9126,5.8824,15.764,0.77295,21.358999,-6.8608,17.496,5.8824,15.764,10.784,-19.139,7.5556,-28.507999,17.308001,-15.395,-20.320999,20.063,-23.528999,17.261999
-10.49,16.254,-0.97087,2.9412,7.8818,0.77295,18.447001,-7.8317,14.569,2.9412,7.8818,11.765,-14.354,8.5079,-26.603001,19.231001,-11.53,-21.282,14.349,-19.608,19.195
-11.438,12.444,-3.8835,6.8627,0.0,0.77295,13.592,-10.744,9.6911,6.8627,0.0,7.8431,-8.6124,6.6032,-18.983999,15.385,-9.5974,-23.205,11.492,-12.745,18.229
-6.6983,6.7302,-2.9126,9.8039,8.867,-7.9227,6.7961,-9.7735,3.8374,9.8039,8.867,4.902,-1.9139,6.6032,-7.5556,11.538,-2.8341,-21.282,3.873,-3.9216,13.398
4.6761,6.7302,5.8252,7.8431,10.837,7.5362,4.8544,-2.9773,0.91057,7.8431,10.837,7.8431,7.6555,9.4603,11.492,11.538,9.7262,-14.551,0.06349,5.8824,9.533
11.311,6.7302,15.534,7.8431,4.9261,19.129999,2.9126,1.877,-2.0163,7.8431,4.9261,6.8627,16.268,12.317,24.825001,11.538,19.388,-6.859,-3.746,16.667,6.6345
12.259,4.8254,19.417,9.8039,2.9557,8.5024,0.97087,3.8188,-2.9919,9.8039,2.9557,4.902,22.01,13.27,30.540001,10.577,25.184999,-0.12821,-4.6984,24.51,3.7359
12.259,4.8254,18.447001,7.8431,1.9704,3.6715,2.9126,2.8479,-2.9919,7.8431,1.9704,2.9412,22.966999,11.365,28.635,7.6923,25.184999,4.6795,-1.8413,23.528999,-0.12882
9.4155,0.06349,10.68,-3.9216,-2.9557,-6.9565,1.9417,1.877,-2.9919,-3.9216,-2.9557,-0.98039,21.052999,6.6032,22.921,1.9231,18.422001,8.5256,-1.8413,19.608,-3.0274
4.6761,-6.6032,0.0,-12.745,-10.837,-9.8551,-11.65,1.877,-3.9675,-12.745,-10.837,-4.902,16.268,3.746,14.349,-1.9231,8.7601,5.641,-2.7937,13.725,-5.9259
-0.06319,-11.365,-8.7379,-3.9216,-13.793,-7.9227,-18.447001,2.8479,-3.9675,-3.9216,-13.793,-10.784,7.6555,0.88889,7.6825,-0.96154,1.0306,6.6026,1.9683,5.8824,-3.9936
-1.0111,-7.5556,-5.8252,5.8824,-12.808,-5.9903,-8.7379,4.7896,-2.0163,5.8824,-12.808,-9.8039,-0.95694,-1.9683,1.9683,2.8846,-4.7665,6.6026,1.0159,-0.98039,1.8035
-2.9068,-3.746,-2.9126,4.902,-3.9409,2.7053,-6.7961,5.7605,1.8862,4.902,-3.9409,-5.8824,-9.5694,-5.7778,-4.6984,4.8077,-10.564,1.7949,1.9683,-7.8431,3.7359
-2.9068,-2.7937,-2.9126,7.8431,3.9409,6.57,-4.8544,8.6731,0.91057,7.8431,3.9409,-1.9608,-13.397,-7.6825,-10.413,4.8077,-15.395,1.7949,-1.8413,-11.765,2.7697
-2.9068,-0.88889,-3.8835,4.902,2.9557,7.5362,0.97087,11.586,-3.9675,4.902,2.9557,1.9608,-13.397,-9.5873,-14.222,0.96154,-17.327,1.7949,-8.5079,-11.765,-1.095
-0.06319,2.9206,-1.9417,4.902,4.9261,8.5024,0.97087,11.586,-3.9675,4.902,4.9261,4.902,-13.397,-4.8254,-15.175,0.96154,-12.496,2.7564,-7.5556,-8.8235,-1.095
4.6761,5.7778,2.9126,5.8824,4.9261,10.435,3.8835,9.644,-1.0407,5.8824,4.9261,6.8627,-11.483,-3.873,-11.365,1.9231,-4.7665,4.6795,-6.6032,-5.8824,-3.0274
7.5197,6.7302,8.7379,6.8627,3.9409,12.367,5.8252,8.6731,0.91057,6.8627,3.9409,6.8627,-9.5694,-3.873,-6.6032,0.96154,2.963,4.6795,-1.8413,-1.9608,-4.9597
9.4155,1.9683,11.65,19.608,3.9409,6.57,8.7379,9.644,2.8618,19.608,3.9409,8.8235,-6.6986,-1.9683,-0.88889,-1.9231,8.7601,2.7564,1.0159,-0.98039,-5.9259
8.4676,0.06349,8.7379,22.549,5.9113,11.401,9.7087,9.644,2.8618,22.549,5.9113,8.8235,-4.7847,-1.9683,1.0159,-4.8077,10.692,2.7564,1.0159,-1.9608,-7.8583
5.624,1.0159,7.767,16.667,12.808,17.198,11.65,8.6731,2.8618,16.667,12.808,8.8235,-5.7416,-1.9683,-1.8413,-7.6923,6.8277,2.7564,2.9206,-4.902,-6.8921
2.7804,1.0159,4.8544,16.667,14.778,10.435,11.65,6.7314,5.7886,16.667,14.778,7.8431,-8.6124,-1.9683,-5.6508,-7.6923,1.9968,1.7949,3.873,-7.8431,-4.9597
1.8325,1.0159,0.0,13.725,4.9261,1.7391,9.7087,5.7605,7.7398,13.725,4.9261,5.8824,-8.6124,-0.06349,-6.6032,-4.8077,-0.90177,2.7564,5.7778,-6.8627,-3.0274
0.88468,-2.7937,-6.7961,2.9412,-1.9704,-2.1256,-2.9126,4.7896,5.7886,2.9412,-1.9704,1.9608,-7.6555,1.8413,-6.6032,-1.9231,-5.7327,4.6795,7.6825,-5.8824,-1.095
-0.06319,-6.6032,-11.65,2.9412,-3.9409,5.6039,-11.65,4.7896,1.8862,2.9412,-3.9409,-1.9608,-8.6124,1.8413,-9.4603,-2.8846,-11.53,4.6795,9.5873,-3.9216,1.8035
-4.8025,-8.5079,-12.621,1.9608,-8.867,0.77295,-12.621,0.90615,-1.0407,1.9608,-8.867,-6.8627,-8.6124,-1.0159,-12.317,-4.8077,-16.361,1.7949,1.9683,-6.8627,-0.12882
-8.594,-9.4603,-9.7087,-6.8627,-9.8522,-9.8551,-12.621,-3.9482,-3.9675,-6.8627,-9.8522,-10.784,-5.7416,-1.9683,-10.413,-4.8077,-17.327,-2.0513,-0.88889,-6.8627,-0.12882
-9.5419,-10.413,-5.8252,-8.8235,-8.867,-13.72,-10.68,-6.8608,-4.9431,-8.8235,-8.867,-14.706,-1.9139,2.7937,-3.746,-0.96154,-11.53,-4.9359,-1.8413,-3.9216,4.7021
-8.594,-10.413,-4.8544,-10.784,-8.867,-15.652,-8.7379,-9.7735,-3.9675,-10.784,-8.867,-14.706,0.95694,6.6032,1.9683,0.0,-2.8341,-3.9744,-0.88889,0.98039,9.533
-9.5419,-7.5556,-6.7961,-13.725,-6.8966,-19.517,-6.7961,-10.744,-2.0163,-13.725,-6.8966,-14.706,5.7416,3.746,5.7778,-1.9231,4.8953,-3.0128,-0.88889,5.8824,5.6683
-7.6461,-3.746,-5.8252,-10.784,-1.9704,-20.483,-3.8835,-8.8026,0.91057,-10.784,-1.9704,-10.784,8.6124,-0.06349,7.6825,-3.8462,10.692,-1.0897,-2.7937,7.8431,-3.0274
0.88468,-0.88889,-3.8835,0.0,3.9409,-11.787,1.9417,-0.06472,5.7886,0.0,3.9409,-1.9608,9.5694,0.88889,6.7302,-4.8077,12.625,8.5256,-2.7937,7.8431,-4.9597
9.4155,5.7778,1.9417,14.706,16.749001,5.6039,13.592,8.6731,10.667,14.706,16.749001,9.8039,6.6986,0.88889,4.8254,-2.8846,12.625,15.256,1.0159,3.9216,-5.9259
13.207,7.6825,8.7379,19.608,25.615999,16.232,23.301001,13.528,11.642,19.608,25.615999,16.667,2.8708,-1.9683,3.873,-3.8462,11.659,11.41,1.9683,0.98039,-6.8921
11.311,5.7778,8.7379,21.569,16.749001,14.3,20.388,13.528,9.6911,21.569,16.749001,13.725,-1.9139,-1.9683,0.06349,-1.9231,9.7262,7.5641,2.9206,-2.9412,-3.0274
3.7283,2.9206,0.97087,14.706,12.808,6.57,9.7087,8.6731,4.813,14.706,12.808,5.8824,-3.8278,-1.0159,-3.746,0.0,2.963,1.7949,3.873,-5.8824,-2.0612
-0.06319,1.0159,-4.8544,12.745,7.8818,0.77295,3.8835,5.7605,0.91057,12.745,7.8818,0.98039,-4.7847,0.88889,-4.6984,0.96154,-3.8003,-0.12821,3.873,-4.902,1.8035
-3.8547,-4.6984,-10.68,8.8235,-1.9704,0.77295,-0.97087,3.8188,-2.9919,8.8235,-1.9704,-6.8627,-4.7847,-1.0159,-7.5556,-0.96154,-12.496,1.7949,1.0159,-2.9412,2.7697
-5.7504,-9.4603,-17.476,1.9608,-4.9261,4.6377,-8.7379,2.8479,-4.9431,1.9608,-4.9261,-11.765,-4.7847,-3.873,-10.413,-4.8077,-19.259001,2.7564,1.0159,-1.9608,1.8035
-1.9589,-10.413,-18.447001,0.98039,-4.9261,4.6377,-13.592,1.877,-7.8699,0.98039,-4.9261,-8.8235,-4.7847,-6.7302,-10.413,-7.6923,-23.124001,-0.12821,-3.746,-0.98039,-1.095
0.88468,-10.413,-14.563,6.8627,-1.9704,4.6377,-13.592,0.90615,-7.8699,6.8627,-1.9704,-3.9216,-3.8278,-6.7302,-6.6032,-8.6538,-21.191999,-2.0513,-8.5079,1.9608,-3.9936
2.7804,-7.5556,-5.8252,5.8824,0.98522,2.7053,-10.68,-1.0356,-6.8943,5.8824,0.98522,1.9608,0.95694,-7.6825,-0.88889,-9.6154,-14.428,-0.12821,-7.5556,3.9216,-8.8245
3.7283,-2.7937,2.9126,8.8235,3.9409,-0.19324,-1.9417,-2.0065,-2.9919,8.8235,3.9409,6.8627,3.8278,-9.5873,3.873,-10.577,-6.6989,-1.0897,-10.413,4.902,-14.622
1.8325,1.0159,8.7379,4.902,4.9261,-9.8551,7.767,-2.9773,0.91057,4.902,4.9261,12.745,3.8278,-9.5873,3.873,-10.577,-1.868,-3.9744,-7.5556,1.9608,-16.554001
0.88468,5.7778,12.621,12.745,13.793,-2.1256,15.534,-2.9773,4.813,12.745,13.793,15.686,1.9139,-6.7302,1.0159,-6.7308,1.9968,-3.0128,-4.6984,-1.9608,-14.622
4.6761,15.302,20.388,18.627001,22.66,9.4686,22.33,-0.06472,9.6911,18.627001,22.66,21.569,0.0,-3.873,-0.88889,0.0,8.7601,-1.0897,-1.8413,-2.9412,-9.7907
7.5197,25.778,30.097,16.667,19.704,6.57,30.097,1.877,16.52,16.667,19.704,26.471001,0.95694,0.88889,-0.88889,9.6154,13.591,-3.9744,7.6825,-4.902,-3.9936
7.5197,34.348999,33.009998,18.627001,28.570999,5.6039,32.039001,-0.06472,19.447001,18.627001,28.570999,27.451,1.9139,6.6032,-0.88889,17.308001,14.557,-6.859,18.159,-6.8627,3.7359
1.8325,33.396999,22.33,16.667,27.586,6.57,19.417,-3.9482,17.496,16.667,27.586,21.569,-0.95694,5.6508,-4.6984,14.423,5.8615,-7.8205,18.159,-10.784,8.5668
-5.7504,24.825001,4.8544,8.8235,14.778,6.57,14.563,-6.8608,15.545,8.8235,14.778,12.745,-5.7416,1.8413,-10.413,7.6923,-7.6651,-8.7821,20.063,-11.765,9.533
-12.385,9.5873,-12.621,-4.902,3.9409,-9.8551,3.8835,-10.744,6.7642,-4.902,3.9409,0.0,-9.5694,-1.0159,-16.127001,0.96154,-18.292999,-9.7436,17.205999,-11.765,9.533
-16.177,-5.6508,-24.271999,-5.8824,-4.9261,-11.787,-8.7379,-7.8317,-5.9187,-5.8824,-4.9261,-12.745,-8.6124,-1.9683,-17.079,-5.7692,-23.124001,-6.859,3.873,-7.8431,7.6006
-14.281,-17.079,-26.214001,-1.9608,-11.823,-4.058,-20.388,-2.9773,-15.675,-1.9608,-11.823,-19.608,-3.8278,-1.9683,-13.27,-7.6923,-22.158001,-0.12821,-6.6032,-1.9608,6.6345
-9.5419,-22.794001,-25.243,-3.9216,-18.719,1.7391,-25.243,1.877,-21.528,-3.9216,-18.719,-22.549,0.95694,-1.0159,-7.5556,-7.6923,-17.327,6.6026,-13.27,4.902,3.7359
-1.9589,-20.889,-16.504999,-0.98039,-19.704,7.5362,-22.33,7.7023,-24.455,-0.98039,-19.704,-17.646999,8.6124,-0.06349,3.873,-5.7692,-6.6989,11.41,-20.889,12.745,2.7697
6.5719,-16.127001,-4.8544,0.98039,-15.764,8.5024,-20.388,10.615,-24.455,0.98039,-15.764,-8.8235,17.225,0.88889,17.205999,-0.96154,7.7939,14.295,-24.698,20.587999,0.83736
12.259,-12.317,2.9126,-2.9412,-9.8522,8.5024,-17.476,11.586,-20.552999,-2.9412,-9.8522,-1.9608,20.096001,3.746,25.778,4.8077,20.354,17.179001,-24.698,25.49,-1.095
15.103,-7.5556,8.7379,7.8431,-4.9261,14.3,-8.7379,16.440001,-15.675,7.8431,-4.9261,1.9608,21.052999,4.6984,29.587,7.6923,26.150999,21.025999,-22.794001,26.471001,-1.095
18.893999,-2.7937,14.563,18.627001,1.9704,13.333,-0.97087,19.353001,-11.772,18.627001,1.9704,7.8431,18.181999,1.8413,27.683001,1.9231,25.184999,22.948999,-21.841,24.51,-4.9597
18.893999,5.7778,18.447001,20.587999,6.8966,11.401,5.8252,18.382,-3.9675,20.587999,6.8966,13.725,11.483,-3.873,21.016001,-2.8846,19.388,21.987,-14.222,17.646999,-11.723
16.997999,12.444,16.504999,14.706,8.867,13.333,11.65,15.469,5.7886,14.706,8.867,17.646999,1.9139,-7.6825,11.492,-3.8462,12.625,13.333,0.06349,7.8431,-12.689
8.4676,17.205999,12.621,6.8627,15.764,12.367,12.621,6.7314,15.545,6.8627,15.764,13.725,-6.6986,-6.7302,1.0159,-0.96154,4.8953,5.641,14.349,-1.9608,-8.8245
-0.06319,20.063,9.7087,2.9412,15.764,4.6377,16.504999,-2.0065,21.398001,2.9412,15.764,8.8235,-10.526,-1.9683,-7.5556,4.8077,1.9968,0.83333,25.778,-8.8235,0.83736
-3.8547,18.159,6.7961,-3.9216,11.823,-3.0918,18.447001,-8.8026,20.423,-3.9216,11.823,2.9412,-7.6555,3.746,-8.5079,8.6538,1.0306,-5.8974,27.683001,-11.765,7.6006
-3.8547,15.302,6.7961,-6.8627,6.8966,-6.9565,16.504999,-12.686,17.496,-6.8627,6.8966,0.0,-3.8278,5.6508,-5.6508,8.6538,1.9968,-8.7821,21.968,-10.784,10.499
-2.9068,11.492,6.7961,-8.8235,2.9557,-6.9565,10.68,-13.657,11.642,-8.8235,2.9557,-2.9412,-0.95694,6.6032,-3.746,7.6923,2.963,-7.8205,13.397,-9.8039,12.432
-1.0111,7.6825,3.8835,-6.8627,-0.98522,-9.8551,2.9126,-10.744,3.8374,-6.8627,-0.98522,-4.902,0.95694,5.6508,-0.88889,6.7308,5.8615,-3.9744,5.7778,-3.9216,10.499
1.8325,8.6349,5.8252,-7.8431,0.0,-8.8889,0.0,-5.89,-3.9675,-7.8431,0.0,-0.98039,2.8708,4.6984,2.9206,10.577,10.692,-2.0513,-1.8413,0.98039,10.499
7.5197,13.397,13.592,-2.9412,3.9409,2.7053,2.9126,-1.0356,-7.8699,-2.9412,3.9409,5.8824,8.6124,10.413,6.7302,19.231001,19.388,1.7949,-6.6032,4.902,12.432
12.259,18.159,22.33,7.8431,7.8818,13.333,10.68,1.877,-6.8943,7.8431,7.8818,12.745,14.354,15.175,11.492,25.962,27.118,2.7564,-4.6984,5.8824,15.33
17.945999,23.872999,30.097,10.784,12.808,18.164,20.388,4.7896,-1.0407,10.784,12.808,21.569,16.268,16.127001,14.349,25.962,30.016001,2.7564,0.06349,3.9216,16.296
21.738001,26.73,33.980999,17.646999,12.808,21.063,26.214001,8.6731,3.8374,17.646999,12.808,29.412001,16.268,15.175,18.159,25.0,30.982,4.6795,7.6825,2.9412,15.33
20.790001,24.825001,33.009998,20.587999,17.733999,21.063,21.358999,7.7023,4.813,20.587999,17.733999,28.431,18.181999,12.317,21.968,21.153999,30.982,5.641,4.8254,5.8824,10.499
17.945999,21.968,28.155001,17.646999,13.793,15.266,19.417,5.7605,6.7642,17.646999,13.793,21.569,16.268,9.4603,23.872999,13.462,25.184999,5.641,3.873,9.8039,4.7021
11.311,14.349,15.534,12.745,8.867,2.7053,10.68,1.877,11.642,12.745,8.867,10.784,12.44,6.6032,17.205999,6.7308,15.523,3.7179,10.54,9.8039,1.8035
5.624,5.7778,3.8835,-3.9216,0.98522,-9.8551,-3.8835,-3.9482,12.618,-3.9216,0.98522,0.0,9.5694,5.6508,9.5873,3.8462,6.8277,1.7949,14.349,8.8235,1.8035
0.88468,-4.6984,-5.8252,-4.902,-8.867,2.7053,-9.7087,-2.0065,6.7642,-4.902,-8.867,-7.8431,7.6555,3.746,4.8254,0.0,0.06441,0.83333,11.492,7.8431,1.8035
-0.06319,-12.317,-10.68,-1.9608,-7.8818,8.5024,-12.621,2.8479,-0.06504,-1.9608,-7.8818,-12.745,7.6555,3.746,2.9206,0.0,0.06441,2.7564,3.873,7.8431,0.83736
-2.9068,-16.127001,-15.534,-8.8235,-11.823,-1.1594,-18.447001,-0.06472,-2.0163,-8.8235,-11.823,-16.667,6.6986,3.746,3.873,0.0,1.9968,2.7564,-0.88889,7.8431,0.83736
-5.7504,-17.079,-18.447001,-9.8039,-17.733999,-4.058,-19.417,-1.0356,-3.9675,-9.8039,-17.733999,-15.686,3.8278,2.7937,5.7778,-3.8462,-0.90177,-1.0897,-0.88889,5.8824,1.8035
-2.9068,-17.079,-15.534,-13.725,-18.719,-10.821,-15.534,-0.06472,-5.9187,-13.725,-18.719,-10.784,0.95694,-1.9683,4.8254,-7.6923,-2.8341,-1.0897,-2.7937,3.9216,-0.12882
0.88468,-12.317,-9.7087,-7.8431,-13.793,-4.058,-13.592,1.877,-4.9431,-7.8431,-13.793,-4.902,0.0,-4.8254,3.873,-7.6923,-0.90177,-2.0513,-1.8413,3.9216,-3.9936
6.5719,-2.7937,0.97087,2.9412,-9.8522,10.435,-6.7961,6.7314,-1.0407,2.9412,-9.8522,2.9412,0.95694,-7.6825,5.7778,-4.8077,1.9968,4.6795,-3.746,5.8824,-6.8921
13.207,6.7302,10.68,0.0,-2.9557,13.333,5.8252,9.644,1.8862,0.0,-2.9557,10.784,4.7847,-6.7302,7.6825,-2.8846,3.9291,12.372,-4.6984,9.8039,-8.8245
17.945999,13.397,17.476,7.8431,7.8818,10.435,9.7087,8.6731,-1.0407,7.8431,7.8818,13.725,7.6555,-3.873,10.54,-1.9231,7.7939,14.295,-5.6508,12.745,-9.7907
19.841999,17.205999,21.358999,7.8431,1.9704,9.4686,7.767,7.7023,-2.9919,7.8431,1.9704,13.725,9.5694,0.88889,13.397,0.96154,13.591,11.41,-6.6032,13.725,-6.8921
13.207,11.492,15.534,-4.902,-4.9261,3.6715,5.8252,1.877,-4.9431,-4.902,-4.9261,8.8235,9.5694,3.746,10.54,0.0,12.625,4.6795,-7.5556,10.784,-8.8245
5.624,0.06349,2.9126,-6.8627,-10.837,0.77295,0.0,-2.0065,-5.9187,-6.8627,-10.837,-0.98039,9.5694,5.6508,9.5873,-2.8846,6.8277,-0.12821,-8.5079,5.8824,-9.7907
3.7283,-1.8413,-2.9126,-7.8431,-7.8818,-2.1256,-3.8835,-2.9773,-3.9675,-7.8431,-7.8818,-3.9216,9.5694,10.413,8.6349,1.9231,1.9968,-3.9744,-3.746,0.98039,-1.095
1.8325,2.9206,-2.9126,-11.765,-3.9409,-6.9565,-2.9126,-3.9482,-0.06504,-11.765,-3.9409,-2.9412,9.5694,14.222,6.7302,12.5,1.0306,-6.859,4.8254,-2.9412,10.499
-1.0111,7.6825,-1.9417,-17.646999,-3.9409,-9.8551,-3.8835,-5.89,1.8862,-17.646999,-3.9409,-3.9216,10.526,18.983999,3.873,24.038,5.8615,-9.7436,14.349,-6.8627,22.093
-4.8025,10.54,-1.9417,-17.646999,-5.9113,-12.754,-3.8835,-9.7735,0.91057,-17.646999,-5.9113,-5.8824,12.44,23.746,3.873,30.768999,11.659,-11.667,15.302,-5.8824,30.789
-7.6461,11.492,-2.9126,-8.8235,-6.8966,-17.584999,-3.8835,-12.686,1.8862,-8.8235,-6.8966,-7.8431,14.354,26.603001,7.6825,31.731001,15.523,-13.59,16.254,-1.9608,33.688
-7.6461,12.444,1.9417,-11.765,-5.9113,-15.652,-5.8252,-14.628,3.8374,-11.765,-5.9113,-6.8627,15.311,24.698,9.5873,31.731001,21.32,-11.667,16.254,0.98039,31.754999
-2.9068,15.302,9.7087,-8.8235,-0.98522,-23.382,-0.97087,-14.628,5.7886,-8.8235,-0.98522,-0.98039,17.225,21.841,14.349,29.808001,27.118,-10.705,17.205999,5.8824,25.958
-0.06319,12.444,11.65,-0.98039,9.8522,-8.8889,2.9126,-11.715,9.6911,-0.98039,9.8522,0.98039,16.268,17.079,16.254,21.153999,28.084,-6.859,12.444,8.8235,18.229
-0.06319,3.873,7.767,-1.9608,12.808,-3.0918,5.8252,-8.8026,10.667,-1.9608,12.808,0.0,11.483,12.317,12.444,11.538,20.354,-3.0128,2.9206,7.8431,7.6006
-1.9589,-0.88889,1.9417,-6.8627,2.9557,-8.8889,6.7961,-6.8608,8.7154,-6.8627,2.9557,0.98039,4.7847,2.7937,5.7778,-3.8462,8.7601,-3.0128,-1.8413,6.8627,-5.9259
-2.9068,-4.6984,0.97087,-9.8039,6.8966,-4.058,5.8252,-5.89,3.8374,-9.8039,6.8966,1.9608,1.9139,-3.873,1.0159,-15.385,-1.868,-1.0897,-11.365,5.8824,-15.588
-2.9068,-10.413,-1.9417,-10.784,6.8966,-5.0242,1.9417,-4.9191,-1.0407,-10.784,6.8966,0.0,0.0,-4.8254,-2.7937,-17.308001,-8.6312,3.7179,-15.175,5.8824,-17.52
-1.9589,-12.317,-8.7379,-4.902,5.9113,-5.9903,-1.9417,-2.0065,-3.9675,-4.902,5.9113,0.0,-1.9139,-1.0159,-6.6032,-11.538,-13.462,3.7179,-9.4603,2.9412,-11.723
-4.8025,-10.413,-15.534,-5.8824,2.9557,-1.1594,-0.97087,-0.06472,-5.9187,-5.8824,2.9557,0.98039,-6.6986,1.8413,-11.365,-5.7692,-23.124001,-0.12821,-3.746,-1.9608,-3.0274
-9.5419,-6.6032,-18.447001,-4.902,-4.9261,4.6377,-5.8252,-0.06472,-7.8699,-4.902,-4.9261,-0.98039,-12.44,0.88889,-17.079,-3.8462,-27.955,-3.0128,1.9683,-8.8235,1.8035
-12.385,-0.88889,-17.476,-6.8627,-5.9113,7.5362,-0.97087,-1.0356,-4.9431,-6.8627,-5.9113,0.0,-16.268,-1.9683,-21.841,-4.8077,-28.921,-5.8974,6.7302,-12.745,1.8035
-13.333,-2.7937,-16.504999,-13.725,-8.867,-4.058,0.97087,-4.9191,-3.9675,-13.725,-8.867,0.0,-21.052999,-9.5873,-25.650999,-10.577,-29.886999,-8.7821,6.7302,-14.706,-0.12882
-12.385,-13.27,-18.447001,-12.745,-11.823,-5.0242,-7.767,-5.89,-5.9187,-12.745,-11.823,-3.9216,-22.966999,-16.254,-28.507999,-19.231001,-29.886999,-10.705,4.8254,-17.646999,-4.9597
-14.281,-21.841,-24.271999,-12.745,-13.793,1.7391,-20.388,-8.8026,-8.8455,-12.745,-13.793,-9.8039,-22.01,-20.063,-28.507999,-25.0,-29.886999,-12.628,-0.88889,-19.608,-8.8245
-16.177,-23.746,-25.243,-11.765,-13.793,-2.1256,-22.33,-10.744,-11.772,-11.765,-13.793,-14.706,-16.268,-18.159,-25.650999,-25.0,-25.056,-15.513,-11.365,-18.627001,-8.8245
-11.438,-20.889,-17.476,-11.765,-9.8522,-11.787,-20.388,-9.7735,-12.748,-11.765,-9.8522,-15.686,-8.6124,-13.397,-18.983999,-19.231001,-15.395,-13.59,-16.127001,-13.725,-7.8583
-10.49,-15.175,-12.621,-13.725,-8.867,-9.8551,-14.563,-5.89,-10.797,-13.725,-8.867,-13.725,-3.8278,-7.6825,-13.27,-10.577,-8.6312,-8.7821,-13.27,-10.784,-5.9259
-10.49,-10.413,-8.7379,-13.725,-3.9409,-9.8551,-7.767,-2.0065,-5.9187,-13.725,-3.9409,-13.725,-3.8278,-6.7302,-9.4603,-8.6538,-4.7665,-3.9744,-10.413,-9.8039,-8.8245
-9.5419,-8.5079,-4.8544,-15.686,-0.98522,-13.72,-3.8835,-0.06472,-2.0163,-15.686,-0.98522,-10.784,-3.8278,-7.6825,-7.5556,-11.538,-2.8341,-0.12821,-9.4603,-8.8235,-14.622
-8.594,-7.5556,-3.8835,-12.745,-1.9704,-24.348,-5.8252,0.90615,-2.0163,-12.745,-1.9704,-8.8235,-2.8708,-6.7302,-6.6032,-15.385,-4.7665,3.7179,-8.5079,-7.8431,-14.622
-6.6983,-6.6032,-1.9417,-5.8824,-6.8966,-11.787,-8.7379,1.877,-1.0407,-5.8824,-6.8966,-6.8627,-1.9139,-4.8254,-3.746,-14.423,-6.6989,2.7564,-3.746,-5.8824,-10.757
-10.49,-9.4603,-8.7379,-6.8627,-4.9261,-2.1256,-6.7961,1.877,-0.06504,-6.8627,-4.9261,-9.8039,-2.8708,-3.873,-4.6984,-12.5,-12.496,6.6026,-3.746,-3.9216,-7.8583
-15.229,-15.175,-19.417,-12.745,-12.808,-13.72,-7.767,-2.0065,-2.9919,-12.745,-12.808,-16.667,-7.6555,-5.7778,-7.5556,-12.5,-19.259001,11.41,-6.6032,-2.9412,-6.8921
-17.125,-17.079,-24.271999,-14.706,-12.808,-16.618,-16.504999,-2.9773,-7.8699,-14.706,-12.808,-20.587999,-7.6555,-7.6825,-6.6032,-11.538,-22.158001,7.5641,-6.6032,0.98039,-3.9936
-13.333,-19.937,-21.358999,-12.745,-14.778,-13.72,-20.388,-3.9482,-13.724,-12.745,-14.778,-22.549,-4.7847,-7.6825,-3.746,-8.6538,-19.259001,5.641,-9.4603,4.902,-3.9936
-6.6983,-18.032,-19.417,-10.784,-14.778,-12.754,-18.447001,-2.9773,-18.601999,-10.784,-14.778,-18.627001,0.95694,-3.873,-1.8413,0.0,-9.5974,4.6795,-11.365,3.9216,1.8035
-3.8547,-13.27,-17.476,-9.8039,-10.837,-8.8889,-22.33,-2.9773,-14.699,-9.8039,-10.837,-9.8039,4.7847,0.88889,1.9683,7.6923,1.0306,2.7564,-9.4603,0.98039,7.6006
-1.0111,-4.6984,-6.7961,-2.9412,-6.8966,0.77295,-15.534,-0.06472,-8.8455,-2.9412,-6.8966,-0.98039,4.7847,4.6984,6.7302,9.6154,7.7939,1.7949,-4.6984,0.0,8.5668
2.7804,7.6825,1.9417,4.902,0.0,8.5024,-2.9126,4.7896,-2.9919,4.902,0.0,5.8824,4.7847,3.746,11.492,7.6923,9.7262,3.7179,1.0159,-0.98039,4.7021
3.7283,13.397,-3.8835,-0.98039,8.867,4.6377,1.9417,7.7023,4.813,-0.98039,8.867,3.9216,3.8278,-1.9683,9.5873,0.0,5.8615,9.4872,0.06349,-1.9608,-0.12882
0.88468,-1.8413,4.8544,6.8627,5.9113,6.57,4.8544,9.644,8.7154,6.8627,5.9113,-1.9608,-0.95694,-4.8254,11.492,-6.7308,1.0306,12.372,-5.6508,-0.98039,-5.9259
1.8325,-15.175,16.504999,15.686,5.9113,13.333,5.8252,11.586,5.7886,15.686,5.9113,0.0,-4.7847,-2.9206,4.8254,-14.423,1.0306,13.333,-6.6032,-0.98039,-13.655
4.6761,-8.5079,0.97087,7.8431,6.8966,12.367,7.767,11.586,2.8618,7.8431,6.8966,2.9412,-2.8708,-1.0159,-5.6508,-23.077,1.0306,13.333,-10.413,0.0,-14.622
4.6761,-7.5556,-4.8544,0.0,-1.9704,5.6039,6.7961,7.7023,3.8374,0.0,-1.9704,0.0,0.95694,-1.0159,-4.6984,-15.385,-3.8003,9.4872,-10.413,1.9608,-9.7907
0.88468,-11.365,0.97087,-7.8431,-4.9261,0.77295,0.97087,3.8188,5.7886,-7.8431,-4.9261,-3.9216,1.9139,1.8413,-4.6984,0.96154,-6.6989,8.5256,-1.8413,2.9412,-2.0612
-1.0111,-8.5079,-3.8835,-5.8824,-2.9557,-5.0242,-2.9126,-1.0356,8.7154,-5.8824,-2.9557,-4.902,-1.9139,3.746,-2.7937,5.7692,-6.6989,2.7564,5.7778,1.9608,4.7021
0.88468,-5.6508,-2.9126,-0.98039,1.9704,-0.19324,0.97087,-2.0065,10.667,-0.98039,1.9704,-2.9412,-6.6986,0.88889,3.873,3.8462,-1.868,-3.0128,10.54,0.98039,7.6006
4.6761,4.8254,-0.97087,3.9216,5.9113,7.5362,4.8544,-1.0356,13.593,3.9216,5.9113,2.9412,-1.9139,2.7937,10.54,13.462,5.8615,-4.9359,17.205999,1.9608,12.432
10.363,14.349,3.8835,-1.9608,-2.9557,8.5024,11.65,-2.0065,11.642,-1.9608,-2.9557,7.8431,4.7847,6.6032,13.397,25.962,14.557,-6.859,17.205999,0.0,20.160999
8.4676,12.444,9.7087,-2.9412,1.9704,-6.9565,7.767,-2.9773,8.7154,-2.9412,1.9704,3.9216,7.6555,10.413,13.397,27.885,20.354,-7.8205,12.444,-1.9608,21.127001
0.88468,6.7302,8.7379,0.0,11.823,-6.9565,5.8252,-2.0065,6.7642,0.0,11.823,0.98039,1.9139,9.4603,5.7778,22.115,19.388,-9.7436,8.6349,-3.9216,15.33
-0.06319,7.6825,4.8544,6.8627,15.764,-3.0918,12.621,2.8479,6.7642,6.8627,15.764,4.902,-5.7416,4.6984,-5.6508,13.462,12.625,-1.0897,3.873,-4.902,8.5668
4.6761,8.6349,9.7087,10.784,16.749001,3.6715,16.504999,10.615,5.7886,10.784,16.749001,11.765,-9.5694,-1.0159,-10.413,6.7308,4.8953,11.41,0.06349,-3.9216,1.8035
8.4676,9.5873,14.563,17.646999,15.764,16.232,21.358999,14.498,6.7642,17.646999,15.764,19.608,-8.6124,-2.9206,-10.413,3.8462,0.06441,19.103001,0.06349,0.0,-3.0274
6.5719,16.254,11.65,26.471001,22.66,19.129999,25.243,14.498,9.6911,26.471001,22.66,24.51,-9.5694,-5.7778,-12.317,-1.9231,-1.868,19.103001,5.7778,-0.98039,-5.9259
1.8325,15.302,7.767,18.627001,25.615999,11.401,22.33,9.644,14.569,18.627001,25.615999,23.528999,-13.397,-8.6349,-13.27,-11.538,-6.6989,13.333,6.7302,-2.9412,-8.8245
-2.9068,7.6825,5.8252,13.725,17.733999,6.57,22.33,3.8188,16.52,13.725,17.733999,15.686,-17.225,-10.54,-13.27,-19.231001,-14.428,6.6026,8.6349,-5.8824,-9.7907
-5.7504,1.9683,0.97087,4.902,12.808,-2.1256,16.504999,-2.9773,16.52,4.902,12.808,5.8824,-19.139,-11.492,-14.222,-21.153999,-23.124001,-0.12821,8.6349,-6.8627,-11.723
-6.6983,-0.88889,-3.8835,3.9216,8.867,-3.0918,5.8252,-3.9482,13.593,3.9216,8.867,-2.9412,-19.139,-14.349,-13.27,-22.115,-26.023001,-4.9359,3.873,-6.8627,-13.655
-5.7504,-6.6032,-6.7961,0.0,3.9409,-5.0242,-2.9126,-2.9773,7.7398,0.0,3.9409,-7.8431,-17.225,-16.254,-12.317,-20.191999,-24.09,-6.859,1.9683,-4.902,-12.689
-2.9068,-7.5556,-6.7961,-0.98039,-3.9409,-7.9227,-8.7379,-2.9773,2.8618,-0.98039,-3.9409,-8.8235,-12.44,-13.397,-10.413,-11.538,-16.361,-7.8205,1.9683,-2.9412,-4.9597
-0.06319,-3.746,-2.9126,-1.9608,-4.9261,4.6377,-10.68,-2.0065,1.8862,-1.9608,-4.9261,-7.8431,-8.6124,-9.5873,-7.5556,-3.8462,-8.6312,-8.7821,1.9683,-0.98039,1.8035
4.6761,0.06349,3.8835,-2.9412,0.0,11.401,-2.9126,-0.06472,0.91057,-2.9412,0.0,-2.9412,-2.8708,-6.7302,-2.7937,3.8462,1.0306,-7.8205,1.9683,0.98039,5.6683
5.624,3.873,6.7961,-3.9216,1.9704,3.6715,3.8835,-0.06472,0.91057,-3.9216,1.9704,1.9608,0.95694,1.8413,0.06349,11.538,10.692,-6.859,2.9206,0.98039,10.499
1.8325,6.7302,3.8835,0.98039,4.9261,4.6377,9.7087,0.90615,0.91057,0.98039,4.9261,5.8824,2.8708,5.6508,1.0159,10.577,13.591,-8.7821,3.873,-0.98039,7.6006
-3.8547,2.9206,0.97087,8.8235,4.9261,2.7053,11.65,2.8479,2.8618,8.8235,4.9261,6.8627,0.0,4.6984,-2.7937,1.9231,7.7939,-10.705,3.873,-3.9216,1.8035
-5.7504,1.0159,-0.97087,12.745,9.8522,7.5362,12.621,7.7023,4.813,12.745,9.8522,7.8431,-4.7847,2.7937,-4.6984,-3.8462,1.9968,-6.859,1.0159,-6.8627,-3.0274
-2.9068,2.9206,-1.9417,15.686,15.764,15.266,14.563,13.528,4.813,15.686,15.764,12.745,-7.6555,-1.9683,-3.746,-12.5,-2.8341,-2.0513,-1.8413,-5.8824,-9.7907
2.7804,1.9683,2.9126,21.569,11.823,19.129999,13.592,18.382,3.8374,21.569,11.823,17.646999,-10.526,-4.8254,-5.6508,-19.231001,-7.6651,4.6795,-2.7937,-3.9216,-15.588
6.5719,1.9683,8.7379,15.686,12.808,23.961,11.65,18.382,1.8862,15.686,12.808,18.627001,-13.397,-5.7778,-10.413,-17.308001,-11.53,10.449,-2.7937,-1.9608,-14.622
6.5719,1.0159,4.8544,12.745,11.823,20.097,5.8252,14.498,0.91057,12.745,11.823,10.784,-17.225,-6.7302,-11.365,-12.5,-16.361,10.449,-2.7937,-1.9608,-10.757
4.6761,-1.8413,0.0,9.8039,5.9113,8.5024,0.0,9.644,-0.06504,9.8039,5.9113,1.9608,-17.225,-7.6825,-12.317,-8.6538,-20.225,10.449,1.0159,0.0,-7.8583
-0.06319,-3.746,-2.9126,-2.9412,-1.9704,-11.787,-3.8835,3.8188,-0.06504,-2.9412,-1.9704,-5.8824,-12.44,-4.8254,-11.365,-4.8077,-21.191999,8.5256,3.873,1.9608,-4.9597
-2.9068,-3.746,-5.8252,-7.8431,-6.8966,-13.72,-4.8544,-0.06472,-1.0407,-7.8431,-6.8966,-9.8039,-4.7847,1.8413,-6.6032,0.0,-19.259001,4.6795,3.873,3.9216,2.7697
-6.6983,-7.5556,-7.767,-4.902,-7.8818,-4.058,-12.621,-2.9773,-1.0407,-4.902,-7.8818,-11.765,0.95694,7.5556,-0.88889,5.7692,-11.53,-0.12821,5.7778,4.902,7.6006
-8.594,-5.6508,-6.7961,-4.902,-3.9409,-3.0918,-11.65,-4.9191,-1.0407,-4.902,-3.9409,-10.784,6.6986,14.222,2.9206,12.5,-0.90177,-8.7821,1.9683,3.9216,12.432
-7.6461,2.9206,-2.9126,-3.9216,-1.9704,-7.9227,-3.8835,-7.8317,1.8862,-3.9216,-1.9704,-5.8824,9.5694,19.937,7.6825,18.268999,9.7262,-10.705,0.06349,0.98039,17.261999
-8.594,7.6825,2.9126,-5.8824,1.9704,-13.72,2.9126,-9.7735,5.7886,-5.8824,1.9704,-0.98039,11.483,21.841,7.6825,20.191999,16.49,-10.705,5.7778,0.0,20.160999
-9.5419,8.6349,7.767,-10.784,-3.9409,-20.483,7.767,-10.744,6.7642,-10.784,-3.9409,3.9216,9.5694,20.889,2.9206,19.231001,17.455999,-12.628,6.7302,-3.9216,20.160999
-7.6461,11.492,9.7087,-0.98039,7.8818,-10.821,7.767,-9.7735,8.7154,-0.98039,7.8818,6.8627,5.7416,19.937,-0.88889,18.268999,17.455999,-14.551,9.5873,-8.8235,19.195
-4.8025,11.492,9.7087,12.745,22.66,-2.1256,11.65,-6.8608,12.618,12.745,22.66,9.8039,-1.9139,15.175,-3.746,13.462,14.557,-15.513,14.349,-11.765,15.33
-0.06319,7.6825,7.767,11.765,15.764,2.7053,9.7087,-2.9773,10.667,11.765,15.764,8.8235,-6.6986,9.4603,-3.746,4.8077,10.692,-11.667,10.54,-12.745,5.6683
5.624,7.6825,7.767,10.784,8.867,5.6039,8.7379,0.90615,8.7154,10.784,8.867,6.8627,-7.6555,2.7937,-1.8413,-1.9231,7.7939,-2.0513,8.6349,-9.8039,-1.095
7.5197,3.873,6.7961,4.902,1.9704,2.7053,4.8544,2.8479,4.813,4.902,1.9704,3.9216,-8.6124,-3.873,0.06349,-7.6923,0.06441,3.7179,3.873,-5.8824,-6.8921
8.4676,0.06349,3.8835,3.9216,-3.9409,-3.0918,-0.97087,1.877,-2.9919,3.9216,-3.9409,0.98039,-6.6986,-6.7302,4.8254,-5.7692,-3.8003,7.5641,-0.88889,0.0,-5.9259
8.4676,-2.7937,0.0,0.98039,-4.9261,6.57,-3.8835,3.8188,-9.8211,0.98039,-4.9261,0.98039,-0.95694,-4.8254,11.492,-0.96154,0.06441,7.5641,-7.5556,5.8824,-3.0274
9.4155,-4.6984,0.0,5.8824,-2.9557,5.6039,-7.767,4.7896,-15.675,5.8824,-2.9557,0.0,6.6986,-0.06349,18.159,5.7692,5.8615,4.6795,-10.413,12.745,1.8035
8.4676,-4.6984,0.0,6.8627,-3.9409,5.6039,-11.65,1.877,-17.625999,6.8627,-3.9409,-2.9412,14.354,3.746,21.968,10.577,11.659,5.641,-13.27,17.646999,3.7359
8.4676,-1.8413,0.97087,8.8235,-1.9704,4.6377,-9.7087,-0.06472,-13.724,8.8235,-1.9704,-1.9608,20.096001,5.6508,24.825001,13.462,16.49,7.5641,-9.4603,18.627001,3.7359
7.5197,-2.7937,0.0,6.8627,-3.9409,6.57,-7.767,-2.0065,-6.8943,6.8627,-3.9409,-0.98039,22.966999,6.6032,24.825001,10.577,16.49,3.7179,-3.746,17.646999,2.7697
5.624,-1.8413,0.97087,3.9216,-12.808,11.401,0.97087,-2.0065,-1.0407,3.9216,-12.808,0.0,23.923,7.5556,22.921,8.6538,16.49,0.83333,0.06349,16.667,4.7021
2.7804,0.06349,0.97087,1.9608,1.9704,12.367,3.8835,-1.0356,3.8374,1.9608,1.9704,1.9608,22.966999,6.6032,21.968,6.7308,17.455999,-0.12821,-0.88889,14.706,4.7021
-0.06319,-2.7937,-0.97087,5.8824,12.808,11.401,3.8835,0.90615,5.7886,5.8824,12.808,2.9412,20.096001,2.7937,16.254,0.96154,12.625,1.7949,-1.8413,10.784,0.83736
-1.9589,-8.5079,-2.9126,5.8824,8.867,1.7391,2.9126,1.877,6.7642,5.8824,8.867,4.902,12.44,0.88889,4.8254,-5.7692,3.9291,3.7179,0.06349,3.9216,-3.0274
-1.0111,-6.6032,-0.97087,-1.9608,9.8522,-4.058,6.7961,1.877,9.6911,-1.9608,9.8522,8.8235,3.8278,-1.0159,-4.6984,-10.577,-2.8341,5.641,1.9683,-1.9608,-3.9936
-1.0111,1.9683,1.9417,0.0,15.764,3.6715,13.592,2.8479,13.593,0.0,15.764,10.784,-3.8278,-4.8254,-10.413,-17.308001,-10.564,4.6795,3.873,-6.8627,-5.9259
-1.0111,8.6349,2.9126,13.725,16.749001,13.333,18.447001,5.7605,14.569,13.725,16.749001,9.8039,-10.526,-8.6349,-16.127001,-18.268999,-19.259001,3.7179,6.7302,-9.8039,-8.8245
-2.9068,8.6349,0.97087,13.725,12.808,9.4686,15.534,3.8188,10.667,13.725,12.808,6.8627,-16.268,-12.444,-20.889,-11.538,-24.09,1.7949,9.5873,-11.765,-6.8921
-5.7504,6.7302,-5.8252,-0.98039,5.9113,-0.19324,2.9126,-2.0065,3.8374,-0.98039,5.9113,1.9608,-20.096001,-17.205999,-21.841,-6.7308,-25.056,-3.0128,6.7302,-13.725,-3.9936
-6.6983,3.873,-7.767,-5.8824,-0.98522,-16.618,-4.8544,-7.8317,-0.06504,-5.8824,-0.98522,-3.9216,-20.096001,-20.063,-19.937,-4.8077,-23.124001,-8.7821,7.6825,-12.745,-2.0612
-6.6983,1.0159,-6.7961,-9.8039,-8.867,-20.483,-8.7379,-11.715,-1.0407,-9.8039,-8.867,-9.8039,-19.139,-18.159,-16.127001,-0.96154,-15.395,-13.59,8.6349,-10.784,-0.12882
-6.6983,1.0159,-5.8252,-7.8431,-12.808,-11.787,-8.7379,-10.744,-5.9187,-7.8431,-12.808,-12.745,-13.397,-16.254,-8.5079,0.96154,-7.6651,-12.628,-0.88889,-5.8824,-2.0612
-5.7504,0.06349,-1.9417,-6.8627,-8.867,-17.584999,-5.8252,-8.8026,-8.8455,-6.8627,-8.867,-10.784,-6.6986,-11.492,0.06349,2.8846,0.06441,-5.8974,-8.5079,-0.98039,-3.0274
-4.8025,0.06349,0.97087,-7.8431,-8.867,-15.652,-2.9126,-5.89,-9.8211,-7.8431,-8.867,-7.8431,2.8708,-3.873,5.7778,6.7308,8.7601,-1.0897,-7.5556,1.9608,-2.0612
-1.0111,2.9206,5.8252,-4.902,-5.9113,-7.9227,-2.9126,-2.0065,-6.8943,-4.902,-5.9113,-3.9216,10.526,-1.0159,11.492,7.6923,15.523,1.7949,-7.5556,5.8824,-3.0274
3.7283,3.873,8.7379,-7.8431,-2.9557,-3.0918,-2.9126,0.90615,-5.9187,-7.8431,-2.9557,0.0,15.311,1.8413,15.302,5.7692,18.422001,5.641,-7.5556,8.8235,-3.9936
9.4155,-0.88889,10.68,-2.9412,0.0,3.6715,-5.8252,4.7896,-5.9187,-2.9412,0.0,1.9608,17.225,3.746,16.254,0.0,17.455999,10.449,-8.5079,10.784,-5.9259
14.155,-4.6984,10.68,4.902,-1.9704,6.57,-5.8252,8.6731,-5.9187,4.902,-1.9704,2.9412,16.268,5.6508,14.349,-4.8077,11.659,14.295,-7.5556,10.784,-7.8583
16.997999,-5.6508,8.7379,4.902,-0.98522,6.57,-5.8252,9.644,-3.9675,4.902,-0.98522,2.9412,14.354,5.6508,11.492,-6.7308,4.8953,15.256,-2.7937,9.8039,-6.8921
14.155,-2.7937,2.9126,3.9216,2.9557,13.333,0.97087,8.6731,-0.06504,3.9216,2.9557,2.9412,9.5694,3.746,5.7778,-5.7692,1.0306,14.295,4.8254,6.8627,-5.9259
9.4155,2.9206,-0.97087,4.902,0.0,17.198,8.7379,5.7605,2.8618,4.902,0.0,2.9412,0.95694,-1.9683,1.0159,-9.6154,-7.6651,10.449,4.8254,1.9608,-6.8921
10.363,7.6825,0.97087,5.8824,0.98522,8.5024,11.65,3.8188,5.7886,5.8824,0.98522,4.902,-5.7416,-7.6825,-2.7937,-8.6538,-13.462,4.6795,6.7302,-2.9412,-4.9597
10.363,10.54,3.8835,2.9412,-0.98522,10.435,11.65,1.877,3.8374,2.9412,-0.98522,6.8627,-10.526,-6.7302,-6.6032,-1.9231,-12.496,0.83333,8.6349,-8.8235,-2.0612
3.7283,11.492,2.9126,-3.9216,-0.98522,4.6377,3.8835,-3.9482,-0.06504,-3.9216,-0.98522,1.9608,-13.397,-2.9206,-9.4603,3.8462,-9.5974,-6.859,5.7778,-13.725,1.8035
-3.8547,8.6349,1.9417,0.98039,2.9557,-6.9565,0.0,-10.744,-0.06504,0.98039,2.9557,0.98039,-10.526,3.746,-8.5079,8.6538,-3.8003,-13.59,4.8254,-13.725,8.5668
-9.5419,2.9206,-1.9417,1.9608,0.98522,-5.0242,-1.9417,-14.628,-1.0407,1.9608,0.98522,0.0,-2.8708,13.27,-5.6508,11.538,4.8953,-16.474001,1.9683,-7.8431,12.432
-12.385,-0.88889,-5.8252,0.0,2.9557,-5.0242,-1.9417,-15.599,-0.06504,0.0,2.9557,-1.9608,7.6555,18.983999,-1.8413,11.538,12.625,-21.282,1.0159,-1.9608,11.465
-13.333,-0.88889,-4.8544,-0.98039,3.9409,-17.584999,3.8835,-16.57,3.8374,-0.98039,3.9409,-2.9412,14.354,19.937,0.06349,7.6923,14.557,-19.358999,8.6349,-0.98039,10.499
-10.49,0.06349,-0.97087,-3.9216,6.8966,-11.787,4.8544,-14.628,6.7642,-3.9216,6.8966,0.98039,16.268,17.079,-1.8413,2.8846,14.557,-12.628,4.8254,-1.9608,4.7021
-5.7504,2.9206,-0.97087,-0.98039,13.793,-1.1594,6.7961,-5.89,9.6911,-0.98039,13.793,6.8627,12.44,12.317,-4.6984,-0.96154,11.659,-6.859,1.0159,-4.902,-2.0612
-2.9068,1.9683,-1.9417,6.8627,12.808,1.7391,12.621,3.8188,7.7398,6.8627,12.808,9.8039,5.7416,6.6032,-7.5556,-8.6538,1.0306,-1.0897,1.0159,-5.8824,-6.8921
-2.9068,-4.6984,-1.9417,3.9216,5.9113,-5.0242,7.767,5.7605,1.8862,3.9216,5.9113,3.9216,0.95694,-0.06349,-9.4603,-18.268999,-10.564,3.7179,-3.746,-4.902,-12.689
-2.9068,-7.5556,-6.7961,-2.9412,-1.9704,-4.058,3.8835,6.7314,-3.9675,-2.9412,-1.9704,-1.9608,-3.8278,-7.6825,-8.5079,-24.038,-22.158001,8.5256,-7.5556,-2.9412,-15.588
-3.8547,-2.7937,-12.621,-3.9216,-3.9409,-2.1256,2.9126,8.6731,-3.9675,-3.9216,-3.9409,-6.8627,-9.5694,-15.302,-7.5556,-20.191999,-30.853001,12.372,-7.5556,0.98039,-12.689
-3.8547,1.0159,-15.534,-1.9608,-2.9557,-4.058,1.9417,10.615,-2.0163,-1.9608,-2.9557,-9.8039,-14.354,-21.016001,-9.4603,-11.538,-33.751999,15.256,-4.6984,1.9608,-8.8245
-2.9068,1.0159,-17.476,-3.9216,-9.8522,-3.0918,-1.9417,9.644,-3.9675,-3.9216,-9.8522,-11.765,-14.354,-20.063,-8.5079,0.0,-28.921,16.218,-1.8413,2.9412,-2.0612
1.8325,-1.8413,-12.621,-10.784,-15.764,-5.9903,-7.767,7.7023,-6.8943,-10.784,-15.764,-10.784,-8.6124,-13.397,-1.8413,10.577,-16.361,13.333,1.0159,7.8431,6.6345
6.5719,-5.6508,-3.8835,0.0,-9.8522,-0.19324,-19.417,8.6731,-8.8455,0.0,-9.8522,-10.784,-2.8708,-6.7302,6.7302,20.191999,0.06441,12.372,-2.7937,13.725,11.465
11.311,-6.6032,3.8835,12.745,-7.8818,14.3,-19.417,12.557,-10.797,12.745,-7.8818,-7.8431,4.7847,-0.06349,15.302,26.923,17.455999,12.372,-5.6508,19.608,13.398
14.155,-8.5079,5.8252,8.8235,-10.837,17.198,-16.504999,11.586,-12.748,8.8235,-10.837,-5.8824,13.397,6.6032,22.921,25.962,28.084,12.372,-7.5556,23.528999,12.432
14.155,-13.27,1.9417,2.9412,-10.837,0.77295,-22.33,8.6731,-13.724,2.9412,-10.837,-5.8824,21.052999,9.4603,26.73,21.153999,33.881001,11.41,-9.4603,26.471001,7.6006
11.311,-14.222,1.9417,-2.9412,-11.823,3.6715,-22.33,5.7605,-9.8211,-2.9412,-11.823,-2.9412,26.794001,13.27,28.635,19.231001,38.712002,9.4872,-5.6508,24.51,7.6006
12.259,-7.5556,10.68,10.784,-3.9409,21.063,-8.7379,4.7896,-0.06504,10.784,-3.9409,4.902,33.493,17.079,32.444,20.191999,45.474998,6.6026,-2.7937,24.51,11.465
16.997999,1.0159,21.358999,23.528999,11.823,26.860001,8.7379,2.8479,8.7154,23.528999,11.823,13.725,35.407001,18.983999,32.444,19.231001,46.441002,-1.0897,4.8254,22.549,13.398
19.841999,11.492,28.155001,19.608,23.645,20.097,22.33,-0.06472,18.472,19.608,23.645,22.549,33.493,21.841,30.540001,18.268999,44.508999,-0.12821,12.444,19.608,14.364
20.790001,23.872999,32.039001,19.608,30.542,15.266,36.893002,-0.06472,26.275999,19.608,30.542,29.412001,30.622,18.032,28.635,16.346001,38.712002,2.7564,19.111,16.667,9.533
21.738001,30.540001,33.009998,18.627001,27.586,8.5024,39.806,-0.06472,30.179001,18.627001,27.586,32.353001,25.837,12.317,21.968,11.538,30.016001,-1.0897,24.825001,10.784,3.7359
20.790001,31.492001,29.125999,19.608,28.570999,14.3,47.573002,-1.0356,31.153999,19.608,28.570999,31.372999,19.139,7.5556,14.349,9.6154,20.354,-1.0897,26.73,5.8824,0.83736
17.945999,30.540001,21.358999,20.587999,32.512001,11.401,41.748001,-0.06472,32.130001,20.587999,32.512001,28.431,11.483,2.7937,8.6349,3.8462,10.692,-2.0513,26.73,0.0,-0.12882
15.103,23.872999,13.592,13.725,36.452999,5.6039,33.980999,-1.0356,30.179001,13.725,36.452999,22.549,0.0,-2.9206,1.9683,-3.8462,0.06441,-3.9744,24.825001,-5.8824,0.83736
10.363,12.444,2.9126,12.745,31.527,10.435,25.243,1.877,22.374001,12.745,31.527,15.686,-9.5694,-9.5873,-5.6508,-8.6538,-11.53,-3.0128,19.111,-10.784,-1.095
6.5719,3.873,-2.9126,13.725,17.733999,12.367,15.534,3.8188,13.593,13.725,17.733999,10.784,-15.311,-9.5873,-7.5556,-10.577,-19.259001,-1.0897,14.349,-14.706,-0.12882
4.6761,-2.7937,-1.9417,14.706,6.8966,1.7391,4.8544,2.8479,4.813,14.706,6.8966,4.902,-15.311,-4.8254,-10.413,-7.6923,-19.259001,-0.12821,4.8254,-14.706,0.83736
-0.06319,-10.413,-6.7961,10.784,-1.9704,-4.058,-7.767,-1.0356,-2.0163,10.784,-1.9704,-2.9412,-12.44,-1.0159,-14.222,-6.7308,-19.259001,-2.0513,0.06349,-14.706,1.8035
-3.8547,-13.27,-10.68,0.0,-8.867,-5.9903,-20.388,-3.9482,-3.9675,0.0,-8.867,-8.8235,-9.5694,2.7937,-14.222,-3.8462,-15.395,-4.9359,1.0159,-11.765,4.7021
-6.6983,-15.175,-7.767,-12.745,-6.8966,-18.551001,-20.388,-5.89,-2.9919,-12.745,-6.8966,-11.765,-7.6555,3.746,-11.365,-1.9231,-9.5974,-9.7436,1.0159,-9.8039,5.6683
-8.594,-12.317,-4.8544,-7.8431,0.0,-8.8889,-16.504999,-6.8608,1.8862,-7.8431,0.0,-12.745,-6.6986,4.6984,-11.365,0.0,-3.8003,-4.9359,2.9206,-8.8235,4.7021
-10.49,-5.6508,-2.9126,-0.98039,4.9261,-5.0242,-9.7087,-6.8608,5.7886,-0.98039,4.9261,-10.784,-6.6986,3.746,-12.317,0.0,-0.90177,-1.0897,4.8254,-8.8235,2.7697
-14.281,-0.88889,-1.9417,-1.9608,5.9113,-25.313999,2.9126,-8.8026,6.7642,-1.9608,5.9113,-6.8627,-8.6124,0.88889,-13.27,-5.7692,-5.7327,-4.9359,8.6349,-10.784,-2.0612
-21.864,-2.7937,-10.68,-1.9608,2.9557,-21.448999,3.8835,-9.7735,6.7642,-1.9608,2.9557,-6.8627,-11.483,-1.0159,-17.079,-14.423,-12.496,-9.7436,2.9206,-11.765,-6.8921
-30.395,-5.6508,-22.33,-5.8824,1.9704,-18.551001,1.9417,-11.715,7.7398,-5.8824,1.9704,-8.8235,-20.096001,-5.7778,-28.507999,-23.077,-26.989,-13.59,1.0159,-16.667,-10.757
-36.082001,-7.5556,-31.068001,-5.8824,1.9704,-20.483,7.767,-13.657,14.569,-5.8824,1.9704,-9.8039,-28.708,-14.349,-38.984001,-31.731001,-44.380001,-18.396999,9.5873,-24.51,-16.554001
-35.133999,-6.6032,-34.951,-5.8824,5.9113,-21.448999,15.534,-13.657,22.374001,-5.8824,5.9113,-6.8627,-33.493,-18.159,-44.698002,-32.692001,-53.076,-21.282,17.205999,-29.412001,-16.554001
-33.238998,-0.88889,-35.922001,-11.765,13.793,-21.448999,23.301001,-14.628,26.275999,-11.765,13.793,-1.9608,-36.363998,-19.111,-48.507999,-28.846001,-54.042,-22.243999,21.968,-32.353001,-11.723
-30.395,2.9206,-31.068001,-9.8039,18.719,-19.517,25.243,-17.540001,25.301001,-9.8039,18.719,1.9608,-36.363998,-16.254,-46.603001,-22.115,-49.210999,-29.936001,21.016001,-33.333,-6.8921
-26.603001,3.873,-21.358999,-1.9608,14.778,-13.72,20.388,-19.482,22.374001,-1.9608,14.778,1.9608,-34.450001,-11.492,-43.745998,-13.462,-37.617001,-28.013,21.016001,-33.333,-0.12882
-20.916,4.8254,-11.65,-1.9608,9.8522,-18.551001,17.476,-19.482,14.569,-1.9608,9.8522,4.902,-31.579,-8.6349,-38.984001,-4.8077,-26.023001,-21.282,16.254,-30.392,5.6683
-14.281,6.7302,0.0,-1.9608,9.8522,-5.9903,9.7087,-16.57,8.7154,-1.9608,9.8522,7.8431,-25.837,-5.7778,-30.413,0.96154,-17.327,-18.396999,9.5873,-26.471001,8.5668
-8.594,9.5873,5.8252,-2.9412,10.837,0.77295,4.8544,-13.657,4.813,-2.9412,10.837,11.765,-19.139,1.8413,-22.794001,7.6923,-9.5974,-17.436001,7.6825,-22.549,12.432
-8.594,6.7302,0.97087,-3.9216,10.837,-2.1256,3.8835,-13.657,-1.0407,-3.9216,10.837,5.8824,-13.397,4.6984,-18.032,7.6923,-5.7327,-13.59,4.8254,-19.608,12.432
-11.438,1.9683,-1.9417,-4.902,0.98522,-7.9227,-0.97087,-15.599,-4.9431,-4.902,0.98522,-2.9412,-10.526,3.746,-13.27,4.8077,-2.8341,-13.59,0.06349,-16.667,9.533
-11.438,-1.8413,-1.9417,-12.745,-3.9409,-18.551001,-5.8252,-16.57,-4.9431,-12.745,-3.9409,-5.8824,-9.5694,5.6508,-11.365,2.8846,-1.868,-12.628,-1.8413,-14.706,8.5668
-13.333,-6.6032,-7.767,-11.765,-10.837,-19.517,-5.8252,-16.57,-7.8699,-11.765,-10.837,-8.8235,-12.44,2.7937,-14.222,-2.8846,-8.6312,-9.7436,-2.7937,-14.706,1.8035
-13.333,-9.4603,-15.534,-5.8824,-10.837,-14.686,-5.8252,-11.715,-9.8211,-5.8824,-10.837,-9.8039,-14.354,-2.9206,-16.127001,-11.538,-17.327,-6.859,-10.413,-12.745,-6.8921
-10.49,-10.413,-18.447001,-7.8431,-7.8818,-10.821,-7.767,-5.89,-9.8211,-7.8431,-7.8818,-6.8627,-16.268,-3.873,-18.032,-16.346001,-21.191999,-3.0128,-17.079,-10.784,-11.723
-9.5419,-10.413,-17.476,-8.8235,-9.8522,-5.0242,-12.621,-2.9773,-9.8211,-8.8235,-9.8522,-7.8431,-17.225,-3.873,-18.983999,-16.346001,-22.158001,-0.12821,-13.27,-10.784,-11.723
-9.5419,-8.5079,-13.592,-7.8431,-16.749001,-4.058,-17.476,-0.06472,-7.8699,-7.8431,-16.749001,-9.8039,-17.225,-5.7778,-16.127001,-13.462,-18.292999,-0.12821,-6.6032,-11.765,-9.7907
-5.7504,-5.6508,-5.8252,-9.8039,-22.66,-3.0918,-12.621,2.8479,-2.0163,-9.8039,-22.66,-8.8235,-17.225,-7.6825,-12.317,-7.6923,-12.496,-0.12821,1.0159,-11.765,-6.8921
0.88468,1.9683,2.9126,-3.9216,-12.808,5.6039,-4.8544,6.7314,1.8862,-3.9216,-12.808,-0.98039,-16.268,-6.7302,-7.5556,-2.8846,-5.7327,0.83333,4.8254,-11.765,-2.0612
5.624,9.5873,7.767,9.8039,2.9557,19.129999,6.7961,12.557,3.8374,9.8039,2.9557,7.8431,-13.397,-5.7778,-3.746,1.9231,1.0306,1.7949,4.8254,-9.8039,1.8035
8.4676,11.492,13.592,12.745,4.9261,17.198,14.563,14.498,5.7886,12.745,4.9261,13.725,-10.526,-6.7302,-0.88889,4.8077,7.7939,1.7949,3.873,-7.8431,1.8035
12.259,12.444,15.534,18.627001,10.837,23.961,15.534,18.382,3.8374,18.627001,10.837,17.646999,-4.7847,-4.8254,4.8254,9.6154,14.557,2.7564,1.9683,-3.9216,1.8035
15.103,12.444,14.563,24.51,6.8966,28.792,8.7379,18.382,-2.9919,24.51,6.8966,14.706,2.8708,-1.9683,11.492,16.346001,20.354,6.6026,0.06349,1.9608,5.6683
14.155,10.54,15.534,12.745,-12.808,11.401,-3.8835,13.528,-9.8211,12.745,-12.808,7.8431,6.6986,1.8413,14.349,23.077,26.150999,12.372,-5.6508,5.8824,11.465
11.311,5.7778,15.534,2.9412,-10.837,6.57,-11.65,9.644,-17.625999,2.9412,-10.837,-0.98039,9.5694,5.6508,18.159,25.962,31.948,14.295,-8.5079,8.8235,15.33
8.4676,2.9206,13.592,8.8235,-9.8522,9.4686,-15.534,6.7314,-24.455,8.8235,-9.8522,-7.8431,10.526,7.5556,20.063,25.962,32.915001,13.333,-9.4603,11.765,12.432
6.5719,2.9206,10.68,9.8039,-18.719,6.57,-20.388,3.8188,-28.358,9.8039,-18.719,-10.784,9.5694,8.5079,19.111,22.115,28.084,12.372,-17.079,11.765,10.499
1.8325,1.9683,7.767,-1.9608,-20.690001,-4.058,-21.358999,0.90615,-28.358,-1.9608,-20.690001,-13.725,6.6986,6.6032,13.397,17.308001,22.287001,9.4872,-20.889,11.765,6.6345
-1.0111,0.06349,5.8252,-6.8627,-23.645,-6.9565,-18.447001,-1.0356,-25.431,-6.8627,-23.645,-12.745,8.6124,6.6032,7.6825,11.538,17.455999,9.4872,-20.889,12.745,2.7697
-2.9068,-0.88889,5.8252,-11.765,-18.719,-7.9227,-19.417,-1.0356,-21.528,-11.765,-18.719,-13.725,9.5694,5.6508,5.7778,8.6538,13.591,6.6026,-21.841,10.784,-0.12882
-1.0111,-3.746,5.8252,-10.784,-14.778,-5.9903,-17.476,-0.06472,-17.625999,-10.784,-14.778,-12.745,10.526,5.6508,5.7778,7.6923,11.659,4.6795,-20.889,11.765,-0.12882
1.8325,-3.746,3.8835,-7.8431,-19.704,-7.9227,-17.476,1.877,-15.675,-7.8431,-19.704,-9.8039,11.483,4.6984,7.6825,6.7308,12.625,6.6026,-18.032,13.725,-1.095
7.5197,1.0159,10.68,-1.9608,-19.704,5.6039,-10.68,4.7896,-13.724,-1.9608,-19.704,-3.9216,16.268,4.6984,16.254,8.6538,16.49,9.4872,-13.27,18.627001,0.83736
13.207,2.9206,16.504999,-2.9412,-15.764,14.3,-6.7961,6.7314,-9.8211,-2.9412,-15.764,0.0,20.096001,7.5556,21.968,9.6154,21.32,10.449,-8.5079,21.569,1.8035
14.155,1.9683,17.476,-1.9608,-9.8522,11.401,-6.7961,7.7023,-8.8455,-1.9608,-9.8522,0.98039,21.052999,7.5556,23.872999,8.6538,25.184999,16.218,-7.5556,21.569,0.83736
17.945999,4.8254,22.33,-2.9412,-7.8818,11.401,-3.8835,11.586,-6.8943,-2.9412,-7.8818,3.9216,22.966999,5.6508,27.683001,8.6538,29.049999,22.948999,-9.4603,25.49,-2.0612
24.580999,7.6825,26.214001,-3.9216,-5.9113,9.4686,0.0,14.498,-5.9187,-3.9216,-5.9113,5.8824,24.879999,3.746,32.444,9.6154,33.881001,23.91,-6.6032,28.431,-3.9936
28.372999,10.54,28.155001,3.9216,-7.8818,18.164,5.8252,17.410999,-5.9187,3.9216,-7.8818,4.902,28.708,4.6984,40.063,12.5,37.745998,24.872,-8.5079,31.372999,-4.9597
29.320999,8.6349,30.097,6.8627,-5.9113,23.961,4.8544,19.353001,-5.9187,6.8627,-5.9113,3.9216,34.450001,7.5556,47.682999,14.423,38.712002,24.872,-10.413,33.333,-3.0274
26.476999,0.06349,26.214001,3.9216,-8.867,16.232,0.0,18.382,-5.9187,3.9216,-8.867,1.9608,36.363998,8.5079,47.682999,12.5,37.745998,24.872,-12.317,32.353001,-3.0274
23.632999,-6.6032,22.33,3.9216,-7.8818,12.367,-7.767,15.469,-9.8211,3.9216,-7.8818,0.0,38.278,10.413,43.873001,10.577,37.745998,23.91,-14.222,32.353001,-3.9936
21.738001,-8.5079,22.33,0.98039,-10.837,10.435,-11.65,12.557,-13.724,0.98039,-10.837,0.0,41.147999,12.317,43.873001,6.7308,36.778999,21.987,-18.983999,32.353001,-4.9597
20.790001,-6.6032,20.388,0.98039,-14.778,6.57,-10.68,9.644,-15.675,0.98039,-14.778,-0.98039,42.105,11.365,44.825001,3.8462,34.847,17.179001,-24.698,33.333,-5.9259
16.997999,-5.6508,12.621,-5.8824,-6.8966,5.6039,-10.68,4.7896,-12.748,-5.8824,-6.8966,-2.9412,40.191002,10.413,41.967999,3.8462,32.915001,15.256,-19.937,32.353001,-3.9936
11.311,-7.5556,4.8544,-9.8039,-2.9557,-3.0918,-10.68,-1.0356,-6.8943,-9.8039,-2.9557,-6.8627,34.450001,7.5556,36.254002,6.7308,27.118,9.4872,-14.222,27.451,-1.095
11.311,-9.4603,6.7961,-5.8824,-5.9113,-15.652,-13.592,-5.89,-2.0163,-5.8824,-5.9113,-6.8627,28.708,7.5556,30.540001,11.538,25.184999,-0.12821,-11.365,24.51,1.8035
13.207,-8.5079,10.68,1.9608,-3.9409,-2.1256,-12.621,-8.8026,-2.0163,1.9608,-3.9409,-5.8824,27.750999,10.413,29.587,19.231001,27.118,2.7564,-8.5079,25.49,4.7021
13.207,-3.746,13.592,3.9216,-4.9261,2.7053,-8.7379,-10.744,-3.9675,3.9216,-4.9261,-6.8627,30.622,15.175,33.396999,25.0,30.982,6.6026,-5.6508,27.451,9.533
8.4676,-4.6984,7.767,-0.98039,-11.823,-9.8551,-13.592,-11.715,-6.8943,-0.98039,-11.823,-11.765,30.622,14.222,31.492001,21.153999,27.118,3.7179,-7.5556,27.451,7.6006
3.7283,-7.5556,-1.9417,-5.8824,-12.808,-9.8551,-16.504999,-10.744,-7.8699,-5.8824,-12.808,-14.706,28.708,10.413,26.73,13.462,20.354,3.7179,-7.5556,25.49,3.7359
3.7283,-6.6032,-3.8835,-8.8235,-8.867,-11.787,-18.447001,-7.8317,-5.9187,-8.8235,-8.867,-13.725,29.665001,11.365,26.73,11.538,19.388,5.641,-3.746,27.451,3.7359
4.6761,-5.6508,-1.9417,-6.8627,-6.8966,-8.8889,-18.447001,-3.9482,-6.8943,-6.8627,-6.8966,-12.745,29.665001,11.365,26.73,10.577,19.388,7.5641,-0.88889,28.431,1.8035
4.6761,-8.5079,-4.8544,-7.8431,-16.749001,-8.8889,-24.271999,-1.0356,-11.772,-7.8431,-16.749001,-14.706,28.708,13.27,23.872999,8.6538,17.455999,10.449,-5.6508,27.451,1.8035
1.8325,-13.27,-7.767,-7.8431,-22.66,-0.19324,-29.125999,1.877,-18.601999,-7.8431,-22.66,-15.686,25.837,12.317,20.063,4.8077,13.591,10.449,-10.413,24.51,-0.12882
-1.0111,-23.746,-9.7087,-5.8824,-27.586,10.435,-29.125999,5.7605,-24.455,-5.8824,-27.586,-16.667,21.052999,7.5556,16.254,-2.8846,5.8615,10.449,-18.032,19.608,-5.9259
-0.06319,-33.27,-16.504999,-3.9216,-27.586,9.4686,-32.039001,11.586,-28.358,-3.9216,-27.586,-15.686,14.354,6.6032,8.6349,-11.538,-1.868,15.256,-24.698,15.686,-7.8583
1.8325,-33.27,-26.214001,-0.98039,-23.645,14.3,-33.009998,18.382,-29.333,-0.98039,-23.645,-10.784,5.7416,4.6984,1.0159,-18.268999,-13.462,20.063999,-27.556,10.784,-10.757
-0.06319,-28.507999,-29.125999,1.9608,-14.778,11.401,-31.068001,23.236,-27.382,1.9608,-14.778,-6.8627,-3.8278,-0.06349,-4.6984,-20.191999,-24.09,21.025999,-27.556,4.902,-12.689
-4.8025,-22.794001,-29.125999,6.8627,-14.778,15.266,-23.301001,22.264999,-23.48,6.8627,-14.778,-5.8824,-11.483,-3.873,-12.317,-17.308001,-29.886999,19.103001,-20.889,-1.9608,-9.7907
-9.5419,-17.079,-29.125999,1.9608,-15.764,11.401,-25.243,15.469,-20.552999,1.9608,-15.764,-11.765,-13.397,-4.8254,-15.175,-10.577,-30.853001,16.218,-15.175,-4.902,-7.8583
-13.333,-14.222,-25.243,-6.8627,-17.733999,-11.787,-26.214001,5.7605,-14.699,-6.8627,-17.733999,-19.608,-8.6124,1.8413,-11.365,-2.8846,-24.09,10.449,-11.365,-3.9216,-3.0274
-17.125,-13.27,-21.358999,-12.745,-14.778,-16.618,-20.388,-0.06472,-6.8943,-12.745,-14.778,-23.528999,-4.7847,4.6984,-7.5556,-0.96154,-17.327,6.6026,-4.6984,-1.9608,-1.095
-19.021,-14.222,-19.417,-15.686,-6.8966,-16.618,-17.476,-2.9773,-0.06504,-15.686,-6.8966,-24.51,-3.8278,3.746,-6.6032,-2.8846,-12.496,8.5256,1.0159,-1.9608,-3.9936
-18.073,-17.079,-16.504999,-18.627001,-3.9409,-20.483,-13.592,-3.9482,1.8862,-18.627001,-3.9409,-23.528999,-1.9139,0.88889,-6.6032,-7.6923,-10.564,7.5641,2.9206,-0.98039,-6.8921
-15.229,-18.983999,-13.592,-16.667,-2.9557,-20.483,-17.476,-2.9773,2.8618,-16.667,-2.9557,-21.569,-1.9139,-1.0159,-5.6508,-11.538,-9.5974,5.641,3.873,-1.9608,-8.8245
-12.385,-16.127001,-13.592,-6.8627,-0.98522,-10.821,-18.447001,-1.0356,5.7886,-6.8627,-0.98522,-14.706,0.0,0.88889,-6.6032,-8.6538,-7.6651,5.641,7.6825,-2.9412,-5.9259
-9.5419,-13.27,-12.621,7.8431,8.867,-3.0918,-8.7379,2.8479,8.7154,7.8431,8.867,-6.8627,1.9139,1.8413,-7.5556,-5.7692,-5.7327,5.641,9.5873,-2.9412,-1.095
-7.6461,-15.175,-16.504999,14.706,8.867,-4.058,-2.9126,5.7605,7.7398,14.706,8.867,0.98039,0.95694,3.746,-7.5556,-5.7692,-8.6312,5.641,7.6825,-3.9216,-2.0612
-9.5419,-18.032,-25.243,13.725,9.8522,4.6377,4.8544,6.7314,3.8374,13.725,9.8522,7.8431,-0.95694,5.6508,-9.4603,-6.7308,-15.395,9.4872,6.7302,-3.9216,-2.0612
-12.385,-18.032,-31.068001,10.784,19.704,0.77295,0.97087,7.7023,-2.9919,10.784,19.704,10.784,-5.7416,3.746,-13.27,-10.577,-25.056,10.449,-0.88889,-4.902,-4.9597
-16.177,-16.127001,-27.184,12.745,18.719,-0.19324,-1.9417,7.7023,-6.8943,12.745,18.719,8.8235,-8.6124,1.8413,-18.032,-10.577,-27.955,4.6795,-1.8413,-6.8627,-2.0612
-19.021,-11.365,-18.447001,10.784,17.733999,2.7053,-2.9126,3.8188,-2.9919,10.784,17.733999,4.902,-8.6124,3.746,-18.983999,-6.7308,-24.09,-1.0897,0.06349,-11.765,2.7697
-21.864,-3.746,-10.68,11.765,19.704,-1.1594,-0.97087,-2.9773,4.813,11.765,19.704,2.9412,-7.6555,3.746,-17.079,-3.8462,-19.259001,-3.0128,1.9683,-12.745,3.7359
-20.916,1.0159,-5.8252,11.765,18.719,-2.1256,5.8252,-5.89,10.667,11.765,18.719,4.902,-10.526,1.8413,-18.983999,-4.8077,-17.327,-3.9744,5.7778,-13.725,3.7359
-16.177,6.7302,-3.8835,5.8824,20.690001,-1.1594,14.563,-6.8608,17.496,5.8824,20.690001,11.765,-17.225,-0.06349,-20.889,-7.6923,-19.259001,-6.859,13.397,-17.646999,3.7359
-8.594,10.54,-2.9126,2.9412,25.615999,7.5362,20.388,-7.8317,23.35,2.9412,25.615999,16.667,-19.139,-4.8254,-18.983999,-10.577,-19.259001,-8.7821,18.159,-18.627001,0.83736
-1.9589,7.6825,-3.8835,4.902,25.615999,11.401,20.388,-6.8608,23.35,4.902,25.615999,17.646999,-22.966999,-8.6349,-19.937,-14.423,-21.191999,-11.667,21.016001,-20.587999,-0.12882
1.8325,3.873,-7.767,6.8627,22.66,5.6039,17.476,-3.9482,21.398001,6.8627,22.66,18.627001,-26.794001,-8.6349,-21.841,-15.385,-22.158001,-9.7436,19.111,-20.587999,-1.095
1.8325,-0.88889,-12.621,3.9216,18.719,10.435,16.504999,-1.0356,19.447001,3.9216,18.719,16.667,-30.622,-11.492,-19.937,-15.385,-25.056,-8.7821,15.302,-19.608,-3.0274
1.8325,-6.6032,-15.534,10.784,18.719,13.333,16.504999,2.8479,17.496,10.784,18.719,14.706,-31.579,-13.397,-18.032,-16.346001,-26.023001,-3.9744,12.444,-17.646999,-4.9597
4.6761,-9.4603,-16.504999,18.627001,18.719,17.198,17.476,6.7314,17.496,18.627001,18.719,15.686,-28.708,-15.302,-14.222,-18.268999,-24.09,2.7564,10.54,-14.706,-8.8245
8.4676,-9.4603,-11.65,18.627001,24.631001,17.198,18.447001,10.615,16.52,18.627001,24.631001,18.627001,-24.879999,-18.159,-10.413,-23.077,-22.158001,0.83333,7.6825,-11.765,-15.588
7.5197,-6.6032,-6.7961,16.667,24.631001,21.063,21.358999,12.557,14.569,16.667,24.631001,21.569,-23.923,-23.872999,-9.4603,-25.962,-23.124001,3.7179,4.8254,-10.784,-18.486
5.624,2.9206,-2.9126,16.667,21.674999,18.164,24.271999,12.557,14.569,16.667,21.674999,24.51,-25.837,-25.778,-12.317,-24.038,-24.09,3.7179,6.7302,-13.725,-18.486
1.8325,14.349,2.9126,7.8431,18.719,14.3,24.271999,7.7023,16.52,7.8431,18.719,25.49,-27.750999,-26.73,-17.079,-20.191999,-25.056,-3.9744,15.302,-18.627001,-14.622
-2.9068,21.968,4.8544,0.0,11.823,9.4686,23.301001,-0.06472,15.545,0.0,11.823,21.569,-29.665001,-25.778,-22.794001,-17.308001,-26.023001,-11.667,20.063,-23.528999,-7.8583
-6.6983,24.825001,5.8252,-8.8235,4.9261,-0.19324,18.447001,-4.9191,11.642,-8.8235,4.9261,13.725,-29.665001,-23.872999,-25.650999,-12.5,-26.023001,-13.59,16.254,-24.51,-4.9597
-12.385,23.872999,0.97087,-15.686,0.0,-9.8551,14.563,-7.8317,10.667,-15.686,0.0,4.902,-32.535999,-25.778,-29.459999,-10.577,-29.886999,-14.551,15.302,-25.49,-2.0612
-16.177,21.968,-2.9126,-11.765,2.9557,-10.821,15.534,-7.8317,13.593,-11.765,2.9557,0.0,-36.363998,-24.825001,-31.365,-9.6154,-31.82,-17.436001,18.159,-26.471001,-1.095
-11.438,20.063,0.0,-13.725,4.9261,-11.787,22.33,-6.8608,17.496,-13.725,4.9261,2.9412,-34.450001,-19.111,-26.603001,-4.8077,-26.989,-15.513,19.111,-24.51,2.7697
-1.0111,21.016001,4.8544,-14.706,10.837,-4.058,28.155001,-6.8608,21.398001,-14.706,10.837,8.8235,-26.794001,-13.397,-16.127001,0.0,-17.327,-12.628,20.063,-16.667,5.6683
5.624,21.968,7.767,-4.902,18.719,4.6377,30.097,-6.8608,21.398001,-4.902,18.719,10.784,-18.181999,-8.6349,-7.5556,0.96154,-8.6312,-10.705,17.205999,-9.8039,6.6345
9.4155,17.205999,6.7961,0.0,19.704,4.6377,30.097,-5.89,20.423,0.0,19.704,10.784,-9.5694,-4.8254,0.06349,0.96154,-1.868,-4.9359,14.349,-2.9412,2.7697
10.363,12.444,4.8544,2.9412,21.674999,3.6715,30.097,-4.9191,19.447001,2.9412,21.674999,10.784,-5.7416,-5.7778,5.7778,-1.9231,1.0306,-2.0513,9.5873,0.98039,-2.0612
5.624,9.5873,3.8835,6.8627,27.586,-3.0918,28.155001,-4.9191,17.496,6.8627,27.586,9.8039,-5.7416,-5.7778,6.7302,-1.9231,-0.90177,-4.9359,9.5873,2.9412,-4.9597
-1.0111,6.7302,1.9417,-0.98039,21.674999,0.77295,18.447001,-7.8317,12.618,-0.98039,21.674999,5.8824,-7.6555,-6.7302,2.9206,0.96154,-3.8003,-7.8205,4.8254,1.9608,-4.9597
-4.8025,8.6349,1.9417,-7.8431,12.808,7.5362,12.621,-7.8317,6.7642,-7.8431,12.808,1.9608,-6.6986,-4.8254,0.06349,5.7692,-3.8003,-3.0128,4.8254,0.0,-3.0274
-5.7504,12.444,4.8544,-10.784,-0.98522,-0.19324,7.767,-6.8608,-0.06504,-10.784,-0.98522,-2.9412,-6.6986,-5.7778,-0.88889,8.6538,-0.90177,-0.12821,6.7302,-0.98039,-0.12882
-5.7504,10.54,6.7961,-11.765,-10.837,-8.8889,-2.9126,-4.9191,-10.797,-11.765,-10.837,-7.8431,-10.526,-9.5873,-5.6508,8.6538,1.0306,-2.0513,1.0159,-4.902,-0.12882
-3.8547,10.54,9.7087,-16.667,-16.749001,-12.754,-11.65,-1.0356,-16.65,-16.667,-16.749001,-9.8039,-12.44,-12.444,-7.5556,10.577,3.9291,-1.0897,-1.8413,-6.8627,-1.095
-1.0111,13.397,11.65,-14.706,-14.778,-4.058,-7.767,1.877,-15.675,-14.706,-14.778,-6.8627,-13.397,-16.254,-7.5556,11.538,5.8615,-2.0513,-2.7937,-5.8824,-1.095
1.8325,11.492,11.65,-17.646999,-20.690001,-8.8889,-0.97087,0.90615,-13.724,-17.646999,-20.690001,-4.902,-15.311,-17.205999,-8.5079,12.5,4.8953,-3.0128,-1.8413,-6.8627,1.8035
1.8325,12.444,11.65,-16.667,-14.778,-4.058,-3.8835,0.90615,-10.797,-16.667,-14.778,-5.8824,-14.354,-14.349,-10.413,14.423,6.8277,-5.8974,2.9206,-6.8627,6.6345
-0.06319,11.492,9.7087,-11.765,-13.793,-0.19324,-4.8544,-4.9191,-9.8211,-11.765,-13.793,-10.784,-10.526,-9.5873,-9.4603,16.346001,7.7939,-11.667,-0.88889,-8.8235,9.533
-1.9589,9.5873,7.767,-15.686,-17.733999,-9.8551,-3.8835,-9.7735,-5.9187,-15.686,-17.733999,-13.725,-5.7416,-2.9206,-6.6032,20.191999,11.659,-15.513,0.06349,-7.8431,14.364
-2.9068,12.444,8.7379,-26.471001,-18.719,-20.483,1.9417,-14.628,-2.9919,-26.471001,-18.719,-12.745,0.95694,7.5556,-1.8413,28.846001,16.49,-17.436001,7.6825,-3.9216,23.059999
-2.9068,19.111,10.68,-22.549,-11.823,-22.415001,5.8252,-16.57,-1.0407,-22.549,-11.823,-10.784,6.6986,15.175,3.873,31.731001,19.388,-17.436001,12.444,0.0,26.924
-2.9068,19.111,14.563,-11.765,-3.9409,-10.821,6.7961,-16.57,-0.06504,-11.765,-3.9409,-7.8431,11.483,15.175,7.6825,28.846001,20.354,-14.551,12.444,3.9216,24.025999
-3.8547,15.302,12.621,-7.8431,-1.9704,-6.9565,5.8252,-14.628,-0.06504,-7.8431,-1.9704,-6.8627,13.397,12.317,8.6349,25.962,21.32,-13.59,8.6349,5.8824,18.229
1.8325,17.205999,13.592,-10.784,-1.9704,-5.9903,9.7087,-11.715,0.91057,-10.784,-1.9704,-0.98039,14.354,9.4603,13.397,24.038,23.253,-5.8974,5.7778,8.8235,16.296
9.4155,18.159,16.504999,-3.9216,-2.9557,-0.19324,13.592,-3.9482,-1.0407,-3.9216,-2.9557,7.8431,15.311,9.4603,17.205999,23.077,25.184999,2.7564,4.8254,10.784,16.296
14.155,14.349,17.476,4.902,-2.9557,6.57,11.65,3.8188,-4.9431,4.902,-2.9557,11.765,9.5694,4.6984,15.302,18.268999,22.287001,4.6795,-1.8413,8.8235,11.465
14.155,5.7778,12.621,9.8039,2.9557,19.129999,3.8835,7.7023,-8.8455,9.8039,2.9557,9.8039,4.7847,-4.8254,11.492,8.6538,16.49,3.7179,-12.317,6.8627,0.83736
16.051001,-3.746,10.68,6.8627,5.9113,23.961,-1.9417,10.615,-12.748,6.8627,5.9113,9.8039,3.8278,-9.5873,10.54,0.0,13.591,3.7179,-17.079,9.8039,-6.8921
19.841999,-7.5556,11.65,4.902,0.0,16.232,-6.7961,10.615,-16.65,4.902,0.0,6.8627,5.7416,-9.5873,13.397,-3.8462,13.591,6.6026,-18.032,11.765,-9.7907
16.051001,-11.365,7.767,3.9216,-11.823,17.198,-12.621,8.6731,-20.552999,3.9216,-11.823,-0.98039,7.6555,-6.7302,14.349,-4.8077,12.625,6.6026,-18.983999,12.745,-7.8583
6.5719,-17.079,1.9417,0.0,-20.690001,10.435,-21.358999,3.8188,-21.528,0.0,-20.690001,-13.725,9.5694,-3.873,11.492,-7.6923,8.7601,1.7949,-18.983999,11.765,-5.9259
1.8325,-18.983999,-3.8835,-7.8431,-25.615999,-2.1256,-25.243,-0.06472,-19.577,-7.8431,-25.615999,-20.587999,10.526,1.8413,10.54,-5.7692,6.8277,-0.12821,-18.032,11.765,-2.0612
-0.06319,-14.222,-2.9126,-17.646999,-29.556999,-11.787,-21.358999,-2.9773,-17.625999,-17.646999,-29.556999,-21.569,13.397,8.5079,11.492,-0.96154,6.8277,-3.0128,-16.127001,12.745,3.7359
-1.0111,-7.5556,2.9126,-17.646999,-20.690001,-15.652,-17.476,-3.9482,-13.724,-17.646999,-20.690001,-20.587999,16.268,16.127001,12.444,6.7308,10.692,-5.8974,-9.4603,11.765,10.499
-1.9589,1.9683,6.7961,-6.8627,-10.837,-7.9227,-8.7379,-2.0065,-7.8699,-6.8627,-10.837,-13.725,15.311,21.841,7.6825,15.385,13.591,-5.8974,-5.6508,9.8039,15.33
-3.8547,8.6349,7.767,-2.9412,-8.867,-5.0242,-3.8835,-2.9773,-3.9675,-2.9412,-8.867,-5.8824,14.354,24.698,1.9683,19.231001,13.591,-7.8205,-5.6508,5.8824,18.229
-3.8547,13.397,11.65,-6.8627,-6.8966,-6.9565,5.8252,-4.9191,-1.0407,-6.8627,-6.8966,1.9608,14.354,23.746,1.0159,20.191999,15.523,-12.628,-3.746,2.9412,18.229
1.8325,18.159,17.476,-2.9412,3.9409,-12.754,11.65,-2.9773,3.8374,-2.9412,3.9409,8.8235,16.268,21.841,2.9206,24.038,21.32,-11.667,0.06349,0.98039,18.229
9.4155,23.872999,21.358999,3.9216,14.778,-0.19324,16.504999,1.877,8.7154,3.9216,14.778,15.686,16.268,18.983999,7.6825,25.0,23.253,-6.859,5.7778,0.98039,17.261999
14.155,24.825001,23.301001,12.745,17.733999,21.063,25.243,6.7314,14.569,12.745,17.733999,19.608,13.397,12.317,10.54,17.308001,20.354,1.7949,13.397,1.9608,13.398
18.893999,18.159,23.301001,18.627001,14.778,22.995001,25.243,9.644,13.593,18.627001,14.778,20.587999,10.526,3.746,12.444,6.7308,16.49,8.5256,12.444,6.8627,5.6683
17.945999,12.444,19.417,11.765,4.9261,19.129999,19.417,8.6731,6.7642,11.765,4.9261,19.608,7.6555,-1.9683,14.349,-3.8462,11.659,12.372,7.6825,11.765,-3.9936
14.155,6.7302,11.65,11.765,-7.8818,16.232,7.767,7.7023,-3.9675,11.765,-7.8818,11.765,7.6555,-4.8254,15.302,-8.6538,6.8277,11.41,-0.88889,14.706,-8.8245
9.4155,-2.7937,1.9417,5.8824,-10.837,9.4686,-5.8252,4.7896,-11.772,5.8824,-10.837,0.0,7.6555,-4.8254,15.302,-10.577,2.963,12.372,-9.4603,18.627001,-8.8245
7.5197,-10.413,-5.8252,-1.9608,-9.8522,2.7053,-21.358999,1.877,-17.625999,-1.9608,-9.8522,-8.8235,8.6124,-1.9683,15.302,-10.577,-0.90177,15.256,-15.175,21.569,-5.9259
5.624,-15.175,-7.767,-10.784,-18.719,-3.0918,-32.039001,-1.0356,-24.455,-10.784,-18.719,-14.706,10.526,0.88889,15.302,-10.577,-3.8003,11.41,-18.032,21.569,-3.9936
5.624,-16.127001,-4.8544,-12.745,-29.556999,-9.8551,-28.155001,-2.9773,-24.455,-12.745,-29.556999,-16.667,13.397,5.6508,13.397,-7.6923,-2.8341,9.4872,-19.937,19.608,-1.095
8.4676,-10.413,-1.9417,-4.902,-27.586,-6.9565,-22.33,-3.9482,-18.601999,-4.902,-27.586,-14.706,14.354,11.365,12.444,-3.8462,1.9968,10.449,-15.175,16.667,2.7697
8.4676,-2.7937,1.9417,-3.9216,-11.823,-2.1256,-13.592,-4.9191,-7.8699,-3.9216,-11.823,-10.784,14.354,13.27,11.492,-1.9231,3.9291,3.7179,-7.5556,13.725,3.7359
6.5719,2.9206,5.8252,-1.9608,1.9704,-4.058,-1.9417,-5.89,3.8374,-1.9608,1.9704,-4.902,11.483,14.222,7.6825,0.96154,5.8615,-3.9744,1.0159,8.8235,4.7021
4.6761,5.7778,6.7961,0.98039,5.9113,-3.0918,7.767,-5.89,12.618,0.98039,5.9113,0.98039,8.6124,15.175,1.9683,3.8462,5.8615,-10.705,8.6349,2.9412,7.6006
2.7804,4.8254,5.8252,1.9608,11.823,-7.9227,11.65,-5.89,17.496,1.9608,11.823,5.8824,5.7416,15.175,-1.8413,3.8462,2.963,-14.551,16.254,-3.9216,9.533
-0.06319,3.873,6.7961,0.0,4.9261,-5.9903,11.65,-4.9191,19.447001,0.0,4.9261,7.8431,1.9139,16.127001,-4.6984,5.7692,1.9968,-16.474001,14.349,-10.784,12.432
-1.0111,5.7778,3.8835,6.8627,11.823,5.6039,14.563,-2.0065,23.35,6.8627,11.823,10.784,-2.8708,13.27,-8.5079,7.6923,1.0306,-14.551,16.254,-15.686,11.465
-2.9068,4.8254,-2.9126,14.706,26.601,7.5362,19.417,0.90615,24.325001,14.706,26.601,8.8235,-7.6555,1.8413,-12.317,-1.9231,-4.7665,-10.705,18.159,-17.646999,0.83736
-2.9068,0.06349,-7.767,14.706,22.66,3.6715,15.534,4.7896,20.423,14.706,22.66,6.8627,-12.44,-8.6349,-14.222,-14.423,-14.428,-4.9359,12.444,-14.706,-11.723
-1.0111,-3.746,-11.65,4.902,8.867,-0.19324,9.7087,8.6731,14.569,4.902,8.867,5.8824,-14.354,-13.397,-15.175,-22.115,-21.191999,0.83333,8.6349,-11.765,-17.52
-2.9068,-7.5556,-16.504999,1.9608,3.9409,-2.1256,2.9126,9.644,9.6911,1.9608,3.9409,2.9412,-13.397,-17.205999,-13.27,-25.0,-23.124001,2.7564,3.873,-7.8431,-22.351
-1.9589,-8.5079,-14.563,11.765,2.9557,4.6377,1.9417,10.615,4.813,11.765,2.9557,0.0,-9.5694,-18.159,-8.5079,-22.115,-20.225,3.7179,-3.746,-2.9412,-23.316999
2.7804,-5.6508,-6.7961,9.8039,2.9557,11.401,4.8544,10.615,-0.06504,9.8039,2.9557,3.9216,-1.9139,-14.349,-0.88889,-14.423,-12.496,7.5641,-8.5079,3.9216,-17.52
9.4155,0.06349,0.97087,4.902,0.0,14.3,-4.8544,10.615,-4.9431,4.902,0.0,6.8627,6.6986,-8.6349,8.6349,-4.8077,-2.8341,9.4872,-9.4603,9.8039,-10.757
16.997999,2.9206,11.65,13.725,2.9557,14.3,-8.7379,10.615,-6.8943,13.725,2.9557,8.8235,15.311,-1.9683,18.159,4.8077,9.7262,6.6026,-9.4603,17.646999,-1.095
20.790001,3.873,19.417,13.725,-0.98522,10.435,-7.767,7.7023,-8.8455,13.725,-0.98522,8.8235,22.01,4.6984,23.872999,11.538,20.354,12.372,-8.5079,22.549,3.7359
17.945999,5.7778,20.388,4.902,-1.9704,9.4686,-7.767,2.8479,-7.8699,4.902,-1.9704,5.8824,24.879999,12.317,27.683001,18.268999,28.084,16.218,-6.6032,23.528999,10.499
15.103,5.7778,18.447001,0.0,-5.9113,-0.19324,-9.7087,-0.06472,-4.9431,0.0,-5.9113,2.9412,24.879999,17.079,26.73,21.153999,31.948,11.41,-3.746,22.549,14.364
15.103,6.7302,16.504999,4.902,-4.9261,2.7053,-4.8544,-2.0065,-0.06504,4.902,-4.9261,2.9412,22.966999,20.889,23.872999,21.153999,33.881001,6.6026,2.9206,17.646999,17.261999
16.051001,9.5873,17.476,3.9216,1.9704,-2.1256,5.8252,-2.9773,5.7886,3.9216,1.9704,7.8431,22.966999,18.032,21.968,17.308001,31.948,-0.12821,5.7778,11.765,14.364
14.155,11.492,18.447001,6.8627,1.9704,2.7053,12.621,-5.89,10.667,6.8627,1.9704,11.765,22.01,16.127001,19.111,13.462,30.016001,-7.8205,6.7302,5.8824,13.398
10.363,7.6825,15.534,7.8431,7.8818,4.6377,12.621,-8.8026,13.593,7.8431,7.8818,12.745,19.139,16.127001,14.349,11.538,28.084,-10.705,9.5873,0.98039,13.398
10.363,7.6825,12.621,7.8431,13.793,-0.19324,15.534,-8.8026,15.545,7.8431,13.793,13.725,17.225,14.222,11.492,8.6538,24.219,-10.705,11.492,-0.98039,8.5668
14.155,11.492,17.476,3.9216,13.793,8.5024,17.476,-3.9482,19.447001,3.9216,13.793,17.646999,15.311,11.365,13.397,8.6538,21.32,-5.8974,10.54,0.98039,6.6345
16.997999,10.54,16.504999,5.8824,11.823,5.6039,11.65,-0.06472,18.472,5.8824,11.823,14.706,10.526,7.5556,15.302,8.6538,17.455999,-2.0513,11.492,2.9412,2.7697
16.997999,7.6825,11.65,4.902,8.867,7.5362,8.7379,0.90615,17.496,4.902,8.867,9.8039,5.7416,2.7937,15.302,4.8077,8.7601,-2.0513,14.349,3.9216,-2.0612
13.207,4.8254,5.8252,-0.98039,6.8966,13.333,8.7379,-0.06472,20.423,-0.98039,6.8966,6.8627,0.0,-4.8254,12.444,-1.9231,-1.868,-1.0897,17.205999,0.98039,-3.0274
7.5197,1.0159,0.0,4.902,9.8522,9.4686,8.7379,-2.9773,19.447001,4.902,9.8522,5.8824,-5.7416,-12.444,5.7778,-9.6154,-9.5974,0.83333,21.016001,-3.9216,-3.0274
3.7283,-2.7937,-2.9126,3.9216,0.98522,6.57,6.7961,-4.9191,13.593,3.9216,0.98522,3.9216,-6.6986,-13.397,1.0159,-12.5,-11.53,-0.12821,17.205999,-5.8824,-2.0612
-0.06319,-1.8413,-1.9417,0.98039,-1.9704,-4.058,3.8835,-9.7735,7.7398,0.98039,-1.9704,1.9608,-2.8708,-9.5873,-0.88889,-9.6154,-9.5974,-3.9744,13.397,-6.8627,2.7697
-3.8547,0.06349,-1.9417,-8.8235,4.9261,-6.9565,2.9126,-14.628,4.813,-8.8235,4.9261,0.0,0.0,-2.9206,-3.746,-5.7692,-4.7665,-8.7821,13.397,-9.8039,7.6006
-4.8025,5.7778,1.9417,-14.706,9.8522,-8.8889,9.7087,-17.540001,5.7886,-14.706,9.8522,0.0,1.9139,5.6508,-3.746,0.96154,3.9291,-9.7436,16.254,-10.784,11.465
-1.9589,14.349,10.68,-5.8824,6.8966,-8.8889,9.7087,-15.599,9.6911,-5.8824,6.8966,5.8824,4.7847,12.317,-1.8413,6.7308,11.659,-8.7821,13.397,-9.8039,14.364
-0.06319,22.921,19.417,9.8039,15.764,-0.19324,20.388,-11.715,12.618,9.8039,15.764,18.627001,7.6555,16.127001,1.0159,10.577,15.523,-8.7821,9.5873,-7.8431,14.364
0.88468,28.635,25.243,13.725,25.615999,4.6377,37.863998,-10.744,16.52,13.725,25.615999,26.471001,11.483,16.127001,2.9206,13.462,18.422001,-5.8974,6.7302,-4.902,9.533
-1.0111,31.492001,26.214001,10.784,27.586,-0.19324,43.688999,-12.686,19.447001,10.784,27.586,27.451,13.397,17.079,1.9683,13.462,17.455999,-6.859,6.7302,-3.9216,8.5668
-2.9068,26.73,22.33,2.9412,25.615999,-5.9903,38.834999,-15.599,18.472,2.9412,25.615999,21.569,13.397,16.127001,-0.88889,10.577,14.557,-11.667,8.6349,-2.9412,8.5668
-2.9068,21.968,16.504999,-5.8824,22.66,-18.551001,32.039001,-15.599,18.472,-5.8824,22.66,16.667,11.483,14.222,-2.7937,11.538,12.625,-10.705,14.349,-4.902,6.6345
-4.8025,18.159,9.7087,-11.765,17.733999,-18.551001,24.271999,-15.599,21.398001,-11.765,17.733999,9.8039,9.5694,13.27,-1.8413,14.423,10.692,-6.859,21.016001,-4.902,9.533
-11.438,14.349,2.9126,-4.902,11.823,-10.821,17.476,-14.628,23.35,-4.902,11.823,-0.98039,8.6124,11.365,-0.88889,16.346001,8.7601,-8.7821,20.063,-4.902,12.432
-16.177,9.5873,-4.8544,-5.8824,7.8818,-15.652,13.592,-13.657,21.398001,-5.8824,7.8818,-9.8039,6.6986,9.4603,-4.6984,18.268999,4.8953,-13.59,20.063,-6.8627,20.160999
-17.125,6.7302,-7.767,-8.8235,3.9409,-15.652,5.8252,-10.744,17.496,-8.8235,3.9409,-11.765,6.6986,11.365,-4.6984,20.191999,3.9291,-14.551,19.111,-7.8431,26.924
-14.281,1.9683,-6.7961,-4.902,4.9261,-10.821,0.0,-5.89,10.667,-4.902,4.9261,-9.8039,7.6555,14.222,-3.746,21.153999,4.8953,-14.551,12.444,-6.8627,28.857
-12.385,-4.6984,-9.7087,-10.784,0.0,-10.821,-4.8544,-3.9482,1.8862,-10.784,0.0,-8.8235,7.6555,14.222,-3.746,18.268999,5.8615,-9.7436,4.8254,-5.8824,24.992001
-10.49,-6.6032,-9.7087,-3.9216,-3.9409,-6.9565,-9.7087,-0.06472,-6.8943,-3.9216,-3.9409,-5.8824,6.6986,12.317,-3.746,11.538,5.8615,-6.859,-4.6984,-5.8824,18.229
-7.6461,-10.413,-4.8544,6.8627,-5.9113,-1.1594,-16.504999,2.8479,-12.748,6.8627,-5.9113,-3.9216,4.7847,9.4603,-4.6984,4.8077,4.8953,-4.9359,-9.4603,-6.8627,10.499
-8.594,-14.222,-4.8544,10.784,-5.9113,-3.0918,-18.447001,5.7605,-13.724,10.784,-5.9113,-2.9412,0.0,7.5556,-10.413,-0.96154,-0.90177,-4.9359,-15.175,-9.8039,1.8035
-13.333,-14.222,-9.7087,15.686,0.98522,-0.19324,-14.563,7.7023,-11.772,15.686,0.98522,-0.98039,-6.6986,4.6984,-18.032,-8.6538,-10.564,-6.859,-16.127001,-14.706,-7.8583
-15.229,-12.317,-10.68,16.667,3.9409,6.57,-8.7379,7.7023,-7.8699,16.667,3.9409,2.9412,-10.526,2.7937,-22.794001,-14.423,-17.327,-9.7436,-12.317,-17.646999,-10.757
-13.333,-8.5079,-5.8252,17.646999,6.8966,5.6039,-1.9417,6.7314,-3.9675,17.646999,6.8966,6.8627,-10.526,2.7937,-22.794001,-15.385,-17.327,-6.859,-9.4603,-18.627001,-14.622
-14.281,-0.88889,-3.8835,17.646999,8.867,1.7391,3.8835,3.8188,0.91057,17.646999,8.867,8.8235,-11.483,1.8413,-24.698,-15.385,-19.259001,-6.859,-4.6984,-19.608,-16.554001
-15.229,4.8254,0.0,11.765,11.823,-5.9903,8.7379,-1.0356,3.8374,11.765,11.823,9.8039,-12.44,1.8413,-28.507999,-15.385,-21.191999,-12.628,-1.8413,-21.569,-15.588
-15.229,5.7778,0.0,-5.8824,7.8818,-15.652,11.65,-6.8608,2.8618,-5.8824,7.8818,9.8039,-15.311,0.88889,-31.365,-15.385,-24.09,-16.474001,1.9683,-22.549,-13.655
-17.125,1.9683,-3.8835,-8.8235,3.9409,-13.72,-0.97087,-9.7735,0.91057,-8.8235,3.9409,6.8627,-17.225,-3.873,-33.27,-17.308001,-27.955,-20.320999,2.9206,-23.528999,-12.689
-19.968,-6.6032,-7.767,2.9412,2.9557,-7.9227,-8.7379,-11.715,0.91057,2.9412,2.9557,-0.98039,-20.096001,-8.6349,-34.222,-18.268999,-31.82,-23.205,-0.88889,-23.528999,-8.8245
-22.812,-14.222,-14.563,1.9608,0.98522,-14.686,-7.767,-10.744,1.8862,1.9608,0.98522,-7.8431,-22.966999,-9.5873,-33.27,-16.346001,-35.683998,-22.243999,0.06349,-22.549,-4.9597
-25.656,-19.937,-26.214001,-2.9412,0.0,-18.551001,-10.68,-9.7735,2.8618,-2.9412,0.0,-14.706,-22.966999,-7.6825,-32.317001,-16.346001,-38.583,-19.358999,1.9683,-22.549,-1.095
-26.603001,-26.603001,-33.009998,-4.902,-5.9113,-18.551001,-15.534,-6.8608,0.91057,-4.902,-5.9113,-20.587999,-22.01,-5.7778,-30.413,-17.308001,-40.514999,-17.436001,0.06349,-19.608,-0.12882
-24.708,-31.365,-33.980999,-7.8431,-13.793,-19.517,-17.476,-2.9773,-3.9675,-7.8431,-13.793,-20.587999,-20.096001,-4.8254,-27.556,-15.385,-37.617001,-16.474001,-1.8413,-14.706,0.83736
-21.864,-32.317001,-32.039001,-5.8824,-2.9557,-14.686,-19.417,0.90615,-8.8455,-5.8824,-2.9557,-18.627001,-18.181999,-6.7302,-25.650999,-12.5,-32.785999,-8.7821,-6.6032,-11.765,-0.12882
-20.916,-31.365,-27.184,-7.8431,4.9261,-10.821,-23.301001,1.877,-15.675,-7.8431,4.9261,-16.667,-16.268,-5.7778,-21.841,-12.5,-28.921,-2.0513,-12.317,-9.8039,-0.12882
-17.125,-29.459999,-24.271999,1.9608,-0.98522,-5.0242,-20.388,2.8479,-19.577,1.9608,-0.98522,-11.765,-12.44,-4.8254,-18.032,-14.423,-24.09,-1.0897,-16.127001,-7.8431,-1.095
-14.281,-27.556,-26.214001,8.8235,-6.8966,-0.19324,-21.358999,4.7896,-18.601999,8.8235,-6.8966,-9.8039,-10.526,-5.7778,-17.079,-18.268999,-24.09,0.83333,-19.937,-7.8431,-3.9936
-13.333,-26.603001,-25.243,14.706,-8.867,7.5362,-19.417,9.644,-14.699,14.706,-8.867,-8.8235,-10.526,-5.7778,-16.127001,-23.077,-25.056,3.7179,-19.937,-6.8627,-7.8583
-13.333,-28.507999,-22.33,15.686,-4.9261,8.5024,-16.504999,11.586,-10.797,15.686,-4.9261,-9.8039,-11.483,-9.5873,-17.079,-26.923,-26.989,5.641,-16.127001,-7.8431,-13.655
-10.49,-23.746,-19.417,8.8235,-4.9261,-0.19324,-12.621,9.644,-4.9431,8.8235,-4.9261,-10.784,-13.397,-10.54,-17.079,-25.0,-27.955,5.641,-8.5079,-8.8235,-12.689
-7.6461,-16.127001,-15.534,-4.902,-8.867,-8.8889,-6.7961,8.6731,-1.0407,-4.902,-8.867,-8.8235,-15.311,-11.492,-17.079,-21.153999,-25.056,6.6026,-2.7937,-9.8039,-9.7907
-6.6983,-14.222,-11.65,-6.8627,-10.837,-7.9227,-8.7379,8.6731,-0.06504,-6.8627,-10.837,-9.8039,-17.225,-15.302,-18.983999,-19.231001,-21.191999,5.641,-2.7937,-8.8235,-11.723
-5.7504,-13.27,-12.621,-3.9216,-4.9261,-7.9227,-10.68,8.6731,-1.0407,-3.9216,-4.9261,-10.784,-19.139,-21.016001,-19.937,-22.115,-21.191999,6.6026,-6.6032,-7.8431,-19.452
-5.7504,-14.222,-13.592,-10.784,-6.8966,-18.551001,-13.592,6.7314,-3.9675,-10.784,-6.8966,-9.8039,-22.01,-27.683001,-19.937,-26.923,-23.124001,6.6026,-11.365,-7.8431,-24.283001
-4.8025,-16.127001,-12.621,-14.706,-13.793,-8.8889,-11.65,7.7023,-7.8699,-14.706,-13.793,-5.8824,-23.923,-30.540001,-18.032,-26.923,-23.124001,8.5256,-16.127001,-5.8824,-26.216
-2.9068,-14.222,-12.621,-2.9412,-9.8522,7.5362,-11.65,12.557,-8.8455,-2.9412,-9.8522,-3.9216,-24.879999,-28.635,-14.222,-22.115,-20.225,12.372,-17.079,-3.9216,-25.25
0.88468,-10.413,-11.65,2.9412,-7.8818,12.367,-7.767,15.469,-7.8699,2.9412,-7.8818,-1.9608,-24.879999,-27.683001,-7.5556,-17.308001,-17.327,10.449,-9.4603,-1.9608,-23.316999
4.6761,-9.4603,-10.68,2.9412,-9.8522,8.5024,-3.8835,17.410999,-4.9431,2.9412,-9.8522,0.0,-22.966999,-28.635,-4.6984,-17.308001,-18.292999,6.6026,-2.7937,-0.98039,-25.25
5.624,-10.413,-10.68,2.9412,-8.867,12.367,-7.767,19.353001,-4.9431,2.9412,-8.867,0.98039,-20.096001,-26.73,-4.6984,-18.268999,-19.259001,12.372,-2.7937,0.0,-24.283001
2.7804,-12.317,-10.68,0.98039,-10.837,20.097,-12.621,18.382,-7.8699,0.98039,-10.837,-0.98039,-17.225,-21.968,-5.6508,-18.268999,-20.225,14.295,-5.6508,0.0,-22.351
-0.06319,-14.222,-11.65,2.9412,-12.808,16.232,-15.534,13.528,-13.724,2.9412,-12.808,-7.8431,-11.483,-13.397,-4.6984,-15.385,-19.259001,12.372,-10.413,2.9412,-17.52
-1.9589,-16.127001,-13.592,-2.9412,-16.749001,8.5024,-19.417,8.6731,-18.601999,-2.9412,-16.749001,-12.745,-6.6986,-7.6825,-1.8413,-11.538,-17.327,13.333,-11.365,3.9216,-15.588
-1.0111,-12.317,-10.68,-6.8627,-16.749001,2.7053,-15.534,5.7605,-18.601999,-6.8627,-16.749001,-13.725,-2.8708,-4.8254,1.0159,-9.6154,-13.462,10.449,-15.175,4.902,-14.622
0.88468,-5.6508,-4.8544,-12.745,-14.778,-11.787,-10.68,0.90615,-14.699,-12.745,-14.778,-11.765,-0.95694,-3.873,6.7302,-5.7692,-9.5974,8.5256,-15.175,6.8627,-11.723
0.88468,3.873,1.9417,-15.686,-8.867,-13.72,-3.8835,-2.9773,-7.8699,-15.686,-8.867,-9.8039,0.95694,-1.9683,9.5873,0.96154,-2.8341,7.5641,-7.5556,5.8824,-5.9259
-1.9589,7.6825,2.9126,-19.608,-2.9557,-13.72,-2.9126,-6.8608,-2.9919,-19.608,-2.9557,-13.725,-1.9139,-0.06349,7.6825,4.8077,0.06441,4.6795,-2.7937,1.9608,-1.095
-4.8025,3.873,-1.9417,-22.549,-5.9113,-18.551001,-6.7961,-11.715,-3.9675,-22.549,-5.9113,-18.627001,-5.7416,-4.8254,5.7778,0.0,-4.7665,1.7949,-1.8413,1.9608,-3.0274
-7.6461,-1.8413,-7.767,-26.471001,-10.837,-24.348,-8.7379,-13.657,-5.9187,-26.471001,-10.837,-21.569,-8.6124,-9.5873,1.0159,-5.7692,-9.5974,1.7949,-0.88889,1.9608,-6.8921
-10.49,-6.6032,-9.7087,-30.392,-6.8966,-31.111,-7.767,-13.657,-6.8943,-30.392,-6.8966,-22.549,-9.5694,-12.444,1.0159,-8.6538,-10.564,1.7949,2.9206,3.9216,-6.8921
-14.281,-10.413,-11.65,-34.313999,-5.9113,-37.874001,-2.9126,-13.657,-4.9431,-34.313999,-5.9113,-22.549,-10.526,-15.302,1.9683,-10.577,-8.6312,-2.0513,4.8254,3.9216,-6.8921
-16.177,-13.27,-15.534,-26.471001,-6.8966,-26.280001,-6.7961,-9.7735,-4.9431,-26.471001,-6.8966,-23.528999,-8.6124,-12.444,1.0159,-9.6154,-3.8003,1.7949,-1.8413,5.8824,-5.9259
-15.229,-11.365,-17.476,-15.686,-4.9261,-13.72,-6.7961,-4.9191,-5.9187,-15.686,-4.9261,-18.627001,-3.8278,-10.54,-0.88889,-7.6923,-0.90177,7.5641,-3.746,9.8039,-9.7907
-13.333,-9.4603,-14.563,-6.8627,-1.9704,-8.8889,-4.8544,-1.0356,-8.8455,-6.8627,-1.9704,-13.725,0.0,-9.5873,-0.88889,-3.8462,1.9968,9.4872,-3.746,10.784,-8.8245
-5.7504,-7.5556,-9.7087,-2.9412,-4.9261,-2.1256,-6.7961,3.8188,-11.772,-2.9412,-4.9261,-9.8039,5.7416,-0.06349,3.873,3.8462,7.7939,12.372,-5.6508,13.725,-1.095
-1.0111,-7.5556,-6.7961,-2.9412,-7.8818,-1.1594,-13.592,5.7605,-13.724,-2.9412,-7.8818,-8.8235,11.483,6.6032,9.5873,8.6538,12.625,13.333,-5.6508,15.686,1.8035
1.8325,-6.6032,-2.9126,-2.9412,-11.823,1.7391,-12.621,6.7314,-15.675,-2.9412,-11.823,-4.902,14.354,10.413,14.349,9.6154,16.49,15.256,-7.5556,16.667,2.7697
5.624,-7.5556,-1.9417,-1.9608,-9.8522,4.6377,-15.534,6.7314,-17.625999,-1.9608,-9.8522,-2.9412,11.483,11.365,17.205999,7.6923,15.523,16.218,-8.5079,14.706,3.7359
9.4155,-3.746,-2.9126,1.9608,-2.9557,8.5024,-12.621,5.7605,-16.65,1.9608,-2.9557,-1.9608,8.6124,12.317,18.159,6.7308,11.659,15.256,-11.365,12.745,4.7021
10.363,2.9206,0.97087,2.9412,-1.9704,8.5024,-6.7961,6.7314,-13.724,2.9412,-1.9704,0.98039,9.5694,12.317,19.111,5.7692,10.692,15.256,-8.5079,11.765,3.7359
12.259,6.7302,3.8835,7.8431,-2.9557,13.333,0.0,8.6731,-8.8455,7.8431,-2.9557,6.8627,8.6124,12.317,18.159,4.8077,9.7262,16.218,-4.6984,11.765,0.83736
13.207,6.7302,0.0,8.8235,-0.98522,15.266,3.8835,11.586,-6.8943,8.8235,-0.98522,10.784,2.8708,7.5556,13.397,0.96154,4.8953,17.179001,-5.6508,11.765,-3.0274
11.311,4.8254,-1.9417,10.784,-3.9409,11.401,5.8252,12.557,-4.9431,10.784,-3.9409,11.765,-2.8708,-2.9206,9.5873,-3.8462,-2.8341,13.333,-4.6984,10.784,-4.9597
11.311,0.06349,0.0,14.706,0.98522,18.164,3.8835,14.498,-2.9919,14.706,0.98522,11.765,-2.8708,-6.7302,7.6825,-3.8462,-3.8003,12.372,-0.88889,12.745,-3.0274
11.311,0.06349,1.9417,16.667,3.9409,20.097,1.9417,17.410999,-1.0407,16.667,3.9409,13.725,3.8278,-6.7302,10.54,0.96154,1.9968,13.333,1.0159,14.706,-2.0612
13.207,1.0159,3.8835,17.646999,4.9261,18.164,2.9126,17.410999,-2.0163,17.646999,4.9261,12.745,13.397,-5.7778,20.063,4.8077,10.692,9.4872,0.06349,19.608,0.83736
12.259,0.06349,6.7961,14.706,1.9704,15.266,-1.9417,17.410999,-2.9919,14.706,1.9704,8.8235,19.139,0.88889,27.683001,11.538,18.422001,13.333,-0.88889,22.549,6.6345
12.259,1.0159,10.68,6.8627,-4.9261,16.232,-4.8544,16.440001,-5.9187,6.8627,-4.9261,4.902,23.923,8.5079,31.492001,19.231001,24.219,17.179001,-1.8413,22.549,11.465
12.259,6.7302,14.563,16.667,-5.9113,11.401,-4.8544,16.440001,-8.8455,16.667,-5.9113,4.902,27.750999,14.222,33.396999,25.0,30.016001,15.256,-5.6508,22.549,12.432
13.207,8.6349,19.417,20.587999,-0.98522,13.333,-1.9417,17.410999,-10.797,20.587999,-0.98522,8.8235,30.622,17.079,33.396999,28.846001,32.915001,13.333,-11.365,21.569,10.499
11.311,10.54,20.388,14.706,0.98522,21.063,0.97087,16.440001,-9.8211,14.706,0.98522,12.745,29.665001,18.032,25.778,25.962,30.016001,7.5641,-10.413,16.667,6.6345
7.5197,12.444,13.592,12.745,-3.9409,20.097,3.8835,12.557,-4.9431,12.745,-3.9409,13.725,22.01,15.175,11.492,18.268999,18.422001,3.7179,-2.7937,9.8039,5.6683
3.7283,8.6349,2.9126,-3.9216,-2.9557,8.5024,0.97087,5.7605,-1.0407,-3.9216,-2.9557,5.8824,11.483,8.5079,0.06349,8.6538,2.963,-0.12821,2.9206,2.9412,2.7697
0.88468,3.873,-4.8544,-15.686,0.0,-5.0242,3.8835,-0.06472,0.91057,-15.686,0.0,-0.98039,0.95694,2.7937,-7.5556,0.96154,-5.7327,0.83333,4.8254,-1.9608,-3.9936
-0.06319,3.873,-8.7379,-14.706,-0.98522,-7.9227,5.8252,-2.9773,2.8618,-14.706,-0.98522,-6.8627,-10.526,-2.9206,-13.27,-3.8462,-9.5974,-1.0897,5.7778,-6.8627,-7.8583
-1.0111,0.06349,-9.7087,-15.686,-3.9409,-10.821,5.8252,-2.0065,3.8374,-15.686,-3.9409,-10.784,-19.139,-9.5873,-16.127001,-9.6154,-11.53,-3.9744,4.8254,-11.765,-9.7907
-1.0111,-3.746,-8.7379,-20.587999,-5.9113,-6.9565,5.8252,-0.06472,1.8862,-20.587999,-5.9113,-10.784,-20.096001,-11.492,-17.079,-11.538,-9.5974,-6.859,2.9206,-15.686,-8.8245
-0.06319,-9.4603,-8.7379,-20.587999,-4.9261,0.77295,-0.97087,2.8479,-2.0163,-20.587999,-4.9261,-9.8039,-16.268,-10.54,-11.365,-11.538,-4.7665,-2.0513,-1.8413,-13.725,-3.9936
1.8325,-18.032,-9.7087,-16.667,-7.8818,3.6715,-6.7961,5.7605,-8.8455,-16.667,-7.8818,-10.784,-8.6124,-7.6825,-3.746,-7.6923,2.963,4.6795,-5.6508,-9.8039,-0.12882
6.5719,-22.794001,-8.7379,-8.8235,-16.749001,13.333,-9.7087,11.586,-15.675,-8.8235,-16.749001,-9.8039,0.95694,-0.06349,6.7302,0.0,12.625,10.449,-14.222,-0.98039,4.7021
11.311,-24.698,-3.8835,-9.8039,-12.808,18.164,-15.534,14.498,-23.48,-9.8039,-12.808,-8.8235,11.483,2.7937,18.159,4.8077,19.388,16.218,-22.794001,6.8627,5.6683
15.103,-28.507999,3.8835,-0.98039,-13.793,19.129999,-31.068001,18.382,-30.309,-0.98039,-13.793,-8.8235,22.01,9.4603,28.635,9.6154,28.084,18.141001,-27.556,16.667,7.6006
18.893999,-31.365,6.7961,9.8039,-20.690001,19.129999,-33.980999,18.382,-35.187,9.8039,-20.690001,-9.8039,34.450001,20.889,39.111,16.346001,36.778999,21.025999,-31.365,26.471001,10.499
20.790001,-31.365,6.7961,2.9412,-26.601,11.401,-35.922001,15.469,-40.064999,2.9412,-26.601,-13.725,42.105,25.650999,46.73,16.346001,37.745998,21.987,-34.222,33.333,9.533
19.841999,-28.507999,9.7087,-6.8627,-28.570999,3.6715,-36.893002,9.644,-41.041,-6.8627,-28.570999,-18.627001,44.019001,25.650999,49.587002,10.577,34.847,21.025999,-34.222,38.235001,7.6006
18.893999,-19.937,13.592,-11.765,-29.556999,0.77295,-32.039001,3.8188,-35.187,-11.765,-29.556999,-17.646999,42.105,22.794001,45.778,5.7692,33.881001,19.103001,-30.413,38.235001,-0.12882
16.997999,-5.6508,16.504999,-15.686,-33.498001,-1.1594,-21.358999,-2.0065,-25.431,-15.686,-33.498001,-12.745,37.320999,16.127001,41.967999,0.96154,32.915001,17.179001,-22.794001,35.293999,-11.723
14.155,7.6825,23.301001,-16.667,-27.586,-5.9903,-12.621,-5.89,-10.797,-16.667,-27.586,-9.8039,32.535999,11.365,39.111,-1.9231,32.915001,11.41,-11.365,29.412001,-18.486
13.207,17.205999,29.125999,-12.745,-13.793,-13.72,-0.97087,-8.8026,1.8862,-12.745,-13.793,-4.902,26.794001,12.317,36.254002,4.8077,36.778999,5.641,-6.6032,21.569,-15.588
9.4155,26.73,30.097,-13.725,-2.9557,-13.72,7.767,-9.7735,15.545,-13.725,-2.9557,0.98039,21.052999,14.222,28.635,13.462,36.778999,1.7949,5.7778,13.725,-5.9259
2.7804,31.492001,28.155001,-13.725,6.8966,-9.8551,14.563,-9.7735,25.301001,-13.725,6.8966,6.8627,10.526,7.5556,16.254,17.308001,30.016001,-7.8205,20.063,3.9216,-0.12882
-1.0111,29.587,22.33,-3.9216,12.808,-11.787,18.447001,-8.8026,28.228001,-3.9216,12.808,8.8235,-0.95694,1.8413,2.9206,18.268999,19.388,-9.7436,24.825001,-4.902,4.7021
