C3,C4,Cz,F1,F2,F3,F4,F7,F8,Fp1,Fp2,Fz,O1,O2,P3,P4,Pz,T3,T4,T5,T6
-14.344,-5.614,-0.97561,0.97561,-1.9608,-8.9968,-3.8835,-1.0356,-2.0065,0.97561,-1.9608,-1.9704,7.5829,6.6032,-11.248,-0.96618,-2.8341,-6.8262,-6.5397,4.9261,0.82935
-0.12638,-0.82935,3.9024,8.7805,3.9216,10.421,3.8835,8.6731,-3.9482,8.7805,3.9216,7.8818,4.7393,0.88889,-5.5608,-0.96618,-3.8003,6.571,-4.6349,5.9113,0.82935
10.3,7.7831,5.8537,13.659,6.8627,22.070999,6.7961,17.410999,2.8479,13.659,6.8627,13.793,-0.94787,-5.7778,0.12638,0.96618,-3.8003,17.097,-0.8254,5.9113,-2.9984
15.987,7.7831,6.8293,13.659,9.8039,23.042,9.7087,17.410999,10.615,13.659,9.8039,14.778,-7.5829,-13.397,3.9179,0.96618,-3.8003,17.097,4.8889,2.9557,-4.9123
14.092,2.0415,4.878,12.683,7.8431,18.188,10.68,14.498,9.644,12.683,7.8431,11.823,-12.322,-16.254,4.8657,-1.9324,-4.7665,11.356,12.508,-2.9557,-2.9984
10.3,2.9984,3.9024,8.7805,5.8824,9.4498,6.7961,9.644,7.7023,8.7805,5.8824,6.8966,-10.427,-9.5873,3.9179,-1.9324,-4.7665,6.571,8.6984,-8.867,1.7863
1.7694,-1.7863,0.0,0.0,-4.902,2.6537,0.0,2.8479,-2.9773,0.0,-4.902,0.0,-6.6351,-4.8254,1.0742,-5.7971,-4.7665,-5.8692,4.8889,-9.8522,4.6571
-7.7093,-11.356,-8.7805,-4.878,-6.8627,-5.1133,-6.7961,-2.0065,-8.8026,-4.878,-6.8627,-5.9113,-3.7915,-1.9683,-5.5608,-14.493,-11.53,-7.7831,-0.8254,-5.9113,1.7863
-14.344,-14.226,-15.61,-7.8049,-6.8627,-7.055,-8.7379,-4.9191,-11.715,-7.8049,-6.8627,-9.8522,2.8436,1.8413,-11.248,-17.391001,-13.462,-9.697,-6.5397,0.98522,-2.0415
-20.979,-13.27,-19.511999,-7.8049,-6.8627,-11.909,-10.68,-9.7735,-8.8026,-7.8049,-6.8627,-15.764,3.7915,2.7937,-17.882999,-13.527,-10.564,-13.525,-9.3968,-8.867,-3.9553
-19.084,-5.614,-13.659,-9.7561,-6.8627,-9.9676,-12.621,-10.744,-2.0065,-9.7561,-6.8627,-15.764,3.7915,2.7937,-16.934999,-4.8309,-2.8341,-16.396,-15.111,-17.733999,-7.7831
-12.449,2.0415,-4.878,-7.8049,-2.9412,-6.0841,-5.8252,-8.8026,1.877,-7.8049,-2.9412,-8.867,8.5308,6.6032,-8.4044,4.8309,4.8953,-5.8692,-1.7778,-9.8522,-5.8692
-3.9179,9.697,0.97561,-0.97561,2.9412,-1.2298,3.8835,-4.9191,7.7023,-0.97561,2.9412,-1.9704,13.27,11.365,2.0221,14.493,11.659,5.614,13.46,0.0,-0.12759
3.6651,17.351999,7.8049,3.9024,6.8627,3.6246,11.65,-3.9482,9.644,3.9024,6.8627,7.8818,12.322,10.413,11.501,18.357,13.591,6.571,12.508,7.8818,1.7863
7.4566,17.351999,9.7561,5.8537,10.784,6.5372,17.476,-3.9482,12.557,5.8537,10.784,14.778,3.7915,1.8413,12.449,9.6618,6.8277,6.571,9.6508,7.8818,0.82935
9.3523,9.697,7.8049,2.9268,9.8039,3.6246,16.504999,-4.9191,15.469,2.9268,9.8039,12.808,-3.7915,-5.7778,9.6051,-0.96618,-0.90177,-2.0415,9.6508,5.9113,-0.12759
9.3523,3.9553,5.8537,-1.9512,4.902,-2.2006,11.65,-10.744,13.528,-1.9512,4.902,5.9113,-3.7915,-4.8254,9.6051,-4.8309,-2.8341,-8.74,8.6984,4.9261,3.7002
6.5087,-0.82935,0.0,-6.8293,-1.9608,-7.055,2.9126,-13.657,4.7896,-6.8293,-1.9608,-2.9557,-0.94787,-3.873,8.6572,-7.7295,-4.7665,-5.8692,6.7937,4.9261,6.571
3.6651,-6.571,-5.8537,-7.8049,-2.9412,-5.1133,-3.8835,-8.8026,2.8479,-7.8049,-2.9412,-7.8818,2.8436,0.88889,7.7093,-7.7295,-2.8341,-8.74,4.8889,3.9409,5.614
5.5608,-8.4848,-3.9024,-5.8537,-3.9216,3.6246,-6.7961,-0.06472,-1.0356,-5.8537,-3.9216,-4.9261,8.5308,6.6032,6.7615,-2.8986,1.0306,-2.9984,-0.8254,3.9409,6.571
-2.0221,-9.4418,-4.878,1.9512,3.9216,4.5955,-3.8835,6.7314,-0.06472,1.9512,3.9216,-0.98522,5.6872,6.6032,-6.5087,-3.8647,-2.8341,4.6571,-7.4921,-5.9113,4.6571
-13.397,-10.399,-8.7805,5.8537,3.9216,-1.2298,-3.8835,5.7605,2.8479,5.8537,3.9216,-2.9557,-0.94787,2.7937,-20.726999,-4.8309,-8.6312,4.6571,-1.7778,-12.808,0.82935
-15.292,-8.4848,-8.7805,0.0,0.0,-4.1424,-4.8544,0.90615,0.90615,0.0,0.0,-5.9113,-3.7915,-0.06349,-23.57,-2.8986,-8.6312,-0.12759,-2.7302,-8.867,-1.0845
-6.7615,0.12759,-0.97561,-5.8537,-4.902,-6.0841,-1.9417,-0.06472,1.877,-5.8537,-4.902,-3.9409,-0.94787,5.6508,-11.248,6.7633,0.06441,-5.8692,-0.8254,-3.9409,0.82935
8.4044,6.8262,12.683,-3.9024,-2.9412,2.6537,7.767,1.877,-1.0356,-3.9024,-2.9412,1.9704,8.5308,12.317,7.7093,15.459,13.591,2.7432,4.8889,2.9557,6.571
15.987,6.8262,17.561001,-2.9268,-3.9216,9.4498,4.8544,2.8479,-7.8317,-2.9268,-3.9216,3.9409,14.218,15.175,19.084,16.424999,20.354,10.399,2.0317,11.823,5.614
11.248,-0.82935,12.683,-7.8049,-3.9216,0.71197,-5.8252,-4.9191,-5.89,-7.8049,-3.9216,0.0,13.27,11.365,20.032,8.6957,16.49,9.4418,-2.7302,15.764,1.7863
1.7694,-9.4418,0.97561,-13.659,-7.8431,-8.9968,-12.621,-9.7735,-3.9482,-13.659,-7.8431,-6.8966,8.5308,5.6508,14.344,-0.96618,6.8277,8.4848,-10.349,15.764,-3.9553
-3.9179,-12.313,-8.7805,-18.537001,-11.765,-15.793,-13.592,-11.715,-6.8608,-18.537001,-11.765,-11.823,5.6872,1.8413,9.6051,-5.7971,-0.90177,7.5279,-10.349,15.764,-4.9123
-7.7093,-10.399,-9.7561,-22.438999,-14.706,-20.646999,-12.621,-14.628,-9.7735,-22.438999,-14.706,-14.778,3.7915,-0.06349,5.8136,-7.7295,-5.7327,7.5279,-15.111,12.808,-5.8692
-4.8657,-6.571,-2.9268,-18.537001,-10.784,-19.676001,-9.7087,-12.686,-4.9191,-18.537001,-10.784,-10.837,3.7915,0.88889,6.7615,-3.8647,-4.7665,1.7863,-8.4444,11.823,-5.8692
2.7172,5.8692,9.7561,-7.8049,0.0,-10.939,1.9417,-9.7735,6.7314,-7.8049,0.0,0.0,4.7393,4.6984,11.501,7.7295,4.8953,-6.8262,4.8889,9.8522,5.614
6.5087,19.266001,15.61,-1.9512,2.9412,-3.1715,10.68,-8.8026,10.615,-1.9512,2.9412,7.8818,3.7915,4.6984,11.501,19.323999,11.659,-11.611,13.46,4.9261,11.356
8.4044,26.922001,17.561001,4.878,10.784,5.5663,18.447001,-7.8317,18.382,4.878,10.784,14.778,5.6872,5.6508,9.6051,24.155001,15.523,-5.8692,19.174999,3.9409,16.139999
6.5087,25.965,16.584999,4.878,10.784,10.421,19.417,-4.9191,26.149,4.878,10.784,15.764,6.6351,6.6032,3.9179,21.256001,14.557,-10.654,23.937,-5.9113,17.097
1.7694,22.136999,13.659,1.9512,8.8235,2.6537,18.447001,-6.8608,19.353001,1.9512,8.8235,11.823,5.6872,5.6508,-1.7694,14.493,9.7262,-10.654,23.937,-12.808,14.226
-6.7615,13.525,7.8049,-3.9024,0.98039,-4.1424,8.7379,-8.8026,9.644,-3.9024,0.98039,2.9557,-0.94787,-1.9683,-8.4044,4.8309,1.0306,-12.568,15.365,-16.749001,7.5279
-9.6051,3.9553,-0.97561,-5.8537,-3.9216,-4.1424,-1.9417,-8.8026,2.8479,-5.8537,-3.9216,-2.9557,-9.4787,-10.54,-14.092,-3.8647,-8.6312,-8.74,2.9841,-17.733999,1.7863
-11.501,-5.614,-11.707,-7.8049,-8.8235,-9.9676,-6.7961,-7.8317,-3.9482,-7.8049,-8.8235,-7.8818,-15.166,-14.349,-16.934999,-13.527,-18.292999,-0.12759,-6.5397,-13.793,-1.0845
-8.6572,-10.399,-15.61,-1.9512,-3.9216,-7.055,-5.8252,-1.0356,-10.744,-1.9512,-3.9216,-7.8818,-13.27,-12.444,-14.092,-19.323999,-23.124001,-4.9123,-10.349,-7.8818,-5.8692
1.7694,-9.4418,-7.8049,2.9268,0.98039,2.6537,-1.9417,6.7314,-7.8317,2.9268,0.98039,-1.9704,-0.94787,-1.0159,0.12638,-15.459,-14.428,4.6571,-6.5397,5.9113,-8.74
7.4566,-9.4418,-0.97561,5.8537,5.8824,7.5081,-1.9417,8.6731,-0.06472,5.8537,5.8824,1.9704,10.427,9.4603,11.501,-7.7295,-3.8003,3.7002,-3.6825,14.778,-6.8262
7.4566,-11.356,-0.97561,5.8537,2.9412,8.479,-2.9126,10.615,-2.0065,5.8537,2.9412,2.9557,12.322,10.413,15.292,-6.7633,-0.90177,13.27,-8.4444,15.764,-4.9123
10.3,-8.4848,0.0,6.8293,1.9608,10.421,0.0,9.644,-3.9482,6.8293,1.9608,4.9261,9.4787,6.6032,17.188,-5.7971,1.0306,22.839001,-13.206,13.793,-5.8692
12.196,-3.7002,3.9024,7.8049,3.9216,7.5081,6.7961,6.7314,0.90615,7.8049,3.9216,7.8818,7.5829,1.8413,15.292,-2.8986,2.963,14.226,-8.4444,11.823,-8.74
13.144,4.9123,13.659,5.8537,5.8824,7.5081,11.65,4.7896,3.8188,5.8537,5.8824,10.837,4.7393,-1.0159,14.344,1.9324,6.8277,5.614,0.12698,11.823,-5.8692
9.3523,8.74,16.584999,3.9024,6.8627,2.6537,11.65,-1.0356,9.644,3.9024,6.8627,10.837,2.8436,-2.9206,9.6051,5.7971,7.7939,0.82935,1.0794,1.9704,-2.0415
8.4044,13.525,14.634,1.9512,6.8627,-0.2589,7.767,-4.9191,8.6731,1.9512,6.8627,7.8818,5.6872,0.88889,6.7615,11.594,9.7262,-1.0845,3.9365,-2.9557,3.7002
10.3,18.309,17.561001,1.9512,7.8431,5.5663,9.7087,-3.9482,7.7023,1.9512,7.8431,8.867,7.5829,6.6032,5.8136,21.256001,15.523,-7.7831,11.556,-4.9261,14.226
10.3,21.18,16.584999,3.9024,5.8824,6.5372,12.621,-3.9482,13.528,3.9024,5.8824,10.837,4.7393,9.4603,1.0742,25.121,15.523,-25.007999,17.27,-12.808,18.054001
10.3,22.136999,15.61,5.8537,9.8039,7.5081,16.504999,0.90615,17.410999,5.8537,9.8039,14.778,6.6351,10.413,1.0742,23.188,14.557,-19.266001,22.032,-10.837,18.054001
14.092,19.266001,16.584999,8.7805,9.8039,13.333,16.504999,7.7023,16.440001,8.7805,9.8039,17.733999,10.427,11.365,7.7093,18.357,13.591,-1.0845,24.889,-0.98522,18.054001
18.830999,16.396,19.511999,13.659,13.725,19.159,16.504999,9.644,15.469,13.659,13.725,18.719,8.5308,7.5556,13.397,13.527,12.625,7.5279,18.222,0.0,16.139999
15.987,11.611,15.61,12.683,9.8039,11.392,9.7087,4.7896,9.644,12.683,9.8039,14.778,5.6872,5.6508,14.344,7.7295,8.7601,-1.0845,13.46,-3.9409,13.27
12.196,9.697,12.683,11.707,11.765,10.421,9.7087,-0.06472,7.7023,11.707,11.765,14.778,5.6872,11.365,12.449,6.7633,6.8277,-8.74,12.508,-1.9704,15.183
10.3,7.7831,7.8049,9.7561,8.8235,13.333,7.767,-1.0356,4.7896,9.7561,8.8235,13.793,9.4787,18.032,11.501,9.6618,8.7601,-1.0845,3.9365,4.9261,16.139999
3.6651,-0.82935,-0.97561,0.0,0.98039,3.6246,-2.9126,-6.8608,-6.8608,0.0,0.98039,2.9557,8.5308,16.127001,8.6572,5.7971,6.8277,8.4848,-3.6825,10.837,7.5279
-1.0742,-8.4848,-5.8537,-5.8537,-6.8627,-4.1424,-10.68,-9.7735,-14.628,-5.8537,-6.8627,-4.9261,6.6351,11.365,5.8136,0.96618,3.9291,5.614,-8.4444,16.749001,-2.9984
-1.0742,-4.6571,-2.9268,-2.9268,-5.8824,-5.1133,-5.8252,-7.8317,-4.9191,-2.9268,-5.8824,-2.9557,5.6872,9.4603,5.8136,1.9324,4.8953,-7.7831,-15.111,12.808,-3.9553
-5.8136,-1.7863,-2.9268,-4.878,-7.8431,-10.939,-6.7961,-8.8026,-5.89,-4.878,-7.8431,-5.9113,1.8957,4.6984,-0.82148,0.96618,1.9968,-1.0845,-15.111,4.9261,-4.9123
-8.6572,-2.7432,-6.8293,-0.97561,-2.9412,-12.88,-7.767,-4.9191,-3.9482,-0.97561,-2.9412,-7.8818,-5.6872,-3.873,-8.4044,-2.8986,-3.8003,6.571,-8.4444,1.9704,-5.8692
-9.6051,-5.614,-13.659,1.9512,-0.98039,-8.0259,-8.7379,0.90615,-1.0356,1.9512,-0.98039,-12.808,-12.322,-10.54,-15.987,-8.6957,-11.53,2.7432,-1.7778,0.0,-5.8692
-12.449,-13.27,-23.415001,-1.9512,-4.902,-12.88,-12.621,3.8188,-1.0356,-1.9512,-4.902,-17.733999,-19.905001,-20.063,-22.622,-18.357,-21.191999,-0.12759,0.12698,-2.9557,-7.7831
-9.6051,-18.054001,-26.341,-2.9268,-4.902,-9.9676,-12.621,8.6731,-3.9482,-2.9268,-4.902,-16.749001,-22.749001,-25.778,-22.622,-25.121,-26.989,5.614,-2.7302,-4.9261,-10.654
-3.9179,-17.097,-23.415001,-1.9512,-6.8627,-1.2298,-13.592,12.557,-3.9482,-1.9512,-6.8627,-12.808,-18.957001,-23.872999,-17.882999,-24.155001,-26.989,13.27,-3.6825,-2.9557,-11.611
4.613,-14.226,-14.634,3.9024,-3.9216,7.5081,-9.7087,17.410999,-0.06472,3.9024,-3.9216,-4.9261,-13.27,-16.254,-10.3,-18.357,-21.191999,8.4848,-3.6825,0.98522,-10.654
5.5608,-8.4848,-9.7561,7.8049,0.0,9.4498,-4.8544,15.469,1.877,7.8049,0.0,-0.98522,-8.5308,-6.7302,-8.4044,-12.56,-17.327,-3.9553,-4.6349,-0.98522,-6.8262
-0.12638,-1.7863,-9.7561,9.7561,6.8627,6.5372,1.9417,13.528,8.6731,9.7561,6.8627,2.9557,-5.6872,-1.0159,-10.3,-7.7295,-13.462,7.5279,4.8889,-3.9409,-2.0415
-2.0221,7.7831,0.0,16.584999,15.686,8.479,14.563,12.557,13.528,16.584999,15.686,12.808,0.0,6.6032,-5.5608,0.96618,-2.8341,6.571,9.6508,-2.9557,0.82935
5.5608,16.396,17.561001,23.415001,22.549,14.304,23.301001,10.615,15.469,23.415001,22.549,24.631001,9.4787,14.222,7.7093,10.628,12.625,-5.8692,7.746,2.9557,5.614
15.987,21.18,29.268,19.511999,17.646999,21.1,25.243,9.644,13.528,19.511999,17.646999,28.570999,18.009001,19.937,20.032,18.357,25.184999,1.7863,9.6508,5.9113,7.5279
21.674999,19.266001,28.292999,11.707,9.8039,17.216999,20.388,7.7023,0.90615,11.707,9.8039,21.674999,18.957001,17.079,25.719,20.290001,28.084,8.4848,2.9841,11.823,4.6571
21.674999,10.654,22.438999,3.9024,-0.98039,7.5081,5.8252,7.7023,-2.9773,3.9024,-0.98039,10.837,17.062,13.27,24.771,17.391001,25.184999,14.226,-5.5873,16.749001,2.7432
15.039,5.8692,13.659,-4.878,-8.8235,-0.2589,-6.7961,2.8479,-4.9191,-4.878,-8.8235,-0.98522,10.427,9.4603,17.188,14.493,18.422001,11.356,-10.349,12.808,4.6571
3.6651,-1.7863,0.0,-12.683,-15.686,-8.0259,-15.534,-2.0065,-12.686,-12.683,-15.686,-11.823,4.7393,4.6984,4.8657,7.7295,7.7939,11.356,-5.5873,8.867,7.5279
-2.0221,-8.4848,-7.8049,-15.61,-16.667,-13.851,-18.447001,-2.9773,-16.57,-15.61,-16.667,-15.764,2.8436,4.6984,-2.7172,1.9324,0.06441,4.6571,1.0794,5.9113,10.399
-2.0221,-11.356,-11.707,-14.634,-17.646999,-12.88,-20.388,-3.9482,-11.715,-14.634,-17.646999,-15.764,-0.94787,3.746,-7.4566,-2.8986,-5.7327,-0.12759,-1.7778,0.98522,10.399
-2.0221,-11.356,-10.732,-12.683,-15.686,-12.88,-23.301001,-3.9482,-7.8317,-12.683,-15.686,-15.764,-2.8436,1.8413,-9.3523,-3.8647,-7.6651,4.6571,-3.6825,-5.9113,10.399
-2.97,-8.4848,-6.8293,-11.707,-14.706,-10.939,-21.358999,-2.9773,-12.686,-11.707,-14.706,-15.764,-2.8436,-0.06349,-8.4044,-3.8647,-5.7327,7.5279,-6.5397,-6.8966,6.571
-3.9179,-10.399,-7.8049,-11.707,-16.667,-10.939,-20.388,-1.0356,-15.599,-11.707,-16.667,-16.749001,-6.6351,-5.7778,-10.3,-6.7633,-9.5974,1.7863,1.0794,-9.8522,0.82935
-2.97,-10.399,-11.707,-6.8293,-9.8039,-9.9676,-17.476,2.8479,-9.7735,-6.8293,-9.8039,-12.808,-9.4787,-9.5873,-9.3523,-7.7295,-11.53,-3.9553,3.9365,-7.8818,-2.9984
-0.12638,-6.571,-12.683,-0.97561,-5.8824,-1.2298,-11.65,5.7605,-6.8608,-0.97561,-5.8824,-4.9261,-9.4787,-10.54,-7.4566,-6.7633,-11.53,-2.9984,-1.7778,-12.808,-7.7831
-1.0742,-1.7863,-5.8537,2.9268,-0.98039,2.6537,-5.8252,2.8479,-4.9191,2.9268,-0.98039,0.98522,-9.4787,-10.54,-6.5087,-3.8647,-9.5974,-0.12759,-0.8254,-15.764,-10.654
-2.97,6.8262,6.8293,4.878,3.9216,3.6246,0.0,0.90615,1.877,4.878,3.9216,5.9113,-9.4787,-6.7302,-4.613,2.8986,-1.868,0.82935,4.8889,-16.749001,-8.74
-4.8657,10.654,13.659,8.7805,11.765,1.6828,8.7379,0.90615,6.7314,8.7805,11.765,9.8522,-7.5829,-1.9683,-2.7172,7.7295,4.8953,-4.9123,7.746,-19.704,-3.9553
-7.7093,10.654,13.659,8.7805,8.8235,-2.2006,12.621,-2.0065,10.615,8.7805,8.8235,8.867,-4.7393,0.88889,-3.6651,7.7295,5.8615,-15.439,8.6984,-16.749001,-1.0845
-9.6051,4.9123,4.878,6.8293,7.8431,-5.1133,12.621,-6.8608,7.7023,6.8293,7.8431,7.8818,-1.8957,1.8413,-5.5608,2.8986,2.963,-23.094,0.12698,-11.823,-2.9984
-7.7093,1.0845,-6.8293,6.8293,8.8235,-3.1715,10.68,-5.89,7.7023,6.8293,8.8235,7.8818,3.7915,4.6984,-2.7172,-0.96618,0.06441,-20.223,-8.4444,-1.9704,-5.8692
2.7172,2.9984,-2.9268,7.8049,11.765,5.5663,10.68,-2.0065,8.6731,7.8049,11.765,11.823,7.5829,6.6032,6.7615,1.9324,3.9291,-12.568,-7.4921,4.9261,-8.74
12.196,5.8692,5.8537,6.8293,7.8431,11.392,9.7087,-0.06472,1.877,6.8293,7.8431,11.823,8.5308,4.6984,13.397,5.7971,7.7939,-0.12759,-9.3968,7.8818,-6.8262
9.3523,0.12759,4.878,0.0,0.98039,9.4498,-0.97087,-1.0356,-2.9773,0.0,0.98039,3.9409,3.7915,-0.06349,8.6572,0.96618,2.963,-1.0845,-11.302,7.8818,-3.9553
-2.0221,-9.4418,-0.97561,-7.8049,-8.8235,-4.1424,-11.65,-2.9773,-10.744,-7.8049,-8.8235,-8.867,-1.8957,-4.8254,-1.7694,-8.6957,-4.7665,0.82935,-9.3968,10.837,-4.9123
-12.449,-16.139999,-7.8049,-11.707,-14.706,-16.764,-19.417,-5.89,-14.628,-11.707,-14.706,-19.704,-8.5308,-8.6349,-10.3,-14.493,-11.53,5.614,-3.6825,5.9113,-3.9553
-16.24,-16.139999,-12.683,-14.634,-19.608,-17.735001,-22.33,-5.89,-12.686,-14.634,-19.608,-23.645,-13.27,-9.5873,-15.987,-14.493,-14.428,-0.12759,-2.7302,-6.8966,1.7863
-13.397,-12.313,-15.61,-15.61,-17.646999,-14.822,-17.476,-2.9773,-13.657,-15.61,-17.646999,-20.690001,-11.374,-8.6349,-15.987,-12.56,-15.395,3.7002,-1.7778,-6.8966,2.7432
-8.6572,-10.399,-15.61,-10.732,-12.745,-9.9676,-14.563,0.90615,-10.744,-10.732,-12.745,-16.749001,-12.322,-10.54,-14.092,-12.56,-14.428,6.571,-3.6825,-1.9704,0.82935
-7.7093,-9.4418,-16.584999,-7.8049,-11.765,-7.055,-10.68,6.7314,-8.8026,-7.8049,-11.765,-15.764,-14.218,-11.492,-15.039,-12.56,-15.395,12.313,-1.7778,-2.9557,-2.0415
-5.8136,-7.5279,-18.537001,-5.8537,-7.8431,-4.1424,-10.68,9.644,-5.89,-5.8537,-7.8431,-12.808,-9.4787,-7.6825,-10.3,-9.6618,-13.462,13.27,2.0317,0.98522,-2.9984
-1.0742,-7.5279,-17.561001,-1.9512,-8.8235,-7.055,-11.65,13.528,-6.8608,-1.9512,-8.8235,-11.823,-9.4787,-8.6349,-3.6651,-7.7295,-10.564,19.011,-1.7778,1.9704,-4.9123
-1.0742,-11.356,-15.61,2.9268,-4.902,-4.1424,-8.7379,11.586,-6.8608,2.9268,-4.902,-8.867,-12.322,-12.444,-3.6651,-11.594,-12.496,24.753,-18.921,1.9704,-9.697
-7.7093,-19.011,-18.537001,0.97561,-3.9216,-2.2006,-5.8252,6.7314,-5.89,0.97561,-3.9216,-5.9113,-16.114,-19.111,-10.3,-20.290001,-18.292999,8.4848,-12.254,-0.98522,-16.396
-15.292,-22.839001,-20.488001,-1.9512,-1.9608,-7.055,-8.7379,-0.06472,-13.657,-1.9512,-1.9608,-7.8818,-18.957001,-21.016001,-15.987,-23.188,-19.259001,3.7002,-0.8254,-2.9557,-17.351999
-17.188,-15.183,-15.61,-4.878,-5.8824,-9.9676,-11.65,-6.8608,-10.744,-4.878,-5.8824,-9.8522,-14.218,-16.254,-14.092,-17.391001,-14.428,-6.8262,-7.4921,-3.9409,-15.439
-10.553,-4.6571,-2.9268,0.0,0.98039,-6.0841,-5.8252,-4.9191,1.877,0.0,0.98039,-2.9557,-2.8436,-4.8254,-6.5087,-7.7295,-4.7665,-6.8262,-4.6349,1.9704,-11.611
-3.9179,2.9984,6.8293,4.878,7.8431,-0.2589,5.8252,1.877,9.644,4.878,7.8431,8.867,5.6872,2.7937,0.12638,0.96618,2.963,1.7863,-1.7778,10.837,-9.697
1.7694,14.482,14.634,7.8049,11.765,8.479,18.447001,1.877,8.6731,7.8049,11.765,15.764,6.6351,4.6984,4.8657,8.6957,8.7601,0.82935,-0.8254,3.9409,-2.9984
4.613,21.18,18.537001,6.8293,9.8039,5.5663,19.417,-1.0356,8.6731,6.8293,9.8039,14.778,4.7393,5.6508,7.7093,16.424999,14.557,-3.9553,2.0317,-5.9113,2.7432
4.613,22.136999,15.61,2.9268,3.9216,-1.2298,12.621,-2.9773,6.7314,2.9268,3.9216,7.8818,3.7915,6.6032,9.6051,22.222,17.455999,0.82935,1.0794,-4.9261,5.614
3.6651,13.525,7.8049,-3.9024,-4.902,-1.2298,0.97087,-4.9191,-0.06472,-3.9024,-4.902,-2.9557,-1.8957,0.88889,5.8136,17.391001,12.625,1.7863,-5.5873,-4.9261,6.571
-2.0221,-4.6571,-5.8537,-11.707,-10.784,-5.1133,-9.7087,-7.8317,-5.89,-11.707,-10.784,-12.808,-10.427,-9.5873,-2.7172,0.0,-1.868,-4.9123,-2.7302,-3.9409,-0.12759
-10.553,-19.011,-18.537001,-15.61,-10.784,-12.88,-14.563,-10.744,-15.599,-15.61,-10.784,-17.733999,-15.166,-14.349,-11.248,-16.424999,-15.395,-12.568,-10.349,-6.8966,-4.9123
-16.24,-16.139999,-20.488001,-13.659,-11.765,-17.735001,-14.563,-10.744,-8.8026,-13.659,-11.765,-18.719,-10.427,-9.5873,-11.248,-17.391001,-15.395,-4.9123,-3.6825,-2.9557,-2.9984
-18.136,-9.4418,-17.561001,-14.634,-10.784,-24.531,-8.7379,-13.657,2.8479,-14.634,-10.784,-19.704,-5.6872,-6.7302,-10.3,-12.56,-12.496,-4.9123,9.6508,1.9704,1.7863
-16.24,-7.5279,-15.61,-16.584999,-13.725,-25.502001,-5.8252,-14.628,2.8479,-16.584999,-13.725,-19.704,-1.8957,-1.9683,-10.3,-8.6957,-10.564,-11.611,9.6508,3.9409,6.571
-7.7093,-12.313,-10.732,-10.732,-9.8039,-14.822,-7.767,-8.8026,2.8479,-10.732,-9.8039,-12.808,0.0,-1.0159,-7.4566,-8.6957,-6.6989,2.7432,10.603,6.8966,8.4848
-3.9179,-18.054001,-4.878,-3.9024,-3.9216,2.6537,-4.8544,-2.9773,3.8188,-3.9024,-3.9216,-3.9409,-4.7393,-8.6349,-7.4566,-15.459,-7.6651,4.6571,5.8413,2.9557,0.82935
-2.0221,-14.226,-0.97561,0.97561,4.902,9.4498,2.9126,-1.0356,4.7896,0.97561,4.902,4.9261,-8.5308,-12.444,-5.5608,-15.459,-6.6989,-3.9553,5.8413,5.9113,-3.9553
-1.0742,2.0415,3.9024,4.878,8.8235,8.479,10.68,-1.0356,6.7314,4.878,8.8235,8.867,-6.6351,-10.54,-0.82148,-4.8309,-0.90177,-2.9984,5.8413,0.0,-4.9123
-3.9179,15.439,8.7805,7.8049,11.765,8.479,16.504999,-2.9773,14.498,7.8049,11.765,9.8522,-3.7915,-3.873,0.12638,7.7295,4.8953,-8.74,1.0794,-8.867,-1.0845
-6.7615,19.266001,8.7805,3.9024,5.8824,3.6246,13.592,-4.9191,11.586,3.9024,5.8824,6.8966,-0.94787,2.7937,-1.7694,17.391001,9.7262,-13.525,6.7937,-10.837,1.7863
-3.9179,14.482,6.8293,3.9024,6.8627,1.6828,10.68,-2.9773,10.615,3.9024,6.8627,5.9113,-1.8957,3.746,-1.7694,18.357,10.692,-12.568,8.6984,-12.808,0.82935
-1.0742,5.8692,1.9512,4.878,5.8824,0.71197,5.8252,-0.06472,8.6731,4.878,5.8824,3.9409,-7.5829,-0.06349,-1.7694,11.594,7.7939,-7.7831,0.12698,-16.749001,4.6571
3.6651,1.0845,1.9512,7.8049,5.8824,6.5372,6.7961,2.8479,1.877,7.8049,5.8824,6.8966,-3.7915,3.746,2.97,4.8309,7.7939,-9.697,-0.8254,-12.808,9.4418
8.4044,0.12759,7.8049,6.8293,5.8824,7.5081,8.7379,7.7023,-2.0065,6.8293,5.8824,9.8522,3.7915,8.5079,8.6572,0.96618,9.7262,-9.697,2.0317,-2.9557,8.4848
7.4566,2.0415,12.683,5.8537,2.9412,6.5372,6.7961,6.7314,-4.9191,5.8537,2.9412,9.8522,8.5308,9.4603,13.397,-1.9324,9.7262,11.356,1.0794,7.8818,7.5279
4.613,-0.82935,9.7561,-0.97561,-0.98039,7.5081,5.8252,1.877,-9.7735,-0.97561,-0.98039,3.9409,10.427,6.6032,12.449,-3.8647,5.8615,15.183,1.0794,15.764,8.4848
1.7694,3.9553,6.8293,-6.8293,-4.902,-0.2589,3.8835,-2.9773,-6.8608,-6.8293,-4.902,0.98522,12.322,6.6032,10.553,0.96618,5.8615,7.5279,2.9841,18.719,8.4848
-3.9179,6.8262,-1.9512,-8.7805,-6.8627,-4.1424,0.0,-8.8026,-2.9773,-8.7805,-6.8627,-2.9557,9.4787,4.6984,1.0742,4.8309,1.9968,9.4418,3.9365,14.778,8.4848
-12.449,3.9553,-11.707,-10.732,-9.8039,-8.0259,-4.8544,-9.7735,-0.06472,-10.732,-9.8039,-7.8818,2.8436,1.8413,-11.248,2.8986,-6.6989,-5.8692,2.0317,2.9557,5.614
-14.344,-1.7863,-12.683,-9.7561,-7.8431,-11.909,-6.7961,-9.7735,-3.9482,-9.7561,-7.8431,-9.8522,-1.8957,-3.873,-15.987,-3.8647,-9.5974,-8.74,3.9365,-4.9261,-0.12759
-0.12638,-0.82935,0.0,-3.9024,-2.9412,-2.2006,-0.97087,-2.0065,0.90615,-3.9024,-2.9412,-0.98522,-3.7915,-6.7302,-5.5608,-4.8309,-3.8003,2.7432,2.9841,0.98522,-6.8262
12.196,-3.7002,9.7561,0.97561,0.98039,5.5663,4.8544,3.8188,-1.0356,0.97561,0.98039,6.8966,-7.5829,-11.492,2.97,-7.7295,-0.90177,5.614,0.12698,0.98522,-11.611
13.144,-5.614,9.7561,3.9024,2.9412,10.421,5.8252,6.7314,-0.06472,3.9024,2.9412,9.8522,-9.4787,-13.397,3.9179,-9.6618,-1.868,-2.9984,-6.5397,0.0,-11.611
6.5087,-3.7002,7.8049,7.8049,8.8235,10.421,8.7379,7.7023,-2.0065,7.8049,8.8235,10.837,-7.5829,-10.54,0.12638,-6.7633,-4.7665,11.356,-5.5873,-0.98522,-11.611
1.7694,-4.6571,2.9268,6.8293,5.8824,8.479,2.9126,6.7314,1.877,6.8293,5.8824,7.8818,-3.7915,-3.873,-0.82148,-3.8647,-5.7327,18.054001,-3.6825,0.98522,-11.611
1.7694,-5.614,-0.97561,5.8537,4.902,9.4498,0.0,6.7314,0.90615,5.8537,4.902,4.9261,0.0,0.88889,2.0221,0.0,-1.868,7.5279,-8.4444,1.9704,-6.8262
2.7172,0.12759,2.9268,2.9268,0.98039,5.5663,0.0,2.8479,-5.89,2.9268,0.98039,3.9409,4.7393,5.6508,4.8657,6.7633,4.8953,-7.7831,-4.6349,0.0,-0.12759
3.6651,8.74,10.732,4.878,4.902,2.6537,8.7379,0.90615,0.90615,4.878,4.902,7.8818,9.4787,11.365,7.7093,14.493,12.625,-16.396,0.12698,-3.9409,3.7002
3.6651,9.697,10.732,3.9024,4.902,0.71197,7.767,-0.06472,0.90615,3.9024,4.902,4.9261,11.374,10.413,8.6572,12.56,12.625,-5.8692,-6.5397,2.9557,2.7432
2.7172,5.8692,8.7805,0.97561,2.9412,1.6828,4.8544,0.90615,-2.0065,0.97561,2.9412,1.9704,14.218,11.365,10.553,7.7295,9.7262,-1.0845,0.12698,4.9261,4.6571
0.82148,-1.7863,5.8537,-1.9512,-0.98039,0.71197,3.8835,-2.0065,-2.9773,-1.9512,-0.98039,0.98522,10.427,5.6508,8.6572,-0.96618,5.8615,3.7002,3.9365,0.98522,0.82935
1.7694,-4.6571,6.8293,-1.9512,-1.9608,0.71197,1.9417,-1.0356,-6.8608,-1.9512,-1.9608,0.98522,7.5829,2.7937,9.6051,-5.7971,5.8615,2.7432,0.12698,4.9261,-2.0415
1.7694,-4.6571,6.8293,0.0,0.98039,4.5955,0.0,1.877,-1.0356,0.0,0.98039,0.98522,7.5829,2.7937,8.6572,-4.8309,6.8277,2.7432,2.9841,10.837,0.82935
-2.0221,-4.6571,1.9512,0.0,0.98039,4.5955,0.0,1.877,2.8479,0.0,0.98039,0.0,1.8957,-2.9206,0.12638,-6.7633,-0.90177,9.4418,-0.8254,6.8966,0.82935
-3.9179,-0.82935,0.97561,-0.97561,0.98039,-1.2298,3.8835,-0.06472,3.8188,-0.97561,0.98039,1.9704,-3.7915,-6.7302,-5.5608,-7.7295,-7.6651,1.7863,1.0794,3.9409,0.82935
-2.0221,1.0845,0.97561,-0.97561,0.98039,-2.2006,4.8544,0.90615,5.7605,-0.97561,0.98039,1.9704,-3.7915,-5.7778,-6.5087,-5.7971,-8.6312,-0.12759,3.9365,1.9704,-0.12759
3.6651,0.12759,-0.97561,0.97561,3.9216,1.6828,1.9417,-0.06472,-2.0065,0.97561,3.9216,1.9704,-1.8957,-3.873,-2.7172,-2.8986,-5.7327,8.4848,5.8413,1.9704,-0.12759
8.4044,-1.7863,-0.97561,2.9268,2.9412,7.5081,2.9126,2.8479,2.8479,2.9268,2.9412,3.9409,0.0,0.88889,2.97,0.0,-0.90177,6.571,-1.7778,1.9704,-2.0415
10.3,-8.4848,0.97561,5.8537,5.8824,9.4498,1.9417,5.7605,1.877,5.8537,5.8824,4.9261,0.94787,2.7937,5.8136,-0.96618,1.0306,9.4418,-9.3968,0.98522,-5.8692
8.4044,-13.27,3.9024,3.9024,1.9608,2.6537,1.9417,4.7896,-5.89,3.9024,1.9608,4.9261,2.8436,5.6508,7.7093,-3.8647,1.0306,6.571,-6.5397,0.0,-4.9123
3.6651,-12.313,2.9268,0.97561,0.0,-4.1424,-0.97087,-2.9773,-4.9191,0.97561,0.0,0.98522,2.8436,5.6508,7.7093,-5.7971,1.0306,-6.8262,-3.6825,4.9261,-5.8692
-2.97,-5.614,-2.9268,-5.8537,-3.9216,-8.0259,-5.8252,-12.686,-2.9773,-5.8537,-3.9216,-4.9261,5.6872,5.6508,7.7093,-1.9324,1.9968,-12.568,-5.5873,0.0,-4.9123
-5.8136,5.8692,0.0,-4.878,0.98039,-8.9968,0.0,-13.657,-1.0356,-4.878,0.98039,-3.9409,13.27,10.413,9.6051,8.6957,9.7262,-8.74,-0.8254,-0.98522,-0.12759
-5.8136,14.482,5.8537,-1.9512,1.9608,-4.1424,3.8835,-8.8026,4.7896,-1.9512,1.9608,0.0,14.218,11.365,8.6572,15.459,15.523,-11.611,2.0317,-1.9704,2.7432
-6.7615,17.351999,9.7561,-2.9268,0.98039,-1.2298,4.8544,-7.8317,9.644,-2.9268,0.98039,0.0,11.374,11.365,6.7615,19.323999,17.455999,-9.697,5.8413,-5.9113,7.5279
-5.8136,12.568,3.9024,-5.8537,-2.9412,-5.1133,1.9417,-8.8026,-1.0356,-5.8537,-2.9412,-4.9261,6.6351,6.6032,3.9179,14.493,11.659,-9.697,7.746,-3.9409,8.4848
-3.9179,2.9984,-4.878,-8.7805,-6.8627,-8.9968,-3.8835,-4.9191,-9.7735,-8.7805,-6.8627,-10.837,-0.94787,-1.9683,0.12638,2.8986,-0.90177,-4.9123,5.8413,0.0,5.614
-0.12638,-4.6571,-7.8049,-3.9024,-5.8824,-6.0841,-6.7961,4.7896,-4.9191,-3.9024,-5.8824,-9.8522,-3.7915,-3.873,-1.7694,-4.8309,-7.6651,9.4418,-3.6825,5.9113,2.7432
-1.0742,-7.5279,-6.8293,-1.9512,-5.8824,-3.1715,-8.7379,7.7023,-2.9773,-1.9512,-5.8824,-6.8966,-6.6351,-5.7778,-8.4044,-6.7633,-10.564,11.356,-13.206,5.9113,-0.12759
-3.9179,-9.4418,-4.878,0.0,-2.9412,-0.2589,-8.7379,6.7314,-2.0065,0.0,-2.9412,-5.9113,-15.166,-13.397,-14.092,-7.7295,-12.496,-4.9123,-0.8254,-1.9704,-1.0845
-1.0742,-7.5279,-2.9268,-0.97561,-4.902,0.71197,-9.7087,4.7896,3.8188,-0.97561,-4.902,-4.9261,-15.166,-12.444,-10.3,-0.96618,-8.6312,2.7432,10.603,-0.98522,0.82935
5.5608,-2.7432,0.0,-3.9024,-4.902,4.5955,-4.8544,3.8188,2.8479,-3.9024,-4.902,-3.9409,-9.4787,-7.6825,-0.82148,0.96618,-3.8003,6.571,5.8413,0.98522,-0.12759
11.248,0.12759,0.97561,-2.9268,-2.9412,4.5955,-1.9417,2.8479,-0.06472,-2.9268,-2.9412,-0.98522,-2.8436,-3.873,6.7615,0.0,-0.90177,8.4848,2.9841,-1.9704,-3.9553
15.987,2.9984,2.9268,2.9268,3.9216,7.5081,2.9126,3.8188,3.8188,2.9268,3.9216,5.9113,5.6872,1.8413,14.344,1.9324,4.8953,15.183,1.0794,1.9704,-0.12759
10.3,-0.82935,3.9024,6.8293,3.9216,13.333,4.8544,4.7896,0.90615,6.8293,3.9216,9.8522,8.5308,2.7937,13.397,-1.9324,4.8953,11.356,-4.6349,6.8966,-2.9984
2.7172,-1.7863,6.8293,8.7805,8.8235,10.421,6.7961,6.7314,-0.06472,8.7805,8.8235,12.808,10.427,2.7937,9.6051,-1.9324,6.8277,9.4418,-9.3968,10.837,-6.8262
-2.0221,1.0845,8.7805,8.7805,5.8824,7.5081,3.8835,4.7896,4.7896,8.7805,5.8824,11.823,16.114,10.413,8.6572,4.8309,11.659,1.7863,-5.5873,11.823,-6.8262
-3.9179,3.9553,8.7805,7.8049,8.8235,6.5372,4.8544,0.90615,6.7314,7.8049,8.8235,9.8522,14.218,11.365,3.9179,6.7633,11.659,-3.9553,0.12698,1.9704,-6.8262
-5.8136,4.9123,3.9024,2.9268,6.8627,-1.2298,3.8835,-4.9191,6.7314,2.9268,6.8627,6.8966,3.7915,4.6984,-2.7172,6.7633,4.8953,-16.396,-1.7778,-8.867,-5.8692
-4.8657,8.74,0.0,-2.9268,1.9608,-2.2006,4.8544,-9.7735,3.8188,-2.9268,1.9608,2.9557,-6.6351,-1.0159,-7.4566,7.7295,1.0306,-20.223,0.12698,-15.764,-3.9553
-2.97,8.74,0.0,0.0,3.9216,3.6246,7.767,-10.744,7.7023,0.0,3.9216,3.9409,-10.427,-5.7778,-7.4566,6.7633,-1.868,-10.654,10.603,-13.793,-2.0415
-1.0742,1.0845,-1.9512,0.0,3.9216,1.6828,4.8544,-10.744,8.6731,0.0,3.9216,0.0,-10.427,-8.6349,-2.7172,1.9324,-3.8003,-11.611,14.413,-8.867,3.7002
0.82148,-5.614,-3.9024,-5.8537,-0.98039,-8.0259,-5.8252,-11.715,3.8188,-5.8537,-0.98039,-6.8966,-5.6872,-8.6349,2.0221,-1.9324,-3.8003,-4.9123,6.7937,3.9409,0.82935
-1.0742,-6.571,-8.7805,-8.7805,-4.902,-10.939,-10.68,-11.715,3.8188,-8.7805,-4.902,-9.8522,0.0,-4.8254,2.97,-2.8986,-5.7327,3.7002,2.0317,7.8818,-0.12759
-7.7093,-11.356,-17.561001,-16.584999,-10.784,-14.822,-12.621,-12.686,-1.0356,-16.584999,-10.784,-15.764,3.7915,-0.06349,0.12638,-4.8309,-9.5974,1.7863,-0.8254,2.9557,5.614
-9.6051,-13.27,-19.511999,-10.732,-7.8431,-14.822,-10.68,-5.89,-5.89,-10.732,-7.8431,-15.764,8.5308,7.5556,-0.82148,-2.8986,-8.6312,0.82935,0.12698,4.9261,9.4418
-7.7093,-7.5279,-16.584999,-6.8293,-4.902,-8.9968,-6.7961,-1.0356,-4.9191,-6.8293,-4.902,-11.823,6.6351,9.4603,-2.7172,0.0,-6.6989,-4.9123,3.9365,2.9557,8.4848
-3.9179,0.12759,-7.8049,-3.9024,-4.902,-4.1424,-0.97087,0.90615,0.90615,-3.9024,-4.902,-5.9113,1.8957,6.6032,-2.7172,2.8986,-2.8341,0.82935,0.12698,0.98522,4.6571
-0.12638,3.9553,-0.97561,-1.9512,-0.98039,2.6537,2.9126,2.8479,5.7605,-1.9512,-0.98039,0.0,-1.8957,1.8413,-0.82148,2.8986,-0.90177,10.399,-2.7302,0.98522,1.7863
-1.0742,3.9553,0.0,0.0,0.0,5.5663,1.9417,6.7314,7.7023,0.0,0.0,2.9557,-6.6351,-4.8254,-2.7172,0.0,-3.8003,4.6571,1.0794,0.0,-0.12759
-5.8136,3.9553,-2.9268,2.9268,2.9412,1.6828,2.9126,3.8188,2.8479,2.9268,2.9412,1.9704,-9.4787,-7.6825,-8.4044,-1.9324,-6.6989,-2.9984,0.12698,-4.9261,-2.0415
-9.6051,4.9123,-3.9024,1.9512,0.98039,0.71197,3.8835,2.8479,3.8188,1.9512,0.98039,0.0,-8.5308,-4.8254,-10.3,1.9324,-3.8003,-1.0845,2.0317,-9.8522,-2.9984
-5.8136,5.8692,0.0,5.8537,3.9216,2.6537,4.8544,5.7605,3.8188,5.8537,3.9216,0.98522,-6.6351,-1.0159,-8.4044,6.7633,1.0306,1.7863,4.8889,-11.823,-3.9553
4.613,3.9553,8.7805,6.8293,5.8824,8.479,4.8544,7.7023,0.90615,6.8293,5.8824,4.9261,-3.7915,3.746,-0.82148,7.7295,6.8277,-1.0845,2.9841,-3.9409,-4.9123
15.039,4.9123,17.561001,6.8293,9.8039,12.362,7.767,9.644,-2.9773,6.8293,9.8039,11.823,0.94787,7.5556,8.6572,9.6618,13.591,-4.9123,-1.7778,-5.9113,-2.0415
20.726999,9.697,23.415001,9.7561,8.8235,13.333,9.7087,10.615,-0.06472,9.7561,8.8235,13.793,5.6872,10.413,18.136,13.527,20.354,4.6571,-5.5873,-3.9409,0.82935
19.778999,10.654,21.462999,7.8049,4.902,8.479,6.7961,6.7314,5.7605,7.8049,4.902,9.8522,8.5308,10.413,22.875,13.527,23.253,10.399,-0.8254,4.9261,2.7432
12.196,5.8692,10.732,2.9268,0.0,0.71197,2.9126,0.90615,2.8479,2.9268,0.0,2.9557,9.4787,5.6508,20.032,5.7971,16.49,4.6571,1.0794,5.9113,1.7863
0.82148,1.0845,-0.97561,-2.9268,-2.9412,-6.0841,0.97087,-4.9191,0.90615,-2.9268,-2.9412,-4.9261,6.6351,1.8413,7.7093,-1.9324,4.8953,-5.8692,3.9365,3.9409,1.7863
-8.6572,-0.82935,-8.7805,-2.9268,-0.98039,-9.9676,-0.97087,-3.9482,2.8479,-2.9268,-0.98039,-7.8818,4.7393,-0.06349,-3.6651,-3.8647,-4.7665,-6.8262,6.7937,4.9261,3.7002
-14.344,-3.7002,-14.634,-1.9512,-0.98039,-11.909,-7.767,-2.9773,1.877,-1.9512,-0.98039,-11.823,2.8436,-1.0159,-13.144,-3.8647,-11.53,-9.697,4.8889,4.9261,3.7002
-15.292,-6.571,-19.511999,-4.878,-3.9216,-10.939,-12.621,-4.9191,-2.9773,-4.878,-3.9216,-14.778,-4.7393,-6.7302,-16.934999,-5.7971,-16.361,-7.7831,3.9365,0.0,5.614
-11.501,-7.5279,-18.537001,-7.8049,-8.8235,-9.9676,-14.563,-5.89,-2.9773,-7.8049,-8.8235,-14.778,-8.5308,-7.6825,-14.092,-6.7633,-17.327,-6.8262,1.0794,-2.9557,3.7002
-3.9179,-4.6571,-9.7561,-5.8537,-5.8824,-7.055,-10.68,-2.9773,0.90615,-5.8537,-5.8824,-10.837,-2.8436,-1.9683,-6.5087,-3.8647,-9.5974,-3.9553,2.0317,0.98522,3.7002
1.7694,-4.6571,-1.9512,-1.9512,-2.9412,-5.1133,-6.7961,1.877,-2.0065,-1.9512,-2.9412,-5.9113,-0.94787,0.88889,1.0742,-5.7971,-3.8003,-2.0415,2.0317,8.867,-0.12759
2.7172,-6.571,0.97561,3.9024,0.98039,-5.1133,-3.8835,5.7605,-6.8608,3.9024,0.98039,-0.98522,-2.8436,-1.0159,0.12638,-10.628,-1.868,1.7863,-3.6825,1.9704,-2.9984
2.7172,-5.614,2.9268,4.878,0.0,5.5663,0.0,7.7023,-8.8026,4.878,0.0,4.9261,0.94787,4.6984,1.0742,-7.7295,1.0306,6.571,-12.254,-1.9704,-1.0845
2.7172,-2.7432,2.9268,7.8049,2.9412,11.392,1.9417,10.615,-9.7735,7.8049,2.9412,7.8818,4.7393,10.413,2.97,-0.96618,4.8953,8.4848,-12.254,1.9704,-0.12759
6.5087,0.12759,4.878,11.707,7.8431,11.392,2.9126,13.528,-7.8317,11.707,7.8431,9.8522,9.4787,15.175,6.7615,8.6957,8.7601,7.5279,-10.349,2.9557,-0.12759
11.248,2.0415,7.8049,13.659,11.765,13.333,4.8544,16.440001,-3.9482,13.659,11.765,10.837,10.427,17.079,8.6572,11.594,11.659,-2.0415,-1.7778,1.9704,-2.9984
15.987,5.8692,9.7561,13.659,7.8431,17.216999,3.8835,15.469,4.7896,13.659,7.8431,10.837,7.5829,15.175,11.501,12.56,12.625,1.7863,2.9841,-1.9704,-3.9553
20.726999,12.568,12.683,13.659,9.8039,16.246,8.7379,14.498,5.7605,13.659,9.8039,11.823,8.5308,13.27,17.188,13.527,15.523,8.4848,2.9841,-1.9704,-0.12759
20.726999,15.439,14.634,11.707,9.8039,10.421,12.621,10.615,8.6731,11.707,9.8039,11.823,8.5308,11.365,18.136,11.594,14.557,5.614,7.746,-2.9557,2.7432
14.092,12.568,12.683,4.878,6.8627,4.5955,10.68,2.8479,10.615,4.878,6.8627,6.8966,5.6872,7.5556,14.344,6.7633,8.7601,0.82935,11.556,-1.9704,7.5279
6.5087,7.7831,5.8537,1.9512,2.9412,1.6828,4.8544,1.877,3.8188,1.9512,2.9412,1.9704,3.7915,4.6984,6.7615,1.9324,2.963,1.7863,11.556,3.9409,8.4848
-2.97,0.12759,-1.9512,0.0,-0.98039,-6.0841,-2.9126,1.877,0.90615,0.0,-0.98039,-4.9261,0.94787,0.88889,-3.6651,-3.8647,-3.8003,6.571,7.746,6.8966,7.5279
-9.6051,-6.571,-5.8537,-1.9512,-5.8824,-6.0841,-11.65,-0.06472,-2.0065,-1.9512,-5.8824,-10.837,-0.94787,-0.06349,-8.4044,-3.8647,-4.7665,0.82935,-3.6825,12.808,6.571
-12.449,-10.399,-9.7561,-6.8293,-11.765,-12.88,-18.447001,-3.9482,-5.89,-6.8293,-11.765,-15.764,-2.8436,-1.0159,-10.3,-3.8647,-6.6989,-2.9984,-9.3968,7.8818,3.7002
-9.6051,-9.4418,-8.7805,-9.7561,-10.784,-14.822,-15.534,-4.9191,-14.628,-9.7561,-10.784,-15.764,-0.94787,0.88889,-8.4044,-1.9324,-3.8003,-3.9553,-0.8254,0.98522,3.7002
1.7694,-3.7002,-0.97561,-3.9024,-3.9216,-4.1424,-5.8252,0.90615,-8.8026,-3.9024,-3.9216,-5.9113,5.6872,7.5556,2.0221,3.8647,3.9291,0.82935,4.8889,4.9261,5.614
7.4566,-2.7432,-1.9512,1.9512,0.98039,0.71197,-2.9126,5.7605,-6.8608,1.9512,0.98039,-0.98522,5.6872,7.5556,5.8136,0.96618,2.963,11.356,-1.7778,7.8818,2.7432
6.5087,-4.6571,-6.8293,4.878,-0.98039,2.6537,-4.8544,5.7605,-7.8317,4.878,-0.98039,0.98522,4.7393,7.5556,3.9179,-3.8647,-1.868,10.399,-7.4921,5.9113,-0.12759
4.613,-5.614,-2.9268,7.8049,4.902,4.5955,-0.97087,2.8479,-13.657,7.8049,4.902,4.9261,5.6872,8.5079,2.0221,-5.7971,-0.90177,2.7432,-10.349,3.9409,-3.9553
-0.12638,-7.5279,0.0,8.7805,2.9412,6.5372,-1.9417,2.8479,-6.8608,8.7805,2.9412,5.9113,4.7393,7.5556,-0.82148,-6.7633,-0.90177,1.7863,-12.254,1.9704,-6.8262
-1.0742,-7.5279,0.0,5.8537,3.9216,1.6828,-0.97087,2.8479,0.90615,5.8537,3.9216,4.9261,1.8957,5.6508,-5.5608,-8.6957,-4.7665,2.7432,-10.349,-0.98522,-6.8262
-0.12638,-3.7002,-0.97561,0.97561,-0.98039,-0.2589,-0.97087,0.90615,0.90615,0.97561,-0.98039,1.9704,-2.8436,1.8413,-6.5087,-7.7295,-7.6651,-2.0415,-0.8254,-6.8966,-5.8692
3.6651,1.0845,0.0,0.97561,0.0,0.71197,0.0,-1.0356,2.8479,0.97561,0.0,2.9557,-1.8957,1.8413,-1.7694,-1.9324,-4.7665,-1.0845,3.9365,-7.8818,-2.9984
4.613,9.697,4.878,0.0,1.9608,0.71197,2.9126,-4.9191,1.877,0.0,1.9608,3.9409,-1.8957,2.7937,2.0221,4.8309,0.06441,-6.8262,-5.5873,-10.837,1.7863
5.5608,11.611,12.683,0.97561,4.902,5.5663,8.7379,-6.8608,8.6731,0.97561,4.902,7.8818,0.0,1.8413,5.8136,7.7295,4.8953,-12.568,2.9841,-9.8522,6.571
3.6651,5.8692,14.634,1.9512,5.8824,2.6537,9.7087,-4.9191,11.586,1.9512,5.8824,9.8522,1.8957,1.8413,5.8136,3.8647,6.8277,-8.74,16.316999,-3.9409,6.571
0.82148,-0.82935,11.707,1.9512,3.9216,1.6828,4.8544,-2.0065,2.8479,1.9512,3.9216,7.8818,2.8436,2.7937,3.9179,0.0,5.8615,-2.0415,12.508,0.98522,7.5279
2.7172,-1.7863,5.8537,2.9268,3.9216,4.5955,2.9126,2.8479,1.877,2.9268,3.9216,6.8966,4.7393,3.746,2.97,-0.96618,3.9291,8.4848,6.7937,0.0,5.614
3.6651,3.9553,3.9024,3.9024,4.902,4.5955,3.8835,2.8479,1.877,3.9024,4.902,6.8966,2.8436,-0.06349,1.0742,-1.9324,1.9968,8.4848,2.9841,1.9704,-2.9984
5.5608,7.7831,4.878,5.8537,5.8824,5.5663,4.8544,0.90615,1.877,5.8537,5.8824,5.9113,0.94787,-1.9683,2.0221,-1.9324,1.9968,5.614,-3.6825,6.8966,-8.74
6.5087,11.611,4.878,3.9024,2.9412,4.5955,5.8252,1.877,0.90615,3.9024,2.9412,4.9261,0.0,-0.06349,0.12638,0.0,0.06441,2.7432,-3.6825,5.9113,-7.7831
3.6651,8.74,-0.97561,0.0,-0.98039,-0.2589,0.97087,-0.06472,-2.9773,0.0,-0.98039,0.0,-0.94787,1.8413,-3.6651,2.8986,-1.868,3.7002,-2.7302,2.9557,-2.9984
-3.9179,3.9553,-8.7805,-3.9024,-6.8627,-6.0841,-7.767,-2.9773,-7.8317,-3.9024,-6.8627,-6.8966,0.0,5.6508,-8.4044,6.7633,-1.868,-5.8692,-5.5873,-0.98522,0.82935
-13.397,-4.6571,-15.61,-5.8537,-4.902,-7.055,-8.7379,-6.8608,-11.715,-5.8537,-4.902,-9.8522,-3.7915,3.746,-15.987,1.9324,-6.6989,-4.9123,-12.254,-4.9261,1.7863
-14.344,-11.356,-13.659,-4.878,-4.902,-7.055,-8.7379,-5.89,-2.0065,-4.878,-4.902,-6.8966,-4.7393,1.8413,-14.092,-2.8986,-8.6312,-0.12759,-8.4444,-2.9557,0.82935
-1.0742,-13.27,-2.9268,-0.97561,0.98039,0.71197,-3.8835,-3.9482,3.8188,-0.97561,0.98039,0.0,0.94787,1.8413,-0.82148,-4.8309,-1.868,3.7002,0.12698,5.9113,-4.9123
12.196,-6.571,7.8049,3.9024,3.9216,8.479,6.7961,-2.9773,4.7896,3.9024,3.9216,7.8818,1.8957,-0.06349,11.501,-4.8309,4.8953,3.7002,2.9841,11.823,-9.697
16.934999,2.9984,11.707,5.8537,7.8431,10.421,8.7379,-0.06472,9.644,5.8537,7.8431,10.837,2.8436,0.88889,15.292,0.0,10.692,5.614,3.9365,8.867,-5.8692
10.3,11.611,7.8049,1.9512,3.9216,7.5081,2.9126,-1.0356,7.7023,1.9512,3.9216,6.8966,2.8436,3.746,10.553,5.7971,10.692,5.614,7.746,-3.9409,-0.12759
-0.12638,14.482,1.9512,-2.9268,-1.9608,-3.1715,2.9126,-5.89,6.7314,-2.9268,-1.9608,0.98522,0.94787,6.6032,2.97,10.628,6.8277,-3.9553,10.603,-11.823,9.4418
-1.0742,11.611,0.0,3.9024,2.9412,-2.2006,4.8544,-1.0356,8.6731,3.9024,2.9412,0.0,-1.8957,4.6984,-3.6651,8.6957,1.0306,0.82935,10.603,-12.808,10.399
1.7694,5.8692,2.9268,5.8537,6.8627,4.5955,2.9126,5.7605,9.644,5.8537,6.8627,2.9557,-7.5829,-1.0159,-7.4566,3.8647,-3.8003,2.7432,3.9365,-12.808,7.5279
-0.12638,-1.7863,2.9268,3.9024,5.8824,7.5081,1.9417,6.7314,6.7314,3.9024,5.8824,4.9261,-7.5829,-5.7778,-8.4044,-2.8986,-7.6651,-1.0845,2.9841,-8.867,2.7432
-4.8657,-10.399,0.97561,7.8049,5.8824,8.479,3.8835,7.7023,6.7314,7.8049,5.8824,5.9113,-7.5829,-11.492,-9.3523,-10.628,-10.564,-2.0415,-0.8254,-3.9409,-5.8692
-4.8657,-10.399,-4.878,7.8049,4.902,6.5372,6.7961,5.7605,5.7605,7.8049,4.902,3.9409,-9.4787,-14.349,-9.3523,-13.527,-13.462,-1.0845,-5.5873,0.0,-6.8262
-1.0742,-5.614,-10.732,1.9512,0.0,0.71197,1.9417,2.8479,2.8479,1.9512,0.0,0.0,-8.5308,-12.444,-5.5608,-11.594,-13.462,-0.12759,-13.206,2.9557,-6.8262
4.613,-0.82935,-5.8537,-1.9512,0.98039,-5.1133,0.97087,-1.0356,4.7896,-1.9512,0.98039,-0.98522,-5.6872,-8.6349,1.0742,-3.8647,-6.6989,2.7432,-0.8254,6.8966,-5.8692
8.4044,7.7831,1.9512,-1.9512,0.98039,-0.2589,0.97087,-1.0356,1.877,-1.9512,0.98039,0.0,0.0,-5.7778,8.6572,6.7633,3.9291,2.7432,3.9365,7.8818,-4.9123
5.5608,10.654,5.8537,-1.9512,1.9608,3.6246,0.97087,-4.9191,0.90615,-1.9512,1.9608,0.98522,3.7915,-3.873,9.6051,12.56,10.692,6.571,2.9841,4.9261,-4.9123
0.82148,8.74,9.7561,2.9268,3.9216,5.5663,4.8544,-5.89,2.8479,2.9268,3.9216,5.9113,2.8436,-5.7778,5.8136,12.56,11.659,6.571,0.12698,6.8966,-5.8692
-0.12638,5.8692,11.707,10.732,11.765,7.5081,9.7087,-0.06472,-0.06472,10.732,11.765,11.823,-1.8957,-7.6825,2.0221,5.7971,8.7601,-3.9553,-5.5873,0.98522,-10.654
-2.0221,-1.7863,8.7805,8.7805,10.784,2.6537,6.7961,-1.0356,4.7896,8.7805,10.784,10.837,-7.5829,-9.5873,-2.7172,-5.7971,0.06441,-2.0415,-2.7302,-7.8818,-13.525
-2.97,-3.7002,4.878,5.8537,9.8039,1.6828,6.7961,-2.0065,7.7023,5.8537,9.8039,8.867,-9.4787,-9.5873,-5.5608,-11.594,-5.7327,0.82935,1.0794,-9.8522,-9.697
-3.9179,-1.7863,1.9512,0.97561,4.902,2.6537,6.7961,-3.9482,10.615,0.97561,4.902,5.9113,-11.374,-9.5873,-8.4044,-8.6957,-7.6651,0.82935,2.0317,-11.823,-2.9984
-5.8136,3.9553,2.9268,-0.97561,4.902,2.6537,9.7087,-4.9191,9.644,-0.97561,4.902,2.9557,-9.4787,-5.7778,-10.3,-0.96618,-4.7665,-4.9123,7.746,-12.808,7.5279
-7.7093,8.74,-0.97561,0.0,3.9216,-0.2589,10.68,-2.0065,14.498,0.0,3.9216,0.0,-6.6351,-1.0159,-10.3,5.7971,-3.8003,-3.9553,5.8413,-10.837,13.27
-11.501,2.9984,-11.707,-4.878,1.9608,-11.909,4.8544,-2.0065,13.528,-4.878,1.9608,-5.9113,-6.6351,-4.8254,-12.196,1.9324,-8.6312,-1.0845,3.9365,-9.8522,12.313
-9.6051,-0.82935,-13.659,-2.9268,0.98039,-9.9676,0.0,1.877,9.644,-2.9268,0.98039,-5.9113,-3.7915,-5.7778,-7.4566,-0.96618,-9.5974,-1.0845,13.46,-2.9557,6.571
-5.8136,-5.614,-8.7805,-1.9512,-0.98039,-5.1133,-5.8252,2.8479,6.7314,-1.9512,-0.98039,-3.9409,-1.8957,-5.7778,-3.6651,-2.8986,-7.6651,-9.697,15.365,3.9409,2.7432
-3.9179,-5.614,-3.9024,-2.9268,-2.9412,-3.1715,-9.7087,-2.0065,-2.0065,-2.9268,-2.9412,-3.9409,-3.7915,-9.5873,-3.6651,-3.8647,-7.6651,-7.7831,3.9365,3.9409,-2.9984
0.82148,-0.82935,1.9512,-0.97561,0.0,-0.2589,-3.8835,-0.06472,-0.06472,-0.97561,0.0,-0.98522,-2.8436,-10.54,-0.82148,0.0,-3.8003,4.6571,-2.7302,2.9557,-6.8262
6.5087,3.9553,6.8293,0.97561,2.9412,6.5372,0.0,3.8188,-2.9773,0.97561,2.9412,2.9557,1.8957,-4.8254,5.8136,4.8309,4.8953,10.399,-7.4921,6.8966,-6.8262
6.5087,2.9984,4.878,0.0,0.0,4.5955,-1.9417,1.877,-4.9191,0.0,0.0,1.9704,6.6351,0.88889,7.7093,6.7633,7.7939,0.82935,-7.4921,5.9113,-8.74
3.6651,-0.82935,0.97561,0.97561,0.0,3.6246,-1.9417,-2.9773,-2.9773,0.97561,0.0,3.9409,5.6872,0.88889,5.8136,4.8309,5.8615,0.82935,-1.7778,1.9704,-5.8692
1.7694,-1.7863,3.9024,2.9268,1.9608,8.479,0.97087,-2.9773,-3.9482,2.9268,1.9608,8.867,3.7915,-0.06349,3.9179,0.96618,3.9291,2.7432,1.0794,5.9113,-4.9123
-1.0742,-1.7863,9.7561,3.9024,6.8627,8.479,6.7961,-1.0356,-2.0065,3.9024,6.8627,11.823,0.94787,-2.9206,-1.7694,-4.8309,1.0306,-2.0415,0.12698,1.9704,-5.8692
-4.8657,2.9984,11.707,3.9024,4.902,4.5955,9.7087,-3.9482,1.877,3.9024,4.902,10.837,-2.8436,-6.7302,-5.5608,-5.7971,-0.90177,-3.9553,-6.5397,-4.9261,-5.8692
-3.9179,9.697,10.732,3.9024,4.902,1.6828,10.68,-5.89,6.7314,3.9024,4.902,8.867,-4.7393,-6.7302,-2.7172,0.0,2.963,-5.8692,-7.4921,-3.9409,0.82935
-2.0221,10.654,3.9024,-0.97561,1.9608,-1.2298,8.7379,-6.8608,1.877,-0.97561,1.9608,3.9409,-1.8957,-3.873,1.0742,3.8647,3.9291,-8.74,9.6508,-2.9557,8.4848
1.7694,6.8262,-0.97561,-4.878,0.0,-2.2006,3.8835,-5.89,5.7605,-4.878,0.0,-1.9704,0.94787,-0.06349,4.8657,5.7971,3.9291,-8.74,18.222,-0.98522,16.139999
2.7172,2.9984,-3.9024,-5.8537,-2.9412,-3.1715,-2.9126,-2.0065,9.644,-5.8537,-2.9412,-6.8966,2.8436,1.8413,5.8136,7.7295,4.8953,-1.0845,14.413,0.0,19.011
-2.97,-3.7002,-11.707,-4.878,-3.9216,-6.0841,-7.767,-0.06472,1.877,-4.878,-3.9216,-12.808,1.8957,3.746,2.97,5.7971,1.9968,6.571,12.508,0.0,14.226
-5.8136,-3.7002,-12.683,0.97561,-0.98039,-4.1424,-8.7379,4.7896,2.8479,0.97561,-0.98039,-13.793,3.7915,3.746,0.12638,6.7633,1.0306,10.399,6.7937,2.9557,9.4418
-2.97,2.0415,-4.878,15.61,10.784,4.5955,0.0,13.528,7.7023,15.61,10.784,-3.9409,3.7915,0.88889,2.0221,7.7295,1.9968,8.4848,5.8413,4.9261,3.7002
1.7694,2.9984,1.9512,27.316999,21.569,10.421,7.767,19.353001,11.586,27.316999,21.569,6.8966,1.8957,-2.9206,3.9179,2.8986,1.9968,13.27,1.0794,6.8966,-3.9553
4.613,-1.7863,0.97561,30.243999,24.51,10.421,6.7961,18.382,11.586,30.243999,24.51,8.867,0.0,-5.7778,3.9179,-4.8309,-2.8341,14.226,-2.7302,6.8966,-9.697
8.4044,0.12759,3.9024,32.195,27.451,9.4498,11.65,19.353001,4.7896,32.195,27.451,11.823,0.94787,-3.873,4.8657,-6.7633,-4.7665,9.4418,-6.5397,9.8522,-9.697
11.248,2.9984,7.8049,34.146,27.451,15.275,15.534,18.382,8.6731,34.146,27.451,14.778,1.8957,-1.0159,4.8657,-4.8309,-4.7665,-3.9553,-11.302,9.8522,-3.9553
5.5608,4.9123,6.8293,31.219999,30.392,17.216999,15.534,11.586,12.557,31.219999,30.392,12.808,0.0,-1.0159,0.12638,0.0,-2.8341,-10.654,-5.5873,0.98522,4.6571
3.6651,6.8262,9.7561,32.195,31.372999,13.333,16.504999,11.586,12.557,32.195,31.372999,13.793,2.8436,3.746,2.0221,6.7633,2.963,-1.0845,2.9841,-3.9409,5.614
4.613,2.9984,10.732,36.098,33.333,12.362,15.534,13.528,8.6731,36.098,33.333,13.793,5.6872,6.6032,6.7615,8.6957,9.7262,7.5279,6.7937,-1.9704,3.7002
0.82148,1.0845,3.9024,28.292999,23.528999,11.392,7.767,9.644,4.7896,28.292999,23.528999,8.867,7.5829,6.6032,7.7093,8.6957,8.7601,4.6571,3.9365,2.9557,2.7432
-5.8136,1.0845,-3.9024,19.511999,17.646999,3.6246,3.8835,2.8479,4.7896,19.511999,17.646999,2.9557,4.7393,3.746,2.0221,6.7633,2.963,1.7863,10.603,1.9704,3.7002
-7.7093,-2.7432,-4.878,12.683,11.765,-1.2298,0.0,0.90615,7.7023,12.683,11.765,-0.98522,-2.8436,-5.7778,-1.7694,-2.8986,-3.8003,-1.0845,9.6508,0.98522,1.7863
-3.9179,-5.614,0.97561,11.707,11.765,-3.1715,2.9126,6.7314,7.7023,11.707,11.765,1.9704,-5.6872,-9.5873,-2.7172,-12.56,-6.6989,1.7863,2.0317,-1.9704,-2.0415
-2.0221,-8.4848,1.9512,8.7805,6.8627,0.71197,2.9126,9.644,4.7896,8.7805,6.8627,1.9704,-6.6351,-9.5873,-4.613,-16.424999,-8.6312,-3.9553,-0.8254,-2.9557,-5.8692
-2.97,-11.356,-3.9024,6.8293,4.902,0.71197,0.97087,9.644,5.7605,6.8293,4.902,-0.98522,-5.6872,-7.6825,-6.5087,-13.527,-8.6312,-6.8262,-2.7302,-1.9704,-7.7831
-6.7615,-7.5279,-14.634,0.0,-2.9412,-3.1715,-2.9126,7.7023,-1.0356,0.0,-2.9412,-6.8966,-5.6872,-4.8254,-7.4566,-4.8309,-6.6989,2.7432,-6.5397,-2.9557,-6.8262
-5.8136,-3.7002,-19.511999,-3.9024,-5.8824,-2.2006,-6.7961,8.6731,-7.8317,-3.9024,-5.8824,-9.8522,-1.8957,-0.06349,-3.6651,2.8986,-3.8003,13.27,-3.6825,0.0,-2.0415
-6.7615,-4.6571,-20.488001,-5.8537,-8.8235,-4.1424,-11.65,3.8188,-12.686,-5.8537,-8.8235,-11.823,0.0,1.8413,-2.7172,5.7971,-2.8341,11.356,-0.8254,2.9557,-0.12759
-6.7615,-6.571,-17.561001,-8.7805,-13.725,-7.055,-13.592,-1.0356,-11.715,-8.7805,-13.725,-13.793,1.8957,1.8413,-1.7694,3.8647,-4.7665,8.4848,-1.7778,6.8966,1.7863
-4.8657,-5.614,-5.8537,-12.683,-12.745,-11.909,-5.8252,-6.8608,-10.744,-12.683,-12.745,-8.867,4.7393,1.8413,2.0221,0.0,-4.7665,-1.0845,-4.6349,8.867,-1.0845
2.7172,-5.614,8.7805,-12.683,-9.8039,-14.822,0.97087,-11.715,-7.8317,-12.683,-9.8039,-1.9704,8.5308,4.6984,9.6051,-3.8647,-0.90177,-1.0845,-3.6825,13.793,-2.0415
10.3,2.0415,21.462999,-10.732,-5.8824,-3.1715,7.767,-12.686,-2.0065,-10.732,-5.8824,7.8818,12.322,9.4603,18.136,-0.96618,8.7601,-2.0415,-0.8254,11.823,1.7863
10.3,9.697,23.415001,-10.732,-6.8627,4.5955,9.7087,-10.744,-6.8608,-10.732,-6.8627,12.808,13.27,13.27,16.24,4.8309,17.455999,-10.654,-3.6825,-2.9557,3.7002
5.5608,6.8262,16.584999,-13.659,-8.8235,4.5955,3.8835,-10.744,-5.89,-13.659,-8.8235,7.8818,13.27,14.222,10.553,5.7971,18.422001,-22.136999,0.12698,-6.8966,5.614
2.7172,5.8692,11.707,-16.584999,-14.706,2.6537,-2.9126,-7.8317,-6.8608,-16.584999,-14.706,0.98522,12.322,13.27,7.7093,7.7295,17.455999,-10.654,1.0794,-2.9557,5.614
-2.97,3.9553,5.8537,-19.511999,-19.608,-6.0841,-4.8544,-9.7735,-11.715,-19.511999,-19.608,-4.9261,4.7393,5.6508,0.12638,7.7295,9.7262,-0.12759,-3.6825,-3.9409,5.614
-9.6051,2.9984,0.0,-17.561001,-17.646999,-9.9676,-4.8544,-5.89,-4.9191,-17.561001,-17.646999,-6.8966,-3.7915,-1.9683,-6.5087,6.7633,1.9968,-2.9984,2.0317,-5.9113,5.614
-9.6051,-1.7863,-6.8293,-14.634,-9.8039,-7.055,-5.8252,-1.0356,-2.0065,-14.634,-9.8039,-5.9113,-9.4787,-9.5873,-9.3523,1.9324,-6.6989,1.7863,7.746,-7.8818,2.7432
-9.6051,-12.313,-13.659,-16.584999,-12.745,-7.055,-9.7087,-3.9482,-3.9482,-16.584999,-12.745,-7.8818,-15.166,-17.205999,-10.3,-7.7295,-15.395,4.6571,5.8413,-4.9261,-5.8692
-8.6572,-22.839001,-17.561001,-19.511999,-17.646999,-12.88,-13.592,-5.89,-10.744,-19.511999,-17.646999,-10.837,-16.114,-21.016001,-9.3523,-17.391001,-19.259001,5.614,-1.7778,-1.9704,-10.654
-2.0221,-25.709999,-13.659,-17.561001,-21.569,-10.939,-13.592,-2.0065,-13.657,-17.561001,-21.569,-10.837,-7.5829,-16.254,-2.7172,-20.290001,-15.395,8.4848,-7.4921,5.9113,-13.525
3.6651,-19.011,-6.8293,-16.584999,-18.627001,-5.1133,-12.621,-1.0356,-14.628,-16.584999,-18.627001,-9.8522,1.8957,-6.7302,3.9179,-16.424999,-5.7327,3.7002,-16.063,8.867,-15.439
2.7172,-16.139999,-0.97561,-18.537001,-16.667,-1.2298,-9.7087,-2.9773,-17.540001,-18.537001,-16.667,-8.867,3.7915,-1.9683,3.9179,-12.56,0.06441,-2.9984,-21.778,6.8966,-13.525
3.6651,-8.4848,5.8537,-16.584999,-12.745,-3.1715,-4.8544,-1.0356,-10.744,-16.584999,-12.745,-3.9409,3.7915,2.7937,4.8657,-2.8986,5.8615,0.82935,-11.302,7.8818,-7.7831
3.6651,3.9553,7.8049,-14.634,-11.765,-4.1424,-2.9126,-0.06472,-5.89,-14.634,-11.765,-2.9557,6.6351,8.5079,5.8136,7.7295,9.7262,-4.9123,-0.8254,-2.9557,-1.0845
3.6651,11.611,5.8537,-12.683,-13.725,-3.1715,0.97087,-3.9482,-8.8026,-12.683,-13.725,-2.9557,14.218,16.127001,7.7093,14.493,11.659,-4.9123,-3.6825,-5.9113,3.7002
0.82148,9.697,-0.97561,-15.61,-14.706,-5.1133,-3.8835,-9.7735,-10.744,-15.61,-14.706,-6.8966,16.114,16.127001,7.7093,14.493,10.692,1.7863,-1.7778,-0.98522,4.6571
-4.8657,3.9553,-10.732,-21.462999,-19.608,-12.88,-10.68,-13.657,-12.686,-21.462999,-19.608,-12.808,10.427,11.365,3.9179,10.628,5.8615,-3.9553,2.0317,-1.9704,4.6571
-10.553,-4.6571,-19.511999,-24.389999,-22.549,-20.646999,-15.534,-14.628,-15.599,-24.389999,-22.549,-20.690001,3.7915,7.5556,-1.7694,3.8647,1.0306,-9.697,0.12698,-3.9409,5.614
-17.188,-8.4848,-23.415001,-26.341,-26.471001,-23.559999,-18.447001,-16.57,-12.686,-26.341,-26.471001,-25.615999,-0.94787,4.6984,-8.4044,1.9324,-1.868,-12.568,0.12698,-6.8966,7.5279
-20.979,-10.399,-18.537001,-26.341,-25.49,-24.531,-21.358999,-15.599,-13.657,-26.341,-25.49,-23.645,-2.8436,2.7937,-12.196,0.96618,-0.90177,-17.351999,1.0794,-7.8818,11.356
-19.084,-11.356,-5.8537,-25.365999,-26.471001,-22.589001,-20.388,-10.744,-14.628,-25.365999,-26.471001,-17.733999,1.8957,6.6032,-8.4044,0.96618,4.8953,-11.611,1.0794,0.0,12.313
-7.7093,-7.5279,4.878,-17.561001,-20.587999,-11.909,-13.592,-3.9482,-12.686,-17.561001,-20.587999,-7.8818,11.374,12.317,0.12638,0.96618,10.692,5.614,-4.6349,9.8522,7.5279
7.4566,-7.5279,12.683,-10.732,-14.706,5.5663,-11.65,3.8188,-8.8026,-10.732,-14.706,1.9704,18.009001,14.222,9.6051,0.0,12.625,18.054001,-7.4921,16.749001,3.7002
13.144,-10.399,8.7805,-7.8049,-9.8039,10.421,-8.7379,6.7314,-12.686,-7.8049,-9.8039,3.9409,10.427,7.5556,7.7093,-4.8309,4.8953,19.968,-3.6825,11.823,1.7863
11.248,-11.356,0.0,-8.7805,-12.745,9.4498,-7.767,3.8188,-11.715,-8.7805,-12.745,0.98522,0.94787,-2.9206,2.0221,-10.628,-5.7327,11.356,-10.349,5.9113,-3.9553
15.039,-7.5279,0.0,-5.8537,-6.8627,11.392,0.0,4.7896,-7.8317,-5.8537,-6.8627,3.9409,0.94787,-5.7778,9.6051,-7.7295,-2.8341,10.399,-11.302,7.8818,-10.654
16.934999,-0.82935,4.878,-4.878,-1.9608,6.5372,6.7961,3.8188,-5.89,-4.878,-1.9608,7.8818,1.8957,-3.873,17.188,0.96618,6.8277,12.313,-7.4921,8.867,-14.482
12.196,4.9123,9.7561,-3.9024,-0.98039,4.5955,6.7961,-0.06472,-0.06472,-3.9024,-0.98039,6.8966,3.7915,-1.0159,18.136,8.6957,13.591,6.571,-3.6825,6.8966,-10.654
0.82148,5.8692,7.8049,-9.7561,-2.9412,-5.1133,0.0,-6.8608,0.90615,-9.7561,-2.9412,0.0,4.7393,3.746,11.501,12.56,13.591,-12.568,-1.7778,6.8966,-3.9553
-7.7093,2.9984,0.97561,-9.7561,-6.8627,-11.909,-5.8252,-10.744,-1.0356,-9.7561,-6.8627,-5.9113,4.7393,5.6508,3.9179,14.493,10.692,-15.439,-1.7778,0.0,-0.12759
-14.344,2.9984,-8.7805,-11.707,-5.8824,-14.822,-3.8835,-13.657,-1.0356,-11.707,-5.8824,-8.867,0.0,3.746,-5.5608,12.56,3.9291,-5.8692,1.0794,-12.808,4.6571
-20.032,6.8262,-14.634,-13.659,-6.8627,-18.705999,-1.9417,-15.599,2.8479,-13.659,-6.8627,-11.823,-4.7393,2.7937,-14.092,8.6957,-3.8003,-9.697,4.8889,-18.719,3.7002
-16.24,10.654,-6.8293,-15.61,-4.902,-15.793,0.97087,-14.628,8.6731,-15.61,-4.902,-10.837,-4.7393,3.746,-13.144,7.7295,-3.8003,-10.654,7.746,-14.778,6.571
-9.6051,10.654,1.9512,-18.537001,-8.8235,-17.735001,-0.97087,-17.540001,5.7605,-18.537001,-8.8235,-9.8522,-4.7393,2.7937,-6.5087,8.6957,-0.90177,-8.74,-1.7778,-8.867,8.4848
-2.97,3.9553,2.9268,-15.61,-8.8235,-15.793,-3.8835,-15.599,-0.06472,-15.61,-8.8235,-10.837,-2.8436,0.88889,-0.82148,5.7971,0.06441,-8.74,1.0794,0.0,6.571
-1.0742,-8.4848,-5.8537,-13.659,-11.765,-15.793,-12.621,-8.8026,-0.06472,-13.659,-11.765,-15.764,-0.94787,-2.9206,2.0221,-0.96618,-2.8341,-2.0415,12.508,4.9261,4.6571
-2.0221,-16.139999,-15.61,-12.683,-13.725,-13.851,-16.504999,-3.9482,-2.9773,-12.683,-13.725,-17.733999,0.0,-4.8254,0.12638,-10.628,-9.5974,5.614,10.603,7.8818,1.7863
-1.0742,-13.27,-15.61,-10.732,-16.667,-7.055,-17.476,-1.0356,-11.715,-10.732,-16.667,-14.778,-1.8957,-6.7302,-0.82148,-16.424999,-12.496,2.7432,2.9841,5.9113,1.7863
4.613,-10.399,-2.9268,-4.878,-11.765,3.6246,-12.621,2.8479,-7.8317,-4.878,-11.765,-7.8818,0.0,-2.9206,2.97,-14.493,-7.6651,1.7863,0.12698,7.8818,4.6571
9.3523,-10.399,6.8293,-4.878,-8.8235,5.5663,-9.7087,6.7314,-4.9191,-4.878,-8.8235,-0.98522,-1.8957,-1.9683,4.8657,-14.493,-4.7665,4.6571,-1.7778,5.9113,2.7432
13.144,-8.4848,8.7805,-0.97561,-1.9608,8.479,-0.97087,10.615,-2.0065,-0.97561,-1.9608,5.9113,-4.7393,-4.8254,4.8657,-12.56,-3.8003,3.7002,-0.8254,0.98522,3.7002
15.039,-0.82935,7.8049,6.8293,4.902,13.333,9.7087,14.498,-3.9482,6.8293,4.902,12.808,-4.7393,-4.8254,4.8657,-6.7633,-0.90177,8.4848,-2.7302,-1.9704,2.7432
15.039,8.74,10.732,14.634,13.725,12.362,17.476,17.410999,1.877,14.634,13.725,19.704,-6.6351,-4.8254,6.7615,1.9324,5.8615,14.226,2.9841,-0.98522,2.7432
8.4044,11.611,14.634,17.561001,14.706,16.246,17.476,11.586,8.6731,17.561001,14.706,20.690001,-8.5308,-6.7302,2.0221,7.7295,8.7601,7.5279,1.0794,-9.8522,2.7432
1.7694,11.611,15.61,13.659,12.745,13.333,14.563,6.7314,10.615,13.659,12.745,16.749001,-7.5829,-4.8254,-0.82148,9.6618,10.692,-4.9123,-14.159,-14.778,-0.12759
-3.9179,6.8262,13.659,9.7561,7.8431,5.5663,8.7379,3.8188,0.90615,9.7561,7.8431,10.837,-6.6351,-1.9683,-2.7172,10.628,9.7262,-8.74,-7.4921,-12.808,-2.0415
-7.7093,1.0845,7.8049,9.7561,10.784,3.6246,5.8252,2.8479,8.6731,9.7561,10.784,6.8966,-3.7915,2.7937,-3.6651,12.56,6.8277,-7.7831,4.8889,-6.8966,-0.12759
-7.7093,-1.7863,0.97561,8.7805,14.706,3.6246,11.65,-2.0065,13.528,8.7805,14.706,8.867,-2.8436,0.88889,-4.613,10.628,3.9291,-9.697,3.9365,-2.9557,-0.12759
-1.0742,5.8692,4.878,11.707,15.686,5.5663,16.504999,-0.06472,13.528,11.707,15.686,13.793,2.8436,1.8413,2.97,12.56,7.7939,-2.0415,3.9365,4.9261,0.82935
4.613,15.439,8.7805,10.732,14.706,9.4498,17.476,0.90615,16.440001,10.732,14.706,14.778,4.7393,0.88889,8.6572,12.56,11.659,3.7002,2.0317,7.8818,-1.0845
2.7172,16.396,4.878,4.878,5.8824,4.5955,13.592,-2.0065,9.644,4.878,5.8824,6.8966,6.6351,-1.0159,7.7093,6.7633,7.7939,-0.12759,3.9365,8.867,-4.9123
1.7694,8.74,-3.9024,6.8293,5.8824,-2.2006,8.7379,-0.06472,12.557,6.8293,5.8824,1.9704,7.5829,-1.0159,3.9179,-4.8309,0.06441,6.571,5.8413,10.837,-8.74
-2.0221,-5.614,-18.537001,3.9024,2.9412,-0.2589,0.0,1.877,10.615,3.9024,2.9412,-2.9557,0.94787,-4.8254,-4.613,-17.391001,-11.53,4.6571,5.8413,5.9113,-8.74
-7.7093,-11.356,-27.316999,0.97561,2.9412,-2.2006,-2.9126,-0.06472,2.8479,0.97561,2.9412,-7.8818,-12.322,-14.349,-17.882999,-25.121,-23.124001,-2.9984,4.8889,-4.9261,-7.7831
-10.553,-7.5279,-19.511999,0.0,2.9412,-5.1133,0.97087,-2.0065,4.7896,0.0,2.9412,-6.8966,-19.905001,-15.302,-22.622,-23.188,-25.056,-3.9553,5.8413,-10.837,-3.9553
-8.6572,-2.7432,-10.732,1.9512,4.902,-5.1133,2.9126,-0.06472,4.7896,1.9512,4.902,-2.9557,-21.801001,-14.349,-20.726999,-19.323999,-21.191999,-6.8262,-6.5397,-10.837,0.82935
-4.8657,-0.82935,-4.878,2.9268,0.98039,-5.1133,-0.97087,0.90615,1.877,2.9268,0.98039,-1.9704,-19.905001,-10.54,-15.987,-11.594,-14.428,-12.568,-8.4444,-9.8522,1.7863
2.7172,1.0845,-1.9512,5.8537,1.9608,3.6246,2.9126,3.8188,-1.0356,5.8537,1.9608,0.98522,-12.322,-0.06349,-7.4566,0.0,-3.8003,-8.74,4.8889,-10.837,6.571
7.4566,5.8692,1.9512,8.7805,6.8627,11.392,7.767,6.7314,2.8479,8.7805,6.8627,6.8966,0.0,9.4603,1.0742,9.6618,6.8277,2.7432,9.6508,-6.8966,12.313
4.613,6.8262,7.8049,8.7805,8.8235,3.6246,7.767,3.8188,7.7023,8.7805,8.8235,7.8818,8.5308,14.222,6.7615,13.527,13.591,1.7863,7.746,-0.98522,13.27
3.6651,6.8262,14.634,11.707,11.765,1.6828,8.7379,2.8479,6.7314,11.707,11.765,7.8818,9.4787,12.317,9.6051,12.56,15.523,-8.74,3.9365,0.98522,10.399
5.5608,6.8262,17.561001,12.683,10.784,9.4498,6.7961,6.7314,0.90615,12.683,10.784,8.867,11.374,9.4603,11.501,9.6618,15.523,-5.8692,0.12698,4.9261,3.7002
4.613,7.7831,14.634,12.683,9.8039,12.362,5.8252,6.7314,2.8479,12.683,9.8039,8.867,12.322,7.5556,10.553,10.628,15.523,8.4848,-1.7778,7.8818,-2.0415
6.5087,10.654,9.7561,12.683,8.8235,12.362,8.7379,5.7605,3.8188,12.683,8.8235,10.837,12.322,10.413,8.6572,13.527,14.557,13.27,-1.7778,10.837,-2.9984
10.3,10.654,7.8049,9.7561,8.8235,12.362,6.7961,3.8188,-6.8608,9.7561,8.8235,9.8522,13.27,10.413,8.6572,12.56,11.659,12.313,-6.5397,13.793,0.82935
10.3,9.697,6.8293,2.9268,2.9412,8.479,0.97087,3.8188,-7.8317,2.9268,2.9412,3.9409,11.374,7.5556,7.7093,7.7295,5.8615,5.614,-8.4444,16.749001,-0.12759
7.4566,7.7831,5.8537,-1.9512,-1.9608,0.71197,-2.9126,1.877,-4.9191,-1.9512,-1.9608,-0.98522,6.6351,4.6984,4.8657,1.9324,-0.90177,4.6571,-12.254,13.793,0.82935
-1.0742,1.0845,-0.97561,-6.8293,-11.765,-8.9968,-8.7379,-2.0065,-8.8026,-6.8293,-11.765,-7.8818,-1.8957,-1.0159,-4.613,-8.6957,-10.564,7.5279,-15.111,5.9113,-1.0845
-7.7093,-7.5279,-9.7561,-5.8537,-10.784,-12.88,-11.65,-4.9191,-7.8317,-5.8537,-10.784,-11.823,-7.5829,-5.7778,-14.092,-16.424999,-17.327,7.5279,-6.5397,-1.9704,-3.9553
-9.6051,-12.313,-17.561001,-2.9268,-7.8431,-8.9968,-13.592,-1.0356,-1.0356,-2.9268,-7.8431,-13.793,-11.374,-9.5873,-16.934999,-19.323999,-19.259001,4.6571,0.12698,-6.8966,-5.8692
-8.6572,-9.4418,-18.537001,-0.97561,0.0,-3.1715,-7.767,1.877,4.7896,-0.97561,0.0,-11.823,-13.27,-11.492,-18.830999,-16.424999,-19.259001,-1.0845,4.8889,-8.867,-3.9553
-7.7093,-6.571,-11.707,-1.9512,-1.9608,-6.0841,-4.8544,-2.0065,8.6731,-1.9512,-1.9608,-8.867,-14.218,-10.54,-18.830999,-10.628,-17.327,-10.654,6.7937,-5.9113,-1.0845
-4.8657,2.0415,-2.9268,-0.97561,0.98039,-6.0841,1.9417,-4.9191,6.7314,-0.97561,0.98039,-2.9557,-10.427,-3.873,-14.092,-2.8986,-11.53,-10.654,11.556,-8.867,2.7432
-2.0221,7.7831,0.0,0.0,2.9412,-5.1133,6.7961,-3.9482,8.6731,0.0,2.9412,2.9557,-8.5308,-1.9683,-11.248,0.96618,-8.6312,-5.8692,15.365,-12.808,3.7002
0.82148,9.697,0.97561,3.9024,8.8235,1.6828,10.68,-2.9773,15.469,3.9024,8.8235,7.8818,-3.7915,-0.06349,-4.613,2.8986,-2.8341,-8.74,14.413,-8.867,5.614
1.7694,12.568,1.9512,7.8049,12.745,3.6246,13.592,-2.0065,19.353001,7.8049,12.745,9.8522,1.8957,1.8413,1.0742,4.8309,1.9968,-13.525,10.603,-5.9113,6.571
-1.0742,10.654,3.9024,10.732,12.745,6.5372,10.68,-2.0065,13.528,10.732,12.745,10.837,3.7915,0.88889,2.97,5.7971,4.8953,-8.74,8.6984,-3.9409,5.614
-1.0742,7.7831,7.8049,14.634,12.745,10.421,10.68,2.8479,10.615,14.634,12.745,12.808,6.6351,-0.06349,4.8657,4.8309,8.7601,0.82935,-4.6349,-0.98522,-1.0845
2.7172,-1.7863,8.7805,12.683,8.8235,10.421,9.7087,4.7896,7.7023,12.683,8.8235,10.837,5.6872,-1.0159,4.8657,0.0,7.7939,4.6571,-10.349,1.9704,-7.7831
7.4566,-7.5279,8.7805,8.7805,9.8039,8.479,3.8835,3.8188,3.8188,8.7805,9.8039,8.867,7.5829,2.7937,6.7615,-0.96618,7.7939,7.5279,-2.7302,4.9261,-5.8692
9.3523,-1.7863,6.8293,4.878,7.8431,4.5955,1.9417,3.8188,-2.9773,4.878,7.8431,6.8966,9.4787,8.5079,8.6572,3.8647,9.7262,5.614,-2.7302,6.8966,-4.9123
7.4566,2.9984,5.8537,3.9024,5.8824,0.71197,2.9126,1.877,-1.0356,3.9024,5.8824,3.9409,7.5829,10.413,8.6572,8.6957,10.692,3.7002,-0.8254,4.9261,2.7432
5.5608,4.9123,4.878,-0.97561,-1.9608,-4.1424,0.0,-2.9773,3.8188,-0.97561,-1.9608,-1.9704,6.6351,12.317,9.6051,13.527,12.625,3.7002,6.7937,4.9261,10.399
1.7694,5.8692,1.9512,-5.8537,-5.8824,-13.851,-5.8252,-9.7735,-4.9191,-5.8537,-5.8824,-9.8522,2.8436,8.5079,5.8136,13.527,9.7262,1.7863,4.8889,6.8966,14.226
-4.8657,4.9123,-1.9512,-9.7561,-9.8039,-15.793,-6.7961,-11.715,-7.8317,-9.7561,-9.8039,-10.837,0.94787,5.6508,0.12638,11.594,3.9291,0.82935,6.7937,6.8966,13.27
-9.6051,2.0415,-7.8049,-10.732,-8.8235,-8.0259,-6.7961,-10.744,-5.89,-10.732,-8.8235,-8.867,-1.8957,0.88889,-8.4044,4.8309,-4.7665,-3.9553,3.9365,7.8818,8.4848
-10.553,1.0845,-8.7805,-7.8049,-8.8235,-1.2298,-4.8544,-8.8026,-4.9191,-7.8049,-8.8235,-4.9261,-6.6351,-5.7778,-14.092,-0.96618,-11.53,-6.8262,2.0317,-0.98522,4.6571
-12.449,-3.7002,-8.7805,-6.8293,-4.902,-5.1133,-4.8544,-7.8317,-2.0065,-6.8293,-4.902,-3.9409,-9.4787,-8.6349,-15.987,-4.8309,-13.462,-5.8692,1.0794,-10.837,4.6571
-10.553,-8.4848,-9.7561,-2.9268,-3.9216,-5.1133,-7.767,-3.9482,-2.0065,-2.9268,-3.9216,-4.9261,-7.5829,-8.6349,-13.144,-8.6957,-14.428,-11.611,-8.4444,-12.808,2.7432
-3.9179,-8.4848,-6.8293,0.0,-0.98039,-1.2298,-4.8544,0.90615,-0.06472,0.0,-0.98039,-1.9704,-6.6351,-7.6825,-8.4044,-12.56,-13.462,-8.74,2.9841,-11.823,-0.12759
-1.0742,-11.356,-7.8049,1.9512,0.0,3.6246,-1.9417,1.877,3.8188,1.9512,0.0,-0.98522,-10.427,-11.492,-10.3,-16.424999,-17.327,-2.0415,11.556,-11.823,-1.0845
1.7694,-10.399,-10.732,5.8537,2.9412,7.5081,0.97087,5.7605,4.7896,5.8537,2.9412,1.9704,-8.5308,-10.54,-9.3523,-15.459,-16.361,3.7002,2.9841,-7.8818,-1.0845
7.4566,-4.6571,-4.878,10.732,8.8235,15.275,5.8252,9.644,5.7605,10.732,8.8235,8.867,-5.6872,-5.7778,-2.7172,-7.7295,-7.6651,8.4848,0.12698,-2.9557,-2.0415
7.4566,-0.82935,2.9268,10.732,8.8235,16.246,6.7961,7.7023,3.8188,10.732,8.8235,8.867,-1.8957,-2.9206,2.97,0.0,1.9968,4.6571,-1.7778,1.9704,-4.9123
5.5608,1.0845,6.8293,8.7805,6.8627,5.5663,2.9126,4.7896,-3.9482,8.7805,6.8627,4.9261,0.94787,0.88889,5.8136,3.8647,6.8277,-0.12759,-4.6349,2.9557,-5.8692
3.6651,2.0415,6.8293,8.7805,4.902,3.6246,0.97087,7.7023,-3.9482,8.7805,4.902,4.9261,2.8436,3.746,6.7615,7.7295,8.7601,2.7432,-6.5397,2.9557,-5.8692
0.82148,1.0845,2.9268,7.8049,5.8824,5.5663,2.9126,4.7896,-3.9482,7.8049,5.8824,5.9113,1.8957,2.7937,3.9179,7.7295,6.8277,7.5279,-4.6349,0.0,-7.7831
0.82148,5.8692,1.9512,7.8049,8.8235,7.5081,4.8544,1.877,1.877,7.8049,8.8235,8.867,2.8436,3.746,3.9179,9.6618,5.8615,-0.12759,-6.5397,0.0,-4.9123
-0.12638,11.611,3.9024,3.9024,9.8039,4.5955,5.8252,-2.0065,3.8188,3.9024,9.8039,8.867,4.7393,2.7937,2.97,13.527,5.8615,1.7863,-1.7778,2.9557,2.7432
-5.8136,5.8692,-0.97561,-0.97561,3.9216,-2.2006,3.8835,-5.89,2.8479,-0.97561,3.9216,2.9557,2.8436,-0.06349,-2.7172,8.6957,1.0306,4.6571,7.746,1.9704,6.571
-9.6051,-2.7432,-6.8293,0.0,0.98039,-6.0841,-0.97087,-5.89,-1.0356,0.0,0.98039,-2.9557,0.0,-1.0159,-6.5087,2.8986,-4.7665,-0.12759,9.6508,1.9704,9.4418
-8.6572,-7.5279,-8.7805,-0.97561,-1.9608,-6.0841,-7.767,-3.9482,-1.0356,-0.97561,-1.9608,-6.8966,-3.7915,-3.873,-5.5608,-2.8986,-6.6989,-2.9984,7.746,3.9409,6.571
-1.0742,-7.5279,-5.8537,-1.9512,-0.98039,-0.2589,-5.8252,-0.06472,-2.9773,-1.9512,-0.98039,-3.9409,-1.8957,-1.9683,-0.82148,-4.8309,-5.7327,5.614,1.0794,8.867,3.7002
2.7172,-12.313,-7.8049,-1.9512,-3.9216,3.6246,-6.7961,1.877,-8.8026,-1.9512,-3.9216,-2.9557,-1.8957,-2.9206,0.12638,-9.6618,-7.6651,10.399,0.12698,0.98522,-1.0845
2.7172,-14.226,-8.7805,0.0,-2.9412,6.5372,-6.7961,5.7605,-8.8026,0.0,-2.9412,-1.9704,-4.7393,-6.7302,-0.82148,-12.56,-10.564,4.6571,-5.5873,-5.9113,-6.8262
3.6651,-12.313,-4.878,0.0,-0.98039,7.5081,-3.8835,3.8188,-1.0356,0.0,-0.98039,0.98522,-5.6872,-7.6825,0.12638,-12.56,-7.6651,0.82935,-8.4444,-5.9113,-5.8692
6.5087,-7.5279,1.9512,0.97561,2.9412,3.6246,-1.9417,3.8188,1.877,0.97561,2.9412,1.9704,-0.94787,-2.9206,6.7615,-8.6957,-0.90177,-0.12759,-9.3968,-0.98522,-2.0415
6.5087,-3.7002,3.9024,1.9512,0.98039,-4.1424,-3.8835,3.8188,-0.06472,1.9512,0.98039,0.98522,1.8957,-0.06349,9.6051,-6.7633,1.0306,2.7432,-5.5873,2.9557,-1.0845
1.7694,-3.7002,2.9268,-0.97561,0.0,-4.1424,-1.9417,-2.9773,-0.06472,-0.97561,0.0,0.0,1.8957,-1.0159,6.7615,-4.8309,1.0306,-7.7831,0.12698,-0.98522,0.82935
-3.9179,-2.7432,1.9512,-1.9512,1.9608,4.5955,0.0,-6.8608,-2.9773,-1.9512,1.9608,0.98522,3.7915,1.8413,1.0742,-1.9324,1.0306,-7.7831,-7.4921,0.0,2.7432
-6.7615,0.12759,0.97561,3.9024,2.9412,8.479,3.8835,-4.9191,-2.9773,3.9024,2.9412,4.9261,3.7915,4.6984,-4.613,2.8986,1.0306,-2.0415,-6.5397,-0.98522,1.7863
-2.97,9.697,6.8293,7.8049,5.8824,10.421,11.65,-2.0065,-1.0356,7.8049,5.8824,9.8522,2.8436,5.6508,-4.613,11.594,6.8277,-4.9123,2.0317,-3.9409,1.7863
3.6651,12.568,11.707,4.878,2.9412,6.5372,12.621,-0.06472,4.7896,4.878,2.9412,9.8522,1.8957,3.746,1.0742,13.527,11.659,-9.697,2.9841,-1.9704,-1.0845
10.3,7.7831,11.707,3.9024,4.902,4.5955,8.7379,5.7605,5.7605,3.9024,4.902,8.867,0.94787,-1.0159,7.7093,6.7633,9.7262,4.6571,2.0317,4.9261,-8.74
12.196,5.8692,9.7561,5.8537,5.8824,7.5081,7.767,8.6731,9.644,5.8537,5.8824,8.867,-0.94787,-4.8254,10.553,0.96618,3.9291,19.011,2.9841,9.8522,-13.525
9.3523,2.9984,4.878,9.7561,8.8235,4.5955,8.7379,7.7023,8.6731,9.7561,8.8235,7.8818,-3.7915,-7.6825,6.7615,-2.8986,-0.90177,17.097,6.7937,9.8522,-9.697
8.4044,4.9123,2.9268,8.7805,7.8431,8.479,7.767,8.6731,6.7314,8.7805,7.8431,5.9113,-2.8436,-6.7302,6.7615,-1.9324,-0.90177,16.139999,-3.6825,8.867,-6.8262
9.3523,7.7831,6.8293,7.8049,6.8627,14.304,6.7961,8.6731,1.877,7.8049,6.8627,4.9261,0.0,-5.7778,8.6572,1.9324,3.9291,14.226,-0.8254,10.837,-2.0415
6.5087,2.0415,6.8293,2.9268,-1.9608,9.4498,-1.9417,7.7023,-1.0356,2.9268,-1.9608,-0.98522,1.8957,-5.7778,8.6572,0.96618,3.9291,2.7432,5.8413,11.823,2.7432
3.6651,-2.7432,7.8049,-0.97561,-5.8824,4.5955,-5.8252,7.7023,-11.715,-0.97561,-5.8824,-1.9704,1.8957,-2.9206,4.8657,-0.96618,1.9968,1.7863,1.0794,0.0,5.614
3.6651,-2.7432,5.8537,2.9268,-1.9608,1.6828,-7.767,8.6731,-6.8608,2.9268,-1.9608,0.0,0.94787,-0.06349,1.0742,-1.9324,-0.90177,1.7863,-3.6825,-6.8966,6.571
3.6651,-1.7863,-0.97561,5.8537,1.9608,0.71197,-3.8835,6.7314,-2.0065,5.8537,1.9608,0.0,-2.8436,-0.06349,-1.7694,-2.8986,-2.8341,-2.9984,1.0794,-9.8522,7.5279
2.7172,2.0415,-2.9268,4.878,4.902,-1.2298,3.8835,4.7896,1.877,4.878,4.902,0.0,-0.94787,1.8413,-0.82148,1.9324,1.0306,-13.525,6.7937,-11.823,11.356
0.82148,3.9553,1.9512,3.9024,5.8824,2.6537,8.7379,-2.9773,7.7023,3.9024,5.8824,2.9557,5.6872,7.5556,3.9179,7.7295,9.7262,-14.482,4.8889,-6.8966,11.356
-2.97,2.9984,4.878,1.9512,3.9216,2.6537,5.8252,-9.7735,3.8188,1.9512,3.9216,2.9557,7.5829,8.5079,2.97,8.6957,11.659,-9.697,0.12698,-4.9261,9.4418
-3.9179,-2.7432,2.9268,-1.9512,0.0,1.6828,0.97087,-9.7735,-2.0065,-1.9512,0.0,0.98522,7.5829,6.6032,3.9179,4.8309,8.7601,-5.8692,-0.8254,-0.98522,5.614
0.82148,-4.6571,6.8293,-1.9512,-0.98039,1.6828,-0.97087,-3.9482,-5.89,-1.9512,-0.98039,1.9704,9.4787,5.6508,6.7615,1.9324,7.7939,-5.8692,-4.6349,5.9113,-2.0415
2.7172,2.0415,8.7805,2.9268,0.98039,2.6537,0.0,2.8479,-0.06472,2.9268,0.98039,3.9409,9.4787,4.6984,5.8136,4.8309,7.7939,7.5279,-6.5397,10.837,-8.74
2.7172,10.654,6.8293,6.8293,7.8431,6.5372,7.767,7.7023,7.7023,6.8293,7.8431,7.8818,7.5829,2.7937,3.9179,8.6957,5.8615,15.183,0.12698,13.793,-9.697
2.7172,12.568,1.9512,4.878,4.902,5.5663,8.7379,6.7314,7.7023,4.878,4.902,6.8966,5.6872,-0.06349,3.9179,5.7971,4.8953,7.5279,2.0317,13.793,-9.697
5.5608,5.8692,-0.97561,1.9512,0.98039,5.5663,2.9126,5.7605,6.7314,1.9512,0.98039,3.9409,0.94787,-4.8254,3.9179,-0.96618,1.9968,9.4418,1.0794,6.8966,-7.7831
9.3523,2.0415,2.9268,0.97561,-0.98039,9.4498,0.97087,5.7605,5.7605,0.97561,-0.98039,2.9557,-2.8436,-6.7302,5.8136,-4.8309,1.0306,12.313,0.12698,1.9704,-3.9553
3.6651,-0.82935,3.9024,0.0,-1.9608,2.6537,-0.97087,-0.06472,-0.06472,0.0,-1.9608,-0.98522,-4.7393,-5.7778,2.97,-5.7971,-0.90177,5.614,2.9841,-2.9557,3.7002
-7.7093,-3.7002,0.97561,-5.8537,-4.902,-6.0841,-4.8544,-3.9482,-1.0356,-5.8537,-4.902,-5.9113,-6.6351,-3.873,-5.5608,-4.8309,-4.7665,-3.9553,8.6984,-7.8818,10.399
-13.397,-3.7002,-6.8293,-8.7805,-6.8627,-11.909,-5.8252,-5.89,0.90615,-8.7805,-6.8627,-9.8522,-2.8436,1.8413,-10.3,-4.8309,-7.6651,-10.654,11.556,-8.867,12.313
-14.344,-8.4848,-18.537001,-13.659,-12.745,-17.735001,-10.68,-10.744,-6.8608,-13.659,-12.745,-16.749001,-2.8436,2.7937,-11.248,-5.7971,-10.564,-16.396,10.603,-3.9409,11.356
-11.501,-7.5279,-22.438999,-11.707,-10.784,-18.705999,-10.68,-10.744,-2.9773,-11.707,-10.784,-18.719,0.0,4.6984,-9.3523,-2.8986,-6.6989,-12.568,5.8413,-7.8818,12.313
-9.6051,-2.7432,-15.61,-8.7805,-6.8627,-14.822,-4.8544,-9.7735,-1.0356,-8.7805,-6.8627,-13.793,1.8957,4.6984,-7.4566,-0.96618,-2.8341,-7.7831,-0.8254,-12.808,7.5279
-6.7615,3.9553,-1.9512,-4.878,0.0,-8.0259,0.97087,-11.715,1.877,-4.878,0.0,-3.9409,0.0,0.88889,-4.613,0.96618,0.06441,-14.482,-2.7302,-9.8522,3.7002
-1.0742,8.74,9.7561,-1.9512,2.9412,0.71197,6.7961,-13.657,0.90615,-1.9512,2.9412,5.9113,-0.94787,-1.0159,1.0742,3.8647,2.963,-18.309,3.9365,-6.8966,2.7432
6.5087,10.654,16.584999,4.878,7.8431,10.421,15.534,-6.8608,0.90615,4.878,7.8431,15.764,2.8436,2.7937,9.6051,7.7295,9.7262,-9.697,3.9365,0.0,-2.0415
15.039,11.611,21.462999,17.561001,16.667,20.129,20.388,4.7896,3.8188,17.561001,16.667,25.615999,13.27,11.365,17.188,14.493,16.49,-6.8262,-3.6825,8.867,-0.12759
15.987,11.611,21.462999,19.511999,14.706,24.013,15.534,10.615,0.90615,19.511999,14.706,26.601,19.905001,18.032,20.032,17.391001,19.388,-2.0415,-9.3968,13.793,1.7863
13.144,8.74,19.511999,12.683,13.725,19.159,10.68,9.644,-1.0356,12.683,13.725,19.704,18.957001,16.127001,18.136,15.459,18.422001,5.614,-1.7778,13.793,2.7432
13.144,5.8692,13.659,5.8537,6.8627,8.479,2.9126,9.644,0.90615,5.8537,6.8627,7.8818,14.218,10.413,17.188,11.594,15.523,9.4418,2.0317,11.823,0.82935
13.144,5.8692,8.7805,2.9268,2.9412,1.6828,0.97087,9.644,-0.06472,2.9268,2.9412,0.0,11.374,6.6032,15.292,10.628,13.591,11.356,1.0794,9.8522,3.7002
8.4044,8.74,2.9268,2.9268,-1.9608,-2.2006,-2.9126,9.644,-1.0356,2.9268,-1.9608,-6.8966,7.5829,4.6984,8.6572,12.56,9.7262,10.399,1.0794,7.8818,6.571
-4.8657,0.12759,-6.8293,-2.9268,-8.8235,-5.1133,-13.592,5.7605,-6.8608,-2.9268,-8.8235,-15.764,-2.8436,-1.9683,-5.5608,4.8309,-1.868,-4.9123,2.0317,-1.9704,5.614
-13.397,-10.399,-13.659,-11.707,-17.646999,-13.851,-20.388,1.877,-9.7735,-11.707,-17.646999,-22.66,-10.427,-7.6825,-14.092,-6.7633,-12.496,-2.0415,6.7937,-7.8818,4.6571
-14.344,-15.183,-17.561001,-15.61,-18.627001,-18.705999,-23.301001,-1.0356,-10.744,-15.61,-18.627001,-25.615999,-11.374,-8.6349,-15.987,-14.493,-17.327,9.4418,2.0317,-4.9261,3.7002
-16.24,-20.924999,-24.389999,-16.584999,-17.646999,-19.676001,-21.358999,-4.9191,-14.628,-16.584999,-17.646999,-25.615999,-15.166,-11.492,-20.726999,-21.256001,-24.09,3.7002,1.0794,-2.9557,-1.0845
-16.24,-21.882,-26.341,-9.7561,-8.8235,-14.822,-16.504999,-1.0356,-5.89,-9.7561,-8.8235,-20.690001,-15.166,-10.54,-23.57,-23.188,-26.989,7.5279,-0.8254,-6.8966,-5.8692
-19.084,-19.968,-25.365999,-7.8049,-7.8431,-14.822,-15.534,-1.0356,-2.9773,-7.8049,-7.8431,-19.704,-11.374,-8.6349,-22.622,-20.290001,-24.09,11.356,-5.5873,-6.8966,-8.74
-15.292,-15.183,-23.415001,-7.8049,-6.8627,-16.764,-11.65,-2.9773,-3.9482,-7.8049,-6.8627,-19.704,-6.6351,-4.8254,-13.144,-14.493,-16.361,2.7432,-4.6349,0.0,-11.611
-7.7093,-10.399,-17.561001,-6.8293,-5.8824,-23.559999,-6.7961,-2.9773,-2.9773,-6.8293,-5.8824,-16.749001,-3.7915,-3.873,-2.7172,-10.628,-8.6312,5.614,-9.3968,0.0,-12.568
0.82148,-5.614,-1.9512,-4.878,-0.98039,-9.9676,0.0,-0.06472,0.90615,-4.878,-0.98039,-5.9113,0.0,-1.9683,6.7615,-6.7633,0.06441,7.5279,-12.254,2.9557,-10.654
8.4044,2.0415,15.61,2.9268,5.8824,8.479,3.8835,4.7896,0.90615,2.9268,5.8824,7.8818,5.6872,0.88889,12.449,0.0,7.7939,6.571,-5.5873,4.9261,-7.7831
10.3,5.8692,23.415001,8.7805,3.9216,14.304,2.9126,3.8188,-6.8608,8.7805,3.9216,11.823,8.5308,4.6984,13.397,8.6957,14.557,-1.0845,0.12698,1.9704,-1.0845
12.196,7.7831,22.438999,9.7561,3.9216,14.304,3.8835,1.877,-8.8026,9.7561,3.9216,12.808,16.114,13.27,16.24,16.424999,22.287001,-5.8692,1.0794,2.9557,6.571
11.248,9.697,17.561001,9.7561,3.9216,13.333,5.8252,1.877,-5.89,9.7561,3.9216,12.808,18.009001,18.983999,13.397,17.391001,22.287001,-13.525,2.0317,0.98522,7.5279
9.3523,13.525,18.537001,10.732,8.8235,15.275,10.68,-0.06472,-0.06472,10.732,8.8235,15.764,10.427,14.222,8.6572,15.459,18.422001,-21.18,1.0794,-3.9409,8.4848
6.5087,15.439,19.511999,9.7561,9.8039,11.392,14.563,-1.0356,2.8479,9.7561,9.8039,15.764,2.8436,7.5556,4.8657,10.628,11.659,-8.74,2.9841,-4.9261,10.399
-0.12638,7.7831,11.707,5.8537,9.8039,-3.1715,12.621,-1.0356,4.7896,5.8537,9.8039,8.867,-0.94787,4.6984,-0.82148,3.8647,1.9968,3.7002,4.8889,-0.98522,11.356
-9.6051,-4.6571,-7.8049,-3.9024,-0.98039,-9.9676,-1.9417,-3.9482,2.8479,-3.9024,-0.98039,-5.9113,0.0,0.88889,-6.5087,-5.7971,-10.564,2.7432,-2.7302,6.8966,6.571
-16.24,-11.356,-22.438999,-11.707,-6.8627,-13.851,-11.65,-4.9191,-2.9773,-11.707,-6.8627,-18.719,2.8436,-0.06349,-10.3,-11.594,-16.361,10.399,-9.3968,10.837,-0.12759
-16.24,-10.399,-19.511999,-10.732,-9.8039,-13.851,-8.7379,1.877,-3.9482,-10.732,-9.8039,-17.733999,3.7915,0.88889,-10.3,-11.594,-13.462,12.313,-5.5873,12.808,-4.9123
-7.7093,-3.7002,-5.8537,0.0,0.0,-3.1715,3.8835,10.615,6.7314,0.0,0.0,-4.9261,7.5829,7.5556,-4.613,-6.7633,-4.7665,14.226,2.0317,13.793,-5.8692
-2.0221,-1.7863,-0.97561,2.9268,4.902,3.6246,3.8835,10.615,7.7023,2.9268,4.902,1.9704,4.7393,7.5556,-1.7694,-6.7633,-2.8341,7.5279,7.746,11.823,-7.7831
-2.97,-5.614,-7.8049,1.9512,1.9608,1.6828,0.97087,3.8188,7.7023,1.9512,1.9608,-0.98522,-1.8957,0.88889,-4.613,-10.628,-6.6989,-0.12759,10.603,-0.98522,-4.9123
-4.8657,-8.4848,-14.634,-4.878,-3.9216,-7.055,-2.9126,-0.06472,7.7023,-4.878,-3.9216,-8.867,-5.6872,-3.873,-5.5608,-10.628,-9.5974,-4.9123,6.7937,-10.837,-3.9553
-2.97,-6.571,-12.683,-7.8049,-5.8824,-9.9676,-10.68,-1.0356,1.877,-7.8049,-5.8824,-11.823,-6.6351,-5.7778,-4.613,-6.7633,-6.6989,0.82935,3.9365,-10.837,-1.0845
-2.0221,0.12759,-3.9024,-8.7805,-8.8235,-11.909,-7.767,-3.9482,-4.9191,-8.7805,-8.8235,-8.867,-6.6351,-6.7302,-3.6651,-1.9324,-3.8003,3.7002,1.0794,-11.823,-1.0845
-2.0221,2.0415,3.9024,-10.732,-8.8235,-8.0259,-0.97087,-7.8317,-7.8317,-10.732,-8.8235,-2.9557,-7.5829,-5.7778,-1.7694,0.0,-0.90177,1.7863,1.0794,-12.808,-1.0845
0.82148,1.0845,9.7561,-4.878,-3.9216,0.71197,2.9126,-6.8608,-10.744,-4.878,-3.9216,3.9409,-2.8436,0.88889,4.8657,2.8986,4.8953,-0.12759,-5.5873,-6.8966,-2.0415
3.6651,-2.7432,11.707,-0.97561,0.0,3.6246,0.0,-8.8026,-9.7735,-0.97561,0.0,5.9113,4.7393,6.6032,11.501,7.7295,12.625,-2.9984,-13.206,0.98522,-2.9984
5.5608,-0.82935,13.659,-0.97561,1.9608,2.6537,-3.8835,-8.8026,-8.8026,-0.97561,1.9608,5.9113,9.4787,10.413,17.188,10.628,17.455999,-4.9123,-13.206,9.8522,-0.12759
5.5608,2.0415,14.634,-0.97561,-0.98039,2.6537,-1.9417,-5.89,-9.7735,-0.97561,-0.98039,5.9113,10.427,7.5556,14.344,9.6618,14.557,-2.9984,-12.254,14.778,-1.0845
0.82148,1.0845,11.707,0.97561,2.9412,0.71197,3.8835,-2.9773,-4.9191,0.97561,2.9412,6.8966,2.8436,1.8413,2.97,2.8986,4.8953,-13.525,-8.4444,9.8522,-2.9984
0.82148,0.12759,6.8293,7.8049,7.8431,4.5955,8.7379,3.8188,10.615,7.8049,7.8431,10.837,-0.94787,0.88889,-3.6651,-1.9324,-1.868,-5.8692,-2.7302,8.867,-2.9984
4.613,4.9123,4.878,14.634,15.686,15.275,16.504999,8.6731,14.498,14.634,15.686,13.793,-0.94787,3.746,-4.613,-0.96618,-3.8003,8.4848,2.0317,9.8522,-3.9553
10.3,14.482,7.8049,13.659,16.667,18.188,18.447001,10.615,17.410999,13.659,16.667,14.778,2.8436,8.5079,1.0742,4.8309,1.0306,10.399,12.508,3.9409,2.7432
9.3523,12.568,7.8049,7.8049,12.745,6.5372,12.621,4.7896,14.498,7.8049,12.745,7.8818,2.8436,7.5556,3.9179,4.8309,1.0306,2.7432,15.365,0.0,5.614
5.5608,6.8262,4.878,0.0,1.9608,-5.1133,-1.9417,-2.9773,7.7023,0.0,1.9608,-2.9557,-1.8957,0.88889,2.0221,1.9324,-1.868,-0.12759,5.8413,-2.9557,4.6571
3.6651,4.9123,-0.97561,-4.878,-2.9412,-10.939,-7.767,-6.8608,4.7896,-4.878,-2.9412,-7.8818,-3.7915,-1.9683,1.0742,2.8986,-1.868,-3.9553,7.746,-7.8818,7.5279
-1.0742,1.0845,-9.7561,-8.7805,-8.8235,-12.88,-9.7087,-7.8317,9.644,-8.7805,-8.8235,-12.808,-5.6872,-6.7302,-1.7694,3.8647,-2.8341,-4.9123,10.603,-10.837,7.5279
-7.7093,0.12759,-12.683,-9.7561,-7.8431,-12.88,-6.7961,-6.8608,11.586,-9.7561,-7.8431,-12.808,-5.6872,-4.8254,-4.613,4.8309,0.06441,-4.9123,10.603,-10.837,9.4418
-11.501,1.0845,-9.7561,-9.7561,-6.8627,-9.9676,-1.9417,-7.8317,5.7605,-9.7561,-6.8627,-9.8522,-2.8436,-1.0159,-6.5087,5.7971,1.9968,-4.9123,9.6508,-6.8966,7.5279
-9.6051,-0.82935,-0.97561,-7.8049,-2.9412,-7.055,0.97087,-7.8317,2.8479,-7.8049,-2.9412,-4.9261,-0.94787,2.7937,-5.5608,4.8309,1.0306,-8.74,5.8413,-2.9557,6.571
-0.12638,-4.6571,2.9268,-3.9024,0.0,-0.2589,0.0,-2.9773,0.90615,-3.9024,0.0,0.0,1.8957,3.746,1.0742,1.9324,-0.90177,-3.9553,-5.5873,2.9557,7.5279
7.4566,-9.4418,-0.97561,0.0,0.98039,4.5955,-1.9417,4.7896,-1.0356,0.0,0.98039,3.9409,2.8436,3.746,7.7093,-2.8986,-3.8003,12.313,-9.3968,8.867,2.7432
8.4044,-13.27,-5.8537,2.9268,0.98039,6.5372,-0.97087,10.615,-5.89,2.9268,0.98039,3.9409,5.6872,4.6984,10.553,-6.7633,-2.8341,17.097,-5.5873,16.749001,1.7863
-1.0742,-12.313,-10.732,1.9512,-4.902,1.6828,-4.8544,6.7314,-4.9191,1.9512,-4.902,-0.98522,-1.8957,-1.9683,1.0742,-12.56,-8.6312,3.7002,-4.6349,7.8818,-4.9123
-4.8657,-5.614,-3.9024,3.9024,-0.98039,-2.2006,-1.9417,6.7314,-0.06472,3.9024,-0.98039,-0.98522,-10.427,-11.492,-6.5087,-13.527,-10.564,5.614,0.12698,-2.9557,-9.697
-2.0221,4.9123,6.8293,6.8293,0.98039,1.6828,0.0,9.644,1.877,6.8293,0.98039,2.9557,-15.166,-17.205999,-7.4566,-8.6957,-8.6312,8.4848,1.0794,-4.9261,-10.654
3.6651,11.611,10.732,10.732,5.8824,5.5663,6.7961,9.644,-0.06472,10.732,5.8824,9.8522,-16.114,-20.063,-5.5608,-4.8309,-7.6651,2.7432,0.12698,-2.9557,-8.74
6.5087,11.611,2.9268,7.8049,5.8824,6.5372,12.621,5.7605,4.7896,7.8049,5.8824,11.823,-13.27,-17.205999,-2.7172,-3.8647,-6.6989,-2.0415,4.8889,-5.9113,-9.697
8.4044,6.8262,-7.8049,6.8293,10.784,9.4498,12.621,4.7896,9.644,6.8293,10.784,9.8522,-3.7915,-6.7302,2.0221,-1.9324,-2.8341,-3.9553,3.9365,-4.9261,-5.8692
4.613,0.12759,-15.61,2.9268,4.902,5.5663,5.8252,1.877,9.644,2.9268,4.902,2.9557,5.6872,5.6508,2.0221,0.96618,0.06441,-0.12759,4.8889,-2.9557,0.82935
-1.0742,-4.6571,-14.634,-1.9512,1.9608,-3.1715,-2.9126,1.877,3.8188,-1.9512,1.9608,-4.9261,11.374,13.27,1.0742,0.96618,0.06441,4.6571,3.9365,0.0,3.7002
-6.7615,-4.6571,-8.7805,-7.8049,-5.8824,-6.0841,-6.7961,-2.0065,-2.9773,-7.8049,-5.8824,-9.8522,12.322,15.175,-1.7694,-1.9324,-0.90177,-1.0845,-6.5397,0.98522,1.7863
-8.6572,-0.82935,0.97561,-6.8293,-6.8627,-8.0259,-5.8252,-2.0065,-2.0065,-6.8293,-6.8627,-5.9113,11.374,14.222,-3.6651,-1.9324,0.06441,-5.8692,-12.254,2.9557,2.7432
-8.6572,1.0845,3.9024,-2.9268,-1.9608,-7.055,0.0,-1.0356,6.7314,-2.9268,-1.9608,0.0,7.5829,9.4603,-8.4044,0.0,-0.90177,-2.9984,-3.6825,2.9557,4.6571
-7.7093,-1.7863,-0.97561,0.97561,2.9412,-1.2298,4.8544,-1.0356,5.7605,0.97561,2.9412,3.9409,-0.94787,1.8413,-10.3,-0.96618,-4.7665,6.571,3.9365,1.9704,0.82935
-1.0742,-2.7432,-1.9512,6.8293,5.8824,7.5081,4.8544,3.8188,-2.0065,6.8293,5.8824,8.867,-3.7915,-1.9683,-7.4566,-0.96618,-5.7327,9.4418,0.12698,3.9409,-4.9123
6.5087,-7.5279,0.97561,7.8049,2.9412,11.392,0.97087,5.7605,-4.9191,7.8049,2.9412,8.867,-4.7393,-1.9683,-1.7694,-2.8986,-3.8003,8.4848,-6.5397,6.8966,-9.697
9.3523,-9.4418,4.878,3.9024,0.0,9.4498,-4.8544,6.7314,-3.9482,3.9024,0.0,6.8966,-3.7915,-2.9206,2.0221,-4.8309,-1.868,3.7002,-6.5397,0.98522,-9.697
11.248,-3.7002,6.8293,0.0,-6.8627,5.5663,-7.767,5.7605,-5.89,0.0,-6.8627,1.9704,1.8957,0.88889,8.6572,0.96618,2.963,5.614,-1.7778,0.0,-1.0845
11.248,5.8692,5.8537,-5.8537,-7.8431,-8.0259,-1.9417,0.90615,-2.0065,-5.8537,-7.8431,-3.9409,6.6351,5.6508,14.344,6.7633,7.7939,12.313,3.9365,5.9113,10.399
4.613,10.654,-1.9512,-12.683,-11.765,-15.793,-2.9126,-9.7735,-2.9773,-12.683,-11.765,-8.867,5.6872,7.5556,9.6051,8.6957,6.8277,1.7863,1.0794,2.9557,15.183
1.7694,11.611,-6.8293,-9.7561,-5.8824,-12.88,-0.97087,-9.7735,2.8479,-9.7561,-5.8824,-6.8966,3.7915,6.6032,2.97,7.7295,2.963,-3.9553,12.508,0.0,14.226
-0.12638,7.7831,-6.8293,-1.9512,-1.9608,-3.1715,-0.97087,-3.9482,6.7314,-1.9512,-1.9608,-3.9409,0.0,0.88889,-2.7172,2.8986,-1.868,1.7863,9.6508,-0.98522,4.6571
-0.12638,2.0415,-1.9512,2.9268,0.98039,1.6828,-1.9417,0.90615,1.877,2.9268,0.98039,-0.98522,-3.7915,-5.7778,-6.5087,-2.8986,-4.7665,4.6571,-6.5397,-3.9409,-7.7831
3.6651,1.0845,7.8049,5.8537,1.9608,4.5955,0.0,10.615,-0.06472,5.8537,1.9608,2.9557,-2.8436,-5.7778,-0.82148,-2.8986,0.06441,10.399,-3.6825,-1.9704,-9.697
5.5608,0.12759,8.7805,8.7805,5.8824,4.5955,0.0,13.528,-3.9482,8.7805,5.8824,3.9409,0.0,-2.9206,2.0221,-2.8986,2.963,9.4418,-2.7302,0.98522,-8.74
4.613,-1.7863,0.0,5.8537,1.9608,2.6537,-3.8835,11.586,-7.8317,5.8537,1.9608,-0.98522,0.94787,-1.9683,2.0221,-0.96618,1.0306,2.7432,-9.3968,2.9557,-6.8262
2.7172,-3.7002,-6.8293,-0.97561,-2.9412,-2.2006,-9.7087,6.7314,-9.7735,-0.97561,-2.9412,-6.8966,0.94787,-0.06349,0.12638,2.8986,0.06441,4.6571,-12.254,1.9704,-1.0845
-0.12638,-11.356,-9.7561,-7.8049,-10.784,-5.1133,-16.504999,-2.0065,-17.540001,-7.8049,-10.784,-10.837,-0.94787,-1.0159,-3.6651,-0.96618,-5.7327,-1.0845,-11.302,4.9261,-2.0415
2.7172,-8.4848,-0.97561,-2.9268,-5.8824,1.6828,-9.7087,-2.9773,-7.8317,-2.9268,-5.8824,-1.9704,-4.7393,-2.9206,-3.6651,-1.9324,-5.7327,-3.9553,-9.3968,-2.9557,-3.9553
5.5608,0.12759,11.707,3.9024,1.9608,7.5081,1.9417,-0.06472,4.7896,3.9024,1.9608,9.8522,-4.7393,-1.9683,-0.82148,2.8986,-0.90177,0.82935,-7.4921,-8.867,-2.9984
5.5608,8.74,17.561001,4.878,5.8824,10.421,10.68,0.90615,7.7023,4.878,5.8824,13.793,-1.8957,0.88889,2.0221,7.7295,5.8615,2.7432,1.0794,-5.9113,-2.0415
4.613,15.439,13.659,0.97561,5.8824,6.5372,13.592,-1.0356,7.7023,0.97561,5.8824,10.837,-1.8957,1.8413,2.97,9.6618,7.7939,0.82935,7.746,-4.9261,-0.12759
1.7694,14.482,0.0,-2.9268,0.0,-6.0841,6.7961,-3.9482,12.557,-2.9268,0.0,1.9704,-1.8957,0.88889,1.0742,8.6957,4.8953,-1.0845,6.7937,-4.9261,5.614
4.613,18.309,-3.9024,-1.9512,1.9608,-1.2298,7.767,0.90615,16.440001,-1.9512,1.9608,0.98522,2.8436,3.746,2.97,11.594,5.8615,0.82935,9.6508,0.0,12.313
4.613,14.482,-3.9024,-3.9024,-2.9412,-1.2298,4.8544,0.90615,15.469,-3.9024,-2.9412,-0.98522,3.7915,2.7937,2.97,10.628,3.9291,-3.9553,18.222,0.98522,15.183
0.82148,3.9553,-3.9024,-5.8537,-5.8824,-4.1424,-2.9126,-5.89,5.7605,-5.8537,-5.8824,-5.9113,1.8957,0.88889,1.0742,3.8647,-0.90177,-2.9984,18.222,-1.9704,11.356
-5.8136,-4.6571,-3.9024,-4.878,-6.8627,-4.1424,-8.7379,-8.8026,-1.0356,-4.878,-6.8627,-7.8818,0.94787,2.7937,-3.6651,0.0,-3.8003,-1.0845,6.7937,-2.9557,5.614
-10.553,-10.399,-5.8537,-5.8537,-4.902,-3.1715,-11.65,-11.715,-2.9773,-5.8537,-4.902,-8.867,0.94787,4.6984,-9.3523,-1.9324,-5.7327,-0.12759,2.0317,-1.9704,3.7002
-14.344,-15.183,-8.7805,-9.7561,-9.8039,-5.1133,-18.447001,-12.686,-12.686,-9.7561,-9.8039,-10.837,-3.7915,-0.06349,-14.092,-5.7971,-9.5974,-9.697,-6.5397,-2.9557,-0.12759
-11.501,-11.356,-3.9024,-6.8293,-8.8235,-5.1133,-17.476,-11.715,-12.686,-6.8293,-8.8235,-9.8522,-5.6872,-3.873,-12.196,-4.8309,-9.5974,-5.8692,-14.159,-1.9704,-2.9984
-3.9179,-1.7863,7.8049,-3.9024,-6.8627,-5.1133,-10.68,-5.89,-9.7735,-3.9024,-6.8627,-1.9704,-1.8957,-1.9683,-5.5608,0.96618,-1.868,-2.0415,-12.254,-4.9261,-4.9123
4.613,9.697,17.561001,2.9268,2.9412,-2.2006,0.97087,-0.06472,-3.9482,2.9268,2.9412,5.9113,3.7915,3.746,5.8136,9.6618,8.7601,-2.0415,-3.6825,-1.9704,-4.9123
5.5608,12.568,12.683,0.0,0.0,-2.2006,3.8835,1.877,-1.0356,0.0,0.0,2.9557,6.6351,7.5556,11.501,13.527,10.692,-3.9553,1.0794,1.9704,-2.0415
6.5087,8.74,4.878,0.0,-2.9412,-2.2006,2.9126,3.8188,-3.9482,0.0,-2.9412,0.0,7.5829,7.5556,12.449,10.628,7.7939,4.6571,-1.7778,3.9409,1.7863
8.4044,6.8262,-0.97561,3.9024,-5.8824,2.6537,-0.97087,3.8188,-9.7735,3.9024,-5.8824,-1.9704,7.5829,7.5556,11.501,9.6618,3.9291,6.571,-7.4921,4.9261,8.4848
12.196,2.0415,1.9512,5.8537,-1.9608,9.4498,-0.97087,2.8479,-10.744,5.8537,-1.9608,0.98522,9.4787,7.5556,16.24,9.6618,6.8277,10.399,0.12698,9.8522,10.399
13.144,2.9984,6.8293,3.9024,0.98039,9.4498,0.97087,3.8188,-5.89,3.9024,0.98039,6.8966,11.374,6.6032,18.136,10.628,10.692,13.27,5.8413,10.837,10.399
8.4044,2.0415,6.8293,3.9024,1.9608,5.5663,2.9126,1.877,0.90615,3.9024,1.9608,6.8966,11.374,4.6984,13.397,7.7295,10.692,7.5279,5.8413,5.9113,8.4848
6.5087,3.9553,10.732,5.8537,4.902,4.5955,9.7087,0.90615,9.644,5.8537,4.902,8.867,11.374,4.6984,11.501,6.7633,10.692,2.7432,3.9365,1.9704,7.5279
1.7694,7.7831,11.707,2.9268,4.902,1.6828,11.65,0.90615,12.557,2.9268,4.902,7.8818,8.5308,2.7937,5.8136,5.7971,9.7262,-6.8262,6.7937,-0.98522,4.6571
-2.97,7.7831,7.8049,3.9024,6.8627,-5.1133,7.767,-0.06472,11.586,3.9024,6.8627,4.9261,4.7393,-1.0159,-0.82148,1.9324,4.8953,-4.9123,15.365,3.9409,0.82935
-3.9179,3.9553,0.0,6.8293,2.9412,3.6246,3.8835,1.877,6.7314,6.8293,2.9412,2.9557,-2.8436,-7.6825,-4.613,-6.7633,-3.8003,-2.9984,9.6508,1.9704,-5.8692
-0.12638,-4.6571,-3.9024,8.7805,3.9216,11.392,0.0,6.7314,-1.0356,8.7805,3.9216,1.9704,-5.6872,-10.54,-4.613,-14.493,-12.496,7.5279,2.0317,0.98522,-12.568
0.82148,-9.4418,-5.8537,2.9268,1.9608,8.479,-4.8544,4.7896,-6.8608,2.9268,1.9608,-2.9557,-7.5829,-11.492,-5.5608,-18.357,-15.395,9.4418,-6.5397,-0.98522,-19.266001
-0.12638,-10.399,-4.878,-1.9512,0.0,1.6828,-7.767,-0.06472,-5.89,-1.9512,0.0,-7.8818,-9.4787,-10.54,-4.613,-14.493,-10.564,0.82935,-9.3968,-0.98522,-16.396
-2.97,-13.27,-7.8049,-5.8537,-6.8627,-7.055,-10.68,-4.9191,-5.89,-5.8537,-6.8627,-11.823,-9.4787,-8.6349,-3.6651,-11.594,-6.6989,0.82935,-17.016001,-2.9557,-9.697
-5.8136,-13.27,-13.659,-6.8293,-4.902,-10.939,-8.7379,-7.8317,-3.9482,-6.8293,-4.902,-12.808,-6.6351,-5.7778,-4.613,-6.7633,-3.8003,1.7863,-10.349,-2.9557,-4.9123
-9.6051,-12.313,-14.634,-7.8049,-5.8824,-14.822,-7.767,-7.8317,-2.0065,-7.8049,-5.8824,-11.823,-2.8436,-1.0159,-5.5608,-0.96618,-1.868,-2.9984,-2.7302,-3.9409,1.7863
-8.6572,-5.614,-5.8537,0.97561,1.9608,-12.88,-2.9126,-2.9773,-2.9773,0.97561,1.9608,-3.9409,3.7915,3.746,-1.7694,3.8647,2.963,-2.0415,2.0317,1.9704,8.4848
-6.7615,-6.571,-2.9268,4.878,2.9412,-3.1715,-2.9126,0.90615,-2.9773,4.878,2.9412,-2.9557,4.7393,2.7937,-1.7694,-0.96618,0.06441,-8.74,5.8413,1.9704,4.6571
-2.97,-8.4848,-1.9512,1.9512,0.98039,-2.2006,-4.8544,-0.06472,-6.8608,1.9512,0.98039,-3.9409,4.7393,2.7937,1.0742,-2.8986,0.06441,-4.9123,1.0794,3.9409,3.7002
-0.12638,-5.614,-1.9512,-0.97561,0.0,-0.2589,-5.8252,-1.0356,-1.0356,-0.97561,0.0,-2.9557,6.6351,3.746,2.97,-1.9324,0.06441,-3.9553,2.0317,3.9409,4.6571
1.7694,-2.7432,-2.9268,0.97561,0.0,4.5955,-3.8835,-2.0065,5.7605,0.97561,0.0,0.98522,4.7393,0.88889,2.97,-2.8986,-0.90177,-0.12759,2.0317,5.9113,2.7432
1.7694,1.0845,1.9512,3.9024,3.9216,6.5372,1.9417,1.877,6.7314,3.9024,3.9216,6.8966,-0.94787,-3.873,0.12638,-2.8986,-1.868,-1.0845,2.0317,-2.9557,0.82935
4.613,6.8262,9.7561,6.8293,6.8627,7.5081,6.7961,5.7605,10.615,6.8293,6.8627,11.823,-4.7393,-4.8254,-0.82148,0.0,-0.90177,-1.0845,10.603,-8.867,3.7002
4.613,11.611,13.659,8.7805,5.8824,4.5955,10.68,2.8479,8.6731,8.7805,5.8824,13.793,-6.6351,-4.8254,-2.7172,1.9324,-1.868,4.6571,13.46,-7.8818,5.614
-0.12638,14.482,12.683,6.8293,3.9216,7.5081,10.68,-0.06472,8.6731,6.8293,3.9216,12.808,-7.5829,-4.8254,-6.5087,3.8647,-3.8003,-2.0415,2.9841,-7.8818,0.82935
-5.8136,14.482,7.8049,0.97561,2.9412,3.6246,10.68,-2.0065,0.90615,0.97561,2.9412,6.8966,-9.4787,-4.8254,-12.196,4.8309,-6.6989,-9.697,-0.8254,-9.8522,-2.9984
-13.397,8.74,0.0,-7.8049,-4.902,-5.1133,2.9126,-8.8026,-1.0356,-7.8049,-4.902,-1.9704,-11.374,-6.7302,-15.987,2.8986,-6.6989,-6.8262,4.8889,-10.837,-4.9123
-13.397,3.9553,-5.8537,-7.8049,-2.9412,-7.055,2.9126,-11.715,4.7896,-7.8049,-2.9412,-2.9557,-9.4787,-5.7778,-12.196,0.96618,-3.8003,-5.8692,6.7937,-7.8818,-4.9123
-7.7093,-2.7432,-10.732,-3.9024,-1.9608,-6.0841,0.97087,-8.8026,0.90615,-3.9024,-1.9608,-0.98522,-7.5829,-7.6825,-3.6651,-3.8647,-1.868,-7.7831,0.12698,-3.9409,-5.8692
1.7694,-8.4848,-7.8049,0.0,0.0,0.71197,-0.97087,-4.9191,-2.0065,0.0,0.0,-0.98522,-4.7393,-9.5873,5.8136,-8.6957,1.0306,-2.9984,-0.8254,1.9704,-6.8262
5.5608,-12.313,0.0,0.97561,-0.98039,2.6537,-2.9126,0.90615,-2.0065,0.97561,-0.98039,0.98522,-1.8957,-8.6349,9.6051,-13.527,-0.90177,4.6571,-2.7302,7.8818,-6.8262
3.6651,-12.313,4.878,3.9024,0.98039,0.71197,-0.97087,0.90615,-3.9482,3.9024,0.98039,3.9409,0.0,-4.8254,4.8657,-14.493,-3.8003,-1.0845,-3.6825,8.867,-2.9984
0.82148,-11.356,3.9024,7.8049,1.9608,7.5081,0.0,3.8188,-3.9482,7.8049,1.9608,4.9261,2.8436,-1.9683,0.12638,-11.594,-4.7665,-2.9984,-6.5397,8.867,-4.9123
0.82148,-9.4418,-0.97561,9.7561,3.9216,12.362,1.9417,7.7023,-5.89,9.7561,3.9216,6.8966,6.6351,-1.9683,-2.7172,-9.6618,-6.6989,7.5279,-6.5397,12.808,-5.8692
0.82148,-3.7002,-4.878,7.8049,4.902,11.392,4.8544,9.644,3.8188,7.8049,4.902,7.8818,7.5829,-2.9206,-1.7694,-6.7633,-5.7327,11.356,-13.206,5.9113,-7.7831
0.82148,2.9984,-1.9512,9.7561,10.784,5.5663,8.7379,8.6731,9.644,9.7561,10.784,8.867,7.5829,-1.0159,3.9179,-0.96618,1.0306,7.5279,-9.3968,0.0,-7.7831
0.82148,6.8262,2.9268,8.7805,11.765,0.71197,9.7087,4.7896,5.7605,8.7805,11.765,8.867,1.8957,-4.8254,5.8136,0.96618,4.8953,3.7002,2.9841,-4.9261,-6.8262
2.7172,11.611,7.8049,8.7805,12.745,6.5372,16.504999,4.7896,11.586,8.7805,12.745,9.8522,-2.8436,-6.7302,4.8657,1.9324,5.8615,-1.0845,11.556,-9.8522,-7.7831
3.6651,11.611,7.8049,9.7561,14.706,13.333,19.417,4.7896,14.498,9.7561,14.706,11.823,-5.6872,-4.8254,2.97,3.8647,5.8615,-2.0415,12.508,-9.8522,-6.8262
-2.97,2.9984,-0.97561,4.878,7.8431,4.5955,9.7087,2.8479,9.644,4.878,7.8431,4.9261,-11.374,-6.7302,-5.5608,0.0,-1.868,-11.611,8.6984,-14.778,-5.8692
-10.553,-2.7432,-9.7561,-0.97561,0.98039,-8.9968,1.9417,-3.9482,1.877,-0.97561,0.98039,-2.9557,-15.166,-5.7778,-15.039,-0.96618,-8.6312,-16.396,3.9365,-15.764,-1.0845
-11.501,-1.7863,-7.8049,-4.878,-2.9412,-9.9676,-0.97087,-8.8026,-7.8317,-4.878,-2.9412,-5.9113,-11.374,-1.0159,-16.934999,0.96618,-5.7327,-13.525,0.12698,-13.793,4.6571
-5.8136,-0.82935,1.9512,-7.8049,-0.98039,-6.0841,0.0,-10.744,-2.9773,-7.8049,-0.98039,-2.9557,-2.8436,5.6508,-7.4566,5.7971,4.8953,-5.8692,0.12698,-3.9409,9.4418
-0.12638,-2.7432,7.8049,-8.7805,-5.8824,-7.055,-1.9417,-9.7735,1.877,-8.7805,-5.8824,-1.9704,8.5308,11.365,2.97,6.7633,10.692,-1.0845,-1.7778,2.9557,10.399
0.82148,0.12759,4.878,-8.7805,-6.8627,-3.1715,0.97087,-9.7735,-4.9191,-8.7805,-6.8627,-2.9557,11.374,10.413,6.7615,3.8647,5.8615,0.82935,-10.349,4.9261,9.4418
-0.12638,3.9553,2.9268,-9.7561,-7.8431,-1.2298,1.9417,-7.8317,-7.8317,-9.7561,-7.8431,-4.9261,7.5829,6.6032,5.8136,2.8986,1.9968,1.7863,-10.349,3.9409,7.5279
-2.0221,2.9984,0.97561,-6.8293,-3.9216,-6.0841,0.97087,-4.9191,-3.9482,-6.8293,-3.9216,-3.9409,4.7393,4.6984,2.97,4.8309,2.963,-0.12759,2.0317,1.9704,5.614
1.7694,4.9123,2.9268,-5.8537,-4.902,-3.1715,0.0,0.90615,-2.0065,-5.8537,-4.902,-0.98522,4.7393,3.746,3.9179,7.7295,4.8953,4.6571,3.9365,2.9557,5.614
1.7694,2.9984,0.97561,-0.97561,-1.9608,-3.1715,0.0,3.8188,-2.9773,-0.97561,-1.9608,0.98522,0.94787,-0.06349,2.0221,4.8309,1.9968,1.7863,2.9841,3.9409,2.7432
-1.0742,0.12759,-3.9024,0.0,0.0,-5.1133,0.97087,4.7896,-1.0356,0.0,0.0,0.98522,-2.8436,-3.873,-1.7694,0.96618,-2.8341,2.7432,3.9365,1.9704,-1.0845
-1.0742,1.0845,-1.9512,0.97561,0.98039,-1.2298,3.8835,5.7605,4.7896,0.97561,0.98039,0.98522,-3.7915,-3.873,-1.7694,0.0,-3.8003,7.5279,3.9365,1.9704,-1.0845
0.82148,2.0415,0.0,2.9268,4.902,2.6537,6.7961,3.8188,7.7023,2.9268,4.902,4.9261,-3.7915,-3.873,-1.7694,0.0,-3.8003,7.5279,3.9365,1.9704,-0.12759
0.82148,2.9984,-2.9268,1.9512,3.9216,5.5663,3.8835,-0.06472,0.90615,1.9512,3.9216,4.9261,-5.6872,-6.7302,-3.6651,-2.8986,-4.7665,-0.12759,1.0794,0.0,-2.0415
-0.12638,2.0415,-2.9268,1.9512,2.9412,4.5955,1.9417,-2.0065,0.90615,1.9512,2.9412,2.9557,-7.5829,-10.54,-4.613,-5.7971,-4.7665,-2.9984,1.0794,2.9557,-5.8692
2.7172,2.9984,4.878,3.9024,3.9216,5.5663,3.8835,-0.06472,4.7896,3.9024,3.9216,5.9113,-5.6872,-10.54,-0.82148,-4.8309,-2.8341,-5.8692,-1.7778,-1.9704,-9.697
8.4044,2.9984,13.659,5.8537,7.8431,11.392,8.7379,-0.06472,7.7023,5.8537,7.8431,11.823,-3.7915,-6.7302,3.9179,-2.8986,0.06441,-9.697,2.0317,-7.8818,-6.8262
7.4566,2.9984,13.659,8.7805,11.765,12.362,11.65,-0.06472,7.7023,8.7805,11.765,15.764,-2.8436,-1.9683,5.8136,-0.96618,0.06441,-16.396,0.12698,-5.9113,-2.0415
8.4044,2.0415,8.7805,10.732,17.646999,15.275,14.563,2.8479,9.644,10.732,17.646999,18.719,2.8436,5.6508,6.7615,1.9324,1.9968,-11.611,2.0317,-0.98522,-0.12759
6.5087,2.0415,0.97561,8.7805,12.745,13.333,9.7087,5.7605,9.644,8.7805,12.745,13.793,6.6351,10.413,6.7615,5.7971,4.8953,-0.12759,6.7937,1.9704,-1.0845
2.7172,2.9984,-1.9512,4.878,5.8824,6.5372,6.7961,4.7896,-2.0065,4.878,5.8824,5.9113,9.4787,12.317,4.8657,7.7295,7.7939,1.7863,0.12698,2.9557,-0.12759
1.7694,3.9553,1.9512,0.97561,-0.98039,2.6537,0.97087,2.8479,-5.89,0.97561,-0.98039,1.9704,11.374,11.365,4.8657,7.7295,9.7262,7.5279,-4.6349,5.9113,1.7863
-0.12638,-2.7432,4.878,-1.9512,-3.9216,-0.2589,-5.8252,-1.0356,-5.89,-1.9512,-3.9216,0.0,9.4787,7.5556,2.0221,1.9324,6.8277,15.183,-5.5873,9.8522,2.7432
-1.0742,-10.399,3.9024,-4.878,-6.8627,3.6246,-8.7379,-0.06472,-4.9191,-4.878,-6.8627,0.98522,4.7393,1.8413,0.12638,-5.7971,0.06441,17.097,-4.6349,8.867,-1.0845
1.7694,-9.4418,3.9024,-2.9268,-4.902,7.5081,-3.8835,0.90615,-5.89,-2.9268,-4.902,1.9704,0.94787,-3.873,1.0742,-8.6957,-1.868,9.4418,-6.5397,9.8522,-7.7831
4.613,-2.7432,4.878,-3.9024,-4.902,2.6537,-0.97087,-2.0065,-4.9191,-3.9024,-4.902,-0.98522,0.0,-6.7302,2.97,-5.7971,0.06441,7.5279,-12.254,12.808,-8.74
4.613,4.9123,4.878,-4.878,-3.9216,-6.0841,2.9126,-0.06472,-2.0065,-4.878,-3.9216,-2.9557,3.7915,-1.0159,7.7093,2.8986,6.8277,9.4418,-9.3968,10.837,-3.9553
3.6651,6.8262,-0.97561,-5.8537,-5.8824,-10.939,0.0,1.877,-1.0356,-5.8537,-5.8824,-4.9261,4.7393,1.8413,7.7093,7.7295,5.8615,-1.0845,0.12698,3.9409,-2.0415
0.82148,9.697,-5.8537,-4.878,-4.902,-6.0841,-0.97087,3.8188,-4.9191,-4.878,-4.902,-6.8966,3.7915,3.746,5.8136,10.628,4.8953,-2.0415,-2.7302,0.98522,-0.12759
-2.97,5.8692,-6.8293,-2.9268,-2.9412,-3.1715,-1.9417,5.7605,3.8188,-2.9268,-2.9412,-7.8818,3.7915,4.6984,2.0221,7.7295,2.963,5.614,-1.7778,0.0,0.82935
-3.9179,-0.82935,-4.878,0.0,0.0,-2.2006,0.0,7.7023,10.615,0.0,0.0,-4.9261,0.0,0.88889,-1.7694,0.0,1.0306,-1.0845,10.603,-1.9704,1.7863
-2.97,-3.7002,0.0,1.9512,1.9608,4.5955,2.9126,6.7314,4.7896,1.9512,1.9608,-0.98522,-6.6351,-5.7778,-4.613,-4.8309,-0.90177,-5.8692,13.46,-4.9261,2.7432
-2.97,1.0845,2.9268,0.97561,0.98039,4.5955,2.9126,3.8188,1.877,0.97561,0.98039,0.0,-7.5829,-4.8254,-5.5608,-0.96618,-1.868,-4.9123,8.6984,-8.867,4.6571
-6.7615,2.0415,-2.9268,-2.9268,-1.9608,-6.0841,-1.9417,-3.9482,0.90615,-2.9268,-1.9608,-5.9113,-3.7915,2.7937,-7.4566,4.8309,-0.90177,-6.8262,2.9841,-11.823,6.571
-5.8136,4.9123,-3.9024,-7.8049,-5.8824,-10.939,-0.97087,-4.9191,-2.9773,-7.8049,-5.8824,-6.8966,3.7915,11.365,-3.6651,9.6618,2.963,-8.74,-4.6349,-6.8966,8.4848
2.7172,2.9984,1.9512,-6.8293,-1.9608,-9.9676,0.0,-4.9191,-4.9191,-6.8293,-1.9608,-1.9704,10.427,15.175,4.8657,7.7295,6.8277,-4.9123,-10.349,1.9704,8.4848
12.196,2.0415,12.683,-3.9024,0.98039,2.6537,0.97087,-2.9773,-4.9191,-3.9024,0.98039,3.9409,18.957001,18.983999,16.24,4.8309,13.591,0.82935,-9.3968,16.749001,6.571
17.882999,6.8262,23.415001,-3.9024,1.9608,9.4498,5.8252,-2.9773,-9.7735,-3.9024,1.9608,9.8522,27.488001,21.841,23.823,6.7633,20.354,6.571,-2.7302,18.719,7.5279
12.196,5.8692,19.511999,-3.9024,-1.9608,4.5955,4.8544,-5.89,-9.7735,-3.9024,-1.9608,7.8818,22.749001,17.079,20.032,5.7971,18.422001,7.5279,-0.8254,10.837,7.5279
2.7172,1.0845,5.8537,-3.9024,0.0,1.6828,3.8835,-4.9191,1.877,-3.9024,0.0,4.9261,13.27,7.5556,10.553,0.96618,10.692,0.82935,-5.5873,9.8522,-0.12759
-2.97,-1.7863,-5.8537,-3.9024,0.0,0.71197,2.9126,-5.89,5.7605,-3.9024,0.0,2.9557,5.6872,1.8413,2.0221,-1.9324,1.9968,1.7863,-3.6825,9.8522,-5.8692
-4.8657,-8.4848,-13.659,-5.8537,0.0,-6.0841,-0.97087,-6.8608,4.7896,-5.8537,0.0,-1.9704,-0.94787,-2.9206,-1.7694,-3.8647,-3.8003,-0.12759,1.0794,5.9113,-4.9123
-5.8136,-7.5279,-15.61,-3.9024,-0.98039,-8.0259,-2.9126,-2.9773,6.7314,-3.9024,-0.98039,-2.9557,-5.6872,-3.873,-3.6651,-2.8986,-6.6989,-4.9123,3.9365,2.9557,-2.9984
-7.7093,0.12759,-13.659,0.97561,1.9608,-7.055,3.8835,-2.0065,7.7023,0.97561,1.9608,0.0,-11.374,-5.7778,-8.4044,-1.9324,-9.5974,-1.0845,7.746,-0.98522,-2.0415
-8.6572,3.9553,-6.8293,5.8537,7.8431,-2.2006,10.68,-1.0356,8.6731,5.8537,7.8431,4.9261,-18.009001,-10.54,-14.092,-4.8309,-13.462,-5.8692,6.7937,-7.8818,-0.12759
-2.97,3.9553,3.9024,9.7561,10.784,6.5372,11.65,5.7605,2.8479,9.7561,10.784,9.8522,-18.009001,-12.444,-11.248,-5.7971,-9.5974,-3.9553,2.9841,-3.9409,-0.12759
-0.12638,2.0415,10.732,8.7805,10.784,6.5372,6.7961,8.6731,7.7023,8.7805,10.784,7.8818,-17.062,-10.54,-7.4566,-1.9324,-2.8341,2.7432,3.9365,-13.793,1.7863
-4.8657,-1.7863,8.7805,5.8537,3.9216,-0.2589,0.0,4.7896,3.8188,5.8537,3.9216,0.0,-14.218,-7.6825,-8.4044,0.0,-1.868,-2.0415,4.8889,-19.704,3.7002
-5.8136,-9.4418,0.0,2.9268,0.0,-4.1424,-4.8544,2.8479,-3.9482,2.9268,0.0,-4.9261,-9.4787,-4.8254,-7.4566,-3.8647,-4.7665,-7.7831,3.9365,-14.778,3.7002
-3.9179,-17.097,-9.7561,0.97561,-2.9412,-0.2589,-11.65,2.8479,-2.9773,0.97561,-2.9412,-8.867,-2.8436,-1.0159,-6.5087,-9.6618,-7.6651,-2.9984,-2.7302,-7.8818,0.82935
-4.8657,-19.011,-13.659,-1.9512,-3.9216,-4.1424,-15.534,1.877,-6.8608,-1.9512,-3.9216,-13.793,1.8957,1.8413,-4.613,-11.594,-5.7327,2.7432,-6.5397,0.98522,-2.9984
-2.97,-13.27,-13.659,-3.9024,-5.8824,-9.9676,-14.563,1.877,-10.744,-3.9024,-5.8824,-13.793,6.6351,6.6032,-1.7694,-5.7971,0.06441,-2.0415,-17.016001,4.9261,-2.0415
1.7694,-4.6571,-12.683,-2.9268,-4.902,-5.1133,-12.621,3.8188,-10.744,-2.9268,-4.902,-12.808,9.4787,9.4603,2.97,3.8647,5.8615,-2.0415,-11.302,5.9113,3.7002
0.82148,-5.614,-13.659,-2.9268,-7.8431,-1.2298,-10.68,-0.06472,-9.7735,-2.9268,-7.8431,-9.8522,3.7915,3.746,3.9179,2.8986,3.9291,-3.9553,-1.7778,1.9704,1.7863
0.82148,-0.82935,-3.9024,5.8537,1.9608,4.5955,0.97087,4.7896,-10.744,5.8537,1.9608,1.9704,0.0,-0.06349,2.0221,2.8986,1.9968,0.82935,-2.7302,1.9704,0.82935
0.82148,6.8262,9.7561,13.659,7.8431,13.333,4.8544,11.586,-5.89,13.659,7.8431,11.823,-0.94787,-1.9683,1.0742,5.7971,3.9291,8.4848,-6.5397,7.8818,0.82935
7.4566,9.697,19.511999,13.659,9.8039,19.159,3.8835,15.469,-0.06472,13.659,9.8039,16.749001,0.0,-0.06349,3.9179,9.6618,8.7601,10.399,0.12698,5.9113,1.7863
12.196,7.7831,17.561001,11.707,4.902,18.188,2.9126,15.469,-1.0356,11.707,4.902,13.793,-1.8957,-1.0159,3.9179,8.6957,6.8277,7.5279,1.0794,-0.98522,-1.0845
14.092,3.9553,11.707,11.707,5.8824,14.304,0.97087,13.528,-2.0065,11.707,5.8824,6.8966,-1.8957,-1.0159,4.8657,4.8309,3.9291,3.7002,-3.6825,-2.9557,-1.0845
17.882999,0.12759,6.8293,10.732,4.902,9.4498,-2.9126,11.586,-0.06472,10.732,4.902,2.9557,2.8436,0.88889,10.553,0.96618,3.9291,4.6571,-0.8254,1.9704,-1.0845
15.039,-4.6571,0.0,5.8537,0.98039,-0.2589,-3.8835,7.7023,-0.06472,5.8537,0.98039,-0.98522,3.7915,-0.06349,12.449,-4.8309,1.9968,1.7863,2.9841,4.9261,-2.0415
6.5087,-8.4848,-3.9024,-0.97561,-4.902,-3.1715,-7.767,1.877,2.8479,-0.97561,-4.902,-5.9113,2.8436,-0.06349,7.7093,-9.6618,-1.868,2.7432,7.746,6.8966,0.82935
-3.9179,-8.4848,-8.7805,-5.8537,-9.8039,-2.2006,-10.68,0.90615,-3.9482,-5.8537,-9.8039,-9.8522,-2.8436,-2.9206,-3.6651,-11.594,-8.6312,-2.9984,8.6984,0.98522,2.7432
-15.292,-12.313,-14.634,-6.8293,-6.8627,-7.055,-9.7087,-1.0356,-0.06472,-6.8293,-6.8627,-11.823,-12.322,-10.54,-18.830999,-16.424999,-17.327,-6.8262,5.8413,-10.837,-0.12759
-20.032,-18.054001,-18.537001,-3.9024,-6.8627,-11.909,-9.7087,0.90615,0.90615,-3.9024,-6.8627,-11.823,-17.062,-13.397,-26.414,-19.323999,-22.158001,-5.8692,-9.3968,-16.749001,-3.9553
-20.032,-22.839001,-22.438999,-1.9512,-4.902,-11.909,-12.621,1.877,-2.9773,-1.9512,-4.902,-13.793,-18.009001,-13.397,-26.414,-22.222,-23.124001,-6.8262,-12.254,-17.733999,-7.7831
-15.292,-24.753,-22.438999,-4.878,-7.8431,-11.909,-17.476,-0.06472,-1.0356,-4.878,-7.8431,-17.733999,-15.166,-12.444,-19.778999,-23.188,-21.191999,-6.8262,-3.6825,-10.837,-9.697
-6.7615,-18.054001,-14.634,-1.9512,-5.8824,-11.909,-10.68,-2.0065,-2.0065,-1.9512,-5.8824,-13.793,-8.5308,-7.6825,-10.3,-18.357,-14.428,-9.697,0.12698,-6.8966,-8.74
2.7172,-8.4848,-1.9512,-1.9512,-0.98039,-3.1715,-4.8544,-1.0356,4.7896,-1.9512,-0.98039,-5.9113,0.94787,-1.0159,1.0742,-8.6957,-2.8341,-11.611,2.0317,-3.9409,-6.8262
5.5608,0.12759,4.878,2.9268,4.902,1.6828,1.9417,2.8479,3.8188,2.9268,4.902,-2.9557,5.6872,2.7937,7.7093,0.96618,4.8953,0.82935,-2.7302,4.9261,-7.7831
3.6651,3.9553,3.9024,8.7805,5.8824,3.6246,5.8252,9.644,4.7896,8.7805,5.8824,0.98522,5.6872,2.7937,7.7093,6.7633,5.8615,-0.12759,-0.8254,6.8966,-8.74
1.7694,2.0415,-0.97561,12.683,6.8627,6.5372,1.9417,12.557,3.8188,12.683,6.8627,1.9704,3.7915,1.8413,2.97,6.7633,3.9291,7.5279,-1.7778,5.9113,-9.697
1.7694,2.9984,0.97561,13.659,3.9216,10.421,-1.9417,14.498,-3.9482,13.659,3.9216,5.9113,5.6872,4.6984,0.12638,7.7295,4.8953,17.097,-6.5397,6.8966,-5.8692
3.6651,7.7831,7.8049,10.732,0.98039,11.392,0.0,12.557,-7.8317,10.732,0.98039,6.8966,8.5308,9.4603,-0.82148,9.6618,7.7939,16.139999,-4.6349,6.8966,1.7863
2.7172,5.8692,6.8293,4.878,-3.9216,3.6246,-4.8544,6.7314,-6.8608,4.878,-3.9216,0.0,9.4787,12.317,-3.6651,5.7971,2.963,7.5279,-0.8254,3.9409,7.5279
2.7172,3.9553,0.97561,0.0,-2.9412,-5.1133,-7.767,0.90615,-2.0065,0.0,-2.9412,-4.9261,8.5308,14.222,-5.5608,1.9324,-0.90177,1.7863,-7.4921,2.9557,11.356
-1.0742,-3.7002,-9.7561,-5.8537,-5.8824,-5.1133,-9.7087,-6.8608,-3.9482,-5.8537,-5.8824,-9.8522,0.94787,6.6032,-9.3523,-6.7633,-7.6651,-11.611,-3.6825,-1.9704,9.4418
-2.97,-12.313,-16.584999,-8.7805,-6.8627,-6.0841,-9.7087,-10.744,-2.9773,-8.7805,-6.8627,-11.823,-4.7393,-1.0159,-10.3,-10.628,-10.564,-8.74,12.508,0.0,10.399
-1.0742,-10.399,-9.7561,-4.878,-1.9608,-10.939,-8.7379,-7.8317,3.8188,-4.878,-1.9608,-8.867,-1.8957,-1.0159,-3.6651,-2.8986,-2.8341,3.7002,11.556,-2.9557,13.27
-0.12638,-4.6571,-1.9512,0.97561,0.0,-5.1133,-5.8252,-2.0065,1.877,0.97561,0.0,-5.9113,-3.7915,-1.9683,0.12638,3.8647,1.0306,-0.12759,2.9841,-7.8818,7.5279
2.7172,0.12759,2.9268,4.878,4.902,4.5955,-2.9126,1.877,-1.0356,4.878,4.902,-0.98522,-4.7393,-2.9206,1.0742,7.7295,1.9968,-2.9984,-2.7302,-2.9557,-2.9984
5.5608,1.0845,6.8293,3.9024,2.9412,7.5081,-4.8544,4.7896,-0.06472,3.9024,2.9412,0.0,-4.7393,-1.0159,0.12638,6.7633,3.9291,4.6571,-3.6825,-0.98522,-10.654
3.6651,-3.7002,4.878,2.9268,0.98039,3.6246,-0.97087,2.8479,1.877,2.9268,0.98039,0.0,-3.7915,-1.0159,-1.7694,1.9324,2.963,-1.0845,-3.6825,-2.9557,-10.654
0.82148,-6.571,-2.9268,1.9512,0.0,-1.2298,-0.97087,1.877,1.877,1.9512,0.0,0.0,0.0,-1.0159,-0.82148,-1.9324,1.0306,-5.8692,-5.5873,-3.9409,-10.654
-0.12638,-7.5279,-10.732,3.9024,6.8627,-2.2006,2.9126,1.877,-1.0356,3.9024,6.8627,2.9557,0.0,-4.8254,-1.7694,-6.7633,-4.7665,-0.12759,-13.206,-1.9704,-15.439
-0.12638,-6.571,-13.659,4.878,8.8235,-3.1715,6.7961,-1.0356,3.8188,4.878,8.8235,2.9557,-1.8957,-8.6349,-1.7694,-11.594,-8.6312,-2.0415,-14.159,-0.98522,-18.309
0.82148,-2.7432,-8.7805,2.9268,7.8431,-5.1133,6.7961,-2.0065,5.7605,2.9268,7.8431,2.9557,-1.8957,-9.5873,0.12638,-10.628,-5.7327,-0.12759,-10.349,1.9704,-17.351999
0.82148,0.12759,0.0,0.0,0.0,-2.2006,1.9417,-1.0356,0.90615,0.0,0.0,1.9704,-2.8436,-8.6349,0.12638,-8.6957,-1.868,8.4848,-3.6825,3.9409,-11.611
-0.12638,4.9123,4.878,-3.9024,-4.902,-3.1715,-3.8835,-4.9191,-6.8608,-3.9024,-4.902,-0.98522,-3.7915,-5.7778,-0.82148,-4.8309,-0.90177,1.7863,3.9365,5.9113,-1.0845
-2.0221,2.9984,0.97561,-10.732,-10.784,-10.939,-9.7087,-11.715,-5.89,-10.732,-10.784,-7.8818,-3.7915,-1.9683,-3.6651,-2.8986,-2.8341,-1.0845,5.8413,-1.9704,6.571
-3.9179,-2.7432,-3.9024,-17.561001,-13.725,-10.939,-10.68,-15.599,-8.8026,-17.561001,-13.725,-13.793,0.0,3.746,-3.6651,-1.9324,-2.8341,-8.74,5.8413,-6.8966,12.313
-7.7093,-8.4848,-8.7805,-20.488001,-17.646999,-17.735001,-12.621,-18.511,-9.7735,-20.488001,-17.646999,-17.733999,2.8436,6.6032,-3.6651,-1.9324,-0.90177,-8.74,0.12698,-3.9409,14.226
-14.344,-13.27,-15.61,-24.389999,-23.528999,-22.589001,-16.504999,-21.424,-10.744,-24.389999,-23.528999,-22.66,-0.94787,3.746,-7.4566,-2.8986,-2.8341,-6.8262,0.12698,-6.8966,14.226
-13.397,-13.27,-16.584999,-22.438999,-22.549,-21.618,-18.447001,-17.540001,-8.8026,-22.438999,-22.549,-22.66,-0.94787,2.7937,-6.5087,-0.96618,-2.8341,-3.9553,-2.7302,-2.9557,13.27
-5.8136,-7.5279,-13.659,-17.561001,-19.608,-15.793,-12.621,-6.8608,-7.8317,-17.561001,-19.608,-18.719,1.8957,2.7937,-0.82148,1.9324,-0.90177,-0.12759,-4.6349,3.9409,4.6571
2.7172,-2.7432,-7.8049,-13.659,-15.686,-9.9676,-10.68,-2.0065,-3.9482,-13.659,-15.686,-14.778,5.6872,3.746,5.8136,5.7971,4.8953,5.614,-5.5873,12.808,-0.12759
7.4566,-0.82935,-2.9268,-4.878,-10.784,-0.2589,-5.8252,3.8188,1.877,-4.878,-10.784,-8.867,5.6872,1.8413,9.6051,6.7633,7.7939,10.399,-4.6349,9.8522,-2.0415
13.144,3.9553,5.8537,2.9268,-4.902,8.479,2.9126,8.6731,-0.06472,2.9268,-4.902,1.9704,5.6872,1.8413,13.397,8.6957,9.7262,10.399,-7.4921,7.8818,-2.9984
19.778999,11.611,18.537001,5.8537,-4.902,17.216999,7.767,10.615,-2.0065,5.8537,-4.902,11.823,9.4787,5.6508,18.136,13.527,14.557,3.7002,-15.111,12.808,-2.9984
24.518,25.007999,33.171001,9.7561,-1.9608,23.042,17.476,10.615,-3.9482,9.7561,-1.9608,22.66,17.062,12.317,21.927,21.256001,23.253,7.5279,-9.3968,17.733999,-2.0415
27.362,33.619999,43.902,9.7561,-4.902,25.955,24.271999,9.644,-7.8317,9.7561,-4.902,31.527,21.801001,16.127001,23.823,26.087,30.016001,20.924999,-0.8254,14.778,3.7002
24.518,33.619999,43.902,5.8537,-5.8824,25.955,23.301001,5.7605,-8.8026,5.8537,-5.8824,33.498001,23.697001,19.937,23.823,27.052999,32.915001,18.054001,0.12698,10.837,11.356
16.934999,26.922001,35.122002,-2.9268,-15.686,17.216999,17.476,1.877,-11.715,-2.9268,-15.686,26.601,23.697001,21.841,24.771,25.121,31.948,10.399,-0.8254,13.793,12.313
13.144,19.266001,26.341,-11.707,-23.528999,5.5663,6.7961,-5.89,-16.57,-11.707,-23.528999,14.778,21.801001,20.889,24.771,23.188,30.016001,8.4848,-5.5873,15.764,12.313
12.196,14.482,21.462999,-17.561001,-29.412001,0.71197,-3.8835,-10.744,-18.511,-17.561001,-29.412001,4.9261,16.114,17.079,21.927,22.222,25.184999,3.7002,-6.5397,12.808,11.356
10.3,10.654,16.584999,-16.584999,-31.372999,-0.2589,-10.68,-10.744,-15.599,-16.584999,-31.372999,-2.9557,6.6351,7.5556,17.188,17.391001,19.388,3.7002,2.0317,6.8966,7.5279
7.4566,5.8692,7.8049,-15.61,-30.392,-3.1715,-13.592,-10.744,-4.9191,-15.61,-30.392,-8.867,0.94787,-1.0159,14.344,12.56,12.625,2.7432,6.7937,7.8818,3.7002
4.613,2.9984,-1.9512,-10.732,-25.49,-6.0841,-13.592,-8.8026,0.90615,-10.732,-25.49,-11.823,-0.94787,-9.5873,11.501,5.7971,5.8615,3.7002,7.746,11.823,-0.12759
1.7694,2.9984,-5.8537,-9.7561,-21.569,-9.9676,-11.65,-5.89,-1.0356,-9.7561,-21.569,-11.823,-4.7393,-17.205999,6.7615,0.0,-1.868,4.6571,4.8889,8.867,-3.9553
4.613,7.7831,2.9268,-5.8537,-18.627001,-7.055,-1.9417,0.90615,0.90615,-5.8537,-18.627001,-7.8818,-0.94787,-10.54,8.6572,1.9324,1.9968,14.226,-6.5397,8.867,-3.9553
6.5087,10.654,10.732,-4.878,-14.706,2.6537,1.9417,8.6731,0.90615,-4.878,-14.706,-3.9409,7.5829,3.746,11.501,5.7971,8.7601,12.313,0.12698,10.837,-0.12759
3.6651,8.74,5.8537,-9.7561,-17.646999,0.71197,-1.9417,3.8188,-2.9773,-9.7561,-17.646999,-5.9113,6.6351,9.4603,6.7615,5.7971,6.8277,7.5279,5.8413,5.9113,2.7432
-3.9179,5.8692,-6.8293,-13.659,-20.587999,-6.0841,-0.97087,-2.0065,-9.7735,-13.659,-20.587999,-10.837,2.8436,10.413,-3.6651,1.9324,-2.8341,-0.12759,-0.8254,-6.8966,1.7863
-13.397,2.0415,-20.488001,-13.659,-21.569,-8.9968,-5.8252,-4.9191,-10.744,-13.659,-21.569,-14.778,-3.7915,6.6032,-15.039,-3.8647,-10.564,-14.482,-2.7302,-14.778,-2.9984
-17.188,-5.614,-18.537001,-12.683,-16.667,-10.939,-7.767,-6.8608,-2.0065,-12.683,-16.667,-16.749001,-7.5829,2.7937,-17.882999,-6.7633,-10.564,-13.525,-2.7302,-15.764,-3.9553
-13.397,-8.4848,-8.7805,-11.707,-16.667,-9.9676,-8.7379,-5.89,-2.9773,-11.707,-16.667,-14.778,-6.6351,0.88889,-11.248,-5.7971,-4.7665,-1.0845,2.9841,-13.793,-2.0415
-6.7615,-7.5279,-3.9024,-8.7805,-12.745,-4.1424,-10.68,-2.0065,-5.89,-8.7805,-12.745,-12.808,0.0,1.8413,-1.7694,-2.8986,1.0306,4.6571,2.9841,-2.9557,0.82935
-2.97,-7.5279,-1.9512,-6.8293,-9.8039,-0.2589,-7.767,0.90615,-2.0065,-6.8293,-9.8039,-10.837,6.6351,4.6984,5.8136,0.0,3.9291,-0.12759,2.0317,3.9409,2.7432
3.6651,-2.7432,0.97561,-0.97561,-3.9216,3.6246,-0.97087,2.8479,1.877,-0.97561,-3.9216,-7.8818,9.4787,1.8413,12.449,4.8309,4.8953,2.7432,2.0317,10.837,6.571
3.6651,-0.82935,-3.9024,-4.878,-5.8824,-1.2298,-4.8544,0.90615,-1.0356,-4.878,-5.8824,-10.837,3.7915,-4.8254,8.6572,5.7971,1.0306,4.6571,-4.6349,7.8818,7.5279
-4.8657,-1.7863,-11.707,-9.7561,-7.8431,-8.9968,-10.68,-5.89,-7.8317,-9.7561,-7.8431,-16.749001,-1.8957,-8.6349,-0.82148,2.8986,-4.7665,-1.0845,5.8413,0.98522,9.4418
-13.397,-3.7002,-15.61,-13.659,-10.784,-15.793,-17.476,-12.686,-4.9191,-13.659,-10.784,-21.674999,-6.6351,-7.6825,-9.3523,0.96618,-9.5974,-10.654,14.413,-0.98522,13.27
-12.449,-1.7863,-10.732,-12.683,-5.8824,-17.735001,-14.563,-12.686,3.8188,-12.683,-5.8824,-18.719,-7.5829,-2.9206,-9.3523,1.9324,-6.6989,-3.9553,14.413,-5.9113,19.011
-7.7093,-3.7002,-5.8537,-10.732,-2.9412,-13.851,-10.68,-8.8026,4.7896,-10.732,-2.9412,-13.793,-4.7393,0.88889,-6.5087,-0.96618,-6.6989,-1.0845,16.316999,-9.8522,16.139999
-6.7615,-5.614,-5.8537,-7.8049,-1.9608,-10.939,-7.767,-5.89,4.7896,-7.8049,-1.9608,-10.837,-0.94787,3.746,-4.613,-4.8309,-6.6989,-5.8692,12.508,-4.9261,9.4418
-4.8657,-3.7002,-5.8537,-2.9268,1.9608,-7.055,-4.8544,-2.9773,8.6731,-2.9268,1.9608,-8.867,2.8436,8.5079,-1.7694,-2.8986,-3.8003,-6.8262,2.9841,-2.9557,3.7002
-4.8657,-1.7863,-3.9024,-0.97561,3.9216,-4.1424,-1.9417,-1.0356,7.7023,-0.97561,3.9216,-7.8818,2.8436,9.4603,-1.7694,-0.96618,1.0306,0.82935,-0.8254,-2.9557,-3.9553
-3.9179,-8.4848,-6.8293,1.9512,8.8235,-6.0841,-1.9417,2.8479,7.7023,1.9512,8.8235,-6.8966,0.0,6.6032,-1.7694,-2.8986,1.9968,2.7432,-0.8254,-2.9557,-10.654
-6.7615,-15.183,-15.61,5.8537,11.765,-9.9676,-3.8835,1.877,4.7896,5.8537,11.765,-5.9113,-3.7915,2.7937,-5.5608,-6.7633,-2.8341,2.7432,-5.5873,-4.9261,-13.525
-9.6051,-16.139999,-19.511999,9.7561,17.646999,-2.2006,-2.9126,-0.06472,3.8188,9.7561,17.646999,-0.98522,-7.5829,-1.9683,-10.3,-8.6957,-7.6651,0.82935,-9.3968,-8.867,-12.568
-9.6051,-9.4418,-14.634,15.61,21.569,10.421,0.97087,2.8479,10.615,15.61,21.569,6.8966,-9.4787,-4.8254,-13.144,-5.7971,-9.5974,-6.8262,-15.111,-9.8522,-12.568
-6.7615,0.12759,-4.878,21.462999,27.451,16.246,10.68,6.7314,13.528,21.462999,27.451,17.733999,-13.27,-9.5873,-15.987,-4.8309,-11.53,-3.9553,-9.3968,-9.8522,-6.8262
-3.9179,8.74,2.9268,22.438999,27.451,16.246,15.534,6.7314,13.528,22.438999,27.451,19.704,-15.166,-12.444,-14.092,-6.7633,-13.462,-13.525,1.0794,-4.9261,-0.12759
0.82148,16.396,6.8293,24.389999,30.392,12.362,19.417,6.7314,19.353001,24.389999,30.392,18.719,-10.427,-9.5873,-7.4566,-3.8647,-10.564,-14.482,9.6508,-6.8966,5.614
2.7172,18.309,7.8049,24.389999,30.392,9.4498,22.33,5.7605,24.207001,24.389999,30.392,16.749001,-6.6351,-6.7302,-0.82148,-0.96618,-5.7327,-8.74,13.46,-8.867,12.313
-0.12638,18.309,4.878,24.389999,36.275002,5.5663,27.184,1.877,28.091,24.389999,36.275002,17.733999,-2.8436,-2.9206,3.9179,1.9324,-1.868,-10.654,15.365,-2.9557,14.226
-2.97,13.525,0.0,25.365999,39.216,2.6537,25.243,0.90615,32.945,25.365999,39.216,16.749001,4.7393,3.746,6.7615,4.8309,2.963,-3.9553,15.365,3.9409,13.27
-3.9179,6.8262,-2.9268,28.292999,42.157001,1.6828,22.33,1.877,31.974001,28.292999,42.157001,13.793,11.374,10.413,8.6572,6.7633,6.8277,2.7432,10.603,7.8818,12.313
-2.0221,0.12759,-4.878,29.268,43.137001,0.71197,18.447001,0.90615,29.061001,29.268,43.137001,10.837,13.27,12.317,6.7615,6.7633,6.8277,3.7002,17.27,7.8818,10.399
-2.97,-0.82935,-4.878,26.341,43.137001,-4.1424,13.592,-2.0065,27.120001,26.341,43.137001,7.8818,9.4787,9.4603,3.9179,5.7971,4.8953,4.6571,24.889,3.9409,9.4418
-3.9179,1.0845,-5.8537,27.316999,45.098,-7.055,10.68,-2.9773,28.091,27.316999,45.098,6.8966,1.8957,2.7937,-0.82148,4.8309,0.06441,-0.12759,23.937,0.0,6.571
-4.8657,1.0845,-5.8537,32.195,49.02,-0.2589,12.621,-0.06472,29.061001,32.195,49.02,9.8522,-4.7393,-2.9206,-3.6651,3.8647,-2.8341,-4.9123,23.937,-5.9113,3.7002
-3.9179,2.9984,-2.9268,40.0,51.960999,9.4498,18.447001,2.8479,26.149,40.0,51.960999,15.764,-7.5829,-4.8254,-4.613,2.8986,-6.6989,-10.654,14.413,-8.867,5.614
-2.0221,6.8262,2.9268,40.976002,54.902,14.304,22.33,4.7896,25.177999,40.976002,54.902,19.704,-12.322,-7.6825,-6.5087,0.96618,-9.5974,-17.351999,13.46,-8.867,4.6571
-1.0742,12.568,10.732,39.023998,53.922001,12.362,28.155001,3.8188,24.207001,39.023998,53.922001,20.690001,-12.322,-6.7302,-5.5608,2.8986,-5.7327,-21.18,15.365,-12.808,6.571
-2.97,17.351999,11.707,35.122002,44.118,8.479,29.125999,3.8188,19.353001,35.122002,44.118,19.704,-8.5308,-5.7778,-4.613,4.8309,-2.8341,-18.309,10.603,-11.823,6.571
-1.0742,18.309,13.659,34.146,41.175999,9.4498,29.125999,10.615,17.410999,34.146,41.175999,19.704,-0.94787,-1.0159,-0.82148,6.7633,1.9968,-0.12759,7.746,-1.9704,6.571
4.613,17.351999,12.683,31.219999,35.293999,11.392,24.271999,14.498,13.528,31.219999,35.293999,20.690001,7.5829,5.6508,6.7615,8.6957,7.7939,12.313,-0.8254,4.9261,3.7002
6.5087,6.8262,5.8537,23.415001,32.353001,10.421,18.447001,14.498,11.586,23.415001,32.353001,16.749001,10.427,6.6032,8.6572,5.7971,7.7939,13.27,-1.7778,7.8818,0.82935
1.7694,0.12759,3.9024,9.7561,22.549,8.479,10.68,7.7023,12.557,9.7561,22.549,9.8522,9.4787,5.6508,5.8136,4.8309,6.8277,8.4848,6.7937,5.9113,0.82935
-2.97,1.0845,2.9268,3.9024,17.646999,2.6537,4.8544,1.877,10.615,3.9024,17.646999,4.9261,5.6872,4.6984,0.12638,4.8309,2.963,4.6571,10.603,5.9113,3.7002
-5.8136,-1.7863,-2.9268,-0.97561,12.745,-3.1715,1.9417,-0.06472,10.615,-0.97561,12.745,-0.98522,1.8957,1.8413,-3.6651,0.96618,-2.8341,1.7863,11.556,5.9113,5.614
-6.7615,-6.571,-7.8049,-2.9268,12.745,-6.0841,0.0,-0.06472,9.644,-2.9268,12.745,-3.9409,-1.8957,-1.9683,-7.4566,-4.8309,-10.564,-2.0415,6.7937,3.9409,3.7002
-7.7093,-10.399,-7.8049,-1.9512,11.765,-7.055,0.0,-2.0065,3.8188,-1.9512,11.765,-1.9704,-7.5829,-6.7302,-13.144,-11.594,-19.259001,-7.7831,2.0317,0.0,-0.12759
-5.8136,-11.356,-5.8537,1.9512,14.706,-1.2298,4.8544,-2.0065,4.7896,1.9512,14.706,3.9409,-10.427,-10.54,-13.144,-14.493,-20.225,0.82935,7.746,0.0,-7.7831
-4.8657,-4.6571,-4.878,0.97561,13.725,2.6537,6.7961,-0.06472,0.90615,0.97561,13.725,7.8818,-10.427,-10.54,-9.3523,-8.6957,-16.361,8.4848,5.8413,3.9409,-9.697
1.7694,7.7831,5.8537,4.878,15.686,10.421,14.563,0.90615,-2.0065,4.878,15.686,14.778,-3.7915,-2.9206,0.12638,0.0,-4.7665,9.4418,3.9365,0.0,-6.8262
13.144,18.309,24.389999,15.61,23.528999,16.246,23.301001,6.7314,4.7896,15.61,23.528999,27.586,4.7393,4.6984,13.397,10.628,11.659,6.571,2.0317,0.0,-4.9123
24.518,23.094,41.951,24.389999,27.451,24.983999,32.039001,11.586,3.8188,24.389999,27.451,41.379002,14.218,11.365,25.719,20.290001,27.118,1.7863,-8.4444,5.9113,0.82935
36.84,29.792999,57.561001,32.195,36.275002,39.547001,42.717999,17.410999,1.877,32.195,36.275002,55.172001,22.749001,16.127001,37.092999,28.986,40.644001,7.5279,-13.206,12.808,1.7863
44.423,34.577,64.389999,34.146,39.216,50.227001,47.573002,23.236,4.7896,34.146,39.216,64.039001,30.332001,19.937,44.675999,34.783001,48.374001,12.313,-9.3968,20.690001,1.7863
41.580002,28.836,55.610001,22.438999,31.372999,44.401001,41.748001,20.323999,-3.9482,22.438999,31.372999,57.143002,30.332001,21.841,40.884998,32.849998,44.508999,12.313,-10.349,19.704,1.7863
33.997002,21.18,40.976002,13.659,18.627001,32.750999,30.097,20.323999,-11.715,13.659,18.627001,42.365002,23.697001,19.937,31.406,26.087,33.881001,16.139999,-19.872999,15.764,-0.12759
30.205,18.309,31.219999,14.634,14.706,27.896,22.33,26.149,-14.628,14.634,14.706,32.512001,20.853001,20.889,25.719,20.290001,28.084,30.493999,-15.111,18.719,1.7863
22.622,11.611,20.488001,7.8049,2.9412,21.1,13.592,24.207001,-20.452999,7.8049,2.9412,22.66,18.009001,18.983999,18.136,13.527,21.32,34.321999,-9.3968,19.704,0.82935
11.248,0.12759,6.8293,0.0,-2.9412,12.362,1.9417,18.382,-21.424,0.0,-2.9412,11.823,10.427,13.27,6.7615,2.8986,8.7601,25.709999,-13.206,16.749001,-2.9984
0.82148,-12.313,-10.732,-8.7805,-12.745,0.71197,-9.7087,10.615,-21.424,-8.7805,-12.745,0.0,3.7915,5.6508,-3.6651,-6.7633,-4.7665,17.097,-18.921,11.823,-6.8262
-5.8136,-18.054001,-22.438999,-14.634,-14.706,-12.88,-17.476,3.8188,-25.306999,-14.634,-14.706,-10.837,-3.7915,-3.873,-10.3,-12.56,-14.428,13.27,-29.396999,5.9113,-9.697
-11.501,-20.924999,-26.341,-21.462999,-20.587999,-18.705999,-25.243,-3.9482,-25.306999,-21.462999,-20.587999,-18.719,-10.427,-11.492,-15.987,-18.357,-21.191999,1.7863,-23.683001,-4.9261,-12.568
-14.344,-23.796,-24.389999,-24.389999,-23.528999,-13.851,-26.214001,-5.89,-21.424,-24.389999,-23.528999,-21.674999,-10.427,-12.444,-15.987,-21.256001,-21.191999,-2.9984,-13.206,-6.8966,-14.482
-19.084,-26.667,-24.389999,-28.292999,-26.471001,-21.618,-27.184,-11.715,-20.452999,-28.292999,-26.471001,-24.631001,-10.427,-13.397,-16.934999,-23.188,-23.124001,-4.9123,-15.111,-4.9261,-16.396
-23.823,-25.709999,-25.365999,-30.243999,-26.471001,-29.385,-27.184,-17.540001,-19.482,-30.243999,-26.471001,-26.601,-10.427,-12.444,-16.934999,-23.188,-22.158001,-10.654,-13.206,-5.9113,-16.396
-23.823,-21.882,-24.389999,-29.268,-23.528999,-27.443001,-21.358999,-21.424,-15.599,-29.268,-23.528999,-23.645,-10.427,-12.444,-16.934999,-20.290001,-20.225,-7.7831,-17.968,-6.8966,-12.568
-18.136,-18.054001,-17.561001,-26.341,-20.587999,-20.646999,-14.563,-21.424,-12.686,-26.341,-20.587999,-17.733999,-10.427,-12.444,-14.092,-15.459,-14.428,-4.9123,-13.206,-9.8522,-8.74
-9.6051,-11.356,-3.9024,-19.511999,-11.765,-9.9676,-7.767,-18.511,-10.744,-19.511999,-11.765,-5.9113,-7.5829,-8.6349,-7.4566,-8.6957,-4.7665,-9.697,-6.5397,-9.8522,-6.8262
1.7694,0.12759,13.659,-7.8049,-1.9608,2.6537,1.9417,-12.686,1.877,-7.8049,-1.9608,9.8522,-1.8957,-2.9206,0.12638,1.9324,4.8953,-12.568,-4.6349,-7.8818,-2.0415
7.4566,6.8262,18.537001,0.0,5.8824,8.479,8.7379,-7.8317,7.7023,0.0,5.8824,16.749001,0.0,0.88889,3.9179,5.7971,7.7939,-19.266001,2.0317,-5.9113,0.82935
7.4566,5.8692,10.732,-0.97561,0.98039,6.5372,5.8252,-6.8608,5.7605,-0.97561,0.98039,11.823,0.0,0.88889,3.9179,2.8986,3.9291,-18.309,7.746,-5.9113,0.82935
4.613,-0.82935,0.97561,-2.9268,-1.9608,5.5663,2.9126,-3.9482,7.7023,-2.9268,-1.9608,6.8966,-0.94787,0.88889,0.12638,-3.8647,-2.8341,-10.654,4.8889,-4.9261,2.7432
0.82148,-5.614,-4.878,-6.8293,-7.8431,5.5663,-1.9417,0.90615,2.8479,-6.8293,-7.8431,2.9557,0.0,0.88889,-4.613,-9.6618,-9.5974,4.6571,2.9841,1.9704,3.7002
-3.9179,-7.5279,-9.7561,-10.732,-11.765,2.6537,-3.8835,-1.0356,-2.9773,-10.732,-11.765,-2.9557,0.0,0.88889,-11.248,-14.493,-16.361,11.356,5.8413,-0.98522,1.7863
-10.553,-7.5279,-15.61,-14.634,-15.686,-6.0841,-6.7961,-2.0065,-3.9482,-14.634,-15.686,-9.8522,-5.6872,-1.9683,-16.934999,-17.391001,-22.158001,2.7432,6.7937,-7.8818,-1.0845
-15.292,-12.313,-26.341,-13.659,-14.706,-14.822,-12.621,-2.0065,-3.9482,-13.659,-14.706,-15.764,-11.374,-8.6349,-21.674999,-22.222,-26.023001,-4.9123,3.9365,-12.808,-7.7831
-21.927,-19.968,-37.073002,-17.561001,-19.608,-22.589001,-18.447001,-5.89,-2.9773,-17.561001,-19.608,-24.631001,-18.009001,-15.302,-24.518,-26.087,-28.921,-7.7831,4.8889,-16.749001,-11.611
-31.406,-26.667,-39.023998,-25.365999,-24.51,-34.238998,-23.301001,-15.599,-8.8026,-25.365999,-24.51,-33.498001,-21.801001,-19.111,-26.414,-28.986,-29.886999,-12.568,-2.7302,-16.749001,-13.525
-38.988998,-29.537001,-35.122002,-30.243999,-27.451,-42.006001,-27.184,-22.395,-7.8317,-30.243999,-27.451,-36.452999,-21.801001,-20.063,-29.257999,-28.986,-29.886999,-20.223,-4.6349,-15.764,-14.482
-34.25,-27.624001,-26.341,-29.268,-24.51,-29.385,-28.155001,-23.365999,-2.9773,-29.268,-24.51,-33.498001,-17.062,-17.205999,-24.518,-22.222,-24.09,-22.136999,1.0794,-8.867,-9.697
-24.771,-28.580999,-21.462999,-27.316999,-25.49,-23.559999,-30.097,-20.452999,-6.8608,-27.316999,-25.49,-30.542,-15.166,-16.254,-20.726999,-19.323999,-20.225,-17.351999,0.12698,-7.8818,-7.7831
-17.188,-24.753,-24.389999,-22.438999,-21.569,-22.589001,-26.214001,-15.599,-3.9482,-22.438999,-21.569,-25.615999,-11.374,-12.444,-16.934999,-17.391001,-19.259001,-6.8262,-3.6825,-7.8818,-5.8692
-14.344,-14.226,-24.389999,-19.511999,-17.646999,-20.646999,-19.417,-14.628,0.90615,-19.511999,-17.646999,-22.66,-8.5308,-9.5873,-14.092,-13.527,-16.361,-9.697,-2.7302,-7.8818,-7.7831
-10.553,-3.7002,-14.634,-18.537001,-17.646999,-18.705999,-12.621,-14.628,2.8479,-18.537001,-17.646999,-17.733999,-6.6351,-6.7302,-11.248,-7.7295,-11.53,-15.439,5.8413,-9.8522,-4.9123
-5.8136,2.0415,-1.9512,-14.634,-11.765,-9.9676,-6.7961,-14.628,9.644,-14.634,-11.765,-8.867,-8.5308,-7.6825,-6.5087,-3.8647,-6.6989,-19.266001,16.316999,-9.8522,-2.0415
-2.0221,5.8692,6.8293,-15.61,-10.784,-5.1133,-1.9417,-17.540001,15.469,-15.61,-10.784,-2.9557,-8.5308,-6.7302,-1.7694,0.0,-0.90177,-12.568,22.032,-5.9113,1.7863
0.82148,9.697,9.7561,-14.634,-5.8824,-7.055,4.8544,-20.452999,21.294001,-14.634,-5.8824,0.98522,-4.7393,-2.9206,2.0221,5.7971,4.8953,-9.697,24.889,-9.8522,8.4848
-1.0742,8.74,4.878,-15.61,-10.784,-5.1133,4.8544,-21.424,18.382,-15.61,-10.784,-1.9704,-5.6872,-4.8254,-0.82148,6.7633,3.9291,-27.879,25.841,-15.764,10.399
0.82148,9.697,0.0,-15.61,-12.745,-5.1133,0.97087,-19.482,8.6731,-15.61,-12.745,-4.9261,-7.5829,-5.7778,-1.7694,7.7295,2.963,-19.266001,19.174999,-14.778,10.399
0.82148,12.568,1.9512,-14.634,-16.667,-5.1133,-2.9126,-13.657,10.615,-14.634,-16.667,-4.9261,-3.7915,-1.0159,-0.82148,11.594,3.9291,-3.9553,19.174999,-11.823,10.399
-0.12638,8.74,0.0,-12.683,-14.706,-5.1133,-5.8252,-7.8317,7.7023,-12.683,-14.706,-4.9261,-1.8957,1.8413,-2.7172,9.6618,2.963,2.7432,22.032,-5.9113,9.4418
-2.97,-0.82935,-4.878,-14.634,-17.646999,-4.1424,-9.7087,-4.9191,2.8479,-14.634,-17.646999,-8.867,-0.94787,0.88889,-4.613,2.8986,-0.90177,-0.12759,17.27,-1.9704,8.4848
-4.8657,-6.571,-8.7805,-13.659,-16.667,-4.1424,-13.592,-2.9773,-2.0065,-13.659,-16.667,-9.8522,0.94787,0.88889,-3.6651,-1.9324,-3.8003,-1.0845,7.746,0.0,5.614
