C3,C4,Cz,F1,F2,F3,F4,F7,F8,Fp1,Fp2,Fz,O1,O2,P3,P4,Pz,T3,T4,T5,T6
-5.8136,5.8692,-2.9268,6.8293,3.9216,1.6828,3.8835,8.6731,-2.9773,6.8293,3.9216,0.98522,-6.6351,-5.7778,-15.039,1.9324,-7.6651,2.7432,-17.016001,-7.8818,-6.8262
-1.0742,5.8692,3.9024,8.7805,5.8824,3.6246,6.7961,10.615,4.7896,8.7805,5.8824,5.9113,-11.374,-8.6349,-16.934999,-0.96618,-9.5974,4.6571,-0.8254,-13.793,4.6571
-0.12638,2.9984,0.97561,3.9024,1.9608,5.5663,3.8835,4.7896,3.8188,3.9024,1.9608,2.9557,-17.062,-15.302,-15.987,-7.7295,-14.428,-3.9553,10.603,-16.749001,7.5279
-0.12638,3.9553,-3.9024,1.9512,1.9608,5.5663,1.9417,3.8188,5.7605,1.9512,1.9608,0.98522,-17.062,-17.205999,-9.3523,-7.7295,-14.428,-3.9553,12.508,-11.823,11.356
-1.0742,5.8692,-7.8049,2.9268,0.98039,3.6246,-0.97087,2.8479,5.7605,2.9268,0.98039,-1.9704,-10.427,-7.6825,-1.7694,-2.8986,-8.6312,-2.0415,16.316999,-3.9409,15.183
2.7172,3.9553,-10.732,0.97561,-2.9412,2.6537,-3.8835,2.8479,5.7605,0.97561,-2.9412,-3.9409,0.0,0.88889,4.8657,0.0,-2.8341,1.7863,8.6984,5.9113,13.27
6.5087,-1.7863,-10.732,-3.9024,-6.8627,3.6246,-7.767,0.90615,-1.0356,-3.9024,-6.8627,-4.9261,8.5308,4.6984,7.7093,-2.8986,-1.868,8.4848,7.746,16.749001,4.6571
5.5608,-8.4848,-11.707,-5.8537,-9.8039,0.71197,-10.68,-1.0356,-4.9191,-5.8537,-9.8039,-6.8966,13.27,8.5079,4.8657,-8.6957,-5.7327,6.571,4.8889,22.66,2.7432
-1.0742,-15.183,-15.61,-4.878,-7.8431,-4.1424,-12.621,-3.9482,-2.0065,-4.878,-7.8431,-8.867,13.27,10.413,-3.6651,-18.357,-13.462,0.82935,1.0794,16.749001,1.7863
-7.7093,-18.054001,-16.584999,-1.9512,-5.8824,-6.0841,-11.65,-3.9482,-1.0356,-1.9512,-5.8824,-8.867,16.114,15.175,-7.4566,-21.256001,-13.462,-10.654,-6.5397,14.778,0.82935
-10.553,-18.054001,-13.659,1.9512,-1.9608,-7.055,-11.65,-1.0356,-6.8608,1.9512,-1.9608,-6.8966,17.062,18.032,-8.4044,-15.459,-7.6651,-1.0845,-7.4921,16.749001,3.7002
-9.6051,-19.011,-13.659,0.97561,-7.8431,-7.055,-18.447001,2.8479,-12.686,0.97561,-7.8431,-8.867,11.374,16.127001,-7.4566,-10.628,-3.8003,6.571,-2.7302,15.764,6.571
-3.9179,-19.011,-12.683,-0.97561,-9.8039,-1.2298,-18.447001,6.7314,-17.540001,-0.97561,-9.8039,-8.867,-1.8957,3.746,-5.5608,-9.6618,-6.6989,7.5279,-8.4444,15.764,3.7002
0.82148,-13.27,-5.8537,1.9512,-5.8824,3.6246,-11.65,11.586,-16.57,1.9512,-5.8824,-4.9261,-15.166,-8.6349,-7.4566,-10.628,-12.496,9.4418,-22.73,11.823,-3.9553
1.7694,-7.5279,0.97561,8.7805,0.98039,3.6246,-2.9126,14.498,-13.657,8.7805,0.98039,0.98522,-22.749001,-16.254,-11.248,-10.628,-15.395,19.011,-20.825001,11.823,-10.654
-2.97,-5.614,0.97561,6.8293,-1.9608,0.71197,-2.9126,10.615,-11.715,6.8293,-1.9608,-0.98522,-23.697001,-20.063,-12.196,-8.6957,-14.428,15.183,-13.206,7.8818,-15.439
-6.7615,-4.6571,-3.9024,3.9024,-2.9412,-7.055,-5.8252,5.7605,-2.9773,3.9024,-2.9412,-6.8966,-16.114,-19.111,-8.4044,-5.7971,-7.6651,8.4848,-11.302,2.9557,-18.309
-4.8657,-7.5279,-7.8049,-1.9512,-4.902,-9.9676,-11.65,1.877,1.877,-1.9512,-4.902,-11.823,-3.7915,-14.349,-0.82148,-3.8647,-0.90177,3.7002,-5.5873,6.8966,-20.223
6.5087,-5.614,-1.9512,0.0,0.98039,-4.1424,-8.7379,3.8188,0.90615,0.0,0.98039,-6.8966,7.5829,-5.7778,10.553,0.96618,6.8277,13.27,2.0317,3.9409,-16.396
14.092,0.12759,8.7805,10.732,9.8039,-1.2298,-0.97087,5.7605,5.7605,10.732,9.8039,2.9557,15.166,0.88889,16.24,4.8309,11.659,7.5279,8.6984,-7.8818,-10.654
12.196,8.74,17.561001,14.634,15.686,2.6537,8.7379,6.7314,10.615,14.634,15.686,9.8522,16.114,5.6508,16.24,8.6957,18.422001,5.614,15.365,-15.764,-2.0415
8.4044,16.396,18.537001,14.634,16.667,6.5372,13.592,4.7896,15.469,14.634,16.667,12.808,17.062,13.27,13.397,12.56,22.287001,1.7863,17.27,-19.704,5.614
3.6651,12.568,4.878,6.8293,7.8431,1.6828,6.7961,0.90615,10.615,6.8293,7.8431,5.9113,17.062,16.127001,10.553,10.628,18.422001,-0.12759,13.46,-11.823,6.571
-1.0742,0.12759,-9.7561,-1.9512,-1.9608,-8.0259,-5.8252,-4.9191,-3.9482,-1.9512,-1.9608,-7.8818,12.322,11.365,6.7615,2.8986,8.7601,3.7002,6.7937,0.98522,3.7002
-4.8657,-12.313,-14.634,-4.878,-5.8824,-10.939,-12.621,-5.89,-3.9482,-4.878,-5.8824,-12.808,4.7393,3.746,-0.82148,-8.6957,-5.7327,-2.0415,-2.7302,8.867,-2.9984
-8.6572,-17.097,-16.584999,-3.9024,-6.8627,-8.9968,-11.65,-2.0065,-1.0356,-3.9024,-6.8627,-10.837,-6.6351,-5.7778,-12.196,-16.424999,-19.259001,1.7863,-8.4444,9.8522,-3.9553
-15.292,-16.139999,-21.462999,-6.8293,-9.8039,-10.939,-15.534,-3.9482,-4.9191,-6.8293,-9.8039,-13.793,-18.957001,-15.302,-25.466,-18.357,-30.853001,-2.0415,-11.302,3.9409,-4.9123
-20.032,-16.139999,-18.537001,-8.7805,-9.8039,-16.764,-20.388,-6.8608,-12.686,-8.7805,-9.8039,-18.719,-24.645,-16.254,-31.153,-14.493,-31.82,-11.611,-17.968,3.9409,-1.0845
-19.084,-16.139999,-13.659,-9.7561,-11.765,-17.735001,-25.243,-8.8026,-15.599,-9.7561,-11.765,-20.690001,-18.009001,-7.6825,-24.518,-6.7633,-20.225,-17.351999,-16.063,0.0,1.7863
-13.397,-13.27,-7.8049,-4.878,-8.8235,-11.909,-21.358999,-7.8317,-16.57,-4.878,-8.8235,-14.778,-7.5829,-0.06349,-13.144,-0.96618,-7.6651,0.82935,-6.5397,1.9704,4.6571
-8.6572,-8.4848,-7.8049,-4.878,-9.8039,-8.9968,-15.534,-5.89,-14.628,-4.878,-9.8039,-8.867,-0.94787,-1.0159,-2.7172,0.96618,1.0306,11.356,-7.4921,7.8818,0.82935
0.82148,2.9984,-4.878,3.9024,-1.9608,-5.1133,-2.9126,-0.06472,-14.628,3.9024,-1.9608,0.0,9.4787,-1.0159,10.553,9.6618,11.659,2.7432,-7.4921,10.837,2.7432
14.092,12.568,6.8293,9.7561,3.9216,7.5081,5.8252,8.6731,-4.9191,9.7561,3.9216,9.8522,20.853001,5.6508,23.823,20.290001,25.184999,3.7002,3.9365,12.808,9.4418
20.726999,16.396,17.561001,8.7805,6.8627,19.159,8.7379,10.615,2.8479,8.7805,6.8627,14.778,24.645,10.413,29.51,22.222,30.016001,8.4848,7.746,7.8818,12.313
19.778999,13.525,21.462999,5.8537,2.9412,16.246,7.767,10.615,3.8188,5.8537,2.9412,12.808,18.957001,4.6984,23.823,15.459,26.150999,11.356,8.6984,0.98522,6.571
17.882999,9.697,25.365999,7.8049,4.902,13.333,10.68,10.615,5.7605,7.8049,4.902,11.823,11.374,0.88889,16.24,5.7971,19.388,8.4848,11.556,-3.9409,1.7863
15.039,9.697,25.365999,7.8049,5.8824,13.333,12.621,9.644,8.6731,7.8049,5.8824,11.823,3.7915,0.88889,12.449,2.8986,15.523,0.82935,8.6984,-6.8966,-2.9984
14.092,8.74,20.488001,6.8293,5.8824,10.421,12.621,6.7314,11.586,6.8293,5.8824,9.8522,0.0,1.8413,11.501,1.9324,13.591,-1.0845,6.7937,-4.9261,-8.74
10.3,2.9984,6.8293,4.878,7.8431,0.71197,11.65,2.8479,14.498,4.878,7.8431,4.9261,-5.6872,-2.9206,6.7615,-1.9324,3.9291,6.571,2.9841,1.9704,-15.439
0.82148,-0.82935,-14.634,0.97561,5.8824,-3.1715,11.65,1.877,16.440001,0.97561,5.8824,1.9704,-14.218,-9.5873,-5.5608,-8.6957,-14.428,8.4848,-0.8254,-3.9409,-18.309
-6.7615,-1.7863,-24.389999,-0.97561,8.8235,-5.1133,12.621,-0.06472,22.264999,-0.97561,8.8235,1.9704,-21.801001,-14.349,-16.934999,-11.594,-26.023001,4.6571,4.8889,-8.867,-13.525
-15.292,-0.82935,-22.438999,-1.9512,1.9608,-4.1424,9.7087,-5.89,19.353001,-1.9512,1.9608,-1.9704,-24.645,-17.205999,-21.674999,-10.628,-26.023001,-5.8692,2.9841,-6.8966,-4.9123
-18.136,2.9984,-14.634,-4.878,-0.98039,-8.9968,6.7961,-10.744,12.557,-4.878,-0.98039,-1.9704,-18.009001,-12.444,-15.987,-1.9324,-16.361,-11.611,6.7937,-1.9704,4.6571
-8.6572,5.8692,0.97561,-7.8049,-3.9216,-11.909,3.8835,-8.8026,0.90615,-7.8049,-3.9216,0.98522,-3.7915,-4.8254,0.12638,4.8309,1.0306,-7.7831,8.6984,7.8818,5.614
8.4044,10.654,18.537001,-0.97561,0.0,0.71197,6.7961,-0.06472,0.90615,-0.97561,0.0,9.8522,16.114,4.6984,22.875,13.527,21.32,-2.0415,2.0317,18.719,2.7432
17.882999,12.568,25.365999,1.9512,-1.9608,11.392,7.767,3.8188,-0.06472,1.9512,-1.9608,15.764,26.540001,8.5079,34.25,16.424999,30.016001,-1.0845,-4.6349,24.631001,-1.0845
15.987,6.8262,19.511999,-0.97561,-2.9412,8.479,2.9126,0.90615,-4.9191,-0.97561,-2.9412,11.823,22.749001,5.6508,32.354,12.56,26.150999,12.313,-5.5873,24.631001,-5.8692
11.248,2.9984,13.659,-5.8537,-6.8627,4.5955,-1.9417,-1.0356,-11.715,-5.8537,-6.8627,5.9113,16.114,1.8413,24.771,6.7633,18.422001,14.226,-3.6825,22.66,-6.8262
8.4044,2.9984,14.634,-3.9024,-7.8431,4.5955,-3.8835,1.877,-10.744,-3.9024,-7.8431,2.9557,6.6351,-2.9206,14.344,1.9324,11.659,12.313,-9.3968,10.837,-8.74
5.5608,1.0845,16.584999,-2.9268,-9.8039,4.5955,-4.8544,3.8188,-8.8026,-2.9268,-9.8039,2.9557,-5.6872,-9.5873,3.9179,-2.8986,2.963,9.4418,-6.5397,0.0,-10.654
8.4044,3.9553,14.634,-0.97561,-2.9412,6.5372,0.0,5.7605,-3.9482,-0.97561,-2.9412,4.9261,-11.374,-6.7302,-0.82148,-2.8986,-0.90177,7.5279,3.9365,-1.9704,-10.654
7.4566,6.8262,2.9268,0.97561,0.98039,5.5663,5.8252,7.7023,2.8479,0.97561,0.98039,4.9261,-16.114,-2.9206,-6.5087,-1.9324,-7.6651,9.4418,9.6508,-8.867,-5.8692
2.7172,7.7831,-8.7805,0.97561,-0.98039,3.6246,8.7379,9.644,6.7314,0.97561,-0.98039,2.9557,-25.591999,-4.8254,-15.039,-2.8986,-14.428,5.614,8.6984,-17.733999,-1.0845
-2.0221,10.654,-8.7805,1.9512,1.9608,4.5955,11.65,11.586,8.6731,1.9512,1.9608,3.9409,-30.332001,-5.7778,-22.622,0.96618,-18.292999,-11.611,13.46,-25.615999,1.7863
-6.7615,14.482,-0.97561,4.878,1.9608,7.5081,13.592,12.557,9.644,4.878,1.9608,6.8966,-27.488001,-2.9206,-26.414,7.7295,-15.395,-13.525,11.556,-25.615999,3.7002
-2.97,12.568,8.7805,4.878,4.902,12.362,16.504999,10.615,9.644,4.878,4.902,10.837,-16.114,-1.0159,-16.934999,7.7295,-5.7327,2.7432,5.8413,-18.719,-0.12759
1.7694,8.74,11.707,5.8537,2.9412,9.4498,15.534,12.557,6.7314,5.8537,2.9412,11.823,-3.7915,-0.06349,-2.7172,4.8309,2.963,4.6571,2.9841,-7.8818,-6.8262
1.7694,3.9553,4.878,4.878,1.9608,2.6537,10.68,10.615,-1.0356,4.878,1.9608,5.9113,7.5829,0.88889,8.6572,4.8309,7.7939,-0.12759,-2.7302,6.8966,-7.7831
-2.0221,-4.6571,-4.878,-3.9024,-8.8235,-7.055,-0.97087,4.7896,-6.8608,-3.9024,-8.8235,-2.9557,18.009001,1.8413,17.188,2.8986,11.659,-1.0845,-4.6349,10.837,-6.8262
-4.8657,-13.27,-5.8537,-8.7805,-11.765,-8.0259,-7.767,-0.06472,-12.686,-8.7805,-11.765,-5.9113,23.697001,2.7937,17.188,0.0,12.625,3.7002,-13.206,10.837,-6.8262
-1.0742,-13.27,0.97561,-9.7561,-15.686,-4.1424,-10.68,-2.0065,-16.57,-9.7561,-15.686,-5.9113,25.591999,6.6032,18.136,2.8986,16.49,4.6571,-13.206,13.793,-6.8262
4.613,-5.614,6.8293,-11.707,-15.686,-0.2589,-12.621,-2.0065,-22.395,-11.707,-15.686,-6.8966,25.591999,9.4603,17.188,5.7971,18.422001,-2.9984,-6.5397,13.793,-4.9123
-0.12638,1.0845,3.9024,-12.683,-14.706,-0.2589,-12.621,-2.0065,-14.628,-12.683,-14.706,-5.9113,15.166,1.8413,5.8136,3.8647,9.7262,-7.7831,-4.6349,7.8818,-7.7831
-9.6051,2.0415,-3.9024,-9.7561,-10.784,-6.0841,-9.7087,-2.0065,-10.744,-9.7561,-10.784,-5.9113,-4.7393,-9.5873,-10.3,-0.96618,-5.7327,-11.611,-2.7302,-0.98522,-9.697
-14.344,0.12759,-10.732,-7.8049,-10.784,-2.2006,-7.767,0.90615,-7.8317,-7.8049,-10.784,-6.8966,-22.749001,-15.302,-20.726999,-7.7295,-20.225,0.82935,2.0317,-4.9261,-9.697
-13.397,-2.7432,-15.61,-5.8537,-9.8039,-4.1424,-4.8544,5.7605,-5.89,-5.8537,-9.8039,-8.867,-32.227001,-14.349,-24.518,-11.594,-28.921,6.571,6.7937,-7.8818,-0.12759
-13.397,-5.614,-17.561001,-8.7805,-14.706,-14.822,-6.7961,2.8479,-8.8026,-8.7805,-14.706,-13.793,-31.280001,-9.5873,-26.414,-12.56,-31.82,0.82935,-1.7778,-11.823,7.5279
-9.6051,-7.5279,-9.7561,-9.7561,-10.784,-12.88,-5.8252,-1.0356,-10.744,-9.7561,-10.784,-10.837,-22.749001,-3.873,-19.778999,-9.6618,-23.124001,-0.12759,-11.302,-8.867,9.4418
-5.8136,-12.313,-2.9268,-7.8049,-8.8235,-5.1133,-2.9126,-1.0356,-13.657,-7.8049,-8.8235,-3.9409,-8.5308,3.746,-11.248,-7.7295,-11.53,-1.0845,-7.4921,-6.8966,11.356
-5.8136,-19.968,-10.732,-3.9024,-4.902,0.71197,-2.9126,-1.0356,-9.7735,-3.9024,-4.902,-1.9704,8.5308,17.079,-4.613,-6.7633,-1.868,-2.9984,1.0794,-10.837,16.139999
-4.8657,-22.839001,-16.584999,0.0,-1.9608,0.71197,-4.8544,-2.9773,0.90615,0.0,-1.9608,-2.9557,18.009001,16.127001,3.9179,-7.7295,4.8953,-6.8262,2.0317,-10.837,15.183
-3.9179,-16.139999,-9.7561,-5.8537,-5.8824,-3.1715,-6.7961,-10.744,0.90615,-5.8537,-5.8824,-4.9261,16.114,7.5556,6.7615,-7.7295,7.7939,-11.611,-0.8254,-10.837,11.356
3.6651,-0.82935,7.8049,-5.8537,-1.9608,-2.2006,0.97087,-9.7735,5.7605,-5.8537,-1.9608,0.0,17.062,5.6508,13.397,1.9324,15.523,-10.654,7.746,-6.8966,11.356
8.4044,6.8262,21.462999,-6.8293,-3.9216,0.71197,3.8835,-9.7735,8.6731,-6.8293,-3.9216,3.9409,10.427,-1.0159,14.344,8.6957,17.455999,-6.8262,4.8889,-6.8966,6.571
8.4044,8.74,24.389999,-6.8293,-0.98039,4.5955,3.8835,-8.8026,4.7896,-6.8293,-0.98039,6.8966,0.94787,-5.7778,8.6572,9.6618,13.591,-2.9984,3.9365,-9.8522,5.614
11.248,9.697,23.415001,-2.9268,0.98039,12.362,5.8252,-2.9773,7.7023,-2.9268,0.98039,10.837,-1.8957,-2.9206,7.7093,11.594,10.692,2.7432,2.9841,-4.9261,2.7432
13.144,14.482,17.561001,2.9268,3.9216,12.362,11.65,5.7605,5.7605,2.9268,3.9216,15.764,-3.7915,-0.06349,5.8136,14.493,8.7601,13.27,-0.8254,-0.98522,-1.0845
5.5608,21.18,7.8049,3.9024,1.9608,11.392,14.563,6.7314,11.586,3.9024,1.9608,15.764,-6.6351,-0.06349,0.12638,15.459,4.8953,15.183,0.12698,1.9704,-6.8262
-1.0742,25.007999,0.97561,0.97561,3.9216,11.392,14.563,-0.06472,11.586,0.97561,3.9216,10.837,-1.8957,4.6984,-3.6651,17.391001,4.8953,7.5279,-6.5397,12.808,-8.74
-9.6051,18.309,-10.732,-5.8537,-1.9608,-1.2298,5.8252,-6.8608,3.8188,-5.8537,-1.9608,-1.9704,-3.7915,5.6508,-13.144,13.527,-1.868,-0.12759,-8.4444,8.867,-8.74
-17.188,3.9553,-23.415001,-13.659,-6.8627,-12.88,-0.97087,-13.657,-0.06472,-13.659,-6.8627,-10.837,-10.427,3.746,-20.726999,3.8647,-14.428,-12.568,3.9365,1.9704,-2.9984
-17.188,-9.4418,-28.292999,-14.634,-9.8039,-12.88,-2.9126,-15.599,0.90615,-14.634,-9.8039,-13.793,-12.322,-3.873,-19.778999,-10.628,-23.124001,-13.525,6.7937,5.9113,0.82935
-12.449,-14.226,-23.415001,-10.732,-8.8235,-14.822,-2.9126,-14.628,-1.0356,-10.732,-8.8235,-11.823,-6.6351,-5.7778,-9.3523,-18.357,-20.225,-13.525,1.0794,9.8522,4.6571
-9.6051,-13.27,-12.683,-15.61,-9.8039,-15.793,-4.8544,-16.57,-2.9773,-15.61,-9.8039,-11.823,2.8436,0.88889,0.12638,-14.493,-8.6312,-5.8692,2.9841,9.8522,11.356
-5.8136,-3.7002,0.0,-17.561001,-9.8039,-14.822,-1.9417,-17.540001,-2.0065,-17.561001,-9.8039,-9.8522,12.322,11.365,8.6572,-0.96618,5.8615,-4.9123,6.7937,7.8818,18.054001
-7.7093,2.9984,4.878,-16.584999,-8.8235,-16.764,-0.97087,-19.482,2.8479,-16.584999,-8.8235,-8.867,8.5308,13.27,5.8136,7.7295,9.7262,-21.18,7.746,-2.9557,19.011
-11.501,7.7831,5.8537,-10.732,-4.902,-16.764,1.9417,-19.482,8.6731,-10.732,-4.902,-6.8966,-2.8436,7.5556,-3.6651,13.527,7.7939,-17.351999,11.556,-15.764,19.968
-7.7093,10.654,11.707,-4.878,2.9412,-4.1424,6.7961,-18.511,10.615,-4.878,2.9412,0.0,-12.322,-2.9206,-8.4044,14.493,6.8277,-11.611,15.365,-21.674999,18.054001
-2.0221,4.9123,11.707,3.9024,5.8824,7.5081,6.7961,-7.8317,9.644,3.9024,5.8824,6.8966,-17.062,-9.5873,-10.3,7.7295,2.963,-10.654,9.6508,-21.674999,10.399
2.7172,-5.614,6.8293,7.8049,8.8235,9.4498,5.8252,1.877,7.7023,7.8049,8.8235,10.837,-15.166,-7.6825,-7.4566,-0.96618,0.06441,-3.9553,2.0317,-13.793,6.571
0.82148,-9.4418,3.9024,7.8049,8.8235,11.392,5.8252,4.7896,4.7896,7.8049,8.8235,10.837,-13.27,-3.873,-5.5608,-6.7633,-3.8003,-3.9553,-8.4444,-17.733999,1.7863
-1.0742,-7.5279,3.9024,11.707,12.745,11.392,6.7961,8.6731,4.7896,11.707,12.745,9.8522,-9.4787,-1.0159,-7.4566,-7.7295,-6.6989,-5.8692,-5.5873,-21.674999,-0.12759
-0.12638,-1.7863,6.8293,15.61,11.765,9.4498,8.7379,12.557,2.8479,15.61,11.765,10.837,0.94787,7.5556,-5.5608,-4.8309,-4.7665,5.614,2.9841,-9.8522,-0.12759
2.7172,0.12759,2.9268,13.659,9.8039,6.5372,7.767,12.557,0.90615,13.659,9.8039,9.8522,7.5829,10.413,-1.7694,-5.7971,-4.7665,12.313,5.8413,2.9557,-2.0415
5.5608,-6.571,-2.9268,8.7805,1.9608,8.479,0.0,8.6731,-2.9773,8.7805,1.9608,3.9409,11.374,4.6984,5.8136,-10.628,-3.8003,9.4418,-1.7778,14.778,-6.8262
3.6651,-15.183,-8.7805,-0.97561,-5.8824,-1.2298,-9.7087,3.8188,-8.8026,-0.97561,-5.8824,-6.8966,14.218,-0.06349,11.501,-13.527,-3.8003,-2.9984,-5.5873,24.631001,-6.8262
-0.12638,-16.139999,-9.7561,-8.7805,-11.765,-13.851,-15.534,-2.0065,-13.657,-8.7805,-11.765,-13.793,17.062,4.6984,12.449,-7.7295,-1.868,-6.8262,-6.5397,27.586,2.7432
-2.97,-13.27,-7.8049,-8.7805,-13.725,-9.9676,-17.476,-3.9482,-13.657,-8.7805,-13.725,-13.793,17.062,6.6032,9.6051,-2.8986,-1.868,-3.9553,-4.6349,24.631001,6.571
-2.97,-12.313,-5.8537,-5.8537,-13.725,-4.1424,-16.504999,-1.0356,-16.57,-5.8537,-13.725,-11.823,15.166,6.6032,5.8136,-1.9324,-1.868,-3.9553,-5.5873,17.733999,7.5279
-2.97,-13.27,-9.7561,-4.878,-9.8039,-2.2006,-15.534,-1.0356,-18.511,-4.878,-9.8039,-10.837,7.5829,2.7937,1.0742,-4.8309,-3.8003,1.7863,-10.349,9.8522,6.571
-6.7615,-16.139999,-15.61,-3.9024,-8.8235,-4.1424,-14.563,-2.0065,-12.686,-3.9024,-8.8235,-9.8522,-2.8436,-3.873,-7.4566,-8.6957,-7.6651,-2.0415,-8.4444,0.0,3.7002
-10.553,-15.183,-14.634,-1.9512,-5.8824,-7.055,-10.68,-0.06472,-4.9191,-1.9512,-5.8824,-8.867,-15.166,-11.492,-15.987,-9.6618,-9.5974,-3.9553,0.12698,-14.778,2.7432
-13.397,-10.399,-5.8537,-0.97561,-0.98039,-8.9968,-4.8544,-1.0356,-2.9773,-0.97561,-0.98039,-3.9409,-28.436001,-21.016001,-22.622,-12.56,-12.496,-5.8692,6.7937,-28.570999,-0.12759
-13.397,-2.7432,2.9268,0.0,-0.98039,-3.1715,-0.97087,-0.06472,1.877,0.0,-0.98039,0.98522,-32.227001,-24.825001,-24.518,-13.527,-15.395,-16.396,2.0317,-28.570999,-4.9123
-6.7615,0.12759,4.878,3.9024,4.902,2.6537,1.9417,3.8188,3.8188,3.9024,4.902,3.9409,-27.488001,-21.016001,-18.830999,-11.594,-14.428,-8.74,2.9841,-17.733999,-4.9123
0.82148,2.9984,0.97561,11.707,9.8039,4.5955,3.8835,8.6731,7.7023,11.707,9.8039,6.8966,-11.374,-9.5873,-6.5087,-3.8647,-8.6312,6.571,5.8413,-2.9557,-5.8692
12.196,8.74,4.878,19.511999,17.646999,18.188,10.68,17.410999,5.7605,19.511999,17.646999,13.793,11.374,7.5556,10.553,7.7295,5.8615,15.183,2.9841,11.823,-5.8692
18.830999,13.525,12.683,25.365999,22.549,24.983999,19.417,15.469,7.7023,25.365999,22.549,19.704,27.488001,16.127001,22.875,14.493,19.388,10.399,0.12698,17.733999,-6.8262
23.57,16.396,19.511999,22.438999,23.528999,22.070999,25.243,14.498,11.586,22.438999,23.528999,23.645,34.123001,20.889,31.406,15.459,27.118,17.097,1.0794,20.690001,-5.8692
21.674999,14.482,20.488001,17.561001,19.608,16.246,21.358999,11.586,12.557,17.561001,19.608,19.704,36.019001,20.889,32.354,13.527,29.049999,15.183,-6.5397,20.690001,-5.8692
15.039,13.525,15.61,12.683,15.686,8.479,15.534,5.7605,8.6731,12.683,15.686,12.808,33.174999,18.983999,27.615,10.628,25.184999,7.5279,-8.4444,24.631001,-4.9123
8.4044,7.7831,7.8049,7.8049,8.8235,-1.2298,7.767,3.8188,3.8188,7.8049,8.8235,5.9113,24.645,12.317,20.032,5.7971,16.49,1.7863,1.0794,26.601,-5.8692
4.613,1.0845,0.97561,4.878,4.902,-2.2006,0.0,1.877,-1.0356,4.878,4.902,-0.98522,16.114,6.6032,13.397,1.9324,8.7601,-1.0845,0.12698,20.690001,-5.8692
-2.97,-7.5279,-9.7561,-3.9024,-1.9608,-4.1424,-8.7379,-3.9482,-8.8026,-3.9024,-1.9608,-9.8522,3.7915,-0.06349,0.12638,-2.8986,-3.8003,-7.7831,-3.6825,11.823,-3.9553
-12.449,-19.011,-22.438999,-10.732,-7.8431,-13.851,-18.447001,-10.744,-8.8026,-10.732,-7.8431,-19.704,-8.5308,-9.5873,-13.144,-11.594,-17.327,-10.654,-7.4921,5.9113,-1.0845
-22.875,-26.667,-32.195,-21.462999,-18.627001,-26.472,-28.155001,-19.482,-15.599,-21.462999,-18.627001,-29.556999,-20.853001,-18.159,-26.414,-22.222,-31.82,-2.9984,-10.349,-1.9704,-2.0415
-30.458,-30.493999,-38.049,-23.415001,-16.667,-30.356001,-29.125999,-20.452999,-6.8608,-23.415001,-16.667,-32.512001,-30.332001,-26.73,-37.787998,-30.917999,-43.414001,-0.12759,0.12698,-8.867,-2.0415
-30.458,-28.580999,-36.098,-14.634,-6.8627,-26.472,-21.358999,-22.395,3.8188,-14.634,-6.8627,-28.570999,-37.915001,-35.301998,-39.683998,-32.849998,-47.278999,-9.697,3.9365,-14.778,-2.0415
-17.188,-11.356,-21.462999,-6.8293,0.98039,-16.764,-6.7961,-14.628,10.615,-6.8293,0.98039,-14.778,-28.436001,-27.683001,-25.466,-17.391001,-32.785999,-9.697,3.9365,-10.837,1.7863
-3.9179,3.9553,-7.8049,1.9512,10.784,-1.2298,8.7379,-8.8026,14.498,1.9512,10.784,0.0,-16.114,-14.349,-7.4566,-2.8986,-13.462,-6.8262,2.0317,-5.9113,4.6571
1.7694,8.74,0.97561,0.97561,11.765,0.71197,11.65,-7.8317,13.528,0.97561,11.765,5.9113,-0.94787,0.88889,4.8657,6.7633,3.9291,-4.9123,4.8889,-3.9409,5.614
6.5087,9.697,6.8293,0.0,9.8039,-1.2298,10.68,-6.8608,11.586,0.0,9.8039,4.9261,13.27,17.079,15.292,14.493,19.388,-8.74,7.746,-1.9704,6.571
11.248,10.654,10.732,3.9024,9.8039,1.6828,9.7087,-2.9773,11.586,3.9024,9.8039,3.9409,23.697001,25.650999,23.823,17.391001,30.016001,-12.568,2.0317,6.8966,1.7863
14.092,9.697,10.732,7.8049,13.725,4.5955,7.767,0.90615,14.498,7.8049,13.725,6.8966,25.591999,23.746,24.771,16.424999,30.016001,5.614,4.8889,4.9261,-3.9553
12.196,8.74,8.7805,9.7561,11.765,6.5372,5.8252,6.7314,13.528,9.7561,11.765,8.867,20.853001,18.032,19.084,11.594,23.253,11.356,5.8413,0.0,-7.7831
9.3523,11.611,7.8049,11.707,12.745,5.5663,9.7087,7.7023,10.615,11.707,12.745,10.837,13.27,15.175,11.501,8.6957,15.523,7.5279,2.0317,-0.98522,-5.8692
1.7694,11.611,0.97561,6.8293,10.784,5.5663,10.68,1.877,15.469,6.8293,10.784,7.8818,1.8957,10.413,1.0742,3.8647,5.8615,12.313,9.6508,-3.9409,-2.9984
-2.0221,7.7831,-5.8537,8.7805,14.706,9.4498,11.65,4.7896,17.410999,8.7805,14.706,5.9113,-8.5308,4.6984,-6.5087,-1.9324,-4.7665,9.4418,16.316999,-3.9409,-6.8262
-1.0742,2.9984,-9.7561,11.707,13.725,8.479,7.767,8.6731,16.440001,11.707,13.725,3.9409,-16.114,-5.7778,-12.196,-6.7633,-12.496,6.571,11.556,-1.9704,-12.568
-0.12638,-1.7863,-7.8049,10.732,10.784,5.5663,3.8835,5.7605,12.557,10.732,10.784,0.98522,-18.957001,-11.492,-13.144,-6.7633,-14.428,0.82935,3.9365,0.0,-11.611
3.6651,0.12759,-1.9512,6.8293,9.8039,6.5372,2.9126,5.7605,6.7314,6.8293,9.8039,1.9704,-13.27,-7.6825,-7.4566,0.96618,-7.6651,-8.74,-2.7302,2.9557,-5.8692
3.6651,3.9553,0.0,1.9512,5.8824,2.6537,0.97087,-0.06472,4.7896,1.9512,5.8824,-1.9704,-5.6872,-2.9206,2.0221,9.6618,1.0306,-9.697,-2.7302,6.8966,0.82935
-1.0742,2.0415,-5.8537,-6.8293,-1.9608,-10.939,-4.8544,-9.7735,-0.06472,-6.8293,-1.9608,-9.8522,3.7915,3.746,8.6572,13.527,5.8615,-1.0845,1.0794,10.837,7.5279
-2.97,2.0415,-4.878,-7.8049,-4.902,-15.793,-5.8252,-13.657,-2.9773,-7.8049,-4.902,-9.8522,16.114,11.365,13.397,15.459,12.625,-1.0845,-0.8254,7.8818,10.399
-1.0742,4.9123,0.97561,-1.9512,0.98039,-9.9676,-0.97087,-13.657,-0.06472,-1.9512,0.98039,-3.9409,24.645,16.127001,17.188,16.424999,16.49,-1.0845,0.12698,5.9113,13.27
-1.0742,3.9553,0.97561,-3.9024,-1.9608,-6.0841,-1.9417,-13.657,-3.9482,-3.9024,-1.9608,-4.9261,25.591999,16.127001,13.397,12.56,13.591,-2.9984,-2.7302,3.9409,9.4418
-3.9179,1.0845,-4.878,-5.8537,-4.902,-8.9968,-4.8544,-14.628,-2.9773,-5.8537,-4.902,-7.8818,18.009001,12.317,4.8657,8.6957,9.7262,-2.9984,-0.8254,-1.9704,9.4418
-4.8657,2.0415,-3.9024,-0.97561,-1.9608,-7.055,-3.8835,-6.8608,2.8479,-0.97561,-1.9608,-5.9113,8.5308,8.5079,-0.82148,9.6618,8.7601,-4.9123,3.9365,-6.8966,8.4848
-5.8136,-0.82935,-3.9024,2.9268,5.8824,-1.2298,-0.97087,1.877,2.8479,2.9268,5.8824,-1.9704,-4.7393,1.8413,-9.3523,3.8647,1.9968,-13.525,-2.7302,-17.733999,7.5279
-1.0742,-4.6571,0.0,6.8293,8.8235,7.5081,-1.9417,6.7314,7.7023,6.8293,8.8235,2.9557,-15.166,-1.9683,-12.196,-2.8986,-5.7327,-2.9984,2.9841,-17.733999,8.4848
6.5087,-6.571,5.8537,5.8537,6.8627,10.421,-6.7961,7.7023,6.7314,5.8537,6.8627,3.9409,-18.009001,-9.5873,-9.3523,-7.7295,-9.5974,7.5279,3.9365,-8.867,3.7002
9.3523,-8.4848,4.878,6.8293,0.98039,5.5663,-12.621,6.7314,1.877,6.8293,0.98039,0.98522,-19.905001,-17.205999,-6.5087,-13.527,-14.428,5.614,2.0317,-1.9704,-2.9984
9.3523,-8.4848,0.0,10.732,5.8824,8.479,-7.767,9.644,6.7314,10.732,5.8824,2.9557,-18.009001,-19.111,-5.5608,-17.391001,-18.292999,5.614,8.6984,5.9113,-5.8692
5.5608,-6.571,-6.8293,11.707,9.8039,10.421,0.0,6.7314,8.6731,11.707,9.8039,5.9113,-13.27,-19.111,-4.613,-19.323999,-20.225,-2.0415,8.6984,3.9409,-9.697
6.5087,1.0845,-0.97561,9.7561,11.765,9.4498,7.767,-1.0356,11.586,9.7561,11.765,8.867,-2.8436,-13.397,1.0742,-12.56,-11.53,-4.9123,6.7937,0.98522,-8.74
7.4566,14.482,11.707,7.8049,10.784,5.5663,14.563,-2.0065,11.586,7.8049,10.784,9.8522,5.6872,-3.873,6.7615,0.96618,1.9968,-6.8262,8.6984,0.0,-2.0415
2.7172,16.396,16.584999,0.97561,5.8824,1.6828,11.65,-7.8317,11.586,0.97561,5.8824,6.8966,11.374,4.6984,5.8136,9.6618,10.692,-18.309,9.6508,-1.9704,5.614
-2.97,14.482,12.683,-4.878,2.9412,-7.055,7.767,-11.715,11.586,-4.878,2.9412,1.9704,18.009001,13.27,3.9179,15.459,15.523,-12.568,6.7937,-0.98522,13.27
-8.6572,9.697,0.0,-6.8293,-0.98039,-13.851,0.97087,-12.686,4.7896,-6.8293,-0.98039,-5.9113,17.062,15.175,0.12638,16.424999,14.557,0.82935,4.8889,0.0,19.011
-8.6572,2.9984,-5.8537,-6.8293,-6.8627,-14.822,-7.767,-10.744,-4.9191,-6.8293,-6.8627,-9.8522,6.6351,5.6508,-1.7694,10.628,12.625,1.7863,2.0317,-4.9261,16.139999
-0.12638,4.9123,5.8537,-2.9268,-5.8824,-6.0841,-9.7087,-2.0065,-6.8608,-2.9268,-5.8824,-5.9113,-0.94787,1.8413,0.12638,10.628,15.523,3.7002,-1.7778,-7.8818,12.313
3.6651,7.7831,18.537001,2.9268,0.98039,2.6537,-6.7961,0.90615,-2.9773,2.9268,0.98039,0.98522,-4.7393,1.8413,0.12638,14.493,19.388,5.614,-10.349,-7.8818,12.313
0.82148,8.74,16.584999,7.8049,4.902,6.5372,-3.8835,2.8479,-4.9191,7.8049,4.902,3.9409,-11.374,-1.9683,-8.4044,10.628,12.625,-4.9123,-9.3968,-5.9113,10.399
-0.12638,3.9553,3.9024,14.634,13.725,7.5081,-0.97087,5.7605,1.877,14.634,13.725,4.9261,-18.009001,-8.6349,-16.934999,0.0,-1.868,-2.0415,1.0794,-8.867,7.5279
-1.0742,-3.7002,-7.8049,17.561001,13.725,9.4498,-1.9417,8.6731,6.7314,17.561001,13.725,4.9261,-18.957001,-14.349,-18.830999,-11.594,-14.428,9.4418,2.0317,-8.867,-2.0415
6.5087,-4.6571,-2.9268,23.415001,18.627001,14.304,0.0,12.557,1.877,23.415001,18.627001,7.8818,-12.322,-12.444,-9.3523,-11.594,-13.462,11.356,-0.8254,-0.98522,-8.74
13.144,-0.82935,9.7561,26.341,20.587999,16.246,3.8835,13.528,4.7896,26.341,20.587999,11.823,-1.8957,-5.7778,3.9179,-5.7971,-4.7665,-0.12759,2.0317,5.9113,-11.611
15.987,2.0415,13.659,27.316999,24.51,18.188,9.7087,15.469,8.6731,27.316999,24.51,13.793,10.427,2.7937,14.344,-0.96618,4.8953,0.82935,1.0794,10.837,-10.654
18.830999,6.8262,16.584999,30.243999,24.51,20.129,11.65,17.410999,8.6731,30.243999,24.51,14.778,22.749001,13.27,25.719,7.7295,17.455999,16.139999,2.0317,17.733999,-4.9123
19.778999,9.697,16.584999,26.341,22.549,17.216999,10.68,12.557,8.6731,26.341,22.549,12.808,30.332001,20.889,31.406,13.527,25.184999,18.054001,3.9365,21.674999,6.571
11.248,7.7831,5.8537,14.634,12.745,2.6537,3.8835,3.8188,4.7896,14.634,12.745,3.9409,28.436001,21.841,25.719,13.527,22.287001,5.614,6.7937,17.733999,13.27
5.5608,5.8692,1.9512,10.732,11.765,-7.055,1.9417,-0.06472,1.877,10.732,11.765,-0.98522,21.801001,18.032,20.032,12.56,19.388,-1.0845,9.6508,13.793,14.226
-2.0221,0.12759,0.97561,5.8537,10.784,-12.88,-0.97087,-5.89,7.7023,5.8537,10.784,-3.9409,10.427,10.413,8.6572,6.7633,13.591,-2.0415,7.746,2.9557,10.399
-2.0221,0.12759,3.9024,8.7805,10.784,-7.055,3.8835,-3.9482,13.528,8.7805,10.784,-0.98522,0.94787,1.8413,0.12638,2.8986,9.7262,-3.9553,-4.6349,-9.8522,7.5279
-0.12638,2.0415,9.7561,7.8049,12.745,1.6828,10.68,-2.0065,12.557,7.8049,12.745,3.9409,-8.5308,-8.6349,-7.4566,-1.9324,3.9291,-3.9553,-9.3968,-15.764,4.6571
-1.0742,0.12759,5.8537,3.9024,10.784,-1.2298,8.7379,-4.9191,6.7314,3.9024,10.784,3.9409,-18.957001,-18.159,-15.987,-7.7295,-5.7327,-1.0845,0.12698,-18.719,0.82935
-2.97,2.9984,1.9512,4.878,10.784,1.6828,8.7379,-4.9191,7.7023,4.878,10.784,5.9113,-23.697001,-17.205999,-20.726999,-6.7633,-11.53,-8.74,3.9365,-20.690001,-0.12759
-2.0221,7.7831,4.878,4.878,8.8235,4.5955,9.7087,-5.89,7.7023,4.878,8.8235,8.867,-22.749001,-10.54,-18.830999,-1.9324,-12.496,-4.9123,-1.7778,-14.778,3.7002
0.82148,5.8692,7.8049,1.9512,4.902,0.71197,5.8252,-5.89,-1.0356,1.9512,4.902,6.8966,-17.062,-4.8254,-11.248,-0.96618,-9.5974,0.82935,-0.8254,-6.8966,3.7002
2.7172,0.12759,2.9268,-0.97561,-1.9608,-3.1715,-3.8835,-7.8317,-3.9482,-0.97561,-1.9608,1.9704,-6.6351,0.88889,-2.7172,0.0,-5.7327,7.5279,-3.6825,0.0,3.7002
2.7172,-4.6571,-1.9512,-1.9512,-0.98039,-2.2006,-7.767,-7.8317,-4.9191,-1.9512,-0.98039,-0.98522,8.5308,10.413,5.8136,1.9324,0.06441,7.5279,-8.4444,5.9113,3.7002
1.7694,-4.6571,0.97561,-0.97561,-0.98039,0.71197,-4.8544,-2.9773,-4.9191,-0.97561,-0.98039,1.9704,21.801001,17.079,13.397,3.8647,6.8277,3.7002,-8.4444,11.823,3.7002
3.6651,-0.82935,7.8049,3.9024,5.8824,5.5663,4.8544,-1.0356,-0.06472,3.9024,5.8824,9.8522,27.488001,19.937,17.188,3.8647,13.591,6.571,-1.7778,16.749001,2.7432
5.5608,4.9123,9.7561,5.8537,5.8824,9.4498,12.621,1.877,2.8479,5.8537,5.8824,13.793,27.488001,20.889,17.188,2.8986,15.523,1.7863,2.9841,10.837,2.7432
8.4044,11.611,11.707,3.9024,5.8824,9.4498,14.563,3.8188,6.7314,3.9024,5.8824,12.808,23.697001,17.079,12.449,0.96618,12.625,2.7432,-9.3968,3.9409,0.82935
8.4044,12.568,12.683,2.9268,2.9412,9.4498,14.563,7.7023,2.8479,2.9268,2.9412,10.837,11.374,6.6032,5.8136,-1.9324,7.7939,1.7863,-0.8254,0.98522,-4.9123
3.6651,7.7831,9.7561,5.8537,5.8824,7.5081,13.592,8.6731,10.615,5.8537,5.8824,7.8818,-0.94787,-6.7302,0.12638,-5.7971,2.963,9.4418,9.6508,-2.9557,-9.697
1.7694,1.0845,5.8537,8.7805,6.8627,6.5372,12.621,9.644,12.557,8.7805,6.8627,7.8818,-7.5829,-16.254,-0.82148,-10.628,-0.90177,16.139999,2.0317,-1.9704,-19.266001
9.3523,-2.7432,5.8537,11.707,7.8431,9.4498,12.621,16.440001,6.7314,11.707,7.8431,9.8522,-11.374,-20.063,3.9179,-10.628,0.06441,21.882,-1.7778,-2.9557,-22.136999
10.3,-3.7002,-0.97561,11.707,6.8627,11.392,8.7379,13.528,3.8188,11.707,6.8627,7.8818,-14.218,-19.111,1.0742,-8.6957,-2.8341,12.313,-3.6825,-9.8522,-16.396
4.613,-1.7863,-6.8293,2.9268,0.98039,7.5081,4.8544,1.877,0.90615,2.9268,0.98039,2.9557,-13.27,-14.349,-4.613,-4.8309,-6.6989,1.7863,-3.6825,-12.808,-5.8692
-2.0221,0.12759,-3.9024,-0.97561,-0.98039,-0.2589,4.8544,-6.8608,-0.06472,-0.97561,-0.98039,0.0,-8.5308,-5.7778,-7.4566,0.0,-4.7665,-4.9123,-0.8254,-8.867,4.6571
-12.449,-0.82935,0.0,-4.878,-6.8627,-9.9676,-0.97087,-11.715,-5.89,-4.878,-6.8627,-4.9261,-4.7393,2.7937,-12.196,0.96618,-5.7327,-14.482,-4.6349,-7.8818,8.4848
-16.24,-3.7002,0.97561,-11.707,-11.765,-11.909,-5.8252,-12.686,-15.599,-11.707,-11.765,-8.867,0.0,6.6032,-12.196,0.96618,-6.6989,-13.525,-8.4444,-4.9261,8.4848
-14.344,-8.4848,-5.8537,-14.634,-16.667,-8.9968,-13.592,-14.628,-16.57,-14.634,-16.667,-12.808,3.7915,8.5079,-9.3523,-2.8986,-9.5974,-10.654,-14.159,0.0,2.7432
-5.8136,-9.4418,-8.7805,-7.8049,-9.8039,-3.1715,-11.65,-6.8608,-14.628,-7.8049,-9.8039,-7.8818,10.427,12.317,-2.7172,-4.8309,-7.6651,-2.0415,-16.063,4.9261,0.82935
3.6651,0.12759,-0.97561,-0.97561,-1.9608,8.479,0.97087,3.8188,-5.89,-0.97561,-1.9608,3.9409,18.009001,18.983999,5.8136,0.0,2.963,3.7002,-11.302,1.9704,2.7432
10.3,12.568,12.683,1.9512,0.98039,14.304,13.592,6.7314,2.8479,1.9512,0.98039,14.778,20.853001,19.937,14.344,6.7633,14.557,5.614,2.9841,0.98522,5.614
11.248,24.051001,17.561001,0.97561,-3.9216,7.5081,17.476,6.7314,6.7314,0.97561,-3.9216,16.749001,18.009001,16.127001,18.136,13.527,20.354,-3.9553,12.508,4.9261,5.614
5.5608,26.922001,13.659,-3.9024,-4.902,3.6246,17.476,3.8188,8.6731,-3.9024,-4.902,11.823,11.374,9.4603,10.553,16.424999,15.523,-8.74,15.365,3.9409,5.614
-2.0221,18.309,9.7561,-7.8049,-5.8824,-4.1424,13.592,1.877,7.7023,-7.8049,-5.8824,4.9261,2.8436,7.5556,-1.7694,11.594,3.9291,-3.9553,11.556,1.9704,6.571
-5.8136,3.9553,2.9268,-6.8293,-5.8824,-8.0259,9.7087,0.90615,2.8479,-6.8293,-5.8824,0.98522,-7.5829,-1.0159,-10.3,1.9324,-5.7327,-0.12759,7.746,-4.9261,2.7432
-2.97,-4.6571,-0.97561,-7.8049,-5.8824,-2.2006,5.8252,-1.0356,-4.9191,-7.8049,-5.8824,1.9704,-10.427,-3.873,-8.4044,-2.8986,-4.7665,-3.9553,-2.7302,-4.9261,-5.8692
6.5087,-1.7863,3.9024,-5.8537,-2.9412,0.71197,4.8544,-1.0356,-2.0065,-5.8537,-2.9412,4.9261,-0.94787,1.8413,4.8657,3.8647,6.8277,6.571,-2.7302,0.98522,-7.7831
13.144,4.9123,10.732,-8.7805,-5.8824,-0.2589,-0.97087,-1.0356,-0.06472,-8.7805,-5.8824,2.9557,7.5829,6.6032,16.24,13.527,19.388,8.4848,-0.8254,3.9409,-7.7831
17.882999,9.697,15.61,-12.683,-10.784,-2.2006,-5.8252,-3.9482,-5.89,-12.683,-10.784,0.98522,12.322,7.5556,22.875,19.323999,26.150999,8.4848,-3.6825,4.9261,-8.74
20.726999,10.654,21.462999,-5.8537,-3.9216,4.5955,-1.9417,-2.0065,-6.8608,-5.8537,-3.9216,8.867,14.218,8.5079,24.771,20.290001,30.016001,3.7002,-5.5873,6.8966,-7.7831
14.092,11.611,23.415001,4.878,4.902,12.362,6.7961,1.877,-3.9482,4.878,4.902,18.719,13.27,9.4603,14.344,16.424999,25.184999,-0.12759,-10.349,-4.9261,-6.8262
1.7694,7.7831,19.511999,11.707,11.765,19.159,15.534,3.8188,3.8188,11.707,11.765,24.631001,9.4787,11.365,2.0221,8.6957,16.49,-5.8692,-8.4444,-13.793,-1.0845
-4.8657,1.0845,11.707,10.732,9.8039,20.129,17.476,3.8188,4.7896,10.732,9.8039,23.645,5.6872,9.4603,-1.7694,0.96618,8.7601,-14.482,1.0794,-15.764,-0.12759
-2.97,-1.7863,8.7805,10.732,9.8039,17.216999,14.563,2.8479,9.644,10.732,9.8039,21.674999,3.7915,3.746,5.8136,-2.8986,6.8277,-15.439,3.9365,-13.793,-2.0415
-3.9179,-5.614,-1.9512,5.8537,1.9608,7.5081,5.8252,-5.89,9.644,5.8537,1.9608,12.808,-0.94787,-1.9683,6.7615,-7.7295,0.06441,-3.9553,8.6984,-11.823,-0.12759
-7.7093,-12.313,-18.537001,-3.9024,-6.8627,-5.1133,-4.8544,-10.744,0.90615,-3.9024,-6.8627,0.0,-7.5829,-9.5873,-2.7172,-16.424999,-16.361,6.571,11.556,-9.8522,2.7432
-12.449,-22.839001,-33.171001,-11.707,-15.686,-14.822,-17.476,-9.7735,-4.9191,-11.707,-15.686,-14.778,-14.218,-15.302,-15.039,-28.018999,-32.785999,6.571,3.9365,-3.9409,0.82935
-16.24,-31.451,-35.122002,-11.707,-16.667,-21.618,-25.243,-4.9191,-9.7735,-11.707,-16.667,-23.645,-17.062,-15.302,-24.518,-32.849998,-38.583,5.614,2.0317,0.98522,1.7863
-20.032,-33.365002,-29.268,-15.61,-19.608,-21.618,-30.097,-2.9773,-17.540001,-15.61,-19.608,-29.556999,-18.957001,-16.254,-26.414,-29.952,-33.751999,-2.9984,-5.5873,0.98522,2.7432
-18.136,-27.624001,-21.462999,-18.537001,-19.608,-21.618,-31.068001,-2.0065,-16.57,-18.537001,-19.608,-30.542,-15.166,-14.349,-19.778999,-19.323999,-21.191999,3.7002,-4.6349,5.9113,-0.12759
-12.449,-16.139999,-13.659,-16.584999,-17.646999,-19.676001,-26.214001,-0.06472,-12.686,-16.584999,-17.646999,-25.615999,-9.4787,-10.54,-8.4044,-4.8309,-6.6989,8.4848,-2.7302,0.98522,-3.9553
-0.12638,1.0845,-1.9512,-11.707,-10.784,-8.0259,-14.563,-0.06472,-11.715,-11.707,-10.784,-12.808,0.94787,-4.8254,8.6572,11.594,9.7262,0.82935,-7.4921,1.9704,-4.9123
15.987,13.525,12.683,-7.8049,-3.9216,1.6828,-3.8835,-0.06472,-10.744,-7.8049,-3.9216,0.98522,12.322,0.88889,25.719,25.121,25.184999,4.6571,-12.254,13.793,-7.7831
28.309999,24.051001,32.195,-1.9512,0.98039,11.392,9.7087,8.6731,-5.89,-1.9512,0.98039,15.764,18.957001,11.365,37.092999,37.681,38.712002,18.054001,-5.5873,20.690001,-4.9123
31.153,32.662998,45.854,2.9268,1.9608,18.188,20.388,14.498,-3.9482,2.9268,1.9608,26.601,15.166,12.317,33.301998,41.546001,40.644001,27.624001,-4.6349,20.690001,-5.8692
18.830999,34.577,47.805,0.0,0.98039,18.188,25.243,11.586,-2.0065,0.0,0.98039,31.527,4.7393,6.6032,16.24,35.749001,30.016001,21.882,-9.3968,13.793,-8.74
9.3523,32.662998,40.0,-0.97561,2.9412,19.159,26.214001,9.644,2.8479,-0.97561,2.9412,30.542,3.7915,7.5556,6.7615,28.986,21.32,14.226,-4.6349,12.808,-5.8692
6.5087,20.223,21.462999,0.0,-0.98039,13.333,16.504999,7.7023,8.6731,0.0,-0.98039,19.704,3.7915,9.4603,4.8657,18.357,12.625,10.399,6.7937,11.823,-2.0415
7.4566,8.74,5.8537,-2.9268,-7.8431,5.5663,5.8252,2.8479,6.7314,-2.9268,-7.8431,7.8818,2.8436,10.413,6.7615,8.6957,4.8953,3.7002,12.508,12.808,6.571
4.613,0.12759,-8.7805,-7.8049,-14.706,0.71197,-1.9417,-2.9773,-0.06472,-7.8049,-14.706,-1.9704,6.6351,16.127001,4.8657,0.96618,-2.8341,-2.0415,9.6508,5.9113,19.011
-3.9179,-11.356,-21.462999,-7.8049,-12.745,-7.055,-7.767,-6.8608,1.877,-7.8049,-12.745,-10.837,6.6351,14.222,1.0742,-9.6618,-11.53,-11.611,10.603,-0.98522,23.796
-6.7615,-13.27,-21.462999,-3.9024,-9.8039,-10.939,-7.767,-2.0065,4.7896,-3.9024,-9.8039,-12.808,5.6872,9.4603,1.0742,-12.56,-10.564,-9.697,8.6984,0.98522,22.839001
-9.6051,-8.4848,-19.511999,-0.97561,-3.9216,-11.909,-2.9126,-0.06472,3.8188,-0.97561,-3.9216,-8.867,-1.8957,0.88889,-3.6651,-10.628,-10.564,-4.9123,7.746,-1.9704,20.924999
-17.188,-2.7432,-17.561001,-3.9024,-4.902,-11.909,-4.8544,-2.9773,-0.06472,-3.9024,-4.902,-9.8522,-9.4787,-5.7778,-11.248,-3.8647,-10.564,-9.697,6.7937,-6.8966,17.097
-21.927,1.0845,-12.683,-5.8537,-1.9608,-10.939,-6.7961,-4.9191,-6.8608,-5.8537,-1.9608,-10.837,-14.218,-9.5873,-19.778999,0.96618,-10.564,-8.74,2.9841,-11.823,10.399
-20.979,2.9984,-4.878,-3.9024,-0.98039,-5.1133,-7.767,-4.9191,-1.0356,-3.9024,-0.98039,-6.8966,-14.218,-7.6825,-20.726999,3.8647,-9.5974,-0.12759,7.746,-12.808,3.7002
-7.7093,3.9553,5.8537,2.9268,7.8431,3.6246,-5.8252,1.877,1.877,2.9268,7.8431,1.9704,-11.374,-5.7778,-10.3,4.8309,-3.8003,3.7002,8.6984,-6.8966,-1.0845
7.4566,2.9984,12.683,14.634,15.686,11.392,0.0,9.644,-0.06472,14.634,15.686,9.8522,-6.6351,-3.873,3.9179,2.8986,1.9968,3.7002,2.9841,0.98522,-11.611
17.882999,6.8262,14.634,20.488001,22.549,16.246,10.68,12.557,0.90615,20.488001,22.549,16.749001,0.94787,1.8413,17.188,5.7971,8.7601,13.27,-6.5397,8.867,-17.351999
19.778999,11.611,14.634,24.389999,27.451,20.129,21.358999,16.440001,4.7896,24.389999,27.451,22.66,6.6351,5.6508,23.823,9.6618,11.659,11.356,-11.302,12.808,-19.266001
16.934999,16.396,16.584999,29.268,31.372999,20.129,26.214001,18.382,11.586,29.268,31.372999,25.615999,11.374,9.4603,24.771,17.391001,16.49,8.4848,-6.5397,14.778,-16.396
9.3523,19.266001,15.61,30.243999,30.392,16.246,25.243,12.557,12.557,30.243999,30.392,22.66,12.322,12.317,19.084,21.256001,19.388,-7.7831,2.9841,8.867,-7.7831
4.613,19.266001,11.707,28.292999,29.412001,9.4498,22.33,4.7896,9.644,28.292999,29.412001,15.764,14.218,15.175,15.292,22.222,20.354,-14.482,8.6984,0.0,4.6571
0.82148,13.525,5.8537,18.537001,25.49,-0.2589,16.504999,-3.9482,12.557,18.537001,25.49,5.9113,16.114,17.079,12.449,16.424999,15.523,-10.654,10.603,-1.9704,17.097
-2.97,6.8262,-0.97561,12.683,22.549,-7.055,12.621,-2.9773,12.557,12.683,22.549,-1.9704,14.218,13.27,6.7615,5.7971,5.8615,-11.611,9.6508,0.0,23.796
-5.8136,-1.7863,-8.7805,10.732,20.587999,-8.9968,8.7379,-0.06472,8.6731,10.732,20.587999,-4.9261,6.6351,6.6032,-1.7694,-6.7633,-7.6651,-3.9553,2.0317,-1.9704,24.753
-9.6051,-9.4418,-13.659,6.8293,12.745,-8.0259,-1.9417,-0.06472,3.8188,6.8293,12.745,-9.8522,0.0,-1.9683,-7.4566,-15.459,-16.361,-2.0415,0.12698,-0.98522,19.968
-4.8657,-11.356,-12.683,5.8537,10.784,-2.2006,-7.767,1.877,-2.9773,5.8537,10.784,-10.837,-4.7393,-8.6349,-7.4566,-17.391001,-18.292999,5.614,0.12698,-0.98522,15.183
0.82148,-11.356,-12.683,6.8293,6.8627,3.6246,-7.767,6.7314,-3.9482,6.8293,6.8627,-7.8818,-9.4787,-17.205999,-4.613,-20.290001,-19.259001,11.356,4.8889,-2.9557,9.4418
5.5608,-8.4848,-8.7805,9.7561,7.8431,5.5663,-3.8835,11.586,-2.0065,9.7561,7.8431,-1.9704,-11.374,-24.825001,-4.613,-21.256001,-20.225,6.571,9.6508,-2.9557,1.7863
5.5608,-6.571,-6.8293,8.7805,3.9216,13.333,-5.8252,13.528,1.877,8.7805,3.9216,-1.9704,-12.322,-22.921,-6.5087,-15.459,-16.361,1.7863,8.6984,-2.9557,-2.0415
1.7694,-5.614,-8.7805,7.8049,0.0,13.333,-10.68,10.615,-1.0356,7.8049,0.0,-5.9113,-13.27,-12.444,-11.248,-4.8309,-9.5974,5.614,5.8413,-7.8818,-2.9984
2.7172,-1.7863,-3.9024,7.8049,-2.9412,10.421,-11.65,11.586,-2.0065,7.8049,-2.9412,-3.9409,-9.4787,-2.9206,-8.4044,8.6957,0.06441,11.356,-4.6349,-1.9704,-5.8692
5.5608,3.9553,5.8537,9.7561,-0.98039,15.275,-5.8252,15.469,-2.9773,9.7561,-0.98039,3.9409,-5.6872,2.7937,-1.7694,18.357,7.7939,4.6571,-2.7302,-2.9557,-7.7831
12.196,12.568,16.584999,15.61,1.9608,20.129,0.0,19.353001,-2.0065,15.61,1.9608,12.808,2.8436,10.413,8.6572,24.155001,16.49,4.6571,2.0317,0.98522,-7.7831
16.934999,16.396,22.438999,14.634,4.902,18.188,3.8835,19.353001,-2.9773,14.634,4.902,13.793,13.27,15.175,21.927,24.155001,22.287001,13.27,2.0317,13.793,-8.74
16.934999,8.74,18.537001,5.8537,0.98039,11.392,0.97087,14.498,-2.9773,5.8537,0.98039,6.8966,18.009001,13.27,26.667,13.527,19.388,13.27,-4.6349,17.733999,-13.525
12.196,-4.6571,7.8049,-0.97561,-3.9216,4.5955,-3.8835,9.644,-9.7735,-0.97561,-3.9216,0.0,17.062,10.413,20.979,0.0,10.692,10.399,-18.921,15.764,-13.525
4.613,-16.139999,-3.9024,-0.97561,-4.902,-5.1133,-9.7087,9.644,-8.8026,-0.97561,-4.902,-5.9113,14.218,9.4603,10.553,-6.7633,3.9291,2.7432,-17.016001,7.8818,-7.7831
-1.0742,-22.839001,-8.7805,-3.9024,-9.8039,-5.1133,-17.476,9.644,-6.8608,-3.9024,-9.8039,-11.823,9.4787,10.413,0.12638,-7.7295,-0.90177,-4.9123,-5.5873,0.98522,2.7432
-0.12638,-19.011,-5.8537,-7.8049,-11.765,-1.2298,-18.447001,6.7314,-8.8026,-7.8049,-11.765,-14.778,5.6872,9.4603,-3.6651,-5.7971,-1.868,-0.12759,1.0794,0.0,12.313
-0.12638,-9.4418,-3.9024,-15.61,-20.587999,-7.055,-18.447001,0.90615,-10.744,-15.61,-20.587999,-17.733999,4.7393,9.4603,-2.7172,-2.8986,-3.8003,7.5279,2.9841,2.9557,19.011
-1.0742,-0.82935,-3.9024,-19.511999,-21.569,-11.909,-15.534,-4.9191,-10.744,-19.511999,-21.569,-16.749001,2.8436,8.5079,-2.7172,-0.96618,-6.6989,7.5279,9.6508,6.8966,24.753
-11.501,-2.7432,-14.634,-20.488001,-25.49,-16.764,-17.476,-11.715,-12.686,-20.488001,-25.49,-18.719,-9.4787,-1.9683,-14.092,-9.6618,-19.259001,-0.12759,11.556,0.98522,18.054001
-20.032,-8.4848,-29.268,-19.511999,-21.569,-19.676001,-18.447001,-12.686,-10.744,-19.511999,-21.569,-19.704,-20.853001,-15.302,-24.518,-18.357,-29.886999,0.82935,6.7937,-3.9409,4.6571
-21.927,-11.356,-35.122002,-15.61,-17.646999,-19.676001,-13.592,-9.7735,-10.744,-15.61,-17.646999,-16.749001,-20.853001,-23.872999,-24.518,-22.222,-31.82,-4.9123,-2.7302,-1.9704,-9.697
-17.188,-10.399,-24.389999,-7.8049,-8.8235,-15.793,-3.8835,-4.9191,-2.9773,-7.8049,-8.8235,-8.867,-18.009001,-26.73,-19.778999,-24.155001,-27.955,-2.9984,-4.6349,-5.9113,-19.266001
-3.9179,-2.7432,0.0,1.9512,2.9412,0.71197,8.7379,-0.06472,5.7605,1.9512,2.9412,5.9113,-9.4787,-23.872999,-6.5087,-21.256001,-16.361,0.82935,-4.6349,-3.9409,-25.007999
8.4044,6.8262,21.462999,7.8049,11.765,14.304,20.388,0.90615,10.615,7.8049,11.765,18.719,3.7915,-12.444,10.553,-10.628,1.9968,-3.9553,-5.5873,4.9261,-25.007999
10.3,11.611,29.268,1.9512,8.8235,12.362,22.33,-6.8608,12.557,1.9512,8.8235,19.704,13.27,0.88889,21.927,1.9324,16.49,-2.9984,-8.4444,8.867,-19.266001
4.613,16.396,28.292999,-3.9024,4.902,4.5955,21.358999,-10.744,11.586,-3.9024,4.902,15.764,18.957001,9.4603,23.823,10.628,23.253,-1.0845,-5.5873,11.823,-10.654
-0.12638,18.309,21.462999,-5.8537,2.9412,0.71197,19.417,-8.8026,8.6731,-5.8537,2.9412,10.837,19.905001,12.317,17.188,14.493,21.32,-2.0415,0.12698,12.808,-5.8692
-2.97,11.611,6.8293,-6.8293,0.0,-4.1424,13.592,-5.89,6.7314,-6.8293,0.0,3.9409,11.374,11.365,4.8657,10.628,11.659,-3.9553,-4.6349,8.867,-0.12759
-6.7615,2.0415,-7.8049,-7.8049,-2.9412,-9.9676,9.7087,-5.89,3.8188,-7.8049,-2.9412,-2.9557,0.94787,9.4603,-8.4044,3.8647,0.06441,-0.12759,0.12698,-0.98522,9.4418
-13.397,-3.7002,-17.561001,-11.707,-5.8824,-13.851,5.8252,-9.7735,8.6731,-11.707,-5.8824,-8.867,-9.4787,3.746,-20.726999,-0.96618,-12.496,-1.0845,6.7937,-10.837,14.226
-21.927,-6.571,-25.365999,-18.537001,-9.8039,-21.618,0.97087,-15.599,8.6731,-18.537001,-9.8039,-14.778,-20.853001,-4.8254,-30.205,-7.7295,-22.158001,-10.654,7.746,-19.704,15.183
-28.562,-12.313,-34.146,-24.389999,-17.646999,-28.414,-10.68,-19.482,-2.9773,-24.389999,-17.646999,-23.645,-28.436001,-14.349,-35.893002,-15.459,-31.82,-16.396,8.6984,-22.66,11.356
-31.406,-23.796,-38.049,-28.292999,-22.549,-33.269001,-22.33,-21.424,-6.8608,-28.292999,-22.549,-30.542,-33.174999,-23.872999,-36.84,-25.121,-38.583,-24.051001,5.8413,-23.645,7.5279
-26.667,-28.580999,-40.976002,-30.243999,-26.471001,-27.443001,-28.155001,-21.424,-9.7735,-30.243999,-26.471001,-33.498001,-28.436001,-21.016001,-31.153,-28.986,-37.617001,-24.051001,-1.7778,-21.674999,6.571
-21.927,-25.709999,-40.976002,-26.341,-19.608,-20.646999,-21.358999,-19.482,-9.7735,-26.341,-19.608,-28.570999,-18.957001,-18.159,-21.674999,-28.986,-31.82,-11.611,-8.4444,-10.837,1.7863
-15.292,-18.054001,-32.195,-20.488001,-12.745,-16.764,-11.65,-15.599,-10.744,-20.488001,-12.745,-19.704,-11.374,-19.111,-11.248,-28.018999,-25.056,-1.0845,-9.3968,0.0,-9.697
-2.97,-9.4418,-16.584999,-11.707,-2.9412,-7.055,-1.9417,-7.8317,-7.8317,-11.707,-2.9412,-5.9113,-3.7915,-17.205999,0.12638,-21.256001,-16.361,-3.9553,-5.5873,7.8818,-15.439
8.4044,1.0845,3.9024,-7.8049,-0.98039,1.6828,3.8835,-4.9191,-6.8608,-7.8049,-0.98039,3.9409,5.6872,-11.492,12.449,-9.6618,-3.8003,-1.0845,-6.5397,16.749001,-15.439
15.039,15.439,28.292999,-0.97561,4.902,8.479,15.534,-0.06472,-3.9482,-0.97561,4.902,15.764,18.009001,2.7937,23.823,9.6618,16.49,2.7432,-6.5397,22.66,-11.611
12.196,22.136999,33.171001,1.9512,2.9412,8.479,20.388,-1.0356,-0.06472,1.9512,2.9412,20.690001,21.801001,8.5079,22.875,20.290001,26.150999,1.7863,-4.6349,20.690001,-13.525
9.3523,18.309,24.389999,-0.97561,-0.98039,10.421,17.476,-2.0065,0.90615,-0.97561,-0.98039,18.719,20.853001,10.413,16.24,20.290001,24.219,7.5279,-3.6825,18.719,-12.568
9.3523,10.654,14.634,-5.8537,-4.902,7.5081,9.7087,-2.0065,-2.0065,-5.8537,-4.902,10.837,14.218,7.5556,7.7093,11.594,15.523,4.6571,-4.6349,13.793,-13.525
7.4566,2.9984,6.8293,-8.7805,-7.8431,2.6537,1.9417,0.90615,-2.9773,-8.7805,-7.8431,2.9557,1.8957,0.88889,-0.82148,0.0,3.9291,-1.0845,1.0794,5.9113,-11.611
2.7172,-6.571,-0.97561,-9.7561,-13.725,2.6537,-8.7379,3.8188,-3.9482,-9.7561,-13.725,-5.9113,-13.27,-9.5873,-11.248,-11.594,-10.564,-2.9984,3.9365,-0.98522,-7.7831
-0.12638,-12.313,-9.7561,-9.7561,-16.667,1.6828,-15.534,8.6731,-4.9191,-9.7561,-16.667,-10.837,-24.645,-18.159,-19.778999,-18.357,-23.124001,4.6571,2.9841,-7.8818,-4.9123
-3.9179,-17.097,-17.561001,-7.8049,-18.627001,-0.2589,-16.504999,14.498,-7.8317,-7.8049,-18.627001,-11.823,-27.488001,-20.063,-22.622,-19.323999,-26.989,4.6571,2.0317,-19.704,0.82935
-7.7093,-20.924999,-22.438999,-7.8049,-21.569,-2.2006,-18.447001,14.498,-9.7735,-7.8049,-21.569,-13.793,-26.540001,-20.063,-18.830999,-18.357,-25.056,1.7863,2.9841,-24.631001,-1.0845
-10.553,-24.753,-20.488001,-8.7805,-19.608,-3.1715,-20.388,16.440001,-12.686,-8.7805,-19.608,-14.778,-22.749001,-18.159,-14.092,-18.357,-19.259001,-3.9553,1.0794,-21.674999,-4.9123
-11.501,-30.493999,-17.561001,-4.878,-19.608,-2.2006,-27.184,19.353001,-18.511,-4.878,-19.608,-16.749001,-11.374,-8.6349,-9.3523,-19.323999,-13.462,-1.0845,-6.5397,-12.808,-4.9123
-7.7093,-36.236,-10.732,-1.9512,-17.646999,-1.2298,-31.068001,19.353001,-27.249001,-1.9512,-17.646999,-16.749001,0.0,-1.0159,-4.613,-21.256001,-9.5974,15.183,-9.3968,-1.9704,-3.9553
0.82148,-36.236,-2.9268,-0.97561,-23.528999,-0.2589,-36.893002,21.294001,-28.219999,-0.97561,-23.528999,-14.778,6.6351,2.7937,0.12638,-22.222,-8.6312,17.097,-17.968,4.9261,-7.7831
5.5608,-31.451,-5.8537,-1.9512,-21.569,3.6246,-37.863998,18.382,-32.104,-1.9512,-21.569,-13.793,8.5308,1.8413,-0.82148,-22.222,-10.564,7.5279,-23.683001,7.8818,-11.611
1.7694,-28.580999,-21.462999,-2.9268,-19.608,3.6246,-32.039001,8.6731,-32.104,-2.9268,-19.608,-14.778,7.5829,1.8413,-1.7694,-22.222,-11.53,-0.12759,-19.872999,6.8966,-11.611
0.82148,-21.882,-27.316999,-5.8537,-14.706,-4.1424,-20.388,3.8188,-21.424,-5.8537,-14.706,-13.793,7.5829,0.88889,2.0221,-19.323999,-4.7665,8.4848,-16.063,8.867,-10.654
-1.0742,-19.011,-18.537001,-12.683,-16.667,-9.9676,-15.534,-2.9773,-15.599,-12.683,-16.667,-14.778,4.7393,-2.9206,4.8657,-16.424999,1.0306,6.571,-12.254,9.8522,-14.482
-3.9179,-13.27,-7.8049,-14.634,-20.587999,-19.676001,-14.563,-8.8026,-14.628,-14.634,-20.587999,-15.764,0.94787,-6.7302,2.97,-8.6957,5.8615,2.7432,-8.4444,9.8522,-15.439
-10.553,-0.82935,0.97561,-14.634,-20.587999,-20.646999,-13.592,-13.657,-10.744,-14.634,-20.587999,-15.764,-2.8436,-8.6349,-4.613,4.8309,5.8615,-5.8692,-4.6349,6.8966,-8.74
-17.188,10.654,4.878,-16.584999,-15.686,-17.735001,-10.68,-16.57,-1.0356,-16.584999,-15.686,-14.778,-7.5829,-6.7302,-14.092,12.56,1.0306,-17.351999,3.9365,-7.8818,1.7863
-17.188,12.568,1.9512,-16.584999,-14.706,-14.822,-8.7379,-14.628,5.7605,-16.584999,-14.706,-13.793,-9.4787,-1.9683,-17.882999,13.527,-3.8003,-12.568,16.316999,-17.733999,7.5279
-13.397,4.9123,-3.9024,-15.61,-15.686,-17.735001,-8.7379,-11.715,2.8479,-15.61,-15.686,-12.808,-9.4787,-2.9206,-16.934999,4.8309,-9.5974,-10.654,12.508,-13.793,5.614
-13.397,-3.7002,-9.7561,-12.683,-12.745,-9.9676,-8.7379,-7.8317,-0.06472,-12.683,-12.745,-11.823,-7.5829,-3.873,-13.144,-2.8986,-11.53,-24.051001,7.746,-12.808,3.7002
-10.553,-3.7002,-10.732,-9.7561,-11.765,-5.1133,-10.68,-3.9482,-3.9482,-9.7561,-11.765,-11.823,-2.8436,0.88889,-7.4566,1.9324,-5.7327,-13.525,9.6508,-9.8522,6.571
-2.97,2.0415,-5.8537,-8.7805,-10.784,-8.0259,-11.65,2.8479,-5.89,-8.7805,-10.784,-10.837,1.8957,7.5556,0.12638,10.628,3.9291,8.4848,9.6508,-4.9261,11.356
3.6651,2.0415,-3.9024,-8.7805,-13.725,-6.0841,-11.65,6.7314,-7.8317,-8.7805,-13.725,-8.867,0.94787,6.6032,2.97,13.527,5.8615,16.139999,4.8889,-1.9704,10.399
6.5087,-2.7432,-7.8049,-4.878,-9.8039,-3.1715,-10.68,8.6731,-11.715,-4.878,-9.8039,-6.8966,-1.8957,3.746,2.97,9.6618,3.9291,16.139999,-3.6825,-0.98522,5.614
8.4044,-5.614,-7.8049,0.0,-4.902,4.5955,-8.7379,7.7023,-5.89,0.0,-4.902,-3.9409,0.94787,7.5556,4.8657,6.7633,6.8277,6.571,-12.254,0.98522,0.82935
11.248,-4.6571,-0.97561,3.9024,0.98039,11.392,-1.9417,8.6731,-3.9482,3.9024,0.98039,1.9704,3.7915,8.5079,7.7093,3.8647,11.659,5.614,-17.016001,4.9261,-5.8692
9.3523,-6.571,1.9512,0.0,0.0,5.5663,-1.9417,7.7023,-7.8317,0.0,0.0,1.9704,0.0,-1.0159,7.7093,-4.8309,9.7262,7.5279,-17.968,12.808,-13.525
8.4044,-4.6571,4.878,1.9512,3.9216,4.5955,1.9417,3.8188,-4.9191,1.9512,3.9216,3.9409,-1.8957,-7.6825,5.8136,-11.594,5.8615,6.571,-14.159,12.808,-16.396
1.7694,-8.4848,-2.9268,0.97561,1.9608,-5.1133,3.8835,0.90615,-2.9773,0.97561,1.9608,1.9704,-9.4787,-16.254,-0.82148,-22.222,-4.7665,7.5279,-17.016001,5.9113,-20.223
-7.7093,-11.356,-17.561001,-6.8293,-3.9216,-11.909,1.9417,-6.8608,-1.0356,-6.8293,-3.9216,-7.8818,-16.114,-22.921,-9.3523,-24.155001,-14.428,-2.0415,-8.4444,0.98522,-19.266001
-12.449,-5.614,-21.462999,-13.659,-6.8627,-11.909,-0.97087,-14.628,7.7023,-13.659,-6.8627,-13.793,-19.905001,-19.111,-15.039,-14.493,-18.292999,-6.8262,6.7937,-5.9113,-4.9123
-11.501,2.0415,-11.707,-13.659,-5.8824,-12.88,0.0,-14.628,14.498,-13.659,-5.8824,-12.808,-18.009001,-10.54,-16.934999,-1.9324,-16.361,-2.9984,15.365,-14.778,10.399
-7.7093,10.654,-0.97561,-10.732,-5.8824,-9.9676,1.9417,-14.628,15.469,-10.732,-5.8824,-8.867,-10.427,1.8413,-14.092,9.6618,-10.564,-3.9553,15.365,-18.719,17.097
-6.7615,12.568,2.9268,-9.7561,-2.9412,-8.9968,2.9126,-15.599,16.440001,-9.7561,-2.9412,-5.9113,-1.8957,10.413,-9.3523,14.493,-1.868,-11.611,16.316999,-22.66,20.924999
-6.7615,8.74,0.97561,-9.7561,-3.9216,-8.0259,0.0,-15.599,14.498,-9.7561,-3.9216,-5.9113,2.8436,14.222,-5.5608,15.459,5.8615,-15.439,19.174999,-22.66,24.753
-4.8657,1.0845,0.97561,-9.7561,-5.8824,-4.1424,-1.9417,-16.57,9.644,-9.7561,-5.8824,-4.9261,2.8436,9.4603,-0.82148,10.628,10.692,-15.439,14.413,-18.719,19.968
0.82148,-2.7432,3.9024,-4.878,-0.98039,1.6828,0.97087,-11.715,7.7023,-4.878,-0.98039,0.98522,3.7915,3.746,3.9179,2.8986,12.625,-11.611,8.6984,-9.8522,8.4848
4.613,-7.5279,1.9512,0.0,0.98039,3.6246,0.0,-3.9482,2.8479,0.0,0.98039,3.9409,2.8436,-0.06349,4.8657,-5.7971,8.7601,-8.74,2.9841,-0.98522,-0.12759
0.82148,-16.139999,-7.8049,0.97561,2.9412,4.5955,-1.9417,-3.9482,-0.06472,0.97561,2.9412,1.9704,-3.7915,-4.8254,-4.613,-16.424999,-3.8003,-14.482,-1.7778,-0.98522,-4.9123
-3.9179,-18.054001,-15.61,0.97561,0.0,5.5663,-3.8835,-2.0065,2.8479,0.97561,0.0,0.0,-7.5829,-6.7302,-14.092,-21.256001,-16.361,-13.525,-7.4921,-4.9261,-9.697
-4.8657,-10.399,-14.634,-0.97561,0.98039,0.71197,-1.9417,1.877,-0.06472,-0.97561,0.98039,0.0,-8.5308,-8.6349,-15.039,-17.391001,-18.292999,2.7432,-10.349,-0.98522,-13.525
-7.7093,2.0415,-5.8537,-4.878,-2.9412,-4.1424,0.0,-1.0356,-2.0065,-4.878,-2.9412,0.98522,-8.5308,-7.6825,-12.196,-6.7633,-14.428,13.27,-17.968,4.9261,-16.396
-2.0221,18.309,12.683,-1.9512,1.9608,1.6828,8.7379,-0.06472,0.90615,-1.9512,1.9608,9.8522,-2.8436,-1.9683,-2.7172,9.6618,-0.90177,15.183,-12.254,8.867,-13.525
6.5087,28.836,26.341,0.97561,1.9608,7.5081,13.592,1.877,3.8188,0.97561,1.9608,14.778,4.7393,3.746,11.501,25.121,14.557,10.399,-0.8254,14.778,-6.8262
10.3,28.836,24.389999,0.0,2.9412,5.5663,14.563,0.90615,3.8188,0.0,2.9412,11.823,10.427,6.6032,19.084,31.884001,23.253,9.4418,-2.7302,18.719,-2.0415
10.3,20.223,17.561001,-0.97561,2.9412,2.6537,12.621,-2.0065,3.8188,-0.97561,2.9412,8.867,17.062,9.4603,23.823,31.884001,28.084,2.7432,-3.6825,19.704,4.6571
2.7172,10.654,5.8537,0.97561,5.8824,-1.2298,12.621,-3.9482,0.90615,0.97561,5.8824,5.9113,21.801001,17.079,21.927,27.052999,28.084,0.82935,0.12698,13.793,14.226
-6.7615,2.9984,-1.9512,-3.9024,0.98039,-5.1133,5.8252,-6.8608,1.877,-3.9024,0.98039,0.98522,22.749001,23.746,13.397,21.256001,22.287001,-5.8692,6.7937,0.98522,20.924999
-7.7093,0.12759,0.97561,-7.8049,-1.9608,-5.1133,0.97087,-10.744,6.7314,-7.8049,-1.9608,-0.98522,17.062,24.698,4.8657,15.459,17.455999,-10.654,12.508,-12.808,26.667
-3.9179,-3.7002,5.8537,-9.7561,-2.9412,-2.2006,-1.9417,-15.599,10.615,-9.7561,-2.9412,-0.98522,7.5829,21.841,-1.7694,7.7295,9.7262,-16.396,17.27,-19.704,27.624001
2.7172,-5.614,5.8537,-8.7805,-4.902,-1.2298,-4.8544,-15.599,9.644,-8.7805,-4.902,-1.9704,-3.7915,13.27,-3.6651,0.96618,1.9968,-16.396,21.079,-20.690001,22.839001
5.5608,1.0845,7.8049,-0.97561,0.98039,-4.1424,-2.9126,-12.686,11.586,-0.97561,0.98039,1.9704,-13.27,-1.0159,-4.613,0.96618,-1.868,-10.654,18.222,-21.674999,16.139999
6.5087,14.482,8.7805,4.878,7.8431,2.6537,4.8544,-6.8608,15.469,4.878,7.8431,7.8818,-15.166,-10.54,-5.5608,3.8647,-4.7665,-7.7831,20.127001,-27.586,13.27
10.3,24.051001,9.7561,8.7805,14.706,13.333,17.476,-3.9482,17.410999,8.7805,14.706,16.749001,-11.374,-13.397,-1.7694,4.8309,-2.8341,-7.7831,12.508,-21.674999,7.5279
9.3523,24.051001,9.7561,7.8049,13.725,13.333,21.358999,-5.89,23.236,7.8049,13.725,18.719,-1.8957,-4.8254,2.97,2.8986,1.0306,-6.8262,6.7937,-3.9409,2.7432
6.5087,16.396,6.8293,1.9512,7.8431,3.6246,19.417,-10.744,20.323999,1.9512,7.8431,12.808,8.5308,6.6032,6.7615,0.96618,3.9291,-7.7831,7.746,11.823,-2.0415
9.3523,11.611,11.707,-0.97561,2.9412,2.6537,15.534,-7.8317,12.557,-0.97561,2.9412,9.8522,18.957001,13.27,17.188,4.8309,11.659,-0.12759,-0.8254,28.570999,-6.8262
15.987,15.439,23.415001,-0.97561,6.8627,5.5663,15.534,-0.06472,7.7023,-0.97561,6.8627,10.837,32.227001,22.794001,30.458,17.391001,26.150999,14.226,-6.5397,40.394001,-4.9123
12.196,15.439,24.389999,-3.9024,0.98039,-1.2298,11.65,-3.9482,5.7605,-3.9024,0.98039,6.8966,35.070999,19.937,35.196999,24.155001,31.948,18.054001,-3.6825,43.349998,-3.9553
2.7172,12.568,10.732,-9.7561,-5.8824,-14.822,4.8544,-7.8317,4.7896,-9.7561,-5.8824,-3.9409,32.227001,18.983999,29.51,27.052999,30.982,14.226,-0.8254,40.394001,-2.9984
-8.6572,10.654,-9.7561,-13.659,-10.784,-25.502001,-1.9417,-7.8317,3.8188,-13.659,-10.784,-14.778,24.645,18.032,16.24,28.018999,24.219,7.5279,-4.6349,25.615999,-0.12759
-19.084,7.7831,-20.488001,-13.659,-6.8627,-21.618,-1.9417,-9.7735,4.7896,-13.659,-6.8627,-14.778,8.5308,12.317,-4.613,22.222,11.659,-2.0415,1.0794,3.9409,2.7432
-20.979,4.9123,-13.659,-7.8049,-1.9608,-6.0841,1.9417,-5.89,7.7023,-7.8049,-1.9608,-4.9261,-12.322,2.7937,-26.414,8.6957,-6.6989,-2.9984,10.603,-14.778,-2.0415
-16.24,2.0415,0.97561,1.9512,4.902,7.5081,6.7961,-1.0356,12.557,1.9512,4.902,4.9261,-31.280001,-10.54,-41.580002,-5.7971,-24.09,-9.697,8.6984,-22.66,-6.8262
-10.553,1.0845,10.732,8.7805,8.8235,11.392,10.68,2.8479,14.498,8.7805,8.8235,12.808,-38.862999,-19.111,-44.423,-13.527,-32.785999,-14.482,3.9365,-30.542,-9.697
-4.8657,1.0845,9.7561,8.7805,11.765,14.304,13.592,0.90615,9.644,8.7805,11.765,13.793,-28.436001,-17.205999,-30.205,-16.424999,-29.886999,-9.697,0.12698,-27.586,-7.7831
2.7172,1.0845,5.8537,7.8049,10.784,13.333,10.68,-0.06472,5.7605,7.8049,10.784,12.808,-11.374,-10.54,-9.3523,-17.391001,-17.327,-6.8262,-4.6349,-17.733999,-6.8262
13.144,2.0415,11.707,7.8049,6.8627,10.421,6.7961,0.90615,-1.0356,7.8049,6.8627,11.823,5.6872,-1.9683,12.449,-15.459,0.06441,1.7863,-10.349,-7.8818,-6.8262
18.830999,3.9553,17.561001,8.7805,5.8824,12.362,4.8544,2.8479,-1.0356,8.7805,5.8824,12.808,19.905001,7.5556,28.562,-8.6957,14.557,9.4418,-5.5873,2.9557,-1.0845
16.934999,2.0415,10.732,9.7561,7.8431,12.362,2.9126,3.8188,-3.9482,9.7561,7.8431,11.823,21.801001,11.365,31.406,-1.9324,19.388,8.4848,-0.8254,4.9261,4.6571
15.987,0.12759,4.878,10.732,10.784,15.275,3.8835,6.7314,-0.06472,10.732,10.784,10.837,19.905001,12.317,33.301998,3.8647,24.219,6.571,6.7937,7.8818,6.571
18.830999,2.0415,9.7561,10.732,8.8235,18.188,5.8252,10.615,6.7314,10.732,8.8235,11.823,23.697001,14.222,37.092999,14.493,31.948,12.313,13.46,15.764,5.614
22.622,8.74,20.488001,11.707,9.8039,18.188,10.68,11.586,7.7023,11.707,9.8039,14.778,26.540001,14.222,38.988998,23.188,38.712002,13.27,6.7937,21.674999,4.6571
23.57,17.351999,30.243999,13.659,11.765,18.188,17.476,15.469,7.7023,13.659,11.765,18.719,26.540001,12.317,37.092999,28.018999,38.712002,8.4848,4.8889,26.601,1.7863
19.778999,21.18,27.316999,14.634,12.745,16.246,20.388,19.353001,7.7023,14.634,12.745,18.719,24.645,10.413,29.51,27.052999,30.982,16.139999,2.0317,31.527,0.82935
7.4566,12.568,3.9024,10.732,1.9608,11.392,8.7379,16.440001,-5.89,10.732,1.9608,6.8966,13.27,0.88889,13.397,15.459,10.692,18.054001,-2.7302,19.704,-2.9984
-6.7615,-3.7002,-19.511999,4.878,-2.9412,1.6828,-2.9126,11.586,-10.744,4.878,-2.9412,-6.8966,-1.8957,-9.5873,-5.5608,-1.9324,-12.496,14.226,-1.7778,4.9261,-5.8692
-13.397,-11.356,-23.415001,0.97561,-3.9216,-4.1424,-4.8544,8.6731,-12.686,0.97561,-3.9216,-7.8818,-10.427,-12.444,-20.726999,-13.527,-27.955,2.7432,-5.5873,-0.98522,-3.9553
-15.292,-4.6571,-5.8537,3.9024,0.98039,-3.1715,3.8835,6.7314,-6.8608,3.9024,0.98039,1.9704,-19.905001,-16.254,-32.101002,-17.391001,-33.751999,-4.9123,-0.8254,-9.8522,0.82935
-15.292,3.9553,13.659,3.9024,1.9608,-3.1715,6.7961,2.8479,-3.9482,3.9024,1.9608,8.867,-24.645,-17.205999,-35.893002,-16.424999,-30.853001,-6.8262,2.0317,-15.764,1.7863
-12.449,9.697,19.511999,7.8049,4.902,1.6828,6.7961,5.7605,-3.9482,7.8049,4.902,11.823,-23.697001,-14.349,-30.205,-11.594,-22.158001,-6.8262,1.0794,-18.719,2.7432
-8.6572,11.611,14.634,9.7561,4.902,2.6537,4.8544,10.615,-4.9191,9.7561,4.902,11.823,-19.905001,-8.6349,-21.674999,-4.8309,-14.428,-9.697,-3.6825,-18.719,4.6571
-1.0742,12.568,15.61,10.732,4.902,6.5372,3.8835,12.557,-5.89,10.732,4.902,11.823,-9.4787,3.746,-7.4566,6.7633,1.9968,1.7863,-8.4444,-12.808,2.7432
10.3,12.568,21.462999,13.659,8.8235,12.362,6.7961,12.557,-6.8608,13.659,8.8235,13.793,0.0,10.413,8.6572,16.424999,19.388,11.356,-5.5873,-4.9261,-3.9553
15.987,7.7831,21.462999,6.8293,6.8627,9.4498,4.8544,7.7023,-8.8026,6.8293,6.8627,11.823,0.94787,5.6508,16.24,15.459,24.219,4.6571,-3.6825,0.0,-9.697
19.778999,5.8692,18.537001,4.878,7.8431,10.421,7.767,4.7896,-4.9191,4.878,7.8431,11.823,0.94787,-1.0159,22.875,11.594,24.219,1.7863,2.0317,6.8966,-7.7831
19.778999,2.0415,8.7805,1.9512,2.9412,5.5663,5.8252,4.7896,3.8188,1.9512,2.9412,7.8818,4.7393,-4.8254,27.615,4.8309,20.354,12.313,-0.8254,7.8818,-4.9123
14.092,-4.6571,-4.878,1.9512,0.98039,-0.2589,2.9126,1.877,3.8188,1.9512,0.98039,1.9704,4.7393,-8.6349,24.771,-3.8647,12.625,16.139999,5.8413,6.8966,-2.9984
2.7172,-8.4848,-18.537001,-1.9512,-3.9216,-8.0259,0.0,-0.06472,1.877,-1.9512,-3.9216,-6.8966,0.0,-9.5873,12.449,-8.6957,0.06441,-0.12759,9.6508,4.9261,-1.0845
-9.6051,-12.313,-24.389999,-9.7561,-6.8627,-14.822,-5.8252,-3.9482,-1.0356,-9.7561,-6.8627,-14.778,-4.7393,-6.7302,-5.5608,-11.594,-14.428,-5.8692,3.9365,0.0,2.7432
-17.188,-12.313,-24.389999,-11.707,-10.784,-12.88,-13.592,-3.9482,-3.9482,-11.707,-10.784,-19.704,-5.6872,0.88889,-16.934999,-10.628,-25.056,-0.12759,8.6984,0.98522,9.4418
-24.771,-18.054001,-30.243999,-15.61,-13.725,-19.676001,-23.301001,-9.7735,-9.7735,-15.61,-13.725,-26.601,-15.166,-4.8254,-31.153,-18.357,-39.549,-2.9984,5.8413,-4.9261,9.4418
-27.615,-19.011,-30.243999,-16.584999,-19.608,-26.472,-26.214001,-14.628,-14.628,-16.584999,-19.608,-27.586,-19.905001,-8.6349,-34.945,-21.256001,-42.448002,-16.396,2.9841,-8.867,8.4848
-22.875,-12.313,-19.511999,-9.7561,-11.765,-20.646999,-17.476,-10.744,-17.540001,-9.7561,-11.765,-19.704,-13.27,-5.7778,-28.309999,-16.424999,-30.853001,-11.611,2.0317,-4.9261,4.6571
-18.136,-9.4418,-12.683,-9.7561,-11.765,-13.851,-13.592,-9.7735,-11.715,-9.7561,-11.765,-14.778,-2.8436,-1.9683,-15.039,-11.594,-16.361,-2.9984,-3.6825,0.98522,-0.12759
-3.9179,-6.571,-6.8293,1.9512,-0.98039,-4.1424,-6.7961,-3.9482,-5.89,1.9512,-0.98039,-3.9409,12.322,7.5556,5.8136,-3.8647,4.8953,-6.8262,-6.5397,7.8818,1.7863
12.196,-1.7863,2.9268,10.732,7.8431,10.421,1.9417,5.7605,-4.9191,10.732,7.8431,8.867,20.853001,8.5079,24.771,3.8647,24.219,-6.8262,-3.6825,12.808,-0.12759
24.518,4.9123,20.488001,17.561001,13.725,21.1,9.7087,13.528,-1.0356,17.561001,13.725,19.704,19.905001,4.6984,35.196999,9.6618,38.712002,-3.9553,-0.8254,6.8966,-2.0415
30.205,9.697,30.243999,23.415001,18.627001,26.926001,13.592,18.382,1.877,23.415001,18.627001,23.645,18.009001,-0.06349,38.041,14.493,42.576,15.183,-3.6825,4.9261,-6.8262
26.414,14.482,26.341,21.462999,15.686,25.955,14.563,19.353001,3.8188,21.462999,15.686,21.674999,12.322,-4.8254,31.406,18.357,35.813,22.839001,-3.6825,7.8818,-8.74
18.830999,17.351999,15.61,14.634,12.745,18.188,15.534,12.557,2.8479,14.634,12.745,16.749001,4.7393,-8.6349,20.032,20.290001,21.32,15.183,-3.6825,6.8966,-8.74
7.4566,15.439,0.0,11.707,13.725,11.392,16.504999,8.6731,5.7605,11.707,13.725,11.823,-7.5829,-13.397,3.9179,13.527,2.963,9.4418,1.0794,2.9557,-11.611
-6.7615,7.7831,-14.634,5.8537,10.784,-1.2298,9.7087,0.90615,9.644,5.8537,10.784,2.9557,-18.009001,-9.5873,-13.144,5.7971,-13.462,-2.0415,-1.7778,-3.9409,-7.7831
-18.136,1.0845,-20.488001,-0.97561,1.9608,-12.88,1.9417,-7.8317,9.644,-0.97561,1.9608,-6.8966,-16.114,3.746,-23.57,2.8986,-21.191999,-11.611,5.8413,-7.8818,6.571
-26.667,-2.7432,-21.462999,-8.7805,-0.98039,-17.735001,0.0,-12.686,13.528,-8.7805,-0.98039,-12.808,-12.322,13.27,-33.049,0.0,-25.056,-13.525,14.413,-9.8522,15.183
-29.51,-6.571,-17.561001,-12.683,-5.8824,-19.676001,-1.9417,-17.540001,15.469,-12.683,-5.8824,-11.823,-11.374,15.175,-38.736,-5.7971,-26.989,-13.525,10.603,-13.793,18.054001
-21.927,-8.4848,-4.878,-11.707,-4.902,-16.764,-0.97087,-17.540001,10.615,-11.707,-4.902,-6.8966,-10.427,16.127001,-33.997002,-8.6957,-21.191999,-24.051001,5.8413,-15.764,20.924999
-14.344,-9.4418,4.878,-15.61,-10.784,-12.88,-4.8544,-16.57,3.8188,-15.61,-10.784,-6.8966,-5.6872,14.222,-20.726999,-11.594,-11.53,-20.223,2.0317,-12.808,16.139999
-6.7615,-5.614,10.732,-15.61,-12.745,-10.939,-7.767,-15.599,-1.0356,-15.61,-12.745,-5.9113,1.8957,11.365,-8.4044,-9.6618,-1.868,-8.74,1.0794,-8.867,12.313
1.7694,0.12759,13.659,-11.707,-12.745,-2.2006,-6.7961,-15.599,-2.9773,-11.707,-12.745,-1.9704,7.5829,8.5079,3.9179,-2.8986,4.8953,-11.611,3.9365,-1.9704,10.399
10.3,2.9984,13.659,-2.9268,-2.9412,7.5081,-1.9417,-6.8608,-3.9482,-2.9268,-2.9412,5.9113,11.374,5.6508,13.397,4.8309,12.625,-5.8692,9.6508,-6.8966,7.5279
16.934999,2.9984,11.707,4.878,5.8824,12.362,0.97087,0.90615,1.877,4.878,5.8824,8.867,14.218,4.6984,20.979,10.628,17.455999,3.7002,4.8889,-4.9261,2.7432
19.778999,4.9123,14.634,5.8537,8.8235,16.246,2.9126,1.877,3.8188,5.8537,8.8235,10.837,13.27,3.746,23.823,13.527,20.354,0.82935,-5.5873,3.9409,1.7863
16.934999,4.9123,13.659,1.9512,3.9216,11.392,2.9126,0.90615,0.90615,1.9512,3.9216,7.8818,5.6872,-0.06349,19.084,10.628,16.49,1.7863,-5.5873,0.0,-2.9984
17.882999,1.0845,9.7561,3.9024,3.9216,10.421,4.8544,4.7896,0.90615,3.9024,3.9216,6.8966,0.94787,-4.8254,17.188,2.8986,10.692,12.313,0.12698,4.9261,-11.611
15.039,-5.614,3.9024,3.9024,3.9216,11.392,4.8544,8.6731,-2.0065,3.9024,3.9216,4.9261,0.0,-7.6825,12.449,-7.7295,1.9968,16.139999,-3.6825,9.8522,-16.396
8.4044,-9.4418,-2.9268,0.97561,0.98039,3.6246,2.9126,9.644,-3.9482,0.97561,0.98039,0.98522,5.6872,-0.06349,4.8657,-10.628,-6.6989,17.097,-9.3968,16.749001,-12.568
0.82148,-6.571,-5.8537,-4.878,-0.98039,-0.2589,0.97087,1.877,-3.9482,-4.878,-0.98039,-4.9261,10.427,9.4603,-2.7172,-6.7633,-11.53,8.4848,-7.4921,18.719,-5.8692
-9.6051,-6.571,-9.7561,-10.732,-8.8235,-8.0259,-6.7961,-7.8317,-7.8317,-10.732,-8.8235,-12.808,5.6872,9.4603,-15.039,-6.7633,-18.292999,-0.12759,-8.4444,10.837,-1.0845
-16.24,-15.183,-16.584999,-14.634,-11.765,-20.646999,-15.534,-13.657,-6.8608,-14.634,-11.765,-20.690001,-0.94787,4.6984,-22.622,-10.628,-25.056,-11.611,-6.5397,0.98522,1.7863
-19.084,-25.709999,-28.292999,-20.488001,-16.667,-24.531,-24.271999,-15.599,-5.89,-20.488001,-16.667,-30.542,-0.94787,2.7937,-18.830999,-14.493,-26.023001,-9.697,-11.302,0.98522,-0.12759
-20.032,-34.321999,-38.049,-23.415001,-22.549,-34.238998,-35.922001,-20.452999,-13.657,-23.415001,-22.549,-42.365002,3.7915,5.6508,-9.3523,-16.424999,-18.292999,4.6571,-11.302,7.8818,-2.9984
-16.24,-31.451,-34.146,-26.341,-29.412001,-35.209999,-39.806,-20.452999,-17.540001,-26.341,-29.412001,-44.334999,12.322,8.5079,4.8657,-10.628,-3.8003,4.6571,-7.4921,18.719,-0.12759
-11.501,-19.011,-23.415001,-22.438999,-22.549,-26.472,-31.068001,-16.57,-16.57,-22.438999,-22.549,-32.512001,15.166,10.413,8.6572,-1.9324,7.7939,1.7863,-4.6349,11.823,6.571
-7.7093,-6.571,-8.7805,-7.8049,-7.8431,-9.9676,-15.534,-2.9773,-6.8608,-7.8049,-7.8431,-12.808,14.218,10.413,7.7093,4.8309,13.591,3.7002,-6.5397,1.9704,8.4848
-7.7093,-1.7863,2.9268,6.8293,6.8627,6.5372,-1.9417,5.7605,1.877,6.8293,6.8627,3.9409,2.8436,2.7937,2.0221,2.8986,11.659,1.7863,-1.7778,-7.8818,8.4848
-9.6051,-4.6571,0.97561,14.634,12.745,10.421,1.9417,4.7896,5.7605,14.634,12.745,8.867,-15.166,-14.349,-9.3523,-5.7971,-1.868,-3.9553,0.12698,-19.704,4.6571
-12.449,-14.226,-16.584999,10.732,8.8235,5.5663,0.0,3.8188,0.90615,10.732,8.8235,2.9557,-28.436001,-31.492001,-21.674999,-19.323999,-23.124001,-17.351999,0.12698,-25.615999,-2.9984
-5.8136,-11.356,-23.415001,13.659,11.765,5.5663,5.8252,7.7023,8.6731,13.659,11.765,4.9261,-25.591999,-32.444,-20.726999,-21.256001,-29.886999,-17.351999,1.0794,-19.704,-6.8262
2.7172,1.0845,-8.7805,18.537001,20.587999,11.392,16.504999,8.6731,17.410999,18.537001,20.587999,14.778,-13.27,-20.063,-9.3523,-14.493,-20.225,-4.9123,5.8413,-8.867,-7.7831
9.3523,10.654,12.683,17.561001,21.569,19.159,23.301001,6.7314,12.557,17.561001,21.569,21.674999,-0.94787,-8.6349,0.12638,-6.7633,-7.6651,5.614,3.9365,2.9557,-9.697
11.248,12.568,22.438999,12.683,16.667,19.159,20.388,3.8188,7.7023,12.683,16.667,22.66,1.8957,-4.8254,2.0221,-3.8647,-2.8341,7.5279,-2.7302,6.8966,-16.396
10.3,12.568,21.462999,10.732,14.706,10.421,13.592,6.7314,0.90615,10.732,14.706,17.733999,0.94787,-1.0159,1.0742,-0.96618,-0.90177,14.226,-5.5873,7.8818,-17.351999
8.4044,13.525,14.634,7.8049,6.8627,2.6537,6.7961,9.644,-3.9482,7.8049,6.8627,6.8966,6.6351,7.5556,3.9179,4.8309,3.9291,13.27,-8.4444,10.837,-11.611
4.613,9.697,6.8293,0.0,-3.9216,-3.1715,-3.8835,7.7023,-10.744,0.0,-3.9216,-6.8966,10.427,15.175,6.7615,8.6957,6.8277,9.4418,-7.4921,18.719,0.82935
2.7172,4.9123,4.878,-3.9024,-10.784,-7.055,-9.7087,6.7314,-21.424,-3.9024,-10.784,-13.793,12.322,18.983999,11.501,16.424999,11.659,6.571,-14.159,13.793,10.399
3.6651,2.0415,6.8293,-2.9268,-10.784,-7.055,-10.68,7.7023,-19.482,-2.9268,-10.784,-12.808,12.322,16.127001,15.292,20.290001,17.455999,6.571,-12.254,6.8966,14.226
2.7172,-1.7863,2.9268,-2.9268,-11.765,-6.0841,-14.563,11.586,-18.511,-2.9268,-11.765,-13.793,8.5308,13.27,16.24,19.323999,20.354,6.571,-5.5873,4.9261,13.27
-0.12638,-5.614,-7.8049,-1.9512,-7.8431,-8.9968,-16.504999,12.557,-19.482,-1.9512,-7.8431,-14.778,2.8436,7.5556,11.501,14.493,17.455999,-0.12759,-6.5397,0.0,12.313
-3.9179,-11.356,-20.488001,0.97561,-6.8627,-3.1715,-16.504999,15.469,-16.57,0.97561,-6.8627,-15.764,-9.4787,-4.8254,-0.82148,2.8986,6.8277,-7.7831,-5.5873,-9.8522,5.614
-4.8657,-17.097,-28.292999,7.8049,1.9608,5.5663,-11.65,14.498,-11.715,7.8049,1.9608,-11.823,-18.957001,-13.397,-12.196,-8.6957,-2.8341,-0.12759,-6.5397,-16.749001,-1.0845
-7.7093,-18.054001,-33.171001,14.634,8.8235,5.5663,-3.8835,16.440001,-2.9773,14.634,8.8235,-5.9113,-22.749001,-19.111,-20.726999,-18.357,-12.496,-0.12759,-8.4444,-19.704,-6.8262
-6.7615,-16.139999,-27.316999,23.415001,22.549,12.362,11.65,22.264999,8.6731,23.415001,22.549,7.8818,-21.801001,-23.872999,-22.622,-26.087,-20.225,0.82935,-3.6825,-18.719,-11.611
-1.0742,-7.5279,-9.7561,27.316999,28.431,19.159,23.301001,19.353001,19.353001,27.316999,28.431,21.674999,-23.697001,-28.635,-19.778999,-29.952,-27.955,-2.0415,8.6984,-18.719,-15.439
10.3,6.8262,12.683,26.341,28.431,23.042,29.125999,14.498,23.236,26.341,28.431,27.586,-21.801001,-27.683001,-11.248,-23.188,-24.09,-5.8692,12.508,-15.764,-16.396
21.674999,20.223,31.219999,22.438999,25.49,24.013,30.097,12.557,26.149,22.438999,25.49,30.542,-7.5829,-15.302,5.8136,-8.6957,-6.6989,4.6571,5.8413,-1.9704,-18.309
28.309999,28.836,41.951,16.584999,18.627001,22.070999,29.125999,11.586,25.177999,16.584999,18.627001,28.570999,11.374,4.6984,24.771,12.56,19.388,8.4848,9.6508,11.823,-15.439
28.309999,29.792999,43.902,8.7805,10.784,17.216999,24.271999,5.7605,15.469,8.7805,10.784,23.645,27.488001,23.746,36.145,30.917999,39.678001,3.7002,11.556,18.719,-8.74
21.674999,24.051001,34.146,1.9512,0.98039,9.4498,13.592,-1.0356,7.7023,1.9512,0.98039,11.823,35.070999,32.317001,39.937,39.613998,47.407001,1.7863,6.7937,26.601,-0.12759
8.4044,12.568,12.683,-9.7561,-7.8431,-8.0259,-2.9126,-11.715,-5.89,-9.7561,-7.8431,-7.8818,33.174999,33.27,34.25,37.681,41.610001,6.571,2.9841,30.542,9.4418
-4.8657,1.0845,-9.7561,-22.438999,-24.51,-25.502001,-20.388,-18.511,-14.628,-22.438999,-24.51,-27.586,25.591999,29.459999,22.875,29.952,27.118,1.7863,-2.7302,25.615999,15.183
-10.553,-7.5279,-21.462999,-28.292999,-26.471001,-33.269001,-25.243,-19.482,-23.365999,-28.292999,-26.471001,-33.498001,18.009001,21.841,13.397,17.391001,14.557,1.7863,-1.7778,24.631001,16.139999
-13.397,-17.097,-25.365999,-24.389999,-25.49,-32.298,-29.125999,-17.540001,-19.482,-24.389999,-25.49,-33.498001,5.6872,8.5079,2.0221,2.8986,1.9968,4.6571,-0.8254,16.749001,12.313
-14.344,-20.924999,-23.415001,-18.537001,-19.608,-22.589001,-29.125999,-9.7735,-15.599,-18.537001,-19.608,-27.586,-6.6351,-5.7778,-8.4044,-8.6957,-9.5974,1.7863,-5.5873,6.8966,10.399
-16.24,-23.796,-21.462999,-12.683,-16.667,-16.764,-28.155001,-2.9773,-16.57,-12.683,-16.667,-21.674999,-18.009001,-15.302,-19.778999,-18.357,-22.158001,-3.9553,-3.6825,-3.9409,11.356
-19.084,-24.753,-18.537001,-2.9268,-8.8235,-10.939,-23.301001,-0.06472,-14.628,-2.9268,-8.8235,-14.778,-29.384001,-24.825001,-34.945,-25.121,-35.683998,-7.7831,-5.5873,-15.764,8.4848
-14.344,-14.226,-3.9024,8.7805,2.9412,2.6537,-7.767,4.7896,-7.8317,8.7805,2.9412,3.9409,-32.227001,-26.73,-45.370998,-22.222,-42.448002,-2.9984,-4.6349,-22.66,6.571
-5.8136,2.9984,15.61,24.389999,22.549,16.246,14.563,11.586,-0.06472,24.389999,22.549,24.631001,-27.488001,-15.302,-42.528,-10.628,-32.785999,-5.8692,8.6984,-36.452999,11.356
3.6651,18.309,32.195,31.219999,30.392,28.867001,28.155001,15.469,3.8188,31.219999,30.392,37.438,-14.218,-1.0159,-24.518,3.8647,-10.564,-5.8692,11.556,-43.349998,14.226
9.3523,24.051001,39.023998,28.292999,26.471001,28.867001,30.097,14.498,11.586,28.292999,26.471001,37.438,1.8957,13.27,-2.7172,14.493,11.659,-9.697,5.8413,-33.498001,12.313
17.882999,24.051001,40.0,24.389999,25.49,26.926001,27.184,11.586,17.410999,24.389999,25.49,35.467999,23.697001,28.507999,19.084,21.256001,30.982,-11.611,6.7937,-13.793,8.4848
23.57,22.136999,36.098,21.462999,25.49,21.1,24.271999,7.7023,17.410999,21.462999,25.49,29.556999,38.862999,34.222,36.145,25.121,43.542999,-2.9984,4.8889,4.9261,1.7863
26.414,22.136999,30.243999,15.61,21.569,14.304,22.33,4.7896,19.353001,15.61,21.569,21.674999,41.706001,35.174999,43.728001,27.052999,48.374001,9.4418,6.7937,17.733999,-2.0415
24.518,14.482,20.488001,8.7805,14.706,9.4498,15.534,1.877,16.440001,8.7805,14.706,13.793,38.862999,30.413,43.728001,22.222,43.542999,10.399,5.8413,28.570999,-4.9123
18.830999,2.0415,7.8049,2.9268,6.8627,0.71197,6.7961,-1.0356,13.528,2.9268,6.8627,3.9409,30.332001,18.032,37.092999,10.628,30.982,10.399,3.9365,35.467999,-9.697
10.3,-8.4848,-8.7805,-1.9512,0.0,-10.939,-3.8835,-5.89,7.7023,-1.9512,0.0,-7.8818,20.853001,6.6032,26.667,-1.9324,14.557,10.399,1.0794,33.498001,-10.654
-2.97,-19.968,-25.365999,-12.683,-9.8039,-20.646999,-17.476,-14.628,-0.06472,-12.683,-9.8039,-22.66,5.6872,-8.6349,7.7093,-14.493,-5.7327,7.5279,-1.7778,24.631001,-6.8262
-14.344,-24.753,-35.122002,-22.438999,-17.646999,-27.443001,-24.271999,-20.452999,-8.8026,-22.438999,-17.646999,-32.512001,-12.322,-21.016001,-10.3,-22.222,-23.124001,-4.9123,-6.5397,12.808,-2.0415
-19.084,-27.624001,-40.976002,-18.537001,-11.765,-27.443001,-25.243,-20.452999,-4.9191,-18.537001,-11.765,-32.512001,-19.905001,-24.825001,-22.622,-25.121,-35.683998,-10.654,-5.5873,8.867,4.6571
-22.875,-23.796,-42.926998,-9.7561,-5.8824,-19.676001,-20.388,-14.628,2.8479,-9.7561,-5.8824,-24.631001,-23.697001,-25.778,-31.153,-26.087,-43.414001,-5.8692,4.8889,-3.9409,7.5279
-18.136,-7.5279,-26.341,2.9268,7.8431,-7.055,-3.8835,-4.9191,6.7314,2.9268,7.8431,-4.9261,-22.749001,-16.254,-32.101002,-21.256001,-41.480999,-6.8262,9.6508,-17.733999,12.313
-8.6572,0.12759,-3.9024,12.683,15.686,6.5372,8.7379,1.877,8.6731,12.683,15.686,12.808,-25.591999,-15.302,-32.101002,-22.222,-37.617001,-15.439,12.508,-28.570999,9.4418
4.613,6.8262,17.561001,23.415001,25.49,22.070999,19.417,9.644,16.440001,23.415001,25.49,25.615999,-26.540001,-13.397,-28.309999,-16.424999,-27.955,-16.396,14.413,-34.483002,6.571
18.830999,22.136999,32.195,30.243999,32.353001,29.837999,27.184,20.323999,22.264999,30.243999,32.353001,34.483002,-16.114,-1.0159,-15.039,0.96618,-9.5974,2.7432,7.746,-27.586,5.614
27.362,31.707001,40.0,31.219999,33.333,30.809,31.068001,26.149,18.382,31.219999,33.333,36.452999,-1.8957,9.4603,2.97,16.424999,11.659,8.4848,5.8413,-15.764,2.7432
28.309999,33.619999,37.073002,24.389999,22.549,31.780001,28.155001,24.207001,8.6731,24.389999,22.549,32.512001,10.427,13.27,18.136,25.121,27.118,9.4418,3.9365,-7.8818,-2.0415
24.518,31.707001,32.195,23.415001,19.608,27.896,24.271999,24.207001,10.615,23.415001,19.608,27.586,24.645,20.889,27.615,31.884001,40.644001,16.139999,4.8889,-0.98522,-2.9984
15.987,26.922001,28.292999,24.389999,21.569,23.042,21.358999,23.236,10.615,24.389999,21.569,23.645,25.591999,22.794001,25.719,30.917999,41.610001,11.356,0.12698,0.0,-4.9123
10.3,19.266001,21.462999,23.415001,22.549,19.159,19.417,25.177999,4.7896,23.415001,22.549,19.704,18.009001,16.127001,20.032,23.188,31.948,15.183,-10.349,4.9261,-11.611
4.613,3.9553,8.7805,18.537001,12.745,13.333,10.68,23.236,1.877,18.537001,12.745,12.808,8.5308,5.6508,12.449,9.6618,16.49,22.839001,-4.6349,11.823,-15.439
-1.0742,-14.226,-8.7805,7.8049,0.0,4.5955,-0.97087,16.440001,-4.9191,7.8049,0.0,0.0,-1.8957,-7.6825,2.97,-6.7633,-0.90177,9.4418,1.0794,6.8966,-17.351999
-6.7615,-19.011,-19.511999,-0.97561,-2.9412,-8.9968,-7.767,7.7023,-3.9482,-0.97561,-2.9412,-9.8522,-10.427,-21.968,-4.613,-16.424999,-13.462,3.7002,-2.7302,3.9409,-19.266001
-10.553,-13.27,-20.488001,-7.8049,-6.8627,-17.735001,-8.7379,0.90615,-2.0065,-7.8049,-6.8627,-14.778,-13.27,-27.683001,-10.3,-18.357,-20.225,8.4848,-3.6825,5.9113,-15.439
-17.188,-6.571,-17.561001,-9.7561,-8.8235,-19.676001,-8.7379,-4.9191,-2.9773,-9.7561,-8.8235,-14.778,-16.114,-28.635,-18.830999,-20.290001,-26.023001,4.6571,-1.7778,0.0,-12.568
-22.875,-1.7863,-13.659,-5.8537,-11.765,-13.851,-10.68,-7.8317,0.90615,-5.8537,-11.765,-11.823,-17.062,-20.063,-24.518,-19.323999,-27.955,-5.8692,8.6984,-7.8818,-8.74
-20.032,1.0845,-11.707,-1.9512,-6.8627,-6.0841,-8.7379,-5.89,0.90615,-1.9512,-6.8627,-6.8966,-15.166,-11.492,-24.518,-16.424999,-26.023001,-9.697,10.603,-10.837,-4.9123
-13.397,0.12759,-12.683,-0.97561,-4.902,-1.2298,-5.8252,-2.9773,-1.0356,-0.97561,-4.902,-2.9557,-15.166,-8.6349,-20.726999,-12.56,-23.124001,-21.18,4.8889,-13.793,-1.0845
-6.7615,2.0415,-6.8293,0.97561,0.98039,2.6537,-1.9417,-2.0065,-2.0065,0.97561,0.98039,1.9704,-13.27,-3.873,-14.092,-3.8647,-13.462,-15.439,0.12698,-13.793,3.7002
-0.12638,7.7831,0.97561,3.9024,1.9608,8.479,1.9417,-0.06472,-0.06472,3.9024,1.9608,3.9409,-2.8436,4.6984,-2.7172,8.6957,3.9291,-6.8262,-0.8254,-7.8818,7.5279
3.6651,12.568,5.8537,3.9024,1.9608,-1.2298,2.9126,1.877,-0.06472,3.9024,1.9608,1.9704,6.6351,9.4603,9.6051,20.290001,19.388,-1.0845,1.0794,0.98522,9.4418
7.4566,11.611,11.707,-0.97561,-2.9412,-8.0259,1.9417,2.8479,-3.9482,-0.97561,-2.9412,0.0,9.4787,8.5079,17.188,23.188,27.118,4.6571,3.9365,8.867,8.4848
5.5608,5.8692,9.7561,-3.9024,-5.8824,-4.1424,0.0,0.90615,-1.0356,-3.9024,-5.8824,-1.9704,9.4787,6.6032,16.24,17.391001,22.287001,2.7432,5.8413,6.8966,5.614
-0.12638,2.0415,1.9512,-3.9024,-3.9216,-2.2006,0.0,-0.06472,-0.06472,-3.9024,-3.9216,-0.98522,7.5829,1.8413,7.7093,7.7295,11.659,3.7002,-0.8254,-0.98522,3.7002
-1.0742,2.0415,0.0,2.9268,0.98039,5.5663,3.8835,3.8188,-2.0065,2.9268,0.98039,5.9113,7.5829,0.88889,1.0742,1.9324,3.9291,7.5279,-4.6349,-2.9557,2.7432
1.7694,-3.7002,0.97561,12.683,7.8431,14.304,5.8252,11.586,-2.9773,12.683,7.8431,11.823,3.7915,-1.9683,-5.5608,-6.7633,-5.7327,9.4418,-4.6349,-3.9409,-0.12759
5.5608,-12.313,-1.9512,16.584999,5.8824,17.216999,1.9417,18.382,-4.9191,16.584999,5.8824,11.823,-2.8436,-5.7778,-9.3523,-16.424999,-15.395,4.6571,-9.3968,-4.9261,-2.9984
7.4566,-13.27,-5.8537,10.732,0.98039,13.333,-3.8835,12.557,-5.89,10.732,0.98039,6.8966,-7.5829,-8.6349,-10.3,-19.323999,-20.225,2.7432,-9.3968,-3.9409,-2.0415
7.4566,-9.4418,-5.8537,2.9268,-3.9216,7.5081,-8.7379,4.7896,-6.8608,2.9268,-3.9216,0.0,-9.4787,-6.7302,-8.4044,-15.459,-18.292999,3.7002,-0.8254,-5.9113,1.7863
5.5608,-1.7863,-3.9024,-3.9024,-6.8627,1.6828,-10.68,-2.9773,-11.715,-3.9024,-6.8627,-4.9261,-8.5308,-2.9206,-3.6651,-6.7633,-9.5974,4.6571,-2.7302,-4.9261,4.6571
3.6651,1.0845,-4.878,-9.7561,-12.745,-4.1424,-13.592,-8.8026,-13.657,-9.7561,-12.745,-7.8818,-2.8436,3.746,2.97,1.9324,-0.90177,4.6571,-1.7778,1.9704,4.6571
2.7172,0.12759,-3.9024,-8.7805,-10.784,-4.1424,-9.7087,-9.7735,-4.9191,-8.7805,-10.784,-6.8966,0.0,4.6984,6.7615,3.8647,2.963,-2.9984,2.9841,5.9113,5.614
-0.12638,-0.82935,-5.8537,-8.7805,-10.784,-8.0259,-5.8252,-13.657,-2.0065,-8.7805,-10.784,-5.9113,1.8957,3.746,7.7093,4.8309,1.9968,-6.8262,-1.7778,11.823,4.6571
0.82148,2.0415,-4.878,-6.8293,-6.8627,-7.055,0.0,-11.715,-2.9773,-6.8293,-6.8627,-1.9704,3.7915,2.7937,9.6051,5.7971,3.9291,-0.12759,1.0794,6.8966,5.614
5.5608,7.7831,3.9024,-3.9024,-2.9412,-1.2298,4.8544,-6.8608,-0.06472,-3.9024,-2.9412,3.9409,9.4787,8.5079,15.292,10.628,11.659,-1.0845,1.0794,2.9557,10.399
11.248,8.74,12.683,3.9024,3.9216,5.5663,7.767,0.90615,-0.06472,3.9024,3.9216,10.837,11.374,10.413,19.084,12.56,17.455999,2.7432,4.8889,7.8818,9.4418
10.3,2.9984,12.683,7.8049,3.9216,12.362,4.8544,6.7314,4.7896,7.8049,3.9216,11.823,4.7393,4.6984,10.553,6.7633,10.692,-0.12759,5.8413,3.9409,3.7002
4.613,4.9123,7.8049,10.732,8.8235,10.421,6.7961,8.6731,6.7314,10.732,8.8235,10.837,-3.7915,-1.9683,-1.7694,4.8309,2.963,3.7002,3.9365,-2.9557,-1.0845
-0.12638,10.654,5.8537,10.732,12.745,3.6246,9.7087,8.6731,3.8188,10.732,12.745,9.8522,-8.5308,-7.6825,-11.248,4.8309,-1.868,-2.0415,-6.5397,-6.8966,-7.7831
-3.9179,8.74,-0.97561,8.7805,8.8235,1.6828,8.7379,7.7023,3.8188,8.7805,8.8235,4.9261,-12.322,-9.5873,-16.934999,0.0,-7.6651,1.7863,-4.6349,-8.867,-6.8262
-8.6572,1.0845,-10.732,4.878,3.9216,-1.2298,0.97087,5.7605,1.877,4.878,3.9216,-1.9704,-14.218,-9.5873,-21.674999,-7.7295,-16.361,6.571,-3.6825,-11.823,-2.0415
-14.344,-14.226,-19.511999,-6.8293,-2.9412,-5.1133,-9.7087,-0.06472,-4.9191,-6.8293,-2.9412,-10.837,-19.905001,-16.254,-27.362,-21.256001,-27.955,-2.9984,-5.5873,-14.778,-3.9553
-13.397,-23.796,-20.488001,-12.683,-9.8039,-8.0259,-17.476,-4.9191,-14.628,-12.683,-9.8039,-14.778,-18.957001,-18.159,-23.57,-27.052999,-29.886999,2.7432,-6.5397,-8.867,-4.9123
-5.8136,-24.753,-18.537001,-14.634,-16.667,-10.939,-24.271999,-6.8608,-18.511,-14.634,-16.667,-16.749001,-10.427,-11.492,-11.248,-23.188,-23.124001,7.5279,-3.6825,5.9113,-0.12759
-1.0742,-23.796,-16.584999,-20.488001,-20.587999,-11.909,-27.184,-12.686,-21.424,-20.488001,-20.587999,-20.690001,0.94787,-3.873,2.0221,-16.424999,-14.428,2.7432,-2.7302,13.793,6.571
2.7172,-15.183,-11.707,-17.561001,-22.549,-12.88,-23.301001,-15.599,-16.57,-17.561001,-22.549,-19.704,11.374,6.6032,14.344,-4.8309,0.06441,-5.8692,-2.7302,18.719,11.356
6.5087,-0.82935,-2.9268,-11.707,-12.745,-8.9968,-7.767,-13.657,-7.8317,-11.707,-12.745,-9.8522,18.957001,18.983999,23.823,12.56,16.49,-6.8262,1.0794,17.733999,18.054001
8.4044,8.74,0.0,-7.8049,-5.8824,-7.055,5.8252,-15.599,-2.0065,-7.8049,-5.8824,-0.98522,17.062,23.746,25.719,23.188,23.253,-8.74,6.7937,11.823,21.882
9.3523,15.439,4.878,-3.9024,1.9608,-1.2298,16.504999,-10.744,3.8188,-3.9024,1.9608,7.8818,8.5308,17.079,19.084,24.155001,21.32,-6.8262,3.9365,2.9557,20.924999
9.3523,22.136999,15.61,2.9268,6.8627,10.421,24.271999,-2.0065,8.6731,2.9268,6.8627,18.719,-2.8436,4.6984,8.6572,17.391001,13.591,-7.7831,8.6984,-4.9261,14.226
8.4044,16.396,21.462999,11.707,10.784,19.159,25.243,7.7023,10.615,11.707,10.784,24.631001,-12.322,-5.7778,-1.7694,6.7633,2.963,-6.8262,12.508,-5.9113,3.7002
3.6651,7.7831,19.511999,12.683,8.8235,14.304,18.447001,11.586,4.7896,12.683,8.8235,19.704,-17.062,-13.397,-7.4566,0.96618,-3.8003,-2.0415,4.8889,-4.9261,-6.8262
-2.97,0.12759,13.659,5.8537,1.9608,1.6828,5.8252,8.6731,2.8479,5.8537,1.9608,9.8522,-15.166,-16.254,-7.4566,0.0,-4.7665,8.4848,-2.7302,-3.9409,-18.309
-5.8136,-8.4848,6.8293,-2.9268,-7.8431,-6.0841,-8.7379,4.7896,-4.9191,-2.9268,-7.8431,-1.9704,-3.7915,-9.5873,-4.613,0.0,-3.8003,11.356,-16.063,4.9261,-23.094
-7.7093,-17.097,0.0,-13.659,-19.608,-15.793,-22.33,-3.9482,-14.628,-13.659,-19.608,-14.778,11.374,5.6508,0.12638,-3.8647,-0.90177,5.614,-18.921,15.764,-19.266001
-11.501,-28.580999,-8.7805,-24.389999,-28.431,-21.618,-33.009998,-10.744,-20.452999,-24.389999,-28.431,-24.631001,20.853001,14.222,2.0221,-11.594,-3.8003,7.5279,-17.968,21.674999,-16.396
-12.449,-35.278999,-19.511999,-28.292999,-29.412001,-22.589001,-35.922001,-11.715,-24.337,-28.292999,-29.412001,-30.542,24.645,15.175,3.9179,-21.256001,-7.6651,6.571,-18.921,27.586,-11.611
-8.6572,-29.537001,-25.365999,-27.316999,-28.431,-21.618,-33.980999,-9.7735,-25.306999,-27.316999,-28.431,-33.498001,23.697001,14.222,7.7093,-21.256001,-8.6312,11.356,-20.825001,28.570999,-2.9984
-6.7615,-17.097,-25.365999,-25.365999,-28.431,-20.646999,-28.155001,-7.8317,-25.306999,-25.365999,-28.431,-30.542,14.218,8.5079,9.6051,-13.527,-6.6989,11.356,-10.349,21.674999,6.571
-5.8136,-3.7002,-23.415001,-22.438999,-24.51,-20.646999,-22.33,-8.8026,-15.599,-22.438999,-24.51,-26.601,5.6872,2.7937,9.6051,-1.9324,-3.8003,5.614,3.9365,18.719,13.27
-5.8136,1.0845,-19.511999,-20.488001,-20.587999,-16.764,-18.447001,-7.8317,-9.7735,-20.488001,-20.587999,-21.674999,4.7393,3.746,7.7093,7.7295,0.06441,7.5279,4.8889,10.837,16.139999
-5.8136,-2.7432,-11.707,-14.634,-9.8039,-10.939,-13.592,-6.8608,-6.8608,-14.634,-9.8039,-16.749001,0.94787,1.8413,2.0221,6.7633,1.0306,4.6571,4.8889,-0.98522,13.27
-6.7615,-9.4418,-0.97561,-6.8293,-2.9412,-8.9968,-6.7961,-6.8608,-1.0356,-6.8293,-2.9412,-7.8818,-5.6872,-1.9683,-5.5608,0.0,-1.868,-2.0415,0.12698,-6.8966,8.4848
-10.553,-8.4848,5.8537,-0.97561,8.8235,-6.0841,6.7961,-6.8608,5.7605,-0.97561,8.8235,3.9409,-11.374,-4.8254,-13.144,-6.7633,-7.6651,-12.568,-0.8254,-11.823,5.614
-14.344,2.0415,6.8293,0.97561,9.8039,-4.1424,16.504999,-9.7735,11.586,0.97561,9.8039,10.837,-6.6351,1.8413,-15.987,-2.8986,-7.6651,-11.611,4.8889,-11.823,4.6571
-11.501,14.482,7.8049,3.9024,13.725,-5.1133,22.33,-15.599,9.644,3.9024,13.725,14.778,0.0,7.5556,-14.092,7.7295,-3.8003,-13.525,6.7937,-9.8522,4.6571
3.6651,27.879,19.511999,8.7805,18.627001,7.5081,28.155001,-11.715,20.323999,8.7805,18.627001,24.631001,5.6872,14.222,-1.7694,19.323999,6.8277,-17.351999,6.7937,-8.867,4.6571
20.726999,31.707001,38.049,19.511999,28.431,21.1,33.009998,-6.8608,25.177999,19.511999,28.431,35.467999,15.166,18.983999,14.344,24.155001,23.253,-11.611,2.9841,-4.9261,1.7863
28.309999,23.094,44.877998,22.438999,27.451,27.896,28.155001,-2.0065,18.382,22.438999,27.451,35.467999,23.697001,18.983999,26.667,18.357,31.948,-4.9123,-2.7302,1.9704,-9.697
33.049,13.525,43.902,20.488001,22.549,29.837999,19.417,4.7896,12.557,20.488001,22.549,31.527,32.227001,20.889,37.092999,13.527,38.712002,3.7002,-1.7778,13.793,-21.18
33.049,2.0415,36.098,16.584999,14.706,24.983999,8.7379,10.615,4.7896,16.584999,14.706,21.674999,33.174999,20.889,39.937,6.7633,36.778999,13.27,-1.7778,13.793,-25.007999
20.726999,-3.7002,17.561001,9.7561,5.8824,16.246,-0.97087,9.644,-0.06472,9.7561,5.8824,7.8818,22.749001,14.222,30.458,0.96618,24.219,7.5279,-0.8254,11.823,-22.136999
1.7694,-5.614,-4.878,-2.9268,-5.8824,3.6246,-9.7087,1.877,-5.89,-2.9268,-5.8824,-8.867,7.5829,1.8413,12.449,-1.9324,4.8953,2.7432,2.9841,9.8522,-16.396
-14.344,-4.6571,-23.415001,-12.683,-15.686,-12.88,-17.476,-6.8608,-3.9482,-12.683,-15.686,-22.66,-0.94787,-4.8254,-2.7172,-1.9324,-10.564,-2.9984,3.9365,7.8818,-6.8262
-23.823,-3.7002,-37.073002,-22.438999,-20.587999,-28.414,-21.358999,-12.686,-6.8608,-22.438999,-20.587999,-32.512001,-5.6872,-10.54,-14.092,-0.96618,-18.292999,-10.654,5.8413,6.8966,2.7432
-24.771,-0.82935,-39.023998,-22.438999,-19.608,-29.385,-18.447001,-13.657,-5.89,-22.438999,-19.608,-32.512001,-6.6351,-10.54,-17.882999,4.8309,-17.327,-9.697,8.6984,1.9704,11.356
-20.979,3.9553,-28.292999,-15.61,-11.765,-21.618,-9.7087,-10.744,-1.0356,-15.61,-11.765,-23.645,-6.6351,-8.6349,-16.934999,10.628,-12.496,-2.9984,10.603,0.0,19.011
-15.292,8.74,-15.61,-6.8293,-5.8824,-9.9676,0.0,-6.8608,-0.06472,-6.8293,-5.8824,-12.808,-9.4787,-8.6349,-15.039,13.527,-8.6312,-1.0845,9.6508,-3.9409,18.054001
-4.8657,9.697,-1.9512,8.7805,9.8039,4.5955,10.68,2.8479,6.7314,8.7805,9.8039,2.9557,-9.4787,-7.6825,-9.3523,13.527,-5.7327,1.7863,3.9365,-0.98522,15.183
7.4566,7.7831,13.659,22.438999,21.569,16.246,19.417,9.644,10.615,22.438999,21.569,19.704,-8.5308,-7.6825,-0.82148,9.6618,-1.868,1.7863,-0.8254,-6.8966,10.399
20.726999,6.8262,28.292999,32.195,31.372999,29.837999,28.155001,16.440001,11.586,32.195,31.372999,35.467999,-1.8957,-3.873,9.6051,4.8309,6.8277,0.82935,-2.7302,-5.9113,1.7863
29.257999,8.74,37.073002,36.098,33.333,37.605,31.068001,20.323999,14.498,36.098,33.333,44.334999,7.5829,2.7937,20.032,2.8986,16.49,6.571,-8.4444,-0.98522,-5.8692
31.153,12.568,40.0,36.098,34.313999,42.459999,31.068001,20.323999,14.498,36.098,34.313999,46.305,12.322,9.4603,25.719,4.8309,25.184999,1.7863,-6.5397,0.98522,-7.7831
27.362,13.525,35.122002,30.243999,27.451,40.518002,25.243,18.382,7.7023,30.243999,27.451,38.424,16.114,13.27,25.719,7.7295,28.084,7.5279,-6.5397,3.9409,-6.8262
22.622,12.568,26.341,25.365999,25.49,36.633999,22.33,15.469,9.644,25.365999,25.49,32.512001,14.218,13.27,20.979,5.7971,24.219,11.356,-1.7778,3.9409,-3.9553
17.882999,8.74,17.561001,23.415001,23.528999,27.896,19.417,16.440001,11.586,23.415001,23.528999,28.570999,10.427,10.413,15.292,2.8986,16.49,14.226,0.12698,5.9113,-2.9984
13.144,4.9123,7.8049,18.537001,18.627001,21.1,15.534,13.528,6.7314,18.537001,18.627001,21.674999,9.4787,11.365,11.501,0.96618,9.7262,19.011,4.8889,15.764,-0.12759
3.6651,-1.7863,-5.8537,4.878,5.8824,12.362,2.9126,2.8479,4.7896,4.878,5.8824,6.8966,5.6872,8.5079,2.0221,-4.8309,-1.868,6.571,5.8413,14.778,2.7432
-5.8136,-8.4848,-16.584999,-5.8537,-2.9412,-6.0841,-6.7961,-5.89,3.8188,-5.8537,-2.9412,-7.8818,0.94787,2.7937,-6.5087,-12.56,-13.462,1.7863,2.0317,9.8522,1.7863
-14.344,-12.313,-21.462999,-15.61,-8.8235,-21.618,-12.621,-16.57,-0.06472,-15.61,-8.8235,-18.719,-5.6872,-6.7302,-14.092,-16.424999,-22.158001,-3.9553,5.8413,6.8966,-3.9553
-15.292,-2.7432,-19.511999,-20.488001,-14.706,-27.443001,-14.563,-21.424,1.877,-20.488001,-14.706,-21.674999,-8.5308,-12.444,-15.039,-5.7971,-21.191999,-2.9984,12.508,5.9113,-6.8262
-11.501,12.568,-7.8049,-15.61,-6.8627,-20.646999,-1.9417,-23.365999,12.557,-15.61,-6.8627,-12.808,-3.7915,-9.5873,-6.5087,12.56,-8.6312,-7.7831,22.983999,2.9557,0.82935
-5.8136,24.051001,4.878,-8.7805,0.98039,-8.0259,9.7087,-23.365999,19.353001,-8.7805,0.98039,-0.98522,0.0,-6.7302,2.97,26.087,5.8615,-18.309,23.937,0.98522,8.4848
0.82148,26.922001,15.61,0.0,7.8431,-3.1715,17.476,-15.599,13.528,0.0,7.8431,6.8966,4.7393,-2.9206,11.501,30.917999,16.49,-14.482,18.222,-2.9557,11.356
9.3523,28.836,28.292999,6.8293,11.765,0.71197,25.243,-5.89,19.353001,6.8293,11.765,16.749001,12.322,7.5556,21.927,35.749001,30.982,-1.0845,17.27,-0.98522,12.313
15.039,27.879,39.023998,6.8293,15.686,10.421,29.125999,-0.06472,24.207001,6.8293,15.686,22.66,14.218,11.365,28.562,31.884001,39.678001,5.614,16.316999,-1.9704,10.399
18.830999,22.136999,39.023998,7.8049,12.745,16.246,24.271999,4.7896,19.353001,7.8049,12.745,21.674999,12.322,13.27,31.406,23.188,38.712002,3.7002,10.603,1.9704,3.7002
23.57,17.351999,30.243999,12.683,14.706,14.304,19.417,11.586,13.528,12.683,14.706,18.719,14.218,18.032,32.354,17.391001,34.847,3.7002,1.0794,6.8966,2.7432
17.882999,5.8692,9.7561,9.7561,8.8235,10.421,7.767,10.615,6.7314,9.7561,8.8235,8.867,12.322,16.127001,21.927,5.7971,19.388,5.614,-10.349,5.9113,1.7863
6.5087,-7.5279,-5.8537,5.8537,4.902,3.6246,0.0,9.644,-1.0356,5.8537,4.902,0.98522,2.8436,6.6032,3.9179,-7.7295,0.06441,12.313,-6.5397,3.9409,-2.0415
-5.8136,-14.226,-18.537001,1.9512,0.98039,-3.1715,-3.8835,9.644,-9.7735,1.9512,0.98039,-3.9409,-8.5308,-3.873,-15.987,-19.323999,-17.327,8.4848,-6.5397,1.9704,-7.7831
-13.397,-15.183,-23.415001,-0.97561,-1.9608,-4.1424,-3.8835,7.7023,-5.89,-0.97561,-1.9608,-5.9113,-16.114,-13.397,-29.257999,-27.052999,-29.886999,2.7432,-13.206,-1.9704,-13.525
-11.501,-11.356,-16.584999,-1.9512,-5.8824,-5.1133,-3.8835,7.7023,-6.8608,-1.9512,-5.8824,-6.8966,-18.009001,-17.205999,-30.205,-28.018999,-32.785999,1.7863,-16.063,-0.98522,-16.396
-11.501,-9.4418,-8.7805,-7.8049,-8.8235,-11.909,-4.8544,1.877,-10.744,-7.8049,-8.8235,-8.867,-18.957001,-21.968,-25.466,-25.121,-30.853001,6.571,-13.206,-2.9557,-13.525
-14.344,-10.399,-3.9024,-16.584999,-11.765,-17.735001,-8.7379,-2.9773,-7.8317,-16.584999,-11.765,-13.793,-20.853001,-25.778,-20.726999,-20.290001,-23.124001,2.7432,-8.4444,-6.8966,-8.74
-12.449,-8.4848,-2.9268,-19.511999,-14.706,-16.764,-12.621,-2.9773,-6.8608,-19.511999,-14.706,-18.719,-15.166,-19.111,-12.196,-9.6618,-10.564,-1.0845,-1.7778,-9.8522,-1.0845
-2.97,-4.6571,0.97561,-14.634,-15.686,-11.909,-11.65,0.90615,-10.744,-14.634,-15.686,-17.733999,-4.7393,-10.54,3.9179,1.9324,4.8953,-2.0415,1.0794,-0.98522,5.614
4.613,1.0845,3.9024,-12.683,-15.686,-7.055,-8.7379,2.8479,-2.0065,-12.683,-15.686,-13.793,4.7393,-1.9683,17.188,10.628,17.455999,1.7863,1.0794,-1.9704,9.4418
6.5087,1.0845,-0.97561,-8.7805,-8.8235,-7.055,-4.8544,0.90615,3.8188,-8.7805,-8.8235,-10.837,12.322,5.6508,24.771,11.594,20.354,2.7432,5.8413,-3.9409,13.27
2.7172,-3.7002,-13.659,-7.8049,-7.8431,-4.1424,-3.8835,-0.06472,1.877,-7.8049,-7.8431,-9.8522,11.374,5.6508,20.979,5.7971,13.591,2.7432,11.556,-3.9409,12.313
-4.8657,-11.356,-27.316999,-5.8537,-7.8431,-7.055,-6.7961,2.8479,-3.9482,-5.8537,-7.8431,-12.808,1.8957,1.8413,8.6572,-4.8309,0.06441,4.6571,9.6508,-4.9261,8.4848
-12.449,-19.968,-34.146,-5.8537,-12.745,-13.851,-12.621,3.8188,-8.8026,-5.8537,-12.745,-16.749001,-10.427,-4.8254,-6.5087,-17.391001,-14.428,2.7432,2.0317,-10.837,-0.12759
-13.397,-19.011,-30.243999,-1.9512,-6.8627,-7.055,-10.68,6.7314,-9.7735,-1.9512,-6.8627,-11.823,-18.009001,-9.5873,-16.934999,-23.188,-23.124001,-4.9123,-2.7302,-12.808,-3.9553
-10.553,-12.313,-21.462999,1.9512,-5.8824,0.71197,-7.767,12.557,-5.89,1.9512,-5.8824,-4.9261,-22.749001,-11.492,-21.674999,-23.188,-26.989,-4.9123,-0.8254,-12.808,-5.8692
-5.8136,-4.6571,-11.707,6.8293,0.0,7.5081,-3.8835,14.498,-6.8608,6.8293,0.0,0.0,-25.591999,-15.302,-20.726999,-17.391001,-24.09,7.5279,-2.7302,-8.867,-7.7831
-0.12638,3.9553,0.0,6.8293,0.0,7.5081,-1.9417,19.353001,-9.7735,6.8293,0.0,2.9557,-18.009001,-11.492,-12.196,-3.8647,-11.53,16.139999,-3.6825,0.98522,-4.9123
3.6651,2.0415,5.8537,3.9024,-2.9412,2.6537,-6.7961,17.410999,-11.715,3.9024,-2.9412,0.0,-7.5829,-5.7778,-2.7172,2.8986,-0.90177,7.5279,-7.4921,5.9113,-2.0415
-0.12638,-4.6571,0.0,0.97561,-10.784,-4.1424,-14.563,10.615,-19.482,0.97561,-10.784,-7.8818,-0.94787,-1.0159,-4.613,0.0,-2.8341,10.399,-14.159,1.9704,0.82935
-4.8657,-7.5279,-3.9024,-2.9268,-14.706,-10.939,-16.504999,8.6731,-25.306999,-2.9268,-14.706,-11.823,5.6872,5.6508,-8.4044,-2.8986,-5.7327,12.313,-20.825001,2.9557,5.614
-6.7615,-9.4418,-3.9024,-7.8049,-15.686,-17.735001,-16.504999,4.7896,-25.306999,-7.8049,-15.686,-13.793,7.5829,8.5079,-8.4044,-2.8986,-3.8003,0.82935,-23.683001,0.98522,10.399
-5.8136,-6.571,-5.8537,-9.7561,-17.646999,-16.764,-16.504999,-1.0356,-24.337,-9.7561,-17.646999,-16.749001,10.427,11.365,-1.7694,2.8986,2.963,-4.9123,-11.302,-0.98522,16.139999
-5.8136,-6.571,-11.707,-16.584999,-22.549,-17.735001,-19.417,-4.9191,-23.365999,-16.584999,-22.549,-21.674999,7.5829,8.5079,1.0742,1.9324,4.8953,-2.9984,-1.7778,-0.98522,14.226
-9.6051,-13.27,-20.488001,-22.438999,-26.471001,-21.618,-25.243,-8.8026,-18.511,-22.438999,-26.471001,-26.601,-2.8436,-0.06349,-4.613,-5.7971,-4.7665,-4.9123,-2.7302,-6.8966,10.399
-13.397,-19.968,-29.268,-18.537001,-20.587999,-18.705999,-23.301001,-7.8317,-9.7735,-18.537001,-20.587999,-26.601,-15.166,-8.6349,-14.092,-16.424999,-18.292999,-12.568,-0.8254,-8.867,5.614
-18.136,-19.011,-33.171001,-10.732,-9.8039,-14.822,-14.563,-4.9191,-0.06472,-10.732,-9.8039,-20.690001,-21.801001,-10.54,-23.57,-21.256001,-27.955,-5.8692,2.0317,-20.690001,1.7863
-24.771,-14.226,-30.243999,-4.878,-1.9608,-12.88,-8.7379,-5.89,6.7314,-4.878,-1.9608,-14.778,-28.436001,-12.444,-34.945,-23.188,-34.717999,-2.0415,0.12698,-30.542,-2.0415
-25.719,-7.5279,-21.462999,-3.9024,-4.902,-10.939,-4.8544,-9.7735,4.7896,-3.9024,-4.902,-8.867,-29.384001,-11.492,-39.683998,-19.323999,-35.683998,-9.697,4.8889,-30.542,1.7863
-23.823,-0.82935,-12.683,0.0,4.902,-4.1424,1.9417,-6.8608,11.586,0.0,4.902,-0.98522,-29.384001,-10.54,-40.632,-13.527,-31.82,-15.439,12.508,-29.556999,6.571
-20.979,2.9984,-5.8537,5.8537,8.8235,-0.2589,3.8835,-2.9773,10.615,5.8537,8.8235,1.9704,-26.540001,-15.302,-36.84,-8.6957,-26.023001,-18.309,10.603,-25.615999,3.7002
-7.7093,3.9553,9.7561,11.707,13.725,4.5955,5.8252,1.877,18.382,11.707,13.725,8.867,-16.114,-15.302,-20.726999,-3.8647,-12.496,-10.654,1.0794,-17.733999,-4.9123
5.5608,2.9984,22.438999,9.7561,9.8039,13.333,4.8544,6.7314,20.323999,9.7561,9.8039,13.793,0.0,-8.6349,-0.82148,0.96618,3.9291,-2.9984,-1.7778,-4.9261,-8.74
7.4566,2.0415,23.415001,4.878,4.902,9.4498,2.9126,3.8188,9.644,4.878,4.902,10.837,11.374,0.88889,13.397,3.8647,17.455999,0.82935,0.12698,6.8966,-6.8262
0.82148,-3.7002,10.732,-4.878,-2.9412,-4.1424,-2.9126,-5.89,2.8479,-4.878,-2.9412,0.98522,17.062,8.5079,16.24,1.9324,19.388,-2.9984,-6.5397,11.823,-2.9984
-1.0742,-6.571,-2.9268,-13.659,-11.765,-8.9968,-6.7961,-11.715,-2.0065,-13.659,-11.765,-8.867,18.009001,14.222,12.449,-1.9324,12.625,2.7432,-4.6349,17.733999,5.614
-3.9179,-12.313,-12.683,-22.438999,-17.646999,-15.793,-12.621,-21.424,-6.8608,-22.438999,-17.646999,-16.749001,8.5308,9.4603,3.9179,-8.6957,1.0306,-9.697,-2.7302,15.764,8.4848
-5.8136,-14.226,-16.584999,-28.292999,-22.549,-20.646999,-16.504999,-25.306999,-6.8608,-28.292999,-22.549,-20.690001,1.8957,4.6984,-2.7172,-12.56,-6.6989,-9.697,-0.8254,5.9113,11.356
-6.7615,-12.313,-15.61,-27.316999,-22.549,-22.589001,-16.504999,-24.337,-5.89,-27.316999,-22.549,-20.690001,0.94787,4.6984,-4.613,-9.6618,-8.6312,-2.0415,1.0794,1.9704,13.27
-4.8657,-8.4848,-9.7561,-17.561001,-15.686,-19.676001,-12.621,-20.452999,2.8479,-17.561001,-15.686,-14.778,-0.94787,4.6984,-2.7172,-2.8986,-3.8003,-4.9123,2.9841,0.98522,13.27
-1.0742,-6.571,-4.878,-10.732,-7.8431,-9.9676,-5.8252,-16.57,7.7023,-10.732,-7.8431,-5.9113,-3.7915,3.746,-2.7172,2.8986,-0.90177,-4.9123,7.746,-0.98522,14.226
-5.8136,-8.4848,-13.659,-6.8293,0.0,-7.055,-1.9417,-14.628,5.7605,-6.8293,0.0,-1.9704,-14.218,-3.873,-14.092,-0.96618,-9.5974,-8.74,2.9841,-6.8966,9.4418
-14.344,-6.571,-25.365999,-0.97561,4.902,-5.1133,0.97087,-12.686,5.7605,-0.97561,4.902,-0.98522,-26.540001,-13.397,-29.257999,-8.6957,-24.09,-19.266001,-3.6825,-14.778,2.7432
-16.24,-3.7002,-24.389999,0.97561,3.9216,-1.2298,1.9417,-11.715,9.644,0.97561,3.9216,1.9704,-28.436001,-17.205999,-34.945,-13.527,-32.785999,-14.482,7.746,-16.749001,0.82935
-8.6572,4.9123,-6.8293,8.7805,11.765,4.5955,8.7379,-6.8608,10.615,8.7805,11.765,11.823,-18.957001,-12.444,-27.362,-10.628,-26.989,-13.525,13.46,-15.764,1.7863
0.82148,13.525,13.659,13.659,13.725,10.421,10.68,-1.0356,8.6731,13.659,13.725,18.719,-6.6351,-5.7778,-12.196,0.0,-9.5974,-13.525,5.8413,-13.793,0.82935
11.248,16.396,30.243999,14.634,15.686,20.129,9.7087,3.8188,4.7896,14.634,15.686,24.631001,7.5829,0.88889,4.8657,10.628,12.625,-2.0415,2.9841,-7.8818,-2.0415
21.674999,18.309,41.951,22.438999,18.627001,26.926001,12.621,12.557,2.8479,22.438999,18.627001,29.556999,28.436001,14.222,26.667,21.256001,34.847,8.4848,-1.7778,0.0,-2.0415
26.414,15.439,37.073002,23.415001,17.646999,27.896,11.65,14.498,5.7605,23.415001,17.646999,26.601,41.706001,24.698,40.884998,23.188,44.508999,12.313,-3.6825,8.867,-3.9553
22.622,11.611,25.365999,14.634,10.784,21.1,8.7379,10.615,4.7896,14.634,10.784,18.719,38.862999,26.603001,40.884998,22.222,41.610001,10.399,-3.6825,17.733999,-2.0415
15.987,12.568,18.537001,5.8537,7.8431,16.246,7.767,3.8188,4.7896,5.8537,7.8431,10.837,30.332001,27.556,32.354,22.222,35.813,-2.9984,-6.5397,17.733999,3.7002
6.5087,6.8262,7.8049,-3.9024,-0.98039,5.5663,1.9417,-2.0065,-2.0065,-3.9024,-0.98039,0.98522,18.957001,21.841,19.084,16.424999,22.287001,-2.0415,-6.5397,18.719,5.614
-5.8136,-1.7863,-8.7805,-12.683,-7.8431,-10.939,-6.7961,-10.744,-1.0356,-12.683,-7.8431,-12.808,5.6872,12.317,5.8136,9.6618,6.8277,4.6571,2.9841,13.793,9.4418
-16.24,-8.4848,-27.316999,-15.61,-13.725,-20.646999,-13.592,-19.482,0.90615,-15.61,-13.725,-22.66,-1.8957,6.6032,-7.4566,3.8647,-7.6651,-2.0415,7.746,10.837,14.226
-20.979,-13.27,-35.122002,-12.683,-9.8039,-20.646999,-14.563,-18.511,0.90615,-12.683,-9.8039,-24.631001,-9.4787,-3.873,-16.934999,-4.8309,-20.225,-7.7831,2.9841,8.867,10.399
-18.136,-17.097,-30.243999,-9.7561,-5.8824,-18.705999,-11.65,-13.657,5.7605,-9.7561,-5.8824,-18.719,-14.218,-12.444,-22.622,-14.493,-26.989,-14.482,2.9841,7.8818,3.7002
-10.553,-17.097,-18.537001,-5.8537,-1.9608,-10.939,-4.8544,-10.744,9.644,-5.8537,-1.9608,-9.8522,-16.114,-15.302,-24.518,-19.323999,-27.955,-9.697,5.8413,0.0,1.7863
-2.0221,-12.313,-5.8537,-1.9512,3.9216,-1.2298,1.9417,-10.744,5.7605,-1.9512,3.9216,-0.98522,-17.062,-21.968,-19.778999,-21.256001,-24.09,-1.0845,4.8889,-9.8522,-3.9553
10.3,-1.7863,10.732,3.9024,9.8039,7.5081,10.68,-3.9482,12.557,3.9024,9.8039,10.837,-7.5829,-15.302,-6.5087,-17.391001,-13.462,-2.9984,2.9841,-9.8522,-10.654
23.57,15.439,30.243999,13.659,19.608,24.013,23.301001,-0.06472,16.440001,13.659,19.608,27.586,6.6351,2.7937,12.449,-3.8647,5.8615,-9.697,1.0794,-5.9113,-9.697
31.153,29.792999,40.0,20.488001,22.549,34.693001,31.068001,1.877,13.528,20.488001,22.549,38.424,15.166,14.222,25.719,12.56,25.184999,-2.9984,4.8889,-6.8966,-6.8262
33.997002,38.404999,45.854,26.341,29.412001,39.547001,36.893002,4.7896,16.440001,26.341,29.412001,43.349998,19.905001,18.032,34.25,26.087,39.678001,7.5279,2.0317,-1.9704,-5.8692
30.205,44.146999,45.854,30.243999,33.333,39.547001,39.806,11.586,20.323999,30.243999,33.333,47.291,18.957001,16.127001,35.196999,33.816002,43.542999,4.6571,7.746,0.98522,-4.9123
19.778999,39.362,37.073002,25.365999,31.372999,30.809,37.863998,11.586,23.236,25.365999,31.372999,41.379002,8.5308,7.5556,22.875,28.986,30.982,6.571,22.983999,-6.8966,-1.0845
8.4044,32.662998,31.219999,19.511999,23.528999,18.188,29.125999,9.644,20.323999,19.511999,23.528999,30.542,-3.7915,1.8413,9.6051,23.188,19.388,-2.0415,25.841,-20.690001,6.571
0.82148,25.965,25.365999,14.634,18.627001,8.479,22.33,7.7023,11.586,14.634,18.627001,21.674999,-10.427,0.88889,1.0742,21.256001,12.625,-12.568,20.127001,-24.631001,15.183
-8.6572,12.568,7.8049,3.9024,3.9216,0.71197,9.7087,1.877,6.7314,3.9024,3.9216,5.9113,-8.5308,3.746,-6.5087,13.527,3.9291,-25.007999,13.46,-15.764,18.054001
-16.24,-5.614,-11.707,-5.8537,-6.8627,-8.9968,-5.8252,-2.0065,-2.0065,-5.8537,-6.8627,-11.823,-6.6351,3.746,-14.092,2.8986,-6.6989,-19.266001,3.9365,-12.808,18.054001
-24.771,-25.709999,-27.316999,-18.537001,-20.587999,-21.618,-25.243,-9.7735,-14.628,-18.537001,-20.587999,-29.556999,-7.5829,1.8413,-24.518,-10.628,-19.259001,-6.8262,-5.5873,-9.8522,11.356
-22.875,-36.236,-30.243999,-23.415001,-25.49,-24.531,-33.009998,-8.8026,-17.540001,-23.415001,-25.49,-36.452999,-5.6872,0.88889,-27.362,-17.391001,-24.09,-3.9553,-7.4921,0.98522,7.5279
-16.24,-34.321999,-24.389999,-23.415001,-23.528999,-20.646999,-32.039001,-2.9773,-17.540001,-23.415001,-23.528999,-33.498001,-4.7393,-1.9683,-24.518,-17.391001,-22.158001,7.5279,-6.5397,10.837,2.7432
-11.501,-28.580999,-19.511999,-17.561001,-22.549,-16.764,-28.155001,-0.06472,-18.511,-17.561001,-22.549,-26.601,-11.374,-12.444,-23.57,-18.357,-23.124001,11.356,-14.159,13.793,-7.7831
-4.8657,-19.968,-15.61,-9.7561,-15.686,-15.793,-21.358999,4.7896,-14.628,-9.7561,-15.686,-17.733999,-12.322,-19.111,-14.092,-19.323999,-21.191999,13.27,-10.349,16.749001,-15.439
5.5608,-12.313,-13.659,-3.9024,-11.765,-5.1133,-18.447001,14.498,-11.715,-3.9024,-11.765,-11.823,-5.6872,-21.016001,2.0221,-17.391001,-15.395,24.753,-10.349,22.66,-22.136999
14.092,-7.5279,-10.732,3.9024,-8.8235,1.6828,-15.534,19.353001,-17.540001,3.9024,-8.8235,-8.867,2.8436,-22.921,19.084,-13.527,-4.7665,27.624001,-20.825001,27.586,-28.836
17.882999,-5.614,-5.8537,3.9024,-8.8235,5.5663,-16.504999,18.382,-19.482,3.9024,-8.8235,-8.867,6.6351,-21.968,29.51,-9.6618,4.8953,20.924999,-22.73,28.570999,-31.707001
19.778999,-1.7863,4.878,9.7561,0.0,11.392,-7.767,18.382,-17.540001,9.7561,0.0,-0.98522,10.427,-15.302,34.25,-3.8647,13.591,23.796,-14.159,18.719,-31.707001
20.726999,5.8692,18.537001,17.561001,9.8039,20.129,5.8252,21.294001,-8.8026,17.561001,9.8039,12.808,16.114,-3.873,35.196999,4.8309,21.32,20.924999,-7.4921,10.837,-29.792999
23.57,15.439,29.268,20.488001,18.627001,26.926001,20.388,22.264999,-2.9773,20.488001,18.627001,24.631001,21.801001,13.27,34.25,18.357,30.016001,5.614,-0.8254,6.8966,-18.309
26.414,25.965,37.073002,25.365999,21.569,30.809,29.125999,23.236,5.7605,25.365999,21.569,31.527,25.591999,30.413,32.354,34.783001,39.678001,11.356,7.746,0.0,0.82935
17.882999,28.836,34.146,23.415001,19.608,20.129,26.214001,15.469,12.557,23.415001,19.608,27.586,18.009001,36.126999,18.136,39.613998,36.778999,8.4848,10.603,-10.837,14.226
-0.12638,24.051001,19.511999,12.683,11.765,7.5081,16.504999,5.7605,10.615,12.683,11.765,12.808,4.7393,28.507999,-4.613,34.783001,22.287001,-4.9123,9.6508,-23.645,22.839001
-17.188,10.654,-1.9512,1.9512,3.9216,-2.2006,5.8252,-4.9191,7.7023,1.9512,3.9216,-2.9557,-11.374,13.27,-24.518,19.323999,1.0306,-15.439,14.413,-29.556999,25.709999
-23.823,-0.82935,-15.61,-6.8293,-0.98039,-8.9968,0.0,-9.7735,6.7314,-6.8293,-0.98039,-11.823,-21.801001,-2.9206,-32.101002,4.8309,-13.462,-15.439,17.27,-28.570999,19.968
-20.979,-4.6571,-19.511999,-6.8293,-1.9608,-12.88,-0.97087,-10.744,0.90615,-6.8293,-1.9608,-14.778,-22.749001,-10.54,-29.257999,-1.9324,-18.292999,-7.7831,11.556,-17.733999,17.097
-17.188,-8.4848,-19.511999,-10.732,-6.8627,-16.764,-2.9126,-8.8026,6.7314,-10.732,-6.8627,-16.749001,-23.697001,-14.349,-25.466,-7.7295,-20.225,-10.654,9.6508,-16.749001,13.27
-9.6051,-8.4848,-11.707,-13.659,-7.8431,-15.793,-3.8835,-7.8317,6.7314,-13.659,-7.8431,-14.778,-13.27,-5.7778,-14.092,-6.7633,-14.428,-8.74,3.9365,-9.8522,13.27
-5.8136,-13.27,-8.7805,-13.659,-8.8235,-11.909,-6.7961,-10.744,-2.0065,-13.659,-8.8235,-13.793,-5.6872,-6.7302,-5.5608,-11.594,-12.496,-9.697,-2.7302,-0.98522,5.614
-1.0742,-14.226,-2.9268,-6.8293,-7.8431,-8.9968,-8.7379,-4.9191,-8.8026,-6.8293,-7.8431,-10.837,0.0,-9.5873,3.9179,-16.424999,-10.564,-2.9984,-6.5397,4.9261,-4.9123
9.3523,-7.5279,7.8049,2.9268,1.9608,1.6828,-1.9417,2.8479,-9.7735,2.9268,1.9608,-0.98522,14.218,-3.873,20.032,-13.527,1.0306,9.4418,-9.3968,17.733999,-11.611
14.092,0.12759,15.61,8.7805,5.8824,9.4498,4.8544,5.7605,-6.8608,8.7805,5.8824,6.8966,25.591999,-1.0159,30.458,-9.6618,12.625,7.5279,-11.302,22.66,-21.18
14.092,5.8692,18.537001,12.683,12.745,14.304,13.592,4.7896,-0.06472,12.683,12.745,14.778,29.384001,3.746,32.354,-2.8986,21.32,5.614,-11.302,19.704,-20.223
11.248,11.611,22.438999,12.683,13.725,15.275,17.476,4.7896,1.877,12.683,13.725,19.704,29.384001,11.365,28.562,6.7633,28.084,4.6571,-13.206,14.778,-13.525
9.3523,10.654,22.438999,11.707,13.725,13.333,18.447001,2.8479,3.8188,11.707,13.725,20.690001,27.488001,18.032,21.927,13.527,28.084,3.7002,2.0317,12.808,-7.7831
10.3,16.396,20.488001,9.7561,11.765,8.479,18.447001,-0.06472,4.7896,9.7561,11.765,18.719,18.957001,22.794001,15.292,21.256001,25.184999,0.82935,12.508,10.837,-1.0845
11.248,23.094,21.462999,9.7561,12.745,1.6828,20.388,-2.0065,6.7314,9.7561,12.745,17.733999,9.4787,24.698,5.8136,27.052999,21.32,-4.9123,14.413,-0.98522,6.571
10.3,25.007999,22.438999,5.8537,5.8824,2.6537,17.476,-3.9482,4.7896,5.8537,5.8824,14.778,-2.8436,21.841,-5.5608,27.052999,12.625,-10.654,18.222,-12.808,12.313
9.3523,23.094,22.438999,4.878,6.8627,9.4498,15.534,-2.0065,3.8188,4.878,6.8627,11.823,-16.114,11.365,-12.196,25.121,5.8615,-5.8692,13.46,-17.733999,14.226
7.4566,14.482,13.659,5.8537,3.9216,10.421,7.767,3.8188,-2.0065,5.8537,3.9216,7.8818,-21.801001,2.7937,-14.092,17.391001,-0.90177,6.571,8.6984,-16.749001,12.313
6.5087,2.9984,0.97561,5.8537,1.9608,8.479,-0.97087,4.7896,0.90615,5.8537,1.9608,0.0,-17.062,-5.7778,-8.4044,7.7295,-4.7665,12.313,-2.7302,-4.9261,10.399
7.4566,-6.571,-9.7561,1.9512,-0.98039,0.71197,-8.7379,4.7896,0.90615,1.9512,-0.98039,-8.867,-7.5829,-10.54,2.0221,0.0,-5.7327,15.183,-4.6349,6.8966,5.614
5.5608,-10.399,-12.683,-3.9024,-4.902,-5.1133,-12.621,2.8479,-1.0356,-3.9024,-4.902,-12.808,1.8957,-6.7302,9.6051,-2.8986,-3.8003,11.356,-1.7778,14.778,3.7002
0.82148,-10.399,-11.707,-5.8537,-6.8627,-8.0259,-11.65,-1.0356,0.90615,-5.8537,-6.8627,-10.837,9.4787,-1.9683,10.553,-7.7295,-2.8341,9.4418,-7.4921,17.733999,-0.12759
-3.9179,-10.399,-11.707,0.0,-0.98039,-5.1133,-7.767,0.90615,1.877,0.0,-0.98039,-5.9113,15.166,2.7937,8.6572,-10.628,-3.8003,6.571,-8.4444,19.704,-3.9553
-7.7093,-8.4848,-13.659,5.8537,5.8824,-6.0841,-4.8544,3.8188,-2.9773,5.8537,5.8824,-1.9704,18.009001,8.5079,4.8657,-9.6618,-3.8003,4.6571,-7.4921,15.764,-2.0415
-12.449,-12.313,-16.584999,6.8293,3.9216,-3.1715,-8.7379,3.8188,-5.89,6.8293,3.9216,-1.9704,14.218,11.365,-3.6651,-10.628,-5.7327,4.6571,-5.5873,2.9557,-0.12759
-14.344,-16.139999,-15.61,8.7805,8.8235,-0.2589,-8.7379,5.7605,-0.06472,8.7805,8.8235,-1.9704,8.5308,8.5079,-9.3523,-13.527,-7.6651,0.82935,-6.5397,-2.9557,-2.9984
-15.292,-14.226,-12.683,10.732,11.765,1.6828,-2.9126,5.7605,5.7605,10.732,11.765,1.9704,-5.6872,-3.873,-14.092,-19.323999,-12.496,-6.8262,-5.5873,-9.8522,-10.654
-7.7093,-2.7432,-0.97561,13.659,17.646999,9.4498,9.7087,5.7605,9.644,13.659,17.646999,11.823,-17.062,-15.302,-15.039,-18.357,-12.496,-7.7831,-0.8254,-14.778,-12.568
2.7172,9.697,8.7805,12.683,12.745,9.4498,15.534,10.615,7.7023,12.683,12.745,15.764,-18.957001,-21.016001,-9.3523,-10.628,-8.6312,0.82935,2.0317,-10.837,-15.439
4.613,17.351999,12.683,6.8293,5.8824,3.6246,14.563,10.615,1.877,6.8293,5.8824,10.837,-17.062,-24.825001,-4.613,-1.9324,-2.8341,10.399,4.8889,-7.8818,-17.351999
2.7172,15.439,8.7805,-1.9512,-2.9412,-3.1715,7.767,6.7314,0.90615,-1.9512,-2.9412,2.9557,-13.27,-23.872999,-1.7694,3.8647,0.06441,14.226,5.8413,-4.9261,-13.525
-1.0742,3.9553,-0.97561,-5.8537,-7.8431,-7.055,0.0,3.8188,-2.9773,-5.8537,-7.8431,-5.9113,-11.374,-18.159,-2.7172,2.8986,-3.8003,8.4848,5.8413,0.98522,-8.74
-11.501,-10.399,-12.683,-10.732,-11.765,-8.9968,-10.68,1.877,-2.0065,-10.732,-11.765,-14.778,-10.427,-12.444,-7.4566,-1.9324,-9.5974,-2.9984,-2.7302,-3.9409,-4.9123
-16.24,-21.882,-23.415001,-16.584999,-16.667,-14.822,-20.388,-3.9482,-9.7735,-16.584999,-16.667,-22.66,-1.8957,-1.0159,-5.5608,-3.8647,-9.5974,-2.9984,-13.206,-2.9557,0.82935
-15.292,-30.493999,-33.171001,-24.389999,-26.471001,-20.646999,-31.068001,-10.744,-19.482,-24.389999,-26.471001,-31.527,9.4787,8.5079,-0.82148,-8.6957,-11.53,9.4418,-9.3968,8.867,4.6571
-13.397,-38.150002,-40.0,-27.316999,-33.333,-21.618,-36.893002,-9.7735,-24.337,-27.316999,-33.333,-36.452999,15.166,11.365,1.0742,-18.357,-19.259001,8.4848,-9.3968,17.733999,3.7002
-11.501,-41.978001,-41.951,-26.341,-33.333,-23.559999,-37.863998,-8.8026,-30.162001,-26.341,-33.333,-36.452999,10.427,7.5556,-2.7172,-28.018999,-30.853001,1.7863,-18.921,18.719,-0.12759
-10.553,-36.236,-36.098,-20.488001,-28.431,-18.705999,-30.097,-5.89,-30.162001,-20.488001,-28.431,-28.570999,0.0,-0.06349,-8.4044,-29.952,-34.717999,4.6571,-18.921,13.793,-2.9984
-7.7093,-20.924999,-19.511999,-9.7561,-15.686,-9.9676,-16.504999,-2.0065,-21.424,-9.7561,-15.686,-12.808,-9.4787,-6.7302,-9.3523,-20.290001,-27.955,5.614,-16.063,6.8966,-5.8692
-4.8657,-3.7002,-3.9024,-0.97561,-4.902,-0.2589,-2.9126,2.8479,-6.8608,-0.97561,-4.902,2.9557,-15.166,-11.492,-8.4044,-8.6957,-17.327,-2.0415,-13.206,0.98522,-8.74
-5.8136,10.654,6.8293,5.8537,3.9216,9.4498,9.7087,3.8188,3.8188,5.8537,3.9216,11.823,-14.218,-8.6349,-8.4044,4.8309,-2.8341,-5.8692,-2.7302,-6.8966,-2.9984
-10.553,19.266001,14.634,6.8293,4.902,7.5081,12.621,3.8188,7.7023,6.8293,4.902,14.778,-14.218,-7.6825,-10.3,13.527,8.7601,-6.8262,5.8413,-13.793,0.82935
-5.8136,24.051001,25.365999,7.8049,7.8431,10.421,17.476,3.8188,11.586,7.8049,7.8431,17.733999,-12.322,-9.5873,-4.613,16.424999,19.388,-2.0415,6.7937,-13.793,-0.12759
4.613,24.051001,35.122002,9.7561,8.8235,15.275,22.33,3.8188,16.440001,9.7561,8.8235,22.66,-7.5829,-10.54,4.8657,14.493,26.150999,-2.9984,6.7937,-14.778,-3.9553
15.987,20.223,34.146,4.878,7.8431,20.129,22.33,4.7896,16.440001,4.878,7.8431,21.674999,-0.94787,-7.6825,12.449,9.6618,25.184999,-8.74,0.12698,-10.837,-2.0415
16.934999,10.654,20.488001,-7.8049,-6.8627,12.362,10.68,-1.0356,10.615,-7.8049,-6.8627,8.867,7.5829,-1.9683,14.344,3.8647,16.49,2.7432,8.6984,-0.98522,-0.12759
11.248,1.0845,0.0,-12.683,-12.745,-3.1715,0.0,-6.8608,5.7605,-12.683,-12.745,-4.9261,18.009001,9.4603,13.397,-0.96618,4.8953,7.5279,13.46,8.867,1.7863
2.7172,-11.356,-22.438999,-14.634,-14.706,-11.909,-9.7087,-7.8317,-0.06472,-14.634,-14.706,-16.749001,22.749001,18.032,9.6051,-4.8309,-5.7327,1.7863,10.603,20.690001,1.7863
-2.97,-22.839001,-35.122002,-15.61,-13.725,-16.764,-18.447001,-6.8608,-5.89,-15.61,-13.725,-23.645,21.801001,21.841,4.8657,-9.6618,-12.496,6.571,4.8889,26.601,1.7863
-0.12638,-22.839001,-31.219999,-12.683,-14.706,-15.793,-18.447001,-2.9773,-8.8026,-12.683,-14.706,-20.690001,22.749001,22.794001,5.8136,-7.7295,-10.564,5.614,-0.8254,31.527,5.614
0.82148,-15.183,-21.462999,-7.8049,-10.784,-7.055,-12.621,0.90615,-8.8026,-7.8049,-10.784,-10.837,16.114,13.27,2.97,-4.8309,-10.564,11.356,-0.8254,31.527,6.571
-8.6572,-8.4848,-13.659,-5.8537,-4.902,-4.1424,-5.8252,-0.06472,-9.7735,-5.8537,-4.902,-3.9409,-1.8957,-1.0159,-12.196,-7.7295,-17.327,2.7432,-2.7302,7.8818,-2.0415
-17.188,-1.7863,-3.9024,-1.9512,-1.9608,-0.2589,0.0,-2.9773,-8.8026,-1.9512,-1.9608,3.9409,-14.218,-9.5873,-23.57,-7.7295,-18.292999,-5.8692,-4.6349,-10.837,-6.8262
-19.084,3.9553,-2.9268,-2.9268,-4.902,-3.1715,0.97087,-3.9482,-13.657,-2.9268,-4.902,2.9557,-20.853001,-12.444,-27.362,-2.8986,-15.395,-11.611,-11.302,-17.733999,-11.611
-11.501,8.74,-0.97561,-1.9512,-2.9412,-2.2006,0.0,-3.9482,-18.511,-1.9512,-2.9412,1.9704,-18.009001,-9.5873,-20.726999,4.8309,-5.7327,-8.74,-11.302,-14.778,-13.525
-2.97,12.568,3.9024,0.0,-4.902,-3.1715,-1.9417,-2.9773,-18.511,0.0,-4.902,0.0,-10.427,-3.873,-7.4566,13.527,6.8277,-5.8692,-7.4921,-8.867,-12.568
3.6651,10.654,5.8537,-1.9512,-7.8431,-4.1424,-6.7961,-2.0065,-19.482,-1.9512,-7.8431,-3.9409,-1.8957,2.7937,5.8136,18.357,16.49,-7.7831,-6.5397,-3.9409,-7.7831
10.3,2.0415,10.732,-4.878,-6.8627,-1.2298,-10.68,-1.0356,-17.540001,-4.878,-6.8627,-3.9409,0.94787,3.746,16.24,15.459,21.32,-2.0415,-8.4444,0.98522,-3.9553
15.039,-0.82935,19.511999,-6.8293,-4.902,1.6828,-5.8252,0.90615,-10.744,-6.8293,-4.902,2.9557,5.6872,4.6984,24.771,11.594,24.219,0.82935,-13.206,2.9557,0.82935
10.3,0.12759,19.511999,-5.8537,-2.9412,2.6537,2.9126,1.877,2.8479,-5.8537,-2.9412,4.9261,8.5308,4.6984,21.927,5.7971,21.32,-11.611,-5.5873,-1.9704,4.6571
-2.0221,-3.7002,6.8293,-11.707,-9.8039,-7.055,1.9417,-6.8608,11.586,-11.707,-9.8039,-2.9557,9.4787,6.6032,13.397,0.96618,11.659,-9.697,10.603,0.0,8.4848
-15.292,-9.4418,-14.634,-18.537001,-12.745,-17.735001,-4.8544,-14.628,8.6731,-18.537001,-12.745,-15.764,12.322,13.27,3.9179,-0.96618,1.9968,-4.9123,16.316999,-2.9557,16.139999
-25.719,-16.139999,-33.171001,-28.292999,-23.528999,-26.472,-16.504999,-21.424,6.7314,-28.292999,-23.528999,-30.542,10.427,16.127001,-6.5087,-4.8309,-9.5974,-5.8692,19.174999,-3.9409,21.882
-31.406,-21.882,-42.926998,-32.195,-24.51,-33.269001,-23.301001,-21.424,-0.06472,-32.195,-24.51,-37.438,1.8957,10.413,-16.934999,-9.6618,-22.158001,-9.697,13.46,0.0,22.839001
-32.354,-23.796,-42.926998,-26.341,-23.528999,-32.298,-25.243,-15.599,-5.89,-26.341,-23.528999,-35.467999,-7.5829,4.6984,-27.362,-15.459,-35.683998,-19.266001,2.0317,-1.9704,20.924999
-31.406,-23.796,-40.0,-17.561001,-18.627001,-25.502001,-22.33,-12.686,-6.8608,-17.561001,-18.627001,-28.570999,-16.114,-7.6825,-35.893002,-25.121,-48.244999,-14.482,2.0317,0.98522,12.313
-21.927,-27.624001,-33.171001,-10.732,-12.745,-18.705999,-18.447001,-2.9773,-6.8608,-10.732,-12.745,-18.719,-18.009001,-21.016001,-33.997002,-36.715,-47.278999,10.399,-1.7778,3.9409,-8.74
-6.7615,-21.882,-18.537001,-0.97561,-3.9216,-3.1715,-9.7087,7.7023,-7.8317,-0.97561,-3.9216,-4.9261,-15.166,-26.73,-20.726999,-33.816002,-31.82,19.011,-11.302,6.8966,-25.965
9.3523,-3.7002,2.9268,13.659,7.8431,14.304,5.8252,14.498,0.90615,13.659,7.8431,9.8522,-9.4787,-22.921,-5.5608,-16.424999,-8.6312,12.313,-7.4921,4.9261,-28.836
17.882999,15.439,23.415001,21.462999,17.646999,22.070999,17.476,13.528,10.615,21.462999,17.646999,20.690001,-0.94787,-11.492,7.7093,4.8309,13.591,4.6571,-6.5397,0.0,-23.094
16.934999,27.879,37.073002,17.561001,16.667,18.188,20.388,5.7605,10.615,17.561001,16.667,22.66,4.7393,-2.9206,15.292,22.222,30.982,-3.9553,-0.8254,-13.793,-13.525
15.987,35.534,47.805,9.7561,9.8039,15.275,17.476,-0.06472,7.7023,9.7561,9.8039,21.674999,10.427,8.5079,23.823,37.681,48.374001,-7.7831,4.8889,-18.719,-0.12759
17.882999,36.491001,53.659,8.7805,7.8431,16.246,18.447001,0.90615,-1.0356,8.7805,7.8431,21.674999,18.957001,20.889,32.354,45.410999,60.933998,-11.611,5.8413,-15.764,8.4848
15.039,24.051001,38.049,7.8049,4.902,16.246,13.592,4.7896,0.90615,7.8049,4.902,16.749001,19.905001,21.841,30.458,37.681,55.137001,-7.7831,3.9365,-13.793,8.4848
6.5087,7.7831,14.634,3.9024,3.9216,6.5372,6.7961,2.8479,1.877,3.9024,3.9216,6.8966,14.218,17.079,20.032,21.256001,38.712002,-7.7831,-3.6825,-8.867,4.6571
-1.0742,-4.6571,0.97561,0.97561,0.0,-4.1424,0.97087,2.8479,-1.0356,0.97561,0.0,-2.9557,8.5308,14.222,11.501,6.7633,23.253,-3.9553,-9.3968,-4.9261,0.82935
-8.6572,-14.226,-5.8537,-0.97561,-0.98039,-7.055,-3.8835,1.877,-2.0065,-0.97561,-0.98039,-9.8522,0.94787,9.4603,2.0221,-4.8309,6.8277,-3.9553,-5.5873,2.9557,-2.0415
-15.292,-18.054001,-12.683,-1.9512,-3.9216,-8.9968,-9.7087,1.877,-4.9191,-1.9512,-3.9216,-15.764,-5.6872,5.6508,-7.4566,-10.628,-11.53,0.82935,-0.8254,6.8966,0.82935
-16.24,-15.183,-17.561001,-2.9268,-4.902,-12.88,-12.621,1.877,-4.9191,-2.9268,-4.902,-19.704,-11.374,0.88889,-14.092,-13.527,-24.09,9.4418,-1.7778,14.778,4.6571
-10.553,-8.4848,-17.561001,-0.97561,-2.9412,-9.9676,-8.7379,4.7896,-1.0356,-0.97561,-2.9412,-16.749001,-14.218,-3.873,-15.039,-15.459,-30.853001,7.5279,-3.6825,14.778,2.7432
-1.0742,-2.7432,-13.659,0.97561,0.98039,-6.0841,-4.8544,6.7314,2.8479,0.97561,0.98039,-9.8522,-13.27,-7.6825,-11.248,-16.424999,-29.886999,3.7002,0.12698,13.793,-0.12759
3.6651,2.9984,-8.7805,0.0,0.0,-6.0841,-1.9417,3.8188,6.7314,0.0,0.0,-3.9409,-11.374,-10.54,-5.5608,-12.56,-21.191999,1.7863,-3.6825,14.778,-2.0415
10.3,6.8262,-0.97561,4.878,7.8431,0.71197,5.8252,1.877,9.644,4.878,7.8431,3.9409,-5.6872,-10.54,4.8657,-4.8309,-6.6989,8.4848,5.8413,16.749001,-1.0845
16.934999,4.9123,8.7805,10.732,14.706,12.362,11.65,-1.0356,11.586,10.732,14.706,11.823,2.8436,-9.5873,16.24,0.0,7.7939,7.5279,15.365,18.719,-2.9984
24.518,5.8692,21.462999,18.537001,20.587999,19.159,16.504999,3.8188,12.557,18.537001,20.587999,19.704,9.4787,-9.5873,26.667,2.8986,19.388,2.7432,1.0794,21.674999,-8.74
29.257999,13.525,33.171001,24.389999,26.471001,24.983999,21.358999,10.615,13.528,24.389999,26.471001,27.586,18.957001,-1.0159,33.301998,9.6618,30.982,14.226,-0.8254,25.615999,-13.525
23.57,17.351999,36.098,21.462999,24.51,24.983999,21.358999,10.615,14.498,21.462999,24.51,27.586,20.853001,4.6984,29.51,14.493,33.881001,21.882,2.0317,19.704,-17.351999
21.674999,19.266001,37.073002,21.462999,26.471001,23.042,22.33,9.644,16.440001,21.462999,26.471001,28.570999,18.009001,7.5556,25.719,17.391001,32.915001,17.097,0.12698,14.778,-17.351999
23.57,22.136999,37.073002,24.389999,26.471001,22.070999,23.301001,14.498,11.586,24.389999,26.471001,28.570999,13.27,11.365,22.875,20.290001,30.016001,7.5279,-3.6825,0.98522,-15.439
25.466,24.051001,36.098,28.292999,28.431,24.983999,27.184,15.469,10.615,28.292999,28.431,29.556999,5.6872,12.317,18.136,15.459,24.219,5.614,-1.7778,-9.8522,-9.697
24.518,17.351999,31.219999,22.438999,20.587999,23.042,24.271999,12.557,12.557,22.438999,20.587999,27.586,-1.8957,11.365,11.501,8.6957,14.557,0.82935,3.9365,-12.808,-3.9553
15.987,9.697,17.561001,15.61,13.725,17.216999,16.504999,7.7023,5.7605,15.61,13.725,18.719,-5.6872,12.317,1.0742,3.8647,3.9291,-8.74,4.8889,-17.733999,1.7863
3.6651,2.9984,-1.9512,13.659,4.902,14.304,4.8544,4.7896,-0.06472,13.659,4.902,5.9113,-7.5829,8.5079,-10.3,-0.96618,-10.564,-14.482,5.8413,-17.733999,7.5279
-2.0221,2.0415,-16.584999,9.7561,5.8824,4.5955,1.9417,5.7605,-5.89,9.7561,5.8824,0.0,-8.5308,3.746,-18.830999,-2.8986,-21.191999,-10.654,0.12698,-16.749001,14.226
-2.0221,3.9553,-21.462999,2.9268,0.98039,1.6828,0.0,4.7896,-1.0356,2.9268,0.98039,-1.9704,-12.322,-4.8254,-21.674999,-5.7971,-25.056,-6.8262,-2.7302,-14.778,14.226
0.82148,4.9123,-16.584999,1.9512,-1.9608,1.6828,-0.97087,4.7896,0.90615,1.9512,-1.9608,-2.9557,-12.322,-8.6349,-17.882999,-5.7971,-20.225,3.7002,5.8413,-10.837,16.139999
2.7172,8.74,-6.8293,-0.97561,-1.9608,-2.2006,0.97087,-0.06472,-1.0356,-0.97561,-1.9608,-1.9704,-3.7915,-5.7778,-8.4044,1.9324,-7.6651,-1.0845,13.46,-5.9113,20.924999
0.82148,11.611,0.97561,-1.9512,4.902,0.71197,4.8544,-3.9482,4.7896,-1.9512,4.902,1.9704,1.8957,-6.7302,1.0742,4.8309,2.963,0.82935,6.7937,1.9704,17.097
0.82148,9.697,1.9512,3.9024,8.8235,5.5663,7.767,-1.0356,8.6731,3.9024,8.8235,5.9113,4.7393,-12.444,7.7093,2.8986,6.8277,7.5279,8.6984,6.8966,10.399
0.82148,0.12759,-1.9512,10.732,13.725,7.5081,6.7961,1.877,10.615,10.732,13.725,6.8966,4.7393,-18.159,11.501,-5.7971,4.8953,5.614,10.603,7.8818,1.7863
2.7172,-8.4848,-5.8537,13.659,12.745,3.6246,6.7961,7.7023,6.7314,13.659,12.745,5.9113,2.8436,-19.111,11.501,-13.527,1.0306,8.4848,3.9365,7.8818,-11.611
8.4044,-6.571,-2.9268,13.659,15.686,4.5955,7.767,12.557,14.498,13.659,15.686,7.8818,6.6351,-8.6349,13.397,-9.6618,2.963,11.356,2.0317,10.837,-14.482
11.248,-6.571,0.0,13.659,15.686,5.5663,7.767,10.615,16.440001,13.659,15.686,7.8818,6.6351,0.88889,9.6051,-8.6957,0.06441,11.356,0.12698,6.8966,-17.351999
9.3523,-6.571,0.0,11.707,10.784,5.5663,2.9126,10.615,10.615,11.707,10.784,5.9113,4.7393,4.6984,2.0221,-7.7295,-5.7327,10.399,-1.7778,2.9557,-19.266001
12.196,-1.7863,6.8293,10.732,12.745,8.479,6.7961,10.615,9.644,10.732,12.745,9.8522,6.6351,13.27,0.12638,1.9324,-2.8341,9.4418,-1.7778,0.0,-9.697
14.092,7.7831,13.659,11.707,11.765,11.392,13.592,5.7605,13.528,11.707,11.765,12.808,8.5308,18.032,2.0221,10.628,3.9291,6.571,-4.6349,1.9704,-5.8692
11.248,13.525,14.634,4.878,9.8039,9.4498,16.504999,-0.06472,13.528,4.878,9.8039,12.808,5.6872,15.175,2.0221,12.56,5.8615,8.4848,0.12698,0.0,-3.9553
5.5608,13.525,9.7561,0.97561,3.9216,3.6246,11.65,-1.0356,8.6731,0.97561,3.9216,7.8818,-2.8436,5.6508,-0.82148,10.628,4.8953,3.7002,4.8889,-6.8966,-2.0415
4.613,12.568,3.9024,4.878,2.9412,3.6246,7.767,-2.0065,0.90615,4.878,2.9412,4.9261,-8.5308,-1.9683,-2.7172,8.6957,2.963,-4.9123,3.9365,-8.867,5.614
3.6651,9.697,0.97561,3.9024,-0.98039,0.71197,0.97087,-2.0065,0.90615,3.9024,-0.98039,1.9704,-6.6351,-4.8254,-2.7172,6.7633,1.9968,-7.7831,2.0317,-13.793,15.183
