C3,C4,Cz,F1,F2,F3,F4,F7,F8,Fp1,Fp2,Fz,O1,O2,P3,P4,Pz,T3,T4,T5,T6
-2.9557,4.9581,1.8482,-7.767,-2.0065,-6.2543,3.0,-13.724,-2.0667,-7.767,-2.0065,0.96154,18.931,21.528,6.0,12.871,7.9333,-5.0165,3.8003,3.9675,30.080999
-5.9113,3.9531,2.8383,-9.7087,-1.0356,-9.3471,1.0,-15.675,-0.06667,-9.7087,-1.0356,-2.8846,21.761,27.382,6.0,16.832001,9.9333,-7.9868,11.53,5.9187,34.910999
-7.8818,2.9481,1.8482,-11.65,-2.9773,-12.44,-1.0,-15.675,1.9333,-11.65,-2.9773,-3.8462,18.931,26.407,2.0,13.861,6.9333,-7.9868,9.5974,5.9187,32.979
-14.778,-2.0771,-6.0726,-17.476,-9.7735,-17.594999,-4.0,-18.601999,1.9333,-17.476,-9.7735,-8.6538,4.7799,15.675,-10.0,2.9703,-6.0667,-10.957,7.6651,-0.91057,23.316999
-17.733999,-7.1022,-11.023,-16.504999,-9.7735,-16.563999,-5.0,-18.601999,-1.0667,-16.504999,-9.7735,-8.6538,-12.201,1.0407,-20.0,-8.9109,-18.066999,-15.908,-3.9291,-9.6911,11.723
-15.764,-8.1072,-11.023,-8.7379,-4.9191,-11.409,-3.0,-13.724,-1.0667,-8.7379,-4.9191,-5.7692,-22.579,-8.7154,-23.0,-13.861,-23.066999,-16.898001,-5.8615,-16.52,3.0274
-14.778,-8.1072,-9.0429,-8.7379,-6.8608,-10.378,-4.0,-12.748,-3.0667,-8.7379,-6.8608,-5.7692,-30.125999,-14.569,-24.0,-15.842,-23.066999,-13.927,-6.8277,-23.35,-7.6006
-10.837,-5.0921,-5.0825,-9.7087,-8.8026,-8.3162,-6.0,-11.772,-6.0667,-9.7087,-8.8026,-5.7692,-33.898998,-19.447001,-23.0,-13.861,-19.066999,-7.9868,-5.8615,-28.228001,-14.364
0.0,1.943,3.8284,-5.8252,-4.9191,-0.06873,-2.0,-5.9187,-2.0667,-5.8252,-4.9191,0.0,-31.069,-19.447001,-13.0,-7.9208,-8.0667,-2.0462,-0.06441,-20.423,-17.261999
5.9113,4.9581,8.7789,-1.9417,-1.0356,5.0859,2.0,-2.0163,-4.0667,-1.9417,-1.0356,4.8077,-28.239,-23.35,-9.0,-4.9505,-1.0667,-12.937,-8.7601,-18.472,-25.958
6.8966,5.9631,11.749,0.0,1.877,7.1478,5.0,-0.06504,1.9333,0.0,1.877,6.7308,-19.747999,-25.301001,-5.0,-3.9604,2.9333,-9.967,-8.7601,-21.398001,-30.789
6.8966,6.9682,10.759,0.97087,4.7896,6.1168,7.0,-1.0407,2.9333,0.97087,4.7896,7.6923,-5.5975,-19.447001,1.0,-1.9802,5.9333,-5.0165,-1.0306,-12.618,-28.857
0.98522,2.9481,3.8284,-2.9126,0.90615,-0.06873,2.0,-4.9431,-2.0667,-2.9126,0.90615,0.96154,1.9497,-14.569,2.0,-1.9802,3.9333,2.9043,-6.8277,-2.8618,-22.093
-8.867,-3.0821,-7.0627,-8.7379,-3.9482,-9.3471,-5.0,-10.797,-1.0667,-8.7379,-3.9482,-7.6923,3.8365,-7.7398,-5.0,-3.9604,-3.0667,-10.957,-6.8277,-4.813,-13.398
-14.778,-8.1072,-13.993,-11.65,-7.8317,-15.533,-12.0,-14.699,-8.0667,-11.65,-7.8317,-15.385,8.5535,2.9919,-8.0,-2.9703,-7.0667,-15.908,-2.963,-7.7398,2.0612
-15.764,-9.1122,-16.964001,-12.621,-8.8026,-18.625,-13.0,-15.675,-5.0667,-12.621,-8.8026,-18.268999,12.327,11.772,-7.0,-0.9901,-9.0667,-15.908,4.7665,0.06504,13.655
-16.749001,-9.1122,-17.954,-13.592,-10.744,-19.656,-14.0,-14.699,-5.0667,-13.592,-10.744,-18.268999,13.27,15.675,-5.0,0.0,-9.0667,-10.957,1.868,8.8455,17.52
-18.719,-12.127,-18.944,-11.65,-9.7735,-20.687,-16.0,-14.699,-8.0667,-11.65,-9.7735,-18.268999,4.7799,9.8211,-10.0,-4.9505,-12.067,-5.0165,-3.9291,-0.91057,13.655
-18.719,-11.122,-15.974,-12.621,-8.8026,-19.656,-14.0,-15.675,-5.0667,-12.621,-8.8026,-16.346001,-7.4843,2.0163,-17.0,-7.9208,-15.067,-18.878,-6.8277,-16.52,8.8245
-17.733999,-13.132,-14.983,-14.563,-12.686,-18.625,-16.0,-17.625999,-12.067,-14.563,-12.686,-16.346001,-14.088,-0.91057,-18.0,-10.891,-16.066999,-20.858,-10.692,-19.447001,4.9597
-15.764,-15.142,-14.983,-10.68,-12.686,-16.563999,-17.0,-15.675,-14.067,-10.68,-12.686,-15.385,-18.805,-5.7886,-17.0,-12.871,-14.067,-7.9868,-20.354,-18.472,-2.7697
-2.9557,-2.0771,-0.13201,-0.97087,-0.06472,-6.2543,-5.0,-5.9187,-1.0667,-0.97087,-0.06472,-2.8846,-9.3711,2.0163,-4.0,0.0,0.93333,-2.0462,-2.963,-13.593,3.0274
0.0,2.9481,6.7987,-1.9417,-2.9773,-3.1615,-1.0,-3.9675,2.9333,-1.9417,-2.9773,0.0,-7.4843,2.0163,-1.0,5.9406,7.9333,-7.9868,0.90177,-11.642,1.095
1.9704,6.9682,10.759,-5.8252,-10.744,-0.06873,1.0,-4.9431,-7.0667,-5.8252,-10.744,2.8846,-3.7107,2.0163,2.0,9.901,12.933,-6.9967,-4.8953,-10.667,-0.83736
0.98522,1.943,7.7888,-0.97087,-4.9191,4.055,1.0,-4.9431,-15.067,-0.97087,-4.9191,4.8077,-6.5409,-6.7642,1.0,4.9505,10.933,-7.9868,-7.7939,-13.593,-16.296
-1.9704,-7.1022,0.85809,-1.9417,-3.9482,0.9622,-4.0,-7.8699,-13.067,-1.9417,-3.9482,0.96154,-8.4277,-14.569,-1.0,-2.9703,5.9333,-6.0066,-14.557,-13.593,-29.823
3.9409,-2.0771,4.8185,-2.9126,-2.9773,3.0241,-1.0,-5.9187,-6.0667,-2.9126,-2.9773,2.8846,1.0063,-8.7154,6.0,0.9901,8.9333,-1.0561,-16.49,-1.8862,-24.992001
4.9261,2.9481,6.7987,1.9417,-0.06472,4.055,2.0,-0.06504,-2.0667,1.9417,-0.06472,4.8077,8.5535,-3.8374,9.0,3.9604,9.9333,-2.0462,-6.8277,6.8943,-18.229
0.98522,2.9481,4.8185,1.9417,-1.0356,0.9622,3.0,-0.06504,-4.0667,1.9417,-1.0356,3.8462,10.44,-1.8862,9.0,4.9505,8.9333,-5.0165,-9.7262,14.699,-12.432
-3.9409,4.9581,2.8383,0.0,-2.0065,-1.0997,6.0,-2.9919,-0.06667,0.0,-2.0065,3.8462,12.327,3.9675,6.0,6.9307,8.9333,-4.0264,-8.7601,5.9187,-3.7359
-4.9261,4.9581,2.8383,-2.9126,-2.9773,-1.0997,7.0,-4.9431,5.9333,-2.9126,-2.9773,3.8462,11.384,6.8943,2.0,6.9307,6.9333,-7.9868,-0.06441,-3.8374,3.9936
0.98522,7.9732,7.7888,-2.9126,-1.0356,3.0241,9.0,-2.0163,0.93333,-2.9126,-1.0356,8.6538,10.44,8.8455,5.0,8.9109,7.9333,-4.0264,4.7665,1.0407,12.689
0.98522,5.9631,5.8086,-1.9417,-2.0065,1.9931,8.0,-1.0407,-1.0667,-1.9417,-2.0065,7.6923,7.6101,7.8699,4.0,6.9307,4.9333,0.92409,7.6651,8.8455,13.655
-4.9261,1.943,-0.13201,-3.8835,-2.9773,-2.1306,5.0,-4.9431,1.9333,-3.8835,-2.9773,2.8846,0.06289,4.9431,-5.0,1.9802,-3.0667,-4.0264,-0.06441,1.0407,8.8245
-8.867,-0.067,-3.1023,-3.8835,-2.9773,-4.1924,3.0,-5.9187,-3.0667,-3.8835,-2.9773,0.0,-3.7107,4.9431,-11.0,0.9901,-7.0667,-7.9868,-2.963,-6.7642,8.8245
-7.8818,-0.067,-4.0924,-3.8835,-3.9482,-3.1615,0.0,-3.9675,-4.0667,-3.8835,-3.9482,-1.9231,-3.7107,5.9187,-10.0,1.9802,-6.0667,-12.937,-0.06441,-6.7642,9.7907
0.0,-0.067,-1.1221,-1.9417,-4.9191,3.0241,0.0,1.8862,-2.0667,-1.9417,-4.9191,1.9231,-3.7107,5.9187,-4.0,2.9703,-2.0667,-0.06601,2.8341,-2.8618,6.8921
9.8522,3.9531,6.7987,0.97087,-2.0065,10.241,5.0,4.813,1.9333,0.97087,-2.0065,8.6538,-1.8239,6.8943,3.0,8.9109,6.9333,9.835,6.6989,-0.91057,6.8921
17.733999,10.988,15.71,2.9126,2.8479,14.364,10.0,3.8374,6.9333,2.9126,2.8479,15.385,-2.7673,5.9187,11.0,14.851,15.933,11.815,9.5974,1.0407,10.757
19.704,15.008,19.67,5.8252,4.7896,15.395,12.0,7.7398,1.9333,5.8252,4.7896,15.385,-2.7673,2.0163,14.0,16.832001,19.933001,16.766001,9.5974,0.06504,6.8921
13.793,9.9832,15.71,1.9417,-1.0356,11.271,6.0,7.7398,-4.0667,1.9417,-1.0356,10.577,-8.4277,-5.7886,9.0,11.881,15.933,11.815,-8.7601,-10.667,-1.8035
11.823,8.9782,14.719,3.8835,-0.06472,11.271,5.0,9.6911,-2.0667,3.8835,-0.06472,9.6154,-4.6541,-7.7398,9.0,10.891,14.933,-0.06601,-7.7939,-11.642,-3.7359
12.808,9.9832,14.719,4.8544,0.90615,10.241,3.0,9.6911,-1.0667,4.8544,0.90615,8.6538,8.5535,2.9919,16.0,15.842,19.933001,-1.0561,7.6651,-0.91057,2.0612
10.837,7.9732,12.739,-3.8835,-4.9191,4.055,-2.0,1.8862,-2.0667,-3.8835,-4.9191,1.9231,21.761,15.675,20.0,17.822001,22.933001,5.8746,4.7665,8.8455,7.8583
6.8966,1.943,6.7987,-4.8544,-9.7735,0.9622,-6.0,1.8862,-7.0667,-4.8544,-9.7735,-2.8846,23.648001,17.625999,16.0,11.881,15.933,14.785,0.90177,13.724,7.8583
-3.9409,-9.1122,-5.0825,-8.7379,-15.599,-6.2543,-12.0,-0.06504,-10.067,-8.7379,-15.599,-10.577,13.27,8.8455,2.0,-0.9901,-0.06667,3.8944,-6.8277,5.9187,3.0274
-14.778,-14.137,-15.974,-14.563,-15.599,-15.533,-16.0,-7.8699,-6.0667,-14.563,-15.599,-17.308001,4.7799,4.9431,-10.0,-6.9307,-11.067,-6.9967,-9.7262,0.06504,3.9936
-14.778,-14.137,-18.944,-13.592,-11.715,-15.533,-14.0,-7.8699,-3.0667,-13.592,-11.715,-17.308001,4.7799,7.8699,-10.0,-5.9406,-13.067,-3.0363,-6.8277,5.9187,8.8245
-15.764,-18.157,-21.914,-13.592,-13.657,-17.594999,-17.0,-7.8699,-13.067,-13.592,-13.657,-19.231001,-0.8805,2.0163,-14.0,-12.871,-20.066999,1.9142,-6.8277,3.9675,3.0274
-17.733999,-20.167999,-22.903999,-16.504999,-17.540001,-21.718,-20.0,-9.8211,-16.066999,-16.504999,-17.540001,-22.115,-10.314,-8.7154,-17.0,-17.822001,-23.066999,-4.0264,-5.8615,-1.8862,-2.7697
-13.793,-17.152,-18.944,-11.65,-12.686,-16.563999,-16.0,-6.8943,-11.067,-11.65,-12.686,-17.308001,-12.201,-12.618,-13.0,-15.842,-18.066999,-6.0066,-19.388,-7.7398,-15.33
-9.8522,-13.132,-12.013,-7.767,-8.8026,-10.378,-10.0,-4.9431,-8.0667,-7.767,-8.8026,-10.577,-11.258,-12.618,-9.0,-11.881,-10.067,-6.0066,-19.388,-5.7886,-19.195
-6.8966,-6.0972,-5.0825,-5.8252,-7.8317,-7.2852,-6.0,-2.9919,-4.0667,-5.8252,-7.8317,-5.7692,-13.145,-13.593,-7.0,-3.9604,-2.0667,-12.937,-5.8615,-9.6911,-13.398
-6.8966,-1.072,-0.13201,-3.8835,-2.9773,-6.2543,-3.0,-5.9187,-0.06667,-3.8835,-2.9773,-3.8462,-15.031,-15.545,-8.0,0.9901,1.9333,-9.967,-2.963,-21.398001,-9.533
-5.9113,0.93802,-0.13201,-4.8544,-2.9773,-7.2852,-2.0,-6.8943,-3.0667,-4.8544,-2.9773,-3.8462,-14.088,-14.569,-5.0,3.9604,3.9333,-4.0264,-6.8277,-17.496,-5.6683
0.98522,3.9531,4.8185,-0.97087,-0.06472,-0.06873,3.0,-0.06504,-0.06667,-0.97087,-0.06472,1.9231,-5.5975,-7.7398,3.0,8.9109,9.9333,-5.0165,-0.06441,-9.6911,-2.7697
6.8966,7.9732,10.759,2.9126,4.7896,5.0859,7.0,2.8618,3.9333,2.9126,4.7896,6.7308,4.7799,2.9919,8.0,12.871,14.933,-3.0363,4.7665,-2.8618,4.9597
1.9704,5.9631,8.7789,0.97087,1.877,0.9622,3.0,-0.06504,-0.06667,0.97087,1.877,3.8462,6.6667,7.8699,5.0,11.881,10.933,-5.0165,3.8003,-3.8374,10.757
-0.98522,1.943,1.8482,0.97087,0.90615,-1.0997,0.0,-0.06504,-1.0667,0.97087,0.90615,0.0,7.6101,10.797,0.0,7.9208,3.9333,-2.0462,2.8341,-3.8374,11.723
-1.9704,0.93802,-1.1221,1.9417,2.8479,-2.1306,1.0,0.91057,4.9333,1.9417,2.8479,-1.9231,11.384,14.699,-1.0,6.9307,-1.0667,3.8944,-1.0306,2.9919,14.622
-6.8966,-6.0972,-8.0528,-1.9417,-0.06472,-7.2852,-4.0,-2.0163,-1.0667,-1.9417,-0.06472,-6.7308,5.7233,6.8943,-6.0,-2.9703,-11.067,-2.0462,-3.9291,4.9431,6.8921
-16.749001,-15.142,-17.954,-9.7087,-9.7735,-16.563999,-14.0,-8.8455,-13.067,-9.7087,-9.7735,-16.346001,-2.7673,-5.7886,-15.0,-13.861,-21.066999,-13.927,-2.963,-0.91057,-1.8035
-20.690001,-17.152,-21.914,-11.65,-9.7735,-20.687,-16.0,-11.772,-6.0667,-11.65,-9.7735,-20.191999,-6.5409,-10.667,-19.0,-16.832001,-24.066999,-11.947,-1.9968,-2.8618,-6.6345
-20.690001,-13.132,-21.914,-10.68,-5.89,-20.687,-14.0,-12.748,1.9333,-10.68,-5.89,-20.191999,-5.5975,-6.7642,-15.0,-12.871,-18.066999,-9.967,-0.06441,-6.7642,-5.6683
-15.764,-12.127,-19.934,-8.7379,-7.8317,-17.594999,-17.0,-9.8211,-6.0667,-8.7379,-7.8317,-20.191999,-4.6541,-4.813,-10.0,-7.9208,-11.067,-14.917,-2.963,-3.8374,-2.7697
-12.808,-12.127,-15.974,-7.767,-10.744,-15.533,-19.0,-3.9675,-15.067,-7.767,-10.744,-19.231001,-5.5975,-4.813,-7.0,-5.9406,-7.0667,-5.0165,-2.963,-2.8618,-2.7697
-13.793,-15.142,-16.964001,-10.68,-14.628,-16.563999,-22.0,-4.9431,-17.066999,-10.68,-14.628,-21.153999,-10.314,-9.6911,-10.0,-7.9208,-9.0667,-5.0165,-6.8277,-9.6911,-7.6006
-12.808,-13.132,-14.983,-9.7087,-14.628,-15.533,-21.0,-5.9187,-14.067,-9.7087,-14.628,-20.191999,-11.258,-10.667,-8.0,-4.9505,-6.0667,0.92409,-6.8277,-6.7642,-3.7359
-8.867,-11.122,-11.023,-5.8252,-11.715,-12.44,-19.0,-2.9919,-15.067,-5.8252,-11.715,-17.308001,-10.314,-8.7154,-5.0,-2.9703,-2.0667,-2.0462,-15.523,-2.8618,-0.83736
-0.98522,-4.0871,-2.1122,-0.97087,-4.9191,-3.1615,-10.0,2.8618,-6.0667,-0.97087,-4.9191,-7.6923,-4.6541,0.06504,1.0,2.9703,4.9333,3.8944,-4.8953,1.0407,5.9259
5.9113,1.943,4.8185,0.97087,-1.0356,3.0241,-3.0,5.7886,-2.0667,0.97087,-1.0356,-0.96154,2.8931,6.8943,7.0,7.9208,9.9333,1.9142,4.7665,4.9431,10.757
9.8522,3.9531,8.7789,0.0,-1.0356,4.055,0.0,5.7886,-3.0667,0.0,-1.0356,1.9231,13.27,13.724,12.0,11.881,12.933,13.795,-0.06441,4.9431,13.655
10.837,4.9581,10.759,0.0,-2.9773,3.0241,-1.0,5.7886,-0.06667,0.0,-2.9773,0.96154,19.874001,16.65,14.0,12.871,13.933,-0.06601,0.90177,6.8943,13.655
7.8818,4.9581,8.7789,-1.9417,-5.89,0.9622,-1.0,4.813,-4.0667,-1.9417,-5.89,-0.96154,20.818001,15.675,13.0,12.871,11.933,2.9043,1.868,6.8943,11.723
2.9557,2.9481,4.8185,0.0,-4.9191,-0.06873,-1.0,4.813,-7.0667,0.0,-4.9191,-1.9231,17.044001,10.797,8.0,8.9109,6.9333,15.776,-1.0306,4.9431,8.8245
-3.9409,-1.072,-1.1221,-1.9417,-5.89,-5.2234,-5.0,0.91057,-8.0667,-1.9417,-5.89,-5.7692,10.44,5.9187,1.0,4.9505,0.93333,6.8647,-3.9291,9.8211,6.8921
-10.837,-4.0871,-5.0825,-5.8252,-5.89,-12.44,-7.0,-6.8943,-8.0667,-5.8252,-5.89,-10.577,6.6667,4.9431,-4.0,1.9802,-2.0667,-6.9967,-1.9968,4.9431,6.8921
-4.9261,0.93802,2.8383,-3.8835,-2.0065,-7.2852,-1.0,-4.9431,-3.0667,-3.8835,-2.0065,-2.8846,10.44,11.772,2.0,6.9307,4.9333,-5.0165,2.8341,6.8943,11.723
-4.9261,-0.067,1.8482,-2.9126,-1.0356,-5.2234,-1.0,-2.9919,-3.0667,-2.9126,-1.0356,-2.8846,3.8365,6.8943,0.0,2.9703,2.9333,-0.06601,-7.7939,-0.91057,4.9597
-6.8966,-3.0821,-1.1221,-5.8252,-3.9482,-8.3162,-5.0,-6.8943,-5.0667,-5.8252,-3.9482,-5.7692,-3.7107,0.06504,-4.0,-3.9604,-1.0667,-0.06601,-10.692,-3.8374,-1.8035
-2.9557,-0.067,4.8185,-4.8544,-2.9773,-5.2234,-2.0,-5.9187,-2.0667,-4.8544,-2.9773,-0.96154,-2.7673,2.0163,0.0,-1.9802,2.9333,-6.0066,-1.9968,1.0407,-0.83736
0.98522,0.93802,8.7789,0.0,1.877,-0.06873,2.0,-2.0163,4.9333,0.0,1.877,3.8462,-1.8239,-1.8862,0.0,-1.9802,2.9333,-2.0462,1.868,0.06504,-0.83736
4.9261,3.9531,10.759,1.9417,6.7314,5.0859,7.0,-0.06504,1.9333,1.9417,6.7314,7.6923,1.0063,-0.91057,5.0,2.9703,5.9333,-0.06601,2.8341,5.9187,-0.83736
10.837,11.993,15.71,2.9126,7.7023,8.1787,11.0,1.8862,0.93333,2.9126,7.7023,12.5,7.6101,5.9187,13.0,11.881,12.933,5.8746,4.7665,14.699,8.8245
19.704,24.054001,25.611,5.8252,8.6731,14.364,18.0,3.8374,10.933,5.8252,8.6731,18.268999,19.874001,20.552999,23.0,24.752001,22.933001,7.8548,12.496,23.48,24.283001
24.631001,27.069,30.561001,7.767,7.7023,18.488001,18.0,7.7398,10.933,7.767,7.7023,21.153999,29.308001,29.333,29.0,30.693001,27.933001,4.8845,21.191999,24.455,31.047001
21.674999,21.039,24.620001,5.8252,2.8479,15.395,12.0,6.7642,4.9333,5.8252,2.8479,16.346001,27.421,27.382,24.0,26.733,23.933001,12.805,14.428,14.699,27.181999
14.778,14.003,16.700001,0.97087,-1.0356,10.241,6.0,3.8374,-0.06667,0.97087,-1.0356,9.6154,20.818001,21.528,16.0,19.802,16.933001,12.805,10.564,8.8455,20.419001
11.823,12.998,14.719,2.9126,0.90615,10.241,7.0,3.8374,2.9333,2.9126,0.90615,8.6538,18.931,20.552999,14.0,16.832001,14.933,6.8647,1.868,8.8455,17.52
8.867,7.9732,10.759,1.9417,-1.0356,8.1787,3.0,3.8374,1.9333,1.9417,-1.0356,4.8077,15.157,15.675,12.0,11.881,11.933,3.8944,0.90177,12.748,14.622
2.9557,-0.067,1.8482,-2.9126,-3.9482,1.9931,-3.0,0.91057,-3.0667,-2.9126,-3.9482,-1.9231,8.5535,8.8455,4.0,2.9703,2.9333,5.8746,5.7327,9.8211,8.8245
-0.98522,-2.0771,-1.1221,-4.8544,-4.9191,-2.1306,-4.0,2.8618,-1.0667,-4.8544,-4.9191,-3.8462,3.8365,3.9675,-1.0,-2.9703,-3.0667,10.825,4.7665,8.8455,3.0274
-4.9261,-3.0821,-3.1023,-7.767,-6.8608,-7.2852,-6.0,-1.0407,-1.0667,-7.767,-6.8608,-8.6538,-1.8239,-1.8862,-6.0,-7.9208,-8.0667,2.9043,1.868,7.8699,-3.7359
-15.764,-14.137,-13.993,-12.621,-9.7735,-19.656,-14.0,-9.8211,-3.0667,-12.621,-9.7735,-17.308001,-15.031,-17.496,-17.0,-19.802,-20.066999,-11.947,-2.963,-2.8618,-19.195
-15.764,-15.142,-16.964001,-10.68,-9.7735,-18.625,-15.0,-5.9187,-7.0667,-10.68,-9.7735,-18.268999,-16.917999,-21.398001,-16.0,-22.771999,-21.066999,-8.9769,-8.7601,-3.8374,-20.160999
-8.867,-9.1122,-10.033,-7.767,-6.8608,-12.44,-11.0,-1.0407,-5.0667,-7.767,-6.8608,-12.5,-9.3711,-13.593,-6.0,-12.871,-11.067,6.8647,-3.9291,-0.91057,-7.6006
-1.9704,-3.0821,-1.1221,-6.7961,-5.89,-6.2543,-8.0,-1.0407,-4.0667,-6.7961,-5.89,-6.7308,-1.8239,-2.8618,3.0,-0.9901,0.93333,5.8746,0.90177,7.8699,-0.83736
0.98522,4.9581,6.7987,-6.7961,-6.8608,-5.2234,-4.0,-2.9919,-5.0667,-6.7961,-6.8608,-3.8462,8.5535,9.8211,11.0,10.891,11.933,2.9043,5.7327,7.8699,11.723
4.9261,10.988,9.769,-7.767,-5.89,-4.1924,0.0,-2.9919,2.9333,-7.767,-5.89,-0.96154,19.874001,22.504,17.0,19.802,19.933001,5.8746,12.496,13.724,22.351
6.8966,8.9782,6.7987,-5.8252,-4.9191,-1.0997,-1.0,-0.06504,3.9333,-5.8252,-4.9191,-0.96154,29.308001,31.285,20.0,22.771999,20.933001,10.825,14.428,20.552999,26.216
0.0,-1.072,-1.1221,-4.8544,-6.8608,-3.1615,-7.0,-1.0407,-1.0667,-4.8544,-6.8608,-5.7692,24.591,26.407,12.0,13.861,11.933,3.8944,-2.963,11.772,20.419001
-1.9704,-2.0771,-0.13201,-2.9126,-4.9191,-1.0997,-5.0,-2.9919,-6.0667,-2.9126,-4.9191,-2.8846,18.931,19.577,6.0,7.9208,6.9333,0.92409,-4.8953,5.9187,13.655
0.0,-1.072,2.8383,0.0,-2.0065,3.0241,0.0,-0.06504,-5.0667,0.0,-2.0065,2.8846,12.327,13.724,5.0,3.9604,3.9333,5.8746,3.8003,7.8699,8.8245
1.9704,-2.0771,2.8383,1.9417,0.90615,7.1478,2.0,0.91057,0.93333,1.9417,0.90615,5.7692,2.8931,4.9431,-1.0,-1.9802,-1.0667,2.9043,5.7327,0.06504,2.0612
2.9557,-1.072,0.85809,3.8835,4.7896,8.1787,4.0,1.8862,6.9333,3.8835,4.7896,6.7308,-1.8239,-2.8618,-2.0,-5.9406,-5.0667,-0.06601,5.7327,0.06504,-3.7359
6.8966,1.943,2.8383,4.8544,6.7314,10.241,5.0,1.8862,4.9333,4.8544,6.7314,8.6538,1.9497,-0.91057,3.0,-2.9703,-0.06667,10.825,6.6989,5.9187,-4.7021
10.837,2.9481,5.8086,4.8544,4.7896,10.241,5.0,2.8618,-0.06667,4.8544,4.7896,8.6538,4.7799,2.0163,8.0,1.9802,5.9333,9.835,8.6312,6.8943,-4.7021
14.778,3.9531,8.7789,7.767,6.7314,13.333,6.0,6.7642,-0.06667,7.767,6.7314,10.577,2.8931,0.06504,13.0,3.9604,9.9333,15.776,4.7665,12.748,-8.5668
10.837,1.943,7.7888,5.8252,3.8188,9.2096,4.0,5.7886,-3.0667,5.8252,3.8188,7.6923,-0.8805,-5.7886,9.0,0.9901,7.9333,8.8449,0.90177,13.724,-12.432
4.9261,0.93802,4.8185,1.9417,3.8188,4.055,3.0,0.91057,0.93333,1.9417,3.8188,4.8077,-5.5975,-12.618,3.0,-2.9703,2.9333,1.9142,-3.9291,1.0407,-16.296
5.9113,3.9531,5.8086,-2.9126,-1.0356,1.9931,1.0,-2.9919,-3.0667,-2.9126,-1.0356,1.9231,-3.7107,-10.667,5.0,0.0,4.9333,6.8647,-2.963,2.9919,-12.432
8.867,5.9631,5.8086,-1.9417,-2.9773,3.0241,1.0,3.8374,-6.0667,-1.9417,-2.9773,1.9231,1.0063,1.0407,7.0,5.9406,7.9333,7.8548,-6.8277,5.9187,-0.83736
3.9409,-1.072,-1.1221,-4.8544,-4.9191,-1.0997,-3.0,-0.06504,-5.0667,-4.8544,-4.9191,-2.8846,0.06289,5.9187,0.0,3.9604,1.9333,-3.0363,-2.963,-3.8374,4.9597
-1.9704,-6.0972,-8.0528,-11.65,-10.744,-8.3162,-8.0,-4.9431,-6.0667,-11.65,-10.744,-8.6538,-0.8805,5.9187,-5.0,0.0,-4.0667,1.9142,0.90177,-6.7642,5.9259
0.0,-5.0921,-6.0726,-9.7087,-10.744,-6.2543,-7.0,-2.9919,-7.0667,-9.7087,-10.744,-6.7308,1.9497,7.8699,-5.0,-0.9901,-5.0667,12.805,-1.9968,-5.7886,7.8583
2.9557,-3.0821,-3.1023,-4.8544,-5.89,-1.0997,-4.0,-0.06504,-5.0667,-4.8544,-5.89,-1.9231,-2.7673,4.9431,-4.0,-2.9703,-7.0667,13.795,-1.0306,1.0407,7.8583
1.9704,-3.0821,-3.1023,-2.9126,-4.9191,1.9931,-1.0,0.91057,-3.0667,-2.9126,-4.9191,0.0,-7.4843,-1.8862,-7.0,-6.9307,-11.067,-2.0462,-0.06441,-4.813,4.9597
0.0,-6.0972,-5.0825,-2.9126,-5.89,3.0241,-1.0,0.91057,-5.0667,-2.9126,-5.89,0.96154,-9.3711,-5.7886,-10.0,-11.881,-14.067,-5.0165,-2.963,-14.569,-3.7359
1.9704,-7.1022,-4.0924,-0.97087,-2.9773,3.0241,1.0,2.8618,-3.0667,-0.97087,-2.9773,0.96154,-8.4277,-11.642,-6.0,-15.842,-13.067,3.8944,-3.9291,-8.7154,-15.33
4.9261,-6.0972,-0.13201,-0.97087,-2.9773,4.055,2.0,4.813,2.9333,-0.97087,-2.9773,2.8846,-9.3711,-17.496,-1.0,-15.842,-9.0667,3.8944,-3.9291,0.06504,-23.059999
10.837,-2.0771,4.8185,-1.9417,-2.9773,7.1478,5.0,5.7886,-1.0667,-1.9417,-2.9773,6.7308,-6.5409,-18.472,5.0,-12.871,-3.0667,6.8647,-4.8953,9.8211,-27.889999
13.793,2.9481,8.7789,0.97087,0.90615,11.271,9.0,5.7886,-1.0667,0.97087,0.90615,10.577,-2.7673,-16.52,9.0,-7.9208,2.9333,15.776,-9.7262,8.8455,-25.958
14.778,9.9832,13.729,1.9417,2.8479,12.302,12.0,5.7886,4.9333,1.9417,2.8479,12.5,2.8931,-9.6911,11.0,1.9802,9.9333,15.776,0.90177,5.9187,-15.33
14.778,14.003,15.71,0.97087,0.90615,11.271,11.0,3.8374,3.9333,0.97087,0.90615,12.5,5.7233,-3.8374,12.0,9.901,13.933,8.8449,12.496,8.8455,-6.6345
12.808,14.003,13.729,0.97087,0.90615,9.2096,9.0,3.8374,3.9333,0.97087,0.90615,10.577,3.8365,-2.8618,9.0,11.881,11.933,6.8647,8.6312,5.9187,-0.83736
8.867,9.9832,9.769,0.0,-1.0356,6.1168,5.0,4.813,-1.0667,0.0,-1.0356,6.7308,0.06289,-2.8618,6.0,9.901,6.9333,0.92409,6.6989,9.8211,3.9936
0.98522,-0.067,0.85809,-1.9417,-2.9773,0.9622,0.0,1.8862,-3.0667,-1.9417,-2.9773,1.9231,-2.7673,-2.8618,-4.0,1.9802,-3.0667,0.92409,0.90177,5.9187,6.8921
-3.9409,-7.1022,-6.0726,-3.8835,-4.9191,-3.1615,-5.0,0.91057,-4.0667,-3.8835,-4.9191,-4.8077,-3.7107,2.9919,-9.0,-2.9703,-9.0667,6.8647,0.90177,-4.813,6.8921
0.0,-7.1022,-6.0726,-2.9126,-4.9191,-0.06873,-5.0,4.813,-2.0667,-2.9126,-4.9191,-3.8462,-1.8239,7.8699,-6.0,-4.9505,-9.0667,9.835,0.90177,-3.8374,7.8583
0.0,-9.1122,-5.0825,-4.8544,-8.8026,-2.1306,-8.0,0.91057,-6.0667,-4.8544,-8.8026,-5.7692,-5.5975,2.9919,-7.0,-8.9109,-9.0667,10.825,-4.8953,-3.8374,2.0612
-4.9261,-13.132,-9.0429,-7.767,-11.715,-8.3162,-14.0,-4.9431,-11.067,-7.767,-11.715,-10.577,-10.314,-0.91057,-10.0,-9.901,-10.067,-1.0561,-7.7939,-6.7642,0.12882
-4.9261,-8.1072,-8.0528,-7.767,-9.7735,-8.3162,-12.0,-5.9187,-11.067,-7.767,-9.7735,-9.6154,-8.4277,1.0407,-7.0,-5.9406,-7.0667,-7.9868,-3.9291,-6.7642,1.095
-2.9557,-3.0821,-6.0726,-7.767,-9.7735,-7.2852,-7.0,-4.9431,-8.0667,-7.767,-9.7735,-7.6923,-5.5975,-1.8862,-3.0,-4.9505,-5.0667,-0.06601,-4.8953,-4.813,-0.83736
-1.9704,-1.072,-6.0726,-6.7961,-5.89,-4.1924,-3.0,-4.9431,2.9333,-6.7961,-5.89,-5.7692,-5.5975,-7.7398,-1.0,-4.9505,-4.0667,-5.0165,6.6989,-1.8862,-3.7359
-0.98522,-1.072,-4.0924,-5.8252,-4.9191,-0.06873,-2.0,-3.9675,2.9333,-5.8252,-4.9191,-2.8846,-5.5975,-13.593,-1.0,-6.9307,-4.0667,-5.0165,0.90177,-3.8374,-11.465
0.98522,-1.072,-1.1221,-1.9417,-5.89,1.9931,-3.0,-1.0407,-4.0667,-1.9417,-5.89,0.0,-8.4277,-19.447001,-3.0,-7.9208,-5.0667,-1.0561,-4.8953,-2.8618,-19.195
-0.98522,-1.072,-0.13201,-1.9417,-3.9482,-0.06873,-2.0,-2.9919,-4.0667,-1.9417,-3.9482,0.0,-11.258,-22.374001,-4.0,-6.9307,-5.0667,-3.0363,-0.06441,-0.91057,-20.160999
-0.98522,-0.067,0.85809,-1.9417,-2.9773,-1.0997,-1.0,-5.9187,-3.0667,-1.9417,-2.9773,0.0,-10.314,-18.472,-3.0,-3.9604,-3.0667,-5.0165,0.90177,2.0163,-15.33
1.9704,2.9481,3.8284,-0.97087,-2.9773,1.9931,0.0,-1.0407,-3.0667,-0.97087,-2.9773,1.9231,-5.5975,-11.642,-1.0,0.0,-0.06667,-2.0462,3.8003,-0.91057,-9.533
0.98522,1.943,1.8482,-1.9417,-3.9482,5.0859,0.0,0.91057,-3.0667,-1.9417,-3.9482,1.9231,-0.8805,-4.813,-2.0,0.9901,-1.0667,1.9142,2.8341,-5.7886,-1.8035
1.9704,-1.072,-2.1122,-0.97087,-2.9773,7.1478,-1.0,3.8374,-4.0667,-0.97087,-2.9773,1.9231,4.7799,3.9675,0.0,0.9901,-3.0667,6.8647,3.8003,-0.91057,7.8583
7.8818,-4.0871,-3.1023,2.9126,1.877,9.2096,0.0,7.7398,-0.06667,2.9126,1.877,2.8846,9.4969,12.748,7.0,2.9703,-1.0667,13.795,0.90177,12.748,15.588
7.8818,-5.0921,-3.1023,0.97087,0.90615,6.1168,0.0,4.813,0.93333,0.97087,0.90615,1.9231,7.6101,13.724,7.0,1.9802,-0.06667,6.8647,-2.963,10.797,14.622
4.9261,-5.0921,-1.1221,-1.9417,-2.9773,3.0241,-3.0,-0.06504,-3.0667,-1.9417,-2.9773,0.0,0.06289,8.8455,1.0,0.9901,-1.0667,2.9043,-0.06441,1.0407,9.7907
5.9113,-3.0821,1.8482,0.97087,-2.0065,7.1478,-1.0,4.813,-3.0667,0.97087,-2.0065,2.8846,-4.6541,6.8943,-1.0,0.9901,-0.06667,6.8647,5.7327,-1.8862,7.8583
5.9113,-4.0871,-0.13201,2.9126,0.90615,10.241,0.0,7.7398,0.93333,2.9126,0.90615,2.8846,-5.5975,2.9919,-1.0,-2.9703,-1.0667,9.835,-6.8277,-1.8862,1.095
6.8966,-5.0921,-1.1221,0.0,-1.0356,7.1478,-2.0,5.7886,-1.0667,0.0,-1.0356,0.0,-6.5409,-4.813,1.0,-6.9307,-2.0667,9.835,-5.8615,2.0163,-5.6683
6.8966,-3.0821,1.8482,-1.9417,-2.0065,3.0241,-2.0,3.8374,4.9333,-1.9417,-2.0065,-1.9231,-4.6541,-8.7154,5.0,-7.9208,-1.0667,2.9043,-0.06441,5.9187,-10.499
4.9261,-2.0771,2.8383,-0.97087,-2.0065,3.0241,-2.0,4.813,-1.0667,-0.97087,-2.0065,-0.96154,-4.6541,-15.545,4.0,-10.891,-1.0667,8.8449,-2.963,7.8699,-20.160999
-1.9704,-6.0972,-3.1023,-2.9126,-5.89,-0.06873,-5.0,0.91057,-6.0667,-2.9126,-5.89,-3.8462,-14.088,-26.275999,-5.0,-15.842,-8.0667,9.835,-3.9291,-3.8374,-29.823
-4.9261,-9.1122,-8.0528,-2.9126,-5.89,-2.1306,-7.0,-2.0163,-3.0667,-2.9126,-5.89,-6.7308,-22.579,-30.179001,-13.0,-17.822001,-14.067,-6.9967,-9.7262,-18.472,-26.924
-4.9261,-7.1022,-7.0627,0.97087,-2.9773,-0.06873,-4.0,-0.06504,-3.0667,0.97087,-2.9773,-3.8462,-24.465,-25.301001,-15.0,-14.851,-15.067,-6.0066,-7.7939,-19.447001,-18.229
-5.9113,-1.072,-3.1023,2.9126,1.877,0.9622,1.0,-0.06504,4.9333,2.9126,1.877,0.0,-21.635,-17.496,-16.0,-9.901,-14.067,-2.0462,1.868,-16.52,-4.7021
-4.9261,-0.067,-4.0924,1.9417,1.877,-0.06873,1.0,-0.06504,2.9333,1.9417,1.877,0.0,-15.031,-6.7642,-13.0,-3.9604,-11.067,2.9043,5.7327,-12.618,5.9259
-3.9409,-5.0921,-9.0429,-0.97087,-2.9773,-2.1306,-4.0,0.91057,-2.0667,-0.97087,-2.9773,-4.8077,-9.3711,0.06504,-10.0,-2.9703,-11.067,4.8845,3.8003,-5.7886,8.8245
-5.9113,-8.1072,-13.003,-3.8835,-5.89,-4.1924,-8.0,-2.9919,-3.0667,-3.8835,-5.89,-7.6923,-7.4843,0.06504,-10.0,-4.9505,-13.067,-6.9967,-1.9968,-0.91057,8.8245
-4.9261,-4.0871,-9.0429,-0.97087,-1.0356,-2.1306,-4.0,-3.9675,0.93333,-0.97087,-1.0356,-3.8462,-1.8239,5.9187,-5.0,-1.9802,-9.0667,-6.9967,1.868,4.9431,13.655
-6.8966,-8.1072,-10.033,-2.9126,-1.0356,-6.2543,-6.0,-6.8943,-3.0667,-2.9126,-1.0356,-6.7308,0.06289,7.8699,-5.0,-2.9703,-8.0667,-7.9868,-4.8953,1.0407,12.689
-7.8818,-12.127,-13.003,-4.8544,-3.9482,-10.378,-11.0,-8.8455,-7.0667,-4.8544,-3.9482,-11.538,1.0063,4.9431,-5.0,-4.9505,-7.0667,0.92409,-8.7601,-1.8862,5.9259
-1.9704,-7.1022,-8.0528,-2.9126,-1.0356,-6.2543,-6.0,-5.9187,-4.0667,-2.9126,-1.0356,-6.7308,5.7233,7.8699,0.0,0.0,-0.06667,0.92409,-0.06441,1.0407,3.0274
3.9409,2.9481,3.8284,1.9417,1.877,1.9931,2.0,-1.0407,0.93333,1.9417,1.877,1.9231,5.7233,7.8699,4.0,5.9406,6.9333,-3.0363,-4.8953,-1.8862,2.0612
3.9409,3.9531,7.7888,4.8544,5.7605,6.1168,6.0,0.91057,4.9333,4.8544,5.7605,5.7692,-4.6541,-4.813,0.0,1.9802,3.9333,3.8944,-5.8615,-2.8618,-8.5668
2.9557,-2.0771,3.8284,6.7961,6.7314,9.2096,4.0,4.813,0.93333,6.7961,6.7314,6.7308,-16.917999,-16.52,-9.0,-6.9307,-3.0667,4.8845,-2.963,-12.618,-23.059999
1.9704,-6.0972,-1.1221,7.767,6.7314,8.1787,2.0,6.7642,-1.0667,7.767,6.7314,4.8077,-28.239,-27.252001,-14.0,-13.861,-10.067,-4.0264,-4.8953,-20.423,-29.823
4.9261,-3.0821,1.8482,7.767,7.7023,8.1787,5.0,7.7398,2.9333,7.767,7.7023,5.7692,-28.239,-25.301001,-9.0,-11.881,-8.0667,-6.9967,-4.8953,-23.35,-28.857
3.9409,-1.072,4.8185,8.7379,7.7023,7.1478,5.0,5.7886,4.9333,8.7379,7.7023,6.7308,-24.465,-22.374001,-6.0,-8.9109,-5.0667,-0.06601,-11.659,-19.447001,-24.025999
2.9557,1.943,4.8185,6.7961,7.7023,7.1478,6.0,1.8862,8.9333,6.7961,7.7023,5.7692,-17.862,-15.545,-3.0,-0.9901,-1.0667,-1.0561,-3.9291,-10.667,-11.465
7.8818,10.988,10.759,8.7379,9.644,10.241,10.0,2.8618,9.9333,8.7379,9.644,10.577,-4.6541,1.0407,7.0,12.871,10.933,-3.0363,13.462,-1.8862,8.8245
12.808,19.028,17.690001,11.65,12.557,14.364,15.0,6.7642,13.933,11.65,12.557,16.346001,9.4969,14.699,16.0,24.752001,21.933001,3.8944,17.327,9.8211,23.316999
13.793,22.044001,20.66,12.621,12.557,15.395,18.0,7.7398,12.933,12.621,12.557,19.231001,17.044001,21.528,18.0,27.723,24.933001,13.795,16.361,12.748,32.979
4.9261,14.003,13.729,9.7087,8.6731,11.271,12.0,7.7398,4.9333,9.7087,8.6731,12.5,16.101,19.577,9.0,19.802,15.933,-5.0165,12.496,1.0407,26.216
0.98522,4.9581,4.8185,6.7961,4.7896,7.1478,5.0,3.8374,-1.0667,6.7961,4.7896,6.7308,15.157,16.65,4.0,10.891,5.9333,-8.9769,-2.963,1.0407,20.419001
-0.98522,0.93802,-3.1023,5.8252,1.877,3.0241,1.0,1.8862,-1.0667,5.8252,1.877,2.8846,9.4969,9.8211,-1.0,1.9802,-4.0667,-1.0561,-8.7601,3.9675,17.52
-2.9557,-4.0871,-7.0627,6.7961,1.877,3.0241,1.0,3.8374,-1.0667,6.7961,1.877,1.9231,1.0063,-1.8862,-5.0,-6.9307,-12.067,-6.9967,-1.9968,2.9919,5.9259
-2.9557,-8.1072,-7.0627,8.7379,2.8479,5.0859,0.0,4.813,-3.0667,8.7379,2.8479,3.8462,-3.7107,-8.7154,-6.0,-13.861,-15.067,6.8647,-2.963,0.06504,-5.6683
-0.98522,-10.117,-7.0627,11.65,6.7314,8.1787,0.0,4.813,-4.0667,11.65,6.7314,5.7692,-9.3711,-15.545,-6.0,-17.822001,-16.066999,2.9043,-6.8277,0.06504,-16.296
0.98522,-9.1122,-5.0825,11.65,7.7023,9.2096,1.0,4.813,-3.0667,11.65,7.7023,6.7308,-13.145,-19.447001,-5.0,-17.822001,-11.067,2.9043,-8.7601,-5.7886,-26.924
4.9261,-3.0821,1.8482,14.563,12.557,12.302,7.0,5.7886,2.9333,14.563,12.557,11.538,-13.145,-17.496,-1.0,-10.891,-3.0667,1.9142,-4.8953,-5.7886,-22.093
3.9409,1.943,5.8086,13.592,13.528,11.271,10.0,4.813,7.9333,13.592,13.528,12.5,-19.747999,-20.423,-2.0,-4.9505,0.93333,4.8845,0.90177,-6.7642,-16.296
0.98522,1.943,3.8284,9.7087,9.644,7.1478,8.0,1.8862,6.9333,9.7087,9.644,9.6154,-24.465,-21.398001,-6.0,-3.9604,0.93333,-6.0066,-3.9291,-14.569,-22.093
6.8966,6.9682,6.7987,10.68,10.615,10.241,11.0,4.813,8.9333,10.68,10.615,12.5,-14.088,-6.7642,0.0,4.9505,6.9333,-9.967,-5.8615,-14.569,-14.364
10.837,11.993,9.769,14.563,13.528,13.333,13.0,8.7154,9.9333,14.563,13.528,15.385,-3.7107,7.8699,8.0,13.861,12.933,5.8746,4.7665,-2.8618,4.9597
13.793,18.023001,16.700001,14.563,15.469,16.426001,15.0,9.6911,9.9333,14.563,15.469,17.308001,11.384,24.455,17.0,24.752001,20.933001,0.92409,17.327,7.8699,25.25
16.749001,24.054001,24.620001,16.504999,16.440001,18.488001,19.0,12.618,9.9333,16.504999,16.440001,22.115,24.591,37.138,23.0,32.673,26.933001,11.815,21.191999,12.748,37.810001
7.8818,16.013,15.71,13.592,12.557,11.271,14.0,9.6911,4.9333,13.592,12.557,14.423,22.704,33.236,13.0,22.771999,16.933001,9.835,13.462,2.9919,31.047001
-5.9113,-0.067,-3.1023,5.8252,4.7896,-2.1306,1.0,0.91057,0.93333,5.8252,4.7896,0.0,11.384,17.625999,-1.0,4.9505,-1.0667,-1.0561,1.868,2.0163,15.588
-5.9113,-2.0771,-5.0825,2.9126,0.90615,-3.1615,-3.0,-0.06504,-4.0667,2.9126,0.90615,-1.9231,14.214,16.65,1.0,0.9901,-3.0667,-0.06601,-0.06441,8.8455,14.622
-5.9113,-6.0972,-6.0726,0.97087,-2.9773,-4.1924,-7.0,1.8862,-7.0667,0.97087,-2.9773,-5.7692,11.384,9.8211,0.0,-3.9604,-6.0667,0.92409,-3.9291,8.8455,8.8245
-4.9261,-7.1022,-6.0726,0.97087,-2.9773,-5.2234,-7.0,2.8618,-8.0667,0.97087,-2.9773,-5.7692,6.6667,3.9675,-1.0,-5.9406,-6.0667,-1.0561,-6.8277,4.9431,3.0274
-1.9704,-1.072,-3.1023,3.8835,1.877,-1.0997,-1.0,2.8618,-0.06667,3.8835,1.877,-0.96154,7.6101,5.9187,2.0,-0.9901,-1.0667,-4.0264,-0.06441,1.0407,3.9936
-3.9409,-2.0771,-5.0825,3.8835,1.877,-1.0997,0.0,1.8862,0.93333,3.8835,1.877,-1.9231,4.7799,0.06504,2.0,-1.9802,-0.06667,-4.0264,0.90177,0.06504,-4.7021
-4.9261,-4.0871,-6.0726,4.8544,-0.06472,-0.06873,-3.0,1.8862,-4.0667,4.8544,-0.06472,-2.8846,-0.8805,-6.7642,0.0,-3.9604,-2.0667,0.92409,-1.9968,3.9675,-10.499
-1.9704,-5.0921,-5.0825,5.8252,0.90615,3.0241,-3.0,4.813,-6.0667,5.8252,0.90615,-0.96154,-3.7107,-10.667,1.0,-4.9505,-2.0667,3.8944,-7.7939,10.797,-14.364
-0.98522,-3.0821,-5.0825,6.7961,3.8188,4.055,0.0,5.7886,1.9333,6.7961,3.8188,0.96154,-7.4843,-12.618,-3.0,-5.9406,-4.0667,-1.0561,-9.7262,0.06504,-15.33
-2.9557,0.93802,-6.0726,6.7961,4.7896,4.055,4.0,4.813,2.9333,6.7961,4.7896,3.8462,-8.4277,-10.667,-7.0,-3.9604,-5.0667,-5.0165,0.90177,-10.667,-10.499
-0.98522,1.943,-4.0924,6.7961,4.7896,6.1168,7.0,7.7398,0.93333,6.7961,4.7896,5.7692,-5.5975,-6.7642,-5.0,-1.9802,-3.0667,8.8449,7.6651,-5.7886,-10.499
2.9557,2.9481,-0.13201,7.767,6.7314,8.1787,8.0,9.6911,1.9333,7.767,6.7314,8.6538,-0.8805,-0.91057,0.0,0.9901,-0.06667,5.8746,5.7327,2.0163,-4.7021
4.9261,3.9531,2.8383,10.68,9.644,11.271,10.0,10.667,7.9333,10.68,9.644,10.577,1.9497,4.9431,4.0,4.9505,3.9333,-4.0264,2.8341,-0.91057,3.0274
5.9113,4.9581,4.8185,10.68,10.615,11.271,12.0,9.6911,9.9333,10.68,10.615,12.5,3.8365,7.8699,7.0,5.9406,6.9333,-3.0363,3.8003,0.06504,6.8921
7.8818,8.9782,8.7789,12.621,12.557,12.302,15.0,8.7154,13.933,12.621,12.557,15.385,8.5535,11.772,11.0,8.9109,10.933,-4.0264,13.462,1.0407,12.689
9.8522,11.993,12.739,11.65,12.557,11.271,16.0,8.7154,11.933,11.65,12.557,15.385,11.384,12.748,15.0,11.881,13.933,6.8647,14.428,10.797,15.588
6.8966,8.9782,8.7789,7.767,9.644,6.1168,11.0,4.813,7.9333,7.767,9.644,9.6154,9.4969,8.8455,11.0,8.9109,10.933,7.8548,11.53,7.8699,12.689
4.9261,7.9732,5.8086,4.8544,4.7896,3.0241,7.0,1.8862,7.9333,4.8544,4.7896,5.7692,14.214,10.797,9.0,9.901,8.9333,-1.0561,11.53,3.9675,15.588
6.8966,8.9782,6.7987,4.8544,2.8479,5.0859,5.0,4.813,4.9333,4.8544,2.8479,5.7692,22.704,18.601999,15.0,14.851,13.933,5.8746,6.6989,15.675,18.486
5.9113,3.9531,3.8284,2.9126,0.90615,3.0241,0.0,6.7642,-2.0667,2.9126,0.90615,1.9231,22.704,17.625999,16.0,12.871,11.933,8.8449,3.8003,25.431,15.588
0.98522,-1.072,-1.1221,0.0,-1.0356,-2.1306,-5.0,3.8374,-2.0667,0.0,-1.0356,-3.8462,11.384,5.9187,8.0,3.9604,3.9333,6.8647,3.8003,18.601999,4.9597
0.0,-2.0771,-2.1122,0.0,-2.9773,-1.0997,-4.0,4.813,-0.06667,0.0,-2.9773,-2.8846,5.7233,0.06504,1.0,-2.9703,-2.0667,-12.937,3.8003,7.8699,-3.7359
-1.9704,-1.072,-2.1122,0.97087,-1.0356,-0.06873,-2.0,1.8862,5.9333,0.97087,-1.0356,-0.96154,1.0063,-6.7642,-4.0,-6.9307,-7.0667,-7.9868,10.564,4.9431,-0.83736
-6.8966,-7.1022,-6.0726,-0.97087,-3.9482,-3.1615,-6.0,-2.0163,-3.0667,-0.97087,-3.9482,-3.8462,-8.4277,-15.545,-11.0,-14.851,-15.067,3.8944,-1.9968,-0.91057,-10.499
-3.9409,-6.0972,-3.1023,-0.97087,-3.9482,-2.1306,-5.0,-1.0407,-6.0667,-0.97087,-3.9482,-3.8462,-8.4277,-13.593,-7.0,-11.881,-11.067,-2.0462,-2.963,-0.91057,-13.398
4.9261,3.9531,7.7888,3.8835,-0.06472,3.0241,1.0,1.8862,-0.06667,3.8835,-0.06472,2.8846,0.06289,0.06504,4.0,0.9901,2.9333,-1.0561,3.8003,2.0163,0.12882
13.793,11.993,18.68,10.68,6.7314,10.241,8.0,6.7642,2.9333,10.68,6.7314,11.538,8.5535,12.748,15.0,15.842,17.933001,4.8845,9.5974,8.8455,13.655
15.764,15.008,21.65,10.68,7.7023,12.302,10.0,6.7642,2.9333,10.68,7.7023,13.462,14.214,19.577,19.0,21.782,23.933001,4.8845,8.6312,13.724,18.486
9.8522,16.013,17.690001,8.7379,6.7314,8.1787,10.0,5.7886,5.9333,8.7379,6.7314,10.577,20.818001,25.431,19.0,22.771999,22.933001,10.825,3.8003,16.65,23.316999
-1.9704,9.9832,7.7888,4.8544,2.8479,-1.0997,5.0,-0.06504,-0.06667,4.8544,2.8479,2.8846,18.931,22.504,8.0,16.832001,12.933,7.8548,4.7665,5.9187,19.452
-4.9261,4.9581,4.8185,2.9126,-0.06472,-2.1306,3.0,-2.0163,-1.0667,2.9126,-0.06472,1.9231,15.157,15.675,1.0,10.891,5.9333,0.92409,8.6312,-1.8862,12.689
-2.9557,0.93802,3.8284,0.97087,-2.0065,1.9931,2.0,-1.0407,0.93333,0.97087,-2.0065,2.8846,11.384,10.797,-2.0,5.9406,1.9333,-4.0264,6.6989,-3.8374,11.723
-1.9704,-2.0771,0.85809,0.97087,-1.0356,3.0241,1.0,1.8862,2.9333,0.97087,-1.0356,1.9231,2.8931,2.9919,-5.0,0.0,-4.0667,-5.0165,9.5974,1.0407,5.9259
0.0,-1.072,0.85809,4.8544,2.8479,5.0859,3.0,6.7642,4.9333,4.8544,2.8479,3.8462,-1.8239,-6.7642,-7.0,-7.9208,-10.067,-8.9769,6.6989,1.0407,-3.7359
3.9409,0.93802,5.8086,8.7379,7.7023,9.2096,8.0,9.6911,5.9333,8.7379,7.7023,9.6154,-0.8805,-9.6911,-3.0,-10.891,-9.0667,7.8548,4.7665,8.8455,-8.5668
4.9261,-0.067,5.8086,9.7087,7.7023,8.1787,7.0,8.7154,4.9333,9.7087,7.7023,9.6154,-2.7673,-12.618,0.0,-13.861,-8.0667,13.795,-1.0306,9.8211,-12.432
1.9704,-2.0771,1.8482,5.8252,3.8188,6.1168,4.0,5.7886,-0.06667,5.8252,3.8188,6.7308,-5.5975,-14.569,0.0,-11.881,-7.0667,6.8647,-0.06441,6.8943,-4.7021
2.9557,5.9631,7.7888,7.767,7.7023,8.1787,10.0,5.7886,5.9333,7.767,7.7023,10.577,-2.7673,-8.7154,2.0,-1.9802,-0.06667,0.92409,10.564,2.0163,6.8921
6.8966,11.993,13.729,11.65,11.586,10.241,14.0,7.7398,8.9333,11.65,11.586,13.462,-0.8805,-0.91057,4.0,5.9406,5.9333,3.8944,-0.06441,-2.8618,6.8921
14.778,20.034,23.629999,16.504999,16.440001,16.426001,19.0,13.593,11.933,16.504999,16.440001,20.191999,8.5535,13.724,13.0,17.822001,16.933001,5.8746,8.6312,5.9187,16.554001
17.733999,27.069,28.580999,13.592,13.528,17.457001,20.0,12.618,12.933,13.592,13.528,22.115,16.101,24.455,21.0,26.733,23.933001,6.8647,23.124001,17.625999,27.181999
8.867,19.028,18.68,4.8544,3.8188,8.1787,11.0,3.8374,4.9333,4.8544,3.8188,11.538,8.5535,16.65,13.0,17.822001,13.933,5.8746,16.361,16.65,18.486
8.867,16.013,14.719,4.8544,5.7605,7.1478,9.0,3.8374,7.9333,4.8544,5.7605,8.6538,11.384,17.625999,12.0,14.851,10.933,12.805,13.462,15.675,19.452
10.837,15.008,11.749,8.7379,6.7314,8.1787,8.0,9.6911,11.933,8.7379,6.7314,7.6923,19.874001,26.407,14.0,16.832001,12.933,11.815,19.259001,15.675,27.181999
6.8966,8.9782,4.8185,6.7961,4.7896,5.0859,2.0,9.6911,3.9333,6.7961,4.7896,2.8846,19.874001,22.504,11.0,11.881,8.9333,5.8746,15.395,9.8211,22.351
5.9113,5.9631,1.8482,6.7961,4.7896,5.0859,1.0,4.813,4.9333,6.7961,4.7896,1.9231,16.101,11.772,10.0,5.9406,5.9333,10.825,8.6312,11.772,9.7907
13.793,11.993,9.769,13.592,12.557,14.364,11.0,10.667,11.933,13.592,12.557,11.538,18.931,8.8455,16.0,6.9307,9.9333,13.795,13.462,15.675,4.9597
17.733999,15.008,13.729,21.358999,22.264999,20.549999,17.0,16.52,14.933,21.358999,22.264999,18.268999,19.874001,7.8699,20.0,9.901,13.933,12.805,18.292999,27.382,7.8583
0.98522,-1.072,-3.1023,8.7379,9.644,7.1478,5.0,5.7886,6.9333,8.7379,9.644,3.8462,1.0063,-9.6911,3.0,-3.9604,-1.0667,3.8944,8.6312,8.8455,-6.6345
-1.9704,-4.0871,-8.0528,5.8252,2.8479,5.0859,1.0,3.8374,4.9333,5.8252,2.8479,0.96154,-5.5975,-12.618,-1.0,-6.9307,-5.0667,5.8746,2.8341,-1.8862,-9.533
5.9113,5.9631,0.85809,13.592,12.557,14.364,11.0,12.618,17.933001,13.592,12.557,10.577,1.9497,-0.91057,7.0,4.9505,5.9333,5.8746,3.8003,3.9675,3.0274
10.837,11.993,7.7888,17.476,15.469,18.488001,14.0,13.593,14.933,17.476,15.469,15.385,8.5535,9.8211,13.0,14.851,12.933,6.8647,9.5974,12.748,13.655
1.9704,5.9631,1.8482,7.767,7.7023,9.2096,6.0,5.7886,1.9333,7.767,7.7023,7.6923,1.9497,5.9187,4.0,10.891,7.9333,-0.06601,5.7327,4.9431,13.655
0.98522,3.9531,0.85809,2.9126,1.877,7.1478,2.0,4.813,-0.06667,2.9126,1.877,3.8462,2.8931,8.8455,4.0,10.891,7.9333,-2.0462,6.6989,0.06504,15.588
9.8522,6.9682,3.8284,5.8252,2.8479,10.241,3.0,7.7398,0.93333,5.8252,2.8479,5.7692,12.327,18.601999,14.0,16.832001,15.933,2.9043,14.428,11.772,21.385
13.793,8.9782,5.8086,6.7961,3.8188,11.271,5.0,7.7398,6.9333,6.7961,3.8188,6.7308,21.761,26.407,22.0,19.802,20.933001,10.825,15.395,20.552999,26.216
18.719,10.988,8.7789,7.767,5.7605,14.364,7.0,8.7154,7.9333,7.767,5.7605,8.6538,29.308001,28.358,28.0,20.792,24.933001,21.716,17.327,25.431,26.216
18.719,9.9832,8.7789,9.7087,6.7314,13.333,7.0,7.7398,6.9333,9.7087,6.7314,7.6923,29.308001,25.431,27.0,16.832001,21.933001,25.677,13.462,28.358,18.486
17.733999,11.993,7.7888,8.7379,5.7605,12.302,8.0,7.7398,7.9333,8.7379,5.7605,7.6923,27.421,23.48,23.0,15.842,17.933001,21.716,15.395,26.407,17.52
16.749001,12.998,7.7888,6.7961,5.7605,10.241,8.0,5.7886,10.933,6.7961,5.7605,6.7308,24.591,19.577,21.0,14.851,15.933,17.756001,13.462,25.431,15.588
17.733999,14.003,9.769,2.9126,2.8479,9.2096,7.0,4.813,8.9333,2.9126,2.8479,5.7692,21.761,14.699,21.0,12.871,14.933,18.746,14.428,23.48,10.757
25.615999,20.034,17.690001,4.8544,3.8188,15.395,11.0,8.7154,8.9333,4.8544,3.8188,10.577,26.478001,20.552999,27.0,18.812,20.933001,21.716,24.09,31.285,19.452
21.674999,17.018,14.719,3.8835,3.8188,13.333,8.0,8.7154,8.9333,3.8835,3.8188,7.6923,17.987,14.699,19.0,15.842,16.933001,12.805,20.225,21.528,14.622
21.674999,20.034,16.700001,4.8544,8.6731,13.333,11.0,5.7886,16.933001,4.8544,8.6731,10.577,16.101,12.748,18.0,17.822001,17.933001,12.805,15.395,20.552999,9.7907
22.66,21.039,18.68,2.9126,8.6731,13.333,13.0,5.7886,15.933,2.9126,8.6731,12.5,17.044001,14.699,21.0,20.792,21.933001,21.716,15.395,22.504,11.723
25.615999,24.054001,21.65,6.7961,7.7023,17.457001,16.0,10.667,13.933,6.7961,7.7023,16.346001,19.874001,21.528,24.0,26.733,24.933001,28.646999,22.158001,21.528,22.351
26.601,26.063999,21.65,10.68,9.644,19.518999,18.0,13.593,16.933001,10.68,9.644,19.231001,22.704,28.358,26.0,30.693001,26.933001,14.785,26.989,27.382,30.080999
17.733999,20.034,14.719,6.7961,7.7023,12.302,13.0,6.7642,11.933,6.7961,7.7023,12.5,18.931,26.407,19.0,25.743,20.933001,7.8548,20.225,19.577,30.080999
16.749001,22.044001,15.71,6.7961,9.644,11.271,15.0,5.7886,15.933,6.7961,9.644,12.5,22.704,31.285,20.0,26.733,21.933001,17.756001,22.158001,15.675,33.945
12.808,15.008,9.769,3.8835,6.7314,8.1787,12.0,3.8374,15.933,3.8835,6.7314,8.6538,17.044001,21.528,14.0,17.822001,15.933,13.795,12.496,10.797,23.316999
16.749001,15.008,11.749,10.68,11.586,13.333,15.0,9.6911,15.933,10.68,11.586,12.5,19.874001,20.552999,18.0,16.832001,16.933001,15.776,16.361,17.625999,22.351
23.645,24.054001,19.67,17.476,18.382,21.580999,22.0,16.52,21.933001,17.476,18.382,21.153999,26.478001,25.431,26.0,24.752001,23.933001,18.746,29.886999,32.259998,32.979
18.719,23.049,18.68,13.592,12.557,18.488001,21.0,14.569,18.933001,13.592,12.557,19.231001,21.761,19.577,19.0,20.792,19.933001,10.825,22.158001,21.528,22.351
7.8818,11.993,8.7789,4.8544,4.7896,10.241,12.0,5.7886,6.9333,4.8544,4.7896,10.577,9.4969,6.8943,5.0,7.9208,6.9333,-2.0462,10.564,3.9675,4.9597
5.9113,8.9782,7.7888,3.8835,4.7896,9.2096,9.0,4.813,5.9333,3.8835,4.7896,8.6538,5.7233,2.9919,4.0,4.9505,3.9333,4.8845,6.6989,5.9187,3.9936
11.823,11.993,12.739,4.8544,8.6731,13.333,11.0,6.7642,13.933,4.8544,8.6731,11.538,11.384,7.8699,10.0,7.9208,8.9333,15.776,2.8341,12.748,7.8583
16.749001,11.993,16.700001,8.7379,11.586,17.457001,13.0,10.667,14.933,8.7379,11.586,14.423,14.214,10.797,15.0,8.9109,12.933,11.815,5.7327,20.552999,4.9597
9.8522,4.9581,10.759,7.767,6.7314,12.302,8.0,7.7398,7.9333,7.767,6.7314,9.6154,4.7799,0.06504,6.0,0.0,4.9333,5.8746,6.6989,6.8943,-6.6345
4.9261,2.9481,5.8086,4.8544,4.7896,6.1168,5.0,3.8374,9.9333,4.8544,4.7896,4.8077,1.9497,-2.8618,2.0,-0.9901,1.9333,-2.0462,6.6989,-2.8618,-9.533
6.8966,5.9631,2.8383,0.0,3.8188,3.0241,4.0,2.8618,7.9333,0.0,3.8188,1.9231,2.8931,1.0407,5.0,2.9703,4.9333,3.8944,6.6989,0.06504,-4.7021
7.8818,5.9631,2.8383,-2.9126,-0.06472,0.9622,-1.0,3.8374,-1.0667,-2.9126,-0.06472,-1.9231,1.9497,4.9431,6.0,7.9208,6.9333,8.8449,10.564,2.0163,4.9597
12.808,10.988,6.7987,-1.9417,-1.0356,4.055,0.0,5.7886,0.93333,-1.9417,-1.0356,0.0,3.8365,10.797,10.0,14.851,12.933,8.8449,7.6651,5.9187,15.588
11.823,10.988,4.8185,0.97087,0.90615,6.1168,1.0,6.7642,5.9333,0.97087,0.90615,0.0,0.06289,7.8699,9.0,14.851,10.933,8.8449,8.6312,9.8211,19.452
8.867,8.9782,2.8383,3.8835,1.877,5.0859,1.0,6.7642,6.9333,3.8835,1.877,0.0,2.8931,8.8455,7.0,12.871,9.9333,-2.0462,7.6651,6.8943,17.52
5.9113,5.9631,-0.13201,0.97087,0.90615,-0.06873,0.0,3.8374,7.9333,0.97087,0.90615,-2.8846,9.4969,12.748,6.0,10.891,7.9333,-5.0165,-0.06441,3.9675,14.622
3.9409,4.9581,-0.13201,1.9417,2.8479,-1.0997,0.0,1.8862,7.9333,1.9417,2.8479,-2.8846,16.101,17.625999,7.0,10.891,6.9333,1.9142,7.6651,8.8455,17.52
-2.9557,-6.0972,-10.033,0.0,0.90615,-5.2234,-5.0,1.8862,2.9333,0.0,0.90615,-8.6538,6.6667,7.8699,-4.0,-1.9802,-5.0667,7.8548,2.8341,1.0407,6.8921
-7.8818,-12.127,-17.954,-2.9126,-2.0065,-7.2852,-7.0,-0.06504,0.93333,-2.9126,-2.0065,-11.538,-4.6541,-2.8618,-12.0,-12.871,-14.067,2.9043,-2.963,-8.7154,-7.6006
-2.9557,-11.122,-13.003,0.0,-0.06472,-4.1924,-4.0,2.8618,5.9333,0.0,-0.06472,-7.6923,-8.4277,-7.7398,-9.0,-14.851,-13.067,6.8647,-4.8953,-7.7398,-13.398
-0.98522,-11.122,-10.033,1.9417,-1.0356,-3.1615,-6.0,6.7642,-3.0667,1.9417,-1.0356,-6.7308,-8.4277,-7.7398,-8.0,-13.861,-11.067,6.8647,-5.8615,-7.7398,-10.499
-6.8966,-17.152,-16.964001,-2.9126,-4.9191,-7.2852,-13.0,1.8862,-12.067,-2.9126,-4.9191,-14.423,-17.862,-18.472,-14.0,-20.792,-17.066999,-1.0561,-11.659,-11.642,-18.229
-5.9113,-10.117,-14.983,0.97087,-0.06472,-3.1615,-7.0,5.7886,-3.0667,0.97087,-0.06472,-8.6538,-19.747999,-22.374001,-11.0,-18.812,-16.066999,-4.0264,-10.692,-6.7642,-19.195
-7.8818,-6.0972,-12.013,1.9417,1.877,-3.1615,-3.0,1.8862,1.9333,1.9417,1.877,-6.7308,-20.691999,-19.447001,-11.0,-12.871,-14.067,-9.967,-2.963,-3.8374,-15.33
-4.9261,-0.067,-4.0924,0.97087,2.8479,-1.0997,3.0,2.8618,8.9333,0.97087,2.8479,-1.9231,-18.805,-13.593,-9.0,-4.9505,-7.0667,-4.0264,0.90177,-3.8374,-6.6345
-7.8818,-3.0821,-7.0627,-5.8252,-2.0065,-5.2234,0.0,-1.0407,3.9333,-5.8252,-2.0065,-5.7692,-19.747999,-13.593,-15.0,-3.9604,-9.0667,-4.0264,-6.8277,-14.569,-3.7359
-10.837,-7.1022,-12.013,-10.68,-6.8608,-10.378,-8.0,-4.9431,-3.0667,-10.68,-6.8608,-12.5,-15.031,-6.7642,-17.0,-3.9604,-10.067,-6.9967,-6.8277,-17.496,-0.83736
-4.9261,-3.0821,-7.0627,-7.767,-6.8608,-7.2852,-7.0,-1.0407,-2.0667,-7.767,-6.8608,-9.6154,-0.8805,4.9431,-6.0,2.9703,-2.0667,0.92409,-2.963,-3.8374,5.9259
-2.9557,-0.067,-4.0924,-4.8544,-4.9191,-5.2234,-4.0,2.8618,-3.0667,-4.8544,-4.9191,-6.7308,6.6667,11.772,-2.0,5.9406,0.93333,6.8647,-2.963,-6.7642,7.8583
-4.9261,-2.0771,-7.0627,-0.97087,0.90615,-4.1924,-1.0,2.8618,2.9333,-0.97087,0.90615,-5.7692,4.7799,9.8211,-6.0,2.9703,-2.0667,1.9142,2.8341,-13.593,7.8583
-10.837,-6.0972,-12.013,1.9417,3.8188,-4.1924,1.0,-1.0407,5.9333,1.9417,3.8188,-3.8462,-2.7673,1.0407,-12.0,-4.9505,-10.067,-9.967,-0.06441,-18.472,4.9597
-13.793,-11.122,-14.983,1.9417,2.8479,-5.2234,-2.0,-3.9675,1.9333,1.9417,2.8479,-5.7692,-10.314,-6.7642,-17.0,-13.861,-17.066999,-6.0066,-5.8615,-15.545,-5.6683
-13.793,-14.137,-13.993,2.9126,2.8479,-5.2234,-4.0,-2.9919,-0.06667,2.9126,2.8479,-5.7692,-16.917999,-10.667,-19.0,-18.812,-20.066999,-8.9769,-6.8277,-16.52,-9.533
-15.764,-18.157,-15.974,0.0,-2.0065,-10.378,-8.0,-6.8943,-6.0667,0.0,-2.0065,-8.6538,-29.181999,-20.423,-25.0,-24.752001,-25.066999,-17.888,-10.692,-23.35,-20.160999
-11.823,-15.142,-11.023,-0.97087,-2.0065,-10.378,-7.0,-8.8455,-7.0667,-0.97087,-2.0065,-6.7308,-36.73,-31.153999,-24.0,-26.733,-25.066999,-16.898001,-10.692,-23.35,-29.823
-0.98522,-4.0871,1.8482,3.8835,2.8479,0.9622,2.0,-1.0407,-2.0667,3.8835,2.8479,3.8462,-32.013,-30.179001,-16.0,-19.802,-16.066999,-5.0165,-12.625,-18.472,-28.857
4.9261,4.9581,10.759,4.8544,4.7896,9.2096,10.0,3.8374,6.9333,4.8544,4.7896,10.577,-19.747999,-20.423,-6.0,-8.9109,-4.0667,1.9142,-15.523,-9.6911,-24.025999
4.9261,9.9832,12.739,4.8544,7.7023,10.241,11.0,1.8862,6.9333,4.8544,7.7023,12.5,-9.3711,-8.7154,2.0,2.9703,5.9333,-5.0165,-2.963,2.9919,-11.465
13.793,20.034,20.66,8.7379,12.557,14.364,16.0,6.7642,10.933,8.7379,12.557,16.346001,6.6667,10.797,16.0,20.792,20.933001,5.8746,12.496,16.65,10.757
7.8818,18.023001,17.690001,3.8835,8.6731,5.0859,13.0,1.8862,10.933,3.8835,8.6731,10.577,6.6667,13.724,10.0,22.771999,19.933001,5.8746,7.6651,10.797,17.52
-1.9704,10.988,8.7789,0.0,3.8188,-5.2234,7.0,-2.0163,6.9333,0.0,3.8188,0.96154,-0.8805,8.8455,-3.0,16.832001,9.9333,-2.0462,2.8341,-6.7642,16.554001
-4.9261,7.9732,4.8185,-2.9126,1.877,-8.3162,3.0,-2.9919,3.9333,-2.9126,1.877,-2.8846,-1.8239,9.8211,-8.0,13.861,4.9333,0.92409,2.8341,-10.667,16.554001
-3.9409,7.9732,3.8284,-6.7961,-0.06472,-6.2543,3.0,-3.9675,3.9333,-6.7961,-0.06472,-2.8846,2.8931,14.699,-7.0,13.861,5.9333,3.8944,9.5974,-4.813,17.52
-4.9261,5.9631,0.85809,-7.767,-2.9773,-6.2543,1.0,-7.8699,3.9333,-7.767,-2.9773,-2.8846,4.7799,12.748,-7.0,9.901,2.9333,-3.0363,7.6651,-1.8862,12.689
-3.9409,3.9531,-1.1221,-5.8252,-2.0065,-6.2543,0.0,-5.9187,2.9333,-5.8252,-2.0065,-1.9231,4.7799,8.8455,-5.0,4.9505,0.93333,-9.967,3.8003,2.9919,8.8245
-6.8966,-2.0771,-5.0825,-4.8544,-1.0356,-9.3471,-1.0,-4.9431,2.9333,-4.8544,-1.0356,-3.8462,-1.8239,0.06504,-7.0,-3.9604,-4.0667,-6.0066,-2.963,0.06504,-0.83736
-7.8818,-3.0821,-7.0627,-2.9126,-0.06472,-10.378,-1.0,-2.9919,5.9333,-2.9126,-0.06472,-5.7692,-7.4843,-7.7398,-7.0,-7.9208,-6.0667,-0.06601,-2.963,-0.91057,-8.5668
-1.9704,0.93802,-1.1221,0.0,2.8479,-4.1924,2.0,-2.0163,4.9333,0.0,2.8479,-0.96154,-8.4277,-8.7154,-3.0,-3.9604,-1.0667,-3.0363,-1.0306,-3.8374,-11.465
5.9113,6.9682,7.7888,6.7961,9.644,5.0859,9.0,0.91057,6.9333,6.7961,9.644,9.6154,-10.314,-9.6911,2.0,0.9901,4.9333,6.8647,-3.9291,-3.8374,-11.465
8.867,9.9832,12.739,12.621,16.440001,11.271,15.0,2.8618,11.933,12.621,16.440001,15.385,-15.975,-12.618,1.0,2.9703,5.9333,-0.06601,-8.7601,-8.7154,-10.499
6.8966,10.988,12.739,12.621,19.353001,13.333,17.0,4.813,16.933001,12.621,19.353001,18.268999,-14.088,-10.667,0.0,4.9505,5.9333,-4.0264,-0.06441,-9.6911,-8.5668
4.9261,6.9682,9.769,11.65,12.557,12.302,13.0,7.7398,10.933,11.65,12.557,16.346001,-9.3711,-6.7642,-1.0,4.9505,4.9333,-0.06601,5.7327,-10.667,-7.6006
2.9557,4.9581,8.7789,10.68,7.7023,9.2096,9.0,10.667,2.9333,10.68,7.7023,12.5,-4.6541,-2.8618,0.0,4.9505,4.9333,-0.06601,-0.06441,-3.8374,-4.7021
-1.9704,-0.067,4.8185,11.65,10.615,4.055,6.0,7.7398,3.9333,11.65,10.615,7.6923,0.06289,1.0407,-1.0,1.9802,1.9333,5.8746,-1.0306,2.9919,-3.7359
-3.9409,-4.0871,-0.13201,9.7087,10.615,0.9622,3.0,4.813,5.9333,9.7087,10.615,2.8846,5.7233,5.9187,0.0,0.0,-0.06667,6.8647,-1.9968,1.0407,-1.8035
1.9704,-4.0871,-1.1221,6.7961,4.7896,3.0241,0.0,5.7886,1.9333,6.7961,4.7896,1.9231,11.384,10.797,4.0,0.0,1.9333,6.8647,-1.0306,10.797,2.0612
0.0,-6.0972,-5.0825,3.8835,2.8479,1.9931,-2.0,3.8374,2.9333,3.8835,2.8479,0.0,8.5535,7.8699,-1.0,-3.9604,-3.0667,11.815,-2.963,5.9187,1.095
-5.9113,-5.0921,-8.0528,3.8835,5.7605,-3.1615,-2.0,-1.0407,5.9333,3.8835,5.7605,-1.9231,4.7799,2.0163,-8.0,-7.9208,-9.0667,1.9142,-1.0306,-3.8374,-3.7359
-9.8522,-4.0871,-9.0429,2.9126,5.7605,-8.3162,-1.0,-4.9431,8.9333,2.9126,5.7605,-3.8462,0.06289,-3.8374,-11.0,-9.901,-12.067,-5.0165,-8.7601,3.9675,-1.8035
-8.867,-2.0771,-6.0726,2.9126,5.7605,-9.3471,0.0,-4.9431,6.9333,2.9126,5.7605,-3.8462,1.0063,-2.8618,-7.0,-6.9307,-9.0667,-2.0462,-1.9968,9.8211,1.095
0.98522,5.9631,2.8383,9.7087,13.528,-2.1306,6.0,3.8374,14.933,9.7087,13.528,2.8846,6.6667,0.06504,2.0,0.9901,1.9333,8.8449,14.428,13.724,4.9597
4.9261,10.988,6.7987,9.7087,14.498,0.9622,9.0,5.7886,16.933001,9.7087,14.498,4.8077,5.7233,-0.91057,6.0,6.9307,7.9333,11.815,16.361,5.9187,6.8921
8.867,14.003,9.769,8.7379,11.586,3.0241,10.0,7.7398,12.933,8.7379,11.586,5.7692,4.7799,2.9919,10.0,13.861,14.933,10.825,16.361,2.9919,10.757
5.9113,8.9782,7.7888,11.65,9.644,4.055,7.0,8.7154,8.9333,11.65,9.644,4.8077,-1.8239,1.0407,6.0,10.891,11.933,1.9142,8.6312,-2.8618,3.9936
0.0,-0.067,1.8482,11.65,9.644,3.0241,4.0,4.813,2.9333,11.65,9.644,3.8462,-11.258,-5.7886,-2.0,1.9802,2.9333,-5.0165,-5.8615,-8.7154,-8.5668
-4.9261,-6.0972,-2.1122,9.7087,10.615,1.9931,1.0,3.8374,1.9333,9.7087,10.615,2.8846,-14.088,-6.7642,-8.0,-3.9604,-3.0667,-4.0264,-16.49,-17.496,-15.33
-0.98522,-5.0921,-1.1221,11.65,10.615,7.1478,2.0,6.7642,2.9333,11.65,10.615,5.7692,-8.4277,1.0407,-5.0,-0.9901,-1.0667,2.9043,-7.7939,-19.447001,-11.465
5.9113,-1.072,2.8383,16.504999,12.557,11.271,4.0,13.593,8.9333,16.504999,12.557,7.6923,-0.8805,5.9187,2.0,2.9703,3.9333,11.815,2.8341,-8.7154,-7.6006
-0.98522,-3.0821,-1.1221,14.563,12.557,6.1168,2.0,8.7154,10.933,14.563,12.557,2.8846,-8.4277,-3.8374,-4.0,-2.9703,-1.0667,0.92409,-1.0306,-11.642,-12.432
0.0,1.943,-0.13201,11.65,11.586,5.0859,4.0,4.813,6.9333,11.65,11.586,2.8846,-5.5975,-1.8862,0.0,-0.9901,0.93333,0.92409,6.6989,-2.8618,-5.6683
-1.9704,0.93802,-3.1023,8.7379,7.7023,3.0241,2.0,3.8374,-1.0667,8.7379,7.7023,0.96154,-2.7673,-2.8618,0.0,-1.9802,-1.0667,-4.0264,-6.8277,3.9675,0.12882
-7.8818,-3.0821,-9.0429,10.68,7.7023,-0.06873,-3.0,7.7398,-3.0667,10.68,7.7023,-1.9231,-0.8805,-3.8374,-4.0,-5.9406,-6.0667,-14.917,-10.692,2.0163,3.9936
-17.733999,-10.117,-15.974,4.8544,4.7896,-8.3162,-9.0,-1.0407,-3.0667,4.8544,4.7896,-8.6538,-3.7107,-11.642,-11.0,-13.861,-14.067,-19.868,-5.8615,-2.8618,-4.7021
-17.733999,-9.1122,-14.983,0.0,3.8188,-12.44,-9.0,-5.9187,-3.0667,0.0,3.8188,-10.577,1.0063,-10.667,-9.0,-12.871,-12.067,-4.0264,-3.9291,2.0163,-8.5668
-8.867,-5.0921,-9.0429,0.97087,2.8479,-8.3162,-6.0,0.91057,-2.0667,0.97087,2.8479,-6.7308,9.4969,-2.8618,0.0,-5.9406,-4.0667,8.8449,-0.06441,12.748,-1.8035
-5.9113,-7.1022,-9.0429,5.8252,1.877,-5.2234,-6.0,3.8374,-3.0667,5.8252,1.877,-5.7692,12.327,1.0407,3.0,-4.9505,-2.0667,2.9043,-1.0306,15.675,-1.8035
-6.8966,-10.117,-9.0429,7.767,5.7605,-3.1615,-7.0,4.813,-2.0667,7.767,5.7605,-5.7692,9.4969,2.9919,-1.0,-5.9406,-3.0667,-1.0561,-4.8953,4.9431,-5.6683
-5.9113,-12.127,-8.0528,5.8252,4.7896,-3.1615,-6.0,4.813,-1.0667,5.8252,4.7896,-5.7692,1.9497,0.06504,-5.0,-7.9208,-6.0667,3.8944,-8.7601,0.06504,-12.432
-6.8966,-17.152,-11.023,4.8544,1.877,-3.1615,-7.0,6.7642,-1.0667,4.8544,1.877,-6.7308,-9.3711,-9.6911,-11.0,-15.842,-12.067,0.92409,-14.557,-7.7398,-22.093
-3.9409,-17.152,-10.033,6.7961,1.877,-0.06873,-7.0,8.7154,-4.0667,6.7961,1.877,-4.8077,-16.917999,-15.545,-14.0,-17.822001,-14.067,-3.0363,-15.523,-17.496,-23.059999
1.9704,-8.1072,-2.1122,6.7961,2.8479,3.0241,-5.0,8.7154,-3.0667,6.7961,2.8479,-1.9231,-19.747999,-15.545,-10.0,-12.871,-7.0667,-2.0462,-8.7601,-16.52,-20.160999
0.0,-3.0821,0.85809,5.8252,3.8188,1.9931,-4.0,5.7886,-1.0667,5.8252,3.8188,-1.9231,-27.296,-20.423,-12.0,-9.901,-6.0667,-3.0363,-4.8953,-19.447001,-19.195
3.9409,4.9581,6.7987,8.7379,6.7314,5.0859,1.0,5.7886,0.93333,8.7379,6.7314,2.8846,-23.521999,-15.545,-8.0,-3.9604,-1.0667,3.8944,-1.0306,-17.496,-12.432
12.808,14.003,15.71,15.534,12.557,14.364,9.0,12.618,5.9333,15.534,12.557,11.538,-11.258,-2.8618,5.0,6.9307,9.9333,16.766001,9.5974,-0.91057,1.095
16.749001,20.034,22.639999,19.417,15.469,19.518999,14.0,15.545,11.933,19.417,15.469,16.346001,6.6667,10.797,16.0,15.842,19.933001,4.8845,4.7665,7.8699,10.757
10.837,16.013,19.67,13.592,9.644,13.333,9.0,11.642,9.9333,13.592,9.644,11.538,17.987,14.699,17.0,15.842,20.933001,1.9142,3.8003,7.8699,12.689
9.8522,14.003,17.690001,9.7087,4.7896,9.2096,5.0,9.6911,0.93333,9.7087,4.7896,8.6538,30.252001,20.552999,22.0,17.822001,22.933001,10.825,7.6651,16.65,16.554001
11.823,16.013,17.690001,11.65,8.6731,11.271,9.0,8.7154,3.9333,11.65,8.6731,12.5,37.799,24.455,26.0,19.802,23.933001,11.815,6.6989,25.431,21.385
4.9261,7.9732,10.759,10.68,8.6731,7.1478,6.0,7.7398,5.9333,10.68,8.6731,8.6538,30.252001,17.625999,18.0,12.871,14.933,4.8845,-1.0306,21.528,12.689
1.9704,-3.0821,3.8284,7.767,3.8188,5.0859,-2.0,7.7398,-3.0667,7.767,3.8188,2.8846,22.704,11.772,12.0,3.9604,6.9333,6.8647,-3.9291,18.601999,3.0274
0.0,-12.127,-2.1122,2.9126,-1.0356,0.9622,-8.0,5.7886,-9.0667,2.9126,-1.0356,-2.8846,14.214,2.9919,7.0,-4.9505,-1.0667,4.8845,-6.8277,15.675,-7.6006
-0.98522,-15.142,-4.0924,4.8544,-1.0356,1.9931,-8.0,7.7398,-10.067,4.8544,-1.0356,-2.8846,7.6101,-2.8618,4.0,-11.881,-6.0667,3.8944,-9.7262,10.797,-14.364
-5.9113,-16.146999,-10.033,4.8544,-0.06472,-0.06873,-7.0,7.7398,-9.0667,4.8544,-0.06472,-2.8846,-3.7107,-10.667,-5.0,-18.812,-12.067,-3.0363,-12.625,4.9431,-21.127001
-11.823,-17.152,-13.993,3.8835,-0.06472,-4.1924,-7.0,3.8374,-5.0667,3.8835,-0.06472,-5.7692,-15.975,-19.447001,-14.0,-23.761999,-18.066999,-4.0264,-12.625,-2.8618,-29.823
-11.823,-14.137,-13.993,4.8544,1.877,-4.1924,-8.0,4.813,-4.0667,4.8544,1.877,-7.6923,-24.465,-23.35,-18.0,-22.771999,-19.066999,-2.0462,-8.7601,-11.642,-29.823
-7.8818,-8.1072,-12.013,4.8544,1.877,-4.1924,-7.0,4.813,-2.0667,4.8544,1.877,-6.7308,-25.409,-23.35,-16.0,-18.812,-17.066999,-1.0561,-4.8953,-3.8374,-22.093
-9.8522,-6.0972,-12.013,5.8252,2.8479,-4.1924,-6.0,3.8374,-0.06667,5.8252,2.8479,-6.7308,-28.239,-26.275999,-17.0,-17.822001,-18.066999,-4.0264,-10.692,-11.642,-20.160999
-10.837,-3.0821,-10.033,7.767,5.7605,-2.1306,-4.0,5.7886,2.9333,7.767,5.7605,-4.8077,-27.296,-24.325001,-16.0,-12.871,-13.067,-4.0264,0.90177,-24.325001,-17.261999
-3.9409,5.9631,-0.13201,10.68,8.6731,4.055,1.0,8.7154,2.9333,10.68,8.6731,1.9231,-16.917999,-9.6911,-5.0,0.9901,-0.06667,-3.0363,2.8341,-19.447001,-4.7021
1.9704,12.998,7.7888,11.65,9.644,8.1787,5.0,10.667,5.9333,11.65,9.644,5.7692,-5.5975,2.9919,3.0,12.871,9.9333,2.9043,4.7665,-15.545,8.8245
0.0,8.9782,4.8185,8.7379,4.7896,4.055,0.0,7.7398,2.9333,8.7379,4.7896,0.96154,2.8931,10.797,4.0,15.842,10.933,3.8944,9.5974,-10.667,19.452
0.98522,6.9682,3.8284,10.68,6.7314,3.0241,-1.0,5.7886,8.9333,10.68,6.7314,0.0,15.157,22.504,11.0,19.802,14.933,-0.06601,13.462,1.0407,28.148001
0.0,-0.067,-0.13201,8.7379,7.7023,-1.0997,-5.0,1.8862,4.9333,8.7379,7.7023,-3.8462,20.818001,24.455,12.0,15.842,12.933,-3.0363,8.6312,7.8699,23.316999
1.9704,-9.1122,-3.1023,2.9126,-0.06472,-2.1306,-12.0,0.91057,-8.0667,2.9126,-0.06472,-7.6923,20.818001,20.552999,12.0,7.9208,7.9333,-1.0561,-3.9291,13.724,15.588
5.9113,-11.122,-1.1221,2.9126,-2.9773,1.9931,-12.0,5.7886,-12.067,2.9126,-2.9773,-4.8077,20.818001,18.601999,12.0,3.9604,5.9333,4.8845,-8.7601,18.601999,9.7907
10.837,-7.1022,2.8383,11.65,5.7605,10.241,-2.0,14.569,-3.0667,11.65,5.7605,3.8462,22.704,19.577,16.0,1.9802,6.9333,19.736,-2.963,32.259998,6.8921
5.9113,-11.122,-4.0924,14.563,9.644,9.2096,-1.0,14.569,2.9333,14.563,9.644,2.8846,14.214,7.8699,8.0,-9.901,-3.0667,18.746,-4.8953,24.455,-6.6345
0.0,-13.132,-8.0528,10.68,7.7023,5.0859,-3.0,11.642,-1.0667,10.68,7.7023,0.96154,2.8931,-6.7642,-1.0,-21.782,-14.067,5.8746,-6.8277,10.797,-21.127001
0.0,-9.1122,-5.0825,8.7379,6.7314,9.2096,0.0,7.7398,-2.0667,8.7379,6.7314,4.8077,-4.6541,-15.545,-5.0,-24.752001,-18.066999,1.9142,-3.9291,8.8455,-25.958
-5.9113,-10.117,-8.0528,8.7379,3.8188,9.2096,0.0,6.7642,-4.0667,8.7379,3.8188,4.8077,-17.862,-29.202999,-16.0,-29.702999,-25.066999,-6.9967,-8.7601,-5.7886,-31.754999
-8.867,-9.1122,-7.0627,11.65,4.7896,9.2096,2.0,8.7154,-2.0667,11.65,4.7896,5.7692,-25.409,-37.007999,-19.0,-28.712999,-25.066999,-6.0066,-12.625,-15.545,-32.721001
-3.9409,1.943,2.8383,12.621,9.644,9.2096,10.0,10.667,5.9333,12.621,9.644,10.577,-21.635,-28.228001,-11.0,-15.842,-12.067,-6.9967,-6.8277,-15.545,-25.958
-0.98522,7.9732,10.759,12.621,13.528,9.2096,13.0,6.7642,9.9333,12.621,13.528,11.538,-16.917999,-17.496,-5.0,-2.9703,-1.0667,-10.957,1.868,-17.496,-17.261999
6.8966,12.998,15.71,17.476,16.440001,14.364,15.0,11.642,10.933,17.476,16.440001,15.385,-7.4843,-3.8374,5.0,9.901,11.933,-10.957,9.5974,-8.7154,-0.83736
9.8522,14.003,16.700001,20.388,16.440001,17.457001,14.0,16.52,9.9333,20.388,16.440001,16.346001,0.06289,10.797,9.0,17.822001,17.933001,5.8746,10.564,-7.7398,11.723
2.9557,7.9732,9.769,13.592,9.644,9.2096,8.0,8.7154,4.9333,13.592,9.644,8.6538,0.06289,16.65,4.0,16.832001,13.933,3.8944,3.8003,-16.52,16.554001
0.98522,6.9682,7.7888,12.621,8.6731,6.1168,6.0,7.7398,1.9333,12.621,8.6731,6.7308,4.7799,22.504,5.0,18.812,14.933,-2.0462,2.8341,-12.618,22.351
1.9704,4.9581,7.7888,14.563,10.615,7.1478,5.0,10.667,-1.0667,14.563,10.615,6.7308,11.384,26.407,6.0,17.822001,13.933,-1.0561,2.8341,-5.7886,23.316999
1.9704,-2.0771,1.8482,12.621,8.6731,9.2096,2.0,9.6911,-4.0667,12.621,8.6731,5.7692,14.214,23.48,5.0,10.891,7.9333,1.9142,-0.06441,0.06504,20.419001
0.0,-6.0972,-3.1023,10.68,7.7023,7.1478,1.0,7.7398,-1.0667,10.68,7.7023,3.8462,14.214,18.601999,5.0,2.9703,0.93333,-2.0462,-1.0306,12.748,14.622
-3.9409,-5.0921,-4.0924,5.8252,4.7896,0.9622,0.0,3.8374,0.93333,5.8252,4.7896,0.0,11.384,10.797,3.0,-2.9703,-4.0667,-1.0561,9.5974,14.699,10.757
-3.9409,-3.0821,-4.0924,4.8544,4.7896,-0.06873,1.0,4.813,1.9333,4.8544,4.7896,-0.96154,6.6667,1.0407,2.0,-7.9208,-6.0667,4.8845,-1.9968,14.699,3.0274
-5.9113,-8.1072,-9.0429,6.7961,5.7605,-0.06873,-1.0,4.813,-1.0667,6.7961,5.7605,-1.9231,-2.7673,-14.569,-4.0,-17.822001,-14.067,0.92409,-11.659,10.797,-13.398
-3.9409,-11.122,-9.0429,5.8252,4.7896,1.9931,-3.0,4.813,-3.0667,5.8252,4.7896,0.0,-9.3711,-26.275999,-6.0,-22.771999,-18.066999,-2.0462,-7.7939,2.0163,-24.025999
0.98522,-6.0972,-3.1023,9.7087,5.7605,7.1478,1.0,7.7398,-0.06667,9.7087,5.7605,4.8077,-8.4277,-28.228001,-1.0,-18.812,-11.067,-0.06601,-4.8953,0.06504,-24.025999
-0.98522,-3.0821,-0.13201,10.68,5.7605,4.055,-1.0,8.7154,-0.06667,10.68,5.7605,2.8846,-7.4843,-25.301001,1.0,-12.871,-5.0667,4.8845,-2.963,-0.91057,-22.093
0.98522,0.93802,3.8284,7.767,4.7896,1.9931,-2.0,4.813,-4.0667,7.767,4.7896,0.96154,-6.5409,-14.569,4.0,-2.9703,3.9333,-3.0363,-0.06441,-0.91057,-15.33
2.9557,6.9682,7.7888,7.767,7.7023,3.0241,2.0,3.8374,-0.06667,7.767,7.7023,3.8462,-9.3711,-3.8374,3.0,6.9307,8.9333,-5.0165,4.7665,-4.813,-7.6006
7.8818,14.003,12.739,9.7087,9.644,8.1787,9.0,4.813,6.9333,9.7087,9.644,8.6538,-8.4277,6.8943,3.0,15.842,12.933,-3.0363,10.564,-7.7398,3.0274
9.8522,17.018,15.71,10.68,11.586,10.241,11.0,3.8374,8.9333,10.68,11.586,11.538,-0.8805,19.577,6.0,22.771999,15.933,-0.06601,9.5974,-5.7886,12.689
5.9113,12.998,10.759,9.7087,10.615,7.1478,8.0,0.91057,7.9333,9.7087,10.615,8.6538,4.7799,24.455,5.0,21.782,13.933,4.8845,5.7327,-5.7886,16.554001
4.9261,7.9732,4.8185,9.7087,8.6731,6.1168,5.0,1.8862,5.9333,9.7087,8.6731,5.7692,9.4969,24.455,5.0,17.822001,9.9333,1.9142,-0.06441,-2.8618,16.554001
7.8818,4.9581,4.8185,13.592,10.615,11.271,6.0,7.7398,5.9333,13.592,10.615,8.6538,17.044001,24.455,10.0,15.842,10.933,4.8845,4.7665,6.8943,19.452
11.823,3.9531,5.8086,15.534,9.644,13.333,7.0,11.642,2.9333,15.534,9.644,9.6154,19.874001,20.552999,13.0,12.871,10.933,12.805,10.564,12.748,16.554001
11.823,2.9481,5.8086,11.65,8.6731,11.271,5.0,11.642,1.9333,11.65,8.6731,7.6923,18.931,13.724,13.0,8.9109,8.9333,14.785,6.6989,11.772,13.655
12.808,3.9531,4.8185,8.7379,6.7314,10.241,5.0,10.667,3.9333,8.7379,6.7314,7.6923,18.931,8.8455,15.0,5.9406,7.9333,16.766001,8.6312,18.601999,7.8583
7.8818,0.93802,-1.1221,6.7961,2.8479,6.1168,2.0,7.7398,-0.06667,6.7961,2.8479,3.8462,15.157,-0.91057,12.0,0.0,2.9333,10.825,4.7665,24.455,0.12882
-2.9557,-5.0921,-10.033,5.8252,3.8188,0.9622,-1.0,2.8618,0.93333,5.8252,3.8188,-0.96154,3.8365,-15.545,0.0,-10.891,-8.0667,3.8944,-0.06441,11.772,-10.499
-4.9261,-4.0871,-11.023,5.8252,6.7314,0.9622,3.0,1.8862,9.9333,5.8252,6.7314,0.0,-0.8805,-17.496,-6.0,-13.861,-11.067,-7.9868,-2.963,-1.8862,-12.432
-4.9261,-6.0972,-10.033,0.97087,1.877,-1.0997,0.0,-0.06504,2.9333,0.97087,1.877,-0.96154,-4.6541,-19.447001,-8.0,-14.851,-12.067,-11.947,-1.0306,-5.7886,-15.33
-6.8966,-9.1122,-11.023,-2.9126,-2.0065,-4.1924,-4.0,-2.9919,-4.0667,-2.9126,-2.0065,-3.8462,-11.258,-21.398001,-10.0,-16.832001,-14.067,-6.9967,-0.06441,-6.7642,-21.127001
0.0,-0.067,-3.1023,1.9417,2.8479,0.9622,2.0,-0.06504,-0.06667,1.9417,2.8479,1.9231,-7.4843,-8.7154,-3.0,-5.9406,-4.0667,4.8845,-1.9968,1.0407,-9.533
3.9409,6.9682,1.8482,3.8835,6.7314,4.055,6.0,2.8618,7.9333,3.8835,6.7314,5.7692,-1.8239,3.9675,1.0,3.9604,1.9333,2.9043,4.7665,1.0407,-0.83736
-2.9557,4.9581,-3.1023,2.9126,5.7605,-1.0997,4.0,0.91057,5.9333,2.9126,5.7605,0.96154,0.06289,10.797,-4.0,3.9604,-1.0667,-6.0066,-0.06441,-6.7642,1.095
-2.9557,4.9581,-4.0924,3.8835,3.8188,-0.06873,4.0,0.91057,4.9333,3.8835,3.8188,0.96154,8.5535,23.48,-1.0,8.9109,0.93333,-4.0264,7.6651,-2.8618,12.689
-1.9704,1.943,-4.0924,1.9417,0.90615,-0.06873,1.0,-1.0407,6.9333,1.9417,0.90615,-0.96154,11.384,26.407,1.0,10.891,2.9333,-5.0165,15.395,1.0407,19.452
-0.98522,-1.072,-4.0924,-1.9417,-1.0356,-2.1306,-1.0,-3.9675,2.9333,-1.9417,-1.0356,-2.8846,8.5535,20.552999,0.0,7.9208,2.9333,0.92409,9.5974,2.0163,17.52
5.9113,2.9481,0.85809,0.0,-0.06472,0.9622,3.0,0.91057,2.9333,0.0,-0.06472,0.0,11.384,18.601999,7.0,7.9208,6.9333,-1.0561,12.496,4.9431,18.486
8.867,6.9682,3.8284,0.97087,1.877,1.9931,7.0,1.8862,6.9333,0.97087,1.877,2.8846,16.101,17.625999,13.0,8.9109,10.933,3.8944,14.428,9.8211,16.554001
8.867,7.9732,3.8284,-0.97087,2.8479,0.9622,7.0,-1.0407,6.9333,-0.97087,2.8479,1.9231,15.157,10.797,15.0,6.9307,9.9333,12.805,10.564,14.699,9.7907
5.9113,5.9631,2.8383,0.0,2.8479,1.9931,7.0,-0.06504,4.9333,0.0,2.8479,2.8846,8.5535,-0.91057,8.0,2.9703,4.9333,-0.06601,3.8003,7.8699,0.12882
3.9409,4.9581,2.8383,0.0,0.90615,1.9931,7.0,-0.06504,2.9333,0.0,0.90615,3.8462,2.8931,-4.813,2.0,1.9802,1.9333,-5.0165,4.7665,-3.8374,-3.7359
13.793,15.008,13.729,2.9126,3.8188,9.2096,13.0,2.8618,6.9333,2.9126,3.8188,12.5,11.384,6.8943,12.0,12.871,11.933,12.805,12.496,5.9187,8.8245
13.793,14.003,13.729,2.9126,6.7314,8.1787,12.0,2.8618,3.9333,2.9126,6.7314,10.577,11.384,9.8211,14.0,14.851,12.933,19.736,10.564,10.797,8.8245
7.8818,9.9832,8.7789,-1.9417,2.8479,3.0241,7.0,-2.9919,-0.06667,-1.9417,2.8479,6.7308,6.6667,5.9187,9.0,9.901,7.9333,-0.06601,6.6989,10.797,5.9259
8.867,9.9832,9.769,0.97087,2.8479,6.1168,8.0,-0.06504,2.9333,0.97087,2.8479,9.6154,4.7799,3.9675,7.0,6.9307,4.9333,5.8746,7.6651,7.8699,6.8921
0.0,-0.067,-0.13201,1.9417,1.877,5.0859,3.0,0.91057,-0.06667,1.9417,1.877,5.7692,-10.314,-9.6911,-7.0,-8.9109,-10.067,3.8944,-3.9291,-6.7642,-5.6683
-2.9557,-7.1022,-4.0924,2.9126,-0.06472,4.055,0.0,2.8618,-5.0667,2.9126,-0.06472,2.8846,-17.862,-17.496,-12.0,-18.812,-19.066999,-1.0561,-9.7262,-11.642,-16.296
-0.98522,-10.117,-5.0825,1.9417,-1.0356,3.0241,-2.0,3.8374,-7.0667,1.9417,-1.0356,0.96154,-15.975,-17.496,-9.0,-20.792,-17.066999,-1.0561,-11.659,-6.7642,-18.229
-3.9409,-16.146999,-8.0528,0.0,-2.9773,-2.1306,-7.0,0.91057,-8.0667,0.0,-2.9773,-3.8462,-17.862,-25.301001,-11.0,-24.752001,-18.066999,0.92409,-11.659,-6.7642,-24.992001
-2.9557,-17.152,-7.0627,-1.9417,-2.9773,-3.1615,-8.0,-0.06504,-9.0667,-1.9417,-2.9773,-5.7692,-17.862,-29.202999,-10.0,-25.743,-16.066999,-6.9967,-8.7601,-9.6911,-28.857
-3.9409,-15.142,-7.0627,-3.8835,-5.89,-5.2234,-9.0,-2.0163,-8.0667,-3.8835,-5.89,-7.6923,-15.031,-27.252001,-9.0,-22.771999,-13.067,-3.0363,-9.7262,-9.6911,-27.889999
-0.98522,-6.0972,-3.1023,-2.9126,-4.9191,-3.1615,-4.0,-0.06504,-5.0667,-2.9126,-4.9191,-3.8462,-8.4277,-19.447001,-3.0,-12.871,-6.0667,5.8746,-1.9968,1.0407,-20.160999
2.9557,4.9581,2.8383,-0.97087,-2.9773,0.9622,3.0,2.8618,-0.06667,-0.97087,-2.9773,1.9231,0.06289,-5.7886,3.0,0.9901,2.9333,9.835,2.8341,4.9431,-4.7021
3.9409,11.993,4.8185,-2.9126,-4.9191,-3.1615,5.0,0.91057,-1.0667,-2.9126,-4.9191,0.96154,8.5535,7.8699,9.0,14.851,11.933,-0.06601,1.868,7.8699,8.8245
1.9704,12.998,5.8086,-4.8544,-3.9482,-6.2543,5.0,-1.0407,0.93333,-4.8544,-3.9482,-0.96154,13.27,16.65,10.0,20.792,15.933,-0.06601,2.8341,4.9431,14.622
4.9261,9.9832,7.7888,-3.8835,-2.9773,-4.1924,5.0,-1.0407,1.9333,-3.8835,-2.9773,0.0,15.157,18.601999,11.0,20.792,16.933001,8.8449,7.6651,7.8699,12.689
4.9261,4.9581,5.8086,-2.9126,-2.9773,-2.1306,3.0,-0.06504,-0.06667,-2.9126,-2.9773,0.96154,10.44,12.748,8.0,11.881,10.933,4.8845,2.8341,6.8943,6.8921
6.8966,3.9531,6.7987,1.9417,0.90615,5.0859,6.0,4.813,-4.0667,1.9417,0.90615,6.7308,9.4969,10.797,7.0,6.9307,5.9333,9.835,-0.06441,13.724,7.8583
6.8966,4.9581,7.7888,2.9126,1.877,7.1478,8.0,5.7886,-4.0667,2.9126,1.877,8.6538,10.44,9.8211,5.0,1.9802,-0.06667,12.805,-6.8277,10.797,8.8245
-0.98522,-4.0871,-1.1221,-0.97087,-1.0356,0.9622,4.0,-0.06504,-3.0667,-0.97087,-1.0356,3.8462,3.8365,2.0163,-3.0,-8.9109,-10.067,8.8449,-10.692,2.0163,0.12882
0.98522,-5.0921,-2.1122,0.97087,-0.06472,3.0241,5.0,1.8862,-4.0667,0.97087,-0.06472,5.7692,1.0063,-1.8862,-1.0,-12.871,-12.067,4.8845,-4.8953,2.9919,-1.8035
5.9113,-2.0771,1.8482,4.8544,4.7896,8.1787,9.0,4.813,-1.0667,4.8544,4.7896,9.6154,-1.8239,-3.8374,-1.0,-11.881,-10.067,-0.06601,-1.9968,-4.813,-1.8035
4.9261,-0.067,5.8086,3.8835,5.7605,7.1478,9.0,2.8618,0.93333,3.8835,5.7605,8.6538,-5.5975,-9.6911,-1.0,-9.901,-6.0667,-0.06601,5.7327,-4.813,-5.6683
14.778,12.998,17.690001,11.65,10.615,15.395,17.0,9.6911,8.9333,11.65,10.615,16.346001,1.0063,-5.7886,9.0,1.9802,6.9333,8.8449,13.462,5.9187,-0.83736
19.704,17.018,21.65,15.534,12.557,19.518999,20.0,11.642,10.933,15.534,12.557,21.153999,4.7799,-2.8618,14.0,7.9208,14.933,13.795,13.462,11.772,-0.83736
10.837,9.9832,12.739,7.767,4.7896,8.1787,10.0,4.813,2.9333,7.767,4.7896,9.6154,2.8931,-2.8618,9.0,5.9406,11.933,9.835,6.6989,9.8211,-3.7359
3.9409,7.9732,7.7888,0.0,-1.0356,-1.0997,4.0,-2.9919,-1.0667,0.0,-1.0356,1.9231,6.6667,3.9675,8.0,10.891,12.933,6.8647,-0.06441,8.8455,2.0612
4.9261,11.993,11.749,1.9417,1.877,0.9622,6.0,-0.06504,-0.06667,1.9417,1.877,4.8077,15.157,15.675,13.0,17.822001,19.933001,-1.0561,-3.9291,10.797,8.8245
2.9557,4.9581,6.7987,1.9417,-1.0356,-1.0997,2.0,1.8862,-6.0667,1.9417,-1.0356,0.96154,13.27,14.699,10.0,12.871,15.933,2.9043,-4.8953,10.797,3.0274
1.9704,0.93802,2.8383,-0.97087,-3.9482,-2.1306,-1.0,-0.06504,-6.0667,-0.97087,-3.9482,-0.96154,10.44,15.675,7.0,9.901,10.933,2.9043,-0.06441,3.9675,3.0274
1.9704,2.9481,2.8383,0.97087,-2.9773,-0.06873,2.0,1.8862,-1.0667,0.97087,-2.9773,0.0,7.6101,14.699,4.0,8.9109,7.9333,4.8845,-3.9291,-2.8618,7.8583
3.9409,6.9682,4.8185,5.8252,2.8479,3.0241,6.0,6.7642,3.9333,5.8252,2.8479,2.8846,7.6101,13.724,6.0,9.901,6.9333,4.8845,3.8003,2.0163,11.723
2.9557,6.9682,1.8482,7.767,5.7605,1.9931,6.0,6.7642,4.9333,7.767,5.7605,1.9231,7.6101,11.772,6.0,7.9208,3.9333,1.9142,7.6651,7.8699,15.588
-3.9409,0.93802,-4.0924,0.97087,-1.0356,-4.1924,-1.0,1.8862,-0.06667,0.97087,-1.0356,-3.8462,1.9497,1.0407,-1.0,-0.9901,-4.0667,1.9142,1.868,1.0407,8.8245
-4.9261,-0.067,-3.1023,-0.97087,-3.9482,-4.1924,-2.0,0.91057,-3.0667,-0.97087,-3.9482,-4.8077,-0.8805,-2.8618,-2.0,-3.9604,-5.0667,-2.0462,2.8341,1.0407,-0.83736
-4.9261,2.9481,-0.13201,-1.9417,-2.9773,-4.1924,0.0,-2.0163,-2.0667,-1.9417,-2.9773,-2.8846,-0.8805,-4.813,-1.0,-4.9505,-4.0667,-2.0462,2.8341,1.0407,-4.7021
-2.9557,5.9631,3.8284,0.97087,1.877,-3.1615,3.0,-1.0407,1.9333,0.97087,1.877,-0.96154,2.8931,-0.91057,1.0,0.0,0.93333,-4.0264,7.6651,2.0163,2.0612
2.9557,9.9832,7.7888,4.8544,2.8479,-0.06873,4.0,3.8374,0.93333,4.8544,2.8479,1.9231,12.327,9.8211,7.0,7.9208,8.9333,0.92409,9.5974,6.8943,13.655
2.9557,7.9732,6.7987,4.8544,1.877,-1.0997,2.0,3.8374,0.93333,4.8544,1.877,0.0,15.157,13.724,9.0,10.891,11.933,8.8449,6.6989,7.8699,12.689
2.9557,4.9581,4.8185,2.9126,0.90615,-3.1615,-2.0,2.8618,-1.0667,2.9126,0.90615,-2.8846,14.214,12.748,8.0,10.891,12.933,8.8449,1.868,6.8943,7.8583
5.9113,2.9481,6.7987,3.8835,-1.0356,0.9622,-3.0,7.7398,-5.0667,3.8835,-1.0356,-0.96154,13.27,9.8211,9.0,9.901,12.933,8.8449,-12.625,7.8699,2.0612
0.98522,-3.0821,0.85809,2.9126,-1.0356,-1.0997,-5.0,4.813,-7.0667,2.9126,-1.0356,-3.8462,6.6667,2.0163,5.0,2.9703,6.9333,-1.0561,-10.692,6.8943,-5.6683
-2.9557,-3.0821,-3.1023,1.9417,0.90615,-4.1924,-5.0,-0.06504,-3.0667,1.9417,0.90615,-4.8077,4.7799,3.9675,2.0,2.9703,4.9333,-2.0462,1.868,4.9431,-3.7359
1.9704,4.9581,1.8482,1.9417,1.877,-2.1306,2.0,0.91057,0.93333,1.9417,1.877,0.0,9.4969,12.748,8.0,8.9109,9.9333,-0.06601,8.6312,6.8943,5.9259
2.9557,5.9631,2.8383,2.9126,3.8188,-0.06873,5.0,1.8862,2.9333,2.9126,3.8188,2.8846,5.7233,10.797,7.0,7.9208,6.9333,1.9142,8.6312,10.797,9.7907
-0.98522,2.9481,-0.13201,4.8544,2.8479,-1.0997,5.0,-0.06504,3.9333,4.8544,2.8479,1.9231,-0.8805,5.9187,0.0,4.9505,0.93333,-0.06601,6.6989,2.0163,11.723
-3.9409,1.943,-3.1023,-2.9126,-1.0356,-4.1924,4.0,-4.9431,3.9333,-2.9126,-1.0356,-0.96154,-2.7673,4.9431,-3.0,4.9505,-1.0667,-5.0165,9.5974,-5.7886,18.486
-1.9704,3.9531,-2.1122,-4.8544,-1.0356,-4.1924,5.0,-3.9675,3.9333,-4.8544,-1.0356,0.0,0.06289,5.9187,0.0,5.9406,0.93333,-12.937,5.7327,-5.7886,17.52
2.9557,5.9631,1.8482,0.0,2.8479,-0.06873,7.0,0.91057,5.9333,0.0,2.8479,2.8846,5.7233,7.8699,3.0,6.9307,3.9333,-4.0264,2.8341,-4.813,11.723
2.9557,4.9581,0.85809,0.0,1.877,-0.06873,5.0,-0.06504,1.9333,0.0,1.877,2.8846,5.7233,9.8211,2.0,6.9307,3.9333,1.9142,-0.06441,-3.8374,12.689
1.9704,7.9732,2.8383,-0.97087,1.877,1.9931,6.0,0.91057,3.9333,-0.97087,1.877,4.8077,9.4969,12.748,3.0,10.891,5.9333,1.9142,4.7665,4.9431,19.452
2.9557,6.9682,3.8284,0.0,-0.06472,1.9931,5.0,1.8862,-1.0667,0.0,-0.06472,4.8077,13.27,12.748,6.0,9.901,6.9333,3.8944,8.6312,12.748,18.486
0.98522,1.943,3.8284,0.0,-1.0356,0.9622,3.0,2.8618,-5.0667,0.0,-1.0356,2.8846,12.327,5.9187,3.0,3.9604,3.9333,0.92409,-5.8615,6.8943,4.9597
-0.98522,0.93802,3.8284,2.9126,-0.06472,0.9622,2.0,3.8374,-3.0667,2.9126,-0.06472,2.8846,7.6101,-0.91057,-1.0,-0.9901,1.9333,4.8845,-15.523,-2.8618,-8.5668
0.98522,1.943,4.8185,3.8835,-0.06472,1.9931,2.0,2.8618,-4.0667,3.8835,-0.06472,2.8846,5.7233,-0.91057,1.0,0.9901,2.9333,0.92409,-26.150999,2.0163,-9.533
6.8966,4.9581,11.749,3.8835,-0.06472,5.0859,3.0,3.8374,-5.0667,3.8835,-0.06472,5.7692,9.4969,6.8943,6.0,7.9208,9.9333,-1.0561,-4.8953,5.9187,-1.8035
8.867,5.9631,13.729,0.0,-1.0356,4.055,1.0,2.8618,-9.0667,0.0,-1.0356,5.7692,6.6667,10.797,9.0,9.901,11.933,5.8746,10.564,6.8943,5.9259
6.8966,4.9581,12.739,0.0,-2.9773,1.9931,0.0,1.8862,-8.0667,0.0,-2.9773,4.8077,0.06289,10.797,6.0,8.9109,7.9333,9.835,5.7327,5.9187,13.655
7.8818,8.9782,13.729,3.8835,0.90615,4.055,4.0,3.8374,-3.0667,3.8835,0.90615,6.7308,-0.8805,13.724,7.0,11.881,9.9333,5.8746,2.8341,6.8943,20.419001
10.837,15.008,17.690001,5.8252,4.7896,6.1168,8.0,3.8374,0.93333,5.8252,4.7896,9.6154,4.7799,19.577,11.0,18.812,16.933001,2.9043,0.90177,5.9187,26.216
10.837,16.013,17.690001,0.0,1.877,3.0241,8.0,-1.0407,2.9333,0.0,1.877,6.7308,8.5535,19.577,13.0,19.802,19.933001,-1.0561,6.6989,2.0163,25.25
9.8522,16.013,17.690001,0.0,2.8479,5.0859,9.0,-1.0407,4.9333,0.0,2.8479,7.6923,13.27,20.552999,16.0,20.792,20.933001,-0.06601,16.361,6.8943,24.283001
4.9261,12.998,12.739,1.9417,2.8479,1.9931,8.0,-0.06504,2.9333,1.9417,2.8479,5.7692,16.101,18.601999,12.0,18.812,16.933001,-1.0561,5.7327,2.9919,19.452
-2.9557,7.9732,5.8086,0.0,-1.0356,-3.1615,3.0,-2.9919,-3.0667,0.0,-1.0356,0.0,15.157,15.675,7.0,14.851,12.933,-8.9769,-3.9291,-0.91057,12.689
-3.9409,5.9631,4.8185,0.97087,-0.06472,-1.0997,4.0,-1.0407,0.93333,0.97087,-0.06472,1.9231,18.931,15.675,7.0,12.871,10.933,-6.9967,0.90177,2.0163,9.7907
-0.98522,1.943,2.8383,0.0,-1.0356,0.9622,4.0,2.8618,0.93333,0.0,-1.0356,1.9231,21.761,14.699,7.0,7.9208,7.9333,3.8944,1.868,4.9431,3.0274
-4.9261,-6.0972,-5.0825,-4.8544,-5.89,-3.1615,-2.0,-0.06504,-6.0667,-4.8544,-5.89,-3.8462,13.27,3.9675,2.0,-2.9703,-1.0667,1.9142,-10.692,6.8943,-8.5668
-3.9409,-8.1072,-6.0726,-4.8544,-6.8608,-4.1924,-5.0,-2.9919,-12.067,-4.8544,-6.8608,-4.8077,7.6101,-2.8618,1.0,-6.9307,-4.0667,1.9142,-12.625,6.8943,-10.499
4.9261,-1.072,0.85809,-2.9126,-3.9482,-1.0997,-2.0,-1.0407,-9.0667,-2.9126,-3.9482,-0.96154,11.384,4.9431,9.0,1.9802,5.9333,7.8548,-2.963,13.724,-1.8035
13.793,11.993,11.749,1.9417,0.90615,7.1478,7.0,5.7886,-0.06667,1.9417,0.90615,6.7308,18.931,18.601999,19.0,17.822001,19.933001,16.766001,13.462,22.504,14.622
14.778,15.008,13.729,4.8544,-0.06472,9.2096,9.0,9.6911,0.93333,4.8544,-0.06472,7.6923,17.044001,20.552999,19.0,23.761999,23.933001,13.795,-10.692,14.699,19.452
7.8818,9.9832,9.769,2.9126,0.90615,6.1168,7.0,3.8374,-1.0667,2.9126,0.90615,4.8077,10.44,18.601999,13.0,21.782,20.933001,0.92409,-16.49,9.8211,21.385
9.8522,16.013,14.719,5.8252,5.7605,7.1478,12.0,1.8862,3.9333,5.8252,5.7605,10.577,17.987,28.358,19.0,28.712999,27.933001,2.9043,3.8003,19.577,32.013
7.8818,16.013,13.729,5.8252,3.8188,6.1168,11.0,4.813,-0.06667,5.8252,3.8188,9.6154,21.761,34.210999,17.0,30.693001,27.933001,1.9142,9.5974,11.772,33.945
0.98522,8.9782,5.8086,-0.97087,-0.06472,-0.06873,4.0,-1.0407,-4.0667,-0.97087,-0.06472,2.8846,17.044001,31.285,9.0,25.743,19.933001,-1.0561,11.53,2.9919,29.114
4.9261,8.9782,5.8086,1.9417,0.90615,6.1168,5.0,4.813,-2.0667,1.9417,0.90615,4.8077,16.101,30.309,10.0,22.771999,17.933001,5.8746,12.496,5.9187,27.181999
6.8966,10.988,8.7789,4.8544,1.877,11.271,9.0,9.6911,-6.0667,4.8544,1.877,9.6154,17.044001,26.407,10.0,18.812,15.933,-0.06601,2.8341,5.9187,23.316999
3.9409,8.9782,8.7789,4.8544,4.7896,10.241,10.0,6.7642,-3.0667,4.8544,4.7896,10.577,13.27,12.748,7.0,10.891,10.933,3.8944,-0.06441,5.9187,9.7907
-0.98522,3.9531,4.8185,2.9126,2.8479,4.055,6.0,1.8862,2.9333,2.9126,2.8479,4.8077,10.44,3.9675,5.0,4.9505,4.9333,4.8845,-9.7262,1.0407,-0.83736
-2.9557,0.93802,0.85809,-2.9126,-2.9773,-2.1306,0.0,-3.9675,-1.0667,-2.9126,-2.9773,-0.96154,10.44,3.9675,5.0,2.9703,2.9333,-0.06601,-5.8615,0.06504,-1.8035
4.9261,5.9631,7.7888,-1.9417,-4.9191,3.0241,1.0,1.8862,-0.06667,-1.9417,-4.9191,1.9231,12.327,5.9187,10.0,6.9307,6.9333,4.8845,-1.0306,7.8699,2.0612
7.8818,5.9631,11.749,0.0,-4.9191,6.1168,1.0,4.813,-3.0667,0.0,-4.9191,3.8462,9.4969,2.0163,10.0,4.9505,6.9333,5.8746,1.868,6.8943,0.12882
10.837,6.9682,13.729,2.9126,-0.06472,9.2096,4.0,3.8374,-2.0667,2.9126,-0.06472,7.6923,5.7233,1.0407,10.0,4.9505,7.9333,4.8845,8.6312,5.9187,2.0612
11.823,7.9732,14.719,2.9126,4.7896,9.2096,7.0,0.91057,1.9333,2.9126,4.7896,9.6154,4.7799,2.9919,11.0,5.9406,8.9333,1.9142,0.90177,7.8699,3.0274
10.837,6.9682,14.719,0.97087,0.90615,8.1787,5.0,1.8862,-1.0667,0.97087,0.90615,8.6538,5.7233,6.8943,11.0,8.9109,10.933,5.8746,1.868,8.8455,7.8583
13.793,8.9782,15.71,0.97087,-2.9773,9.2096,4.0,7.7398,-2.0667,0.97087,-2.9773,8.6538,8.5535,13.724,13.0,14.851,14.933,13.795,0.90177,10.797,16.554001
8.867,5.9631,9.769,-0.97087,-5.89,6.1168,-2.0,4.813,-5.0667,-0.97087,-5.89,1.9231,6.6667,14.699,9.0,13.861,12.933,4.8845,-1.9968,8.8455,16.554001
2.9557,2.9481,4.8185,-2.9126,-5.89,0.9622,-6.0,-0.06504,-4.0667,-2.9126,-5.89,-1.9231,5.7233,13.724,6.0,12.871,10.933,2.9043,3.8003,6.8943,16.554001
2.9557,4.9581,7.7888,-0.97087,-2.9773,-0.06873,-3.0,0.91057,-5.0667,-0.97087,-2.9773,0.0,6.6667,11.772,7.0,10.891,11.933,-0.06601,14.428,6.8943,10.757
6.8966,9.9832,10.759,1.9417,1.877,1.9931,3.0,3.8374,-1.0667,1.9417,1.877,3.8462,10.44,9.8211,13.0,11.881,13.933,3.8944,8.6312,19.577,8.8245
4.9261,8.9782,6.7987,-2.9126,-2.0065,0.9622,3.0,0.91057,1.9333,-2.9126,-2.0065,2.8846,10.44,7.8699,11.0,10.891,11.933,6.8647,4.7665,13.724,5.9259
5.9113,7.9732,5.8086,-2.9126,-2.9773,3.0241,4.0,1.8862,-2.0667,-2.9126,-2.9773,3.8462,11.384,6.8943,9.0,10.891,9.9333,8.8449,6.6989,5.9187,4.9597
5.9113,10.988,5.8086,1.9417,0.90615,6.1168,7.0,3.8374,-0.06667,1.9417,0.90615,6.7308,10.44,7.8699,7.0,10.891,6.9333,1.9142,3.8003,-0.91057,7.8583
8.867,15.008,8.7789,7.767,7.7023,11.271,13.0,7.7398,6.9333,7.767,7.7023,12.5,13.27,10.797,8.0,11.881,7.9333,3.8944,6.6989,2.9919,10.757
12.808,15.008,10.759,10.68,10.615,13.333,14.0,9.6911,8.9333,10.68,10.615,14.423,17.987,13.724,15.0,13.861,11.933,1.9142,10.564,12.748,12.689
12.808,10.988,10.759,4.8544,4.7896,8.1787,9.0,7.7398,3.9333,4.8544,4.7896,8.6538,21.761,16.65,17.0,12.871,14.933,11.815,8.6312,15.675,10.757
9.8522,5.9631,7.7888,-0.97087,-1.0356,3.0241,3.0,5.7886,-0.06667,-0.97087,-1.0356,1.9231,16.101,12.748,14.0,8.9109,12.933,11.815,6.6989,11.772,4.9597
7.8818,7.9732,8.7789,-0.97087,-0.06472,3.0241,5.0,1.8862,1.9333,-0.97087,-0.06472,2.8846,9.4969,8.8455,10.0,6.9307,9.9333,6.8647,-1.0306,5.9187,5.9259
8.867,9.9832,10.759,2.9126,3.8188,6.1168,8.0,4.813,4.9333,2.9126,3.8188,6.7308,7.6101,10.797,11.0,7.9208,10.933,1.9142,-1.9968,7.8699,8.8245
5.9113,6.9682,8.7789,5.8252,3.8188,6.1168,6.0,7.7398,2.9333,5.8252,3.8188,5.7692,2.8931,8.8455,6.0,6.9307,7.9333,6.8647,2.8341,6.8943,10.757
7.8818,6.9682,10.759,3.8835,0.90615,5.0859,4.0,5.7886,2.9333,3.8835,0.90615,4.8077,7.6101,13.724,9.0,10.891,11.933,9.835,10.564,9.8211,14.622
8.867,4.9581,10.759,0.0,-1.0356,3.0241,1.0,2.8618,1.9333,0.0,-1.0356,1.9231,9.4969,14.699,13.0,11.881,14.933,2.9043,8.6312,12.748,12.689
10.837,3.9531,10.759,0.97087,-0.06472,4.055,0.0,5.7886,0.93333,0.97087,-0.06472,0.96154,8.5535,11.772,14.0,12.871,15.933,7.8548,8.6312,12.748,9.7907
7.8818,2.9481,7.7888,1.9417,-1.0356,3.0241,-2.0,6.7642,-0.06667,1.9417,-1.0356,-0.96154,4.7799,6.8943,10.0,10.891,12.933,2.9043,1.868,9.8211,6.8921
2.9557,4.9581,5.8086,-0.97087,-1.0356,-0.06873,-1.0,-0.06504,0.93333,-0.97087,-1.0356,0.0,2.8931,4.9431,5.0,9.901,8.9333,-0.06601,2.8341,2.0163,6.8921
0.0,3.9531,2.8383,-3.8835,-5.89,-1.0997,-4.0,-1.0407,-4.0667,-3.8835,-5.89,-1.9231,4.7799,4.9431,2.0,8.9109,5.9333,0.92409,1.868,-3.8374,6.8921
-2.9557,-2.0771,-4.0924,-4.8544,-8.8026,-4.1924,-8.0,0.91057,-8.0667,-4.8544,-8.8026,-5.7692,1.9497,-1.8862,-1.0,3.9604,-0.06667,-2.0462,-0.06441,-6.7642,-0.83736
-2.9557,-3.0821,-7.0627,-4.8544,-5.89,-4.1924,-7.0,1.8862,-4.0667,-4.8544,-5.89,-5.7692,2.8931,-2.8618,-1.0,0.0,-4.0667,4.8845,-4.8953,1.0407,-2.7697
-4.9261,-8.1072,-12.013,-4.8544,-5.89,-5.2234,-8.0,1.8862,-4.0667,-4.8544,-5.89,-6.7308,4.7799,-1.8862,-3.0,-5.9406,-8.0667,-1.0561,-5.8615,4.9431,-6.6345
-11.823,-15.142,-17.954,-9.7087,-13.657,-10.378,-13.0,-2.9919,-12.067,-9.7087,-13.657,-12.5,-0.8805,-5.7886,-9.0,-12.871,-14.067,-3.0363,-4.8953,-3.8374,-14.364
-11.823,-16.146999,-17.954,-10.68,-14.628,-11.409,-16.0,-4.9431,-14.067,-10.68,-14.628,-14.423,-4.6541,-7.7398,-10.0,-14.851,-14.067,-6.0066,-13.591,-4.813,-16.296
-9.8522,-14.137,-14.983,-7.767,-10.744,-9.3471,-14.0,-0.06504,-10.067,-7.767,-10.744,-12.5,-8.4277,-11.642,-10.0,-15.842,-14.067,-3.0363,-17.455999,-3.8374,-16.296
-7.8818,-10.117,-9.0429,-7.767,-8.8026,-7.2852,-10.0,-0.06504,-7.0667,-7.767,-8.8026,-9.6154,-14.088,-16.52,-10.0,-15.842,-13.067,0.92409,-7.7939,-2.8618,-16.296
-4.9261,-7.1022,-4.0924,-4.8544,-5.89,-5.2234,-5.0,-0.06504,-2.0667,-4.8544,-5.89,-4.8077,-15.975,-17.496,-9.0,-12.871,-10.067,-6.0066,-0.06441,-4.813,-13.398
-4.9261,-6.0972,-3.1023,-5.8252,-6.8608,-5.2234,-4.0,-2.9919,-0.06667,-5.8252,-6.8608,-4.8077,-15.031,-14.569,-7.0,-8.9109,-7.0667,-7.9868,-0.06441,-9.6911,-4.7021
-2.9557,-3.0821,-1.1221,-6.7961,-4.9191,-5.2234,-1.0,-4.9431,1.9333,-6.7961,-4.9191,-3.8462,-6.5409,-2.8618,-1.0,0.0,-1.0667,-2.0462,2.8341,-4.813,5.9259
1.9704,-0.067,-0.13201,-4.8544,-3.9482,-1.0997,-1.0,-2.0163,-1.0667,-4.8544,-3.9482,-0.96154,2.8931,9.8211,5.0,7.9208,4.9333,8.8449,3.8003,2.9919,11.723
1.9704,-1.072,-3.1023,-2.9126,-7.8317,-1.0997,-4.0,1.8862,-6.0667,-2.9126,-7.8317,-2.8846,1.9497,9.8211,3.0,6.9307,3.9333,7.8548,0.90177,3.9675,13.655
-1.9704,-6.0972,-8.0528,-5.8252,-8.8026,-6.2543,-8.0,-3.9675,-5.0667,-5.8252,-8.8026,-8.6538,-2.7673,5.9187,-1.0,1.9802,-1.0667,1.9142,-3.9291,-0.91057,3.9936
1.9704,-5.0921,-5.0825,-4.8544,-4.9191,-4.1924,-6.0,-3.9675,-2.0667,-4.8544,-4.9191,-6.7308,0.06289,2.9919,2.0,-0.9901,-0.06667,6.8647,-8.7601,-3.8374,-4.7021
2.9557,-4.0871,-4.0924,-3.8835,-5.89,-3.1615,-5.0,-2.0163,-4.0667,-3.8835,-5.89,-4.8077,1.9497,-0.91057,3.0,-2.9703,-1.0667,5.8746,-4.8953,1.0407,-8.5668
-2.9557,-8.1072,-7.0627,-6.7961,-6.8608,-6.2543,-8.0,-5.9187,-6.0667,-6.7961,-6.8608,-5.7692,1.9497,-5.7886,-2.0,-8.9109,-7.0667,0.92409,-0.06441,4.9431,-15.33
-9.8522,-13.132,-13.003,-8.7379,-7.8317,-8.3162,-10.0,-6.8943,-6.0667,-8.7379,-7.8317,-8.6538,-3.7107,-12.618,-10.0,-16.832001,-16.066999,-2.0462,-4.8953,1.0407,-21.127001
-14.778,-18.157,-18.944,-10.68,-10.744,-10.378,-12.0,-7.8699,-6.0667,-10.68,-10.744,-11.538,-10.314,-19.447001,-18.0,-23.761999,-23.066999,-3.0363,-9.7262,-7.7398,-25.958
-19.704,-24.188,-23.893999,-12.621,-9.7735,-14.502,-14.0,-12.748,-7.0667,-12.621,-9.7735,-14.423,-20.691999,-31.153999,-25.0,-34.653,-33.067001,-6.0066,-18.422001,-15.545,-35.619999
-14.778,-21.173,-18.944,-9.7087,-3.9482,-12.44,-9.0,-11.772,-5.0667,-9.7087,-3.9482,-9.6154,-22.579,-35.056999,-22.0,-35.644001,-32.067001,-6.9967,-14.557,-11.642,-35.619999
-10.837,-18.157,-15.974,-7.767,-3.9482,-9.3471,-7.0,-6.8943,-5.0667,-7.767,-3.9482,-6.7308,-22.579,-36.033001,-18.0,-31.683001,-29.066999,-5.0165,-11.659,-9.6911,-34.653999
-8.867,-15.142,-13.993,-7.767,-6.8608,-9.3471,-7.0,-4.9431,-4.0667,-7.767,-6.8608,-7.6923,-22.579,-32.130001,-16.0,-26.733,-25.066999,-7.9868,-13.591,-10.667,-28.857
-7.8818,-10.117,-10.033,-9.7087,-6.8608,-9.3471,-6.0,-9.8211,-3.0667,-9.7087,-6.8608,-6.7308,-18.805,-21.398001,-13.0,-16.832001,-17.066999,-21.848,-11.659,-13.593,-17.261999
-4.9261,-4.0871,-4.0924,-7.767,-4.9191,-5.2234,-3.0,-5.9187,-2.0667,-7.767,-4.9191,-1.9231,-12.201,-8.7154,-7.0,-4.9505,-6.0667,-17.888,-13.591,-11.642,-7.6006
0.0,1.943,-0.13201,-2.9126,-1.0356,-1.0997,2.0,-1.0407,1.9333,-2.9126,-1.0356,1.9231,-6.5409,2.0163,0.0,5.9406,2.9333,-0.06601,-0.06441,-2.8618,5.9259
1.9704,3.9531,-0.13201,-3.8835,-2.0065,-3.1615,3.0,-1.0407,4.9333,-3.8835,-2.0065,0.0,-3.7107,9.8211,2.0,10.891,5.9333,10.825,5.7327,-1.8862,13.655
-0.98522,-0.067,-4.0924,-7.767,-4.9191,-7.2852,-2.0,-4.9431,1.9333,-7.767,-4.9191,-4.8077,-6.5409,8.8455,-3.0,8.9109,3.9333,5.8746,2.8341,-11.642,11.723
-2.9557,-4.0871,-6.0726,-7.767,-5.89,-7.2852,-5.0,-7.8699,-1.0667,-7.767,-5.89,-6.7308,-5.5975,9.8211,-5.0,6.9307,1.9333,-6.0066,3.8003,-15.545,10.757
0.0,-1.072,-3.1023,-5.8252,-5.89,-2.1306,-1.0,-4.9431,-1.0667,-5.8252,-5.89,-1.9231,-0.8805,11.772,-3.0,5.9406,2.9333,-6.9967,5.7327,-8.7154,11.723
-0.98522,-3.0821,-4.0924,-4.8544,-4.9191,-1.0997,-1.0,-2.9919,-2.0667,-4.8544,-4.9191,-0.96154,-1.8239,3.9675,-4.0,-0.9901,-2.0667,-3.0363,3.8003,-2.8618,3.9936
0.0,-5.0921,-4.0924,-4.8544,-4.9191,-1.0997,-1.0,-1.0407,-1.0667,-4.8544,-4.9191,-0.96154,-2.7673,-4.813,-3.0,-7.9208,-6.0667,-1.0561,0.90177,6.8943,-6.6345
0.98522,-6.0972,-4.0924,-5.8252,-5.89,-3.1615,0.0,-3.9675,-0.06667,-5.8252,-5.89,0.0,1.0063,-8.7154,0.0,-12.871,-9.0667,2.9043,-0.06441,7.8699,-13.398
2.9557,-5.0921,-3.1023,-5.8252,-2.9773,-2.1306,3.0,-4.9431,3.9333,-5.8252,-2.9773,1.9231,6.6667,-12.618,3.0,-15.842,-9.0667,7.8548,2.8341,8.8455,-21.127001
-2.9557,-10.117,-10.033,-6.7961,-1.0356,-5.2234,1.0,-9.8211,7.9333,-6.7961,-1.0356,-1.9231,-0.8805,-26.275999,-3.0,-26.733,-18.066999,-3.0363,-18.422001,5.9187,-36.585999
-4.9261,-8.1072,-12.013,-7.767,-0.06472,-6.2543,2.0,-10.797,8.9333,-7.767,-0.06472,-1.9231,-4.6541,-29.202999,-6.0,-25.743,-19.066999,-5.0165,-10.692,-0.91057,-36.585999
-2.9557,-1.072,-7.0627,-4.8544,-0.06472,-4.1924,5.0,-6.8943,8.9333,-4.8544,-0.06472,0.0,-4.6541,-21.398001,-3.0,-15.842,-12.067,-18.878,6.6989,2.9919,-24.025999
-7.8818,-1.072,-7.0627,-6.7961,-1.0356,-7.2852,2.0,-10.797,2.9333,-6.7961,-1.0356,-2.8846,-11.258,-16.52,-7.0,-8.9109,-9.0667,-20.858,5.7327,-2.8618,-13.398
-9.8522,-1.072,-7.0627,-10.68,-2.9773,-9.3471,-1.0,-14.699,0.93333,-10.68,-2.9773,-4.8077,-15.031,-11.642,-11.0,-2.9703,-7.0667,-9.967,5.7327,-18.472,-1.8035
-7.8818,-0.067,-7.0627,-11.65,-6.8608,-8.3162,-4.0,-12.748,-1.0667,-11.65,-6.8608,-6.7308,-14.088,-0.91057,-10.0,0.9901,-4.0667,-9.967,0.90177,-24.325001,4.9597
-5.9113,1.943,-6.0726,-11.65,-7.8317,-8.3162,-4.0,-11.772,-0.06667,-11.65,-7.8317,-7.6923,-15.031,8.8455,-8.0,6.9307,-0.06667,-6.0066,0.90177,-22.374001,15.588
-2.9557,2.9481,-2.1122,-8.7379,-4.9191,-5.2234,0.0,-8.8455,4.9333,-8.7379,-4.9191,-3.8462,-15.975,10.797,-6.0,8.9109,2.9333,-9.967,1.868,-20.423,21.385
0.98522,0.93802,1.8482,-5.8252,-2.9773,-2.1306,0.0,-4.9431,2.9333,-5.8252,-2.9773,-1.9231,-15.975,8.8455,-5.0,5.9406,2.9333,-4.0264,4.7665,-15.545,14.622
-1.9704,-7.1022,-2.1122,-9.7087,-8.8026,-3.1615,-6.0,-5.9187,-3.0667,-9.7087,-8.8026,-5.7692,-15.975,2.0163,-9.0,-0.9901,-3.0667,-13.927,1.868,-14.569,6.8921
-5.9113,-13.132,-9.0429,-11.65,-11.715,-7.2852,-11.0,-5.9187,-8.0667,-11.65,-11.715,-9.6154,-15.031,-4.813,-11.0,-9.901,-9.0667,-10.957,-1.0306,-9.6911,-3.7359
-4.9261,-12.127,-9.0429,-10.68,-8.8026,-8.3162,-10.0,-6.8943,-5.0667,-10.68,-8.8026,-8.6538,-6.5409,-5.7886,-6.0,-10.891,-8.0667,-8.9769,-10.692,-1.8862,-8.5668
0.0,-7.1022,-3.1023,-6.7961,-5.89,-4.1924,-4.0,-4.9431,-0.06667,-6.7961,-5.89,-3.8462,6.6667,-4.813,4.0,-8.9109,-3.0667,-0.06601,-3.9291,10.797,-8.5668
-1.9704,-14.137,-9.0429,-8.7379,-8.8026,-5.2234,-6.0,-3.9675,-3.0667,-8.7379,-8.8026,-5.7692,6.6667,-16.52,3.0,-18.812,-11.067,5.8746,-4.8953,18.601999,-24.025999
-9.8522,-24.188,-20.924,-11.65,-11.715,-9.3471,-11.0,-5.9187,-7.0667,-11.65,-11.715,-10.577,-0.8805,-31.153999,-7.0,-34.653,-26.066999,-1.0561,-18.422001,13.724,-45.282001
-13.793,-27.202999,-26.865,-9.7087,-6.8608,-10.378,-12.0,-6.8943,-4.0667,-9.7087,-6.8608,-11.538,-5.5975,-39.935001,-13.0,-41.584,-33.067001,0.92409,-22.287001,5.9187,-56.875999
-11.823,-23.183001,-22.903999,-8.7379,-4.9191,-10.378,-10.0,-8.8455,-6.0667,-8.7379,-4.9191,-9.6154,-4.6541,-33.105999,-11.0,-35.644001,-28.066999,0.92409,-17.455999,2.9919,-53.977001
-5.9113,-13.132,-13.003,-9.7087,-4.9191,-8.3162,-6.0,-8.8455,-7.0667,-9.7087,-4.9191,-6.7308,-1.8239,-19.447001,-5.0,-18.812,-14.067,-3.0363,-5.8615,1.0407,-29.823
0.0,-3.0821,-4.0924,-7.767,-6.8608,-5.2234,-3.0,-4.9431,-6.0667,-7.767,-6.8608,-2.8846,-2.7673,-6.7642,1.0,-3.9604,-1.0667,1.9142,-1.0306,2.9919,-10.499
0.0,0.93802,-1.1221,-6.7961,-3.9482,-3.1615,0.0,-4.9431,-2.0667,-6.7961,-3.9482,-0.96154,-7.4843,0.06504,0.0,3.9604,4.9333,-6.0066,-0.06441,-2.8618,-4.7021
0.98522,5.9631,4.8185,-4.8544,-0.06472,-1.0997,4.0,-5.9187,3.9333,-4.8544,-0.06472,1.9231,-6.5409,12.748,1.0,14.851,10.933,-7.9868,7.6651,-10.667,14.622
3.9409,8.9782,8.7789,-2.9126,0.90615,0.9622,6.0,-3.9675,4.9333,-2.9126,0.90615,4.8077,-5.5975,24.455,5.0,22.771999,15.933,0.92409,2.8341,-8.7154,32.979
-0.98522,4.9581,6.7987,-4.8544,-2.0065,-1.0997,3.0,-3.9675,3.9333,-4.8544,-2.0065,1.9231,-9.3711,22.504,0.0,19.802,12.933,-6.9967,4.7665,-10.667,32.979
8.867,16.013,15.71,2.9126,5.7605,9.2096,13.0,1.8862,10.933,2.9126,5.7605,12.5,2.8931,30.309,9.0,27.723,19.933001,-1.0561,15.395,0.06504,41.674999
9.8522,12.998,13.729,0.97087,2.8479,8.1787,11.0,0.91057,3.9333,0.97087,2.8479,10.577,10.44,27.382,11.0,22.771999,18.933001,4.8845,10.564,3.9675,32.013
4.9261,2.9481,5.8086,-2.9126,-2.9773,1.9931,3.0,-1.0407,-0.06667,-2.9126,-2.9773,3.8462,13.27,17.625999,7.0,11.881,11.933,4.8845,5.7327,1.0407,19.452
1.9704,-2.0771,1.8482,-2.9126,-2.0065,-1.0997,-1.0,-1.0407,-0.06667,-2.9126,-2.0065,-0.96154,15.157,9.8211,5.0,5.9406,6.9333,0.92409,1.868,2.9919,11.723
-0.98522,-5.0921,-0.13201,0.0,-1.0356,-3.1615,-4.0,-0.06504,-4.0667,0.0,-1.0356,-2.8846,16.101,4.9431,5.0,0.0,4.9333,-2.0462,0.90177,11.772,3.9936
-6.8966,-9.1122,-6.0726,-2.9126,-3.9482,-7.2852,-8.0,-4.9431,-6.0667,-2.9126,-3.9482,-7.6923,12.327,-4.813,0.0,-7.9208,-2.0667,-12.937,-5.8615,6.8943,-6.6345
-8.867,-9.1122,-8.0528,-1.9417,-2.9773,-7.2852,-8.0,-4.9431,-6.0667,-1.9417,-2.9773,-7.6923,8.5535,-11.642,-1.0,-12.871,-7.0667,-7.9868,-8.7601,2.9919,-13.398
-9.8522,-11.122,-11.023,-4.8544,-3.9482,-8.3162,-8.0,-7.8699,-7.0667,-4.8544,-3.9482,-8.6538,4.7799,-15.545,-3.0,-14.851,-11.067,3.8944,-7.7939,6.8943,-18.229
-11.823,-11.122,-13.003,-3.8835,-2.9773,-8.3162,-7.0,-4.9431,-4.0667,-3.8835,-2.9773,-8.6538,0.06289,-16.52,-9.0,-15.842,-14.067,-3.0363,-8.7601,-0.91057,-21.127001
-7.8818,-5.0921,-8.0528,1.9417,0.90615,-3.1615,-2.0,-0.06504,0.93333,1.9417,0.90615,-2.8846,-1.8239,-8.7154,-8.0,-9.901,-10.067,-6.0066,-3.9291,-3.8374,-20.160999
-2.9557,-0.067,-2.1122,3.8835,5.7605,0.9622,3.0,-0.06504,6.9333,3.8835,5.7605,1.9231,-3.7107,-2.8618,-4.0,-2.9703,-4.0667,-5.0165,-5.8615,2.9919,-12.432
1.9704,5.9631,2.8383,5.8252,10.615,6.1168,9.0,-0.06504,12.933,5.8252,10.615,6.7308,-5.5975,3.9675,-1.0,5.9406,1.9333,-4.0264,-0.06441,7.8699,1.095
8.867,14.003,11.749,8.7379,11.586,12.302,13.0,3.8374,12.933,8.7379,11.586,13.462,-3.7107,12.748,5.0,16.832001,11.933,3.8944,12.496,2.0163,12.689
10.837,15.008,14.719,7.767,8.6731,12.302,12.0,5.7886,6.9333,7.767,8.6731,13.462,-5.5975,12.748,8.0,20.792,15.933,0.92409,6.6989,2.9919,18.486
14.778,20.034,19.67,8.7379,11.586,14.364,16.0,5.7886,8.9333,8.7379,11.586,16.346001,1.0063,13.724,13.0,24.752001,19.933001,4.8845,13.462,4.9431,23.316999
17.733999,23.049,22.639999,10.68,13.528,15.395,17.0,6.7642,15.933,10.68,13.528,17.308001,11.384,19.577,18.0,27.723,24.933001,12.805,15.395,9.8211,23.316999
20.690001,23.049,24.620001,9.7087,11.586,15.395,17.0,7.7398,14.933,9.7087,11.586,17.308001,21.761,26.407,24.0,28.712999,29.933001,4.8845,13.462,15.675,22.351
19.704,19.028,22.639999,4.8544,6.7314,12.302,14.0,5.7886,10.933,4.8544,6.7314,13.462,26.478001,24.455,25.0,22.771999,27.933001,0.92409,13.462,20.552999,15.588
19.704,12.998,17.690001,4.8544,4.7896,11.271,11.0,8.7154,8.9333,4.8544,4.7896,10.577,25.535,15.675,21.0,12.871,20.933001,14.785,12.496,20.552999,8.8245
14.778,4.9581,9.769,4.8544,4.7896,8.1787,7.0,11.642,6.9333,4.8544,4.7896,6.7308,17.044001,2.9919,12.0,0.0,6.9333,17.756001,9.5974,14.699,-3.7359
5.9113,-5.0921,-2.1122,0.97087,0.90615,0.9622,0.0,7.7398,4.9333,0.97087,0.90615,-0.96154,7.6101,-12.618,1.0,-15.842,-10.067,5.8746,-1.0306,10.797,-18.229
0.98522,-10.117,-10.033,-2.9126,-2.0065,-4.1924,-3.0,3.8374,3.9333,-2.9126,-2.0065,-4.8077,-1.8239,-24.325001,-3.0,-24.752001,-21.066999,10.825,-6.8277,12.748,-25.958
0.98522,-6.0972,-9.0429,-2.9126,-2.9773,-3.1615,-2.0,3.8374,4.9333,-2.9126,-2.9773,-3.8462,-6.5409,-27.252001,-4.0,-22.771999,-21.066999,10.825,2.8341,7.8699,-23.059999
3.9409,4.9581,-1.1221,0.0,1.877,0.9622,5.0,4.813,10.933,0.0,1.877,1.9231,-3.7107,-19.447001,1.0,-9.901,-10.067,11.815,9.5974,9.8211,-11.465
5.9113,9.9832,4.8185,2.9126,4.7896,3.0241,7.0,6.7642,11.933,2.9126,4.7896,4.8077,0.06289,-6.7642,6.0,2.9703,0.93333,21.716,8.6312,15.675,-0.83736
7.8818,15.008,10.759,5.8252,5.7605,5.0859,9.0,8.7154,10.933,5.8252,5.7605,7.6923,4.7799,8.8455,10.0,17.822001,11.933,16.766001,16.361,17.625999,17.52
3.9409,12.998,8.7789,2.9126,3.8188,0.9622,6.0,2.8618,7.9333,2.9126,3.8188,4.8077,3.8365,14.699,7.0,19.802,13.933,6.8647,13.462,9.8211,21.385
9.8522,17.018,13.729,4.8544,6.7314,6.1168,10.0,4.813,11.933,4.8544,6.7314,8.6538,13.27,27.382,14.0,27.723,21.933001,6.8647,15.395,10.797,27.181999
9.8522,17.018,13.729,6.7961,8.6731,7.1478,11.0,6.7642,11.933,6.7961,8.6731,9.6154,15.157,31.285,14.0,27.723,22.933001,2.9043,18.292999,10.797,27.181999
4.9261,11.993,8.7789,6.7961,8.6731,6.1168,9.0,3.8374,9.9333,6.7961,8.6731,7.6923,10.44,24.455,9.0,18.812,15.933,-0.06601,1.868,6.8943,19.452
9.8522,14.003,11.749,10.68,13.528,12.302,15.0,5.7886,15.933,10.68,13.528,13.462,12.327,22.504,11.0,16.832001,16.933001,4.8845,8.6312,5.9187,18.486
2.9557,5.9631,4.8185,10.68,12.557,7.1478,12.0,5.7886,19.933001,10.68,12.557,9.6154,5.7233,8.8455,3.0,4.9505,5.9333,6.8647,12.496,-2.8618,6.8921
-4.9261,-2.0771,-5.0825,6.7961,8.6731,0.9622,5.0,3.8374,9.9333,6.7961,8.6731,2.8846,1.0063,-1.8862,-4.0,-5.9406,-5.0667,4.8845,6.6989,-4.813,-3.7359
-10.837,-8.1072,-13.003,5.8252,8.6731,-2.1306,0.0,1.8862,4.9333,5.8252,8.6731,-1.9231,-5.5975,-13.593,-12.0,-15.842,-18.066999,4.8845,7.6651,-4.813,-8.5668
-11.823,-13.132,-18.944,3.8835,6.7314,-4.1924,-2.0,-1.0407,6.9333,3.8835,6.7314,-3.8462,-14.088,-26.275999,-19.0,-24.752001,-31.066999,-6.9967,4.7665,-7.7398,-15.33
-11.823,-14.137,-21.914,3.8835,6.7314,-3.1615,-2.0,-0.06504,6.9333,3.8835,6.7314,-3.8462,-20.691999,-35.056999,-21.0,-29.702999,-36.067001,-21.848,1.868,-8.7154,-23.059999
-17.733999,-16.146999,-25.875,2.9126,5.7605,-6.2543,-5.0,-1.0407,6.9333,2.9126,5.7605,-6.7308,-31.069,-40.910999,-27.0,-33.662998,-40.067001,-18.878,-1.9968,-18.472,-26.924
-15.764,-14.137,-21.914,2.9126,4.7896,-6.2543,-5.0,-0.06504,8.9333,2.9126,4.7896,-6.7308,-29.181999,-35.056999,-25.0,-27.723,-33.067001,-6.9967,-0.06441,-21.398001,-20.160999
-9.8522,-9.1122,-13.993,5.8252,6.7314,-2.1306,-4.0,4.813,5.9333,5.8252,6.7314,-3.8462,-19.747999,-21.398001,-16.0,-18.812,-20.066999,1.9142,1.868,-12.618,-15.33
-7.8818,-8.1072,-11.023,5.8252,10.615,-3.1615,-3.0,2.8618,6.9333,5.8252,10.615,-3.8462,-15.975,-13.593,-13.0,-11.881,-13.067,2.9043,-3.9291,-7.7398,-8.5668
-5.9113,-3.0821,-7.0627,5.8252,8.6731,-3.1615,-1.0,3.8374,6.9333,5.8252,8.6731,-2.8846,-6.5409,-2.8618,-7.0,-1.9802,-4.0667,2.9043,5.7327,-3.8374,3.0274
-5.9113,-1.072,-6.0726,4.8544,7.7023,-4.1924,-1.0,3.8374,7.9333,4.8544,7.7023,-3.8462,-2.7673,2.9919,-6.0,1.9802,0.93333,-0.06601,10.564,-3.8374,8.8245
-9.8522,-4.0871,-10.033,2.9126,4.7896,-7.2852,-5.0,0.91057,0.93333,2.9126,4.7896,-8.6538,-4.6541,2.9919,-9.0,0.0,-2.0667,-3.0363,-1.9968,-3.8374,8.8245
-6.8966,-5.0921,-10.033,0.97087,0.90615,-6.2543,-6.0,2.8618,-2.0667,0.97087,0.90615,-8.6538,-2.7673,2.9919,-7.0,-0.9901,-3.0667,-1.0561,-6.8277,-4.813,8.8245
1.9704,0.93802,-1.1221,1.9417,4.7896,0.9622,0.0,3.8374,1.9333,1.9417,4.7896,-1.9231,5.7233,6.8943,1.0,3.9604,2.9333,0.92409,-14.557,-0.91057,6.8921
2.9557,3.9531,2.8383,5.8252,6.7314,3.0241,3.0,4.813,2.9333,5.8252,6.7314,0.96154,6.6667,2.9919,3.0,1.9802,0.93333,3.8944,-5.8615,5.9187,2.0612
0.98522,2.9481,-0.13201,4.8544,4.7896,-0.06873,5.0,4.813,3.9333,4.8544,4.7896,0.0,3.8365,-4.813,1.0,-3.9604,-4.0667,-1.0561,13.462,8.8455,-2.7697
5.9113,5.9631,2.8383,8.7379,7.7023,4.055,7.0,9.6911,10.933,8.7379,7.7023,2.8846,4.7799,-9.6911,4.0,-2.9703,-2.0667,8.8449,12.496,9.8211,-4.7021
0.98522,1.943,-0.13201,6.7961,9.644,1.9931,3.0,5.7886,15.933,6.7961,9.644,0.96154,-5.5975,-21.398001,-5.0,-7.9208,-8.0667,2.9043,6.6989,-0.91057,-14.364
-6.8966,-0.067,-3.1023,6.7961,11.586,-1.0997,1.0,-0.06504,19.933001,6.7961,11.586,0.0,-15.975,-27.252001,-14.0,-11.881,-14.067,-9.967,7.6651,-15.545,-17.261999
-8.867,1.943,-2.1122,1.9417,1.877,-5.2234,-1.0,-3.9675,8.9333,1.9417,1.877,-0.96154,-15.975,-22.374001,-13.0,-5.9406,-9.0667,-8.9769,3.8003,-18.472,-6.6345
-1.9704,6.9682,2.8383,-0.97087,-1.0356,-3.1615,1.0,-2.9919,3.9333,-0.97087,-1.0356,0.0,-10.314,-11.642,-1.0,4.9505,1.9333,-4.0264,5.7327,2.0163,5.9259
0.98522,6.9682,5.8086,0.97087,4.7896,-0.06873,4.0,-1.0407,7.9333,0.97087,4.7896,2.8846,-6.5409,-2.8618,-1.0,8.9109,5.9333,-6.9967,8.6312,-4.813,10.757
-3.9409,2.9481,4.8185,0.0,2.8479,-1.0997,3.0,-1.0407,5.9333,0.0,2.8479,1.9231,-3.7107,5.9187,-5.0,6.9307,3.9333,-4.0264,10.564,-11.642,13.655
-0.98522,4.9581,7.7888,2.9126,4.7896,0.9622,4.0,3.8374,3.9333,2.9126,4.7896,4.8077,3.8365,16.65,-1.0,10.891,6.9333,1.9142,14.428,-0.91057,21.385
-2.9557,0.93802,4.8185,0.0,-1.0356,-0.06873,-1.0,4.813,-1.0667,0.0,-1.0356,0.96154,5.7233,16.65,0.0,6.9307,4.9333,5.8746,4.7665,0.06504,14.622
0.0,-1.072,0.85809,0.0,-0.06472,0.9622,-1.0,4.813,-1.0667,0.0,-0.06472,0.96154,7.6101,15.675,2.0,2.9703,1.9333,8.8449,-1.9968,8.8455,12.689
0.0,-4.0871,-2.1122,3.8835,4.7896,4.055,1.0,6.7642,1.9333,3.8835,4.7896,1.9231,6.6667,9.8211,0.0,-3.9604,-5.0667,10.825,-8.7601,7.8699,5.9259
-2.9557,-8.1072,-5.0825,4.8544,4.7896,4.055,-1.0,6.7642,0.93333,4.8544,4.7896,1.9231,1.0063,2.0163,-6.0,-10.891,-11.067,-9.967,-3.9291,2.0163,-6.6345
0.0,-8.1072,-3.1023,5.8252,3.8188,5.0859,-1.0,8.7154,-2.0667,5.8252,3.8188,2.8846,-4.6541,-5.7886,-4.0,-10.891,-10.067,-1.0561,1.868,13.724,-11.465
10.837,4.9581,7.7888,10.68,8.6731,13.333,7.0,13.593,4.9333,10.68,8.6731,11.538,-2.7673,-6.7642,8.0,-0.9901,-0.06667,21.716,-2.963,34.210999,-5.6683
8.867,10.988,11.749,10.68,10.615,13.333,12.0,10.667,6.9333,10.68,10.615,13.462,-4.6541,-11.642,7.0,2.9703,4.9333,6.8647,-1.0306,15.675,-3.7359
0.0,6.9682,7.7888,7.767,7.7023,8.1787,8.0,6.7642,3.9333,7.767,7.7023,8.6538,-10.314,-19.447001,-5.0,-2.9703,-0.06667,-0.06601,-2.963,-20.423,-19.195
9.8522,11.993,11.749,13.592,12.557,13.333,12.0,13.593,13.933,13.592,12.557,13.462,-5.5975,-13.593,3.0,2.9703,6.9333,15.776,1.868,-7.7398,-15.33
16.749001,17.018,17.690001,19.417,18.382,20.549999,16.0,19.447001,19.933001,19.417,18.382,18.268999,1.9497,-2.8618,10.0,11.881,13.933,20.726,17.327,-3.8374,-0.83736
18.719,21.039,22.639999,15.534,15.469,20.549999,16.0,16.52,13.933,15.534,15.469,19.231001,11.384,10.797,16.0,20.792,21.933001,-0.06601,14.428,2.9919,16.554001
10.837,19.028,21.65,10.68,9.644,13.333,13.0,10.667,11.933,10.68,9.644,14.423,14.214,17.625999,14.0,21.782,20.933001,-5.0165,11.53,7.8699,21.385
0.0,7.9732,9.769,5.8252,4.7896,4.055,5.0,4.813,6.9333,5.8252,4.7896,4.8077,10.44,17.625999,4.0,13.861,8.9333,8.8449,11.53,2.9919,16.554001
-1.9704,0.93802,0.85809,2.9126,-1.0356,-1.0997,-5.0,5.7886,-1.0667,2.9126,-1.0356,-2.8846,8.5535,17.625999,0.0,7.9208,0.93333,9.835,5.7327,5.9187,20.419001
-4.9261,-6.0972,-7.0627,-2.9126,-6.8608,-8.3162,-14.0,2.8618,-9.0667,-2.9126,-6.8608,-11.538,6.6667,15.675,-5.0,0.9901,-5.0667,9.835,1.868,-0.91057,18.486
-2.9557,-4.0871,-5.0825,-2.9126,-5.89,-9.3471,-14.0,1.8862,-7.0667,-2.9126,-5.89,-12.5,10.44,18.601999,0.0,2.9703,-1.0667,5.8746,3.8003,2.0163,21.385
0.98522,0.93802,-1.1221,-0.97087,-4.9191,-7.2852,-10.0,3.8374,-3.0667,-0.97087,-4.9191,-8.6538,17.987,26.407,8.0,9.901,6.9333,5.8746,4.7665,11.772,25.25
-0.98522,-3.0821,-5.0825,-4.8544,-7.8317,-9.3471,-12.0,1.8862,-3.0667,-4.8544,-7.8317,-10.577,14.214,21.528,7.0,7.9208,6.9333,7.8548,7.6651,11.772,19.452
0.98522,-1.072,-1.1221,-3.8835,-6.8608,-7.2852,-12.0,1.8862,-6.0667,-3.8835,-6.8608,-9.6154,7.6101,14.699,7.0,8.9109,9.9333,-1.0561,3.8003,10.797,15.588
6.8966,7.9732,10.759,0.0,-2.9773,-1.0997,-5.0,5.7886,-1.0667,0.0,-2.9773,-1.9231,6.6667,11.772,12.0,13.861,16.933001,-4.0264,5.7327,13.724,12.689
1.9704,5.9631,8.7789,-1.9417,-3.9482,-4.1924,-4.0,1.8862,-1.0667,-1.9417,-3.9482,-2.8846,-1.8239,0.06504,5.0,9.901,11.933,4.8845,6.6989,4.9431,0.12882
-0.98522,3.9531,3.8284,1.9417,1.877,-3.1615,-1.0,1.8862,0.93333,1.9417,1.877,-0.96154,-6.5409,-9.6911,1.0,4.9505,6.9333,9.835,5.7327,0.06504,-6.6345
5.9113,6.9682,6.7987,9.7087,8.6731,4.055,4.0,7.7398,5.9333,9.7087,8.6731,4.8077,-1.8239,-8.7154,7.0,5.9406,8.9333,11.815,1.868,7.8699,-7.6006
5.9113,4.9581,6.7987,7.767,6.7314,5.0859,3.0,7.7398,3.9333,7.767,6.7314,5.7692,-2.7673,-10.667,3.0,2.9703,4.9333,10.825,1.868,1.0407,-10.499
5.9113,3.9531,4.8185,7.767,7.7023,8.1787,4.0,9.6911,2.9333,7.767,7.7023,6.7308,-2.7673,-9.6911,0.0,0.0,-0.06667,6.8647,3.8003,-3.8374,-8.5668
0.98522,-0.067,-1.1221,6.7961,7.7023,5.0859,2.0,6.7642,1.9333,6.7961,7.7023,4.8077,-3.7107,-6.7642,-6.0,-4.9505,-7.0667,-0.06601,3.8003,-5.7886,-7.6006
-3.9409,-1.072,-5.0825,2.9126,4.7896,0.9622,0.0,0.91057,1.9333,2.9126,4.7896,0.0,-0.8805,0.06504,-9.0,-5.9406,-9.0667,-3.0363,6.6989,-9.6911,-1.8035
-0.98522,2.9481,-0.13201,1.9417,2.8479,-0.06873,0.0,2.8618,2.9333,1.9417,2.8479,0.0,8.5535,13.724,-2.0,2.9703,-1.0667,6.8647,1.868,-1.8862,10.757
3.9409,5.9631,5.8086,0.0,2.8479,0.9622,0.0,1.8862,1.9333,0.0,2.8479,0.96154,17.987,24.455,5.0,10.891,7.9333,4.8845,4.7665,6.8943,20.419001
12.808,11.993,13.729,4.8544,5.7605,8.1787,3.0,2.8618,0.93333,4.8544,5.7605,6.7308,23.648001,33.236,15.0,20.792,18.933001,5.8746,12.496,14.699,30.080999
18.719,17.018,20.66,9.7087,6.7314,16.426001,8.0,6.7642,-0.06667,9.7087,6.7314,13.462,23.648001,36.162998,21.0,27.723,26.933001,13.795,9.5974,17.625999,35.877998
16.749001,16.013,20.66,7.767,6.7314,15.395,9.0,4.813,1.9333,7.767,6.7314,14.423,14.214,28.358,18.0,25.743,25.933001,6.8647,10.564,8.8455,30.080999
16.749001,16.013,23.629999,9.7087,8.6731,16.426001,11.0,2.8618,4.9333,9.7087,8.6731,17.308001,10.44,23.48,17.0,24.752001,25.933001,-3.0363,10.564,4.9431,23.316999
14.778,16.013,22.639999,12.621,11.586,18.488001,15.0,3.8374,5.9333,12.621,11.586,21.153999,6.6667,19.577,15.0,22.771999,22.933001,6.8647,10.564,6.8943,18.486
8.867,10.988,14.719,10.68,12.557,15.395,13.0,0.91057,5.9333,10.68,12.557,17.308001,-0.8805,9.8211,6.0,13.861,12.933,-0.06601,11.53,5.9187,11.723
-2.9557,-1.072,0.85809,5.8252,6.7314,5.0859,4.0,-3.9675,0.93333,5.8252,6.7314,7.6923,-17.862,-9.6911,-9.0,-0.9901,-4.0667,-10.957,-7.7939,-4.813,-2.7697
-7.8818,-9.1122,-7.0627,0.0,-1.0356,-1.0997,-4.0,-5.9187,-7.0667,0.0,-1.0356,0.0,-23.521999,-19.447001,-16.0,-11.881,-15.067,-6.0066,-11.659,-15.545,-12.432
-6.8966,-12.127,-12.013,-0.97087,-2.9773,-3.1615,-5.0,-4.9431,-7.0667,-0.97087,-2.9773,-1.9231,-22.579,-24.325001,-16.0,-18.812,-21.066999,-4.0264,-5.8615,-13.593,-13.398
-9.8522,-18.157,-21.914,0.0,-1.0356,-5.2234,-8.0,-2.9919,-6.0667,0.0,-1.0356,-5.7692,-22.579,-29.202999,-20.0,-27.723,-31.066999,-3.0363,-11.659,-12.618,-21.127001
-11.823,-22.177999,-27.855,-5.8252,-7.8317,-8.3162,-12.0,-2.9919,-14.067,-5.8252,-7.8317,-10.577,-17.862,-25.301001,-21.0,-31.683001,-35.067001,-4.0264,-12.625,-13.593,-25.958
-12.808,-21.173,-26.865,-10.68,-13.657,-13.471,-16.0,-5.9187,-17.066999,-10.68,-13.657,-14.423,-14.088,-25.301001,-19.0,-29.702999,-33.067001,-1.0561,-14.557,-10.667,-29.823
-12.808,-17.152,-20.924,-9.7087,-9.7735,-12.44,-13.0,-5.9187,-12.067,-9.7087,-9.7735,-13.462,-11.258,-22.374001,-16.0,-23.761999,-26.066999,-0.06601,-16.49,-7.7398,-29.823
-3.9409,-6.0972,-11.023,-2.9126,-1.0356,-5.2234,-5.0,-0.06504,-1.0667,-2.9126,-1.0356,-4.8077,0.06289,-7.7398,-4.0,-7.9208,-10.067,6.8647,-7.7939,1.0407,-18.229
0.98522,-1.072,-3.1023,-1.9417,-2.9773,-2.1306,-3.0,0.91057,-3.0667,-1.9417,-2.9773,-2.8846,4.7799,2.0163,2.0,1.9802,1.9333,10.825,-2.963,2.0163,-9.533
2.9557,0.93802,2.8383,-4.8544,-4.9191,-3.1615,-3.0,-2.9919,-6.0667,-4.8544,-4.9191,-2.8846,8.5535,9.8211,6.0,6.9307,9.9333,-3.0363,-3.9291,4.9431,-3.7359
8.867,8.9782,12.739,-1.9417,-2.0065,4.055,3.0,-1.0407,-1.0667,-1.9417,-2.0065,4.8077,15.157,21.528,13.0,15.842,18.933001,-10.957,-0.06441,7.8699,7.8583
9.8522,11.993,14.719,1.9417,2.8479,9.2096,7.0,0.91057,4.9333,1.9417,2.8479,8.6538,14.214,23.48,11.0,16.832001,18.933001,4.8845,0.90177,2.0163,12.689
9.8522,8.9782,10.759,0.97087,-0.06472,8.1787,4.0,0.91057,1.9333,0.97087,-0.06472,6.7308,9.4969,17.625999,9.0,12.871,14.933,9.835,-2.963,7.8699,11.723
15.764,11.993,13.729,1.9417,-2.0065,10.241,5.0,5.7886,0.93333,1.9417,-2.0065,7.6923,12.327,18.601999,14.0,14.851,15.933,12.805,6.6989,20.552999,17.52
10.837,10.988,12.739,0.97087,-1.0356,6.1168,5.0,0.91057,2.9333,0.97087,-1.0356,5.7692,4.7799,8.8455,6.0,9.901,9.9333,4.8845,15.395,8.8455,12.689
5.9113,9.9832,7.7888,-0.97087,0.90615,3.0241,4.0,-3.9675,5.9333,-0.97087,0.90615,3.8462,-3.7107,-1.8862,-1.0,3.9604,0.93333,-0.06601,19.259001,1.0407,6.8921
9.8522,11.993,6.7987,1.9417,3.8188,7.1478,7.0,-1.0407,6.9333,1.9417,3.8188,6.7308,2.8931,2.0163,3.0,5.9406,0.93333,8.8449,15.395,4.9431,12.689
5.9113,5.9631,0.85809,-0.97087,-1.0356,3.0241,2.0,-0.06504,3.9333,-0.97087,-1.0356,1.9231,9.4969,4.9431,5.0,3.9604,-2.0667,4.8845,10.564,8.8455,15.588
-0.98522,-4.0871,-8.0528,-6.7961,-8.8026,-6.2543,-7.0,-3.9675,-5.0667,-6.7961,-8.8026,-7.6923,9.4969,3.9675,1.0,-0.9901,-7.0667,-0.06601,4.7665,6.8943,9.7907
-3.9409,-8.1072,-12.013,-8.7379,-9.7735,-10.378,-10.0,-5.9187,-10.067,-8.7379,-9.7735,-11.538,9.4969,4.9431,1.0,-1.9802,-5.0667,-2.0462,-3.9291,2.0163,4.9597
0.98522,-5.0921,-8.0528,-6.7961,-8.8026,-6.2543,-8.0,-3.9675,-8.0667,-6.7961,-8.8026,-7.6923,10.44,8.8455,5.0,2.9703,0.93333,-3.0363,-7.7939,4.9431,5.9259
0.98522,-4.0871,-7.0627,-7.767,-6.8608,-4.1924,-7.0,-5.9187,-4.0667,-7.767,-6.8608,-5.7692,2.8931,6.8943,1.0,1.9802,1.9333,-3.0363,-3.9291,-3.8374,3.0274
-3.9409,-4.0871,-5.0825,-7.767,-4.9191,-4.1924,-6.0,-8.8455,-3.0667,-7.767,-4.9191,-4.8077,-3.7107,5.9187,-6.0,0.9901,-0.06667,-17.888,-1.9968,-16.52,4.9597
-4.9261,-2.0771,-2.1122,-3.8835,-4.9191,-4.1924,-4.0,-4.9431,-5.0667,-3.8835,-4.9191,-3.8462,-4.6541,6.8943,-7.0,0.0,-0.06667,-14.917,-1.0306,-15.545,4.9597
-8.867,-6.0972,-7.0627,-5.8252,-7.8317,-8.3162,-7.0,-6.8943,-8.0667,-5.8252,-7.8317,-7.6923,-9.3711,2.0163,-12.0,-4.9505,-6.0667,-5.0165,-0.06441,-18.472,-4.7021
-3.9409,-3.0821,-4.0924,-5.8252,-6.8608,-4.1924,-6.0,-4.9431,-6.0667,-5.8252,-6.8608,-5.7692,-7.4843,0.06504,-9.0,-3.9604,-6.0667,-1.0561,-2.963,-10.667,-4.7021
1.9704,2.9481,1.8482,-0.97087,-2.0065,3.0241,-1.0,-0.06504,-2.0667,-0.97087,-2.0065,0.96154,-5.5975,0.06504,-5.0,0.0,-3.0667,6.8647,0.90177,-3.8374,0.12882
6.8966,7.9732,5.8086,0.0,-1.0356,6.1168,3.0,1.8862,0.93333,0.0,-1.0356,4.8077,-2.7673,2.0163,0.0,4.9505,1.9333,4.8845,6.6989,0.06504,6.8921
12.808,15.008,11.749,1.9417,1.877,8.1787,9.0,2.8618,6.9333,1.9417,1.877,7.6923,6.6667,6.8943,10.0,10.891,9.9333,8.8449,17.327,9.8211,13.655
10.837,11.993,7.7888,0.0,0.90615,5.0859,6.0,0.91057,5.9333,0.0,0.90615,3.8462,13.27,8.8455,14.0,12.871,11.933,0.92409,4.7665,14.699,13.655
8.867,4.9581,3.8284,-0.97087,-2.0065,1.9931,-1.0,-0.06504,-0.06667,-0.97087,-2.0065,-0.96154,15.157,9.8211,14.0,12.871,11.933,0.92409,2.8341,13.724,14.622
11.823,3.9531,7.7888,0.0,-1.0356,6.1168,-1.0,-0.06504,-1.0667,0.0,-1.0356,1.9231,18.931,15.675,18.0,15.842,15.933,0.92409,6.6989,20.552999,16.554001
16.749001,4.9581,13.729,4.8544,2.8479,12.302,3.0,4.813,0.93333,4.8544,2.8479,7.6923,21.761,19.577,23.0,16.832001,21.933001,6.8647,-1.0306,21.528,15.588
16.749001,5.9631,16.700001,9.7087,7.7023,16.426001,8.0,8.7154,4.9333,9.7087,7.7023,12.5,13.27,13.724,17.0,12.871,19.933001,13.795,0.90177,5.9187,11.723
7.8818,2.9481,9.769,6.7961,7.7023,12.302,7.0,4.813,6.9333,6.7961,7.7023,9.6154,-3.7107,2.9919,-1.0,4.9505,7.9333,6.8647,3.8003,-12.618,5.9259
1.9704,1.943,4.8185,4.8544,6.7314,9.2096,7.0,-1.0407,3.9333,4.8544,6.7314,8.6538,-12.201,0.06504,-10.0,0.9901,-1.0667,-6.9967,3.8003,-16.52,5.9259
6.8966,7.9732,9.769,12.621,12.557,18.488001,13.0,6.7642,7.9333,12.621,12.557,17.308001,-9.3711,2.9919,-6.0,0.0,-1.0667,-1.0561,8.6312,-10.667,4.9597
8.867,4.9581,6.7987,16.504999,15.469,20.549999,16.0,10.667,12.933,16.504999,15.469,18.268999,-8.4277,-1.8862,-5.0,-7.9208,-6.0667,4.8845,6.6989,-6.7642,-7.6006
1.9704,1.943,-1.1221,11.65,12.557,11.271,12.0,4.813,13.933,11.65,12.557,11.538,-12.201,-11.642,-8.0,-15.842,-14.067,-3.0363,5.7327,-9.6911,-20.160999
-0.98522,-1.072,-5.0825,5.8252,5.7605,6.1168,6.0,2.8618,6.9333,5.8252,5.7605,4.8077,-15.975,-21.398001,-10.0,-19.802,-18.066999,-0.06601,-4.8953,-9.6911,-25.958
1.9704,-1.072,-4.0924,3.8835,2.8479,7.1478,4.0,4.813,1.9333,3.8835,2.8479,3.8462,-15.975,-22.374001,-7.0,-15.842,-15.067,-2.0462,-9.7262,-6.7642,-22.093
7.8818,4.9581,1.8482,5.8252,4.7896,10.241,5.0,6.7642,5.9333,5.8252,4.7896,5.7692,-5.5975,-11.642,1.0,-3.9604,-3.0667,-3.0363,3.8003,2.0163,-6.6345
14.778,14.003,9.769,7.767,6.7314,13.333,10.0,9.6911,6.9333,7.767,6.7314,9.6154,12.327,7.8699,15.0,14.851,13.933,10.825,13.462,15.675,11.723
17.733999,16.013,14.719,6.7961,5.7605,12.302,8.0,8.7154,3.9333,6.7961,5.7605,7.6923,24.591,21.528,26.0,26.733,25.933001,14.785,10.564,24.455,22.351
17.733999,14.003,15.71,5.8252,3.8188,10.241,5.0,7.7398,0.93333,5.8252,3.8188,5.7692,27.421,23.48,28.0,28.712999,28.933001,12.805,7.6651,21.528,23.316999
16.749001,11.993,13.729,6.7961,3.8188,10.241,4.0,7.7398,2.9333,6.7961,3.8188,5.7692,23.648001,22.504,23.0,24.752001,26.933001,10.825,3.8003,12.748,21.385
17.733999,12.998,14.719,7.767,4.7896,13.333,6.0,9.6911,4.9333,7.767,4.7896,7.6923,18.931,23.48,19.0,22.771999,24.933001,9.835,6.6989,9.8211,21.385
10.837,7.9732,10.759,8.7379,6.7314,11.271,5.0,6.7642,4.9333,8.7379,6.7314,7.6923,3.8365,14.699,4.0,14.851,15.933,4.8845,-1.0306,-4.813,15.588
1.9704,0.93802,4.8185,7.767,8.6731,8.1787,4.0,1.8862,3.9333,7.767,8.6731,5.7692,-12.201,4.9431,-9.0,4.9505,4.9333,-6.0066,-3.9291,-14.569,7.8583
0.0,-6.0972,-0.13201,10.68,8.6731,10.241,4.0,3.8374,4.9333,10.68,8.6731,5.7692,-22.579,-3.8374,-15.0,-5.9406,-7.0667,-2.0462,1.868,-12.618,0.12882
-0.98522,-13.132,-7.0627,13.592,9.644,13.333,4.0,8.7154,6.9333,13.592,9.644,7.6923,-33.898998,-14.569,-24.0,-20.792,-25.066999,-8.9769,1.868,-14.569,-9.533
-1.9704,-14.137,-10.033,14.563,12.557,15.395,7.0,10.667,10.933,14.563,12.557,10.577,-41.446999,-26.275999,-30.0,-29.702999,-36.067001,-4.0264,-1.9968,-12.618,-16.296
-0.98522,-7.1022,-6.0726,12.621,12.557,15.395,11.0,8.7154,12.933,12.621,12.557,13.462,-37.673,-33.105999,-24.0,-26.733,-33.067001,1.9142,-0.06441,-11.642,-23.059999
0.0,-4.0871,-4.0924,9.7087,8.6731,12.302,9.0,6.7642,8.9333,9.7087,8.6731,11.538,-30.125999,-36.033001,-15.0,-25.743,-24.066999,-1.0561,-15.523,-9.6911,-33.688
3.9409,-0.067,-0.13201,8.7379,6.7314,9.2096,6.0,6.7642,5.9333,8.7379,6.7314,8.6538,-14.088,-29.202999,0.0,-18.812,-10.067,1.9142,-6.8277,-4.813,-27.889999
4.9261,-3.0821,0.85809,3.8835,2.8479,6.1168,1.0,4.813,3.9333,3.8835,2.8479,3.8462,1.9497,-17.496,8.0,-13.861,-1.0667,4.8845,2.8341,-1.8862,-23.059999
5.9113,-1.072,4.8185,1.9417,1.877,5.0859,0.0,3.8374,1.9333,1.9417,1.877,3.8462,16.101,-2.8618,14.0,-8.9109,4.9333,-6.9967,-5.8615,6.8943,-16.296
8.867,6.9682,10.759,3.8835,2.8479,8.1787,3.0,4.813,2.9333,3.8835,2.8479,7.6923,30.252001,14.699,22.0,4.9505,15.933,2.9043,2.8341,15.675,6.8921
9.8522,9.9832,10.759,2.9126,-1.0356,6.1168,1.0,5.7886,-2.0667,2.9126,-1.0356,5.7692,36.855,27.382,24.0,13.861,20.933001,8.8449,8.6312,19.577,20.419001
6.8966,7.9732,8.7789,0.0,-3.9482,0.9622,-1.0,2.8618,-5.0667,0.0,-3.9482,1.9231,28.365,26.407,18.0,14.851,19.933001,3.8944,6.6989,10.797,21.385
10.837,10.988,14.719,2.9126,0.90615,7.1478,3.0,5.7886,-1.0667,2.9126,0.90615,6.7308,19.874001,26.407,13.0,16.832001,19.933001,8.8449,13.462,2.9919,27.181999
14.778,12.998,17.690001,10.68,5.7605,16.426001,9.0,11.642,4.9333,10.68,5.7605,13.462,8.5535,21.528,8.0,17.822001,16.933001,6.8647,12.496,0.06504,26.216
12.808,12.998,14.719,14.563,9.644,18.488001,13.0,14.569,10.933,14.563,9.644,15.385,-3.7107,14.699,2.0,15.842,11.933,4.8845,15.395,-5.7886,24.283001
1.9704,8.9782,5.8086,10.68,6.7314,12.302,11.0,10.667,11.933,10.68,6.7314,10.577,-20.691999,2.0163,-12.0,7.9208,0.93333,-5.0165,0.90177,-24.325001,16.554001
-7.8818,0.93802,-4.0924,10.68,9.644,8.1787,8.0,5.7886,7.9333,10.68,9.644,6.7308,-38.616001,-15.545,-26.0,-4.9505,-15.067,-19.868,-14.557,-35.056999,5.9259
-9.8522,-6.0972,-8.0528,12.621,8.6731,8.1787,5.0,6.7642,1.9333,12.621,8.6731,5.7692,-49.937,-31.153999,-31.0,-14.851,-24.066999,-20.858,-2.963,-31.153999,-4.7021
-9.8522,-10.117,-10.033,13.592,8.6731,10.241,4.0,10.667,2.9333,13.592,8.6731,5.7692,-53.710999,-41.886002,-30.0,-19.802,-28.066999,-11.947,7.6651,-32.130001,-19.195
-11.823,-15.142,-13.003,10.68,8.6731,6.1168,1.0,7.7398,1.9333,10.68,8.6731,1.9231,-46.164001,-43.837002,-27.0,-26.733,-28.066999,-5.0165,-4.8953,-27.252001,-38.519001
-7.8818,-15.142,-10.033,8.7379,5.7605,1.9931,-1.0,3.8374,1.9333,8.7379,5.7605,0.0,-22.579,-29.202999,-12.0,-22.771999,-18.066999,0.92409,-13.591,-9.6911,-40.451
-1.9704,-10.117,-4.0924,7.767,4.7896,0.9622,-2.0,1.8862,-1.0667,7.767,4.7896,-0.96154,4.7799,-7.7398,3.0,-11.881,-3.0667,5.8746,-11.659,2.0163,-24.025999
6.8966,0.93802,5.8086,8.7379,7.7023,3.0241,2.0,0.91057,1.9333,8.7379,7.7023,2.8846,29.308001,15.675,18.0,5.9406,13.933,-1.0561,-3.9291,12.748,-1.8035
8.867,5.9631,9.769,5.8252,5.7605,1.9931,3.0,-0.06504,1.9333,5.8252,5.7605,2.8846,38.742001,28.358,23.0,15.842,21.933001,-1.0561,-8.7601,23.48,9.7907
4.9261,5.9631,10.759,2.9126,1.877,-2.1306,-1.0,-0.06504,-2.0667,2.9126,1.877,0.0,37.799,32.259998,20.0,19.802,22.933001,-0.06601,-1.0306,24.455,17.52
4.9261,10.988,14.719,0.97087,-0.06472,-1.0997,-1.0,-0.06504,-0.06667,0.97087,-0.06472,-0.96154,34.969002,34.210999,19.0,22.771999,23.933001,2.9043,10.564,17.625999,26.216
8.867,18.023001,19.67,1.9417,0.90615,1.9931,3.0,2.8618,1.9333,1.9417,0.90615,2.8846,34.025002,36.162998,20.0,26.733,25.933001,8.8449,12.496,12.748,33.945
3.9409,11.993,14.719,0.97087,0.90615,-2.1306,1.0,-1.0407,-0.06667,0.97087,0.90615,0.96154,22.704,25.431,12.0,17.822001,17.933001,5.8746,8.6312,3.9675,26.216
2.9557,7.9732,10.759,2.9126,3.8188,-1.0997,2.0,-1.0407,1.9333,2.9126,3.8188,1.9231,10.44,13.724,6.0,8.9109,9.9333,-4.0264,7.6651,-4.813,16.554001
2.9557,8.9782,10.759,5.8252,7.7023,4.055,7.0,0.91057,5.9333,5.8252,7.7023,7.6923,-0.8805,3.9675,0.0,4.9505,4.9333,-8.9769,8.6312,-9.6911,13.655
2.9557,8.9782,8.7789,7.767,9.644,7.1478,11.0,4.813,7.9333,7.767,9.644,9.6154,-11.258,-6.7642,-5.0,0.0,-1.0667,-0.06601,-1.9968,-6.7642,4.9597
-0.98522,-1.072,-1.1221,5.8252,5.7605,5.0859,6.0,4.813,2.9333,5.8252,5.7605,4.8077,-27.296,-23.35,-12.0,-12.871,-13.067,-4.0264,-15.523,-5.7886,-14.364
-5.9113,-7.1022,-10.033,2.9126,1.877,-0.06873,2.0,2.8618,0.93333,2.9126,1.877,-0.96154,-37.673,-37.007999,-20.0,-21.782,-23.066999,-2.0462,-6.8277,-15.545,-30.789
-5.9113,-7.1022,-11.023,3.8835,2.8479,0.9622,3.0,2.8618,1.9333,3.8835,2.8479,0.0,-40.502998,-42.862,-22.0,-24.752001,-26.066999,-0.06601,-1.0306,-19.447001,-36.585999
-5.9113,-4.0871,-9.0429,5.8252,4.7896,3.0241,6.0,3.8374,1.9333,5.8252,4.7896,2.8846,-38.616001,-42.862,-19.0,-22.771999,-23.066999,-9.967,-9.7262,-15.545,-41.417
-6.8966,-2.0771,-7.0627,4.8544,5.7605,1.9931,7.0,0.91057,0.93333,4.8544,5.7605,2.8846,-34.842999,-34.081001,-17.0,-15.842,-16.066999,-8.9769,-12.625,-21.398001,-37.551998
-0.98522,4.9581,1.8482,7.767,7.7023,5.0859,10.0,1.8862,3.9333,7.767,7.7023,7.6923,-24.465,-15.545,-9.0,-2.9703,-2.0667,-6.0066,-8.7601,-18.472,-21.127001
2.9557,11.993,10.759,9.7087,11.586,8.1787,15.0,1.8862,10.933,9.7087,11.586,12.5,-13.145,1.0407,-2.0,10.891,10.933,-4.0264,1.868,-10.667,-3.7359
3.9409,17.018,13.729,11.65,13.528,8.1787,17.0,1.8862,12.933,11.65,13.528,13.462,1.0063,15.675,4.0,19.802,17.933001,-0.06601,12.496,-2.8618,15.588
2.9557,12.998,9.769,7.767,8.6731,5.0859,12.0,2.8618,6.9333,7.767,8.6731,8.6538,11.384,22.504,8.0,16.832001,16.933001,-1.0561,16.361,6.8943,22.351
0.0,6.9682,4.8185,1.9417,1.877,0.9622,5.0,0.91057,0.93333,1.9417,1.877,1.9231,19.874001,28.358,10.0,11.881,13.933,-5.0165,0.90177,10.797,21.385
-1.9704,3.9531,-0.13201,0.97087,-1.0356,-1.0997,1.0,0.91057,-2.0667,0.97087,-1.0356,-2.8846,26.478001,30.309,10.0,9.901,10.933,-5.0165,4.7665,6.8943,31.047001
-6.8966,-3.0821,-9.0429,-0.97087,-2.9773,-7.2852,-6.0,-1.0407,-3.0667,-0.97087,-2.9773,-8.6538,21.761,22.504,4.0,3.9604,2.9333,1.9142,11.53,0.06504,29.114
-14.778,-11.122,-17.954,-8.7379,-7.8317,-17.594999,-14.0,-8.8455,-5.0667,-8.7379,-7.8317,-17.308001,15.157,13.724,-1.0,-1.9802,-4.0667,-12.937,2.8341,0.06504,15.588
-14.778,-11.122,-17.954,-12.621,-9.7735,-21.718,-17.0,-13.724,-7.0667,-12.621,-9.7735,-20.191999,11.384,8.8455,-2.0,-0.9901,-5.0667,-9.967,0.90177,4.9431,10.757
-10.837,-6.0972,-13.003,-9.7087,-8.8026,-18.625,-13.0,-10.797,-7.0667,-9.7087,-8.8026,-16.346001,3.8365,0.06504,-3.0,-1.9802,-6.0667,-3.0363,4.7665,8.8455,5.9259
-4.9261,-1.072,-7.0627,-3.8835,-3.9482,-9.3471,-5.0,-4.9431,-5.0667,-3.8835,-3.9482,-6.7308,-7.4843,-11.642,-4.0,-3.9604,-7.0667,-0.06601,4.7665,9.8211,-0.83736
-5.9113,-3.0821,-5.0825,0.0,-2.9773,-3.1615,-2.0,-1.0407,-1.0667,0.0,-2.9773,-2.8846,-24.465,-29.202999,-13.0,-11.881,-13.067,-1.0561,2.8341,-1.8862,-15.33
-16.749001,-13.132,-13.003,-0.97087,-0.06472,-9.3471,-7.0,-5.9187,-1.0667,-0.97087,-0.06472,-8.6538,-51.824001,-52.618,-32.0,-27.723,-27.066999,-10.957,-7.7939,-30.179001,-44.316002
-14.778,-10.117,-9.0429,1.9417,2.8479,-6.2543,-4.0,-4.9431,-3.0667,1.9417,2.8479,-5.7692,-55.597,-54.569,-32.0,-29.702999,-25.066999,-19.868,-15.523,-44.813,-54.944
-11.823,-10.117,-5.0825,0.0,-0.06472,-6.2543,-3.0,-6.8943,-9.0667,0.0,-0.06472,-3.8462,-45.220001,-44.813,-27.0,-27.723,-20.066999,-17.888,-28.084,-46.764,-51.078999
-6.8966,-8.1072,-1.1221,0.97087,2.8479,-3.1615,-1.0,-8.8455,-5.0667,0.97087,2.8479,-0.96154,-23.521999,-24.325001,-15.0,-19.802,-12.067,-15.908,-21.32,-34.081001,-34.653999
5.9113,1.943,6.7987,5.8252,5.7605,4.055,5.0,-2.0163,0.93333,5.8252,5.7605,5.7692,1.9497,0.06504,3.0,-2.9703,2.9333,-11.947,-7.7939,-12.618,-7.6006
3.9409,3.9531,6.7987,4.8544,4.7896,4.055,5.0,1.8862,-6.0667,4.8544,4.7896,2.8846,15.157,11.772,7.0,2.9703,5.9333,-9.967,-15.523,-5.7886,1.095
4.9261,5.9631,5.8086,4.8544,5.7605,3.0241,6.0,0.91057,-2.0667,4.8544,5.7605,2.8846,26.478001,21.528,11.0,8.9109,8.9333,1.9142,-4.8953,7.8699,11.723
0.0,-0.067,-2.1122,0.97087,0.90615,-1.0997,-1.0,-1.0407,1.9333,0.97087,0.90615,-2.8846,29.308001,23.48,11.0,8.9109,6.9333,5.8746,6.6989,23.48,15.588
-6.8966,-8.1072,-13.003,-2.9126,-2.9773,-7.2852,-10.0,-2.9919,-0.06667,-2.9126,-2.9773,-9.6154,27.421,22.504,5.0,6.9307,0.93333,-4.0264,-1.0306,17.625999,21.385
-4.9261,-4.0871,-11.023,-3.8835,-5.89,-5.2234,-9.0,-2.9919,-2.0667,-3.8835,-5.89,-7.6923,32.138,28.358,9.0,12.871,6.9333,-11.947,3.8003,17.625999,27.181999
0.0,-1.072,-7.0627,-0.97087,-6.8608,-1.0997,-7.0,0.91057,-8.0667,-0.97087,-6.8608,-4.8077,24.591,21.528,12.0,12.871,8.9333,-9.967,-6.8277,20.552999,20.419001
0.98522,-7.1022,-8.0528,2.9126,-3.9482,1.9931,-7.0,4.813,-11.067,2.9126,-3.9482,-2.8846,5.7233,4.9431,3.0,1.9802,1.9333,13.795,-9.7262,8.8455,1.095
-4.9261,-14.137,-11.023,0.97087,-2.9773,-0.06873,-10.0,-0.06504,-8.0667,0.97087,-2.9773,-3.8462,-16.917999,-16.52,-10.0,-10.891,-9.0667,0.92409,-6.8277,-3.8374,-16.296
-1.9704,-9.1122,-4.0924,4.8544,2.8479,4.055,-4.0,0.91057,-2.0667,4.8544,2.8479,3.8462,-25.409,-24.325001,-10.0,-12.871,-8.0667,2.9043,-4.8953,-3.8374,-22.093
2.9557,-5.0921,2.8383,8.7379,4.7896,8.1787,3.0,4.813,-1.0667,8.7379,4.7896,8.6538,-29.181999,-28.228001,-7.0,-13.861,-6.0667,15.776,-4.8953,-3.8374,-28.857
2.9557,-2.0771,2.8383,10.68,6.7314,8.1787,6.0,3.8374,3.9333,10.68,6.7314,9.6154,-31.069,-32.130001,-8.0,-17.822001,-8.0667,1.9142,-2.963,-13.593,-32.721001
4.9261,2.9481,4.8185,9.7087,9.644,9.2096,11.0,2.8618,9.9333,9.7087,9.644,12.5,-24.465,-25.301001,-7.0,-13.861,-7.0667,-5.0165,-1.0306,-21.398001,-24.025999
4.9261,7.9732,7.7888,7.767,9.644,9.2096,12.0,0.91057,10.933,7.767,9.644,12.5,-12.201,-14.569,-4.0,-5.9406,-3.0667,-3.0363,7.6651,-16.52,-11.465
3.9409,9.9832,10.759,5.8252,9.644,5.0859,11.0,-1.0407,12.933,5.8252,9.644,9.6154,1.9497,-1.8862,2.0,0.0,2.9333,-4.0264,14.428,-3.8374,-1.8035
5.9113,10.988,10.759,7.767,9.644,4.055,10.0,1.8862,9.9333,7.767,9.644,8.6538,17.987,9.8211,11.0,6.9307,9.9333,0.92409,5.7327,9.8211,6.8921
3.9409,7.9732,4.8185,5.8252,5.7605,1.9931,5.0,2.8618,5.9333,5.8252,5.7605,3.8462,28.365,21.528,15.0,12.871,11.933,12.805,7.6651,20.552999,17.52
0.98522,1.943,-2.1122,1.9417,0.90615,-2.1306,-3.0,-0.06504,-0.06667,1.9417,0.90615,-2.8846,32.138,26.407,15.0,13.861,9.9333,11.815,7.6651,22.504,25.25
-0.98522,-3.0821,-6.0726,1.9417,-0.06472,-4.1924,-7.0,-0.06504,-3.0667,1.9417,-0.06472,-6.7308,31.195,27.382,13.0,12.871,6.9333,7.8548,-1.9968,23.48,23.316999
-4.9261,-7.1022,-11.023,-3.8835,-3.9482,-9.3471,-12.0,-2.9919,-6.0667,-3.8835,-3.9482,-11.538,24.591,23.48,7.0,7.9208,2.9333,-0.06601,-8.7601,19.577,12.689
-5.9113,-12.127,-13.993,-6.7961,-9.7735,-12.44,-16.0,-3.9675,-11.067,-6.7961,-9.7735,-15.385,12.327,13.724,1.0,0.9901,-1.0667,-8.9769,-19.388,14.699,2.0612
-7.8818,-12.127,-13.993,-6.7961,-9.7735,-10.378,-16.0,-2.9919,-9.0667,-6.7961,-9.7735,-13.462,-2.7673,-0.91057,-5.0,-2.9703,-5.0667,-6.0066,-7.7939,4.9431,0.12882
-7.8818,-14.137,-12.013,-3.8835,-5.89,-6.2543,-14.0,-0.06504,-7.0667,-3.8835,-5.89,-9.6154,-12.201,-10.667,-7.0,-8.9109,-6.0667,4.8845,-1.0306,-0.91057,-11.465
-7.8818,-21.173,-15.974,-0.97087,-3.9482,-4.1924,-15.0,1.8862,-8.0667,-0.97087,-3.9482,-9.6154,-22.579,-27.252001,-12.0,-23.761999,-14.067,6.8647,-7.7939,-5.7886,-32.721001
-13.793,-27.202999,-22.903999,-0.97087,-3.9482,-6.2543,-16.0,-0.06504,-9.0667,-0.97087,-3.9482,-12.5,-36.73,-45.789001,-24.0,-39.604,-28.066999,-7.9868,-20.354,-22.374001,-52.044998
