C3,C4,Cz,F1,F2,F3,F4,F7,F8,Fp1,Fp2,Fz,O1,O2,P3,P4,Pz,T3,T4,T5,T6
5.5975,5.1429,1.2945,-16.827999,-23.415001,-5.3205,-1.9324,-12.885,-12.303,-16.827999,-23.415001,-7.8818,6.3492,11.419,8.3175,12.179,9.6618,-0.76923,5.1429,1.9608,10.769
3.7107,7.6825,2.589,-26.537001,-22.764,-7.2436,-6.4412,-13.526,-14.879,-26.537001,-22.764,-7.8818,6.3492,10.781,7.6825,15.385,11.594,3.0769,0.69841,1.9608,13.974
-3.8365,3.2381,-1.9417,-22.653999,-17.561001,-12.372,-14.815,-8.3974,-10.37,-22.653999,-17.561001,-13.136,3.1746,6.9537,3.2381,12.179,8.3736,8.2051,1.9683,0.65359,12.692
-12.013,-5.0159,-7.767,-11.65,-11.057,-12.372,-16.103001,1.859,0.57971,-11.65,-11.057,-11.823,-5.0794,-2.6156,-6.2857,1.9231,-0.64412,4.359,14.032,-3.268,5.641
-15.786,-8.1905,-10.356,-3.8835,-5.8537,-7.8846,-10.95,2.5,16.039,-3.8835,-5.8537,-6.5681,-12.063,-7.7193,-13.27,-6.4103,-9.0177,5.641,14.032,-7.1895,0.51282
-15.157,-9.4603,-12.945,-0.64725,3.9024,-5.3205,-3.2206,1.859,9.5974,-0.64725,3.9024,-2.6273,-17.778,-10.909,-19.618999,-13.462,-18.035,-2.0513,3.2381,-13.725,-0.76923
-12.013,-13.905,-16.181,-7.1197,7.8049,-5.3205,-0.64412,-3.9103,-1.9968,-7.1197,7.8049,-3.9409,-20.316999,-16.650999,-22.159,-21.153999,-24.476999,-23.846001,-1.2063,-15.033,-7.1795
-12.642,-18.349001,-18.77,-17.476,0.0,-11.09,-7.7295,-2.6282,-7.1498,-17.476,0.0,-7.225,-17.778,-17.927,-21.524,-24.358999,-24.476999,-6.5385,-7.5556,-15.033,-10.385
-17.044001,-20.254,-20.712,-11.003,-1.9512,-14.295,-10.306,-4.5513,-3.285,-11.003,-1.9512,-10.509,-14.603,-14.737,-21.524,-21.795,-22.544001,10.769,-9.4603,-18.301001,-9.1026
-12.642,-16.444,-16.181,2.589,-4.5528,-4.0385,-0.64412,-3.9103,2.5121,2.589,-4.5528,-3.2841,-10.794,-11.547,-18.983999,-16.667,-18.68,-4.6154,-1.2063,-16.34,-7.8205
-10.755,-3.746,-7.1197,17.476,5.2033,4.9359,5.153,-4.5513,6.3768,17.476,5.2033,5.9113,-9.5238,-8.9952,-16.444,-7.6923,-14.171,-3.9744,5.7778,-11.765,-5.8974
-6.3522,11.492,3.8835,20.712,20.813,6.859,10.306,-7.7564,11.53,20.712,20.813,11.823,-8.8889,-4.5295,-12.0,3.8462,-7.0853,-2.6923,3.2381,-10.458,3.0769
2.4528,17.205999,13.592,16.181,13.008,9.4231,15.459,6.9872,13.462,16.181,13.008,16.42,-4.4444,0.57416,-3.746,9.6154,1.2882,-17.436001,8.3175,-6.5359,5.0
8.7421,17.841,16.827999,8.4142,10.407,9.4231,15.459,6.9872,16.683001,8.4142,10.407,15.764,-1.2698,4.4019,3.873,12.821,8.3736,-3.9744,16.570999,-1.9608,5.641
12.516,22.285999,20.065001,6.4725,17.561001,10.064,16.747,1.2179,20.548,6.4725,17.561001,15.764,4.4444,11.419,11.492,18.59,15.459,13.333,17.205999,3.9216,12.692
15.031,23.556,20.712,7.767,20.813,9.4231,19.323999,3.7821,19.903,7.767,20.813,15.107,10.159,15.885,15.937,21.153999,19.968,-6.5385,12.762,7.8431,15.897
11.258,22.285999,16.827999,3.8835,10.407,6.859,18.68,-0.0641,13.462,3.8835,10.407,10.509,13.333,17.799,14.667,19.231001,19.323999,-4.6154,17.841,8.4967,17.179001
-0.69182,13.397,5.178,-11.003,-1.3008,-5.3205,11.594,-19.295,1.868,-11.003,-1.3008,-1.9704,6.9841,11.419,4.5079,10.897,9.0177,-3.9744,14.032,0.65359,11.41
-9.4969,8.9524,-4.5307,-18.122999,-3.252,-18.141001,3.2206,-26.346001,-0.70853,-18.122999,-3.252,-11.823,4.4444,8.2297,-1.8413,7.6923,3.2206,-7.1795,3.873,-3.9216,11.41
-14.528,-0.57143,-13.592,-23.301001,-13.008,-24.551001,-9.6618,-28.268999,-2.6409,-23.301001,-13.008,-21.018,0.0,5.6778,-6.2857,3.8462,-1.9324,-19.358999,3.2381,-5.8824,10.128
-15.786,-6.9206,-14.887,-19.417,-8.4553,-22.628,-15.459,-31.474001,8.9533,-19.417,-8.4553,-20.361,-0.63492,8.8676,-7.5556,2.5641,-1.9324,-23.846001,0.69841,-7.1895,11.41
-18.931,-15.175,-16.181,-12.945,-3.252,-21.987,-18.035,-21.218,3.8003,-12.945,-3.252,-19.704,-3.1746,6.3158,-10.73,-3.8462,-5.153,-20.641001,5.7778,-13.072,5.0
-20.818001,-18.349001,-14.887,-14.239,-6.5041,-20.705,-14.815,-15.449,-2.6409,-14.239,-6.5041,-15.107,-6.9841,-1.3397,-14.54,-10.256,-9.6618,-19.358999,4.5079,-16.993,-0.12821
-17.044001,-15.81,-9.0615,-16.181,-9.1057,-14.936,-14.171,-23.141001,6.3768,-16.181,-9.1057,-9.8522,-8.254,-3.2536,-12.635,-10.256,-9.6618,-16.153999,-2.4762,-15.033,-0.76923
-15.157,-13.905,-8.4142,-14.239,-12.358,-15.577,-7.7295,-21.218,-3.285,-14.239,-12.358,-9.1954,-12.698,-9.6332,-13.27,-12.179,-11.594,-14.872,-3.746,-13.072,-5.8974
-9.4969,-6.2857,-6.4725,-12.298,-6.5041,-8.5256,-3.8647,-14.167,-10.37,-12.298,-6.5041,-9.1954,-10.794,-10.909,-9.4603,-8.3333,-10.306,-15.513,-3.746,-7.1895,-6.5385
-0.69182,3.873,-1.9417,-15.534,0.65041,-1.4744,-5.153,-9.0385,-11.014,-15.534,0.65041,-7.225,-5.0794,-8.3573,-3.1111,0.64103,-3.8647,-9.7436,-1.8413,-1.9608,-0.76923
-4.4654,3.2381,-4.5307,-14.887,-5.8537,-9.1667,-12.238,-7.7564,-7.7939,-14.887,-5.8537,-10.509,-2.5397,-9.6332,-3.1111,2.5641,-3.2206,6.9231,-5.0159,0.0,-1.4103
-3.8365,5.1429,-3.8835,-5.178,-12.358,-8.5256,-4.5089,-7.7564,-1.3527,-5.178,-12.358,-5.9113,-0.63492,-7.0813,-1.8413,4.4872,-1.9324,12.051,-7.5556,1.9608,1.1538
-3.8365,-1.8413,-3.8835,9.7087,-1.3008,-0.19231,1.2882,-4.5513,6.3768,9.7087,-1.3008,0.65681,-5.7143,-10.271,-6.9206,-4.4872,-7.7295,3.7179,6.4127,-1.9608,-7.1795
-0.69182,-3.1111,0.0,3.2362,12.358,9.4231,4.5089,13.397,17.327,3.2362,12.358,9.1954,-8.254,-8.9952,-7.5556,-8.3333,-9.6618,-1.4103,12.762,-3.268,-5.8974
2.4528,-3.1111,2.589,1.2945,13.659,11.346,5.153,14.038,10.242,1.2945,13.659,12.479,-7.619,-5.8054,-6.9206,-8.3333,-9.6618,-11.667,0.69841,-7.1895,-3.3333
3.7107,-0.57143,3.2362,5.178,10.407,5.5769,5.153,1.2179,8.9533,5.178,10.407,7.8818,-5.7143,-2.6156,-4.381,-5.1282,-7.0853,-2.0513,-1.8413,-5.2288,-3.3333
10.629,8.3175,8.4142,-2.589,-1.9512,6.859,7.7295,-5.1923,-2.6409,-2.589,-1.9512,7.225,1.2698,6.3158,4.5079,5.7692,1.9324,18.462,-3.746,3.9216,5.0
10.629,9.5873,7.767,-10.356,-16.910999,5.5769,-1.2882,-1.3462,-18.1,-10.356,-16.910999,1.9704,6.9841,13.333,9.5873,11.538,7.7295,13.333,-2.4762,9.1503,10.128
8.7421,6.4127,2.589,-11.003,-16.26,-0.19231,-7.0853,-1.9872,-18.743999,-11.003,-16.26,-4.5977,10.794,15.885,10.857,11.538,9.6618,-5.8974,-5.0159,12.418,10.769
-4.4654,0.06349,-7.1197,-18.122999,-8.4553,-9.8077,-10.306,-3.2692,-14.879,-18.122999,-8.4553,-11.823,9.5238,13.971,5.1429,7.6923,6.4412,-2.6923,-12.635,9.8039,8.2051
-17.044001,-5.0159,-14.239,-18.122999,-5.8537,-13.013,-13.527,-3.9103,-15.523,-18.122999,-5.8537,-15.107,6.3492,12.057,-4.381,2.5641,-0.64412,-9.1026,-18.983999,6.5359,8.8462
-27.736,-13.905,-19.417,-14.239,-8.4553,-15.577,-18.035,-18.013,-14.235,-14.239,-8.4553,-17.733999,1.2698,5.6778,-13.905,-8.3333,-9.0177,-14.872,-10.095,-0.65359,-0.76923
-27.736,-20.254,-19.417,-0.64725,-10.407,-18.141001,-19.323999,-12.244,-10.37,-0.64725,-10.407,-17.077,-1.9048,-1.9777,-17.714001,-16.025999,-14.171,-14.231,-3.746,-5.8824,-7.8205
-17.673,-17.714001,-14.239,0.64725,-4.5528,-15.577,-16.747,-0.0641,1.2238,0.64725,-4.5528,-13.793,-3.8095,-8.3573,-13.905,-17.948999,-14.171,-9.7436,-8.1905,-2.6144,-10.385
0.56604,-7.5556,0.0,1.9417,10.407,-1.4744,-0.64412,4.4231,4.4444,1.9417,10.407,-0.65681,3.1746,-8.3573,-1.8413,-11.538,-4.5089,-3.9744,-7.5556,1.9608,-12.308
11.258,1.9683,11.65,8.4142,14.959,13.269,10.95,8.2692,7.0209,8.4142,14.959,11.166,8.8889,-8.9952,8.3175,-4.4872,3.8647,14.615,-6.2857,7.8431,-14.872
18.176001,11.492,20.065001,18.122999,14.309,19.038,19.968,15.321,17.971001,18.122999,14.309,19.704,9.5238,-7.7193,14.032,3.2051,10.95,21.025999,-3.746,12.418,-16.153999
21.320999,15.937,23.948,28.479,13.008,20.962,20.612,24.295,22.48,28.479,13.008,22.989,7.619,-6.4434,15.937,7.0513,13.527,18.462,-2.4762,10.458,-16.153999
16.917999,14.032,19.417,23.948,13.008,20.962,29.629999,22.372,10.886,23.948,13.008,23.645,2.5397,-8.3573,10.857,5.1282,9.6618,3.0769,-18.983999,5.8824,-16.153999
10.629,3.2381,12.298,11.65,31.870001,22.243999,28.341,16.603001,13.462,11.65,31.870001,22.332001,0.0,-9.6332,3.873,-3.8462,1.9324,7.5641,-10.095,2.6144,-20.641001
3.7107,-5.0159,1.9417,6.4725,30.569,15.833,13.527,12.115,21.191999,6.4725,30.569,15.107,-3.8095,-8.9952,-5.0159,-10.897,-6.4412,3.7179,3.2381,-5.2288,-21.282
4.3396,1.9683,1.2945,14.239,6.5041,15.833,19.968,6.9872,8.3092,14.239,6.5041,15.764,-0.63492,-2.6156,-3.746,-5.1282,-4.5089,3.7179,1.3333,-3.9216,-12.949
5.5975,10.222,5.178,18.122999,2.6016,12.628,17.391001,10.192,5.7327,18.122999,2.6016,14.45,1.9048,2.488,-0.57143,2.5641,-1.2882,13.974,-6.2857,-1.3072,-5.2564
4.9686,10.857,6.4725,5.8252,16.26,6.859,7.7295,9.5513,16.039,5.8252,16.26,10.509,-1.9048,-1.3397,-1.2063,3.2051,-1.9324,8.8462,-2.4762,-1.9608,-3.3333
6.8553,12.762,10.356,5.8252,11.057,7.5,7.0853,2.5,17.327,5.8252,11.057,10.509,-3.1746,-0.0638,1.9683,6.4103,1.2882,-7.1795,7.0476,-1.3072,1.1538
12.516,15.302,15.534,7.1197,9.7561,8.141,13.527,1.2179,11.53,7.1197,9.7561,13.136,2.5397,5.6778,8.9524,12.179,8.3736,-12.308,12.127,5.2288,7.5641
13.145,20.381001,19.417,-1.9417,9.7561,8.7821,21.9,2.5,-1.9968,-1.9417,9.7561,15.107,6.9841,10.144,12.127,19.231001,13.527,-3.9744,8.9524,5.2288,13.974
9.3711,17.841,14.887,-1.9417,9.1057,8.141,14.171,-3.9103,-0.06441,-1.9417,9.1057,12.479,9.5238,11.419,10.857,18.59,14.171,-4.6154,-2.4762,3.268,17.179001
2.4528,9.5873,8.4142,6.4725,9.7561,0.44872,-3.8647,-9.0385,7.0209,6.4725,9.7561,3.9409,8.254,10.144,8.9524,13.462,12.882,-6.5385,-0.57143,5.2288,13.333
0.56604,2.6032,3.2362,-4.5307,-5.8537,-4.0385,-0.64412,-14.808,-0.06441,-4.5307,-5.8537,0.65681,6.9841,7.5917,7.6825,7.6923,10.95,-6.5385,11.492,3.268,7.5641
-2.5786,1.9683,0.64725,-8.4142,-9.7561,-9.8077,2.5765,-12.244,0.57971,-8.4142,-9.7561,-1.3136,10.159,10.781,8.3175,7.0513,11.594,-9.7436,8.9524,1.3072,8.8462
-3.8365,8.9524,1.2945,3.2362,7.8049,-9.8077,5.7971,-17.372,10.886,3.2362,7.8049,-1.3136,10.159,11.419,8.3175,11.538,11.594,-20.641001,3.873,1.9608,13.333
-4.4654,8.9524,-0.64725,-5.8252,7.8049,-9.8077,6.4412,-11.603,12.174,-5.8252,7.8049,-2.6273,5.7143,6.9537,4.5079,11.538,8.3736,-26.41,8.3175,1.3072,12.051
-2.5786,7.6825,-1.2945,-2.589,-6.5041,-5.3205,3.8647,-5.8333,2.5121,-2.589,-6.5041,-2.6273,-0.63492,2.488,1.3333,10.256,4.5089,-11.026,10.222,-3.9216,8.8462
-0.69182,8.3175,1.9417,-3.2362,-9.1057,-3.3974,1.9324,-0.0641,2.5121,-3.2362,-9.1057,-1.3136,-3.8095,1.8501,-0.57143,9.6154,2.5765,-1.4103,8.9524,-5.2288,7.5641
6.8553,15.302,9.0615,-7.1197,-3.252,0.44872,5.7971,5.7051,0.57971,-7.1197,-3.252,1.3136,-1.2698,5.0399,4.5079,15.385,6.4412,6.9231,2.6032,0.0,12.051
8.1132,13.397,8.4142,-5.178,2.6016,1.7308,4.5089,4.4231,-0.06441,-5.178,2.6016,-0.65681,0.0,6.9537,5.7778,14.744,7.7295,13.974,-5.0159,1.3072,12.051
3.7107,1.9683,-0.64725,-6.4725,-3.252,-1.4744,-7.0853,2.5,5.7327,-6.4725,-3.252,-5.9113,-2.5397,2.488,2.6032,4.4872,2.5765,14.615,-0.57143,1.3072,3.0769
-2.5786,-12.0,-12.298,-12.945,-20.163,-9.1667,-12.882,1.859,-4.5733,-12.945,-20.163,-13.136,-3.1746,-0.0638,-2.4762,-6.4103,-4.5089,-2.0513,6.4127,-5.2288,-2.6923
-6.9811,-20.889,-20.712,-15.534,-18.862,-13.654,-23.188,-5.1923,-12.947,-15.534,-18.862,-22.989,-2.5397,1.2121,-4.381,-12.821,-8.3736,-9.7436,1.3333,-7.1895,-2.0513
-8.239,-26.603001,-23.301001,-12.945,-8.4553,-18.782,-27.052999,-5.8333,-13.591,-12.945,-8.4553,-26.929001,-3.1746,-0.0638,-5.6508,-17.308001,-12.238,3.0769,-6.2857,-3.9216,-2.0513
-11.384,-27.872999,-23.948,-8.4142,-16.910999,-21.346001,-25.121,-6.4744,-24.541,-8.4142,-16.910999,-26.273001,-5.7143,-3.2536,-8.8254,-21.153999,-16.103001,10.769,-6.2857,-3.9216,-4.6154
-12.013,-25.968,-22.653999,-11.65,-11.057,-16.858999,-23.188,-7.7564,-12.303,-11.65,-11.057,-20.361,-7.619,-5.8054,-11.365,-22.436001,-18.68,11.41,-4.381,-3.9216,-7.8205
-10.755,-22.159,-22.653999,-14.239,-8.4553,-8.5256,-22.544001,-10.962,-3.285,-14.239,-8.4553,-15.764,-9.5238,-7.7193,-11.365,-21.153999,-19.968,5.641,-15.175,-2.6144,-9.1026
-9.4969,-17.714001,-20.065001,-9.7087,-21.462999,-5.9615,-10.306,-5.8333,-9.0821,-9.7087,-21.462999,-9.8522,-11.429,-10.909,-10.73,-19.231001,-19.968,-14.231,-10.73,0.0,-9.1026
-8.8679,-12.635,-15.534,-11.65,-18.211,-4.6795,-7.0853,0.57692,-11.659,-11.65,-18.211,-5.2545,-11.429,-12.823,-10.73,-16.025999,-18.68,-9.7436,-11.365,0.65359,-7.1795
-8.8679,-12.635,-13.592,-5.178,0.0,-4.0385,-8.3736,-0.0641,-14.235,-5.178,0.0,-5.2545,-8.254,-14.099,-11.365,-16.025999,-18.035,8.2051,-8.8254,0.65359,-9.1026
-12.013,-15.175,-13.592,7.1197,0.65041,-4.6795,-10.306,-5.8333,-3.9291,7.1197,0.65041,-3.9409,-6.3492,-16.650999,-13.27,-19.872,-18.035,-3.3333,-1.8413,0.0,-16.795
-5.0943,-7.5556,-7.1197,11.65,1.3008,4.2949,1.9324,-0.0641,1.868,11.65,1.3008,5.2545,-3.8095,-17.289,-9.4603,-15.385,-12.882,-2.0513,-1.8413,-0.65359,-16.795
-0.69182,0.69841,1.2945,11.003,11.057,10.705,10.95,2.5,3.8003,11.003,11.057,11.823,-2.5397,-16.013,-5.6508,-8.9744,-7.0853,11.41,-2.4762,-2.6144,-14.872
-1.3208,4.5079,4.5307,6.4725,16.26,10.705,9.6618,6.9872,14.75,6.4725,16.26,12.479,-5.0794,-16.650999,-6.9206,-7.6923,-6.4412,7.5641,1.9683,-7.1895,-16.153999
2.4528,5.1429,7.767,8.4142,12.358,13.269,15.459,10.833,16.039,8.4142,12.358,14.45,-6.3492,-16.013,-5.6508,-5.7692,-5.153,-14.872,0.69841,-7.8431,-16.153999
-1.3208,3.2381,5.8252,11.65,11.057,4.9359,10.306,7.6282,12.818,11.65,11.057,8.5386,-5.7143,-11.547,-5.6508,-4.4872,-4.5089,3.7179,0.06349,-6.5359,-13.59
-8.239,-0.57143,-0.64725,12.945,13.659,-7.8846,-4.5089,3.7821,10.886,12.945,13.659,-3.2841,-6.3492,-8.3573,-8.1905,-3.2051,-5.153,17.179001,0.69841,-9.1503,-9.7436
-6.9811,-3.746,-3.2362,5.8252,1.9512,-5.9615,-6.4412,-3.9103,6.3768,5.8252,1.9512,-6.5681,-6.9841,-4.5295,-7.5556,-1.9231,-3.8647,1.1538,-0.57143,-11.111,-4.6154
-3.2075,0.06349,-0.64725,0.0,-1.3008,-1.4744,-1.9324,-1.3462,-3.285,0.0,-1.3008,-3.2841,-6.3492,1.8501,-5.6508,3.8462,-0.64412,-5.2564,-5.0159,-11.111,5.641
-4.4654,1.9683,1.9417,-5.178,-7.8049,-1.4744,6.4412,-3.9103,-9.7262,-5.178,-7.8049,-0.65681,-5.0794,5.0399,-5.0159,5.1282,1.2882,-11.667,2.6032,-10.458,6.2821
-2.5786,2.6032,3.2362,-3.8835,-5.8537,-0.83333,2.5765,-8.3974,-9.0821,-3.8835,-5.8537,0.65681,-1.9048,7.5917,-2.4762,4.4872,2.5765,-1.4103,5.7778,-5.2288,6.9231
1.195,0.69841,1.2945,-5.8252,-17.561001,-0.83333,-4.5089,-0.0641,-1.9968,-5.8252,-17.561001,-2.6273,-0.63492,10.144,1.3333,4.4872,3.2206,4.359,4.5079,1.3072,10.128
1.195,-4.381,-5.178,-10.356,-13.659,-5.9615,-10.306,-6.4744,-3.9291,-10.356,-13.659,-11.166,1.2698,10.781,1.3333,2.5641,3.2206,3.7179,1.3333,0.65359,10.128
0.56604,-5.0159,-8.4142,-24.594999,-5.2033,-11.731,-22.544001,-12.244,-10.37,-24.594999,-5.2033,-20.361,3.1746,12.695,3.2381,4.4872,3.8647,-0.12821,-5.0159,3.9216,11.41
-6.3522,-10.73,-14.239,-15.534,-9.1057,-21.987,-27.052999,-11.603,-18.1,-15.534,-9.1057,-26.273001,0.63492,9.5056,-1.8413,0.0,-0.64412,-8.4615,-3.746,0.0,8.8462
-10.755,-13.27,-15.534,-5.178,-7.8049,-20.063999,-24.476999,-12.244,-15.523,-5.178,-7.8049,-22.989,0.0,5.6778,-5.6508,-4.4872,-5.153,-8.4615,-8.8254,-4.5752,5.0
-7.6101,-9.4603,-9.0615,-10.356,-14.309,-10.449,-5.7971,-14.167,-6.5056,-10.356,-14.309,-9.8522,-1.9048,2.488,-5.6508,-5.7692,-5.153,-6.5385,-8.8254,-6.5359,3.0769
-0.69182,-0.57143,2.589,-5.8252,-11.707,1.7308,12.882,-11.603,-2.6409,-5.8252,-11.707,5.2545,1.2698,3.126,0.06349,-0.64103,0.64412,-7.8205,-15.175,-1.3072,6.2821
3.7107,1.9683,9.0615,-1.2945,-1.9512,3.0128,11.594,-10.962,-0.70853,-1.2945,-1.9512,7.8818,3.1746,0.57416,5.1429,2.5641,5.7971,-7.8205,-3.746,0.65359,4.359
4.3396,3.2381,11.003,-2.589,-1.3008,-1.4744,4.5089,-16.731001,3.1562,-2.589,-1.3008,4.5977,5.0794,0.57416,7.6825,5.7692,10.306,-7.1795,13.397,-1.9608,2.4359
7.4843,10.222,16.181,-7.1197,-7.8049,3.0128,9.0177,-17.372,4.4444,-7.1197,-7.8049,7.225,9.5238,8.8676,12.762,14.744,18.035,-5.8974,19.111,1.3072,6.9231
11.887,17.841,21.358999,-0.64725,-3.9024,10.064,14.171,-8.3974,12.174,-0.64725,-3.9024,12.479,12.698,15.247,16.570999,22.436001,23.188,-12.949,17.841,3.9216,13.333
8.7421,21.016001,20.065001,1.9417,13.659,12.628,11.594,-9.0385,6.3768,1.9417,13.659,12.479,9.5238,14.609,14.667,21.795,21.256001,-15.513,12.762,1.9608,10.769
9.3711,19.746,17.476,7.1197,18.211,10.705,11.594,-2.6282,2.5121,7.1197,18.211,12.479,10.794,15.247,13.397,17.308001,18.68,-12.949,8.9524,4.5752,7.5641
6.8553,14.032,12.298,10.356,8.4553,1.7308,6.4412,3.7821,8.3092,10.356,8.4553,7.225,8.254,13.971,10.857,9.6154,12.238,2.4359,1.3333,5.8824,3.7179
8.1132,6.4127,9.0615,3.2362,3.9024,0.44872,4.5089,0.57692,8.3092,3.2362,3.9024,5.9113,3.8095,10.781,8.3175,3.2051,7.7295,6.9231,-1.8413,3.9216,3.0769
11.258,0.69841,8.4142,3.8835,4.5528,4.9359,1.9324,7.6282,5.0886,3.8835,4.5528,4.5977,3.8095,12.057,10.222,1.9231,8.3736,7.5641,-15.81,5.2288,5.641
8.7421,-3.746,4.5307,-1.9417,-9.1057,1.0897,-1.2882,-1.9872,-7.1498,-1.9417,-9.1057,0.0,3.8095,11.419,9.5873,1.9231,7.7295,8.8462,-13.905,7.8431,6.9231
5.5975,-3.746,1.2945,-13.592,-18.211,-1.4744,-5.153,-5.1923,-7.7939,-13.592,-18.211,-5.9113,3.8095,9.5056,8.3175,2.5641,7.7295,-14.231,1.3333,6.5359,5.0
0.56604,-0.57143,-1.2945,-6.4725,-7.1545,-4.0385,-6.4412,-0.70513,-7.7939,-6.4725,-7.1545,-7.8818,6.9841,12.695,6.4127,5.7692,7.7295,-3.3333,8.3175,6.5359,8.8462
-6.3522,1.3333,-5.178,0.0,-12.358,-7.8846,-2.5765,-8.3974,-27.118,0.0,-12.358,-8.5386,5.7143,7.5917,1.3333,4.4872,2.5765,4.359,4.5079,4.5752,9.4872
-8.8679,0.06349,-5.8252,-8.4142,-5.8537,-6.6026,0.0,-13.526,-12.303,-8.4142,-5.8537,-5.9113,3.8095,1.8501,-3.746,1.9231,-2.5765,-0.12821,0.69841,1.3072,5.641
-6.9811,-3.1111,-3.2362,-6.4725,2.6016,-5.3205,-10.306,-11.603,9.5974,-6.4725,2.6016,-5.9113,2.5397,-0.0638,-4.381,0.0,-4.5089,-0.76923,-1.8413,0.65359,4.359
8.1132,-0.57143,5.8252,1.2945,0.65041,3.6538,-8.3736,-2.6282,10.242,1.2945,0.65041,1.3136,7.619,1.2121,4.5079,3.8462,2.5765,6.2821,3.2381,9.1503,4.359
11.887,5.1429,11.003,-1.2945,2.6016,10.705,2.5765,3.141,3.8003,-1.2945,2.6016,7.225,10.159,1.2121,8.3175,5.7692,6.4412,8.8462,5.1429,11.765,3.7179
6.2264,4.5079,7.767,-3.2362,6.5041,9.4231,7.0853,5.7051,7.6651,-3.2362,6.5041,7.225,5.0794,-0.70175,4.5079,3.8462,4.5089,-9.1026,-3.1111,5.8824,2.4359
0.56604,5.1429,6.4725,5.8252,3.252,9.4231,13.527,2.5,7.0209,5.8252,3.252,10.509,-0.63492,-3.2536,-0.57143,3.8462,1.9324,-1.4103,3.873,2.6144,1.7949
-0.06289,10.857,9.0615,1.9417,5.8537,10.705,17.391001,0.57692,6.3768,1.9417,5.8537,13.793,-2.5397,-0.70175,-2.4762,7.6923,2.5765,8.8462,12.762,-1.3072,3.7179
3.0818,17.205999,13.592,5.8252,4.5528,10.064,14.171,1.859,8.9533,5.8252,4.5528,15.107,3.1746,7.5917,1.3333,14.103,8.3736,9.4872,13.397,1.3072,8.2051
1.8239,12.762,9.0615,9.0615,-0.65041,4.2949,5.153,5.0641,7.6651,9.0615,-0.65041,9.1954,3.8095,7.5917,1.3333,10.897,6.4412,-4.6154,11.492,-0.65359,6.9231
3.7107,6.4127,5.178,1.9417,1.3008,1.0897,4.5089,5.0641,7.6651,1.9417,1.3008,5.2545,3.1746,3.126,1.3333,5.7692,4.5089,-7.1795,12.127,-0.65359,2.4359
8.1132,5.7778,5.8252,-12.298,-3.9024,3.0128,1.9324,5.0641,6.3768,-12.298,-3.9024,3.9409,6.9841,5.6778,7.6825,6.4103,7.7295,-5.8974,7.6825,3.9216,1.7949
6.8553,2.6032,2.589,-11.65,-3.252,-0.19231,7.0853,-0.0641,5.7327,-11.65,-3.252,3.2841,9.5238,4.4019,9.5873,2.5641,7.7295,8.8462,1.3333,6.5359,1.1538
2.4528,-6.2857,-5.178,-0.64725,0.0,-4.0385,1.2882,-1.9872,-8.438,-0.64725,0.0,-3.9409,6.9841,-2.6156,5.1429,-6.4103,0.0,0.51282,-5.0159,7.1895,-6.5385
-1.3208,-9.4603,-9.0615,3.2362,1.9512,-5.3205,-7.0853,-3.2692,-5.8615,3.2362,1.9512,-6.5681,4.4444,-3.8915,1.9683,-8.9744,-3.2206,1.1538,-18.349001,9.1503,-5.2564
-8.8679,-12.0,-9.7087,-14.239,-0.65041,-7.2436,-10.95,-7.7564,-1.3527,-14.239,-0.65041,-7.8818,3.1746,-3.8915,-1.2063,-10.897,-4.5089,9.4872,-8.1905,4.5752,-7.1795
-11.384,-12.635,-7.1197,-7.767,-0.65041,-5.9615,-9.6618,-14.167,-5.8615,-7.767,-0.65041,-6.5681,1.2698,-3.8915,-3.746,-10.897,-4.5089,-0.76923,1.3333,1.3072,-11.026
-6.3522,-6.9206,-2.589,1.9417,-2.6016,-9.1667,-9.0177,-5.1923,1.2238,1.9417,-2.6016,-7.225,3.1746,0.57416,0.06349,-4.4872,-0.64412,-8.4615,-8.1905,4.5752,-4.6154
-3.8365,-5.6508,-2.589,-6.4725,-13.659,-13.013,-9.0177,-6.4744,0.57971,-6.4725,-13.659,-9.1954,1.2698,0.57416,0.06349,-2.5641,0.0,-11.667,-1.2063,3.268,-0.12821
-3.2075,-4.381,-2.589,-12.945,-9.1057,-9.1667,-5.7971,-8.3974,-5.8615,-12.945,-9.1057,-7.225,0.0,0.57416,0.06349,-1.9231,-1.2882,-12.949,4.5079,3.268,-0.12821
-4.4654,1.9683,-0.64725,-7.1197,-1.3008,-4.0385,1.9324,-2.6282,-1.9968,-7.1197,-1.3008,-1.3136,-1.9048,0.57416,-3.1111,1.2821,-1.9324,-13.59,6.4127,-1.3072,3.7179
-6.3522,2.6032,1.2945,9.7087,16.26,-0.19231,2.5765,-2.6282,8.9533,9.7087,16.26,3.2841,-10.159,-6.4434,-8.1905,-1.2821,-5.7971,-0.76923,6.4127,-10.458,1.1538
-4.4654,2.6032,4.5307,15.534,21.462999,3.6538,11.594,3.7821,13.462,15.534,21.462999,9.8522,-12.063,-10.909,-8.1905,-3.2051,-5.153,6.2821,1.9683,-12.418,-3.3333
6.2264,8.9524,12.945,23.948,25.365999,15.192,23.188,10.833,18.615,23.948,25.365999,21.674999,-6.3492,-7.0813,0.06349,2.5641,1.9324,0.51282,-2.4762,-8.4967,-1.4103
9.3711,9.5873,12.945,31.715,25.365999,17.756001,19.968,11.474,22.48,31.715,25.365999,21.674999,-2.5397,-5.8054,2.6032,3.2051,4.5089,-3.3333,1.9683,-5.2288,-2.6923
4.3396,3.2381,4.5307,22.006001,14.959,12.628,13.527,17.243999,12.174,22.006001,14.959,14.45,-1.2698,-7.0813,0.69841,-2.5641,0.64412,5.0,6.4127,-3.268,-8.4615
3.0818,-3.1111,-1.2945,7.767,-1.3008,11.346,7.7295,20.448999,-0.06441,7.767,-1.3008,9.1954,-1.2698,-7.7193,-1.2063,-7.0513,-3.2206,6.9231,-5.0159,-1.3072,-12.949
-0.69182,-2.4762,-3.8835,5.178,-7.1545,9.4231,5.7971,7.6282,-7.1498,5.178,-7.1545,6.5681,-1.2698,-5.1675,-3.746,-7.0513,-5.7971,1.1538,-18.983999,-1.3072,-12.308
-2.5786,-4.381,-6.4725,12.298,10.407,6.2179,-3.8647,11.474,-5.8615,12.298,10.407,1.3136,0.0,-3.8915,-4.381,-9.6154,-9.0177,3.7179,-12.0,1.3072,-12.308
-0.06289,-13.27,-10.356,9.7087,15.61,7.5,-10.95,15.962,-6.5056,9.7087,15.61,-1.9704,0.63492,-4.5295,-5.6508,-15.385,-12.882,13.333,-5.6508,5.8824,-12.308
-4.4654,-15.175,-13.592,9.0615,7.1545,6.2179,-10.95,14.679,-3.285,9.0615,7.1545,-3.9409,1.2698,-5.8054,-7.5556,-15.385,-14.171,10.769,-5.6508,5.2288,-11.667
-3.8365,-10.095,-11.003,6.4725,3.252,6.2179,-1.9324,15.962,-1.9968,6.4725,3.252,-1.9704,1.2698,-5.1675,-6.2857,-10.897,-10.95,2.4359,0.06349,7.8431,-5.8974
-2.5786,-5.6508,-9.0615,5.8252,-3.252,-0.19231,-4.5089,8.9103,-1.3527,5.8252,-3.252,-4.5977,0.63492,-7.0813,-4.381,-7.0513,-8.3736,9.4872,-12.0,8.4967,-2.6923
1.8239,-5.0159,-5.178,14.239,0.0,-1.4744,-10.306,9.5513,-3.285,14.239,0.0,-6.5681,-1.2698,-8.3573,-2.4762,-5.7692,-5.7971,6.9231,-6.2857,7.8431,-5.2564
1.195,-3.746,-2.589,-3.2362,-6.5041,-4.6795,-9.0177,10.192,-14.879,-3.2362,-6.5041,-7.8818,-0.63492,-5.1675,-1.2063,-2.5641,-1.9324,11.41,4.5079,6.5359,-3.9744
-0.69182,-1.2063,-2.589,-12.298,-12.358,-5.9615,-7.0853,7.6282,-9.7262,-12.298,-12.358,-9.1954,-3.1746,-3.8915,-1.2063,0.64103,0.0,8.2051,5.1429,3.268,-1.4103
0.56604,0.69841,-1.2945,-2.589,-12.358,-5.9615,-5.7971,5.7051,-2.6409,-2.589,-12.358,-9.1954,-5.0794,-3.8915,0.06349,2.5641,0.64412,-4.6154,-3.1111,1.9608,1.1538
3.7107,3.873,3.2362,3.8835,-1.9512,-2.1154,1.2882,4.4231,2.5121,3.8835,-1.9512,-1.9704,-1.2698,1.8501,3.873,6.4103,5.7971,3.0769,-1.8413,4.5752,3.0769
1.195,-1.2063,2.589,3.2362,6.5041,1.7308,1.2882,1.859,8.9533,3.2362,6.5041,1.3136,-2.5397,1.2121,1.9683,3.2051,3.8647,13.974,5.7778,0.0,1.7949
2.4528,-1.2063,3.8835,4.5307,10.407,5.5769,1.9324,8.9103,10.242,4.5307,10.407,4.5977,-2.5397,-0.0638,2.6032,3.2051,3.8647,13.974,5.1429,-2.6144,0.51282
10.0,9.5873,10.356,1.2945,14.309,13.269,8.3736,17.243999,8.9533,1.2945,14.309,11.823,1.9048,5.0399,7.6825,10.897,9.0177,17.179001,-2.4762,0.0,9.4872
6.8553,8.9524,6.4725,-1.9417,5.8537,13.269,7.0853,12.756,2.5121,-1.9417,5.8537,9.1954,-0.63492,3.126,3.2381,8.9744,5.153,3.7179,5.7778,-7.1895,8.2051
4.3396,8.3175,5.8252,11.65,5.2033,8.7821,13.527,10.192,5.7327,11.65,5.2033,9.1954,-6.9841,-2.6156,-1.8413,5.7692,1.2882,2.4359,15.302,-13.725,5.0
8.7421,13.397,11.003,11.65,6.5041,8.7821,15.459,11.474,23.768,11.65,6.5041,11.823,-5.7143,-0.0638,1.3333,9.6154,3.8647,-0.12821,14.032,-11.765,8.2051
8.1132,14.667,11.003,9.0615,14.309,10.064,13.527,10.192,23.124001,9.0615,14.309,11.823,-1.2698,5.0399,1.9683,12.179,5.7971,-9.1026,8.3175,-9.1503,10.769
1.195,10.222,3.2362,1.9417,4.5528,3.6538,5.153,3.141,6.3768,1.9417,4.5528,4.5977,-0.63492,10.144,-0.57143,10.256,3.2206,2.4359,5.1429,-9.8039,12.051
-5.0943,-1.8413,-7.1197,-6.4725,-5.8537,-7.2436,0.0,-3.2692,-7.1498,-6.4725,-5.8537,-5.9113,1.2698,11.419,-3.1111,2.5641,-1.9324,-0.76923,3.2381,-3.268,10.128
-5.7233,-8.8254,-14.239,-7.767,-3.252,-8.5256,-2.5765,-3.9103,-16.812,-7.767,-3.252,-11.823,1.2698,10.144,-3.1111,-3.2051,-5.153,5.641,-3.1111,1.9608,5.641
-5.0943,-13.905,-17.476,-13.592,-3.252,-9.8077,-10.306,-3.2692,-16.167,-13.592,-3.252,-14.45,-0.63492,5.0399,-3.1111,-8.3333,-9.0177,11.41,-6.9206,4.5752,2.4359
-8.239,-15.175,-16.181,-5.178,-6.5041,-12.372,-12.882,-5.1923,-3.285,-5.178,-6.5041,-14.45,-1.9048,-2.6156,-5.0159,-12.179,-11.594,3.0769,-12.0,3.9216,-2.6923
-4.4654,-11.365,-8.4142,-0.64725,-3.252,-7.2436,-12.238,0.57692,9.5974,-0.64725,-3.252,-8.5386,-1.2698,-5.1675,-3.1111,-11.538,-9.0177,-3.9744,-3.1111,4.5752,-4.6154
-4.4654,-10.095,-3.2362,-1.2945,-5.8537,-2.7564,-8.3736,-1.9872,4.4444,-1.2945,-5.8537,-3.2841,-3.8095,-11.547,-4.381,-13.462,-9.0177,0.51282,3.873,3.268,-11.026
-0.69182,-2.4762,1.2945,3.2362,-1.3008,3.0128,3.8647,3.7821,-0.06441,3.2362,-1.3008,3.2841,-5.7143,-13.461,-3.1111,-10.256,-6.4412,1.1538,2.6032,1.3072,-12.308
3.0818,3.873,3.2362,5.8252,9.1057,7.5,9.6618,12.756,-12.303,5.8252,9.1057,5.9113,-4.4444,-8.9952,0.06349,-3.8462,-1.9324,9.4872,-1.8413,3.9216,-7.8205
7.4843,5.7778,5.178,10.356,10.407,10.705,5.7971,14.679,-5.2174,10.356,10.407,6.5681,-3.8095,-4.5295,3.2381,1.2821,2.5765,17.179001,-2.4762,4.5752,-3.3333
10.0,5.1429,7.1197,7.767,0.65041,8.141,-2.5765,11.474,5.7327,7.767,0.65041,3.9409,-5.0794,-5.1675,4.5079,5.1282,5.153,15.256,-1.2063,1.9608,-3.3333
15.031,7.0476,11.65,0.64725,2.6016,6.2179,-3.8647,8.2692,8.3092,0.64725,2.6016,2.6273,-1.2698,-0.70175,9.5873,9.6154,10.306,1.1538,-0.57143,3.268,-0.12821
13.774,9.5873,12.298,-2.589,5.2033,2.3718,-4.5089,-1.9872,5.0886,-2.589,5.2033,-1.3136,1.9048,5.6778,11.492,14.103,12.882,3.0769,-5.6508,2.6144,6.2821
7.4843,4.5079,4.5307,-1.9417,-7.1545,-5.3205,-5.7971,-1.9872,-5.2174,-1.9417,-7.1545,-7.225,1.2698,3.764,8.3175,8.9744,9.0177,12.692,-0.57143,0.65359,5.641
5.5975,0.69841,1.2945,4.5307,-8.4553,-5.3205,-3.2206,2.5,-5.8615,4.5307,-8.4553,-5.9113,4.4444,3.764,7.6825,5.1282,7.0853,13.974,7.6825,2.6144,4.359
-1.3208,-1.8413,-2.589,4.5307,-4.5528,-4.0385,-4.5089,3.7821,3.1562,4.5307,-4.5528,-3.9409,6.3492,4.4019,3.2381,1.9231,3.2206,5.0,7.0476,0.65359,3.7179
-9.4969,-6.9206,-11.003,-2.589,-3.252,-5.3205,-3.8647,-3.2692,-7.1498,-2.589,-3.252,-4.5977,-3.8095,-2.6156,-7.5556,-6.4103,-7.0853,-13.59,-1.8413,-7.8431,0.51282
-5.7233,-0.57143,-5.178,4.5307,-2.6016,3.0128,7.7295,-2.6282,-11.659,4.5307,-2.6016,3.2841,0.63492,2.488,-5.0159,-1.9231,-4.5089,-14.231,1.3333,-1.9608,5.0
-0.06289,3.873,1.2945,1.2945,0.65041,4.9359,7.7295,-5.8333,-5.2174,1.2945,0.65041,6.5681,5.7143,7.5917,0.06349,3.2051,0.0,1.1538,-1.2063,1.9608,8.2051
-1.9497,-1.2063,-0.64725,-6.4725,-2.6016,-0.83333,-1.2882,-8.3974,3.8003,-6.4725,-2.6016,1.9704,0.63492,3.126,-1.2063,-1.2821,-2.5765,-2.6923,-5.6508,1.9608,3.0769
3.7107,0.69841,2.589,-7.767,3.252,2.3718,3.2206,-10.321,8.9533,-7.767,3.252,3.9409,2.5397,1.8501,3.2381,-0.64103,0.64412,-1.4103,0.69841,5.2288,0.51282
4.9686,4.5079,5.8252,-7.767,4.5528,3.0128,9.0177,-12.244,1.868,-7.767,4.5528,5.9113,6.3492,2.488,7.0476,1.9231,3.8647,-2.6923,0.69841,7.1895,-0.12821
5.5975,5.7778,5.8252,3.8835,1.9512,0.44872,4.5089,-8.3974,0.57971,3.8835,1.9512,2.6273,8.254,4.4019,9.5873,3.8462,6.4412,-7.1795,4.5079,8.4967,1.7949
-0.06289,1.3333,0.64725,9.0615,-2.6016,-6.6026,-5.153,-7.1154,1.2238,9.0615,-2.6016,-3.9409,6.9841,2.488,7.0476,0.64103,5.153,-9.7436,7.6825,4.5752,-0.76923
-3.2075,1.9683,-1.2945,2.589,-3.9024,-6.6026,-4.5089,-9.0385,-0.06441,2.589,-3.9024,-3.2841,6.3492,1.8501,5.7778,0.0,3.8647,-0.12821,1.9683,7.1895,-0.76923
-6.9811,-5.0159,-6.4725,-6.4725,-1.9512,-7.2436,-1.2882,-6.4744,0.57971,-6.4725,-1.9512,-4.5977,1.9048,-5.1675,0.06349,-7.6923,-3.2206,-9.7436,-0.57143,3.268,-6.5385
-12.642,-13.27,-10.356,-6.4725,-5.2033,-11.09,-4.5089,-1.3462,1.868,-6.4725,-5.2033,-7.225,-1.9048,-11.547,-5.6508,-16.025999,-10.306,-12.308,-5.6508,3.9216,-12.308
-6.9811,-10.73,-4.5307,3.2362,-2.6016,-3.3974,-2.5765,-2.6282,5.7327,3.2362,-2.6016,-1.3136,-1.9048,-12.823,-5.0159,-14.744,-10.306,3.7179,-6.2857,3.9216,-11.667
-5.0943,-5.6508,-2.589,-6.4725,-1.9512,2.3718,0.64412,-3.2692,-1.3527,-6.4725,-1.9512,-0.65681,-6.9841,-13.461,-8.8254,-11.538,-12.238,1.1538,-10.73,-3.268,-9.1026
-5.0943,-0.57143,-1.2945,-7.767,3.9024,5.5769,7.7295,-1.3462,-0.70853,-7.767,3.9024,1.9704,-12.698,-12.185,-13.27,-7.0513,-12.882,2.4359,-3.746,-6.5359,-5.8974
-5.0943,5.7778,0.64725,12.298,14.309,1.0897,4.5089,-1.3462,-2.6409,12.298,14.309,1.9704,-11.429,-4.5295,-13.905,0.64103,-9.0177,-2.0513,7.6825,-9.8039,1.1538
-8.8679,6.4127,-0.64725,7.1197,3.252,-7.2436,0.64412,-5.1923,1.2238,7.1197,3.252,-1.9704,-10.159,-1.3397,-13.905,4.4872,-5.7971,-21.923,14.032,-12.418,3.0769
-0.06289,11.492,3.8835,-5.8252,-0.65041,-2.7564,0.64412,-5.8333,8.3092,-5.8252,-0.65041,0.0,-0.63492,6.3158,-3.746,12.821,5.7971,-20.641001,13.397,-7.8431,6.9231
3.0818,16.570999,9.0615,-6.4725,3.252,-1.4744,5.153,-5.1923,5.7327,-6.4725,3.252,2.6273,8.8889,15.885,6.4127,21.153999,18.035,5.641,7.6825,-0.65359,15.256
4.9686,13.397,9.7087,-1.9417,-7.1545,-3.3974,2.5765,3.141,3.1562,-1.9417,-7.1545,-0.65681,11.429,16.523001,12.762,21.153999,22.544001,7.5641,6.4127,4.5752,13.333
9.3711,5.7778,9.7087,-4.5307,-17.561001,-3.3974,-3.2206,3.7821,-1.9968,-4.5307,-17.561001,-3.2841,11.429,13.971,17.205999,18.59,23.188,5.641,-1.2063,5.2288,10.769
14.403,3.873,10.356,-9.7087,-20.813,1.7308,-3.2206,-3.2692,-11.659,-9.7087,-20.813,-1.9704,12.063,13.333,20.381001,16.025999,22.544001,4.359,-6.9206,7.8431,8.8462
18.176001,7.6825,11.65,-10.356,-7.1545,6.2179,0.0,-2.6282,-20.032,-10.356,-7.1545,1.3136,8.8889,9.5056,20.381001,13.462,18.035,7.5641,-13.905,8.4967,8.2051
14.403,5.1429,8.4142,-0.64725,3.252,2.3718,-3.2206,1.859,-14.879,-0.64725,3.252,2.6273,6.9841,3.126,17.205999,5.7692,10.306,9.4872,-1.2063,11.111,1.7949
14.403,9.5873,9.0615,8.4142,7.8049,4.2949,5.7971,6.3462,-6.5056,8.4142,7.8049,8.5386,9.5238,5.0399,17.205999,5.1282,7.7295,8.8462,-0.57143,13.072,2.4359
7.4843,5.7778,4.5307,-3.8835,5.8537,5.5769,8.3736,-5.1923,-1.9968,-3.8835,5.8537,9.1954,3.8095,-0.0638,8.9524,-2.5641,-0.64412,3.0769,2.6032,9.1503,-2.0513
-1.9497,0.69841,0.0,-5.178,-3.252,4.9359,10.95,-5.8333,-1.9968,-5.178,-3.252,7.8818,-1.9048,-4.5295,0.06349,-8.9744,-9.0177,-16.795,1.3333,5.8824,-4.6154
-9.4969,-5.0159,-3.8835,2.589,-7.1545,0.44872,7.7295,-7.7564,1.2238,2.589,-7.1545,5.2545,-1.9048,-6.4434,-5.6508,-12.179,-12.238,1.1538,-4.381,1.9608,-6.5385
-8.8679,-9.4603,-3.8835,2.589,-1.3008,-0.83333,-5.153,-5.1923,2.5121,2.589,-1.3008,0.65681,-0.63492,-5.1675,-5.0159,-11.538,-9.6618,8.8462,-4.381,3.268,-7.1795
5.5975,-4.381,2.589,5.8252,4.5528,4.9359,-0.64412,8.2692,-0.06441,5.8252,4.5528,3.2841,2.5397,-1.9777,3.873,-4.4872,-0.64412,0.51282,-1.8413,7.1895,-3.3333
17.547001,4.5079,10.356,12.945,5.8537,10.705,3.2206,13.397,-1.3527,12.945,5.8537,5.9113,8.8889,-0.0638,13.397,3.8462,8.3736,5.0,4.5079,12.418,-0.76923
20.691999,10.222,12.945,13.592,10.407,12.628,3.8647,9.5513,-5.2174,13.592,10.407,7.225,12.063,0.57416,14.667,8.3333,12.238,8.2051,-3.1111,14.379,-0.12821
18.176001,12.127,12.298,12.298,5.8537,11.987,3.8647,14.679,-2.6409,12.298,5.8537,7.225,12.063,1.8501,13.397,9.6154,11.594,9.4872,-10.095,13.072,-0.76923
13.145,5.7778,6.4725,6.4725,3.9024,6.2179,0.64412,17.885,-2.6409,6.4725,3.9024,3.9409,11.429,3.126,10.222,5.7692,7.7295,13.974,-5.6508,11.765,-1.4103
3.7107,-3.746,-0.64725,4.5307,9.7561,-0.83333,-7.0853,17.243999,0.57971,4.5307,9.7561,-3.2841,9.5238,3.126,6.4127,0.64103,3.2206,12.051,6.4127,9.1503,-2.6923
-3.8365,-8.8254,-5.8252,8.4142,1.3008,-4.6795,-5.153,11.474,-4.5733,8.4142,1.3008,-6.5681,4.4444,1.8501,1.9683,-1.9231,0.0,8.2051,3.2381,4.5752,-3.9744
1.195,-1.2063,0.0,11.003,-8.4553,-0.19231,-0.64412,7.6282,-10.37,11.003,-8.4553,-1.9704,0.63492,5.6778,4.5079,5.1282,5.153,1.1538,-3.746,3.9216,1.7949
1.8239,0.69841,3.2362,12.945,1.9512,1.0897,-6.4412,10.192,-2.6409,12.945,1.9512,-0.65681,-0.63492,6.9537,3.873,8.3333,7.0853,-1.4103,-4.381,-2.6144,5.641
1.8239,-0.57143,1.9417,8.4142,11.057,1.7308,-7.7295,7.6282,-5.8615,8.4142,11.057,-1.3136,1.9048,8.2297,2.6032,8.3333,7.0853,9.4872,-6.2857,-5.2288,5.0
0.56604,0.69841,-1.2945,3.8835,1.3008,-1.4744,-3.8647,7.6282,-13.591,3.8835,1.3008,-3.2841,1.2698,4.4019,1.3333,7.0513,5.7971,-2.6923,-1.2063,-5.2288,3.7179
-2.5786,-2.4762,-5.178,1.9417,-0.65041,-4.0385,-5.153,8.2692,-14.879,1.9417,-0.65041,-2.6273,2.5397,3.126,0.69841,3.8462,4.5089,6.2821,-4.381,-1.3072,3.0769
-8.239,-8.1905,-7.767,3.2362,-5.2033,-5.9615,-2.5765,3.141,-14.879,3.2362,-5.2033,-1.9704,-1.2698,-4.5295,-3.1111,-3.8462,-1.2882,8.8462,-12.0,-3.268,-3.9744
-8.239,-10.095,-5.178,5.8252,-5.8537,2.3718,3.2206,9.5513,-6.5056,5.8252,-5.8537,5.2545,-3.1746,-7.7193,-5.6508,-8.9744,-5.153,0.51282,-17.714001,-3.268,-7.8205
-4.4654,-15.175,-5.178,12.298,5.2033,11.346,2.5765,18.525999,-6.5056,12.298,5.2033,9.1954,-5.0794,-12.823,-8.8254,-17.308001,-12.238,-0.76923,-8.1905,-3.9216,-15.513
-6.3522,-22.794001,-12.945,9.0615,9.1057,3.0128,-4.5089,15.321,-7.1498,9.0615,9.1057,1.3136,-9.5238,-19.841,-15.175,-27.563999,-21.256001,8.2051,-2.4762,-5.8824,-23.846001
-4.4654,-20.254,-15.534,6.4725,-7.8049,-0.83333,-3.2206,5.7051,-3.285,6.4725,-7.8049,-4.5977,-12.063,-19.841,-16.444,-28.205,-23.833,15.897,-10.095,-3.9216,-22.563999
-5.7233,-18.349001,-16.827999,-2.589,-8.4553,-2.1154,-4.5089,7.6282,-10.37,-2.589,-8.4553,-5.2545,-15.238,-19.841,-21.524,-28.205,-28.341,5.0,-6.9206,-10.458,-20.0
-5.7233,-12.635,-14.239,1.9417,-0.65041,1.7308,-11.594,8.2692,-6.5056,1.9417,-0.65041,-5.2545,-15.873,-16.013,-21.524,-22.436001,-27.052999,1.1538,-1.2063,-11.111,-14.872
-5.0943,-4.381,-9.0615,5.8252,-1.3008,-1.4744,-10.306,6.3462,-9.7262,5.8252,-1.3008,-4.5977,-14.603,-10.271,-17.714001,-14.103,-20.612,6.2821,2.6032,-9.1503,-8.4615
-5.0943,3.2381,-4.5307,-1.2945,-7.1545,-5.9615,-8.3736,5.7051,-14.879,-1.2945,-7.1545,-5.9113,-8.254,-1.3397,-10.095,-3.2051,-10.306,11.41,-3.1111,-6.5359,-0.12821
-3.2075,9.5873,0.0,-11.003,-14.309,-4.6795,-1.9324,1.859,-6.5056,-11.003,-14.309,-4.5977,-1.2698,7.5917,-1.2063,8.3333,1.9324,-0.12821,-11.365,-1.9608,7.5641
-4.4654,5.1429,-1.2945,-11.65,-19.511999,-4.0385,0.64412,3.7821,-15.523,-11.65,-19.511999,-7.225,-1.9048,6.3158,0.69841,8.9744,5.153,1.7949,-5.0159,-4.5752,4.359
-2.5786,-2.4762,-3.8835,-9.0615,-11.057,-7.2436,-13.527,-0.70513,-19.388,-9.0615,-11.057,-13.793,-0.63492,5.0399,2.6032,7.6923,7.7295,-2.0513,0.06349,-5.2288,1.7949
-0.69182,-5.6508,-3.8835,-5.178,-10.407,-9.8077,-27.052999,-3.2692,-10.37,-5.178,-10.407,-17.077,0.0,6.9537,4.5079,7.6923,9.0177,1.1538,-5.0159,-4.5752,3.0769
3.7107,-4.381,-0.64725,-0.64725,-8.4553,-4.0385,-18.68,0.57692,-1.9968,-0.64725,-8.4553,-11.166,1.9048,8.2297,5.7778,7.6923,9.0177,2.4359,-3.1111,-3.268,5.641
2.4528,-4.381,-1.9417,-1.2945,-7.8049,-4.0385,-9.6618,-5.1923,-14.879,-1.2945,-7.8049,-6.5681,5.0794,9.5056,5.7778,5.1282,5.7971,1.1538,0.06349,1.9608,8.2051
-4.4654,-10.73,-9.0615,1.9417,-5.8537,-6.6026,-6.4412,-1.3462,-21.965,1.9417,-5.8537,-6.5681,1.9048,4.4019,-1.2063,-5.1282,-3.8647,3.0769,2.6032,-0.65359,2.4359
-8.239,-11.365,-9.7087,3.2362,1.9512,-2.1154,0.64412,5.7051,-14.235,3.2362,1.9512,-1.3136,-3.1746,-1.9777,-5.6508,-9.6154,-9.6618,12.692,-1.8413,-2.6144,-1.4103
-4.4654,-8.1905,-5.8252,3.8835,3.252,4.9359,1.2882,10.192,3.1562,3.8835,3.252,4.5977,-5.0794,-3.2536,-5.6508,-8.3333,-9.0177,-0.76923,-13.27,-1.3072,-0.12821
0.56604,-0.57143,1.9417,7.767,5.8537,8.7821,10.306,7.6282,12.818,7.767,5.8537,8.5386,-5.0794,-5.8054,-1.8413,-3.2051,-3.8647,-3.3333,-9.4603,-0.65359,-2.6923
5.5975,5.1429,9.7087,9.0615,11.057,8.141,14.171,-1.9872,7.6651,9.0615,11.057,9.1954,-1.9048,-6.4434,2.6032,3.2051,3.2206,-2.6923,8.3175,-1.9608,-5.2564
3.0818,4.5079,11.003,5.178,2.6016,4.2949,12.882,-1.9872,8.9533,5.178,2.6016,7.225,-0.63492,-8.3573,2.6032,4.4872,5.7971,-2.0513,11.492,-2.6144,-6.5385
5.5975,8.9524,11.003,4.5307,4.5528,8.141,10.306,-2.6282,12.174,4.5307,4.5528,7.8818,1.9048,-5.8054,4.5079,8.3333,9.0177,-6.5385,8.3175,-0.65359,-3.3333
3.0818,11.492,8.4142,0.64725,10.407,6.2179,10.95,-8.3974,3.1562,0.64725,10.407,8.5386,-0.63492,-5.8054,1.3333,7.0513,6.4412,-1.4103,13.397,-2.6144,-0.76923
-0.06289,10.222,5.178,7.767,9.7561,3.6538,10.95,-3.2692,6.3768,7.767,9.7561,9.1954,1.2698,-5.8054,0.06349,3.8462,3.8647,3.0769,13.397,-3.9216,-0.12821
1.8239,8.9524,5.8252,11.003,11.707,4.2949,12.238,1.859,10.886,11.003,11.707,11.166,3.8095,-1.3397,1.3333,2.5641,3.8647,5.0,9.5873,-3.268,2.4359
-0.69182,3.873,3.2362,0.0,1.3008,3.0128,5.153,-2.6282,3.8003,0.0,1.3008,5.2545,-0.63492,1.8501,-0.57143,0.0,0.0,-3.3333,-3.746,-3.268,5.0
1.8239,2.6032,4.5307,-4.5307,2.6016,2.3718,-2.5765,-7.1154,1.2238,-4.5307,2.6016,2.6273,1.2698,7.5917,1.3333,3.2051,1.2882,-20.641001,-1.8413,-3.268,9.4872
-2.5786,5.1429,3.2362,-0.64725,-3.252,-5.3205,-0.64412,-7.7564,-5.2174,-0.64725,-3.252,-0.65681,5.7143,15.885,1.3333,8.3333,3.2206,-11.667,6.4127,-1.3072,15.897
-5.0943,4.5079,0.0,0.0,-5.2033,-7.2436,-2.5765,-14.808,-12.947,0.0,-5.2033,-3.9409,4.4444,19.712999,-0.57143,9.6154,1.9324,-17.436001,9.5873,-3.9216,17.179001
-1.9497,7.0476,1.9417,-7.767,-1.3008,-5.3205,-5.153,-11.603,-7.1498,-7.767,-1.3008,-3.9409,6.9841,20.351,4.5079,14.103,6.4412,-16.153999,7.6825,1.3072,17.820999
3.7107,8.9524,5.8252,0.64725,0.65041,-5.3205,-1.9324,-11.603,-0.70853,0.64725,0.65041,-1.9704,10.794,20.351,10.857,16.667,11.594,-2.6923,5.7778,9.1503,16.538
3.7107,8.9524,7.1197,11.003,5.2033,-4.0385,-0.64412,-9.0385,1.2238,11.003,5.2033,0.0,10.159,13.971,10.222,14.103,11.594,-12.949,-1.2063,9.1503,10.128
1.195,8.3175,8.4142,4.5307,1.3008,-3.3974,1.9324,-7.7564,0.57971,4.5307,1.3008,1.3136,8.254,10.144,8.3175,10.897,10.95,-7.8205,-2.4762,7.1895,5.0
3.7107,5.1429,9.7087,-3.2362,3.9024,1.0897,1.2882,-12.244,-7.1498,-3.2362,3.9024,4.5977,6.9841,3.764,8.3175,6.4103,10.306,-8.4615,-1.8413,4.5752,-0.12821
10.0,3.2381,12.298,1.9417,0.65041,10.064,6.4412,3.141,-6.5056,1.9417,0.65041,11.166,8.254,0.57416,9.5873,2.5641,9.6618,-2.0513,-15.81,7.1895,-3.9744
10.0,2.6032,11.003,8.4142,-2.6016,13.91,12.882,11.474,2.5121,8.4142,-2.6016,16.42,6.3492,-4.5295,6.4127,-2.5641,5.7971,1.1538,-17.714001,5.2288,-7.8205
2.4528,-4.381,4.5307,9.7087,8.4553,13.269,4.5089,8.2692,7.6651,9.7087,8.4553,13.136,-1.9048,-12.185,-1.8413,-12.821,-3.2206,3.7179,-0.57143,-1.3072,-16.153999
1.8239,-5.6508,1.2945,9.7087,17.561001,11.987,5.7971,3.7821,1.868,9.7087,17.561001,9.1954,-7.619,-17.927,-5.0159,-16.025999,-7.7295,12.051,2.6032,-0.65359,-18.718
-0.69182,1.9683,1.9417,3.8835,11.707,6.2179,15.459,5.7051,-2.6409,3.8835,11.707,7.225,-8.254,-16.013,-6.2857,-10.897,-8.3736,8.2051,2.6032,-5.8824,-14.231
-1.3208,5.7778,3.8835,1.9417,3.252,3.6538,17.391001,10.833,7.6651,1.9417,3.252,9.8522,-5.7143,-9.6332,-5.0159,-4.4872,-6.4412,1.1538,7.6825,-7.1895,-8.4615
3.0818,6.4127,5.8252,9.7087,1.3008,7.5,12.238,0.57692,16.039,9.7087,1.3008,11.823,-3.1746,-2.6156,-1.2063,1.2821,-1.9324,-3.9744,12.127,-2.6144,-2.6923
-0.06289,6.4127,3.2362,3.8835,7.1545,4.2949,5.153,3.7821,17.971001,3.8835,7.1545,6.5681,0.0,6.9537,-1.8413,6.4103,1.9324,-8.4615,10.857,-1.3072,3.7179
-6.9811,4.5079,-1.2945,7.767,12.358,-2.1154,-9.6618,-1.3462,5.7327,7.767,12.358,-3.2841,1.2698,13.333,-3.746,9.6154,2.5765,-9.1026,-0.57143,-1.3072,12.051
-10.755,5.1429,-3.2362,6.4725,1.9512,-5.9615,-9.6618,-9.6795,-4.5733,6.4725,1.9512,-5.9113,0.0,14.609,-5.6508,10.256,2.5765,1.1538,0.69841,-1.3072,15.897
-15.157,0.06349,-7.1197,-0.64725,-3.9024,-11.731,-7.7295,-7.1154,-7.7939,-0.64725,-3.9024,-8.5386,0.0,13.971,-8.8254,5.7692,-1.2882,-13.59,-3.1111,-3.9216,11.41
-10.755,-1.2063,-5.8252,-3.8835,-13.659,-9.8077,-1.9324,-7.7564,-14.235,-3.8835,-13.659,-5.9113,-0.63492,12.057,-7.5556,3.8462,-0.64412,-17.436001,1.3333,-1.9608,9.4872
-8.239,-5.0159,-6.4725,-12.298,-9.7561,-12.372,-9.6618,-11.603,-14.879,-12.298,-9.7561,-10.509,-2.5397,5.0399,-5.0159,1.2821,-1.2882,-12.308,1.3333,-1.9608,5.0
-5.7233,-8.8254,-7.767,-23.301001,-7.8049,-16.218,-19.968,-11.603,-5.8615,-23.301001,-7.8049,-17.733999,-1.9048,1.2121,-1.2063,-0.64103,0.64412,-13.59,-0.57143,-0.65359,1.1538
4.9686,-3.1111,0.0,-15.534,-13.008,-9.1667,-10.95,-12.244,3.1562,-15.534,-13.008,-10.509,5.7143,2.488,8.9524,5.7692,8.3736,-20.641001,-2.4762,4.5752,4.359
3.7107,-0.57143,4.5307,-10.356,-11.057,-4.0385,-1.9324,-7.1154,-0.06441,-10.356,-11.057,-3.2841,6.9841,-0.0638,10.222,6.4103,10.95,-2.0513,-1.8413,7.1895,1.7949
-0.69182,1.9683,5.178,1.9417,-1.3008,0.44872,0.64412,-3.9103,-1.9968,1.9417,-1.3008,1.3136,5.7143,-1.9777,6.4127,5.7692,8.3736,2.4359,-8.8254,0.65359,0.51282
-3.2075,7.6825,6.4725,9.0615,9.7561,1.0897,4.5089,0.57692,-2.6409,9.0615,9.7561,5.9113,4.4444,-3.8915,3.873,6.4103,6.4412,1.1538,-7.5556,-1.3072,-2.6923
1.195,8.9524,9.0615,11.003,14.309,6.2179,11.594,3.141,3.1562,11.003,14.309,12.479,5.0794,-2.6156,3.873,5.1282,5.7971,10.769,3.2381,3.268,-3.9744
4.9686,7.0476,9.0615,11.003,13.008,11.346,11.594,5.7051,14.75,11.003,13.008,13.793,4.4444,1.2121,3.2381,3.2051,3.2206,-0.12821,3.2381,0.65359,-1.4103
4.3396,3.2381,3.2362,6.4725,9.1057,10.705,13.527,5.0641,10.242,6.4725,9.1057,12.479,-0.63492,0.57416,-1.8413,-2.5641,-3.2206,-10.385,-2.4762,-3.9216,0.51282
0.56604,0.06349,-2.589,4.5307,8.4553,4.2949,10.306,12.756,3.1562,4.5307,8.4553,5.2545,-2.5397,3.126,-5.6508,-3.8462,-7.7295,-7.1795,5.1429,-2.6144,1.1538
-0.69182,-1.8413,-5.8252,7.1197,0.0,-0.19231,1.9324,10.192,7.0209,7.1197,0.0,-0.65681,-3.1746,3.764,-6.2857,-3.2051,-8.3736,10.769,9.5873,-0.65359,3.0769
-2.5786,-1.8413,-7.767,-1.2945,-6.5041,-2.1154,-4.5089,1.859,5.0886,-1.2945,-6.5041,-5.9113,-1.9048,3.126,-6.2857,-1.9231,-7.7295,-0.12821,5.1429,1.9608,4.359
-6.3522,-4.381,-10.356,-9.0615,-9.1057,-6.6026,-7.7295,-1.3462,-1.3527,-9.0615,-9.1057,-9.1954,-3.1746,1.2121,-8.1905,-3.8462,-9.6618,5.0,-0.57143,3.9216,3.0769
-12.013,-8.8254,-12.298,-13.592,-3.9024,-9.1667,-12.882,4.4231,-7.7939,-13.592,-3.9024,-12.479,-1.9048,1.8501,-8.8254,-6.4103,-10.306,8.8462,2.6032,5.8824,1.1538
-13.27,-6.2857,-12.298,-10.356,-2.6016,-7.8846,-12.238,10.833,-17.455999,-10.356,-2.6016,-11.823,1.9048,5.0399,-8.1905,-3.8462,-8.3736,0.51282,-5.0159,7.1895,6.2821
-18.931,-13.27,-18.77,3.2362,-5.8537,-13.654,-16.103001,3.7821,-18.1,3.2362,-5.8537,-17.077,-3.8095,-2.6156,-13.905,-12.179,-14.171,8.2051,-5.6508,1.3072,-2.0513
-15.786,-20.254,-20.712,7.1197,-8.4553,-12.372,-19.323999,9.5513,-12.947,7.1197,-8.4553,-17.077,-10.159,-11.547,-15.81,-17.948999,-18.035,10.769,-7.5556,-3.268,-9.7436
-1.3208,-18.983999,-14.239,0.0,-5.8537,1.0897,-18.035,5.7051,-11.014,0.0,-5.8537,-9.1954,-9.5238,-19.202999,-11.365,-19.231001,-16.747,15.897,-14.54,0.65359,-14.872
8.7421,-12.635,-5.8252,3.8835,1.3008,9.4231,-9.0177,11.474,-4.5733,3.8835,1.3008,-1.9704,-10.159,-20.478001,-7.5556,-16.667,-14.171,9.4872,-14.54,-4.5752,-17.436001
11.258,-9.4603,-0.64725,-1.2945,-7.1545,10.064,0.0,14.038,-9.0821,-1.2945,-7.1545,1.3136,-11.429,-16.650999,-4.381,-13.462,-10.306,5.641,-13.27,-7.8431,-16.153999
10.629,-1.8413,4.5307,-0.64725,-9.7561,6.859,0.0,13.397,-12.947,-0.64725,-9.7561,3.2841,-6.9841,-9.6332,1.3333,-5.1282,-2.5765,21.667,-12.635,-3.9216,-11.026
11.887,5.1429,6.4725,-1.2945,5.8537,6.2179,-3.2206,15.321,-1.3527,-1.2945,5.8537,3.2841,-0.63492,-1.3397,6.4127,3.8462,5.153,18.462,-14.54,-1.3072,-4.6154
6.2264,1.3333,1.9417,-5.178,7.8049,5.5769,-6.4412,12.115,5.7327,-5.178,7.8049,0.65681,3.1746,2.488,7.0476,4.4872,7.0853,2.4359,-5.6508,1.3072,-5.8974
0.56604,-3.746,-1.2945,11.003,6.5041,4.9359,0.0,5.0641,9.5974,11.003,6.5041,3.2841,5.7143,2.488,5.7778,0.64103,5.7971,16.538,-0.57143,3.9216,-8.4615
-1.3208,-2.4762,0.0,22.653999,2.6016,7.5,10.306,8.9103,3.1562,22.653999,2.6016,7.8818,5.0794,3.764,4.5079,0.0,4.5089,19.743999,-1.2063,3.268,-7.1795
1.195,-1.2063,0.64725,8.4142,-3.252,8.141,14.171,12.115,-12.947,8.4142,-3.252,10.509,5.0794,1.2121,5.1429,-1.9231,3.2206,5.0,-1.2063,4.5752,-7.8205
1.195,-5.6508,-1.9417,1.2945,-1.9512,2.3718,3.8647,10.192,-7.7939,1.2945,-1.9512,4.5977,5.0794,-3.2536,5.7778,-8.3333,0.0,15.256,-2.4762,9.1503,-11.026
8.7421,-8.1905,-1.2945,6.4725,5.2033,4.2949,-3.2206,4.4231,-3.285,6.4725,5.2033,1.9704,8.254,-3.2536,10.222,-10.256,0.0,19.743999,-2.4762,13.725,-9.1026
16.917999,-6.2857,1.2945,9.0615,9.7561,11.346,-7.7295,1.2179,7.0209,9.0615,9.7561,3.9409,8.8889,-2.6156,14.032,-8.3333,1.2882,-0.76923,0.06349,15.686,-4.6154
17.547001,0.06349,4.5307,1.2945,9.1057,15.192,-0.64412,14.679,11.53,1.2945,9.1057,7.225,5.0794,-4.5295,11.492,-5.1282,0.64412,1.7949,0.69841,11.111,-2.6923
2.4528,-0.57143,-0.64725,2.589,-1.3008,1.7308,-4.5089,9.5513,1.2238,2.589,-1.3008,-1.3136,-0.63492,-3.8915,0.69841,-3.8462,-4.5089,6.9231,1.9683,1.3072,-1.4103
-0.69182,6.4127,1.2945,10.356,-5.8537,-4.0385,-1.9324,5.7051,-5.2174,10.356,-5.8537,-4.5977,1.9048,2.488,0.06349,4.4872,-0.64412,7.5641,-2.4762,5.2288,5.0
-5.0943,0.69841,-1.2945,2.589,-4.5528,-7.2436,-8.3736,1.859,-7.7939,2.589,-4.5528,-9.8522,0.63492,1.8501,-3.746,2.5641,-0.64412,5.641,3.2381,1.9608,0.51282
-11.384,-6.9206,-7.767,-7.767,-9.1057,-10.449,-12.238,-3.9103,-12.947,-7.767,-9.1057,-13.136,-3.1746,1.2121,-8.8254,-1.9231,-3.2206,-2.6923,8.3175,-7.8431,-1.4103
-10.755,-5.0159,-8.4142,-3.8835,-1.9512,-7.8846,-6.4412,-5.1923,-9.0821,-3.8835,-1.9512,-12.479,-2.5397,1.8501,-9.4603,-0.64103,-1.9324,-5.8974,7.0476,-10.458,2.4359
-12.642,-5.6508,-8.4142,0.0,-1.9512,-8.5256,-10.95,3.7821,-1.9968,0.0,-1.9512,-12.479,-6.9841,0.57416,-12.0,-1.2821,-3.8647,-9.7436,-1.8413,-14.379,2.4359
-3.8365,0.06349,-0.64725,-7.1197,-8.4553,-2.1154,-6.4412,17.243999,-1.9968,-7.1197,-8.4553,-3.2841,-5.7143,-0.70175,-8.8254,1.9231,-0.64412,-14.231,-0.57143,-13.072,3.0769
-0.06289,7.6825,7.767,-4.5307,0.0,2.3718,3.8647,5.7051,-3.285,-4.5307,0.0,4.5977,-5.0794,0.57416,-5.6508,6.4103,1.2882,3.0769,2.6032,-10.458,3.7179
0.56604,10.857,9.0615,8.4142,3.252,5.5769,10.95,-9.6795,8.3092,8.4142,3.252,10.509,-8.8889,-2.6156,-8.1905,5.1282,-2.5765,-3.9744,2.6032,-14.379,3.0769
3.7107,9.5873,8.4142,9.0615,5.8537,8.7821,12.882,-2.6282,14.75,9.0615,5.8537,12.479,-8.254,-5.1675,-6.2857,2.5641,-5.153,-6.5385,-9.4603,-13.072,0.51282
10.629,12.127,12.298,8.4142,14.959,11.346,16.747,4.4231,5.7327,8.4142,14.959,15.764,0.0,1.8501,3.2381,7.0513,2.5765,0.51282,-9.4603,-4.5752,5.641
12.516,5.7778,11.65,1.2945,9.1057,9.4231,17.391001,5.0641,-5.8615,1.2945,9.1057,13.793,2.5397,1.8501,8.3175,3.8462,5.153,-5.2564,5.7778,-2.6144,1.1538
15.031,2.6032,12.945,0.64725,5.2033,9.4231,14.171,0.57692,-3.285,0.64725,5.2033,13.136,5.0794,-0.0638,12.762,2.5641,9.0177,-4.6154,6.4127,0.0,-2.6923
13.145,7.0476,13.592,2.589,2.6016,6.859,9.6618,0.57692,-1.9968,2.589,2.6016,11.166,5.7143,2.488,15.302,7.0513,13.527,-10.385,4.5079,1.3072,0.51282
13.145,9.5873,13.592,5.8252,5.8537,10.064,5.7971,3.141,8.3092,5.8252,5.8537,11.166,8.254,8.2297,17.205999,10.256,17.391001,-0.76923,4.5079,5.8824,4.359
6.2264,10.222,8.4142,-2.589,-3.9024,6.859,5.153,0.57692,7.6651,-2.589,-3.9024,7.225,10.794,10.144,13.397,10.256,15.459,6.2821,2.6032,3.9216,6.2821
-2.5786,7.0476,0.0,-6.4725,-4.5528,-1.4744,2.5765,-1.3462,10.242,-6.4725,-4.5528,0.65681,8.254,7.5917,6.4127,6.4103,9.6618,-9.1026,11.492,-0.65359,5.0
-5.7233,1.9683,-7.1197,1.9417,2.6016,-5.3205,-5.153,-3.9103,0.57971,1.9417,2.6016,-5.2545,3.8095,6.3158,0.06349,2.5641,2.5765,-0.12821,3.873,0.0,5.641
-5.7233,-1.8413,-9.7087,7.1197,-3.9024,-2.1154,-1.2882,-7.1154,-9.7262,7.1197,-3.9024,-6.5681,0.63492,5.0399,-3.746,-1.2821,-1.9324,-6.5385,-3.1111,1.3072,6.9231
-1.3208,-10.095,-9.7087,1.2945,-5.8537,-2.1154,-8.3736,-2.6282,-4.5733,1.2945,-5.8537,-7.225,-2.5397,-1.3397,-4.381,-8.3333,-6.4412,-4.6154,1.9683,2.6144,1.1538
-3.2075,-12.0,-9.7087,-9.7087,-6.5041,-4.6795,-10.306,-0.70513,-14.235,-9.7087,-6.5041,-11.166,-4.4444,-1.9777,-5.6508,-10.897,-9.6618,-6.5385,4.5079,1.9608,-2.0513
-10.126,-11.365,-11.65,-16.181,-13.659,-12.372,-13.527,-6.4744,-11.659,-16.181,-13.659,-15.107,-3.8095,-0.0638,-7.5556,-8.3333,-11.594,4.359,1.3333,1.3072,3.0769
-15.157,-11.365,-14.887,-16.181,-16.26,-16.218,-17.391001,-9.6795,-10.37,-16.181,-16.26,-17.077,-6.9841,-0.70175,-11.365,-7.6923,-13.527,10.128,1.9683,-0.65359,4.359
-16.415001,-9.4603,-15.534,-16.827999,-14.959,-12.372,-16.103001,-13.526,-11.014,-16.827999,-14.959,-14.45,-7.619,-1.3397,-14.54,-7.0513,-14.815,-0.12821,-1.2063,-1.3072,4.359
-13.899,-9.4603,-14.887,-19.417,-14.959,-13.013,-16.103001,-8.3974,-0.06441,-19.417,-14.959,-15.107,-3.8095,0.57416,-13.905,-7.0513,-12.882,-7.8205,2.6032,-1.3072,2.4359
-10.755,-10.73,-13.592,-12.298,-16.26,-13.013,-10.306,-12.244,-7.1498,-12.298,-16.26,-15.107,-5.0794,-5.1675,-13.27,-8.9744,-10.95,-9.1026,-3.1111,-3.9216,-0.76923
-5.7233,-2.4762,-7.767,-1.2945,-9.1057,-10.449,-9.6618,-9.6795,-12.947,-1.2945,-9.1057,-11.823,-2.5397,-4.5295,-7.5556,-1.9231,-4.5089,-2.0513,-16.444,-2.6144,1.7949
-3.2075,-3.746,-5.178,-8.4142,1.3008,-9.1667,-11.594,-9.6795,-10.37,-8.4142,1.3008,-9.1954,-1.2698,-4.5295,-3.746,-2.5641,-1.9324,-2.6923,-12.635,-1.3072,-2.0513
0.56604,-6.9206,-2.589,-2.589,-0.65041,-2.7564,-10.306,-14.167,-12.947,-2.589,-0.65041,-5.2545,-1.2698,-4.5295,-1.2063,-3.8462,-1.2882,-5.2564,-4.381,-0.65359,-6.5385
5.5975,1.3333,4.5307,11.003,1.9512,1.7308,3.2206,-5.1923,-4.5733,11.003,1.9512,2.6273,0.63492,-0.0638,1.9683,2.5641,3.2206,-8.4615,-5.6508,-1.3072,-2.0513
3.7107,6.4127,8.4142,1.2945,-1.3008,1.7308,5.7971,5.7051,3.1562,1.2945,-1.3008,5.9113,-1.9048,0.57416,1.9683,4.4872,3.8647,-7.1795,-3.1111,-2.6144,-1.4103
1.8239,8.9524,9.0615,-12.945,-1.3008,4.2949,11.594,-0.70513,-0.06441,-12.945,-1.3008,8.5386,-1.9048,1.8501,1.3333,5.1282,3.8647,1.7949,1.3333,-3.268,1.1538
-0.69182,6.4127,5.178,-5.8252,0.0,-0.19231,11.594,-7.7564,-3.285,-5.8252,0.0,4.5977,-1.2698,-0.0638,1.3333,1.9231,2.5765,-1.4103,-2.4762,-1.9608,-0.12821
2.4528,3.873,3.2362,8.4142,4.5528,-2.1154,6.4412,-5.1923,0.57971,8.4142,4.5528,2.6273,0.63492,-0.70175,3.873,1.2821,3.8647,6.2821,-1.8413,3.9216,-1.4103
3.0818,0.69841,1.2945,5.178,2.6016,-2.1154,6.4412,-0.0641,-0.70853,5.178,2.6016,3.9409,3.1746,1.2121,5.1429,0.0,4.5089,-4.6154,1.3333,7.8431,-1.4103
7.4843,1.9683,3.8835,0.64725,5.2033,3.0128,5.153,-7.1154,5.0886,0.64725,5.2033,5.9113,10.794,6.3158,8.3175,3.2051,7.0853,-0.12821,2.6032,13.072,5.0
6.2264,1.3333,3.8835,7.1197,9.7561,-0.83333,0.0,-6.4744,6.3768,7.1197,9.7561,1.9704,13.333,9.5056,8.9524,5.1282,7.7295,-1.4103,5.7778,16.34,6.2821
-0.69182,0.06349,0.0,-3.2362,1.9512,-8.5256,-1.9324,-16.09,-2.6409,-3.2362,1.9512,-3.2841,11.429,11.419,5.1429,5.1282,5.153,-3.9744,10.222,13.072,8.2051
-4.4654,4.5079,-1.2945,-9.7087,-1.3008,-6.6026,1.9324,-11.603,5.7327,-9.7087,-1.3008,-3.9409,6.3492,12.057,0.69841,7.0513,1.2882,-3.3333,12.762,7.1895,13.333
-8.239,2.6032,-6.4725,-3.8835,-5.8537,-9.1667,-2.5765,-4.5513,7.6651,-3.8835,-5.8537,-7.8818,2.5397,7.5917,-5.0159,2.5641,-5.153,-14.231,14.032,0.65359,10.128
-6.9811,-1.8413,-10.356,-5.8252,-3.252,-11.09,-8.3736,-9.0385,6.3768,-5.8252,-3.252,-10.509,-3.8095,1.8501,-9.4603,-3.2051,-10.95,-2.6923,6.4127,-3.9216,6.2821
-8.8679,-5.6508,-11.65,-4.5307,1.3008,-11.09,-13.527,-5.8333,1.868,-4.5307,1.3008,-12.479,-9.5238,-1.3397,-11.365,-7.0513,-13.527,0.51282,-3.1111,-6.5359,3.7179
-7.6101,-11.365,-11.003,-1.9417,-3.252,-7.8846,-12.238,-3.2692,-3.9291,-1.9417,-3.252,-9.8522,-7.619,-4.5295,-9.4603,-10.897,-11.594,-16.153999,-0.57143,-6.5359,-2.0513
-5.7233,-11.365,-9.7087,-2.589,-7.1545,-0.83333,-9.0177,-7.7564,-5.2174,-2.589,-7.1545,-7.225,-5.7143,-7.7193,-6.9206,-9.6154,-8.3736,-3.9744,-8.1905,-8.4967,-4.6154
-5.0943,-9.4603,-7.1197,5.178,-10.407,1.0897,-1.2882,-3.2692,-15.523,5.178,-10.407,-1.9704,-6.9841,-11.547,-5.6508,-8.3333,-5.7971,6.2821,-6.9206,-7.8431,-8.4615
1.195,-3.1111,1.2945,0.64725,0.0,6.2179,1.9324,5.0641,-12.303,0.64725,0.0,4.5977,-1.9048,-8.9952,1.3333,-1.9231,1.9324,5.641,-3.746,-1.9608,-9.1026
9.3711,5.7778,11.003,0.64725,11.707,13.91,9.0177,11.474,-4.5733,0.64725,11.707,11.823,3.1746,-3.2536,7.0476,7.0513,9.6618,3.0769,-6.2857,1.3072,-4.6154
14.403,10.857,16.181,5.8252,2.6016,17.756001,16.103001,4.4231,-3.285,5.8252,2.6016,15.764,8.8889,2.488,11.492,11.538,13.527,2.4359,-1.8413,7.8431,-2.6923
10.629,11.492,14.239,12.298,3.9024,10.705,10.306,2.5,0.57971,12.298,3.9024,11.823,8.254,4.4019,8.9524,11.538,10.95,0.51282,-9.4603,8.4967,-0.76923
2.4528,5.7778,7.767,9.7087,8.4553,1.7308,1.2882,3.7821,-2.6409,9.7087,8.4553,6.5681,4.4444,1.8501,3.2381,7.0513,5.153,10.769,-15.81,5.8824,-1.4103
4.9686,1.3333,5.178,-1.9417,-5.8537,1.7308,3.2206,-1.9872,-9.0821,-1.9417,-5.8537,4.5977,5.0794,-0.0638,3.873,3.2051,3.2206,4.359,-13.27,6.5359,-3.9744
7.4843,-0.57143,6.4725,-5.178,-8.4553,3.6538,3.2206,-5.8333,-7.7939,-5.178,-8.4553,3.9409,6.9841,1.2121,6.4127,1.9231,3.8647,3.0769,-12.635,9.8039,-3.3333
6.8553,-3.1111,5.8252,-3.8835,-1.9512,3.6538,-1.9324,1.2179,-13.591,-3.8835,-1.9512,2.6273,6.9841,3.126,7.6825,0.64103,5.153,-3.9744,-10.095,9.1503,-0.76923
3.7107,-3.1111,3.8835,-2.589,-3.252,-2.1154,-1.9324,-2.6282,-17.455999,-2.589,-3.252,0.65681,6.3492,1.8501,7.0476,-2.5641,4.5089,0.51282,0.69841,10.458,-2.0513
1.8239,-4.381,1.9417,-4.5307,-5.8537,-2.1154,-7.7295,-8.3974,-3.9291,-4.5307,-5.8537,-2.6273,5.0794,1.2121,6.4127,-3.8462,3.8647,1.1538,-2.4762,9.8039,-3.3333
-1.3208,-5.0159,-1.9417,-6.4725,-5.8537,-7.2436,-12.882,-8.3974,-2.6409,-6.4725,-5.8537,-7.8818,2.5397,-0.0638,3.873,-4.4872,2.5765,-14.231,-9.4603,8.4967,-1.4103
-5.0943,-10.73,-7.767,-20.065001,-13.659,-9.1667,-14.815,-11.603,-7.1498,-20.065001,-13.659,-12.479,0.63492,-0.0638,0.06349,-8.9744,-1.2882,-20.0,-6.9206,1.9608,-3.3333
-5.7233,-11.365,-7.1197,-17.476,-5.2033,-6.6026,-9.0177,-15.449,-4.5733,-17.476,-5.2033,-9.1954,1.2698,-0.70175,-2.4762,-10.897,-3.2206,-15.513,-3.746,-2.6144,-2.0513
-8.239,-8.8254,-4.5307,-2.589,1.9512,-5.3205,-2.5765,-9.0385,-0.06441,-2.589,1.9512,-5.2545,-0.63492,-4.5295,-5.0159,-11.538,-5.153,-0.12821,-3.1111,-5.8824,-5.2564
-5.0943,1.3333,1.9417,11.003,2.6016,-3.3974,7.7295,2.5,-2.6409,11.003,2.6016,2.6273,1.2698,-5.1675,-4.381,-5.1282,-2.5765,6.2821,-8.8254,-6.5359,-2.6923
-1.9497,5.1429,5.8252,5.178,7.8049,3.6538,10.95,5.0641,-5.8615,5.178,7.8049,7.8818,1.2698,-7.7193,-3.1111,-1.9231,-1.9324,4.359,3.2381,-5.8824,-5.8974
2.4528,5.7778,7.1197,8.4142,12.358,8.141,7.7295,10.833,8.3092,8.4142,12.358,9.1954,1.2698,-8.3573,-1.8413,0.64103,-0.64412,1.1538,11.492,-5.2288,-5.2564
3.7107,8.3175,6.4725,15.534,-4.5528,6.859,7.0853,8.2692,8.9533,15.534,-4.5528,7.225,0.63492,-7.7193,-0.57143,3.8462,0.0,-3.9744,3.2381,-6.5359,-2.6923
4.3396,14.667,9.0615,17.476,4.5528,6.859,10.306,10.833,8.9533,17.476,4.5528,9.1954,2.5397,-2.6156,2.6032,10.897,4.5089,0.51282,4.5079,-3.268,2.4359
11.258,17.841,14.239,10.356,20.163,10.705,6.4412,15.962,14.75,10.356,20.163,9.8522,3.8095,3.764,7.6825,17.948999,9.6618,2.4359,1.9683,0.65359,8.8462
15.66,17.841,16.827999,7.767,18.862,11.987,8.3736,10.192,7.6651,7.767,18.862,11.166,3.1746,8.2297,12.127,21.795,14.171,13.974,3.2381,1.3072,10.769
21.320999,14.667,18.122999,9.0615,2.6016,14.551,9.0177,2.5,3.1562,9.0615,2.6016,10.509,6.3492,12.057,18.476,22.436001,18.68,-0.12821,5.7778,3.268,12.692
18.176001,9.5873,14.887,6.4725,-1.3008,10.064,5.153,-0.70513,-3.9291,6.4725,-1.3008,5.9113,5.7143,13.971,19.746,19.872,19.323999,5.641,-0.57143,6.5359,12.051
21.950001,12.127,17.476,1.2945,11.057,10.064,9.6618,15.962,0.57971,1.2945,11.057,11.166,9.5238,18.437,24.825001,22.436001,23.188,22.948999,-8.1905,15.686,17.179001
20.691999,8.3175,16.181,7.767,5.8537,11.987,8.3736,21.731001,5.0886,7.767,5.8537,13.136,11.429,16.523001,24.190001,16.667,22.544001,22.308001,1.3333,14.379,12.051
12.516,1.3333,9.7087,21.358999,5.8537,8.141,7.0853,12.756,0.57971,21.358999,5.8537,11.166,9.5238,10.781,17.841,7.0513,15.459,15.256,4.5079,10.458,5.641
11.258,1.3333,7.1197,17.476,8.4553,6.859,5.7971,10.833,-4.5733,17.476,8.4553,8.5386,10.159,7.5917,14.667,3.2051,10.95,-3.9744,-5.0159,11.765,3.0769
8.1132,-1.2063,2.589,7.767,8.4553,8.141,4.5089,1.859,5.0886,7.767,8.4553,7.225,6.9841,1.2121,7.0476,-3.2051,2.5765,-0.76923,-3.1111,7.8431,-0.76923
-1.9497,-2.4762,-3.2362,-3.8835,-1.3008,5.5769,7.0853,-1.3462,10.886,-3.8835,-1.3008,5.2545,-0.63492,-5.8054,-3.746,-8.9744,-8.3736,8.8462,-0.57143,-0.65359,-3.3333
-4.4654,-3.746,-6.4725,4.5307,3.9024,4.2949,7.7295,6.3462,8.9533,4.5307,3.9024,5.2545,-8.254,-15.375,-10.095,-14.103,-17.391001,15.256,8.3175,-2.6144,-8.4615
-8.8679,-6.9206,-11.003,14.887,11.057,3.6538,4.5089,7.6282,10.242,14.887,11.057,2.6273,-16.507999,-22.392,-17.714001,-18.59,-25.121,15.897,14.032,-9.1503,-12.949
-3.8365,-4.381,-8.4142,9.0615,13.008,8.141,3.8647,-0.0641,19.259001,9.0615,13.008,3.2841,-18.413,-20.478001,-18.349001,-14.103,-23.833,-3.9744,10.857,-11.765,-9.1026
1.195,-0.57143,-3.2362,8.4142,8.4553,8.7821,3.2206,19.167,22.48,8.4142,8.4553,3.9409,-14.603,-14.099,-13.905,-7.6923,-17.391001,-0.12821,20.381001,-7.8431,-7.1795
-2.5786,-3.1111,-5.8252,-0.64725,1.3008,0.44872,-1.9324,19.167,12.818,-0.64725,1.3008,-1.3136,-14.603,-14.099,-13.27,-7.6923,-15.459,10.769,22.921,-8.4967,-8.4615
-3.2075,3.2381,-4.5307,-1.9417,3.9024,-4.0385,3.2206,10.192,9.5974,-1.9417,3.9024,-3.2841,-10.794,-8.3573,-8.1905,-0.64103,-8.3736,3.0769,15.302,-6.5359,-1.4103
-3.2075,8.9524,-0.64725,6.4725,7.8049,-2.1154,6.4412,9.5513,14.106,6.4725,7.8049,-0.65681,-5.0794,-3.2536,-1.2063,7.0513,0.0,12.051,18.476,-2.6144,5.0
-5.0943,8.3175,1.9417,5.8252,9.1057,1.0897,1.2882,5.7051,12.818,5.8252,9.1057,3.2841,-2.5397,-1.3397,-0.57143,8.9744,3.2206,12.051,8.3175,-3.9216,9.4872
-10.755,5.7778,1.9417,11.003,4.5528,-3.3974,5.7971,3.141,14.75,11.003,4.5528,3.9409,-6.3492,-1.3397,-3.746,8.3333,1.9324,1.7949,7.6825,-11.111,9.4872
-6.3522,7.0476,4.5307,17.476,7.1545,-0.83333,7.7295,7.6282,16.683001,17.476,7.1545,5.2545,-9.5238,-0.70175,-4.381,9.6154,3.2206,-9.7436,14.032,-15.033,9.4872
-0.06289,10.222,9.0615,12.945,14.309,6.2179,7.7295,8.2692,8.9533,12.945,14.309,8.5386,-7.619,4.4019,-1.8413,12.179,6.4412,-20.641001,11.492,-15.033,10.128
-0.06289,12.127,8.4142,11.003,18.211,-0.19231,5.153,12.756,4.4444,11.003,18.211,5.2545,-4.4444,9.5056,-1.2063,14.744,7.7295,-1.4103,1.9683,-13.725,12.051
-0.06289,6.4127,4.5307,1.9417,6.5041,-4.6795,-0.64412,-0.0641,3.1562,1.9417,6.5041,0.65681,-3.8095,9.5056,-0.57143,8.9744,5.153,-0.12821,1.9683,-11.765,6.9231
-0.06289,0.69841,1.2945,-16.181,-4.5528,-1.4744,-0.64412,-0.70513,-3.285,-16.181,-4.5528,0.65681,-1.2698,8.2297,0.69841,3.8462,4.5089,-5.2564,4.5079,-6.5359,2.4359
-0.06289,-1.2063,1.9417,-26.537001,-19.511999,2.3718,0.0,6.3462,-7.1498,-26.537001,-19.511999,1.9704,5.7143,12.057,5.1429,4.4872,8.3736,-0.12821,-0.57143,1.9608,4.359
-2.5786,-3.746,0.0,-7.767,-17.561001,3.6538,1.9324,0.57692,-9.7262,-7.767,-17.561001,1.3136,8.8889,11.419,5.1429,3.2051,8.3736,-2.6923,-0.57143,1.9608,3.0769
-5.0943,-1.8413,-1.2945,-5.8252,-20.813,-0.19231,7.7295,3.141,-14.235,-5.8252,-20.813,1.3136,11.429,10.144,4.5079,3.2051,8.3736,0.51282,-4.381,4.5752,3.7179
-1.9497,-1.2063,0.0,-7.1197,-5.8537,-2.7564,8.3736,-1.3462,2.5121,-7.1197,-5.8537,1.3136,10.159,8.2297,5.7778,2.5641,8.3736,3.0769,1.9683,5.8824,3.0769
3.0818,1.9683,1.9417,0.0,7.8049,-1.4744,0.0,-5.8333,17.971001,0.0,7.8049,0.65681,6.9841,3.764,6.4127,1.9231,7.0853,-16.795,0.06349,5.8824,1.1538
11.887,8.9524,9.0615,0.64725,12.358,8.141,7.7295,1.859,17.327,0.64725,12.358,8.5386,12.063,3.126,11.492,6.4103,10.95,-11.667,-1.8413,7.8431,1.7949
9.3711,5.7778,7.1197,0.0,9.7561,4.2949,12.238,3.7821,17.327,0.0,9.7561,7.225,10.794,-2.6156,10.222,1.2821,9.0177,10.769,9.5873,7.1895,-7.1795
2.4528,3.2381,1.9417,-6.4725,13.008,-0.83333,9.0177,4.4231,19.903,-6.4725,13.008,3.2841,5.0794,-7.0813,4.5079,-1.9231,3.2206,15.897,11.492,5.2288,-10.385
4.3396,4.5079,2.589,2.589,7.8049,4.2949,8.3736,1.859,21.836,2.589,7.8049,6.5681,2.5397,-7.7193,1.9683,-1.9231,0.64412,4.359,7.0476,2.6144,-9.1026
-1.9497,-0.57143,-1.9417,5.178,1.3008,3.6538,9.0177,6.9872,8.9533,5.178,1.3008,4.5977,-9.5238,-14.737,-6.9206,-7.6923,-7.7295,3.7179,7.0476,-3.9216,-11.667
-2.5786,-4.381,-3.8835,14.239,13.008,6.859,-0.64412,5.0641,9.5974,14.239,13.008,1.9704,-15.238,-14.737,-10.095,-9.6154,-12.238,3.0769,10.857,-7.1895,-10.385
-1.3208,-8.8254,-6.4725,14.239,7.8049,2.3718,-12.238,7.6282,14.75,14.239,7.8049,-5.9113,-16.507999,-13.461,-10.095,-10.897,-14.171,-2.6923,5.1429,-6.5359,-8.4615
-3.8365,-8.1905,-10.356,-1.2945,-0.65041,-5.3205,-10.95,5.0641,10.242,-1.2945,-0.65041,-13.136,-15.238,-12.823,-9.4603,-10.897,-15.459,10.128,2.6032,-1.9608,-5.2564
-3.2075,-6.2857,-13.592,-6.4725,-5.2033,-7.8846,-10.306,2.5,4.4444,-6.4725,-5.2033,-17.077,-8.254,-8.3573,-5.6508,-8.3333,-14.171,13.974,0.69841,5.2288,1.1538
-5.7233,-10.095,-18.77,-11.003,-16.910999,-11.731,-12.238,1.2179,-8.438,-11.003,-16.910999,-21.018,-7.619,-8.3573,-6.9206,-10.897,-16.103001,1.1538,-0.57143,7.1895,1.7949
-8.8679,-13.905,-21.358999,-28.479,-18.211,-14.295,-16.103001,-7.7564,-9.0821,-28.479,-18.211,-22.332001,-4.4444,-10.271,-6.9206,-14.744,-18.035,12.051,5.7778,8.4967,-4.6154
-11.384,-17.079,-21.358999,-25.889999,-29.268,-13.013,-18.035,-14.167,-16.812,-25.889999,-29.268,-19.704,-6.3492,-13.461,-9.4603,-17.948999,-20.612,4.359,1.3333,5.2288,-7.1795
-16.415001,-13.905,-19.417,-9.7087,-24.065001,-13.013,-18.68,-7.1154,-11.014,-9.7087,-24.065001,-16.42,-7.619,-13.461,-12.635,-16.025999,-20.612,-3.9744,-5.6508,0.0,-5.2564
-16.415001,-10.73,-17.476,-3.8835,-11.707,-12.372,-7.7295,-1.9872,-0.06441,-3.8835,-11.707,-11.823,-7.619,-13.461,-14.54,-13.462,-18.68,-9.1026,5.7778,-1.9608,-3.9744
-18.302,-7.5556,-16.181,0.64725,-1.9512,-9.8077,0.64412,0.57692,7.0209,0.64725,-1.9512,-8.5386,-12.698,-16.013,-18.349001,-12.821,-19.968,-1.4103,9.5873,-8.4967,-5.2564
-19.559999,-6.2857,-14.887,5.178,0.0,-8.5256,-3.2206,-10.321,5.7327,5.178,0.0,-8.5386,-17.143,-14.099,-21.524,-10.897,-18.68,-1.4103,5.1429,-17.646999,-3.9744
-15.786,-5.0159,-10.356,-0.64725,4.5528,-10.449,-5.7971,-2.6282,12.174,-0.64725,4.5528,-9.8522,-14.603,-7.7193,-17.079,-5.7692,-12.238,-0.76923,1.9683,-18.301001,-2.0513
-3.8365,1.3333,-1.9417,-11.003,4.5528,-2.7564,3.2206,6.9872,11.53,-11.003,4.5528,-5.9113,-9.5238,3.126,-7.5556,3.2051,-1.9324,-2.6923,-0.57143,-14.379,5.0
-1.9497,0.69841,-2.589,-9.7087,-3.9024,-4.6795,-4.5089,-1.9872,1.868,-9.7087,-3.9024,-9.1954,-3.8095,10.781,-1.8413,4.4872,3.2206,0.51282,7.0476,-7.8431,8.8462
-7.6101,-4.381,-9.0615,-3.8835,-11.057,-14.295,-14.171,-9.0385,-2.6409,-3.8835,-11.057,-17.077,-3.8095,10.781,-1.8413,1.2821,1.9324,-18.077,13.397,-9.1503,6.9231
-12.013,-9.4603,-13.592,-9.0615,-17.561001,-18.782,-13.527,-19.936001,-5.8615,-9.0615,-17.561001,-19.048,-3.8095,8.8676,-5.0159,-3.8462,-1.9324,-30.896999,5.7778,-13.072,4.359
-17.044001,-14.54,-16.181,-12.945,-9.1057,-24.551001,-14.815,-18.653999,4.4444,-12.945,-9.1057,-21.018,0.0,6.9537,-6.9206,-8.3333,-5.7971,-13.59,-3.746,-9.1503,-0.12821
-17.044001,-16.444,-16.181,-18.122999,-12.358,-25.191999,-18.035,-17.372,-3.285,-18.122999,-12.358,-21.674999,0.63492,1.2121,-7.5556,-11.538,-8.3736,-3.9744,-6.2857,-3.9216,-3.9744
-10.755,-15.81,-12.945,-21.358999,-20.813,-17.5,-18.035,-14.167,-19.388,-21.358999,-20.813,-17.077,3.8095,-0.70175,-5.0159,-10.897,-7.7295,-12.308,-9.4603,1.3072,-5.2564
-8.8679,-15.175,-11.003,-18.77,-10.407,-10.449,-21.256001,-10.321,-14.879,-18.77,-10.407,-13.793,2.5397,-3.2536,-8.8254,-12.179,-11.594,-7.1795,-10.73,1.9608,-5.2564
-6.9811,-13.905,-11.003,-20.712,-11.057,-4.6795,-21.256001,-15.449,-16.812,-20.712,-11.057,-12.479,-1.9048,-6.4434,-10.73,-14.103,-13.527,0.51282,-16.444,2.6144,-7.1795
-3.8365,-11.365,-7.767,-11.003,-13.659,-0.19231,-15.459,-7.1154,-14.879,-11.003,-13.659,-5.9113,-1.2698,-7.0813,-8.8254,-13.462,-11.594,-7.1795,-17.079,3.9216,-9.7436
-1.9497,-10.095,-5.178,0.64725,-7.8049,1.7308,-9.0177,-1.9872,-6.5056,0.64725,-7.8049,-1.9704,-2.5397,-6.4434,-6.2857,-12.179,-9.0177,-5.8974,-23.429001,3.9216,-10.385
0.56604,-9.4603,0.0,7.767,1.3008,3.0128,-1.9324,1.2179,-6.5056,7.767,1.3008,3.9409,1.9048,-0.70175,0.06349,-9.6154,-1.9324,-6.5385,-15.81,5.8824,-8.4615
2.4528,-10.73,3.2362,2.589,1.9512,4.2949,-3.8647,3.7821,-6.5056,2.589,1.9512,5.2545,6.3492,5.0399,5.7778,-6.4103,5.7971,-4.6154,-12.635,7.1895,-7.8205
5.5975,-3.746,6.4725,4.5307,-3.252,5.5769,3.8647,-1.9872,-11.014,4.5307,-3.252,8.5386,8.254,10.781,10.222,3.2051,13.527,12.051,-18.349001,11.111,-3.3333
9.3711,8.9524,12.298,5.178,-5.8537,2.3718,7.7295,-3.9103,-11.659,5.178,-5.8537,7.8818,14.603,21.627001,17.205999,17.308001,23.188,12.051,-17.079,16.34,6.2821
15.031,19.111,18.122999,-2.589,0.0,4.9359,14.171,-8.3974,-12.303,-2.589,0.0,9.8522,18.413,25.455,21.016001,26.923,28.341,-6.5385,-12.0,15.033,12.051
12.516,21.016001,19.417,-14.887,13.008,5.5769,17.391001,-15.449,-7.1498,-14.887,13.008,12.479,18.413,24.816999,20.381001,27.563999,27.697001,-4.6154,-5.6508,15.033,14.615
5.5975,15.302,15.534,-11.003,16.26,0.44872,11.594,-16.731001,1.868,-11.003,16.26,11.166,18.413,24.816999,15.937,23.718,23.833,-1.4103,-0.57143,14.379,17.820999
1.195,9.5873,10.356,3.8835,12.358,-0.19231,4.5089,-14.808,12.818,3.8835,12.358,9.1954,11.429,19.712999,7.0476,17.308001,15.459,-4.6154,-15.175,6.5359,18.462
-3.8365,0.69841,3.2362,7.767,10.407,1.7308,2.5765,-13.526,7.0209,7.767,10.407,7.8818,2.5397,8.8676,-1.8413,6.4103,3.8647,-4.6154,-10.73,-0.65359,9.4872
-4.4654,-2.4762,0.0,5.178,13.008,4.2949,3.8647,-3.9103,5.0886,5.178,13.008,7.8818,-5.7143,-1.3397,-7.5556,-2.5641,-4.5089,-15.513,5.1429,-7.1895,0.51282
-0.69182,3.873,3.8835,5.8252,7.8049,8.7821,9.6618,-5.8333,13.462,5.8252,7.8049,11.166,-6.9841,-4.5295,-5.6508,-1.2821,-4.5089,-1.4103,10.222,-7.8431,1.1538
4.9686,10.222,7.767,6.4725,-0.65041,11.987,18.035,-5.8333,6.3768,6.4725,-0.65041,13.793,-5.0794,-5.1675,-1.2063,1.9231,-1.9324,5.0,8.3175,-4.5752,1.1538
8.7421,12.762,11.003,9.0615,-1.9512,7.5,12.238,5.7051,8.3092,9.0615,-1.9512,10.509,-0.63492,-3.8915,4.5079,5.7692,2.5765,-4.6154,0.06349,0.65359,-1.4103
15.031,15.937,15.534,7.1197,5.2033,6.859,14.171,11.474,2.5121,7.1197,5.2033,9.1954,7.619,5.6778,13.397,12.821,12.882,13.333,-2.4762,8.4967,2.4359
18.176001,10.222,14.239,2.589,8.4553,6.859,2.5765,12.115,-5.2174,2.589,8.4553,3.9409,12.063,10.781,18.476,13.462,18.035,17.820999,-1.2063,11.765,2.4359
12.516,1.9683,7.767,-2.589,1.9512,3.0128,-14.171,6.9872,-4.5733,-2.589,1.9512,-3.2841,13.333,14.609,15.937,10.897,17.391001,10.769,-8.1905,9.1503,4.359
10.629,5.1429,8.4142,-0.64725,-12.358,-0.19231,-8.3736,2.5,-19.388,-0.64725,-12.358,-4.5977,12.063,17.160999,14.667,14.744,16.103001,3.7179,-24.063,7.8431,11.41
14.403,1.3333,9.0615,-1.9417,-9.7561,3.0128,-9.0177,5.0641,-20.676001,-1.9417,-9.7561,-1.3136,8.8889,13.333,13.397,8.9744,12.882,11.41,-13.905,10.458,6.9231
13.774,-6.2857,6.4725,-3.2362,-9.7561,5.5769,-12.882,2.5,-5.2174,-3.2362,-9.7561,-0.65681,6.9841,8.2297,10.857,0.64103,7.7295,15.897,-0.57143,9.1503,-1.4103
13.774,-3.746,5.8252,-3.2362,-3.9024,8.7821,-5.153,-2.6282,2.5121,-3.2362,-3.9024,2.6273,5.7143,4.4019,8.3175,-1.9231,5.153,17.179001,0.06349,5.8824,-2.6923
11.887,0.06349,3.2362,-6.4725,-0.65041,8.141,-1.9324,-3.2692,6.3768,-6.4725,-0.65041,3.9409,1.9048,-0.0638,5.7778,-2.5641,1.2882,11.41,-5.0159,5.2288,-3.9744
14.403,7.6825,6.4725,-3.8835,2.6016,11.987,9.0177,-6.4744,1.2238,-3.8835,2.6016,9.1954,5.0794,1.2121,7.6825,2.5641,3.2206,3.0769,-4.381,7.8431,0.51282
6.2264,14.667,7.1197,5.8252,3.9024,10.064,19.968,-2.6282,5.7327,5.8252,3.9024,12.479,6.3492,3.126,5.1429,7.0513,4.5089,-0.12821,3.2381,4.5752,5.641
1.8239,11.492,4.5307,-0.64725,7.1545,6.859,18.68,-1.9872,1.2238,-0.64725,7.1545,9.1954,5.7143,4.4019,3.873,6.4103,4.5089,-23.205,5.7778,1.9608,6.9231
-1.3208,8.3175,1.9417,-12.298,2.6016,0.44872,16.747,-10.962,-3.285,-12.298,2.6016,5.2545,5.7143,4.4019,3.2381,5.1282,4.5089,-18.718,3.2381,1.9608,9.4872
-10.126,1.3333,-3.8835,-16.827999,-3.9024,-7.8846,1.9324,-13.526,17.971001,-16.827999,-3.9024,-1.9704,5.0794,5.0399,0.06349,2.5641,2.5765,-2.0513,-3.746,0.0,10.128
-16.415001,-8.8254,-11.003,-3.8835,-2.6016,-15.577,-12.882,-14.808,17.327,-3.8835,-2.6016,-9.8522,1.9048,1.8501,-5.6508,-3.8462,-3.8647,-2.6923,5.7778,-4.5752,3.7179
-18.302,-10.73,-12.945,2.589,-0.65041,-15.577,-15.459,-7.7564,7.0209,2.589,-0.65041,-11.823,-0.63492,-1.9777,-9.4603,-7.0513,-7.7295,-12.308,11.492,-6.5359,-2.6923
-15.157,-8.8254,-11.003,-3.8835,-9.1057,-10.449,-9.0177,-8.3974,3.8003,-3.8835,-9.1057,-7.8818,-2.5397,-3.8915,-11.365,-8.3333,-9.6618,-7.8205,9.5873,-4.5752,-3.3333
-15.786,-4.381,-9.0615,-1.2945,-6.5041,-7.2436,-1.9324,-10.321,1.2238,-1.2945,-6.5041,-4.5977,-3.8095,-3.8915,-14.54,-7.6923,-12.882,-26.41,7.6825,-7.1895,-1.4103
-17.044001,-4.381,-10.356,-5.8252,1.9512,-9.8077,-0.64412,-4.5513,-2.6409,-5.8252,1.9512,-4.5977,-8.8889,-8.9952,-18.983999,-10.897,-18.035,-20.641001,2.6032,-8.4967,-4.6154
-14.528,-4.381,-10.356,-12.945,-0.65041,-6.6026,-3.2206,-6.4744,-12.947,-12.945,-0.65041,-4.5977,-9.5238,-7.0813,-17.714001,-8.3333,-16.747,-11.667,-4.381,-9.8039,-5.2564
-8.239,0.06349,-5.178,-4.5307,-1.9512,-2.1154,0.0,-4.5513,-3.285,-4.5307,-1.9512,0.0,-6.3492,0.57416,-11.365,-0.64103,-7.7295,-10.385,2.6032,-11.765,3.7179
-14.528,2.6032,-5.8252,-5.178,-3.9024,-9.1667,-1.9324,-9.0385,8.9533,-5.178,-3.9024,-3.2841,-6.9841,6.9537,-10.095,3.8462,-2.5765,-0.12821,-1.8413,-12.418,8.8462
-13.899,-3.746,-7.767,-5.178,-7.8049,-12.372,-3.2206,-8.3974,1.2238,-5.178,-7.8049,-6.5681,-5.0794,6.9537,-8.1905,0.64103,-1.2882,-8.4615,5.7778,-13.072,4.359
-9.4969,-2.4762,-5.8252,-0.64725,-11.707,-11.731,-1.9324,-9.0385,1.2238,-0.64725,-11.707,-7.8818,-0.63492,2.488,-4.381,0.64103,0.0,-8.4615,7.0476,-8.4967,-1.4103
-4.4654,4.5079,-1.9417,-3.2362,-3.9024,-10.449,-0.64412,-11.603,-0.06441,-3.2362,-3.9024,-5.9113,3.1746,3.764,0.69841,5.7692,3.8647,-1.4103,3.873,-1.3072,2.4359
3.7107,9.5873,1.9417,-3.8835,-1.9512,-4.0385,3.2206,-10.321,1.868,-3.8835,-1.9512,-3.2841,1.9048,1.2121,3.2381,7.0513,3.8647,-9.1026,10.222,1.9608,4.359
-2.5786,3.873,-3.8835,-9.0615,-5.2033,-7.8846,3.2206,-14.808,5.0886,-9.0615,-5.2033,-7.225,-6.3492,-8.3573,-5.0159,-2.5641,-5.7971,-22.563999,9.5873,-7.1895,-3.9744
-13.27,-3.746,-10.356,-16.181,-5.2033,-16.858999,-0.64412,-8.3974,3.8003,-16.181,-5.2033,-10.509,-10.159,-14.099,-14.54,-11.538,-15.459,-11.026,7.0476,-13.725,-11.026
-18.302,-12.0,-14.887,-14.239,-0.65041,-17.5,-4.5089,-14.808,9.5974,-14.239,-0.65041,-11.823,-12.063,-19.841,-19.618999,-19.872,-21.9,3.0769,0.69841,-13.072,-16.795
-17.673,-10.73,-13.592,-3.8835,9.7561,-11.731,-5.7971,-13.526,15.395,-3.8835,9.7561,-8.5386,-12.063,-22.392,-21.524,-21.153999,-22.544001,-15.513,0.06349,-13.725,-18.077
-11.384,0.06349,-3.2362,-3.2362,10.407,-3.3974,5.153,-5.1923,18.615,-3.2362,10.407,0.0,-8.8889,-18.565001,-16.444,-11.538,-14.171,-21.923,-0.57143,-14.379,-12.949
-5.0943,12.762,9.0615,3.2362,11.707,3.6538,22.544001,-2.6282,25.700001,3.2362,11.707,11.166,-1.9048,-10.909,-6.9206,0.64103,-1.2882,-9.1026,17.205999,-7.8431,-6.5385
3.0818,24.190001,18.77,0.0,14.959,11.346,28.986,-8.3974,35.362,0.0,14.959,19.048,3.1746,-1.9777,2.6032,13.462,11.594,-14.872,35.618999,-3.9216,-1.4103
8.7421,27.365,21.358999,-0.64725,13.008,12.628,26.409,-14.808,25.700001,-0.64725,13.008,20.361,6.3492,7.5917,9.5873,22.436001,21.256001,-20.0,26.094999,-3.9216,8.2051
4.3396,24.190001,17.476,6.4725,-1.3008,3.0128,23.833,-14.167,18.615,6.4725,-1.3008,12.479,8.254,12.057,12.127,23.718,23.833,-21.282,26.73,-3.9216,12.051
3.0818,18.476,13.592,-1.9417,2.6016,-4.0385,14.171,-10.321,12.174,-1.9417,2.6016,4.5977,10.794,14.609,14.032,21.153999,23.188,-18.077,22.285999,1.9608,12.692
-1.9497,7.0476,3.8835,-13.592,4.5528,-11.731,-3.2206,-14.167,16.039,-13.592,4.5528,-7.225,9.5238,13.971,10.857,14.744,16.103001,-12.308,17.841,4.5752,14.615
-5.0943,1.9683,-1.2945,-5.178,1.3008,-14.936,-7.7295,-20.577,14.75,-5.178,1.3008,-10.509,7.619,13.333,7.0476,10.256,9.0177,-15.513,8.3175,4.5752,17.179001
-5.7233,3.2381,-3.2362,-3.8835,-3.9024,-14.295,-5.7971,-29.551001,1.868,-3.8835,-3.9024,-9.8522,9.5238,14.609,5.7778,8.9744,5.153,-5.2564,-1.2063,9.1503,18.462
-5.0943,-5.0159,-9.0615,-5.8252,-5.8537,-11.731,-5.153,-23.141001,-11.659,-5.8252,-5.8537,-11.166,5.7143,10.144,1.3333,0.0,-3.8647,-10.385,10.857,9.8039,13.333
-5.7233,-13.905,-16.181,-17.476,-7.8049,-10.449,-16.103001,-14.167,-8.438,-17.476,-7.8049,-15.764,-1.9048,0.57416,-3.746,-8.9744,-12.238,-15.513,8.3175,6.5359,3.7179
-2.5786,-13.905,-15.534,-5.8252,-3.9024,-5.9615,-18.035,-0.70513,2.5121,-5.8252,-3.9024,-12.479,-2.5397,-3.2536,-3.1111,-11.538,-13.527,-0.12821,-2.4762,7.1895,0.51282
3.7107,-12.0,-9.0615,9.0615,2.6016,4.2949,-8.3736,6.3462,-0.70853,9.0615,2.6016,-3.2841,-0.63492,-6.4434,0.06349,-12.821,-11.594,17.179001,-5.0159,9.1503,-5.8974
8.1132,-7.5556,-1.2945,-1.9417,-7.1545,11.987,6.4412,6.9872,-6.5056,-1.9417,-7.1545,6.5681,-3.8095,-10.909,2.6032,-12.821,-8.3736,29.358999,-13.905,12.418,-11.667
17.547001,-1.8413,7.767,4.5307,7.8049,20.962,14.815,24.936001,-8.438,4.5307,7.8049,15.764,-1.9048,-10.909,9.5873,-10.897,-1.9324,27.436001,-17.079,13.072,-14.231
19.434,-1.8413,10.356,22.006001,23.415001,22.243999,7.7295,31.987,1.868,22.006001,23.415001,17.733999,3.8095,-8.9952,13.397,-8.9744,3.8647,29.358999,-14.54,14.379,-16.795
16.289,2.6032,11.65,27.184,22.114,17.115,8.3736,23.653999,-0.06441,27.184,22.114,17.077,4.4444,-6.4434,12.127,-3.2051,5.7971,10.769,-20.254,10.458,-11.667
13.145,6.4127,11.65,22.006001,14.309,12.628,13.527,11.474,-0.06441,22.006001,14.309,14.45,2.5397,-4.5295,8.9524,-0.64103,4.5089,15.256,-9.4603,6.5359,-7.8205
4.9686,3.2381,6.4725,5.178,4.5528,3.0128,12.238,9.5513,8.3092,5.178,4.5528,8.5386,-1.2698,-3.8915,0.69841,-2.5641,0.0,19.743999,7.6825,-1.9608,-6.5385
-2.5786,0.69841,0.64725,-1.9417,0.0,0.44872,1.9324,12.115,7.6651,-1.9417,0.0,2.6273,-5.0794,-4.5295,-6.9206,-2.5641,-3.8647,15.256,8.3175,-10.458,-3.9744
-7.6101,0.06349,-2.589,-13.592,-7.1545,0.44872,-1.2882,4.4231,1.868,-13.592,-7.1545,0.0,-8.8889,-5.1675,-12.635,-2.5641,-7.7295,1.7949,10.857,-17.646999,-0.12821
-7.6101,1.3333,-2.589,-5.8252,-3.9024,2.3718,-1.9324,1.2179,7.6651,-5.8252,-3.9024,0.0,-8.254,-1.3397,-12.635,0.64103,-6.4412,-12.949,8.3175,-20.261,6.2821
-3.2075,5.7778,2.589,-12.298,-3.9024,3.6538,4.5089,-1.9872,4.4444,-12.298,-3.9024,3.9409,-5.7143,2.488,-7.5556,7.0513,0.0,-19.358999,8.3175,-15.033,11.41
-1.9497,5.7778,5.8252,-9.0615,-3.9024,1.7308,7.0853,-6.4744,1.868,-9.0615,-3.9024,2.6273,-4.4444,5.0399,-3.1111,11.538,5.153,-23.205,21.650999,-16.993,12.692
-3.2075,7.6825,8.4142,1.2945,-3.9024,-4.0385,-1.9324,-13.526,-1.3527,1.2945,-3.9024,-1.9704,0.63492,10.781,1.9683,17.308001,11.594,-8.4615,15.302,-13.725,17.179001
-5.7233,11.492,7.1197,-5.8252,-10.407,-14.295,-7.0853,-14.167,-0.70853,-5.8252,-10.407,-9.1954,3.8095,13.971,4.5079,21.153999,14.815,-2.0513,4.5079,-8.4967,21.667
-3.2075,10.857,4.5307,-11.003,-11.707,-16.218,-7.0853,-14.167,5.0886,-11.003,-11.707,-11.166,4.4444,13.333,7.0476,19.231001,13.527,-7.1795,13.397,-1.9608,19.743999
-0.06289,6.4127,1.9417,-21.358999,-5.2033,-13.013,-13.527,-10.321,4.4444,-21.358999,-5.2033,-11.823,4.4444,10.144,7.0476,12.821,9.0177,-18.077,15.302,-0.65359,15.256
1.195,7.0476,1.9417,-11.003,-10.407,-9.8077,-8.3736,-1.3462,1.2238,-11.003,-10.407,-8.5386,3.8095,6.9537,7.0476,9.6154,5.153,-5.8974,12.127,3.268,12.051
2.4528,4.5079,1.9417,0.0,-7.8049,-7.2436,-1.9324,-5.8333,-9.0821,0.0,-7.8049,-7.225,2.5397,-0.0638,6.4127,3.2051,0.64412,1.7949,14.032,7.8431,6.2821
3.0818,3.2381,0.64725,-5.178,-5.8537,-5.9615,3.8647,-0.0641,-6.5056,-5.178,-5.8537,-7.8818,1.9048,-3.8915,6.4127,0.0,-1.2882,-0.12821,8.3175,9.1503,4.359
4.3396,-3.1111,-1.9417,-14.887,-13.659,-5.3205,1.9324,6.3462,-3.9291,-14.887,-13.659,-7.225,3.1746,-4.5295,6.4127,-5.1282,-1.9324,4.359,1.3333,11.111,-0.76923
11.887,-5.0159,0.64725,1.2945,-7.8049,6.2179,1.9324,7.6282,3.1562,1.2945,-7.8049,1.3136,5.0794,-3.2536,9.5873,-5.7692,1.9324,11.41,1.9683,14.379,-4.6154
13.145,-2.4762,2.589,11.65,0.0,13.269,5.7971,12.115,3.8003,11.65,0.0,7.8818,3.8095,-5.1675,8.3175,-4.4872,2.5765,10.128,-7.5556,11.765,-5.8974
10.0,-1.2063,1.9417,14.887,9.1057,13.91,5.153,16.603001,2.5121,14.887,9.1057,9.1954,0.0,-7.7193,3.2381,-5.1282,-0.64412,21.025999,-6.2857,6.5359,-11.667
9.3711,3.2381,7.1197,16.827999,16.26,15.833,9.0177,15.321,5.0886,16.827999,16.26,15.764,0.63492,-4.5295,1.3333,-1.9231,0.64412,28.077,1.3333,3.9216,-12.308
10.629,4.5079,11.65,18.122999,16.910999,17.115,9.6618,15.962,8.9533,18.122999,16.910999,19.048,-1.9048,-4.5295,0.69841,1.2821,1.9324,12.051,1.9683,-3.9216,-12.308
18.805,8.3175,18.122999,33.657001,33.820999,23.525999,14.171,20.448999,15.395,33.657001,33.820999,23.645,-2.5397,-4.5295,4.5079,5.1282,5.7971,4.359,0.06349,-5.2288,-10.385
26.981001,15.937,25.243,31.715,29.268,31.858999,19.968,22.372,14.106,31.715,29.268,30.212999,3.1746,1.8501,12.762,12.821,12.882,22.308001,-3.746,3.268,-3.3333
24.465,17.841,23.948,18.77,11.057,26.731001,19.968,26.858999,5.0886,18.77,11.057,27.586,1.9048,1.8501,13.397,14.103,12.882,16.538,1.3333,3.268,2.4359
18.805,15.937,19.417,9.0615,11.057,18.396999,16.103001,20.448999,4.4444,9.0615,11.057,20.361,0.0,1.8501,11.492,12.821,10.95,6.9231,5.7778,-0.65359,4.359
15.66,17.205999,16.827999,17.476,12.358,14.551,14.171,10.192,4.4444,17.476,12.358,15.764,4.4444,8.8676,12.127,16.667,12.882,14.615,-4.381,0.65359,12.051
7.4843,11.492,9.0615,10.356,1.9512,6.2179,3.8647,6.3462,-1.9968,10.356,1.9512,6.5681,3.1746,6.3158,8.9524,12.179,9.0177,13.974,0.69841,5.2288,9.4872
-6.3522,1.3333,-2.589,-5.8252,0.0,-6.6026,-4.5089,-1.3462,-2.6409,-5.8252,0.0,-5.9113,0.63492,1.8501,0.69841,3.2051,1.2882,0.51282,7.0476,-2.6144,5.0
-10.755,-3.746,-7.1197,-6.4725,-3.252,-10.449,-7.7295,1.859,12.818,-6.4725,-3.252,-8.5386,-2.5397,-1.3397,-4.381,-1.9231,-4.5089,-6.5385,3.2381,-5.8824,3.7179
-5.0943,-6.2857,-5.178,3.8835,-0.65041,-4.0385,-1.9324,-3.2692,7.6651,3.8835,-0.65041,-3.2841,-2.5397,-3.2536,-3.746,-5.7692,-6.4412,-1.4103,7.0476,0.0,0.51282
-4.4654,-9.4603,-6.4725,11.003,10.407,-4.6795,-1.9324,-1.9872,-5.8615,11.003,10.407,-2.6273,-3.1746,-5.8054,-3.746,-10.256,-9.0177,0.51282,1.9683,2.6144,-3.3333
-5.7233,-11.365,-8.4142,-5.178,4.5528,-7.8846,-7.7295,-3.9103,-7.7939,-5.178,4.5528,-5.9113,-7.619,-10.909,-6.2857,-14.103,-10.95,-5.8974,-9.4603,0.0,-5.8974
-6.9811,-10.73,-8.4142,-3.8835,1.3008,-8.5256,-5.153,-10.962,-1.9968,-3.8835,1.3008,-7.225,-8.8889,-10.909,-7.5556,-12.821,-10.306,-1.4103,-8.1905,-2.6144,-7.1795
-1.3208,-5.0159,-4.5307,-1.2945,0.65041,-3.3974,0.0,-4.5513,-9.0821,-1.2945,0.65041,-3.2841,-6.3492,-5.1675,-4.381,-5.1282,-5.153,1.1538,-10.73,0.65359,-1.4103
2.4528,1.3333,-1.2945,6.4725,-6.5041,-0.83333,0.64412,-0.0641,-11.659,6.4725,-6.5041,0.65681,-4.4444,-2.6156,-2.4762,0.64103,-2.5765,-18.077,-10.095,0.65359,3.0769
-0.06289,-2.4762,-3.2362,-1.2945,-7.1545,-9.1667,-12.238,-7.1154,-0.06441,-1.2945,-7.1545,-6.5681,-5.0794,-3.8915,-2.4762,-0.64103,-2.5765,-11.026,-5.0159,1.9608,0.51282
0.56604,-5.0159,-2.589,-15.534,-4.5528,-11.731,-14.171,-12.885,-1.3527,-15.534,-4.5528,-9.8522,1.2698,2.488,2.6032,1.2821,2.5765,18.462,-6.9206,7.1895,3.7179
-4.4654,-12.0,-7.767,-13.592,-2.6016,-13.013,-18.035,-10.962,-9.7262,-13.592,-2.6016,-15.107,3.8095,4.4019,1.9683,-3.8462,0.64412,15.256,-13.27,7.1895,-0.76923
-5.7233,-18.349001,-10.356,-4.5307,-3.9024,-11.09,-16.103001,-9.0385,-13.591,-4.5307,-3.9024,-14.45,-0.63492,-3.8915,-1.8413,-11.538,-3.2206,5.0,-15.81,7.1895,-9.7436
6.2264,-3.746,1.9417,-3.2362,-5.2033,5.5769,1.2882,4.4231,-5.8615,-3.2362,-5.2033,0.65681,3.8095,0.57416,5.7778,-2.5641,5.153,11.41,-17.714001,7.1895,-6.5385
8.1132,0.06349,6.4725,4.5307,3.9024,13.91,7.7295,11.474,-0.70853,4.5307,3.9024,9.8522,1.2698,-1.3397,3.873,-1.2821,4.5089,12.051,-10.73,-3.268,-9.7436
11.258,5.1429,10.356,14.239,-1.3008,19.038,10.306,14.679,-2.6409,14.239,-1.3008,14.45,0.0,-0.70175,3.873,0.64103,3.8647,0.51282,-10.73,-3.9216,-8.4615
13.145,7.6825,11.65,16.181,5.2033,19.679001,12.882,15.321,-5.8615,16.181,5.2033,17.077,0.0,-0.70175,4.5079,1.9231,3.2206,0.51282,-8.8254,0.65359,-7.1795
8.1132,4.5079,7.1197,3.8835,11.057,12.628,3.8647,14.038,-11.014,3.8835,11.057,9.8522,-3.1746,-2.6156,0.69841,0.0,-1.2882,17.179001,-12.635,-1.3072,-4.6154
4.3396,-1.2063,1.9417,6.4725,8.4553,7.5,0.0,21.09,-8.438,6.4725,8.4553,3.2841,-1.2698,1.2121,-0.57143,-1.9231,-3.2206,22.948999,-6.9206,-0.65359,-0.12821
-0.69182,-10.095,-5.8252,7.1197,1.9512,0.44872,-5.7971,19.167,-4.5733,7.1197,1.9512,-3.9409,-1.9048,-1.9777,-4.381,-8.9744,-7.7295,18.462,-5.0159,0.65359,-3.3333
-0.06289,-10.73,-7.767,7.1197,-5.8537,-0.19231,-8.3736,14.038,1.2238,7.1197,-5.8537,-5.9113,-3.1746,-4.5295,-5.0159,-10.897,-9.6618,2.4359,-10.73,1.3072,-5.2564
3.0818,-10.095,-5.178,-2.589,-4.5528,3.0128,-9.0177,14.679,-1.3527,-2.589,-4.5528,-2.6273,-3.1746,-4.5295,-3.746,-10.256,-7.7295,8.8462,-6.9206,1.3072,-5.2564
3.0818,-8.8254,-3.8835,0.0,-3.252,3.0128,-10.306,6.9872,-4.5733,0.0,-3.252,-3.2841,-5.0794,-6.4434,-3.1111,-8.9744,-7.0853,-2.6923,-1.2063,-0.65359,-7.1795
0.56604,-5.6508,-3.2362,1.2945,-0.65041,-1.4744,-1.9324,5.0641,-3.9291,1.2945,-0.65041,-2.6273,-6.3492,-5.8054,-2.4762,-6.4103,-5.153,5.0,-0.57143,0.65359,-5.8974
1.195,-0.57143,0.64725,-1.9417,2.6016,0.44872,1.9324,-0.70513,-3.285,-1.9417,2.6016,-0.65681,-0.63492,-1.3397,3.2381,0.64103,1.2882,19.743999,-2.4762,7.1895,-2.0513
3.7107,3.873,3.8835,0.64725,0.0,1.0897,6.4412,1.2179,-2.6409,0.64725,0.0,3.2841,5.7143,3.126,7.6825,6.4103,7.7295,13.974,-1.2063,15.033,2.4359
3.0818,5.1429,3.8835,7.1197,-6.5041,1.7308,9.0177,8.9103,3.1562,7.1197,-6.5041,4.5977,6.9841,3.764,7.6825,7.6923,8.3736,-5.8974,-9.4603,10.458,3.0769
0.56604,1.3333,0.0,-0.64725,0.65041,-0.19231,0.64412,0.57692,7.6651,-0.64725,0.65041,1.9704,6.3492,1.8501,4.5079,2.5641,5.153,3.0769,-4.381,3.268,-0.76923
-1.9497,-3.1111,-3.2362,0.0,2.6016,-0.83333,-3.8647,1.2179,3.1562,0.0,2.6016,-1.9704,1.9048,-1.9777,-0.57143,-3.8462,-0.64412,5.641,0.69841,0.0,-5.8974
-2.5786,-5.0159,-3.2362,0.0,-3.252,1.0897,1.2882,-2.6282,-11.659,0.0,-3.252,-1.3136,-1.9048,-3.8915,-5.0159,-7.0513,-5.7971,-3.3333,-2.4762,-5.2288,-5.8974
-1.3208,-2.4762,-1.2945,-1.9417,1.3008,4.9359,1.2882,-0.0641,-2.6409,-1.9417,1.3008,2.6273,-2.5397,-1.9777,-6.2857,-7.0513,-7.0853,-14.872,-1.2063,-3.9216,-2.6923
-1.9497,0.06349,-0.64725,-4.5307,5.2033,6.859,-0.64412,-4.5513,7.0209,-4.5307,5.2033,3.2841,-4.4444,-1.9777,-7.5556,-5.7692,-8.3736,-3.9744,4.5079,-5.2288,-2.6923
-6.9811,-0.57143,-3.2362,-5.8252,-1.3008,-2.7564,-6.4412,-1.3462,7.0209,-5.8252,-1.3008,-3.2841,-6.9841,-1.9777,-9.4603,-5.7692,-9.0177,6.9231,5.1429,-7.8431,-2.6923
-5.7233,-1.2063,-3.2362,0.64725,-2.6016,-9.1667,-5.7971,3.7821,7.0209,0.64725,-2.6016,-5.9113,-4.4444,1.8501,-4.381,-2.5641,-4.5089,1.1538,3.873,-2.6144,-0.76923
-5.7233,-3.1111,-3.2362,-1.2945,-16.26,-9.1667,-4.5089,-7.7564,-11.659,-1.2945,-16.26,-7.8818,-2.5397,5.0399,-2.4762,-0.64103,-1.9324,0.51282,-4.381,-2.6144,-0.76923
4.9686,0.69841,1.9417,-4.5307,-14.309,-2.1154,-1.9324,-7.7564,-11.014,-4.5307,-14.309,-3.2841,5.7143,12.695,5.1429,6.4103,5.7971,-3.9744,-12.635,2.6144,7.5641
8.7421,-3.1111,4.5307,-11.65,7.8049,1.7308,-5.7971,-3.9103,3.1562,-11.65,7.8049,-1.9704,11.429,10.144,10.857,5.1282,9.0177,4.359,-4.381,11.111,2.4359
6.8553,-2.4762,6.4725,-7.767,13.659,1.0897,-3.8647,-4.5513,6.3768,-7.767,13.659,-1.3136,14.603,8.8676,13.397,5.1282,11.594,-0.12821,0.06349,14.379,-0.76923
12.516,6.4127,13.592,1.2945,-0.65041,6.859,7.7295,1.2179,5.0886,1.2945,-0.65041,7.225,19.048,14.609,18.476,13.462,18.68,5.0,-2.4762,18.301001,8.2051
15.66,12.762,17.476,1.9417,1.9512,10.064,10.95,-7.7564,2.5121,1.9417,1.9512,10.509,20.952,17.160999,22.285999,19.231001,21.9,15.897,7.6825,21.569,13.974
15.66,17.205999,18.122999,-6.4725,4.5528,6.2179,14.171,-10.321,2.5121,-6.4725,4.5528,11.823,15.873,14.609,20.381001,19.231001,19.323999,8.2051,9.5873,20.915001,14.615
13.145,22.921,17.476,3.8835,3.252,5.5769,15.459,-9.6795,-0.70853,3.8835,3.252,12.479,10.794,12.057,15.937,19.231001,14.815,-0.12821,15.937,18.301001,15.256
10.0,19.746,15.534,4.5307,5.2033,8.141,14.171,-19.936001,4.4444,4.5307,5.2033,13.793,5.7143,6.3158,9.5873,14.744,9.0177,-2.0513,19.111,10.458,13.333
3.0818,15.302,10.356,-1.2945,-4.5528,5.5769,12.238,-10.321,14.75,-1.2945,-4.5528,10.509,0.0,-0.0638,2.6032,10.256,1.9324,-5.2564,7.0476,5.2288,8.8462
0.56604,9.5873,5.178,-5.8252,-4.5528,1.7308,12.238,-3.9103,15.395,-5.8252,-4.5528,7.225,-1.9048,-2.6156,0.69841,4.4872,0.64412,-7.8205,14.032,1.3072,4.359
-0.06289,2.6032,1.2945,-10.356,3.252,-2.1154,1.9324,-0.0641,10.242,-10.356,3.252,0.0,-1.2698,-1.3397,1.9683,0.64103,1.9324,-11.667,18.476,-3.9216,-0.12821
-2.5786,3.2381,0.64725,-1.2945,-2.6016,-5.9615,1.2882,-7.1154,4.4444,-1.2945,-2.6016,-1.9704,-1.2698,2.488,1.3333,1.2821,3.8647,-2.6923,9.5873,-8.4967,3.0769
-2.5786,3.2381,1.2945,0.0,-0.65041,-4.6795,3.8647,-14.167,10.242,0.0,-0.65041,-0.65681,0.0,5.6778,0.69841,1.2821,5.153,-5.2564,10.222,-13.725,5.0
-3.2075,1.9683,1.2945,-4.5307,1.9512,-0.83333,2.5765,-1.3462,6.3768,-4.5307,1.9512,1.3136,3.8095,10.781,0.06349,1.9231,6.4412,-13.59,10.857,-12.418,6.9231
-9.4969,0.06349,-3.2362,-1.2945,-3.252,-4.0385,1.2882,-2.6282,5.0886,-1.2945,-3.252,-1.3136,1.2698,12.057,-5.6508,0.0,2.5765,-11.026,3.873,-14.379,6.2821
-6.9811,-2.4762,-5.178,2.589,-3.252,-5.3205,-3.2206,-7.1154,12.174,2.589,-3.252,-3.9409,-4.4444,11.419,-9.4603,0.0,-0.64412,-12.308,2.6032,-18.301001,7.5641
-8.239,-1.2063,-5.178,-2.589,2.6016,-5.9615,-8.3736,-11.603,7.0209,-2.589,2.6016,-6.5681,-6.3492,9.5056,-10.73,0.64103,-3.2206,-8.4615,1.3333,-21.569,10.128
-10.126,-6.2857,-7.767,-15.534,-3.9024,-6.6026,-10.306,-14.808,-3.285,-15.534,-3.9024,-9.8522,-8.254,4.4019,-12.0,-3.8462,-7.7295,-10.385,10.857,-18.301001,3.7179
-6.9811,-6.2857,-7.767,-14.887,-8.4553,-9.8077,-9.6618,-8.3974,-4.5733,-14.887,-8.4553,-10.509,-5.7143,3.764,-9.4603,-3.2051,-7.7295,-7.1795,11.492,-10.458,3.0769
-1.9497,0.06349,-3.8835,-5.178,-3.252,-9.8077,-4.5089,-7.1154,-1.3527,-5.178,-3.252,-7.8818,-0.63492,5.0399,-1.8413,2.5641,-2.5765,-10.385,8.9524,-3.268,5.641
1.8239,7.6825,1.2945,-3.8835,2.6016,-5.9615,3.2206,-5.1923,12.818,-3.8835,2.6016,-1.3136,3.1746,6.3158,2.6032,8.3333,1.9324,-13.59,12.762,3.9216,6.9231
2.4528,12.127,3.8835,-10.356,2.6016,0.44872,4.5089,-0.70513,18.615,-10.356,2.6016,3.9409,5.7143,6.9537,4.5079,10.897,3.2206,1.7949,14.032,7.1895,9.4872
5.5975,10.222,5.178,-3.2362,1.3008,6.2179,11.594,1.859,14.75,-3.2362,1.3008,9.1954,6.3492,2.488,5.7778,7.6923,2.5765,17.820999,15.302,13.725,6.2821
1.195,3.2381,0.0,3.8835,3.252,3.0128,7.7295,3.7821,7.6651,3.8835,3.252,5.9113,3.8095,-5.1675,3.873,0.64103,-1.9324,1.1538,5.1429,15.686,1.7949
-0.69182,1.3333,-3.2362,-1.9417,0.0,1.0897,7.0853,-7.1154,4.4444,-1.9417,0.0,3.9409,-0.63492,-10.271,0.69841,-4.4872,-6.4412,4.359,-2.4762,9.8039,-0.12821
1.8239,-1.2063,-3.8835,-6.4725,-0.65041,3.6538,5.153,-4.5513,7.0209,-6.4725,-0.65041,3.2841,-3.1746,-10.909,-0.57143,-7.6923,-7.7295,6.2821,5.1429,3.9216,-3.3333
-0.69182,-6.9206,-6.4725,1.2945,-3.252,1.0897,0.64412,3.7821,-1.3527,1.2945,-3.252,0.65681,-7.619,-13.461,-5.6508,-12.179,-9.6618,9.4872,11.492,-0.65359,-8.4615
-6.3522,-10.095,-9.7087,6.4725,-3.9024,-4.0385,-3.8647,5.7051,1.2238,6.4725,-3.9024,-2.6273,-12.698,-14.737,-10.095,-14.744,-12.238,4.359,8.9524,-7.8431,-12.308
-0.69182,-5.0159,-4.5307,8.4142,8.4553,3.6538,5.153,5.7051,7.0209,8.4142,8.4553,1.9704,-14.603,-10.909,-9.4603,-9.6154,-8.3736,-10.385,1.3333,-9.1503,-7.8205
-5.7233,-5.0159,-4.5307,2.589,12.358,2.3718,4.5089,1.2179,10.886,2.589,12.358,0.65681,-14.603,-8.3573,-13.27,-8.9744,-8.3736,-4.6154,1.3333,-15.686,-6.5385
-10.126,-6.9206,-5.8252,1.9417,1.3008,-0.19231,1.9324,3.141,15.395,1.9417,1.3008,-1.3136,-13.333,-6.4434,-15.175,-8.9744,-8.3736,-10.385,0.69841,-18.954,-7.8205
-8.239,-8.8254,-6.4725,-5.8252,-2.6016,-1.4744,-5.7971,8.2692,7.6651,-5.8252,-2.6016,-4.5977,-10.159,-3.8915,-13.27,-7.6923,-7.0853,-7.8205,-7.5556,-17.646999,-7.1795
-5.0943,0.06349,-5.8252,-3.8835,-1.9512,-0.19231,-5.7971,1.859,-1.9968,-3.8835,-1.9512,-5.9113,-3.1746,2.488,-7.5556,0.64103,-1.9324,-0.76923,-20.254,-12.418,0.51282
-10.755,-6.2857,-12.298,-11.003,-13.659,-7.2436,-8.3736,-0.70513,-12.303,-11.003,-13.659,-10.509,-3.1746,-0.0638,-8.8254,-3.2051,-5.153,2.4359,-4.381,-11.111,-3.3333
-13.899,-12.635,-15.534,-5.178,-13.008,-11.731,-17.391001,1.859,-11.014,-5.178,-13.008,-14.45,-3.8095,-3.2536,-9.4603,-7.0513,-7.7295,5.641,8.3175,-9.1503,-6.5385
-10.755,-8.1905,-11.65,3.2362,-3.252,-11.09,-16.103001,0.57692,-0.70853,3.2362,-3.252,-12.479,-1.2698,-2.6156,-5.6508,-3.2051,-5.7971,-2.6923,0.69841,-3.268,-2.6923
-3.2075,-2.4762,-5.8252,6.4725,0.65041,-5.9615,-12.882,5.7051,5.0886,6.4725,0.65041,-7.8818,1.9048,-1.9777,-0.57143,0.0,-2.5765,7.5641,-1.2063,3.9216,-0.12821
4.9686,1.3333,-0.64725,5.178,3.9024,-2.1154,-3.2206,12.756,4.4444,5.178,3.9024,-3.9409,4.4444,-0.70175,5.1429,2.5641,0.0,15.897,3.2381,13.072,0.51282
7.4843,0.06349,-0.64725,-12.945,-2.6016,-0.83333,1.2882,8.2692,-3.9291,-12.945,-2.6016,-4.5977,0.0,-5.1675,4.5079,-0.64103,-3.2206,4.359,1.3333,13.072,-2.6923
3.0818,-1.8413,-3.2362,-10.356,-2.6016,-0.83333,1.2882,8.9103,-13.591,-10.356,-2.6016,-4.5977,-5.0794,-8.3573,-0.57143,-3.8462,-7.7295,0.51282,0.69841,2.6144,-4.6154
-1.9497,1.9683,-3.2362,11.003,1.9512,-0.19231,3.2206,9.5513,-16.167,11.003,1.9512,0.0,-5.7143,-7.7193,-2.4762,-1.9231,-8.3736,12.051,-10.73,-2.6144,-0.76923
-1.3208,-1.8413,-1.9417,10.356,8.4553,11.346,6.4412,-5.1923,0.57971,10.356,8.4553,9.1954,-8.254,-14.737,-3.746,-8.9744,-10.306,4.359,1.9683,-1.3072,-5.2564
1.8239,-5.0159,2.589,13.592,13.008,15.833,5.153,5.0641,21.191999,13.592,13.008,14.45,-4.4444,-16.650999,-0.57143,-11.538,-7.0853,3.0769,18.476,0.65359,-11.667
3.7107,-0.57143,7.767,16.181,16.910999,11.987,7.7295,8.9103,21.191999,16.181,16.910999,14.45,0.0,-12.185,3.2381,-7.0513,0.0,3.7179,8.3175,1.3072,-10.385
5.5975,0.69841,9.0615,3.2362,-5.8537,10.705,10.306,9.5513,7.0209,3.2362,-5.8537,11.166,1.9048,-7.0813,5.1429,-4.4872,3.2206,-12.308,-3.1111,1.3072,-9.7436
4.3396,0.69841,5.178,0.0,-15.61,3.6538,8.3736,7.6282,-9.7262,0.0,-15.61,3.2841,5.0794,-0.0638,5.7778,-1.2821,5.7971,-0.76923,-12.635,3.9216,-5.2564
-0.06289,-7.5556,-3.2362,-2.589,2.6016,-5.3205,-9.0177,0.57692,-15.523,-2.589,2.6016,-9.8522,5.0794,-0.70175,3.2381,-4.4872,3.2206,4.359,-12.635,3.9216,-10.385
-5.0943,-16.444,-12.945,-7.767,5.8537,-12.372,-20.612,-5.8333,-9.7262,-7.767,5.8537,-17.733999,-1.2698,-5.1675,-3.1111,-9.6154,-3.2206,1.1538,-10.73,-1.9608,-13.59
-7.6101,-14.54,-15.534,0.64725,-6.5041,-12.372,-20.612,-1.9872,-8.438,0.64725,-6.5041,-16.42,-3.8095,-3.2536,-5.6508,-7.6923,-5.7971,9.4872,-24.063,-3.268,-7.8205
-10.755,-11.365,-16.181,-2.589,-9.1057,-10.449,-15.459,8.2692,-7.7939,-2.589,-9.1057,-14.45,-6.3492,-2.6156,-8.8254,-6.4103,-8.3736,10.769,-17.079,-3.268,-3.3333
-13.899,-10.73,-16.827999,-7.1197,-2.6016,-9.1667,-11.594,4.4231,1.868,-7.1197,-2.6016,-12.479,-12.063,-3.8915,-14.54,-8.3333,-14.171,1.1538,-1.2063,-6.5359,-3.9744
-14.528,-10.095,-14.887,1.9417,2.6016,-8.5256,-10.95,3.7821,3.8003,1.9417,2.6016,-10.509,-13.333,-4.5295,-15.175,-8.3333,-15.459,-3.3333,7.6825,-9.8039,-4.6154
-6.9811,-2.4762,-7.1197,-0.64725,-5.2033,-3.3974,-3.8647,5.7051,1.868,-0.64725,-5.2033,-3.9409,-11.429,-0.70175,-10.095,-0.64103,-9.6618,1.7949,1.3333,-6.5359,2.4359
-4.4654,0.69841,-5.8252,-3.8835,-11.707,-4.0385,-2.5765,1.859,-12.303,-3.8835,-11.707,-6.5681,-10.794,-0.70175,-6.9206,3.2051,-5.7971,3.0769,0.69841,-4.5752,3.0769
-3.8365,3.2381,-5.8252,-14.239,-15.61,-11.09,-3.2206,1.859,-14.235,-14.239,-15.61,-10.509,-7.619,0.57416,-3.746,7.0513,-1.2882,4.359,3.873,-3.268,5.641
-0.69182,7.0476,-3.2362,-9.0615,-5.8537,-9.8077,-7.0853,5.7051,-7.1498,-9.0615,-5.8537,-12.479,-0.63492,5.0399,1.3333,12.179,5.153,12.051,3.2381,-1.9608,8.2051
3.7107,7.6825,1.2945,-1.2945,-5.2033,-0.19231,-0.64412,3.141,-5.2174,-1.2945,-5.2033,-6.5681,3.1746,5.0399,5.1429,12.179,9.0177,15.897,2.6032,0.65359,6.2821
-5.0943,-2.4762,-5.8252,-5.178,-13.659,-3.3974,-4.5089,4.4231,-3.9291,-5.178,-13.659,-7.8818,-0.63492,-5.1675,-1.8413,0.0,0.64412,5.641,-1.2063,-1.9608,-3.9744
-5.0943,-6.9206,-9.0615,-6.4725,-6.5041,-2.7564,-12.238,8.9103,-1.9968,-6.4725,-6.5041,-7.225,0.0,-8.9952,-2.4762,-7.0513,-3.8647,-11.667,-10.73,0.65359,-6.5385
-5.7233,-10.095,-9.0615,-1.2945,-1.9512,-2.1154,-10.306,4.4231,3.1562,-1.2945,-1.9512,-3.9409,0.63492,-10.909,-2.4762,-12.179,-5.7971,0.51282,-2.4762,3.9216,-12.308
-5.7233,-10.095,-7.1197,1.2945,3.9024,-0.83333,-5.153,0.57692,-0.70853,1.2945,3.9024,0.65681,-1.2698,-10.909,-4.381,-13.462,-7.7295,6.2821,3.873,1.9608,-11.026
-5.7233,-6.9206,-2.589,7.1197,2.6016,0.44872,1.2882,6.9872,-12.303,7.1197,2.6016,4.5977,-1.2698,-8.9952,-5.0159,-11.538,-7.7295,-3.9744,-3.746,1.9608,-8.4615
-2.5786,-2.4762,3.2362,14.887,3.9024,7.5,5.7971,10.192,-10.37,14.887,3.9024,10.509,0.63492,-1.9777,-3.746,-5.1282,-3.2206,-0.12821,-6.2857,1.3072,-6.5385
3.7107,1.9683,8.4142,19.417,2.6016,12.628,8.3736,10.192,-5.2174,19.417,2.6016,14.45,7.619,6.3158,2.6032,2.5641,4.5089,8.2051,-11.365,3.9216,-0.76923
7.4843,2.6032,7.1197,16.827999,4.5528,11.987,2.5765,10.192,-5.8615,16.827999,4.5528,11.166,10.159,10.144,5.1429,6.4103,8.3736,3.0769,-13.905,3.9216,1.7949
4.3396,1.9683,2.589,3.8835,5.2033,6.2179,-4.5089,12.115,-2.6409,3.8835,5.2033,3.9409,8.8889,10.144,4.5079,7.0513,7.7295,-2.6923,-13.905,2.6144,3.0769
3.0818,0.06349,0.0,-2.589,0.65041,3.6538,-1.9324,6.3462,-6.5056,-2.589,0.65041,1.3136,9.5238,9.5056,4.5079,5.1282,6.4412,1.1538,-10.095,3.268,2.4359
1.195,1.9683,-1.2945,5.178,-7.1545,3.6538,3.8647,8.2692,-12.303,5.178,-7.1545,2.6273,5.7143,5.6778,1.3333,3.8462,3.8647,3.0769,-5.0159,1.3072,5.641
-5.0943,-3.746,-5.8252,1.2945,1.9512,-1.4744,0.0,6.9872,-9.0821,1.2945,1.9512,-3.9409,-4.4444,-2.6156,-6.9206,-2.5641,-3.8647,-7.1795,7.6825,-5.8824,-0.12821
-1.9497,-3.746,-3.2362,3.8835,8.4553,-2.1154,-1.2882,3.7821,5.0886,3.8835,8.4553,-4.5977,-6.9841,-6.4434,-5.6508,-3.2051,-3.8647,12.692,7.0476,-4.5752,-3.9744
4.9686,3.2381,2.589,5.178,2.6016,3.6538,1.2882,8.2692,7.6651,5.178,2.6016,0.0,-5.7143,-8.9952,-0.57143,1.2821,-1.2882,14.615,5.1429,0.65359,-3.3333
5.5975,1.9683,2.589,0.0,2.6016,4.2949,5.153,2.5,-1.3527,0.0,2.6016,0.65681,-7.619,-12.823,-1.8413,-2.5641,-5.153,3.0769,-1.8413,2.6144,-6.5385
3.7107,0.69841,1.2945,9.0615,-0.65041,4.2949,-1.9324,8.2692,-1.3527,9.0615,-0.65041,0.0,-7.619,-12.185,-3.1111,-3.2051,-7.0853,3.0769,-7.5556,3.268,-6.5385
-0.69182,0.06349,-0.64725,7.767,3.252,1.7308,-4.5089,11.474,-0.06441,7.767,3.252,0.0,-6.9841,-10.909,-5.0159,-3.8462,-8.3736,18.462,-3.1111,5.2288,-3.9744
-11.384,-8.1905,-9.7087,-6.4725,0.65041,-9.1667,-10.95,-0.0641,-5.2174,-6.4725,0.65041,-9.8522,-9.5238,-11.547,-11.365,-9.6154,-14.171,5.0,-5.0159,-0.65359,-7.8205
-7.6101,-12.0,-9.7087,-5.8252,-7.1545,-7.2436,-11.594,1.859,-5.2174,-5.8252,-7.1545,-8.5386,-4.4444,-7.0813,-8.1905,-10.897,-11.594,-0.12821,-10.73,1.3072,-7.1795
1.195,-8.1905,-3.8835,6.4725,-8.4553,0.44872,-9.6618,3.141,-9.7262,6.4725,-8.4553,-3.2841,1.9048,1.8501,-1.2063,-5.7692,-3.8647,3.7179,-17.079,2.6144,-1.4103
3.7107,-10.095,-3.2362,0.0,-5.8537,0.44872,-7.0853,-0.0641,-20.676001,0.0,-5.8537,-3.9409,1.2698,-1.3397,-1.2063,-8.3333,-3.2206,6.2821,-9.4603,2.6144,-7.1795
-1.3208,-9.4603,-3.2362,-4.5307,-6.5041,1.7308,-5.153,0.57692,-30.337999,-4.5307,-6.5041,-3.2841,1.9048,-3.8915,-2.4762,-8.3333,-2.5765,-2.6923,-6.9206,1.3072,-9.7436
-6.9811,-1.2063,-0.64725,-2.589,-5.2033,0.44872,-2.5765,3.141,-23.253,-2.589,-5.2033,-1.9704,3.1746,1.2121,-2.4762,-0.64103,1.2882,-9.7436,-9.4603,0.0,-1.4103
-7.6101,0.06349,1.2945,-8.4142,-7.8049,1.0897,-6.4412,-3.9103,-12.947,-8.4142,-7.8049,-0.65681,3.1746,2.488,-3.1111,1.9231,3.8647,-17.436001,-8.1905,-3.268,-1.4103
-6.3522,4.5079,4.5307,7.767,-10.407,3.0128,-2.5765,-10.321,-6.5056,7.767,-10.407,2.6273,8.254,8.2297,1.3333,7.6923,9.0177,-5.2564,-7.5556,1.3072,0.51282
-3.2075,8.9524,8.4142,4.5307,-3.9024,0.44872,7.7295,-7.7564,-0.06441,4.5307,-3.9024,5.2545,9.5238,8.8676,4.5079,10.897,10.95,-1.4103,-3.1111,3.9216,4.359
4.9686,7.0476,11.65,-5.8252,-6.5041,0.44872,3.8647,-12.885,-1.9968,-5.8252,-6.5041,5.9113,8.8889,7.5917,8.9524,10.897,12.882,0.51282,-4.381,5.2288,5.0
10.629,10.857,15.534,-7.767,1.3008,3.0128,7.0853,-10.321,-17.455999,-7.767,1.3008,8.5386,12.063,11.419,12.762,14.103,15.459,-3.3333,-13.27,5.2288,10.128
18.176001,8.9524,14.887,0.0,12.358,6.859,7.0853,-2.6282,-12.303,0.0,12.358,9.8522,12.698,11.419,14.667,10.897,14.171,-14.231,-3.1111,7.1895,8.8462
8.7421,-1.2063,6.4725,9.7087,13.008,-0.83333,-1.9324,-9.0385,3.1562,9.7087,13.008,3.9409,5.0794,4.4019,6.4127,0.0,5.153,-12.308,9.5873,-0.65359,2.4359
6.8553,-1.2063,4.5307,8.4142,5.2033,2.3718,1.2882,-10.962,14.106,8.4142,5.2033,4.5977,3.1746,3.126,4.5079,-1.2821,2.5765,-7.8205,8.9524,-1.9608,3.0769
4.9686,1.9683,6.4725,9.0615,5.2033,8.141,11.594,-1.9872,9.5974,9.0615,5.2033,9.1954,3.1746,5.0399,3.873,1.2821,3.2206,-5.8974,3.2381,0.65359,6.2821
-2.5786,-0.57143,2.589,3.2362,2.6016,6.2179,9.6618,3.141,-4.5733,3.2362,2.6016,7.8818,0.0,4.4019,0.06349,-1.2821,0.0,-7.1795,1.3333,1.3072,4.359
-1.3208,-2.4762,0.64725,5.178,6.5041,9.4231,10.95,0.57692,-7.7939,5.178,6.5041,8.5386,0.0,3.126,-0.57143,-2.5641,-0.64412,-16.795,4.5079,-0.65359,1.1538
-3.2075,-3.1111,-1.2945,6.4725,-3.9024,3.0128,3.2206,1.859,-5.8615,6.4725,-3.9024,1.9704,0.0,1.8501,-1.2063,-1.9231,-0.64412,-2.0513,-0.57143,0.0,-1.4103
5.5975,1.3333,3.8835,5.8252,-3.9024,7.5,1.2882,5.0641,-7.7939,5.8252,-3.9024,5.2545,2.5397,3.764,3.873,2.5641,3.8647,-3.9744,-3.746,4.5752,-1.4103
14.403,7.0476,9.7087,5.8252,13.659,13.269,4.5089,7.6282,-5.8615,5.8252,13.659,7.8818,6.9841,6.3158,9.5873,8.3333,9.0177,3.7179,-11.365,10.458,1.7949
9.3711,5.1429,6.4725,1.2945,10.407,5.5769,0.0,6.3462,3.1562,1.2945,10.407,3.2841,7.619,5.0399,8.3175,8.3333,8.3736,14.615,-10.095,9.8039,0.51282
8.7421,5.7778,6.4725,9.0615,1.9512,4.9359,-2.5765,-5.1923,3.1562,9.0615,1.9512,3.2841,6.3492,3.764,7.6825,8.9744,8.3736,17.179001,-5.6508,9.1503,-1.4103
10.629,7.6825,9.0615,4.5307,2.6016,3.6538,-0.64412,2.5,-0.06441,4.5307,2.6016,4.5977,6.3492,4.4019,9.5873,10.897,10.306,17.179001,-12.0,9.8039,1.1538
8.7421,7.6825,8.4142,-1.9417,3.252,2.3718,0.64412,6.9872,0.57971,-1.9417,3.252,2.6273,3.8095,1.8501,8.3175,9.6154,8.3736,5.0,-9.4603,6.5359,1.7949
7.4843,10.857,9.0615,4.5307,6.5041,8.7821,7.7295,7.6282,-3.285,4.5307,6.5041,6.5681,3.8095,1.8501,7.0476,8.9744,7.0853,0.51282,-6.2857,5.2288,3.7179
4.3396,6.4127,6.4725,14.239,10.407,11.987,10.306,12.115,0.57971,14.239,10.407,11.823,1.2698,-0.0638,2.6032,3.8462,2.5765,4.359,-3.1111,0.65359,3.0769
3.0818,3.873,5.8252,12.945,14.959,11.346,10.306,7.6282,-2.6409,12.945,14.959,12.479,0.63492,-0.70175,1.3333,1.9231,1.2882,-0.76923,-1.8413,-0.65359,1.1538
5.5975,3.873,7.767,17.476,8.4553,11.987,7.7295,3.7821,-0.70853,17.476,8.4553,11.823,1.9048,3.764,3.2381,3.8462,3.2206,-0.12821,0.06349,3.268,3.0769
10.629,7.0476,11.003,4.5307,-1.3008,10.064,7.0853,-4.5513,-3.285,4.5307,-1.3008,10.509,5.0794,8.8676,7.6825,7.6923,6.4412,10.128,-11.365,7.8431,6.9231
8.7421,5.1429,9.7087,5.178,0.0,4.2949,8.3736,-6.4744,-7.7939,5.178,0.0,7.225,4.4444,4.4019,8.3175,5.1282,6.4412,8.8462,-6.9206,9.8039,3.7179
5.5975,3.873,8.4142,9.0615,4.5528,3.0128,2.5765,1.859,1.868,9.0615,4.5528,4.5977,7.619,5.0399,8.9524,4.4872,8.3736,-5.2564,-2.4762,5.8824,3.7179
2.4528,0.69841,5.178,-0.64725,5.2033,-0.83333,-3.2206,1.859,0.57971,-0.64725,5.2033,1.3136,7.619,6.9537,6.4127,3.2051,7.7295,-14.231,-0.57143,0.65359,4.359
-0.69182,-1.2063,2.589,-2.589,4.5528,-0.83333,-5.7971,0.57692,1.868,-2.589,4.5528,-0.65681,6.3492,6.9537,4.5079,1.2821,5.7971,-6.5385,2.6032,1.9608,2.4359
-0.06289,6.4127,5.178,-1.9417,5.2033,1.7308,0.0,-3.9103,-4.5733,-1.9417,5.2033,3.2841,7.619,10.781,6.4127,7.0513,8.3736,3.0769,2.6032,4.5752,8.2051
-0.06289,4.5079,2.589,-7.767,-6.5041,-1.4744,1.2882,-9.0385,-12.947,-7.767,-6.5041,0.65681,8.8889,9.5056,7.0476,5.7692,6.4412,1.7949,3.873,7.1895,6.2821
-0.06289,0.06349,-1.9417,0.64725,1.3008,-2.1154,-1.9324,-3.2692,-1.9968,0.64725,1.3008,-2.6273,9.5238,7.5917,6.4127,2.5641,4.5089,-3.9744,3.873,9.8039,4.359
0.56604,0.06349,-2.589,7.767,-2.6016,-1.4744,-2.5765,-3.9103,-0.06441,7.767,-2.6016,-2.6273,8.254,5.6778,6.4127,1.9231,4.5089,0.51282,-6.9206,8.4967,2.4359
6.8553,3.2381,3.2362,5.8252,-3.9024,1.7308,3.8647,-5.8333,6.3768,5.8252,-3.9024,1.9704,7.619,6.9537,8.9524,5.1282,8.3736,-2.0513,-6.9206,9.8039,3.7179
6.2264,4.5079,6.4725,1.9417,9.1057,1.0897,9.6618,-4.5513,7.0209,1.9417,9.1057,4.5977,5.0794,7.5917,8.3175,5.1282,9.6618,-0.76923,3.873,7.1895,2.4359
4.9686,2.6032,5.178,2.589,13.659,1.7308,9.0177,-1.9872,2.5121,2.589,13.659,4.5977,0.63492,4.4019,5.1429,1.9231,6.4412,-6.5385,0.69841,1.9608,0.51282
3.0818,1.3333,3.2362,2.589,9.1057,4.9359,5.153,-0.0641,1.2238,2.589,9.1057,4.5977,1.2698,5.6778,3.873,1.2821,5.153,1.7949,-3.1111,-1.3072,3.7179
0.56604,-3.1111,0.64725,9.7087,-7.8049,1.7308,-1.2882,2.5,-4.5733,9.7087,-7.8049,1.9704,0.0,2.488,2.6032,-1.9231,3.2206,8.2051,3.873,-4.5752,-2.0513
4.9686,-3.1111,2.589,-2.589,-1.9512,1.7308,-5.7971,-4.5513,-5.8615,-2.589,-1.9512,1.3136,-0.63492,1.8501,3.873,-1.9231,3.8647,-2.6923,1.3333,-6.5359,-2.0513
9.3711,0.06349,6.4725,-3.2362,-1.9512,3.6538,-6.4412,1.859,3.8003,-3.2362,-1.9512,1.3136,2.5397,3.126,7.6825,1.9231,7.7295,-3.3333,5.7778,-5.8824,-2.0513
18.805,6.4127,13.592,6.4725,2.6016,13.269,0.0,4.4231,10.886,6.4725,2.6016,7.225,8.254,7.5917,14.032,8.3333,13.527,-9.7436,7.6825,-0.65359,2.4359
15.66,8.9524,11.65,5.178,3.252,10.705,0.64412,8.2692,10.886,5.178,3.252,4.5977,9.5238,6.3158,13.397,9.6154,13.527,5.0,4.5079,1.9608,3.7179
7.4843,10.857,7.1197,10.356,-0.65041,1.0897,10.95,2.5,1.868,10.356,-0.65041,2.6273,6.9841,3.126,7.6825,8.3333,8.3736,12.051,2.6032,-0.65359,3.7179
1.8239,8.3175,2.589,3.8835,7.1545,-4.0385,5.7971,-10.962,8.3092,3.8835,7.1545,-2.6273,1.2698,-0.0638,1.9683,4.4872,2.5765,-16.795,12.762,-5.2288,-0.76923
-0.69182,7.0476,0.0,-5.178,6.5041,-5.9615,1.2882,-5.1923,11.53,-5.178,6.5041,-5.2545,-1.2698,-2.6156,-0.57143,3.2051,-1.2882,-5.2564,13.397,-1.9608,1.1538
1.195,5.7778,0.0,-3.2362,-1.3008,-4.0385,5.7971,5.7051,8.9533,-3.2362,-1.3008,-1.3136,2.5397,-0.0638,1.3333,3.2051,-1.9324,8.2051,8.9524,1.9608,5.641
-1.3208,4.5079,-2.589,-5.8252,1.9512,-4.0385,3.2206,1.2179,-0.06441,-5.8252,1.9512,-1.3136,1.9048,1.2121,-0.57143,2.5641,-2.5765,3.0769,13.397,0.0,6.9231
-8.239,1.3333,-7.1197,-2.589,-1.3008,-9.1667,-4.5089,-5.8333,3.1562,-2.589,-1.3008,-5.9113,-2.5397,-1.9777,-6.2857,-1.2821,-7.0853,-13.59,13.397,-4.5752,6.9231
-9.4969,3.2381,-7.1197,3.2362,-1.3008,-9.1667,-1.9324,-9.6795,8.3092,3.2362,-1.3008,-5.9113,-4.4444,2.488,-8.8254,0.0,-7.7295,-32.179001,19.746,-9.1503,12.051
-10.755,1.9683,-7.1197,0.64725,-1.9512,-8.5256,-3.2206,-8.3974,7.0209,0.64725,-1.9512,-5.9113,-1.9048,6.3158,-6.9206,0.64103,-5.153,-15.513,19.111,-4.5752,13.974
-10.755,-0.57143,-7.767,1.2945,-4.5528,-8.5256,-5.7971,-9.0385,3.8003,1.2945,-4.5528,-6.5681,0.0,7.5917,-6.2857,0.0,-3.2206,-7.1795,5.7778,-3.9216,12.051
-15.786,-8.1905,-12.298,-7.1197,-10.407,-11.09,-6.4412,-10.962,-0.06441,-7.1197,-10.407,-9.1954,-4.4444,3.764,-11.365,-7.0513,-7.7295,-14.872,5.7778,-7.8431,3.7179
-13.27,-10.73,-10.356,-14.239,-5.8537,-9.1667,1.9324,-2.6282,-3.9291,-14.239,-5.8537,-5.2545,-3.1746,2.488,-10.73,-9.6154,-8.3736,-8.4615,7.6825,-5.2288,-0.12821
-12.642,-12.0,-11.003,-0.64725,0.65041,-5.9615,5.7971,-5.1923,-9.7262,-0.64725,0.65041,-1.3136,-7.619,-2.6156,-15.175,-12.821,-12.882,-7.8205,0.69841,-5.8824,-2.0513
-18.931,-17.079,-16.181,-1.9417,0.0,-7.8846,-8.3736,-5.8333,-4.5733,-1.9417,0.0,-6.5681,-12.698,-8.9952,-22.159,-18.59,-20.612,-9.7436,-2.4762,-8.4967,-9.1026
-19.559999,-17.714001,-19.417,-1.2945,7.1545,-9.8077,-15.459,-4.5513,1.868,-1.2945,7.1545,-9.8522,-15.238,-16.013,-24.698,-21.795,-25.121,-15.513,-3.1111,-10.458,-12.308
-17.673,-16.444,-20.712,-7.767,0.0,-10.449,-19.323999,-4.5513,1.2238,-7.767,0.0,-13.793,-15.873,-20.478001,-23.429001,-21.795,-27.052999,0.51282,-1.8413,-9.8039,-11.667
-13.27,-13.27,-18.122999,-10.356,-14.959,-9.8077,-12.238,-3.9103,-1.3527,-10.356,-14.959,-11.166,-15.873,-19.841,-20.254,-20.513,-25.121,-0.12821,-0.57143,-8.4967,-9.7436
-13.899,-8.8254,-14.239,5.8252,-11.707,-10.449,-3.2206,-4.5513,5.0886,5.8252,-11.707,-8.5386,-16.507999,-21.115999,-18.349001,-18.59,-23.833,3.0769,7.0476,-9.1503,-12.308
-10.755,-1.2063,-8.4142,0.64725,-2.6016,-9.8077,3.8647,-0.70513,7.0209,0.64725,-2.6016,-5.2545,-12.063,-18.565001,-13.905,-11.538,-16.747,2.4359,3.873,-10.458,-11.026
-8.239,3.873,-3.8835,-2.589,-2.6016,-8.5256,7.0853,-3.2692,2.5121,-2.589,-2.6016,-3.2841,-9.5238,-19.202999,-8.8254,-7.0513,-10.306,-1.4103,11.492,-10.458,-12.308
-5.0943,6.4127,-0.64725,-3.2362,1.3008,-4.0385,10.306,4.4231,-0.06441,-3.2362,1.3008,1.3136,-8.254,-14.737,-5.0159,-1.9231,-3.2206,8.8462,15.302,-11.765,-8.4615
0.56604,8.3175,2.589,-11.65,11.057,3.6538,6.4412,6.3462,6.3768,-11.65,11.057,3.2841,-3.1746,-6.4434,0.06349,4.4872,3.8647,-3.3333,14.667,-9.8039,-2.0513
0.56604,4.5079,1.2945,0.0,12.358,1.0897,0.64412,6.9872,16.683001,0.0,12.358,0.0,-1.9048,-3.8915,0.69841,3.8462,5.153,-5.2564,14.032,-4.5752,-2.6923
3.0818,1.9683,1.2945,1.9417,5.8537,2.3718,-2.5765,-1.3462,13.462,1.9417,5.8537,-0.65681,1.2698,0.57416,2.6032,4.4872,6.4412,10.128,3.2381,-3.268,-0.12821
1.195,1.9683,0.64725,-1.9417,-5.8537,1.0897,1.2882,-2.6282,-0.06441,-1.9417,-5.8537,-0.65681,2.5397,4.4019,1.9683,5.1282,4.5089,8.8462,3.873,-1.9608,4.359
-3.8365,0.06349,-3.2362,8.4142,-11.707,-2.1154,-2.5765,8.2692,-5.8615,8.4142,-11.707,-3.2841,-0.63492,4.4019,-3.1111,3.2051,-1.9324,5.0,-1.2063,-0.65359,7.5641
-6.9811,-1.8413,-7.767,7.1197,-5.2033,-4.6795,-9.0177,10.192,-5.2174,7.1197,-5.2033,-8.5386,-4.4444,2.488,-8.1905,0.0,-9.0177,4.359,-10.095,-1.9608,8.8462
-7.6101,-9.4603,-10.356,1.9417,-6.5041,-5.9615,-9.6618,1.2179,-9.7262,1.9417,-6.5041,-8.5386,-9.5238,-3.2536,-12.0,-8.9744,-16.103001,-7.8205,0.69841,-3.268,-0.76923
-7.6101,-10.095,-11.003,-2.589,-9.7561,-8.5256,-3.8647,-0.0641,-11.659,-2.589,-9.7561,-6.5681,-10.159,-4.5295,-12.635,-11.538,-18.035,-12.308,0.69841,-3.9216,-2.6923
-10.755,-6.9206,-11.65,-6.4725,-3.9024,-9.1667,0.64412,1.2179,-7.7939,-6.4725,-3.9024,-5.9113,-10.159,-5.8054,-13.27,-11.538,-17.391001,-16.153999,1.3333,-5.2288,-3.3333
-10.126,-9.4603,-12.945,-5.178,1.9512,-5.9615,-7.0853,3.141,5.0886,-5.178,1.9512,-7.225,-8.8889,-7.7193,-12.0,-12.821,-16.103001,-5.2564,3.873,-3.268,-5.8974
-8.239,-7.5556,-10.356,-0.64725,1.9512,-2.1154,-1.9324,1.859,6.3768,-0.64725,1.9512,-3.9409,-8.8889,-9.6332,-10.73,-10.897,-14.171,6.2821,3.2381,-3.9216,-4.6154
-8.239,-8.1905,-10.356,1.2945,-9.1057,-3.3974,1.2882,1.2179,3.8003,1.2945,-9.1057,-3.9409,-10.794,-14.737,-11.365,-12.821,-14.815,7.5641,3.873,-5.2288,-7.1795
-10.126,-6.2857,-9.0615,-6.4725,-1.9512,-7.8846,-1.2882,1.859,-4.5733,-6.4725,-1.9512,-5.2545,-8.8889,-17.289,-10.095,-11.538,-12.238,5.0,1.9683,-3.268,-7.1795
-11.384,-4.381,-6.4725,-10.356,-3.9024,-5.9615,-2.5765,-2.6282,-2.6409,-10.356,-3.9024,-3.9409,-9.5238,-17.289,-8.8254,-8.9744,-9.0177,-11.026,5.7778,-5.8824,-6.5385
-8.8679,-2.4762,-5.8252,5.178,-9.7561,-4.6795,0.64412,3.141,-6.5056,5.178,-9.7561,-2.6273,-13.333,-18.565001,-9.4603,-8.3333,-8.3736,-6.5385,3.873,-9.8039,-3.3333
-9.4969,-7.5556,-10.356,14.887,1.3008,-7.8846,-9.6618,9.5513,-11.659,14.887,1.3008,-9.8522,-16.507999,-19.841,-12.635,-12.179,-12.238,3.0769,3.2381,-12.418,-5.8974
-5.0943,-11.365,-11.003,7.767,0.65041,-6.6026,-12.238,2.5,-0.06441,7.767,0.65041,-10.509,-12.698,-14.737,-11.365,-12.821,-12.238,5.0,10.857,-11.111,-7.8205
-0.69182,-9.4603,-7.767,-5.178,-1.3008,-2.1154,-11.594,-5.8333,8.9533,-5.178,-1.3008,-7.225,-6.3492,-7.7193,-8.1905,-9.6154,-10.306,-2.6923,5.7778,-8.4967,-3.9744
-1.9497,-3.1111,-3.8835,1.2945,3.9024,0.44872,-3.8647,-0.70513,8.9533,1.2945,3.9024,-1.3136,-1.2698,-1.3397,-5.6508,-3.8462,-7.0853,-5.8974,1.9683,-4.5752,1.1538
-0.06289,3.2381,1.2945,8.4142,0.65041,1.7308,5.153,3.141,7.0209,8.4142,0.65041,1.9704,4.4444,5.6778,0.69841,3.2051,-0.64412,-0.12821,5.1429,3.9216,6.9231
-4.4654,3.2381,-0.64725,-2.589,-4.5528,-4.0385,2.5765,-3.9103,-5.2174,-2.589,-4.5528,-1.9704,1.9048,8.2297,0.06349,4.4872,0.0,-8.4615,5.1429,1.3072,8.8462
-3.2075,5.7778,-1.9417,-11.003,-10.407,-5.3205,1.2882,-3.9103,-17.455999,-11.003,-10.407,-4.5977,0.0,8.2297,1.3333,8.9744,1.9324,-3.3333,-1.8413,-1.9608,10.128
-3.8365,8.3175,-1.2945,-10.356,-16.26,-8.5256,-7.7295,-5.1923,-14.235,-10.356,-16.26,-8.5386,1.2698,10.144,2.6032,13.462,4.5089,5.0,-20.889,-3.268,13.333
1.8239,10.857,5.178,-6.4725,-9.1057,-4.6795,-5.7971,-8.3974,-13.591,-6.4725,-9.1057,-4.5977,5.0794,14.609,6.4127,18.59,11.594,4.359,-6.9206,3.268,15.256
4.9686,8.3175,8.4142,-7.1197,0.0,1.0897,-4.5089,4.4231,-12.303,-7.1197,0.0,-1.3136,7.619,11.419,10.222,16.667,14.815,-2.0513,6.4127,7.1895,8.8462
3.0818,3.2381,5.8252,-2.589,0.65041,0.44872,-5.153,7.6282,0.57971,-2.589,0.65041,-0.65681,5.0794,5.6778,8.9524,10.256,12.238,2.4359,0.69841,7.1895,3.0769
3.7107,-0.57143,1.9417,5.178,-5.8537,0.44872,-4.5089,6.9872,-1.3527,5.178,-5.8537,-0.65681,1.9048,0.57416,7.0476,3.8462,7.7295,-7.1795,-0.57143,7.1895,-0.76923
1.195,-4.381,0.0,11.65,1.3008,1.7308,-0.64412,2.5,-3.9291,11.65,1.3008,0.0,0.0,-2.6156,3.2381,-1.2821,3.2206,-9.1026,-3.746,3.9216,-1.4103
-2.5786,-3.746,-0.64725,8.4142,1.9512,1.0897,0.64412,1.2179,-11.659,8.4142,1.9512,0.65681,-0.63492,-5.1675,0.06349,-3.2051,0.0,10.769,-1.8413,1.3072,-3.3333
-1.3208,-0.57143,1.9417,-4.5307,-4.5528,4.9359,3.2206,8.9103,-16.167,-4.5307,-4.5528,5.2545,-1.2698,-5.8054,-2.4762,-4.4872,-2.5765,15.256,-3.746,1.9608,-5.2564
-0.69182,0.69841,1.9417,-3.8835,-1.3008,8.7821,0.64412,8.9103,-6.5056,-3.8835,-1.3008,5.2545,-1.9048,-5.8054,-5.0159,-3.8462,-5.153,11.41,-13.27,0.0,-4.6154
1.8239,3.2381,0.64725,5.178,2.6016,8.7821,1.9324,7.6282,-7.7939,5.178,2.6016,4.5977,-4.4444,-5.1675,-5.6508,-1.2821,-5.7971,9.4872,-13.27,-1.9608,-0.76923
2.4528,1.3333,-0.64725,14.239,9.1057,6.2179,0.64412,12.756,-6.5056,14.239,9.1057,3.9409,-8.8889,-8.3573,-6.9206,-3.8462,-7.7295,-5.2564,0.06349,-3.9216,-5.8974
7.4843,-0.57143,1.2945,9.7087,7.8049,7.5,-0.64412,10.833,0.57971,9.7087,7.8049,5.9113,-10.159,-7.7193,-3.1111,-3.8462,-5.153,-2.6923,6.4127,-5.8824,-7.1795
15.031,3.2381,8.4142,11.003,0.0,11.987,1.9324,12.756,1.2238,11.003,0.0,10.509,-0.63492,3.126,7.6825,3.8462,4.5089,13.974,-0.57143,0.0,-0.12821
12.516,1.9683,8.4142,6.4725,-4.5528,6.859,3.8647,12.115,-6.5056,6.4725,-4.5528,7.225,5.7143,8.8676,13.397,7.0513,9.6618,16.538,-6.9206,3.9216,1.1538
8.7421,0.06349,5.178,-7.1197,-2.6016,4.9359,-2.5765,5.0641,-15.523,-7.1197,-2.6016,1.9704,7.619,8.8676,13.397,7.6923,10.95,15.256,-17.079,4.5752,0.51282
1.8239,-3.746,1.2945,-9.0615,1.3008,-0.19231,-10.306,-0.0641,-20.032,-9.0615,1.3008,-3.2841,10.794,8.8676,12.127,5.1282,10.95,21.667,-20.254,6.5359,-3.3333
-0.69182,-5.6508,0.0,-1.2945,-7.1545,-5.3205,-6.4412,-0.0641,-28.406,-1.2945,-7.1545,-3.9409,13.333,8.8676,10.857,2.5641,10.306,8.2051,-29.143,7.8431,-3.9744
3.0818,-3.1111,1.2945,-1.9417,-11.057,-3.3974,-8.3736,-2.6282,-27.118,-1.9417,-11.057,-3.2841,12.698,10.144,10.857,3.2051,10.306,7.5641,-37.396999,13.072,-1.4103
4.3396,-4.381,1.9417,-5.178,-6.5041,-4.0385,-10.95,1.2179,-12.303,-5.178,-6.5041,-4.5977,13.968,10.781,11.492,1.9231,10.95,11.41,-18.349001,13.072,-1.4103
7.4843,-5.0159,3.2362,3.2362,-3.9024,0.44872,-9.0177,5.7051,-16.812,3.2362,-3.9024,-4.5977,13.333,8.2297,12.127,0.64103,10.306,5.0,-12.0,10.458,-7.1795
6.2264,-5.0159,4.5307,9.7087,-4.5528,1.7308,-2.5765,5.7051,-20.676001,9.7087,-4.5528,-0.65681,8.254,2.488,8.3175,-1.2821,7.7295,6.9231,-17.714001,7.8431,-8.4615
8.1132,-3.1111,7.767,8.4142,-0.65041,6.859,-1.2882,3.141,-11.659,8.4142,-0.65041,5.2545,7.619,-0.0638,7.6825,-1.2821,7.0853,5.641,-10.095,9.8039,-7.1795
8.7421,0.06349,9.0615,-3.8835,0.0,8.7821,-0.64412,5.0641,-4.5733,-3.8835,0.0,7.8818,7.619,0.57416,7.6825,1.9231,7.0853,-4.6154,-3.746,8.4967,-5.2564
8.1132,8.3175,11.003,3.8835,-0.65041,11.346,3.2206,3.7821,3.1562,3.8835,-0.65041,7.8818,6.3492,5.6778,8.3175,9.6154,10.306,-0.76923,-0.57143,8.4967,4.359
7.4843,12.762,11.65,1.2945,5.2033,9.4231,7.0853,3.7821,-0.70853,1.2945,5.2033,7.8818,5.0794,8.2297,7.6825,14.744,11.594,12.051,3.873,5.8824,12.051
5.5975,14.667,11.65,-4.5307,2.6016,5.5769,10.95,8.9103,-11.014,-4.5307,2.6016,7.8818,3.1746,8.2297,6.4127,16.667,10.95,13.333,0.69841,1.9608,13.974
8.7421,8.9524,11.003,-3.8835,1.9512,8.141,7.0853,4.4231,5.0886,-3.8835,1.9512,7.8818,2.5397,8.2297,6.4127,10.897,8.3736,10.769,12.762,0.0,8.8462
6.2264,0.06349,5.178,2.589,4.5528,3.6538,-1.2882,-0.70513,8.3092,2.589,4.5528,3.2841,0.0,3.764,2.6032,2.5641,1.2882,-4.6154,9.5873,-0.65359,3.0769
3.7107,-4.381,0.0,9.7087,-0.65041,1.0897,1.2882,3.141,-10.37,9.7087,-0.65041,1.3136,0.63492,3.126,0.69841,-1.9231,-1.9324,-4.6154,5.7778,-0.65359,2.4359
3.7107,-4.381,-1.2945,9.0615,1.9512,1.0897,-0.64412,7.6282,-1.9968,9.0615,1.9512,0.65681,5.0794,5.0399,3.2381,-2.5641,-1.2882,12.692,2.6032,5.8824,3.7179
3.0818,-7.5556,-2.589,8.4142,0.65041,3.0128,-2.5765,3.141,3.1562,8.4142,0.65041,0.0,4.4444,1.2121,1.9683,-7.0513,-3.2206,9.4872,-4.381,5.8824,-2.0513
5.5975,-6.2857,0.0,11.65,5.2033,9.4231,0.64412,6.3462,3.8003,11.65,5.2033,5.2545,4.4444,-0.70175,2.6032,-7.6923,-1.9324,4.359,-5.0159,5.8824,-5.2564
4.3396,-0.57143,4.5307,5.178,9.1057,8.7821,4.5089,11.474,0.57971,5.178,9.1057,7.225,5.0794,-0.70175,4.5079,-3.2051,1.2882,4.359,-10.095,9.1503,-5.8974
5.5975,1.3333,6.4725,-9.7087,0.65041,5.5769,3.2206,7.6282,-9.7262,-9.7087,0.65041,5.9113,3.1746,-0.70175,5.1429,-0.64103,3.8647,10.769,-13.27,7.1895,-5.8974
10.629,3.873,8.4142,-2.589,-5.2033,6.859,0.0,12.756,-5.2174,-2.589,-5.2033,5.2545,8.8889,4.4019,11.492,3.8462,9.6618,10.769,-12.635,9.8039,-4.6154
13.145,5.7778,10.356,14.887,-6.5041,9.4231,5.7971,16.603001,-3.285,14.887,-6.5041,6.5681,12.063,6.9537,14.032,6.4103,12.882,1.7949,-5.6508,11.765,-2.6923
11.258,4.5079,9.7087,10.356,-1.3008,8.141,-0.64412,5.7051,-3.285,10.356,-1.3008,4.5977,12.063,6.9537,12.762,7.0513,12.238,4.359,-1.2063,10.458,-2.6923
11.258,7.0476,11.65,6.4725,7.1545,6.859,-1.9324,0.57692,-5.8615,6.4725,7.1545,5.2545,13.333,8.2297,14.032,10.256,14.815,13.974,-6.2857,12.418,1.1538
9.3711,6.4127,9.7087,2.589,-1.3008,6.2179,-3.8647,-1.3462,-3.285,2.589,-1.3008,3.9409,9.5238,7.5917,11.492,10.256,13.527,10.128,-6.9206,9.8039,5.641
4.3396,2.6032,5.8252,1.2945,-1.9512,3.0128,-1.9324,1.2179,-4.5733,1.2945,-1.9512,2.6273,4.4444,5.6778,6.4127,7.6923,9.6618,1.1538,-6.2857,5.2288,4.359
-2.5786,-2.4762,0.0,-0.64725,0.0,-2.7564,-4.5089,-0.0641,-7.7939,-0.64725,0.0,-3.2841,0.63492,4.4019,0.69841,3.8462,3.8647,-9.1026,-5.6508,1.3072,3.0769
-0.69182,0.06349,0.0,-11.65,0.0,-1.4744,1.9324,-1.9872,-12.303,-11.65,0.0,-2.6273,0.63492,6.9537,0.06349,5.7692,3.2206,-4.6154,2.6032,2.6144,8.2051
-1.9497,1.3333,0.64725,-1.2945,-2.6016,0.44872,5.153,-0.70513,-2.6409,-1.2945,-2.6016,0.65681,2.5397,9.5056,0.69841,7.0513,3.8647,-5.8974,10.857,2.6144,8.8462
-0.69182,5.7778,3.8835,11.003,1.3008,3.0128,7.7295,8.2692,10.886,11.003,1.3008,6.5681,4.4444,12.695,3.2381,8.9744,6.4412,-17.436001,3.2381,1.9608,12.692
2.4528,5.1429,3.8835,7.767,4.5528,5.5769,5.7971,0.57692,8.9533,7.767,4.5528,7.8818,3.1746,7.5917,4.5079,3.8462,4.5089,2.4359,5.7778,3.9216,8.8462
4.9686,2.6032,3.8835,5.8252,11.707,8.141,4.5089,5.0641,8.3092,5.8252,11.707,7.8818,5.0794,2.488,5.7778,-0.64103,2.5765,18.462,12.127,6.5359,1.7949
5.5975,0.69841,3.2362,5.8252,5.8537,5.5769,1.9324,6.9872,-0.70853,5.8252,5.8537,6.5681,4.4444,1.2121,4.5079,-1.9231,0.64412,7.5641,1.9683,5.8824,1.7949
2.4528,0.69841,2.589,8.4142,2.6016,3.0128,1.9324,1.2179,-7.7939,8.4142,2.6016,5.2545,4.4444,1.2121,3.2381,-2.5641,0.0,3.7179,0.69841,3.9216,-0.12821
3.0818,2.6032,2.589,-0.64725,3.252,1.0897,4.5089,-0.70513,3.8003,-0.64725,3.252,4.5977,5.0794,-0.70175,2.6032,-1.9231,0.0,6.2821,-1.8413,3.268,-1.4103
4.3396,5.7778,3.2362,-10.356,1.3008,2.3718,7.7295,1.859,2.5121,-10.356,1.3008,3.2841,3.1746,-1.9777,1.9683,0.64103,0.0,-0.12821,-8.8254,2.6144,-1.4103
6.2264,4.5079,3.2362,-3.8835,2.6016,3.6538,7.7295,3.141,1.868,-3.8835,2.6016,3.2841,2.5397,-0.70175,2.6032,0.64103,0.64412,-13.59,-1.2063,3.9216,-2.6923
1.195,0.69841,0.0,6.4725,-3.252,-0.83333,-1.2882,-3.9103,1.868,6.4725,-3.252,-1.3136,3.1746,3.764,0.69841,0.64103,0.64412,-7.1795,2.6032,1.3072,-2.6923
1.195,0.69841,0.0,5.8252,-9.7561,2.3718,-5.153,-8.3974,-5.8615,5.8252,-9.7561,-1.3136,-0.63492,3.764,0.06349,3.2051,1.9324,7.5641,-1.8413,-3.268,-0.76923
3.0818,6.4127,3.8835,0.0,-11.707,0.44872,1.2882,-7.1154,-10.37,0.0,-11.707,0.65681,-2.5397,4.4019,1.9683,8.9744,5.7971,1.7949,-5.0159,-3.268,3.0769
2.4528,7.0476,4.5307,-3.8835,-2.6016,-2.7564,0.64412,-10.962,-1.9968,-3.8835,-2.6016,-0.65681,-0.63492,6.3158,3.2381,10.256,7.7295,-11.026,0.06349,-5.8824,4.359
0.56604,3.873,3.2362,-2.589,-0.65041,-2.7564,-5.153,-9.0385,-6.5056,-2.589,-0.65041,-1.9704,2.5397,7.5917,3.873,8.9744,9.0177,-11.667,2.6032,-6.5359,4.359
-3.2075,-0.57143,0.0,-9.0615,0.0,-5.3205,-5.7971,-16.731001,-7.7939,-9.0615,0.0,-3.2841,2.5397,5.6778,1.9683,5.1282,6.4412,-5.2564,-1.2063,-5.8824,3.0769
-3.8365,1.9683,1.2945,-13.592,-3.252,-4.6795,2.5765,-8.3974,0.57971,-13.592,-3.252,-0.65681,5.0794,5.0399,1.9683,5.1282,5.153,-3.9744,-3.746,-2.6144,4.359
3.7107,8.3175,9.0615,2.589,-0.65041,1.7308,10.95,3.7821,4.4444,2.589,-0.65041,7.225,7.619,6.3158,6.4127,9.6154,9.0177,-4.6154,-3.746,1.9608,7.5641
4.9686,7.6825,11.003,21.358999,16.910999,9.4231,9.0177,10.192,7.6651,21.358999,16.910999,11.166,3.8095,3.126,4.5079,7.0513,6.4412,-4.6154,-1.2063,0.0,5.0
6.8553,7.6825,12.298,19.417,13.008,15.192,12.238,11.474,5.0886,19.417,13.008,15.764,1.2698,-0.0638,2.6032,4.4872,3.2206,-5.8974,0.69841,-1.9608,0.51282
8.1132,8.9524,11.65,12.945,9.7561,12.628,12.238,-1.3462,10.242,12.945,9.7561,16.42,-1.9048,-3.8915,0.69841,1.9231,0.64412,-5.2564,-1.8413,-5.8824,-1.4103
4.9686,9.5873,11.003,14.887,13.659,11.346,13.527,-1.9872,13.462,14.887,13.659,15.107,-1.2698,-3.8915,0.06349,1.9231,0.0,0.51282,4.5079,-5.2288,-1.4103
5.5975,7.0476,9.7087,9.7087,6.5041,11.987,13.527,3.141,6.3768,9.7087,6.5041,13.136,2.5397,-2.6156,1.9683,1.2821,1.2882,8.2051,14.032,0.65359,-4.6154
6.8553,7.0476,7.767,1.2945,5.2033,10.064,7.7295,8.9103,-3.9291,1.2945,5.2033,9.1954,1.9048,-1.3397,3.873,3.2051,3.8647,7.5641,10.222,2.6144,-2.6923
3.7107,3.873,3.8835,0.0,6.5041,4.2949,1.2882,7.6282,2.5121,0.0,6.5041,3.2841,-3.1746,-1.9777,1.9683,2.5641,2.5765,-9.7436,5.7778,-0.65359,-0.76923
1.195,1.3333,-0.64725,-7.1197,-1.9512,-2.1154,-5.7971,1.2179,13.462,-7.1197,-1.9512,-3.2841,-5.0794,-2.6156,0.69841,1.2821,0.64412,-2.6923,2.6032,1.9608,0.51282
-1.3208,0.69841,-3.2362,-8.4142,-8.4553,-5.9615,-1.2882,-1.9872,7.0209,-8.4142,-8.4553,-5.2545,-3.8095,-1.9777,-1.2063,0.0,-1.9324,4.359,0.06349,1.3072,1.1538
-1.3208,1.9683,-1.9417,1.9417,-0.65041,-3.3974,-1.2882,-3.2692,6.3768,1.9417,-0.65041,-1.9704,-1.9048,0.57416,-0.57143,1.2821,-1.9324,-2.6923,-3.746,1.3072,1.7949
1.8239,2.6032,0.64725,6.4725,6.5041,1.0897,2.5765,-1.9872,0.57971,6.4725,6.5041,2.6273,1.2698,3.126,1.3333,2.5641,-1.2882,2.4359,3.2381,3.268,3.0769
4.3396,7.0476,3.8835,1.2945,2.6016,2.3718,5.153,-9.0385,5.0886,1.2945,2.6016,3.9409,5.7143,7.5917,5.7778,7.6923,3.2206,7.5641,-1.2063,8.4967,8.2051
-0.69182,0.06349,-2.589,-3.2362,-1.9512,-4.0385,-0.64412,-14.167,4.4444,-3.2362,-1.9512,-3.2841,3.8095,2.488,1.9683,1.9231,0.0,-0.76923,1.9683,6.5359,3.0769
-8.239,-8.8254,-9.7087,-12.298,-11.057,-11.731,-7.0853,-7.7564,-16.812,-12.298,-11.057,-9.8522,1.2698,-1.3397,-3.746,-6.4103,-5.7971,0.51282,4.5079,1.9608,-3.9744
-7.6101,-8.8254,-8.4142,-22.006001,-11.707,-7.8846,-5.153,-10.321,-11.659,-22.006001,-11.707,-8.5386,0.63492,-2.6156,-4.381,-6.4103,-6.4412,0.51282,-1.2063,0.65359,-4.6154
-6.9811,-11.365,-8.4142,-20.065001,-4.5528,-6.6026,-8.3736,-10.321,-1.3527,-20.065001,-4.5528,-9.8522,0.0,-5.8054,-4.381,-8.9744,-7.0853,-13.59,-5.6508,0.0,-7.1795
-5.0943,-12.0,-8.4142,-5.178,-5.2033,-6.6026,-7.0853,-5.8333,-5.2174,-5.178,-5.2033,-8.5386,-0.63492,-8.3573,-3.1111,-9.6154,-5.7971,-3.9744,-7.5556,-1.3072,-9.7436
-2.5786,-6.2857,-4.5307,9.0615,-3.9024,-5.3205,-4.5089,-1.3462,-8.438,9.0615,-3.9024,-4.5977,-1.2698,-6.4434,-0.57143,-5.1282,-2.5765,8.2051,-7.5556,-2.6144,-6.5385
-0.69182,0.69841,0.0,7.767,-1.3008,-3.3974,0.0,2.5,-7.7939,7.767,-1.3008,-0.65681,-1.9048,-5.1675,0.69841,-1.2821,-0.64412,7.5641,-11.365,-3.268,-5.8974
5.5975,3.873,3.2362,7.767,7.8049,8.141,1.9324,3.7821,5.0886,7.767,7.8049,4.5977,-2.5397,-5.1675,0.69841,-1.2821,-1.2882,8.2051,-11.365,-3.268,-5.8974
