C3,C4,Cz,F1,F2,F3,F4,F7,F8,Fp1,Fp2,Fz,O1,O2,P3,P4,Pz,T3,T4,T5,T6
12.196,7.746,13.657,0.0,2.9557,4.5733,7.767,-4.9191,9.644,0.0,2.9557,8.9552,16.190001,12.317,16.316999,9.6154,15.523,2.7697,6.7615,16.749001,7.5641
20.726999,11.556,23.365999,2.9412,5.9113,14.235,13.592,1.877,7.7023,2.9412,5.9113,17.91,19.048,13.27,22.983999,9.6154,20.354,8.5668,2.0221,18.719,3.7179
19.778999,8.6984,21.424,6.8627,7.8818,18.1,13.592,3.8188,5.7605,6.8627,7.8818,19.9,15.238,9.4603,22.032,4.8077,17.455999,10.499,-0.82148,16.749001,-1.0897
15.987,5.8413,15.599,10.784,9.8522,15.201,9.7087,7.7023,8.6731,10.784,9.8522,13.93,10.476,4.6984,17.27,0.96154,12.625,11.465,-0.82148,11.823,-6.859
5.5608,-3.6825,2.9773,6.8627,7.8818,9.4042,0.97087,-16.57,5.7605,6.8627,7.8818,3.9801,-0.95238,-5.7778,4.8889,-8.6538,1.9968,4.7021,-2.7172,1.9704,-13.59
-6.7615,-11.302,-6.7314,0.98039,1.9704,2.6409,-5.8252,-9.7735,0.90615,0.98039,1.9704,-2.9851,-11.429,-15.302,-8.4444,-16.346001,-9.5974,-2.0612,-6.5087,-9.8522,-18.396999
-12.449,-14.159,-9.644,-2.9412,-1.9704,-7.0209,-8.7379,1.877,-0.06472,-2.9412,-1.9704,-8.9552,-15.238,-17.205999,-13.206,-18.268999,-14.428,-2.0612,-6.5087,-13.793,-17.436001
-10.553,-14.159,-9.644,0.98039,0.0,-7.9871,-7.767,8.6731,1.877,0.98039,0.0,-8.9552,-14.286,-16.254,-12.254,-18.268999,-14.428,0.83736,-2.7172,-11.823,-15.513
-10.553,-15.111,-11.586,3.9216,0.98522,-6.0548,-7.767,9.644,2.8479,3.9216,0.98522,-8.9552,-14.286,-14.349,-11.302,-18.268999,-15.395,0.83736,-0.82148,-9.8522,-12.628
-14.344,-17.968,-15.469,-2.9412,-0.98522,-7.9871,-10.68,-9.7735,-0.06472,-2.9412,-0.98522,-11.94,-18.094999,-15.302,-16.063,-18.268999,-19.259001,-3.9936,-0.82148,-13.793,-10.705
-15.292,-20.825001,-17.410999,-8.8235,-3.9409,-13.784,-15.534,-4.9191,-2.9773,-8.8235,-3.9409,-14.925,-20.952,-17.205999,-18.921,-20.191999,-22.158001,-4.9597,-2.7172,-15.764,-11.667
-15.292,-18.921,-16.440001,-3.9216,-4.9261,-16.683001,-14.563,6.7314,-2.9773,-3.9216,-4.9261,-14.925,-19.048,-15.302,-18.921,-19.231001,-22.158001,-4.9597,-3.6651,-14.778,-9.7436
-10.553,-11.302,-9.644,-0.98039,-3.9409,-8.9533,-9.7087,-0.06472,-2.0065,-0.98039,-3.9409,-8.9552,-14.286,-10.54,-15.111,-13.462,-17.327,-3.0274,-1.7694,-9.8522,-5.8974
-11.501,-4.6349,-5.7605,-1.9608,-0.98522,-8.9533,-4.8544,-0.06472,-0.06472,-1.9608,-0.98522,-6.9652,-11.429,-8.6349,-14.159,-9.6154,-13.462,-2.0612,1.0742,-9.8522,-3.9744
-9.6051,2.0317,-1.877,-0.98039,1.9704,-4.1224,0.0,-2.0065,3.8188,-0.98039,1.9704,-2.9851,-7.619,-4.8254,-11.302,-4.8077,-8.6312,-3.9936,4.8657,-9.8522,-0.12821
2.7172,8.6984,6.8608,7.8431,10.837,9.4042,9.7087,-5.89,8.6731,7.8431,10.837,7.9602,-0.95238,1.8413,-2.7302,1.9231,0.06441,-0.12882,7.7093,-2.9557,2.7564
5.5608,10.603,9.7735,11.765,11.823,10.37,11.65,11.586,10.615,11.765,11.823,9.9502,3.8095,5.6508,0.12698,5.7692,3.9291,3.7359,7.7093,1.9704,3.7179
8.4044,12.508,11.715,13.725,13.793,10.37,13.592,17.410999,9.644,13.725,13.793,10.945,6.6667,8.5079,2.9841,9.6154,8.7601,6.6345,7.7093,3.9409,6.6026
12.196,13.46,11.715,15.686,15.764,13.269,15.534,20.323999,8.6731,15.686,15.764,13.93,7.619,8.5079,4.8889,9.6154,9.7262,10.499,5.8136,4.9261,5.641
17.882999,14.413,13.657,18.627001,16.749001,18.1,18.447001,22.264999,7.7023,18.627001,16.749001,18.905001,8.5714,8.5079,9.6508,9.6154,11.659,16.296,2.97,8.867,3.7179
17.882999,17.27,19.482,16.667,15.764,16.167,22.33,8.6731,6.7314,16.667,15.764,22.886,11.429,9.4603,14.413,12.5,16.49,20.160999,3.9179,11.823,1.7949
15.039,13.46,18.511,9.8039,5.9113,14.235,15.534,7.7023,-1.0356,9.8039,5.9113,17.91,9.5238,7.5556,14.413,10.577,16.49,19.195,0.12638,11.823,-1.0897
11.248,4.8889,11.715,4.902,-4.9261,9.4042,3.8835,15.469,-12.686,4.902,-4.9261,8.9552,3.8095,1.8413,9.6508,3.8462,10.692,18.229,-6.5087,6.8966,-4.9359
4.613,-4.6349,-0.90615,0.0,-10.837,3.6071,-6.7961,13.528,-17.540001,0.0,-10.837,-1.99,-3.8095,-4.8254,1.0794,-3.8462,0.06441,16.296,-8.4044,0.98522,-8.7821
-0.12638,-10.349,-10.615,-1.9608,-11.823,2.6409,-8.7379,9.644,-15.599,-1.9608,-11.823,-5.9701,-11.429,-11.492,-8.4444,-12.5,-11.53,13.398,-8.4044,-3.9409,-11.667
-4.8657,-14.159,-17.410999,-1.9608,-11.823,-3.1562,-9.7087,21.294001,-17.540001,-1.9608,-11.823,-6.9652,-16.190001,-16.254,-15.111,-19.231001,-20.225,14.364,-9.3523,-6.8966,-14.551
-7.7093,-17.968,-21.294001,-2.9412,-13.793,-5.0886,-10.68,16.440001,-21.424,-2.9412,-13.793,-7.9602,-18.094999,-19.111,-19.872999,-25.0,-26.023001,12.432,-13.144,-6.8966,-17.436001
-10.553,-18.921,-21.294001,-4.902,-16.749001,-0.25765,-12.621,4.7896,-21.424,-4.902,-16.749001,-6.9652,-21.905001,-21.016001,-22.73,-25.0,-27.955,6.6345,-13.144,-12.808,-17.436001
-12.449,-17.968,-16.440001,1.9608,-8.867,3.6071,-10.68,2.8479,-15.599,1.9608,-8.867,-2.9851,-20.952,-16.254,-22.73,-18.268999,-25.056,3.7359,-8.4044,-12.808,-10.705
-18.136,-18.921,-17.410999,1.9608,-7.8818,-4.1224,-16.504999,13.528,-10.744,1.9608,-7.8818,-8.9552,-20.0,-14.349,-24.635,-15.385,-24.09,0.83736,-5.5608,-14.778,-7.8205
-20.979,-17.968,-19.353001,-1.9608,-8.867,-10.886,-17.476,19.353001,-10.744,-1.9608,-8.867,-13.93,-20.952,-15.302,-25.587,-13.462,-23.124001,-3.0274,-4.613,-18.719,-4.9359
-14.344,-14.159,-17.410999,-3.9216,-9.8522,-7.9871,-14.563,5.7605,-9.7735,-3.9216,-9.8522,-11.94,-17.143,-13.397,-20.825001,-12.5,-21.191999,-4.9597,-2.7172,-14.778,-4.9359
-10.553,-9.3968,-14.498,-0.98039,-6.8966,-6.0548,-9.7087,5.7605,-6.8608,-0.98039,-6.8966,-8.9552,-14.286,-11.492,-17.016001,-10.577,-18.292999,-2.0612,-1.7694,-9.8522,-3.9744
-7.7093,-7.4921,-12.557,1.9608,-2.9557,-5.0886,-7.767,4.7896,-4.9191,1.9608,-2.9557,-7.9602,-11.429,-10.54,-13.206,-9.6154,-16.361,0.83736,-1.7694,-5.9113,-3.9744
-7.7093,-6.5397,-11.586,0.0,-4.9261,-4.1224,-8.7379,2.8479,-4.9191,0.0,-4.9261,-8.9552,-8.5714,-8.6349,-11.302,-6.7308,-12.496,1.8035,-1.7694,-2.9557,-3.0128
-6.7615,-2.7302,-6.7314,-2.9412,-8.867,-6.0548,-7.767,8.6731,-6.8608,-2.9412,-8.867,-8.9552,-2.8571,-4.8254,-6.5397,-0.96154,-5.7327,2.7697,-0.82148,0.0,-0.12821
2.7172,3.9365,2.0065,-2.9412,-6.8966,-3.1562,-2.9126,11.586,-7.8317,-2.9412,-6.8966,-3.9801,2.8571,0.88889,2.9841,5.7692,3.9291,11.465,-0.82148,6.8966,3.7179
12.196,6.7937,5.89,0.0,-4.9261,6.5056,0.0,2.8479,-6.8608,0.0,-4.9261,0.0,6.6667,3.746,11.556,7.6923,8.7601,16.296,-2.7172,11.823,2.7564
17.882999,6.7937,7.8317,4.902,-1.9704,6.5056,0.97087,17.410999,-5.89,4.902,-1.9704,1.99,9.5238,4.6984,17.27,7.6923,11.659,19.195,-4.613,15.764,0.83333
22.622,5.8413,9.7735,9.8039,0.0,12.303,3.8835,15.469,-6.8608,9.8039,0.0,5.9701,9.5238,3.746,21.079,7.6923,13.591,21.127001,-6.5087,15.764,-1.0897
16.934999,2.0317,5.89,5.8824,-5.9113,10.37,0.0,15.469,-11.715,5.8824,-5.9113,2.9851,4.7619,-1.0159,17.27,3.8462,10.692,15.33,-9.3523,8.867,-5.8974
19.778999,2.9841,7.8317,6.8627,-2.9557,14.235,0.97087,11.586,-10.744,6.8627,-2.9557,4.9751,5.7143,-0.06349,19.174999,4.8077,12.625,17.261999,-7.4566,7.8818,-5.8974
19.778999,3.9365,10.744,9.8039,0.0,16.167,1.9417,20.323999,-7.8317,9.8039,0.0,6.9652,5.7143,-1.0159,20.127001,5.7692,13.591,17.261999,-5.5608,8.867,-4.9359
16.934999,2.9841,10.744,10.784,2.9557,15.201,2.9126,15.469,-5.89,10.784,2.9557,8.9552,0.0,-5.7778,16.316999,0.96154,9.7262,13.398,-6.5087,5.9113,-7.8205
11.248,2.9841,8.8026,12.745,4.9261,12.303,4.8544,19.353001,-3.9482,12.745,4.9261,9.9502,-1.9048,-9.5873,12.508,-2.8846,4.8953,12.432,-6.5087,3.9409,-10.705
5.5608,1.0794,5.89,13.725,7.8818,9.4042,5.8252,22.264999,-2.9773,13.725,7.8818,9.9502,-4.7619,-12.444,6.7937,-6.7308,0.06441,8.5668,-6.5087,1.9704,-14.551
4.613,-2.7302,2.0065,8.8235,4.9261,8.438,3.8835,10.615,-2.0065,8.8235,4.9261,7.9602,-5.7143,-14.349,2.0317,-11.538,-4.7665,3.7359,-7.4566,1.9704,-16.474001
0.82148,-7.4921,-2.8479,5.8824,4.9261,10.37,2.9126,-1.0356,-1.0356,5.8824,4.9261,5.9701,-6.6667,-13.397,-2.7302,-13.462,-9.5974,1.8035,-8.4044,-0.98522,-14.551
-3.9179,-13.206,-7.7023,-0.98039,0.0,1.6747,-1.9417,1.877,-2.9773,-0.98039,0.0,0.99502,-3.8095,-7.6825,-6.5397,-13.462,-12.496,-1.095,-10.3,0.0,-10.705
0.82148,-10.349,-1.877,3.9216,2.9557,0.70853,0.0,6.7314,-2.0065,3.9216,2.9557,3.9801,4.7619,2.7937,-0.8254,-6.7308,-5.7327,-1.095,-10.3,5.9113,-3.9744
6.5087,-3.6825,4.9191,6.8627,5.9113,8.438,3.8835,-8.8026,-1.0356,6.8627,5.9113,7.9602,12.381,10.413,6.7937,2.8846,2.963,-0.12882,-8.4044,8.867,3.7179
8.4044,4.8889,8.8026,3.9216,4.9261,7.4718,5.8252,-0.06472,-1.0356,3.9216,4.9261,7.9602,16.190001,16.127001,10.603,11.538,10.692,-0.12882,-4.613,9.8522,9.4872
9.3523,10.603,8.8026,1.9608,1.9704,3.6071,5.8252,-1.0356,-0.06472,1.9608,1.9704,6.9652,16.190001,17.079,11.556,16.346001,14.557,-2.0612,-1.7694,9.8522,13.333
12.196,14.413,11.715,1.9608,0.0,6.5056,6.7961,-1.0356,-1.0356,1.9608,0.0,6.9652,14.286,16.127001,14.413,18.268999,18.422001,1.8035,1.0742,9.8522,14.295
8.4044,11.556,10.744,1.9608,0.0,1.6747,4.8544,7.7023,-2.9773,1.9608,0.0,4.9751,10.476,11.365,12.508,14.423,16.49,3.7359,-0.82148,7.8818,9.4872
5.5608,8.6984,9.7735,0.98039,-1.9704,3.6071,1.9417,-6.8608,-3.9482,0.98039,-1.9704,3.9801,8.5714,8.5079,10.603,11.538,15.523,1.8035,-1.7694,7.8818,5.641
3.6651,5.8413,7.8317,-3.9216,-5.9113,-0.25765,0.0,-3.9482,-5.89,-3.9216,-5.9113,0.99502,6.6667,6.6032,8.6984,9.6154,14.557,-0.12882,-2.7172,4.9261,2.7564
4.613,3.9365,7.8317,-1.9608,-7.8818,-4.1224,-0.97087,8.6731,-3.9482,-1.9608,-7.8818,0.0,5.7143,4.6984,9.6508,7.6923,13.591,4.7021,-2.7172,4.9261,-2.0513
6.5087,2.9841,5.89,-0.98039,-4.9261,4.5733,0.97087,-0.06472,-2.9773,-0.98039,-4.9261,1.99,5.7143,3.746,8.6984,3.8462,10.692,8.5668,-0.82148,6.8966,-3.9744
0.82148,2.0317,2.9773,0.0,-0.98522,0.70853,1.9417,1.877,-0.06472,0.0,-0.98522,1.99,0.95238,-0.06349,2.0317,0.96154,4.8953,3.7359,1.0742,-0.98522,-3.0128
-8.6572,3.9365,0.06472,2.9412,3.9409,-1.2238,5.8252,3.8188,3.8188,2.9412,3.9409,2.9851,-5.7143,-3.873,-7.4921,-1.9231,-0.90177,-1.095,2.0221,-9.8522,-4.9359
-13.397,2.9841,-3.8188,3.9216,3.9409,-0.25765,4.8544,-6.8608,5.7605,3.9216,3.9409,1.99,-10.476,-6.7302,-13.206,-4.8077,-7.6651,-5.9259,2.97,-14.778,-6.859
-5.8136,2.9841,-3.8188,8.8235,8.867,4.5733,7.767,-2.0065,9.644,8.8235,8.867,4.9751,-8.5714,-5.7778,-9.3968,-3.8462,-8.6312,-3.0274,5.8136,-9.8522,-4.9359
-2.97,-1.7778,-7.7023,7.8431,6.8966,1.6747,3.8835,14.498,8.6731,7.8431,6.8966,1.99,-11.429,-9.5873,-9.3968,-6.7308,-13.462,-0.12882,4.8657,-5.9113,-5.8974
-2.0221,-6.5397,-13.528,4.902,2.9557,-3.1562,-1.9417,8.6731,4.7896,4.902,2.9557,-2.9851,-16.190001,-14.349,-11.302,-11.538,-19.259001,-1.095,2.0221,-6.8966,-7.8205
-2.0221,-5.5873,-14.498,2.9412,3.9409,-1.2238,-1.9417,0.90615,7.7023,2.9412,3.9409,-3.9801,-16.190001,-15.302,-12.254,-10.577,-21.191999,-3.9936,2.97,-5.9113,-5.8974
-4.8657,-5.5873,-13.528,2.9412,5.9113,-4.1224,-0.97087,2.8479,8.6731,2.9412,5.9113,-3.9801,-16.190001,-16.254,-13.206,-10.577,-22.158001,-3.0274,3.9179,-5.9113,-4.9359
-3.9179,-2.7302,-9.644,0.98039,2.9557,-4.1224,-0.97087,-2.0065,6.7314,0.98039,2.9557,-3.9801,-10.476,-11.492,-10.349,-6.7308,-17.327,-3.0274,4.8657,-1.9704,-1.0897
-3.9179,1.0794,-6.7314,-7.8431,-2.9557,-7.0209,-3.8835,-16.57,-0.06472,-7.8431,-2.9557,-5.9701,-7.619,-7.6825,-7.4921,-1.9231,-12.496,-4.9597,4.8657,-0.98522,2.7564
-8.6572,1.0794,-7.7023,-14.706,-8.867,-14.75,-5.8252,-23.365999,-1.0356,-14.706,-8.867,-10.945,-7.619,-7.6825,-9.3968,-1.9231,-12.496,-6.8921,4.8657,-3.9409,3.7179
-12.449,0.12698,-9.644,-27.451,-16.749001,-22.48,-8.7379,-20.452999,-0.06472,-27.451,-16.749001,-15.92,-7.619,-7.6825,-11.302,-3.8462,-11.53,-12.689,5.8136,-5.9113,1.7949
-11.501,-0.8254,-7.7023,-30.392,-18.719,-17.649,-6.7961,-22.395,0.90615,-30.392,-18.719,-14.925,-5.7143,-6.7302,-10.349,-4.8077,-9.5974,-13.655,5.8136,-4.9261,1.7949
-13.397,-0.8254,-6.7314,-30.392,-18.719,-11.852,-4.8544,-31.132999,2.8479,-30.392,-18.719,-11.94,-5.7143,-5.7778,-11.302,-3.8462,-8.6312,-14.622,6.7615,-8.867,3.7179
-15.292,0.12698,-4.7896,-27.451,-15.764,-14.75,-2.9126,-12.686,1.877,-27.451,-15.764,-9.9502,-3.8095,-2.9206,-11.302,-0.96154,-5.7327,-14.622,6.7615,-9.8522,6.6026
-10.553,1.0794,-1.877,-18.627001,-9.8522,-8.9533,0.97087,-0.06472,3.8188,-18.627001,-9.8522,-3.9801,0.95238,1.8413,-6.5397,1.9231,-0.90177,-8.8245,6.7615,-6.8966,7.5641
-2.97,2.0317,1.0356,-11.765,-7.8818,-3.1562,2.9126,-5.89,4.7896,-11.765,-7.8818,-0.99502,6.6667,6.6032,1.0794,3.8462,5.8615,-4.9597,4.8657,-0.98522,7.5641
0.82148,3.9365,4.9191,-10.784,-6.8966,-2.19,2.9126,-5.89,5.7605,-10.784,-6.8966,0.0,12.381,11.365,8.6984,8.6538,12.625,-2.0612,4.8657,1.9704,8.5256
6.5087,7.746,9.7735,-12.745,-5.9113,-1.2238,4.8544,-12.686,6.7314,-12.745,-5.9113,0.99502,16.190001,15.175,15.365,13.462,19.388,-1.095,5.8136,6.8966,11.41
10.3,9.6508,12.686,-14.706,-7.8818,1.6747,4.8544,-14.628,5.7605,-14.706,-7.8818,0.99502,16.190001,16.127001,19.174999,16.346001,22.287001,-0.12882,5.8136,8.867,14.295
10.3,7.746,12.686,-9.8039,-5.9113,-2.19,4.8544,-3.9482,4.7896,-9.8039,-5.9113,0.0,14.286,14.222,18.222,14.423,20.354,0.83736,4.8657,9.8522,14.295
5.5608,2.9841,7.8317,-9.8039,-6.8966,-5.0886,0.97087,-2.9773,4.7896,-9.8039,-6.8966,-1.99,9.5238,10.413,12.508,8.6538,13.591,0.83736,3.9179,5.9113,8.5256
5.5608,2.0317,5.89,-9.8039,-4.9261,-0.25765,0.97087,-14.628,3.8188,-9.8039,-4.9261,-1.99,8.5714,8.5079,10.603,6.7308,11.659,-1.095,3.9179,4.9261,6.6026
-0.12638,1.0794,3.9482,-10.784,-3.9409,-4.1224,-0.97087,-11.715,1.877,-10.784,-3.9409,-2.9851,5.7143,5.6508,5.8413,5.7692,8.7601,-3.9936,2.0221,0.98522,4.6795
3.6651,5.8413,6.8608,-3.9216,-1.9704,1.6747,1.9417,-3.9482,2.8479,-3.9216,-1.9704,1.99,4.7619,5.6508,5.8413,8.6538,9.7262,-3.9936,3.9179,-0.98522,4.6795
-1.0742,8.6984,7.8317,-2.9412,-0.98522,1.6747,3.8835,-12.686,6.7314,-2.9412,-0.98522,2.9851,1.9048,3.746,2.9841,9.6154,8.7601,-5.9259,6.7615,-5.9113,5.641
-5.8136,6.7937,3.9482,0.0,1.9704,-3.1562,4.8544,3.8188,7.7023,0.0,1.9704,3.9801,-1.9048,0.88889,-2.7302,5.7692,4.8953,-5.9259,5.8136,-8.867,1.7949
-5.8136,-1.7778,-0.90615,3.9216,6.8966,0.70853,5.8252,7.7023,7.7023,3.9216,6.8966,5.9701,-5.7143,-3.873,-7.4921,-2.8846,-2.8341,-3.9936,2.0221,-10.837,-3.9744
-9.6051,-12.254,-8.6731,8.8235,8.867,0.70853,1.9417,12.557,5.7605,8.8235,8.867,3.9801,-10.476,-9.5873,-14.159,-12.5,-11.53,-2.0612,-3.6651,-12.808,-10.705
-12.449,-17.968,-14.498,10.784,8.867,3.6071,-2.9126,9.644,3.8188,10.784,8.867,0.99502,-12.381,-13.397,-17.968,-18.268999,-17.327,-4.9597,-6.5087,-12.808,-16.474001
-13.397,-18.921,-17.410999,4.902,2.9557,3.6071,-7.767,2.8479,1.877,4.902,2.9557,-3.9801,-14.286,-16.254,-18.921,-20.191999,-20.225,-7.8583,-6.5087,-9.8522,-17.436001
-13.397,-16.063,-16.440001,-0.98039,-0.98522,-7.0209,-9.7087,-0.06472,-0.06472,-0.98039,-0.98522,-7.9602,-15.238,-17.205999,-17.968,-19.231001,-20.225,-5.9259,-5.5608,-7.8818,-15.513
-10.553,-10.349,-12.557,-0.98039,0.0,-6.0548,-6.7961,-9.7735,2.8479,-0.98039,0.0,-6.9652,-15.238,-15.302,-16.063,-17.308001,-18.292999,-4.9597,-2.7172,-7.8818,-11.667
-8.6572,-6.5397,-8.6731,-0.98039,0.98522,-6.0548,-3.8835,-4.9191,2.8479,-0.98039,0.98522,-5.9701,-12.381,-11.492,-13.206,-14.423,-15.395,-3.9936,1.0742,-5.9113,-5.8974
-5.8136,-3.6825,-5.7605,-4.902,-2.9557,-9.9195,-3.8835,-2.0065,0.90615,-4.902,-2.9557,-6.9652,-8.5714,-6.7302,-9.3968,-11.538,-11.53,-4.9597,1.0742,-1.9704,-2.0513
-1.0742,-0.8254,-1.877,-6.8627,-2.9557,-5.0886,-2.9126,-12.686,-0.06472,-6.8627,-2.9557,-5.9701,-2.8571,-0.06349,-3.6825,-5.7692,-5.7327,-0.12882,2.97,2.9557,2.7564
-2.0221,-0.8254,-1.877,-9.8039,-4.9261,-8.9533,-5.8252,-7.8317,-2.0065,-9.8039,-4.9261,-7.9602,0.95238,4.6984,-0.8254,-0.96154,-0.90177,-0.12882,1.0742,3.9409,6.6026
-2.97,-1.7778,0.06472,-8.8235,-2.9557,-11.852,-6.7961,-4.9191,-3.9482,-8.8235,-2.9557,-8.9552,1.9048,5.6508,1.0794,0.0,1.9968,-0.12882,-1.7694,3.9409,4.6795
5.5608,2.9841,7.8317,-2.9412,0.0,-4.1224,0.0,-7.8317,-1.0356,-2.9412,0.0,-1.99,6.6667,9.4603,8.6984,5.7692,8.7601,1.8035,0.12638,7.8818,7.5641
14.092,9.6508,15.599,1.9608,2.9557,6.5056,6.7961,-6.8608,1.877,1.9608,2.9557,6.9652,12.381,15.175,16.316999,12.5,17.455999,4.7021,2.0221,10.837,12.372
19.778999,9.6508,18.511,4.902,3.9409,16.167,7.767,-9.7735,-1.0356,4.902,3.9409,11.94,16.190001,17.079,22.032,15.385,22.287001,6.6345,-2.7172,12.808,12.372
18.830999,8.6984,21.424,9.8039,7.8818,15.201,10.68,5.7605,-1.0356,9.8039,7.8818,15.92,20.952,20.889,24.889,15.385,25.184999,8.5668,-6.5087,14.778,7.5641
20.726999,13.46,27.249001,15.686,16.749001,14.235,18.447001,13.528,3.8188,15.686,16.749001,21.891001,27.618999,26.603001,30.603001,20.191999,31.948,9.533,-5.5608,16.749001,7.5641
21.674999,19.174999,30.162001,12.745,20.690001,19.066,22.33,-2.9773,5.7605,12.745,20.690001,24.875999,32.381001,31.365,33.459999,25.0,36.778999,5.6683,-1.7694,17.733999,11.41
17.882999,20.127001,29.191,11.765,17.733999,12.303,20.388,4.7896,4.7896,11.765,17.733999,20.896,33.333,34.222,33.459999,28.846001,37.745998,1.8035,2.0221,15.764,15.256
18.830999,21.079,28.219999,16.667,16.749001,12.303,20.388,7.7023,6.7314,16.667,16.749001,20.896,34.285999,36.126999,32.507999,30.768999,37.745998,1.8035,6.7615,15.764,20.063999
21.674999,16.316999,24.337,14.706,15.764,17.134001,16.504999,-2.0065,7.7023,14.706,15.764,19.9,30.476,31.365,29.650999,27.885,32.915001,4.7021,8.6572,13.793,18.141001
12.196,10.603,13.657,3.9216,7.8818,7.4718,8.7379,4.7896,6.7314,3.9216,7.8818,10.945,21.905001,23.746,17.27,20.191999,22.287001,-0.12882,8.6572,5.9113,13.333
1.7694,8.6984,7.8317,0.0,4.9261,1.6747,6.7961,1.877,5.7605,0.0,4.9261,6.9652,14.286,15.175,5.8413,14.423,12.625,-5.9259,9.6051,0.0,10.449
-2.97,9.6508,5.89,7.8431,6.8966,3.6071,7.767,3.8188,6.7314,7.8431,6.8966,7.9602,7.619,8.5079,-0.8254,10.577,5.8615,-5.9259,9.6051,-2.9557,6.6026
-1.0742,12.508,7.8317,13.725,15.764,10.37,13.592,3.8188,13.528,13.725,15.764,14.925,4.7619,4.6984,-2.7302,9.6154,1.9968,-2.0612,11.501,-0.98522,6.6026
0.82148,10.603,4.9191,14.706,20.690001,14.235,14.563,1.877,18.382,14.706,20.690001,15.92,0.95238,-1.0159,-5.5873,4.8077,-3.8003,2.7697,11.501,-0.98522,2.7564
0.82148,4.8889,-0.90615,13.725,16.749001,14.235,9.7087,3.8188,14.498,13.725,16.749001,11.94,-8.5714,-9.5873,-10.349,-2.8846,-12.496,4.7021,7.7093,-3.9409,-2.0513
-1.0742,3.9365,-2.8479,15.686,12.808,7.4718,6.7961,16.440001,11.586,15.686,12.808,7.9602,-11.429,-11.492,-11.302,-3.8462,-14.428,5.6683,4.8657,-0.98522,-3.0128
-0.12638,4.8889,-1.877,10.784,8.867,2.6409,6.7961,19.353001,8.6731,10.784,8.867,4.9751,-10.476,-9.5873,-9.3968,-2.8846,-12.496,6.6345,2.97,0.98522,-3.0128
-0.12638,-0.8254,-5.7605,4.902,1.9704,2.6409,0.97087,7.7023,-0.06472,4.902,1.9704,0.99502,-13.333,-10.54,-10.349,-5.7692,-15.395,4.7021,-2.7172,-0.98522,-4.9359
-2.97,-4.6349,-7.7023,4.902,-1.9704,0.70853,-3.8835,-0.06472,-5.89,4.902,-1.9704,-1.99,-13.333,-8.6349,-11.302,-7.6923,-15.395,4.7021,-5.5608,-0.98522,-4.9359
-1.0742,-2.7302,-2.8479,4.902,-0.98522,3.6071,-3.8835,-2.0065,-6.8608,4.902,-0.98522,0.0,-7.619,-2.9206,-5.5873,-1.9231,-7.6651,3.7359,-5.5608,0.98522,-0.12821
3.6651,-0.8254,3.9482,3.9216,1.9704,1.6747,-2.9126,6.7314,-5.89,3.9216,1.9704,0.99502,-1.9048,3.746,1.0794,3.8462,1.0306,3.7359,-3.6651,2.9557,5.641
4.613,-3.6825,2.9773,0.0,-0.98522,-2.19,-4.8544,-1.0356,-8.8026,0.0,-0.98522,-1.99,0.0,4.6984,4.8889,3.8462,3.9291,-2.0612,-6.5087,1.9704,4.6795
1.7694,-6.5397,0.06472,-0.98039,0.0,-5.0886,-4.8544,-9.7735,-7.8317,-0.98039,0.0,-3.9801,2.8571,7.5556,5.8413,3.8462,6.8277,-3.9936,-5.5608,1.9704,3.7179
4.613,0.12698,5.89,1.9608,6.8966,7.4718,2.9126,-18.511,-2.9773,1.9608,6.8966,4.9751,8.5714,12.317,7.746,8.6538,12.625,-3.0274,-0.82148,1.9704,6.6026
0.82148,5.8413,9.7735,2.9412,10.837,2.6409,6.7961,-3.9482,0.90615,2.9412,10.837,7.9602,6.6667,10.413,3.9365,9.6154,13.591,-3.9936,3.9179,-0.98522,6.6026
-6.7615,6.7937,8.8026,5.8824,13.793,-2.19,8.7379,12.557,5.7605,5.8824,13.793,6.9652,0.95238,3.746,-3.6825,4.8077,7.7939,-4.9597,5.8136,-5.9113,2.7564
-4.8657,5.8413,3.9482,6.8627,12.808,5.5395,8.7379,-9.7735,9.644,6.8627,12.808,5.9701,-5.7143,-3.873,-5.5873,0.96154,1.9968,-6.8921,9.6051,-7.8818,0.83333
-1.0742,6.7937,0.06472,9.8039,14.778,2.6409,7.767,3.8188,12.557,9.8039,14.778,3.9801,-9.5238,-8.6349,-2.7302,0.96154,0.06441,-3.9936,12.449,-8.867,1.7949
5.5608,13.46,4.9191,11.765,16.749001,3.6071,10.68,12.557,15.469,11.765,16.749001,4.9751,-7.619,-5.7778,5.8413,8.6538,6.8277,3.7359,16.24,-6.8966,6.6026
10.3,15.365,7.8317,10.784,17.733999,4.5733,11.65,11.586,14.498,10.784,17.733999,5.9701,-4.7619,-2.9206,10.603,13.462,10.692,8.5668,15.292,-1.9704,10.449
11.248,13.46,7.8317,10.784,14.778,9.4042,9.7087,1.877,12.557,10.784,14.778,4.9751,-6.6667,-2.9206,10.603,12.5,10.692,8.5668,12.449,-2.9557,10.449
8.4044,10.603,5.89,13.725,14.778,10.37,7.767,9.644,10.615,13.725,14.778,5.9701,-7.619,-2.9206,7.746,10.577,7.7939,7.6006,9.6051,-3.9409,8.5256
6.5087,6.7937,3.9482,8.8235,8.867,7.4718,1.9417,10.615,4.7896,8.8235,8.867,2.9851,-3.8095,-0.06349,6.7937,9.6154,7.7939,8.5668,5.8136,0.0,7.5641
9.3523,4.8889,6.8608,6.8627,3.9409,1.6747,-1.9417,14.498,-2.9773,6.8627,3.9409,1.99,4.7619,5.6508,12.508,10.577,12.625,13.398,-0.82148,8.867,6.6026
12.196,3.9365,9.7735,7.8431,3.9409,-0.25765,-2.9126,18.382,-4.9191,7.8431,3.9409,0.0,11.429,9.4603,16.316999,10.577,13.591,15.33,-3.6651,15.764,4.6795
10.3,0.12698,5.89,4.902,0.0,-0.25765,-5.8252,6.7314,-7.8317,4.902,0.0,-2.9851,10.476,9.4603,13.46,7.6923,10.692,9.533,-5.5608,11.823,3.7179
4.613,-7.4921,-4.7896,0.0,-3.9409,-4.1224,-11.65,1.877,-9.7735,0.0,-3.9409,-7.9602,7.619,6.6032,6.7937,0.96154,3.9291,3.7359,-7.4566,6.8966,-1.0897
-2.0221,-14.159,-13.528,-6.8627,-6.8966,-10.886,-15.534,-3.9482,-5.89,-6.8627,-6.8966,-13.93,5.7143,1.8413,1.0794,-6.7308,-3.8003,-1.095,-8.4044,2.9557,-8.7821
-6.7615,-18.921,-18.382,-14.706,-9.8522,-16.683001,-18.447001,-16.57,-3.9482,-14.706,-9.8522,-17.91,3.8095,-1.0159,-2.7302,-11.538,-9.5974,-6.8921,-9.3523,0.98522,-11.667
-10.553,-20.825001,-21.294001,-18.627001,-15.764,-17.649,-21.358999,-27.249001,-2.9773,-18.627001,-15.764,-20.896,1.9048,-1.9683,-5.5873,-13.462,-14.428,-12.689,-7.4566,-0.98522,-9.7436
-16.24,-17.968,-21.294001,-17.646999,-16.749001,-21.514,-19.417,-17.540001,-1.0356,-17.646999,-16.749001,-21.891001,0.0,-3.873,-10.349,-13.462,-16.361,-15.588,-3.6651,-4.9261,-5.8974
-21.927,-14.159,-21.294001,-20.587999,-19.704,-22.48,-18.447001,-26.278,-2.9773,-20.587999,-19.704,-20.896,-2.8571,-5.7778,-16.063,-11.538,-17.327,-19.452,-0.82148,-9.8522,-2.0513
-20.979,-9.3968,-18.382,-19.608,-16.749001,-15.717,-15.534,-39.870998,-2.0065,-19.608,-16.749001,-18.905001,-6.6667,-7.6825,-17.968,-10.577,-16.361,-20.419001,2.97,-13.793,-0.12821
-21.927,-8.4444,-16.440001,-22.549,-16.749001,-26.344999,-17.476,-15.599,-2.9773,-22.549,-16.749001,-21.891001,-6.6667,-7.6825,-17.016001,-9.6154,-14.428,-19.452,3.9179,-12.808,1.7949
-16.24,-9.3968,-13.528,-16.667,-13.793,-26.344999,-16.504999,-7.8317,-2.0065,-16.667,-13.793,-20.896,-3.8095,-6.7302,-12.254,-9.6154,-10.564,-14.622,2.97,-7.8818,2.7564
-10.553,-9.3968,-9.644,-12.745,-12.808,-16.683001,-14.563,-8.8026,-1.0356,-12.745,-12.808,-15.92,0.0,-3.873,-6.5397,-7.6923,-6.6989,-6.8921,2.0221,-0.98522,3.7179
-11.501,-9.3968,-9.644,-10.784,-11.823,-12.818,-12.621,-4.9191,-1.0356,-10.784,-11.823,-14.925,-1.9048,-4.8254,-6.5397,-7.6923,-4.7665,-3.9936,0.12638,-1.9704,1.7949
-9.6051,-7.4921,-7.7023,-10.784,-9.8522,-9.9195,-9.7087,-7.8317,-1.0356,-10.784,-9.8522,-12.935,-0.95238,-3.873,-5.5873,-6.7308,-2.8341,-3.0274,-1.7694,-0.98522,0.83333
-2.97,-4.6349,-2.8479,-4.902,-6.8966,0.70853,-5.8252,-8.8026,-1.0356,-4.902,-6.8966,-6.9652,0.95238,-1.9683,-1.7778,-3.8462,0.06441,1.8035,-4.613,3.9409,-0.12821
0.82148,-1.7778,0.06472,-1.9608,-5.9113,2.6409,-4.8544,-8.8026,-2.0065,-1.9608,-5.9113,-3.9801,4.7619,0.88889,1.0794,-0.96154,2.963,3.7359,-5.5608,6.8966,-1.0897
-2.97,-2.7302,-1.877,1.9608,-2.9557,-1.2238,-3.8835,8.6731,-1.0356,1.9608,-2.9557,-2.9851,4.7619,0.88889,-0.8254,-1.9231,1.9968,5.6683,-6.5087,6.8966,-3.0128
-4.8657,-6.5397,-3.8188,3.9216,0.98522,-3.1562,-0.97087,13.528,0.90615,3.9216,0.98522,-1.99,3.8095,-0.06349,-3.6825,-3.8462,-0.90177,5.6683,-6.5087,6.8966,-4.9359
-5.8136,-12.254,-8.6731,0.0,0.98522,-0.25765,-0.97087,-6.8608,1.877,0.0,0.98522,-0.99502,0.95238,-3.873,-7.4921,-9.6154,-5.7327,3.7359,-6.5087,4.9261,-9.7436
-6.7615,-17.016001,-11.586,0.0,0.98522,1.6747,-1.9417,-2.9773,1.877,0.0,0.98522,-1.99,-0.95238,-7.6825,-9.3968,-14.423,-10.564,4.7021,-6.5087,5.9113,-13.59
-10.553,-20.825001,-16.440001,0.0,0.0,-6.0548,-6.7961,8.6731,0.90615,0.0,0.0,-5.9701,-6.6667,-13.397,-15.111,-22.115,-18.292999,-0.12882,-8.4044,0.0,-21.282
-15.292,-22.73,-22.264999,0.0,1.9704,-8.9533,-7.767,5.7605,1.877,0.0,1.9704,-7.9602,-11.429,-20.063,-19.872999,-27.885,-25.056,-2.0612,-8.4044,-5.9113,-26.09
-18.136,-23.683001,-26.149,0.0,2.9557,-7.9871,-8.7379,2.8479,2.8479,0.0,2.9557,-7.9602,-16.190001,-25.778,-23.683001,-32.692001,-30.853001,-4.9597,-5.5608,-11.823,-28.013
-15.292,-20.825001,-24.207001,0.98039,4.9261,-8.9533,-5.8252,-3.9482,4.7896,0.98039,4.9261,-6.9652,-19.048,-28.635,-22.73,-34.615002,-32.785999,-6.8921,-2.7172,-14.778,-25.128
-8.6572,-13.206,-15.469,2.9412,6.8966,0.70853,-0.97087,-14.628,8.6731,2.9412,6.8966,-1.99,-20.0,-25.778,-17.968,-29.808001,-29.886999,-6.8921,2.0221,-17.733999,-19.358999
-7.7093,-6.5397,-8.6731,0.0,7.8818,-4.1224,4.8544,-5.89,10.615,0.0,7.8818,0.99502,-21.905001,-21.968,-17.968,-24.038,-26.023001,-12.689,2.97,-22.66,-15.513
-12.449,0.12698,-5.7605,-2.9412,6.8966,-7.0209,6.7961,-8.8026,9.644,-2.9412,6.8966,2.9851,-22.857,-17.205999,-19.872999,-16.346001,-23.124001,-17.52,3.9179,-26.601,-8.7821
-11.501,6.7937,-0.90615,0.98039,11.823,-6.0548,12.621,-4.9191,11.586,0.98039,11.823,6.9652,-17.143,-9.5873,-16.063,-5.7692,-14.428,-17.52,6.7615,-24.631001,0.83333
-2.0221,14.413,7.8317,4.902,14.778,3.6071,17.476,-14.628,14.498,4.902,14.778,12.935,-6.6667,0.88889,-5.5873,4.8077,-1.868,-11.723,8.6572,-13.793,7.5641
5.5608,20.127001,16.57,7.8431,15.764,7.4718,21.358999,-6.8608,13.528,7.8431,15.764,17.91,4.7619,10.413,4.8889,15.385,9.7262,-5.9259,12.449,-1.9704,14.295
8.4044,20.127001,16.57,1.9608,8.867,2.6409,15.534,3.8188,8.6731,1.9608,8.867,11.94,11.429,16.127001,9.6508,20.191999,15.523,-4.9597,11.501,2.9557,19.103001
8.4044,19.174999,16.57,-0.98039,5.9113,3.6071,11.65,-1.0356,4.7896,-0.98039,5.9113,8.9552,18.094999,21.841,14.413,24.038,20.354,-0.12882,9.6051,8.867,21.025999
10.3,18.222,16.57,1.9608,3.9409,9.4042,9.7087,-7.8317,2.8479,1.9608,3.9409,8.9552,21.905001,24.698,18.222,25.962,24.219,3.7359,7.7093,13.793,22.948999
11.248,17.27,17.540001,3.9216,3.9409,10.37,8.7379,3.8188,1.877,3.9216,3.9409,8.9552,21.905001,24.698,20.127001,25.962,27.118,7.6006,6.7615,15.764,21.025999
13.144,17.27,21.424,7.8431,5.9113,9.4042,9.7087,19.353001,2.8479,7.8431,5.9113,10.945,22.857,23.746,22.032,25.0,28.084,11.465,5.8136,16.749001,15.256
17.882999,18.222,23.365999,11.765,10.837,14.235,12.621,17.410999,4.7896,11.765,10.837,14.925,23.809999,21.841,23.937,24.038,29.049999,14.364,3.9179,18.719,9.4872
16.934999,13.46,18.511,11.765,10.837,15.201,12.621,12.557,3.8188,11.765,10.837,14.925,19.048,14.222,21.079,16.346001,23.253,15.33,1.0742,16.749001,-0.12821
12.196,3.9365,9.7735,12.745,7.8818,12.303,7.767,10.615,0.90615,12.745,7.8818,11.94,10.476,3.746,13.46,3.8462,12.625,14.364,-5.5608,12.808,-10.705
16.934999,0.12698,9.7735,16.667,12.808,25.829,9.7087,1.877,0.90615,16.667,12.808,18.905001,9.5238,2.7937,13.46,0.0,8.7601,20.160999,-8.4044,15.764,-11.667
8.4044,-7.4921,1.0356,14.706,7.8818,14.235,0.97087,24.207001,-4.9191,14.706,7.8818,9.9502,4.7619,0.88889,4.8889,-4.8077,1.0306,16.296,-11.248,8.867,-11.667
-6.7615,-17.968,-13.528,5.8824,-0.98522,-4.1224,-11.65,23.236,-11.715,5.8824,-0.98522,-5.9701,-5.7143,-5.7778,-9.3968,-13.462,-11.53,3.7359,-13.144,-3.9409,-12.628
-12.449,-21.778,-22.264999,0.98039,-5.9113,-5.0886,-18.447001,-13.657,-10.744,0.98039,-5.9113,-13.93,-13.333,-8.6349,-18.921,-16.346001,-20.225,-4.9597,-11.248,-11.823,-8.7821
-16.24,-19.872999,-27.120001,3.9216,-2.9557,-9.9195,-16.504999,2.8479,-7.8317,3.9216,-2.9557,-15.92,-20.0,-10.54,-24.635,-17.308001,-27.955,-5.9259,-7.4566,-17.733999,-3.0128
-19.084,-17.016001,-27.120001,1.9608,-1.9704,-13.784,-13.592,11.586,-4.9191,1.9608,-1.9704,-15.92,-25.714001,-13.397,-29.396999,-18.268999,-32.785999,-10.757,-3.6651,-22.66,-1.0897
-20.979,-12.254,-23.236,-2.9412,-2.9557,-13.784,-9.7087,-1.0356,-4.9191,-2.9412,-2.9557,-13.93,-28.570999,-14.349,-32.254002,-17.308001,-33.751999,-15.588,-1.7694,-26.601,1.7949
-17.188,-5.5873,-15.469,-4.902,-1.9704,-10.886,-5.8252,-8.8026,-1.0356,-4.902,-1.9704,-9.9502,-22.857,-9.5873,-26.540001,-10.577,-26.023001,-15.588,2.0221,-20.690001,6.6026
-10.553,1.0794,-6.7314,-1.9608,0.0,-6.0548,-1.9417,-12.686,1.877,-1.9608,0.0,-4.9751,-12.381,-1.9683,-16.063,-0.96154,-14.428,-13.655,5.8136,-10.837,12.372
-5.8136,3.9365,-0.90615,-7.8431,-5.9113,-7.0209,-4.8544,-33.074001,-2.0065,-7.8431,-5.9113,-5.9701,-2.8571,3.746,-7.4921,4.8077,-3.8003,-15.588,6.7615,-3.9409,16.218
-2.0221,4.8889,2.9773,-12.745,-10.837,-4.1224,-6.7961,-26.278,-8.8026,-12.745,-10.837,-5.9701,3.8095,8.5079,-0.8254,8.6538,2.963,-10.757,4.8657,1.9704,16.218
-0.12638,6.7937,7.8317,-17.646999,-17.733999,-5.0886,-8.7379,-19.482,-17.540001,-17.646999,-17.733999,-7.9602,8.5714,12.317,5.8413,12.5,10.692,-7.8583,1.0742,4.9261,14.295
-0.12638,7.746,8.8026,-19.608,-22.66,-15.717,-8.7379,3.8188,-21.424,-19.608,-22.66,-10.945,12.381,13.27,8.6984,14.423,14.557,-6.8921,0.12638,6.8966,12.372
5.5608,6.7937,11.715,-19.608,-23.645,-9.9195,-5.8252,7.7023,-20.452999,-19.608,-23.645,-7.9602,14.286,13.27,12.508,13.462,16.49,-1.095,-1.7694,9.8522,10.449
14.092,12.508,19.482,-12.745,-16.749001,5.5395,3.8835,9.644,-13.657,-12.745,-16.749001,4.9751,18.094999,16.127001,19.174999,16.346001,22.287001,8.5668,0.12638,14.778,9.4872
15.039,12.508,19.482,-4.902,-10.837,13.269,8.7379,15.469,-10.744,-4.902,-10.837,10.945,16.190001,13.27,18.222,13.462,20.354,13.398,-0.82148,15.764,6.6026
13.144,4.8889,13.657,0.0,-9.8522,15.201,6.7961,19.353001,-9.7735,0.0,-9.8522,9.9502,9.5238,5.6508,13.46,4.8077,12.625,15.33,-3.6651,13.793,-2.0513
3.6651,-11.302,-0.90615,-0.98039,-13.793,9.4042,-2.9126,19.353001,-13.657,-0.98039,-13.793,1.99,-3.8095,-8.6349,0.12698,-11.538,-2.8341,13.398,-10.3,3.9409,-15.513
-1.0742,-20.825001,-9.644,1.9608,-12.808,6.5056,-9.7087,22.264999,-13.657,1.9608,-12.808,-2.9851,-7.619,-14.349,-6.5397,-21.153999,-11.53,14.364,-15.039,1.9704,-23.205
-5.8136,-24.635,-16.440001,2.9412,-12.808,6.5056,-12.621,9.644,-13.657,2.9412,-12.808,-4.9751,-10.476,-16.254,-13.206,-25.0,-17.327,12.432,-15.987,-1.9704,-27.051001
-13.397,-27.492001,-24.207001,-4.902,-18.719,-4.1224,-19.417,11.586,-16.57,-4.902,-18.719,-13.93,-15.238,-18.159,-19.872999,-27.885,-23.124001,3.7359,-16.934999,-7.8818,-27.051001
-12.449,-24.635,-23.236,-8.8235,-19.704,-9.9195,-19.417,3.8188,-18.511,-8.8235,-19.704,-16.915001,-11.429,-12.444,-17.968,-24.038,-21.191999,1.8035,-15.039,-6.8966,-22.243999
-11.501,-21.778,-23.236,-10.784,-23.645,-8.9533,-20.388,-0.06472,-19.482,-10.784,-23.645,-18.905001,-7.619,-7.6825,-13.206,-18.268999,-17.327,1.8035,-12.196,-2.9557,-16.474001
-9.6051,-17.016001,-19.353001,-10.784,-23.645,-10.886,-20.388,6.7314,-20.452999,-10.784,-23.645,-17.91,-4.7619,-3.873,-9.3968,-12.5,-13.462,2.7697,-11.248,-1.9704,-9.7436
-6.7615,-9.3968,-12.557,-12.745,-23.645,-13.784,-17.476,16.440001,-20.452999,-12.745,-23.645,-15.92,-3.8095,-1.9683,-4.6349,-4.8077,-7.6651,0.83736,-9.3523,-1.9704,-2.0513
-1.0742,-0.8254,-4.7896,-12.745,-18.719,-7.9871,-8.7379,9.644,-16.57,-12.745,-18.719,-8.9552,0.0,2.7937,1.0794,3.8462,-0.90177,-0.12882,-3.6651,0.0,5.641
5.5608,4.8889,2.0065,-9.8039,-13.793,-2.19,-2.9126,3.8188,-12.686,-9.8039,-13.793,-2.9851,2.8571,6.6032,5.8413,8.6538,4.8953,0.83736,1.0742,2.9557,9.4872
6.5087,7.746,4.9191,-6.8627,-10.837,1.6747,0.97087,3.8188,-9.7735,-6.8627,-10.837,0.0,5.7143,7.5556,9.6508,10.577,7.7939,2.7697,2.0221,4.9261,12.372
9.3523,10.603,10.744,-2.9412,-5.9113,4.5733,5.8252,8.6731,-3.9482,-2.9412,-5.9113,5.9701,7.619,7.5556,12.508,11.538,10.692,5.6683,3.9179,5.9113,11.41
15.987,13.46,16.57,0.0,-1.9704,16.167,9.7087,-17.540001,-0.06472,0.0,-1.9704,11.94,6.6667,5.6508,15.365,12.5,12.625,4.7021,5.8136,5.9113,8.5256
13.144,14.413,17.540001,-2.9412,-0.98522,9.4042,9.7087,-5.89,2.8479,-2.9412,-0.98522,8.9552,7.619,5.6508,14.413,13.462,13.591,1.8035,5.8136,5.9113,8.5256
13.144,17.27,19.482,-1.9608,0.98522,5.5395,10.68,16.440001,4.7896,-1.9608,0.98522,8.9552,8.5714,6.6032,16.316999,15.385,16.49,2.7697,5.8136,6.8966,5.641
16.934999,18.222,21.424,5.8824,6.8966,13.269,13.592,10.615,6.7314,5.8824,6.8966,13.93,9.5238,5.6508,18.222,14.423,18.422001,8.5668,4.8657,9.8522,3.7179
17.882999,14.413,22.395,11.765,6.8966,17.134001,13.592,15.469,5.7605,11.765,6.8966,16.915001,8.5714,2.7937,18.222,9.6154,16.49,11.465,1.0742,11.823,-3.0128
14.092,6.7937,19.482,9.8039,3.9409,10.37,10.68,18.382,1.877,9.8039,3.9409,13.93,5.7143,-0.06349,14.413,3.8462,13.591,11.465,-4.613,9.8522,-7.8205
4.613,-3.6825,7.8317,0.98039,-2.9557,2.6409,0.97087,5.7605,-2.0065,0.98039,-2.9557,3.9801,0.0,-4.8254,5.8413,-2.8846,4.8953,6.6345,-8.4044,3.9409,-12.628
-4.8657,-13.206,-3.8188,-4.902,-4.9261,-7.0209,-7.767,1.877,-2.9773,-4.902,-4.9261,-6.9652,-0.95238,-5.7778,-1.7778,-7.6923,-1.868,2.7697,-10.3,1.9704,-12.628
-11.501,-19.872999,-13.528,-3.9216,-9.8522,-11.852,-16.504999,-0.06472,-6.8608,-3.9216,-9.8522,-14.925,-0.95238,-4.8254,-5.5873,-10.577,-5.7327,-0.12882,-10.3,0.0,-10.705
-13.397,-22.73,-19.353001,-11.765,-15.764,-10.886,-22.33,-20.452999,-11.715,-11.765,-15.764,-19.9,-3.8095,-5.7778,-10.349,-12.5,-10.564,-4.9597,-9.3523,-3.9409,-9.7436
-10.553,-13.206,-14.498,-12.745,-12.808,-11.852,-16.504999,-9.7735,-7.8317,-12.745,-12.808,-17.91,-1.9048,-1.9683,-7.4921,-6.7308,-7.6651,-3.9936,-3.6651,0.0,-1.0897
-3.9179,-3.6825,-8.6731,-3.9216,-6.8966,-9.9195,-7.767,9.644,-2.9773,-3.9216,-6.8966,-10.945,1.9048,1.8413,-2.7302,0.0,-2.8341,-2.0612,2.97,2.9557,5.641
-0.12638,1.0794,-5.7605,-4.902,-4.9261,-4.1224,-3.8835,-1.0356,-2.0065,-4.902,-4.9261,-5.9701,2.8571,3.746,1.0794,3.8462,-0.90177,-2.0612,4.8657,2.9557,6.6026
1.7694,5.8413,-1.877,-2.9412,-3.9409,-1.2238,0.0,-7.8317,-0.06472,-2.9412,-3.9409,-1.99,3.8095,6.6032,3.9365,8.6538,1.9968,-2.0612,5.8136,3.9409,9.4872
6.5087,12.508,4.9191,-1.9608,-4.9261,3.6071,1.9417,-7.8317,-0.06472,-1.9608,-4.9261,0.99502,5.7143,9.4603,7.746,14.423,7.7939,-1.095,7.7093,3.9409,14.295
10.3,17.27,11.715,0.98039,-0.98522,3.6071,5.8252,4.7896,2.8479,0.98039,-0.98522,3.9801,8.5714,12.317,12.508,18.268999,12.625,-0.12882,10.553,4.9261,16.218
11.248,17.27,13.657,2.9412,1.9704,4.5733,8.7379,5.7605,3.8188,2.9412,1.9704,7.9602,9.5238,11.365,14.413,17.308001,14.557,-0.12882,10.553,4.9261,13.333
16.934999,17.27,16.57,7.8431,7.8818,17.134001,13.592,-6.8608,7.7023,7.8431,7.8818,14.925,8.5714,9.4603,15.365,15.385,15.523,-0.12882,10.553,4.9261,11.41
15.039,18.222,19.482,13.725,11.823,18.1,18.447001,0.90615,8.6731,13.725,11.823,19.9,7.619,6.6032,14.413,14.423,15.523,0.83736,8.6572,4.9261,7.5641
6.5087,17.27,19.482,10.784,10.837,9.4042,17.476,10.615,8.6731,10.784,10.837,17.91,3.8095,3.746,10.603,11.538,13.591,-2.0612,5.8136,0.0,3.7179
6.5087,15.365,20.452999,8.8235,13.793,12.303,20.388,-2.9773,8.6731,8.8235,13.793,18.905001,3.8095,4.6984,10.603,10.577,14.557,-2.0612,3.9179,-0.98522,4.6795
10.3,10.603,18.511,13.725,15.764,18.1,18.447001,2.8479,7.7023,13.725,15.764,20.896,6.6667,5.6508,11.556,8.6538,14.557,-0.12882,0.12638,1.9704,1.7949
3.6651,-3.6825,7.8317,12.745,11.823,13.269,9.7087,7.7023,2.8479,12.745,11.823,14.925,0.95238,-1.0159,3.9365,-0.96154,5.8615,2.7697,-7.4566,-0.98522,-5.8974
-2.97,-14.159,-3.8188,7.8431,6.8966,4.5733,0.0,1.877,0.90615,7.8431,6.8966,4.9751,-3.8095,-5.7778,-2.7302,-8.6538,-2.8341,-0.12882,-11.248,-1.9704,-10.705
-3.9179,-14.159,-7.7023,5.8824,5.9113,0.70853,-2.9126,-2.9773,-0.06472,5.8824,5.9113,0.0,-2.8571,-5.7778,-2.7302,-9.6154,-4.7665,2.7697,-10.3,0.98522,-8.7821
-4.8657,-9.3968,-9.644,0.0,1.9704,-2.19,-4.8544,-9.7735,-2.9773,0.0,1.9704,-4.9751,-0.95238,-2.9206,-1.7778,-5.7692,-3.8003,1.8035,-8.4044,0.98522,-4.9359
-2.0221,-3.6825,-8.6731,-3.9216,-0.98522,-10.886,-6.7961,-5.89,-6.8608,-3.9216,-0.98522,-8.9552,1.9048,0.88889,2.0317,0.0,-0.90177,0.83736,-6.5087,2.9557,1.7949
1.7694,2.0317,-3.8188,-3.9216,-2.9557,-12.818,-6.7961,5.7605,-6.8608,-3.9216,-2.9557,-8.9552,5.7143,4.6984,6.7937,6.7308,4.8953,1.8035,-2.7172,5.9113,8.5256
3.6651,3.9365,-0.90615,-3.9216,0.98522,-7.0209,-3.8835,1.877,-3.9482,-3.9216,0.98522,-6.9652,6.6667,4.6984,7.746,8.6538,6.8277,1.8035,0.12638,6.8966,10.449
2.7172,5.8413,1.0356,-2.9412,3.9409,-4.1224,-0.97087,-6.8608,0.90615,-2.9412,3.9409,-3.9801,4.7619,4.6984,6.7937,9.6154,7.7939,1.8035,2.97,2.9557,9.4872
5.5608,11.556,6.8608,1.9608,5.9113,2.6409,4.8544,-10.744,5.7605,1.9608,5.9113,1.99,4.7619,3.746,8.6984,10.577,9.7262,2.7697,6.7615,1.9704,9.4872
7.4566,14.413,11.715,6.8627,8.867,2.6409,9.7087,-1.0356,10.615,6.8627,8.867,5.9701,3.8095,0.88889,10.603,10.577,10.692,1.8035,9.6051,1.9704,8.5256
10.3,14.413,13.657,8.8235,14.778,4.5733,12.621,-2.0065,14.498,8.8235,14.778,9.9502,0.0,-1.9683,9.6508,7.6923,8.7601,0.83736,11.501,0.0,5.641
5.5608,11.556,10.744,10.784,19.704,8.438,14.563,-2.9773,18.382,10.784,19.704,12.935,-4.7619,-5.7778,2.9841,3.8462,3.9291,0.83736,12.449,-4.9261,2.7564
-1.0742,10.603,7.8317,12.745,20.690001,5.5395,16.504999,6.7314,20.323999,12.745,20.690001,12.935,-7.619,-6.7302,-2.7302,1.9231,0.06441,-2.0612,12.449,-8.867,0.83333
-2.0221,11.556,10.744,16.667,22.66,5.5395,19.417,4.7896,20.323999,16.667,22.66,16.915001,-6.6667,-4.8254,-2.7302,2.8846,1.0306,-3.0274,11.501,-6.8966,2.7564
-0.12638,9.6508,11.715,12.745,19.704,9.4042,17.476,-11.715,16.440001,12.745,19.704,17.91,-4.7619,-1.9683,-0.8254,2.8846,1.9968,-5.9259,8.6572,-3.9409,3.7179
0.82148,3.9365,8.8026,8.8235,16.749001,8.438,12.621,-16.57,13.528,8.8235,16.749001,14.925,-3.8095,-1.0159,-0.8254,1.9231,1.9968,-8.8245,6.7615,-3.9409,4.6795
-0.12638,0.12698,4.9191,6.8627,16.749001,6.5056,8.7379,-10.744,14.498,6.8627,16.749001,10.945,-0.95238,1.8413,-0.8254,1.9231,1.0306,-9.7907,7.7093,-2.9557,6.6026
-2.97,-0.8254,1.0356,8.8235,14.778,0.70853,6.7961,4.7896,13.528,8.8235,14.778,7.9602,2.8571,2.7937,-0.8254,1.9231,1.0306,-3.0274,7.7093,1.9704,7.5641
-6.7615,-5.5873,-5.7605,2.9412,4.9261,-3.1562,-0.97087,-4.9191,7.7023,2.9412,4.9261,-0.99502,-0.95238,-1.0159,-5.5873,-2.8846,-4.7665,-1.095,3.9179,0.98522,2.7564
-2.0221,-6.5397,-5.7605,-1.9608,0.98522,-2.19,-2.9126,-13.657,0.90615,-1.9608,0.98522,-2.9851,-0.95238,-1.9683,-3.6825,-3.8462,-4.7665,1.8035,1.0742,3.9409,1.7949
3.6651,-3.6825,-1.877,0.0,-1.9704,-2.19,-2.9126,5.7605,-2.9773,0.0,-1.9704,-1.99,1.9048,-0.06349,1.0794,-0.96154,-0.90177,5.6683,0.12638,7.8818,1.7949
7.4566,-2.7302,0.06472,-0.98039,-10.837,-1.2238,-6.7961,14.498,-14.628,-0.98039,-10.837,-2.9851,3.8095,2.7937,4.8889,0.0,1.9968,14.364,-3.6651,11.823,0.83333
10.3,-0.8254,2.0065,-4.902,-16.749001,1.6747,-7.767,17.410999,-18.511,-4.902,-16.749001,-3.9801,6.6667,4.6984,7.746,1.9231,4.8953,19.195,-5.5608,13.793,0.83333
6.5087,-1.7778,1.0356,-9.8039,-22.66,-1.2238,-10.68,7.7023,-19.482,-9.8039,-22.66,-6.9652,3.8095,2.7937,4.8889,0.0,2.963,16.296,-6.5087,8.867,-2.0513
7.4566,0.12698,2.9773,-9.8039,-20.690001,0.70853,-7.767,10.615,-14.628,-9.8039,-20.690001,-4.9751,5.7143,3.746,6.7937,0.96154,4.8953,15.33,-3.6651,8.867,-2.0513
5.5608,2.0317,3.9482,-6.8627,-14.778,1.6747,-3.8835,19.353001,-9.7735,-6.8627,-14.778,-2.9851,4.7619,3.746,5.8413,1.9231,4.8953,13.398,-1.7694,6.8966,-2.0513
9.3523,2.0317,6.8608,-1.9608,-9.8522,10.37,0.97087,-1.0356,-3.9482,-1.9608,-9.8522,2.9851,3.8095,1.8413,4.8889,-0.96154,2.963,10.499,-0.82148,3.9409,-4.9359
7.4566,2.9841,7.8317,0.98039,-4.9261,13.269,4.8544,13.528,2.8479,0.98039,-4.9261,6.9652,-0.95238,-1.9683,1.0794,-3.8462,0.06441,8.5668,2.0221,-0.98522,-7.8205
-2.97,-2.7302,1.0356,-1.9608,-2.9557,4.5733,2.9126,17.410999,4.7896,-1.9608,-2.9557,1.99,-11.429,-11.492,-8.4444,-12.5,-9.5974,3.7359,1.0742,-8.867,-13.59
-11.501,-8.4444,-8.6731,-6.8627,-5.9113,-5.0886,-2.9126,12.557,1.877,-6.8627,-5.9113,-4.9751,-19.048,-19.111,-16.063,-18.268999,-17.327,-3.0274,-1.7694,-17.733999,-17.436001
-15.292,-12.254,-13.528,-5.8824,-7.8818,-7.9871,-5.8252,9.644,-1.0356,-5.8824,-7.8818,-8.9552,-21.905001,-20.063,-19.872999,-18.268999,-19.259001,-5.9259,-2.7172,-21.674999,-16.474001
-14.344,-16.063,-16.440001,-7.8431,-9.8522,-7.0209,-10.68,1.877,-2.0065,-7.8431,-9.8522,-9.9502,-20.0,-19.111,-18.921,-16.346001,-18.292999,-8.8245,-2.7172,-19.704,-15.513
-12.449,-17.016001,-16.440001,-9.8039,-9.8522,-5.0886,-12.621,-2.9773,-3.9482,-9.8039,-9.8522,-9.9502,-18.094999,-16.254,-17.968,-14.423,-17.327,-6.8921,-2.7172,-17.733999,-10.705
-12.449,-17.016001,-14.498,-11.765,-13.793,-4.1224,-15.534,-11.715,-7.8317,-11.765,-13.793,-11.94,-18.094999,-15.302,-17.016001,-14.423,-16.361,-10.757,-3.6651,-17.733999,-7.8205
-5.8136,-9.3968,-9.644,-6.8627,-9.8522,-2.19,-10.68,4.7896,-5.89,-6.8627,-9.8522,-8.9552,-13.333,-9.5873,-10.349,-7.6923,-10.564,-7.8583,1.0742,-12.808,-1.0897
2.7172,0.12698,-2.8479,-3.9216,-8.867,0.70853,-4.8544,2.8479,-2.0065,-3.9216,-8.867,-3.9801,-5.7143,-1.9683,-2.7302,0.96154,-2.8341,-2.0612,5.8136,-5.9113,5.641
7.4566,6.7937,2.9773,-6.8627,-5.9113,3.6071,0.0,-11.715,-1.0356,-6.8627,-5.9113,-1.99,0.0,2.7937,2.0317,6.7308,3.9291,-0.12882,6.7615,-1.9704,8.5256
-1.0742,4.8889,0.06472,-11.765,-9.8522,-7.0209,-2.9126,0.90615,-3.9482,-11.765,-9.8522,-6.9652,1.9048,2.7937,0.12698,3.8462,1.9968,-2.0612,2.0221,-1.9704,4.6795
-1.0742,3.9365,-0.90615,-7.8431,-8.867,-5.0886,-2.9126,-1.0356,-5.89,-7.8431,-8.867,-4.9751,5.7143,4.6984,1.0794,2.8846,1.0306,-0.12882,-0.82148,3.9409,3.7179
0.82148,4.8889,-0.90615,-1.9608,-3.9409,-2.19,0.0,6.7314,-3.9482,-1.9608,-3.9409,-1.99,7.619,7.5556,2.0317,2.8846,1.9968,4.7021,-0.82148,5.9113,4.6795
0.82148,3.9365,-0.90615,0.0,-0.98522,-1.2238,1.9417,5.7605,-2.0065,0.0,-0.98522,0.99502,5.7143,6.6032,1.0794,0.96154,0.06441,4.7021,0.12638,5.9113,3.7179
2.7172,4.8889,2.0065,1.9608,3.9409,3.6071,7.767,-6.8608,3.8188,1.9608,3.9409,4.9751,5.7143,7.5556,1.0794,0.0,-0.90177,2.7697,2.0221,4.9261,3.7179
-1.0742,3.9365,0.06472,2.9412,8.867,-0.25765,9.7087,-1.0356,7.7023,2.9412,8.867,4.9751,3.8095,4.6984,-1.7778,-3.8462,-4.7665,1.8035,3.9179,1.9704,-0.12821
-4.8657,-0.8254,-2.8479,1.9608,8.867,0.70853,7.767,-2.0065,9.644,1.9608,8.867,3.9801,-0.95238,-1.9683,-6.5397,-10.577,-10.564,-1.095,4.8657,-1.9704,-7.8205
-2.97,-0.8254,-2.8479,5.8824,8.867,1.6747,7.767,-0.06472,12.557,5.8824,8.867,5.9701,-1.9048,-4.8254,-5.5873,-12.5,-10.564,-1.095,3.9179,0.0,-11.667
0.82148,-0.8254,1.0356,4.902,7.8818,3.6071,7.767,-2.0065,10.615,4.902,7.8818,7.9602,-2.8571,-6.7302,-1.7778,-10.577,-6.6989,-1.095,2.0221,0.0,-12.628
3.6651,2.0317,5.89,1.9608,7.8818,4.5733,7.767,3.8188,9.644,1.9608,7.8818,8.9552,0.95238,-4.8254,3.9365,-3.8462,1.0306,1.8035,2.0221,0.0,-11.667
6.5087,4.8889,9.7735,9.8039,12.808,4.5733,11.65,9.644,9.644,9.8039,12.808,10.945,4.7619,-1.9683,8.6984,1.9231,7.7939,2.7697,2.0221,2.9557,-9.7436
6.5087,6.7937,10.744,9.8039,11.823,5.5395,9.7087,0.90615,8.6731,9.8039,11.823,8.9552,4.7619,0.88889,9.6508,6.7308,10.692,0.83736,2.0221,2.9557,-5.8974
7.4566,6.7937,9.7735,4.902,7.8818,4.5733,5.8252,-6.8608,4.7896,4.902,7.8818,5.9701,4.7619,2.7937,11.556,9.6154,12.625,-0.12882,1.0742,1.9704,-0.12821
12.196,5.8413,9.7735,1.9608,5.9113,9.4042,1.9417,-8.8026,1.877,1.9608,5.9113,4.9751,6.6667,5.6508,14.413,11.538,14.557,-1.095,0.12638,3.9409,3.7179
14.092,6.7937,11.715,3.9216,4.9261,5.5395,2.9126,-1.0356,1.877,3.9216,4.9261,4.9751,10.476,9.4603,18.222,14.423,18.422001,1.8035,1.0742,8.867,8.5256
10.3,6.7937,9.7735,-0.98039,2.9557,0.70853,2.9126,-13.657,-0.06472,-0.98039,2.9557,1.99,10.476,10.413,16.316999,14.423,16.49,-0.12882,1.0742,9.8522,10.449
6.5087,9.6508,9.7735,0.0,5.9113,-1.2238,5.8252,-9.7735,-1.0356,0.0,5.9113,1.99,11.429,13.27,14.413,15.385,15.523,-2.0612,1.0742,11.823,14.295
6.5087,12.508,9.7735,2.9412,6.8966,1.6747,6.7961,-15.599,-0.06472,2.9412,6.8966,3.9801,13.333,15.175,12.508,16.346001,14.557,-0.12882,2.97,13.793,18.141001
2.7172,11.556,7.8317,3.9216,7.8818,-6.0548,5.8252,-2.0065,-0.06472,3.9216,7.8818,1.99,13.333,16.127001,8.6984,15.385,11.659,-0.12882,1.0742,11.823,16.218
-2.97,5.8413,2.9773,2.9412,6.8966,-12.818,1.9417,5.7605,-2.9773,2.9412,6.8966,0.0,9.5238,13.27,2.0317,8.6538,3.9291,-2.0612,-2.7172,7.8818,9.4872
-5.8136,0.12698,-1.877,0.98039,5.9113,-7.9871,0.0,-4.9191,-3.9482,0.98039,5.9113,-0.99502,4.7619,9.4603,-3.6825,3.8462,-2.8341,-2.0612,-4.613,3.9409,4.6795
-4.8657,-0.8254,-2.8479,5.8824,6.8966,-0.25765,1.9417,-3.9482,-2.0065,5.8824,6.8966,1.99,3.8095,8.5079,-5.5873,1.9231,-4.7665,-2.0612,-3.6651,3.9409,4.6795
2.7172,2.0317,1.0356,8.8235,10.837,9.4042,7.767,-5.89,3.8188,8.8235,10.837,8.9552,7.619,10.413,-2.7302,3.8462,-1.868,2.7697,-1.7694,7.8818,3.7179
1.7694,0.12698,2.0065,12.745,17.733999,12.303,13.592,9.644,8.6731,12.745,17.733999,13.93,4.7619,6.6032,-3.6825,0.0,-3.8003,7.6006,-1.7694,5.9113,-2.0513
-5.8136,-5.5873,-2.8479,17.646999,17.733999,9.4042,11.65,13.528,8.6731,17.646999,17.733999,12.935,-4.7619,-2.9206,-10.349,-8.6538,-11.53,2.7697,-4.613,0.0,-11.667
-4.8657,-6.5397,-2.8479,21.569,20.690001,11.337,10.68,17.410999,9.644,21.569,20.690001,13.93,-10.476,-10.54,-12.254,-12.5,-14.428,4.7021,-6.5087,-3.9409,-18.396999
0.82148,-1.7778,2.0065,21.569,22.66,20.997999,12.621,-1.0356,12.557,21.569,22.66,17.91,-12.381,-12.444,-8.4444,-10.577,-11.53,8.5668,-4.613,-3.9409,-18.396999
2.7172,2.0317,3.9482,21.569,23.645,18.1,14.563,10.615,13.528,21.569,23.645,17.91,-14.286,-16.254,-6.5397,-8.6538,-9.5974,9.533,-1.7694,-3.9409,-16.474001
2.7172,3.9365,5.89,24.51,23.645,8.438,16.504999,34.887001,14.498,24.51,23.645,16.915001,-15.238,-19.111,-2.7302,-8.6538,-7.6651,10.499,0.12638,-0.98522,-18.396999
3.6651,4.8889,6.8608,20.587999,19.704,6.5056,16.504999,21.294001,11.586,20.587999,19.704,15.92,-17.143,-20.063,-1.7778,-8.6538,-7.6651,9.533,0.12638,0.0,-17.436001
1.7694,2.9841,3.9482,13.725,13.793,4.5733,9.7087,8.6731,9.644,13.725,13.793,8.9552,-17.143,-20.063,-1.7778,-8.6538,-7.6651,3.7359,0.12638,-0.98522,-15.513
1.7694,2.0317,2.9773,9.8039,10.837,0.70853,3.8835,7.7023,6.7314,9.8039,10.837,3.9801,-15.238,-17.205999,-1.7778,-6.7308,-5.7327,0.83736,0.12638,-1.9704,-11.667
3.6651,2.0317,3.9482,7.8431,5.9113,3.6071,0.97087,-12.686,4.7896,7.8431,5.9113,2.9851,-11.429,-13.397,1.0794,-3.8462,-2.8341,-0.12882,0.12638,0.0,-5.8974
0.82148,2.0317,2.9773,-1.9608,2.9557,-5.0886,-0.97087,-2.9773,3.8188,-1.9608,2.9557,-1.99,-9.5238,-12.444,1.0794,-4.8077,-2.8341,-3.0274,1.0742,-0.98522,-4.9359
5.5608,4.8889,9.7735,-1.9608,7.8818,-3.1562,2.9126,3.8188,7.7023,-1.9608,7.8818,1.99,-5.7143,-7.6825,4.8889,-2.8846,0.06441,-1.095,4.8657,0.98522,-1.0897
9.3523,3.9365,12.686,4.902,9.8522,5.5395,4.8544,-10.744,9.644,4.902,9.8522,5.9701,-2.8571,-5.7778,7.746,-3.8462,1.9968,-1.095,5.8136,0.98522,-2.0513
2.7172,-2.7302,6.8608,1.9608,3.9409,-1.2238,-1.9417,-11.715,4.7896,1.9608,3.9409,0.99502,-2.8571,-6.7302,2.9841,-8.6538,-1.868,-4.9597,2.97,-3.9409,-5.8974
-2.0221,-5.5873,1.0356,-0.98039,1.9704,-6.0548,-3.8835,-6.8608,2.8479,-0.98039,1.9704,-0.99502,-3.8095,-6.7302,-1.7778,-10.577,-4.7665,-9.7907,2.97,-6.8966,-5.8974
-2.97,-2.7302,1.0356,2.9412,6.8966,-3.1562,0.97087,-2.0065,4.7896,2.9412,6.8966,1.99,-0.95238,-2.9206,-2.7302,-8.6538,-4.7665,-7.8583,3.9179,-5.9113,-3.9744
-2.0221,-1.7778,0.06472,6.8627,8.867,3.6071,3.8835,-7.8317,7.7023,6.8627,8.867,4.9751,-0.95238,-1.0159,-4.6349,-8.6538,-6.6989,-3.0274,3.9179,-5.9113,-3.0128
-0.12638,-4.6349,-1.877,13.725,12.808,8.438,4.8544,2.8479,8.6731,13.725,12.808,5.9701,-3.8095,-2.9206,-6.5397,-10.577,-9.5974,1.8035,2.0221,-5.9113,-4.9359
1.7694,-7.4921,-2.8479,15.686,13.793,9.4042,3.8835,14.498,8.6731,15.686,13.793,6.9652,-6.6667,-4.8254,-7.4921,-11.538,-11.53,4.7021,-0.82148,-6.8966,-8.7821
1.7694,-6.5397,-3.8188,15.686,15.764,9.4042,3.8835,12.557,7.7023,15.686,15.764,6.9652,-6.6667,-4.8254,-7.4921,-9.6154,-12.496,8.5668,-2.7172,-3.9409,-7.8205
3.6651,-0.8254,-3.8188,18.627001,16.749001,15.201,6.7961,-3.9482,9.644,18.627001,16.749001,7.9602,-6.6667,-2.9206,-7.4921,-3.8462,-10.564,6.6345,1.0742,-3.9409,-3.0128
1.7694,4.8889,-2.8479,14.706,12.808,10.37,6.7961,6.7314,8.6731,14.706,12.808,3.9801,-6.6667,-1.0159,-6.5397,0.96154,-7.6651,6.6345,2.97,-1.9704,1.7949
-0.12638,4.8889,-0.90615,6.8627,6.8966,-3.1562,0.97087,16.440001,3.8188,6.8627,6.8966,-2.9851,-5.7143,-1.0159,-3.6825,2.8846,-4.7665,6.6345,2.0221,0.98522,3.7179
7.4566,4.8889,2.9773,7.8431,5.9113,0.70853,2.9126,1.877,2.8479,7.8431,5.9113,0.99502,0.0,2.7937,3.9365,5.7692,1.0306,6.6345,1.0742,6.8966,6.6026
10.3,2.9841,3.9482,4.902,3.9409,5.5395,1.9417,0.90615,0.90615,4.902,3.9409,3.9801,6.6667,6.6032,10.603,8.6538,5.8615,7.6006,1.0742,11.823,6.6026
8.4044,2.9841,3.9482,1.9608,2.9557,0.70853,0.0,7.7023,1.877,1.9608,2.9557,1.99,12.381,12.317,12.508,12.5,10.692,6.6345,2.97,13.793,9.4872
5.5608,3.9365,4.9191,0.0,3.9409,0.70853,0.0,0.90615,3.8188,0.0,3.9409,0.99502,13.333,13.27,12.508,14.423,13.591,4.7021,3.9179,11.823,9.4872
2.7172,5.8413,4.9191,-3.9216,2.9557,-3.1562,0.97087,-12.686,5.7605,-3.9216,2.9557,-1.99,12.381,13.27,11.556,15.385,14.557,-3.0274,6.7615,7.8818,10.449
0.82148,8.6984,3.9482,-5.8824,0.98522,-6.0548,0.97087,-16.57,5.7605,-5.8824,0.98522,-2.9851,12.381,14.222,10.603,17.308001,14.557,-6.8921,7.7093,4.9261,13.333
-3.9179,8.6984,1.0356,-6.8627,1.9704,-10.886,0.97087,-6.8608,3.8188,-6.8627,1.9704,-3.9801,11.429,14.222,7.746,18.268999,14.557,-7.8583,7.7093,2.9557,15.256
-4.8657,7.746,0.06472,-8.8235,0.0,-9.9195,-2.9126,-28.219999,1.877,-8.8235,0.0,-5.9701,11.429,15.175,6.7937,19.231001,15.523,-10.757,7.7093,-0.98522,17.179001
-5.8136,7.746,1.0356,-9.8039,-4.9261,-13.784,-6.7961,-24.337,-2.0065,-9.8039,-4.9261,-10.945,13.333,18.032,9.6508,23.077,18.422001,-12.689,5.8136,0.0,20.063999
-3.9179,4.8889,2.9773,-11.765,-9.8522,-19.580999,-11.65,-10.744,-7.8317,-11.765,-9.8522,-14.925,16.190001,21.841,12.508,25.0,22.287001,-10.757,1.0742,1.9704,22.948999
-4.8657,-3.6825,1.0356,-13.725,-13.793,-18.615,-16.504999,-11.715,-13.657,-13.725,-13.793,-17.91,17.143,21.841,13.46,22.115,22.287001,-6.8921,-4.613,1.9704,21.987
-2.0221,-6.5397,-1.877,-9.8039,-13.793,-11.852,-16.504999,-13.657,-15.599,-9.8039,-13.793,-15.92,19.048,22.794001,13.46,20.191999,20.354,-3.9936,-6.5087,4.9261,21.987
-2.0221,-3.6825,-4.7896,-11.765,-15.764,-12.818,-18.447001,-4.9191,-14.628,-11.765,-15.764,-17.91,20.952,25.650999,13.46,21.153999,19.388,0.83736,-3.6651,9.8522,25.833
-3.9179,-4.6349,-11.586,-15.686,-17.733999,-18.615,-23.301001,-4.9191,-15.599,-15.686,-17.733999,-23.881001,20.952,24.698,11.556,18.268999,15.523,0.83736,-3.6651,10.837,23.91
-3.9179,-5.5873,-13.528,-15.686,-17.733999,-18.615,-26.214001,-9.7735,-12.686,-15.686,-17.733999,-27.861,19.048,20.889,10.603,13.462,11.659,-0.12882,-2.7172,10.837,20.063999
-0.12638,-1.7778,-10.615,-11.765,-11.823,-14.75,-19.417,-7.8317,-6.8608,-11.765,-11.823,-22.886,19.048,19.937,11.556,12.5,10.692,2.7697,2.0221,13.793,18.141001
-7.7093,-5.5873,-15.469,-14.706,-13.793,-18.615,-18.447001,-10.744,-3.9482,-14.706,-13.793,-22.886,10.476,11.365,2.0317,3.8462,1.0306,-3.9936,2.0221,5.9113,10.449
-5.8136,-4.6349,-13.528,-7.8431,-7.8818,-7.0209,-10.68,-12.686,1.877,-7.8431,-7.8818,-14.925,7.619,7.5556,-1.7778,0.0,-4.7665,-3.0274,4.8657,3.9409,8.5256
-9.6051,-6.5397,-16.440001,-4.902,-6.8966,-7.9871,-9.7087,0.90615,2.8479,-4.902,-6.8966,-11.94,3.8095,2.7937,-7.4921,-5.7692,-10.564,-4.9597,5.8136,-0.98522,4.6795
-11.501,-9.3968,-17.410999,-2.9412,-2.9557,-9.9195,-7.767,8.6731,2.8479,-2.9412,-2.9557,-9.9502,0.0,-0.06349,-13.206,-10.577,-15.395,-5.9259,4.8657,-6.8966,0.83333
-10.553,-12.254,-17.410999,-0.98039,1.9704,-3.1562,-4.8544,-7.8317,5.7605,-0.98039,1.9704,-5.9701,-2.8571,-1.9683,-15.111,-14.423,-18.292999,-6.8921,2.97,-8.867,-3.9744
-12.449,-18.921,-20.323999,0.98039,2.9557,-4.1224,-6.7961,-16.57,3.8188,0.98039,2.9557,-6.9652,-7.619,-7.6825,-19.872999,-22.115,-22.158001,-12.689,-1.7694,-12.808,-11.667
-19.084,-21.778,-22.264999,1.9608,4.9261,-6.0548,-7.767,-8.8026,3.8188,1.9608,4.9261,-7.9602,-10.476,-10.54,-23.683001,-23.077,-23.124001,-14.622,-4.613,-17.733999,-11.667
-26.667,-21.778,-25.177999,-2.9412,-1.9704,-11.852,-12.621,-3.9482,-1.0356,-2.9412,-1.9704,-13.93,-13.333,-11.492,-28.444,-22.115,-24.09,-19.452,-7.4566,-22.66,-11.667
-24.771,-17.016001,-22.264999,-5.8824,-5.9113,-15.717,-13.592,-2.9773,-4.9191,-5.8824,-5.9113,-15.92,-10.476,-9.5873,-26.540001,-17.308001,-18.292999,-21.385,-6.5087,-20.690001,-9.7436
-21.927,-9.3968,-16.440001,-6.8627,-8.867,-15.717,-13.592,-8.8026,-5.89,-6.8627,-8.867,-15.92,-4.7619,-3.873,-18.921,-7.6923,-9.5974,-19.452,-3.6651,-14.778,-3.0128
-19.084,-5.5873,-10.615,-6.8627,-9.8522,-18.615,-12.621,-20.452999,-6.8608,-6.8627,-9.8522,-14.925,0.95238,0.88889,-11.302,0.0,-0.90177,-18.486,-0.82148,-10.837,4.6795
-12.449,-4.6349,-5.7605,-12.745,-11.823,-13.784,-14.563,-27.249001,-8.8026,-12.745,-11.823,-13.93,4.7619,2.7937,-4.6349,2.8846,3.9291,-18.486,2.0221,-6.8966,6.6026
-5.8136,0.12698,1.0356,-16.667,-13.793,-13.784,-9.7087,-15.599,-11.715,-16.667,-13.793,-11.94,8.5714,5.6508,2.9841,6.7308,8.7601,-12.689,3.9179,-1.9704,9.4872
-2.0221,6.7937,5.89,-12.745,-8.867,-10.886,-2.9126,-9.7735,1.877,-12.745,-8.867,-6.9652,7.619,4.6984,3.9365,6.7308,9.7262,-9.7907,8.6572,0.0,9.4872
2.7172,12.508,10.744,-9.8039,-3.9409,-4.1224,6.7961,-12.686,12.557,-9.8039,-3.9409,0.0,7.619,4.6984,5.8413,8.6538,10.692,-5.9259,14.344,0.98522,10.449
0.82148,11.556,9.7735,-17.646999,-6.8966,-5.0886,6.7961,-24.337,14.498,-17.646999,-6.8966,0.0,4.7619,2.7937,3.9365,4.8077,7.7939,-6.8921,11.501,-0.98522,7.5641
4.613,7.746,10.744,-16.667,-4.9261,2.6409,7.767,-18.511,14.498,-16.667,-4.9261,3.9801,3.8095,1.8413,4.8889,1.9231,6.8277,-1.095,7.7093,1.9704,2.7564
7.4566,4.8889,11.715,-8.8235,-1.9704,4.5733,9.7087,3.8188,13.528,-8.8235,-1.9704,7.9602,7.619,3.746,5.8413,0.96154,6.8277,7.6006,4.8657,7.8818,0.83333
5.5608,-0.8254,5.89,-4.902,-0.98522,6.5056,5.8252,5.7605,11.586,-4.902,-0.98522,5.9701,3.8095,1.8413,1.0794,-4.8077,1.0306,9.533,1.0742,2.9557,-3.9744
6.5087,-2.7302,2.0065,-0.98039,-1.9704,4.5733,1.9417,5.7605,8.6731,-0.98039,-1.9704,3.9801,-2.8571,-1.9683,-2.7302,-6.7308,-2.8341,7.6006,-0.82148,-2.9557,-7.8205
2.7172,-0.8254,0.06472,-1.9608,-0.98522,1.6747,1.9417,2.8479,8.6731,-1.9608,-0.98522,0.99502,-8.5714,-4.8254,-6.5397,-7.6923,-6.6989,6.6345,-0.82148,-5.9113,-7.8205
-6.7615,-3.6825,-8.6731,-5.8824,-0.98522,-4.1224,0.0,5.7605,9.644,-5.8824,-0.98522,-3.9801,-18.094999,-13.397,-16.063,-13.462,-16.361,1.8035,0.12638,-14.778,-13.59
-11.501,-9.3968,-16.440001,-3.9216,0.0,-7.9871,-3.8835,10.615,8.6731,-3.9216,0.0,-5.9701,-24.761999,-20.063,-21.778,-19.231001,-25.056,-2.0612,-2.7172,-17.733999,-14.551
-12.449,-13.206,-20.323999,2.9412,0.98522,-3.1562,-5.8252,4.7896,7.7023,2.9412,0.98522,-5.9701,-28.570999,-23.872999,-24.635,-23.077,-29.886999,-2.0612,-3.6651,-17.733999,-16.474001
-15.292,-18.921,-24.207001,0.0,-2.9557,-4.1224,-11.65,3.8188,3.8188,0.0,-2.9557,-9.9502,-29.524,-26.73,-27.492001,-25.962,-33.751999,-3.9936,-4.613,-17.733999,-19.358999
-16.24,-21.778,-25.177999,-2.9412,-4.9261,-6.0548,-14.563,2.8479,0.90615,-2.9412,-4.9261,-11.94,-26.667,-25.778,-25.587,-26.923,-32.785999,-2.0612,-6.5087,-14.778,-18.396999
-11.501,-21.778,-19.353001,-0.98039,-4.9261,-2.19,-12.621,-3.9482,-1.0356,-0.98039,-4.9261,-8.9552,-21.905001,-22.921,-19.872999,-25.962,-27.955,-0.12882,-6.5087,-10.837,-15.513
-8.6572,-21.778,-14.498,-1.9608,-4.9261,-3.1562,-10.68,-10.744,-2.9773,-1.9608,-4.9261,-5.9701,-20.0,-22.921,-16.063,-25.962,-25.056,-2.0612,-8.4044,-9.8522,-15.513
-4.8657,-16.063,-6.7314,-2.9412,-5.9113,-4.1224,-6.7961,-0.06472,-2.9773,-2.9412,-5.9113,-3.9801,-14.286,-18.159,-9.3968,-20.191999,-17.327,-3.0274,-5.5608,-7.8818,-10.705
-3.9179,-10.349,-1.877,-5.8824,-9.8522,-7.9871,-4.8544,3.8188,-5.89,-5.8824,-9.8522,-3.9801,-11.429,-14.349,-6.5397,-14.423,-10.564,-3.9936,-5.5608,-5.9113,-6.859
-2.97,-4.6349,2.0065,-4.902,-9.8522,-2.19,-2.9126,-2.9773,-6.8608,-4.902,-9.8522,0.0,-8.5714,-9.5873,-4.6349,-8.6538,-6.6989,-3.9936,-3.6651,-6.8966,-3.0128
-3.9179,4.8889,6.8608,2.9412,0.0,0.70853,6.7961,6.7314,-0.06472,2.9412,0.0,7.9602,-2.8571,-2.9206,-2.7302,-0.96154,-0.90177,0.83736,1.0742,-2.9557,0.83333
-1.0742,10.603,10.744,1.9608,3.9409,4.5733,13.592,1.877,3.8188,1.9608,3.9409,11.94,0.0,0.88889,0.12698,4.8077,4.8953,2.7697,2.0221,-0.98522,2.7564
2.7172,12.508,13.657,1.9608,4.9261,6.5056,15.534,4.7896,2.8479,1.9608,4.9261,14.925,0.95238,2.7937,2.0317,7.6923,7.7939,4.7021,2.97,-0.98522,3.7179
7.4566,11.556,14.628,6.8627,5.9113,9.4042,15.534,14.498,4.7896,6.8627,5.9113,15.92,1.9048,2.7937,4.8889,9.6154,9.7262,7.6006,2.97,0.98522,3.7179
12.196,8.6984,12.686,11.765,6.8966,15.201,13.592,6.7314,4.7896,11.765,6.8966,16.915001,0.95238,0.88889,6.7937,6.7308,8.7601,9.533,2.97,3.9409,-0.12821
18.830999,7.746,11.715,9.8039,8.867,15.201,13.592,12.557,7.7023,9.8039,8.867,16.915001,1.9048,0.88889,10.603,3.8462,8.7601,15.33,5.8136,8.867,-3.9744
21.674999,8.6984,14.628,7.8431,9.8522,21.965,16.504999,-2.9773,10.615,7.8431,9.8522,18.905001,1.9048,-0.06349,13.46,3.8462,9.7262,17.261999,5.8136,11.823,-4.9359
18.830999,10.603,17.540001,10.784,11.823,17.134001,18.447001,12.557,11.586,10.784,11.823,18.905001,0.0,-1.9683,13.46,4.8077,9.7262,16.296,5.8136,9.8522,-5.8974
18.830999,15.365,21.424,13.725,12.808,18.1,20.388,16.440001,13.528,13.725,12.808,21.891001,0.95238,-0.06349,14.413,8.6538,12.625,14.364,7.7093,8.867,-4.9359
12.196,16.316999,17.540001,10.784,11.823,13.269,18.447001,10.615,10.615,10.784,11.823,18.905001,-0.95238,-2.9206,10.603,7.6923,9.7262,9.533,6.7615,5.9113,-5.8974
10.3,14.413,11.715,6.8627,9.8522,8.438,14.563,18.382,8.6731,6.8627,9.8522,13.93,-0.95238,-2.9206,8.6984,6.7308,7.7939,7.6006,4.8657,4.9261,-5.8974
9.3523,12.508,9.7735,5.8824,8.867,10.37,12.621,4.7896,6.7314,5.8824,8.867,11.94,-1.9048,-3.873,7.746,4.8077,5.8615,3.7359,3.9179,2.9557,-4.9359
1.7694,9.6508,5.89,0.0,5.9113,4.5733,8.7379,-8.8026,4.7896,0.0,5.9113,5.9701,-3.8095,-4.8254,3.9365,2.8846,1.9968,-3.9936,2.97,-0.98522,-3.9744
-0.12638,8.6984,4.9191,1.9608,6.8966,1.6747,8.7379,-4.9191,4.7896,1.9608,6.8966,4.9751,-1.9048,-1.9683,2.9841,3.8462,2.963,-6.8921,2.97,-1.9704,-1.0897
-2.97,6.7937,3.9482,5.8824,6.8966,1.6747,7.767,-5.89,5.7605,5.8824,6.8966,4.9751,0.0,0.88889,2.0317,6.7308,3.9291,-6.8921,2.97,-2.9557,2.7564
-3.9179,2.9841,0.06472,4.902,6.8966,1.6747,4.8544,-2.9773,2.8479,4.902,6.8966,3.9801,1.9048,2.7937,0.12698,7.6923,2.963,-6.8921,2.0221,-3.9409,5.641
-3.9179,1.0794,0.06472,3.9216,3.9409,3.6071,0.97087,4.7896,-1.0356,3.9216,3.9409,2.9851,1.9048,4.6984,-0.8254,8.6538,2.963,-5.9259,0.12638,-3.9409,8.5256
-7.7093,0.12698,-1.877,3.9216,1.9704,-2.19,-0.97087,6.7314,-4.9191,3.9216,1.9704,0.99502,-1.9048,2.7937,-5.5873,6.7308,0.06441,-6.8921,-2.7172,-7.8818,6.6026
-4.8657,4.8889,1.0356,3.9216,1.9704,-1.2238,0.97087,11.586,-3.9482,3.9216,1.9704,1.99,-0.95238,3.746,-6.5397,6.7308,1.0306,-2.0612,-2.7172,-6.8966,5.641
-0.12638,5.8413,2.9773,1.9608,-0.98522,1.6747,1.9417,4.7896,-5.89,1.9608,-0.98522,2.9851,-0.95238,2.7937,-3.6825,5.7692,1.9968,2.7697,-1.7694,-0.98522,3.7179
1.7694,3.9365,2.9773,0.0,-1.9704,1.6747,-0.97087,4.7896,-7.8317,0.0,-1.9704,0.0,-0.95238,1.8413,-0.8254,3.8462,1.9968,4.7021,-3.6651,1.9704,1.7949
8.4044,2.0317,5.89,1.9608,-0.98522,5.5395,0.97087,4.7896,-8.8026,1.9608,-0.98522,2.9851,0.95238,1.8413,4.8889,4.8077,4.8953,6.6345,-4.613,5.9113,2.7564
15.039,0.12698,9.7735,2.9412,0.0,9.4042,1.9417,-2.0065,-8.8026,2.9412,0.0,6.9652,3.8095,2.7937,10.603,3.8462,7.7939,8.5668,-5.5608,9.8522,1.7949
18.830999,0.12698,11.715,0.98039,-1.9704,13.269,2.9126,-6.8608,-8.8026,0.98039,-1.9704,7.9602,6.6667,3.746,14.413,3.8462,10.692,11.465,-5.5608,15.764,-0.12821
23.57,5.8413,16.57,1.9608,0.0,17.134001,6.7961,-2.0065,-4.9191,1.9608,0.0,11.94,11.429,6.6032,19.174999,7.6923,14.557,13.398,-1.7694,19.704,2.7564
20.726999,7.746,15.599,1.9608,1.9704,8.438,6.7961,11.586,-2.9773,1.9608,1.9704,8.9552,13.333,7.5556,19.174999,8.6538,15.523,10.499,0.12638,19.704,1.7949
15.987,10.603,14.628,1.9608,4.9261,4.5733,8.7379,10.615,-0.06472,1.9608,4.9261,7.9602,12.381,6.6032,17.27,8.6538,14.557,5.6683,2.97,17.733999,1.7949
11.248,14.413,13.657,2.9412,7.8818,6.5056,10.68,4.7896,3.8188,2.9412,7.8818,9.9502,8.5714,5.6508,12.508,11.538,12.625,0.83736,6.7615,9.8522,4.6795
7.4566,19.174999,14.628,4.902,12.808,10.37,16.504999,-2.9773,9.644,4.902,12.808,13.93,5.7143,6.6032,7.746,15.385,11.659,-3.9936,11.501,3.9409,8.5256
0.82148,20.127001,12.686,7.8431,14.778,10.37,17.476,-3.9482,12.557,7.8431,14.778,14.925,4.7619,4.6984,2.0317,14.423,8.7601,-7.8583,12.449,0.98522,10.449
-2.97,15.365,7.8317,11.765,14.778,10.37,17.476,3.8188,11.586,11.765,14.778,15.92,0.95238,0.88889,-1.7778,10.577,3.9291,-7.8583,10.553,-2.9557,7.5641
-4.8657,8.6984,2.9773,14.706,14.778,7.4718,13.592,5.7605,9.644,14.706,14.778,12.935,0.0,-1.0159,-3.6825,5.7692,1.0306,-3.9936,7.7093,-2.9557,2.7564
-2.97,3.9365,2.0065,13.725,10.837,7.4718,8.7379,8.6731,2.8479,13.725,10.837,9.9502,2.8571,-0.06349,0.12698,4.8077,1.9968,1.8035,3.9179,1.9704,1.7949
-5.8136,-3.6825,-2.8479,6.8627,4.9261,4.5733,0.97087,1.877,0.90615,6.8627,4.9261,2.9851,-0.95238,-5.7778,-2.7302,-0.96154,-2.8341,1.8035,1.0742,-0.98522,-3.0128
-5.8136,-9.3968,-4.7896,0.98039,3.9409,4.5733,-1.9417,-21.424,8.6731,0.98039,3.9409,-0.99502,-6.6667,-9.5873,-4.6349,-6.7308,-6.6989,-1.095,2.97,-5.9113,-5.8974
-4.8657,-9.3968,-2.8479,-2.9412,0.0,-3.1562,-1.9417,0.90615,10.615,-2.9412,0.0,-2.9851,-6.6667,-10.54,-1.7778,-7.6923,-4.7665,0.83736,2.0221,-4.9261,-5.8974
-1.0742,-5.5873,0.06472,-4.902,-4.9261,-8.9533,-2.9126,17.410999,5.7605,-4.902,-4.9261,-3.9801,-3.8095,-7.6825,3.9365,-4.8077,-0.90177,5.6683,-0.82148,-1.9704,-3.9744
6.5087,-0.8254,3.9482,-8.8235,-9.8522,-7.0209,-5.8252,8.6731,-0.06472,-8.8235,-9.8522,-4.9751,-0.95238,-3.873,9.6508,0.0,4.8953,5.6683,-1.7694,-1.9704,0.83333
6.5087,2.0317,4.9191,-13.725,-11.823,-3.1562,-4.8544,-2.0065,-2.0065,-13.725,-11.823,-4.9751,0.0,-1.0159,10.603,3.8462,5.8615,3.7359,-1.7694,-2.9557,5.641
4.613,5.8413,2.9773,-12.745,-9.8522,-3.1562,-1.9417,-3.9482,0.90615,-12.745,-9.8522,-3.9801,1.9048,3.746,7.746,6.7308,6.8277,-0.12882,2.0221,-1.9704,8.5256
1.7694,4.8889,0.06472,-9.8039,-7.8818,-6.0548,-1.9417,-4.9191,0.90615,-9.8039,-7.8818,-3.9801,1.9048,6.6032,5.8413,7.6923,4.8953,-0.12882,2.97,-0.98522,9.4872
-0.12638,0.12698,-2.8479,-10.784,-9.8522,-7.9871,-6.7961,-3.9482,-3.9482,-10.784,-9.8522,-7.9602,0.95238,5.6508,4.8889,4.8077,1.9968,-2.0612,-0.82148,0.0,8.5256
4.613,-2.7302,-0.90615,-14.706,-14.778,-6.0548,-9.7087,-8.8026,-7.8317,-14.706,-14.778,-8.9552,4.7619,9.4603,9.6508,5.7692,3.9291,-3.9936,-2.7172,3.9409,11.41
14.092,-0.8254,3.9482,-8.8235,-10.837,6.5056,-4.8544,-31.132999,-3.9482,-8.8235,-10.837,-1.99,10.476,12.317,15.365,6.7308,8.7601,-1.095,-0.82148,10.837,12.372
9.3523,-0.8254,2.0065,-7.8431,-10.837,3.6071,-4.8544,-8.8026,-2.9773,-7.8431,-10.837,-2.9851,12.381,13.27,14.413,6.7308,8.7601,-1.095,-1.7694,11.823,8.5256
2.7172,-1.7778,-0.90615,-6.8627,-8.867,-7.0209,-5.8252,8.6731,-2.9773,-6.8627,-8.867,-5.9701,15.238,16.127001,12.508,9.6154,9.7262,-0.12882,-2.7172,13.793,10.449
2.7172,0.12698,-1.877,-7.8431,-9.8522,-6.0548,-7.767,0.90615,-1.0356,-7.8431,-9.8522,-6.9652,19.048,18.983999,11.556,12.5,11.659,-0.12882,-2.7172,14.778,10.449
-0.12638,-1.7778,-4.7896,-9.8039,-9.8522,-9.9195,-9.7087,-4.9191,-1.0356,-9.8039,-9.8522,-10.945,19.048,18.983999,9.6508,11.538,10.692,-1.095,-2.7172,11.823,10.449
-0.12638,-4.6349,-5.7605,-11.765,-9.8522,-12.818,-10.68,-18.511,-0.06472,-11.765,-9.8522,-11.94,20.0,17.079,10.603,9.6154,9.7262,-1.095,-2.7172,11.823,9.4872
1.7694,-5.5873,-3.8188,-9.8039,-5.9113,-10.886,-8.7379,-15.599,0.90615,-9.8039,-5.9113,-9.9502,20.952,18.032,13.46,9.6154,11.659,2.7697,-1.7694,13.793,7.5641
-1.0742,-7.4921,-3.8188,-11.765,-8.867,-12.818,-10.68,-5.89,-0.06472,-11.765,-8.867,-12.935,19.048,16.127001,10.603,6.7308,9.7262,1.8035,-0.82148,11.823,6.6026
-2.0221,-5.5873,-1.877,-7.8431,-4.9261,-4.1224,-7.767,-11.715,0.90615,-7.8431,-4.9261,-7.9602,16.190001,13.27,8.6984,7.6923,8.7601,2.7697,2.97,10.837,8.5256
-4.8657,-3.6825,-1.877,-5.8824,-1.9704,-4.1224,-5.8252,-11.715,3.8188,-5.8824,-1.9704,-5.9701,9.5238,8.5079,2.9841,5.7692,4.8953,1.8035,4.8657,5.9113,8.5256
-3.9179,-2.7302,-3.8188,-7.8431,0.98522,-6.0548,-4.8544,-9.7735,3.8188,-7.8431,0.98522,-6.9652,4.7619,4.6984,0.12698,2.8846,0.06441,0.83736,5.8136,2.9557,6.6026
-6.7615,-1.7778,-6.7314,-9.8039,-1.9704,-10.886,-7.767,-2.9773,0.90615,-9.8039,-1.9704,-12.935,-0.95238,-0.06349,-3.6825,0.96154,-3.8003,-1.095,5.8136,0.0,3.7179
-8.6572,-0.8254,-8.6731,-9.8039,-4.9261,-14.75,-7.767,3.8188,0.90615,-9.8039,-4.9261,-15.92,-3.8095,-0.06349,-7.4921,0.0,-4.7665,-3.0274,5.8136,-2.9557,4.6795
-8.6572,1.0794,-7.7023,-4.902,-3.9409,-10.886,-4.8544,-1.0356,-1.0356,-4.902,-3.9409,-11.94,-0.95238,2.7937,-8.4444,1.9231,-3.8003,-3.0274,3.9179,-0.98522,4.6795
-9.6051,2.0317,-4.7896,-0.98039,-1.9704,-7.9871,-2.9126,-4.9191,-2.0065,-0.98039,-1.9704,-7.9602,0.95238,6.6032,-8.4444,3.8462,-0.90177,-4.9597,1.0742,-2.9557,6.6026
-2.97,4.8889,2.9773,0.98039,1.9704,-2.19,0.0,-2.9773,-2.9773,0.98039,1.9704,-0.99502,6.6667,12.317,-1.7778,8.6538,5.8615,-2.0612,-0.82148,0.98522,9.4872
4.613,4.8889,8.8026,5.8824,1.9704,4.5733,0.97087,4.7896,-3.9482,5.8824,1.9704,2.9851,14.286,17.079,6.7937,12.5,13.591,2.7697,-3.6651,8.867,9.4872
9.3523,2.9841,8.8026,4.902,1.9704,9.4042,0.0,-4.9191,-5.89,4.902,1.9704,2.9851,19.048,18.983999,12.508,11.538,16.49,2.7697,-6.5087,11.823,7.5641
10.3,-1.7778,5.89,1.9608,-0.98522,8.438,-3.8835,-12.686,-7.8317,1.9608,-0.98522,0.99502,20.0,17.079,13.46,7.6923,15.523,1.8035,-10.3,11.823,3.7179
2.7172,-7.4921,0.06472,1.9608,-0.98522,1.6747,-6.7961,-5.89,-10.744,1.9608,-0.98522,-1.99,16.190001,14.222,7.746,2.8846,9.7262,1.8035,-13.144,8.867,-0.12821
-4.8657,-13.206,-6.7314,0.0,-2.9557,-6.0548,-11.65,8.6731,-13.657,0.0,-2.9557,-7.9602,10.476,7.5556,0.12698,-4.8077,0.06441,1.8035,-14.092,4.9261,-3.0128
-9.6051,-18.921,-12.557,-0.98039,-4.9261,-7.9871,-13.592,-0.06472,-13.657,-0.98039,-4.9261,-10.945,0.95238,-1.9683,-9.3968,-15.385,-10.564,-3.9936,-15.039,-2.9557,-8.7821
-7.7093,-18.921,-13.528,-1.9608,-3.9409,-5.0886,-10.68,-5.89,-9.7735,-1.9608,-3.9409,-6.9652,-3.8095,-7.6825,-11.302,-20.191999,-16.361,-5.9259,-12.196,-4.9261,-13.59
-6.7615,-12.254,-10.615,2.9412,1.9704,-2.19,-3.8835,7.7023,-3.9482,2.9412,1.9704,-1.99,-8.5714,-11.492,-12.254,-19.231001,-17.327,-1.095,-5.5608,-5.9113,-12.628
-7.7093,-5.5873,-7.7023,6.8627,6.8966,-2.19,0.97087,4.7896,3.8188,6.8627,6.8966,0.0,-13.333,-15.302,-14.159,-17.308001,-18.292999,0.83736,0.12638,-7.8818,-10.705
-4.8657,-1.7778,-5.7605,9.8039,9.8522,-0.25765,2.9126,8.6731,5.7605,9.8039,9.8522,1.99,-16.190001,-16.254,-14.159,-14.423,-18.292999,2.7697,2.97,-9.8522,-8.7821
-5.8136,-1.7778,-5.7605,8.8235,6.8966,0.70853,1.9417,8.6731,4.7896,8.8235,6.8966,0.99502,-17.143,-17.205999,-14.159,-13.462,-17.327,1.8035,2.0221,-11.823,-8.7821
-3.9179,-0.8254,-2.8479,11.765,8.867,5.5395,3.8835,10.615,6.7314,11.765,8.867,3.9801,-16.190001,-16.254,-12.254,-11.538,-14.428,2.7697,2.97,-11.823,-8.7821
-2.97,2.9841,1.0356,15.686,11.823,8.438,8.7379,13.528,9.644,15.686,11.823,7.9602,-14.286,-13.397,-10.349,-8.6538,-10.564,1.8035,4.8657,-9.8522,-7.8205
3.6651,5.8413,2.9773,17.646999,16.749001,19.066,11.65,2.8479,12.557,17.646999,16.749001,12.935,-11.429,-10.54,-5.5873,-5.7692,-6.6989,1.8035,5.8136,-6.8966,-3.9744
5.5608,3.9365,1.0356,17.646999,17.733999,12.303,8.7379,14.498,13.528,17.646999,17.733999,9.9502,-6.6667,-6.7302,-2.7302,-4.8077,-3.8003,3.7359,5.8136,-2.9557,-2.0513
-2.0221,-2.7302,-7.7023,11.765,8.867,2.6409,0.0,12.557,6.7314,11.765,8.867,-0.99502,-5.7143,-5.7778,-5.5873,-6.7308,-6.6989,0.83736,2.0221,-3.9409,-4.9359
-5.8136,-4.6349,-10.615,7.8431,4.9261,-3.1562,-3.8835,7.7023,1.877,7.8431,4.9261,-5.9701,-1.9048,-2.9206,-6.5397,-5.7692,-5.7327,1.8035,0.12638,-0.98522,-4.9359
-5.8136,-3.6825,-7.7023,7.8431,2.9557,-1.2238,-1.9417,7.7023,1.877,7.8431,2.9557,-3.9801,1.9048,0.88889,-3.6825,-0.96154,-0.90177,1.8035,1.0742,1.9704,-1.0897
-8.6572,-5.5873,-3.8188,5.8824,3.9409,-3.1562,0.0,-1.0356,-0.06472,5.8824,3.9409,-0.99502,2.8571,0.88889,-4.6349,-2.8846,-0.90177,-2.0612,-1.7694,0.0,-3.9744
-3.9179,-6.5397,1.0356,2.9412,4.9261,2.6409,2.9126,0.90615,-1.0356,2.9412,4.9261,2.9851,1.9048,-1.9683,-3.6825,-5.7692,-0.90177,-1.095,-2.7172,0.98522,-7.8205
-2.0221,-11.302,-1.877,-0.98039,2.9557,3.6071,0.97087,1.877,-4.9191,-0.98039,2.9557,2.9851,-3.8095,-7.6825,-7.4921,-12.5,-7.6651,0.83736,-4.613,-2.9557,-10.705
-5.8136,-16.063,-8.6731,1.9608,-2.9557,-1.2238,-4.8544,12.557,-5.89,1.9608,-2.9557,-0.99502,-12.381,-15.302,-15.111,-20.191999,-16.361,-0.12882,-5.5608,-10.837,-16.474001
-1.0742,-12.254,-7.7023,5.8824,0.98522,9.4042,-0.97087,-3.9482,-0.06472,5.8824,0.98522,2.9851,-14.286,-18.159,-14.159,-21.153999,-17.327,1.8035,-2.7172,-12.808,-18.396999
-1.0742,-6.5397,-3.8188,7.8431,5.9113,6.5056,3.8835,11.586,4.7896,7.8431,5.9113,4.9751,-15.238,-18.159,-13.206,-19.231001,-15.395,1.8035,1.0742,-13.793,-16.474001
0.82148,-0.8254,1.0356,11.765,10.837,5.5395,10.68,22.264999,8.6731,11.765,10.837,9.9502,-15.238,-17.205999,-9.3968,-16.346001,-12.496,3.7359,3.9179,-12.808,-11.667
4.613,2.0317,2.9773,10.784,11.823,13.269,12.621,5.7605,9.644,10.784,11.823,12.935,-16.190001,-16.254,-7.4921,-13.462,-11.53,4.7021,6.7615,-12.808,-9.7436
1.7694,2.9841,0.06472,3.9216,5.9113,7.4718,9.7087,5.7605,7.7023,3.9216,5.9113,7.9602,-19.048,-17.205999,-8.4444,-9.6154,-10.564,-0.12882,6.7615,-13.793,-5.8974
1.7694,7.746,2.9773,5.8824,3.9409,3.6071,7.767,10.615,6.7314,5.8824,3.9409,5.9701,-14.286,-12.444,-4.6349,-1.9231,-3.8003,1.8035,9.6051,-8.867,0.83333
2.7172,8.6984,4.9191,6.8627,4.9261,4.5733,4.8544,4.7896,5.7605,6.8627,4.9261,3.9801,-5.7143,-5.7778,1.0794,2.8846,1.0306,6.6345,8.6572,0.98522,2.7564
2.7172,4.8889,2.9773,6.8627,3.9409,1.6747,0.0,8.6731,0.90615,6.8627,3.9409,0.0,1.9048,-0.06349,4.8889,3.8462,3.9291,9.533,3.9179,9.8522,2.7564
0.82148,0.12698,0.06472,4.902,1.9704,-3.1562,-3.8835,7.7023,-2.9773,4.902,1.9704,-3.9801,5.7143,3.746,6.7937,4.8077,5.8615,6.6345,1.0742,12.808,3.7179
2.7172,2.0317,1.0356,2.9412,2.9557,-0.25765,-1.9417,-0.06472,-3.9482,2.9412,2.9557,-1.99,8.5714,7.5556,7.746,7.6923,8.7601,4.7021,1.0742,12.808,5.641
5.5608,5.8413,4.9191,1.9608,2.9557,1.6747,1.9417,-0.06472,-1.0356,1.9608,2.9557,0.99502,11.429,9.4603,10.603,11.538,12.625,2.7697,2.97,10.837,6.6026
11.248,10.603,9.7735,6.8627,5.9113,13.269,5.8252,-5.89,1.877,6.8627,5.9113,5.9701,14.286,12.317,14.413,13.462,15.523,4.7021,6.7615,11.823,8.5256
11.248,12.508,11.715,12.745,9.8522,10.37,7.767,17.410999,4.7896,12.745,9.8522,7.9602,13.333,10.413,14.413,12.5,14.557,4.7021,6.7615,9.8522,5.641
7.4566,11.556,10.744,14.706,12.808,1.6747,7.767,21.294001,3.8188,14.706,12.808,7.9602,9.5238,6.6032,11.556,9.6154,12.625,2.7697,3.9179,6.8966,0.83333
5.5608,12.508,10.744,10.784,11.823,5.5395,8.7379,-5.89,3.8188,10.784,11.823,8.9552,6.6667,4.6984,7.746,7.6923,9.7262,-0.12882,3.9179,3.9409,-1.0897
4.613,12.508,11.715,12.745,13.793,6.5056,13.592,4.7896,4.7896,12.745,13.793,12.935,4.7619,3.746,3.9365,4.8077,5.8615,-1.095,2.97,1.9704,-2.0513
0.82148,6.7937,8.8026,16.667,15.764,10.37,15.534,3.8188,5.7605,16.667,15.764,16.915001,0.0,-1.9683,-3.6825,-1.9231,-1.868,-1.095,0.12638,-1.9704,-7.8205
-2.97,0.12698,4.9191,17.646999,16.749001,13.269,16.504999,11.586,4.7896,17.646999,16.749001,19.9,-8.5714,-9.5873,-11.302,-10.577,-10.564,-3.0274,-4.613,-8.867,-14.551
-1.0742,1.0794,6.8608,17.646999,15.764,15.201,16.504999,15.469,4.7896,17.646999,15.764,21.891001,-12.381,-13.397,-10.349,-11.538,-11.53,-0.12882,-7.4566,-9.8522,-17.436001
9.3523,6.7937,14.628,21.569,17.733999,21.965,19.417,8.6731,5.7605,21.569,17.733999,24.875999,-8.5714,-10.54,-2.7302,-5.7692,-3.8003,6.6345,-6.5087,-4.9261,-15.513
8.4044,7.746,14.628,18.627001,13.793,13.269,15.534,19.353001,4.7896,18.627001,13.793,19.9,-9.5238,-9.5873,-0.8254,-3.8462,-1.868,7.6006,-5.5608,-5.9113,-14.551
3.6651,2.9841,7.8317,11.765,8.867,4.5733,9.7087,16.440001,2.8479,11.765,8.867,12.935,-10.476,-9.5873,-3.6825,-6.7308,-3.8003,3.7359,-6.5087,-8.867,-13.59
3.6651,2.0317,6.8608,10.784,9.8522,6.5056,10.68,11.586,4.7896,10.784,9.8522,13.93,-6.6667,-6.7302,-2.7302,-4.8077,-2.8341,4.7021,-3.6651,-6.8966,-10.705
4.613,3.9365,8.8026,11.765,9.8522,6.5056,11.65,8.6731,6.7314,11.765,9.8522,14.925,-2.8571,-3.873,0.12698,-1.9231,0.06441,6.6345,-0.82148,-1.9704,-5.8974
7.4566,4.8889,10.744,6.8627,5.9113,10.37,9.7087,-2.0065,5.7605,6.8627,5.9113,13.93,0.0,-1.9683,2.0317,0.96154,1.9968,7.6006,0.12638,0.0,-3.0128
2.7172,2.9841,5.89,-2.9412,0.0,8.438,4.8544,-9.7735,2.8479,-2.9412,0.0,7.9602,-3.8095,-3.873,-2.7302,-0.96154,-0.90177,-1.095,0.12638,-4.9261,-2.0513
-0.12638,2.0317,2.9773,-1.9608,1.9704,0.70853,3.8835,4.7896,2.8479,-1.9608,1.9704,3.9801,-0.95238,-1.0159,-2.7302,0.0,-1.868,-4.9597,2.97,-2.9557,0.83333
2.7172,2.0317,1.0356,-1.9608,0.0,0.70853,1.9417,2.8479,0.90615,-1.9608,0.0,2.9851,5.7143,4.6984,2.0317,2.8846,1.9968,-3.0274,2.97,5.9113,3.7179
1.7694,0.12698,1.0356,-1.9608,0.0,4.5733,1.9417,-10.744,-1.0356,-1.9608,0.0,3.9801,6.6667,5.6508,2.9841,2.8846,1.9968,-3.0274,2.97,5.9113,4.6795
-1.0742,-0.8254,1.0356,0.0,0.0,4.5733,2.9126,-4.9191,-1.0356,0.0,0.0,5.9701,2.8571,2.7937,0.12698,0.96154,0.06441,-5.9259,2.0221,1.9704,2.7564
0.82148,2.9841,4.9191,3.9216,3.9409,6.5056,7.767,-2.9773,-0.06472,3.9216,3.9409,9.9502,1.9048,1.8413,0.12698,0.96154,0.06441,-6.8921,3.9179,0.0,3.7179
-2.97,3.9365,2.9773,0.98039,2.9557,-0.25765,6.7961,1.877,-1.0356,0.98039,2.9557,6.9652,0.0,-0.06349,-1.7778,-0.96154,-2.8341,-7.8583,3.9179,-0.98522,2.7564
-1.0742,5.8413,2.9773,0.98039,4.9261,-1.2238,6.7961,1.877,-2.0065,0.98039,4.9261,5.9701,0.95238,-0.06349,-0.8254,0.0,-1.868,-4.9597,3.9179,0.0,2.7564
-0.12638,8.6984,2.9773,1.9608,2.9557,-0.25765,5.8252,-5.89,-1.0356,1.9608,2.9557,3.9801,0.0,0.88889,0.12698,1.9231,-0.90177,-4.9597,4.8657,-1.9704,2.7564
-1.0742,8.6984,2.0065,-0.98039,0.0,-3.1562,3.8835,-7.8317,-1.0356,-0.98039,0.0,0.99502,-0.95238,0.88889,0.12698,3.8462,-0.90177,-4.9597,5.8136,-3.9409,5.641
-0.12638,6.7937,0.06472,0.0,-1.9704,1.6747,0.97087,-17.540001,-2.9773,0.0,-1.9704,0.0,-2.8571,0.88889,-1.7778,3.8462,-1.868,-8.8245,3.9179,-7.8818,5.641
4.613,6.7937,3.9482,4.902,2.9557,7.4718,3.8835,-3.9482,-2.0065,4.902,2.9557,5.9701,0.95238,4.6984,2.0317,7.6923,2.963,-3.9936,2.97,-3.9409,7.5641
8.4044,7.746,7.8317,6.8627,5.9113,7.4718,5.8252,4.7896,-2.0065,6.8627,5.9113,9.9502,2.8571,6.6032,4.8889,9.6154,5.8615,-3.0274,1.0742,-2.9557,9.4872
5.5608,7.746,7.8317,6.8627,4.9261,3.6071,4.8544,-2.0065,-2.9773,6.8627,4.9261,7.9602,1.9048,6.6032,4.8889,9.6154,6.8277,-4.9597,-0.82148,-5.9113,9.4872
4.613,7.746,9.7735,2.9412,2.9557,2.6409,2.9126,-18.511,-4.9191,2.9412,2.9557,5.9701,3.8095,9.4603,5.8413,10.577,8.7601,-4.9597,-1.7694,-3.9409,8.5256
5.5608,5.8413,9.7735,-2.9412,-0.98522,-0.25765,0.0,-8.8026,-7.8317,-2.9412,-0.98522,1.99,8.5714,13.27,9.6508,12.5,12.625,-3.0274,-3.6651,2.9557,9.4872
5.5608,0.12698,4.9191,-6.8627,-4.9261,-7.0209,-4.8544,5.7605,-9.7735,-6.8627,-4.9261,-1.99,11.429,14.222,11.556,11.538,12.625,2.7697,-4.613,7.8818,9.4872
5.5608,-5.5873,2.0065,-6.8627,-7.8818,-5.0886,-8.7379,1.877,-8.8026,-6.8627,-7.8818,-3.9801,12.381,13.27,11.556,6.7308,10.692,0.83736,-4.613,12.808,7.5641
6.5087,-7.4921,2.0065,-4.902,-3.9409,-0.25765,-5.8252,0.90615,-7.8317,-4.902,-3.9409,-1.99,11.429,11.365,9.6508,3.8462,7.7939,0.83736,-5.5608,11.823,6.6026
1.7694,-5.5873,1.0356,-8.8235,-1.9704,-2.19,-4.8544,-4.9191,-6.8608,-8.8235,-1.9704,-3.9801,5.7143,4.6984,4.8889,-0.96154,1.9968,1.8035,-5.5608,8.867,2.7564
-1.0742,-3.6825,-3.8188,-7.8431,-3.9409,-4.1224,-5.8252,-9.7735,-7.8317,-7.8431,-3.9409,-7.9602,-0.95238,-1.9683,0.12698,-3.8462,-3.8003,0.83736,-5.5608,6.8966,-0.12821
0.82148,-1.7778,-6.7314,-7.8431,-6.8966,-8.9533,-7.767,0.90615,-8.8026,-7.8431,-6.8966,-11.94,-2.8571,-3.873,-0.8254,-2.8846,-5.7327,2.7697,-3.6651,6.8966,-0.12821
3.6651,0.12698,-5.7605,-6.8627,-6.8966,-7.9871,-8.7379,-0.06472,-8.8026,-6.8627,-6.8966,-11.94,-2.8571,-3.873,1.0794,-0.96154,-3.8003,4.7021,-2.7172,7.8818,-0.12821
0.82148,1.0794,-4.7896,-7.8431,-9.8522,-4.1224,-10.68,-12.686,-7.8317,-7.8431,-9.8522,-12.935,-2.8571,-3.873,1.0794,0.96154,-2.8341,3.7359,-1.7694,5.9113,0.83333
-2.97,3.9365,-2.8479,-9.8039,-8.867,-8.9533,-7.767,1.877,-3.9482,-9.8039,-8.867,-12.935,0.0,1.8413,2.0317,5.7692,1.0306,0.83736,2.0221,5.9113,7.5641
-3.9179,3.9365,-3.8188,-12.745,-9.8522,-14.75,-7.767,6.7314,-1.0356,-12.745,-9.8522,-13.93,2.8571,4.6984,3.9365,8.6538,3.9291,-0.12882,2.97,5.9113,8.5256
0.82148,4.8889,-2.8479,-8.8235,-7.8818,-9.9195,-6.7961,4.7896,-0.06472,-8.8235,-7.8818,-10.945,4.7619,7.5556,7.746,12.5,7.7939,3.7359,3.9179,6.8966,11.41
2.7172,4.8889,-1.877,-11.765,-10.837,-10.886,-7.767,-2.0065,-2.9773,-11.765,-10.837,-10.945,3.8095,7.5556,9.6508,13.462,8.7601,2.7697,3.9179,4.9261,10.449
5.5608,8.6984,2.9773,-11.765,-8.867,-7.0209,-3.8835,-9.7735,-2.9773,-11.765,-8.867,-7.9602,6.6667,9.4603,12.508,16.346001,11.659,3.7359,5.8136,6.8966,12.372
1.7694,6.7937,-0.90615,-9.8039,-6.8966,-6.0548,-2.9126,-11.715,-1.0356,-9.8039,-6.8966,-7.9602,5.7143,7.5556,8.6984,14.423,8.7601,2.7697,6.7615,6.8966,12.372
-6.7615,0.12698,-8.6731,-8.8235,-6.8966,-9.9195,-4.8544,-4.9191,-0.06472,-8.8235,-6.8966,-11.94,2.8571,5.6508,1.0794,8.6538,1.9968,0.83736,5.8136,3.9409,8.5256
-10.553,-5.5873,-13.528,-7.8431,-3.9409,-13.784,-6.7961,-0.06472,0.90615,-7.8431,-3.9409,-11.94,-2.8571,-0.06349,-4.6349,2.8846,-3.8003,0.83736,3.9179,0.0,2.7564
-5.8136,-6.5397,-10.615,-6.8627,-2.9557,-9.9195,-5.8252,0.90615,1.877,-6.8627,-2.9557,-9.9502,-6.6667,-2.9206,-3.6825,0.0,-4.7665,3.7359,2.0221,-0.98522,-1.0897
1.7694,-5.5873,-5.7605,0.0,0.0,-1.2238,-2.9126,-2.9773,2.8479,0.0,0.0,-6.9652,-7.619,-3.873,0.12698,0.0,-2.8341,7.6006,1.0742,0.98522,-2.0513
6.5087,-7.4921,-5.7605,0.98039,-6.8966,2.6409,-7.767,-1.0356,-2.9773,0.98039,-6.8966,-7.9602,-9.5238,-4.8254,1.0794,-0.96154,-3.8003,4.7021,-2.7172,-1.9704,-1.0897
5.5608,-10.349,-7.7023,-2.9412,-11.823,0.70853,-14.563,-0.06472,-10.744,-2.9412,-11.823,-10.945,-8.5714,-2.9206,1.0794,-0.96154,-3.8003,5.6683,-7.4566,-0.98522,1.7949
2.7172,-14.159,-10.615,-4.902,-12.808,-4.1224,-20.388,11.586,-13.657,-4.902,-12.808,-15.92,-3.8095,1.8413,2.0317,-0.96154,-1.868,8.5668,-9.3523,2.9557,2.7564
3.6651,-16.063,-11.586,-4.902,-14.778,-5.0886,-21.358999,7.7023,-17.540001,-4.902,-14.778,-16.915001,1.9048,6.6032,4.8889,0.96154,1.0306,9.533,-11.248,6.8966,5.641
-2.0221,-17.016001,-13.528,-1.9608,-17.733999,-6.0548,-23.301001,-0.06472,-20.452999,-1.9608,-17.733999,-17.91,3.8095,7.5556,2.0317,0.96154,1.0306,4.7021,-13.144,6.8966,7.5641
-7.7093,-12.254,-11.586,0.98039,-12.808,-10.886,-18.447001,2.8479,-17.540001,0.98039,-12.808,-15.92,5.7143,9.4603,0.12698,2.8846,1.9968,5.6683,-10.3,5.9113,9.4872
-7.7093,-5.5873,-7.7023,0.98039,-7.8818,-10.886,-12.621,10.615,-9.7735,0.98039,-7.8818,-12.935,9.5238,11.365,1.0794,6.7308,5.8615,6.6345,-3.6651,6.8966,9.4872
-7.7093,-1.7778,-6.7314,-0.98039,-5.9113,-7.9871,-9.7087,1.877,-3.9482,-0.98039,-5.9113,-11.94,9.5238,10.413,-0.8254,7.6923,5.8615,-0.12882,2.0221,4.9261,11.41
-4.8657,-0.8254,-2.8479,-5.8824,-5.9113,-3.1562,-6.7961,-17.540001,0.90615,-5.8824,-5.9113,-8.9552,7.619,8.5079,-0.8254,4.8077,4.8953,-7.8583,4.8657,-0.98522,8.5256
-2.97,0.12698,2.0065,-6.8627,-2.9557,-4.1224,-2.9126,-2.9773,3.8188,-6.8627,-2.9557,-4.9751,9.5238,7.5556,2.0317,2.8846,5.8615,-11.723,7.7093,-0.98522,4.6795
-1.0742,0.12698,4.9191,-4.902,0.0,-6.0548,0.0,4.7896,6.7314,-4.902,0.0,-1.99,9.5238,5.6508,3.9365,1.9231,5.8615,-10.757,7.7093,0.0,3.7179
-2.97,-3.6825,0.06472,-7.8431,-1.9704,-5.0886,-2.9126,-13.657,3.8188,-7.8431,-1.9704,-4.9751,5.7143,0.88889,1.0794,-2.8846,1.0306,-10.757,4.8657,-2.9557,-1.0897
-12.449,-6.5397,-7.7023,-10.784,-4.9261,-16.683001,-6.7961,-6.8608,0.90615,-10.784,-4.9261,-12.935,2.8571,-2.9206,-5.5873,-5.7692,-4.7665,-7.8583,2.0221,-2.9557,-4.9359
-13.397,-4.6349,-11.586,-10.784,-4.9261,-17.649,-7.767,-19.482,2.8479,-10.784,-4.9261,-14.925,0.95238,-3.873,-8.4444,-4.8077,-7.6651,-3.9936,2.97,0.0,-3.9744
-12.449,-4.6349,-12.557,-10.784,-4.9261,-16.683001,-8.7379,-13.657,0.90615,-10.784,-4.9261,-15.92,-1.9048,-5.7778,-10.349,-4.8077,-8.6312,-0.12882,2.97,0.0,-3.0128
-12.449,-5.5873,-11.586,-8.8235,-6.8966,-16.683001,-8.7379,5.7605,-1.0356,-8.8235,-6.8966,-13.93,-2.8571,-4.8254,-9.3968,-4.8077,-8.6312,5.6683,2.0221,1.9704,-2.0513
-9.6051,-5.5873,-6.7314,-4.902,-3.9409,-7.9871,-3.8835,2.8479,-2.9773,-4.902,-3.9409,-4.9751,-4.7619,-4.8254,-7.4921,-3.8462,-6.6989,6.6345,-0.82148,0.98522,-1.0897
-0.12638,-0.8254,2.0065,1.9608,0.0,2.6409,3.8835,4.7896,-2.0065,1.9608,0.0,3.9801,2.8571,2.7937,3.9365,2.8846,2.963,9.533,-2.7172,6.8966,4.6795
11.248,5.8413,10.744,4.902,0.98522,8.438,8.7379,5.7605,-3.9482,4.902,0.98522,8.9552,12.381,11.365,17.27,11.538,15.523,14.364,-1.7694,13.793,10.449
17.882999,8.6984,13.657,1.9608,-1.9704,7.4718,5.8252,7.7023,-3.9482,1.9608,-1.9704,5.9701,15.238,12.317,25.841,15.385,21.32,16.296,-2.7172,16.749001,10.449
19.778999,6.7937,11.715,-3.9216,-7.8818,4.5733,-0.97087,-1.0356,-9.7735,-3.9216,-7.8818,0.99502,15.238,11.365,26.794001,14.423,22.287001,13.398,-5.5608,16.749001,9.4872
21.674999,4.8889,9.7735,-4.902,-9.8522,9.4042,-4.8544,-3.9482,-8.8026,-4.902,-9.8522,0.0,16.190001,12.317,26.794001,13.462,21.32,14.364,-7.4566,19.704,7.5641
16.934999,2.0317,5.89,-7.8431,-11.823,4.5733,-7.767,8.6731,-8.8026,-7.8431,-11.823,-0.99502,16.190001,13.27,23.937,11.538,19.388,11.465,-7.4566,17.733999,6.6026
12.196,-1.7778,2.9773,-14.706,-16.749001,-0.25765,-9.7087,-4.9191,-11.715,-14.706,-16.749001,-2.9851,13.333,12.317,19.174999,7.6923,16.49,6.6345,-9.3523,10.837,4.6795
7.4566,-4.6349,2.9773,-13.725,-13.793,-2.19,-8.7379,-2.0065,-10.744,-13.725,-13.793,-1.99,11.429,10.413,15.365,2.8846,12.625,0.83736,-9.3523,6.8966,-0.12821
6.5087,-5.5873,6.8608,-8.8235,-7.8818,4.5733,-2.9126,-1.0356,-4.9191,-8.8235,-7.8818,4.9751,9.5238,9.4603,11.556,-1.9231,10.692,-4.9597,-7.4566,2.9557,-3.9744
4.613,-5.5873,9.7735,0.0,1.9704,12.303,3.8835,2.8479,1.877,0.0,1.9704,12.935,6.6667,6.6032,6.7937,-5.7692,5.8615,-4.9597,-2.7172,-1.9704,-7.8205
-2.0221,-5.5873,9.7735,6.8627,9.8522,13.269,9.7087,11.586,6.7314,6.8627,9.8522,18.905001,-1.9048,-1.0159,-2.7302,-10.577,-0.90177,-7.8583,-0.82148,-10.837,-13.59
-5.8136,-0.8254,9.7735,10.784,16.749001,15.201,16.504999,8.6731,13.528,10.784,16.749001,23.881001,-7.619,-6.7302,-10.349,-12.5,-5.7327,-11.723,2.97,-17.733999,-16.474001
-15.292,-2.7302,0.06472,9.8039,18.719,9.4042,17.476,-1.0356,17.410999,9.8039,18.719,19.9,-15.238,-12.444,-21.778,-15.385,-14.428,-18.486,6.7615,-27.586,-17.436001
-30.458,-6.5397,-12.557,4.902,13.793,-4.1224,11.65,-6.8608,16.440001,4.902,13.793,8.9552,-22.857,-16.254,-35.111,-19.231001,-25.056,-27.181999,8.6572,-37.438,-16.474001
-35.196999,-4.6349,-16.440001,2.9412,15.764,-7.9871,10.68,-13.657,19.353001,2.9412,15.764,3.9801,-22.857,-16.254,-39.873001,-17.308001,-27.955,-26.216,12.449,-34.483002,-12.628
-37.092999,-5.5873,-20.323999,-5.8824,5.9113,-10.886,1.9417,-21.424,13.528,-5.8824,5.9113,-3.9801,-21.905001,-18.159,-40.825001,-18.268999,-30.853001,-23.316999,8.6572,-28.570999,-14.551
-29.51,-5.5873,-18.382,-9.8039,-1.9704,-12.818,-2.9126,-16.57,7.7023,-9.8039,-1.9704,-7.9602,-17.143,-16.254,-32.254002,-16.346001,-26.023001,-16.554001,6.7615,-18.719,-11.667
-25.719,-7.4921,-16.440001,-11.765,-10.837,-22.48,-9.7087,-4.9191,-1.0356,-11.765,-10.837,-13.93,-11.429,-14.349,-22.73,-14.423,-21.191999,-11.723,2.0221,-9.8522,-10.705
-20.979,-12.254,-18.382,-16.667,-15.764,-24.412001,-14.563,-9.7735,-8.8026,-16.667,-15.764,-18.905001,-7.619,-12.444,-16.063,-15.385,-18.292999,-6.8921,-4.613,-2.9557,-8.7821
-14.344,-13.206,-13.528,-18.627001,-14.778,-17.649,-14.563,-12.686,-9.7735,-18.627001,-14.778,-16.915001,-1.9048,-8.6349,-8.4444,-13.462,-13.462,-2.0612,-6.5087,4.9261,-7.8205
-3.9179,-11.302,-5.7605,-15.686,-14.778,-9.9195,-11.65,-20.452999,-12.686,-15.686,-14.778,-10.945,2.8571,-6.7302,-0.8254,-11.538,-6.6989,0.83736,-8.4044,11.823,-7.8205
6.5087,-4.6349,4.9191,-6.8627,-10.837,-0.25765,-5.8252,-4.9191,-9.7735,-6.8627,-10.837,-2.9851,8.5714,-1.0159,10.603,-5.7692,2.963,10.499,-8.4044,17.733999,-6.859
13.144,-0.8254,11.715,-2.9412,-7.8818,3.6071,0.0,8.6731,-8.8026,-2.9412,-7.8818,2.9851,10.476,0.88889,17.27,-1.9231,8.7601,16.296,-8.4044,18.719,-6.859
17.882999,1.0794,14.628,-0.98039,-3.9409,9.4042,3.8835,10.615,-5.89,-0.98039,-3.9409,7.9602,10.476,1.8413,19.174999,-0.96154,11.659,14.364,-9.3523,15.764,-7.8205
23.57,3.9365,19.482,5.8824,1.9704,17.134001,8.7379,13.528,-2.0065,5.8824,1.9704,14.925,10.476,3.746,21.079,1.9231,14.557,16.296,-9.3523,13.793,-5.8974
24.518,7.746,23.365999,13.725,7.8818,20.032,12.621,16.440001,1.877,13.725,7.8818,18.905001,13.333,7.5556,22.983999,5.7692,18.422001,14.364,-7.4566,13.793,-4.9359
26.414,8.6984,23.365999,13.725,12.808,25.829,15.534,-6.8608,6.7314,13.725,12.808,20.896,13.333,7.5556,22.983999,5.7692,18.422001,8.5668,-5.5608,8.867,-6.859
21.674999,8.6984,22.395,18.627001,16.749001,24.863001,18.447001,4.7896,6.7314,18.627001,16.749001,22.886,10.476,5.6508,18.222,4.8077,16.49,5.6683,-1.7694,1.9704,-8.7821
14.092,9.6508,19.482,18.627001,17.733999,17.134001,19.417,31.003,5.7605,18.627001,17.733999,21.891001,6.6667,3.746,13.46,4.8077,14.557,1.8035,0.12638,-2.9557,-8.7821
5.5608,9.6508,13.657,17.646999,18.719,15.201,20.388,25.177999,15.469,17.646999,18.719,20.896,0.95238,-1.0159,3.9365,2.8846,7.7939,-1.095,3.9179,-8.867,-7.8205
-0.12638,11.556,9.7735,16.667,17.733999,17.134001,21.358999,12.557,25.177999,16.667,17.733999,19.9,-2.8571,-2.9206,-2.7302,2.8846,3.9291,-4.9597,9.6051,-12.808,-6.859
-4.8657,11.556,5.89,10.784,17.733999,10.37,20.388,4.7896,29.061001,10.784,17.733999,16.915001,-5.7143,-3.873,-7.4921,2.8846,0.06441,-7.8583,12.449,-14.778,-2.0513
-9.6051,7.746,-1.877,-0.98039,11.823,3.6071,13.592,-14.628,26.149,-0.98039,11.823,7.9602,-8.5714,-5.7778,-12.254,0.0,-5.7327,-11.723,10.553,-16.749001,0.83333
-8.6572,2.9841,-6.7314,-10.784,2.9557,-7.0209,5.8252,-14.628,14.498,-10.784,2.9557,-0.99502,-8.5714,-5.7778,-13.206,-2.8846,-8.6312,-12.689,5.8136,-15.764,2.7564
-5.8136,1.0794,-8.6731,-8.8235,-1.9704,-11.852,0.0,-4.9191,9.644,-8.8235,-1.9704,-6.9652,-4.7619,-1.0159,-9.3968,-1.9231,-7.6651,-5.9259,4.8657,-9.8522,4.6795
-6.7615,0.12698,-10.615,-7.8431,-4.9261,-12.818,-4.8544,-2.9773,5.7605,-7.8431,-4.9261,-9.9502,-4.7619,0.88889,-9.3968,-0.96154,-7.6651,-3.9936,2.97,-8.867,7.5641
-5.8136,0.12698,-8.6731,-8.8235,-4.9261,-8.9533,-5.8252,-6.8608,5.7605,-8.8235,-4.9261,-9.9502,-8.5714,-0.06349,-9.3968,0.96154,-7.6651,-6.8921,3.9179,-13.793,10.449
0.82148,3.9365,-0.90615,0.0,2.9557,-1.2238,0.97087,3.8188,10.615,0.0,2.9557,-1.99,-7.619,2.7937,-3.6825,4.8077,-1.868,-3.0274,7.7093,-10.837,13.333
12.196,8.6984,8.8026,8.8235,8.867,14.235,9.7087,-5.89,15.469,8.8235,8.867,9.9502,-2.8571,4.6984,4.8889,8.6538,4.8953,4.7021,9.6051,-3.9409,14.295
17.882999,9.6508,13.657,12.745,11.823,20.997999,13.592,0.90615,14.498,12.745,11.823,14.925,-2.8571,4.6984,8.6984,8.6538,6.8277,10.499,8.6572,-0.98522,11.41
15.039,7.746,13.657,9.8039,9.8522,13.269,10.68,26.149,10.615,9.8039,9.8522,12.935,-2.8571,4.6984,7.746,7.6923,5.8615,8.5668,5.8136,-1.9704,7.5641
14.092,6.7937,12.686,10.784,7.8818,10.37,7.767,22.264999,6.7314,10.784,7.8818,12.935,-4.7619,2.7937,5.8413,5.7692,4.8953,4.7021,3.9179,-5.9113,5.641
14.092,9.6508,14.628,16.667,10.837,17.134001,10.68,18.382,9.644,16.667,10.837,16.915001,-3.8095,2.7937,4.8889,5.7692,4.8953,7.6006,3.9179,-6.8966,3.7179
9.3523,6.7937,7.8317,17.646999,11.823,16.167,10.68,11.586,10.615,17.646999,11.823,13.93,-4.7619,0.88889,-0.8254,1.9231,0.06441,6.6345,3.9179,-7.8818,0.83333
3.6651,2.9841,-0.90615,12.745,8.867,12.303,5.8252,4.7896,8.6731,12.745,8.867,7.9602,-9.5238,-4.8254,-7.4921,-3.8462,-6.6989,2.7697,3.9179,-12.808,-3.0128
-4.8657,1.0794,-5.7605,8.8235,4.9261,1.6747,1.9417,11.586,6.7314,8.8235,4.9261,0.99502,-12.381,-8.6349,-12.254,-5.7692,-9.5974,0.83736,3.9179,-13.793,-3.9744
-8.6572,0.12698,-5.7605,2.9412,0.98522,-6.0548,-0.97087,3.8188,3.8188,2.9412,0.98522,-2.9851,-13.333,-11.492,-12.254,-6.7308,-10.564,-0.12882,3.9179,-12.808,-4.9359
-10.553,-1.7778,-6.7314,0.98039,-0.98522,-7.9871,-3.8835,0.90615,4.7896,0.98039,-0.98522,-4.9751,-14.286,-12.444,-12.254,-8.6538,-11.53,-1.095,4.8657,-10.837,-6.859
-7.7093,-0.8254,-6.7314,1.9608,1.9704,-1.2238,-0.97087,-4.9191,6.7314,1.9608,1.9704,-2.9851,-12.381,-11.492,-10.349,-7.6923,-11.53,2.7697,6.7615,-6.8966,-4.9359
-5.8136,-0.8254,-8.6731,2.9412,0.0,0.70853,0.0,-2.9773,7.7023,2.9412,0.0,-2.9851,-12.381,-11.492,-10.349,-7.6923,-11.53,1.8035,5.8136,-5.9113,-3.9744
-7.7093,-0.8254,-10.615,0.98039,0.0,-8.9533,-0.97087,9.644,5.7605,0.98039,0.0,-7.9602,-13.333,-12.444,-12.254,-8.6538,-13.462,0.83736,4.8657,-5.9113,-3.9744
-7.7093,1.0794,-10.615,-6.8627,-4.9261,-13.784,-4.8544,1.877,1.877,-6.8627,-4.9261,-11.94,-12.381,-9.5873,-12.254,-4.8077,-11.53,-3.0274,3.9179,-6.8966,-1.0897
-3.9179,6.7937,-4.7896,-5.8824,-3.9409,-8.9533,-2.9126,-0.06472,1.877,-5.8824,-3.9409,-8.9552,-6.6667,-3.873,-7.4921,3.8462,-3.8003,-0.12882,5.8136,-2.9557,4.6795
-2.0221,11.556,0.06472,-9.8039,-5.9113,-7.0209,-1.9417,-4.9191,3.8188,-9.8039,-5.9113,-6.9652,-2.8571,2.7937,-4.6349,11.538,2.963,-1.095,10.553,-0.98522,11.41
-3.9179,10.603,-0.90615,-8.8235,-12.808,-6.0548,-2.9126,-1.0356,-2.9773,-8.8235,-12.808,-6.9652,-3.8095,2.7937,-5.5873,11.538,2.963,0.83736,8.6572,-3.9409,11.41
-1.0742,9.6508,-0.90615,-1.9608,-12.808,-0.25765,-2.9126,6.7314,-11.715,-1.9608,-12.808,-4.9751,-3.8095,2.7937,-5.5873,10.577,2.963,4.7021,4.8657,-0.98522,9.4872
0.82148,7.746,0.06472,2.9412,-8.867,0.70853,-3.8835,12.557,-17.540001,2.9412,-8.867,-4.9751,-2.8571,4.6984,-3.6825,12.5,4.8953,10.499,2.97,0.0,9.4872
-2.0221,2.9841,-1.877,1.9608,-7.8818,-4.1224,-6.7961,5.7605,-17.540001,1.9608,-7.8818,-6.9652,-2.8571,5.6508,-2.7302,11.538,5.8615,6.6345,1.0742,-1.9704,9.4872
-2.0221,-0.8254,-1.877,0.98039,-6.8966,0.70853,-5.8252,-8.8026,-17.540001,0.98039,-6.8966,-3.9801,-0.95238,6.6032,-2.7302,11.538,6.8277,0.83736,-0.82148,-1.9704,10.449
0.82148,-0.8254,0.06472,2.9412,-3.9409,8.438,-0.97087,0.90615,-16.57,2.9412,-3.9409,1.99,0.0,5.6508,-0.8254,9.6154,6.8277,3.7359,-1.7694,-0.98522,7.5641
1.7694,2.0317,2.9773,9.8039,0.98522,5.5395,3.8835,19.353001,-11.715,9.8039,0.98522,5.9701,2.8571,5.6508,2.9841,10.577,8.7601,7.6006,-1.7694,3.9409,3.7179
6.5087,5.8413,8.8026,9.8039,2.9557,8.438,3.8835,8.6731,-12.686,9.8039,2.9557,6.9652,7.619,6.6032,8.6984,11.538,12.625,10.499,-3.6651,9.8522,3.7179
6.5087,4.8889,6.8608,3.9216,-2.9557,6.5056,-1.9417,4.7896,-14.628,3.9216,-2.9557,1.99,6.6667,4.6984,7.746,8.6538,9.7262,6.6345,-5.5608,9.8522,0.83333
0.82148,2.0317,0.06472,-1.9608,-4.9261,-0.25765,-4.8544,1.877,-14.628,-1.9608,-4.9261,-4.9751,3.8095,1.8413,2.9841,4.8077,3.9291,3.7359,-7.4566,7.8818,-1.0897
2.7172,3.9365,0.06472,0.0,-2.9557,-2.19,-1.9417,6.7314,-12.686,0.0,-2.9557,-3.9801,5.7143,1.8413,4.8889,3.8462,2.963,6.6345,-6.5087,12.808,0.83333
7.4566,3.9365,2.9773,6.8627,0.98522,1.6747,3.8835,14.498,-9.7735,6.8627,0.98522,2.9851,7.619,2.7937,7.746,3.8462,3.9291,7.6006,-4.613,14.778,1.7949
10.3,1.0794,4.9191,4.902,1.9704,5.5395,3.8835,2.8479,-9.7735,4.902,1.9704,5.9701,7.619,1.8413,9.6508,2.8846,3.9291,3.7359,-5.5608,14.778,-0.12821
17.882999,3.9365,12.686,8.8235,5.9113,13.269,7.767,0.90615,-6.8608,8.8235,5.9113,10.945,15.238,7.5556,19.174999,8.6538,12.625,6.6345,-2.7172,20.690001,3.7179
19.778999,5.8413,14.628,10.784,2.9557,13.269,4.8544,6.7314,-6.8608,10.784,2.9557,8.9552,22.857,14.222,25.841,13.462,19.388,8.5668,-1.7694,26.601,6.6026
10.3,-0.8254,2.9773,3.9216,-2.9557,-2.19,-5.8252,6.7314,-11.715,3.9216,-2.9557,-3.9801,21.905001,12.317,21.079,10.577,16.49,3.7359,-4.613,25.615999,6.6026
1.7694,-9.3968,-8.6731,-4.902,-9.8522,-13.784,-17.476,-6.8608,-15.599,-4.902,-9.8522,-17.91,20.0,10.413,14.413,5.7692,9.7262,1.8035,-8.4044,23.645,2.7564
-1.0742,-10.349,-11.586,-10.784,-16.749001,-14.75,-21.358999,-10.744,-18.511,-10.784,-16.749001,-22.886,20.952,12.317,12.508,4.8077,8.7601,4.7021,-9.3523,26.601,3.7179
-9.6051,-13.206,-16.440001,-18.627001,-22.66,-25.378,-26.214001,-3.9482,-21.424,-18.627001,-22.66,-29.851,17.143,9.4603,3.9365,1.9231,2.963,2.7697,-11.248,20.690001,2.7564
-7.7093,-11.302,-14.498,-15.686,-17.733999,-20.548,-22.33,-3.9482,-20.452999,-15.686,-17.733999,-24.875999,18.094999,10.413,3.9365,2.8846,2.963,3.7359,-11.248,23.645,3.7179
-0.12638,-12.254,-13.528,-10.784,-11.823,-5.0886,-18.447001,-25.306999,-17.540001,-10.784,-11.823,-16.915001,18.094999,10.413,4.8889,0.96154,1.9968,6.6345,-13.144,25.615999,1.7949
-7.7093,-17.968,-18.382,-7.8431,-10.837,-11.852,-19.417,-6.8608,-17.540001,-7.8431,-10.837,-18.905001,10.476,2.7937,-0.8254,-5.7692,-4.7665,4.7021,-15.039,19.704,-3.0128
-14.344,-20.825001,-18.382,-8.8235,-12.808,-20.548,-19.417,1.877,-18.511,-8.8235,-12.808,-20.896,6.6667,-0.06349,-5.5873,-9.6154,-9.5974,1.8035,-15.039,15.764,-3.0128
-17.188,-19.872999,-17.410999,-12.745,-15.764,-22.48,-18.447001,-7.8317,-17.540001,-12.745,-15.764,-20.896,0.0,-3.873,-11.302,-13.462,-14.428,-2.0612,-13.144,8.867,-3.9744
-17.188,-16.063,-15.469,-13.725,-12.808,-14.75,-13.592,-21.424,-13.657,-13.725,-12.808,-16.915001,-7.619,-7.6825,-16.063,-15.385,-18.292999,-3.9936,-9.3523,2.9557,-3.0128
-23.823,-13.206,-17.410999,-13.725,-9.8522,-18.615,-10.68,-16.57,-9.7735,-13.725,-9.8522,-14.925,-15.238,-13.397,-22.73,-18.268999,-24.09,-10.757,-6.5087,-6.8966,-5.8974
-19.084,-9.3968,-13.528,-5.8824,-1.9704,-10.886,-3.8835,-13.657,-4.9191,-5.8824,-1.9704,-5.9701,-19.048,-16.254,-21.778,-19.231001,-23.124001,-11.723,-4.613,-11.823,-5.8974
-10.553,-5.5873,-6.7314,2.9412,4.9261,-2.19,0.97087,-3.9482,0.90615,2.9412,4.9261,0.99502,-18.094999,-15.302,-15.111,-14.423,-18.292999,-9.7907,-2.7172,-11.823,-3.9744
-5.8136,-5.5873,-4.7896,4.902,7.8818,-1.2238,0.0,2.8479,1.877,4.902,7.8818,0.0,-16.190001,-14.349,-11.302,-10.577,-14.428,-9.7907,-0.82148,-12.808,-2.0513
-8.6572,-8.4444,-8.6731,0.98039,2.9557,-8.9533,-5.8252,-5.89,-1.0356,0.98039,2.9557,-4.9751,-16.190001,-13.397,-11.302,-9.6154,-14.428,-15.588,-0.82148,-15.764,-2.0513
-11.501,-9.3968,-12.557,-3.9216,0.98522,-11.852,-6.7961,-15.599,-2.0065,-3.9216,0.98522,-7.9602,-14.286,-10.54,-12.254,-8.6538,-15.395,-18.486,1.0742,-14.778,1.7949
-6.7615,-5.5873,-10.615,-2.9412,1.9704,-8.9533,-4.8544,-14.628,0.90615,-2.9412,1.9704,-5.9701,-7.619,-4.8254,-8.4444,-4.8077,-10.564,-16.554001,4.8657,-7.8818,6.6026
-4.8657,-3.6825,-6.7314,-2.9412,0.98522,-5.0886,-3.8835,-17.540001,-0.06472,-2.9412,0.98522,-2.9851,-1.9048,-0.06349,-3.6825,-0.96154,-6.6989,-13.655,5.8136,-1.9704,7.5641
-2.0221,-3.6825,-2.8479,-5.8824,-2.9557,-2.19,-4.8544,-21.424,-2.0065,-5.8824,-2.9557,-1.99,3.8095,3.746,0.12698,1.9231,-1.868,-12.689,3.9179,2.9557,6.6026
1.7694,-3.6825,0.06472,-11.765,-6.8966,1.6747,-3.8835,-30.162001,-7.8317,-11.765,-6.8966,-1.99,10.476,7.5556,5.8413,3.8462,3.9291,-7.8583,1.0742,9.8522,6.6026
0.82148,-3.6825,-0.90615,-12.745,-1.9704,-0.25765,0.0,-27.249001,4.7896,-12.745,-1.9704,-1.99,14.286,9.4603,7.746,3.8462,4.8953,-3.9936,4.8657,14.778,5.641
-1.0742,-3.6825,-1.877,-8.8235,1.9704,-3.1562,3.8835,-4.9191,14.498,-8.8235,1.9704,-0.99502,15.238,9.4603,6.7937,2.8846,3.9291,-1.095,5.8136,15.764,3.7179
-2.97,-7.4921,-3.8188,-6.8627,0.0,-7.0209,1.9417,2.8479,13.528,-6.8627,0.0,-0.99502,11.429,4.6984,2.9841,-2.8846,0.06441,0.83736,2.0221,10.837,-2.0513
-5.8136,-11.302,-6.7314,-10.784,-2.9557,-6.0548,-2.9126,-14.628,14.498,-10.784,-2.9557,-3.9801,3.8095,-2.9206,-1.7778,-9.6154,-5.7327,-2.0612,-0.82148,5.9113,-8.7821
-9.6051,-14.159,-9.644,-9.8039,-3.9409,-9.9195,-5.8252,-4.9191,10.615,-9.8039,-3.9409,-6.9652,-2.8571,-8.6349,-7.4921,-16.346001,-12.496,-1.095,-2.7172,1.9704,-14.551
-9.6051,-13.206,-8.6731,-3.9216,-1.9704,-4.1224,-3.8835,1.877,8.6731,-3.9216,-1.9704,-3.9801,-8.5714,-12.444,-10.349,-21.153999,-16.361,-0.12882,-5.5608,-3.9409,-19.358999
-8.6572,-7.4921,-3.8188,3.9216,2.9557,-0.25765,5.8252,2.8479,12.557,3.9216,2.9557,2.9851,-13.333,-17.205999,-12.254,-24.038,-18.292999,-0.12882,-3.6651,-7.8818,-21.282
-2.97,-1.7778,2.9773,4.902,4.9261,7.4718,11.65,0.90615,12.557,4.902,4.9261,10.945,-18.094999,-21.968,-10.349,-23.077,-17.327,0.83736,-3.6651,-11.823,-21.282
11.248,5.8413,12.686,8.8235,11.823,21.965,18.447001,-1.0356,13.528,8.8235,11.823,19.9,-14.286,-19.111,-0.8254,-16.346001,-9.5974,6.6345,-1.7694,-7.8818,-17.436001
15.987,6.7937,14.628,9.8039,9.8522,20.032,14.563,13.528,10.615,9.8039,9.8522,17.91,-13.333,-15.302,2.9841,-11.538,-5.7327,9.533,-0.82148,-6.8966,-12.628
7.4566,2.0317,9.7735,5.8824,2.9557,5.5395,6.7961,19.353001,4.7896,5.8824,2.9557,8.9552,-13.333,-14.349,-1.7778,-9.6154,-6.6989,6.6345,-0.82148,-9.8522,-8.7821
-2.97,-0.8254,2.0065,-1.9608,-6.8966,-5.0886,-3.8835,6.7314,-1.0356,-1.9608,-6.8966,-1.99,-14.286,-15.302,-7.4921,-9.6154,-9.5974,-1.095,-1.7694,-12.808,-6.859
-9.6051,-1.7778,-4.7896,-9.8039,-9.8522,-9.9195,-9.7087,-3.9482,-1.0356,-9.8039,-9.8522,-9.9502,-15.238,-14.349,-12.254,-9.6154,-10.564,-8.8245,1.0742,-15.764,-5.8974
-7.7093,2.0317,-2.8479,-13.725,-8.867,-7.9871,-7.767,-17.540001,2.8479,-13.725,-8.867,-7.9602,-13.333,-11.492,-11.302,-5.7692,-7.6651,-10.757,5.8136,-17.733999,-1.0897
1.7694,8.6984,6.8608,-6.8627,-0.98522,2.6409,2.9126,-12.686,10.615,-6.8627,-0.98522,0.99502,-5.7143,-4.8254,-1.7778,1.9231,1.0306,-7.8583,11.501,-11.823,5.641
6.5087,11.556,12.686,-2.9412,2.9557,6.5056,8.7379,-2.0065,15.469,-2.9412,2.9557,5.9701,-2.8571,-1.9683,2.9841,3.8462,5.8615,-4.9597,13.397,-6.8966,5.641
5.5608,10.603,12.686,0.0,4.9261,4.5733,10.68,-2.9773,15.469,0.0,4.9261,7.9602,-1.9048,-1.0159,3.9365,3.8462,6.8277,-8.8245,12.449,-7.8818,1.7949
1.7694,11.556,13.657,2.9412,9.8522,3.6071,13.592,-0.06472,15.469,2.9412,9.8522,9.9502,-1.9048,0.88889,3.9365,4.8077,8.7601,-9.7907,11.501,-10.837,0.83333
5.5608,14.413,15.599,7.8431,13.793,12.303,16.504999,-9.7735,17.410999,7.8431,13.793,14.925,0.95238,3.746,6.7937,7.6923,11.659,-5.9259,10.553,-7.8818,3.7179
4.613,13.46,16.57,8.8235,15.764,12.303,18.447001,-1.0356,17.410999,8.8235,15.764,17.91,0.95238,3.746,4.8889,6.7308,9.7262,-3.0274,8.6572,-6.8966,3.7179
5.5608,12.508,18.511,12.745,18.719,16.167,22.33,13.528,21.294001,12.745,18.719,21.891001,0.95238,4.6984,4.8889,6.7308,8.7601,0.83736,10.553,-4.9261,2.7564
2.7172,8.6984,12.686,11.765,17.733999,8.438,20.388,9.644,19.353001,11.765,17.733999,17.91,0.0,2.7937,2.0317,2.8846,4.8953,1.8035,8.6572,-2.9557,0.83333
-1.0742,4.8889,5.89,5.8824,12.808,1.6747,13.592,4.7896,15.469,5.8824,12.808,9.9502,-2.8571,0.88889,-0.8254,0.0,1.0306,0.83736,6.7615,-5.9113,-1.0897
5.5608,4.8889,5.89,3.9216,12.808,6.5056,12.621,-0.06472,13.528,3.9216,12.808,9.9502,-0.95238,2.7937,3.9365,1.9231,3.9291,5.6683,4.8657,-1.9704,-0.12821
7.4566,3.9365,6.8608,-0.98039,6.8966,6.5056,7.767,0.90615,9.644,-0.98039,6.8966,8.9552,0.95238,2.7937,6.7937,2.8846,4.8953,5.6683,1.0742,0.0,-0.12821
11.248,2.0317,8.8026,2.9412,4.9261,8.438,4.8544,4.7896,3.8188,2.9412,4.9261,9.9502,2.8571,3.746,10.603,2.8846,5.8615,9.533,-3.6651,2.9557,-1.0897
14.092,-1.7778,7.8317,4.902,2.9557,10.37,0.97087,-2.9773,-0.06472,4.902,2.9557,8.9552,5.7143,4.6984,12.508,0.0,4.8953,11.465,-8.4044,6.8966,-3.0128
14.092,-6.5397,2.9773,-0.98039,-0.98522,12.303,-3.8835,-16.57,-4.9191,-0.98039,-0.98522,4.9751,3.8095,2.7937,9.6508,-3.8462,1.9968,7.6006,-10.3,4.9261,-4.9359
10.3,-6.5397,1.0356,-0.98039,-2.9557,7.4718,-4.8544,1.877,-6.8608,-0.98039,-2.9557,0.99502,0.95238,-0.06349,7.746,-5.7692,1.0306,4.7021,-8.4044,1.9704,-3.9744
6.5087,-2.7302,2.0065,2.9412,0.98522,1.6747,0.0,19.353001,-3.9482,2.9412,0.98522,1.99,0.95238,0.88889,7.746,-1.9231,2.963,3.7359,-3.6651,0.98522,-1.0897
6.5087,1.0794,3.9482,3.9216,4.9261,4.5733,4.8544,2.8479,-1.0356,3.9216,4.9261,4.9751,0.0,1.8413,6.7937,2.8846,4.8953,0.83736,1.0742,-1.9704,3.7179
4.613,4.8889,5.89,6.8627,7.8818,4.5733,8.7379,2.8479,1.877,6.8627,7.8818,5.9701,0.0,2.7937,5.8413,6.7308,7.7939,-2.0612,4.8657,-1.9704,6.6026
3.6651,7.746,5.89,8.8235,8.867,3.6071,9.7087,6.7314,3.8188,8.8235,8.867,5.9701,-0.95238,3.746,4.8889,9.6154,8.7601,-3.9936,7.7093,-2.9557,6.6026
1.7694,7.746,2.9773,7.8431,7.8818,5.5395,8.7379,-2.0065,4.7896,7.8431,7.8818,5.9701,-0.95238,4.6984,2.9841,9.6154,7.7939,-5.9259,8.6572,-4.9261,5.641
1.7694,10.603,5.89,7.8431,9.8522,5.5395,9.7087,2.8479,5.7605,7.8431,9.8522,7.9602,0.95238,7.5556,3.9365,13.462,10.692,-3.9936,8.6572,-4.9261,9.4872
1.7694,14.413,10.744,5.8824,6.8966,3.6071,8.7379,2.8479,5.7605,5.8824,6.8966,7.9602,1.9048,9.4603,5.8413,18.268999,13.591,-4.9597,8.6572,-5.9113,13.333
9.3523,19.174999,18.511,7.8431,7.8818,8.438,11.65,-0.06472,6.7314,7.8431,7.8818,11.94,7.619,13.27,11.556,22.115,18.422001,-0.12882,8.6572,0.0,14.295
9.3523,12.508,14.628,9.8039,5.9113,16.167,7.767,-3.9482,2.8479,9.8039,5.9113,12.935,6.6667,12.317,9.6508,17.308001,13.591,4.7021,2.97,1.9704,10.449
3.6651,0.12698,3.9482,9.8039,4.9261,9.4042,-0.97087,17.410999,-2.9773,9.8039,4.9261,5.9701,4.7619,7.5556,3.9365,8.6538,5.8615,8.5668,-3.6651,3.9409,4.6795
-3.9179,-8.4444,-3.8188,4.902,0.0,-0.25765,-7.767,21.294001,-6.8608,4.902,0.0,-0.99502,0.95238,3.746,-1.7778,0.96154,-1.868,9.533,-11.248,3.9409,-0.12821
-3.9179,-10.349,-4.7896,4.902,-1.9704,1.6747,-6.7961,12.557,-8.8026,4.902,-1.9704,-1.99,0.95238,1.8413,-2.7302,-1.9231,-4.7665,12.432,-13.144,4.9261,-2.0513
0.82148,-11.302,-4.7896,8.8235,-0.98522,10.37,-5.8252,3.8188,-7.8317,8.8235,-0.98522,0.0,2.8571,1.8413,-0.8254,-6.7308,-6.6989,14.364,-15.039,9.8522,-5.8974
-0.12638,-17.968,-11.586,13.725,1.9704,4.5733,-7.767,19.353001,-10.744,13.725,1.9704,-1.99,0.95238,-2.9206,-2.7302,-14.423,-10.564,15.33,-19.778999,8.867,-12.628
-0.12638,-23.683001,-17.410999,12.745,0.0,-1.2238,-13.592,29.061001,-14.628,12.745,0.0,-5.9701,-0.95238,-7.6825,-3.6825,-21.153999,-12.496,17.261999,-24.518,7.8818,-19.358999
8.4044,-23.683001,-13.528,14.706,-1.9704,4.5733,-15.534,20.323999,-18.511,14.706,-1.9704,-5.9701,2.8571,-6.7302,2.0317,-19.231001,-8.6312,18.229,-28.309999,13.793,-21.282
9.3523,-21.778,-9.644,16.667,-5.9113,3.6071,-15.534,17.410999,-21.424,16.667,-5.9113,-5.9701,3.8095,-5.7778,2.9841,-16.346001,-6.6989,16.296,-30.205,12.808,-19.358999
13.144,-12.254,0.06472,14.706,-0.98522,10.37,-7.767,11.586,-17.540001,14.706,-0.98522,1.99,4.7619,-3.873,5.8413,-10.577,-1.868,15.33,-26.414,13.793,-16.474001
17.882999,-0.8254,11.715,11.765,1.9704,8.438,1.9417,21.294001,-17.540001,11.765,1.9704,9.9502,7.619,-1.9683,10.603,-1.9231,5.8615,14.364,-24.518,15.764,-12.628
20.726999,9.6508,18.511,9.8039,0.98522,9.4042,7.767,9.644,-15.599,9.8039,0.98522,12.935,13.333,2.7937,16.316999,6.7308,13.591,14.364,-23.57,18.719,-7.8205
19.778999,16.316999,22.395,10.784,0.0,12.303,10.68,13.528,-15.599,10.784,0.0,15.92,18.094999,9.4603,19.174999,14.423,19.388,16.296,-21.674999,19.704,-2.0513
15.987,18.222,23.365999,4.902,-1.9704,11.337,9.7087,8.6731,-18.511,4.902,-1.9704,14.925,18.094999,13.27,18.222,18.268999,21.32,10.499,-19.778999,13.793,3.7179
11.248,13.46,17.540001,-3.9216,-4.9261,4.5733,2.9126,2.8479,-20.452999,-3.9216,-4.9261,7.9602,15.238,13.27,14.413,18.268999,19.388,1.8035,-19.778999,7.8818,6.6026
9.3523,10.603,12.686,-7.8431,-7.8818,-1.2238,-2.9126,3.8188,-17.540001,-7.8431,-7.8818,0.99502,17.143,16.127001,17.27,19.231001,21.32,-3.0274,-18.830999,9.8522,7.5641
9.3523,7.746,9.7735,-11.765,-9.8522,-7.0209,-4.8544,-4.9191,-17.540001,-11.765,-9.8522,-3.9801,20.0,18.983999,20.127001,19.231001,23.253,-1.095,-16.934999,12.808,7.5641
6.5087,1.0794,4.9191,-12.745,-9.8522,-7.9871,-7.767,-2.0065,-17.540001,-12.745,-9.8522,-5.9701,18.094999,17.079,18.222,14.423,19.388,1.8035,-17.882999,12.808,4.6795
4.613,-6.5397,2.0065,-9.8039,-8.867,-3.1562,-8.7379,-12.686,-20.452999,-9.8039,-8.867,-4.9751,14.286,11.365,13.46,5.7692,13.591,2.7697,-21.674999,10.837,-0.12821
3.6651,-10.349,2.0065,-2.9412,-5.9113,-0.25765,-6.7961,-0.06472,-18.511,-2.9412,-5.9113,-2.9851,10.476,7.5556,10.603,-0.96154,7.7939,7.6006,-23.57,10.837,-5.8974
-2.0221,-14.159,-3.8188,1.9608,-4.9261,-6.0548,-5.8252,17.410999,-15.599,1.9608,-4.9261,-3.9801,6.6667,3.746,4.8889,-6.7308,1.9968,8.5668,-22.622,7.8818,-9.7436
-3.9179,-14.159,-8.6731,1.9608,-3.9409,-4.1224,-6.7961,15.469,-12.686,1.9608,-3.9409,-4.9751,6.6667,3.746,2.0317,-7.6923,0.06441,8.5668,-18.830999,6.8966,-10.705
-5.8136,-17.968,-15.469,-2.9412,-6.8966,-1.2238,-11.65,-3.9482,-14.628,-2.9412,-6.8966,-8.9552,2.8571,0.88889,-2.7302,-11.538,-4.7665,5.6683,-17.882999,4.9261,-13.59
-10.553,-19.872999,-20.323999,-3.9216,-9.8522,-4.1224,-16.504999,-5.89,-15.599,-3.9216,-9.8522,-13.93,-0.95238,-1.9683,-8.4444,-13.462,-9.5974,2.7697,-17.882999,-0.98522,-14.551
-15.292,-22.73,-25.177999,-1.9608,-11.823,-9.9195,-20.388,5.7605,-16.57,-1.9608,-11.823,-16.915001,-7.619,-5.7778,-15.111,-15.385,-15.395,3.7359,-15.987,-6.8966,-12.628
-20.032,-25.587,-28.091,-6.8627,-16.749001,-16.683001,-25.243,5.7605,-17.540001,-6.8627,-16.749001,-20.896,-15.238,-12.444,-20.825001,-17.308001,-22.158001,-0.12882,-14.092,-11.823,-13.59
-15.292,-20.825001,-20.323999,-5.8824,-12.808,-14.75,-18.447001,3.8188,-11.715,-5.8824,-12.808,-14.925,-14.286,-13.397,-17.016001,-14.423,-19.259001,1.8035,-7.4566,-7.8818,-11.667
-8.6572,-13.206,-9.644,-4.902,-6.8966,-8.9533,-9.7087,-2.0065,-5.89,-4.902,-6.8966,-6.9652,-11.429,-10.54,-12.254,-9.6154,-14.428,2.7697,-0.82148,-4.9261,-7.8205
-3.9179,-3.6825,-1.877,-6.8627,-2.9557,-1.2238,-0.97087,-18.511,-0.06472,-6.8627,-2.9557,-1.99,-8.5714,-6.7302,-8.4444,-1.9231,-8.6312,-3.0274,4.8657,-4.9261,-1.0897
-2.97,7.746,3.9482,-8.8235,0.0,-0.25765,5.8252,-20.452999,5.7605,-8.8235,0.0,1.99,-4.7619,-0.06349,-6.5397,8.6538,-1.868,-8.8245,11.501,-5.9113,10.449
-2.97,19.174999,8.8026,-4.902,3.9409,-1.2238,12.621,-0.06472,11.586,-4.902,3.9409,4.9751,1.9048,7.5556,-3.6825,18.268999,5.8615,-10.757,20.032,-4.9261,19.103001
-5.8136,22.032,8.8026,-5.8824,4.9261,-5.0886,14.563,-7.8317,13.528,-5.8824,4.9261,4.9751,3.8095,10.413,-3.6825,21.153999,8.7601,-14.622,21.927,-6.8966,24.872
-12.449,17.27,2.0065,-8.8235,2.9557,-11.852,9.7087,-14.628,12.557,-8.8235,2.9557,-1.99,0.95238,9.4603,-8.4444,17.308001,4.8953,-22.351,19.084,-11.823,21.025999
-13.397,15.365,-0.90615,-2.9412,4.9261,-12.818,8.7379,-11.715,14.498,-2.9412,4.9261,-3.9801,3.8095,11.365,-9.3968,17.308001,4.8953,-23.316999,20.032,-10.837,21.025999
-11.501,15.365,0.06472,-1.9608,4.9261,-7.0209,6.7961,-16.57,16.440001,-1.9608,4.9261,-3.9801,5.7143,14.222,-6.5397,19.231001,7.7939,-23.316999,22.875,-10.837,23.91
-7.7093,15.365,2.9773,0.0,7.8818,-0.25765,7.767,-17.540001,18.382,0.0,7.8818,-0.99502,5.7143,13.27,-3.6825,17.308001,8.7601,-22.351,24.771,-10.837,22.948999
-7.7093,12.508,1.0356,0.0,6.8966,-6.0548,6.7961,-1.0356,18.382,0.0,6.8966,0.0,5.7143,10.413,-2.7302,12.5,6.8277,-19.452,23.823,-10.837,16.218
-5.8136,8.6984,1.0356,3.9216,7.8818,-6.0548,8.7379,-2.9773,16.440001,3.9216,7.8818,1.99,5.7143,9.4603,-0.8254,8.6538,4.8953,-13.655,21.927,-7.8818,12.372
-2.0221,6.7937,2.0065,0.0,4.9261,-0.25765,5.8252,-12.686,14.498,0.0,4.9261,2.9851,5.7143,6.6032,1.0794,6.7308,3.9291,-10.757,20.032,-2.9557,10.449
1.7694,7.746,4.9191,-3.9216,1.9704,0.70853,3.8835,-13.657,13.528,-3.9216,1.9704,2.9851,5.7143,5.6508,4.8889,7.6923,5.8615,-9.7907,20.032,0.0,10.449
6.5087,12.508,8.8026,-4.902,0.98522,0.70853,4.8544,-6.8608,14.498,-4.902,0.98522,3.9801,9.5238,7.5556,9.6508,11.538,9.7262,-5.9259,20.979,3.9409,12.372
7.4566,16.316999,8.8026,-5.8824,0.0,0.70853,4.8544,-3.9482,13.528,-5.8824,0.0,1.99,7.619,6.6032,10.603,14.423,10.692,-4.9597,22.875,4.9261,14.295
3.6651,16.316999,2.9773,-12.745,-2.9557,-8.9533,2.9126,-4.9191,12.557,-12.745,-2.9557,-3.9801,6.6667,6.6032,8.6984,14.423,8.7601,-5.9259,22.875,4.9261,16.218
1.7694,15.365,1.0356,-14.706,0.0,-13.784,1.9417,-6.8608,13.528,-14.706,0.0,-7.9602,6.6667,7.5556,6.7937,14.423,7.7939,-5.9259,22.875,6.8966,16.218
2.7172,12.508,0.06472,-8.8235,1.9704,-8.9533,0.97087,-21.424,12.557,-8.8235,1.9704,-6.9652,7.619,9.4603,6.7937,13.462,6.8277,-4.9597,20.979,6.8966,19.103001
-0.12638,7.746,-3.8188,-8.8235,-1.9704,-6.0548,-2.9126,-18.511,8.6731,-8.8235,-1.9704,-8.9552,4.7619,8.5079,3.9365,10.577,2.963,-3.9936,18.136,3.9409,18.141001
-5.8136,1.0794,-9.644,-9.8039,-3.9409,-7.9871,-5.8252,-10.744,4.7896,-9.8039,-3.9409,-9.9502,-1.9048,1.8413,-5.5873,2.8846,-5.7327,-7.8583,15.292,-2.9557,12.372
-11.501,-1.7778,-11.586,-4.902,-3.9409,-10.886,-4.8544,-10.744,6.7314,-4.902,-3.9409,-7.9602,-7.619,-1.0159,-12.254,-1.9231,-10.564,-10.757,13.397,-7.8818,8.5256
-9.6051,-2.7302,-9.644,2.9412,3.9409,-5.0886,0.0,-5.89,7.7023,2.9412,3.9409,-2.9851,-10.476,-3.873,-14.159,-5.7692,-12.496,-8.8245,13.397,-10.837,6.6026
-8.6572,-4.6349,-7.7023,9.8039,7.8818,-1.2238,1.9417,10.615,10.615,9.8039,7.8818,1.99,-10.476,-4.8254,-12.254,-7.6923,-12.496,-3.9936,11.501,-10.837,4.6795
-8.6572,-9.3968,-9.644,11.765,8.867,-0.25765,0.97087,14.498,8.6731,11.765,8.867,1.99,-11.429,-7.6825,-13.206,-13.462,-15.395,-1.095,8.6572,-11.823,-0.12821
-11.501,-15.111,-15.469,6.8627,2.9557,-1.2238,-4.8544,10.615,5.7605,6.8627,2.9557,-2.9851,-19.048,-14.349,-17.968,-21.153999,-23.124001,-3.0274,5.8136,-16.749001,-7.8205
-7.7093,-10.349,-9.644,5.8824,3.9409,1.6747,-0.97087,3.8188,9.644,5.8824,3.9409,0.0,-20.0,-14.349,-16.063,-18.268999,-21.191999,-2.0612,11.501,-15.764,-7.8205
-3.9179,-4.6349,-2.8479,0.0,2.9557,3.6071,1.9417,-11.715,11.586,0.0,2.9557,1.99,-20.0,-16.254,-11.302,-14.423,-17.327,-3.0274,15.292,-14.778,-8.7821
1.7694,2.9841,2.9773,0.98039,5.9113,0.70853,6.7961,3.8188,14.498,0.98039,5.9113,5.9701,-13.333,-12.444,-3.6825,-6.7308,-8.6312,0.83736,20.032,-8.867,-5.8974
4.613,8.6984,4.9191,1.9608,6.8966,0.70853,7.767,4.7896,15.469,1.9608,6.8966,4.9751,-6.6667,-8.6349,2.9841,0.0,-0.90177,4.7021,21.927,-0.98522,-2.0513
3.6651,9.6508,1.0356,-4.902,2.9557,-0.25765,5.8252,-9.7735,12.557,-4.902,2.9557,-1.99,-4.7619,-9.5873,2.0317,0.0,0.06441,4.7021,20.032,1.9704,-4.9359
5.5608,10.603,2.9773,-4.902,3.9409,-2.19,6.7961,-4.9191,12.557,-4.902,3.9409,-2.9851,-1.9048,-6.7302,3.9365,2.8846,2.963,5.6683,19.084,5.9113,-2.0513
8.4044,13.46,6.8608,-3.9216,4.9261,-4.1224,8.7379,-0.06472,12.557,-3.9216,4.9261,-0.99502,3.8095,-1.0159,8.6984,7.6923,7.7939,8.5668,20.032,11.823,4.6795
4.613,8.6984,1.0356,-6.8627,0.0,-7.0209,2.9126,-0.06472,7.7023,-6.8627,0.0,-4.9751,2.8571,-1.9683,5.8413,5.7692,3.9291,5.6683,20.032,9.8522,6.6026
0.82148,3.9365,-6.7314,-8.8235,-3.9409,-6.0548,-2.9126,-8.8026,4.7896,-8.8235,-3.9409,-8.9552,0.95238,-2.9206,0.12698,2.8846,-0.90177,1.8035,20.032,6.8966,8.5256
-5.8136,-0.8254,-14.498,-8.8235,-4.9261,-7.9871,-8.7379,-11.715,2.8479,-8.8235,-4.9261,-12.935,-1.9048,-4.8254,-6.5397,-0.96154,-7.6651,-2.0612,19.084,3.9409,9.4872
-12.449,-5.5873,-19.353001,-11.765,-6.8966,-12.818,-13.592,-14.628,1.877,-11.765,-6.8966,-17.91,-5.7143,-8.6349,-14.159,-4.8077,-13.462,-6.8921,17.188,-0.98522,9.4872
-20.032,-10.349,-21.294001,-11.765,-5.9113,-16.683001,-14.563,-35.987,-0.06472,-11.765,-5.9113,-17.91,-12.381,-11.492,-21.778,-10.577,-18.292999,-12.689,14.344,-8.867,4.6795
-20.979,-11.302,-17.410999,-12.745,-6.8966,-19.580999,-14.563,-23.365999,1.877,-12.745,-6.8966,-17.91,-16.190001,-12.444,-23.683001,-13.462,-19.259001,-16.554001,12.449,-13.793,0.83333
-18.136,-10.349,-11.586,-12.745,-4.9261,-20.548,-13.592,-5.89,2.8479,-12.745,-4.9261,-14.925,-14.286,-10.54,-20.825001,-14.423,-17.327,-14.622,9.6051,-12.808,-1.0897
-10.553,-9.3968,-5.7605,-6.8627,0.0,-6.0548,-8.7379,-17.540001,7.7023,-6.8627,0.0,-6.9652,-10.476,-7.6825,-15.111,-14.423,-14.428,-9.7907,9.6051,-9.8522,-2.0513
-9.6051,-9.3968,-5.7605,0.0,5.9113,-1.2238,-3.8835,-3.9482,11.586,0.0,5.9113,-1.99,-10.476,-7.6825,-15.111,-15.385,-14.428,-6.8921,7.7093,-12.808,-3.9744
-11.501,-9.3968,-6.7314,4.902,8.867,-3.1562,-0.97087,15.469,14.498,4.902,8.867,-0.99502,-8.5714,-6.7302,-13.206,-15.385,-14.428,-5.9259,5.8136,-12.808,-7.8205
-4.8657,-9.3968,-4.7896,12.745,14.778,4.5733,1.9417,13.528,15.469,12.745,14.778,2.9851,-8.5714,-8.6349,-10.349,-14.423,-12.496,-2.0612,2.97,-12.808,-13.59
-2.0221,-7.4921,-2.8479,16.667,16.749001,9.4042,2.9126,11.586,16.440001,16.667,16.749001,5.9701,-10.476,-11.492,-7.4921,-12.5,-10.564,2.7697,2.97,-12.808,-17.436001
1.7694,-4.6349,-0.90615,21.569,18.719,11.337,4.8544,13.528,15.469,21.569,18.719,8.9552,-12.381,-15.302,-4.6349,-12.5,-9.5974,5.6683,3.9179,-12.808,-19.358999
6.5087,-2.7302,2.0065,17.646999,14.778,11.337,4.8544,15.469,11.586,17.646999,14.778,8.9552,-13.333,-18.159,-0.8254,-12.5,-8.6312,9.533,3.9179,-9.8522,-19.358999
5.5608,-1.7778,1.0356,12.745,8.867,7.4718,3.8835,14.498,8.6731,12.745,8.867,3.9801,-16.190001,-20.063,-0.8254,-11.538,-8.6312,11.465,3.9179,-7.8818,-18.396999
4.613,-2.7302,0.06472,12.745,5.9113,6.5056,2.9126,12.557,7.7023,12.745,5.9113,2.9851,-18.094999,-22.921,-2.7302,-11.538,-9.5974,10.499,3.9179,-6.8966,-17.436001
7.4566,-2.7302,0.06472,12.745,7.8818,10.37,4.8544,14.498,8.6731,12.745,7.8818,6.9652,-18.094999,-21.016001,-0.8254,-10.577,-8.6312,13.398,4.8657,-2.9557,-17.436001
8.4044,-3.6825,0.06472,10.784,8.867,14.235,5.8252,6.7314,7.7023,10.784,8.867,7.9602,-17.143,-21.016001,-0.8254,-11.538,-8.6312,13.398,4.8657,-2.9557,-16.474001
9.3523,-2.7302,3.9482,6.8627,7.8818,11.337,5.8252,7.7023,5.7605,6.8627,7.8818,9.9502,-15.238,-18.159,1.0794,-9.6154,-4.7665,13.398,3.9179,0.0,-14.551
8.4044,-0.8254,6.8608,5.8824,5.9113,11.337,4.8544,8.6731,2.8479,5.8824,5.9113,9.9502,-10.476,-13.397,2.0317,-5.7692,-0.90177,10.499,3.9179,1.9704,-10.705
5.5608,-0.8254,5.89,4.902,4.9261,9.4042,2.9126,1.877,-0.06472,4.902,4.9261,6.9652,-5.7143,-7.6825,2.0317,-2.8846,2.963,7.6006,1.0742,2.9557,-6.859
5.5608,-0.8254,5.89,6.8627,5.9113,6.5056,2.9126,2.8479,-1.0356,6.8627,5.9113,4.9751,0.0,-1.9683,4.8889,0.96154,6.8277,7.6006,1.0742,4.9261,-3.0128
4.613,-0.8254,5.89,5.8824,2.9557,2.6409,1.9417,11.586,-2.0065,5.8824,2.9557,4.9751,3.8095,1.8413,6.7937,1.9231,9.7262,4.7021,0.12638,2.9557,-1.0897
4.613,4.8889,11.715,4.902,4.9261,0.70853,7.767,11.586,-1.0356,4.902,4.9261,7.9602,8.5714,6.6032,9.6508,5.7692,13.591,1.8035,0.12638,3.9409,4.6795
1.7694,9.6508,14.628,4.902,6.8966,3.6071,12.621,2.8479,0.90615,4.902,6.8966,10.945,10.476,9.4603,9.6508,7.6923,15.523,-1.095,0.12638,4.9261,3.7179
-2.97,9.6508,12.686,9.8039,10.837,6.5056,16.504999,2.8479,2.8479,9.8039,10.837,13.93,10.476,10.413,5.8413,5.7692,12.625,-2.0612,0.12638,2.9557,1.7949
1.7694,11.556,14.628,14.706,17.733999,15.201,21.358999,-9.7735,5.7605,14.706,17.733999,18.905001,11.429,12.317,7.746,6.7308,12.625,0.83736,-0.82148,4.9261,0.83333
7.4566,10.603,17.540001,13.725,15.764,15.201,22.33,9.644,-1.0356,13.725,15.764,19.9,10.476,10.413,9.6508,6.7308,12.625,3.7359,-4.613,5.9113,-1.0897
6.5087,9.6508,15.599,12.745,14.778,10.37,19.417,20.323999,3.8188,12.745,14.778,17.91,4.7619,5.6508,5.8413,4.8077,8.7601,2.7697,-5.5608,0.0,-1.0897
5.5608,10.603,14.628,7.8431,14.778,8.438,18.447001,9.644,9.644,7.8431,14.778,16.915001,0.95238,5.6508,3.9365,7.6923,6.8277,0.83736,-3.6651,-4.9261,0.83333
7.4566,12.508,13.657,1.9608,14.778,13.269,15.534,-22.395,11.586,1.9608,14.778,15.92,1.9048,7.5556,4.8889,10.577,7.7939,-1.095,0.12638,-2.9557,4.6795
5.5608,14.413,9.7735,1.9608,13.793,2.6409,12.621,-7.8317,15.469,1.9608,13.793,8.9552,3.8095,8.5079,4.8889,11.538,4.8953,0.83736,4.8657,0.98522,7.5641
7.4566,13.46,6.8608,0.0,8.867,-3.1562,7.767,7.7023,12.557,0.0,8.867,3.9801,1.9048,5.6508,5.8413,9.6154,2.963,4.7021,5.8136,3.9409,8.5256
11.248,11.556,7.8317,-0.98039,5.9113,-0.25765,4.8544,2.8479,9.644,-0.98039,5.9113,2.9851,0.95238,2.7937,7.746,6.7308,1.9968,7.6006,4.8657,4.9261,7.5641
16.934999,10.603,9.7735,-0.98039,6.8966,12.303,4.8544,-11.715,8.6731,-0.98039,6.8966,6.9652,0.95238,1.8413,9.6508,6.7308,2.963,8.5668,4.8657,4.9261,6.6026
15.039,8.6984,9.7735,0.98039,6.8966,10.37,3.8835,2.8479,8.6731,0.98039,6.8966,6.9652,1.9048,2.7937,10.603,6.7308,4.8953,8.5668,4.8657,5.9113,7.5641
10.3,8.6984,7.8317,3.9216,8.867,4.5733,4.8544,10.615,10.615,3.9216,8.867,5.9701,4.7619,4.6984,11.556,8.6538,6.8277,10.499,4.8657,8.867,8.5256
9.3523,8.6984,6.8608,2.9412,8.867,6.5056,4.8544,-6.8608,13.528,2.9412,8.867,4.9751,7.619,7.5556,11.556,11.538,7.7939,8.5668,6.7615,9.8522,10.449
3.6651,2.9841,2.0065,-1.9608,6.8966,-0.25765,2.9126,-4.9191,10.615,-1.9608,6.8966,0.99502,5.7143,6.6032,7.746,7.6923,4.8953,2.7697,3.9179,6.8966,10.449
-3.9179,-1.7778,-2.8479,-3.9216,0.98522,-6.0548,0.0,-4.9191,5.7605,-3.9216,0.98522,-1.99,3.8095,4.6984,2.0317,3.8462,1.0306,-3.0274,-1.7694,1.9704,5.641
-7.7093,-2.7302,-2.8479,-0.98039,3.9409,-0.25765,1.9417,-16.57,5.7605,-0.98039,3.9409,0.0,2.8571,3.746,-1.7778,2.8846,-0.90177,-5.9259,-3.6651,0.98522,3.7179
-12.449,-2.7302,-4.7896,0.0,3.9409,-3.1562,0.97087,-5.89,5.7605,0.0,3.9409,0.0,3.8095,4.6984,-5.5873,2.8846,-0.90177,-7.8583,-5.5608,-1.9704,2.7564
-9.6051,-5.5873,-6.7314,1.9608,4.9261,-4.1224,0.0,3.8188,5.7605,1.9608,4.9261,-0.99502,3.8095,6.6032,-4.6349,2.8846,-0.90177,-7.8583,-8.4044,-3.9409,3.7179
-4.8657,-5.5873,-3.8188,0.98039,0.98522,-1.2238,-2.9126,-2.9773,-0.06472,0.98039,0.98522,-0.99502,5.7143,7.5556,-1.7778,3.8462,1.0306,-8.8245,-10.3,-1.9704,3.7179
-3.9179,-4.6349,-1.877,-5.8824,-7.8818,-6.0548,-4.8544,-10.744,-3.9482,-5.8824,-7.8818,-2.9851,6.6667,8.5079,1.0794,4.8077,2.963,-9.7907,-10.3,-0.98522,5.641
-3.9179,-0.8254,0.06472,-14.706,-12.808,-10.886,-5.8252,-11.715,-2.9773,-14.706,-12.808,-4.9751,8.5714,10.413,2.9841,6.7308,4.8953,-8.8245,-8.4044,1.9704,8.5256
0.82148,3.9365,2.0065,-20.587999,-12.808,-3.1562,-3.8835,-35.015999,-2.0065,-20.587999,-12.808,-3.9801,11.429,12.317,5.8413,9.6154,7.7939,-8.8245,-3.6651,4.9261,11.41
1.7694,2.9841,2.9773,-18.627001,-12.808,-7.9871,-3.8835,-14.628,-2.0065,-18.627001,-12.808,-4.9751,12.381,12.317,6.7937,7.6923,7.7939,-5.9259,-4.613,7.8818,8.5256
3.6651,-0.8254,2.9773,-16.667,-11.823,-9.9195,-3.8835,-1.0356,-2.0065,-16.667,-11.823,-2.9851,12.381,10.413,8.6984,3.8462,6.8277,-4.9597,-7.4566,8.867,4.6795
9.3523,-1.7778,6.8608,-12.745,-7.8818,1.6747,0.97087,-13.657,-1.0356,-12.745,-7.8818,3.9801,11.429,8.5079,10.603,2.8846,7.7939,-5.9259,-8.4044,8.867,2.7564
12.196,2.0317,10.744,-5.8824,0.0,7.4718,6.7961,-2.0065,3.8188,-5.8824,0.0,8.9552,14.286,10.413,13.46,5.7692,11.659,-0.12882,-7.4566,12.808,2.7564
9.3523,3.9365,9.7735,-0.98039,1.9704,4.5733,5.8252,-8.8026,3.8188,-0.98039,1.9704,6.9652,14.286,11.365,12.508,7.6923,13.591,0.83736,-8.4044,12.808,3.7179
5.5608,4.8889,6.8608,-3.9216,-3.9409,0.70853,0.0,-9.7735,-1.0356,-3.9216,-3.9409,1.99,13.333,9.4603,10.603,8.6538,12.625,-1.095,-10.3,11.823,5.641
1.7694,3.9365,5.89,-7.8431,-6.8966,-7.0209,-2.9126,-0.06472,-4.9191,-7.8431,-6.8966,-0.99502,9.5238,6.6032,6.7937,6.7308,8.7601,-0.12882,-10.3,10.837,2.7564
-1.0742,2.9841,4.9191,-10.784,-10.837,-8.9533,-3.8835,-4.9191,-6.8608,-10.784,-10.837,-3.9801,7.619,5.6508,4.8889,4.8077,5.8615,-0.12882,-8.4044,9.8522,3.7179
1.7694,1.0794,3.9482,-7.8431,-9.8522,-0.25765,-0.97087,-18.511,-6.8608,-7.8431,-9.8522,-0.99502,7.619,5.6508,3.9365,3.8462,4.8953,0.83736,-7.4566,11.823,6.6026
-1.0742,-0.8254,1.0356,-8.8235,-8.867,-1.2238,-0.97087,-9.7735,-5.89,-8.8235,-8.867,-1.99,3.8095,4.6984,0.12698,2.8846,2.963,-2.0612,-6.5087,4.9261,6.6026
-5.8136,0.12698,-0.90615,-12.745,-9.8522,-5.0886,-2.9126,-1.0356,-7.8317,-12.745,-9.8522,-4.9751,1.9048,4.6984,-2.7302,4.8077,2.963,-5.9259,-3.6651,0.0,9.4872
-6.7615,0.12698,-2.8479,-14.706,-13.793,-9.9195,-7.767,-5.89,-7.8317,-14.706,-13.793,-9.9502,3.8095,6.6032,-1.7778,8.6538,5.8615,-4.9597,-0.82148,0.0,9.4872
-10.553,-2.7302,-6.7314,-20.587999,-18.719,-15.717,-16.504999,-20.452999,-10.744,-20.587999,-18.719,-16.915001,6.6667,8.5079,-1.7778,8.6538,6.8277,-6.8921,-0.82148,0.98522,9.4872
-16.24,-9.3968,-15.469,-23.528999,-26.601,-19.580999,-27.184,-22.395,-17.540001,-23.528999,-26.601,-26.865999,6.6667,8.5079,-5.5873,6.7308,2.963,-8.8245,-3.6651,-0.98522,9.4872
-16.24,-15.111,-19.353001,-22.549,-31.527,-23.445999,-33.009998,-14.628,-25.306999,-22.549,-31.527,-31.841,7.619,9.4603,-3.6825,5.7692,2.963,-4.9597,-6.5087,0.98522,8.5256
-13.397,-18.921,-20.323999,-24.51,-35.467999,-24.412001,-36.893002,-14.628,-34.044998,-24.51,-35.467999,-34.826,7.619,7.5556,-1.7778,2.8846,1.9968,-4.9597,-12.196,2.9557,4.6795
-4.8657,-14.159,-13.528,-13.725,-28.570999,-17.649,-29.125999,4.7896,-32.104,-13.725,-28.570999,-27.861,8.5714,8.5079,3.9365,4.8077,5.8615,-2.0612,-12.196,4.9261,4.6795
2.7172,-8.4444,-4.7896,-5.8824,-19.704,-9.9195,-19.417,14.498,-25.306999,-5.8824,-19.704,-18.905001,9.5238,6.6032,9.6508,5.7692,9.7262,3.7359,-11.248,8.867,1.7949
