C3,C4,Cz,F1,F2,F3,F4,F7,F8,Fp1,Fp2,Fz,O1,O2,P3,P4,Pz,T3,T4,T5,T6
-2.97,-6.571,-1.9512,-1.9512,-5.8824,-5.1133,-5.8252,3.8188,-8.8026,-1.9512,-5.8824,-5.9113,4.7393,-12.444,4.8657,-11.594,-3.8003,6.571,-1.7778,14.778,-9.697
-3.9179,-10.399,-3.9024,-1.9512,-3.9216,-1.2298,-5.8252,1.877,-9.7735,-1.9512,-3.9216,-3.9409,-0.94787,-14.349,-2.7172,-17.391001,-9.5974,1.7863,-5.5873,14.778,-10.654
-2.0221,-10.399,-3.9024,-2.9268,-5.8824,-1.2298,-5.8252,1.877,-10.744,-2.9268,-5.8824,-3.9409,-8.5308,-15.302,-6.5087,-21.256001,-13.462,-4.9123,-8.4444,1.9704,-11.611
3.6651,-6.571,1.9512,0.97561,1.9608,-1.2298,0.97087,4.7896,-3.9482,0.97561,1.9608,2.9557,-15.166,-14.349,-7.4566,-16.424999,-12.496,-6.8262,-4.6349,-8.867,-9.697
5.5608,-2.7432,5.8537,5.8537,5.8824,7.5081,5.8252,6.7314,-4.9191,5.8537,5.8824,9.8522,-19.905001,-18.159,-9.3523,-10.628,-12.496,-1.0845,-6.5397,-10.837,-12.568
4.613,2.9984,7.8049,8.7805,6.8627,13.333,8.7379,8.6731,2.8479,8.7805,6.8627,13.793,-20.853001,-21.968,-6.5087,-4.8309,-9.5974,0.82935,-1.7778,-11.823,-18.309
5.5608,7.7831,6.8293,11.707,11.765,13.333,11.65,8.6731,5.7605,11.707,11.765,16.749001,-15.166,-19.111,-2.7172,0.0,-6.6989,-2.9984,3.9365,-7.8818,-21.18
5.5608,12.568,13.659,13.659,12.745,13.333,13.592,9.644,6.7314,13.659,12.745,19.704,-1.8957,-1.9683,1.0742,8.6957,2.963,5.614,8.6984,-5.9113,-12.568
-2.97,13.525,17.561001,6.8293,9.8039,7.5081,10.68,3.8188,1.877,6.8293,9.8039,15.764,7.5829,14.222,-1.7694,16.424999,8.7601,-1.0845,8.6984,-8.867,2.7432
-7.7093,9.697,14.634,0.0,2.9412,3.6246,2.9126,-2.9773,-1.0356,0.0,2.9412,7.8818,12.322,24.698,-1.7694,19.323999,13.591,-4.9123,6.7937,-9.8522,16.139999
-7.7093,4.9123,8.7805,-6.8293,-5.8824,-2.2006,-1.9417,-7.8317,-5.89,-6.8293,-5.8824,0.98522,17.062,29.459999,1.0742,17.391001,15.523,-4.9123,5.8413,-4.9261,23.796
-5.8136,0.12759,-2.9268,-11.707,-15.686,-8.9968,-8.7379,-12.686,-11.715,-11.707,-15.686,-6.8966,15.166,23.746,4.8657,10.628,11.659,-6.8262,-3.6825,4.9261,23.796
-1.0742,-6.571,-12.683,-11.707,-15.686,-11.909,-11.65,-7.8317,-14.628,-11.707,-15.686,-13.793,11.374,12.317,10.553,2.8986,7.7939,1.7863,-1.7778,9.8522,18.054001
-1.0742,-18.054001,-20.488001,-11.707,-14.706,-14.822,-18.447001,-3.9482,-21.424,-11.707,-14.706,-20.690001,7.5829,1.8413,10.553,-7.7295,0.06441,4.6571,-0.8254,9.8522,10.399
-0.12638,-21.882,-21.462999,-4.878,-7.8431,-13.851,-18.447001,1.877,-18.511,-4.878,-7.8431,-18.719,0.94787,-8.6349,4.8657,-14.493,-8.6312,5.614,-9.3968,9.8522,3.7002
-1.0742,-23.796,-20.488001,-1.9512,-8.8235,-10.939,-17.476,6.7314,-13.657,-1.9512,-8.8235,-14.778,-9.4787,-18.159,-3.6651,-22.222,-18.292999,4.6571,-16.063,6.8966,-6.8262
-1.0742,-19.011,-11.707,3.9024,-0.98039,2.6537,-7.767,10.615,-11.715,3.9024,-0.98039,-3.9409,-11.374,-19.111,-9.3523,-26.087,-21.191999,-0.12759,-16.063,4.9261,-16.396
-2.0221,-8.4848,-0.97561,11.707,8.8235,9.4498,5.8252,15.469,-3.9482,11.707,8.8235,9.8522,-8.5308,-13.397,-12.196,-23.188,-18.292999,3.7002,-12.254,0.0,-18.309
-3.9179,1.0845,0.97561,14.634,14.706,14.304,13.592,15.469,2.8479,14.634,14.706,16.749001,-9.4787,-9.5873,-17.882999,-17.391001,-15.395,7.5279,-7.4921,-7.8818,-17.351999
-10.553,6.8262,-2.9268,13.659,13.725,9.4498,12.621,10.615,5.7605,13.659,13.725,13.793,-13.27,-6.7302,-22.622,-8.6957,-14.428,-2.9984,-0.8254,-16.749001,-15.439
-9.6051,11.611,0.0,9.7561,10.784,5.5663,11.65,5.7605,7.7023,9.7561,10.784,10.837,-9.4787,-0.06349,-15.987,2.8986,-6.6989,-11.611,4.8889,-12.808,-7.7831
-5.8136,16.396,8.7805,6.8293,7.8431,4.5955,9.7087,-0.06472,7.7023,6.8293,7.8431,9.8522,-0.94787,7.5556,-2.7172,13.527,6.8277,-7.7831,7.746,-10.837,-0.12759
-0.12638,18.309,16.584999,4.878,8.8235,1.6828,6.7961,-3.9482,10.615,4.878,8.8235,7.8818,9.4787,13.27,12.449,22.222,19.388,-5.8692,11.556,-8.867,4.6571
5.5608,13.525,14.634,0.97561,2.9412,-3.1715,3.8835,-2.0065,10.615,0.97561,2.9412,4.9261,18.957001,16.127001,20.979,23.188,25.184999,-3.9553,5.8413,-0.98522,2.7432
10.3,8.74,8.7805,0.97561,0.98039,-0.2589,1.9417,1.877,4.7896,0.97561,0.98039,2.9557,25.591999,19.937,25.719,23.188,27.118,3.7002,2.9841,3.9409,2.7432
14.092,2.9984,4.878,-1.9512,-1.9608,2.6537,1.9417,-0.06472,-0.06472,-1.9512,-1.9608,1.9704,28.436001,23.746,27.615,19.323999,26.150999,1.7863,4.8889,11.823,5.614
15.987,-3.7002,3.9024,0.0,-6.8627,3.6246,-1.9417,-1.0356,-6.8608,0.0,-6.8627,0.98522,22.749001,18.032,20.979,8.6957,17.455999,-0.12759,-4.6349,13.793,6.571
12.196,-9.4418,7.8049,0.0,0.0,5.5663,-0.97087,-2.0065,-5.89,0.0,0.0,1.9704,9.4787,6.6032,8.6572,-5.7971,3.9291,5.614,-2.7302,11.823,8.4848
3.6651,-14.226,1.9512,-0.97561,-0.98039,-0.2589,-3.8835,-4.9191,-11.715,-0.97561,-0.98039,-0.98522,-7.5829,-8.6349,-6.5087,-22.222,-15.395,6.571,-0.8254,6.8966,4.6571
-0.12638,-11.356,-4.878,-2.9268,-2.9412,-7.055,-4.8544,-3.9482,-5.89,-2.9268,-2.9412,-3.9409,-13.27,-15.302,-11.248,-25.121,-24.09,0.82935,-2.7302,4.9261,2.7432
0.82148,-3.7002,-5.8537,-3.9024,-5.8824,-12.88,-5.8252,-1.0356,-3.9482,-3.9024,-5.8824,-6.8966,-5.6872,-8.6349,-6.5087,-14.493,-17.327,3.7002,-3.6825,6.8966,1.7863
-0.12638,1.0845,-4.878,-2.9268,-2.9412,-11.909,-4.8544,-0.06472,-6.8608,-2.9268,-2.9412,-5.9113,0.0,-4.8254,-3.6651,-2.8986,-7.6651,-0.12759,-1.7778,8.867,1.7863
-4.8657,4.9123,-4.878,1.9512,0.0,-3.1715,-1.9417,-2.0065,-3.9482,1.9512,0.0,-2.9557,1.8957,-3.873,-7.4566,5.7971,-1.868,-5.8692,-7.4921,-0.98522,0.82935
-5.8136,10.654,-0.97561,3.9024,3.9216,5.5663,5.8252,-0.06472,-2.0065,3.9024,3.9216,4.9261,3.7915,1.8413,-10.3,13.527,3.9291,-6.8262,-1.7778,-6.8966,0.82935
-1.0742,14.482,5.8537,4.878,3.9216,11.392,9.7087,3.8188,1.877,4.878,3.9216,10.837,3.7915,5.6508,-4.613,18.357,9.7262,-5.8692,2.0317,-6.8966,1.7863
3.6651,15.439,16.584999,7.8049,5.8824,12.362,12.621,3.8188,-0.06472,7.8049,5.8824,14.778,1.8957,4.6984,2.97,18.357,17.455999,-5.8692,2.0317,-8.867,-1.0845
4.613,17.351999,27.316999,7.8049,7.8431,7.5081,14.563,0.90615,9.644,7.8049,7.8431,17.733999,-0.94787,0.88889,6.7615,16.424999,20.354,-8.74,-2.7302,-8.867,-2.0415
3.6651,15.439,26.341,8.7805,8.8235,5.5663,13.592,1.877,14.498,8.7805,8.8235,16.749001,-5.6872,-1.9683,6.7615,13.527,17.455999,1.7863,-5.5873,-8.867,-2.9984
3.6651,4.9123,13.659,8.7805,11.765,9.4498,9.7087,5.7605,12.557,8.7805,11.765,13.793,-8.5308,-3.873,3.9179,7.7295,8.7601,-3.9553,5.8413,-8.867,-2.9984
4.613,-2.7432,3.9024,4.878,5.8824,8.479,4.8544,2.8479,14.498,4.878,5.8824,6.8966,-6.6351,-1.0159,4.8657,2.8986,4.8953,-2.9984,14.413,-9.8522,-1.0845
6.5087,-2.7432,3.9024,0.97561,1.9608,0.71197,1.9417,-2.9773,10.615,0.97561,1.9608,1.9704,-0.94787,3.746,6.7615,0.96618,4.8953,1.7863,9.6508,-6.8966,1.7863
7.4566,0.12759,5.8537,-2.9268,0.0,-2.2006,4.8544,-4.9191,7.7023,-2.9268,0.0,0.98522,4.7393,5.6508,8.6572,-0.96618,2.963,1.7863,7.746,4.9261,2.7432
4.613,2.0415,3.9024,-1.9512,-1.9608,-7.055,4.8544,-4.9191,3.8188,-1.9512,-1.9608,0.98522,6.6351,2.7937,5.8136,-5.7971,-3.8003,1.7863,3.9365,7.8818,1.7863
-4.8657,-4.6571,-8.7805,-3.9024,-5.8824,-15.793,-4.8544,-5.89,-2.0065,-3.9024,-5.8824,-4.9261,7.5829,-0.06349,-2.7172,-10.628,-14.428,3.7002,0.12698,8.867,-0.12759
-8.6572,-6.571,-19.511999,-5.8537,-2.9412,-12.88,-9.7087,-9.7735,-6.8608,-5.8537,-2.9412,-9.8522,11.374,3.746,-8.4044,-6.7633,-16.361,7.5279,-1.7778,13.793,5.614
-7.7093,-1.7863,-17.561001,-3.9024,-1.9608,-10.939,-8.7379,-11.715,0.90615,-3.9024,-1.9608,-9.8522,5.6872,1.8413,-9.3523,0.96618,-10.564,1.7863,1.0794,5.9113,9.4418
-4.8657,3.9553,-7.8049,-5.8537,-1.9608,-11.909,-3.8835,-9.7735,5.7605,-5.8537,-1.9608,-7.8818,-6.6351,-5.7778,-10.3,6.7633,-3.8003,-5.8692,2.9841,-7.8818,8.4848
3.6651,9.697,4.878,-0.97561,-2.9412,-5.1133,0.97087,-2.0065,2.8479,-0.97561,-2.9412,0.0,-13.27,-9.5873,-4.613,9.6618,3.9291,-3.9553,4.8889,-11.823,7.5279
9.3523,17.351999,15.61,5.8537,5.8824,2.6537,10.68,2.8479,3.8188,5.8537,5.8824,12.808,-11.374,-9.5873,0.12638,11.594,9.7262,-9.697,0.12698,-14.778,2.7432
11.248,18.309,18.537001,12.683,13.725,12.362,17.476,6.7314,5.7605,12.683,13.725,21.674999,-4.7393,-6.7302,3.9179,10.628,11.659,-5.8692,-10.349,-11.823,0.82935
6.5087,9.697,11.707,14.634,13.725,15.275,14.563,10.615,4.7896,14.634,13.725,20.690001,-2.8436,-3.873,1.0742,5.7971,7.7939,0.82935,-6.5397,-8.867,-1.0845
1.7694,4.9123,7.8049,15.61,13.725,15.275,12.621,10.615,4.7896,15.61,13.725,17.733999,-2.8436,-1.9683,-0.82148,1.9324,4.8953,-2.0415,1.0794,-1.9704,-4.9123
3.6651,7.7831,12.683,12.683,9.8039,17.216999,11.65,9.644,5.7605,12.683,9.8039,15.764,-1.8957,-0.06349,2.0221,3.8647,6.8277,5.614,7.746,0.98522,-8.74
13.144,13.525,24.389999,11.707,10.784,14.304,12.621,11.586,8.6731,11.707,10.784,17.733999,6.6351,7.5556,11.501,7.7295,13.591,15.183,7.746,2.9557,-11.611
11.248,8.74,20.488001,6.8293,8.8235,9.4498,9.7087,4.7896,11.586,6.8293,8.8235,12.808,10.427,8.5079,12.449,3.8647,8.7601,10.399,2.0317,2.9557,-10.654
-2.0221,-3.7002,-0.97561,-0.97561,3.9216,-3.1715,2.9126,-2.9773,9.644,-0.97561,3.9216,0.98522,11.374,8.5079,3.9179,-3.8647,-3.8003,5.614,6.7937,0.98522,-2.9984
-12.449,-11.356,-24.389999,-9.7561,-5.8824,-16.764,-6.7961,-9.7735,3.8188,-9.7561,-5.8824,-12.808,9.4787,9.4603,-3.6651,-8.6957,-14.428,-8.74,8.6984,-2.9557,5.614
-18.136,-11.356,-31.219999,-17.561001,-15.686,-24.531,-14.563,-19.482,1.877,-17.561001,-15.686,-21.674999,5.6872,5.6508,-7.4566,-8.6957,-16.361,-14.482,9.6508,0.0,13.27
-11.501,-5.614,-18.537001,-22.438999,-18.627001,-17.735001,-14.563,-19.482,-2.0065,-22.438999,-18.627001,-20.690001,5.6872,4.6984,-2.7172,-3.8647,-10.564,-7.7831,5.8413,5.9113,14.226
0.82148,0.12759,-0.97561,-13.659,-8.8235,-6.0841,-9.7087,-14.628,-2.9773,-13.659,-8.8235,-9.8522,8.5308,5.6508,6.7615,0.96618,-0.90177,-0.12759,6.7937,14.778,14.226
7.4566,0.12759,7.8049,-2.9268,-6.8627,-3.1715,-6.7961,-8.8026,-3.9482,-2.9268,-6.8627,-1.9704,4.7393,-0.06349,6.7615,0.96618,1.0306,2.7432,1.0794,11.823,13.27
8.4044,-3.7002,6.8293,-2.9268,-4.902,2.6537,-5.8252,-5.89,-2.9773,-2.9268,-4.902,0.0,0.94787,-4.8254,3.9179,0.0,0.06441,4.6571,-7.4921,7.8818,11.356
8.4044,-9.4418,0.0,0.97561,-1.9608,6.5372,-5.8252,1.877,-6.8608,0.97561,-1.9608,0.0,-3.7915,-6.7302,1.0742,-4.8309,-3.8003,-5.8692,-9.3968,6.8966,6.571
13.144,-9.4418,0.97561,13.659,6.8627,12.362,1.9417,14.498,-4.9191,13.659,6.8627,6.8966,-4.7393,-6.7302,0.12638,-3.8647,-1.868,2.7432,-8.4444,-2.9557,1.7863
18.830999,-3.7002,6.8293,20.488001,10.784,24.013,9.7087,20.323999,4.7896,20.488001,10.784,16.749001,-2.8436,-2.9206,1.0742,1.9324,2.963,15.183,1.0794,-10.837,-3.9553
21.674999,9.697,13.659,21.462999,17.646999,31.780001,21.358999,18.382,11.586,21.462999,17.646999,25.615999,0.94787,6.6032,5.8136,10.628,10.692,10.399,6.7937,-10.837,-3.9553
15.987,20.223,16.584999,16.584999,18.627001,24.013,21.358999,14.498,14.498,16.584999,18.627001,22.66,4.7393,13.27,9.6051,19.323999,18.422001,10.399,3.9365,-8.867,-3.9553
8.4044,17.351999,14.634,10.732,11.765,9.4498,11.65,7.7023,11.586,10.732,11.765,10.837,3.7915,12.317,9.6051,18.357,18.422001,9.4418,4.8889,-7.8818,-5.8692
-0.12638,9.697,12.683,1.9512,0.98039,-1.2298,2.9126,1.877,2.8479,1.9512,0.98039,1.9704,2.8436,6.6032,6.7615,10.628,14.557,2.7432,1.0794,-7.8818,-9.697
-2.97,2.9984,13.659,-1.9512,-0.98039,0.71197,0.0,-2.0065,3.8188,-1.9512,-0.98039,0.98522,4.7393,2.7937,7.7093,3.8647,13.591,2.7432,2.0317,-2.9557,-14.482
-2.97,2.9984,13.659,0.97561,4.902,2.6537,4.8544,-3.9482,9.644,0.97561,4.902,3.9409,9.4787,2.7937,8.6572,0.96618,14.557,0.82935,2.9841,2.9557,-13.525
-7.7093,2.9984,7.8049,-1.9512,1.9608,-8.9968,4.8544,-9.7735,5.7605,-1.9512,1.9608,0.0,11.374,2.7937,7.7093,-2.8986,9.7262,0.82935,0.12698,11.823,-7.7831
-11.501,0.12759,-2.9268,-9.7561,-6.8627,-17.735001,-1.9417,-13.657,2.8479,-9.7561,-6.8627,-8.867,6.6351,-1.9683,2.0221,-5.7971,0.06441,-6.8262,2.0317,9.8522,2.7432
-13.397,-6.571,-13.659,-16.584999,-12.745,-19.676001,-9.7087,-17.540001,-2.0065,-16.584999,-12.745,-16.749001,0.94787,-5.7778,-4.613,-5.7971,-8.6312,-12.568,10.603,5.9113,13.27
-16.24,-15.183,-22.438999,-20.488001,-17.646999,-23.559999,-17.476,-17.540001,-11.715,-20.488001,-17.646999,-22.66,-9.4787,-10.54,-13.144,-9.6618,-18.292999,-16.396,7.746,3.9409,17.097
-11.501,-19.011,-18.537001,-15.61,-16.667,-16.764,-16.504999,-8.8026,-12.686,-15.61,-16.667,-17.733999,-12.322,-8.6349,-15.987,-10.628,-21.191999,-4.9123,2.9841,2.9557,17.097
-0.12638,-11.356,-3.9024,-7.8049,-4.902,-0.2589,-3.8835,-3.9482,-11.715,-7.8049,-4.902,-2.9557,-9.4787,-4.8254,-9.3523,-3.8647,-13.462,5.614,1.0794,7.8818,17.097
11.248,1.0845,8.7805,0.97561,2.9412,7.5081,6.7961,1.877,-2.9773,0.97561,2.9412,10.837,-7.5829,-4.8254,-1.7694,3.8647,-4.7665,8.4848,-2.7302,6.8966,13.27
21.674999,10.654,18.537001,12.683,12.745,17.216999,16.504999,10.615,1.877,12.683,12.745,19.704,-0.94787,1.8413,6.7615,9.6618,2.963,9.4418,-7.4921,7.8818,9.4418
23.57,14.482,21.462999,16.584999,12.745,21.1,21.358999,16.440001,4.7896,16.584999,12.745,22.66,0.0,3.746,10.553,12.56,8.7601,10.399,-0.8254,3.9409,5.614
20.726999,15.439,20.488001,17.561001,17.646999,22.070999,21.358999,15.469,7.7023,17.561001,17.646999,23.645,2.8436,6.6032,14.344,15.459,15.523,15.183,5.8413,2.9557,1.7863
15.987,14.482,14.634,13.659,15.686,18.188,16.504999,12.557,5.7605,13.659,15.686,15.764,6.6351,12.317,18.136,18.357,21.32,12.313,0.12698,1.9704,-0.12759
12.196,11.611,10.732,10.732,11.765,11.392,8.7379,9.644,1.877,10.732,11.765,8.867,9.4787,12.317,19.084,18.357,23.253,3.7002,-4.6349,-6.8966,1.7863
10.3,3.9553,11.707,5.8537,2.9412,11.392,0.0,5.7605,-1.0356,5.8537,2.9412,3.9409,13.27,13.27,18.136,13.527,22.287001,2.7432,-3.6825,-6.8966,-0.12759
7.4566,-4.6571,9.7561,1.9512,0.98039,10.421,-0.97087,7.7023,4.7896,1.9512,0.98039,0.98522,11.374,10.413,13.397,4.8309,15.523,5.614,0.12698,-2.9557,-5.8692
0.82148,-7.5279,3.9024,3.9024,3.9216,4.5955,1.9417,7.7023,4.7896,3.9024,3.9216,0.98522,7.5829,2.7937,6.7615,-2.8986,7.7939,-1.0845,-5.5873,-2.9557,-17.351999
-1.0742,-4.6571,-3.9024,8.7805,8.8235,-0.2589,4.8544,4.7896,4.7896,8.7805,8.8235,0.0,5.6872,-3.873,4.8657,-3.8647,5.8615,-1.0845,-6.5397,0.98522,-26.922001
-2.0221,-1.7863,-9.7561,6.8293,5.8824,-4.1424,3.8835,3.8188,7.7023,6.8293,5.8824,-3.9409,1.8957,-11.492,1.0742,-4.8309,2.963,5.614,-2.7302,6.8966,-29.792999
-6.7615,0.12759,-6.8293,-0.97561,-1.9608,-8.0259,-0.97087,-0.06472,3.8188,-0.97561,-1.9608,-7.8818,-1.8957,-14.349,-3.6651,-4.8309,-0.90177,9.4418,2.0317,13.793,-23.094
-9.6051,-1.7863,-4.878,-9.7561,-8.8235,-8.0259,-7.767,-5.89,-2.9773,-9.7561,-8.8235,-12.808,-6.6351,-15.302,-9.3523,-5.7971,-6.6989,-4.9123,0.12698,11.823,-11.611
-12.449,-6.571,-10.732,-13.659,-12.745,-8.0259,-12.621,-11.715,-8.8026,-13.659,-12.745,-13.793,-8.5308,-11.492,-14.092,-7.7295,-16.361,-2.9984,2.0317,10.837,-1.0845
-10.553,-12.313,-18.537001,-14.634,-13.725,-8.9968,-11.65,-9.7735,-10.744,-14.634,-13.725,-14.778,-3.7915,-2.9206,-15.039,-7.7295,-21.191999,1.7863,2.0317,8.867,12.313
-8.6572,-14.226,-23.415001,-12.683,-15.686,-9.9676,-14.563,-2.0065,-12.686,-12.683,-15.686,-16.749001,-2.8436,1.8413,-13.144,-6.7633,-20.225,-4.9123,3.9365,1.9704,19.011
-9.6051,-13.27,-21.462999,-12.683,-12.745,-13.851,-14.563,-6.8608,-12.686,-12.683,-12.745,-17.733999,-3.7915,4.6984,-10.3,-2.8986,-11.53,-6.8262,4.8889,-1.9704,20.924999
-9.6051,-9.4418,-11.707,-10.732,-8.8235,-13.851,-9.7087,-7.8317,-6.8608,-10.732,-8.8235,-12.808,0.0,8.5079,-2.7172,4.8309,1.0306,-7.7831,-0.8254,-3.9409,19.968
-2.97,-2.7432,0.97561,-0.97561,3.9216,-1.2298,0.0,-0.06472,-6.8608,-0.97561,3.9216,-0.98522,2.8436,8.5079,3.9179,11.594,8.7601,-2.9984,0.12698,-3.9409,18.054001
7.4566,5.8692,9.7561,8.7805,8.8235,11.392,10.68,8.6731,0.90615,8.7805,8.8235,12.808,-0.94787,1.8413,7.7093,10.628,7.7939,-0.12759,0.12698,-2.9557,10.399
15.039,11.611,16.584999,14.634,14.706,17.216999,19.417,13.528,7.7023,14.634,14.706,20.690001,-1.8957,-2.9206,9.6051,5.7971,2.963,6.571,0.12698,-3.9409,-1.0845
15.039,10.654,19.511999,13.659,14.706,20.129,17.476,10.615,4.7896,13.659,14.706,20.690001,-1.8957,-2.9206,9.6051,0.96618,2.963,1.7863,-0.8254,-3.9409,-6.8262
12.196,2.9984,19.511999,14.634,14.706,17.216999,14.563,7.7023,1.877,14.634,14.706,19.704,0.94787,-1.0159,8.6572,-3.8647,6.8277,-6.8262,2.0317,-3.9409,-10.654
12.196,-0.82935,20.488001,11.707,14.706,18.188,14.563,7.7023,3.8188,11.707,14.706,20.690001,1.8957,-0.06349,7.7093,-4.8309,11.659,4.6571,2.9841,-2.9557,-14.482
15.039,7.7831,26.341,14.634,15.686,17.216999,19.417,10.615,14.498,14.634,15.686,24.631001,5.6872,2.7937,9.6051,3.8647,18.422001,13.27,2.9841,1.9704,-11.611
15.039,23.094,30.243999,14.634,16.667,16.246,24.271999,9.644,18.382,14.634,16.667,24.631001,10.427,6.6032,12.449,15.459,24.219,5.614,1.0794,0.0,-5.8692
11.248,25.965,27.316999,6.8293,7.8431,14.304,20.388,3.8188,14.498,6.8293,7.8431,15.764,11.374,6.6032,14.344,20.290001,23.253,6.571,1.0794,1.9704,-2.9984
5.5608,19.266001,16.584999,-1.9512,-1.9608,3.6246,8.7379,-0.06472,8.6731,-1.9512,-1.9608,4.9261,8.5308,6.6032,11.501,18.357,16.49,9.4418,6.7937,10.837,-2.0415
0.82148,8.74,0.0,-5.8537,-4.902,-5.1133,-1.9417,-2.0065,0.90615,-5.8537,-4.902,-5.9113,6.6351,7.5556,7.7093,12.56,8.7601,6.571,2.9841,14.778,-1.0845
-2.97,-6.571,-18.537001,-9.7561,-9.8039,-10.939,-12.621,-4.9191,-5.89,-9.7561,-9.8039,-15.764,6.6351,8.5079,4.8657,3.8647,1.9968,-2.0415,-1.7778,17.733999,1.7863
-3.9179,-22.839001,-30.243999,-12.683,-12.745,-11.909,-20.388,-2.9773,-15.599,-12.683,-12.745,-21.674999,10.427,13.27,2.97,-1.9324,-1.868,2.7432,-3.6825,18.719,5.614
-6.7615,-29.537001,-30.243999,-6.8293,-8.8235,-9.9676,-20.388,-1.0356,-20.452999,-6.8293,-8.8235,-19.704,10.427,12.317,-1.7694,-7.7295,-8.6312,9.4418,-9.3968,18.719,8.4848
-11.501,-28.580999,-23.415001,0.0,-4.902,-6.0841,-17.476,2.8479,-11.715,0.0,-4.902,-13.793,3.7915,6.6032,-11.248,-11.594,-18.292999,-0.12759,-10.349,9.8522,11.356
-13.397,-19.968,-13.659,9.7561,5.8824,-0.2589,-5.8252,3.8188,-0.06472,9.7561,5.8824,-3.9409,-6.6351,-0.06349,-20.726999,-13.527,-25.056,-12.568,-5.5873,3.9409,7.5279
-9.6051,-5.614,-6.8293,17.561001,16.667,7.5081,7.767,4.7896,8.6731,17.561001,16.667,6.8966,-9.4787,-1.0159,-20.726999,-6.7633,-21.191999,-6.8262,0.12698,-6.8966,7.5279
-4.8657,0.12759,-3.9024,19.511999,24.51,8.479,13.592,4.7896,14.498,19.511999,24.51,8.867,-13.27,-3.873,-15.039,-4.8309,-12.496,-1.0845,9.6508,-15.764,6.571
0.82148,1.0845,0.97561,21.462999,26.471001,10.421,11.65,2.8479,14.498,21.462999,26.471001,7.8818,-10.427,-2.9206,-3.6651,-3.8647,-0.90177,1.7863,2.9841,-11.823,3.7002
9.3523,4.9123,10.732,22.438999,27.451,14.304,12.621,3.8188,12.557,22.438999,27.451,9.8522,-4.7393,1.8413,9.6051,-0.96618,11.659,-2.0415,-9.3968,-4.9261,1.7863
9.3523,9.697,11.707,21.462999,25.49,4.5955,12.621,2.8479,15.469,21.462999,25.49,9.8522,-3.7915,0.88889,14.344,0.0,13.591,0.82935,-1.7778,-7.8818,-2.0415
7.4566,17.351999,9.7561,27.316999,33.333,7.5081,18.447001,7.7023,19.353001,27.316999,33.333,14.778,-0.94787,-1.0159,14.344,1.9324,13.591,5.614,10.603,-8.867,-5.8692
7.4566,23.094,10.732,32.195,38.235001,12.362,24.271999,14.498,24.207001,32.195,38.235001,20.690001,0.94787,-4.8254,13.397,5.7971,12.625,7.5279,10.603,-4.9261,-11.611
3.6651,20.223,10.732,29.268,32.353001,12.362,21.358999,10.615,25.177999,29.268,32.353001,14.778,2.8436,-5.7778,10.553,9.6618,12.625,7.5279,10.603,-2.9557,-12.568
-3.9179,10.654,4.878,19.511999,20.587999,4.5955,10.68,4.7896,23.236,19.511999,20.587999,3.9409,1.8957,-6.7302,2.97,8.6957,8.7601,5.614,10.603,-0.98522,-8.74
-10.553,2.0415,-3.9024,7.8049,13.725,-4.1424,0.97087,-1.0356,19.353001,7.8049,13.725,-7.8818,-0.94787,-4.8254,-5.5608,3.8647,0.06441,-2.0415,6.7937,4.9261,-2.9984
-15.292,-9.4418,-18.537001,-4.878,3.9216,-15.793,-8.7379,-10.744,12.557,-4.878,3.9216,-18.719,-3.7915,-1.0159,-13.144,-1.9324,-11.53,-17.351999,11.556,1.9704,7.5279
-20.979,-16.139999,-27.316999,-11.707,-4.902,-26.472,-14.563,-17.540001,3.8188,-11.707,-4.902,-23.645,-5.6872,3.746,-20.726999,-5.7971,-21.191999,-11.611,17.27,-5.9113,20.924999
-22.875,-15.183,-24.389999,-13.659,-6.8627,-25.502001,-16.504999,-22.395,-1.0356,-13.659,-6.8627,-23.645,-1.8957,10.413,-20.726999,-4.8309,-22.158001,-3.9553,6.7937,-2.9557,27.624001
-20.979,-11.356,-18.537001,-14.634,-7.8431,-21.618,-15.534,-25.306999,-2.0065,-14.634,-7.8431,-20.690001,1.8957,15.175,-15.987,-3.8647,-18.292999,-10.654,4.8889,2.9557,24.753
-17.188,-7.5279,-12.683,-8.7805,-3.9216,-18.705999,-8.7379,-23.365999,-4.9191,-8.7805,-3.9216,-12.808,4.7393,14.222,-12.196,-4.8309,-13.462,-11.611,-2.7302,4.9261,19.968
-13.397,-3.7002,-9.7561,-3.9024,-4.902,-8.9968,-3.8835,-11.715,-2.0065,-3.9024,-4.902,-4.9261,4.7393,8.5079,-8.4044,-5.7971,-8.6312,-11.611,-7.4921,8.867,13.27
-8.6572,-4.6571,-10.732,-0.97561,-1.9608,-1.2298,-0.97087,-2.9773,-1.0356,-0.97561,-1.9608,-0.98522,0.0,-2.9206,-7.4566,-7.7295,-8.6312,-7.7831,-6.5397,8.867,2.7432
-2.97,-6.571,-5.8537,1.9512,0.98039,0.71197,-0.97087,-0.06472,-4.9191,1.9512,0.98039,0.98522,-1.8957,-6.7302,-6.5087,-4.8309,-5.7327,3.7002,-4.6349,6.8966,-3.9553
3.6651,-4.6571,3.9024,-0.97561,0.98039,-1.2298,-2.9126,3.8188,-8.8026,-0.97561,0.98039,3.9409,0.94787,-5.7778,0.12638,1.9324,1.0306,14.226,-10.349,7.8818,-7.7831
10.3,0.12759,9.7561,0.97561,-0.98039,10.421,-2.9126,9.644,-10.744,0.97561,-0.98039,7.8818,2.8436,-1.9683,9.6051,7.7295,10.692,12.313,-17.968,7.8818,-11.611
17.882999,3.9553,16.584999,6.8293,1.9608,21.1,0.0,13.528,-8.8026,6.8293,1.9608,12.808,1.8957,-1.9683,16.24,10.628,17.455999,7.5279,-15.111,-3.9409,-12.568
28.309999,10.654,29.268,13.659,5.8824,24.983999,6.7961,21.294001,-6.8608,13.659,5.8824,21.674999,4.7393,0.88889,23.823,11.594,24.219,15.183,-10.349,-9.8522,-9.697
33.049,13.525,35.122002,15.61,8.8235,31.780001,14.563,21.294001,0.90615,15.61,8.8235,28.570999,7.5829,1.8413,30.458,6.7633,24.219,16.139999,-8.4444,-2.9557,-10.654
23.57,11.611,25.365999,10.732,2.9412,28.867001,15.534,14.498,3.8188,10.732,2.9412,23.645,6.6351,3.746,23.823,0.96618,14.557,12.313,-2.7302,2.9557,-8.74
12.196,13.525,16.584999,2.9268,-0.98039,15.275,15.534,9.644,5.7605,2.9268,-0.98039,15.764,4.7393,8.5079,11.501,0.96618,2.963,14.226,2.9841,3.9409,-1.0845
-0.12638,11.611,0.97561,-9.7561,-10.784,3.6246,9.7087,0.90615,6.7314,-9.7561,-10.784,4.9261,-3.7915,3.746,-5.5608,-0.96618,-9.5974,4.6571,5.8413,0.98522,0.82935
-12.449,8.74,-13.659,-23.415001,-23.528999,-7.055,0.0,-13.657,3.8188,-23.415001,-23.528999,-7.8818,-6.6351,1.8413,-16.934999,0.0,-13.462,-7.7831,12.508,-2.9557,1.7863
-20.032,5.8692,-14.634,-31.219999,-28.431,-17.735001,-5.8252,-23.365999,-2.0065,-31.219999,-28.431,-15.764,-1.8957,9.4603,-16.934999,5.7971,-7.6651,-17.351999,15.365,-5.9113,8.4848
-22.875,0.12759,-12.683,-35.122002,-30.392,-26.472,-15.534,-26.278,-8.8026,-35.122002,-30.392,-21.674999,2.8436,12.317,-14.092,6.7633,-2.8341,-19.266001,9.6508,-4.9261,13.27
-18.136,-1.7863,-5.8537,-32.195,-28.431,-30.356001,-18.447001,-26.278,-13.657,-32.195,-28.431,-21.674999,10.427,18.983999,-5.5608,10.628,5.8615,-17.351999,-0.8254,2.9557,18.054001
-11.501,-8.4848,-5.8537,-31.219999,-31.372999,-27.443001,-25.243,-23.365999,-20.452999,-31.219999,-31.372999,-23.645,12.322,18.983999,1.0742,7.7295,8.7601,-13.525,-7.4921,6.8966,17.097
-4.8657,-12.313,-9.7561,-23.415001,-25.49,-17.735001,-26.214001,-16.57,-25.306999,-23.415001,-25.49,-19.704,10.427,13.27,4.8657,2.8986,7.7939,-4.9123,-4.6349,0.98522,16.139999
-2.97,-16.139999,-15.61,-16.584999,-23.528999,-8.9968,-24.271999,-7.8317,-31.132999,-16.584999,-23.528999,-11.823,2.8436,-1.9683,2.97,-2.8986,1.0306,-6.8262,-8.4444,-2.9557,10.399
-1.0742,-24.753,-16.584999,-8.7805,-14.706,0.71197,-20.388,-2.0065,-22.395,-8.7805,-14.706,-5.9113,-9.4787,-18.159,-1.7694,-11.594,-8.6312,-11.611,-12.254,-3.9409,-1.0845
7.4566,-26.667,-4.878,1.9512,-7.8431,12.362,-17.476,11.586,-17.540001,1.9512,-7.8431,0.98522,-11.374,-25.778,2.0221,-15.459,-8.6312,4.6571,-13.206,0.0,-7.7831
19.778999,-19.968,9.7561,10.732,-2.9412,23.042,-12.621,26.149,-23.365999,10.732,-2.9412,7.8818,-3.7915,-23.872999,13.397,-13.527,-0.90177,26.667,-19.872999,11.823,-20.223
33.049,-4.6571,27.316999,21.462999,5.8824,27.896,0.97087,36.827999,-14.628,21.462999,5.8824,19.704,5.6872,-14.349,27.615,-5.7971,13.591,34.321999,-18.921,19.704,-32.662998
43.476002,16.396,43.902,32.195,15.686,36.633999,19.417,42.653999,-2.0065,32.195,15.686,33.498001,9.4787,-6.7302,36.145,4.8309,27.118,28.580999,-21.778,14.778,-34.577
38.736,25.965,42.926998,22.438999,11.765,29.837999,24.271999,32.945,4.7896,22.438999,11.765,31.527,9.4787,-0.06349,30.458,6.7633,25.184999,19.011,-14.159,0.0,-31.707001
21.674999,23.094,27.316999,6.8293,3.9216,13.333,15.534,17.410999,4.7896,6.8293,3.9216,17.733999,9.4787,9.4603,20.032,4.8309,18.422001,13.27,2.0317,-10.837,-21.18
2.7172,14.482,3.9024,-3.9024,-3.9216,-2.2006,4.8544,6.7314,-0.06472,-3.9024,-3.9216,1.9704,9.4787,15.175,9.6051,1.9324,8.7601,1.7863,5.8413,-7.8818,-6.8262
-9.6051,4.9123,-10.732,-14.634,-13.725,-13.851,-5.8252,0.90615,-2.9773,-14.634,-13.725,-10.837,8.5308,18.983999,-0.82148,0.0,-0.90177,-0.12759,4.8889,-11.823,2.7432
-10.553,-2.7432,-11.707,-19.511999,-21.569,-20.646999,-15.534,-0.06472,-8.8026,-19.511999,-21.569,-18.719,3.7915,18.032,-6.5087,0.0,-3.8003,0.82935,1.0794,-11.823,10.399
-7.7093,-8.4848,-10.732,-24.389999,-26.471001,-21.618,-21.358999,-4.9191,-15.599,-24.389999,-26.471001,-22.66,0.94787,14.222,-5.5608,0.96618,-4.7665,-0.12759,-4.6349,-0.98522,14.226
-2.97,-15.183,-14.634,-20.488001,-28.431,-17.735001,-26.214001,-9.7735,-21.424,-20.488001,-28.431,-23.645,-0.94787,9.4603,-3.6651,-0.96618,-4.7665,2.7432,-1.7778,8.867,13.27
-1.0742,-24.753,-20.488001,-17.561001,-27.451,-15.793,-30.097,-9.7735,-24.337,-17.561001,-27.451,-24.631001,-0.94787,5.6508,-0.82148,-4.8309,-5.7327,-12.568,-7.4921,14.778,5.614
-1.0742,-30.493999,-26.341,-21.462999,-24.51,-10.939,-32.039001,-9.7735,-28.219999,-21.462999,-24.51,-22.66,1.8957,0.88889,-0.82148,-8.6957,-9.5974,-12.568,-10.349,14.778,1.7863
-3.9179,-29.537001,-27.316999,-22.438999,-29.412001,-9.9676,-32.039001,-8.8026,-27.249001,-22.438999,-29.412001,-20.690001,1.8957,-4.8254,-3.6651,-12.56,-14.428,-2.0415,-8.4444,10.837,-0.12759
-5.8136,-24.753,-24.389999,-16.584999,-22.549,-6.0841,-28.155001,-9.7735,-24.337,-16.584999,-22.549,-17.733999,2.8436,-9.5873,-4.613,-12.56,-15.395,-2.0415,-9.3968,9.8522,1.7863
-14.344,-22.839001,-25.365999,-17.561001,-20.587999,-9.9676,-25.243,-14.628,-20.452999,-17.561001,-20.587999,-17.733999,-1.8957,-17.205999,-8.4044,-13.527,-16.361,-13.525,-15.111,-0.98522,-1.0845
-19.084,-20.924999,-26.341,-19.511999,-18.627001,-20.646999,-20.388,-13.657,-15.599,-19.511999,-18.627001,-19.704,-5.6872,-19.111,-13.144,-12.56,-16.361,-18.309,-9.3968,-9.8522,-0.12759
-18.136,-17.097,-22.438999,-16.584999,-18.627001,-19.676001,-17.476,-11.715,-11.715,-16.584999,-18.627001,-18.719,-8.5308,-16.254,-16.934999,-14.493,-15.395,-14.482,-9.3968,-13.793,-3.9553
-10.553,-12.313,-10.732,-13.659,-12.745,-13.851,-11.65,-5.89,-12.686,-13.659,-12.745,-12.808,-9.4787,-7.6825,-17.882999,-11.594,-10.564,-5.8692,-3.6825,-18.719,-4.9123
-4.8657,-0.82935,5.8537,-6.8293,-7.8431,-7.055,-4.8544,-1.0356,-7.8317,-6.8293,-7.8431,-3.9409,-8.5308,0.88889,-14.092,-2.8986,-0.90177,-2.9984,2.0317,-18.719,-8.74
1.7694,12.568,20.488001,-0.97561,-1.9608,-2.2006,5.8252,3.8188,-5.89,-0.97561,-1.9608,5.9113,-1.8957,8.5079,-3.6651,7.7295,11.659,3.7002,3.9365,-12.808,-13.525
14.092,23.094,30.243999,8.7805,5.8824,11.392,17.476,13.528,-3.9482,8.7805,5.8824,15.764,4.7393,12.317,11.501,18.357,23.253,2.7432,1.0794,0.0,-17.351999
26.414,30.75,35.122002,16.584999,13.725,24.013,25.243,22.264999,2.8479,16.584999,13.725,22.66,6.6351,11.365,24.771,25.121,30.982,9.4418,1.0794,5.9113,-18.309
32.101002,32.662998,32.195,21.462999,19.608,24.983999,27.184,24.207001,15.469,21.462999,19.608,24.631001,7.5829,10.413,32.354,28.018999,32.915001,19.968,3.9365,8.867,-12.568
28.309999,23.094,18.537001,20.488001,20.587999,20.129,19.417,19.353001,19.353001,20.488001,20.587999,17.733999,6.6351,9.4603,30.458,23.188,27.118,20.924999,15.365,6.8966,-2.0415
15.039,11.611,4.878,16.584999,19.608,11.392,11.65,10.615,17.410999,16.584999,19.608,7.8818,3.7915,5.6508,19.084,15.459,14.557,15.183,15.365,-0.98522,5.614
1.7694,3.9553,-3.9024,12.683,16.667,-1.2298,6.7961,4.7896,17.410999,12.683,16.667,0.0,2.8436,1.8413,5.8136,6.7633,1.9968,1.7863,10.603,-1.9704,9.4418
-12.449,-4.6571,-15.61,4.878,11.765,-9.9676,0.0,-4.9191,15.469,4.878,11.765,-8.867,-4.7393,-8.6349,-8.4044,-5.7971,-13.462,-8.74,6.7937,0.98522,7.5279
-24.771,-11.356,-27.316999,-0.97561,5.8824,-19.676001,-3.8835,-14.628,14.498,-0.97561,5.8824,-16.749001,-14.218,-21.968,-22.622,-19.323999,-29.886999,-25.007999,8.6984,-0.98522,4.6571
-34.25,-16.139999,-35.122002,-5.8537,5.8824,-33.269001,-6.7961,-23.365999,8.6731,-5.8537,5.8824,-22.66,-18.957001,-27.683001,-32.101002,-28.018999,-39.549,-23.094,9.6508,-0.98522,5.614
-35.196999,-20.924999,-35.122002,-6.8293,4.902,-32.298,-8.7379,-24.337,4.7896,-6.8293,4.902,-23.645,-21.801001,-28.635,-32.101002,-29.952,-38.583,-16.396,2.9841,-2.9557,4.6571
-27.615,-19.968,-24.389999,1.9512,10.784,-22.589001,-4.8544,-18.511,10.615,1.9512,10.784,-16.749001,-19.905001,-24.825001,-26.414,-23.188,-28.921,-17.351999,-1.7778,-2.9557,5.614
-18.136,-12.313,-13.659,7.8049,14.706,-11.909,2.9126,-13.657,13.528,7.8049,14.706,-6.8966,-14.218,-16.254,-16.934999,-13.527,-16.361,-19.266001,0.12698,-2.9557,7.5279
-10.553,-4.6571,-4.878,14.634,24.51,-1.2298,12.621,-5.89,11.586,14.634,24.51,2.9557,-2.8436,-5.7778,-8.4044,-3.8647,-3.8003,-11.611,6.7937,2.9557,7.5279
-5.8136,1.0845,0.97561,23.415001,23.528999,3.6246,15.534,1.877,10.615,23.415001,23.528999,9.8522,4.7393,-0.06349,0.12638,3.8647,5.8615,-1.0845,5.8413,7.8818,5.614
1.7694,4.9123,7.8049,25.365999,23.528999,9.4498,17.476,1.877,4.7896,25.365999,23.528999,15.764,7.5829,1.8413,6.7615,6.7633,13.591,-2.0415,1.0794,0.98522,-1.0845
11.248,6.8262,14.634,26.341,25.49,18.188,19.417,11.586,5.7605,26.341,25.49,21.674999,9.4787,3.746,11.501,7.7295,15.523,-2.9984,-0.8254,-2.9557,-4.9123
16.934999,7.7831,17.561001,25.365999,23.528999,24.013,21.358999,15.469,3.8188,25.365999,23.528999,24.631001,8.5308,5.6508,11.501,9.6618,14.557,1.7863,-0.8254,0.0,-4.9123
17.882999,11.611,17.561001,23.415001,24.51,24.983999,19.417,14.498,10.615,23.415001,24.51,23.645,4.7393,5.6508,6.7615,13.527,14.557,14.226,-3.6825,-6.8966,-1.0845
16.934999,23.094,21.462999,23.415001,21.569,23.042,21.358999,15.469,16.440001,23.415001,21.569,24.631001,2.8436,9.4603,4.8657,23.188,16.49,17.097,9.6508,-8.867,7.5279
14.092,31.707001,24.389999,17.561001,16.667,22.070999,23.301001,9.644,15.469,17.561001,16.667,23.645,1.8957,15.175,2.97,29.952,18.422001,2.7432,22.032,-8.867,18.054001
11.248,27.879,19.511999,11.707,12.745,12.362,18.447001,4.7896,13.528,11.707,12.745,17.733999,-2.8436,12.317,0.12638,25.121,13.591,1.7863,18.222,-4.9261,22.839001
3.6651,15.439,10.732,5.8537,7.8431,5.5663,10.68,0.90615,10.615,5.8537,7.8431,9.8522,-11.374,3.746,-5.5608,11.594,1.9968,5.614,17.27,-3.9409,19.968
-5.8136,2.0415,-0.97561,-6.8293,-3.9216,-5.1133,-0.97087,-6.8608,6.7314,-6.8293,-3.9216,-1.9704,-19.905001,-7.6825,-14.092,-6.7633,-12.496,-1.0845,11.556,-3.9409,13.27
-7.7093,-5.614,-7.8049,-12.683,-8.8235,-6.0841,-4.8544,-11.715,1.877,-12.683,-8.8235,-4.9261,-15.166,-9.5873,-15.039,-17.391001,-17.327,-1.0845,4.8889,-4.9261,10.399
-9.6051,-7.5279,-12.683,-18.537001,-16.667,-8.9968,-9.7087,-13.657,-3.9482,-18.537001,-16.667,-9.8522,-4.7393,-4.8254,-11.248,-19.323999,-16.361,-2.0415,-4.6349,-3.9409,6.571
-15.292,-15.183,-19.511999,-23.415001,-21.569,-16.764,-17.476,-17.540001,-4.9191,-23.415001,-21.569,-18.719,-2.8436,-5.7778,-13.144,-22.222,-20.225,-10.654,-8.4444,-0.98522,4.6571
-27.615,-24.753,-30.243999,-27.316999,-31.372999,-26.472,-29.125999,-23.365999,-11.715,-27.316999,-31.372999,-28.570999,-5.6872,-8.6349,-21.674999,-26.087,-28.921,-20.223,-7.4921,-5.9113,2.7432
-30.458,-31.451,-33.171001,-27.316999,-30.392,-28.414,-32.039001,-23.365999,-12.686,-27.316999,-30.392,-29.556999,-2.8436,-4.8254,-24.518,-26.087,-29.886999,-15.439,-6.5397,-5.9113,0.82935
-23.823,-25.709999,-27.316999,-21.462999,-22.549,-20.646999,-23.301001,-16.57,-2.9773,-21.462999,-22.549,-22.66,0.94787,-0.06349,-19.778999,-18.357,-21.191999,-9.697,-3.6825,-6.8966,-2.9984
-15.292,-12.313,-16.584999,-17.561001,-13.725,-9.9676,-10.68,-11.715,4.7896,-17.561001,-13.725,-12.808,-1.8957,-4.8254,-15.039,-10.628,-12.496,-9.697,-8.4444,-9.8522,-8.74
-2.97,-1.7863,-2.9268,-14.634,-8.8235,1.6828,0.97087,-7.8317,10.615,-14.634,-8.8235,-3.9409,-10.427,-16.254,-8.4044,-4.8309,-4.7665,-8.74,-7.4921,-12.808,-15.439
9.3523,6.8262,12.683,-8.7805,-1.9608,1.6828,11.65,-2.0065,20.323999,-8.7805,-1.9608,4.9261,-17.062,-24.825001,1.0742,0.0,6.8277,-2.9984,8.6984,-13.793,-21.18
13.144,15.439,25.365999,-5.8537,0.0,5.5663,19.417,-2.9773,28.091,-5.8537,0.0,13.793,-18.957001,-22.921,8.6572,7.7295,16.49,2.7432,19.174999,-11.823,-15.439
10.3,21.18,28.292999,-6.8293,0.98039,2.6537,21.358999,-5.89,26.149,-6.8293,0.98039,14.778,-12.322,-12.444,11.501,12.56,22.287001,-2.9984,22.983999,-15.764,-2.9984
5.5608,22.136999,19.511999,-6.8293,-1.9608,-0.2589,16.504999,-8.8026,24.207001,-6.8293,-1.9608,8.867,-3.7915,-1.9683,9.6051,13.527,19.388,-8.74,23.937,-17.733999,3.7002
1.7694,17.351999,7.8049,-13.659,-11.765,-3.1715,7.767,-10.744,18.382,-13.659,-11.765,0.98522,4.7393,6.6032,6.7615,11.594,13.591,-9.697,17.27,-12.808,9.4418
-3.9179,15.439,0.97561,-18.537001,-14.706,-8.9968,3.8835,-10.744,13.528,-18.537001,-14.706,-4.9261,12.322,15.175,2.97,14.493,9.7262,-2.9984,15.365,-8.867,17.097
-5.8136,12.568,0.97561,-19.511999,-14.706,-8.0259,2.9126,-11.715,8.6731,-19.511999,-14.706,-4.9261,11.374,14.222,-1.7694,14.493,4.8953,0.82935,10.603,-4.9261,18.054001
-7.7093,7.7831,2.9268,-24.389999,-15.686,-6.0841,4.8544,-13.657,-1.0356,-24.389999,-15.686,-2.9557,5.6872,7.5556,-5.5608,9.6618,-1.868,-0.12759,6.7937,-5.9113,15.183
-9.6051,2.9984,-0.97561,-23.415001,-20.587999,-9.9676,0.0,-13.657,-2.9773,-23.415001,-20.587999,-4.9261,3.7915,7.5556,-10.3,3.8647,-8.6312,-6.8262,1.0794,-2.9557,9.4418
-16.24,-1.7863,-11.707,-25.365999,-22.549,-14.822,-4.8544,-12.686,-2.9773,-25.365999,-22.549,-8.867,0.0,2.7937,-19.778999,-3.8647,-18.292999,-6.8262,-10.349,1.9704,0.82935
-21.927,-7.5279,-16.584999,-25.365999,-22.549,-15.793,-5.8252,-14.628,-0.06472,-25.365999,-22.549,-8.867,-5.6872,-6.7302,-27.362,-12.56,-24.09,-13.525,-12.254,-4.9261,-8.74
-14.344,-10.399,-8.7805,-18.537001,-11.765,-5.1133,0.97087,-12.686,4.7896,-18.537001,-11.765,1.9704,-7.5829,-11.492,-21.674999,-14.493,-20.225,-6.8262,-7.4921,-7.8818,-13.525
-1.0742,-6.571,3.9024,-17.561001,-8.8235,4.5955,4.8544,-9.7735,8.6731,-17.561001,-8.8235,9.8522,-10.427,-16.254,-11.248,-13.527,-12.496,2.7432,-11.302,-2.9557,-17.351999
5.5608,-2.7432,11.707,-15.61,-10.784,3.6246,3.8835,-12.686,10.615,-15.61,-10.784,8.867,-14.218,-19.111,-4.613,-10.628,-5.7327,4.6571,-8.4444,-2.9557,-16.396
4.613,-1.7863,9.7561,-20.488001,-16.667,-0.2589,0.97087,-11.715,7.7023,-20.488001,-16.667,5.9113,-17.062,-17.205999,-4.613,-9.6618,-4.7665,1.7863,2.9841,-5.9113,-13.525
-1.0742,-3.7002,0.0,-23.415001,-17.646999,-3.1715,-0.97087,-14.628,6.7314,-23.415001,-17.646999,0.0,-13.27,-11.492,-7.4566,-11.594,-6.6989,-1.0845,2.9841,-6.8966,-10.654
-5.8136,-4.6571,-8.7805,-25.365999,-20.587999,-14.822,-6.7961,-17.540001,6.7314,-25.365999,-20.587999,-7.8818,-7.5829,-4.8254,-7.4566,-8.6957,-6.6989,-3.9553,4.8889,-7.8818,-6.8262
-10.553,-2.7432,-12.683,-29.268,-24.51,-22.589001,-12.621,-18.511,1.877,-29.268,-24.51,-14.778,-1.8957,-1.0159,-2.7172,-3.8647,-1.868,-5.8692,9.6508,-4.9261,-1.0845
-17.188,-8.4848,-18.537001,-29.268,-26.471001,-26.472,-19.417,-18.511,-3.9482,-29.268,-26.471001,-21.674999,-3.7915,-1.9683,-4.613,-4.8309,-4.7665,-19.266001,11.556,-7.8818,3.7002
-22.875,-14.226,-18.537001,-27.316999,-24.51,-23.559999,-20.388,-17.540001,-5.89,-27.316999,-24.51,-22.66,-5.6872,-2.9206,-11.248,-7.7295,-10.564,-14.482,11.556,-9.8522,6.571
-21.927,-15.183,-14.634,-23.415001,-20.587999,-20.646999,-19.417,-14.628,-10.744,-23.415001,-20.587999,-20.690001,0.0,3.746,-11.248,-6.7633,-11.53,-3.9553,4.8889,-0.98522,8.4848
-18.136,-17.097,-19.511999,-25.365999,-26.471001,-21.618,-20.388,-13.657,-14.628,-25.365999,-26.471001,-23.645,0.94787,5.6508,-11.248,-7.7295,-14.428,-2.9984,-6.5397,-0.98522,7.5279
-16.24,-18.054001,-29.268,-21.462999,-22.549,-19.676001,-21.358999,-8.8026,-15.599,-21.462999,-22.549,-25.615999,0.94787,3.746,-11.248,-9.6618,-16.361,-0.12759,-4.6349,0.0,6.571
-10.553,-13.27,-27.316999,-13.659,-16.667,-11.909,-18.447001,-0.06472,-14.628,-13.659,-16.667,-20.690001,4.7393,3.746,-7.4566,-6.7633,-12.496,-4.9123,-2.7302,5.9113,2.7432
-4.8657,-6.571,-13.659,-7.8049,-9.8039,-2.2006,-7.767,5.7605,-13.657,-7.8049,-9.8039,-9.8522,2.8436,3.746,-3.6651,-1.9324,-4.7665,-7.7831,-5.5873,3.9409,1.7863
1.7694,-3.7002,0.0,-1.9512,-6.8627,6.5372,-3.8835,6.7314,-14.628,-1.9512,-6.8627,0.0,2.8436,2.7937,3.9179,2.8986,4.8953,5.614,-17.016001,6.8966,-0.12759
10.3,-6.571,7.8049,-1.9512,-5.8824,4.5955,-4.8544,9.644,-19.482,-1.9512,-5.8824,0.98522,8.5308,4.6984,15.292,4.8309,13.591,19.011,-18.921,12.808,-2.9984
10.3,-15.183,5.8537,-5.8537,-13.725,-4.1424,-14.563,8.6731,-20.452999,-5.8537,-13.725,-5.9113,9.4787,3.746,17.188,0.96618,11.659,15.183,-13.206,15.764,-4.9123
5.5608,-20.924999,-2.9268,-9.7561,-15.686,-6.0841,-21.358999,3.8188,-19.482,-9.7561,-15.686,-13.793,7.5829,-0.06349,11.501,-4.8309,3.9291,9.4418,-8.4444,17.733999,-5.8692
0.82148,-16.139999,-7.8049,-8.7805,-12.745,-2.2006,-16.504999,1.877,-6.8608,-8.7805,-12.745,-12.808,-0.94787,-9.5873,5.8136,-8.6957,-3.8003,-0.12759,2.0317,12.808,-9.697
-2.97,-4.6571,-2.9268,-1.9512,-0.98039,4.5955,0.0,4.7896,1.877,-1.9512,-0.98039,-1.9704,-9.4787,-16.254,-3.6651,-9.6618,-7.6651,1.7863,4.8889,0.98522,-11.611
-6.7615,4.9123,-0.97561,3.9024,2.9412,4.5955,8.7379,6.7314,11.586,3.9024,2.9412,1.9704,-18.957001,-21.016001,-13.144,-9.6618,-11.53,0.82935,9.6508,-12.808,-12.568
-5.8136,10.654,-2.9268,2.9268,1.9608,6.5372,6.7961,6.7314,13.528,2.9268,1.9608,0.98522,-17.062,-16.254,-13.144,-4.8309,-10.564,-4.9123,9.6508,-13.793,-11.611
-2.97,6.8262,-4.878,-0.97561,-4.902,-1.2298,1.9417,7.7023,4.7896,-0.97561,-4.902,-2.9557,-5.6872,-3.873,-7.4566,-1.9324,-9.5974,-0.12759,1.0794,-4.9261,-6.8262
2.7172,0.12759,0.0,-0.97561,-5.8824,3.6246,-1.9417,12.557,-3.9482,-0.97561,-5.8824,-0.98522,2.8436,1.8413,-0.82148,-3.8647,-8.6312,10.399,-4.6349,5.9113,-2.9984
9.3523,-3.7002,8.7805,3.9024,-1.9608,10.421,-1.9417,16.440001,-16.57,3.9024,-1.9608,7.8818,0.0,0.88889,3.9179,-7.7295,-7.6651,9.4418,-8.4444,10.837,-1.0845
14.092,-6.571,15.61,6.8293,-0.98039,16.246,-2.9126,17.410999,-21.424,6.8293,-0.98039,12.808,-1.8957,0.88889,8.6572,-7.7295,-1.868,15.183,-9.3968,12.808,-0.12759
17.882999,-4.6571,20.488001,7.8049,-0.98039,18.188,-2.9126,14.498,-26.278,7.8049,-0.98039,12.808,6.6351,7.5556,18.136,0.0,11.659,22.839001,-15.111,19.704,-0.12759
17.882999,0.12759,22.438999,7.8049,-2.9412,17.216999,0.0,11.586,-25.306999,7.8049,-2.9412,12.808,19.905001,18.983999,26.667,12.56,24.219,18.054001,-21.778,26.601,3.7002
14.092,-1.7863,16.584999,6.8293,0.0,14.304,0.0,9.644,-21.424,6.8293,0.0,10.837,25.591999,25.650999,27.615,19.323999,29.049999,9.4418,-17.016001,29.556999,7.5279
11.248,-5.614,14.634,12.683,3.9216,13.333,1.9417,10.615,-15.599,12.683,3.9216,12.808,25.591999,22.794001,23.823,19.323999,27.118,7.5279,-13.206,23.645,2.7432
7.4566,-8.4848,10.732,18.537001,10.784,10.421,6.7961,8.6731,-11.715,18.537001,10.784,14.778,15.166,11.365,13.397,12.56,16.49,8.4848,-14.159,11.823,-6.8262
-2.0221,-6.571,5.8537,11.707,11.765,7.5081,6.7961,5.7605,-3.9482,11.707,11.765,9.8522,1.8957,-1.0159,1.0742,3.8647,3.9291,3.7002,-11.302,3.9409,-11.611
-7.7093,-3.7002,-0.97561,8.7805,12.745,-0.2589,4.8544,2.8479,-0.06472,8.7805,12.745,2.9557,-4.7393,-11.492,-6.5087,-3.8647,-7.6651,1.7863,-7.4921,1.9704,-12.568
-13.397,-6.571,-11.707,4.878,6.8627,-12.88,-0.97087,0.90615,2.8479,4.878,6.8627,-6.8966,-8.5308,-15.302,-12.196,-14.493,-18.292999,4.6571,0.12698,2.9557,-13.525
-17.188,-12.313,-20.488001,-0.97561,0.0,-14.822,-5.8252,-2.0065,-2.9773,-0.97561,0.0,-13.793,-10.427,-16.254,-17.882999,-23.188,-27.955,-3.9553,-1.7778,2.9557,-9.697
-18.136,-14.226,-21.462999,-1.9512,-2.9412,-11.909,-7.767,-2.9773,-2.9773,-1.9512,-2.9412,-13.793,-12.322,-13.397,-19.778999,-25.121,-28.921,-5.8692,-3.6825,-0.98522,-4.9123
-20.032,-9.4418,-16.584999,0.0,0.0,-9.9676,-6.7961,-3.9482,-1.0356,0.0,0.0,-10.837,-12.322,-3.873,-19.778999,-18.357,-22.158001,-9.697,-2.7302,-4.9261,2.7432
-18.136,-5.614,-12.683,-0.97561,-2.9412,-11.909,-10.68,-1.0356,-2.9773,-0.97561,-2.9412,-10.837,-6.6351,6.6032,-17.882999,-7.7295,-11.53,-11.611,2.0317,-4.9261,10.399
-6.7615,-2.7432,-7.8049,5.8537,1.9608,-7.055,-11.65,6.7314,-3.9482,5.8537,1.9608,-11.823,6.6351,21.841,-4.613,6.7633,4.8953,0.82935,6.7937,0.0,20.924999
8.4044,-3.7002,-2.9268,11.707,5.8824,2.6537,-12.621,11.586,-4.9191,11.707,5.8824,-10.837,18.957001,31.365,13.397,16.424999,18.422001,15.183,4.8889,13.793,22.839001
15.987,-5.614,0.0,15.61,10.784,7.5081,-11.65,12.557,-7.8317,15.61,10.784,-8.867,24.645,30.413,24.771,20.290001,25.184999,20.924999,1.0794,17.733999,22.839001
15.039,-6.571,1.9512,19.511999,15.686,10.421,-5.8252,12.557,-4.9191,19.511999,15.686,-2.9557,23.697001,24.698,28.562,20.290001,26.150999,16.139999,-0.8254,17.733999,20.924999
11.248,-2.7432,0.97561,25.365999,21.569,10.421,4.8544,12.557,1.877,25.365999,21.569,2.9557,21.801001,17.079,25.719,18.357,22.287001,10.399,-3.6825,21.674999,12.313
9.3523,2.9984,1.9512,32.195,34.313999,11.392,14.563,13.528,7.7023,32.195,34.313999,11.823,15.166,6.6032,19.084,14.493,14.557,9.4418,-1.7778,18.719,4.6571
5.5608,2.9984,2.9268,32.195,36.275002,15.275,14.563,9.644,4.7896,32.195,36.275002,15.764,3.7915,-5.7778,5.8136,4.8309,1.9968,2.7432,-10.349,8.867,-2.9984
3.6651,1.0845,7.8049,34.146,39.216,17.216999,14.563,4.7896,7.7023,34.146,39.216,18.719,-3.7915,-12.444,-5.5608,-3.8647,-6.6989,-6.8262,-5.5873,-0.98522,-6.8262
4.613,1.0845,14.634,36.098,38.235001,18.188,14.563,6.7314,11.586,36.098,38.235001,20.690001,-12.322,-19.111,-10.3,-9.6618,-10.564,-18.309,1.0794,-12.808,-12.568
7.4566,-0.82935,13.659,34.146,35.293999,20.129,12.621,8.6731,7.7023,34.146,35.293999,18.719,-17.062,-21.016001,-10.3,-12.56,-12.496,-9.697,1.0794,-17.733999,-13.525
7.4566,-4.6571,4.878,33.171001,30.392,18.188,8.7379,11.586,9.644,33.171001,30.392,15.764,-12.322,-10.54,-4.613,-9.6618,-9.5974,9.4418,-8.4444,-14.778,-9.697
3.6651,-7.5279,-1.9512,30.243999,32.353001,15.275,8.7379,13.528,13.528,30.243999,32.353001,11.823,-5.6872,-0.06349,-1.7694,-3.8647,-3.8003,9.4418,-0.8254,-14.778,-7.7831
0.82148,-3.7002,0.0,26.341,26.471001,9.4498,4.8544,11.586,12.557,26.341,26.471001,7.8818,2.8436,7.5556,2.0221,2.8986,4.8953,3.7002,12.508,-8.867,-4.9123
3.6651,3.9553,9.7561,18.537001,21.569,8.479,7.767,8.6731,12.557,18.537001,21.569,7.8818,12.322,10.413,11.501,10.628,17.455999,3.7002,12.508,1.9704,-0.12759
9.3523,9.697,14.634,10.732,14.706,4.5955,8.7379,7.7023,11.586,10.732,14.706,7.8818,22.749001,14.222,21.927,16.424999,27.118,4.6571,10.603,8.867,6.571
14.092,14.482,14.634,6.8293,10.784,2.6537,10.68,7.7023,6.7314,6.8293,10.784,8.867,25.591999,15.175,29.51,19.323999,30.982,11.356,8.6984,15.764,9.4418
14.092,14.482,11.707,7.8049,6.8627,5.5663,11.65,6.7314,5.7605,7.8049,6.8627,6.8966,18.009001,8.5079,26.667,18.357,27.118,14.226,9.6508,20.690001,7.5279
10.3,10.654,4.878,8.7805,8.8235,5.5663,9.7087,5.7605,6.7314,8.7805,8.8235,3.9409,9.4787,3.746,18.136,14.493,16.49,5.614,9.6508,20.690001,7.5279
6.5087,6.8262,-3.9024,5.8537,8.8235,2.6537,5.8252,5.7605,2.8479,5.8537,8.8235,0.98522,2.8436,-1.9683,8.6572,8.6957,3.9291,6.571,7.746,21.674999,8.4848
4.613,0.12759,-6.8293,2.9268,4.902,1.6828,2.9126,6.7314,2.8479,2.9268,4.902,0.0,0.0,-4.8254,2.97,2.8986,-4.7665,15.183,2.0317,21.674999,7.5279
5.5608,-4.6571,-4.878,5.8537,4.902,-2.2006,4.8544,4.7896,-3.9482,5.8537,4.902,2.9557,0.0,-4.8254,2.0221,-1.9324,-10.564,5.614,-9.3968,21.674999,5.614
7.4566,-3.7002,2.9268,10.732,6.8627,5.5663,6.7961,10.615,-2.9773,10.732,6.8627,8.867,-2.8436,-5.7778,-1.7694,-4.8309,-13.462,3.7002,-12.254,12.808,1.7863
12.196,3.9553,20.488001,11.707,8.8235,18.188,12.621,9.644,-3.9482,11.707,8.8235,19.704,-4.7393,-5.7778,-2.7172,-2.8986,-9.5974,5.614,-5.5873,3.9409,1.7863
18.830999,12.568,33.171001,9.7561,5.8824,22.070999,18.447001,4.7896,-9.7735,9.7561,5.8824,25.615999,0.0,-3.873,3.9179,-0.96618,0.06441,6.571,-9.3968,-0.98522,-3.9553
21.674999,6.8262,30.243999,4.878,0.0,19.159,13.592,-0.06472,-12.686,4.878,0.0,21.674999,3.7915,-1.9683,8.6572,-1.9324,8.7601,5.614,-12.254,-6.8966,-10.654
19.778999,-4.6571,19.511999,-5.8537,-10.784,10.421,1.9417,-4.9191,-16.57,-5.8537,-10.784,8.867,3.7915,-2.9206,12.449,-3.8647,13.591,-0.12759,-10.349,-13.793,-19.266001
15.039,-5.614,12.683,-10.732,-15.686,5.5663,-2.9126,-5.89,-13.657,-10.732,-15.686,0.0,5.6872,4.6984,14.344,4.8309,22.287001,-3.9553,-3.6825,-24.631001,-15.439
10.3,2.9984,13.659,-12.683,-19.608,1.6828,-4.8544,-3.9482,-8.8026,-12.683,-19.608,-2.9557,15.166,20.889,17.188,18.357,30.982,-6.8262,8.6984,-25.615999,1.7863
6.5087,12.568,13.659,-10.732,-16.667,-4.1424,-1.9417,-0.06472,-10.744,-10.732,-16.667,-2.9557,23.697001,32.317001,15.292,24.155001,33.881001,-8.74,13.46,-12.808,15.183
1.7694,19.266001,9.7561,-11.707,-16.667,-5.1133,0.0,4.7896,-2.9773,-11.707,-16.667,-3.9409,18.957001,27.556,8.6572,21.256001,24.219,1.7863,13.46,-3.9409,19.011
-0.12638,21.18,7.8049,-12.683,-14.706,-0.2589,0.97087,6.7314,2.8479,-12.683,-14.706,-3.9409,6.6351,12.317,2.0221,13.527,12.625,3.7002,12.508,0.0,17.097
-2.0221,16.396,4.878,-10.732,-16.667,1.6828,-3.8835,9.644,-2.0065,-10.732,-16.667,-5.9113,-7.5829,-2.9206,-5.5608,6.7633,0.06441,3.7002,9.6508,0.0,11.356
-7.7093,3.9553,-5.8537,-17.561001,-26.471001,-6.0841,-15.534,3.8188,-13.657,-17.561001,-26.471001,-14.778,-18.957001,-17.205999,-12.196,-3.8647,-13.462,6.571,-4.6349,3.9409,3.7002
-8.6572,-12.313,-16.584999,-20.488001,-29.412001,-9.9676,-22.33,1.877,-18.511,-20.488001,-29.412001,-19.704,-15.166,-21.016001,-12.196,-16.424999,-23.124001,7.5279,-10.349,13.793,-2.0415
-4.8657,-19.011,-19.511999,-13.659,-26.471001,-7.055,-18.447001,5.7605,-17.540001,-13.659,-26.471001,-16.749001,-2.8436,-13.397,-5.5608,-20.290001,-25.056,10.399,-16.063,24.631001,-2.9984
-5.8136,-18.054001,-16.584999,-16.584999,-25.49,-10.939,-12.621,-0.06472,-17.540001,-16.584999,-25.49,-15.764,-2.8436,-15.302,-5.5608,-22.222,-27.955,2.7432,-13.206,23.645,-4.9123
-8.6572,-11.356,-9.7561,-18.537001,-21.569,-16.764,-6.7961,-6.8608,-15.599,-18.537001,-21.569,-12.808,0.0,-11.492,-5.5608,-16.424999,-24.09,-6.8262,-3.6825,20.690001,-2.9984
-9.6051,0.12759,-0.97561,-11.707,-8.8235,-19.676001,3.8835,-9.7735,-11.715,-11.707,-8.8235,-3.9409,8.5308,1.8413,-0.82148,-0.96618,-9.5974,-13.525,-0.8254,21.674999,6.571
-7.7093,10.654,8.7805,-3.9024,-1.9608,-10.939,10.68,-9.7735,-2.9773,-3.9024,-1.9608,6.8966,15.166,16.127001,4.8657,13.527,6.8277,-11.611,1.0794,12.808,10.399
3.6651,16.396,15.61,7.8049,3.9216,11.392,14.563,1.877,0.90615,7.8049,3.9216,18.719,16.114,19.937,12.449,20.290001,21.32,-4.9123,-0.8254,0.98522,4.6571
18.830999,17.351999,24.389999,14.634,6.8627,26.926001,17.476,14.498,-1.0356,14.634,6.8627,27.586,14.218,17.079,20.979,22.222,33.881001,2.7432,-4.6349,-4.9261,-7.7831
32.101002,19.266001,36.098,19.511999,14.706,31.780001,23.301001,20.323999,-1.0356,19.511999,14.706,33.498001,11.374,12.317,29.51,22.222,43.542999,18.054001,-3.6825,-5.9113,-18.309
35.893002,19.266001,39.023998,14.634,9.8039,29.837999,22.33,16.440001,-1.0356,14.634,9.8039,30.542,4.7393,3.746,30.458,18.357,42.576,15.183,-0.8254,-12.808,-23.094
31.153,17.351999,34.146,9.7561,5.8824,24.983999,19.417,10.615,-1.0356,9.7561,5.8824,25.615999,-3.7915,-4.8254,21.927,11.594,32.915001,12.313,0.12698,-21.674999,-22.136999
17.882999,11.611,21.462999,2.9268,0.98039,17.216999,11.65,1.877,-9.7735,2.9268,0.98039,15.764,-13.27,-9.5873,6.7615,3.8647,16.49,3.7002,-1.7778,-34.483002,-16.396
2.7172,2.9984,0.0,-3.9024,-4.902,1.6828,0.0,-2.9773,-3.9482,-3.9024,-4.902,0.98522,-16.114,-6.7302,-5.5608,0.96618,1.0306,-3.9553,-2.7302,-35.467999,0.82935
-9.6051,-6.571,-18.537001,-13.659,-13.725,-12.88,-12.621,-3.9482,-2.9773,-13.659,-13.725,-15.764,-15.166,-1.9683,-12.196,-1.9324,-11.53,-0.12759,-3.6825,-22.66,11.356
-13.397,-9.4418,-23.415001,-17.561001,-18.627001,-18.705999,-17.476,-3.9482,-6.8608,-17.561001,-18.627001,-23.645,-8.5308,2.7937,-12.196,-3.8647,-18.292999,2.7432,2.0317,-3.9409,17.097
-15.292,-13.27,-23.415001,-18.537001,-17.646999,-17.735001,-20.388,-3.9482,-8.8026,-18.537001,-17.646999,-25.615999,-5.6872,2.7937,-14.092,-9.6618,-26.023001,-1.0845,2.9841,7.8818,16.139999
-18.136,-19.968,-25.365999,-15.61,-18.627001,-16.764,-24.271999,-3.9482,-14.628,-15.61,-18.627001,-25.615999,-4.7393,-2.9206,-16.934999,-18.357,-31.82,-2.9984,-2.7302,12.808,8.4848
-18.136,-27.624001,-29.268,-16.584999,-22.549,-19.676001,-27.184,-8.8026,-17.540001,-16.584999,-22.549,-27.586,-0.94787,-5.7778,-15.039,-24.155001,-30.853001,-2.0415,-11.302,20.690001,0.82935
-16.24,-27.624001,-32.195,-14.634,-18.627001,-14.822,-22.33,-4.9191,-13.657,-14.634,-18.627001,-23.645,2.8436,-1.9683,-10.3,-20.290001,-24.09,-0.12759,-14.159,13.793,-1.0845
-16.24,-19.011,-28.292999,-8.7805,-6.8627,-10.939,-11.65,-4.9191,-4.9191,-8.7805,-6.8627,-16.749001,2.8436,-0.06349,-9.3523,-11.594,-15.395,-5.8692,-4.6349,5.9113,-3.9553
-14.344,-6.571,-18.537001,-1.9512,0.0,-8.9968,-0.97087,-3.9482,7.7023,-1.9512,0.0,-8.867,-0.94787,-0.06349,-7.4566,-1.9324,-6.6989,-4.9123,4.8889,4.9261,-5.8692
-7.7093,8.74,-5.8537,3.9024,9.8039,-7.055,11.65,-1.0356,17.410999,3.9024,9.8039,0.0,-1.8957,-1.9683,1.0742,7.7295,6.8277,-5.8692,8.6984,2.9557,-6.8262
-1.0742,19.266001,2.9268,8.7805,13.725,-7.055,18.447001,-0.06472,25.177999,8.7805,13.725,7.8818,-1.8957,-7.6825,8.6572,10.628,15.523,-11.611,12.508,0.98522,-7.7831
4.613,24.051001,10.732,14.634,23.528999,4.5955,26.214001,3.8188,31.003,14.634,23.528999,15.764,-4.7393,-14.349,9.6051,8.6957,16.49,1.7863,12.508,-1.9704,-11.611
4.613,21.18,14.634,15.61,24.51,15.275,25.243,5.7605,29.061001,15.61,24.51,19.704,-7.5829,-14.349,2.0221,3.8647,9.7262,2.7432,11.556,-6.8966,-15.439
1.7694,12.568,11.707,9.7561,19.608,12.362,19.417,2.8479,21.294001,9.7561,19.608,16.749001,-10.427,-15.302,-6.5087,-4.8309,0.06441,-2.9984,6.7937,-11.823,-18.309
0.82148,6.8262,8.7805,5.8537,14.706,6.5372,15.534,-0.06472,16.440001,5.8537,14.706,12.808,-5.6872,-9.5873,-6.5087,-7.7295,-3.8003,-2.0415,2.9841,-10.837,-15.439
1.7694,3.9553,5.8537,9.7561,18.627001,3.6246,12.621,0.90615,23.236,9.7561,18.627001,9.8522,-0.94787,-1.0159,-3.6651,-7.7295,-3.8003,-5.8692,4.8889,-7.8818,-11.611
-0.12638,2.9984,2.9268,8.7805,16.667,-0.2589,10.68,-3.9482,24.207001,8.7805,16.667,6.8966,0.94787,0.88889,-4.613,-7.7295,-3.8003,-4.9123,8.6984,-17.733999,-8.74
-2.0221,4.9123,6.8293,0.97561,12.745,-3.1715,10.68,-12.686,21.294001,0.97561,12.745,4.9261,5.6872,10.413,-4.613,-2.8986,0.06441,-7.7831,13.46,-22.66,-0.12759
-5.8136,7.7831,10.732,-3.9024,8.8235,-7.055,8.7379,-21.424,23.236,-3.9024,8.8235,2.9557,11.374,22.794001,-3.6651,7.7295,5.8615,-25.007999,13.46,-22.66,16.139999
-6.7615,14.482,15.61,-5.8537,8.8235,-7.055,9.7087,-30.162001,23.236,-5.8537,8.8235,3.9409,11.374,29.459999,1.0742,21.256001,15.523,-27.879,13.46,-21.674999,31.451
-1.0742,16.396,14.634,-6.8293,8.8235,-4.1424,9.7087,-31.132999,21.294001,-6.8293,8.8235,6.8966,13.27,32.317001,10.553,28.018999,23.253,-21.18,19.174999,-14.778,37.193001
6.5087,12.568,8.7805,-6.8293,6.8627,-1.2298,5.8252,-27.249001,11.586,-6.8293,6.8627,5.9113,12.322,24.698,18.136,27.052999,26.150999,-24.051001,15.365,-5.9113,32.408001
10.3,6.8262,4.878,-8.7805,3.9216,-1.2298,-0.97087,-23.365999,8.6731,-8.7805,3.9216,3.9409,4.7393,8.5079,18.136,20.290001,22.287001,-18.309,12.508,0.0,24.753
3.6651,1.0845,-0.97561,-8.7805,-0.98039,-4.1424,-6.7961,-18.511,5.7605,-8.7805,-0.98039,-1.9704,-6.6351,-11.492,5.8136,7.7295,6.8277,-5.8692,8.6984,2.9557,15.183
-5.8136,-0.82935,-5.8537,-2.9268,2.9412,-3.1715,-3.8835,-12.686,6.7314,-2.9268,2.9412,-0.98522,-16.114,-23.872999,-12.196,-4.8309,-13.462,-3.9553,7.746,-1.9704,9.4418
-11.501,0.12759,-7.8049,3.9024,9.8039,-0.2589,5.8252,-4.9191,14.498,3.9024,9.8039,4.9261,-20.853001,-26.73,-28.309999,-13.527,-28.921,-14.482,13.46,-9.8522,3.7002
-14.344,0.12759,-12.683,7.8049,15.686,-1.2298,13.592,-1.0356,22.264999,7.8049,15.686,6.8966,-22.749001,-21.016001,-37.787998,-18.357,-38.583,-6.8262,15.365,-13.793,2.7432
-12.449,2.9984,-10.732,13.659,20.587999,4.5955,15.534,5.7605,30.032,13.659,20.587999,9.8522,-18.957001,-12.444,-33.997002,-14.493,-32.785999,-2.0415,8.6984,-11.823,-1.0845
-2.97,9.697,0.0,20.488001,25.49,13.333,18.447001,14.498,32.945,20.488001,25.49,15.764,-13.27,-8.6349,-20.726999,-6.7633,-16.361,4.6571,5.8413,-3.9409,-5.8692
5.5608,16.396,11.707,22.438999,27.451,21.1,22.33,18.382,29.061001,22.438999,27.451,20.690001,-6.6351,-4.8254,-7.4566,0.96618,-0.90177,8.4848,4.8889,-6.8966,-8.74
8.4044,19.266001,16.584999,20.488001,28.431,18.188,24.271999,17.410999,30.032,20.488001,28.431,21.674999,-1.8957,2.7937,2.0221,4.8309,10.692,5.614,6.7937,-13.793,-10.654
12.196,17.351999,18.537001,18.537001,21.569,14.304,19.417,13.528,29.061001,18.537001,21.569,19.704,6.6351,16.127001,11.501,10.628,21.32,4.6571,10.603,-10.837,-6.8262
17.882999,17.351999,19.511999,16.584999,16.667,15.275,15.534,9.644,23.236,16.584999,16.667,16.749001,12.322,20.889,21.927,17.391001,30.982,-1.0845,10.603,-4.9261,-2.0415
18.830999,20.223,18.537001,12.683,12.745,11.392,12.621,3.8188,21.294001,12.683,12.745,12.808,14.218,20.889,24.771,25.121,35.813,-3.9553,8.6984,-3.9409,3.7002
9.3523,17.351999,9.7561,5.8537,10.784,2.6537,8.7379,-2.9773,19.353001,5.8537,10.784,4.9261,5.6872,8.5079,17.188,26.087,30.016001,-15.439,11.556,-9.8522,2.7432
-2.0221,10.654,0.97561,0.97561,7.8431,-4.1424,3.8835,-10.744,18.382,0.97561,7.8431,-1.9704,-1.8957,-6.7302,5.8136,17.391001,18.422001,-18.309,15.365,-14.778,-2.9984
-6.7615,3.9553,-4.878,1.9512,5.8824,-12.88,2.9126,-13.657,17.410999,1.9512,5.8824,-2.9557,-6.6351,-16.254,-1.7694,7.7295,6.8277,-11.611,18.222,-10.837,-5.8692
-7.7093,-2.7432,-7.8049,0.97561,2.9412,-14.822,0.0,-13.657,7.7023,0.97561,2.9412,-3.9409,-11.374,-21.968,-7.4566,-2.8986,-3.8003,-4.9123,12.508,-5.9113,-7.7831
-8.6572,-9.4418,-13.659,-2.9268,1.9608,-12.88,-6.7961,-13.657,4.7896,-2.9268,1.9608,-6.8966,-15.166,-23.872999,-14.092,-9.6618,-16.361,-1.0845,1.0794,0.0,-3.9553
-13.397,-13.27,-22.438999,-5.8537,0.98039,-12.88,-12.621,-13.657,-0.06472,-5.8537,0.98039,-10.837,-20.853001,-23.872999,-23.57,-12.56,-28.921,-5.8692,-5.5873,0.98522,1.7863
-14.344,-15.183,-22.438999,-2.9268,1.9608,-8.0259,-14.563,-9.7735,-5.89,-2.9268,1.9608,-11.823,-18.009001,-19.111,-23.57,-14.493,-32.785999,-2.9984,-2.7302,2.9557,4.6571
-8.6572,-18.054001,-16.584999,5.8537,6.8627,-2.2006,-12.621,-1.0356,-6.8608,5.8537,6.8627,-8.867,-5.6872,-6.7302,-13.144,-14.493,-23.124001,3.7002,-5.5873,4.9261,5.614
-1.0742,-16.139999,-10.732,10.732,9.8039,-0.2589,-10.68,2.8479,-6.8608,10.732,9.8039,-4.9261,11.374,9.4603,2.97,-10.628,-7.6651,6.571,-9.3968,7.8818,5.614
4.613,-14.226,-4.878,16.584999,16.667,3.6246,-7.767,9.644,-5.89,16.584999,16.667,-0.98522,23.697001,21.841,16.24,-3.8647,8.7601,12.313,-7.4921,9.8522,6.571
7.4566,-14.226,-1.9512,18.537001,15.686,6.5372,-8.7379,15.469,-2.9773,18.537001,15.686,0.0,22.749001,23.746,19.084,3.8647,17.455999,1.7863,-11.302,7.8818,7.5279
9.3523,-6.571,1.9512,21.462999,19.608,9.4498,-3.8835,15.469,-1.0356,21.462999,19.608,2.9557,17.062,20.889,17.188,10.628,21.32,1.7863,-3.6825,6.8966,8.4848
13.144,1.0845,5.8537,23.415001,23.528999,8.479,1.9417,15.469,7.7023,23.415001,23.528999,7.8818,11.374,15.175,18.136,14.493,22.287001,21.882,2.0317,9.8522,3.7002
13.144,5.8692,5.8537,28.292999,30.392,6.5372,8.7379,18.382,13.528,28.292999,30.392,14.778,3.7915,9.4603,12.449,10.628,18.422001,25.709999,-1.7778,8.867,-2.0415
6.5087,10.654,6.8293,34.146,35.293999,17.216999,18.447001,22.264999,16.440001,34.146,35.293999,21.674999,-5.6872,2.7937,1.0742,5.7971,12.625,18.054001,-1.7778,4.9261,-4.9123
-0.12638,13.525,12.683,38.049,37.255001,20.129,25.243,22.264999,18.382,38.049,37.255001,23.645,-11.374,-4.8254,-10.3,2.8986,7.7939,9.4418,3.9365,0.0,-5.8692
-4.8657,11.611,11.707,30.243999,32.353001,12.362,21.358999,11.586,15.469,30.243999,32.353001,16.749001,-13.27,-9.5873,-16.934999,-0.96618,-0.90177,3.7002,9.6508,-0.98522,-3.9553
-6.7615,1.0845,0.97561,20.488001,24.51,6.5372,12.621,-0.06472,9.644,20.488001,24.51,5.9113,-17.062,-18.159,-18.830999,-10.628,-16.361,-7.7831,7.746,1.9704,-2.9984
-6.7615,-10.399,-9.7561,15.61,18.627001,-2.2006,4.8544,-2.9773,4.7896,15.61,18.627001,-1.9704,-18.957001,-28.635,-18.830999,-22.222,-31.82,-6.8262,-3.6825,4.9261,-6.8262
-3.9179,-13.27,-12.683,13.659,15.686,-4.1424,0.97087,-2.0065,-0.06472,13.659,15.686,-3.9409,-10.427,-28.635,-11.248,-24.155001,-33.751999,3.7002,-6.5397,13.793,-11.611
-2.0221,-8.4848,-7.8049,16.584999,16.667,-5.1133,-0.97087,1.877,-7.8317,16.584999,16.667,-2.9557,-5.6872,-25.778,-3.6651,-17.391001,-26.023001,6.571,-3.6825,21.674999,-12.568
-5.8136,-2.7432,-6.8293,15.61,11.765,-6.0841,-5.8252,1.877,-6.8608,15.61,11.765,-4.9261,-3.7915,-17.205999,-3.6651,-6.7633,-18.292999,-9.697,-0.8254,11.823,-5.8692
-6.7615,0.12759,-5.8537,12.683,7.8431,-0.2589,-8.7379,0.90615,-6.8608,12.683,7.8431,-7.8818,1.8957,0.88889,-1.7694,2.8986,-7.6651,-6.8262,2.9841,2.9557,4.6571
-5.8136,-3.7002,-8.7805,9.7561,1.9608,-2.2006,-10.68,0.90615,-10.744,9.7561,1.9608,-8.867,9.4787,14.222,4.8657,6.7633,1.0306,7.5279,2.9841,2.9557,9.4418
-4.8657,-5.614,-14.634,9.7561,2.9412,-2.2006,-12.621,-0.06472,-13.657,9.7561,2.9412,-9.8522,10.427,17.079,7.7093,5.7971,4.8953,7.5279,-4.6349,4.9261,5.614
-3.9179,-1.7863,-14.634,10.732,3.9216,2.6537,-11.65,0.90615,-11.715,10.732,3.9216,-7.8818,12.322,17.079,6.7615,7.7295,7.7939,4.6571,-7.4921,6.8966,4.6571
-2.97,1.0845,-7.8049,13.659,8.8235,5.5663,-4.8544,3.8188,-5.89,13.659,8.8235,-3.9409,17.062,21.841,3.9179,11.594,13.591,2.7432,-4.6349,6.8966,6.571
-1.0742,2.9984,0.0,16.584999,10.784,5.5663,1.9417,4.7896,-2.9773,16.584999,10.784,-1.9704,18.957001,21.841,4.8657,14.493,19.388,-5.8692,-5.5873,3.9409,3.7002
8.4044,4.9123,13.659,13.659,10.784,7.5081,5.8252,4.7896,0.90615,13.659,10.784,4.9261,16.114,18.032,11.501,16.424999,25.184999,2.7432,-9.3968,3.9409,-0.12759
16.934999,6.8262,26.341,8.7805,7.8431,10.421,9.7087,6.7314,8.6731,8.7805,7.8431,11.823,15.166,14.222,20.032,18.357,30.016001,6.571,-3.6825,6.8966,-2.0415
15.987,3.9553,22.438999,0.97561,1.9608,6.5372,8.7379,3.8188,7.7023,0.97561,1.9608,10.837,8.5308,1.8413,17.188,10.628,20.354,-2.0415,-1.7778,12.808,-1.0845
9.3523,-2.7432,9.7561,-7.8049,-9.8039,-2.2006,0.97087,-0.06472,-0.06472,-7.8049,-9.8039,1.9704,0.94787,-9.5873,7.7093,-1.9324,1.9968,-2.9984,-0.8254,18.719,-2.0415
5.5608,-6.571,-0.97561,-7.8049,-13.725,-1.2298,-3.8835,-5.89,-5.89,-7.8049,-13.725,-1.9704,-3.7915,-16.254,2.97,-9.6618,-13.462,-1.0845,2.9841,22.66,0.82935
-2.97,-12.313,-11.707,-12.683,-18.627001,-5.1133,-8.7379,-9.7735,-11.715,-12.683,-18.627001,-6.8966,-6.6351,-21.968,-2.7172,-15.459,-25.056,2.7432,0.12698,26.601,-1.0845
-14.344,-14.226,-21.462999,-19.511999,-22.549,-11.909,-12.621,-13.657,-18.511,-19.511999,-22.549,-11.823,-3.7915,-18.159,-8.4044,-15.459,-31.82,3.7002,1.0794,19.704,1.7863
-16.24,-14.226,-24.389999,-25.365999,-25.49,-24.531,-18.447001,-12.686,-21.424,-25.365999,-25.49,-17.733999,4.7393,-2.9206,-6.5087,-9.6618,-24.09,-5.8692,-1.7778,12.808,9.4418
-5.8136,-14.226,-19.511999,-24.389999,-25.49,-23.559999,-23.301001,-6.8608,-21.424,-24.389999,-25.49,-20.690001,17.062,18.032,2.97,1.9324,-6.6989,-5.8692,-5.5873,12.808,17.097
-2.0221,-15.183,-18.537001,-25.365999,-29.412001,-13.851,-26.214001,-5.89,-26.278,-25.365999,-29.412001,-22.66,20.853001,28.507999,5.8136,7.7295,4.8953,6.571,-4.6349,6.8966,18.054001
-5.8136,-16.139999,-15.61,-25.365999,-31.372999,-9.9676,-26.214001,-6.8608,-32.104,-25.365999,-31.372999,-21.674999,14.218,28.507999,-0.82148,7.7295,7.7939,12.313,-10.349,-3.9409,13.27
-9.6051,-9.4418,-6.8293,-18.537001,-23.528999,-3.1715,-15.534,-4.9191,-30.162001,-18.537001,-23.528999,-10.837,8.5308,28.507999,-7.4566,8.6957,10.692,5.614,-14.159,-11.823,9.4418
-7.7093,-1.7863,3.9024,-12.683,-17.646999,2.6537,-4.8544,-2.0065,-25.306999,-12.683,-17.646999,-1.9704,5.6872,26.603001,-8.4044,11.594,14.557,0.82935,-21.778,-13.793,2.7432
0.82148,2.9984,14.634,-8.7805,-9.8039,-0.2589,1.9417,-0.06472,-20.452999,-8.7805,-9.8039,4.9261,5.6872,19.937,-1.7694,12.56,18.422001,-4.9123,-16.063,-11.823,-0.12759
6.5087,4.9123,19.511999,-3.9024,-7.8431,2.6537,4.8544,2.8479,-16.57,-3.9024,-7.8431,6.8966,3.7915,8.5079,2.97,8.6957,14.557,-8.74,-8.4444,-7.8818,-4.9123
8.4044,4.9123,15.61,1.9512,-0.98039,8.479,6.7961,6.7314,-10.744,1.9512,-0.98039,7.8818,-5.6872,-12.444,-1.7694,-1.9324,1.9968,1.7863,-7.4921,-3.9409,-12.568
7.4566,-1.7863,4.878,3.9024,0.0,6.5372,0.97087,9.644,-6.8608,3.9024,0.0,3.9409,-9.4787,-27.683001,-5.5608,-14.493,-13.462,14.226,-13.206,5.9113,-21.18
1.7694,-15.183,-12.683,-1.9512,-3.9216,-1.2298,-7.767,4.7896,-6.8608,-1.9512,-3.9216,-5.9113,-10.427,-38.159,-6.5087,-26.087,-26.989,10.399,-10.349,18.719,-25.965
0.82148,-19.968,-20.488001,-3.9024,-3.9216,-4.1424,-6.7961,0.90615,-2.9773,-3.9024,-3.9216,-7.8818,-8.5308,-40.063,-0.82148,-28.986,-27.955,9.4418,-1.7778,27.586,-22.136999
0.82148,-19.968,-18.537001,-2.9268,-0.98039,-7.055,-6.7961,-2.9773,1.877,-2.9268,-0.98039,-8.867,-4.7393,-32.444,6.7615,-26.087,-19.259001,11.356,4.8889,32.512001,-15.439
-3.9179,-20.924999,-17.561001,-5.8537,-5.8824,-13.851,-13.592,-8.8026,-0.06472,-5.8537,-5.8824,-15.764,5.6872,-10.54,11.501,-15.459,-6.6989,10.399,7.746,21.674999,-2.0415
-3.9179,-15.183,-9.7561,-1.9512,-5.8824,-14.822,-14.563,-7.8317,-0.06472,-1.9512,-5.8824,-16.749001,20.853001,18.032,19.084,0.96618,9.7262,7.5279,6.7937,16.749001,13.27
-6.7615,-16.139999,-9.7561,-3.9024,-7.8431,-18.705999,-20.388,-3.9482,-3.9482,-3.9024,-7.8431,-22.66,22.749001,32.317001,16.24,7.7295,12.625,-2.0415,3.9365,12.808,22.839001
-10.553,-15.183,-14.634,-5.8537,-11.765,-25.502001,-25.243,-0.06472,-12.686,-5.8537,-11.765,-27.586,18.009001,38.032001,7.7093,9.6618,7.7939,-7.7831,-2.7302,0.98522,26.667
-9.6051,-7.5279,-12.683,-3.9024,-9.8039,-18.705999,-21.358999,-0.06472,-10.744,-3.9024,-9.8039,-22.66,15.166,38.984001,1.0742,15.459,6.8277,-12.568,-7.4921,-4.9261,26.667
-7.7093,1.0845,-5.8537,-1.9512,-3.9216,-7.055,-12.621,1.877,-5.89,-1.9512,-3.9216,-10.837,10.427,37.078999,-6.5087,21.256001,8.7601,-9.697,-3.6825,-11.823,22.839001
-5.8136,8.74,7.8049,6.8293,6.8627,8.479,1.9417,7.7023,-1.0356,6.8293,6.8627,2.9557,0.94787,27.556,-12.196,22.222,10.692,-4.9123,-2.7302,-21.674999,15.183
-2.97,7.7831,15.61,12.683,9.8039,21.1,8.7379,13.528,0.90615,12.683,9.8039,10.837,-10.427,9.4603,-14.092,11.594,5.8615,-9.697,-7.4921,-25.615999,4.6571
0.82148,0.12759,12.683,14.634,11.765,21.1,10.68,17.410999,2.8479,14.634,11.765,9.8522,-19.905001,-9.5873,-12.196,-3.8647,-2.8341,-3.9553,-3.6825,-25.615999,-5.8692
6.5087,-0.82935,12.683,12.683,11.765,16.246,10.68,16.440001,7.7023,12.683,11.765,7.8818,-22.749001,-24.825001,-5.5608,-8.6957,-5.7327,12.313,-3.6825,-15.764,-11.611
12.196,4.9123,16.584999,12.683,15.686,13.333,15.534,14.498,8.6731,12.683,15.686,9.8522,-16.114,-28.635,3.9179,-4.8309,-0.90177,21.882,-1.7778,-0.98522,-10.654
10.3,8.74,14.634,9.7561,14.706,5.5663,15.534,11.586,15.469,9.7561,14.706,6.8966,-10.427,-27.683001,5.8136,-4.8309,-0.90177,14.226,9.6508,-0.98522,-9.697
5.5608,4.9123,5.8537,3.9024,8.8235,-1.2298,8.7379,5.7605,13.528,3.9024,8.8235,0.0,-4.7393,-19.111,6.7615,-6.7633,-2.8341,8.4848,7.746,1.9704,-5.8692
4.613,-4.6571,-5.8537,-1.9512,1.9608,-5.1133,0.97087,-1.0356,4.7896,-1.9512,1.9608,-5.9113,3.7915,-7.6825,10.553,-8.6957,-3.8003,7.5279,1.0794,11.823,-2.0415
1.7694,-6.571,-12.683,-2.9268,0.98039,-8.9968,-3.8835,-2.0065,0.90615,-2.9268,0.98039,-8.867,10.427,5.6508,11.501,-3.8647,-0.90177,4.6571,5.8413,13.793,4.6571
1.7694,5.8692,-6.8293,0.97561,4.902,-4.1424,0.97087,-1.0356,1.877,0.97561,4.902,-1.9704,18.009001,18.983999,11.501,8.6957,7.7939,5.614,5.8413,12.808,12.313
5.5608,22.136999,10.732,4.878,10.784,9.4498,13.592,-0.06472,9.644,4.878,10.784,8.867,21.801001,30.413,13.397,23.188,19.388,-0.12759,7.746,7.8818,17.097
8.4044,29.792999,20.488001,8.7805,15.686,13.333,25.243,0.90615,14.498,8.7805,15.686,18.719,19.905001,32.317001,10.553,28.986,24.219,-7.7831,12.508,3.9409,16.139999
10.3,27.879,20.488001,7.8049,20.587999,14.304,32.039001,-2.9773,24.207001,7.8049,20.587999,24.631001,18.957001,25.650999,9.6051,25.121,23.253,-6.8262,6.7937,3.9409,9.4418
11.248,25.007999,20.488001,5.8537,22.549,13.333,35.922001,-6.8608,27.120001,5.8537,22.549,24.631001,18.009001,18.032,13.397,20.290001,23.253,-4.9123,8.6984,6.8966,4.6571
11.248,18.309,17.561001,-0.97561,16.667,9.4498,30.097,-9.7735,22.264999,-0.97561,16.667,17.733999,10.427,7.5556,16.24,15.459,19.388,1.7863,12.508,4.9261,0.82935
15.039,14.482,16.584999,-3.9024,12.745,10.421,25.243,-5.89,19.353001,-3.9024,12.745,14.778,5.6872,0.88889,18.136,11.594,15.523,4.6571,10.603,3.9409,-1.0845
15.987,12.568,13.659,0.97561,9.8039,14.304,19.417,2.8479,15.469,0.97561,9.8039,12.808,-0.94787,-5.7778,15.292,7.7295,9.7262,8.4848,4.8889,0.98522,-7.7831
7.4566,6.8262,4.878,7.8049,10.784,9.4498,12.621,11.586,10.615,7.8049,10.784,6.8966,-10.427,-16.254,6.7615,-1.9324,-1.868,8.4848,2.9841,0.0,-11.611
-3.9179,2.0415,-5.8537,7.8049,4.902,4.5955,6.7961,14.498,8.6731,7.8049,4.902,0.0,-18.957001,-21.968,-2.7172,-10.628,-12.496,5.614,2.9841,-11.823,-10.654
-10.553,-6.571,-16.584999,6.8293,0.0,-0.2589,2.9126,11.586,5.7605,6.8293,0.0,-4.9261,-21.801001,-26.73,-10.3,-19.323999,-21.191999,-2.9984,2.9841,-18.719,-10.654
-15.292,-17.097,-22.438999,-0.97561,-7.8431,-10.939,-9.7087,0.90615,3.8188,-0.97561,-7.8431,-11.823,-18.957001,-28.635,-14.092,-22.222,-25.056,-6.8262,3.9365,-12.808,-10.654
-17.188,-20.924999,-19.511999,-9.7561,-12.745,-17.735001,-19.417,-10.744,-3.9482,-9.7561,-12.745,-17.733999,-15.166,-23.872999,-16.934999,-18.357,-23.124001,-11.611,1.0794,-5.9113,-5.8692
-20.032,-20.924999,-17.561001,-18.537001,-21.569,-21.618,-28.155001,-20.452999,-13.657,-18.537001,-21.569,-22.66,-12.322,-19.111,-20.726999,-14.493,-22.158001,-23.094,-2.7302,-4.9261,-2.9984
-19.084,-19.011,-13.659,-17.561001,-19.608,-20.646999,-27.184,-22.395,-17.540001,-17.561001,-19.608,-20.690001,-8.5308,-12.444,-21.674999,-13.527,-21.191999,-9.697,-5.5873,-4.9261,-1.0845
-15.292,-14.226,-6.8293,-14.634,-18.627001,-11.909,-20.388,-15.599,-17.540001,-14.634,-18.627001,-14.778,-5.6872,-7.6825,-16.934999,-11.594,-16.361,5.614,-15.111,-1.9704,-4.9123
-1.0742,0.12759,12.683,-5.8537,-9.8039,-0.2589,-4.8544,-7.8317,-11.715,-5.8537,-9.8039,0.98522,2.8436,2.7937,0.12638,-0.96618,1.0306,5.614,-12.254,-1.9704,-2.0415
17.882999,12.568,34.146,-0.97561,-4.902,15.275,7.767,-4.9191,-10.744,-0.97561,-4.902,15.764,10.427,8.5079,20.032,12.56,21.32,0.82935,0.12698,-0.98522,0.82935
31.153,20.223,45.854,1.9512,-3.9216,30.809,14.563,-2.0065,-2.9773,1.9512,-3.9216,27.586,16.114,10.413,36.145,24.155001,37.745998,6.571,7.746,5.9113,3.7002
36.84,25.965,44.877998,3.9024,-1.9608,37.605,18.447001,-0.06472,1.877,3.9024,-1.9608,32.512001,18.009001,13.27,39.937,29.952,41.610001,4.6571,8.6984,8.867,3.7002
34.945,29.792999,40.976002,1.9512,-1.9608,32.750999,22.33,0.90615,6.7314,1.9512,-1.9608,31.527,17.062,15.175,35.196999,30.917999,37.745998,1.7863,4.8889,10.837,-0.12759
30.205,28.836,39.023998,-1.9512,-3.9216,23.042,19.417,1.877,9.644,-1.9512,-3.9216,26.601,13.27,13.27,31.406,28.018999,33.881001,7.5279,1.0794,12.808,-2.0415
21.674999,22.136999,35.122002,-11.707,-14.706,14.304,10.68,-2.0065,3.8188,-11.707,-14.706,18.719,3.7915,5.6508,20.032,20.290001,24.219,2.7432,6.7937,4.9261,-3.9553
12.196,11.611,24.389999,-17.561001,-18.627001,6.5372,2.9126,-2.0065,-1.0356,-17.561001,-18.627001,10.837,-1.8957,-0.06349,9.6051,9.6618,12.625,5.614,4.8889,1.9704,-2.9984
2.7172,-2.7432,6.8293,-20.488001,-24.51,-1.2298,-5.8252,-1.0356,-5.89,-20.488001,-24.51,0.0,-8.5308,-8.6349,-0.82148,-3.8647,-2.8341,7.5279,5.8413,1.9704,-2.9984
-6.7615,-14.226,-14.634,-21.462999,-23.528999,-8.0259,-10.68,-5.89,-11.715,-21.462999,-23.528999,-9.8522,-10.427,-12.444,-11.248,-15.459,-16.361,7.5279,6.7937,0.0,-2.9984
-15.292,-20.924999,-27.316999,-26.341,-27.451,-15.793,-18.447001,-8.8026,-10.744,-26.341,-27.451,-18.719,-9.4787,-10.54,-17.882999,-20.290001,-25.056,0.82935,2.9841,0.0,-2.0415
-23.823,-24.753,-32.195,-32.195,-31.372999,-25.502001,-26.214001,-17.540001,-16.57,-32.195,-31.372999,-27.586,-7.5829,-7.6825,-24.518,-21.256001,-29.886999,-4.9123,-5.5873,-2.9557,-0.12759
-26.667,-20.924999,-28.292999,-35.122002,-34.313999,-29.385,-29.125999,-21.424,-17.540001,-35.122002,-34.313999,-30.542,-3.7915,-0.06349,-22.622,-14.493,-25.056,-7.7831,-13.206,-4.9261,5.614
-20.979,-17.097,-21.462999,-35.122002,-31.372999,-27.443001,-29.125999,-22.395,-17.540001,-35.122002,-31.372999,-31.527,1.8957,7.5556,-15.039,-7.7295,-13.462,-13.525,-7.4921,-4.9261,8.4848
-10.553,-18.054001,-16.584999,-29.268,-29.412001,-23.559999,-27.184,-16.57,-19.482,-29.268,-29.412001,-27.586,7.5829,10.413,-3.6651,-2.8986,-1.868,-5.8692,-5.5873,-2.9557,5.614
-0.12638,-10.399,-5.8537,-19.511999,-19.608,-12.88,-15.534,-8.8026,-10.744,-19.511999,-19.608,-16.749001,12.322,12.317,7.7093,4.8309,11.659,-2.9984,-7.4921,-3.9409,5.614
8.4044,3.9553,9.7561,-12.683,-11.765,-0.2589,-1.9417,-3.9482,-6.8608,-12.683,-11.765,-4.9261,13.27,13.27,17.188,14.493,23.253,-4.9123,-4.6349,-6.8966,4.6571
15.039,19.266001,26.341,-12.683,-8.8235,0.71197,7.767,-1.0356,3.8188,-12.683,-8.8235,3.9409,17.062,18.983999,24.771,24.155001,31.948,-7.7831,2.9841,-4.9261,8.4848
15.987,25.007999,28.292999,-16.584999,-9.8039,0.71197,9.7087,-2.0065,8.6731,-16.584999,-9.8039,4.9261,13.27,15.175,23.823,22.222,28.084,-14.482,3.9365,-0.98522,6.571
12.196,16.396,17.561001,-15.61,-12.745,0.71197,5.8252,-3.9482,5.7605,-15.61,-12.745,2.9557,5.6872,6.6032,13.397,9.6618,17.455999,-19.266001,5.8413,-6.8966,3.7002
13.144,11.611,12.683,-8.7805,-6.8627,5.5663,9.7087,-3.9482,6.7314,-8.7805,-6.8627,8.867,5.6872,8.5079,9.6051,2.8986,10.692,-19.266001,5.8413,-7.8818,6.571
11.248,5.8692,9.7561,-0.97561,-2.9412,8.479,12.621,-0.06472,7.7023,-0.97561,-2.9412,14.778,5.6872,7.5556,6.7615,-6.7633,2.963,-9.697,2.0317,-0.98522,8.4848
0.82148,0.12759,1.9512,1.9512,1.9608,2.6537,9.7087,0.90615,5.7605,1.9512,1.9608,12.808,2.8436,-0.06349,-1.7694,-14.493,-9.5974,-4.9123,5.8413,0.0,6.571
-12.449,-5.614,-11.707,2.9268,2.9412,-5.1133,1.9417,-0.06472,4.7896,2.9268,2.9412,3.9409,0.0,-2.9206,-12.196,-15.459,-19.259001,-14.482,9.6508,-1.9704,4.6571
-22.875,-10.399,-21.462999,0.97561,6.8627,-10.939,-5.8252,-4.9191,6.7314,0.97561,6.8627,-5.9113,-6.6351,-4.8254,-21.674999,-13.527,-22.158001,-19.266001,10.603,-8.867,4.6571
-28.562,-11.356,-24.389999,0.0,6.8627,-16.764,-8.7379,-9.7735,7.7023,0.0,6.8627,-12.808,-10.427,-3.873,-27.362,-8.6957,-19.259001,-25.007999,6.7937,-15.764,3.7002
-23.823,-6.571,-20.488001,5.8537,13.725,-15.793,-1.9417,-5.89,7.7023,5.8537,13.725,-10.837,-11.374,-1.0159,-24.518,-2.8986,-10.564,-22.136999,2.0317,-16.749001,3.7002
-16.24,-2.7432,-18.537001,10.732,16.667,-9.9676,1.9417,0.90615,9.644,10.732,16.667,-7.8818,-5.6872,3.746,-15.039,1.9324,-1.868,-17.351999,-0.8254,-13.793,4.6571
-5.8136,-2.7432,-16.584999,19.511999,22.549,-2.2006,3.8835,7.7023,5.7605,19.511999,22.549,-4.9261,1.8957,7.5556,-4.613,4.8309,4.8953,-13.525,-6.5397,-8.867,1.7863
5.5608,-2.7432,-2.9268,26.341,24.51,6.5372,7.767,12.557,6.7314,26.341,24.51,1.9704,11.374,9.4603,7.7093,2.8986,9.7262,-4.9123,-8.4444,1.9704,-1.0845
10.3,-1.7863,9.7561,26.341,23.528999,10.421,10.68,15.469,7.7023,26.341,23.528999,7.8818,18.009001,12.317,16.24,1.9324,11.659,-1.0845,-7.4921,5.9113,-0.12759
12.196,1.0845,14.634,25.365999,21.569,17.216999,8.7379,19.353001,3.8188,25.365999,21.569,10.837,17.062,14.222,15.292,0.96618,8.7601,0.82935,-6.5397,-0.98522,3.7002
14.092,0.12759,11.707,31.219999,21.569,19.159,6.7961,22.264999,-2.9773,31.219999,21.569,13.793,10.427,11.365,9.6051,0.0,2.963,2.7432,-10.349,-3.9409,8.4848
15.039,-4.6571,2.9268,33.171001,20.587999,22.070999,4.8544,24.207001,-6.8608,33.171001,20.587999,15.764,0.94787,4.6984,2.97,-3.8647,-3.8003,16.139999,-17.016001,0.98522,6.571
20.726999,-4.6571,4.878,33.171001,18.627001,30.809,4.8544,25.177999,-6.8608,33.171001,18.627001,17.733999,0.0,5.6508,6.7615,0.0,0.06441,24.753,-10.349,7.8818,9.4418
25.466,1.0845,14.634,30.243999,15.686,34.693001,5.8252,23.236,-6.8608,30.243999,15.686,18.719,2.8436,9.4603,14.344,7.7295,8.7601,19.968,1.0794,15.764,13.27
27.362,5.8692,22.438999,26.341,12.745,30.809,6.7961,22.264999,-8.8026,26.341,12.745,19.704,9.4787,15.175,20.032,12.56,16.49,17.097,5.8413,21.674999,14.226
27.362,6.8262,26.341,28.292999,16.667,25.955,9.7087,22.264999,-6.8608,28.292999,16.667,22.66,18.009001,20.889,23.823,13.527,20.354,17.097,8.6984,26.601,13.27
23.57,3.9553,19.511999,30.243999,21.569,22.070999,9.7087,22.264999,-5.89,30.243999,21.569,22.66,20.853001,18.983999,21.927,10.628,19.388,28.580999,4.8889,28.570999,6.571
17.882999,2.9984,9.7561,28.292999,21.569,19.159,8.7379,13.528,-6.8608,28.292999,21.569,17.733999,18.957001,12.317,17.188,5.7971,13.591,18.054001,0.12698,23.645,0.82935
10.3,1.0845,4.878,21.462999,14.706,9.4498,3.8835,10.615,-10.744,21.462999,14.706,10.837,12.322,4.6984,9.6051,1.9324,7.7939,12.313,-3.6825,15.764,-2.9984
7.4566,2.0415,6.8293,17.561001,14.706,9.4498,1.9417,15.469,-6.8608,17.561001,14.706,9.8522,1.8957,-6.7302,2.0221,-3.8647,0.06441,23.796,-4.6349,10.837,-4.9123
4.613,2.0415,11.707,22.438999,17.646999,11.392,4.8544,18.382,0.90615,22.438999,17.646999,14.778,-11.374,-20.063,-7.4566,-12.56,-9.5974,19.968,-9.3968,1.9704,-10.654
0.82148,-0.82935,11.707,27.316999,20.587999,12.362,9.7087,20.323999,3.8188,27.316999,20.587999,18.719,-23.697001,-29.587,-17.882999,-20.290001,-19.259001,13.27,-8.4444,-16.749001,-12.568
-2.97,0.12759,1.9512,21.462999,17.646999,12.362,9.7087,16.440001,3.8188,21.462999,17.646999,17.733999,-30.332001,-32.444,-23.57,-20.290001,-26.989,4.6571,2.0317,-26.601,-8.74
-6.7615,1.0845,-9.7561,10.732,11.765,6.5372,5.8252,10.615,-0.06472,10.732,11.765,10.837,-35.070999,-28.635,-26.414,-16.424999,-28.921,6.571,3.9365,-24.631001,-3.9553
-5.8136,0.12759,-12.683,3.9024,2.9412,-1.2298,-1.9417,5.7605,-6.8608,3.9024,2.9412,2.9557,-33.174999,-17.205999,-20.726999,-9.6618,-24.09,4.6571,-3.6825,-21.674999,3.7002
-2.0221,-4.6571,-7.8049,-2.9268,-4.902,-6.0841,-8.7379,-2.9773,-11.715,-2.9268,-4.902,-1.9704,-19.905001,-1.0159,-9.3523,-1.9324,-11.53,4.6571,-2.7302,-9.8522,13.27
-3.9179,-12.313,-3.9024,-8.7805,-8.8235,-9.9676,-13.592,-9.7735,-15.599,-8.7805,-8.8235,-7.8818,-0.94787,12.317,0.12638,0.0,-0.90177,0.82935,2.9841,0.0,15.183
-5.8136,-15.183,-3.9024,-9.7561,-12.745,-14.822,-17.476,-12.686,-14.628,-9.7561,-12.745,-12.808,15.166,19.937,5.8136,0.96618,5.8615,-5.8692,2.0317,8.867,14.226
-6.7615,-12.313,-5.8537,-10.732,-13.725,-20.646999,-19.417,-8.8026,-13.657,-10.732,-13.725,-15.764,25.591999,23.746,7.7093,1.9324,6.8277,6.571,-0.8254,13.793,8.4848
-7.7093,-9.4418,-14.634,-7.8049,-11.765,-15.793,-17.476,-2.9773,-13.657,-7.8049,-11.765,-14.778,31.280001,22.794001,3.9179,0.96618,3.9291,19.011,0.12698,18.719,1.7863
-5.8136,-8.4848,-20.488001,-3.9024,-7.8431,-8.9968,-12.621,2.8479,-9.7735,-3.9024,-7.8431,-11.823,27.488001,15.175,-0.82148,-0.96618,1.0306,18.054001,-0.8254,21.674999,-7.7831
-0.12638,-1.7863,-12.683,0.0,-2.9412,-1.2298,-4.8544,8.6731,-3.9482,0.0,-2.9412,-6.8966,18.009001,5.6508,-1.7694,0.0,1.9968,17.097,-0.8254,12.808,-14.482
7.4566,6.8262,0.0,6.8293,5.8824,6.5372,3.8835,15.469,2.8479,6.8293,5.8824,0.0,5.6872,-8.6349,0.12638,1.9324,2.963,14.226,-2.7302,5.9113,-18.309
10.3,8.74,2.9268,8.7805,5.8824,10.421,4.8544,16.440001,4.7896,8.7805,5.8824,0.98522,-11.374,-25.778,-0.82148,-3.8647,-5.7327,10.399,2.0317,5.9113,-26.922001
5.5608,2.0415,-2.9268,8.7805,6.8627,9.4498,1.9417,14.498,8.6731,8.7805,6.8627,-2.9557,-28.436001,-40.063,-9.3523,-15.459,-20.225,14.226,2.9841,2.9557,-32.662998
-5.8136,-9.4418,-11.707,6.8293,0.98039,1.6828,-7.767,12.557,4.7896,6.8293,0.98039,-9.8522,-41.706001,-44.825001,-22.622,-28.986,-33.751999,15.183,-9.3968,-4.9261,-34.577
-14.344,-18.054001,-17.561001,3.9024,-1.9608,-8.9968,-12.621,9.644,-0.06472,3.9024,-1.9608,-14.778,-38.862999,-32.444,-29.257999,-30.917999,-33.751999,6.571,-10.349,-9.8522,-25.965
-20.032,-19.011,-21.462999,-3.9024,-6.8627,-15.793,-17.476,0.90615,-3.9482,-3.9024,-6.8627,-20.690001,-21.801001,-9.5873,-23.57,-21.256001,-23.124001,5.614,-12.254,-10.837,-14.482
-18.136,-17.097,-19.511999,-9.7561,-8.8235,-20.646999,-17.476,-6.8608,-7.8317,-9.7561,-8.8235,-21.674999,-3.7915,6.6032,-12.196,-10.628,-7.6651,1.7863,-11.302,-6.8966,-4.9123
-13.397,-17.097,-14.634,-15.61,-13.725,-21.618,-19.417,-7.8317,-11.715,-15.61,-13.725,-18.719,6.6351,13.27,-3.6651,-4.8309,1.9968,-2.0415,-6.5397,-2.9557,3.7002
-8.6572,-18.054001,-13.659,-15.61,-15.686,-15.793,-21.358999,-3.9482,-16.57,-15.61,-15.686,-15.764,8.5308,14.222,-0.82148,-2.8986,3.9291,5.614,-7.4921,1.9704,8.4848
-11.501,-19.011,-17.561001,-16.584999,-21.569,-13.851,-22.33,-5.89,-19.482,-16.584999,-21.569,-17.733999,1.8957,6.6032,-7.4566,-5.7971,-2.8341,1.7863,-9.3968,-4.9261,7.5279
-11.501,-11.356,-13.659,-16.584999,-22.549,-14.822,-19.417,-6.8608,-13.657,-16.584999,-22.549,-14.778,-0.94787,1.8413,-12.196,-5.7971,-7.6651,-3.9553,-13.206,-10.837,5.614
-8.6572,-2.7432,-9.7561,-18.537001,-17.646999,-10.939,-12.621,-6.8608,-6.8608,-18.537001,-17.646999,-10.837,-0.94787,-0.06349,-13.144,-3.8647,-9.5974,0.82935,-16.063,-7.8818,-1.0845
-4.8657,2.0415,-7.8049,-14.634,-9.8039,-7.055,-2.9126,-2.0065,-1.0356,-14.634,-9.8039,-4.9261,-0.94787,-1.9683,-11.248,-0.96618,-8.6312,9.4418,-3.6825,-5.9113,-4.9123
0.82148,3.9553,0.0,-6.8293,-0.98039,0.71197,6.7961,3.8188,8.6731,-6.8293,-0.98039,3.9409,-0.94787,-2.9206,-9.3523,0.0,-6.6989,9.4418,8.6984,-8.867,-8.74
2.7172,6.8262,4.878,-1.9512,3.9216,5.5663,14.563,4.7896,14.498,-1.9512,3.9216,8.867,-5.6872,-8.6349,-11.248,-2.8986,-7.6651,-0.12759,6.7937,-11.823,-15.439
-2.0221,10.654,4.878,1.9512,6.8627,5.5663,17.476,3.8188,21.294001,1.9512,6.8627,8.867,-15.166,-18.159,-15.987,-5.7971,-12.496,-8.74,7.746,-17.733999,-17.351999
-7.7093,9.697,-0.97561,3.9024,9.8039,3.6246,14.563,4.7896,22.264999,3.9024,9.8039,7.8818,-21.801001,-26.73,-19.778999,-7.7295,-16.361,-14.482,12.508,-19.704,-17.351999
-6.7615,3.9553,-1.9512,6.8293,13.725,4.5955,11.65,2.8479,15.469,6.8293,13.725,8.867,-21.801001,-29.587,-15.987,-10.628,-13.462,-13.525,8.6984,-14.778,-18.309
-2.97,-4.6571,-2.9268,4.878,9.8039,4.5955,6.7961,-0.06472,15.469,4.878,9.8039,5.9113,-17.062,-23.872999,-6.5087,-13.527,-8.6312,-7.7831,-1.7778,-4.9261,-15.439
-0.12638,-12.313,-5.8537,3.9024,5.8824,-2.2006,0.97087,-4.9191,12.557,3.9024,5.8824,1.9704,-9.4787,-12.444,2.0221,-14.493,-5.7327,2.7432,2.0317,5.9113,-5.8692
-6.7615,-15.183,-9.7561,-4.878,-4.902,-8.9968,-4.8544,-9.7735,3.8188,-4.878,-4.902,-6.8966,-5.6872,-2.9206,2.0221,-12.56,-5.7327,0.82935,2.9841,0.0,5.614
-16.24,-13.27,-14.634,-11.707,-7.8431,-17.735001,-7.767,-12.686,0.90615,-11.707,-7.8431,-13.793,-7.5829,-0.06349,-7.4566,-11.594,-10.564,-1.0845,-1.7778,-8.867,10.399
-21.927,-10.399,-15.61,-13.659,-8.8235,-22.589001,-7.767,-13.657,-1.0356,-13.659,-8.8235,-16.749001,-12.322,-1.9683,-15.987,-11.594,-16.361,-6.8262,-0.8254,-10.837,10.399
-20.032,-4.6571,-12.683,-11.707,-6.8627,-17.735001,-6.7961,-12.686,-2.0065,-11.707,-6.8627,-14.778,-13.27,-1.0159,-19.778999,-6.7633,-15.395,-15.439,5.8413,-12.808,12.313
-12.449,-2.7432,-5.8537,-6.8293,-4.902,-9.9676,-2.9126,-4.9191,-0.06472,-6.8293,-4.902,-9.8522,-12.322,-1.9683,-15.987,-4.8309,-11.53,-7.7831,7.746,-9.8522,10.399
-4.8657,-6.571,-2.9268,0.97561,3.9216,-4.1424,1.9417,0.90615,-1.0356,0.97561,3.9216,-4.9261,-13.27,-5.7778,-13.144,-9.6618,-11.53,-9.697,0.12698,-10.837,3.7002
-2.97,-10.399,-7.8049,4.878,7.8431,-1.2298,2.9126,3.8188,4.7896,4.878,7.8431,-2.9557,-14.218,-12.444,-15.039,-15.459,-17.327,-4.9123,-9.3968,-11.823,-6.8262
-2.97,-8.4848,-8.7805,2.9268,5.8824,0.71197,5.8252,0.90615,7.7023,2.9268,5.8824,0.0,-12.322,-15.302,-15.039,-15.459,-18.292999,0.82935,-6.5397,-13.793,-9.697
-2.0221,-0.82935,0.97561,0.0,4.902,3.6246,7.767,-3.9482,5.7605,0.0,4.902,2.9557,-5.6872,-12.444,-10.3,-7.7295,-9.5974,-1.0845,-1.7778,-11.823,-7.7831
0.82148,2.9984,9.7561,-4.878,0.0,1.6828,2.9126,-4.9191,5.7605,-4.878,0.0,0.98522,-3.7915,-9.5873,-3.6651,-1.9324,-0.90177,-1.0845,-0.8254,-2.9557,-4.9123
-0.12638,2.0415,4.878,-8.7805,-2.9412,-2.2006,0.97087,-5.89,3.8188,-8.7805,-2.9412,-3.9409,-8.5308,-9.5873,-1.7694,0.0,-0.90177,-2.9984,-1.7778,-5.9113,-3.9553
-0.12638,1.0845,0.97561,-5.8537,-2.9412,-1.2298,3.8835,-5.89,7.7023,-5.8537,-2.9412,-0.98522,-8.5308,-7.6825,1.0742,0.0,0.06441,-7.7831,2.9841,-8.867,-8.74
3.6651,4.9123,5.8537,-0.97561,1.9608,4.5955,9.7087,-1.0356,15.469,-0.97561,1.9608,7.8818,-6.6351,-7.6825,6.7615,1.9324,4.8953,-2.9984,9.6508,-1.9704,-14.482
5.5608,9.697,9.7561,-3.9024,-0.98039,7.5081,11.65,-1.0356,15.469,-3.9024,-0.98039,12.808,-3.7915,-6.7302,9.6051,6.7633,8.7601,-7.7831,13.46,3.9409,-12.568
6.5087,11.611,10.732,-8.7805,-4.902,6.5372,9.7087,-0.06472,7.7023,-8.7805,-4.902,11.823,-1.8957,-4.8254,7.7093,10.628,10.692,-5.8692,16.316999,5.9113,-4.9123
5.5608,6.8262,9.7561,-9.7561,-12.745,4.5955,3.8835,0.90615,3.8188,-9.7561,-12.745,8.867,-2.8436,-2.9206,4.8657,8.6957,7.7939,-4.9123,9.6508,5.9113,1.7863
2.7172,-3.7002,1.9512,-8.7805,-14.706,-0.2589,-2.9126,0.90615,-5.89,-8.7805,-14.706,3.9409,-0.94787,1.8413,0.12638,2.8986,1.9968,-2.9984,-2.7302,7.8818,4.6571
-4.8657,-15.183,-10.732,-13.659,-19.608,-3.1715,-12.621,-1.0356,-15.599,-13.659,-19.608,-4.9261,-1.8957,5.6508,-6.5087,-3.8647,-5.7327,2.7432,-10.349,6.8966,4.6571
-10.553,-16.139999,-15.61,-13.659,-17.646999,-7.055,-12.621,-2.0065,-16.57,-13.659,-17.646999,-7.8818,-2.8436,7.5556,-11.248,-7.7295,-11.53,4.6571,-12.254,4.9261,6.571
-13.397,-11.356,-14.634,-8.7805,-13.725,-10.939,-6.7961,-0.06472,-13.657,-8.7805,-13.725,-5.9113,-3.7915,4.6984,-15.039,-8.6957,-15.395,-2.9984,-10.349,0.98522,5.614
-10.553,-4.6571,-7.8049,-4.878,-5.8824,-1.2298,2.9126,-0.06472,-2.9773,-4.878,-5.8824,1.9704,-4.7393,2.7937,-14.092,-6.7633,-13.462,-4.9123,-11.302,0.0,3.7002
-8.6572,0.12759,-3.9024,-7.8049,-6.8627,3.6246,4.8544,-2.0065,0.90615,-7.8049,-6.8627,5.9113,-7.5829,-6.7302,-13.144,-6.7633,-12.496,-4.9123,-11.302,-9.8522,-1.0845
-0.12638,8.74,2.9268,-7.8049,-5.8824,8.479,8.7379,-2.9773,0.90615,-7.8049,-5.8824,9.8522,-1.8957,-7.6825,-0.82148,1.9324,-1.868,-3.9553,-8.4444,-7.8818,-0.12759
10.3,14.482,12.683,-4.878,-2.9412,11.392,12.621,-3.9482,3.8188,-4.878,-2.9412,11.823,8.5308,1.8413,14.344,15.459,14.557,-10.654,1.0794,-0.98522,4.6571
15.987,15.439,19.511999,-2.9268,-0.98039,9.4498,13.592,-4.9191,4.7896,-2.9268,-0.98039,13.793,13.27,6.6032,23.823,22.222,25.184999,-8.74,3.9365,2.9557,7.5279
17.882999,12.568,24.389999,-5.8537,-1.9608,9.4498,13.592,-5.89,3.8188,-5.8537,-1.9608,15.764,15.166,7.5556,24.771,22.222,27.118,6.571,4.8889,5.9113,3.7002
17.882999,13.525,28.292999,-7.8049,-1.9608,14.304,14.563,-7.8317,5.7605,-7.8049,-1.9608,16.749001,15.166,11.365,23.823,23.188,29.049999,11.356,8.6984,5.9113,1.7863
16.934999,19.266001,27.316999,-4.878,0.98039,17.216999,18.447001,-7.8317,8.6731,-4.878,0.98039,17.733999,18.009001,18.983999,21.927,27.052999,30.982,2.7432,9.6508,6.8966,5.614
14.092,23.094,23.415001,0.97561,1.9608,16.246,20.388,-2.0065,16.440001,0.97561,1.9608,18.719,11.374,17.079,14.344,24.155001,25.184999,7.5279,11.556,5.9113,6.571
9.3523,22.136999,18.537001,3.9024,4.902,14.304,22.33,3.8188,17.410999,3.9024,4.902,18.719,2.8436,9.4603,4.8657,15.459,14.557,2.7432,12.508,0.0,5.614
4.613,17.351999,7.8049,4.878,3.9216,12.362,20.388,8.6731,13.528,4.878,3.9216,15.764,-0.94787,4.6984,-1.7694,7.7295,1.9968,-1.0845,13.46,-0.98522,6.571
4.613,10.654,2.9268,5.8537,4.902,10.421,16.504999,11.586,10.615,5.8537,4.902,12.808,1.8957,3.746,-1.7694,1.9324,-5.7327,7.5279,8.6984,11.823,7.5279
-0.12638,-3.7002,-2.9268,0.0,-3.9216,6.5372,3.8835,10.615,0.90615,0.0,-3.9216,3.9409,4.7393,0.88889,-2.7172,-6.7633,-12.496,6.571,1.0794,9.8522,4.6571
-9.6051,-19.011,-16.584999,-7.8049,-9.8039,-5.1133,-10.68,0.90615,-10.744,-7.8049,-9.8039,-11.823,7.5829,-0.06349,-6.5087,-16.424999,-16.361,1.7863,-2.7302,8.867,0.82935
-15.292,-25.709999,-22.438999,-14.634,-14.706,-15.793,-18.447001,-7.8317,-16.57,-14.634,-14.706,-21.674999,10.427,1.8413,-4.613,-18.357,-14.428,-5.8692,-6.5397,7.8818,0.82935
-17.188,-20.924999,-18.537001,-15.61,-14.706,-22.589001,-16.504999,-14.628,-11.715,-15.61,-14.706,-21.674999,13.27,4.6984,-2.7172,-12.56,-8.6312,-10.654,-10.349,2.9557,4.6571
-17.188,-10.399,-14.634,-12.683,-7.8431,-22.589001,-9.7087,-14.628,-2.9773,-12.683,-7.8431,-17.733999,16.114,10.413,-0.82148,-1.9324,0.06441,-6.8262,-2.7302,2.9557,8.4848
-14.344,0.12759,-13.659,-6.8293,0.98039,-18.705999,-1.9417,-10.744,3.8188,-6.8293,0.98039,-11.823,13.27,12.317,0.12638,7.7295,6.8277,-10.654,8.6984,-0.98522,12.313
-10.553,6.8262,-7.8049,-1.9512,3.9216,-13.851,1.9417,-7.8317,8.6731,-1.9512,3.9216,-6.8966,3.7915,2.7937,0.12638,12.56,9.7262,-5.8692,7.746,-2.9557,8.4848
-3.9179,9.697,0.0,0.0,5.8824,-4.1424,5.8252,-2.9773,7.7023,0.0,5.8824,-0.98522,-3.7915,-9.5873,1.0742,9.6618,7.7939,-3.9553,4.8889,-1.9704,-2.0415
7.4566,12.568,6.8293,6.8293,13.725,3.6246,13.592,5.7605,8.6731,6.8293,13.725,8.867,-2.8436,-12.444,6.7615,5.7971,5.8615,10.399,2.0317,9.8522,-7.7831
16.934999,14.482,9.7561,12.683,18.627001,7.5081,18.447001,8.6731,11.586,12.683,18.627001,15.764,3.7915,-11.492,14.344,2.8986,6.8277,18.054001,1.0794,15.764,-10.654
11.248,5.8692,4.878,8.7805,13.725,4.5955,13.592,2.8479,9.644,8.7805,13.725,11.823,3.7915,-13.397,11.501,-3.8647,1.9968,9.4418,-2.7302,8.867,-14.482
-4.8657,-2.7432,-1.9512,0.97561,3.9216,-7.055,2.9126,-5.89,6.7314,0.97561,3.9216,0.0,1.8957,-12.444,1.0742,-6.7633,-5.7327,4.6571,2.0317,6.8966,-10.654
-14.344,-1.7863,-1.9512,-4.878,0.98039,-16.764,-0.97087,-14.628,4.7896,-4.878,0.98039,-6.8966,8.5308,-1.0159,-0.82148,-2.8986,-5.7327,4.6571,4.8889,9.8522,1.7863
-12.449,3.9553,-0.97561,-5.8537,0.98039,-15.793,1.9417,-16.57,6.7314,-5.8537,0.98039,-6.8966,18.957001,14.222,3.9179,4.8309,1.0306,-2.9984,7.746,12.808,12.313
-4.8657,11.611,0.0,-2.9268,5.8824,-12.88,5.8252,-14.628,9.644,-2.9268,5.8824,-2.9557,23.697001,27.556,8.6572,14.493,11.659,-5.8692,7.746,8.867,20.924999
1.7694,14.482,0.0,0.97561,7.8431,-9.9676,7.767,-12.686,12.557,0.97561,7.8431,1.9704,24.645,35.174999,11.501,23.188,19.388,-3.9553,7.746,4.9261,25.709999
5.5608,9.697,-3.9024,5.8537,12.745,-1.2298,9.7087,-6.8608,12.557,5.8537,12.745,3.9409,24.645,37.078999,13.397,25.121,21.32,-4.9123,13.46,4.9261,27.624001
7.4566,1.0845,-6.8293,9.7561,14.706,8.479,5.8252,2.8479,10.615,9.7561,14.706,2.9557,22.749001,34.222,14.344,20.290001,20.354,-1.0845,12.508,5.9113,23.796
1.7694,-5.614,-4.878,9.7561,14.706,9.4498,2.9126,4.7896,10.615,9.7561,14.706,1.9704,14.218,21.841,7.7093,10.628,14.557,-6.8262,7.746,0.0,13.27
-2.97,-0.82935,0.97561,7.8049,9.8039,6.5372,2.9126,2.8479,7.7023,7.8049,9.8039,3.9409,3.7915,5.6508,-0.82148,2.8986,8.7601,-10.654,-1.7778,-16.749001,-0.12759
-0.12638,8.74,11.707,10.732,9.8039,8.479,9.7087,1.877,10.615,10.732,9.8039,8.867,-6.6351,-9.5873,-2.7172,0.96618,6.8277,-12.568,-0.8254,-26.601,-7.7831
2.7172,15.439,15.61,5.8537,6.8627,9.4498,12.621,-2.0065,16.440001,5.8537,6.8627,9.8522,-16.114,-25.778,-1.7694,1.9324,3.9291,-17.351999,4.8889,-26.601,-13.525
5.5608,19.266001,11.707,0.0,3.9216,2.6537,11.65,-2.0065,13.528,0.0,3.9216,5.9113,-18.009001,-33.396999,2.0221,4.8309,2.963,-10.654,10.603,-20.690001,-10.654
3.6651,12.568,6.8293,-7.8049,-2.9412,-6.0841,2.9126,-5.89,8.6731,-7.8049,-2.9412,-2.9557,-10.427,-31.492001,4.8657,3.8647,1.0306,-3.9553,13.46,-7.8818,-8.74
-2.0221,5.8692,5.8537,-14.634,-9.8039,-12.88,-3.8835,-8.8026,1.877,-14.634,-9.8039,-7.8818,4.7393,-15.302,6.7615,1.9324,2.963,3.7002,6.7937,3.9409,-7.7831
-9.6051,-3.7002,4.878,-18.537001,-15.686,-18.705999,-11.65,-15.599,-4.9191,-18.537001,-15.686,-12.808,18.009001,5.6508,5.8136,-2.8986,1.0306,-1.0845,3.9365,14.778,-5.8692
-17.188,-19.968,-8.7805,-26.341,-26.471001,-22.589001,-24.271999,-20.452999,-11.715,-26.341,-26.471001,-23.645,21.801001,20.889,2.0221,-9.6618,-6.6989,-6.8262,-4.6349,20.690001,-5.8692
-19.084,-28.580999,-21.462999,-32.195,-32.353001,-26.472,-33.980999,-20.452999,-19.482,-32.195,-32.353001,-34.483002,24.645,29.459999,2.0221,-7.7295,-5.7327,-3.9553,-9.3968,23.645,-0.12759
-17.188,-28.580999,-25.365999,-33.171001,-37.255001,-29.385,-38.834999,-20.452999,-23.365999,-33.171001,-37.255001,-38.424,22.749001,31.365,2.0221,-2.8986,-0.90177,-2.0415,-8.4444,22.66,3.7002
-10.553,-19.968,-19.511999,-30.243999,-32.353001,-24.531,-32.039001,-16.57,-18.511,-30.243999,-32.353001,-32.512001,19.905001,29.459999,2.97,0.0,1.9968,0.82935,-14.159,24.631001,7.5279
-6.7615,-15.183,-11.707,-27.316999,-28.431,-17.735001,-24.271999,-15.599,-12.686,-27.316999,-28.431,-22.66,9.4787,20.889,-0.82148,-4.8309,-0.90177,-11.611,-10.349,13.793,7.5279
-2.0221,-9.4418,0.97561,-19.511999,-17.646999,-4.1424,-9.7087,-9.7735,-8.8026,-19.511999,-17.646999,-7.8818,-0.94787,12.317,-4.613,-5.7971,-3.8003,-2.0415,-0.8254,2.9557,5.614
3.6651,1.0845,11.707,-10.732,-10.784,8.479,4.8544,-1.0356,-0.06472,-10.732,-10.784,6.8966,-8.5308,4.6984,-6.5087,-1.9324,-1.868,8.4848,1.0794,-3.9409,3.7002
7.4566,9.697,15.61,-5.8537,-3.9216,12.362,12.621,-1.0356,4.7896,-5.8537,-3.9216,15.764,-17.062,-4.8254,-8.4044,1.9324,0.06441,-2.0415,2.9841,-15.764,2.7432
10.3,16.396,18.537001,-0.97561,-0.98039,11.392,15.534,1.877,4.7896,-0.97561,-0.98039,21.674999,-17.062,-8.6349,-4.613,7.7295,5.8615,-8.74,6.7937,-18.719,0.82935
13.144,17.351999,22.438999,1.9512,2.9412,16.246,16.504999,6.7314,3.8188,1.9512,2.9412,23.645,-12.322,-13.397,2.97,8.6957,7.7939,-3.9553,7.746,-16.749001,-4.9123
15.987,15.439,23.415001,1.9512,1.9608,18.188,14.563,8.6731,4.7896,1.9512,1.9608,21.674999,-5.6872,-16.254,11.501,4.8309,7.7939,3.7002,2.0317,-11.823,-13.525
16.934999,14.482,21.462999,3.9024,0.98039,16.246,13.592,11.586,2.8479,3.9024,0.98039,18.719,4.7393,-7.6825,20.032,3.8647,11.659,-0.12759,1.0794,-4.9261,-12.568
13.144,6.8262,9.7561,0.97561,-3.9216,11.392,6.7961,10.615,-1.0356,0.97561,-3.9216,11.823,9.4787,-1.0159,19.084,1.9324,9.7262,8.4848,-2.7302,0.0,-7.7831
4.613,-5.614,-3.9024,-1.9512,-5.8824,4.5955,-2.9126,5.7605,-5.89,-1.9512,-5.8824,2.9557,9.4787,3.746,12.449,-2.8986,4.8953,17.097,-11.302,6.8966,-4.9123
-3.9179,-15.183,-10.732,-3.9024,-8.8235,1.6828,-9.7087,6.7314,-10.744,-3.9024,-8.8235,-2.9557,5.6872,5.6508,0.12638,-7.7295,-3.8003,6.571,-6.5397,2.9557,-1.0845
-9.6051,-24.753,-20.488001,-8.7805,-13.725,-2.2006,-19.417,0.90615,-20.452999,-8.7805,-13.725,-12.808,-0.94787,2.7937,-11.248,-15.459,-16.361,3.7002,-3.6825,-2.9557,2.7432
-13.397,-31.451,-29.268,-11.707,-15.686,-12.88,-27.184,-5.89,-21.424,-11.707,-15.686,-22.66,-4.7393,-1.9683,-15.987,-22.222,-23.124001,5.614,-7.4921,1.9704,1.7863
-15.292,-27.624001,-26.341,-11.707,-15.686,-20.646999,-27.184,-6.8608,-17.540001,-11.707,-15.686,-26.601,-5.6872,-4.8254,-16.934999,-20.290001,-23.124001,-13.525,-10.349,0.98522,-0.12759
-14.344,-18.054001,-15.61,-8.7805,-9.8039,-20.646999,-18.447001,-5.89,-11.715,-8.7805,-9.8039,-21.674999,-7.5829,-5.7778,-15.987,-13.527,-17.327,-7.7831,-7.4921,-1.9704,0.82935
-9.6051,-7.5279,-5.8537,-3.9024,-6.8627,-7.055,-8.7379,-1.0356,-5.89,-3.9024,-6.8627,-12.808,-4.7393,-2.9206,-11.248,-2.8986,-8.6312,5.614,-3.6825,-0.98522,0.82935
0.82148,5.8692,0.97561,0.97561,1.9608,6.5372,2.9126,5.7605,-2.9773,0.97561,1.9608,-0.98522,2.8436,2.7937,-0.82148,6.7633,0.06441,11.356,0.12698,2.9557,1.7863
7.4566,15.439,-2.9268,6.8293,6.8627,5.5663,9.7087,10.615,-0.06472,6.8293,6.8627,3.9409,9.4787,8.5079,7.7093,13.527,3.9291,8.4848,-1.7778,5.9113,3.7002
4.613,16.396,-7.8049,10.732,11.765,0.71197,10.68,5.7605,9.644,10.732,11.765,0.98522,11.374,7.5556,7.7093,14.493,3.9291,-9.697,3.9365,0.98522,5.614
1.7694,19.266001,-4.878,9.7561,12.745,1.6828,10.68,1.877,16.440001,9.7561,12.745,1.9704,6.6351,-0.06349,4.8657,13.527,2.963,-16.396,12.508,-7.8818,4.6571
0.82148,24.051001,8.7805,14.634,19.608,8.479,18.447001,5.7605,19.353001,14.634,19.608,10.837,-0.94787,-9.5873,2.0221,12.56,5.8615,0.82935,8.6984,-18.719,-2.0415
0.82148,24.051001,25.365999,22.438999,24.51,12.362,23.301001,12.557,19.353001,22.438999,24.51,19.704,-5.6872,-12.444,2.0221,10.628,8.7601,-1.0845,2.9841,-22.66,-5.8692
7.4566,20.223,38.049,28.292999,28.431,19.159,24.271999,14.498,15.469,28.292999,28.431,25.615999,-9.4787,-13.397,5.8136,7.7295,13.591,-3.9553,12.508,-17.733999,-4.9123
17.882999,17.351999,41.951,30.243999,28.431,24.013,19.417,19.353001,12.557,30.243999,28.431,27.586,-9.4787,-12.444,13.397,4.8309,16.49,3.7002,15.365,-13.793,-4.9123
23.57,14.482,36.098,27.316999,23.528999,21.1,13.592,19.353001,6.7314,27.316999,23.528999,23.645,-10.427,-10.54,15.292,0.96618,12.625,0.82935,6.7937,-12.808,-2.9984
20.726999,11.611,23.415001,24.389999,19.608,19.159,13.592,16.440001,0.90615,24.389999,19.608,21.674999,-14.218,-7.6825,11.501,0.0,5.8615,1.7863,4.8889,-18.719,0.82935
15.987,13.525,10.732,23.415001,20.587999,22.070999,15.534,17.410999,6.7314,23.415001,20.587999,21.674999,-13.27,-1.9683,6.7615,3.8647,3.9291,-6.8262,5.8413,-19.704,5.614
11.248,12.568,0.97561,25.365999,23.528999,22.070999,17.476,13.528,12.557,25.365999,23.528999,20.690001,-8.5308,3.746,2.0221,8.6957,4.8953,-9.697,9.6508,-17.733999,9.4418
7.4566,5.8692,-2.9268,23.415001,21.569,19.159,13.592,12.557,10.615,23.415001,21.569,16.749001,-4.7393,3.746,1.0742,8.6957,6.8277,1.7863,9.6508,-13.793,10.399
5.5608,-0.82935,-2.9268,20.488001,21.569,13.333,7.767,11.586,5.7605,20.488001,21.569,11.823,0.0,0.88889,5.8136,6.7633,10.692,2.7432,3.9365,-4.9261,9.4418
4.613,-4.6571,-4.878,20.488001,20.587999,8.479,3.8835,8.6731,3.8188,20.488001,20.587999,6.8966,0.94787,-4.8254,5.8136,1.9324,7.7939,-1.0845,-9.3968,-0.98522,5.614
-1.0742,-8.4848,-10.732,19.511999,20.587999,1.6828,1.9417,8.6731,3.8188,19.511999,20.587999,1.9704,-2.8436,-13.397,-0.82148,-3.8647,-1.868,-8.74,-5.5873,-2.9557,1.7863
-6.7615,-11.356,-16.584999,13.659,12.745,-5.1133,-4.8544,5.7605,3.8188,13.659,12.745,-6.8966,-7.5829,-21.968,-8.4044,-11.594,-13.462,-3.9553,7.746,-1.9704,-2.0415
-11.501,-9.4418,-17.561001,8.7805,6.8627,-10.939,-7.767,0.90615,1.877,8.7805,6.8627,-13.793,-12.322,-25.778,-14.092,-14.493,-20.225,-2.0415,2.9841,-3.9409,-2.0415
-12.449,-7.5279,-14.634,6.8293,3.9216,-13.851,-9.7087,-1.0356,-2.9773,6.8293,3.9216,-15.764,-13.27,-20.063,-12.196,-12.56,-19.259001,-14.482,2.9841,-6.8966,-1.0845
-3.9179,-0.82935,-1.9512,9.7561,9.8039,-7.055,-2.9126,4.7896,3.8188,9.7561,9.8039,-6.8966,-4.7393,-2.9206,-2.7172,-1.9324,-6.6989,2.7432,10.603,0.98522,3.7002
-1.0742,2.9984,5.8537,9.7561,8.8235,-2.2006,0.97087,6.7314,3.8188,9.7561,8.8235,-0.98522,-0.94787,12.317,1.0742,5.7971,3.9291,9.4418,4.8889,0.98522,8.4848
3.6651,2.9984,12.683,14.634,10.784,7.5081,2.9126,7.7023,-2.9773,14.634,10.784,4.9261,0.94787,20.889,2.97,10.628,12.625,5.614,2.9841,-2.9557,9.4418
10.3,2.9984,19.511999,13.659,6.8627,13.333,3.8835,9.644,-2.0065,13.659,6.8627,10.837,1.8957,21.841,5.8136,12.56,17.455999,6.571,2.9841,-2.9557,7.5279
17.882999,7.7831,23.415001,11.707,7.8431,13.333,7.767,15.469,-2.0065,11.707,7.8431,12.808,6.6351,21.841,12.449,13.527,21.32,16.139999,2.0317,0.98522,3.7002
20.726999,8.74,19.511999,7.8049,4.902,12.362,4.8544,16.440001,2.8479,7.8049,4.902,8.867,12.322,18.032,16.24,11.594,22.287001,11.356,-4.6349,0.0,-0.12759
16.934999,3.9553,7.8049,0.0,-3.9216,8.479,-1.9417,9.644,0.90615,0.0,-3.9216,0.0,16.114,12.317,16.24,6.7633,18.422001,5.614,-3.6825,3.9409,-0.12759
9.3523,-2.7432,-2.9268,-7.8049,-10.784,0.71197,-8.7379,3.8188,-8.8026,-7.8049,-10.784,-7.8818,12.322,2.7937,11.501,0.0,9.7262,10.399,1.0794,8.867,1.7863
5.5608,-4.6571,-3.9024,-8.7805,-13.725,-4.1424,-12.621,1.877,-10.744,-8.7805,-13.725,-8.867,4.7393,-2.9206,5.8136,-0.96618,1.9968,9.4418,2.0317,9.8522,6.571
2.7172,-6.571,-2.9268,-10.732,-17.646999,-7.055,-17.476,-1.0356,-12.686,-10.732,-17.646999,-9.8522,-3.7915,-6.7302,-0.82148,-1.9324,-6.6989,-1.0845,-4.6349,11.823,10.399
-4.8657,-11.356,-8.7805,-15.61,-22.549,-10.939,-23.301001,-8.8026,-17.540001,-15.61,-22.549,-16.749001,-13.27,-14.349,-10.3,-8.6957,-16.361,-6.8262,-7.4921,4.9261,7.5279
-8.6572,-13.27,-9.7561,-16.584999,-19.608,-15.793,-20.388,-7.8317,-16.57,-16.584999,-19.608,-16.749001,-17.062,-17.205999,-13.144,-13.527,-18.292999,-9.697,-5.5873,1.9704,-1.0845
-7.7093,-10.399,-8.7805,-13.659,-15.686,-10.939,-13.592,-4.9191,-15.599,-13.659,-15.686,-11.823,-12.322,-13.397,-9.3523,-13.527,-14.428,-2.0415,-8.4444,5.9113,-8.74
-8.6572,-11.356,-12.683,-9.7561,-9.8039,-7.055,-12.621,-2.9773,-9.7735,-9.7561,-9.8039,-10.837,-7.5829,-9.5873,-7.4566,-13.527,-12.496,4.6571,-9.3968,5.9113,-14.482
-10.553,-17.097,-17.561001,-8.7805,-11.765,-6.0841,-16.504999,-0.06472,-9.7735,-8.7805,-11.765,-12.808,-6.6351,-7.6825,-7.4566,-15.459,-11.53,5.614,-15.111,6.8966,-18.309
-3.9179,-18.054001,-12.683,-6.8293,-9.8039,-8.0259,-15.534,0.90615,-14.628,-6.8293,-9.8039,-10.837,-4.7393,-4.8254,-5.5608,-14.493,-7.6651,10.399,-20.825001,2.9557,-19.266001
8.4044,-8.4848,1.9512,-4.878,-10.784,-4.1424,-11.65,3.8188,-13.657,-4.878,-10.784,-3.9409,0.94787,2.7937,2.0221,-5.7971,2.963,16.139999,-18.921,-0.98522,-12.568
16.934999,2.9984,13.659,-2.9268,-9.8039,5.5663,-4.8544,5.7605,-13.657,-2.9268,-9.8039,2.9557,4.7393,8.5079,8.6572,2.8986,10.692,13.27,-13.206,1.9704,-4.9123
19.778999,9.697,18.537001,-0.97561,-9.8039,13.333,0.97087,9.644,-6.8608,-0.97561,-9.8039,8.867,7.5829,12.317,10.553,7.7295,11.659,6.571,-3.6825,3.9409,-1.0845
13.144,8.74,13.659,-2.9268,-9.8039,11.392,3.8835,8.6731,-7.8317,-2.9268,-9.8039,8.867,7.5829,10.413,3.9179,4.8309,4.8953,1.7863,-3.6825,4.9261,1.7863
-0.12638,1.0845,-3.9024,-9.7561,-14.706,3.6246,-1.9417,5.7605,-6.8608,-9.7561,-14.706,0.98522,5.6872,7.5556,-5.5608,-0.96618,-6.6989,3.7002,-6.5397,7.8818,2.7432
-7.7093,-5.614,-12.683,-14.634,-20.587999,-2.2006,-9.7087,-0.06472,-8.8026,-14.634,-20.587999,-6.8966,6.6351,8.5079,-6.5087,-2.8986,-8.6312,6.571,-9.3968,9.8522,5.614
-12.449,-13.27,-13.659,-18.537001,-24.51,-8.9968,-18.447001,-8.8026,-15.599,-18.537001,-24.51,-14.778,2.8436,4.6984,-6.5087,-5.7971,-8.6312,-0.12759,-14.159,15.764,3.7002
-13.397,-22.839001,-17.561001,-25.365999,-27.451,-20.646999,-26.214001,-14.628,-21.424,-25.365999,-27.451,-23.645,-0.94787,1.8413,-8.4044,-12.56,-11.53,0.82935,-14.159,14.778,-1.0845
-12.449,-27.624001,-18.537001,-29.268,-31.372999,-30.356001,-31.068001,-15.599,-24.337,-29.268,-31.372999,-29.556999,-6.6351,-1.9683,-11.248,-18.357,-16.361,0.82935,-11.302,8.867,-3.9553
-16.24,-28.580999,-21.462999,-33.171001,-36.275002,-36.181,-35.922001,-23.365999,-29.191,-33.171001,-36.275002,-33.498001,-16.114,-8.6349,-19.778999,-22.222,-22.158001,0.82935,-15.111,0.98522,-8.74
-17.188,-22.839001,-19.511999,-30.243999,-34.313999,-27.443001,-34.951,-22.395,-25.306999,-30.243999,-34.313999,-29.556999,-18.009001,-8.6349,-22.622,-20.290001,-24.09,-1.0845,-20.825001,0.0,-10.654
-13.397,-18.054001,-18.537001,-21.462999,-26.471001,-15.793,-28.155001,-13.657,-18.511,-21.462999,-26.471001,-18.719,-14.218,-12.444,-18.830999,-19.323999,-23.124001,-6.8262,-16.063,2.9557,-14.482
-12.449,-19.011,-25.365999,-18.537001,-20.587999,-17.735001,-23.301001,-13.657,-20.452999,-18.537001,-20.587999,-15.764,-10.427,-16.254,-15.987,-19.323999,-21.191999,-18.309,-6.5397,4.9261,-16.396
-7.7093,-17.097,-27.316999,-18.537001,-20.587999,-12.88,-18.447001,-12.686,-14.628,-18.537001,-20.587999,-12.808,-5.6872,-15.302,-10.3,-16.424999,-15.395,-4.9123,-5.5873,5.9113,-16.396
-2.97,-12.313,-16.584999,-15.61,-16.667,-8.9968,-11.65,-8.8026,-10.744,-15.61,-16.667,-6.8966,-3.7915,-13.397,-9.3523,-15.459,-12.496,4.6571,-8.4444,6.8966,-16.396
-5.8136,-6.571,-5.8537,-15.61,-17.646999,-7.055,-9.7087,-7.8317,-12.686,-15.61,-17.646999,-5.9113,-2.8436,-9.5873,-12.196,-14.493,-13.462,-3.9553,-6.5397,5.9113,-13.525
-6.7615,-3.7002,0.0,-13.659,-16.667,-7.055,-9.7087,-4.9191,-10.744,-13.659,-16.667,-6.8966,-0.94787,-1.9683,-9.3523,-8.6957,-9.5974,-3.9553,-0.8254,8.867,-3.9553
-8.6572,0.12759,0.97561,-12.683,-17.646999,-8.0259,-7.767,-5.89,-6.8608,-12.683,-17.646999,-7.8818,2.8436,9.4603,-4.613,0.0,-3.8003,5.614,-3.6825,12.808,7.5279
-8.6572,4.9123,0.97561,-6.8293,-8.8235,-4.1424,-1.9417,-3.9482,-4.9191,-6.8293,-8.8235,-4.9261,7.5829,18.983999,-2.7172,9.6618,1.9968,3.7002,-4.6349,7.8818,19.011
-8.6572,2.0415,-2.9268,-9.7561,-10.784,-5.1133,-2.9126,-4.9191,-3.9482,-9.7561,-10.784,-7.8818,0.94787,15.175,-6.5087,11.594,0.06441,3.7002,10.603,-1.9704,20.924999
-7.7093,-3.7002,-10.732,-13.659,-10.784,-12.88,-6.7961,-7.8317,0.90615,-13.659,-10.784,-13.793,-6.6351,6.6032,-9.3523,5.7971,-3.8003,-4.9123,10.603,-2.9557,18.054001
-3.9179,-12.313,-16.584999,-11.707,-8.8235,-17.735001,-10.68,-8.8026,3.8188,-11.707,-8.8235,-15.764,-9.4787,-3.873,-9.3523,-4.8309,-9.5974,-6.8262,0.12698,-2.9557,8.4848
-4.8657,-20.924999,-22.438999,-7.8049,-6.8627,-14.822,-11.65,-7.8317,2.8479,-7.8049,-6.8627,-16.749001,-16.114,-16.254,-9.3523,-16.424999,-15.395,0.82935,-0.8254,-3.9409,-4.9123
-5.8136,-22.839001,-25.365999,-1.9512,-1.9608,-8.0259,-9.7087,-3.9482,2.8479,-1.9512,-1.9608,-12.808,-17.062,-19.111,-11.248,-21.256001,-19.259001,-1.0845,-1.7778,-5.9113,-9.697
-11.501,-19.011,-24.389999,-1.9512,-1.9608,-5.1133,-7.767,-8.8026,2.8479,-1.9512,-1.9608,-7.8818,-16.114,-15.302,-15.987,-19.323999,-22.158001,-9.697,-0.8254,-9.8522,-6.8262
-19.084,-11.356,-19.511999,-6.8293,-3.9216,-10.939,-5.8252,-15.599,0.90615,-6.8293,-3.9216,-7.8818,-15.166,-14.349,-22.622,-13.527,-22.158001,-17.351999,-1.7778,-12.808,-4.9123
-20.979,-3.7002,-11.707,-11.707,-7.8431,-13.851,-6.7961,-16.57,-2.9773,-11.707,-7.8431,-8.867,-8.5308,-9.5873,-20.726999,-5.7971,-17.327,-22.136999,0.12698,-4.9261,-4.9123
-14.344,2.0415,0.0,-11.707,-9.8039,-10.939,-4.8544,-15.599,-5.89,-11.707,-9.8039,-4.9261,-5.6872,-9.5873,-14.092,0.96618,-8.6312,-16.396,7.746,1.9704,-2.9984
-6.7615,2.9984,3.9024,-7.8049,-10.784,2.6537,-3.8835,-9.7735,-2.9773,-7.8049,-10.784,0.0,-7.5829,-14.349,-8.4044,0.96618,-5.7327,-9.697,7.746,-1.9704,-6.8262
-1.0742,3.9553,0.97561,-1.9512,-6.8627,11.392,0.0,-1.0356,-1.0356,-1.9512,-6.8627,2.9557,-0.94787,-5.7778,-0.82148,2.8986,-0.90177,3.7002,2.9841,2.9557,-9.697
1.7694,5.8692,1.9512,-1.9512,-7.8431,5.5663,3.8835,2.8479,-0.06472,-1.9512,-7.8431,2.9557,9.4787,12.317,6.7615,8.6957,7.7939,5.614,-1.7778,11.823,-4.9123
2.7172,5.8692,5.8537,-0.97561,-2.9412,1.6828,4.8544,4.7896,0.90615,-0.97561,-2.9412,2.9557,15.166,21.841,12.449,12.56,15.523,13.27,-4.6349,16.749001,0.82935
4.613,2.0415,8.7805,0.97561,-2.9412,2.6537,0.97087,6.7314,-0.06472,0.97561,-2.9412,0.98522,18.009001,21.841,17.188,11.594,18.422001,10.399,-2.7302,21.674999,5.614
7.4566,0.12759,10.732,3.9024,1.9608,4.5955,1.9417,1.877,3.8188,3.9024,1.9608,3.9409,18.957001,21.841,17.188,10.628,17.455999,1.7863,7.746,21.674999,10.399
4.613,-0.82935,1.9512,5.8537,6.8627,1.6828,2.9126,-1.0356,-0.06472,5.8537,6.8627,1.9704,11.374,11.365,9.6051,5.7971,8.7601,-0.12759,11.556,19.704,9.4418
0.82148,-4.6571,-9.7561,10.732,12.745,-2.2006,1.9417,0.90615,3.8188,10.732,12.745,-0.98522,0.0,-1.0159,1.0742,-1.9324,-1.868,-9.697,6.7937,11.823,3.7002
-1.0742,-2.7432,-8.7805,15.61,18.627001,-2.2006,4.8544,1.877,13.528,15.61,18.627001,0.98522,-5.6872,-11.492,-2.7172,-4.8309,-5.7327,4.6571,6.7937,6.8966,-2.0415
-1.0742,2.9984,0.97561,16.584999,22.549,0.71197,10.68,-0.06472,16.440001,16.584999,22.549,4.9261,-8.5308,-17.205999,-3.6651,-5.7971,-5.7327,10.399,2.0317,0.98522,-3.9553
1.7694,8.74,12.683,18.537001,26.471001,6.5372,16.504999,-0.06472,19.353001,18.537001,26.471001,12.808,-6.6351,-16.254,-2.7172,-2.8986,-2.8341,-5.8692,6.7937,-0.98522,-1.0845
4.613,14.482,18.537001,20.488001,26.471001,13.333,19.417,-1.0356,20.323999,20.488001,26.471001,16.749001,-0.94787,-9.5873,-0.82148,1.9324,0.06441,-3.9553,11.556,-8.867,2.7432
6.5087,17.351999,17.561001,19.511999,26.471001,18.188,18.447001,-0.06472,13.528,19.511999,26.471001,18.719,6.6351,-0.06349,4.8657,8.6957,5.8615,-2.9984,8.6984,-9.8522,5.614
9.3523,14.482,12.683,18.537001,23.528999,15.275,14.563,-1.0356,2.8479,18.537001,23.528999,16.749001,10.427,6.6032,12.449,14.493,12.625,-2.9984,2.0317,-4.9261,8.4848
14.092,10.654,14.634,20.488001,22.549,16.246,15.534,-1.0356,-2.0065,20.488001,22.549,18.719,14.218,17.079,20.032,21.256001,23.253,-6.8262,-4.6349,2.9557,13.27
21.674999,12.568,26.341,27.316999,25.49,22.070999,24.271999,9.644,3.8188,27.316999,25.49,27.586,18.009001,29.459999,24.771,27.052999,30.016001,3.7002,2.9841,6.8966,16.139999
20.726999,13.525,32.195,28.292999,29.412001,24.013,29.125999,16.440001,13.528,28.292999,29.412001,31.527,13.27,32.317001,18.136,25.121,27.118,7.5279,15.365,2.9557,16.139999
10.3,10.654,23.415001,23.415001,24.51,23.042,23.301001,14.498,21.294001,23.415001,24.51,23.645,2.8436,26.603001,3.9179,18.357,15.523,-4.9123,18.222,0.0,10.399
4.613,11.611,11.707,19.511999,22.549,10.421,19.417,12.557,22.264999,19.511999,22.549,15.764,0.0,15.175,-2.7172,12.56,6.8277,-2.9984,16.316999,3.9409,2.7432
1.7694,9.697,3.9024,16.584999,18.627001,5.5663,14.563,9.644,22.264999,16.584999,18.627001,8.867,-0.94787,0.88889,-1.7694,5.7971,1.0306,8.4848,9.6508,9.8522,-7.7831
2.7172,2.9984,-1.9512,12.683,17.646999,5.5663,12.621,5.7605,20.323999,12.683,17.646999,2.9557,-0.94787,-13.397,1.0742,-4.8309,-5.7327,6.571,4.8889,13.793,-15.439
0.82148,-6.571,-7.8049,5.8537,10.784,-4.1424,5.8252,-2.0065,13.528,5.8537,10.784,-2.9557,0.94787,-21.016001,5.8136,-14.493,-9.5974,3.7002,2.0317,18.719,-17.351999
-0.12638,-9.4418,-4.878,1.9512,8.8235,-8.0259,2.9126,-2.9773,5.7605,1.9512,8.8235,-3.9409,0.94787,-21.016001,6.7615,-15.459,-8.6312,-1.0845,2.0317,17.733999,-9.697
-5.8136,-5.614,1.9512,-1.9512,3.9216,-7.055,4.8544,-2.9773,-2.9773,-1.9512,3.9216,0.98522,-1.8957,-19.111,1.0742,-13.527,-7.6651,-3.9553,-2.7302,2.9557,-2.9984
-7.7093,-2.7432,2.9268,-1.9512,1.9608,-0.2589,5.8252,-3.9482,-2.0065,-1.9512,1.9608,6.8966,-8.5308,-19.111,-5.5608,-9.6618,-6.6989,-2.9984,-1.7778,-6.8966,0.82935
-2.0221,2.0415,6.8293,0.0,2.9412,7.5081,9.7087,-3.9482,-2.0065,0.0,2.9412,13.793,-10.427,-12.444,-4.613,-0.96618,-0.90177,-1.0845,2.9841,-6.8966,3.7002
2.7172,10.654,11.707,1.9512,4.902,7.5081,15.534,-6.8608,1.877,1.9512,4.902,17.733999,-5.6872,-0.06349,-0.82148,11.594,5.8615,-7.7831,4.8889,-6.8966,5.614
3.6651,17.351999,16.584999,-1.9512,1.9608,0.71197,14.563,-9.7735,3.8188,-1.9512,1.9608,14.778,-0.94787,8.5079,2.97,22.222,12.625,1.7863,-1.7778,-3.9409,7.5279
4.613,15.439,17.561001,-9.7561,-3.9216,-2.2006,7.767,-15.599,-0.06472,-9.7561,-3.9216,7.8818,3.7915,13.27,7.7093,25.121,17.455999,5.614,-2.7302,-0.98522,10.399
7.4566,10.654,15.61,-14.634,-7.8431,-2.2006,3.8835,-11.715,-2.9773,-14.634,-7.8431,4.9261,9.4787,16.127001,12.449,22.222,20.354,-2.0415,2.0317,2.9557,10.399
11.248,6.8262,13.659,-8.7805,-6.8627,0.71197,6.7961,-1.0356,-4.9191,-8.7805,-6.8627,7.8818,16.114,20.889,15.292,18.357,20.354,-0.12759,10.603,2.9557,12.313
9.3523,2.9984,9.7561,-0.97561,-0.98039,2.6537,8.7379,8.6731,3.8188,-0.97561,-0.98039,8.867,16.114,20.889,10.553,13.527,14.557,-5.8692,11.556,3.9409,12.313
5.5608,0.12759,5.8537,-1.9512,-3.9216,2.6537,3.8835,8.6731,6.7314,-1.9512,-3.9216,3.9409,17.062,16.127001,5.8136,5.7971,8.7601,-1.0845,5.8413,3.9409,5.614
5.5608,-0.82935,1.9512,-6.8293,-8.8235,1.6828,0.0,6.7314,2.8479,-6.8293,-8.8235,-3.9409,18.009001,13.27,7.7093,0.96618,6.8277,6.571,3.9365,5.9113,-0.12759
3.6651,-1.7863,0.0,-7.8049,-11.765,-5.1133,-4.8544,5.7605,-1.0356,-7.8049,-11.765,-8.867,12.322,2.7937,8.6572,-3.8647,1.9968,9.4418,0.12698,9.8522,-6.8262
-0.12638,-1.7863,-3.9024,-2.9268,-3.9216,-8.9968,-2.9126,4.7896,0.90615,-2.9268,-3.9216,-7.8818,1.8957,-9.5873,3.9179,-8.6957,-8.6312,18.054001,-7.4921,12.808,-12.568
-6.7615,-3.7002,-14.634,-0.97561,-1.9608,-7.055,0.0,2.8479,2.8479,-0.97561,-1.9608,-5.9113,-9.4787,-23.872999,-2.7172,-17.391001,-20.225,11.356,-5.5873,8.867,-21.18
-10.553,-1.7863,-19.511999,0.0,2.9412,-0.2589,6.7961,-2.0065,1.877,0.0,2.9412,0.98522,-18.957001,-34.348999,-9.3523,-22.222,-25.056,4.6571,-5.5873,2.9557,-27.879
-13.397,4.9123,-9.7561,1.9512,5.8824,2.6537,13.592,-5.89,4.7896,1.9512,5.8824,8.867,-19.905001,-29.587,-13.144,-13.527,-17.327,-6.8262,-4.6349,-6.8966,-22.136999
-12.449,6.8262,0.0,0.97561,5.8824,-1.2298,10.68,-7.8317,8.6731,0.97561,5.8824,8.867,-17.062,-19.111,-11.248,0.96618,-2.8341,-21.18,-10.349,-13.793,-10.654
-4.8657,2.0415,3.9024,-3.9024,-1.9608,-2.2006,3.8835,-6.8608,4.7896,-3.9024,-1.9608,4.9261,-10.427,-8.6349,-3.6651,10.628,7.7939,-6.8262,-3.6825,-13.793,-3.9553
2.7172,2.0415,7.8049,-8.7805,-7.8431,2.6537,-1.9417,-2.0065,-2.0065,-8.7805,-7.8431,2.9557,3.7915,7.5556,6.7615,18.357,16.49,11.356,6.7937,-7.8818,4.6571
10.3,5.8692,8.7805,-8.7805,-9.8039,6.5372,-2.9126,1.877,-4.9191,-8.7805,-9.8039,2.9557,16.114,21.841,16.24,23.188,22.287001,11.356,6.7937,0.0,9.4418
18.830999,6.8262,10.732,-8.7805,-10.784,13.333,-2.9126,4.7896,-6.8608,-8.7805,-10.784,4.9261,23.697001,28.507999,23.823,23.188,25.184999,8.4848,9.6508,-2.9557,13.27
20.726999,6.8262,9.7561,-9.7561,-9.8039,8.479,-0.97087,2.8479,-2.9773,-9.7561,-9.8039,5.9113,18.957001,23.746,21.927,16.424999,20.354,-2.0415,6.7937,-7.8818,14.226
15.039,5.8692,7.8049,-9.7561,-9.8039,2.6537,3.8835,-1.0356,2.8479,-9.7561,-9.8039,7.8818,9.4787,16.127001,11.501,5.7971,8.7601,-14.482,6.7937,-9.8522,13.27
4.613,5.8692,4.878,-9.7561,-6.8627,2.6537,6.7961,-4.9191,0.90615,-9.7561,-6.8627,7.8818,0.0,7.5556,-2.7172,-0.96618,-2.8341,-25.007999,4.8889,-13.793,15.183
-5.8136,4.9123,-3.9024,-9.7561,-7.8431,-0.2589,-0.97087,-4.9191,3.8188,-9.7561,-7.8431,1.9704,-4.7393,6.6032,-9.3523,0.96618,-8.6312,-26.922001,10.603,-10.837,16.139999
-11.501,-0.82935,-9.7561,-7.8049,-8.8235,-5.1133,-8.7379,-2.0065,1.877,-7.8049,-8.8235,-4.9261,-5.6872,5.6508,-9.3523,1.9324,-9.5974,-17.351999,8.6984,-4.9261,17.097
-10.553,-6.571,-7.8049,-6.8293,-12.745,-8.0259,-12.621,0.90615,-5.89,-6.8293,-12.745,-9.8522,-3.7915,-0.06349,-4.613,0.0,-7.6651,-8.74,0.12698,1.9704,9.4418
-1.0742,-2.7432,1.9512,-0.97561,-6.8627,-0.2589,-6.7961,2.8479,-3.9482,-0.97561,-6.8627,-3.9409,3.7915,-1.9683,3.9179,1.9324,0.06441,-2.9984,-0.8254,6.8966,2.7432
9.3523,4.9123,13.659,1.9512,-2.9412,12.362,3.8835,7.7023,0.90615,1.9512,-2.9412,5.9113,12.322,0.88889,13.397,5.7971,9.7262,12.313,-6.5397,10.837,-3.9553
14.092,9.697,21.462999,7.8049,1.9608,19.159,11.65,12.557,0.90615,7.8049,1.9608,13.793,13.27,0.88889,19.084,7.7295,17.455999,19.968,-6.5397,9.8522,-12.568
16.934999,7.7831,21.462999,9.7561,1.9608,18.188,11.65,12.557,-2.0065,9.7561,1.9608,14.778,13.27,-1.9683,23.823,6.7633,21.32,18.054001,3.9365,12.808,-17.351999
15.987,0.12759,12.683,4.878,-3.9216,6.5372,2.9126,7.7023,-2.0065,4.878,-3.9216,7.8818,7.5829,-4.8254,22.875,2.8986,18.422001,14.226,2.9841,3.9409,-17.351999
11.248,-6.571,3.9024,-2.9268,-12.745,0.71197,-7.767,2.8479,-5.89,-2.9268,-12.745,-0.98522,0.94787,-4.8254,15.292,-0.96618,11.659,8.4848,-1.7778,-7.8818,-11.611
6.5087,-10.399,0.0,-9.7561,-17.646999,-3.1715,-13.592,-3.9482,-13.657,-9.7561,-17.646999,-7.8818,-4.7393,-2.9206,6.7615,-3.8647,4.8953,-7.7831,1.0794,-10.837,-2.9984
4.613,-4.6571,1.9512,-10.732,-16.667,-1.2298,-10.68,-1.0356,-12.686,-10.732,-16.667,-6.8966,-3.7915,4.6984,2.0221,0.0,3.9291,-10.654,-4.6349,-14.778,5.614
-2.0221,4.9123,2.9268,-9.7561,-10.784,-1.2298,-3.8835,0.90615,-6.8608,-9.7561,-10.784,-2.9557,-2.8436,8.5079,-4.613,3.8647,2.963,12.313,-3.6825,-12.808,10.399
-15.292,4.9123,-4.878,-12.683,-7.8431,-9.9676,-1.9417,-4.9191,-3.9482,-12.683,-7.8431,-4.9261,-8.5308,5.6508,-17.882999,1.9324,-5.7327,8.4848,-0.8254,-14.778,15.183
-28.562,-3.7002,-20.488001,-16.584999,-9.8039,-20.646999,-3.8835,-12.686,-6.8608,-16.584999,-9.8039,-11.823,-18.957001,-1.9683,-33.049,-8.6957,-21.191999,-17.351999,2.0317,-20.690001,13.27
-28.562,-10.399,-23.415001,-9.7561,-4.902,-18.705999,-4.8544,-12.686,-2.0065,-9.7561,-4.902,-12.808,-19.905001,-3.873,-33.997002,-13.527,-27.955,-15.439,3.9365,-17.733999,12.313
-14.344,-12.313,-14.634,-5.8537,-4.902,-8.9968,-7.767,-4.9191,0.90615,-5.8537,-4.902,-9.8522,-10.427,2.7937,-21.674999,-11.594,-21.191999,-4.9123,0.12698,-6.8966,11.356
-0.12638,-13.27,-6.8293,-5.8537,-0.98039,-2.2006,-7.767,0.90615,-0.06472,-5.8537,-0.98039,-8.867,-3.7915,2.7937,-7.4566,-12.56,-14.428,6.571,-0.8254,3.9409,5.614
5.5608,-15.183,-7.8049,-6.8293,-6.8627,-1.2298,-11.65,2.8479,-2.9773,-6.8293,-6.8627,-10.837,-3.7915,-1.9683,0.12638,-15.459,-12.496,4.6571,-3.6825,12.808,-2.9984
4.613,-8.4848,-8.7805,-6.8293,-8.8235,-0.2589,-9.7087,3.8188,-5.89,-6.8293,-8.8235,-9.8522,-0.94787,-4.8254,2.97,-12.56,-8.6312,10.399,-13.206,9.8522,-11.611
0.82148,4.9123,-1.9512,-1.9512,-4.902,2.6537,-1.9417,7.7023,-1.0356,-1.9512,-4.902,-1.9704,5.6872,-6.7302,7.7093,-3.8647,1.0306,8.4848,-6.5397,4.9261,-19.266001
3.6651,12.568,13.659,1.9512,3.9216,2.6537,4.8544,8.6731,0.90615,1.9512,3.9216,5.9113,8.5308,-11.492,17.188,3.8647,13.591,9.4418,2.9841,7.8818,-24.051001
9.3523,14.482,24.389999,2.9268,1.9608,3.6246,6.7961,8.6731,0.90615,2.9268,1.9608,8.867,3.7915,-20.063,23.823,6.7633,20.354,17.097,-4.6349,4.9261,-28.836
15.987,13.525,30.243999,8.7805,7.8431,14.304,11.65,10.615,1.877,8.7805,7.8431,14.778,0.94787,-18.159,24.771,7.7295,21.32,20.924999,1.0794,0.0,-25.965
19.778999,10.654,28.292999,9.7561,8.8235,18.188,12.621,13.528,5.7605,9.7561,8.8235,17.733999,2.8436,-8.6349,20.979,6.7633,18.422001,12.313,2.9841,-4.9261,-19.266001
12.196,10.654,15.61,1.9512,4.902,16.246,10.68,6.7314,10.615,1.9512,4.902,11.823,0.94787,1.8413,9.6051,6.7633,11.659,1.7863,4.8889,-7.8818,-8.74
-1.0742,9.697,-4.878,-8.7805,-2.9412,3.6246,5.8252,-0.06472,9.644,-8.7805,-2.9412,0.98522,0.94787,10.413,-4.613,6.7633,1.9968,-5.8692,8.6984,-7.8818,2.7432
-15.292,6.8262,-19.511999,-14.634,-10.784,-7.055,-0.97087,-5.89,2.8479,-14.634,-10.784,-7.8818,1.8957,15.175,-17.882999,8.6957,-4.7665,-7.7831,8.6984,-7.8818,11.356
-22.875,6.8262,-21.462999,-16.584999,-14.706,-12.88,-3.8835,-10.744,-3.9482,-16.584999,-14.706,-9.8522,1.8957,20.889,-23.57,12.56,-7.6651,-19.266001,4.8889,-2.9557,19.011
-19.084,3.9553,-16.584999,-12.683,-11.765,-7.055,-3.8835,-6.8608,-7.8317,-12.683,-11.765,-9.8522,3.7915,23.746,-18.830999,11.594,-6.6989,-18.309,2.9841,-1.9704,24.753
-13.397,-3.7002,-12.683,-9.7561,-12.745,-4.1424,-8.7379,-3.9482,-11.715,-9.7561,-12.745,-13.793,0.94787,18.983999,-12.196,5.7971,-5.7327,-18.309,0.12698,-4.9261,24.753
-5.8136,-15.183,-7.8049,-8.7805,-14.706,-8.9968,-14.563,-0.06472,-11.715,-8.7805,-14.706,-15.764,2.8436,13.27,-4.613,-4.8309,-6.6989,-10.654,-9.3968,-1.9704,22.839001
2.7172,-24.753,-3.9024,-3.9024,-9.8039,-3.1715,-15.534,4.7896,-14.628,-3.9024,-9.8039,-15.764,3.7915,1.8413,2.97,-20.290001,-8.6312,-2.0415,-3.6825,3.9409,13.27
6.5087,-26.667,-0.97561,1.9512,-4.902,3.6246,-10.68,5.7605,-14.628,1.9512,-4.902,-8.867,0.94787,-11.492,5.8136,-30.917999,-12.496,-4.9123,-6.5397,4.9261,-1.0845
6.5087,-18.054001,-1.9512,10.732,3.9216,5.5663,-0.97087,9.644,-8.8026,10.732,3.9216,0.0,-1.8957,-17.205999,3.9179,-30.917999,-13.462,-20.223,-12.254,4.9261,-8.74
1.7694,-3.7002,-3.9024,14.634,8.8235,5.5663,4.8544,10.615,-5.89,14.634,8.8235,5.9113,-2.8436,-10.54,0.12638,-17.391001,-9.5974,-14.482,-4.6349,3.9409,-10.654
-2.97,12.568,0.0,18.537001,13.725,5.5663,11.65,8.6731,-0.06472,18.537001,13.725,10.837,0.0,-1.0159,-3.6651,1.9324,-1.868,-1.0845,2.0317,3.9409,-7.7831
-7.7093,23.094,3.9024,20.488001,15.686,6.5372,16.504999,6.7314,0.90615,20.488001,15.686,14.778,3.7915,6.6032,-4.613,17.391001,3.9291,4.6571,7.746,0.98522,-3.9553
-7.7093,22.136999,3.9024,17.561001,16.667,7.5081,15.534,4.7896,2.8479,17.561001,16.667,14.778,6.6351,10.413,-3.6651,20.290001,6.8277,2.7432,6.7937,0.98522,-4.9123
-5.8136,13.525,1.9512,8.7805,6.8627,1.6828,4.8544,1.877,2.8479,8.7805,6.8627,3.9409,6.6351,10.413,2.0221,17.391001,10.692,5.614,2.9841,4.9261,-4.9123
-1.0742,-0.82935,-0.97561,-0.97561,-1.9608,-1.2298,-9.7087,2.8479,-4.9191,-0.97561,-1.9608,-10.837,0.94787,5.6508,7.7093,10.628,12.625,18.054001,-2.7302,-0.98522,-8.74
3.6651,-12.313,-6.8293,-4.878,-7.8431,0.71197,-19.417,10.615,-11.715,-4.878,-7.8431,-18.719,-2.8436,0.88889,8.6572,1.9324,7.7939,20.924999,-9.3968,-3.9409,-14.482
6.5087,-19.968,-11.707,-2.9268,-6.8627,-1.2298,-22.33,19.353001,-14.628,-2.9268,-6.8627,-19.704,-4.7393,-4.8254,7.7093,-6.7633,0.06441,26.667,-14.159,1.9704,-15.439
2.7172,-27.624001,-21.462999,-2.9268,-10.784,-8.0259,-27.184,21.294001,-16.57,-2.9268,-10.784,-24.631001,-1.8957,-5.7778,3.9179,-12.56,-9.5974,19.011,-16.063,10.837,-12.568
-3.9179,-32.408001,-30.243999,-1.9512,-11.765,-13.851,-31.068001,14.498,-24.337,-1.9512,-11.765,-28.570999,0.94787,-5.7778,-1.7694,-17.391001,-17.327,13.27,-19.872999,18.719,-6.8262
-7.7093,-31.451,-29.268,-1.9512,-5.8824,-12.88,-25.243,8.6731,-17.540001,-1.9512,-5.8824,-24.631001,-3.7915,-10.54,-8.4044,-23.188,-22.158001,18.054001,-20.825001,16.749001,-4.9123
-6.7615,-26.667,-20.488001,-3.9024,-6.8627,-8.9968,-20.388,5.7605,-9.7735,-3.9024,-6.8627,-18.719,-8.5308,-17.205999,-11.248,-25.121,-22.158001,17.097,-9.3968,12.808,-6.8262
-7.7093,-18.054001,-12.683,-0.97561,-4.902,-8.0259,-13.592,3.8188,-8.8026,-0.97561,-4.902,-11.823,-18.009001,-24.825001,-17.882999,-26.087,-24.09,4.6571,-2.7302,1.9704,-6.8262
-11.501,-7.5279,-6.8293,-0.97561,-2.9412,-3.1715,-5.8252,0.90615,-5.89,-0.97561,-2.9412,-4.9261,-24.645,-25.778,-25.466,-23.188,-24.09,-2.0415,-1.7778,-8.867,-6.8262
-12.449,-2.7432,-3.9024,-1.9512,0.98039,1.6828,-1.9417,-5.89,-5.89,-1.9512,0.98039,-3.9409,-21.801001,-18.159,-24.518,-17.391001,-18.292999,-4.9123,2.0317,-13.793,-5.8692
-12.449,-2.7432,-3.9024,-6.8293,-1.9608,-4.1424,-0.97087,-12.686,-3.9482,-6.8293,-1.9608,-4.9261,-15.166,-11.492,-19.778999,-12.56,-9.5974,-12.568,-0.8254,-11.823,-6.8262
-11.501,-4.6571,-2.9268,-7.8049,0.0,-9.9676,0.97087,-18.511,-2.0065,-7.8049,0.0,-4.9261,-9.4787,-8.6349,-14.092,-10.628,-4.7665,-17.351999,1.0794,-19.704,-8.74
-7.7093,-2.7432,0.97561,-4.878,1.9608,-10.939,2.9126,-20.452999,0.90615,-4.878,1.9608,-1.9704,0.94787,0.88889,-3.6651,-3.8647,2.963,-19.266001,-1.7778,-23.645,-4.9123
5.5608,6.8262,13.659,2.9268,11.765,-2.2006,6.7961,-17.540001,7.7023,2.9268,11.765,5.9113,16.114,11.365,13.397,7.7295,16.49,-12.568,2.9841,-13.793,1.7863
22.622,14.482,26.341,11.707,17.646999,11.392,11.65,-5.89,14.498,11.707,17.646999,14.778,28.436001,18.983999,32.354,20.290001,30.016001,2.7432,8.6984,0.0,2.7432
33.997002,19.266001,33.171001,19.511999,22.549,17.216999,19.417,3.8188,15.469,19.511999,22.549,20.690001,30.332001,19.937,44.675999,24.155001,34.847,15.183,9.6508,10.837,2.7432
30.205,25.965,29.268,18.537001,19.608,11.392,22.33,0.90615,17.410999,18.537001,19.608,18.719,22.749001,15.175,42.779999,27.052999,31.948,20.924999,8.6984,15.764,6.571
15.987,28.836,15.61,13.659,18.627001,5.5663,20.388,-1.0356,15.469,13.659,18.627001,10.837,13.27,9.4603,29.51,26.087,24.219,11.356,2.9841,16.749001,9.4418
3.6651,20.223,4.878,10.732,13.725,-2.2006,11.65,0.90615,10.615,10.732,13.725,1.9704,0.0,1.8413,14.344,17.391001,12.625,-3.9553,2.9841,12.808,6.571
-6.7615,7.7831,0.97561,7.8049,10.784,-9.9676,4.8544,-0.06472,6.7314,7.8049,10.784,-2.9557,-8.5308,-1.9683,-0.82148,6.7633,1.9968,-2.9984,9.6508,5.9113,8.4848
-17.188,-4.6571,-2.9268,3.9024,9.8039,-13.851,-2.9126,-5.89,8.6731,3.9024,9.8039,-7.8818,-12.322,-2.9206,-17.882999,-3.8647,-8.6312,-7.7831,10.603,-1.9704,10.399
-27.615,-14.226,-5.8537,-0.97561,6.8627,-21.618,-9.7087,-14.628,6.7314,-0.97561,6.8627,-11.823,-10.427,-0.06349,-29.257999,-8.6957,-15.395,-26.922001,10.603,-4.9261,12.313
-31.406,-13.27,-13.659,0.97561,8.8235,-22.589001,-8.7379,-12.686,3.8188,0.97561,8.8235,-12.808,-1.8957,4.6984,-33.049,-8.6957,-16.361,-25.007999,7.746,-1.9704,17.097
-30.458,-9.4418,-24.389999,0.97561,9.8039,-20.646999,-5.8252,-13.657,6.7314,0.97561,9.8039,-12.808,4.7393,4.6984,-32.101002,-7.7295,-17.327,-35.534,4.8889,-5.9113,12.313
-19.084,2.0415,-16.584999,5.8537,14.706,-11.909,0.97087,-11.715,6.7314,5.8537,14.706,-7.8818,10.427,5.6508,-17.882999,0.96618,-4.7665,-23.094,3.9365,-4.9261,9.4418
-0.12638,12.568,4.878,12.683,17.646999,-2.2006,8.7379,-7.8317,12.557,12.683,17.646999,0.98522,13.27,9.4603,5.8136,11.594,13.591,-7.7831,5.8413,1.9704,10.399
15.039,8.74,20.488001,14.634,21.569,3.6246,13.592,-7.8317,13.528,14.634,21.569,10.837,12.322,8.5079,20.979,10.628,22.287001,-10.654,4.8889,3.9409,7.5279
27.362,7.7831,32.195,21.462999,28.431,16.246,23.301001,-0.06472,22.264999,21.462999,28.431,23.645,13.27,9.4603,31.406,9.6618,24.219,-2.9984,2.9841,7.8818,1.7863
