C3,C4,Cz,F1,F2,F3,F4,F7,F8,Fp1,Fp2,Fz,O1,O2,P3,P4,Pz,T3,T4,T5,T6
-1.9589,-9.4603,-4.813,-0.97561,-7.8818,-3.122,-13.527,5.7605,-3.9675,-0.97561,-7.8818,-12.808,-7.619,0.88889,3.873,0.0,4.8953,8.5668,0.12638,-4.9261,-3.0128
-0.06319,-8.5079,-4.813,4.878,-9.8522,-2.1463,-15.459,-2.0065,-4.9431,4.878,-9.8522,-13.793,-3.8095,4.6984,5.7778,0.96154,5.8615,6.6345,-5.5608,-0.98522,-1.0897
-1.9589,-6.6032,-4.813,-1.9512,-4.9261,-9.9512,-15.459,1.877,-6.8943,-1.9512,-4.9261,-15.764,0.0,10.413,7.6825,3.8462,7.7939,5.6683,-7.4566,-0.98522,4.6795
-7.6461,-8.5079,-6.7642,-10.732,-15.764,-19.707001,-20.290001,-1.0356,-4.9431,-10.732,-15.764,-21.674999,-2.8571,11.365,4.8254,4.8077,5.8615,-9.7907,-6.5087,-3.9409,5.641
-5.7504,0.06349,-0.91057,-9.7561,-15.764,-17.756001,-10.628,-7.8317,-3.9675,-9.7561,-15.764,-15.764,3.8095,15.175,8.6349,12.5,11.659,-4.9597,-19.778999,2.9557,10.449
-2.9068,5.7778,5.9187,-12.683,-6.8966,-13.854,-1.9324,-12.686,-2.9919,-12.683,-6.8966,-9.8522,7.619,18.032,12.444,18.268999,18.422001,1.8035,-2.7172,7.8818,10.449
-3.8547,4.8254,8.8455,-15.61,-0.98522,-14.829,0.0,-11.715,-2.0163,-15.61,-0.98522,-5.9113,5.7143,17.079,13.397,17.308001,19.388,-1.095,8.6572,0.98522,7.5641
0.88468,12.444,16.65,-8.7805,5.9113,-8.9756,7.7295,-6.8608,2.8618,-8.7805,5.9113,5.9113,9.5238,17.079,15.302,20.191999,22.287001,-1.095,7.7093,-1.9704,10.449
9.4155,18.159,22.504,8.7805,16.749001,4.6829,18.357,-1.0356,10.667,8.7805,16.749001,18.719,13.333,18.032,18.159,20.191999,23.253,7.6006,2.0221,4.9261,12.372
10.363,18.159,22.504,17.561001,20.690001,14.439,27.052999,0.90615,10.667,17.561001,20.690001,25.615999,10.476,12.317,16.254,15.385,17.455999,10.499,1.0742,7.8818,7.5641
13.207,12.444,19.577,14.634,16.749001,12.488,29.952,13.528,10.667,14.634,16.749001,26.601,1.9048,-0.06349,9.5873,5.7692,7.7939,1.8035,5.8136,0.98522,-3.0128
14.155,11.492,18.601999,16.584999,21.674999,14.439,34.783001,21.294001,12.618,16.584999,21.674999,30.542,-3.8095,-12.444,3.873,-1.9231,-0.90177,12.432,-4.613,-1.9704,-12.628
15.103,13.397,16.65,15.61,27.586,22.243999,37.681,23.236,11.642,15.61,27.586,33.498001,-6.6667,-20.063,1.9683,-5.7692,-6.6989,16.296,-1.7694,-1.9704,-13.59
11.311,5.7778,7.8699,13.659,25.615999,26.146,24.155001,17.410999,11.642,13.659,25.615999,27.586,-11.429,-28.635,-2.7937,-12.5,-14.428,12.432,4.8657,-3.9409,-15.513
5.624,-3.746,-1.8862,12.683,22.66,16.389999,14.493,12.557,9.6911,12.683,22.66,18.719,-20.0,-37.206001,-10.413,-21.153999,-23.124001,5.6683,5.8136,-7.8818,-23.205
4.6761,-2.7937,-4.813,13.659,16.749001,14.439,10.628,12.557,8.7154,13.659,16.749001,14.778,-19.048,-36.254002,-10.413,-21.153999,-23.124001,8.5668,0.12638,-5.9113,-25.128
6.5719,-3.746,-7.7398,3.9024,6.8966,13.463,1.9324,11.586,5.7886,3.9024,6.8966,9.8522,-16.190001,-32.444,-6.6032,-18.268999,-21.191999,8.5668,4.8657,-2.9557,-19.358999
4.6761,-10.413,-11.642,7.8049,3.9409,11.512,-4.8309,9.644,1.8862,7.8049,3.9409,2.9557,-17.143,-29.587,-5.6508,-17.308001,-20.225,-0.12882,9.6051,-5.9113,-16.474001
6.5719,-4.6984,-7.7398,11.707,1.9704,11.512,-2.8986,6.7314,1.8862,11.707,1.9704,1.9704,-7.619,-16.254,2.9206,-8.6538,-10.564,13.398,-5.5608,-0.98522,-4.9359
11.311,-0.88889,-2.8618,8.7805,-1.9704,12.488,-2.8986,10.615,-0.06504,8.7805,-1.9704,1.9704,4.7619,-6.7302,11.492,-1.9231,-0.90177,15.33,-1.7694,9.8522,-3.0128
16.997999,0.06349,2.0163,10.732,0.0,12.488,-5.7971,18.382,0.91057,10.732,0.0,1.9704,15.238,5.6508,21.968,4.8077,8.7601,21.127001,9.6051,22.66,2.7564
16.997999,-0.88889,2.9919,5.8537,-0.98522,10.537,-7.7295,16.440001,-2.9919,5.8537,-0.98522,-0.98522,20.952,13.27,25.778,9.6154,14.557,23.059999,8.6572,28.570999,11.41
12.259,-4.6984,0.06504,-4.878,-5.9113,3.7073,-15.459,1.877,-9.8211,-4.878,-5.9113,-7.8818,19.048,16.127001,23.872999,8.6538,13.591,12.432,2.0221,24.631001,12.372
10.363,-4.6984,2.0163,-7.8049,-10.837,-0.19512,-12.56,0.90615,-11.772,-7.8049,-10.837,-8.867,20.952,19.937,24.825001,12.5,18.422001,12.432,-2.7172,22.66,15.256
10.363,-5.6508,2.9919,-3.9024,-19.704,-3.122,-18.357,2.8479,-11.772,-3.9024,-19.704,-11.823,21.905001,21.841,24.825001,11.538,19.388,7.6006,-4.613,21.674999,14.295
15.103,-2.7937,8.8455,2.9268,-10.837,4.6829,-15.459,-1.0356,-10.797,2.9268,-10.837,-6.8966,22.857,19.937,28.635,12.5,21.32,15.33,-12.196,23.645,12.372
12.259,-3.746,8.8455,1.9512,-10.837,4.6829,-12.56,11.586,-8.8455,1.9512,-10.837,-4.9261,21.905001,17.079,28.635,10.577,21.32,24.025999,-15.987,24.631001,12.372
5.624,-9.4603,2.0163,0.97561,-15.764,-3.122,-9.6618,13.528,-10.797,0.97561,-15.764,-7.8818,15.238,9.4603,20.063,0.96154,13.591,13.398,-1.7694,16.749001,2.7564
3.7283,-15.175,-2.8618,1.9512,-8.867,1.7561,-11.594,6.7314,-11.772,1.9512,-8.867,-6.8966,6.6667,0.88889,11.492,-7.6923,4.8953,9.533,-1.7694,9.8522,-7.8205
0.88468,-15.175,-2.8618,-1.9512,-5.9113,1.7561,-11.594,8.6731,-4.9431,-1.9512,-5.9113,-5.9113,1.9048,-2.9206,5.7778,-8.6538,1.0306,10.499,-2.7172,3.9409,-8.7821
0.88468,-8.5079,-0.91057,-1.9512,-4.9261,3.7073,-2.8986,4.7896,-0.06504,-1.9512,-4.9261,-1.9704,0.95238,-8.6349,1.9683,-7.6923,-0.90177,6.6345,-1.7694,-0.98522,-9.7436
-1.9589,1.0159,0.06504,-2.9268,-6.8966,2.7317,3.8647,1.877,0.91057,-2.9268,-6.8966,0.98522,-2.8571,-16.254,-2.7937,-6.7308,-4.7665,-7.8583,-7.4566,-4.9261,-12.628
-7.6461,1.9683,-3.8374,2.9268,-8.867,-3.122,1.9324,-6.8608,1.8862,2.9268,-8.867,-0.98522,-11.429,-24.825001,-12.317,-8.6538,-12.496,-13.655,-5.5608,-12.808,-13.59
-9.5419,1.9683,-7.7398,1.9512,-3.9409,-4.0976,-1.9324,-8.8026,4.813,1.9512,-3.9409,-4.9261,-13.333,-26.73,-16.127001,-9.6154,-17.327,-5.9259,3.9179,-13.793,-11.667
-15.229,-2.7937,-14.569,-8.7805,-5.9113,-14.829,-7.7295,-4.9191,-0.06504,-8.7805,-5.9113,-12.808,-15.238,-25.778,-19.937,-12.5,-22.158001,-7.8583,7.7093,-11.823,-16.474001
-16.177,-5.6508,-17.496,-12.683,-2.9557,-13.854,-5.7971,-6.8608,-2.0163,-12.683,-2.9557,-14.778,-14.286,-21.016001,-20.889,-13.462,-23.124001,-5.9259,4.8657,-9.8522,-16.474001
-15.229,-2.7937,-18.472,-11.707,-5.9113,-13.854,-2.8986,-7.8317,-8.8455,-11.707,-5.9113,-13.793,-14.286,-13.397,-19.937,-9.6154,-21.191999,-7.8583,-5.5608,-10.837,-7.8205
-13.333,0.06349,-15.545,-12.683,-9.8522,-13.854,-4.8309,-8.8026,-3.9675,-12.683,-9.8522,-11.823,-10.476,-3.873,-17.079,-4.8077,-15.395,-10.757,0.12638,-10.837,-1.0897
-10.49,2.9206,-9.6911,-8.7805,-5.9113,-8.0,-1.9324,-16.57,0.91057,-8.7805,-5.9113,-4.9261,-4.7619,4.6984,-14.222,0.0,-9.5974,-12.689,2.97,-8.867,5.641
-17.125,1.0159,-11.642,-6.8293,-10.837,-12.878,-1.9324,-15.599,-5.9187,-6.8293,-10.837,-6.8966,-6.6667,4.6984,-18.032,-3.8462,-11.53,-27.181999,-1.7694,-11.823,2.7564
-19.968,0.06349,-11.642,-1.9512,-4.9261,-17.756001,-0.96618,-12.686,-7.8699,-1.9512,-4.9261,-5.9113,-3.8095,9.4603,-18.983999,-4.8077,-11.53,-17.52,-8.4044,-15.764,5.641
-23.76,-9.4603,-17.496,-4.878,-2.9557,-19.707001,-4.8309,-14.628,-7.8699,-4.878,-2.9557,-6.8966,-3.8095,11.365,-22.794001,-10.577,-14.428,-19.452,-10.3,-19.704,3.7179
-21.864,-17.079,-19.447001,-5.8537,-0.98522,-13.854,-8.6957,-11.715,-4.9431,-5.8537,-0.98522,-6.8966,-2.8571,9.4603,-23.746,-13.462,-15.395,-20.419001,-8.4044,-15.764,0.83333
-13.333,-19.937,-16.52,0.0,5.9113,-8.0,-10.628,-3.9482,-1.0407,0.0,5.9113,-3.9409,-0.95238,9.4603,-18.032,-12.5,-11.53,-5.9259,-7.4566,-7.8818,3.7179
-10.49,-19.937,-15.545,0.97561,3.9409,-4.0976,-11.594,-5.89,-1.0407,0.97561,3.9409,-2.9557,-0.95238,4.6984,-16.127001,-12.5,-10.564,-6.8921,1.0742,-5.9113,-0.12821
-8.594,-14.222,-13.593,0.97561,1.9704,-3.122,-4.8309,-2.9773,-2.0163,0.97561,1.9704,-1.9704,1.9048,1.8413,-11.365,-10.577,-8.6312,-2.0612,2.0221,-2.9557,-5.8974
-3.8547,-9.4603,-8.7154,0.97561,3.9409,0.78049,0.0,4.7896,3.8374,0.97561,3.9409,0.98522,5.7143,2.7937,-5.6508,-5.7692,-3.8003,-9.7907,-1.7694,0.98522,-5.8974
-1.9589,-3.746,-3.8374,8.7805,10.837,2.7317,0.0,5.7605,6.7642,8.7805,10.837,1.9704,6.6667,0.88889,-1.8413,-0.96154,-0.90177,2.7697,-9.3523,4.9261,-5.8974
1.8325,1.9683,1.0407,16.584999,12.808,11.512,3.8647,0.90615,7.7398,16.584999,12.808,5.9113,8.5714,0.88889,1.0159,2.8846,1.9968,19.195,3.9179,8.867,-4.9359
2.7804,4.8254,0.06504,12.683,11.823,7.6098,4.8309,7.7023,6.7642,12.683,11.823,4.9261,6.6667,0.88889,0.06349,4.8077,2.963,10.499,12.449,8.867,-2.0513
-1.0111,4.8254,-1.8862,6.8293,1.9704,-2.1463,1.9324,14.498,9.6911,6.8293,1.9704,-0.98522,6.6667,0.88889,-0.88889,5.7692,1.0306,7.6006,15.292,10.837,-0.12821
5.624,7.6825,1.0407,3.9024,0.0,1.7561,2.8986,15.469,11.642,3.9024,0.0,0.0,8.5714,3.746,1.9683,9.6154,2.963,20.160999,-0.82148,6.8966,6.6026
7.5197,8.6349,0.06504,0.0,3.9409,3.7073,-0.96618,11.586,5.7886,0.0,3.9409,-2.9557,6.6667,1.8413,1.9683,8.6538,1.9968,12.432,2.97,3.9409,2.7564
3.7283,3.873,-3.8374,-2.9268,-0.98522,0.78049,-2.8986,8.6731,0.91057,-2.9268,-0.98522,-7.8818,2.8571,-1.0159,-0.88889,4.8077,-1.868,2.7697,8.6572,4.9261,-0.12821
-1.0111,0.06349,-8.7154,-5.8537,-4.9261,2.7317,-7.7295,8.6731,-1.0407,-5.8537,-4.9261,-11.823,1.9048,-1.9683,-4.6984,1.9231,-5.7327,12.432,1.0742,7.8818,1.7949
-5.7504,-4.6984,-13.593,-1.9512,-15.764,-3.122,-15.459,2.8479,-4.9431,-1.9512,-15.764,-16.749001,-2.8571,-5.7778,-10.413,-2.8846,-11.53,9.533,2.97,3.9409,2.7564
-9.5419,-2.7937,-11.642,0.0,-15.764,-8.0,-18.357,-2.0065,-6.8943,0.0,-15.764,-17.733999,-7.619,-6.7302,-12.317,-2.8846,-13.462,2.7697,-6.5087,-3.9409,3.7179
-12.385,2.9206,-6.7642,-10.732,-15.764,-18.732,-14.493,-3.9482,-6.8943,-10.732,-15.764,-17.733999,-9.5238,-2.9206,-13.27,-0.96154,-12.496,-2.0612,2.0221,-3.9409,7.5641
-12.385,3.873,-5.7886,-17.561001,-11.823,-16.780001,-7.7295,-8.8026,-5.9187,-17.561001,-11.823,-13.793,-10.476,4.6984,-16.127001,-0.96154,-13.462,-12.689,4.8657,-8.867,15.256
-14.281,1.0159,-4.813,-15.61,-9.8522,-10.927,0.0,-10.744,-3.9675,-15.61,-9.8522,-10.837,-9.5238,11.365,-18.032,-2.8846,-13.462,-12.689,6.7615,-11.823,10.449
-12.385,-1.8413,-5.7886,-16.584999,-11.823,-10.927,-4.8309,-6.8608,-2.0163,-16.584999,-11.823,-9.8522,-10.476,12.317,-18.983999,-6.7308,-14.428,-21.385,-9.3523,-11.823,2.7564
-10.49,-5.6508,-4.813,-20.488001,-8.867,-7.0244,-8.6957,-6.8608,-2.9919,-20.488001,-8.867,-7.8818,-11.429,13.27,-18.983999,-6.7308,-14.428,-17.52,-9.3523,-11.823,3.7179
-6.6983,-6.6032,-2.8618,-13.659,-13.793,-2.1463,-5.7971,-16.57,-5.9187,-13.659,-13.793,-4.9261,-10.476,16.127001,-18.032,-5.7692,-13.462,-13.655,3.9179,-12.808,7.5641
-4.8025,-3.746,-1.8862,-6.8293,-8.867,-3.122,-1.9324,-8.8026,-2.9919,-6.8293,-8.867,0.0,-7.619,18.032,-15.175,-0.96154,-9.5974,-7.8583,-1.7694,-11.823,10.449
-3.8547,1.9683,1.0407,-4.878,-4.9261,-4.0976,1.9324,2.8479,-0.06504,-4.878,-4.9261,2.9557,-4.7619,16.127001,-11.365,2.8846,-7.6651,-5.9259,-1.7694,-8.867,11.41
-0.06319,4.8254,2.9919,-2.9268,-0.98522,0.78049,5.7971,1.877,-1.0407,-2.9268,-0.98522,4.9261,-2.8571,12.317,-6.6032,3.8462,-5.7327,-2.0612,-4.613,-6.8966,9.4872
3.7283,12.444,4.9431,0.0,1.9704,1.7561,7.7295,-0.06472,-4.9431,0.0,1.9704,5.9113,0.95238,13.27,0.06349,8.6538,-0.90177,-1.095,-5.5608,1.9704,12.372
8.4676,13.397,6.8943,1.9512,0.98522,6.6341,4.8309,0.90615,-1.0407,1.9512,0.98522,7.8818,8.5714,13.27,8.6349,13.462,6.8277,6.6345,1.0742,11.823,17.179001
8.4676,7.6825,4.9431,-1.9512,-6.8966,5.6585,3.8647,-2.9773,-3.9675,-1.9512,-6.8966,5.9113,10.476,8.5079,12.444,11.538,9.7262,0.83736,14.344,11.823,11.41
3.7283,1.9683,2.0163,-10.732,-15.764,0.78049,2.8986,-4.9191,-5.9187,-10.732,-15.764,1.9704,12.381,4.6984,12.444,8.6538,10.692,7.6006,17.188,12.808,4.6795
8.4676,4.8254,5.9187,-9.7561,-3.9409,8.5854,1.9324,-12.686,-2.0163,-9.7561,-3.9409,3.9409,19.048,9.4603,19.111,14.423,18.422001,14.364,13.397,16.749001,10.449
12.259,7.6825,8.8455,-4.878,0.98522,1.7561,1.9324,-10.744,2.8618,-4.878,0.98522,2.9557,25.714001,8.5079,25.778,17.308001,25.184999,7.6006,10.553,21.674999,10.449
14.155,11.492,11.772,1.9512,3.9409,-3.122,1.9324,-9.7735,5.7886,1.9512,3.9409,3.9409,26.667,5.6508,29.587,19.231001,29.049999,1.8035,0.12638,19.704,9.4872
16.997999,16.254,16.65,4.878,11.823,3.7073,2.8986,-14.628,6.7642,4.878,11.823,7.8818,31.429001,7.5556,34.348999,21.153999,33.881001,-2.0612,10.553,22.66,8.5256
17.945999,13.397,18.601999,1.9512,10.837,7.6098,11.594,-8.8026,9.6911,1.9512,10.837,10.837,33.333,4.6984,35.301998,18.268999,34.847,4.7021,9.6051,27.586,6.6026
13.207,5.7778,11.772,-0.97561,7.8818,6.6341,8.6957,-7.8317,5.7886,-0.97561,7.8818,4.9261,27.618999,1.8413,29.587,10.577,27.118,-0.12882,2.97,22.66,3.7179
9.4155,1.9683,8.8455,2.9268,4.9261,2.7317,3.8647,-2.9773,1.8862,2.9268,4.9261,1.9704,25.714001,6.6032,24.825001,6.7308,22.287001,-4.9597,4.8657,15.764,6.6026
3.7283,-3.746,4.9431,0.0,-0.98522,-3.122,4.8309,0.90615,-2.0163,0.0,-0.98522,-0.98522,16.190001,6.6032,15.302,0.0,14.557,0.83736,1.0742,3.9409,0.83333
-1.0111,-7.5556,-0.91057,0.0,0.0,-6.0488,-4.8309,-1.0356,-4.9431,0.0,0.0,-6.8966,8.5714,6.6032,7.6825,-6.7308,6.8277,0.83736,-3.6651,0.98522,-2.0513
-2.9068,-5.6508,-2.8618,4.878,-5.9113,2.7317,-6.7633,-4.9191,-2.0163,4.878,-5.9113,-6.8966,5.7143,9.4603,2.9206,-6.7308,1.9968,-3.9936,-1.7694,-2.9557,1.7949
-8.594,-3.746,-4.813,9.7561,-2.9557,-4.0976,-5.7971,-2.9773,-0.06504,9.7561,-2.9557,-7.8818,-1.9048,8.5079,-2.7937,-7.6923,-2.8341,-2.0612,2.0221,-9.8522,2.7564
-9.5419,-4.6984,-4.813,7.8049,6.8966,-11.902,-6.7633,1.877,-1.0407,7.8049,6.8966,-6.8966,-4.7619,6.6032,-4.6984,-7.6923,-4.7665,-7.8583,-2.7172,-10.837,2.7564
-4.8025,0.06349,1.0407,3.9024,5.9113,-4.0976,2.8986,2.8479,-0.06504,3.9024,5.9113,0.0,-2.8571,6.6032,-2.7937,-3.8462,-1.868,-14.622,-8.4044,-9.8522,4.6795
-3.8547,4.8254,2.9919,0.0,2.9557,-1.1707,6.7633,4.7896,-0.06504,0.0,2.9557,3.9409,-5.7143,1.8413,-3.746,-1.9231,-2.8341,-5.9259,2.97,-8.867,0.83333
-5.7504,1.9683,2.0163,1.9512,0.98522,0.78049,2.8986,-0.06472,4.813,1.9512,0.98522,3.9409,-10.476,-3.873,-5.6508,-3.8462,-6.6989,1.8035,18.136,-8.867,-3.0128
2.7804,5.7778,7.8699,9.7561,6.8966,5.6585,11.594,3.8188,7.7398,9.7561,6.8966,10.837,-11.429,-5.7778,-2.7937,-1.9231,-5.7327,0.83736,14.344,-3.9409,-0.12821
8.4676,7.6825,12.748,14.634,14.778,18.341,16.424999,2.8479,9.6911,14.634,14.778,18.719,-11.429,-11.492,-0.88889,-0.96154,-5.7327,5.6683,8.6572,0.0,-3.0128
7.5197,6.7302,11.772,20.488001,12.808,16.389999,16.424999,12.557,11.642,20.488001,12.808,19.704,-13.333,-18.159,-2.7937,-2.8846,-7.6651,6.6345,-3.6651,0.98522,-7.8205
11.311,11.492,13.724,22.438999,21.674999,18.341,15.459,16.440001,12.618,22.438999,21.674999,22.66,-15.238,-22.921,-0.88889,-1.9231,-7.6651,5.6683,1.0742,-2.9557,-11.667
16.051001,10.54,16.65,18.537001,25.615999,24.195,22.222,15.469,14.569,18.537001,25.615999,27.586,-16.190001,-24.825001,-0.88889,-3.8462,-8.6312,-1.095,5.8136,-4.9261,-13.59
17.945999,9.5873,16.65,20.488001,23.645,24.195,27.052999,15.469,15.545,20.488001,23.645,28.570999,-15.238,-27.683001,-1.8413,-7.6923,-10.564,6.6345,4.8657,0.0,-18.396999
13.207,7.6825,12.748,16.584999,22.66,22.243999,20.290001,10.615,15.545,16.584999,22.66,25.615999,-18.094999,-29.587,-6.6032,-11.538,-14.428,11.465,2.0221,-2.9557,-20.320999
8.4676,6.7302,9.8211,12.683,16.749001,21.268,21.256001,5.7605,13.593,12.683,16.749001,22.66,-19.048,-25.778,-9.4603,-14.423,-15.395,1.8035,2.0221,-9.8522,-19.358999
7.5197,6.7302,8.8455,10.732,17.733999,19.316999,26.087,6.7314,12.618,10.732,17.733999,22.66,-19.048,-24.825001,-10.413,-15.385,-14.428,-0.12882,-2.7172,-10.837,-19.358999
5.624,4.8254,6.8943,12.683,20.690001,15.415,18.357,4.7896,14.569,12.683,20.690001,18.719,-19.048,-21.016001,-12.317,-13.462,-13.462,-3.0274,-6.5087,-13.793,-14.551
-1.0111,-0.88889,1.0407,10.732,12.808,6.6341,6.7633,-2.9773,7.7398,10.732,12.808,8.867,-20.952,-16.254,-15.175,-13.462,-14.428,-7.8583,2.97,-19.704,-14.551
-4.8025,-5.6508,-3.8374,4.878,5.9113,-2.1463,-5.7971,1.877,4.813,4.878,5.9113,0.0,-20.952,-13.397,-15.175,-11.538,-11.53,-17.52,7.7093,-23.645,-12.628
-1.0111,-1.8413,-1.8862,1.9512,4.9261,-1.1707,-1.9324,3.8188,4.813,1.9512,4.9261,-0.98522,-16.190001,-6.7302,-9.4603,-3.8462,-4.7665,-12.689,-4.613,-21.674999,-4.9359
2.7804,-1.8413,-0.91057,-3.9024,-0.98522,1.7561,-0.96618,-1.0356,-1.0407,-3.9024,-0.98522,-2.9557,-10.476,0.88889,-2.7937,0.96154,1.0306,-2.0612,-11.248,-12.808,4.6795
4.6761,-4.6984,-0.91057,-16.584999,-15.764,0.78049,-7.7295,-2.9773,-6.8943,-16.584999,-15.764,-5.9113,-2.8571,6.6032,3.873,2.8846,5.8615,8.5668,-14.092,0.98522,5.641
-0.06319,-7.5556,-2.8618,-13.659,-14.778,-5.0732,-6.7633,-4.9191,-9.8211,-13.659,-14.778,-8.867,2.8571,9.4603,6.7302,3.8462,7.7939,7.6006,-1.7694,8.867,4.6795
-1.0111,-8.5079,-2.8618,-8.7805,-6.8966,-4.0976,-8.6957,-6.8608,-10.797,-8.7805,-6.8966,-9.8522,8.5714,11.365,9.5873,4.8077,10.692,-2.0612,5.8136,13.793,7.5641
1.8325,-4.6984,0.06504,-3.9024,-3.9409,-6.0488,-10.628,-2.0065,-3.9675,-3.9024,-3.9409,-8.867,14.286,15.175,13.397,8.6538,15.523,-0.12882,6.7615,15.764,9.4872
-4.8025,-4.6984,-2.8618,-4.878,-5.9113,-16.780001,-11.594,-1.0356,-2.9919,-4.878,-5.9113,-10.837,9.5238,10.413,7.6825,4.8077,10.692,1.8035,-5.5608,6.8966,6.6026
-2.9068,0.06349,1.0407,-5.8537,0.0,-6.0488,-4.8309,-3.9482,1.8862,-5.8537,0.0,-2.9557,9.5238,6.6032,5.7778,4.8077,9.7262,-1.095,-2.7172,9.8522,4.6795
0.88468,7.6825,5.9187,-5.8537,0.0,1.7561,6.7633,-0.06472,2.8618,-5.8537,0.0,4.9261,11.429,2.7937,7.6825,6.7308,10.692,1.8035,6.7615,13.793,1.7949
1.8325,6.7302,7.8699,-4.878,1.9704,11.512,14.493,-9.7735,4.813,-4.878,1.9704,5.9113,4.7619,-2.9206,4.8254,5.7692,8.7601,-0.12882,10.553,5.9113,-1.0897
0.88468,4.8254,5.9187,-4.878,2.9557,0.78049,8.6957,-3.9482,7.7398,-4.878,2.9557,2.9557,0.95238,-8.6349,2.9206,4.8077,6.8277,-11.723,2.97,1.9704,-2.0513
-1.0111,1.0159,2.9919,-2.9268,3.9409,-11.902,2.8986,-2.9773,7.7398,-2.9268,3.9409,0.0,0.0,-19.111,1.9683,-1.9231,1.9968,-11.723,4.8657,3.9409,-12.628
-0.06319,2.9206,2.9919,-4.878,3.9409,-7.0244,6.7633,-6.8608,6.7642,-4.878,3.9409,0.98522,-3.8095,-26.73,1.0159,-5.7692,-1.868,-9.7907,-1.7694,1.9704,-22.243999
2.7804,4.8254,5.9187,0.97561,3.9409,-1.1707,5.7971,-3.9482,2.8618,0.97561,3.9409,1.9704,-7.619,-25.778,1.0159,-6.7308,-3.8003,-2.0612,3.9179,-0.98522,-20.320999
5.624,3.873,6.8943,1.9512,3.9409,3.7073,7.7295,-0.06472,3.8374,1.9512,3.9409,5.9113,-9.5238,-21.968,-0.88889,-7.6923,-6.6989,6.6345,9.6051,-1.9704,-14.551
3.7283,4.8254,4.9431,4.878,-0.98522,4.6829,6.7633,5.7605,7.7398,4.878,-0.98522,7.8818,-11.429,-13.397,-3.746,-5.7692,-9.5974,9.533,2.97,-7.8818,-6.859
5.624,7.6825,4.9431,10.732,2.9557,5.6585,13.527,9.644,7.7398,10.732,2.9557,8.867,-10.476,-4.8254,-4.6984,-1.9231,-9.5974,7.6006,5.8136,-9.8522,2.7564
2.7804,8.6349,2.9919,6.8293,3.9409,3.7073,12.56,10.615,4.813,6.8293,3.9409,6.8966,-13.333,0.88889,-7.5556,0.0,-11.53,-2.0612,-6.5087,-16.749001,9.4872
-2.9068,1.0159,-0.91057,1.9512,-0.98522,4.6829,1.9324,5.7605,1.8862,1.9512,-0.98522,4.9261,-17.143,2.7937,-12.317,-3.8462,-15.395,1.8035,6.7615,-22.66,7.5641
-4.8025,1.0159,-2.8618,1.9512,2.9557,6.6341,0.0,8.6731,-0.06504,1.9512,2.9557,5.9113,-17.143,3.746,-13.27,-5.7692,-16.361,3.7359,19.084,-20.690001,5.641
-3.8547,3.873,-1.8862,2.9268,9.8522,-0.19512,4.8309,12.557,1.8862,2.9268,9.8522,5.9113,-15.238,4.6984,-10.413,-2.8846,-13.462,9.533,12.449,-12.808,8.5256
-2.9068,-0.88889,-4.813,6.8293,3.9409,-2.1463,0.96618,9.644,1.8862,6.8293,3.9409,1.9704,-11.429,7.5556,-6.6032,-2.8846,-11.53,16.296,4.8657,-4.9261,10.449
-1.9589,-3.746,-6.7642,10.732,0.0,-3.122,-4.8309,4.7896,-1.0407,10.732,0.0,-1.9704,-6.6667,9.4603,-4.6984,-3.8462,-10.564,12.432,-0.82148,0.0,10.449
-5.7504,-12.317,-11.642,2.9268,-1.9704,-8.0,-12.56,-2.9773,-4.9431,2.9268,-1.9704,-8.867,-4.7619,8.5079,-4.6984,-7.6923,-9.5974,9.533,-7.4566,0.98522,6.6026
-1.9589,-12.317,-7.7398,-4.878,0.0,-0.19512,-12.56,-10.744,-5.9187,-4.878,0.0,-6.8966,-0.95238,6.6032,1.9683,-3.8462,-1.868,7.6006,-11.248,6.8966,4.6795
6.5719,-4.6984,1.0407,-2.9268,2.9557,-2.1463,-8.6957,1.877,-2.9919,-2.9268,2.9557,-0.98522,7.619,11.365,13.397,4.8077,9.7262,5.6683,-2.7172,13.793,10.449
3.7283,-6.6032,2.0163,-1.9512,-0.98522,-6.0488,-7.7295,1.877,-3.9675,-1.9512,-0.98522,-0.98522,10.476,9.4603,14.349,3.8462,11.659,4.7021,5.8136,15.764,4.6795
1.8325,-6.6032,1.0407,-2.9268,-0.98522,-7.0244,-3.8647,-3.9482,-7.8699,-2.9268,-0.98522,-1.9704,7.619,0.88889,11.492,0.96154,9.7262,-3.0274,-0.82148,12.808,-5.8974
2.7804,0.06349,4.9431,-0.97561,1.9704,-4.0976,0.0,-3.9482,-3.9675,-0.97561,1.9704,0.98522,9.5238,2.7937,11.492,6.7308,13.591,3.7359,-4.613,10.837,-3.0128
1.8325,1.9683,6.8943,2.9268,-1.9704,-1.1707,2.8986,-3.9482,-1.0407,2.9268,-1.9704,2.9557,10.476,-0.06349,11.492,10.577,15.523,7.6006,-2.7172,11.823,-3.0128
3.7283,4.8254,5.9187,4.878,1.9704,2.7317,2.8986,-2.9773,-2.9919,4.878,1.9704,3.9409,8.5714,-3.873,8.6349,10.577,13.591,5.6683,1.0742,11.823,-2.0513
2.7804,5.7778,2.9919,0.97561,2.9557,-0.19512,0.0,-2.0065,-1.0407,0.97561,2.9557,0.98522,0.0,-12.444,1.0159,6.7308,5.8615,3.7359,-12.196,2.9557,-6.859
0.88468,5.7778,2.0163,-3.9024,-1.9704,2.7317,3.8647,-0.06472,3.8374,-3.9024,-1.9704,0.98522,-4.7619,-16.254,-3.746,5.7692,1.0306,-6.8921,-0.82148,-7.8818,-5.8974
-1.0111,4.8254,1.0407,-5.8537,0.98522,-1.1707,3.8647,6.7314,3.8374,-5.8537,0.98522,0.0,-2.8571,-7.6825,-5.6508,7.6923,1.0306,-6.8921,13.397,-6.8966,-2.0513
-5.7504,2.9206,-2.8618,-2.9268,0.98522,-8.0,-4.8309,3.8188,5.7886,-2.9268,0.98522,-4.9261,-0.95238,2.7937,-7.5556,8.6538,0.06441,-0.12882,4.8657,-1.9704,1.7949
-10.49,3.873,-5.7886,-1.9512,-1.9704,-12.878,-4.8309,-1.0356,5.7886,-1.9512,-1.9704,-8.867,-1.9048,9.4603,-9.4603,10.577,0.06441,4.7021,-4.613,-4.9261,9.4872
-13.333,2.9206,-9.6911,-4.878,-0.98522,-13.854,-6.7633,-2.9773,0.91057,-4.878,-0.98522,-11.823,-2.8571,15.175,-12.317,8.6538,-2.8341,-1.095,-2.7172,-10.837,12.372
-17.125,-6.6032,-16.52,-4.878,-6.8966,-18.732,-9.6618,-4.9191,-2.9919,-4.878,-6.8966,-17.733999,-4.7619,14.222,-16.127001,0.96154,-8.6312,-7.8583,-1.7694,-13.793,8.5256
-25.656,-14.222,-23.35,-8.7805,-8.867,-26.537001,-18.357,-9.7735,-7.8699,-8.7805,-8.867,-23.645,-5.7143,10.413,-19.937,-6.7308,-12.496,-16.554001,-8.4044,-12.808,3.7179
-29.447001,-18.032,-26.275999,-12.683,-13.793,-32.389999,-18.357,-8.8026,-10.797,-12.683,-13.793,-28.570999,-2.8571,10.413,-18.032,-10.577,-12.496,-17.52,-12.196,-7.8818,0.83333
-29.447001,-18.983999,-28.228001,-14.634,-12.808,-30.438999,-19.323999,-10.744,-6.8943,-14.634,-12.808,-28.570999,-1.9048,11.365,-17.079,-12.5,-12.496,-6.8921,-15.987,-8.867,3.7179
-32.291,-26.603001,-33.105999,-13.659,-8.867,-31.415001,-24.155001,-10.744,-4.9431,-13.659,-8.867,-31.527,-2.8571,9.4603,-19.937,-19.231001,-16.361,-8.8245,-14.092,-9.8522,-2.0513
-36.082001,-26.603001,-37.984001,-8.7805,-11.823,-35.317001,-23.188,-2.9773,-7.8699,-8.7805,-11.823,-30.542,-7.619,3.746,-26.603001,-25.0,-24.09,-9.7907,-8.4044,-15.764,-9.7436
-33.238998,-22.794001,-36.033001,-6.8293,-4.9261,-29.462999,-14.493,-2.0065,0.91057,-6.8293,-4.9261,-24.631001,-13.333,-0.06349,-30.413,-25.0,-29.886999,-10.757,0.12638,-22.66,-6.859
-29.447001,-20.889,-30.179001,-5.8537,4.9261,-16.780001,-8.6957,-6.8608,5.7886,-5.8537,4.9261,-15.764,-17.143,-10.54,-31.365,-24.038,-32.785999,-18.486,5.8136,-22.66,-8.7821
-19.968,-6.6032,-17.496,6.8293,12.808,-4.0976,0.0,4.7896,8.7154,6.8293,12.808,-2.9557,-17.143,-17.205999,-25.650999,-15.385,-28.921,-6.8921,0.12638,-17.733999,-9.7436
-9.5419,4.8254,-6.7642,18.537001,13.793,9.561,12.56,11.586,9.6911,18.537001,13.793,8.867,-18.094999,-21.016001,-19.937,-8.6538,-25.056,-6.8921,4.8657,-13.793,-9.7436
-5.7504,10.54,-1.8862,7.8049,5.9113,13.463,18.357,5.7605,6.7642,7.8049,5.9113,12.808,-19.048,-26.73,-16.127001,-5.7692,-23.124001,3.7359,-0.82148,-13.793,-10.705
3.7283,20.063,6.8943,8.7805,6.8966,16.389999,16.424999,11.586,5.7886,8.7805,6.8966,15.764,-16.190001,-22.921,-6.6032,4.8077,-12.496,12.432,5.8136,-8.867,-2.0513
10.363,20.063,11.772,11.707,4.9261,17.365999,9.6618,16.440001,6.7642,11.707,4.9261,14.778,-7.619,-10.54,2.9206,15.385,0.06441,9.533,7.7093,-0.98522,12.372
11.311,15.302,10.797,4.878,-2.9557,19.316999,11.594,12.557,-2.9919,4.878,-2.9557,12.808,-2.8571,-1.0159,7.6825,17.308001,6.8277,4.7021,7.7093,0.0,14.295
13.207,12.444,10.797,4.878,-1.9704,18.341,2.8986,5.7605,-6.8943,4.878,-1.9704,8.867,0.95238,7.5556,11.492,17.308001,12.625,6.6345,11.501,2.9557,12.372
15.103,10.54,12.748,5.8537,2.9557,13.463,2.8986,-2.9773,-4.9431,5.8537,2.9557,6.8966,5.7143,18.983999,17.205999,20.191999,19.388,7.6006,-0.82148,5.9113,18.141001
17.945999,8.6349,13.724,-0.97561,-2.9557,11.512,1.9324,-3.9482,-7.8699,-0.97561,-2.9557,5.9113,9.5238,25.650999,21.968,21.153999,24.219,2.7697,-10.3,8.867,18.141001
24.580999,6.7302,17.625999,1.9512,-4.9261,14.439,3.8647,0.90615,-8.8455,1.9512,-4.9261,7.8818,16.190001,29.459999,27.683001,21.153999,29.049999,10.499,-8.4044,15.764,20.063999
20.790001,-2.7937,15.675,0.0,-10.837,16.389999,1.9324,-2.9773,-11.772,0.0,-10.837,6.8966,19.048,27.556,26.73,12.5,27.118,12.432,-2.7172,20.690001,9.4872
16.051001,-7.5556,12.748,-10.732,-8.867,10.537,-3.8647,3.8188,-9.8211,-10.732,-8.867,3.9409,21.905001,26.603001,25.778,7.6923,26.150999,14.364,-4.613,18.719,2.7564
17.945999,-9.4603,11.772,-5.8537,-5.9113,4.6829,-3.8647,8.6731,-5.9187,-5.8537,-5.9113,3.9409,25.714001,28.507999,25.778,6.7308,26.150999,11.465,-13.144,15.764,4.6795
15.103,-15.175,5.9187,0.0,-9.8522,4.6829,-5.7971,1.877,-13.724,0.0,-9.8522,0.98522,25.714001,25.650999,20.063,0.0,20.354,-3.0274,-19.778999,14.778,-0.12821
11.311,-17.079,1.0407,0.0,-9.8522,8.5854,-11.594,-0.06472,-15.675,0.0,-9.8522,0.0,24.761999,18.983999,16.254,-4.8077,15.523,0.83736,-21.674999,15.764,-3.9744
10.363,-14.222,0.06504,2.9268,-1.9704,3.7073,-12.56,3.8188,-10.797,2.9268,-1.9704,0.0,23.809999,15.175,15.302,-4.8077,13.591,1.8035,-14.092,14.778,-6.859
6.5719,-11.365,-0.91057,1.9512,0.0,-0.19512,-7.7295,0.90615,-7.8699,1.9512,0.0,-1.9704,20.0,9.4603,11.492,-4.8077,9.7262,7.6006,-9.3523,10.837,-8.7821
-0.06319,-12.317,-5.7886,-7.8049,-7.8818,-4.0976,-6.7633,-6.8608,-3.9675,-7.8049,-7.8818,-6.8966,11.429,-0.06349,3.873,-7.6923,1.9968,6.6345,-7.4566,1.9704,-12.628
-4.8025,-8.5079,-7.7398,-13.659,-4.9261,-8.9756,-7.7295,-11.715,-2.0163,-13.659,-4.9261,-8.867,7.619,-3.873,-1.8413,-7.6923,-2.8341,-7.8583,-16.934999,0.0,-10.705
-5.7504,-4.6984,-7.7398,-23.415001,-6.8966,-10.927,-7.7295,-9.7735,-2.9919,-23.415001,-6.8966,-9.8522,5.7143,-10.54,-3.746,-8.6538,-5.7327,-8.8245,-2.7172,-0.98522,-13.59
-9.5419,-5.6508,-9.6911,-17.561001,-11.823,-14.829,-7.7295,-11.715,-2.9919,-17.561001,-11.823,-13.793,3.8095,-19.111,-4.6984,-12.5,-9.5974,-7.8583,10.553,0.98522,-20.320999
-13.333,-6.6032,-13.593,-12.683,-8.867,-21.659,-9.6618,-16.57,1.8862,-12.683,-8.867,-18.719,1.9048,-21.968,-7.5556,-14.423,-12.496,-12.689,4.8657,0.98522,-20.320999
-16.177,-7.5556,-18.472,-18.537001,-5.9113,-26.537001,-15.459,-25.306999,-0.06504,-18.537001,-5.9113,-23.645,3.8095,-19.111,-7.5556,-13.462,-12.496,-18.486,-10.3,5.9113,-14.551
-16.177,-6.6032,-20.423,-22.438999,-9.8522,-24.584999,-21.256001,-24.337,0.91057,-22.438999,-9.8522,-25.615999,9.5238,-11.492,-4.6984,-10.577,-8.6312,-16.554001,3.9179,10.837,-8.7821
-20.916,-12.317,-21.398001,-34.146,-15.764,-30.438999,-21.256001,-27.249001,-2.0163,-34.146,-15.764,-26.601,14.286,-5.7778,-3.746,-10.577,-7.6651,-10.757,12.449,16.749001,-3.0128
-23.76,-12.317,-18.472,-33.171001,-12.808,-28.488001,-22.222,-37.929001,-2.0163,-33.171001,-12.808,-27.586,19.048,1.8413,-1.8413,-7.6923,-3.8003,-12.689,-0.82148,17.733999,2.7564
-21.864,-11.365,-16.52,-37.073002,-14.778,-27.511999,-18.357,-32.104,-3.9675,-37.073002,-14.778,-27.586,18.094999,0.88889,-2.7937,-9.6154,-3.8003,-13.655,-2.7172,14.778,0.83333
-15.229,-13.27,-11.642,-29.268,-11.823,-27.511999,-13.527,-25.306999,-3.9675,-29.268,-11.823,-21.674999,14.286,-1.9683,-0.88889,-13.462,-4.7665,-16.554001,-6.5087,13.793,-8.7821
-2.9068,-7.5556,-1.8862,-11.707,-8.867,-15.805,-2.8986,-19.482,-1.0407,-11.707,-8.867,-9.8522,17.143,3.746,7.6825,-10.577,1.9968,-10.757,-14.092,21.674999,-7.8205
4.6761,-10.413,2.9919,-5.8537,0.98522,-7.0244,2.8986,-8.8026,0.91057,-5.8537,0.98522,-2.9557,20.0,6.6032,13.397,-10.577,3.9291,4.7021,-2.7172,23.645,-7.8205
9.4155,-16.127001,3.9675,-4.878,3.9409,3.7073,1.9324,-12.686,-3.9675,-4.878,3.9409,0.98522,14.286,1.8413,12.444,-14.423,2.963,-3.0274,-6.5087,17.733999,-12.628
18.893999,-10.413,11.772,6.8293,13.793,12.488,5.7971,1.877,3.8374,6.8293,13.793,10.837,20.0,3.746,21.016001,-8.6538,10.692,3.7359,-9.3523,21.674999,-10.705
29.320999,-2.7937,20.552999,13.659,18.719,20.292999,13.527,17.410999,8.7154,13.659,18.719,20.690001,27.618999,7.5556,30.540001,0.96154,20.354,8.5668,-2.7172,28.570999,-5.8974
30.268999,1.9683,23.48,12.683,14.778,25.171,11.594,13.528,5.7886,12.683,14.778,22.66,23.809999,7.5556,30.540001,4.8077,23.253,9.533,-3.6651,23.645,-3.0128
31.216,6.7302,25.431,14.634,13.793,29.073,12.56,13.528,7.7398,14.634,13.793,23.645,20.0,1.8413,31.492001,7.6923,24.219,15.33,-9.3523,15.764,-3.0128
37.852001,18.159,32.259998,8.7805,14.778,34.926998,23.188,15.469,6.7642,8.7805,14.778,28.570999,22.857,5.6508,34.348999,18.268999,29.049999,13.398,-1.7694,12.808,8.5256
32.164001,22.921,32.259998,12.683,6.8966,31.024,24.155001,12.557,8.7154,12.683,6.8966,26.601,17.143,6.6032,27.683001,20.191999,27.118,8.5668,18.136,7.8818,11.41
23.632999,22.921,28.358,16.584999,3.9409,22.243999,21.256001,2.8479,7.7398,16.584999,3.9409,22.66,11.429,8.5079,19.111,21.153999,22.287001,2.7697,23.823,1.9704,14.295
19.841999,24.825001,28.358,11.707,4.9261,19.316999,23.188,3.8188,4.813,11.707,4.9261,19.704,11.429,14.222,17.205999,26.923,23.253,0.83736,20.032,1.9704,22.948999
19.841999,27.683001,29.333,12.683,8.867,18.341,19.323999,3.8188,4.813,12.683,8.867,18.719,10.476,22.794001,15.302,30.768999,24.219,-8.8245,20.032,-1.9704,31.603001
15.103,26.73,27.382,1.9512,-4.9261,15.415,12.56,-2.9773,-5.9187,1.9512,-4.9261,13.793,9.5238,26.603001,12.444,33.653999,24.219,-13.655,9.6051,-6.8966,36.41
7.5197,24.825001,21.528,3.9024,-4.9261,9.561,0.96618,-5.89,-5.9187,3.9024,-4.9261,7.8818,3.8095,23.746,3.873,31.731001,18.422001,-10.757,16.24,-12.808,36.41
2.7804,19.111,15.675,5.8537,0.98522,0.78049,-0.96618,-3.9482,3.8374,5.8537,0.98522,0.98522,-0.95238,20.889,-0.88889,26.923,13.591,-13.655,22.875,-15.764,29.679001
-0.06319,14.349,12.748,-0.97561,-8.867,-6.0488,-1.9324,-2.0065,5.7886,-0.97561,-8.867,-3.9409,0.0,22.794001,-0.88889,24.038,13.591,-14.622,20.032,-16.749001,27.756001
-3.8547,8.6349,5.9187,-4.878,-10.837,-3.122,-8.6957,-2.0065,-0.06504,-4.878,-10.837,-9.8522,-1.9048,21.841,-3.746,20.191999,10.692,-11.723,11.501,-17.733999,26.795
-12.385,1.9683,-4.813,-6.8293,-22.66,-8.9756,-19.323999,-7.8317,-11.772,-6.8293,-22.66,-20.690001,-6.6667,15.175,-9.4603,12.5,4.8953,-14.622,3.9179,-19.704,20.063999
-19.968,-1.8413,-12.618,0.97561,-28.570999,-17.756001,-30.917999,-13.657,-21.528,0.97561,-28.570999,-30.542,-9.5238,9.4603,-14.222,6.7308,0.06441,-16.554001,0.12638,-20.690001,13.333
-28.499001,-11.365,-21.398001,-2.9268,-33.498001,-25.561001,-38.646999,-13.657,-27.382,-2.9268,-33.498001,-38.424,-11.429,2.7937,-19.937,-2.8846,-6.6989,-30.080999,-15.987,-22.66,4.6795
-28.499001,-15.175,-22.374001,-8.7805,-38.424,-26.537001,-37.681,-12.686,-27.382,-8.7805,-38.424,-38.424,-8.5714,-1.0159,-20.889,-7.6923,-9.5974,-17.52,-20.726999,-13.793,3.7179
-25.656,-17.079,-23.35,-11.707,-31.527,-25.561001,-37.681,-8.8026,-19.577,-11.707,-31.527,-36.452999,-5.7143,-6.7302,-20.889,-11.538,-10.564,-3.0274,-13.144,-12.808,-6.859
-23.76,-15.175,-22.374001,-14.634,-25.615999,-22.634001,-32.849998,-5.89,-16.65,-14.634,-25.615999,-34.483002,-4.7619,-6.7302,-20.889,-7.6923,-6.6989,-8.8245,-2.7172,-12.808,-11.667
-22.812,-12.317,-19.447001,-16.584999,-21.674999,-24.584999,-26.087,-2.0065,-8.8455,-16.584999,-21.674999,-32.512001,-0.95238,2.7937,-18.032,0.0,0.06441,-7.8583,-0.82148,-6.8966,-3.9744
-20.916,-5.6508,-14.569,-18.537001,-20.690001,-20.683001,-21.256001,-4.9191,-7.8699,-18.537001,-20.690001,-26.601,0.0,6.6032,-15.175,6.7308,4.8953,-2.0612,-9.3523,-3.9409,-0.12821
-15.229,0.06349,-8.7154,-9.7561,-19.704,-11.902,-14.493,-2.0065,-6.8943,-9.7561,-19.704,-19.704,0.0,11.365,-11.365,12.5,8.7601,-3.9936,-12.196,-0.98522,3.7179
-9.5419,6.7302,-3.8374,-3.9024,-8.867,-7.0244,-3.8647,-0.06472,-3.9675,-3.9024,-8.867,-11.823,1.9048,16.127001,-7.5556,19.231001,11.659,-12.689,2.0221,0.0,10.449
-10.49,12.444,-1.8862,-1.9512,-4.9261,-6.0488,-2.8986,-2.9773,2.8618,-1.9512,-4.9261,-6.8966,-0.95238,17.079,-7.5556,21.153999,10.692,-2.0612,7.7093,-0.98522,12.372
-4.8025,16.254,2.9919,-2.9268,-9.8522,2.7317,2.8986,-4.9191,5.7886,-2.9268,-9.8522,0.0,-1.9048,17.079,-4.6984,21.153999,9.7262,8.5668,-3.6651,-0.98522,14.295
-0.06319,16.254,7.8699,-7.8049,-3.9409,1.7561,9.6618,0.90615,4.813,-7.8049,-3.9409,4.9261,0.0,17.079,0.06349,22.115,10.692,9.533,4.8657,4.9261,15.256
9.4155,21.968,15.675,1.9512,9.8522,5.6585,20.290001,7.7023,9.6911,1.9512,9.8522,15.764,6.6667,22.794001,8.6349,27.885,16.49,13.398,0.12638,11.823,21.987
11.311,19.111,15.675,-0.97561,7.8818,11.512,22.222,4.7896,12.618,-0.97561,7.8818,19.704,6.6667,22.794001,8.6349,25.0,15.523,9.533,6.7615,8.867,23.91
11.311,17.205999,18.601999,-6.8293,7.8818,15.415,27.052999,0.90615,13.593,-6.8293,7.8818,23.645,6.6667,18.032,8.6349,22.115,13.591,5.6683,21.927,10.837,18.141001
13.207,20.063,23.48,0.0,8.867,17.365999,31.884001,1.877,8.7154,0.0,8.867,26.601,7.619,11.365,11.492,20.191999,13.591,-1.095,20.979,15.764,12.372
17.945999,21.968,28.358,10.732,12.808,16.389999,33.816002,6.7314,8.7154,10.732,12.808,30.542,7.619,6.6032,15.302,19.231001,14.557,12.432,1.0742,15.764,11.41
25.528999,20.063,29.333,9.7561,16.749001,25.171,34.783001,8.6731,11.642,9.7561,16.749001,35.467999,6.6667,2.7937,17.205999,15.385,13.591,20.160999,-3.6651,15.764,7.5641
30.268999,16.254,27.382,19.511999,23.645,35.902,31.884001,21.294001,11.642,19.511999,23.645,38.424,6.6667,-1.0159,19.111,7.6923,9.7262,22.093,4.8657,16.749001,4.6795
24.580999,6.7302,19.577,19.511999,23.645,25.171,29.952,32.945,12.618,19.511999,23.645,32.512001,0.95238,-7.6825,13.397,-5.7692,2.963,26.924,7.7093,12.808,-8.7821
20.790001,1.9683,12.748,17.561001,22.66,26.146,28.986,30.032,15.545,17.561001,22.66,31.527,-4.7619,-13.397,7.6825,-15.385,-4.7665,19.195,6.7615,3.9409,-17.436001
17.945999,-0.88889,6.8943,19.511999,25.615999,30.049,26.087,20.323999,15.545,19.511999,25.615999,29.556999,-8.5714,-17.205999,2.9206,-22.115,-9.5974,16.296,4.8657,-0.98522,-19.358999
9.4155,-4.6984,-2.8618,11.707,13.793,15.415,11.594,15.469,13.593,11.707,13.793,19.704,-16.190001,-22.921,-5.6508,-26.923,-16.361,-6.8921,-9.3523,-10.837,-24.167
6.5719,-10.413,-8.7154,12.683,10.837,12.488,10.628,15.469,12.618,12.683,10.837,13.793,-16.190001,-21.016001,-6.6032,-26.923,-17.327,1.8035,-4.613,-10.837,-21.282
4.6761,-11.365,-12.618,18.537001,19.704,13.463,6.7633,13.528,9.6911,18.537001,19.704,9.8522,-14.286,-15.302,-6.6032,-24.038,-16.361,10.499,-1.7694,-16.749001,-14.551
-1.0111,-11.365,-15.545,18.537001,21.674999,10.537,-4.8309,4.7896,4.813,18.537001,21.674999,5.9113,-13.333,-12.444,-9.4603,-21.153999,-17.327,4.7021,-1.7694,-17.733999,-8.7821
-7.6461,-16.127001,-20.423,9.7561,9.8522,-0.19512,-13.527,8.6731,0.91057,9.7561,9.8522,-1.9704,-10.476,-8.6349,-12.317,-20.191999,-17.327,-0.12882,9.6051,-14.778,-10.705
-16.177,-18.032,-25.301001,4.878,-2.9557,-11.902,-18.357,3.8188,-3.9675,4.878,-2.9557,-11.823,-9.5238,-4.8254,-14.222,-17.308001,-16.361,-4.9597,-6.5087,-13.793,-10.705
-18.073,-18.032,-25.301001,-1.9512,-8.867,-16.780001,-27.052999,-2.0065,-6.8943,-1.9512,-8.867,-19.704,-2.8571,0.88889,-10.413,-11.538,-11.53,-6.8921,-9.3523,-7.8818,-1.0897
-15.229,-16.127001,-21.398001,-8.7805,-7.8818,-18.732,-26.087,-9.7735,-9.8211,-8.7805,-7.8818,-20.690001,1.9048,3.746,-6.6032,-4.8077,-5.7327,-23.316999,1.0742,-5.9113,2.7564
-17.125,-15.175,-18.472,0.0,-3.9409,-19.707001,-26.087,-15.599,-12.748,0.0,-3.9409,-20.690001,3.8095,9.4603,-5.6508,0.96154,-1.868,-15.588,-0.82148,-4.9261,8.5256
-15.229,-9.4603,-15.545,6.8293,-6.8966,-16.780001,-24.155001,-13.657,-10.797,6.8293,-6.8966,-17.733999,3.8095,12.317,-4.6984,5.7692,1.9968,-2.0612,-0.82148,-3.9409,12.372
-11.438,-0.88889,-8.7154,9.7561,-2.9557,-11.902,-15.459,-6.8608,-4.9431,9.7561,-2.9557,-8.867,4.7619,11.365,-2.7937,8.6538,3.9291,-6.8921,-5.5608,0.0,14.295
-7.6461,1.0159,-2.8618,9.7561,9.8522,-3.122,-8.6957,-13.657,-2.0163,9.7561,9.8522,-0.98522,3.8095,8.5079,-2.7937,7.6923,3.9291,-11.723,-1.7694,-1.9704,8.5256
-8.594,-2.7937,0.06504,3.9024,12.808,-6.0488,-0.96618,-10.744,0.91057,3.9024,12.808,2.9557,2.8571,4.6984,-3.746,2.8846,1.0306,-15.588,10.553,-2.9557,0.83333
-6.6983,-2.7937,2.0163,7.8049,15.764,-1.1707,10.628,-6.8608,3.8374,7.8049,15.764,8.867,0.0,-1.0159,-5.6508,-0.96154,-2.8341,-15.588,11.501,-2.9557,-3.0128
-1.0111,-1.8413,5.9187,12.683,20.690001,8.5854,18.357,-5.89,7.7398,12.683,20.690001,16.749001,0.0,-2.9206,-4.6984,-2.8846,-5.7327,-16.554001,2.0221,-1.9704,-2.0513
3.7283,1.9683,6.8943,18.537001,23.645,14.439,18.357,2.8479,11.642,18.537001,23.645,20.690001,-0.95238,-6.7302,-3.746,-5.7692,-7.6651,-7.8583,-8.4044,-0.98522,-4.9359
5.624,2.9206,5.9187,22.438999,26.601,18.341,22.222,7.7023,9.6911,22.438999,26.601,22.66,0.0,-7.6825,-2.7937,-7.6923,-10.564,-0.12882,-10.3,3.9409,-4.9359
0.88468,-7.5556,-4.813,19.511999,20.690001,13.463,15.459,9.644,9.6911,19.511999,20.690001,14.778,-6.6667,-15.302,-8.5079,-17.308001,-19.259001,0.83736,2.97,-2.9557,-14.551
-3.8547,-15.175,-12.618,18.537001,18.719,8.5854,8.6957,1.877,10.667,18.537001,18.719,6.8966,-8.5714,-16.254,-10.413,-23.077,-23.124001,4.7021,3.9179,-3.9409,-17.436001
-4.8025,-14.222,-14.569,15.61,18.719,9.561,5.7971,-1.0356,7.7398,15.61,18.719,4.9261,-5.7143,-16.254,-10.413,-22.115,-23.124001,-1.095,-3.6651,0.98522,-15.513
-1.0111,-10.413,-12.618,7.8049,17.733999,15.415,6.7633,4.7896,6.7642,7.8049,17.733999,5.9113,-3.8095,-14.349,-6.6032,-20.191999,-21.191999,9.533,-5.5608,5.9113,-11.667
1.8325,-7.5556,-14.569,19.511999,18.719,7.6098,8.6957,13.528,5.7886,19.511999,18.719,3.9409,-1.9048,-10.54,-5.6508,-19.231001,-22.158001,16.296,-15.039,11.823,-6.859
4.6761,-12.317,-16.52,31.219999,15.764,3.7073,7.7295,18.382,4.813,31.219999,15.764,3.9409,-1.9048,-12.444,-5.6508,-21.153999,-23.124001,18.229,-5.5608,11.823,-8.7821
3.7283,-14.222,-17.496,31.219999,22.66,6.6341,4.8309,16.440001,5.7886,31.219999,22.66,4.9261,-3.8095,-12.444,-6.6032,-21.153999,-23.124001,10.499,-9.3523,8.867,-9.7436
5.624,-10.413,-13.593,30.243999,35.467999,9.561,2.8986,16.440001,6.7642,30.243999,35.467999,6.8966,1.9048,-1.9683,-2.7937,-15.385,-16.361,10.499,-15.987,14.778,-2.0513
5.624,-6.6032,-9.6911,22.438999,28.570999,9.561,-4.8309,17.410999,-0.06504,22.438999,28.570999,5.9113,3.8095,0.88889,-0.88889,-14.423,-13.462,20.160999,-8.4044,16.749001,-3.0128
0.88468,-10.413,-9.6911,13.659,15.764,6.6341,-5.7971,9.644,-0.06504,13.659,15.764,0.98522,0.95238,1.8413,-2.7937,-14.423,-13.462,21.127001,-11.248,10.837,-5.8974
-0.06319,-5.6508,-8.7154,3.9024,13.793,6.6341,0.96618,0.90615,2.8618,3.9024,13.793,-0.98522,0.0,4.6984,-3.746,-9.6154,-10.564,9.533,-13.144,5.9113,-2.0513
-3.8547,1.0159,-5.7886,9.7561,14.778,-1.1707,4.8309,3.8188,2.8618,9.7561,14.778,-1.9704,-2.8571,1.8413,-4.6984,-6.7308,-10.564,4.7021,2.97,-0.98522,-0.12821
-1.9589,4.8254,0.06504,12.683,14.778,-8.0,9.6618,4.7896,12.618,12.683,14.778,0.0,-4.7619,-1.9683,-4.6984,-2.8846,-7.6651,-2.0612,10.553,-8.867,-0.12821
-3.8547,2.9206,-2.8618,1.9512,8.867,-10.927,3.8647,4.7896,13.593,1.9512,8.867,-2.9557,-12.381,-10.54,-10.413,-4.8077,-11.53,0.83736,7.7093,-13.793,-6.859
-7.6461,-1.8413,-6.7642,-0.97561,0.0,-12.878,-3.8647,3.8188,3.8374,-0.97561,0.0,-8.867,-20.952,-21.016001,-16.127001,-8.6538,-18.292999,1.8035,11.501,-21.674999,-11.667
-1.0111,3.873,0.06504,-0.97561,0.0,-5.0732,-0.96618,5.7605,4.813,-0.97561,0.0,-3.9409,-20.952,-21.016001,-11.365,-1.9231,-14.428,5.6683,7.7093,-19.704,-7.8205
5.624,10.54,9.8211,4.878,4.9261,7.6098,6.7633,12.557,7.7398,4.878,4.9261,3.9409,-13.333,-18.159,-1.8413,6.7308,-4.7665,17.261999,0.12638,-8.867,-3.9744
9.4155,16.254,14.699,4.878,2.9557,6.6341,11.594,18.382,6.7642,4.878,2.9557,8.867,-8.5714,-16.254,3.873,12.5,1.9968,27.889999,14.344,0.98522,-0.12821
10.363,19.111,14.699,2.9268,0.98522,10.537,12.56,11.586,-1.0407,2.9268,0.98522,11.823,-9.5238,-14.349,5.7778,13.462,3.9291,26.924,27.615,0.98522,-2.0513
7.5197,15.302,14.699,-8.7805,-0.98522,5.6585,6.7633,9.644,-0.06504,-8.7805,-0.98522,8.867,-10.476,-13.397,6.7302,12.5,4.8953,19.195,16.24,0.98522,-3.9744
8.4676,14.349,17.625999,-5.8537,0.0,-0.19512,8.6957,7.7023,1.8862,-5.8537,0.0,8.867,-9.5238,-9.5873,9.5873,15.385,7.7939,14.364,9.6051,0.98522,0.83333
10.363,12.444,17.625999,6.8293,-4.9261,3.7073,13.527,4.7896,-0.06504,6.8293,-4.9261,12.808,-8.5714,-7.6825,10.54,12.5,6.8277,13.398,1.0742,1.9704,0.83333
14.155,14.349,20.552999,8.7805,-1.9704,12.488,17.391001,6.7314,1.8862,8.7805,-1.9704,16.749001,-4.7619,-0.06349,14.349,13.462,9.7262,24.992001,-1.7694,6.8966,6.6026
12.259,7.6825,16.65,2.9268,1.9704,9.561,9.6618,6.7314,-2.0163,2.9268,1.9704,14.778,-3.8095,-0.06349,13.397,7.6923,7.7939,12.432,4.8657,1.9704,1.7949
7.5197,1.9683,12.748,-5.8537,-1.9704,2.7317,6.7633,-1.0356,-3.9675,-5.8537,-1.9704,10.837,-5.7143,-2.9206,8.6349,2.8846,4.8953,10.499,6.7615,-1.9704,-2.0513
6.5719,2.9206,12.748,-5.8537,-4.9261,5.6585,10.628,-7.8317,-2.0163,-5.8537,-4.9261,11.823,-7.619,-4.8254,5.7778,0.96154,2.963,5.6683,-1.7694,-0.98522,-2.0513
6.5719,1.9683,12.748,2.9268,0.0,0.78049,9.6618,-3.9482,-1.0407,2.9268,0.0,12.808,-7.619,-7.6825,6.7302,-0.96154,1.9968,0.83736,-10.3,0.98522,-5.8974
6.5719,1.9683,14.699,2.9268,1.9704,-0.19512,10.628,2.8479,1.8862,2.9268,1.9704,14.778,-6.6667,-8.6349,6.7302,-3.8462,1.9968,1.8035,-0.82148,2.9557,-8.7821
1.8325,-9.4603,8.8455,-3.9024,7.8818,4.6829,6.7633,-1.0356,1.8862,-3.9024,7.8818,13.793,-8.5714,-12.444,1.0159,-13.462,-4.7665,-0.12882,3.9179,0.0,-15.513
-3.8547,-11.365,2.0163,3.9024,8.867,-1.1707,5.7971,-5.89,1.8862,3.9024,8.867,9.8522,-13.333,-17.205999,-7.5556,-20.191999,-13.462,-0.12882,-4.613,-4.9261,-17.436001
-8.594,-10.413,-2.8618,7.8049,1.9704,-3.122,2.8986,-8.8026,-0.06504,7.8049,1.9704,6.8966,-18.094999,-20.063,-15.175,-23.077,-21.191999,-10.757,-7.4566,-9.8522,-16.474001
-10.49,-8.5079,-2.8618,1.9512,4.9261,1.7561,2.8986,-8.8026,0.91057,1.9512,4.9261,7.8818,-23.809999,-22.921,-19.937,-21.153999,-25.056,-14.622,-15.987,-14.778,-11.667
-9.5419,1.0159,0.06504,0.97561,3.9409,2.7317,6.7633,-10.744,-2.9919,0.97561,3.9409,9.8522,-29.524,-25.778,-21.841,-17.308001,-25.056,-12.689,-9.3523,-21.674999,-12.628
-9.5419,1.9683,2.0163,-4.878,-4.9261,-1.1707,6.7633,-4.9191,-5.9187,-4.878,-4.9261,4.9261,-28.570999,-23.872999,-21.841,-12.5,-21.191999,-10.757,-4.613,-23.645,-11.667
-9.5419,4.8254,1.0407,-7.8049,-5.9113,-7.0244,1.9324,-3.9482,-5.9187,-7.8049,-5.9113,0.0,-26.667,-18.159,-19.937,-4.8077,-15.395,-15.588,5.8136,-22.66,-4.9359
-4.8025,6.7302,2.0163,-9.7561,-4.9261,-4.0976,-3.8647,-6.8608,-7.8699,-9.7561,-4.9261,-1.9704,-22.857,-12.444,-16.127001,2.8846,-9.5974,-13.655,10.553,-20.690001,2.7564
-2.9068,8.6349,2.0163,-13.659,-11.823,-3.122,-6.7633,-4.9191,-8.8455,-13.659,-11.823,-3.9409,-20.952,-8.6349,-12.317,9.6154,-2.8341,-4.9597,3.9179,-20.690001,5.641
4.6761,13.397,8.8455,-14.634,-15.764,5.6585,0.0,-3.9482,-8.8455,-14.634,-15.764,0.0,-10.476,0.88889,-1.8413,19.231001,9.7262,5.6683,-0.82148,-8.867,10.449
10.363,15.302,9.8211,-3.9024,-17.733999,6.6341,2.8986,7.7023,-10.797,-3.9024,-17.733999,0.98522,-1.9048,9.4603,5.7778,24.038,16.49,0.83736,-6.5087,0.98522,13.333
4.6761,11.492,4.9431,-7.8049,-19.704,-1.1707,-4.8309,10.615,-16.65,-7.8049,-19.704,-7.8818,0.95238,12.317,5.7778,23.077,17.455999,11.465,2.0221,2.9557,16.218
-0.06319,10.54,1.0407,-18.537001,-23.645,-8.0,-8.6957,6.7314,-19.577,-18.537001,-23.645,-11.823,2.8571,13.27,4.8254,21.153999,15.523,17.261999,2.0221,6.8966,17.179001
-5.7504,2.9206,-4.813,-21.462999,-21.674999,-8.0,-16.424999,-1.0356,-11.772,-21.462999,-21.674999,-14.778,-0.95238,7.5556,0.06349,13.462,9.7262,9.533,-2.7172,4.9261,9.4872
-9.5419,-5.6508,-11.642,-24.389999,-16.749001,-14.829,-17.391001,-5.89,-9.8211,-24.389999,-16.749001,-20.690001,-1.9048,-0.06349,-3.746,3.8462,3.9291,3.7359,8.6572,3.9409,-3.9744
-8.594,-7.5556,-12.618,-24.389999,-17.733999,-17.756001,-15.459,-6.8608,-3.9675,-24.389999,-17.733999,-20.690001,2.8571,0.88889,-0.88889,0.96154,4.8953,-3.0274,1.0742,7.8818,-6.859
-6.6983,-11.365,-13.593,-32.195,-19.704,-15.805,-18.357,-8.8026,-1.0407,-32.195,-19.704,-19.704,3.8095,2.7937,1.0159,-0.96154,5.8615,-4.9597,4.8657,5.9113,-3.9744
-5.7504,-14.222,-13.593,-29.268,-25.615999,-12.878,-19.323999,-12.686,-4.9431,-29.268,-25.615999,-20.690001,4.7619,3.746,1.9683,-3.8462,4.8953,-5.9259,5.8136,4.9261,-2.0513
-5.7504,-14.222,-12.618,-26.341,-28.570999,-13.854,-21.256001,-10.744,-11.772,-26.341,-28.570999,-21.674999,5.7143,5.6508,2.9206,-3.8462,5.8615,-2.0612,-0.82148,5.9113,2.7564
-2.9068,-10.413,-7.7398,-24.389999,-28.570999,-12.878,-18.357,-12.686,-10.797,-24.389999,-28.570999,-20.690001,9.5238,9.4603,5.7778,1.9231,10.692,2.7697,-4.613,6.8966,6.6026
-1.9589,-8.5079,-3.8374,-23.415001,-25.615999,-10.927,-15.459,-13.657,-11.772,-23.415001,-25.615999,-17.733999,14.286,13.27,8.6349,5.7692,13.591,0.83736,-3.6651,7.8818,9.4872
-1.9589,-7.5556,0.06504,-21.462999,-25.615999,-12.878,-17.391001,-4.9191,-18.601999,-21.462999,-25.615999,-18.719,15.238,14.222,10.54,7.6923,15.523,-2.0612,-0.82148,9.8522,7.5641
0.88468,-0.88889,5.9187,-15.61,-19.704,-9.9512,-16.424999,-2.0065,-16.65,-15.61,-19.704,-15.764,16.190001,18.983999,14.349,12.5,19.388,1.8035,-18.830999,5.9113,10.449
1.8325,-0.88889,6.8943,-16.584999,-20.690001,-6.0488,-17.391001,-4.9191,-14.699,-16.584999,-20.690001,-12.808,17.143,18.983999,14.349,11.538,19.388,-2.0612,-10.3,4.9261,6.6026
4.6761,-0.88889,8.8455,-15.61,-16.749001,-5.0732,-10.628,-1.0356,-11.772,-15.61,-16.749001,-9.8522,18.094999,19.937,16.254,12.5,19.388,3.7359,-1.7694,10.837,5.641
1.8325,0.06349,7.8699,-16.584999,-12.808,-6.0488,-9.6618,-0.06472,-12.748,-16.584999,-12.808,-9.8522,16.190001,20.889,13.397,11.538,17.455999,3.7359,-11.248,6.8966,7.5641
-1.9589,-2.7937,4.9431,-6.8293,-11.823,-10.927,-10.628,3.8188,-14.699,-6.8293,-11.823,-11.823,15.238,20.889,7.6825,6.7308,12.625,2.7697,-16.934999,2.9557,6.6026
-1.0111,-3.746,2.9919,-4.878,-14.778,-5.0732,-11.594,-6.8608,-14.699,-4.878,-14.778,-9.8522,11.429,9.4603,2.9206,0.0,4.8953,2.7697,-19.778999,2.9557,0.83333
-1.9589,-1.8413,2.0163,-9.7561,-9.8522,-7.0244,-5.7971,-0.06472,-8.8455,-9.7561,-9.8522,-8.867,3.8095,-2.9206,-0.88889,-4.8077,-0.90177,0.83736,-20.726999,3.9409,-6.859
-2.9068,-6.6032,-1.8862,-9.7561,-5.9113,-11.902,-5.7971,2.8479,-3.9675,-9.7561,-5.9113,-9.8522,0.95238,-6.7302,-3.746,-7.6923,-5.7327,-1.095,-7.4566,3.9409,-8.7821
-4.8025,-7.5556,-6.7642,-11.707,-5.9113,-8.9756,-7.7295,-2.9773,0.91057,-11.707,-5.9113,-9.8522,-0.95238,-8.6349,-5.6508,-10.577,-8.6312,-14.622,-0.82148,2.9557,-8.7821
-3.8547,-6.6032,-6.7642,-2.9268,-0.98522,-0.19512,-4.8309,-2.9773,7.7398,-2.9268,-0.98522,-6.8966,1.9048,-9.5873,-3.746,-10.577,-8.6312,-1.095,-4.613,6.8966,-5.8974
-2.9068,-12.317,-10.667,-6.8293,-3.9409,-2.1463,-5.7971,0.90615,6.7642,-6.8293,-3.9409,-6.8966,0.0,-14.349,-4.6984,-14.423,-12.496,5.6683,3.9179,7.8818,-12.628
-4.8025,-9.4603,-13.593,-3.9024,-4.9261,-2.1463,-6.7633,-2.9773,4.813,-3.9024,-4.9261,-6.8966,-0.95238,-18.159,-6.6032,-16.346001,-14.428,-2.0612,2.97,7.8818,-18.396999
-5.7504,-5.6508,-14.569,-1.9512,-7.8818,-2.1463,-4.8309,-2.0065,2.8618,-1.9512,-7.8818,-5.9113,0.0,-14.349,-5.6508,-13.462,-12.496,0.83736,-1.7694,10.837,-14.551
-5.7504,-7.5556,-16.52,-0.97561,-7.8818,-4.0976,-4.8309,2.8479,-0.06504,-0.97561,-7.8818,-6.8966,-1.9048,-10.54,-8.5079,-14.423,-14.428,-0.12882,0.12638,7.8818,-11.667
-6.6983,-8.5079,-17.496,0.97561,-3.9409,-0.19512,-1.9324,-2.9773,3.8374,0.97561,-3.9409,-3.9409,-0.95238,-5.7778,-9.4603,-14.423,-15.395,-2.0612,2.97,1.9704,-7.8205
-3.8547,-6.6032,-14.569,1.9512,2.9557,2.7317,4.8309,-1.0356,9.6911,1.9512,2.9557,1.9704,-0.95238,-3.873,-9.4603,-12.5,-13.462,-11.723,5.8136,-1.9704,-4.9359
-1.9589,-3.746,-11.642,4.878,4.9261,7.6098,8.6957,1.877,7.7398,4.878,4.9261,6.8966,0.0,-3.873,-9.4603,-11.538,-12.496,-1.095,2.97,-0.98522,-4.9359
-0.06319,-5.6508,-8.7154,4.878,3.9409,10.537,8.6957,3.8188,5.7886,4.878,3.9409,10.837,0.0,-3.873,-7.5556,-13.462,-11.53,2.7697,-0.82148,0.98522,-5.8974
9.4155,2.9206,2.0163,5.8537,11.823,17.365999,13.527,11.586,7.7398,5.8537,11.823,19.704,4.7619,2.7937,2.9206,-4.8077,-2.8341,4.7021,-10.3,1.9704,0.83333
16.051001,5.7778,7.8699,12.683,13.793,30.049,18.357,11.586,8.7154,12.683,13.793,25.615999,2.8571,3.746,5.7778,-1.9231,1.0306,8.5668,9.6051,0.98522,2.7564
13.207,1.9683,3.9675,20.488001,13.793,20.292999,13.527,15.469,7.7398,20.488001,13.793,21.674999,-0.95238,-4.8254,3.873,-6.7308,-2.8341,4.7021,14.344,-1.9704,-6.859
16.997999,5.7778,8.8455,26.341,11.823,19.316999,15.459,17.410999,8.7154,26.341,11.823,22.66,2.8571,-4.8254,8.6349,-3.8462,0.06441,5.6683,7.7093,2.9557,-5.8974
19.841999,4.8254,10.797,17.561001,8.867,23.219999,14.493,13.528,6.7642,17.561001,8.867,21.674999,4.7619,-1.9683,12.444,-3.8462,1.9968,7.6006,5.8136,8.867,-1.0897
20.790001,1.0159,10.797,12.683,12.808,19.316999,11.594,15.469,3.8374,12.683,12.808,18.719,5.7143,-2.9206,15.302,-3.8462,2.963,-0.12882,0.12638,12.808,-1.0897
18.893999,0.06349,9.8211,5.8537,6.8966,20.292999,7.7295,13.528,2.8618,5.8537,6.8966,15.764,6.6667,-1.9683,16.254,-2.8846,4.8953,5.6683,-2.7172,14.778,-0.12821
13.207,-3.746,6.8943,3.9024,-2.9557,16.389999,0.0,6.7314,2.8618,3.9024,-2.9557,9.8522,5.7143,-3.873,14.349,-3.8462,3.9291,17.261999,-17.882999,12.808,-2.0513
14.155,1.0159,10.797,5.8537,-0.98522,15.415,4.8309,4.7896,1.8862,5.8537,-0.98522,8.867,12.381,-1.0159,17.205999,0.96154,9.7262,19.195,-5.5608,14.778,-0.12821
12.259,0.06349,8.8455,0.97561,0.98522,9.561,-3.8647,5.7605,-0.06504,0.97561,0.98522,5.9113,12.381,-0.06349,14.349,1.9231,9.7262,9.533,6.7615,13.793,0.83333
7.5197,-1.8413,3.9675,0.97561,-2.9557,0.78049,-9.6618,4.7896,-5.9187,0.97561,-2.9557,0.0,8.5714,1.8413,10.54,0.96154,5.8615,4.7021,4.8657,11.823,1.7949
3.7283,0.06349,2.0163,-0.97561,-2.9557,-5.0732,-7.7295,1.877,-3.9675,-0.97561,-2.9557,-3.9409,8.5714,-1.0159,7.6825,3.8462,4.8953,3.7359,3.9179,8.867,-0.12821
2.7804,-3.746,1.0407,-2.9268,-5.9113,-3.122,-2.8986,-2.9773,0.91057,-2.9268,-5.9113,-4.9261,8.5714,-3.873,6.7302,3.8462,3.9291,-3.9936,3.9179,5.9113,-2.0513
3.7283,0.06349,1.0407,1.9512,0.0,-1.1707,0.96618,-2.0065,3.8374,1.9512,0.0,-2.9557,5.7143,-6.7302,5.7778,5.7692,1.9968,-3.9936,-3.6651,5.9113,0.83333
3.7283,6.7302,2.0163,0.0,4.9261,2.7317,0.96618,-6.8608,4.813,0.0,4.9261,-0.98522,3.8095,-11.492,4.8254,4.8077,0.06441,-3.9936,2.97,5.9113,-3.9744
0.88468,5.7778,0.06504,-2.9268,3.9409,1.7561,-2.8986,-5.89,3.8374,-2.9268,3.9409,-1.9704,-4.7619,-15.302,1.0159,0.96154,-3.8003,-5.9259,10.553,-2.9557,-9.7436
5.624,10.54,2.9919,4.878,6.8966,-0.19512,6.7633,-1.0356,3.8374,4.878,6.8966,1.9704,-4.7619,-12.444,4.8254,4.8077,-0.90177,-0.12882,12.449,-1.9704,-3.9744
10.363,13.397,5.9187,10.732,11.823,3.7073,10.628,-1.0356,11.642,10.732,11.823,5.9113,-0.95238,-5.7778,8.6349,9.6154,4.8953,5.6683,15.292,0.98522,0.83333
10.363,14.349,6.8943,1.9512,9.8522,5.6585,9.6618,-2.9773,11.642,1.9512,9.8522,5.9113,-4.7619,-2.9206,7.6825,11.538,5.8615,1.8035,11.501,-1.9704,4.6795
8.4676,14.349,5.9187,1.9512,8.867,4.6829,11.594,-2.0065,7.7398,1.9512,8.867,4.9261,-8.5714,-2.9206,3.873,10.577,3.9291,-1.095,2.0221,-9.8522,3.7179
8.4676,14.349,4.9431,4.878,8.867,1.7561,12.56,0.90615,4.813,4.878,8.867,4.9261,-7.619,-0.06349,2.9206,10.577,3.9291,-10.757,9.6051,-10.837,5.641
8.4676,12.444,5.9187,3.9024,0.0,6.6341,10.628,-2.0065,7.7398,3.9024,0.0,4.9261,-2.8571,3.746,2.9206,10.577,5.8615,-7.8583,10.553,-2.9557,7.5641
9.4155,11.492,6.8943,5.8537,-0.98522,4.6829,11.594,3.8188,11.642,5.8537,-0.98522,5.9113,1.9048,6.6032,4.8254,10.577,6.8277,1.8035,-4.613,1.9704,11.41
3.7283,7.6825,3.9675,1.9512,11.823,-3.122,7.7295,8.6731,6.7642,1.9512,11.823,2.9557,0.95238,6.6032,1.9683,4.8077,2.963,0.83736,2.0221,1.9704,7.5641
0.88468,1.9683,-0.91057,-2.9268,10.837,-4.0976,0.96618,-0.06472,-0.06504,-2.9268,10.837,-0.98522,1.9048,6.6032,-0.88889,-0.96154,1.0306,-4.9597,8.6572,0.98522,0.83333
-1.0111,-1.8413,-1.8862,-6.8293,1.9704,-3.122,-0.96618,-2.0065,0.91057,-6.8293,1.9704,-1.9704,5.7143,8.5079,-1.8413,-1.9231,1.9968,-1.095,-5.5608,2.9557,0.83333
-5.7504,-5.6508,-5.7886,-2.9268,0.98522,-7.0244,-0.96618,-5.89,2.8618,-2.9268,0.98522,-4.9261,8.5714,11.365,-2.7937,-2.8846,1.9968,2.7697,1.0742,4.9261,1.7949
-8.594,-6.6032,-5.7886,2.9268,0.0,-5.0732,-1.9324,-15.599,-0.06504,2.9268,0.0,-5.9113,8.5714,13.27,-4.6984,-1.9231,3.9291,-4.9597,5.8136,0.0,3.7179
-9.5419,-2.7937,-3.8374,-5.8537,-2.9557,-8.9756,-4.8309,-7.8317,-2.0163,-5.8537,-2.9557,-5.9113,5.7143,14.222,-3.746,2.8846,5.8615,-19.452,-4.613,-2.9557,8.5256
-14.281,-1.8413,-3.8374,-1.9512,-2.9557,-11.902,-2.8986,-6.8608,-3.9675,-1.9512,-2.9557,-5.9113,3.8095,11.365,-3.746,2.8846,7.7939,-14.622,-0.82148,-2.9557,6.6026
-15.229,-1.8413,-3.8374,0.0,1.9704,-14.829,-4.8309,-5.89,-1.0407,0.0,1.9704,-6.8966,3.8095,10.413,-0.88889,2.8846,9.7262,-11.723,-0.82148,-4.9261,1.7949
-12.385,-1.8413,-0.91057,0.0,2.9557,-12.878,-2.8986,-3.9482,-0.06504,0.0,2.9557,-4.9261,5.7143,11.365,1.9683,6.7308,13.591,-8.8245,-0.82148,-5.9113,2.7564
-9.5419,2.9206,3.9675,1.9512,5.9113,-10.927,-1.9324,-6.8608,1.8862,1.9512,5.9113,0.98522,5.7143,10.413,4.8254,11.538,17.455999,-5.9259,6.7615,-3.9409,6.6026
-3.8547,10.54,10.797,3.9024,9.8522,-2.1463,2.8986,-3.9482,5.7886,3.9024,9.8522,5.9113,3.8095,8.5079,6.7302,16.346001,18.422001,-5.9259,10.553,-4.9261,6.6026
-4.8025,9.5873,9.8211,2.9268,4.9261,0.78049,6.7633,-2.0065,4.813,2.9268,4.9261,5.9113,-0.95238,3.746,4.8254,14.423,15.523,-4.9597,6.7615,-5.9113,4.6795
-0.06319,9.5873,10.797,9.7561,3.9409,8.5854,10.628,-5.89,4.813,9.7561,3.9409,9.8522,-2.8571,-0.06349,4.8254,13.462,12.625,0.83736,8.6572,-5.9113,2.7564
2.7804,14.349,11.772,9.7561,4.9261,2.7317,12.56,4.7896,5.7886,9.7561,4.9261,8.867,-4.7619,0.88889,3.873,13.462,10.692,1.8035,6.7615,-8.867,3.7179
0.88468,14.349,10.797,5.8537,6.8966,-1.1707,12.56,10.615,7.7398,5.8537,6.8966,6.8966,-6.6667,2.7937,0.06349,12.5,6.8277,-6.8921,-5.5608,-10.837,5.641
-0.06319,12.444,8.8455,6.8293,9.8522,2.7317,13.527,8.6731,7.7398,6.8293,9.8522,9.8522,-10.476,-0.06349,-4.6984,9.6154,1.0306,-4.9597,2.0221,-9.8522,8.5256
-1.9589,8.6349,5.9187,7.8049,7.8818,2.7317,13.527,5.7605,1.8862,7.8049,7.8818,8.867,-15.238,-3.873,-9.4603,2.8846,-4.7665,3.7359,18.136,-10.837,2.7564
-1.0111,1.9683,3.9675,5.8537,0.98522,2.7317,11.594,0.90615,4.813,5.8537,0.98522,9.8522,-17.143,-4.8254,-10.413,-0.96154,-7.6651,7.6006,11.501,-10.837,-2.0513
3.7283,0.06349,6.8943,4.878,4.9261,10.537,9.6618,4.7896,6.7642,4.878,4.9261,13.793,-13.333,-1.9683,-7.5556,-0.96154,-5.7327,5.6683,3.9179,-9.8522,-1.0897
11.311,0.06349,8.8455,14.634,13.793,23.219999,8.6957,0.90615,7.7398,14.634,13.793,18.719,-13.333,-3.873,-5.6508,-2.8846,-5.7327,0.83736,0.12638,-11.823,-3.9744
6.5719,-0.88889,4.9431,15.61,15.764,17.365999,9.6618,10.615,8.7154,15.61,15.764,14.778,-14.286,-7.6825,-8.5079,-8.6538,-10.564,6.6345,-9.3523,-10.837,-6.859
1.8325,-2.7937,0.06504,11.707,9.8522,13.463,8.6957,12.557,4.813,11.707,9.8522,11.823,-15.238,-11.492,-11.365,-14.423,-15.395,9.533,-3.6651,-10.837,-9.7436
-0.06319,-7.5556,-4.813,10.732,8.867,9.561,3.8647,5.7605,2.8618,10.732,8.867,7.8818,-16.190001,-13.397,-13.27,-17.308001,-18.292999,-3.9936,7.7093,-13.793,-9.7436
-1.0111,-5.6508,-6.7642,8.7805,7.8818,5.6585,1.9324,6.7314,-0.06504,8.7805,7.8818,4.9261,-15.238,-12.444,-12.317,-14.423,-18.292999,-2.0612,1.0742,-12.808,-3.9744
1.8325,-5.6508,-4.813,8.7805,3.9409,8.5854,2.8986,4.7896,2.8618,8.7805,3.9409,4.9261,-11.429,-9.5873,-8.5079,-11.538,-15.395,4.7021,-1.7694,-7.8818,-2.0513
-1.0111,-5.6508,-5.7886,0.97561,-0.98522,3.7073,1.9324,-0.06472,-1.0407,0.97561,-0.98522,0.0,-11.429,-7.6825,-8.5079,-11.538,-15.395,-1.095,2.0221,-8.867,-3.9744
-1.0111,-4.6984,-6.7642,0.97561,-4.9261,0.78049,-11.594,-2.0065,-3.9675,0.97561,-4.9261,-4.9261,-9.5238,-4.8254,-6.6032,-7.6923,-13.462,-1.095,-8.4044,-4.9261,-0.12821
-1.9589,-5.6508,-5.7886,-4.878,-4.9261,-3.122,-15.459,-0.06472,-2.0163,-4.878,-4.9261,-7.8818,-7.619,-3.873,-3.746,-2.8846,-7.6651,9.533,-4.613,-0.98522,3.7179
-2.9068,-1.8413,-3.8374,-9.7561,-7.8818,-7.0244,-8.6957,-2.0065,-9.8211,-9.7561,-7.8818,-8.867,-1.9048,0.88889,0.06349,2.8846,-1.868,6.6345,4.8657,0.98522,7.5641
-2.9068,1.0159,-1.8862,-6.8293,-7.8818,-6.0488,-9.6618,-3.9482,-7.8699,-6.8293,-7.8818,-9.8522,4.7619,7.5556,3.873,8.6538,4.8953,-0.12882,-5.5608,2.9557,13.333
-4.8025,0.06349,-0.91057,-5.8537,-7.8818,-9.9512,-14.493,-5.89,-5.9187,-5.8537,-7.8818,-12.808,8.5714,11.365,4.8254,10.577,8.7601,-1.095,-4.613,8.867,15.256
-2.9068,-2.7937,0.06504,-6.8293,-12.808,-3.122,-15.459,-18.511,-8.8455,-6.8293,-12.808,-10.837,12.381,9.4603,6.7302,7.6923,10.692,-3.9936,0.12638,10.837,5.641
0.88468,-0.88889,3.9675,-9.7561,-14.778,-6.0488,-3.8647,-2.0065,-6.8943,-9.7561,-14.778,-8.867,17.143,10.413,9.5873,8.6538,14.557,-4.9597,-5.5608,13.793,1.7949
-4.8025,-3.746,2.0163,-16.584999,-9.8522,-18.732,-6.7633,1.877,-3.9675,-16.584999,-9.8522,-10.837,18.094999,14.222,8.6349,8.6538,16.49,2.7697,-13.144,13.793,5.641
-8.594,-6.6032,-0.91057,-12.683,-4.9261,-18.732,-11.594,-7.8317,-4.9431,-12.683,-4.9261,-10.837,18.094999,16.127001,4.8254,5.7692,15.523,2.7697,-3.6651,11.823,5.641
-6.6983,-1.8413,1.0407,-1.9512,2.9557,-9.9512,-4.8309,-8.8026,-3.9675,-1.9512,2.9557,-4.9261,19.048,18.983999,2.9206,3.8462,14.557,-3.9936,-4.613,9.8522,4.6795
-13.333,-7.5556,-3.8374,0.0,8.867,-8.0,3.8647,-8.8026,3.8374,0.0,8.867,-2.9557,12.381,13.27,-4.6984,-4.8077,6.8277,-8.8245,-11.248,0.98522,-3.0128
-15.229,-12.317,-6.7642,0.0,4.9261,-10.927,2.8986,-0.06472,9.6911,0.0,4.9261,-3.9409,5.7143,5.6508,-11.365,-11.538,0.06441,-16.554001,-6.5087,-4.9261,-10.705
-10.49,-9.4603,-5.7886,6.8293,6.8966,-5.0732,6.7633,0.90615,8.7154,6.8293,6.8966,0.0,8.5714,4.6984,-9.4603,-12.5,-1.868,-3.0274,2.97,-4.9261,-13.59
-11.438,-9.4603,-8.7154,11.707,11.823,-3.122,5.7971,1.877,11.642,11.707,11.823,0.0,9.5238,3.746,-11.365,-14.423,-5.7327,9.533,-4.613,-0.98522,-11.667
-18.073,-13.27,-19.447001,1.9512,2.9557,-10.927,-3.8647,-3.9482,9.6911,1.9512,2.9557,-8.867,0.0,-3.873,-20.889,-23.077,-18.292999,1.8035,-2.7172,-8.867,-15.513
-20.916,-16.127001,-26.275999,-5.8537,0.98522,-11.902,-11.594,-9.7735,2.8618,-5.8537,0.98522,-14.778,-12.381,-11.492,-27.556,-26.923,-26.023001,-12.689,5.8136,-20.690001,-20.320999
-19.968,-11.365,-26.275999,-6.8293,1.9704,-14.829,-12.56,-8.8026,-0.06504,-6.8293,1.9704,-16.749001,-20.0,-16.254,-27.556,-24.038,-26.989,-22.351,-1.7694,-27.586,-17.436001
-15.229,-6.6032,-21.398001,-5.8537,0.98522,-12.878,-8.6957,-5.89,0.91057,-5.8537,0.98522,-14.778,-17.143,-16.254,-20.889,-17.308001,-23.124001,-18.486,0.12638,-19.704,-10.705
-8.594,-6.6032,-17.496,-9.7561,-8.867,-8.9756,-7.7295,-2.9773,0.91057,-9.7561,-8.867,-13.793,-13.333,-14.349,-14.222,-14.423,-20.225,-3.9936,7.7093,-13.793,-4.9359
-7.6461,-4.6984,-17.496,-6.8293,-11.823,-2.1463,-0.96618,-10.744,-3.9675,-6.8293,-11.823,-13.793,-7.619,-9.5873,-9.4603,-10.577,-17.327,1.8035,0.12638,-7.8818,0.83333
-4.8025,1.0159,-12.618,-4.878,-10.837,-8.0,-6.7633,-2.9773,-7.8699,-4.878,-10.837,-15.764,0.95238,-2.9206,-1.8413,-1.9231,-8.6312,5.6683,1.0742,0.0,6.6026
-1.9589,1.0159,-7.7398,-8.7805,-9.8522,-11.902,-20.290001,-1.0356,-10.797,-8.7805,-9.8522,-16.749001,8.5714,3.746,5.7778,4.8077,0.06441,4.7021,7.7093,8.867,10.449
0.88468,0.06349,-3.8374,-16.584999,-9.8522,-9.9512,-16.424999,-5.89,-11.772,-16.584999,-9.8522,-14.778,15.238,6.6032,11.492,6.7308,5.8615,0.83736,-3.6651,15.764,10.449
5.624,4.8254,4.9431,-12.683,-10.837,-6.0488,-7.7295,-4.9191,-6.8943,-12.683,-10.837,-7.8818,20.952,14.222,18.159,13.462,14.557,-3.0274,-1.7694,18.719,18.141001
11.311,3.873,8.8455,-5.8537,-5.9113,1.7561,-2.8986,-10.744,-3.9675,-5.8537,-5.9113,-0.98522,22.857,18.032,20.063,13.462,18.422001,-11.723,8.6572,17.733999,16.218
9.4155,-0.88889,8.8455,-5.8537,-6.8966,2.7317,0.0,-7.8317,-5.9187,-5.8537,-6.8966,0.98522,21.905001,18.032,19.111,11.538,18.422001,-3.9936,8.6572,15.764,14.295
9.4155,2.9206,11.772,0.97561,-3.9409,-0.19512,3.8647,-0.06472,-2.9919,0.97561,-3.9409,2.9557,23.809999,22.794001,19.111,15.385,21.32,6.6345,0.12638,17.733999,18.141001
6.5719,0.06349,11.772,1.9512,0.98522,-0.19512,3.8647,-6.8608,-2.9919,1.9512,0.98522,3.9409,20.952,19.937,16.254,13.462,20.354,0.83736,-12.196,13.793,13.333
4.6761,0.06349,11.772,-0.97561,3.9409,2.7317,1.9324,-4.9191,2.8618,-0.97561,3.9409,6.8966,19.048,18.032,15.302,12.5,20.354,-0.12882,-4.613,8.867,11.41
5.624,1.9683,12.748,3.9024,13.793,3.7073,4.8309,-2.9773,2.8618,3.9024,13.793,10.837,16.190001,17.079,14.349,11.538,19.388,-3.0274,9.6051,6.8966,11.41
9.4155,3.873,13.724,10.732,16.749001,10.537,11.594,1.877,6.7642,10.732,16.749001,14.778,13.333,14.222,14.349,10.577,18.422001,-2.0612,5.8136,4.9261,7.5641
7.5197,4.8254,9.8211,13.659,6.8966,11.512,10.628,1.877,6.7642,13.659,6.8966,12.808,8.5714,10.413,9.5873,7.6923,13.591,-10.757,3.9179,0.98522,3.7179
3.7283,2.9206,4.9431,8.7805,3.9409,9.561,10.628,3.8188,6.7642,8.7805,3.9409,8.867,1.9048,-0.06349,2.9206,3.8462,5.8615,-10.757,-6.5087,-1.9704,-3.0128
3.7283,5.7778,6.8943,10.732,6.8966,12.488,14.493,5.7605,4.813,10.732,6.8966,9.8522,-2.8571,-8.6349,-0.88889,4.8077,2.963,0.83736,-7.4566,-1.9704,-6.859
0.88468,4.8254,3.9675,7.8049,0.0,6.6341,6.7633,7.7023,-0.06504,7.8049,0.0,4.9261,-8.5714,-15.302,-4.6984,2.8846,-1.868,5.6683,-1.7694,-8.867,-7.8205
3.7283,8.6349,4.9431,6.8293,5.9113,7.6098,8.6957,6.7314,4.813,6.8293,5.9113,4.9261,-7.619,-14.349,-3.746,6.7308,0.06441,3.7359,5.8136,-9.8522,-3.0128
2.7804,9.5873,2.9919,3.9024,7.8818,6.6341,-0.96618,1.877,2.8618,3.9024,7.8818,1.9704,-9.5238,-18.159,-5.6508,4.8077,-1.868,1.8035,12.449,-6.8966,-7.8205
0.88468,4.8254,-1.8862,0.0,-2.9557,-0.19512,-5.7971,3.8188,-2.9919,0.0,-2.9557,-3.9409,-11.429,-19.111,-6.6032,0.0,-5.7327,1.8035,9.6051,-4.9261,-9.7436
-2.9068,2.9206,-6.7642,-6.8293,-9.8522,-4.0976,-9.6618,0.90615,-7.8699,-6.8293,-9.8522,-7.8818,-7.619,-10.54,-7.5556,0.96154,-6.6989,-10.757,0.12638,-2.9557,-0.12821
-9.5419,-5.6508,-14.569,-9.7561,-18.719,-11.902,-13.527,-5.89,-9.8211,-9.7561,-18.719,-16.749001,-8.5714,-5.7778,-11.365,-2.8846,-10.564,-8.8245,-5.5608,-3.9409,3.7179
-9.5419,-8.5079,-16.52,-12.683,-13.793,-15.805,-15.459,-15.599,-6.8943,-12.683,-13.793,-21.674999,-2.8571,1.8413,-9.4603,-1.9231,-8.6312,-10.757,-0.82148,-0.98522,8.5256
-10.49,-10.413,-16.52,-19.511999,-9.8522,-15.805,-20.290001,-15.599,-6.8943,-19.511999,-9.8522,-24.631001,0.95238,7.5556,-6.6032,0.0,-6.6989,-11.723,1.0742,1.9704,9.4872
-12.385,-8.5079,-14.569,-16.584999,-11.823,-22.634001,-24.155001,-13.657,-7.8699,-16.584999,-11.823,-27.586,5.7143,17.079,-3.746,3.8462,-2.8341,-6.8921,-4.613,4.9261,15.256
-18.073,-6.6032,-14.569,-19.511999,-14.778,-30.438999,-28.018999,-17.540001,-9.8211,-19.511999,-14.778,-30.542,10.476,24.698,-2.7937,5.7692,0.06441,-16.554001,-9.3523,8.867,18.141001
-16.177,-2.7937,-9.6911,-17.561001,-10.837,-27.511999,-15.459,-22.395,-3.9675,-17.561001,-10.837,-25.615999,15.238,28.507999,-0.88889,8.6538,3.9291,-11.723,-10.3,11.823,21.987
-18.073,-4.6984,-9.6911,-13.659,-6.8966,-29.462999,-13.527,-21.424,-3.9675,-13.659,-6.8966,-24.631001,11.429,26.603001,-2.7937,4.8077,2.963,-12.689,4.8657,7.8818,14.295
-18.073,-13.27,-10.667,-20.488001,-17.733999,-27.511999,-12.56,-30.162001,-5.9187,-20.488001,-17.733999,-25.615999,4.7619,13.27,-5.6508,-3.8462,-1.868,-22.351,2.0221,4.9261,1.7949
-18.073,-15.175,-10.667,-17.561001,-12.808,-29.462999,-9.6618,-18.511,-3.9675,-17.561001,-12.808,-23.645,2.8571,6.6032,-5.6508,-5.7692,-1.868,-14.622,-12.196,1.9704,-2.0513
-16.177,-10.413,-7.7398,-15.61,-3.9409,-27.511999,-11.594,-12.686,-3.9675,-15.61,-3.9409,-20.690001,0.0,5.6508,-4.6984,-3.8462,-0.90177,-9.7907,-6.5087,1.9704,-2.0513
-14.281,-8.5079,-5.7886,-19.511999,-10.837,-21.659,-10.628,-11.715,-2.9919,-19.511999,-10.837,-16.749001,-4.7619,-0.06349,-5.6508,-1.9231,0.06441,-9.7907,-1.7694,-3.9409,-3.0128
-4.8025,2.9206,3.9675,-16.584999,-4.9261,-9.9512,2.8986,-6.8608,2.8618,-16.584999,-4.9261,-4.9261,-6.6667,-0.06349,-0.88889,7.6923,5.8615,0.83736,-2.7172,-6.8966,1.7949
4.6761,11.492,13.724,-7.8049,2.9557,-0.19512,0.96618,4.7896,1.8862,-7.8049,2.9557,3.9409,-2.8571,2.7937,5.7778,14.423,12.625,11.465,2.97,-1.9704,4.6795
11.311,15.302,19.577,4.878,3.9409,0.78049,9.6618,5.7605,1.8862,4.878,3.9409,10.837,-3.8095,0.88889,9.5873,16.346001,14.557,8.5668,3.9179,0.0,2.7564
18.893999,17.205999,25.431,7.8049,6.8966,8.5854,23.188,7.7023,5.7886,7.8049,6.8966,17.733999,-7.619,-1.9683,11.492,17.308001,13.591,5.6683,11.501,-2.9557,3.7179
23.632999,21.968,29.333,9.7561,9.8522,18.341,25.121,11.586,6.7642,9.7561,9.8522,24.631001,-6.6667,-2.9206,14.349,19.231001,13.591,12.432,19.084,-0.98522,6.6026
20.790001,21.016001,26.407,3.9024,6.8966,19.316999,23.188,2.8479,4.813,3.9024,6.8966,25.615999,-7.619,-3.873,9.5873,15.385,6.8277,9.533,4.8657,-2.9557,5.641
16.997999,19.111,22.504,0.0,1.9704,15.415,18.357,7.7023,0.91057,0.0,1.9704,24.631001,-6.6667,1.8413,6.7302,12.5,3.9291,9.533,4.8657,-1.9704,8.5256
19.841999,21.968,22.504,2.9268,5.9113,16.389999,21.256001,10.615,-0.06504,2.9268,5.9113,25.615999,-3.8095,7.5556,7.6825,11.538,2.963,16.296,1.0742,1.9704,11.41
15.103,20.063,19.577,0.0,7.8818,16.389999,18.357,5.7605,1.8862,0.0,7.8818,24.631001,0.0,9.4603,6.7302,8.6538,0.06441,14.364,-7.4566,5.9113,14.295
6.5719,6.7302,10.797,3.9024,3.9409,6.6341,14.493,1.877,1.8862,3.9024,3.9409,18.719,-0.95238,7.5556,1.0159,-2.8846,-6.6989,2.7697,2.0221,1.9704,5.641
8.4676,4.8254,9.8211,10.732,9.8522,8.5854,15.459,1.877,-0.06504,10.732,9.8522,19.704,2.8571,10.413,1.0159,-7.6923,-7.6651,-1.095,10.553,4.9261,1.7949
8.4676,3.873,6.8943,10.732,13.793,13.463,10.628,-2.0065,1.8862,10.732,13.793,21.674999,3.8095,11.365,0.06349,-10.577,-10.564,-0.12882,6.7615,7.8818,3.7179
4.6761,-3.746,-0.91057,10.732,6.8966,15.415,7.7295,1.877,3.8374,10.732,6.8966,18.719,1.9048,9.4603,-6.6032,-17.308001,-17.327,2.7697,3.9179,5.9113,-0.12821
-1.9589,-11.365,-9.6911,10.732,8.867,8.5854,-0.96618,3.8188,1.8862,10.732,8.867,12.808,-3.8095,-1.0159,-14.222,-24.038,-26.023001,0.83736,-13.144,0.98522,-8.7821
-6.6983,-19.937,-17.496,7.8049,3.9409,1.7561,-7.7295,8.6731,-1.0407,7.8049,3.9409,3.9409,-9.5238,-9.5873,-18.983999,-28.846001,-31.82,-5.9259,-10.3,0.0,-14.551
-10.49,-22.794001,-21.398001,4.878,-3.9409,3.7073,-12.56,6.7314,-5.9187,4.878,-3.9409,-0.98522,-12.381,-13.397,-20.889,-27.885,-31.82,3.7359,2.0221,-6.8966,-15.513
-10.49,-18.032,-21.398001,16.584999,8.867,9.561,-14.493,5.7605,-2.9919,16.584999,8.867,-1.9704,-14.286,-13.397,-18.983999,-22.115,-26.989,2.7697,0.12638,-13.793,-13.59
-5.7504,-10.413,-17.496,16.584999,9.8522,13.463,-7.7295,10.615,2.8618,16.584999,9.8522,0.0,-14.286,-17.205999,-12.317,-13.462,-22.158001,-0.12882,-4.613,-9.8522,-8.7821
-4.8025,-7.5556,-15.545,12.683,1.9704,9.561,-7.7295,8.6731,4.813,12.683,1.9704,-1.9704,-15.238,-19.111,-9.4603,-11.538,-19.259001,5.6683,1.0742,-7.8818,-14.551
-11.438,-10.413,-19.447001,10.732,-5.9113,1.7561,-14.493,6.7314,2.8618,10.732,-5.9113,-8.867,-20.952,-21.016001,-12.317,-13.462,-21.191999,4.7021,-1.7694,-11.823,-17.436001
-11.438,-3.746,-17.496,6.8293,-6.8966,0.78049,-17.391001,-0.06472,-1.0407,6.8293,-6.8966,-11.823,-16.190001,-16.254,-9.4603,-6.7308,-16.361,4.7021,4.8657,-5.9113,-9.7436
-7.6461,-1.8413,-13.593,2.9268,-4.9261,-0.19512,-14.493,4.7896,-0.06504,2.9268,-4.9261,-11.823,-9.5238,-4.8254,-4.6984,0.96154,-8.6312,-3.0274,2.97,-1.9704,0.83333
-7.6461,1.0159,-9.6911,-1.9512,-5.9113,-7.0244,-8.6957,8.6731,1.8862,-1.9512,-5.9113,-12.808,-7.619,1.8413,0.06349,7.6923,-0.90177,-3.0274,7.7093,-2.9557,8.5256
-4.8025,4.8254,-2.8618,-10.732,-4.9261,-3.122,-3.8647,2.8479,2.8618,-10.732,-4.9261,-10.837,-3.8095,4.6984,4.8254,12.5,5.8615,5.6683,7.7093,-1.9704,9.4872
-0.06319,7.6825,2.9919,-6.8293,-3.9409,-1.1707,2.8986,-0.06472,3.8374,-6.8293,-3.9409,-7.8818,3.8095,9.4603,10.54,17.308001,13.591,-2.0612,3.9179,0.0,11.41
4.6761,12.444,10.797,5.8537,1.9704,-0.19512,6.7633,-0.06472,5.7886,5.8537,1.9704,-2.9557,10.476,13.27,16.254,22.115,21.32,-3.9936,-2.7172,3.9409,11.41
12.259,17.205999,19.577,7.8049,9.8522,4.6829,16.424999,4.7896,6.7642,7.8049,9.8522,5.9113,18.094999,17.079,23.872999,26.923,29.049999,7.6006,-0.82148,12.808,17.179001
15.103,16.254,24.455,8.7805,9.8522,10.537,23.188,1.877,8.7154,8.7805,9.8522,12.808,19.048,16.127001,25.778,25.0,30.016001,16.296,12.449,15.764,12.372
19.841999,16.254,26.407,11.707,7.8818,13.463,23.188,5.7605,9.6911,11.707,7.8818,15.764,18.094999,11.365,23.872999,19.231001,27.118,11.465,11.501,14.778,1.7949
23.632999,19.111,30.309,15.61,15.764,16.389999,21.256001,19.353001,12.618,15.61,15.764,20.690001,16.190001,4.6984,22.921,18.268999,26.150999,10.499,-4.613,12.808,-2.0513
26.476999,21.968,33.236,16.584999,21.674999,19.316999,28.986,17.410999,13.593,16.584999,21.674999,25.615999,13.333,0.88889,21.016001,16.346001,24.219,12.432,-1.7694,11.823,-3.9744
26.476999,18.159,30.309,7.8049,18.719,22.243999,29.952,12.557,14.569,7.8049,18.719,25.615999,11.429,-1.0159,18.159,13.462,21.32,2.7697,-5.5608,7.8818,-4.9359
20.790001,11.492,22.504,11.707,17.733999,16.389999,23.188,9.644,11.642,11.707,17.733999,19.704,9.5238,-4.8254,12.444,6.7308,15.523,7.6006,-5.5608,4.9261,-6.859
10.363,2.9206,10.797,14.634,16.749001,4.6829,14.493,7.7023,7.7398,14.634,16.749001,11.823,3.8095,-8.6349,4.8254,0.0,7.7939,9.533,-5.5608,0.0,-5.8974
4.6761,-3.746,2.0163,11.707,6.8966,0.78049,5.7971,2.8479,6.7642,11.707,6.8966,5.9113,-2.8571,-13.397,-1.8413,-6.7308,0.06441,1.8035,5.8136,-2.9557,-11.667
-1.9589,-8.5079,-5.7886,1.9512,0.98522,4.6829,0.0,-5.89,5.7886,1.9512,0.98522,0.98522,-8.5714,-20.063,-8.5079,-12.5,-7.6651,-5.9259,10.553,-8.867,-19.358999
-8.594,-10.413,-10.667,-0.97561,-1.9704,-1.1707,-2.8986,-0.06472,2.8618,-0.97561,-1.9704,-4.9261,-11.429,-21.968,-11.365,-13.462,-10.564,-2.0612,2.97,-10.837,-19.358999
-6.6983,-5.6508,-8.7154,6.8293,4.9261,-8.0,-9.6618,5.7605,5.7886,6.8293,4.9261,-7.8818,-11.429,-19.111,-8.5079,-9.6154,-7.6651,1.8035,-4.613,-11.823,-16.474001
-6.6983,-10.413,-10.667,3.9024,5.9113,-7.0244,-14.493,3.8188,6.7642,3.9024,5.9113,-9.8522,-13.333,-21.016001,-9.4603,-10.577,-9.5974,-6.8921,3.9179,-10.837,-17.436001
-9.5419,-18.983999,-15.545,-1.9512,3.9409,-10.927,-18.357,2.8479,5.7886,-1.9512,3.9409,-14.778,-18.094999,-25.778,-11.365,-14.423,-14.428,-7.8583,3.9179,-8.867,-20.320999
-11.438,-19.937,-17.496,0.0,-3.9409,-13.854,-21.256001,1.877,3.8374,0.0,-3.9409,-16.749001,-20.952,-25.778,-13.27,-18.268999,-17.327,1.8035,-2.7172,-12.808,-22.243999
-9.5419,-19.937,-17.496,5.8537,-5.9113,-2.1463,-19.323999,1.877,-2.0163,5.8537,-5.9113,-11.823,-20.0,-23.872999,-11.365,-19.231001,-17.327,4.7021,-8.4044,-9.8522,-20.320999
-5.7504,-14.222,-15.545,10.732,-2.9557,0.78049,-13.527,11.586,-4.9431,10.732,-2.9557,-6.8966,-12.381,-22.921,-7.5556,-18.268999,-15.395,7.6006,-4.613,-0.98522,-22.243999
-4.8025,-6.6032,-13.593,10.732,-4.9261,2.7317,-11.594,18.382,-10.797,10.732,-4.9261,-2.9557,-9.5238,-18.159,-5.6508,-16.346001,-13.462,12.432,-8.4044,3.9409,-22.243999
-7.6461,-8.5079,-13.593,6.8293,-1.9704,0.78049,-6.7633,18.382,-5.9187,6.8293,-1.9704,-2.9557,-9.5238,-14.349,-6.6032,-17.308001,-16.361,6.6345,-18.830999,0.98522,-19.358999
-8.594,-12.317,-11.642,6.8293,0.98522,1.7561,-4.8309,14.498,-2.0163,6.8293,0.98522,0.0,-9.5238,-15.302,-9.4603,-21.153999,-18.292999,12.432,-12.196,-3.9409,-19.358999
-6.6983,-10.413,-8.7154,6.8293,0.0,6.6341,0.96618,13.528,-3.9675,6.8293,0.0,4.9261,-6.6667,-10.54,-10.413,-22.115,-18.292999,15.33,-3.6651,-2.9557,-16.474001
-1.0111,-8.5079,-3.8374,14.634,5.9113,11.512,11.594,10.615,-0.06504,14.634,5.9113,11.823,-6.6667,-11.492,-9.4603,-20.191999,-16.361,10.499,-15.987,-6.8966,-19.358999
0.88468,-6.6032,0.06504,11.707,5.9113,11.512,7.7295,10.615,0.91057,11.707,5.9113,11.823,-3.8095,-11.492,-8.5079,-18.268999,-13.462,6.6345,-18.830999,-10.837,-20.320999
4.6761,-1.8413,3.9675,5.8537,2.9557,14.439,12.56,4.7896,-0.06504,5.8537,2.9557,11.823,0.95238,-8.6349,-3.746,-11.538,-7.6651,2.7697,-22.622,-4.9261,-14.551
3.7283,2.9206,6.8943,9.7561,9.8522,8.5854,15.459,4.7896,4.813,9.7561,9.8522,12.808,1.9048,-8.6349,-1.8413,-6.7308,-1.868,-2.0612,-15.987,-2.9557,-16.474001
2.7804,5.7778,6.8943,4.878,14.778,-0.19512,10.628,5.7605,7.7398,4.878,14.778,9.8522,4.7619,-5.7778,1.0159,-1.9231,2.963,-7.8583,0.12638,-2.9557,-13.59
1.8325,6.7302,8.8455,0.0,4.9261,0.78049,10.628,-2.0065,10.667,0.0,4.9261,7.8818,5.7143,-4.8254,1.0159,1.9231,5.8615,-8.8245,16.24,-2.9557,-5.8974
-0.06319,6.7302,7.8699,-7.8049,-0.98522,0.78049,10.628,-8.8026,8.7154,-7.8049,-0.98522,5.9113,4.7619,-4.8254,1.9683,3.8462,6.8277,-0.12882,13.397,-0.98522,-1.0897
-1.9589,11.492,7.8699,-4.878,0.98522,-0.19512,7.7295,-12.686,6.7642,-4.878,0.98522,2.9557,1.9048,-2.9206,1.0159,7.6923,8.7601,-2.0612,9.6051,-3.9409,5.641
-1.9589,10.54,6.8943,-4.878,0.0,-3.122,4.8309,-13.657,6.7642,-4.878,0.0,-0.98522,4.7619,1.8413,2.9206,11.538,11.659,-6.8921,7.7093,-3.9409,9.4872
4.6761,12.444,10.797,-2.9268,2.9557,0.78049,12.56,-9.7735,5.7886,-2.9268,2.9557,2.9557,12.381,7.5556,9.5873,17.308001,17.455999,-12.689,13.397,4.9261,17.179001
4.6761,9.5873,9.8211,-4.878,-4.9261,-0.19512,2.8986,-10.744,-2.0163,-4.878,-4.9261,0.98522,12.381,8.5079,10.54,18.268999,19.388,-10.757,18.136,5.9113,16.218
0.88468,6.7302,8.8455,-8.7805,-7.8818,0.78049,-2.8986,-16.57,-6.8943,-8.7805,-7.8818,-2.9557,11.429,7.5556,10.54,18.268999,19.388,1.8035,11.501,5.9113,14.295
2.7804,9.5873,9.8211,-7.8049,-9.8522,2.7317,-6.7633,-8.8026,-6.8943,-7.8049,-9.8522,-2.9557,19.048,13.27,16.254,20.191999,23.253,2.7697,13.397,11.823,17.179001
3.7283,2.9206,4.9431,-13.659,-10.837,-5.0732,-8.6957,-2.9773,-10.797,-13.659,-10.837,-5.9113,20.952,11.365,16.254,14.423,19.388,8.5668,-0.82148,17.733999,12.372
6.5719,-0.88889,2.9919,-5.8537,-6.8966,-1.1707,-6.7633,-0.06472,-7.8699,-5.8537,-6.8966,-2.9557,15.238,9.4603,13.397,7.6923,13.591,12.432,-0.82148,17.733999,10.449
10.363,-0.88889,2.9919,1.9512,-7.8818,9.561,-3.8647,3.8188,-4.9431,1.9512,-7.8818,1.9704,14.286,11.365,10.54,3.8462,8.7601,-1.095,2.0221,15.764,13.333
7.5197,-8.5079,-2.8618,1.9512,-5.9113,11.512,-0.96618,8.6731,-8.8455,1.9512,-5.9113,2.9557,10.476,5.6508,3.873,-5.7692,1.0306,10.499,-1.7694,13.793,4.6795
6.5719,-16.127001,-8.7154,3.9024,-5.9113,13.463,-4.8309,3.8188,-8.8455,3.9024,-5.9113,0.98522,3.8095,-1.9683,-2.7937,-14.423,-5.7327,15.33,2.0221,7.8818,-5.8974
6.5719,-18.032,-10.667,1.9512,-5.9113,9.561,-14.493,6.7314,-13.724,1.9512,-5.9113,-0.98522,0.95238,-1.9683,-4.6984,-15.385,-6.6989,7.6006,-16.934999,2.9557,-7.8205
11.311,-16.127001,-6.7642,6.8293,-2.9557,9.561,-10.628,13.528,-4.9431,6.8293,-2.9557,2.9557,2.8571,-1.0159,1.0159,-10.577,-0.90177,5.6683,-13.144,2.9557,-6.859
16.997999,-10.413,0.06504,7.8049,6.8966,18.341,-2.8986,11.586,0.91057,7.8049,6.8966,9.8522,5.7143,-0.06349,7.6825,-3.8462,5.8615,5.6683,2.0221,5.9113,-2.0513
16.051001,-5.6508,2.9919,8.7805,9.8522,19.316999,0.0,4.7896,1.8862,8.7805,9.8522,12.808,4.7619,2.7937,9.5873,2.8846,9.7262,1.8035,2.97,5.9113,1.7949
12.259,1.9683,5.9187,6.8293,4.9261,10.537,2.8986,2.8479,2.8618,6.8293,4.9261,9.8522,1.9048,5.6508,8.6349,9.6154,11.659,-0.12882,1.0742,2.9557,8.5256
13.207,8.6349,9.8211,2.9268,2.9557,7.6098,3.8647,1.877,-1.0407,2.9268,2.9557,9.8522,2.8571,8.5079,11.492,16.346001,15.523,4.7021,3.9179,3.9409,14.295
12.259,15.302,12.748,0.97561,0.98522,10.537,0.0,-5.89,-2.9919,0.97561,0.98522,8.867,5.7143,14.222,13.397,24.038,18.422001,5.6683,-5.5608,4.9261,24.872
13.207,15.302,16.65,3.9024,-1.9704,3.7073,0.96618,-1.0356,-2.0163,3.9024,-1.9704,8.867,14.286,21.841,19.111,28.846001,24.219,7.6006,1.0742,9.8522,27.756001
13.207,15.302,21.528,1.9512,1.9704,0.78049,1.9324,0.90615,-1.0407,1.9512,1.9704,8.867,23.809999,30.413,24.825001,31.731001,30.016001,14.364,20.979,17.733999,28.718
13.207,15.302,22.504,-4.878,4.9261,1.7561,-2.8986,-1.0356,-0.06504,-4.878,4.9261,5.9113,20.952,32.317001,24.825001,33.653999,30.982,9.533,20.032,15.764,32.563999
11.311,16.254,22.504,-3.9024,-4.9261,-0.19512,-0.96618,2.8479,-2.9919,-3.9024,-4.9261,3.9409,18.094999,29.459999,21.968,34.615002,29.049999,6.6345,7.7093,10.837,34.487
11.311,16.254,23.48,-4.878,-2.9557,-1.1707,6.7633,-2.0065,-3.9675,-4.878,-2.9557,5.9113,11.429,23.746,18.159,27.885,23.253,-9.7907,8.6572,5.9113,26.795
9.4155,15.302,21.528,-7.8049,-3.9409,-5.0732,11.594,-3.9482,-5.9187,-7.8049,-3.9409,5.9113,2.8571,18.983999,11.492,20.191999,14.557,-8.8245,2.97,-3.9409,19.103001
6.5719,10.54,15.675,-2.9268,-4.9261,-2.1463,7.7295,-6.8608,-2.9919,-2.9268,-4.9261,4.9261,-1.9048,13.27,5.7778,11.538,6.8277,4.7021,2.97,-7.8818,15.256
0.88468,1.0159,4.9431,-6.8293,-4.9261,-6.0488,-4.8309,-4.9191,-7.8699,-6.8293,-4.9261,-2.9557,-4.7619,4.6984,0.06349,0.96154,-0.90177,3.7359,0.12638,-5.9113,6.6026
-2.9068,-8.5079,-4.813,-13.659,-13.793,-6.0488,-10.628,-4.9191,-12.748,-13.659,-13.793,-8.867,-4.7619,2.7937,-3.746,-5.7692,-3.8003,2.7697,-6.5087,-4.9261,1.7949
-2.9068,-9.4603,-8.7154,-10.732,-12.808,-6.0488,-10.628,5.7605,-13.724,-10.732,-12.808,-11.823,-0.95238,5.6508,-1.8413,-4.8077,-1.868,3.7359,-8.4044,-2.9557,1.7949
-1.0111,-6.6032,-7.7398,-0.97561,-8.867,-4.0976,-6.7633,10.615,-13.724,-0.97561,-8.867,-10.837,7.619,7.5556,1.9683,-1.9231,1.9968,-1.095,-8.4044,2.9557,0.83333
-1.9589,-8.5079,-8.7154,-3.9024,-9.8522,-5.0732,-8.6957,4.7896,-14.699,-3.9024,-9.8522,-10.837,9.5238,7.5556,2.9206,-2.8846,1.9968,2.7697,-12.196,7.8818,0.83333
-0.06319,-5.6508,-5.7886,-4.878,-10.837,-4.0976,-6.7633,0.90615,-14.699,-4.878,-10.837,-7.8818,10.476,18.032,5.7778,0.96154,4.8953,0.83736,-15.039,9.8522,8.5256
1.8325,-4.6984,-3.8374,-0.97561,-6.8966,-6.0488,-8.6957,0.90615,-13.724,-0.97561,-6.8966,-6.8966,12.381,18.032,9.5873,2.8846,7.7939,7.6006,-9.3523,13.793,10.449
-0.06319,-5.6508,-3.8374,-5.8537,-12.808,-6.0488,-14.493,-1.0356,-12.748,-5.8537,-12.808,-10.837,15.238,18.983999,11.492,4.8077,10.692,8.5668,-7.4566,11.823,12.372
-1.0111,-3.746,-3.8374,-6.8293,-13.793,1.7561,-10.628,-14.628,-11.772,-6.8293,-13.793,-10.837,16.190001,23.746,12.444,8.6538,12.625,-4.9597,-4.613,7.8818,18.141001
-1.0111,0.06349,-3.8374,-11.707,-17.733999,-8.9756,-3.8647,-3.9482,-18.601999,-11.707,-17.733999,-13.793,17.143,27.556,13.397,12.5,15.523,-5.9259,-8.4044,10.837,23.91
-6.6983,-3.746,-10.667,-9.7561,-11.823,-18.732,-10.628,1.877,-5.9187,-9.7561,-11.823,-17.733999,14.286,24.698,7.6825,7.6923,9.7262,1.8035,0.12638,12.808,16.218
-15.229,-8.5079,-19.447001,-5.8537,-2.9557,-22.634001,-15.459,-10.744,2.8618,-5.8537,-2.9557,-22.66,7.619,18.032,-1.8413,-1.9231,-0.90177,-3.0274,12.449,5.9113,10.449
-20.916,-11.365,-24.325001,-11.707,-4.9261,-27.511999,-15.459,-14.628,1.8862,-11.707,-4.9261,-24.631001,2.8571,16.127001,-9.4603,-6.7308,-8.6312,-9.7907,7.7093,0.0,10.449
-26.603001,-14.222,-29.202999,-6.8293,0.0,-24.584999,-16.424999,-18.511,3.8374,-6.8293,0.0,-23.645,-1.9048,12.317,-18.032,-13.462,-16.361,-13.655,5.8136,-2.9557,5.641
-28.499001,-15.175,-31.153999,-7.8049,4.9261,-21.659,-8.6957,-17.540001,9.6911,-7.8049,4.9261,-20.690001,-10.476,1.8413,-24.698,-17.308001,-24.09,-16.554001,2.0221,-8.867,2.7564
-28.499001,-7.5556,-28.228001,-5.8537,4.9261,-17.756001,-5.7971,-17.540001,5.7886,-5.8537,4.9261,-14.778,-12.381,-3.873,-27.556,-17.308001,-26.989,-13.655,-7.4566,-12.808,0.83333
-25.656,-5.6508,-27.252001,-0.97561,6.8966,-15.805,-8.6957,-18.511,6.7642,-0.97561,6.8966,-11.823,-11.429,-8.6349,-28.507999,-19.231001,-30.853001,-9.7907,-2.7172,-10.837,-2.0513
-24.708,-6.6032,-27.252001,-7.8049,0.98522,-21.659,1.9324,-13.657,9.6911,-7.8049,0.98522,-11.823,-10.476,-7.6825,-30.413,-18.268999,-32.785999,-11.723,2.97,-8.867,-0.12821
-23.76,-8.5079,-25.301001,-8.7805,-0.98522,-16.780001,5.7971,-10.744,2.8618,-8.7805,-0.98522,-8.867,-8.5714,-6.7302,-28.507999,-18.268999,-29.886999,-13.655,4.8657,-6.8966,-5.8974
-17.125,-1.8413,-19.447001,-1.9512,3.9409,-5.0732,1.9324,-9.7735,2.8618,-1.9512,3.9409,-1.9704,-7.619,-6.7302,-23.746,-12.5,-22.158001,-13.655,3.9179,-11.823,-10.705
-10.49,3.873,-9.6911,0.0,7.8818,1.7561,5.7971,-9.7735,5.7886,0.0,7.8818,4.9261,-6.6667,-2.9206,-17.079,-3.8462,-12.496,-9.7907,6.7615,-10.837,-6.859
-2.9068,6.7302,0.06504,3.9024,14.778,6.6341,13.527,-4.9191,9.6911,3.9024,14.778,11.823,-5.7143,0.88889,-7.5556,3.8462,-3.8003,-14.622,-0.82148,-4.9261,-3.0128
12.259,21.968,14.699,12.683,22.66,18.341,25.121,4.7896,14.569,12.683,22.66,23.645,1.9048,8.5079,6.7302,16.346001,9.7262,1.8035,-2.7172,4.9261,7.5641
16.051001,21.016001,16.65,14.634,17.733999,17.365999,21.256001,8.6731,13.593,14.634,17.733999,21.674999,0.0,5.6508,9.5873,14.423,9.7262,10.499,13.397,2.9557,1.7949
16.051001,17.205999,17.625999,15.61,9.8522,14.439,24.155001,4.7896,17.496,15.61,9.8522,21.674999,-2.8571,3.746,8.6349,12.5,8.7601,4.7021,20.032,-1.9704,-2.0513
18.893999,19.111,21.528,5.8537,14.778,19.316999,21.256001,6.7314,15.545,5.8537,14.778,22.66,-0.95238,2.7937,11.492,14.423,10.692,8.5668,10.553,0.98522,-2.0513
20.790001,21.016001,24.455,7.8049,15.764,20.292999,21.256001,9.644,10.667,7.8049,15.764,22.66,0.0,3.746,13.397,17.308001,12.625,6.6345,7.7093,4.9261,-0.12821
13.207,19.111,21.528,6.8293,10.837,15.415,15.459,1.877,10.667,6.8293,10.837,18.719,-1.9048,1.8413,8.6349,16.346001,8.7601,5.6683,8.6572,0.0,2.7564
12.259,20.063,21.528,4.878,5.9113,7.6098,15.459,-0.06472,11.642,4.878,5.9113,15.764,-2.8571,3.746,5.7778,16.346001,7.7939,-11.723,4.8657,-0.98522,6.6026
7.5197,19.111,21.528,0.97561,2.9557,7.6098,17.391001,-6.8608,8.7154,0.97561,2.9557,12.808,-1.9048,0.88889,6.7302,15.385,6.8277,-1.095,2.97,1.9704,7.5641
1.8325,14.349,18.601999,-7.8049,1.9704,-0.19512,9.6618,-5.89,4.813,-7.8049,1.9704,5.9113,-3.8095,-6.7302,3.873,9.6154,2.963,7.6006,10.553,2.9557,1.7949
4.6761,10.54,18.601999,-6.8293,0.98522,-3.122,8.6957,-2.0065,4.813,-6.8293,0.98522,4.9261,-3.8095,-8.6349,3.873,7.6923,2.963,-2.0612,5.8136,3.9409,5.641
1.8325,6.7302,15.675,1.9512,0.0,-1.1707,9.6618,-5.89,7.7398,1.9512,0.0,6.8966,-3.8095,-7.6825,1.0159,5.7692,2.963,-5.9259,7.7093,-1.9704,1.7949
-0.06319,3.873,10.797,0.0,-1.9704,3.7073,5.7971,-5.89,4.813,0.0,-1.9704,7.8818,-3.8095,-14.349,-1.8413,0.0,0.06441,-3.9936,8.6572,-2.9557,-7.8205
-0.06319,1.9683,5.9187,-1.9512,0.0,3.7073,5.7971,-2.0065,2.8618,-1.9512,0.0,6.8966,-3.8095,-14.349,-5.6508,-3.8462,-2.8341,-4.9597,-8.4044,-1.9704,-8.7821
-3.8547,-3.746,-0.91057,1.9512,1.9704,-4.0976,-0.96618,-4.9191,-2.0163,1.9512,1.9704,0.0,-2.8571,-11.492,-8.5079,-7.6923,-5.7327,-19.452,-5.5608,-3.9409,-8.7821
-7.6461,-3.746,-6.7642,0.0,-2.9557,-6.0488,-6.7633,-10.744,-5.9187,0.0,-2.9557,-3.9409,-3.8095,-9.5873,-11.365,-10.577,-8.6312,-19.452,-3.6651,-6.8966,-6.859
-12.385,-10.413,-13.593,-1.9512,-2.9557,-9.9512,-10.628,-11.715,-1.0407,-1.9512,-2.9557,-6.8966,-6.6667,-7.6825,-15.175,-17.308001,-13.462,-6.8921,-0.82148,-7.8818,-6.859
-19.021,-18.983999,-20.423,-9.7561,-7.8818,-15.805,-16.424999,-16.57,-2.9919,-9.7561,-7.8818,-12.808,-8.5714,-7.6825,-19.937,-25.962,-20.225,-6.8921,-6.5087,-6.8966,-9.7436
-17.125,-15.175,-20.423,-13.659,-9.8522,-16.780001,-12.56,-11.715,-5.9187,-13.659,-9.8522,-11.823,-8.5714,-4.8254,-21.841,-27.885,-23.124001,-12.689,-10.3,-6.8966,-10.705
-13.333,-12.317,-17.496,-6.8293,0.0,-12.878,-6.7633,-2.0065,-1.0407,-6.8293,0.0,-8.867,-7.619,-3.873,-19.937,-25.0,-23.124001,-7.8583,-9.3523,-2.9557,-6.859
-11.438,-14.222,-17.496,-1.9512,-4.9261,-6.0488,-1.9324,-1.0356,-1.0407,-1.9512,-4.9261,-6.8966,-15.238,-10.54,-22.794001,-27.885,-26.989,-6.8921,0.12638,-8.867,-14.551
-7.6461,-11.365,-12.618,1.9512,-5.9113,-3.122,-1.9324,2.8479,-2.0163,1.9512,-5.9113,-3.9409,-16.190001,-13.397,-20.889,-26.923,-26.023001,-17.52,-0.82148,-10.837,-20.320999
-2.9068,-4.6984,-4.813,7.8049,10.837,2.7317,-0.96618,1.877,2.8618,7.8049,10.837,2.9557,-16.190001,-12.444,-18.032,-19.231001,-21.191999,2.7697,-1.7694,-8.867,-16.474001
-1.9589,-0.88889,-0.91057,7.8049,6.8966,5.6585,-1.9324,5.7605,-0.06504,7.8049,6.8966,4.9261,-14.286,-10.54,-17.079,-12.5,-17.327,12.432,-15.987,-11.823,-14.551
0.88468,1.0159,3.9675,4.878,4.9261,7.6098,1.9324,11.586,-1.0407,4.878,4.9261,7.8818,-5.7143,-3.873,-11.365,-6.7308,-10.564,5.6683,-4.613,-5.9113,-6.859
2.7804,1.0159,6.8943,4.878,-4.9261,13.463,4.8309,2.8479,-2.9919,4.878,-4.9261,9.8522,0.0,-0.06349,-5.6508,-2.8846,-4.7665,14.364,0.12638,-3.9409,-1.0897
4.6761,-5.6508,5.9187,1.9512,-6.8966,8.5854,2.8986,8.6731,-8.8455,1.9512,-6.8966,5.9113,0.95238,-0.06349,-3.746,-4.8077,-3.8003,6.6345,2.0221,-3.9409,-4.9359
4.6761,-8.5079,3.9675,-6.8293,-7.8818,0.78049,0.0,6.7314,-10.797,-6.8293,-7.8818,0.0,5.7143,4.6984,-0.88889,-3.8462,-0.90177,2.7697,-2.7172,-1.9704,-3.0128
9.4155,-5.6508,8.8455,-6.8293,-8.867,7.6098,-6.7633,5.7605,-6.8943,-6.8293,-8.867,1.9704,13.333,13.27,6.7302,2.8846,7.7939,-7.8583,-4.613,2.9557,5.641
7.5197,-3.746,6.8943,1.9512,-8.867,11.512,-4.8309,9.644,-9.8211,1.9512,-8.867,1.9704,13.333,12.317,6.7302,0.96154,6.8277,0.83736,-13.144,5.9113,5.641
-1.0111,-9.4603,-0.91057,1.9512,-3.9409,1.7561,-5.7971,9.644,-10.797,1.9512,-3.9409,-4.9261,9.5238,7.5556,0.06349,-5.7692,0.06441,0.83736,-10.3,0.98522,3.7179
-8.594,-13.27,-8.7154,-1.9512,0.98522,-4.0976,-14.493,-1.0356,-5.9187,-1.9512,0.98522,-11.823,4.7619,5.6508,-6.6032,-9.6154,-4.7665,-4.9597,2.97,-0.98522,4.6795
-18.073,-15.175,-18.472,-8.7805,-9.8522,-12.878,-17.391001,-12.686,-9.8211,-8.7805,-9.8522,-19.704,-2.8571,2.7937,-14.222,-14.423,-12.496,-3.9936,4.8657,-4.9261,4.6795
-24.708,-19.937,-26.275999,-19.511999,-18.719,-22.634001,-23.188,-10.744,-14.699,-19.511999,-18.719,-27.586,-10.476,-1.0159,-20.889,-19.231001,-19.259001,-5.9259,2.0221,-12.808,1.7949
-22.812,-18.983999,-27.252001,-15.61,-14.778,-22.634001,-24.155001,1.877,-16.65,-15.61,-14.778,-27.586,-13.333,-5.7778,-20.889,-18.268999,-22.158001,-10.757,-4.613,-11.823,-0.12821
-15.229,-9.4603,-22.374001,-15.61,-13.793,-13.854,-19.323999,4.7896,-17.625999,-15.61,-13.793,-19.704,-10.476,-5.7778,-17.079,-12.5,-20.225,-8.8245,-5.5608,-7.8818,3.7179
-12.385,-5.6508,-19.447001,-6.8293,-13.793,-8.0,-14.493,6.7314,-11.772,-6.8293,-13.793,-15.764,-8.5714,-3.873,-14.222,-8.6538,-18.292999,4.7021,0.12638,-1.9704,5.641
-7.6461,-5.6508,-16.52,0.97561,-4.9261,-6.0488,-12.56,6.7314,-8.8455,0.97561,-4.9261,-10.837,-7.619,-2.9206,-10.413,-3.8462,-14.428,11.465,-6.5087,4.9261,8.5256
-3.8547,-4.6984,-11.642,-0.97561,-3.9409,-0.19512,-11.594,7.7023,-7.8699,-0.97561,-3.9409,-6.8966,-4.7619,-4.8254,-6.6032,-0.96154,-8.6312,20.160999,-2.7172,9.8522,4.6795
-4.8025,-5.6508,-11.642,0.0,-9.8522,-0.19512,-8.6957,6.7314,-12.748,0.0,-9.8522,-5.9113,-10.476,-11.492,-8.5079,-4.8077,-9.5974,12.432,3.9179,5.9113,-4.9359
-8.594,-9.4603,-15.545,-0.97561,-7.8818,-1.1707,-7.7295,6.7314,-12.748,-0.97561,-7.8818,-9.8522,-14.286,-14.349,-9.4603,-7.6923,-10.564,3.7359,-7.4566,-1.9704,-9.7436
-5.7504,-8.5079,-11.642,1.9512,0.98522,0.78049,-5.7971,5.7605,-6.8943,1.9512,0.98522,-7.8818,-6.6667,-5.7778,-4.6984,-1.9231,-2.8341,4.7021,-1.7694,0.0,-6.859
-8.594,-5.6508,-10.667,0.97561,0.0,-10.927,-9.6618,7.7023,1.8862,0.97561,0.0,-10.837,-0.95238,-0.06349,-0.88889,1.9231,4.8953,-0.12882,2.0221,2.9557,-4.9359
-10.49,-1.8413,-8.7154,0.0,0.98522,-14.829,-4.8309,10.615,4.813,0.0,0.98522,-11.823,4.7619,6.6032,2.9206,7.6923,10.692,2.7697,-1.7694,4.9261,2.7564
-17.125,-4.6984,-13.593,-4.878,-0.98522,-17.756001,-9.6618,-2.9773,1.8862,-4.878,-0.98522,-16.749001,3.8095,7.5556,-0.88889,4.8077,7.7939,3.7359,-2.7172,0.0,-2.0513
-19.968,-10.413,-16.52,-3.9024,-4.9261,-21.659,-11.594,-9.7735,0.91057,-3.9024,-4.9261,-17.733999,0.95238,3.746,-6.6032,-0.96154,1.9968,-3.9936,3.9179,-4.9261,-7.8205
-15.229,-7.5556,-12.618,0.0,0.0,-9.9512,0.96618,-6.8608,0.91057,0.0,0.0,-9.8522,0.0,-1.9683,-8.5079,-2.8846,-1.868,-7.8583,-2.7172,-8.867,-10.705
-8.594,-7.5556,-8.7154,-1.9512,3.9409,-2.1463,3.8647,2.8479,3.8374,-1.9512,3.9409,-1.9704,0.0,-5.7778,-6.6032,-4.8077,-3.8003,-9.7907,-4.613,-11.823,-11.667
2.7804,2.9206,0.06504,7.8049,8.867,12.488,11.594,5.7605,5.7886,7.8049,8.867,6.8966,3.8095,-4.8254,0.06349,-0.96154,-0.90177,-11.723,6.7615,-5.9113,-6.859
6.5719,4.8254,2.9919,6.8293,8.867,13.463,6.7633,0.90615,6.7642,6.8293,8.867,6.8966,2.8571,-6.7302,2.9206,0.0,0.06441,-11.723,6.7615,-3.9409,-4.9359
6.5719,7.6825,7.8699,3.9024,9.8522,9.561,8.6957,4.7896,6.7642,3.9024,9.8522,6.8966,-0.95238,-10.54,4.8254,1.9231,1.0306,-1.095,6.7615,-5.9113,-3.9744
9.4155,16.254,13.724,6.8293,6.8966,10.537,11.594,10.615,4.813,6.8293,6.8966,10.837,-2.8571,-11.492,7.6825,7.6923,4.8953,4.7021,3.9179,-4.9261,-0.12821
15.103,18.159,20.552999,13.659,5.9113,13.463,11.594,11.586,5.7886,13.659,5.9113,14.778,-0.95238,-10.54,13.397,13.462,9.7262,2.7697,11.501,-2.9557,1.7949
18.893999,17.205999,23.48,12.683,0.98522,16.389999,10.628,6.7314,5.7886,12.683,0.98522,14.778,0.0,-10.54,17.205999,16.346001,13.591,2.7697,0.12638,-2.9557,4.6795
21.738001,14.349,25.431,4.878,2.9557,15.415,13.527,8.6731,0.91057,4.878,2.9557,14.778,3.8095,-7.6825,21.968,17.308001,18.422001,7.6006,5.8136,1.9704,1.7949
24.580999,11.492,26.407,8.7805,6.8966,18.341,8.6957,10.615,1.8862,8.7805,6.8966,14.778,6.6667,-3.873,25.778,18.268999,21.32,-5.9259,11.501,3.9409,-1.0897
21.738001,10.54,26.407,6.8293,9.8522,13.463,8.6957,14.498,5.7886,6.8293,9.8522,12.808,11.429,4.6984,26.73,20.191999,25.184999,3.7359,-0.82148,5.9113,5.641
16.997999,6.7302,22.504,8.7805,6.8966,11.512,6.7633,7.7023,0.91057,8.7805,6.8966,10.837,11.429,4.6984,23.872999,16.346001,23.253,16.296,-3.6651,7.8818,6.6026
9.4155,1.0159,15.675,9.7561,0.98522,3.7073,1.9324,7.7023,-2.9919,9.7561,0.98522,4.9261,9.5238,2.7937,17.205999,9.6154,17.455999,12.432,-15.039,7.8818,-2.0513
4.6761,-8.5079,6.8943,0.97561,-5.9113,-5.0732,-3.8647,3.8188,-3.9675,0.97561,-5.9113,0.98522,4.7619,-1.9683,10.54,-1.9231,8.7601,8.5668,-3.6651,6.8966,-9.7436
0.88468,-14.222,2.0163,-1.9512,-1.9704,-5.0732,-9.6618,2.8479,-1.0407,-1.9512,-1.9704,0.0,1.9048,-5.7778,5.7778,-8.6538,1.9968,10.499,0.12638,3.9409,-11.667
-1.0111,-14.222,-1.8862,-0.97561,2.9557,2.7317,-7.7295,-2.9773,1.8862,-0.97561,2.9557,0.0,-1.9048,-10.54,0.06349,-15.385,-5.7327,2.7697,-7.4566,-2.9557,-17.436001
1.8325,-13.27,-0.91057,0.97561,7.8818,-0.19512,-0.96618,2.8479,8.7154,0.97561,7.8818,2.9557,-5.7143,-15.302,-0.88889,-17.308001,-9.5974,-11.723,-15.039,-5.9113,-20.320999
-0.06319,-17.079,-1.8862,0.97561,8.867,-6.0488,-1.9324,8.6731,10.667,0.97561,8.867,1.9704,-8.5714,-20.063,-2.7937,-20.191999,-12.496,-1.095,-12.196,-3.9409,-24.167
2.7804,-15.175,0.06504,4.878,7.8818,0.78049,1.9324,3.8188,9.6911,4.878,7.8818,4.9261,-9.5238,-21.016001,-2.7937,-17.308001,-11.53,11.465,-4.613,-2.9557,-23.205
8.4676,-3.746,8.8455,4.878,4.9261,8.5854,10.628,6.7314,10.667,4.878,4.9261,10.837,-10.476,-18.159,0.06349,-5.7692,-4.7665,12.432,-0.82148,-4.9261,-13.59
13.207,3.873,14.699,5.8537,2.9557,15.415,11.594,4.7896,9.6911,5.8537,2.9557,14.778,-10.476,-18.159,3.873,0.96154,1.0306,6.6345,10.553,-6.8966,-12.628
17.945999,11.492,21.528,8.7805,7.8818,20.292999,13.527,3.8188,8.7154,8.7805,7.8818,18.719,-7.619,-15.302,10.54,8.6538,8.7601,3.7359,14.344,-3.9409,-11.667
24.580999,21.968,29.333,5.8537,11.823,21.268,15.459,7.7023,12.618,5.8537,11.823,23.645,0.0,-9.5873,20.063,18.268999,18.422001,9.533,11.501,1.9704,-4.9359
28.372999,26.73,33.236,8.7805,12.808,26.146,19.323999,2.8479,14.569,8.7805,12.808,24.631001,0.95238,-6.7302,24.825001,23.077,22.287001,6.6345,2.97,0.0,0.83333
31.216,22.921,33.236,12.683,9.8522,27.122,27.052999,10.615,10.667,12.683,9.8522,24.631001,4.7619,-1.9683,27.683001,24.038,24.219,-0.12882,10.553,4.9261,5.641
26.476999,21.968,30.309,4.878,6.8966,17.365999,27.052999,12.557,4.813,4.878,6.8966,18.719,8.5714,-0.06349,26.73,23.077,24.219,-0.12882,8.6572,8.867,7.5641
21.738001,20.063,24.455,-1.9512,-6.8966,10.537,15.459,6.7314,4.813,-1.9512,-6.8966,12.808,10.476,5.6508,24.825001,22.115,23.253,6.6345,6.7615,9.8522,10.449
22.686001,19.111,24.455,3.9024,-1.9704,14.439,11.594,5.7605,3.8374,3.9024,-1.9704,11.823,15.238,13.27,26.73,23.077,26.150999,10.499,3.9179,13.793,17.179001
16.051001,11.492,17.625999,0.97561,4.9261,7.6098,3.8647,2.8479,0.91057,0.97561,4.9261,3.9409,13.333,9.4603,21.968,16.346001,22.287001,6.6345,-5.5608,11.823,10.449
9.4155,3.873,9.8211,-0.97561,1.9704,4.6829,-0.96618,-2.9773,0.91057,-0.97561,1.9704,-0.98522,9.5238,8.5079,14.349,9.6154,17.455999,-1.095,3.9179,0.98522,2.7564
4.6761,-1.8413,3.9675,-1.9512,0.0,4.6829,1.9324,-9.7735,-1.0407,-1.9512,0.0,-0.98522,7.619,8.5079,8.6349,2.8846,11.659,-1.095,3.9179,0.0,0.83333
0.88468,-8.5079,-1.8862,0.0,-3.9409,-4.0976,0.96618,1.877,1.8862,0.0,-3.9409,-1.9704,6.6667,7.5556,5.7778,-3.8462,6.8277,-4.9597,-1.7694,5.9113,-1.0897
-2.9068,-11.365,-6.7642,-3.9024,-4.9261,-9.9512,-2.8986,8.6731,-1.0407,-3.9024,-4.9261,-3.9409,3.8095,1.8413,0.06349,-12.5,-0.90177,-2.0612,-17.882999,6.8966,-8.7821
2.7804,-11.365,-2.8618,5.8537,1.9704,3.7073,-4.8309,10.615,-3.9675,5.8537,1.9704,3.9409,5.7143,3.746,1.9683,-16.346001,-1.868,13.398,-17.882999,10.837,-8.7821
2.7804,-20.889,-6.7642,14.634,9.8522,3.7073,-5.7971,15.469,-0.06504,14.634,9.8522,3.9409,5.7143,4.6984,1.0159,-24.038,-5.7327,19.195,-6.5087,12.808,-9.7436
-0.06319,-32.317001,-15.545,14.634,4.9261,1.7561,-9.6618,11.586,-1.0407,14.634,4.9261,-0.98522,3.8095,0.88889,-2.7937,-34.615002,-14.428,21.127001,-8.4044,13.793,-18.396999
-1.0111,-35.174999,-20.423,6.8293,0.0,0.78049,-14.493,4.7896,-1.0407,6.8293,0.0,-5.9113,0.95238,-1.9683,-3.746,-36.537998,-19.259001,17.261999,-9.3523,14.778,-18.396999
-2.9068,-30.413,-22.374001,0.0,0.98522,-3.122,-19.323999,3.8188,-2.9919,0.0,0.98522,-10.837,-10.476,-11.492,-6.6032,-31.731001,-21.191999,1.8035,-13.144,4.9261,-15.513
-7.6461,-22.794001,-19.447001,-7.8049,-1.9704,-4.0976,-16.424999,-2.9773,-4.9431,-7.8049,-1.9704,-10.837,-18.094999,-19.111,-8.5079,-23.077,-20.225,4.7021,-13.144,-0.98522,-14.551
-9.5419,-15.175,-16.52,-14.634,-14.778,-8.9756,-16.424999,-4.9191,-5.9187,-14.634,-14.778,-11.823,-20.952,-19.111,-8.5079,-13.462,-16.361,5.6683,-12.196,-3.9409,-8.7821
-5.7504,-4.6984,-9.6911,-8.7805,-3.9409,-10.927,-10.628,-0.06472,-2.9919,-8.7805,-3.9409,-8.867,-18.094999,-16.254,-3.746,-0.96154,-7.6651,-1.095,2.97,-3.9409,-1.0897
-8.594,3.873,-5.7886,0.97561,3.9409,-8.9756,-4.8309,-9.7735,2.8618,0.97561,3.9409,-7.8818,-15.238,-15.302,-2.7937,8.6538,-1.868,-5.9259,11.501,-10.837,6.6026
-11.438,12.444,-4.813,-4.878,-0.98522,-13.854,0.96618,-12.686,4.813,-4.878,-0.98522,-7.8818,-11.429,-10.54,-3.746,15.385,1.9968,-10.757,12.449,-12.808,10.449
-11.438,18.159,-3.8374,-13.659,-1.9704,-16.780001,1.9324,-18.511,7.7398,-13.659,-1.9704,-7.8818,-7.619,-7.6825,-1.8413,20.191999,6.8277,-11.723,5.8136,-6.8966,14.295
-12.385,21.968,-2.8618,-11.707,-3.9409,-13.854,0.96618,-25.306999,7.7398,-11.707,-3.9409,-8.867,-2.8571,-2.9206,-0.88889,23.077,10.692,-15.588,18.136,-5.9113,14.295
-6.6983,22.921,2.9919,-6.8293,-2.9557,-9.9512,6.7633,-12.686,10.667,-6.8293,-2.9557,-2.9557,3.8095,8.5079,5.7778,27.885,17.455999,-12.689,28.562,-1.9704,20.063999
-3.8547,24.825001,8.8455,-5.8537,5.9113,-12.878,9.6618,-8.8026,9.6911,-5.8537,5.9113,0.0,6.6667,13.27,8.6349,30.768999,22.287001,-12.689,18.136,0.0,22.948999
-3.8547,21.016001,7.8699,-6.8293,6.8966,-13.854,7.7295,-20.452999,3.8374,-6.8293,6.8966,-0.98522,6.6667,10.413,6.7302,26.923,20.354,-11.723,9.6051,-0.98522,18.141001
-1.9589,17.205999,4.9431,0.97561,1.9704,-11.902,2.8986,-6.8608,5.7886,0.97561,1.9704,-2.9557,8.5714,11.365,6.7302,24.038,18.422001,-4.9597,-0.82148,3.9409,20.063999
-1.9589,11.492,1.0407,1.9512,-3.9409,-8.0,-3.8647,-1.0356,0.91057,1.9512,-3.9409,-5.9113,4.7619,7.5556,2.9206,15.385,11.659,-3.9936,7.7093,1.9704,11.41
-1.9589,1.0159,-2.8618,1.9512,-8.867,-5.0732,-5.7971,-2.0065,-2.0163,1.9512,-8.867,-5.9113,1.9048,4.6984,-0.88889,4.8077,4.8953,1.8035,8.6572,0.0,3.7179
4.6761,0.06349,0.06504,6.8293,-2.9557,3.7073,-1.9324,0.90615,-2.0163,6.8293,-2.9557,0.98522,6.6667,4.6984,2.9206,1.9231,4.8953,-2.0612,-5.5608,4.9261,-0.12821
6.5719,-1.8413,2.0163,4.878,-1.9704,6.6341,0.96618,13.528,-5.9187,4.878,-1.9704,5.9113,8.5714,3.746,3.873,-2.8846,2.963,10.499,-15.039,7.8818,-3.9744
5.624,-3.746,1.0407,7.8049,4.9261,8.5854,0.96618,21.294001,-7.8699,7.8049,4.9261,8.867,5.7143,-1.0159,1.0159,-8.6538,-1.868,21.127001,-18.830999,4.9261,-9.7436
7.5197,-5.6508,-0.91057,9.7561,7.8818,12.488,-1.9324,19.353001,0.91057,9.7561,7.8818,9.8522,3.8095,-2.9206,1.9683,-12.5,-4.7665,17.261999,-10.3,7.8818,-13.59
5.624,-13.27,-6.7642,9.7561,-0.98522,10.537,3.8647,19.353001,2.8618,9.7561,-0.98522,4.9261,-1.9048,-8.6349,-1.8413,-17.308001,-10.564,20.160999,-8.4044,8.867,-16.474001
4.6761,-16.127001,-12.618,12.683,0.0,8.5854,4.8309,13.528,5.7886,12.683,0.0,1.9704,-5.7143,-15.302,-4.6984,-20.191999,-14.428,17.261999,-7.4566,0.98522,-20.320999
2.7804,-18.032,-16.52,9.7561,-2.9557,7.6098,-5.7971,11.586,4.813,9.7561,-2.9557,-1.9704,-8.5714,-18.159,-7.5556,-20.191999,-17.327,9.533,-3.6651,-2.9557,-19.358999
0.88468,-9.4603,-14.569,8.7805,6.8966,9.561,-6.7633,9.644,6.7642,8.7805,6.8966,-1.9704,-9.5238,-16.254,-6.6032,-12.5,-16.361,7.6006,-19.778999,0.0,-9.7436
-1.9589,-1.8413,-14.569,8.7805,7.8818,6.6341,-2.8986,9.644,0.91057,8.7805,7.8818,-2.9557,-10.476,-16.254,-8.5079,-10.577,-16.361,5.6683,1.0742,0.98522,-6.859
-12.385,-3.746,-19.447001,-0.97561,-1.9704,-5.0732,-6.7633,7.7023,-2.0163,-0.97561,-1.9704,-9.8522,-14.286,-19.111,-13.27,-11.538,-20.225,9.533,16.24,-1.9704,-8.7821
-14.281,0.06349,-16.52,-13.659,-7.8818,-7.0244,-3.8647,-6.8608,-2.0163,-13.659,-7.8818,-11.823,-15.238,-18.159,-14.222,-6.7308,-19.259001,1.8035,11.501,-1.9704,-2.0513
-12.385,5.7778,-12.618,-18.537001,-12.808,-8.0,0.96618,-11.715,-2.0163,-18.537001,-12.808,-11.823,-17.143,-12.444,-13.27,0.96154,-16.361,-5.9259,11.501,-6.8966,8.5256
-4.8025,15.302,-2.8618,-5.8537,-6.8966,-4.0976,8.6957,-9.7735,2.8618,-5.8537,-6.8966,-5.9113,-11.429,-2.9206,-6.6032,11.538,-6.6989,-3.0274,10.553,-4.9261,18.141001
2.7804,21.968,6.8943,-4.878,-3.9409,-1.1707,11.594,-7.8317,-0.06504,-4.878,-3.9409,-0.98522,-2.8571,0.88889,3.873,19.231001,4.8953,-3.0274,19.084,1.9704,19.103001
12.259,25.778,16.65,-2.9268,3.9409,5.6585,10.628,-10.744,-1.0407,-2.9268,3.9409,4.9261,1.9048,6.6032,12.444,25.962,14.557,-10.757,13.397,6.8966,23.91
16.997999,29.587,24.455,-1.9512,5.9113,8.5854,15.459,-2.9773,-2.0163,-1.9512,5.9113,10.837,6.6667,15.175,17.205999,29.808001,21.32,-0.12882,4.8657,10.837,27.756001
17.945999,27.683001,27.382,-3.9024,0.98522,7.6098,20.290001,6.7314,-3.9675,-3.9024,0.98522,13.793,14.286,18.983999,21.968,28.846001,26.150999,1.8035,5.8136,15.764,22.948999
17.945999,23.872999,30.309,-2.9268,-1.9704,10.537,22.222,1.877,-6.8943,-2.9268,-1.9704,15.764,18.094999,23.746,21.968,26.923,28.084,-5.9259,0.12638,14.778,20.063999
16.997999,22.921,31.285,-9.7561,-0.98522,14.439,23.188,-2.9773,-8.8455,-9.7561,-0.98522,17.733999,22.857,29.459999,21.968,25.962,29.049999,1.8035,-2.7172,17.733999,20.063999
15.103,17.205999,28.358,-5.8537,6.8966,17.365999,20.290001,-9.7735,-4.9431,-5.8537,6.8966,16.749001,21.905001,26.603001,18.159,18.268999,25.184999,-8.8245,-0.82148,13.793,13.333
15.103,12.444,26.407,5.8537,10.837,13.463,20.290001,-5.89,0.91057,5.8537,10.837,16.749001,22.857,25.650999,16.254,13.462,24.219,-10.757,-0.82148,5.9113,9.4872
9.4155,6.7302,21.528,12.683,16.749001,6.6341,16.424999,-9.7735,2.8618,12.683,16.749001,14.778,20.0,22.794001,9.5873,8.6538,19.388,-10.757,-14.092,-0.98522,4.6795
7.5197,6.7302,17.625999,13.659,19.704,5.6585,5.7971,-1.0356,3.8374,13.659,19.704,13.793,14.286,18.983999,4.8254,5.7692,14.557,-12.689,-17.882999,-1.9704,0.83333
7.5197,2.9206,14.699,14.634,18.719,7.6098,5.7971,6.7314,5.7886,14.634,18.719,13.793,9.5238,9.4603,1.9683,1.9231,10.692,-16.554001,-6.5087,-3.9409,-1.0897
2.7804,-3.746,6.8943,13.659,14.778,8.5854,3.8647,-6.8608,8.7154,13.659,14.778,10.837,4.7619,-0.06349,-2.7937,-4.8077,2.963,-19.452,4.8657,-4.9261,-7.8205
-4.8025,-4.6984,-1.8862,5.8537,11.823,-0.19512,-0.96618,-9.7735,8.7154,5.8537,11.823,3.9409,-3.8095,-5.7778,-8.5079,-7.6923,-3.8003,-15.588,9.6051,-9.8522,-12.628
-11.438,-6.6032,-8.7154,-0.97561,8.867,-8.0,-5.7971,-20.452999,4.813,-0.97561,8.867,-2.9557,-12.381,-9.5873,-15.175,-8.6538,-10.564,-20.419001,4.8657,-16.749001,-10.705
-14.281,-6.6032,-11.642,-6.8293,-5.9113,-8.0,-2.8986,-22.395,9.6911,-6.8293,-5.9113,-5.9113,-18.094999,-10.54,-18.032,-7.6923,-14.428,-24.283001,8.6572,-22.66,-4.9359
-18.073,-5.6508,-15.545,-2.9268,-4.9261,-9.9512,-3.8647,-21.424,8.7154,-2.9268,-4.9261,-7.8818,-20.0,-13.397,-20.889,-8.6538,-18.292999,-21.385,13.397,-21.674999,-2.0513
-16.177,-1.8413,-14.569,-0.97561,-2.9557,-12.878,-8.6957,-15.599,7.7398,-0.97561,-2.9557,-7.8818,-22.857,-13.397,-19.937,-6.7308,-20.225,-6.8921,2.97,-18.719,1.7949
-11.438,1.9683,-7.7398,0.97561,2.9557,-11.902,-12.56,-4.9191,5.7886,0.97561,2.9557,-4.9261,-24.761999,-11.492,-18.032,-3.8462,-19.259001,-3.0274,11.501,-18.719,6.6026
-8.594,-1.8413,-4.813,0.97561,3.9409,-8.0,-6.7633,-5.89,2.8618,0.97561,3.9409,-1.9704,-26.667,-13.397,-18.983999,-5.7692,-20.225,-2.0612,20.979,-17.733999,0.83333
-3.8547,-1.8413,-2.8618,0.0,-1.9704,-2.1463,3.8647,-5.89,3.8374,0.0,-1.9704,3.9409,-26.667,-15.302,-18.032,-7.6923,-22.158001,-5.9259,15.292,-14.778,-2.0513
-1.0111,2.9206,1.0407,3.9024,-0.98522,4.6829,10.628,1.877,3.8374,3.9024,-0.98522,7.8818,-22.857,-8.6349,-14.222,-3.8462,-18.292999,-2.0612,13.397,-10.837,3.7179
6.5719,8.6349,7.8699,4.878,4.9261,12.488,15.459,11.586,7.7398,4.878,4.9261,13.793,-14.286,-0.06349,-6.6032,0.0,-11.53,11.465,6.7615,-3.9409,6.6026
6.5719,13.397,9.8211,7.8049,0.0,16.389999,17.391001,5.7605,7.7398,7.8049,0.0,14.778,-11.429,0.88889,-6.6032,1.9231,-11.53,13.398,7.7093,-3.9409,11.41
-1.0111,10.54,5.9187,9.7561,1.9704,7.6098,9.6618,12.557,4.813,9.7561,1.9704,11.823,-14.286,-3.873,-12.317,-3.8462,-17.327,11.465,15.292,-5.9113,1.7949
-1.0111,4.8254,3.9675,11.707,12.808,6.6341,4.8309,14.498,8.7154,11.707,12.808,11.823,-13.333,-5.7778,-14.222,-8.6538,-20.225,7.6006,16.24,-7.8818,-5.8974
-0.06319,1.9683,2.9919,12.683,18.719,9.561,10.628,11.586,4.813,12.683,18.719,12.808,-13.333,-8.6349,-15.175,-9.6154,-20.225,-0.12882,5.8136,-8.867,-7.8205
4.6761,0.06349,2.9919,12.683,11.823,15.415,13.527,13.528,6.7642,12.683,11.823,14.778,-11.429,-10.54,-14.222,-10.577,-19.259001,0.83736,-8.4044,-6.8966,-11.667
9.4155,0.06349,3.9675,15.61,15.764,20.292999,15.459,16.440001,5.7886,15.61,15.764,16.749001,-9.5238,-10.54,-10.413,-9.6154,-16.361,6.6345,1.0742,-4.9261,-11.667
9.4155,0.06349,4.9431,15.61,10.837,21.268,16.424999,17.410999,3.8374,15.61,10.837,14.778,-8.5714,-11.492,-7.5556,-7.6923,-13.462,11.465,0.12638,-3.9409,-13.59
10.363,2.9206,6.8943,18.537001,8.867,18.341,7.7295,15.469,4.813,18.537001,8.867,10.837,-6.6667,-8.6349,-3.746,-3.8462,-9.5974,14.364,-2.7172,-3.9409,-11.667
4.6761,1.9683,3.9675,14.634,10.837,14.439,-1.9324,11.586,0.91057,14.634,10.837,4.9261,-1.9048,-5.7778,-1.8413,-3.8462,-6.6989,12.432,-5.5608,-3.9409,-9.7436
-1.9589,-2.7937,-4.813,7.8049,2.9557,1.7561,-8.6957,9.644,-2.0163,7.8049,2.9557,-5.9113,1.9048,-1.0159,-1.8413,-3.8462,-5.7327,4.7021,-19.778999,-5.9113,-4.9359
-7.6461,-12.317,-13.593,-2.9268,-6.8966,-13.854,-21.256001,-1.0356,-2.0163,-2.9268,-6.8966,-17.733999,7.619,1.8413,-2.7937,-5.7692,-4.7665,-0.12882,-0.82148,-2.9557,-3.9744
-19.021,-21.841,-24.325001,-21.462999,-20.690001,-26.537001,-34.783001,-13.657,-13.724,-21.462999,-20.690001,-32.512001,5.7143,3.746,-6.6032,-12.5,-6.6989,-7.8583,16.24,-4.9261,-5.8974
-21.864,-19.937,-24.325001,-32.195,-28.570999,-32.389999,-35.749001,-22.395,-15.675,-32.195,-28.570999,-36.452999,10.476,11.365,-6.6032,-8.6538,-2.8341,-13.655,7.7093,-3.9409,0.83333
-24.708,-18.983999,-24.325001,-32.195,-32.512001,-36.292999,-33.816002,-24.337,-10.797,-32.195,-32.512001,-38.424,18.094999,19.937,-3.746,-4.8077,3.9291,-12.689,-8.4044,-1.9704,5.641
-24.708,-21.841,-25.301001,-33.171001,-28.570999,-34.341,-32.849998,-29.191,-10.797,-33.171001,-28.570999,-38.424,25.714001,26.603001,0.06349,-3.8462,8.7601,-8.8245,-7.4566,1.9704,9.4872
-23.76,-20.889,-24.325001,-32.195,-18.719,-36.292999,-33.816002,-24.337,-7.8699,-32.195,-18.719,-36.452999,29.524,29.459999,1.9683,-1.9231,11.659,-10.757,-1.7694,6.8966,12.372
-19.968,-17.079,-20.423,-21.462999,-16.749001,-27.511999,-25.121,-24.337,-6.8943,-21.462999,-16.749001,-29.556999,32.381001,30.413,3.873,0.0,14.557,-9.7907,0.12638,9.8522,12.372
-18.073,-14.222,-17.496,-19.511999,-17.733999,-30.438999,-17.391001,-14.628,-7.8699,-19.511999,-17.733999,-26.601,32.381001,31.365,4.8254,2.8846,17.455999,-17.52,-7.4566,8.867,16.218
-11.438,-9.4603,-11.642,-17.561001,-14.778,-23.610001,-8.6957,-3.9482,-3.9675,-17.561001,-14.778,-17.733999,35.237999,33.27,9.5873,6.7308,20.354,-8.8245,-4.613,12.808,14.295
-8.594,-6.6032,-7.7398,-17.561001,-8.867,-14.829,-5.7971,-7.8317,0.91057,-17.561001,-8.867,-12.808,33.333,30.413,10.54,6.7308,20.354,-3.0274,-7.4566,13.793,8.5256
-6.6983,-3.746,-3.8374,-11.707,-4.9261,-9.9512,-2.8986,-10.744,2.8618,-11.707,-4.9261,-6.8966,27.618999,21.841,8.6349,5.7692,17.455999,-4.9597,-4.613,5.9113,5.641
1.8325,1.9683,4.9431,1.9512,8.867,-4.0976,2.8986,-3.9482,7.7398,1.9512,8.867,3.9409,25.714001,15.175,11.492,7.6923,16.49,-3.9936,5.8136,8.867,4.6795
12.259,11.492,15.675,4.878,17.733999,7.6098,16.424999,5.7605,9.6911,4.878,17.733999,15.764,26.667,8.5079,18.159,11.538,19.388,3.7359,3.9179,19.704,2.7564
16.051001,15.302,19.577,10.732,17.733999,17.365999,19.323999,10.615,9.6911,10.732,17.733999,20.690001,21.905001,1.8413,18.159,11.538,17.455999,10.499,2.0221,20.690001,-3.0128
20.790001,18.159,23.48,17.561001,9.8522,32.0,25.121,4.7896,10.667,17.561001,9.8522,26.601,17.143,-3.873,19.111,10.577,13.591,17.261999,-10.3,19.704,-3.0128
18.893999,14.349,19.577,15.61,10.837,18.341,27.052999,22.264999,6.7642,15.61,10.837,22.66,9.5238,-9.5873,15.302,4.8077,5.8615,14.364,-7.4566,15.764,-7.8205
18.893999,10.54,15.675,13.659,9.8522,13.463,26.087,29.061001,0.91057,13.659,9.8522,21.674999,3.8095,-13.397,11.492,-0.96154,-0.90177,21.127001,-0.82148,12.808,-12.628
14.155,7.6825,11.772,12.683,14.778,20.292999,18.357,26.149,0.91057,12.683,14.778,19.704,-0.95238,-9.5873,5.7778,-3.8462,-6.6989,26.924,-5.5608,11.823,-11.667
9.4155,0.06349,2.9919,12.683,16.749001,19.316999,2.8986,23.236,-1.0407,12.683,16.749001,14.778,-3.8095,-3.873,0.06349,-10.577,-13.462,24.992001,-11.248,6.8966,-8.7821
5.624,-4.6984,-4.813,9.7561,7.8818,12.488,-2.8986,18.382,-4.9431,9.7561,7.8818,8.867,-6.6667,-1.0159,-5.6508,-15.385,-19.259001,23.059999,-20.726999,4.9261,-4.9359
-4.8025,-15.175,-17.496,4.878,-3.9409,5.6585,-8.6957,3.8188,-10.797,4.878,-3.9409,-2.9557,-12.381,-3.873,-17.079,-25.0,-28.921,11.465,-12.196,0.0,-7.8205
-12.385,-23.746,-26.275999,1.9512,-13.793,-4.0976,-15.459,3.8188,-13.724,1.9512,-13.793,-12.808,-16.190001,-3.873,-24.698,-28.846001,-34.717999,4.7021,-12.196,-7.8818,-3.0128
-19.968,-30.413,-32.130001,-7.8049,-23.645,-12.878,-24.155001,2.8479,-10.797,-7.8049,-23.645,-18.719,-18.094999,-7.6825,-29.459999,-31.731001,-38.583,-6.8921,-5.5608,-13.793,-7.8205
-27.551001,-33.27,-37.984001,-9.7561,-10.837,-20.683001,-27.052999,-2.0065,-6.8943,-9.7561,-10.837,-23.645,-22.857,-10.54,-34.222,-34.615002,-43.414001,-11.723,-1.7694,-17.733999,-12.628
-24.708,-26.603001,-34.081001,-10.732,1.9704,-14.829,-24.155001,-4.9191,-6.8943,-10.732,1.9704,-19.704,-20.952,-8.6349,-31.365,-27.885,-39.549,-2.0612,-6.5087,-16.749001,-6.859
-21.864,-22.794001,-30.179001,-6.8293,-3.9409,-15.805,-23.188,-9.7735,-7.8699,-6.8293,-3.9409,-17.733999,-16.190001,-5.7778,-27.556,-22.115,-34.717999,3.7359,-6.5087,-10.837,-2.0513
-20.916,-15.175,-23.35,-3.9024,-9.8522,-16.780001,-18.357,-6.8608,-7.8699,-3.9024,-9.8522,-14.778,-16.190001,-7.6825,-24.698,-17.308001,-29.886999,-0.12882,4.8657,-10.837,0.83333
-21.864,-11.365,-18.472,-9.7561,-8.867,-13.854,-10.628,-9.7735,-1.0407,-9.7561,-8.867,-12.808,-18.094999,-7.6825,-24.698,-13.462,-26.023001,-4.9597,9.6051,-16.749001,0.83333
-15.229,-2.7937,-12.618,-2.9268,-4.9261,-6.0488,-3.8647,-6.8608,3.8374,-2.9268,-4.9261,-5.9113,-15.238,-6.7302,-18.983999,-8.6538,-20.225,-5.9259,6.7615,-10.837,0.83333
-6.6983,7.6825,-3.8374,8.7805,0.98522,-7.0244,0.0,-0.06472,3.8374,8.7805,0.98522,0.0,-9.5238,-2.9206,-10.413,0.96154,-10.564,-4.9597,-1.7694,-5.9113,7.5641
-0.06319,8.6349,3.9675,10.732,6.8966,-1.1707,9.6618,-0.06472,5.7886,10.732,6.8966,4.9261,-7.619,-1.0159,-5.6508,4.8077,-4.7665,-10.757,8.6572,-4.9261,6.6026
0.88468,6.7302,5.9187,7.8049,11.823,6.6341,11.594,2.8479,4.813,7.8049,11.823,7.8818,-11.429,-3.873,-7.5556,2.8846,-5.7327,1.8035,14.344,-5.9113,1.7949
0.88468,11.492,5.9187,5.8537,8.867,5.6585,12.56,5.7605,0.91057,5.8537,8.867,6.8966,-12.381,-6.7302,-7.5556,3.8462,-4.7665,7.6006,5.8136,-6.8966,-0.12821
1.8325,9.5873,3.9675,10.732,3.9409,6.6341,8.6957,6.7314,-1.0407,10.732,3.9409,6.8966,-19.048,-12.444,-10.413,0.0,-7.6651,6.6345,3.9179,-10.837,-3.0128
3.7283,3.873,1.0407,15.61,-2.9557,13.463,3.8647,-5.89,1.8862,15.61,-2.9557,7.8818,-23.809999,-18.159,-11.365,-5.7692,-11.53,8.5668,-14.092,-15.764,-6.859
2.7804,-1.8413,-0.91057,13.659,6.8966,12.488,-1.9324,7.7023,5.7886,13.659,6.8966,6.8966,-20.952,-16.254,-11.365,-8.6538,-11.53,4.7021,-0.82148,-16.749001,-7.8205
-1.9589,-8.5079,-6.7642,11.707,7.8818,1.7561,-1.9324,7.7023,-0.06504,11.707,7.8818,1.9704,-22.857,-17.205999,-14.222,-13.462,-14.428,-3.0274,6.7615,-12.808,-9.7436
-1.0111,-6.6032,-3.8374,5.8537,0.0,2.7317,2.8986,-2.9773,3.8374,5.8537,0.0,3.9409,-16.190001,-12.444,-10.413,-8.6538,-9.5974,-6.8921,-4.613,-3.9409,-3.9744
0.88468,-2.7937,-0.91057,0.0,0.98522,2.7317,4.8309,-2.9773,0.91057,0.0,0.98522,3.9409,-11.429,-8.6349,-6.6032,-3.8462,-3.8003,-7.8583,1.0742,-0.98522,-3.9744
-1.9589,-1.8413,-0.91057,-11.707,-10.837,-2.1463,5.7971,-9.7735,-3.9675,-11.707,-10.837,0.0,-9.5238,-6.7302,-3.746,-0.96154,-0.90177,-6.8921,-8.4044,0.98522,-5.8974
-1.0111,2.9206,2.9919,-9.7561,-10.837,-5.0732,-0.96618,-13.657,-2.0163,-9.7561,-10.837,-1.9704,-5.7143,-1.9683,1.9683,5.7692,5.8615,-1.095,2.0221,4.9261,-0.12821
-1.0111,2.9206,4.9431,-7.8049,-1.9704,-7.0244,-6.7633,-22.395,-2.0163,-7.8049,-1.9704,-4.9261,-3.8095,1.8413,3.873,11.538,10.692,-7.8583,6.7615,1.9704,3.7179
1.8325,9.5873,11.772,-11.707,-0.98522,-9.9512,0.96618,-16.57,-1.0407,-11.707,-0.98522,-1.9704,2.8571,11.365,10.54,22.115,18.422001,-11.723,-1.7694,5.9113,15.256
-2.9068,10.54,11.772,-18.537001,-5.9113,-15.805,-1.9324,-17.540001,3.8374,-18.537001,-5.9113,-3.9409,3.8095,12.317,10.54,22.115,20.354,-10.757,2.97,8.867,11.41
-5.7504,8.6349,8.8455,-17.561001,-8.867,-13.854,0.96618,-29.191,0.91057,-17.561001,-8.867,-5.9113,0.95238,9.4603,7.6825,21.153999,19.388,-18.486,5.8136,0.0,9.4872
-7.6461,8.6349,7.8699,-14.634,-6.8966,-16.780001,2.8986,-25.306999,1.8862,-14.634,-6.8966,-7.8818,0.95238,12.317,6.7302,24.038,21.32,-27.181999,10.553,-4.9261,15.256
-7.6461,14.349,9.8211,-23.415001,-6.8966,-17.756001,0.96618,-29.191,-1.0407,-23.415001,-6.8966,-7.8818,4.7619,16.127001,8.6349,27.885,25.184999,-38.776001,13.397,-0.98522,19.103001
-5.7504,11.492,10.797,-15.61,-6.8966,-12.878,0.96618,-27.249001,-2.0163,-15.61,-6.8966,-5.9113,4.7619,18.032,8.6349,26.923,26.150999,-23.316999,8.6572,0.98522,21.987
-1.0111,9.5873,11.772,-5.8537,0.98522,-11.902,5.7971,-13.657,3.8374,-5.8537,0.98522,-2.9557,11.429,18.032,14.349,26.923,30.016001,-0.12882,4.8657,10.837,19.103001
3.7283,8.6349,11.772,-11.707,4.9261,-11.902,1.9324,-9.7735,1.8862,-11.707,4.9261,-2.9557,16.190001,16.127001,17.205999,25.962,31.948,-1.095,-3.6651,17.733999,16.218
-1.9589,4.8254,6.8943,-12.683,-1.9704,-11.902,-3.8647,-14.628,0.91057,-12.683,-1.9704,-6.8966,15.238,13.27,14.349,21.153999,29.049999,-3.0274,4.8657,13.793,12.372
-1.9589,5.7778,4.9431,-9.7561,-3.9409,-11.902,-2.8986,-12.686,-4.9431,-9.7561,-3.9409,-6.8966,16.190001,11.365,16.254,19.231001,28.084,-0.12882,0.12638,16.749001,11.41
0.88468,0.06349,3.9675,-4.878,-7.8818,-8.9756,-11.594,-10.744,-4.9431,-4.878,-7.8818,-6.8966,16.190001,9.4603,17.205999,10.577,24.219,3.7359,-0.82148,18.719,3.7179
6.5719,-7.5556,3.9675,-3.9024,-10.837,3.7073,-4.8309,-5.89,-3.9675,-3.9024,-10.837,-1.9704,16.190001,4.6984,18.159,-0.96154,18.422001,2.7697,-4.613,18.719,-9.7436
13.207,-4.6984,5.9187,0.0,-2.9557,12.488,0.96618,-2.0065,-5.9187,0.0,-2.9557,3.9409,21.905001,3.746,20.063,-3.8462,16.49,8.5668,-14.092,21.674999,-10.705
11.311,-2.7937,2.9919,4.878,0.0,1.7561,-0.96618,11.586,-5.9187,4.878,0.0,1.9704,20.0,7.5556,14.349,-4.8077,11.659,16.296,-20.726999,17.733999,-5.8974
7.5197,-6.6032,-0.91057,2.9268,-0.98522,-1.1707,-1.9324,12.557,-6.8943,2.9268,-0.98522,-1.9704,19.048,9.4603,11.492,-7.6923,7.7939,15.33,-9.3523,17.733999,-3.0128
4.6761,-12.317,-6.7642,-8.7805,-7.8818,-2.1463,-10.628,1.877,-11.772,-8.7805,-7.8818,-7.8818,14.286,9.4603,6.7302,-10.577,3.9291,12.432,-5.5608,12.808,-1.0897
2.7804,-14.222,-8.7154,-13.659,-16.749001,-3.122,-17.391001,-0.06472,-17.625999,-13.659,-16.749001,-11.823,10.476,7.5556,5.7778,-9.6154,2.963,9.533,-12.196,5.9113,-1.0897
3.7283,-14.222,-7.7398,-16.584999,-21.674999,-0.19512,-19.323999,-2.0065,-18.601999,-16.584999,-21.674999,-11.823,8.5714,8.5079,7.6825,-4.8077,5.8615,2.7697,-10.3,0.98522,2.7564
6.5719,-11.365,-5.7886,-4.878,-22.66,-0.19512,-25.121,-2.0065,-22.504,-4.878,-22.66,-11.823,8.5714,7.5556,12.444,0.0,9.7262,-5.9259,-15.039,5.9113,5.641
12.259,-7.5556,2.9919,0.0,-10.837,5.6585,-20.290001,-1.0356,-20.552999,0.0,-10.837,-7.8818,15.238,14.222,21.968,10.577,18.422001,7.6006,-8.4044,15.764,15.256
10.363,-3.746,7.8699,-3.9024,-6.8966,0.78049,-15.459,7.7023,-18.601999,-3.9024,-6.8966,-7.8818,16.190001,14.222,26.73,16.346001,25.184999,18.229,-2.7172,17.733999,14.295
11.311,-3.746,10.797,-9.7561,-17.733999,-2.1463,-13.527,7.7023,-19.577,-9.7561,-17.733999,-8.867,19.048,17.079,28.635,19.231001,28.084,10.499,0.12638,22.66,12.372
12.259,-4.6984,12.748,-9.7561,-12.808,-2.1463,-13.527,-0.06472,-20.552999,-9.7561,-12.808,-8.867,21.905001,17.079,29.587,18.268999,29.049999,9.533,3.9179,24.631001,11.41
9.4155,-4.6984,11.772,-5.8537,-9.8522,-3.122,-11.594,2.8479,-13.724,-5.8537,-9.8522,-8.867,20.952,10.413,27.683001,14.423,26.150999,6.6345,-10.3,24.631001,8.5256
7.5197,-4.6984,10.797,-9.7561,-13.793,-3.122,-9.6618,-0.06472,-11.772,-9.7561,-13.793,-8.867,17.143,7.5556,23.872999,9.6154,20.354,8.5668,-4.613,20.690001,4.6795
5.624,-0.88889,9.8211,-0.97561,-10.837,-5.0732,-7.7295,-2.0065,-6.8943,-0.97561,-10.837,-7.8818,8.5714,6.6032,18.159,7.6923,15.523,-2.0612,-6.5087,12.808,7.5641
-0.06319,-3.746,5.9187,1.9512,-2.9557,-8.0,-4.8309,-0.06472,-2.9919,1.9512,-2.9557,-8.867,2.8571,5.6508,10.54,1.9231,9.7262,-2.0612,-6.5087,5.9113,0.83333
-2.9068,-4.6984,2.9919,-0.97561,1.9704,-8.0,-4.8309,4.7896,1.8862,-0.97561,1.9704,-7.8818,0.95238,9.4603,4.8254,-1.9231,5.8615,4.7021,1.0742,-0.98522,-2.0513
-5.7504,-5.6508,0.06504,2.9268,5.9113,-2.1463,1.9324,-6.8608,4.813,2.9268,5.9113,-3.9409,-0.95238,6.6032,-2.7937,-4.8077,1.0306,-3.9936,-5.5608,-7.8818,-3.9744
-6.6983,-2.7937,0.06504,7.8049,4.9261,-3.122,9.6618,0.90615,2.8618,7.8049,4.9261,0.0,-2.8571,6.6032,-7.5556,-4.8077,-1.868,-11.723,-11.248,-14.778,-3.0128
-7.6461,-2.7937,0.06504,5.8537,5.9113,-2.1463,11.594,6.7314,9.6911,5.8537,5.9113,3.9409,-2.8571,12.317,-11.365,-2.8846,-0.90177,-16.554001,3.9179,-21.674999,2.7564
-10.49,-0.88889,-2.8618,1.9512,8.867,0.78049,9.6618,-2.0065,9.6911,1.9512,8.867,3.9409,-1.9048,12.317,-13.27,-1.9231,-1.868,-22.351,13.397,-30.542,4.6795
-9.5419,1.9683,-2.8618,7.8049,16.749001,4.6829,6.7633,-4.9191,9.6911,7.8049,16.749001,3.9409,0.95238,14.222,-11.365,0.0,-0.90177,-26.216,12.449,-28.570999,6.6026
-2.9068,5.7778,1.0407,11.707,12.808,8.5854,7.7295,-2.9773,9.6911,11.707,12.808,5.9113,6.6667,14.222,-3.746,4.8077,2.963,-22.351,3.9179,-19.704,11.41
1.8325,7.6825,3.9675,3.9024,5.9113,4.6829,6.7633,3.8188,4.813,3.9024,5.9113,2.9557,12.381,11.365,2.9206,5.7692,4.8953,-4.9597,9.6051,-7.8818,5.641
6.5719,10.54,6.8943,7.8049,0.0,6.6341,6.7633,6.7314,2.8618,7.8049,0.0,4.9261,19.048,7.5556,11.492,8.6538,10.692,5.6683,7.7093,4.9261,2.7564
16.997999,13.397,12.748,13.659,6.8966,13.463,8.6957,10.615,3.8374,13.659,6.8966,10.837,24.761999,6.6032,21.016001,14.423,17.455999,8.5668,4.8657,12.808,4.6795
20.790001,9.5873,13.724,5.8537,7.8818,15.415,8.6957,15.469,0.91057,5.8537,7.8818,11.823,26.667,7.5556,24.825001,16.346001,21.32,16.296,11.501,18.719,7.5641
21.738001,3.873,11.772,4.878,3.9409,18.341,6.7633,17.410999,-2.9919,4.878,3.9409,12.808,24.761999,6.6032,25.778,16.346001,23.253,17.261999,7.7093,22.66,8.5256
26.476999,3.873,15.675,18.537001,5.9113,25.171,3.8647,21.294001,2.8618,18.537001,5.9113,15.764,23.809999,2.7937,28.635,18.268999,26.150999,13.398,2.0221,23.645,10.449
23.632999,1.9683,15.675,21.462999,0.98522,23.219999,-2.8986,28.091,1.8862,21.462999,0.98522,13.793,20.952,-0.06349,25.778,15.385,24.219,19.195,-7.4566,21.674999,1.7949
23.632999,2.9206,17.625999,14.634,-3.9409,28.098,7.7295,22.264999,-2.9919,14.634,-3.9409,17.733999,16.190001,-1.9683,22.921,10.577,19.388,28.857,0.12638,18.719,-4.9359
21.738001,3.873,14.699,16.584999,1.9704,23.219999,10.628,26.149,-0.06504,16.584999,1.9704,20.690001,14.286,-0.06349,20.063,6.7308,15.523,26.924,-3.6651,15.764,-5.8974
18.893999,1.9683,12.748,20.488001,12.808,14.439,7.7295,28.091,0.91057,20.488001,12.808,21.674999,14.286,5.6508,17.205999,1.9231,12.625,24.992001,-7.4566,10.837,-5.8974
12.259,-2.7937,6.8943,15.61,11.823,15.415,7.7295,18.382,2.8618,15.61,11.823,19.704,5.7143,1.8413,6.7302,-7.6923,1.9968,12.432,-7.4566,-0.98522,-11.667
6.5719,-8.5079,1.0407,7.8049,5.9113,16.389999,9.6618,9.644,3.8374,7.8049,5.9113,16.749001,-1.9048,-1.0159,-3.746,-18.268999,-9.5974,1.8035,-18.830999,-7.8818,-17.436001
2.7804,-5.6508,0.06504,11.707,9.8522,10.537,11.594,4.7896,7.7398,11.707,9.8522,16.749001,-1.9048,1.8413,-6.6032,-20.191999,-12.496,-5.9259,-10.3,-12.808,-16.474001
-1.9589,-5.6508,-2.8618,11.707,8.867,2.7317,17.391001,4.7896,7.7398,11.707,8.867,12.808,-3.8095,-0.06349,-10.413,-21.153999,-15.395,-14.622,-0.82148,-16.749001,-16.474001
-3.8547,-5.6508,-2.8618,10.732,18.719,0.78049,16.424999,-2.9773,15.545,10.732,18.719,10.837,-5.7143,-0.06349,-11.365,-15.385,-12.496,-12.689,-10.3,-19.704,-10.705
-9.5419,1.0159,-1.8862,3.9024,23.645,-8.0,15.459,-5.89,20.423,3.9024,23.645,5.9113,-5.7143,-1.9683,-13.27,-7.6923,-9.5974,-14.622,-4.613,-22.66,-10.705
-19.968,5.7778,-5.7886,-2.9268,11.823,-17.756001,9.6618,-13.657,13.593,-2.9268,11.823,-1.9704,-12.381,-7.6825,-18.983999,-3.8462,-11.53,-25.25,12.449,-29.556999,-12.628
-24.708,11.492,-6.7642,-12.683,8.867,-20.683001,8.6957,-24.337,16.52,-12.683,8.867,-5.9113,-17.143,-7.6825,-21.841,2.8846,-10.564,-33.945,13.397,-36.452999,-5.8974
-17.125,20.063,-0.91057,-15.61,0.98522,-16.780001,18.357,-24.337,18.472,-15.61,0.98522,-1.9704,-9.5238,-1.9683,-16.127001,13.462,-2.8341,-32.979,24.771,-31.527,6.6026
-12.385,28.635,4.9431,-8.7805,1.9704,-8.0,23.188,-26.278,17.496,-8.7805,1.9704,1.9704,-10.476,-0.06349,-10.413,21.153999,4.8953,-31.047001,35.196999,-30.542,13.333
-7.6461,35.301998,10.797,-7.8049,6.8966,-6.0488,23.188,-23.365999,14.569,-7.8049,6.8966,4.9261,-10.476,-1.0159,-5.6508,26.923,8.7601,-35.877998,32.354,-28.570999,18.141001
-2.9068,39.111,14.699,-3.9024,16.749001,-2.1463,19.323999,-14.628,15.545,-3.9024,16.749001,7.8818,-3.8095,0.88889,0.06349,33.653999,15.523,-31.047001,15.292,-22.66,23.91
5.624,40.063,18.601999,2.9268,16.749001,13.463,24.155001,-12.686,20.423,2.9268,16.749001,14.778,-0.95238,-1.0159,4.8254,32.692001,17.455999,-10.757,22.875,-18.719,20.063999
10.363,32.444,18.601999,4.878,8.867,17.365999,25.121,3.8188,17.496,4.878,8.867,14.778,0.95238,-2.9206,7.6825,27.885,16.49,7.6006,35.196999,-8.867,13.333
10.363,24.825001,15.675,3.9024,3.9409,12.488,16.424999,16.440001,9.6911,3.9024,3.9409,10.837,0.0,-4.8254,7.6825,24.038,14.557,12.432,32.354,-5.9113,11.41
8.4676,19.111,11.772,3.9024,-0.98522,8.5854,11.594,17.410999,4.813,3.9024,-0.98522,7.8818,-4.7619,-8.6349,3.873,17.308001,8.7601,15.33,18.136,-8.867,8.5256
10.363,13.397,9.8211,11.707,3.9409,10.537,5.7971,16.440001,5.7886,11.707,3.9409,9.8522,-5.7143,-10.54,1.9683,9.6154,2.963,13.398,4.8657,-4.9261,3.7179
8.4676,6.7302,5.9187,13.659,6.8966,20.292999,7.7295,20.323999,2.8618,13.659,6.8966,11.823,-10.476,-13.397,-2.7937,-0.96154,-5.7327,18.229,2.0221,-3.9409,-2.0513
8.4676,-2.7937,0.06504,22.438999,7.8818,26.146,3.8647,27.120001,-0.06504,22.438999,7.8818,13.793,-17.143,-19.111,-7.5556,-13.462,-15.395,24.025999,-13.144,-2.9557,-6.859
7.5197,-17.079,-7.7398,26.341,10.837,24.195,-2.8986,32.945,-0.06504,26.341,10.837,12.808,-19.048,-24.825001,-11.365,-28.846001,-25.056,26.924,-16.934999,0.98522,-20.320999
