C3,C4,Cz,F1,F2,F3,F4,F7,F8,Fp1,Fp2,Fz,O1,O2,P3,P4,Pz,T3,T4,T5,T6
-8.239,-10.73,-3.2362,-19.417,-2.6016,-4.0385,-1.2882,-28.268999,9.5974,-19.417,-2.6016,0.65681,2.5397,1.2121,-5.6508,-10.256,-7.7295,-11.026,-3.1111,-1.3072,-2.6923
-0.06289,-6.2857,3.2362,-12.298,8.4553,-2.1154,10.95,-15.449,15.395,-12.298,8.4553,7.225,2.5397,-0.70175,0.06349,-8.3333,-3.2206,-9.1026,-3.1111,4.5752,-1.4103
7.4843,-4.381,7.1197,-3.8835,7.8049,-0.19231,14.815,-9.6795,5.7327,-3.8835,7.8049,8.5386,2.5397,-1.3397,5.1429,-5.7692,0.64412,-10.385,2.6032,1.3072,-2.6923
13.145,-1.8413,9.0615,5.178,3.252,7.5,10.95,0.57692,1.2238,5.178,3.252,9.1954,1.2698,-1.9777,7.0476,-1.9231,3.2206,-15.513,2.6032,-2.6144,-2.0513
13.774,3.873,9.7087,1.2945,-1.3008,9.4231,7.0853,8.9103,-2.6409,1.2945,-1.3008,7.8818,1.9048,-1.3397,8.9524,1.9231,5.7971,-1.4103,2.6032,0.0,-0.76923
4.3396,4.5079,2.589,-4.5307,-3.9024,-0.83333,-5.7971,3.141,0.57971,-4.5307,-3.9024,-3.2841,0.63492,-0.0638,5.1429,2.5641,3.8647,8.8462,5.1429,0.0,-1.4103
-4.4654,7.6825,-1.2945,1.9417,-5.2033,-7.2436,-12.238,0.57692,0.57971,1.9417,-5.2033,-11.166,0.63492,1.8501,1.3333,7.0513,3.2206,5.0,-2.4762,-0.65359,3.0769
-8.239,13.397,-1.2945,1.9417,-6.5041,-5.9615,-7.0853,-0.70513,-1.9968,1.9417,-6.5041,-10.509,-1.2698,3.764,-1.8413,12.179,3.2206,-14.872,-5.6508,-3.268,6.2821
-4.4654,14.667,0.0,-7.1197,-3.252,2.3718,1.2882,-3.9103,8.3092,-7.1197,-3.252,-3.2841,-2.5397,4.4019,-4.381,12.821,2.5765,-5.8974,-4.381,-5.8824,5.641
-4.4654,7.6825,0.0,-3.2362,-8.4553,4.2949,5.153,-0.70513,8.9533,-3.2362,-8.4553,0.65681,-3.8095,1.8501,-6.9206,7.0513,-1.9324,9.4872,4.5079,-5.8824,3.0769
-3.8365,-3.746,-5.178,1.2945,-6.5041,-2.7564,-3.2206,5.7051,-3.285,1.2945,-6.5041,-3.2841,-7.619,-3.8915,-8.8254,-1.9231,-7.7295,-3.9744,1.3333,-9.1503,-1.4103
1.195,-8.8254,-5.8252,-7.767,-3.9024,-3.3974,-12.238,4.4231,-4.5733,-7.767,-3.9024,-7.225,-3.8095,-2.6156,-3.1111,-5.1282,-5.7971,-2.0513,-1.2063,-1.9608,-5.2564
2.4528,-11.365,-6.4725,-11.003,-4.5528,-3.3974,-10.95,-3.9103,-5.2174,-11.003,-4.5528,-7.8818,0.0,-1.3397,0.06349,-6.4103,-3.2206,2.4359,-3.1111,-1.3072,-5.2564
4.9686,-10.73,-3.8835,-3.2362,-2.6016,0.44872,0.0,-0.0641,-9.7262,-3.2362,-2.6016,-3.9409,0.63492,-1.9777,4.5079,-7.6923,-0.64412,2.4359,-3.746,1.3072,-7.8205
7.4843,-2.4762,3.2362,3.2362,3.252,6.859,14.815,7.6282,-4.5733,3.2362,3.252,7.8818,4.4444,0.57416,8.9524,-3.2051,5.7971,1.7949,-5.6508,7.8431,-5.2564
1.8239,3.2381,8.4142,3.2362,7.1545,8.7821,16.103001,6.3462,11.53,3.2362,7.1545,15.107,4.4444,0.57416,7.0476,-0.64103,5.7971,3.0769,-1.8413,5.2288,-2.6923
-0.06289,1.3333,7.767,6.4725,7.8049,8.141,14.171,0.57692,5.0886,6.4725,7.8049,15.764,1.2698,-1.9777,1.3333,-3.8462,0.64412,10.128,-3.1111,4.5752,-2.0513
1.195,0.69841,4.5307,6.4725,11.057,4.9359,5.7971,-3.2692,3.8003,6.4725,11.057,7.8818,-1.2698,-5.1675,-1.8413,-5.1282,-4.5089,3.0769,-4.381,1.3072,-2.6923
8.1132,9.5873,8.4142,-0.64725,8.4553,5.5769,4.5089,-3.9103,13.462,-0.64725,8.4553,8.5386,0.0,-2.6156,0.69841,3.8462,-1.2882,-13.59,-3.746,0.0,6.9231
8.7421,12.127,9.0615,5.8252,3.9024,3.0128,3.8647,-5.8333,12.818,5.8252,3.9024,5.9113,2.5397,1.2121,3.2381,8.9744,2.5765,-0.12821,5.7778,1.9608,7.5641
9.3711,13.397,9.0615,5.8252,4.5528,3.0128,3.8647,5.7051,10.242,5.8252,4.5528,4.5977,0.63492,5.6778,3.873,12.821,5.7971,5.641,17.205999,-4.5752,6.9231
8.7421,15.937,10.356,8.4142,7.8049,6.859,8.3736,7.6282,3.8003,8.4142,7.8049,6.5681,0.0,8.8676,3.873,16.025999,9.0177,4.359,10.222,-9.8039,10.128
1.8239,13.397,5.8252,18.77,16.910999,5.5769,6.4412,-0.0641,7.0209,18.77,16.910999,4.5977,-0.63492,8.8676,0.69841,14.744,7.7295,-0.12821,3.2381,-13.725,12.692
3.7107,8.9524,4.5307,21.358999,11.057,6.859,5.7971,5.7051,12.818,21.358999,11.057,4.5977,3.8095,11.419,3.873,12.179,8.3736,-9.1026,8.3175,-8.4967,12.692
-0.69182,-1.8413,-1.2945,3.2362,-7.8049,1.7308,0.64412,13.397,-5.8615,3.2362,-7.8049,-1.9704,3.1746,6.3158,4.5079,3.8462,4.5089,-2.0513,9.5873,-3.268,4.359
-7.6101,-9.4603,-7.767,-9.7087,-3.252,-4.6795,-3.8647,9.5513,-14.879,-9.7087,-3.252,-5.9113,1.2698,1.8501,1.3333,-4.4872,-2.5765,5.641,-1.8413,1.3072,-0.76923
-10.126,-15.175,-11.003,0.64725,8.4553,-6.6026,-11.594,3.141,-1.3527,0.64725,8.4553,-6.5681,1.9048,-2.6156,-1.2063,-12.179,-7.7295,8.2051,-6.9206,5.8824,-5.8974
-1.9497,-17.714001,-8.4142,23.948,11.707,-2.7564,-10.306,3.141,6.3768,23.948,11.707,-3.9409,2.5397,-7.7193,1.9683,-16.667,-8.3736,-0.76923,-15.175,13.072,-8.4615
6.8553,-12.635,-0.64725,22.006001,11.707,2.3718,-1.9324,-1.3462,6.3768,22.006001,11.707,0.65681,5.0794,-10.909,6.4127,-13.462,-5.153,17.179001,-15.175,17.646999,-9.1026
13.774,-5.6508,6.4725,10.356,10.407,4.9359,4.5089,4.4231,5.0886,10.356,10.407,5.2545,5.7143,-9.6332,9.5873,-7.6923,0.0,22.308001,-6.2857,17.646999,-8.4615
18.176001,3.2381,11.003,0.64725,8.4553,4.2949,3.8647,3.7821,-9.0821,0.64725,8.4553,3.9409,3.1746,-5.8054,10.857,2.5641,5.7971,1.1538,5.1429,9.8039,-5.8974
21.950001,15.302,18.122999,3.2362,0.0,8.141,19.323999,0.57692,-11.659,3.2362,0.0,8.5386,8.254,3.126,14.667,16.025999,14.815,8.8462,6.4127,9.8039,2.4359
14.403,17.841,15.534,6.4725,-1.9512,3.6538,12.238,-4.5513,-0.06441,6.4725,-1.9512,3.2841,8.8889,7.5917,13.397,19.872,16.103001,8.2051,1.3333,11.111,8.2051
-1.9497,12.762,5.8252,7.767,1.9512,-2.7564,0.0,-4.5513,11.53,7.767,1.9512,-2.6273,6.3492,11.419,5.7778,17.308001,12.238,1.1538,4.5079,3.9216,10.769
-10.755,12.127,3.2362,-1.9417,3.9024,-0.83333,1.2882,-2.6282,12.818,-1.9417,3.9024,1.3136,5.0794,12.057,0.06349,15.385,8.3736,-5.8974,4.5079,-3.9216,13.333
-10.126,13.397,4.5307,4.5307,16.910999,6.2179,7.0853,-0.0641,17.327,4.5307,16.910999,10.509,1.9048,10.144,-3.1111,12.821,5.153,-7.1795,11.492,-7.1895,12.692
-7.6101,8.3175,3.8835,14.887,11.057,8.141,11.594,-1.3462,9.5974,14.887,11.057,14.45,-1.9048,5.0399,-5.6508,4.4872,0.64412,-14.872,14.667,-11.765,8.2051
-5.0943,3.2381,2.589,12.945,-5.2033,6.859,10.306,-9.6795,-0.06441,12.945,-5.2033,12.479,-5.0794,1.8501,-6.9206,-1.2821,-3.8647,-11.667,4.5079,-12.418,6.2821
8.1132,8.3175,9.0615,15.534,8.4553,13.269,14.815,-3.2692,-0.06441,15.534,8.4553,15.764,0.0,4.4019,1.9683,3.2051,1.9324,-5.2564,0.06349,-3.9216,10.128
14.403,5.1429,9.0615,12.298,19.511999,11.987,9.6618,1.2179,5.7327,12.298,19.511999,11.823,0.63492,-0.0638,7.0476,0.0,3.2206,1.1538,6.4127,1.3072,3.7179
7.4843,0.69841,5.8252,10.356,12.358,6.2179,3.2206,-0.0641,8.9533,10.356,12.358,7.8818,-1.2698,-1.9777,2.6032,-1.9231,0.64412,1.7949,11.492,-2.6144,-0.12821
9.3711,9.5873,10.356,9.0615,8.4553,8.7821,9.6618,2.5,9.5974,9.0615,8.4553,10.509,5.7143,6.3158,7.6825,9.6154,9.0177,-9.1026,10.222,0.65359,6.9231
10.629,14.032,12.945,-1.9417,8.4553,8.141,8.3736,0.57692,8.9533,-1.9417,8.4553,8.5386,7.619,10.144,12.127,17.948999,17.391001,-12.949,11.492,3.9216,11.41
7.4843,15.937,13.592,0.64725,1.9512,3.0128,2.5765,-8.3974,1.868,0.64725,1.9512,3.9409,10.794,13.333,15.937,23.718,22.544001,-11.667,3.873,9.1503,14.615
10.0,19.111,15.534,13.592,7.1545,0.44872,10.95,-10.321,-1.9968,13.592,7.1545,5.9113,15.238,13.333,21.016001,25.0,26.409,-4.6154,7.6825,15.686,15.897
8.1132,12.127,9.0615,3.2362,-2.6016,-2.1154,4.5089,-2.6282,4.4444,3.2362,-2.6016,1.3136,14.603,8.2297,18.476,17.308001,19.323999,-4.6154,5.7778,15.686,9.4872
-3.8365,1.3333,-3.8835,-8.4142,-6.5041,-9.8077,-6.4412,-11.603,1.2238,-8.4142,-6.5041,-7.225,8.254,-0.0638,5.1429,3.2051,4.5089,6.9231,-3.746,10.458,-0.12821
-2.5786,3.873,-3.8835,-7.1197,0.65041,-4.0385,1.9324,-10.321,-14.235,-7.1197,0.65041,-3.9409,7.619,1.8501,0.06349,1.9231,-0.64412,0.51282,-14.54,10.458,3.0769
-5.0943,1.9683,-3.8835,-5.8252,-6.5041,-4.0385,3.8647,-0.70513,-2.6409,-5.8252,-6.5041,-1.3136,3.8095,0.57416,-7.5556,-1.9231,-5.153,3.7179,-2.4762,7.8431,-0.76923
-6.3522,-3.746,-3.8835,-3.8835,-6.5041,-0.83333,-3.8647,4.4231,7.0209,-3.8835,-6.5041,0.65681,-3.1746,-1.9777,-12.635,-7.0513,-8.3736,0.51282,6.4127,-0.65359,-7.8205
-2.5786,-4.381,-0.64725,-1.9417,0.65041,3.0128,1.2882,3.141,4.4444,-1.9417,0.65041,5.2545,-5.7143,-1.3397,-10.73,-7.6923,-6.4412,9.4872,1.3333,-3.268,-7.8205
1.195,-3.746,3.8835,3.2362,-1.3008,8.141,11.594,1.2179,7.6651,3.2362,-1.3008,11.823,-4.4444,-1.9777,-5.0159,-8.3333,-3.2206,11.41,-0.57143,-3.268,-8.4615
4.3396,-3.746,6.4725,3.8835,6.5041,6.859,9.6618,-0.0641,10.242,3.8835,6.5041,11.823,-0.63492,-1.3397,2.6032,-5.7692,1.9324,-1.4103,-3.1111,-5.8824,-7.8205
10.0,4.5079,13.592,4.5307,13.008,10.064,14.171,-1.9872,10.242,4.5307,13.008,12.479,8.254,8.2297,15.302,5.7692,14.171,-0.76923,3.2381,0.65359,1.1538
11.887,12.127,16.827999,9.0615,3.252,10.064,18.68,-0.0641,2.5121,9.0615,3.252,13.136,15.238,15.885,22.285999,14.103,21.256001,-7.8205,8.9524,6.5359,9.4872
11.258,12.762,11.65,-2.589,5.2033,7.5,7.0853,-3.9103,2.5121,-2.589,5.2033,6.5681,15.873,15.885,21.016001,16.667,20.612,-22.563999,11.492,7.8431,13.974
-0.69182,7.6825,0.64725,-5.178,6.5041,-4.0385,-1.2882,-10.321,4.4444,-5.178,6.5041,-3.9409,10.159,11.419,10.857,11.538,9.6618,-8.4615,11.492,3.268,13.974
-5.7233,7.6825,-5.178,-2.589,-1.3008,-11.09,1.9324,-6.4744,5.7327,-2.589,-1.3008,-6.5681,9.5238,8.2297,3.2381,7.6923,0.64412,-0.76923,3.873,3.268,13.333
-5.0943,4.5079,-6.4725,-18.77,-8.4553,-8.5256,-0.64412,-3.9103,8.3092,-18.77,-8.4553,-3.2841,6.3492,1.2121,-1.8413,1.9231,-7.0853,-0.12821,1.9683,4.5752,9.4872
-2.5786,-4.381,-3.8835,1.2945,7.8049,-1.4744,-0.64412,1.2179,14.106,1.2945,7.8049,2.6273,0.0,-7.7193,-5.6508,-5.7692,-10.95,-5.8974,10.222,0.65359,1.1538
-0.06289,-4.381,1.9417,22.653999,18.862,6.2179,2.5765,5.0641,15.395,22.653999,18.862,7.225,-6.3492,-8.9952,-7.5556,-6.4103,-9.6618,-11.026,6.4127,-3.268,-2.6923
-3.2075,-1.8413,2.589,11.65,8.4553,8.141,2.5765,1.2179,5.0886,11.65,8.4553,8.5386,-7.619,-4.5295,-10.73,-5.7692,-8.3736,-10.385,0.06349,-7.1895,-2.0513
-6.3522,1.3333,1.2945,-5.8252,-1.9512,6.2179,0.64412,0.57692,-5.2174,-5.8252,-1.9512,4.5977,-5.0794,2.488,-9.4603,-1.9231,-3.8647,0.51282,-1.8413,-7.1895,-1.4103
-2.5786,3.2381,0.64725,-12.945,-5.2033,4.2949,1.2882,-3.9103,-9.7262,-12.945,-5.2033,0.0,-0.63492,7.5917,-2.4762,3.2051,3.8647,3.7179,-8.8254,-3.268,-0.76923
7.4843,3.873,3.2362,-3.8835,-14.309,3.6538,-1.2882,-5.1923,-8.438,-3.8835,-14.309,-1.9704,5.7143,13.333,8.3175,8.9744,12.882,3.0769,-9.4603,5.2288,-0.76923
8.1132,1.9683,1.2945,-5.178,-9.1057,-4.6795,-6.4412,5.0641,-2.6409,-5.178,-9.1057,-5.9113,8.254,12.695,12.127,10.256,15.459,21.667,-11.365,11.765,-0.12821
-3.2075,-7.5556,-9.0615,-7.767,-13.659,-17.5,-17.391001,7.6282,-4.5733,-7.767,-13.659,-17.077,7.619,6.3158,7.0476,2.5641,9.0177,20.385,-8.1905,11.111,-7.1795
-3.2075,-13.27,-12.298,-8.4142,-2.6016,-13.654,-11.594,2.5,-7.1498,-8.4142,-2.6016,-17.077,6.3492,-0.0638,4.5079,-4.4872,3.8647,16.538,-3.1111,11.111,-8.4615
-6.9811,-18.349001,-16.181,-12.298,3.252,-7.2436,-9.0177,6.3462,-1.9968,-12.298,3.252,-11.166,0.0,-11.547,-6.2857,-16.025999,-9.6618,4.359,-10.73,5.8824,-11.026
-9.4969,-24.063,-16.827999,5.178,7.8049,-0.19231,-4.5089,11.474,14.75,5.178,7.8049,-1.9704,-12.063,-26.858,-18.349001,-30.768999,-26.409,-1.4103,-2.4762,-3.9216,-21.282
-1.9497,-12.635,-4.5307,10.356,13.008,16.474001,13.527,8.9103,10.886,10.356,13.008,14.45,-20.952,-31.323999,-22.159,-28.846001,-31.562,11.41,11.492,-10.458,-21.282
9.3711,8.3175,12.298,20.065001,15.61,24.808001,25.764999,16.603001,20.548,20.065001,15.61,26.929001,-20.952,-25.582001,-15.175,-12.179,-21.256001,8.8462,18.476,-18.301001,-11.026
17.547001,24.825001,23.301001,31.715,19.511999,26.09,30.274,19.167,29.565001,31.715,19.511999,30.870001,-18.413,-17.927,-5.6508,5.1282,-7.7295,10.128,21.650999,-19.608,-2.0513
16.917999,32.444,25.243,16.827999,22.114,22.243999,26.409,10.833,23.124001,16.827999,22.114,25.615999,-14.603,-8.9952,1.3333,18.59,4.5089,2.4359,14.667,-17.646999,6.2821
11.887,29.27,20.065001,3.2362,14.959,10.705,16.103001,0.57692,21.836,3.2362,14.959,15.107,-8.254,0.57416,6.4127,23.718,14.171,-0.12821,15.302,-14.379,10.769
6.8553,20.381001,11.003,-12.945,-1.3008,3.0128,5.7971,-5.1923,13.462,-12.945,-1.3008,1.9704,-2.5397,6.9537,10.222,22.436001,18.035,-5.8974,13.397,-8.4967,12.051
-3.2075,5.1429,-0.64725,-20.712,-14.309,-9.1667,-5.153,-3.9103,-7.1498,-20.712,-14.309,-9.1954,1.9048,10.781,7.6825,14.103,15.459,-9.1026,7.0476,-3.268,10.128
-7.6101,-3.1111,-6.4725,-7.1197,-16.26,-13.654,-14.815,4.4231,-16.812,-7.1197,-16.26,-15.107,8.8889,16.523001,8.9524,10.256,14.815,2.4359,-12.635,5.8824,9.4872
-6.3522,-7.5556,-7.1197,-9.7087,-16.910999,-11.09,-14.171,4.4231,-21.32,-9.7087,-16.910999,-12.479,10.794,17.160999,7.0476,5.1282,11.594,-3.9744,-17.079,9.8039,6.9231
-6.3522,-11.365,-7.1197,-9.7087,-17.561001,-4.6795,-11.594,-5.1923,-14.235,-9.7087,-17.561001,-7.8818,7.619,10.781,1.9683,-3.8462,3.2206,-0.76923,-14.54,9.8039,-0.76923
-5.7233,-10.095,-7.767,-3.8835,-7.8049,-3.3974,-8.3736,-1.9872,-5.8615,-3.8835,-7.8049,-4.5977,5.7143,5.6778,-3.1111,-8.3333,-4.5089,15.897,-10.095,8.4967,-2.0513
-7.6101,-17.079,-15.534,-7.767,-6.5041,-7.8846,-12.238,3.141,2.5121,-7.767,-6.5041,-9.8522,0.63492,-2.6156,-11.365,-17.308001,-16.103001,6.9231,-4.381,3.268,-7.1795
-13.27,-21.524,-21.358999,-7.767,-6.5041,-13.013,-11.594,5.0641,7.6651,-7.767,-6.5041,-12.479,-5.0794,-9.6332,-17.714001,-24.358999,-23.833,1.1538,-5.6508,-1.3072,-11.667
-6.9811,-12.635,-14.239,1.2945,6.5041,-6.6026,1.9324,1.859,5.0886,1.2945,6.5041,-5.2545,-7.619,-10.271,-14.54,-19.231001,-20.612,2.4359,-3.1111,-5.2288,-7.1795
0.56604,-8.8254,-5.178,-9.0615,4.5528,-1.4744,6.4412,2.5,7.0209,-9.0615,4.5528,0.0,-11.429,-16.013,-9.4603,-15.385,-15.459,2.4359,7.6825,-5.8824,-8.4615
5.5975,-3.1111,5.178,-1.9417,-0.65041,3.6538,5.7971,10.192,7.0209,-1.9417,-0.65041,6.5681,-11.429,-16.650999,-1.8413,-8.3333,-7.0853,4.359,5.7778,-5.2288,-7.1795
6.8553,-1.8413,6.4725,5.8252,7.1545,6.859,1.9324,8.2692,8.3092,5.8252,7.1545,5.9113,-9.5238,-16.013,3.2381,-4.4872,-1.2882,-8.4615,3.873,-3.9216,-8.4615
6.8553,-0.57143,3.8835,6.4725,10.407,8.141,-2.5765,-1.9872,12.174,6.4725,10.407,1.9704,-6.9841,-14.737,7.0476,-0.64103,2.5765,11.41,1.9683,-2.6144,-6.5385
6.2264,-1.2063,0.64725,5.178,-8.4553,3.6538,-3.2206,1.859,10.242,5.178,-8.4553,0.65681,-3.8095,-14.099,8.9524,-1.2821,4.5089,20.385,7.0476,-1.3072,-8.4615
4.9686,-1.2063,-3.2362,-1.2945,-9.7561,-0.83333,-1.9324,8.9103,7.0209,-1.2945,-9.7561,-3.2841,-4.4444,-12.185,5.7778,-2.5641,2.5765,5.641,5.7778,-3.268,-8.4615
4.3396,3.873,-0.64725,-2.589,4.5528,-0.83333,-2.5765,5.0641,6.3768,-2.589,4.5528,-3.2841,-5.7143,-5.8054,1.9683,2.5641,1.9324,6.9231,0.69841,-7.8431,-2.0513
-1.3208,4.5079,-0.64725,-9.7087,-0.65041,-1.4744,-1.2882,2.5,-7.1498,-9.7087,-0.65041,-2.6273,-5.7143,-0.0638,-5.0159,3.2051,-1.9324,10.769,-8.1905,-7.8431,2.4359
-13.27,0.06349,-9.7087,-18.77,-10.407,-8.5256,-6.4412,-0.70513,-14.879,-18.77,-10.407,-7.8818,-6.9841,3.764,-15.81,0.0,-12.238,-18.077,-13.27,-11.111,2.4359
-17.044001,-2.4762,-12.945,-2.589,1.3008,-7.2436,-9.6618,-1.3462,-7.1498,-2.589,1.3008,-7.225,-1.9048,12.057,-18.349001,0.64103,-14.171,-23.205,-4.381,-5.8824,6.2821
-18.302,-5.0159,-12.945,4.5307,3.9024,-3.3974,-5.7971,-3.2692,1.868,4.5307,3.9024,-3.9409,1.9048,17.160999,-17.079,0.0,-14.171,4.359,-2.4762,-1.3072,10.128
-13.27,-8.1905,-10.356,5.178,4.5528,2.3718,4.5089,-5.8333,5.7327,5.178,4.5528,4.5977,0.63492,12.057,-13.905,-5.7692,-14.171,15.897,2.6032,0.65359,7.5641
-5.7233,-12.0,-8.4142,11.65,8.4553,5.5769,3.2206,1.859,5.7327,11.65,8.4553,6.5681,-1.2698,4.4019,-9.4603,-12.821,-14.815,3.0769,5.1429,2.6144,-0.12821
1.8239,-8.1905,-3.2362,2.589,6.5041,4.9359,0.64412,1.2179,4.4444,2.589,6.5041,5.2545,-1.9048,-1.3397,-3.1111,-12.821,-10.306,1.7949,-8.1905,7.1895,-0.76923
6.8553,-5.6508,0.0,-7.767,-13.008,1.7308,1.9324,-5.1923,-5.8615,-7.767,-13.008,0.0,0.0,-5.1675,3.873,-11.538,-4.5089,-3.3333,-3.1111,13.072,-4.6154
6.8553,-3.746,1.2945,-15.534,-23.415001,-4.6795,-0.64412,-0.0641,-9.0821,-15.534,-23.415001,-7.225,1.9048,-8.9952,8.3175,-8.3333,1.9324,3.0769,-0.57143,12.418,-10.385
6.2264,-2.4762,0.64725,-22.006001,-13.008,-9.8077,-16.747,-6.4744,-7.7939,-22.006001,-13.008,-15.107,2.5397,-15.375,10.222,-3.8462,6.4412,15.256,-6.9206,9.8039,-11.667
8.7421,2.6032,3.2362,-17.476,-8.4553,-12.372,-12.238,-7.1154,-11.014,-17.476,-8.4553,-15.764,0.63492,-16.650999,12.127,1.9231,10.306,10.769,-1.8413,8.4967,-12.308
11.258,5.7778,6.4725,-9.7087,-13.008,-10.449,-1.2882,1.2179,1.2238,-9.7087,-13.008,-9.1954,0.0,-16.013,13.397,5.7692,12.238,8.2051,-1.2063,9.8039,-12.308
6.2264,3.873,6.4725,-15.534,-3.252,-2.1154,5.7971,0.57692,0.57971,-15.534,-3.252,-1.3136,-0.63492,-12.823,8.9524,4.4872,9.0177,-2.6923,3.2381,2.6144,-11.026
-0.69182,1.3333,3.2362,-5.8252,5.2033,3.6538,6.4412,-1.3462,8.9533,-5.8252,5.2033,4.5977,0.0,-6.4434,1.9683,1.9231,3.2206,-7.1795,7.0476,-5.2288,-3.9744
-12.642,-9.4603,-8.4142,7.767,-1.3008,-2.1154,-8.3736,-4.5513,12.174,7.767,-1.3008,-1.9704,-1.9048,-1.9777,-7.5556,-5.7692,-7.7295,-9.1026,-5.6508,-10.458,-2.6923
-18.302,-8.8254,-11.003,10.356,-3.9024,-4.0385,-3.8647,-1.3462,3.1562,10.356,-3.9024,-2.6273,0.0,6.9537,-13.905,-5.1282,-11.594,-2.6923,-5.0159,-13.072,1.1538
-11.384,1.9683,-3.2362,5.8252,4.5528,4.2949,9.0177,-8.3974,1.868,5.8252,4.5528,4.5977,2.5397,14.609,-12.635,3.8462,-7.0853,-4.6154,-5.0159,-11.765,10.769
-3.8365,8.9524,3.2362,2.589,5.8537,0.44872,9.6618,-12.885,3.1562,2.589,5.8537,5.9113,1.2698,15.885,-10.095,8.9744,-3.2206,-16.795,8.3175,-10.458,15.897
-3.8365,11.492,5.178,-1.9417,7.1545,-7.8846,5.153,-16.09,5.7327,-1.9417,7.1545,1.3136,-2.5397,13.971,-8.1905,9.6154,-1.2882,-27.051001,12.127,-9.1503,15.256
-0.06289,9.5873,5.178,-5.8252,-0.65041,-5.9615,4.5089,-21.858999,6.3768,-5.8252,-0.65041,0.0,2.5397,15.247,-1.2063,8.9744,5.153,-11.026,13.397,-1.9608,15.897
-1.3208,2.6032,-1.2945,-20.065001,-11.707,-10.449,-6.4412,-25.705,-0.70853,-20.065001,-11.707,-8.5386,6.9841,14.609,3.873,4.4872,7.7295,-13.59,9.5873,2.6144,12.692
-5.0943,-3.746,-7.1197,-29.773001,-14.309,-19.423,-9.0177,-27.628,-6.5056,-29.773001,-14.309,-15.764,7.619,10.144,5.1429,1.2821,7.7295,-14.231,-5.6508,8.4967,10.769
-11.384,-3.746,-5.8252,-22.653999,-12.358,-22.628,-12.882,-21.858999,-2.6409,-22.653999,-12.358,-15.764,8.254,8.8676,6.4127,2.5641,9.6618,3.7179,-3.1111,10.458,6.9231
-9.4969,-2.4762,-1.2945,-18.122999,-11.057,-13.654,-9.6618,-8.3974,4.4444,-18.122999,-11.057,-7.8818,6.3492,6.3158,6.4127,4.4872,10.95,3.7179,4.5079,9.1503,6.9231
-4.4654,-2.4762,0.64725,-14.239,-7.1545,-4.6795,-2.5765,-7.1154,-0.06441,-14.239,-7.1545,-1.9704,1.2698,1.2121,3.873,2.5641,5.7971,-0.12821,0.69841,5.8824,4.359
1.195,-5.6508,-1.9417,1.9417,2.6016,1.7308,-3.2206,-0.0641,-0.06441,1.9417,2.6016,-1.3136,2.5397,-2.6156,3.2381,-3.2051,-0.64412,8.2051,-7.5556,9.1503,-2.0513
-4.4654,-15.175,-14.887,3.2362,1.9512,-4.0385,-7.7295,6.3462,-0.70853,3.2362,1.9512,-9.8522,-1.9048,-11.547,-3.746,-16.025999,-13.527,11.41,-8.1905,7.8431,-11.667
-5.0943,-17.079,-19.417,1.9417,-4.5528,-5.3205,-7.0853,10.833,-2.6409,1.9417,-4.5528,-11.823,-4.4444,-15.375,-8.8254,-23.077,-21.9,12.692,-0.57143,10.458,-18.718
6.2264,-8.1905,-9.0615,10.356,1.3008,8.7821,6.4412,14.679,-2.6409,10.356,1.3008,0.0,2.5397,-11.547,-4.381,-17.948999,-17.391001,24.872,3.2381,15.033,-18.077
2.4528,-5.0159,-5.178,3.2362,1.9512,6.859,5.153,17.243999,-0.70853,3.2362,1.9512,1.3136,-1.2698,-11.547,-7.5556,-16.025999,-16.747,17.820999,-1.8413,5.8824,-17.436001
3.0818,-2.4762,-1.2945,6.4725,8.4553,5.5769,1.2882,10.833,11.53,6.4725,8.4553,2.6273,-5.7143,-11.547,-8.8254,-12.179,-14.815,6.9231,-5.0159,-3.9216,-14.872
1.195,2.6032,0.64725,6.4725,3.252,5.5769,4.5089,8.9103,7.0209,6.4725,3.252,2.6273,-9.5238,-7.0813,-6.2857,-3.2051,-9.0177,10.128,-6.9206,-8.4967,-7.1795
-5.0943,5.7778,1.2945,3.2362,1.9512,-0.19231,0.64412,3.7821,-6.5056,3.2362,1.9512,0.65681,-8.254,-0.0638,-4.381,5.7692,-1.2882,6.9231,-2.4762,-10.458,2.4359
-0.69182,7.6825,7.1197,3.2362,0.65041,-0.19231,-6.4412,-0.70513,-4.5733,3.2362,0.65041,1.3136,-1.2698,5.6778,3.873,12.821,9.6618,5.0,1.9683,-7.8431,8.2051
3.7107,10.222,12.298,-2.589,-1.3008,-3.3974,-1.2882,-7.1154,-7.1498,-2.589,-1.3008,2.6273,3.1746,7.5917,10.222,16.025999,17.391001,-6.5385,1.9683,-5.8824,8.8462
5.5975,8.9524,12.298,-11.65,1.9512,-2.7564,1.2882,-5.1923,1.2238,-11.65,1.9512,1.3136,4.4444,8.8676,12.762,16.025999,19.968,-23.846001,-3.746,-4.5752,9.4872
8.1132,11.492,11.65,3.2362,11.707,1.7308,0.64412,3.141,3.1562,3.2362,11.707,3.2841,7.619,10.781,14.667,17.948999,20.612,-11.667,-11.365,0.0,16.538
1.8239,2.6032,2.589,5.178,3.9024,-3.3974,-6.4412,-0.70513,4.4444,5.178,3.9024,-3.2841,8.254,10.144,10.222,9.6154,14.171,6.2821,7.6825,3.9216,12.051
-1.9497,-5.0159,-5.8252,-2.589,-2.6016,-6.6026,-3.2206,-6.4744,3.8003,-2.589,-2.6016,-5.9113,7.619,6.3158,5.1429,0.0,7.0853,4.359,13.397,5.2288,4.359
-4.4654,-9.4603,-9.7087,-5.8252,-1.9512,-5.3205,-4.5089,-10.321,0.57971,-5.8252,-1.9512,-6.5681,5.7143,0.57416,-1.2063,-7.0513,-1.9324,-2.0513,1.3333,2.6144,1.1538
-4.4654,-6.9206,-7.1197,7.1197,3.9024,-2.1154,0.64412,0.57692,4.4444,7.1197,3.9024,-1.9704,3.1746,0.57416,-5.6508,-9.6154,-7.0853,-14.872,6.4127,-0.65359,0.51282
-5.7233,3.2381,-0.64725,11.003,7.8049,2.3718,14.171,5.0641,7.0209,11.003,7.8049,6.5681,1.2698,5.0399,-8.8254,-4.4872,-7.7295,-16.153999,7.6825,-3.268,6.2821
-12.642,6.4127,0.64725,5.8252,5.2033,-0.19231,16.103001,-1.9872,-8.438,5.8252,5.2033,8.5386,-4.4444,6.9537,-14.54,-1.9231,-9.6618,-17.436001,7.0476,-10.458,8.2051
-12.013,7.0476,2.589,5.178,-6.5041,1.0897,14.171,-12.885,-5.8615,5.178,-6.5041,9.8522,-6.3492,6.9537,-13.27,2.5641,-7.0853,-5.8974,5.1429,-13.072,5.641
2.4528,10.857,9.7087,-1.9417,3.9024,8.7821,3.2206,-1.3462,6.3768,-1.9417,3.9024,11.166,-0.63492,10.781,0.06349,11.538,5.153,2.4359,5.1429,-5.2288,6.2821
13.774,14.667,12.298,-1.2945,7.8049,9.4231,-1.2882,7.6282,10.242,-1.2945,7.8049,8.5386,3.1746,11.419,10.857,17.948999,13.527,1.7949,-2.4762,-1.3072,8.2051
16.289,10.222,9.0615,2.589,0.0,6.859,0.0,1.859,12.174,2.589,0.0,4.5977,5.0794,6.3158,14.032,14.103,14.815,-0.76923,5.7778,0.65359,-0.12821
14.403,5.7778,4.5307,3.8835,3.252,4.2949,-0.64412,2.5,1.2238,3.8835,3.252,1.3136,5.7143,0.57416,13.397,9.6154,12.238,-8.4615,6.4127,5.8824,-2.6923
10.629,2.6032,0.64725,0.0,5.8537,0.44872,-0.64412,1.859,2.5121,0.0,5.8537,-3.9409,5.0794,-3.8915,10.857,4.4872,8.3736,-6.5385,1.9683,7.1895,-5.8974
10.0,2.6032,2.589,0.64725,1.9512,-4.6795,4.5089,-5.1923,0.57971,0.64725,1.9512,-4.5977,7.619,-3.8915,12.127,3.8462,9.6618,11.41,0.69841,9.8039,-5.8974
5.5975,11.492,9.7087,-3.2362,-4.5528,-5.9615,9.0177,-8.3974,-3.9291,-3.2362,-4.5528,-0.65681,12.063,1.2121,15.302,11.538,14.815,10.128,-4.381,11.111,0.51282
-6.3522,12.127,9.7087,-5.178,-1.9512,-4.6795,9.6618,-10.962,-1.3527,-5.178,-1.9512,3.9409,12.063,6.3158,8.9524,11.538,12.238,6.2821,0.69841,6.5359,3.0769
-13.899,8.3175,4.5307,-1.9417,1.9512,-1.4744,5.7971,-7.7564,4.4444,-1.9417,1.9512,5.2545,8.254,7.5917,1.3333,7.6923,5.153,1.7949,0.69841,3.9216,6.2821
-12.013,3.2381,-1.9417,-1.2945,5.8537,-0.19231,3.2206,-12.244,8.3092,-1.2945,5.8537,3.2841,1.9048,5.0399,-4.381,0.64103,-2.5765,-7.8205,-8.1905,0.0,5.641
-3.2075,0.06349,-2.589,-5.178,0.65041,-0.83333,-2.5765,-9.6795,12.818,-5.178,0.65041,-0.65681,0.63492,3.764,-1.2063,-3.2051,-3.8647,-12.949,-1.8413,-1.3072,3.0769
11.258,0.69841,1.9417,-9.7087,-3.9024,1.7308,3.2206,-1.3462,9.5974,-9.7087,-3.9024,0.65681,5.7143,8.2297,8.3175,0.0,3.2206,-1.4103,1.9683,3.9216,5.641
16.289,-0.57143,4.5307,-8.4142,1.3008,-0.83333,1.9324,-11.603,1.868,-8.4142,1.3008,-1.3136,6.3492,8.8676,13.397,1.9231,8.3736,-4.6154,8.3175,6.5359,6.2821
15.66,1.9683,7.767,-6.4725,-5.8537,-0.19231,3.2206,-9.6795,-13.591,-6.4725,-5.8537,0.65681,3.8095,6.9537,12.762,4.4872,9.6618,-4.6154,8.3175,5.2288,5.0
16.917999,5.1429,10.356,6.4725,-5.2033,8.141,4.5089,-1.9872,-3.9291,6.4725,-5.2033,6.5681,5.0794,8.2297,12.127,7.6923,11.594,-10.385,5.1429,3.9216,6.2821
6.8553,3.873,7.767,2.589,2.6016,8.141,1.9324,-1.3462,5.7327,2.589,2.6016,7.225,3.8095,8.8676,7.6825,7.6923,9.6618,-11.667,3.2381,1.9608,5.641
2.4528,5.7778,7.1197,4.5307,0.65041,10.705,5.153,3.141,-1.3527,4.5307,0.65041,9.1954,6.9841,9.5056,6.4127,9.6154,10.306,-8.4615,-1.8413,3.268,5.0
-5.0943,2.6032,2.589,15.534,-1.3008,6.2179,0.0,-2.6282,-4.5733,15.534,-1.3008,6.5681,8.8889,6.9537,2.6032,6.4103,6.4412,-2.6923,-2.4762,5.2288,-1.4103
-13.899,0.06349,-1.2945,9.7087,11.057,-0.83333,-1.9324,-1.3462,-3.9291,9.7087,11.057,3.9409,5.7143,3.764,-3.1111,3.2051,1.2882,-5.8974,-6.2857,4.5752,-5.2564
-8.8679,3.2381,3.2362,0.0,9.1057,-0.83333,3.2206,-5.1923,-1.9968,0.0,9.1057,5.2545,8.8889,5.0399,-0.57143,5.7692,3.8647,-4.6154,-7.5556,5.8824,-2.6923
-0.06289,2.6032,8.4142,-2.589,-3.9024,-0.83333,0.64412,-10.962,-2.6409,-2.589,-3.9024,5.9113,11.429,6.3158,5.1429,7.6923,7.7295,7.5641,-3.746,10.458,-0.12821
8.1132,3.2381,11.65,-3.8835,-9.1057,3.0128,-3.2206,-5.8333,-7.7939,-3.8835,-9.1057,3.9409,13.333,6.3158,10.857,9.6154,11.594,-2.6923,-14.54,12.418,1.7949
12.516,1.3333,12.945,-10.356,-9.1057,3.0128,1.2882,-3.9103,-11.659,-10.356,-9.1057,2.6273,13.333,3.764,14.032,6.4103,13.527,-9.1026,-13.27,11.765,-0.12821
16.289,1.9683,16.181,-19.417,-5.2033,6.859,3.8647,-5.8333,-0.70853,-19.417,-5.2033,3.9409,10.794,-0.70175,17.841,4.4872,15.459,13.974,0.69841,13.725,-3.9744
15.66,7.0476,16.181,-3.2362,-7.1545,3.6538,6.4412,-3.2692,-2.6409,-3.2362,-7.1545,3.2841,8.8889,1.2121,17.841,8.3333,18.035,6.2821,0.69841,8.4967,-1.4103
8.7421,13.397,11.003,1.2945,-10.407,-2.7564,-0.64412,-3.2692,-9.7262,1.2945,-10.407,-2.6273,9.5238,10.781,15.302,16.667,19.323999,4.359,3.2381,5.8824,9.4872
6.8553,17.841,7.1197,-5.8252,-14.309,-2.7564,-5.153,-3.2692,-12.303,-5.8252,-14.309,-4.5977,12.698,20.351,14.032,23.718,21.256001,15.256,1.9683,8.4967,19.103001
1.195,11.492,-1.9417,-9.7087,-13.008,-6.6026,-9.0177,-7.1154,-17.455999,-9.7087,-13.008,-10.509,8.8889,20.351,5.1429,18.59,12.882,-1.4103,-3.1111,3.9216,16.538
-13.27,1.9683,-11.65,-17.476,-3.252,-16.218,-10.306,-3.2692,-12.303,-17.476,-3.252,-16.42,0.0,15.247,-9.4603,8.9744,-0.64412,-12.949,0.69841,-5.8824,12.051
-22.075001,-10.095,-16.181,-14.239,-10.407,-14.936,-16.103001,-1.9872,-4.5733,-14.239,-10.407,-15.764,-8.254,3.764,-20.254,-4.4872,-13.527,-11.667,1.3333,-9.1503,3.7179
-22.075001,-17.079,-16.827999,-12.298,-14.309,-11.09,-15.459,-2.6282,-17.455999,-12.298,-14.309,-10.509,-10.159,-5.8054,-22.794001,-14.103,-21.256001,-5.8974,-12.0,-9.1503,-0.76923
-14.528,-25.968,-16.827999,-2.589,0.0,-3.3974,-15.459,-0.0641,-13.591,-2.589,0.0,-5.2545,-11.429,-16.013,-20.254,-25.641001,-25.764999,-0.76923,-5.0159,-6.5359,-10.385
-13.899,-32.952,-18.77,-1.2945,-1.9512,-2.7564,-12.238,-0.0641,-5.2174,-1.2945,-1.9512,-4.5977,-12.698,-23.667999,-18.349001,-34.615002,-27.697001,1.7949,-1.2063,-7.1895,-20.641001
-8.239,-23.429001,-14.239,7.1197,3.252,-2.1154,3.2206,-1.9872,-3.285,7.1197,3.252,-0.65681,-10.159,-21.754,-10.73,-29.487,-19.968,-2.0513,-3.746,-2.6144,-17.436001
-5.7233,-10.73,-9.7087,5.178,3.252,-2.1154,5.7971,-9.0385,2.5121,5.178,3.252,-1.3136,-8.254,-18.565001,-5.0159,-19.872,-10.95,1.1538,0.06349,0.65359,-18.077
3.0818,6.4127,1.9417,-2.589,-1.3008,3.0128,14.815,-1.3462,6.3768,-2.589,-1.3008,5.9113,-2.5397,-8.3573,3.873,-1.9231,3.2206,10.128,1.9683,2.6144,-12.949
12.516,21.016001,16.181,6.4725,1.9512,8.141,16.747,5.0641,17.971001,6.4725,1.9512,13.793,7.619,6.3158,15.302,18.59,19.968,9.4872,7.6825,4.5752,-3.3333
21.320999,30.540001,26.537001,7.1197,10.407,15.192,14.815,1.2179,22.48,7.1197,10.407,19.048,15.873,15.885,23.556,31.41,30.917999,11.41,8.9524,11.111,5.641
18.805,30.540001,24.594999,-2.589,11.057,15.192,12.238,6.9872,18.615,-2.589,11.057,16.42,12.063,14.609,19.111,28.846001,25.764999,-5.8974,12.762,4.5752,6.9231
11.258,24.190001,17.476,-3.8835,3.9024,8.7821,16.747,9.5513,12.174,-3.8835,3.9024,14.45,4.4444,8.2297,10.857,18.59,14.171,-2.0513,14.667,-1.3072,4.359
8.7421,19.111,9.7087,8.4142,7.8049,7.5,12.882,11.474,6.3768,8.4142,7.8049,11.166,0.63492,2.488,6.4127,11.538,5.153,-3.3333,8.9524,-2.6144,5.641
0.56604,7.6825,-1.9417,9.7087,4.5528,-1.4744,7.7295,5.0641,-2.6409,9.7087,4.5528,0.65681,-3.8095,-7.0813,-1.8413,1.2821,-7.7295,-5.8974,12.127,-5.8824,2.4359
-6.3522,-0.57143,-9.0615,-0.64725,-1.3008,-8.5256,0.0,-0.0641,3.8003,-0.64725,-1.3008,-7.8818,-10.159,-11.547,-8.1905,-4.4872,-15.459,6.9231,15.937,-5.8824,1.1538
-12.013,-7.5556,-13.592,-3.2362,-3.9024,-7.8846,-8.3736,3.141,9.5974,-3.2362,-3.9024,-11.166,-16.507999,-14.737,-15.81,-8.3333,-20.612,3.0769,9.5873,-9.1503,1.1538
-16.415001,-13.905,-16.827999,-3.8835,-6.5041,-7.8846,-20.612,-1.3462,1.2238,-3.8835,-6.5041,-13.136,-17.778,-14.737,-20.254,-11.538,-22.544001,-1.4103,1.9683,-9.1503,-2.0513
-13.27,-15.175,-16.827999,-13.592,-8.4553,-5.9615,-21.9,-3.9103,-3.9291,-13.592,-8.4553,-13.793,-14.603,-8.3573,-17.714001,-10.256,-18.035,-0.12821,-8.8254,-7.1895,-0.76923
-12.013,-22.794001,-21.358999,-5.178,-13.008,-7.2436,-21.256001,1.2179,-9.0821,-5.178,-13.008,-17.733999,-13.333,-6.4434,-17.714001,-15.385,-17.391001,6.9231,-9.4603,-9.1503,-3.9744
-7.6101,-27.238001,-20.712,0.64725,1.3008,-5.9615,-12.882,13.397,-0.70853,0.64725,1.3008,-15.107,-10.794,-2.6156,-15.175,-20.513,-16.747,7.5641,-9.4603,-9.1503,-5.2564
-1.9497,-31.683001,-16.181,3.2362,5.8537,-0.83333,-5.153,12.756,-2.6409,3.2362,5.8537,-7.8818,-10.159,-4.5295,-12.635,-26.923,-16.747,0.51282,-14.54,-9.1503,-7.8205
1.195,-35.492001,-12.945,10.356,1.9512,3.6538,-3.8647,12.115,-5.2174,10.356,1.9512,-2.6273,-10.159,-12.185,-10.095,-33.333,-17.391001,4.359,-11.365,-9.1503,-16.153999
3.7107,-30.413,-6.4725,18.77,7.1545,7.5,0.0,17.885,2.5121,18.77,7.1545,3.9409,-8.8889,-15.375,-6.2857,-32.050999,-13.527,2.4359,3.873,-7.1895,-20.641001
6.2264,-9.4603,3.2362,21.358999,14.309,15.833,11.594,22.372,14.75,21.358999,14.309,13.136,-5.0794,-12.823,-1.2063,-16.025999,-4.5089,5.641,8.3175,-6.5359,-15.513
11.887,10.857,13.592,13.592,18.862,21.603001,16.103001,19.167,22.48,13.592,18.862,19.704,-1.2698,-7.0813,4.5079,3.2051,6.4412,6.9231,8.9524,-7.1895,-4.6154
10.0,23.556,17.476,9.7087,9.7561,17.115,14.815,16.603001,12.174,9.7087,9.7561,17.733999,0.0,-1.9777,5.7778,17.308001,12.882,11.41,11.492,-5.8824,2.4359
13.774,31.809999,21.358999,7.767,3.252,13.91,19.323999,17.243999,7.6651,7.767,3.252,16.42,2.5397,4.4019,8.9524,26.282,18.035,14.615,4.5079,-3.9216,8.2051
13.774,32.444,21.358999,11.003,1.3008,14.551,17.391001,14.679,3.8003,11.003,1.3008,14.45,3.8095,8.8676,8.3175,28.205,17.391001,2.4359,2.6032,-4.5752,11.41
11.258,22.921,14.887,13.592,4.5528,13.91,8.3736,2.5,-6.5056,13.592,4.5528,10.509,1.2698,6.3158,3.873,21.795,10.95,-9.7436,3.873,-1.9608,8.8462
1.8239,10.222,4.5307,0.64725,8.4553,5.5769,-2.5765,6.9872,-3.285,0.64725,8.4553,2.6273,0.63492,6.3158,0.06349,13.462,4.5089,-2.6923,4.5079,-2.6144,6.2821
-6.3522,-1.8413,-5.178,2.589,3.252,-5.3205,-12.882,12.115,-0.70853,2.589,3.252,-7.225,-1.2698,1.8501,-4.381,3.2051,-2.5765,3.7179,-3.1111,-3.268,-0.76923
-11.384,-10.095,-11.65,11.003,3.252,-9.1667,-13.527,13.397,-1.3527,11.003,3.252,-11.166,-3.1746,-0.70175,-6.9206,-5.1282,-9.0177,10.128,-20.254,1.3072,-2.0513
-11.384,-24.063,-20.065001,8.4142,-4.5528,-5.9615,-9.0177,10.192,-3.9291,8.4142,-4.5528,-9.8522,-6.9841,-8.9952,-11.365,-21.153999,-18.68,8.8462,-13.905,1.3072,-9.1026
-10.755,-40.570999,-28.479,-0.64725,-1.3008,-5.9615,-17.391001,5.7051,-5.8615,-0.64725,-1.3008,-13.793,-10.794,-19.202999,-14.54,-39.103001,-27.697001,-4.6154,-6.9206,1.3072,-19.358999
-5.0943,-38.032001,-25.889999,-3.2362,-0.65041,-4.0385,-18.68,7.6282,-7.1498,-3.2362,-0.65041,-12.479,-6.9841,-21.754,-10.095,-42.307999,-26.409,1.1538,-16.444,5.2288,-20.641001
-0.69182,-31.683001,-19.417,-4.5307,-14.959,-2.7564,-13.527,5.0641,-7.1498,-4.5307,-14.959,-9.8522,-5.0794,-25.582001,-6.2857,-40.384998,-23.188,17.820999,-15.175,6.5359,-25.768999
10.0,-15.81,-5.8252,-1.2945,-14.309,3.6538,-5.153,6.9872,-11.659,-1.2945,-14.309,-1.9704,0.63492,-19.841,3.2381,-25.641001,-10.306,22.308001,-15.175,9.8039,-21.282
9.3711,-3.746,0.0,0.64725,-2.6016,4.9359,0.64412,10.192,-16.812,0.64725,-2.6016,-0.65681,3.1746,-12.185,6.4127,-11.538,-0.64412,10.128,-7.5556,7.8431,-12.308
1.8239,1.3333,-1.2945,-12.945,-0.65041,-0.83333,-5.7971,5.0641,-12.303,-12.945,-0.65041,-5.2545,1.9048,-8.3573,4.5079,-2.5641,2.5765,-2.0513,-3.746,4.5752,-9.7436
1.195,12.762,4.5307,-12.945,-1.3008,1.0897,4.5089,4.4231,-1.9968,-12.945,-1.3008,0.65681,8.254,3.126,8.3175,10.256,10.306,8.8462,-1.2063,7.1895,1.1538
-1.3208,21.016001,7.767,-4.5307,-2.6016,1.7308,10.306,-3.2692,1.2238,-4.5307,-2.6016,4.5977,10.794,9.5056,8.3175,19.872,13.527,2.4359,-1.2063,9.1503,11.41
-3.2075,19.111,7.767,-0.64725,-1.3008,-4.6795,1.2882,-9.0385,-2.6409,-0.64725,-1.3008,0.65681,6.3492,11.419,5.1429,19.872,11.594,-2.6923,0.06349,2.6144,13.974
3.0818,16.570999,11.65,3.2362,-10.407,-2.7564,1.2882,-10.962,3.1562,3.2362,-10.407,1.9704,5.7143,17.160999,5.7778,20.513,11.594,-5.8974,11.492,1.3072,17.820999
6.8553,11.492,9.7087,-7.1197,-3.9024,-0.19231,0.64412,-19.936001,5.7327,-7.1197,-3.9024,1.3136,6.9841,20.989,4.5079,15.385,7.7295,-6.5385,21.650999,5.8824,19.103001
-2.5786,4.5079,-1.2945,-16.181,-9.7561,-9.8077,-5.153,-18.653999,-1.9968,-16.181,-9.7561,-8.5386,1.9048,17.799,-3.746,7.6923,-0.64412,-9.7436,12.127,1.3072,17.179001
-8.8679,-3.1111,-11.003,-11.65,-9.7561,-14.936,-4.5089,-13.526,-5.2174,-11.65,-9.7561,-13.793,-5.7143,7.5917,-10.73,0.0,-9.0177,-25.768999,3.2381,-4.5752,12.051
-13.899,-15.175,-18.77,-17.476,-11.057,-15.577,-13.527,-21.218,-2.6409,-17.476,-11.057,-19.048,-8.254,0.57416,-13.905,-8.3333,-13.527,-21.282,3.873,-5.8824,6.9231
-18.931,-29.143,-24.594999,-22.006001,-13.659,-18.141001,-21.256001,-9.6795,-2.6409,-22.006001,-13.659,-21.674999,-9.5238,-4.5295,-17.079,-19.872,-18.68,3.0769,0.69841,-7.1895,-0.76923
-18.931,-35.492001,-23.948,-9.7087,-4.5528,-20.063999,-19.968,-3.2692,-3.9291,-9.7087,-4.5528,-20.361,-10.794,-10.271,-17.714001,-28.205,-22.544001,6.2821,-1.8413,-7.1895,-6.5385
-15.786,-33.587002,-22.653999,0.0,-9.7561,-14.295,-12.882,-3.9103,-0.70853,0.0,-9.7561,-15.764,-13.968,-20.478001,-18.349001,-33.973999,-26.409,5.0,-1.2063,-6.5359,-11.026
-17.044001,-24.698,-22.006001,-2.589,-7.8049,-7.8846,-6.4412,-10.962,1.2238,-2.589,-7.8049,-11.823,-19.048,-26.858,-22.159,-33.973999,-30.274,-0.12821,-6.9206,-10.458,-14.872
-13.27,-15.81,-19.417,-7.767,-12.358,-5.3205,-1.9324,-2.6282,-6.5056,-7.767,-12.358,-7.8818,-18.413,-26.858,-20.889,-28.846001,-27.052999,-19.358999,2.6032,-13.072,-18.718
-3.8365,-5.6508,-12.298,-7.1197,-9.1057,-3.3974,-5.153,1.2179,2.5121,-7.1197,-9.1057,-3.9409,-13.333,-21.754,-12.635,-17.308001,-16.103001,-5.2564,3.2381,-7.8431,-15.513
-2.5786,4.5079,-5.178,-7.767,-11.707,-7.2436,-10.95,1.859,2.5121,-7.767,-11.707,-5.9113,-6.9841,-12.185,-5.6508,-1.9231,-5.153,10.769,-6.2857,-4.5752,-9.1026
2.4528,14.032,3.2362,7.1197,1.9512,-6.6026,-5.153,4.4231,-0.70853,7.1197,1.9512,-4.5977,0.63492,-0.0638,1.9683,13.462,5.153,16.538,-10.73,-0.65359,1.1538
1.8239,17.841,5.178,3.2362,2.6016,-5.3205,-3.2206,3.7821,0.57971,3.2362,2.6016,-4.5977,4.4444,7.5917,6.4127,20.513,9.0177,14.615,-10.73,3.268,6.2821
-8.239,9.5873,-1.2945,-19.417,-12.358,-10.449,-4.5089,-16.09,-8.438,-19.417,-12.358,-9.8522,1.9048,5.0399,0.69841,14.744,5.153,5.641,0.06349,0.0,3.7179
-8.239,5.7778,-2.589,-18.122999,-8.4553,-7.2436,-7.0853,-17.372,-3.285,-18.122999,-8.4553,-11.166,3.1746,10.144,1.3333,14.103,5.7971,-0.76923,6.4127,2.6144,7.5641
-9.4969,4.5079,-3.8835,-9.0615,-5.8537,-7.2436,-8.3736,-3.2692,-2.6409,-9.0615,-5.8537,-9.8522,5.0794,15.247,1.3333,13.462,5.7971,-5.8974,0.06349,3.9216,15.256
-10.755,-5.6508,-10.356,-11.003,-12.358,-12.372,-10.306,-5.8333,-3.9291,-11.003,-12.358,-11.166,3.1746,12.695,-2.4762,3.2051,0.0,-6.5385,2.6032,2.6144,13.974
-11.384,-19.618999,-15.534,-7.767,-4.5528,-12.372,-10.95,-10.962,1.868,-7.767,-4.5528,-10.509,-3.8095,5.0399,-9.4603,-12.821,-9.0177,-21.923,1.9683,-5.2288,1.7949
-16.415001,-32.317001,-20.065001,-11.65,-2.6016,-12.372,-15.459,-14.167,-3.9291,-11.65,-2.6016,-13.793,-8.8889,-2.6156,-15.81,-26.282,-17.391001,-11.667,-5.6508,-13.072,-9.1026
-16.415001,-38.667,-20.712,-19.417,-6.5041,-13.013,-17.391001,-16.731001,-10.37,-19.417,-6.5041,-14.45,-11.429,-8.9952,-17.079,-32.692001,-21.256001,-6.5385,-17.079,-14.379,-11.667
-6.9811,-32.952,-12.945,-5.8252,-10.407,-9.1667,-12.882,-14.808,-10.37,-5.8252,-10.407,-9.1954,-7.619,-9.6332,-10.73,-29.487,-16.103001,-20.0,-14.54,-10.458,-11.026
4.9686,-15.81,-0.64725,7.1197,-9.1057,1.0897,-3.8647,-14.167,-5.2174,7.1197,-9.1057,1.9704,-1.2698,-8.3573,-1.2063,-19.872,-7.0853,-11.667,-8.8254,-1.9608,-8.4615
5.5975,-1.8413,5.178,7.1197,-4.5528,5.5769,2.5765,-14.167,-3.285,7.1197,-4.5528,6.5681,1.9048,-7.7193,0.69841,-11.538,-2.5765,-11.026,-0.57143,-4.5752,-7.8205
5.5975,15.302,11.65,-5.178,8.4553,8.7821,11.594,-13.526,-12.303,-5.178,8.4553,11.166,5.7143,1.2121,3.873,3.8462,5.153,-12.308,2.6032,-6.5359,1.7949
3.0818,21.016001,14.239,-5.178,11.707,4.9359,14.171,-7.1154,-5.2174,-5.178,11.707,11.166,6.3492,8.2297,3.873,12.821,9.6618,-14.231,7.6825,-7.8431,5.641
3.0818,24.825001,16.181,7.1197,5.8537,2.3718,13.527,-1.9872,-0.06441,7.1197,5.8537,11.166,6.9841,15.247,5.1429,23.077,14.815,-27.051001,2.6032,-7.1895,13.333
3.7107,29.905001,18.77,6.4725,6.5041,2.3718,14.815,-5.1923,6.3768,6.4725,6.5041,12.479,10.794,20.989,8.9524,30.128,19.968,-19.358999,4.5079,-3.9216,19.103001
-1.9497,22.921,12.945,2.589,16.910999,-3.3974,1.9324,-6.4744,10.242,2.589,16.910999,4.5977,9.5238,19.712999,5.7778,26.923,17.391001,-25.768999,8.3175,-5.8824,15.897
-3.2075,15.937,9.0615,9.7087,9.7561,0.44872,3.2206,-7.7564,7.0209,9.7087,9.7561,3.9409,6.9841,18.437,1.9683,21.795,13.527,-7.8205,8.3175,-3.9216,13.333
-6.9811,12.127,4.5307,6.4725,-9.7561,-1.4744,2.5765,-6.4744,1.2238,6.4725,-9.7561,1.3136,2.5397,14.609,-3.1111,16.025999,7.7295,10.128,-0.57143,-5.2288,9.4872
-5.7233,-0.57143,-0.64725,-2.589,-8.4553,-4.6795,-5.153,-5.8333,-11.014,-2.589,-8.4553,-3.9409,0.63492,10.144,-5.0159,5.7692,1.9324,1.1538,-2.4762,-3.9216,2.4359
-5.7233,-11.365,-5.8252,-11.65,1.9512,-5.9615,-13.527,1.859,-13.591,-11.65,1.9512,-9.8522,0.0,5.0399,-5.0159,-3.2051,-3.8647,3.7179,-11.365,0.0,-0.76923
-2.5786,-22.794001,-11.003,-5.8252,0.65041,-1.4744,-11.594,-0.0641,-18.743999,-5.8252,0.65041,-10.509,-1.2698,-1.3397,-3.746,-12.821,-9.0177,5.0,-20.254,4.5752,-4.6154
-0.06289,-32.952,-17.476,8.4142,-3.9024,1.0897,-6.4412,3.7821,-16.812,8.4142,-3.9024,-9.1954,-4.4444,-10.271,-3.746,-23.718,-14.171,8.2051,-13.905,4.5752,-11.667
1.195,-31.683001,-14.887,6.4725,-7.1545,-0.19231,-5.153,10.833,-4.5733,6.4725,-7.1545,-4.5977,-5.7143,-13.461,-3.1111,-26.282,-14.815,5.0,-9.4603,2.6144,-13.59
7.4843,-18.349001,-5.178,-7.1197,-2.6016,6.2179,-6.4412,8.9103,3.8003,-7.1197,-2.6016,1.9704,-3.8095,-13.461,0.69841,-18.59,-9.0177,1.1538,-10.73,3.9216,-12.308
10.0,-3.1111,3.2362,1.9417,10.407,8.141,1.2882,6.9872,10.242,1.9417,10.407,5.9113,4.4444,-8.3573,7.6825,-7.0513,0.64412,8.8462,1.9683,11.111,-9.1026
4.9686,9.5873,7.767,9.0615,11.057,4.9359,6.4412,-6.4744,10.886,9.0615,11.057,5.9113,8.254,-3.2536,9.5873,1.9231,7.0853,10.128,8.9524,9.8039,-4.6154
1.8239,24.825001,13.592,9.0615,7.1545,6.2179,21.256001,-12.885,5.7327,9.0615,7.1545,11.823,8.254,1.2121,8.9524,14.103,12.238,5.641,6.4127,4.5752,5.0
-0.06289,31.174999,15.534,2.589,7.8049,6.859,28.341,-1.3462,10.886,2.589,7.8049,16.42,6.3492,6.9537,5.7778,21.153999,14.171,-10.385,12.127,0.0,10.769
-1.9497,31.174999,14.239,-6.4725,9.1057,3.0128,16.103001,-2.6282,21.836,-6.4725,9.1057,12.479,3.1746,10.144,2.6032,24.358999,14.171,-5.8974,15.302,-4.5752,12.051
1.8239,29.905001,16.827999,5.8252,10.407,-0.83333,11.594,-7.1154,17.327,5.8252,10.407,9.8522,7.619,17.799,5.7778,28.846001,16.747,-5.2564,10.857,-1.9608,18.462
7.4843,26.73,18.77,3.2362,0.65041,-1.4744,14.171,-4.5513,4.4444,3.2362,0.65041,8.5386,11.429,22.264999,10.222,27.563999,17.391001,-11.026,10.857,1.9608,22.308001
13.145,24.190001,20.712,0.64725,1.9512,3.6538,18.035,-9.0385,2.5121,0.64725,1.9512,10.509,9.5238,19.075001,11.492,24.358999,16.103001,-9.7436,7.6825,1.3072,19.103001
13.145,21.650999,19.417,-1.9417,7.8049,7.5,18.68,-2.6282,8.9533,-1.9417,7.8049,11.166,5.7143,14.609,10.222,19.872,13.527,-8.4615,5.1429,1.3072,15.897
4.9686,14.667,12.945,-5.8252,4.5528,4.2949,18.68,3.7821,7.6651,-5.8252,4.5528,11.823,5.0794,12.057,6.4127,12.179,9.6618,-11.667,15.937,5.2288,10.128
-7.6101,8.9524,5.8252,3.8835,1.3008,-0.19231,10.306,-9.0385,15.395,3.8835,1.3008,9.8522,5.7143,11.419,1.3333,5.7692,4.5089,-1.4103,13.397,3.268,5.641
-10.755,0.69841,-1.2945,8.4142,7.8049,-2.1154,1.2882,-5.8333,10.886,8.4142,7.8049,5.2545,2.5397,5.6778,-3.1111,-1.9231,-2.5765,10.128,-1.2063,1.9608,1.7949
-6.9811,-11.365,-8.4142,11.65,10.407,-3.3974,-9.0177,-2.6282,7.0209,11.65,10.407,-1.9704,-1.2698,-4.5295,-3.746,-12.821,-9.0177,0.51282,-1.2063,5.2288,-6.5385
3.0818,-20.889,-10.356,3.2362,-2.6016,1.0897,-6.4412,-1.9872,0.57971,3.2362,-2.6016,-5.2545,0.0,-10.909,1.3333,-19.872,-9.0177,-0.12821,-3.1111,10.458,-10.385
7.4843,-17.714001,-9.0615,0.64725,-2.6016,1.7308,-1.9324,6.3462,-2.6409,0.64725,-2.6016,-6.5681,3.1746,-10.909,7.0476,-17.308001,-5.153,5.641,-5.6508,14.379,-11.026
13.145,-10.095,-5.178,1.2945,0.0,1.7308,-1.2882,3.7821,-1.9968,1.2945,0.0,-3.9409,5.0794,-8.3573,11.492,-9.6154,1.2882,2.4359,-3.746,14.379,-10.385
17.547001,0.06349,1.9417,-7.1197,1.3008,4.9359,-5.153,-0.0641,0.57971,-7.1197,1.3008,0.0,5.7143,-5.8054,13.397,0.64103,7.0853,10.769,-12.0,13.725,-5.8974
11.887,10.857,9.0615,-5.8252,6.5041,7.5,1.2882,1.2179,-3.285,-5.8252,6.5041,4.5977,2.5397,-0.70175,11.492,10.897,10.95,15.256,-3.746,10.458,2.4359
3.7107,10.222,9.0615,2.589,-2.6016,4.2949,3.2206,3.141,-0.06441,2.589,-2.6016,4.5977,0.63492,3.126,6.4127,10.256,9.0177,5.0,7.0476,2.6144,2.4359
1.8239,13.397,9.7087,-0.64725,-12.358,1.7308,9.6618,3.141,3.8003,-0.64725,-12.358,5.2545,1.2698,10.781,3.873,13.462,8.3736,1.7949,10.222,-1.9608,6.9231
-3.8365,14.032,8.4142,-7.767,-7.8049,1.0897,9.6618,-5.8333,1.868,-7.767,-7.8049,3.9409,-0.63492,15.885,0.69841,16.025999,7.7295,5.0,4.5079,-6.5359,11.41
-3.2075,13.397,5.178,1.2945,4.5528,1.7308,-1.9324,-3.2692,8.3092,1.2945,4.5528,-0.65681,0.63492,17.160999,0.69841,17.308001,8.3736,-7.8205,-3.1111,-7.8431,12.051
-2.5786,7.0476,1.2945,0.0,7.1545,-2.7564,-10.306,1.2179,3.1562,0.0,7.1545,-4.5977,1.9048,14.609,0.06349,14.103,6.4412,-19.358999,-3.746,-8.4967,9.4872
0.56604,-0.57143,0.64725,-0.64725,-0.65041,-0.19231,-9.0177,-8.3974,-8.438,-0.64725,-0.65041,-5.9113,5.7143,10.144,3.2381,7.6923,6.4412,2.4359,-3.746,-3.268,3.7179
6.2264,-8.1905,1.2945,-1.9417,-4.5528,3.0128,-10.95,3.141,-9.0821,-1.9417,-4.5528,-5.2545,5.7143,1.8501,5.7778,0.0,5.153,10.128,-12.0,3.268,-1.4103
4.9686,-17.714001,-1.2945,1.2945,-7.8049,4.2949,-11.594,15.321,-8.438,1.2945,-7.8049,-4.5977,3.1746,-7.0813,4.5079,-10.897,0.64412,2.4359,-25.333,4.5752,-7.8205
6.2264,-14.54,-1.9417,7.1197,-3.9024,7.5,-1.2882,11.474,-11.659,7.1197,-3.9024,1.3136,5.0794,-8.9952,5.7778,-14.103,-1.2882,21.025999,-22.159,9.1503,-8.4615
3.0818,-13.905,-5.178,7.1197,-9.1057,1.7308,1.2882,12.756,-5.2174,7.1197,-9.1057,1.3136,4.4444,-10.909,3.873,-17.308001,-4.5089,12.051,-9.4603,9.8039,-11.667
0.56604,-13.27,-5.8252,3.8835,-3.9024,-1.4744,-2.5765,10.192,-1.3527,3.8835,-3.9024,1.3136,1.9048,-10.271,0.06349,-15.385,-5.153,-3.3333,3.2381,7.1895,-11.026
-0.06289,-3.746,-1.2945,2.589,7.1545,4.9359,-5.7971,5.7051,3.1562,2.589,7.1545,1.9704,0.63492,-3.8915,-1.2063,-5.1282,-2.5765,1.7949,8.9524,5.2288,-3.9744
5.5975,5.1429,5.178,12.945,13.659,14.551,3.8647,6.9872,-0.06441,12.945,13.659,9.8522,1.9048,1.8501,0.69841,3.8462,1.9324,9.4872,15.302,3.9216,3.7179
-0.06289,5.7778,3.2362,11.003,2.6016,6.859,3.8647,5.7051,-7.7939,11.003,2.6016,6.5681,-2.5397,-0.70175,-1.8413,5.1282,0.0,-2.0513,11.492,0.65359,3.0769
-5.0943,3.873,-1.2945,-1.9417,-6.5041,-3.3974,2.5765,3.141,-9.0821,-1.9417,-6.5041,0.0,-5.0794,-3.2536,-4.381,2.5641,-3.2206,-3.3333,7.6825,-0.65359,0.51282
0.56604,5.1429,0.0,-7.1197,-3.252,0.44872,0.64412,1.859,0.57971,-7.1197,-3.252,0.65681,0.0,-1.3397,0.69841,3.2051,-0.64412,-9.1026,8.3175,5.8824,2.4359
3.0818,3.2381,0.64725,-10.356,-7.8049,3.0128,-2.5765,2.5,-1.3527,-10.356,-7.8049,0.65681,1.2698,-1.9777,1.3333,2.5641,0.0,-0.76923,0.06349,7.8431,2.4359
-1.9497,2.6032,1.2945,0.64725,-1.9512,-1.4744,-1.2882,1.2179,-1.3527,0.64725,-1.9512,1.9704,-0.63492,-1.9777,-1.8413,2.5641,-0.64412,10.128,-0.57143,0.0,1.1538
-5.0943,-0.57143,-1.2945,3.2362,3.9024,-4.0385,0.0,3.7821,-0.06441,3.2362,3.9024,0.65681,-3.8095,-3.2536,-5.6508,0.64103,-3.2206,7.5641,5.7778,-4.5752,-0.12821
-0.06289,1.9683,0.64725,0.64725,-0.65041,0.44872,1.9324,0.57692,4.4444,0.64725,-0.65041,3.2841,-4.4444,-0.0638,-6.2857,3.2051,-2.5765,5.641,1.3333,-6.5359,1.7949
3.7107,9.5873,6.4725,8.4142,9.1057,8.7821,9.6618,4.4231,1.2238,8.4142,9.1057,10.509,-5.0794,1.2121,-5.0159,7.6923,-0.64412,6.2821,0.06349,-7.1895,5.0
3.0818,8.9524,6.4725,3.8835,9.7561,6.2179,14.171,6.3462,10.886,3.8835,9.7561,11.166,-5.0794,-1.3397,-5.0159,4.4872,-1.2882,1.7949,7.0476,-7.1895,2.4359
-1.3208,0.06349,0.0,-1.2945,-1.3008,-1.4744,9.6618,9.5513,14.106,-1.2945,-1.3008,3.9409,-5.7143,-3.2536,-6.2857,-3.8462,-5.153,5.0,8.9524,-9.8039,-3.9744
0.56604,-4.381,-2.589,-3.2362,0.0,2.3718,10.95,5.7051,11.53,-3.2362,0.0,3.2841,-6.3492,-4.5295,-6.2857,-8.9744,-6.4412,-2.0513,8.3175,-12.418,-5.2564
-1.9497,-5.6508,-4.5307,4.5307,1.3008,1.0897,1.2882,1.859,8.9533,4.5307,1.3008,1.3136,-4.4444,-6.4434,-5.0159,-8.3333,-6.4412,-6.5385,3.873,-10.458,-2.6923
0.56604,1.3333,0.0,12.298,13.659,1.7308,-1.2882,3.141,7.0209,12.298,13.659,2.6273,3.8095,-0.70175,1.9683,0.64103,1.9324,4.359,-3.746,-1.9608,4.359
-4.4654,1.3333,0.64725,12.298,16.910999,1.7308,-4.5089,1.859,10.886,12.298,16.910999,1.9704,3.8095,0.57416,1.3333,1.9231,3.2206,1.1538,5.1429,0.65359,2.4359
-5.0943,2.6032,3.2362,12.298,14.959,6.2179,5.7971,-1.3462,10.886,12.298,14.959,6.5681,3.1746,-1.9777,0.69841,1.2821,2.5765,-9.7436,12.762,0.65359,-1.4103
1.195,2.6032,4.5307,7.1197,3.9024,6.859,9.6618,8.9103,10.886,7.1197,3.9024,7.8818,1.2698,-8.3573,1.3333,-2.5641,-1.2882,0.51282,8.9524,7.1895,-5.8974
9.3711,6.4127,6.4725,4.5307,3.252,6.859,10.306,12.756,4.4444,4.5307,3.252,7.8818,-3.1746,-13.461,1.3333,-3.8462,-4.5089,9.4872,-1.2063,7.8431,-7.1795
13.145,8.3175,9.0615,1.2945,0.0,11.346,12.882,3.7821,-5.8615,1.2945,0.0,8.5386,-4.4444,-14.099,2.6032,-4.4872,-5.7971,19.743999,-1.8413,7.8431,-7.8205
9.3711,1.9683,4.5307,-17.476,-5.8537,8.141,3.8647,8.9103,6.3768,-17.476,-5.8537,4.5977,-8.8889,-16.650999,0.06349,-7.6923,-9.0177,15.897,7.0476,4.5752,-8.4615
6.8553,-1.8413,0.0,0.64725,3.9024,1.0897,-9.0177,7.6282,8.9533,0.64725,3.9024,-1.9704,-10.159,-16.650999,-1.8413,-8.3333,-10.306,5.641,5.1429,3.268,-10.385
-1.9497,-5.0159,-6.4725,10.356,-4.5528,-7.2436,-9.0177,1.859,-2.6409,10.356,-4.5528,-8.5386,-9.5238,-14.099,-5.0159,-7.6923,-10.306,6.9231,-1.2063,1.3072,-11.026
-1.3208,-1.2063,-3.2362,2.589,-5.8537,-0.19231,-3.2206,-3.2692,-4.5733,2.589,-5.8537,-3.2841,-6.3492,-7.0813,-2.4762,-0.64103,-4.5089,5.0,-10.095,1.3072,-1.4103
-2.5786,3.873,1.9417,5.178,0.65041,3.6538,3.8647,3.7821,-1.3527,5.178,0.65041,3.2841,-0.63492,1.8501,0.69841,5.7692,2.5765,-6.5385,0.69841,0.65359,4.359
-3.2075,4.5079,3.8835,7.1197,5.2033,6.2179,7.7295,-1.3462,7.6651,7.1197,5.2033,7.225,-1.9048,0.57416,-0.57143,4.4872,3.8647,-5.2564,7.6825,-4.5752,3.0769
-0.69182,7.0476,5.178,3.8835,8.4553,6.859,9.6618,-2.6282,3.8003,3.8835,8.4553,9.1954,0.0,2.488,1.3333,6.4103,5.7971,6.2821,4.5079,-5.8824,3.0769
3.7107,8.3175,7.767,6.4725,7.8049,5.5769,10.95,2.5,3.1562,6.4725,7.8049,9.8522,3.8095,7.5917,5.1429,10.256,10.95,9.4872,6.4127,-4.5752,6.2821
6.8553,9.5873,10.356,-3.2362,6.5041,4.2949,5.153,-2.6282,3.1562,-3.2362,6.5041,5.2545,6.9841,12.695,9.5873,15.385,15.459,-6.5385,8.9524,-4.5752,9.4872
10.629,13.397,13.592,-3.8835,6.5041,-0.19231,1.9324,-7.7564,5.0886,-3.8835,6.5041,2.6273,11.429,19.075001,13.397,20.513,20.612,-12.308,3.2381,0.0,15.897
8.1132,12.762,10.356,-5.8252,-3.9024,-4.0385,0.0,-6.4744,11.53,-5.8252,-3.9024,0.65681,13.333,19.075001,12.762,17.948999,18.68,-1.4103,3.873,2.6144,12.051
5.5975,8.9524,5.178,-0.64725,-4.5528,-0.19231,-0.64412,-3.2692,0.57971,-0.64725,-4.5528,0.65681,12.063,15.885,8.9524,10.897,11.594,-0.76923,4.5079,1.9608,8.2051
2.4528,4.5079,0.0,1.9417,-3.9024,0.44872,-0.64412,4.4231,-9.0821,1.9417,-3.9024,-0.65681,6.9841,9.5056,3.873,3.8462,2.5765,-1.4103,-10.73,3.268,6.2821
-3.2075,-3.746,-3.8835,1.9417,-3.252,-4.6795,-2.5765,6.9872,-9.0821,1.9417,-3.252,-3.2841,1.9048,2.488,-1.8413,-4.4872,-5.7971,5.0,-6.2857,5.2288,-0.76923
-8.8679,-10.095,-5.178,0.64725,-8.4553,-7.8846,-5.153,2.5,-11.014,0.64725,-8.4553,-4.5977,-4.4444,-4.5295,-6.2857,-10.256,-10.306,1.1538,1.3333,3.268,-5.2564
-4.4654,-10.73,-2.589,-0.64725,-9.1057,-2.1154,-1.2882,3.7821,-15.523,-0.64725,-9.1057,-2.6273,-5.7143,-7.0813,-4.381,-8.9744,-8.3736,-7.8205,-8.1905,3.268,-5.8974
5.5975,-7.5556,0.64725,1.9417,-3.252,4.9359,-0.64412,6.9872,-20.032,1.9417,-3.252,-1.3136,-3.1746,-5.1675,1.3333,-4.4872,-3.2206,7.5641,-5.6508,7.8431,-3.9744
7.4843,-7.5556,-1.9417,-5.178,-1.3008,3.0128,-13.527,6.9872,-17.455999,-5.178,-1.3008,-5.9113,-2.5397,-7.0813,2.6032,-3.8462,-1.2882,13.333,-10.095,5.2288,-2.6923
7.4843,-5.0159,-3.8835,-3.2362,6.5041,3.6538,-12.238,10.192,-3.285,-3.2362,6.5041,-3.9409,-3.1746,-6.4434,1.9683,-3.8462,-1.9324,19.103001,-6.9206,5.2288,-3.3333
-0.06289,-6.9206,-7.1197,12.298,4.5528,-1.4744,-6.4412,12.756,-0.06441,12.298,4.5528,-3.9409,-6.3492,-8.3573,-1.8413,-7.0513,-6.4412,14.615,-8.8254,2.6144,-9.1026
0.56604,-6.2857,-4.5307,11.65,1.9512,-1.4744,-1.2882,12.115,-1.3527,11.65,1.9512,-1.9704,-3.1746,-4.5295,0.06349,-6.4103,-5.7971,10.769,-2.4762,1.9608,-9.1026
6.8553,0.06349,-0.64725,-3.2362,-2.6016,3.0128,-0.64412,12.756,-1.9968,-3.2362,-2.6016,0.0,0.0,0.57416,4.5079,-0.64103,-1.2882,3.7179,-5.0159,7.8431,-3.3333
1.8239,3.2381,-1.9417,-0.64725,3.9024,0.44872,0.0,5.7051,-0.70853,-0.64725,3.9024,-0.65681,-0.63492,1.8501,1.9683,1.9231,-0.64412,5.0,-1.2063,1.3072,-2.0513
-0.69182,4.5079,-3.2362,3.8835,-1.9512,-2.7564,1.9324,1.859,4.4444,3.8835,-1.9512,-1.9704,-0.63492,3.126,0.06349,3.2051,0.64412,1.1538,7.6825,-6.5359,-0.12821
4.3396,8.3175,1.2945,3.8835,-8.4553,4.9359,10.95,4.4231,5.0886,3.8835,-8.4553,5.2545,1.2698,4.4019,1.3333,4.4872,2.5765,-5.8974,4.5079,-5.2288,1.7949
0.56604,5.1429,2.589,-0.64725,2.6016,2.3718,5.153,6.3462,5.0886,-0.64725,2.6016,3.9409,1.2698,3.764,-1.2063,1.2821,0.64412,-3.3333,0.69841,-6.5359,-0.76923
-0.69182,-2.4762,1.2945,-5.8252,8.4553,1.7308,-3.2206,1.859,7.0209,-5.8252,8.4553,0.65681,-4.4444,-1.3397,-5.6508,-5.7692,-3.8647,5.0,4.5079,-3.9216,-3.3333
-1.3208,-6.2857,-1.2945,-5.178,-2.6016,3.0128,-1.9324,4.4231,5.7327,-5.178,-2.6016,-0.65681,-10.159,-7.0813,-10.095,-9.6154,-8.3736,-10.385,5.7778,-7.8431,-3.9744
-8.8679,-12.635,-11.003,3.8835,-1.3008,-5.3205,-5.7971,6.3462,-7.1498,3.8835,-1.3008,-7.225,-17.143,-14.737,-17.079,-16.667,-17.391001,-0.12821,3.2381,-10.458,-7.8205
-20.818001,-17.079,-20.712,3.2362,1.3008,-16.218,-14.171,1.859,-2.6409,3.2362,1.3008,-13.793,-20.952,-19.841,-25.333,-21.795,-26.409,11.41,-3.746,-13.725,-10.385
-20.188999,-9.4603,-18.122999,3.8835,6.5041,-11.731,-7.0853,8.2692,-1.3527,3.8835,6.5041,-9.1954,-18.413,-17.289,-24.698,-17.308001,-26.409,3.0769,-10.73,-13.072,-5.2564
-8.8679,-1.2063,-7.767,7.1197,0.0,1.0897,3.2206,10.192,-2.6409,7.1197,0.0,0.65681,-14.603,-12.823,-16.444,-8.3333,-19.323999,3.7179,-7.5556,-8.4967,-0.76923
1.8239,1.3333,2.589,12.945,1.3008,7.5,7.7295,8.2692,7.6651,12.945,1.3008,7.225,-9.5238,-8.9952,-7.5556,-3.2051,-10.95,-7.8205,6.4127,-4.5752,-0.12821
4.9686,2.6032,7.767,14.239,3.252,7.5,7.0853,3.7821,-3.285,14.239,3.252,7.225,-4.4444,-5.8054,-0.57143,2.5641,-2.5765,-2.0513,11.492,0.65359,-0.12821
6.8553,4.5079,8.4142,-2.589,0.65041,8.141,1.9324,8.2692,-3.9291,-2.589,0.65041,5.2545,1.9048,0.57416,5.7778,9.6154,6.4412,6.2821,2.6032,1.3072,1.7949
10.629,6.4127,6.4725,-3.2362,2.6016,5.5769,-4.5089,4.4231,-5.2174,-3.2362,2.6016,1.9704,5.0794,6.9537,11.492,13.462,12.238,10.128,-0.57143,0.65359,6.2821
14.403,10.222,5.8252,12.298,4.5528,2.3718,-3.2206,-0.70513,-1.3527,12.298,4.5528,0.65681,8.8889,11.419,16.570999,15.385,16.747,5.0,-1.8413,2.6144,8.2051
12.516,8.3175,4.5307,6.4725,1.9512,-2.7564,3.2206,-0.0641,-3.285,6.4725,1.9512,-1.3136,12.063,13.333,17.205999,12.179,18.035,-0.12821,0.69841,5.8824,5.0
0.56604,1.9683,-0.64725,-3.2362,-4.5528,-7.8846,-5.7971,-9.6795,-12.303,-3.2362,-4.5528,-7.8818,10.159,12.695,9.5873,5.7692,12.238,5.0,-3.1111,3.9216,1.1538
-8.8679,-1.2063,-3.8835,-11.65,-8.4553,-10.449,-3.2206,-17.372,-16.167,-11.65,-8.4553,-9.1954,3.8095,8.8676,-1.2063,-0.64103,3.2206,-12.949,-4.381,-5.2288,-1.4103
-12.642,3.873,0.0,-12.945,-7.1545,-7.2436,3.2206,-10.321,-9.7262,-12.945,-7.1545,-2.6273,0.63492,6.9537,-5.0159,1.9231,1.2882,-25.128,-17.079,-8.4967,4.359
-15.786,1.3333,-0.64725,-4.5307,-3.9024,-7.8846,1.2882,-7.1154,-2.6409,-4.5307,-3.9024,0.0,-3.1746,-0.70175,-10.095,-2.5641,-3.8647,-18.077,-3.746,-9.1503,-0.76923
-12.013,0.06349,-1.2945,0.64725,0.0,-4.0385,3.8647,-8.3974,4.4444,0.64725,0.0,1.3136,-3.8095,-2.6156,-11.365,-4.4872,-6.4412,-12.308,10.857,-8.4967,-1.4103
-8.8679,-1.2063,-3.8835,-11.003,1.9512,-4.0385,5.153,-13.526,8.9533,-11.003,1.9512,0.0,-6.9841,-2.6156,-12.0,-5.7692,-7.7295,-11.026,15.302,-9.8039,-0.76923
-9.4969,-3.746,-7.1197,-2.589,1.9512,-9.1667,-2.5765,-11.603,7.0209,-2.589,1.9512,-6.5681,-6.3492,-0.0638,-9.4603,-3.8462,-7.0853,-8.4615,9.5873,-7.1895,1.1538
-4.4654,-3.1111,-7.1197,5.8252,-0.65041,-10.449,-10.306,-14.167,2.5121,5.8252,-0.65041,-11.823,-2.5397,1.8501,-3.1111,0.0,-2.5765,-16.153999,0.06349,1.3072,5.641
1.195,2.6032,-3.2362,-7.1197,-11.057,-12.372,-10.95,-12.244,-5.2174,-7.1197,-11.057,-15.107,3.8095,5.0399,6.4127,7.6923,5.153,-10.385,0.06349,5.2288,9.4872
6.2264,3.873,0.0,-14.887,-13.659,-11.09,-1.2882,-9.6795,-23.896999,-14.887,-13.659,-13.136,12.698,10.781,15.937,12.179,12.882,-9.7436,1.9683,12.418,10.128
1.8239,1.3333,0.64725,-10.356,-17.561001,-7.2436,-3.8647,-10.962,-20.032,-10.356,-17.561001,-7.8818,17.143,13.971,18.476,12.179,16.103001,-16.153999,1.3333,14.379,8.8462
-0.69182,1.3333,1.9417,-2.589,-4.5528,-2.1154,-9.0177,-11.603,-5.8615,-2.589,-4.5528,-3.2841,19.048,14.609,17.841,10.897,16.103001,0.51282,-8.8254,16.993,9.4872
-0.69182,1.3333,3.2362,1.9417,1.3008,-2.7564,-9.6618,-2.6282,-3.9291,1.9417,1.3008,-1.9704,17.778,13.971,14.032,8.9744,13.527,4.359,-10.73,15.686,8.2051
-5.7233,-3.746,0.64725,-15.534,-12.358,-9.1667,-9.6618,-7.7564,-11.014,-15.534,-12.358,-5.2545,8.254,7.5917,3.873,2.5641,5.7971,-3.9744,-5.6508,4.5752,1.1538
1.195,-0.57143,4.5307,-12.945,-13.008,-2.7564,-3.2206,-12.244,-11.659,-12.945,-13.008,-1.9704,8.8889,9.5056,5.1429,4.4872,7.7295,9.4872,-6.2857,4.5752,-0.12821
9.3711,1.3333,5.178,11.003,-6.5041,4.2949,-5.153,2.5,-18.1,11.003,-6.5041,-0.65681,12.063,13.333,10.222,7.0513,12.238,11.41,-6.9206,6.5359,1.1538
13.145,-1.8413,1.9417,4.5307,-9.1057,3.6538,-7.7295,7.6282,-30.982,4.5307,-9.1057,-1.3136,12.063,10.781,12.762,4.4872,12.238,10.128,-12.0,9.1503,0.51282
11.887,-5.6508,-2.589,-5.8252,-11.707,2.3718,-10.306,3.141,-20.676001,-5.8252,-11.707,-3.2841,9.5238,8.8676,13.397,0.64103,9.0177,-2.6923,-14.54,9.1503,-1.4103
7.4843,-12.635,-6.4725,-9.7087,1.3008,1.0897,-11.594,-0.0641,-12.947,-9.7087,1.3008,-3.9409,8.8889,6.3158,10.222,-6.4103,3.8647,3.7179,-11.365,10.458,-5.8974
3.7107,-16.444,-7.1197,-4.5307,7.8049,0.44872,-11.594,-1.9872,-15.523,-4.5307,7.8049,-2.6273,8.254,0.57416,6.4127,-12.179,-1.9324,7.5641,-12.0,10.458,-8.4615
1.195,-12.0,-2.589,9.7087,5.2033,3.0128,1.9324,-0.0641,-13.591,9.7087,5.2033,5.2545,6.9841,-3.2536,6.4127,-11.538,-2.5765,-0.76923,-18.983999,13.725,-4.6154
1.195,-8.8254,1.2945,3.2362,5.8537,3.6538,9.6618,3.7821,-0.70853,3.2362,5.8537,9.1954,5.7143,-7.0813,5.7778,-10.897,-1.9324,-9.1026,-8.1905,10.458,-9.1026
-0.69182,-1.8413,4.5307,9.7087,4.5528,4.2949,10.306,4.4231,3.8003,9.7087,4.5528,9.8522,5.7143,-7.0813,4.5079,-6.4103,0.0,5.0,3.873,7.8431,-12.308
0.56604,7.6825,8.4142,18.77,0.0,4.9359,5.7971,-2.6282,-2.6409,18.77,0.0,7.8818,6.3492,-2.6156,5.7778,4.4872,4.5089,12.051,3.2381,7.1895,-0.76923
1.8239,12.762,10.356,18.77,6.5041,6.859,5.153,-5.8333,2.5121,18.77,6.5041,7.225,6.3492,2.488,5.1429,11.538,8.3736,-1.4103,10.222,1.9608,5.0
7.4843,21.016001,15.534,11.65,11.057,15.192,8.3736,4.4231,12.818,11.65,11.057,12.479,8.254,10.144,7.6825,19.231001,12.238,-11.026,7.0476,3.9216,13.333
17.547001,22.921,18.122999,11.003,13.008,22.243999,13.527,15.962,7.6651,11.003,13.008,17.733999,5.7143,11.419,8.3175,20.513,13.527,-7.1795,8.9524,2.6144,15.897
18.176001,18.476,17.476,11.003,16.26,21.603001,18.035,24.295,3.8003,11.003,16.26,18.391001,4.4444,12.695,7.0476,17.308001,11.594,1.1538,14.667,0.0,15.256
10.629,9.5873,11.65,9.7087,3.9024,12.628,9.6618,10.192,1.868,9.7087,3.9024,12.479,-1.9048,8.8676,1.3333,9.6154,5.153,7.5641,5.7778,-4.5752,10.769
4.3396,1.9683,7.767,3.2362,2.6016,6.2179,0.64412,2.5,-1.3527,3.2362,2.6016,6.5681,-3.1746,8.8676,-1.8413,5.7692,1.9324,3.0769,-4.381,-9.8039,10.769
-1.9497,-8.8254,0.64725,-5.178,-1.3008,-0.19231,-7.7295,-3.9103,-4.5733,-5.178,-1.3008,-1.3136,-2.5397,8.8676,-2.4762,-1.2821,-0.64412,-2.6923,3.873,-9.8039,6.9231
-3.8365,-12.0,-5.178,3.2362,-5.2033,-5.9615,-7.7295,1.859,-4.5733,3.2362,-5.2033,-5.9113,-4.4444,1.8501,-3.1111,-6.4103,-2.5765,-3.9744,7.0476,-9.8039,1.7949
-2.5786,-6.9206,-4.5307,13.592,0.65041,-4.6795,-7.0853,7.6282,1.2238,13.592,0.65041,-5.9113,-5.0794,-3.2536,-1.2063,-5.7692,-0.64412,-13.59,-1.8413,-7.1895,-0.12821
-0.69182,-1.8413,0.64725,11.003,11.707,-2.1154,-1.2882,6.9872,-9.0821,11.003,11.707,-1.3136,-1.2698,-3.2536,1.9683,-3.8462,2.5765,-8.4615,-8.8254,-2.6144,-2.6923
5.5975,2.6032,6.4725,13.592,7.8049,5.5769,3.8647,1.2179,-18.743999,13.592,7.8049,3.9409,5.7143,-1.9777,5.1429,-2.5641,5.153,7.5641,-6.9206,3.268,-7.1795
6.2264,7.0476,9.0615,7.1197,1.9512,5.5769,7.7295,8.9103,-4.5733,7.1197,1.9512,6.5681,8.254,-1.9777,5.7778,0.0,5.153,16.538,-15.81,4.5752,-7.8205
2.4528,7.0476,5.8252,4.5307,0.0,3.6538,5.7971,10.192,-1.9968,4.5307,0.0,4.5977,8.8889,-0.70175,3.2381,2.5641,4.5089,12.051,-12.0,2.6144,-7.8205
-1.9497,1.3333,-1.9417,6.4725,-1.3008,3.6538,-3.2206,4.4231,-8.438,6.4725,-1.3008,1.9704,1.2698,-3.2536,-3.1111,0.64103,-0.64412,4.359,2.6032,-1.3072,-7.1795
-4.4654,4.5079,-3.8835,2.589,-7.1545,3.6538,3.2206,8.2692,-8.438,2.589,-7.1545,2.6273,-3.8095,-4.5295,-6.9206,2.5641,-3.8647,-0.12821,5.1429,-4.5752,-4.6154
-1.3208,11.492,1.2945,-1.9417,-7.8049,6.859,9.6618,6.9872,-6.5056,-1.9417,-7.8049,6.5681,-3.8095,-0.70175,-6.2857,9.6154,-2.5765,-3.9744,-3.746,-4.5752,1.7949
-1.3208,10.222,4.5307,7.767,3.9024,6.2179,1.9324,12.115,0.57971,7.767,3.9024,9.1954,-5.7143,-1.3397,-6.2857,8.3333,-3.2206,7.5641,4.5079,-3.268,2.4359
2.4528,7.0476,5.178,18.77,14.959,6.859,3.8647,12.115,4.4444,18.77,14.959,9.1954,-8.8889,-3.2536,-5.6508,5.1282,-5.153,-0.76923,13.397,-5.2288,5.0
7.4843,1.9683,2.589,10.356,9.7561,6.2179,7.7295,12.756,3.8003,10.356,9.7561,5.2545,-12.063,-6.4434,-5.0159,-0.64103,-8.3736,-8.4615,5.7778,-4.5752,3.7179
3.7107,-3.746,-2.589,-7.1197,-3.252,1.0897,5.153,6.9872,2.5121,-7.1197,-3.252,0.65681,-13.333,-7.7193,-5.0159,-5.7692,-9.6618,12.051,2.6032,-6.5359,-0.76923
1.195,-6.9206,-5.8252,-0.64725,-11.057,-4.6795,0.64412,3.7821,-2.6409,-0.64725,-11.057,-3.2841,-12.063,-8.3573,-5.0159,-8.3333,-9.0177,14.615,3.873,-8.4967,-2.0513
-0.06289,-7.5556,-5.8252,6.4725,-0.65041,-3.3974,-4.5089,6.9872,-11.014,6.4725,-0.65041,-4.5977,-8.8889,-2.6156,-5.6508,-7.6923,-7.7295,5.0,-8.8254,-7.1895,1.1538
-3.8365,-13.27,-10.356,5.8252,1.9512,-1.4744,-7.0853,12.115,-5.2174,5.8252,1.9512,-5.2545,-10.159,-3.2536,-10.73,-11.538,-12.238,2.4359,-12.0,-7.8431,-0.76923
-8.239,-18.983999,-14.887,-3.2362,-0.65041,1.7308,-9.0177,15.321,-4.5733,-3.2362,-0.65041,-5.2545,-12.063,-8.9952,-15.175,-19.231001,-17.391001,5.641,-1.8413,-6.5359,-11.026
-8.239,-12.635,-13.592,0.64725,5.8537,-0.83333,-9.0177,13.397,-4.5733,0.64725,5.8537,-4.5977,-8.254,-8.9952,-12.635,-15.385,-14.171,7.5641,-11.365,-1.3072,-11.667
-8.8679,-8.1905,-11.65,14.887,1.9512,-3.3974,-10.95,14.679,-5.2174,14.887,1.9512,-6.5681,-3.1746,-6.4434,-7.5556,-10.897,-8.3736,14.615,-8.8254,5.8824,-13.59
-9.4969,-8.1905,-9.0615,13.592,1.9512,-2.1154,-9.6618,17.885,-8.438,13.592,1.9512,-5.9113,1.9048,-5.8054,-3.746,-8.3333,-3.8647,17.820999,-1.2063,9.8039,-14.872
-8.8679,-6.9206,-7.767,8.4142,3.9024,0.44872,-5.7971,15.321,-7.7939,8.4142,3.9024,-5.2545,2.5397,-7.0813,-3.1111,-5.7692,-3.8647,12.692,-7.5556,6.5359,-11.026
-1.3208,-6.9206,-4.5307,18.122999,-1.9512,4.9359,0.64412,16.603001,-10.37,18.122999,-1.9512,-0.65681,1.9048,-7.7193,-1.2063,-4.4872,-3.8647,18.462,-5.6508,5.2288,-9.7436
6.2264,-3.746,0.0,10.356,-1.9512,9.4231,-4.5089,15.962,-4.5733,10.356,-1.9512,2.6273,0.63492,-7.7193,0.69841,-1.2821,-3.8647,11.41,-6.9206,5.2288,-5.8974
7.4843,1.9683,1.2945,-3.2362,-4.5528,6.859,-4.5089,18.525999,-12.947,-3.2362,-4.5528,1.3136,-1.9048,-7.0813,0.06349,0.64103,-5.153,13.974,-1.2063,5.2288,-2.0513
5.5975,3.873,-1.2945,-0.64725,1.9512,1.7308,-1.2882,20.448999,-3.285,-0.64725,1.9512,-1.9704,-6.3492,-8.9952,-4.381,-1.2821,-9.0177,4.359,1.3333,-3.268,-1.4103
6.2264,0.06349,-4.5307,6.4725,5.2033,3.6538,-1.2882,12.756,1.868,6.4725,5.2033,-3.2841,-8.254,-8.9952,-5.6508,-5.7692,-10.306,-6.5385,2.6032,-8.4967,-2.6923
4.9686,-2.4762,-5.8252,7.1197,-1.3008,4.2949,-7.0853,3.7821,-1.3527,7.1197,-1.3008,-3.9409,-10.159,-7.7193,-5.0159,-7.6923,-9.6618,17.820999,-7.5556,-5.2288,-1.4103
1.195,-10.095,-6.4725,1.9417,-1.9512,-0.83333,-9.0177,3.141,2.5121,1.9417,-1.9512,-7.225,-8.8889,-8.3573,-3.1111,-10.897,-7.7295,24.872,2.6032,-0.65359,-6.5385
-0.69182,-12.0,-1.9417,-0.64725,1.3008,-2.1154,-2.5765,12.756,-5.8615,-0.64725,1.3008,-3.2841,-5.7143,-6.4434,-0.57143,-9.6154,-3.8647,15.897,8.9524,-0.65359,-8.4615
-0.06289,-8.1905,4.5307,16.827999,4.5528,5.5769,0.64412,8.9103,-2.6409,16.827999,4.5528,5.2545,-2.5397,-1.9777,2.6032,-3.8462,1.9324,12.051,1.9683,0.65359,-6.5385
3.0818,1.3333,9.7087,9.7087,6.5041,9.4231,8.3736,10.192,4.4444,9.7087,6.5041,11.823,2.5397,2.488,7.6825,3.8462,8.3736,10.128,-1.2063,4.5752,-2.6923
6.2264,7.6825,10.356,7.1197,-0.65041,10.705,10.95,5.7051,-3.285,7.1197,-0.65041,13.793,4.4444,2.488,10.222,8.9744,12.238,-2.0513,-5.0159,5.2288,-2.6923
10.629,13.397,11.003,13.592,0.65041,10.705,20.612,12.756,-14.235,13.592,0.65041,14.45,5.0794,1.2121,12.127,12.179,13.527,-10.385,-3.746,5.2288,-0.76923
16.289,13.397,11.003,11.003,10.407,11.987,14.171,14.038,-9.0821,11.003,10.407,9.8522,5.7143,-0.70175,13.397,12.179,11.594,11.41,-1.2063,8.4967,-2.0513
15.66,11.492,9.7087,9.7087,7.8049,7.5,-3.2206,6.9872,0.57971,9.7087,7.8049,2.6273,7.619,-0.70175,12.127,12.179,9.6618,15.256,-5.0159,12.418,-0.12821
8.1132,6.4127,3.8835,-6.4725,0.0,-1.4744,-15.459,3.7821,0.57971,-6.4725,0.0,-5.2545,8.8889,-0.70175,7.6825,9.6154,6.4412,8.2051,-5.6508,10.458,1.1538
3.7107,-0.57143,-2.589,-1.2945,-0.65041,-4.0385,-11.594,1.859,-4.5733,-1.2945,-0.65041,-8.5386,5.7143,-4.5295,3.873,2.5641,0.64412,10.769,-11.365,9.1503,-0.12821
4.3396,-11.365,-7.1197,1.9417,-6.5041,-0.83333,-12.238,-0.0641,-5.8615,1.9417,-6.5041,-6.5681,1.9048,-7.0813,2.6032,-7.0513,-4.5089,-1.4103,-5.0159,9.1503,-5.8974
-1.9497,-23.429001,-11.65,2.589,-3.9024,-3.3974,-9.0177,1.2179,-4.5733,2.589,-3.9024,-5.2545,-0.63492,-7.0813,-1.8413,-17.948999,-10.306,5.641,3.2381,7.1895,-9.1026
-12.013,-29.143,-16.181,4.5307,-7.1545,-7.2436,-3.8647,2.5,-3.9291,4.5307,-7.1545,-5.9113,-8.254,-10.271,-10.73,-25.0,-18.68,7.5641,-5.0159,0.65359,-11.026
-13.899,-22.159,-12.945,5.178,4.5528,-5.3205,-3.2206,1.2179,2.5121,5.178,4.5528,-3.9409,-9.5238,-6.4434,-13.905,-21.153999,-19.323999,-5.8974,0.69841,-3.9216,-5.2564
-17.044001,-12.635,-12.298,3.8835,3.9024,-9.8077,-5.153,0.57692,-3.285,3.8835,3.9024,-7.225,-9.5238,-4.5295,-13.905,-13.462,-16.103001,-2.6923,3.2381,-3.268,-0.12821
-15.157,-4.381,-13.592,-7.767,-10.407,-13.013,-3.8647,0.57692,-14.235,-7.767,-10.407,-11.823,-9.5238,-5.8054,-11.365,-5.7692,-12.882,-6.5385,3.873,-1.3072,1.1538
-6.3522,1.9683,-10.356,-10.356,-13.008,-8.5256,-6.4412,3.141,-16.812,-10.356,-13.008,-10.509,-4.4444,-4.5295,-5.6508,0.0,-7.0853,-0.12821,-3.1111,0.65359,3.0769
6.8553,14.667,1.9417,-1.2945,-2.6016,-0.19231,0.64412,6.3462,-11.014,-1.2945,-2.6016,-1.9704,2.5397,3.126,4.5079,12.179,4.5089,15.256,-11.365,5.2288,12.051
13.774,16.570999,9.7087,8.4142,0.0,4.2949,7.0853,-1.3462,-7.7939,8.4142,0.0,4.5977,5.0794,3.126,9.5873,14.744,10.95,19.743999,4.5079,7.1895,9.4872
11.887,8.3175,7.767,-7.1197,-13.008,4.2949,7.7295,-6.4744,-13.591,-7.1197,-13.008,3.2841,2.5397,-0.70175,7.0476,8.9744,8.3736,4.359,5.7778,3.9216,-1.4103
16.289,12.127,11.003,-3.8835,0.0,7.5,3.2206,2.5,-0.06441,-3.8835,0.0,5.2545,6.9841,5.0399,12.127,14.103,13.527,4.359,-1.8413,4.5752,1.1538
18.805,13.397,13.592,12.298,14.959,10.705,-9.6618,9.5513,5.0886,12.298,14.959,5.9113,11.429,9.5056,17.205999,18.59,18.035,3.7179,-3.1111,8.4967,5.0
12.516,11.492,13.592,12.945,11.057,10.705,-7.0853,-1.9872,-1.9968,12.945,11.057,8.5386,9.5238,8.2297,14.032,15.385,14.815,6.2821,-5.0159,9.1503,5.641
4.3396,12.127,14.239,13.592,5.2033,9.4231,5.7971,5.0641,-1.3527,13.592,5.2033,11.823,6.9841,3.764,8.9524,10.256,8.3736,14.615,-1.2063,9.8039,2.4359
1.195,7.0476,11.65,5.8252,8.4553,9.4231,16.747,15.962,-9.7262,5.8252,8.4553,14.45,3.8095,-2.6156,4.5079,0.0,1.2882,5.0,0.06349,9.8039,-3.9744
-5.0943,-7.5556,0.0,-7.1197,-5.8537,1.7308,9.6618,8.2692,-6.5056,-7.1197,-5.8537,4.5977,-0.63492,-7.7193,-3.1111,-11.538,-8.3736,-1.4103,-2.4762,2.6144,-8.4615
-8.8679,-17.714001,-10.356,1.9417,-9.1057,-7.8846,-1.9324,-0.0641,-13.591,1.9417,-9.1057,-5.9113,-1.2698,-7.7193,-6.2857,-16.667,-11.594,-0.12821,-22.794001,1.3072,-6.5385
-4.4654,-29.778,-15.534,-3.8835,-11.057,-9.8077,-19.323999,-9.6795,-15.523,-3.8835,-11.057,-13.793,-1.9048,-10.271,-5.0159,-22.436001,-12.238,-21.923,-16.444,1.9608,-9.7436
4.3396,-28.507999,-11.65,-12.945,-12.358,-7.2436,-18.68,-10.962,-8.438,-12.945,-12.358,-14.45,3.1746,-9.6332,1.9683,-20.513,-7.0853,-11.667,-5.0159,6.5359,-9.7436
3.0818,-20.889,-8.4142,-6.4725,-16.26,-9.1667,-16.103001,-13.526,-18.1,-6.4725,-16.26,-13.793,2.5397,-5.8054,3.2381,-15.385,-2.5765,5.0,-11.365,5.2288,-10.385
-5.7233,-12.635,-8.4142,-14.887,-16.26,-15.577,-14.815,-13.526,-23.896999,-14.887,-16.26,-15.107,-0.63492,-0.70175,0.69841,-8.9744,0.0,3.0769,-8.1905,-1.3072,-6.5385
-8.8679,-5.0159,-7.767,-13.592,-5.8537,-14.295,-11.594,-10.321,-9.7262,-13.592,-5.8537,-13.136,1.9048,3.764,0.69841,-0.64103,3.8647,-7.1795,0.69841,-1.3072,-0.12821
-6.3522,3.873,-3.2362,-5.8252,5.8537,-7.2436,-4.5089,-10.321,-0.70853,-5.8252,5.8537,-7.8818,2.5397,6.9537,1.9683,7.6923,7.7295,-21.923,7.0476,-2.6144,4.359
-6.3522,7.6825,1.9417,-1.9417,-5.2033,-4.0385,1.2882,-12.244,-10.37,-1.9417,-5.2033,-1.3136,3.8095,10.144,1.3333,12.179,9.6618,-11.026,2.6032,-5.2288,7.5641
-10.126,8.9524,1.9417,-1.2945,-7.8049,-9.1667,0.0,-6.4744,-7.7939,-1.2945,-7.8049,-1.9704,3.1746,12.057,-1.8413,13.462,7.7295,-2.6923,-1.2063,-6.5359,9.4872
-3.2075,17.841,5.8252,-0.64725,-1.3008,-2.1154,3.8647,1.859,9.5974,-0.64725,-1.3008,2.6273,6.3492,15.247,1.3333,19.231001,9.6618,-3.9744,-10.73,-1.9608,15.256
-0.69182,15.937,5.8252,1.9417,-7.8049,4.2949,1.9324,-1.3462,3.8003,1.9417,-7.8049,3.9409,6.3492,12.695,1.9683,15.385,7.7295,-8.4615,-3.1111,-1.3072,8.8462
3.7107,11.492,5.178,1.9417,-2.6016,5.5769,2.5765,-3.9103,-5.8615,1.9417,-2.6016,2.6273,4.4444,6.9537,1.3333,8.9744,4.5089,-2.6923,3.873,-1.3072,2.4359
3.7107,6.4127,2.589,-9.7087,-0.65041,2.3718,-0.64412,0.57692,-9.0821,-9.7087,-0.65041,-0.65681,3.1746,0.57416,0.69841,3.8462,1.2882,0.51282,-7.5556,-4.5752,-2.0513
6.2264,0.69841,2.589,-6.4725,-1.9512,4.2949,-4.5089,9.5513,-4.5733,-6.4725,-1.9512,2.6273,3.1746,-4.5295,2.6032,0.0,1.9324,6.9231,-12.635,-1.9608,-6.5385
0.56604,-6.2857,0.0,9.0615,4.5528,3.0128,-7.0853,6.3462,-1.9968,9.0615,4.5528,0.0,1.2698,-9.6332,1.3333,-5.1282,0.64412,-3.9744,-10.095,-4.5752,-12.308
-8.8679,-17.714001,-6.4725,13.592,6.5041,-2.7564,-5.153,-3.9103,-12.947,13.592,6.5041,-1.9704,-3.8095,-12.823,-6.9206,-14.744,-6.4412,-14.872,-5.6508,-9.8039,-14.231
-15.157,-22.159,-8.4142,0.0,-8.4553,-3.3974,6.4412,-1.9872,-20.676001,0.0,-8.4553,1.3136,-5.0794,-12.185,-11.365,-21.153999,-11.594,-3.9744,0.69841,-9.8039,-11.667
-15.157,-23.429001,-9.0615,-5.178,-11.707,-2.1154,9.0177,-16.09,-11.014,-5.178,-11.707,3.2841,-8.254,-12.185,-15.81,-26.282,-16.747,-9.7436,2.6032,-11.765,-11.026
-13.27,-17.714001,-9.7087,-11.003,-4.5528,-4.0385,-5.153,-16.731001,3.8003,-11.003,-4.5528,-0.65681,-8.254,-8.9952,-17.714001,-23.077,-18.68,-25.128,-3.746,-15.686,-4.6154
-11.384,-6.9206,-8.4142,-5.8252,-1.3008,-7.8846,-13.527,-12.885,6.3768,-5.8252,-1.3008,-5.2545,-5.7143,-2.6156,-15.175,-13.462,-14.171,-20.0,5.7778,-13.725,3.0769
-12.013,-2.4762,-11.003,-12.945,-0.65041,-11.731,-18.68,-10.962,3.1562,-12.945,-0.65041,-12.479,-5.0794,-0.70175,-13.905,-6.4103,-9.6618,-20.641001,8.3175,-15.033,4.359
-10.126,1.3333,-9.7087,-12.298,-7.1545,-12.372,-17.391001,-7.7564,-5.2174,-12.298,-7.1545,-15.764,-1.9048,5.0399,-8.8254,1.9231,-1.2882,-28.974001,11.492,-15.033,6.9231
1.195,13.397,1.9417,-5.178,-24.065001,-2.7564,3.2206,-5.1923,-12.947,-5.178,-24.065001,-3.9409,3.8095,10.781,1.3333,14.103,10.95,-15.513,9.5873,-7.8431,11.41
9.3711,19.746,12.945,6.4725,-4.5528,3.0128,12.882,1.2179,-2.6409,6.4725,-4.5528,5.2545,7.619,12.695,10.222,19.872,19.968,-7.1795,8.3175,0.0,10.128
10.0,24.825001,20.065001,16.827999,18.862,6.2179,14.815,1.859,9.5974,16.827999,18.862,10.509,8.254,12.695,13.397,25.0,24.476999,-5.2564,5.7778,2.6144,12.692
7.4843,26.094999,22.653999,11.65,18.211,11.346,14.171,6.9872,7.6651,11.65,18.211,15.107,8.254,15.247,12.762,25.641001,23.833,2.4359,3.2381,2.6144,12.692
16.289,24.190001,25.889999,18.77,9.7561,20.320999,17.391001,10.192,1.2238,18.77,9.7561,22.332001,12.063,17.160999,17.205999,25.0,24.476999,11.41,3.2381,9.8039,12.692
24.465,20.381001,25.243,22.653999,3.9024,24.167,18.68,14.038,-2.6409,22.653999,3.9024,22.332001,11.429,16.523001,21.016001,23.077,22.544001,14.615,-3.1111,15.033,11.41
24.465,20.381001,23.301001,7.1197,5.2033,17.115,18.035,21.09,-7.7939,7.1197,5.2033,18.391001,10.159,14.609,21.650999,21.795,20.612,6.9231,-8.8254,18.301001,10.128
21.320999,16.570999,19.417,1.2945,11.707,12.628,5.7971,16.603001,-6.5056,1.2945,11.707,11.166,9.5238,11.419,21.650999,17.948999,18.035,9.4872,-6.2857,16.34,5.0
19.434,11.492,14.887,3.8835,8.4553,11.987,1.9324,3.141,1.2238,3.8835,8.4553,8.5386,11.429,8.8676,21.016001,14.103,16.103001,13.974,-9.4603,14.379,2.4359
17.547001,11.492,14.239,1.2945,-2.6016,11.987,14.171,7.6282,4.4444,1.2945,-2.6016,12.479,14.603,9.5056,21.016001,13.462,15.459,19.103001,-8.1905,20.261,3.7179
9.3711,10.857,11.003,6.4725,2.6016,11.987,21.256001,11.474,6.3768,6.4725,2.6016,17.077,12.063,6.3158,13.397,8.9744,9.6618,22.948999,-3.746,18.301001,4.359
-0.06289,2.6032,2.589,6.4725,8.4553,7.5,12.238,8.2692,3.1562,6.4725,8.4553,12.479,6.9841,-0.70175,3.873,0.0,0.0,16.538,-2.4762,13.072,-0.76923
-2.5786,-5.6508,-3.2362,7.1197,7.1545,4.9359,4.5089,3.141,-3.285,7.1197,7.1545,7.225,3.8095,-3.2536,0.06349,-5.1282,-3.2206,3.7179,0.06349,9.8039,-2.0513
-3.2075,-6.9206,-5.178,11.65,2.6016,1.7308,-2.5765,6.9872,-9.0821,11.65,2.6016,2.6273,0.0,-5.8054,-2.4762,-6.4103,-6.4412,5.0,-5.0159,7.1895,-1.4103
4.3396,-8.8254,-3.8835,7.1197,5.2033,8.7821,-5.153,6.3462,-0.70853,7.1197,5.2033,3.9409,-2.5397,-8.9952,-2.4762,-7.6923,-6.4412,0.51282,0.06349,1.3072,-3.3333
8.7421,-3.746,1.9417,1.9417,8.4553,10.705,0.0,6.9872,8.9533,1.9417,8.4553,5.9113,-3.1746,-4.5295,-0.57143,-3.8462,-1.9324,2.4359,-3.746,-1.9608,2.4359
4.3396,-0.57143,4.5307,-5.178,11.707,6.859,3.8647,1.859,13.462,-5.178,11.707,3.9409,-6.3492,-2.6156,-3.1111,-1.9231,-1.2882,-4.6154,5.1429,-7.8431,1.1538
-4.4654,2.6032,2.589,-2.589,1.3008,-3.3974,3.2206,-10.321,7.6651,-2.589,1.3008,0.0,-6.9841,-0.70175,-6.2857,0.64103,-1.2882,-2.6923,8.3175,-10.458,3.0769
-15.157,0.69841,-4.5307,-7.1197,-11.057,-15.577,-7.0853,-19.936001,-5.8615,-7.1197,-11.057,-9.1954,-8.254,1.8501,-12.0,0.64103,-3.8647,-9.7436,9.5873,-16.34,6.2821
-17.673,1.3333,-7.1197,-17.476,-7.8049,-18.141001,-9.6618,-25.063999,-7.1498,-17.476,-7.8049,-12.479,-6.9841,5.6778,-13.905,3.2051,-3.8647,-21.923,16.570999,-18.954,10.769
-20.188999,1.3333,-9.7087,-6.4725,-10.407,-19.423,-12.882,-28.91,-12.303,-6.4725,-10.407,-15.764,-4.4444,7.5917,-13.905,4.4872,-3.8647,-39.230999,15.937,-18.954,12.051
-18.302,-0.57143,-10.356,-3.2362,-9.1057,-18.141001,-15.459,-21.858999,-7.7939,-3.2362,-9.1057,-14.45,-1.9048,8.8676,-11.365,3.2051,-3.8647,-32.820999,9.5873,-12.418,12.051
-10.755,-3.1111,-8.4142,-3.2362,-9.1057,-12.372,-10.95,-9.0385,1.868,-3.2362,-9.1057,-9.1954,1.9048,10.144,-5.6508,0.64103,-1.9324,-10.385,4.5079,-3.268,8.8462
-6.9811,-6.9206,-9.0615,-0.64725,-5.8537,-5.3205,-1.2882,-3.9103,5.7327,-0.64725,-5.8537,-3.2841,1.9048,1.8501,-5.0159,-8.3333,-5.153,0.51282,2.6032,1.9608,-2.0513
7.4843,-3.746,-0.64725,2.589,17.561001,10.705,9.6618,9.5513,12.818,2.589,17.561001,8.5386,2.5397,-3.8915,1.9683,-9.6154,-3.8647,-11.667,-10.095,8.4967,-5.8974
9.3711,-1.2063,5.8252,13.592,22.764,14.551,18.68,9.5513,12.818,13.592,22.764,16.42,3.1746,-6.4434,2.6032,-10.897,-2.5765,-2.0513,-8.1905,8.4967,-8.4615
-0.06289,-10.73,1.2945,16.827999,13.008,10.705,10.95,8.2692,15.395,16.827999,13.008,14.45,-1.2698,-13.461,-3.1111,-19.231001,-9.0177,9.4872,-0.57143,3.9216,-20.0
-0.06289,-14.54,-0.64725,18.122999,13.659,10.705,6.4412,11.474,9.5974,18.122999,13.659,11.166,-1.9048,-12.823,-3.1111,-18.59,-8.3736,15.897,3.873,7.1895,-18.077
3.7107,-10.73,1.2945,17.476,3.252,11.987,7.7295,6.9872,1.868,17.476,3.252,7.8818,-2.5397,-10.271,-1.2063,-12.179,-5.153,3.7179,0.69841,2.6144,-13.59
6.2264,-6.9206,0.64725,-1.9417,-5.2033,11.987,7.7295,12.115,3.1562,-1.9417,-5.2033,6.5681,-3.1746,-7.7193,0.06349,-6.4103,-2.5765,3.7179,5.1429,3.268,-8.4615
0.56604,-4.381,-3.8835,-2.589,-1.9512,1.7308,0.64412,8.2692,7.0209,-2.589,-1.9512,0.0,-5.0794,-6.4434,-2.4762,-4.4872,-3.8647,10.769,10.857,3.9216,-2.0513
-6.3522,-2.4762,-8.4142,0.64725,-3.252,-5.3205,-3.2206,1.2179,12.174,0.64725,-3.252,-7.225,-11.429,-9.6332,-9.4603,-5.1282,-8.3736,5.641,8.3175,-6.5359,-2.0513
-3.8365,3.873,-3.8835,-7.1197,-7.1545,-3.3974,1.2882,-5.8333,6.3768,-7.1197,-7.1545,-6.5681,-11.429,-5.1675,-7.5556,-0.64103,-5.7971,-5.8974,10.222,-7.8431,3.0769
-5.7233,1.3333,-4.5307,-18.122999,-5.2033,-3.3974,0.0,-9.6795,-0.06441,-18.122999,-5.2033,-5.9113,-10.794,-0.70175,-7.5556,-1.9231,-6.4412,-18.077,11.492,-7.1895,6.9231
-7.6101,-0.57143,-7.1197,-7.1197,0.65041,-10.449,-5.7971,-6.4744,-2.6409,-7.1197,0.65041,-9.8522,-6.9841,4.4019,-8.1905,-0.64103,-6.4412,-3.3333,-5.0159,-7.1895,11.41
-6.9811,2.6032,-6.4725,-7.767,-7.8049,-12.372,-9.0177,-11.603,7.0209,-7.767,-7.8049,-11.166,0.0,13.333,-4.381,5.7692,-1.2882,5.641,-2.4762,-2.6144,17.179001
-9.4969,4.5079,-7.767,-9.7087,-11.057,-14.936,-9.6618,-11.603,5.0886,-9.7087,-11.057,-13.136,1.2698,13.333,-4.381,6.4103,-1.2882,-2.6923,10.222,-0.65359,12.692
-12.642,5.1429,-8.4142,-18.122999,-7.8049,-20.705,-9.6618,-15.449,1.2238,-18.122999,-7.8049,-15.764,3.1746,11.419,-4.381,5.1282,-3.2206,-4.6154,14.032,0.0,9.4872
-7.6101,9.5873,-1.9417,-17.476,-3.9024,-14.936,0.0,-12.244,1.868,-17.476,-3.9024,-8.5386,3.8095,9.5056,-1.2063,6.4103,-0.64412,-3.3333,5.7778,0.65359,10.769
-1.9497,9.5873,1.9417,-12.945,-13.659,-7.8846,1.9324,-10.321,-0.06441,-12.945,-13.659,-3.9409,4.4444,6.3158,3.2381,6.4103,3.2206,-7.8205,0.06349,6.5359,6.2821
-2.5786,3.2381,-1.2945,-22.006001,-24.065001,-8.5256,5.153,-10.321,-3.285,-22.006001,-24.065001,-2.6273,3.8095,-0.0638,3.873,1.2821,3.2206,-6.5385,-1.8413,7.1895,-1.4103
-0.06289,-3.1111,-3.2362,-14.239,0.0,-3.3974,0.64412,-6.4744,2.5121,-14.239,0.0,-3.2841,3.8095,-4.5295,5.1429,-2.5641,3.8647,6.9231,-6.9206,7.8431,-8.4615
4.3396,-7.5556,-1.9417,7.767,16.910999,4.2949,1.2882,-6.4744,6.3768,7.767,16.910999,1.3136,5.0794,-3.8915,7.0476,-5.7692,3.2206,15.897,-12.0,13.072,-9.7436
7.4843,-15.175,1.2945,11.003,9.1057,10.064,2.5765,-0.70513,7.6651,11.003,9.1057,7.8818,2.5397,-7.0813,3.873,-12.821,-1.9324,14.615,-13.27,7.8431,-14.231
4.9686,-17.079,2.589,11.003,5.2033,13.269,2.5765,8.2692,8.3092,11.003,5.2033,12.479,-1.9048,-8.9952,-1.2063,-15.385,-7.0853,3.7179,-21.524,0.65359,-12.308
-5.7233,-20.254,-2.589,7.1197,0.65041,4.9359,1.9324,0.57692,5.0886,7.1197,0.65041,7.225,-9.5238,-14.737,-10.095,-19.872,-14.171,-2.0513,-8.8254,-7.1895,-16.153999
-4.4654,-13.27,-3.2362,4.5307,3.252,1.7308,-1.9324,6.3462,3.1562,4.5307,3.252,1.9704,-6.3492,-8.9952,-8.1905,-12.179,-10.95,-2.6923,3.2381,-5.2288,-8.4615
-1.9497,-4.381,-3.2362,2.589,-5.8537,-0.83333,-2.5765,8.2692,-7.7939,2.589,-5.8537,-3.2841,3.1746,-0.0638,-3.746,-1.2821,-4.5089,3.0769,0.69841,0.65359,1.1538
2.4528,3.2381,-0.64725,-3.2362,-5.2033,0.44872,0.0,4.4231,-3.285,-3.2362,-5.2033,-1.9704,9.5238,5.6778,1.9683,6.4103,2.5765,3.0769,0.06349,4.5752,6.2821
7.4843,13.397,4.5307,-8.4142,-1.3008,3.6538,10.306,-2.6282,4.4444,-8.4142,-1.3008,1.9704,11.429,14.609,7.0476,15.385,9.0177,2.4359,3.873,5.2288,16.538
-1.3208,8.9524,-0.64725,-15.534,-3.252,-2.1154,5.153,-11.603,1.2238,-15.534,-3.252,-1.9704,5.7143,12.057,1.9683,11.538,6.4412,-2.6923,9.5873,-1.3072,13.333
-6.9811,3.2381,-5.8252,-9.7087,-0.65041,-6.6026,-7.7295,-12.885,-1.9968,-9.7087,-0.65041,-6.5681,0.0,6.3158,-3.1111,5.1282,1.2882,-9.1026,12.127,-7.1895,8.8462
-8.239,0.06349,-7.767,-5.178,4.5528,-6.6026,-14.171,-7.7564,-0.06441,-5.178,4.5528,-6.5681,-5.7143,1.2121,-6.9206,1.2821,-3.8647,-9.1026,8.3175,-7.8431,6.2821
-0.69182,0.06349,-4.5307,8.4142,3.9024,1.0897,-1.9324,-3.9103,5.0886,8.4142,3.9024,0.65681,-7.619,-0.70175,-6.9206,-0.64103,-6.4412,-19.358999,3.2381,-11.765,6.2821
1.195,0.69841,-2.589,14.239,3.9024,4.2949,3.2206,0.57692,5.0886,14.239,3.9024,2.6273,-11.429,-8.9952,-8.1905,-3.8462,-10.306,-2.0513,4.5079,-10.458,1.7949
-1.3208,0.06349,-0.64725,12.945,7.1545,2.3718,1.9324,5.0641,11.53,12.945,7.1545,3.2841,-12.698,-13.461,-9.4603,-7.0513,-12.238,4.359,-2.4762,-7.8431,-0.76923
-0.69182,-2.4762,0.64725,8.4142,7.8049,1.7308,0.0,-1.3462,13.462,8.4142,7.8049,1.9704,-12.698,-14.737,-7.5556,-8.9744,-12.238,-2.6923,1.9683,-5.2288,-4.6154
4.3396,3.873,4.5307,-7.767,2.6016,3.0128,11.594,-1.9872,2.5121,-7.767,2.6016,5.2545,-6.9841,-7.7193,-1.2063,-2.5641,-5.153,-1.4103,8.9524,1.9608,-3.3333
2.4528,5.1429,2.589,-3.2362,-4.5528,1.0897,8.3736,2.5,7.0209,-3.2362,-4.5528,1.9704,-2.5397,-1.3397,1.9683,3.2051,0.64412,-9.1026,7.6825,1.9608,-0.12821
6.2264,8.3175,4.5307,14.239,3.9024,3.0128,4.5089,5.0641,10.242,14.239,3.9024,3.2841,3.8095,3.764,8.9524,9.6154,9.0177,-0.76923,4.5079,5.2288,2.4359
13.145,14.032,12.298,1.2945,11.057,8.7821,9.6618,10.192,6.3768,1.2945,11.057,9.8522,8.8889,7.5917,16.570999,15.385,16.747,16.538,0.69841,9.1503,5.0
17.547001,17.841,19.417,1.9417,9.7561,14.551,17.391001,11.474,8.3092,1.9417,9.7561,16.42,10.794,11.419,20.381001,20.513,21.9,8.8462,2.6032,8.4967,7.5641
16.917999,22.285999,23.948,18.122999,14.959,15.833,19.323999,10.833,14.106,18.122999,14.959,19.048,12.698,15.247,21.650999,24.358999,25.764999,14.615,10.222,9.1503,8.8462
15.031,22.285999,21.358999,18.77,12.358,13.269,12.882,5.7051,19.903,18.77,12.358,16.42,12.698,17.160999,19.111,23.718,24.476999,13.974,11.492,7.8431,9.4872
8.7421,17.841,12.298,0.64725,0.0,4.9359,10.95,2.5,24.412001,0.64725,0.0,9.1954,10.794,18.437,13.397,19.872,18.68,6.2821,3.873,6.5359,11.41
1.8239,12.127,3.2362,-5.8252,0.0,-4.0385,4.5089,-1.3462,16.039,-5.8252,0.0,0.0,5.7143,14.609,4.5079,14.744,10.95,1.1538,3.2381,-3.268,10.769
-0.06289,5.1429,-1.2945,-8.4142,0.0,-4.0385,-2.5765,-10.321,-2.6409,-8.4142,0.0,-5.2545,-1.2698,7.5917,-2.4762,6.4103,3.2206,-12.949,8.3175,-11.111,4.359
-4.4654,-1.2063,-3.2362,-11.003,-3.9024,-3.3974,-5.153,-7.1154,-11.659,-11.003,-3.9024,-5.9113,-3.1746,2.488,-6.9206,-0.64103,-3.2206,-2.6923,6.4127,-9.8039,0.51282
-10.126,-5.0159,-5.8252,-7.1197,-4.5528,-2.7564,-5.7971,-3.2692,-3.9291,-7.1197,-4.5528,-3.9409,-7.619,-3.2536,-12.635,-5.7692,-9.0177,-9.7436,3.873,-11.765,0.51282
-15.786,-8.1905,-9.7087,0.64725,-5.2033,-7.8846,-8.3736,-0.0641,8.3092,0.64725,-5.2033,-5.9113,-11.429,-7.0813,-16.444,-9.6154,-13.527,-14.231,-3.746,-15.033,-3.3333
-16.415001,-9.4603,-11.65,1.9417,-4.5528,-9.1667,-5.7971,1.2179,12.818,1.9417,-4.5528,-6.5681,-13.333,-9.6332,-17.079,-10.256,-14.171,-2.0513,-3.746,-15.033,-5.8974
-10.126,-4.381,-5.8252,-6.4725,-3.252,-4.0385,0.0,3.141,5.0886,-6.4725,-3.252,-3.2841,-9.5238,-3.2536,-11.365,-3.8462,-8.3736,3.0769,0.69841,-13.072,-0.12821
-0.69182,3.2381,1.9417,-9.0615,-5.2033,-0.83333,0.64412,6.9872,-0.06441,-9.0615,-5.2033,-0.65681,-8.8889,-1.9777,-6.9206,2.5641,-3.2206,-12.949,-1.2063,-10.458,1.7949
1.8239,7.6825,5.8252,-7.767,-7.8049,0.44872,-0.64412,-0.0641,-6.5056,-7.767,-7.8049,0.0,-7.619,-4.5295,-5.0159,3.8462,-2.5765,-0.76923,2.6032,-6.5359,-3.3333
2.4528,8.3175,5.8252,-4.5307,-1.9512,-0.19231,0.0,1.2179,0.57971,-4.5307,-1.9512,1.9704,-6.3492,-5.8054,-4.381,2.5641,-3.2206,11.41,0.06349,-6.5359,-5.2564
5.5975,10.857,7.1197,-2.589,4.5528,2.3718,7.0853,5.0641,5.7327,-2.589,4.5528,3.2841,-1.2698,-3.2536,1.9683,5.7692,1.9324,14.615,-6.9206,-1.3072,-0.76923
5.5975,7.0476,3.8835,-8.4142,1.3008,4.9359,12.238,8.9103,-4.5733,-8.4142,1.3008,4.5977,-1.2698,-4.5295,5.1429,3.2051,3.8647,3.0769,2.6032,-1.9608,-5.2564
3.0818,1.9683,3.2362,5.178,-0.65041,10.705,12.882,7.6282,-1.9968,5.178,-0.65041,9.8522,-3.1746,-6.4434,5.1429,-0.64103,3.8647,-0.76923,7.6825,-4.5752,-10.385
8.7421,5.1429,9.7087,27.184,16.910999,18.396999,21.256001,10.833,5.7327,27.184,16.910999,19.048,0.63492,-5.8054,8.9524,0.0,6.4412,10.769,1.3333,0.65359,-7.1795
10.629,1.3333,11.65,19.417,20.813,17.756001,14.815,21.09,16.039,19.417,20.813,19.048,2.5397,-7.7193,9.5873,-4.4872,5.7971,19.743999,-4.381,4.5752,-10.385
10.629,-2.4762,9.7087,9.0615,2.6016,13.269,3.2206,23.653999,12.174,9.0615,2.6016,11.823,1.9048,-3.8915,8.9524,-4.4872,5.7971,14.615,-15.175,5.2288,-11.667
10.629,-12.0,1.2945,3.2362,2.6016,7.5,-9.6618,15.321,-7.7939,3.2362,2.6016,-0.65681,1.2698,-4.5295,7.6825,-7.6923,3.2206,11.41,-18.983999,4.5752,-14.231
10.629,-18.983999,-5.8252,-11.65,-9.7561,1.7308,-15.459,7.6282,-20.032,-11.65,-9.7561,-8.5386,3.1746,-2.6156,8.3175,-8.9744,1.9324,3.7179,-21.524,7.8431,-12.949
11.258,-13.27,-5.8252,-2.589,-7.1545,-1.4744,-20.612,4.4231,-19.388,-2.589,-7.1545,-12.479,11.429,5.6778,12.127,0.0,7.0853,12.692,-23.429001,13.072,-1.4103
-2.5786,-11.365,-9.7087,-10.356,-4.5528,-9.1667,-28.341,2.5,-6.5056,-10.356,-4.5528,-19.048,8.8889,6.9537,6.4127,0.64103,4.5089,18.462,-10.095,9.1503,-2.0513
-9.4969,-12.0,-11.65,-9.7087,-13.659,-13.013,-25.764999,3.7821,-5.2174,-9.7087,-13.659,-19.048,3.8095,4.4019,0.06349,-3.2051,-0.64412,5.641,0.06349,2.6144,-3.9744
-14.528,-5.0159,-9.7087,2.589,-7.1545,-11.731,-15.459,1.859,-3.285,2.589,-7.1545,-13.793,5.0794,4.4019,-2.4762,-1.9231,-1.9324,-0.76923,3.873,0.0,-0.12821
-17.673,0.69841,-7.767,0.64725,0.0,-9.8077,-4.5089,-2.6282,-1.3527,0.64725,0.0,-7.8818,3.8095,1.2121,-6.2857,-2.5641,-4.5089,0.51282,1.3333,0.65359,1.7949
-16.415001,-2.4762,-10.356,-0.64725,-5.2033,-7.8846,-1.2882,-15.449,0.57971,-0.64725,-5.2033,-7.8818,-0.63492,-3.2536,-12.0,-7.6923,-10.95,-6.5385,3.2381,-4.5752,-0.12821
-16.415001,-6.2857,-12.945,-3.2362,-3.252,-9.1667,0.64412,-14.167,-3.9291,-3.2362,-3.252,-9.1954,-5.0794,-4.5295,-16.444,-9.6154,-15.459,-8.4615,3.873,-8.4967,1.1538
-10.755,-6.9206,-12.945,-7.767,-3.252,-11.09,-5.153,1.859,5.0886,-7.767,-3.252,-11.166,-8.254,-5.1675,-15.175,-8.3333,-16.103001,-22.563999,-5.0159,-7.1895,2.4359
-5.0943,-7.5556,-10.356,-5.178,-10.407,-9.1667,0.0,8.2692,1.2238,-5.178,-10.407,-7.225,-8.254,-4.5295,-11.365,-7.0513,-12.882,-10.385,3.2381,-7.8431,-0.76923
-3.8365,-8.8254,-9.0615,-12.945,4.5528,-6.6026,-0.64412,0.57692,5.7327,-12.945,4.5528,-3.9409,-10.159,-3.8915,-9.4603,-7.0513,-10.95,2.4359,8.9524,-9.1503,-2.6923
0.56604,-0.57143,-3.2362,7.767,24.715,3.6538,-0.64412,-1.9872,22.48,7.767,24.715,3.9409,-8.8889,-1.3397,-5.0159,0.0,-5.7971,11.41,-2.4762,-7.8431,3.0769
4.9686,9.5873,5.8252,22.006001,24.715,10.705,12.882,8.9103,21.836,22.006001,24.715,13.793,-5.7143,-1.3397,-0.57143,5.1282,-0.64412,8.2051,5.7778,-7.8431,4.359
6.2264,14.667,12.298,24.594999,21.462999,14.551,23.833,12.115,23.768,24.594999,21.462999,21.018,-5.0794,-3.8915,1.9683,5.7692,1.2882,-0.12821,16.570999,-8.4967,-0.12821
1.8239,14.667,13.592,18.122999,21.462999,13.91,30.917999,8.9103,20.548,18.122999,21.462999,24.302,-6.9841,-8.9952,0.69841,2.5641,0.64412,-0.76923,19.111,-7.1895,-2.6923
4.3396,11.492,14.239,15.534,20.163,15.192,25.121,12.756,19.259001,15.534,20.163,24.959,-5.0794,-10.909,3.2381,0.64103,2.5765,-5.8974,12.127,-5.2288,-5.2564
12.516,8.9524,15.534,21.358999,8.4553,20.320999,18.68,3.141,11.53,21.358999,8.4553,23.645,0.63492,-7.0813,8.3175,1.9231,7.0853,-17.436001,2.6032,-4.5752,-5.8974
11.258,3.873,12.298,9.7087,3.9024,11.346,8.3736,3.7821,1.2238,9.7087,3.9024,13.136,5.7143,-3.2536,9.5873,0.64103,7.7295,7.5641,-6.9206,1.3072,-7.1795
6.8553,-1.8413,7.767,-12.298,-4.5528,3.0128,0.64412,8.2692,-1.3527,-12.298,-4.5528,3.9409,5.7143,0.57416,6.4127,-1.2821,5.153,22.308001,-8.8254,1.9608,-7.1795
8.1132,-7.5556,2.589,-13.592,-5.8537,-1.4744,-8.3736,6.3462,2.5121,-13.592,-5.8537,-3.9409,6.3492,1.8501,7.0476,-3.8462,3.8647,19.743999,-10.095,5.2288,-7.1795
10.629,-8.8254,-1.2945,-8.4142,2.6016,-4.6795,-9.6618,3.141,-1.3527,-8.4142,2.6016,-7.225,5.7143,2.488,6.4127,-4.4872,3.2206,15.256,-12.0,6.5359,-5.2564
8.1132,-5.0159,-3.2362,-5.8252,-5.8537,-2.1154,-12.238,-4.5513,-14.879,-5.8252,-5.8537,-9.1954,2.5397,5.0399,3.873,0.64103,2.5765,6.2821,-13.27,3.268,1.7949
4.3396,-1.2063,-3.8835,-6.4725,-9.1057,-7.2436,-7.0853,-6.4744,-16.167,-6.4725,-9.1057,-12.479,3.1746,8.2297,1.9683,4.4872,2.5765,6.9231,-4.381,5.8824,6.9231
-5.0943,-3.1111,-8.4142,-11.65,-9.7561,-13.654,-15.459,-9.6795,-5.2174,-11.65,-9.7561,-16.42,1.2698,5.6778,-3.746,1.9231,-3.2206,3.7179,1.3333,3.9216,4.359
-12.013,-2.4762,-9.0615,-19.417,-16.26,-11.731,-18.68,-12.885,0.57971,-19.417,-16.26,-14.45,-2.5397,3.126,-9.4603,-0.64103,-8.3736,2.4359,6.4127,1.3072,6.2821
-13.899,0.69841,-7.1197,-13.592,-8.4553,-11.09,-9.6618,-13.526,8.3092,-13.592,-8.4553,-10.509,-3.1746,6.3158,-8.8254,1.2821,-8.3736,-9.1026,9.5873,1.3072,8.8462
-8.239,7.6825,-1.9417,-12.945,3.9024,-6.6026,1.9324,-18.013,17.327,-12.945,3.9024,-3.2841,-0.63492,8.8676,-3.746,7.0513,-3.8647,-12.308,10.222,1.9608,13.333
-5.7233,3.873,-1.9417,-16.827999,-7.1545,-4.6795,2.5765,-12.885,12.174,-16.827999,-7.1545,-1.9704,-5.7143,-0.0638,-4.381,3.2051,-5.7971,-12.949,14.667,0.0,9.4872
-3.8365,-3.746,-4.5307,-9.7087,-10.407,-8.5256,8.3736,-8.3974,0.57971,-9.7087,-10.407,-2.6273,-10.794,-8.3573,-5.6508,-4.4872,-9.0177,-3.9744,12.762,-1.3072,1.7949
-0.69182,-9.4603,-6.4725,1.2945,2.6016,-8.5256,1.9324,-5.1923,0.57971,1.2945,2.6016,-3.9409,-8.8889,-12.185,-4.381,-10.256,-10.306,12.051,8.3175,1.3072,-3.9744
3.7107,-10.73,-5.178,0.0,11.057,-1.4744,-4.5089,-1.9872,8.9533,0.0,11.057,-1.3136,-3.1746,-12.823,-1.2063,-10.897,-7.7295,13.333,5.1429,6.5359,-7.1795
9.3711,-5.0159,0.0,12.298,14.959,8.141,7.7295,-3.2692,13.462,12.298,14.959,7.225,3.8095,-10.271,4.5079,-7.0513,-1.9324,1.7949,-1.2063,11.111,-6.5385
8.7421,2.6032,3.2362,10.356,5.8537,6.2179,14.815,-1.3462,12.818,10.356,5.8537,8.5386,7.619,-4.5295,8.9524,-1.2821,3.8647,1.7949,-5.6508,13.725,-3.3333
3.7107,-0.57143,-1.2945,-1.9417,1.3008,-4.0385,5.153,-1.3462,4.4444,-1.9417,1.3008,0.0,6.3492,-2.6156,7.6825,-2.5641,3.8647,-13.59,0.69841,10.458,-5.8974
-2.5786,-0.57143,-4.5307,-15.534,0.0,-9.8077,-2.5765,-9.0385,-4.5733,-15.534,0.0,-7.225,6.3492,1.2121,5.1429,-0.64103,4.5089,-5.8974,3.873,5.2288,-5.8974
-6.3522,5.7778,-1.9417,-16.181,-3.252,-9.1667,4.5089,-15.449,1.2238,-16.181,-3.252,-3.9409,8.254,10.781,3.873,6.4103,7.0853,10.128,1.9683,3.9216,5.641
-13.27,8.3175,-1.9417,-6.4725,-2.6016,-7.8846,3.8647,-11.603,12.174,-6.4725,-2.6016,0.0,6.3492,15.247,0.06349,8.9744,5.7971,2.4359,3.873,0.0,11.41
-18.302,8.3175,-2.589,-3.2362,1.9512,-13.013,4.5089,-16.731001,12.818,-3.2362,1.9512,0.0,1.2698,13.971,-5.6508,8.3333,2.5765,-7.8205,-1.2063,-4.5752,12.051
-16.415001,5.1429,-1.9417,-12.945,0.0,-17.5,0.0,-18.653999,7.6651,-12.945,0.0,-5.2545,0.0,13.971,-6.9206,7.0513,0.64412,-20.641001,-3.746,-6.5359,11.41
-8.8679,2.6032,-0.64725,-11.65,1.3008,-14.936,-3.2206,-16.09,-5.8615,-11.65,1.3008,-7.8818,3.8095,14.609,-3.1111,7.0513,1.9324,-21.282,-5.0159,-1.3072,10.769
-5.0943,1.9683,0.0,-10.356,-7.8049,-14.295,-9.6618,-16.731001,-7.1498,-10.356,-7.8049,-12.479,8.8889,12.695,0.69841,8.3333,5.153,-11.026,1.9683,5.2288,8.8462
0.56604,3.2381,0.64725,-18.77,-13.008,-9.8077,-12.238,-13.526,-3.285,-18.77,-13.008,-13.136,8.254,8.8676,1.9683,8.9744,5.7971,5.0,-10.095,5.8824,10.128
6.2264,-1.8413,0.0,-20.712,-12.358,-4.0385,-16.747,-14.808,-6.5056,-20.712,-12.358,-13.136,2.5397,-0.0638,1.9683,1.2821,1.9324,4.359,-7.5556,2.6144,1.1538
8.7421,-3.1111,0.64725,-12.945,-10.407,-4.6795,-14.815,-13.526,-7.1498,-12.945,-10.407,-11.823,3.1746,-0.70175,5.1429,-0.64103,2.5765,-3.9744,5.1429,3.268,-0.12821
8.7421,-2.4762,0.0,-12.298,-6.5041,-4.6795,-10.95,-9.6795,-1.3527,-12.298,-6.5041,-9.8522,5.0794,-0.70175,7.6825,0.0,3.8647,-23.205,5.1429,2.6144,-0.76923
7.4843,0.69841,0.0,-11.003,-11.057,-4.6795,-5.153,-13.526,3.8003,-11.003,-11.057,-7.225,5.0794,1.8501,8.3175,1.9231,4.5089,-14.231,9.5873,3.268,3.0769
0.56604,3.873,1.2945,-7.1197,-7.8049,-7.2436,4.5089,-12.244,5.0886,-7.1197,-7.8049,-3.9409,1.2698,2.488,5.1429,3.2051,3.2206,2.4359,14.032,2.6144,6.2821
-3.2075,7.0476,6.4725,-4.5307,-1.9512,-4.0385,12.882,-14.167,9.5974,-4.5307,-1.9512,2.6273,-1.9048,3.126,3.2381,5.1282,4.5089,-6.5385,14.032,-1.9608,6.2821
0.56604,8.3175,10.356,0.0,1.9512,1.7308,11.594,-20.577,19.259001,0.0,1.9512,7.225,-5.7143,1.2121,1.9683,6.4103,5.153,-10.385,14.032,-8.4967,6.2821
-1.9497,8.9524,7.767,-18.77,3.9024,3.0128,11.594,-9.0385,15.395,-18.77,3.9024,8.5386,-9.5238,-1.9777,-3.1111,4.4872,1.9324,-6.5385,12.127,-12.418,3.7179
-4.4654,8.3175,3.8835,-11.003,8.4553,4.2949,12.882,4.4231,14.75,-11.003,8.4553,9.8522,-11.429,-3.2536,-8.8254,2.5641,-2.5765,-2.6923,13.397,-16.34,3.7179
-9.4969,7.0476,-0.64725,12.945,13.008,4.2949,10.306,5.7051,21.836,12.945,13.008,8.5386,-14.603,-5.8054,-16.444,-0.64103,-9.0177,-11.667,8.9524,-19.608,3.7179
-12.013,0.69841,-5.178,15.534,14.309,-0.19231,4.5089,-3.9103,21.836,15.534,14.309,3.9409,-17.778,-12.185,-22.159,-8.3333,-16.103001,-9.7436,10.857,-20.261,-2.6923
-5.0943,0.06349,-4.5307,0.64725,10.407,3.6538,8.3736,-3.9103,25.056,0.64725,10.407,4.5977,-14.603,-15.375,-18.349001,-9.6154,-16.103001,-1.4103,8.9524,-16.993,-6.5385
0.56604,0.69841,-2.589,3.8835,13.659,6.2179,14.171,9.5513,11.53,3.8835,13.659,8.5386,-10.159,-14.737,-13.27,-8.3333,-12.882,5.0,8.3175,-9.8039,-7.8205
2.4528,-3.1111,-2.589,14.239,9.1057,8.141,11.594,7.6282,12.174,14.239,9.1057,9.1954,-9.5238,-12.823,-9.4603,-9.6154,-10.95,-3.3333,6.4127,-8.4967,-11.667
1.8239,-5.6508,-3.2362,6.4725,13.008,5.5769,8.3736,5.7051,15.395,6.4725,13.008,9.1954,-6.3492,-9.6332,-6.2857,-10.897,-8.3736,-11.667,0.69841,-5.2288,-12.308
-0.69182,-7.5556,-3.2362,-17.476,3.252,4.2949,6.4412,3.7821,8.3092,-17.476,3.252,6.5681,0.63492,-1.3397,-1.2063,-8.9744,-3.8647,-11.026,-1.2063,2.6144,-3.9744
-6.3522,-8.1905,-5.8252,-14.887,-0.65041,-4.0385,4.5089,-3.2692,4.4444,-14.887,-0.65041,-0.65681,6.3492,3.764,0.06349,-6.4103,-1.2882,2.4359,-1.2063,3.268,-2.0513
-13.899,-6.9206,-11.003,-0.64725,5.8537,-16.858999,-8.3736,-10.962,2.5121,-0.64725,5.8537,-13.136,8.254,5.0399,-0.57143,-3.8462,0.0,-2.0513,-5.0159,3.268,-1.4103
-13.27,-6.9206,-12.298,-1.9417,2.6016,-20.063999,-18.035,-18.653999,-6.5056,-1.9417,2.6016,-19.704,10.159,6.9537,0.06349,-1.2821,1.2882,-2.6923,-9.4603,7.1895,1.1538
-9.4969,-6.2857,-11.65,-9.7087,-10.407,-18.141001,-19.968,-11.603,-12.947,-9.7087,-10.407,-21.674999,10.159,3.126,0.69841,0.0,0.64412,-3.3333,-16.444,10.458,3.0769
-4.4654,-13.27,-12.298,-14.239,-16.26,-14.936,-25.764999,-13.526,-9.0821,-14.239,-16.26,-21.674999,8.8889,-3.2536,1.3333,-7.0513,-1.2882,-3.9744,-3.746,11.111,-3.3333
-1.9497,-17.079,-11.003,-9.7087,-24.065001,-11.731,-20.612,-14.808,-8.438,-9.7087,-24.065001,-16.42,5.7143,-5.8054,1.3333,-12.179,-4.5089,5.0,3.873,11.111,-5.2564
2.4528,-13.905,-5.178,-17.476,-11.057,-3.3974,-9.0177,-4.5513,5.0886,-17.476,-11.057,-5.9113,3.8095,-7.0813,2.6032,-13.462,-5.7971,-1.4103,5.7778,12.418,-4.6154
6.2264,-8.1905,0.64725,-15.534,-1.9512,5.5769,7.7295,-1.3462,5.7327,-15.534,-1.9512,3.9409,2.5397,-5.8054,4.5079,-10.897,-4.5089,-0.76923,7.0476,11.765,-4.6154
7.4843,-1.8413,4.5307,-3.2362,-4.5528,11.346,15.459,-5.1923,-1.9968,-3.2362,-4.5528,7.8818,6.9841,2.488,8.3175,-2.5641,1.2882,12.051,7.6825,12.418,-0.12821
-2.5786,3.2381,2.589,2.589,-5.8537,5.5769,9.6618,-1.9872,-3.285,2.589,-5.8537,5.9113,6.9841,7.5917,5.7778,3.8462,3.8647,3.0769,5.1429,9.1503,6.9231
-10.126,7.6825,-1.2945,3.2362,5.2033,-2.1154,3.2206,-1.9872,5.0886,3.2362,5.2033,0.65681,3.8095,8.8676,1.9683,7.0513,3.8647,-11.026,4.5079,9.1503,7.5641
-7.6101,12.762,0.64725,-1.9417,17.561001,-4.6795,3.2206,-8.3974,17.327,-1.9417,17.561001,1.3136,4.4444,13.333,1.9683,12.821,7.7295,-2.6923,3.873,7.1895,9.4872
-2.5786,16.570999,5.178,-3.2362,6.5041,-1.4744,5.7971,-16.09,15.395,-3.2362,6.5041,3.2841,5.0794,17.160999,3.873,17.948999,10.306,3.7179,-1.2063,2.6144,13.333
-0.69182,11.492,5.8252,-3.2362,1.3008,-2.7564,9.0177,-6.4744,5.7327,-3.2362,1.3008,1.3136,0.63492,14.609,0.69841,14.103,7.7295,-20.641001,6.4127,-4.5752,11.41
-1.9497,5.1429,3.2362,0.64725,-3.252,-3.3974,-0.64412,1.2179,7.6651,0.64725,-3.252,-2.6273,-2.5397,8.2297,-1.2063,8.9744,4.5089,-7.1795,11.492,-6.5359,6.9231
-3.2075,-1.8413,0.64725,-5.8252,-2.6016,-2.1154,-3.2206,-3.2692,13.462,-5.8252,-2.6016,-1.3136,-0.63492,1.2121,-1.8413,1.2821,1.9324,1.1538,8.9524,-5.2288,2.4359
0.56604,-5.0159,1.2945,-9.0615,-1.3008,1.7308,8.3736,-3.2692,4.4444,-9.0615,-1.3008,3.9409,0.63492,-3.8915,-1.2063,-5.1282,0.0,-3.9744,10.222,-2.6144,-3.9744
-2.5786,-6.2857,-1.9417,6.4725,0.0,-0.19231,12.882,-1.3462,1.2238,6.4725,0.0,4.5977,-1.9048,-8.3573,-4.381,-10.897,-5.153,-7.1795,3.873,-6.5359,-6.5385
-3.8365,-9.4603,-4.5307,5.8252,1.3008,-1.4744,2.5765,-0.70513,8.3092,5.8252,1.3008,1.3136,-2.5397,-14.737,-5.6508,-16.667,-9.6618,-0.76923,0.06349,-4.5752,-11.667
-4.4654,-5.6508,-4.5307,-2.589,5.2033,-0.83333,-3.8647,-7.1154,14.106,-2.589,5.2033,-0.65681,-1.2698,-12.185,-5.0159,-14.744,-9.6618,5.0,3.873,0.0,-7.8205
-3.2075,-1.2063,-4.5307,-4.5307,13.008,1.7308,1.2882,-8.3974,17.327,-4.5307,13.008,-1.9704,-2.5397,-9.6332,-4.381,-9.6154,-8.3736,-14.231,8.9524,-1.9608,-2.6923
-2.5786,1.9683,-5.178,-3.2362,4.5528,-2.7564,-0.64412,-11.603,7.0209,-3.2362,4.5528,-5.2545,-3.1746,-3.8915,-3.1111,-3.2051,-5.7971,-16.795,-2.4762,-1.3072,2.4359
-3.2075,7.6825,-3.2362,-14.887,-4.5528,-5.3205,0.0,-7.1154,4.4444,-14.887,-4.5528,-3.9409,1.2698,4.4019,1.3333,7.0513,1.9324,2.4359,0.69841,0.65359,10.769
0.56604,3.873,-1.9417,-18.122999,-11.707,-6.6026,-3.2206,-9.6795,-0.06441,-18.122999,-11.707,-5.9113,3.1746,7.5917,5.1429,8.9744,5.7971,11.41,15.302,0.65359,10.128
6.8553,1.3333,0.64725,-18.77,-16.910999,-2.7564,0.64412,-17.372,-11.014,-18.77,-16.910999,-3.9409,2.5397,8.2297,7.6825,8.3333,7.0853,8.2051,12.127,3.268,8.8462
3.0818,3.2381,1.2945,-3.8835,-10.407,-7.2436,3.2206,-8.3974,-4.5733,-3.8835,-10.407,-3.9409,3.8095,8.8676,7.6825,8.3333,7.0853,6.2821,-1.8413,3.268,8.8462
7.4843,0.06349,5.178,11.003,-1.3008,-1.4744,-1.9324,5.0641,6.3768,11.003,-1.3008,1.9704,7.619,9.5056,9.5873,7.0513,8.3736,11.41,1.3333,9.8039,3.7179
14.403,7.6825,12.945,9.0615,12.358,11.346,-2.5765,7.6282,5.7327,9.0615,12.358,11.166,12.698,13.971,13.397,13.462,12.882,5.0,3.2381,14.379,6.2821
12.516,12.127,15.534,8.4142,14.959,15.833,2.5765,10.833,-3.9291,8.4142,14.959,14.45,13.333,13.971,10.857,14.744,12.238,-1.4103,-4.381,13.725,7.5641
9.3711,10.857,14.887,7.767,8.4553,17.756001,1.9324,8.9103,-1.9968,7.767,8.4553,13.136,8.254,8.2297,5.7778,10.897,7.7295,5.0,-7.5556,6.5359,1.1538
14.403,17.205999,20.065001,7.767,7.8049,21.603001,13.527,6.9872,-1.3527,7.767,7.8049,19.704,7.619,7.5917,7.6825,14.103,9.6618,14.615,-6.2857,5.8824,1.7949
15.031,18.476,22.653999,11.65,11.707,20.962,22.544001,5.0641,-3.285,11.65,11.707,23.645,4.4444,4.4019,8.3175,14.103,10.95,7.5641,-11.365,2.6144,0.51282
15.031,14.667,22.006001,2.589,8.4553,19.679001,21.9,3.141,8.9533,2.589,8.4553,24.959,1.2698,2.488,7.6825,10.897,11.594,-5.2564,6.4127,-3.9216,-2.6923
11.887,8.3175,16.827999,-5.178,1.3008,12.628,12.882,-0.0641,13.462,-5.178,1.3008,17.733999,-2.5397,-0.70175,5.1429,5.7692,9.0177,-3.9744,15.302,-9.8039,-3.9744
9.3711,12.127,16.181,10.356,5.2033,8.141,12.238,-3.9103,15.395,10.356,5.2033,12.479,-3.1746,0.57416,6.4127,8.9744,10.95,-2.0513,10.222,-11.765,0.51282
11.258,17.841,19.417,18.77,16.26,7.5,17.391001,1.2179,17.971001,18.77,16.26,11.823,-2.5397,1.2121,8.9524,14.744,14.171,-17.436001,11.492,-7.1895,6.2821
4.3396,19.111,15.534,3.2362,7.8049,2.3718,13.527,3.141,15.395,3.2362,7.8049,9.1954,-1.9048,2.488,6.4127,17.308001,13.527,-12.308,13.397,-7.1895,8.2051
1.8239,15.937,9.0615,-2.589,4.5528,-2.7564,6.4412,-7.1154,12.818,-2.589,4.5528,2.6273,-1.9048,4.4019,5.1429,16.667,10.95,-11.667,24.825001,-5.2288,10.128
1.195,14.032,4.5307,-4.5307,6.5041,-5.9615,0.0,-15.449,11.53,-4.5307,6.5041,-5.2545,-0.63492,8.2297,5.1429,16.667,10.306,-11.667,19.111,-4.5752,12.692
1.8239,14.667,3.8835,-12.298,1.9512,-11.09,0.0,-16.09,-0.06441,-12.298,1.9512,-9.8522,5.0794,12.057,7.0476,17.948999,11.594,1.7949,12.127,-1.3072,16.538
4.9686,11.492,3.2362,-20.712,-3.252,-11.731,-10.306,-16.731001,-0.06441,-20.712,-3.252,-11.166,6.9841,14.609,9.5873,17.948999,11.594,5.641,2.6032,5.2288,21.025999
1.195,-0.57143,-3.2362,-22.653999,-18.211,-13.654,-9.0177,-14.167,-4.5733,-22.653999,-18.211,-13.136,3.1746,10.144,7.0476,8.3333,6.4412,5.641,8.3175,6.5359,14.615
-5.7233,-12.635,-13.592,-17.476,-25.365999,-18.141001,-10.306,-16.731001,-12.303,-17.476,-25.365999,-21.018,-1.2698,3.126,1.9683,-1.9231,-0.64412,-11.667,6.4127,5.2288,4.359
-9.4969,-15.175,-15.534,-11.003,-17.561001,-21.346001,-19.323999,-16.731001,-15.523,-11.003,-17.561001,-24.302,-1.9048,2.488,-0.57143,-4.4872,-2.5765,-3.9744,-1.8413,3.268,3.7179
-12.642,-12.0,-11.65,-16.181,-12.358,-20.063999,-20.612,-18.653999,-11.659,-16.181,-12.358,-20.361,-3.8095,0.57416,-3.1111,-2.5641,-2.5765,4.359,-5.0159,-1.3072,3.7179
-3.2075,-0.57143,-1.2945,-5.178,-7.8049,-8.5256,-3.8647,-15.449,-7.1498,-5.178,-7.8049,-7.8818,-1.2698,1.2121,0.69841,3.2051,2.5765,-2.0513,-11.365,1.3072,5.0
1.8239,0.06349,1.2945,-0.64725,-11.057,-0.83333,0.0,-14.167,-11.014,-0.64725,-11.057,-3.2841,0.63492,0.57416,1.9683,1.9231,2.5765,1.7949,-15.81,1.9608,1.1538
2.4528,-5.6508,-2.589,0.64725,-3.252,1.0897,-4.5089,-8.3974,-4.5733,0.64725,-3.252,-1.9704,-1.2698,-5.8054,-1.2063,-5.1282,-3.2206,8.2051,-11.365,-1.3072,-5.8974
2.4528,-6.2857,-2.589,9.0615,7.8049,8.141,-6.4412,8.2692,-1.3527,9.0615,7.8049,2.6273,0.63492,-8.9952,-3.746,-9.6154,-5.7971,-0.76923,-8.8254,-1.9608,-14.231
-3.8365,-4.381,-2.589,-3.2362,-4.5528,8.141,0.0,15.321,-7.1498,-3.2362,-4.5528,5.2545,0.0,-12.185,-8.1905,-11.538,-9.0177,0.51282,-21.524,-7.1895,-17.436001
-10.126,-3.1111,-3.8835,-4.5307,-4.5528,1.7308,1.2882,7.6282,-13.591,-4.5307,-4.5528,1.9704,-5.7143,-16.013,-13.905,-14.103,-12.882,-6.5385,-17.714001,-13.072,-19.358999
-8.8679,-5.6508,-2.589,9.7087,0.0,3.0128,1.2882,4.4231,-9.7262,9.7087,0.0,3.2841,-5.0794,-14.737,-12.635,-14.103,-11.594,-2.6923,-4.381,-9.8039,-20.0
-5.7233,-6.9206,-3.2362,11.003,0.65041,1.0897,1.9324,8.2692,-7.7939,11.003,0.65041,1.9704,-3.8095,-10.909,-10.095,-12.179,-8.3736,5.0,-1.2063,-5.8824,-14.872
-6.3522,-9.4603,-7.1197,-3.2362,-0.65041,-4.0385,-5.153,6.3462,-0.70853,-3.2362,-0.65041,-5.2545,-4.4444,-6.4434,-8.1905,-9.6154,-6.4412,4.359,-5.6508,-3.9216,-10.385
-7.6101,-12.0,-9.7087,-7.1197,-11.057,-9.8077,-12.882,-0.70513,-3.285,-7.1197,-11.057,-11.166,-5.0794,-2.6156,-7.5556,-6.4103,-5.153,2.4359,-1.2063,-5.2288,-4.6154
-6.9811,-7.5556,-8.4142,-12.298,-11.057,-11.731,-19.323999,-3.2692,-7.1498,-12.298,-11.057,-15.107,-1.2698,4.4019,-4.381,0.64103,-1.2882,-10.385,-5.6508,-3.9216,4.359
-6.9811,-6.2857,-9.7087,-6.4725,-5.2033,-11.731,-19.968,-1.3462,-5.2174,-6.4725,-5.2033,-15.107,1.2698,8.2297,-3.746,2.5641,-0.64412,-4.6154,-12.635,0.65359,10.128
-15.157,-12.0,-17.476,-5.178,-8.4553,-17.5,-21.256001,-5.8333,-11.659,-5.178,-8.4553,-20.361,-4.4444,1.2121,-8.1905,-4.4872,-8.3736,5.641,-5.0159,1.9608,4.359
-8.8679,-13.27,-17.476,-18.77,-7.1545,-12.372,-14.815,-6.4744,-11.014,-18.77,-7.1545,-18.391001,-3.1746,1.2121,-6.2857,-6.4103,-9.6618,-3.3333,2.6032,2.6144,4.359
-7.6101,-7.5556,-12.298,-14.239,-13.008,-8.5256,-10.95,-3.2692,-0.70853,-14.239,-13.008,-14.45,-0.63492,3.764,-3.1111,-1.2821,-7.0853,7.5641,-10.095,4.5752,10.128
-9.4969,-7.5556,-8.4142,2.589,-15.61,-7.8846,-5.153,-5.1923,-3.9291,2.589,-15.61,-7.8818,-1.9048,0.57416,-3.746,-2.5641,-6.4412,10.128,-1.2063,4.5752,5.641
-0.06289,-5.0159,0.64725,5.178,-11.707,0.44872,4.5089,0.57692,-11.659,5.178,-11.707,1.9704,-0.63492,1.2121,0.69841,-0.64103,-1.2882,-13.59,3.2381,3.268,3.0769
6.8553,-0.57143,5.8252,6.4725,9.1057,6.859,2.5765,6.9872,-0.70853,6.4725,9.1057,7.8818,-0.63492,0.57416,3.873,0.64103,2.5765,-15.513,-5.6508,1.3072,0.51282
4.3396,-1.2063,4.5307,-0.64725,15.61,8.141,3.8647,-7.7564,5.0886,-0.64725,15.61,9.8522,-1.9048,-5.1675,0.69841,-4.4872,0.0,5.641,-11.365,0.0,-7.1795
0.56604,0.06349,3.2362,3.2362,14.309,6.859,10.95,-3.9103,7.0209,3.2362,14.309,11.823,-2.5397,-10.909,-2.4762,-7.6923,-2.5765,12.051,-15.175,1.9608,-13.59
-3.8365,-5.0159,1.9417,5.8252,15.61,4.2949,6.4412,8.9103,8.3092,5.8252,15.61,11.166,-5.0794,-16.013,-7.5556,-13.462,-7.0853,1.7949,-11.365,-4.5752,-21.923
-2.5786,-6.9206,3.2362,8.4142,7.8049,8.141,8.3736,14.679,4.4444,8.4142,7.8049,13.136,-5.7143,-17.289,-8.1905,-14.744,-8.3736,0.51282,-15.175,-9.8039,-24.487
6.2264,-1.2063,7.767,7.767,11.057,17.756001,11.594,15.962,8.9533,7.767,11.057,16.42,-1.9048,-12.185,-3.746,-7.6923,-3.2206,0.51282,-12.0,-4.5752,-18.718
7.4843,5.7778,9.0615,15.534,8.4553,20.962,15.459,12.756,12.818,15.534,8.4553,16.42,2.5397,-3.8915,-0.57143,-0.64103,1.9324,-18.718,-13.27,-2.6144,-7.8205
3.0818,4.5079,5.8252,20.712,4.5528,13.269,11.594,3.7821,5.0886,20.712,4.5528,11.166,5.7143,1.2121,-0.57143,1.2821,3.8647,-5.2564,-1.2063,-2.6144,-4.6154
-5.7233,4.5079,2.589,14.887,11.057,1.7308,5.153,-3.9103,3.8003,14.887,11.057,4.5977,3.1746,3.126,-3.1111,3.8462,3.2206,2.4359,8.3175,-8.4967,-2.0513
-8.8679,7.6825,4.5307,8.4142,13.008,0.44872,5.7971,-2.6282,8.3092,8.4142,13.008,3.9409,2.5397,7.5917,-3.746,8.9744,5.7971,-3.9744,9.5873,-9.1503,5.0
-3.2075,12.127,9.0615,1.2945,8.4553,3.6538,3.2206,1.859,16.683001,1.2945,8.4553,5.2545,7.619,16.523001,3.873,16.025999,13.527,-2.6923,11.492,-2.6144,13.333
1.195,19.111,12.945,-1.9417,5.8537,-1.4744,10.95,-2.6282,12.818,-1.9417,5.8537,4.5977,13.333,22.903,11.492,23.077,20.612,-23.846001,12.127,3.9216,22.308001
-3.8365,15.302,7.767,-16.827999,-16.26,-11.731,3.2206,-12.885,1.868,-16.827999,-16.26,-4.5977,10.794,22.264999,10.857,21.795,18.68,-21.923,17.205999,3.9216,22.948999
1.8239,11.492,8.4142,-20.065001,-19.511999,-14.295,3.2206,-20.577,1.868,-20.065001,-19.511999,-7.225,13.333,23.541,15.302,19.872,19.968,-4.6154,17.841,13.072,21.667
3.7107,10.222,9.7087,-11.003,-6.5041,-13.654,-1.2882,-18.653999,3.8003,-11.003,-6.5041,-8.5386,11.429,20.351,15.937,17.948999,18.68,-5.2564,7.0476,11.765,19.743999
6.2264,10.857,11.65,-5.8252,-7.1545,-11.09,-1.9324,-18.013,-4.5733,-5.8252,-7.1545,-6.5681,6.3492,13.971,12.762,16.025999,15.459,-16.795,-6.9206,5.2288,21.025999
2.4528,6.4127,11.003,-5.178,-4.5528,-11.731,-3.2206,-14.167,2.5121,-5.178,-4.5528,-5.2545,5.0794,7.5917,10.222,8.9744,10.95,-6.5385,4.5079,8.4967,14.615
-0.06289,0.69841,5.8252,-7.1197,-0.65041,-8.5256,-3.2206,-15.449,-0.06441,-7.1197,-0.65041,-5.9113,1.2698,-0.0638,3.873,-0.64103,2.5765,-18.077,14.032,5.8824,6.9231
-0.69182,0.69841,1.2945,-14.887,-3.252,-4.6795,-1.9324,-8.3974,1.2238,-14.887,-3.252,-4.5977,-3.8095,-7.0813,-3.1111,-5.7692,-6.4412,-8.4615,5.7778,3.268,3.7179
-5.0943,0.06349,-1.9417,-14.239,-5.8537,-4.6795,2.5765,-7.1154,1.868,-14.239,-5.8537,-1.3136,-12.063,-15.375,-10.73,-10.256,-15.459,7.5641,1.9683,-1.9608,0.51282
-2.5786,-0.57143,-0.64725,-11.65,-9.7561,1.0897,9.6618,-7.7564,-8.438,-11.65,-9.7561,4.5977,-14.603,-19.841,-12.0,-11.538,-16.747,1.1538,2.6032,-4.5752,-7.8205
6.8553,2.6032,5.8252,1.2945,-1.3008,11.987,10.95,6.3462,-1.9968,1.2945,-1.3008,13.136,-8.254,-15.375,-3.1111,-6.4103,-9.0177,7.5641,2.6032,1.3072,-12.949
11.887,1.9683,7.1197,10.356,7.1545,17.756001,9.6618,10.192,-3.9291,10.356,7.1545,15.764,-5.7143,-14.099,3.2381,-5.1282,-3.8647,18.462,-6.2857,2.6144,-14.872
20.691999,0.69841,9.7087,16.181,1.3008,24.808001,10.95,14.679,-0.06441,16.181,1.3008,19.048,3.8095,-7.7193,11.492,-3.8462,3.8647,6.2821,-8.8254,10.458,-18.718
18.805,-3.1111,8.4142,18.77,3.9024,21.603001,7.7295,14.679,-1.3527,18.77,3.9024,16.42,8.8889,0.57416,12.762,-3.8462,7.7295,5.0,-17.079,7.8431,-16.153999
10.0,-6.9206,1.9417,4.5307,5.2033,10.064,-2.5765,5.7051,-12.303,4.5307,5.2033,5.9113,9.5238,6.3158,8.9524,-3.8462,6.4412,13.333,-25.333,3.9216,-9.7436
6.2264,-10.095,-0.64725,1.2945,-0.65041,5.5769,-9.6618,5.7051,-7.7939,1.2945,-0.65041,1.3136,12.698,14.609,8.3175,-2.5641,8.3736,7.5641,-13.27,6.5359,-3.9744
0.56604,-12.0,-5.8252,3.2362,-1.9512,-0.19231,-14.171,4.4231,-7.1498,3.2362,-1.9512,-4.5977,10.794,17.160999,5.7778,-1.9231,5.7971,2.4359,-5.6508,6.5359,1.7949
-2.5786,-11.365,-8.4142,0.0,1.3008,-2.7564,-10.95,-2.6282,-9.7262,0.0,1.3008,-6.5681,8.8889,16.523001,3.873,-0.64103,2.5765,5.641,-6.9206,5.2288,6.2821
1.195,-10.73,-7.767,-10.356,-10.407,-0.19231,-9.6618,-1.3462,-7.1498,-10.356,-10.407,-7.225,6.9841,15.885,4.5079,-0.64103,1.9324,-4.6154,-1.2063,4.5752,6.2821
1.195,-11.365,-9.0615,-0.64725,-11.057,-4.0385,-15.459,0.57692,-5.8615,-0.64725,-11.057,-10.509,3.1746,10.144,3.2381,-1.2821,0.64412,-0.12821,0.06349,5.8824,6.2821
-3.2075,-7.5556,-9.7087,3.8835,-13.659,-11.09,-13.527,-7.7564,-18.743999,3.8835,-13.659,-14.45,1.2698,6.9537,1.9683,0.64103,0.0,-5.8974,-6.2857,5.2288,8.2051
-6.3522,-6.9206,-10.356,-3.2362,-8.4553,-14.295,-14.815,-9.6795,-18.1,-3.2362,-8.4553,-17.733999,0.0,3.126,-0.57143,-1.2821,-1.2882,-1.4103,-1.8413,3.268,3.7179
-10.126,-12.635,-12.945,-12.945,-5.2033,-15.577,-21.256001,-7.7564,-10.37,-12.945,-5.2033,-19.048,-5.0794,-7.0813,-4.381,-7.0513,-5.7971,3.0769,-4.381,-1.9608,-5.2564
-3.2075,-8.8254,-9.0615,-9.7087,-7.8049,-6.6026,-14.815,-3.9103,-4.5733,-9.7087,-7.8049,-11.166,-10.159,-12.823,-3.746,-7.0513,-6.4412,1.7949,-10.73,-2.6144,-3.9744
-0.69182,-10.095,-7.1197,-5.178,-7.8049,-4.6795,-11.594,8.9103,-1.3527,-5.178,-7.8049,-9.1954,-10.794,-16.650999,-5.0159,-11.538,-9.0177,15.256,-6.9206,-2.6144,-9.7436
0.56604,-9.4603,-6.4725,-14.887,-11.707,-2.1154,-2.5765,14.679,-4.5733,-14.887,-11.707,-5.2545,-13.968,-21.115999,-8.8254,-14.744,-14.171,12.692,-6.9206,-6.5359,-14.872
4.9686,-5.6508,-3.2362,-3.8835,-5.8537,10.064,8.3736,11.474,-1.9968,-3.8835,-5.8537,4.5977,-16.507999,-25.582001,-11.365,-16.667,-18.68,17.179001,-3.746,-7.1895,-21.282
1.8239,-6.2857,-3.8835,15.534,8.4553,15.833,5.7971,24.295,7.6651,15.534,8.4553,8.5386,-17.143,-25.582001,-13.905,-17.948999,-21.9,10.128,2.6032,-7.8431,-26.41
3.7107,1.3333,0.0,25.889999,14.309,17.756001,19.968,30.705,13.462,25.889999,14.309,15.764,-15.873,-22.392,-13.27,-11.538,-18.68,18.462,-1.2063,-9.8039,-21.282
7.4843,3.2381,1.2945,25.243,13.659,17.756001,19.323999,26.218,9.5974,25.243,13.659,15.107,-13.968,-17.289,-9.4603,-7.0513,-14.171,30.0,-5.0159,-10.458,-17.436001
9.3711,2.6032,1.2945,23.948,21.462999,17.115,12.238,24.295,3.1562,23.948,21.462999,12.479,-11.429,-10.271,-6.2857,-3.2051,-8.3736,23.59,-11.365,-8.4967,-12.949
9.3711,1.3333,0.0,16.181,14.959,15.833,5.7971,28.782,-3.285,16.181,14.959,9.8522,-7.619,-4.5295,-1.8413,-0.64103,-3.8647,13.333,-13.27,-5.8824,-11.667
9.3711,-4.381,-0.64725,-2.589,5.8537,13.91,0.64412,24.936001,1.868,-2.589,5.8537,7.8818,-1.2698,0.57416,2.6032,-0.64103,1.9324,11.41,-15.81,0.0,-11.667
11.258,0.06349,2.589,0.64725,-1.3008,13.269,3.2206,19.167,5.0886,0.64725,-1.3008,5.9113,5.7143,5.6778,8.9524,5.1282,9.0177,3.0769,-22.159,4.5752,-6.5385
10.629,1.3333,2.589,9.7087,-1.9512,4.2949,-2.5765,16.603001,2.5121,9.7087,-1.9512,0.0,12.698,10.781,13.397,7.6923,13.527,15.897,-12.0,11.111,-0.76923
6.8553,1.3333,0.64725,2.589,-3.9024,-3.3974,-9.0177,5.7051,-0.06441,2.589,-3.9024,-5.2545,13.968,10.781,14.032,7.6923,13.527,17.179001,-5.0159,14.379,-0.76923
9.3711,5.7778,3.8835,-1.2945,-9.7561,-2.7564,-5.7971,8.9103,-4.5733,-1.2945,-9.7561,-2.6273,15.873,10.781,17.841,10.256,16.747,17.179001,-3.1111,21.569,1.1538
11.887,0.06349,2.589,3.2362,-11.057,-2.7564,-13.527,6.3462,-9.0821,3.2362,-11.057,-5.9113,15.873,5.6778,17.841,5.7692,14.815,6.9231,2.6032,20.915001,-2.6923
6.8553,-1.8413,0.0,-5.178,-0.65041,-2.7564,-10.95,6.3462,-4.5733,-5.178,-0.65041,-6.5681,13.333,0.57416,14.032,1.9231,10.306,14.615,-1.8413,15.686,-5.8974
6.8553,0.06349,3.2362,-9.7087,7.8049,-0.83333,-7.0853,3.141,7.6651,-9.7087,7.8049,-2.6273,11.429,-3.2536,12.127,0.0,7.7295,24.231001,-1.2063,15.033,-5.2564
6.8553,0.06349,5.178,-1.9417,6.5041,4.9359,5.153,-1.3462,-0.70853,-1.9417,6.5041,3.2841,4.4444,-8.3573,7.6825,-3.2051,2.5765,8.8462,-2.4762,12.418,-6.5385
1.8239,-0.57143,3.8835,-8.4142,1.9512,6.2179,10.306,6.9872,0.57971,-8.4142,1.9512,5.2545,-0.63492,-12.823,1.3333,-7.6923,-3.2206,-4.6154,0.06349,4.5752,-9.1026
-3.8365,1.3333,2.589,-0.64725,-10.407,3.6538,9.0177,-0.0641,12.174,-0.64725,-10.407,8.5386,-2.5397,-11.547,-4.381,-6.4103,-5.153,-5.2564,-10.73,-3.268,-9.1026
-5.7233,7.0476,2.589,0.0,2.6016,6.859,12.882,-7.1154,14.106,0.0,2.6016,14.45,-5.7143,-8.3573,-8.1905,-3.2051,-5.7971,-18.718,1.9683,-8.4967,-5.2564
-6.9811,7.0476,1.9417,9.0615,18.862,10.064,17.391001,-12.244,14.106,9.0615,18.862,16.42,-7.619,-7.0813,-11.365,-3.2051,-8.3736,-9.1026,15.937,-11.765,-5.8974
-6.3522,10.857,5.178,22.653999,18.862,7.5,24.476999,-5.8333,25.700001,22.653999,18.862,19.704,-6.9841,-3.2536,-11.365,0.64103,-6.4412,-10.385,17.205999,-13.072,-3.9744
-3.2075,16.570999,9.7087,14.239,17.561001,2.3718,28.341,1.2179,23.768,14.239,17.561001,18.391001,-2.5397,3.126,-6.2857,6.4103,-0.64412,-7.8205,13.397,-9.8039,1.1538
1.195,15.302,11.003,9.7087,21.462999,3.6538,21.256001,-2.6282,19.903,9.7087,21.462999,15.107,0.63492,5.6778,-3.1111,8.3333,2.5765,-12.308,7.0476,-8.4967,2.4359
4.3396,15.302,11.003,7.767,26.016001,10.705,14.171,-4.5513,25.700001,7.767,26.016001,14.45,5.0794,11.419,0.69841,10.897,6.4412,-13.59,6.4127,-4.5752,7.5641
-3.8365,7.6825,3.8835,-0.64725,13.008,1.7308,7.0853,-5.1923,16.683001,-0.64725,13.008,7.225,6.9841,12.057,-1.8413,6.4103,4.5089,-2.0513,9.5873,0.0,5.0
-6.9811,7.6825,1.9417,-2.589,-0.65041,-1.4744,10.95,-0.0641,10.242,-2.589,-0.65041,5.2545,8.8889,13.333,-0.57143,7.0513,4.5089,-2.6923,7.0476,1.9608,6.2821
-3.2075,7.0476,1.2945,2.589,-5.8537,-1.4744,8.3736,0.57692,4.4444,2.589,-5.8537,3.2841,8.8889,12.695,1.3333,7.0513,5.153,-14.872,6.4127,1.3072,7.5641
-5.7233,6.4127,-2.589,0.64725,-1.9512,-4.0385,5.7971,-1.3462,5.7327,0.64725,-1.9512,-1.9704,6.9841,7.5917,-0.57143,5.1282,1.2882,-11.667,2.6032,4.5752,10.769
-7.6101,-1.8413,-11.003,0.0,3.252,-5.9615,0.64412,1.859,11.53,0.0,3.252,-6.5681,0.63492,-1.9777,-5.0159,-3.8462,-6.4412,-3.9744,13.397,3.9216,4.359
-4.4654,-6.2857,-14.887,16.181,15.61,-4.6795,-3.2206,-0.0641,17.971001,16.181,15.61,-9.8522,-1.9048,-9.6332,-5.6508,-9.6154,-10.306,3.7179,16.570999,5.8824,-1.4103
-6.3522,-6.9206,-16.827999,8.4142,13.008,-9.1667,0.64412,-0.70513,13.462,8.4142,13.008,-10.509,-4.4444,-13.461,-7.5556,-12.821,-13.527,6.2821,10.857,3.268,-0.12821
-4.4654,-12.635,-16.827999,1.9417,-2.6016,-7.8846,-6.4412,4.4231,6.3768,1.9417,-2.6016,-10.509,-8.254,-19.202999,-9.4603,-18.59,-17.391001,9.4872,3.873,1.9608,-5.8974
-5.7233,-14.54,-14.239,-8.4142,-7.1545,-7.8846,-10.306,8.9103,2.5121,-8.4142,-7.1545,-9.8522,-13.968,-23.030001,-11.365,-19.872,-19.323999,1.7949,3.873,0.0,-8.4615
-5.7233,-10.73,-9.7087,-5.178,0.0,-7.8846,-3.8647,3.7821,-1.3527,-5.178,0.0,-7.225,-15.873,-19.841,-12.635,-16.667,-17.391001,-2.6923,6.4127,-4.5752,-7.1795
-5.0943,-8.8254,-7.1197,8.4142,5.8537,-4.6795,-8.3736,2.5,2.5121,8.4142,5.8537,-7.225,-13.968,-12.185,-12.635,-11.538,-14.171,3.0769,10.857,-8.4967,-3.9744
-6.9811,-6.2857,-7.767,0.0,4.5528,-5.3205,-10.95,3.7821,8.3092,0.0,4.5528,-8.5386,-12.063,-7.0813,-13.27,-6.4103,-12.238,-2.6923,11.492,-9.8039,2.4359
-6.9811,-2.4762,-6.4725,-3.8835,-7.8049,-4.6795,-10.95,6.3462,8.3092,-3.8835,-7.8049,-9.1954,-8.254,-4.5295,-11.365,-1.9231,-9.0177,-0.12821,1.9683,-11.111,5.641
-0.06289,-0.57143,-1.2945,2.589,-13.008,-0.83333,-9.0177,5.7051,-0.06441,2.589,-13.008,-3.2841,-5.0794,-3.2536,-5.6508,0.0,-3.8647,10.769,14.032,-9.1503,3.0769
-0.06289,0.69841,2.589,-5.178,-6.5041,1.7308,-7.0853,-1.3462,0.57971,-5.178,-6.5041,0.65681,-3.1746,-0.0638,-2.4762,1.2821,-1.2882,5.0,22.921,-9.1503,0.51282
4.3396,6.4127,7.767,1.2945,1.3008,8.141,7.0853,0.57692,8.9533,1.2945,1.3008,10.509,-1.9048,0.57416,0.69841,3.8462,2.5765,-7.1795,13.397,-8.4967,4.359
3.0818,10.222,10.356,1.2945,8.4553,10.064,14.815,-0.70513,13.462,1.2945,8.4553,15.764,-1.9048,1.2121,0.06349,5.7692,3.2206,-0.12821,16.570999,-11.765,5.0
4.3396,17.205999,12.945,-4.5307,11.707,11.346,18.68,6.3462,10.886,-4.5307,11.707,18.391001,0.63492,8.8676,0.69841,11.538,5.7971,10.128,12.127,-11.111,12.051
1.8239,11.492,7.1197,-1.9417,-0.65041,4.9359,9.0177,5.0641,10.242,-1.9417,-0.65041,8.5386,-1.9048,8.8676,-3.1111,8.9744,1.2882,-10.385,9.5873,-13.072,11.41
-1.3208,7.0476,0.64725,-12.298,-4.5528,-0.83333,0.0,-5.1923,7.6651,-12.298,-4.5528,-1.9704,-3.1746,7.5917,-4.381,7.6923,-1.2882,-6.5385,7.6825,-14.379,11.41
-6.3522,3.873,-5.178,-16.827999,-11.707,-7.2436,0.64412,-9.0385,-4.5733,-16.827999,-11.707,-7.225,-3.1746,5.6778,-4.381,5.1282,-1.9324,-4.6154,8.3175,-10.458,8.8462
-9.4969,5.7778,-7.767,-5.178,-8.4553,-13.013,-1.9324,-7.1154,-6.5056,-5.178,-8.4553,-9.8522,-3.8095,7.5917,-3.746,8.3333,0.64412,-6.5385,2.6032,-7.1895,16.538
-17.044001,-5.0159,-14.887,-1.9417,-9.7561,-21.346001,-12.882,-11.603,-7.1498,-1.9417,-9.7561,-19.048,-10.159,-0.0638,-8.8254,-0.64103,-6.4412,-7.1795,14.667,-6.5359,11.41
-8.8679,-9.4603,-11.65,7.1197,-1.3008,-13.013,-9.0177,-5.8333,4.4444,7.1197,-1.3008,-14.45,-9.5238,-1.9777,-5.6508,-3.8462,-5.7971,-4.6154,23.556,-3.9216,4.359
0.56604,-6.2857,-4.5307,5.178,6.5041,-5.9615,-3.2206,1.859,6.3768,5.178,6.5041,-7.8818,-6.9841,-1.3397,-0.57143,-1.9231,-3.2206,-3.9744,15.302,-1.9608,5.0
5.5975,-6.2857,-0.64725,-6.4725,-1.9512,-1.4744,-1.9324,4.4231,-4.5733,-6.4725,-1.9512,-4.5977,-5.0794,-3.2536,1.3333,-3.2051,-1.9324,-10.385,8.9524,0.65359,2.4359
11.887,-0.57143,3.2362,1.2945,-1.9512,5.5769,-1.2882,9.5513,-7.7939,1.2945,-1.9512,0.0,2.5397,-0.0638,7.0476,1.2821,2.5765,16.538,1.9683,9.1503,3.7179
4.3396,0.06349,-1.9417,1.2945,-12.358,1.0897,-1.9324,3.141,-12.303,1.2945,-12.358,-3.9409,4.4444,-3.2536,4.5079,0.64103,1.2882,13.974,-3.746,10.458,3.0769
-3.8365,-1.8413,-6.4725,0.64725,-14.309,-0.83333,-5.153,-4.5513,-8.438,0.64725,-14.309,-5.9113,3.1746,-5.8054,-1.2063,-2.5641,-3.2206,1.7949,5.1429,2.6144,0.51282
-13.899,-1.2063,-9.7087,0.64725,-7.1545,-5.9615,-7.0853,-3.2692,-10.37,0.64725,-7.1545,-9.1954,-1.2698,-7.0813,-8.1905,-4.4872,-8.3736,-6.5385,8.9524,-7.1895,-0.76923
-17.673,-3.746,-12.298,-1.9417,-1.3008,-9.8077,-10.306,-7.1154,-11.014,-1.9417,-1.3008,-10.509,-5.7143,-10.271,-12.0,-8.9744,-12.238,-7.8205,-2.4762,-11.111,-3.3333
-8.239,-6.2857,-11.003,3.2362,3.252,-4.0385,-14.815,-5.1923,-1.3527,3.2362,3.252,-9.8522,-6.3492,-8.3573,-9.4603,-8.3333,-10.95,-20.0,-2.4762,-10.458,-1.4103
-10.755,-16.444,-16.827999,-6.4725,-5.8537,-9.8077,-14.171,-7.1154,-7.1498,-6.4725,-5.8537,-13.136,-12.063,-10.271,-14.54,-16.667,-16.103001,-14.872,4.5079,-13.725,-7.8205
-15.786,-18.983999,-19.417,-11.65,-16.910999,-13.013,-12.882,-7.1154,-13.591,-11.65,-16.910999,-14.45,-13.968,-7.0813,-18.983999,-17.308001,-18.035,-14.872,7.6825,-18.301001,-7.1795
-17.673,-17.079,-17.476,-0.64725,-9.1057,-16.858999,-14.815,-3.9103,-10.37,-0.64725,-9.1057,-13.793,-17.143,-2.6156,-19.618999,-13.462,-17.391001,-11.667,4.5079,-18.954,0.51282
-13.27,-13.27,-11.65,1.2945,-1.9512,-14.295,-18.68,-9.6795,-9.7262,1.2945,-1.9512,-12.479,-12.698,3.764,-14.54,-8.3333,-12.882,-11.667,4.5079,-15.033,5.641
-14.528,-8.8254,-9.7087,-16.181,-4.5528,-12.372,-16.747,-12.244,-7.1498,-16.181,-4.5528,-11.823,-10.159,5.0399,-12.635,-5.1282,-9.6618,-19.358999,1.9683,-15.033,7.5641
-24.591,-8.8254,-14.239,-7.767,-16.910999,-20.063999,-14.171,-17.372,-15.523,-7.767,-16.910999,-14.45,-12.698,2.488,-15.81,-6.4103,-10.95,-18.077,-1.8413,-16.34,6.9231
-24.591,-6.2857,-15.534,-0.64725,-10.407,-20.705,-12.238,-18.013,-14.879,-0.64725,-10.407,-15.107,-6.9841,4.4019,-13.27,-2.5641,-8.3736,-17.436001,-10.095,-11.111,10.769
-26.478001,-10.095,-19.417,-9.0615,-7.1545,-23.268999,-18.68,-18.013,-20.032,-9.0615,-7.1545,-20.361,-5.0794,2.488,-13.27,-4.4872,-9.0177,-9.7436,-3.746,-7.8431,8.8462
-22.075001,-13.905,-20.065001,-12.298,-11.057,-23.268999,-19.968,-10.962,-13.591,-12.298,-11.057,-22.989,-3.1746,0.57416,-10.095,-7.6923,-9.6618,-10.385,0.06349,-0.65359,3.0769
-12.642,-15.81,-16.827999,-27.832001,-16.26,-21.987,-16.103001,-14.808,-9.0821,-27.832001,-16.26,-22.332001,-0.63492,-2.6156,-5.6508,-10.897,-9.6618,-14.872,-0.57143,4.5752,-2.0513
-5.7233,-17.079,-14.887,-27.184,-16.910999,-15.577,-16.747,-15.449,-10.37,-27.184,-16.910999,-19.048,-0.63492,-6.4434,-3.746,-12.821,-10.306,-1.4103,0.69841,4.5752,-7.1795
-1.3208,-18.349001,-12.945,-2.589,-13.008,-7.2436,-14.815,-7.7564,-7.7939,-2.589,-13.008,-11.166,-1.9048,-10.909,-4.381,-15.385,-12.238,-0.76923,0.06349,3.268,-11.026
-1.3208,-13.27,-8.4142,-7.767,-9.1057,-2.1154,-8.3736,-5.1923,-7.7939,-7.767,-9.1057,-5.2545,-5.0794,-13.461,-5.6508,-12.179,-10.95,6.2821,-3.746,3.268,-11.026
0.56604,-7.5556,-3.2362,-4.5307,-5.8537,4.2949,-3.2206,1.2179,-11.014,-4.5307,-5.8537,0.0,-7.619,-11.547,-5.0159,-6.4103,-8.3736,4.359,1.3333,-1.3072,-7.1795
-2.5786,-1.2063,-1.9417,3.8835,-8.4553,0.44872,-0.64412,8.2692,-8.438,3.8835,-8.4553,-1.3136,-8.8889,-7.7193,-5.0159,-0.64103,-5.7971,3.7179,-5.6508,-1.9608,-2.6923
-4.4654,8.3175,0.64725,9.0615,-0.65041,-3.3974,0.0,3.7821,-8.438,9.0615,-0.65041,-1.3136,-6.9841,-0.70175,-3.746,8.3333,0.0,6.9231,-16.444,-1.9608,6.9231
-3.2075,9.5873,3.2362,5.8252,3.252,-2.7564,-1.2882,5.7051,-12.947,5.8252,3.252,-1.9704,-2.5397,5.0399,0.69841,11.538,5.153,1.7949,-5.0159,-2.6144,10.769
3.7107,3.2381,4.5307,-7.1197,-1.9512,-2.7564,-5.7971,4.4231,-5.8615,-7.1197,-1.9512,-5.2545,2.5397,6.9537,5.7778,8.9744,7.7295,-7.1795,10.222,1.9608,6.2821
1.8239,-2.4762,-0.64725,-16.827999,-14.959,-7.2436,-15.459,-4.5513,-12.303,-16.827999,-14.959,-14.45,4.4444,6.9537,5.7778,5.7692,6.4412,-2.0513,-1.8413,1.9608,5.641
3.7107,-6.9206,-3.2362,-14.887,-14.959,-11.731,-18.035,-8.3974,-22.608999,-14.887,-14.959,-18.391001,7.619,8.2297,8.9524,4.4872,7.7295,5.641,-6.2857,7.8431,8.2051
4.9686,-5.0159,-1.9417,-17.476,-17.561001,-10.449,-17.391001,-14.808,-23.253,-17.476,-17.561001,-15.107,12.698,10.144,13.397,5.7692,10.306,8.8462,-8.8254,11.765,8.8462
5.5975,-1.2063,1.2945,-19.417,-29.268,-6.6026,-4.5089,-20.577,-25.184999,-19.417,-29.268,-6.5681,15.873,13.971,14.667,8.9744,12.882,6.9231,-3.1111,12.418,10.769
6.8553,1.3333,4.5307,-14.239,-14.959,-2.1154,1.9324,-14.808,-14.235,-14.239,-14.959,1.3136,16.507999,16.523001,15.302,10.897,14.171,-5.2564,1.3333,11.765,12.692
2.4528,5.1429,7.1197,-3.8835,0.0,3.6538,5.153,-8.3974,-5.2174,-3.8835,0.0,8.5386,13.333,15.885,10.222,11.538,11.594,-25.768999,-5.0159,6.5359,13.333
1.195,12.127,11.003,9.0615,4.5528,10.064,22.544001,-0.70513,-6.5056,9.0615,4.5528,18.391001,9.5238,12.695,5.1429,12.179,8.3736,-16.795,-15.81,4.5752,15.256
-1.9497,12.127,10.356,14.239,16.26,9.4231,23.188,6.9872,4.4444,14.239,16.26,19.048,3.8095,8.2297,0.69841,8.9744,5.153,1.7949,-3.1111,3.268,10.128
1.8239,10.857,11.003,12.945,24.065001,13.269,13.527,12.115,14.106,12.945,24.065001,17.077,0.63492,5.6778,1.3333,7.6923,5.153,4.359,8.9524,1.3072,5.0
6.8553,12.127,11.65,18.77,16.910999,13.269,7.0853,9.5513,11.53,18.77,16.910999,16.42,2.5397,5.6778,4.5079,9.6154,7.0853,7.5641,1.9683,1.3072,6.2821
13.774,16.570999,14.887,20.712,14.309,12.628,12.238,6.9872,1.868,20.712,14.309,16.42,8.254,8.8676,10.857,13.462,12.238,8.2051,-7.5556,10.458,8.8462
