C3,C4,Cz,F1,F2,F3,F4,F7,F8,Fp1,Fp2,Fz,O1,O2,P3,P4,Pz,T3,T4,T5,T6
-2.9068,-0.88889,-10.732,3.9216,3.8835,2.7184,3.8647,5.7327,-0.06472,3.9216,3.8835,1.9802,-8.5308,-9.6332,-8.5079,-14.493,-14.423,-2.0415,-1.8325,-9.7561,-10.705
-3.8547,1.0159,-9.7561,6.8627,4.8544,1.7476,5.7971,5.7327,4.7896,6.8627,4.8544,2.9703,-8.5308,-5.8054,-8.5079,-7.7295,-11.538,-2.0415,3.8547,-8.7805,-4.9359
0.88468,2.9206,0.0,2.9412,1.9417,2.7184,4.8309,5.7327,4.7896,2.9412,1.9417,3.9604,-3.7915,-2.9346,-3.746,3.8647,-2.8846,-0.12759,8.594,-3.9024,3.7179
1.8325,-0.88889,0.97561,0.98039,0.0,-1.165,-0.96618,1.868,1.877,0.98039,0.0,-1.9802,1.8957,-0.0638,1.0159,5.7971,0.96154,2.7432,4.8025,0.97561,6.6026
0.88468,-4.6984,-1.9512,3.9216,0.97087,-1.165,-1.9324,0.90177,-1.0356,3.9216,0.97087,-3.9604,-1.8957,0.89314,0.06349,1.9324,-1.9231,5.614,0.06319,0.97561,3.7179
-1.0111,-5.6508,-7.8049,4.902,-0.97087,0.7767,-1.9324,2.8341,-1.0356,4.902,-0.97087,-2.9703,-5.6872,-1.0207,-1.8413,-2.8986,-3.8462,2.7432,-1.8325,0.0,-0.12821
-0.06319,-2.7937,-8.7805,2.9412,5.8252,1.7476,1.9324,3.8003,1.877,2.9412,5.8252,0.0,-5.6872,-1.0207,0.06349,-0.96618,-1.9231,-0.12759,0.06319,-1.9512,-2.0513
-1.9589,-0.88889,-4.878,0.0,9.7087,-0.19417,2.8986,1.868,2.8479,0.0,9.7087,0.0,-10.427,-5.8054,-2.7937,-3.8647,-4.8077,-2.9984,-1.8325,-5.8537,-4.9359
-1.9589,-3.746,-2.9268,1.9608,4.8544,-2.1359,-0.96618,-0.06441,2.8479,1.9608,4.8544,-1.9802,-5.6872,-6.7624,-2.7937,-8.6957,-6.7308,-2.9984,-3.7283,0.0,-7.8205
-5.7504,-10.413,-5.8537,-2.9412,-0.97087,-5.0485,-5.7971,-1.0306,-1.0356,-2.9412,-0.97087,-6.9307,2.8436,-1.0207,-2.7937,-9.6618,-4.8077,-1.0845,-5.624,1.9512,-5.8974
-12.385,-15.175,-13.659,-1.9608,-0.97087,-6.0194,-8.6957,-0.06441,-3.9482,-1.9608,-0.97087,-9.901,0.0,0.89314,-10.413,-11.594,-9.6154,-2.9984,-10.363,-5.8537,-4.9359
-11.438,-12.317,-16.584999,3.9216,0.0,-2.1359,-2.8986,2.8341,-3.9482,3.9216,0.0,-4.9505,-8.5308,-3.8915,-16.127001,-11.594,-14.423,-4.9123,-9.4155,-11.707,-5.8974
-2.9068,-2.7937,-7.8049,8.8235,3.8835,2.7184,0.96618,3.8003,-0.06472,8.8235,3.8835,1.9802,-5.6872,-1.9777,-8.5079,-5.7971,-9.6154,-4.9123,0.06319,-6.8293,-2.0513
1.8325,5.7778,0.0,5.8824,8.7379,4.6602,4.8309,2.8341,1.877,5.8824,8.7379,6.9307,-0.94787,-1.9777,-3.746,0.0,-5.7692,-5.8692,5.7504,-2.9268,-0.12821
-2.9068,2.9206,-1.9512,6.8627,5.8252,0.7767,2.8986,-0.06441,1.877,6.8627,5.8252,2.9703,-4.7393,-7.7193,-5.6508,0.0,-6.7308,-5.8692,1.9589,-5.8537,-3.0128
-5.7504,-4.6984,-8.7805,2.9412,4.8544,-2.1359,0.0,-0.06441,2.8479,2.9412,4.8544,-2.9703,-6.6351,-6.7624,-6.6032,-2.8986,-5.7692,-4.9123,1.0111,-7.8049,-3.9744
-1.9589,-4.6984,-5.8537,1.9608,4.8544,2.7184,0.0,1.868,5.7605,1.9608,4.8544,0.0,1.8957,-0.0638,0.06349,0.0,0.96154,-0.12759,2.9068,0.0,-0.12821
3.7283,1.0159,1.9512,0.98039,2.9126,6.6019,2.8986,2.8341,3.8188,0.98039,2.9126,4.9505,9.4787,4.7209,6.7302,5.7971,7.6923,1.7863,5.7504,6.8293,5.641
5.624,4.8254,5.8537,5.8824,1.9417,5.6311,2.8986,2.8341,-2.0065,5.8824,1.9417,5.9406,4.7393,1.8501,9.5873,7.7295,9.6154,1.7863,1.9589,7.8049,2.7564
5.624,2.9206,4.878,2.9412,1.9417,0.7767,-0.96618,2.8341,-5.89,2.9412,1.9417,1.9802,3.7915,0.89314,10.54,5.7971,8.6538,2.7432,-3.7283,8.7805,-0.12821
4.6761,0.06349,2.9268,2.9412,0.0,1.7476,-1.9324,4.7665,-3.9482,2.9412,0.0,0.9901,3.7915,3.764,9.5873,3.8647,8.6538,3.7002,-4.6761,8.7805,1.7949
6.5719,1.9683,3.9024,7.8431,4.8544,7.5728,3.8647,6.6989,-0.06472,7.8431,4.8544,5.9406,4.7393,7.5917,5.7778,3.8647,6.7308,4.6571,-2.7804,7.8049,4.6795
4.6761,2.9206,2.9268,5.8824,3.8835,7.5728,3.8647,5.7327,-2.0065,5.8824,3.8835,6.9307,3.7915,3.764,1.0159,0.96618,2.8846,2.7432,-2.7804,3.9024,0.83333
0.88468,1.0159,-2.9268,5.8824,0.97087,3.6893,0.0,3.8003,-4.9191,5.8824,0.97087,2.9703,0.0,1.8501,0.06349,0.96618,3.8462,-0.12759,-2.7804,-0.97561,-1.0897
-1.9589,-1.8413,-5.8537,2.9412,1.9417,1.7476,0.0,2.8341,-2.0065,2.9412,1.9417,0.9901,6.6351,6.6348,0.06349,1.9324,5.7692,-1.0845,-2.7804,0.97561,0.83333
0.88468,1.9683,1.9512,-0.98039,3.8835,4.6602,3.8647,2.8341,-0.06472,-0.98039,3.8835,4.9505,5.6872,3.764,1.0159,3.8647,6.7308,-1.0845,-1.8325,1.9512,0.83333
8.4676,10.54,14.634,1.9608,3.8835,9.5146,11.594,3.8003,1.877,1.9608,3.8835,12.871,4.7393,4.7209,6.7302,10.628,10.577,-1.0845,2.9068,2.9268,5.641
12.259,13.397,21.462999,7.8431,1.9417,8.5437,8.6957,1.868,-2.9773,7.8431,1.9417,12.871,8.5308,10.463,13.397,14.493,14.423,-1.0845,1.9589,5.8537,7.5641
7.5197,6.7302,11.707,2.9412,0.97087,2.7184,0.96618,-0.06441,-6.8608,2.9412,0.97087,4.9505,5.6872,7.5917,13.397,10.628,13.462,-1.0845,-2.7804,4.878,4.6795
2.7804,0.06349,0.97561,0.0,-4.8544,0.7767,-1.9324,-0.06441,-7.8317,0.0,-4.8544,-0.9901,5.6872,1.8501,9.5873,4.8309,8.6538,-0.12759,-4.6761,5.8537,-0.12821
4.6761,1.0159,1.9512,3.9216,0.0,4.6602,0.96618,3.8003,-7.8317,3.9216,0.0,2.9703,5.6872,-1.0207,8.6349,1.9324,5.7692,3.7002,-7.5197,7.8049,-3.0128
11.311,3.873,10.732,3.9216,1.9417,7.5728,3.8647,3.8003,-6.8608,3.9216,1.9417,6.9307,6.6351,3.764,11.492,2.8986,7.6923,6.571,-8.4676,9.7561,-1.0897
9.4155,0.06349,6.8293,-1.9608,-1.9417,3.6893,1.9324,-0.06441,-8.8026,-1.9608,-1.9417,3.9604,10.427,8.5486,11.492,0.0,5.7692,7.5279,-7.5197,11.707,2.7564
2.7804,-1.8413,-0.97561,-5.8824,-0.97087,-0.19417,-0.96618,-2.963,-4.9191,-5.8824,-0.97087,0.0,11.374,10.463,8.6349,1.9324,6.7308,5.614,-1.8325,10.732,7.5641
3.7283,2.9206,1.9512,1.9608,5.8252,2.7184,2.8986,0.90177,-2.0065,1.9608,5.8252,2.9703,19.905001,14.29,9.5873,8.6957,13.462,7.5279,2.9068,13.659,11.41
9.4155,10.54,12.683,10.784,6.7961,9.5146,7.7295,5.7327,-1.0356,10.784,6.7961,10.891,16.114,14.29,12.444,14.493,18.268999,8.4848,2.9068,12.683,11.41
15.103,14.349,20.488001,8.8235,6.7961,14.369,12.56,8.6312,-2.0065,8.8235,6.7961,14.851,10.427,12.376,15.302,16.424999,20.191999,9.4418,1.0111,10.732,9.4872
16.051001,12.444,16.584999,5.8824,6.7961,14.369,13.527,8.6312,-0.06472,5.8824,6.7961,13.861,7.5829,9.5056,16.254,15.459,17.308001,8.4848,3.8547,11.707,9.4872
13.207,12.444,9.7561,4.902,8.7379,12.427,13.527,6.6989,3.8188,4.902,8.7379,13.861,9.4787,9.5056,13.397,13.527,11.538,4.6571,8.594,8.7805,11.41
12.259,15.302,13.659,11.765,10.68,15.34,17.391001,5.7327,7.7023,11.765,10.68,21.782,5.6872,7.5917,9.5873,11.594,9.6154,-1.0845,10.49,2.9268,9.4872
11.311,15.302,18.537001,13.725,12.621,17.282,17.391001,4.7665,6.7314,13.725,12.621,23.761999,3.7915,4.7209,7.6825,9.6618,9.6154,-5.8692,7.6461,0.0,4.6795
10.363,9.5873,19.511999,10.784,10.68,13.398,12.56,3.8003,4.7896,10.784,10.68,17.822001,5.6872,6.6348,7.6825,8.6957,11.538,-6.8262,3.8547,-1.9512,3.7179
4.6761,2.9206,13.659,8.8235,7.767,6.6019,4.8309,1.868,1.877,8.8235,7.767,8.9109,1.8957,5.6778,4.8254,6.7633,10.577,-9.697,1.0111,-5.8537,3.7179
-1.0111,1.0159,3.9024,6.8627,5.8252,2.7184,2.8986,-1.9968,1.877,6.8627,5.8252,3.9604,0.94787,3.764,-1.8413,3.8647,2.8846,-11.611,2.9068,-7.8049,5.641
0.88468,5.7778,2.9268,4.902,6.7961,3.6893,8.6957,-3.9291,5.7605,4.902,6.7961,7.9208,5.6872,6.6348,-0.88889,4.8309,0.0,-9.697,9.5419,-2.9268,11.41
6.5719,12.444,7.8049,4.902,6.7961,7.5728,12.56,-2.963,4.7896,4.902,6.7961,13.861,8.5308,10.463,4.8254,9.6618,5.7692,-3.9553,10.49,2.9268,15.256
9.4155,9.5873,11.707,1.9608,2.9126,6.6019,4.8309,-1.9968,-3.9482,1.9608,2.9126,9.901,15.166,13.333,10.54,13.527,13.462,3.7002,6.6983,10.732,15.256
7.5197,3.873,10.732,-2.9412,-0.97087,2.7184,-0.96618,-0.06441,-8.8026,-2.9412,-0.97087,1.9802,13.27,14.29,14.349,18.357,18.268999,7.5279,4.8025,13.659,18.141001
8.4676,2.9206,9.7561,0.98039,0.0,3.6893,-0.96618,3.8003,-6.8608,0.98039,0.0,0.9901,9.4787,13.333,18.159,20.290001,21.153999,9.4418,2.9068,13.659,16.218
10.363,5.7778,9.7561,6.8627,3.8835,5.6311,5.7971,5.7327,-1.0356,6.8627,3.8835,4.9505,8.5308,8.5486,19.111,16.424999,18.268999,12.313,1.9589,12.683,12.372
3.7283,1.9683,1.9512,1.9608,0.0,0.7767,3.8647,2.8341,-2.0065,1.9608,0.0,0.9901,0.94787,0.89314,9.5873,6.7633,7.6923,8.4848,-2.7804,7.8049,5.641
-1.0111,-2.7937,-4.878,-2.9412,0.0,-1.165,-0.96618,1.868,-2.9773,-2.9412,0.0,-2.9703,-1.8957,-0.0638,2.9206,0.0,1.9231,6.571,-6.5719,4.878,1.7949
-1.9589,-6.6032,-7.8049,0.98039,-0.97087,-0.19417,-2.8986,4.7665,-3.9482,0.98039,-0.97087,-3.9604,-3.7915,-2.9346,-0.88889,-3.8647,-1.9231,5.614,-5.624,0.0,-3.0128
-2.9068,-9.4603,-8.7805,1.9608,0.97087,-1.165,-4.8309,4.7665,-5.89,1.9608,0.97087,-4.9505,-2.8436,-3.8915,-3.746,-6.7633,-4.8077,3.7002,-3.7283,-0.97561,-4.9359
-4.8025,-9.4603,-7.8049,-0.98039,1.9417,-2.1359,-3.8647,2.8341,-3.9482,-0.98039,1.9417,-2.9703,1.8957,-3.8915,-3.746,-9.6618,-4.8077,1.7863,-2.7804,1.9512,-6.859
-2.9068,-2.7937,-4.878,0.0,4.8544,-2.1359,3.8647,1.868,3.8188,0.0,4.8544,1.9802,-1.8957,-2.9346,-4.6984,-7.7295,-4.8077,-1.0845,1.9589,-1.9512,-5.8974
-1.0111,0.06349,-4.878,0.0,3.8835,0.7767,4.8309,-0.06441,6.7314,0.0,3.8835,3.9604,-0.94787,1.8501,-7.5556,-8.6957,-6.7308,-4.9123,3.8547,-6.8293,-3.9744
-3.8547,-1.8413,-7.8049,2.9412,1.9417,2.7184,2.8986,0.90177,2.8479,2.9412,1.9417,4.9505,-8.5308,-1.0207,-13.27,-10.628,-11.538,-6.8262,-1.8325,-14.634,-4.9359
-6.6983,-2.7937,-8.7805,6.8627,4.8544,5.6311,3.8647,2.8341,-1.0356,6.8627,4.8544,7.9208,-12.322,-1.9777,-17.079,-10.628,-11.538,-7.7831,-5.624,-16.584999,-4.9359
-4.8025,-4.6984,-4.878,9.8039,1.9417,7.5728,4.8309,4.7665,-5.89,9.8039,1.9417,9.901,-0.94787,4.7209,-12.317,-8.6957,-5.7692,-3.9553,-7.5197,-7.8049,-3.0128
-1.9589,-8.5079,-3.9024,10.784,2.9126,4.6602,0.0,5.7327,-9.7735,10.784,2.9126,5.9406,-4.7393,2.807,-7.5556,-7.7295,-1.9231,-2.0415,-11.311,-7.8049,-3.9744
-0.06319,-10.413,-5.8537,11.765,2.9126,1.7476,-5.7971,6.6989,-10.744,11.765,2.9126,0.0,-0.94787,1.8501,-4.6984,-8.6957,-0.96154,0.82935,-16.997999,-1.9512,-6.859
-7.6461,-13.27,-13.659,0.98039,-0.97087,-6.9903,-10.628,0.90177,-11.715,0.98039,-0.97087,-10.891,2.8436,-1.0207,-7.5556,-11.594,-4.8077,2.7432,-17.945999,0.97561,-9.7436
-20.916,-18.032,-22.438999,-10.784,-9.7087,-19.612,-20.290001,-8.7601,-12.686,-10.784,-9.7087,-24.752001,1.8957,-2.9346,-14.222,-15.459,-11.538,-0.12759,-14.155,0.0,-9.7436
-22.812,-19.937,-24.389999,-15.686,-14.563,-24.466,-21.256001,-11.659,-12.686,-15.686,-14.563,-28.712999,0.94787,-2.9346,-15.175,-16.424999,-13.462,-0.12759,-9.4155,0.97561,-8.7821
-9.5419,-16.127001,-13.659,-11.765,-19.417,-16.698999,-15.459,-9.7262,-10.744,-11.765,-19.417,-19.802,-0.94787,-1.9777,-6.6032,-12.56,-8.6538,4.6571,-5.624,4.878,-5.8974
0.88468,-8.5079,-4.878,-7.8431,-12.621,-7.9612,-8.6957,-5.8615,-9.7735,-7.8431,-12.621,-10.891,1.8957,-1.9777,-0.88889,-9.6618,-5.7692,7.5279,-0.88468,7.8049,-4.9359
0.88468,-0.88889,0.0,-9.8039,-5.8252,-2.1359,-3.8647,-3.9291,-6.8608,-9.8039,-5.8252,-3.9604,2.8436,-1.9777,-1.8413,-7.7295,-5.7692,6.571,1.9589,7.8049,-3.9744
-1.0111,3.873,0.0,-11.765,-3.8835,-0.19417,2.8986,-4.8953,-2.9773,-11.765,-3.8835,0.9901,1.8957,-1.0207,-4.6984,-3.8647,-5.7692,4.6571,6.6983,2.9268,-2.0513
-1.0111,7.6825,-0.97561,-3.9216,-0.97087,1.7476,8.6957,-1.9968,4.7896,-3.9216,-0.97087,3.9604,-9.4787,-5.8054,-6.6032,-3.8647,-7.6923,0.82935,8.594,-4.878,-1.0897
0.88468,7.6825,-1.9512,0.98039,3.8835,3.6893,8.6957,1.868,10.615,0.98039,3.8835,3.9604,-10.427,-6.7624,-6.6032,-3.8647,-10.577,-1.0845,8.594,-9.7561,-2.0513
-3.8547,0.06349,-7.8049,3.9216,-0.97087,-1.165,1.9324,0.90177,9.644,3.9216,-0.97087,-4.9505,-6.6351,-7.7193,-8.5079,-5.7971,-11.538,-2.9984,1.0111,-9.7561,-4.9359
-6.6983,-4.6984,-9.7561,-1.9608,-7.767,-6.0194,-3.8647,-1.9968,5.7605,-1.9608,-7.767,-11.881,-8.5308,-9.6332,-7.5556,-4.8309,-7.6923,-2.9984,0.06319,-8.7805,-7.8205
-4.8025,-5.6508,-5.8537,-10.784,-3.8835,-7.9612,-8.6957,-4.8953,4.7896,-10.784,-3.8835,-11.881,-0.94787,-5.8054,-1.8413,-2.8986,-2.8846,-2.9984,1.0111,-1.9512,-6.859
-1.0111,-2.7937,0.97561,-4.902,0.0,-5.0485,-7.7295,-2.963,3.8188,-4.902,0.0,-5.9406,8.5308,2.807,3.873,-2.8986,0.96154,-2.9984,1.0111,4.878,-2.0513
4.6761,1.9683,5.8537,-3.9216,-4.8544,0.7767,-3.8647,0.90177,2.8479,-3.9216,-4.8544,0.0,12.322,6.6348,8.6349,-0.96618,4.8077,-4.9123,1.9589,7.8049,0.83333
4.6761,1.9683,6.8293,-4.902,-6.7961,0.7767,-1.9324,0.90177,-1.0356,-4.902,-6.7961,0.9901,11.374,5.6778,12.444,5.7971,12.5,-9.697,1.0111,5.8537,2.7564
2.7804,1.9683,5.8537,4.902,-2.9126,-0.19417,1.9324,3.8003,-1.0356,4.902,-2.9126,0.9901,9.4787,9.5056,13.397,14.493,17.308001,-10.654,1.0111,4.878,6.6026
-2.9068,-3.746,0.97561,6.8627,-1.9417,-3.1068,-3.8647,-1.0306,-3.9482,6.8627,-1.9417,-1.9802,7.5829,11.419,6.7302,12.56,11.538,-13.525,-0.88468,2.9268,8.5256
-6.6983,-8.5079,0.0,-1.9608,-4.8544,-7.9612,-9.6618,-6.8277,-6.8608,-1.9608,-4.8544,-6.9307,6.6351,10.463,1.0159,7.7295,4.8077,-12.568,-0.88468,-0.97561,10.449
-7.6461,-4.6984,0.97561,-3.9216,-4.8544,-7.9612,-10.628,-7.7939,-4.9191,-3.9216,-4.8544,-9.901,5.6872,7.5917,0.06349,6.7633,1.9231,-10.654,0.06319,-0.97561,9.4872
-9.5419,-4.6984,-1.9512,-6.8627,-2.9126,-10.874,-10.628,-8.7601,-4.9191,-6.8627,-2.9126,-13.861,-1.8957,-1.9777,-4.6984,0.0,-5.7692,-5.8692,-2.7804,-4.878,1.7949
-7.6461,-2.7937,-4.878,-7.8431,-3.8835,-9.9029,-7.7295,-5.8615,-2.9773,-7.8431,-3.8835,-11.881,-3.7915,-2.9346,-5.6508,-4.8309,-7.6923,0.82935,-3.7283,-3.9024,-3.9744
0.88468,1.0159,-0.97561,-6.8627,-2.9126,-5.0485,-1.9324,-1.0306,-0.06472,-6.8627,-2.9126,-3.9604,-0.94787,-2.9346,-2.7937,-3.8647,-6.7308,7.5279,-0.88468,0.0,-4.9359
6.5719,1.9683,2.9268,-4.902,-5.8252,0.7767,0.96618,1.868,-2.0065,-4.902,-5.8252,1.9802,0.0,-3.8915,1.9683,-2.8986,-3.8462,10.399,-4.6761,3.9024,-5.8974
7.5197,-1.8413,1.9512,0.98039,-3.8835,2.7184,-0.96618,2.8341,-5.89,0.98039,-3.8835,1.9802,0.0,-2.9346,1.9683,-1.9324,-1.9231,10.399,-7.5197,3.9024,-3.9744
-1.0111,-9.4603,-6.8293,1.9608,-5.8252,0.7767,-7.7295,4.7665,-9.7735,1.9608,-5.8252,-2.9703,-0.94787,-2.9346,-3.746,-5.7971,-3.8462,9.4418,-7.5197,0.0,-2.0513
-9.5419,-11.365,-16.584999,-1.9608,-12.621,-2.1359,-9.6618,4.7665,-10.744,-1.9608,-12.621,-8.9109,0.0,-1.0207,-9.4603,-9.6618,-9.6154,9.4418,-8.4676,-1.9512,-1.0897
-13.333,-9.4603,-19.511999,-0.98039,-11.65,-6.9903,-10.628,3.8003,-9.7735,-0.98039,-11.65,-11.881,-7.5829,-6.7624,-16.127001,-13.527,-16.346001,6.571,-10.363,-5.8537,-4.9359
-6.6983,-8.5079,-11.707,-1.9608,-7.767,-6.9903,-10.628,3.8003,-8.8026,-1.9608,-7.767,-11.881,-8.5308,-7.7193,-11.365,-15.459,-15.385,5.614,-11.311,-4.878,-8.7821
-2.9068,-10.413,-4.878,-8.8235,-7.767,-11.845,-12.56,-1.9968,-8.8026,-8.8235,-7.767,-14.851,0.0,-3.8915,-3.746,-14.493,-10.577,3.7002,-11.311,0.0,-10.705
-10.49,-17.079,-4.878,-15.686,-13.592,-23.495001,-19.323999,-12.625,-10.744,-15.686,-13.592,-23.761999,0.94787,-2.9346,-4.6984,-14.493,-7.6923,-2.9984,-11.311,-0.97561,-11.667
-14.281,-16.127001,-6.8293,-16.667,-14.563,-24.466,-17.391001,-15.523,-5.89,-16.667,-14.563,-24.752001,-2.8436,-1.0207,-6.6032,-6.7633,-4.8077,-9.697,-6.5719,-5.8537,-4.9359
-8.594,-3.746,-4.878,-13.725,-3.8835,-16.698999,-7.7295,-12.625,5.7605,-13.725,-3.8835,-13.861,1.8957,3.764,-2.7937,4.8309,0.0,-8.74,4.8025,-0.97561,3.7179
1.8325,9.5873,1.9512,-13.725,0.97087,-6.0194,0.96618,-8.7601,9.644,-13.725,0.97087,0.0,5.6872,6.6348,3.873,12.56,4.8077,-2.0415,9.5419,5.8537,9.4872
10.363,15.302,7.8049,-6.8627,-0.97087,4.6602,6.7633,-2.963,7.7023,-6.8627,-0.97087,8.9109,1.8957,6.6348,6.7302,15.459,8.6538,3.7002,8.594,1.9512,8.5256
10.363,10.54,7.8049,0.0,1.9417,7.5728,5.7971,4.7665,2.8479,0.0,1.9417,8.9109,0.0,0.89314,5.7778,11.594,6.7308,8.4848,5.7504,0.0,2.7564
8.4676,6.7302,9.7561,7.8431,2.9126,9.5146,7.7295,9.5974,1.877,7.8431,2.9126,10.891,2.8436,-1.0207,4.8254,8.6957,5.7692,11.356,5.7504,2.9268,-2.0513
5.624,8.6349,9.7561,10.784,5.8252,9.5146,12.56,9.5974,6.7314,10.784,5.8252,12.871,-1.8957,-5.8054,1.0159,7.7295,2.8846,11.356,7.6461,0.97561,-3.0128
-1.0111,8.6349,3.9024,4.902,2.9126,3.6893,8.6957,3.8003,7.7023,4.902,2.9126,6.9307,-6.6351,-7.7193,-2.7937,8.6957,0.0,6.571,8.594,-0.97561,-1.0897
-1.0111,3.873,0.0,-0.98039,1.9417,-1.165,0.0,-1.0306,3.8188,-0.98039,1.9417,-0.9901,-8.5308,-6.7624,-0.88889,12.56,1.9231,2.7432,8.594,-0.97561,5.641
0.88468,0.06349,-0.97561,-1.9608,4.8544,-2.1359,-5.7971,-1.0306,4.7896,-1.9608,4.8544,-6.9307,-6.6351,-4.8485,2.9206,12.56,4.8077,-0.12759,9.5419,0.97561,7.5641
-1.9589,0.06349,-0.97561,-3.9216,2.9126,-6.9903,-5.7971,-2.963,6.7314,-3.9216,2.9126,-10.891,-7.5829,-4.8485,1.0159,9.6618,1.9231,-2.9984,11.438,-0.97561,7.5641
-9.5419,-1.8413,-3.9024,-7.8431,0.0,-12.816,-5.7971,-4.8953,7.7023,-7.8431,0.0,-12.871,-7.5829,-7.7193,-4.6984,1.9324,-5.7692,-5.8692,9.5419,-2.9268,2.7564
-10.49,-0.88889,-4.878,-6.8627,-0.97087,-12.816,-2.8986,-7.7939,7.7023,-6.8627,-0.97087,-11.881,-3.7915,-7.7193,-6.6032,-1.9324,-8.6538,-6.8262,8.594,-0.97561,-0.12821
-9.5419,2.9206,-3.9024,-6.8627,-1.9417,-12.816,0.0,-9.7262,8.6731,-6.8627,-1.9417,-7.9208,-2.8436,-9.6332,-6.6032,0.96618,-8.6538,-9.697,10.49,-2.9268,-0.12821
-4.8025,4.8254,0.0,-5.8824,0.97087,-9.9029,3.8647,-9.7262,9.644,-5.8824,0.97087,-1.9802,-10.427,-9.6332,-3.746,4.8309,-6.7308,-14.482,12.385,-6.8293,1.7949
2.7804,9.5873,8.7805,-7.8431,6.7961,-3.1068,8.6957,-9.7262,10.615,-7.8431,6.7961,5.9406,-6.6351,-1.9777,2.9206,10.628,1.9231,-17.351999,13.333,-2.9268,8.5256
5.624,15.302,17.561001,3.9216,12.621,4.6602,15.459,-8.7601,15.469,3.9216,12.621,14.851,-1.8957,3.764,8.6349,14.493,9.6154,-20.223,19.968,-1.9512,13.333
6.5719,21.016001,21.462999,9.8039,15.534,10.485,22.222,-6.8277,20.323999,9.8039,15.534,21.782,2.8436,5.6778,8.6349,16.424999,12.5,-22.136999,24.708,-4.878,13.333
5.624,21.968,20.488001,10.784,13.592,9.5146,20.290001,-8.7601,21.294001,10.784,13.592,21.782,1.8957,7.5917,8.6349,17.391001,16.346001,-25.007999,23.76,-9.7561,11.41
5.624,15.302,17.561001,6.8627,9.7087,4.6602,12.56,-13.591,15.469,6.8627,9.7087,14.851,1.8957,8.5486,12.444,16.424999,18.268999,-24.051001,20.916,-5.8537,12.372
6.5719,8.6349,13.659,2.9412,4.8544,-0.19417,7.7295,-15.523,10.615,2.9412,4.8544,6.9307,11.374,11.419,15.302,14.493,17.308001,-18.309,18.073,2.9268,12.372
5.624,3.873,8.7805,-2.9412,0.97087,-0.19417,2.8986,-13.591,8.6731,-2.9412,0.97087,1.9802,15.166,12.376,14.349,9.6618,14.423,-13.525,14.281,6.8293,10.449
2.7804,2.9206,2.9268,-3.9216,2.9126,-3.1068,-1.9324,-11.659,10.615,-3.9216,2.9126,-2.9703,11.374,9.5056,11.492,6.7633,11.538,-8.74,15.229,7.8049,8.5256
-3.8547,0.06349,-4.878,-6.8627,0.97087,-7.9612,-5.7971,-10.692,10.615,-6.8627,0.97087,-9.901,0.0,4.7209,3.873,2.8986,5.7692,-6.8262,14.281,0.0,5.641
-4.8025,-3.746,-5.8537,-7.8431,-5.8252,-10.874,-6.7633,-8.7601,8.6731,-7.8431,-5.8252,-11.881,-2.8436,-1.9777,0.06349,-4.8309,-0.96154,-3.9553,6.6983,0.0,-2.0513
-0.06319,-4.6984,-0.97561,-5.8824,0.0,-6.0194,-3.8647,-4.8953,6.7314,-5.8824,0.0,-6.9307,-0.94787,-5.8054,1.0159,-10.628,-5.7692,0.82935,-2.7804,2.9268,-9.7436
-0.06319,-3.746,0.0,-3.9216,1.9417,-2.1359,-0.96618,-2.963,5.7605,-3.9216,1.9417,-2.9703,-4.7393,-6.7624,0.06349,-12.56,-8.6538,-0.12759,-9.4155,0.97561,-11.667
-1.0111,1.9683,0.0,-3.9216,2.9126,-0.19417,2.8986,-3.9291,9.644,-3.9216,2.9126,0.9901,-3.7915,-3.8915,-1.8413,-6.7633,-7.6923,-2.0415,-4.6761,1.9512,-6.859
-2.9068,5.7778,-2.9268,-0.98039,8.7379,2.7184,5.7971,-2.963,12.557,-0.98039,8.7379,4.9505,-0.94787,-2.9346,-5.6508,-1.9324,-8.6538,-3.9553,0.06319,0.0,-3.9744
0.88468,8.6349,0.0,7.8431,14.563,9.5146,12.56,4.7665,16.440001,7.8431,14.563,12.871,-1.8957,-1.9777,-7.5556,0.0,-8.6538,-2.9984,2.9068,-2.9268,-2.0513
3.7283,11.492,5.8537,16.667,18.447001,15.34,18.357,9.5974,17.410999,16.667,18.447001,19.802,-11.374,-3.8915,-11.365,0.96618,-7.6923,-2.0415,4.8025,-13.659,-2.0513
0.88468,11.492,4.878,13.725,14.563,14.369,16.424999,10.564,15.469,13.725,14.563,18.812,-14.218,-10.59,-12.317,0.0,-6.7308,0.82935,4.8025,-14.634,-5.8974
-0.06319,11.492,0.97561,10.784,11.65,13.398,14.493,10.564,16.440001,10.784,11.65,15.842,-11.374,-8.6762,-12.317,1.9324,-6.7308,2.7432,8.594,-13.659,-3.0128
1.8325,12.444,0.0,17.646999,15.534,15.34,19.323999,11.53,21.294001,17.646999,15.534,17.822001,-10.427,-9.6332,-12.317,1.9324,-9.6154,4.6571,12.385,-13.659,-1.0897
0.88468,12.444,1.9512,17.646999,15.534,14.369,22.222,10.564,21.294001,17.646999,15.534,17.822001,-14.218,-13.461,-14.222,-0.96618,-12.5,4.6571,12.385,-14.634,-3.0128
-1.9589,9.5873,3.9024,14.706,19.417,12.427,17.391001,9.5974,19.353001,14.706,19.417,14.851,-18.957001,-15.375,-16.127001,-3.8647,-15.385,1.7863,7.6461,-17.561001,-5.8974
-3.8547,5.7778,3.9024,8.8235,18.447001,6.6019,13.527,6.6989,13.528,8.8235,18.447001,10.891,-21.801001,-17.289,-18.032,-9.6618,-19.231001,-0.12759,2.9068,-20.488001,-8.7821
-7.6461,-1.8413,-1.9512,8.8235,13.592,-0.19417,8.6957,3.8003,8.6731,8.8235,13.592,5.9406,-20.853001,-17.289,-19.937,-16.424999,-23.077,-3.9553,-5.624,-19.511999,-11.667
-9.5419,-8.5079,-6.8293,5.8824,8.7379,-3.1068,2.8986,3.8003,2.8479,5.8824,8.7379,0.9901,-13.27,-15.375,-19.937,-21.256001,-24.038,-6.8262,-13.207,-13.659,-13.59
-12.385,-13.27,-12.683,-0.98039,0.0,-8.932,-5.7971,-1.9968,-2.9773,-0.98039,0.0,-6.9307,-9.4787,-12.504,-18.032,-21.256001,-20.191999,-7.7831,-16.051001,-11.707,-13.59
-14.281,-14.222,-17.561001,-6.8627,-5.8252,-13.786,-10.628,-6.8277,-4.9191,-6.8627,-5.8252,-15.842,-5.6872,-6.7624,-12.317,-16.424999,-13.462,-6.8262,-12.259,-8.7805,-9.7436
-15.229,-10.413,-16.584999,-10.784,-7.767,-15.728,-9.6618,-8.7601,-1.0356,-10.784,-7.767,-16.832001,-0.94787,-2.9346,-7.5556,-10.628,-6.7308,-5.8692,-3.7283,-3.9024,-4.9359
-14.281,-6.6032,-15.61,-10.784,-2.9126,-13.786,-6.7633,-11.659,5.7605,-10.784,-2.9126,-13.861,0.94787,-0.0638,-6.6032,-5.7971,-3.8462,-3.9553,2.9068,-1.9512,-1.0897
-10.49,-6.6032,-11.707,-8.8235,-1.9417,-12.816,-5.7971,-12.625,7.7023,-8.8235,-1.9417,-11.881,2.8436,0.89314,-3.746,-3.8647,-1.9231,0.82935,5.7504,2.9268,-0.12821
-6.6983,-4.6984,-8.7805,-11.765,-4.8544,-12.816,-9.6618,-11.659,2.8479,-11.765,-4.8544,-11.881,6.6351,2.807,-1.8413,0.0,0.96154,6.571,6.6983,7.8049,2.7564
-4.8025,-2.7937,-11.707,-14.706,-13.592,-7.9612,-11.594,-8.7601,-2.9773,-14.706,-13.592,-10.891,6.6351,5.6778,-4.6984,0.96618,-1.9231,11.356,5.7504,7.8049,6.6026
-4.8025,-6.6032,-18.537001,-11.765,-18.447001,-4.0777,-14.493,-3.9291,-6.8608,-11.765,-18.447001,-10.891,-0.94787,1.8501,-8.5079,-5.7971,-8.6538,14.226,1.9589,4.878,5.641
-2.9068,-8.5079,-18.537001,-12.745,-15.534,-0.19417,-13.527,2.8341,-5.89,-12.745,-15.534,-9.901,-4.7393,-2.9346,-7.5556,-11.594,-11.538,18.054001,-1.8325,4.878,-1.0897
2.7804,-8.5079,-10.732,-8.8235,-12.621,2.7184,-8.6957,5.7327,-4.9191,-8.8235,-12.621,-5.9406,-4.7393,-5.8054,-2.7937,-11.594,-9.6154,20.924999,-4.6761,9.7561,-6.859
11.311,-3.746,-0.97561,-1.9608,-6.7961,9.5146,-1.9324,9.5974,-3.9482,-1.9608,-6.7961,1.9802,0.94787,-2.9346,3.873,-6.7633,-3.8462,22.839001,-3.7283,11.707,-4.9359
15.103,1.9683,4.878,1.9608,-1.9417,12.427,2.8986,9.5974,-2.0065,1.9608,-1.9417,9.901,8.5308,0.89314,9.5873,-1.9324,-0.96154,21.882,-2.7804,15.61,-2.0513
15.103,4.8254,9.7561,1.9608,-0.97087,12.427,2.8986,8.6312,-3.9482,1.9608,-0.97087,11.881,1.8957,-0.0638,10.54,0.96618,0.96154,19.968,-8.4676,10.732,-1.0897
10.363,0.06349,9.7561,-0.98039,-10.68,7.5728,-2.8986,4.7665,-12.686,-0.98039,-10.68,5.9406,-1.8957,0.89314,10.54,2.8986,3.8462,18.054001,-18.893999,6.8293,-3.9744
8.4676,-6.6032,4.878,-3.9216,-17.476,5.6311,-8.6957,3.8003,-18.511,-3.9216,-17.476,0.0,3.7915,0.89314,12.444,2.8986,10.577,18.054001,-29.320999,11.707,-5.8974
6.5719,-10.413,-2.9268,-7.8431,-15.534,1.7476,-15.459,2.8341,-21.424,-7.8431,-15.534,-4.9505,11.374,0.89314,13.397,1.9324,14.423,18.054001,-28.372999,14.634,-5.8974
5.624,-9.4603,-5.8537,-7.8431,-12.621,-1.165,-16.424999,2.8341,-22.395,-7.8431,-12.621,-5.9406,4.7393,1.8501,8.6349,0.0,9.6154,13.27,-21.738001,6.8293,-3.9744
2.7804,-3.746,-0.97561,0.0,-8.7379,1.7476,-7.7295,1.868,-14.628,0.0,-8.7379,0.0,-2.8436,0.89314,4.8254,2.8986,8.6538,6.571,-11.311,0.0,-0.12821
4.6761,1.9683,5.8537,-1.9608,-2.9126,3.6893,1.9324,-1.9968,-5.89,-1.9608,-2.9126,4.9505,2.8436,5.6778,10.54,9.6618,14.423,1.7863,-1.8325,1.9512,5.641
5.624,1.9683,8.7805,-3.9216,-3.8835,2.7184,1.9324,-6.8277,-2.9773,-3.9216,-3.8835,5.9406,9.4787,9.5056,14.349,10.628,19.231001,-2.0415,0.06319,4.878,6.6026
7.5197,4.8254,11.707,0.0,5.8252,1.7476,3.8647,-7.7939,2.8479,0.0,5.8252,7.9208,12.322,13.333,17.205999,11.594,18.268999,-3.9553,5.7504,6.8293,8.5256
8.4676,8.6349,13.659,0.98039,7.767,0.7767,6.7633,-10.692,6.7314,0.98039,7.767,7.9208,16.114,11.419,17.205999,8.6957,15.385,-3.9553,7.6461,8.7805,7.5641
4.6761,6.7302,10.732,-0.98039,0.0,-4.0777,5.7971,-11.659,6.7314,-0.98039,0.0,4.9505,14.218,10.463,13.397,3.8647,10.577,-4.9123,8.594,5.8537,6.6026
2.7804,3.873,5.8537,-1.9608,0.97087,-3.1068,5.7971,-7.7939,7.7023,-1.9608,0.97087,2.9703,5.6872,6.6348,7.6825,0.0,5.7692,-4.9123,8.594,1.9512,4.6795
5.624,4.8254,7.8049,-2.9412,5.8252,1.7476,9.6618,-4.8953,10.615,-2.9412,5.8252,4.9505,1.8957,5.6778,6.7302,0.96618,4.8077,-4.9123,8.594,0.0,6.6026
11.311,8.6349,10.732,-1.9608,11.65,4.6602,9.6618,-1.0306,12.557,-1.9608,11.65,7.9208,5.6872,8.5486,9.5873,4.8309,6.7308,-0.12759,7.6461,3.9024,7.5641
12.259,7.6825,8.7805,1.9608,7.767,6.6019,7.7295,0.90177,8.6731,1.9608,7.767,8.9109,3.7915,1.8501,10.54,1.9324,2.8846,5.614,0.06319,7.8049,-0.12821
12.259,5.7778,7.8049,8.8235,5.8252,9.5146,7.7295,5.7327,1.877,8.8235,5.8252,11.881,3.7915,-2.9346,4.8254,0.0,-1.9231,9.4418,-8.4676,8.7805,-5.8974
10.363,1.9683,8.7805,14.706,6.7961,13.398,7.7295,12.496,-2.9773,14.706,6.7961,13.861,-2.8436,-4.8485,-1.8413,0.0,-3.8462,8.4848,-15.103,0.97561,-8.7821
12.259,0.06349,10.732,14.706,6.7961,15.34,6.7633,15.395,-5.89,14.706,6.7961,13.861,-1.8957,-1.9777,1.9683,0.96618,-0.96154,9.4418,-16.051001,1.9512,-6.859
12.259,1.9683,8.7805,9.8039,1.9417,13.398,4.8309,13.462,-6.8608,9.8039,1.9417,9.901,-0.94787,1.8501,4.8254,2.8986,0.96154,7.5279,-10.363,3.9024,-1.0897
8.4676,6.7302,6.8293,3.9216,0.97087,8.5437,4.8309,8.6312,-4.9191,3.9216,0.97087,6.9307,-2.8436,1.8501,1.9683,4.8309,0.96154,5.614,-1.8325,1.9512,3.7179
1.8325,2.9206,0.97561,0.98039,2.9126,1.7476,0.96618,2.8341,-2.9773,0.98039,2.9126,0.9901,-0.94787,-1.0207,0.06349,0.0,-1.9231,5.614,-1.8325,2.9268,0.83333
0.88468,-3.746,-1.9512,2.9412,1.9417,-0.19417,-1.9324,1.868,0.90615,2.9412,1.9417,-1.9802,0.94787,-1.0207,1.0159,-2.8986,-0.96154,8.4848,1.0111,3.9024,-2.0513
0.88468,-6.6032,-2.9268,5.8824,2.9126,1.7476,0.96618,3.8003,2.8479,5.8824,2.9126,0.9901,-4.7393,-1.0207,-1.8413,0.0,-0.96154,8.4848,3.8547,-0.97561,2.7564
-3.8547,-7.5556,-10.732,5.8824,4.8544,-2.1359,0.96618,2.8341,3.8188,5.8824,4.8544,-0.9901,-9.4787,-3.8915,-11.365,-2.8986,-7.6923,5.614,-1.8325,-7.8049,2.7564
-7.6461,-8.5079,-15.61,5.8824,2.9126,-1.165,0.0,4.7665,1.877,5.8824,2.9126,-1.9802,-8.5308,-5.8054,-16.127001,-8.6957,-14.423,3.7002,-2.7804,-9.7561,-1.0897
-9.5419,-8.5079,-14.634,-0.98039,1.9417,-3.1068,-3.8647,4.7665,-1.0356,-0.98039,1.9417,-3.9604,-0.94787,-5.8054,-13.27,-9.6618,-13.462,4.6571,-1.8325,-2.9268,-4.9359
-10.49,-7.5556,-10.732,-1.9608,3.8835,-3.1068,0.0,3.8003,0.90615,-1.9608,3.8835,-2.9703,-3.7915,-6.7624,-11.365,-7.7295,-9.6154,3.7002,0.06319,-2.9268,-6.859
-7.6461,-3.746,-6.8293,2.9412,0.97087,-0.19417,1.9324,4.7665,0.90615,2.9412,0.97087,0.0,-6.6351,-6.7624,-10.413,-4.8309,-6.7308,1.7863,1.0111,-4.878,-5.8974
-1.9589,2.9206,-1.9512,4.902,1.9417,3.6893,4.8309,4.7665,2.8479,4.902,1.9417,3.9604,-1.8957,-3.8915,-5.6508,-0.96618,-1.9231,-0.12759,2.9068,-4.878,-3.0128
-2.9068,0.06349,-7.8049,8.8235,5.8252,4.6602,1.9324,9.5974,3.8188,8.8235,5.8252,1.9802,-3.7915,-6.7624,-8.5079,-6.7633,-5.7692,-0.12759,-1.8325,-8.7805,-8.7821
-5.7504,-4.6984,-11.707,6.8627,0.97087,2.7184,-1.9324,11.53,-1.0356,6.8627,0.97087,-1.9802,-7.5829,-7.7193,-10.413,-8.6957,-8.6538,0.82935,-7.5197,-8.7805,-9.7436
-6.6983,-5.6508,-10.732,2.9412,-3.8835,2.7184,-2.8986,10.564,-3.9482,2.9412,-3.8835,-1.9802,-12.322,-4.8485,-12.317,-6.7633,-7.6923,-1.0845,-7.5197,-12.683,-6.859
-9.5419,-10.413,-12.683,0.0,-7.767,-0.19417,-4.8309,8.6312,-4.9191,0.0,-7.767,-4.9505,-8.5308,-5.8054,-14.222,-9.6618,-9.6154,-2.0415,-4.6761,-10.732,-6.859
-11.438,-17.079,-17.561001,-5.8824,-13.592,-5.0485,-9.6618,4.7665,-6.8608,-5.8824,-13.592,-9.901,-11.374,-13.461,-15.175,-16.424999,-16.346001,-1.0845,-1.8325,-10.732,-10.705
-7.6461,-17.079,-15.61,-2.9412,-7.767,-2.1359,-6.7633,6.6989,-4.9191,-2.9412,-7.767,-5.9406,-11.374,-12.504,-15.175,-21.256001,-20.191999,2.7432,1.0111,-11.707,-10.705
-4.8025,-11.365,-9.7561,-3.9216,-6.7961,-0.19417,-2.8986,7.6651,-4.9191,-3.9216,-6.7961,-3.9604,-13.27,-13.461,-12.317,-20.290001,-19.231001,4.6571,1.0111,-10.732,-10.705
-2.9068,-2.7937,-2.9268,-2.9412,-6.7961,-1.165,-2.8986,9.5974,-3.9482,-2.9412,-6.7961,-3.9604,-12.322,-13.461,-8.5079,-10.628,-14.423,6.571,2.9068,-6.8293,-7.8205
-0.06319,1.9683,2.9268,0.98039,-8.7379,-0.19417,-4.8309,8.6312,-3.9482,0.98039,-8.7379,-4.9505,-6.6351,-8.6762,-2.7937,-1.9324,-9.6154,9.4418,3.8547,0.97561,-3.0128
1.8325,1.0159,1.9512,-5.8824,-10.68,-2.1359,-9.6618,7.6651,-6.8608,-5.8824,-10.68,-9.901,-2.8436,-4.8485,-0.88889,2.8986,-4.8077,11.356,2.9068,3.9024,-1.0897
2.7804,-3.746,-1.9512,-5.8824,-11.65,-3.1068,-12.56,5.7327,-7.8317,-5.8824,-11.65,-10.891,-0.94787,-4.8485,1.0159,0.96618,-1.9231,10.399,0.06319,4.878,-2.0513
3.7283,-6.6032,-1.9512,-1.9608,-10.68,-3.1068,-10.628,4.7665,-8.8026,-1.9608,-10.68,-8.9109,-3.7915,-6.7624,1.9683,-4.8309,-2.8846,9.4418,-3.7283,4.878,-5.8974
0.88468,-9.4603,-1.9512,-10.784,-13.592,-6.9903,-12.56,1.868,-10.744,-10.784,-13.592,-10.891,-4.7393,-4.8485,1.9683,-9.6618,-3.8462,9.4418,-8.4676,5.8537,-9.7436
-1.0111,-12.317,-4.878,-11.765,-13.592,-6.0194,-13.527,2.8341,-11.715,-11.765,-13.592,-11.881,-0.94787,-1.9777,1.9683,-11.594,-2.8846,10.399,-11.311,8.7805,-9.7436
-1.0111,-13.27,-6.8293,-9.8039,-7.767,-4.0777,-11.594,3.8003,-10.744,-9.8039,-7.767,-10.891,3.7915,0.89314,1.9683,-10.628,0.0,10.399,-12.259,7.8049,-5.8974
-2.9068,-13.27,-6.8293,-6.8627,-10.68,-4.0777,-11.594,2.8341,-11.715,-6.8627,-10.68,-10.891,0.0,1.8501,1.0159,-6.7633,1.9231,5.614,-11.311,0.97561,-3.9744
-4.8025,-8.5079,-7.8049,-8.8235,-15.534,-6.0194,-8.6957,-0.06441,-10.744,-8.8235,-15.534,-9.901,-0.94787,0.89314,-0.88889,-2.8986,0.96154,0.82935,-4.6761,-0.97561,0.83333
-4.8025,-4.6984,-7.8049,-3.9216,-9.7087,-7.9612,-7.7295,-1.0306,-6.8608,-3.9216,-9.7087,-8.9109,1.8957,2.807,-2.7937,-1.9324,-0.96154,-2.0415,0.06319,-2.9268,1.7949
-4.8025,-5.6508,-5.8537,-5.8824,-5.8252,-7.9612,-9.6618,-2.963,-5.89,-5.8824,-5.8252,-9.901,-0.94787,-1.0207,-1.8413,-3.8647,-0.96154,-3.9553,-8.4676,-4.878,-3.0128
-3.8547,-5.6508,-2.9268,-8.8235,-3.8835,-8.932,-8.6957,-4.8953,-3.9482,-8.8235,-3.8835,-8.9109,4.7393,1.8501,0.06349,-2.8986,0.0,-4.9123,-7.5197,-0.97561,-3.9744
-6.6983,-3.746,-1.9512,-4.902,0.0,-7.9612,-2.8986,-4.8953,-1.0356,-4.902,0.0,-6.9307,4.7393,3.764,-6.6032,-1.9324,-2.8846,-6.8262,-0.88468,-5.8537,-2.0513
-7.6461,2.9206,-0.97561,2.9412,3.8835,-4.0777,3.8647,-4.8953,5.7605,2.9412,3.8835,-0.9901,0.0,4.7209,-8.5079,2.8986,-2.8846,-10.654,3.8547,-12.683,1.7949
-5.7504,4.8254,0.97561,1.9608,1.9417,-3.1068,4.8309,-5.8615,5.7605,1.9608,1.9417,1.9802,-0.94787,3.764,-3.746,5.7971,0.96154,-11.611,1.9589,-10.732,4.6795
-2.9068,0.06349,1.9512,-4.902,-5.8252,-4.0777,-0.96618,-7.7939,-2.0065,-4.902,-5.8252,-1.9802,4.7393,3.764,3.873,3.8647,5.7692,-8.74,-4.6761,-3.9024,1.7949
4.6761,2.9206,8.7805,-1.9608,0.97087,-2.1359,1.9324,-7.7939,-1.0356,-1.9608,0.97087,0.9901,11.374,11.419,13.397,8.6957,16.346001,-5.8692,-2.7804,2.9268,4.6795
6.5719,8.6349,13.659,1.9608,4.8544,-0.19417,5.7971,-7.7939,2.8479,1.9608,4.8544,4.9505,10.427,11.419,14.349,11.594,17.308001,-5.8692,2.9068,4.878,6.6026
5.624,14.349,17.561001,0.98039,1.9417,1.7476,8.6957,-7.7939,3.8188,0.98039,1.9417,9.901,7.5829,9.5056,12.444,14.493,14.423,-7.7831,7.6461,3.9024,9.4872
6.5719,17.205999,21.462999,1.9608,1.9417,1.7476,10.628,-6.8277,3.8188,1.9608,1.9417,12.871,13.27,12.376,12.444,19.323999,16.346001,-8.74,11.438,6.8293,14.295
8.4676,15.302,18.537001,0.98039,-0.97087,1.7476,10.628,-6.8277,-0.06472,0.98039,-0.97087,10.891,9.4787,9.5056,12.444,18.357,14.423,-7.7831,10.49,5.8537,14.295
7.5197,15.302,14.634,-2.9412,0.0,2.7184,7.7295,-7.7939,0.90615,-2.9412,0.0,8.9109,4.7393,7.5917,11.492,19.323999,14.423,-6.8262,12.385,2.9268,14.295
3.7283,17.205999,11.707,-3.9216,1.9417,-0.19417,6.7633,-8.7601,4.7896,-3.9216,1.9417,6.9307,10.427,12.376,10.54,25.121,17.308001,-8.74,17.125,3.9024,20.063999
-1.9589,15.302,8.7805,-4.902,2.9126,-5.0485,5.7971,-11.659,5.7605,-4.902,2.9126,0.9901,12.322,17.160999,6.7302,28.018999,17.308001,-11.611,20.916,1.9512,24.872
-4.8025,9.5873,4.878,-3.9216,-1.9417,-6.9903,1.9324,-11.659,2.8479,-3.9216,-1.9417,-2.9703,5.6872,14.29,1.9683,22.222,11.538,-13.525,15.229,-2.9268,21.987
-1.0111,5.7778,2.9268,0.0,-2.9126,-4.0777,2.8986,-5.8615,2.8479,0.0,-2.9126,-1.9802,0.94787,6.6348,1.9683,11.594,5.7692,-8.74,14.281,-3.9024,14.295
0.88468,7.6825,2.9268,-1.9608,2.9126,-1.165,6.7633,-1.9968,5.7605,-1.9608,2.9126,0.9901,0.0,1.8501,1.9683,6.7633,0.96154,-3.9553,13.333,-1.9512,7.5641
-1.9589,6.7302,0.97561,-7.8431,4.8544,-2.1359,6.7633,-1.9968,5.7605,-7.8431,4.8544,-0.9901,0.94787,1.8501,1.0159,4.8309,0.96154,-2.9984,9.5419,-0.97561,6.6026
-1.9589,1.0159,0.97561,-5.8824,-0.97087,-2.1359,0.96618,-1.9968,3.8188,-5.8824,-0.97087,-4.9505,5.6872,6.6348,4.8254,5.7971,5.7692,-1.0845,6.6983,1.9512,6.6026
1.8325,-6.6032,1.9512,1.9608,0.0,-1.165,-4.8309,1.868,-1.0356,1.9608,0.0,-5.9406,5.6872,6.6348,9.5873,0.96618,9.6154,3.7002,-2.7804,3.9024,1.7949
-0.06319,-14.222,-2.9268,3.9216,-0.97087,-4.0777,-8.6957,1.868,-3.9482,3.9216,-0.97087,-9.901,5.6872,1.8501,6.7302,-7.7295,4.8077,5.614,-11.311,5.8537,-7.8205
-5.7504,-16.127001,-12.683,-1.9608,-0.97087,-6.9903,-10.628,1.868,-6.8608,-1.9608,-0.97087,-13.861,3.7915,0.89314,-0.88889,-15.459,-2.8846,4.6571,-16.051001,4.878,-13.59
-9.5419,-15.175,-19.511999,-2.9412,-1.9417,-7.9612,-11.594,0.90177,-7.8317,-2.9412,-1.9417,-15.842,-0.94787,-3.8915,-5.6508,-19.323999,-8.6538,3.7002,-20.790001,2.9268,-17.436001
-6.6983,-11.365,-15.61,-0.98039,-1.9417,-4.0777,-9.6618,1.868,-4.9191,-0.98039,-1.9417,-11.881,5.6872,-0.0638,-1.8413,-13.527,-4.8077,5.614,-18.893999,8.7805,-13.59
-1.9589,-12.317,-7.8049,-0.98039,-3.8835,-2.1359,-9.6618,1.868,-4.9191,-0.98039,-3.8835,-9.901,10.427,4.7209,2.9206,-10.628,-0.96154,2.7432,-14.155,9.7561,-7.8205
3.7283,-10.413,1.9512,-0.98039,-3.8835,-0.19417,-8.6957,0.90177,-4.9191,-0.98039,-3.8835,-6.9307,7.5829,6.6348,7.6825,-6.7633,2.8846,1.7863,-10.363,7.8049,-3.9744
3.7283,-5.6508,3.9024,1.9608,-6.7961,2.7184,-7.7295,-0.06441,-3.9482,1.9608,-6.7961,-3.9604,1.8957,1.8501,8.6349,-3.8647,3.8462,1.7863,-8.4676,5.8537,-4.9359
0.88468,-5.6508,-1.9512,1.9608,0.0,0.7767,-6.7633,-1.0306,-2.0065,1.9608,0.0,-3.9604,2.8436,0.89314,6.7302,-1.9324,2.8846,0.82935,-6.5719,6.8293,-3.9744
-1.0111,-5.6508,-3.9024,-1.9608,2.9126,-3.1068,-7.7295,-2.963,-2.0065,-1.9608,2.9126,-5.9406,6.6351,3.764,5.7778,1.9324,4.8077,-1.0845,-2.7804,6.8293,0.83333
-0.06319,-0.88889,3.9024,-0.98039,-1.9417,-3.1068,-3.8647,-3.9291,-1.0356,-0.98039,-1.9417,-3.9604,5.6872,4.7209,5.7778,6.7633,7.6923,-2.9984,2.9068,4.878,4.6795
-1.9589,2.9206,5.8537,0.0,-1.9417,-3.1068,-1.9324,-4.8953,0.90615,0.0,-1.9417,-2.9703,2.8436,4.7209,2.9206,7.7295,4.8077,-4.9123,1.0111,0.97561,7.5641
-1.0111,2.9206,3.9024,0.0,0.0,-2.1359,-3.8647,-4.8953,1.877,0.0,0.0,-3.9604,4.7393,3.764,4.8254,6.7633,3.8462,-4.9123,5.7504,3.9024,7.5641
0.88468,1.0159,1.9512,-3.9216,-3.8835,-1.165,-2.8986,-4.8953,-1.0356,-3.9216,-3.8835,-2.9703,5.6872,4.7209,6.7302,4.8309,6.7308,-3.9553,7.6461,6.8293,6.6026
2.7804,-2.7937,0.0,0.0,-1.9417,-2.1359,-1.9324,-3.9291,-1.0356,0.0,-1.9417,-1.9802,9.4787,7.5917,8.6349,0.96618,7.6923,-4.9123,2.9068,7.8049,4.6795
-1.0111,-4.6984,-1.9512,3.9216,0.97087,-3.1068,0.0,-2.963,-1.0356,3.9216,0.97087,-1.9802,5.6872,0.89314,4.8254,-4.8309,2.8846,-3.9553,0.06319,4.878,-1.0897
-2.9068,0.06349,1.9512,1.9608,0.0,-1.165,1.9324,-2.963,1.877,1.9608,0.0,-0.9901,-2.8436,-2.9346,1.9683,-1.9324,-0.96154,-4.9123,1.9589,0.0,-2.0513
-2.9068,3.873,3.9024,-1.9608,-1.9417,-4.0777,1.9324,-6.8277,1.877,-1.9608,-1.9417,-0.9901,-1.8957,4.7209,1.9683,4.8309,1.9231,-6.8262,4.8025,-0.97561,4.6795
-3.8547,1.0159,-1.9512,-7.8431,0.97087,-6.9903,-2.8986,-8.7601,0.90615,-7.8431,0.97087,-4.9505,6.6351,5.6778,2.9206,4.8309,1.9231,-7.7831,3.8547,2.9268,4.6795
-3.8547,-2.7937,-5.8537,-2.9412,-0.97087,-4.0777,-3.8647,-5.8615,-2.9773,-2.9412,-0.97087,-4.9505,1.8957,-1.9777,0.06349,1.9324,-0.96154,-5.8692,-1.8325,1.9512,-0.12821
-3.8547,-1.8413,-1.9512,-0.98039,-8.7379,-5.0485,-3.8647,-4.8953,-5.89,-0.98039,-8.7379,-3.9604,4.7393,-0.0638,-0.88889,1.9324,-1.9231,-5.8692,-5.624,2.9268,0.83333
-4.8025,-0.88889,3.9024,-5.8824,-3.8835,-7.9612,-4.8309,-7.7939,-3.9482,-5.8824,-3.8835,-3.9604,9.4787,4.7209,0.06349,3.8647,0.96154,-5.8692,-2.7804,3.9024,1.7949
-3.8547,-2.7937,3.9024,-7.8431,0.97087,-8.932,-4.8309,-8.7601,-2.9773,-7.8431,0.97087,-5.9406,5.6872,4.7209,1.0159,1.9324,0.96154,-6.8262,0.06319,3.9024,2.7564
-1.9589,0.06349,1.9512,-6.8627,4.8544,-3.1068,-1.9324,-4.8953,0.90615,-6.8627,4.8544,-1.9802,7.5829,8.5486,1.9683,1.9324,1.9231,-5.8692,2.9068,3.9024,5.641
-3.8547,-0.88889,-2.9268,2.9412,3.8835,-3.1068,-0.96618,-3.9291,2.8479,2.9412,3.8835,-0.9901,3.7915,6.6348,-2.7937,0.0,0.96154,-7.7831,3.8547,-2.9268,6.6026
-5.7504,-6.6032,-6.8293,3.9216,-1.9417,-4.0777,-4.8309,-3.9291,-1.0356,3.9216,-1.9417,-3.9604,5.6872,8.5486,-2.7937,-4.8309,0.0,-9.697,-0.88468,-4.878,4.6795
-2.9068,-9.4603,-5.8537,-2.9412,-3.8835,-3.1068,-3.8647,-5.8615,-2.0065,-2.9412,-3.8835,-4.9505,5.6872,6.6348,-0.88889,-4.8309,-0.96154,-7.7831,-6.5719,-1.9512,3.7179
-4.8025,-6.6032,-4.878,-8.8235,-0.97087,-3.1068,-3.8647,-6.8277,-1.0356,-8.8235,-0.97087,-4.9505,-0.94787,6.6348,-3.746,-3.8647,-1.9231,-7.7831,-4.6761,-3.9024,3.7179
-1.9589,2.9206,-2.9268,-5.8824,4.8544,2.7184,2.8986,-2.963,2.8479,-5.8824,4.8544,3.9604,-0.94787,4.7209,-2.7937,-0.96618,-0.96154,-5.8692,0.06319,-0.97561,3.7179
5.624,12.444,4.878,5.8824,12.621,10.485,13.527,1.868,8.6731,5.8824,12.621,13.861,0.94787,3.764,3.873,5.7971,2.8846,-2.0415,4.8025,2.9268,3.7179
15.103,18.159,15.61,13.725,17.476,15.34,20.290001,5.7327,12.557,13.725,17.476,20.792,0.0,0.89314,10.54,11.594,6.7308,1.7863,10.49,3.9024,4.6795
18.893999,18.159,19.511999,13.725,12.621,18.252001,20.290001,7.6651,11.586,13.725,12.621,21.782,1.8957,1.8501,13.397,15.459,10.577,4.6571,10.49,7.8049,5.641
16.997999,14.349,15.61,11.765,9.7087,18.252001,16.424999,9.5974,7.7023,11.765,9.7087,19.802,6.6351,4.7209,12.444,13.527,10.577,7.5279,6.6983,10.732,5.641
14.155,13.397,12.683,11.765,14.563,20.194,16.424999,10.564,7.7023,11.765,14.563,18.812,0.94787,2.807,10.54,11.594,9.6154,7.5279,3.8547,5.8537,3.7179
11.311,15.302,10.732,11.765,14.563,19.223,19.323999,8.6312,10.615,11.765,14.563,19.802,-5.6872,-2.9346,6.7302,7.7295,5.7692,4.6571,6.6983,0.97561,1.7949
9.4155,11.492,7.8049,9.8039,4.8544,13.398,16.424999,5.7327,8.6731,9.8039,4.8544,16.832001,-1.8957,-3.8915,4.8254,3.8647,1.9231,1.7863,6.6983,0.0,1.7949
5.624,1.9683,0.0,7.8431,11.65,7.5728,6.7633,2.8341,6.7314,7.8431,11.65,9.901,-9.4787,-4.8485,-0.88889,-0.96618,-3.8462,0.82935,4.8025,-4.878,0.83333
-0.06319,-5.6508,-3.9024,6.8627,9.7087,3.6893,0.96618,1.868,1.877,6.8627,9.7087,3.9604,-8.5308,-3.8915,-4.6984,-3.8647,-8.6538,1.7863,0.06319,-4.878,0.83333
0.88468,-1.8413,0.97561,4.902,2.9126,4.6602,0.96618,3.8003,-1.0356,4.902,2.9126,4.9505,-4.7393,-1.9777,-4.6984,-0.96618,-9.6154,3.7002,0.06319,-3.9024,-0.12821
0.88468,5.7778,5.8537,2.9412,1.9417,3.6893,1.9324,2.8341,-0.06472,2.9412,1.9417,4.9505,-7.5829,-4.8485,-5.6508,2.8986,-8.6538,3.7002,2.9068,-4.878,0.83333
0.88468,6.7302,6.8293,0.98039,0.97087,0.7767,1.9324,0.90177,1.877,0.98039,0.97087,2.9703,-3.7915,-2.9346,-5.6508,3.8647,-6.7308,0.82935,2.9068,-1.9512,1.7949
0.88468,1.9683,2.9268,-1.9608,3.8835,-1.165,0.0,-1.0306,2.8479,-1.9608,3.8835,0.0,2.8436,0.89314,-2.7937,3.8647,-3.8462,-0.12759,4.8025,0.0,1.7949
-1.9589,-0.88889,0.97561,0.98039,4.8544,-2.1359,0.96618,-0.06441,2.8479,0.98039,4.8544,0.0,-4.7393,-1.0207,-2.7937,1.9324,-3.8462,-2.0415,3.8547,-3.9024,-0.12821
-1.9589,1.0159,2.9268,0.98039,2.9126,-1.165,3.8647,-1.0306,2.8479,0.98039,2.9126,1.9802,-7.5829,-3.8915,-1.8413,0.96618,-2.8846,-2.0415,1.9589,-3.9024,-2.0513
0.88468,4.8254,6.8293,0.0,-0.97087,0.7767,4.8309,-1.9968,4.7896,0.0,-0.97087,4.9505,3.7915,-1.0207,1.9683,2.8986,0.96154,-2.0415,3.8547,-0.97561,-2.0513
-1.0111,1.9683,3.9024,-0.98039,1.9417,-3.1068,2.8986,-3.9291,1.877,-0.98039,1.9417,0.9901,-0.94787,-1.0207,-0.88889,0.0,-0.96154,-3.9553,0.06319,-4.878,-2.0513
-1.9589,-3.746,-1.9512,-2.9412,2.9126,-6.9903,0.0,-2.963,1.877,-2.9412,2.9126,-1.9802,-3.7915,-2.9346,-2.7937,-5.7971,-5.7692,-2.9984,-1.8325,-4.878,-3.0128
-1.9589,-5.6508,-1.9512,-0.98039,0.97087,-4.0777,-0.96618,-1.0306,0.90615,-0.98039,0.97087,-0.9901,0.94787,-1.9777,-1.8413,-7.7295,-5.7692,-1.0845,-0.88468,-0.97561,-3.0128
-1.9589,-2.7937,1.9512,3.9216,5.8252,-2.1359,0.0,-1.0306,1.877,3.9216,5.8252,0.9901,-0.94787,0.89314,-0.88889,-0.96618,0.0,-2.0415,1.9589,-1.9512,-0.12821
-1.9589,-0.88889,1.9512,1.9608,5.8252,1.7476,1.9324,0.90177,1.877,1.9608,5.8252,1.9802,0.94787,1.8501,-0.88889,2.8986,0.96154,-2.9984,-0.88468,-0.97561,1.7949
-1.0111,1.0159,0.97561,5.8824,8.7379,1.7476,2.8986,1.868,2.8479,5.8824,8.7379,1.9802,4.7393,5.6778,-0.88889,3.8647,1.9231,-2.0415,2.9068,0.97561,2.7564
0.88468,2.9206,1.9512,6.8627,8.7379,3.6893,4.8309,0.90177,4.7896,6.8627,8.7379,2.9703,2.8436,4.7209,0.06349,3.8647,2.8846,-2.0415,5.7504,0.97561,4.6795
-1.0111,1.9683,0.0,4.902,5.8252,0.7767,4.8309,-0.06441,4.7896,4.902,5.8252,0.9901,1.8957,1.8501,-1.8413,0.96618,0.96154,-2.0415,4.8025,0.97561,0.83333
-3.8547,1.9683,-3.9024,0.98039,3.8835,-3.1068,4.8309,-1.0306,5.7605,0.98039,3.8835,-1.9802,3.7915,-0.0638,-3.746,0.96618,-1.9231,-1.0845,3.8547,1.9512,-0.12821
-5.7504,0.06349,-6.8293,0.98039,1.9417,-3.1068,0.96618,-0.06441,2.8479,0.98039,1.9417,-2.9703,0.0,-0.0638,-8.5079,0.0,-4.8077,-2.9984,1.9589,-2.9268,0.83333
-3.8547,-4.6984,-6.8293,3.9216,-2.9126,-4.0777,-1.9324,-0.06441,-2.0065,3.9216,-2.9126,-4.9505,-5.6872,-0.0638,-8.5079,-2.8986,-6.7308,-2.0415,-0.88468,-5.8537,-1.0897
-3.8547,-5.6508,-4.878,-3.9216,-3.8835,-5.0485,-3.8647,-2.963,-2.9773,-3.9216,-3.8835,-6.9307,-2.8436,-0.0638,-5.6508,-2.8986,-4.8077,-1.0845,-1.8325,-2.9268,-2.0513
-3.8547,-3.746,-4.878,-2.9412,5.8252,-1.165,-2.8986,-1.0306,0.90615,-2.9412,5.8252,-4.9505,-5.6872,-2.9346,-5.6508,-4.8309,-4.8077,-1.0845,-1.8325,-4.878,-3.0128
-1.9589,-0.88889,-4.878,3.9216,8.7379,3.6893,0.96618,0.90177,2.8479,3.9216,8.7379,0.0,-5.6872,-2.9346,-5.6508,-4.8309,-5.7692,-0.12759,-0.88468,-5.8537,-2.0513
-0.06319,0.06349,-3.9024,9.8039,4.8544,0.7767,2.8986,2.8341,1.877,9.8039,4.8544,0.9901,-0.94787,-0.0638,-5.6508,-2.8986,-4.8077,-0.12759,-3.7283,-4.878,-1.0897
-2.9068,-3.746,-3.9024,-0.98039,-0.97087,-5.0485,-0.96618,-0.06441,-0.06472,-0.98039,-0.97087,-3.9604,-1.8957,2.807,-5.6508,-1.9324,-2.8846,-0.12759,-3.7283,-3.9024,1.7949
-2.9068,-3.746,-1.9512,-0.98039,-2.9126,-5.0485,0.96618,-1.0306,0.90615,-0.98039,-2.9126,-3.9604,-0.94787,3.764,-1.8413,0.96618,0.0,-1.0845,-0.88468,-0.97561,3.7179
-0.06319,-0.88889,0.97561,0.98039,4.8544,-1.165,1.9324,0.90177,-0.06472,0.98039,4.8544,0.0,-3.7915,-0.0638,0.06349,1.9324,1.9231,-0.12759,-0.88468,0.0,1.7949
1.8325,1.0159,2.9268,2.9412,0.97087,1.7476,0.0,1.868,-1.0356,2.9412,0.97087,0.9901,0.0,-1.9777,2.9206,2.8986,3.8462,-0.12759,-1.8325,1.9512,-1.0897
2.7804,1.0159,1.9512,-2.9412,-2.9126,0.7767,-3.8647,-0.06441,-2.9773,-2.9412,-2.9126,-1.9802,7.5829,4.7209,3.873,2.8986,4.8077,-1.0845,-0.88468,3.9024,0.83333
-0.06319,-4.6984,-4.878,-6.8627,-6.7961,-6.0194,-8.6957,-5.8615,-5.89,-6.8627,-6.7961,-8.9109,1.8957,3.764,-0.88889,-0.96618,-1.9231,-1.0845,0.06319,0.97561,2.7564
-7.6461,-10.413,-9.7561,-5.8824,-10.68,-12.816,-10.628,-8.7601,-7.8317,-5.8824,-10.68,-12.871,-3.7915,-1.0207,-5.6508,-5.7971,-6.7308,-4.9123,-5.624,-1.9512,1.7949
-7.6461,-7.5556,-4.878,-2.9412,-4.8544,-7.9612,-7.7295,-5.8615,-6.8608,-2.9412,-4.8544,-6.9307,0.0,0.89314,-4.6984,-4.8309,-3.8462,-5.8692,-1.8325,0.97561,3.7179
-1.9589,0.06349,2.9268,0.98039,1.9417,0.7767,-4.8309,-1.0306,-4.9191,0.98039,1.9417,0.9901,6.6351,6.6348,-1.8413,1.9324,1.9231,-1.0845,2.9068,3.9024,6.6026
2.7804,1.9683,6.8293,-0.98039,-3.8835,2.7184,-2.8986,0.90177,-4.9191,-0.98039,-3.8835,1.9802,2.8436,4.7209,1.0159,4.8309,5.7692,-0.12759,-2.7804,0.97561,6.6026
7.5197,1.0159,4.878,-3.9216,-1.9417,4.6602,-1.9324,-0.06441,-2.9773,-3.9216,-1.9417,0.0,0.94787,3.764,6.7302,5.7971,7.6923,1.7863,0.06319,3.9024,6.6026
3.7283,-3.746,-0.97561,-4.902,0.0,-1.165,-4.8309,-2.963,-2.9773,-4.902,0.0,-4.9505,9.4787,7.5917,10.54,2.8986,8.6538,3.7002,1.0111,10.732,5.641
-1.9589,-6.6032,-2.9268,-3.9216,-4.8544,-9.9029,-8.6957,-4.8953,-5.89,-3.9216,-4.8544,-9.901,9.4787,5.6778,7.6825,0.0,6.7308,1.7863,-2.7804,9.7561,1.7949
-3.8547,-1.8413,0.0,0.0,-4.8544,-7.9612,-2.8986,-2.963,-4.9191,0.0,-4.8544,-4.9505,0.0,-2.9346,0.06349,0.0,0.0,-2.0415,-2.7804,-0.97561,-2.0513
-1.9589,2.9206,1.9512,1.9608,-2.9126,-0.19417,3.8647,-0.06441,0.90615,1.9608,-2.9126,1.9802,-5.6872,-6.7624,-6.6032,-2.8986,-7.6923,-2.9984,1.9589,-5.8537,-3.9744
1.8325,2.9206,0.97561,0.98039,2.9126,2.7184,2.8986,-0.06441,3.8188,0.98039,2.9126,2.9703,-3.7915,-5.8054,-4.6984,-4.8309,-6.7308,-0.12759,1.0111,-1.9512,-5.8974
3.7283,1.9683,3.9024,3.9216,6.7961,1.7476,0.96618,0.90177,4.7896,3.9216,6.7961,1.9802,0.0,-1.9777,1.0159,0.0,0.0,1.7863,1.0111,0.0,-3.0128
0.88468,1.0159,3.9024,0.0,4.8544,0.7767,1.9324,-1.0306,1.877,0.0,4.8544,0.9901,-1.8957,-2.9346,1.0159,1.9324,2.8846,1.7863,1.9589,-0.97561,-1.0897
-0.06319,1.0159,1.9512,2.9412,0.97087,1.7476,1.9324,0.90177,-0.06472,2.9412,0.97087,0.0,-0.94787,-1.0207,1.9683,0.96618,4.8077,1.7863,2.9068,-0.97561,-1.0897
1.8325,3.873,4.878,5.8824,2.9126,2.7184,3.8647,1.868,-0.06472,5.8824,2.9126,2.9703,-0.94787,0.89314,1.9683,3.8647,6.7308,3.7002,1.0111,0.0,0.83333
6.5719,12.444,10.732,3.9216,4.8544,5.6311,10.628,-0.06441,3.8188,3.9216,4.8544,8.9109,3.7915,4.7209,5.7778,12.56,9.6154,2.7432,3.8547,2.9268,6.6026
9.4155,11.492,8.7805,6.8627,2.9126,8.5437,9.6618,3.8003,3.8188,6.8627,2.9126,10.891,10.427,8.5486,6.7302,10.628,4.8077,4.6571,4.8025,7.8049,8.5256
0.88468,-1.8413,0.0,4.902,-1.9417,3.6893,0.0,5.7327,-3.9482,4.902,-1.9417,1.9802,-2.8436,-1.9777,-1.8413,-2.8986,-4.8077,1.7863,1.0111,-0.97561,-0.12821
-4.8025,-8.5079,-4.878,1.9608,-8.7379,-2.1359,-7.7295,3.8003,-9.7735,1.9608,-8.7379,-4.9505,-13.27,-8.6762,-6.6032,-7.7295,-5.7692,-1.0845,-4.6761,-8.7805,-3.9744
-2.9068,-9.4603,-4.878,-0.98039,-14.563,-2.1359,-11.594,3.8003,-10.744,-0.98039,-14.563,-7.9208,-5.6872,-6.7624,-1.8413,-6.7633,-0.96154,-0.12759,-6.5719,-2.9268,-5.8974
2.7804,-6.6032,-4.878,-9.8039,-18.447001,-1.165,-14.493,0.90177,-12.686,-9.8039,-18.447001,-8.9109,4.7393,-1.0207,4.8254,-4.8309,3.8462,3.7002,-5.624,6.8293,-5.8974
3.7283,-5.6508,-3.9024,-11.765,-16.504999,-1.165,-13.527,0.90177,-12.686,-11.765,-16.504999,-7.9208,6.6351,-1.9777,3.873,-3.8647,2.8846,5.614,-2.7804,8.7805,-3.9744
-0.06319,-7.5556,-3.9024,-6.8627,-17.476,-4.0777,-12.56,0.90177,-14.628,-6.8627,-17.476,-8.9109,1.8957,0.89314,0.06349,-3.8647,0.96154,4.6571,-0.88468,4.878,1.7949
2.7804,-1.8413,2.9268,-6.8627,-19.417,-2.1359,-5.7971,1.868,-13.657,-6.8627,-19.417,-2.9703,3.7915,5.6778,4.8254,1.9324,4.8077,3.7002,-3.7283,5.8537,4.6795
2.7804,1.9683,6.8293,-0.98039,-13.592,0.7767,-0.96618,2.8341,-10.744,-0.98039,-13.592,0.0,0.94787,1.8501,5.7778,4.8309,4.8077,2.7432,-7.5197,3.9024,2.7564
0.88468,-0.88889,1.9512,-2.9412,-7.767,-3.1068,-6.7633,0.90177,-9.7735,-2.9412,-7.767,-5.9406,-1.8957,-1.9777,1.0159,3.8647,0.0,0.82935,-2.7804,0.97561,2.7564
0.88468,-2.7937,0.0,-5.8824,-10.68,-6.0194,-11.594,-1.9968,-6.8608,-5.8824,-10.68,-9.901,9.4787,3.764,4.8254,5.7971,4.8077,1.7863,4.8025,8.7805,5.641
1.8325,-1.8413,0.0,-7.8431,-7.767,-6.0194,-8.6957,-2.963,-4.9191,-7.8431,-7.767,-8.9109,8.5308,2.807,6.7302,4.8309,7.6923,-0.12759,3.8547,4.878,3.7179
1.8325,1.0159,0.97561,0.98039,-1.9417,-2.1359,-1.9324,1.868,-1.0356,0.98039,-1.9417,-1.9802,-4.7393,-1.9777,4.8254,1.9324,6.7308,-0.12759,0.06319,-3.9024,-2.0513
-0.06319,1.0159,1.9512,7.8431,2.9126,3.6893,3.8647,5.7327,-0.06472,7.8431,2.9126,4.9505,-0.94787,-2.9346,1.9683,-2.8986,4.8077,2.7432,-3.7283,-2.9268,-6.859
-1.9589,2.9206,1.9512,6.8627,-4.8544,4.6602,2.8986,6.6989,-0.06472,6.8627,-4.8544,6.9307,0.94787,-1.9777,-3.746,-2.8986,0.96154,1.7863,-3.7283,-5.8537,-5.8974
-1.9589,1.0159,0.97561,0.98039,-9.7087,-0.19417,0.0,2.8341,-4.9191,0.98039,-9.7087,1.9802,-2.8436,-1.9777,-7.5556,-4.8309,-4.8077,-1.0845,-1.8325,-5.8537,-5.8974
-4.8025,-5.6508,-8.7805,-5.8824,-9.7087,-6.0194,-5.7971,-1.9968,-9.7735,-5.8824,-9.7087,-7.9208,-7.5829,-5.8054,-11.365,-12.56,-13.462,-0.12759,-10.363,-5.8537,-10.705
-3.8547,-8.5079,-12.683,-5.8824,-3.8835,-3.1068,-7.7295,0.90177,-7.8317,-5.8824,-3.8835,-7.9208,-2.8436,-3.8915,-8.5079,-9.6618,-10.577,3.7002,-8.4676,0.0,-7.8205
-3.8547,-6.6032,-7.8049,-0.98039,-1.9417,-0.19417,-7.7295,2.8341,-5.89,-0.98039,-1.9417,-4.9505,3.7915,2.807,-0.88889,-2.8986,0.0,5.614,-2.7804,4.878,-0.12821
0.88468,1.0159,1.9512,-0.98039,-1.9417,0.7767,-1.9324,3.8003,-2.9773,-0.98039,-1.9417,1.9802,8.5308,13.333,7.6825,7.7295,12.5,4.6571,1.0111,6.8293,9.4872
3.7283,4.8254,5.8537,-0.98039,-3.8835,1.7476,0.0,4.7665,-1.0356,-0.98039,-3.8835,3.9604,16.114,14.29,12.444,10.628,17.308001,1.7863,4.8025,10.732,10.449
4.6761,3.873,4.878,-1.9608,-1.9417,0.7767,0.96618,2.8341,1.877,-1.9608,-1.9417,0.9901,6.6351,4.7209,8.6349,8.6957,10.577,2.7432,4.8025,7.8049,5.641
2.7804,1.9683,1.9512,-0.98039,0.97087,-0.19417,1.9324,0.90177,3.8188,-0.98039,0.97087,-0.9901,-3.7915,-5.8054,2.9206,0.96618,-0.96154,5.614,2.9068,3.9024,-2.0513
-0.06319,-2.7937,-1.9512,0.98039,0.0,-1.165,-0.96618,1.868,1.877,0.98039,0.0,-1.9802,-12.322,-13.461,-5.6508,-9.6618,-12.5,6.571,-0.88468,-0.97561,-12.628
-2.9068,-6.6032,-4.878,0.0,-0.97087,-1.165,-2.8986,3.8003,-1.0356,0.0,-0.97087,-1.9802,-10.427,-14.418,-9.4603,-15.459,-16.346001,5.614,-4.6761,-1.9512,-17.436001
-1.0111,-4.6984,-2.9268,5.8824,3.8835,3.6893,0.96618,5.7327,-1.0356,5.8824,3.8835,2.9703,-7.5829,-12.504,-8.5079,-13.527,-15.385,0.82935,-5.624,-2.9268,-15.513
2.7804,-0.88889,-0.97561,4.902,4.8544,7.5728,2.8986,5.7327,0.90615,4.902,4.8544,7.9208,-4.7393,-9.6332,-3.746,-8.6957,-9.6154,-2.0415,-3.7283,0.97561,-9.7436
3.7283,1.9683,0.0,4.902,1.9417,6.6019,3.8647,1.868,4.7896,4.902,1.9417,6.9307,0.94787,-3.8915,2.9206,-0.96618,0.0,-2.0415,2.9068,4.878,-4.9359
5.624,4.8254,3.9024,8.8235,6.7961,5.6311,4.8309,1.868,6.7314,8.8235,6.7961,6.9307,3.7915,-1.0207,5.7778,2.8986,2.8846,1.7863,6.6983,1.9512,-1.0897
7.5197,4.8254,5.8537,6.8627,7.767,6.6019,2.8986,4.7665,4.7896,6.8627,7.767,5.9406,2.8436,-0.0638,3.873,0.96618,0.96154,4.6571,4.8025,-1.9512,-0.12821
8.4676,3.873,6.8293,2.9412,2.9126,7.5728,2.8986,6.6989,0.90615,2.9412,2.9126,6.9307,-3.7915,-1.0207,1.0159,-0.96618,-1.9231,5.614,2.9068,-5.8537,-0.12821
9.4155,8.6349,10.732,5.8824,4.8544,9.5146,7.7295,8.6312,1.877,5.8824,4.8544,10.891,-7.5829,-5.8054,0.06349,1.9324,-1.9231,4.6571,1.9589,-5.8537,-2.0513
7.5197,8.6349,8.7805,8.8235,5.8252,10.485,10.628,7.6651,5.7605,8.8235,5.8252,11.881,-1.8957,-3.8915,1.0159,3.8647,-0.96154,4.6571,5.7504,-2.9268,0.83333
-0.06319,2.9206,-0.97561,4.902,0.97087,3.6893,5.7971,2.8341,7.7023,4.902,0.97087,4.9505,-0.94787,-1.9777,-2.7937,-1.9324,-3.8462,4.6571,4.8025,-0.97561,0.83333
-5.7504,-2.7937,-4.878,-9.8039,-0.97087,-5.0485,-2.8986,-5.8615,4.7896,-9.8039,-0.97087,-2.9703,-2.8436,-3.8915,-5.6508,-5.7971,-6.7308,3.7002,1.0111,0.97561,-1.0897
-6.6983,-2.7937,-2.9268,-14.706,-3.8835,-7.9612,-5.7971,-7.7939,2.8479,-14.706,-3.8835,-5.9406,-8.5308,-3.8915,-7.5556,-4.8309,-7.6923,1.7863,-2.7804,-1.9512,-3.0128
-3.8547,-1.8413,-3.9024,-3.9216,-2.9126,-3.1068,-0.96618,-2.963,6.7314,-3.9216,-2.9126,-2.9703,-6.6351,-5.8054,-7.5556,-4.8309,-8.6538,1.7863,1.9589,-1.9512,-3.9744
-5.7504,-4.6984,-9.7561,3.9216,1.9417,-0.19417,1.9324,0.90177,7.7023,3.9216,1.9417,-0.9901,-7.5829,-9.6332,-9.4603,-7.7295,-9.6154,-1.0845,3.8547,-1.9512,-3.9744
-10.49,-8.5079,-14.634,-3.9216,-1.9417,-3.1068,-0.96618,-1.9968,5.7605,-3.9216,-1.9417,-4.9505,-10.427,-10.59,-12.317,-7.7295,-10.577,-2.9984,1.0111,-6.8293,-3.9744
-8.594,-7.5556,-10.732,-8.8235,-4.8544,-4.0777,-1.9324,-4.8953,3.8188,-8.8235,-4.8544,-4.9505,-8.5308,-8.6762,-12.317,-7.7295,-10.577,-2.0415,-2.7804,-8.7805,-4.9359
-4.8025,-5.6508,-5.8537,-5.8824,-1.9417,-5.0485,-3.8647,-3.9291,1.877,-5.8824,-1.9417,-4.9505,-3.7915,-5.8054,-8.5079,-8.6957,-9.6154,-0.12759,-3.7283,-3.9024,-6.859
-1.9589,-3.746,-2.9268,-5.8824,-5.8252,-4.0777,-3.8647,-1.0306,0.90615,-5.8824,-5.8252,-3.9604,-2.8436,-3.8915,-2.7937,-5.7971,-6.7308,2.7432,-1.8325,-0.97561,-5.8974
-3.8547,-7.5556,-5.8537,-5.8824,-11.65,-5.0485,-4.8309,-1.9968,-1.0356,-5.8824,-11.65,-5.9406,1.8957,-2.9346,-0.88889,-5.7971,-0.96154,1.7863,-4.6761,0.97561,-5.8974
-2.9068,-12.317,-5.8537,-4.902,-4.8544,-2.1359,-7.7295,0.90177,-2.9773,-4.902,-4.8544,-5.9406,0.94787,-1.9777,0.06349,-6.7633,3.8462,0.82935,-8.4676,-0.97561,-6.859
-1.0111,-6.6032,1.9512,-1.9608,0.0,-0.19417,-3.8647,0.90177,-0.06472,-1.9608,0.0,-1.9802,3.7915,0.89314,1.0159,-0.96618,6.7308,1.7863,-7.5197,0.97561,-3.9744
-1.0111,-1.8413,3.9024,-2.9412,0.0,-1.165,-1.9324,-1.0306,2.8479,-2.9412,0.0,0.0,0.0,-1.0207,0.06349,0.0,1.9231,3.7002,-0.88468,0.97561,-1.0897
-0.06319,1.0159,0.0,-0.98039,-3.8835,-3.1068,-2.8986,-1.9968,2.8479,-0.98039,-3.8835,-1.9802,-1.8957,-1.0207,1.0159,-1.9324,-1.9231,5.614,2.9068,4.878,-0.12821
1.8325,3.873,0.0,-2.9412,-7.767,-2.1359,2.8986,-2.963,2.8479,-2.9412,-7.767,0.0,0.94787,0.89314,3.873,0.0,0.96154,2.7432,1.0111,3.9024,0.83333
5.624,6.7302,4.878,0.0,-0.97087,4.6602,6.7633,0.90177,5.7605,0.0,-0.97087,4.9505,0.0,0.89314,6.7302,5.7971,3.8462,-1.0845,5.7504,0.0,4.6795
3.7283,5.7778,4.878,-1.9608,5.8252,4.6602,5.7971,1.868,5.7605,-1.9608,5.8252,4.9505,0.0,1.8501,3.873,5.7971,6.7308,-3.9553,4.8025,-3.9024,4.6795
-1.0111,0.06349,0.0,-0.98039,3.8835,-0.19417,0.96618,-0.06441,2.8479,-0.98039,3.8835,0.9901,0.0,0.89314,-0.88889,0.0,2.8846,-2.9984,-0.88468,-2.9268,-0.12821
2.7804,1.9683,2.9268,-2.9412,1.9417,-0.19417,0.0,-1.0306,2.8479,-2.9412,1.9417,0.0,1.8957,-0.0638,0.06349,1.9324,-0.96154,2.7432,1.9589,0.97561,0.83333
5.624,6.7302,5.8537,-2.9412,-2.9126,1.7476,4.8309,-0.06441,2.8479,-2.9412,-2.9126,3.9604,0.94787,0.89314,1.9683,4.8309,-0.96154,4.6571,3.8547,0.97561,3.7179
7.5197,9.5873,3.9024,4.902,0.97087,6.6019,13.527,2.8341,5.7605,4.902,0.97087,9.901,0.0,2.807,5.7778,4.8309,4.8077,2.7432,3.8547,1.9512,3.7179
9.4155,11.492,8.7805,7.8431,1.9417,11.456,20.290001,6.6989,8.6731,7.8431,1.9417,16.832001,5.6872,4.7209,11.492,8.6957,15.385,0.82935,5.7504,4.878,3.7179
7.5197,13.397,16.584999,6.8627,12.621,11.456,15.459,5.7327,8.6731,6.8627,12.621,16.832001,4.7393,8.5486,10.54,14.493,20.191999,-2.0415,4.8025,1.9512,8.5256
4.6761,13.397,15.61,4.902,13.592,6.6019,8.6957,1.868,6.7314,4.902,13.592,13.861,0.94787,5.6778,3.873,13.527,12.5,-1.0845,7.6461,-2.9268,11.41
2.7804,9.5873,5.8537,0.0,2.9126,3.6893,6.7633,-0.06441,4.7896,0.0,2.9126,9.901,1.8957,0.89314,-3.746,4.8309,0.96154,-0.12759,6.6983,-2.9268,6.6026
2.7804,7.6825,-0.97561,-1.9608,6.7961,6.6019,7.7295,1.868,3.8188,-1.9608,6.7961,10.891,-5.6872,-6.7624,-7.5556,-1.9324,-9.6154,0.82935,4.8025,-7.8049,-2.0513
4.6761,8.6349,5.8537,6.8627,5.8252,11.456,12.56,5.7327,4.7896,6.8627,5.8252,14.851,-6.6351,-9.6332,-5.6508,-2.8986,-10.577,-1.0845,1.0111,-6.8293,-6.859
6.5719,9.5873,11.707,11.765,3.8835,11.456,12.56,7.6651,3.8188,11.765,3.8835,14.851,0.0,-4.8485,1.0159,0.96618,-3.8462,-0.12759,-2.7804,0.0,-4.9359
8.4676,9.5873,9.7561,9.8039,5.8252,6.6019,10.628,3.8003,2.8479,9.8039,5.8252,9.901,3.7915,1.8501,8.6349,7.7295,5.7692,-0.12759,1.0111,5.8537,0.83333
8.4676,10.54,7.8049,3.9216,11.65,5.6311,10.628,-0.06441,5.7605,3.9216,11.65,8.9109,7.5829,6.6348,9.5873,11.594,10.577,1.7863,7.6461,6.8293,8.5256
3.7283,6.7302,0.97561,0.0,7.767,6.6019,6.7633,0.90177,5.7605,0.0,7.767,7.9208,1.8957,4.7209,1.9683,7.7295,5.7692,2.7432,6.6983,1.9512,8.5256
-0.06319,1.0159,-3.9024,-0.98039,3.8835,4.6602,1.9324,3.8003,1.877,-0.98039,3.8835,3.9604,-2.8436,1.8501,-1.8413,1.9324,1.9231,3.7002,1.9589,0.0,4.6795
1.8325,-1.8413,0.97561,0.98039,0.97087,1.7476,0.0,3.8003,-1.0356,0.98039,0.97087,1.9802,0.0,1.8501,3.873,-0.96618,2.8846,5.614,-3.7283,3.9024,-1.0897
5.624,-0.88889,5.8537,0.0,-0.97087,0.7767,0.96618,1.868,-2.9773,0.0,-0.97087,0.9901,0.94787,-2.9346,7.6825,-1.9324,3.8462,3.7002,-5.624,5.8537,-5.8974
3.7283,1.0159,5.8537,4.902,0.0,-1.165,2.8986,0.90177,0.90615,4.902,0.0,1.9802,0.94787,-5.8054,4.8254,-0.96618,1.9231,0.82935,-0.88468,5.8537,-3.0128
-2.9068,0.06349,-1.9512,5.8824,1.9417,-0.19417,2.8986,0.90177,4.7896,5.8824,1.9417,0.9901,2.8436,-5.8054,-1.8413,-3.8647,-4.8077,-0.12759,1.0111,4.878,-3.0128
-5.7504,-0.88889,-4.878,4.902,2.9126,1.7476,1.9324,1.868,3.8188,4.902,2.9126,0.9901,-3.7915,-5.8054,-10.413,-6.7633,-11.538,-1.0845,-4.6761,-3.9024,-5.8974
-4.8025,0.06349,-3.9024,2.9412,5.8252,0.7767,0.0,2.8341,1.877,2.9412,5.8252,0.9901,-11.374,-5.8054,-13.27,-4.8309,-12.5,-2.0415,-2.7804,-10.732,-3.9744
-1.0111,-0.88889,-2.9268,-4.902,1.9417,-1.165,-0.96618,-0.06441,-0.06472,-4.902,1.9417,-0.9901,-7.5829,-4.8485,-6.6032,0.0,-5.7692,-2.9984,4.8025,-8.7805,0.83333
2.7804,1.0159,1.9512,-1.9608,0.97087,-0.19417,2.8986,-1.0306,1.877,-1.9608,0.97087,-0.9901,-1.8957,-1.0207,1.9683,6.7633,2.8846,-4.9123,6.6983,-3.9024,4.6795
4.6761,4.8254,7.8049,2.9412,5.8252,0.7767,3.8647,-0.06441,5.7605,2.9412,5.8252,2.9703,3.7915,2.807,6.7302,11.594,7.6923,-2.0415,7.6461,2.9268,7.5641
2.7804,4.8254,8.7805,3.9216,6.7961,-0.19417,0.0,-0.06441,5.7605,3.9216,6.7961,0.9901,9.4787,6.6348,7.6825,11.594,10.577,1.7863,6.6983,7.8049,8.5256
-3.8547,1.9683,1.9512,-2.9412,0.97087,-6.0194,-2.8986,-3.9291,0.90615,-2.9412,0.97087,-3.9604,2.8436,3.764,2.9206,4.8309,4.8077,2.7432,3.8547,2.9268,6.6026
-6.6983,-2.7937,-7.8049,-6.8627,-4.8544,-6.9903,-5.7971,-3.9291,-2.9773,-6.8627,-4.8544,-7.9208,-5.6872,-1.9777,-7.5556,-3.8647,-4.8077,1.7863,0.06319,-4.878,0.83333
-2.9068,-3.746,-7.8049,-0.98039,0.0,-1.165,0.0,1.868,-1.0356,-0.98039,0.0,-1.9802,-1.8957,-4.8485,-7.5556,-5.7971,-6.7308,3.7002,-0.88468,-2.9268,-3.9744
-1.0111,-5.6508,-5.8537,1.9608,2.9126,-1.165,1.9324,2.8341,-0.06472,1.9608,2.9126,-0.9901,-5.6872,-4.8485,-2.7937,-5.7971,-5.7692,2.7432,-5.624,-0.97561,-4.9359
-3.8547,-8.5079,-5.8537,-0.98039,1.9417,-6.0194,-0.96618,-1.0306,-2.0065,-0.98039,1.9417,-3.9604,-6.6351,-2.9346,-1.8413,-6.7633,-5.7692,-1.0845,-4.6761,-0.97561,-3.9744
-7.6461,-7.5556,-8.7805,-4.902,-4.8544,-6.0194,-5.7971,-1.9968,-3.9482,-4.902,-4.8544,-7.9208,-2.8436,-1.0207,-5.6508,-7.7295,-8.6538,-2.9984,-1.8325,-0.97561,-2.0513
-2.9068,-3.746,-4.878,0.0,0.97087,-0.19417,-3.8647,-0.06441,-2.0065,0.0,0.97087,-2.9703,-2.8436,-5.8054,-5.6508,-7.7295,-9.6154,1.7863,-2.7804,-0.97561,-5.8974
0.88468,-3.746,-0.97561,6.8627,7.767,4.6602,0.0,4.7665,-2.0065,6.8627,7.767,4.9505,-7.5829,-10.59,-3.746,-8.6957,-5.7692,6.571,-7.5197,-0.97561,-10.705
4.6761,1.0159,3.9024,9.8039,9.7087,8.5437,7.7295,8.6312,0.90615,9.8039,9.7087,9.901,-0.94787,-1.9777,3.873,1.9324,4.8077,6.571,-5.624,0.97561,-3.9744
5.624,5.7778,7.8049,13.725,9.7087,10.485,11.594,8.6312,5.7605,13.725,9.7087,12.871,5.6872,5.6778,7.6825,10.628,12.5,1.7863,-1.8325,2.9268,1.7949
4.6761,8.6349,9.7561,12.745,9.7087,10.485,9.6618,6.6989,6.7314,12.745,9.7087,12.871,5.6872,3.764,5.7778,12.56,13.462,-3.9553,1.0111,0.0,2.7564
5.624,8.6349,11.707,7.8431,10.68,8.5437,7.7295,3.8003,5.7605,7.8431,10.68,9.901,2.8436,6.6348,4.8254,13.527,12.5,-4.9123,4.8025,-3.9024,5.641
2.7804,1.9683,5.8537,6.8627,7.767,5.6311,1.9324,2.8341,2.8479,6.8627,7.767,4.9505,-2.8436,5.6778,-0.88889,7.7295,4.8077,-3.9553,0.06319,-7.8049,5.641
-1.0111,-3.746,-0.97561,3.9216,4.8544,3.6893,0.0,4.7665,-0.06472,3.9216,4.8544,1.9802,-6.6351,-2.9346,-5.6508,0.0,-2.8846,-2.9984,-6.5719,-11.707,-2.0513
-0.06319,-1.8413,-1.9512,5.8824,5.8252,1.7476,1.9324,4.7665,-1.0356,5.8824,5.8252,2.9703,0.0,-5.8054,-2.7937,-3.8647,-1.9231,0.82935,-5.624,-5.8537,-7.8205
0.88468,0.06349,-0.97561,3.9216,3.8835,0.7767,3.8647,2.8341,-2.0065,3.9216,3.8835,1.9802,1.8957,-5.8054,2.9206,-5.7971,-1.9231,0.82935,-3.7283,-0.97561,-5.8974
0.88468,0.06349,-0.97561,2.9412,-1.9417,-0.19417,2.8986,1.868,-2.9773,2.9412,-1.9417,0.0,2.8436,-2.9346,5.7778,-3.8647,-3.8462,1.7863,-3.7283,2.9268,-1.0897
-4.8025,-6.6032,-7.8049,0.0,-2.9126,-5.0485,-4.8309,-1.9968,-6.8608,0.0,-2.9126,-5.9406,3.7915,-2.9346,-0.88889,-8.6957,-6.7308,2.7432,-4.6761,4.878,-3.9744
-7.6461,-11.365,-12.683,-2.9412,-0.97087,-7.9612,-10.628,-1.9968,-7.8317,-2.9412,-0.97087,-8.9109,2.8436,-0.0638,-4.6984,-12.56,-7.6923,3.7002,-4.6761,6.8293,-4.9359
-6.6983,-11.365,-11.707,-6.8627,-9.7087,-8.932,-12.56,-3.9291,-8.8026,-6.8627,-9.7087,-10.891,0.0,-0.0638,-2.7937,-8.6957,-4.8077,4.6571,-2.7804,5.8537,-1.0897
-2.9068,-4.6984,-3.9024,-9.8039,-9.7087,-7.9612,-11.594,-3.9291,-7.8317,-9.8039,-9.7087,-8.9109,-1.8957,-0.0638,-0.88889,0.0,-0.96154,3.7002,-0.88468,2.9268,3.7179
1.8325,2.9206,1.9512,-8.8235,-1.9417,-4.0777,-1.9324,-1.9968,-2.9773,-8.8235,-1.9417,-2.9703,-3.7915,-1.0207,0.06349,5.7971,1.9231,2.7432,0.06319,1.9512,3.7179
6.5719,2.9206,5.8537,-0.98039,1.9417,1.7476,3.8647,2.8341,-0.06472,-0.98039,1.9417,2.9703,4.7393,0.89314,5.7778,6.7633,6.7308,3.7002,-3.7283,6.8293,0.83333
10.363,1.9683,10.732,12.745,11.65,7.5728,8.6957,7.6651,2.8479,12.745,11.65,8.9109,5.6872,1.8501,13.397,6.7633,9.6154,3.7002,-4.6761,8.7805,-0.12821
11.311,8.6349,17.561001,18.627001,13.592,10.485,10.628,6.6989,4.7896,18.627001,13.592,13.861,3.7915,4.7209,15.302,11.594,12.5,-0.12759,2.9068,6.8293,4.6795
11.311,13.397,15.61,10.784,7.767,9.5146,8.6957,3.8003,5.7605,10.784,7.767,12.871,5.6872,7.5917,12.444,13.527,10.577,-2.9984,11.438,2.9268,11.41
8.4676,9.5873,7.8049,4.902,4.8544,10.485,7.7295,3.8003,4.7896,4.902,4.8544,12.871,2.8436,7.5917,6.7302,4.8309,5.7692,-2.9984,10.49,-3.9024,10.449
8.4676,7.6825,7.8049,4.902,2.9126,8.5437,9.6618,3.8003,3.8188,4.902,2.9126,11.881,4.7393,8.5486,8.6349,2.8986,7.6923,0.82935,7.6461,-2.9268,7.5641
9.4155,6.7302,12.683,1.9608,5.8252,4.6602,6.7633,1.868,2.8479,1.9608,5.8252,7.9208,10.427,8.5486,14.349,8.6957,11.538,5.614,4.8025,5.8537,8.5256
7.5197,5.7778,11.707,5.8824,9.7087,2.7184,3.8647,1.868,2.8479,5.8824,9.7087,3.9604,10.427,5.6778,13.397,11.594,11.538,5.614,6.6983,10.732,10.449
3.7283,1.9683,3.9024,3.9216,5.8252,-1.165,2.8986,-0.06441,2.8479,3.9216,5.8252,0.0,4.7393,1.8501,5.7778,7.7295,3.8462,3.7002,6.6983,6.8293,7.5641
-0.06319,-0.88889,-1.9512,-2.9412,0.0,-2.1359,0.0,-2.963,0.90615,-2.9412,0.0,-1.9802,-4.7393,-1.0207,-1.8413,2.8986,-2.8846,-2.0415,4.8025,0.0,4.6795
-1.0111,1.0159,-1.9512,-5.8824,-0.97087,-1.165,-2.8986,-1.9968,-2.9773,-5.8824,-0.97087,-1.9802,-4.7393,1.8501,-4.6984,2.8986,-1.9231,-2.0415,1.9589,-2.9268,3.7179
-1.0111,1.9683,0.0,-3.9216,-5.8252,-1.165,-3.8647,-1.9968,-2.9773,-3.9216,-5.8252,-2.9703,-3.7915,6.6348,-1.8413,5.7971,3.8462,-2.0415,1.9589,-1.9512,5.641
-2.9068,-1.8413,-4.878,-5.8824,-0.97087,-4.0777,-1.9324,-1.9968,-0.06472,-5.8824,-0.97087,-4.9505,-0.94787,7.5917,1.0159,0.96618,3.8462,-2.9984,1.0111,0.97561,6.6026
-2.9068,-1.8413,-5.8537,-2.9412,2.9126,-3.1068,1.9324,-1.9968,2.8479,-2.9412,2.9126,-2.9703,3.7915,6.6348,1.0159,-3.8647,-0.96154,-2.9984,-0.88468,4.878,4.6795
3.7283,5.7778,3.9024,3.9216,9.7087,0.7767,6.7633,0.90177,7.7023,3.9216,9.7087,3.9604,12.322,11.419,5.7778,1.9324,4.8077,-2.0415,4.8025,8.7805,7.5641
4.6761,9.5873,11.707,9.8039,13.592,2.7184,8.6957,1.868,6.7314,9.8039,13.592,5.9406,12.322,8.5486,8.6349,9.6618,12.5,-3.9553,7.6461,3.9024,6.6026
3.7283,5.7778,11.707,9.8039,6.7961,4.6602,5.7971,3.8003,1.877,9.8039,6.7961,5.9406,2.8436,6.6348,7.6825,11.594,14.423,-5.8692,2.9068,-2.9268,4.6795
4.6761,1.0159,10.732,9.8039,4.8544,7.5728,2.8986,6.6989,-1.0356,9.8039,4.8544,4.9505,4.7393,7.5917,9.5873,7.7295,12.5,-2.0415,-1.8325,0.97561,3.7179
4.6761,2.9206,10.732,6.8627,4.8544,3.6893,1.9324,3.8003,-1.0356,6.8627,4.8544,2.9703,2.8436,2.807,6.7302,4.8309,7.6923,0.82935,-0.88468,1.9512,-0.12821
1.8325,6.7302,9.7561,6.8627,3.8835,0.7767,4.8309,2.8341,2.8479,6.8627,3.8835,1.9802,0.0,1.8501,1.9683,2.8986,2.8846,2.7432,-0.88468,0.0,-3.9744
0.88468,7.6825,4.878,3.9216,4.8544,0.7767,6.7633,2.8341,4.7896,3.9216,4.8544,2.9703,0.0,-1.0207,-2.7937,0.96618,-1.9231,5.614,-2.7804,0.0,-8.7821
0.88468,1.9683,0.97561,-0.98039,4.8544,3.6893,1.9324,4.7665,1.877,-0.98039,4.8544,2.9703,-2.8436,-5.8054,-4.6984,-1.9324,-3.8462,5.614,-4.6761,-2.9268,-10.705
7.5197,3.873,11.707,6.8627,0.0,9.5146,3.8647,7.6651,0.90615,6.8627,0.0,7.9208,-1.8957,-1.0207,3.873,3.8647,4.8077,2.7432,-1.8325,-3.9024,-3.9744
16.051001,10.54,23.415001,8.8235,0.0,11.456,4.8309,7.6651,0.90615,8.8235,0.0,11.881,0.0,5.6778,14.349,11.594,14.423,3.7002,3.8547,-1.9512,3.7179
15.103,8.6349,19.511999,4.902,5.8252,8.5437,2.8986,4.7665,3.8188,4.902,5.8252,8.9109,2.8436,7.5917,13.397,8.6957,13.462,3.7002,4.8025,0.0,5.641
7.5197,1.9683,4.878,5.8824,8.7379,6.6019,3.8647,4.7665,5.7605,5.8824,8.7379,5.9406,5.6872,5.6778,5.7778,1.9324,5.7692,3.7002,4.8025,1.9512,5.641
-1.9589,-5.6508,-7.8049,3.9216,1.9417,1.7476,0.0,1.868,3.8188,3.9216,1.9417,-1.9802,1.8957,3.764,-0.88889,-1.9324,0.0,0.82935,3.8547,0.0,5.641
-3.8547,-7.5556,-4.878,1.9608,-1.9417,-2.1359,-5.7971,1.868,-0.06472,1.9608,-1.9417,-6.9307,0.0,4.7209,0.06349,1.9324,2.8846,-1.0845,3.8547,0.97561,7.5641
-0.06319,1.0159,3.9024,-1.9608,-2.9126,-2.1359,-5.7971,-1.9968,-0.06472,-1.9608,-2.9126,-4.9505,6.6351,8.5486,5.7778,10.628,8.6538,-1.0845,5.7504,6.8293,10.449
-0.06319,2.9206,2.9268,-10.784,-0.97087,-5.0485,-2.8986,-9.7262,-1.0356,-10.784,-0.97087,-4.9505,15.166,11.419,9.5873,9.6618,8.6538,-1.0845,5.7504,12.683,10.449
-6.6983,-8.5079,-13.659,-9.8039,-6.7961,-10.874,-11.594,-8.7601,-5.89,-9.8039,-6.7961,-12.871,18.009001,12.376,6.7302,-0.96618,3.8462,-0.12759,-1.8325,14.634,5.641
-6.6983,-15.175,-19.511999,-1.9608,-8.7379,-6.9903,-13.527,-0.06441,-8.8026,-1.9608,-8.7379,-13.861,10.427,4.7209,3.873,-8.6957,0.0,4.6571,-7.5197,11.707,-3.0128
0.88468,-9.4603,-8.7805,4.902,-5.8252,0.7767,-8.6957,7.6651,-6.8608,4.902,-5.8252,-5.9406,-1.8957,-4.8485,2.9206,-9.6618,-1.9231,8.4848,-12.259,4.878,-11.667
7.5197,-0.88889,2.9268,5.8824,-0.97087,7.5728,-0.96618,12.496,-5.89,5.8824,-0.97087,2.9703,-6.6351,-5.8054,1.9683,-8.6957,-2.8846,11.356,-14.155,0.0,-17.436001
2.7804,-5.6508,0.0,2.9412,-3.8835,1.7476,-2.8986,6.6989,-6.8608,2.9412,-3.8835,-1.9802,-7.5829,-7.7193,-2.7937,-15.459,-7.6923,5.614,-16.051001,-3.9024,-20.320999
-4.8025,-13.27,-6.8293,0.0,-5.8252,-5.0485,-5.7971,-1.9968,-6.8608,0.0,-5.8252,-9.901,-2.8436,-3.8915,-3.746,-17.391001,-7.6923,-1.0845,-15.103,-3.9024,-15.513
-4.8025,-14.222,-5.8537,-0.98039,-6.7961,-2.1359,-6.7633,-1.0306,-6.8608,-0.98039,-6.7961,-7.9208,6.6351,-0.0638,-1.8413,-12.56,-2.8846,-2.9984,-14.155,-0.97561,-7.8205
-1.0111,-3.746,3.9024,0.98039,-2.9126,0.7767,-4.8309,0.90177,-5.89,0.98039,-2.9126,-0.9901,3.7915,1.8501,-0.88889,-0.96618,2.8846,-4.9123,-3.7283,-2.9268,0.83333
-0.06319,6.7302,10.732,-4.902,0.0,-2.1359,-0.96618,-1.0306,-2.9773,-4.902,0.0,1.9802,0.0,4.7209,-0.88889,10.628,6.7308,-3.9553,5.7504,-7.8049,9.4872
-1.9589,7.6825,5.8537,-7.8431,-3.8835,-6.9903,-2.8986,-2.963,-1.0356,-7.8431,-3.8835,-3.9604,2.8436,7.5917,1.9683,14.493,8.6538,-2.0415,10.49,-5.8537,15.256
-4.8025,0.06349,-2.9268,-8.8235,-5.8252,-10.874,-7.7295,-5.8615,-2.9773,-8.8235,-5.8252,-9.901,0.94787,6.6348,3.873,11.594,7.6923,-1.0845,8.594,-2.9268,15.256
-5.7504,-6.6032,-5.8537,-6.8627,-7.767,-9.9029,-8.6957,-7.7939,-4.9191,-6.8627,-7.767,-9.901,0.94787,6.6348,3.873,5.7971,4.8077,-2.0415,2.9068,-2.9268,11.41
-2.9068,-5.6508,-2.9268,-4.902,-4.8544,-6.0194,-6.7633,-7.7939,-2.9773,-4.902,-4.8544,-5.9406,1.8957,4.7209,0.06349,0.96618,-0.96154,-3.9553,1.0111,-2.9268,6.6026
-0.06319,-1.8413,0.97561,-4.902,-1.9417,-5.0485,-5.7971,-6.8277,0.90615,-4.902,-1.9417,-3.9604,0.0,3.764,-0.88889,-0.96618,-4.8077,-3.9553,3.8547,-2.9268,4.6795
-3.8547,-4.6984,-3.9024,-6.8627,-0.97087,-7.9612,-5.7971,-7.7939,-0.06472,-6.8627,-0.97087,-6.9307,3.7915,4.7209,-2.7937,-3.8647,-5.7692,-2.0415,2.9068,0.0,1.7949
-9.5419,-4.6984,-8.7805,-2.9412,-1.9417,-7.9612,-1.9324,-5.8615,1.877,-2.9412,-1.9417,-4.9505,-3.7915,-2.9346,-9.4603,-7.7295,-9.6154,-2.9984,0.06319,-6.8293,-4.9359
-5.7504,-2.7937,-6.8293,3.9216,2.9126,0.7767,8.6957,0.90177,3.8188,3.9216,2.9126,4.9505,-6.6351,-3.8915,-11.365,-10.628,-10.577,-2.0415,-4.6761,-10.732,-10.705
-2.9068,-9.4603,-9.7561,4.902,2.9126,4.6602,1.9324,2.8341,-2.0065,4.902,2.9126,4.9505,-7.5829,-11.547,-11.365,-19.323999,-14.423,0.82935,-11.311,-7.8049,-19.358999
-1.9589,-11.365,-10.732,0.98039,-0.97087,2.7184,-4.8309,2.8341,-8.8026,0.98039,-0.97087,0.0,-2.8436,-11.547,-11.365,-20.290001,-14.423,3.7002,-16.051001,-4.878,-23.205
-3.8547,-11.365,-10.732,0.98039,-7.767,-1.165,-7.7295,2.8341,-11.715,0.98039,-7.767,-4.9505,-2.8436,-8.6762,-12.317,-17.391001,-11.538,2.7432,-18.893999,-5.8537,-22.243999
-3.8547,-8.5079,-8.7805,1.9608,-0.97087,-1.165,-5.7971,1.868,-7.8317,1.9608,-0.97087,-3.9604,0.0,-7.7193,-8.5079,-12.56,-8.6538,0.82935,-16.997999,-4.878,-18.396999
-2.9068,-5.6508,-4.878,3.9216,1.9417,1.7476,-2.8986,1.868,-5.89,3.9216,1.9417,-0.9901,-3.7915,-4.8485,-8.5079,-9.6618,-7.6923,-1.0845,-8.4676,-2.9268,-9.7436
-2.9068,-2.7937,-1.9512,-1.9608,-3.8835,-0.19417,-5.7971,-1.9968,-5.89,-1.9608,-3.8835,-1.9802,-4.7393,-0.0638,-9.4603,-2.8986,-6.7308,-3.9553,0.06319,-1.9512,2.7564
-4.8025,-4.6984,-4.878,-9.8039,-10.68,-5.0485,-9.6618,-5.8615,-8.8026,-9.8039,-10.68,-7.9208,0.0,6.6348,-10.413,0.0,-5.7692,-2.9984,2.9068,-0.97561,10.449
-7.6461,-9.4603,-11.707,-7.8431,-11.65,-4.0777,-9.6618,-3.9291,-4.9191,-7.8431,-11.65,-9.901,0.94787,4.7209,-12.317,-2.8986,-6.7308,-3.9553,1.9589,-2.9268,6.6026
-9.5419,-11.365,-18.537001,-4.902,-2.9126,-3.1068,-6.7633,-0.06441,-1.0356,-4.902,-2.9126,-8.9109,-1.8957,-1.9777,-12.317,-6.7633,-8.6538,-3.9553,-1.8325,-6.8293,-0.12821
-9.5419,-10.413,-14.634,-1.9608,-1.9417,-5.0485,-6.7633,-1.0306,-1.0356,-1.9608,-1.9417,-7.9208,-1.8957,-7.7193,-11.365,-9.6618,-10.577,-2.9984,-4.6761,-3.9024,-3.9744
-6.6983,-5.6508,-5.8537,-1.9608,-4.8544,-6.0194,-5.7971,-2.963,-2.9773,-1.9608,-4.8544,-6.9307,1.8957,-4.8485,-8.5079,-7.7295,-7.6923,-1.0845,-6.5719,0.97561,-3.0128
-7.6461,-5.6508,-3.9024,-3.9216,-8.7379,-6.0194,-5.7971,-4.8953,-5.89,-3.9216,-8.7379,-6.9307,1.8957,-6.7624,-8.5079,-6.7633,-7.6923,-1.0845,-4.6761,1.9512,-4.9359
-12.385,-10.413,-11.707,-6.8627,-3.8835,-6.9903,-6.7633,-6.8277,-3.9482,-6.8627,-3.8835,-7.9208,-2.8436,-3.8915,-12.317,-9.6618,-10.577,-3.9553,0.06319,-3.9024,-3.0128
-14.281,-11.365,-16.584999,-8.8235,-2.9126,-9.9029,-7.7295,-9.7262,-1.0356,-8.8235,-2.9126,-9.901,-1.8957,-1.0207,-12.317,-7.7295,-9.6154,-6.8262,1.0111,-5.8537,-0.12821
-7.6461,-2.7937,-10.732,-3.9216,1.9417,-6.0194,-0.96618,-4.8953,2.8479,-3.9216,1.9417,-4.9505,1.8957,-2.9346,-3.746,-1.9324,-3.8462,-2.9984,5.7504,0.97561,0.83333
-0.06319,8.6349,1.9512,-1.9608,5.8252,-1.165,6.7633,-1.9968,5.7605,-1.9608,5.8252,3.9604,2.8436,0.89314,2.9206,4.8309,2.8846,0.82935,6.6983,4.878,0.83333
-0.06319,10.54,7.8049,-0.98039,5.8252,-1.165,8.6957,-3.9291,3.8188,-0.98039,5.8252,7.9208,1.8957,3.764,2.9206,6.7633,4.8077,1.7863,6.6983,2.9268,0.83333
-4.8025,5.7778,3.9024,3.9216,5.8252,-0.19417,8.6957,-1.9968,1.877,3.9216,5.8252,6.9307,5.6872,5.6778,-1.8413,5.7971,2.8846,0.82935,5.7504,2.9268,4.6795
-2.9068,3.873,2.9268,2.9412,4.8544,3.6893,8.6957,0.90177,1.877,2.9412,4.8544,7.9208,8.5308,3.764,-3.746,6.7633,2.8846,-0.12759,5.7504,3.9024,6.6026
0.88468,4.8254,3.9024,6.8627,5.8252,3.6893,5.7971,1.868,2.8479,6.8627,5.8252,6.9307,6.6351,5.6778,-0.88889,9.6618,4.8077,-1.0845,4.8025,1.9512,8.5256
1.8325,7.6825,4.878,3.9216,7.767,1.7476,3.8647,-0.06441,2.8479,3.9216,7.767,2.9703,-2.8436,6.6348,1.9683,12.56,7.6923,-2.0415,6.6983,-3.9024,11.41
0.88468,5.7778,2.9268,1.9608,0.97087,-0.19417,0.96618,-1.0306,-0.06472,1.9608,0.97087,0.0,-2.8436,5.6778,3.873,9.6618,6.7308,-2.9984,7.6461,-4.878,11.41
-0.06319,4.8254,3.9024,0.0,-1.9417,-3.1068,-1.9324,-2.963,-2.9773,0.0,-1.9417,-2.9703,2.8436,7.5917,8.6349,8.6957,9.6154,-1.0845,4.8025,1.9512,11.41
-0.06319,2.9206,3.9024,-4.902,-6.7961,-5.0485,-4.8309,-4.8953,-5.89,-4.902,-6.7961,-4.9505,3.7915,8.5486,8.6349,6.7633,9.6154,0.82935,1.0111,3.9024,8.5256
0.88468,-0.88889,1.9512,-2.9412,-5.8252,-3.1068,-6.7633,-0.06441,-4.9191,-2.9412,-5.8252,-5.9406,3.7915,2.807,4.8254,2.8986,4.8077,0.82935,-0.88468,1.9512,1.7949
1.8325,-3.746,-0.97561,-4.902,-4.8544,-5.0485,-8.6957,-1.0306,-4.9191,-4.902,-4.8544,-7.9208,1.8957,1.8501,5.7778,3.8647,4.8077,0.82935,0.06319,2.9268,2.7564
-1.9589,-6.6032,-4.878,-4.902,-5.8252,-7.9612,-8.6957,-4.8953,-2.9773,-4.902,-5.8252,-11.881,0.94787,5.6778,4.8254,6.7633,6.7308,-2.9984,1.0111,1.9512,6.6026
-5.7504,-3.746,-7.8049,-2.9412,-2.9126,-7.9612,-5.7971,-4.8953,-1.0356,-2.9412,-2.9126,-9.901,-2.8436,4.7209,1.9683,5.7971,5.7692,-4.9123,2.9068,-1.9512,6.6026
-4.8025,1.9683,-7.8049,-0.98039,0.0,-4.0777,0.96618,-2.963,2.8479,-0.98039,0.0,-2.9703,-2.8436,1.8501,1.0159,1.9324,1.9231,-1.0845,1.9589,0.0,1.7949
-1.0111,6.7302,-2.9268,-2.9412,3.8835,0.7767,7.7295,0.90177,5.7605,-2.9412,3.8835,3.9604,1.8957,-1.0207,1.9683,-0.96618,-0.96154,5.614,2.9068,5.8537,-2.0513
0.88468,9.5873,2.9268,-2.9412,6.7961,1.7476,7.7295,1.868,5.7605,-2.9412,6.7961,5.9406,-1.8957,-3.8915,1.0159,1.9324,-1.9231,6.571,4.8025,5.8537,-1.0897
2.7804,8.6349,3.9024,3.9216,7.767,1.7476,7.7295,1.868,3.8188,3.9216,7.767,4.9505,-3.7915,-1.9777,1.9683,6.7633,-0.96154,3.7002,5.7504,0.97561,4.6795
4.6761,4.8254,1.9512,7.8431,4.8544,2.7184,8.6957,1.868,4.7896,7.8431,4.8544,4.9505,-4.7393,-2.9346,0.06349,3.8647,-5.7692,-0.12759,4.8025,0.0,5.641
7.5197,0.06349,0.0,3.9216,3.8835,3.6893,4.8309,1.868,5.7605,3.9216,3.8835,4.9505,2.8436,-3.8915,1.9683,-0.96618,-4.8077,0.82935,3.8547,4.878,1.7949
7.5197,-4.6984,-1.9512,0.0,-2.9126,2.7184,-2.8986,0.90177,-0.06472,0.0,-2.9126,1.9802,0.0,-4.8485,5.7778,-2.8986,0.96154,2.7432,-0.88468,8.7805,-3.0128
5.624,-0.88889,0.0,-1.9608,-5.8252,1.7476,-3.8647,-0.06441,-4.9191,-1.9608,-5.8252,0.9901,8.5308,3.764,10.54,2.8986,9.6154,5.614,-0.88468,14.634,-0.12821
-0.06319,4.8254,2.9268,-3.9216,0.0,0.7767,0.96618,-1.0306,-3.9482,-3.9216,0.0,2.9703,14.218,10.463,9.5873,6.7633,11.538,3.7002,-4.6761,12.683,4.6795
0.88468,8.6349,6.8293,-1.9608,5.8252,3.6893,6.7633,0.90177,1.877,-1.9608,5.8252,5.9406,7.5829,6.6348,6.7302,6.7633,8.6538,-0.12759,0.06319,6.8293,4.6795
0.88468,2.9206,3.9024,1.9608,2.9126,2.7184,2.8986,0.90177,2.8479,1.9608,2.9126,2.9703,-8.5308,-2.9346,0.06349,0.0,-0.96154,-2.0415,1.9589,-1.9512,-3.0128
-1.9589,-8.5079,-3.9024,-1.9608,-5.8252,-3.1068,-5.7971,-1.0306,-1.0356,-1.9608,-5.8252,-3.9604,-12.322,-8.6762,-5.6508,-8.6957,-10.577,-3.9553,-0.88468,-5.8537,-7.8205
-6.6983,-8.5079,-7.8049,-6.8627,-5.8252,-8.932,-7.7295,-3.9291,-2.9773,-6.8627,-5.8252,-7.9208,-8.5308,-5.8054,-10.413,-7.7295,-12.5,-4.9123,1.9589,-7.8049,-4.9359
-9.5419,0.06349,-3.9024,-5.8824,-1.9417,-7.9612,-0.96618,-3.9291,-0.06472,-5.8824,-1.9417,-3.9604,-6.6351,-4.8485,-10.413,-1.9324,-9.6154,-3.9553,2.9068,-9.7561,-3.9744
-3.8547,5.7778,1.9512,-2.9412,1.9417,-1.165,4.8309,0.90177,2.8479,-2.9412,1.9417,2.9703,-5.6872,-8.6762,-5.6508,-0.96618,-5.7692,-0.12759,-1.8325,-7.8049,-10.705
2.7804,4.8254,5.8537,0.0,0.97087,3.6893,1.9324,4.7665,3.8188,0.0,0.97087,3.9604,-1.8957,-8.6762,0.06349,-2.8986,-1.9231,2.7432,-3.7283,-1.9512,-13.59
2.7804,-1.8413,2.9268,-0.98039,-1.9417,1.7476,-1.9324,4.7665,1.877,-0.98039,-1.9417,-0.9901,-0.94787,-4.8485,1.0159,-5.7971,-1.9231,2.7432,-4.6761,0.97561,-8.7821
-1.9589,-6.6032,-3.9024,-4.902,-8.7379,-6.0194,-6.7633,-0.06441,-1.0356,-4.902,-8.7379,-7.9208,-1.8957,-3.8915,-1.8413,-7.7295,-5.7692,-0.12759,-0.88468,0.97561,-3.9744
-2.9068,-4.6984,-6.8293,-9.8039,-4.8544,-6.9903,-3.8647,-1.0306,0.90615,-9.8039,-4.8544,-7.9208,0.94787,-1.0207,-0.88889,-3.8647,-4.8077,-0.12759,7.6461,1.9512,1.7949
-0.06319,1.0159,-5.8537,-1.9608,-1.9417,-2.1359,1.9324,1.868,4.7896,-1.9608,-1.9417,-1.9802,1.8957,1.8501,1.9683,2.8986,-0.96154,0.82935,6.6983,2.9268,5.641
4.6761,2.9206,-0.97561,3.9216,2.9126,2.7184,4.8309,4.7665,5.7605,3.9216,2.9126,2.9703,1.8957,2.807,4.8254,4.8309,3.8462,2.7432,-1.8325,2.9268,3.7179
6.5719,4.8254,4.878,5.8824,7.767,6.6019,5.7971,5.7327,7.7023,5.8824,7.767,4.9505,1.8957,0.89314,6.7302,5.7971,6.7308,2.7432,-0.88468,2.9268,3.7179
1.8325,2.9206,2.9268,-2.9412,1.9417,2.7184,1.9324,1.868,2.8479,-2.9412,1.9417,0.9901,-3.7915,-1.9777,0.06349,2.8986,0.96154,-1.0845,4.8025,-3.9024,5.641
-3.8547,-2.7937,-2.9268,-5.8824,-6.7961,-2.1359,-3.8647,-1.9968,-2.9773,-5.8824,-6.7961,-2.9703,-8.5308,0.89314,-6.6032,-2.8986,-6.7308,-4.9123,4.8025,-7.8049,5.641
-3.8547,-7.5556,-7.8049,-5.8824,-7.767,-3.1068,-5.7971,-1.9968,-3.9482,-5.8824,-7.767,-4.9505,-2.8436,1.8501,-5.6508,-7.7295,-7.6923,-2.9984,1.9589,-2.9268,0.83333
-0.06319,-5.6508,-4.878,-2.9412,-2.9126,-0.19417,-2.8986,-0.06441,0.90615,-2.9412,-2.9126,-0.9901,-1.8957,-1.9777,-0.88889,-5.7971,-2.8846,-1.0845,0.06319,0.0,-2.0513
0.88468,-0.88889,0.0,-1.9608,1.9417,1.7476,0.0,-1.0306,3.8188,-1.9608,1.9417,0.9901,-8.5308,-6.7624,0.06349,-1.9324,0.0,-2.9984,-0.88468,-3.9024,-4.9359
0.88468,1.9683,0.97561,0.98039,3.8835,1.7476,1.9324,0.90177,4.7896,0.98039,3.8835,0.9901,-10.427,-8.6762,-1.8413,-0.96618,-1.9231,-2.0415,0.06319,-3.9024,-4.9359
-1.0111,0.06349,-3.9024,2.9412,0.97087,0.7767,0.96618,2.8341,2.8479,2.9412,0.97087,0.0,-11.374,-8.6762,-3.746,-3.8647,-5.7692,-0.12759,-0.88468,-2.9268,-5.8974
0.88468,-1.8413,-3.9024,2.9412,2.9126,3.6893,0.96618,4.7665,-1.0356,2.9412,2.9126,2.9703,-10.427,-6.7624,-2.7937,-3.8647,-3.8462,2.7432,-3.7283,-2.9268,-5.8974
6.5719,1.0159,4.878,7.8431,3.8835,9.5146,3.8647,6.6989,-1.0356,7.8431,3.8835,7.9208,0.94787,-0.0638,2.9206,1.9324,1.9231,4.6571,-2.7804,2.9268,-2.0513
8.4676,3.873,9.7561,1.9608,-2.9126,9.5146,4.8309,4.7665,0.90615,1.9608,-2.9126,8.9109,6.6351,2.807,6.7302,5.7971,4.8077,5.614,-0.88468,8.7805,3.7179
6.5719,4.8254,7.8049,-3.9216,-0.97087,3.6893,2.8986,0.90177,1.877,-3.9216,-0.97087,3.9604,2.8436,2.807,6.7302,7.7295,2.8846,4.6571,0.06319,8.7805,6.6026
2.7804,6.7302,5.8537,-1.9608,2.9126,-0.19417,1.9324,-1.0306,2.8479,-1.9608,2.9126,2.9703,0.94787,5.6778,2.9206,5.7971,0.96154,1.7863,1.9589,3.9024,5.641
3.7283,6.7302,6.8293,0.98039,2.9126,2.7184,1.9324,-1.0306,3.8188,0.98039,2.9126,3.9604,-2.8436,5.6778,1.0159,3.8647,1.9231,-1.0845,4.8025,0.0,2.7564
5.624,4.8254,8.7805,1.9608,3.8835,5.6311,2.8986,1.868,4.7896,1.9608,3.8835,6.9307,-1.8957,-0.0638,1.0159,-0.96618,0.96154,-0.12759,1.9589,0.97561,-1.0897
6.5719,1.0159,4.878,5.8824,2.9126,5.6311,4.8309,1.868,3.8188,5.8824,2.9126,6.9307,-0.94787,-5.8054,0.06349,-5.7971,-3.8462,1.7863,0.06319,0.0,-5.8974
3.7283,-2.7937,-4.878,4.902,4.8544,3.6893,4.8309,2.8341,3.8188,4.902,4.8544,3.9604,-8.5308,-10.59,-4.6984,-8.6957,-11.538,3.7002,3.8547,-3.9024,-5.8974
-3.8547,-2.7937,-10.732,0.98039,-0.97087,0.7767,0.0,1.868,-1.0356,0.98039,-0.97087,0.0,-10.427,-8.6762,-10.413,-6.7633,-13.462,1.7863,2.9068,-7.8049,-3.0128
-1.9589,3.873,-3.9024,0.0,-3.8835,0.7767,0.96618,-0.06441,-2.9773,0.0,-3.8835,1.9802,-6.6351,-2.9346,-4.6984,1.9324,-5.7692,0.82935,2.9068,-5.8537,1.7949
2.7804,6.7302,4.878,-0.98039,-2.9126,2.7184,2.8986,-1.9968,0.90615,-0.98039,-2.9126,5.9406,4.7393,-0.0638,2.9206,4.8309,0.96154,1.7863,4.8025,3.9024,3.7179
6.5719,5.7778,9.7561,-2.9412,0.0,2.7184,3.8647,-3.9291,4.7896,-2.9412,0.0,6.9307,2.8436,0.89314,6.7302,5.7971,4.8077,1.7863,2.9068,6.8293,3.7179
10.363,4.8254,8.7805,-4.902,2.9126,3.6893,3.8647,-3.9291,6.7314,-4.902,2.9126,4.9505,0.94787,1.8501,9.5873,4.8309,5.7692,4.6571,5.7504,8.7805,2.7564
5.624,0.06349,-0.97561,-3.9216,0.0,-0.19417,0.0,-2.963,4.7896,-3.9216,0.0,-0.9901,3.7915,2.807,8.6349,0.96618,3.8462,5.614,4.8025,10.732,-2.0513
-1.9589,-0.88889,-7.8049,-6.8627,-3.8835,-2.1359,-0.96618,-3.9291,2.8479,-6.8627,-3.8835,-3.9604,1.8957,1.8501,3.873,0.0,2.8846,5.614,2.9068,7.8049,-1.0897
-7.6461,1.0159,-6.8293,-5.8824,-5.8252,-5.0485,0.0,-6.8277,1.877,-5.8824,-5.8252,-3.9604,-0.94787,1.8501,0.06349,3.8647,5.7692,-0.12759,4.8025,3.9024,3.7179
-6.6983,2.9206,0.0,-5.8824,-3.8835,-9.9029,-1.9324,-8.7601,0.90615,-5.8824,-3.8835,-4.9505,2.8436,3.764,1.9683,8.6957,9.6154,-3.9553,3.8547,5.8537,8.5256
-4.8025,3.873,3.9024,-6.8627,-2.9126,-10.874,-1.9324,-10.692,1.877,-6.8627,-2.9126,-4.9505,7.5829,7.5917,2.9206,10.628,8.6538,-5.8692,5.7504,5.8537,10.449
-2.9068,-0.88889,2.9268,-4.902,-4.8544,-7.9612,-2.8986,-7.7939,-0.06472,-4.902,-4.8544,-3.9604,0.94787,6.6348,-0.88889,5.7971,2.8846,-5.8692,1.9589,0.0,9.4872
2.7804,0.06349,2.9268,-0.98039,-2.9126,-0.19417,0.0,-1.0306,2.8479,-0.98039,-2.9126,0.9901,1.8957,7.5917,1.0159,5.7971,0.96154,-2.0415,5.7504,-3.9024,10.449
4.6761,3.873,0.97561,3.9216,3.8835,6.6019,5.7971,3.8003,6.7314,3.9216,3.8835,6.9307,1.8957,2.807,1.0159,6.7633,0.96154,-0.12759,11.438,-7.8049,8.5256
-0.06319,3.873,-7.8049,6.8627,9.7087,6.6019,7.7295,4.7665,9.644,6.8627,9.7087,5.9406,-8.5308,-1.0207,-4.6984,1.9324,-4.8077,-2.9984,8.594,-11.707,5.641
-2.9068,7.6825,-4.878,3.9216,9.7087,3.6893,11.594,-0.06441,11.586,3.9216,9.7087,6.9307,-6.6351,-1.9777,-6.6032,0.96618,-5.7692,-2.9984,10.49,-8.7805,4.6795
2.7804,8.6349,6.8293,0.0,6.7961,5.6311,10.628,-1.0306,8.6731,0.0,6.7961,8.9109,-0.94787,0.89314,1.9683,3.8647,-0.96154,-0.12759,6.6983,0.0,2.7564
3.7283,1.0159,6.8293,-0.98039,2.9126,1.7476,1.9324,-1.0306,0.90615,-0.98039,2.9126,2.9703,-2.8436,-2.9346,3.873,1.9324,0.0,4.6571,0.06319,3.9024,-3.0128
-1.0111,-6.6032,-2.9268,0.98039,-4.8544,-3.1068,-6.7633,-0.06441,-3.9482,0.98039,-4.8544,-4.9505,0.0,-4.8485,2.9206,-2.8986,-1.9231,6.571,-3.7283,7.8049,-4.9359
-2.9068,-10.413,-14.634,-1.9608,-4.8544,-2.1359,-8.6957,-0.06441,-3.9482,-1.9608,-4.8544,-8.9109,6.6351,-1.0207,1.0159,-5.7971,-3.8462,7.5279,-10.363,12.683,-3.9744
-6.6983,-11.365,-18.537001,-3.9216,-3.8835,-3.1068,-8.6957,-1.9968,-5.89,-3.9216,-3.8835,-9.901,-0.94787,-3.8915,-4.6984,-8.6957,-7.6923,1.7863,-10.363,4.878,-3.0128
-6.6983,-10.413,-10.732,-4.902,-6.7961,-3.1068,-7.7295,-2.963,-6.8608,-4.902,-6.7961,-8.9109,-8.5308,-3.8915,-5.6508,-7.7295,-7.6923,-2.0415,-2.7804,-0.97561,-1.0897
-3.8547,-9.4603,-3.9024,-6.8627,-9.7087,-3.1068,-7.7295,-2.963,-6.8608,-6.8627,-9.7087,-8.9109,0.0,2.807,-0.88889,-3.8647,-2.8846,-2.0415,0.06319,1.9512,2.7564
-1.9589,-6.6032,0.0,-3.9216,-7.767,-4.0777,-6.7633,-1.9968,-4.9191,-3.9216,-7.767,-8.9109,3.7915,8.5486,2.9206,0.0,1.9231,-1.0845,-0.88468,3.9024,5.641
-1.0111,-2.7937,0.97561,-3.9216,-4.8544,-5.0485,-4.8309,-0.06441,-3.9482,-3.9216,-4.8544,-6.9307,-0.94787,5.6778,1.0159,1.9324,1.9231,-1.0845,0.06319,-1.9512,2.7564
2.7804,2.9206,2.9268,1.9608,2.9126,2.7184,-0.96618,3.8003,-1.0356,1.9608,2.9126,0.9901,-1.8957,1.8501,-0.88889,2.8986,0.0,-0.12759,0.06319,-3.9024,1.7949
7.5197,5.7778,4.878,10.784,9.7087,10.485,4.8309,9.5974,3.8188,10.784,9.7087,8.9109,-6.6351,-1.9777,-1.8413,0.0,-4.8077,2.7432,1.0111,-5.8537,-0.12821
9.4155,7.6825,8.7805,13.725,8.7379,14.369,11.594,8.6312,4.7896,13.725,8.7379,14.851,-2.8436,-2.9346,1.0159,0.96618,-1.9231,3.7002,-1.8325,-3.9024,-3.0128
10.363,11.492,13.659,11.765,10.68,14.369,13.527,6.6989,3.8188,11.765,10.68,16.832001,9.4787,-0.0638,6.7302,5.7971,7.6923,4.6571,-0.88468,4.878,-0.12821
6.5719,9.5873,9.7561,1.9608,1.9417,7.5728,9.6618,0.90177,1.877,1.9608,1.9417,10.891,8.5308,2.807,6.7302,7.7295,9.6154,1.7863,-0.88468,5.8537,2.7564
2.7804,2.9206,2.9268,-3.9216,-3.8835,2.7184,4.8309,-1.0306,-0.06472,-3.9216,-3.8835,3.9604,0.94787,2.807,1.0159,3.8647,4.8077,0.82935,-1.8325,0.0,4.6795
0.88468,-1.8413,0.0,-1.9608,-0.97087,-1.165,-1.9324,-0.06441,-0.06472,-1.9608,-0.97087,-0.9901,5.6872,8.5486,-0.88889,0.0,1.9231,2.7432,1.0111,3.9024,5.641
0.88468,-2.7937,4.878,-0.98039,5.8252,-3.1068,-2.8986,-0.06441,-0.06472,-0.98039,5.8252,-1.9802,10.427,9.5056,1.9683,0.96618,1.9231,-1.0845,3.8547,4.878,5.641
6.5719,5.7778,17.561001,7.8431,5.8252,3.6893,5.7971,4.7665,1.877,7.8431,5.8252,6.9307,5.6872,5.6778,6.7302,6.7633,5.7692,-2.9984,4.8025,2.9268,4.6795
9.4155,8.6349,19.511999,7.8431,1.9417,4.6602,5.7971,2.8341,-0.06472,7.8431,1.9417,8.9109,-4.7393,1.8501,7.6825,8.6957,7.6923,-2.0415,2.9068,-0.97561,3.7179
2.7804,1.0159,4.878,0.0,-3.8835,-1.165,-1.9324,-1.9968,-2.9773,0.0,-3.8835,-0.9901,-7.5829,-1.0207,1.9683,2.8986,2.8846,-1.0845,-2.7804,-2.9268,0.83333
-3.8547,-6.6032,-10.732,-3.9216,-3.8835,-6.0194,-4.8309,-2.963,-2.0065,-3.9216,-3.8835,-7.9208,0.94787,-0.0638,-2.7937,-5.7971,-5.7692,0.82935,-3.7283,0.0,-2.0513
-7.6461,-7.5556,-13.659,-6.8627,-4.8544,-6.0194,-5.7971,-2.963,-2.9773,-6.8627,-4.8544,-9.901,-1.8957,-6.7624,-5.6508,-9.6618,-10.577,-1.0845,-1.8325,-0.97561,-5.8974
-8.594,-1.8413,-3.9024,-2.9412,0.0,-4.0777,-0.96618,-2.963,-2.0065,-2.9412,0.0,-3.9604,0.0,-6.7624,-5.6508,-4.8309,-8.6538,-5.8692,-7.5197,-1.9512,-4.9359
-2.9068,4.8254,5.8537,0.98039,2.9126,-1.165,1.9324,-2.963,0.90615,0.98039,2.9126,1.9802,0.94787,-2.9346,-3.746,1.9324,-2.8846,-7.7831,-1.8325,-3.9024,-1.0897
-0.06319,4.8254,3.9024,3.9216,2.9126,4.6602,5.7971,2.8341,4.7896,3.9216,2.9126,6.9307,2.8436,-0.0638,-3.746,0.0,-1.9231,-6.8262,6.6983,-3.9024,-1.0897
-2.9068,-1.8413,-8.7805,4.902,1.9417,5.6311,3.8647,2.8341,3.8188,4.902,1.9417,2.9703,2.8436,1.8501,-9.4603,-8.6957,-8.6538,-4.9123,1.9589,-3.9024,-3.0128
-2.9068,-4.6984,-12.683,5.8824,0.97087,2.7184,0.96618,1.868,1.877,5.8824,0.97087,0.0,0.0,0.89314,-7.5556,-10.628,-10.577,-2.0415,0.06319,-0.97561,-3.0128
-1.9589,-3.746,-8.7805,1.9608,-4.8544,0.7767,0.96618,1.868,-0.06472,1.9608,-4.8544,0.9901,0.94787,-0.0638,-3.746,-7.7295,-5.7692,-1.0845,0.06319,-0.97561,-3.0128
-4.8025,0.06349,-4.878,0.98039,0.97087,-0.19417,0.0,2.8341,-1.0356,0.98039,0.97087,0.0,0.94787,-1.9777,-4.6984,-2.8986,-3.8462,-3.9553,0.06319,-4.878,-3.9744
-4.8025,1.0159,-2.9268,6.8627,8.7379,-0.19417,3.8647,1.868,2.8479,6.8627,8.7379,0.9901,0.0,-4.8485,-4.6984,-2.8986,-4.8077,-4.9123,1.9589,-4.878,-5.8974
-2.9068,-2.7937,-0.97561,7.8431,3.8835,-0.19417,1.9324,0.90177,2.8479,7.8431,3.8835,0.0,0.0,-5.8054,-2.7937,-5.7971,-5.7692,-2.9984,-0.88468,-1.9512,-6.859
0.88468,-3.746,0.97561,4.902,0.97087,0.7767,-0.96618,0.90177,-0.06472,4.902,0.97087,0.9901,3.7915,-2.9346,0.06349,-3.8647,-3.8462,0.82935,-1.8325,2.9268,-4.9359
-0.06319,-1.8413,0.0,-0.98039,0.97087,-0.19417,-2.8986,-1.0306,-1.0356,-0.98039,0.97087,0.9901,-3.7915,-2.9346,-5.6508,-2.8986,-6.7308,0.82935,-1.8325,-2.9268,-3.0128
-1.9589,0.06349,0.0,-5.8824,-0.97087,-2.1359,-1.9324,-1.9968,-2.0065,-5.8824,-0.97087,-0.9901,-13.27,-6.7624,-8.5079,-2.8986,-8.6538,-0.12759,-1.8325,-8.7805,-4.9359
-4.8025,-5.6508,-4.878,-3.9216,-2.9126,-6.0194,-5.7971,-2.963,-2.9773,-3.9216,-2.9126,-6.9307,-9.4787,-7.7193,-6.6032,-7.7295,-8.6538,-0.12759,-5.624,-5.8537,-8.7821
-4.8025,-10.413,-7.8049,-0.98039,-4.8544,-7.9612,-8.6957,-3.9291,-3.9482,-0.98039,-4.8544,-10.891,0.0,-0.0638,-2.7937,-9.6618,-6.7308,-1.0845,-8.4676,0.0,-6.859
-2.9068,-12.317,-4.878,0.0,-2.9126,-2.1359,-7.7295,-1.0306,-5.89,0.0,-2.9126,-6.9307,-1.8957,-1.0207,-0.88889,-9.6618,-2.8846,-2.9984,-6.5719,-0.97561,-4.9359
-1.0111,-12.317,-2.9268,3.9216,-1.9417,-0.19417,-6.7633,0.90177,-7.8317,3.9216,-1.9417,-3.9604,1.8957,1.8501,1.9683,-7.7295,1.9231,-2.9984,-5.624,0.97561,-1.0897
-0.06319,-4.6984,0.0,2.9412,0.97087,-2.1359,-2.8986,-1.9968,-2.9773,2.9412,0.97087,-2.9703,8.5308,6.6348,4.8254,0.0,8.6538,-2.9984,-3.7283,1.9512,2.7564
-4.8025,-0.88889,-3.9024,1.9608,0.97087,-6.0194,-2.8986,-3.9291,0.90615,1.9608,0.97087,-5.9406,9.4787,7.5917,1.9683,1.9324,6.7308,-5.8692,0.06319,-1.9512,5.641
-11.438,-6.6032,-14.634,-1.9608,-2.9126,-12.816,-6.7633,-5.8615,-1.0356,-1.9608,-2.9126,-12.871,6.6351,7.5917,-3.746,-2.8986,-0.96154,-6.8262,-1.8325,-6.8293,3.7179
-12.385,-12.317,-16.584999,-3.9216,-4.8544,-12.816,-9.6618,-5.8615,-3.9482,-3.9216,-4.8544,-14.851,1.8957,3.764,-5.6508,-8.6957,-4.8077,-5.8692,-4.6761,-6.8293,-2.0513
-3.8547,-6.6032,-2.9268,-1.9608,2.9126,-2.1359,-0.96618,-1.0306,-1.0356,-1.9608,2.9126,-1.9802,6.6351,1.8501,-0.88889,-6.7633,-0.96154,-3.9553,-5.624,0.97561,-4.9359
2.7804,4.8254,9.7561,5.8824,5.8252,6.6019,4.8309,1.868,1.877,5.8824,5.8252,7.9208,4.7393,-0.0638,2.9206,0.96618,3.8462,-2.9984,-3.7283,2.9268,-3.0128
0.88468,7.6825,9.7561,3.9216,0.97087,1.7476,1.9324,-1.0306,-2.0065,3.9216,0.97087,3.9604,0.94787,-1.0207,1.9683,5.7971,3.8462,-1.0845,-3.7283,2.9268,-2.0513
-4.8025,1.9683,-0.97561,-0.98039,-6.7961,-5.0485,-1.9324,-0.06441,-4.9191,-0.98039,-6.7961,-5.9406,0.0,-2.9346,-1.8413,2.8986,-0.96154,1.7863,-4.6761,2.9268,-3.9744
-4.8025,-3.746,-7.8049,1.9608,-2.9126,-2.1359,-0.96618,2.8341,-2.0065,1.9608,-2.9126,-4.9505,-0.94787,-1.9777,-6.6032,-2.8986,-6.7308,0.82935,-3.7283,-2.9268,-3.0128
3.7283,2.9206,1.9512,15.686,12.621,9.5146,8.6957,7.6651,6.7314,15.686,12.621,9.901,-4.7393,-1.9777,-4.6984,-1.9324,-4.8077,-0.12759,1.0111,-5.8537,-2.0513
12.259,11.492,15.61,18.627001,17.476,17.282,14.493,8.6312,8.6731,18.627001,17.476,19.802,-0.94787,-1.9777,2.9206,2.8986,1.9231,-0.12759,2.9068,-1.9512,-1.0897
13.207,12.444,19.511999,13.725,6.7961,15.34,11.594,6.6989,4.7896,13.725,6.7961,16.832001,0.94787,3.764,6.7302,6.7633,7.6923,-0.12759,4.8025,-1.9512,2.7564
7.5197,9.5873,13.659,3.9216,4.8544,10.485,6.7633,4.7665,0.90615,3.9216,4.8544,10.891,-0.94787,6.6348,1.9683,8.6957,8.6538,-1.0845,5.7504,-7.8049,4.6795
2.7804,5.7778,6.8293,5.8824,1.9417,7.5728,3.8647,3.8003,-2.9773,5.8824,1.9417,5.9406,3.7915,8.5486,0.06349,6.7633,6.7308,-1.0845,1.9589,-4.878,4.6795
1.8325,1.9683,4.878,8.8235,-1.9417,3.6893,2.8986,2.8341,-3.9482,8.8235,-1.9417,3.9604,1.8957,3.764,1.9683,1.9324,3.8462,1.7863,-1.8325,-0.97561,0.83333
4.6761,0.06349,10.732,6.8627,1.9417,1.7476,0.0,2.8341,-2.9773,6.8627,1.9417,2.9703,1.8957,0.89314,8.6349,2.8986,8.6538,4.6571,-5.624,2.9268,-1.0897
6.5719,0.06349,15.61,4.902,0.97087,1.7476,-4.8309,0.90177,-4.9191,4.902,0.97087,0.9901,5.6872,6.6348,13.397,7.7295,14.423,3.7002,-6.5719,6.8293,2.7564
3.7283,2.9206,12.683,-3.9216,-7.767,-2.1359,-3.8647,-3.9291,-6.8608,-3.9216,-7.767,-0.9901,8.5308,8.5486,12.444,11.594,15.385,-0.12759,-6.5719,5.8537,5.641
2.7804,6.7302,7.8049,-4.902,-9.7087,-2.1359,0.96618,-2.963,-5.89,-4.902,-9.7087,0.0,15.166,6.6348,10.54,11.594,14.423,1.7863,-2.7804,8.7805,4.6795
3.7283,5.7778,2.9268,-0.98039,0.97087,0.7767,0.96618,1.868,-2.0065,-0.98039,0.97087,1.9802,8.5308,2.807,5.7778,6.7633,9.6154,4.6571,-0.88468,7.8049,3.7179
2.7804,1.9683,1.9512,1.9608,-0.97087,1.7476,-0.96618,1.868,-0.06472,1.9608,-0.97087,0.0,1.8957,4.7209,2.9206,5.7971,5.7692,4.6571,1.9589,4.878,6.6026
-0.06319,-1.8413,0.97561,1.9608,-1.9417,-5.0485,-2.8986,-0.06441,-2.0065,1.9608,-1.9417,-3.9604,0.94787,6.6348,3.873,3.8647,4.8077,3.7002,-2.7804,5.8537,4.6795
0.88468,0.06349,2.9268,-0.98039,0.97087,-5.0485,0.0,-1.0306,-0.06472,-0.98039,0.97087,-2.9703,3.7915,5.6778,6.7302,3.8647,4.8077,1.7863,-0.88468,8.7805,0.83333
8.4676,7.6825,6.8293,1.9608,1.9417,3.6893,7.7295,1.868,3.8188,1.9608,1.9417,6.9307,3.7915,0.89314,9.5873,5.7971,6.7308,1.7863,2.9068,8.7805,-0.12821
12.259,14.349,9.7561,7.8431,9.7087,10.485,12.56,4.7665,6.7314,7.8431,9.7087,14.851,10.427,0.89314,10.54,9.6618,10.577,4.6571,6.6983,11.707,3.7179
10.363,14.349,8.7805,2.9412,9.7087,9.5146,13.527,2.8341,5.7605,2.9412,9.7087,14.851,7.5829,0.89314,7.6825,9.6618,10.577,4.6571,9.5419,5.8537,4.6795
6.5719,8.6349,7.8049,0.98039,2.9126,6.6019,6.7633,1.868,3.8188,0.98039,2.9126,9.901,0.94787,2.807,6.7302,5.7971,9.6154,0.82935,5.7504,0.0,4.6795
7.5197,3.873,9.7561,3.9216,3.8835,8.5437,1.9324,4.7665,2.8479,3.9216,3.8835,7.9208,1.8957,1.8501,6.7302,4.8309,6.7308,-0.12759,3.8547,-0.97561,3.7179
8.4676,2.9206,10.732,6.8627,0.97087,6.6019,3.8647,1.868,1.877,6.8627,0.97087,7.9208,8.5308,0.89314,8.6349,3.8647,4.8077,1.7863,4.8025,4.878,3.7179
8.4676,4.8254,7.8049,7.8431,2.9126,4.6602,5.7971,2.8341,1.877,7.8431,2.9126,7.9208,3.7915,-0.0638,7.6825,2.8986,2.8846,1.7863,1.9589,1.9512,2.7564
3.7283,4.8254,3.9024,6.8627,0.97087,3.6893,6.7633,3.8003,-0.06472,6.8627,0.97087,5.9406,-9.4787,-4.8485,1.0159,1.9324,-0.96154,0.82935,1.0111,-5.8537,-0.12821
0.88468,1.9683,1.9512,2.9412,0.0,0.7767,1.9324,3.8003,-2.0065,2.9412,0.0,2.9703,-7.5829,-1.9777,-2.7937,0.0,-3.8462,3.7002,-0.88468,-2.9268,-0.12821
-0.06319,-2.7937,-0.97561,-1.9608,-4.8544,-1.165,-5.7971,2.8341,-6.8608,-1.9608,-4.8544,-1.9802,5.6872,-0.0638,-0.88889,-0.96618,-1.9231,6.571,-5.624,5.8537,-2.0513
-1.9589,-7.5556,-2.9268,-7.8431,-15.534,-6.0194,-14.493,-0.06441,-15.599,-7.8431,-15.534,-8.9109,8.5308,3.764,2.9206,-0.96618,0.96154,6.571,-9.4155,11.707,-1.0897
-3.8547,-11.365,-4.878,-13.725,-11.65,-8.932,-15.459,-3.9291,-16.57,-13.725,-11.65,-12.871,3.7915,2.807,2.9206,-0.96618,1.9231,1.7863,-15.103,7.8049,-0.12821
-6.6983,-9.4603,-6.8293,-9.8039,-3.8835,-8.932,-8.6957,-3.9291,-9.7735,-9.8039,-3.8835,-9.901,0.0,0.89314,0.06349,-2.8986,1.9231,-3.9553,-12.259,-1.9512,-2.0513
-5.7504,-4.6984,-7.8049,-1.9608,-0.97087,-5.0485,0.0,-1.0306,-3.9482,-1.9608,-0.97087,-2.9703,0.94787,3.764,-4.6984,-2.8986,0.96154,-3.9553,0.06319,-4.878,-0.12821
-2.9068,0.06349,-4.878,3.9216,-1.9417,0.7767,3.8647,0.90177,-0.06472,3.9216,-1.9417,2.9703,1.8957,4.7209,-5.6508,-0.96618,0.0,-2.0415,4.8025,-2.9268,0.83333
-1.0111,-0.88889,-3.9024,-0.98039,-0.97087,0.7767,0.0,2.8341,-2.0065,-0.98039,-0.97087,1.9802,-1.8957,-0.0638,-6.6032,-5.7971,-3.8462,-0.12759,1.0111,-3.9024,-3.9744
-0.06319,-3.746,-2.9268,1.9608,1.9417,0.7767,-2.8986,5.7327,-1.0356,1.9608,1.9417,-1.9802,-3.7915,-6.7624,-5.6508,-11.594,-8.6538,2.7432,-2.7804,-3.9024,-10.705
1.8325,-0.88889,0.0,2.9412,0.0,0.7767,1.9324,6.6989,0.90615,2.9412,0.0,0.9901,-3.7915,-12.504,-3.746,-10.628,-10.577,4.6571,-2.7804,1.9512,-13.59
1.8325,6.7302,0.97561,3.9216,4.8544,4.6602,6.7633,5.7327,4.7896,3.9216,4.8544,5.9406,-3.7915,-7.7193,-2.7937,-0.96618,-7.6923,1.7863,4.8025,1.9512,-3.9744
1.8325,9.5873,1.9512,3.9216,3.8835,4.6602,7.7295,0.90177,4.7896,3.9216,3.8835,6.9307,-1.8957,-0.0638,-3.746,8.6957,-2.8846,-1.0845,8.594,0.97561,5.641
-0.06319,3.873,0.0,0.0,-5.8252,1.7476,2.8986,-0.06441,0.90615,0.0,-5.8252,2.9703,-1.8957,-1.9777,-3.746,5.7971,-2.8846,0.82935,5.7504,0.97561,5.641
3.7283,2.9206,0.0,1.9608,-2.9126,2.7184,3.8647,2.8341,3.8188,1.9608,-2.9126,2.9703,1.8957,-0.0638,-1.8413,3.8647,0.0,6.571,4.8025,-0.97561,4.6795
6.5719,5.7778,2.9268,3.9216,7.767,4.6602,5.7971,4.7665,7.7023,3.9216,7.767,3.9604,5.6872,1.8501,3.873,5.7971,5.7692,9.4418,2.9068,0.0,3.7179
8.4676,7.6825,7.8049,0.0,9.7087,3.6893,3.8647,2.8341,4.7896,0.0,9.7087,4.9505,-3.7915,-0.0638,5.7778,6.7633,5.7692,6.571,2.9068,-2.9268,3.7179
7.5197,4.8254,10.732,0.0,0.97087,2.7184,-0.96618,2.8341,-1.0356,0.0,0.97087,2.9703,-7.5829,-1.0207,3.873,4.8309,3.8462,-0.12759,-0.88468,-3.9024,2.7564
1.8325,-0.88889,5.8537,-0.98039,-4.8544,-1.165,-3.8647,0.90177,-2.0065,-0.98039,-4.8544,-1.9802,1.8957,2.807,1.9683,0.96618,4.8077,-6.8262,-2.7804,-1.9512,1.7949
-7.6461,-6.6032,-3.9024,-8.8235,-5.8252,-6.0194,-3.8647,-4.8953,2.8479,-8.8235,-5.8252,-6.9307,-1.8957,1.8501,-2.7937,-3.8647,1.9231,-8.74,-6.5719,-7.8049,-2.0513
-8.594,-10.413,-7.8049,-7.8431,-2.9126,-7.9612,-3.8647,-5.8615,3.8188,-7.8431,-2.9126,-8.9109,0.0,-1.9777,-1.8413,-5.7971,-1.9231,-2.9984,-2.7804,-1.9512,-3.9744
-3.8547,-8.5079,-4.878,-4.902,0.0,-7.9612,-4.8309,-3.9291,-1.0356,-4.902,0.0,-7.9208,1.8957,-2.9346,1.0159,-2.8986,-2.8846,3.7002,2.9068,2.9268,-2.0513
-4.8025,-8.5079,-7.8049,-2.9412,-5.8252,-8.932,-10.628,-2.963,-7.8317,-2.9412,-5.8252,-11.881,-1.8957,-5.8054,-3.746,-4.8309,-5.7692,2.7432,-2.7804,-2.9268,-3.9744
-9.5419,-9.4603,-12.683,-6.8627,-6.7961,-9.9029,-13.527,-2.963,-6.8608,-6.8627,-6.7961,-13.861,-2.8436,-6.7624,-8.5079,-7.7295,-8.6538,-0.12759,-5.624,-2.9268,-5.8974
-11.438,-5.6508,-14.634,-2.9412,-3.8835,-8.932,-6.7633,-1.9968,1.877,-2.9412,-3.8835,-10.891,2.8436,0.89314,-7.5556,-3.8647,-7.6923,-2.9984,0.06319,0.97561,-2.0513
-9.5419,-5.6508,-11.707,-1.9608,-0.97087,-6.9903,-2.8986,-2.963,5.7605,-1.9608,-0.97087,-7.9208,2.8436,0.89314,-4.6984,-2.8986,-2.8846,-2.9984,2.9068,1.9512,0.83333
-4.8025,-6.6032,-4.878,-0.98039,3.8835,-1.165,-1.9324,-1.0306,4.7896,-0.98039,3.8835,-2.9703,-2.8436,-1.9777,-3.746,-4.8309,-0.96154,-1.0845,-0.88468,0.0,-1.0897
1.8325,-9.4603,-1.9512,0.98039,0.97087,3.6893,-1.9324,1.868,-1.0356,0.98039,0.97087,0.9901,-4.7393,-5.8054,-4.6984,-11.594,-5.7692,4.6571,-10.363,1.9512,-9.7436
4.6761,-8.5079,-1.9512,2.9412,-1.9417,6.6019,-2.8986,4.7665,-6.8608,2.9412,-1.9417,2.9703,-3.7915,-6.7624,-2.7937,-13.527,-8.6538,7.5279,-12.259,3.9024,-12.628
6.5719,-1.8413,0.0,3.9216,0.97087,7.5728,-3.8647,4.7665,-4.9191,3.9216,0.97087,3.9604,-2.8436,-6.7624,1.0159,-5.7971,-4.8077,4.6571,-4.6761,3.9024,-7.8205
3.7283,-0.88889,0.97561,4.902,-3.8835,4.6602,-1.9324,2.8341,-1.0356,4.902,-3.8835,2.9703,-5.6872,-5.8054,1.0159,0.0,-2.8846,-2.0415,3.8547,-0.97561,-1.0897
2.7804,0.06349,2.9268,1.9608,0.0,0.7767,0.96618,0.90177,3.8188,1.9608,0.0,0.9901,-6.6351,-5.8054,-0.88889,1.9324,-3.8462,-3.9553,6.6983,-4.878,1.7949
4.6761,2.9206,5.8537,0.0,2.9126,3.6893,2.8986,0.90177,4.7896,0.0,2.9126,4.9505,-8.5308,-6.7624,-1.8413,0.96618,-6.7308,-1.0845,3.8547,-4.878,-1.0897
1.8325,4.8254,3.9024,0.0,1.9417,2.7184,2.8986,-0.06441,2.8479,0.0,1.9417,3.9604,1.8957,3.764,-1.8413,2.8986,-5.7692,0.82935,3.8547,-0.97561,3.7179
-6.6983,3.873,-5.8537,-4.902,-0.97087,-4.0777,-1.9324,-3.9291,-1.0356,-4.902,-0.97087,-2.9703,3.7915,4.7209,-5.6508,3.8647,-5.7692,-1.0845,4.8025,-0.97561,8.5256
-11.438,0.06349,-15.61,-3.9216,-2.9126,-8.932,-4.8309,-4.8953,-0.06472,-3.9216,-2.9126,-8.9109,2.8436,4.7209,-7.5556,0.96618,-4.8077,-4.9123,1.0111,-0.97561,8.5256
-5.7504,-2.7937,-11.707,-4.902,-2.9126,-9.9029,-1.9324,-4.8953,2.8479,-4.902,-2.9126,-7.9208,5.6872,6.6348,-0.88889,0.0,4.8077,-2.9984,1.9589,1.9512,5.641
0.88468,-4.6984,0.0,-3.9216,-2.9126,-6.9903,-1.9324,-2.963,1.877,-3.9216,-2.9126,-5.9406,11.374,10.463,7.6825,1.9324,12.5,1.7863,1.0111,9.7561,4.6795
0.88468,-5.6508,6.8293,-8.8235,-3.8835,-6.9903,-7.7295,-3.9291,-3.9482,-8.8235,-3.8835,-6.9307,12.322,8.5486,7.6825,2.8986,8.6538,5.614,-2.7804,14.634,3.7179
-6.6983,-7.5556,-1.9512,-13.725,-8.7379,-11.845,-12.56,-6.8277,-10.744,-13.725,-8.7379,-12.871,2.8436,0.89314,-2.7937,-2.8986,-5.7692,7.5279,-4.6761,11.707,-0.12821
-10.49,-9.4603,-15.61,-12.745,-12.621,-10.874,-11.594,-2.963,-10.744,-12.745,-12.621,-13.861,-7.5829,-10.59,-12.317,-15.459,-22.115,8.4848,-5.624,3.9024,-7.8205
-8.594,-8.5079,-21.462999,-5.8824,-5.8252,-6.9903,-5.7971,-0.06441,-3.9482,-5.8824,-5.8252,-7.9208,-8.5308,-16.332001,-15.175,-22.222,-28.846001,5.614,-4.6761,0.0,-12.628
-6.6983,-5.6508,-14.634,-1.9608,0.0,-1.165,1.9324,0.90177,-0.06472,-1.9608,0.0,-0.9901,-5.6872,-10.59,-13.27,-16.424999,-21.153999,1.7863,-3.7283,-2.9268,-9.7436
-1.9589,0.06349,-1.9512,1.9608,2.9126,2.7184,2.8986,0.90177,3.8188,1.9608,2.9126,3.9604,0.94787,-0.0638,-3.746,0.0,-2.8846,-2.9984,1.9589,0.0,1.7949
2.7804,7.6825,9.7561,1.9608,5.8252,2.7184,5.7971,-1.0306,7.7023,1.9608,5.8252,7.9208,6.6351,11.419,7.6825,16.424999,15.385,-4.9123,10.49,2.9268,14.295
4.6761,9.5873,8.7805,0.98039,6.7961,2.7184,8.6957,-4.8953,8.6731,0.98039,6.7961,9.901,3.7915,9.5056,9.5873,17.391001,17.308001,-7.7831,8.594,0.0,14.295
5.624,6.7302,1.9512,1.9608,7.767,5.6311,11.594,-3.9291,10.615,1.9608,7.767,10.891,0.0,3.764,3.873,10.628,6.7308,-6.8262,5.7504,-2.9268,8.5256
6.5719,5.7778,0.97561,0.0,6.7961,7.5728,9.6618,-1.0306,9.644,0.0,6.7961,10.891,-3.7915,-0.0638,1.9683,5.7971,0.0,-3.9553,5.7504,-2.9268,4.6795
9.4155,9.5873,8.7805,0.0,5.8252,9.5146,9.6618,-1.9968,9.644,0.0,5.8252,9.901,-1.8957,0.89314,7.6825,8.6957,4.8077,0.82935,2.9068,2.9268,5.641
8.4676,7.6825,12.683,-5.8824,6.7961,0.7767,4.8309,-4.8953,7.7023,-5.8824,6.7961,4.9505,-2.8436,-0.0638,11.492,7.7295,9.6154,2.7432,3.8547,4.878,4.6795
-0.06319,-1.8413,6.8293,-10.784,-4.8544,-7.9612,-0.96618,-7.7939,1.877,-10.784,-4.8544,-3.9604,-0.94787,-1.0207,6.7302,0.0,6.7308,0.82935,4.8025,3.9024,-0.12821
-6.6983,-10.413,-1.9512,-10.784,-2.9126,-9.9029,-6.7633,-7.7939,1.877,-10.784,-2.9126,-9.901,-1.8957,-1.9777,0.06349,-7.7295,-0.96154,0.82935,1.9589,1.9512,-3.9744
-8.594,-16.127001,-7.8049,-7.8431,-3.8835,-8.932,-10.628,-7.7939,1.877,-7.8431,-3.8835,-11.881,-1.8957,-1.9777,-5.6508,-12.56,-7.6923,-0.12759,-2.7804,-0.97561,-3.9744
-5.7504,-13.27,-6.8293,-8.8235,-4.8544,-7.9612,-8.6957,-4.8953,1.877,-8.8235,-4.8544,-10.891,-2.8436,-2.9346,-5.6508,-10.628,-8.6538,1.7863,0.06319,-3.9024,-3.0128
-3.8547,-7.5556,-3.9024,-11.765,-1.9417,-8.932,-7.7295,-6.8277,-0.06472,-11.765,-1.9417,-10.891,-10.427,-12.504,-4.6984,-9.6618,-11.538,1.7863,1.0111,-5.8537,-6.859
-4.8025,-4.6984,-5.8537,-9.8039,-1.9417,-9.9029,-6.7633,-5.8615,-2.9773,-9.8039,-1.9417,-9.901,-18.957001,-18.246,-7.5556,-12.56,-15.385,1.7863,-0.88468,-9.7561,-13.59
-6.6983,-4.6984,-11.707,-6.8627,-5.8252,-6.0194,-2.8986,-1.0306,-2.0065,-6.8627,-5.8252,-5.9406,-0.94787,-7.7193,-8.5079,-11.594,-12.5,1.7863,-2.7804,-4.878,-11.667
-13.333,-6.6032,-18.537001,-2.9412,-4.8544,-6.0194,-3.8647,-1.0306,-0.06472,-2.9412,-4.8544,-5.9406,1.8957,-0.0638,-13.27,-6.7633,-8.6538,-0.12759,-0.88468,-3.9024,-3.9744
-18.073,-7.5556,-23.415001,-2.9412,-3.8835,-8.932,-3.8647,-5.8615,2.8479,-2.9412,-3.8835,-6.9307,-6.6351,-1.9777,-17.079,-2.8986,-9.6154,-3.9553,0.06319,-8.7805,-3.0128
-11.438,-1.8413,-12.683,-2.9412,3.8835,-6.9903,0.96618,-6.8277,4.7896,-2.9412,3.8835,-1.9802,-9.4787,-5.8054,-12.317,-0.96618,-6.7308,-4.9123,1.0111,-9.7561,-4.9359
-3.8547,2.9206,0.97561,-1.9608,0.0,-2.1359,0.96618,-5.8615,1.877,-1.9608,0.0,-0.9901,-10.427,-4.8485,-4.6984,1.9324,-2.8846,-5.8692,1.0111,-8.7805,-3.9744
-1.0111,3.873,6.8293,-6.8627,-1.9417,-3.1068,-1.9324,-6.8277,0.90615,-6.8627,-1.9417,-2.9703,-3.7915,3.764,0.06349,7.7295,2.8846,-5.8692,2.9068,-5.8537,4.6795
-1.0111,1.0159,4.878,-4.902,-0.97087,-3.1068,-3.8647,-4.8953,0.90615,-4.902,-0.97087,-3.9604,6.6351,10.463,1.9683,7.7295,9.6154,-4.9123,5.7504,-2.9268,10.449
-1.0111,-6.6032,-2.9268,-5.8824,-0.97087,-2.1359,-1.9324,-1.9968,4.7896,-5.8824,-0.97087,-4.9505,5.6872,5.6778,1.9683,0.0,7.6923,-3.9553,5.7504,-4.878,4.6795
-0.06319,-8.5079,-3.9024,-0.98039,0.97087,-0.19417,0.0,-0.06441,5.7605,-0.98039,0.97087,-3.9604,2.8436,-0.0638,1.0159,-4.8309,4.8077,-2.9984,3.8547,-4.878,-0.12821
0.88468,0.06349,2.9268,4.902,3.8835,2.7184,1.9324,1.868,6.7314,4.902,3.8835,0.9901,-4.7393,-2.9346,-0.88889,-1.9324,0.0,-0.12759,6.6983,-3.9024,0.83333
2.7804,8.6349,7.8049,0.98039,6.7961,4.6602,3.8647,3.8003,7.7023,0.98039,6.7961,3.9604,-0.94787,-2.9346,0.06349,3.8647,-0.96154,4.6571,5.7504,0.97561,4.6795
2.7804,4.8254,3.9024,-2.9412,3.8835,3.6893,1.9324,3.8003,4.7896,-2.9412,3.8835,0.9901,0.0,-3.8915,1.9683,1.9324,-0.96154,6.571,3.8547,3.9024,1.7949
-1.9589,-2.7937,-7.8049,-3.9216,-1.9417,-1.165,-2.8986,0.90177,-0.06472,-3.9216,-1.9417,-3.9604,-5.6872,-4.8485,-1.8413,-1.9324,-2.8846,5.614,1.9589,2.9268,-2.0513
-6.6983,-3.746,-15.61,-1.9608,-5.8252,-6.0194,-3.8647,-1.9968,-0.06472,-1.9608,-5.8252,-7.9208,-7.5829,-2.9346,-5.6508,-0.96618,-4.8077,3.7002,2.9068,0.0,-0.12821
-8.594,-0.88889,-16.584999,-3.9216,-1.9417,-5.0485,0.96618,-1.0306,1.877,-3.9216,-1.9417,-5.9406,-1.8957,-0.0638,-6.6032,0.0,-6.7308,3.7002,5.7504,1.9512,2.7564
-8.594,-1.8413,-14.634,-3.9216,-4.8544,-4.0777,0.0,-1.9968,0.90615,-3.9216,-4.8544,-4.9505,3.7915,0.89314,-6.6032,-3.8647,-7.6923,3.7002,1.0111,2.9268,-1.0897
-4.8025,-6.6032,-8.7805,-1.9608,-1.9417,-3.1068,-4.8309,-2.963,-4.9191,-1.9608,-1.9417,-4.9505,4.7393,-2.9346,-4.6984,-8.6957,-6.7308,0.82935,-7.5197,2.9268,-5.8974
-1.0111,-11.365,-2.9268,0.0,0.0,0.7767,-6.7633,-1.0306,-5.89,0.0,0.0,-3.9604,0.0,-4.8485,-0.88889,-9.6618,-5.7692,-1.0845,-8.4676,1.9512,-7.8205
-1.0111,-12.317,-2.9268,0.98039,-2.9126,1.7476,-5.7971,-0.06441,-5.89,0.98039,-2.9126,-2.9703,-1.8957,-3.8915,0.06349,-12.56,-5.7692,-4.9123,-7.5197,-2.9268,-7.8205
-1.9589,-8.5079,-2.9268,4.902,-0.97087,0.7767,0.0,-0.06441,-0.06472,4.902,-0.97087,0.9901,0.0,-0.0638,-1.8413,-10.628,-3.8462,-7.7831,-2.7804,-4.878,-3.9744
-1.9589,-1.8413,-0.97561,5.8824,2.9126,1.7476,2.8986,-0.06441,3.8188,5.8824,2.9126,2.9703,0.94787,2.807,-2.7937,-3.8647,-0.96154,-6.8262,0.06319,-5.8537,1.7949
-1.9589,2.9206,2.9268,5.8824,6.7961,3.6893,0.96618,1.868,3.8188,5.8824,6.7961,2.9703,-5.6872,-0.0638,-2.7937,0.0,-0.96154,-4.9123,5.7504,-7.8049,2.7564
0.88468,8.6349,7.8049,4.902,8.7379,5.6311,5.7971,3.8003,5.7605,4.902,8.7379,5.9406,-3.7915,0.89314,-0.88889,4.8309,2.8846,-2.0415,6.6983,-5.8537,1.7949
2.7804,9.5873,9.7561,8.8235,5.8252,6.6019,8.6957,5.7327,5.7605,8.8235,5.8252,7.9208,-1.8957,1.8501,1.9683,7.7295,4.8077,0.82935,4.8025,-3.9024,1.7949
2.7804,1.9683,2.9268,8.8235,3.8835,4.6602,0.96618,4.7665,0.90615,8.8235,3.8835,2.9703,0.0,-0.0638,3.873,3.8647,3.8462,4.6571,0.06319,0.97561,-0.12821
2.7804,-5.6508,-4.878,0.98039,0.0,-0.19417,-4.8309,4.7665,-3.9482,0.98039,0.0,-4.9505,2.8436,0.89314,6.7302,1.9324,3.8462,10.399,-7.5197,6.8293,-3.0128
1.8325,-11.365,-8.7805,-1.9608,-9.7087,-5.0485,-8.6957,3.8003,-9.7735,-1.9608,-9.7087,-9.901,2.8436,-3.8915,7.6825,-1.9324,0.96154,13.27,-12.259,8.7805,-6.859
-0.06319,-8.5079,-6.8293,0.0,-5.8252,-1.165,-7.7295,4.7665,-11.715,0.0,-5.8252,-5.9406,0.0,-7.7193,1.9683,-4.8309,-4.8077,12.313,-14.155,5.8537,-9.7436
0.88468,-3.746,0.0,3.9216,0.0,3.6893,-5.7971,7.6651,-9.7735,3.9216,0.0,-0.9901,-5.6872,-9.6332,-2.7937,-6.7633,-7.6923,11.356,-10.363,2.9268,-9.7436
1.8325,-2.7937,0.97561,3.9216,0.97087,2.7184,-2.8986,5.7327,-7.8317,3.9216,0.97087,0.9901,-7.5829,-9.6332,-2.7937,-9.6618,-6.7308,8.4848,-7.5197,0.0,-10.705
-0.06319,-4.6984,-4.878,1.9608,-1.9417,0.7767,-3.8647,2.8341,-4.9191,1.9608,-1.9417,-0.9901,-3.7915,-3.8915,-0.88889,-10.628,-3.8462,3.7002,-6.5719,-2.9268,-9.7436
-2.9068,-4.6984,-9.7561,0.98039,0.0,-0.19417,0.0,1.868,-1.0356,0.98039,0.0,-2.9703,-0.94787,-0.0638,-0.88889,-4.8309,0.96154,-1.0845,-2.7804,-4.878,-3.0128
-2.9068,-0.88889,-6.8293,5.8824,8.7379,-1.165,3.8647,0.90177,4.7896,5.8824,8.7379,0.0,0.94787,-0.0638,-1.8413,2.8986,3.8462,-2.0415,2.9068,-3.9024,1.7949
-0.06319,3.873,2.9268,5.8824,12.621,1.7476,7.7295,-0.06441,9.644,5.8824,12.621,5.9406,-6.6351,-1.9777,-4.6984,3.8647,0.96154,-5.8692,5.7504,-11.707,1.7949
4.6761,11.492,12.683,9.8039,11.65,5.6311,12.56,-1.0306,12.557,9.8039,11.65,11.881,-6.6351,0.89314,-2.7937,6.7633,1.9231,-10.654,7.6461,-15.61,4.6795
5.624,14.349,13.659,12.745,11.65,9.5146,13.527,-0.06441,12.557,12.745,11.65,13.861,0.0,4.7209,2.9206,11.594,7.6923,-10.654,5.7504,-8.7805,7.5641
2.7804,13.397,7.8049,2.9412,10.68,6.6019,11.594,-3.9291,10.615,2.9412,10.68,10.891,5.6872,5.6778,6.7302,14.493,12.5,-10.654,8.594,-0.97561,9.4872
5.624,15.302,11.707,-1.9608,8.7379,1.7476,11.594,-9.7262,10.615,-1.9608,8.7379,8.9109,13.27,13.333,14.349,22.222,21.153999,-8.74,13.333,5.8537,16.218
9.4155,16.254,20.488001,0.98039,1.9417,0.7767,11.594,-10.692,7.7023,0.98039,1.9417,8.9109,15.166,16.204,15.302,21.256001,20.191999,-9.697,13.333,7.8049,19.103001
10.363,15.302,23.415001,2.9412,8.7379,2.7184,10.628,-6.8277,7.7023,2.9412,8.7379,10.891,10.427,12.376,13.397,15.459,12.5,-8.74,12.385,6.8293,15.256
8.4676,9.5873,18.537001,5.8824,12.621,3.6893,8.6957,-3.9291,7.7023,5.8824,12.621,9.901,13.27,11.419,12.444,9.6618,8.6538,-4.9123,9.5419,9.7561,13.333
5.624,2.9206,6.8293,3.9216,5.8252,3.6893,4.8309,0.90177,3.8188,3.9216,5.8252,5.9406,7.5829,10.463,9.5873,4.8309,6.7308,-1.0845,1.9589,7.8049,11.41
4.6761,-0.88889,-0.97561,1.9608,0.0,1.7476,-0.96618,2.8341,-4.9191,1.9608,0.0,0.0,5.6872,6.6348,7.6825,2.8986,6.7308,2.7432,-0.88468,7.8049,7.5641
5.624,-0.88889,1.9512,2.9412,-3.8835,0.7767,-3.8647,5.7327,-10.744,2.9412,-3.8835,-0.9901,3.7915,-0.0638,6.7302,1.9324,3.8462,6.571,-6.5719,9.7561,0.83333
9.4155,4.8254,11.707,0.0,-0.97087,5.6311,0.96618,7.6651,-11.715,0.0,-0.97087,3.9604,0.94787,-0.0638,7.6825,3.8647,3.8462,9.4418,-11.311,9.7561,-2.0513
7.5197,5.7778,14.634,3.9216,-1.9417,7.5728,3.8647,9.5974,-8.8026,3.9216,-1.9417,7.9208,10.427,1.8501,7.6825,3.8647,5.7692,7.5279,-10.363,10.732,-3.0128
5.624,4.8254,9.7561,8.8235,5.8252,7.5728,7.7295,8.6312,-0.06472,8.8235,5.8252,9.901,9.4787,-1.0207,4.8254,1.9324,1.9231,4.6571,-3.7283,8.7805,-4.9359
5.624,7.6825,4.878,14.706,12.621,11.456,11.594,9.5974,5.7605,14.706,12.621,12.871,-3.7915,-7.7193,-2.7937,-0.96618,-4.8077,-0.12759,-0.88468,-0.97561,-7.8205
4.6761,8.6349,1.9512,11.765,13.592,12.427,12.56,9.5974,6.7314,11.765,13.592,13.861,-15.166,-12.504,-9.4603,-2.8986,-9.6154,-3.9553,-0.88468,-13.659,-9.7436
5.624,9.5873,3.9024,6.8627,12.621,9.5146,12.56,7.6651,7.7023,6.8627,12.621,11.881,-12.322,-11.547,-9.4603,-2.8986,-9.6154,-4.9123,-1.8325,-14.634,-9.7436
5.624,12.444,8.7805,6.8627,8.7379,9.5146,15.459,6.6989,9.644,6.8627,8.7379,12.871,-8.5308,-7.7193,-4.6984,2.8986,-4.8077,-2.0415,1.9589,-8.7805,-5.8974
-2.9068,9.5873,3.9024,3.9216,5.8252,4.6602,12.56,2.8341,10.615,3.9216,5.8252,9.901,-9.4787,-4.8485,-10.413,3.8647,-4.8077,-2.0415,4.8025,-11.707,-2.0513
-6.6983,6.7302,0.97561,-1.9608,7.767,2.7184,8.6957,-0.06441,10.615,-1.9608,7.767,7.9208,-5.6872,-0.0638,-11.365,5.7971,-2.8846,-4.9123,11.438,-11.707,3.7179
0.88468,9.5873,7.8049,1.9608,7.767,4.6602,5.7971,-0.06441,6.7314,1.9608,7.767,9.901,0.94787,-0.0638,-0.88889,7.7295,4.8077,-2.9984,13.333,-6.8293,4.6795
8.4676,8.6349,11.707,0.98039,0.97087,4.6602,1.9324,-0.06441,-0.06472,0.98039,0.97087,7.9208,-0.94787,-5.8054,5.7778,4.8309,5.7692,-0.12759,6.6983,-4.878,-0.12821
11.311,3.873,10.732,-0.98039,-6.7961,2.7184,-0.96618,0.90177,-3.9482,-0.98039,-6.7961,2.9703,3.7915,-3.8915,8.6349,1.9324,3.8462,4.6571,1.9589,3.9024,-1.0897
8.4676,-2.7937,5.8537,-1.9608,-7.767,-0.19417,-3.8647,2.8341,-5.89,-1.9608,-7.767,-2.9703,4.7393,1.8501,11.492,1.9324,5.7692,7.5279,-1.8325,9.7561,0.83333
4.6761,-5.6508,2.9268,-5.8824,-8.7379,-0.19417,-8.6957,4.7665,-8.8026,-5.8824,-8.7379,-6.9307,4.7393,3.764,9.5873,2.8986,7.6923,6.571,-7.5197,9.7561,2.7564
4.6761,-4.6984,2.9268,-3.9216,-7.767,3.6893,-9.6618,8.6312,-10.744,-3.9216,-7.767,-2.9703,4.7393,6.6348,4.8254,1.9324,4.8077,4.6571,-6.5719,5.8537,3.7179
4.6761,-4.6984,0.97561,0.98039,-5.8252,5.6311,-5.7971,10.564,-12.686,0.98039,-5.8252,0.9901,3.7915,-0.0638,-2.7937,-5.7971,-3.8462,6.571,-11.311,3.9024,-3.9744
-0.06319,-4.6984,-3.9024,6.8627,-5.8252,4.6602,-1.9324,9.5974,-8.8026,6.8627,-5.8252,1.9802,-4.7393,-7.7193,-10.413,-11.594,-12.5,6.571,-10.363,0.97561,-10.705
-2.9068,-2.7937,-6.8293,2.9412,-4.8544,1.7476,-2.8986,6.6989,-7.8317,2.9412,-4.8544,0.9901,-3.7915,-5.8054,-10.413,-9.6618,-11.538,6.571,-7.5197,0.0,-8.7821
-2.9068,-1.8413,-4.878,-4.902,-8.7379,-0.19417,-6.7633,2.8341,-10.744,-4.902,-8.7379,-1.9802,-4.7393,-3.8915,-6.6032,-3.8647,-5.7692,7.5279,-5.624,0.0,-5.8974
-0.06319,1.0159,1.9512,-6.8627,-11.65,-2.1359,-5.7971,-0.06441,-10.744,-6.8627,-11.65,-2.9703,-4.7393,-3.8915,1.0159,4.8309,2.8846,8.4848,0.06319,2.9268,-0.12821
5.624,3.873,9.7561,-6.8627,-9.7087,-0.19417,-2.8986,0.90177,-6.8608,-6.8627,-9.7087,-1.9802,2.8436,0.89314,10.54,12.56,12.5,7.5279,4.8025,7.8049,5.641
7.5197,3.873,9.7561,-6.8627,-5.8252,0.7767,-3.8647,1.868,-5.89,-6.8627,-5.8252,-1.9802,7.5829,3.764,11.492,11.594,11.538,7.5279,5.7504,10.732,7.5641
10.363,2.9206,9.7561,-4.902,-4.8544,0.7767,-4.8309,-0.06441,-6.8608,-4.902,-4.8544,-0.9901,12.322,8.5486,11.492,9.6618,9.6154,7.5279,3.8547,12.683,9.4872
13.207,4.8254,9.7561,-0.98039,-1.9417,2.7184,0.96618,-1.0306,-2.9773,-0.98039,-1.9417,3.9604,18.957001,11.419,17.205999,7.7295,13.462,5.614,4.8025,15.61,10.449
11.311,6.7302,8.7805,3.9216,6.7961,5.6311,10.628,0.90177,4.7896,3.9216,6.7961,9.901,15.166,13.333,17.205999,5.7971,14.423,0.82935,4.8025,12.683,9.4872
8.4676,11.492,12.683,8.8235,11.65,5.6311,13.527,0.90177,10.615,8.8235,11.65,11.881,10.427,12.376,15.302,11.594,16.346001,-5.8692,8.594,5.8537,9.4872
6.5719,12.444,17.561001,10.784,7.767,4.6602,9.6618,-0.06441,7.7023,10.784,7.767,10.891,7.5829,13.333,12.444,15.459,18.268999,-9.697,9.5419,1.9512,13.333
5.624,7.6825,11.707,10.784,6.7961,6.6019,5.7971,1.868,2.8479,10.784,6.7961,8.9109,4.7393,13.333,6.7302,11.594,14.423,-6.8262,2.9068,1.9512,11.41
6.5719,3.873,4.878,9.8039,6.7961,8.5437,6.7633,2.8341,-0.06472,9.8039,6.7961,9.901,5.6872,10.463,1.9683,4.8309,7.6923,-2.0415,0.06319,3.9024,8.5256
7.5197,4.8254,4.878,6.8627,6.7961,10.485,7.7295,4.7665,-2.0065,6.8627,6.7961,11.881,4.7393,6.6348,1.0159,1.9324,2.8846,1.7863,-0.88468,2.9268,3.7179
9.4155,8.6349,12.683,3.9216,3.8835,7.5728,6.7633,3.8003,-2.9773,3.9216,3.8835,10.891,5.6872,3.764,6.7302,4.8309,5.7692,5.614,0.06319,5.8537,1.7949
6.5719,8.6349,11.707,1.9608,0.97087,1.7476,2.8986,2.8341,-3.9482,1.9608,0.97087,5.9406,0.0,1.8501,7.6825,5.7971,3.8462,5.614,1.0111,4.878,2.7564
4.6761,-0.88889,4.878,-0.98039,-7.767,-0.19417,-2.8986,2.8341,-8.8026,-0.98039,-7.767,-0.9901,2.8436,1.8501,7.6825,0.96618,0.96154,9.4418,-0.88468,8.7805,4.6795
6.5719,-10.413,-0.97561,0.0,-10.68,1.7476,-9.6618,4.7665,-11.715,0.0,-10.68,-4.9505,6.6351,1.8501,8.6349,-4.8309,0.0,15.183,-6.5719,14.634,1.7949
6.5719,-15.175,-4.878,1.9608,-7.767,3.6893,-10.628,6.6989,-11.715,1.9608,-7.767,-4.9505,5.6872,-1.9777,5.7778,-10.628,-0.96154,17.097,-10.363,13.659,-3.9744
-1.9589,-12.317,-6.8293,-1.9608,-9.7087,-1.165,-8.6957,4.7665,-9.7735,-1.9608,-9.7087,-7.9208,-3.7915,-5.8054,-0.88889,-11.594,-2.8846,9.4418,-4.6761,3.9024,-6.859
-7.6461,-8.5079,-5.8537,-5.8824,-6.7961,-6.9903,-8.6957,-0.06441,-9.7735,-5.8824,-6.7961,-9.901,-6.6351,-2.9346,-3.746,-8.6957,-2.8846,4.6571,-0.88468,-1.9512,-4.9359
-9.5419,-9.4603,-7.8049,-6.8627,-3.8835,-8.932,-10.628,-1.0306,-8.8026,-6.8627,-3.8835,-12.871,-1.8957,-5.8054,-6.6032,-9.6618,-6.7308,0.82935,-5.624,-2.9268,-5.8974
-7.6461,-10.413,-10.732,-0.98039,-4.8544,-6.9903,-7.7295,1.868,-5.89,-0.98039,-4.8544,-9.901,-0.94787,-5.8054,-6.6032,-11.594,-9.6154,-2.9984,-8.4676,-1.9512,-8.7821
-6.6983,-9.4603,-13.659,2.9412,-2.9126,-5.0485,-4.8309,3.8003,-2.0065,2.9412,-2.9126,-5.9406,1.8957,-0.0638,-3.746,-9.6618,-4.8077,-4.9123,-6.5719,-1.9512,-7.8205
-8.594,-2.7937,-10.732,4.902,2.9126,-2.1359,2.8986,2.8341,4.7896,4.902,2.9126,0.0,1.8957,5.6778,-4.6984,-1.9324,1.9231,-8.74,1.9589,-6.8293,-0.12821
-9.5419,1.0159,-6.8293,8.8235,3.8835,0.7767,7.7295,3.8003,9.644,8.8235,3.8835,4.9505,-5.6872,-0.0638,-11.365,-1.9324,-1.9231,-12.568,1.9589,-14.634,-2.0513
-5.7504,2.9206,-3.9024,2.9412,7.767,0.7767,5.7971,-0.06441,10.615,2.9412,7.767,4.9505,-5.6872,-4.8485,-12.317,-3.8647,-7.6923,-10.654,1.9589,-12.683,-7.8205
-3.8547,0.06349,-6.8293,0.0,5.8252,-2.1359,0.96618,-1.9968,6.7314,0.0,5.8252,-0.9901,-3.7915,-3.8915,-8.5079,-6.7633,-9.6154,-4.9123,-0.88468,-5.8537,-9.7436
-4.8025,-3.746,-10.732,-4.902,0.0,-5.0485,-1.9324,-1.9968,1.877,-4.902,0.0,-5.9406,-2.8436,-1.0207,-5.6508,-5.7971,-6.7308,1.7863,-3.7283,-2.9268,-5.8974
-5.7504,-3.746,-10.732,-6.8627,-0.97087,-5.0485,-2.8986,-1.9968,0.90615,-6.8627,-0.97087,-5.9406,1.8957,1.8501,-1.8413,1.9324,1.9231,4.6571,-2.7804,0.97561,-0.12821
0.88468,-3.746,-4.878,0.0,-0.97087,-1.165,-1.9324,2.8341,1.877,0.0,-0.97087,-2.9703,4.7393,1.8501,3.873,3.8647,5.7692,6.571,-3.7283,4.878,-0.12821
9.4155,-0.88889,1.9512,1.9608,0.97087,3.6893,0.96618,5.7327,1.877,1.9608,0.97087,1.9802,0.94787,-4.8485,6.7302,0.0,3.8462,8.4848,-5.624,4.878,-4.9359
11.311,1.0159,3.9024,3.9216,-2.9126,6.6019,0.0,6.6989,0.90615,3.9216,-2.9126,1.9802,0.94787,-4.8485,5.7778,-3.8647,-0.96154,8.4848,-3.7283,4.878,-4.9359
4.6761,-5.6508,-5.8537,-1.9608,-8.7379,1.7476,-4.8309,5.7327,-2.9773,-1.9608,-8.7379,-4.9505,-1.8957,-3.8915,0.06349,-8.6957,-7.6923,5.614,-5.624,0.97561,-4.9359
-1.9589,-10.413,-11.707,-7.8431,-7.767,-2.1359,-7.7295,4.7665,-5.89,-7.8431,-7.767,-8.9109,-6.6351,-2.9346,-3.746,-8.6957,-9.6154,2.7432,-6.5719,-0.97561,-4.9359
-8.594,-10.413,-7.8049,-5.8824,-6.7961,-6.0194,-6.7633,0.90177,-3.9482,-5.8824,-6.7961,-7.9208,-0.94787,-1.0207,-5.6508,-5.7971,-6.7308,-0.12759,-4.6761,0.97561,-4.9359
-14.281,-9.4603,-6.8293,-0.98039,-3.8835,-6.0194,-8.6957,-1.0306,-2.0065,-0.98039,-3.8835,-7.9208,-2.8436,-1.9777,-15.175,-7.7295,-11.538,-3.9553,-4.6761,-2.9268,-5.8974
-15.229,-8.5079,-6.8293,0.98039,0.97087,-6.0194,-6.7633,-2.963,-1.0356,0.98039,0.97087,-7.9208,-3.7915,0.89314,-17.079,-7.7295,-12.5,-5.8692,-3.7283,-5.8537,-2.0513
-12.385,-5.6508,-6.8293,-4.902,-5.8252,-9.9029,-4.8309,-6.8277,0.90615,-4.902,-5.8252,-10.891,0.0,0.89314,-11.365,-2.8986,-7.6923,-9.697,1.9589,-5.8537,2.7564
-10.49,1.9683,-6.8293,-9.8039,-1.9417,-10.874,-0.96618,-9.7262,4.7896,-9.8039,-1.9417,-8.9109,3.7915,2.807,-6.6032,4.8309,0.0,-11.611,8.594,-4.878,6.6026
-9.5419,6.7302,-6.8293,-4.902,1.9417,-8.932,2.8986,-8.7601,6.7314,-4.902,1.9417,-4.9505,0.94787,5.6778,-2.7937,7.7295,4.8077,-10.654,7.6461,-4.878,7.5641
-2.9068,9.5873,0.97561,-4.902,1.9417,-5.0485,5.7971,-6.8277,6.7314,-4.902,1.9417,-0.9901,3.7915,7.5917,2.9206,13.527,10.577,-7.7831,9.5419,-2.9268,9.4872
0.88468,3.873,4.878,-4.902,0.97087,-0.19417,0.96618,-2.963,5.7605,-4.902,0.97087,-1.9802,5.6872,6.6348,5.7778,11.594,13.462,-6.8262,6.6983,-4.878,8.5256
-4.8025,-8.5079,-1.9512,-7.8431,0.97087,-6.9903,-6.7633,-5.8615,1.877,-7.8431,0.97087,-8.9109,-0.94787,2.807,-0.88889,1.9324,4.8077,-7.7831,-2.7804,-8.7805,3.7179
-7.6461,-8.5079,-5.8537,-5.8824,-0.97087,-11.845,-7.7295,-7.7939,0.90615,-5.8824,-0.97087,-10.891,-0.94787,0.89314,-2.7937,-1.9324,0.96154,-5.8692,-1.8325,-6.8293,0.83333
-6.6983,-4.6984,-8.7805,0.0,-4.8544,-10.874,-6.7633,-4.8953,-2.0065,0.0,-4.8544,-10.891,-0.94787,-1.0207,-1.8413,-4.8309,-2.8846,-2.9984,-0.88468,-2.9268,-3.0128
-5.7504,-7.5556,-11.707,-5.8824,-7.767,-7.9612,-10.628,-1.0306,-4.9191,-5.8824,-7.767,-12.871,0.0,-3.8915,-1.8413,-7.7295,-6.7308,1.7863,-3.7283,0.97561,-6.859
-2.9068,-13.27,-8.7805,-7.8431,-11.65,-6.9903,-14.493,0.90177,-5.89,-7.8431,-11.65,-14.851,1.8957,-2.9346,1.9683,-8.6957,-2.8846,5.614,-5.624,4.878,-7.8205
2.7804,-14.222,-2.9268,-5.8824,-10.68,-4.0777,-12.56,2.8341,-6.8608,-5.8824,-10.68,-12.871,2.8436,-1.0207,8.6349,-5.7971,2.8846,9.4418,-8.4676,7.8049,-5.8974
3.7283,-9.4603,0.0,-6.8627,-12.621,-3.1068,-11.594,2.8341,-7.8317,-6.8627,-12.621,-11.881,2.8436,-1.9777,7.6825,-1.9324,3.8462,10.399,-7.5197,8.7805,-6.859
-0.06319,-5.6508,-4.878,-6.8627,-8.7379,-1.165,-10.628,2.8341,-6.8608,-6.8627,-8.7379,-8.9109,0.94787,-2.9346,0.06349,-2.8986,-1.9231,8.4848,-5.624,5.8537,-4.9359
-4.8025,-5.6508,-11.707,-0.98039,-1.9417,-0.19417,-7.7295,2.8341,-2.0065,-0.98039,-1.9417,-6.9307,-5.6872,-5.8054,-6.6032,-6.7633,-9.6154,4.6571,-1.8325,0.97561,-1.0897
-4.8025,-7.5556,-12.683,5.8824,0.97087,-2.1359,-4.8309,2.8341,1.877,5.8824,0.97087,-5.9406,-6.6351,-6.7624,-6.6032,-8.6957,-13.462,1.7863,2.9068,0.0,1.7949
-3.8547,-7.5556,-9.7561,1.9608,-2.9126,-5.0485,-5.7971,-0.06441,0.90615,1.9608,-2.9126,-7.9208,-8.5308,-5.8054,-5.6508,-7.7295,-13.462,-0.12759,1.9589,-3.9024,-0.12821
-1.0111,0.06349,-1.9512,-3.9216,-1.9417,-2.1359,-1.9324,-1.0306,0.90615,-3.9216,-1.9417,-1.9802,-7.5829,-6.7624,-4.6984,-0.96618,-6.7308,-2.0415,0.06319,-7.8049,-2.0513
-0.06319,8.6349,3.9024,4.902,3.8835,3.6893,5.7971,0.90177,3.8188,4.902,3.8835,5.9406,-4.7393,-2.9346,-4.6984,5.7971,0.0,-4.9123,1.0111,-12.683,0.83333
0.88468,6.7302,4.878,8.8235,6.7961,5.6311,5.7971,1.868,4.7896,8.8235,6.7961,7.9208,-1.8957,-1.0207,-1.8413,7.7295,3.8462,-3.9553,1.0111,-9.7561,2.7564
7.5197,3.873,9.7561,7.8431,5.8252,8.5437,4.8309,4.7665,3.8188,7.8431,5.8252,7.9208,3.7915,1.8501,8.6349,7.7295,7.6923,-1.0845,2.9068,0.0,2.7564
14.155,4.8254,14.634,6.8627,5.8252,11.456,5.7971,3.8003,2.8479,6.8627,5.8252,9.901,1.8957,2.807,14.349,8.6957,9.6154,0.82935,2.9068,1.9512,1.7949
11.311,7.6825,14.634,5.8824,5.8252,8.5437,4.8309,-0.06441,-0.06472,5.8824,5.8252,9.901,6.6351,5.6778,11.492,7.7295,7.6923,-0.12759,1.0111,1.9512,3.7179
-1.0111,4.8254,5.8537,0.98039,1.9417,1.7476,1.9324,-4.8953,-2.0065,0.98039,1.9417,4.9505,0.94787,7.5917,1.9683,5.7971,2.8846,-4.9123,1.0111,-3.9024,7.5641
-8.594,-0.88889,-2.9268,-1.9608,-3.8835,-5.0485,-2.8986,-8.7601,-2.0065,-1.9608,-3.8835,-2.9703,-0.94787,7.5917,-1.8413,3.8647,0.0,-7.7831,1.9589,-3.9024,8.5256
-3.8547,-3.746,-2.9268,-0.98039,-5.8252,-4.0777,-2.8986,-7.7939,-2.9773,-0.98039,-5.8252,-2.9703,6.6351,9.5056,3.873,3.8647,3.8462,-3.9553,1.0111,3.9024,7.5641
2.7804,-3.746,0.97561,0.0,-0.97087,0.7767,0.0,-4.8953,-3.9482,0.0,-0.97087,0.9901,6.6351,7.5917,7.6825,3.8647,6.7308,-2.9984,-2.7804,4.878,6.6026
2.7804,-0.88889,4.878,1.9608,0.0,0.7767,2.8986,-4.8953,-2.0065,1.9608,0.0,3.9604,5.6872,5.6778,7.6825,2.8986,7.6923,-2.9984,-1.8325,5.8537,4.6795
-1.0111,1.0159,3.9024,-1.9608,-0.97087,-3.1068,3.8647,-8.7601,-1.0356,-1.9608,-0.97087,1.9802,8.5308,4.7209,6.7302,0.96618,5.7692,-2.9984,0.06319,6.8293,-0.12821
