C3,C4,Cz,F1,F2,F3,F4,F7,F8,Fp1,Fp2,Fz,O1,O2,P3,P4,Pz,T3,T4,T5,T6
-10.837,-14.137,-16.964001,-5.8252,-3.9482,-12.44,-12.0,-8.8455,-7.0667,-5.8252,-3.9482,-13.462,-10.314,-12.618,-13.0,-13.861,-16.066999,-8.9769,-11.659,-8.7154,-16.296
-9.8522,-12.127,-14.983,-4.8544,-2.0065,-8.3162,-7.0,-7.8699,-1.0667,-4.8544,-2.0065,-10.577,-11.258,-8.7154,-13.0,-9.901,-14.067,-3.0363,-9.7262,-9.6911,-12.432
-7.8818,-9.1122,-11.023,-2.9126,-1.0356,-4.1924,-5.0,-4.9431,-1.0667,-2.9126,-1.0356,-6.7308,-11.258,-6.7642,-13.0,-6.9307,-12.067,-6.0066,-1.9968,-7.7398,-6.6345
-9.8522,-10.117,-11.023,-3.8835,-2.0065,-5.2234,-7.0,-5.9187,-7.0667,-3.8835,-2.0065,-7.6923,-16.917999,-9.6911,-16.0,-7.9208,-12.067,-9.967,-16.49,-12.618,-7.6006
-8.867,-12.127,-9.0429,-4.8544,-3.9482,-7.2852,-8.0,-7.8699,-6.0667,-4.8544,-3.9482,-7.6923,-21.635,-16.52,-15.0,-11.881,-12.067,-4.0264,-15.523,-13.593,-11.465
-4.9261,-9.1122,-4.0924,-3.8835,-2.0065,-6.2543,-5.0,-7.8699,-4.0667,-3.8835,-2.0065,-3.8462,-18.805,-15.545,-11.0,-9.901,-9.0667,-5.0165,-5.8615,-9.6911,-9.533
-5.9113,-9.1122,-6.0726,-5.8252,-1.0356,-5.2234,-4.0,-6.8943,-2.0667,-5.8252,-1.0356,-3.8462,-15.975,-14.569,-11.0,-10.891,-10.067,-3.0363,-4.8953,-9.6911,-9.533
-7.8818,-12.127,-9.0429,-5.8252,-2.0065,-5.2234,-5.0,-6.8943,-3.0667,-5.8252,-2.0065,-4.8077,-15.031,-15.545,-14.0,-14.851,-14.067,-4.0264,-2.963,-11.642,-13.398
-7.8818,-15.142,-12.013,-3.8835,-2.9773,-5.2234,-6.0,-5.9187,-4.0667,-3.8835,-2.9773,-4.8077,-11.258,-15.545,-13.0,-17.822001,-16.066999,-5.0165,-8.7601,-9.6911,-16.296
-8.867,-18.157,-15.974,-4.8544,-4.9191,-6.2543,-9.0,-4.9431,-9.0667,-4.8544,-4.9191,-7.6923,-9.3711,-15.545,-13.0,-20.792,-18.066999,-9.967,-8.7601,-7.7398,-20.160999
-8.867,-18.157,-18.944,-6.7961,-6.8608,-7.2852,-9.0,-3.9675,-10.067,-6.7961,-6.8608,-8.6538,-5.5975,-11.642,-13.0,-18.812,-18.066999,-6.9967,-20.354,-5.7886,-20.160999
-7.8818,-14.137,-16.964001,-5.8252,-3.9482,-6.2543,-7.0,-1.0407,-7.0667,-5.8252,-3.9482,-7.6923,-1.8239,-3.8374,-9.0,-12.871,-15.067,-5.0165,-17.455999,-1.8862,-11.465
-2.9557,-11.122,-13.003,-3.8835,-3.9482,-3.1615,-7.0,-2.9919,-4.0667,-3.8835,-3.9482,-5.7692,-4.6541,-0.91057,-7.0,-8.9109,-11.067,0.92409,-3.9291,1.0407,-5.6683
0.98522,-11.122,-10.033,-3.8835,-3.9482,-1.0997,-7.0,-2.0163,-0.06667,-3.8835,-3.9482,-5.7692,-7.4843,-2.8618,-5.0,-8.9109,-9.0667,1.9142,-1.9968,0.06504,-5.6683
1.9704,-9.1122,-6.0726,0.97087,-1.0356,0.9622,-4.0,1.8862,-0.06667,0.97087,-1.0356,-1.9231,-2.7673,1.0407,-1.0,-6.9307,-6.0667,1.9142,-1.9968,3.9675,-1.8035
-0.98522,-8.1072,-7.0627,1.9417,-0.06472,-0.06873,-3.0,1.8862,-5.0667,1.9417,-0.06472,-1.9231,-2.7673,0.06504,-2.0,-6.9307,-6.0667,4.8845,-2.963,0.06504,-2.7697
-3.9409,-12.127,-10.033,-0.97087,-2.9773,-1.0997,-5.0,0.91057,-6.0667,-0.97087,-2.9773,-4.8077,-5.5975,-4.813,-6.0,-11.881,-10.067,4.8845,-14.557,-6.7642,-7.6006
-2.9557,-14.137,-11.023,-0.97087,-2.0065,-0.06873,-5.0,1.8862,-3.0667,-0.97087,-2.0065,-3.8462,-12.201,-13.593,-10.0,-16.832001,-15.067,-2.0462,-14.557,-7.7398,-13.398
-7.8818,-16.146999,-13.993,-2.9126,-2.9773,-3.1615,-6.0,-2.9919,-1.0667,-2.9126,-2.9773,-5.7692,-22.579,-25.301001,-18.0,-22.771999,-22.066999,-12.937,-9.7262,-14.569,-22.093
-13.793,-17.152,-17.954,-4.8544,-3.9482,-9.3471,-8.0,-6.8943,-4.0667,-4.8544,-3.9482,-9.6154,-25.409,-31.153999,-22.0,-25.743,-25.066999,-10.957,-6.8277,-16.52,-25.958
-14.778,-14.137,-16.964001,-3.8835,-2.0065,-11.409,-7.0,-8.8455,-3.0667,-3.8835,-2.0065,-8.6538,-19.747999,-26.275999,-19.0,-21.782,-21.066999,-10.957,-2.963,-15.545,-22.093
-10.837,-11.122,-13.003,-0.97087,-0.06472,-8.3162,-6.0,-6.8943,1.9333,-0.97087,-0.06472,-5.7692,-14.088,-18.472,-14.0,-13.861,-14.067,-10.957,-11.659,-11.642,-14.364
-5.9113,-8.1072,-9.0429,0.0,-0.06472,-3.1615,-5.0,-4.9431,-2.0667,0.0,-0.06472,-2.8846,-10.314,-9.6911,-10.0,-6.9307,-8.0667,-3.0363,-5.8615,-6.7642,-4.7021
-4.9261,-5.0921,-8.0528,-1.9417,-0.06472,-4.1924,-4.0,-6.8943,-3.0667,-1.9417,-0.06472,-3.8462,-4.6541,-0.91057,-6.0,0.0,-4.0667,-9.967,4.7665,-2.8618,4.9597
-3.9409,-1.072,-8.0528,-4.8544,-2.0065,-6.2543,-3.0,-7.8699,-3.0667,-4.8544,-2.0065,-4.8077,4.7799,9.8211,-1.0,4.9505,0.93333,-2.0462,4.7665,2.9919,11.723
-4.9261,-3.0821,-9.0429,-6.7961,-4.9191,-8.3162,-5.0,-7.8699,-4.0667,-6.7961,-4.9191,-7.6923,3.8365,9.8211,-1.0,4.9505,0.93333,-3.0363,-2.963,1.0407,9.7907
-2.9557,-6.0972,-9.0429,-6.7961,-5.89,-7.2852,-6.0,-3.9675,-2.0667,-6.7961,-5.89,-8.6538,1.0063,4.9431,-2.0,0.9901,-0.06667,-2.0462,-2.963,0.06504,3.0274
-1.9704,-8.1072,-10.033,-5.8252,-4.9191,-7.2852,-7.0,-3.9675,-4.0667,-5.8252,-4.9191,-9.6154,0.06289,2.9919,-3.0,-2.9703,-3.0667,-1.0561,1.868,0.06504,-1.8035
0.0,-8.1072,-11.023,-4.8544,-3.9482,-4.1924,-5.0,-3.9675,-4.0667,-4.8544,-3.9482,-7.6923,1.0063,1.0407,-3.0,-5.9406,-6.0667,-6.0066,-8.7601,2.0163,-4.7021
1.9704,-8.1072,-8.0528,-1.9417,-2.0065,0.9622,-3.0,0.91057,-2.0667,-1.9417,-2.0065,-3.8462,-2.7673,-3.8374,-4.0,-9.901,-9.0667,1.9142,-8.7601,2.0163,-8.5668
1.9704,-7.1022,-6.0726,0.97087,-0.06472,3.0241,-1.0,4.813,0.93333,0.97087,-0.06472,-0.96154,-7.4843,-9.6911,-6.0,-13.861,-13.067,11.815,-1.9968,-0.91057,-10.499
2.9557,-5.0921,-4.0924,3.8835,1.877,4.055,3.0,6.7642,2.9333,3.8835,1.877,0.96154,-8.4277,-15.545,-6.0,-15.842,-14.067,13.795,-6.8277,0.06504,-14.364
2.9557,-5.0921,-3.1023,2.9126,2.8479,4.055,5.0,4.813,4.9333,2.9126,2.8479,1.9231,-11.258,-18.472,-6.0,-16.832001,-13.067,0.92409,-7.7939,-0.91057,-14.364
0.98522,-8.1072,-3.1023,1.9417,1.877,1.9931,3.0,1.8862,1.9333,1.9417,1.877,0.96154,-12.201,-18.472,-8.0,-14.851,-13.067,-5.0165,-1.0306,-4.813,-11.465
-3.9409,-11.122,-5.0825,-2.9126,-2.0065,-2.1306,-2.0,-1.0407,-1.0667,-2.9126,-2.0065,-3.8462,-14.088,-15.545,-11.0,-14.851,-13.067,-7.9868,-4.8953,-9.6911,-11.465
-3.9409,-7.1022,-5.0825,-4.8544,-2.0065,-3.1615,-2.0,-3.9675,0.93333,-4.8544,-2.0065,-3.8462,-10.314,-6.7642,-10.0,-7.9208,-10.067,-5.0165,-5.8615,-8.7154,-4.7021
0.0,-0.067,-1.1221,-0.97087,1.877,-0.06873,3.0,-2.0163,5.9333,-0.97087,1.877,0.0,-0.8805,4.9431,-2.0,0.9901,-2.0667,2.9043,2.8341,-0.91057,3.9936
2.9557,1.943,-0.13201,0.97087,4.7896,0.9622,4.0,0.91057,8.9333,0.97087,4.7896,0.96154,6.6667,10.797,2.0,4.9505,1.9333,8.8449,10.564,3.9675,8.8245
-0.98522,-2.0771,-4.0924,0.0,1.877,-1.0997,0.0,-0.06504,6.9333,0.0,1.877,-2.8846,5.7233,7.8699,1.0,1.9802,-0.06667,1.9142,4.7665,2.9919,4.9597
-0.98522,-1.072,-5.0825,0.0,1.877,-1.0997,1.0,0.91057,5.9333,0.0,1.877,-1.9231,8.5535,6.8943,2.0,0.0,-0.06667,-4.0264,0.90177,7.8699,3.0274
2.9557,1.943,-0.13201,1.9417,3.8188,1.9931,5.0,1.8862,8.9333,1.9417,3.8188,1.9231,12.327,8.8455,5.0,2.9703,2.9333,7.8548,2.8341,10.797,5.9259
-1.9704,-4.0871,-5.0825,-2.9126,0.90615,-3.1615,-1.0,-2.9919,5.9333,-2.9126,0.90615,-3.8462,5.7233,2.0163,-1.0,-2.9703,-3.0667,2.9043,2.8341,4.9431,-0.83736
-7.8818,-12.127,-13.993,-2.9126,-2.0065,-9.3471,-7.0,-3.9675,-3.0667,-2.9126,-2.0065,-10.577,-2.7673,-4.813,-9.0,-10.891,-12.067,0.92409,-5.8615,-2.8618,-7.6006
-4.9261,-9.1122,-12.013,0.97087,-0.06472,-4.1924,-6.0,0.91057,-4.0667,0.97087,-0.06472,-7.6923,-4.6541,-7.7398,-9.0,-11.881,-13.067,-3.0363,-5.8615,-3.8374,-7.6006
-0.98522,-5.0921,-7.0627,4.8544,2.8479,0.9622,-1.0,2.8618,-0.06667,4.8544,2.8479,-2.8846,-7.4843,-11.642,-9.0,-10.891,-14.067,-3.0363,-1.0306,-2.8618,-8.5668
-0.98522,-4.0871,-5.0825,3.8835,1.877,3.0241,1.0,5.7886,2.9333,3.8835,1.877,-0.96154,-12.201,-15.545,-11.0,-11.881,-15.067,5.8746,-2.963,-2.8618,-7.6006
-2.9557,-6.0972,-7.0627,1.9417,-1.0356,-0.06873,-3.0,4.813,-1.0667,1.9417,-1.0356,-2.8846,-13.145,-12.618,-13.0,-9.901,-15.067,-3.0363,-1.0306,-4.813,-3.7359
-2.9557,-2.0771,-4.0924,2.9126,-0.06472,-1.0997,0.0,6.7642,2.9333,2.9126,-0.06472,-1.9231,-3.7107,-1.8862,-7.0,-3.9604,-8.0667,-1.0561,-5.8615,1.0407,3.9936
-5.9113,-4.0871,-7.0627,0.97087,-1.0356,-4.1924,-1.0,2.8618,-1.0667,0.97087,-1.0356,-5.7692,-2.7673,-0.91057,-7.0,-2.9703,-7.0667,2.9043,-1.0306,-0.91057,3.0274
-2.9557,-3.0821,-7.0627,0.0,-1.0356,-3.1615,-1.0,1.8862,-3.0667,0.0,-1.0356,-5.7692,0.06289,2.0163,-3.0,0.0,-3.0667,-3.0363,1.868,1.0407,3.0274
4.9261,-0.067,-0.13201,2.9126,-0.06472,4.055,1.0,5.7886,-4.0667,2.9126,-0.06472,0.0,3.8365,5.9187,3.0,2.9703,1.9333,3.8944,-0.06441,3.9675,3.0274
7.8818,1.943,6.7987,4.8544,2.8479,8.1787,4.0,6.7642,-1.0667,4.8544,2.8479,5.7692,4.7799,4.9431,5.0,2.9703,3.9333,8.8449,-2.963,2.0163,-0.83736
9.8522,1.943,8.7789,8.7379,6.7314,12.302,8.0,12.618,3.9333,8.7379,6.7314,9.6154,-0.8805,-2.8618,3.0,0.0,0.93333,8.8449,-0.06441,1.0407,-4.7021
10.837,0.93802,7.7888,9.7087,8.6731,12.302,11.0,11.642,5.9333,9.7087,8.6731,11.538,-7.4843,-11.642,0.0,-5.9406,-5.0667,7.8548,-4.8953,-3.8374,-12.432
8.867,1.943,6.7987,9.7087,9.644,11.271,13.0,6.7642,6.9333,9.7087,9.644,11.538,-7.4843,-12.618,-1.0,-6.9307,-7.0667,-1.0561,-1.0306,-1.8862,-12.432
2.9557,0.93802,2.8383,8.7379,9.644,8.1787,12.0,4.813,7.9333,8.7379,9.644,9.6154,-5.5975,-9.6911,-2.0,-6.9307,-8.0667,0.92409,4.7665,3.9675,-7.6006
-2.9557,-4.0871,-3.1023,5.8252,7.7023,5.0859,8.0,2.8618,6.9333,5.8252,7.7023,5.7692,-6.5409,-9.6911,-6.0,-10.891,-12.067,5.8746,-4.8953,1.0407,-8.5668
-3.9409,-9.1122,-8.0528,6.7961,6.7314,4.055,5.0,2.8618,1.9333,6.7961,6.7314,3.8462,-5.5975,-7.7398,-8.0,-11.881,-15.067,5.8746,-3.9291,2.9919,-4.7021
-3.9409,-9.1122,-8.0528,8.7379,6.7314,3.0241,3.0,3.8374,0.93333,8.7379,6.7314,2.8846,-4.6541,-3.8374,-8.0,-10.891,-14.067,3.8944,1.868,3.9675,0.12882
-1.9704,-4.0871,-4.0924,8.7379,6.7314,4.055,3.0,3.8374,7.9333,8.7379,6.7314,2.8846,-4.6541,-1.8862,-6.0,-5.9406,-9.0667,0.92409,1.868,1.0407,3.0274
1.9704,3.9531,1.8482,6.7961,3.8188,3.0241,3.0,3.8374,4.9333,6.7961,3.8188,2.8846,2.8931,6.8943,0.0,3.9604,-0.06667,-0.06601,7.6651,0.06504,10.757
1.9704,6.9682,3.8284,1.9417,-0.06472,-0.06873,0.0,0.91057,-1.0667,1.9417,-0.06472,0.0,8.5535,12.748,4.0,9.901,5.9333,4.8845,13.462,-0.91057,14.622
1.9704,7.9732,3.8284,0.0,-0.06472,-1.0997,1.0,-1.0407,-2.0667,0.0,-0.06472,0.0,10.44,14.699,7.0,11.881,8.9333,-3.0363,6.6989,2.9919,14.622
5.9113,9.9832,6.7987,2.9126,2.8479,1.9931,5.0,1.8862,0.93333,2.9126,2.8479,1.9231,17.987,17.625999,13.0,13.861,12.933,3.8944,6.6989,10.797,11.723
7.8818,8.9782,8.7789,2.9126,0.90615,3.0241,4.0,4.813,1.9333,2.9126,0.90615,1.9231,18.931,15.675,14.0,12.871,13.933,8.8449,4.7665,13.724,7.8583
8.867,8.9782,10.759,2.9126,1.877,4.055,5.0,5.7886,2.9333,2.9126,1.877,2.8846,14.214,11.772,13.0,10.891,12.933,1.9142,2.8341,11.772,6.8921
8.867,4.9581,7.7888,3.8835,1.877,5.0859,4.0,8.7154,1.9333,3.8835,1.877,3.8462,9.4969,7.8699,9.0,6.9307,7.9333,4.8845,4.7665,8.8455,3.0274
5.9113,0.93802,3.8284,1.9417,1.877,3.0241,4.0,5.7886,2.9333,1.9417,1.877,1.9231,8.5535,5.9187,6.0,2.9703,2.9333,4.8845,6.6989,8.8455,0.12882
0.0,-3.0821,-3.1023,0.97087,1.877,-0.06873,3.0,2.8618,2.9333,0.97087,1.877,-0.96154,1.0063,-2.8618,0.0,-2.9703,-4.0667,1.9142,-4.8953,3.9675,-3.7359
-2.9557,-5.0921,-6.0726,4.8544,4.7896,1.9931,3.0,7.7398,2.9333,4.8544,4.7896,0.0,-2.7673,-4.813,-6.0,-5.9406,-9.0667,3.8944,-5.8615,2.0163,0.12882
-5.9113,-6.0972,-6.0726,7.767,7.7023,4.055,5.0,7.7398,5.9333,7.767,7.7023,2.8846,-4.6541,-1.8862,-10.0,-6.9307,-12.067,3.8944,4.7665,-2.8618,4.9597
-5.9113,-5.0921,-6.0726,7.767,7.7023,5.0859,8.0,5.7886,7.9333,7.767,7.7023,4.8077,-5.5975,0.06504,-11.0,-6.9307,-13.067,0.92409,3.8003,-6.7642,5.9259
-4.9261,-4.0871,-6.0726,5.8252,5.7605,3.0241,7.0,4.813,6.9333,5.8252,5.7605,2.8846,-8.4277,-0.91057,-11.0,-6.9307,-12.067,-1.0561,0.90177,-11.642,3.9936
-0.98522,0.93802,-3.1023,5.8252,5.7605,3.0241,6.0,6.7642,5.9333,5.8252,5.7605,2.8846,-5.5975,1.0407,-7.0,-1.9802,-7.0667,-9.967,3.8003,-11.642,3.9936
3.9409,3.9531,-0.13201,6.7961,6.7314,5.0859,5.0,6.7642,5.9333,6.7961,6.7314,4.8077,-0.8805,2.0163,0.0,1.9802,-1.0667,1.9142,1.868,-8.7154,3.0274
7.8818,5.9631,4.8185,8.7379,6.7314,9.2096,6.0,8.7154,2.9333,8.7379,6.7314,6.7308,3.8365,2.9919,6.0,4.9505,3.9333,9.835,6.6989,-2.8618,0.12882
7.8818,6.9682,6.7987,9.7087,6.7314,11.271,8.0,10.667,1.9333,9.7087,6.7314,8.6538,3.8365,0.06504,7.0,2.9703,4.9333,2.9043,4.7665,2.0163,-3.7359
6.8966,2.9481,4.8185,6.7961,3.8188,7.1478,5.0,8.7154,-0.06667,6.7961,3.8188,5.7692,3.8365,-0.91057,8.0,0.0,4.9333,9.835,2.8341,6.8943,-5.6683
7.8818,-0.067,2.8383,6.7961,4.7896,6.1168,2.0,8.7154,1.9333,6.7961,4.7896,2.8846,6.6667,-0.91057,7.0,-1.9802,2.9333,8.8449,-7.7939,12.748,-8.5668
0.98522,-6.0972,-3.1023,3.8835,2.8479,0.9622,-4.0,7.7398,-1.0667,3.8835,2.8479,-3.8462,2.8931,-0.91057,0.0,-5.9406,-3.0667,6.8647,-6.8277,7.8699,-10.499
-6.8966,-11.122,-8.0528,0.0,-1.0356,-4.1924,-8.0,2.8618,-3.0667,0.0,-1.0356,-8.6538,-4.6541,0.06504,-9.0,-7.9208,-9.0667,2.9043,-0.06441,-2.8618,-4.7021
-9.8522,-10.117,-9.0429,-0.97087,-2.0065,-5.2234,-6.0,-0.06504,-1.0667,-0.97087,-2.0065,-7.6923,-9.3711,-2.8618,-12.0,-7.9208,-11.067,-12.937,-3.9291,-3.8374,-2.7697
-8.867,-9.1122,-7.0627,0.0,-2.0065,-4.1924,-5.0,3.8374,-5.0667,0.0,-2.0065,-5.7692,-2.7673,0.06504,-8.0,-4.9505,-9.0667,-2.0462,-2.963,-0.91057,0.12882
-8.867,-9.1122,-6.0726,0.97087,-2.0065,-4.1924,-6.0,4.813,-1.0667,0.97087,-2.0065,-6.7308,1.0063,3.9675,-6.0,-3.9604,-7.0667,2.9043,-5.8615,-1.8862,2.0612
-11.823,-12.127,-10.033,-1.9417,-3.9482,-7.2852,-9.0,1.8862,-3.0667,-1.9417,-3.9482,-9.6154,-5.5975,-1.8862,-10.0,-6.9307,-10.067,-3.0363,-10.692,-7.7398,-3.7359
-8.867,-10.117,-9.0429,0.0,-2.0065,-5.2234,-7.0,4.813,-3.0667,0.0,-2.0065,-8.6538,-5.5975,-4.813,-8.0,-5.9406,-9.0667,-6.0066,-4.8953,-5.7886,-4.7021
-4.9261,-4.0871,-5.0825,3.8835,2.8479,-2.1306,-2.0,3.8374,0.93333,3.8835,2.8479,-2.8846,-1.8239,-3.8374,-4.0,-3.9604,-6.0667,-3.0363,0.90177,-1.8862,-4.7021
-3.9409,-1.072,-4.0924,6.7961,5.7605,-0.06873,1.0,3.8374,2.9333,6.7961,5.7605,0.96154,-2.7673,-6.7642,-5.0,-4.9505,-6.0667,3.8944,-1.9968,-2.8618,-7.6006
-3.9409,-3.0821,-4.0924,5.8252,5.7605,-0.06873,0.0,4.813,6.9333,5.8252,5.7605,0.96154,-3.7107,-9.6911,-6.0,-6.9307,-7.0667,3.8944,-2.963,-2.8618,-13.398
-1.9704,-3.0821,-1.1221,3.8835,3.8188,0.9622,-3.0,3.8374,-0.06667,3.8835,3.8188,0.0,-3.7107,-8.7154,-5.0,-5.9406,-5.0667,-6.9967,-9.7262,-3.8374,-13.398
-0.98522,-4.0871,-0.13201,4.8544,3.8188,3.0241,-2.0,3.8374,-5.0667,4.8544,3.8188,0.96154,-8.4277,-9.6911,-6.0,-5.9406,-5.0667,-8.9769,-10.692,-7.7398,-12.432
-0.98522,-4.0871,0.85809,7.767,7.7023,5.0859,1.0,6.7642,1.9333,7.767,7.7023,3.8462,-7.4843,-5.7886,-6.0,-4.9505,-5.0667,-0.06601,-3.9291,-8.7154,-9.533
-1.9704,-5.0921,-1.1221,10.68,9.644,6.1168,2.0,8.7154,2.9333,10.68,9.644,4.8077,-8.4277,-5.7886,-7.0,-5.9406,-6.0667,2.9043,-1.0306,-9.6911,-10.499
-5.9113,-10.117,-6.0726,8.7379,7.7023,3.0241,-1.0,5.7886,-2.0667,8.7379,7.7023,1.9231,-10.314,-9.6911,-10.0,-9.901,-9.0667,-4.0264,-9.7262,-13.593,-15.33
-3.9409,-10.117,-5.0825,9.7087,9.644,5.0859,1.0,5.7886,0.93333,9.7087,9.644,2.8846,-5.5975,-6.7642,-7.0,-8.9109,-7.0667,-4.0264,-3.9291,-5.7886,-12.432
-0.98522,-7.1022,-3.1023,8.7379,9.644,6.1168,2.0,4.813,4.9333,8.7379,9.644,3.8462,-4.6541,-5.7886,-3.0,-6.9307,-5.0667,-3.0363,-1.9968,-0.91057,-10.499
-0.98522,-7.1022,-4.0924,5.8252,6.7314,5.0859,2.0,5.7886,4.9333,5.8252,6.7314,2.8846,-5.5975,-6.7642,-4.0,-8.9109,-6.0667,-2.0462,-10.692,-2.8618,-11.465
-0.98522,-6.0972,-5.0825,2.9126,4.7896,1.9931,2.0,3.8374,5.9333,2.9126,4.7896,0.96154,-3.7107,-6.7642,-4.0,-8.9109,-7.0667,-0.06601,-4.8953,-3.8374,-9.533
-4.9261,-7.1022,-9.0429,1.9417,4.7896,-1.0997,2.0,0.91057,5.9333,1.9417,4.7896,-0.96154,-7.4843,-8.7154,-7.0,-9.901,-10.067,-4.0264,5.7327,-4.813,-9.533
-6.8966,-6.0972,-9.0429,0.97087,3.8188,-1.0997,1.0,1.8862,5.9333,0.97087,3.8188,0.0,-11.258,-11.642,-9.0,-10.891,-13.067,0.92409,-0.06441,-4.813,-11.465
-3.9409,0.93802,-3.1023,4.8544,6.7314,3.0241,6.0,2.8618,4.9333,4.8544,6.7314,5.7692,-9.3711,-9.6911,-6.0,-6.9307,-9.0667,-2.0462,2.8341,-5.7886,-6.6345
-0.98522,6.9682,2.8383,10.68,10.615,9.2096,11.0,6.7642,7.9333,10.68,10.615,10.577,-9.3711,-8.7154,-6.0,-2.9703,-6.0667,-3.0363,7.6651,-8.7154,-4.7021
-0.98522,5.9631,3.8284,11.65,12.557,10.241,11.0,8.7154,10.933,11.65,12.557,11.538,-10.314,-8.7154,-7.0,-2.9703,-6.0667,2.9043,-1.9968,-8.7154,-6.6345
0.0,2.9481,1.8482,10.68,12.557,8.1787,10.0,6.7642,8.9333,10.68,12.557,9.6154,-10.314,-7.7398,-8.0,-3.9604,-7.0667,0.92409,-9.7262,-9.6911,-6.6345
-3.9409,-4.0871,-3.1023,7.767,9.644,4.055,6.0,3.8374,4.9333,7.767,9.644,5.7692,-13.145,-11.642,-12.0,-9.901,-12.067,-6.9967,-6.8277,-12.618,-9.533
-9.8522,-10.117,-8.0528,4.8544,5.7605,-0.06873,1.0,1.8862,-0.06667,4.8544,5.7605,1.9231,-15.975,-14.569,-16.0,-14.851,-17.066999,-6.9967,-2.963,-12.618,-13.398
-7.8818,-10.117,-6.0726,5.8252,6.7314,0.9622,1.0,4.813,0.93333,5.8252,6.7314,3.8462,-13.145,-13.593,-14.0,-13.861,-15.067,-0.06601,-3.9291,-8.7154,-14.364
-4.9261,-7.1022,-1.1221,6.7961,9.644,1.9931,3.0,3.8374,5.9333,6.7961,9.644,5.7692,-6.5409,-10.667,-9.0,-10.891,-9.0667,-6.9967,-7.7939,-5.7886,-14.364
-0.98522,-4.0871,1.8482,8.7379,11.586,3.0241,5.0,3.8374,5.9333,8.7379,11.586,7.6923,-0.8805,-5.7886,-4.0,-5.9406,-4.0667,-6.9967,-13.591,0.06504,-11.465
-2.9557,-5.0921,-0.13201,5.8252,8.6731,-0.06873,2.0,3.8374,3.9333,5.8252,8.6731,2.8846,-3.7107,-5.7886,-3.0,-4.9505,-4.0667,1.9142,-9.7262,2.9919,-9.533
-5.9113,-7.1022,-6.0726,3.8835,5.7605,-4.1924,-2.0,6.7642,0.93333,3.8835,5.7605,-2.8846,-7.4843,-8.7154,-5.0,-5.9406,-6.0667,2.9043,-0.06441,-0.91057,-9.533
-4.9261,-6.0972,-7.0627,1.9417,3.8188,-5.2234,-4.0,3.8374,-4.0667,1.9417,3.8188,-3.8462,-6.5409,-8.7154,-3.0,-6.9307,-6.0667,1.9142,0.90177,-1.8862,-8.5668
-0.98522,-4.0871,-4.0924,2.9126,2.8479,-4.1924,-4.0,3.8374,-5.0667,2.9126,2.8479,-3.8462,-5.5975,-6.7642,-1.0,-4.9505,-4.0667,3.8944,-1.0306,-3.8374,-5.6683
1.9704,1.943,0.85809,5.8252,5.7605,-0.06873,-1.0,7.7398,-0.06667,5.8252,5.7605,0.0,-2.7673,-1.8862,2.0,0.9901,0.93333,5.8746,6.6989,-2.8618,1.095
5.9113,6.9682,5.8086,7.767,7.7023,6.1168,5.0,7.7398,4.9333,7.767,7.7023,5.7692,-4.6541,-0.91057,2.0,2.9703,3.9333,4.8845,-4.8953,-2.8618,4.9597
3.9409,1.943,3.8284,8.7379,8.6731,7.1478,5.0,7.7398,5.9333,8.7379,8.6731,6.7308,-8.4277,-4.813,-2.0,-2.9703,-1.0667,1.9142,-5.8615,-4.813,-0.83736
-2.9557,-10.117,-5.0825,8.7379,6.7314,3.0241,-1.0,7.7398,2.9333,8.7379,6.7314,1.9231,-10.314,-9.6911,-9.0,-12.871,-11.067,-0.06601,-2.963,-5.7886,-9.533
-6.8966,-13.132,-9.0429,6.7961,2.8479,0.9622,-5.0,8.7154,-5.0667,6.7961,2.8479,-1.9231,-13.145,-15.545,-12.0,-17.822001,-17.066999,-7.9868,-6.8277,-3.8374,-15.33
-8.867,-11.122,-8.0528,3.8835,-0.06472,-1.0997,-5.0,4.813,-8.0667,3.8835,-0.06472,-2.8846,-13.145,-19.447001,-11.0,-17.822001,-16.066999,-4.0264,-13.591,-3.8374,-20.160999
-3.9409,-11.122,-5.0825,2.9126,-1.0356,-0.06873,-5.0,3.8374,-7.0667,2.9126,-1.0356,-2.8846,-10.314,-17.496,-6.0,-15.842,-12.067,4.8845,-18.422001,0.06504,-20.160999
2.9557,-10.117,-3.1023,2.9126,-0.06472,1.9931,-6.0,7.7398,-9.0667,2.9126,-0.06472,-0.96154,-2.7673,-8.7154,1.0,-8.9109,-5.0667,4.8845,-10.692,4.9431,-12.432
4.9261,-8.1072,-1.1221,3.8835,1.877,3.0241,-5.0,7.7398,-7.0667,3.8835,1.877,-0.96154,1.9497,-2.8618,4.0,-2.9703,0.93333,5.8746,-2.963,2.9919,-6.6345
7.8818,-2.0771,2.8383,6.7961,5.7605,5.0859,-1.0,7.7398,-0.06667,6.7961,5.7605,1.9231,11.384,7.8699,10.0,5.9406,7.9333,9.835,0.90177,6.8943,1.095
9.8522,5.9631,5.8086,10.68,8.6731,8.1787,3.0,10.667,3.9333,10.68,8.6731,4.8077,15.157,15.675,13.0,13.861,13.933,2.9043,10.564,10.797,11.723
11.823,9.9832,7.7888,13.592,10.615,12.302,7.0,15.545,3.9333,13.592,10.615,8.6538,12.327,14.699,14.0,16.832001,16.933001,0.92409,1.868,9.8211,11.723
11.823,12.998,11.749,13.592,10.615,12.302,11.0,9.6911,5.9333,13.592,10.615,12.5,8.5535,10.797,14.0,16.832001,16.933001,5.8746,8.6312,10.797,9.7907
4.9261,11.993,10.759,10.68,9.644,8.1787,12.0,4.813,4.9333,10.68,9.644,13.462,-0.8805,0.06504,6.0,9.901,9.9333,5.8746,1.868,2.9919,3.0274
2.9557,8.9782,9.769,10.68,10.615,10.241,13.0,8.7154,2.9333,10.68,10.615,13.462,-4.6541,-4.813,1.0,3.9604,3.9333,6.8647,-1.0306,-2.8618,0.12882
0.0,4.9581,4.8185,10.68,9.644,10.241,11.0,8.7154,4.9333,10.68,9.644,11.538,-7.4843,-7.7398,-4.0,-2.9703,-3.0667,1.9142,4.7665,-5.7886,-0.83736
-4.9261,0.93802,-0.13201,9.7087,9.644,9.2096,9.0,6.7642,5.9333,9.7087,9.644,9.6154,-4.6541,-7.7398,-7.0,-6.9307,-7.0667,0.92409,5.7327,-5.7886,-5.6683
-8.867,-1.072,-4.0924,8.7379,7.7023,5.0859,6.0,6.7642,-0.06667,8.7379,7.7023,5.7692,-0.8805,-2.8618,-7.0,-8.9109,-8.0667,-3.0363,-2.963,-2.8618,-5.6683
-12.808,-6.0972,-7.0627,4.8544,3.8188,-1.0997,0.0,1.8862,-2.0667,4.8544,3.8188,0.0,-6.5409,-5.7886,-12.0,-10.891,-11.067,-2.0462,-7.7939,-3.8374,-7.6006
-13.793,-10.117,-10.033,1.9417,0.90615,-5.2234,-4.0,-0.06504,-3.0667,1.9417,0.90615,-4.8077,-11.258,-6.7642,-14.0,-10.891,-12.067,-1.0561,-2.963,-7.7398,-9.533
-9.8522,-6.0972,-8.0528,1.9417,0.90615,-3.1615,-4.0,1.8862,-1.0667,1.9417,0.90615,-3.8462,-6.5409,-1.8862,-9.0,-4.9505,-6.0667,-1.0561,2.8341,-4.813,-4.7021
-4.9261,-2.0771,-3.1023,3.8835,2.8479,-0.06873,-1.0,3.8374,2.9333,3.8835,2.8479,-0.96154,-3.7107,0.06504,-4.0,0.9901,-1.0667,-1.0561,2.8341,-0.91057,0.12882
-2.9557,1.943,-1.1221,4.8544,3.8188,-1.0997,-1.0,3.8374,2.9333,4.8544,3.8188,-0.96154,-2.7673,2.0163,-3.0,5.9406,2.9333,0.92409,7.6651,-0.91057,3.9936
0.0,6.9682,2.8383,4.8544,5.7605,0.9622,2.0,3.8374,6.9333,4.8544,5.7605,0.96154,-0.8805,4.9431,1.0,10.891,6.9333,-3.0363,13.462,-2.8618,8.8245
4.9261,8.9782,6.7987,5.8252,5.7605,4.055,5.0,3.8374,7.9333,5.8252,5.7605,3.8462,1.9497,4.9431,5.0,11.881,8.9333,-2.0462,5.7327,0.06504,9.7907
9.8522,10.988,11.749,6.7961,7.7023,8.1787,7.0,6.7642,7.9333,6.7961,7.7023,6.7308,6.6667,6.8943,11.0,11.881,12.933,9.835,5.7327,7.8699,9.7907
10.837,10.988,12.739,7.767,8.6731,8.1787,8.0,7.7398,8.9333,7.767,8.6731,8.6538,8.5535,5.9187,13.0,10.891,12.933,15.776,12.496,8.8455,8.8245
8.867,8.9782,9.769,7.767,8.6731,8.1787,8.0,7.7398,8.9333,7.767,8.6731,7.6923,8.5535,2.9919,12.0,7.9208,9.9333,-1.0561,10.564,9.8211,6.8921
5.9113,6.9682,5.8086,7.767,9.644,9.2096,8.0,7.7398,9.9333,7.767,9.644,6.7308,10.44,2.9919,12.0,3.9604,6.9333,0.92409,8.6312,13.724,6.8921
0.98522,4.9581,1.8482,7.767,8.6731,7.1478,7.0,4.813,9.9333,7.767,8.6731,5.7692,8.5535,4.9431,7.0,1.9802,2.9333,5.8746,10.564,7.8699,5.9259
-2.9557,3.9531,0.85809,6.7961,5.7605,5.0859,6.0,1.8862,5.9333,6.7961,5.7605,5.7692,3.8365,3.9675,1.0,0.0,-0.06667,-2.0462,6.6989,2.0163,5.9259
-0.98522,2.9481,3.8284,4.8544,3.8188,5.0859,6.0,0.91057,2.9333,4.8544,3.8188,6.7308,-0.8805,0.06504,0.0,-1.9802,-1.0667,2.9043,10.564,1.0407,3.0274
2.9557,5.9631,8.7789,4.8544,5.7605,5.0859,8.0,-2.9919,5.9333,4.8544,5.7605,7.6923,0.06289,-0.91057,2.0,-0.9901,1.9333,5.8746,8.6312,2.0163,1.095
2.9557,8.9782,10.759,3.8835,6.7314,5.0859,8.0,-4.9431,5.9333,3.8835,6.7314,8.6538,1.9497,-0.91057,3.0,1.9802,4.9333,-4.0264,3.8003,2.0163,-1.8035
3.9409,10.988,10.759,3.8835,6.7314,5.0859,10.0,-2.9919,6.9333,3.8835,6.7314,9.6154,1.0063,1.0407,4.0,5.9406,7.9333,0.92409,6.6989,1.0407,-2.7697
9.8522,15.008,12.739,4.8544,8.6731,8.1787,13.0,-1.0407,10.933,4.8544,8.6731,11.538,6.6667,7.8699,9.0,13.861,13.933,7.8548,14.428,4.9431,4.9597
15.764,18.023001,16.700001,4.8544,8.6731,11.271,15.0,2.8618,11.933,4.8544,8.6731,13.462,12.327,14.699,14.0,18.812,18.933001,5.8746,12.496,6.8943,9.7907
16.749001,21.039,18.68,4.8544,8.6731,11.271,17.0,1.8862,12.933,4.8544,8.6731,13.462,15.157,15.675,16.0,21.782,20.933001,-0.06601,12.496,8.8455,10.757
13.793,18.023001,14.719,5.8252,8.6731,9.2096,15.0,-0.06504,11.933,5.8252,8.6731,12.5,11.384,13.724,14.0,19.802,17.933001,4.8845,14.428,7.8699,10.757
8.867,12.998,7.7888,3.8835,8.6731,5.0859,12.0,-2.9919,9.9333,3.8835,8.6731,10.577,6.6667,7.8699,10.0,13.861,11.933,10.825,8.6312,4.9431,7.8583
8.867,8.9782,4.8185,0.97087,6.7314,3.0241,8.0,-3.9675,8.9333,0.97087,6.7314,6.7308,6.6667,5.9187,10.0,9.901,9.9333,5.8746,4.7665,11.772,5.9259
6.8966,6.9682,1.8482,0.0,4.7896,3.0241,6.0,-2.9919,7.9333,0.0,4.7896,3.8462,10.44,6.8943,11.0,7.9208,8.9333,1.9142,4.7665,16.65,7.8583
2.9557,2.9481,-2.1122,-0.97087,1.877,-0.06873,1.0,-3.9675,6.9333,-0.97087,1.877,0.0,11.384,6.8943,7.0,4.9505,3.9333,-0.06601,3.8003,13.724,8.8245
-1.9704,-3.0821,-8.0528,-3.8835,-1.0356,-5.2234,-4.0,-2.9919,-2.0667,-3.8835,-1.0356,-5.7692,10.44,6.8943,3.0,0.9901,-1.0667,5.8746,5.7327,8.8455,8.8245
-6.8966,-7.1022,-13.003,-5.8252,-3.9482,-8.3162,-6.0,-3.9675,-5.0667,-5.8252,-3.9482,-7.6923,6.6667,6.8943,-3.0,-2.9703,-6.0667,7.8548,5.7327,2.9919,6.8921
-5.9113,-9.1122,-12.013,-4.8544,-2.9773,-7.2852,-4.0,-5.9187,-3.0667,-4.8544,-2.9773,-6.7308,2.8931,3.9675,-6.0,-7.9208,-9.0667,2.9043,0.90177,-0.91057,2.0612
0.0,-4.0871,-3.1023,-1.9417,-0.06472,-3.1615,-1.0,-3.9675,1.9333,-1.9417,-0.06472,-2.8846,4.7799,2.0163,1.0,-4.9505,-3.0667,-4.0264,3.8003,5.9187,1.095
4.9261,3.9531,4.8185,-2.9126,-2.0065,-1.0997,1.0,-3.9675,4.9333,-2.9126,-2.0065,-0.96154,7.6101,4.9431,6.0,0.9901,4.9333,-3.0363,10.564,8.8455,3.0274
5.9113,7.9732,6.7987,-5.8252,-3.9482,-2.1306,2.0,-5.9187,1.9333,-5.8252,-3.9482,-0.96154,10.44,7.8699,9.0,5.9406,9.9333,3.8944,-1.9968,7.8699,2.0612
10.837,15.008,12.739,-4.8544,-1.0356,-0.06873,7.0,-3.9675,4.9333,-4.8544,-1.0356,2.8846,16.101,14.699,16.0,15.842,17.933001,6.8647,1.868,14.699,7.8583
12.808,18.023001,14.719,-5.8252,-1.0356,-1.0997,9.0,-3.9675,6.9333,-5.8252,-1.0356,3.8462,20.818001,22.504,21.0,24.752001,23.933001,11.815,17.327,25.431,15.588
7.8818,9.9832,6.7987,-5.8252,-2.0065,-4.1924,3.0,-2.9919,5.9333,-5.8252,-2.0065,-1.9231,20.818001,21.528,15.0,21.782,18.933001,10.825,13.462,19.577,13.655
5.9113,6.9682,1.8482,-2.9126,1.877,-2.1306,3.0,-2.9919,4.9333,-2.9126,1.877,-1.9231,16.101,15.675,11.0,16.832001,14.933,3.8944,6.6989,9.8211,10.757
7.8818,8.9782,2.8383,1.9417,4.7896,4.055,5.0,0.91057,3.9333,1.9417,4.7896,2.8846,15.157,13.724,12.0,15.842,13.933,7.8548,1.868,10.797,9.7907
9.8522,8.9782,4.8185,2.9126,4.7896,6.1168,5.0,1.8862,2.9333,2.9126,4.7896,3.8462,12.327,10.797,11.0,13.861,12.933,6.8647,-1.9968,9.8211,9.7907
12.808,8.9782,7.7888,2.9126,2.8479,7.1478,5.0,1.8862,0.93333,2.9126,2.8479,5.7692,11.384,11.772,13.0,13.861,13.933,4.8845,-2.963,10.797,13.655
9.8522,5.9631,6.7987,0.0,1.877,5.0859,3.0,-0.06504,0.93333,0.0,1.877,3.8462,8.5535,10.797,10.0,11.881,10.933,1.9142,0.90177,7.8699,13.655
5.9113,4.9581,4.8185,0.97087,2.8479,5.0859,4.0,-1.0407,4.9333,0.97087,2.8479,3.8462,3.8365,6.8943,4.0,6.9307,4.9333,-0.06601,0.90177,3.9675,10.757
-1.9704,-2.0771,-4.0924,-1.9417,0.90615,-0.06873,0.0,-4.9431,5.9333,-1.9417,0.90615,0.0,-2.7673,3.9675,-6.0,0.9901,-4.0667,-0.06601,1.868,-4.813,7.8583
-11.823,-13.132,-14.983,-6.7961,-3.9482,-8.3162,-9.0,-7.8699,-2.0667,-6.7961,-3.9482,-9.6154,-9.3711,-2.8618,-17.0,-6.9307,-14.067,-6.0066,0.90177,-16.52,1.095
-15.764,-18.157,-17.954,-8.7379,-7.8317,-12.44,-13.0,-10.797,-9.0667,-8.7379,-7.8317,-13.462,-11.258,-5.7886,-20.0,-10.891,-17.066999,-6.0066,-2.963,-19.447001,-4.7021
-16.749001,-18.157,-16.964001,-12.621,-9.7735,-17.594999,-15.0,-14.699,-9.0667,-12.621,-9.7735,-15.385,-10.314,-6.7642,-18.0,-12.871,-16.066999,-11.947,-0.06441,-16.52,-8.5668
-13.793,-9.1122,-10.033,-9.7087,-6.8608,-14.502,-8.0,-9.8211,-4.0667,-9.7087,-6.8608,-10.577,-6.5409,-2.8618,-13.0,-9.901,-10.067,-14.917,-9.7262,-15.545,-8.5668
-6.8966,1.943,-0.13201,-6.7961,-3.9482,-9.3471,-1.0,-9.8211,1.9333,-6.7961,-3.9482,-3.8462,0.06289,2.0163,-6.0,-1.9802,-2.0667,-16.898001,-8.7601,-14.569,-3.7359
0.0,9.9832,7.7888,-4.8544,-2.0065,-4.1924,4.0,-5.9187,4.9333,-4.8544,-2.0065,0.96154,3.8365,2.9919,0.0,3.9604,4.9333,-1.0561,-7.7939,-10.667,-1.8035
4.9261,10.988,10.759,-4.8544,-2.9773,-2.1306,4.0,-3.9675,1.9333,-4.8544,-2.9773,1.9231,4.7799,2.0163,5.0,4.9505,6.9333,0.92409,-14.557,-0.91057,-0.83736
6.8966,7.9732,11.749,-5.8252,-3.9482,-1.0997,1.0,-5.9187,-1.0667,-5.8252,-3.9482,0.0,6.6667,3.9675,9.0,6.9307,9.9333,0.92409,1.868,5.9187,2.0612
11.823,7.9732,12.739,-3.8835,-4.9191,0.9622,1.0,-2.0163,-12.067,-3.8835,-4.9191,0.0,12.327,10.797,15.0,10.891,13.933,7.8548,10.564,12.748,9.7907
14.778,9.9832,12.739,-3.8835,-6.8608,-0.06873,-1.0,-2.0163,-13.067,-3.8835,-6.8608,0.0,16.101,16.65,19.0,14.851,16.933001,0.92409,5.7327,17.625999,15.588
13.793,10.988,11.749,-5.8252,-7.8317,-0.06873,-3.0,-2.0163,-4.0667,-5.8252,-7.8317,-1.9231,17.044001,17.625999,20.0,15.842,18.933001,2.9043,6.6989,19.577,16.554001
13.793,14.003,13.729,-4.8544,-5.89,3.0241,1.0,-2.0163,1.9333,-4.8544,-5.89,0.96154,17.044001,17.625999,19.0,17.822001,19.933001,6.8647,9.5974,15.675,18.486
13.793,15.008,14.719,0.0,-0.06472,8.1787,8.0,0.91057,7.9333,0.0,-0.06472,7.6923,13.27,15.675,15.0,18.812,18.933001,1.9142,-0.06441,8.8455,17.52
4.9261,5.9631,6.7987,0.0,-0.06472,6.1168,6.0,-0.06504,4.9333,0.0,-0.06472,5.7692,1.0063,5.9187,1.0,9.901,7.9333,-3.0363,2.8341,-2.8618,10.757
-3.9409,-5.0921,-4.0924,-0.97087,-2.0065,1.9931,-1.0,-2.0163,-1.0667,-0.97087,-2.0065,0.0,-9.3711,-2.8618,-13.0,-0.9901,-6.0667,-1.0561,10.564,-16.52,3.0274
-8.867,-11.122,-11.023,-2.9126,-3.9482,-1.0997,-7.0,-3.9675,-4.0667,-2.9126,-3.9482,-4.8077,-13.145,-5.7886,-18.0,-6.9307,-15.067,-9.967,-2.963,-20.423,-0.83736
-10.837,-14.137,-13.993,-6.7961,-6.8608,-6.2543,-11.0,-8.8455,-6.0667,-6.7961,-6.8608,-9.6154,-8.4277,-2.8618,-16.0,-7.9208,-15.067,-16.898001,-13.591,-15.545,-2.7697
-10.837,-15.142,-13.993,-10.68,-11.715,-11.409,-14.0,-10.797,-6.0667,-10.68,-11.715,-13.462,-1.8239,-0.91057,-10.0,-7.9208,-12.067,-12.937,-31.948,-9.6911,-7.6006
-9.8522,-16.146999,-13.993,-13.592,-14.628,-15.533,-16.0,-12.748,-10.067,-13.592,-14.628,-16.346001,5.7233,2.0163,-4.0,-5.9406,-8.0667,-12.937,-8.7601,-3.8374,-7.6006
-6.8966,-15.142,-10.033,-13.592,-14.628,-15.533,-18.0,-12.748,-13.067,-13.592,-14.628,-16.346001,13.27,6.8943,3.0,-0.9901,-0.06667,-7.9868,9.5974,4.9431,-4.7021
-0.98522,-7.1022,-3.1023,-11.65,-12.686,-11.409,-14.0,-8.8455,-9.0667,-11.65,-12.686,-12.5,16.101,10.797,11.0,5.9406,9.9333,3.8944,1.868,9.8211,-0.83736
1.9704,-0.067,2.8383,-9.7087,-10.744,-9.3471,-9.0,-3.9675,-7.0667,-9.7087,-10.744,-9.6154,17.044001,13.724,14.0,11.881,14.933,3.8944,1.868,11.772,5.9259
1.9704,4.9581,4.8185,-8.7379,-8.8026,-10.378,-5.0,-6.8943,-8.0667,-8.7379,-8.8026,-7.6923,17.987,15.675,15.0,15.842,17.933001,-0.06601,-1.0306,15.675,13.655
1.9704,6.9682,4.8185,-9.7087,-9.7735,-11.409,-4.0,-8.8455,-7.0667,-9.7087,-9.7735,-8.6538,16.101,16.65,13.0,16.832001,16.933001,-4.0264,6.6989,14.699,18.486
1.9704,8.9782,4.8185,-10.68,-11.715,-11.409,-5.0,-7.8699,-4.0667,-10.68,-11.715,-8.6538,12.327,15.675,10.0,16.832001,14.933,-5.0165,3.8003,8.8455,20.419001
2.9557,8.9782,4.8185,-8.7379,-10.744,-9.3471,-6.0,-6.8943,-1.0667,-8.7379,-10.744,-7.6923,8.5535,13.724,8.0,15.842,12.933,2.9043,1.868,3.9675,18.486
4.9261,6.9682,5.8086,-5.8252,-8.8026,-4.1924,-5.0,-2.9919,-4.0667,-5.8252,-8.8026,-3.8462,3.8365,7.8699,6.0,12.871,10.933,8.8449,5.7327,2.0163,14.622
6.8966,7.9732,7.7888,-0.97087,-3.9482,0.9622,-2.0,-0.06504,-4.0667,-0.97087,-3.9482,0.0,5.7233,7.8699,7.0,12.871,11.933,5.8746,12.496,3.9675,12.689
5.9113,8.9782,8.7789,-0.97087,-2.9773,1.9931,0.0,0.91057,-1.0667,-0.97087,-2.9773,1.9231,7.6101,6.8943,7.0,10.891,10.933,3.8944,6.6989,2.9919,9.7907
0.0,4.9581,4.8185,-5.8252,-7.8317,-4.1924,-3.0,-4.9431,-5.0667,-5.8252,-7.8317,-2.8846,2.8931,0.06504,3.0,3.9604,4.9333,-6.9967,-1.0306,-1.8862,0.12882
1.9704,3.9531,2.8383,-4.8544,-6.8608,-3.1615,-4.0,-3.9675,-3.0667,-4.8544,-6.8608,-3.8462,1.0063,-3.8374,3.0,0.9901,1.9333,-6.9967,-9.7262,1.0407,-4.7021
2.9557,-1.072,-0.13201,-3.8835,-5.89,-1.0997,-6.0,-2.9919,-4.0667,-3.8835,-5.89,-3.8462,1.0063,-3.8374,5.0,0.0,0.93333,-0.06601,-1.0306,3.9675,-4.7021
-0.98522,-7.1022,-4.0924,-5.8252,-7.8317,-4.1924,-10.0,-4.9431,-11.067,-5.8252,-7.8317,-7.6923,2.8931,-1.8862,3.0,-1.9802,-2.0667,3.8944,4.7665,5.9187,-4.7021
-1.9704,-6.0972,-4.0924,-4.8544,-6.8608,-6.2543,-9.0,-2.9919,-8.0667,-4.8544,-6.8608,-7.6923,4.7799,2.0163,2.0,0.0,-1.0667,5.8746,1.868,4.9431,-2.7697
0.98522,-0.067,-1.1221,-4.8544,-3.9482,-5.2234,-5.0,-3.9675,-2.0667,-4.8544,-3.9482,-5.7692,9.4969,8.8455,4.0,4.9505,1.9333,-2.0462,-0.06441,5.9187,3.0274
2.9557,2.9481,-0.13201,-6.7961,-5.89,-5.2234,-4.0,-4.9431,-6.0667,-6.7961,-5.89,-3.8462,12.327,13.724,6.0,7.9208,4.9333,-4.0264,1.868,9.8211,8.8245
5.9113,3.9531,2.8383,-5.8252,-4.9191,-4.1924,-3.0,-1.0407,-3.0667,-5.8252,-4.9191,-2.8846,16.101,18.601999,10.0,9.901,7.9333,2.9043,0.90177,15.675,13.655
7.8818,5.9631,5.8086,-3.8835,-3.9482,-3.1615,-1.0,-1.0407,-0.06667,-3.8835,-3.9482,-1.9231,19.874001,20.552999,14.0,9.901,9.9333,11.815,2.8341,17.625999,16.554001
8.867,4.9581,5.8086,-5.8252,-5.89,-3.1615,-1.0,-0.06504,-2.0667,-5.8252,-5.89,-2.8846,14.214,11.772,11.0,5.9406,6.9333,12.805,4.7665,13.724,10.757
9.8522,5.9631,6.7987,-6.7961,-6.8608,-1.0997,-1.0,-0.06504,-3.0667,-6.7961,-6.8608,-1.9231,10.44,7.8699,11.0,4.9505,6.9333,9.835,1.868,15.675,6.8921
8.867,2.9481,6.7987,-4.8544,-5.89,0.9622,-3.0,0.91057,-6.0667,-4.8544,-5.89,-0.96154,9.4969,6.8943,9.0,3.9604,7.9333,-3.0363,-0.06441,15.675,4.9597
9.8522,2.9481,10.759,0.0,-2.9773,5.0859,-2.0,3.8374,-6.0667,0.0,-2.9773,1.9231,8.5535,3.9675,11.0,3.9604,9.9333,3.8944,-2.963,12.748,2.0612
13.793,5.9631,15.71,4.8544,0.90615,9.2096,2.0,6.7642,-3.0667,4.8544,0.90615,5.7692,5.7233,-2.8618,13.0,3.9604,12.933,10.825,0.90177,6.8943,-0.83736
11.823,7.9732,14.719,5.8252,2.8479,9.2096,5.0,5.7886,-0.06667,5.8252,2.8479,7.6923,1.9497,-6.7642,11.0,3.9604,11.933,9.835,2.8341,2.9919,-1.8035
11.823,11.993,15.71,6.7961,4.7896,11.271,9.0,8.7154,1.9333,6.7961,4.7896,10.577,5.7233,1.0407,12.0,10.891,14.933,7.8548,4.7665,2.9919,7.8583
10.837,11.993,15.71,5.8252,3.8188,10.241,9.0,6.7642,0.93333,5.8252,3.8188,10.577,10.44,8.8455,14.0,15.842,16.933001,6.8647,11.53,8.8455,15.588
7.8818,8.9782,9.769,5.8252,1.877,10.241,6.0,9.6911,3.9333,5.8252,1.877,7.6923,12.327,12.748,12.0,14.851,13.933,-0.06601,12.496,10.797,16.554001
5.9113,8.9782,4.8185,4.8544,0.90615,7.1478,3.0,6.7642,2.9333,4.8544,0.90615,3.8462,14.214,17.625999,10.0,14.851,11.933,3.8944,3.8003,8.8455,15.588
0.0,2.9481,-3.1023,-0.97087,-3.9482,-1.0997,-2.0,-1.0407,-2.0667,-0.97087,-3.9482,-2.8846,11.384,14.699,5.0,9.901,6.9333,1.9142,-6.8277,5.9187,7.8583
-3.9409,-2.0771,-7.0627,-5.8252,-6.8608,-6.2543,-5.0,-5.9187,-7.0667,-5.8252,-6.8608,-6.7308,8.5535,10.797,2.0,4.9505,2.9333,0.92409,-2.963,3.9675,1.095
-5.9113,-5.0921,-9.0429,-6.7961,-6.8608,-7.2852,-7.0,-5.9187,-9.0667,-6.7961,-6.8608,-8.6538,9.4969,12.748,2.0,1.9802,0.93333,-3.0363,-1.0306,6.8943,1.095
-2.9557,-4.0871,-7.0627,-5.8252,-6.8608,-6.2543,-6.0,-3.9675,-5.0667,-5.8252,-6.8608,-7.6923,13.27,15.675,5.0,2.9703,1.9333,2.9043,-3.9291,12.748,3.0274
3.9409,0.93802,0.85809,-3.8835,-5.89,-1.0997,-3.0,1.8862,-4.0667,-3.8835,-5.89,-2.8846,11.384,10.797,9.0,3.9604,4.9333,8.8449,-14.557,13.724,-0.83736
8.867,2.9481,6.7987,-1.9417,-4.9191,4.055,1.0,2.8618,-6.0667,-1.9417,-4.9191,1.9231,6.6667,2.9919,11.0,1.9802,5.9333,4.8845,-16.49,16.65,-3.7359
12.808,5.9631,11.749,0.97087,-2.0065,8.1787,4.0,4.813,-4.0667,0.97087,-2.0065,6.7308,9.4969,3.9675,14.0,5.9406,9.9333,5.8746,5.7327,18.601999,1.095
16.749001,10.988,18.68,3.8835,-0.06472,12.302,6.0,7.7398,-4.0667,3.8835,-0.06472,10.577,13.27,6.8943,19.0,11.881,15.933,14.785,15.395,17.625999,9.7907
17.733999,12.998,21.65,5.8252,0.90615,14.364,6.0,10.667,-1.0667,5.8252,0.90615,12.5,12.327,2.9919,18.0,11.881,15.933,13.795,8.6312,15.675,11.723
16.749001,10.988,19.67,4.8544,2.8479,13.333,7.0,7.7398,1.9333,4.8544,2.8479,12.5,10.44,1.0407,17.0,9.901,13.933,10.825,8.6312,13.724,11.723
15.764,10.988,18.68,5.8252,2.8479,13.333,9.0,7.7398,0.93333,5.8252,2.8479,12.5,17.987,10.797,20.0,13.861,16.933001,9.835,6.6989,15.675,16.554001
13.793,8.9782,14.719,3.8835,0.90615,10.241,7.0,6.7642,-3.0667,3.8835,0.90615,9.6154,18.931,13.724,18.0,15.842,17.933001,3.8944,-0.06441,15.675,15.588
10.837,10.988,12.739,3.8835,1.877,10.241,8.0,4.813,2.9333,3.8835,1.877,10.577,11.384,10.797,12.0,14.851,15.933,-1.0561,1.868,8.8455,11.723
11.823,15.008,16.700001,6.7961,4.7896,13.333,12.0,6.7642,4.9333,6.7961,4.7896,15.385,6.6667,10.797,9.0,13.861,14.933,0.92409,-2.963,2.9919,8.8245
9.8522,12.998,16.700001,5.8252,3.8188,12.302,12.0,5.7886,-0.06667,5.8252,3.8188,15.385,2.8931,5.9187,4.0,8.9109,10.933,4.8845,-2.963,-0.91057,1.095
2.9557,3.9531,8.7789,1.9417,-0.06472,6.1168,6.0,3.8374,-3.0667,1.9417,-0.06472,7.6923,0.06289,0.06504,-1.0,1.9802,3.9333,0.92409,5.7327,-1.8862,-8.5668
-0.98522,-2.0771,1.8482,0.0,-2.9773,0.9622,-1.0,7.7398,-7.0667,0.0,-2.9773,0.0,-3.7107,-4.813,-4.0,-3.9604,-3.0667,-1.0561,4.7665,1.0407,-12.432
-0.98522,-3.0821,-0.13201,0.0,-2.9773,0.9622,-1.0,4.813,-4.0667,0.0,-2.9773,0.0,-4.6541,-4.813,-3.0,-5.9406,-5.0667,1.9142,-3.9291,1.0407,-11.465
1.9704,-1.072,1.8482,1.9417,-2.0065,1.9931,1.0,2.8618,-1.0667,1.9417,-2.0065,2.8846,1.9497,1.0407,2.0,0.0,-1.0667,2.9043,-0.06441,4.9431,-1.8035
0.98522,-2.0771,-0.13201,-0.97087,-3.9482,-1.0997,-1.0,3.8374,-4.0667,-0.97087,-3.9482,0.0,4.7799,2.9919,5.0,0.9901,-0.06667,4.8845,-0.06441,7.8699,3.0274
0.98522,-0.067,0.85809,-1.9417,-3.9482,-2.1306,-2.0,2.8618,-5.0667,-1.9417,-3.9482,-1.9231,7.6101,4.9431,8.0,4.9505,2.9333,-0.06601,-3.9291,10.797,6.8921
5.9113,4.9581,4.8185,-1.9417,-2.9773,-0.06873,0.0,2.8618,-4.0667,-1.9417,-2.9773,0.0,7.6101,4.9431,11.0,7.9208,6.9333,7.8548,1.868,11.772,12.689
7.8818,5.9631,6.7987,-1.9417,-3.9482,4.055,1.0,5.7886,-3.0667,-1.9417,-3.9482,1.9231,3.8365,1.0407,10.0,5.9406,5.9333,11.815,6.6989,11.772,11.723
4.9261,3.9531,3.8284,-1.9417,-2.9773,3.0241,1.0,4.813,-3.0667,-1.9417,-2.9773,0.96154,1.9497,0.06504,7.0,3.9604,4.9333,1.9142,2.8341,7.8699,7.8583
0.0,-2.0771,-3.1023,-2.9126,-5.89,-2.1306,-5.0,1.8862,-6.0667,-2.9126,-5.89,-5.7692,3.8365,1.0407,6.0,2.9703,4.9333,-3.0363,-12.625,2.0163,4.9597
1.9704,-2.0771,-3.1023,-1.9417,-5.89,-3.1615,-7.0,3.8374,-6.0667,-1.9417,-5.89,-7.6923,6.6667,4.9431,8.0,4.9505,7.9333,4.8845,-10.692,4.9431,5.9259
4.9261,0.93802,1.8482,-0.97087,-3.9482,-1.0997,-5.0,2.8618,-4.0667,-0.97087,-3.9482,-3.8462,8.5535,9.8211,9.0,8.9109,11.933,-3.0363,-1.0306,6.8943,8.8245
6.8966,5.9631,7.7888,0.0,-2.0065,1.9931,-1.0,1.8862,-4.0667,0.0,-2.0065,1.9231,10.44,12.748,9.0,10.891,12.933,2.9043,-1.0306,2.0163,8.8245
3.9409,5.9631,8.7789,0.0,-1.0356,3.0241,1.0,0.91057,-3.0667,0.0,-1.0356,3.8462,8.5535,10.797,7.0,8.9109,10.933,2.9043,6.6989,0.06504,5.9259
-2.9557,0.93802,1.8482,0.0,-1.0356,-2.1306,-2.0,-1.0407,-1.0667,0.0,-1.0356,-0.96154,3.8365,4.9431,2.0,2.9703,3.9333,-1.0561,11.53,-0.91057,0.12882
-2.9557,1.943,-1.1221,-0.97087,-1.0356,-3.1615,-3.0,-0.06504,-2.0667,-0.97087,-1.0356,-2.8846,1.9497,2.9919,2.0,0.9901,-0.06667,-1.0561,-8.7601,4.9431,1.095
3.9409,3.9531,2.8383,0.0,-0.06472,1.9931,-1.0,2.8618,-5.0667,0.0,-0.06472,0.96154,2.8931,2.9919,6.0,1.9802,0.93333,-0.06601,-4.8953,13.724,3.9936
0.98522,1.943,3.8284,0.97087,-0.06472,3.0241,0.0,0.91057,-5.0667,0.97087,-0.06472,3.8462,-0.8805,-2.8618,1.0,-1.9802,-4.0667,-5.0165,6.6989,5.9187,1.095
-2.9557,-1.072,0.85809,0.97087,-1.0356,0.9622,0.0,-0.06504,-6.0667,0.97087,-1.0356,3.8462,-7.4843,-10.667,-5.0,-6.9307,-9.0667,-0.06601,5.7327,-4.813,-2.7697
-3.9409,-3.0821,-1.1221,-1.9417,-3.9482,-2.1306,-4.0,-0.06504,-7.0667,-1.9417,-3.9482,0.0,-9.3711,-13.593,-6.0,-7.9208,-9.0667,0.92409,-1.0306,-5.7886,-5.6683
0.98522,-1.072,1.8482,-0.97087,-3.9482,0.9622,-3.0,2.8618,-4.0667,-0.97087,-3.9482,1.9231,-4.6541,-5.7886,-1.0,-3.9604,-4.0667,-0.06601,-6.8277,-0.91057,-2.7697
6.8966,3.9531,7.7888,1.9417,0.90615,7.1478,5.0,3.8374,-0.06667,1.9417,0.90615,7.6923,1.0063,2.9919,4.0,3.9604,3.9333,5.8746,-9.7262,3.9675,2.0612
7.8818,6.9682,10.759,4.8544,3.8188,9.2096,8.0,5.7886,-1.0667,4.8544,3.8188,10.577,2.8931,6.8943,6.0,8.9109,8.9333,7.8548,1.868,4.9431,6.8921
8.867,8.9782,11.749,4.8544,3.8188,9.2096,8.0,6.7642,1.9333,4.8544,3.8188,9.6154,4.7799,9.8211,10.0,14.851,14.933,4.8845,6.6989,5.9187,8.8245
8.867,10.988,12.739,2.9126,1.877,7.1478,8.0,7.7398,3.9333,2.9126,1.877,7.6923,8.5535,12.748,13.0,17.822001,18.933001,5.8746,7.6651,8.8455,10.757
4.9261,10.988,11.749,0.97087,-0.06472,4.055,5.0,5.7886,-0.06667,0.97087,-0.06472,5.7692,8.5535,10.797,11.0,15.842,16.933001,8.8449,2.8341,8.8455,7.8583
0.0,8.9782,8.7789,0.97087,0.90615,1.9931,4.0,3.8374,-2.0667,0.97087,0.90615,4.8077,6.6667,8.8455,6.0,11.881,12.933,5.8746,-2.963,6.8943,5.9259
0.0,7.9732,6.7987,2.9126,2.8479,3.0241,5.0,6.7642,2.9333,2.9126,2.8479,4.8077,10.44,13.724,7.0,11.881,10.933,3.8944,7.6651,8.8455,11.723
0.98522,6.9682,4.8185,1.9417,0.90615,0.9622,2.0,5.7886,-0.06667,1.9417,0.90615,2.8846,13.27,13.724,8.0,10.891,7.9333,-3.0363,12.496,10.797,14.622
-0.98522,2.9481,-0.13201,0.0,-1.0356,-2.1306,-3.0,7.7398,-2.0667,0.0,-1.0356,-1.9231,4.7799,2.9919,3.0,3.9604,0.93333,0.92409,8.6312,4.9431,9.7907
-3.9409,-1.072,-5.0825,-0.97087,-2.0065,-4.1924,-5.0,2.8618,-0.06667,-0.97087,-2.0065,-5.7692,-3.7107,-5.7886,0.0,-2.9703,-5.0667,6.8647,7.6651,-0.91057,4.9597
-4.9261,-3.0821,-7.0627,-2.9126,-2.9773,-8.3162,-7.0,-1.0407,-2.0667,-2.9126,-2.9773,-8.6538,-6.5409,-7.7398,-1.0,-5.9406,-6.0667,5.8746,-5.8615,-5.7886,1.095
-3.9409,-4.0871,-5.0825,-2.9126,-3.9482,-8.3162,-7.0,0.91057,-0.06667,-2.9126,-3.9482,-8.6538,-10.314,-15.545,-1.0,-8.9109,-6.0667,-0.06601,-8.7601,-4.813,-8.5668
0.0,-2.0771,-0.13201,-0.97087,-3.9482,-3.1615,-5.0,3.8374,-4.0667,-0.97087,-3.9482,-4.8077,-9.3711,-16.52,0.0,-9.901,-3.0667,-8.9769,-3.9291,-3.8374,-16.296
4.9261,-0.067,4.8185,0.97087,-0.06472,3.0241,0.0,7.7398,-1.0667,0.97087,-0.06472,0.96154,-5.5975,-11.642,3.0,-7.9208,-0.06667,2.9043,-10.692,4.9431,-18.229
6.8966,-0.067,5.8086,0.97087,0.90615,5.0859,1.0,6.7642,0.93333,0.97087,0.90615,3.8462,-0.8805,-5.7886,7.0,-2.9703,3.9333,4.8845,-8.7601,10.797,-15.33
4.9261,-1.072,5.8086,-1.9417,-1.0356,0.9622,-1.0,3.8374,-3.0667,-1.9417,-1.0356,0.96154,2.8931,0.06504,9.0,1.9802,7.9333,1.9142,-4.8953,10.797,-11.465
2.9557,-1.072,6.7987,0.97087,-0.06472,-0.06873,-3.0,3.8374,-2.0667,0.97087,-0.06472,0.96154,1.9497,2.0163,6.0,4.9505,8.9333,1.9142,-3.9291,2.9919,-6.6345
1.9704,1.943,11.749,6.7961,5.7605,7.1478,3.0,6.7642,2.9333,6.7961,5.7605,7.6923,3.8365,5.9187,4.0,6.9307,10.933,-1.0561,-0.06441,-3.8374,-0.83736
2.9557,5.9631,15.71,9.7087,8.6731,13.333,9.0,8.7154,5.9333,9.7087,8.6731,14.423,8.5535,8.8455,6.0,9.901,10.933,3.8944,2.8341,0.06504,6.8921
2.9557,10.988,14.719,8.7379,7.7023,12.302,10.0,8.7154,6.9333,8.7379,7.7023,14.423,10.44,11.772,6.0,12.871,9.9333,-0.06601,7.6651,3.9675,15.588
0.98522,12.998,12.739,5.8252,6.7314,7.1478,8.0,5.7886,10.933,5.8252,6.7314,9.6154,8.5535,10.797,5.0,14.851,9.9333,-3.0363,10.564,4.9431,23.316999
-0.98522,12.998,9.769,3.8835,5.7605,3.0241,7.0,3.8374,9.9333,3.8835,5.7605,6.7308,4.7799,7.8699,3.0,14.851,8.9333,0.92409,11.53,1.0407,23.316999
-2.9557,12.998,7.7888,4.8544,5.7605,3.0241,7.0,3.8374,3.9333,4.8544,5.7605,6.7308,4.7799,9.8211,1.0,14.851,7.9333,-0.06601,11.53,-3.8374,23.316999
-1.9704,12.998,6.7987,4.8544,7.7023,4.055,10.0,2.8618,5.9333,4.8544,7.7023,7.6923,4.7799,11.772,1.0,14.851,7.9333,2.9043,17.327,-2.8618,24.283001
4.9261,16.013,10.759,7.767,11.586,8.1787,14.0,6.7642,11.933,7.767,11.586,10.577,10.44,16.65,6.0,16.832001,12.933,10.825,15.395,2.9919,24.283001
7.8818,15.008,12.739,8.7379,11.586,10.241,13.0,7.7398,10.933,8.7379,11.586,11.538,7.6101,13.724,7.0,13.861,13.933,3.8944,14.428,2.9919,16.554001
8.867,8.9782,11.749,7.767,10.615,11.271,10.0,7.7398,7.9333,7.767,10.615,11.538,-0.8805,1.0407,4.0,3.9604,7.9333,1.9142,13.462,1.0407,1.095
8.867,2.9481,8.7789,7.767,8.6731,11.271,8.0,8.7154,5.9333,7.767,8.6731,10.577,-6.5409,-6.7642,2.0,-3.9604,1.9333,6.8647,-2.963,-1.8862,-12.432
9.8522,-5.0921,5.8086,6.7961,5.7605,11.271,4.0,10.667,1.9333,6.7961,5.7605,8.6538,-5.5975,-9.6911,6.0,-9.901,-1.0667,10.825,-13.591,4.9431,-21.127001
7.8818,-13.132,0.85809,4.8544,1.877,7.1478,0.0,8.7154,-3.0667,4.8544,1.877,3.8462,0.06289,-8.7154,9.0,-12.871,-2.0667,16.766001,-10.692,13.724,-23.059999
6.8966,-15.142,-2.1122,5.8252,2.8479,7.1478,-1.0,8.7154,-6.0667,5.8252,2.8479,1.9231,9.4969,-0.91057,11.0,-10.891,-0.06667,7.8548,-6.8277,20.552999,-17.261999
6.8966,-11.122,-2.1122,6.7961,3.8188,8.1787,1.0,9.6911,-3.0667,6.7961,3.8188,3.8462,12.327,4.9431,12.0,-5.9406,1.9333,2.9043,-2.963,21.528,-9.533
3.9409,-6.0972,-2.1122,4.8544,2.8479,6.1168,0.0,6.7642,-0.06667,4.8544,2.8479,1.9231,10.44,5.9187,9.0,-0.9901,2.9333,7.8548,-7.7939,18.601999,-0.83736
3.9409,3.9531,1.8482,4.8544,3.8188,6.1168,2.0,4.813,0.93333,4.8544,3.8188,2.8846,14.214,13.724,11.0,8.9109,8.9333,4.8845,-1.0306,16.65,11.723
2.9557,12.998,6.7987,4.8544,4.7896,5.0859,6.0,2.8618,5.9333,4.8544,4.7896,4.8077,13.27,14.699,10.0,14.851,11.933,1.9142,-1.0306,7.8699,21.385
-0.98522,14.003,5.8086,4.8544,4.7896,1.9931,6.0,1.8862,13.933,4.8544,4.7896,2.8846,4.7799,7.8699,3.0,12.871,7.9333,-3.0363,7.6651,-1.8862,22.351
-4.9261,11.993,2.8383,3.8835,3.8188,0.9622,2.0,-0.06504,7.9333,3.8835,3.8188,0.96154,-1.8239,5.9187,-3.0,11.881,4.9333,-1.0561,21.191999,-5.7886,24.283001
-5.9113,9.9832,1.8482,5.8252,3.8188,3.0241,1.0,2.8618,2.9333,5.8252,3.8188,1.9231,-6.5409,3.9675,-6.0,8.9109,2.9333,-4.0264,25.056,-8.7154,18.486
-3.9409,12.998,5.8086,5.8252,5.7605,4.055,4.0,2.8618,7.9333,5.8252,5.7605,4.8077,-5.5975,4.9431,-4.0,9.901,5.9333,-6.9967,12.496,-9.6911,14.622
-2.9557,11.993,6.7987,3.8835,3.8188,1.9931,3.0,0.91057,5.9333,3.8835,3.8188,3.8462,-4.6541,2.0163,-3.0,7.9208,6.9333,-0.06601,11.53,-11.642,8.8245
-4.9261,2.9481,1.8482,1.9417,0.90615,-0.06873,0.0,-0.06504,-1.0667,1.9417,0.90615,1.9231,-6.5409,-4.813,-5.0,0.0,0.93333,-6.0066,7.6651,-10.667,-5.6683
-1.9704,-2.0771,1.8482,3.8835,2.8479,0.9622,0.0,0.91057,-0.06667,3.8835,2.8479,2.8846,-1.8239,-4.813,0.0,-2.9703,0.93333,-3.0363,4.7665,-1.8862,-11.465
1.9704,-6.0972,1.8482,3.8835,2.8479,3.0241,-1.0,3.8374,0.93333,3.8835,2.8479,1.9231,4.7799,-2.8618,4.0,-3.9604,1.9333,5.8746,-1.0306,2.0163,-14.364
4.9261,-8.1072,0.85809,2.9126,0.90615,5.0859,-3.0,8.7154,1.9333,2.9126,0.90615,0.96154,7.6101,1.0407,7.0,-2.9703,3.9333,5.8746,-3.9291,4.9431,-13.398
6.8966,-8.1072,-0.13201,0.0,-2.9773,4.055,-4.0,3.8374,-3.0667,0.0,-2.9773,-0.96154,5.7233,1.0407,7.0,-2.9703,2.9333,7.8548,-4.8953,6.8943,-10.499
6.8966,-6.0972,0.85809,0.0,-1.0356,3.0241,-1.0,-1.0407,-3.0667,0.0,-1.0356,0.0,8.5535,3.9675,8.0,-0.9901,2.9333,9.835,-2.963,9.8211,-6.6345
8.867,-1.072,4.8185,1.9417,2.8479,5.0859,2.0,0.91057,-0.06667,1.9417,2.8479,3.8462,10.44,6.8943,11.0,0.9901,6.9333,0.92409,-2.963,12.748,-2.7697
10.837,3.9531,8.7789,3.8835,5.7605,8.1787,5.0,-1.0407,2.9333,3.8835,5.7605,8.6538,8.5535,5.9187,11.0,3.9604,9.9333,4.8845,-3.9291,12.748,1.095
9.8522,8.9782,12.739,4.8544,6.7314,9.2096,9.0,-4.9431,5.9333,4.8544,6.7314,12.5,1.9497,2.0163,8.0,5.9406,10.933,6.8647,-1.9968,5.9187,2.0612
11.823,15.008,15.71,5.8252,7.7023,13.333,14.0,-3.9675,6.9333,5.8252,7.7023,16.346001,0.06289,0.06504,7.0,8.9109,12.933,2.9043,7.6651,0.06504,3.0274
7.8818,14.003,11.749,4.8544,5.7605,11.271,14.0,-3.9675,3.9333,4.8544,5.7605,14.423,-5.5975,-2.8618,2.0,7.9208,8.9333,-2.0462,-2.963,-7.7398,1.095
-0.98522,6.9682,1.8482,1.9417,2.8479,4.055,9.0,-4.9431,4.9333,1.9417,2.8479,7.6923,-15.975,-12.618,-7.0,0.0,0.93333,-6.0066,-9.7262,-17.496,-6.6345
-4.9261,2.9481,-3.1023,0.0,1.877,-1.0997,4.0,-6.8943,0.93333,0.0,1.877,2.8846,-15.031,-12.618,-9.0,-1.9802,-3.0667,-4.0264,-6.8277,-18.472,-9.533
-6.8966,-2.0771,-7.0627,-1.9417,-0.06472,-4.1924,0.0,-8.8455,-6.0667,-1.9417,-0.06472,0.0,-12.201,-10.667,-10.0,-3.9604,-6.0667,-9.967,0.90177,-15.545,-10.499
-6.8966,-4.0871,-9.0429,-1.9417,0.90615,-4.1924,-2.0,-8.8455,-4.0667,-1.9417,0.90615,-2.8846,-8.4277,-8.7154,-10.0,-5.9406,-7.0667,-11.947,-1.0306,-16.52,-13.398
-3.9409,-1.072,-7.0627,-0.97087,1.877,-4.1924,-2.0,-5.9187,3.9333,-0.97087,1.877,-2.8846,-2.7673,-1.8862,-4.0,-2.9703,-3.0667,-17.888,-2.963,-11.642,-9.533
-2.9557,-3.0821,-8.0528,-2.9126,-2.0065,-6.2543,-5.0,-5.9187,-1.0667,-2.9126,-2.0065,-5.7692,-2.7673,-2.8618,-4.0,-2.9703,-2.0667,-4.0264,-1.0306,-8.7154,-9.533
-2.9557,-4.0871,-8.0528,-6.7961,-5.89,-7.2852,-7.0,-6.8943,-7.0667,-6.7961,-5.89,-6.7308,-3.7107,-4.813,-4.0,-3.9604,-4.0667,1.9142,-3.9291,-6.7642,-7.6006
-2.9557,-4.0871,-7.0627,-6.7961,-5.89,-6.2543,-6.0,-5.9187,-5.0667,-6.7961,-5.89,-6.7308,-4.6541,-3.8374,-3.0,-3.9604,-5.0667,-2.0462,1.868,-3.8374,-3.7359
-1.9704,-3.0821,-6.0726,-7.767,-4.9191,-7.2852,-5.0,-6.8943,-1.0667,-7.767,-4.9191,-6.7308,-2.7673,-1.8862,-1.0,-2.9703,-3.0667,2.9043,-5.8615,0.06504,-1.8035
-0.98522,-4.0871,-6.0726,-6.7961,-3.9482,-7.2852,-4.0,-6.8943,-0.06667,-6.7961,-3.9482,-6.7308,-2.7673,-3.8374,-1.0,-4.9505,-3.0667,0.92409,-5.8615,0.06504,-2.7697
-0.98522,-4.0871,-6.0726,-0.97087,2.8479,-3.1615,-1.0,-2.0163,4.9333,-0.97087,2.8479,-3.8462,-2.7673,-3.8374,-1.0,-5.9406,-5.0667,3.8944,4.7665,1.0407,-2.7697
-6.8966,-8.1072,-11.023,-3.8835,-1.0356,-6.2543,-4.0,-4.9431,0.93333,-3.8835,-1.0356,-5.7692,-9.3711,-9.6911,-9.0,-10.891,-11.067,-1.0561,4.7665,-4.813,-8.5668
-5.9113,-4.0871,-7.0627,-4.8544,-0.06472,-4.1924,-1.0,-5.9187,6.9333,-4.8544,-0.06472,-3.8462,-11.258,-10.667,-9.0,-9.901,-10.067,-9.967,5.7327,-8.7154,-10.499
1.9704,5.9631,0.85809,0.0,4.7896,1.9931,6.0,-4.9431,8.9333,0.0,4.7896,3.8462,-3.7107,-2.8618,-1.0,0.0,-1.0667,-7.9868,7.6651,-5.7886,-4.7021
5.9113,8.9782,3.8284,2.9126,6.7314,6.1168,8.0,-2.9919,7.9333,2.9126,6.7314,7.6923,1.0063,2.0163,4.0,5.9406,3.9333,-1.0561,5.7327,-1.8862,-2.7697
6.8966,7.9732,4.8185,2.9126,5.7605,7.1478,6.0,-0.06504,3.9333,2.9126,5.7605,7.6923,-0.8805,-0.91057,4.0,6.9307,4.9333,5.8746,-5.8615,-0.91057,-5.6683
4.9261,6.9682,4.8185,1.9417,3.8188,5.0859,6.0,-2.0163,2.9333,1.9417,3.8188,6.7308,-3.7107,-3.8374,3.0,5.9406,4.9333,4.8845,-5.8615,-2.8618,-6.6345
2.9557,5.9631,2.8383,1.9417,5.7605,5.0859,6.0,-1.0407,9.9333,1.9417,5.7605,5.7692,-7.4843,-6.7642,0.0,3.9604,1.9333,4.8845,7.6651,-5.7886,-5.6683
-0.98522,2.9481,-3.1023,0.97087,2.8479,0.9622,2.0,-2.9919,3.9333,0.97087,2.8479,0.96154,-11.258,-7.7398,-5.0,0.9901,-3.0667,-7.9868,6.6989,-8.7154,-4.7021
-2.9557,0.93802,-6.0726,0.0,-0.06472,-1.0997,-1.0,-4.9431,2.9333,0.0,-0.06472,-1.9231,-13.145,-7.7398,-9.0,-2.9703,-7.0667,-13.927,0.90177,-12.618,-2.7697
-3.9409,-2.0771,-8.0528,-1.9417,-2.9773,-2.1306,-4.0,-3.9675,-1.0667,-1.9417,-2.9773,-4.8077,-12.201,-8.7154,-10.0,-5.9406,-9.0667,-6.0066,-0.06441,-14.569,-5.6683
-7.8818,-10.117,-13.003,-5.8252,-5.89,-6.2543,-8.0,-5.9187,-7.0667,-5.8252,-5.89,-9.6154,-12.201,-11.642,-11.0,-12.871,-13.067,-6.0066,-8.7601,-11.642,-12.432
-7.8818,-15.142,-15.974,-7.767,-8.8026,-8.3162,-13.0,-8.8455,-8.0667,-7.767,-8.8026,-12.5,-10.314,-9.6911,-8.0,-14.851,-13.067,-4.0264,-18.422001,-4.813,-11.465
-8.867,-16.146999,-17.954,-8.7379,-10.744,-11.409,-15.0,-8.8455,-8.0667,-8.7379,-10.744,-14.423,-11.258,-11.642,-8.0,-15.842,-13.067,-5.0165,-11.659,-6.7642,-10.499
-10.837,-18.157,-17.954,-9.7087,-11.715,-14.502,-17.0,-7.8699,-12.067,-9.7087,-11.715,-17.308001,-13.145,-13.593,-10.0,-16.832001,-15.067,-8.9769,-1.0306,-8.7154,-11.465
-9.8522,-16.146999,-16.964001,-10.68,-11.715,-14.502,-16.0,-6.8943,-10.067,-10.68,-11.715,-17.308001,-11.258,-9.6911,-8.0,-14.851,-15.067,-6.9967,-0.06441,0.06504,-7.6006
-10.837,-12.127,-15.974,-10.68,-9.7735,-13.471,-13.0,-7.8699,-6.0667,-10.68,-9.7735,-15.385,-8.4277,-7.7398,-9.0,-11.881,-14.067,-6.0066,-0.06441,-3.8374,-6.6345
-8.867,-8.1072,-12.013,-9.7087,-8.8026,-10.378,-10.0,-6.8943,-5.0667,-9.7087,-8.8026,-13.462,-5.5975,-5.7886,-9.0,-7.9208,-11.067,-1.0561,-2.963,-10.667,-8.5668
-2.9557,-3.0821,-6.0726,-8.7379,-7.8317,-7.2852,-6.0,-6.8943,-1.0667,-8.7379,-7.8317,-7.6923,-3.7107,-2.8618,-4.0,-2.9703,-5.0667,-6.9967,-27.118,-8.7154,-8.5668
0.0,1.943,-1.1221,-5.8252,-3.9482,-3.1615,-1.0,-1.0407,0.93333,-5.8252,-3.9482,-1.9231,-2.7673,1.0407,-1.0,3.9604,-0.06667,-6.0066,-13.591,-2.8618,-1.8035
0.98522,4.9581,1.8482,-2.9126,-0.06472,-0.06873,3.0,-1.0407,1.9333,-2.9126,-0.06472,1.9231,-5.5975,2.0163,-3.0,6.9307,0.93333,-4.0264,12.496,-8.7154,2.0612
0.0,7.9732,3.8284,-0.97087,2.8479,1.9931,6.0,-2.9919,4.9333,-0.97087,2.8479,4.8077,-12.201,-4.813,-8.0,3.9604,-2.0667,-0.06601,-1.0306,-14.569,-1.8035
-2.9557,4.9581,0.85809,0.0,3.8188,0.9622,6.0,-2.9919,3.9333,0.0,3.8188,4.8077,-15.975,-11.642,-11.0,-2.9703,-8.0667,2.9043,-10.692,-13.593,-5.6683
-2.9557,-0.067,-2.1122,0.97087,2.8479,1.9931,4.0,-2.0163,1.9333,0.97087,2.8479,3.8462,-14.088,-11.642,-10.0,-5.9406,-10.067,2.9043,2.8341,-12.618,-5.6683
-5.9113,-6.0972,-8.0528,-0.97087,0.90615,-3.1615,-1.0,-2.9919,-0.06667,-0.97087,0.90615,-0.96154,-17.862,-16.52,-14.0,-12.871,-16.066999,-3.0363,5.7327,-11.642,-11.465
-8.867,-12.127,-13.993,-1.9417,-1.0356,-5.2234,-3.0,-2.9919,5.9333,-1.9417,-1.0356,-3.8462,-27.296,-28.228001,-19.0,-20.792,-23.066999,-11.947,-6.8277,-16.52,-22.093
-7.8818,-13.132,-14.983,-0.97087,-0.06472,-4.1924,-4.0,-2.9919,-1.0667,-0.97087,-0.06472,-3.8462,-21.635,-25.301001,-15.0,-20.792,-21.066999,-12.937,-8.7601,-12.618,-22.093
-8.867,-14.137,-16.964001,-0.97087,-1.0356,-5.2234,-6.0,-2.0163,-7.0667,-0.97087,-1.0356,-4.8077,-15.031,-18.472,-11.0,-19.802,-19.066999,-3.0363,-4.8953,-4.813,-18.229
-11.823,-17.152,-19.934,-2.9126,-4.9191,-10.378,-11.0,-5.9187,-9.0667,-2.9126,-4.9191,-9.6154,-14.088,-17.496,-13.0,-19.802,-20.066999,0.92409,-3.9291,-3.8374,-17.261999
-16.749001,-19.162001,-22.903999,-5.8252,-7.8317,-15.533,-16.0,-9.8211,-9.0667,-5.8252,-7.8317,-14.423,-15.975,-15.545,-16.0,-19.802,-22.066999,-6.0066,-6.8277,-4.813,-14.364
-21.674999,-22.177999,-27.855,-8.7379,-9.7735,-18.625,-18.0,-11.772,-9.0667,-8.7379,-9.7735,-18.268999,-19.747999,-16.52,-23.0,-21.782,-26.066999,-13.927,-16.49,-20.423,-16.296
-22.66,-24.188,-29.834999,-9.7087,-9.7735,-19.656,-20.0,-12.748,-11.067,-9.7087,-9.7735,-20.191999,-23.521999,-17.496,-26.0,-21.782,-27.066999,-12.937,-10.692,-29.202999,-18.229
-23.645,-22.177999,-26.865,-11.65,-10.744,-20.687,-20.0,-13.724,-11.067,-11.65,-10.744,-20.191999,-21.635,-14.569,-26.0,-19.802,-25.066999,-12.937,-3.9291,-26.275999,-15.33
-25.615999,-20.167999,-25.875,-11.65,-10.744,-20.687,-19.0,-13.724,-5.0667,-11.65,-10.744,-19.231001,-23.521999,-16.52,-28.0,-19.802,-26.066999,-13.927,-5.8615,-26.275999,-14.364
-24.631001,-19.162001,-25.875,-9.7087,-12.686,-19.656,-20.0,-12.748,-10.067,-9.7087,-12.686,-19.231001,-22.579,-18.472,-26.0,-19.802,-27.066999,-13.927,-3.9291,-15.545,-12.432
-22.66,-18.157,-26.865,-8.7379,-12.686,-18.625,-20.0,-10.797,-12.067,-8.7379,-12.686,-20.191999,-22.579,-19.447001,-26.0,-20.792,-28.066999,-13.927,-9.7262,-14.569,-12.432
-16.749001,-16.146999,-22.903999,-6.7961,-9.7735,-14.502,-16.0,-5.9187,-5.0667,-6.7961,-9.7735,-17.308001,-17.862,-20.423,-20.0,-19.802,-25.066999,-4.0264,-20.354,-11.642,-12.432
-14.778,-16.146999,-20.924,-9.7087,-10.744,-15.533,-17.0,-9.8211,-4.0667,-9.7087,-10.744,-18.268999,-16.917999,-21.398001,-17.0,-17.822001,-22.066999,-9.967,-6.8277,-12.618,-13.398
-11.823,-14.137,-17.954,-9.7087,-10.744,-15.533,-16.0,-9.8211,-4.0667,-9.7087,-10.744,-17.308001,-13.145,-17.496,-11.0,-13.861,-17.066999,-6.0066,3.8003,-13.593,-11.465
-6.8966,-12.127,-13.003,-6.7961,-7.8317,-10.378,-13.0,-6.8943,-7.0667,-6.7961,-7.8317,-12.5,-8.4277,-14.569,-6.0,-10.891,-12.067,-3.0363,-1.9968,-6.7642,-11.465
-6.8966,-12.127,-12.013,-6.7961,-7.8317,-9.3471,-12.0,-9.8211,-8.0667,-6.7961,-7.8317,-10.577,-9.3711,-13.593,-7.0,-10.891,-11.067,-4.0264,-0.06441,-5.7886,-12.432
-4.9261,-9.1122,-10.033,-4.8544,-5.89,-8.3162,-9.0,-7.8699,-4.0667,-4.8544,-5.89,-7.6923,-6.5409,-8.7154,-5.0,-8.9109,-9.0667,-3.0363,-3.9291,-1.8862,-9.533
-4.9261,-8.1072,-9.0429,-5.8252,-5.89,-9.3471,-8.0,-5.9187,-1.0667,-5.8252,-5.89,-8.6538,-8.4277,-5.7886,-8.0,-7.9208,-10.067,3.8944,-8.7601,-2.8618,-7.6006
-5.9113,-5.0921,-7.0627,-5.8252,-3.9482,-8.3162,-6.0,-4.9431,0.93333,-5.8252,-3.9482,-7.6923,-13.145,-7.7398,-11.0,-7.9208,-10.067,0.92409,-2.963,-9.6911,-5.6683
-6.8966,-4.0871,-5.0825,-4.8544,-2.0065,-6.2543,-4.0,-4.9431,0.93333,-4.8544,-2.0065,-4.8077,-15.031,-8.7154,-13.0,-8.9109,-12.067,-3.0363,1.868,-12.618,-6.6345
-7.8818,-6.0972,-7.0627,-3.8835,-1.0356,-5.2234,-2.0,-5.9187,1.9333,-3.8835,-1.0356,-2.8846,-19.747999,-15.545,-17.0,-13.861,-16.066999,-11.947,-2.963,-16.52,-11.465
-6.8966,-8.1072,-7.0627,-0.97087,0.90615,-2.1306,-1.0,-3.9675,-1.0667,-0.97087,0.90615,-0.96154,-17.862,-15.545,-15.0,-14.851,-16.066999,-13.927,-1.9968,-18.472,-13.398
-6.8966,-8.1072,-6.0726,-0.97087,0.90615,-3.1615,-1.0,-5.9187,-2.0667,-0.97087,0.90615,-0.96154,-9.3711,-8.7154,-10.0,-11.881,-12.067,-9.967,-4.8953,-12.618,-11.465
-7.8818,-8.1072,-8.0528,0.0,1.877,-5.2234,0.0,-7.8699,3.9333,0.0,1.877,-1.9231,-5.5975,-7.7398,-7.0,-10.891,-9.0667,-3.0363,-12.625,-7.7398,-11.465
-6.8966,-9.1122,-10.033,0.97087,1.877,-5.2234,-1.0,-5.9187,0.93333,0.97087,1.877,-2.8846,-3.7107,-9.6911,-7.0,-10.891,-9.0667,-3.0363,-7.7939,-5.7886,-13.398
-6.8966,-10.117,-10.033,0.97087,-0.06472,-4.1924,-3.0,-3.9675,-0.06667,0.97087,-0.06472,-2.8846,-6.5409,-12.618,-8.0,-10.891,-10.067,-9.967,-3.9291,-4.813,-12.432
-3.9409,-7.1022,-7.0627,0.0,-0.06472,-1.0997,-1.0,-3.9675,-1.0667,0.0,-0.06472,-0.96154,-7.4843,-10.667,-6.0,-6.9307,-8.0667,-5.0165,-3.9291,-3.8374,-8.5668
-1.9704,-2.0771,-3.1023,1.9417,2.8479,1.9931,2.0,-1.0407,-2.0667,1.9417,2.8479,2.8846,-7.4843,-8.7154,-4.0,-2.9703,-6.0667,-5.0165,-5.8615,-1.8862,-4.7021
-3.9409,-0.067,-4.0924,2.9126,3.8188,1.9931,4.0,-1.0407,2.9333,2.9126,3.8188,2.8846,-7.4843,-6.7642,-6.0,-0.9901,-5.0667,-6.0066,1.868,-5.7886,-1.8035
-6.8966,-3.0821,-6.0726,0.97087,0.90615,-2.1306,0.0,-2.0163,2.9333,0.97087,0.90615,-0.96154,-9.3711,-7.7398,-8.0,-2.9703,-7.0667,-3.0363,-5.8615,-9.6911,-2.7697
-6.8966,-6.0972,-6.0726,0.97087,-0.06472,-3.1615,-3.0,-2.0163,-1.0667,0.97087,-0.06472,-2.8846,-8.4277,-5.7886,-8.0,-3.9604,-7.0667,-2.0462,-2.963,-4.813,-2.7697
-3.9409,-6.0972,-5.0825,2.9126,2.8479,-1.0997,-1.0,0.91057,1.9333,2.9126,2.8479,0.0,-8.4277,-6.7642,-8.0,-5.9406,-9.0667,-0.06601,5.7327,0.06504,-3.7359
-9.8522,-8.1072,-9.0429,0.97087,2.8479,-3.1615,-1.0,-1.0407,-1.0667,0.97087,2.8479,-1.9231,-14.088,-10.667,-15.0,-9.901,-14.067,-16.898001,-0.06441,-13.593,-8.5668
-15.764,-9.1122,-12.013,-0.97087,0.90615,-5.2234,-2.0,-2.9919,4.9333,-0.97087,0.90615,-2.8846,-16.917999,-15.545,-19.0,-13.861,-17.066999,-16.898001,-2.963,-22.374001,-13.398
-15.764,-8.1072,-11.023,-1.9417,-1.0356,-5.2234,-3.0,-2.9919,2.9333,-1.9417,-1.0356,-3.8462,-18.805,-17.496,-18.0,-13.861,-17.066999,-10.957,-2.963,-21.398001,-13.398
-13.793,-7.1022,-10.033,-2.9126,-2.0065,-6.2543,-3.0,-2.9919,1.9333,-2.9126,-2.0065,-3.8462,-19.747999,-17.496,-18.0,-12.871,-16.066999,-7.9868,-5.8615,-20.423,-12.432
-7.8818,-5.0921,-7.0627,-0.97087,-0.06472,-3.1615,-1.0,-0.06504,1.9333,-0.97087,-0.06472,-0.96154,-15.975,-13.593,-15.0,-10.891,-14.067,4.8845,-0.06441,-15.545,-9.533
-6.8966,-5.0921,-5.0825,0.97087,2.8479,-1.0997,1.0,-0.06504,2.9333,0.97087,2.8479,0.96154,-13.145,-11.642,-13.0,-9.901,-13.067,-4.0264,3.8003,-11.642,-7.6006
-11.823,-7.1022,-7.0627,-0.97087,0.90615,-6.2543,-2.0,-4.9431,3.9333,-0.97087,0.90615,-2.8846,-10.314,-9.6911,-13.0,-9.901,-14.067,-14.917,-0.06441,-11.642,-6.6345
-11.823,-9.1122,-9.0429,-2.9126,-2.0065,-9.3471,-6.0,-5.9187,-1.0667,-2.9126,-2.0065,-6.7308,-7.4843,-6.7642,-11.0,-8.9109,-12.067,-5.0165,-7.7939,-5.7886,-5.6683
-9.8522,-12.127,-12.013,-3.8835,-3.9482,-10.378,-9.0,-5.9187,-5.0667,-3.8835,-3.9482,-8.6538,-8.4277,-8.7154,-10.0,-10.891,-12.067,-7.9868,-18.422001,-2.8618,-7.6006
-9.8522,-13.132,-12.013,-1.9417,-2.9773,-7.2852,-8.0,-3.9675,-0.06667,-1.9417,-2.9773,-6.7308,-10.314,-10.667,-11.0,-11.881,-12.067,-13.927,-10.692,-8.7154,-8.5668
-8.867,-9.1122,-8.0528,0.97087,0.90615,-3.1615,-4.0,-1.0407,-0.06667,0.97087,0.90615,-2.8846,-9.3711,-9.6911,-10.0,-9.901,-10.067,-6.0066,3.8003,-11.642,-6.6345
-10.837,-7.1022,-8.0528,0.97087,1.877,-2.1306,-2.0,-1.0407,1.9333,0.97087,1.877,-0.96154,-14.088,-13.593,-13.0,-10.891,-12.067,-6.9967,4.7665,-13.593,-9.533
-9.8522,-6.0972,-8.0528,1.9417,2.8479,-1.0997,0.0,4.813,5.9333,1.9417,2.8479,-0.96154,-16.917999,-16.52,-15.0,-11.881,-14.067,-3.0363,-1.0306,-14.569,-12.432
-9.8522,-6.0972,-9.0429,2.9126,2.8479,-2.1306,-1.0,2.8618,2.9333,2.9126,2.8479,-1.9231,-16.917999,-14.569,-15.0,-11.881,-15.067,-4.0264,-9.7262,-12.618,-12.432
-10.837,-9.1122,-11.023,1.9417,2.8479,-4.1924,-4.0,0.91057,0.93333,1.9417,2.8479,-4.8077,-12.201,-9.6911,-13.0,-10.891,-14.067,-3.0363,-3.9291,-9.6911,-9.533
-11.823,-13.132,-14.983,0.0,-0.06472,-8.3162,-7.0,-2.0163,-3.0667,0.0,-0.06472,-8.6538,-11.258,-9.6911,-12.0,-12.871,-13.067,-3.0363,-3.9291,-6.7642,-12.432
-12.808,-16.146999,-16.964001,-3.8835,-3.9482,-11.409,-10.0,-4.9431,-7.0667,-3.8835,-3.9482,-11.538,-15.031,-14.569,-14.0,-15.842,-15.067,-6.0066,-16.49,-11.642,-18.229
-12.808,-19.162001,-17.954,-6.7961,-7.8317,-13.471,-15.0,-7.8699,-11.067,-6.7961,-7.8317,-14.423,-14.088,-14.569,-13.0,-18.812,-16.066999,-15.908,-19.388,-6.7642,-19.195
-13.793,-20.167999,-17.954,-6.7961,-8.8026,-14.502,-17.0,-6.8943,-14.067,-6.7961,-8.8026,-15.385,-8.4277,-12.618,-11.0,-18.812,-15.067,-10.957,-16.49,-3.8374,-18.229
-16.749001,-21.173,-19.934,-6.7961,-7.8317,-15.533,-17.0,-7.8699,-8.0667,-6.7961,-7.8317,-17.308001,-6.5409,-12.618,-16.0,-19.802,-19.066999,-6.9967,-15.523,-9.6911,-16.296
-20.690001,-23.183001,-23.893999,-8.7379,-8.8026,-18.625,-19.0,-9.8211,-7.0667,-8.7379,-8.8026,-21.153999,-11.258,-16.52,-21.0,-23.761999,-24.066999,-12.937,-20.354,-11.642,-17.261999
-17.733999,-19.162001,-21.914,-8.7379,-9.7735,-16.563999,-17.0,-8.8455,-8.0667,-8.7379,-9.7735,-19.231001,-15.031,-16.52,-21.0,-20.792,-23.066999,-6.0066,-7.7939,-11.642,-12.432
-11.823,-9.1122,-13.003,-6.7961,-7.8317,-12.44,-11.0,-5.9187,-3.0667,-6.7961,-7.8317,-13.462,-14.088,-10.667,-17.0,-11.881,-16.066999,-6.9967,3.8003,-11.642,-5.6683
-9.8522,-4.0871,-8.0528,-5.8252,-6.8608,-8.3162,-7.0,-3.9675,-0.06667,-5.8252,-6.8608,-8.6538,-17.862,-9.6911,-16.0,-7.9208,-12.067,-19.868,0.90177,-17.496,-3.7359
-7.8818,-1.072,-3.1023,-2.9126,-2.9773,-4.1924,-4.0,-2.9919,-0.06667,-2.9126,-2.9773,-3.8462,-16.917999,-8.7154,-14.0,-4.9505,-8.0667,-15.908,1.868,-19.447001,-2.7697
-1.9704,3.9531,5.8086,0.97087,-0.06472,1.9931,2.0,-1.0407,0.93333,0.97087,-0.06472,2.8846,-7.4843,-0.91057,-6.0,1.9802,0.93333,-2.0462,-0.06441,-13.593,0.12882
3.9409,8.9782,12.739,3.8835,2.8479,7.1478,7.0,0.91057,3.9333,3.8835,2.8479,8.6538,-0.8805,3.9675,0.0,7.9208,7.9333,-5.0165,3.8003,-8.7154,3.0274
6.8966,8.9782,13.729,4.8544,4.7896,9.2096,8.0,4.813,4.9333,4.8544,4.7896,9.6154,1.9497,3.9675,5.0,7.9208,9.9333,2.9043,-6.8277,-0.91057,1.095
9.8522,2.9481,9.769,4.8544,2.8479,9.2096,6.0,6.7642,-1.0667,4.8544,2.8479,8.6538,2.8931,0.06504,7.0,2.9703,5.9333,9.835,-2.963,5.9187,-2.7697
8.867,-2.0771,4.8185,4.8544,2.8479,9.2096,3.0,8.7154,1.9333,4.8544,2.8479,6.7308,2.8931,-2.8618,7.0,-1.9802,0.93333,6.8647,3.8003,13.724,-5.6683
6.8966,-7.1022,-1.1221,4.8544,1.877,7.1478,-2.0,14.569,-0.06667,4.8544,1.877,1.9231,0.06289,-5.7886,5.0,-5.9406,-3.0667,5.8746,-1.0306,13.724,-7.6006
5.9113,-6.0972,-2.1122,5.8252,2.8479,6.1168,-1.0,12.618,-1.0667,5.8252,2.8479,2.8846,2.8931,-2.8618,4.0,-5.9406,-3.0667,13.795,-2.963,8.8455,-6.6345
2.9557,-3.0821,-3.1023,7.767,8.6731,6.1168,4.0,6.7642,2.9333,7.767,8.6731,5.7692,-3.7107,-6.7642,-1.0,-7.9208,-6.0667,9.835,-8.7601,2.0163,-8.5668
0.0,-3.0821,-4.0924,7.767,7.7023,6.1168,5.0,4.813,-0.06667,7.767,7.7023,6.7308,-9.3711,-11.642,-5.0,-9.901,-10.067,4.8845,-3.9291,-3.8374,-9.533
-0.98522,-3.0821,-3.1023,5.8252,5.7605,6.1168,3.0,3.8374,-2.0667,5.8252,5.7605,5.7692,-6.5409,-7.7398,-4.0,-7.9208,-8.0667,1.9142,2.8341,-1.8862,-6.6345
-2.9557,-6.0972,-6.0726,2.9126,1.877,1.9931,-2.0,1.8862,-5.0667,2.9126,1.877,0.96154,-1.8239,-3.8374,-3.0,-6.9307,-6.0667,-3.0363,-5.8615,1.0407,-5.6683
-2.9557,-5.0921,-7.0627,1.9417,-0.06472,0.9622,-4.0,1.8862,-6.0667,1.9417,-0.06472,-0.96154,1.0063,0.06504,-1.0,-3.9604,-3.0667,-0.06601,-9.7262,2.9919,-0.83736
-3.9409,-4.0871,-7.0627,1.9417,0.90615,-1.0997,-3.0,0.91057,-1.0667,1.9417,0.90615,-1.9231,1.9497,2.0163,-1.0,-1.9802,-2.0667,6.8647,1.868,2.0163,3.0274
-5.9113,-5.0921,-7.0627,1.9417,-0.06472,-4.1924,-5.0,-0.06504,-1.0667,1.9417,-0.06472,-3.8462,0.06289,1.0407,-3.0,-1.9802,-3.0667,-6.0066,1.868,-0.91057,3.0274
-9.8522,-8.1072,-8.0528,1.9417,-1.0356,-7.2852,-8.0,-2.9919,-2.0667,1.9417,-1.0356,-7.6923,-2.7673,-2.8618,-6.0,-4.9505,-6.0667,-6.0066,4.7665,-2.8618,0.12882
-10.837,-8.1072,-9.0429,2.9126,-0.06472,-6.2543,-9.0,-1.0407,-2.0667,2.9126,-0.06472,-7.6923,-3.7107,-3.8374,-6.0,-4.9505,-7.0667,-3.0363,3.8003,-0.91057,0.12882
-5.9113,-7.1022,-6.0726,6.7961,1.877,-1.0997,-6.0,1.8862,-3.0667,6.7961,1.877,-3.8462,-2.7673,-3.8374,-4.0,-4.9505,-4.0667,-6.0066,-2.963,1.0407,-0.83736
0.0,-6.0972,-1.1221,8.7379,4.7896,3.0241,-3.0,5.7886,-2.0667,8.7379,4.7896,0.0,-1.8239,-2.8618,-1.0,-3.9604,-2.0667,-4.0264,0.90177,-1.8862,-1.8035
-0.98522,-8.1072,-4.0924,6.7961,0.90615,-0.06873,-4.0,5.7886,-9.0667,6.7961,0.90615,-1.9231,-3.7107,-3.8374,-3.0,-4.9505,-4.0667,1.9142,-5.8615,-3.8374,-3.7359
-2.9557,-7.1022,-6.0726,3.8835,-2.0065,-3.1615,-7.0,4.813,-10.067,3.8835,-2.0065,-4.8077,-0.8805,-3.8374,-3.0,-4.9505,-4.0667,3.8944,-8.7601,-1.8862,-6.6345
-3.9409,-6.0972,-7.0627,2.9126,-1.0356,-4.1924,-7.0,2.8618,-8.0667,2.9126,-1.0356,-5.7692,-1.8239,-3.8374,-3.0,-4.9505,-4.0667,-0.06601,-11.659,-3.8374,-5.6683
-4.9261,-6.0972,-7.0627,4.8544,0.90615,-3.1615,-6.0,3.8374,-7.0667,4.8544,0.90615,-3.8462,-5.5975,-5.7886,-5.0,-6.9307,-6.0667,-7.9868,-5.8615,-4.813,-5.6683
-2.9557,-6.0972,-3.1023,6.7961,3.8188,0.9622,-1.0,6.7642,-3.0667,6.7961,3.8188,0.0,-8.4277,-8.7154,-6.0,-8.9109,-8.0667,-3.0363,-0.06441,-5.7886,-8.5668
-3.9409,-5.0921,-2.1122,5.8252,3.8188,0.9622,0.0,5.7886,-1.0667,5.8252,3.8188,0.96154,-11.258,-11.642,-9.0,-10.891,-10.067,-2.0462,-5.8615,-7.7398,-8.5668
-5.9113,-3.0821,-2.1122,4.8544,4.7896,-1.0997,1.0,1.8862,-1.0667,4.8544,4.7896,0.96154,-8.4277,-6.7642,-9.0,-7.9208,-9.0667,-4.0264,-7.7939,-5.7886,-5.6683
-4.9261,-3.0821,-0.13201,4.8544,4.7896,-2.1306,0.0,0.91057,-0.06667,4.8544,4.7896,0.0,-5.5975,-4.813,-6.0,-5.9406,-6.0667,0.92409,-5.8615,-4.813,-4.7021
-5.9113,-7.1022,-2.1122,2.9126,-0.06472,-4.1924,-6.0,-0.06504,-7.0667,2.9126,-0.06472,-3.8462,-5.5975,-4.813,-7.0,-6.9307,-7.0667,-1.0561,-9.7262,-4.813,-5.6683
-8.867,-13.132,-6.0726,1.9417,-1.0356,-5.2234,-10.0,-1.0407,-8.0667,1.9417,-1.0356,-5.7692,-11.258,-6.7642,-11.0,-10.891,-10.067,-12.937,-11.659,-9.6911,-6.6345
-8.867,-14.137,-7.0627,2.9126,-0.06472,-4.1924,-9.0,-0.06504,-10.067,2.9126,-0.06472,-4.8077,-13.145,-8.7154,-12.0,-12.871,-12.067,-11.947,-8.7601,-9.6911,-8.5668
-9.8522,-12.127,-6.0726,4.8544,1.877,-3.1615,-6.0,-0.06504,-6.0667,4.8544,1.877,-2.8846,-11.258,-10.667,-11.0,-12.871,-12.067,-3.0363,-9.7262,-7.7398,-8.5668
-7.8818,-7.1022,-4.0924,4.8544,1.877,-2.1306,-4.0,-0.06504,-4.0667,4.8544,1.877,-0.96154,-9.3711,-9.6911,-10.0,-9.901,-10.067,-5.0165,-12.625,-7.7398,-5.6683
-4.9261,-5.0921,-3.1023,5.8252,2.8479,0.9622,-4.0,2.8618,-6.0667,5.8252,2.8479,0.0,-2.7673,-2.8618,-5.0,-4.9505,-7.0667,-1.0561,-3.9291,-0.91057,-1.8035
-4.9261,-6.0972,-5.0825,5.8252,2.8479,-0.06873,-4.0,4.813,-4.0667,5.8252,2.8479,-0.96154,-1.8239,-3.8374,-5.0,-6.9307,-8.0667,2.9043,-4.8953,1.0407,-2.7697
-5.9113,-7.1022,-6.0726,5.8252,2.8479,-0.06873,-4.0,3.8374,-3.0667,5.8252,2.8479,-0.96154,-3.7107,-6.7642,-6.0,-7.9208,-9.0667,-6.9967,-3.9291,-0.91057,-4.7021
-6.8966,-7.1022,-5.0825,4.8544,0.90615,-1.0997,-3.0,0.91057,-5.0667,4.8544,0.90615,-0.96154,-2.7673,-4.813,-6.0,-7.9208,-9.0667,-6.9967,-2.963,-0.91057,-5.6683
-3.9409,-3.0821,-3.1023,4.8544,0.90615,-0.06873,-1.0,1.8862,-2.0667,4.8544,0.90615,-0.96154,0.06289,0.06504,-4.0,-4.9505,-6.0667,0.92409,-2.963,-2.8618,-2.7697
0.98522,2.9481,1.8482,5.8252,2.8479,3.0241,2.0,5.7886,3.9333,5.8252,2.8479,1.9231,7.6101,8.8455,3.0,1.9802,1.9333,5.8746,0.90177,4.9431,4.9597
4.9261,5.9631,6.7987,6.7961,2.8479,5.0859,3.0,6.7642,0.93333,6.7961,2.8479,3.8462,15.157,17.625999,11.0,9.901,9.9333,2.9043,5.7327,10.797,11.723
6.8966,7.9732,7.7888,6.7961,2.8479,5.0859,2.0,9.6911,-0.06667,6.7961,2.8479,2.8846,15.157,19.577,11.0,12.871,12.933,7.8548,9.5974,10.797,13.655
0.98522,3.9531,3.8284,3.8835,-1.0356,-1.0997,-1.0,4.813,-3.0667,3.8835,-1.0356,-1.9231,5.7233,9.8211,4.0,7.9208,6.9333,-3.0363,-1.0306,2.0163,8.8245
-0.98522,-0.067,3.8284,3.8835,-1.0356,-1.0997,-3.0,3.8374,-8.0667,3.8835,-1.0356,-0.96154,1.0063,2.9919,1.0,3.9604,2.9333,0.92409,-1.0306,-0.91057,4.9597
0.0,1.943,5.8086,7.767,4.7896,1.9931,2.0,4.813,-0.06667,7.767,4.7896,3.8462,1.0063,2.0163,0.0,3.9604,2.9333,-3.0363,7.6651,-1.8862,5.9259
-2.9557,2.9481,4.8185,8.7379,8.6731,3.0241,5.0,3.8374,2.9333,8.7379,8.6731,6.7308,0.06289,0.06504,-4.0,1.9802,-0.06667,-2.0462,7.6651,-5.7886,3.9936
-4.9261,0.93802,0.85809,6.7961,6.7314,0.9622,5.0,2.8618,3.9333,6.7961,6.7314,4.8077,-2.7673,-1.8862,-7.0,-0.9901,-4.0667,5.8746,6.6989,-4.813,3.0274
-9.8522,-1.072,-4.0924,2.9126,4.7896,-3.1615,3.0,-0.06504,1.9333,2.9126,4.7896,0.0,-2.7673,1.0407,-8.0,-1.9802,-6.0667,-3.0363,0.90177,-3.8374,3.9936
-10.837,-0.067,-6.0726,4.8544,5.7605,-2.1306,4.0,0.91057,3.9333,4.8544,5.7605,0.96154,1.9497,5.9187,-7.0,-0.9901,-6.0667,-6.9967,1.868,-2.8618,6.8921
-9.8522,-1.072,-7.0627,4.8544,5.7605,-1.0997,4.0,1.8862,4.9333,4.8544,5.7605,0.96154,4.7799,6.8943,-5.0,-1.9802,-6.0667,-6.9967,8.6312,0.06504,5.9259
-7.8818,-1.072,-4.0924,3.8835,4.7896,-2.1306,3.0,-0.06504,2.9333,3.8835,4.7896,1.9231,1.9497,2.9919,-6.0,-3.9604,-7.0667,-1.0561,1.868,-1.8862,2.0612
-3.9409,-0.067,0.85809,4.8544,4.7896,-0.06873,5.0,-1.0407,2.9333,4.8544,4.7896,4.8077,-1.8239,0.06504,-5.0,-3.9604,-5.0667,-6.9967,2.8341,-1.8862,0.12882
-2.9557,0.93802,1.8482,3.8835,4.7896,-2.1306,5.0,-2.9919,6.9333,3.8835,4.7896,2.8846,-1.8239,1.0407,-3.0,-2.9703,-3.0667,-6.0066,5.7327,-0.91057,1.095
-3.9409,0.93802,-0.13201,2.9126,2.8479,-4.1924,2.0,-2.9919,7.9333,2.9126,2.8479,0.0,-2.7673,0.06504,-4.0,-2.9703,-3.0667,-5.0165,0.90177,-0.91057,1.095
-5.9113,-2.0771,-1.1221,2.9126,1.877,-4.1924,0.0,-2.9919,-1.0667,2.9126,1.877,0.0,-1.8239,1.0407,-4.0,-3.9604,-4.0667,-9.967,2.8341,-0.91057,1.095
-2.9557,-0.067,1.8482,4.8544,3.8188,-0.06873,3.0,-2.0163,-5.0667,4.8544,3.8188,4.8077,0.06289,1.0407,-2.0,-2.9703,-2.0667,-2.0462,-1.9968,2.0163,-0.83736
3.9409,4.9581,7.7888,8.7379,7.7023,6.1168,8.0,1.8862,3.9333,8.7379,7.7023,10.577,2.8931,1.0407,4.0,0.9901,2.9333,6.8647,-2.963,4.9431,1.095
4.9261,4.9581,6.7987,6.7961,5.7605,6.1168,6.0,2.8618,0.93333,6.7961,5.7605,8.6538,4.7799,1.0407,5.0,1.9802,3.9333,1.9142,4.7665,3.9675,2.0612
0.0,0.93802,0.85809,2.9126,0.90615,0.9622,0.0,-1.0407,-4.0667,2.9126,0.90615,2.8846,2.8931,0.06504,2.0,0.0,0.93333,0.92409,6.6989,1.0407,1.095
-5.9113,-2.0771,-4.0924,1.9417,0.90615,-1.0997,0.0,0.91057,-1.0667,1.9417,0.90615,0.0,-0.8805,-2.8618,-4.0,-3.9604,-4.0667,-6.0066,1.868,-2.8618,-1.8035
-10.837,-3.0821,-7.0627,1.9417,1.877,-3.1615,0.0,-4.9431,1.9333,1.9417,1.877,0.0,-0.8805,-1.8862,-8.0,-5.9406,-8.0667,-11.947,5.7327,-4.813,-0.83736
-10.837,-1.072,-8.0528,0.97087,1.877,-3.1615,1.0,-7.8699,3.9333,0.97087,1.877,0.0,-1.8239,0.06504,-10.0,-4.9505,-9.0667,-7.9868,5.7327,-6.7642,1.095
-5.9113,2.9481,-5.0825,0.0,0.90615,-0.06873,3.0,-4.9431,3.9333,0.0,0.90615,0.96154,-0.8805,2.9919,-9.0,0.0,-6.0667,-4.0264,9.5974,-7.7398,3.9936
3.9409,7.9732,1.8482,0.0,0.90615,5.0859,6.0,-2.0163,1.9333,0.0,0.90615,4.8077,2.8931,7.8699,0.0,5.9406,0.93333,2.9043,5.7327,0.06504,8.8245
8.867,6.9682,4.8185,0.0,-0.06472,5.0859,6.0,-0.06504,-1.0667,0.0,-0.06472,5.7692,2.8931,7.8699,4.0,6.9307,4.9333,-1.0561,1.868,2.0163,8.8245
11.823,5.9631,6.7987,-0.97087,-2.0065,4.055,5.0,-1.0407,-1.0667,-0.97087,-2.0065,5.7692,5.7233,8.8455,9.0,6.9307,6.9333,2.9043,6.6989,4.9431,6.8921
11.823,2.9481,5.8086,-3.8835,-4.9191,1.9931,2.0,-3.9675,-4.0667,-3.8835,-4.9191,2.8846,6.6667,4.9431,10.0,3.9604,5.9333,7.8548,-1.0306,5.9187,2.0612
12.808,2.9481,7.7888,-3.8835,-4.9191,4.055,3.0,-1.0407,-1.0667,-3.8835,-4.9191,4.8077,5.7233,2.0163,11.0,2.9703,7.9333,9.835,-3.9291,7.8699,-1.8035
13.793,3.9531,8.7789,-2.9126,-3.9482,5.0859,3.0,-0.06504,0.93333,-2.9126,-3.9482,4.8077,6.6667,2.9919,12.0,2.9703,8.9333,9.835,4.7665,9.8211,-1.8035
12.808,2.9481,7.7888,-5.8252,-4.9191,0.9622,1.0,-2.0163,-0.06667,-5.8252,-4.9191,1.9231,7.6101,3.9675,13.0,1.9802,7.9333,4.8845,3.8003,12.748,-2.7697
15.764,8.9782,11.749,-2.9126,-1.0356,5.0859,5.0,-0.06504,2.9333,-2.9126,-1.0356,6.7308,13.27,9.8211,16.0,6.9307,10.933,12.805,4.7665,17.625999,3.0274
12.808,6.9682,10.759,0.0,0.90615,9.2096,6.0,4.813,3.9333,0.0,0.90615,8.6538,11.384,8.8455,12.0,5.9406,8.9333,12.805,-2.963,12.748,3.0274
3.9409,-3.0821,1.8482,-0.97087,-2.0065,5.0859,1.0,3.8374,-1.0667,-0.97087,-2.0065,3.8462,4.7799,2.9919,3.0,-2.9703,-0.06667,1.9142,-4.8953,2.9919,-3.7359
-4.9261,-10.117,-6.0726,-2.9126,-2.9773,-1.0997,-3.0,-2.0163,1.9333,-2.9126,-2.9773,-0.96154,-2.7673,-3.8374,-7.0,-9.901,-9.0667,-3.0363,-2.963,-3.8374,-8.5668
-7.8818,-9.1122,-8.0528,-2.9126,-2.9773,-3.1615,-3.0,-4.9431,-3.0667,-2.9126,-2.9773,-2.8846,-5.5975,-4.813,-10.0,-9.901,-12.067,-1.0561,-3.9291,-7.7398,-6.6345
0.0,-0.067,-2.1122,0.0,-0.06472,3.0241,2.0,-1.0407,-2.0667,0.0,-0.06472,1.9231,-2.7673,2.0163,-6.0,-2.9703,-7.0667,1.9142,7.6651,-4.813,2.0612
8.867,7.9732,4.8185,1.9417,2.8479,8.1787,7.0,2.8618,7.9333,1.9417,2.8479,7.6923,2.8931,5.9187,1.0,2.9703,-0.06667,6.8647,-1.9968,2.9919,7.8583
15.764,11.993,10.759,2.9126,3.8188,11.271,11.0,4.813,8.9333,2.9126,3.8188,10.577,10.44,12.748,11.0,9.901,8.9333,10.825,5.7327,9.8211,12.689
17.733999,9.9832,11.749,0.0,-0.06472,9.2096,7.0,1.8862,1.9333,0.0,-0.06472,7.6923,14.214,14.699,17.0,12.871,13.933,7.8548,14.428,11.772,11.723
17.733999,7.9732,10.759,-1.9417,-2.9773,8.1787,3.0,1.8862,-1.0667,-1.9417,-2.9773,4.8077,16.101,13.724,19.0,11.881,15.933,3.8944,7.6651,13.724,7.8583
19.704,7.9732,12.739,1.9417,0.90615,10.241,5.0,4.813,2.9333,1.9417,0.90615,6.7308,18.931,14.699,22.0,11.881,18.933001,13.795,6.6989,15.675,6.8921
20.690001,10.988,15.71,4.8544,5.7605,12.302,9.0,5.7886,8.9333,4.8544,5.7605,10.577,18.931,13.724,20.0,12.871,18.933001,19.736,7.6651,14.699,7.8583
14.778,10.988,15.71,0.0,-0.06472,8.1787,6.0,2.8618,1.9333,0.0,-0.06472,7.6923,9.4969,7.8699,13.0,10.891,14.933,3.8944,4.7665,7.8699,4.9597
8.867,7.9732,12.739,-3.8835,-2.9773,4.055,3.0,-2.0163,-0.06667,-3.8835,-2.9773,4.8077,1.0063,2.9919,4.0,5.9406,8.9333,0.92409,5.7327,-3.8374,2.0612
4.9261,4.9581,7.7888,-2.9126,-2.0065,4.055,3.0,-1.0407,5.9333,-2.9126,-2.0065,2.8846,-1.8239,-2.8618,0.0,0.9901,2.9333,-1.0561,2.8341,-5.7886,-1.8035
-0.98522,-1.072,0.85809,-3.8835,-2.9773,1.9931,1.0,-2.9919,-0.06667,-3.8835,-2.9773,0.0,-6.5409,-7.7398,-7.0,-5.9406,-6.0667,-3.0363,-3.9291,-3.8374,-5.6683
-4.9261,-4.0871,-3.1023,-2.9126,-2.0065,-0.06873,0.0,-2.9919,-3.0667,-2.9126,-2.0065,-1.9231,-4.6541,-5.7886,-10.0,-7.9208,-10.067,-4.0264,-4.8953,-3.8374,-3.7359
-1.9704,-3.0821,-2.1122,0.0,-1.0356,-0.06873,0.0,-1.0407,-0.06667,0.0,-1.0356,-0.96154,2.8931,2.0163,-6.0,-3.9604,-7.0667,-0.06601,-3.9291,-1.8862,0.12882
0.0,-3.0821,-2.1122,0.0,-2.9773,0.9622,-1.0,-0.06504,-4.0667,0.0,-2.9773,0.0,3.8365,4.9431,-6.0,-2.9703,-8.0667,-1.0561,-0.06441,-1.8862,2.0612
1.9704,0.93802,-0.13201,0.97087,-2.0065,4.055,2.0,0.91057,-1.0667,0.97087,-2.0065,2.8846,3.8365,5.9187,-5.0,-0.9901,-7.0667,-1.0561,8.6312,0.06504,3.0274
4.9261,7.9732,4.8185,1.9417,-0.06472,5.0859,8.0,0.91057,4.9333,1.9417,-0.06472,5.7692,7.6101,9.8211,0.0,4.9505,-0.06667,1.9142,2.8341,2.0163,5.9259
9.8522,12.998,9.769,2.9126,2.8479,6.1168,13.0,1.8862,10.933,2.9126,2.8479,8.6538,12.327,14.699,8.0,10.891,8.9333,-3.0363,-0.06441,1.0407,7.8583
15.764,16.013,14.719,4.8544,5.7605,10.241,14.0,3.8374,6.9333,4.8544,5.7605,11.538,17.987,19.577,18.0,16.832001,16.933001,5.8746,3.8003,8.8455,14.622
16.749001,14.003,15.71,3.8835,5.7605,10.241,12.0,3.8374,3.9333,3.8835,5.7605,11.538,17.044001,17.625999,19.0,16.832001,17.933001,11.815,12.496,11.772,17.52
17.733999,12.998,15.71,4.8544,6.7314,11.271,13.0,4.813,8.9333,4.8544,6.7314,12.5,13.27,13.724,18.0,14.851,16.933001,5.8746,15.395,10.797,16.554001
13.793,10.988,13.729,5.8252,6.7314,11.271,13.0,5.7886,6.9333,5.8252,6.7314,12.5,8.5535,9.8211,14.0,11.881,13.933,1.9142,16.361,9.8211,12.689
6.8966,9.9832,9.769,4.8544,5.7605,7.1478,12.0,2.8618,4.9333,4.8544,5.7605,9.6154,2.8931,4.9431,8.0,6.9307,8.9333,4.8845,-0.06441,2.9919,8.8245
2.9557,6.9682,7.7888,2.9126,4.7896,4.055,9.0,1.8862,1.9333,2.9126,4.7896,6.7308,0.06289,0.06504,3.0,2.9703,4.9333,5.8746,2.8341,-0.91057,4.9597
5.9113,2.9481,6.7987,3.8835,3.8188,6.1168,6.0,3.8374,0.93333,3.8835,3.8188,5.7692,-2.7673,-4.813,2.0,-0.9901,0.93333,5.8746,6.6989,-0.91057,0.12882
5.9113,0.93802,5.8086,4.8544,3.8188,6.1168,6.0,3.8374,2.9333,4.8544,3.8188,4.8077,-7.4843,-8.7154,-1.0,-3.9604,-2.0667,2.9043,-5.8615,-2.8618,-5.6683
5.9113,1.943,4.8185,2.9126,1.877,5.0859,7.0,3.8374,0.93333,2.9126,1.877,4.8077,-2.7673,-1.8862,0.0,-2.9703,-1.0667,5.8746,-6.8277,-1.8862,-3.7359
2.9557,-0.067,1.8482,0.0,-1.0356,0.9622,3.0,0.91057,-4.0667,0.0,-1.0356,0.96154,3.8365,2.9919,1.0,-0.9901,-0.06667,0.92409,-0.06441,2.0163,-1.8035
-1.9704,-5.0921,-4.0924,-2.9126,-4.9191,-3.1615,-3.0,-2.0163,-3.0667,-2.9126,-4.9191,-3.8462,2.8931,0.06504,-2.0,-2.9703,-2.0667,-3.0363,3.8003,1.0407,-3.7359
-2.9557,-5.0921,-5.0825,-2.9126,-4.9191,-4.1924,-6.0,-2.9919,-6.0667,-2.9126,-4.9191,-5.7692,4.7799,2.9919,-2.0,0.0,-1.0667,0.92409,-5.8615,-0.91057,0.12882
-2.9557,-1.072,-4.0924,-2.9126,-3.9482,-3.1615,-4.0,-3.9675,-7.0667,-2.9126,-3.9482,-4.8077,2.8931,2.9919,-3.0,2.9703,-0.06667,-4.0264,-4.8953,-3.8374,1.095
1.9704,7.9732,1.8482,0.97087,-0.06472,3.0241,4.0,-1.0407,0.93333,0.97087,-0.06472,0.96154,2.8931,4.9431,0.0,6.9307,2.9333,-5.0165,0.90177,-0.91057,5.9259
3.9409,11.993,6.7987,2.9126,1.877,7.1478,10.0,0.91057,9.9333,2.9126,1.877,6.7308,3.8365,5.9187,2.0,8.9109,3.9333,0.92409,2.8341,1.0407,7.8583
3.9409,8.9782,7.7888,1.9417,0.90615,7.1478,9.0,-0.06504,9.9333,1.9417,0.90615,6.7308,-0.8805,-0.91057,1.0,4.9505,1.9333,4.8845,7.6651,-0.91057,3.0274
10.837,11.993,13.729,2.9126,1.877,11.271,9.0,1.8862,2.9333,2.9126,1.877,9.6154,1.0063,1.0407,8.0,6.9307,7.9333,-2.0462,11.53,2.9919,5.9259
17.733999,16.013,19.67,4.8544,2.8479,14.364,12.0,5.7886,0.93333,4.8544,2.8479,13.462,4.7799,5.9187,13.0,12.871,13.933,2.9043,1.868,5.9187,8.8245
20.690001,16.013,19.67,4.8544,4.7896,14.364,13.0,5.7886,6.9333,4.8544,4.7896,13.462,6.6667,7.8699,16.0,13.861,15.933,3.8944,4.7665,8.8455,10.757
17.733999,10.988,15.71,4.8544,5.7605,13.333,11.0,9.6911,6.9333,4.8544,5.7605,10.577,7.6101,8.8455,14.0,10.891,12.933,4.8845,5.7327,9.8211,7.8583
13.793,7.9732,11.749,5.8252,5.7605,10.241,10.0,6.7642,7.9333,5.8252,5.7605,9.6154,8.5535,6.8943,12.0,8.9109,10.933,7.8548,3.8003,7.8699,3.9936
9.8522,4.9581,7.7888,4.8544,4.7896,6.1168,7.0,4.813,4.9333,4.8544,4.7896,5.7692,4.7799,2.9919,9.0,5.9406,7.9333,9.835,7.6651,2.9919,0.12882
8.867,-0.067,3.8284,2.9126,2.8479,5.0859,3.0,5.7886,2.9333,2.9126,2.8479,3.8462,-1.8239,-3.8374,3.0,0.0,2.9333,11.815,-1.9968,-3.8374,-5.6683
5.9113,-2.0771,1.8482,0.97087,1.877,3.0241,2.0,1.8862,0.93333,0.97087,1.877,1.9231,-2.7673,-3.8374,0.0,-2.9703,0.93333,6.8647,-2.963,-5.7886,-6.6345
1.9704,-1.072,-0.13201,0.0,0.90615,-1.0997,1.0,-2.0163,-0.06667,0.0,0.90615,0.0,-0.8805,-0.91057,0.0,-0.9901,0.93333,-9.967,0.90177,-3.8374,-1.8035
-2.9557,-0.067,-2.1122,0.97087,3.8188,-2.1306,2.0,-2.0163,6.9333,0.97087,3.8188,-0.96154,2.8931,2.9919,-1.0,1.9802,1.9333,-5.0165,6.6989,-3.8374,3.9936
-3.9409,3.9531,0.85809,2.9126,6.7314,0.9622,5.0,-0.06504,12.933,2.9126,6.7314,0.96154,7.6101,10.797,0.0,7.9208,5.9333,1.9142,12.496,1.0407,11.723
-6.8966,3.9531,2.8383,0.97087,3.8188,-2.1306,2.0,0.91057,7.9333,0.97087,3.8188,-1.9231,5.7233,12.748,-3.0,10.891,6.9333,-3.0363,12.496,-2.8618,14.622
-4.9261,5.9631,3.8284,0.97087,3.8188,-1.0997,2.0,-1.0407,5.9333,0.97087,3.8188,-0.96154,4.7799,8.8455,-3.0,11.881,6.9333,-5.0165,13.462,-8.7154,11.723
3.9409,7.9732,6.7987,4.8544,6.7314,5.0859,7.0,-0.06504,8.9333,4.8544,6.7314,4.8077,1.0063,2.9919,2.0,9.901,6.9333,-8.9769,2.8341,-4.813,8.8245
8.867,8.9782,8.7789,6.7961,4.7896,7.1478,8.0,2.8618,4.9333,6.7961,4.7896,7.6923,-0.8805,0.06504,7.0,8.9109,6.9333,-4.0264,0.90177,5.9187,7.8583
10.837,8.9782,9.769,6.7961,4.7896,8.1787,8.0,5.7886,1.9333,6.7961,4.7896,7.6923,1.0063,1.0407,11.0,7.9208,7.9333,9.835,4.7665,8.8455,6.8921
10.837,7.9732,9.769,4.8544,4.7896,6.1168,7.0,3.8374,5.9333,4.8544,4.7896,6.7308,5.7233,3.9675,13.0,7.9208,9.9333,8.8449,5.7327,10.797,6.8921
7.8818,7.9732,8.7789,2.9126,4.7896,4.055,6.0,0.91057,6.9333,2.9126,4.7896,4.8077,9.4969,6.8943,14.0,8.9109,11.933,5.8746,9.5974,10.797,8.8245
8.867,9.9832,9.769,3.8835,5.7605,5.0859,7.0,1.8862,6.9333,3.8835,5.7605,5.7692,14.214,10.797,16.0,11.881,14.933,6.8647,3.8003,12.748,11.723
10.837,10.988,12.739,4.8544,4.7896,7.1478,7.0,4.813,4.9333,4.8544,4.7896,6.7308,16.101,12.748,16.0,12.871,15.933,8.8449,5.7327,11.772,12.689
8.867,8.9782,9.769,3.8835,2.8479,6.1168,6.0,2.8618,5.9333,3.8835,2.8479,5.7692,11.384,8.8455,12.0,8.9109,10.933,2.9043,9.5974,8.8455,9.7907
2.9557,6.9682,5.8086,4.8544,5.7605,5.0859,7.0,0.91057,16.933001,4.8544,5.7605,5.7692,7.6101,5.9187,7.0,4.9505,5.9333,-5.0165,5.7327,4.9431,7.8583
-6.8966,0.93802,-2.1122,5.8252,6.7314,1.9931,3.0,-0.06504,8.9333,5.8252,6.7314,1.9231,-2.7673,-2.8618,-4.0,-2.9703,-5.0667,-2.0462,5.7327,-2.8618,3.0274
-12.808,-3.0821,-7.0627,3.8835,3.8188,-2.1306,0.0,-2.9919,-2.0667,3.8835,3.8188,-0.96154,-11.258,-7.7398,-13.0,-7.9208,-12.067,1.9142,1.868,-6.7642,1.095
-7.8818,-1.072,-4.0924,2.9126,3.8188,-2.1306,1.0,-3.9675,0.93333,2.9126,3.8188,0.96154,-6.5409,0.06504,-12.0,-1.9802,-9.0667,-4.0264,8.6312,-8.7154,4.9597
-0.98522,2.9481,3.8284,4.8544,6.7314,1.9931,6.0,-2.0163,6.9333,4.8544,6.7314,4.8077,-1.8239,6.8943,-7.0,4.9505,-0.06667,-4.0264,-13.591,-7.7398,7.8583
4.9261,5.9631,8.7789,6.7961,8.6731,6.1168,7.0,2.8618,7.9333,6.7961,8.6731,7.6923,5.7233,14.699,2.0,11.881,10.933,4.8845,-11.659,-0.91057,9.7907
6.8966,6.9682,11.749,3.8835,4.7896,5.0859,5.0,2.8618,3.9333,3.8835,4.7896,4.8077,11.384,18.601999,10.0,16.832001,19.933001,7.8548,9.5974,-0.91057,9.7907
10.837,9.9832,13.729,1.9417,1.877,4.055,4.0,2.8618,2.9333,1.9417,1.877,3.8462,18.931,23.48,17.0,21.782,25.933001,2.9043,12.496,3.9675,12.689
14.778,11.993,14.719,3.8835,2.8479,6.1168,5.0,3.8374,2.9333,3.8835,2.8479,4.8077,24.591,25.431,22.0,22.771999,26.933001,2.9043,11.53,10.797,15.588
19.704,15.008,14.719,6.7961,6.7314,10.241,7.0,6.7642,2.9333,6.7961,6.7314,6.7308,31.195,28.358,27.0,24.752001,27.933001,15.776,13.462,20.552999,20.419001
18.719,16.013,12.739,6.7961,5.7605,9.2096,5.0,6.7642,4.9333,6.7961,5.7605,6.7308,34.969002,28.358,28.0,24.752001,24.933001,17.756001,4.7665,26.407,25.25
16.749001,14.003,10.759,4.8544,5.7605,7.1478,5.0,4.813,10.933,4.8544,5.7605,4.8077,34.969002,27.382,27.0,21.782,21.933001,12.805,2.8341,28.358,28.148001
14.778,14.003,10.759,3.8835,4.7896,7.1478,5.0,3.8374,5.9333,3.8835,4.7896,5.7692,34.025002,25.431,25.0,20.792,19.933001,15.776,13.462,28.358,31.047001
10.837,12.998,8.7789,5.8252,4.7896,7.1478,7.0,3.8374,2.9333,5.8252,4.7896,6.7308,26.478001,19.577,20.0,16.832001,13.933,11.815,20.225,25.431,30.080999
7.8818,12.998,6.7987,5.8252,5.7605,8.1787,9.0,3.8374,5.9333,5.8252,5.7605,7.6923,20.818001,15.675,14.0,12.871,8.9333,9.835,17.327,20.552999,25.25
9.8522,15.008,8.7789,10.68,9.644,13.333,12.0,6.7642,4.9333,10.68,9.644,13.462,16.101,15.675,12.0,12.871,7.9333,5.8746,16.361,14.699,23.316999
12.808,17.018,11.749,13.592,12.557,16.426001,17.0,8.7154,8.9333,13.592,12.557,18.268999,8.5535,14.699,10.0,13.861,7.9333,4.8845,7.6651,7.8699,23.316999
12.808,17.018,14.719,13.592,12.557,16.426001,19.0,7.7398,10.933,13.592,12.557,20.191999,3.8365,12.748,9.0,13.861,10.933,5.8746,10.564,3.9675,19.452
10.837,15.008,14.719,12.621,11.586,13.333,19.0,4.813,10.933,12.621,11.586,18.268999,0.06289,10.797,7.0,13.861,12.933,4.8845,16.361,-2.8618,14.622
8.867,12.998,12.739,10.68,11.586,11.271,17.0,6.7642,12.933,10.68,11.586,15.385,-2.7673,9.8211,3.0,12.871,13.933,3.8944,12.496,-9.6911,9.7907
7.8818,10.988,12.739,6.7961,9.644,8.1787,14.0,3.8374,11.933,6.7961,9.644,12.5,1.9497,10.797,5.0,13.861,15.933,-1.0561,11.53,-7.7398,6.8921
6.8966,12.998,14.719,5.8252,8.6731,7.1478,12.0,5.7886,11.933,5.8252,8.6731,11.538,10.44,14.699,9.0,15.842,17.933001,1.9142,-1.0306,1.0407,6.8921
7.8818,14.003,14.719,6.7961,7.7023,8.1787,11.0,8.7154,8.9333,6.7961,7.7023,10.577,17.987,17.625999,14.0,15.842,16.933001,9.835,2.8341,14.699,9.7907
10.837,14.003,15.71,8.7379,8.6731,10.241,12.0,9.6911,8.9333,8.7379,8.6731,12.5,20.818001,14.699,14.0,13.861,13.933,6.8647,15.395,18.601999,12.689
8.867,12.998,13.729,9.7087,9.644,11.271,12.0,11.642,13.933,9.7087,9.644,10.577,16.101,9.8211,10.0,9.901,6.9333,13.795,20.225,20.552999,13.655
6.8966,12.998,10.759,8.7379,10.615,9.2096,12.0,11.642,16.933001,8.7379,10.615,8.6538,17.044001,11.772,10.0,11.881,6.9333,15.776,22.158001,23.48,18.486
4.9261,14.003,8.7789,6.7961,9.644,5.0859,10.0,8.7154,10.933,6.7961,9.644,6.7308,21.761,16.65,13.0,15.842,10.933,8.8449,11.53,24.455,22.351
4.9261,14.003,6.7987,2.9126,4.7896,-0.06873,7.0,3.8374,4.9333,2.9126,4.7896,2.8846,23.648001,18.601999,17.0,17.822001,13.933,16.766001,0.90177,25.431,22.351
8.867,14.003,6.7987,4.8544,5.7605,-0.06873,6.0,2.8618,4.9333,4.8544,5.7605,2.8846,29.308001,25.431,24.0,19.802,18.933001,15.776,12.496,30.309,27.181999
10.837,14.003,6.7987,6.7961,6.7314,1.9931,6.0,5.7886,6.9333,6.7961,6.7314,2.8846,32.138,31.285,27.0,22.771999,22.933001,13.795,21.191999,28.358,28.148001
10.837,12.998,6.7987,5.8252,6.7314,1.9931,6.0,2.8618,11.933,5.8252,6.7314,2.8846,26.478001,26.407,24.0,20.792,22.933001,16.766001,14.428,20.552999,19.452
9.8522,11.993,6.7987,5.8252,7.7023,3.0241,7.0,-0.06504,13.933,5.8252,7.7023,3.8462,14.214,15.675,16.0,17.822001,18.933001,-0.06601,12.496,9.8211,12.689
7.8818,12.998,7.7888,4.8544,6.7314,3.0241,8.0,1.8862,8.9333,4.8544,6.7314,4.8077,6.6667,10.797,13.0,15.842,16.933001,-2.0462,10.564,3.9675,10.757
10.837,12.998,10.759,5.8252,7.7023,5.0859,11.0,2.8618,5.9333,5.8252,7.7023,7.6923,5.7233,7.8699,13.0,13.861,15.933,8.8449,13.462,1.0407,7.8583
12.808,11.993,12.739,8.7379,10.615,9.2096,13.0,7.7398,10.933,8.7379,10.615,11.538,5.7233,2.9919,11.0,8.9109,11.933,8.8449,1.868,0.06504,2.0612
4.9261,4.9581,8.7789,8.7379,10.615,9.2096,9.0,6.7642,7.9333,8.7379,10.615,9.6154,-0.8805,-5.7886,1.0,-1.9802,-0.06667,4.8845,0.90177,-3.8374,-4.7021
-0.98522,1.943,6.7987,10.68,11.586,11.271,9.0,7.7398,5.9333,10.68,11.586,11.538,-5.5975,-10.667,-6.0,-5.9406,-7.0667,4.8845,3.8003,-5.7886,-6.6345
1.9704,5.9631,6.7987,12.621,13.528,11.271,13.0,9.6911,12.933,12.621,13.528,13.462,-1.8239,-3.8374,-2.0,-0.9901,-4.0667,6.8647,-0.06441,1.0407,0.12882
5.9113,9.9832,7.7888,9.7087,11.586,10.241,11.0,8.7154,7.9333,9.7087,11.586,12.5,8.5535,9.8211,7.0,9.901,4.9333,-2.0462,5.7327,9.8211,12.689
9.8522,16.013,10.759,9.7087,10.615,9.2096,11.0,8.7154,6.9333,9.7087,10.615,12.5,16.101,20.552999,15.0,20.792,14.933,2.9043,15.395,16.65,25.25
7.8818,15.008,7.7888,8.7379,9.644,7.1478,9.0,5.7886,7.9333,8.7379,9.644,8.6538,17.987,21.528,16.0,22.771999,16.933001,11.815,23.124001,15.675,26.216
5.9113,10.988,4.8185,6.7961,7.7023,5.0859,7.0,6.7642,7.9333,6.7961,7.7023,4.8077,13.27,17.625999,14.0,17.822001,15.933,7.8548,10.564,11.772,19.452
9.8522,11.993,8.7789,8.7379,9.644,9.2096,9.0,10.667,7.9333,8.7379,9.644,8.6538,16.101,16.65,17.0,17.822001,19.933001,11.815,8.6312,13.724,15.588
13.793,14.003,13.729,8.7379,10.615,10.241,10.0,8.7154,7.9333,8.7379,10.615,10.577,17.044001,13.724,21.0,17.822001,23.933001,12.805,13.462,17.625999,9.7907
10.837,10.988,12.739,5.8252,7.7023,6.1168,7.0,5.7886,9.9333,5.8252,7.7023,5.7692,13.27,6.8943,20.0,11.881,21.933001,7.8548,-0.06441,16.65,0.12882
8.867,6.9682,10.759,5.8252,5.7605,5.0859,4.0,8.7154,3.9333,5.8252,5.7605,2.8846,7.6101,0.06504,16.0,5.9406,17.933001,4.8845,-3.9291,8.8455,-6.6345
8.867,6.9682,12.739,8.7379,8.6731,9.2096,7.0,9.6911,3.9333,8.7379,8.6731,6.7308,4.7799,-1.8862,13.0,4.9505,14.933,3.8944,-5.8615,1.0407,-4.7021
6.8966,8.9782,13.729,10.68,9.644,12.302,10.0,11.642,3.9333,10.68,9.644,10.577,3.8365,0.06504,10.0,5.9406,12.933,7.8548,2.8341,0.06504,2.0612
0.98522,9.9832,11.749,10.68,10.615,11.271,10.0,7.7398,6.9333,10.68,10.615,11.538,0.06289,-0.91057,4.0,2.9703,5.9333,-1.0561,10.564,-2.8618,4.9597
-0.98522,10.988,6.7987,8.7379,11.586,7.1478,11.0,5.7886,12.933,8.7379,11.586,8.6538,-3.7107,-0.91057,-1.0,1.9802,-0.06667,1.9142,12.496,-3.8374,7.8583
-0.98522,11.993,2.8383,6.7961,11.586,3.0241,12.0,2.8618,20.933001,6.7961,11.586,6.7308,-2.7673,2.0163,-4.0,2.9703,-4.0667,0.92409,12.496,-4.813,10.757
-0.98522,9.9832,-0.13201,2.9126,7.7023,-0.06873,9.0,-2.9919,10.933,2.9126,7.7023,3.8462,0.06289,4.9431,-4.0,2.9703,-5.0667,0.92409,13.462,-3.8374,10.757
0.98522,7.9732,-0.13201,1.9417,5.7605,0.9622,7.0,-2.0163,1.9333,1.9417,5.7605,2.8846,3.8365,9.8211,0.0,4.9505,-3.0667,1.9142,2.8341,1.0407,9.7907
2.9557,6.9682,1.8482,1.9417,2.8479,1.9931,6.0,1.8862,0.93333,1.9417,2.8479,3.8462,3.8365,10.797,4.0,6.9307,1.9333,1.9142,0.90177,2.9919,8.8245
3.9409,6.9682,3.8284,2.9126,2.8479,1.9931,5.0,3.8374,4.9333,2.9126,2.8479,2.8846,4.7799,8.8455,7.0,8.9109,6.9333,4.8845,4.7665,3.9675,4.9597
4.9261,5.9631,5.8086,6.7961,6.7314,4.055,7.0,9.6911,8.9333,6.7961,6.7314,4.8077,5.7233,5.9187,7.0,7.9208,8.9333,-1.0561,6.6989,4.9431,3.0274
2.9557,4.9581,6.7987,6.7961,5.7605,4.055,6.0,4.813,3.9333,6.7961,5.7605,4.8077,3.8365,2.9919,6.0,5.9406,7.9333,-0.06601,6.6989,5.9187,0.12882
1.9704,0.93802,5.8086,6.7961,4.7896,3.0241,5.0,2.8618,4.9333,6.7961,4.7896,4.8077,-0.8805,-2.8618,4.0,0.0,3.9333,2.9043,1.868,4.9431,-4.7021
-3.9409,-6.0972,0.85809,5.8252,5.7605,1.9931,2.0,3.8374,0.93333,5.8252,5.7605,2.8846,-7.4843,-9.6911,-4.0,-6.9307,-3.0667,-4.0264,-13.591,-4.813,-11.465
-7.8818,-9.1122,-3.1023,5.8252,6.7314,1.9931,0.0,4.813,-2.0667,5.8252,6.7314,1.9231,-11.258,-14.569,-10.0,-10.891,-8.0667,-1.0561,-7.7939,-8.7154,-11.465
-11.823,-11.122,-6.0726,6.7961,4.7896,0.9622,0.0,7.7398,-0.06667,6.7961,4.7896,0.0,-15.031,-17.496,-15.0,-14.851,-13.067,-4.0264,-3.9291,-11.642,-15.33
-13.793,-6.0972,-7.0627,5.8252,3.8188,-3.1615,1.0,6.7642,3.9333,5.8252,3.8188,-1.9231,-11.258,-12.618,-14.0,-12.871,-12.067,-5.0165,-5.8615,-8.7154,-11.465
-14.778,-4.0871,-10.033,0.97087,1.877,-8.3162,-2.0,2.8618,0.93333,0.97087,1.877,-5.7692,-5.5975,-7.7398,-11.0,-8.9109,-11.067,-1.0561,-6.8277,0.06504,-5.6683
-13.793,-4.0871,-13.993,0.0,0.90615,-8.3162,-4.0,2.8618,-0.06667,0.0,0.90615,-7.6923,-6.5409,-7.7398,-10.0,-8.9109,-13.067,6.8647,-6.8277,4.9431,-4.7021
-13.793,-6.0972,-17.954,0.0,0.90615,-9.3471,-6.0,-0.06504,2.9333,0.0,0.90615,-9.6154,-6.5409,-6.7642,-10.0,-8.9109,-15.067,-3.0363,3.8003,0.06504,-1.8035
-12.808,-8.1072,-17.954,-1.9417,-2.9773,-9.3471,-8.0,2.8618,-0.06667,-1.9417,-2.9773,-10.577,-6.5409,-5.7886,-10.0,-9.901,-16.066999,-6.0066,6.6989,-6.7642,-1.8035
-3.9409,-3.0821,-10.033,0.0,-2.0065,-5.2234,-3.0,1.8862,-1.0667,0.0,-2.0065,-5.7692,-0.8805,0.06504,-3.0,-4.9505,-9.0667,-3.0363,1.868,-1.8862,1.095
0.98522,3.9531,-2.1122,1.9417,0.90615,-2.1306,1.0,2.8618,0.93333,1.9417,0.90615,-1.9231,2.8931,5.9187,3.0,0.9901,-1.0667,2.9043,0.90177,2.9919,2.0612
3.9409,5.9631,0.85809,1.9417,0.90615,-1.0997,1.0,5.7886,3.9333,1.9417,0.90615,-0.96154,4.7799,7.8699,5.0,4.9505,3.9333,0.92409,1.868,5.9187,5.9259
5.9113,3.9531,2.8383,0.97087,-1.0356,-0.06873,-2.0,6.7642,2.9333,0.97087,-1.0356,-0.96154,6.6667,8.8455,8.0,6.9307,7.9333,6.8647,-0.06441,9.8211,5.9259
3.9409,0.93802,2.8383,0.97087,-2.0065,0.9622,-4.0,7.7398,-0.06667,0.97087,-2.0065,-1.9231,9.4969,8.8455,8.0,5.9406,8.9333,15.776,3.8003,9.8211,3.9936
-1.9704,-3.0821,-0.13201,0.0,-2.0065,-1.0997,-5.0,6.7642,-4.0667,0.0,-2.0065,-3.8462,6.6667,4.9431,3.0,1.9802,4.9333,9.835,3.8003,3.9675,0.12882
-2.9557,-3.0821,-2.1122,0.0,0.90615,-1.0997,-2.0,4.813,-0.06667,0.0,0.90615,-2.8846,1.9497,-0.91057,1.0,-2.9703,1.9333,-1.0561,-0.06441,3.9675,-2.7697
0.0,-0.067,0.85809,0.97087,3.8188,-0.06873,2.0,4.813,2.9333,0.97087,3.8188,0.96154,1.9497,-2.8618,4.0,-3.9604,2.9333,1.9142,-0.06441,7.8699,-3.7359
-0.98522,-3.0821,-1.1221,-0.97087,0.90615,-4.1924,-2.0,3.8374,-4.0667,-0.97087,0.90615,-2.8846,-1.8239,-8.7154,1.0,-7.9208,-0.06667,7.8548,-10.692,4.9431,-7.6006
-3.9409,-6.0972,-7.0627,-2.9126,-2.9773,-6.2543,-8.0,4.813,-5.0667,-2.9126,-2.9773,-7.6923,-3.7107,-10.667,-3.0,-10.891,-5.0667,8.8449,-5.8615,2.0163,-7.6006
-3.9409,-6.0972,-11.023,-2.9126,-2.9773,-8.3162,-10.0,2.8618,-5.0667,-2.9126,-2.9773,-9.6154,0.06289,-3.8374,-1.0,-6.9307,-5.0667,1.9142,3.8003,3.9675,0.12882
-2.9557,-5.0921,-10.033,-3.8835,-2.9773,-9.3471,-10.0,0.91057,-0.06667,-3.8835,-2.9773,-10.577,2.8931,2.0163,1.0,-2.9703,-3.0667,1.9142,3.8003,6.8943,4.9597
0.98522,-4.0871,-5.0825,-2.9126,-2.9773,-7.2852,-7.0,0.91057,-3.0667,-2.9126,-2.9773,-6.7308,6.6667,6.8943,4.0,0.9901,-0.06667,5.8746,1.868,10.797,5.9259
2.9557,-0.067,-1.1221,0.0,0.90615,-2.1306,-2.0,3.8374,-2.0667,0.0,0.90615,-1.9231,5.7233,7.8699,6.0,2.9703,2.9333,7.8548,2.8341,8.8455,3.9936
1.9704,-1.072,-2.1122,0.97087,1.877,-1.0997,-3.0,3.8374,-1.0667,0.97087,1.877,-0.96154,4.7799,4.9431,6.0,0.0,2.9333,4.8845,-7.7939,7.8699,-0.83736
3.9409,-0.067,-0.13201,3.8835,1.877,3.0241,-3.0,5.7886,-1.0667,3.8835,1.877,0.0,5.7233,4.9431,8.0,0.9901,3.9333,12.805,-3.9291,8.8455,-1.8035
5.9113,1.943,3.8284,5.8252,3.8188,7.1478,1.0,5.7886,-0.06667,5.8252,3.8188,4.8077,6.6667,5.9187,9.0,2.9703,4.9333,13.795,4.7665,9.8211,0.12882
6.8966,2.9481,4.8185,7.767,5.7605,10.241,7.0,5.7886,6.9333,7.767,5.7605,8.6538,7.6101,6.8943,9.0,2.9703,5.9333,8.8449,1.868,12.748,0.12882
6.8966,3.9531,5.8086,7.767,7.7023,11.271,10.0,4.813,6.9333,7.767,7.7023,11.538,9.4969,6.8943,10.0,4.9505,6.9333,6.8647,1.868,13.724,-0.83736
9.8522,4.9581,6.7987,7.767,7.7023,12.302,10.0,4.813,4.9333,7.767,7.7023,12.5,8.5535,5.9187,12.0,5.9406,8.9333,13.795,-0.06441,14.699,-0.83736
14.778,5.9631,7.7888,8.7379,9.644,16.426001,11.0,7.7398,3.9333,8.7379,9.644,14.423,6.6667,2.9919,13.0,5.9406,7.9333,16.766001,-10.692,15.675,-1.8035
14.778,5.9631,6.7987,8.7379,9.644,15.395,11.0,5.7886,5.9333,8.7379,9.644,14.423,4.7799,1.0407,11.0,4.9505,5.9333,15.776,-1.0306,14.699,1.095
12.808,8.9782,5.8086,6.7961,6.7314,12.302,10.0,3.8374,4.9333,6.7961,6.7314,11.538,6.6667,2.0163,11.0,6.9307,5.9333,11.815,11.53,14.699,6.8921
10.837,10.988,4.8185,3.8835,4.7896,9.2096,8.0,1.8862,7.9333,3.8835,4.7896,8.6538,5.7233,3.9675,9.0,9.901,6.9333,6.8647,12.496,9.8211,9.7907
11.823,12.998,7.7888,1.9417,4.7896,9.2096,9.0,0.91057,6.9333,1.9417,4.7896,8.6538,8.5535,9.8211,11.0,15.842,11.933,6.8647,14.428,9.8211,12.689
10.837,15.008,8.7789,0.97087,3.8188,7.1478,9.0,-0.06504,7.9333,0.97087,3.8188,8.6538,9.4969,12.748,10.0,18.812,14.933,11.815,14.428,8.8455,14.622
5.9113,12.998,5.8086,-0.97087,3.8188,3.0241,7.0,-0.06504,6.9333,-0.97087,3.8188,4.8077,7.6101,11.772,8.0,17.822001,12.933,6.8647,13.462,5.9187,12.689
0.98522,8.9782,2.8383,-1.9417,2.8479,-1.0997,4.0,-2.9919,3.9333,-1.9417,2.8479,1.9231,6.6667,12.748,5.0,14.851,10.933,4.8845,-3.9291,4.9431,8.8245
-1.9704,2.9481,-2.1122,-1.9417,-0.06472,-2.1306,0.0,-2.9919,-1.0667,-1.9417,-0.06472,0.0,1.9497,7.8699,0.0,6.9307,3.9333,-0.06601,-7.7939,1.0407,2.0612
-3.9409,-4.0871,-5.0825,-0.97087,-2.9773,-2.1306,-4.0,2.8618,-6.0667,-0.97087,-2.9773,-0.96154,-3.7107,1.0407,-5.0,0.0,-3.0667,0.92409,-1.0306,-3.8374,-4.7021
-2.9557,-7.1022,-6.0726,-0.97087,-2.9773,-3.1615,-5.0,0.91057,-7.0667,-0.97087,-2.9773,-1.9231,-2.7673,0.06504,-4.0,-3.9604,-5.0667,6.8647,-2.963,-3.8374,-6.6345
0.0,-6.0972,-6.0726,-0.97087,-2.0065,-4.1924,-3.0,-2.0163,-1.0667,-0.97087,-2.0065,-0.96154,-3.7107,-0.91057,-4.0,-4.9505,-6.0667,0.92409,-1.9968,-2.8618,-4.7021
0.0,-5.0921,-7.0627,-1.9417,0.90615,-4.1924,0.0,-2.0163,-1.0667,-1.9417,0.90615,-0.96154,-3.7107,-0.91057,-4.0,-2.9703,-5.0667,1.9142,-0.06441,-1.8862,-0.83736
1.9704,0.93802,-4.0924,0.0,2.8479,-1.0997,4.0,-0.06504,4.9333,0.0,2.8479,0.96154,-0.8805,2.0163,0.0,2.9703,-1.0667,3.8944,11.53,0.06504,4.9597
3.9409,6.9682,-1.1221,0.0,3.8188,-1.0997,5.0,-0.06504,11.933,0.0,3.8188,1.9231,3.8365,6.8943,3.0,8.9109,2.9333,2.9043,6.6989,3.9675,11.723
2.9557,8.9782,-0.13201,-2.9126,1.877,-2.1306,4.0,-2.0163,6.9333,-2.9126,1.877,0.96154,5.7233,8.8455,4.0,11.881,4.9333,2.9043,5.7327,5.9187,12.689
3.9409,7.9732,2.8383,-1.9417,0.90615,-0.06873,5.0,-2.0163,2.9333,-1.9417,0.90615,3.8462,3.8365,3.9675,4.0,8.9109,4.9333,5.8746,9.5974,6.8943,6.8921
8.867,7.9732,5.8086,2.9126,4.7896,7.1478,9.0,2.8618,6.9333,2.9126,4.7896,9.6154,1.9497,-0.91057,5.0,5.9406,3.9333,10.825,5.7327,6.8943,0.12882
6.8966,4.9581,3.8284,2.9126,4.7896,7.1478,9.0,1.8862,6.9333,2.9126,4.7896,8.6538,-1.8239,-6.7642,2.0,0.0,-1.0667,7.8548,7.6651,7.8699,-6.6345
1.9704,-0.067,-0.13201,0.97087,4.7896,4.055,6.0,-0.06504,6.9333,0.97087,4.7896,4.8077,-5.5975,-11.642,-3.0,-7.9208,-7.0667,-2.0462,4.7665,2.0163,-12.432
2.9557,-0.067,1.8482,1.9417,4.7896,5.0859,6.0,1.8862,9.9333,1.9417,4.7896,5.7692,-6.5409,-12.618,-3.0,-8.9109,-7.0667,3.8944,-0.06441,1.0407,-12.432
5.9113,0.93802,2.8383,1.9417,2.8479,6.1168,6.0,5.7886,3.9333,1.9417,2.8479,5.7692,-6.5409,-10.667,-1.0,-6.9307,-5.0667,11.815,-6.8277,2.0163,-10.499
7.8818,2.9481,2.8383,-0.97087,-0.06472,5.0859,6.0,2.8618,-0.06667,-0.97087,-0.06472,4.8077,-1.8239,-2.8618,1.0,-1.9802,-2.0667,2.9043,-2.963,2.9919,-2.7697
4.9261,2.9481,0.85809,-3.8835,-2.9773,-0.06873,2.0,-2.9919,3.9333,-3.8835,-2.9773,0.96154,-0.8805,2.0163,2.0,1.9802,-0.06667,-0.06601,5.7327,2.0163,3.9936
8.867,7.9732,5.8086,-4.8544,-4.9191,1.9931,3.0,-0.06504,0.93333,-4.8544,-4.9191,2.8846,5.7233,10.797,8.0,11.881,8.9333,6.8647,7.6651,4.9431,13.655
10.837,12.998,11.749,-3.8835,-3.9482,3.0241,6.0,1.8862,4.9333,-3.8835,-3.9482,4.8077,10.44,13.724,11.0,16.832001,13.933,8.8449,6.6989,7.8699,15.588
9.8522,12.998,12.739,-4.8544,-4.9191,-0.06873,4.0,-0.06504,2.9333,-4.8544,-4.9191,1.9231,11.384,12.748,11.0,16.832001,14.933,-1.0561,-4.8953,7.8699,12.689
8.867,10.988,10.759,-3.8835,-2.9773,-0.06873,2.0,0.91057,1.9333,-3.8835,-2.9773,0.96154,10.44,9.8211,9.0,14.851,13.933,4.8845,2.8341,5.9187,7.8583
6.8966,8.9782,9.769,-1.9417,-1.0356,0.9622,1.0,0.91057,2.9333,-1.9417,-1.0356,0.0,8.5535,5.9187,9.0,11.881,11.933,8.8449,8.6312,8.8455,3.9936
3.9409,4.9581,6.7987,-0.97087,-2.9773,-0.06873,0.0,2.8618,-2.0667,-0.97087,-2.9773,-0.96154,4.7799,1.0407,6.0,5.9406,6.9333,7.8548,4.7665,9.8211,-0.83736
-0.98522,1.943,2.8383,0.0,-1.0356,-0.06873,1.0,1.8862,-2.0667,0.0,-1.0356,-0.96154,-0.8805,-3.8374,-2.0,-1.9802,-2.0667,0.92409,1.868,3.9675,-5.6683
-3.9409,-1.072,-2.1122,2.9126,0.90615,0.9622,2.0,2.8618,0.93333,2.9126,0.90615,-0.96154,-6.5409,-8.7154,-8.0,-6.9307,-10.067,3.8944,0.90177,-2.8618,-7.6006
-3.9409,-4.0871,-6.0726,3.8835,3.8188,-1.0997,3.0,2.8618,2.9333,3.8835,3.8188,-1.9231,-8.4277,-11.642,-10.0,-10.891,-13.067,4.8845,1.868,-3.8374,-10.499
-3.9409,-3.0821,-7.0627,3.8835,4.7896,-1.0997,3.0,2.8618,5.9333,3.8835,4.7896,-1.9231,-12.201,-13.593,-10.0,-10.891,-13.067,-1.0561,-9.7262,-2.8618,-10.499
-2.9557,-2.0771,-8.0528,0.97087,0.90615,-3.1615,0.0,-1.0407,1.9333,0.97087,0.90615,-3.8462,-13.145,-11.642,-9.0,-8.9109,-12.067,-5.0165,-7.7939,-2.8618,-7.6006
0.98522,0.93802,-5.0825,-0.97087,-0.06472,-2.1306,2.0,-2.9919,4.9333,-0.97087,-0.06472,-1.9231,-9.3711,-6.7642,-4.0,-2.9703,-6.0667,-1.0561,2.8341,-2.8618,0.12882
5.9113,4.9581,0.85809,0.0,1.877,0.9622,5.0,1.8862,4.9333,0.0,1.877,0.0,-1.8239,0.06504,4.0,4.9505,2.9333,5.8746,6.6989,2.9919,6.8921
7.8818,7.9732,5.8086,1.9417,2.8479,4.055,8.0,7.7398,4.9333,1.9417,2.8479,3.8462,1.9497,2.9919,7.0,8.9109,7.9333,1.9142,9.5974,4.9431,8.8245
10.837,15.008,12.739,2.9126,4.7896,6.1168,12.0,2.8618,5.9333,2.9126,4.7896,7.6923,8.5535,8.8455,13.0,15.842,15.933,0.92409,-2.963,7.8699,12.689
16.749001,21.039,20.66,4.8544,7.7023,10.241,17.0,1.8862,10.933,4.8544,7.7023,13.462,16.101,15.675,21.0,22.771999,23.933001,7.8548,0.90177,13.724,15.588
20.690001,19.028,23.629999,4.8544,7.7023,13.333,18.0,4.813,10.933,4.8544,7.7023,15.385,18.931,16.65,23.0,23.761999,25.933001,5.8746,16.361,14.699,14.622
24.631001,21.039,26.601,7.767,10.615,18.488001,20.0,8.7154,10.933,7.767,10.615,18.268999,17.987,16.65,23.0,24.752001,26.933001,9.835,18.292999,15.675,15.588
22.66,22.044001,27.591,11.65,12.557,20.549999,20.0,13.593,18.933001,11.65,12.557,20.191999,15.157,13.724,20.0,21.782,23.933001,14.785,14.428,16.65,12.689
14.778,18.023001,21.65,8.7379,9.644,15.395,16.0,7.7398,11.933,8.7379,9.644,15.385,3.8365,2.0163,11.0,12.871,12.933,8.8449,8.6312,8.8455,3.9936
10.837,14.003,15.71,5.8252,7.7023,10.241,11.0,2.8618,0.93333,5.8252,7.7023,10.577,-2.7673,-2.8618,5.0,7.9208,5.9333,6.8647,4.7665,2.9919,1.095
12.808,14.003,12.739,5.8252,6.7314,7.1478,8.0,4.813,4.9333,5.8252,6.7314,6.7308,1.0063,0.06504,8.0,7.9208,6.9333,5.8746,7.6651,6.8943,3.9936
13.793,10.988,8.7789,2.9126,2.8479,4.055,5.0,4.813,8.9333,2.9126,2.8479,1.9231,6.6667,3.9675,11.0,8.9109,6.9333,1.9142,6.6989,10.797,6.8921
10.837,9.9832,6.7987,0.0,-0.06472,0.9622,4.0,0.91057,4.9333,0.0,-0.06472,0.0,10.44,7.8699,11.0,7.9208,5.9333,5.8746,11.53,11.772,9.7907
10.837,11.993,9.769,0.0,0.90615,3.0241,7.0,-0.06504,11.933,0.0,0.90615,2.8846,7.6101,5.9187,11.0,6.9307,5.9333,2.9043,12.496,11.772,8.8245
12.808,14.003,13.729,1.9417,2.8479,6.1168,9.0,6.7642,8.9333,1.9417,2.8479,6.7308,5.7233,4.9431,11.0,8.9109,8.9333,6.8647,12.496,9.8211,10.757
10.837,15.008,13.729,2.9126,3.8188,5.0859,9.0,4.813,6.9333,2.9126,3.8188,6.7308,2.8931,5.9187,8.0,11.881,8.9333,8.8449,14.428,4.9431,12.689
8.867,14.003,11.749,2.9126,4.7896,3.0241,9.0,2.8618,9.9333,2.9126,4.7896,4.8077,0.06289,5.9187,5.0,11.881,7.9333,8.8449,5.7327,2.9919,12.689
7.8818,8.9782,7.7888,3.8835,3.8188,4.055,9.0,5.7886,8.9333,3.8835,3.8188,3.8462,-2.7673,0.06504,1.0,7.9208,3.9333,1.9142,3.8003,0.06504,6.8921
6.8966,8.9782,7.7888,5.8252,5.7605,7.1478,11.0,7.7398,8.9333,5.8252,5.7605,6.7308,-0.8805,0.06504,2.0,6.9307,2.9333,-4.0264,11.53,2.0163,5.9259
1.9704,7.9732,5.8086,4.8544,6.7314,4.055,13.0,2.8618,13.933,4.8544,6.7314,6.7308,-3.7107,-3.8374,-1.0,4.9505,0.93333,-1.0561,11.53,1.0407,1.095
0.0,7.9732,4.8185,1.9417,4.7896,0.9622,11.0,-1.0407,9.9333,1.9417,4.7896,5.7692,-6.5409,-5.7886,-3.0,3.9604,-0.06667,3.8944,9.5974,-2.8618,0.12882
0.98522,8.9782,4.8185,-0.97087,1.877,-0.06873,7.0,-2.0163,4.9333,-0.97087,1.877,2.8846,-4.6541,-2.8618,-2.0,4.9505,0.93333,-0.06601,7.6651,-4.813,3.0274
4.9261,9.9832,4.8185,0.97087,1.877,3.0241,6.0,-0.06504,5.9333,0.97087,1.877,3.8462,-2.7673,-2.8618,1.0,3.9604,0.93333,3.8944,0.90177,-1.8862,3.0274
2.9557,4.9581,-0.13201,2.9126,2.8479,3.0241,5.0,1.8862,2.9333,2.9126,2.8479,2.8846,-5.5975,-5.7886,-1.0,-0.9901,-4.0667,-7.9868,0.90177,-3.8374,0.12882
1.9704,3.9531,-2.1122,3.8835,3.8188,3.0241,5.0,4.813,2.9333,3.8835,3.8188,2.8846,-2.7673,0.06504,-1.0,1.9802,-3.0667,-1.0561,10.564,-2.8618,4.9597
2.9557,2.9481,-1.1221,2.9126,1.877,1.9931,4.0,4.813,4.9333,2.9126,1.877,0.96154,0.06289,3.9675,1.0,4.9505,0.93333,3.8944,8.6312,2.0163,8.8245
1.9704,2.9481,-0.13201,1.9417,0.90615,-0.06873,2.0,1.8862,1.9333,1.9417,0.90615,0.0,-3.7107,1.0407,-1.0,3.9604,-1.0667,0.92409,2.8341,2.0163,5.9259
0.0,1.943,-0.13201,0.97087,-0.06472,-1.0997,1.0,0.91057,0.93333,0.97087,-0.06472,-0.96154,-6.5409,-1.8862,-3.0,0.9901,-3.0667,-0.06601,6.6989,-0.91057,3.0274
-4.9261,-7.1022,-5.0825,-2.9126,-4.9191,-5.2234,-6.0,1.8862,-5.0667,-2.9126,-4.9191,-6.7308,-12.201,-9.6911,-9.0,-7.9208,-8.0667,0.92409,-1.0306,-8.7154,-7.6006
-5.9113,-13.132,-7.0627,-0.97087,-3.9482,-4.1924,-8.0,1.8862,-2.0667,-0.97087,-3.9482,-7.6923,-14.088,-13.593,-11.0,-12.871,-11.067,-0.06601,-11.659,-12.618,-13.398
-7.8818,-15.142,-9.0429,0.97087,-2.9773,-6.2543,-10.0,2.8618,-3.0667,0.97087,-2.9773,-8.6538,-15.031,-17.496,-14.0,-15.842,-13.067,-1.0561,-11.659,-14.569,-17.261999
-12.808,-15.142,-12.013,-0.97087,-3.9482,-10.378,-12.0,-0.06504,-6.0667,-0.97087,-3.9482,-11.538,-12.201,-13.593,-15.0,-13.861,-13.067,-5.0165,-5.8615,-13.593,-15.33
-14.778,-12.127,-14.983,-2.9126,-3.9482,-12.44,-12.0,-1.0407,-4.0667,-2.9126,-3.9482,-14.423,-11.258,-9.6911,-15.0,-9.901,-12.067,-4.0264,-8.7601,-15.545,-8.5668
-13.793,-10.117,-15.974,-3.8835,-5.89,-13.471,-14.0,-3.9675,-8.0667,-3.8835,-5.89,-16.346001,-8.4277,-5.7886,-10.0,-6.9307,-8.0667,-22.837999,-7.7939,-9.6911,-4.7021
-7.8818,-7.1022,-12.013,-3.8835,-6.8608,-11.409,-14.0,-2.9919,-10.067,-3.8835,-6.8608,-13.462,-0.8805,-0.91057,-2.0,-3.9604,-4.0667,-9.967,-1.0306,-0.91057,-2.7697
-7.8818,-7.1022,-12.013,-4.8544,-6.8608,-11.409,-14.0,-2.0163,-11.067,-4.8544,-6.8608,-12.5,-5.5975,-7.7398,-5.0,-7.9208,-7.0667,3.8944,-10.692,-2.8618,-8.5668
-7.8818,-5.0921,-10.033,-4.8544,-6.8608,-9.3471,-10.0,-1.0407,-7.0667,-4.8544,-6.8608,-10.577,-9.3711,-10.667,-8.0,-8.9109,-10.067,0.92409,-15.523,-5.7886,-9.533
-11.823,-9.1122,-13.993,-3.8835,-6.8608,-10.378,-10.0,0.91057,-7.0667,-3.8835,-6.8608,-11.538,-13.145,-13.593,-13.0,-11.881,-14.067,-1.0561,-9.7262,-7.7398,-11.465
-17.733999,-13.132,-17.954,-5.8252,-8.8026,-14.502,-14.0,-6.8943,-12.067,-5.8252,-8.8026,-14.423,-15.031,-15.545,-19.0,-14.851,-18.066999,-9.967,-6.8277,-11.642,-13.398
-17.733999,-14.137,-16.964001,-6.7961,-7.8317,-14.502,-14.0,-9.8211,-10.067,-6.7961,-7.8317,-13.462,-16.917999,-16.52,-20.0,-14.851,-19.066999,-20.858,-11.659,-17.496,-12.432
-13.793,-16.146999,-13.003,-3.8835,-5.89,-9.3471,-11.0,-5.9187,-11.067,-3.8835,-5.89,-7.6923,-18.805,-16.52,-20.0,-15.842,-18.066999,-16.898001,-13.591,-17.496,-14.364
-12.808,-18.157,-9.0429,0.0,-1.0356,-5.2234,-5.0,-4.9431,-5.0667,0.0,-1.0356,-1.9231,-16.917999,-15.545,-17.0,-17.822001,-17.066999,-8.9769,-13.591,-12.618,-18.229
-15.764,-19.162001,-11.023,-0.97087,-2.0065,-7.2852,-5.0,-5.9187,-5.0667,-0.97087,-2.0065,-3.8462,-18.805,-16.52,-19.0,-19.802,-19.066999,-6.9967,-22.287001,-12.618,-21.127001
-18.719,-19.162001,-13.003,-3.8835,-6.8608,-12.44,-11.0,-6.8943,-14.067,-3.8835,-6.8608,-9.6154,-18.805,-15.545,-22.0,-19.802,-20.066999,-10.957,-15.523,-18.472,-19.195
-15.764,-16.146999,-12.013,-6.7961,-10.744,-13.471,-14.0,-7.8699,-18.066999,-6.7961,-10.744,-12.5,-16.917999,-14.569,-18.0,-16.832001,-17.066999,-9.967,-3.9291,-17.496,-17.261999
-13.793,-15.142,-13.993,-9.7087,-14.628,-15.533,-15.0,-7.8699,-15.067,-9.7087,-14.628,-14.423,-16.917999,-17.496,-15.0,-17.822001,-16.066999,-16.898001,-6.8277,-13.593,-19.195
-14.778,-15.142,-17.954,-12.621,-15.599,-17.594999,-15.0,-7.8699,-13.067,-12.621,-15.599,-16.346001,-17.862,-20.423,-15.0,-19.802,-17.066999,-17.888,-11.659,-14.569,-20.160999
-12.808,-13.132,-18.944,-10.68,-13.657,-16.563999,-14.0,-4.9431,-12.067,-10.68,-13.657,-15.385,-15.031,-19.447001,-12.0,-17.822001,-15.067,-8.9769,-13.591,-9.6911,-18.229
-11.823,-9.1122,-15.974,-10.68,-9.7735,-16.563999,-12.0,-8.8455,-4.0667,-10.68,-9.7735,-14.423,-11.258,-14.569,-10.0,-14.851,-13.067,-4.0264,-11.659,-6.7642,-14.364
-12.808,-11.122,-15.974,-10.68,-10.744,-16.563999,-13.0,-9.8211,-8.0667,-10.68,-10.744,-13.462,-10.314,-12.618,-11.0,-12.871,-12.067,-7.9868,-8.7601,-9.6911,-10.499
-13.793,-12.127,-15.974,-7.767,-9.7735,-13.471,-14.0,-6.8943,-11.067,-7.767,-9.7735,-12.5,-13.145,-14.569,-13.0,-12.871,-12.067,-12.937,-2.963,-13.593,-11.465
-13.793,-11.122,-13.003,-6.7961,-10.744,-12.44,-13.0,-6.8943,-12.067,-6.7961,-10.744,-10.577,-15.031,-14.569,-13.0,-11.881,-12.067,-10.957,-4.8953,-13.593,-12.432
-8.867,-9.1122,-9.0429,-5.8252,-8.8026,-10.378,-10.0,-4.9431,-11.067,-5.8252,-8.8026,-8.6538,-9.3711,-10.667,-8.0,-9.901,-9.0667,-10.957,-10.692,-6.7642,-9.533
-10.837,-11.122,-8.0528,-3.8835,-5.89,-8.3162,-10.0,-4.9431,-6.0667,-3.8835,-5.89,-6.7308,-8.4277,-7.7398,-9.0,-9.901,-9.0667,-10.957,-8.7601,-5.7886,-10.499
-15.764,-17.152,-12.013,-3.8835,-6.8608,-8.3162,-14.0,-4.9431,-13.067,-3.8835,-6.8608,-8.6538,-14.088,-12.618,-16.0,-15.842,-15.067,-10.957,-19.388,-13.593,-16.296
-18.719,-21.173,-15.974,-5.8252,-9.7735,-12.44,-16.0,-6.8943,-19.066999,-5.8252,-9.7735,-10.577,-16.917999,-15.545,-19.0,-19.802,-19.066999,-13.927,-16.49,-18.472,-20.160999
-16.749001,-19.162001,-14.983,-5.8252,-8.8026,-13.471,-14.0,-7.8699,-15.067,-5.8252,-8.8026,-10.577,-13.145,-15.545,-17.0,-18.812,-16.066999,-9.967,-11.659,-15.545,-20.160999
-12.808,-12.127,-9.0429,-2.9126,-3.9482,-10.378,-8.0,-3.9675,-7.0667,-2.9126,-3.9482,-5.7692,-11.258,-13.593,-13.0,-13.861,-11.067,-7.9868,-11.659,-12.618,-17.261999
-5.9113,-3.0821,-1.1221,2.9126,3.8188,-3.1615,0.0,-3.9675,4.9333,2.9126,3.8188,1.9231,-9.3711,-11.642,-7.0,-6.9307,-5.0667,1.9142,-5.8615,-7.7398,-11.465
-0.98522,-0.067,1.8482,1.9417,2.8479,-2.1306,1.0,-4.9431,0.93333,1.9417,2.8479,2.8846,-6.5409,-8.7154,-4.0,-2.9703,-1.0667,-7.9868,-1.0306,-6.7642,-5.6683
-3.9409,-2.0771,0.85809,-2.9126,-2.9773,-6.2543,-3.0,-8.8455,-9.0667,-2.9126,-2.9773,0.0,-3.7107,-4.813,-2.0,-1.9802,-0.06667,-15.908,1.868,-5.7886,-5.6683
-1.9704,-1.072,1.8482,-2.9126,-2.9773,-4.1924,-3.0,-7.8699,-9.0667,-2.9126,-2.9773,0.96154,-0.8805,-1.8862,1.0,0.0,2.9333,-6.9967,-8.7601,-2.8618,-4.7021
1.9704,0.93802,4.8185,-0.97087,-0.06472,0.9622,-1.0,-2.9919,-5.0667,-0.97087,-0.06472,3.8462,-0.8805,-0.91057,3.0,1.9802,4.9333,-2.0462,-7.7939,-3.8374,-1.8035
4.9261,4.9581,8.7789,2.9126,2.8479,6.1168,2.0,0.91057,-3.0667,2.9126,2.8479,7.6923,0.06289,2.0163,4.0,4.9505,5.9333,-0.06601,5.7327,-2.8618,3.0274
4.9261,6.9682,11.749,5.8252,5.7605,8.1787,7.0,2.8618,0.93333,5.8252,5.7605,11.538,1.0063,2.9919,4.0,4.9505,5.9333,3.8944,7.6651,1.0407,3.0274
0.98522,2.9481,7.7888,3.8835,2.8479,6.1168,6.0,0.91057,-3.0667,3.8835,2.8479,10.577,-2.7673,0.06504,0.0,0.0,0.93333,-1.0561,0.90177,-1.8862,-0.83736
-0.98522,2.9481,6.7987,3.8835,2.8479,5.0859,7.0,-0.06504,-0.06667,3.8835,2.8479,9.6154,-1.8239,1.0407,0.0,0.0,-0.06667,1.9142,-1.0306,-0.91057,-0.83736
-2.9557,-1.072,1.8482,2.9126,0.90615,0.9622,3.0,-0.06504,-2.0667,2.9126,0.90615,5.7692,-4.6541,-2.8618,-3.0,-3.9604,-3.0667,-6.9967,-6.8277,-0.91057,-2.7697
-2.9557,-4.0871,-0.13201,3.8835,1.877,0.9622,1.0,2.8618,-9.0667,3.8835,1.877,4.8077,-4.6541,-5.7886,-3.0,-5.9406,-4.0667,-3.0363,-3.9291,0.06504,-4.7021
-2.9557,-4.0871,-1.1221,4.8544,2.8479,1.9931,3.0,0.91057,-5.0667,4.8544,2.8479,6.7308,-3.7107,-5.7886,-3.0,-4.9505,-4.0667,3.8944,-0.06441,0.06504,-3.7359
-1.9704,-2.0771,-2.1122,3.8835,2.8479,1.9931,3.0,0.91057,-3.0667,3.8835,2.8479,5.7692,-3.7107,-5.7886,-2.0,-2.9703,-2.0667,6.8647,2.8341,-0.91057,-3.7359
-2.9557,-1.072,-2.1122,0.97087,-0.06472,-1.0997,0.0,-0.06504,-5.0667,0.97087,-0.06472,1.9231,-3.7107,-4.813,-2.0,0.0,-1.0667,-4.0264,-2.963,-3.8374,-1.8035
-3.9409,-1.072,-0.13201,0.0,-2.0065,-4.1924,-4.0,-3.9675,-5.0667,0.0,-2.0065,-0.96154,-3.7107,-2.8618,0.0,0.9901,0.93333,-8.9769,-3.9291,-3.8374,-2.7697
-3.9409,-4.0871,-3.1023,0.0,-0.06472,-5.2234,-6.0,-4.9431,-3.0667,0.0,-0.06472,-3.8462,-0.8805,-2.8618,0.0,-0.9901,-0.06667,-14.917,-7.7939,-2.8618,-4.7021
-6.8966,-8.1072,-6.0726,0.0,-0.06472,-5.2234,-8.0,-3.9675,-4.0667,0.0,-0.06472,-4.8077,-2.7673,-3.8374,-3.0,-3.9604,-3.0667,-6.9967,-5.8615,-3.8374,-5.6683
-6.8966,-7.1022,-6.0726,-0.97087,-0.06472,-5.2234,-7.0,-2.9919,-1.0667,-0.97087,-0.06472,-4.8077,-0.8805,0.06504,-2.0,-1.9802,-1.0667,-0.06601,0.90177,-3.8374,-2.7697
-2.9557,-1.072,-1.1221,2.9126,6.7314,-2.1306,0.0,-0.06504,10.933,2.9126,6.7314,0.0,2.8931,3.9675,2.0,1.9802,2.9333,-0.06601,3.8003,-3.8374,0.12882
-5.9113,-3.0821,-2.1122,6.7961,7.7023,-1.0997,2.0,0.91057,3.9333,6.7961,7.7023,1.9231,-2.7673,-1.8862,-3.0,-1.9802,-0.06667,-1.0561,-3.9291,-5.7886,-4.7021
-12.808,-9.1122,-9.0429,2.9126,2.8479,-5.2234,-4.0,-1.0407,-6.0667,2.9126,2.8479,-3.8462,-10.314,-11.642,-11.0,-9.901,-9.0667,-3.0363,-14.557,-9.6911,-12.432
-13.793,-8.1072,-10.033,0.97087,0.90615,-4.1924,-6.0,2.8618,-2.0667,0.97087,0.90615,-5.7692,-9.3711,-8.7154,-12.0,-7.9208,-8.0667,-10.957,-6.8277,-12.618,-8.5668
-9.8522,-6.0972,-8.0528,-0.97087,-1.0356,-6.2543,-5.0,-1.0407,1.9333,-0.97087,-1.0356,-5.7692,-6.5409,-4.813,-9.0,-4.9505,-5.0667,-11.947,0.90177,-9.6911,-3.7359
-6.8966,-4.0871,-6.0726,-1.9417,-2.0065,-5.2234,-3.0,-2.0163,2.9333,-1.9417,-2.0065,-3.8462,-0.8805,0.06504,-4.0,-2.9703,-3.0667,-8.9769,2.8341,-3.8374,-1.8035
-7.8818,-4.0871,-6.0726,-1.9417,-3.9482,-4.1924,-4.0,-1.0407,-1.0667,-1.9417,-3.9482,-3.8462,-2.7673,-0.91057,-5.0,-2.9703,-4.0667,-1.0561,-1.0306,-3.8374,-2.7697
-6.8966,-0.067,-3.1023,0.0,-2.0065,-0.06873,-1.0,-1.0407,-2.0667,0.0,-2.0065,0.96154,-2.7673,0.06504,-4.0,0.0,-1.0667,-0.06601,1.868,-4.813,0.12882
0.0,5.9631,2.8383,5.8252,3.8188,7.1478,6.0,4.813,4.9333,5.8252,3.8188,8.6538,3.8365,5.9187,2.0,5.9406,4.9333,1.9142,0.90177,-0.91057,5.9259
3.9409,7.9732,6.7987,6.7961,5.7605,10.241,11.0,5.7886,7.9333,6.7961,5.7605,12.5,3.8365,6.8943,3.0,7.9208,7.9333,1.9142,-1.0306,-1.8862,7.8583
-1.9704,1.943,1.8482,2.9126,1.877,4.055,6.0,1.8862,-0.06667,2.9126,1.877,6.7308,-4.6541,-0.91057,-3.0,1.9802,2.9333,-5.0165,-1.0306,-7.7398,3.0274
-2.9557,1.943,1.8482,3.8835,2.8479,1.9931,5.0,0.91057,-2.0667,3.8835,2.8479,6.7308,-4.6541,-1.8862,-2.0,1.9802,2.9333,-3.0363,4.7665,-6.7642,2.0612
-0.98522,4.9581,4.8185,6.7961,6.7314,4.055,7.0,0.91057,5.9333,6.7961,6.7314,8.6538,-0.8805,1.0407,1.0,4.9505,5.9333,-3.0363,6.6989,-2.8618,3.9936
-1.9704,1.943,2.8383,4.8544,4.7896,1.9931,2.0,-0.06504,0.93333,4.8544,4.7896,4.8077,-1.8239,-1.8862,-1.0,2.9703,2.9333,-7.9868,2.8341,-3.8374,-0.83736
-3.9409,-5.0921,-1.1221,0.97087,-0.06472,-0.06873,-4.0,0.91057,-6.0667,0.97087,-0.06472,-0.96154,-8.4277,-9.6911,-4.0,-3.9604,-2.0667,-7.9868,-2.963,-7.7398,-8.5668
-1.9704,-5.0921,-2.1122,1.9417,-0.06472,-0.06873,-4.0,-1.0407,-7.0667,1.9417,-0.06472,0.0,-5.5975,-10.667,-2.0,-4.9505,-2.0667,-0.06601,-13.591,-5.7886,-10.499
2.9557,-1.072,1.8482,5.8252,5.7605,3.0241,0.0,0.91057,-0.06667,5.8252,5.7605,4.8077,1.9497,-4.813,4.0,0.0,3.9333,-0.06601,-5.8615,1.0407,-3.7359
0.98522,-0.067,0.85809,5.8252,5.7605,1.9931,0.0,2.8618,8.9333,5.8252,5.7605,2.8846,1.9497,-1.8862,2.0,1.9802,4.9333,0.92409,3.8003,0.06504,-1.8035
0.0,-3.0821,-2.1122,3.8835,0.90615,0.9622,-5.0,1.8862,-3.0667,3.8835,0.90615,-0.96154,1.9497,0.06504,1.0,0.9901,2.9333,-6.9967,-2.963,2.9919,-0.83736
1.9704,-3.0821,-1.1221,4.8544,1.877,4.055,-6.0,4.813,-7.0667,4.8544,1.877,-1.9231,8.5535,5.9187,5.0,2.9703,3.9333,2.9043,2.8341,8.8455,2.0612
1.9704,-0.067,1.8482,6.7961,5.7605,5.0859,-1.0,6.7642,2.9333,6.7961,5.7605,0.96154,9.4969,6.8943,6.0,4.9505,4.9333,6.8647,2.8341,9.8211,5.9259
5.9113,10.988,9.769,8.7379,10.615,7.1478,8.0,5.7886,9.9333,8.7379,10.615,7.6923,15.157,15.675,11.0,13.861,12.933,6.8647,0.90177,12.748,14.622
2.9557,12.998,12.739,4.8544,7.7023,3.0241,8.0,1.8862,8.9333,4.8544,7.7023,6.7308,17.044001,20.552999,12.0,16.832001,16.933001,-0.06601,8.6312,8.8455,14.622
0.0,7.9732,9.769,0.0,2.8479,-2.1306,4.0,-2.0163,6.9333,0.0,2.8479,1.9231,13.27,15.675,9.0,13.861,14.933,-6.0066,14.428,5.9187,10.757
-1.9704,4.9581,7.7888,-1.9417,0.90615,-5.2234,0.0,-3.9675,1.9333,-1.9417,0.90615,-1.9231,11.384,11.772,8.0,10.891,13.933,-0.06601,9.5974,5.9187,8.8245
-3.9409,2.9481,4.8185,0.0,3.8188,-5.2234,-1.0,-3.9675,0.93333,0.0,3.8188,-2.8846,9.4969,8.8455,5.0,7.9208,9.9333,-1.0561,5.7327,1.0407,7.8583
-5.9113,-0.067,1.8482,0.0,2.8479,-5.2234,-1.0,-2.0163,7.9333,0.0,2.8479,-3.8462,3.8365,4.9431,0.0,3.9604,4.9333,-1.0561,-1.0306,-2.8618,3.0274
-0.98522,3.9531,4.8185,1.9417,4.7896,-4.1924,0.0,-1.0407,4.9333,1.9417,4.7896,-1.9231,7.6101,6.8943,3.0,5.9406,7.9333,-7.9868,3.8003,1.0407,4.9597
-1.9704,2.9481,2.8383,0.97087,1.877,-4.1924,-2.0,-2.0163,-3.0667,0.97087,1.877,-2.8846,10.44,7.8699,4.0,5.9406,8.9333,-6.9967,-6.8277,2.9919,3.9936
-1.9704,1.943,2.8383,0.0,-0.06472,-4.1924,-4.0,0.91057,-0.06667,0.0,-0.06472,-4.8077,12.327,8.8455,7.0,5.9406,10.933,-0.06601,-4.8953,6.8943,3.0274
1.9704,1.943,5.8086,-0.97087,-2.9773,-3.1615,-5.0,0.91057,0.93333,-0.97087,-2.9773,-5.7692,14.214,11.772,10.0,8.9109,14.933,0.92409,1.868,8.8455,5.9259
0.98522,-1.072,4.8185,-4.8544,-5.89,-6.2543,-8.0,-0.06504,-7.0667,-4.8544,-5.89,-7.6923,12.327,11.772,8.0,6.9307,13.933,-4.0264,-3.9291,4.9431,3.0274
1.9704,-1.072,3.8284,-5.8252,-5.89,-4.1924,-8.0,-1.0407,-10.067,-5.8252,-5.89,-6.7308,12.327,9.8211,8.0,6.9307,11.933,2.9043,-5.8615,4.9431,3.0274
1.9704,-2.0771,4.8185,-2.9126,-3.9482,-1.0997,-7.0,1.8862,-8.0667,-2.9126,-3.9482,-3.8462,10.44,6.8943,7.0,4.9505,9.9333,-4.0264,-1.9968,3.9675,2.0612
-0.98522,-3.0821,2.8383,-0.97087,-2.0065,-1.0997,-7.0,-1.0407,-4.0667,-0.97087,-2.0065,-4.8077,4.7799,3.9675,4.0,2.9703,5.9333,-6.0066,-5.8615,2.0163,0.12882
1.9704,1.943,3.8284,3.8835,2.8479,1.9931,-2.0,1.8862,1.9333,3.8835,2.8479,-0.96154,7.6101,7.8699,6.0,5.9406,7.9333,5.8746,-11.659,5.9187,3.9936
0.98522,2.9481,0.85809,1.9417,2.8479,0.9622,0.0,1.8862,1.9333,1.9417,2.8479,-1.9231,8.5535,8.8455,5.0,6.9307,6.9333,5.8746,-3.9291,3.9675,6.8921
2.9557,3.9531,2.8383,0.0,0.90615,0.9622,1.0,2.8618,5.9333,0.0,0.90615,-0.96154,13.27,13.724,7.0,9.901,9.9333,0.92409,9.5974,6.8943,10.757
4.9261,2.9481,4.8185,-0.97087,-0.06472,1.9931,-1.0,2.8618,2.9333,-0.97087,-0.06472,-0.96154,15.157,12.748,9.0,8.9109,10.933,-10.957,6.6989,7.8699,7.8583
0.98522,1.943,1.8482,-2.9126,-1.0356,-1.0997,-5.0,-2.0163,-2.0667,-2.9126,-1.0356,-3.8462,11.384,8.8455,6.0,6.9307,8.9333,-9.967,4.7665,3.9675,4.9597
0.0,1.943,-1.1221,-1.9417,-1.0356,-3.1615,-5.0,-3.9675,2.9333,-1.9417,-1.0356,-5.7692,7.6101,8.8455,6.0,5.9406,7.9333,-0.06601,0.90177,2.0163,4.9597
0.98522,-1.072,-2.1122,-2.9126,-2.9773,-3.1615,-7.0,-2.9919,-1.0667,-2.9126,-2.9773,-6.7308,7.6101,7.8699,7.0,5.9406,7.9333,5.8746,-1.9968,3.9675,3.0274
3.9409,-2.0771,-0.13201,-2.9126,-2.9773,-2.1306,-8.0,-3.9675,-5.0667,-2.9126,-2.9773,-5.7692,8.5535,8.8455,8.0,7.9208,8.9333,6.8647,0.90177,6.8943,5.9259
2.9557,-1.072,0.85809,-2.9126,-2.9773,-2.1306,-8.0,-4.9431,-7.0667,-2.9126,-2.9773,-4.8077,7.6101,7.8699,7.0,8.9109,8.9333,3.8944,2.8341,8.8455,7.8583
-1.9704,-1.072,-2.1122,-3.8835,-2.9773,-4.1924,-9.0,-5.9187,-6.0667,-3.8835,-2.9773,-6.7308,3.8365,4.9431,2.0,6.9307,5.9333,-5.0165,4.7665,3.9675,6.8921
-3.9409,-2.0771,-3.1023,-4.8544,-2.0065,-5.2234,-7.0,-8.8455,-2.0667,-4.8544,-2.0065,-6.7308,0.06289,2.9919,-3.0,3.9604,1.9333,-7.9868,-5.8615,-2.8618,4.9597
-4.9261,-2.0771,-2.1122,-5.8252,-1.0356,-4.1924,-5.0,-11.772,-1.0667,-5.8252,-1.0356,-4.8077,-1.8239,2.9919,-5.0,1.9802,-1.0667,-6.9967,-3.9291,-6.7642,4.9597
-6.8966,-3.0821,-4.0924,-9.7087,-4.9191,-6.2543,-6.0,-13.724,-4.0667,-9.7087,-4.9191,-6.7308,-1.8239,2.9919,-6.0,0.0,-3.0667,-12.937,-3.9291,-7.7398,3.0274
-6.8966,-1.072,-6.0726,-9.7087,-5.89,-7.2852,-4.0,-14.699,3.9333,-9.7087,-5.89,-5.7692,5.7233,8.8455,-3.0,1.9802,-0.06667,-9.967,-1.9968,-2.8618,4.9597
-3.9409,-1.072,-5.0825,-7.767,-2.9773,-6.2543,-3.0,-13.724,3.9333,-7.767,-2.9773,-4.8077,7.6101,8.8455,0.0,1.9802,-0.06667,-3.0363,5.7327,3.9675,3.9936
-3.9409,-7.1022,-7.0627,-8.7379,-5.89,-8.3162,-8.0,-11.772,-8.0667,-8.7379,-5.89,-6.7308,1.9497,1.0407,-4.0,-3.9604,-4.0667,-6.9967,1.868,0.06504,-4.7021
-4.9261,-9.1122,-9.0429,-7.767,-4.9191,-7.2852,-9.0,-9.8211,-8.0667,-7.767,-4.9191,-7.6923,-0.8805,-2.8618,-6.0,-6.9307,-7.0667,-6.9967,-3.9291,-1.8862,-8.5668
-4.9261,-6.0972,-7.0627,-6.7961,-2.9773,-6.2543,-6.0,-7.8699,0.93333,-6.7961,-2.9773,-5.7692,-0.8805,-3.8374,-5.0,-5.9406,-6.0667,-3.0363,0.90177,-0.91057,-8.5668
-2.9557,-3.0821,-3.1023,-8.7379,-4.9191,-4.1924,-4.0,-8.8455,-2.0667,-8.7379,-4.9191,-3.8462,-0.8805,-3.8374,-4.0,-3.9604,-4.0667,-2.0462,-9.7262,-1.8862,-6.6345
0.0,-3.0821,-0.13201,-9.7087,-5.89,-3.1615,-4.0,-8.8455,-5.0667,-9.7087,-5.89,-1.9231,-3.7107,-5.7886,-3.0,-2.9703,-2.0667,-3.0363,-4.8953,0.06504,-3.7359
0.98522,-3.0821,0.85809,-8.7379,-5.89,-2.1306,-3.0,-5.9187,-4.0667,-8.7379,-5.89,-0.96154,-1.8239,-3.8374,-1.0,-1.9802,-0.06667,-6.9967,1.868,1.0407,-1.8035
1.9704,0.93802,1.8482,-8.7379,-4.9191,-3.1615,0.0,-9.8211,-1.0667,-8.7379,-4.9191,0.0,6.6667,6.8943,3.0,4.9505,3.9333,-4.0264,5.7327,3.9675,5.9259
-1.9704,-0.067,-2.1122,-8.7379,-5.89,-7.2852,-2.0,-10.797,4.9333,-8.7379,-5.89,-3.8462,5.7233,5.9187,-1.0,2.9703,1.9333,-2.0462,3.8003,2.0163,3.9936
-11.823,-9.1122,-11.023,-13.592,-12.686,-15.533,-11.0,-13.724,-4.0667,-13.592,-12.686,-13.462,-3.7107,-2.8618,-10.0,-5.9406,-7.0667,-8.9769,-4.8953,-7.7398,-5.6683
-17.733999,-16.146999,-17.954,-16.504999,-15.599,-19.656,-18.0,-17.625999,-15.067,-16.504999,-15.599,-18.268999,-5.5975,-3.8374,-14.0,-10.891,-12.067,-13.927,-12.625,-9.6911,-9.533
-13.793,-15.142,-15.974,-14.563,-13.657,-15.533,-17.0,-15.675,-15.067,-14.563,-13.657,-16.346001,2.8931,3.9675,-7.0,-8.9109,-9.0667,-4.0264,-7.7939,-1.8862,-6.6345
-11.823,-14.137,-15.974,-15.534,-14.628,-15.533,-17.0,-15.675,-12.067,-15.534,-14.628,-16.346001,2.8931,2.9919,-7.0,-8.9109,-10.067,-6.9967,-3.9291,-3.8374,-5.6683
-12.808,-15.142,-17.954,-17.476,-17.540001,-18.625,-18.0,-16.65,-13.067,-17.476,-17.540001,-18.268999,-1.8239,-0.91057,-10.0,-12.871,-15.067,-11.947,-18.422001,-5.7886,-7.6006
-12.808,-18.157,-19.934,-16.504999,-16.57,-17.594999,-19.0,-14.699,-12.067,-16.504999,-16.57,-19.231001,-11.258,-9.6911,-14.0,-16.832001,-19.066999,-6.0066,-17.455999,-7.7398,-11.465
