C3,C4,Cz,F1,F2,F3,F4,F7,F8,Fp1,Fp2,Fz,O1,O2,P3,P4,Pz,T3,T4,T5,T6
2.7172,-2.7564,-3.9024,10.784,0.98039,8.5203,-3.8647,14.569,-1.0356,10.784,0.98039,0.0,0.95238,-1.9683,2.0317,-3.8835,-1.868,10.335,2.9841,3.9409,0.83736
2.7172,-4.6795,-3.9024,8.8235,0.0,6.5691,-4.8309,13.593,-2.0065,8.8235,0.0,-0.98039,-0.95238,-4.8254,2.0317,-3.8835,-3.8003,12.249,2.9841,4.9261,1.8035
-1.0742,-4.6795,-7.8049,6.8627,-2.9412,3.6423,-5.7971,12.618,-3.9482,6.8627,-2.9412,-2.9412,-2.8571,-5.7778,-0.8254,-4.8544,-7.6651,11.292,2.9841,4.9261,1.8035
-1.0742,-3.7179,-7.8049,6.8627,-0.98039,4.6179,-3.8647,13.593,-2.9773,6.8627,-0.98039,-0.98039,-7.619,-6.7302,-2.7302,-4.8544,-8.6312,11.292,2.9841,4.9261,0.83736
2.7172,0.12821,-2.9268,7.8431,0.98039,7.5447,0.96618,16.52,1.877,7.8431,0.98039,1.9608,-10.476,-8.6349,-0.8254,-3.8835,-7.6651,13.206,2.9841,2.9557,-1.095
7.4566,3.0128,3.9024,12.745,7.8431,11.447,6.7633,19.447001,4.7896,12.745,7.8431,7.8431,-7.619,-9.5873,2.0317,-3.8835,-4.7665,16.077,3.9365,2.9557,-4.9597
13.144,7.8205,8.7805,19.608,11.765,17.301001,10.628,22.374001,7.7023,19.608,11.765,13.725,-3.8095,-6.7302,6.7937,-0.97087,0.06441,17.99,5.8413,2.9557,-6.8921
14.092,10.705,9.7561,19.608,17.646999,17.301001,15.459,20.423,11.586,19.608,17.646999,17.646999,-2.8571,-3.873,9.6508,2.9126,5.8615,16.077,7.746,0.98522,-4.9597
11.248,14.551,9.7561,15.686,15.686,13.398,15.459,15.545,13.528,15.686,15.686,15.686,0.95238,-1.0159,11.556,8.7379,11.659,11.292,10.603,2.9557,-0.12882
11.248,15.513,10.732,12.745,13.725,7.5447,13.527,10.667,11.586,12.745,13.725,12.745,7.619,5.6508,15.365,11.65,15.523,10.335,9.6508,8.867,3.7359
5.5608,10.705,6.8293,6.8627,9.8039,0.71545,7.7295,3.8374,9.644,6.8627,9.8039,5.8824,3.8095,5.6508,10.603,8.7379,10.692,7.4641,7.746,3.9409,2.7697
-1.0742,3.0128,1.9512,0.98039,5.8824,-5.1382,0.96618,-2.0163,3.8188,0.98039,5.8824,0.0,0.95238,2.7937,3.9365,2.9126,2.963,2.6794,3.9365,0.98522,0.83736
2.7172,2.0513,2.9268,2.9412,5.8824,-1.2358,1.9324,0.91057,3.8188,2.9412,5.8824,1.9608,5.7143,8.5079,5.8413,4.8544,4.8953,4.5933,2.0317,5.9113,3.7359
6.5087,3.9744,4.878,6.8627,9.8039,4.6179,6.7633,5.7886,6.7314,6.8627,9.8039,6.8627,2.8571,6.6032,7.746,2.9126,5.8615,7.4641,1.0794,6.8966,2.7697
5.5608,2.0513,3.9024,5.8824,6.8627,4.6179,6.7633,5.7886,3.8188,5.8824,6.8627,6.8627,-0.95238,-0.06349,4.8889,-2.9126,1.9968,7.4641,-0.8254,4.9261,-3.0274
4.613,3.0128,4.878,5.8824,7.8431,4.6179,7.7295,3.8374,4.7896,5.8824,7.8431,6.8627,2.8571,0.88889,5.8413,-0.97087,4.8953,3.6364,0.12698,4.9261,-2.0612
5.5608,5.8974,7.8049,3.9216,5.8824,4.6179,7.7295,2.8618,3.8188,3.9216,5.8824,5.8824,7.619,5.6508,8.6984,4.8544,9.7262,2.6794,2.0317,8.867,3.7359
-1.0742,0.12821,2.9268,-4.902,-2.9412,-3.187,-0.96618,-2.9919,-2.0065,-4.902,-2.9412,-2.9412,0.95238,1.8413,2.9841,0.0,2.963,-3.0622,0.12698,4.9261,0.83736
-6.7615,-4.6795,-2.9268,-8.8235,-7.8431,-9.0407,-5.7971,-6.8943,-3.9482,-8.8235,-7.8431,-8.8235,0.95238,0.88889,-2.7302,-2.9126,-2.8341,-4.9761,-0.8254,-0.98522,-0.12882
-8.6572,-7.5641,-9.7561,-9.8039,-9.8039,-11.967,-9.6618,-7.8699,-4.9191,-9.8039,-9.8039,-12.745,5.7143,4.6984,-3.6825,-2.9126,-4.7665,-5.933,-0.8254,-0.98522,2.7697
-9.6051,-8.5256,-14.634,-9.8039,-10.784,-12.943,-11.594,-8.8455,-6.8608,-9.8039,-10.784,-14.706,4.7619,6.6032,-3.6825,-0.97087,-4.7665,-4.9761,-2.7302,-0.98522,3.7359
-12.449,-11.41,-18.537001,-11.765,-15.686,-14.894,-16.424999,-10.797,-10.744,-11.765,-15.686,-17.646999,0.95238,3.746,-8.4444,-2.9126,-7.6651,-8.8038,-6.5397,-4.9261,0.83736
-11.501,-13.333,-15.61,-12.745,-15.686,-14.894,-17.391001,-11.772,-14.628,-12.745,-15.686,-17.646999,0.0,3.746,-9.3968,-3.8835,-8.6312,-9.7608,-9.3968,-3.9409,2.7697
-6.7615,-11.41,-6.8293,-12.745,-15.686,-10.992,-14.493,-10.797,-14.628,-12.745,-15.686,-12.745,0.0,4.6984,-3.6825,-1.9417,-3.8003,-7.8469,-10.349,0.0,4.7021
-1.0742,-6.6026,0.97561,-8.8235,-12.745,-6.1138,-7.7295,-9.8211,-13.657,-8.8235,-12.745,-5.8824,3.8095,9.4603,2.0317,1.9417,3.9291,-5.933,-9.3968,0.98522,5.6683
-2.0221,-5.641,1.9512,-12.745,-15.686,-7.0894,-8.6957,-11.772,-15.599,-12.745,-15.686,-6.8627,9.5238,10.413,5.8413,1.9417,7.7939,-5.933,-10.349,5.9113,2.7697
1.7694,-4.6795,1.9512,-15.686,-13.725,-6.1138,-7.7295,-11.772,-14.628,-15.686,-13.725,-6.8627,12.381,11.365,11.556,2.9126,10.692,-2.1053,-11.302,12.808,0.83736
6.5087,-5.641,2.9268,-14.706,-11.765,-3.187,-5.7971,-8.8455,-11.715,-14.706,-11.765,-3.9216,14.286,9.4603,14.413,1.9417,9.7262,2.6794,-12.254,15.764,-0.12882
7.4566,-10.449,0.0,-14.706,-12.745,-3.187,-8.6957,-9.8211,-13.657,-14.706,-12.745,-3.9216,9.5238,3.746,12.508,-2.9126,4.8953,3.6364,-12.254,13.793,-4.9597
8.4044,-12.372,0.0,-11.765,-11.765,-2.2114,-9.6618,-8.8455,-12.686,-11.765,-11.765,-3.9216,5.7143,-1.9683,10.603,-7.767,-0.90177,3.6364,-10.349,12.808,-6.8921
4.613,-11.41,-1.9512,-14.706,-10.784,-4.1626,-8.6957,-9.8211,-10.744,-14.706,-10.784,-4.902,5.7143,-1.9683,7.746,-7.767,-3.8003,1.7225,-6.5397,12.808,-6.8921
-2.0221,-11.41,-6.8293,-20.587999,-12.745,-10.016,-10.628,-14.699,-10.744,-20.587999,-12.745,-9.8039,2.8571,-2.9206,1.0794,-10.68,-7.6651,-2.1053,-5.5873,7.8818,-9.7907
-2.97,-10.449,-6.8293,-16.667,-12.745,-8.065,-9.6618,-8.8455,-10.744,-16.667,-12.745,-9.8039,0.95238,-5.7778,-2.7302,-11.65,-9.5974,-0.19139,-5.5873,4.9261,-11.723
-2.97,-11.41,-7.8049,-14.706,-12.745,-7.0894,-8.6957,-4.9431,-12.686,-14.706,-12.745,-9.8039,0.0,-6.7302,-7.4921,-10.68,-11.53,-0.19139,-6.5397,-0.98522,-9.7907
-7.7093,-10.449,-9.7561,-16.667,-14.706,-8.065,-8.6957,-6.8943,-12.686,-16.667,-14.706,-9.8039,-0.95238,-3.873,-12.254,-9.7087,-13.462,-2.1053,-6.5397,-4.9261,-7.8583
-10.553,-9.4872,-11.707,-15.686,-11.765,-8.065,-4.8309,-5.9187,-10.744,-15.686,-11.765,-7.8431,-0.95238,-0.06349,-15.111,-6.7961,-13.462,-3.0622,-6.5397,-7.8818,-3.9936
-15.292,-7.5641,-12.683,-14.706,-11.765,-8.065,-4.8309,-6.8943,-8.8026,-14.706,-11.765,-7.8431,-2.8571,-1.0159,-17.968,-4.8544,-13.462,-5.933,-5.5873,-11.823,-2.0612
-15.292,-6.6026,-13.659,-15.686,-11.765,-10.992,-5.7971,-9.8211,-8.8026,-15.686,-11.765,-9.8039,-5.7143,-2.9206,-17.968,-4.8544,-13.462,-9.7608,-4.6349,-11.823,-1.095
-17.188,-8.5256,-15.61,-20.587999,-15.686,-14.894,-9.6618,-13.724,-8.8026,-20.587999,-15.686,-14.706,-5.7143,-1.9683,-18.921,-4.8544,-15.395,-14.545,-4.6349,-16.749001,0.83736
-19.084,-10.449,-15.61,-20.587999,-15.686,-17.820999,-9.6618,-18.601999,-9.7735,-20.587999,-15.686,-15.686,-3.8095,-1.9683,-19.872999,-4.8544,-15.395,-16.459,-3.6825,-15.764,1.8035
-20.032,-9.4872,-12.683,-21.569,-16.667,-18.797001,-9.6618,-20.552999,-9.7735,-21.569,-16.667,-13.725,-1.9048,-1.9683,-17.968,-3.8835,-12.496,-17.416,-2.7302,-12.808,1.8035
-17.188,-4.6795,-6.8293,-18.627001,-14.706,-15.87,-5.7971,-19.577,-9.7735,-18.627001,-14.706,-9.8039,-0.95238,1.8413,-15.111,0.0,-9.5974,-16.459,-1.7778,-11.823,5.6683
-14.344,-2.7564,-2.9268,-16.667,-13.725,-11.967,-4.8309,-18.601999,-8.8026,-16.667,-13.725,-5.8824,-1.9048,0.88889,-11.302,1.9417,-6.6989,-13.589,-1.7778,-9.8522,6.6345
-12.449,-3.7179,-2.9268,-15.686,-12.745,-10.016,-4.8309,-17.625999,-9.7735,-15.686,-12.745,-4.902,-3.8095,-3.873,-8.4444,0.0,-4.7665,-11.675,-3.6825,-6.8966,3.7359
-8.6572,-6.6026,-1.9512,-15.686,-15.686,-10.016,-8.6957,-17.625999,-12.686,-15.686,-15.686,-6.8627,-2.8571,-4.8254,-3.6825,-2.9126,-2.8341,-9.7608,-6.5397,-1.9704,0.83736
-1.0742,-4.6795,3.9024,-11.765,-13.725,-7.0894,-7.7295,-13.724,-9.7735,-11.765,-13.725,-5.8824,3.8095,-1.0159,3.9365,-0.97087,3.9291,-6.89,-5.5873,4.9261,-0.12882
2.7172,-1.7949,7.8049,-8.8235,-10.784,-6.1138,-5.7971,-10.797,-6.8608,-8.8235,-10.784,-3.9216,4.7619,-1.0159,7.746,0.97087,7.7939,-4.9761,-3.6825,9.8522,0.83736
2.7172,-0.83333,5.8537,-8.8235,-9.8039,-5.1382,-4.8309,-9.8211,-6.8608,-8.8235,-9.8039,-3.9216,2.8571,-1.0159,5.8413,0.97087,6.8277,-4.9761,-2.7302,6.8966,0.83736
-0.12638,-0.83333,2.9268,-8.8235,-8.8235,-5.1382,-3.8647,-10.797,-6.8608,-8.8235,-8.8235,-3.9216,-2.8571,-3.873,1.0794,0.0,4.8953,-6.89,-1.7778,0.98522,-2.0612
-2.0221,3.0128,3.9024,-7.8431,-7.8431,-5.1382,-1.9324,-10.797,-4.9191,-7.8431,-7.8431,-1.9608,-1.9048,1.8413,-1.7778,4.8544,5.8615,-8.8038,0.12698,-2.9557,2.7697
-2.0221,4.9359,6.8293,-7.8431,-4.902,-5.1382,0.0,-11.772,-2.9773,-7.8431,-4.902,-0.98039,1.9048,6.6032,-2.7302,9.7087,7.7939,-6.89,1.0794,-4.9261,7.6006
-2.0221,7.8205,9.7561,-5.8824,-2.9412,-3.187,0.96618,-8.8455,-1.0356,-5.8824,-2.9412,0.0,2.8571,9.4603,-1.7778,12.621,9.7262,-5.933,2.9841,-6.8966,9.533
0.82148,10.705,13.659,-0.98039,1.9608,-0.26016,4.8309,-6.8943,2.8479,-0.98039,1.9608,2.9412,7.619,13.27,1.0794,15.534,12.625,-5.933,5.8413,-11.823,13.398
-2.97,11.667,8.7805,-2.9412,-0.98039,-3.187,2.8986,-8.8455,2.8479,-2.9412,-0.98039,-0.98039,3.8095,12.317,-0.8254,17.476,11.659,-9.7608,7.746,-12.808,15.33
-7.7093,6.859,-1.9512,-6.8627,-1.9608,-8.065,-0.96618,-12.748,-0.06472,-6.8627,-1.9608,-4.902,-0.95238,7.5556,-4.6349,13.592,6.8277,-11.675,5.8413,-10.837,13.398
-7.7093,5.8974,-3.9024,-5.8824,0.98039,-7.0894,0.0,-9.8211,0.90615,-5.8824,0.98039,-2.9412,1.9048,6.6032,-3.6825,10.68,4.8953,-9.7608,3.9365,-7.8818,11.465
-5.8136,6.859,0.0,-2.9412,3.9216,-5.1382,2.8986,-8.8455,3.8188,-2.9412,3.9216,0.98039,-0.95238,4.6984,-3.6825,8.7379,1.9968,-8.8038,4.8889,-5.9113,10.499
-5.8136,7.8205,3.9024,-2.9412,3.9216,-6.1138,3.8647,-10.797,6.7314,-2.9412,3.9216,1.9608,1.9048,4.6984,-1.7778,7.767,0.06441,-10.718,8.6984,-3.9409,10.499
-6.7615,5.8974,0.97561,-2.9412,2.9412,-8.065,2.8986,-13.724,4.7896,-2.9412,2.9412,0.0,5.7143,5.6508,-1.7778,5.8252,-0.90177,-9.7608,6.7937,-1.9704,9.533
-7.7093,3.9744,-2.9268,-5.8824,0.98039,-8.065,1.9324,-14.699,3.8188,-5.8824,0.98039,-1.9608,3.8095,3.746,-1.7778,3.8835,-1.868,-10.718,5.8413,-1.9704,7.6006
-6.7615,1.0897,-3.9024,-6.8627,0.98039,-8.065,0.0,-13.724,3.8188,-6.8627,0.98039,-0.98039,0.95238,-1.0159,-2.7302,0.97087,-3.8003,-10.718,4.8889,-2.9557,3.7359
-6.7615,-2.7564,-6.8293,-3.9216,0.98039,-6.1138,-1.9324,-9.8211,2.8479,-3.9216,0.98039,-1.9608,-1.9048,-1.0159,-5.5873,-2.9126,-7.6651,-8.8038,2.9841,-3.9409,1.8035
-5.8136,-4.6795,-6.8293,0.98039,4.902,-3.187,0.0,-5.9187,3.8188,0.98039,4.902,0.0,0.95238,-0.06349,-7.4921,-6.7961,-11.53,-5.933,1.0794,-2.9557,-2.0612
-1.0742,-3.7179,0.0,6.8627,8.8235,3.6423,4.8309,2.8618,5.7605,6.8627,8.8235,5.8824,2.8571,-0.06349,-6.5397,-9.7087,-12.496,-0.19139,-0.8254,0.98522,-4.9597
-0.12638,-1.7949,1.9512,10.784,11.765,5.5935,7.7295,6.7642,7.7023,10.784,11.765,7.8431,5.7143,1.8413,-5.5873,-7.767,-11.53,1.7225,1.0794,3.9409,-4.9597
-4.8657,-2.7564,-1.9512,10.784,10.784,2.6667,6.7633,4.813,7.7023,10.784,10.784,5.8824,1.9048,-1.0159,-8.4444,-8.7379,-12.496,-0.19139,0.12698,0.0,-3.9936
-9.6051,-4.6795,-6.8293,7.8431,6.8627,-1.2358,2.8986,3.8374,4.7896,7.8431,6.8627,0.98039,-9.5238,-8.6349,-12.254,-11.65,-14.428,-3.0622,-3.6825,-7.8818,-7.8583
-7.7093,-2.7564,-4.878,8.8235,8.8235,0.71545,4.8309,5.7886,3.8188,8.8235,8.8235,2.9412,-16.190001,-12.444,-14.159,-10.68,-13.462,-3.0622,-3.6825,-12.808,-9.7907
-2.0221,0.12821,0.97561,10.784,8.8235,6.5691,6.7633,7.7398,4.7896,10.784,8.8235,6.8627,-12.381,-9.5873,-10.349,-6.7961,-8.6312,-2.1053,-3.6825,-10.837,-7.8583
2.7172,3.0128,5.8537,13.725,10.784,9.4959,8.6957,9.6911,4.7896,13.725,10.784,8.8235,-5.7143,-2.9206,-5.5873,-0.97087,-1.868,0.76555,-1.7778,-5.9113,-2.0612
1.7694,2.0513,5.8537,11.765,7.8431,7.5447,4.8309,8.7154,2.8479,11.765,7.8431,5.8824,-4.7619,-1.9683,-3.6825,0.97087,-0.90177,-1.1483,-0.8254,-2.9557,0.83736
2.7172,1.0897,5.8537,9.8039,5.8824,6.5691,1.9324,7.7398,-0.06472,9.8039,5.8824,3.9216,-0.95238,-0.06349,-2.7302,0.97087,0.06441,-2.1053,0.12698,-0.98522,1.8035
2.7172,1.0897,6.8293,3.9216,-0.98039,4.6179,-0.96618,2.8618,-2.0065,3.9216,-0.98039,0.98039,3.8095,1.8413,0.12698,1.9417,1.9968,-3.0622,1.0794,-1.9704,2.7697
4.613,3.0128,7.8049,0.98039,-3.9216,2.6667,-1.9324,1.8862,-2.9773,0.98039,-3.9216,-0.98039,6.6667,6.6032,4.8889,5.8252,6.8277,-2.1053,2.9841,0.98522,6.6345
3.6651,2.0513,4.878,-3.9216,-9.8039,0.71545,-5.7971,-1.0407,-6.8608,-3.9216,-9.8039,-4.902,3.8095,5.6508,5.8413,6.7961,6.8277,-1.1483,2.0317,2.9557,8.5668
3.6651,3.0128,5.8537,-3.9216,-9.8039,-0.26016,-7.7295,-2.9919,-6.8608,-3.9216,-9.8039,-4.902,2.8571,4.6984,7.746,7.767,8.7601,-3.0622,2.0317,3.9409,8.5668
1.7694,1.0897,4.878,-6.8627,-8.8235,-2.2114,-8.6957,-6.8943,-5.89,-6.8627,-8.8235,-5.8824,5.7143,6.6032,7.746,6.7961,8.7601,-3.0622,1.0794,4.9261,8.5668
-0.12638,-0.83333,2.9268,-13.725,-11.765,-7.0894,-10.628,-10.797,-6.8608,-13.725,-11.765,-11.765,5.7143,7.5556,5.8413,6.7961,8.7601,-2.1053,0.12698,5.9113,7.6006
-4.8657,-2.7564,-2.9268,-19.608,-16.667,-13.919,-12.56,-13.724,-7.8317,-19.608,-16.667,-17.646999,3.8095,4.6984,2.9841,3.8835,4.8953,-2.1053,1.0794,3.9409,6.6345
-9.6051,-4.6795,-8.7805,-20.587999,-16.667,-17.820999,-13.527,-12.748,-6.8608,-20.587999,-16.667,-20.587999,1.9048,2.7937,-1.7778,1.9417,1.0306,-1.1483,0.12698,1.9704,5.6683
-7.7093,-2.7564,-7.8049,-14.706,-10.784,-13.919,-7.7295,-7.8699,-2.9773,-14.706,-10.784,-15.686,1.9048,1.8413,-2.7302,0.0,-1.868,0.76555,0.12698,1.9704,5.6683
-5.8136,-4.6795,-7.8049,-9.8039,-3.9216,-9.0407,-2.8986,-2.0163,1.877,-9.8039,-3.9216,-9.8039,-4.7619,-3.873,-4.6349,-5.8252,-8.6312,1.7225,-1.7778,-0.98522,0.83736
-1.0742,-5.641,-4.878,-2.9412,3.9216,-2.2114,2.8986,2.8618,4.7896,-2.9412,3.9216,-1.9608,-8.5714,-9.5873,-4.6349,-10.68,-10.564,5.5502,-3.6825,-4.9261,-4.9597
0.82148,-2.7564,-1.9512,0.0,4.902,1.6911,3.8647,3.8374,3.8188,0.0,4.902,1.9608,-4.7619,-9.5873,-3.6825,-8.7379,-6.6989,5.5502,-4.6349,-5.9113,-7.8583
1.7694,2.0513,0.0,4.902,9.8039,3.6423,7.7295,5.7886,5.7605,4.902,9.8039,4.902,-6.6667,-7.6825,-0.8254,-2.9126,-1.868,6.5072,-1.7778,-3.9409,-6.8921
-1.0742,2.0513,-2.9268,6.8627,12.745,3.6423,7.7295,7.7398,7.7023,6.8627,12.745,6.8627,-6.6667,-6.7302,0.12698,-2.9126,-1.868,6.5072,-1.7778,-1.9704,-4.9597
-1.0742,-1.7949,-2.9268,10.784,16.667,5.5935,9.6618,7.7398,9.644,10.784,16.667,9.8039,-3.8095,-6.7302,0.12698,-6.7961,-3.8003,4.5933,-2.7302,-1.9704,-6.8921
-2.0221,-6.6026,-3.9024,10.784,16.667,5.5935,8.6957,6.7642,10.615,10.784,16.667,9.8039,-6.6667,-10.54,-3.6825,-11.65,-8.6312,-0.19139,-2.7302,-6.8966,-11.723
-0.12638,-5.641,-0.97561,13.725,19.608,6.5691,10.628,4.813,12.557,13.725,19.608,10.784,-5.7143,-8.6349,-4.6349,-10.68,-8.6312,-1.1483,0.12698,-6.8966,-10.757
3.6651,0.12821,1.9512,13.725,18.627001,8.5203,12.56,5.7886,13.528,13.725,18.627001,12.745,0.0,-3.873,0.12698,-5.8252,-4.7665,1.7225,2.9841,-1.9704,-6.8921
6.5087,3.0128,3.9024,11.765,16.667,8.5203,12.56,4.813,11.586,11.765,16.667,13.725,0.0,-1.9683,2.9841,-1.9417,-0.90177,3.6364,2.9841,1.9704,-3.0274
8.4044,3.0128,2.9268,9.8039,10.784,8.5203,7.7295,3.8374,7.7023,9.8039,10.784,10.784,2.8571,0.88889,5.8413,0.97087,1.9968,5.5502,2.0317,7.8818,0.83736
7.4566,-0.83333,0.0,7.8431,8.8235,6.5691,2.8986,3.8374,3.8188,7.8431,8.8235,6.8627,3.8095,2.7937,6.7937,1.9417,2.963,5.5502,0.12698,7.8818,2.7697
9.3523,-0.83333,4.878,9.8039,7.8431,8.5203,1.9324,4.813,0.90615,9.8039,7.8431,7.8431,4.7619,4.6984,9.6508,2.9126,5.8615,7.4641,-1.7778,10.837,4.7021
6.5087,-2.7564,3.9024,4.902,-0.98039,5.5935,-2.8986,2.8618,-7.8317,4.902,-0.98039,3.9216,5.7143,2.7937,7.746,1.9417,3.9291,6.5072,-4.6349,12.808,2.7697
2.7172,-0.83333,0.97561,7.8431,0.98039,2.6667,-2.8986,0.91057,-4.9191,7.8431,0.98039,0.98039,3.8095,2.7937,4.8889,2.9126,1.9968,4.5933,-1.7778,11.823,3.7359
0.82148,3.0128,-1.9512,17.646999,8.8235,2.6667,-2.8986,4.813,0.90615,17.646999,8.8235,-0.98039,0.0,1.8413,2.9841,3.8835,1.0306,4.5933,0.12698,8.867,3.7359
1.7694,0.12821,-4.878,23.528999,13.725,3.6423,-4.8309,9.6911,-0.06472,23.528999,13.725,-1.9608,-1.9048,-1.9683,-0.8254,-0.97087,-2.8341,7.4641,-0.8254,5.9113,-0.12882
5.5608,0.12821,0.0,29.412001,17.646999,9.4959,-1.9324,14.569,2.8479,29.412001,17.646999,0.98039,0.95238,-1.0159,0.12698,0.0,-1.868,9.378,-1.7778,5.9113,-0.12882
7.4566,2.0513,2.9268,34.313999,25.49,11.447,0.96618,15.545,5.7605,34.313999,25.49,4.902,1.9048,-1.0159,2.0317,0.0,0.06441,11.292,-2.7302,6.8966,-0.12882
9.3523,3.0128,4.878,39.216,29.412001,12.423,0.96618,18.472,6.7314,39.216,29.412001,6.8627,2.8571,-0.06349,4.8889,0.97087,2.963,13.206,-2.7302,7.8818,-3.0274
13.144,6.859,6.8293,41.175999,32.353001,14.374,4.8309,18.472,7.7023,41.175999,32.353001,8.8235,6.6667,2.7937,9.6508,3.8835,7.7939,15.12,-0.8254,10.837,-3.0274
13.144,7.8205,5.8537,42.157001,34.313999,16.325001,8.6957,19.447001,11.586,42.157001,34.313999,9.8039,4.7619,2.7937,10.603,5.8252,8.7601,14.163,0.12698,10.837,-2.0612
14.092,8.7821,8.7805,46.077999,39.216,18.275999,12.56,21.398001,13.528,46.077999,39.216,13.725,2.8571,2.7937,9.6508,3.8835,6.8277,14.163,1.0794,7.8818,-3.0274
13.144,9.7436,12.683,43.137001,37.255001,17.301001,12.56,18.472,13.528,43.137001,37.255001,14.706,3.8095,2.7937,10.603,2.9126,6.8277,12.249,1.0794,8.867,-3.9936
14.092,12.628,18.537001,41.175999,38.235001,16.325001,12.56,15.545,11.586,41.175999,38.235001,14.706,5.7143,2.7937,12.508,5.8252,9.7262,11.292,-0.8254,10.837,-2.0612
14.092,15.513,21.462999,36.275002,34.313999,15.35,13.527,10.667,10.615,36.275002,34.313999,16.667,7.619,6.6032,14.413,10.68,14.557,6.5072,0.12698,9.8522,4.7021
15.987,18.396999,22.438999,34.313999,34.313999,16.325001,17.391001,7.7398,11.586,34.313999,34.313999,20.587999,6.6667,8.5079,16.316999,14.563,18.422001,5.5502,3.9365,8.867,8.5668
13.144,14.551,16.584999,29.412001,28.431,14.374,14.493,3.8374,8.6731,29.412001,28.431,18.627001,3.8095,6.6032,16.316999,12.621,16.49,1.7225,2.9841,7.8818,7.6006
12.196,12.628,17.561001,24.51,24.51,11.447,12.56,-1.0407,7.7023,24.51,24.51,17.646999,4.7619,6.6032,15.365,11.65,15.523,-3.0622,3.9365,4.9261,6.6345
11.248,11.667,19.511999,21.569,22.549,8.5203,11.594,-3.9675,8.6731,21.569,22.549,16.667,5.7143,6.6032,14.413,10.68,15.523,-4.0191,7.746,5.9113,7.6006
10.3,10.705,18.537001,16.667,19.608,4.6179,8.6957,-7.8699,9.644,16.667,19.608,12.745,8.5714,8.5079,16.316999,11.65,17.455999,-4.0191,9.6508,7.8818,8.5668
12.196,15.513,20.488001,13.725,19.608,4.6179,11.594,-8.8455,11.586,13.725,19.608,13.725,14.286,12.317,20.127001,15.534,22.287001,-1.1483,9.6508,9.8522,9.533
9.3523,15.513,17.561001,13.725,21.569,4.6179,13.527,-8.8455,13.528,13.725,21.569,14.706,9.5238,12.317,16.316999,15.534,19.388,-3.0622,8.6984,6.8966,8.5668
8.4044,13.59,14.634,18.627001,24.51,7.5447,14.493,-4.9431,13.528,18.627001,24.51,17.646999,2.8571,5.6508,9.6508,10.68,12.625,-3.0622,4.8889,2.9557,4.7021
10.3,13.59,15.61,22.549,26.471001,13.398,17.391001,3.8374,15.469,22.549,26.471001,22.549,0.0,-1.9683,7.746,6.7961,8.7601,-0.19139,5.8413,3.9409,-0.12882
9.3523,10.705,11.707,26.471001,29.412001,15.35,17.391001,9.6911,16.440001,26.471001,29.412001,22.549,-3.8095,-5.7778,3.9365,2.9126,3.9291,2.6794,5.8413,0.0,-3.9936
10.3,6.859,3.9024,26.471001,28.431,17.301001,14.493,16.52,15.469,26.471001,28.431,20.587999,-2.8571,-6.7302,2.9841,0.97087,1.0306,5.5502,5.8413,-1.9704,-6.8921
12.196,6.859,1.9512,27.451,27.451,19.252001,16.424999,19.447001,16.440001,27.451,27.451,21.569,-5.7143,-4.8254,2.9841,1.9417,0.06441,6.5072,6.7937,-2.9557,-4.9597
10.3,10.705,4.878,23.528999,22.549,16.325001,15.459,16.52,16.440001,23.528999,22.549,19.608,-4.7619,-1.0159,4.8889,7.767,3.9291,3.6364,9.6508,-6.8966,-0.12882
10.3,12.628,9.7561,18.627001,18.627001,13.398,13.527,12.618,13.528,18.627001,18.627001,16.667,0.0,3.746,8.6984,13.592,11.659,3.6364,8.6984,-1.9704,5.6683
9.3523,12.628,12.683,15.686,14.706,12.423,10.628,10.667,10.615,15.686,14.706,15.686,4.7619,7.5556,11.556,14.563,14.557,2.6794,6.7937,0.98522,7.6006
7.4566,10.705,10.732,9.8039,12.745,9.4959,9.6618,6.7642,7.7023,9.8039,12.745,11.765,5.7143,7.5556,8.6984,12.621,12.625,0.76555,6.7937,-2.9557,5.6683
8.4044,8.7821,10.732,4.902,6.8627,8.5203,8.6957,4.813,4.7896,4.902,6.8627,10.784,7.619,8.5079,9.6508,11.65,12.625,-0.19139,5.8413,-3.9409,6.6345
12.196,8.7821,13.659,2.9412,5.8824,10.472,10.628,5.7886,4.7896,2.9412,5.8824,10.784,6.6667,8.5079,12.508,11.65,14.557,0.76555,4.8889,0.0,6.6345
12.196,6.859,9.7561,0.98039,1.9608,10.472,7.7295,3.8374,3.8188,0.98039,1.9608,7.8431,7.619,9.4603,14.413,9.7087,14.557,0.76555,3.9365,3.9409,4.7021
8.4044,1.0897,1.9512,-5.8824,-3.9216,3.6423,0.0,-0.06504,-1.0356,-5.8824,-3.9216,-1.9608,8.5714,6.6032,12.508,4.8544,10.692,-0.19139,1.0794,3.9409,3.7359
-1.0742,-2.7564,-7.8049,-13.725,-8.8235,-5.1382,-5.7971,-6.8943,-2.9773,-13.725,-8.8235,-10.784,5.7143,2.7937,5.8413,-1.9417,1.9968,-4.9761,0.12698,4.9261,1.8035
-7.7093,-3.7179,-11.707,-20.587999,-15.686,-11.967,-9.6618,-12.748,-3.9482,-20.587999,-15.686,-17.646999,2.8571,3.746,-0.8254,-2.9126,-2.8341,-9.7608,1.0794,1.9704,3.7359
-7.7093,-0.83333,-8.7805,-22.549,-17.646999,-13.919,-8.6957,-13.724,-5.89,-22.549,-17.646999,-18.627001,3.8095,7.5556,-2.7302,1.9417,-1.868,-10.718,2.9841,0.0,8.5668
-9.6051,-0.83333,-7.8049,-24.51,-17.646999,-15.87,-8.6957,-16.65,-4.9191,-24.51,-17.646999,-18.627001,5.7143,8.5079,-4.6349,2.9126,-3.8003,-13.589,3.9365,0.98522,9.533
-12.449,-5.641,-11.707,-26.471001,-13.725,-19.771999,-8.6957,-23.48,-2.9773,-26.471001,-13.725,-18.627001,1.9048,4.6984,-7.4921,-0.97087,-6.6989,-15.502,4.8889,-1.9704,5.6683
-13.397,-8.5256,-15.61,-20.587999,-10.784,-19.771999,-9.6618,-19.577,-1.0356,-20.587999,-10.784,-18.627001,-0.95238,4.6984,-8.4444,-2.9126,-7.6651,-15.502,3.9365,-2.9557,3.7359
-11.501,-8.5256,-14.634,-15.686,-6.8627,-16.846001,-8.6957,-15.675,-1.0356,-15.686,-6.8627,-17.646999,-1.9048,3.746,-6.5397,-2.9126,-7.6651,-11.675,2.0317,-0.98522,4.7021
-10.553,-7.5641,-13.659,-14.706,-6.8627,-14.894,-8.6957,-12.748,-0.06472,-14.706,-6.8627,-15.686,0.95238,4.6984,-6.5397,-1.9417,-6.6989,-8.8038,1.0794,-1.9704,4.7021
-6.7615,-7.5641,-9.7561,-2.9412,-1.9608,-9.0407,-6.7633,-2.0163,-2.0065,-2.9412,-1.9608,-12.745,5.7143,6.6032,-4.6349,-3.8835,-6.6989,-3.0622,-2.7302,0.98522,3.7359
-3.9179,-10.449,-6.8293,2.9412,0.98039,-4.1626,-5.7971,4.813,-2.9773,2.9412,0.98039,-10.784,1.9048,1.8413,-4.6349,-8.7379,-8.6312,1.7225,-7.4921,3.9409,0.83736
-4.8657,-11.41,-7.8049,3.9216,2.9412,-3.187,-3.8647,5.7886,-4.9191,3.9216,2.9412,-8.8235,-1.9048,-1.9683,-8.4444,-12.621,-12.496,2.6794,-9.3968,0.98522,-3.0274
-2.0221,-7.5641,-1.9512,5.8824,3.9216,0.71545,-0.96618,7.7398,-2.9773,5.8824,3.9216,-3.9216,0.0,-3.873,-9.3968,-11.65,-11.53,3.6364,-7.4921,0.0,-3.0274
0.82148,-4.6795,3.9024,6.8627,9.8039,4.6179,3.8647,7.7398,-0.06472,6.8627,9.8039,0.98039,-1.9048,-6.7302,-8.4444,-11.65,-9.5974,2.6794,-3.6825,0.0,-5.9259
-0.12638,-5.641,1.9512,8.8235,9.8039,5.5935,2.8986,8.7154,0.90615,8.8235,9.8039,0.98039,-2.8571,-9.5873,-8.4444,-13.592,-9.5974,2.6794,-2.7302,-0.98522,-7.8583
-5.8136,-8.5256,-4.878,6.8627,8.8235,1.6911,1.9324,5.7886,3.8188,6.8627,8.8235,-3.9216,-11.429,-13.397,-14.159,-16.504999,-14.428,-1.1483,-0.8254,-7.8818,-10.757
-9.6051,-7.5641,-9.7561,5.8824,9.8039,-0.26016,2.8986,3.8374,9.644,5.8824,9.8039,-4.902,-17.143,-15.302,-19.872999,-17.476,-17.327,-4.0191,2.9841,-15.764,-11.723
-10.553,-4.6795,-8.7805,1.9608,8.8235,-1.2358,1.9324,0.91057,11.586,1.9608,8.8235,-3.9216,-16.190001,-14.349,-18.921,-14.563,-15.395,-4.0191,5.8413,-15.764,-9.7907
-12.449,-3.7179,-8.7805,-1.9608,6.8627,-4.1626,1.9324,-2.0163,10.615,-1.9608,6.8627,-4.902,-18.094999,-14.349,-18.921,-11.65,-13.462,-5.933,6.7937,-18.719,-7.8583
-9.6051,1.0897,-3.9024,0.98039,4.902,-2.2114,3.8647,-1.0407,11.586,0.98039,4.902,-2.9412,-11.429,-8.6349,-15.111,-5.8252,-7.6651,-4.9761,7.746,-15.764,-3.9936
-9.6051,3.0128,-1.9512,2.9412,4.902,-0.26016,4.8309,-2.0163,9.644,2.9412,4.902,-1.9608,-5.7143,-3.873,-13.206,-0.97087,-2.8341,-4.9761,6.7937,-10.837,0.83736
-10.553,1.0897,-3.9024,1.9608,2.9412,-0.26016,2.8986,-3.9675,7.7023,1.9608,2.9412,-2.9412,-4.7619,-1.9683,-11.302,-0.97087,-1.868,-8.8038,3.9365,-11.823,1.8035
-6.7615,2.0513,-1.9512,1.9608,3.9216,-1.2358,2.8986,-5.9187,5.7605,1.9608,3.9216,-2.9412,1.9048,2.7937,-5.5873,0.97087,2.963,-7.8469,2.0317,-7.8818,1.8035
-4.8657,3.0128,-0.97561,-1.9608,2.9412,-2.2114,0.96618,-8.8455,4.7896,-1.9608,2.9412,-4.902,5.7143,4.6984,-0.8254,2.9126,6.8277,-7.8469,1.0794,-1.9704,-0.12882
-2.97,0.12821,0.0,-1.9608,1.9608,-3.187,0.0,-8.8455,3.8188,-1.9608,1.9608,-4.902,6.6667,3.746,1.0794,-0.97087,6.8277,-4.0191,-0.8254,3.9409,-2.0612
-3.9179,-2.7564,-2.9268,-3.9216,-3.9216,-3.187,-2.8986,-4.9431,0.90615,-3.9216,-3.9216,-6.8627,2.8571,-0.06349,1.0794,-4.8544,2.963,-1.1483,-3.6825,5.9113,-6.8921
-2.97,-5.641,-5.8537,-1.9608,-3.9216,-2.2114,-6.7633,1.8862,-2.0065,-1.9608,-3.9216,-8.8235,1.9048,-2.9206,0.12698,-7.767,-0.90177,3.6364,-3.6825,4.9261,-9.7907
-5.8136,-11.41,-10.732,-3.9216,-7.8431,-5.1382,-12.56,4.813,-4.9191,-3.9216,-7.8431,-13.725,0.0,-5.7778,-2.7302,-11.65,-5.7327,5.5502,-5.5873,2.9557,-11.723
-8.6572,-16.218,-16.584999,-5.8824,-11.765,-9.0407,-16.424999,5.7886,-7.8317,-5.8824,-11.765,-17.646999,-2.8571,-9.5873,-7.4921,-16.504999,-12.496,7.4641,-6.5397,0.0,-12.689
-11.501,-17.179001,-17.561001,-7.8431,-16.667,-10.016,-16.424999,4.813,-7.8317,-7.8431,-16.667,-18.627001,-5.7143,-8.6349,-12.254,-17.476,-16.361,5.5502,-5.5873,-3.9409,-13.655
-11.501,-16.218,-16.584999,-7.8431,-15.686,-9.0407,-15.459,4.813,-6.8608,-7.8431,-15.686,-15.686,-9.5238,-9.5873,-14.159,-15.534,-16.361,4.5933,-5.5873,-6.8966,-12.689
-9.6051,-13.333,-18.537001,-9.8039,-15.686,-8.065,-13.527,3.8374,-6.8608,-9.8039,-15.686,-13.725,-11.429,-9.5873,-12.254,-10.68,-14.428,4.5933,-4.6349,-7.8818,-9.7907
-5.8136,-6.6026,-14.634,-10.784,-15.686,-7.0894,-8.6957,3.8374,-4.9191,-10.784,-15.686,-11.765,-6.6667,-5.7778,-6.5397,-3.8835,-7.6651,5.5502,-0.8254,-4.9261,-5.9259
-3.9179,-3.7179,-10.732,-11.765,-15.686,-6.1138,-7.7295,2.8618,-5.89,-11.765,-15.686,-10.784,-3.8095,-2.9206,-2.7302,-1.9417,-3.8003,7.4641,0.12698,0.0,-3.9936
-4.8657,-5.641,-9.7561,-14.706,-18.627001,-9.0407,-9.6618,-2.0163,-7.8317,-14.706,-18.627001,-13.725,-1.9048,-1.9683,-1.7778,-1.9417,-1.868,4.5933,-0.8254,-2.9557,-3.0274
-4.8657,-4.6795,-4.878,-18.627001,-20.587999,-11.967,-9.6618,-5.9187,-11.715,-18.627001,-20.587999,-12.745,2.8571,-0.06349,-1.7778,0.0,0.06441,1.7225,-1.7778,0.0,-0.12882
-2.97,-1.7949,-1.9512,-19.608,-20.587999,-10.992,-6.7633,-7.8699,-12.686,-19.608,-20.587999,-9.8039,1.9048,2.7937,0.12698,2.9126,1.9968,0.76555,-3.6825,3.9409,2.7697
1.7694,2.0513,0.97561,-13.725,-11.765,-5.1382,-0.96618,-2.9919,-9.7735,-13.725,-11.765,-3.9216,7.619,7.5556,4.8889,5.8252,5.8615,5.5502,-5.5873,7.8818,4.7021
6.5087,2.0513,1.9512,-6.8627,-6.8627,1.6911,1.9324,3.8374,-5.89,-6.8627,-6.8627,2.9412,10.476,7.5556,8.6984,5.8252,7.7939,9.378,-4.6349,11.823,3.7359
8.4044,0.12821,1.9512,-3.9216,-3.9216,4.6179,0.96618,3.8374,-4.9191,-3.9216,-3.9216,3.9216,12.381,7.5556,11.556,3.8835,7.7939,11.292,-4.6349,14.778,2.7697
5.5608,-1.7949,-0.97561,-2.9412,-4.902,1.6911,-2.8986,1.8862,-4.9191,-2.9412,-4.902,0.98039,10.476,4.6984,9.6508,0.0,3.9291,8.4211,-3.6825,12.808,-1.095
4.613,1.0897,1.9512,0.0,-0.98039,0.71545,0.96618,1.8862,-2.0065,0.0,-0.98039,2.9412,3.8095,0.88889,5.8413,0.0,2.963,4.5933,-0.8254,5.9113,-2.0612
2.7172,3.9744,4.878,-0.98039,0.98039,0.71545,2.8986,-2.9919,3.8188,-0.98039,0.98039,3.9216,0.95238,-0.06349,3.9365,2.9126,3.9291,-2.1053,2.9841,0.98522,-1.095
0.82148,3.0128,3.9024,0.0,1.9608,-0.26016,3.8647,-4.9431,6.7314,0.0,1.9608,2.9412,1.9048,0.88889,1.0794,0.97087,1.0306,-6.89,4.8889,0.98522,-2.0612
-2.0221,-1.7949,0.0,-2.9412,-1.9608,-2.2114,0.96618,-8.8455,6.7314,-2.9412,-1.9608,0.98039,-3.8095,-1.0159,-2.7302,-2.9126,-3.8003,-9.7608,3.9365,-3.9409,-2.0612
-0.12638,-1.7949,0.0,-4.902,-2.9412,-1.2358,0.0,-8.8455,4.7896,-4.902,-2.9412,0.98039,-0.95238,3.746,-1.7778,0.0,-2.8341,-8.8038,3.9365,-5.9113,2.7697
-1.0742,-4.6795,-6.8293,-4.902,-7.8431,-2.2114,-4.8309,-3.9675,-1.0356,-4.902,-7.8431,-2.9412,0.95238,2.7937,-2.7302,-1.9417,-5.7327,-3.0622,0.12698,-1.9704,2.7697
-5.8136,-9.4872,-16.584999,-8.8235,-13.725,-5.1382,-9.6618,-1.0407,-6.8608,-8.8235,-13.725,-8.8235,-1.9048,-1.0159,-8.4444,-5.8252,-10.564,-0.19139,-4.6349,-2.9557,-0.12882
-8.6572,-12.372,-19.511999,-12.745,-18.627001,-8.065,-14.493,-0.06504,-10.744,-12.745,-18.627001,-13.725,-6.6667,-4.8254,-12.254,-7.767,-14.428,0.76555,-6.5397,-5.9113,-2.0612
-9.6051,-14.295,-17.561001,-12.745,-20.587999,-8.065,-15.459,3.8374,-13.657,-12.745,-20.587999,-13.725,-8.5714,-4.8254,-12.254,-8.7379,-17.327,3.6364,-8.4444,-3.9409,-2.0612
-10.553,-18.141001,-15.61,-11.765,-17.646999,-9.0407,-15.459,4.813,-12.686,-11.765,-17.646999,-12.745,-10.476,-9.5873,-12.254,-14.563,-20.225,5.5502,-10.349,-2.9557,-6.8921
-10.553,-19.103001,-14.634,-15.686,-19.608,-10.016,-16.424999,1.8862,-14.628,-15.686,-19.608,-14.706,-11.429,-10.54,-9.3968,-15.534,-19.259001,5.5502,-13.206,-3.9409,-8.8245
-6.7615,-16.218,-11.707,-13.725,-17.646999,-7.0894,-14.493,1.8862,-16.57,-13.725,-17.646999,-11.765,-7.619,-8.6349,-7.4921,-13.592,-17.327,6.5072,-14.159,-0.98522,-6.8921
-6.7615,-14.295,-8.7805,-13.725,-17.646999,-5.1382,-14.493,-1.0407,-14.628,-13.725,-17.646999,-9.8039,-4.7619,-5.7778,-7.4921,-11.65,-14.428,3.6364,-13.206,1.9704,-6.8921
-6.7615,-12.372,-7.8049,-18.627001,-19.608,-8.065,-14.493,-7.8699,-14.628,-18.627001,-19.608,-9.8039,-3.8095,-1.9683,-6.5397,-7.767,-9.5974,-0.19139,-11.302,-1.9704,-3.9936
-5.8136,-9.4872,-4.878,-22.549,-20.587999,-11.967,-12.56,-13.724,-11.715,-22.549,-20.587999,-9.8039,-0.95238,-0.06349,-3.6825,-4.8544,-5.7327,-4.0191,-9.3968,-2.9557,-3.0274
-6.7615,-6.6026,-3.9024,-24.51,-18.627001,-13.919,-8.6957,-19.577,-9.7735,-24.51,-18.627001,-8.8235,0.95238,0.88889,-0.8254,-2.9126,-1.868,-5.933,-6.5397,0.0,-3.0274
-3.9179,-2.7564,-0.97561,-23.528999,-19.608,-11.967,-7.7295,-19.577,-9.7735,-23.528999,-19.608,-6.8627,2.8571,4.6984,2.0317,0.97087,2.963,-8.8038,-4.6349,-0.98522,-2.0612
-2.97,1.0897,0.97561,-23.528999,-17.646999,-10.992,-5.7971,-21.528,-8.8026,-23.528999,-17.646999,-4.902,3.8095,3.746,1.0794,4.8544,4.8953,-11.675,-1.7778,-4.9261,0.83736
-6.7615,2.0513,0.0,-26.471001,-16.667,-13.919,-5.7971,-26.407,-4.9191,-26.471001,-16.667,-5.8824,0.95238,2.7937,-1.7778,3.8835,3.9291,-17.416,0.12698,-8.867,0.83736
-3.9179,3.0128,3.9024,-20.587999,-10.784,-10.016,0.0,-24.455,-1.0356,-20.587999,-10.784,-0.98039,0.0,1.8413,-1.7778,2.9126,3.9291,-18.372999,2.0317,-5.9113,-2.0612
-0.12638,4.9359,7.8049,-14.706,-7.8431,-3.187,5.7971,-18.601999,-0.06472,-14.706,-7.8431,6.8627,4.7619,4.6984,2.0317,3.8835,5.8615,-16.459,1.0794,-0.98522,-2.0612
1.7694,6.859,8.7805,-11.765,-4.902,0.71545,7.7295,-15.675,-0.06472,-11.765,-4.902,9.8039,5.7143,5.6508,2.9841,3.8835,6.8277,-15.502,0.12698,0.0,-1.095
0.82148,6.859,6.8293,-8.8235,-1.9608,0.71545,7.7295,-15.675,2.8479,-8.8235,-1.9608,9.8039,5.7143,3.746,2.0317,3.8835,4.8953,-15.502,2.0317,0.0,-0.12882
-1.0742,7.8205,5.8537,-7.8431,1.9608,-1.2358,7.7295,-16.65,6.7314,-7.8431,1.9608,7.8431,6.6667,5.6508,1.0794,5.8252,4.8953,-15.502,4.8889,-0.98522,3.7359
-4.8657,7.8205,5.8537,-10.784,0.98039,-5.1382,7.7295,-18.601999,7.7023,-10.784,0.98039,5.8824,7.619,9.4603,2.0317,6.7961,5.8615,-15.502,6.7937,-2.9557,7.6006
-5.8136,4.9359,2.9268,-8.8235,-0.98039,-5.1382,6.7633,-13.724,5.7605,-8.8235,-0.98039,4.902,7.619,8.5079,2.0317,5.8252,4.8953,-12.632,5.8413,-0.98522,6.6345
-5.8136,3.0128,-0.97561,-5.8824,2.9412,-4.1626,5.7971,-9.8211,6.7314,-5.8824,2.9412,4.902,6.6667,6.6032,2.0317,4.8544,4.8953,-8.8038,5.8413,-0.98522,5.6683
-4.8657,1.0897,-4.878,-6.8627,0.0,-5.1382,2.8986,-7.8699,6.7314,-6.8627,0.0,1.9608,4.7619,5.6508,1.0794,2.9126,1.9968,-7.8469,4.8889,-1.9704,4.7021
-2.0221,0.12821,-3.9024,-7.8431,-2.9412,-5.1382,0.0,-5.9187,2.8479,-7.8431,-2.9412,0.98039,-1.9048,1.8413,0.12698,0.97087,0.06441,-2.1053,3.9365,-0.98522,0.83736
1.7694,-0.83333,1.9512,-6.8627,-5.8824,-2.2114,-0.96618,-0.06504,1.877,-6.8627,-5.8824,0.98039,-5.7143,-1.0159,1.0794,-0.97087,0.06441,3.6364,1.0794,-2.9557,-3.0274
4.613,-3.7179,3.9024,-1.9608,-1.9608,0.71545,0.0,6.7642,0.90615,-1.9608,-1.9608,2.9412,-7.619,-5.7778,1.0794,-6.7961,-3.8003,7.4641,-2.7302,-4.9261,-6.8921
1.7694,-5.641,0.97561,-1.9608,-4.902,1.6911,-2.8986,9.6911,-1.0356,-1.9608,-4.902,2.9412,-7.619,-10.54,-2.7302,-11.65,-8.6312,8.4211,-4.6349,-4.9261,-9.7907
-0.12638,-3.7179,-4.878,-0.98039,-2.9412,0.71545,-1.9324,8.7154,-1.0356,-0.98039,-2.9412,1.9608,-12.381,-15.302,-7.4921,-12.621,-11.53,9.378,-2.7302,-4.9261,-11.723
-2.97,-1.7949,-9.7561,-1.9608,-4.902,-0.26016,-3.8647,8.7154,-2.0065,-1.9608,-4.902,0.0,-11.429,-14.349,-8.4444,-8.7379,-11.53,9.378,-1.7778,-3.9409,-9.7907
-2.97,-2.7564,-6.8293,-0.98039,-4.902,-0.26016,-3.8647,8.7154,-2.9773,-0.98039,-4.902,-0.98039,-9.5238,-11.492,-7.4921,-7.767,-9.5974,10.335,-1.7778,-1.9704,-6.8921
-1.0742,-4.6795,-0.97561,-0.98039,-5.8824,-0.26016,-4.8309,8.7154,-2.9773,-0.98039,-5.8824,-0.98039,-8.5714,-10.54,-4.6349,-8.7379,-7.6651,9.378,-3.6825,0.0,-6.8921
-0.12638,-2.7564,3.9024,-0.98039,-4.902,-0.26016,-1.9324,5.7886,-1.0356,-0.98039,-4.902,0.0,-6.6667,-9.5873,-4.6349,-7.767,-6.6989,7.4641,-2.7302,0.98522,-7.8583
-0.12638,0.12821,4.878,-3.9216,-5.8824,-1.2358,0.0,2.8618,-0.06472,-3.9216,-5.8824,0.0,-9.5238,-10.54,-5.5873,-5.8252,-7.6651,4.5933,-1.7778,-0.98522,-6.8921
1.7694,3.0128,2.9268,-5.8824,-5.8824,-1.2358,-0.96618,0.91057,-1.0356,-5.8824,-5.8824,-0.98039,-5.7143,-6.7302,-3.6825,-2.9126,-5.7327,3.6364,-0.8254,-2.9557,-3.0274
-2.97,3.0128,-3.9024,-6.8627,-7.8431,-3.187,-2.8986,-1.0407,-2.0065,-6.8627,-7.8431,-3.9216,-9.5238,-7.6825,-7.4921,-2.9126,-6.6989,-1.1483,1.0794,-6.8966,-3.0274
-4.8657,3.9744,-4.878,-7.8431,-8.8235,-4.1626,-2.8986,-2.9919,-1.0356,-7.8431,-8.8235,-6.8627,-7.619,-6.7302,-5.5873,0.97087,-2.8341,-4.0191,2.0317,-5.9113,-1.095
-3.9179,3.9744,-3.9024,-6.8627,-7.8431,-6.1138,-2.8986,-3.9675,-1.0356,-6.8627,-7.8431,-7.8431,-3.8095,-4.8254,-2.7302,1.9417,1.0306,-6.89,2.0317,-5.9113,1.8035
-2.97,3.9744,0.0,-2.9412,-4.902,-2.2114,-0.96618,-0.06504,-0.06472,-2.9412,-4.902,-4.902,-0.95238,-1.9683,-0.8254,2.9126,2.963,-6.89,2.0317,-4.9261,1.8035
-1.0742,3.9744,2.9268,-1.9608,-2.9412,2.6667,3.8647,2.8618,-1.0356,-1.9608,-2.9412,0.0,3.8095,0.88889,1.0794,4.8544,5.8615,-2.1053,0.12698,0.0,3.7359
-1.0742,2.0513,0.0,-1.9608,-2.9412,3.6423,1.9324,3.8374,1.877,-1.9608,-2.9412,-0.98039,5.7143,3.746,1.0794,3.8835,3.9291,-1.1483,0.12698,0.98522,4.7021
1.7694,2.0513,-2.9268,-2.9412,-3.9216,4.6179,0.96618,4.813,0.90615,-2.9412,-3.9216,-1.9608,4.7619,3.746,0.12698,4.8544,1.9968,1.7225,1.0794,2.9557,5.6683
-0.12638,2.0513,-6.8293,-6.8627,-6.8627,2.6667,-2.8986,3.8374,1.877,-6.8627,-6.8627,-4.902,1.9048,3.746,-2.7302,3.8835,-1.868,1.7225,2.0317,0.0,6.6345
0.82148,3.9744,-6.8293,-8.8235,-5.8824,0.71545,-2.8986,4.813,1.877,-8.8235,-5.8824,-5.8824,-0.95238,3.746,-4.6349,3.8835,-3.8003,2.6794,1.0794,-2.9557,7.6006
1.7694,3.9744,-2.9268,-11.765,-8.8235,-1.2358,-3.8647,3.8374,-0.06472,-11.765,-8.8235,-5.8824,-2.8571,0.88889,-3.6825,3.8835,-2.8341,3.6364,0.12698,-2.9557,6.6345
6.5087,2.0513,0.0,-9.8039,-8.8235,-0.26016,-2.8986,4.813,-2.0065,-9.8039,-8.8235,-3.9216,3.8095,3.746,2.9841,4.8544,0.06441,6.5072,-0.8254,2.9557,5.6683
9.3523,-2.7564,0.0,-7.8431,-7.8431,1.6911,-3.8647,6.7642,-2.0065,-7.8431,-7.8431,-1.9608,0.95238,-0.06349,5.8413,-0.97087,-2.8341,8.4211,-1.7778,2.9557,0.83736
8.4044,-4.6795,0.97561,-4.902,-2.9412,3.6423,-1.9324,6.7642,0.90615,-4.902,-2.9412,1.9608,-2.8571,-4.8254,3.9365,-4.8544,-4.7665,8.4211,-1.7778,0.0,-2.0612
5.5608,-0.83333,3.9024,-4.902,-3.9216,4.6179,0.0,3.8374,0.90615,-4.902,-3.9216,4.902,-4.7619,-4.8254,2.9841,-2.9126,-4.7665,6.5072,0.12698,0.98522,-2.0612
4.613,1.0897,5.8537,-3.9216,-3.9216,4.6179,0.96618,2.8618,0.90615,-3.9216,-3.9216,5.8824,-3.8095,-3.873,2.9841,-1.9417,-2.8341,3.6364,0.12698,0.0,-3.0274
8.4044,3.0128,12.683,-0.98039,-0.98039,6.5691,1.9324,2.8618,2.8479,-0.98039,-0.98039,8.8235,0.0,-1.9683,6.7937,0.0,2.963,3.6364,-1.7778,1.9704,-3.0274
13.144,5.8974,19.511999,-0.98039,0.0,7.5447,3.8647,-0.06504,0.90615,-0.98039,0.0,12.745,2.8571,3.746,12.508,7.767,10.692,2.6794,-1.7778,3.9409,0.83736
14.092,8.7821,21.462999,-0.98039,3.9216,6.5691,5.7971,-2.9919,3.8188,-0.98039,3.9216,13.725,5.7143,6.6032,15.365,11.65,16.49,1.7225,-1.7778,3.9409,3.7359
15.987,10.705,20.488001,0.0,4.902,6.5691,6.7633,-4.9431,3.8188,0.0,4.902,13.725,7.619,8.5079,19.174999,13.592,19.388,0.76555,-1.7778,6.8966,6.6345
12.196,9.7436,16.584999,0.0,6.8627,3.6423,7.7295,-10.797,5.7605,0.0,6.8627,11.765,6.6667,9.4603,15.365,11.65,17.455999,-5.933,1.0794,1.9704,7.6006
10.3,10.705,16.584999,0.98039,7.8431,3.6423,10.628,-11.772,10.615,0.98039,7.8431,12.745,5.7143,9.4603,13.46,12.621,17.455999,-9.7608,4.8889,-0.98522,9.533
9.3523,13.59,21.462999,0.98039,11.765,6.5691,16.424999,-9.8211,14.498,0.98039,11.765,15.686,10.476,13.27,13.46,15.534,20.354,-8.8038,8.6984,-0.98522,12.432
4.613,14.551,17.561001,0.98039,13.725,5.5935,17.391001,-5.9187,19.353001,0.98039,13.725,13.725,13.333,14.222,10.603,15.534,18.422001,-7.8469,9.6508,0.98522,12.432
-0.12638,12.628,10.732,0.0,12.745,1.6911,13.527,-6.8943,18.382,0.0,12.745,8.8235,7.619,7.5556,6.7937,11.65,13.591,-5.933,9.6508,1.9704,8.5668
-2.97,11.667,5.8537,-2.9412,4.902,-0.26016,8.6957,-6.8943,13.528,-2.9412,4.902,3.9216,3.8095,5.6508,3.9365,10.68,11.659,-3.0622,7.746,1.9704,6.6345
-1.0742,12.628,4.878,0.98039,6.8627,2.6667,9.6618,-2.0163,15.469,0.98039,6.8627,3.9216,1.9048,5.6508,3.9365,10.68,11.659,1.7225,8.6984,0.98522,5.6683
1.7694,7.8205,2.9268,-1.9608,4.902,3.6423,8.6957,-0.06504,14.498,-1.9608,4.902,2.9412,2.8571,3.746,4.8889,7.767,9.7262,6.5072,5.8413,4.9261,2.7697
4.613,0.12821,-0.97561,-2.9412,2.9412,4.6179,5.7971,0.91057,11.586,-2.9412,2.9412,0.0,4.7619,0.88889,5.8413,1.9417,5.8615,10.335,2.9841,8.867,-0.12882
3.6651,-4.6795,-6.8293,-0.98039,1.9608,3.6423,2.8986,2.8618,11.586,-0.98039,1.9608,-1.9608,2.8571,-1.9683,4.8889,-2.9126,1.9968,11.292,1.0794,9.8522,-2.0612
-0.12638,-3.7179,-8.7805,-4.902,-0.98039,0.71545,0.0,1.8862,9.644,-4.902,-0.98039,-3.9216,0.95238,-0.06349,2.9841,-0.97087,2.963,9.378,1.0794,6.8966,-3.0274
-0.12638,0.12821,-3.9024,-10.784,-3.9216,-1.2358,-1.9324,-2.0163,6.7314,-10.784,-3.9216,-5.8824,-0.95238,0.88889,2.9841,2.9126,4.8953,9.378,2.0317,6.8966,-0.12882
-0.12638,1.0897,-0.97561,-12.745,-4.902,-2.2114,-1.9324,-2.9919,5.7605,-12.745,-4.902,-4.902,-1.9048,-2.9206,0.12698,1.9417,1.9968,7.4641,2.0317,3.9409,-1.095
-0.12638,0.12821,0.0,-11.765,-4.902,-2.2114,-0.96618,-2.9919,5.7605,-11.765,-4.902,-2.9412,-2.8571,-3.873,-1.7778,-0.97087,-1.868,5.5502,3.9365,1.9704,-3.0274
-1.0742,-2.7564,0.0,-10.784,-3.9216,-3.187,-0.96618,-5.9187,8.6731,-10.784,-3.9216,-2.9412,-5.7143,-3.873,-3.6825,-2.9126,-2.8341,1.7225,3.9365,-0.98522,-3.0274
-1.0742,-3.7179,0.0,-8.8235,-1.9608,-3.187,0.96618,-5.9187,8.6731,-8.8235,-1.9608,-0.98039,-2.8571,-3.873,-1.7778,-4.8544,-3.8003,-0.19139,3.9365,0.0,-3.0274
-4.8657,-2.7564,-2.9268,-7.8431,-1.9608,-2.2114,0.0,-3.9675,7.7023,-7.8431,-1.9608,0.98039,-1.9048,-2.9206,-4.6349,-3.8835,-4.7665,-3.0622,5.8413,-0.98522,-2.0612
-8.6572,-3.7179,-6.8293,-8.8235,-2.9412,-5.1382,-1.9324,-5.9187,5.7605,-8.8235,-2.9412,-0.98039,-4.7619,-3.873,-11.302,-2.9126,-7.6651,-5.933,6.7937,-9.8522,-1.095
-13.397,-4.6795,-12.683,-11.765,-5.8824,-10.016,-3.8647,-7.8699,6.7314,-11.765,-5.8824,-3.9216,-8.5714,-5.7778,-16.063,-4.8544,-10.564,-9.7608,7.746,-14.778,-3.0274
-15.292,-2.7564,-14.634,-13.725,-4.902,-12.943,-1.9324,-9.8211,8.6731,-13.725,-4.902,-5.8824,-7.619,-5.7778,-16.063,-3.8835,-10.564,-8.8038,9.6508,-11.823,-3.0274
-16.24,-2.7564,-15.61,-16.667,-7.8431,-15.87,-4.8309,-9.8211,7.7023,-16.667,-7.8431,-9.8039,-3.8095,-1.9683,-15.111,-2.9126,-9.5974,-7.8469,9.6508,-10.837,-2.0612
-15.292,-4.6795,-16.584999,-13.725,-8.8235,-14.894,-5.7971,-7.8699,3.8188,-13.725,-8.8235,-9.8039,-2.8571,-1.0159,-15.111,-2.9126,-11.53,-6.89,7.746,-10.837,1.8035
-19.084,-5.641,-18.537001,-13.725,-9.8039,-14.894,-7.7295,-6.8943,0.90615,-13.725,-9.8039,-10.784,-5.7143,-2.9206,-17.968,-3.8835,-13.462,-7.8469,5.8413,-14.778,1.8035
-20.979,-6.6026,-18.537001,-13.725,-10.784,-15.87,-8.6957,-6.8943,-2.9773,-13.725,-10.784,-11.765,-6.6667,-3.873,-17.968,-4.8544,-13.462,-7.8469,3.9365,-14.778,0.83736
-19.084,-10.449,-18.537001,-13.725,-13.725,-15.87,-9.6618,-5.9187,-3.9482,-13.725,-13.725,-12.745,-2.8571,-2.9206,-16.063,-7.767,-15.395,-5.933,2.0317,-7.8818,-0.12882
-15.292,-11.41,-13.659,-10.784,-9.8039,-13.919,-7.7295,-3.9675,-3.9482,-10.784,-9.8039,-10.784,-0.95238,-1.0159,-13.206,-6.7961,-14.428,-3.0622,0.12698,-4.9261,-0.12882
-8.6572,-9.4872,-7.8049,-6.8627,-6.8627,-7.0894,-5.7971,-0.06504,-2.9773,-6.8627,-6.8627,-5.8824,1.9048,2.7937,-8.4444,-4.8544,-10.564,2.6794,-0.8254,0.0,0.83736
-3.9179,-6.6026,-5.8537,-3.9216,-7.8431,-3.187,-4.8309,2.8618,-5.89,-3.9216,-7.8431,-4.902,1.9048,2.7937,-2.7302,-2.9126,-7.6651,7.4641,-0.8254,5.9113,-0.12882
-2.0221,-3.7179,-4.878,-3.9216,-10.784,-2.2114,-5.7971,2.8618,-8.8026,-3.9216,-10.784,-4.902,1.9048,3.746,3.9365,0.97087,-2.8341,8.4211,-0.8254,10.837,2.7697
4.613,-2.7564,0.97561,-1.9608,-10.784,0.71545,-6.7633,5.7886,-10.744,-1.9608,-10.784,-4.902,6.6667,8.5079,11.556,5.8252,5.8615,10.335,-2.7302,15.764,6.6345
9.3523,-2.7564,4.878,0.98039,-8.8235,4.6179,-6.7633,5.7886,-11.715,0.98039,-8.8235,-2.9412,8.5714,9.4603,14.413,6.7961,8.7601,11.292,-3.6825,15.764,7.6006
12.196,-3.7179,6.8293,3.9216,-6.8627,9.4959,-4.8309,6.7642,-11.715,3.9216,-6.8627,0.98039,10.476,9.4603,15.365,6.7961,9.7262,11.292,-4.6349,15.764,5.6683
15.987,-1.7949,7.8049,2.9412,-5.8824,10.472,-1.9324,6.7642,-11.715,2.9412,-5.8824,2.9412,11.429,9.4603,18.222,7.767,12.625,13.206,-3.6825,17.733999,5.6683
14.092,0.12821,6.8293,3.9216,-5.8824,8.5203,-0.96618,6.7642,-9.7735,3.9216,-5.8824,1.9608,12.381,8.5079,21.079,9.7087,15.523,11.292,0.12698,20.690001,4.7021
13.144,3.0128,7.8049,3.9216,-4.902,8.5203,0.0,5.7886,-9.7735,3.9216,-4.902,2.9412,13.333,8.5079,22.032,10.68,16.49,9.378,1.0794,20.690001,6.6345
14.092,3.9744,10.732,5.8824,-4.902,11.447,1.9324,5.7886,-8.8026,5.8824,-4.902,5.8824,14.286,8.5079,22.983999,10.68,17.455999,7.4641,0.12698,20.690001,6.6345
15.039,4.9359,12.683,8.8235,0.0,13.398,4.8309,6.7642,-7.8317,8.8235,0.0,8.8235,13.333,7.5556,20.127001,10.68,17.455999,6.5072,1.0794,17.733999,6.6345
15.039,3.9744,15.61,4.902,-1.9608,13.398,4.8309,3.8374,-7.8317,4.902,-1.9608,7.8431,10.476,6.6032,18.222,9.7087,16.49,3.6364,1.0794,13.793,4.7021
17.882999,6.859,19.511999,7.8431,2.9412,14.374,7.7295,4.813,-5.89,7.8431,2.9412,10.784,7.619,7.5556,19.174999,12.621,18.422001,2.6794,1.0794,10.837,6.6345
13.144,9.7436,18.537001,7.8431,0.98039,13.398,7.7295,5.7886,-6.8608,7.8431,0.98039,9.8039,5.7143,9.4603,16.316999,14.563,17.455999,0.76555,1.0794,6.8966,6.6345
8.4044,8.7821,11.707,9.8039,1.9608,9.4959,5.7971,5.7886,-6.8608,9.8039,1.9608,5.8824,6.6667,9.4603,12.508,13.592,15.523,-1.1483,1.0794,2.9557,7.6006
7.4566,6.859,5.8537,10.784,5.8824,7.5447,4.8309,3.8374,-3.9482,10.784,5.8824,3.9216,8.5714,8.5079,10.603,10.68,11.659,-2.1053,-0.8254,4.9261,8.5668
6.5087,3.9744,5.8537,5.8824,5.8824,3.6423,2.8986,-2.9919,-4.9191,5.8824,5.8824,3.9216,5.7143,6.6032,7.746,6.7961,6.8277,-4.9761,-2.7302,4.9261,7.6006
7.4566,3.9744,9.7561,7.8431,4.902,3.6423,2.8986,0.91057,-8.8026,7.8431,4.902,4.902,9.5238,9.4603,7.746,4.8544,5.8615,-3.0622,-6.5397,5.9113,5.6683
8.4044,4.9359,13.659,9.8039,7.8431,3.6423,5.7971,1.8862,-7.8317,9.8039,7.8431,6.8627,6.6667,4.6984,6.7937,1.9417,3.9291,-0.19139,-8.4444,7.8818,1.8035
8.4044,5.8974,14.634,12.745,9.8039,5.5935,8.6957,6.7642,-7.8317,12.745,9.8039,9.8039,8.5714,2.7937,5.8413,0.0,2.963,1.7225,-7.4921,8.867,0.83736
10.3,7.8205,13.659,14.706,11.765,9.4959,11.594,11.642,-7.8317,14.706,11.765,13.725,17.143,9.4603,7.746,3.8835,6.8277,5.5502,-5.5873,12.808,3.7359
9.3523,5.8974,8.7805,16.667,10.784,10.472,9.6618,11.642,-9.7735,16.667,10.784,13.725,11.429,6.6032,4.8889,3.8835,3.9291,6.5072,-4.6349,10.837,3.7359
8.4044,2.0513,2.9268,17.646999,7.8431,9.4959,5.7971,12.618,-10.744,17.646999,7.8431,10.784,0.95238,-1.0159,0.12698,-1.9417,-3.8003,5.5502,-5.5873,4.9261,0.83736
11.248,2.0513,6.8293,17.646999,8.8235,10.472,6.7633,12.618,-10.744,17.646999,8.8235,13.725,-3.8095,-4.8254,-0.8254,-5.8252,-6.6989,6.5072,-5.5873,1.9704,-2.0612
8.4044,0.12821,10.732,17.646999,7.8431,10.472,5.7971,14.569,-11.715,17.646999,7.8431,14.706,-7.619,-8.6349,-2.7302,-8.7379,-7.6651,5.5502,-6.5397,-1.9704,-6.8921
4.613,-2.7564,10.732,18.627001,8.8235,9.4959,6.7633,18.472,-10.744,18.627001,8.8235,14.706,-6.6667,-10.54,-5.5873,-10.68,-8.6312,7.4641,-5.5873,-2.9557,-8.8245
3.6651,-1.7949,8.7805,19.608,7.8431,11.447,8.6957,19.447001,-8.8026,19.608,7.8431,15.686,-8.5714,-10.54,-6.5397,-8.7379,-7.6651,10.335,-3.6825,-4.9261,-6.8921
-0.12638,-1.7949,2.9268,20.587999,8.8235,11.447,8.6957,18.472,-8.8026,20.587999,8.8235,14.706,-12.381,-10.54,-12.254,-8.7379,-10.564,9.378,-1.7778,-9.8522,-6.8921
-3.9179,-0.83333,-1.9512,17.646999,4.902,8.5203,5.7971,15.545,-8.8026,17.646999,4.902,10.784,-14.286,-12.444,-16.063,-8.7379,-12.496,6.5072,-0.8254,-11.823,-5.9259
-2.97,1.0897,-1.9512,13.725,3.9216,6.5691,3.8647,15.545,-8.8026,13.725,3.9216,7.8431,-12.381,-13.397,-13.206,-4.8544,-9.5974,6.5072,1.0794,-9.8522,-3.0274
-6.7615,-2.7564,-4.878,7.8431,-2.9412,0.71545,-1.9324,12.618,-9.7735,7.8431,-2.9412,1.9608,-15.238,-13.397,-14.159,-4.8544,-10.564,3.6364,0.12698,-11.823,-3.0274
-9.6051,-6.6026,-5.8537,5.8824,-3.9216,-3.187,-1.9324,9.6911,-7.8317,5.8824,-3.9216,0.0,-15.238,-13.397,-17.016001,-7.767,-13.462,0.76555,1.0794,-14.778,-5.9259
-12.449,-8.5256,-7.8049,5.8824,-1.9608,-3.187,-1.9324,8.7154,-4.9191,5.8824,-1.9608,-0.98039,-18.094999,-17.205999,-17.968,-10.68,-16.361,-1.1483,1.0794,-16.749001,-7.8583
-13.397,-8.5256,-11.707,5.8824,-0.98039,-2.2114,-0.96618,9.6911,-2.9773,5.8824,-0.98039,-0.98039,-17.143,-15.302,-17.016001,-10.68,-15.395,-0.19139,0.12698,-14.778,-9.7907
-15.292,-5.641,-14.634,5.8824,-2.9412,-2.2114,-1.9324,8.7154,-1.0356,5.8824,-2.9412,-2.9412,-16.190001,-15.302,-17.016001,-10.68,-15.395,-2.1053,1.0794,-15.764,-8.8245
-13.397,-1.7949,-11.707,6.8627,-0.98039,-1.2358,-1.9324,7.7398,-0.06472,6.8627,-0.98039,-1.9608,-11.429,-13.397,-16.063,-6.7961,-11.53,-4.9761,2.9841,-13.793,-5.9259
-9.6051,0.12821,-6.8293,6.8627,1.9608,-0.26016,-0.96618,5.7886,1.877,6.8627,1.9608,-0.98039,-9.5238,-9.5873,-12.254,-3.8835,-6.6989,-7.8469,3.9365,-12.808,-3.9936
-8.6572,-0.83333,-4.878,4.902,1.9608,-0.26016,0.0,3.8374,3.8188,4.902,1.9608,-0.98039,-11.429,-10.54,-12.254,-5.8252,-7.6651,-10.718,4.8889,-15.764,-5.9259
-10.553,-3.7179,-3.9024,3.9216,2.9412,-1.2358,1.9324,1.8862,5.7605,3.9216,2.9412,-0.98039,-13.333,-11.492,-15.111,-9.7087,-9.5974,-14.545,5.8413,-18.719,-8.8245
-9.6051,-1.7949,-1.9512,4.902,3.9216,0.71545,3.8647,2.8618,8.6731,4.902,3.9216,0.0,-11.429,-9.5873,-12.254,-7.767,-7.6651,-12.632,6.7937,-16.749001,-5.9259
-8.6572,0.12821,-2.9268,6.8627,6.8627,-0.26016,4.8309,4.813,8.6731,6.8627,6.8627,0.0,-9.5238,-8.6349,-10.349,-3.8835,-4.7665,-7.8469,7.746,-12.808,-0.12882
-12.449,-0.83333,-11.707,4.902,1.9608,-3.187,-1.9324,2.8618,4.7896,4.902,1.9608,-5.8824,-9.5238,-7.6825,-11.302,-2.9126,-5.7327,-8.8038,6.7937,-13.793,-1.095
-7.7093,-2.7564,-15.61,4.902,0.0,-2.2114,-5.7971,5.7886,1.877,4.902,0.0,-6.8627,-7.619,-7.6825,-8.4444,-2.9126,-5.7327,-4.9761,5.8413,-9.8522,-0.12882
-4.8657,-5.641,-13.659,2.9412,-6.8627,-1.2358,-9.6618,7.7398,-4.9191,2.9412,-6.8627,-7.8431,-3.8095,-3.873,-4.6349,-2.9126,-4.7665,-1.1483,2.0317,-5.9113,0.83736
-7.7093,-10.449,-15.61,2.9412,-4.902,-4.1626,-11.594,4.813,-4.9191,2.9412,-4.902,-11.765,-5.7143,-5.7778,-7.4921,-7.767,-8.6312,-2.1053,-1.7778,-5.9113,-3.0274
-5.8136,-10.449,-11.707,2.9412,-2.9412,-2.2114,-10.628,5.7886,-2.0065,2.9412,-2.9412,-10.784,-1.9048,-5.7778,-3.6825,-9.7087,-8.6312,0.76555,-3.6825,0.0,-5.9259
0.82148,-7.5641,-2.9268,4.902,-0.98039,1.6911,-8.6957,6.7642,-2.0065,4.902,-0.98039,-6.8627,4.7619,-1.0159,2.9841,-5.8252,-1.868,5.5502,-5.5873,3.9409,-1.095
3.6651,-4.6795,0.97561,1.9608,-3.9216,1.6911,-10.628,2.8618,-3.9482,1.9608,-3.9216,-5.8824,10.476,3.746,7.746,-1.9417,1.9968,5.5502,-8.4444,10.837,-0.12882
3.6651,-2.7564,0.97561,-4.902,-5.8824,-2.2114,-11.594,-2.9919,-5.89,-4.902,-5.8824,-8.8235,8.5714,8.5079,11.556,3.8835,4.8953,4.5933,-8.4444,13.793,4.7021
3.6651,-2.7564,-0.97561,-9.8039,-9.8039,-4.1626,-12.56,-4.9431,-8.8026,-9.8039,-9.8039,-10.784,15.238,15.175,15.365,7.767,7.7939,5.5502,-8.4444,15.764,8.5668
6.5087,-5.641,-1.9512,-11.765,-9.8039,-4.1626,-9.6618,-6.8943,-6.8608,-11.765,-9.8039,-9.8039,20.0,17.079,18.222,6.7961,9.7262,5.5502,-7.4921,19.704,7.6006
7.4566,-3.7179,2.9268,-10.784,-6.8627,-5.1382,-4.8309,-10.797,-3.9482,-10.784,-6.8627,-5.8824,19.048,16.127001,20.127001,7.767,13.591,1.7225,-4.6349,20.690001,8.5668
8.4044,3.0128,8.7805,-13.725,-7.8431,-6.1138,-2.8986,-14.699,-3.9482,-13.725,-7.8431,-4.902,19.048,18.032,22.032,13.592,20.354,-0.19139,-3.6825,19.704,11.465
11.248,10.705,15.61,-14.706,-6.8627,-5.1382,0.96618,-17.625999,-2.9773,-14.706,-6.8627,-1.9608,20.952,19.937,24.889,19.417,26.150999,-2.1053,-1.7778,19.704,14.364
15.039,17.436001,19.511999,-11.765,-4.902,-0.26016,3.8647,-15.675,-2.0065,-11.765,-4.902,2.9412,22.857,23.746,26.794001,23.301001,30.016001,-4.0191,1.0794,17.733999,14.364
15.039,18.396999,17.561001,-8.8235,-0.98039,1.6911,6.7633,-13.724,-1.0356,-8.8235,-0.98039,4.902,22.857,23.746,25.841,24.271999,30.016001,-4.0191,1.0794,14.778,12.432
13.144,13.59,14.634,-9.8039,0.0,0.71545,5.7971,-11.772,0.90615,-9.8039,0.0,3.9216,20.952,20.889,22.983999,20.388,27.118,-4.0191,-0.8254,13.793,8.5668
12.196,7.8205,14.634,-8.8235,3.9216,-0.26016,7.7295,-10.797,1.877,-8.8235,3.9216,4.902,16.190001,15.175,17.27,12.621,20.354,-4.0191,-2.7302,9.8522,3.7359
9.3523,4.9359,14.634,-8.8235,2.9412,-1.2358,6.7633,-9.8211,2.8479,-8.8235,2.9412,4.902,11.429,12.317,12.508,8.7379,14.557,-4.9761,-2.7302,5.9113,3.7359
11.248,5.8974,15.61,-4.902,4.902,1.6911,7.7295,-5.9187,2.8479,-4.902,4.902,7.8431,14.286,13.27,13.46,9.7087,14.557,-1.1483,-1.7778,8.867,6.6345
11.248,7.8205,13.659,-8.8235,0.0,1.6911,6.7633,-5.9187,0.90615,-8.8235,0.0,6.8627,14.286,12.317,12.508,10.68,15.523,0.76555,-0.8254,7.8818,6.6345
9.3523,7.8205,10.732,-6.8627,-3.9216,0.71545,2.8986,-2.0163,-3.9482,-6.8627,-3.9216,3.9216,9.5238,14.222,8.6984,10.68,13.591,2.6794,-0.8254,4.9261,6.6345
4.613,3.9744,5.8537,-6.8627,-4.902,-2.2114,-0.96618,-0.06504,-4.9191,-6.8627,-4.902,0.0,4.7619,9.4603,2.9841,6.7961,7.7939,2.6794,-0.8254,2.9557,3.7359
0.82148,-1.7949,2.9268,-11.765,-3.9216,-6.1138,-1.9324,-5.9187,-4.9191,-11.765,-3.9216,-1.9608,-1.9048,1.8413,-3.6825,0.0,0.06441,-0.19139,0.12698,-1.9704,-0.12882
0.82148,-0.83333,4.878,-7.8431,-5.8824,-5.1382,-0.96618,-2.0163,-4.9191,-7.8431,-5.8824,0.0,3.8095,3.746,-2.7302,0.97087,0.06441,3.6364,0.12698,1.9704,1.8035
-2.97,0.12821,3.9024,-6.8627,-6.8627,-7.0894,-1.9324,-2.0163,-5.89,-6.8627,-6.8627,-1.9608,0.95238,1.8413,-3.6825,1.9417,0.06441,4.5933,1.0794,0.98522,2.7697
-2.97,1.0897,0.0,-8.8235,-9.8039,-10.016,-4.8309,-3.9675,-6.8608,-8.8235,-9.8039,-4.902,-3.8095,-1.9683,-5.5873,0.0,-2.8341,2.6794,1.0794,-0.98522,0.83736
-2.0221,0.12821,-4.878,-4.902,-7.8431,-6.1138,-4.8309,0.91057,-5.89,-4.902,-7.8431,-3.9216,-5.7143,-6.7302,-7.4921,-3.8835,-6.6989,4.5933,1.0794,-2.9557,-3.0274
-1.0742,1.0897,-4.878,-1.9608,-4.902,-4.1626,-2.8986,1.8862,-3.9482,-1.9608,-4.902,-0.98039,-6.6667,-7.6825,-7.4921,-3.8835,-7.6651,5.5502,2.0317,-1.9704,-3.9936
-2.0221,1.0897,-3.9024,-1.9608,-4.902,-4.1626,-1.9324,1.8862,-1.0356,-1.9608,-4.902,-0.98039,-7.619,-7.6825,-6.5397,-3.8835,-9.5974,5.5502,3.9365,-0.98522,-2.0612
-3.9179,2.0513,-1.9512,0.98039,-1.9608,-3.187,0.0,1.8862,-0.06472,0.98039,-1.9608,0.0,-8.5714,-7.6825,-7.4921,-3.8835,-9.5974,4.5933,5.8413,0.0,-2.0612
-4.8657,3.9744,0.97561,2.9412,1.9608,-1.2358,1.9324,2.8618,2.8479,2.9412,1.9608,2.9412,-10.476,-10.54,-7.4921,-2.9126,-8.6312,3.6364,5.8413,-1.9704,-3.0274
-2.97,5.8974,2.9268,8.8235,5.8824,2.6667,4.8309,3.8374,2.8479,8.8235,5.8824,5.8824,-6.6667,-8.6349,-5.5873,0.0,-4.7665,4.5933,4.8889,-1.9704,-2.0612
-2.97,2.0513,-0.97561,9.8039,4.902,3.6423,4.8309,4.813,4.7896,9.8039,4.902,6.8627,-8.5714,-10.54,-4.6349,-3.8835,-6.6989,2.6794,3.9365,-2.9557,-5.9259
1.7694,0.12821,-2.9268,15.686,10.784,8.5203,9.6618,8.7154,8.6731,15.686,10.784,10.784,-13.333,-13.397,-2.7302,-8.7379,-7.6651,4.5933,4.8889,-1.9704,-8.8245
2.7172,-0.83333,-2.9268,19.608,15.686,13.398,12.56,12.618,11.586,19.608,15.686,14.706,-14.286,-13.397,-1.7778,-8.7379,-7.6651,4.5933,5.8413,-0.98522,-9.7907
-0.12638,-1.7949,-5.8537,19.608,13.725,11.447,9.6618,9.6911,8.6731,19.608,13.725,10.784,-14.286,-10.54,-4.6349,-7.767,-6.6989,1.7225,6.7937,-5.9113,-9.7907
-6.7615,-4.6795,-11.707,16.667,7.8431,6.5691,0.96618,6.7642,4.7896,16.667,7.8431,3.9216,-14.286,-8.6349,-11.302,-7.767,-10.564,-2.1053,4.8889,-11.823,-7.8583
-8.6572,-8.5256,-15.61,15.686,6.8627,4.6179,-3.8647,6.7642,2.8479,15.686,6.8627,-0.98039,-14.286,-9.5873,-17.016001,-9.7087,-14.428,-3.0622,2.9841,-16.749001,-6.8921
-9.6051,-12.372,-18.537001,13.725,4.902,4.6179,-5.7971,8.7154,2.8479,13.725,4.902,-3.9216,-14.286,-11.492,-18.921,-13.592,-18.292999,-3.0622,1.0794,-17.733999,-8.8245
-12.449,-16.218,-22.438999,11.765,4.902,0.71545,-5.7971,7.7398,2.8479,11.765,4.902,-6.8627,-13.333,-11.492,-19.872999,-18.447001,-21.191999,-4.0191,-0.8254,-14.778,-12.689
-15.292,-16.218,-24.389999,9.8039,1.9608,-3.187,-8.6957,5.7886,0.90615,9.8039,1.9608,-9.8039,-13.333,-12.444,-17.968,-18.447001,-21.191999,-3.0622,-1.7778,-12.808,-12.689
-14.344,-18.141001,-25.365999,8.8235,-1.9608,-3.187,-12.56,5.7886,-2.9773,8.8235,-1.9608,-12.745,-5.7143,-9.5873,-15.111,-15.534,-18.292999,-1.1483,-3.6825,-7.8818,-9.7907
-14.344,-19.103001,-25.365999,6.8627,-3.9216,-3.187,-14.493,5.7886,-4.9191,6.8627,-3.9216,-14.706,-4.7619,-8.6349,-14.159,-14.563,-17.327,-2.1053,-4.6349,-6.8966,-8.8245
-14.344,-18.141001,-23.415001,2.9412,-5.8824,-5.1382,-16.424999,2.8618,-6.8608,2.9412,-5.8824,-16.667,-10.476,-7.6825,-13.206,-12.621,-14.428,-4.9761,-7.4921,-9.8522,-8.8245
-11.501,-12.372,-15.61,0.98039,-4.902,-6.1138,-13.527,-0.06504,-5.89,0.98039,-4.902,-15.686,-5.7143,-3.873,-6.5397,-4.8544,-6.6989,-4.9761,-7.4921,-3.9409,-4.9597
-6.7615,-8.5256,-9.7561,0.0,-5.8824,-5.1382,-11.594,-1.0407,-4.9191,0.0,-5.8824,-13.725,0.0,-0.06349,1.0794,-0.97087,0.06441,-4.0191,-6.5397,1.9704,-2.0612
-4.8657,-4.6795,-5.8537,0.98039,-2.9412,-4.1626,-8.6957,-2.0163,-4.9191,0.98039,-2.9412,-10.784,6.6667,5.6508,5.8413,2.9126,4.8953,-3.0622,-6.5397,5.9113,1.8035
-2.97,-0.83333,-1.9512,-0.98039,-1.9608,-4.1626,-5.7971,-3.9675,-3.9482,-0.98039,-1.9608,-7.8431,11.429,10.413,7.746,4.8544,6.8277,-4.9761,-6.5397,6.8966,2.7697
-1.0742,0.12821,1.9512,-3.9216,-1.9608,-5.1382,-5.7971,-7.8699,-5.89,-3.9216,-1.9608,-6.8627,11.429,8.5079,6.7937,2.9126,6.8277,-9.7608,-6.5397,5.9113,3.7359
-0.12638,0.12821,6.8293,-9.8039,-7.8431,-7.0894,-7.7295,-10.797,-5.89,-9.8039,-7.8431,-7.8431,18.094999,14.222,8.6984,4.8544,8.7601,-12.632,-5.5873,7.8818,6.6345
-0.12638,-2.7564,4.878,-13.725,-8.8235,-10.016,-9.6618,-14.699,-5.89,-13.725,-8.8235,-10.784,12.381,17.079,6.7937,3.8835,7.7939,-13.589,-2.7302,4.9261,9.533
-2.97,-6.6026,-0.97561,-17.646999,-10.784,-11.967,-11.594,-16.65,-4.9191,-17.646999,-10.784,-12.745,5.7143,11.365,2.9841,0.0,2.963,-14.545,-1.7778,0.98522,5.6683
-2.0221,-2.7564,0.0,-15.686,-8.8235,-10.016,-5.7971,-15.675,-2.9773,-15.686,-8.8235,-8.8235,7.619,7.5556,2.0317,0.0,2.963,-11.675,2.9841,1.9704,2.7697
-2.97,2.0513,0.97561,-12.745,-5.8824,-9.0407,-2.8986,-12.748,1.877,-12.745,-5.8824,-7.8431,1.9048,4.6984,-1.7778,-0.97087,-0.90177,-9.7608,4.8889,-3.9409,2.7697
-6.7615,1.0897,-2.9268,-14.706,-1.9608,-12.943,-2.8986,-13.724,5.7605,-14.706,-1.9608,-9.8039,-0.95238,-1.0159,-5.5873,-2.9126,-5.7327,-9.7608,4.8889,-5.9113,1.8035
-7.7093,1.0897,-3.9024,-13.725,-1.9608,-13.919,-1.9324,-11.772,7.7023,-13.725,-1.9608,-9.8039,-2.8571,-3.873,-4.6349,-1.9417,-4.7665,-7.8469,5.8413,-4.9261,2.7697
-5.8136,3.0128,-1.9512,-12.745,1.9608,-11.967,0.96618,-9.8211,10.615,-12.745,1.9608,-7.8431,-3.8095,-1.9683,-4.6349,0.0,-1.868,-5.933,5.8413,-5.9113,2.7697
-2.0221,5.8974,0.97561,-11.765,2.9412,-9.0407,2.8986,-7.8699,10.615,-11.765,2.9412,-4.902,-1.9048,-1.0159,-2.7302,1.9417,-0.90177,-2.1053,3.9365,-4.9261,2.7697
-2.97,6.859,-0.97561,-12.745,0.0,-8.065,1.9324,-8.8455,6.7314,-12.745,0.0,-4.902,-1.9048,0.88889,-3.6825,4.8544,0.06441,-1.1483,2.0317,-3.9409,2.7697
-2.97,8.7821,0.0,-12.745,-1.9608,-7.0894,2.8986,-6.8943,2.8479,-12.745,-1.9608,-4.902,-0.95238,0.88889,-3.6825,7.767,1.9968,-0.19139,-0.8254,-0.98522,3.7359
-1.0742,7.8205,2.9268,-10.784,-3.9216,-4.1626,1.9324,-3.9675,-2.0065,-10.784,-3.9216,-2.9412,-0.95238,2.7937,0.12698,8.7379,3.9291,2.6794,-6.5397,0.0,4.7021
3.6651,5.8974,8.7805,-8.8235,-1.9608,-1.2358,5.7971,-3.9675,-2.9773,-8.8235,-1.9608,2.9412,6.6667,6.6032,5.8413,7.767,8.7601,4.5933,-10.349,4.9261,4.7021
9.3523,4.9359,13.659,-5.8824,0.0,4.6179,9.6618,-1.0407,-2.9773,-5.8824,0.0,9.8039,11.429,9.4603,12.508,7.767,12.625,6.5072,-13.206,11.823,4.7021
15.039,5.8974,18.537001,0.98039,2.9412,13.398,12.56,4.813,-3.9482,0.98039,2.9412,17.646999,12.381,10.413,16.316999,8.7379,15.523,10.335,-16.063,17.733999,5.6683
17.882999,9.7436,20.488001,4.902,2.9412,16.325001,13.527,6.7642,-2.0065,4.902,2.9412,19.608,11.429,11.365,17.27,11.65,17.455999,10.335,-15.111,17.733999,6.6345
15.987,12.628,20.488001,4.902,2.9412,15.35,14.493,3.8374,-0.06472,4.902,2.9412,19.608,9.5238,10.413,15.365,12.621,18.422001,7.4641,-7.4921,12.808,5.6683
10.3,8.7821,13.659,2.9412,0.98039,11.447,10.628,0.91057,2.8479,2.9412,0.98039,14.706,6.6667,7.5556,9.6508,9.7087,12.625,1.7225,0.12698,8.867,5.6683
4.613,2.0513,4.878,3.9216,1.9608,7.5447,6.7633,-1.0407,5.7605,3.9216,1.9608,9.8039,1.9048,3.746,2.0317,4.8544,3.9291,-1.1483,5.8413,5.9113,5.6683
-2.0221,-1.7949,-1.9512,1.9608,-0.98039,3.6423,1.9324,-2.0163,7.7023,1.9608,-0.98039,4.902,-1.9048,-0.06349,-3.6825,0.0,-2.8341,-4.0191,8.6984,0.0,2.7697
-4.8657,-0.83333,-4.878,3.9216,1.9608,1.6911,2.8986,-0.06504,8.6731,3.9216,1.9608,3.9216,-5.7143,-4.8254,-7.4921,-1.9417,-5.7327,-4.9761,10.603,-3.9409,0.83736
-6.7615,-0.83333,-7.8049,4.902,1.9608,0.71545,1.9324,1.8862,9.644,4.902,1.9608,3.9216,-11.429,-9.5873,-11.302,-3.8835,-8.6312,-4.9761,11.556,-8.867,-1.095
-2.97,1.0897,-3.9024,7.8431,5.8824,2.6667,3.8647,4.813,12.557,7.8431,5.8824,5.8824,-10.476,-8.6349,-9.3968,-1.9417,-6.6989,-2.1053,12.508,-8.867,-1.095
-0.12638,1.0897,-2.9268,11.765,9.8039,6.5691,5.7971,9.6911,13.528,11.765,9.8039,7.8431,-11.429,-11.492,-8.4444,-2.9126,-6.6989,2.6794,12.508,-9.8522,-3.9936
0.82148,-0.83333,-3.9024,12.745,7.8431,8.5203,4.8309,11.642,11.586,12.745,7.8431,7.8431,-12.381,-11.492,-8.4444,-3.8835,-7.6651,5.5502,8.6984,-10.837,-5.9259
3.6651,-0.83333,-0.97561,14.706,7.8431,10.472,5.7971,14.569,8.6731,14.706,7.8431,8.8235,-3.8095,-6.7302,-4.6349,-1.9417,-4.7665,8.4211,3.9365,-4.9261,-3.0274
1.7694,-0.83333,-0.97561,13.725,5.8824,8.5203,3.8647,13.593,5.7605,13.725,5.8824,5.8824,-2.8571,-4.8254,-2.7302,-1.9417,-4.7665,8.4211,2.0317,-2.9557,-2.0612
-1.0742,-1.7949,-2.9268,10.784,5.8824,4.6179,1.9324,9.6911,4.7896,10.784,5.8824,1.9608,-5.7143,-4.8254,-2.7302,-1.9417,-5.7327,7.4641,0.12698,-1.9704,-2.0612
-0.12638,-3.7179,-2.9268,8.8235,3.9216,3.6423,0.0,9.6911,3.8188,8.8235,3.9216,0.0,-2.8571,-2.9206,1.0794,-1.9417,-3.8003,7.4641,-2.7302,2.9557,-1.095
0.82148,-6.6026,-3.9024,6.8627,3.9216,2.6667,0.0,5.7886,2.8479,6.8627,3.9216,-0.98039,0.0,-1.9683,2.0317,-4.8544,-4.7665,5.5502,-2.7302,3.9409,-3.0274
-0.12638,-6.6026,-2.9268,3.9216,2.9412,1.6911,0.96618,1.8862,3.8188,3.9216,2.9412,0.0,-2.8571,-5.7778,2.0317,-7.767,-6.6989,2.6794,-1.7778,0.98522,-6.8921
-0.12638,-4.6795,-3.9024,1.9608,4.902,-0.26016,1.9324,-2.0163,5.7605,1.9608,4.902,0.0,-3.8095,-7.6825,2.0317,-9.7087,-5.7327,-0.19139,1.0794,0.98522,-6.8921
-2.97,-4.6795,-7.8049,-1.9608,1.9608,-4.1626,-0.96618,-6.8943,5.7605,-1.9608,1.9608,-4.902,-3.8095,-6.7302,1.0794,-8.7379,-5.7327,-4.9761,3.9365,-1.9704,-5.9259
-6.7615,-5.641,-10.732,-6.8627,-0.98039,-9.0407,-4.8309,-10.797,3.8188,-6.8627,-0.98039,-9.8039,-6.6667,-8.6349,-2.7302,-9.7087,-8.6312,-8.8038,4.8889,-5.9113,-5.9259
-8.6572,-8.5256,-11.707,-8.8235,-3.9216,-10.016,-6.7633,-9.8211,1.877,-8.8235,-3.9216,-12.745,-7.619,-10.54,-6.5397,-11.65,-12.496,-9.7608,3.9365,-7.8818,-7.8583
-2.0221,-6.6026,-4.878,-4.902,1.9608,-3.187,-1.9324,-4.9431,3.8188,-4.902,1.9608,-5.8824,-6.6667,-9.5873,-4.6349,-10.68,-11.53,-4.9761,5.8413,-5.9113,-8.8245
4.613,-1.7949,1.9512,0.0,5.8824,3.6423,2.8986,1.8862,5.7605,0.0,5.8824,0.98039,-1.9048,-4.8254,0.12698,-6.7961,-5.7327,1.7225,4.8889,0.0,-6.8921
6.5087,-0.83333,3.9024,0.98039,5.8824,4.6179,3.8647,3.8374,3.8188,0.98039,5.8824,2.9412,-2.8571,-2.9206,2.0317,-2.9126,-1.868,4.5933,4.8889,0.0,-3.9936
10.3,3.0128,6.8293,1.9608,3.9216,5.5935,2.8986,5.7886,0.90615,1.9608,3.9216,2.9412,0.95238,-0.06349,6.7937,0.97087,2.963,7.4641,3.9365,4.9261,-2.0612
11.248,5.8974,8.7805,1.9608,2.9412,4.6179,0.0,4.813,-2.9773,1.9608,2.9412,0.98039,3.8095,0.88889,9.6508,2.9126,5.8615,8.4211,2.9841,4.9261,-3.0274
8.4044,3.9744,6.8293,-0.98039,0.0,1.6911,-3.8647,2.8618,-5.89,-0.98039,0.0,-0.98039,0.95238,-2.9206,8.6984,0.0,5.8615,8.4211,0.12698,2.9557,-6.8921
10.3,3.0128,8.7805,0.98039,0.98039,2.6667,-2.8986,5.7886,-5.89,0.98039,0.98039,0.98039,5.7143,-0.06349,12.508,0.97087,9.7262,10.335,-0.8254,6.8966,-6.8921
13.144,4.9359,15.61,2.9412,5.8824,5.5935,2.8986,6.7642,-2.0065,2.9412,5.8824,6.8627,11.429,8.5079,17.27,5.8252,15.523,13.206,-0.8254,12.808,-1.095
13.144,3.9744,15.61,2.9412,5.8824,4.6179,3.8647,5.7886,-1.0356,2.9412,5.8824,7.8431,13.333,11.365,18.222,6.7961,16.49,12.249,-1.7778,14.778,0.83736
13.144,2.0513,14.634,2.9412,4.902,3.6423,1.9324,5.7886,-3.9482,2.9412,4.902,6.8627,15.238,10.413,16.316999,5.8252,15.523,12.249,-2.7302,14.778,1.8035
11.248,1.0897,10.732,-2.9412,0.0,-0.26016,-2.8986,2.8618,-6.8608,-2.9412,0.0,1.9608,12.381,9.4603,13.46,4.8544,12.625,8.4211,-4.6349,10.837,2.7697
4.613,-0.83333,2.9268,-9.8039,-4.902,-7.0894,-7.7295,-3.9675,-9.7735,-9.8039,-4.902,-3.9216,5.7143,6.6032,6.7937,1.9417,8.7601,3.6364,-4.6349,4.9261,1.8035
-0.12638,1.0897,1.9512,-11.765,-6.8627,-10.016,-6.7633,-6.8943,-6.8608,-11.765,-6.8627,-5.8824,5.7143,7.5556,2.9841,1.9417,5.8615,-1.1483,-1.7778,0.0,2.7697
-2.0221,2.0513,2.9268,-8.8235,-2.9412,-9.0407,-1.9324,-6.8943,-3.9482,-8.8235,-2.9412,-2.9412,3.8095,6.6032,-0.8254,1.9417,2.963,-2.1053,-1.7778,-2.9557,6.6345
-5.8136,0.12821,1.9512,-8.8235,-3.9216,-9.0407,-2.8986,-5.9187,-3.9482,-8.8235,-3.9216,-2.9412,-3.8095,-1.9683,-5.5873,-1.9417,-2.8341,-2.1053,-3.6825,-5.9113,3.7359
-6.7615,0.12821,2.9268,-7.8431,-3.9216,-8.065,-0.96618,-2.0163,-4.9191,-7.8431,-3.9216,-1.9608,-11.429,-6.7302,-9.3968,-3.8835,-6.6989,-0.19139,-3.6825,-11.823,-0.12882
-4.8657,2.0513,2.9268,-2.9412,0.98039,-5.1382,2.8986,0.91057,0.90615,-2.9412,0.98039,0.98039,-11.429,-4.8254,-8.4444,-2.9126,-7.6651,0.76555,-2.7302,-10.837,-0.12882
-1.0742,3.0128,0.0,2.9412,7.8431,-0.26016,7.7295,4.813,6.7314,2.9412,7.8431,4.902,-6.6667,-4.8254,-5.5873,-2.9126,-6.6989,2.6794,1.0794,-5.9113,-3.0274
2.7172,3.0128,0.0,8.8235,8.8235,4.6179,8.6957,7.7398,7.7023,8.8235,8.8235,8.8235,-6.6667,-3.873,-3.6825,-2.9126,-4.7665,5.5502,1.0794,-4.9261,-3.9936
2.7172,3.0128,1.9512,11.765,11.765,7.5447,10.628,8.7154,7.7023,11.765,11.765,10.784,-5.7143,-4.8254,-3.6825,-1.9417,-3.8003,5.5502,0.12698,-4.9261,-5.9259
2.7172,3.9744,4.878,11.765,8.8235,8.5203,10.628,7.7398,7.7023,11.765,8.8235,10.784,-5.7143,-5.7778,-3.6825,-0.97087,-2.8341,5.5502,2.0317,-6.8966,-4.9597
4.613,6.859,6.8293,11.765,7.8431,10.472,11.594,8.7154,5.7605,11.765,7.8431,11.765,-1.9048,-1.9683,0.12698,3.8835,0.06441,6.5072,4.8889,-5.9113,0.83736
5.5608,9.7436,8.7805,11.765,6.8627,10.472,10.628,9.6911,4.7896,11.765,6.8627,11.765,2.8571,4.6984,2.0317,7.767,3.9291,4.5933,6.7937,-4.9261,5.6683
3.6651,8.7821,5.8537,12.745,3.9216,9.4959,8.6957,7.7398,4.7896,12.745,3.9216,9.8039,4.7619,6.6032,2.0317,8.7379,5.8615,2.6794,8.6984,-2.9557,4.7021
3.6651,5.8974,2.9268,11.765,3.9216,8.5203,9.6618,5.7886,4.7896,11.765,3.9216,9.8039,1.9048,2.7937,0.12698,6.7961,3.9291,1.7225,9.6508,-2.9557,4.7021
1.7694,2.0513,0.0,10.784,2.9412,7.5447,6.7633,5.7886,3.8188,10.784,2.9412,7.8431,-1.9048,-1.0159,-0.8254,3.8835,1.9968,0.76555,7.746,-2.9557,3.7359
-2.0221,-1.7949,-2.9268,10.784,2.9412,5.5935,3.8647,4.813,1.877,10.784,2.9412,4.902,-5.7143,-3.873,-3.6825,0.0,-0.90177,1.7225,5.8413,-1.9704,2.7697
-7.7093,-3.7179,-6.8293,5.8824,-0.98039,0.71545,0.0,-0.06504,0.90615,5.8824,-0.98039,0.0,-8.5714,-5.7778,-8.4444,-2.9126,-4.7665,-3.0622,5.8413,-5.9113,1.8035
-9.6051,-3.7179,-8.7805,3.9216,0.0,-3.187,-0.96618,-2.9919,-1.0356,3.9216,0.0,-1.9608,-6.6667,-7.6825,-7.4921,-2.9126,-2.8341,-3.0622,5.8413,-5.9113,0.83736
-8.6572,-1.7949,-6.8293,0.98039,-0.98039,-4.1626,-1.9324,-3.9675,-2.0065,0.98039,-0.98039,-2.9412,-3.8095,-7.6825,-4.6349,-0.97087,0.06441,-4.0191,2.9841,-0.98522,0.83736
-4.8657,1.0897,-3.9024,2.9412,0.98039,-1.2358,0.96618,-2.0163,-2.0065,2.9412,0.98039,0.0,-0.95238,-4.8254,-0.8254,0.97087,1.0306,-1.1483,2.9841,3.9409,1.8035
-2.97,-1.7949,-4.878,-0.98039,-2.9412,-1.2358,-2.8986,-2.0163,-3.9482,-0.98039,-2.9412,-1.9608,1.9048,-1.0159,1.0794,0.97087,1.0306,-0.19139,0.12698,3.9409,1.8035
-4.8657,-4.6795,-7.8049,-2.9412,-4.902,-3.187,-5.7971,-4.9431,-5.89,-2.9412,-4.902,-4.902,3.8095,1.8413,1.0794,2.9126,1.9968,-3.0622,-0.8254,1.9704,5.6683
-6.7615,-3.7179,-7.8049,-4.902,-8.8235,-5.1382,-9.6618,-6.8943,-7.8317,-4.902,-8.8235,-7.8431,6.6667,5.6508,1.0794,4.8544,2.963,-4.9761,-1.7778,3.9409,7.6006
-5.8136,-3.7179,-5.8537,-5.8824,-8.8235,-5.1382,-11.594,-5.9187,-10.744,-5.8824,-8.8235,-7.8431,4.7619,4.6984,0.12698,2.9126,1.0306,-5.933,-3.6825,2.9557,5.6683
-5.8136,-5.641,-4.878,-7.8431,-11.765,-6.1138,-14.493,-7.8699,-13.657,-7.8431,-11.765,-9.8039,3.8095,4.6984,-0.8254,0.0,-0.90177,-6.89,-4.6349,0.98522,2.7697
-4.8657,-7.5641,-3.9024,-8.8235,-11.765,-6.1138,-14.493,-9.8211,-14.628,-8.8235,-11.765,-8.8235,6.6667,5.6508,0.12698,-1.9417,-0.90177,-6.89,-5.5873,1.9704,1.8035
-2.97,-7.5641,-1.9512,-7.8431,-8.8235,-4.1626,-12.56,-8.8455,-12.686,-7.8431,-8.8235,-6.8627,8.5714,8.5079,2.9841,0.0,1.0306,-5.933,-5.5873,4.9261,3.7359
-1.0742,-6.6026,-0.97561,-5.8824,-5.8824,-3.187,-9.6618,-6.8943,-8.8026,-5.8824,-5.8824,-5.8824,9.5238,10.413,4.8889,1.9417,3.9291,-5.933,-4.6349,4.9261,4.7021
-0.12638,-3.7179,0.97561,-8.8235,-3.9216,-3.187,-4.8309,-12.748,-4.9191,-8.8235,-3.9216,-4.902,10.476,9.4603,7.746,1.9417,5.8615,-6.89,-1.7778,4.9261,1.8035
-2.97,-4.6795,-0.97561,-9.8039,-5.8824,-5.1382,-5.7971,-11.772,-4.9191,-9.8039,-5.8824,-6.8627,8.5714,5.6508,5.8413,-1.9417,1.9968,-7.8469,-2.7302,2.9557,-2.0612
-4.8657,-7.5641,-4.878,-4.902,-5.8824,-5.1382,-7.7295,-3.9675,-6.8608,-4.902,-5.8824,-9.8039,6.6667,3.746,1.0794,-2.9126,-0.90177,-5.933,-3.6825,2.9557,-3.0274
-6.7615,-9.4872,-9.7561,-0.98039,-5.8824,-5.1382,-9.6618,-0.06504,-8.8026,-0.98039,-5.8824,-11.765,4.7619,2.7937,-1.7778,-3.8835,-3.8003,-4.9761,-5.5873,2.9557,-2.0612
-5.8136,-11.41,-10.732,6.8627,-2.9412,-2.2114,-8.6957,6.7642,-9.7735,6.8627,-2.9412,-7.8431,8.5714,2.7937,-2.7302,-5.8252,-5.7327,-1.1483,-8.4444,3.9409,-2.0612
-7.7093,-13.333,-12.683,9.8039,-2.9412,-0.26016,-8.6957,9.6911,-11.715,9.8039,-2.9412,-6.8627,-0.95238,-2.9206,-8.4444,-9.7087,-10.564,-0.19139,-10.349,1.9704,-4.9597
-6.7615,-12.372,-9.7561,8.8235,-0.98039,-0.26016,-5.7971,7.7398,-12.686,8.8235,-0.98039,-4.902,-3.8095,-1.9683,-11.302,-9.7087,-11.53,-1.1483,-9.3968,0.0,-1.095
-5.8136,-9.4872,-5.8537,8.8235,-0.98039,1.6911,-4.8309,6.7642,-11.715,8.8235,-0.98039,-2.9412,1.9048,1.8413,-10.349,-6.7961,-9.5974,-2.1053,-9.3968,0.0,0.83736
-2.0221,-3.7179,-1.9512,7.8431,-1.9608,3.6423,-2.8986,4.813,-13.657,7.8431,-1.9608,0.98039,0.95238,0.88889,-9.3968,-4.8544,-7.6651,-2.1053,-9.3968,-0.98522,0.83736
5.5608,3.0128,4.878,8.8235,-1.9608,9.4959,0.96618,7.7398,-14.628,8.8235,-1.9608,6.8627,6.6667,7.5556,-2.7302,0.97087,-0.90177,1.7225,-11.302,2.9557,4.7021
12.196,9.7436,14.634,12.745,3.9216,15.35,7.7295,9.6911,-12.686,12.745,3.9216,14.706,11.429,14.222,5.8413,7.767,8.7601,5.5502,-12.254,5.9113,8.5668
14.092,12.628,18.537001,13.725,4.902,16.325001,11.594,8.7154,-10.744,13.725,4.902,18.627001,12.381,17.079,9.6508,10.68,13.591,3.6364,-9.3968,7.8818,11.465
14.092,14.551,19.511999,11.765,5.8824,16.325001,14.493,6.7642,-5.89,11.765,5.8824,18.627001,11.429,17.079,10.603,13.592,13.591,2.6794,-3.6825,8.867,12.432
12.196,14.551,15.61,10.784,4.902,14.374,14.493,5.7886,-2.0065,10.784,4.902,15.686,9.5238,14.222,9.6508,13.592,11.659,2.6794,2.9841,8.867,12.432
4.613,10.705,6.8293,5.8824,2.9412,7.5447,8.6957,2.8618,-2.0065,5.8824,2.9412,8.8235,2.8571,7.5556,2.9841,10.68,4.8953,-0.19139,6.7937,1.9704,11.465
1.7694,6.859,0.97561,2.9412,-0.98039,2.6667,1.9324,4.813,-4.9191,2.9412,-0.98039,1.9608,0.95238,3.746,-0.8254,6.7961,-1.868,0.76555,6.7937,1.9704,8.5668
0.82148,2.0513,0.0,2.9412,-3.9216,1.6911,-3.8647,7.7398,-6.8608,2.9412,-3.9216,-1.9608,0.0,2.7937,0.12698,2.9126,-3.8003,2.6794,4.8889,4.9261,3.7359
1.7694,-3.7179,0.0,1.9608,-2.9412,1.6911,-5.7971,8.7154,-7.8317,1.9608,-2.9412,-1.9608,-2.8571,-4.8254,0.12698,-2.9126,-4.7665,5.5502,0.12698,4.9261,-2.0612
2.7172,-5.641,0.0,0.98039,-5.8824,2.6667,-8.6957,8.7154,-9.7735,0.98039,-5.8824,-2.9412,-8.5714,-12.444,0.12698,-4.8544,-4.7665,7.4641,-3.6825,2.9557,-6.8921
1.7694,-3.7179,0.0,0.98039,-5.8824,2.6667,-7.7295,9.6911,-11.715,0.98039,-5.8824,-1.9608,-6.6667,-8.6349,0.12698,-0.97087,0.06441,7.4641,-3.6825,2.9557,-4.9597
-0.12638,-4.6795,-1.9512,-2.9412,-7.8431,2.6667,-9.6618,8.7154,-12.686,-2.9412,-7.8431,-3.9216,-1.9048,-4.8254,1.0794,0.0,1.0306,5.5502,-6.5397,1.9704,-3.0274
3.6651,-5.641,1.9512,-2.9412,-8.8235,2.6667,-9.6618,7.7398,-15.599,-2.9412,-8.8235,-2.9412,0.95238,-1.9683,3.9365,-0.97087,1.9968,7.4641,-12.254,4.9261,-3.9936
7.4566,-5.641,5.8537,-5.8824,-11.765,1.6911,-10.628,5.7886,-18.511,-5.8824,-11.765,-3.9216,3.8095,-0.06349,7.746,-0.97087,5.8615,7.4641,-18.921,7.8818,-5.9259
10.3,-4.6795,10.732,-7.8431,-11.765,0.71545,-9.6618,2.8618,-18.511,-7.8431,-11.765,-3.9216,8.5714,3.746,10.603,0.97087,8.7601,8.4211,-18.921,11.823,-5.9259
9.3523,-3.7179,11.707,-11.765,-13.725,-1.2358,-9.6618,-1.0407,-15.599,-11.765,-13.725,-3.9216,12.381,8.5079,12.508,2.9126,9.7262,6.5072,-17.968,13.793,-3.9936
5.5608,-2.7564,7.8049,-13.725,-14.706,-4.1626,-9.6618,-2.9919,-13.657,-13.725,-14.706,-5.8824,9.5238,7.5556,9.6508,3.8835,8.7601,2.6794,-13.206,9.8522,-1.095
0.82148,-2.7564,2.9268,-17.646999,-18.627001,-8.065,-11.594,-6.8943,-11.715,-17.646999,-18.627001,-10.784,2.8571,7.5556,3.9365,3.8835,4.8953,-2.1053,-8.4444,2.9557,-1.095
1.7694,-0.83333,2.9268,-17.646999,-17.646999,-8.065,-9.6618,-7.8699,-7.8317,-17.646999,-17.646999,-10.784,5.7143,9.4603,3.9365,5.8252,4.8953,-4.0191,-1.7778,2.9557,1.8035
-0.12638,3.0128,2.9268,-20.587999,-21.569,-10.992,-9.6618,-12.748,-3.9482,-20.587999,-21.569,-13.725,4.7619,7.5556,2.9841,8.7379,4.8953,-7.8469,5.8413,0.98522,6.6345
-4.8657,3.0128,0.97561,-24.51,-22.549,-15.87,-10.628,-19.577,-2.0065,-24.51,-22.549,-18.627001,0.95238,4.6984,-0.8254,6.7961,1.0306,-12.632,10.603,-1.9704,7.6006
-8.6572,2.0513,-1.9512,-24.51,-20.587999,-18.797001,-8.6957,-23.48,1.877,-24.51,-20.587999,-19.608,-0.95238,2.7937,-3.6825,3.8835,-1.868,-16.459,13.46,-7.8818,8.5668
-12.449,1.0897,-6.8293,-23.528999,-17.646999,-18.797001,-6.7633,-22.504,3.8188,-23.528999,-17.646999,-18.627001,-5.7143,-1.9683,-10.349,0.97087,-6.6989,-18.372999,14.413,-13.793,5.6683
-13.397,3.9744,-7.8049,-20.587999,-17.646999,-17.820999,-4.8309,-17.625999,3.8188,-20.587999,-17.646999,-16.667,-11.429,-6.7302,-14.159,0.97087,-8.6312,-16.459,15.365,-16.749001,4.7021
-10.553,9.7436,-5.8537,-14.706,-14.706,-12.943,-1.9324,-7.8699,4.7896,-14.706,-14.706,-13.725,-10.476,-3.873,-12.254,7.767,-4.7665,-10.718,15.365,-14.778,8.5668
-5.8136,12.628,-1.9512,-8.8235,-9.8039,-7.0894,1.9324,-1.0407,4.7896,-8.8235,-9.8039,-6.8627,-5.7143,-1.0159,-8.4444,10.68,0.06441,-4.0191,12.508,-10.837,9.533
1.7694,12.628,3.9024,-3.9216,-7.8431,0.71545,3.8647,5.7886,2.8479,-3.9216,-7.8431,0.98039,-1.9048,2.7937,-2.7302,11.65,3.9291,2.6794,8.6984,-5.9113,8.5668
7.4566,9.7436,9.7561,3.9216,-0.98039,7.5447,6.7633,9.6911,1.877,3.9216,-0.98039,7.8431,0.95238,7.5556,2.9841,11.65,6.8277,7.4641,3.9365,0.98522,7.6006
9.3523,5.8974,10.732,8.8235,5.8824,11.447,8.6957,13.593,3.8188,8.8235,5.8824,11.765,2.8571,5.6508,7.746,8.7379,7.7939,12.249,-0.8254,5.9113,5.6683
9.3523,5.8974,9.7561,12.745,14.706,11.447,14.493,13.593,8.6731,12.745,14.706,15.686,0.95238,1.8413,8.6984,1.9417,5.8615,15.12,-2.7302,7.8818,-1.095
5.5608,3.0128,2.9268,12.745,19.608,9.4959,17.391001,10.667,13.528,12.745,19.608,16.667,-3.8095,-3.873,4.8889,-6.7961,0.06441,11.292,-2.7302,5.9113,-9.7907
1.7694,0.12821,-0.97561,14.706,24.51,9.4959,19.323999,7.7398,18.382,14.706,24.51,18.627001,-5.7143,-10.54,1.0794,-13.592,-3.8003,7.4641,-1.7778,1.9704,-14.622
-1.0742,-0.83333,-1.9512,12.745,24.51,7.5447,17.391001,1.8862,21.294001,12.745,24.51,16.667,-4.7619,-8.6349,-2.7302,-15.534,-6.6989,-0.19139,2.0317,-0.98522,-15.588
-2.0221,0.12821,-1.9512,9.8039,24.51,3.6423,17.391001,-4.9431,23.236,9.8039,24.51,13.725,-0.95238,-2.9206,-2.7302,-12.621,-4.7665,-4.9761,3.9365,-1.9704,-13.655
-5.8136,-4.6795,-4.878,8.8235,22.549,0.71545,14.493,-8.8455,24.207001,8.8235,22.549,9.8039,-5.7143,-11.492,-4.6349,-13.592,-5.7327,-9.7608,4.8889,-0.98522,-14.622
-12.449,-8.5256,-11.707,5.8824,20.587999,-5.1382,9.6618,-13.724,23.236,5.8824,20.587999,3.9216,-7.619,-12.444,-7.4921,-12.621,-7.6651,-14.545,6.7937,-3.9409,-11.723
-10.553,-5.641,-11.707,6.8627,20.587999,-4.1626,9.6618,-13.724,24.207001,6.8627,20.587999,4.902,-0.95238,-2.9206,-7.4921,-5.8252,-4.7665,-16.459,10.603,-5.9113,-3.0274
-8.6572,-1.7949,-7.8049,8.8235,20.587999,-3.187,10.628,-12.748,24.207001,8.8235,20.587999,6.8627,-5.7143,-5.7778,-7.4921,-0.97087,-3.8003,-18.372999,13.46,-8.867,1.8035
-7.7093,3.0128,-4.878,5.8824,16.667,-5.1382,8.6957,-14.699,20.323999,5.8824,16.667,3.9216,-10.476,-3.873,-8.4444,6.7961,-0.90177,-21.243999,15.365,-14.778,8.5668
-3.9179,9.7436,0.97561,4.902,11.765,-6.1138,4.8309,-14.699,16.440001,4.902,11.765,0.0,-3.8095,5.6508,-1.7778,16.504999,7.7939,-21.243999,14.413,-11.823,13.398
0.82148,15.513,7.8049,5.8824,12.745,-4.1626,3.8647,-13.724,12.557,5.8824,12.745,0.0,3.8095,9.4603,3.9365,22.33,14.557,-18.372999,10.603,-4.9261,16.296
2.7172,17.436001,7.8049,5.8824,10.784,-3.187,2.8986,-12.748,8.6731,5.8824,10.784,0.0,9.5238,16.127001,9.6508,25.243,18.422001,-14.545,7.746,2.9557,20.160999
0.82148,12.628,2.9268,3.9216,6.8627,-4.1626,-1.9324,-13.724,3.8188,3.9216,6.8627,-3.9216,11.429,18.983999,9.6508,23.301001,17.455999,-11.675,4.8889,3.9409,18.229
2.7172,9.7436,2.9268,3.9216,2.9412,-3.187,-4.8309,-9.8211,1.877,3.9216,2.9412,-3.9216,16.190001,22.794001,11.556,21.358999,17.455999,-6.89,2.9841,7.8818,18.229
4.613,4.9359,3.9024,4.902,3.9216,-2.2114,-3.8647,-6.8943,0.90615,4.902,3.9216,-2.9412,13.333,16.127001,11.556,15.534,15.523,-3.0622,1.0794,13.793,14.364
3.6651,0.12821,4.878,3.9216,3.9216,-2.2114,-4.8309,-3.9675,1.877,3.9216,3.9216,-3.9216,9.5238,11.365,9.6508,9.7087,11.659,-1.1483,0.12698,11.823,9.533
4.613,-1.7949,6.8293,3.9216,3.9216,-1.2358,-3.8647,-0.06504,0.90615,3.9216,3.9216,-3.9216,7.619,7.5556,6.7937,2.9126,7.7939,1.7225,-1.7778,9.8522,4.7021
2.7172,-2.7564,5.8537,2.9412,0.0,-1.2358,-4.8309,4.813,-2.0065,2.9412,0.0,-5.8824,2.8571,-0.06349,2.9841,-2.9126,3.9291,5.5502,-3.6825,5.9113,-1.095
2.7172,-3.7179,2.9268,3.9216,-1.9608,-0.26016,-6.7633,10.667,-4.9191,3.9216,-1.9608,-6.8627,-0.95238,-2.9206,0.12698,-5.8252,1.0306,10.335,-3.6825,3.9409,-3.0274
2.7172,-7.5641,-3.9024,3.9216,-5.8824,0.71545,-9.6618,14.569,-7.8317,3.9216,-5.8824,-8.8235,-2.8571,-4.8254,0.12698,-8.7379,-2.8341,14.163,-5.5873,3.9409,-3.0274
1.7694,-9.4872,-10.732,3.9216,-5.8824,0.71545,-11.594,17.496,-10.744,3.9216,-5.8824,-10.784,-2.8571,-5.7778,-0.8254,-10.68,-5.7327,17.033001,-7.4921,3.9409,-3.9936
-0.12638,-11.41,-13.659,1.9608,-7.8431,-0.26016,-11.594,15.545,-12.686,1.9608,-7.8431,-11.765,-5.7143,-8.6349,-3.6825,-13.592,-8.6312,15.12,-11.302,3.9409,-5.9259
-0.12638,-11.41,-6.8293,0.98039,-5.8824,1.6911,-6.7633,14.569,-11.715,0.98039,-5.8824,-6.8627,-4.7619,-8.6349,-1.7778,-14.563,-6.6989,16.077,-13.206,2.9557,-7.8583
3.6651,-8.5256,4.878,2.9412,-0.98039,6.5691,0.0,16.52,-10.744,2.9412,-0.98039,0.98039,0.95238,-1.9683,2.0317,-11.65,-0.90177,17.033001,-15.111,5.9113,-5.9259
6.5087,-6.6026,8.7805,0.98039,-0.98039,8.5203,0.0,15.545,-12.686,0.98039,-0.98039,3.9216,6.6667,2.7937,4.8889,-7.767,1.9968,17.033001,-18.921,6.8966,-3.0274
9.3523,-3.7179,9.7561,1.9608,0.0,9.4959,3.8647,14.569,-10.744,1.9608,0.0,6.8627,12.381,7.5556,9.6508,-3.8835,5.8615,17.033001,-20.825001,9.8522,-1.095
8.4044,-0.83333,5.8537,0.98039,0.98039,8.5203,5.7971,13.593,-6.8608,0.98039,0.98039,7.8431,5.7143,4.6984,8.6984,-3.8835,5.8615,14.163,-17.016001,6.8966,-3.0274
7.4566,3.0128,1.9512,-0.98039,3.9216,6.5691,7.7295,11.642,-1.0356,-0.98039,3.9216,6.8627,3.8095,5.6508,7.746,0.0,6.8277,10.335,-9.3968,4.9261,-2.0612
5.5608,6.859,0.97561,-3.9216,1.9608,2.6667,5.7971,7.7398,5.7605,-3.9216,1.9608,3.9216,6.6667,5.6508,6.7937,2.9126,4.8953,8.4211,1.0794,3.9409,-1.095
1.7694,6.859,1.9512,-5.8824,2.9412,-0.26016,5.7971,3.8374,9.644,-5.8824,2.9412,1.9608,1.9048,0.88889,1.0794,0.97087,-1.868,6.5072,9.6508,1.9704,-1.095
-3.9179,3.9744,0.0,-8.8235,0.98039,-3.187,2.8986,-0.06504,12.557,-8.8235,0.98039,0.0,-6.6667,-4.8254,-6.5397,-1.9417,-8.6312,2.6794,14.413,-3.9409,-2.0612
-3.9179,2.0513,0.0,-6.8627,1.9608,-3.187,3.8647,-0.06504,13.528,-6.8627,1.9608,1.9608,-13.333,-13.397,-10.349,-3.8835,-12.496,2.6794,16.316999,-7.8818,-3.9936
-2.0221,1.0897,-0.97561,-2.9412,0.0,-0.26016,3.8647,2.8618,12.557,-2.9412,0.0,3.9216,-10.476,-15.302,-9.3968,-4.8544,-12.496,4.5933,16.316999,-6.8966,-7.8583
-0.12638,3.0128,-3.9024,1.9608,2.9412,2.6667,5.7971,7.7398,12.557,1.9608,2.9412,5.8824,-13.333,-14.349,-9.3968,-5.8252,-12.496,7.4641,16.316999,-7.8818,-7.8583
-2.0221,5.8974,-7.8049,2.9412,2.9412,2.6667,4.8309,8.7154,12.557,2.9412,2.9412,4.902,-13.333,-8.6349,-10.349,-1.9417,-11.53,6.5072,14.413,-9.8522,-3.0274
-7.7093,4.9359,-11.707,1.9608,1.9608,-1.2358,1.9324,6.7642,9.644,1.9608,1.9608,0.0,-12.381,-10.54,-13.206,0.0,-12.496,3.6364,12.508,-10.837,-0.12882
-8.6572,0.12821,-9.7561,1.9608,-2.9412,-1.2358,0.0,6.7642,6.7314,1.9608,-2.9412,-1.9608,-17.143,-14.349,-15.111,-3.8835,-15.395,1.7225,8.6984,-12.808,-0.12882
-1.0742,1.0897,0.0,4.902,-0.98039,4.6179,2.8986,9.6911,3.8188,4.902,-0.98039,2.9412,-12.381,-7.6825,-8.4444,0.0,-7.6651,3.6364,5.8413,-10.837,2.7697
4.613,4.9359,6.8293,4.902,-3.9216,6.5691,3.8647,9.6911,-2.9773,4.902,-3.9216,4.902,-2.8571,-2.9206,-0.8254,5.8252,1.9968,4.5933,2.0317,-3.9409,5.6683
2.7172,4.9359,2.9268,2.9412,-0.98039,3.6423,1.9324,6.7642,-1.0356,2.9412,-0.98039,2.9412,-7.619,-5.7778,-1.7778,4.8544,1.9968,0.76555,0.12698,-4.9261,2.7697
-0.12638,4.9359,0.0,1.9608,1.9608,1.6911,2.8986,2.8618,4.7896,1.9608,1.9608,0.98039,-11.429,-6.7302,-4.6349,2.9126,-0.90177,-4.9761,0.12698,-12.808,0.83736
1.7694,9.7436,3.9024,0.0,0.98039,2.6667,5.7971,-0.06504,7.7023,0.0,0.98039,2.9412,-2.8571,-0.06349,-0.8254,4.8544,2.963,-6.89,2.0317,-8.867,1.8035
-1.0742,8.7821,3.9024,0.0,6.8627,0.71545,9.6618,-4.9431,16.440001,0.0,6.8627,3.9216,-0.95238,-3.873,-2.7302,0.97087,1.0306,-10.718,5.8413,-7.8818,-2.0612
-2.97,7.8205,1.9512,-5.8824,5.8824,-3.187,8.6957,-11.772,19.353001,-5.8824,5.8824,1.9608,-4.7619,-5.7778,-3.6825,-1.9417,0.06441,-13.589,7.746,-10.837,-4.9597
-3.9179,7.8205,-0.97561,-3.9216,6.8627,-1.2358,7.7295,-8.8455,18.382,-3.9216,6.8627,1.9608,-9.5238,-8.6349,-6.5397,-2.9126,-2.8341,-9.7608,9.6508,-12.808,-5.9259
-8.6572,3.0128,-8.7805,-1.9608,2.9412,-0.26016,1.9324,-2.9919,16.440001,-1.9608,2.9412,-1.9608,-11.429,-12.444,-12.254,-6.7961,-9.5974,-4.9761,8.6984,-14.778,-7.8583
-5.8136,-0.83333,-12.683,4.902,5.8824,4.6179,1.9324,5.7886,15.469,4.902,5.8824,-0.98039,-7.619,-10.54,-11.302,-9.7087,-11.53,5.5502,5.8413,-8.867,-8.8245
-2.0221,-5.641,-12.683,8.8235,3.9216,8.5203,0.96618,11.642,13.528,8.8235,3.9216,0.0,-7.619,-10.54,-9.3968,-14.563,-15.395,12.249,2.0317,-4.9261,-11.723
-2.97,-9.4872,-11.707,7.8431,2.9412,7.5447,0.0,11.642,8.6731,7.8431,2.9412,0.0,-5.7143,-14.349,-10.349,-18.447001,-18.292999,13.206,-0.8254,-2.9557,-14.622
-6.7615,-12.372,-11.707,3.9216,-1.9608,3.6423,-3.8647,8.7154,4.7896,3.9216,-1.9608,-2.9412,-8.5714,-16.254,-9.3968,-17.476,-17.327,11.292,-2.7302,-2.9557,-13.655
-4.8657,-13.333,-9.7561,0.0,-5.8824,0.71545,-8.6957,6.7642,-0.06472,0.0,-5.8824,-6.8627,-9.5238,-12.444,-6.5397,-14.563,-13.462,11.292,-4.6349,-1.9704,-10.757
-2.0221,-15.256,-7.8049,-5.8824,-10.784,0.71545,-12.56,5.7886,-2.9773,-5.8824,-10.784,-8.8235,-10.476,-11.492,-3.6825,-14.563,-11.53,12.249,-7.4921,-2.9557,-10.757
4.613,-13.333,-3.9024,-7.8431,-8.8235,1.6911,-11.594,5.7886,-3.9482,-7.8431,-8.8235,-7.8431,-4.7619,-8.6349,3.9365,-11.65,-6.6989,14.163,-9.3968,5.9113,-10.757
11.248,-10.449,0.97561,-7.8431,-5.8824,2.6667,-8.6957,5.7886,-5.89,-7.8431,-5.8824,-4.902,4.7619,-1.9683,11.556,-6.7961,-0.90177,17.033001,-11.302,13.793,-7.8583
14.092,-7.5641,2.9268,-7.8431,-2.9412,2.6667,-5.7971,2.8618,-5.89,-7.8431,-2.9412,-1.9608,4.7619,3.746,16.316999,-2.9126,3.9291,16.077,-14.159,14.778,-4.9597
14.092,-5.641,5.8537,-9.8039,-1.9608,0.71545,-4.8309,0.91057,-4.9191,-9.8039,-1.9608,-1.9608,5.7143,3.746,18.222,-0.97087,6.8277,12.249,-14.159,15.764,-3.9936
12.196,-4.6795,8.7805,-11.765,-0.98039,-0.26016,-3.8647,-2.0163,-4.9191,-11.765,-0.98039,-0.98039,10.476,5.6508,18.222,0.97087,8.7601,9.378,-14.159,15.764,-1.095
8.4044,-2.7564,8.7805,-13.725,0.0,-5.1382,-1.9324,-8.8455,-3.9482,-13.725,0.0,-0.98039,9.5238,7.5556,14.413,2.9126,9.7262,4.5933,-10.349,11.823,1.8035
1.7694,-0.83333,5.8537,-16.667,-1.9608,-10.016,-2.8986,-14.699,-2.9773,-16.667,-1.9608,-3.9216,10.476,9.4603,9.6508,2.9126,8.7601,-1.1483,-7.4921,8.867,2.7697
-2.0221,-1.7949,0.97561,-17.646999,0.0,-14.894,-2.8986,-20.552999,-0.06472,-17.646999,0.0,-5.8824,5.7143,4.6984,3.9365,0.0,4.8953,-6.89,-2.7302,3.9409,0.83736
-6.7615,-1.7949,-3.9024,-22.549,-5.8824,-19.771999,-5.7971,-23.48,1.877,-22.549,-5.8824,-10.784,0.0,-1.0159,-2.7302,-1.9417,1.0306,-11.675,2.0317,-2.9557,-1.095
-10.553,-2.7564,-8.7805,-15.686,-4.902,-18.797001,-5.7971,-16.65,1.877,-15.686,-4.902,-10.784,3.8095,3.746,-8.4444,-1.9417,-2.8341,-11.675,3.9365,-6.8966,-0.12882
-12.449,-4.6795,-10.732,-5.8824,-1.9608,-12.943,-3.8647,-6.8943,2.8479,-5.8824,-1.9608,-7.8431,5.7143,4.6984,-12.254,-1.9417,-5.7327,-9.7608,3.9365,-8.867,1.8035
-12.449,-6.6026,-10.732,0.98039,0.98039,-10.016,-1.9324,-2.9919,0.90615,0.98039,0.98039,-5.8824,-1.9048,-0.06349,-16.063,-5.8252,-10.564,-8.8038,2.9841,-12.808,-0.12882
-10.553,-2.7564,-8.7805,5.8824,4.902,-6.1138,2.8986,0.91057,3.8188,5.8824,4.902,-1.9608,-5.7143,-1.0159,-15.111,-3.8835,-9.5974,-7.8469,3.9365,-12.808,-0.12882
-6.7615,3.0128,-4.878,8.8235,8.8235,-1.2358,8.6957,2.8618,5.7605,8.8235,8.8235,2.9412,-1.9048,1.8413,-10.349,0.97087,-6.6989,-4.9761,4.8889,-9.8522,2.7697
-1.0742,3.9744,-0.97561,9.8039,6.8627,3.6423,8.6957,5.7886,3.8188,9.8039,6.8627,3.9216,0.0,0.88889,-4.6349,2.9126,-4.7665,0.76555,2.9841,-3.9409,3.7359
1.7694,2.0513,0.97561,8.8235,5.8824,4.6179,5.7971,7.7398,-1.0356,8.8235,5.8824,2.9412,2.8571,3.746,2.9841,2.9126,-0.90177,6.5072,-1.7778,4.9261,2.7697
3.6651,-2.7564,1.9512,8.8235,3.9216,4.6179,1.9324,8.7154,-4.9191,8.8235,3.9216,1.9608,10.476,11.365,7.746,1.9417,1.9968,10.335,-5.5873,10.837,1.8035
5.5608,-7.5641,0.97561,7.8431,1.9608,5.5935,-0.96618,8.7154,-6.8608,7.8431,1.9608,1.9608,11.429,13.27,8.6984,-0.97087,1.0306,11.292,-7.4921,12.808,-0.12882
6.5087,-8.5256,-3.9024,6.8627,0.0,7.5447,-1.9324,8.7154,-8.8026,6.8627,0.0,0.98039,12.381,6.6032,10.603,-2.9126,-0.90177,13.206,-7.4921,16.749001,-2.0612
9.3523,-2.7564,-3.9024,6.8627,0.0,9.4959,-0.96618,7.7398,-6.8608,6.8627,0.0,2.9412,8.5714,2.7937,13.46,0.97087,2.963,12.249,-3.6825,14.778,0.83736
13.144,3.9744,3.9024,4.902,0.0,9.4959,2.8986,4.813,-4.9191,4.902,0.0,5.8824,7.619,5.6508,15.365,5.8252,6.8277,11.292,1.0794,14.778,4.7021
15.039,7.8205,10.732,2.9412,-0.98039,9.4959,4.8309,2.8618,-4.9191,2.9412,-0.98039,7.8431,8.5714,4.6984,18.222,6.7961,7.7939,10.335,2.9841,16.749001,5.6683
15.039,6.859,13.659,3.9216,-0.98039,8.5203,3.8647,2.8618,-3.9482,3.9216,-0.98039,8.8235,3.8095,2.7937,19.174999,6.7961,8.7601,9.378,4.8889,14.778,4.7021
12.196,8.7821,14.634,1.9608,-2.9412,6.5691,4.8309,-0.06504,-2.0065,1.9608,-2.9412,9.8039,-2.8571,-1.0159,17.27,7.767,9.7262,3.6364,6.7937,9.8522,3.7359
10.3,11.667,16.584999,1.9608,-0.98039,4.6179,6.7633,-2.9919,-1.0356,1.9608,-0.98039,11.765,-0.95238,-2.9206,14.413,8.7379,9.7262,1.7225,8.6984,9.8522,4.7021
7.4566,9.7436,10.732,1.9608,-0.98039,2.6667,4.8309,-2.9919,-0.06472,1.9608,-0.98039,10.784,-3.8095,-4.8254,7.746,4.8544,4.8953,-3.0622,8.6984,2.9557,2.7697
0.82148,5.8974,0.97561,4.902,0.98039,1.6911,3.8647,-2.9919,-0.06472,4.902,0.98039,7.8431,-6.6667,-8.6349,-0.8254,1.9417,-0.90177,-6.89,10.603,-6.8966,0.83736
-4.8657,3.9744,-3.9024,4.902,0.98039,-0.26016,1.9324,-2.0163,0.90615,4.902,0.98039,4.902,-3.8095,-6.7302,-5.5873,1.9417,-1.868,-11.675,10.603,-10.837,1.8035
-5.8136,4.9359,0.97561,8.8235,4.902,1.6911,3.8647,-1.0407,1.877,8.8235,4.902,8.8235,-1.9048,-2.9206,-7.4921,1.9417,0.06441,-11.675,8.6984,-11.823,-0.12882
-6.7615,3.9744,4.878,11.765,6.8627,3.6423,5.7971,1.8862,3.8188,11.765,6.8627,11.765,-2.8571,-4.8254,-9.3968,0.97087,-0.90177,-9.7608,5.8413,-13.793,-3.0274
-9.6051,0.12821,3.9024,11.765,8.8235,1.6911,2.8986,0.91057,2.8479,11.765,8.8235,10.784,-6.6667,-4.8254,-11.302,-0.97087,-2.8341,-11.675,3.9365,-13.793,-3.0274
-11.501,-2.7564,-0.97561,7.8431,3.9216,-1.2358,-2.8986,-1.0407,0.90615,7.8431,3.9216,5.8824,-8.5714,-2.9206,-13.206,-1.9417,-5.7327,-11.675,3.9365,-11.823,-3.0274
-11.501,-4.6795,-5.8537,5.8824,0.98039,-4.1626,-6.7633,-2.0163,-1.0356,5.8824,0.98039,0.98039,-5.7143,-1.9683,-14.159,-3.8835,-9.5974,-10.718,2.9841,-10.837,-3.0274
-13.397,-6.6026,-11.707,3.9216,-0.98039,-7.0894,-9.6618,-3.9675,-1.0356,3.9216,-0.98039,-3.9216,-6.6667,-3.873,-15.111,-6.7961,-13.462,-10.718,2.0317,-9.8522,-2.0612
-15.292,-7.5641,-16.584999,1.9608,-2.9412,-9.0407,-12.56,-4.9431,-1.0356,1.9608,-2.9412,-7.8431,-9.5238,-8.6349,-16.063,-7.767,-14.428,-9.7608,0.12698,-7.8818,-3.0274
-16.24,-9.4872,-17.561001,0.0,-4.902,-10.992,-14.493,-7.8699,-2.9773,0.0,-4.902,-10.784,-7.619,-6.7302,-14.159,-7.767,-13.462,-9.7608,0.12698,-5.9113,-3.0274
-14.344,-12.372,-15.61,-2.9412,-6.8627,-11.967,-14.493,-9.8211,-3.9482,-2.9412,-6.8627,-12.745,-3.8095,-2.9206,-12.254,-6.7961,-11.53,-10.718,-0.8254,-4.9261,-2.0612
-13.397,-11.41,-12.683,-1.9608,-1.9608,-10.016,-9.6618,-9.8211,-2.0065,-1.9608,-1.9608,-10.784,-3.8095,-1.9683,-12.254,-7.767,-12.496,-9.7608,-0.8254,-3.9409,-1.095
-12.449,-8.5256,-10.732,-1.9608,-1.9608,-8.065,-5.7971,-7.8699,-0.06472,-1.9608,-1.9608,-8.8235,-3.8095,-0.06349,-11.302,-7.767,-11.53,-10.718,1.0794,-5.9113,-2.0612
-5.8136,1.0897,-1.9512,-1.9608,-2.9412,-5.1382,0.0,-7.8699,-2.9773,-1.9608,-2.9412,-3.9216,0.95238,-1.0159,-4.6349,0.0,-1.868,-7.8469,3.9365,-1.9704,1.8035
-5.8136,5.8974,0.97561,-3.9216,0.0,-5.1382,0.96618,-7.8699,4.7896,-3.9216,0.0,-2.9412,-3.8095,-2.9206,-5.5873,3.8835,1.0306,-10.718,6.7937,-6.8966,3.7359
-7.7093,5.8974,0.0,-6.8627,1.9608,-8.065,1.9324,-10.797,9.644,-6.8627,1.9608,-5.8824,-6.6667,-3.873,-8.4444,2.9126,-1.868,-11.675,7.746,-9.8522,3.7359
-8.6572,6.859,0.0,-12.745,-1.9608,-10.016,2.8986,-14.699,9.644,-12.745,-1.9608,-6.8627,-0.95238,0.88889,-6.5397,5.8252,1.0306,-11.675,7.746,-6.8966,5.6683
-7.7093,5.8974,0.97561,-12.745,0.98039,-9.0407,3.8647,-15.675,11.586,-12.745,0.98039,-5.8824,-4.7619,-1.0159,-6.5397,3.8835,0.06441,-12.632,7.746,-8.867,4.7021
-3.9179,5.8974,3.9024,-10.784,4.902,-5.1382,6.7633,-14.699,15.469,-10.784,4.902,-1.9608,-4.7619,-0.06349,-3.6825,4.8544,1.0306,-12.632,6.7937,-8.867,3.7359
1.7694,7.8205,7.8049,-7.8431,8.8235,-0.26016,10.628,-12.748,17.410999,-7.8431,8.8235,3.9216,1.9048,4.6984,0.12698,4.8544,4.8953,-9.7608,4.8889,-4.9261,2.7697
1.7694,3.9744,7.8049,-5.8824,9.8039,3.6423,13.527,-10.797,19.353001,-5.8824,9.8039,8.8235,0.0,0.88889,0.12698,-0.97087,3.9291,-7.8469,2.0317,-1.9704,-6.8921
2.7172,1.0897,6.8293,-3.9216,11.765,6.5691,15.459,-9.8211,19.353001,-3.9216,11.765,12.745,0.0,-1.9683,1.0794,-5.8252,3.9291,-5.933,0.12698,0.0,-12.689
7.4566,2.0513,11.707,-0.98039,13.725,10.472,18.357,-6.8943,18.382,-0.98039,13.725,16.667,4.7619,2.7937,5.8413,-5.8252,6.8277,-4.0191,-2.7302,3.9409,-14.622
11.248,2.0513,15.61,0.98039,13.725,12.423,18.357,-5.9187,18.382,0.98039,13.725,18.627001,6.6667,0.88889,7.746,-4.8544,7.7939,-3.0622,-2.7302,4.9261,-14.622
8.4044,1.0897,11.707,0.0,11.765,9.4959,15.459,-7.8699,16.440001,0.0,11.765,14.706,4.7619,-0.06349,6.7937,-4.8544,3.9291,-4.9761,-1.7778,2.9557,-11.723
2.7172,0.12821,4.878,-3.9216,8.8235,2.6667,8.6957,-10.797,12.557,-3.9216,8.8235,6.8627,3.8095,1.8413,4.8889,-2.9126,3.9291,-6.89,-0.8254,2.9557,-8.8245
-1.0742,-1.7949,0.0,-9.8039,4.902,-4.1626,1.9324,-13.724,9.644,-9.8039,4.902,-0.98039,0.95238,-2.9206,3.9365,-2.9126,2.963,-7.8469,0.12698,2.9557,-7.8583
-0.12638,-2.7564,1.9512,-11.765,-0.98039,-6.1138,-1.9324,-12.748,6.7314,-11.765,-0.98039,-3.9216,0.95238,-1.0159,4.8889,-0.97087,3.9291,-4.9761,1.0794,3.9409,-4.9597
-0.12638,-0.83333,3.9024,-12.745,-3.9216,-7.0894,-3.8647,-12.748,3.8188,-12.745,-3.9216,-5.8824,0.95238,1.8413,6.7937,4.8544,7.7939,-4.0191,2.0317,4.9261,0.83736
-1.0742,-0.83333,0.0,-13.725,-8.8235,-8.065,-8.6957,-12.748,-1.0356,-13.725,-8.8235,-9.8039,1.9048,7.5556,7.746,7.767,8.7601,-3.0622,2.0317,1.9704,5.6683
-1.0742,-1.7949,-1.9512,-12.745,-9.8039,-8.065,-10.628,-10.797,-4.9191,-12.745,-9.8039,-9.8039,4.7619,7.5556,7.746,8.7379,8.7601,-1.1483,-0.8254,3.9409,8.5668
-2.0221,-1.7949,-3.9024,-14.706,-13.725,-9.0407,-13.527,-9.8211,-8.8026,-14.706,-13.725,-12.745,5.7143,9.4603,7.746,10.68,7.7939,-1.1483,-1.7778,5.9113,12.432
-1.0742,-3.7179,-4.878,-14.706,-15.686,-10.016,-13.527,-9.8211,-10.744,-14.706,-15.686,-12.745,7.619,12.317,5.8413,9.7087,6.8277,-1.1483,-3.6825,4.9261,14.364
-0.12638,-2.7564,0.0,-15.686,-15.686,-9.0407,-10.628,-7.8699,-10.744,-15.686,-15.686,-9.8039,8.5714,12.317,6.7937,8.7379,7.7939,-1.1483,-4.6349,4.9261,10.499
3.6651,1.0897,6.8293,-12.745,-11.765,-6.1138,-6.7633,-6.8943,-10.744,-12.745,-11.765,-5.8824,10.476,14.222,11.556,10.68,12.625,0.76555,-4.6349,7.8818,9.533
6.5087,5.8974,11.707,-10.784,-11.765,-3.187,-2.8986,-4.9431,-9.7735,-10.784,-11.765,-1.9608,12.381,15.175,14.413,13.592,15.523,1.7225,-3.6825,7.8818,9.533
12.196,11.667,18.537001,-8.8235,-9.8039,0.71545,3.8647,-1.0407,-6.8608,-8.8235,-9.8039,2.9412,13.333,16.127001,16.316999,16.504999,19.388,4.5933,-0.8254,6.8966,10.499
13.144,14.551,17.561001,-6.8627,-7.8431,3.6423,7.7295,0.91057,-2.9773,-6.8627,-7.8431,5.8824,13.333,14.222,17.27,15.534,19.388,5.5502,2.0317,4.9261,7.6006
12.196,15.513,15.61,-1.9608,-2.9412,6.5691,11.594,1.8862,-0.06472,-1.9608,-2.9412,8.8235,7.619,8.5079,14.413,11.65,16.49,4.5933,2.0317,2.9557,3.7359
12.196,13.59,14.634,2.9412,0.98039,9.4959,12.56,4.813,1.877,2.9412,0.98039,10.784,1.9048,2.7937,10.603,5.8252,9.7262,3.6364,0.12698,0.98522,1.8035
12.196,10.705,15.61,3.9216,0.98039,11.447,12.56,6.7642,0.90615,3.9216,0.98039,12.745,0.95238,-0.06349,8.6984,0.0,5.8615,2.6794,-1.7778,0.98522,-2.0612
10.3,6.859,14.634,5.8824,1.9608,11.447,11.594,7.7398,-0.06472,5.8824,1.9608,11.765,2.8571,2.7937,8.6984,-2.9126,3.9291,3.6364,-4.6349,3.9409,-3.9936
10.3,1.0897,8.7805,8.8235,3.9216,11.447,8.6957,9.6911,-0.06472,8.8235,3.9216,9.8039,7.619,3.746,7.746,-6.7961,1.0306,5.5502,-7.4921,6.8966,-6.8921
9.3523,-4.6795,2.9268,10.784,6.8627,11.447,7.7295,10.667,-0.06472,10.784,6.8627,8.8235,2.8571,5.6508,2.9841,-7.767,-1.868,6.5072,-6.5397,2.9557,-5.9259
4.613,-5.641,-0.97561,10.784,7.8431,10.472,6.7633,11.642,0.90615,10.784,7.8431,6.8627,0.95238,7.5556,0.12698,-5.8252,-3.8003,6.5072,-4.6349,1.9704,-3.9936
0.82148,-4.6795,-3.9024,8.8235,6.8627,7.5447,4.8309,8.7154,-0.06472,8.8235,6.8627,3.9216,0.95238,4.6984,-2.7302,-3.8835,-5.7327,6.5072,-3.6825,3.9409,-0.12882
-3.9179,-2.7564,-6.8293,3.9216,0.98039,1.6911,0.0,4.813,-2.0065,3.9216,0.98039,-1.9608,-0.95238,3.746,-7.4921,-0.97087,-7.6651,2.6794,-0.8254,-1.9704,4.7021
-4.8657,2.0513,-4.878,2.9412,1.9608,-1.2358,-0.96618,3.8374,-1.0356,2.9412,1.9608,-3.9216,0.0,6.6032,-7.4921,2.9126,-5.7327,1.7225,3.9365,-2.9557,8.5668
-2.97,2.0513,-4.878,2.9412,0.98039,-0.26016,-0.96618,5.7886,-1.0356,2.9412,0.98039,-2.9412,0.0,1.8413,-6.5397,2.9126,-5.7327,3.6364,3.9365,0.0,7.6006
-2.97,-0.83333,-9.7561,2.9412,-0.98039,-1.2358,-1.9324,5.7886,-2.9773,2.9412,-0.98039,-3.9216,-4.7619,-1.9683,-6.5397,1.9417,-6.6989,5.5502,2.9841,-1.9704,5.6683
-4.8657,-1.7949,-11.707,0.98039,-4.902,-3.187,-5.7971,4.813,-4.9191,0.98039,-4.902,-5.8824,-5.7143,-2.9206,-6.5397,0.0,-7.6651,4.5933,1.0794,0.0,3.7359
-4.8657,-2.7564,-8.7805,0.0,-3.9216,-4.1626,-6.7633,4.813,-5.89,0.0,-3.9216,-4.902,-3.8095,-4.8254,-7.4921,-1.9417,-7.6651,4.5933,1.0794,1.9704,1.8035
-3.9179,-0.83333,-4.878,0.0,-7.8431,-3.187,-8.6957,4.813,-7.8317,0.0,-7.8431,-4.902,0.0,-1.0159,-4.6349,0.97087,-3.8003,3.6364,-0.8254,2.9557,1.8035
-4.8657,-0.83333,-3.9024,-2.9412,-9.8039,-5.1382,-10.628,2.8618,-10.744,-2.9412,-9.8039,-5.8824,-2.8571,-0.06349,-4.6349,2.9126,-2.8341,0.76555,-1.7778,0.98522,3.7359
-3.9179,-3.7179,-2.9268,-4.902,-10.784,-5.1382,-10.628,1.8862,-10.744,-4.902,-10.784,-5.8824,-7.619,-1.0159,-4.6349,2.9126,-2.8341,0.76555,-0.8254,-2.9557,3.7359
-2.97,-6.6026,-2.9268,-1.9608,-5.8824,-2.2114,-4.8309,2.8618,-5.89,-1.9608,-5.8824,-0.98039,-6.6667,-4.8254,-4.6349,-0.97087,-3.8003,1.7225,0.12698,-1.9704,0.83736
-0.12638,-5.641,0.0,3.9216,0.0,4.6179,0.96618,5.7886,-2.9773,3.9216,0.0,6.8627,-2.8571,-2.9206,-2.7302,-2.9126,-4.7665,1.7225,1.0794,0.0,-0.12882
0.82148,-3.7179,0.0,4.902,0.98039,6.5691,1.9324,4.813,-3.9482,4.902,0.98039,9.8039,-1.9048,0.88889,-2.7302,-2.9126,-2.8341,-1.1483,0.12698,-2.9557,-1.095
1.7694,-0.83333,0.97561,2.9412,1.9608,6.5691,2.8986,3.8374,-3.9482,2.9412,1.9608,8.8235,0.0,-1.0159,-1.7778,-0.97087,0.06441,-3.0622,-0.8254,-6.8966,-3.0274
2.7172,3.9744,4.878,1.9608,0.98039,5.5935,3.8647,2.8618,-2.9773,1.9608,0.98039,7.8431,2.8571,2.7937,-0.8254,2.9126,3.9291,-4.9761,0.12698,-7.8818,-2.0612
4.613,4.9359,7.8049,3.9216,4.902,6.5691,5.7971,4.813,-1.0356,3.9216,4.902,8.8235,4.7619,2.7937,-0.8254,1.9417,2.963,-4.0191,2.0317,-6.8966,-2.0612
4.613,2.0513,6.8293,2.9412,2.9412,5.5935,1.9324,5.7886,-2.9773,2.9412,2.9412,6.8627,2.8571,0.88889,0.12698,-0.97087,1.9968,-2.1053,-0.8254,-4.9261,-3.9936
-1.0742,-3.7179,-0.97561,0.0,2.9412,-2.2114,-2.8986,1.8862,-2.9773,0.0,2.9412,-0.98039,-0.95238,-1.9683,-4.6349,-5.8252,-4.7665,-3.0622,-2.7302,-5.9113,-4.9597
-4.8657,-5.641,-6.8293,-2.9412,0.98039,-8.065,-7.7295,-2.9919,-2.0065,-2.9412,0.98039,-8.8235,-2.8571,-1.9683,-8.4444,-5.8252,-9.5974,-4.9761,-2.7302,-8.867,-2.0612
-4.8657,-5.641,-7.8049,-2.9412,2.9412,-9.0407,-6.7633,-5.9187,-1.0356,-2.9412,2.9412,-8.8235,-0.95238,-2.9206,-7.4921,-4.8544,-9.5974,-4.9761,-1.7778,-4.9261,-0.12882
-8.6572,-7.5641,-10.732,-2.9412,3.9216,-10.016,-6.7633,-7.8699,1.877,-2.9412,3.9216,-10.784,-3.8095,-4.8254,-7.4921,-5.8252,-11.53,-4.0191,0.12698,-1.9704,-1.095
-6.7615,-6.6026,-8.7805,1.9608,9.8039,-7.0894,0.0,-6.8943,5.7605,1.9608,9.8039,-5.8824,-7.619,-7.6825,-6.5397,-6.7961,-10.564,-2.1053,2.9841,0.0,-2.0612
-1.0742,-3.7179,-4.878,7.8431,13.725,-1.2358,5.7971,-1.0407,9.644,7.8431,13.725,-0.98039,-6.6667,-11.492,-1.7778,-8.7379,-9.5974,0.76555,2.0317,0.98522,-3.0274
4.613,1.0897,0.97561,11.765,15.686,2.6667,6.7633,1.8862,7.7023,11.765,15.686,1.9608,-1.9048,-6.7302,3.9365,-3.8835,-3.8003,3.6364,1.0794,3.9409,-2.0612
4.613,5.8974,1.9512,9.8039,10.784,1.6911,3.8647,0.91057,5.7605,9.8039,10.784,-0.98039,0.95238,-1.0159,7.746,2.9126,1.0306,3.6364,2.0317,5.9113,3.7359
6.5087,11.667,4.878,6.8627,9.8039,0.71545,2.8986,0.91057,4.7896,6.8627,9.8039,-1.9608,4.7619,2.7937,10.603,9.7087,5.8615,4.5933,3.9365,6.8966,9.533
11.248,13.59,9.7561,7.8431,8.8235,4.6179,6.7633,3.8374,4.7896,7.8431,8.8235,2.9412,3.8095,3.746,13.46,12.621,8.7601,6.5072,3.9365,7.8818,10.499
15.039,11.667,11.707,9.8039,9.8039,7.5447,9.6618,5.7886,5.7605,9.8039,9.8039,7.8431,3.8095,6.6032,14.413,10.68,8.7601,6.5072,2.9841,9.8522,10.499
14.092,8.7821,10.732,12.745,11.765,8.5203,11.594,6.7642,6.7314,12.745,11.765,9.8039,7.619,9.4603,13.46,9.7087,9.7262,5.5502,2.9841,7.8818,9.533
8.4044,6.859,6.8293,14.706,13.725,7.5447,11.594,6.7642,7.7023,14.706,13.725,9.8039,1.9048,3.746,9.6508,6.7961,7.7939,3.6364,3.9365,5.9113,5.6683
5.5608,6.859,4.878,15.686,14.706,8.5203,10.628,9.6911,6.7314,15.686,14.706,10.784,-1.9048,-1.9683,6.7937,3.8835,5.8615,3.6364,3.9365,3.9409,3.7359
3.6651,3.9744,3.9024,15.686,14.706,9.4959,9.6618,10.667,6.7314,15.686,14.706,11.765,-0.95238,-2.9206,2.9841,0.97087,1.9968,2.6794,2.9841,3.9409,1.8035
2.7172,-4.6795,2.9268,14.706,14.706,9.4959,9.6618,8.7154,5.7605,14.706,14.706,12.745,-2.8571,-5.7778,-1.7778,-6.7961,-3.8003,1.7225,1.0794,0.98522,-3.0274
6.5087,-4.6795,6.8293,15.686,14.706,12.423,9.6618,10.667,4.7896,15.686,14.706,15.686,0.0,-3.873,-0.8254,-8.7379,-3.8003,4.5933,-1.7778,1.9704,-6.8921
11.248,-0.83333,11.707,16.667,14.706,14.374,10.628,11.642,1.877,16.667,14.706,16.667,-0.95238,-5.7778,1.0794,-6.7961,-0.90177,6.5072,-1.7778,2.9557,-6.8921
10.3,2.0513,11.707,12.745,8.8235,11.447,5.7971,10.667,-0.06472,12.745,8.8235,13.725,-0.95238,-5.7778,1.0794,-2.9126,1.9968,5.5502,-1.7778,0.98522,-4.9597
9.3523,4.9359,10.732,9.8039,5.8824,9.4959,2.8986,8.7154,-2.0065,9.8039,5.8824,10.784,6.6667,0.88889,2.9841,2.9126,5.8615,6.5072,1.0794,3.9409,0.83736
6.5087,3.9744,7.8049,7.8431,2.9412,8.5203,0.0,8.7154,-4.9191,7.8431,2.9412,7.8431,5.7143,5.6508,2.9841,5.8252,6.8277,7.4641,1.0794,3.9409,3.7359
7.4566,2.0513,8.7805,8.8235,4.902,9.4959,0.96618,9.6911,-4.9191,8.8235,4.902,9.8039,3.8095,3.746,5.8413,5.8252,7.7939,10.335,0.12698,5.9113,4.7021
8.4044,3.0128,10.732,8.8235,3.9216,11.447,2.8986,10.667,-2.0065,8.8235,3.9216,9.8039,7.619,3.746,6.7937,4.8544,6.8277,12.249,0.12698,7.8818,4.7021
6.5087,3.0128,6.8293,6.8627,2.9412,8.5203,0.96618,7.7398,-2.0065,6.8627,2.9412,5.8824,8.5714,5.6508,4.8889,4.8544,4.8953,10.335,1.0794,7.8818,5.6683
0.82148,2.0513,-0.97561,1.9608,-0.98039,2.6667,-4.8309,3.8374,-3.9482,1.9608,-0.98039,-2.9412,7.619,5.6508,3.9365,4.8544,3.9291,6.5072,0.12698,6.8966,5.6683
0.82148,-0.83333,-4.878,0.0,-2.9412,0.71545,-9.6618,2.8618,-5.89,0.0,-2.9412,-6.8627,5.7143,3.746,5.8413,5.8252,5.8615,4.5933,-0.8254,4.9261,3.7359
0.82148,-8.5256,-5.8537,-0.98039,-3.9216,-0.26016,-10.628,0.91057,-7.8317,-0.98039,-3.9216,-6.8627,0.0,-1.9683,5.8413,-0.97087,1.9968,3.6364,-3.6825,4.9261,-1.095
2.7172,-13.333,-3.9024,-0.98039,-3.9216,-0.26016,-8.6957,1.8862,-7.8317,-0.98039,-3.9216,-5.8824,-0.95238,-1.0159,5.8413,-6.7961,0.06441,2.6794,-7.4921,7.8818,-3.9936
2.7172,-11.41,-0.97561,1.9608,-0.98039,-0.26016,-3.8647,2.8618,-5.89,1.9608,-0.98039,-2.9412,3.8095,3.746,7.746,-4.8544,1.9968,2.6794,-7.4921,8.867,-4.9597
-3.9179,-4.6795,-1.9512,0.98039,-0.98039,-2.2114,-1.9324,1.8862,-4.9191,0.98039,-0.98039,-2.9412,9.5238,6.6032,5.8413,0.97087,5.8615,-0.19139,-6.5397,6.8966,-1.095
-11.501,2.0513,-3.9024,-0.98039,-0.98039,-7.0894,-1.9324,-1.0407,-3.9482,-0.98039,-0.98039,-5.8824,3.8095,2.7937,-0.8254,4.8544,6.8277,-4.0191,-3.6825,2.9557,1.8035
-10.553,7.8205,-3.9024,-1.9608,-0.98039,-7.0894,-1.9324,-2.0163,-2.9773,-1.9608,-0.98039,-6.8627,-0.95238,1.8413,-1.7778,8.7379,7.7939,-7.8469,-0.8254,-1.9704,3.7359
-2.97,14.551,0.97561,3.9216,6.8627,-2.2114,3.8647,2.8618,1.877,3.9216,6.8627,-2.9412,2.8571,5.6508,2.9841,13.592,12.625,-4.0191,1.0794,-1.9704,6.6345
-2.0221,12.628,0.0,3.9216,6.8627,-1.2358,5.7971,0.91057,4.7896,3.9216,6.8627,-0.98039,2.8571,4.6984,2.9841,12.621,11.659,-4.0191,2.9841,-2.9557,7.6006
0.82148,5.8974,0.0,0.98039,7.8431,-0.26016,8.6957,-2.9919,3.8188,0.98039,7.8431,1.9608,2.8571,3.746,3.9365,5.8252,8.7601,-2.1053,2.9841,0.0,5.6683
-1.0742,-1.7949,-1.9512,6.8627,8.8235,0.71545,5.7971,2.8618,1.877,6.8627,8.8235,1.9608,1.9048,-0.06349,2.0317,-0.97087,2.963,-1.1483,-0.8254,0.0,2.7697
-2.97,-4.6795,-2.9268,12.745,10.784,-1.2358,4.8309,4.813,-0.06472,12.745,10.784,0.98039,3.8095,0.88889,-0.8254,-1.9417,0.06441,-1.1483,-3.6825,0.0,3.7359
-3.9179,-1.7949,-4.878,12.745,8.8235,-3.187,2.8986,3.8374,-1.0356,12.745,8.8235,-0.98039,3.8095,3.746,-1.7778,0.97087,0.06441,-2.1053,-1.7778,1.9704,5.6683
-5.8136,0.12821,-8.7805,11.765,8.8235,-5.1382,0.96618,2.8618,-2.0065,11.765,8.8235,-2.9412,0.0,0.88889,-2.7302,1.9417,-1.868,-2.1053,-1.7778,0.98522,5.6683
-4.8657,1.0897,-8.7805,9.8039,5.8824,-4.1626,0.0,1.8862,-2.9773,9.8039,5.8824,-2.9412,2.8571,-1.0159,-0.8254,1.9417,-1.868,-1.1483,-1.7778,4.9261,2.7697
-2.0221,2.0513,-3.9024,9.8039,5.8824,-1.2358,1.9324,1.8862,-2.9773,9.8039,5.8824,0.98039,4.7619,-1.0159,1.0794,1.9417,0.06441,-1.1483,-1.7778,3.9409,-0.12882
-0.12638,2.0513,0.0,9.8039,3.9216,0.71545,0.96618,1.8862,-5.89,9.8039,3.9216,2.9412,0.95238,-1.0159,1.0794,2.9126,1.9968,-0.19139,-2.7302,1.9704,-2.0612
2.7172,0.12821,0.97561,9.8039,0.0,1.6911,-0.96618,2.8618,-8.8026,9.8039,0.0,2.9412,-1.9048,-2.9206,1.0794,1.9417,1.9968,1.7225,-3.6825,1.9704,-3.9936
6.5087,1.0897,5.8537,8.8235,0.0,4.6179,0.96618,2.8618,-7.8317,8.8235,0.0,5.8824,-0.95238,-2.9206,2.9841,1.9417,2.963,1.7225,-0.8254,1.9704,-4.9597
6.5087,1.0897,7.8049,8.8235,-1.9608,5.5935,0.0,3.8374,-8.8026,8.8235,-1.9608,7.8431,0.95238,-1.9683,2.9841,1.9417,4.8953,0.76555,1.0794,-1.9704,-5.9259
9.3523,3.9744,9.7561,8.8235,-1.9608,7.5447,-0.96618,5.7886,-9.7735,8.8235,-1.9608,8.8235,1.9048,-0.06349,5.8413,3.8835,6.8277,1.7225,1.0794,-1.9704,-3.9936
12.196,5.8974,11.707,9.8039,-4.902,8.5203,-2.8986,8.7154,-10.744,9.8039,-4.902,7.8431,1.9048,-2.9206,8.6984,4.8544,7.7939,6.5072,0.12698,2.9557,-2.0612
11.248,6.859,8.7805,9.8039,-3.9216,8.5203,-0.96618,10.667,-9.7735,9.8039,-3.9216,6.8627,2.8571,-1.0159,9.6508,5.8252,8.7601,9.378,2.0317,3.9409,-1.095
6.5087,6.859,4.878,8.8235,-4.902,7.5447,-0.96618,10.667,-6.8608,8.8235,-4.902,4.902,0.95238,-0.06349,5.8413,5.8252,7.7939,7.4641,2.0317,0.98522,0.83736
3.6651,3.9744,3.9024,6.8627,-6.8627,5.5935,-0.96618,8.7154,-7.8317,6.8627,-6.8627,3.9216,-1.9048,-1.9683,2.0317,2.9126,2.963,5.5502,2.9841,-0.98522,1.8035
1.7694,2.0513,4.878,1.9608,-10.784,2.6667,-3.8647,4.813,-8.8026,1.9608,-10.784,0.98039,-1.9048,-3.873,1.0794,0.97087,1.0306,2.6794,2.9841,-0.98522,0.83736
0.82148,1.0897,2.9268,-0.98039,-11.765,-1.2358,-5.7971,-0.06504,-9.7735,-0.98039,-11.765,-1.9608,-4.7619,-4.8254,0.12698,0.0,0.06441,1.7225,3.9365,0.0,0.83736
0.82148,0.12821,0.97561,-3.9216,-12.745,-1.2358,-7.7295,-0.06504,-8.8026,-3.9216,-12.745,-1.9608,-0.95238,-3.873,1.0794,0.97087,0.06441,1.7225,3.9365,0.0,1.8035
1.7694,-1.7949,0.0,-2.9412,-10.784,0.71545,-6.7633,1.8862,-7.8317,-2.9412,-10.784,0.0,0.95238,-2.9206,1.0794,0.0,0.06441,3.6364,2.0317,1.9704,0.83736
0.82148,-4.6795,-2.9268,-1.9608,-10.784,2.6667,-8.6957,3.8374,-6.8608,-1.9608,-10.784,0.0,0.95238,-2.9206,0.12698,-1.9417,-0.90177,5.5502,1.0794,2.9557,-3.0274
2.7172,-4.6795,-0.97561,1.9608,-7.8431,4.6179,-5.7971,7.7398,-4.9191,1.9608,-7.8431,1.9608,3.8095,-0.06349,2.0317,-1.9417,0.06441,7.4641,1.0794,6.8966,-3.0274
3.6651,-4.6795,1.9512,0.98039,-6.8627,4.6179,-3.8647,5.7886,-2.9773,0.98039,-6.8627,1.9608,4.7619,1.8413,2.0317,-2.9126,-0.90177,7.4641,2.0317,7.8818,-5.9259
1.7694,-4.6795,0.97561,0.0,-2.9412,3.6423,-1.9324,4.813,-1.0356,0.0,-2.9412,1.9608,2.8571,1.8413,-0.8254,-2.9126,-1.868,7.4641,2.0317,6.8966,-5.9259
-2.97,-4.6795,-6.8293,-0.98039,-0.98039,0.71545,-1.9324,4.813,-0.06472,-0.98039,-0.98039,-0.98039,-1.9048,-0.06349,-5.5873,-2.9126,-5.7327,6.5072,0.12698,1.9704,-4.9597
-2.0221,-3.7179,-9.7561,0.98039,-0.98039,1.6911,-0.96618,6.7642,1.877,0.98039,-0.98039,-0.98039,0.95238,-1.9683,-5.5873,-2.9126,-6.6989,7.4641,0.12698,1.9704,-4.9597
-2.0221,-3.7179,-8.7805,0.98039,0.98039,1.6911,0.0,7.7398,2.8479,0.98039,0.98039,0.98039,-0.95238,-0.06349,-6.5397,-2.9126,-7.6651,6.5072,0.12698,-1.9704,-2.0612
-3.9179,-2.7564,-4.878,1.9608,2.9412,1.6911,0.0,7.7398,3.8188,1.9608,2.9412,0.98039,-3.8095,-0.06349,-8.4444,-2.9126,-8.6312,3.6364,-0.8254,-4.9261,0.83736
-5.8136,-0.83333,-3.9024,1.9608,4.902,-0.26016,0.96618,5.7886,3.8188,1.9608,4.902,-0.98039,-1.9048,-1.0159,-9.3968,-1.9417,-7.6651,0.76555,-1.7778,-5.9113,1.8035
-9.6051,0.12821,-6.8293,-1.9608,2.9412,-5.1382,0.0,0.91057,2.8479,-1.9608,2.9412,-3.9216,0.95238,6.6032,-10.349,0.0,-5.7327,-4.0191,-1.7778,-7.8818,3.7359
-13.397,1.0897,-12.683,-2.9412,1.9608,-9.0407,0.0,-2.9919,2.8479,-2.9412,1.9608,-5.8824,0.0,3.746,-14.159,0.0,-6.6989,-8.8038,0.12698,-10.837,3.7359
-13.397,1.0897,-11.707,-4.902,0.98039,-9.0407,0.0,-4.9431,3.8188,-4.902,0.98039,-6.8627,-0.95238,2.7937,-13.206,0.97087,-4.7665,-10.718,0.12698,-11.823,2.7697
-7.7093,2.0513,-2.9268,-0.98039,3.9216,-4.1626,3.8647,-2.9919,4.7896,-0.98039,3.9216,-0.98039,0.95238,4.6984,-9.3968,1.9417,-1.868,-7.8469,0.12698,-8.867,4.7021
-6.7615,2.0513,1.9512,0.0,2.9412,-2.2114,4.8309,-2.0163,4.7896,0.0,2.9412,0.98039,0.0,5.6508,-8.4444,0.97087,-1.868,-8.8038,1.0794,-7.8818,5.6683
-3.9179,2.0513,3.9024,0.98039,2.9412,-1.2358,4.8309,-2.0163,1.877,0.98039,2.9412,0.0,0.0,3.746,-5.5873,0.97087,0.06441,-5.933,1.0794,-5.9113,4.7021
-3.9179,1.0897,2.9268,1.9608,1.9608,-0.26016,3.8647,-1.0407,1.877,1.9608,1.9608,-0.98039,0.95238,-0.06349,-1.7778,-1.9417,-0.90177,-4.0191,2.0317,-4.9261,0.83736
-2.0221,1.0897,0.97561,2.9412,3.9216,1.6911,5.7971,1.8862,2.8479,2.9412,3.9216,0.0,0.0,-0.06349,1.0794,-2.9126,-0.90177,-0.19139,2.0317,-0.98522,-0.12882
2.7172,3.9744,1.9512,2.9412,4.902,3.6423,7.7295,2.8618,4.7896,2.9412,4.902,0.98039,-2.8571,-2.9206,4.8889,0.0,2.963,3.6364,2.0317,3.9409,-0.12882
6.5087,9.7436,5.8537,3.9216,6.8627,5.5935,9.6618,2.8618,7.7023,3.9216,6.8627,3.9216,-1.9048,-1.9683,8.6984,6.7961,8.7601,5.5502,4.8889,5.9113,1.8035
10.3,13.59,9.7561,3.9216,8.8235,6.5691,11.594,1.8862,8.6731,3.9216,8.8235,5.8824,0.95238,2.7937,12.508,11.65,14.557,6.5072,7.746,7.8818,4.7021
12.196,12.628,11.707,2.9412,5.8824,5.5935,10.628,0.91057,6.7314,2.9412,5.8824,5.8824,0.0,0.88889,14.413,10.68,15.523,4.5933,5.8413,6.8966,1.8035
9.3523,6.859,7.8049,-3.9216,-1.9608,-0.26016,3.8647,-4.9431,-0.06472,-3.9216,-1.9608,0.0,-1.9048,-1.9683,12.508,3.8835,11.659,1.7225,2.0317,-6.8966,-3.0274
7.4566,3.0128,7.8049,-8.8235,-7.8431,-3.187,-1.9324,-7.8699,-4.9191,-8.8235,-7.8431,-4.902,-1.9048,-2.9206,9.6508,0.0,6.8277,-2.1053,0.12698,-8.867,-5.9259
11.248,3.9744,10.732,-4.902,-2.9412,-0.26016,0.0,-3.9675,-2.9773,-4.902,-2.9412,-2.9412,3.8095,2.7937,11.556,1.9417,8.7601,-1.1483,0.12698,0.98522,-0.12882
11.248,3.9744,9.7561,0.98039,-0.98039,4.6179,0.96618,1.8862,-1.0356,0.98039,-0.98039,0.98039,6.6667,8.5079,13.46,5.8252,10.692,2.6794,1.0794,5.9113,5.6683
8.4044,0.12821,6.8293,2.9412,0.0,5.5935,0.0,1.8862,-2.0065,2.9412,0.0,2.9412,6.6667,6.6032,8.6984,2.9126,5.8615,1.7225,0.12698,8.867,5.6683
2.7172,-5.641,0.97561,-1.9608,-3.9216,1.6911,-2.8986,-1.0407,-4.9191,-1.9608,-3.9216,0.0,1.9048,1.8413,2.0317,-2.9126,-0.90177,-1.1483,-3.6825,1.9704,0.83736
1.7694,-5.641,0.0,-1.9608,-0.98039,0.71545,0.96618,-1.0407,-2.9773,-1.9608,-0.98039,1.9608,-1.9048,-1.9683,-0.8254,-5.8252,-4.7665,-0.19139,-3.6825,2.9557,-2.0612
-2.0221,-4.6795,-1.9512,-3.9216,-1.9608,-0.26016,0.96618,-2.0163,-2.0065,-3.9216,-1.9608,0.0,-2.8571,-4.8254,-2.7302,-5.8252,-6.6989,-0.19139,-3.6825,4.9261,-4.9597
-4.8657,-2.7564,-4.878,-3.9216,-1.9608,-2.2114,-0.96618,-2.0163,-2.0065,-3.9216,-1.9608,-0.98039,-3.8095,-2.9206,-6.5397,-4.8544,-7.6651,-1.1483,-2.7302,2.9557,-2.0612
-7.7093,-4.6795,-7.8049,-6.8627,-4.902,-5.1382,-5.7971,-3.9675,-4.9191,-6.8627,-4.902,-4.902,-4.7619,-2.9206,-7.4921,-4.8544,-9.5974,-2.1053,-2.7302,0.98522,-0.12882
-5.8136,-5.641,-8.7805,-7.8431,-5.8824,-5.1382,-6.7633,-2.9919,-3.9482,-7.8431,-5.8824,-5.8824,-2.8571,-1.9683,-5.5873,-3.8835,-8.6312,-0.19139,-1.7778,2.9557,-2.0612
-0.12638,-5.641,-3.9024,-6.8627,-6.8627,-0.26016,-3.8647,0.91057,-2.0065,-6.8627,-6.8627,-1.9608,-1.9048,-2.9206,-1.7778,-4.8544,-6.6989,3.6364,-1.7778,4.9261,-5.9259
3.6651,-7.5641,0.97561,-6.8627,-5.8824,2.6667,-2.8986,2.8618,-2.0065,-6.8627,-5.8824,1.9608,0.95238,-4.8254,1.0794,-7.767,-4.7665,6.5072,-2.7302,6.8966,-9.7907
1.7694,-10.449,-0.97561,-7.8431,-8.8235,0.71545,-5.7971,0.91057,-3.9482,-7.8431,-8.8235,0.0,-2.8571,-5.7778,0.12698,-9.7087,-6.6989,6.5072,-4.6349,4.9261,-10.757
-4.8657,-11.41,-7.8049,-9.8039,-9.8039,-3.187,-9.6618,-2.0163,-3.9482,-9.8039,-9.8039,-4.902,-6.6667,-5.7778,-3.6825,-9.7087,-7.6651,2.6794,-2.7302,-0.98522,-10.757
-5.8136,-9.4872,-7.8049,-9.8039,-9.8039,-4.1626,-8.6957,-1.0407,-2.9773,-9.8039,-9.8039,-5.8824,-5.7143,-5.7778,-3.6825,-7.767,-5.7327,1.7225,-2.7302,-0.98522,-7.8583
-2.97,-6.6026,-1.9512,-9.8039,-8.8235,-2.2114,-5.7971,-0.06504,-1.0356,-9.8039,-8.8235,-2.9412,-7.619,-5.7778,-2.7302,-5.8252,-3.8003,1.7225,-2.7302,-0.98522,-4.9597
-2.97,-3.7179,0.97561,-8.8235,-4.902,-2.2114,-2.8986,-2.0163,0.90615,-8.8235,-4.902,-1.9608,-7.619,-5.7778,-2.7302,-5.8252,-3.8003,0.76555,-1.7778,-6.8966,-3.9936
-2.97,-0.83333,0.0,-13.725,-4.902,-5.1382,-0.96618,-7.8699,2.8479,-13.725,-4.902,-2.9412,-6.6667,-3.873,-1.7778,-3.8835,-3.8003,-2.1053,1.0794,-6.8966,-1.095
-6.7615,-3.7179,-5.8537,-11.765,-3.9216,-8.065,-2.8986,-5.9187,1.877,-11.765,-3.9216,-4.902,-11.429,-9.5873,-7.4921,-7.767,-9.5974,-4.0191,0.12698,-6.8966,-3.0274
-8.6572,-3.7179,-8.7805,-5.8824,-5.8824,-6.1138,-2.8986,-0.06504,1.877,-5.8824,-5.8824,-4.902,-11.429,-8.6349,-10.349,-6.7961,-10.564,-4.0191,0.12698,-8.867,-2.0612
-6.7615,-2.7564,-4.878,-0.98039,-3.9216,-2.2114,-1.9324,3.8374,-1.0356,-0.98039,-3.9216,-1.9608,-8.5714,-6.7302,-9.3968,-4.8544,-7.6651,-3.0622,0.12698,-8.867,-0.12882
-6.7615,-5.641,-5.8537,0.98039,-6.8627,-1.2358,-5.7971,6.7642,-4.9191,0.98039,-6.8627,-2.9412,-7.619,-5.7778,-11.302,-4.8544,-9.5974,-3.0622,-2.7302,-7.8818,-0.12882
-9.6051,-9.4872,-9.7561,2.9412,-6.8627,-2.2114,-7.7295,5.7886,-6.8608,2.9412,-6.8627,-5.8824,-4.7619,-3.873,-13.206,-7.767,-12.496,-3.0622,-5.5873,-7.8818,-1.095
-12.449,-13.333,-13.659,1.9608,-6.8627,-4.1626,-9.6618,3.8374,-6.8608,1.9608,-6.8627,-6.8627,-8.5714,-7.6825,-17.016001,-12.621,-17.327,-4.9761,-6.5397,-7.8818,-4.9597
-10.553,-15.256,-14.634,3.9216,-0.98039,-2.2114,-6.7633,3.8374,-3.9482,3.9216,-0.98039,-4.902,-5.7143,-7.6825,-16.063,-14.563,-18.292999,-3.0622,-7.4921,-2.9557,-6.8921
-9.6051,-12.372,-14.634,4.902,0.98039,-1.2358,-3.8647,4.813,-2.0065,4.902,0.98039,-1.9608,-5.7143,-6.7302,-15.111,-14.563,-17.327,-1.1483,-7.4921,-0.98522,-8.8245
-11.501,-12.372,-14.634,1.9608,1.9608,-3.187,-2.8986,1.8862,-1.0356,1.9608,1.9608,-3.9216,-9.5238,-8.6349,-17.968,-15.534,-19.259001,-1.1483,-6.5397,-2.9557,-10.757
-11.501,-11.41,-14.634,-1.9608,-0.98039,-6.1138,-4.8309,-1.0407,-2.0065,-1.9608,-0.98039,-6.8627,-5.7143,-4.8254,-15.111,-12.621,-16.361,-2.1053,-5.5873,-1.9704,-8.8245
-9.6051,-8.5256,-12.683,-1.9608,0.0,-6.1138,-2.8986,-2.9919,-0.06472,-1.9608,0.0,-5.8824,-1.9048,-1.0159,-10.349,-7.767,-10.564,-4.0191,-2.7302,-0.98522,-3.9936
-8.6572,-6.6026,-9.7561,-2.9412,0.0,-6.1138,-0.96618,-3.9675,0.90615,-2.9412,0.0,-3.9216,-3.8095,-1.0159,-8.4444,-5.8252,-7.6651,-4.0191,-1.7778,-0.98522,-2.0612
-7.7093,-6.6026,-5.8537,-2.9412,-0.98039,-3.187,-1.9324,-3.9675,-1.0356,-2.9412,-0.98039,-2.9412,-3.8095,-0.06349,-7.4921,-4.8544,-5.7327,-4.0191,-2.7302,-2.9557,-1.095
-3.9179,-6.6026,-5.8537,-3.9216,-0.98039,-2.2114,-1.9324,-3.9675,-2.9773,-3.9216,-0.98039,-1.9608,-1.9048,-1.0159,-2.7302,-3.8835,-3.8003,-2.1053,-3.6825,-0.98522,-1.095
1.7694,-2.7564,-2.9268,-3.9216,-1.9608,-0.26016,-1.9324,-2.9919,-2.9773,-3.9216,-1.9608,-1.9608,1.9048,-0.06349,2.9841,0.0,1.9968,-0.19139,-4.6349,2.9557,-0.12882
3.6651,-0.83333,0.97561,-6.8627,-3.9216,-1.2358,-0.96618,-2.9919,-4.9191,-6.8627,-3.9216,-0.98039,6.6667,5.6508,4.8889,3.8835,5.8615,-0.19139,-4.6349,4.9261,1.8035
1.7694,1.0897,0.97561,-9.8039,-7.8431,-3.187,-2.8986,-5.9187,-6.8608,-9.8039,-7.8431,-2.9412,9.5238,11.365,6.7937,6.7961,8.7601,-3.0622,-5.5873,5.9113,4.7021
0.82148,3.0128,1.9512,-9.8039,-5.8824,-4.1626,-1.9324,-7.8699,-5.89,-9.8039,-5.8824,-2.9412,5.7143,11.365,6.7937,9.7087,12.625,-5.933,-4.6349,3.9409,6.6345
-0.12638,6.859,4.878,-9.8039,-4.902,-4.1626,0.0,-7.8699,-2.9773,-9.8039,-4.902,-2.9412,7.619,13.27,5.8413,13.592,15.523,-8.8038,0.12698,2.9557,8.5668
4.613,12.628,10.732,-3.9216,0.0,1.6911,4.8309,-2.9919,0.90615,-3.9216,0.0,2.9412,14.286,16.127001,9.6508,17.476,19.388,-4.9761,3.9365,5.9113,12.432
6.5087,12.628,12.683,-2.9412,-0.98039,3.6423,4.8309,-1.0407,0.90615,-2.9412,-0.98039,4.902,9.5238,9.4603,8.6984,13.592,14.557,-2.1053,4.8889,3.9409,7.6006
7.4566,10.705,12.683,-1.9608,2.9412,2.6667,5.7971,-1.0407,0.90615,-1.9608,2.9412,4.902,6.6667,7.5556,8.6984,11.65,13.591,-2.1053,4.8889,2.9557,4.7021
9.3523,8.7821,14.634,-3.9216,0.98039,1.6911,4.8309,-2.9919,0.90615,-3.9216,0.98039,5.8824,11.429,12.317,11.556,12.621,15.523,-1.1483,3.9365,4.9261,5.6683
11.248,9.7436,16.584999,-0.98039,2.9412,2.6667,7.7295,-1.0407,1.877,-0.98039,2.9412,7.8431,13.333,14.222,12.508,13.592,14.557,2.6794,3.9365,8.867,8.5668
11.248,10.705,16.584999,0.0,3.9216,2.6667,8.6957,0.91057,3.8188,0.0,3.9216,8.8235,7.619,10.413,11.556,11.65,9.7262,4.5933,3.9365,8.867,9.533
9.3523,10.705,9.7561,0.0,4.902,0.71545,7.7295,-0.06504,2.8479,0.0,4.902,6.8627,5.7143,7.5556,9.6508,10.68,7.7939,5.5502,3.9365,5.9113,7.6006
8.4044,10.705,3.9024,0.0,5.8824,0.71545,6.7633,0.91057,1.877,0.0,5.8824,3.9216,9.5238,9.4603,10.603,11.65,8.7601,5.5502,2.9841,7.8818,8.5668
7.4566,7.8205,0.97561,0.0,3.9216,-1.2358,3.8647,-1.0407,-0.06472,0.0,3.9216,1.9608,10.476,10.413,11.556,10.68,8.7601,4.5933,0.12698,7.8818,6.6345
7.4566,6.859,3.9024,2.9412,3.9216,0.71545,3.8647,0.91057,-2.0065,2.9412,3.9216,4.902,8.5714,9.4603,9.6508,8.7379,7.7939,2.6794,-2.7302,5.9113,4.7021
8.4044,6.859,9.7561,6.8627,7.8431,5.5935,5.7971,3.8374,-2.0065,6.8627,7.8431,8.8235,8.5714,11.365,10.603,7.767,10.692,2.6794,-4.6349,5.9113,4.7021
8.4044,6.859,13.659,4.902,6.8627,6.5691,4.8309,1.8862,-2.0065,4.902,6.8627,8.8235,12.381,16.127001,11.556,8.7379,14.557,2.6794,-5.5873,5.9113,4.7021
5.5608,3.9744,10.732,5.8824,5.8824,4.6179,2.8986,2.8618,-0.06472,5.8824,5.8824,6.8627,11.429,13.27,7.746,6.7961,13.591,-0.19139,-3.6825,4.9261,2.7697
-0.12638,0.12821,2.9268,12.745,12.745,2.6667,3.8647,5.7886,4.7896,12.745,12.745,5.8824,5.7143,5.6508,2.0317,2.9126,8.7601,-2.1053,0.12698,0.0,0.83736
-2.0221,0.12821,-2.9268,17.646999,16.667,2.6667,5.7971,7.7398,10.615,17.646999,16.667,4.902,3.8095,1.8413,0.12698,1.9417,5.8615,-2.1053,4.8889,-1.9704,0.83736
-4.8657,0.12821,-6.8293,19.608,18.627001,2.6667,6.7633,7.7398,11.586,19.608,18.627001,4.902,0.0,-0.06349,-3.6825,0.0,1.9968,-1.1483,8.6984,-3.9409,0.83736
-5.8136,2.0513,-8.7805,19.608,17.646999,2.6667,3.8647,7.7398,12.557,19.608,17.646999,1.9608,0.95238,1.8413,-5.5873,1.9417,0.06441,-2.1053,9.6508,-5.9113,2.7697
-2.97,3.9744,-5.8537,17.646999,14.706,2.6667,1.9324,5.7886,10.615,17.646999,14.706,1.9608,-0.95238,2.7937,-2.7302,3.8835,1.9968,-0.19139,8.6984,-4.9261,4.7021
-0.12638,3.0128,-1.9512,13.725,8.8235,2.6667,0.0,4.813,6.7314,13.725,8.8235,1.9608,-1.9048,-2.9206,-1.7778,2.9126,1.9968,0.76555,7.746,-1.9704,3.7359
3.6651,3.0128,1.9512,11.765,8.8235,3.6423,2.8986,6.7642,4.7896,11.765,8.8235,2.9412,1.9048,-3.873,2.0317,1.9417,2.963,5.5502,7.746,2.9557,3.7359
4.613,3.9744,2.9268,10.784,6.8627,4.6179,4.8309,5.7886,5.7605,10.784,6.8627,3.9216,4.7619,0.88889,5.8413,2.9126,3.9291,8.4211,7.746,6.8966,5.6683
3.6651,4.9359,0.97561,9.8039,5.8824,3.6423,5.7971,3.8374,5.7605,9.8039,5.8824,3.9216,4.7619,4.6984,4.8889,4.8544,3.9291,6.5072,7.746,3.9409,6.6345
2.7172,4.9359,0.0,7.8431,3.9216,2.6667,3.8647,0.91057,2.8479,7.8431,3.9216,1.9608,1.9048,2.7937,1.0794,3.8835,1.9968,3.6364,5.8413,1.9704,3.7359
4.613,8.7821,4.878,5.8824,4.902,2.6667,4.8309,-1.0407,2.8479,5.8824,4.902,3.9216,0.0,0.88889,1.0794,5.8252,2.963,2.6794,4.8889,1.9704,3.7359
3.6651,7.8205,7.8049,3.9216,2.9412,1.6911,4.8309,-4.9431,1.877,3.9216,2.9412,2.9412,-5.7143,-7.6825,2.0317,2.9126,2.963,0.76555,3.9365,0.0,0.83736
4.613,4.9359,8.7805,3.9216,1.9608,2.6667,4.8309,-3.9675,3.8188,3.9216,1.9608,3.9216,-5.7143,-8.6349,4.8889,0.97087,1.9968,0.76555,4.8889,1.9704,-1.095
5.5608,3.9744,6.8293,4.902,3.9216,3.6423,5.7971,-2.9919,5.7605,4.902,3.9216,4.902,0.0,-1.9683,5.8413,1.9417,1.9968,0.76555,6.7937,4.9261,2.7697
0.82148,2.0513,-1.9512,1.9608,0.98039,0.71545,0.0,-3.9675,3.8188,1.9608,0.98039,0.0,1.9048,-1.9683,2.0317,0.0,-0.90177,-1.1483,5.8413,3.9409,2.7697
-3.9179,-0.83333,-8.7805,1.9608,-0.98039,-2.2114,-3.8647,-3.9675,1.877,1.9608,-0.98039,-4.902,-3.8095,-6.7302,-4.6349,-2.9126,-6.6989,-3.0622,4.8889,-0.98522,1.8035
-7.7093,-5.641,-11.707,0.0,-3.9216,-5.1382,-8.6957,-2.0163,-0.06472,0.0,-3.9216,-8.8235,-6.6667,-8.6349,-9.3968,-7.767,-12.496,-4.9761,2.9841,-3.9409,-2.0612
-8.6572,-9.4872,-9.7561,0.0,-2.9412,-6.1138,-9.6618,-0.06504,-0.06472,0.0,-2.9412,-8.8235,-7.619,-9.5873,-12.254,-13.592,-16.361,-3.0622,1.0794,-8.867,-3.0274
-10.553,-13.333,-11.707,-1.9608,-5.8824,-7.0894,-11.594,1.8862,-0.06472,-1.9608,-5.8824,-10.784,-7.619,-6.7302,-15.111,-15.534,-20.225,-1.1483,-0.8254,-10.837,-4.9597
-8.6572,-10.449,-8.7805,0.0,-2.9412,-4.1626,-8.6957,2.8618,0.90615,0.0,-2.9412,-6.8627,2.8571,6.6032,-12.254,-10.68,-15.395,0.76555,-0.8254,-4.9261,-2.0612
-7.7093,-9.4872,-9.7561,0.98039,-0.98039,-1.2358,-7.7295,4.813,0.90615,0.98039,-0.98039,-4.902,2.8571,-1.9683,-9.3968,-9.7087,-13.462,1.7225,-1.7778,-3.9409,-3.9936
-9.6051,-10.449,-14.634,0.0,-0.98039,-3.187,-8.6957,1.8862,-0.06472,0.0,-0.98039,-7.8431,-11.429,-14.349,-12.254,-10.68,-15.395,-0.19139,-2.7302,-9.8522,-6.8921
-9.6051,-8.5256,-12.683,-1.9608,-3.9216,-5.1382,-9.6618,-0.06504,-0.06472,-1.9608,-3.9216,-9.8039,-13.333,-9.5873,-10.349,-5.8252,-10.564,-2.1053,-1.7778,-12.808,-3.9936
-7.7093,-9.4872,-10.732,-3.9216,-3.9216,-6.1138,-8.6957,-0.06504,-1.0356,-3.9216,-3.9216,-9.8039,-6.6667,-6.7302,-6.5397,-2.9126,-5.7327,-2.1053,-1.7778,-6.8966,-3.0274
-6.7615,-9.4872,-7.8049,-4.902,-1.9608,-7.0894,-6.7633,-1.0407,-0.06472,-4.902,-1.9608,-7.8431,-3.8095,-3.873,-0.8254,-1.9417,-2.8341,-0.19139,-3.6825,1.9704,-1.095
-4.8657,-8.5256,-4.878,-5.8824,0.98039,-7.0894,-3.8647,-2.9919,-1.0356,-5.8824,0.98039,-5.8824,-3.8095,-5.7778,1.0794,-2.9126,-0.90177,-1.1483,-4.6349,2.9557,-1.095
-0.12638,-2.7564,0.97561,-2.9412,0.98039,-3.187,-1.9324,-3.9675,-1.0356,-2.9412,0.98039,-0.98039,3.8095,-1.0159,5.8413,0.97087,1.9968,0.76555,-2.7302,4.9261,0.83736
3.6651,0.12821,2.9268,-2.9412,0.0,-2.2114,-1.9324,-4.9431,-1.0356,-2.9412,0.0,0.0,9.5238,0.88889,7.746,1.9417,3.9291,-0.19139,-0.8254,8.867,0.83736
0.82148,-3.7179,-2.9268,-6.8627,-3.9216,-5.1382,-5.7971,-9.8211,-2.0065,-6.8627,-3.9216,-4.902,3.8095,-0.06349,4.8889,0.97087,1.0306,-4.9761,0.12698,4.9261,-0.12882
-1.0742,-3.7179,-2.9268,-8.8235,-2.9412,-7.0894,-5.7971,-14.699,0.90615,-8.8235,-2.9412,-6.8627,1.9048,0.88889,3.9365,0.97087,1.9968,-11.675,1.0794,1.9704,0.83736
-2.0221,-0.83333,0.0,-6.8627,1.9608,-7.0894,0.96618,-16.65,5.7605,-6.8627,1.9608,-2.9412,4.7619,1.8413,3.9365,0.97087,4.8953,-14.545,2.9841,0.0,-0.12882
-2.0221,0.12821,0.97561,-4.902,1.9608,-5.1382,2.8986,-14.699,4.7896,-4.902,1.9608,-0.98039,3.8095,1.8413,3.9365,0.97087,5.8615,-14.545,2.0317,0.0,0.83736
-3.9179,-1.7949,-3.9024,-1.9608,3.9216,-3.187,0.96618,-9.8211,2.8479,-1.9608,3.9216,-1.9608,0.95238,0.88889,-0.8254,0.0,1.9968,-10.718,0.12698,-0.98522,0.83736
-5.8136,-5.641,-9.7561,-0.98039,0.0,-3.187,-4.8309,-4.9431,1.877,-0.98039,0.0,-4.902,-0.95238,-1.0159,-4.6349,-3.8835,-4.7665,-7.8469,-1.7778,-0.98522,-1.095
-4.8657,-8.5256,-11.707,0.98039,0.98039,-3.187,-4.8309,-0.06504,-0.06472,0.98039,0.98039,-5.8824,-4.7619,-5.7778,-7.4921,-6.7961,-9.5974,-4.0191,-3.6825,-1.9704,-2.0612
-5.8136,-8.5256,-9.7561,1.9608,0.0,-1.2358,-4.8309,3.8374,-0.06472,1.9608,0.0,-4.902,-6.6667,-9.5873,-11.302,-9.7087,-13.462,-1.1483,-4.6349,-3.9409,-3.9936
-3.9179,-6.6026,-6.8293,1.9608,-1.9608,-0.26016,-2.8986,5.7886,-3.9482,1.9608,-1.9608,-2.9412,-6.6667,-5.7778,-10.349,-7.767,-12.496,4.5933,-4.6349,-1.9704,-3.0274
-3.9179,-4.6795,-5.8537,-1.9608,-8.8235,-1.2358,-4.8309,6.7642,-9.7735,-1.9608,-8.8235,-4.902,-3.8095,-3.873,-7.4921,-4.8544,-8.6312,6.5072,-7.4921,-0.98522,-2.0612
-3.9179,-2.7564,-3.9024,-1.9608,-3.9216,-2.2114,-2.8986,5.7886,-2.9773,-1.9608,-3.9216,-3.9216,-2.8571,-4.8254,-7.4921,-2.9126,-6.6989,5.5502,-7.4921,-3.9409,-3.0274
-1.0742,-1.7949,-0.97561,-1.9608,-2.9412,-0.26016,-0.96618,4.813,2.8479,-1.9608,-2.9412,-1.9608,-0.95238,-4.8254,-4.6349,-2.9126,-4.7665,4.5933,-5.5873,-3.9409,-3.9936
