C3,C4,Cz,F1,F2,F3,F4,F7,F8,Fp1,Fp2,Fz,O1,O2,P3,P4,Pz,T3,T4,T5,T6
5.9406,-13.199,-0.13333,-2.9703,1.877,-0.06873,-4.0609,0.91503,2.0202,-2.9703,1.877,0.0,20.354,15.829,25.253,13.864,16.08,-0.06667,-2.9919,20.719,3.0569
12.871,-9.1582,-1.1333,-2.9703,5.7605,1.9931,-1.0152,0.91503,8.0808,-2.9703,5.7605,-0.98039,24.219,20.754999,27.273001,12.869,19.094999,10.933,-3.9675,16.797001,4.0325
24.752001,7.0034,7.8667,1.9802,7.7023,0.9622,5.0761,-7.9085,10.101,1.9802,7.7023,6.8627,34.847,29.622,33.333,21.823999,26.131001,23.933001,-3.9675,20.719,13.789
17.822001,12.054,7.8667,-1.9802,4.7896,-3.1615,4.0609,-8.8889,5.0505,-1.9802,4.7896,1.9608,24.219,24.695999,22.222,17.844,19.094999,17.933001,1.8862,13.856,15.74
-6.9307,-5.1178,-12.133,-6.9307,-1.0356,-14.502,-9.1371,-15.752,0.0,-6.9307,-1.0356,-9.8039,-11.53,-7.8161,-17.172001,-9.0216,-12.06,-4.0667,-2.9919,-15.556,-5.7236
-18.812,-15.219,-23.132999,-15.842,-5.89,-18.625,-13.198,-21.634001,0.0,-15.842,-5.89,-18.627001,-32.785999,-25.549999,-34.342999,-26.931999,-30.150999,-11.067,-6.8943,-29.281,-14.504
-9.901,-8.1481,-15.133,-11.881,-2.9773,-16.563999,-9.1371,-22.614,5.0505,-11.881,-2.9773,-9.8039,-29.886999,-21.608999,-32.323002,-24.941999,-29.146,0.93333,3.8374,-25.358999,-7.6748
-2.9703,-3.0976,-4.1333,-8.9109,-1.0356,-8.3162,-1.0152,-15.752,4.0404,-8.9109,-1.0356,-1.9608,-21.191999,-19.639,-22.222,-24.941999,-25.125999,-5.0667,2.8618,-11.634,-6.6992
-3.9604,-8.1481,-4.1333,-5.9406,0.90615,-8.3162,-3.0457,-7.9085,1.0101,-5.9406,0.90615,0.0,-20.225,-21.608999,-16.162001,-28.922001,-27.136,-12.067,-11.772,-0.84967,-9.626
-13.861,-13.199,-12.133,-13.861,-5.89,-16.563999,-8.1218,-14.771,-4.0404,-13.861,-5.89,-10.784,-10.564,-9.7865,-5.0505,-21.957001,-21.106001,1.9333,-13.724,13.856,-4.748
-15.842,-9.1582,-12.133,-16.832001,-8.8026,-22.749001,-11.168,-20.653999,-3.0303,-16.832001,-8.8026,-12.745,9.7262,4.9918,9.0909,-4.0464,-6.0302,8.9333,-3.9675,25.621,7.935
-11.881,-7.138,-7.1333,-15.842,-6.8608,-17.594999,-12.183,-16.732,-5.0505,-15.842,-6.8608,-11.765,23.253,12.874,16.162001,9.8839,6.0302,0.93333,-5.9187,29.542,13.789
-2.9703,-10.168,-7.1333,-10.891,-5.89,-11.409,-15.228,-6.9281,-7.0707,-10.891,-5.89,-10.784,27.118,15.829,19.191999,16.849001,10.05,3.9333,-8.8455,27.582001,15.74
8.9109,-2.0875,-5.1333,-8.9109,-6.8608,-7.2852,-12.183,-5.9477,-4.0404,-8.9109,-6.8608,-8.8235,33.881001,32.577999,24.242001,27.794001,16.08,25.933001,2.8618,28.562,26.472
14.851,9.0236,-3.1333,-9.901,-6.8608,-9.3471,-10.152,-4.9673,-3.0303,-9.901,-6.8608,-8.8235,44.508999,46.370998,28.283001,34.759998,22.111,23.933001,6.7642,31.503,36.228001
10.891,7.0034,-5.1333,-11.881,-7.8317,-13.471,-14.213,-8.8889,-5.0505,-11.881,-7.8317,-12.745,30.016001,37.504002,18.181999,26.799,17.084999,8.9333,0.91057,14.837,27.447001
6.9307,5.9933,-4.1333,-10.891,-4.9191,-9.3471,-12.183,-7.9085,-6.0606,-10.891,-4.9191,-10.784,5.8615,16.813999,7.0707,15.854,11.055,-1.0667,1.8862,-0.84967,12.813
0.9901,-1.0774,-5.1333,-9.901,-4.9191,-10.378,-12.183,-10.85,-4.0404,-9.901,-4.9191,-10.784,-26.023001,-20.624001,-12.121,-5.0415,-3.0151,1.9333,-1.0407,-24.379,-12.553
0.9901,-1.0774,-2.1333,-7.9208,-5.89,-3.1615,-6.0914,-8.8889,-1.0101,-7.9208,-5.89,-5.8824,-34.717999,-38.358002,-15.152,-18.972,-8.0402,16.933001,-1.0407,-25.358999,-28.163
6.9307,7.0034,8.8667,0.9901,-1.0356,10.241,8.1218,-1.0458,3.0303,0.9901,-1.0356,10.784,-20.225,-25.549999,-9.0909,-16.982,-6.0302,-0.06667,-2.0163,-12.614,-24.26
0.0,9.0236,10.867,-3.9604,-3.9482,13.333,14.213,-0.06536,0.0,-3.9604,-3.9482,12.745,-15.395,-11.757,-12.121,-14.992,-9.0452,-5.0667,-3.9675,-5.7516,-15.48
-5.9406,-1.0774,4.8667,-5.9406,-7.8317,-0.06873,3.0457,-11.83,-4.0404,-5.9406,-7.8317,6.8627,-16.361,-11.757,-16.162001,-14.992,-16.08,-3.0667,-8.8455,-3.7908,-7.6748
0.0,-7.138,-0.13333,-5.9406,-4.9191,-2.1306,-4.0609,-9.8693,-3.0303,-5.9406,-4.9191,-0.98039,-11.53,-8.8013,1.0101,-9.0216,-11.055,-4.0667,-8.8455,9.9346,2.0813
14.851,-3.0976,2.8667,0.9901,-0.06472,5.0859,-1.0152,-0.06536,1.0101,0.9901,-0.06472,3.9216,-2.8341,-2.89,19.191999,4.9088,2.0101,9.9333,0.91057,20.719,11.837
11.881,-6.1279,-5.1333,-4.9505,-1.0356,-3.1615,-2.0305,-4.9673,2.0202,-4.9505,-1.0356,-5.8824,1.9968,-0.91954,22.222,6.8988,4.0201,18.933001,-0.06504,19.739,9.8862
2.9703,-5.1178,-13.133,-8.9109,-6.8608,-17.594999,-12.183,-13.791,0.0,-8.9109,-6.8608,-14.706,6.8277,4.9918,18.181999,9.8839,5.0251,-3.0667,-2.0163,14.837,8.9106
-0.9901,-0.06734,-13.133,-6.9307,-5.89,-16.563999,-13.198,-12.81,1.0101,-6.9307,-5.89,-17.646999,18.422001,13.859,21.212,14.859,12.06,-10.067,1.8862,14.837,9.8862
8.9109,8.0135,-5.1333,2.9703,-2.9773,-3.1615,-9.1371,3.8562,2.0202,2.9703,-2.9773,-6.8627,29.049999,23.711,27.273001,20.829,19.094999,5.9333,8.7154,18.757999,11.837
3.9604,3.9731,-7.1333,0.0,-3.9482,-4.1924,-12.183,1.8954,1.0101,0.0,-3.9482,-9.8039,15.523,11.888,15.152,10.879,11.055,6.9333,3.8374,6.0131,-0.84553
0.0,3.9731,-4.1333,-0.9901,0.90615,-10.378,-9.1371,-10.85,9.0909,-0.9901,0.90615,-7.8431,0.06441,-2.89,3.0303,0.92869,4.0201,2.9333,-0.06504,-9.6732,-10.602
4.9505,10.034,4.8667,3.9604,6.7314,-4.1924,5.0761,-9.8693,16.162001,3.9604,6.7314,2.9412,-7.6651,-8.8013,-2.0202,-3.0514,3.0151,1.9333,6.7642,-17.516001,-11.577
4.9505,11.044,10.867,0.9901,4.7896,-1.0997,8.1218,-1.0458,16.162001,0.9901,4.7896,4.902,-12.496,-11.757,-3.0303,-9.0216,0.0,0.93333,10.667,-17.516001,-17.431
2.9703,2.963,8.8667,-0.9901,1.877,-3.1615,5.0761,-5.9477,15.152,-0.9901,1.877,4.902,-21.191999,-22.594,-10.101,-18.972,-9.0452,-10.067,10.667,-18.497,-26.211
13.861,5.9933,18.867001,3.9604,6.7314,9.2096,13.198,-3.0065,21.212,3.9604,6.7314,13.725,-13.462,-17.667999,0.0,-14.992,-4.0201,14.933,8.7154,-1.8301,-18.407
20.792,7.0034,24.867001,9.901,11.586,15.395,19.289,1.8954,20.202,9.901,11.586,21.569,-1.868,-6.8309,6.0606,-4.0464,1.005,17.933001,3.8374,12.876,-4.748
6.9307,-5.1178,10.867,2.9703,5.7605,7.1478,11.168,-0.06536,15.152,2.9703,5.7605,8.8235,-8.6312,-8.8013,1.0101,-7.0315,-7.0352,-10.067,1.8862,9.9346,-2.7967
8.9109,-1.0774,4.8667,1.9802,4.7896,1.9931,9.1371,0.91503,18.181999,1.9802,4.7896,5.8824,0.06441,0.06568,6.0606,1.9237,-3.0151,-3.0667,16.52,12.876,7.935
8.9109,13.064,4.8667,-3.9604,1.877,1.9931,13.198,-3.0065,23.232,-3.9604,1.877,1.9608,10.692,15.829,14.141,17.844,9.0452,8.9333,23.35,15.817,23.545
3.9604,14.074,0.86667,-4.9505,-2.0065,-4.1924,5.0761,-7.9085,16.162001,-4.9505,-2.0065,-1.9608,14.557,20.754999,12.121,24.809,13.065,15.933,24.325001,10.915,26.472
-3.9604,7.0034,-6.1333,-10.891,-8.8026,-7.2852,-7.1066,-4.9673,2.0202,-10.891,-8.8026,-11.765,15.523,18.785,12.121,21.823999,12.06,19.933001,11.642,11.895,19.642
-6.9307,1.9529,-10.133,-11.881,-9.7735,-13.471,-12.183,-3.9869,2.0202,-11.881,-9.7735,-13.725,10.692,10.903,8.0808,15.854,7.0352,2.9333,9.6911,7.9739,11.837
-0.9901,12.054,-1.1333,-8.9109,-5.89,-5.2234,-2.0305,-1.0458,11.111,-8.9109,-5.89,-6.8627,22.287001,16.813999,16.162001,20.829,14.07,-6.0667,16.52,16.797001,12.813
5.9406,19.125,9.8667,0.0,-0.06472,3.0241,6.0914,4.8366,12.121,0.0,-0.06472,3.9216,29.049999,17.799999,18.181999,21.823999,20.101,5.9333,16.52,14.837,7.935
-2.9703,7.0034,3.8667,1.9802,1.877,0.9622,5.0761,1.8954,6.0606,1.9802,1.877,1.9608,5.8615,-1.9048,-3.0303,0.92869,4.0201,19.933001,4.813,-9.6732,-10.602
0.9901,9.0236,9.8667,5.9406,4.7896,1.9931,12.183,4.8366,12.121,5.9406,4.7896,8.8235,-11.53,-11.757,-9.0909,-5.0415,0.0,8.9333,6.7642,-20.458,-9.626
13.861,18.114,23.867001,10.891,12.557,11.271,24.365,2.8758,22.222,10.891,12.557,20.587999,-18.292999,-13.727,-4.0404,-2.0564,4.0201,3.9333,13.593,-17.516001,1.1057
17.822001,12.054,26.867001,9.901,13.528,12.302,20.305,4.8366,20.202,9.901,13.528,21.569,-15.395,-9.7865,2.0202,-1.0614,7.0352,0.93333,14.569,-5.7516,2.0813
12.871,-1.0774,16.867001,8.9109,11.586,8.1787,15.228,6.7974,15.152,8.9109,11.586,14.706,-6.6989,-4.8604,7.0707,-4.0464,4.0201,1.9333,9.6911,5.0327,-0.84553
1.9802,-10.168,2.8667,4.9505,10.615,0.9622,16.243999,4.8366,21.212,4.9505,10.615,4.902,-2.8341,-0.91954,7.0707,-13.002,-5.0251,13.933,10.667,11.895,-4.748
3.9604,-0.06734,0.86667,6.9307,13.528,-2.1306,20.305,1.8954,28.283001,6.9307,13.528,4.902,4.8953,12.874,10.101,-5.0415,-3.0151,2.9333,15.545,19.739,8.9106
-3.9604,2.963,-6.1333,-3.9604,4.7896,-12.44,5.0761,-1.0458,16.162001,-3.9604,4.7896,-9.8039,16.49,23.711,11.111,6.8988,2.0101,4.9333,10.667,26.601,22.569
-17.822001,-5.1178,-20.132999,-7.9208,-7.8317,-22.749001,-16.243999,-1.0458,3.0303,-7.9208,-7.8317,-23.528999,17.455999,22.726,2.0202,11.874,0.0,2.9333,3.8374,17.778,25.496
-17.822001,0.94276,-18.132999,-0.9901,-2.9773,-11.409,-11.168,5.817,11.111,-0.9901,-2.9773,-18.627001,19.388,29.622,4.0404,21.823999,6.0302,0.93333,15.545,14.837,33.300999
-10.891,5.9933,-11.133,6.9307,7.7023,-6.2543,-1.0152,4.8366,19.191999,6.9307,7.7023,-7.8431,15.523,27.652,1.0101,24.809,8.0402,5.9333,21.398001,6.0131,30.374001
1.9802,17.104,2.8667,9.901,11.586,5.0859,10.152,14.641,19.191999,9.901,11.586,1.9608,21.32,30.608,9.0909,30.778999,17.084999,16.933001,22.374001,9.9346,27.447001
-3.9604,5.9933,-3.1333,11.881,10.615,-0.06873,3.0457,11.699,11.111,11.881,10.615,0.0,11.659,10.903,-4.0404,12.869,5.0251,7.9333,12.618,-3.7908,5.9837
-8.9109,-8.1481,-9.1333,10.891,10.615,1.9931,3.0457,11.699,11.111,10.891,10.615,-0.98039,-0.90177,-6.8309,-12.121,-7.0315,-8.0402,8.9333,2.8618,-12.614,-14.504
3.9604,-4.1077,2.8667,17.822001,17.410999,12.302,12.183,17.582001,16.162001,17.822001,17.410999,12.745,-1.868,-14.713,-8.0808,-10.017,-5.0251,8.9333,0.91057,-9.6732,-20.358
18.812,3.9731,18.867001,18.812,20.323999,21.580999,21.32,17.582001,17.172001,18.812,20.323999,21.569,3.9291,-15.698,1.0101,-8.0265,4.0201,4.9333,7.7398,0.13072,-14.504
12.871,-2.0875,14.867,14.851,16.440001,12.302,19.289,14.641,23.232,14.851,16.440001,18.627001,-14.428,-30.476,-9.0909,-19.966999,-7.0352,3.9333,11.642,-8.6928,-14.504
4.9505,-5.1178,6.8667,14.851,19.353001,8.1787,22.334999,9.7386,33.333,14.851,19.353001,14.706,-20.225,-29.490999,-9.0909,-23.947001,-12.06,0.93333,13.593,-4.7712,-9.626
4.9505,-1.0774,5.8667,11.881,18.382,5.0859,23.35,7.7778,29.292999,11.881,18.382,12.745,-9.5974,-16.683001,6.0606,-15.987,-5.0251,9.9333,9.6911,9.9346,1.1057
7.9208,5.9933,6.8667,5.9406,14.498,4.055,24.365,5.817,25.253,5.9406,14.498,10.784,-0.90177,-5.8456,14.141,-5.0415,3.0151,23.933001,7.7398,17.778,9.8862
7.9208,16.094,8.8667,0.9901,10.615,0.9622,24.365,3.8562,32.323002,0.9901,10.615,7.8431,8.7601,6.9622,18.181999,7.8939,9.0452,13.933,15.545,22.68,16.715
2.9703,15.084,5.8667,4.9505,9.644,-1.0997,16.243999,0.91503,30.302999,4.9505,9.644,4.902,14.557,14.844,12.121,12.869,9.0452,-1.0667,21.398001,16.797001,20.618
-1.9802,9.0236,1.8667,-3.9604,9.644,-0.06873,7.1066,-0.06536,21.212,-3.9604,9.644,-0.98039,20.354,24.695999,10.101,15.854,10.05,-3.0667,19.447001,14.837,22.569
0.0,5.9933,-1.1333,0.0,9.644,0.9622,3.0457,5.817,17.172001,0.0,9.644,-1.9608,23.253,31.593,10.101,17.844,10.05,15.933,16.52,11.895,22.569
4.9505,4.9832,-1.1333,4.9505,7.7023,5.0859,6.0914,8.7582,21.212,4.9505,7.7023,0.0,23.253,32.577999,13.131,15.854,10.05,13.933,13.593,13.856,18.667
0.9901,-6.1279,-5.1333,4.9505,3.8188,0.9622,1.0152,1.8954,12.121,4.9505,3.8188,0.0,10.692,17.799999,-2.0202,1.9237,-3.0151,-9.0667,2.8618,3.0719,4.0325
-2.9703,-15.219,-6.1333,-0.9901,-1.0356,-0.06873,-6.0914,0.91503,1.0101,-0.9901,-1.0356,-2.9412,-6.6989,4.0066,-13.131,-10.017,-11.055,-13.067,-6.8943,-8.6928,-10.602
3.9604,-14.209,2.8667,2.9703,-1.0356,7.1478,-4.0609,6.7974,1.0101,2.9703,-1.0356,6.8627,-8.6312,0.06568,-12.121,-9.0216,-4.0201,10.933,-9.8211,-18.497,-14.504
9.901,-9.1582,12.867,7.9208,4.7896,21.580999,11.168,15.621,10.101,7.9208,4.7896,15.686,-2.8341,1.0509,-4.0404,-4.0464,6.0302,26.933001,-4.9431,-15.556,-14.504
10.891,0.94276,14.867,12.871,10.615,22.612,22.334999,13.66,21.212,12.871,10.615,22.549,1.9968,3.0213,-4.0404,0.92869,6.0302,1.9333,3.8374,-10.654,-3.7724
2.9703,5.9933,7.8667,5.9406,10.615,16.426001,24.365,5.817,23.232,5.9406,10.615,17.646999,-0.90177,10.903,-9.0909,2.9187,-1.005,-10.067,14.569,-8.6928,9.8862
6.9307,14.074,3.8667,7.9208,12.557,12.302,22.334999,7.7778,22.222,7.9208,12.557,16.667,1.0306,16.813999,-3.0303,9.8839,-3.0151,3.9333,18.472,4.0523,25.496
12.871,23.165001,8.8667,12.871,14.498,17.457001,26.396,13.66,25.253,12.871,14.498,17.646999,15.523,24.695999,15.152,22.819,8.0402,22.933001,23.35,21.698999,40.130001
15.842,28.215,13.867,11.881,11.586,16.426001,22.334999,14.641,23.232,11.881,11.586,15.686,35.813,39.474998,29.292999,35.755001,22.111,22.933001,31.153999,34.444,45.007999
7.9208,18.114,6.8667,5.9406,8.6731,9.2096,14.213,4.8366,14.141,5.9406,8.6731,7.8431,41.610001,39.474998,25.253,31.774,19.094999,0.93333,21.398001,35.424999,35.251999
-1.9802,1.9529,-7.1333,6.9307,6.7314,1.9931,4.0609,2.8758,9.0909,6.9307,6.7314,0.0,31.948,27.652,15.152,15.854,7.0352,-12.067,-0.06504,28.562,23.545
0.0,-5.1178,-14.133,10.891,8.6731,0.9622,0.0,10.719,4.0404,10.891,8.6731,-2.9412,23.253,20.754999,10.101,8.8889,3.0151,12.933,-6.8943,20.719,18.667
-1.9802,-3.0976,-11.133,7.9208,8.6731,-0.06873,2.0305,8.7582,5.0505,7.9208,8.6731,-3.9216,22.287001,20.754999,11.111,8.8889,5.0251,26.933001,5.7886,17.778,17.691
-9.901,-11.178,-12.133,7.9208,8.6731,-5.2234,-3.0457,5.817,4.0404,7.9208,8.6731,-5.8824,5.8615,5.977,-3.0303,-1.0614,-3.0151,1.9333,1.8862,2.0915,4.0325
-2.9703,-14.209,-4.1333,10.891,8.6731,3.0241,-7.1066,18.562,-3.0303,10.891,8.6731,-2.9412,2.963,-0.91954,1.0101,-8.0265,-1.005,7.9333,-13.724,2.0915,-8.6504
16.832001,-9.1582,11.867,24.752001,16.440001,19.518999,4.0609,24.444,5.0505,24.752001,16.440001,15.686,6.8277,-2.89,11.111,-8.0265,7.0352,12.933,-10.797,6.9935,-11.577
22.771999,-1.0774,18.867001,25.743,23.236,26.735001,18.274,26.405001,21.212,25.743,23.236,21.569,7.7939,-0.91954,15.152,-9.0216,11.055,6.9333,10.667,6.9935,-12.553
12.871,-0.06734,7.8667,19.802,19.353001,13.333,15.228,19.542,22.222,19.802,19.353001,13.725,-1.868,-9.7865,-1.0101,-13.002,2.0101,3.9333,15.545,-7.7124,-16.455
12.871,12.054,8.8667,13.861,16.440001,13.333,16.243999,20.523001,18.181999,13.861,16.440001,9.8039,2.963,-1.9048,1.0101,-2.0564,7.0352,-0.06667,18.472,-0.84967,-4.748
21.782,26.195,16.867001,17.822001,18.382,18.488001,22.334999,19.542,20.202,17.822001,18.382,17.646999,7.7939,6.9622,9.0909,13.864,15.075,8.9333,15.545,9.9346,12.813
25.743,34.276001,21.867001,21.782,24.207001,25.704,30.457001,23.464001,26.263,21.782,24.207001,22.549,20.354,17.799999,23.232,27.794001,24.121,28.933001,15.545,30.523001,32.325001
11.881,18.114,6.8667,15.842,18.382,9.2096,16.243999,18.562,17.172001,15.842,18.382,10.784,17.455999,6.9622,21.212,19.834,14.07,27.933001,7.7398,32.484001,22.569
12.871,11.044,4.8667,12.871,12.557,7.1478,10.152,15.621,7.0707,12.871,12.557,5.8824,26.150999,13.859,28.283001,20.829,16.08,25.933001,7.7398,37.386002,17.691
16.832001,17.104,13.867,16.832001,15.469,12.302,15.228,16.601,13.131,16.832001,15.469,13.725,36.778999,32.577999,30.302999,29.784,24.121,6.9333,11.642,35.424999,28.423
15.842,23.165001,21.867001,22.771999,27.120001,20.549999,27.410999,16.601,23.232,22.771999,27.120001,25.49,38.712002,46.370998,22.222,35.755001,27.136,-2.0667,17.496,23.66,39.153999
12.871,20.135,25.867001,27.723,31.974001,24.674,26.396,17.582001,16.162001,27.723,31.974001,31.372999,30.982,41.445,16.162001,28.789,25.125999,9.9333,11.642,13.856,34.276001
5.9406,-0.06734,15.867,25.743,26.149,20.549999,11.168,16.601,5.0505,25.743,26.149,22.549,10.692,12.874,8.0808,5.9038,12.06,2.9333,-2.0163,3.0719,7.935
7.9208,-12.189,9.8667,19.802,18.382,18.488001,4.0609,19.542,3.0303,19.802,18.382,12.745,1.0306,-5.8456,10.101,-11.012,5.0251,-5.0667,-3.9675,4.0523,-13.528
18.812,-8.1481,10.867,23.761999,22.264999,22.612,14.213,22.483999,16.162001,23.761999,22.264999,18.627001,-3.8003,-14.713,7.0707,-18.972,-1.005,-2.0667,-2.9919,4.0523,-19.382
20.792,7.0034,13.867,26.733,30.032,27.766001,29.441999,25.424999,30.302999,26.733,30.032,25.49,-4.7665,-9.7865,3.0303,-15.987,-1.005,22.933001,8.7154,0.13072,-14.504
22.771999,22.155001,17.867001,33.662998,33.916,32.921001,36.548,27.386,29.292999,33.662998,33.916,35.293999,2.963,-0.91954,0.0,-4.0464,3.0151,26.933001,20.423,-3.7908,-4.748
12.871,26.195,15.867,28.712999,32.945,29.827999,30.457001,22.483999,28.283001,28.712999,32.945,28.431,-4.7665,-0.91954,-6.0606,5.9038,4.0201,9.9333,28.228001,-11.634,2.0813
14.851,33.265999,17.867001,28.712999,31.003,26.735001,24.365,25.424999,26.263,28.712999,31.003,26.471001,-5.7327,11.888,-3.0303,22.819,12.06,10.933,36.033001,-11.634,22.569
19.802,38.316002,20.867001,24.752001,26.149,29.827999,26.396,32.287998,25.253,24.752001,26.149,24.51,9.7262,28.636999,10.101,34.759998,20.101,20.933001,30.179001,5.0327,41.105999
16.832001,21.145,9.8667,18.812,16.440001,19.518999,15.228,28.365999,13.131,18.812,16.440001,16.667,20.354,17.799999,14.141,24.809,12.06,18.933001,10.667,22.68,34.276001
8.9109,0.94276,-3.1333,10.891,8.6731,10.241,4.0609,23.464001,1.0101,10.891,8.6731,2.9412,23.253,7.9475,22.222,11.874,6.0302,15.933,-1.0407,37.386002,16.715
12.871,-1.0774,-0.13333,11.881,6.7314,9.2096,3.0457,22.483999,1.0101,11.881,6.7314,7.8431,29.049999,12.874,31.313,12.869,11.055,24.933001,3.8374,42.287998,10.862
17.822001,4.9832,11.867,12.871,9.644,16.426001,9.1371,25.424999,5.0505,12.871,9.644,14.706,31.948,17.799999,39.394001,14.859,20.101,18.933001,2.8618,41.306999,8.9106
8.9109,-12.189,4.8667,11.881,8.6731,6.1168,-3.0457,17.582001,-7.0707,11.881,8.6731,6.8627,14.557,-0.91954,23.232,-4.0464,9.0452,13.933,-21.528,20.719,-9.626
3.9604,-26.33,-2.1333,9.901,5.7605,5.0859,-9.1371,12.68,-15.152,9.901,5.7605,0.98039,-2.8341,-9.7865,5.0505,-16.982,-1.005,23.933001,-23.48,2.0915,-19.382
1.9802,-32.390999,-7.1333,9.901,6.7314,8.1787,-7.1066,18.562,-5.0505,9.901,6.7314,2.9412,-15.395,-15.698,-8.0808,-26.931999,-10.05,11.933,-10.797,-10.654,-23.285
-4.9505,-28.35,-9.1333,10.891,11.586,9.2096,2.0305,16.601,10.101,10.891,11.586,4.902,-22.158001,-22.594,-18.181999,-35.887001,-21.106001,-6.0667,-4.9431,-18.497,-26.211
-9.901,-10.168,-3.1333,13.861,14.498,9.2096,12.183,17.582001,16.162001,13.861,14.498,10.784,-26.023001,-24.565001,-23.232,-35.887001,-26.131001,-10.067,4.813,-20.458,-20.358
-10.891,0.94276,-1.1333,19.802,19.353001,11.271,17.259001,18.562,18.181999,19.802,19.353001,14.706,-32.785999,-30.476,-30.302999,-32.902,-30.150999,-6.0667,11.642,-26.34,-19.382
-5.9406,11.044,0.86667,18.812,22.264999,12.302,21.32,13.66,21.212,18.812,22.264999,14.706,-25.056,-20.624001,-26.263,-23.947001,-25.125999,-3.0667,12.618,-18.497,-11.577
7.9208,22.155001,8.8667,20.792,23.236,16.426001,24.365,16.601,22.222,20.792,23.236,19.608,-0.90177,2.0361,-10.101,-4.0464,-11.055,2.9333,16.52,1.1111,6.9593
12.871,29.226,14.867,14.851,19.353001,18.488001,24.365,18.562,22.222,14.851,19.353001,17.646999,22.287001,22.726,5.0505,14.859,5.0251,8.9333,24.325001,20.719,20.618
13.861,33.265999,19.867001,17.822001,19.353001,19.518999,25.381001,18.562,26.263,17.822001,19.353001,23.528999,37.745998,36.519001,16.162001,32.769001,20.101,7.9333,25.301001,30.523001,35.251999
8.9109,25.184999,14.867,15.842,18.382,17.457001,21.32,21.503,25.253,15.842,18.382,16.667,42.576,42.43,23.232,38.740002,26.131001,2.9333,13.593,35.424999,40.130001
10.891,14.074,6.8667,15.842,13.528,11.271,10.152,26.405001,10.101,15.842,13.528,11.765,37.745998,40.459999,21.212,35.755001,23.115999,16.933001,-0.06504,29.542,32.325001
14.851,8.0135,5.8667,13.861,10.615,12.302,7.1066,25.424999,-1.0101,13.861,10.615,7.8431,30.982,36.519001,22.222,27.794001,23.115999,17.933001,-5.9187,23.66,16.715
17.822001,-2.0875,7.8667,16.832001,12.557,10.241,2.0305,17.582001,-4.0404,16.832001,12.557,10.784,29.049999,24.695999,25.253,17.844,22.111,15.933,-7.8699,17.778,5.9837
12.871,-15.219,5.8667,19.802,15.469,14.364,-2.0305,19.542,-5.0505,19.802,15.469,8.8235,23.253,12.874,20.202,6.8988,17.084999,3.9333,-7.8699,10.915,0.13008
8.9109,-7.138,8.8667,27.723,22.264999,18.488001,5.0761,19.542,7.0707,27.723,22.264999,17.646999,16.49,13.859,12.121,9.8839,17.084999,-1.0667,9.6911,0.13072,8.9106
20.792,16.094,20.867001,22.771999,23.236,32.921001,33.502998,20.523001,20.202,22.771999,23.236,30.392,17.455999,20.754999,16.162001,21.823999,25.125999,1.9333,26.275999,3.0719,23.545
26.733,31.246,29.867001,23.761999,17.410999,40.137001,46.701,26.405001,18.181999,23.761999,17.410999,40.195999,7.7939,11.888,16.162001,23.813999,27.136,7.9333,23.35,2.0915,18.667
34.653,42.356998,39.867001,33.662998,26.149,46.323002,41.624001,32.287998,20.202,33.662998,26.149,45.098,9.7262,10.903,19.191999,28.789,30.150999,24.933001,24.325001,6.9935,18.667
39.604,46.396999,44.867001,39.604,40.712002,41.167999,27.410999,36.209,21.212,39.604,40.712002,44.118,13.591,15.829,24.242001,31.774,31.156,21.933001,24.325001,12.876,21.593
41.584,46.396999,44.867001,41.584,42.653999,42.199001,25.381001,40.131001,16.162001,41.584,42.653999,44.118,20.354,18.785,26.263,30.778999,27.136,27.933001,22.374001,22.68,25.496
22.771999,29.226,29.867001,22.771999,26.149,36.014,21.32,25.424999,7.0707,22.771999,26.149,31.372999,9.7262,11.888,15.152,16.849001,12.06,14.933,17.496,17.778,16.715
6.9307,10.034,12.867,9.901,2.8479,18.488001,12.183,13.66,-6.0606,9.901,2.8479,16.667,7.7939,3.0213,7.0707,4.9088,2.0101,-2.0667,-6.8943,16.797001,7.935
19.802,22.155001,23.867001,13.861,7.7023,18.488001,21.32,19.542,-1.0101,13.861,7.7023,21.569,32.915001,21.740999,31.313,22.819,23.115999,15.933,-3.9675,37.386002,22.569
18.812,22.155001,22.867001,14.851,15.469,11.271,17.259001,14.641,4.0404,14.851,15.469,17.646999,25.184999,18.785,27.273001,24.809,28.141001,10.933,3.8374,23.66,16.715
4.9505,12.054,10.867,8.9109,10.615,7.1478,5.0761,14.641,-1.0101,8.9109,10.615,5.8824,6.8277,7.9475,15.152,14.859,21.106001,-1.0667,-2.9919,5.0327,1.1057
6.9307,8.0135,12.867,14.851,7.7023,17.457001,1.0152,27.386,-9.0909,14.851,7.7023,10.784,6.8277,8.9327,12.121,16.849001,22.111,1.9333,-3.9675,-0.84967,-0.84553
8.9109,-0.06734,11.867,12.871,7.7023,24.674,5.0761,29.346001,0.0,12.871,7.7023,13.725,7.7939,14.844,5.0505,17.844,20.101,16.933001,14.569,-3.7908,5.0081
-0.9901,-11.178,-0.13333,14.851,13.528,16.426001,6.0914,17.582001,12.121,14.851,13.528,12.745,-8.6312,2.0361,-18.181999,4.9088,-1.005,13.933,11.642,-21.438,2.0813
-10.891,-10.168,-9.1333,10.891,14.498,11.271,7.1066,16.601,7.0707,10.891,14.498,5.8824,-28.921,-18.653999,-33.333,-9.0216,-18.09,-17.066999,0.91057,-32.222,-4.748
-8.9109,2.963,-6.1333,12.871,12.557,10.241,9.1371,19.542,3.0303,12.871,12.557,6.8627,-28.921,-27.521,-30.302999,-10.017,-20.101,-13.067,0.91057,-25.358999,-0.84553
2.9703,11.044,3.8667,10.891,11.586,17.457001,11.168,17.582001,1.0101,10.891,11.586,10.784,-14.428,-12.742,-12.121,-5.0415,-10.05,2.9333,7.7398,-10.654,1.1057
14.851,9.0236,11.867,15.842,13.528,21.580999,12.183,21.503,-1.0101,15.842,13.528,19.608,6.8277,3.0213,4.0404,-5.0415,-2.0101,15.933,12.618,6.0131,-6.6992
8.9109,0.94276,7.8667,14.851,12.557,16.426001,11.168,21.503,-4.0404,14.851,12.557,14.706,9.7262,2.0361,3.0303,-11.012,-4.0201,16.933001,-6.8943,9.9346,-14.504
6.9307,5.9933,10.867,13.861,11.586,13.333,11.168,17.582001,0.0,13.861,11.586,14.706,4.8953,3.0213,4.0404,-3.0514,4.0201,-4.0667,-11.772,8.9542,-6.6992
6.9307,16.094,12.867,11.881,14.498,12.302,12.183,8.7582,5.0505,11.881,14.498,13.725,7.7939,10.903,6.0606,12.869,14.07,-9.0667,-0.06504,6.9935,6.9593
8.9109,28.215,15.867,9.901,13.528,11.271,10.152,15.621,3.0303,9.901,13.528,11.765,20.354,24.695999,14.141,31.774,27.136,8.9333,10.667,13.856,22.569
6.9307,23.165001,11.867,7.9208,10.615,7.1478,6.0914,17.582001,-2.0202,7.9208,10.615,6.8627,20.354,26.667,12.121,35.755001,27.136,10.933,12.618,10.915,26.472
0.0,9.0236,6.8667,4.9505,4.7896,4.055,-3.0457,16.601,-4.0404,4.9505,4.7896,0.0,20.354,27.652,14.141,30.778999,26.131001,-2.0667,11.642,9.9346,21.593
11.881,4.9832,11.867,12.871,6.7314,10.241,1.0152,23.464001,-1.0101,12.871,6.7314,6.8627,26.150999,30.608,22.222,29.784,30.150999,6.9333,15.545,14.837,19.642
10.891,7.0034,10.867,13.861,9.644,10.241,3.0457,25.424999,-2.0202,13.861,9.644,5.8824,15.523,17.799999,15.152,19.834,23.115999,16.933001,7.7398,8.9542,11.837
5.9406,4.9832,5.8667,13.861,8.6731,3.0241,-1.0152,21.503,-7.0707,13.861,8.6731,1.9608,-10.564,-7.8161,-6.0606,4.9088,7.0352,10.933,-6.8943,-12.614,-0.84553
11.881,18.114,13.867,12.871,12.557,11.271,10.152,24.444,1.0101,12.871,12.557,8.8235,-16.361,-15.698,-9.0909,1.9237,2.0101,6.9333,0.91057,-11.634,-0.84553
21.782,26.195,20.867001,18.812,17.410999,20.549999,20.305,28.365999,7.0707,18.812,17.410999,21.569,-9.5974,-15.698,-8.0808,-1.0614,-2.0101,5.9333,9.6911,-5.7516,0.13008
21.782,18.114,18.867001,20.792,16.440001,24.674,18.274,32.287998,3.0303,20.792,16.440001,20.587999,-4.7665,-12.742,-4.0404,-10.017,-7.0352,8.9333,6.7642,1.1111,-3.7724
8.9109,-0.06734,4.8667,16.832001,10.615,13.333,4.0609,24.444,-7.0707,16.832001,10.615,10.784,1.0306,-16.683001,-6.0606,-21.957001,-16.08,8.9333,-7.8699,2.0915,-14.504
13.861,1.9529,2.8667,13.861,10.615,17.457001,5.0761,26.405001,-6.0606,13.861,10.615,10.784,11.659,-2.89,13.131,-12.007,-3.0151,19.933001,-7.8699,17.778,-9.626
22.771999,13.064,10.867,15.842,11.586,21.580999,8.1218,27.386,-3.0303,15.842,11.586,18.627001,21.32,9.9179,30.302999,6.8988,16.08,19.933001,-0.06504,28.562,2.0813
21.782,16.094,15.867,14.851,9.644,23.643,12.183,26.405001,-4.0404,14.851,9.644,19.608,23.253,17.799999,31.313,21.823999,27.136,8.9333,-0.06504,27.582001,13.789
18.812,10.034,15.867,15.842,9.644,22.612,9.1371,29.346001,-6.0606,15.842,9.644,19.608,13.591,16.813999,21.212,23.813999,25.125999,22.933001,-2.0163,15.817,13.789
1.9802,-10.168,1.8667,8.9109,4.7896,12.302,-3.0457,19.542,-15.152,8.9109,4.7896,7.8431,2.963,6.9622,5.0505,8.8889,9.0452,24.933001,-12.748,2.0915,2.0813
0.9901,-15.219,-0.13333,1.9802,-3.9482,7.1478,-8.1218,12.68,-15.152,1.9802,-3.9482,2.9412,1.9968,4.0066,3.0303,1.9237,5.0251,4.9333,-7.8699,-3.7908,-3.7724
10.891,-8.1481,3.8667,2.9703,-2.0065,10.241,-6.0914,8.7582,-13.131,2.9703,-2.0065,5.8824,-7.6651,-1.9048,1.0101,-1.0614,4.0201,-4.0667,-7.8699,-10.654,-6.6992
13.861,-1.0774,6.8667,0.9901,-0.06472,12.302,-7.1066,11.699,-16.162001,0.9901,-0.06472,4.902,-23.124001,-16.683001,0.0,-6.0365,2.0101,4.9333,-12.748,-14.575,-15.48
18.812,10.034,14.867,5.9406,1.877,17.457001,0.0,17.582001,-13.131,5.9406,1.877,12.745,-21.191999,-22.594,7.0707,-0.06634,8.0402,10.933,-3.9675,-3.7908,-9.626
8.9109,9.0236,9.8667,6.9307,6.7314,15.395,5.0761,20.523001,-5.0505,6.9307,6.7314,10.784,-10.564,-20.624001,8.0808,-2.0564,5.0251,9.9333,4.813,3.0719,-9.626
-0.9901,-2.0875,-3.1333,4.9505,2.8479,4.055,-1.0152,13.66,-8.0808,4.9505,2.8479,3.9216,-8.6312,-21.608999,-3.0303,-13.997,-9.0452,-0.06667,-9.8211,-3.7908,-16.455
0.9901,1.9529,-1.1333,0.0,2.8479,6.1168,3.0457,12.68,-8.0808,0.0,2.8479,2.9412,-3.8003,-12.742,-3.0303,-14.992,-10.05,-2.0667,-5.9187,-3.7908,-15.48
4.9505,9.0236,4.8667,5.9406,8.6731,10.241,9.1371,13.66,-1.0101,5.9406,8.6731,11.765,-3.8003,-5.8456,-6.0606,-5.0415,-7.0352,4.9333,6.7642,-5.7516,-3.7724
-3.9604,12.054,4.8667,5.9406,8.6731,13.333,10.152,17.582001,-1.0101,5.9406,8.6731,10.784,-11.53,-3.8752,-10.101,3.9138,-4.0201,10.933,1.8862,-7.7124,5.0081
-16.832001,10.034,-2.1333,2.9703,2.8479,3.0241,3.0457,15.621,-5.0505,2.9703,2.8479,4.902,-11.53,-0.91954,-12.121,12.869,-3.0151,8.9333,-0.06504,-7.7124,14.764
-5.9406,13.064,3.8667,-3.9604,-2.9773,-0.06873,4.0609,15.621,-5.0505,-3.9604,-2.9773,0.0,17.455999,23.711,16.162001,32.769001,19.094999,9.9333,12.618,15.817,28.423
8.9109,16.094,10.867,-6.9307,-4.9191,-7.2852,3.0457,5.817,1.0101,-6.9307,-4.9191,0.0,41.610001,40.459999,38.383999,45.705002,37.186001,4.9333,25.301001,29.542,35.251999
14.851,15.084,10.867,-5.9406,-2.0065,-4.1924,4.0609,2.8758,-1.0101,-5.9406,-2.0065,-0.98039,48.374001,38.488998,44.444,43.715,42.210999,15.933,14.569,32.484001,27.447001
15.842,12.054,8.8667,5.9406,3.8188,9.2096,6.0914,20.523001,0.0,5.9406,3.8188,9.8039,30.982,18.785,28.283001,27.794001,30.150999,21.933001,0.91057,22.68,8.9106
13.861,14.074,5.8667,10.891,7.7023,21.580999,13.198,22.483999,5.0505,10.891,7.7023,18.627001,6.8277,1.0509,8.0808,13.864,13.065,10.933,3.8374,7.9739,1.1057
12.871,17.104,9.8667,10.891,7.7023,21.580999,16.243999,15.621,6.0606,10.891,7.7023,22.549,-12.496,-4.8604,-4.0404,6.8988,3.0151,-4.0667,10.667,-5.7516,2.0813
15.842,17.104,15.867,11.881,9.644,19.518999,14.213,14.641,3.0303,11.881,9.644,21.569,-8.6312,-1.9048,-2.0202,3.9138,1.005,3.9333,6.7642,-5.7516,3.0569
9.901,11.044,11.867,12.871,10.615,16.426001,9.1371,16.601,1.0101,12.871,10.615,17.646999,-0.90177,-6.8309,0.0,-7.0315,-3.0151,10.933,2.8618,-1.8301,-4.748
-3.9604,-6.1279,-5.1333,16.832001,13.528,17.457001,7.1066,15.621,-3.0303,16.832001,13.528,15.686,-9.5974,-21.608999,-12.121,-26.931999,-18.09,1.9333,-2.0163,-12.614,-22.309
-3.9604,-9.1582,-8.1333,17.822001,15.469,25.704,15.228,21.503,6.0606,17.822001,15.469,20.587999,-11.53,-17.667999,-11.111,-26.931999,-17.084999,0.93333,-0.06504,-16.535999,-22.309
-0.9901,2.963,2.8667,16.832001,17.410999,22.612,22.334999,13.66,12.121,16.832001,17.410999,24.51,-1.868,4.0066,-5.0505,-4.0464,-3.0151,-8.0667,-2.9919,-14.575,-0.84553
-8.9109,13.064,11.867,9.901,12.557,12.302,17.259001,11.699,5.0505,9.901,12.557,13.725,-2.8341,19.77,-5.0505,17.844,8.0402,-7.0667,-2.0163,-14.575,20.618
-14.851,12.054,5.8667,5.9406,6.7314,-6.2543,2.0305,6.7974,-1.0101,5.9406,6.7314,-1.9608,-2.8341,20.754999,-5.0505,28.789,13.065,-3.0667,5.7886,-13.595,26.472
-9.901,10.034,0.86667,0.0,4.7896,-6.2543,-2.0305,4.8366,0.0,0.0,4.7896,-9.8039,-0.90177,22.726,6.0606,33.764999,20.101,2.9333,12.618,-6.732,27.447001
16.832001,18.114,13.867,8.9109,5.7605,7.1478,8.1218,8.7582,2.0202,8.9109,5.7605,5.8824,22.287001,31.593,29.292999,42.720001,36.181,13.933,11.642,11.895,32.325001
26.733,17.104,17.867001,2.9703,2.8479,8.1787,9.1371,11.699,1.0101,2.9703,2.8479,2.9412,28.084,24.695999,35.354,32.769001,36.181,10.933,4.813,21.698999,18.667
25.743,18.114,14.867,0.0,1.877,-1.0997,5.0761,15.621,-1.0101,0.0,1.877,-0.98039,18.422001,10.903,22.222,19.834,26.131001,3.9333,4.813,15.817,7.935
15.842,27.205,13.867,2.9703,6.7314,5.0859,14.213,13.66,3.0303,2.9703,6.7314,3.9216,12.625,10.903,11.111,16.849001,20.101,3.9333,18.472,13.856,8.9106
2.9703,18.114,5.8667,12.871,10.615,11.271,18.274,11.699,3.0303,12.871,10.615,12.745,5.8615,4.0066,-5.0505,3.9138,4.0201,4.9333,11.642,6.0131,4.0325
8.9109,12.054,10.867,19.802,16.440001,27.766001,20.305,23.464001,3.0303,19.802,16.440001,23.528999,3.9291,2.0361,-6.0606,-4.0464,-3.0151,6.9333,6.7642,2.0915,3.0569
22.771999,17.104,25.867001,19.802,19.353001,38.076,25.381001,23.464001,8.0808,19.802,19.353001,34.313999,2.963,-0.91954,6.0606,-2.0564,3.0151,8.9333,5.7886,3.0719,3.0569
24.752001,15.084,25.867001,11.881,5.7605,32.921001,29.441999,19.542,3.0303,11.881,5.7605,30.392,-3.8003,-8.8013,9.0909,-4.0464,2.0101,13.933,2.8618,5.0327,-4.748
12.871,13.064,14.867,0.9901,-8.8026,22.612,23.35,15.621,-5.0505,0.9901,-8.8026,22.549,1.0306,-8.8013,9.0909,-2.0564,1.005,17.933001,1.8862,11.895,-4.748
-11.881,-0.06734,-3.1333,-0.9901,-4.9191,11.271,16.243999,6.7974,-9.0909,-0.9901,-4.9191,13.725,1.0306,-7.8161,-3.0303,-4.0464,-6.0302,1.9333,-6.8943,5.0327,-2.7967
-13.861,-5.1178,-4.1333,-6.9307,-0.06472,12.302,7.1066,7.7778,-8.0808,-6.9307,-0.06472,10.784,-0.90177,3.0213,-1.0101,2.9187,-1.005,-10.067,-3.9675,-0.84967,6.9593
6.9307,7.0034,12.867,-4.9505,-2.0065,24.674,1.0152,8.7582,-4.0404,-4.9505,-2.0065,20.587999,11.659,18.785,16.162001,18.839001,15.075,0.93333,9.6911,8.9542,19.642
26.733,27.205,28.867001,0.0,-9.7735,25.704,18.274,11.699,-3.0303,0.0,-9.7735,25.49,31.948,33.563,39.394001,34.759998,35.175999,19.933001,17.496,26.601,25.496
34.653,29.226,28.867001,1.9802,-0.06472,15.395,19.289,13.66,-5.0505,1.9802,-0.06472,25.49,39.678001,27.652,43.433998,33.764999,40.201,19.933001,4.813,27.582001,10.862
29.702999,21.145,22.867001,12.871,18.382,18.488001,8.1218,15.621,-3.0303,12.871,18.382,21.569,20.354,3.0213,33.333,17.844,28.141001,7.9333,-2.0163,13.856,-8.6504
25.743,12.054,16.867001,26.733,18.382,23.643,4.0609,21.503,-7.0707,26.733,18.382,23.528999,-6.6989,-18.653999,10.101,0.92869,10.05,12.933,-8.8455,-4.7712,-16.455
18.812,7.0034,15.867,11.881,4.7896,21.580999,2.0305,19.542,-14.141,11.881,4.7896,16.667,-13.462,-14.713,-3.0303,-7.0315,1.005,8.9333,-11.772,-10.654,-18.407
10.891,5.9933,14.867,3.9604,-3.9482,13.333,2.0305,7.7778,-17.172001,3.9604,-3.9482,12.745,-14.428,-8.8013,-16.162001,-9.0216,-5.0251,2.9333,-8.8455,-20.458,-17.431
-1.9802,-2.0875,4.8667,-1.9802,-4.9191,12.302,1.0152,4.8366,-17.172001,-1.9802,-4.9191,7.8431,-24.09,-15.698,-30.302999,-20.962,-18.09,0.93333,-9.8211,-28.301001,-24.26
-8.9109,-11.178,-6.1333,-3.9604,-8.8026,6.1168,-4.0609,3.8562,-18.181999,-3.9604,-8.8026,4.902,-26.989,-25.549999,-32.323002,-32.902,-29.146,0.93333,-16.65,-24.379,-27.187
-5.9406,-13.199,-10.133,-8.9109,-14.628,3.0241,-8.1218,4.8366,-19.191999,-8.9109,-14.628,-2.9412,-12.496,-17.667999,-12.121,-26.931999,-21.106001,13.933,-19.577,-2.8105,-17.431
0.9901,-6.1279,-7.1333,-15.842,-22.395,-3.1615,-12.183,4.8366,-22.222,-15.842,-22.395,-7.8431,5.8615,-3.8752,12.121,-11.012,-5.0251,10.933,-11.772,18.757999,-2.7967
1.9802,1.9529,-0.13333,-20.792,-25.306999,-11.409,-12.183,-3.9869,-21.212,-20.792,-25.306999,-13.725,13.591,7.9475,23.232,4.9088,9.0452,-3.0667,0.91057,25.621,5.9837
0.9901,4.9832,5.8667,-13.861,-15.599,-7.2852,-8.1218,-1.0458,-14.141,-13.861,-15.599,-6.8627,14.557,14.844,22.222,11.874,14.07,8.9333,2.8618,21.698999,5.9837
6.9307,4.9832,4.8667,-4.9505,-7.8317,1.9931,-3.0457,2.8758,-14.141,-4.9505,-7.8317,-0.98039,9.7262,13.859,17.172001,11.874,14.07,12.933,-2.9919,13.856,3.0569
14.851,16.094,11.867,-0.9901,-5.89,6.1168,1.0152,6.7974,-13.131,-0.9901,-5.89,4.902,8.7601,11.888,22.222,18.839001,21.106001,11.933,-1.0407,13.856,7.935
25.743,31.246,23.867001,4.9505,-2.0065,11.271,11.168,6.7974,-6.0606,4.9505,-2.0065,12.745,20.354,12.874,29.292999,29.784,32.160999,15.933,10.667,19.739,15.74
19.802,27.205,21.867001,-0.9901,-5.89,4.055,3.0457,7.7778,-9.0909,-0.9901,-5.89,4.902,16.49,8.9327,20.202,24.809,26.131001,10.933,5.7886,15.817,11.837
7.9208,10.034,8.8667,1.9802,-4.9191,4.055,-3.0457,10.719,-10.101,1.9802,-4.9191,1.9608,4.8953,1.0509,-2.0202,9.8839,6.0302,13.933,-1.0407,4.0523,3.0569
-1.9802,-1.0774,1.8667,5.9406,-0.06472,12.302,1.0152,12.68,-6.0606,5.9406,-0.06472,5.8824,-10.564,-5.8456,-16.162001,-3.0514,-7.0352,6.9333,0.91057,-10.654,-4.748
1.9802,0.94276,5.8667,11.881,3.8188,16.426001,8.1218,11.699,0.0,11.881,3.8188,14.706,-12.496,-8.8013,-18.181999,-5.0415,-7.0352,-1.0667,4.813,-17.516001,-7.6748
18.812,15.084,18.867001,8.9109,5.7605,15.395,13.198,12.68,5.0505,8.9109,5.7605,14.706,9.7262,8.9327,7.0707,7.8939,12.06,11.933,5.7886,1.1111,4.0325
22.771999,18.114,24.867001,5.9406,1.877,0.9622,6.0914,9.7386,-2.0202,5.9406,1.877,7.8431,23.253,21.740999,23.232,18.839001,26.131001,16.933001,9.6911,13.856,15.74
0.0,3.9731,8.8667,-0.9901,-3.9482,-10.378,-4.0609,2.8758,-9.0909,-0.9901,-3.9482,-5.8824,12.625,15.829,16.162001,12.869,17.084999,-9.0667,4.813,11.895,10.862
-13.861,-4.1077,-5.1333,5.9406,1.877,-3.1615,1.0152,2.8758,-9.0909,5.9406,1.877,0.98039,-3.8003,3.0213,-3.0303,3.9138,2.0101,-11.067,-4.9431,2.0915,3.0569
2.9703,8.0135,5.8667,11.881,10.615,17.457001,18.274,10.719,-4.0404,11.881,10.615,17.646999,-8.6312,7.9475,3.0303,11.874,7.0352,2.9333,-3.9675,4.0523,7.935
28.712999,22.155001,25.867001,15.842,9.644,21.580999,20.305,12.68,-6.0606,15.842,9.644,26.471001,-3.8003,12.874,16.162001,22.819,19.094999,12.933,-2.9919,10.915,13.789
40.594002,27.205,36.867001,11.881,3.8188,18.488001,12.183,9.7386,-9.0909,11.881,3.8188,21.569,10.692,15.829,29.292999,26.799,29.146,17.933001,2.8618,20.719,13.789
26.733,11.044,23.867001,5.9406,-0.06472,7.1478,0.0,3.8562,-10.101,5.9406,-0.06472,9.8039,8.7601,6.9622,22.222,14.859,21.106001,5.9333,-1.0407,12.876,5.9837
8.9109,1.9529,8.8667,3.9604,2.8479,7.1478,2.0305,-1.0458,-7.0707,3.9604,2.8479,7.8431,5.8615,7.9475,9.0909,10.879,12.06,-2.0667,-0.06504,1.1111,8.9106
8.9109,17.104,14.867,13.861,10.615,20.549999,16.243999,11.699,2.0202,13.861,10.615,21.569,3.9291,15.829,2.0202,19.834,14.07,6.9333,13.593,-2.8105,16.715
14.851,28.215,26.867001,21.782,11.586,29.827999,21.32,22.483999,1.0101,21.782,11.586,29.412001,-0.90177,13.859,-3.0303,22.819,14.07,10.933,13.593,-8.6928,15.74
12.871,23.165001,28.867001,16.832001,2.8479,24.674,10.152,15.621,-2.0202,16.832001,2.8479,24.51,-3.8003,4.9918,-4.0404,13.864,11.055,4.9333,4.813,-8.6928,4.0325
16.832001,11.044,22.867001,10.891,-2.0065,18.488001,5.0761,5.817,-4.0404,10.891,-2.0065,18.627001,4.8953,-2.89,7.0707,4.9088,11.055,3.9333,-0.06504,2.0915,-6.6992
17.822001,4.9832,13.867,2.9703,-3.9482,12.302,10.152,6.7974,-5.0505,2.9703,-3.9482,9.8039,11.659,-5.8456,23.232,-1.0614,15.075,10.933,-2.9919,12.876,-9.626
9.901,1.9529,5.8667,0.9901,-1.0356,0.9622,4.0609,6.7974,-4.0404,0.9901,-1.0356,0.98039,16.49,-8.8013,27.273001,-2.0564,16.08,4.9333,-1.0407,17.778,-5.7236
-3.9604,2.963,2.8667,-4.9505,2.8479,-8.3162,-5.0761,2.8758,-1.0101,-4.9505,2.8479,-9.8039,15.523,-2.89,25.253,1.9237,16.08,-3.0667,2.8618,18.757999,2.0813
-5.9406,4.9832,2.8667,-3.9604,-0.06472,-14.502,-8.1218,-1.0458,0.0,-3.9604,-0.06472,-9.8039,12.625,4.9918,18.181999,7.8939,14.07,-2.0667,8.7154,18.757999,13.789
1.9802,0.94276,-1.1333,-4.9505,-3.9482,-9.3471,-10.152,4.8366,0.0,-4.9505,-3.9482,-11.765,19.388,13.859,19.191999,10.879,11.055,16.933001,12.618,29.542,22.569
2.9703,-11.178,-12.133,-7.9208,-10.744,-13.471,-15.228,0.91503,-4.0404,-7.9208,-10.744,-15.686,10.692,10.903,11.111,6.8988,2.0101,14.933,0.91057,23.66,19.642
-1.9802,-15.219,-17.132999,-10.891,-11.715,-15.533,-15.228,2.8758,-6.0606,-10.891,-11.715,-20.587999,1.9968,6.9622,6.0606,2.9187,-3.0151,8.9333,-8.8455,14.837,10.862
-2.9703,-6.1279,-10.133,-4.9505,-6.8608,-15.533,-11.168,0.91503,-4.0404,-4.9505,-6.8608,-13.725,3.9291,7.9475,5.0505,5.9038,1.005,3.9333,-2.9919,8.9542,10.862
-3.9604,7.0034,4.8667,0.9901,-1.0356,-1.0997,0.0,0.91503,0.0,0.9901,-1.0356,0.0,8.7601,18.785,3.0303,14.859,9.0452,-6.0667,6.7642,3.0719,16.715
-7.9208,7.0034,7.8667,6.9307,1.877,6.1168,4.0609,5.817,1.0101,6.9307,1.877,8.8235,0.06441,17.799999,-12.121,12.869,5.0251,-18.066999,3.8374,-14.575,13.789
-11.881,-3.0976,-0.13333,7.9208,4.7896,10.241,2.0305,6.7974,-1.0101,7.9208,4.7896,6.8627,-16.361,6.9622,-31.313,0.92869,-9.0452,-11.067,-6.8943,-31.242001,1.1057
-4.9505,-7.138,-0.13333,12.871,6.7314,14.364,2.0305,9.7386,-6.0606,12.871,6.7314,10.784,-23.124001,-3.8752,-29.292999,-7.0315,-12.06,-1.0667,-12.748,-29.281,-10.602
13.861,-2.0875,7.8667,14.851,4.7896,17.457001,4.0609,16.601,-8.0808,14.851,4.7896,14.706,-10.564,-8.8013,-8.0808,-7.0315,-4.0201,8.9333,-8.8455,-10.654,-9.626
22.771999,4.9832,11.867,7.9208,0.90615,10.241,5.0761,12.68,-2.0202,7.9208,0.90615,11.765,12.625,-2.89,20.202,-5.0415,8.0402,20.933001,2.8618,17.778,-0.84553
16.832001,4.9832,11.867,11.881,5.7605,8.1787,11.168,9.7386,6.0606,11.881,5.7605,12.745,21.32,0.06568,29.292999,-5.0415,11.055,19.933001,6.7642,28.562,4.0325
5.9406,3.9731,9.8667,10.891,3.8188,14.364,13.198,11.699,4.0404,10.891,3.8188,15.686,11.659,-0.91954,23.232,-4.0464,9.0452,10.933,4.813,22.68,2.0813
17.822001,13.064,19.867001,9.901,-1.0356,18.488001,14.213,7.7778,-4.0404,9.901,-1.0356,22.549,11.659,4.0066,26.263,10.879,18.09,5.9333,8.7154,20.719,7.935
35.644001,24.174999,34.867001,3.9604,-3.9482,18.488001,13.198,6.7974,-8.0808,3.9604,-3.9482,22.549,25.184999,20.754999,45.455002,32.769001,41.206001,10.933,8.7154,31.503,18.667
31.683001,18.114,27.867001,-2.9703,-8.8026,3.0241,0.0,0.91503,-9.0909,-2.9703,-8.8026,7.8431,29.049999,24.695999,42.424,38.740002,43.216,6.9333,1.8862,28.562,19.642
22.771999,10.034,17.867001,-5.9406,-8.8026,-0.06873,-4.0609,-1.0458,-4.0404,-5.9406,-8.8026,-1.9608,26.150999,31.593,37.374001,36.75,38.191002,0.93333,1.8862,22.68,21.593
14.851,4.9832,10.867,2.9703,-3.9482,5.0859,1.0152,1.8954,-4.0404,2.9703,-3.9482,6.8627,20.354,31.593,22.222,27.794001,25.125999,10.933,-2.9919,14.837,21.593
-0.9901,3.9731,3.8667,2.9703,-2.9773,9.2096,4.0609,4.8366,-4.0404,2.9703,-2.9773,7.8431,9.7262,24.695999,1.0101,14.859,8.0402,8.9333,-3.9675,4.0523,13.789
-15.842,1.9529,-3.1333,2.9703,-3.9482,-2.1306,-3.0457,2.8758,-4.0404,2.9703,-3.9482,0.0,-9.5974,4.9918,-23.232,-1.0614,-9.0452,-4.0667,1.8862,-15.556,-0.84553
-15.842,7.0034,-2.1333,-0.9901,-3.9482,-5.2234,-4.0609,1.8954,0.0,-0.9901,-3.9482,-5.8824,-13.462,-2.89,-23.232,-4.0464,-11.055,-3.0667,8.7154,-19.476999,-6.6992
-4.9505,11.044,1.8667,0.9901,-1.0356,-5.2234,2.0305,6.7974,8.0808,0.9901,-1.0356,-1.9608,-2.8341,3.0213,-9.0909,1.9237,-2.0101,9.9333,15.545,-10.654,4.0325
0.0,9.0236,-2.1333,-2.9703,-3.9482,-8.3162,4.0609,0.91503,10.101,-2.9703,-3.9482,-5.8824,5.8615,8.9327,4.0404,4.9088,2.0101,13.933,13.593,2.0915,14.764
5.9406,7.0034,-3.1333,-5.9406,-7.8317,-13.471,0.0,-3.0065,5.0505,-5.9406,-7.8317,-8.8235,17.455999,11.888,21.212,7.8939,6.0302,9.9333,13.593,21.698999,19.642
11.881,1.9529,-1.1333,-6.9307,-9.7735,-11.409,-1.0152,-3.0065,1.0101,-6.9307,-9.7735,-8.8235,29.049999,16.813999,34.342999,8.8889,11.055,6.9333,3.8374,33.464001,14.764
23.761999,8.0135,9.8667,-5.9406,-9.7735,-0.06873,2.0305,4.8366,4.0404,-5.9406,-9.7735,-0.98039,42.576,26.667,47.474998,16.849001,24.121,26.933001,0.91057,44.248001,12.813
22.771999,4.9832,9.8667,-5.9406,-9.7735,1.9931,0.0,1.8954,0.0,-5.9406,-9.7735,-0.98039,30.982,19.77,40.403999,16.849001,24.121,21.933001,-2.0163,31.503,5.9837
10.891,-1.0774,3.8667,-8.9109,-9.7735,-4.1924,-3.0457,-9.8693,1.0101,-8.9109,-9.7735,-3.9216,16.49,8.9327,24.242001,12.869,16.08,2.9333,0.91057,14.837,0.13008
0.0,-0.06734,0.86667,-5.9406,-7.8317,-6.2543,-3.0457,-19.673,5.0505,-5.9406,-7.8317,-1.9608,-0.90177,0.06568,1.0101,10.879,7.0352,-13.067,1.8862,-7.7124,1.1057
-12.871,2.963,-2.1333,-9.901,-9.7735,-5.2234,-5.0761,-13.791,0.0,-9.901,-9.7735,-4.902,-16.361,-3.8752,-12.121,10.879,3.0151,-30.066999,0.91057,-23.399,0.13008
-15.842,4.9832,-3.1333,-7.9208,-10.744,-2.1306,-5.0761,-10.85,-3.0303,-7.9208,-10.744,-1.9608,-18.292999,-4.8604,-22.222,7.8939,-2.0101,-21.066999,4.813,-28.301001,0.13008
-17.822001,-0.06734,-4.1333,-7.9208,-9.7735,-0.06873,-4.0609,-9.8693,-5.0505,-7.9208,-9.7735,-2.9412,-21.191999,-4.8604,-31.313,-1.0614,-9.0452,-18.066999,2.8618,-29.281,-4.748
-19.802,-11.178,-13.133,-9.901,-11.715,-11.409,-11.168,-14.771,-3.0303,-9.901,-11.715,-8.8235,-29.886999,-15.698,-39.394001,-11.012,-18.09,-16.066999,-1.0407,-35.162998,-12.553
-26.733,-23.299999,-24.132999,-18.812,-19.482,-24.811001,-21.32,-18.693001,-9.0909,-18.812,-19.482,-24.51,-33.751999,-26.535,-34.342999,-20.962,-23.115999,-9.0667,-9.8211,-31.242001,-24.26
-23.761999,-26.33,-23.132999,-14.851,-16.57,-25.841999,-19.289,-16.732,-12.121,-14.851,-16.57,-20.587999,-30.853001,-30.476,-22.222,-25.937,-23.115999,-6.0667,-15.675,-18.497,-26.211
-16.832001,-20.268999,-13.133,-10.891,-9.7735,-15.533,-7.1066,-11.83,-6.0606,-10.891,-9.7735,-11.765,-16.361,-21.608999,-8.0808,-28.922001,-19.094999,-12.067,-20.552999,-1.8301,-22.309
-5.9406,-20.268999,-8.1333,-8.9109,-9.7735,-12.44,-5.0761,-11.83,-4.0404,-8.9109,-9.7735,-6.8627,-1.868,-22.594,-3.0303,-36.882,-22.111,-12.067,-22.504,6.9935,-24.26
0.9901,-22.290001,-10.133,-12.871,-14.628,-10.378,-10.152,-9.8693,-8.0808,-12.871,-14.628,-13.725,5.8615,-18.653999,2.0202,-36.882,-22.111,4.9333,-11.772,15.817,-19.382
-0.9901,-19.259001,-17.132999,-17.822001,-22.395,-14.502,-20.305,-6.9281,-13.131,-17.822001,-22.395,-19.608,14.557,-8.8013,6.0606,-24.941999,-17.084999,8.9333,-13.724,19.739,-11.577
0.0,-8.1481,-16.132999,-22.771999,-25.306999,-12.44,-18.274,-7.9085,-10.101,-22.771999,-25.306999,-19.608,26.150999,4.9918,16.162001,-6.0365,-4.0201,-4.0667,-6.8943,24.641001,-0.84553
-8.9109,-5.1178,-16.132999,-24.752001,-22.395,-17.594999,-12.183,-20.653999,0.0,-24.752001,-22.395,-18.627001,18.422001,7.9475,8.0808,4.9088,0.0,-15.067,1.8862,10.915,5.9837
-16.832001,-7.138,-15.133,-17.822001,-16.57,-13.471,-8.1218,-22.614,0.0,-17.822001,-16.57,-13.725,6.8277,7.9475,-9.0909,5.9038,-3.0151,-11.067,5.7886,-7.7124,8.9106
-20.792,-9.1582,-13.133,-14.851,-15.599,-10.378,-9.1371,-12.81,-5.0505,-14.851,-15.599,-11.765,-9.5974,5.977,-20.202,0.92869,-8.0402,-12.067,0.91057,-20.458,5.0081
-5.9406,-3.0976,-7.1333,-10.891,-10.744,-6.2543,-5.0761,-9.8693,1.0101,-10.891,-10.744,-6.8627,-9.5974,10.903,-16.162001,2.9187,-4.0201,-4.0667,2.8618,-17.516001,6.9593
6.9307,-3.0976,-2.1333,-9.901,-10.744,-3.1615,-4.0609,-4.9673,2.0202,-9.901,-10.744,-6.8627,-2.8341,13.859,-7.0707,2.9187,0.0,7.9333,2.8618,-6.732,4.0325
3.9604,-9.1582,-5.1333,-7.9208,-13.657,-8.3162,-11.168,-3.0065,-7.0707,-7.9208,-13.657,-10.784,-2.8341,7.9475,-6.0606,-2.0564,-1.005,6.9333,-7.8699,-3.7908,-1.8211
-8.9109,-12.189,-11.133,-12.871,-15.599,-16.563999,-16.243999,-8.8889,-9.0909,-12.871,-15.599,-21.569,0.06441,6.9622,-2.0202,-5.0415,-2.0101,1.9333,-11.772,2.0915,-4.748
-4.9505,-15.219,-10.133,-4.9505,-11.715,-12.44,-13.198,-8.8889,-6.0606,-4.9505,-11.715,-16.667,9.7262,7.9475,4.0404,-6.0365,-2.0101,0.93333,-5.9187,13.856,-3.7724
5.9406,-20.268999,-6.1333,-3.9604,-8.8026,-2.1306,-8.1218,-4.9673,-3.0303,-3.9604,-8.8026,-10.784,16.49,8.9327,13.131,-9.0216,-1.005,8.9333,-2.0163,24.641001,-3.7724
12.871,-15.219,-3.1333,-1.9802,-6.8608,-2.1306,-9.1371,0.91503,-6.0606,-1.9802,-6.8608,-5.8824,22.287001,12.874,18.181999,-6.0365,1.005,12.933,-0.06504,31.503,4.0325
10.891,-4.1077,-1.1333,-4.9505,-10.744,-3.1615,-7.1066,2.8758,-7.0707,-4.9505,-10.744,-6.8627,24.219,22.726,22.222,3.9138,7.0352,-2.0667,4.813,31.503,15.74
9.901,5.9933,-0.13333,-5.9406,-9.7735,-6.2543,-4.0609,-3.0065,2.0202,-5.9406,-9.7735,-3.9216,28.084,31.593,25.253,17.844,15.075,1.9333,12.618,30.523001,29.398001
-17.822001,-2.0875,-16.132999,-16.832001,-9.7735,-15.533,-11.168,-12.81,0.0,-16.832001,-9.7735,-14.706,23.253,24.695999,5.0505,13.864,2.0101,-4.0667,7.7398,11.895,22.569
-46.535,-19.259001,-35.132999,-21.782,-16.57,-26.872999,-25.381001,-19.673,-13.131,-21.782,-16.57,-23.528999,5.8615,8.9327,-29.292999,-1.0614,-22.111,-20.066999,-6.8943,-16.535999,6.9593
-41.584,-21.278999,-33.132999,-18.812,-18.511,-19.656,-23.35,-11.83,-16.162001,-18.812,-18.511,-21.569,-2.8341,6.9622,-35.354,-3.0514,-24.121,-10.067,-5.9187,-20.458,3.0569
-12.871,-15.219,-17.132999,-15.842,-15.599,-11.409,-16.243999,-2.0261,-10.101,-15.842,-15.599,-12.745,-4.7665,6.9622,-18.181999,-0.06634,-11.055,3.9333,-6.8943,-11.634,2.0813
3.9604,-13.199,-6.1333,-14.851,-13.657,-10.378,-12.183,-5.9477,-7.0707,-14.851,-13.657,-9.8039,-9.5974,0.06568,-7.0707,-6.0365,-4.0201,0.93333,-9.8211,-11.634,-3.7724
7.9208,-5.1178,1.8667,-9.901,-6.8608,-7.2852,-5.0761,-5.9477,-2.0202,-9.901,-6.8608,-3.9216,-4.7665,-4.8604,-1.0101,-9.0216,0.0,-0.06667,-1.0407,-9.6732,-5.7236
7.9208,-0.06734,2.8667,-4.9505,-1.0356,-4.1924,2.0305,-0.06536,5.0505,-4.9505,-1.0356,0.0,1.0306,-8.8013,-1.0101,-10.017,-1.005,-4.0667,6.7642,-8.6928,-3.7724
11.881,2.963,3.8667,-2.9703,1.877,-0.06873,5.0761,6.7974,12.121,-2.9703,1.877,0.0,6.8277,-3.8752,5.0505,-7.0315,2.0101,-3.0667,12.618,-2.8105,1.1057
20.792,4.9832,7.8667,0.0,0.90615,3.0241,2.0305,10.719,11.111,0.0,0.90615,1.9608,8.7601,5.977,12.121,5.9038,11.055,6.9333,20.423,-0.84967,11.837
20.792,11.044,8.8667,-3.9604,-3.9482,1.9931,-3.0457,9.7386,7.0707,-3.9604,-3.9482,-3.9216,15.523,17.799999,21.212,18.839001,21.106001,11.933,15.545,8.9542,21.593
14.851,17.104,5.8667,0.0,-2.0065,1.9931,0.0,5.817,7.0707,0.0,-2.0065,-0.98039,11.659,17.799999,17.172001,24.809,18.09,11.933,11.642,13.856,27.447001
-3.9604,15.084,-4.1333,0.0,-0.06472,3.0241,4.0609,5.817,7.0707,0.0,-0.06472,-1.9608,-9.5974,8.9327,-1.0101,16.849001,1.005,7.9333,8.7154,5.0327,25.496
-18.812,2.963,-18.132999,-2.9703,-2.9773,-5.2234,-1.0152,1.8954,0.0,-2.9703,-2.9773,-4.902,-17.327,0.06568,-19.191999,5.9038,-16.08,-4.0667,2.8618,-6.732,16.715
-22.771999,-3.0976,-18.132999,-10.891,-7.8317,-6.2543,-4.0609,-1.0458,-3.0303,-10.891,-7.8317,-10.784,-6.6989,11.888,-16.162001,4.9088,-14.07,-6.0667,2.8618,-4.7712,16.715
-29.702999,-5.1178,-16.132999,-14.851,-10.744,-13.471,-9.1371,-6.9281,-4.0404,-14.851,-10.744,-13.725,5.8615,19.77,-18.181999,5.9038,-10.05,-18.066999,4.813,-3.7908,15.74
-29.702999,0.94276,-8.1333,-17.822001,-12.686,-15.533,-7.1066,-7.9085,-4.0404,-17.822001,-12.686,-14.706,14.557,22.726,-11.111,7.8939,0.0,-11.067,7.7398,2.0915,12.813
-14.851,3.9731,0.86667,-7.9208,-7.8317,-7.2852,-2.0305,3.8562,-1.0101,-7.9208,-7.8317,-5.8824,7.7939,14.844,-3.0303,7.8939,8.0402,16.933001,10.667,-0.84967,6.9593
0.0,-9.1582,1.8667,-4.9505,-4.9191,-0.06873,-2.0305,8.7582,-1.0101,-4.9505,-4.9191,-4.902,-0.90177,-2.89,0.0,-7.0315,4.0201,14.933,1.8862,-4.7712,-8.6504
20.792,-11.178,11.867,-2.9703,-4.9191,7.1478,-1.0152,12.68,-3.0303,-2.9703,-4.9191,2.9412,-2.8341,-17.667999,9.0909,-14.992,6.0302,7.9333,-2.9919,-0.84967,-13.528
36.633999,4.9832,25.867001,0.0,-1.0356,11.271,9.1371,12.68,-1.0101,0.0,-1.0356,10.784,2.963,-21.608999,23.232,-7.0315,16.08,16.933001,-0.06504,10.915,-8.6504
28.712999,14.074,21.867001,-2.9703,-1.0356,-0.06873,8.1218,9.7386,3.0303,-2.9703,-1.0356,4.902,9.7262,-9.7865,23.232,2.9187,17.084999,16.933001,6.7642,16.797001,-1.8211
21.782,17.104,12.867,-6.9307,-6.8608,-2.1306,1.0152,6.7974,-1.0101,-6.9307,-6.8608,-2.9412,17.455999,7.9475,20.202,16.849001,16.08,13.933,12.618,24.641001,12.813
11.881,9.0236,1.8667,-9.901,-11.715,-3.1615,-7.1066,5.817,-7.0707,-9.901,-11.715,-7.8431,10.692,8.9327,11.111,14.859,5.0251,16.933001,10.667,27.582001,17.691
-2.9703,-7.138,-14.133,-12.871,-15.599,-11.409,-15.228,-3.9869,-17.172001,-12.871,-15.599,-14.706,8.7601,4.0066,-6.0606,3.9138,-12.06,7.9333,-5.9187,23.66,12.813
-15.842,-15.219,-23.132999,-17.822001,-20.452999,-17.594999,-19.289,-6.9281,-18.181999,-17.822001,-20.452999,-20.587999,15.523,6.9622,-9.0909,-0.06634,-17.084999,-5.0667,-6.8943,19.739,13.789
-12.871,-3.0976,-11.133,-14.851,-18.511,-14.502,-14.213,-6.9281,-12.121,-14.851,-18.511,-13.725,28.084,23.711,5.0505,13.864,2.0101,-8.0667,2.8618,21.698999,23.545
-18.812,8.0135,-0.13333,-15.842,-15.599,-15.533,-12.183,-3.9869,-9.0909,-15.842,-15.599,-14.706,27.118,34.548,9.0909,23.813999,18.09,-8.0667,8.7154,14.837,25.496
-22.771999,4.9832,1.8667,-13.861,-14.628,-19.656,-16.243999,-3.9869,-15.152,-13.861,-14.628,-16.667,18.422001,28.636999,0.0,20.829,18.09,-8.0667,2.8618,0.13072,16.715
-11.881,-5.1178,4.8667,-11.881,-11.715,-9.3471,-12.183,-0.06536,-13.131,-11.881,-11.715,-13.725,2.963,14.844,-2.0202,7.8939,12.06,3.9333,-8.8455,-5.7516,2.0813
2.9703,-19.259001,4.8667,-4.9505,-8.8026,-4.1924,-9.1371,6.7974,-11.111,-4.9505,-8.8026,-6.8627,-2.8341,-0.91954,-2.0202,-9.0216,3.0151,22.933001,-17.625999,-5.7516,-12.553
10.891,-28.35,4.8667,-5.9406,-8.8026,-1.0997,-10.152,12.68,-12.121,-5.9406,-8.8026,-7.8431,1.9968,-3.8752,6.0606,-22.952,-1.005,12.933,-17.625999,3.0719,-16.455
9.901,-23.299999,4.8667,0.0,-2.0065,-0.06873,-8.1218,13.66,-6.0606,0.0,-2.0065,-2.9412,-0.90177,-10.772,3.0303,-31.907,-8.0402,-3.0667,-7.8699,-2.8105,-18.407
5.9406,-10.168,1.8667,4.9505,5.7605,12.302,3.0457,14.641,5.0505,4.9505,5.7605,4.902,-8.6312,-15.698,-3.0303,-32.902,-15.075,-4.0667,-1.0407,-11.634,-18.407
1.9802,-5.1178,-5.1333,3.9604,3.8188,11.271,3.0457,8.7582,5.0505,3.9604,3.8188,3.9216,-21.191999,-18.653999,-11.111,-26.931999,-20.101,-7.0667,-2.9919,-17.516001,-17.431
10.891,3.9731,-2.1333,1.9802,1.877,16.426001,5.0761,11.699,3.0303,1.9802,1.877,4.902,-18.292999,-3.8752,-3.0303,-6.0365,-11.055,5.9333,6.7642,-2.8105,-0.84553
16.832001,9.0236,0.86667,0.9901,-1.0356,15.395,1.0152,13.66,0.0,0.9901,-1.0356,5.8824,-11.53,6.9622,2.0202,9.8839,-5.0251,1.9333,13.593,10.915,12.813
6.9307,9.0236,-2.1333,0.0,-2.0065,10.241,-3.0457,8.7582,-2.0202,0.0,-2.0065,2.9412,-10.564,7.9475,-2.0202,16.849001,-3.0151,1.9333,6.7642,9.9346,19.642
-2.9703,11.044,-1.1333,2.9703,0.90615,9.2096,0.0,13.66,3.0303,2.9703,0.90615,2.9412,-0.90177,14.844,4.0404,25.804001,7.0352,10.933,10.667,9.9346,26.472
-11.881,12.054,2.8667,0.9901,-1.0356,5.0859,1.0152,11.699,5.0505,0.9901,-1.0356,2.9412,5.8615,17.799999,8.0808,27.794001,16.08,8.9333,8.7154,6.0131,24.52
-8.9109,19.125,14.867,0.0,0.90615,8.1787,8.1218,8.7582,9.0909,0.0,0.90615,9.8039,6.8277,20.754999,12.121,28.789,24.121,17.933001,6.7642,4.0523,22.569
8.9109,15.084,25.867001,9.901,9.644,14.364,15.228,13.66,5.0505,9.901,9.644,20.587999,11.659,16.813999,12.121,22.819,25.125999,4.9333,5.7886,5.0327,12.813
22.771999,11.044,31.867001,13.861,13.528,21.580999,15.228,17.582001,1.0101,13.861,13.528,22.549,14.557,9.9179,14.141,13.864,23.115999,8.9333,6.7642,6.9935,1.1057
15.842,-5.1178,16.867001,12.871,11.586,11.271,3.0457,11.699,0.0,12.871,11.586,10.784,-10.564,-16.683001,-9.0909,-10.017,0.0,5.9333,-2.9919,-16.535999,-20.358
10.891,-17.239,5.8667,10.891,13.528,9.2096,3.0457,18.562,5.0505,10.891,13.528,4.902,-23.124001,-29.490999,-16.162001,-30.912001,-16.08,6.9333,0.91057,-21.438,-34.015999
11.881,-22.290001,4.8667,15.842,19.353001,9.2096,11.168,13.66,17.172001,15.842,19.353001,11.765,-27.955,-43.284,-17.172001,-48.823002,-26.131001,3.9333,-9.8211,-20.458,-42.797001
10.891,-17.239,5.8667,13.861,21.294001,13.333,18.274,15.621,18.181999,13.861,21.294001,13.725,-30.853001,-52.151001,-12.121,-57.778,-30.150999,9.9333,-7.8699,-12.614,-46.699001
18.812,-2.0875,8.8667,17.822001,20.323999,17.457001,18.274,21.503,14.141,17.822001,20.323999,18.627001,-15.395,-44.269001,1.0101,-44.841999,-21.106001,19.933001,-7.8699,6.0131,-32.064999
16.832001,5.9933,6.8667,12.871,14.498,15.395,11.168,18.562,12.121,12.871,14.498,10.784,-1.868,-25.549999,10.101,-25.937,-11.055,17.933001,-0.06504,18.757999,-15.48
8.9109,2.963,-2.1333,11.881,11.586,6.1168,2.0305,14.641,11.111,11.881,11.586,2.9412,-4.7665,-14.713,5.0505,-13.997,-10.05,18.933001,6.7642,15.817,-1.8211
-0.9901,2.963,-8.1333,10.891,13.528,5.0859,3.0457,15.621,15.152,10.891,13.528,0.0,2.963,1.0509,9.0909,-1.0614,-4.0201,13.933,5.7886,16.797001,10.862
-7.9208,2.963,-12.133,5.9406,6.7314,-3.1615,-1.0152,12.68,7.0707,5.9406,6.7314,-2.9412,14.557,11.888,10.101,8.8889,2.0101,8.9333,4.813,14.837,17.691
-6.9307,8.0135,-8.1333,0.0,2.8479,-6.2543,-2.0305,0.91503,3.0303,0.0,2.8479,-5.8824,13.591,19.77,6.0606,19.834,8.0402,4.9333,10.667,8.9542,22.569
0.9901,14.074,-0.13333,-2.9703,2.8479,-7.2852,-4.0609,-1.0458,4.0404,-2.9703,2.8479,-3.9216,7.7939,25.681,3.0303,27.794001,14.07,11.933,12.618,2.0915,25.496
4.9505,12.054,1.8667,-3.9604,1.877,-4.1924,-5.0761,-0.06536,0.0,-3.9604,1.877,-3.9216,6.8277,26.667,-1.0101,26.799,12.06,-7.0667,3.8374,-3.7908,21.593
0.0,-0.06734,-5.1333,-6.9307,-1.0356,-5.2234,-5.0761,-4.9673,1.0101,-6.9307,-1.0356,-4.902,-5.7327,8.9327,-11.111,10.879,-1.005,-21.066999,-2.0163,-12.614,6.9593
-4.9505,-7.138,-12.133,-6.9307,-2.9773,-4.1924,-2.0305,-5.9477,3.0303,-6.9307,-2.9773,-2.9412,-23.124001,-17.667999,-25.253,-11.012,-19.094999,-9.0667,3.8374,-28.301001,-11.577
-1.9802,-2.0875,-7.1333,-7.9208,-1.0356,0.9622,3.0457,-1.0458,5.0505,-7.9208,-1.0356,0.98039,-31.82,-34.417,-25.253,-21.957001,-23.115999,-0.06667,6.7642,-32.222,-22.309
6.9307,7.0034,2.8667,1.9802,7.7023,7.1478,9.1371,5.817,9.0909,1.9802,7.7023,8.8235,-30.853001,-40.327999,-19.191999,-14.992,-18.09,1.9333,10.667,-23.399,-15.48
2.9703,5.9933,0.86667,1.9802,8.6731,8.1787,8.1218,10.719,11.111,1.9802,8.6731,4.902,-21.191999,-24.565001,-10.101,-6.0365,-14.07,2.9333,12.618,-3.7908,-3.7724
2.9703,-1.0774,-4.1333,-0.9901,2.8479,0.9622,2.0305,4.8366,5.0505,-0.9901,2.8479,0.0,1.9968,-1.9048,0.0,-1.0614,-10.05,4.9333,7.7398,15.817,5.0081
0.9901,-5.1178,-8.1333,-5.9406,-5.89,-2.1306,-4.0609,5.817,-1.0101,-5.9406,-5.89,-7.8431,21.32,17.799999,15.152,-0.06634,-4.0201,17.933001,8.7154,32.484001,9.8862
-6.9307,-15.219,-16.132999,-3.9604,-7.8317,-9.3471,-14.213,5.817,-9.0909,-3.9604,-7.8317,-12.745,26.150999,17.799999,14.141,-8.0265,-6.0302,14.933,-3.9675,32.484001,5.0081
-17.822001,-18.249001,-20.132999,-8.9109,-7.8317,-16.563999,-21.32,-1.0458,-13.131,-8.9109,-7.8317,-21.569,20.354,15.829,8.0808,-12.007,-7.0352,-0.06667,-19.577,25.621,3.0569
-20.792,-18.249001,-17.132999,-3.9604,-2.9773,-18.625,-21.32,-2.0261,-10.101,-3.9604,-2.9773,-18.627001,14.557,17.799999,-3.0303,-9.0216,-7.0352,-11.067,-17.625999,12.876,7.935
-16.832001,-20.268999,-13.133,1.9802,5.7605,-9.3471,-12.183,0.91503,-2.0202,1.9802,5.7605,-11.765,6.8277,15.829,-13.131,-10.017,-10.05,-7.0667,-7.8699,0.13072,6.9593
-4.9505,-15.219,-5.1333,10.891,10.615,-0.06873,-5.0761,6.7974,4.0404,10.891,10.615,0.0,5.8615,12.874,-15.152,-10.017,-10.05,5.9333,-1.0407,-4.7712,5.9837
0.0,-15.219,-4.1333,10.891,7.7023,6.1168,-8.1218,5.817,-1.0101,10.891,7.7023,-0.98039,0.06441,4.0066,-14.141,-14.992,-12.06,4.9333,-1.0407,-9.6732,-2.7967
5.9406,-11.178,-0.13333,14.851,11.586,8.1787,-7.1066,7.7778,3.0303,14.851,11.586,1.9608,0.06441,-1.9048,-3.0303,-13.997,-4.0201,-9.0667,1.8862,-6.732,-8.6504
19.802,0.94276,11.867,25.743,24.207001,21.580999,8.1218,18.562,16.162001,25.743,24.207001,14.706,7.7939,-3.8752,13.131,-4.0464,10.05,4.9333,15.545,6.0131,-6.6992
22.771999,8.0135,17.867001,34.653,33.916,30.858999,21.32,27.386,27.273001,34.653,33.916,25.49,3.9291,-15.698,17.172001,-4.0464,15.075,10.933,14.569,6.0131,-13.528
21.782,12.054,19.867001,44.554001,44.595001,37.044998,32.487,30.327,32.323002,44.554001,44.595001,34.313999,-14.428,-28.506001,9.0909,-9.0216,8.0402,9.9333,2.8618,-8.6928,-19.382
29.702999,27.205,31.867001,55.445999,53.333,50.446999,48.730999,42.091999,39.394001,55.445999,53.333,50.0,-23.124001,-26.535,14.141,-5.0415,7.0352,21.933001,12.618,-3.7908,-10.602
26.733,34.276001,33.867001,58.416,54.304001,49.416,53.806999,44.051998,40.403999,58.416,54.304001,53.922001,-17.327,-21.608999,18.181999,-2.0564,7.0352,23.933001,16.52,8.9542,-1.8211
26.733,38.316002,33.867001,49.505001,50.421001,43.23,51.777,36.209,45.455002,49.505001,50.421001,46.077999,16.49,4.9918,38.383999,12.869,22.111,9.9333,27.252001,35.424999,14.764
23.761999,28.215,21.867001,43.563999,45.566002,27.766001,39.594002,25.424999,39.394001,43.563999,45.566002,33.333,25.184999,20.754999,38.383999,18.839001,25.125999,13.933,25.301001,39.346001,23.545
13.861,14.074,8.8667,38.613998,42.653999,18.488001,28.426001,24.444,31.313,38.613998,42.653999,19.608,25.184999,29.622,26.263,17.844,20.101,23.933001,1.8862,30.523001,25.496
14.851,11.044,8.8667,42.574001,43.625,18.488001,24.365,30.327,25.253,42.574001,43.625,20.587999,30.016001,36.519001,15.152,17.844,15.075,21.933001,1.8862,22.68,27.447001
15.842,14.074,12.867,34.653,37.799,18.488001,23.35,26.405001,24.242001,34.653,37.799,18.627001,22.287001,36.519001,8.0808,16.849001,12.06,12.933,11.642,11.895,27.447001
13.861,17.104,13.867,29.702999,34.887001,11.271,19.289,13.66,28.283001,29.702999,34.887001,17.646999,9.7262,26.667,-4.0404,15.854,7.0352,2.9333,11.642,-4.7712,25.496
4.9505,9.0236,5.8667,26.733,33.916,10.241,14.213,15.621,23.232,26.733,33.916,9.8039,-0.90177,19.77,-14.141,10.879,1.005,-1.0667,8.7154,-16.535999,15.74
1.9802,0.94276,0.86667,29.702999,30.032,12.302,9.1371,22.483999,19.191999,29.702999,30.032,9.8039,5.8615,20.754999,-15.152,8.8889,1.005,5.9333,6.7642,-13.595,16.715
1.9802,2.963,1.8667,30.693001,34.887001,15.395,13.198,18.562,25.253,30.693001,34.887001,11.765,17.455999,21.740999,-5.0505,8.8889,5.0251,6.9333,16.52,-0.84967,16.715
7.9208,14.074,9.8667,33.662998,40.712002,14.364,18.274,17.582001,31.313,33.662998,40.712002,17.646999,21.32,20.754999,9.0909,12.869,12.06,6.9333,21.398001,11.895,16.715
13.861,27.205,15.867,36.633999,42.653999,19.518999,25.381001,25.424999,33.333,36.633999,42.653999,20.587999,19.388,21.740999,21.212,19.834,18.09,10.933,18.472,22.68,21.593
7.9208,30.236,12.867,37.624001,39.741001,19.518999,21.32,32.287998,31.313,37.624001,39.741001,16.667,14.557,19.77,17.172001,20.829,13.065,7.9333,19.447001,22.68,25.496
8.9109,31.246,10.867,35.644001,33.916,20.549999,20.305,32.287998,28.283001,35.644001,33.916,15.686,24.219,32.577999,21.212,31.774,17.084999,13.933,27.252001,27.582001,40.130001
13.861,32.256001,14.867,33.662998,33.916,22.612,22.334999,32.287998,32.323002,33.662998,33.916,15.686,40.644001,57.209,33.333,47.695,29.146,32.932999,33.105999,34.444,59.641998
14.851,22.155001,7.8667,29.702999,30.032,18.488001,15.228,25.424999,27.273001,29.702999,30.032,12.745,42.576,56.223,27.273001,46.700001,25.125999,27.933001,18.472,30.523001,54.764
25.743,23.165001,12.867,28.712999,28.091,25.704,16.243999,32.287998,29.292999,28.712999,28.091,13.725,47.407001,49.327,33.333,45.705002,29.146,23.933001,15.545,35.424999,49.886002
40.594002,28.215,22.867001,30.693001,27.120001,30.858999,19.289,32.287998,33.333,30.693001,27.120001,22.549,44.508999,42.43,36.363998,41.724998,33.166,24.933001,29.202999,36.404999,45.984001
31.683001,20.135,19.867001,21.782,24.207001,27.766001,18.274,25.424999,28.283001,21.782,24.207001,17.646999,24.219,21.740999,20.202,20.829,21.106001,21.933001,22.374001,22.68,20.618
15.842,5.9933,10.867,20.792,24.207001,21.580999,16.243999,20.523001,23.232,20.792,24.207001,16.667,-3.8003,-9.7865,-10.101,-6.0365,-3.0151,11.933,-0.06504,-1.8301,-10.602
4.9505,1.9529,4.8667,17.822001,24.207001,21.580999,17.259001,21.503,22.222,17.822001,24.207001,13.725,-19.259001,-24.565001,-25.253,-18.972,-17.084999,7.9333,12.618,-14.575,-23.285
4.9505,8.0135,5.8667,20.792,24.207001,17.457001,18.274,16.601,23.232,20.792,24.207001,16.667,-16.361,-26.535,-23.232,-20.962,-19.094999,10.933,14.569,-16.535999,-17.431
6.9307,19.125,12.867,19.802,26.149,18.488001,26.396,9.7386,32.323002,19.802,26.149,19.608,-9.5974,-20.624001,-10.101,-18.972,-12.06,10.933,18.472,-9.6732,-6.6992
6.9307,18.114,11.867,21.782,26.149,14.364,23.35,6.7974,33.333,21.782,26.149,18.627001,-9.5974,-15.698,-3.0303,-13.997,-7.0352,9.9333,21.398001,-5.7516,-5.7236
20.792,28.215,17.867001,26.733,31.003,25.704,28.426001,18.562,34.342999,26.733,31.003,21.569,-3.8003,-0.91954,18.181999,7.8939,13.065,19.933001,26.275999,11.895,5.9837
37.624001,41.347,28.867001,34.653,34.887001,29.827999,31.472,27.386,36.363998,34.653,34.887001,27.451,0.06441,9.9179,36.363998,31.774,33.166,26.933001,33.105999,26.601,19.642
40.594002,41.347,31.867001,27.723,29.061001,23.643,25.381001,19.542,27.273001,27.723,29.061001,21.569,10.692,16.813999,42.424,44.709999,42.210999,27.933001,37.007999,35.424999,27.447001
33.662998,33.265999,27.867001,19.802,22.264999,12.302,14.213,10.719,19.191999,19.802,22.264999,12.745,29.049999,24.695999,41.414001,45.705002,42.210999,18.933001,13.593,37.386002,32.325001
36.633999,29.226,25.867001,19.802,21.294001,17.457001,13.198,19.542,19.191999,19.802,21.294001,13.725,41.610001,35.534,43.433998,47.695,42.210999,23.933001,11.642,42.287998,41.105999
44.554001,31.246,30.867001,24.752001,26.149,26.735001,18.274,26.405001,25.253,24.752001,26.149,19.608,49.34,44.401001,51.514999,49.685001,47.236,32.932999,27.252001,49.150002,43.056999
46.535,30.236,33.867001,30.693001,26.149,29.827999,20.305,30.327,25.253,30.693001,26.149,22.549,52.237999,43.415001,51.514999,44.709999,46.230999,41.932999,28.228001,50.131001,35.251999
34.653,19.125,25.867001,20.792,16.440001,18.488001,12.183,26.405001,17.172001,20.792,16.440001,13.725,39.678001,32.577999,39.394001,26.799,33.166,42.932999,21.398001,40.327,20.618
23.761999,17.104,19.867001,18.812,18.382,13.333,12.183,22.483999,21.212,18.812,18.382,12.745,27.118,27.652,23.232,20.829,23.115999,24.933001,16.52,27.582001,20.618
13.861,19.125,16.867001,14.851,19.353001,13.333,14.213,17.582001,26.263,14.851,19.353001,10.784,28.084,32.577999,17.172001,20.829,20.101,27.933001,16.52,22.68,26.472
10.891,17.104,12.867,15.842,15.469,8.1787,11.168,17.582001,20.202,15.842,15.469,9.8039,32.915001,33.563,16.162001,20.829,16.08,31.933001,19.447001,24.641001,31.35
12.871,21.145,12.867,15.842,15.469,8.1787,15.228,24.444,17.172001,15.842,15.469,7.8431,33.881001,31.593,21.212,17.844,16.08,31.933001,28.228001,30.523001,30.374001
18.812,26.195,13.867,25.743,22.264999,7.1478,21.32,22.483999,24.242001,25.743,22.264999,14.706,34.847,31.593,24.242001,19.834,19.094999,21.933001,36.033001,34.444,34.276001
25.743,33.265999,16.867001,24.752001,28.091,13.333,24.365,20.523001,33.333,24.752001,28.091,14.706,42.576,45.386002,39.394001,33.764999,33.166,41.932999,41.886002,45.229,46.959
33.662998,36.296001,21.867001,28.712999,31.974001,17.457001,21.32,28.365999,32.323002,28.712999,31.974001,16.667,47.407001,59.179001,50.505001,52.669998,45.226002,46.932999,50.667,53.071999,59.641998
24.752001,26.195,15.867,24.752001,26.149,13.333,12.183,29.346001,20.202,24.752001,26.149,8.8235,36.778999,58.194,42.424,54.66,42.210999,36.932999,37.007999,45.229,56.715
26.733,24.174999,18.867001,28.712999,28.091,14.364,13.198,29.346001,22.222,28.712999,28.091,14.706,31.948,52.282001,37.374001,53.665001,41.206001,28.933001,27.252001,38.366001,53.789001
31.683001,31.246,28.867001,32.673,33.916,24.674,25.381001,22.483999,32.323002,32.673,33.916,24.51,33.881001,43.415001,39.394001,50.68,44.221001,23.933001,35.056999,35.424999,46.959
32.673,31.246,32.867001,36.633999,36.827999,30.858999,27.410999,25.424999,33.333,36.633999,36.827999,30.392,28.084,28.636999,37.374001,42.720001,42.210999,26.933001,33.105999,28.562,33.300999
31.683001,25.184999,28.867001,42.574001,37.799,38.076,26.396,37.189999,28.283001,42.574001,37.799,30.392,26.150999,21.740999,33.333,33.764999,36.181,33.932999,32.130001,27.582001,21.593
29.702999,21.145,26.867001,44.554001,38.77,37.044998,25.381001,41.111,27.273001,44.554001,38.77,30.392,24.219,22.726,28.283001,28.789,31.156,23.933001,36.033001,27.582001,18.667
43.563999,31.246,40.867001,50.494999,48.479,46.323002,36.548,44.051998,38.383999,50.494999,48.479,42.157001,33.881001,36.519001,39.394001,37.744999,41.206001,38.932999,32.130001,34.444,30.374001
53.465,41.347,55.867001,49.505001,50.421001,49.416,45.685001,38.169998,46.465,49.505001,50.421001,49.02,42.576,42.43,49.494999,41.724998,50.250999,53.932999,34.081001,40.327,36.228001
52.474998,43.367001,56.867001,49.505001,50.421001,48.384998,48.730999,37.189999,45.455002,49.505001,50.421001,50.0,32.915001,29.622,40.403999,32.769001,44.221001,50.932999,33.105999,30.523001,28.423
46.535,46.396999,50.867001,51.485001,52.362,49.416,53.806999,45.033001,50.505001,51.485001,52.362,49.02,25.184999,19.77,36.363998,25.804001,37.186001,34.932999,41.886002,31.503,26.472
36.633999,45.387001,39.867001,53.465,52.362,39.106998,51.777,38.169998,51.514999,53.465,52.362,45.098,29.049999,15.829,31.313,25.804001,33.166,30.933001,46.764,33.464001,28.423
28.712999,39.327,30.867001,43.563999,45.566002,30.858999,42.639999,32.287998,42.424,43.563999,45.566002,33.333,27.118,16.813999,31.313,29.784,33.166,32.932999,39.935001,35.424999,27.447001
33.662998,41.347,33.867001,42.574001,40.712002,29.827999,36.548,29.346001,36.363998,42.574001,40.712002,33.333,25.184999,25.681,37.374001,40.73,42.210999,12.933,27.252001,35.424999,31.35
35.644001,47.407001,40.867001,42.574001,42.653999,34.983002,40.609001,28.365999,37.374001,42.574001,42.653999,35.293999,30.016001,38.488998,41.414001,52.669998,51.256001,24.933001,28.228001,33.464001,40.130001
22.771999,37.306,31.867001,41.584,40.712002,25.704,34.518002,24.444,34.342999,41.584,40.712002,30.392,19.388,27.652,23.232,44.709999,39.195999,29.933001,25.301001,12.876,30.374001
13.861,26.195,21.867001,36.633999,39.741001,21.580999,29.441999,26.405001,33.333,36.633999,39.741001,22.549,15.523,17.799999,14.141,30.778999,25.125999,18.933001,21.398001,6.0131,16.715
15.842,22.155001,19.867001,36.633999,37.799,21.580999,27.410999,24.444,33.333,36.633999,37.799,25.49,22.287001,14.844,16.162001,22.819,20.101,13.933,21.398001,11.895,12.813
20.792,21.145,20.867001,37.624001,39.741001,31.889999,31.472,31.306999,33.333,37.624001,39.741001,28.431,24.219,15.829,20.202,17.844,18.09,14.933,17.496,18.757999,9.8862
22.771999,18.114,18.867001,40.594002,39.741001,32.921001,31.472,35.229,32.323002,40.594002,39.741001,31.372999,22.287001,16.813999,20.202,13.864,15.075,24.933001,14.569,22.68,8.9106
16.832001,10.034,9.8667,34.653,35.858002,24.674,24.365,24.444,31.313,34.653,35.858002,22.549,15.523,14.844,15.152,7.8939,8.0402,26.933001,10.667,14.837,5.0081
18.812,8.0135,8.8667,34.653,36.827999,25.704,23.35,25.424999,33.333,34.653,36.827999,23.528999,16.49,14.844,13.131,6.8988,6.0302,9.9333,8.7154,10.915,5.9837
20.792,10.034,12.867,40.594002,39.741001,32.921001,29.441999,34.248001,34.342999,40.594002,39.741001,30.392,12.625,8.9327,10.101,2.9187,6.0302,8.9333,12.618,6.0131,2.0813
22.771999,13.064,19.867001,44.554001,43.625,38.076,34.518002,40.131001,36.363998,44.554001,43.625,35.293999,7.7939,3.0213,13.131,-2.0564,11.055,16.933001,16.52,4.0523,0.13008
30.693001,22.155001,30.867001,45.544998,43.625,40.137001,39.594002,34.248001,39.394001,45.544998,43.625,40.195999,12.625,8.9327,24.242001,5.9038,23.115999,16.933001,28.228001,6.9935,7.935
31.683001,35.285999,36.867001,36.633999,36.827999,33.952,40.609001,27.386,39.394001,36.633999,36.827999,37.255001,25.184999,22.726,38.383999,22.819,39.195999,19.933001,36.033001,16.797001,17.691
29.702999,39.327,34.867001,39.604,38.77,29.827999,37.563,28.365999,37.374001,39.604,38.77,34.313999,26.150999,32.577999,37.374001,39.735001,45.226002,29.933001,20.423,13.856,31.35
24.752001,34.276001,30.867001,40.594002,38.77,29.827999,32.487,27.386,33.333,40.594002,38.77,29.412001,15.523,38.488998,33.333,47.695,45.226002,14.933,5.7886,10.915,40.130001
22.771999,28.215,29.867001,44.554001,39.741001,28.797001,33.502998,22.483999,33.333,44.554001,39.741001,34.313999,9.7262,33.563,26.263,46.700001,38.191002,0.93333,10.667,8.9542,42.081001
6.9307,14.074,16.867001,32.673,31.974001,17.457001,25.381001,20.523001,27.273001,32.673,31.974001,20.587999,3.9291,21.740999,12.121,30.778999,19.094999,-13.067,5.7886,4.0523,24.52
0.0,10.034,6.8667,26.733,24.207001,7.1478,17.259001,15.621,19.191999,26.733,24.207001,14.706,6.8277,14.844,1.0101,21.823999,6.0302,0.93333,7.7398,1.1111,16.715
-1.9802,13.064,1.8667,22.771999,22.264999,9.2096,17.259001,13.66,20.202,22.771999,22.264999,12.745,6.8277,13.859,-4.0404,17.844,-3.0151,11.933,21.398001,3.0719,16.715
-7.9208,5.9933,-9.1333,21.782,20.323999,-0.06873,8.1218,8.7582,18.181999,21.782,20.323999,5.8824,-2.8341,1.0509,-13.131,4.9088,-16.08,4.9333,16.52,-3.7908,3.0569
-6.9307,0.94276,-10.133,19.802,19.353001,3.0241,5.0761,8.7582,17.172001,19.802,19.353001,1.9608,-11.53,-6.8309,-13.131,-5.0415,-19.094999,12.933,0.91057,-8.6928,-7.6748
0.0,0.94276,-3.1333,22.771999,21.294001,6.1168,7.1066,9.7386,18.181999,22.771999,21.294001,8.8235,-8.6312,-9.7865,-7.0707,-7.0315,-12.06,-1.0667,-3.9675,-4.7712,-13.528
7.9208,8.0135,5.8667,27.723,25.177999,13.333,14.213,20.523001,19.191999,27.723,25.177999,13.725,1.0306,-8.8013,5.0505,-2.0564,2.0101,-7.0667,1.8862,5.0327,-13.528
11.881,17.104,13.867,31.683001,25.177999,17.457001,19.289,22.483999,22.222,31.683001,25.177999,18.627001,0.06441,-12.742,12.121,1.9237,12.06,9.9333,13.593,6.0131,-13.528
10.891,18.114,16.867001,26.733,21.294001,15.395,20.305,15.621,23.232,26.733,21.294001,15.686,-0.90177,-19.639,14.141,0.92869,15.075,-6.0667,3.8374,6.9935,-16.455
16.832001,24.174999,24.867001,29.702999,26.149,17.457001,24.365,18.562,28.283001,29.702999,26.149,20.587999,3.9291,-12.742,22.222,7.8939,23.115999,4.9333,-2.0163,14.837,-6.6992
10.891,13.064,18.867001,26.733,26.149,13.333,20.305,9.7386,25.253,26.733,26.149,18.627001,-3.8003,-13.727,12.121,1.9237,16.08,9.9333,-0.06504,7.9739,-3.7724
3.9604,1.9529,9.8667,22.771999,23.236,11.271,14.213,11.699,19.191999,22.771999,23.236,13.725,0.06441,-8.8013,5.0505,-3.0514,7.0352,1.9333,9.6911,6.9935,2.0813
7.9208,1.9529,9.8667,24.752001,22.264999,14.364,18.274,16.601,21.212,24.752001,22.264999,18.627001,8.7601,3.0213,3.0303,0.92869,5.0251,2.9333,4.813,8.9542,10.862
5.9406,5.9933,10.867,17.822001,19.353001,11.271,17.259001,10.719,24.242001,17.822001,19.353001,15.686,12.625,11.888,1.0101,5.9038,3.0151,2.9333,5.7886,12.876,14.764
-8.9109,-3.0976,-5.1333,5.9406,7.7023,-5.2234,-1.0152,-3.0065,10.101,5.9406,7.7023,0.98039,2.963,4.9918,-18.181999,-1.0614,-15.075,-2.0667,8.7154,-1.8301,6.9593
-11.881,0.94276,-10.133,0.0,0.90615,-5.2234,-5.0761,-3.0065,6.0606,0.0,0.90615,-3.9216,5.8615,12.874,-18.181999,3.9138,-18.09,-9.0667,4.813,-3.7908,11.837
-4.9505,9.0236,-7.1333,5.9406,4.7896,1.9931,2.0305,-3.0065,11.111,5.9406,4.7896,5.8824,5.8615,19.77,-14.141,8.8889,-14.07,-5.0667,5.7886,-3.7908,22.569
-9.901,1.9529,-10.133,1.9802,3.8188,1.9931,4.0609,-3.0065,8.0808,1.9802,3.8188,2.9412,-14.428,8.9327,-19.191999,-5.0415,-21.106001,-2.0667,-1.0407,-13.595,6.9593
-4.9505,-4.1077,-8.1333,7.9208,7.7023,1.9931,4.0609,0.91503,7.0707,7.9208,7.7023,5.8824,-13.462,-3.8752,-12.121,-15.987,-19.094999,-4.0667,-3.9675,-9.6732,-12.553
2.9703,-4.1077,-3.1333,10.891,9.644,9.2096,3.0457,5.817,3.0303,10.891,9.644,5.8824,2.963,-6.8309,7.0707,-16.982,-7.0352,-4.0667,-2.0163,6.9935,-18.407
15.842,4.9832,8.8667,17.822001,12.557,15.395,8.1218,9.7386,7.0707,17.822001,12.557,14.706,6.8277,-11.757,20.202,-9.0216,6.0302,6.9333,-0.06504,13.856,-13.528
14.851,8.0135,10.867,19.802,17.410999,19.518999,18.274,9.7386,16.162001,19.802,17.410999,18.627001,-4.7665,-18.653999,20.202,-6.0365,11.055,0.93333,5.7886,8.9542,-13.528
18.812,12.054,15.867,22.771999,22.264999,20.549999,23.35,9.7386,21.212,22.771999,22.264999,25.49,-4.7665,-16.683001,18.181999,-1.0614,13.065,10.933,7.7398,8.9542,-11.577
24.752001,21.145,24.867001,23.761999,25.177999,27.766001,30.457001,8.7582,23.232,23.761999,25.177999,31.372999,4.8953,1.0509,18.181999,10.879,19.094999,22.933001,1.8862,10.915,1.1057
24.752001,26.195,26.867001,24.752001,24.207001,27.766001,29.441999,11.699,21.212,24.752001,24.207001,30.392,8.7601,14.844,16.162001,22.819,21.106001,4.9333,6.7642,8.9542,13.789
18.812,22.155001,17.867001,19.802,17.410999,23.643,22.334999,12.68,16.162001,19.802,17.410999,22.549,8.7601,19.77,8.0808,26.799,15.075,-0.06667,12.618,6.0131,18.667
12.871,13.064,8.8667,12.871,10.615,19.518999,13.198,9.7386,14.141,12.871,10.615,16.667,12.625,18.785,3.0303,20.829,7.0352,8.9333,10.667,9.9346,15.74
6.9307,-0.06734,-2.1333,9.901,4.7896,15.395,1.0152,1.8954,5.0505,9.901,4.7896,8.8235,10.692,6.9622,-2.0202,4.9088,-6.0302,9.9333,6.7642,7.9739,1.1057
8.9109,3.9731,-2.1333,6.9307,2.8479,14.364,-1.0152,4.8366,4.0404,6.9307,2.8479,5.8824,14.557,6.9622,11.111,3.9138,-1.005,20.933001,2.8618,16.797001,-0.84553
12.871,10.034,-1.1333,6.9307,1.877,12.302,1.0152,7.7778,1.0101,6.9307,1.877,5.8824,17.455999,7.9475,20.202,9.8839,8.0402,19.933001,-6.8943,19.739,5.0081
10.891,14.074,3.8667,4.9505,1.877,11.271,5.0761,6.7974,1.0101,4.9505,1.877,4.902,12.625,4.9918,22.222,10.879,13.065,9.9333,-4.9431,17.778,3.0569
9.901,13.064,6.8667,8.9109,5.7605,9.2096,4.0609,1.8954,2.0202,8.9109,5.7605,8.8235,5.8615,-1.9048,15.152,8.8889,14.07,1.9333,0.91057,8.9542,-1.8211
4.9505,4.9832,5.8667,7.9208,6.7314,11.271,2.0305,6.7974,2.0202,7.9208,6.7314,5.8824,-0.90177,-0.91954,11.111,3.9138,13.065,-5.0667,8.7154,2.0915,-5.7236
-4.9505,-5.1178,-3.1333,10.891,7.7023,7.1478,2.0305,1.8954,2.0202,10.891,7.7023,6.8627,-5.7327,-1.9048,-3.0303,-4.0464,4.0201,-3.0667,-1.0407,-7.7124,-7.6748
-14.851,-8.1481,-9.1333,4.9505,5.7605,0.9622,4.0609,-9.8693,2.0202,4.9505,5.7605,1.9608,-6.6989,1.0509,-11.111,-8.0265,-3.0151,-9.0667,-5.9187,-11.634,-3.7724
-10.891,-3.0976,-7.1333,7.9208,6.7314,-1.0997,7.1066,-10.85,5.0505,7.9208,6.7314,5.8824,-2.8341,4.0066,-13.131,-6.0365,-4.0201,-11.067,5.7886,-6.732,5.0081
-13.861,-3.0976,-11.133,6.9307,4.7896,-1.0997,3.0457,-4.9673,4.0404,6.9307,4.7896,0.0,-6.6989,-4.8604,-18.181999,-11.012,-12.06,-11.067,9.6911,-7.7124,-0.84553
-18.812,-8.1481,-21.132999,4.9505,0.90615,-7.2852,-6.0914,-3.0065,3.0303,4.9505,0.90615,-5.8824,-22.158001,-16.683001,-31.313,-13.997,-25.125999,-9.0667,3.8374,-23.399,-2.7967
-15.842,-10.168,-25.132999,1.9802,2.8479,-3.1615,-4.0609,-2.0261,5.0505,1.9802,2.8479,-6.8627,-34.717999,-15.698,-35.354,-7.0315,-28.141001,-3.0667,1.8862,-35.162998,2.0813
-12.871,-7.138,-24.132999,-2.9703,0.90615,-7.2852,-7.1066,-9.8693,3.0303,-2.9703,0.90615,-7.8431,-24.09,-6.8309,-24.242001,1.9237,-21.106001,-6.0667,-0.06504,-25.358999,5.9837
-8.9109,-2.0875,-25.132999,-5.9406,-2.9773,-11.409,-10.152,-8.8889,1.0101,-5.9406,-2.9773,-14.706,3.9291,6.9622,-3.0303,8.8889,-11.055,-12.067,-1.0407,1.1111,10.862
-11.881,0.94276,-24.132999,-4.9505,-2.9773,-14.502,-11.168,-5.9477,1.0101,-4.9505,-2.9773,-15.686,17.455999,10.903,8.0808,9.8839,-6.0302,-4.0667,4.813,14.837,12.813
-9.901,5.9933,-17.132999,0.9901,3.8188,-9.3471,-3.0457,-8.8889,5.0505,0.9901,3.8188,-5.8824,17.455999,7.9475,11.111,7.8939,-3.0151,3.9333,12.618,17.778,11.837
-10.891,1.9529,-16.132999,4.9505,6.7314,-4.1924,0.0,0.91503,8.0808,4.9505,6.7314,-3.9216,9.7262,0.06568,10.101,-0.06634,-3.0151,11.933,1.8862,16.797001,2.0813
-7.9208,-9.1582,-16.132999,14.851,12.557,0.9622,3.0457,13.66,12.121,14.851,12.557,0.0,3.9291,-4.8604,7.0707,-9.0216,-4.0201,11.933,-3.9675,10.915,-7.6748
-4.9505,-17.239,-13.133,17.822001,14.498,3.0241,6.0914,10.719,13.131,17.822001,14.498,2.9412,5.8615,-3.8752,11.111,-14.992,0.0,0.93333,-6.8943,11.895,-11.577
-5.9406,-17.239,-7.1333,25.743,23.236,4.055,13.198,8.7582,17.172001,25.743,23.236,10.784,9.7262,-3.8752,5.0505,-15.987,3.0151,3.9333,-1.0407,6.9935,-9.626
-9.901,-7.138,-0.13333,26.733,27.120001,9.2096,21.32,14.641,21.212,26.733,27.120001,15.686,4.8953,-5.8456,-6.0606,-13.002,3.0151,4.9333,2.8618,-0.84967,-7.6748
-3.9604,10.034,7.8667,32.673,31.003,15.395,29.441999,17.582001,27.273001,32.673,31.003,26.471001,0.06441,-7.8161,-13.131,-3.0514,4.0201,-1.0667,11.642,-6.732,-2.7967
2.9703,20.135,11.867,30.693001,32.945,21.580999,31.472,15.621,29.292999,30.693001,32.945,25.49,-1.868,-1.9048,-10.101,6.8988,5.0251,7.9333,18.472,-6.732,5.0081
15.842,30.236,18.867001,34.653,35.858002,23.643,29.441999,22.483999,32.323002,34.653,35.858002,28.431,-1.868,8.9327,-4.0404,23.813999,10.05,18.933001,24.325001,-6.732,21.593
26.733,39.327,27.867001,33.662998,36.827999,29.827999,31.472,25.424999,37.374001,33.662998,36.827999,29.412001,5.8615,22.726,8.0808,38.740002,19.094999,16.933001,37.984001,5.0327,36.228001
31.683001,39.327,31.867001,34.653,32.945,28.797001,30.457001,25.424999,35.354,34.653,32.945,30.392,32.915001,37.504002,27.273001,46.700001,29.146,15.933,43.837002,22.68,40.130001
28.712999,31.246,25.867001,28.712999,26.149,26.735001,26.396,24.444,26.263,28.712999,26.149,24.51,47.407001,43.415001,39.394001,41.724998,32.160999,21.933001,30.179001,36.404999,34.276001
24.752001,27.205,22.867001,25.743,25.177999,22.612,24.365,19.542,23.232,25.743,25.177999,23.528999,42.576,40.459999,43.433998,34.759998,30.150999,18.933001,30.179001,41.306999,30.374001
17.822001,23.165001,18.867001,17.822001,21.294001,18.488001,22.334999,13.66,20.202,17.822001,21.294001,17.646999,31.948,30.608,38.383999,25.804001,26.131001,24.933001,22.374001,38.366001,22.569
9.901,12.054,14.867,11.881,14.498,9.2096,14.213,7.7778,12.121,11.881,14.498,12.745,13.591,11.888,26.263,11.874,20.101,15.933,-7.8699,22.68,6.9593
14.851,9.0236,19.867001,13.861,14.498,11.271,16.243999,8.7582,8.0808,13.861,14.498,17.646999,10.692,8.9327,23.232,9.8839,22.111,8.9333,-11.772,16.797001,6.9593
11.881,2.963,20.867001,15.842,17.410999,17.457001,19.289,13.66,10.101,15.842,17.410999,23.528999,3.9291,6.9622,12.121,4.9088,17.084999,-3.0667,-1.0407,6.0131,5.0081
0.0,-13.199,9.8667,18.812,18.382,18.488001,16.243999,11.699,3.0303,18.812,18.382,22.549,-18.292999,-10.772,-15.152,-15.987,-5.0251,0.93333,-6.8943,-14.575,-9.626
-8.9109,-22.290001,6.8667,16.832001,16.440001,16.426001,12.183,8.7582,2.0202,16.832001,16.440001,18.627001,-23.124001,-23.58,-27.273001,-34.891998,-18.09,1.9333,-13.724,-19.476999,-24.26
-6.9307,-22.290001,8.8667,19.802,15.469,16.426001,12.183,7.7778,8.0808,19.802,15.469,19.608,-15.395,-29.490999,-29.292999,-43.847,-23.115999,-4.0667,-10.797,-14.575,-33.041
0.0,-11.178,10.867,17.822001,16.440001,18.488001,14.213,11.699,9.0909,17.822001,16.440001,18.627001,-9.5974,-19.639,-21.212,-36.882,-16.08,-5.0667,-5.9187,-7.7124,-28.163
7.9208,3.9731,10.867,21.782,18.382,14.364,15.228,9.7386,7.0707,21.782,18.382,21.569,-5.7327,-5.8456,-11.111,-17.976999,-5.0251,-0.06667,-2.9919,-7.7124,-12.553
11.881,13.064,8.8667,20.792,21.294001,14.364,16.243999,11.699,5.0505,20.792,21.294001,18.627001,-6.6989,0.06568,-1.0101,-4.0464,3.0151,7.9333,3.8374,-8.6928,-2.7967
14.851,17.104,9.8667,24.752001,23.236,15.395,15.228,17.582001,5.0505,24.752001,23.236,20.587999,-3.8003,1.0509,1.0101,6.8988,5.0251,12.933,5.7886,-3.7908,11.837
3.9604,16.094,4.8667,17.822001,17.410999,10.241,13.198,13.66,7.0707,17.822001,17.410999,11.765,8.7601,9.9179,3.0303,13.864,3.0151,16.933001,8.7154,8.9542,26.472
-9.901,3.9731,-8.1333,9.901,6.7314,-6.2543,1.0152,4.8366,1.0101,9.901,6.7314,0.0,8.7601,12.874,-2.0202,11.874,-4.0201,-4.0667,8.7154,9.9346,24.52
-15.842,-7.138,-16.132999,0.0,-1.0356,-11.409,-6.0914,-3.0065,-9.0909,0.0,-1.0356,-8.8235,5.8615,14.844,-2.0202,5.9038,-7.0352,-10.067,-0.06504,9.9346,12.813
-13.861,-16.229,-17.132999,0.0,-1.0356,-9.3471,-6.0914,0.91503,-14.141,0.0,-1.0356,-4.902,4.8953,5.977,-3.0303,-4.0464,-9.0452,-1.0667,-20.552999,6.9935,-0.84553
-13.861,-19.259001,-14.133,-4.9505,-2.0065,-6.2543,-4.0609,-3.9869,-13.131,-4.9505,-2.0065,-3.9216,-9.5974,-4.8604,-7.0707,-12.007,-10.05,-3.0667,-24.455,-4.7712,-11.577
-17.822001,-18.249001,-14.133,-10.891,-9.7735,-12.44,-9.1371,-11.83,-13.131,-10.891,-9.7735,-5.8824,-18.292999,-13.727,-15.152,-14.992,-12.06,-17.066999,-22.504,-16.535999,-17.431
-17.822001,-16.229,-12.133,-3.9604,-6.8608,-8.3162,-9.1371,-5.9477,-12.121,-3.9604,-6.8608,-4.902,-18.292999,-13.727,-19.191999,-12.007,-9.0452,-17.066999,-14.699,-21.438,-18.407
-3.9604,-11.178,0.86667,5.9406,-0.06472,1.9931,-4.0609,4.8366,-10.101,5.9406,-0.06472,5.8824,-7.6651,-6.8309,-11.111,-6.0365,0.0,-7.0667,-5.9187,-12.614,-14.504
-3.9604,-20.268999,-0.13333,3.9604,0.90615,3.0241,-6.0914,0.91503,-13.131,3.9604,0.90615,3.9216,-20.225,-21.608999,-21.212,-19.966999,-11.055,-9.0667,-13.724,-22.417999,-29.138
-6.9307,-26.33,-8.1333,3.9604,2.8479,3.0241,-2.0305,-0.06536,-7.0707,3.9604,2.8479,1.9608,-30.853001,-38.358002,-25.253,-38.872002,-26.131001,-11.067,-20.552999,-24.379,-44.748001
-5.9406,-19.259001,-10.133,10.891,10.615,5.0859,10.152,0.91503,1.0101,10.891,10.615,8.8235,-25.056,-41.313999,-20.202,-43.847,-31.156,-12.067,-21.528,-18.497,-48.650002
-15.842,-14.209,-15.133,2.9703,7.7023,-5.2234,4.0609,-3.9869,1.0101,2.9703,7.7023,-0.98039,-26.023001,-47.224998,-21.212,-43.847,-32.160999,-21.066999,-11.772,-21.438,-51.577
-8.9109,1.9529,-6.1333,5.9406,6.7314,-3.1615,3.0457,-4.9673,4.0404,5.9406,6.7314,2.9412,-27.955,-44.269001,-16.162001,-26.931999,-22.111,-14.067,1.8862,-17.516001,-34.015999
-7.9208,7.0034,-3.1333,1.9802,4.7896,-1.0997,3.0457,-4.9673,3.0303,1.9802,4.7896,0.0,-33.751999,-36.388,-13.131,-13.997,-16.08,-5.0667,5.7886,-11.634,-18.407
-5.9406,2.963,-7.1333,1.9802,0.90615,-1.0997,-3.0457,0.91503,-6.0606,1.9802,0.90615,-0.98039,-22.158001,-21.608999,-8.0808,-5.0415,-14.07,-2.0667,0.91057,-2.8105,-3.7724
-6.9307,-1.0774,-10.133,-6.9307,-7.8317,-3.1615,-7.1066,-3.0065,-13.131,-6.9307,-7.8317,-8.8235,-4.7665,-4.8604,4.0404,1.9237,-8.0402,-7.0667,-3.9675,11.895,6.9593
-9.901,-9.1582,-14.133,-12.871,-14.628,-12.44,-17.259001,-7.9085,-20.202,-12.871,-14.628,-14.706,-3.8003,-6.8309,1.0101,-1.0614,-8.0402,-11.067,-15.675,6.9935,1.1057
-15.842,-15.219,-18.132999,-21.782,-20.452999,-16.563999,-25.381001,-14.771,-27.273001,-21.782,-20.452999,-21.569,-15.395,-13.727,-7.0707,-7.0315,-10.05,-15.067,-23.48,-9.6732,-9.626
-18.812,-17.239,-18.132999,-26.733,-25.306999,-21.718,-30.457001,-24.575001,-27.273001,-26.733,-25.306999,-20.587999,-23.124001,-15.698,-18.181999,-10.017,-13.065,-18.066999,-26.407,-23.399,-11.577
-27.723,-27.34,-25.132999,-30.693001,-28.219999,-19.656,-27.410999,-20.653999,-23.232,-30.693001,-28.219999,-22.549,-32.785999,-20.624001,-36.363998,-20.962,-26.131001,-27.066999,-18.601999,-34.182999,-17.431
-29.702999,-30.370001,-24.132999,-23.761999,-23.365999,-14.502,-18.274,-14.771,-16.162001,-23.761999,-23.365999,-13.725,-36.651001,-25.549999,-48.485001,-30.912001,-35.175999,-30.066999,-12.748,-41.046001,-24.26
-16.832001,-20.268999,-14.133,-16.832001,-15.599,-5.2234,-6.0914,-13.791,-13.131,-16.832001,-15.599,-3.9216,-34.717999,-30.476,-42.424,-35.887001,-33.166,-30.066999,-18.601999,-41.046001,-32.064999
-3.9604,-11.178,-8.1333,-11.881,-8.8026,-4.1924,-4.0609,-11.83,-14.141,-11.881,-8.8026,0.0,-27.955,-36.388,-23.232,-35.887001,-26.131001,-15.067,-24.455,-32.222,-35.966999
2.9703,-3.0976,-6.1333,-8.9109,-8.8026,-4.1924,-2.0305,-8.8889,-14.141,-8.9109,-8.8026,-1.9608,-22.158001,-38.358002,-7.0707,-26.931999,-16.08,-3.0667,-21.528,-22.417999,-27.187
-7.9208,-0.06734,-10.133,-12.871,-11.715,-11.409,-4.0609,-8.8889,-13.131,-12.871,-11.715,-9.8039,-26.023001,-34.417,-3.0303,-17.976999,-9.0452,-14.067,-19.577,-22.417999,-25.236
-11.881,5.9933,-8.1333,-8.9109,-7.8317,-13.471,-2.0305,-12.81,-10.101,-8.9109,-7.8317,-7.8431,-24.09,-18.653999,-2.0202,-1.0614,1.005,-16.066999,-9.8211,-22.417999,-16.455
-8.9109,8.0135,-4.1333,-13.861,-10.744,-10.378,-6.0914,-14.771,-12.121,-13.861,-10.744,-8.8235,-22.158001,-1.9048,0.0,10.879,8.0402,-21.066999,-7.8699,-20.458,-4.748
-0.9901,5.9933,-2.1333,-15.842,-16.57,-6.2543,-11.168,-13.791,-18.181999,-15.842,-16.57,-6.8627,-9.5974,12.874,3.0303,19.834,11.055,-18.066999,-13.724,-14.575,10.862
-2.9703,0.94276,-4.1333,-16.832001,-16.57,-4.1924,-11.168,-9.8693,-19.191999,-16.832001,-16.57,-8.8235,-0.90177,17.799999,-2.0202,19.834,6.0302,-9.0667,-8.8455,-11.634,17.691
-9.901,-4.1077,-6.1333,-11.881,-14.628,-6.2543,-7.1066,-9.8693,-16.162001,-11.881,-14.628,-4.902,-3.8003,9.9179,-13.131,11.874,-5.0251,-16.066999,-16.65,-15.556,12.813
-19.802,-9.1582,-9.1333,-16.832001,-15.599,-8.3162,-7.1066,-16.732,-15.152,-16.832001,-15.599,-7.8431,-9.5974,1.0509,-17.172001,0.92869,-11.055,-31.066999,-17.625999,-16.535999,1.1057
-25.743,-17.239,-14.133,-18.812,-18.511,-12.44,-14.213,-21.634001,-17.172001,-18.812,-18.511,-10.784,-16.361,-15.698,-27.273001,-10.017,-18.09,-27.066999,-9.8211,-23.399,-10.602
-13.861,-9.1582,-5.1333,-18.812,-14.628,-1.0997,-7.1066,-11.83,-10.101,-18.812,-14.628,-4.902,-8.6312,-9.7865,-19.191999,-4.0464,-7.0352,-15.067,-1.0407,-18.497,-5.7236
-8.9109,-10.168,-7.1333,-17.822001,-17.540001,-6.2543,-10.152,-15.752,-7.0707,-17.822001,-17.540001,-7.8431,-11.53,-9.7865,-19.191999,-3.0514,-6.0302,-21.066999,-4.9431,-26.34,-2.7967
-9.901,-13.199,-15.133,-23.761999,-24.337,-12.44,-16.243999,-20.653999,-10.101,-23.761999,-24.337,-19.608,-14.428,-13.727,-15.152,-8.0265,-9.0452,-9.0667,0.91057,-27.32,-5.7236
-7.9208,-5.1178,-15.133,-21.782,-24.337,-16.563999,-19.289,-16.732,-10.101,-21.782,-24.337,-20.587999,-11.53,-18.653999,-4.0404,-10.017,-5.0251,-9.0667,5.7886,-16.535999,-7.6748
-10.891,-4.1077,-16.132999,-21.782,-22.395,-17.594999,-21.32,-12.81,-13.131,-21.782,-22.395,-24.51,-18.292999,-26.535,2.0202,-14.992,-4.0201,-21.066999,6.7642,-11.634,-18.407
-12.871,-1.0774,-13.133,-15.842,-16.57,-14.502,-18.274,-11.83,-12.121,-15.842,-16.57,-18.627001,-18.292999,-28.506001,1.0101,-12.007,-1.005,-20.066999,-4.9431,-8.6928,-21.333
-11.881,3.9731,-9.1333,-11.881,-11.715,-9.3471,-11.168,-13.791,-10.101,-11.881,-11.715,-13.725,-16.361,-23.58,-4.0404,-5.0415,-1.005,-13.067,-9.8211,-5.7516,-14.504
-3.9604,10.034,-0.13333,-6.9307,-4.9191,-6.2543,-6.0914,-13.791,-7.0707,-6.9307,-4.9191,-5.8824,-5.7327,-9.7865,0.0,4.9088,3.0151,-8.0667,4.813,4.0523,1.1057
-3.9604,4.9832,2.8667,-3.9604,-4.9191,-6.2543,-7.1066,-13.791,-15.152,-3.9604,-4.9191,-2.9412,-1.868,-1.9048,-3.0303,6.8988,1.005,-9.0667,-0.06504,0.13072,4.0325
-8.9109,0.94276,6.8667,-4.9505,-5.89,-4.1924,-7.1066,-7.9085,-19.191999,-4.9505,-5.89,-0.98039,-2.8341,1.0509,-5.0505,6.8988,2.0101,-18.066999,-1.0407,-8.6928,0.13008
-8.9109,1.9529,6.8667,-3.9604,-4.9191,-4.1924,-4.0609,-6.9281,-11.111,-3.9604,-4.9191,0.0,-5.7327,1.0509,-8.0808,7.8939,2.0101,-14.067,-4.9431,-16.535999,0.13008
-10.891,3.9731,-2.1333,-12.871,-10.744,-10.378,-9.1371,-12.81,-7.0707,-12.871,-10.744,-9.8039,-2.8341,5.977,-11.111,8.8889,0.0,-7.0667,-5.9187,-15.556,5.0081
-15.842,-3.0976,-17.132999,-12.871,-11.715,-21.718,-18.274,-15.752,-10.101,-12.871,-11.715,-20.587999,-2.8341,4.0066,-22.222,1.9237,-9.0452,-15.067,-3.9675,-15.556,5.0081
-20.792,-12.189,-29.132999,-12.871,-13.657,-24.811001,-23.35,-8.8889,-15.152,-12.871,-13.657,-29.412001,-16.361,-3.8752,-30.302999,-9.0216,-19.094999,-26.066999,-2.9919,-21.438,-2.7967
-12.871,-7.138,-21.132999,-3.9604,-8.8026,-18.625,-17.259001,-3.9869,-12.121,-3.9604,-8.8026,-18.627001,-15.395,-5.8456,-23.232,-9.0216,-16.08,-10.067,0.91057,-22.417999,-5.7236
-11.881,-3.0976,-13.133,-1.9802,-1.0356,-9.3471,-6.0914,-4.9673,-5.0505,-1.9802,-1.0356,-10.784,-15.395,-14.713,-16.162001,-15.987,-15.075,1.9333,-0.06504,-17.516001,-17.431
-9.901,-4.1077,-10.133,3.9604,2.8479,-7.2852,-4.0609,-4.9673,-4.0404,3.9604,2.8479,-3.9216,-17.327,-29.490999,-12.121,-24.941999,-17.084999,-6.0667,-2.9919,-12.614,-26.211
-12.871,-10.168,-14.133,0.0,0.90615,-11.409,-7.1066,-7.9085,-9.0909,0.0,0.90615,-10.784,-13.462,-30.476,-5.0505,-28.922001,-17.084999,-18.066999,-3.9675,-4.7712,-25.236
-9.901,-13.199,-15.133,-3.9604,-5.89,-19.656,-15.228,-12.81,-12.121,-3.9604,-5.89,-16.667,-8.6312,-21.608999,1.0101,-20.962,-12.06,-14.067,-9.8211,3.0719,-16.455
2.9703,-3.0976,-5.1333,-4.9505,-6.8608,-11.409,-11.168,-10.85,-11.111,-4.9505,-6.8608,-12.745,-0.90177,-7.8161,11.111,-7.0315,1.005,-5.0667,-5.9187,13.856,-1.8211
1.9802,-2.0875,-0.13333,0.9901,-2.9773,-3.1615,-7.1066,-0.06536,-12.121,0.9901,-2.9773,-2.9412,3.9291,-3.8752,8.0808,-5.0415,2.0101,6.9333,-3.9675,14.837,3.0569
-8.9109,-12.189,-6.1333,0.0,-6.8608,-3.1615,-11.168,4.8366,-19.191999,0.0,-6.8608,-6.8627,3.9291,-4.8604,-2.0202,-10.017,-3.0151,4.9333,-13.724,5.0327,-4.748
-4.9505,-11.178,-3.1333,0.0,-7.8317,-3.1615,-10.152,-0.06536,-16.162001,0.0,-7.8317,-3.9216,11.659,7.9475,2.0202,-0.06634,3.0151,-4.0667,-9.8211,2.0915,1.1057
5.9406,-16.229,-2.1333,2.9703,-1.0356,4.055,-7.1066,1.8954,-10.101,2.9703,-1.0356,-0.98039,19.388,15.829,6.0606,4.9088,6.0302,1.9333,-6.8943,3.0719,3.0569
7.9208,-23.299999,-9.1333,1.9802,1.877,7.1478,-10.152,7.7778,-8.0808,1.9802,1.877,-4.902,9.7262,5.977,1.0101,-6.0365,-2.0101,2.9333,2.8618,-0.84967,-5.7236
-0.9901,-25.32,-24.132999,0.9901,-0.06472,-1.0997,-15.228,1.8954,-10.101,0.9901,-0.06472,-11.765,-18.292999,-18.653999,-15.152,-22.952,-19.094999,-5.0667,-10.797,-15.556,-23.285
-8.9109,-18.249001,-29.132999,-1.9802,-0.06472,-4.1924,-12.183,-2.0261,-8.0808,-1.9802,-0.06472,-14.706,-35.683998,-26.535,-19.191999,-28.922001,-24.121,-2.0667,-16.65,-22.417999,-29.138
-10.891,-14.209,-27.132999,0.9901,-1.0356,-4.1924,-12.183,0.91503,-7.0707,0.9901,-1.0356,-12.745,-28.921,-24.565001,-18.181999,-26.931999,-23.115999,-9.0667,-10.797,-21.438,-25.236
-16.832001,-22.290001,-32.132999,-0.9901,-6.8608,-6.2543,-19.289,1.8954,-15.152,-0.9901,-6.8608,-19.608,-21.191999,-26.535,-17.172001,-31.907,-26.131001,-19.066999,-17.625999,-18.497,-29.138
-10.891,-15.219,-26.132999,4.9505,-1.0356,-4.1924,-14.213,-0.06536,-15.152,4.9505,-1.0356,-11.765,-8.6312,-21.608999,-10.101,-23.947001,-20.101,-0.06667,-17.625999,-9.6732,-20.358
-9.901,-4.1077,-17.132999,2.9703,1.877,0.9622,-1.0152,-2.0261,-7.0707,2.9703,1.877,-4.902,-0.90177,-15.698,-3.0303,-13.002,-12.06,6.9333,-10.797,-0.84967,-11.577
-11.881,-3.0976,-10.133,5.9406,0.90615,-0.06873,3.0457,0.91503,-5.0505,5.9406,0.90615,0.98039,1.9968,-15.698,0.0,-6.0365,-7.0352,-10.067,-2.0163,-0.84967,-9.626
-17.822001,-7.138,-8.1333,-2.9703,-4.9191,-9.3471,-2.0305,-6.9281,-9.0909,-2.9703,-4.9191,-5.8824,-0.90177,-7.8161,0.0,-1.0614,-3.0151,-16.066999,-0.06504,-0.84967,-5.7236
-24.752001,-18.249001,-14.133,-12.871,-13.657,-28.934999,-14.213,-19.673,-17.172001,-12.871,-13.657,-16.667,-12.496,-5.8456,-9.0909,-3.0514,-7.0352,-3.0667,-9.8211,-11.634,-4.748
-21.782,-24.309999,-18.132999,-20.792,-14.628,-34.089001,-19.289,-17.712,-16.162001,-20.792,-14.628,-26.471001,-4.7665,4.9918,-9.0909,-2.0564,-8.0402,0.93333,-16.65,-8.6928,-2.7967
-15.842,-29.360001,-21.132999,-20.792,-16.57,-32.027,-22.334999,-14.771,-14.141,-20.792,-16.57,-26.471001,-4.7665,8.9327,-14.141,-1.0614,-11.055,-3.0667,-12.748,-11.634,1.1057
-20.792,-39.460999,-32.132999,-20.792,-16.57,-28.934999,-21.32,-17.712,-13.131,-20.792,-16.57,-26.471001,-13.462,-4.8604,-27.273001,-13.997,-26.131001,-12.067,-2.9919,-17.516001,-6.6992
-32.673,-41.480999,-41.132999,-22.771999,-14.628,-38.213001,-23.35,-24.575001,-11.111,-22.771999,-14.628,-30.392,-21.191999,-24.565001,-39.394001,-27.927,-39.195999,-28.066999,-9.8211,-24.379,-18.407
-31.683001,-28.35,-36.132999,-30.693001,-16.57,-47.491001,-22.334999,-33.398998,-10.101,-30.693001,-16.57,-36.275002,-24.09,-32.446999,-36.363998,-26.931999,-33.166,-28.066999,-16.65,-28.301001,-20.358
-19.802,-7.138,-22.132999,-32.673,-19.482,-42.337002,-18.274,-29.476999,-7.0707,-32.673,-19.482,-31.372999,-25.056,-23.58,-18.181999,-10.017,-15.075,-17.066999,-4.9431,-19.476999,-9.626
-20.792,-9.1582,-22.132999,-30.693001,-22.395,-37.181999,-24.365,-30.458,-14.141,-30.693001,-22.395,-32.353001,-38.583,-20.624001,-18.181999,-5.0415,-12.06,-16.066999,-1.0407,-18.497,-7.6748
-29.702999,-16.229,-24.132999,-32.673,-23.365999,-38.213001,-29.441999,-32.417999,-20.202,-32.673,-23.365999,-35.293999,-41.480999,-22.594,-20.202,-8.0265,-14.07,-15.067,-6.8943,-21.438,-14.504
-30.693001,-14.209,-18.132999,-24.752001,-17.540001,-37.181999,-21.32,-32.417999,-18.181999,-24.752001,-17.540001,-27.451,-31.82,-22.594,-21.212,-9.0216,-13.065,-11.067,-3.9675,-23.399,-18.407
-29.702999,-8.1481,-12.133,-20.792,-12.686,-29.966,-12.183,-23.594999,-12.121,-20.792,-12.686,-21.569,-21.191999,-18.653999,-16.162001,-5.0415,-6.0302,-22.066999,-9.8211,-17.516001,-18.407
-31.683001,-11.178,-15.133,-17.822001,-14.628,-30.997,-12.183,-23.594999,-10.101,-17.822001,-14.628,-20.587999,-19.259001,-20.624001,-18.181999,-3.0514,-6.0302,-32.067001,-23.48,-18.497,-14.504
-34.653,-13.199,-19.132999,-25.743,-17.540001,-34.089001,-15.228,-26.535999,-10.101,-25.743,-17.540001,-26.471001,-15.395,-15.698,-18.181999,-2.0564,-9.0452,-21.066999,-18.601999,-16.535999,-6.6992
-31.683001,-18.249001,-22.132999,-28.712999,-22.395,-37.181999,-21.32,-29.476999,-13.131,-28.712999,-22.395,-28.431,-8.6312,-12.742,-19.191999,-5.0415,-14.07,-23.066999,-7.8699,-16.535999,-3.7724
-25.743,-30.370001,-27.132999,-33.662998,-28.219999,-34.089001,-28.426001,-26.535999,-22.222,-33.662998,-28.219999,-32.353001,-5.7327,-9.7865,-16.162001,-12.007,-18.09,-24.066999,-21.528,-13.595,-13.528
-20.792,-42.492001,-34.132999,-35.644001,-32.104,-34.089001,-35.533001,-27.516001,-29.292999,-35.644001,-32.104,-32.353001,-7.6651,-12.742,-18.181999,-21.957001,-23.115999,-13.067,-25.431,-17.516001,-26.211
-21.782,-43.501999,-34.132999,-37.624001,-31.132999,-33.057999,-33.502998,-32.417999,-32.323002,-37.624001,-31.132999,-32.353001,-5.7327,-10.772,-17.172001,-25.937,-23.115999,-14.067,-28.358,-16.535999,-31.089001
-14.851,-26.33,-20.132999,-28.712999,-24.337,-25.841999,-25.381001,-30.458,-27.273001,-28.712999,-24.337,-20.587999,-0.90177,-4.8604,-12.121,-18.972,-14.07,-16.066999,-32.259998,-13.595,-22.309
-9.901,-9.1582,-8.1333,-22.771999,-19.482,-13.471,-15.228,-21.634001,-21.212,-22.771999,-19.482,-12.745,0.06441,-0.91954,-7.0707,-11.012,-5.0251,-10.067,-22.504,-9.6732,-16.455
-9.901,-4.1077,-4.1333,-17.822001,-15.599,-10.378,-9.1371,-18.693001,-19.191999,-17.822001,-15.599,-4.902,-1.868,-2.89,-8.0808,-6.0365,-3.0151,-15.067,-12.748,-8.6928,-13.528
-14.851,-7.138,-6.1333,-14.851,-12.686,-7.2852,-7.1066,-14.771,-17.172001,-14.851,-12.686,-1.9608,-6.6989,-7.8161,-11.111,-6.0365,-5.0251,-20.066999,-15.675,-9.6732,-14.504
-17.822001,-4.1077,-2.1333,-10.891,-8.8026,-6.2543,-5.0761,-14.771,-13.131,-10.891,-8.8026,0.98039,-13.462,-8.8013,-11.111,-2.0564,-3.0151,-18.066999,-4.9431,-11.634,-12.553
-18.812,-2.0875,0.86667,-9.901,-7.8317,-9.3471,-4.0609,-19.673,-13.131,-9.901,-7.8317,0.98039,-14.428,-7.8161,-12.121,-0.06634,-2.0101,-13.067,-6.8943,-13.595,-11.577
-6.9307,10.034,11.867,-2.9703,-3.9482,-3.1615,6.0914,-11.83,-8.0808,-2.9703,-3.9482,8.8235,-1.868,3.0213,2.0202,9.8839,8.0402,-0.06667,-7.8699,-2.8105,0.13008
-4.9505,9.0236,9.8667,-0.9901,-2.9773,-5.2234,6.0914,-10.85,-7.0707,-0.9901,-2.9773,7.8431,5.8615,3.0213,1.0101,7.8939,4.0201,-5.0667,-11.772,2.0915,2.0813
-13.861,-5.1178,-2.1333,-10.891,-7.8317,-14.502,-9.1371,-8.8889,-13.131,-10.891,-7.8317,-7.8431,-1.868,-5.8456,-10.101,-3.0514,-9.0452,-8.0667,-16.65,-3.7908,-7.6748
-12.871,-13.199,-10.133,-15.842,-14.628,-19.656,-19.289,-16.732,-17.172001,-15.842,-14.628,-13.725,-1.868,-2.89,-13.131,-3.0514,-12.06,-11.067,-15.675,-4.7712,-3.7724
-17.822001,-18.249001,-19.132999,-28.712999,-21.424,-26.872999,-23.35,-28.497,-16.162001,-28.712999,-21.424,-22.549,0.06441,2.0361,-12.121,-4.0464,-13.065,-7.0667,-11.772,-3.7908,-5.7236
-17.822001,-21.278999,-22.132999,-25.743,-21.424,-28.934999,-22.334999,-26.535999,-17.172001,-25.743,-21.424,-21.569,-5.7327,-2.89,-17.172001,-13.002,-18.09,-7.0667,-12.748,-9.6732,-14.504
-6.9307,-10.168,-9.1333,-19.802,-15.599,-17.594999,-11.168,-21.634001,-11.111,-19.802,-15.599,-12.745,-1.868,0.06568,-6.0606,-13.997,-9.0452,-6.0667,-5.9187,-3.7908,-13.528
0.9901,-2.0875,0.86667,-9.901,-10.744,-9.3471,-6.0914,-13.791,-5.0505,-9.901,-10.744,-3.9216,-3.8003,-4.8604,-1.0101,-13.002,-4.0201,-8.0667,4.813,-2.8105,-12.553
-2.9703,-2.0875,0.86667,-7.9208,-10.744,-6.2543,-7.1066,-6.9281,-10.101,-7.9208,-10.744,-5.8824,-10.564,-11.757,-1.0101,-13.002,-3.0151,-16.066999,-9.8211,-3.7908,-13.528
-6.9307,-2.0875,1.8667,-3.9604,-5.89,-7.2852,-6.0914,-9.8693,-8.0808,-3.9604,-5.89,-2.9412,-17.327,-14.713,-6.0606,-7.0315,-3.0151,-20.066999,-12.748,-10.654,-9.626
-11.881,1.9529,1.8667,-3.9604,-1.0356,-5.2234,2.0305,-13.791,1.0101,-3.9604,-1.0356,-2.9412,-12.496,-9.7865,-6.0606,0.92869,0.0,-23.066999,2.8618,-8.6928,-6.6992
-15.842,1.9529,-1.1333,-0.9901,-1.0356,-8.3162,1.0152,-7.9085,-3.0303,-0.9901,-1.0356,-2.9412,-14.428,-11.757,-13.131,0.92869,-5.0251,-13.067,-5.9187,-10.654,-7.6748
-9.901,3.9731,0.86667,0.9901,-1.0356,-5.2234,4.0609,-2.0261,-2.0202,0.9901,-1.0356,-0.98039,-11.53,-8.8013,-9.0909,3.9138,-4.0201,8.9333,-2.9919,-1.8301,-1.8211
-6.9307,-3.0976,-2.1333,-1.9802,-0.06472,-9.3471,0.0,-8.8889,-1.0101,-1.9802,-0.06472,-2.9412,-13.462,-9.7865,-6.0606,0.92869,-4.0201,4.9333,-2.0163,0.13072,-0.84553
-7.9208,-14.209,-10.133,-3.9604,-1.0356,-9.3471,-7.1066,-3.9869,-7.0707,-3.9604,-1.0356,-8.8235,-14.428,-15.698,-7.0707,-7.0315,-11.055,0.93333,-16.65,-1.8301,-9.626
0.0,-7.138,-5.1333,-3.9604,-3.9482,-5.2234,-5.0761,3.8562,-5.0505,-3.9604,-3.9482,-5.8824,-7.6651,-11.757,1.0101,-4.0464,-5.0251,13.933,-9.8211,4.0523,-8.6504
2.9703,0.94276,0.86667,-2.9703,-3.9482,-4.1924,1.0152,-4.9673,0.0,-2.9703,-3.9482,0.0,-6.6989,-6.8309,2.0202,-0.06634,0.0,3.9333,5.7886,0.13072,-4.748
0.0,1.9529,2.8667,-1.9802,-2.9773,-5.2234,2.0305,-3.9869,5.0505,-1.9802,-2.9773,0.0,-3.8003,-3.8752,2.0202,-3.0514,1.005,-2.0667,1.8862,-0.84967,-4.748
0.9901,1.9529,3.8667,-1.9802,-3.9482,-6.2543,1.0152,-1.0458,2.0202,-1.9802,-3.9482,-0.98039,-0.90177,-8.8013,0.0,-6.0365,1.005,-2.0667,-1.0407,-0.84967,-6.6992
2.9703,4.9832,5.8667,-6.9307,-7.8317,-3.1615,-1.0152,-0.06536,1.0101,-6.9307,-7.8317,-3.9216,6.8277,-3.8752,7.0707,-1.0614,7.0352,5.9333,5.7886,5.0327,-2.7967
5.9406,1.9529,5.8667,-4.9505,-8.8026,-3.1615,-6.0914,-1.0458,-4.0404,-4.9505,-8.8026,-2.9412,17.455999,-0.91954,12.121,1.9237,10.05,6.9333,4.813,12.876,-4.748
1.9802,-1.0774,1.8667,-6.9307,-10.744,-1.0997,-8.1218,3.8562,-9.0909,-6.9307,-10.744,-6.8627,5.8615,-4.8604,5.0505,-1.0614,4.0201,1.9333,-7.8699,8.9542,-4.748
-1.9802,-1.0774,-0.13333,-6.9307,-10.744,-6.2543,-6.0914,-1.0458,-8.0808,-6.9307,-10.744,-4.902,-12.496,-7.8161,-8.0808,-2.0564,-4.0201,3.9333,-14.699,-4.7712,-2.7967
-7.9208,-6.1279,-6.1333,-16.832001,-15.599,-11.409,-8.1218,-13.791,-5.0505,-16.832001,-15.599,-11.765,-19.259001,-1.9048,-14.141,-2.0564,-10.05,1.9333,-10.797,-9.6732,-0.84553
-15.842,-19.259001,-19.132999,-27.723,-24.337,-25.841999,-21.32,-22.614,-10.101,-27.723,-24.337,-23.528999,-23.124001,-8.8013,-24.242001,-11.012,-22.111,-9.0667,-17.625999,-18.497,-9.626
-17.822001,-25.32,-23.132999,-38.613998,-32.104,-27.903999,-26.396,-24.575001,-18.181999,-38.613998,-32.104,-30.392,-19.259001,-15.698,-21.212,-19.966999,-25.125999,-9.0667,-13.724,-16.535999,-19.382
-8.9109,-19.259001,-15.133,-35.644001,-30.162001,-22.749001,-23.35,-22.614,-16.162001,-35.644001,-30.162001,-21.569,-7.6651,-16.683001,-12.121,-18.972,-18.09,-2.0667,-4.9431,-10.654,-19.382
-7.9208,-15.219,-12.133,-32.673,-26.278,-17.594999,-21.32,-18.693001,-11.111,-32.673,-26.278,-21.569,-3.8003,-15.698,-9.0909,-18.972,-13.065,2.9333,-2.9919,-9.6732,-18.407
-10.891,-15.219,-14.133,-30.693001,-24.337,-24.811001,-21.32,-19.673,-9.0909,-30.693001,-24.337,-22.549,-7.6651,-19.639,-10.101,-20.962,-14.07,-6.0667,-7.8699,-11.634,-20.358
-9.901,-15.219,-15.133,-29.702999,-23.365999,-27.903999,-20.305,-22.614,-12.121,-29.702999,-23.365999,-24.51,-18.292999,-24.565001,-15.152,-26.931999,-19.094999,-19.066999,-16.65,-14.575,-23.285
-6.9307,-11.178,-10.133,-23.761999,-21.424,-21.718,-17.259001,-15.752,-12.121,-23.761999,-21.424,-19.608,-21.191999,-20.624001,-15.152,-23.947001,-18.09,-10.067,-24.455,-13.595,-17.431
-4.9505,-6.1279,-6.1333,-20.792,-19.482,-17.594999,-13.198,-15.752,-7.0707,-20.792,-19.482,-14.706,-18.292999,-11.757,-10.101,-10.017,-10.05,3.9333,-10.797,-11.634,-1.8211
-6.9307,-8.1481,-6.1333,-20.792,-20.452999,-16.563999,-13.198,-17.712,-7.0707,-20.792,-20.452999,-14.706,-11.53,-11.757,-3.0303,-4.0464,-4.0201,-9.0667,-2.0163,-5.7516,-0.84553
-3.9604,-9.1582,-5.1333,-15.842,-17.540001,-12.44,-12.183,-17.712,-7.0707,-15.842,-17.540001,-11.765,0.06441,-9.7865,4.0404,-2.0564,0.0,-6.0667,-1.0407,2.0915,-4.748
9.901,2.963,6.8667,-15.842,-12.686,-7.2852,-6.0914,-11.83,1.0101,-15.842,-12.686,-6.8627,17.455999,9.9179,22.222,10.879,15.075,15.933,8.7154,19.739,6.9593
14.851,9.0236,12.867,-15.842,-14.628,-11.409,-9.1371,-10.85,-3.0303,-15.842,-14.628,-6.8627,24.219,15.829,25.253,17.844,19.094999,17.933001,1.8862,24.641001,12.813
8.9109,8.0135,10.867,-16.832001,-16.57,-12.44,-10.152,-10.85,-8.0808,-16.832001,-16.57,-8.8235,10.692,9.9179,13.131,11.874,11.055,8.9333,-1.0407,13.856,6.9593
-3.9604,-3.0976,-1.1333,-10.891,-12.686,-13.471,-7.1066,-16.732,-3.0303,-10.891,-12.686,-4.902,-10.564,-8.8013,-10.101,-4.0464,-8.0402,-4.0667,-2.0163,-6.732,-6.6992
-17.822001,-18.249001,-16.132999,-16.832001,-13.657,-16.563999,-14.213,-19.673,-5.0505,-16.832001,-13.657,-14.706,-21.191999,-21.608999,-22.222,-21.957001,-24.121,-16.066999,-18.601999,-19.476999,-22.309
-11.881,-18.249001,-15.133,-13.861,-13.657,-16.563999,-19.289,-16.732,-9.0909,-13.861,-13.657,-13.725,-11.53,-15.698,-16.162001,-21.957001,-20.101,-9.0667,-16.65,-16.535999,-20.358
-11.881,-17.239,-14.133,-15.842,-14.628,-14.502,-19.289,-11.83,-10.101,-15.842,-14.628,-16.667,-1.868,-6.8309,-10.101,-20.962,-16.08,-0.06667,-6.8943,-9.6732,-18.407
-14.851,-18.249001,-16.132999,-11.881,-14.628,-15.533,-18.274,-5.9477,-10.101,-11.881,-14.628,-14.706,-7.6651,-7.8161,-18.181999,-25.937,-21.106001,-4.0667,-4.9431,-14.575,-20.358
-8.9109,-13.199,-11.133,-10.891,-13.657,-7.2852,-11.168,-3.9869,-5.0505,-10.891,-13.657,-9.8039,-15.395,-9.7865,-18.181999,-29.917,-22.111,-9.0667,-3.9675,-15.556,-22.309
0.9901,-7.138,-3.1333,-7.9208,-10.744,-4.1924,-7.1066,-3.9869,-3.0303,-7.9208,-10.744,-2.9412,-15.395,-11.757,-11.111,-26.931999,-16.08,-0.06667,-12.748,-10.654,-22.309
11.881,4.9832,8.8667,-7.9208,-7.8317,0.9622,2.0305,-2.0261,-1.0101,-7.9208,-7.8317,0.98039,2.963,2.0361,6.0606,-10.017,1.005,11.933,-3.9675,5.0327,-7.6748
13.861,14.074,10.867,-8.9109,-6.8608,-4.1924,2.0305,-5.9477,2.0202,-8.9109,-6.8608,0.0,16.49,19.77,16.162001,10.879,14.07,10.933,4.813,12.876,11.837
-2.9703,5.9933,-3.1333,-12.871,-9.7735,-11.409,-5.0761,-14.771,-1.0101,-12.871,-9.7735,-7.8431,14.557,21.740999,6.0606,15.854,9.0452,8.9333,9.6911,5.0327,16.715
-16.832001,-5.1178,-14.133,-17.822001,-13.657,-12.44,-9.1371,-17.712,-5.0505,-17.822001,-13.657,-11.765,6.8277,12.874,-10.101,9.8839,-4.0201,-8.0667,4.813,-6.732,9.8862
-5.9406,-2.0875,-5.1333,-15.842,-15.599,-2.1306,-3.0457,-8.8889,-3.0303,-15.842,-15.599,-3.9216,-0.90177,5.977,-11.111,7.8939,-5.0251,-24.066999,-1.0407,-11.634,5.9837
4.9505,0.94276,2.8667,-17.822001,-17.540001,-0.06873,0.0,-9.8693,-3.0303,-17.822001,-17.540001,-2.9412,-12.496,-2.89,-7.0707,4.9088,-4.0201,-24.066999,-10.797,-14.575,0.13008
4.9505,-3.0976,-3.1333,-17.822001,-17.540001,-8.3162,-7.1066,-16.732,-7.0707,-17.822001,-17.540001,-6.8627,-18.292999,-10.772,-9.0909,-3.0514,-8.0402,-14.067,-15.675,-17.516001,-8.6504
-8.9109,-6.1279,-14.133,-18.812,-17.540001,-8.3162,-8.1218,-11.83,-10.101,-18.812,-17.540001,-9.8039,-24.09,-11.757,-16.162001,-8.0265,-15.075,-5.0667,-8.8455,-20.458,-11.577
-23.761999,-12.189,-20.132999,-12.871,-12.686,-5.2234,-5.0761,-10.85,-8.0808,-12.871,-12.686,-3.9216,-27.955,-17.667999,-31.313,-16.982,-26.131001,-8.0667,-4.9431,-31.242001,-15.48
-25.743,-16.229,-17.132999,-13.861,-8.8026,-4.1924,-3.0457,-10.85,-5.0505,-13.861,-8.8026,-3.9216,-24.09,-22.594,-32.323002,-26.931999,-31.156,-19.066999,-6.8943,-32.222,-20.358
-16.832001,-21.278999,-16.132999,-14.851,-13.657,-10.378,-11.168,-11.83,-9.0909,-14.851,-13.657,-7.8431,-16.361,-26.535,-24.242001,-34.891998,-30.150999,-25.066999,-7.8699,-26.34,-22.309
-11.881,-25.32,-22.132999,-17.822001,-19.482,-13.471,-17.259001,-13.791,-14.141,-17.822001,-19.482,-17.646999,-10.564,-29.490999,-13.131,-39.867001,-26.131001,-17.066999,-8.8455,-14.575,-26.211
-9.901,-27.34,-27.132999,-13.861,-18.511,-14.502,-17.259001,-14.771,-11.111,-13.861,-18.511,-17.646999,-20.225,-35.402,-12.121,-39.867001,-24.121,-6.0667,-18.601999,-14.575,-28.163
-15.842,-26.33,-26.132999,-18.812,-20.452999,-12.44,-17.259001,-16.732,-16.162001,-18.812,-20.452999,-18.627001,-39.549,-35.402,-17.172001,-33.896999,-22.111,-12.067,-20.552999,-20.458,-24.26
-24.752001,-17.239,-19.132999,-20.792,-22.395,-13.471,-20.305,-17.712,-19.191999,-20.792,-22.395,-15.686,-39.549,-26.535,-24.242001,-19.966999,-18.09,-18.066999,-9.8211,-26.34,-13.528
-29.702999,-12.189,-18.132999,-22.771999,-22.395,-11.409,-16.243999,-17.712,-19.191999,-22.771999,-22.395,-15.686,-26.989,-17.667999,-26.263,-11.012,-17.084999,-31.066999,-15.675,-26.34,-9.626
-29.702999,-18.249001,-26.132999,-22.771999,-24.337,-15.533,-18.274,-20.653999,-18.181999,-22.771999,-24.337,-16.667,-25.056,-17.667999,-31.313,-13.997,-24.121,-29.066999,-11.772,-28.301001,-13.528
-18.812,-20.268999,-26.132999,-19.802,-24.337,-12.44,-14.213,-19.673,-16.162001,-19.802,-24.337,-14.706,-20.225,-18.653999,-27.273001,-18.972,-28.141001,-17.066999,-12.748,-23.399,-12.553
-11.881,-16.229,-19.132999,-19.802,-26.278,-10.378,-14.213,-13.791,-17.172001,-19.802,-26.278,-12.745,-11.53,-21.608999,-21.212,-20.962,-27.136,-17.066999,-13.724,-17.516001,-14.504
-12.871,-13.199,-15.133,-13.861,-19.482,-6.2543,-9.1371,-10.85,-13.131,-13.861,-19.482,-8.8235,-15.395,-25.549999,-25.253,-22.952,-27.136,-23.066999,-8.8455,-22.417999,-17.431
-17.822001,-14.209,-14.133,-10.891,-13.657,-3.1615,-6.0914,-9.8693,-12.121,-10.891,-13.657,-5.8824,-17.327,-24.565001,-25.253,-25.937,-26.131001,-30.066999,-11.772,-26.34,-22.309
-21.782,-21.278999,-19.132999,-8.9109,-12.686,-7.2852,-10.152,-17.712,-19.191999,-8.9109,-12.686,-6.8627,-17.327,-21.608999,-28.283001,-28.922001,-27.136,-21.066999,-16.65,-28.301001,-26.211
-22.771999,-23.299999,-20.132999,-8.9109,-13.657,-9.3471,-13.198,-17.712,-21.212,-8.9109,-13.657,-10.784,-11.53,-13.727,-23.232,-25.937,-21.106001,-11.067,-17.625999,-23.399,-23.285
-5.9406,-16.229,-10.133,-3.9604,-11.715,-6.2543,-11.168,-13.791,-18.181999,-3.9604,-11.715,-5.8824,-6.6989,-5.8456,-11.111,-16.982,-10.05,-15.067,-13.724,-15.556,-14.504
8.9109,-6.1279,3.8667,-1.9802,-5.89,1.9931,-4.0609,-8.8889,-13.131,-1.9802,-5.89,0.0,-6.6989,-2.89,6.0606,-6.0365,4.0201,-8.0667,1.8862,-6.732,-6.6992
19.802,2.963,12.867,6.9307,-0.06472,10.241,1.0152,-4.9673,-11.111,6.9307,-0.06472,9.8039,-0.90177,-2.89,18.181999,2.9187,15.075,-4.0667,-0.06504,2.0915,-1.8211
17.822001,5.9933,11.867,8.9109,1.877,15.395,6.0914,3.8562,-8.0808,8.9109,1.877,10.784,7.7939,2.0361,25.253,8.8889,21.106001,3.9333,-9.8211,12.876,2.0813
2.9703,4.9832,5.8667,13.861,6.7314,9.2096,9.1371,0.91503,-2.0202,13.861,6.7314,11.765,10.692,6.9622,11.111,10.879,16.08,-1.0667,-9.8211,6.0131,4.0325
-14.851,-6.1279,-3.1333,6.9307,1.877,-1.0997,3.0457,-4.9673,-4.0404,6.9307,1.877,0.0,8.7601,8.9327,-6.0606,4.9088,4.0201,-16.066999,-6.8943,-4.7712,1.1057
-15.842,-14.209,-7.1333,2.9703,-3.9482,-9.3471,-9.1371,-9.8693,-6.0606,2.9703,-3.9482,-8.8235,1.9968,3.0213,-17.172001,-0.06634,-6.0302,-19.066999,-1.0407,-15.556,-0.84553
-6.9307,-10.168,-5.1333,-0.9901,-2.9773,-6.2543,-9.1371,-10.85,-3.0303,-0.9901,-2.9773,-9.8039,-4.7665,-0.91954,-14.141,-1.0614,-6.0302,-11.067,0.91057,-15.556,0.13008
-4.9505,-7.138,-4.1333,0.0,-0.06472,-6.2543,-8.1218,-3.9869,-1.0101,0.0,-0.06472,-4.902,-6.6989,-3.8752,-11.111,-0.06634,-5.0251,-23.066999,2.8618,-13.595,-2.7967
-8.9109,-7.138,-4.1333,0.9901,-0.06472,-4.1924,-2.0305,-5.9477,-1.0101,0.9901,-0.06472,-1.9608,-2.8341,-3.8752,-10.101,-3.0514,-4.0201,-22.066999,-1.0407,-7.7124,-5.7236
-17.822001,-8.1481,-4.1333,2.9703,1.877,-5.2234,0.0,-12.81,0.0,2.9703,1.877,0.98039,-7.6651,-8.8013,-15.152,-9.0216,-7.0352,-13.067,-2.9919,-10.654,-8.6504
-15.842,-5.1178,-1.1333,2.9703,0.90615,-4.1924,0.0,-12.81,-2.0202,2.9703,0.90615,0.98039,-6.6989,-3.8752,-10.101,-7.0315,-2.0101,-14.067,6.7642,-11.634,-0.84553
1.9802,4.9832,9.8667,5.9406,2.8479,3.0241,3.0457,-3.9869,0.0,5.9406,2.8479,4.902,9.7262,12.874,11.111,4.9088,12.06,0.93333,10.667,4.0523,10.862
11.881,3.9731,10.867,6.9307,5.7605,3.0241,6.0914,-3.9869,3.0303,6.9307,5.7605,4.902,11.659,13.859,17.172001,4.9088,14.07,2.9333,6.7642,10.915,9.8862
8.9109,-5.1178,4.8667,2.9703,2.8479,1.9931,1.0152,-5.9477,0.0,2.9703,2.8479,-0.98039,0.06441,2.0361,12.121,-4.0464,6.0302,-9.0667,-2.9919,6.0131,-1.8211
7.9208,-8.1481,1.8667,4.9505,0.90615,4.055,-2.0305,-2.0261,-5.0505,4.9505,0.90615,0.0,-10.564,-3.8752,4.0404,-5.0415,2.0101,-9.0667,-5.9187,-1.8301,-5.7236
2.9703,-2.0875,4.8667,3.9604,0.90615,7.1478,0.0,3.8562,-5.0505,3.9604,0.90615,0.0,-11.53,3.0213,4.0404,2.9187,7.0352,-6.0667,5.7886,-3.7908,-1.8211
9.901,12.054,14.867,10.891,5.7605,13.333,7.1066,4.8366,4.0404,10.891,5.7605,9.8039,6.8277,16.813999,11.111,18.839001,20.101,6.9333,11.642,2.0915,9.8862
-2.9703,-0.06734,6.8667,4.9505,2.8479,7.1478,0.0,3.8562,1.0101,4.9505,2.8479,-0.98039,-3.8003,4.0066,-3.0303,8.8889,9.0452,-5.0667,-6.8943,-10.654,-0.84553
-12.871,-17.239,-6.1333,4.9505,0.90615,-4.1924,-10.152,-2.0261,-6.0606,4.9505,0.90615,-7.8431,-22.158001,-21.608999,-23.232,-13.002,-13.065,-16.066999,-20.552999,-25.358999,-18.407
-5.9406,-12.189,-2.1333,4.9505,2.8479,3.0241,-2.0305,-0.06536,-2.0202,4.9505,2.8479,-2.9412,-16.361,-22.594,-16.162001,-14.992,-14.07,-14.067,-7.8699,-14.575,-17.431
-4.9505,-8.1481,-2.1333,7.9208,1.877,4.055,-1.0152,3.8562,-3.0303,7.9208,1.877,1.9608,-18.292999,-22.594,-18.181999,-15.987,-18.09,-1.0667,-2.0163,-14.575,-13.528
-8.9109,-10.168,-5.1333,4.9505,-2.0065,3.0241,-4.0609,3.8562,-10.101,4.9505,-2.0065,-2.9412,-18.292999,-21.608999,-18.181999,-16.982,-21.106001,3.9333,-3.9675,-13.595,-12.553
-3.9604,-9.1582,-1.1333,0.9901,-2.9773,-2.1306,-6.0914,1.8954,-10.101,0.9901,-2.9773,-2.9412,-18.292999,-24.565001,-12.121,-15.987,-16.08,-5.0667,-9.8211,-11.634,-14.504
6.9307,-3.0976,6.8667,-4.9505,-6.8608,-1.0997,-3.0457,-0.06536,-6.0606,-4.9505,-6.8608,-1.9608,-12.496,-18.653999,2.0202,-10.017,-3.0151,-1.0667,-5.9187,-3.7908,-9.626
11.881,-1.0774,10.867,-5.9406,-6.8608,-2.1306,-4.0609,-2.0261,-3.0303,-5.9406,-6.8608,0.0,1.0306,-9.7865,11.111,-7.0315,4.0201,4.9333,-2.9919,6.0131,-5.7236
0.9901,-11.178,-0.13333,-14.851,-13.657,-10.378,-13.198,-9.8693,-11.111,-14.851,-13.657,-9.8039,-4.7665,-8.8013,2.0202,-14.992,-3.0151,0.93333,-9.8211,0.13072,-10.602
-7.9208,-19.259001,-9.1333,-23.761999,-21.424,-18.625,-19.289,-15.752,-18.181999,-23.761999,-21.424,-17.646999,-11.53,-10.772,-7.0707,-19.966999,-11.055,-12.067,-15.675,-6.732,-15.48
-16.832001,-23.299999,-17.132999,-26.733,-26.278,-20.687,-20.305,-15.752,-19.191999,-26.733,-26.278,-21.569,-18.292999,-14.713,-19.191999,-21.957001,-19.094999,-15.067,-13.724,-14.575,-16.455
-22.771999,-21.278999,-20.132999,-30.693001,-29.191,-23.780001,-24.365,-17.712,-21.212,-30.693001,-29.191,-26.471001,-25.056,-14.713,-26.263,-19.966999,-23.115999,-5.0667,-11.772,-18.497,-14.504
-21.782,-16.229,-19.132999,-29.702999,-28.219999,-25.841999,-23.35,-21.634001,-19.191999,-29.702999,-28.219999,-24.51,-25.056,-12.742,-28.283001,-14.992,-22.111,-12.067,-13.724,-20.458,-9.626
-24.752001,-17.239,-17.132999,-27.723,-24.337,-21.718,-21.32,-17.712,-17.172001,-27.723,-24.337,-22.549,-30.853001,-17.667999,-30.302999,-17.976999,-23.115999,-21.066999,-13.724,-27.32,-15.48
-21.782,-18.249001,-15.133,-20.792,-20.452999,-18.625,-17.259001,-16.732,-18.181999,-20.792,-20.452999,-16.667,-28.921,-23.58,-32.323002,-20.962,-26.131001,-32.067001,-14.699,-33.202999,-20.358
-15.842,-14.209,-12.133,-15.842,-13.657,-12.44,-11.168,-12.81,-12.121,-15.842,-13.657,-12.745,-15.395,-20.624001,-22.222,-20.962,-23.115999,-16.066999,-8.8455,-20.458,-20.358
-7.9208,-11.178,-9.1333,-11.881,-13.657,-13.471,-10.152,-15.752,-11.111,-11.881,-13.657,-9.8039,-14.428,-19.639,-15.152,-17.976999,-21.106001,-3.0667,-2.0163,-15.556,-17.431
0.0,-7.138,-4.1333,-14.851,-17.540001,-11.409,-9.1371,-13.791,-12.121,-14.851,-17.540001,-11.765,-10.564,-9.7865,-2.0202,-10.017,-9.0452,-2.0667,-1.0407,-7.7124,-13.528
-2.9703,-13.199,-6.1333,-9.901,-17.540001,-12.44,-15.228,-7.9085,-19.191999,-9.901,-17.540001,-11.765,-15.395,-15.698,-5.0505,-15.987,-10.05,-7.0667,-9.8211,-10.654,-22.309
-0.9901,-11.178,-1.1333,-9.901,-15.599,-4.1924,-14.213,-3.0065,-22.222,-9.901,-15.599,-9.8039,-11.53,-12.742,-2.0202,-17.976999,-6.0302,-12.067,-12.748,-8.6928,-23.285
8.9109,-4.1077,6.8667,-9.901,-12.686,-1.0997,-9.1371,-5.9477,-12.121,-9.901,-12.686,-2.9412,5.8615,0.06568,5.0505,-11.012,2.0101,-2.0667,-12.748,0.13072,-10.602
6.9307,-7.138,4.8667,-11.881,-13.657,-1.0997,-9.1371,-6.9281,-10.101,-11.881,-13.657,-6.8627,11.659,4.9918,5.0505,-9.0216,2.0101,1.9333,-17.625999,5.0327,-3.7724
5.9406,-14.209,0.86667,-11.881,-16.57,-10.378,-17.259001,-10.85,-16.162001,-11.881,-16.57,-12.745,6.8277,0.06568,5.0505,-10.017,1.005,-1.0667,-23.48,6.0131,-2.7967
4.9505,-15.219,-0.13333,-17.822001,-20.452999,-13.471,-21.32,-11.83,-22.222,-17.822001,-20.452999,-17.646999,3.9291,-0.91954,7.0707,-6.0365,3.0151,-0.06667,-18.601999,10.915,-2.7967
0.9901,-4.1077,4.8667,-16.832001,-20.452999,-6.2543,-13.198,-4.9673,-19.191999,-16.832001,-20.452999,-7.8431,1.0306,4.0066,2.0202,1.9237,4.0201,4.9333,-9.8211,6.0131,2.0813
-10.891,-2.0875,-2.1333,-17.822001,-17.540001,-4.1924,-7.1066,-4.9673,-10.101,-17.822001,-17.540001,-6.8627,-9.5974,0.06568,-15.152,-2.0564,-8.0402,-5.0667,2.8618,-9.6732,-0.84553
-16.832001,-8.1481,-12.133,-25.743,-23.365999,-14.502,-15.228,-12.81,-9.0909,-25.743,-23.365999,-17.646999,-6.6989,-1.9048,-17.172001,-8.0265,-15.075,-23.066999,1.8862,-10.654,-3.7724
-6.9307,-10.168,-9.1333,-26.733,-24.337,-18.625,-20.305,-20.653999,-15.152,-26.733,-24.337,-19.608,5.8615,2.0361,-4.0404,-5.0415,-9.0452,-11.067,-9.8211,-2.8105,0.13008
0.0,-10.168,-3.1333,-23.761999,-21.424,-15.533,-16.243999,-21.634001,-19.191999,-23.761999,-21.424,-13.725,6.8277,-4.8604,4.0404,-8.0265,-6.0302,0.93333,-20.552999,3.0719,-5.7236
0.9901,-11.178,-3.1333,-11.881,-12.686,-8.3162,-6.0914,-15.752,-14.141,-11.881,-12.686,-2.9412,-5.7327,-17.667999,-3.0303,-14.992,-12.06,0.93333,-19.577,-3.7908,-18.407
1.9802,-6.1279,-1.1333,-3.9604,-4.9191,3.0241,1.0152,-4.9673,-9.0909,-3.9604,-4.9191,4.902,-17.327,-19.639,-7.0707,-13.997,-11.055,-6.0667,-8.8455,-11.634,-19.382
8.9109,2.963,5.8667,3.9604,-2.9773,11.271,5.0761,1.8954,-5.0505,3.9604,-2.9773,10.784,-18.292999,-13.727,-6.0606,-5.0415,-5.0251,-8.0667,2.8618,-16.535999,-11.577
18.812,15.084,18.867001,5.9406,2.8479,19.518999,15.228,1.8954,5.0505,5.9406,2.8479,17.646999,-5.7327,0.06568,6.0606,6.8988,9.0452,4.9333,22.374001,-6.732,0.13008
14.851,12.054,18.867001,11.881,8.6731,14.364,14.213,-1.0458,5.0505,11.881,8.6731,18.627001,6.8277,2.0361,7.0707,6.8988,11.055,-3.0667,-0.06504,-1.8301,2.0813
-6.9307,-6.1279,-0.13333,3.9604,1.877,-0.06873,-2.0305,-5.9477,-6.0606,3.9604,1.877,0.0,7.7939,-1.9048,0.0,-3.0514,0.0,-12.067,-21.528,0.13072,-4.748
-9.901,-11.178,-6.1333,3.9604,-0.06472,-4.1924,-6.0914,-11.83,-5.0505,3.9604,-0.06472,-0.98039,12.625,2.0361,2.0202,-3.0514,-1.005,-8.0667,-14.699,6.9935,-0.84553
-2.9703,-12.189,-5.1333,1.9802,2.8479,4.055,-3.0457,-4.9673,-5.0505,1.9802,2.8479,0.98039,13.591,7.9475,9.0909,-1.0614,1.005,7.9333,-14.699,17.778,4.0325
-4.9505,-21.278999,-12.133,2.9703,-0.06472,1.9931,-10.152,2.8758,-13.131,2.9703,-0.06472,-2.9412,6.8277,5.977,3.0303,-7.0315,-8.0402,10.933,-8.8455,16.797001,2.0813
-13.861,-22.290001,-19.132999,1.9802,-4.9191,-1.0997,-15.228,4.8366,-16.162001,1.9802,-4.9191,-9.8039,-8.6312,4.0066,-10.101,-12.007,-19.094999,-5.0667,-8.8455,6.9935,3.0569
-15.842,-12.189,-17.132999,-1.9802,-5.89,-8.3162,-13.198,-3.9869,-8.0808,-1.9802,-5.89,-9.8039,-14.428,1.0509,-16.162001,-9.0216,-20.101,-19.066999,-2.0163,-4.7712,5.0081
-5.9406,-2.0875,-4.1333,-4.9505,-5.89,-5.2234,-5.0761,-11.83,-4.0404,-4.9505,-5.89,-2.9412,-5.7327,1.0509,-10.101,-1.0614,-10.05,-3.0667,-0.06504,-6.732,5.0081
1.9802,4.9832,6.8667,-0.9901,-2.0065,4.055,0.0,-3.0065,-1.0101,-0.9901,-2.0065,6.8627,2.963,2.0361,-3.0303,2.9187,0.0,10.933,7.7398,-2.8105,4.0325
-6.9307,-9.1582,-3.1333,-0.9901,-2.9773,4.055,-4.0609,-3.0065,-5.0505,-0.9901,-2.9773,4.902,-5.7327,-9.7865,-12.121,-8.0265,-10.05,-2.0667,-4.9431,-9.6732,-6.6992
-16.832001,-20.268999,-15.133,-3.9604,-5.89,-1.0997,-8.1218,-6.9281,-9.0909,-3.9604,-5.89,-1.9608,-15.395,-15.698,-18.181999,-18.972,-19.094999,-6.0667,-7.8699,-11.634,-16.455
-9.901,-14.209,-12.133,0.0,-2.9773,-1.0997,-5.0761,-9.8693,-8.0808,0.0,-2.9773,0.98039,-10.564,-13.727,-12.121,-18.972,-18.09,-3.0667,-17.625999,-4.7712,-17.431
3.9604,-0.06734,3.8667,-0.9901,-1.0356,3.0241,2.0305,-4.9673,1.0101,-0.9901,-1.0356,4.902,-6.6989,-12.742,3.0303,-15.987,-7.0352,10.933,-14.699,5.0327,-18.407
16.832001,9.0236,15.867,6.9307,4.7896,11.271,10.152,3.8562,7.0707,6.9307,4.7896,14.706,-3.8003,-16.683001,10.101,-11.012,1.005,16.933001,-2.9919,10.915,-17.431
3.9604,3.9731,7.8667,5.9406,3.8188,12.302,7.1066,6.7974,4.0404,5.9406,3.8188,9.8039,-11.53,-19.639,1.0101,-10.017,-4.0201,7.9333,-2.0163,3.0719,-15.48
0.9901,0.94276,1.8667,6.9307,2.8479,10.241,3.0457,2.8758,3.0303,6.9307,2.8479,9.8039,-4.7665,-6.8309,-1.0101,-2.0564,-4.0201,14.933,1.8862,3.0719,3.0569
12.871,12.054,11.867,4.9505,3.8188,14.364,8.1218,-0.06536,7.0707,4.9505,3.8188,10.784,24.219,25.681,21.212,20.829,15.075,2.9333,14.569,24.641001,30.374001
9.901,11.044,9.8667,4.9505,0.90615,5.0859,2.0305,-1.0458,6.0606,4.9505,0.90615,4.902,29.049999,33.563,22.222,27.794001,19.094999,3.9333,15.545,28.562,37.202999
-13.861,-7.138,-13.133,-6.9307,-10.744,-12.44,-14.213,-4.9673,-6.0606,-6.9307,-10.744,-17.646999,7.7939,14.844,2.0202,9.8839,0.0,2.9333,8.7154,10.915,18.667
-21.782,-13.199,-25.132999,-8.9109,-11.715,-16.563999,-20.305,-7.9085,-9.0909,-8.9109,-11.715,-19.608,2.963,6.9622,-8.0808,-0.06634,-10.05,-7.0667,1.8862,3.0719,11.837
-20.792,-15.219,-25.132999,-6.9307,-8.8026,-8.3162,-18.274,-5.9477,-11.111,-6.9307,-8.8026,-17.646999,-3.8003,-0.91954,-14.141,-7.0315,-16.08,-3.0667,-2.0163,-3.7908,5.0081
-17.822001,-18.249001,-21.132999,-2.9703,-6.8608,-6.2543,-19.289,-3.9869,-13.131,-2.9703,-6.8608,-14.706,-15.395,-14.713,-20.202,-16.982,-24.121,-5.0667,-7.8699,-11.634,-4.748
-12.871,-16.229,-18.132999,-3.9604,-8.8026,-5.2234,-17.259001,-3.9869,-14.141,-3.9604,-8.8026,-13.725,-20.225,-22.594,-25.253,-24.941999,-30.150999,0.93333,-6.8943,-13.595,-11.577
-5.9406,-11.178,-11.133,0.0,-6.8608,-1.0997,-13.198,1.8954,-9.0909,0.0,-6.8608,-4.902,-17.327,-20.624001,-19.191999,-25.937,-26.131001,5.9333,-2.9919,-7.7124,-11.577
5.9406,-4.1077,-0.13333,5.9406,-1.0356,7.1478,-1.0152,8.7582,-4.0404,5.9406,-1.0356,4.902,-2.8341,-7.8161,-1.0101,-17.976999,-11.055,6.9333,-2.0163,5.0327,-10.602
10.891,0.94276,8.8667,6.9307,1.877,6.1168,1.0152,7.7778,-6.0606,6.9307,1.877,5.8824,4.8953,1.0509,14.141,-8.0265,5.0251,8.9333,-15.675,10.915,-10.602
