C3,C4,Cz,F1,F2,F3,F4,F7,F8,Fp1,Fp2,Fz,O1,O2,P3,P4,Pz,T3,T4,T5,T6
4.9921,1.3968,2.6016,8.9533,13.201,9.5146,9.7561,7.0209,7.7023,8.9533,13.201,10.392,-10.159,-11.547,-1.2063,-7.767,-8.3736,1.8035,-2.4645,0.0,-6.57
1.8325,0.7619,-4.5528,4.4444,8.5809,6.9256,7.1545,3.1562,4.466,4.4444,8.5809,5.817,-13.968,-16.650999,-2.4762,-11.65,-13.527,5.0242,-4.3602,0.0,-8.5024
-7.6461,-1.1429,-11.707,3.8003,4.6205,1.7476,3.252,3.1562,4.466,3.8003,4.6205,1.2418,-16.507999,-17.927,-7.5556,-11.65,-16.747,8.2448,-2.4645,-1.9608,-7.8583
-7.0142,2.6667,-9.7561,-0.06441,1.9802,-2.7832,1.9512,1.868,1.2298,-0.06441,1.9802,-0.71895,-13.333,-12.823,-6.9206,-5.8252,-12.882,2.4477,-1.2006,-3.268,-4.6377
1.2006,5.8413,-1.9512,-3.9291,2.6403,-2.1359,2.6016,-3.285,4.466,-3.9291,2.6403,-0.71895,-6.9841,-3.8915,-2.4762,3.8835,-3.2206,-2.0612,5.1185,-3.9216,2.4477
10.047,4.5714,1.3008,-5.2174,1.9802,0.45307,1.9512,-5.8615,4.466,-5.2174,1.9802,-1.3725,3.1746,4.4019,7.0476,8.4142,4.5089,-4.6377,7.6461,5.2288,6.9565
8.1517,2.0317,0.0,-7.1498,-3.9604,-2.7832,-1.9512,-3.285,0.58252,-7.1498,-3.9604,-4.6405,10.794,10.144,11.492,8.4142,7.7295,-0.77295,3.8547,7.8431,6.9565
-1.327,-0.50794,-0.65041,-8.438,-7.9208,-6.6667,-4.5528,-4.5733,-3.301,-8.438,-7.9208,-7.2549,14.603,13.333,10.857,9.0615,9.6618,4.38,2.5908,7.1895,6.9565
0.56872,2.0317,3.9024,-11.014,-9.2409,-8.6084,-6.5041,-7.1498,-5.89,-11.014,-9.2409,-7.9085,19.048,17.160999,13.397,13.592,14.815,1.8035,0.06319,9.1503,8.2448
0.56872,3.9365,7.8049,-10.37,-6.6007,-7.9612,-5.2033,-7.1498,-5.89,-10.37,-6.6007,-5.9477,19.683001,17.799,12.127,16.827999,18.035,-0.12882,1.9589,9.8039,8.2448
-3.8547,2.0317,7.8049,-5.2174,-3.9604,-4.7249,-2.6016,-5.2174,-2.6537,-5.2174,-3.9604,-2.6797,13.333,12.057,3.873,11.003,12.238,0.5153,2.5908,6.5359,6.3124
-0.6951,2.0317,6.5041,3.8003,3.9604,3.0421,5.8537,-0.70853,1.877,3.8003,3.9604,5.817,5.0794,3.126,-1.2063,0.64725,4.5089,-0.12882,0.6951,3.268,1.1594
7.5197,-3.0476,3.252,7.6651,11.221,9.5146,11.057,-1.9968,7.055,7.6651,11.221,11.699,-1.9048,-5.8054,-0.57143,-10.356,-3.2206,-7.8583,-1.2006,2.6144,-3.9936
-0.6951,-3.6825,-4.5528,8.3092,9.2409,6.9256,11.707,0.57971,10.291,8.3092,9.2409,11.046,-10.159,-14.737,-8.1905,-17.476,-13.527,-3.9936,-2.4645,-2.6144,-7.8583
-15.861,2.0317,-9.1057,7.0209,5.9406,1.1003,8.4553,2.5121,8.3495,7.0209,5.9406,6.4706,-18.413,-20.478001,-17.714001,-16.181,-20.612,-1.4171,-0.56872,-9.8039,-8.5024
-18.389,2.6667,-11.707,3.1562,2.6403,-2.1359,1.3008,-2.6409,4.466,3.1562,2.6403,0.58824,-23.492001,-21.115999,-21.524,-11.003,-21.9,-5.2818,-1.8325,-13.072,-7.8583
-19.021,3.3016,-12.358,-0.70853,1.9802,-6.6667,-3.252,-4.5733,2.5243,-0.70853,1.9802,-3.3333,-24.127001,-17.927,-22.794001,-5.8252,-20.612,-7.2142,0.6951,-15.033,-4.6377
-13.333,5.2063,-7.8049,-0.70853,-0.66007,-5.3722,-2.6016,-1.9968,1.877,-0.70853,-0.66007,-2.6797,-19.048,-10.909,-16.444,0.64725,-12.882,-6.57,3.8547,-11.765,-0.12882
1.8325,5.2063,-0.65041,0.57971,-2.6403,-2.1359,-1.9512,-1.3527,1.877,0.57971,-2.6403,-2.0261,-8.254,-2.6156,0.06349,6.4725,-0.64412,-7.8583,4.4866,-3.9216,2.4477
7.5197,6.4762,3.252,-1.3527,-2.6403,-0.84142,-0.65041,-1.3527,-0.71197,-1.3527,-2.6403,-2.0261,0.63492,3.764,10.857,9.0615,9.0177,1.1594,1.327,0.65359,3.0918
17.629999,1.3968,8.4553,-2.6409,-2.6403,3.0421,-0.65041,-0.06441,-3.301,-2.6409,-2.6403,-1.3725,8.254,6.9537,21.016001,8.4142,16.103001,2.4477,-1.8325,4.5752,1.1594
18.261999,-1.7778,13.008,-1.9968,-2.6403,4.3366,-0.65041,3.1562,-4.5955,-1.9968,-2.6403,-0.71895,15.238,10.144,26.73,9.7087,21.9,6.9565,-3.0964,9.8039,2.4477
5.624,-1.7778,11.057,-0.70853,-5.2805,1.7476,-1.9512,3.8003,-5.89,-0.70853,-5.2805,-0.71895,17.143,12.057,21.016001,10.356,21.9,8.8889,-1.8325,9.1503,3.7359
1.8325,-1.7778,7.8049,1.868,-3.3003,2.3948,-2.6016,3.8003,-5.2427,1.868,-3.3003,-0.06536,16.507999,12.695,15.302,9.7087,19.323999,5.0242,-1.2006,8.4967,3.0918
1.8325,-3.0476,2.6016,0.57971,-1.9802,3.0421,-3.9024,3.8003,-5.89,0.57971,-1.9802,-0.06536,17.778,13.971,10.857,9.7087,16.103001,3.7359,-1.8325,8.4967,3.0918
1.2006,-7.4921,-3.9024,-0.70853,-3.3003,1.7476,-7.8049,4.4444,-7.1845,-0.70853,-3.3003,-2.6797,20.316999,16.523001,10.222,9.0615,14.171,-0.12882,-3.7283,12.418,4.38
11.943,-7.4921,-4.5528,1.2238,-5.2805,3.0421,-7.8049,1.2238,-9.1262,1.2238,-5.2805,-2.0261,21.587,17.160999,11.492,8.4142,13.527,-1.4171,-6.2559,12.418,3.7359
3.0964,-15.111,-13.008,-1.3527,-7.9208,-2.1359,-13.008,2.5121,-12.362,-1.3527,-7.9208,-7.9085,16.507999,11.419,5.1429,0.0,5.7971,6.3124,-9.4155,9.1503,-1.4171
1.8325,-13.841,-13.659,-1.3527,-5.9406,-1.4887,-9.7561,1.2238,-7.8317,-1.3527,-5.9406,-7.2549,15.873,9.5056,6.4127,-3.2362,2.5765,6.3124,-8.1517,11.111,-2.7053
-0.6951,-6.8571,-10.407,-3.285,-1.9802,-4.0777,-3.252,0.57971,-2.6537,-3.285,-1.9802,-4.6405,13.333,7.5917,5.1429,-4.5307,-1.2882,5.0242,-4.3602,9.1503,-1.4171
-10.174,-6.8571,-11.057,-1.9968,-2.6403,-6.0194,-1.9512,2.5121,-3.301,-1.9968,-2.6403,-3.9869,7.619,3.764,-1.8413,-8.4142,-7.7295,3.7359,-2.4645,4.5752,-2.7053
-7.6461,-2.4127,-5.2033,-0.70853,-3.3003,-3.4304,1.9512,2.5121,-1.3592,-0.70853,-3.3003,-0.06536,5.0794,2.488,-2.4762,-5.178,-7.7295,-0.77295,-1.8325,4.5752,-1.4171
-3.8547,3.3016,0.65041,-0.06441,-1.9802,-0.19417,3.9024,1.2238,-0.06472,-0.06441,-1.9802,3.2026,1.9048,1.8501,-5.0159,0.0,-6.4412,-3.3494,-0.56872,0.65359,-0.77295
1.8325,5.8413,5.8537,2.5121,0.0,3.0421,5.2033,1.2238,-0.06472,2.5121,0.0,5.817,-1.9048,-0.0638,-6.2857,3.2362,-3.8647,-5.9259,0.06319,-3.9216,-0.77295
6.8878,9.6508,9.1057,2.5121,2.6403,6.9256,5.8537,-0.70853,-0.06472,2.5121,2.6403,7.7778,-3.8095,-1.3397,-4.381,5.178,-1.2882,-3.9936,1.327,-4.5752,0.5153
4.9921,5.2063,7.1545,3.8003,2.6403,7.5728,5.2033,-0.06441,1.877,3.8003,2.6403,7.1242,-5.0794,-3.2536,-2.4762,3.8835,0.0,-3.9936,2.5908,-5.2288,1.1594
-7.0142,0.12698,0.65041,3.1562,0.0,1.1003,1.9512,1.868,1.877,3.1562,0.0,3.8562,-5.0794,-5.1675,-3.1111,1.2945,-0.64412,-2.7053,0.06319,-5.8824,-0.12882
-7.6461,2.0317,-0.65041,4.4444,2.6403,0.45307,1.9512,2.5121,1.877,4.4444,2.6403,3.2026,0.0,-1.9777,1.3333,3.8835,2.5765,-0.12882,2.5908,-1.9608,1.1594
-3.2227,2.6667,0.0,3.8003,1.3201,-0.19417,-1.3008,1.2238,-0.71197,3.8003,1.3201,1.2418,1.9048,-0.70175,3.873,4.5307,4.5089,-3.9936,2.5908,0.65359,1.8035
-0.06319,2.6667,3.252,3.8003,-1.3201,2.3948,-3.252,3.1562,-3.301,3.8003,-1.3201,0.58824,3.8095,-0.70175,4.5079,5.178,5.7971,-0.77295,1.9589,5.8824,3.0918
4.3602,1.3968,3.252,1.868,-1.3201,3.6893,-5.2033,1.2238,-5.2427,1.868,-1.3201,-0.06536,4.4444,0.57416,3.2381,3.8835,5.7971,1.1594,0.06319,4.5752,2.4477
6.8878,-0.50794,3.9024,1.2238,-4.6205,4.3366,-4.5528,3.1562,-9.1262,1.2238,-4.6205,0.58824,7.619,2.488,5.7778,2.589,8.3736,8.8889,-3.0964,10.458,-0.77295
13.839,-2.4127,7.8049,2.5121,-5.9406,8.2201,-1.9512,5.7327,-10.421,2.5121,-5.9406,3.8562,13.968,5.0399,14.667,0.64725,12.238,15.974,-7.5197,20.261,-4.6377
10.679,-1.7778,9.1057,1.868,-3.9604,4.3366,0.0,7.0209,-9.1262,1.868,-3.9604,3.8562,15.873,5.6778,17.841,-1.2945,12.882,16.618,-9.4155,20.915001,-6.57
13.207,-1.7778,10.407,-3.285,-5.9406,1.7476,-2.6016,1.868,-8.479,-3.285,-5.9406,1.2418,15.873,6.9537,21.650999,-0.64725,14.171,11.465,-6.8878,19.608,-5.2818
6.8878,-3.0476,5.8537,-7.7939,-12.541,-2.1359,-6.5041,-2.6409,-8.479,-7.7939,-12.541,-3.3333,11.429,5.0399,17.841,0.64725,11.594,6.3124,-3.0964,15.033,-2.7053
-0.06319,-2.4127,1.9512,-8.438,-9.901,-4.0777,-5.2033,-4.5733,-6.5372,-8.438,-9.901,-4.6405,4.4444,1.2121,10.857,1.2945,5.7971,1.8035,-2.4645,6.5359,-0.77295
2.4645,-3.6825,-1.9512,-4.5733,-3.3003,-2.7832,-1.3008,-5.2174,-2.0065,-4.5733,-3.3003,-1.3725,-1.9048,-3.2536,5.7778,-0.64725,0.0,-5.2818,-1.2006,-0.65359,-0.77295
0.56872,-2.4127,-5.8537,0.57971,2.6403,1.7476,3.9024,-2.6409,3.1715,0.57971,2.6403,3.8562,-6.3492,-8.3573,0.06349,-5.178,-7.7295,-5.2818,0.06319,-3.9216,-1.4171
-3.2227,-1.1429,-9.7561,5.0886,5.2805,4.9838,6.5041,3.8003,6.4078,5.0886,5.2805,6.4706,-9.5238,-10.909,-5.6508,-7.1197,-12.882,-2.0612,1.327,-5.8824,-0.77295
-6.3823,-3.6825,-13.659,7.0209,6.6007,7.5728,5.2033,5.7327,5.7605,7.0209,6.6007,6.4706,-12.698,-12.823,-12.635,-9.0615,-18.68,-2.7053,0.06319,-10.458,-0.77295
-12.701,-4.3175,-14.959,5.7327,6.6007,4.3366,1.9512,3.1562,3.8188,5.7327,6.6007,3.8562,-15.238,-12.823,-20.254,-10.356,-22.544001,-5.2818,1.327,-13.725,-0.77295
-15.861,-3.6825,-16.26,4.4444,5.2805,0.45307,-1.3008,1.2238,2.5243,4.4444,5.2805,-0.71895,-17.143,-13.461,-24.698,-12.945,-25.764999,-7.8583,3.8547,-15.686,-0.77295
-15.229,-3.0476,-16.910999,1.868,5.2805,-4.7249,-1.3008,-2.6409,5.1133,1.868,5.2805,-3.9869,-17.778,-13.461,-24.063,-14.887,-26.409,-12.367,4.4866,-13.072,-2.0612
-10.806,-2.4127,-13.008,-0.70853,3.9604,-5.3722,-0.65041,-4.5733,5.1133,-0.70853,3.9604,-3.9869,-19.048,-14.099,-22.794001,-15.534,-23.833,-12.367,3.2227,-15.686,-3.9936
-6.3823,0.12698,-3.9024,-1.3527,4.6205,-4.7249,0.65041,-5.2174,5.1133,-1.3527,4.6205,-2.6797,-17.778,-13.461,-16.444,-12.945,-15.459,-10.435,3.2227,-15.686,-5.2818
0.56872,5.2063,7.8049,-1.9968,3.3003,-4.0777,1.9512,-3.285,5.1133,-1.9968,3.3003,-0.71895,-8.254,-7.0813,-1.8413,-4.5307,0.0,-5.2818,5.1185,-7.1895,-2.7053
9.4155,11.556,14.959,-0.06441,-1.3201,-0.19417,2.6016,-1.9968,4.466,-0.06441,-1.3201,0.58824,2.5397,2.488,12.127,5.178,14.171,0.5153,7.6461,0.0,2.4477
3.0964,7.746,10.407,-1.3527,-1.3201,-1.4887,1.3008,-3.285,5.1133,-1.3527,-1.3201,-0.71895,6.3492,6.9537,13.397,9.0615,18.035,-0.12882,8.278,0.0,4.38
0.56872,3.3016,4.5528,-1.3527,0.66007,-2.1359,1.3008,-1.9968,6.4078,-1.3527,0.66007,-0.71895,9.5238,9.5056,12.127,9.0615,16.103001,0.5153,3.8547,1.9608,3.7359
4.9921,5.8413,5.2033,1.868,5.9406,1.1003,6.5041,1.2238,7.055,1.868,5.9406,4.5098,12.698,13.333,15.302,9.0615,15.459,-1.4171,5.1185,8.4967,5.6683
11.311,4.5714,5.8537,3.8003,6.6007,5.6311,8.4553,1.2238,5.7605,3.8003,6.6007,7.7778,12.063,12.695,14.032,7.1197,12.238,1.8035,5.7504,6.5359,6.3124
13.207,3.9365,3.9024,5.7327,4.6205,5.6311,5.8537,2.5121,1.877,5.7327,4.6205,7.1242,10.159,10.144,10.857,3.8835,8.3736,3.0918,1.327,3.9216,5.0242
8.1517,0.7619,-1.3008,4.4444,2.6403,2.3948,1.3008,0.57971,-1.3592,4.4444,2.6403,3.2026,5.0794,4.4019,5.1429,-1.2945,1.9324,2.4477,-1.8325,2.6144,2.4477
-4.4866,-8.7619,-9.7561,-0.06441,-1.9802,-2.7832,-5.8537,-1.3527,-3.301,-0.06441,-1.9802,-3.9869,-4.4444,-3.8915,-5.6508,-7.1197,-8.3736,1.8035,-4.3602,-3.9216,-0.77295
-12.07,-8.7619,-12.358,1.2238,0.66007,-4.7249,-3.9024,1.2238,-1.3592,1.2238,0.66007,-3.9869,-10.159,-8.9952,-13.27,-10.356,-14.815,-0.12882,-2.4645,-7.1895,-2.0612
-10.806,-3.0476,-9.1057,1.868,1.3201,-2.1359,0.65041,2.5121,1.2298,1.868,1.3201,-0.71895,-12.698,-10.271,-17.079,-9.7087,-16.103001,-2.0612,0.6951,-8.4967,-2.0612
-1.327,3.3016,-0.65041,2.5121,3.9604,3.0421,3.9024,-1.3527,2.5243,2.5121,3.9604,4.5098,-12.063,-9.6332,-14.54,-5.8252,-12.882,-5.2818,2.5908,-7.1895,-0.12882
0.56872,8.381,5.2033,1.868,7.2607,2.3948,6.5041,-2.6409,5.7605,1.868,7.2607,5.1634,-12.698,-7.0813,-13.27,-0.64725,-8.3736,-7.2142,7.0142,-10.458,3.7359
11.311,14.73,11.707,-0.70853,4.6205,1.7476,9.1057,-3.9291,7.7023,-0.70853,4.6205,5.817,-6.3492,0.57416,-3.746,6.4725,0.0,-9.7907,8.91,-8.4967,7.6006
14.471,12.825,12.358,-3.285,3.3003,-0.19417,8.4553,-6.5056,6.4078,-3.285,3.3003,4.5098,0.0,5.6778,1.3333,10.356,5.153,-7.2142,6.3823,-5.8824,6.9565
3.0964,6.4762,9.1057,0.57971,3.9604,-0.19417,6.5041,-3.9291,4.466,0.57971,3.9604,3.8562,3.1746,7.5917,-0.57143,9.7087,5.7971,2.4477,2.5908,-5.8824,5.6683
-5.1185,-0.50794,5.2033,1.868,3.9604,-2.7832,3.252,-1.9968,2.5243,1.868,3.9604,1.8954,5.7143,8.2297,-0.57143,6.4725,5.153,1.1594,1.327,-3.9216,4.38
1.2006,0.12698,6.5041,5.7327,5.2805,-0.19417,5.8537,-1.9968,3.1715,5.7327,5.2805,5.1634,6.9841,9.5056,1.3333,5.178,6.4412,-2.0612,1.327,1.3072,3.7359
1.2006,-1.1429,5.8537,6.3768,5.2805,2.3948,4.5528,3.8003,3.1715,6.3768,5.2805,5.1634,4.4444,7.5917,-1.2063,1.9417,5.153,-0.12882,-0.56872,-4.5752,0.5153
-1.327,-3.0476,3.252,2.5121,3.3003,-1.4887,0.0,1.2238,-0.06472,2.5121,3.3003,1.2418,0.0,3.126,-5.0159,-2.589,1.9324,-0.77295,-2.4645,-9.1503,-3.3494
-1.327,-0.50794,3.9024,-1.3527,-0.66007,-4.7249,-0.65041,-4.5733,-0.71197,-1.3527,-0.66007,-2.0261,-0.63492,0.57416,-5.0159,-3.8835,0.0,-7.8583,-3.7283,-4.5752,-4.6377
-3.2227,5.8413,2.6016,-2.6409,-3.9604,-6.6667,-1.3008,-8.438,-1.3592,-2.6409,-3.9604,-3.3333,-4.4444,-1.9777,-10.095,-4.5307,-3.2206,-8.5024,-1.8325,-8.4967,-3.3494
2.4645,5.2063,2.6016,-1.9968,-0.66007,-4.7249,-0.65041,-8.438,1.2298,-1.9968,-0.66007,-2.6797,-5.0794,-1.3397,-10.095,-1.9417,-3.8647,-9.1465,2.5908,-5.8824,-0.12882
-1.9589,3.3016,0.0,-3.285,-0.66007,-4.7249,-2.6016,-4.5733,0.58252,-3.285,-0.66007,-3.9869,-4.4444,1.2121,-8.1905,2.589,-3.2206,-6.57,3.2227,-4.5752,2.4477
-3.2227,2.6667,0.0,-5.2174,-5.2805,-4.7249,-5.2033,-3.285,-3.9482,-5.2174,-5.2805,-5.2941,-1.2698,3.126,-1.8413,7.767,1.2882,-1.4171,0.6951,0.0,3.0918
2.4645,2.6667,0.65041,-8.438,-12.541,-6.0194,-7.8049,-5.2174,-6.5372,-8.438,-12.541,-7.9085,0.63492,4.4019,3.873,11.003,6.4412,3.0918,0.6951,0.65359,5.0242
4.9921,3.9365,1.3008,-7.1498,-12.541,-4.7249,-6.5041,-3.285,-5.89,-7.1498,-12.541,-7.2549,1.9048,7.5917,8.9524,12.945,10.306,5.0242,2.5908,1.9608,8.2448
12.575,5.2063,2.6016,-2.6409,-5.9406,0.45307,-3.252,-1.9968,-4.5955,-2.6409,-5.9406,-2.0261,6.3492,10.781,15.302,14.887,14.171,1.1594,2.5908,7.1895,10.177
10.047,5.8413,2.6016,1.868,-3.3003,4.9838,0.65041,2.5121,-3.301,1.868,-3.3003,2.549,8.254,12.695,11.492,14.887,12.238,1.1594,3.8547,5.2288,10.821
1.2006,5.8413,1.9512,4.4444,-1.9802,5.6311,2.6016,3.8003,-2.0065,4.4444,-1.9802,5.1634,5.0794,10.781,1.9683,11.65,6.4412,3.7359,4.4866,1.9608,8.8889
2.4645,2.0317,7.1545,6.3768,4.6205,10.809,7.1545,5.7327,1.877,6.3768,4.6205,10.392,1.9048,6.3158,-3.1111,8.4142,2.5765,5.6683,1.9589,-0.65359,6.3124
6.2559,0.7619,13.659,8.9533,10.561,14.045,11.057,8.3092,4.466,8.9533,10.561,15.621,1.2698,4.4019,-2.4762,5.178,2.5765,2.4477,1.9589,0.65359,3.7359
9.4155,0.7619,18.862,12.174,9.2409,14.693,13.659,8.9533,2.5243,12.174,9.2409,18.889,0.63492,2.488,-4.381,2.589,2.5765,2.4477,-1.2006,-1.9608,-0.12882
10.679,0.7619,19.511999,12.818,9.2409,14.693,16.910999,9.5974,2.5243,12.818,9.2409,20.85,0.63492,-1.3397,-4.381,-3.2362,0.64412,3.0918,-4.3602,-2.6144,-4.6377
6.8878,2.0317,15.61,10.886,13.201,13.398,19.511999,7.6651,4.466,10.886,13.201,20.85,0.63492,-4.5295,-2.4762,-7.767,-1.9324,2.4477,-5.624,0.65359,-7.8583
5.624,7.1111,13.659,9.5974,14.521,12.104,19.511999,6.3768,7.055,9.5974,14.521,18.235001,1.9048,-3.8915,0.69841,-4.5307,0.64412,6.3124,-4.9921,2.6144,-8.5024
15.735,13.46,16.26,9.5974,11.881,11.456,16.910999,5.0886,6.4078,9.5974,11.881,14.967,4.4444,-0.0638,9.5873,4.5307,9.0177,5.0242,0.6951,5.2288,-5.2818
8.7836,9.0159,11.057,0.57971,1.3201,3.6893,6.5041,1.868,2.5243,0.57971,1.3201,4.5098,1.9048,-0.70175,9.5873,9.0615,10.95,4.38,3.2227,2.6144,-3.9936
3.0964,6.4762,6.5041,-6.5056,-7.2607,-5.3722,-3.9024,-3.285,-2.0065,-6.5056,-7.2607,-5.9477,3.8095,2.488,12.762,13.592,14.815,1.1594,3.2227,5.8824,-0.77295
6.2559,9.0159,7.8049,-7.7939,-6.6007,-7.9612,-5.8537,-5.8615,-1.3592,-7.7939,-6.6007,-8.5621,8.8889,7.5917,18.476,18.77,21.256001,2.4477,4.4866,6.5359,3.7359
8.1517,8.381,7.1545,-8.438,-4.6205,-9.9029,-6.5041,-7.1498,-1.3592,-8.438,-4.6205,-8.5621,13.333,12.057,22.921,20.712,25.121,1.8035,5.1185,7.8431,6.3124
2.4645,7.1111,3.252,-8.438,-9.2409,-12.492,-7.1545,-4.5733,-2.0065,-8.438,-9.2409,-9.8693,16.507999,15.247,21.650999,19.417,23.188,-0.77295,4.4866,9.1503,6.9565
-3.8547,8.381,-0.65041,-6.5056,-7.9208,-8.6084,-5.2033,-1.3527,-2.6537,-6.5056,-7.9208,-7.2549,15.873,15.247,14.032,16.181,16.747,3.0918,1.9589,8.4967,6.9565
-0.06319,6.4762,2.6016,-1.3527,-0.66007,1.7476,1.3008,0.57971,-0.71197,-1.3527,-0.66007,0.58824,15.238,13.971,8.3175,11.65,11.594,1.8035,3.2227,7.8431,6.9565
-5.7504,-1.7778,5.2033,0.57971,0.66007,6.9256,3.252,1.868,1.2298,0.57971,0.66007,5.817,10.794,7.5917,-1.2063,3.8835,2.5765,5.0242,1.9589,5.2288,3.0918
-7.6461,-4.9524,5.8537,1.868,-1.9802,8.2201,5.2033,5.0886,-0.06472,1.868,-1.9802,8.4314,5.7143,1.2121,-7.5556,-3.2362,-5.7971,4.38,-3.0964,5.8824,-1.4171
-3.2227,-4.3175,3.252,3.1562,-1.3201,8.8673,6.5041,5.7327,0.58252,3.1562,-1.3201,9.085,-1.2698,-4.5295,-12.0,-8.4142,-12.882,3.0918,-5.624,1.9608,-5.2818
-2.5908,-4.9524,-1.3008,1.868,0.66007,5.6311,3.9024,4.4444,-0.71197,1.868,0.66007,5.1634,-9.5238,-12.185,-17.079,-14.887,-19.968,3.7359,-10.047,-2.6144,-9.7907
-0.06319,-5.5873,-6.5041,1.2238,1.3201,2.3948,0.0,2.5121,-0.06472,1.2238,1.3201,1.2418,-14.603,-17.289,-14.54,-19.417,-23.188,-1.4171,-8.1517,-1.9608,-9.7907
-0.6951,-6.8571,-7.8049,0.57971,-1.9802,0.45307,-2.6016,3.8003,-2.6537,0.57971,-1.9802,-2.0261,-16.507999,-19.841,-12.0,-22.006001,-22.544001,3.0918,-4.9921,-3.268,-9.1465
6.8878,-6.2222,-4.5528,-0.70853,-1.3201,-0.19417,-3.9024,-0.70853,-4.5955,-0.70853,-1.3201,-2.6797,-15.238,-18.565001,-5.0159,-19.417,-16.103001,-0.12882,-4.9921,-3.268,-9.1465
7.5197,-3.6825,-1.3008,-0.70853,0.0,-2.1359,-1.3008,-2.6409,-2.6537,-0.70853,0.0,-2.6797,-10.794,-12.823,1.3333,-10.356,-6.4412,-2.7053,-2.4645,-2.6144,-4.6377
-4.4866,0.7619,-3.9024,-2.6409,-0.66007,-5.3722,-1.3008,0.57971,-2.0065,-2.6409,-0.66007,-5.2941,-6.3492,-7.7193,1.3333,-1.2945,0.64412,3.7359,0.06319,-3.268,-2.0612
-5.1185,2.0317,-5.2033,-5.2174,-1.9802,-7.9612,-4.5528,-3.285,-0.71197,-5.2174,-1.9802,-8.5621,0.63492,-1.3397,7.0476,5.178,6.4412,1.8035,1.9589,0.65359,1.8035
-2.5908,-1.1429,-8.4553,-4.5733,-5.2805,-8.6084,-10.407,-4.5733,-3.301,-4.5733,-5.2805,-11.83,5.7143,2.488,9.5873,7.1197,8.3736,-0.12882,2.5908,1.3072,3.0918
-7.0142,-2.4127,-13.008,-1.3527,-2.6403,-7.9612,-11.057,-0.06441,-2.6537,-1.3527,-2.6403,-12.484,5.7143,3.764,7.0476,3.8835,5.7971,1.8035,2.5908,0.65359,2.4477
-8.278,-4.9524,-14.959,-3.285,-1.9802,-9.2557,-10.407,-2.6409,-2.0065,-3.285,-1.9802,-11.83,3.1746,2.488,5.1429,-1.9417,2.5765,-4.6377,0.06319,0.65359,1.1594
-7.0142,-6.8571,-8.4553,-3.285,0.0,-4.7249,-6.5041,-0.70853,1.2298,-3.285,0.0,-7.2549,1.9048,3.126,3.2381,-3.2362,3.2206,-2.0612,0.6951,0.0,0.5153
3.0964,-2.4127,5.2033,0.57971,0.66007,3.0421,0.65041,-0.70853,3.8188,0.57971,0.66007,-0.06536,0.0,2.488,3.873,-0.64725,6.4412,-0.77295,1.327,0.0,0.5153
-0.06319,0.7619,11.057,1.2238,0.0,3.6893,1.9512,1.868,3.1715,1.2238,0.0,1.2418,-4.4444,-1.3397,0.06349,-0.64725,4.5089,3.0918,0.6951,-1.3072,-0.12882
3.7283,2.6667,11.057,-0.06441,0.66007,2.3948,1.9512,3.1562,3.1715,-0.06441,0.66007,1.2418,-3.1746,-3.2536,3.2381,-1.2945,3.8647,1.1594,1.9589,3.268,-1.4171
10.679,2.6667,7.1545,-1.9968,-3.3003,4.9838,0.65041,1.2238,1.877,-1.9968,-3.3003,-0.06536,-3.1746,-5.1675,4.5079,-1.9417,1.9324,3.0918,0.06319,2.6144,-3.3494
6.2559,4.5714,2.6016,-3.9291,-5.2805,1.7476,0.0,0.57971,1.2298,-3.9291,-5.2805,-2.6797,-3.8095,-5.8054,3.2381,0.0,1.2882,5.6683,0.6951,1.3072,-2.0612
3.7283,6.4762,0.0,-4.5733,-6.6007,-2.1359,-1.9512,0.57971,-1.3592,-4.5733,-6.6007,-5.9477,-1.2698,-2.6156,7.0476,3.2362,3.2206,-0.12882,0.6951,3.9216,0.5153
1.2006,5.2063,0.65041,-2.6409,-1.9802,-0.84142,-1.9512,0.57971,-2.6537,-2.6409,-1.9802,-3.9869,1.9048,0.57416,7.6825,4.5307,4.5089,3.0918,-0.56872,5.8824,1.8035
3.7283,3.3016,1.3008,-1.9968,-3.3003,0.45307,-1.9512,-3.9291,-2.6537,-1.9968,-3.3003,-2.6797,3.1746,1.8501,7.6825,5.178,3.8647,-1.4171,0.06319,5.8824,2.4477
1.8325,5.2063,-0.65041,-1.3527,-5.9406,0.45307,-1.9512,-5.2174,-2.6537,-1.3527,-5.9406,-2.0261,0.63492,1.8501,3.873,7.1197,2.5765,-3.3494,3.2227,2.6144,5.6683
-12.701,2.6667,-8.4553,0.57971,-1.9802,-3.4304,-4.5528,-2.6409,-3.9482,0.57971,-1.9802,-3.9869,-3.8095,1.2121,-5.6508,5.178,-3.2206,-0.12882,2.5908,-2.6144,6.3124
-17.125,-4.3175,-13.659,0.57971,1.9802,-4.7249,-5.2033,-1.3527,-2.0065,0.57971,1.9802,-4.6405,-5.0794,0.57416,-10.73,1.2945,-7.7295,-4.6377,0.6951,-4.5752,4.38
-9.5419,-6.8571,-9.7561,5.7327,8.5809,2.3948,2.6016,-0.06441,2.5243,5.7327,8.5809,3.8562,-3.8095,0.57416,-10.73,-3.2362,-9.0177,-5.9259,0.06319,-5.2288,2.4477
4.9921,-5.5873,0.65041,11.53,13.201,8.8673,10.407,3.1562,4.466,11.53,13.201,12.353,1.9048,4.4019,-5.0159,-4.5307,-3.8647,-4.6377,-2.4645,-3.268,-1.4171
3.0964,-6.8571,6.5041,7.6651,7.9208,6.2783,5.8537,5.0886,0.58252,7.6651,7.9208,9.085,8.254,8.8676,0.69841,-1.2945,3.8647,3.7359,-3.0964,1.9608,-0.77295
-0.06319,-8.7619,7.1545,-2.6409,-3.3003,-1.4887,-4.5528,2.5121,-4.5955,-2.6409,-3.3003,-2.0261,12.063,11.419,6.4127,3.8835,10.306,7.6006,-5.624,5.2288,1.1594
5.624,-5.5873,5.2033,-11.014,-9.901,-7.9612,-11.057,-3.285,-7.8317,-11.014,-9.901,-10.523,13.333,12.057,13.397,7.767,13.527,5.0242,-2.4645,8.4967,1.8035
5.624,-1.7778,0.0,-12.303,-13.861,-9.2557,-14.309,-6.5056,-9.1262,-12.303,-13.861,-13.791,12.063,10.781,13.397,7.1197,10.306,2.4477,0.6951,9.8039,2.4477
3.0964,-0.50794,-6.5041,-9.0821,-13.201,-5.3722,-12.358,-4.5733,-7.1845,-9.0821,-13.201,-12.484,8.8889,8.2297,7.6825,3.8835,2.5765,2.4477,0.6951,8.4967,2.4477
-5.1185,1.3968,-8.4553,-5.8615,-7.2607,-4.7249,-9.1057,0.57971,-4.5955,-5.8615,-7.2607,-10.523,5.0794,5.6778,2.6032,0.64725,-2.5765,2.4477,0.6951,8.4967,2.4477
-6.3823,-1.1429,-9.7561,-9.7262,-11.881,-7.9612,-11.707,-1.9968,-7.8317,-9.7262,-11.881,-14.444,0.0,0.57416,-1.8413,-2.589,-6.4412,-0.77295,-1.8325,1.9608,0.5153
-5.1185,2.6667,-9.1057,-13.591,-19.802,-10.55,-14.959,-4.5733,-10.421,-13.591,-19.802,-17.712,-1.9048,-1.3397,-2.4762,-1.2945,-6.4412,-1.4171,-1.2006,0.0,1.8035
-7.6461,0.7619,-8.4553,-10.37,-17.822001,-9.9029,-16.26,-3.285,-9.7735,-10.37,-17.822001,-17.712,-1.9048,-1.3397,-4.381,0.64725,-6.4412,1.1594,0.6951,0.0,3.7359
-7.6461,0.7619,-7.1545,-4.5733,-9.2409,-4.0777,-12.358,-3.285,-4.5955,-4.5733,-9.2409,-11.176,-3.8095,-1.3397,-8.8254,0.64725,-9.0177,-3.9936,3.2227,-4.5752,5.0242
-16.493,5.8413,-10.407,4.4444,2.6403,2.3948,-0.65041,3.1562,3.1715,4.4444,2.6403,-0.71895,-7.619,-1.3397,-19.618999,0.64725,-15.459,-7.8583,5.1185,-9.8039,6.3124
-15.229,2.6667,-16.26,12.174,15.182,10.162,11.057,4.4444,12.233,12.174,15.182,8.4314,-10.159,-1.9777,-25.968,-1.9417,-21.256001,-9.7907,7.0142,-14.379,5.0242
-6.3823,0.12698,-7.8049,19.259001,29.042999,17.929001,24.715,8.3092,20.0,19.259001,29.042999,21.503,-8.8889,-1.9777,-20.254,-3.2362,-16.747,-7.2142,8.91,-11.765,3.7359
3.0964,-0.50794,7.8049,21.836,26.403,21.812,31.870001,14.106,20.0,21.836,26.403,30.0,-6.3492,-2.6156,-10.095,-4.5307,-6.4412,-0.12882,4.4866,-10.458,-0.12882
18.261999,2.0317,21.462999,19.259001,21.122,23.754,31.870001,14.75,16.764,19.259001,21.122,31.961,1.2698,2.488,7.0476,0.0,8.3736,5.0242,1.9589,-3.9216,-0.77295
24.580999,7.746,28.618,16.683001,20.462,20.518,25.365999,12.818,11.586,16.683001,20.462,28.039,8.8889,8.8676,20.381001,7.767,21.9,9.533,1.9589,2.6144,1.8035
22.686001,5.2063,25.365999,11.53,14.521,15.34,15.61,10.242,8.9968,11.53,14.521,18.889,13.968,10.144,26.73,11.65,27.052999,10.177,3.2227,7.8431,2.4477
16.997999,2.0317,17.561001,5.0886,4.6205,7.5728,5.2033,4.4444,4.466,5.0886,4.6205,6.4706,12.698,5.6778,26.094999,8.4142,25.121,6.9565,0.06319,9.1503,-0.77295
7.5197,0.7619,8.4553,-3.9291,-4.6205,-4.0777,-5.8537,-0.70853,-1.3592,-3.9291,-4.6205,-6.6013,8.8889,-0.70175,20.381001,2.589,17.391001,4.38,-0.56872,8.4967,-3.9936
-0.06319,-3.0476,-1.9512,-9.7262,-9.901,-13.139,-14.959,-3.9291,-5.2427,-9.7262,-9.901,-16.405001,2.5397,-8.9952,12.762,-5.8252,7.0853,1.8035,-0.56872,6.5359,-7.2142
-1.9589,-6.8571,-11.057,-7.7939,-11.221,-13.786,-18.862,-5.2174,-5.89,-7.7939,-11.221,-19.02,-4.4444,-17.289,4.5079,-13.592,-3.2206,-0.12882,-4.9921,4.5752,-9.1465
-2.5908,-10.667,-17.561001,-8.438,-12.541,-13.786,-20.163,-7.1498,-7.1845,-8.438,-12.541,-19.673,-7.619,-21.754,-0.57143,-18.122999,-10.95,-4.6377,-6.8878,3.268,-11.723
-8.278,-13.206,-17.561001,-9.7262,-13.201,-16.375,-20.163,-6.5056,-8.479,-9.7262,-13.201,-19.673,-4.4444,-18.565001,-0.57143,-16.827999,-11.594,-5.9259,-8.1517,7.8431,-11.079
-14.597,-11.302,-13.008,-7.7939,-5.9406,-12.492,-12.358,-2.6409,-5.89,-7.7939,-5.9406,-13.791,-0.63492,-10.909,-3.1111,-11.65,-10.306,2.4477,-7.5197,5.2288,-7.8583
-17.125,-9.3968,-9.1057,-2.6409,0.0,-5.3722,-3.9024,0.57971,-0.71197,-2.6409,0.0,-5.9477,1.9048,-1.9777,-7.5556,-7.1197,-10.306,3.0918,-4.3602,1.3072,-3.3494
-22.812,-4.3175,-7.8049,4.4444,3.9604,1.7476,3.9024,2.5121,3.1715,4.4444,3.9604,2.549,0.0,3.764,-16.444,-3.8835,-14.171,-3.9936,-1.8325,-3.268,0.5153
-28.499001,2.6667,-11.057,7.0209,2.6403,5.6311,7.1545,4.4444,3.8188,7.0209,2.6403,5.817,-3.8095,6.3158,-26.603001,-1.2945,-19.323999,-7.8583,0.06319,-10.458,1.8035
-23.444,6.4762,-10.407,6.3768,5.9406,5.6311,8.4553,4.4444,8.3495,6.3768,5.9406,7.1242,-3.1746,10.781,-24.698,6.4725,-14.815,-7.8583,7.0142,-10.458,7.6006
-12.701,7.1111,-7.8049,3.8003,5.9406,3.0421,5.8537,3.1562,8.3495,3.8003,5.9406,4.5098,-3.1746,12.057,-17.714001,11.65,-7.0853,-5.9259,7.6461,-11.765,8.2448
1.8325,9.0159,-0.65041,5.0886,3.3003,6.2783,5.2033,3.8003,6.4078,5.0886,3.3003,5.817,-1.2698,12.057,-7.5556,14.239,0.64412,-5.2818,6.3823,-9.1503,7.6006
10.047,14.73,7.1545,5.7327,5.2805,8.8673,8.4553,4.4444,7.055,5.7327,5.2805,8.4314,0.0,10.144,0.06349,13.592,6.4412,-1.4171,7.6461,-5.2288,6.3124
8.1517,12.825,6.5041,3.8003,9.2409,6.2783,9.7561,4.4444,7.055,3.8003,9.2409,8.4314,-2.5397,3.764,0.06349,7.767,5.153,1.8035,5.7504,-3.9216,2.4477
4.9921,5.2063,3.9024,3.8003,6.6007,4.3366,6.5041,3.1562,5.1133,3.8003,6.6007,6.4706,-6.3492,-3.8915,-2.4762,-0.64725,-0.64412,3.7359,1.327,-3.268,-2.7053
6.2559,-0.50794,2.6016,2.5121,1.3201,3.0421,0.65041,3.1562,0.58252,2.5121,1.3201,3.2026,-5.7143,-7.7193,0.69841,-7.1197,-3.8647,1.8035,-1.2006,3.268,-5.2818
8.1517,-8.127,-0.65041,0.57971,-3.9604,0.45307,-8.4553,2.5121,-7.1845,0.57971,-3.9604,-2.6797,-5.7143,-10.271,0.69841,-12.298,-7.0853,2.4477,-3.0964,3.268,-7.8583
1.2006,-14.476,-5.8537,-1.3527,-4.6205,-3.4304,-14.309,0.57971,-10.421,-1.3527,-4.6205,-7.9085,-4.4444,-11.547,-2.4762,-16.181,-10.306,5.0242,-7.5197,2.6144,-9.7907
-2.5908,-17.016001,-8.4553,-0.70853,-3.3003,-4.0777,-12.358,-0.70853,-9.7735,-0.70853,-3.3003,-8.5621,-2.5397,-10.909,-2.4762,-17.476,-12.238,3.7359,-10.047,4.5752,-10.435
1.2006,-15.746,-7.1545,0.57971,-3.3003,-1.4887,-6.5041,-2.6409,-5.89,0.57971,-3.3003,-4.6405,1.2698,-5.1675,0.69841,-14.887,-10.306,0.5153,-8.7836,5.8824,-7.8583
-5.1185,-10.667,-10.407,0.57971,-0.66007,-2.1359,-2.6016,-0.70853,-3.301,0.57971,-0.66007,-3.3333,3.8095,1.2121,-1.2063,-10.356,-9.0177,2.4477,-6.2559,5.8824,-3.3494
-16.493,-7.4921,-18.862,-2.6409,0.0,-7.3139,-5.2033,-3.9291,-2.0065,-2.6409,0.0,-7.9085,3.1746,5.0399,-8.8254,-5.178,-9.6618,-2.0612,-3.0964,0.65359,-0.12882
-25.972,-5.5873,-21.462999,-4.5733,-3.9604,-10.55,-7.8049,-4.5733,-2.0065,-4.5733,-3.9604,-10.523,0.0,6.9537,-17.079,0.64725,-10.306,-10.435,-1.2006,-5.2288,3.7359
-30.395,-2.4127,-16.910999,-2.6409,-1.9802,-9.9029,-7.1545,-3.285,-2.0065,-2.6409,-1.9802,-8.5621,-4.4444,7.5917,-24.698,3.8835,-10.95,-10.435,1.327,-9.8039,5.0242
-23.444,0.7619,-7.8049,-3.9291,-3.3003,-6.0194,-3.9024,-2.6409,-1.3592,-3.9291,-3.3003,-5.9477,-8.8889,4.4019,-26.603001,3.8835,-11.594,-8.5024,2.5908,-12.418,5.0242
-8.91,-0.50794,-2.6016,-3.9291,-7.2607,-2.7832,-3.252,0.57971,-1.3592,-3.9291,-7.2607,-4.6405,-9.5238,1.2121,-19.618999,0.0,-10.95,-6.57,0.6951,-7.1895,3.0918
0.56872,-1.1429,-0.65041,-1.9968,-6.6007,-0.19417,-3.9024,3.1562,-3.301,-1.9968,-6.6007,-2.6797,-10.159,-1.9777,-13.27,-3.8835,-11.594,-1.4171,-1.8325,-5.8824,0.5153
4.9921,-1.1429,-1.9512,-1.9968,-5.9406,0.45307,-5.2033,3.1562,-4.5955,-1.9968,-5.9406,-2.6797,-12.063,-6.4434,-8.1905,-8.4142,-12.238,0.5153,-2.4645,-5.2288,-3.3494
9.4155,-0.50794,-0.65041,-0.70853,-1.9802,1.7476,-3.9024,5.0886,-4.5955,-0.70853,-1.9802,-2.0261,-9.5238,-8.3573,0.69841,-11.003,-9.6618,6.3124,-3.0964,0.65359,-7.2142
17.629999,2.0317,4.5528,-0.06441,-5.9406,3.6893,-2.6016,5.7327,-6.5372,-0.06441,-5.9406,-0.71895,-1.2698,-6.4434,11.492,-9.7087,-2.5765,10.821,-5.624,9.1503,-9.1465
21.422001,-3.0476,7.1545,1.2238,-7.9208,5.6311,-3.9024,4.4444,-9.7735,1.2238,-7.9208,-0.06536,3.8095,-5.8054,15.937,-11.003,0.64412,14.042,-10.679,15.686,-12.367
16.997999,-11.302,6.5041,4.4444,-1.9802,8.8673,-1.9512,7.6651,-9.7735,4.4444,-1.9802,3.2026,6.9841,-6.4434,16.570999,-14.887,1.9324,20.483,-13.839,20.915001,-15.588
11.943,-17.016001,3.9024,8.3092,1.9802,10.162,0.65041,10.242,-9.1262,8.3092,1.9802,6.4706,8.254,-7.0813,15.302,-16.827999,0.64412,21.771,-16.367001,21.569,-18.164
8.1517,-16.381001,0.65041,11.53,4.6205,10.809,3.9024,12.818,-7.1845,11.53,4.6205,9.085,7.619,-3.8915,12.762,-13.592,0.64412,17.907,-15.735,17.646999,-14.944
7.5197,-10.032,-0.65041,10.242,3.9604,11.456,6.5041,10.886,-4.5955,10.242,3.9604,10.392,6.3492,1.2121,10.857,-7.1197,1.9324,10.177,-10.679,13.725,-8.5024
6.8878,-3.6825,-1.3008,7.0209,2.6403,10.162,6.5041,5.7327,-2.6537,7.0209,2.6403,9.085,1.9048,2.488,6.4127,-1.9417,1.9324,0.5153,-6.8878,3.9216,-3.3494
7.5197,5.8413,3.252,1.2238,0.66007,4.9838,5.2033,0.57971,-0.71197,1.2238,0.66007,5.1634,-1.9048,4.4019,3.873,5.178,5.7971,-2.7053,-1.8325,-3.9216,1.1594
-5.1185,6.4762,4.5528,-3.9291,-1.3201,-2.1359,0.65041,-4.5733,-0.06472,-3.9291,-1.3201,-1.3725,-7.619,3.126,-5.0159,8.4142,5.153,-7.2142,2.5908,-11.765,3.7359
-7.6461,4.5714,3.9024,-4.5733,-2.6403,-2.1359,-1.9512,-7.7939,2.5243,-4.5733,-2.6403,-3.3333,-10.794,0.57416,-10.095,7.767,3.2206,-13.655,5.1185,-15.686,5.6683
-13.333,4.5714,4.5528,-2.6409,-3.3003,-0.19417,0.0,-4.5733,3.1715,-2.6409,-3.3003,-0.71895,-15.873,-5.1675,-16.444,1.9417,-1.9324,-13.655,7.0142,-18.954,5.0242
-14.597,5.8413,6.5041,-1.9968,0.66007,1.7476,3.9024,-3.9291,6.4078,-1.9968,0.66007,3.2026,-19.048,-9.6332,-18.349001,-3.2362,-5.7971,-11.079,10.174,-20.261,3.7359
-5.7504,10.921,11.057,-3.285,3.9604,1.1003,9.1057,-6.5056,9.644,-3.285,3.9604,6.4706,-18.413,-12.823,-13.27,-3.8835,-5.7971,-14.944,12.07,-15.686,4.38
-3.8547,11.556,11.057,-1.3527,3.9604,-1.4887,11.057,-5.2174,10.291,-1.3527,3.9604,6.4706,-19.683001,-15.375,-10.73,-5.8252,-7.7295,-13.655,10.806,-15.033,1.8035
-1.9589,11.556,6.5041,0.57971,5.9406,-2.1359,9.7561,-4.5733,8.3495,0.57971,5.9406,5.1634,-19.683001,-17.927,-7.5556,-6.4725,-8.3736,-6.57,7.6461,-14.379,-0.77295
2.4645,9.0159,0.65041,-1.3527,3.3003,-3.4304,5.2033,-5.2174,7.7023,-1.3527,3.3003,0.58824,-17.143,-16.650999,-1.8413,-3.8835,-6.4412,-3.3494,6.3823,-9.1503,-1.4171
-1.9589,5.2063,-7.1545,-6.5056,0.0,-7.9612,0.0,-5.8615,6.4078,-6.5056,0.0,-4.6405,-17.778,-16.650999,-2.4762,-2.589,-7.7295,-3.3494,5.1185,-8.4967,-2.0612
-0.06319,5.2063,-10.407,-7.7939,-2.6403,-8.6084,-2.6016,-9.7262,5.1133,-7.7939,-2.6403,-6.6013,-15.238,-12.185,-3.1111,0.64725,-7.7295,-6.57,5.7504,-8.4967,1.1594
-5.1185,0.7619,-11.707,-3.9291,-0.66007,-7.3139,-2.6016,-5.2174,4.466,-3.9291,-0.66007,-4.6405,-12.063,-8.3573,-5.0159,-1.2945,-9.0177,-5.2818,5.7504,-6.5359,2.4477
2.4645,-3.6825,-3.9024,2.5121,5.9406,2.3948,5.2033,1.2238,5.7605,2.5121,5.9406,5.817,-5.7143,-3.8915,0.06349,-4.5307,-7.0853,-2.7053,3.8547,-2.6144,0.5153
10.679,-6.2222,3.9024,6.3768,7.9208,8.2201,9.7561,2.5121,5.1133,6.3768,7.9208,12.353,0.63492,-1.3397,7.6825,-6.4725,-1.9324,-0.12882,-0.56872,4.5752,-1.4171
10.679,-7.4921,4.5528,3.8003,5.2805,5.6311,5.8537,3.1562,0.58252,3.8003,5.2805,9.7386,1.9048,-1.9777,8.3175,-7.767,1.2882,6.3124,-5.624,3.268,-3.9936
13.207,-3.0476,7.1545,-0.70853,-1.9802,2.3948,0.0,1.868,-3.301,-0.70853,-1.9802,4.5098,5.0794,-0.0638,12.127,-1.2945,7.7295,7.6006,-3.0964,3.9216,-1.4171
12.575,0.12698,9.1057,-2.6409,-5.2805,-1.4887,-2.6016,-1.3527,-3.9482,-2.6409,-5.2805,1.2418,6.3492,3.126,14.667,7.1197,13.527,4.38,1.9589,4.5752,4.38
8.7836,6.4762,11.707,-1.9968,-2.6403,-0.84142,-1.3008,-1.9968,-0.06472,-1.9968,-2.6403,1.2418,5.0794,6.3158,11.492,13.592,15.459,1.1594,7.0142,1.3072,8.8889
11.311,12.19,13.008,-1.3527,-1.3201,0.45307,2.6016,-5.8615,3.1715,-1.3527,-1.3201,1.8954,4.4444,7.5917,10.857,18.122999,16.747,-3.9936,7.6461,0.0,11.465
6.8878,8.381,3.9024,-3.9291,-1.3201,-3.4304,0.65041,-8.438,2.5243,-3.9291,-1.3201,-2.0261,3.1746,6.3158,5.7778,14.239,11.594,-4.6377,6.3823,-2.6144,8.8889
1.2006,7.746,-0.65041,-4.5733,-1.9802,-4.0777,1.3008,-5.8615,3.8188,-4.5733,-1.9802,-2.0261,1.9048,5.0399,2.6032,11.003,7.0853,-4.6377,7.6461,-3.268,7.6006
1.2006,8.381,-1.9512,-2.6409,-1.9802,-3.4304,0.65041,-5.2174,4.466,-2.6409,-1.9802,-2.0261,1.2698,3.764,-0.57143,9.0615,3.8647,-4.6377,7.6461,-3.9216,6.9565
3.0964,11.556,-0.65041,-3.285,1.9802,-4.0777,0.65041,-5.8615,4.466,-3.285,1.9802,-2.0261,4.4444,6.9537,1.3333,10.356,3.8647,-3.9936,7.0142,0.0,8.2448
-8.278,3.3016,-5.2033,-3.285,4.6205,-6.6667,0.0,-3.9291,5.1133,-3.285,4.6205,-3.3333,2.5397,5.6778,-5.0159,4.5307,-1.9324,-2.7053,5.7504,-3.9216,6.3124
-7.6461,-6.8571,-9.1057,-1.3527,4.6205,-7.3139,-0.65041,-5.2174,5.7605,-1.3527,4.6205,-3.3333,4.4444,6.3158,-3.746,0.0,-3.2206,-2.0612,1.9589,-4.5752,3.0918
3.0964,-11.302,-5.2033,1.2238,3.3003,-2.7832,0.65041,-2.6409,3.1715,1.2238,3.3003,-0.06536,13.333,10.144,8.3175,1.2945,4.5089,1.1594,-3.7283,3.9216,-0.12882
15.735,-12.571,4.5528,5.0886,4.6205,4.3366,3.9024,3.8003,-0.71197,5.0886,4.6205,5.817,20.952,14.609,21.650999,3.8835,14.815,6.3124,-6.2559,11.111,-0.77295
21.422001,-9.3968,14.309,6.3768,7.2607,8.8673,7.8049,5.7327,-1.3592,6.3768,7.2607,11.046,24.127001,15.247,27.365,5.178,21.9,12.11,-6.8878,14.379,-3.3494
17.629999,-3.6825,18.862,6.3768,5.2805,6.2783,7.8049,7.0209,-1.3592,6.3768,5.2805,10.392,20.952,11.419,26.73,7.1197,24.476999,10.177,-8.7836,13.072,-4.6377
11.943,4.5714,20.813,5.0886,3.9604,3.6893,7.8049,7.0209,-0.06472,5.0886,3.9604,9.085,17.778,9.5056,22.285999,12.298,25.121,9.533,-4.3602,10.458,-2.0612
7.5197,14.095,18.862,-1.3527,-1.3201,0.45307,3.9024,1.868,-1.3592,-1.3527,-1.3201,3.2026,16.507999,10.781,17.205999,18.77,25.764999,6.9565,-0.56872,6.5359,3.0918
3.7283,13.46,9.1057,-5.8615,-3.3003,-4.7249,-0.65041,-1.9968,-1.3592,-5.8615,-3.3003,-3.9869,16.507999,12.695,13.397,20.712,23.188,-0.12882,5.7504,7.1895,8.2448
-0.6951,9.6508,-5.8537,-5.8615,-1.9802,-6.0194,-3.252,-3.9291,0.58252,-5.8615,-1.9802,-6.6013,12.063,11.419,3.2381,16.827999,14.171,-0.77295,8.91,0.65359,10.821
-10.174,4.5714,-17.561001,-5.2174,-3.9604,-9.2557,-7.1545,-5.8615,-2.0065,-5.2174,-3.9604,-9.8693,3.8095,6.3158,-11.365,10.356,1.9324,-7.2142,5.7504,-7.8431,8.8889
-10.174,5.2063,-14.309,-1.3527,-1.9802,-6.6667,-4.5528,-7.1498,0.58252,-1.3527,-1.9802,-5.9477,3.8095,7.5917,-14.54,10.356,-1.9324,-10.435,6.3823,-7.1895,10.821
-13.333,5.8413,-7.1545,-2.6409,1.3201,-6.6667,-1.3008,-7.1498,1.2298,-2.6409,1.3201,-3.3333,3.8095,6.9537,-13.905,9.0615,-2.5765,-7.8583,5.7504,-7.1895,9.533
-6.3823,1.3968,-1.9512,-5.8615,0.66007,-7.9612,-1.3008,-8.438,1.2298,-5.8615,0.66007,-4.6405,5.7143,3.764,-6.2857,3.2362,-1.9324,-10.435,1.327,-3.9216,6.9565
-0.6951,-3.0476,1.9512,-4.5733,-0.66007,-6.0194,-0.65041,-5.8615,-0.06472,-4.5733,-0.66007,-3.3333,9.5238,2.488,1.9683,-1.9417,-0.64412,-1.4171,-0.56872,1.3072,3.0918
0.56872,-4.9524,3.252,-1.3527,-1.3201,-2.7832,-0.65041,0.57971,-3.301,-1.3527,-1.3201,-0.71895,13.333,1.2121,7.6825,-7.1197,0.0,6.9565,-4.9921,6.5359,-2.0612
6.8878,-10.667,3.252,0.57971,1.3201,1.7476,0.0,3.1562,-2.6537,0.57971,1.3201,1.8954,15.238,-0.0638,12.127,-9.0615,0.64412,5.0242,-6.8878,10.458,-5.2818
8.7836,-9.3968,3.9024,1.868,3.3003,4.3366,2.6016,3.1562,-1.3592,1.868,3.3003,3.2026,15.238,0.57416,12.762,-5.8252,3.8647,6.3124,-6.8878,11.111,-7.2142
10.679,-4.9524,5.8537,1.868,0.66007,3.0421,1.3008,3.1562,-2.0065,1.868,0.66007,1.2418,19.048,3.764,16.570999,0.0,9.6618,3.7359,-8.7836,16.993,-7.8583
10.679,-4.3175,6.5041,-1.9968,-2.6403,-0.84142,-1.9512,1.868,-2.6537,-1.9968,-2.6403,-2.0261,19.048,6.9537,17.205999,5.178,13.527,5.6683,-7.5197,15.686,-7.2142
6.8878,-3.0476,4.5528,-7.1498,-7.9208,-4.7249,-5.8537,-1.9968,-3.9482,-7.1498,-7.9208,-6.6013,15.873,4.4019,14.032,5.8252,13.527,5.6683,-8.7836,11.765,-7.2142
11.943,-2.4127,3.252,-5.8615,-4.6205,-2.7832,-5.8537,-5.2174,-2.6537,-5.8615,-4.6205,-5.9477,13.968,3.126,14.667,5.8252,13.527,0.5153,-3.7283,11.765,-3.9936
-5.7504,-6.8571,-7.1545,-4.5733,-2.6403,-6.6667,-7.8049,-5.2174,-2.0065,-4.5733,-2.6403,-7.9085,5.7143,-1.9777,0.06349,0.0,2.5765,-3.3494,-1.2006,4.5752,-3.3494
-25.34,-7.4921,-20.813,-3.9291,-2.6403,-10.55,-9.1057,-2.6409,-2.0065,-3.9291,-2.6403,-9.2157,-5.7143,-8.3573,-20.254,-7.1197,-13.527,-3.3494,-0.56872,-4.5752,-2.7053
-25.34,-7.4921,-22.764,-0.06441,-5.2805,-8.6084,-8.4553,-1.9968,-2.0065,-0.06441,-5.2805,-7.9085,-12.063,-10.909,-27.238001,-9.0615,-19.968,-4.6377,0.6951,-8.4967,-1.4171
-19.652,-5.5873,-16.26,-0.70853,-4.6205,-6.0194,-6.5041,-2.6409,-2.6537,-0.70853,-4.6205,-5.9477,-15.238,-10.271,-26.603001,-7.767,-18.035,-5.9259,1.9589,-11.111,1.8035
-12.701,-3.6825,-9.7561,-3.285,-1.3201,-4.7249,-5.8537,-3.285,-2.6537,-3.285,-1.3201,-5.9477,-14.603,-7.7193,-21.524,-7.1197,-14.815,-6.57,1.9589,-9.1503,3.7359
-2.5908,-4.3175,-4.5528,-3.9291,-3.3003,-4.7249,-7.8049,-3.9291,-3.301,-3.9291,-3.3003,-7.2549,-6.3492,-3.2536,-6.9206,-6.4725,-6.4412,-4.6377,0.06319,0.0,3.7359
3.0964,-11.937,-5.2033,-7.7939,-11.881,-9.2557,-16.26,-4.5733,-7.8317,-7.7939,-11.881,-14.444,3.8095,-0.0638,6.4127,-7.767,0.64412,-2.7053,-4.3602,5.8824,-0.12882
3.0964,-16.381001,-5.8537,-9.0821,-15.842,-11.197,-20.813,-3.285,-12.362,-9.0821,-15.842,-17.712,13.333,3.126,15.302,-7.1197,7.0853,5.6683,-8.7836,11.765,-2.7053
12.575,-13.841,1.3008,-6.5056,-11.221,-6.6667,-17.561001,-2.6409,-11.068,-6.5056,-11.221,-14.444,19.683001,5.6778,23.556,-3.2362,13.527,8.2448,-8.1517,17.646999,-3.3494
11.311,-7.4921,6.5041,-7.1498,-12.541,-6.0194,-13.008,-3.285,-11.068,-7.1498,-12.541,-11.176,17.143,3.126,22.285999,-1.9417,13.527,8.8889,-8.1517,15.686,-4.6377
8.1517,0.12698,6.5041,-7.7939,-12.541,-6.0194,-7.8049,-3.9291,-8.479,-7.7939,-12.541,-9.2157,11.429,-1.3397,17.205999,0.64725,9.6618,3.7359,-6.8878,11.111,-5.2818
0.56872,5.2063,5.2033,-5.2174,-5.2805,-5.3722,0.0,-1.9968,-2.0065,-5.2174,-5.2805,-4.6405,3.1746,-5.1675,7.0476,2.589,5.153,-0.77295,-3.0964,3.268,-5.2818
-3.8547,7.746,8.4553,1.2238,6.6007,2.3948,8.4553,3.8003,5.1133,1.2238,6.6007,5.1634,-0.63492,-5.1675,3.2381,5.8252,5.7971,2.4477,1.327,0.65359,-3.3494
4.9921,9.6508,14.309,9.5974,10.561,12.751,13.659,7.6651,8.9968,9.5974,10.561,13.66,-0.63492,-1.9777,5.7778,10.356,10.306,3.7359,2.5908,0.65359,-2.0612
-1.327,10.286,11.707,9.5974,11.221,12.104,13.008,7.6651,6.4078,9.5974,11.221,13.66,-4.4444,-1.9777,0.06349,11.003,7.7295,1.1594,-1.2006,-2.6144,-3.3494
-3.2227,12.825,9.1057,9.5974,13.201,11.456,13.659,8.9533,7.055,9.5974,13.201,12.353,-4.4444,2.488,-1.8413,12.298,6.4412,-2.7053,3.2227,0.0,1.1594
-2.5908,10.921,2.6016,5.7327,6.6007,4.9838,8.4553,3.1562,4.466,5.7327,6.6007,5.817,-10.794,1.2121,-12.0,7.1197,-3.2206,-2.7053,5.1185,-7.1895,3.7359
-10.174,5.8413,-6.5041,-1.3527,-2.6403,-2.1359,0.0,-1.3527,0.58252,-1.3527,-2.6403,-2.0261,-22.222,-5.8054,-26.603001,-3.2362,-18.68,-2.7053,3.2227,-17.646999,1.8035
-7.0142,-3.0476,-11.707,-0.06441,-1.9802,-1.4887,-4.5528,-3.9291,-0.06472,-0.06441,-1.9802,-3.3333,-27.302,-10.271,-29.778,-12.945,-28.341,-6.57,1.327,-18.301001,-0.12882
-3.8547,-11.302,-13.659,-0.06441,-0.66007,-0.19417,-5.2033,-3.285,0.58252,-0.06441,-0.66007,-3.3333,-29.205999,-15.375,-26.603001,-22.006001,-33.493999,-6.57,-1.2006,-17.646999,-2.0612
-8.91,-11.937,-13.659,0.57971,1.9802,-0.84142,-2.6016,2.5121,0.58252,0.57971,1.9802,-2.0261,-26.667,-16.650999,-22.159,-25.243,-32.849998,-4.6377,-3.0964,-14.379,-4.6377
-7.6461,-11.302,-13.008,3.1562,1.3201,-1.4887,-2.6016,3.1562,-0.06472,3.1562,1.3201,-1.3725,-22.222,-17.927,-15.175,-24.594999,-29.629999,-2.7053,-6.2559,-10.458,-7.2142
1.2006,-7.4921,-8.4553,3.1562,3.3003,0.45307,-1.3008,2.5121,1.2298,3.1562,3.3003,-0.06536,-16.507999,-17.289,-5.6508,-18.77,-20.612,-3.3494,-3.7283,-5.8824,-6.57
2.4645,-2.4127,-7.1545,1.868,2.6403,2.3948,0.65041,3.8003,3.1715,1.868,2.6403,0.58824,-11.429,-15.375,-1.2063,-12.945,-12.882,-2.0612,0.6951,-2.6144,-5.9259
3.0964,5.2063,-5.8537,4.4444,3.3003,5.6311,7.1545,2.5121,5.1133,4.4444,3.3003,5.1634,-6.9841,-10.909,2.6032,-5.178,-5.7971,-0.77295,3.2227,1.9608,-3.3494
-0.6951,9.0159,-1.3008,7.0209,7.2607,8.8673,12.358,6.3768,6.4078,7.0209,7.2607,9.7386,-6.3492,-8.9952,0.69841,0.0,-1.2882,5.0242,2.5908,0.0,-3.3494
4.3602,10.921,10.407,9.5974,9.901,14.045,17.561001,8.9533,6.4078,9.5974,9.901,16.275,-1.2698,-3.8915,5.7778,6.4725,7.0853,8.2448,2.5908,1.9608,-1.4171
8.1517,12.825,16.910999,8.9533,8.5809,13.398,16.910999,9.5974,5.7605,8.9533,8.5809,15.621,4.4444,1.8501,13.397,12.298,15.459,9.533,1.9589,8.4967,1.1594
10.047,10.286,16.26,4.4444,5.2805,10.162,10.407,5.7327,2.5243,4.4444,5.2805,10.392,5.7143,5.6778,14.667,14.239,17.391001,8.8889,1.9589,9.1503,0.5153
4.9921,7.746,11.707,2.5121,0.66007,6.9256,5.8537,0.57971,0.58252,2.5121,0.66007,7.1242,3.8095,8.8676,5.1429,14.239,12.882,2.4477,1.9589,5.2288,1.8035
-4.4866,9.6508,7.8049,3.8003,1.3201,6.9256,7.1545,2.5121,1.877,3.8003,1.3201,7.7778,0.63492,10.144,-6.9206,11.65,4.5089,-2.7053,3.2227,0.0,4.38
-8.278,6.4762,4.5528,1.868,1.9802,5.6311,6.5041,1.868,1.877,1.868,1.9802,6.4706,-6.9841,3.764,-17.079,3.2362,-5.7971,-5.2818,1.327,-5.8824,2.4477
-7.6461,4.5714,0.65041,-0.06441,0.66007,1.7476,3.252,-0.70853,-0.06472,-0.06441,0.66007,1.8954,-12.698,-5.1675,-18.983999,-5.8252,-14.171,-7.8583,-1.2006,-5.2288,-0.77295
-13.333,-1.1429,-5.2033,-1.3527,-2.6403,-2.7832,-2.6016,0.57971,-1.3592,-1.3527,-2.6403,-3.9869,-15.238,-10.909,-20.254,-13.592,-19.323999,-2.7053,-1.8325,-9.1503,-2.7053
-12.701,-9.3968,-11.707,-6.5056,-5.9406,-7.3139,-9.1057,-7.1498,-2.0065,-6.5056,-5.9406,-9.8693,-15.873,-13.461,-18.349001,-16.827999,-19.968,-3.3494,0.06319,-13.072,-2.7053
-5.7504,-10.667,-13.659,-5.8615,-3.3003,-7.3139,-7.8049,-6.5056,-0.06472,-5.8615,-3.3003,-9.8693,-10.794,-9.6332,-6.9206,-12.945,-13.527,-8.5024,3.8547,-8.4967,0.5153
-1.9589,-7.4921,-12.358,-0.70853,1.3201,-4.7249,-3.252,-0.70853,3.1715,-0.70853,1.3201,-5.9477,-1.9048,-3.8915,1.9683,-8.4142,-6.4412,-2.7053,4.4866,-2.6144,1.1594
0.56872,-6.2222,-10.407,0.57971,4.6205,-3.4304,0.0,0.57971,2.5243,0.57971,4.6205,-1.3725,5.7143,2.488,8.3175,-4.5307,-1.2882,-0.12882,2.5908,2.6144,2.4477
-3.8547,-5.5873,-13.008,2.5121,2.6403,-0.19417,0.0,2.5121,-0.06472,2.5121,2.6403,0.58824,10.159,6.9537,7.0476,-1.9417,-0.64412,3.0918,1.327,3.9216,4.38
-5.1185,-3.6825,-14.309,3.8003,1.3201,1.1003,0.0,1.2238,-0.71197,3.8003,1.3201,1.2418,12.063,10.781,4.5079,0.64725,-1.2882,1.1594,1.327,4.5752,6.9565
-3.8547,0.12698,-11.707,1.868,1.3201,1.1003,-1.9512,-0.70853,-3.9482,1.868,1.3201,-0.06536,15.238,13.971,3.2381,1.9417,0.0,-0.12882,0.6951,5.2288,6.9565
-6.3823,-3.0476,-7.1545,-0.06441,-1.9802,-1.4887,-5.8537,-1.9968,-4.5955,-0.06441,-1.9802,-3.3333,17.778,15.247,4.5079,2.589,3.2206,0.5153,-2.4645,7.8431,4.38
-1.9589,-3.0476,1.3008,0.57971,-1.3201,-0.19417,-4.5528,-0.06441,-3.301,0.57971,-1.3201,-1.3725,17.143,13.971,6.4127,2.589,7.0853,-0.12882,-1.2006,7.1895,2.4477
1.2006,0.7619,9.1057,3.1562,-0.66007,4.9838,0.65041,1.2238,-1.3592,3.1562,-0.66007,3.8562,12.698,10.144,3.873,2.589,8.3736,4.38,-0.56872,5.8824,0.5153
-3.8547,3.9365,12.358,4.4444,1.3201,6.2783,4.5528,4.4444,2.5243,4.4444,1.3201,5.817,7.619,6.3158,0.69841,3.2362,7.0853,5.0242,-0.56872,5.2288,-0.12882
3.7283,7.746,15.61,5.0886,3.9604,8.2201,7.1545,4.4444,3.8188,5.0886,3.9604,7.7778,3.1746,4.4019,1.9683,5.8252,7.0853,1.8035,1.327,3.9216,0.5153
6.8878,7.1111,14.309,3.1562,4.6205,7.5728,7.1545,3.1562,3.1715,3.1562,4.6205,7.1242,0.63492,3.126,3.2381,7.1197,6.4412,5.0242,0.6951,4.5752,0.5153
6.8878,5.2063,12.358,1.868,0.66007,6.2783,5.8537,5.0886,1.877,1.868,0.66007,5.817,-1.9048,-0.70175,4.5079,6.4725,5.7971,6.3124,-1.2006,3.9216,-2.0612
13.839,7.746,13.008,3.8003,0.66007,9.5146,9.7561,4.4444,1.877,3.8003,0.66007,9.7386,-1.2698,-2.6156,9.5873,3.8835,6.4412,5.0242,-3.0964,5.2288,-5.9259
13.839,7.746,12.358,8.3092,5.9406,12.104,13.008,6.3768,5.1133,8.3092,5.9406,13.66,-0.63492,-3.2536,10.222,2.589,6.4412,7.6006,0.06319,4.5752,-7.2142
8.1517,6.4762,9.7561,11.53,12.541,13.398,14.309,9.5974,7.7023,11.53,12.541,15.621,-1.2698,-1.9777,7.0476,3.2362,6.4412,6.3124,3.8547,1.3072,-5.2818
7.5197,9.6508,9.1057,12.818,11.881,13.398,13.008,10.242,9.644,12.818,11.881,16.275,0.0,1.8501,6.4127,8.4142,9.0177,4.38,5.7504,0.65359,-0.12882
10.679,11.556,9.7561,9.5974,7.2607,12.751,10.407,4.4444,8.3495,9.5974,7.2607,14.967,2.5397,6.9537,8.9524,13.592,12.238,-0.12882,7.6461,1.9608,4.38
6.8878,7.746,7.1545,4.4444,1.9802,7.5728,4.5528,-0.06441,3.8188,4.4444,1.9802,8.4314,0.63492,6.9537,4.5079,11.003,9.6618,-5.2818,3.8547,-3.268,3.7359
-0.6951,2.6667,4.5528,1.2238,0.0,2.3948,0.0,1.868,-0.71197,1.2238,0.0,3.2026,-0.63492,5.6778,-0.57143,6.4725,5.153,-1.4171,-0.56872,-5.2288,2.4477
-3.2227,-1.7778,1.9512,-0.70853,-3.3003,-0.19417,-3.252,0.57971,-3.301,-0.70853,-3.3003,-0.71895,0.0,5.0399,-1.8413,1.9417,1.2882,-0.12882,-2.4645,-1.3072,2.4477
-4.4866,-4.3175,-3.252,-1.9968,-4.6205,-3.4304,-5.8537,-1.9968,-4.5955,-1.9968,-4.6205,-4.6405,-1.2698,3.126,-4.381,-1.9417,-4.5089,-2.0612,0.06319,-0.65359,2.4477
-5.7504,-4.3175,-7.8049,-4.5733,-5.2805,-3.4304,-9.1057,-2.6409,-5.89,-4.5733,-5.2805,-7.9085,-3.1746,-0.70175,-5.6508,-5.8252,-9.0177,-0.12882,-0.56872,1.3072,1.1594
-12.07,-11.302,-14.959,-6.5056,-7.9208,-7.9612,-13.659,-3.9291,-7.8317,-6.5056,-7.9208,-12.484,-8.8889,-10.271,-11.365,-15.534,-18.035,-0.12882,-4.9921,-1.9608,-3.9936
-5.7504,-14.476,-14.959,-4.5733,-4.6205,-7.3139,-12.358,-3.285,-5.2427,-4.5733,-4.6205,-9.8693,-11.429,-16.650999,-9.4603,-21.358999,-20.612,-2.7053,-4.9921,-0.65359,-6.57
-5.7504,-13.841,-14.309,-3.9291,-4.6205,-5.3722,-11.057,-1.9968,-5.2427,-3.9291,-4.6205,-8.5621,-13.968,-21.754,-8.8254,-24.594999,-21.9,0.5153,-5.624,-1.3072,-9.1465
-6.3823,-12.571,-11.707,-1.9968,-7.9208,-4.7249,-11.707,-1.3527,-5.2427,-1.9968,-7.9208,-7.9085,-12.698,-21.754,-6.2857,-22.653999,-18.035,3.0918,-5.624,-0.65359,-9.1465
-3.2227,-10.032,-5.2033,-0.70853,-5.2805,-2.7832,-9.7561,2.5121,-3.9482,-0.70853,-5.2805,-4.6405,-7.619,-15.375,-1.2063,-14.239,-9.0177,2.4477,-4.9921,1.9608,-6.57
-1.9589,-6.2222,0.0,-3.285,-1.9802,-2.7832,-6.5041,-0.06441,-2.0065,-3.285,-1.9802,-2.0261,-5.7143,-9.6332,-1.2063,-7.767,-3.8647,0.5153,-2.4645,0.65359,-3.9936
1.2006,0.7619,5.8537,-1.9968,0.0,0.45307,-0.65041,-1.3527,1.877,-1.9968,0.0,3.8562,-3.1746,-2.6156,0.06349,-0.64725,1.2882,0.5153,0.6951,2.6144,-0.77295
5.624,9.6508,13.008,4.4444,6.6007,6.2783,7.8049,3.1562,5.1133,4.4444,6.6007,11.699,1.2698,4.4019,2.6032,7.767,7.7295,3.7359,3.8547,1.9608,3.7359
6.8878,16.0,16.910999,7.6651,5.9406,10.162,11.057,4.4444,5.1133,7.6651,5.9406,14.314,4.4444,10.144,4.5079,16.181,14.171,5.6683,7.6461,0.65359,7.6006
12.575,16.635,20.813,7.6651,4.6205,12.751,11.707,4.4444,4.466,7.6651,4.6205,15.621,9.5238,15.247,9.5873,23.948,21.9,7.6006,7.0142,4.5752,9.533
14.471,14.095,18.862,4.4444,5.2805,10.162,9.1057,3.8003,3.1715,4.4444,5.2805,13.007,12.698,17.160999,13.397,24.594999,23.833,6.3124,5.7504,6.5359,8.8889
14.471,11.556,13.659,2.5121,3.9604,6.2783,6.5041,3.1562,1.2298,2.5121,3.9604,9.085,15.238,17.799,15.302,22.006001,21.9,3.0918,6.3823,7.8431,9.533
6.8878,4.5714,4.5528,0.57971,-1.3201,1.7476,-0.65041,2.5121,-0.71197,0.57971,-1.3201,2.549,17.143,16.523001,13.397,15.534,14.815,5.6683,4.4866,9.1503,7.6006
1.8325,0.7619,-1.3008,-1.3527,-4.6205,-2.7832,-4.5528,-1.3527,-2.6537,-1.3527,-4.6205,-2.0261,19.048,15.885,12.127,11.003,9.6618,5.6683,2.5908,11.111,7.6006
-6.3823,-6.8571,-9.1057,-5.2174,-7.2607,-8.6084,-10.407,-4.5733,-5.89,-5.2174,-7.2607,-9.8693,13.333,9.5056,5.1429,1.2945,0.0,3.0918,-1.2006,7.8431,3.0918
-13.333,-11.302,-15.61,-10.37,-7.9208,-15.081,-13.659,-8.438,-7.1845,-10.37,-7.9208,-15.098,4.4444,1.2121,-2.4762,-8.4142,-10.306,-0.12882,-4.3602,3.268,-1.4171
-12.701,-12.571,-19.511999,-11.659,-10.561,-17.023001,-16.26,-9.7262,-7.8317,-11.659,-10.561,-18.365999,-3.8095,-7.0813,-7.5556,-15.534,-17.391001,-5.9259,-6.8878,0.0,-3.9936
-13.965,-16.381001,-21.462999,-11.014,-12.541,-17.023001,-18.862,-9.0821,-8.479,-11.014,-12.541,-19.673,-10.794,-11.547,-13.905,-20.065001,-22.544001,-5.2818,-6.2559,-6.5359,-5.2818
-7.6461,-13.206,-14.309,-11.014,-7.2607,-12.492,-13.008,-7.7939,-5.89,-11.014,-7.2607,-14.444,-8.8889,-8.9952,-10.73,-14.887,-16.103001,-3.9936,0.06319,-5.8824,-1.4171
-3.8547,-5.5873,-7.1545,-9.7262,-5.2805,-9.2557,-7.1545,-9.7262,-2.0065,-9.7262,-5.2805,-9.8693,-5.0794,-6.4434,-6.2857,-7.1197,-7.7295,-4.6377,3.2227,-5.2288,-0.12882
1.8325,1.3968,-0.65041,-9.7262,-6.6007,-6.6667,-2.6016,-6.5056,-0.06472,-9.7262,-6.6007,-5.2941,-0.63492,-1.9777,0.06349,1.2945,1.2882,-7.8583,2.5908,-3.9216,1.1594
5.624,5.8413,3.9024,-9.7262,-5.2805,-3.4304,1.9512,-5.8615,-0.06472,-9.7262,-5.2805,-1.3725,5.0794,5.6778,4.5079,10.356,9.0177,-4.6377,3.8547,-0.65359,5.0242
1.8325,9.0159,6.5041,-5.8615,-1.3201,1.7476,6.5041,-3.9291,1.2298,-5.8615,-1.3201,4.5098,8.8889,10.781,4.5079,14.887,12.238,2.4477,3.8547,0.0,6.9565
-1.9589,8.381,7.1545,-3.285,1.9802,2.3948,7.8049,-0.06441,2.5243,-3.285,1.9802,6.4706,10.794,13.333,4.5079,16.181,13.527,2.4477,3.2227,1.9608,6.3124
-4.4866,7.1111,5.8537,-2.6409,0.0,-2.1359,5.8537,0.57971,0.58252,-2.6409,0.0,3.8562,12.698,14.609,4.5079,15.534,12.882,-0.12882,1.9589,2.6144,5.0242
-1.9589,9.0159,6.5041,-6.5056,-3.3003,-4.0777,5.2033,-1.9968,1.877,-6.5056,-3.3003,1.2418,13.968,17.160999,4.5079,16.181,12.882,0.5153,3.2227,2.6144,6.3124
-1.9589,12.19,5.2033,-7.1498,-2.6403,-2.7832,6.5041,-1.3527,0.58252,-7.1498,-2.6403,1.2418,13.968,18.437,3.2381,16.181,10.95,3.0918,1.327,5.2288,5.6683
0.56872,2.6667,-0.65041,-3.9291,-1.9802,-0.84142,3.9024,1.2238,-1.3592,-3.9291,-1.9802,0.58824,10.794,13.971,1.3333,10.356,3.2206,4.38,-1.8325,8.4967,2.4477
-1.9589,-4.9524,-7.1545,-1.3527,-1.3201,-0.84142,0.65041,1.2238,-3.301,-1.3527,-1.3201,-0.71895,3.1746,5.0399,-3.746,0.64725,-6.4412,2.4477,-4.9921,6.5359,-2.0612
-0.6951,-4.3175,-7.8049,-0.06441,1.3201,-0.84142,-0.65041,1.2238,-3.301,-0.06441,1.3201,-1.3725,-4.4444,-3.8915,-6.2857,-6.4725,-12.882,-3.9936,-4.9921,1.9608,-3.3494
-7.0142,-5.5873,-8.4553,-1.9968,0.66007,-4.0777,-3.9024,-2.6409,-3.9482,-1.9968,0.66007,-3.3333,-10.159,-11.547,-11.365,-12.945,-17.391001,-1.4171,-4.3602,-3.9216,-5.2818
-12.701,-6.8571,-10.407,-3.285,-1.9802,-6.6667,-7.1545,-4.5733,-4.5955,-3.285,-1.9802,-7.2549,-11.429,-16.013,-12.0,-15.534,-18.68,-1.4171,-4.3602,-5.8824,-5.2818
-11.438,-11.937,-16.26,-6.5056,-5.9406,-8.6084,-11.707,-6.5056,-5.89,-6.5056,-5.9406,-12.484,-10.794,-17.927,-11.365,-19.417,-19.968,-5.9259,-4.3602,-6.5359,-7.2142
-5.7504,-13.841,-17.561001,-5.2174,-7.2607,-7.3139,-12.358,-3.9291,-5.2427,-5.2174,-7.2607,-12.484,-8.8889,-16.013,-9.4603,-19.417,-19.323999,-6.57,-3.0964,-4.5752,-6.57
-7.6461,-9.3968,-13.659,-3.9291,-5.2805,-6.6667,-10.407,-1.9968,-4.5955,-3.9291,-5.2805,-11.83,-8.8889,-12.823,-12.0,-15.534,-17.391001,-7.2142,-3.7283,-6.5359,-5.2818
-8.91,-8.127,-7.1545,-6.5056,-5.2805,-5.3722,-7.8049,-3.9291,-2.6537,-6.5056,-5.2805,-9.2157,-7.619,-9.6332,-14.54,-11.003,-12.882,-3.3494,-1.8325,-9.1503,-2.0612
-8.278,-6.8571,-1.9512,-7.1498,-6.6007,-6.6667,-6.5041,-5.2174,-2.0065,-7.1498,-6.6007,-7.2549,-5.7143,-5.1675,-12.0,-5.178,-6.4412,-7.8583,-0.56872,-8.4967,-0.12882
-5.7504,-2.4127,-0.65041,-7.1498,-6.6007,-7.9612,-3.9024,-5.8615,-2.0065,-7.1498,-6.6007,-6.6013,-3.1746,-1.9777,-9.4603,-0.64725,-1.2882,-8.5024,-0.56872,-7.8431,0.5153
-6.3823,2.6667,0.0,-5.8615,-2.6403,-9.9029,0.0,-5.8615,3.1715,-5.8615,-2.6403,-5.2941,-0.63492,1.8501,-6.2857,3.8835,2.5765,-6.57,1.327,-6.5359,3.0918
-6.3823,6.4762,1.3008,-1.9968,1.9802,-6.6667,4.5528,-3.9291,7.7023,-1.9968,1.9802,-1.3725,0.0,2.488,-3.746,7.1197,4.5089,-3.9936,3.8547,-5.2288,5.0242
-7.6461,5.8413,0.0,0.57971,5.9406,-2.1359,4.5528,0.57971,8.9968,0.57971,5.9406,-0.06536,-3.1746,-0.0638,-5.0159,6.4725,1.9324,-1.4171,5.7504,-6.5359,3.7359
-5.7504,2.6667,-2.6016,1.868,5.2805,-0.84142,3.252,1.2238,7.055,1.868,5.2805,-0.06536,-5.0794,-2.6156,-4.381,4.5307,-0.64412,-3.9936,5.7504,-7.1895,2.4477
-3.2227,0.7619,-5.2033,5.0886,6.6007,1.7476,2.6016,1.868,7.055,5.0886,6.6007,1.2418,-6.3492,-1.9777,-4.381,4.5307,-2.5765,-3.3494,5.1185,-8.4967,2.4477
3.7283,3.9365,-2.6016,7.6651,9.901,7.5728,5.8537,3.8003,9.644,7.6651,9.901,5.817,-4.4444,0.57416,1.3333,5.8252,-0.64412,-5.9259,8.278,-4.5752,4.38
5.624,5.8413,-3.252,7.0209,7.2607,6.2783,5.2033,2.5121,8.3495,7.0209,7.2607,4.5098,-8.8889,-0.0638,-0.57143,3.8835,-3.8647,-6.57,7.6461,-9.1503,3.0918
-3.2227,2.0317,-5.8537,7.0209,7.2607,3.0421,4.5528,3.1562,8.9968,7.0209,7.2607,1.8954,-12.063,-1.3397,-8.1905,0.0,-9.0177,-1.4171,6.3823,-11.765,1.8035
-9.5419,-3.6825,-9.1057,3.8003,5.9406,-2.1359,0.0,2.5121,6.4078,3.8003,5.9406,-2.6797,-13.968,-3.8915,-12.635,-7.1197,-14.815,-0.77295,1.9589,-9.8039,-1.4171
-7.6461,-6.8571,-10.407,-1.9968,-0.66007,-6.0194,-4.5528,-0.06441,1.877,-1.9968,-0.66007,-7.2549,-14.603,-7.7193,-13.905,-15.534,-18.68,-3.3494,-0.56872,-9.1503,-4.6377
-0.6951,-8.127,-8.4553,-3.9291,-2.6403,-4.0777,-5.2033,-1.9968,1.2298,-3.9291,-2.6403,-6.6013,-12.063,-8.9952,-12.0,-20.712,-18.68,-2.0612,-1.8325,-5.2288,-5.2818
-1.9589,-7.4921,-9.1057,-1.9968,-0.66007,-2.1359,-4.5528,1.868,-0.71197,-1.9968,-0.66007,-4.6405,-7.619,-7.7193,-8.8254,-21.358999,-16.103001,3.0918,-4.9921,-2.6144,-6.57
-0.6951,-6.2222,-5.8537,-1.9968,-0.66007,-2.1359,-3.9024,3.8003,-2.6537,-1.9968,-0.66007,-3.9869,-0.63492,-3.8915,-1.2063,-15.534,-7.0853,6.9565,-6.2559,2.6144,-5.2818
7.5197,-3.0476,1.3008,-0.06441,-1.9802,-0.84142,-1.9512,3.8003,-1.3592,-0.06441,-1.9802,-2.6797,7.619,2.488,8.9524,-5.178,5.153,6.3124,-3.0964,7.8431,-2.0612
13.207,0.12698,8.4553,0.57971,-4.6205,0.45307,-0.65041,3.1562,-0.71197,0.57971,-4.6205,-1.3725,15.238,8.8676,17.841,4.5307,15.459,5.0242,-1.2006,13.725,0.5153
15.735,7.1111,13.008,-0.06441,-3.3003,3.6893,2.6016,2.5121,-0.71197,-0.06441,-3.3003,0.58824,22.222,15.885,22.285999,13.592,22.544001,8.8889,1.327,15.686,4.38
13.839,5.8413,11.057,-1.3527,0.0,3.0421,2.6016,1.2238,-0.71197,-1.3527,0.0,0.58824,23.492001,19.075001,20.381001,17.476,24.476999,11.465,3.2227,13.072,6.3124
9.4155,2.6667,9.1057,-1.3527,-0.66007,-0.19417,0.0,-0.06441,-1.3592,-1.3527,-0.66007,-0.71895,21.587,18.437,18.476,17.476,23.188,6.9565,0.06319,11.765,5.0242
6.2559,2.0317,9.1057,-0.06441,-1.3201,-0.84142,-0.65041,-1.3527,-2.6537,-0.06441,-1.3201,-0.71895,16.507999,13.971,13.397,14.239,19.968,3.0918,-1.8325,8.4967,2.4477
5.624,-1.1429,7.8049,0.57971,-1.3201,-1.4887,-0.65041,-1.9968,-1.3592,0.57971,-1.3201,-0.71895,8.8889,8.8676,6.4127,7.767,12.882,-3.3494,-4.3602,3.9216,0.5153
2.4645,-3.0476,2.6016,3.1562,2.6403,-1.4887,0.0,-2.6409,-0.71197,3.1562,2.6403,-0.71895,1.9048,3.764,-3.1111,3.2362,3.8647,-5.9259,-1.8325,0.0,0.5153
-13.333,-3.0476,-7.1545,1.868,3.3003,-6.0194,-0.65041,-0.70853,0.58252,1.868,3.3003,-4.6405,-5.7143,-0.70175,-15.175,-1.2945,-8.3736,-4.6377,1.327,-6.5359,1.8035
-22.812,-1.7778,-17.561001,-2.6409,0.0,-11.197,-1.9512,-3.9291,1.2298,-2.6409,0.0,-8.5621,-10.794,-3.8915,-24.063,-4.5307,-19.323999,-11.079,3.2227,-11.111,3.0918
-22.812,0.12698,-21.462999,-4.5733,-3.9604,-12.492,-3.252,-6.5056,-0.06472,-4.5733,-3.9604,-9.8693,-15.238,-7.0813,-27.872999,-7.1197,-25.121,-11.723,3.2227,-13.725,3.0918
-17.757,4.5714,-14.959,-3.9291,-3.3003,-9.9029,-1.3008,-7.1498,0.58252,-3.9291,-3.3003,-7.2549,-17.143,-9.6332,-24.063,-6.4725,-22.544001,-8.5024,1.9589,-13.725,1.8035
-9.5419,2.6667,-5.8537,-1.3527,0.66007,-6.6667,0.65041,-2.6409,2.5243,-1.3527,0.66007,-3.9869,-15.873,-8.3573,-15.175,-1.9417,-13.527,-5.2818,5.1185,-12.418,2.4477
6.2559,5.2063,5.2033,1.2238,3.9604,-0.19417,4.5528,1.868,5.7605,1.2238,3.9604,0.58824,-8.254,-1.3397,0.69841,5.8252,0.0,-2.0612,8.278,-5.2288,5.6683
13.839,10.921,14.309,0.57971,1.3201,4.3366,7.1545,2.5121,5.7605,0.57971,1.3201,3.2026,-3.1746,3.764,7.6825,12.298,10.306,3.0918,8.278,-3.268,8.2448
17.629999,13.46,17.561001,-0.06441,-1.3201,3.6893,8.4553,-0.70853,5.7605,-0.06441,-1.3201,3.2026,0.0,4.4019,11.492,13.592,14.815,1.8035,7.6461,-3.268,8.2448
15.103,14.095,16.26,1.868,1.3201,1.7476,8.4553,1.868,5.1133,1.868,1.3201,3.8562,5.0794,5.6778,15.302,13.592,18.035,-0.12882,7.0142,1.9608,7.6006
10.047,11.556,11.707,1.2238,3.9604,-0.19417,5.2033,2.5121,3.1715,1.2238,3.9604,1.2418,8.8889,5.6778,14.667,12.298,18.035,-0.12882,4.4866,3.9216,7.6006
5.624,9.6508,8.4553,3.8003,1.9802,0.45307,1.3008,4.4444,-0.71197,3.8003,1.9802,0.58824,9.5238,3.764,12.762,9.7087,17.391001,7.6006,3.2227,5.8824,5.0242
4.3602,-1.1429,3.252,4.4444,1.3201,0.45307,-4.5528,4.4444,-2.6537,4.4444,1.3201,-2.0261,8.8889,-0.70175,12.127,2.589,13.527,10.177,0.06319,7.1895,-0.77295
5.624,-11.302,0.0,2.5121,2.6403,-0.19417,-7.1545,3.8003,-2.6537,2.5121,2.6403,-3.9869,5.0794,-7.7193,9.5873,-7.1197,7.0853,7.6006,-4.9921,7.8431,-7.2142
1.2006,-14.476,-1.3008,1.2238,0.0,-1.4887,-7.8049,3.8003,-3.301,1.2238,0.0,-5.9477,0.63492,-12.823,4.5079,-14.887,-0.64412,3.7359,-9.4155,9.1503,-11.079
-1.327,-11.937,-5.2033,2.5121,0.66007,-0.84142,-4.5528,3.8003,-2.0065,2.5121,0.66007,-3.9869,-3.8095,-16.650999,-4.381,-17.476,-10.306,1.8035,-8.1517,3.268,-10.435
2.4645,-9.3968,-10.407,1.868,-0.66007,1.1003,-3.252,-1.3527,-0.06472,1.868,-0.66007,-2.6797,-6.9841,-16.013,-8.8254,-18.122999,-17.391001,-2.0612,-6.2559,-1.9608,-9.1465
-8.91,-8.127,-16.26,0.57971,0.0,-2.1359,-2.6016,-0.70853,-0.06472,0.57971,0.0,-3.3333,-7.619,-12.185,-13.905,-16.181,-20.612,-3.9936,-4.3602,-4.5752,-7.8583
-12.07,-1.1429,-11.707,2.5121,1.9802,-1.4887,1.9512,3.8003,3.1715,2.5121,1.9802,-0.06536,-3.1746,-3.2536,-11.365,-6.4725,-12.882,0.5153,-0.56872,-3.9216,-4.6377
4.9921,12.825,1.3008,0.57971,3.9604,1.7476,9.1057,-0.70853,5.1133,0.57971,3.9604,5.1634,4.4444,6.3158,1.3333,7.767,2.5765,1.1594,1.327,1.3072,0.5153
8.1517,13.46,8.4553,-1.3527,2.6403,1.1003,10.407,-0.06441,7.055,-1.3527,2.6403,5.817,7.619,11.419,9.5873,16.181,14.171,1.8035,5.7504,3.9216,5.0242
7.5197,13.46,14.959,-0.70853,1.9802,1.7476,13.008,0.57971,7.055,-0.70853,1.9802,7.1242,6.9841,11.419,12.762,18.77,19.968,5.0242,7.0142,3.9216,6.3124
10.047,17.27,20.813,-0.06441,4.6205,4.3366,14.959,0.57971,7.055,-0.06441,4.6205,9.7386,6.9841,8.2297,17.205999,20.065001,24.476999,3.7359,5.7504,7.1895,5.6683
16.997999,15.365,24.065001,2.5121,5.9406,8.2201,12.358,1.2238,5.7605,2.5121,5.9406,11.699,5.7143,5.6778,17.205999,20.065001,26.409,5.0242,6.3823,5.2288,5.6683
25.212999,14.73,26.667,3.8003,5.9406,11.456,8.4553,1.2238,3.8188,3.8003,5.9406,11.046,8.8889,7.5917,21.650999,22.006001,29.629999,2.4477,7.6461,7.1895,6.9565
16.997999,10.286,21.462999,1.2238,1.9802,6.2783,0.65041,1.868,0.58252,1.2238,1.9802,5.1634,11.429,8.8676,21.016001,21.358999,28.341,6.9565,5.7504,9.1503,7.6006
3.0964,1.3968,9.7561,-3.285,-5.2805,-2.1359,-7.8049,-1.3527,-3.301,-3.285,-5.2805,-3.3333,5.0794,4.4019,10.857,12.945,17.391001,5.0242,1.9589,2.6144,3.7359
-3.8547,-3.0476,-0.65041,-2.6409,-5.2805,-4.7249,-10.407,-3.285,-3.9482,-2.6409,-5.2805,-6.6013,-0.63492,-1.3397,2.6032,2.589,4.5089,-2.0612,-0.56872,-1.3072,2.4477
-9.5419,-11.937,-11.707,-1.3527,-0.66007,-5.3722,-9.7561,-3.285,-2.6537,-1.3527,-0.66007,-7.2549,-8.254,-8.3573,-8.1905,-8.4142,-9.6618,-5.2818,-3.0964,-5.8824,-2.7053
-10.806,-13.206,-13.659,2.5121,0.66007,-4.0777,-6.5041,-2.6409,1.2298,2.5121,0.66007,-4.6405,-13.968,-12.185,-13.905,-12.945,-17.391001,-8.5024,-4.9921,-9.1503,-5.2818
-12.07,-8.7619,-13.008,1.2238,-0.66007,-2.7832,-3.9024,-3.285,-0.06472,1.2238,-0.66007,-2.6797,-15.238,-12.185,-15.81,-12.945,-19.968,-10.435,-4.3602,-7.8431,-4.6377
-2.5908,-1.7778,-9.7561,-1.3527,1.3201,-0.19417,0.0,-4.5733,1.877,-1.3527,1.3201,0.58824,-12.063,-7.0813,-13.905,-8.4142,-17.391001,-7.8583,1.327,-7.8431,-1.4171
-5.7504,0.7619,-9.7561,-1.9968,3.3003,-0.19417,3.9024,-1.9968,4.466,-1.9968,3.3003,1.2418,-7.619,-5.1675,-12.635,-8.4142,-14.815,-2.7053,1.9589,-7.8431,-1.4171
-15.229,-2.4127,-13.659,-2.6409,-1.9802,-3.4304,0.0,3.1562,1.877,-2.6409,-1.9802,-2.6797,-5.0794,-5.8054,-12.635,-11.003,-13.527,1.8035,-2.4645,-5.8824,-5.9259
-9.5419,0.7619,-9.7561,-1.9968,-4.6205,-2.1359,-0.65041,1.868,-0.06472,-1.9968,-4.6205,-2.6797,-1.2698,-3.2536,-7.5556,-5.8252,-5.7971,1.1594,-2.4645,-3.268,-4.6377
-8.91,2.0317,-5.8537,1.868,-1.3201,-0.19417,0.0,1.868,-0.06472,1.868,-1.3201,-0.71895,0.0,-1.3397,-4.381,-1.2945,-0.64412,1.8035,-1.8325,-1.9608,-3.9936
-1.327,2.6667,-1.3008,1.868,1.9802,1.7476,0.65041,1.868,1.2298,1.868,1.9802,1.2418,3.1746,1.2121,1.3333,2.589,4.5089,0.5153,0.6951,1.3072,-2.0612
10.047,5.2063,3.252,2.5121,1.9802,4.9838,0.65041,1.2238,1.877,2.5121,1.9802,1.8954,6.9841,4.4019,11.492,7.1197,11.594,-2.0612,1.327,8.4967,1.1594
9.4155,1.3968,3.252,1.868,-1.3201,4.9838,-3.9024,-0.70853,-2.0065,1.868,-1.3201,-0.71895,6.9841,3.126,11.492,5.178,12.238,5.6683,-1.2006,7.8431,-0.77295
1.8325,-5.5873,0.65041,-1.3527,-3.3003,1.1003,-9.1057,-0.70853,-5.2427,-1.3527,-3.3003,-4.6405,5.0794,-0.0638,8.9524,1.2945,9.0177,11.465,-3.0964,7.1895,-3.3494
-3.8547,-10.667,0.65041,1.868,-1.3201,1.1003,-6.5041,2.5121,-4.5955,1.868,-1.3201,-2.0261,1.2698,-5.1675,4.5079,-6.4725,2.5765,5.6683,-6.8878,5.8824,-7.2142
-1.327,-6.2222,4.5528,8.3092,7.9208,7.5728,5.8537,4.4444,1.2298,8.3092,7.9208,9.7386,-4.4444,-9.6332,-1.2063,-14.887,-6.4412,2.4477,-6.2559,1.9608,-8.5024
-1.9589,-7.4921,3.9024,9.5974,11.881,9.5146,11.057,3.1562,4.466,9.5974,11.881,13.66,-10.159,-14.099,-6.9206,-20.712,-14.815,-0.12882,-4.3602,0.0,-7.8583
-1.327,-10.032,-0.65041,5.7327,5.9406,5.6311,7.8049,1.868,1.877,5.7327,5.9406,9.085,-12.698,-14.737,-10.095,-21.358999,-19.968,-2.7053,-4.3602,-1.9608,-7.2142
5.624,-7.4921,-3.9024,0.57971,0.0,4.9838,1.9512,-0.70853,-1.3592,0.57971,0.0,3.8562,-12.063,-12.185,-7.5556,-16.827999,-19.968,-6.57,-5.624,1.3072,-5.9259
-3.2227,-6.2222,-10.407,-2.6409,-3.9604,0.45307,-5.2033,-1.3527,-5.2427,-2.6409,-3.9604,-3.9869,-13.333,-10.271,-12.635,-14.239,-21.256001,-0.12882,-4.9921,-4.5752,-5.9259
-5.1185,-3.6825,-11.707,0.57971,-4.6205,0.45307,-8.4553,1.2238,-5.2427,0.57971,-4.6205,-5.9477,-11.429,-6.4434,-10.73,-9.0615,-17.391001,3.0918,-3.0964,-5.8824,-4.6377
4.9921,2.6667,-6.5041,2.5121,-3.3003,3.6893,-4.5528,2.5121,-1.3592,2.5121,-3.3003,-2.0261,-5.7143,-1.3397,-0.57143,-1.9417,-8.3736,0.5153,1.327,-1.3072,-1.4171
3.0964,5.2063,-3.9024,1.868,-1.3201,2.3948,-1.9512,1.868,1.2298,1.868,-1.3201,-0.71895,-0.63492,-1.3397,4.5079,-0.64725,-2.5765,3.0918,2.5908,1.3072,-2.0612
2.4645,4.5714,-1.9512,2.5121,1.3201,1.1003,-1.3008,4.4444,-1.3592,2.5121,1.3201,-0.71895,5.0794,-2.6156,10.222,-1.2945,2.5765,5.6683,0.06319,5.8824,-4.6377
5.624,-0.50794,-1.9512,3.1562,1.9802,0.45307,-3.9024,3.1562,-0.71197,3.1562,1.9802,-2.6797,9.5238,-1.3397,15.302,-1.2945,6.4412,3.7359,-3.7283,7.8431,-5.9259
4.3602,-4.9524,-3.252,3.8003,5.2805,1.1003,-2.6016,3.8003,2.5243,3.8003,5.2805,-1.3725,9.5238,-3.2536,14.032,-3.8835,5.7971,4.38,-1.8325,7.1895,-6.57
13.839,-2.4127,2.6016,7.0209,11.221,6.9256,5.2033,1.868,7.7023,7.0209,11.221,5.1634,10.794,-1.9777,16.570999,-2.589,9.0177,5.0242,1.327,7.8431,-3.3494
6.8878,-1.1429,5.2033,10.242,13.201,5.6311,11.057,1.2238,8.3495,10.242,13.201,9.7386,11.429,-0.70175,15.302,-3.2362,9.0177,3.7359,0.06319,9.8039,-3.3494
-2.5908,0.12698,7.1545,11.53,15.842,5.6311,14.309,4.4444,8.3495,11.53,15.842,12.353,8.254,-1.9777,8.3175,-3.8835,6.4412,5.6683,-1.8325,5.2288,-3.3494
-3.2227,0.12698,9.1057,10.886,14.521,6.9256,14.309,5.7327,5.7605,10.886,14.521,13.66,4.4444,-3.8915,2.6032,-5.178,3.8647,5.0242,-3.7283,0.65359,-3.9936
0.56872,1.3968,11.707,10.886,9.2409,10.809,14.309,5.7327,4.466,10.886,9.2409,16.275,3.1746,-1.9777,0.06349,-0.64725,3.8647,1.8035,-2.4645,0.65359,-0.12882
5.624,9.0159,16.910999,10.242,9.2409,14.045,14.959,5.0886,2.5243,10.242,9.2409,18.235001,4.4444,3.126,-1.8413,7.1197,7.0853,-3.3494,2.5908,-1.3072,5.6683
4.3602,10.921,18.211,8.3092,9.2409,11.456,14.309,1.868,3.1715,8.3092,9.2409,17.582001,3.1746,5.6778,-5.6508,10.356,7.0853,-9.1465,5.1185,-6.5359,6.9565
-3.8547,12.19,14.959,4.4444,9.2409,7.5728,13.008,-1.3527,6.4078,4.4444,9.2409,13.66,0.0,6.3158,-8.8254,10.356,5.153,-5.9259,8.91,-10.458,7.6006
-0.06319,12.825,11.707,4.4444,4.6205,4.9838,9.7561,-3.9291,5.7605,4.4444,4.6205,9.7386,0.63492,8.8676,-3.1111,11.003,6.4412,-5.9259,10.174,-7.1895,8.8889
1.8325,11.556,5.2033,-1.3527,-1.9802,-0.84142,3.9024,-5.2174,3.8188,-1.3527,-1.9802,3.2026,0.63492,10.781,1.9683,11.003,6.4412,-5.2818,9.5419,-5.2288,10.177
1.2006,9.0159,-0.65041,-3.9291,-0.66007,-2.7832,0.0,-3.9291,3.1715,-3.9291,-0.66007,-1.3725,0.0,11.419,2.6032,11.003,5.153,-0.77295,9.5419,-3.268,10.821
1.8325,6.4762,-3.252,-3.9291,0.0,-4.0777,-3.252,-2.6409,0.58252,-3.9291,0.0,-3.9869,-2.5397,8.2297,3.2381,8.4142,1.9324,-2.0612,5.7504,-2.6144,8.2448
7.5197,3.3016,3.252,-2.6409,0.0,-0.84142,-0.65041,0.57971,-1.3592,-2.6409,0.0,-0.71895,-0.63492,6.3158,7.0476,5.178,3.2206,1.8035,3.8547,-1.3072,6.3124
17.629999,6.4762,13.008,1.868,0.0,6.2783,3.9024,3.1562,-1.3592,1.868,0.0,5.1634,5.0794,8.2297,13.397,6.4725,8.3736,6.3124,1.9589,4.5752,5.0242
13.207,5.2063,13.659,3.8003,-1.9802,6.2783,3.252,3.8003,-2.0065,3.8003,-1.9802,5.1634,8.254,9.5056,14.032,8.4142,10.306,8.8889,0.6951,7.8431,5.0242
8.7836,3.9365,9.1057,3.8003,-1.9802,4.9838,0.0,3.8003,-2.6537,3.8003,-1.9802,2.549,10.794,11.419,11.492,9.7087,10.306,8.8889,2.5908,8.4967,6.9565
10.679,3.3016,5.2033,1.2238,-0.66007,5.6311,-1.9512,0.57971,-3.9482,1.2238,-0.66007,1.8954,12.063,10.144,10.222,8.4142,9.0177,0.5153,-1.2006,9.1503,5.6683
-1.9589,1.3968,0.0,2.5121,-1.9802,3.6893,-3.252,1.868,-5.89,2.5121,-1.9802,1.2418,9.5238,5.0399,2.6032,4.5307,3.2206,2.4477,-1.2006,6.5359,1.8035
-12.07,-1.1429,-1.3008,3.1562,-1.3201,-0.19417,-1.9512,1.868,-6.5372,3.1562,-1.3201,0.58824,8.254,0.57416,-1.8413,-0.64725,-0.64412,5.6683,-2.4645,5.8824,-1.4171
-10.806,-0.50794,2.6016,2.5121,1.3201,-0.84142,1.9512,1.2238,-3.9482,2.5121,1.3201,2.549,6.9841,-1.3397,-1.8413,-1.2945,-0.64412,3.7359,-3.0964,5.2288,-2.7053
-8.278,0.7619,3.9024,5.7327,5.9406,1.7476,5.2033,1.868,0.58252,5.7327,5.9406,4.5098,3.1746,-1.3397,-5.6508,-0.64725,-1.9324,1.1594,-1.2006,2.6144,-1.4171
-5.7504,3.9365,0.65041,4.4444,7.2607,2.3948,5.8537,-1.3527,4.466,4.4444,7.2607,4.5098,-2.5397,-0.0638,-10.73,1.2945,-5.153,-5.2818,0.6951,-1.9608,-0.77295
-10.174,7.1111,-0.65041,-0.06441,3.9604,-0.84142,4.5528,-1.3527,4.466,-0.06441,3.9604,2.549,-8.254,0.57416,-15.81,4.5307,-5.7971,-5.9259,1.9589,-5.8824,-0.12882
-13.965,9.0159,0.0,-3.285,1.3201,-4.0777,2.6016,-2.6409,-0.06472,-3.285,1.3201,0.58824,-13.968,0.57416,-21.524,4.5307,-8.3736,-5.2818,0.6951,-13.072,-0.12882
-10.174,5.8413,0.0,-3.9291,-1.3201,-4.7249,0.0,-4.5733,0.58252,-3.9291,-1.3201,-1.3725,-15.873,1.2121,-20.254,4.5307,-9.6618,-6.57,1.327,-12.418,3.0918
-8.278,3.9365,-2.6016,-6.5056,-3.9604,-4.7249,-1.3008,-5.8615,-0.06472,-6.5056,-3.9604,-3.3333,-15.238,2.488,-17.714001,5.178,-9.6618,-6.57,6.3823,-10.458,7.6006
-3.8547,4.5714,-3.252,-3.285,-2.6403,-2.7832,-0.65041,-5.8615,1.877,-3.285,-2.6403,-2.0261,-12.698,3.764,-14.54,5.8252,-7.7295,-8.5024,10.174,-9.1503,10.821
-6.3823,4.5714,-3.252,-5.2174,-2.6403,-4.0777,-0.65041,-7.1498,0.58252,-5.2174,-2.6403,-1.3725,-9.5238,3.764,-11.365,6.4725,-4.5089,-7.2142,8.91,-8.4967,11.465
-3.8547,2.0317,-1.9512,-5.8615,-3.3003,-3.4304,-3.252,-5.2174,-3.301,-5.8615,-3.3003,-2.0261,-6.3492,3.764,-5.6508,5.8252,-1.2882,-7.2142,4.4866,-6.5359,8.8889
-2.5908,0.12698,0.0,-4.5733,-3.9604,-3.4304,-7.1545,-2.6409,-7.1845,-4.5733,-3.9604,-3.3333,-3.8095,2.488,-1.2063,4.5307,1.2882,-3.9936,0.06319,-2.6144,5.6683
-3.8547,-4.9524,-0.65041,-3.9291,-6.6007,-4.7249,-10.407,-2.6409,-7.8317,-3.9291,-6.6007,-5.9477,-0.63492,2.488,0.69841,3.2362,2.5765,1.8035,-3.7283,0.0,3.0918
-3.2227,-8.127,-3.252,-4.5733,-9.2409,-4.0777,-9.1057,-1.9968,-7.1845,-4.5733,-9.2409,-5.9477,1.9048,3.126,1.3333,2.589,1.9324,1.1594,-1.8325,3.9216,2.4477
-3.8547,-7.4921,-8.4553,-5.2174,-4.6205,-4.7249,-4.5528,-5.2174,-4.5955,-5.2174,-4.6205,-4.6405,0.63492,1.2121,-4.381,-0.64725,-3.2206,-2.0612,-1.2006,1.3072,1.1594
-11.438,-6.2222,-11.057,-4.5733,-2.6403,-7.3139,-1.3008,-5.2174,-2.6537,-4.5733,-2.6403,-5.2941,-4.4444,-3.2536,-11.365,-4.5307,-9.0177,-3.3494,-3.7283,-3.268,-1.4171
-5.1185,-4.3175,-3.252,-0.70853,0.66007,-3.4304,0.65041,-0.70853,-1.3592,-0.70853,0.66007,-1.3725,-3.8095,-3.8915,-6.9206,-3.2362,-5.7971,-2.7053,-4.3602,0.65359,-2.0612
3.7283,-4.3175,3.9024,1.2238,1.3201,-0.84142,0.0,-2.6409,-2.6537,1.2238,1.3201,1.2418,-4.4444,-3.8915,-3.1111,-3.2362,-2.5765,-2.0612,-5.624,1.3072,-3.3494
2.4645,-3.0476,3.9024,-0.06441,1.3201,-2.1359,0.0,-1.9968,-0.71197,-0.06441,1.3201,0.58824,-5.7143,-3.8915,-1.8413,-1.9417,-1.2882,-3.9936,-5.624,1.3072,-3.9936
-3.8547,1.3968,1.3008,-0.06441,5.2805,-0.19417,3.252,1.868,3.8188,-0.06441,5.2805,1.2418,-4.4444,-1.3397,-2.4762,3.2362,0.64412,3.7359,-1.2006,0.65359,-2.7053
-1.9589,9.6508,0.0,1.868,3.3003,1.1003,6.5041,1.868,4.466,1.868,3.3003,2.549,-2.5397,0.57416,-1.2063,8.4142,3.2206,3.7359,1.9589,0.65359,-1.4171
6.2559,10.921,4.5528,-0.06441,1.3201,1.7476,7.1545,-0.06441,5.7605,-0.06441,1.3201,3.2026,0.63492,2.488,3.873,11.65,7.7295,0.5153,3.2227,3.268,-0.12882
8.1517,6.4762,9.1057,-0.70853,1.9802,2.3948,5.2033,1.868,5.1133,-0.70853,1.9802,3.2026,1.9048,3.126,7.0476,9.7087,9.6618,3.0918,1.9589,4.5752,-0.77295
4.9921,1.3968,9.1057,-2.6409,0.66007,0.45307,0.0,1.868,0.58252,-2.6409,0.66007,-0.06536,1.9048,2.488,6.4127,5.8252,9.0177,5.0242,-1.8325,2.6144,-1.4171
10.679,-1.7778,7.8049,-3.9291,-0.66007,-0.19417,-3.9024,-3.285,-2.6537,-3.9291,-0.66007,-2.6797,5.0794,4.4019,8.3175,3.2362,8.3736,3.0918,-4.3602,3.268,-0.12882
4.9921,-4.3175,0.65041,-3.9291,-4.6205,-4.7249,-6.5041,-3.9291,-4.5955,-3.9291,-4.6205,-5.9477,5.0794,4.4019,7.0476,-0.64725,4.5089,-2.0612,-4.9921,3.268,-0.12882
-3.2227,-2.4127,-6.5041,-3.285,-6.6007,-5.3722,-4.5528,-1.9968,-3.301,-3.285,-6.6007,-5.9477,0.0,1.8501,0.69841,-3.2362,-0.64412,-2.0612,-1.2006,-1.3072,0.5153
-5.7504,-3.0476,-13.659,-5.2174,-6.6007,-5.3722,-3.9024,-1.9968,0.58252,-5.2174,-6.6007,-7.2549,-5.0794,-2.6156,-2.4762,-5.8252,-5.7971,-0.12882,1.327,-1.3072,-1.4171
-6.3823,-1.7778,-14.309,-6.5056,-4.6205,-7.3139,-3.9024,-1.9968,1.2298,-6.5056,-4.6205,-8.5621,-8.8889,-6.4434,-5.0159,-7.767,-8.3736,-0.77295,2.5908,-5.2288,-1.4171
-3.8547,2.6667,-8.4553,-7.1498,-4.6205,-7.9612,-2.6016,-1.9968,-0.06472,-7.1498,-4.6205,-8.5621,-7.619,-5.8054,-2.4762,-5.178,-5.7971,1.1594,2.5908,-5.2288,0.5153
5.624,-1.1429,-1.3008,-4.5733,-4.6205,-3.4304,-1.9512,-2.6409,0.58252,-4.5733,-4.6205,-5.9477,-3.1746,-3.2536,5.1429,-2.589,-0.64412,-1.4171,1.327,-0.65359,-0.12882
6.2559,-5.5873,4.5528,-0.70853,-5.9406,2.3948,-0.65041,1.2238,-1.3592,-0.70853,-5.9406,-1.3725,3.1746,1.2121,7.6825,1.2945,3.8647,2.4477,-1.8325,3.9216,0.5153
13.839,-3.6825,8.4553,1.2238,-2.6403,7.5728,1.3008,0.57971,-3.301,1.2238,-2.6403,2.549,11.429,6.9537,12.762,5.178,7.7295,3.7359,-3.7283,12.418,2.4477
10.047,-1.7778,9.7561,2.5121,0.0,7.5728,1.9512,6.3768,-5.2427,2.5121,0.0,3.8562,18.413,11.419,15.302,7.767,11.594,15.33,-3.7283,21.569,2.4477
11.311,-0.50794,11.707,1.2238,-5.9406,7.5728,-0.65041,9.5974,-10.421,1.2238,-5.9406,2.549,23.492001,13.971,19.111,9.7087,14.815,21.771,-7.5197,26.143999,0.5153
15.735,3.9365,14.959,-0.06441,-7.9208,6.2783,-1.3008,6.3768,-9.7735,-0.06441,-7.9208,3.2026,26.032,17.160999,22.921,11.65,18.68,17.907,-5.624,25.49,3.0918
8.1517,4.5714,11.707,-5.2174,-9.901,1.1003,-3.9024,-0.06441,-9.1262,-5.2174,-9.901,0.58824,20.316999,15.247,16.570999,9.7087,14.815,7.6006,-3.0964,16.993,4.38
-0.06319,-3.6825,4.5528,-5.8615,-6.6007,-0.84142,-5.2033,-3.9291,-7.1845,-5.8615,-6.6007,-1.3725,9.5238,8.2297,4.5079,1.9417,5.153,-0.12882,-1.2006,3.268,2.4477
-1.327,-6.8571,-0.65041,-3.285,-3.3003,0.45307,-3.9024,-3.285,-2.6537,-3.285,-3.3003,0.58824,0.0,2.488,-1.2063,-3.8835,-1.2882,-3.3494,0.6951,-3.9216,1.1594
-0.06319,-6.8571,-5.8537,-3.285,-4.6205,-2.1359,-3.9024,-5.2174,-2.0065,-3.285,-4.6205,-0.71895,-8.8889,-5.8054,-4.381,-10.356,-7.7295,-8.5024,-0.56872,-7.8431,-2.0612
4.9921,-4.9524,-5.8537,-1.3527,-2.6403,-1.4887,-1.9512,-5.2174,-0.06472,-1.3527,-2.6403,0.58824,-12.698,-10.271,-3.1111,-11.65,-9.0177,-7.8583,0.06319,-9.1503,-3.9936
4.3602,0.7619,-1.3008,0.57971,-1.9802,2.3948,1.9512,-0.70853,1.2298,0.57971,-1.9802,4.5098,-10.794,-9.6332,-1.2063,-7.767,-5.7971,0.5153,0.06319,-6.5359,-2.7053
1.2006,0.7619,-1.9512,-0.70853,0.0,4.3366,2.6016,1.2238,1.877,-0.70853,0.0,4.5098,-8.254,-10.909,-2.4762,-7.1197,-5.7971,2.4477,0.6951,-7.1895,-3.9936
3.0964,0.12698,1.9512,1.868,2.6403,6.9256,5.2033,3.1562,3.1715,1.868,2.6403,7.1242,-3.8095,-8.3573,1.9683,-5.178,-2.5765,1.8035,0.6951,-3.9216,-3.3494
8.7836,0.12698,7.1545,3.1562,3.9604,8.2201,6.5041,4.4444,1.2298,3.1562,3.9604,9.7386,5.0794,-1.9777,11.492,0.0,5.153,1.8035,0.06319,3.9216,-0.77295
10.679,3.3016,11.057,3.8003,2.6403,9.5146,7.1545,6.3768,-0.71197,3.8003,2.6403,11.046,12.698,4.4019,15.937,5.178,11.594,5.6683,0.06319,6.5359,1.8035
13.207,1.3968,11.057,4.4444,1.9802,10.809,5.2033,10.242,-0.06472,4.4444,1.9802,9.085,18.413,10.781,18.476,9.7087,16.103001,8.8889,0.06319,8.4967,3.0918
16.997999,2.0317,9.1057,3.1562,0.66007,8.8673,3.252,5.7327,0.58252,3.1562,0.66007,5.817,20.316999,13.333,21.016001,11.65,18.035,1.8035,-1.2006,10.458,2.4477
16.997999,7.1111,11.057,4.4444,1.3201,8.8673,3.252,5.0886,1.877,4.4444,1.3201,4.5098,20.316999,13.971,21.650999,14.239,20.612,2.4477,0.6951,10.458,3.0918
10.679,4.5714,8.4553,2.5121,1.3201,4.3366,-0.65041,3.8003,1.877,2.5121,1.3201,-0.06536,17.778,12.057,18.476,12.945,18.68,5.6683,3.2227,8.4967,1.8035
1.2006,0.7619,1.9512,-0.06441,-1.3201,-0.84142,-4.5528,3.1562,-0.06472,-0.06441,-1.3201,-3.9869,13.333,8.8676,12.762,7.1197,12.882,6.9565,1.9589,6.5359,0.5153
-3.8547,-3.6825,-3.9024,-0.06441,-1.3201,-2.1359,-5.8537,1.868,0.58252,-0.06441,-1.3201,-5.9477,7.619,5.0399,6.4127,0.64725,4.5089,4.38,-1.2006,4.5752,-2.0612
-6.3823,-6.2222,-10.407,-0.06441,0.0,-4.0777,-6.5041,1.2238,0.58252,-0.06441,0.0,-6.6013,1.9048,1.2121,0.06349,-8.4142,-5.153,0.5153,-2.4645,4.5752,-3.9936
-8.278,-10.032,-15.61,0.57971,-0.66007,-3.4304,-7.1545,1.868,-1.3592,0.57971,-0.66007,-5.9477,-6.3492,-5.8054,-8.8254,-18.122999,-15.459,-0.12882,-5.624,-1.9608,-7.8583
-7.0142,-17.016001,-16.910999,0.57971,0.0,-4.7249,-7.8049,-0.06441,-2.6537,0.57971,0.0,-5.2941,-12.063,-11.547,-12.635,-24.594999,-21.256001,0.5153,-6.8878,-5.8824,-11.079
-6.3823,-17.650999,-12.358,0.57971,0.66007,-6.0194,-8.4553,-2.6409,-2.0065,0.57971,0.66007,-5.2941,-13.968,-13.461,-10.73,-24.594999,-19.968,-2.7053,-6.2559,-5.2288,-11.079
0.56872,-13.206,-5.2033,2.5121,0.66007,-2.1359,-4.5528,-0.70853,-1.3592,2.5121,0.66007,-1.3725,-12.063,-14.099,-3.1111,-21.358999,-13.527,-2.7053,-5.624,-3.268,-11.079
9.4155,-8.7619,0.65041,2.5121,1.9802,1.7476,-1.9512,1.868,-0.71197,2.5121,1.9802,1.8954,-7.619,-13.461,5.7778,-16.827999,-5.153,-0.12882,-4.3602,0.65359,-11.079
8.7836,-5.5873,2.6016,1.868,1.3201,2.3948,-2.6016,3.1562,-3.301,1.868,1.3201,0.58824,-1.2698,-10.271,8.9524,-10.356,1.9324,4.38,-4.3602,1.9608,-7.2142
10.047,0.12698,6.5041,3.1562,1.3201,4.3366,-0.65041,1.2238,-2.0065,3.1562,1.3201,1.2418,5.7143,-3.8915,10.857,-1.2945,9.0177,4.38,-1.8325,1.3072,-2.0612
8.7836,5.8413,9.7561,4.4444,2.6403,4.3366,1.9512,3.1562,-0.06472,4.4444,2.6403,3.2026,11.429,1.8501,10.857,7.767,13.527,2.4477,1.9589,1.3072,3.0918
13.207,7.746,12.358,2.5121,1.9802,4.9838,1.9512,2.5121,0.58252,2.5121,1.9802,3.2026,17.143,8.2297,14.667,14.887,17.391001,-3.3494,5.1185,5.8824,6.9565
10.047,10.921,13.008,1.2238,1.9802,3.6893,3.252,-0.70853,3.1715,1.2238,1.9802,3.8562,20.316999,13.971,14.032,20.065001,19.968,0.5153,8.278,4.5752,11.465
5.624,13.46,10.407,-0.06441,1.9802,3.0421,3.252,-1.3527,3.1715,-0.06441,1.9802,1.8954,20.952,16.523001,12.762,21.358999,20.612,3.7359,8.278,3.268,12.754
-0.06319,7.746,3.9024,-2.6409,-3.9604,-3.4304,0.0,-1.3527,1.2298,-2.6409,-3.9604,-2.6797,17.778,15.885,10.222,18.122999,16.103001,-0.12882,8.91,3.268,12.11
-1.9589,4.5714,1.3008,-2.6409,-2.6403,-6.6667,-0.65041,-1.3527,2.5243,-2.6409,-2.6403,-3.9869,12.063,13.333,6.4127,14.239,10.95,-3.9936,7.6461,0.0,10.821
3.0964,5.2063,2.6016,-1.3527,0.66007,-2.7832,0.65041,-0.06441,3.1715,-1.3527,0.66007,-1.3725,6.3492,8.8676,0.69841,8.4142,3.8647,-3.9936,7.6461,-2.6144,7.6006
-0.06319,-0.50794,0.65041,2.5121,4.6205,2.3948,1.3008,4.4444,4.466,2.5121,4.6205,1.8954,-0.63492,0.57416,-7.5556,-3.8835,-7.0853,0.5153,5.1185,-3.9216,1.1594
-3.2227,-7.4921,-4.5528,7.0209,7.9208,6.2783,1.9512,7.6651,3.8188,7.0209,7.9208,4.5098,-10.794,-8.9952,-17.714001,-18.122999,-19.323999,1.1594,-0.56872,-8.4967,-6.57
-1.327,-10.032,-6.5041,10.242,5.9406,7.5728,3.9024,8.3092,2.5243,10.242,5.9406,7.1242,-18.413,-15.375,-23.429001,-25.889999,-27.052999,0.5153,-4.9921,-11.765,-11.723
-5.7504,-8.127,-7.1545,10.242,5.2805,5.6311,3.9024,8.9533,1.2298,10.242,5.2805,6.4706,-22.222,-16.650999,-25.968,-24.594999,-28.341,-0.77295,-8.1517,-13.072,-14.3
-8.278,-3.6825,-7.1545,7.0209,3.9604,2.3948,1.9512,7.0209,-0.06472,7.0209,3.9604,2.549,-20.952,-13.461,-22.794001,-15.534,-24.476999,-3.3494,-8.1517,-9.8039,-9.7907
-5.7504,3.3016,-6.5041,3.1562,1.9802,-0.84142,1.3008,0.57971,1.877,3.1562,1.9802,-0.06536,-19.683001,-8.3573,-19.618999,-4.5307,-18.035,-3.9936,-2.4645,-12.418,-2.7053
-4.4866,8.381,-7.1545,0.57971,0.66007,-3.4304,1.3008,-1.9968,1.877,0.57971,0.66007,-2.6797,-15.873,-3.2536,-14.54,2.589,-13.527,-5.2818,2.5908,-11.765,2.4477
-2.5908,2.6667,-13.008,0.57971,1.3201,-6.0194,-2.6016,-5.2174,1.877,0.57971,1.3201,-5.9477,-10.794,1.8501,-9.4603,4.5307,-10.95,-7.2142,4.4866,-7.8431,6.9565
-13.333,-6.8571,-19.511999,-2.6409,-1.9802,-10.55,-6.5041,-4.5733,-1.3592,-2.6409,-1.9802,-9.8693,-7.619,4.4019,-11.365,0.64725,-12.238,-4.6377,2.5908,-7.1895,7.6006
-10.174,-9.3968,-14.309,-4.5733,-5.9406,-9.9029,-7.1545,-6.5056,-4.5955,-4.5733,-5.9406,-9.8693,-3.1746,6.3158,-8.8254,-1.9417,-9.0177,-5.2818,0.6951,-4.5752,6.9565
-13.965,-10.032,-9.7561,-8.438,-6.6007,-13.139,-7.1545,-7.7939,-4.5955,-8.438,-6.6007,-10.523,-2.5397,5.0399,-9.4603,-3.2362,-6.4412,-5.9259,-0.56872,-4.5752,5.0242
-12.07,-8.7619,-6.5041,-10.37,-5.9406,-15.081,-7.1545,-9.7262,-3.301,-10.37,-5.9406,-11.176,-2.5397,3.764,-8.1905,-3.2362,-3.2206,-5.9259,-1.2006,-4.5752,3.7359
-7.6461,-8.127,-5.2033,-8.438,-6.6007,-14.434,-9.1057,-9.0821,-4.5955,-8.438,-6.6007,-11.176,0.63492,3.764,-3.1111,-1.9417,0.64412,-5.9259,-2.4645,-2.6144,3.7359
-8.91,-6.8571,-7.1545,-9.7262,-8.5809,-12.492,-9.1057,-5.2174,-4.5955,-9.7262,-8.5809,-11.176,1.2698,1.8501,-1.8413,-1.2945,0.64412,-3.3494,0.06319,-1.3072,1.8035
-1.9589,-3.0476,-5.2033,-7.1498,-6.6007,-5.3722,-4.5528,-1.9968,-3.301,-7.1498,-6.6007,-5.9477,0.0,-3.8915,0.69841,-5.178,0.0,-2.0612,-0.56872,0.65359,-3.9936
3.7283,0.7619,2.6016,2.5121,1.9802,3.0421,3.252,5.0886,1.2298,2.5121,1.9802,3.2026,-1.9048,-9.6332,4.5079,-6.4725,1.9324,2.4477,-3.0964,6.5359,-9.1465
7.5197,3.3016,11.707,7.0209,6.6007,8.8673,7.8049,8.9533,3.8188,7.0209,6.6007,8.4314,-5.7143,-12.823,3.873,-5.178,5.153,7.6006,-3.7283,2.6144,-11.723
13.839,7.746,19.511999,10.242,9.901,14.693,12.358,9.5974,4.466,10.242,9.901,13.66,-6.9841,-11.547,6.4127,0.64725,10.306,11.465,-3.0964,0.0,-12.367
24.580999,14.73,24.715,16.039,9.2409,20.518,15.61,13.462,5.1133,16.039,9.2409,18.235001,-5.7143,-6.4434,13.397,8.4142,16.103001,8.8889,-1.8325,2.6144,-7.8583
20.158001,13.46,18.862,14.75,7.9208,17.282,12.358,14.106,3.1715,14.75,7.9208,14.967,-5.7143,-3.2536,11.492,11.65,14.815,8.2448,-2.4645,0.65359,-3.9936
15.103,10.286,11.707,9.5974,5.9406,10.809,6.5041,8.3092,1.877,9.5974,5.9406,7.7778,-3.1746,1.8501,9.5873,13.592,13.527,5.6683,-0.56872,-0.65359,1.1594
7.5197,3.9365,5.2033,3.8003,1.9802,2.3948,1.3008,2.5121,-0.06472,3.8003,1.9802,0.58824,0.63492,6.9537,5.7778,12.945,10.95,-0.77295,1.9589,-1.9608,5.6683
-6.3823,0.12698,-3.9024,-1.3527,-0.66007,-4.7249,-3.9024,-0.06441,-0.06472,-1.3527,-0.66007,-5.9477,1.2698,8.2297,-4.381,9.7087,3.2206,-2.7053,3.2227,-5.2288,8.2448
-8.278,3.3016,-7.8049,-3.9291,-3.3003,-3.4304,-4.5528,-3.9291,-0.71197,-3.9291,-3.3003,-7.2549,1.2698,7.5917,-10.095,5.8252,-4.5089,-5.9259,3.8547,-6.5359,10.177
-18.389,-3.0476,-16.26,-5.8615,-6.6007,-9.2557,-10.407,-3.285,-2.6537,-5.8615,-6.6007,-13.137,-1.2698,2.488,-15.81,-2.589,-14.815,-9.1465,2.5908,-7.1895,7.6006
-24.708,-10.667,-20.163,-8.438,-10.561,-15.081,-14.309,-5.2174,-4.5955,-8.438,-10.561,-16.405001,-2.5397,-1.3397,-18.983999,-9.0615,-19.968,-7.2142,0.6951,-9.1503,4.38
-19.021,-13.841,-17.561001,-8.438,-8.5809,-14.434,-13.659,-7.7939,-3.9482,-8.438,-8.5809,-13.791,0.63492,-0.70175,-13.905,-10.356,-17.391001,-5.9259,-1.2006,-7.1895,1.1594
-14.597,-10.032,-14.959,-5.8615,-0.66007,-12.492,-7.1545,-7.1498,-0.06472,-5.8615,-0.66007,-9.8693,5.0794,3.126,-8.8254,-6.4725,-12.238,-6.57,0.6951,-1.9608,0.5153
-13.965,-6.2222,-10.407,-5.2174,-2.6403,-11.197,-3.9024,-7.7939,-1.3592,-5.2174,-2.6403,-7.2549,6.9841,3.764,-8.1905,-3.2362,-7.7295,-5.9259,-2.4645,0.0,-2.0612
-10.174,-1.1429,-5.2033,-5.2174,-3.3003,-7.9612,-1.3008,-4.5733,-3.9482,-5.2174,-3.3003,-4.6405,8.8889,5.0399,-6.2857,0.0,-3.2206,-1.4171,-4.9921,2.6144,-4.6377
2.4645,2.6667,0.65041,-3.9291,-5.2805,-1.4887,0.65041,-3.9291,-3.9482,-3.9291,-5.2805,-0.71895,10.794,6.9537,0.06349,2.589,1.9324,-0.12882,-3.7283,5.2288,-3.9936
3.7283,1.3968,1.9512,-2.6409,-6.6007,-0.84142,-1.3008,-1.9968,-3.9482,-2.6409,-6.6007,-1.3725,8.8889,5.6778,4.5079,1.9417,3.2206,-1.4171,-3.0964,5.8824,-5.2818
3.7283,-1.7778,0.0,-2.6409,-3.9604,-3.4304,-3.252,-1.9968,-2.6537,-2.6409,-3.9604,-3.3333,7.619,3.764,7.0476,0.64725,3.8647,-0.12882,-3.0964,5.8824,-5.9259
-0.06319,-4.9524,-5.2033,-3.285,-1.9802,-4.0777,-6.5041,-1.3527,-2.0065,-3.285,-1.9802,-5.9477,5.0794,2.488,5.7778,0.0,1.2882,3.0918,-3.0964,7.1895,-5.2818
-7.0142,-1.7778,-7.1545,-0.06441,0.0,-2.1359,-4.5528,1.868,-0.71197,-0.06441,0.0,-4.6405,-0.63492,-0.70175,-2.4762,-0.64725,-4.5089,5.0242,-1.8325,2.6144,-4.6377
-9.5419,2.0317,-9.1057,0.57971,-1.9802,-1.4887,-2.6016,1.2238,-0.06472,0.57971,-1.9802,-3.3333,-7.619,-5.8054,-11.365,-3.8835,-11.594,0.5153,-0.56872,-3.268,-4.6377
-8.91,0.12698,-10.407,-0.06441,-1.9802,2.3948,-1.3008,2.5121,0.58252,-0.06441,-1.9802,-2.0261,-12.698,-9.6332,-14.54,-7.767,-16.747,-2.0612,0.6951,-6.5359,-4.6377
2.4645,2.6667,-5.2033,4.4444,3.9604,6.9256,3.252,5.7327,3.8188,4.4444,3.9604,3.2026,-12.063,-7.7193,-10.73,-5.8252,-14.815,-2.7053,3.8547,-5.8824,-1.4171
6.8878,5.2063,1.3008,3.1562,3.9604,4.9838,4.5528,0.57971,2.5243,3.1562,3.9604,3.8562,-8.254,-4.5295,-4.381,-2.589,-9.0177,-3.9936,4.4866,-4.5752,1.8035
4.3602,3.9365,1.9512,-3.285,0.0,0.45307,-0.65041,-8.438,-0.71197,-3.285,0.0,-1.3725,-3.8095,-0.0638,0.06349,0.0,-3.8647,-5.2818,2.5908,-3.9216,3.7359
-8.91,-3.0476,-7.1545,-8.438,-5.2805,-9.2557,-10.407,-9.7262,-5.89,-8.438,-5.2805,-9.2157,-1.9048,1.8501,-2.4762,-1.2945,-3.8647,-4.6377,-0.56872,-4.5752,3.7359
-14.597,-11.937,-17.561001,-10.37,-11.881,-13.786,-17.561001,-9.0821,-9.1262,-10.37,-11.881,-15.098,0.0,1.2121,-4.381,-5.178,-5.7971,-9.7907,-4.9921,-2.6144,1.8035
-20.916,-14.476,-22.114,-6.5056,-7.9208,-11.845,-13.659,-6.5056,-5.89,-6.5056,-7.9208,-11.83,0.63492,-0.70175,-8.8254,-7.1197,-8.3736,-7.8583,-4.3602,-4.5752,1.1594
-22.812,-13.206,-20.163,-2.6409,-0.66007,-7.3139,-3.9024,-4.5733,-0.06472,-2.6409,-0.66007,-5.2941,-3.8095,-5.1675,-15.175,-10.356,-12.882,-4.6377,-1.8325,-7.1895,-0.77295
-14.597,-8.127,-11.057,1.868,3.9604,-2.7832,5.8537,-2.6409,4.466,1.868,3.9604,1.8954,-7.619,-9.6332,-14.54,-10.356,-12.882,-6.57,-2.4645,-5.8824,-3.3494
-8.278,-2.4127,-1.3008,1.2238,5.2805,-0.19417,9.7561,-1.9968,6.4078,1.2238,5.2805,5.1634,-7.619,-11.547,-10.73,-7.767,-7.7295,-3.3494,-0.56872,-3.9216,-4.6377
-0.6951,2.0317,6.5041,-2.6409,3.3003,-0.84142,8.4553,-2.6409,5.7605,-2.6409,3.3003,4.5098,-4.4444,-10.271,-2.4762,-3.2362,-0.64412,-6.57,-0.56872,1.3072,-3.9936
-2.5908,8.381,9.7561,-1.3527,5.2805,1.1003,9.7561,-0.70853,7.055,-1.3527,5.2805,5.817,-3.1746,-7.0813,-0.57143,2.589,4.5089,-0.77295,2.5908,2.6144,-2.7053
1.8325,11.556,14.309,2.5121,7.9208,6.9256,13.008,1.2238,8.9968,2.5121,7.9208,10.392,1.2698,-2.6156,3.873,8.4142,10.95,5.6683,5.1185,5.8824,-0.77295
12.575,17.905001,21.462999,6.3768,8.5809,12.104,16.910999,5.0886,8.3495,6.3768,8.5809,15.621,6.9841,2.488,13.397,13.592,18.035,5.0242,3.8547,10.458,-0.12882
16.997999,14.73,22.764,8.9533,7.9208,15.987,15.61,8.3092,7.055,8.9533,7.9208,17.582001,6.9841,3.126,15.302,13.592,18.68,8.2448,2.5908,7.8431,-0.77295
18.893999,12.19,20.163,10.886,7.9208,16.634001,13.008,10.886,5.1133,10.886,7.9208,17.582001,6.3492,3.126,15.302,12.298,17.391001,6.9565,1.9589,5.2288,-1.4171
11.311,7.1111,11.057,9.5974,7.2607,14.045,7.8049,10.242,2.5243,9.5974,7.2607,14.314,3.8095,-0.0638,12.127,5.8252,10.306,5.0242,-0.56872,4.5752,-2.0612
11.311,1.3968,3.252,12.174,10.561,14.693,6.5041,7.0209,1.877,12.174,10.561,14.314,1.2698,-4.5295,8.9524,-2.589,1.9324,1.1594,-1.8325,2.6144,-2.7053
6.2559,-3.0476,-0.65041,13.462,11.221,10.162,6.5041,5.0886,2.5243,13.462,11.221,13.007,0.0,-7.0813,7.6825,-9.7087,-3.8647,-1.4171,-4.3602,1.9608,-5.2818
-5.7504,-11.937,-7.1545,9.5974,5.9406,3.6893,1.3008,3.1562,1.2298,9.5974,5.9406,5.1634,-5.7143,-10.909,-2.4762,-15.534,-10.95,0.5153,-3.7283,-3.9216,-5.2818
-11.438,-11.302,-11.707,4.4444,4.6205,1.1003,-2.6016,1.2238,2.5243,4.4444,4.6205,-1.3725,-12.063,-11.547,-13.27,-14.887,-16.747,-2.0612,0.06319,-9.8039,-2.0612
-17.757,-9.3968,-14.309,0.57971,5.2805,-1.4887,-3.252,-1.9968,3.8188,0.57971,5.2805,-3.3333,-20.316999,-12.823,-25.333,-12.945,-21.9,-11.723,2.5908,-16.34,-0.12882
-19.021,-6.8571,-13.659,-0.06441,4.6205,-1.4887,-1.3008,-4.5733,5.1133,-0.06441,4.6205,-3.3333,-29.205999,-15.375,-35.492001,-12.298,-25.121,-16.875999,4.4866,-25.49,0.5153
-15.861,-1.1429,-9.7561,-2.6409,2.6403,-3.4304,1.3008,-7.7939,5.1133,-2.6409,2.6403,-3.3333,-28.570999,-12.185,-32.317001,-8.4142,-19.323999,-15.588,3.8547,-26.143999,0.5153
-10.174,0.7619,-5.8537,-7.1498,-1.9802,-7.3139,0.65041,-9.0821,4.466,-7.1498,-1.9802,-5.9477,-20.316999,-7.7193,-18.349001,-2.589,-8.3736,-11.079,1.327,-16.993,0.5153
4.3602,2.0317,1.3008,-6.5056,-1.3201,-5.3722,1.3008,-5.8615,3.1715,-6.5056,-1.3201,-4.6405,-8.254,-1.3397,0.69841,3.2362,3.8647,-5.9259,0.6951,-6.5359,-0.12882
15.735,5.2063,8.4553,-5.8615,1.3201,-2.1359,3.252,-4.5733,2.5243,-5.8615,1.3201,-2.0261,4.4444,5.6778,15.302,9.7087,15.459,-0.12882,3.2227,3.9216,1.8035
6.8878,5.2063,5.8537,-9.7262,-8.5809,-7.3139,-3.252,-3.9291,-2.6537,-9.7262,-8.5809,-7.2549,11.429,8.8676,16.570999,12.945,18.68,9.533,1.327,7.8431,2.4477
7.5197,4.5714,5.8537,-11.659,-14.521,-9.2557,-9.1057,-3.285,-7.1845,-11.659,-14.521,-10.523,15.873,10.781,19.746,12.945,20.612,13.398,-1.8325,11.765,2.4477
9.4155,3.3016,9.7561,-11.659,-11.221,-6.6667,-11.707,-1.9968,-8.479,-11.659,-11.221,-8.5621,18.413,10.781,23.556,11.65,22.544001,11.465,-4.3602,13.725,1.1594
16.997999,2.0317,18.211,-7.1498,-2.6403,0.45307,-6.5041,0.57971,-5.2427,-7.1498,-2.6403,-0.71895,21.587,12.057,29.905001,11.65,25.764999,10.821,-3.0964,19.608,0.5153
25.844999,2.0317,23.415001,-0.06441,0.66007,8.2201,1.3008,3.8003,-3.9482,-0.06441,0.66007,8.4314,20.952,10.144,31.809999,9.0615,25.764999,12.754,-5.624,17.646999,-1.4171
25.844999,2.6667,20.813,3.8003,1.3201,12.751,7.1545,5.7327,-4.5955,3.8003,1.3201,13.007,17.143,6.3158,28.635,5.8252,21.256001,14.042,-6.8878,14.379,-3.9936
23.948999,0.12698,16.910999,7.6651,5.9406,15.987,10.407,7.0209,-2.6537,7.6651,5.9406,16.927999,13.333,3.126,24.825001,2.589,15.459,11.465,-5.624,13.725,-4.6377
18.261999,-0.50794,14.959,12.174,13.201,18.576,13.659,8.3092,1.877,12.174,13.201,20.85,6.9841,-0.70175,15.937,-1.9417,6.4412,6.3124,-4.3602,8.4967,-4.6377
14.471,0.12698,12.358,15.395,16.502001,20.518,15.61,7.6651,5.7605,15.395,16.502001,22.809999,-1.9048,-7.7193,6.4127,-7.767,-4.5089,3.0918,-1.8325,2.6144,-6.57
5.624,1.3968,6.5041,14.75,12.541,17.929001,13.659,10.886,6.4078,14.75,12.541,19.542,-12.698,-17.289,-4.381,-14.887,-14.815,0.5153,0.6951,-4.5752,-7.8583
-0.06319,2.0317,-1.9512,11.53,5.2805,14.045,8.4553,8.9533,5.1133,11.53,5.2805,12.353,-22.222,-23.667999,-12.635,-18.122999,-21.256001,-2.0612,1.327,-10.458,-9.1465
-8.278,5.8413,-11.707,6.3768,6.6007,6.9256,3.9024,5.7327,6.4078,6.3768,6.6007,3.8562,-26.667,-24.306,-18.983999,-15.534,-23.188,-5.2818,1.9589,-14.379,-7.8583
-14.597,2.0317,-20.813,1.868,3.9604,-1.4887,-1.9512,3.1562,6.4078,1.868,3.9604,-5.2941,-27.302,-20.478001,-22.159,-12.298,-21.9,-9.1465,4.4866,-16.34,-5.2818
-21.548,-4.3175,-26.016001,-1.9968,-1.3201,-7.9612,-7.8049,-1.3527,2.5243,-1.9968,-1.3201,-11.83,-23.492001,-17.927,-22.794001,-12.298,-20.612,-9.7907,1.327,-15.033,-5.2818
-29.763,-6.8571,-25.365999,-3.9291,-3.3003,-12.492,-11.057,-2.6409,-2.0065,-3.9291,-3.3003,-13.791,-19.048,-15.375,-23.429001,-11.65,-18.68,-7.2142,-4.3602,-13.072,-5.9259
-24.708,-8.127,-18.862,-5.8615,-3.9604,-13.139,-13.008,-4.5733,-5.89,-5.8615,-3.9604,-14.444,-12.698,-11.547,-18.349001,-9.7087,-12.238,-9.7907,-5.624,-6.5359,-5.2818
-19.652,-8.7619,-15.61,-9.0821,-11.221,-14.434,-16.26,-7.7939,-9.7735,-9.0821,-11.221,-16.405001,-7.619,-8.3573,-15.175,-9.0615,-9.0177,-8.5024,-6.8878,-4.5752,-4.6377
-14.597,-9.3968,-16.26,-9.7262,-13.201,-13.786,-16.910999,-8.438,-11.068,-9.7262,-13.201,-18.365999,-1.9048,-3.2536,-11.365,-6.4725,-5.7971,-2.7053,-8.7836,-1.3072,-2.7053
-14.597,-11.302,-19.511999,-9.0821,-11.221,-16.375,-16.26,-8.438,-11.068,-9.0821,-11.221,-19.02,1.9048,1.2121,-7.5556,-5.178,-5.7971,-2.7053,-5.624,1.9608,-2.0612
-9.5419,-8.127,-15.61,-8.438,-5.9406,-12.492,-9.7561,-7.7939,-7.1845,-8.438,-5.9406,-14.444,6.3492,5.6778,-4.381,-0.64725,-3.2206,-1.4171,-1.2006,4.5752,1.1594
-10.174,-8.7619,-13.008,-7.1498,-5.2805,-9.2557,-6.5041,-5.8615,-5.89,-7.1498,-5.2805,-10.523,8.254,8.2297,-3.746,0.0,-2.5765,0.5153,-3.7283,5.8824,1.1594
-10.806,-15.746,-12.358,-7.1498,-7.2607,-7.9612,-6.5041,-5.8615,-5.2427,-7.1498,-7.2607,-8.5621,6.3492,7.5917,-5.0159,-1.9417,-5.7971,-0.77295,-5.624,5.8824,-0.12882
-7.0142,-13.841,-7.8049,-2.6409,-3.3003,-1.4887,-2.6016,-0.70853,-3.9482,-2.6409,-3.3003,-2.0261,4.4444,5.6778,-5.0159,-2.589,-7.7295,0.5153,-4.9921,5.8824,-0.12882
2.4645,-4.9524,-1.3008,0.57971,1.9802,4.9838,3.9024,2.5121,-2.0065,0.57971,1.9802,4.5098,0.63492,1.2121,-2.4762,-4.5307,-9.0177,-3.3494,-2.4645,6.5359,-0.77295
3.7283,0.12698,1.9512,1.2238,1.3201,10.162,6.5041,3.1562,-2.0065,1.2238,1.3201,9.085,-5.7143,-6.4434,-6.2857,-8.4142,-12.238,-0.77295,-3.0964,1.9608,-3.3494
0.56872,3.3016,3.9024,4.4444,1.3201,11.456,6.5041,6.3768,-1.3592,4.4444,1.3201,10.392,-11.429,-12.823,-10.73,-11.003,-14.171,3.7359,-6.2559,-4.5752,-7.2142
3.0964,7.1111,5.8537,7.0209,2.6403,10.162,6.5041,7.0209,1.2298,7.0209,2.6403,9.7386,-8.8889,-11.547,-6.9206,-5.8252,-8.3736,3.0918,-1.2006,-4.5752,-4.6377
9.4155,9.0159,4.5528,5.0886,5.2805,6.2783,5.2033,2.5121,4.466,5.0886,5.2805,5.817,-2.5397,-5.1675,0.06349,1.2945,-1.2882,-3.3494,5.1185,-1.3072,1.1594
5.624,11.556,0.65041,-0.70853,3.9604,-0.19417,3.9024,-4.5733,4.466,-0.70853,3.9604,1.2418,1.2698,0.57416,1.9683,5.8252,2.5765,-2.7053,6.3823,-2.6144,4.38
-1.9589,5.2063,-2.6016,-1.9968,2.6403,-5.3722,0.65041,-4.5733,4.466,-1.9968,2.6403,-3.3333,2.5397,3.764,1.3333,6.4725,3.8647,-2.7053,4.4866,-3.9216,5.0242
-3.2227,0.12698,-3.252,-2.6409,0.0,-6.0194,-1.3008,-3.285,3.1715,-2.6409,0.0,-3.9869,3.8095,7.5917,2.6032,7.1197,5.7971,-3.3494,1.327,-4.5752,4.38
2.4645,3.3016,1.9512,-2.6409,1.3201,-2.7832,0.65041,-5.2174,1.877,-2.6409,1.3201,-1.3725,6.3492,12.057,7.0476,12.298,12.238,-4.6377,3.8547,-2.6144,5.6683
-1.327,5.8413,3.9024,-3.285,0.66007,-4.7249,-0.65041,-4.5733,0.58252,-3.285,0.66007,-2.6797,8.8889,16.523001,7.0476,18.122999,16.103001,-6.57,6.3823,-2.6144,9.533
-10.174,8.381,1.3008,-3.285,-3.3003,-9.2557,-1.9512,-5.2174,-1.3592,-3.285,-3.3003,-5.2941,8.254,17.799,1.3333,19.417,14.815,-4.6377,5.7504,-3.9216,10.821
-4.4866,8.381,3.252,-1.9968,-1.3201,-4.7249,0.0,-3.285,0.58252,-1.9968,-1.3201,-2.6797,8.254,16.523001,1.3333,17.476,12.238,-5.2818,6.3823,0.65359,11.465
-1.327,3.3016,3.252,-0.70853,-0.66007,-1.4887,-1.3008,-0.06441,-3.9482,-0.70853,-0.66007,-0.71895,4.4444,12.057,-1.2063,9.0615,7.0853,-2.0612,1.327,-0.65359,8.2448
6.8878,-1.1429,7.1545,-1.9968,-3.3003,1.7476,-2.6016,1.2238,-9.1262,-1.9968,-3.3003,-0.06536,5.7143,9.5056,3.2381,4.5307,7.7295,6.9565,-4.3602,3.268,4.38
8.1517,-7.4921,9.1057,-1.9968,-9.901,0.45307,-4.5528,5.0886,-13.657,-1.9968,-9.901,-1.3725,9.5238,7.5917,10.222,0.0,9.0177,15.33,-10.679,13.072,-0.12882
6.2559,-10.667,7.8049,-1.9968,-13.201,-0.19417,-7.1545,6.3768,-14.951,-1.9968,-13.201,-2.0261,9.5238,3.764,11.492,-4.5307,6.4412,17.261999,-13.839,15.686,-4.6377
14.471,-6.2222,7.8049,1.868,-8.5809,5.6311,-2.6016,5.7327,-11.068,1.868,-8.5809,3.2026,8.254,1.2121,12.127,-5.178,3.8647,13.398,-10.047,15.033,-4.6377
10.679,-4.9524,4.5528,2.5121,-1.3201,8.2201,0.0,7.0209,-7.1845,2.5121,-1.3201,6.4706,1.2698,-6.4434,6.4127,-9.7087,-4.5089,6.9565,-10.047,7.8431,-9.1465
6.2559,-1.7778,4.5528,5.7327,1.3201,11.456,4.5528,7.6651,-3.301,5.7327,1.3201,11.046,-5.0794,-14.099,-0.57143,-13.592,-11.594,3.7359,-8.7836,0.65359,-12.367
6.8878,0.7619,8.4553,7.6651,3.9604,13.398,7.1545,5.7327,0.58252,7.6651,3.9604,13.66,-7.619,-16.650999,-3.1111,-15.534,-14.815,3.7359,-6.2559,-3.268,-13.655
6.8878,5.2063,11.057,3.1562,3.3003,9.5146,7.1545,1.868,1.877,3.1562,3.3003,12.353,-6.9841,-14.099,-0.57143,-12.945,-12.238,-0.12882,-3.7283,-3.9216,-12.367
5.624,2.6667,8.4553,1.2238,1.9802,4.3366,5.2033,-1.9968,3.1715,1.2238,1.9802,8.4314,-4.4444,-9.6332,1.3333,-9.0615,-7.7295,-5.2818,-2.4645,-0.65359,-9.1465
3.7283,-0.50794,3.252,3.1562,5.9406,1.7476,5.2033,-4.5733,4.466,3.1562,5.9406,6.4706,-3.8095,-5.8054,0.69841,-6.4725,-4.5089,-7.8583,0.6951,-3.9216,-5.9259
-10.806,-1.7778,-3.9024,-0.70853,1.3201,-4.0777,1.9512,-7.1498,3.1715,-0.70853,1.3201,-0.06536,-8.254,-5.1675,-8.8254,-6.4725,-5.7971,-7.2142,3.2227,-12.418,-3.9936
-14.597,2.0317,-3.252,-3.285,0.0,-6.6667,0.65041,-7.7939,3.1715,-3.285,0.0,-2.6797,-6.9841,-2.6156,-10.095,-3.2362,-3.8647,-12.367,5.1185,-13.725,-0.77295
-6.3823,4.5714,2.6016,-1.9968,3.3003,-4.7249,0.0,-6.5056,4.466,-1.9968,3.3003,-2.6797,-2.5397,1.2121,-5.0159,1.9417,2.5765,-11.079,6.3823,-9.8039,2.4477
-8.278,2.0317,1.9512,-2.6409,1.3201,-5.3722,-3.9024,-3.9291,3.8188,-2.6409,1.3201,-6.6013,0.0,3.126,-4.381,4.5307,5.7971,-4.6377,5.7504,-8.4967,5.0242
-5.7504,2.6667,0.0,-2.6409,0.66007,-7.9612,-3.9024,-3.285,3.1715,-2.6409,0.66007,-8.5621,1.9048,4.4019,-2.4762,7.1197,6.4412,-5.2818,5.7504,-6.5359,6.9565
-5.7504,4.5714,-3.9024,-3.9291,-1.9802,-9.2557,-3.9024,-3.285,1.2298,-3.9291,-1.9802,-10.523,1.2698,3.126,-1.8413,5.8252,4.5089,-5.9259,2.5908,-6.5359,6.3124
-3.8547,6.4762,-3.252,-5.8615,-1.9802,-9.9029,-1.3008,-3.285,0.58252,-5.8615,-1.9802,-10.523,3.1746,3.764,1.9683,5.8252,6.4412,-3.9936,3.8547,-2.6144,6.3124
8.7836,10.286,7.1545,-3.285,2.6403,-3.4304,5.2033,-3.285,5.7605,-3.285,2.6403,-2.6797,8.8889,8.2297,11.492,11.65,14.171,-1.4171,8.278,3.9216,8.2448
6.8878,7.746,12.358,-4.5733,-0.66007,-0.19417,3.9024,-3.9291,3.8188,-4.5733,-0.66007,-0.71895,8.254,8.2297,10.222,12.945,14.815,1.8035,7.0142,4.5752,7.6006
-0.6951,5.8413,10.407,-5.8615,-3.9604,-2.1359,0.65041,-2.6409,1.2298,-5.8615,-3.9604,-1.3725,5.7143,6.9537,5.7778,11.003,11.594,1.1594,5.1185,2.6144,5.0242
8.7836,3.9365,9.7561,-1.9968,0.0,1.7476,3.252,-0.06441,3.1715,-1.9968,0.0,3.8562,5.0794,7.5917,5.7778,10.356,10.306,-2.7053,6.3823,0.65359,6.3124
8.7836,0.7619,2.6016,1.2238,1.3201,6.2783,1.9512,3.8003,2.5243,1.2238,1.3201,5.1634,0.63492,3.126,1.3333,3.2362,3.2206,3.7359,3.2227,-1.9608,3.7359
-1.327,-5.5873,-5.2033,1.2238,-1.3201,1.7476,-3.252,4.4444,-0.71197,1.2238,-1.3201,0.58824,-3.8095,-2.6156,-3.746,-5.8252,-5.7971,5.0242,-0.56872,-3.268,-0.12882
-1.9589,-11.937,-10.407,-3.9291,-7.2607,-5.3722,-12.358,-0.06441,-7.1845,-3.9291,-7.2607,-7.9085,-3.8095,-3.8915,-2.4762,-10.356,-9.0177,1.1594,-4.3602,-1.9608,-2.7053
-2.5908,-13.841,-15.61,-10.37,-12.541,-11.845,-18.862,-6.5056,-10.421,-10.37,-12.541,-16.405001,-1.2698,-3.2536,-0.57143,-10.356,-9.0177,-0.77295,-6.8878,0.0,-2.7053
-4.4866,-14.476,-18.862,-11.014,-9.901,-15.081,-16.910999,-7.7939,-6.5372,-11.014,-9.901,-17.059,-1.2698,-3.8915,-0.57143,-11.003,-9.6618,-4.6377,-6.2559,-0.65359,-2.0612
-3.2227,-11.302,-18.862,-5.2174,-1.9802,-10.55,-8.4553,-9.0821,-2.0065,-5.2174,-1.9802,-11.176,-3.1746,-5.8054,-1.8413,-12.298,-10.95,-5.2818,-3.7283,0.0,-2.0612
-8.91,-1.7778,-15.61,-1.3527,0.0,-7.9612,-1.9512,-7.7939,1.877,-1.3527,0.0,-5.2941,-5.0794,-5.1675,-5.0159,-7.1197,-9.6618,-7.2142,0.6951,0.0,-0.12882
-11.438,3.9365,-7.1545,-0.06441,2.6403,-6.0194,1.3008,-7.1498,4.466,-0.06441,2.6403,-2.6797,-7.619,-1.3397,-10.095,2.589,-5.153,-5.2818,5.7504,-6.5359,5.0242
-6.3823,9.6508,2.6016,1.868,6.6007,-3.4304,4.5528,-3.9291,6.4078,1.868,6.6007,1.2418,-5.7143,5.0399,-9.4603,13.592,2.5765,-3.3494,8.91,-8.4967,9.533
-1.9589,12.825,9.1057,1.868,5.9406,-1.4887,4.5528,-3.9291,7.7023,1.868,5.9406,1.8954,-0.63492,12.695,-5.6508,21.358999,9.6618,-5.2818,12.701,-4.5752,14.686
-0.6951,7.746,5.8537,-0.70853,3.3003,-4.7249,-0.65041,-3.285,3.8188,-0.70853,3.3003,-3.3333,5.0794,18.437,-1.2063,21.358999,13.527,-3.3494,10.806,-1.9608,14.042
-2.5908,3.3016,-1.3008,-3.285,0.0,-7.9612,-5.2033,-1.3527,-0.06472,-3.285,0.0,-7.9085,8.8889,19.712999,3.2381,16.827999,14.171,1.8035,5.7504,2.6144,10.821
11.943,-0.50794,2.6016,-0.70853,0.66007,-0.84142,-3.252,-2.6409,0.58252,-0.70853,0.66007,-3.9869,12.063,19.712999,10.857,14.239,16.103001,3.7359,2.5908,6.5359,8.2448
12.575,-3.6825,5.2033,-0.06441,-4.6205,0.45307,-4.5528,1.868,-0.06472,-0.06441,-4.6205,-3.3333,12.698,16.523001,14.032,10.356,14.815,2.4477,0.06319,9.1503,4.38
6.8878,-3.6825,6.5041,1.2238,-6.6007,1.7476,-5.2033,8.3092,-3.9482,1.2238,-6.6007,-2.6797,11.429,12.057,12.762,5.8252,10.95,5.0242,-3.7283,13.072,1.1594
5.624,-4.9524,4.5528,1.868,-4.6205,3.6893,-5.2033,8.9533,-7.1845,1.868,-4.6205,-2.6797,6.9841,5.0399,5.7778,-0.64725,3.2206,10.821,-8.1517,8.4967,-3.9936
3.0964,-8.127,0.0,-1.3527,-6.6007,1.1003,-7.1545,4.4444,-8.479,-1.3527,-6.6007,-4.6405,3.8095,-0.70175,0.69841,-7.1197,-4.5089,9.533,-6.8878,5.2288,-5.2818
-1.9589,-11.937,-9.1057,-3.285,-11.221,-4.0777,-11.057,-0.06441,-9.7735,-3.285,-11.221,-9.2157,-0.63492,-7.0813,-4.381,-12.945,-12.882,3.7359,-5.624,3.268,-5.2818
-3.8547,-11.937,-14.959,-6.5056,-9.901,-7.9612,-11.057,-5.8615,-7.1845,-6.5056,-9.901,-10.523,-5.0794,-11.547,-7.5556,-16.181,-18.035,-2.7053,-4.3602,0.65359,-4.6377
-7.6461,-6.8571,-16.910999,-10.37,-6.6007,-10.55,-8.4553,-8.438,-3.9482,-10.37,-6.6007,-11.176,-7.619,-12.185,-7.5556,-13.592,-17.391001,-3.9936,-0.56872,-0.65359,-1.4171
-12.07,-3.6825,-16.26,-12.303,-7.9208,-15.728,-7.1545,-10.37,-2.0065,-12.303,-7.9208,-13.137,-9.5238,-10.271,-6.9206,-10.356,-15.459,-5.9259,0.06319,-3.268,-0.12882
-15.229,-3.6825,-14.309,-10.37,-5.9406,-17.67,-5.8537,-11.014,-0.06472,-10.37,-5.9406,-12.484,-11.429,-7.7193,-8.1905,-5.8252,-12.882,-7.2142,0.6951,-5.8824,2.4477
-7.6461,-2.4127,-9.1057,-5.8615,-0.66007,-11.845,-1.9512,-9.0821,2.5243,-5.8615,-0.66007,-7.2549,-8.254,-2.6156,-5.6508,-0.64725,-8.3736,-7.2142,1.9589,-3.9216,5.0242
5.624,2.0317,1.3008,-1.3527,2.6403,-4.7249,2.6016,-5.8615,3.1715,-1.3527,2.6403,1.2418,0.0,4.4019,3.2381,5.8252,0.64412,-8.5024,2.5908,1.9608,6.9565
3.0964,3.9365,10.407,1.2238,3.3003,-0.19417,4.5528,0.57971,2.5243,1.2238,3.3003,3.8562,7.619,9.5056,7.0476,10.356,8.3736,3.0918,3.2227,5.8824,6.3124
3.7283,6.4762,16.910999,4.4444,7.2607,3.0421,7.8049,2.5121,3.8188,4.4444,7.2607,7.7778,15.238,13.333,12.127,12.945,16.103001,8.2448,5.1185,10.458,6.9565
8.7836,7.1111,18.211,2.5121,3.3003,2.3948,5.2033,-0.06441,2.5243,2.5121,3.3003,5.1634,20.952,15.885,15.302,15.534,21.256001,5.0242,3.8547,10.458,6.9565
6.8878,5.2063,12.358,-1.3527,-2.6403,-0.19417,-1.3008,-0.06441,-1.3592,-1.3527,-2.6403,-0.71895,24.127001,17.799,15.302,16.181,22.544001,6.3124,0.6951,9.8039,5.6683
11.311,9.6508,10.407,1.868,-3.3003,3.6893,-0.65041,3.8003,-2.0065,1.868,-3.3003,-0.71895,26.667,21.627001,18.476,20.065001,24.476999,7.6006,1.327,14.379,6.9565
11.943,7.746,9.7561,2.5121,-2.6403,4.9838,1.3008,4.4444,-0.71197,2.5121,-2.6403,0.58824,24.761999,20.989,15.937,18.122999,22.544001,9.533,2.5908,13.072,5.6683
8.1517,4.5714,8.4553,-0.70853,-1.3201,2.3948,1.3008,1.2238,-0.06472,-0.70853,-1.3201,-0.71895,16.507999,13.333,8.3175,12.298,14.815,3.7359,0.06319,7.1895,1.8035
-3.2227,6.4762,4.5528,-5.8615,-4.6205,-4.0777,1.9512,-1.9968,0.58252,-5.8615,-4.6205,-2.6797,5.0794,5.0399,-5.6508,5.8252,3.2206,-0.12882,0.06319,-1.3072,-0.12882
-15.861,4.5714,-3.9024,-7.7939,-5.2805,-9.9029,-0.65041,-5.8615,1.877,-7.7939,-5.2805,-7.2549,-8.254,-3.2536,-21.524,-1.9417,-12.882,-6.57,0.6951,-9.1503,-2.7053
-19.021,3.3016,-8.4553,-5.8615,-3.9604,-8.6084,0.65041,-2.6409,3.8188,-5.8615,-3.9604,-6.6013,-20.316999,-9.6332,-29.778,-7.767,-23.833,-5.9259,0.06319,-14.379,-3.3494
-12.07,1.3968,-7.1545,-1.9968,1.9802,-2.7832,3.9024,-0.06441,6.4078,-1.9968,1.9802,-0.71895,-29.841,-15.375,-27.238001,-12.945,-27.697001,-5.9259,0.6951,-15.033,-5.9259
-0.6951,0.12698,-0.65041,-0.06441,3.9604,3.6893,7.1545,1.868,5.7605,-0.06441,3.9604,4.5098,-32.381001,-17.927,-18.983999,-15.534,-24.476999,-2.7053,0.6951,-18.301001,-7.2142
14.471,1.3968,9.7561,3.8003,3.3003,11.456,11.057,4.4444,5.7605,3.8003,3.3003,11.046,-27.302,-15.375,-5.6508,-11.65,-14.171,2.4477,-1.2006,-14.379,-5.9259
13.207,0.7619,14.309,6.3768,5.2805,12.751,13.008,8.9533,7.055,6.3768,5.2805,13.66,-21.587,-12.823,0.69841,-8.4142,-7.0853,5.6683,-1.2006,-10.458,-6.57
11.943,6.4762,17.561001,7.0209,6.6007,12.104,14.959,9.5974,8.9968,7.0209,6.6007,14.967,-10.794,-7.0813,7.6825,0.0,3.8647,6.3124,3.8547,-3.9216,-1.4171
18.261999,13.46,18.211,12.818,12.541,17.282,18.211,13.462,13.528,12.818,12.541,18.889,4.4444,2.488,18.476,9.7087,16.103001,10.177,7.6461,6.5359,5.0242
26.476999,14.095,16.26,15.395,17.162001,21.812,18.862,10.242,12.88,15.395,17.162001,20.85,15.873,8.2297,26.73,14.239,22.544001,9.533,6.3823,13.725,5.0242
27.740999,14.73,20.163,17.327,17.822001,22.459999,19.511999,12.174,11.586,17.327,17.822001,21.503,26.667,14.609,34.348999,20.712,31.562,11.465,8.91,20.261,6.9565
22.054001,14.73,22.764,16.683001,12.541,18.576,16.910999,13.462,8.3495,16.683001,12.541,18.235001,35.556,20.989,38.159,25.889999,38.646999,15.33,9.5419,23.528999,9.533
15.103,13.46,22.764,12.174,9.2409,12.104,10.407,9.5974,5.7605,12.174,9.2409,11.699,40.0,27.368,36.889,29.773001,41.868,15.33,7.6461,23.528999,11.465
10.679,9.6508,19.511999,5.7327,3.9604,5.6311,2.6016,4.4444,0.58252,5.7327,3.9604,3.8562,41.27,29.92,32.444,29.773001,40.580002,11.465,6.3823,22.222,12.754
1.8325,3.9365,8.4553,-0.06441,-4.6205,-0.84142,-7.1545,0.57971,-5.2427,-0.06441,-4.6205,-4.6405,36.825001,27.368,22.285999,22.006001,30.274,5.6683,1.9589,18.954,10.177
-3.8547,-4.9524,-1.9512,-0.06441,-7.2607,-4.0777,-11.707,-0.06441,-6.5372,-0.06441,-7.2607,-7.9085,28.570999,19.712999,11.492,8.4142,16.103001,3.0918,-3.0964,16.34,6.3124
-3.2227,-10.667,-6.5041,-0.06441,-3.9604,-3.4304,-11.707,1.2238,-4.5955,-0.06441,-3.9604,-7.9085,18.413,9.5056,4.5079,-5.178,3.2206,2.4477,-3.7283,13.072,1.1594
-0.6951,-10.032,-5.2033,-3.285,-3.9604,-2.7832,-9.1057,0.57971,-4.5955,-3.285,-3.9604,-5.9477,5.7143,-1.3397,-2.4762,-14.239,-7.0853,3.0918,-3.7283,6.5359,-3.9936
1.8325,-7.4921,-2.6016,-3.285,-6.6007,-0.84142,-7.1545,2.5121,-3.9482,-3.285,-6.6007,-3.3333,-1.9048,-7.7193,-3.746,-16.181,-11.594,2.4477,-4.3602,3.268,-6.57
7.5197,-3.0476,-0.65041,-3.9291,-7.9208,-0.19417,-5.2033,-1.3527,-3.9482,-3.9291,-7.9208,-2.0261,-1.9048,-8.3573,1.9683,-12.298,-8.3736,-1.4171,-3.7283,5.8824,-5.2818
-1.9589,-6.2222,-4.5528,-5.8615,-8.5809,-4.7249,-7.8049,-3.9291,-5.89,-5.8615,-8.5809,-5.9477,-2.5397,-7.7193,0.69841,-9.7087,-7.7295,2.4477,-4.9921,4.5752,-5.2818
-5.7504,-3.6825,-3.252,-5.8615,-8.5809,-4.0777,-7.1545,-2.6409,-6.5372,-5.8615,-8.5809,-5.9477,-2.5397,-4.5295,-0.57143,-4.5307,-4.5089,3.7359,-4.9921,3.268,-4.6377
-1.9589,0.7619,0.65041,-1.9968,-6.6007,0.45307,-3.9024,-1.3527,-2.6537,-1.9968,-6.6007,-2.0261,-2.5397,0.57416,-1.2063,2.589,-0.64412,1.8035,-0.56872,0.65359,0.5153
-8.278,0.12698,-3.252,-0.06441,-0.66007,-0.84142,-3.252,1.2238,-0.06472,-0.06441,-0.66007,-1.3725,-3.8095,1.2121,-5.0159,3.8835,-1.9324,1.1594,1.9589,-2.6144,2.4477
-5.7504,0.7619,-7.1545,1.2238,0.0,-1.4887,-2.6016,2.5121,-2.0065,1.2238,0.0,-2.0261,-1.9048,3.126,-1.8413,4.5307,-1.2882,1.1594,0.6951,-1.9608,3.7359
-3.8547,-1.1429,-11.057,-1.9968,-3.3003,-4.7249,-6.5041,0.57971,-6.5372,-1.9968,-3.3003,-5.9477,1.2698,5.0399,2.6032,4.5307,0.64412,2.4477,0.06319,0.65359,4.38
-1.9589,-1.1429,-9.7561,-1.9968,-4.6205,-6.0194,-9.1057,-1.3527,-9.1262,-1.9968,-4.6205,-9.8693,4.4444,7.5917,6.4127,5.8252,4.5089,1.8035,0.6951,2.6144,5.6683
5.624,2.0317,-3.252,-0.06441,-1.9802,-1.4887,-5.8537,0.57971,-5.2427,-0.06441,-1.9802,-6.6013,8.8889,11.419,11.492,9.7087,9.0177,-0.12882,2.5908,6.5359,8.2448
4.9921,2.0317,-1.9512,0.57971,0.66007,1.1003,-1.9512,0.57971,-0.71197,0.57971,0.66007,-3.3333,4.4444,8.2297,5.7778,8.4142,6.4412,0.5153,3.8547,1.3072,6.3124
-3.2227,2.0317,-2.6016,2.5121,5.2805,1.1003,1.3008,4.4444,1.877,2.5121,5.2805,-0.71895,-1.9048,3.126,-3.1111,3.2362,-0.64412,4.38,2.5908,-2.6144,3.7359
-5.7504,-1.1429,-3.9024,7.0209,9.2409,4.9838,3.252,7.6651,4.466,7.0209,9.2409,3.2026,-6.3492,-0.70175,-8.1905,-3.2362,-7.0853,4.38,1.9589,-2.6144,1.1594
-4.4866,-7.4921,-5.8537,9.5974,8.5809,7.5728,2.6016,6.3768,3.8188,9.5974,8.5809,5.817,-12.698,-7.7193,-13.905,-12.298,-15.459,3.0918,-2.4645,-5.8824,-2.7053
-1.9589,-10.667,-8.4553,8.9533,7.2607,7.5728,1.3008,6.3768,1.2298,8.9533,7.2607,6.4706,-16.507999,-14.099,-17.079,-18.77,-22.544001,-2.0612,-4.3602,-7.1895,-7.2142
-6.3823,-8.127,-11.707,6.3768,3.9604,6.9256,0.0,8.3092,-0.06472,6.3768,3.9604,5.1634,-18.413,-17.289,-21.524,-22.006001,-28.341,-0.12882,-3.7283,-7.8431,-9.1465
-9.5419,-5.5873,-9.7561,7.0209,1.9802,7.5728,0.65041,5.7327,1.2298,7.0209,1.9802,5.817,-19.048,-18.565001,-22.794001,-20.065001,-28.341,2.4477,-2.4645,-7.1895,-9.1465
-5.1185,-0.50794,-1.9512,4.4444,3.3003,6.2783,3.9024,3.1562,3.1715,4.4444,3.3003,6.4706,-15.873,-14.737,-18.349001,-12.945,-21.256001,-0.77295,-1.8325,-5.2288,-7.8583
-3.2227,5.2063,4.5528,1.868,2.6403,3.6893,7.8049,1.868,4.466,1.868,2.6403,8.4314,-11.429,-9.6332,-13.27,-4.5307,-12.238,-0.77295,1.9589,-3.9216,-3.9936
-3.2227,12.19,9.1057,0.57971,2.6403,2.3948,10.407,-0.06441,4.466,0.57971,2.6403,9.085,-8.254,-3.2536,-8.8254,3.8835,-3.8647,0.5153,5.7504,-3.9216,1.1594
7.5197,16.0,14.309,2.5121,4.6205,4.9838,13.008,0.57971,6.4078,2.5121,4.6205,11.046,1.2698,6.3158,3.2381,12.945,7.0853,-1.4171,8.278,2.6144,5.6683
9.4155,14.095,13.008,1.2238,6.6007,4.9838,12.358,-0.06441,7.055,1.2238,6.6007,10.392,7.619,12.057,9.5873,16.181,12.882,1.1594,10.174,6.5359,8.2448
7.5197,12.825,9.7561,1.868,4.6205,5.6311,9.7561,1.868,5.7605,1.868,4.6205,8.4314,9.5238,14.609,9.5873,16.827999,14.171,5.6683,11.438,5.2288,10.177
7.5197,10.921,8.4553,1.868,1.9802,4.3366,9.1057,1.2238,5.1133,1.868,1.9802,6.4706,10.159,15.247,10.222,15.534,14.171,3.7359,9.5419,4.5752,10.821
3.7283,5.8413,7.8049,0.57971,1.3201,3.6893,7.8049,0.57971,3.8188,0.57971,1.3201,5.817,10.794,14.609,9.5873,12.298,13.527,3.0918,7.0142,5.2288,10.177
2.4645,5.2063,8.4553,3.8003,7.2607,4.3366,10.407,1.2238,5.1133,3.8003,7.2607,8.4314,9.5238,12.057,8.3175,7.767,10.95,2.4477,5.7504,5.2288,8.8889
6.2559,7.1111,9.7561,5.0886,5.9406,5.6311,10.407,-0.06441,5.7605,5.0886,5.9406,9.085,7.619,8.2297,8.3175,5.8252,9.0177,-5.2818,3.2227,3.9216,6.9565
3.0964,10.286,7.8049,1.868,1.9802,5.6311,8.4553,-4.5733,3.1715,1.868,1.9802,5.817,1.9048,1.8501,1.9683,3.2362,4.5089,-1.4171,3.2227,0.65359,5.6683
-10.806,7.1111,0.65041,-0.06441,3.3003,-2.7832,3.9024,-1.9968,3.8188,-0.06441,3.3003,-0.06536,-3.1746,-5.1675,-5.0159,-1.2945,-2.5765,1.8035,5.1185,-2.6144,3.7359
-10.174,-0.50794,-4.5528,1.2238,3.9604,-4.7249,0.65041,1.2238,3.1715,1.2238,3.9604,-3.3333,-5.7143,-9.6332,-6.9206,-7.767,-9.0177,-2.0612,3.8547,-3.268,1.8035
-7.0142,-7.4921,-11.707,1.2238,1.3201,-3.4304,-3.9024,-0.06441,1.877,1.2238,1.3201,-5.9477,-9.5238,-13.461,-10.73,-14.887,-17.391001,-2.0612,0.06319,-3.9216,-1.4171
-12.07,-8.127,-16.910999,1.2238,1.3201,-4.0777,-4.5528,1.2238,0.58252,1.2238,1.3201,-6.6013,-11.429,-12.823,-14.54,-16.827999,-22.544001,-3.3494,0.06319,-2.6144,-2.0612
-13.965,-8.7619,-17.561001,-1.3527,1.3201,-6.6667,-5.8537,-0.70853,-0.06472,-1.3527,1.3201,-7.9085,-15.238,-12.185,-20.254,-18.122999,-24.476999,-3.3494,-0.56872,-9.1503,-3.9936
-10.174,-5.5873,-13.008,-3.9291,-1.3201,-6.0194,-4.5528,-0.70853,0.58252,-3.9291,-1.3201,-7.9085,-14.603,-10.271,-18.983999,-15.534,-21.256001,-2.0612,1.9589,-11.111,-4.6377
-0.6951,2.0317,-2.6016,-2.6409,-0.66007,-0.19417,1.3008,0.57971,5.1133,-2.6409,-0.66007,-1.3725,-8.254,-5.8054,-8.1905,-8.4142,-10.306,-2.7053,3.2227,-4.5752,-2.7053
8.1517,10.921,10.407,7.0209,9.2409,10.809,12.358,7.6651,10.291,7.0209,9.2409,12.353,0.0,-0.70175,3.873,-0.64725,1.9324,6.9565,8.278,1.9608,-0.77295
17.629999,17.27,20.163,14.106,14.521,21.165001,21.462999,9.5974,12.233,14.106,14.521,22.809999,6.3492,2.488,12.127,4.5307,10.95,11.465,8.91,6.5359,1.1594
16.997999,16.0,22.114,14.75,13.861,21.165001,22.114,10.242,11.586,14.75,13.861,24.118,9.5238,5.0399,14.667,7.767,16.103001,8.2448,6.3823,5.2288,0.5153
18.261999,16.635,24.065001,12.174,13.201,19.223,20.813,11.53,12.233,12.174,13.201,22.809999,12.698,8.8676,18.476,13.592,21.256001,8.8889,8.91,6.5359,3.0918
23.318001,19.174999,24.715,9.5974,10.561,18.576,18.211,8.9533,12.233,9.5974,10.561,19.542,13.333,9.5056,21.650999,14.887,23.833,8.8889,10.174,8.4967,5.6683
27.740999,13.46,21.462999,7.0209,7.9208,14.693,13.008,4.4444,8.3495,7.0209,7.9208,13.66,11.429,6.3158,22.921,10.356,21.256001,4.38,7.0142,9.1503,5.0242
16.367001,6.4762,16.26,3.8003,5.9406,8.2201,7.8049,4.4444,5.1133,3.8003,5.9406,7.7778,8.254,2.488,17.841,4.5307,16.103001,7.6006,3.2227,7.8431,3.7359
5.624,0.12698,13.008,4.4444,7.9208,4.9838,5.2033,5.7327,3.1715,4.4444,7.9208,6.4706,3.1746,-2.6156,12.127,-1.2945,10.306,8.2448,-1.8325,4.5752,0.5153
6.8878,-0.50794,11.707,5.7327,8.5809,4.9838,5.8537,3.1562,3.8188,5.7327,8.5809,7.1242,-1.9048,-6.4434,8.9524,-3.2362,7.0853,1.8035,-1.8325,1.9608,-0.77295
-0.06319,3.3016,7.8049,3.1562,6.6007,1.1003,6.5041,1.868,3.1715,3.1562,6.6007,5.817,-6.9841,-8.9952,1.3333,-4.5307,2.5765,1.1594,0.6951,-1.9608,0.5153
-0.6951,3.3016,1.9512,1.2238,1.9802,-0.84142,5.2033,-1.3527,2.5243,1.2238,1.9802,2.549,-9.5238,-7.7193,-3.746,-5.178,-2.5765,-0.77295,1.9589,-3.9216,1.1594
-6.3823,-1.7778,-7.1545,-2.6409,-3.3003,-2.1359,1.3008,-3.285,1.2298,-2.6409,-3.3003,-0.06536,-12.063,-7.7193,-10.73,-8.4142,-9.0177,-4.6377,1.9589,-7.1895,0.5153
-10.806,-3.0476,-11.707,-3.285,-2.6403,-2.1359,0.0,-1.3527,1.2298,-3.285,-2.6403,-0.71895,-11.429,-7.7193,-13.905,-11.65,-13.527,-3.9936,0.6951,-7.1895,-1.4171
-4.4866,3.9365,-6.5041,0.57971,1.9802,2.3948,4.5528,3.1562,4.466,0.57971,1.9802,3.2026,-6.9841,-3.2536,-8.1905,-7.1197,-9.6618,-0.77295,3.8547,-2.6144,-0.12882
1.2006,7.1111,0.0,2.5121,5.2805,6.2783,6.5041,4.4444,7.055,2.5121,5.2805,6.4706,-0.63492,1.2121,-0.57143,-1.9417,-4.5089,1.1594,5.1185,4.5752,1.8035
8.7836,6.4762,3.252,1.2238,3.9604,6.9256,5.2033,1.868,5.1133,1.2238,3.9604,7.1242,3.1746,2.488,4.5079,0.0,-0.64412,2.4477,4.4866,5.8824,1.1594
5.624,2.6667,1.9512,1.868,-0.66007,5.6311,1.9512,1.868,1.2298,1.868,-0.66007,5.1634,5.7143,3.126,5.1429,1.2945,0.64412,6.9565,3.2227,5.8824,0.5153
-1.9589,1.3968,-1.9512,1.868,-1.3201,1.1003,-1.3008,1.2238,-2.0065,1.868,-1.3201,1.8954,7.619,5.6778,5.7778,2.589,1.9324,6.3124,0.6951,7.8431,1.8035
-5.7504,-2.4127,-5.8537,0.57971,-1.9802,-0.84142,-3.9024,-1.3527,-3.9482,0.57971,-1.9802,-0.71895,4.4444,3.764,1.3333,0.64725,0.64412,5.0242,-2.4645,5.2288,1.1594
-7.0142,-7.4921,-8.4553,-0.70853,-3.9604,-2.1359,-5.8537,-1.9968,-3.9482,-0.70853,-3.9604,-3.3333,3.1746,2.488,1.3333,0.64725,0.64412,3.0918,-4.3602,4.5752,1.8035
-0.6951,-7.4921,-7.8049,-1.3527,-0.66007,-2.7832,-5.2033,-1.9968,-2.6537,-1.3527,-0.66007,-3.9869,6.3492,4.4019,7.0476,1.9417,3.2206,1.8035,-3.0964,6.5359,2.4477
-1.9589,-5.5873,-8.4553,-2.6409,-1.3201,-3.4304,-5.8537,1.2238,-2.6537,-2.6409,-1.3201,-5.2941,6.9841,3.126,7.6825,1.9417,3.2206,2.4477,-2.4645,7.8431,2.4477
-0.6951,-4.9524,-7.8049,-3.285,-3.3003,-3.4304,-6.5041,1.2238,-3.301,-3.285,-3.3003,-5.2941,5.7143,-0.0638,6.4127,1.2945,1.9324,2.4477,-3.0964,7.8431,1.8035
2.4645,-3.6825,-5.2033,-3.9291,-5.2805,-4.0777,-7.8049,-1.3527,-3.301,-3.9291,-5.2805,-5.9477,5.0794,-1.3397,7.0476,1.9417,2.5765,2.4477,1.327,7.1895,2.4477
3.7283,-5.5873,-2.6016,-5.2174,-9.2409,-6.0194,-11.707,-2.6409,-4.5955,-5.2174,-9.2409,-9.2157,5.7143,-0.70175,8.9524,1.2945,4.5089,0.5153,3.2227,5.8824,3.0918
6.8878,-3.0476,0.0,-7.7939,-8.5809,-7.9612,-12.358,-4.5733,-3.301,-7.7939,-8.5809,-11.176,6.3492,1.8501,11.492,3.8835,7.0853,-3.3494,3.2227,5.2288,3.7359
14.471,4.5714,7.1545,-5.8615,-1.3201,-4.7249,-6.5041,-2.6409,0.58252,-5.8615,-1.3201,-7.2549,10.159,5.6778,16.570999,8.4142,12.882,-2.7053,3.8547,8.4967,4.38
9.4155,5.2063,9.1057,-2.6409,-2.6403,-0.19417,-3.252,1.2238,0.58252,-2.6409,-2.6403,-3.9869,11.429,5.6778,14.032,8.4142,14.171,7.6006,0.06319,7.8431,0.5153
3.0964,3.9365,9.7561,-1.9968,-3.3003,-0.84142,0.0,1.2238,1.877,-1.9968,-3.3003,-0.71895,10.794,5.0399,10.857,7.767,13.527,8.2448,-2.4645,5.8824,-4.6377
10.047,9.0159,14.309,2.5121,2.6403,3.6893,5.2033,4.4444,4.466,2.5121,2.6403,5.1634,12.063,5.6778,14.667,9.0615,16.103001,7.6006,0.06319,9.1503,-5.9259
16.367001,13.46,17.561001,5.7327,6.6007,8.8673,8.4553,7.0209,5.1133,5.7327,6.6007,9.085,13.968,6.9537,18.476,11.65,18.68,12.11,1.9589,13.072,-3.3494
12.575,8.381,13.008,2.5121,3.3003,6.2783,3.9024,6.3768,0.58252,2.5121,3.3003,4.5098,12.698,6.9537,16.570999,11.003,16.747,10.821,-4.3602,14.379,-4.6377
7.5197,1.3968,7.1545,1.868,-0.66007,2.3948,-0.65041,7.0209,-4.5955,1.868,-0.66007,0.58824,12.063,7.5917,14.032,8.4142,13.527,12.11,-6.2559,15.686,-4.6377
4.3602,-6.8571,0.65041,-0.06441,-5.2805,0.45307,-6.5041,5.0886,-9.7735,-0.06441,-5.2805,-2.6797,9.5238,5.6778,7.6825,5.178,7.7295,13.398,-10.679,12.418,-4.6377
1.2006,-8.7619,-5.2033,-2.6409,-6.6007,-2.7832,-9.7561,3.1562,-13.01,-2.6409,-6.6007,-5.9477,5.7143,2.488,3.2381,1.2945,1.9324,8.2448,-14.471,7.8431,-4.6377
-4.4866,-9.3968,-6.5041,-3.285,-9.2409,-4.7249,-8.4553,1.868,-11.715,-3.285,-9.2409,-5.9477,2.5397,0.57416,-0.57143,-0.64725,-1.9324,5.0242,-9.4155,3.268,-2.0612
-6.3823,-8.7619,-5.8537,-4.5733,-9.2409,-3.4304,-4.5528,-1.9968,-8.479,-4.5733,-9.2409,-2.6797,-0.63492,-2.6156,-5.6508,-2.589,-3.8647,-0.12882,-6.2559,-3.268,-1.4171
-2.5908,-2.4127,-3.252,-1.9968,-2.6403,1.1003,1.9512,-5.2174,-3.301,-1.9968,-2.6403,2.549,-5.0794,-6.4434,-8.8254,-3.8835,-5.153,-7.8583,-4.3602,-9.1503,-2.7053
-2.5908,2.0317,-1.9512,1.2238,6.6007,3.0421,6.5041,-5.2174,2.5243,1.2238,6.6007,6.4706,-10.159,-10.271,-13.27,-4.5307,-7.7295,-11.079,-1.2006,-14.379,-3.3494
-3.8547,3.9365,-1.3008,1.868,6.6007,1.1003,7.1545,-3.9291,6.4078,1.868,6.6007,5.817,-9.5238,-8.9952,-12.635,-1.9417,-5.7971,-9.1465,1.327,-14.379,-2.0612
-2.5908,5.2063,2.6016,1.2238,1.3201,-0.84142,4.5528,-1.3527,8.3495,1.2238,1.3201,3.2026,-3.1746,-1.3397,-6.2857,5.178,0.64412,-5.2818,5.7504,-9.8039,2.4477
-1.327,5.2063,4.5528,1.868,2.6403,-2.1359,2.6016,0.57971,7.7023,1.868,2.6403,0.58824,1.2698,3.764,-0.57143,9.7087,5.153,-9.1465,4.4866,-4.5752,4.38
-3.2227,5.2063,1.3008,3.8003,6.6007,-1.4887,2.6016,-0.06441,7.7023,3.8003,6.6007,-0.71895,2.5397,5.6778,-0.57143,9.7087,5.7971,-5.9259,5.7504,-5.2288,3.7359
-8.91,2.0317,-3.9024,4.4444,9.901,-2.1359,3.9024,-0.70853,8.3495,4.4444,9.901,-0.06536,1.9048,3.764,-3.746,6.4725,2.5765,-2.0612,5.7504,-7.1895,-0.12882
-7.0142,-5.5873,-5.8537,3.1562,7.2607,-2.1359,1.9512,-2.6409,7.055,3.1562,7.2607,-0.06536,-3.1746,-0.70175,-7.5556,0.0,-2.5765,-5.2818,3.2227,-7.8431,-3.3494
-7.0142,-9.3968,-7.1545,3.1562,3.9604,-2.7832,1.3008,-0.70853,6.4078,3.1562,3.9604,-0.06536,-11.429,-7.0813,-13.905,-6.4725,-9.6618,-7.8583,0.6951,-9.8039,-5.2818
-10.174,-11.302,-9.1057,1.868,2.6403,-3.4304,-1.9512,-0.06441,3.8188,1.868,2.6403,-2.0261,-19.683001,-15.375,-20.254,-13.592,-17.391001,-7.8583,-4.3602,-11.765,-9.7907
-14.597,-13.841,-10.407,1.868,1.3201,-2.7832,-6.5041,0.57971,0.58252,1.868,1.3201,-3.3333,-22.222,-17.289,-22.794001,-16.827999,-21.256001,-5.2818,-8.1517,-11.765,-13.011
-11.438,-10.032,-11.057,3.8003,3.9604,-1.4887,-5.8537,-0.70853,-0.06472,3.8003,3.9604,-2.6797,-15.238,-10.909,-17.714001,-9.7087,-16.103001,-4.6377,-8.1517,-8.4967,-8.5024
-7.0142,-3.6825,-9.7561,1.868,1.3201,-4.0777,-4.5528,-1.9968,0.58252,1.868,1.3201,-4.6405,-6.3492,-1.9777,-7.5556,1.2945,-5.153,-7.2142,-3.0964,-5.2288,-1.4171
-5.7504,2.6667,-4.5528,-1.9968,0.0,-8.6084,-1.3008,-3.285,3.1715,-1.9968,0.0,-4.6405,1.2698,4.4019,1.9683,9.7087,5.153,-5.9259,4.4866,-2.6144,5.6683
-0.06319,6.4762,2.6016,-3.9291,3.9604,-6.6667,1.3008,-4.5733,5.1133,-3.9291,3.9604,-3.3333,7.619,10.144,8.9524,16.181,14.171,1.1594,8.278,1.9608,9.533
6.8878,7.746,6.5041,-1.3527,1.3201,-2.7832,0.0,-0.70853,1.877,-1.3527,1.3201,-2.0261,11.429,12.057,14.032,16.827999,18.035,6.3124,6.3823,5.8824,10.177
15.103,1.3968,6.5041,1.868,-2.6403,1.7476,-3.9024,3.1562,-2.0065,1.868,-2.6403,-0.71895,14.603,13.333,19.746,14.239,17.391001,4.38,3.2227,13.072,9.533
16.997999,-5.5873,3.9024,0.57971,-3.9604,6.2783,-7.8049,1.868,-5.2427,0.57971,-3.9604,-1.3725,12.063,10.781,14.667,9.7087,12.238,5.0242,-1.2006,9.1503,6.9565
4.3602,-6.2222,-1.3008,0.57971,-3.9604,3.6893,-8.4553,3.1562,-5.89,0.57971,-3.9604,-2.6797,5.7143,6.9537,5.1429,5.178,5.7971,4.38,-3.7283,1.9608,3.7359
-4.4866,-8.127,-6.5041,1.2238,-3.3003,-0.84142,-6.5041,3.8003,-4.5955,1.2238,-3.3003,-2.6797,1.2698,2.488,-0.57143,-1.2945,0.0,3.0918,-4.9921,0.0,1.1594
-0.6951,-10.032,-10.407,-0.06441,-1.3201,-1.4887,-4.5528,-1.9968,-2.6537,-0.06441,-1.3201,-2.0261,-1.2698,-2.6156,-1.2063,-10.356,-7.0853,0.5153,-6.2559,0.65359,-3.3494
-7.6461,-15.746,-18.862,-1.3527,-1.3201,-6.0194,-5.2033,-2.6409,-3.301,-1.3527,-1.3201,-5.2941,-5.0794,-8.9952,-8.1905,-22.006001,-18.68,-3.3494,-10.047,-1.3072,-9.1465
-13.333,-19.556,-23.415001,-1.3527,-3.9604,-9.2557,-6.5041,-2.6409,-2.6537,-1.3527,-3.9604,-9.2157,-9.5238,-12.823,-16.444,-29.773001,-28.986,-3.9936,-11.943,-4.5752,-11.723
-18.389,-17.650999,-24.065001,-5.2174,-1.3201,-11.197,-5.2033,-7.1498,-2.0065,-5.2174,-1.3201,-9.2157,-16.507999,-14.737,-27.238001,-28.479,-36.070999,-6.57,-10.679,-11.111,-11.079
-22.812,-10.032,-24.065001,-4.5733,1.9802,-12.492,-2.6016,-9.7262,0.58252,-4.5733,1.9802,-8.5621,-21.587,-13.461,-35.492001,-20.065001,-36.715,-14.944,-5.624,-18.301001,-6.57
-24.708,-6.8571,-24.065001,-2.6409,6.6007,-10.55,0.0,-11.014,5.7605,-2.6409,6.6007,-6.6013,-22.857,-9.6332,-37.396999,-9.7087,-32.206001,-17.52,1.9589,-21.569,-0.77295
-26.603001,-5.5873,-22.114,-1.3527,7.9208,-9.2557,0.65041,-8.438,7.7023,-1.3527,7.9208,-5.9477,-20.316999,-5.8054,-34.856998,-2.589,-24.476999,-14.944,4.4866,-21.569,2.4477
-19.021,1.3968,-14.959,-1.3527,5.2805,-8.6084,1.9512,-4.5733,7.055,-1.3527,5.2805,-5.9477,-12.698,1.2121,-24.063,6.4725,-11.594,-12.367,9.5419,-17.646999,6.3124
-12.07,6.4762,-7.8049,-1.3527,1.9802,-6.6667,3.9024,-3.285,5.7605,-1.3527,1.9802,-3.9869,-5.7143,5.6778,-12.635,12.298,0.0,-8.5024,10.806,-13.725,6.9565
-0.6951,9.6508,0.0,2.5121,2.6403,0.45307,8.4553,0.57971,6.4078,2.5121,2.6403,1.8954,1.9048,8.8676,0.06349,14.239,8.3736,-3.9936,10.806,-5.8824,7.6006
7.5197,10.286,3.9024,3.8003,3.9604,4.3366,8.4553,3.8003,6.4078,3.8003,3.9604,5.1634,4.4444,8.8676,3.873,12.298,10.95,3.0918,8.91,-4.5752,6.9565
8.7836,9.0159,5.8537,3.8003,-0.66007,5.6311,5.2033,5.7327,4.466,3.8003,-0.66007,4.5098,5.7143,7.5917,6.4127,11.003,11.594,8.2448,5.7504,-2.6144,5.0242
11.311,8.381,5.2033,3.1562,-3.3003,5.6311,0.0,7.0209,-0.71197,3.1562,-3.3003,1.8954,5.7143,5.6778,9.5873,7.767,10.95,7.6006,1.9589,1.9608,4.38
8.7836,0.7619,1.3008,-0.06441,-5.2805,1.7476,-6.5041,5.0886,-5.89,-0.06441,-5.2805,-1.3725,3.1746,3.126,7.0476,2.589,7.0853,6.9565,-1.2006,1.3072,3.7359
9.4155,-3.6825,1.9512,-0.06441,-3.9604,1.7476,-3.9024,1.2238,-5.2427,-0.06441,-3.9604,0.58824,2.5397,1.2121,6.4127,-1.2945,4.5089,3.7359,-0.56872,1.9608,3.7359
6.8878,-1.1429,1.9512,0.57971,-2.6403,1.7476,0.65041,-0.06441,-4.5955,0.57971,-2.6403,3.2026,-1.2698,-1.9777,1.3333,-4.5307,-1.2882,2.4477,-1.2006,0.0,2.4477
9.4155,1.3968,3.9024,-0.06441,-1.3201,3.6893,3.9024,-0.06441,-3.301,-0.06441,-1.3201,5.1634,-3.8095,-3.8915,-1.2063,-4.5307,-5.153,-2.7053,-2.4645,-1.3072,2.4477
9.4155,0.7619,4.5528,1.2238,1.9802,3.6893,3.252,-1.3527,-2.0065,1.2238,1.9802,5.817,-6.3492,-5.8054,-3.746,-4.5307,-8.3736,-4.6377,-1.2006,-1.3072,2.4477
