C3,C4,Cz,F1,F2,F3,F4,F7,F8,Fp1,Fp2,Fz,O1,O2,P3,P4,Pz,T3,T4,T5,T6
18.905001,18.114,17.867001,48.514999,39.741001,29.827999,18.274,26.535,22.155001,48.514999,39.741001,24.51,24.944,25.556,25.125999,26.799,28.141001,19.834,11.577,22.569,22.569
21.891001,22.155001,22.867001,42.574001,42.653999,29.827999,20.305,29.490999,23.165001,42.574001,42.653999,26.471001,26.858,28.497,27.136,28.789,31.156,19.834,15.48,24.52,23.545
19.9,20.135,20.867001,39.604,37.799,26.735001,19.289,36.388,22.155001,39.604,37.799,25.49,22.073,24.575001,23.115999,25.804001,27.136,22.819,14.504,19.642,19.642
12.935,12.054,13.867,41.584,32.945,24.674,16.243999,35.402,16.094,41.584,32.945,20.587999,12.504,12.81,15.075,14.859,17.084999,17.844,6.6992,13.789,9.8862
11.94,7.0034,10.867,43.563999,35.858002,26.735001,13.198,36.388,12.054,43.563999,35.858002,21.569,7.7193,5.9477,10.05,7.8939,11.055,15.854,1.8211,10.862,2.0813
13.93,7.0034,10.867,44.554001,37.799,28.797001,13.198,38.358002,15.084,44.554001,37.799,21.569,6.7624,6.9281,11.055,7.8939,11.055,17.844,0.84553,7.935,3.0569
18.905001,14.074,15.867,45.544998,36.827999,31.889999,16.243999,37.373001,17.104,45.544998,36.827999,24.51,11.547,12.81,17.084999,16.849001,18.09,19.834,5.7236,8.9106,10.862
22.886,20.135,19.867001,45.544998,35.858002,31.889999,17.259001,33.431999,18.114,45.544998,35.858002,23.528999,21.115999,22.614,25.125999,26.799,27.136,22.819,10.602,18.667,19.642
22.886,22.155001,19.867001,42.574001,35.858002,27.766001,17.259001,28.506001,19.125,42.574001,35.858002,20.587999,27.815001,28.497,30.150999,31.774,32.160999,22.819,13.528,26.472,23.545
18.905001,19.125,16.867001,40.594002,35.858002,24.674,15.228,28.506001,18.114,40.594002,35.858002,18.627001,24.944,26.535999,26.131001,28.789,29.146,16.849001,13.528,22.569,20.618
16.915001,15.084,15.867,38.613998,34.887001,23.643,12.183,30.476,17.104,38.613998,34.887001,17.646999,23.030001,24.575001,22.111,24.809,25.125999,16.849001,11.577,21.593,17.691
16.915001,13.064,14.867,38.613998,31.974001,21.580999,11.168,28.506001,14.074,38.613998,31.974001,16.667,24.944,22.614,21.106001,21.823999,23.115999,15.854,11.577,22.569,16.715
18.905001,14.074,16.867001,36.633999,33.916,22.612,13.198,28.506001,15.084,36.633999,33.916,16.667,23.030001,22.614,20.101,20.829,23.115999,13.864,11.577,20.618,16.715
18.905001,13.064,15.867,37.624001,31.974001,23.643,14.213,24.565001,16.094,37.624001,31.974001,19.608,13.461,15.752,16.08,16.849001,18.09,12.869,10.602,11.837,16.715
16.915001,14.074,14.867,33.662998,28.091,19.518999,13.198,23.58,15.084,33.662998,28.091,15.686,12.504,13.791,16.08,14.859,16.08,12.869,9.626,11.837,15.74
14.925,13.064,13.867,26.733,24.207001,16.426001,11.168,24.565001,12.054,26.733,24.207001,14.706,8.6762,11.83,13.065,13.864,13.065,13.864,8.6504,9.8862,12.813
11.94,13.064,12.867,24.752001,28.091,18.488001,11.168,21.608999,11.044,24.752001,28.091,14.706,10.59,14.771,11.055,14.859,13.065,12.869,8.6504,10.862,13.789
10.945,12.054,12.867,35.644001,32.945,17.457001,10.152,23.58,15.084,35.644001,32.945,15.686,12.504,14.771,9.0452,15.854,12.06,10.879,6.6992,9.8862,14.764
11.94,13.064,13.867,42.574001,34.887001,20.549999,12.183,29.490999,17.104,42.574001,34.887001,18.627001,11.547,15.752,10.05,16.849001,14.07,12.869,7.6748,9.8862,14.764
13.93,14.074,13.867,39.604,31.974001,20.549999,12.183,28.506001,15.084,39.604,31.974001,16.667,13.461,16.732,12.06,18.839001,16.08,11.874,9.626,11.837,14.764
16.915001,19.125,16.867001,40.594002,32.945,20.549999,16.243999,25.549999,18.114,40.594002,32.945,16.667,17.289,19.673,19.094999,22.819,21.106001,9.8839,10.602,13.789,16.715
19.9,22.155001,18.867001,38.613998,33.916,19.518999,17.259001,22.594,19.125,38.613998,33.916,16.667,20.159,22.614,24.121,26.799,27.136,8.8889,13.528,13.789,17.691
20.896,24.174999,19.867001,38.613998,33.916,19.518999,18.274,24.565001,20.135,38.613998,33.916,16.667,24.944,28.497,29.146,30.778999,31.156,9.8839,16.455,20.618,23.545
20.896,20.135,18.867001,37.624001,33.916,20.549999,18.274,26.535,22.155001,37.624001,33.916,16.667,25.900999,26.535999,29.146,28.789,29.146,15.854,12.553,23.545,24.52
16.915001,14.074,13.867,35.644001,30.032,21.580999,16.243999,23.58,15.084,35.644001,30.032,13.725,21.115999,19.673,22.111,21.823999,22.111,15.854,8.6504,20.618,20.618
17.91,14.074,13.867,38.613998,31.974001,22.612,15.228,25.549999,13.064,38.613998,31.974001,15.686,21.115999,19.673,21.106001,19.834,20.101,19.834,9.626,20.618,19.642
17.91,13.064,13.867,40.594002,35.858002,24.674,17.259001,26.535,15.084,40.594002,35.858002,18.627001,20.159,15.752,19.094999,15.854,17.084999,22.819,8.6504,21.593,11.837
15.92,12.054,12.867,37.624001,33.916,23.643,17.259001,26.535,15.084,37.624001,33.916,18.627001,15.375,13.791,16.08,12.869,15.075,18.839001,6.6992,17.691,8.9106
16.915001,15.084,14.867,40.594002,36.827999,25.704,19.289,28.506001,18.114,40.594002,36.827999,22.549,10.59,13.791,14.07,15.854,15.075,16.849001,12.553,10.862,12.813
15.92,16.094,15.867,40.594002,33.916,28.797001,21.32,25.549999,22.155001,40.594002,33.916,23.528999,12.504,13.791,15.075,16.849001,15.075,13.864,13.528,12.813,11.837
13.93,17.104,14.867,40.594002,31.974001,28.797001,23.35,24.565001,23.165001,40.594002,31.974001,24.51,10.59,12.81,12.06,17.844,15.075,10.879,12.553,7.935,12.813
9.9502,16.094,13.867,36.633999,36.827999,25.704,25.381001,28.506001,23.165001,36.633999,36.827999,24.51,5.8054,8.8889,9.0452,13.864,12.06,8.8889,11.577,4.0325,8.9106
13.93,17.104,16.867001,40.594002,38.77,25.704,28.426001,27.521,25.184999,40.594002,38.77,29.412001,6.7624,7.9085,11.055,13.864,13.065,6.8988,10.602,5.9837,10.862
19.9,21.145,22.867001,43.563999,41.682999,28.797001,29.441999,30.476,25.184999,43.563999,41.682999,32.353001,12.504,12.81,16.08,17.844,18.09,11.874,13.528,11.837,14.764
20.896,21.145,20.867001,38.613998,35.858002,26.735001,23.35,26.535,21.145,38.613998,35.858002,27.451,14.418,14.771,17.084999,18.839001,18.09,10.879,16.455,14.764,15.74
16.915001,19.125,17.867001,32.673,29.061001,23.643,18.274,20.624001,19.125,32.673,29.061001,20.587999,11.547,14.771,15.075,18.839001,17.084999,9.8839,12.553,12.813,14.764
13.93,18.114,15.867,34.653,29.061001,21.580999,17.259001,21.608999,16.094,34.653,29.061001,20.587999,13.461,15.752,15.075,19.834,18.09,9.8839,10.602,8.9106,17.691
12.935,17.104,15.867,31.683001,28.091,21.580999,17.259001,22.594,17.104,31.683001,28.091,19.608,17.289,17.712,17.084999,20.829,20.101,10.879,11.577,12.813,18.667
10.945,13.064,12.867,28.712999,29.061001,18.488001,14.213,21.608999,15.084,28.712999,29.061001,17.646999,16.332001,14.771,15.075,15.854,16.08,13.864,10.602,15.74,13.789
7.9602,8.0135,8.8667,31.683001,30.032,17.457001,14.213,24.565001,16.094,31.683001,30.032,15.686,10.59,10.85,9.0452,8.8889,10.05,13.864,8.6504,12.813,8.9106
6.9652,5.9933,6.8667,32.673,31.003,18.488001,16.243999,26.535,19.125,32.673,31.003,15.686,4.8485,4.9673,6.0302,3.9138,5.0251,13.864,8.6504,10.862,4.0325
5.9701,2.963,2.8667,30.693001,29.061001,16.426001,12.183,25.549999,17.104,30.693001,29.061001,10.784,2.9346,1.0458,2.0101,1.9237,1.005,11.874,5.7236,7.935,4.0325
9.9502,8.0135,5.8667,28.712999,25.177999,17.457001,11.168,21.608999,15.084,28.712999,25.177999,9.8039,6.7624,6.9281,6.0302,6.8988,5.0251,14.859,7.6748,10.862,10.862
11.94,11.044,8.8667,29.702999,23.236,17.457001,13.198,21.608999,15.084,29.702999,23.236,11.765,8.6762,8.8889,7.0352,10.879,8.0402,15.854,9.626,9.8862,11.837
9.9502,11.044,8.8667,27.723,25.177999,14.364,14.213,23.58,17.104,27.723,25.177999,11.765,8.6762,8.8889,8.0402,10.879,9.0452,10.879,10.602,8.9106,8.9106
6.9652,7.0034,6.8667,29.702999,25.177999,13.333,15.228,21.608999,17.104,29.702999,25.177999,11.765,4.8485,3.9869,6.0302,5.9038,6.0302,5.9038,6.6992,2.0813,4.0325
3.9801,3.9731,4.8667,29.702999,26.149,14.364,15.228,22.594,14.074,29.702999,26.149,11.765,3.8915,2.0261,5.0251,1.9237,4.0201,3.9138,7.6748,-0.84553,1.1057
5.9701,3.9731,3.8667,32.673,29.061001,15.395,12.183,21.608999,17.104,32.673,29.061001,12.745,3.8915,0.06536,3.0151,0.92869,2.0101,2.9187,5.7236,0.13008,0.13008
14.925,11.044,11.867,34.653,32.945,22.612,16.243999,24.565001,16.094,34.653,32.945,18.627001,9.6332,3.9869,10.05,6.8988,8.0402,8.8889,8.6504,8.9106,4.0325
18.905001,16.094,15.867,35.644001,29.061001,26.735001,16.243999,29.490999,17.104,35.644001,29.061001,21.569,16.332001,7.9085,13.065,10.879,12.06,14.859,8.6504,12.813,6.9593
15.92,17.104,15.867,24.752001,26.149,25.704,16.243999,29.490999,16.094,24.752001,26.149,20.587999,17.289,12.81,14.07,13.864,13.065,15.854,6.6992,13.789,10.862
12.935,14.074,13.867,28.712999,27.120001,20.549999,15.228,24.565001,14.074,28.712999,27.120001,18.627001,18.246,12.81,12.06,11.874,13.065,12.869,4.748,14.764,6.9593
12.935,12.054,14.867,36.633999,28.091,21.580999,17.259001,23.58,17.104,36.633999,28.091,18.627001,16.332001,10.85,12.06,7.8939,12.06,14.859,6.6992,11.837,0.13008
12.935,11.044,13.867,35.644001,31.003,24.674,19.289,23.58,17.104,35.644001,31.003,20.587999,8.6762,4.9673,7.0352,3.9138,7.0352,11.874,5.7236,5.0081,-1.8211
12.935,10.034,11.867,35.644001,32.945,24.674,20.305,24.565001,19.125,35.644001,32.945,20.587999,6.7624,3.9869,5.0251,1.9237,5.0251,8.8889,6.6992,5.9837,-0.84553
14.925,11.044,10.867,31.683001,29.061001,20.549999,18.274,22.594,20.135,31.683001,29.061001,17.646999,12.504,7.9085,10.05,5.9038,8.0402,10.879,7.6748,12.813,1.1057
15.92,12.054,10.867,29.702999,27.120001,18.488001,16.243999,19.639,16.094,29.702999,27.120001,14.706,15.375,10.85,14.07,10.879,13.065,12.869,6.6992,16.715,5.0081
14.925,12.054,11.867,27.723,25.177999,16.426001,11.168,16.683001,12.054,27.723,25.177999,12.745,17.289,13.791,16.08,13.864,17.084999,10.879,6.6992,16.715,8.9106
16.915001,13.064,14.867,28.712999,22.264999,18.488001,12.183,16.683001,11.044,28.712999,22.264999,14.706,18.246,13.791,18.09,13.864,19.094999,11.874,6.6992,16.715,7.935
18.905001,14.074,18.867001,31.683001,25.177999,22.612,16.243999,21.608999,10.034,31.683001,25.177999,19.608,18.246,13.791,19.094999,12.869,18.09,14.859,7.6748,15.74,5.9837
19.9,13.064,17.867001,30.693001,29.061001,27.766001,17.259001,23.58,11.044,30.693001,29.061001,23.528999,18.246,11.83,18.09,9.8839,15.075,12.869,5.7236,15.74,5.0081
18.905001,12.054,13.867,28.712999,24.207001,23.643,17.259001,22.594,12.054,28.712999,24.207001,20.587999,12.504,9.8693,17.084999,8.8889,13.065,13.864,5.7236,14.764,4.0325
15.92,11.044,10.867,27.723,21.294001,16.426001,13.198,20.624001,13.064,27.723,21.294001,15.686,3.8915,2.0261,13.065,7.8939,10.05,9.8839,4.748,8.9106,2.0813
14.925,13.064,10.867,25.743,22.264999,15.395,12.183,23.58,16.094,25.743,22.264999,13.725,10.59,7.9085,17.084999,11.874,14.07,11.874,5.7236,16.715,6.9593
10.945,10.034,7.8667,27.723,25.177999,17.457001,12.183,24.565001,12.054,27.723,25.177999,13.725,9.6332,7.9085,13.065,11.874,12.06,13.864,4.748,14.764,8.9106
4.9751,5.9933,4.8667,27.723,25.177999,16.426001,13.198,18.653999,11.044,27.723,25.177999,12.745,3.8915,5.9477,6.0302,8.8889,6.0302,13.864,4.748,6.9593,8.9106
0.99502,2.963,1.8667,26.733,22.264999,11.271,11.168,10.772,13.064,26.733,22.264999,10.784,3.8915,3.0065,2.0101,2.9187,1.005,9.8839,3.7724,6.9593,4.0325
2.9851,4.9832,2.8667,24.752001,23.236,11.271,14.213,15.698,18.114,24.752001,23.236,12.745,5.8054,4.9673,4.0201,2.9187,1.005,7.8939,8.6504,8.9106,3.0569
3.9801,7.0034,3.8667,24.752001,26.149,10.241,14.213,17.667999,17.104,24.752001,26.149,15.686,3.8915,4.9673,3.0151,2.9187,2.0101,5.9038,11.577,5.0081,5.0081
4.9751,9.0236,4.8667,30.693001,27.120001,16.426001,15.228,11.757,14.074,30.693001,27.120001,16.667,6.7624,4.9673,5.0251,5.9038,5.0251,4.9088,9.626,5.9837,4.0325
7.9602,13.064,8.8667,18.812,23.236,19.518999,16.243999,13.727,14.074,18.812,23.236,18.627001,9.6332,6.9281,10.05,8.8889,10.05,4.9088,7.6748,9.8862,6.9593
8.9552,12.054,8.8667,18.812,21.294001,17.457001,15.228,17.667999,10.034,18.812,21.294001,17.646999,6.7624,6.9281,8.0402,9.8839,9.0452,5.9038,6.6992,6.9593,9.8862
9.9502,7.0034,8.8667,27.723,24.207001,18.488001,13.198,20.624001,10.034,27.723,24.207001,16.667,5.8054,4.9673,8.0402,6.8988,8.0402,10.879,4.748,9.8862,6.9593
13.93,4.9832,8.8667,30.693001,23.236,22.612,12.183,22.594,12.054,30.693001,23.236,17.646999,10.59,6.9281,12.06,4.9088,8.0402,20.829,4.748,15.74,4.0325
11.94,3.9731,6.8667,24.752001,15.469,18.488001,11.168,24.565001,9.0236,24.752001,15.469,12.745,8.6762,4.9673,10.05,2.9187,7.0352,18.839001,1.8211,11.837,1.1057
8.9552,4.9832,4.8667,22.771999,16.440001,16.426001,11.168,20.624001,11.044,22.771999,16.440001,10.784,3.8915,3.0065,7.0352,3.9138,5.0251,14.859,-2.0813,5.9837,0.13008
9.9502,9.0236,7.8667,23.761999,16.440001,15.395,11.168,16.683001,13.064,23.761999,16.440001,10.784,4.8485,6.9281,7.0352,7.8939,8.0402,10.879,2.7967,6.9593,4.0325
8.9552,9.0236,6.8667,23.761999,15.469,10.241,11.168,14.713,11.044,23.761999,15.469,10.784,5.8054,5.9477,6.0302,8.8889,8.0402,10.879,7.6748,6.9593,5.0081
8.9552,8.0135,7.8667,20.792,19.353001,9.2096,11.168,15.698,9.0236,20.792,19.353001,10.784,4.8485,3.9869,7.0352,6.8988,7.0352,7.8939,5.7236,6.9593,3.0569
14.925,11.044,11.867,25.743,21.294001,14.364,11.168,17.667999,12.054,25.743,21.294001,15.686,8.6762,5.9477,10.05,8.8889,10.05,9.8839,6.6992,8.9106,5.9837
18.905001,16.094,16.867001,26.733,23.236,20.549999,15.228,19.639,16.094,26.733,23.236,20.587999,14.418,11.83,17.084999,12.869,14.07,13.864,9.626,16.715,10.862
16.915001,16.094,14.867,26.733,21.294001,18.488001,15.228,15.698,14.074,26.733,21.294001,20.587999,12.504,10.85,13.065,11.874,12.06,10.879,12.553,14.764,10.862
10.945,12.054,10.867,22.771999,18.382,16.426001,13.198,15.698,9.0236,22.771999,18.382,16.667,5.8054,5.9477,8.0402,8.8889,8.0402,8.8889,7.6748,7.935,6.9593
9.9502,10.034,8.8667,21.782,16.440001,14.364,12.183,14.713,9.0236,21.782,16.440001,15.686,5.8054,5.9477,7.0352,8.8889,8.0402,7.8939,3.7724,6.9593,7.935
8.9552,9.0236,8.8667,17.822001,15.469,13.333,11.168,9.7865,10.034,17.822001,15.469,13.725,13.461,10.85,11.055,9.8839,11.055,6.8988,4.748,12.813,8.9106
6.9652,4.9832,5.8667,18.812,15.469,11.271,10.152,10.772,5.9933,18.812,15.469,11.765,8.6762,6.9281,8.0402,5.9038,7.0352,6.8988,2.7967,9.8862,3.0569
7.9602,3.9731,4.8667,8.9109,15.469,14.364,9.1371,13.727,7.0034,8.9109,15.469,10.784,1.0207,1.0458,5.0251,1.9237,4.0201,7.8939,0.84553,2.0813,-2.7967
7.9602,5.9933,5.8667,13.861,13.528,14.364,9.1371,13.727,11.044,13.861,13.528,11.765,3.8915,2.0261,5.0251,2.9187,5.0251,7.8939,2.7967,3.0569,-0.84553
4.9751,2.963,1.8667,20.792,14.498,6.1168,6.0914,5.8456,9.0236,20.792,14.498,6.8627,7.7193,1.0458,6.0302,2.9187,4.0201,8.8889,2.7967,8.9106,-0.84553
1.99,0.94276,-0.13333,18.812,12.557,1.9931,3.0457,7.8161,4.9832,18.812,12.557,2.9412,4.8485,2.0261,6.0302,2.9187,4.0201,6.8988,0.84553,5.9837,0.13008
-0.99502,-3.0976,-4.1333,14.851,9.644,-0.06873,1.0152,10.772,1.9529,14.851,9.644,0.0,2.9346,0.06536,2.0101,-0.06634,1.005,2.9187,-2.0813,5.0081,-0.84553
-6.9652,-6.1279,-9.1333,11.881,7.7023,-2.1306,-2.0305,9.7865,1.9529,11.881,7.7023,-3.9216,1.0207,-2.8758,-4.0201,-5.0415,-5.0251,-1.0614,-3.0569,1.1057,-4.748
-4.9751,-3.0976,-7.1333,10.891,4.7896,-1.0997,-1.0152,9.7865,1.9529,10.891,4.7896,-0.98039,4.8485,1.0458,-4.0201,-4.0464,-6.0302,3.9138,-0.13008,2.0813,-1.8211
0.99502,3.9731,-0.13333,9.901,4.7896,5.0859,3.0457,13.727,7.0034,9.901,4.7896,2.9412,12.504,9.8693,4.0201,1.9237,1.005,8.8889,4.748,7.935,3.0569
7.9602,4.9832,4.8667,14.851,6.7314,9.2096,3.0457,11.757,5.9933,14.851,6.7314,6.8627,14.418,10.85,7.0352,2.9187,5.0251,12.869,2.7967,10.862,3.0569
16.915001,11.044,12.867,19.802,13.528,15.395,7.1066,15.698,4.9832,19.802,13.528,12.745,19.202999,12.81,15.075,6.8988,12.06,16.849001,3.7724,15.74,4.0325
21.891001,16.094,18.867001,23.761999,19.353001,19.518999,13.198,19.639,11.044,23.761999,19.353001,19.608,21.115999,11.83,18.09,10.879,16.08,18.839001,7.6748,18.667,7.935
20.896,17.104,17.867001,25.743,17.410999,21.580999,14.213,18.653999,12.054,25.743,17.410999,19.608,16.332001,11.83,17.084999,11.874,15.075,17.844,11.577,19.642,10.862
18.905001,16.094,15.867,21.782,11.586,21.580999,14.213,15.698,9.0236,21.782,11.586,17.646999,17.289,14.771,16.08,13.864,15.075,16.849001,11.577,20.618,12.813
20.896,16.094,16.867001,15.842,9.644,20.549999,13.198,18.653999,9.0236,15.842,9.644,15.686,23.987,22.614,20.101,18.839001,19.094999,18.839001,11.577,24.52,18.667
19.9,12.054,13.867,15.842,8.6731,17.457001,6.0914,19.639,5.9933,15.842,8.6731,11.765,22.073,20.653999,20.101,16.849001,18.09,19.834,8.6504,18.667,17.691
18.905001,13.064,13.867,12.871,8.6731,16.426001,6.0914,19.639,9.0236,12.871,8.6731,9.8039,19.202999,18.693001,19.094999,15.854,19.094999,19.834,9.626,13.789,15.74
16.915001,13.064,13.867,13.861,9.644,17.457001,7.1066,16.683001,9.0236,13.861,9.644,10.784,12.504,11.83,17.084999,12.869,17.084999,17.844,9.626,12.813,9.8862
13.93,12.054,11.867,4.9505,9.644,16.426001,8.1218,15.698,9.0236,4.9505,9.644,10.784,8.6762,6.9281,14.07,8.8889,14.07,12.869,6.6992,10.862,5.9837
10.945,8.0135,7.8667,7.9208,10.615,11.271,5.0761,13.727,3.9731,7.9208,10.615,7.8431,5.8054,4.9673,11.055,5.9038,11.055,8.8889,3.7724,8.9106,3.0569
6.9652,0.94276,1.8667,13.861,8.6731,5.0859,1.0152,10.772,0.94276,13.861,8.6731,2.9412,2.9346,1.0458,6.0302,1.9237,5.0251,6.8988,1.8211,7.935,2.0813
5.9701,0.94276,-0.13333,13.861,5.7605,5.0859,3.0457,10.772,2.963,13.861,5.7605,1.9608,4.8485,3.9869,6.0302,1.9237,3.0151,9.8839,4.748,10.862,5.0081
2.9851,1.9529,-1.1333,18.812,8.6731,9.2096,7.1066,10.772,4.9832,18.812,8.6731,4.902,6.7624,4.9673,3.0151,0.92869,1.005,10.879,3.7724,7.935,3.0569
-2.9851,-1.0774,-4.1333,15.842,11.586,7.1478,5.0761,10.772,8.0135,15.842,11.586,2.9412,-1.8501,-1.8954,-4.0201,-4.0464,-4.0201,3.9138,1.8211,0.13008,-2.7967
-3.9801,-2.0875,-4.1333,8.9109,10.615,3.0241,1.0152,7.8161,8.0135,8.9109,10.615,1.9608,-6.6348,-3.8562,-5.0251,-4.0464,-4.0201,4.9088,0.84553,-4.748,-2.7967
-0.99502,0.94276,-2.1333,7.9208,7.7023,1.9931,1.0152,7.8161,4.9832,7.9208,7.7023,1.9608,-6.6348,-2.8758,-3.0151,-3.0514,-3.0151,6.8988,3.7724,-1.8211,-0.84553
2.9851,5.9933,0.86667,11.881,6.7314,5.0859,5.0761,11.757,5.9933,11.881,6.7314,5.8824,-2.807,0.06536,0.0,1.9237,0.0,6.8988,7.6748,-1.8211,3.0569
5.9701,9.0236,3.8667,8.9109,7.7023,10.241,9.1371,8.8013,9.0236,8.9109,7.7023,6.8627,4.8485,6.9281,5.0251,6.8988,5.0251,7.8939,10.602,5.0081,8.9106
5.9701,9.0236,4.8667,9.901,6.7314,9.2096,7.1066,7.8161,9.0236,9.901,6.7314,6.8627,6.7624,9.8693,8.0402,9.8839,8.0402,4.9088,10.602,7.935,13.789
5.9701,8.0135,4.8667,8.9109,5.7605,4.055,4.0609,7.8161,4.9832,8.9109,5.7605,4.902,9.6332,11.83,11.055,10.879,11.055,6.8988,10.602,9.8862,14.764
5.9701,5.9933,4.8667,7.9208,3.8188,-0.06873,2.0305,9.7865,2.963,7.9208,3.8188,2.9412,16.332001,14.771,13.065,10.879,14.07,8.8889,7.6748,15.74,11.837
6.9652,8.0135,6.8667,4.9505,2.8479,3.0241,5.0761,11.757,4.9832,4.9505,2.8479,3.9216,12.504,13.791,12.06,11.874,14.07,8.8889,8.6504,11.837,8.9106
9.9502,12.054,8.8667,4.9505,4.7896,6.1168,7.1066,9.7865,10.034,4.9505,4.7896,6.8627,8.6762,11.83,11.055,12.869,14.07,12.869,9.626,7.935,10.862
5.9701,8.0135,4.8667,4.9505,2.8479,6.1168,1.0152,2.89,2.963,4.9505,2.8479,2.9412,1.0207,4.9673,7.0352,7.8939,8.0402,10.879,6.6992,3.0569,6.9593
-1.99,1.9529,-1.1333,4.9505,2.8479,-2.1306,-4.0609,0.91954,-2.0875,4.9505,2.8479,-0.98039,-2.807,0.06536,-1.005,0.92869,0.0,0.92869,4.748,-2.7967,4.0325
-2.9851,-0.06734,-1.1333,4.9505,2.8479,-2.1306,-1.0152,3.8752,0.94276,4.9505,2.8479,0.0,-1.8501,0.06536,-4.0201,-2.0564,-3.0151,-3.0514,6.6992,-2.7967,3.0569
-7.9602,-7.138,-6.1333,4.9505,1.877,-0.06873,-3.0457,5.8456,-1.0774,4.9505,1.877,-1.9608,-7.5917,-8.7582,-9.0452,-10.017,-9.0452,-4.0464,0.84553,-4.748,-6.6992
-6.9652,-12.189,-10.133,-4.9505,1.877,-0.06873,-5.0761,2.89,-3.0976,-4.9505,1.877,-3.9216,-8.5486,-10.719,-9.0452,-13.002,-10.05,-4.0464,-4.0325,-5.7236,-10.602
-0.99502,-8.1481,-6.1333,-2.9703,-2.0065,-0.06873,-4.0609,0.91954,1.9529,-2.9703,-2.0065,-2.9412,-0.89314,-4.8366,0.0,-6.0365,-2.0101,-0.06634,-5.0081,-0.84553,-4.748
4.9751,-0.06734,-1.1333,7.9208,0.90615,0.9622,0.0,4.8604,-0.06734,7.9208,0.90615,0.0,3.8915,2.0261,6.0302,2.9187,4.0201,2.9187,-1.1057,5.0081,2.0813
-0.99502,-1.0774,-5.1333,4.9505,1.877,-1.0997,-3.0457,0.91954,-1.0774,4.9505,1.877,-3.9216,-5.6778,0.06536,0.0,0.92869,0.0,3.9138,-2.0813,-0.84553,2.0813
-8.9552,-8.1481,-11.133,0.0,-0.06472,-7.2852,-7.1066,-3.0213,-3.0976,0.0,-0.06472,-7.8431,-13.333,-8.7582,-8.0402,-6.0365,-7.0352,0.92869,-8.9106,-8.6504,-4.748
-7.9602,-6.1279,-8.1333,2.9703,-0.06472,-4.1924,-4.0609,2.89,-1.0774,2.9703,-0.06472,-4.902,-4.7209,-4.8366,-3.0151,-5.0415,-3.0151,0.92869,-5.9837,0.13008,-3.7724
-3.9801,-7.138,-4.1333,2.9703,1.877,-2.1306,-3.0457,2.89,-1.0774,2.9703,1.877,0.0,-2.807,-4.8366,-2.0101,-5.0415,-2.0101,-0.06634,-5.9837,-0.84553,-4.748
-3.9801,-7.138,-5.1333,6.9307,4.7896,-0.06873,-3.0457,0.91954,-0.06734,6.9307,4.7896,0.98039,-6.6348,-6.7974,-5.0251,-6.0365,-3.0151,-5.0415,-5.9837,-6.6992,-6.6992
0.99502,-0.06734,-1.1333,6.9307,8.6731,3.0241,4.0609,-0.06568,2.963,6.9307,8.6731,5.8824,-3.764,-1.8954,-2.0101,-0.06634,1.005,-4.0464,1.8211,-7.6748,-2.7967
4.9751,3.9731,1.8667,3.9604,5.7605,5.0859,6.0914,1.9048,3.9731,3.9604,5.7605,4.902,0.0638,-0.91503,2.0101,1.9237,4.0201,-0.06634,3.7724,-5.7236,-2.7967
1.99,1.9529,-1.1333,0.0,0.90615,-2.1306,0.0,-0.06568,-1.0774,0.0,0.90615,-0.98039,-2.807,-3.8562,0.0,-0.06634,1.005,-0.06634,2.7967,-3.7724,-2.7967
-1.99,1.9529,-1.1333,-0.9901,0.90615,-4.1924,-1.0152,-1.0509,-0.06734,-0.9901,0.90615,-2.9412,-0.89314,-1.8954,-1.005,-0.06634,-1.005,2.9187,3.7724,-0.84553,0.13008
-3.9801,1.9529,-0.13333,0.0,2.8479,-4.1924,1.0152,-2.0361,3.9731,0.0,2.8479,0.0,-2.807,-2.8758,-5.0251,-3.0514,-3.0151,-0.06634,1.8211,-1.8211,-0.84553
-5.9701,-1.0774,-2.1333,2.9703,2.8479,-1.0997,3.0457,-1.0509,2.963,2.9703,2.8479,1.9608,-7.5917,-6.7974,-10.05,-8.0265,-7.0352,-5.0415,-4.0325,-7.6748,-5.7236
-1.99,-2.0875,-1.1333,3.9604,5.7605,0.9622,4.0609,1.9048,5.9933,3.9604,5.7605,4.902,-3.764,-5.817,-6.0302,-7.0315,-5.0251,-3.0514,-3.0569,-4.748,-4.748
-2.9851,-4.1077,-4.1333,1.9802,2.8479,-4.1924,0.0,-0.06568,3.9731,1.9802,2.8479,0.0,-8.5486,-7.7778,-7.0352,-8.0265,-7.0352,-5.0415,-0.13008,-9.626,-5.7236
-4.9751,-2.0875,-5.1333,0.0,-2.0065,-7.2852,-3.0457,-2.0361,0.94276,0.0,-2.0065,-2.9412,-11.419,-8.7582,-8.0402,-6.0365,-6.0302,-7.0315,3.7724,-10.602,-5.7236
-4.9751,-0.06734,-5.1333,0.0,-2.9773,-2.1306,-2.0305,-3.0213,1.9529,0.0,-2.9773,-0.98039,-9.5056,-8.7582,-8.0402,-4.0464,-7.0352,-6.0365,0.84553,-9.626,-3.7724
-3.9801,-0.06734,-5.1333,-6.9307,0.90615,-0.06873,-3.0457,0.91954,-4.1077,-6.9307,0.90615,-1.9608,-7.5917,-6.7974,-4.0201,-3.0514,-5.0251,-3.0514,-2.0813,-9.626,-1.8211
0.0,3.9731,-1.1333,-4.9505,1.877,-0.06873,0.0,2.89,0.94276,-4.9505,1.877,1.9608,-1.8501,-2.8758,0.0,0.92869,0.0,-1.0614,3.7724,-6.6992,2.0813
0.0,4.9832,1.8667,4.9505,2.8479,0.9622,5.0761,2.89,3.9731,4.9505,2.8479,4.902,-0.89314,-1.8954,0.0,1.9237,2.0101,-3.0514,5.7236,-4.748,3.0569
1.99,5.9933,4.8667,11.881,7.7023,7.1478,7.1066,-1.0509,7.0034,11.881,7.7023,9.8039,-0.89314,-2.8758,-1.005,0.92869,2.0101,-3.0514,4.748,-5.7236,0.13008
2.9851,5.9933,6.8667,9.901,7.7023,10.241,11.168,-2.0361,12.054,9.901,7.7023,11.765,1.0207,-2.8758,-1.005,-0.06634,3.0151,-4.0464,3.7724,-6.6992,-3.7724
5.9701,4.9832,4.8667,11.881,8.6731,10.241,13.198,3.8752,10.034,11.881,8.6731,12.745,2.9346,-4.8366,-2.0101,-3.0514,1.005,-3.0514,1.8211,-4.748,-10.602
5.9701,3.9731,2.8667,5.9406,6.7314,10.241,9.1371,5.8456,5.9933,5.9406,6.7314,9.8039,3.8915,-5.817,-2.0101,-6.0365,-2.0101,0.92869,2.7967,-2.7967,-13.528
1.99,1.9529,-0.13333,4.9505,5.7605,8.1787,7.1066,4.8604,5.9933,4.9505,5.7605,7.8431,0.0638,-8.7582,-6.0302,-8.0265,-7.0352,1.9237,2.7967,-3.7724,-9.626
-1.99,2.963,-1.1333,6.9307,7.7023,8.1787,10.152,4.8604,8.0135,6.9307,7.7023,7.8431,-6.6348,-9.7386,-9.0452,-6.0365,-8.0402,-3.0514,5.7236,-9.626,-5.7236
0.0,3.9731,-0.13333,9.901,8.6731,8.1787,9.1371,3.8752,11.044,9.901,8.6731,9.8039,-6.6348,-3.8562,-7.0352,-1.0614,-4.0201,-4.0464,6.6992,-8.6504,2.0813
-0.99502,-1.0774,-1.1333,4.9505,3.8188,7.1478,6.0914,4.8604,5.9933,4.9505,3.8188,5.8824,-6.6348,-2.8758,-7.0352,-2.0564,-4.0201,-4.0464,-2.0813,-8.6504,-1.8211
-0.99502,-4.1077,-1.1333,2.9703,1.877,6.1168,6.0914,1.9048,1.9529,2.9703,1.877,6.8627,-3.764,-2.8758,-5.0251,-5.0415,-3.0151,-1.0614,-5.9837,-5.7236,-6.6992
0.0,-4.1077,-1.1333,8.9109,7.7023,5.0859,5.0761,0.91954,2.963,8.9109,7.7023,7.8431,-2.807,-3.8562,-3.0151,-5.0415,-2.0101,1.9237,-5.9837,-5.7236,-8.6504
-2.9851,-0.06734,-1.1333,5.9406,7.7023,1.9931,7.1066,1.9048,2.963,5.9406,7.7023,7.8431,-5.6778,-3.8562,-4.0201,-3.0514,-1.005,-4.0464,-2.0813,-8.6504,-8.6504
-4.9751,0.94276,-2.1333,1.9802,5.7605,-1.0997,7.1066,-3.0213,4.9832,1.9802,5.7605,6.8627,-9.5056,-9.7386,-7.0352,-3.0514,-3.0151,-13.002,0.84553,-10.602,-8.6504
-4.9751,2.963,-1.1333,1.9802,3.8188,0.9622,6.0914,-2.0361,2.963,1.9802,3.8188,6.8627,-9.5056,-11.699,-7.0352,-3.0514,-3.0151,-12.007,0.84553,-11.577,-5.7236
-2.9851,3.9731,-0.13333,6.9307,5.7605,4.055,8.1218,-1.0509,1.9529,6.9307,5.7605,8.8235,-8.5486,-10.719,-6.0302,-3.0514,-4.0201,-6.0365,-0.13008,-9.626,-2.7967
-0.99502,1.9529,-1.1333,-0.9901,5.7605,4.055,5.0761,1.9048,4.9832,-0.9901,5.7605,4.902,-12.376,-11.699,-7.0352,-6.0365,-6.0302,-3.0514,2.7967,-12.553,-5.7236
0.0,-1.0774,-3.1333,4.9505,2.8479,1.9931,3.0457,4.8604,5.9933,4.9505,2.8479,4.902,-12.376,-11.699,-7.0352,-8.0265,-8.0402,-0.06634,-0.13008,-13.528,-5.7236
-1.99,-2.0875,-3.1333,6.9307,-0.06472,6.1168,3.0457,4.8604,7.0034,6.9307,-0.06472,3.9216,-10.463,-8.7582,-6.0302,-8.0265,-7.0352,-2.0564,-2.0813,-9.626,-6.6992
-3.9801,-0.06734,-3.1333,5.9406,2.8479,6.1168,3.0457,2.89,2.963,5.9406,2.8479,3.9216,-10.463,-7.7778,-8.0402,-4.0464,-6.0302,-4.0464,-3.0569,-10.602,-4.748
-2.9851,4.9832,-0.13333,7.9208,4.7896,6.1168,6.0914,-2.0361,1.9529,7.9208,4.7896,5.8824,-7.5917,-5.817,-5.0251,-0.06634,-1.005,-5.0415,-4.0325,-8.6504,-3.7724
-1.99,7.0034,1.8667,7.9208,2.8479,4.055,5.0761,-5.977,1.9529,7.9208,2.8479,6.8627,-9.5056,-7.7778,-6.0302,0.92869,0.0,-11.012,-2.0813,-6.6992,-5.7236
1.99,10.034,5.8667,6.9307,4.7896,5.0859,8.1218,-1.0509,0.94276,6.9307,4.7896,7.8431,-7.5917,-5.817,-1.005,3.9138,3.0151,-9.0216,1.8211,-1.8211,-2.7967
5.9701,11.044,7.8667,8.9109,6.7314,8.1787,10.152,2.89,8.0135,8.9109,6.7314,9.8039,-4.7209,-3.8562,2.0101,5.9038,5.0251,-3.0514,4.748,0.13008,-0.84553
2.9851,8.0135,4.8667,6.9307,4.7896,7.1478,9.1371,1.9048,9.0236,6.9307,4.7896,8.8235,-5.6778,-3.8562,-2.0101,3.9138,2.0101,-0.06634,6.6992,-4.748,1.1057
-0.99502,4.9832,1.8667,3.9604,6.7314,3.0241,8.1218,3.8752,7.0034,3.9604,6.7314,7.8431,-4.7209,-3.8562,-6.0302,-0.06634,-2.0101,-3.0514,3.7724,-4.748,2.0813
-5.9701,-0.06734,-3.1333,2.9703,11.586,0.9622,7.1066,-0.06568,8.0135,2.9703,11.586,4.902,-8.5486,-6.7974,-12.06,-6.0365,-9.0452,-8.0265,0.84553,-10.602,-1.8211
-8.9552,-3.0976,-7.1333,3.9604,6.7314,-1.0997,7.1066,-1.0509,10.034,3.9604,6.7314,1.9608,-17.160999,-14.641,-18.09,-12.007,-15.075,-10.017,-2.0813,-18.407,-9.626
-4.9751,-0.06734,-5.1333,6.9307,5.7605,1.9931,7.1066,-1.0509,10.034,6.9307,5.7605,3.9216,-14.29,-13.66,-13.065,-10.017,-12.06,-6.0365,0.84553,-14.504,-9.626
-0.99502,3.9731,-0.13333,3.9604,4.7896,3.0241,6.0914,0.91954,1.9529,3.9604,4.7896,4.902,-7.5917,-9.7386,-4.0201,-5.0415,-4.0201,-3.0514,4.748,-6.6992,-9.626
3.9801,4.9832,2.8667,2.9703,3.8188,0.9622,4.0609,-0.06568,1.9529,2.9703,3.8188,4.902,-0.89314,-2.8758,2.0101,0.92869,2.0101,-4.0464,2.7967,1.1057,-4.748
-0.99502,2.963,0.86667,2.9703,1.877,-3.1615,2.0305,-3.0213,5.9933,2.9703,1.877,1.9608,-1.8501,2.0261,0.0,1.9237,2.0101,-5.0415,1.8211,-2.7967,0.13008
-6.9652,-3.0976,-5.1333,-1.9802,-2.0065,-8.3162,-2.0305,-8.9327,0.94276,-1.9802,-2.0065,-2.9412,-8.5486,-3.8562,-10.05,-4.0464,-7.0352,-9.0216,-3.0569,-11.577,-1.8211
-8.9552,-6.1279,-8.1333,-3.9604,-2.9773,-5.2234,-4.0609,-3.0213,-1.0774,-3.9604,-2.9773,-5.8824,-10.463,-4.8366,-11.055,-6.0365,-11.055,-8.0265,-4.0325,-8.6504,0.13008
-6.9652,-6.1279,-9.1333,-11.881,-2.9773,-5.2234,-4.0609,-3.0213,-2.0875,-11.881,-2.9773,-4.902,-6.6348,-2.8758,-9.0452,-5.0415,-10.05,2.9187,-0.13008,-4.748,4.0325
-1.99,0.94276,-4.1333,-4.9505,-4.9191,-3.1615,1.0152,-3.0213,2.963,-4.9505,-4.9191,-3.9216,0.0638,3.9869,-2.0101,-0.06634,-4.0201,6.8988,4.748,4.0325,7.935
-1.99,2.963,-3.1333,1.9802,-8.8026,-4.1924,0.0,0.91954,-1.0774,1.9802,-8.8026,-3.9216,-0.89314,3.0065,-1.005,1.9237,-2.0101,-1.0614,4.748,4.0325,6.9593
-0.99502,3.9731,-0.13333,-1.9802,-4.9191,-6.2543,0.0,-0.06568,-0.06734,-1.9802,-4.9191,-3.9216,1.0207,2.0261,1.005,2.9187,1.005,-3.0514,2.7967,4.0325,4.0325
1.99,5.9933,3.8667,4.9505,4.7896,-2.1306,3.0457,-1.0509,5.9933,4.9505,4.7896,1.9608,-1.8501,-2.8758,2.0101,2.9187,4.0201,-4.0464,2.7967,-0.84553,0.13008
1.99,4.9832,3.8667,3.9604,5.7605,0.9622,7.1066,0.91954,2.963,3.9604,5.7605,4.902,-5.6778,-7.7778,0.0,-0.06634,3.0151,-5.0415,0.84553,-3.7724,-5.7236
0.0,-0.06734,-0.13333,-0.9901,3.8188,-1.0997,3.0457,-0.06568,1.9529,-0.9901,3.8188,1.9608,-9.5056,-10.719,-3.0151,-4.0464,-1.005,-7.0315,-4.0325,-10.602,-9.626
0.0,-0.06734,-1.1333,2.9703,2.8479,3.0241,4.0609,-2.0361,9.0236,2.9703,2.8479,1.9608,-7.5917,-8.7582,-1.005,-4.0464,-1.005,-6.0365,-1.1057,-9.626,-6.6992
-0.99502,-0.06734,-2.1333,0.9901,0.90615,4.055,4.0609,-0.06568,0.94276,0.9901,0.90615,1.9608,-2.807,-5.817,0.0,-4.0464,-2.0101,-7.0315,-7.935,-2.7967,-2.7967
-3.9801,-1.0774,-5.1333,0.0,-0.06472,-1.0997,-1.0152,-2.0361,-6.1279,0.0,-0.06472,-2.9412,1.0207,0.06536,-1.005,-1.0614,-3.0151,-7.0315,-5.9837,0.13008,4.0325
-6.9652,-3.0976,-8.1333,0.0,-2.0065,-3.1615,-6.0914,-1.0509,-3.0976,0.0,-2.0065,-5.8824,-3.764,0.06536,-5.0251,-2.0564,-6.0302,-7.0315,-0.13008,-3.7724,3.0569
-6.9652,-4.1077,-8.1333,1.9802,-1.0356,-0.06873,-4.0609,4.8604,3.9731,1.9802,-1.0356,-3.9216,-7.5917,-2.8758,-9.0452,-4.0464,-9.0452,-1.0614,4.748,-6.6992,0.13008
-5.9701,-2.0875,-7.1333,0.0,-2.0065,0.9622,0.0,6.8309,5.9933,0.0,-2.0065,-2.9412,-7.5917,-3.8562,-10.05,-5.0415,-11.055,3.9138,8.6504,-4.748,-1.8211
-5.9701,-4.1077,-9.1333,-2.9703,-4.9191,-2.1306,1.0152,3.8752,3.9731,-2.9703,-4.9191,-3.9216,-10.463,-8.7582,-12.06,-8.0265,-14.07,0.92869,8.6504,-5.7236,-1.8211
-4.9751,-6.1279,-10.133,-3.9604,-5.89,-3.1615,-2.0305,-2.0361,-1.0774,-3.9604,-5.89,-6.8627,-11.419,-8.7582,-10.05,-8.0265,-13.065,2.9187,4.748,-6.6992,0.13008
-2.9851,-5.1178,-9.1333,-0.9901,-2.9773,-3.1615,-3.0457,-3.0213,1.9529,-0.9901,-2.9773,-4.902,-7.5917,-4.8366,-7.0352,-5.0415,-8.0402,5.9038,2.7967,-5.7236,2.0813
-3.9801,-1.0774,-6.1333,-10.891,-1.0356,-3.1615,-2.0305,-0.06568,5.9933,-10.891,-1.0356,-3.9216,-0.89314,0.06536,-4.0201,-1.0614,-3.0151,-1.0614,4.748,0.13008,5.0081
-0.99502,4.9832,-0.13333,-3.9604,0.90615,-3.1615,2.0305,0.91954,9.0236,-3.9604,0.90615,0.98039,3.8915,4.9673,1.005,5.9038,3.0151,-3.0514,7.6748,3.0569,10.862
0.99502,7.0034,2.8667,3.9604,2.8479,-1.0997,7.1066,0.91954,11.044,3.9604,2.8479,2.9412,1.9777,4.9673,5.0251,7.8939,7.0352,-2.0564,7.6748,5.9837,9.8862
1.99,3.9731,1.8667,1.9802,0.90615,-2.1306,6.0914,-1.0509,4.9832,1.9802,0.90615,1.9608,2.9346,3.0065,5.0251,4.9088,6.0302,-3.0514,2.7967,5.0081,5.0081
1.99,2.963,1.8667,-0.9901,-1.0356,-1.0997,5.0761,-3.0213,3.9731,-0.9901,-1.0356,1.9608,3.8915,2.0261,3.0151,1.9237,4.0201,-3.0514,2.7967,5.0081,2.0813
0.0,0.94276,0.86667,0.9901,-0.06472,-0.06873,4.0609,-4.9918,3.9731,0.9901,-0.06472,3.9216,-0.89314,-0.91503,-2.0101,-3.0514,-1.005,-5.0415,1.8211,1.1057,2.0813
-0.99502,1.9529,0.86667,0.0,0.90615,5.0859,6.0914,-5.977,4.9832,0.0,0.90615,4.902,-3.764,-3.8562,-4.0201,-5.0415,-4.0201,-4.0464,3.7724,-0.84553,-1.8211
-0.99502,2.963,-0.13333,0.9901,0.90615,0.9622,6.0914,-2.0361,5.9933,0.9901,0.90615,2.9412,-8.5486,-5.817,-5.0251,-6.0365,-6.0302,-2.0564,6.6992,-4.748,-3.7724
-4.9751,-0.06734,-5.1333,-1.9802,-3.9482,-3.1615,2.0305,-2.0361,3.9731,-1.9802,-3.9482,-1.9608,-12.376,-7.7778,-10.05,-7.0315,-10.05,-3.0514,5.7236,-8.6504,-3.7724
-6.9652,0.94276,-5.1333,0.0,-1.0356,-2.1306,1.0152,-4.9918,1.9529,0.0,-1.0356,-2.9412,-8.5486,-4.8366,-9.0452,-3.0514,-8.0402,-8.0265,7.6748,-5.7236,0.13008
-5.9701,5.9933,-1.1333,4.9505,5.7605,-1.0997,5.0761,-3.0213,4.9832,4.9505,5.7605,0.98039,-4.7209,0.06536,-7.0352,2.9187,-3.0151,-10.017,8.6504,-5.7236,5.0081
-7.9602,4.9832,-1.1333,-1.9802,1.877,-3.1615,6.0914,-3.0213,11.044,-1.9802,1.877,0.98039,-6.6348,-1.8954,-10.05,3.9138,-3.0151,-12.007,6.6992,-9.626,3.0569
-8.9552,2.963,-3.1333,-3.9604,-0.06472,-2.1306,4.0609,-2.0361,7.0034,-3.9604,-0.06472,0.0,-6.6348,0.06536,-12.06,2.9187,-4.0201,-11.012,0.84553,-14.504,3.0569
-4.9751,4.9832,0.86667,-4.9505,1.877,0.9622,7.1066,0.91954,2.963,-4.9505,1.877,1.9608,-3.764,3.9869,-7.0352,6.8988,1.005,-4.0464,-0.13008,-10.602,6.9593
1.99,4.9832,2.8667,-3.9604,-1.0356,-0.06873,4.0609,-2.0361,-3.0976,-3.9604,-1.0356,1.9608,1.9777,7.9085,2.0101,8.8889,6.0302,0.92869,0.84553,-0.84553,10.862
4.9751,2.963,3.8667,-2.9703,-6.8608,3.0241,3.0457,-5.977,-4.1077,-2.9703,-6.8608,0.98039,3.8915,6.9281,7.0352,6.8988,7.0352,8.8889,-0.13008,5.9837,7.935
7.9602,4.9832,4.8667,-4.9505,-4.9191,13.333,7.1066,-4.9918,-4.1077,-4.9505,-4.9191,6.8627,3.8915,3.0065,6.0302,1.9237,5.0251,10.879,-3.0569,6.9593,5.0081
8.9552,5.9933,6.8667,-8.9109,2.8479,10.241,8.1218,5.8456,2.963,-8.9109,2.8479,9.8039,3.8915,1.0458,6.0302,-0.06634,4.0201,7.8939,-0.13008,7.935,1.1057
6.9652,4.9832,5.8667,-2.9703,9.644,-0.06873,9.1371,4.8604,11.044,-2.9703,9.644,8.8235,4.8485,-0.91503,5.0251,-3.0514,2.0101,2.9187,0.84553,7.935,-4.748
3.9801,2.963,3.8667,-4.9505,5.7605,-0.06873,10.152,-3.0213,3.9731,-4.9505,5.7605,6.8627,1.9777,-1.8954,2.0101,-4.0464,-1.005,-3.0514,0.84553,4.0325,-5.7236
0.99502,3.9731,1.8667,-6.9307,-4.9191,-4.1924,5.0761,-4.9918,3.9731,-6.9307,-4.9191,2.9412,2.9346,3.0065,1.005,0.92869,0.0,-6.0365,6.6992,-0.84553,1.1057
1.99,7.0034,2.8667,-4.9505,-4.9191,-2.1306,4.0609,-6.9622,13.064,-4.9505,-4.9191,0.0,5.8054,7.9085,2.0101,6.8988,3.0151,-3.0514,13.528,-2.7967,9.8862
2.9851,8.0135,3.8667,0.0,1.877,-1.0997,5.0761,-3.0213,14.074,0.0,1.877,1.9608,3.8915,6.9281,1.005,8.8889,3.0151,0.92869,14.504,-4.748,9.8862
3.9801,7.0034,5.8667,-9.901,1.877,1.9931,4.0609,-1.0509,7.0034,-9.901,1.877,2.9412,3.8915,6.9281,-1.005,8.8889,4.0201,-0.06634,11.577,-6.6992,6.9593
0.0,3.9731,3.8667,-2.9703,2.8479,1.9931,2.0305,-1.0509,5.9933,-2.9703,2.8479,2.9412,3.8915,3.9869,-4.0201,4.9088,2.0101,-1.0614,6.6992,-8.6504,0.13008
-4.9751,-1.0774,-1.1333,8.9109,2.8479,1.9931,3.0457,-0.06568,4.9832,8.9109,2.8479,2.9412,-1.8501,-4.8366,-10.05,-3.0514,-4.0201,-2.0564,2.7967,-13.528,-9.626
-7.9602,-6.1279,-6.1333,7.9208,0.90615,0.9622,1.0152,0.91954,0.94276,7.9208,0.90615,0.98039,-3.764,-12.68,-11.055,-11.012,-9.0452,-4.0464,-4.0325,-10.602,-21.333
-7.9602,-9.1582,-9.1333,4.9505,2.8479,0.9622,-1.0152,-3.0213,-3.0976,4.9505,2.8479,0.0,-12.376,-17.582001,-14.07,-13.997,-10.05,-4.0464,-9.8862,-17.431,-27.187
-5.9701,-11.178,-9.1333,0.9901,-0.06472,1.9931,-5.0761,-2.0361,-8.1481,0.9901,-0.06472,-1.9608,-12.376,-14.641,-11.055,-13.997,-8.0402,-6.0365,-15.74,-17.431,-26.211
-3.9801,-13.199,-9.1333,-0.9901,-4.9191,-1.0997,-9.1371,1.9048,-12.189,-0.9901,-4.9191,-3.9216,-0.89314,-9.7386,-5.0251,-12.007,-5.0251,-5.0415,-19.642,-8.6504,-22.309
-2.9851,-13.199,-9.1333,-2.9703,-7.8317,-2.1306,-11.168,2.89,-12.189,-2.9703,-7.8317,-7.8431,5.8054,-2.8758,1.005,-10.017,-3.0151,0.92869,-18.667,-2.7967,-15.48
-2.9851,-14.209,-11.133,-2.9703,-8.8026,-4.1924,-12.183,1.9048,-12.189,-2.9703,-8.8026,-8.8235,7.7193,-0.91503,3.0151,-9.0216,-3.0151,4.9088,-15.74,4.0325,-8.6504
-5.9701,-12.189,-12.133,-5.9406,-11.715,-6.2543,-12.183,1.9048,-10.168,-5.9406,-11.715,-10.784,5.8054,0.06536,2.0101,-6.0365,-3.0151,2.9187,-7.935,5.0081,-0.84553
-6.9652,-9.1582,-10.133,-6.9307,-9.7735,-7.2852,-10.152,-1.0509,-7.138,-6.9307,-9.7735,-8.8235,4.8485,3.0065,1.005,-2.0564,-3.0151,1.9237,-3.0569,6.9593,8.9106
-7.9602,-5.1178,-9.1333,-6.9307,-6.8608,-6.2543,-7.1066,-4.0066,-5.1178,-6.9307,-6.8608,-5.8824,4.8485,6.9281,0.0,1.9237,-2.0101,0.92869,2.7967,7.935,13.789
-3.9801,-0.06734,-4.1333,-6.9307,-3.9482,-6.2543,-3.0457,-6.9622,1.9529,-6.9307,-3.9482,-2.9412,2.9346,8.8889,1.005,5.9038,1.005,-0.06634,6.6992,6.9593,13.789
0.99502,4.9832,1.8667,-3.9604,-0.06472,-1.0997,3.0457,-7.9475,4.9832,-3.9604,-0.06472,1.9608,0.0638,5.9477,4.0201,7.8939,3.0151,-4.0464,8.6504,6.9593,10.862
5.9701,7.0034,6.8667,-1.9802,1.877,4.055,6.0914,-5.977,3.9731,-1.9802,1.877,6.8627,-3.764,0.06536,4.0201,5.9038,3.0151,-3.0514,7.6748,3.0569,3.0569
8.9552,5.9933,8.8667,0.0,0.90615,6.1168,7.1066,-2.0361,4.9832,0.0,0.90615,8.8235,-4.7209,-6.7974,2.0101,-0.06634,0.0,1.9237,4.748,-0.84553,-5.7236
7.9602,3.9731,8.8667,3.9604,2.8479,5.0859,9.1371,2.89,5.9933,3.9604,2.8479,9.8039,-7.5917,-14.641,0.0,-6.0365,-2.0101,6.8988,0.84553,-2.7967,-14.504
4.9751,2.963,5.8667,3.9604,4.7896,5.0859,9.1371,1.9048,2.963,3.9604,4.7896,8.8235,-10.463,-18.562,-1.005,-10.017,-4.0201,11.874,-0.13008,-4.748,-18.407
5.9701,4.9832,6.8667,2.9703,3.8188,7.1478,8.1218,0.91954,2.963,2.9703,3.8188,7.8431,-7.5917,-16.601,2.0101,-8.0265,-1.005,11.874,-0.13008,-2.7967,-15.48
9.9502,8.0135,8.8667,5.9406,3.8188,11.271,8.1218,1.9048,4.9832,5.9406,3.8188,9.8039,-1.8501,-9.7386,6.0302,-2.0564,4.0201,9.8839,2.7967,1.1057,-6.6992
8.9552,8.0135,7.8667,4.9505,0.90615,7.1478,5.0761,4.8604,0.94276,4.9505,0.90615,5.8824,4.8485,0.06536,9.0452,3.9138,8.0402,7.8939,4.748,5.9837,3.0569
2.9851,2.963,2.8667,0.9901,-3.9482,-1.0997,-1.0152,1.9048,-3.0976,0.9901,-3.9482,0.0,2.9346,6.9281,5.0251,5.9038,7.0352,3.9138,2.7967,0.13008,8.9106
-1.99,-1.0774,-1.1333,-4.9505,-9.7735,-6.2543,-6.0914,-2.0361,-0.06734,-4.9505,-9.7735,-5.8824,1.9777,11.83,2.0101,6.8988,6.0302,-1.0614,2.7967,-4.748,10.862
-2.9851,-4.1077,-3.1333,-5.9406,-9.7735,-7.2852,-7.1066,-2.0361,-3.0976,-5.9406,-9.7735,-7.8431,5.8054,15.752,2.0101,5.9038,6.0302,-2.0564,1.8211,-3.7724,8.9106
-2.9851,-5.1178,-3.1333,-8.9109,-9.7735,-9.3471,-10.152,-3.0213,-9.1582,-8.9109,-9.7735,-10.784,5.8054,10.85,3.0151,2.9187,4.0201,0.92869,-2.0813,1.1057,5.0081
-0.99502,-2.0875,-2.1333,-6.9307,-3.9482,-8.3162,-9.1371,-4.9918,-1.0774,-6.9307,-3.9482,-7.8431,0.0638,3.0065,1.005,0.92869,2.0101,1.9237,-1.1057,3.0569,3.0569
4.9751,7.0034,4.8667,-5.9406,0.90615,-0.06873,1.0152,-3.0213,2.963,-5.9406,0.90615,0.0,-0.89314,3.0065,5.0251,5.9038,5.0251,4.9088,6.6992,6.9593,5.0081
10.945,13.064,10.867,-2.9703,2.8479,7.1478,7.1066,-0.06568,7.0034,-2.9703,2.8479,7.8431,1.0207,3.0065,8.0402,9.8839,9.0452,8.8889,11.577,8.9106,5.0081
12.935,13.064,13.867,-5.9406,-1.0356,11.271,9.1371,7.8161,11.044,-5.9406,-1.0356,10.784,-1.8501,0.06536,8.0402,7.8939,10.05,8.8889,12.553,5.0081,2.0813
13.93,10.034,12.867,1.9802,-2.0065,10.241,7.1066,2.89,10.034,1.9802,-2.0065,8.8235,-0.89314,-0.91503,9.0452,6.8988,10.05,10.879,12.553,4.0325,2.0813
10.945,5.9933,9.8667,6.9307,0.90615,6.1168,5.0761,-4.0066,3.9731,6.9307,0.90615,5.8824,1.0207,-0.91503,9.0452,3.9138,8.0402,6.8988,8.6504,4.0325,1.1057
10.945,4.9832,9.8667,5.9406,2.8479,5.0859,4.0609,-0.06568,-0.06734,5.9406,2.8479,7.8431,1.9777,-2.8758,8.0402,0.92869,6.0302,1.9237,5.7236,1.1057,-0.84553
10.945,5.9933,8.8667,6.9307,1.877,8.1787,3.0457,4.8604,-0.06734,6.9307,1.877,7.8431,1.9777,-4.8366,6.0302,-2.0564,3.0151,3.9138,5.7236,-0.84553,-4.748
10.945,8.0135,8.8667,6.9307,2.8479,10.241,3.0457,1.9048,1.9529,6.9307,2.8479,8.8235,3.8915,0.06536,9.0452,1.9237,5.0251,8.8889,6.6992,5.9837,-0.84553
12.935,10.034,10.867,6.9307,0.90615,9.2096,5.0761,2.89,3.9731,6.9307,0.90615,8.8235,6.7624,5.9477,11.055,5.9038,9.0452,10.879,6.6992,11.837,1.1057
12.935,9.0236,11.867,6.9307,3.8188,8.1787,7.1066,6.8309,5.9933,6.9307,3.8188,8.8235,8.6762,11.83,13.065,8.8889,13.065,10.879,8.6504,13.789,5.9837
12.935,5.9933,9.8667,12.871,9.644,8.1787,6.0914,8.8013,9.0236,12.871,9.644,7.8431,7.7193,12.81,12.06,8.8889,12.06,10.879,9.626,10.862,11.837
12.935,4.9832,9.8667,18.812,17.410999,9.2096,6.0914,11.757,11.044,18.812,17.410999,6.8627,10.59,16.732,13.065,10.879,14.07,13.864,11.577,10.862,16.715
18.905001,12.054,13.867,29.702999,28.091,15.395,13.198,16.683001,20.135,29.702999,28.091,12.745,16.332001,24.575001,18.09,19.834,20.101,17.844,19.382,13.789,25.496
24.875999,20.135,21.867001,35.644001,34.887001,23.643,18.274,21.608999,28.215,35.644001,34.887001,17.646999,23.987,30.458,26.131001,28.789,28.141001,24.809,25.236,21.593,33.300999
25.871,22.155001,21.867001,36.633999,37.799,23.643,19.289,22.594,24.174999,36.633999,37.799,19.608,24.944,27.516001,26.131001,28.789,28.141001,23.813999,27.187,24.52,32.325001
20.896,18.114,17.867001,31.683001,31.003,22.612,17.259001,21.608999,22.155001,31.683001,31.003,16.667,17.289,19.673,21.106001,22.819,22.111,19.834,22.309,21.593,22.569
16.915001,14.074,13.867,34.653,28.091,22.612,12.183,23.58,22.155001,34.653,28.091,13.725,13.461,12.81,15.075,15.854,16.08,20.829,14.504,15.74,13.789
14.925,12.054,11.867,34.653,31.974001,24.674,12.183,26.535,20.135,34.653,31.974001,14.706,9.6332,6.9281,12.06,8.8889,11.055,24.809,12.553,14.764,7.935
4.9751,3.9731,3.8667,31.683001,31.003,14.364,10.152,20.624001,23.165001,31.683001,31.003,10.784,-4.7209,-6.7974,2.0101,-3.0514,0.0,13.864,3.7724,5.9837,-6.6992
-0.99502,-1.0774,-0.13333,28.712999,27.120001,9.2096,10.152,12.742,24.174999,28.712999,27.120001,8.8235,-9.5056,-12.68,-4.0201,-10.017,-7.0352,8.8889,0.84553,2.0813,-11.577
-0.99502,-2.0875,-1.1333,16.832001,20.323999,7.1478,6.0914,4.8604,11.044,16.832001,20.323999,6.8627,-5.6778,-8.7582,-5.0251,-9.0216,-8.0402,7.8939,3.7724,2.0813,-7.6748
0.99502,-0.06734,-0.13333,10.891,17.410999,8.1787,2.0305,9.7865,2.963,10.891,17.410999,3.9216,3.8915,1.0458,1.005,-2.0564,-2.0101,7.8939,5.7236,4.0325,0.13008
5.9701,1.9529,1.8667,16.832001,17.410999,10.241,1.0152,9.7865,1.9529,16.832001,17.410999,3.9216,13.461,9.8693,9.0452,5.9038,6.0302,14.859,-0.13008,9.8862,8.9106
6.9652,0.94276,1.8667,16.832001,12.557,8.1787,-4.0609,6.8309,3.9731,16.832001,12.557,0.0,21.115999,18.693001,13.065,10.879,11.055,12.869,-3.0569,16.715,14.764
5.9701,-0.06734,1.8667,12.871,7.7023,1.9931,-6.0914,8.8013,0.94276,12.871,7.7023,-2.9412,23.030001,23.594999,15.075,13.864,14.07,12.869,-3.0569,18.667,16.715
9.9502,2.963,5.8667,12.871,7.7023,3.0241,-2.0305,8.8013,2.963,12.871,7.7023,0.98039,22.073,20.653999,14.07,15.854,14.07,15.854,1.8211,19.642,16.715
14.925,4.9832,11.867,12.871,7.7023,9.2096,1.0152,14.713,3.9731,12.871,7.7023,5.8824,25.900999,20.653999,18.09,16.849001,17.084999,17.844,3.7724,23.545,18.667
17.91,5.9933,13.867,14.851,7.7023,9.2096,1.0152,13.727,-0.06734,14.851,7.7023,6.8627,23.987,21.634001,19.094999,17.844,18.09,18.839001,4.748,21.593,22.569
17.91,8.0135,14.867,8.9109,2.8479,7.1478,0.0,12.742,-0.06734,8.9109,2.8479,4.902,23.030001,23.594999,20.101,18.839001,20.101,22.819,5.7236,21.593,24.52
14.925,10.034,13.867,5.9406,0.90615,7.1478,1.0152,8.8013,0.94276,5.9406,0.90615,4.902,25.900999,23.594999,16.08,17.844,17.084999,22.819,8.6504,18.667,20.618
12.935,11.044,12.867,8.9109,3.8188,13.333,3.0457,-2.0361,-0.06734,8.9109,3.8188,7.8431,27.815001,22.614,14.07,13.864,14.07,13.864,10.602,22.569,13.789
10.945,10.034,11.867,7.9208,5.7605,10.241,3.0457,4.8604,-0.06734,7.9208,5.7605,10.784,24.944,13.791,10.05,6.8988,8.0402,10.879,7.6748,20.618,4.0325
6.9652,5.9933,7.8667,3.9604,5.7605,9.2096,4.0609,12.742,5.9933,3.9604,5.7605,11.765,13.461,2.0261,4.0201,-4.0464,0.0,9.8839,1.8211,13.789,-4.748
8.9552,3.9731,8.8667,5.9406,8.6731,14.364,6.0914,9.7865,10.034,5.9406,8.6731,13.725,1.9777,-3.8562,1.005,-6.0365,-3.0151,13.864,0.84553,5.9837,-5.7236
10.945,4.9832,10.867,0.0,7.7023,15.395,8.1218,7.8161,-0.06734,0.0,7.7023,14.706,2.9346,0.06536,4.0201,-2.0564,1.005,15.854,-4.0325,5.0081,-0.84553
12.935,9.0236,12.867,8.9109,5.7605,13.333,8.1218,10.772,-2.0875,8.9109,5.7605,15.686,9.6332,5.9477,10.05,5.9038,7.0352,11.874,-5.9837,8.9106,4.0325
10.945,11.044,11.867,13.861,3.8188,9.2096,8.1218,9.7865,0.94276,13.861,3.8188,12.745,13.461,12.81,12.06,10.879,10.05,8.8889,1.8211,10.862,8.9106
4.9751,7.0034,5.8667,7.9208,2.8479,1.9931,2.0305,3.8752,0.94276,7.9208,2.8479,6.8627,5.8054,9.8693,6.0302,9.8839,7.0352,0.92869,8.6504,5.0081,9.8862
2.9851,7.0034,4.8667,0.9901,-1.0356,0.9622,1.0152,0.91954,-1.0774,0.9901,-1.0356,2.9412,7.7193,13.791,5.0251,13.864,8.0402,-0.06634,10.602,5.0081,16.715
4.9751,7.0034,4.8667,1.9802,-2.9773,-0.06873,1.0152,-3.0213,-1.0774,1.9802,-2.9773,0.98039,12.504,19.673,11.055,16.849001,13.065,3.9138,10.602,10.862,21.593
2.9851,1.9529,0.86667,2.9703,-2.9773,-4.1924,-2.0305,-8.9327,-2.0875,2.9703,-2.9773,-2.9412,13.461,18.693001,11.055,14.859,12.06,5.9038,4.748,12.813,18.667
0.0,-1.0774,-2.1333,-5.9406,-2.9773,-9.3471,-7.1066,-7.9475,-3.0976,-5.9406,-2.9773,-7.8431,15.375,17.712,9.0452,11.874,10.05,2.9187,3.7724,12.813,16.715
-1.99,-2.0875,-4.1333,-8.9109,-3.9482,-10.378,-8.1218,-3.0213,-2.0875,-8.9109,-3.9482,-6.8627,10.59,8.8889,4.0201,6.8988,4.0201,1.9237,2.7967,7.935,10.862
0.99502,0.94276,-1.1333,-3.9604,-5.89,-5.2234,-5.0761,-0.06568,-4.1077,-3.9604,-5.89,-5.8824,9.6332,6.9281,7.0352,5.9038,5.0251,1.9237,3.7724,11.837,6.9593
4.9751,-0.06734,-1.1333,-3.9604,-6.8608,-3.1615,-6.0914,-1.0509,-4.1077,-3.9604,-6.8608,-4.902,11.547,4.9673,8.0402,4.9088,4.0201,1.9237,1.8211,16.715,4.0325
0.0,-3.0976,-5.1333,-1.9802,-6.8608,-7.2852,-8.1218,-1.0509,-6.1279,-1.9802,-6.8608,-7.8431,5.8054,3.0065,4.0201,0.92869,0.0,3.9138,0.84553,14.764,2.0813
0.99502,-3.0976,-6.1333,-1.9802,-2.9773,-5.2234,-5.0761,-0.06568,-5.1178,-1.9802,-2.9773,-4.902,4.8485,2.0261,3.0151,-0.06634,-2.0101,8.8889,1.8211,13.789,2.0813
3.9801,-4.1077,-4.1333,0.0,0.90615,0.9622,-5.0761,0.91954,-3.0976,0.0,0.90615,-3.9216,7.7193,3.9869,8.0402,-0.06634,-1.005,13.864,1.8211,19.642,2.0813
3.9801,-5.1178,-5.1333,0.9901,-4.9191,-0.06873,-7.1066,-0.06568,-7.138,0.9901,-4.9191,-4.902,7.7193,5.9477,9.0452,0.92869,0.0,11.874,1.8211,19.642,2.0813
2.9851,-3.0976,-5.1333,-2.9703,-9.7735,-4.1924,-7.1066,0.91954,-7.138,-2.9703,-9.7735,-6.8627,7.7193,12.81,10.05,4.9088,4.0201,6.8988,2.7967,15.74,4.0325
0.99502,-3.0976,-5.1333,-4.9505,-11.715,-8.3162,-10.152,-2.0361,-8.1481,-4.9505,-11.715,-9.8039,11.547,14.771,9.0452,7.8939,7.0352,0.92869,2.7967,8.9106,6.9593
0.99502,-1.0774,-3.1333,-4.9505,-7.8317,-7.2852,-10.152,-8.9327,-5.1178,-4.9505,-7.8317,-8.8235,15.375,16.732,11.055,10.879,11.055,-3.0514,1.8211,11.837,8.9106
5.9701,4.9832,2.8667,0.0,-3.9482,0.9622,-3.0457,-6.9622,1.9529,0.0,-3.9482,-2.9412,19.202999,19.673,17.084999,15.854,16.08,-0.06634,-2.0813,17.691,12.813
9.9502,8.0135,5.8667,-0.9901,-2.0065,1.9931,1.0152,2.89,3.9731,-0.9901,-2.0065,0.0,21.115999,22.614,22.111,19.834,20.101,7.8939,2.7967,22.569,18.667
7.9602,4.9832,2.8667,-1.9802,-3.9482,-3.1615,-2.0305,3.8752,2.963,-1.9802,-3.9482,-2.9412,17.289,18.693001,19.094999,16.849001,17.084999,12.869,5.7236,21.593,17.691
1.99,-3.0976,-3.1333,-4.9505,-7.8317,-7.2852,-8.1218,-0.06568,-4.1077,-4.9505,-7.8317,-9.8039,9.6332,10.85,11.055,8.8889,10.05,6.8988,-0.13008,15.74,9.8862
-0.99502,-4.1077,-6.1333,-4.9505,-7.8317,-8.3162,-7.1066,-1.0509,-7.138,-4.9505,-7.8317,-9.8039,6.7624,4.9673,7.0352,3.9138,5.0251,0.92869,2.7967,11.837,6.9593
-3.9801,-4.1077,-7.1333,-0.9901,-6.8608,-6.2543,-4.0609,-2.0361,-3.0976,-0.9901,-6.8608,-5.8824,1.9777,-0.91503,1.005,-0.06634,0.0,-1.0614,-0.13008,1.1057,1.1057
-6.9652,-5.1178,-8.1333,-3.9604,-3.9482,-6.2543,-5.0761,-5.977,-3.0976,-3.9604,-3.9482,-5.8824,1.9777,0.06536,-1.005,-2.0564,-2.0101,-2.0564,-1.1057,-0.84553,-2.7967
-6.9652,-5.1178,-8.1333,-3.9604,-2.0065,-7.2852,-5.0761,-7.9475,-0.06734,-3.9604,-2.0065,-5.8824,5.8054,3.0065,-1.005,-1.0614,-1.005,-5.0415,-1.1057,1.1057,-1.8211
-3.9801,-3.0976,-6.1333,-2.9703,-4.9191,-5.2234,-2.0305,-4.0066,4.9832,-2.9703,-4.9191,-4.902,7.7193,8.8889,3.0151,2.9187,2.0101,-6.0365,1.8211,4.0325,2.0813
-1.99,-2.0875,-4.1333,-10.891,-6.8608,-2.1306,0.0,-3.0213,-0.06734,-10.891,-6.8608,-2.9412,6.7624,7.9085,3.0151,4.9088,3.0151,-7.0315,3.7724,5.9837,1.1057
2.9851,2.963,0.86667,-8.9109,-6.8608,4.055,5.0761,-5.977,3.9731,-8.9109,-6.8608,0.98039,8.6762,10.85,8.0402,8.8889,8.0402,0.92869,6.6992,11.837,4.0325
3.9801,4.9832,1.8667,0.9901,-4.9191,1.9931,7.1066,-2.0361,3.9731,0.9901,-4.9191,0.98039,15.375,12.81,12.06,10.879,10.05,5.9038,6.6992,19.642,5.9837
1.99,1.9529,-0.13333,-1.9802,-4.9191,-3.1615,1.0152,-0.06568,-0.06734,-1.9802,-4.9191,-3.9216,13.461,13.791,11.055,10.879,10.05,3.9138,3.7724,14.764,6.9593
2.9851,2.963,-0.13333,-5.9406,-6.8608,-6.2543,-1.0152,0.91954,-1.0774,-5.9406,-6.8608,-3.9216,8.6762,10.85,12.06,10.879,10.05,4.9088,2.7967,8.9106,7.935
6.9652,10.034,4.8667,-6.9307,-7.8317,-3.1615,5.0761,0.91954,-0.06734,-6.9307,-7.8317,-0.98039,10.59,10.85,15.075,13.864,13.065,7.8939,2.7967,10.862,11.837
7.9602,13.064,7.8667,-5.9406,-6.8608,-1.0997,10.152,-1.0509,4.9832,-5.9406,-6.8608,3.9216,13.461,12.81,14.07,16.849001,14.07,3.9138,7.6748,11.837,16.715
5.9701,12.054,7.8667,-2.9703,-2.9773,3.0241,12.183,-3.0213,10.034,-2.9703,-2.9773,6.8627,10.59,10.85,10.05,13.864,11.055,-1.0614,12.553,8.9106,14.764
4.9751,10.034,7.8667,0.0,0.90615,5.0859,13.198,-7.9475,1.9529,0.0,0.90615,7.8431,6.7624,6.9281,7.0352,8.8889,8.0402,-3.0514,9.626,7.935,9.8862
4.9751,9.0236,6.8667,2.9703,1.877,3.0241,11.168,-4.0066,-1.0774,2.9703,1.877,7.8431,4.8485,4.9673,6.0302,7.8939,6.0302,-5.0415,6.6992,5.9837,7.935
4.9751,7.0034,4.8667,2.9703,1.877,1.9931,8.1218,3.8752,2.963,2.9703,1.877,6.8627,2.9346,3.0065,7.0352,6.8988,6.0302,-5.0415,6.6992,5.0081,5.9837
5.9701,7.0034,5.8667,0.9901,0.90615,3.0241,8.1218,-1.0509,4.9832,0.9901,0.90615,5.8824,6.7624,6.9281,9.0452,8.8889,8.0402,-4.0464,0.84553,5.0081,5.9837
6.9652,5.9933,5.8667,1.9802,-2.0065,7.1478,7.1066,-3.0213,7.0034,1.9802,-2.0065,6.8627,10.59,10.85,11.055,9.8839,10.05,4.9088,4.748,8.9106,7.935
4.9751,1.9529,2.8667,0.0,-3.9482,1.9931,6.0914,-2.0361,3.9731,0.0,-3.9482,4.902,8.6762,9.8693,8.0402,6.8988,7.0352,6.8988,7.6748,8.9106,8.9106
3.9801,0.94276,1.8667,-5.9406,-3.9482,-4.1924,4.0609,-0.06568,0.94276,-5.9406,-3.9482,0.98039,6.7624,9.8693,7.0352,5.9038,6.0302,4.9088,4.748,9.8862,7.935
4.9751,0.94276,1.8667,-6.9307,-4.9191,-6.2543,2.0305,-4.0066,-3.0976,-6.9307,-4.9191,0.0,6.7624,8.8889,7.0352,5.9038,7.0352,5.9038,1.8211,8.9106,5.9837
7.9602,3.9731,5.8667,-8.9109,-6.8608,-0.06873,1.0152,-4.9918,-8.1481,-8.9109,-6.8608,0.98039,7.7193,8.8889,11.055,8.8889,11.055,7.8939,1.8211,10.862,5.9837
12.935,7.0034,8.8667,0.0,-7.8317,7.1478,2.0305,-4.0066,-4.1077,0.0,-7.8317,4.902,7.7193,8.8889,13.065,10.879,12.06,13.864,4.748,12.813,5.9837
9.9502,9.0236,8.8667,-0.9901,-8.8026,7.1478,4.0609,0.91954,-4.1077,-0.9901,-8.8026,5.8824,9.6332,7.9085,12.06,8.8889,10.05,14.859,2.7967,13.789,5.0081
7.9602,8.0135,8.8667,0.0,-2.9773,5.0859,5.0761,4.8604,0.94276,0.0,-2.9773,7.8431,11.547,6.9281,9.0452,7.8939,8.0402,8.8889,2.7967,11.837,5.9837
-0.99502,0.94276,1.8667,-0.9901,-0.06472,-3.1615,2.0305,-0.06568,-2.0875,-0.9901,-0.06472,1.9608,1.0207,-0.91503,0.0,-0.06634,0.0,-0.06634,-0.13008,0.13008,-0.84553
-4.9751,-2.0875,-4.1333,-6.9307,-3.9482,-12.44,-3.0457,-4.9918,-5.1178,-6.9307,-3.9482,-4.902,-6.6348,-7.7778,-6.0302,-4.0464,-6.0302,-7.0315,-1.1057,-8.6504,-6.6992
-6.9652,-4.1077,-6.1333,-11.881,-7.8317,-14.502,-6.0914,-9.9179,-5.1178,-11.881,-7.8317,-9.8039,-7.5917,-9.7386,-6.0302,-6.0365,-7.0352,-7.0315,0.84553,-7.6748,-7.6748
-9.9502,-7.138,-9.1333,-13.861,-13.657,-15.533,-9.1371,-11.888,-6.1279,-13.861,-13.657,-11.765,-9.5056,-11.699,-10.05,-10.017,-11.055,-7.0315,-3.0569,-8.6504,-11.577
-4.9751,-4.1077,-4.1333,-11.881,-11.715,-6.2543,-5.0761,-6.9622,-8.1481,-11.881,-11.715,-5.8824,-3.764,-5.817,-6.0302,-6.0365,-7.0352,-0.06634,-3.0569,-2.7967,-7.6748
-0.99502,-0.06734,0.86667,-8.9109,-7.8317,-4.1924,-3.0457,-3.0213,-7.138,-8.9109,-7.8317,0.0,0.0638,-1.8954,-2.0101,-1.0614,-3.0151,4.9088,-1.1057,0.13008,-3.7724
-2.9851,-4.1077,-3.1333,-12.871,-13.657,-8.3162,-7.1066,-4.9918,-10.168,-12.871,-13.657,-4.902,-5.6778,-6.7974,-3.0151,-3.0514,-4.0201,0.92869,-5.0081,-4.748,-7.6748
-0.99502,-2.0875,-1.1333,-11.881,-12.686,-9.3471,-7.1066,-4.9918,-9.1582,-11.881,-12.686,-5.8824,-7.5917,-6.7974,-1.005,-3.0514,-2.0101,-2.0564,-5.9837,-3.7724,-8.6504
0.99502,2.963,2.8667,-9.901,-10.744,-8.3162,-3.0457,-7.9475,-6.1279,-9.901,-10.744,-3.9216,-3.764,-2.8758,2.0101,0.92869,2.0101,-5.0415,0.84553,0.13008,-4.748
-2.9851,-0.06734,0.86667,-11.881,-14.628,-8.3162,-5.0761,-9.9179,-5.1178,-11.881,-14.628,-6.8627,-3.764,-1.8954,-1.005,-0.06634,0.0,-9.0216,-0.13008,-2.7967,-2.7967
-5.9701,-5.1178,-4.1333,-12.871,-16.57,-8.3162,-6.0914,-9.9179,-6.1279,-12.871,-16.57,-6.8627,-3.764,-1.8954,-6.0302,-3.0514,-5.0251,-10.017,-5.0081,-7.6748,0.13008
-7.9602,-5.1178,-4.1333,-11.881,-12.686,-8.3162,-3.0457,-7.9475,-6.1279,-11.881,-12.686,-3.9216,-6.6348,-4.8366,-8.0402,-6.0365,-8.0402,-12.007,-4.0325,-8.6504,-2.7967
-6.9652,-3.0976,-3.1333,-9.901,-8.8026,-8.3162,-1.0152,-10.903,-3.0976,-9.901,-8.8026,-0.98039,-8.5486,-6.7974,-9.0452,-6.0365,-8.0402,-13.997,-0.13008,-8.6504,-3.7724
-4.9751,-0.06734,-0.13333,-4.9505,-7.8317,-4.1924,0.0,-11.888,-5.1178,-4.9505,-7.8317,-0.98039,-2.807,-2.8758,-3.0151,-3.0514,-4.0201,-10.017,3.7724,-3.7724,-2.7967
-1.99,-0.06734,-1.1333,-9.901,-6.8608,-6.2543,-1.0152,-9.9179,-1.0774,-9.901,-6.8608,-2.9412,1.9777,-2.8758,-1.005,-3.0514,-2.0101,-9.0216,-4.0325,-0.84553,-4.748
-0.99502,-0.06734,-0.13333,-18.812,-9.7735,-7.2852,0.0,-4.0066,4.9832,-18.812,-9.7735,-3.9216,-0.89314,-3.8562,-1.005,-4.0464,-2.0101,-7.0315,-5.0081,-2.7967,-7.6748
0.99502,1.9529,1.8667,-18.812,-9.7735,-7.2852,1.0152,-4.0066,1.9529,-18.812,-9.7735,-2.9412,-4.7209,-7.7778,-2.0101,-4.0464,-3.0151,-6.0365,-3.0569,-2.7967,-10.602
2.9851,0.94276,2.8667,-10.891,-9.7735,-6.2543,-3.0457,-4.9918,-2.0875,-10.891,-9.7735,-4.902,-2.807,-6.7974,-2.0101,-6.0365,-4.0201,-4.0464,-3.0569,-3.7724,-11.577
0.99502,-1.0774,0.86667,-5.9406,-14.628,-6.2543,-6.0914,-9.9179,-4.1077,-5.9406,-14.628,-5.8824,-4.7209,-6.7974,-5.0251,-6.0365,-6.0302,-5.0415,-5.0081,-12.553,-12.553
-1.99,-0.06734,-0.13333,-8.9109,-15.599,-4.1924,-6.0914,-5.977,-7.138,-8.9109,-15.599,-4.902,-4.7209,-3.8562,-7.0352,-5.0415,-5.0251,-7.0315,-5.0081,-15.48,-12.553
-1.99,1.9529,1.8667,-8.9109,-10.744,-3.1615,-5.0761,-0.06568,-4.1077,-8.9109,-10.744,-2.9412,4.8485,1.0458,-5.0251,-2.0564,-2.0101,-5.0415,-1.1057,-9.626,-8.6504
-3.9801,0.94276,-0.13333,-8.9109,-11.715,-5.2234,-2.0305,-1.0509,-4.1077,-8.9109,-11.715,-2.9412,6.7624,0.06536,-6.0302,-3.0514,-3.0151,-3.0514,-5.0081,-5.7236,-10.602
-2.9851,1.9529,0.86667,-6.9307,-7.8317,-4.1924,-1.0152,-4.9918,-1.0774,-6.9307,-7.8317,-1.9608,5.8054,1.0458,-3.0151,-1.0614,-1.005,-4.0464,-4.0325,-2.7967,-7.6748
-3.9801,0.94276,-1.1333,-5.9406,-7.8317,-5.2234,-2.0305,-13.859,0.94276,-5.9406,-7.8317,-2.9412,3.8915,2.0261,-3.0151,1.9237,-1.005,-10.017,0.84553,-0.84553,0.13008
-1.99,3.9731,1.8667,-9.901,-10.744,-8.3162,-3.0457,-11.888,0.94276,-9.901,-10.744,-4.902,5.8054,6.9281,2.0101,6.8988,4.0201,-9.0216,5.7236,1.1057,8.9106
1.99,5.9933,4.8667,-7.9208,-9.7735,-9.3471,-2.0305,-8.9327,-5.1178,-7.9208,-9.7735,-3.9216,10.59,11.83,7.0352,10.879,8.0402,-8.0265,6.6992,3.0569,14.764
0.99502,5.9933,5.8667,-9.901,-11.715,-9.3471,-3.0457,-9.9179,-7.138,-9.901,-11.715,-5.8824,12.504,10.85,9.0452,10.879,10.05,-8.0265,5.7236,5.9837,11.837
6.9652,5.9933,8.8667,-12.871,-9.7735,-4.1924,-3.0457,-6.9622,-4.1077,-12.871,-9.7735,-0.98039,10.59,6.9281,10.05,9.8839,11.055,0.92869,1.8211,5.9837,7.935
9.9502,5.9933,9.8667,-7.9208,-5.89,3.0241,0.0,-2.0361,-0.06734,-7.9208,-5.89,1.9608,4.8485,2.0261,11.055,5.9038,10.05,3.9138,-2.0813,4.0325,2.0813
8.9552,4.9832,8.8667,0.0,-2.9773,8.1787,2.0305,-0.06568,1.9529,0.0,-2.9773,4.902,-1.8501,-4.8366,4.0201,-0.06634,4.0201,-0.06634,-3.0569,0.13008,-2.7967
4.9751,5.9933,6.8667,-0.9901,-1.0356,7.1478,4.0609,-2.0361,0.94276,-0.9901,-1.0356,3.9216,-1.8501,-2.8758,0.0,-1.0614,2.0101,-1.0614,0.84553,-0.84553,-2.7967
1.99,4.9832,4.8667,-5.9406,-6.8608,-3.1615,-1.0152,-1.0509,-3.0976,-5.9406,-6.8608,-3.9216,-1.8501,-0.91503,-1.005,-0.06634,1.005,0.92869,0.84553,0.13008,-1.8211
4.9751,4.9832,5.8667,-8.9109,-9.7735,-7.2852,-5.0761,1.9048,-1.0774,-8.9109,-9.7735,-6.8627,-0.89314,0.06536,3.0151,1.9237,3.0151,6.8988,3.7724,3.0569,2.0813
7.9602,8.0135,9.8667,-6.9307,-8.8026,-6.2543,-3.0457,-3.0213,-0.06734,-6.9307,-8.8026,-3.9216,2.9346,2.0261,6.0302,5.9038,7.0352,5.9038,1.8211,4.0325,4.0325
8.9552,10.034,11.867,-6.9307,-6.8608,-0.06873,1.0152,0.91954,2.963,-6.9307,-6.8608,0.0,4.8485,3.0065,7.0352,7.8939,10.05,2.9187,4.748,5.0081,5.0081
10.945,10.034,13.867,-0.9901,-6.8608,6.1168,4.0609,2.89,1.9529,-0.9901,-6.8608,5.8824,7.7193,5.9477,10.05,8.8889,12.06,4.9088,4.748,8.9106,5.9837
7.9602,5.9933,10.867,-2.9703,-7.8317,6.1168,1.0152,0.91954,-0.06734,-2.9703,-7.8317,4.902,4.8485,3.9869,8.0402,5.9038,9.0452,4.9088,-2.0813,6.9593,2.0813
0.0,-0.06734,4.8667,-11.881,-12.686,-1.0997,-6.0914,-2.0361,-7.138,-11.881,-12.686,-1.9608,1.9777,-0.91503,4.0201,-0.06634,3.0151,1.9237,-4.0325,5.9837,-3.7724
-4.9751,-4.1077,-1.1333,-10.891,-13.657,-4.1924,-9.1371,-6.9622,-9.1582,-10.891,-13.657,-5.8824,4.8485,1.0458,2.0101,-3.0514,0.0,-0.06634,-5.0081,5.0081,-1.8211
-11.94,-9.1582,-8.1333,-11.881,-9.7735,-9.3471,-10.152,-6.9622,-8.1481,-11.881,-9.7735,-9.8039,-2.807,-0.91503,-4.0201,-7.0315,-6.0302,-4.0464,-6.9593,-3.7724,-2.7967
-13.93,-10.168,-11.133,-11.881,-9.7735,-12.44,-10.152,-6.9622,-7.138,-11.881,-9.7735,-11.765,-4.7209,-2.8758,-9.0452,-9.0216,-9.0452,-10.017,-10.862,-8.6504,-0.84553
-11.94,-5.1178,-7.1333,-10.891,-11.715,-11.409,-6.0914,-9.9179,-4.1077,-10.891,-11.715,-10.784,-2.807,0.06536,-8.0402,-6.0365,-6.0302,-12.007,-5.0081,-4.748,0.13008
-8.9552,-3.0976,-4.1333,-18.812,-9.7735,-10.378,-3.0457,-8.9327,-1.0774,-18.812,-9.7735,-7.8431,-2.807,-2.8758,-8.0402,-5.0415,-6.0302,-11.012,-0.13008,-5.7236,-0.84553
-4.9751,0.94276,-0.13333,-8.9109,-4.9191,-1.0997,1.0152,-4.0066,0.94276,-8.9109,-4.9191,-1.9608,-5.6778,-4.8366,-6.0302,-3.0514,-4.0201,-9.0216,-0.13008,-4.748,1.1057
3.9801,8.0135,7.8667,5.9406,-1.0356,10.241,6.0914,-0.06568,9.0236,5.9406,-1.0356,9.8039,-5.6778,-4.8366,-1.005,0.92869,0.0,-4.0464,4.748,-0.84553,3.0569
7.9602,11.044,12.867,7.9208,4.7896,14.364,11.168,-1.0509,8.0135,7.9208,4.7896,15.686,-2.807,-2.8758,4.0201,2.9187,4.0201,-0.06634,5.7236,3.0569,1.1057
8.9552,12.054,13.867,6.9307,5.7605,11.271,13.198,-0.06568,5.9933,6.9307,5.7605,16.667,-2.807,-2.8758,5.0251,3.9138,6.0302,1.9237,6.6992,1.1057,3.0569
8.9552,13.064,13.867,2.9703,1.877,8.1787,10.152,-2.0361,4.9832,2.9703,1.877,10.784,-0.89314,2.0261,7.0352,6.8988,9.0452,3.9138,9.626,1.1057,5.9837
8.9552,11.044,11.867,0.0,-2.0065,3.0241,4.0609,-0.06568,2.963,0.0,-2.0065,3.9216,1.9777,5.9477,7.0352,8.8889,10.05,2.9187,6.6992,4.0325,8.9106
4.9751,8.0135,7.8667,-6.9307,-8.8026,-4.1924,-3.0457,0.91954,0.94276,-6.9307,-8.8026,-4.902,1.0207,6.9281,4.0201,8.8889,9.0452,1.9237,1.8211,3.0569,10.862
3.9801,7.0034,4.8667,-8.9109,-10.744,-7.2852,-5.0761,-2.0361,-0.06734,-8.9109,-10.744,-8.8235,1.9777,8.8889,4.0201,9.8839,8.0402,0.92869,1.8211,1.1057,12.813
0.99502,5.9933,3.8667,-8.9109,-11.715,-5.2234,-4.0609,-3.0213,-1.0774,-8.9109,-11.715,-8.8235,3.8915,10.85,6.0302,9.8839,9.0452,0.92869,6.6992,5.0081,14.764
-4.9751,-0.06734,-2.1333,-9.901,-11.715,-8.3162,-6.0914,-6.9622,-3.0976,-9.901,-11.715,-9.8039,0.0638,4.9673,0.0,3.9138,2.0101,-1.0614,4.748,2.0813,12.813
-7.9602,-6.1279,-6.1333,-7.9208,-6.8608,-7.2852,-9.1371,-7.9475,-5.1178,-7.9208,-6.8608,-11.765,-5.6778,-2.8758,-6.0302,-3.0514,-4.0201,-3.0514,-2.0813,-2.7967,6.9593
-6.9652,-5.1178,-4.1333,-8.9109,-5.89,-6.2543,-6.0914,-5.977,-2.0875,-8.9109,-5.89,-7.8431,-7.5917,-4.8366,-7.0352,-4.0464,-4.0201,-6.0365,0.84553,-3.7724,2.0813
-8.9552,-5.1178,-5.1333,-12.871,-10.744,-10.378,-5.0761,-10.903,0.94276,-12.871,-10.744,-8.8235,-9.5056,-10.719,-10.05,-8.0265,-7.0352,-12.007,1.8211,-6.6992,-4.748
-8.9552,-4.1077,-5.1333,-14.851,-13.657,-12.44,-4.0609,-11.888,-3.0976,-14.851,-13.657,-9.8039,-11.419,-13.66,-10.05,-9.0216,-7.0352,-13.002,-0.13008,-8.6504,-8.6504
-0.99502,0.94276,0.86667,-11.881,-8.8026,-7.2852,-1.0152,-9.9179,-4.1077,-11.881,-8.8026,-4.902,-10.463,-8.7582,-7.0352,-4.0464,-2.0101,-8.0265,0.84553,-9.626,-2.7967
3.9801,5.9933,6.8667,-8.9109,-6.8608,-4.1924,2.0305,-6.9622,-0.06734,-8.9109,-6.8608,-0.98039,-8.5486,-4.8366,-4.0201,0.92869,2.0101,-3.0514,3.7724,-7.6748,3.0569
5.9701,7.0034,7.8667,-4.9505,-3.9482,-2.1306,4.0609,-2.0361,3.9731,-4.9505,-3.9482,2.9412,-2.807,-0.91503,-3.0151,2.9187,2.0101,1.9237,6.6992,-1.8211,7.935
0.99502,4.9832,3.8667,-3.9604,-3.9482,0.9622,2.0305,2.89,1.9529,-3.9604,-3.9482,0.98039,-7.5917,-3.8562,-6.0302,0.92869,-2.0101,4.9088,8.6504,-2.7967,6.9593
-2.9851,2.963,-1.1333,-3.9604,-5.89,4.055,2.0305,3.8752,3.9731,-3.9604,-5.89,0.98039,-11.419,-7.7778,-8.0402,-1.0614,-6.0302,3.9138,8.6504,-2.7967,4.0325
-6.9652,1.9529,-4.1333,-8.9109,-3.9482,-0.06873,3.0457,0.91954,0.94276,-8.9109,-3.9482,-0.98039,-9.5056,-6.7974,-7.0352,-1.0614,-6.0302,2.9187,7.6748,-2.7967,3.0569
-8.9552,-0.06734,-5.1333,-14.851,-0.06472,-4.1924,2.0305,-3.0213,1.9529,-14.851,-0.06472,-1.9608,-8.5486,-5.817,-7.0352,-0.06634,-5.0251,-1.0614,6.6992,-2.7967,3.0569
-5.9701,4.9832,-1.1333,-1.9802,0.90615,-1.0997,7.1066,-4.9918,5.9933,-1.9802,0.90615,0.98039,-4.7209,2.0261,-4.0201,4.9088,2.0101,-4.0464,4.748,-2.7967,5.9837
0.0,11.044,6.8667,2.9703,-2.0065,0.9622,10.152,-4.0066,5.9933,2.9703,-2.0065,4.902,1.9777,10.85,1.005,12.869,11.055,-6.0365,6.6992,-1.8211,13.789
7.9602,16.094,14.867,-2.9703,-2.9773,7.1478,12.183,-4.9918,8.0135,-2.9703,-2.9773,8.8235,8.6762,16.732,8.0402,19.834,19.094999,-5.0415,10.602,3.0569,18.667
8.9552,16.094,15.867,-3.9604,-2.0065,4.055,10.152,-5.977,5.9933,-3.9604,-2.0065,6.8627,5.8054,13.791,8.0402,20.829,19.094999,-2.0564,11.577,-0.84553,18.667
8.9552,13.064,12.867,-2.9703,-0.06472,3.0241,8.1218,-2.0361,4.9832,-2.9703,-0.06472,6.8627,1.9777,9.8693,6.0302,17.844,16.08,-2.0564,11.577,-2.7967,19.642
7.9602,14.074,11.867,0.9901,3.8188,9.2096,9.1371,-3.0213,7.0034,0.9901,3.8188,9.8039,1.0207,3.0065,5.0251,14.859,12.06,-3.0514,18.407,-0.84553,17.691
3.9801,11.044,6.8667,0.0,-0.06472,8.1787,9.1371,-4.9918,4.9832,0.0,-0.06472,7.8431,-0.89314,-2.8758,-1.005,8.8889,5.0251,-3.0514,17.431,0.13008,14.764
3.9801,10.034,6.8667,1.9802,-1.0356,6.1168,7.1066,-4.0066,1.9529,1.9802,-1.0356,5.8824,2.9346,0.06536,2.0101,4.9088,2.0101,-0.06634,15.48,5.9837,11.837
5.9701,8.0135,5.8667,-0.9901,-2.9773,1.9931,2.0305,-4.0066,-4.1077,-0.9901,-2.9773,2.9412,2.9346,3.0065,5.0251,3.9138,2.0101,2.9187,10.602,5.9837,11.837
6.9652,5.9933,5.8667,-7.9208,-4.9191,-2.1306,-4.0609,-1.0509,-11.178,-7.9208,-4.9191,-2.9412,5.8054,7.9085,8.0402,5.9038,6.0302,3.9138,1.8211,7.935,13.789
8.9552,4.9832,6.8667,-10.891,-9.7735,-4.1924,-10.152,-2.0361,-7.138,-10.891,-9.7735,-5.8824,8.6762,12.81,8.0402,9.8839,9.0452,6.8988,-1.1057,8.9106,13.789
9.9502,8.0135,7.8667,-9.901,-10.744,-0.06873,-7.1066,2.89,-1.0774,-9.901,-10.744,-3.9216,12.504,18.693001,7.0352,14.859,13.065,13.864,2.7967,13.789,18.667
13.93,11.044,9.8667,-3.9604,-8.8026,8.1787,-1.0152,4.8604,-1.0774,-3.9604,-8.8026,2.9412,9.6332,18.693001,4.0201,18.839001,14.07,16.849001,-1.1057,11.837,19.642
15.92,12.054,11.867,0.9901,-5.89,13.333,5.0761,10.772,0.94276,0.9901,-5.89,6.8627,10.59,16.732,8.0402,19.834,17.084999,16.849001,-1.1057,10.862,15.74
16.915001,11.044,12.867,4.9505,-2.9773,13.333,3.0457,15.698,-5.1178,4.9505,-2.9773,8.8235,14.418,14.771,14.07,19.834,19.094999,17.844,3.7724,14.764,13.789
17.91,13.064,15.867,3.9604,1.877,15.395,3.0457,14.713,-6.1279,3.9604,1.877,10.784,16.332001,14.771,20.101,19.834,21.106001,18.839001,8.6504,19.642,14.764
14.925,13.064,14.867,0.9901,-2.9773,10.241,5.0761,8.8013,0.94276,0.9901,-2.9773,9.8039,12.504,10.85,16.08,15.854,17.084999,14.859,15.48,11.837,15.74
9.9502,13.064,12.867,-4.9505,-6.8608,7.1478,4.0609,-3.0213,3.9731,-4.9505,-6.8608,6.8627,2.9346,2.0261,8.0402,10.879,11.055,7.8939,15.48,3.0569,11.837
3.9801,13.064,10.867,-15.842,-6.8608,1.9931,4.0609,-8.9327,5.9933,-15.842,-6.8608,5.8824,-0.89314,-2.8758,1.005,7.8939,8.0402,-5.0415,15.48,-6.6992,11.837
-1.99,9.0236,6.8667,-18.812,-6.8608,-5.2234,3.0457,-11.888,2.963,-18.812,-6.8608,1.9608,0.0638,-0.91503,-2.0101,6.8988,5.0251,-19.966999,14.504,-8.6504,15.74
-4.9751,3.9731,0.86667,-10.891,-5.89,-9.3471,-4.0609,-17.799999,-6.1279,-10.891,-5.89,-3.9216,1.9777,1.0458,-1.005,5.9038,3.0151,-23.947001,9.626,-4.748,15.74
-4.9751,-0.06734,-2.1333,0.9901,-2.0065,-8.3162,-8.1218,-14.844,-7.138,0.9901,-2.0065,-7.8431,3.8915,6.9281,-1.005,6.8988,1.005,-16.982,9.626,-0.84553,19.642
-8.9552,-5.1178,-6.1333,-1.9802,-3.9482,-8.3162,-9.1371,-6.9622,-4.1077,-1.9802,-3.9482,-7.8431,3.8915,9.8693,-4.0201,2.9187,-3.0151,-8.0265,6.6992,1.1057,18.667
-8.9552,-11.178,-10.133,-5.9406,-10.744,-5.2234,-11.168,3.8752,-8.1481,-5.9406,-10.744,-7.8431,3.8915,9.8693,-7.0352,-0.06634,-6.0302,1.9237,-2.0813,5.0081,11.837
-7.9602,-13.199,-12.133,-5.9406,-9.7735,-6.2543,-18.274,5.8456,-16.229,-5.9406,-9.7735,-11.765,6.7624,11.83,-4.0201,-0.06634,-4.0201,10.879,-4.0325,10.862,8.9106
-4.9751,-11.178,-12.133,-4.9505,-7.8317,-7.2852,-20.305,-0.06568,-17.239,-4.9505,-7.8317,-13.725,9.6332,13.791,-2.0101,2.9187,-2.0101,14.859,-3.0569,11.837,7.935
0.0,-7.138,-8.1333,-6.9307,-8.8026,-5.2234,-17.259001,-4.0066,-13.199,-6.9307,-8.8026,-12.745,10.59,14.771,3.0151,4.9088,2.0101,18.839001,-1.1057,14.764,6.9593
5.9701,-4.1077,-3.1333,-6.9307,-6.8608,-6.2543,-13.198,-0.06568,-9.1582,-6.9307,-6.8608,-7.8431,12.504,10.85,7.0352,4.9088,5.0251,19.834,0.84553,16.715,5.0081
9.9502,1.9529,2.8667,-6.9307,-5.89,-3.1615,-6.0914,3.8752,-4.1077,-6.9307,-5.89,-2.9412,10.59,8.8889,11.055,5.9038,8.0402,17.844,3.7724,16.715,5.9837
11.94,8.0135,7.8667,-3.9604,-2.9773,-0.06873,-1.0152,2.89,-2.0875,-3.9604,-2.9773,3.9216,8.6762,6.9281,10.05,8.8889,9.0452,13.864,7.6748,11.837,9.8862
11.94,11.044,10.867,-2.9703,-2.0065,5.0859,3.0457,2.89,1.9529,-2.9703,-2.0065,7.8431,10.59,8.8889,12.06,10.879,11.055,10.879,7.6748,12.813,11.837
13.93,11.044,12.867,0.9901,0.90615,8.1787,6.0914,-0.06568,4.9832,0.9901,0.90615,10.784,17.289,15.752,15.075,13.864,14.07,10.879,3.7724,17.691,14.764
9.9502,9.0236,10.867,-1.9802,2.8479,4.055,4.0609,-4.0066,1.9529,-1.9802,2.8479,5.8824,16.332001,15.752,12.06,12.869,12.06,8.8889,3.7724,16.715,13.789
2.9851,4.9832,5.8667,-7.9208,-3.9482,-5.2234,-2.0305,-6.9622,-4.1077,-7.9208,-3.9482,-1.9608,12.504,12.81,7.0352,10.879,8.0402,2.9187,2.7967,12.813,12.813
-3.9801,-1.0774,-1.1333,-12.871,-12.686,-11.409,-8.1218,-9.9179,-9.1582,-12.871,-12.686,-8.8235,8.6762,8.8889,2.0101,5.9038,2.0101,-7.0315,-1.1057,5.9837,8.9106
-7.9602,-4.1077,-4.1333,-13.861,-15.599,-13.471,-10.152,-9.9179,-6.1279,-13.861,-15.599,-9.8039,4.8485,4.9673,-3.0151,1.9237,-1.005,-9.0216,-0.13008,1.1057,5.0081
-7.9602,-4.1077,-5.1333,-23.761999,-11.715,-11.409,-6.0914,-7.9475,-4.1077,-23.761999,-11.715,-6.8627,0.0638,2.0261,-7.0352,-1.0614,-4.0201,-8.0265,1.8211,-3.7724,3.0569
-8.9552,-6.1279,-8.1333,-16.832001,-6.8608,-9.3471,-6.0914,-9.9179,-1.0774,-16.832001,-6.8608,-6.8627,-5.6778,-3.8562,-13.065,-7.0315,-9.0452,-8.0265,-3.0569,-10.602,-2.7967
-6.9652,-8.1481,-9.1333,-0.9901,-4.9191,-7.2852,-5.0761,-3.0213,-6.1279,-0.9901,-4.9191,-5.8824,-5.6778,-6.7974,-12.06,-11.012,-10.05,-8.0265,-7.935,-11.577,-8.6504
-6.9652,-10.168,-10.133,-0.9901,-3.9482,-10.378,-8.1218,-3.0213,-8.1481,-0.9901,-3.9482,-7.8431,-8.5486,-8.7582,-10.05,-12.007,-10.05,-10.017,-7.935,-14.504,-8.6504
-3.9801,-7.138,-8.1333,0.0,0.90615,-10.378,-6.0914,-5.977,-4.1077,0.0,0.90615,-6.8627,-5.6778,-4.8366,-4.0201,-6.0365,-5.0251,-3.0514,-3.0569,-9.626,-2.7967
-0.99502,-3.0976,-5.1333,1.9802,0.90615,-5.2234,-4.0609,-1.0509,-1.0774,1.9802,0.90615,-4.902,0.0638,2.0261,3.0151,-0.06634,1.005,2.9187,0.84553,-1.8211,0.13008
0.99502,0.94276,-1.1333,4.9505,0.90615,0.9622,-1.0152,-0.06568,1.9529,4.9505,0.90615,0.98039,4.8485,5.9477,5.0251,4.9088,3.0151,2.9187,3.7724,5.0081,2.0813
3.9801,2.963,2.8667,3.9604,1.877,6.1168,1.0152,-1.0509,2.963,3.9604,1.877,3.9216,9.6332,6.9281,8.0402,5.9038,5.0251,4.9088,5.7236,11.837,4.0325
2.9851,-1.0774,1.8667,2.9703,2.8479,3.0241,-1.0152,-3.0213,0.94276,2.9703,2.8479,3.9216,7.7193,4.9673,5.0251,1.9237,1.005,-3.0514,0.84553,10.862,1.1057
3.9801,-3.0976,0.86667,3.9604,3.8188,3.0241,0.0,-0.06568,-0.06734,3.9604,3.8188,3.9216,2.9346,3.9869,5.0251,-0.06634,1.005,-6.0365,-1.1057,7.935,-0.84553
3.9801,-4.1077,-0.13333,0.9901,-0.06472,6.1168,-1.0152,-1.0509,-2.0875,0.9901,-0.06472,2.9412,4.8485,3.0065,5.0251,0.92869,2.0101,-8.0265,-5.0081,3.0569,-0.84553
0.0,-3.0976,-1.1333,-0.9901,-2.9773,3.0241,-1.0152,-6.9622,-5.1178,-0.9901,-2.9773,0.98039,1.9777,4.9673,1.005,2.9187,2.0101,-13.002,-2.0813,-3.7724,2.0813
-0.99502,-0.06734,0.86667,1.9802,1.877,-0.06873,0.0,-6.9622,-2.0875,1.9802,1.877,1.9608,0.0638,3.9869,-2.0101,3.9138,2.0101,-10.017,-0.13008,-12.553,3.0569
-2.9851,-0.06734,0.86667,4.9505,3.8188,-0.06873,2.0305,-2.0361,-6.1279,4.9505,3.8188,3.9216,-3.764,0.06536,-7.0352,-0.06634,-2.0101,-9.0216,-8.9106,-15.48,0.13008
0.0,-0.06734,1.8667,2.9703,2.8479,3.0241,6.0914,1.9048,-12.189,2.9703,2.8479,8.8235,-3.764,-2.8758,-7.0352,-3.0514,-4.0201,-4.0464,-7.935,-13.528,-3.7724
0.99502,-4.1077,-0.13333,1.9802,5.7605,5.0859,6.0914,3.8752,-4.1077,1.9802,5.7605,8.8235,-7.5917,-6.7974,-7.0352,-7.0315,-8.0402,0.92869,-5.0081,-10.602,-8.6504
-0.99502,-7.138,-3.1333,2.9703,5.7605,1.9931,2.0305,3.8752,1.9529,2.9703,5.7605,6.8627,-6.6348,-8.7582,-7.0352,-10.017,-10.05,0.92869,-6.9593,-2.7967,-12.553
0.0,-4.1077,-2.1333,0.9901,1.877,1.9931,5.0761,2.89,2.963,0.9901,1.877,6.8627,-6.6348,-6.7974,-3.0151,-7.0315,-7.0352,5.9038,-3.0569,-0.84553,-11.577
3.9801,1.9529,1.8667,0.9901,1.877,5.0859,8.1218,4.8604,3.9731,0.9901,1.877,10.784,-2.807,-2.8758,3.0151,-1.0614,-1.005,8.8889,-0.13008,1.1057,-6.6992
5.9701,2.963,2.8667,0.0,3.8188,7.1478,9.1371,6.8309,0.94276,0.0,3.8188,12.745,1.0207,-2.8758,5.0251,-0.06634,0.0,8.8889,-4.0325,2.0813,-5.7236
4.9751,2.963,2.8667,1.9802,6.7314,8.1787,11.168,3.8752,0.94276,1.9802,6.7314,12.745,-0.89314,-0.91503,5.0251,-0.06634,1.005,3.9138,-4.0325,0.13008,-3.7724
1.99,0.94276,0.86667,8.9109,7.7023,5.0859,11.168,-4.9918,3.9731,8.9109,7.7023,10.784,-0.89314,-2.8758,1.005,-1.0614,-1.005,-2.0564,-5.9837,-4.748,-3.7724
-0.99502,0.94276,-0.13333,5.9406,7.7023,3.0241,8.1218,-2.0361,5.9933,5.9406,7.7023,6.8627,1.0207,0.06536,0.0,0.92869,-1.005,-7.0315,-1.1057,-2.7967,-0.84553
-3.9801,-2.0875,-4.1333,0.9901,4.7896,-0.06873,3.0457,0.91954,-0.06734,0.9901,4.7896,2.9412,-2.807,-0.91503,-5.0251,-1.0614,-4.0201,-9.0216,-1.1057,-4.748,-0.84553
-2.9851,-0.06734,-4.1333,4.9505,5.7605,4.055,4.0609,4.8604,-1.0774,4.9505,5.7605,2.9412,0.0638,1.0458,-3.0151,-0.06634,-3.0151,-4.0464,-0.13008,-3.7724,0.13008
1.99,3.9731,-1.1333,6.9307,8.6731,5.0859,6.0914,8.8013,4.9832,6.9307,8.6731,5.8824,5.8054,4.9673,2.0101,3.9138,1.005,7.8939,5.7236,2.0813,4.0325
0.99502,1.9529,-1.1333,5.9406,6.7314,4.055,7.1066,4.8604,1.9529,5.9406,6.7314,4.902,4.8485,3.9869,3.0151,2.9187,2.0101,9.8839,0.84553,4.0325,0.13008
-0.99502,-4.1077,-4.1333,0.9901,1.877,-1.0997,3.0457,-1.0509,-0.06734,0.9901,1.877,0.98039,-0.89314,-1.8954,-1.005,-3.0514,-3.0151,0.92869,-6.9593,1.1057,-5.7236
-1.99,-5.1178,-4.1333,-2.9703,-1.0356,-3.1615,-1.0152,-3.0213,-4.1077,-2.9703,-1.0356,-1.9608,-0.89314,-0.91503,0.0,-4.0464,-3.0151,-1.0614,-4.0325,3.0569,-4.748
-0.99502,-5.1178,-3.1333,-3.9604,-2.0065,-1.0997,-2.0305,-1.0509,-0.06734,-3.9604,-2.0065,-0.98039,-0.89314,-2.8758,1.005,-4.0464,-3.0151,-3.0514,-3.0569,2.0813,-6.6992
0.0,-3.0976,-0.13333,-0.9901,-0.06472,1.9931,2.0305,-3.0213,1.9529,-0.9901,-0.06472,1.9608,-2.807,-4.8366,1.005,-4.0464,-3.0151,-4.0464,-4.0325,-2.7967,-5.7236
0.0,-0.06734,-0.13333,1.9802,0.90615,1.9931,3.0457,-0.06568,-2.0875,1.9802,0.90615,4.902,-5.6778,-5.817,-2.0101,-4.0464,-3.0151,-5.0415,-0.13008,-6.6992,-4.748
-2.9851,-1.0774,-2.1333,-0.9901,0.90615,-1.0997,2.0305,-2.0361,-0.06734,-0.9901,0.90615,1.9608,-6.6348,-4.8366,-5.0251,-4.0464,-5.0251,-9.0216,1.8211,-8.6504,-4.748
-3.9801,-2.0875,-4.1333,-2.9703,-1.0356,-3.1615,-1.0152,-8.9327,-2.0875,-2.9703,-1.0356,-0.98039,-4.7209,-1.8954,-5.0251,-2.0564,-5.0251,-5.0415,2.7967,-5.7236,-0.84553
-2.9851,-4.1077,-5.1333,-1.9802,-2.9773,-3.1615,-3.0457,-1.0509,-4.1077,-1.9802,-2.9773,-2.9412,0.0638,1.0458,-4.0201,-2.0564,-5.0251,-0.06634,1.8211,1.1057,0.13008
0.99502,-1.0774,-2.1333,2.9703,-1.0356,1.9931,2.0305,3.8752,0.94276,2.9703,-1.0356,1.9608,3.8915,3.0065,3.0151,-1.0614,-3.0151,7.8939,4.748,10.862,4.0325
5.9701,2.963,1.8667,4.9505,3.8188,9.2096,7.1066,3.8752,0.94276,4.9505,3.8188,8.8235,2.9346,3.9869,6.0302,1.9237,1.005,13.864,5.7236,8.9106,5.9837
1.99,0.94276,0.86667,3.9604,0.90615,7.1478,3.0457,6.8309,-1.0774,3.9604,0.90615,5.8824,1.0207,3.0065,4.0201,0.92869,0.0,9.8839,-0.13008,5.9837,3.0569
2.9851,0.94276,0.86667,7.9208,2.8479,6.1168,2.0305,6.8309,2.963,7.9208,2.8479,4.902,4.8485,1.0458,5.0251,0.92869,1.005,10.879,-0.13008,9.8862,1.1057
1.99,0.94276,-1.1333,4.9505,4.7896,5.0859,5.0761,4.8604,7.0034,4.9505,4.7896,2.9412,1.0207,-1.8954,4.0201,-1.0614,-1.005,8.8889,2.7967,7.935,-2.7967
0.99502,0.94276,-2.1333,3.9604,4.7896,1.9931,6.0914,2.89,3.9731,3.9604,4.7896,3.9216,-0.89314,-3.8562,2.0101,-2.0564,-2.0101,2.9187,4.748,3.0569,-3.7724
2.9851,0.94276,-0.13333,6.9307,8.6731,5.0859,7.1066,4.8604,-0.06734,6.9307,8.6731,4.902,-2.807,-2.8758,3.0151,-1.0614,-1.005,0.92869,-1.1057,0.13008,-2.7967
5.9701,0.94276,1.8667,10.891,5.7605,6.1168,7.1066,5.8456,1.9529,10.891,5.7605,7.8431,-0.89314,-0.91503,2.0101,0.92869,0.0,1.9237,-2.0813,1.1057,0.13008
5.9701,2.963,4.8667,8.9109,5.7605,11.271,7.1066,7.8161,2.963,8.9109,5.7605,9.8039,2.9346,2.0261,5.0251,0.92869,2.0101,2.9187,0.84553,7.935,2.0813
6.9652,2.963,4.8667,-1.9802,8.6731,12.302,7.1066,5.8456,3.9731,-1.9802,8.6731,10.784,6.7624,3.0065,8.0402,0.92869,3.0151,6.8988,1.8211,11.837,1.1057
5.9701,1.9529,3.8667,0.9901,9.644,8.1787,8.1218,0.91954,3.9731,0.9901,9.644,7.8431,4.8485,1.0458,7.0352,-1.0614,2.0101,9.8839,3.7724,11.837,-3.7724
5.9701,-0.06734,2.8667,10.891,8.6731,9.2096,7.1066,1.9048,1.9529,10.891,8.6731,6.8627,2.9346,0.06536,7.0352,-1.0614,2.0101,12.869,0.84553,9.8862,-4.748
7.9602,0.94276,2.8667,14.851,7.7023,12.302,6.0914,4.8604,1.9529,14.851,7.7023,5.8824,3.8915,3.0065,9.0452,1.9237,5.0251,14.859,-0.13008,12.813,-1.8211
7.9602,1.9529,3.8667,10.891,1.877,7.1478,6.0914,11.757,3.9731,10.891,1.877,4.902,5.8054,4.9673,10.05,3.9138,7.0352,12.869,-1.1057,11.837,2.0813
2.9851,-2.0875,-0.13333,3.9604,-1.0356,-0.06873,2.0305,12.742,-1.0774,3.9604,-1.0356,0.0,6.7624,3.9869,7.0352,0.92869,4.0201,7.8939,-4.0325,5.9837,2.0813
-0.99502,-4.1077,-3.1333,3.9604,0.90615,-2.1306,-3.0457,7.8161,-7.138,3.9604,0.90615,-2.9412,3.8915,0.06536,2.0101,-2.0564,0.0,2.9187,-4.0325,3.0569,-1.8211
-2.9851,-4.1077,-5.1333,5.9406,2.8479,-2.1306,-3.0457,4.8604,-2.0875,5.9406,2.8479,-2.9412,1.0207,-3.8562,-2.0101,-3.0514,-3.0151,-2.0564,-0.13008,2.0813,-3.7724
0.99502,0.94276,-2.1333,4.9505,3.8188,1.9931,3.0457,4.8604,2.963,4.9505,3.8188,-0.98039,6.7624,0.06536,3.0151,-1.0614,0.0,-0.06634,3.7724,7.935,0.13008
3.9801,1.9529,-0.13333,7.9208,3.8188,6.1168,6.0914,1.9048,3.9731,7.9208,3.8188,3.9216,-1.8501,-1.8954,1.005,-1.0614,-1.005,2.9187,3.7724,1.1057,0.13008
4.9751,0.94276,1.8667,7.9208,4.7896,7.1478,7.1066,3.8752,7.0034,7.9208,4.7896,5.8824,-6.6348,-3.8562,1.005,-1.0614,0.0,2.9187,0.84553,0.13008,-1.8211
8.9552,3.9731,6.8667,12.871,9.644,8.1787,7.1066,6.8309,3.9731,12.871,9.644,8.8235,1.9777,-0.91503,6.0302,1.9237,4.0201,8.8889,1.8211,9.8862,-2.7967
10.945,5.9933,8.8667,8.9109,10.615,13.333,9.1371,5.8456,3.9731,8.9109,10.615,9.8039,1.0207,0.06536,8.0402,3.9138,6.0302,12.869,1.8211,8.9106,-1.8211
12.935,9.0236,10.867,8.9109,10.615,16.426001,11.168,8.8013,4.9832,8.9109,10.615,13.725,4.8485,1.0458,11.055,5.9038,9.0452,10.879,0.84553,8.9106,-2.7967
12.935,9.0236,11.867,9.901,5.7605,14.364,11.168,12.742,5.9933,9.901,5.7605,12.745,4.8485,0.06536,12.06,4.9088,10.05,10.879,-0.13008,10.862,-5.7236
11.94,4.9832,9.8667,11.881,3.8188,10.241,7.1066,12.742,5.9933,11.881,3.8188,9.8039,2.9346,-4.8366,9.0452,-1.0614,6.0302,11.874,-3.0569,8.9106,-9.626
9.9502,2.963,6.8667,12.871,5.7605,12.302,6.0914,15.698,1.9529,12.871,5.7605,9.8039,-3.764,-8.7582,4.0201,-5.0415,1.005,13.864,-1.1057,5.0081,-10.602
5.9701,1.9529,3.8667,11.881,5.7605,12.302,7.1066,15.698,1.9529,11.881,5.7605,9.8039,-6.6348,-8.7582,-2.0101,-6.0365,-4.0201,11.874,1.8211,2.0813,-5.7236
0.99502,3.9731,2.8667,7.9208,5.7605,13.333,8.1218,14.713,5.9933,7.9208,5.7605,7.8431,-5.6778,-4.8366,-4.0201,-4.0464,-5.0251,5.9038,4.748,0.13008,0.13008
-0.99502,3.9731,2.8667,7.9208,3.8188,7.1478,8.1218,9.7865,9.0236,7.9208,3.8188,6.8627,-2.807,0.06536,-3.0151,-1.0614,-4.0201,3.9138,7.6748,1.1057,2.0813
-2.9851,-0.06734,-0.13333,5.9406,2.8479,-0.06873,4.0609,3.8752,4.9832,5.9406,2.8479,1.9608,-0.89314,2.0261,-2.0101,-1.0614,-4.0201,2.9187,3.7724,3.0569,1.1057
0.0,-2.0875,-1.1333,5.9406,3.8188,0.9622,0.0,2.89,-1.0774,5.9406,3.8188,0.98039,1.9777,3.0065,2.0101,-1.0614,-2.0101,4.9088,1.8211,4.0325,1.1057
-0.99502,-3.0976,-3.1333,0.0,-0.06472,1.9931,0.0,-0.06568,-2.0875,0.0,-0.06472,0.0,-0.89314,-1.8954,0.0,-4.0464,-3.0151,5.9038,-1.1057,-0.84553,-2.7967
-2.9851,-3.0976,-4.1333,-3.9604,-3.9482,0.9622,-1.0152,-4.9918,0.94276,-3.9604,-3.9482,-0.98039,-1.8501,-5.817,-1.005,-8.0265,-5.0251,2.9187,-3.0569,0.13008,-7.6748
-3.9801,-5.1178,-3.1333,1.9802,-3.9482,0.9622,-2.0305,-4.9918,-5.1178,1.9802,-3.9482,0.98039,-4.7209,-9.7386,-7.0352,-12.007,-8.0402,-3.0514,-11.837,-2.7967,-11.577
-3.9801,-3.0976,1.8667,-5.9406,0.90615,5.0859,-1.0152,1.9048,-6.1279,-5.9406,0.90615,4.902,-9.5056,-11.699,-11.055,-11.012,-8.0402,-7.0315,-8.9106,-7.6748,-12.553
-2.9851,-1.0774,2.8667,1.9802,2.8479,7.1478,0.0,2.89,-3.0976,1.9802,2.8479,7.8431,-12.376,-15.621,-14.07,-11.012,-9.0452,-10.017,-5.0081,-11.577,-14.504
-2.9851,-0.06734,2.8667,11.881,2.8479,7.1478,3.0457,1.9048,-0.06734,11.881,2.8479,6.8627,-17.160999,-15.621,-13.065,-10.017,-9.0452,-9.0216,-5.0081,-14.504,-13.528
0.0,-1.0774,2.8667,9.901,4.7896,6.1168,6.0914,2.89,2.963,9.901,4.7896,5.8824,-18.118,-15.621,-10.05,-10.017,-8.0402,-2.0564,-6.9593,-14.504,-12.553
0.99502,-4.1077,0.86667,7.9208,1.877,4.055,2.0305,4.8604,-2.0875,7.9208,1.877,3.9216,-14.29,-13.66,-7.0352,-9.0216,-7.0352,2.9187,-8.9106,-9.626,-11.577
2.9851,-3.0976,1.8667,9.901,1.877,6.1168,-1.0152,9.7865,-6.1279,9.901,1.877,3.9216,-9.5056,-9.7386,-4.0201,-6.0365,-5.0251,6.8988,-8.9106,-6.6992,-8.6504
7.9602,2.963,7.8667,11.881,5.7605,15.395,5.0761,13.727,-0.06734,11.881,5.7605,10.784,-3.764,-1.8954,2.0101,-2.0564,1.005,6.8988,-5.9837,-1.8211,-5.7236
8.9552,3.9731,8.8667,8.9109,5.7605,14.364,6.0914,6.8309,-0.06734,8.9109,5.7605,10.784,1.9777,1.0458,4.0201,-0.06634,3.0151,4.9088,-2.0813,1.1057,-3.7724
4.9751,3.9731,5.8667,5.9406,3.8188,8.1787,4.0609,2.89,-1.0774,5.9406,3.8188,5.8824,1.0207,3.0065,3.0151,-0.06634,3.0151,-0.06634,1.8211,1.1057,-0.84553
0.0,1.9529,1.8667,4.9505,0.90615,-0.06873,1.0152,-3.0213,-3.0976,4.9505,0.90615,0.98039,-0.89314,0.06536,1.005,-2.0564,2.0101,-6.0365,-0.13008,1.1057,-2.7967
-2.9851,-1.0774,-1.1333,0.0,-2.0065,-3.1615,-3.0457,-4.0066,-3.0976,0.0,-2.0065,-4.902,-0.89314,-1.8954,0.0,-3.0514,1.005,-10.017,-1.1057,4.0325,-3.7724
1.99,-0.06734,0.86667,0.0,-2.9773,-1.0997,-3.0457,-4.0066,1.9529,0.0,-2.9773,-3.9216,8.6762,4.9673,8.0402,1.9237,6.0302,-3.0514,1.8211,9.8862,2.0813
2.9851,0.94276,0.86667,-2.9703,-5.89,-0.06873,-1.0152,-3.0213,0.94276,-2.9703,-5.89,-2.9412,11.547,8.8889,9.0452,4.9088,8.0402,1.9237,2.7967,9.8862,7.935
0.0,-0.06734,-0.13333,-3.9604,-5.89,-2.1306,-1.0152,-3.0213,-1.0774,-3.9604,-5.89,-2.9412,6.7624,6.9281,6.0302,2.9187,4.0201,0.92869,-1.1057,6.9593,5.9837
-2.9851,-1.0774,-1.1333,0.9901,-1.0356,-1.0997,-3.0457,-4.9918,-3.0976,0.9901,-1.0356,-0.98039,0.0638,1.0458,-1.005,-1.0614,-1.005,-0.06634,-5.0081,3.0569,4.0325
-4.9751,-3.0976,-4.1333,0.9901,0.90615,3.0241,-3.0457,-4.0066,-3.0976,0.9901,0.90615,-1.9608,-6.6348,-4.8366,-7.0352,-5.0415,-6.0302,-0.06634,-6.9593,-1.8211,-4.748
-2.9851,-3.0976,-4.1333,2.9703,2.8479,4.055,-2.0305,-0.06568,-5.1178,2.9703,2.8479,-0.98039,-5.6778,-6.7974,-6.0302,-7.0315,-7.0352,0.92869,-5.0081,0.13008,-6.6992
-5.9701,-8.1481,-8.1333,0.0,-0.06472,-3.1615,-7.1066,0.91954,-5.1178,0.0,-0.06472,-6.8627,-9.5056,-9.7386,-6.0302,-10.017,-8.0402,-0.06634,-4.0325,-2.7967,-10.602
-6.9652,-12.189,-10.133,0.9901,-5.89,-6.2543,-8.1218,-1.0509,-6.1279,0.9901,-5.89,-8.8235,-9.5056,-10.719,-6.0302,-13.002,-9.0452,-1.0614,-7.935,-4.748,-15.48
-4.9751,-10.168,-7.1333,0.9901,-2.9773,-4.1924,-7.1066,-0.06568,-4.1077,0.9901,-2.9773,-7.8431,-4.7209,-7.7778,-1.005,-10.017,-4.0201,-3.0514,-6.9593,1.1057,-14.504
-0.99502,-7.138,-4.1333,3.9604,1.877,-0.06873,-6.0914,2.89,-4.1077,3.9604,1.877,-2.9412,0.0638,-4.8366,3.0151,-6.0365,1.005,-2.0564,-5.9837,3.0569,-9.626
0.0,-4.1077,-1.1333,3.9604,3.8188,5.0859,-4.0609,0.91954,-4.1077,3.9604,3.8188,0.0,6.7624,-0.91503,6.0302,-2.0564,4.0201,1.9237,-6.9593,5.0081,-3.7724
0.0,-3.0976,-0.13333,5.9406,0.90615,6.1168,-2.0305,-1.0509,-4.1077,5.9406,0.90615,1.9608,2.9346,0.06536,3.0151,-1.0614,3.0151,6.8988,-6.9593,3.0569,-0.84553
1.99,0.94276,0.86667,5.9406,-0.06472,6.1168,0.0,4.8604,-3.0976,5.9406,-0.06472,2.9412,1.0207,3.0065,3.0151,-0.06634,3.0151,8.8889,-2.0813,4.0325,1.1057
0.99502,0.94276,0.86667,4.9505,1.877,0.9622,0.0,7.8161,-1.0774,4.9505,1.877,1.9608,1.0207,2.0261,1.005,-1.0614,1.005,6.8988,-3.0569,3.0569,1.1057
2.9851,3.9731,4.8667,6.9307,6.7314,5.0859,4.0609,5.8456,-0.06734,6.9307,6.7314,5.8824,-0.89314,3.0065,1.005,0.92869,2.0101,5.9038,-5.9837,1.1057,5.0081
4.9751,11.044,9.8667,9.901,8.6731,8.1787,9.1371,1.9048,0.94276,9.901,8.6731,11.765,1.9777,6.9281,3.0151,6.8988,6.0302,2.9187,-6.9593,4.0325,6.9593
11.94,18.114,16.867001,6.9307,8.6731,12.302,13.198,-1.0509,5.9933,6.9307,8.6731,15.686,9.6332,12.81,11.055,14.859,15.075,2.9187,3.7724,11.837,10.862
15.92,20.135,20.867001,7.9208,8.6731,15.395,14.213,-0.06568,9.0236,7.9208,8.6731,17.646999,15.375,18.693001,18.09,21.823999,22.111,4.9088,12.553,19.642,17.691
17.91,17.104,21.867001,15.842,10.615,15.395,15.228,3.8752,7.0034,15.842,10.615,17.646999,17.289,17.712,19.094999,19.834,22.111,4.9088,9.626,19.642,18.667
19.9,17.104,22.867001,16.832001,10.615,16.426001,14.213,6.8309,9.0236,16.832001,10.615,18.627001,20.159,17.712,22.111,19.834,23.115999,7.8939,9.626,21.593,18.667
18.905001,13.064,19.867001,14.851,10.615,14.364,9.1371,6.8309,3.9731,14.851,10.615,15.686,21.115999,13.791,23.115999,15.854,22.111,9.8839,7.6748,22.569,15.74
14.925,9.0236,13.867,11.881,8.6731,11.271,5.0761,4.8604,1.9529,11.881,8.6731,11.765,16.332001,10.85,20.101,11.874,18.09,10.879,9.626,17.691,10.862
10.945,8.0135,10.867,10.891,6.7314,12.302,7.1066,4.8604,5.9933,10.891,6.7314,11.765,10.59,6.9281,12.06,8.8889,12.06,12.869,9.626,11.837,8.9106
7.9602,7.0034,7.8667,15.842,9.644,16.426001,9.1371,0.91954,4.9832,15.842,9.644,10.784,7.7193,4.9673,7.0352,5.9038,7.0352,13.864,8.6504,10.862,5.9837
5.9701,7.0034,6.8667,15.842,10.615,14.364,9.1371,9.7865,1.9529,15.842,10.615,11.765,2.9346,3.9869,3.0151,4.9088,4.0201,9.8839,5.7236,5.9837,3.0569
4.9751,5.9933,5.8667,10.891,9.644,8.1787,7.1066,18.653999,3.9731,10.891,9.644,9.8039,0.0638,4.9673,4.0201,4.9088,6.0302,7.8939,3.7724,5.0081,3.0569
7.9602,4.9832,5.8667,8.9109,8.6731,7.1478,4.0609,16.683001,1.9529,8.9109,8.6731,8.8235,4.8485,6.9281,8.0402,6.8988,9.0452,11.874,-1.1057,6.9593,5.0081
6.9652,2.963,4.8667,3.9604,5.7605,7.1478,2.0305,10.772,0.94276,3.9604,5.7605,4.902,7.7193,7.9085,10.05,6.8988,11.055,10.879,-5.0081,8.9106,5.9837
5.9701,3.9731,4.8667,-6.9307,1.877,7.1478,3.0457,8.8013,1.9529,-6.9307,1.877,3.9216,6.7624,6.9281,7.0352,6.8988,10.05,9.8839,-3.0569,5.0081,5.9837
7.9602,9.0236,7.8667,0.0,-0.06472,7.1478,6.0914,8.8013,3.9731,0.0,-0.06472,3.9216,7.7193,7.9085,10.05,9.8839,12.06,11.874,2.7967,6.9593,9.8862
7.9602,11.044,8.8667,9.901,1.877,7.1478,7.1066,6.8309,7.0034,9.901,1.877,5.8824,7.7193,6.9281,9.0452,9.8839,11.055,7.8939,7.6748,7.935,9.8862
8.9552,14.074,10.867,8.9109,4.7896,8.1787,9.1371,2.89,8.0135,8.9109,4.7896,7.8431,10.59,8.8889,10.05,9.8839,11.055,7.8939,14.504,9.8862,11.837
5.9701,14.074,9.8667,7.9208,5.7605,4.055,8.1218,0.91954,7.0034,7.9208,5.7605,6.8627,8.6762,7.9085,8.0402,9.8839,11.055,2.9187,17.431,7.935,12.813
2.9851,11.044,8.8667,2.9703,5.7605,-0.06873,7.1066,-7.9475,11.044,2.9703,5.7605,3.9216,2.9346,7.9085,4.0201,8.8889,9.0452,-7.0315,15.48,0.13008,12.813
2.9851,9.0236,8.8667,0.0,2.8479,-3.1615,6.0914,-10.903,10.034,0.0,2.8479,1.9608,6.7624,12.81,6.0302,10.879,12.06,-11.012,10.602,0.13008,16.715
5.9701,5.9933,6.8667,0.0,1.877,-2.1306,4.0609,-5.977,7.0034,0.0,1.877,0.98039,14.418,17.712,11.055,13.864,15.075,-3.0514,7.6748,5.9837,17.691
6.9652,4.9832,5.8667,-0.9901,0.90615,0.9622,3.0457,-2.0361,1.9529,-0.9901,0.90615,0.0,18.246,18.693001,16.08,12.869,16.08,3.9138,6.6992,13.789,13.789
7.9602,4.9832,5.8667,0.0,1.877,1.9931,1.0152,-3.0213,-1.0774,0.0,1.877,1.9608,17.289,16.732,16.08,12.869,15.075,7.8939,5.7236,18.667,15.74
6.9652,5.9933,5.8667,-1.9802,1.877,5.0859,1.0152,2.89,5.9933,-1.9802,1.877,2.9412,19.202999,17.712,15.075,11.874,14.07,12.869,4.748,20.618,15.74
4.9751,3.9731,3.8667,1.9802,-1.0356,1.9931,2.0305,0.91954,4.9832,1.9802,-1.0356,3.9216,18.246,14.771,12.06,8.8889,11.055,9.8839,6.6992,18.667,10.862
0.99502,3.9731,1.8667,0.9901,-0.06472,0.9622,5.0761,1.9048,4.9832,0.9901,-0.06472,1.9608,17.289,13.791,9.0452,5.9038,9.0452,1.9237,9.626,16.715,9.8862
-2.9851,-1.0774,-4.1333,0.0,-0.06472,-2.1306,1.0152,0.91954,3.9731,0.0,-0.06472,-2.9412,6.7624,6.9281,0.0,-0.06634,2.0101,-1.0614,6.6992,5.0081,5.9837
-3.9801,-3.0976,-6.1333,-0.9901,-2.0065,-2.1306,-1.0152,-0.06568,-1.0774,-0.9901,-2.0065,-4.902,-1.8501,0.06536,-4.0201,-3.0514,-1.005,-2.0564,4.748,-2.7967,1.1057
-0.99502,-2.0875,-4.1333,2.9703,-0.06472,-1.0997,-2.0305,2.89,2.963,2.9703,-0.06472,-0.98039,-0.89314,-0.91503,-2.0101,-2.0564,0.0,4.9088,1.8211,-2.7967,1.1057
2.9851,-1.0774,-2.1333,3.9604,0.90615,3.0241,-1.0152,3.8752,0.94276,3.9604,0.90615,0.0,2.9346,3.0065,2.0101,0.92869,3.0151,9.8839,-1.1057,4.0325,3.0569
1.99,-2.0875,-3.1333,2.9703,-0.06472,1.9931,-3.0457,6.8309,-1.0774,2.9703,-0.06472,-0.98039,2.9346,2.0261,2.0101,1.9237,3.0151,5.9038,-5.0081,3.0569,1.1057
-0.99502,-4.1077,-5.1333,1.9802,-1.0356,1.9931,-2.0305,12.742,0.94276,1.9802,-1.0356,-2.9412,1.9777,2.0261,0.0,-0.06634,1.005,4.9088,-5.9837,2.0813,0.13008
-4.9751,-7.138,-10.133,1.9802,0.90615,-3.1615,-5.0761,8.8013,-4.1077,1.9802,0.90615,-6.8627,1.9777,1.0458,-1.005,-3.0514,-2.0101,4.9088,-8.9106,4.0325,-1.8211
-6.9652,-9.1582,-12.133,-0.9901,-1.0356,-6.2543,-10.152,1.9048,-5.1178,-0.9901,-1.0356,-9.8039,1.9777,1.0458,-2.0101,-5.0415,-4.0201,5.9038,-7.935,3.0569,-1.8211
-6.9652,-6.1279,-10.133,-3.9604,-2.0065,-10.378,-9.1371,-1.0509,-4.1077,-3.9604,-2.0065,-9.8039,0.0638,2.0261,-4.0201,-3.0514,-3.0151,2.9187,-4.0325,-2.7967,1.1057
-4.9751,-0.06734,-5.1333,-3.9604,-1.0356,-8.3162,-4.0609,-1.0509,-0.06734,-3.9604,-1.0356,-6.8627,1.9777,4.9673,-1.005,1.9237,2.0101,-7.0315,0.84553,-2.7967,4.0325
0.0,7.0034,2.8667,0.9901,1.877,-3.1615,1.0152,0.91954,3.9731,0.9901,1.877,-0.98039,9.6332,9.8693,6.0302,8.8889,10.05,-9.0216,7.6748,0.13008,7.935
1.99,9.0236,4.8667,5.9406,2.8479,-0.06873,4.0609,2.89,8.0135,5.9406,2.8479,2.9412,6.7624,6.9281,6.0302,9.8839,11.055,-6.0365,10.602,-0.84553,5.9837
-0.99502,4.9832,2.8667,6.9307,4.7896,1.9931,5.0761,4.8604,4.9832,6.9307,4.7896,3.9216,2.9346,3.0065,1.005,4.9088,7.0352,-3.0514,6.6992,-0.84553,0.13008
-3.9801,-1.0774,-1.1333,5.9406,4.7896,1.9931,2.0305,3.8752,1.9529,5.9406,4.7896,2.9412,0.0638,-0.91503,-5.0251,-1.0614,1.005,-1.0614,2.7967,-4.748,-1.8211
-2.9851,-5.1178,-3.1333,1.9802,1.877,-0.06873,0.0,1.9048,2.963,1.9802,1.877,0.0,1.0207,-0.91503,-3.0151,-5.0415,-1.005,6.8988,-1.1057,-3.7724,-2.7967
0.0,-2.0875,-2.1333,0.9901,-0.06472,-1.0997,0.0,-2.0361,2.963,0.9901,-0.06472,0.0,0.0638,0.06536,-1.005,-5.0415,-1.005,5.9038,-0.13008,-2.7967,1.1057
8.9552,9.0236,5.8667,-6.9307,4.7896,6.1168,5.0761,8.8013,9.0236,-6.9307,4.7896,6.8627,10.59,8.8889,11.055,2.9187,7.0352,8.8889,11.577,10.862,8.9106
11.94,10.034,7.8667,1.9802,7.7023,7.1478,5.0761,11.757,11.044,1.9802,7.7023,7.8431,12.504,8.8889,13.065,4.9088,9.0452,10.879,14.504,12.813,8.9106
14.925,9.0236,9.8667,10.891,7.7023,7.1478,6.0914,7.8161,7.0034,10.891,7.7023,7.8431,12.504,9.8693,16.08,5.9038,11.055,12.869,11.577,15.74,7.935
15.92,9.0236,10.867,8.9109,6.7314,5.0859,6.0914,8.8013,7.0034,8.9109,6.7314,6.8627,19.202999,13.791,21.106001,10.879,15.075,11.874,11.577,19.642,10.862
8.9552,5.9933,6.8667,6.9307,5.7605,1.9931,5.0761,2.89,4.9832,6.9307,5.7605,1.9608,15.375,11.83,17.084999,10.879,14.07,6.8988,1.8211,13.789,7.935
1.99,4.9832,3.8667,5.9406,5.7605,-3.1615,3.0457,-0.06568,1.9529,5.9406,5.7605,0.0,12.504,11.83,12.06,10.879,11.055,-0.06634,-0.13008,9.8862,6.9593
-2.9851,1.9529,-1.1333,4.9505,3.8188,-7.2852,-1.0152,-2.0361,1.9529,4.9505,3.8188,-4.902,8.6762,8.8889,4.0201,7.8939,7.0352,-4.0464,2.7967,4.0325,5.9837
-3.9801,1.9529,-2.1333,0.9901,1.877,-6.2543,-2.0305,-3.0213,0.94276,0.9901,1.877,-3.9216,5.8054,4.9673,0.0,4.9088,4.0201,-3.0514,2.7967,1.1057,3.0569
-1.99,0.94276,-2.1333,0.9901,3.8188,-3.1615,0.0,-0.06568,1.9529,0.9901,3.8188,-1.9608,3.8915,3.9869,-1.005,2.9187,3.0151,-5.0415,0.84553,-0.84553,1.1057
0.0,1.9529,-0.13333,5.9406,7.7023,-0.06873,3.0457,5.8456,5.9933,5.9406,7.7023,0.98039,3.8915,3.9869,0.0,1.9237,4.0201,-4.0464,0.84553,-0.84553,1.1057
0.99502,-0.06734,-1.1333,5.9406,6.7314,0.9622,3.0457,7.8161,5.9933,5.9406,6.7314,1.9608,1.9777,2.0261,0.0,-0.06634,2.0101,-0.06634,-1.1057,-2.7967,1.1057
-1.99,-4.1077,-4.1333,2.9703,5.7605,0.9622,-1.0152,4.8604,1.9529,2.9703,5.7605,-1.9608,-2.807,0.06536,-1.005,-4.0464,-2.0101,-0.06634,-3.0569,-5.7236,-0.84553
-0.99502,-6.1279,-6.1333,3.9604,1.877,-1.0997,-3.0457,4.8604,-0.06734,3.9604,1.877,-2.9412,-0.89314,-1.8954,-1.005,-6.0365,-5.0251,0.92869,-0.13008,-0.84553,-1.8211
-5.9701,-8.1481,-9.1333,1.9802,1.877,-6.2543,-4.0609,3.8752,-1.0774,1.9802,1.877,-6.8627,0.0638,-2.8758,-2.0101,-8.0265,-7.0352,1.9237,1.8211,1.1057,-2.7967
-7.9602,-10.168,-12.133,1.9802,4.7896,-7.2852,-5.0761,-0.06568,-8.1481,1.9802,4.7896,-6.8627,-0.89314,-2.8758,-4.0201,-8.0265,-9.0452,0.92869,-1.1057,-2.7967,-3.7724
-8.9552,-10.168,-11.133,0.9901,3.8188,-5.2234,-7.1066,0.91954,-4.1077,0.9901,3.8188,-6.8627,0.0638,-3.8562,-5.0251,-7.0315,-8.0402,-3.0514,-2.0813,-1.8211,-3.7724
-10.945,-11.178,-12.133,-1.9802,-0.06472,-8.3162,-10.152,-3.0213,-3.0976,-1.9802,-0.06472,-8.8235,-0.89314,-5.817,-7.0352,-8.0265,-10.05,-7.0315,-3.0569,-3.7724,-2.7967
-8.9552,-10.168,-11.133,-2.9703,-0.06472,-8.3162,-10.152,-1.0509,-5.1178,-2.9703,-0.06472,-9.8039,1.9777,-0.91503,-3.0151,-5.0415,-7.0352,-5.0415,-4.0325,1.1057,1.1057
-5.9701,-7.138,-9.1333,-1.9802,-0.06472,-9.3471,-8.1218,-0.06568,-3.0976,-1.9802,-0.06472,-8.8235,6.7624,4.9673,1.005,-1.0614,-3.0151,-4.0464,-3.0569,5.0081,5.0081
-5.9701,-6.1279,-9.1333,-11.881,-2.0065,-9.3471,-7.1066,-3.0213,-2.0875,-11.881,-2.0065,-9.8039,7.7193,8.8889,2.0101,1.9237,0.0,-2.0564,-1.1057,6.9593,7.935
-4.9751,-7.138,-9.1333,-2.9703,-3.9482,-9.3471,-8.1218,-0.06568,-3.0976,-2.9703,-3.9482,-9.8039,8.6762,7.9085,3.0151,0.92869,0.0,1.9237,-2.0813,6.9593,5.0081
-3.9801,-6.1279,-7.1333,3.9604,-4.9191,-7.2852,-9.1371,1.9048,-1.0774,3.9604,-4.9191,-9.8039,10.59,9.8693,6.0302,0.92869,2.0101,1.9237,-4.0325,8.9106,3.0569
-3.9801,-7.138,-8.1333,-1.9802,-4.9191,-8.3162,-14.213,-3.0213,-7.138,-1.9802,-4.9191,-12.745,12.504,10.85,6.0302,1.9237,2.0101,5.9038,-4.0325,8.9106,4.0325
-6.9652,-11.178,-12.133,-6.9307,-4.9191,-9.3471,-15.228,-4.0066,-7.138,-6.9307,-4.9191,-16.667,9.6332,6.9281,1.005,-1.0614,-2.0101,4.9088,-3.0569,4.0325,3.0569
-7.9602,-10.168,-13.133,-6.9307,-3.9482,-11.409,-14.213,1.9048,-7.138,-6.9307,-3.9482,-16.667,2.9346,2.0261,-2.0101,-3.0514,-5.0251,3.9138,-2.0813,2.0813,1.1057
-6.9652,-8.1481,-12.133,-0.9901,-3.9482,-11.409,-12.183,5.8456,-4.1077,-0.9901,-3.9482,-14.706,-0.89314,-0.91503,-6.0302,-3.0514,-6.0302,0.92869,-1.1057,-0.84553,-0.84553
-5.9701,-8.1481,-9.1333,-0.9901,-2.9773,-8.3162,-10.152,4.8604,-6.1279,-0.9901,-2.9773,-11.765,0.0638,-0.91503,-4.0201,-4.0464,-5.0251,-3.0514,-3.0569,-0.84553,-1.8211
-3.9801,-9.1582,-7.1333,-0.9901,-4.9191,-5.2234,-8.1218,1.9048,-4.1077,-0.9901,-4.9191,-7.8431,1.0207,-0.91503,-1.005,-5.0415,-4.0201,-4.0464,-4.0325,-0.84553,-2.7967
-4.9751,-10.168,-6.1333,-0.9901,-3.9482,-2.1306,-10.152,-1.0509,-8.1481,-0.9901,-3.9482,-7.8431,1.9777,0.06536,0.0,-5.0415,-3.0151,-6.0365,-5.0081,1.1057,-2.7967
-5.9701,-11.178,-8.1333,0.9901,0.90615,-1.0997,-11.168,0.91954,-8.1481,0.9901,0.90615,-6.8627,1.9777,-2.8758,-3.0151,-7.0315,-6.0302,-8.0265,-6.9593,-0.84553,-4.748
-10.945,-12.189,-12.133,2.9703,0.90615,-4.1924,-9.1371,4.8604,-4.1077,2.9703,0.90615,-8.8235,-4.7209,-5.817,-9.0452,-9.0216,-10.05,-7.0315,-6.9593,-9.626,-7.6748
-12.935,-12.189,-15.133,4.9505,4.7896,-8.3162,-8.1218,3.8752,-2.0875,4.9505,4.7896,-7.8431,-10.463,-6.7974,-14.07,-9.0216,-13.065,-9.0216,-6.9593,-16.455,-6.6992
-8.9552,-8.1481,-10.133,6.9307,5.7605,-4.1924,-5.0761,6.8309,-1.0774,6.9307,5.7605,-4.902,-3.764,-2.8758,-8.0402,-5.0415,-8.0402,-5.0415,-3.0569,-8.6504,-3.7724
-4.9751,-5.1178,-5.1333,5.9406,0.90615,-1.0997,-1.0152,6.8309,2.963,5.9406,0.90615,-0.98039,1.9777,1.0458,-4.0201,-2.0564,-4.0201,-1.0614,-1.1057,-2.7967,-1.8211
-6.9652,-6.1279,-6.1333,1.9802,-0.06472,-0.06873,-1.0152,5.8456,0.94276,1.9802,-0.06472,-2.9412,-2.807,-2.8758,-5.0251,-4.0464,-5.0251,-2.0564,-3.0569,-3.7724,-4.748
-5.9701,-8.1481,-8.1333,1.9802,-0.06472,-1.0997,-6.0914,4.8604,-3.0976,1.9802,-0.06472,-4.902,-5.6778,-3.8562,-6.0302,-5.0415,-6.0302,2.9187,-10.862,-3.7724,-5.7236
-3.9801,-8.1481,-8.1333,-5.9406,-0.06472,-2.1306,-8.1218,4.8604,-7.138,-5.9406,-0.06472,-6.8627,-2.807,0.06536,-3.0151,-4.0464,-5.0251,10.879,-9.8862,-0.84553,-4.748
-2.9851,-6.1279,-7.1333,1.9802,0.90615,-0.06873,-6.0914,8.8013,-8.1481,1.9802,0.90615,-5.8824,1.0207,2.0261,0.0,-2.0564,-2.0101,5.9038,-5.9837,1.1057,-3.7724
2.9851,0.94276,-0.13333,9.901,2.8479,4.055,0.0,9.7865,-1.0774,9.901,2.8479,-1.9608,5.8054,6.9281,6.0302,5.9038,4.0201,1.9237,0.84553,2.0813,4.0325
1.99,-0.06734,-0.13333,7.9208,3.8188,-1.0997,-3.0457,6.8309,-0.06734,7.9208,3.8188,-2.9412,2.9346,4.9673,4.0201,4.9088,4.0201,-1.0614,-0.13008,-0.84553,4.0325
-0.99502,-6.1279,-3.1333,6.9307,4.7896,-2.1306,-6.0914,5.8456,-5.1178,6.9307,4.7896,-3.9216,-2.807,0.06536,-1.005,-0.06634,-1.005,-4.0464,-5.0081,-6.6992,-2.7967
-1.99,-6.1279,-3.1333,6.9307,1.877,0.9622,-6.0914,4.8604,-5.1178,6.9307,1.877,-2.9412,-2.807,-0.91503,0.0,-1.0614,-2.0101,-1.0614,-5.0081,-3.7724,-4.748
0.0,-7.138,-4.1333,7.9208,1.877,3.0241,-8.1218,2.89,-6.1279,7.9208,1.877,-1.9608,-1.8501,-2.8758,0.0,-2.0564,-4.0201,1.9237,-6.9593,-0.84553,-5.7236
2.9851,-3.0976,-1.1333,5.9406,2.8479,5.0859,-3.0457,10.772,0.94276,5.9406,2.8479,0.98039,1.0207,1.0458,3.0151,0.92869,0.0,6.8988,-5.0081,3.0569,-0.84553
0.0,-4.1077,-3.1333,4.9505,4.7896,3.0241,-2.0305,10.772,0.94276,4.9505,4.7896,0.0,0.0638,-1.8954,-1.005,-1.0614,-3.0151,5.9038,-4.0325,-1.8211,0.13008
-5.9701,-10.168,-9.1333,3.9604,1.877,-0.06873,-5.0761,0.91954,-3.0976,3.9604,1.877,-6.8627,-2.807,-3.8562,-4.0201,-6.0365,-7.0352,-1.0614,-14.764,-7.6748,-4.748
-7.9602,-12.189,-10.133,4.9505,-2.9773,-4.1924,-8.1218,-1.0509,-3.0976,4.9505,-2.9773,-9.8039,0.0638,-0.91503,-4.0201,-5.0415,-6.0302,-7.0315,-10.862,-2.7967,-2.7967
-10.945,-14.209,-12.133,-2.9703,-4.9191,-8.3162,-10.152,0.91954,-8.1481,-2.9703,-4.9191,-11.765,-1.8501,0.06536,-6.0302,-6.0365,-8.0402,-10.017,-6.9593,-2.7967,0.13008
-11.94,-16.229,-14.133,-2.9703,-2.9773,-10.378,-14.213,-0.06568,-7.138,-2.9703,-2.9773,-12.745,-2.807,-1.8954,-8.0402,-7.0315,-9.0452,-8.0265,-8.9106,-5.7236,-2.7967
-10.945,-15.219,-14.133,-1.9802,-2.9773,-8.3162,-13.198,-0.06568,-5.1178,-1.9802,-2.9773,-12.745,-3.764,-1.8954,-6.0302,-7.0315,-9.0452,-7.0315,-8.9106,-3.7724,-4.748
-7.9602,-13.199,-11.133,-0.9901,-4.9191,-7.2852,-10.152,-0.06568,-6.1279,-0.9901,-4.9191,-10.784,-1.8501,-2.8758,-3.0151,-4.0464,-5.0251,-5.0415,-6.9593,-2.7967,-5.7236
-7.9602,-13.199,-11.133,0.9901,-3.9482,-6.2543,-8.1218,1.9048,-18.249001,0.9901,-3.9482,-10.784,-2.807,-4.8366,-3.0151,-6.0365,-5.0251,-1.0614,-9.8862,-3.7724,-9.626
-4.9751,-11.178,-9.1333,-6.9307,-0.06472,-1.0997,-6.0914,4.8604,-10.168,-6.9307,-0.06472,-5.8824,-0.89314,-4.8366,-2.0101,-6.0365,-4.0201,-1.0614,-10.862,0.13008,-9.626
-3.9801,-8.1481,-6.1333,-1.9802,0.90615,-0.06873,-6.0914,5.8456,3.9731,-1.9802,0.90615,-5.8824,0.0638,-2.8758,0.0,-4.0464,-3.0151,-2.0564,-8.9106,0.13008,-7.6748
-3.9801,-4.1077,-4.1333,5.9406,0.90615,-2.1306,-4.0609,1.9048,0.94276,5.9406,0.90615,-3.9216,3.8915,1.0458,1.005,-0.06634,0.0,-1.0614,-5.0081,1.1057,-2.7967
-3.9801,-3.0976,-3.1333,4.9505,-0.06472,-1.0997,-4.0609,-4.9918,-1.0774,4.9505,-0.06472,-3.9216,3.8915,3.9869,0.0,2.9187,1.005,0.92869,-3.0569,1.1057,2.0813
-4.9751,-3.0976,-4.1333,3.9604,-2.9773,-1.0997,-2.0305,-2.0361,-3.0976,3.9604,-2.9773,-2.9412,-2.807,2.0261,-3.0151,1.9237,-1.005,-1.0614,-5.0081,-2.7967,4.0325
-1.99,-1.0774,-1.1333,7.9208,0.90615,-1.0997,0.0,4.8604,1.9529,7.9208,0.90615,-0.98039,-2.807,2.0261,-3.0151,2.9187,0.0,-2.0564,-3.0569,-6.6992,5.0081
-0.99502,0.94276,0.86667,7.9208,3.8188,-0.06873,1.0152,5.8456,4.9832,7.9208,3.8188,0.0,-2.807,1.0458,-1.005,2.9187,1.005,0.92869,1.8211,-4.748,2.0813
-1.99,0.94276,-1.1333,5.9406,4.7896,-0.06873,3.0457,2.89,1.9529,5.9406,4.7896,-0.98039,-1.8501,-0.91503,-3.0151,1.9237,-1.005,-2.0564,3.7724,-5.7236,0.13008
-2.9851,-0.06734,-3.1333,3.9604,5.7605,-0.06873,3.0457,4.8604,0.94276,3.9604,5.7605,-1.9608,0.0638,2.0261,-2.0101,1.9237,-1.005,-1.0614,5.7236,-2.7967,2.0813
-4.9751,-4.1077,-5.1333,4.9505,2.8479,0.9622,-1.0152,-0.06568,5.9933,4.9505,2.8479,-1.9608,1.9777,1.0458,-3.0151,-1.0614,-4.0201,-4.0464,2.7967,0.13008,1.1057
-3.9801,-3.0976,-3.1333,2.9703,3.8188,-0.06873,0.0,-3.0213,7.0034,2.9703,3.8188,-0.98039,6.7624,3.0065,2.0101,-1.0614,-1.005,-7.0315,1.8211,5.0081,-0.84553
-2.9851,-2.0875,-2.1333,2.9703,4.7896,-0.06873,2.0305,-1.0509,0.94276,2.9703,4.7896,0.98039,1.0207,-0.91503,-1.005,-3.0514,-1.005,-8.0265,-1.1057,0.13008,-3.7724
-4.9751,-6.1279,-5.1333,1.9802,1.877,1.9931,2.0305,0.91954,-3.0976,1.9802,1.877,0.0,-2.807,-3.8562,-3.0151,-6.0365,-4.0201,-5.0415,-5.0081,-1.8211,-5.7236
-1.99,-6.1279,-3.1333,3.9604,3.8188,3.0241,2.0305,-4.0066,-1.0774,3.9604,3.8188,2.9412,-4.7209,-4.8366,-3.0151,-5.0415,-4.0201,-2.0564,-4.0325,-6.6992,-5.7236
-0.99502,-3.0976,-1.1333,5.9406,4.7896,6.1168,3.0457,-2.0361,1.9529,5.9406,4.7896,3.9216,-10.463,-9.7386,-4.0201,-6.0365,-5.0251,-0.06634,-2.0813,-8.6504,-8.6504
-1.99,-3.0976,-2.1333,0.0,4.7896,5.0859,3.0457,3.8752,4.9832,0.0,4.7896,2.9412,-9.5056,-9.7386,-5.0251,-7.0315,-6.0302,0.92869,-3.0569,-7.6748,-7.6748
-3.9801,-5.1178,-4.1333,1.9802,4.7896,5.0859,-1.0152,5.8456,0.94276,1.9802,4.7896,0.98039,-6.6348,-6.7974,-4.0201,-6.0365,-6.0302,-2.0564,-5.0081,-4.748,-6.6992
-2.9851,-5.1178,-5.1333,10.891,4.7896,4.055,-2.0305,4.8604,-10.168,10.891,4.7896,0.98039,-5.6778,-4.8366,-5.0251,-6.0365,-6.0302,-5.0415,-8.9106,-8.6504,-6.6992
0.99502,-2.0875,-1.1333,10.891,1.877,7.1478,2.0305,4.8604,-0.06734,10.891,1.877,2.9412,-2.807,-3.8562,-2.0101,-3.0514,-3.0151,-2.0564,-10.862,-5.7236,-4.748
1.99,-5.1178,-2.1333,5.9406,0.90615,3.0241,0.0,0.91954,7.0034,5.9406,0.90615,0.98039,-2.807,-4.8366,-1.005,-4.0464,-3.0151,-3.0514,-7.935,-3.7724,-6.6992
0.99502,-7.138,-4.1333,2.9703,0.90615,-0.06873,-3.0457,1.9048,2.963,2.9703,0.90615,-3.9216,-3.764,-3.8562,-1.005,-4.0464,-2.0101,-0.06634,-5.9837,-3.7724,-6.6992
0.0,-7.138,-6.1333,0.9901,3.8188,-0.06873,-5.0761,5.8456,-1.0774,0.9901,3.8188,-6.8627,-4.7209,-4.8366,-1.005,-5.0415,-3.0151,2.9187,-5.9837,-2.7967,-8.6504
-2.9851,-6.1279,-7.1333,9.901,4.7896,3.0241,-4.0609,-4.0066,-3.0976,9.901,4.7896,-5.8824,-1.8501,-3.8562,-3.0151,-4.0464,-3.0151,0.92869,-3.0569,-2.7967,-6.6992
-4.9751,-5.1178,-6.1333,0.9901,1.877,-0.06873,-3.0457,-0.06568,0.94276,0.9901,1.877,-5.8824,-0.89314,-2.8758,-4.0201,-3.0514,-3.0151,-1.0614,-1.1057,-0.84553,-3.7724
-6.9652,-9.1582,-8.1333,-2.9703,-3.9482,-6.2543,-6.0914,9.7865,2.963,-2.9703,-3.9482,-7.8431,-5.6778,-6.7974,-7.0352,-7.0315,-7.0352,-2.0564,-4.0325,-2.7967,-5.7236
-8.9552,-9.1582,-9.1333,-1.9802,-6.8608,-5.2234,-7.1066,7.8161,-1.0774,-1.9802,-6.8608,-8.8235,-13.333,-10.719,-10.05,-9.0216,-9.0452,-3.0514,-4.0325,-13.528,-6.6992
-9.9502,-8.1481,-9.1333,0.0,-2.0065,-3.1615,-4.0609,1.9048,-2.0875,0.0,-2.0065,-3.9216,-18.118,-15.621,-14.07,-11.012,-12.06,-9.0216,-2.0813,-20.358,-7.6748
-6.9652,-5.1178,-6.1333,1.9802,1.877,-0.06873,0.0,-0.06568,-4.1077,1.9802,1.877,-0.98039,-15.247,-14.641,-11.055,-11.012,-10.05,-9.0216,-0.13008,-12.553,-8.6504
-0.99502,-0.06734,-0.13333,6.9307,4.7896,4.055,3.0457,4.8604,2.963,6.9307,4.7896,3.9216,-6.6348,-9.7386,-4.0201,-6.0365,-4.0201,-4.0464,-0.13008,-4.748,-5.7236
-3.9801,-2.0875,-2.1333,2.9703,1.877,4.055,1.0152,3.8752,7.0034,2.9703,1.877,1.9608,-9.5056,-9.7386,-5.0251,-7.0315,-6.0302,-1.0614,-2.0813,-6.6992,-8.6504
-3.9801,-1.0774,-1.1333,3.9604,3.8188,3.0241,3.0457,-3.0213,-0.06734,3.9604,3.8188,2.9412,-11.419,-9.7386,-7.0352,-6.0365,-6.0302,-2.0564,-5.9837,-8.6504,-6.6992
-1.99,1.9529,0.86667,5.9406,4.7896,9.2096,10.152,-3.0213,-11.178,5.9406,4.7896,5.8824,-7.5917,-5.817,-8.0402,-3.0514,-4.0201,-4.0464,-4.0325,-6.6992,-5.7236
-3.9801,-0.06734,-1.1333,3.9604,6.7314,9.2096,7.1066,1.9048,-3.0976,3.9604,6.7314,4.902,-10.463,-8.7582,-11.055,-4.0464,-6.0302,-6.0365,-3.0569,-13.528,-8.6504
-1.99,-0.06734,-1.1333,0.0,6.7314,3.0241,5.0761,6.8309,7.0034,0.0,6.7314,1.9608,-12.376,-9.7386,-9.0452,-4.0464,-6.0302,-6.0365,-3.0569,-15.48,-6.6992
1.99,1.9529,1.8667,2.9703,2.8479,3.0241,6.0914,2.89,11.044,2.9703,2.8479,2.9412,-6.6348,-7.7778,-3.0151,-2.0564,-3.0151,-5.0415,-0.13008,-8.6504,-4.748
4.9751,2.963,3.8667,7.9208,1.877,5.0859,9.1371,5.8456,13.064,7.9208,1.877,4.902,-1.8501,-5.817,1.005,-1.0614,0.0,-3.0514,1.8211,0.13008,-4.748
0.99502,-1.0774,-0.13333,7.9208,2.8479,4.055,4.0609,7.8161,9.0236,7.9208,2.8479,2.9412,-2.807,-5.817,-1.005,-3.0514,-3.0151,-6.0365,-3.0569,-0.84553,-5.7236
-5.9701,-6.1279,-6.1333,9.901,6.7314,1.9931,-2.0305,7.8161,1.9529,9.901,6.7314,-0.98039,-9.5056,-8.7582,-9.0452,-7.0315,-9.0452,-6.0365,-5.0081,-7.6748,-8.6504
-6.9652,-5.1178,-7.1333,9.901,8.6731,1.9931,0.0,6.8309,4.9832,9.901,8.6731,-0.98039,-9.5056,-5.817,-9.0452,-7.0315,-10.05,-4.0464,-4.0325,-7.6748,-6.6992
-6.9652,-4.1077,-7.1333,7.9208,4.7896,-0.06873,2.0305,1.9048,-2.0875,7.9208,4.7896,-0.98039,-10.463,-8.7582,-10.05,-7.0315,-10.05,-2.0564,-2.0813,-5.7236,-7.6748
-7.9602,-6.1279,-9.1333,5.9406,2.8479,-1.0997,1.0152,0.91954,-2.0875,5.9406,2.8479,-3.9216,-11.419,-12.68,-10.05,-10.017,-11.055,-1.0614,-1.1057,-8.6504,-10.602
-7.9602,-8.1481,-10.133,8.9109,4.7896,-0.06873,1.0152,4.8604,1.9529,8.9109,4.7896,-1.9608,-11.419,-14.641,-10.05,-13.002,-13.065,-2.0564,-1.1057,-11.577,-12.553
-5.9701,-3.0976,-6.1333,10.891,10.615,3.0241,6.0914,2.89,5.9933,10.891,10.615,1.9608,-7.5917,-10.719,-8.0402,-10.017,-10.05,-3.0514,2.7967,-5.7236,-9.626
-3.9801,0.94276,-4.1333,6.9307,8.6731,7.1478,9.1371,1.9048,5.9933,6.9307,8.6731,5.8824,-6.6348,-8.7582,-8.0402,-6.0365,-8.0402,-3.0514,5.7236,-3.7724,-4.748
-6.9652,-2.0875,-7.1333,0.9901,3.8188,5.0859,4.0609,0.91954,7.0034,0.9901,3.8188,0.98039,-7.5917,-9.7386,-9.0452,-7.0315,-10.05,-5.0415,5.7236,-3.7724,-3.7724
-7.9602,-6.1279,-11.133,0.9901,2.8479,-1.0997,0.0,-1.0509,4.9832,0.9901,2.8479,-3.9216,-9.5056,-9.7386,-10.05,-8.0265,-12.06,-6.0365,1.8211,-6.6992,-0.84553
-6.9652,-7.138,-10.133,1.9802,2.8479,-5.2234,1.0152,-1.0509,0.94276,1.9802,2.8479,-3.9216,-10.463,-7.7778,-8.0402,-7.0315,-10.05,-3.0514,-0.13008,-7.6748,-2.7967
-2.9851,-4.1077,-5.1333,4.9505,2.8479,-4.1924,4.0609,0.91954,2.963,4.9505,2.8479,0.0,-8.5486,-4.8366,-4.0201,-4.0464,-6.0302,-3.0514,-1.1057,-8.6504,-4.748
-3.9801,-2.0875,-4.1333,4.9505,7.7023,-0.06873,3.0457,3.8752,3.9731,4.9505,7.7023,0.98039,-6.6348,-3.8562,-5.0251,-3.0514,-4.0201,-6.0365,0.84553,-7.6748,-3.7724
-5.9701,-4.1077,-4.1333,0.0,7.7023,-0.06873,0.0,-0.06568,1.9529,0.0,7.7023,0.98039,-8.5486,-7.7778,-7.0352,-5.0415,-6.0302,-5.0415,0.84553,-7.6748,-7.6748
-2.9851,-1.0774,-2.1333,1.9802,4.7896,0.9622,3.0457,-4.0066,2.963,1.9802,4.7896,0.98039,-6.6348,-5.817,-4.0201,-3.0514,-3.0151,-0.06634,2.7967,-3.7724,-3.7724
0.0,2.963,0.86667,6.9307,5.7605,1.9931,4.0609,-5.977,3.9731,6.9307,5.7605,3.9216,-4.7209,-3.8562,-2.0101,-1.0614,0.0,0.92869,6.6992,-0.84553,0.13008
5.9701,5.9933,4.8667,7.9208,7.7023,6.1168,9.1371,3.8752,7.0034,7.9208,7.7023,9.8039,-0.89314,-2.8758,3.0151,0.92869,2.0101,4.9088,8.6504,2.0813,0.13008
11.94,13.064,11.867,0.9901,9.644,11.271,15.228,12.742,9.0236,0.9901,9.644,15.686,3.8915,0.06536,8.0402,3.9138,6.0302,7.8939,12.553,7.935,0.13008
10.945,13.064,10.867,7.9208,11.586,11.271,13.198,7.8161,5.9933,7.9208,11.586,14.706,1.0207,-1.8954,5.0251,2.9187,4.0201,4.9088,9.626,2.0813,0.13008
8.9552,10.034,8.8667,12.871,12.557,8.1787,8.1218,7.8161,2.963,12.871,12.557,10.784,0.0638,-0.91503,5.0251,2.9187,5.0251,2.9187,2.7967,-0.84553,2.0813
12.935,11.044,11.867,9.901,10.615,14.364,7.1066,5.8456,0.94276,9.901,10.615,11.765,3.8915,3.9869,8.0402,6.8988,8.0402,6.8988,1.8211,3.0569,5.0081
14.925,12.054,13.867,10.891,6.7314,13.333,6.0914,11.757,0.94276,10.891,6.7314,10.784,9.6332,9.8693,13.065,10.879,13.065,12.869,4.748,8.9106,8.9106
13.93,12.054,11.867,10.891,7.7023,8.1787,7.1066,12.742,4.9832,10.891,7.7023,8.8235,13.461,11.83,15.075,11.874,13.065,13.864,7.6748,13.789,9.8862
13.93,13.064,10.867,9.901,7.7023,5.0859,9.1371,7.8161,2.963,9.901,7.7023,6.8627,13.461,10.85,16.08,11.874,13.065,14.859,6.6992,18.667,11.837
14.925,13.064,12.867,9.901,9.644,5.0859,9.1371,2.89,5.9933,9.901,9.644,7.8431,13.461,10.85,16.08,13.864,14.07,17.844,9.626,18.667,14.764
13.93,13.064,12.867,7.9208,13.528,7.1478,10.152,4.8604,13.064,7.9208,13.528,7.8431,12.504,12.81,14.07,13.864,13.065,15.854,10.602,14.764,14.764
11.94,10.034,9.8667,6.9307,11.586,7.1478,7.1066,10.772,8.0135,6.9307,11.586,7.8431,6.7624,7.9085,9.0452,10.879,8.0402,12.869,10.602,7.935,12.813
10.945,12.054,10.867,2.9703,7.7023,9.2096,8.1218,12.742,7.0034,2.9703,7.7023,8.8235,1.9777,5.9477,8.0402,8.8889,7.0352,11.874,12.553,6.9593,12.813
10.945,12.054,10.867,5.9406,6.7314,7.1478,6.0914,3.8752,3.9731,5.9406,6.7314,7.8431,3.8915,6.9281,10.05,7.8939,7.0352,9.8839,9.626,8.9106,8.9106
10.945,11.044,11.867,6.9307,8.6731,6.1168,6.0914,4.8604,4.9832,6.9307,8.6731,7.8431,8.6762,9.8693,11.055,8.8889,8.0402,10.879,8.6504,12.813,8.9106
8.9552,8.0135,8.8667,5.9406,8.6731,4.055,5.0761,8.8013,8.0135,5.9406,8.6731,7.8431,4.8485,4.9673,8.0402,5.9038,6.0302,12.869,8.6504,7.935,6.9593
11.94,8.0135,9.8667,4.9505,7.7023,6.1168,7.1066,6.8309,0.94276,4.9505,7.7023,7.8431,2.9346,3.9869,9.0452,5.9038,7.0352,16.849001,6.6992,5.0081,5.0081
13.93,10.034,11.867,1.9802,3.8188,4.055,8.1218,4.8604,1.9529,1.9802,3.8188,7.8431,1.9777,3.0065,11.055,7.8939,10.05,14.859,7.6748,2.0813,4.0325
13.93,13.064,12.867,2.9703,5.7605,3.0241,9.1371,7.8161,11.044,2.9703,5.7605,8.8235,5.8054,4.9673,11.055,9.8839,11.055,10.879,11.577,4.0325,6.9593
10.945,13.064,11.867,4.9505,7.7023,3.0241,9.1371,-0.06568,12.054,4.9505,7.7023,7.8431,7.7193,6.9281,10.05,10.879,11.055,8.8889,11.577,7.935,8.9106
4.9751,10.034,6.8667,3.9604,10.615,-1.0997,7.1066,-4.9918,5.9933,3.9604,10.615,4.902,5.8054,3.9869,6.0302,8.8889,6.0302,0.92869,9.626,5.0081,6.9593
0.99502,7.0034,2.8667,0.9901,9.644,-4.1924,4.0609,-1.0509,5.9933,0.9901,9.644,0.98039,1.0207,0.06536,1.005,4.9088,2.0101,-2.0564,8.6504,2.0813,4.0325
1.99,8.0135,2.8667,-0.9901,6.7314,-4.1924,4.0609,0.91954,10.034,-0.9901,6.7314,0.98039,0.0638,1.0458,1.005,4.9088,2.0101,2.9187,10.602,1.1057,5.9837
0.0,4.9832,0.86667,-3.9604,-1.0356,-7.2852,2.0305,0.91954,4.9832,-3.9604,-1.0356,-3.9216,-0.89314,-0.91503,2.0101,1.9237,1.005,4.9088,7.6748,3.0569,3.0569
-0.99502,1.9529,-1.1333,-4.9505,-1.0356,-10.378,1.0152,-0.06568,-0.06734,-4.9505,-1.0356,-4.902,-0.89314,-4.8366,1.005,-1.0614,-2.0101,1.9237,2.7967,2.0813,1.1057
-3.9801,-3.0976,-5.1333,-16.832001,1.877,-9.3471,-3.0457,-3.0213,0.94276,-16.832001,1.877,-6.8627,-2.807,-5.817,-1.005,-4.0464,-5.0251,0.92869,-4.0325,-0.84553,-0.84553
0.0,-0.06734,-3.1333,-8.9109,2.8479,-6.2543,-3.0457,-3.0213,1.9529,-8.9109,2.8479,-3.9216,0.0638,-3.8562,1.005,-2.0564,-3.0151,2.9187,-0.13008,1.1057,2.0813
4.9751,4.9832,2.8667,6.9307,4.7896,-1.0997,4.0609,1.9048,2.963,6.9307,4.7896,0.98039,1.0207,-0.91503,4.0201,1.9237,2.0101,6.8988,5.7236,3.0569,3.0569
6.9652,7.0034,4.8667,9.901,4.7896,-0.06873,8.1218,4.8604,3.9731,9.901,4.7896,4.902,0.0638,1.0458,4.0201,3.9138,4.0201,4.9088,4.748,0.13008,3.0569
7.9602,9.0236,6.8667,9.901,5.7605,5.0859,11.168,6.8309,10.034,9.901,5.7605,6.8627,-0.89314,2.0261,3.0151,5.9038,6.0302,6.8988,5.7236,-0.84553,5.9837
10.945,13.064,11.867,8.9109,10.615,10.241,13.198,6.8309,13.064,8.9109,10.615,10.784,1.0207,3.9869,6.0302,8.8889,9.0452,8.8889,8.6504,1.1057,6.9593
9.9502,13.064,10.867,7.9208,10.615,8.1787,12.183,-0.06568,8.0135,7.9208,10.615,9.8039,1.9777,3.0065,6.0302,6.8988,7.0352,7.8939,9.626,3.0569,5.9837
6.9652,10.034,7.8667,9.901,8.6731,6.1168,9.1371,0.91954,7.0034,9.901,8.6731,6.8627,5.8054,1.0458,6.0302,4.9088,5.0251,8.8889,7.6748,6.9593,3.0569
7.9602,8.0135,6.8667,5.9406,7.7023,6.1168,9.1371,8.8013,-1.0774,5.9406,7.7023,5.8824,6.7624,1.0458,8.0402,4.9088,4.0201,6.8988,9.626,6.9593,3.0569
5.9701,7.0034,5.8667,4.9505,6.7314,5.0859,11.168,10.772,5.9933,4.9505,6.7314,6.8627,3.8915,1.0458,5.0251,2.9187,3.0151,4.9088,4.748,1.1057,4.0325
3.9801,3.9731,1.8667,6.9307,13.528,4.055,9.1371,5.8456,11.044,6.9307,13.528,5.8824,-1.8501,-2.8758,1.005,0.92869,0.0,4.9088,2.7967,-0.84553,3.0569
1.99,2.963,0.86667,3.9604,15.469,-1.0997,8.1218,1.9048,3.9731,3.9604,15.469,3.9216,-3.764,-1.8954,1.005,0.92869,-1.005,3.9138,5.7236,4.0325,3.0569
0.99502,3.9731,0.86667,3.9604,10.615,-3.1615,6.0914,-1.0509,7.0034,3.9604,10.615,3.9216,-3.764,-1.8954,-1.005,1.9237,-1.005,0.92869,6.6992,1.1057,2.0813
3.9801,7.0034,3.8667,3.9604,9.644,4.055,9.1371,-4.0066,16.094,3.9604,9.644,6.8627,-1.8501,0.06536,3.0151,3.9138,2.0101,1.9237,8.6504,2.0813,3.0569
4.9751,7.0034,4.8667,7.9208,8.6731,5.0859,12.183,-3.0213,12.054,7.9208,8.6731,8.8235,-2.807,-1.8954,2.0101,3.9138,2.0101,-2.0564,3.7724,-2.7967,4.0325
3.9801,5.9933,3.8667,3.9604,11.586,1.9931,10.152,2.89,9.0236,3.9604,11.586,7.8431,-2.807,-0.91503,3.0151,2.9187,2.0101,-1.0614,2.7967,0.13008,4.0325
4.9751,5.9933,3.8667,4.9505,9.644,0.9622,7.1066,1.9048,2.963,4.9505,9.644,6.8627,1.9777,0.06536,5.0251,3.9138,3.0151,2.9187,5.7236,4.0325,3.0569
4.9751,5.9933,4.8667,10.891,7.7023,7.1478,8.1218,0.91954,5.9933,10.891,7.7023,6.8627,0.0638,0.06536,5.0251,3.9138,4.0201,6.8988,6.6992,3.0569,1.1057
6.9652,7.0034,6.8667,4.9505,6.7314,7.1478,8.1218,1.9048,7.0034,4.9505,6.7314,8.8235,1.0207,1.0458,6.0302,4.9088,5.0251,8.8889,9.626,2.0813,0.13008
5.9701,8.0135,6.8667,0.9901,9.644,3.0241,12.183,0.91954,11.044,0.9901,9.644,8.8235,-0.89314,1.0458,5.0251,4.9088,5.0251,1.9237,11.577,3.0569,3.0569
1.99,5.9933,3.8667,3.9604,12.557,0.9622,12.183,2.89,19.125,3.9604,12.557,8.8235,-4.7209,-2.8758,1.005,1.9237,2.0101,-3.0514,8.6504,-3.7724,-1.8211
-0.99502,1.9529,-0.13333,2.9703,11.586,0.9622,9.1371,0.91954,11.044,2.9703,11.586,5.8824,-7.5917,-5.817,-3.0151,-1.0614,-3.0151,-6.0365,5.7236,-8.6504,-4.748
-3.9801,2.963,-1.1333,2.9703,9.644,-1.0997,7.1066,-4.0066,9.0236,2.9703,9.644,2.9412,-7.5917,-5.817,-5.0251,-1.0614,-4.0201,-7.0315,6.6992,-8.6504,-0.84553
-0.99502,2.963,-0.13333,-4.9505,6.7314,-0.06873,4.0609,-8.9327,8.0135,-4.9505,6.7314,0.98039,-7.5917,-3.8562,-5.0251,0.92869,-2.0101,-5.0415,8.6504,-8.6504,0.13008
-1.99,1.9529,-1.1333,0.9901,6.7314,0.9622,4.0609,-4.0066,9.0236,0.9901,6.7314,0.98039,-10.463,-4.8366,-5.0251,-0.06634,-3.0151,-4.0464,5.7236,-10.602,0.13008
-3.9801,2.963,-2.1333,5.9406,9.644,-5.2234,6.0914,-1.0509,0.94276,5.9406,9.644,1.9608,-8.5486,-4.8366,-7.0352,-0.06634,-4.0201,-3.0514,4.748,-10.602,-0.84553
-3.9801,2.963,-1.1333,2.9703,11.586,-6.2543,5.0761,-1.0509,1.9529,2.9703,11.586,1.9608,0.0638,0.06536,-3.0151,0.92869,-2.0101,-3.0514,4.748,-1.8211,0.13008
-0.99502,2.963,-0.13333,7.9208,11.586,-2.1306,7.1066,2.89,2.963,7.9208,11.586,3.9216,0.0638,-1.8954,0.0,-0.06634,-1.005,-4.0464,-3.0569,1.1057,0.13008
-4.9751,-2.0875,-3.1333,3.9604,7.7023,-5.2234,3.0457,-1.0509,-2.0875,3.9604,7.7023,-0.98039,-6.6348,-6.7974,-2.0101,-4.0464,-4.0201,-6.0365,-6.9593,-4.748,-5.7236
-6.9652,-5.1178,-5.1333,4.9505,5.7605,-6.2543,0.0,-5.977,2.963,4.9505,5.7605,-2.9412,-10.463,-10.719,-5.0251,-6.0365,-6.0302,-9.0216,-5.0081,-9.626,-10.602
-4.9751,-4.1077,-4.1333,5.9406,6.7314,-5.2234,-2.0305,-8.9327,4.9832,5.9406,6.7314,-3.9216,-9.5056,-9.7386,-4.0201,-4.0464,-4.0201,-8.0265,-2.0813,-8.6504,-7.6748
-4.9751,-3.0976,-5.1333,1.9802,5.7605,-7.2852,-3.0457,-12.874,2.963,1.9802,5.7605,-3.9216,-9.5056,-7.7778,-7.0352,-3.0514,-5.0251,-5.0415,0.84553,-12.553,-3.7724
-10.945,-6.1279,-9.1333,-7.9208,1.877,-12.44,-3.0457,-9.9179,3.9731,-7.9208,1.877,-6.8627,-11.419,-10.719,-12.06,-7.0315,-10.05,-11.012,-0.13008,-15.48,-8.6504
-9.9502,-5.1178,-8.1333,-4.9505,2.8479,-12.44,0.0,-3.0213,1.9529,-4.9505,2.8479,-3.9216,-7.5917,-8.7582,-10.05,-8.0265,-10.05,-14.992,4.748,-13.528,-7.6748
-6.9652,-2.0875,-5.1333,-3.9604,2.8479,-8.3162,1.0152,-4.0066,-0.06734,-3.9604,2.8479,-2.9412,-5.6778,-6.7974,-7.0352,-7.0315,-8.0402,-11.012,6.6992,-5.7236,-6.6992
-3.9801,-2.0875,-4.1333,-2.9703,0.90615,-6.2543,-2.0305,-3.0213,-4.1077,-2.9703,0.90615,-3.9216,-6.6348,-5.817,-5.0251,-5.0415,-6.0302,-7.0315,2.7967,-8.6504,-4.748
-5.9701,-3.0976,-5.1333,-0.9901,1.877,-5.2234,-3.0457,-0.06568,-3.0976,-0.9901,1.877,-4.902,-7.5917,-3.8562,-5.0251,-4.0464,-5.0251,-9.0216,-1.1057,-10.602,-5.7236
-6.9652,-5.1178,-6.1333,-2.9703,-0.06472,-6.2543,-4.0609,-2.0361,-0.06734,-2.9703,-0.06472,-5.8824,-8.5486,-6.7974,-7.0352,-5.0415,-6.0302,-7.0315,-2.0813,-11.577,-7.6748
-7.9602,-6.1279,-8.1333,-4.9505,-0.06472,-6.2543,-4.0609,-7.9475,-2.0875,-4.9505,-0.06472,-6.8627,-8.5486,-8.7582,-8.0402,-7.0315,-8.0402,-7.0315,-4.0325,-9.626,-7.6748
-10.945,-4.1077,-9.1333,-3.9604,-0.06472,-7.2852,-3.0457,-4.9918,-0.06734,-3.9604,-0.06472,-6.8627,-4.7209,-7.7778,-9.0452,-7.0315,-9.0452,-10.017,-1.1057,-7.6748,-7.6748
-14.925,-9.1582,-13.133,-0.9901,-2.0065,-8.3162,-6.0914,-4.9918,-0.06734,-0.9901,-2.0065,-8.8235,-9.5056,-11.699,-13.065,-12.007,-14.07,-13.997,-4.0325,-12.553,-11.577
-13.93,-10.168,-13.133,0.9901,0.90615,-10.378,-7.1066,-9.9179,0.94276,0.9901,0.90615,-9.8039,-11.419,-10.719,-12.06,-11.012,-13.065,-14.992,-2.0813,-11.577,-8.6504
-9.9502,-8.1481,-11.133,-2.9703,1.877,-11.409,-7.1066,-5.977,-2.0875,-2.9703,1.877,-8.8235,-7.5917,-9.7386,-8.0402,-10.017,-11.055,-11.012,-3.0569,-5.7236,-8.6504
-5.9701,-7.138,-7.1333,-8.9109,-2.9773,-12.44,-8.1218,-5.977,-6.1279,-8.9109,-2.9773,-9.8039,-1.8501,-5.817,-2.0101,-7.0315,-6.0302,-5.0415,-5.0081,-2.7967,-9.626
-9.9502,-9.1582,-7.1333,-6.9307,-2.0065,-12.44,-8.1218,-8.9327,-10.168,-6.9307,-2.0065,-8.8235,-5.6778,-6.7974,-8.0402,-8.0265,-7.0352,-6.0365,-7.935,-11.577,-10.602
-11.94,-6.1279,-6.1333,-5.9406,-2.0065,-7.2852,-4.0609,-4.0066,-10.168,-5.9406,-2.0065,-5.8824,-5.6778,-4.8366,-9.0452,-6.0365,-6.0302,-9.0216,-5.0081,-14.504,-7.6748
-8.9552,-3.0976,-3.1333,-3.9604,-0.06472,-4.1924,0.0,-3.0213,-7.138,-3.9604,-0.06472,-0.98039,-0.89314,-0.91503,-8.0402,-3.0514,-4.0201,-9.0216,0.84553,-12.553,-3.7724
-8.9552,-1.0774,-3.1333,-11.881,-0.06472,-4.1924,1.0152,-6.9622,2.963,-11.881,-0.06472,-1.9608,1.9777,3.0065,-8.0402,-3.0514,-3.0151,-13.997,1.8211,-13.528,-2.7967
-5.9701,-1.0774,-3.1333,-4.9505,-0.06472,-5.2234,0.0,-11.888,2.963,-4.9505,-0.06472,-0.98039,10.59,6.9281,-5.0251,-1.0614,-1.005,-11.012,0.84553,-6.6992,-1.8211
-3.9801,-1.0774,-3.1333,4.9505,0.90615,-2.1306,0.0,-6.9622,1.9529,4.9505,0.90615,-0.98039,13.461,8.8889,-1.005,-1.0614,0.0,-5.0415,-0.13008,-2.7967,-0.84553
-3.9801,-2.0875,-3.1333,1.9802,3.8188,-0.06873,0.0,-4.9918,3.9731,1.9802,3.8188,1.9608,9.6332,3.9869,-4.0201,-4.0464,-4.0201,-3.0514,-1.1057,-3.7724,-3.7724
-1.99,1.9529,-0.13333,7.9208,8.6731,5.0859,6.0914,1.9048,7.0034,7.9208,8.6731,5.8824,7.7193,4.9673,-2.0101,-1.0614,-2.0101,-3.0514,2.7967,-0.84553,1.1057
-2.9851,1.9529,0.86667,5.9406,6.7314,1.9931,7.1066,1.9048,5.9933,5.9406,6.7314,5.8824,3.8915,4.9673,-3.0151,0.92869,-1.005,-7.0315,1.8211,-4.748,3.0569
-2.9851,3.9731,1.8667,1.9802,5.7605,-0.06873,5.0761,-2.0361,1.9529,1.9802,5.7605,3.9216,2.9346,8.8889,-1.005,3.9138,2.0101,-6.0365,1.8211,-6.6992,5.0081
1.99,7.0034,5.8667,2.9703,7.7023,3.0241,6.0914,0.91954,-4.1077,2.9703,7.7023,5.8824,6.7624,10.85,3.0151,6.8988,6.0302,-0.06634,2.7967,-1.8211,5.0081
3.9801,5.9933,4.8667,2.9703,4.7896,5.0859,5.0761,0.91954,-3.0976,2.9703,4.7896,4.902,6.7624,8.8889,5.0251,6.8988,7.0352,2.9187,5.7236,2.0813,3.0569
6.9652,3.9731,5.8667,3.9604,5.7605,4.055,1.0152,0.91954,4.9832,3.9604,5.7605,4.902,3.8915,6.9281,7.0352,5.9038,7.0352,6.8988,4.748,1.1057,2.0813
5.9701,1.9529,5.8667,7.9208,8.6731,4.055,2.0305,0.91954,8.0135,7.9208,8.6731,5.8824,6.7624,5.9477,8.0402,3.9138,6.0302,5.9038,2.7967,5.0081,3.0569
0.0,1.9529,3.8667,0.0,5.7605,5.0859,4.0609,-3.0213,5.9933,0.0,5.7605,4.902,6.7624,6.9281,6.0302,1.9237,5.0251,-0.06634,5.7236,7.935,4.0325
-0.99502,2.963,3.8667,-2.9703,2.8479,6.1168,6.0914,-5.977,1.9529,-2.9703,2.8479,5.8824,6.7624,8.8889,4.0201,1.9237,3.0151,-1.0614,6.6992,5.0081,5.9837
1.99,4.9832,4.8667,0.9901,0.90615,7.1478,4.0609,1.9048,3.9731,0.9901,0.90615,6.8627,12.504,11.83,6.0302,3.9138,5.0251,-0.06634,5.7236,8.9106,7.935
3.9801,4.9832,4.8667,7.9208,0.90615,5.0859,2.0305,7.8161,8.0135,7.9208,0.90615,6.8627,6.7624,9.8693,3.0151,4.9088,3.0151,-0.06634,1.8211,5.9837,6.9593
2.9851,4.9832,4.8667,4.9505,3.8188,-0.06873,1.0152,5.8456,0.94276,4.9505,3.8188,2.9412,1.0207,7.9085,2.0101,4.9088,2.0101,5.9038,0.84553,2.0813,5.0081
4.9751,4.9832,5.8667,2.9703,6.7314,-1.0997,0.0,1.9048,2.963,2.9703,6.7314,1.9608,3.8915,6.9281,6.0302,6.8988,6.0302,5.9038,0.84553,3.0569,4.0325
7.9602,7.0034,9.8667,-6.9307,8.6731,6.1168,7.1066,3.8752,12.054,-6.9307,8.6731,5.8824,10.59,12.81,13.065,10.879,13.065,2.9187,5.7236,9.8862,6.9593
6.9652,5.9933,10.867,0.9901,11.586,9.2096,10.152,6.8309,11.044,0.9901,11.586,8.8235,13.461,12.81,11.055,8.8889,12.06,2.9187,8.6504,10.862,5.0081
-0.99502,-0.06734,4.8667,13.861,7.7023,6.1168,7.1066,7.8161,9.0236,13.861,7.7023,5.8824,4.8485,5.9477,3.0151,0.92869,4.0201,-1.0614,2.7967,5.0081,1.1057
-9.9502,-6.1279,-4.1333,11.881,5.7605,-1.0997,-1.0152,0.91954,-3.0976,11.881,5.7605,-0.98039,0.0638,2.0261,-6.0302,-5.0415,-5.0251,-6.0365,-3.0569,0.13008,0.13008
-9.9502,-7.138,-8.1333,4.9505,4.7896,-3.1615,-6.0914,-3.0213,-2.0875,4.9505,4.7896,-6.8627,1.9777,4.9673,-6.0302,-5.0415,-7.0352,-2.0564,-1.1057,6.9593,4.0325
-4.9751,-7.138,-8.1333,2.9703,-0.06472,-3.1615,-6.0914,-5.977,-1.0774,2.9703,-0.06472,-7.8431,1.9777,6.9281,-3.0151,-3.0514,-5.0251,2.9187,-1.1057,5.0081,4.0325
-0.99502,-6.1279,-5.1333,0.0,1.877,-2.1306,-6.0914,-1.0509,3.9731,0.0,1.877,-6.8627,1.9777,5.9477,0.0,-0.06634,-1.005,0.92869,-1.1057,3.0569,3.0569
0.0,-2.0875,-1.1333,-1.9802,-0.06472,-3.1615,-1.0152,3.8752,8.0135,-1.9802,-0.06472,-3.9216,2.9346,4.9673,2.0101,1.9237,2.0101,0.92869,0.84553,5.0081,1.1057
2.9851,2.963,4.8667,2.9703,3.8188,0.9622,3.0457,4.8604,8.0135,2.9703,3.8188,1.9608,1.9777,4.9673,3.0151,3.9138,4.0201,-1.0614,2.7967,4.0325,2.0813
7.9602,11.044,13.867,9.901,9.644,9.2096,7.1066,7.8161,8.0135,9.901,9.644,8.8235,4.8485,8.8889,8.0402,8.8889,9.0452,-1.0614,8.6504,5.9837,7.935
8.9552,12.054,14.867,11.881,6.7314,12.302,8.1218,4.8604,9.0236,11.881,6.7314,8.8235,7.7193,8.8889,9.0452,9.8839,10.05,0.92869,9.626,6.9593,7.935
2.9851,11.044,9.8667,0.9901,3.8188,6.1168,5.0761,2.89,9.0236,0.9901,3.8188,3.9216,3.8915,4.9673,5.0251,5.9038,6.0302,-0.06634,11.577,5.9837,5.0081
2.9851,9.0236,6.8667,-0.9901,3.8188,4.055,4.0609,3.8752,4.9832,-0.9901,3.8188,4.902,2.9346,5.9477,3.0151,4.9088,4.0201,-1.0614,9.626,6.9593,6.9593
5.9701,5.9933,5.8667,0.9901,1.877,5.0859,2.0305,4.8604,-8.1481,0.9901,1.877,1.9608,5.8054,8.8889,7.0352,4.9088,5.0251,3.9138,5.7236,9.8862,8.9106
6.9652,-0.06734,3.8667,1.9802,1.877,0.9622,-2.0305,-1.0509,-2.0875,1.9802,1.877,0.0,8.6762,7.9085,10.05,2.9187,5.0251,6.8988,1.8211,12.813,6.9593
6.9652,0.94276,5.8667,5.9406,6.7314,4.055,3.0457,-0.06568,12.054,5.9406,6.7314,1.9608,10.59,10.85,14.07,3.9138,8.0402,6.8988,1.8211,15.74,5.0081
4.9751,0.94276,6.8667,5.9406,4.7896,6.1168,6.0914,5.8456,9.0236,5.9406,4.7896,5.8824,5.8054,4.9673,8.0402,1.9237,5.0251,-1.0614,-1.1057,6.9593,-0.84553
