C3,C4,Cz,F1,F2,F3,F4,F7,F8,Fp1,Fp2,Fz,O1,O2,P3,P4,Pz,T3,T4,T5,T6
7.5197,-0.50794,5.2033,7.6651,8.5809,10.162,5.8537,7.0209,5.1133,7.6651,8.5809,9.085,1.9048,-6.4434,0.69841,-7.1197,-2.5765,-2.7053,-1.8325,1.9608,-5.9259
2.4645,-2.4127,3.252,5.7327,5.2805,6.9256,1.9512,5.0886,3.8188,5.7327,5.2805,5.1634,1.2698,-4.5295,0.06349,-2.589,0.0,-0.77295,-1.2006,0.0,-3.3494
-1.9589,1.3968,1.3008,3.8003,5.2805,4.9838,3.252,1.2238,3.8188,3.8003,5.2805,3.8562,1.2698,-0.70175,-1.8413,3.2362,1.9324,-2.7053,1.9589,-2.6144,2.4477
-2.5908,5.2063,1.9512,2.5121,5.9406,3.6893,3.252,-1.3527,3.1715,2.5121,5.9406,5.1634,0.63492,1.8501,-3.746,8.4142,3.2206,-7.8583,4.4866,-5.8824,4.38
-5.7504,8.381,3.252,0.57971,5.2805,1.1003,5.2033,-1.9968,4.466,0.57971,5.2805,6.4706,0.63492,3.764,-3.1111,12.298,5.153,-11.723,5.7504,-2.6144,5.6683
1.8325,10.921,6.5041,1.868,3.3003,0.45307,6.5041,-2.6409,6.4078,1.868,3.3003,7.7778,0.63492,6.9537,-1.2063,14.887,6.4412,-18.808001,5.1185,-7.1895,8.2448
-0.6951,14.095,9.7561,1.868,3.9604,0.45307,8.4553,-1.9968,7.055,1.868,3.9604,7.7778,-0.63492,8.8676,-3.746,14.887,7.0853,-11.079,8.91,-11.111,9.533
-6.3823,13.46,9.1057,-0.06441,3.3003,-1.4887,8.4553,-1.9968,7.7023,-0.06441,3.3003,6.4706,-1.2698,10.144,-4.381,13.592,5.7971,-6.57,11.438,-9.8039,10.177
-2.5908,8.381,6.5041,1.868,1.9802,1.7476,7.1545,-3.285,8.3495,1.868,1.9802,6.4706,-1.2698,9.5056,-1.8413,9.7087,2.5765,-7.8583,8.278,-7.8431,8.2448
5.624,7.746,8.4553,6.3768,8.5809,7.5728,10.407,1.2238,10.291,6.3768,8.5809,10.392,0.0,6.3158,1.3333,5.8252,1.9324,-5.9259,7.0142,-3.268,5.6683
6.2559,8.381,12.358,10.242,15.182,10.809,14.309,5.7327,11.586,10.242,15.182,14.314,0.0,2.488,2.6032,2.589,2.5765,-2.0612,5.1185,0.0,0.5153
6.8878,11.556,18.211,13.462,17.162001,15.34,19.511999,8.3092,12.88,13.462,17.162001,20.195999,0.63492,1.8501,4.5079,1.2945,5.7971,2.4477,5.7504,2.6144,-1.4171
10.047,14.095,23.415001,16.039,14.521,19.223,21.462999,10.242,11.586,16.039,14.521,24.118,1.9048,1.8501,5.1429,2.589,9.6618,3.7359,6.3823,0.65359,-2.0612
9.4155,16.0,22.764,16.683001,13.861,19.223,21.462999,10.886,9.644,16.683001,13.861,24.118,2.5397,1.2121,3.2381,3.8835,11.594,3.7359,1.9589,-3.268,-3.3494
11.943,16.635,20.163,12.174,14.521,16.634001,20.163,8.3092,8.9968,12.174,14.521,21.503,5.0794,2.488,7.6825,8.4142,14.815,1.8035,3.8547,0.0,-2.0612
14.471,12.19,16.910999,10.242,14.521,16.634001,17.561001,7.0209,8.3495,10.242,14.521,18.889,5.0794,3.126,10.222,11.003,14.815,5.0242,5.7504,3.268,0.5153
8.7836,5.8413,11.057,9.5974,9.901,10.809,11.057,8.3092,5.7605,9.5974,9.901,12.353,-0.63492,-1.3397,5.7778,8.4142,9.0177,5.6683,3.2227,0.0,-0.77295
4.9921,5.2063,6.5041,7.6651,1.9802,4.3366,4.5528,8.9533,1.877,7.6651,1.9802,5.1634,-1.9048,0.57416,3.873,10.356,6.4412,1.1594,3.2227,0.0,1.1594
-0.6951,4.5714,3.252,1.2238,-3.3003,-1.4887,-0.65041,2.5121,-1.3592,1.2238,-3.3003,-0.71895,-1.9048,3.764,0.69841,11.65,5.153,-1.4171,2.5908,-1.3072,5.0242
-9.5419,3.9365,-0.65041,-0.06441,-4.6205,-4.0777,-2.6016,3.8003,-2.6537,-0.06441,-4.6205,-3.3333,-1.9048,3.126,-0.57143,8.4142,1.9324,-0.12882,1.9589,1.9608,6.3124
-13.333,-1.1429,-7.1545,-2.6409,-5.9406,-6.6667,-5.2033,2.5121,-3.301,-2.6409,-5.9406,-6.6013,-5.7143,-2.6156,-6.9206,0.0,-5.153,1.1594,1.9589,-2.6144,4.38
-7.0142,-1.1429,-8.4553,-3.9291,-5.2805,-4.0777,-4.5528,-0.70853,-3.301,-3.9291,-5.2805,-5.2941,-10.159,-7.0813,-8.8254,-5.178,-10.306,2.4477,0.6951,-3.9216,0.5153
-5.7504,-3.6825,-8.4553,-1.3527,-3.9604,-3.4304,-5.8537,2.5121,-3.301,-1.3527,-3.9604,-5.2941,-14.603,-10.271,-10.095,-7.767,-14.171,3.7359,0.06319,-1.3072,-0.77295
-2.5908,-6.8571,-5.8537,3.1562,-1.3201,0.45307,-6.5041,3.8003,-2.6537,3.1562,-1.3201,-3.3333,-21.587,-13.461,-12.635,-11.003,-16.747,-0.12882,-0.56872,-4.5752,-3.3494
-5.7504,-10.032,-7.1545,5.7327,1.9802,0.45307,-7.8049,5.7327,-1.3592,5.7327,1.9802,-3.9869,-26.667,-16.013,-17.079,-15.534,-19.968,0.5153,-3.7283,-9.1503,-6.57
-7.0142,-12.571,-9.7561,7.6651,5.2805,-0.84142,-7.8049,7.6651,-2.0065,7.6651,5.2805,-5.2941,-27.937,-18.565001,-17.079,-20.712,-21.256001,3.0918,-8.1517,-10.458,-10.435
3.7283,-9.3968,-5.2033,6.3768,2.6403,3.0421,-3.252,7.0209,-2.0065,6.3768,2.6403,-2.6797,-24.127001,-18.565001,-8.1905,-20.065001,-15.459,1.1594,-6.2559,-5.8824,-9.7907
9.4155,-0.50794,3.252,4.4444,0.66007,6.9256,1.3008,9.5974,-2.0065,4.4444,0.66007,0.58824,-17.143,-15.375,-1.2063,-14.887,-5.7971,5.6683,-1.2006,-4.5752,-7.2142
10.679,5.2063,9.7561,1.2238,-3.9604,6.2783,0.65041,8.3092,-5.2427,1.2238,-3.9604,1.2418,-7.619,-8.9952,5.1429,-4.5307,5.153,8.2448,-1.2006,-1.9608,-4.6377
11.311,5.2063,12.358,1.2238,-7.9208,6.2783,-1.9512,7.6651,-7.1845,1.2238,-7.9208,1.2418,0.63492,-3.8915,10.222,3.2362,11.594,5.6683,-2.4645,1.9608,-1.4171
11.311,-0.50794,9.7561,4.4444,-1.9802,9.5146,-1.3008,8.9533,-7.1845,4.4444,-1.9802,4.5098,6.9841,-1.9777,10.222,4.5307,10.306,5.0242,-3.0964,3.9216,-0.77295
12.575,-4.3175,8.4553,6.3768,-2.6403,11.456,-1.9512,8.3092,-7.8317,6.3768,-2.6403,5.817,13.968,3.126,13.397,5.178,10.306,3.0918,-6.2559,7.8431,-0.12882
16.367001,-1.1429,9.7561,7.0209,-5.2805,12.104,0.0,7.0209,-6.5372,7.0209,-5.2805,7.1242,20.952,11.419,18.476,9.0615,13.527,-3.9936,-4.9921,13.725,3.7359
2.4645,1.3968,3.9024,0.57971,-5.9406,2.3948,-1.9512,1.2238,-5.2427,0.57971,-5.9406,0.58824,19.683001,15.247,11.492,11.003,10.95,-3.3494,3.8547,7.8431,9.533
-4.4866,7.1111,2.6016,-5.8615,-6.6007,-4.7249,-3.252,-4.5733,-3.301,-5.8615,-6.6007,-4.6405,15.873,19.075001,4.5079,15.534,9.6618,-2.7053,10.174,3.268,14.686
-7.6461,8.381,0.65041,-3.9291,-4.6205,-4.7249,-3.252,-5.8615,-1.3592,-3.9291,-4.6205,-5.9477,7.619,17.160999,-2.4762,12.945,4.5089,-3.3494,8.278,0.65359,14.686
-8.91,7.746,-0.65041,3.8003,1.3201,1.1003,2.6016,-0.70853,1.877,3.8003,1.3201,0.58824,-3.8095,10.144,-9.4603,4.5307,-4.5089,-1.4171,7.0142,-2.6144,10.177
-1.9589,-1.1429,-1.3008,12.174,9.2409,7.5728,6.5041,4.4444,6.4078,12.174,9.2409,7.7778,-13.968,0.57416,-10.73,-7.1197,-12.238,-0.12882,2.5908,-5.2288,4.38
7.5197,-5.5873,0.0,15.395,13.861,12.751,7.8049,4.4444,7.7023,15.395,13.861,11.699,-17.778,-4.5295,-5.6508,-12.945,-12.882,2.4477,1.327,-5.2288,-0.77295
8.7836,-2.4127,1.9512,11.53,9.901,11.456,5.8537,7.6651,5.1133,11.53,9.901,9.7386,-13.968,-3.2536,-0.57143,-9.0615,-5.7971,5.6683,1.9589,-2.6144,-1.4171
8.1517,3.3016,6.5041,9.5974,3.3003,9.5146,2.6016,10.886,1.877,9.5974,3.3003,7.7778,-4.4444,3.126,6.4127,2.589,4.5089,6.3124,1.9589,3.9216,1.1594
9.4155,7.1111,10.407,6.3768,-0.66007,9.5146,0.65041,10.242,-1.3592,6.3768,-0.66007,7.1242,5.7143,8.8676,9.5873,11.65,12.238,8.2448,2.5908,5.2288,4.38
18.893999,8.381,13.008,6.3768,1.9802,10.162,2.6016,7.6651,-2.0065,6.3768,1.9802,8.4314,13.968,10.781,16.570999,15.534,18.68,3.0918,-2.4645,9.8039,1.8035
14.471,10.286,11.057,10.242,7.9208,10.809,7.8049,12.174,-0.71197,10.242,7.9208,11.699,17.143,8.8676,17.205999,12.945,18.035,8.8889,-1.2006,12.418,-0.12882
2.4645,3.3016,5.2033,7.6651,6.6007,5.6311,7.1545,7.6651,-0.06472,7.6651,6.6007,10.392,17.143,6.3158,12.127,7.767,12.238,12.11,1.9589,10.458,-0.77295
-3.2227,0.12698,0.0,2.5121,1.9802,-2.1359,3.9024,1.2238,-0.71197,2.5121,1.9802,5.1634,18.413,6.9537,9.5873,5.8252,8.3736,5.6683,1.9589,11.111,-0.77295
-5.1185,3.9365,-3.252,-1.3527,-1.3201,-6.0194,0.0,-1.9968,-0.06472,-1.3527,-1.3201,-0.71895,17.778,8.8676,7.0476,7.1197,5.7971,0.5153,1.327,13.072,0.5153
-8.91,1.3968,-6.5041,-3.9291,-3.3003,-7.9612,-5.2033,-3.9291,-2.0065,-3.9291,-3.3003,-6.6013,11.429,7.5917,-0.57143,5.178,1.2882,-1.4171,2.5908,7.1895,1.8035
-2.5908,-1.7778,-5.8537,-3.9291,-5.2805,-5.3722,-6.5041,-3.9291,-3.301,-3.9291,-5.2805,-7.2549,4.4444,4.4019,-5.0159,1.9417,-1.9324,-0.12882,0.06319,1.3072,-0.77295
-1.327,-3.0476,-3.252,-1.3527,-2.6403,-3.4304,-2.6016,0.57971,-1.3592,-1.3527,-2.6403,-4.6405,0.0,1.8501,-5.6508,-0.64725,-3.8647,3.0918,-3.7283,1.3072,-2.7053
-1.9589,0.7619,-2.6016,0.57971,1.3201,-2.7832,-0.65041,1.868,-0.06472,0.57971,1.3201,-3.3333,-3.8095,0.57416,-5.0159,-1.9417,-5.7971,3.7359,-2.4645,2.6144,-2.7053
-6.3823,1.3968,-3.9024,-0.70853,0.0,-4.0777,-0.65041,1.2238,0.58252,-0.70853,0.0,-3.9869,-8.8889,-1.9777,-8.1905,-3.8835,-9.0177,1.1594,1.327,-1.9608,-2.0612
-0.6951,0.7619,-1.9512,-0.70853,-1.9802,-0.84142,-1.3008,-0.06441,1.877,-0.70853,-1.9802,-2.6797,-10.794,-3.8915,-7.5556,-5.178,-9.6618,-5.9259,0.6951,-3.9216,-2.7053
-1.327,-0.50794,-1.9512,3.1562,-1.3201,1.1003,-1.3008,3.1562,1.877,3.1562,-1.3201,-1.3725,-10.159,-7.0813,-5.0159,-7.1197,-8.3736,-0.12882,1.327,-2.6144,-3.3494
1.2006,-1.1429,0.65041,7.0209,2.6403,4.9838,-0.65041,8.9533,0.58252,7.0209,2.6403,0.58824,-5.0794,-6.4434,1.9683,-7.1197,-4.5089,7.6006,-2.4645,2.6144,-4.6377
7.5197,-2.4127,0.0,7.0209,2.6403,6.2783,0.0,6.3768,-2.0065,7.0209,2.6403,1.2418,-1.2698,-5.8054,5.7778,-7.767,-3.2206,5.6683,-4.3602,1.9608,-5.2818
-0.6951,-4.9524,-6.5041,3.8003,-0.66007,-0.19417,-1.3008,3.8003,-2.6537,3.8003,-0.66007,-2.6797,-0.63492,-7.0813,3.2381,-9.0615,-5.153,4.38,-3.7283,0.65359,-5.2818
-6.3823,-5.5873,-11.057,-0.06441,-3.3003,-3.4304,-2.6016,2.5121,-2.6537,-0.06441,-3.3003,-5.9477,0.0,-7.0813,1.9683,-9.0615,-6.4412,3.7359,-4.3602,0.65359,-4.6377
-1.9589,-1.1429,-7.8049,1.868,-1.3201,-0.19417,-0.65041,2.5121,-2.6537,1.868,-1.3201,-2.0261,1.9048,-3.8915,2.6032,-3.8835,-2.5765,1.1594,-1.8325,-0.65359,-2.7053
4.9921,0.7619,-1.9512,2.5121,-0.66007,5.6311,1.3008,2.5121,-0.71197,2.5121,-0.66007,2.549,3.8095,0.57416,3.2381,1.9417,3.2206,-1.4171,0.06319,0.65359,-0.12882
8.7836,2.6667,3.9024,5.0886,1.9802,6.9256,4.5528,3.1562,1.2298,5.0886,1.9802,6.4706,5.7143,3.764,5.7778,6.4725,8.3736,-3.3494,2.5908,3.9216,1.1594
3.0964,7.746,9.7561,4.4444,2.6403,4.9838,7.8049,4.4444,4.466,4.4444,2.6403,9.085,5.7143,5.6778,4.5079,10.356,11.594,4.38,1.327,3.268,1.1594
6.8878,11.556,18.211,7.0209,7.9208,8.2201,13.659,3.8003,7.7023,7.0209,7.9208,14.967,5.7143,7.5917,7.0476,13.592,16.103001,8.2448,6.3823,1.3072,3.0918
10.679,11.556,20.813,10.242,9.2409,9.5146,13.659,2.5121,7.7023,10.242,9.2409,16.275,5.7143,6.9537,12.127,12.945,17.391001,4.38,7.6461,4.5752,3.0918
8.7836,7.746,17.561001,9.5974,7.9208,10.162,10.407,3.1562,3.8188,9.5974,7.9208,14.967,3.8095,3.126,10.857,9.0615,12.882,5.0242,3.2227,4.5752,1.8035
2.4645,4.5714,9.7561,11.53,7.9208,9.5146,7.1545,2.5121,0.58252,11.53,7.9208,13.007,-3.1746,-5.1675,3.873,-0.64725,2.5765,1.1594,0.6951,2.6144,-1.4171
-3.2227,0.7619,1.3008,8.3092,6.6007,6.2783,4.5528,-1.9968,-0.71197,8.3092,6.6007,9.085,-10.794,-13.461,-6.2857,-11.003,-9.6618,-1.4171,-2.4645,-1.3072,-6.57
-11.438,-5.5873,-8.4553,0.57971,1.3201,-4.0777,-1.3008,-7.1498,-1.3592,0.57971,1.3201,-0.71895,-17.143,-18.565001,-13.905,-16.181,-17.391001,-6.57,-5.624,-5.8824,-10.435
-13.965,-7.4921,-11.057,-1.9968,-1.9802,-11.197,-2.6016,-7.7939,-0.71197,-1.9968,-1.9802,-5.9477,-15.873,-15.375,-13.27,-12.945,-16.103001,-9.7907,-3.0964,-5.8824,-6.57
-5.7504,-8.127,-10.407,-1.3527,0.0,-7.3139,-3.252,-6.5056,-0.06472,-1.3527,0.0,-6.6013,-12.063,-10.271,-10.73,-9.7087,-12.882,-13.011,-3.0964,-9.1503,-2.7053
-3.2227,-10.032,-9.7561,-1.3527,3.3003,-5.3722,-3.252,-5.2174,-0.71197,-1.3527,3.3003,-6.6013,-4.4444,-1.3397,-7.5556,-5.8252,-8.3736,-10.435,-2.4645,-8.4967,-0.12882
-9.5419,-6.8571,-7.8049,-3.285,3.9604,-6.6667,-4.5528,-4.5733,-0.06472,-3.285,3.9604,-7.9085,3.8095,8.8676,-5.6508,1.2945,-2.5765,-5.2818,1.9589,-3.268,5.0242
-12.07,-2.4127,-6.5041,-4.5733,-1.9802,-8.6084,-7.1545,-4.5733,-0.06472,-4.5733,-1.9802,-10.523,7.619,15.247,-5.6508,6.4725,1.2882,-5.9259,3.2227,-4.5752,6.9565
-1.9589,5.8413,-1.3008,-3.285,-1.9802,-6.6667,-5.8537,-6.5056,0.58252,-3.285,-1.9802,-9.8693,8.8889,19.075001,-1.8413,11.65,6.4412,-11.079,4.4866,-3.268,8.8889
-0.6951,5.2063,0.0,-1.3527,0.66007,-3.4304,-4.5528,-5.8615,1.877,-1.3527,0.66007,-7.2549,8.8889,18.437,-0.57143,12.298,8.3736,-6.57,5.7504,-1.3072,8.8889
-4.4866,0.12698,-3.9024,1.2238,0.66007,-2.1359,-3.252,0.57971,0.58252,1.2238,0.66007,-5.2941,7.619,14.609,0.69841,7.1197,5.7971,-0.77295,0.06319,5.2288,5.6683
-3.2227,-4.9524,-5.8537,3.1562,0.66007,1.1003,-3.9024,7.6651,-3.301,3.1562,0.66007,-3.3333,3.1746,7.5917,-1.2063,-0.64725,0.64412,7.6006,-3.0964,6.5359,-1.4171
4.9921,-7.4921,-1.3008,7.0209,0.0,7.5728,-3.252,15.395,-7.8317,7.0209,0.0,1.2418,-0.63492,1.8501,0.06349,-5.8252,-1.2882,14.042,-6.8878,9.1503,-7.8583
8.1517,-4.9524,2.6016,5.0886,-4.6205,6.2783,-3.9024,12.818,-9.7735,5.0886,-4.6205,0.58824,-1.2698,-1.9777,1.9683,-7.767,-1.9324,12.754,-10.047,12.418,-11.079
2.4645,-5.5873,2.6016,-1.9968,-8.5809,1.1003,-6.5041,2.5121,-10.421,-1.9968,-8.5809,-2.0261,-5.7143,-7.7193,-3.1111,-11.003,-5.7971,12.11,-11.311,6.5359,-11.079
-3.2227,-8.7619,0.65041,-3.9291,-7.9208,-0.19417,-7.1545,3.1562,-9.1262,-3.9291,-7.9208,-2.6797,-8.254,-12.185,-4.381,-14.887,-8.3736,10.821,-12.575,2.6144,-11.079
2.4645,-10.032,0.65041,-0.06441,-0.66007,4.3366,-1.3008,3.8003,-6.5372,-0.06441,-0.66007,2.549,-4.4444,-14.099,0.69841,-16.181,-7.7295,6.3124,-13.839,5.8824,-9.7907
-4.4866,-14.476,-9.7561,-1.3527,-1.3201,1.1003,-0.65041,-0.06441,-3.301,-1.3527,-1.3201,0.58824,-3.1746,-14.737,-3.1111,-17.476,-12.882,1.1594,-10.047,0.65359,-7.8583
-12.07,-16.381001,-22.114,-6.5056,-4.6205,-8.6084,-4.5528,-3.285,-2.0065,-6.5056,-4.6205,-7.9085,-1.2698,-12.185,-8.1905,-16.827999,-18.035,-3.3494,-4.9921,-5.2288,-3.9936
-8.91,-12.571,-23.415001,-11.659,-8.5809,-14.434,-11.057,-7.7939,-5.2427,-11.659,-8.5809,-15.752,3.8095,-5.1675,-6.2857,-11.003,-14.815,-7.8583,-1.8325,-4.5752,0.5153
-7.0142,-8.7619,-16.26,-14.235,-14.521,-15.081,-16.910999,-8.438,-9.7735,-14.235,-14.521,-19.673,13.333,6.3158,1.3333,0.64725,-3.2206,-5.9259,0.06319,1.9608,8.2448
1.8325,-0.50794,-5.2033,-14.879,-13.861,-11.197,-15.61,-11.659,-9.7735,-14.879,-13.861,-17.059,24.127001,17.799,13.397,12.945,12.238,-5.2818,2.5908,7.8431,14.686
-5.1185,1.3968,-3.252,-13.591,-13.861,-13.786,-13.659,-12.947,-8.479,-13.591,-13.861,-15.098,25.396999,19.712999,12.762,14.239,15.459,-2.7053,2.5908,7.8431,14.042
-8.278,-1.7778,-1.3008,-10.37,-9.901,-11.845,-8.4553,-13.591,-2.6537,-10.37,-9.901,-10.523,22.857,17.799,10.222,11.65,13.527,-2.0612,6.3823,7.8431,12.754
-6.3823,-3.0476,-1.3008,-5.8615,-4.6205,-6.6667,-3.9024,-9.0821,1.2298,-5.8615,-4.6205,-5.2941,17.143,12.057,4.5079,5.8252,7.7295,-3.3494,6.3823,3.268,10.177
-7.0142,-3.6825,-1.9512,-1.9968,0.0,-2.7832,-1.9512,-2.6409,1.2298,-1.9968,0.0,-2.0261,8.8889,4.4019,-2.4762,-2.589,0.64412,0.5153,0.06319,-1.3072,3.0918
-1.9589,-4.9524,0.0,3.1562,3.3003,3.0421,0.65041,3.1562,2.5243,3.1562,3.3003,1.8954,3.1746,-3.2536,-3.746,-8.4142,-4.5089,-0.12882,-1.8325,-0.65359,-2.0612
2.4645,-3.6825,0.0,5.7327,4.6205,6.2783,2.6016,7.0209,3.1715,5.7327,4.6205,3.8562,-1.2698,-9.6332,-3.1111,-14.239,-9.6618,3.0918,-3.0964,0.0,-6.57
8.7836,-0.50794,-1.3008,2.5121,6.6007,4.3366,5.8537,2.5121,7.7023,2.5121,6.6007,4.5098,-6.3492,-16.013,-2.4762,-17.476,-15.459,-3.3494,-1.8325,-3.268,-8.5024
-0.06319,2.0317,-10.407,1.868,10.561,0.45307,8.4553,-0.06441,10.939,1.868,10.561,3.2026,-13.333,-21.754,-7.5556,-21.358999,-22.544001,-7.8583,0.6951,-7.1895,-10.435
-6.3823,-4.3175,-19.511999,5.7327,9.901,-0.84142,5.2033,1.2238,8.9968,5.7327,9.901,1.2418,-19.048,-26.219999,-14.54,-25.243,-28.341,-4.6377,0.06319,-13.725,-11.723
-8.91,-11.302,-21.462999,7.0209,8.5809,-0.84142,2.6016,2.5121,4.466,7.0209,8.5809,0.58824,-21.587,-26.219999,-17.714001,-25.889999,-28.341,-2.0612,-2.4645,-16.993,-11.723
-0.6951,-7.4921,-11.707,7.0209,11.881,7.5728,7.1545,3.1562,5.1133,7.0209,11.881,7.1242,-18.413,-17.927,-13.27,-17.476,-18.035,-0.77295,-1.2006,-13.072,-7.8583
4.3602,-2.4127,-0.65041,7.6651,13.201,10.809,11.707,8.9533,7.055,7.6651,13.201,12.353,-12.698,-8.3573,-6.9206,-5.8252,-5.7971,1.8035,1.327,-9.8039,-1.4171
9.4155,4.5714,9.1057,9.5974,10.561,12.104,13.659,12.174,7.055,9.5974,10.561,13.66,-6.3492,0.57416,3.2381,6.4725,8.3736,3.7359,6.3823,-5.2288,4.38
20.790001,15.365,20.163,8.9533,11.881,15.34,17.561001,7.6651,9.644,8.9533,11.881,16.927999,3.1746,10.144,16.570999,21.358999,23.833,6.3124,10.806,1.3072,10.821
27.108999,24.889,26.016001,10.242,13.201,16.634001,18.862,5.0886,12.233,10.242,13.201,17.582001,9.5238,17.799,25.459999,33.009998,34.783001,2.4477,14.597,6.5359,15.974
23.318001,31.872999,27.966999,7.0209,10.561,13.398,18.211,3.1562,12.233,7.0209,10.561,16.275,10.159,20.989,23.556,36.893002,36.070999,0.5153,16.493,1.9608,17.907
17.629999,26.794001,26.016001,2.5121,3.9604,9.5146,11.057,1.2238,9.644,2.5121,3.9604,11.046,8.8889,20.989,18.476,36.893002,34.783001,2.4477,15.861,-1.3072,17.907
15.735,20.444,21.462999,-0.70853,-0.66007,7.5728,3.9024,-0.06441,6.4078,-0.70853,-0.66007,7.1242,5.7143,17.160999,13.397,33.009998,30.274,2.4477,10.806,-1.9608,14.042
11.311,16.635,16.26,-2.6409,-1.3201,4.9838,1.3008,-0.70853,5.7605,-2.6409,-1.3201,5.1634,1.9048,11.419,7.6825,25.889999,22.544001,1.1594,12.07,-3.268,11.465
9.4155,10.286,11.057,-3.9291,-1.3201,2.3948,0.0,-7.1498,5.1133,-3.9291,-1.3201,3.8562,-4.4444,3.126,0.06349,13.592,12.882,-5.2818,10.174,-6.5359,6.9565
-0.06319,4.5714,2.6016,-6.5056,-3.3003,-4.7249,-1.3008,-9.0821,4.466,-6.5056,-3.3003,-0.06536,-10.159,-4.5295,-7.5556,1.2945,1.9324,-12.367,4.4866,-11.111,1.8035
-17.125,-4.3175,-8.4553,-10.37,-6.6007,-12.492,-6.5041,-9.0821,3.1715,-10.37,-6.6007,-7.9085,-14.603,-8.9952,-18.349001,-9.7087,-10.306,-11.723,1.9589,-13.072,-1.4171
-21.548,-12.571,-14.959,-11.014,-9.901,-15.728,-11.707,-11.014,-2.6537,-11.014,-9.901,-12.484,-19.048,-12.185,-25.333,-19.417,-22.544001,-13.655,-6.2559,-13.725,-4.6377
-25.34,-20.825001,-19.511999,-10.37,-11.881,-18.964001,-16.26,-9.7262,-5.89,-10.37,-11.881,-15.752,-22.857,-13.461,-29.778,-24.594999,-30.274,-9.7907,-6.8878,-15.686,-5.9259
-26.603001,-24.635,-25.365999,-11.659,-12.541,-21.552999,-18.211,-8.438,-7.8317,-11.659,-12.541,-19.673,-24.127001,-14.737,-29.778,-26.537001,-33.493999,-9.1465,-4.9921,-16.34,-5.9259
-23.444,-23.365,-31.219999,-14.879,-15.182,-22.201,-19.511999,-9.7262,-9.1262,-14.879,-15.182,-22.941,-23.492001,-15.375,-25.968,-25.243,-32.849998,-7.8583,-4.9921,-13.725,-7.2142
-16.493,-20.190001,-29.919001,-15.523,-14.521,-18.964001,-16.26,-8.438,-9.7735,-15.523,-14.521,-20.327,-19.048,-13.461,-18.349001,-21.358999,-27.052999,-1.4171,-6.2559,-9.8039,-5.9259
-8.278,-17.650999,-23.415001,-12.947,-12.541,-15.728,-15.61,-7.7939,-11.068,-12.947,-12.541,-17.712,-13.333,-8.3573,-11.365,-14.239,-19.323999,0.5153,-8.1517,-5.2288,-4.6377
-3.2227,-15.746,-14.959,-9.0821,-11.881,-11.845,-13.008,-5.8615,-10.421,-9.0821,-11.881,-13.137,-7.619,-2.6156,-5.6508,-8.4142,-11.594,0.5153,-9.4155,-0.65359,-2.7053
0.56872,-10.667,-5.2033,-7.1498,-8.5809,-7.9612,-7.8049,-2.6409,-9.7735,-7.1498,-8.5809,-7.9085,-1.9048,1.2121,-1.2063,-3.2362,-3.8647,0.5153,-11.943,-0.65359,-1.4171
10.047,1.3968,4.5528,-3.9291,-3.3003,-2.7832,1.3008,-0.06441,-7.8317,-3.9291,-3.3003,-0.71895,5.0794,5.6778,6.4127,4.5307,6.4412,-0.12882,-9.4155,1.3072,1.1594
11.311,3.3016,6.5041,-1.3527,-1.3201,1.7476,4.5528,3.1562,-5.2427,-1.3527,-1.3201,1.8954,8.254,7.5917,8.9524,9.0615,10.95,3.0918,-4.3602,4.5752,1.1594
-0.6951,3.3016,3.252,-1.3527,-1.9802,-0.84142,2.6016,3.1562,-4.5955,-1.3527,-1.9802,1.2418,7.619,7.5917,3.873,11.65,10.306,5.0242,-2.4645,2.6144,0.5153
-7.0142,6.4762,1.9512,-2.6409,-1.9802,-4.7249,1.3008,1.868,-4.5955,-2.6409,-1.9802,-0.06536,8.254,7.5917,0.06349,13.592,9.0177,-0.12882,-2.4645,3.268,1.8035
-10.806,5.8413,-1.3008,-2.6409,-3.3003,-4.0777,0.0,-0.06441,-2.6537,-2.6409,-3.3003,-0.06536,5.7143,5.6778,-6.9206,12.298,3.2206,-1.4171,1.327,0.0,3.7359
-8.91,5.8413,2.6016,-1.3527,-6.6007,0.45307,0.65041,4.4444,-2.0065,-1.3527,-6.6007,1.8954,5.0794,3.764,-7.5556,9.0615,1.2882,1.8035,2.5908,0.65359,3.0918
3.7283,4.5714,10.407,-3.285,-6.6007,2.3948,-1.9512,1.868,-5.89,-3.285,-6.6007,1.2418,8.254,3.126,1.3333,4.5307,4.5089,1.8035,-2.4645,4.5752,-1.4171
6.2559,-4.9524,5.8537,-5.8615,-9.901,-2.1359,-7.8049,-0.06441,-9.7735,-5.8615,-9.901,-3.9869,7.619,-0.0638,3.873,-3.2362,1.9324,6.3124,-4.3602,3.9216,-3.9936
7.5197,-12.571,-2.6016,-6.5056,-12.541,-3.4304,-10.407,-0.06441,-10.421,-6.5056,-12.541,-7.9085,5.0794,-2.6156,3.873,-11.003,-3.8647,6.3124,-4.9921,5.2288,-5.9259
5.624,-13.841,-11.707,-3.9291,-8.5809,-2.7832,-8.4553,1.2238,-11.715,-3.9291,-8.5809,-7.2549,2.5397,-2.6156,2.6032,-14.887,-9.0177,3.7359,-6.8878,5.2288,-7.2142
-1.9589,-11.937,-13.659,-3.9291,-6.6007,-6.0194,-6.5041,0.57971,-10.421,-3.9291,-6.6007,-7.2549,1.2698,-1.3397,0.06349,-13.592,-10.95,3.0918,-7.5197,2.6144,-5.2818
-0.06319,-6.2222,-5.2033,-4.5733,-7.2607,-4.7249,-3.9024,-1.9968,-8.479,-4.5733,-7.2607,-5.2941,0.63492,-0.0638,2.6032,-7.1197,-6.4412,-0.12882,-4.9921,1.9608,-1.4171
3.7283,-0.50794,3.9024,-5.2174,-7.2607,-3.4304,-3.252,-2.6409,-7.1845,-5.2174,-7.2607,-3.3333,1.9048,3.764,6.4127,0.64725,0.0,-2.0612,-1.2006,4.5752,3.0918
1.2006,2.6667,4.5528,-4.5733,-7.9208,-6.0194,-3.9024,-2.6409,-9.1262,-4.5733,-7.9208,-3.9869,1.9048,5.0399,5.7778,5.178,3.2206,-0.77295,-1.2006,-0.65359,6.3124
-0.06319,0.7619,1.9512,-1.3527,-5.2805,-3.4304,-3.252,-1.3527,-8.479,-1.3527,-5.2805,-3.3333,4.4444,4.4019,7.0476,5.178,3.8647,1.8035,-2.4645,0.0,4.38
1.2006,0.12698,1.9512,0.57971,-3.3003,1.7476,-0.65041,0.57971,-7.1845,0.57971,-3.3003,-0.06536,10.794,3.764,10.857,3.8835,6.4412,6.3124,-4.9921,9.1503,-0.12882
1.8325,1.3968,1.9512,1.868,-3.3003,2.3948,-0.65041,1.2238,-7.8317,1.868,-3.3003,1.2418,16.507999,3.764,11.492,5.178,9.0177,4.38,-4.3602,11.765,-0.77295
4.3602,2.6667,6.5041,2.5121,-2.6403,4.9838,0.65041,-0.06441,-5.2427,2.5121,-2.6403,3.2026,21.587,5.0399,13.397,8.4142,13.527,5.0242,-3.0964,15.686,-0.12882
9.4155,5.2063,10.407,3.8003,1.3201,5.6311,3.252,-1.3527,-0.71197,3.8003,1.3201,4.5098,24.761999,5.6778,15.302,11.003,17.391001,1.1594,-1.2006,16.993,0.5153
1.8325,3.9365,7.1545,5.7327,4.6205,4.3366,3.252,1.868,1.2298,5.7327,4.6205,4.5098,24.127001,5.6778,13.397,10.356,16.103001,-0.77295,1.327,17.646999,0.5153
0.56872,7.746,7.8049,8.3092,7.9208,5.6311,7.1545,3.8003,2.5243,8.3092,7.9208,8.4314,20.952,6.3158,9.5873,10.356,14.171,1.8035,1.327,10.458,0.5153
6.2559,9.0159,10.407,8.3092,8.5809,7.5728,9.7561,2.5121,7.055,8.3092,8.5809,11.046,17.778,6.9537,10.222,11.65,14.815,3.0918,5.7504,7.1895,2.4477
3.7283,6.4762,9.1057,1.868,5.9406,3.6893,6.5041,-1.9968,7.055,1.868,5.9406,5.817,12.698,5.6778,10.222,10.356,12.882,-0.77295,5.7504,5.8824,2.4477
3.0964,6.4762,9.7561,-1.9968,1.9802,0.45307,3.252,-6.5056,6.4078,-1.9968,1.9802,1.2418,8.254,6.9537,9.5873,11.65,11.594,-5.9259,6.3823,2.6144,4.38
2.4645,5.8413,9.7561,-0.70853,1.9802,0.45307,3.9024,-5.8615,7.055,-0.70853,1.9802,1.2418,3.8095,6.9537,6.4127,9.7087,8.3736,-7.2142,5.1185,0.0,5.0242
10.047,7.1111,10.407,1.2238,5.9406,6.2783,7.8049,-4.5733,10.291,1.2238,5.9406,5.1634,0.63492,6.9537,5.1429,6.4725,5.7971,-9.7907,6.3823,-1.3072,6.3124
5.624,7.1111,6.5041,0.57971,7.2607,4.3366,9.1057,-6.5056,10.939,0.57971,7.2607,4.5098,1.2698,6.9537,4.5079,2.589,1.9324,-10.435,4.4866,1.3072,5.6683
-4.4866,2.6667,0.0,-1.9968,2.6403,-1.4887,3.9024,-3.9291,7.055,-1.9968,2.6403,-0.06536,1.9048,3.764,1.3333,-1.2945,-0.64412,-3.9936,4.4866,-1.3072,3.7359
-5.1185,3.3016,-4.5528,-3.9291,-3.3003,-1.4887,-0.65041,-0.06441,3.1715,-3.9291,-3.3003,-3.9869,1.2698,2.488,1.3333,-1.2945,-0.64412,1.1594,5.1185,-1.9608,3.7359
-2.5908,2.0317,-9.7561,-5.8615,-7.2607,-3.4304,-7.1545,-1.9968,-0.06472,-5.8615,-7.2607,-8.5621,1.2698,3.126,1.9683,1.9417,-1.2882,-3.3494,3.2227,0.0,4.38
-5.7504,-3.6825,-13.659,-7.1498,-7.2607,-4.7249,-9.1057,-1.9968,0.58252,-7.1498,-7.2607,-9.8693,-0.63492,1.8501,-1.2063,1.2945,-3.8647,-0.12882,5.7504,0.0,6.3124
-8.91,-5.5873,-14.959,-3.285,1.9802,-2.7832,-1.9512,-1.9968,7.055,-3.285,1.9802,-5.2941,-7.619,-5.1675,-6.9206,-5.8252,-10.306,0.5153,5.1185,-1.9608,3.0918
-7.6461,-3.0476,-10.407,3.8003,11.221,3.0421,11.057,0.57971,15.469,3.8003,11.221,5.1634,-15.238,-13.461,-12.0,-12.298,-15.459,-2.0612,3.2227,-7.1895,-3.9936
-3.2227,0.7619,-0.65041,8.9533,13.861,10.162,16.26,3.8003,18.705999,8.9533,13.861,11.699,-16.507999,-14.737,-10.73,-9.7087,-11.594,-2.0612,7.0142,-7.8431,-5.2818
-3.2227,4.5714,3.9024,5.0886,11.221,5.6311,11.707,2.5121,15.469,5.0886,11.221,7.7778,-13.968,-14.099,-5.6508,-5.8252,-5.153,-2.7053,7.0142,-5.8824,-4.6377
-1.9589,6.4762,5.8537,-5.8615,1.3201,-6.0194,2.6016,-5.2174,9.644,-5.8615,1.3201,-1.3725,-8.8889,-10.909,0.06349,0.0,1.2882,-3.9936,6.3823,-4.5752,-1.4171
-5.1185,7.746,1.3008,-12.303,-8.5809,-12.492,-7.8049,-7.1498,1.2298,-12.303,-8.5809,-11.83,-5.0794,-10.271,1.3333,1.9417,3.8647,-1.4171,3.8547,-1.9608,-2.0612
-7.6461,4.5714,-1.9512,-10.37,-7.2607,-11.197,-11.057,-6.5056,-0.71197,-10.37,-7.2607,-13.137,-3.1746,-8.3573,-0.57143,1.9417,3.2206,-0.77295,3.8547,0.65359,-3.9936
-8.278,3.3016,-2.6016,-10.37,-4.6205,-9.2557,-9.1057,-6.5056,0.58252,-10.37,-4.6205,-10.523,-1.9048,-5.1675,-4.381,1.9417,0.64412,-2.7053,1.327,0.0,-3.9936
-8.91,2.0317,-2.6016,-11.014,-4.6205,-7.9612,-7.1545,-3.9291,0.58252,-11.014,-4.6205,-7.9085,-2.5397,-3.8915,-8.1905,-2.589,-3.2206,-0.12882,0.06319,-1.3072,-4.6377
-5.7504,-4.9524,-0.65041,-9.0821,-5.2805,-6.0194,-7.1545,-2.6409,-0.71197,-9.0821,-5.2805,-5.9477,-2.5397,-2.6156,-8.1905,-7.1197,-5.7971,2.4477,-1.8325,-1.9608,-5.2818
-3.2227,-12.571,-2.6016,-9.0821,-3.9604,-6.6667,-7.8049,-3.285,-4.5955,-9.0821,-3.9604,-5.9477,-3.1746,-1.3397,-5.6508,-11.65,-8.3736,1.8035,-7.5197,-0.65359,-7.2142
-1.9589,-15.111,-6.5041,-5.8615,-3.9604,-6.6667,-8.4553,-2.6409,-6.5372,-5.8615,-3.9604,-7.2549,-6.3492,-1.3397,-5.0159,-11.65,-10.306,3.0918,-11.943,-1.9608,-7.2142
7.5197,-10.032,-5.8537,-1.9968,-3.9604,1.1003,-3.9024,-0.06441,-5.89,-1.9968,-3.9604,-3.3333,-7.619,-1.3397,0.69841,-7.767,-8.3736,4.38,-10.679,2.6144,-5.9259
7.5197,-6.2222,-7.8049,-1.9968,-3.9604,1.7476,-1.9512,3.1562,-4.5955,-1.9968,-3.9604,-1.3725,-10.794,-0.70175,-0.57143,-5.178,-9.0177,3.7359,-10.047,-2.6144,-3.9936
1.2006,-1.7778,-3.9024,1.868,1.3201,3.6893,5.8537,8.3092,0.58252,1.868,1.3201,5.817,-10.794,1.2121,-5.6508,-1.2945,-8.3736,4.38,-2.4645,-7.1895,1.1594
3.7283,7.746,9.7561,4.4444,7.9208,10.809,16.26,5.7327,6.4078,4.4444,7.9208,16.275,-6.9841,1.2121,-5.6508,2.589,-3.8647,2.4477,5.7504,-5.2288,5.0242
16.997999,16.635,24.715,5.7327,11.881,14.693,23.415001,1.2238,8.9968,5.7327,11.881,21.503,3.1746,5.6778,4.5079,9.7087,9.0177,-1.4171,9.5419,0.65359,8.8889
14.471,16.0,27.966999,2.5121,3.9604,9.5146,16.26,3.1562,4.466,2.5121,3.9604,14.314,14.603,10.144,15.937,14.887,21.256001,6.3124,7.0142,8.4967,9.533
10.679,12.825,24.065001,-1.9968,-1.9802,2.3948,7.8049,0.57971,-0.06472,-1.9968,-1.9802,5.817,24.127001,13.971,25.459999,17.476,29.629999,10.177,3.8547,14.379,8.2448
15.735,11.556,20.813,-0.06441,-0.66007,3.0421,5.2033,-0.70853,-0.71197,-0.06441,-0.66007,3.2026,28.570999,16.523001,30.540001,20.065001,33.493999,8.8889,3.2227,15.686,6.9565
13.207,14.73,15.61,1.2238,5.9406,3.0421,5.2033,-1.3527,1.2298,1.2238,5.9406,3.2026,25.396999,15.885,26.094999,18.77,29.629999,5.6683,2.5908,11.111,6.3124
13.839,13.46,15.61,2.5121,11.221,6.9256,8.4553,-3.285,7.7023,2.5121,11.221,7.1242,20.316999,14.609,20.381001,17.476,23.833,-3.3494,5.1185,7.8431,5.6683
2.4645,8.381,13.008,3.1562,9.2409,8.2201,9.1057,-1.9968,10.939,3.1562,9.2409,9.085,12.698,10.781,7.6825,12.945,14.171,-4.6377,8.91,0.65359,4.38
-3.8547,4.5714,11.057,8.9533,11.881,9.5146,11.707,0.57971,12.88,8.9533,11.881,13.007,5.0794,3.126,-1.8413,3.8835,3.2206,-7.2142,8.278,-2.6144,2.4477
-3.8547,0.7619,9.1057,12.174,15.842,11.456,12.358,0.57971,14.175,12.174,15.842,15.621,-1.2698,-3.2536,-6.9206,-3.8835,-5.153,-7.2142,5.1185,-3.9216,-0.12882
-2.5908,0.7619,5.2033,11.53,15.182,11.456,13.008,-1.9968,14.175,11.53,15.182,14.967,-8.254,-8.3573,-10.73,-9.7087,-12.238,-6.57,5.7504,-4.5752,-1.4171
-3.8547,0.7619,-2.6016,8.9533,11.221,8.8673,10.407,-1.9968,12.88,8.9533,11.221,12.353,-16.507999,-16.013,-13.27,-14.887,-19.323999,-5.2818,5.1185,-8.4967,-4.6377
-1.327,2.0317,-6.5041,10.886,11.221,7.5728,9.7561,1.868,11.586,10.886,11.221,11.046,-20.952,-20.478001,-12.0,-16.181,-19.968,-1.4171,1.9589,-9.1503,-7.8583
9.4155,5.2063,-3.252,7.0209,9.2409,8.2201,7.8049,1.868,9.644,7.0209,9.2409,9.7386,-22.857,-21.115999,-8.8254,-13.592,-17.391001,-3.3494,-1.8325,-7.8431,-9.7907
3.7283,2.0317,-1.9512,3.1562,6.6007,4.9838,3.9024,1.2238,8.3495,3.1562,6.6007,5.817,-22.857,-18.565001,-8.8254,-11.003,-14.171,-0.77295,0.06319,-6.5359,-7.8583
-4.4866,-2.4127,-4.5528,-0.70853,-0.66007,-0.84142,-3.9024,1.2238,2.5243,-0.70853,-0.66007,-2.0261,-18.413,-12.185,-7.5556,-6.4725,-10.306,5.0242,-0.56872,-4.5752,-5.2818
-2.5908,0.7619,-1.9512,-4.5733,-3.9604,-4.0777,-6.5041,-1.9968,-1.3592,-4.5733,-3.9604,-3.9869,-10.159,-1.3397,-1.8413,1.9417,-1.9324,1.8035,-1.2006,0.0,-0.77295
-0.6951,4.5714,1.9512,-3.285,-1.9802,-2.1359,-3.9024,-1.9968,-0.71197,-3.285,-1.9802,-2.0261,-4.4444,7.5917,0.69841,9.0615,5.153,-1.4171,0.6951,0.0,4.38
-1.327,7.1111,4.5528,-2.6409,1.3201,-0.19417,-0.65041,-1.3527,-0.71197,-2.6409,1.3201,1.2418,-0.63492,11.419,0.69841,11.65,7.7295,0.5153,0.6951,0.0,6.9565
3.7283,6.4762,7.8049,-0.06441,1.3201,3.6893,2.6016,-0.70853,1.877,-0.06441,1.3201,4.5098,4.4444,12.057,5.1429,11.65,9.6618,2.4477,6.3823,5.2288,9.533
4.9921,9.6508,12.358,1.868,1.9802,3.0421,7.1545,-1.3527,1.877,1.868,1.9802,5.1634,9.5238,12.057,9.5873,10.356,12.238,3.7359,6.3823,7.1895,6.9565
3.7283,7.1111,15.61,-1.3527,2.6403,-2.1359,6.5041,0.57971,1.877,-1.3527,2.6403,2.549,13.333,12.057,12.762,8.4142,14.171,2.4477,1.9589,6.5359,3.0918
-7.0142,-3.0476,5.8537,-3.9291,0.0,-9.9029,-1.3008,-3.285,0.58252,-3.9291,0.0,-7.9085,12.698,7.5917,9.5873,1.9417,9.6618,1.1594,-1.8325,7.8431,-1.4171
-15.861,-11.302,-12.358,-3.9291,-1.9802,-13.786,-8.4553,-3.9291,-2.0065,-3.9291,-1.9802,-14.444,9.5238,1.8501,0.69841,-7.1197,-1.9324,2.4477,-6.8878,5.8824,-5.2818
-12.07,-15.746,-23.415001,-1.3527,-3.9604,-9.9029,-11.057,0.57971,-2.0065,-1.3527,-3.9604,-14.444,5.7143,-3.2536,-5.6508,-12.298,-10.95,1.8035,-6.8878,5.8824,-8.5024
-2.5908,-13.841,-25.365999,-1.3527,-0.66007,-4.0777,-7.8049,-0.70853,-0.06472,-1.3527,-0.66007,-11.176,1.2698,-7.7193,-7.5556,-14.239,-18.035,-4.6377,-5.624,9.1503,-7.8583
-10.806,-9.3968,-27.316999,-3.9291,-1.9802,-4.0777,-7.1545,-0.70853,-0.71197,-3.9291,-1.9802,-10.523,-10.159,-16.650999,-20.889,-17.476,-27.052999,1.1594,-6.8878,-0.65359,-10.435
-10.806,-4.3175,-19.511999,-3.9291,-1.9802,-4.0777,-3.9024,-0.06441,-3.301,-3.9291,-1.9802,-7.2549,-18.413,-21.115999,-25.333,-16.827999,-28.341,5.6683,-9.4155,-7.1895,-13.011
4.9921,-0.50794,-4.5528,-2.6409,-1.3201,4.3366,0.65041,-2.6409,-2.6537,-2.6409,-1.3201,-0.71895,-20.316999,-17.927,-16.444,-11.65,-21.9,3.0918,-6.8878,-5.2288,-9.7907
2.4645,1.3968,0.0,-4.5733,-3.3003,1.1003,1.3008,-1.3527,-4.5955,-4.5733,-3.3003,-0.71895,-22.222,-13.461,-12.635,-7.767,-17.391001,1.1594,-3.0964,-7.1895,-4.6377
-1.9589,2.6667,0.0,-6.5056,-3.9604,-4.7249,-1.3008,-2.6409,-5.2427,-6.5056,-3.9604,-2.6797,-19.048,-5.8054,-8.1905,-3.2362,-10.95,-2.7053,-0.56872,-7.1895,1.1594
-7.0142,0.7619,0.0,-5.2174,-5.2805,-4.7249,-3.252,-3.285,-3.9482,-5.2174,-5.2805,-2.6797,-11.429,3.764,-4.381,3.2362,-3.2206,-2.0612,0.6951,-7.1895,6.9565
-7.0142,2.6667,1.9512,-1.9968,-3.9604,0.45307,-1.9512,-1.9968,-2.6537,-1.9968,-3.9604,1.2418,-0.63492,13.971,-1.2063,10.356,4.5089,-2.0612,3.2227,-5.8824,12.11
0.56872,6.4762,8.4553,3.1562,0.66007,6.9256,5.2033,1.2238,1.2298,3.1562,0.66007,9.085,6.9841,19.075001,2.6032,15.534,10.95,-3.9936,1.327,-3.268,13.398
4.9921,9.0159,14.959,5.7327,1.3201,8.2201,7.8049,2.5121,0.58252,5.7327,1.3201,12.353,12.063,19.075001,7.0476,15.534,14.815,1.1594,1.9589,-0.65359,12.754
11.311,4.5714,18.211,6.3768,3.9604,9.5146,6.5041,5.0886,-0.06472,6.3768,3.9604,12.353,15.238,18.437,13.397,14.239,18.035,5.6683,7.0142,4.5752,11.465
15.735,0.7619,15.61,5.7327,3.3003,10.809,4.5528,7.0209,-0.06472,5.7327,3.3003,12.353,15.873,17.160999,14.667,12.298,17.391001,6.3124,6.3823,5.2288,10.821
15.735,2.0317,8.4553,4.4444,1.9802,9.5146,2.6016,4.4444,0.58252,4.4444,1.9802,10.392,12.698,13.971,12.127,9.0615,12.882,2.4477,3.2227,4.5752,8.8889
12.575,1.3968,0.65041,4.4444,0.0,6.2783,1.3008,-0.70853,0.58252,4.4444,0.0,7.1242,8.8889,10.144,8.9524,7.1197,8.3736,-2.7053,3.8547,1.3072,6.9565
3.7283,2.6667,-7.1545,4.4444,1.9802,2.3948,1.3008,1.868,1.877,4.4444,1.9802,4.5098,7.619,8.8676,9.5873,6.4725,5.7971,-3.3494,3.8547,4.5752,6.9565
-8.278,0.7619,-15.61,0.57971,0.66007,-3.4304,-1.3008,-0.70853,-0.06472,0.57971,0.66007,-1.3725,3.1746,4.4019,3.873,1.9417,0.0,2.4477,0.6951,1.3072,3.7359
-5.1185,0.7619,-11.707,-0.06441,-0.66007,-2.7832,-1.9512,-1.9968,-0.06472,-0.06441,-0.66007,-2.6797,1.2698,1.2121,3.873,0.64725,-0.64412,3.0918,1.9589,0.0,-0.12882
-1.327,1.3968,-5.2033,-1.3527,-1.3201,-3.4304,-4.5528,-0.70853,-2.6537,-1.3527,-1.3201,-3.9869,-1.9048,-1.9777,3.873,-0.64725,0.0,-2.0612,1.9589,0.0,-3.3494
-6.3823,-2.4127,-1.9512,-3.285,-4.6205,-6.0194,-7.8049,-1.9968,-2.6537,-3.285,-4.6205,-5.2941,-5.7143,-3.8915,-3.1111,0.0,-1.2882,-2.0612,-0.56872,-5.2288,-5.9259
-7.0142,-1.7778,2.6016,0.57971,-2.6403,-2.1359,-4.5528,-0.06441,-0.06472,0.57971,-2.6403,-2.0261,-5.7143,-4.5295,-5.6508,2.589,0.64412,-0.77295,1.327,-5.8824,-3.9936
-8.91,-0.50794,1.9512,0.57971,-2.6403,-2.7832,-3.9024,-1.3527,-2.0065,0.57971,-2.6403,-2.6797,-6.3492,-7.0813,-9.4603,1.9417,-1.9324,-2.7053,-0.56872,-7.1895,-3.3494
-10.806,-1.7778,-2.6016,-1.3527,-3.3003,-4.0777,-4.5528,-1.3527,-3.9482,-1.3527,-3.3003,-3.3333,-5.0794,-7.7193,-11.365,0.64725,-5.7971,-3.3494,-1.8325,-2.6144,-3.3494
-8.91,-1.7778,-4.5528,-2.6409,-4.6205,-2.7832,-5.2033,1.2238,-5.2427,-2.6409,-4.6205,-3.9869,-0.63492,-3.8915,-12.0,1.9417,-7.7295,1.8035,-2.4645,0.65359,-0.77295
-1.9589,-2.4127,0.0,-3.9291,-6.6007,-0.84142,-6.5041,5.0886,-9.7735,-3.9291,-6.6007,-3.3333,8.8889,1.2121,-3.746,4.5307,-1.9324,10.821,-5.624,11.765,-0.12882
8.7836,-0.50794,5.2033,-4.5733,-7.9208,0.45307,-7.1545,-0.06441,-13.01,-4.5733,-7.9208,-3.9869,15.238,2.488,7.0476,4.5307,5.153,12.754,-10.679,19.608,-1.4171
3.0964,-6.8571,0.65041,-7.7939,-10.561,-6.0194,-11.707,-1.9968,-14.951,-7.7939,-10.561,-9.2157,13.968,-0.0638,8.3175,0.64725,5.153,10.177,-13.839,17.646999,-3.9936
4.3602,-11.302,-1.9512,-11.014,-11.881,-8.6084,-13.659,-1.9968,-13.657,-11.014,-11.881,-11.176,14.603,-0.70175,12.127,-1.9417,5.7971,4.38,-8.7836,16.993,-3.9936
5.624,-10.667,-3.9024,-9.7262,-11.221,-6.6667,-11.707,-2.6409,-10.421,-9.7262,-11.221,-9.8693,12.063,-3.8915,13.397,-5.8252,4.5089,3.0918,-4.9921,12.418,-4.6377
-0.06319,-8.7619,-3.9024,-9.0821,-8.5809,-7.3139,-9.1057,-3.9291,-7.1845,-9.0821,-8.5809,-9.2157,8.254,-8.9952,10.857,-9.0615,3.2206,3.7359,-7.5197,7.1895,-7.2142
1.2006,-6.8571,0.65041,-6.5056,-5.2805,-5.3722,-5.8537,-3.9291,-3.301,-6.5056,-5.2805,-6.6013,10.159,-7.7193,14.032,-7.1197,7.0853,-0.77295,-4.9921,9.8039,-5.9259
-1.327,-5.5873,2.6016,-3.285,-2.6403,-4.0777,-1.9512,-3.285,0.58252,-3.285,-2.6403,-3.9869,8.254,-7.7193,9.5873,-8.4142,5.7971,-2.0612,-6.2559,3.9216,-7.2142
3.0964,-2.4127,4.5528,3.1562,2.6403,3.6893,4.5528,-0.70853,4.466,3.1562,2.6403,2.549,5.0794,-5.8054,5.7778,-6.4725,4.5089,-2.7053,-3.7283,0.65359,-6.57
-5.7504,0.7619,0.0,8.3092,7.2607,4.9838,10.407,4.4444,6.4078,8.3092,7.2607,7.1242,-3.1746,-4.5295,-4.381,-7.1197,-1.9324,-2.7053,-2.4645,-3.9216,-8.5024
-3.8547,1.3968,-1.9512,9.5974,11.221,6.9256,13.659,1.868,10.291,9.5974,11.221,10.392,-10.159,-2.6156,-12.635,-5.8252,-7.7295,-5.9259,0.06319,-9.1503,-5.9259
-8.91,1.3968,-3.252,8.9533,11.221,4.9838,11.057,2.5121,8.9968,8.9533,11.221,8.4314,-16.507999,-1.3397,-20.254,-3.2362,-12.882,-5.2818,1.327,-15.033,-3.9936
-9.5419,-1.1429,-1.9512,4.4444,4.6205,2.3948,3.9024,4.4444,3.1715,4.4444,4.6205,3.2026,-19.048,-1.9777,-19.618999,-3.2362,-14.815,-5.9259,0.6951,-16.993,-2.7053
1.2006,-1.7778,1.3008,3.8003,1.3201,4.3366,1.9512,3.8003,-0.06472,3.8003,1.3201,2.549,-15.238,-1.3397,-11.365,-3.2362,-12.882,-5.2818,-1.8325,-10.458,-0.77295
0.56872,-4.9524,-3.9024,3.1562,-3.3003,1.1003,-3.9024,3.1562,-4.5955,3.1562,-3.3003,-2.0261,-12.063,-1.9777,-7.5556,-6.4725,-12.882,-0.77295,0.06319,-10.458,1.8035
-1.327,-4.9524,-7.8049,-1.9968,-9.2409,-4.0777,-9.7561,-0.70853,-10.421,-1.9968,-9.2409,-8.5621,-6.9841,-1.3397,-4.381,-6.4725,-10.95,0.5153,2.5908,-7.8431,5.6683
-2.5908,-4.9524,-10.407,-8.438,-15.842,-9.9029,-16.910999,-4.5733,-14.951,-8.438,-15.842,-15.752,-1.2698,0.57416,-0.57143,-4.5307,-7.7295,-1.4171,1.327,-1.3072,7.6006
-3.8547,-7.4921,-11.057,-12.303,-21.782,-13.139,-20.813,-4.5733,-16.246,-12.303,-21.782,-19.673,0.63492,1.2121,0.06349,-3.2362,-5.153,0.5153,-0.56872,0.65359,6.3124
10.047,-5.5873,-4.5528,-14.235,-21.782,-9.2557,-20.163,-7.7939,-15.599,-14.235,-21.782,-18.365999,5.7143,1.8501,7.0476,0.0,1.2882,-1.4171,-2.4645,5.8824,5.0242
8.1517,-3.6825,0.65041,-10.37,-14.521,-6.6667,-14.309,-0.06441,-13.01,-10.37,-14.521,-12.484,9.5238,1.2121,10.857,1.2945,7.0853,3.0918,-2.4645,9.1503,2.4477
1.8325,-3.0476,5.2033,-1.3527,-8.5809,-3.4304,-6.5041,5.0886,-8.479,-1.3527,-8.5809,-3.9869,12.698,1.2121,12.762,2.589,11.594,6.9565,-2.4645,10.458,-0.12882
4.3602,-3.0476,5.2033,-0.06441,-6.6007,-0.19417,-3.252,3.8003,-5.89,-0.06441,-6.6007,-0.71895,12.063,1.8501,12.762,2.589,12.882,1.8035,-4.3602,9.1503,-1.4171
2.4645,-4.9524,1.3008,1.2238,-4.6205,-2.7832,-3.9024,1.868,-5.2427,1.2238,-4.6205,-1.3725,8.254,1.2121,3.873,1.9417,9.0177,-0.77295,-5.624,2.6144,-2.0612
-7.0142,-2.4127,0.0,3.1562,0.0,-0.84142,-3.252,3.1562,-3.301,3.1562,0.0,-2.0261,3.1746,1.8501,-7.5556,2.589,5.153,1.8035,-4.3602,-1.9608,-1.4171
-9.5419,-3.6825,-1.3008,5.0886,1.9802,-0.19417,-1.9512,3.1562,-0.06472,5.0886,1.9802,-2.0261,-1.2698,0.57416,-12.635,0.0,0.64412,-1.4171,-2.4645,-3.9216,-3.3494
-7.6461,-6.2222,-5.8537,5.0886,1.9802,-2.1359,-1.3008,1.868,1.877,5.0886,1.9802,-2.6797,-7.619,-5.1675,-16.444,-6.4725,-7.7295,-3.9936,-3.7283,-7.1895,-4.6377
-5.1185,-4.3175,-11.057,3.8003,3.3003,-1.4887,0.65041,1.2238,0.58252,3.8003,3.3003,-3.3333,-15.873,-10.909,-18.983999,-11.65,-15.459,-6.57,-2.4645,-11.111,-5.9259
-3.2227,-4.3175,-13.008,0.57971,-1.9802,-2.1359,-1.3008,-0.06441,-2.0065,0.57971,-1.9802,-4.6405,-19.048,-12.185,-16.444,-10.356,-16.747,-7.2142,-1.8325,-14.379,-5.9259
8.7836,0.7619,-5.8537,0.57971,-2.6403,1.1003,0.65041,-1.3527,-1.3592,0.57971,-2.6403,-2.0261,-13.333,-7.0813,-5.0159,-1.9417,-8.3736,-7.8583,1.9589,-9.1503,-0.12882
3.7283,2.0317,-3.9024,-1.9968,-5.2805,-0.84142,-2.6016,1.2238,-3.301,-1.9968,-5.2805,-4.6405,-7.619,-1.9777,0.69841,1.9417,-2.5765,-1.4171,1.327,-7.8431,2.4477
6.2559,4.5714,1.3008,-3.9291,-9.2409,1.1003,-4.5528,3.1562,-6.5372,-3.9291,-9.2409,-5.2941,3.8095,5.0399,10.857,7.767,6.4412,4.38,2.5908,0.0,7.6006
11.311,2.0317,5.2033,-4.5733,-11.221,-0.84142,-7.1545,3.8003,-7.8317,-4.5733,-11.221,-5.9477,15.873,13.971,20.381001,13.592,15.459,8.2448,6.3823,8.4967,12.11
10.047,0.12698,5.2033,-7.1498,-11.221,-3.4304,-7.8049,5.0886,-8.479,-7.1498,-11.221,-7.2549,23.492001,19.075001,23.556,16.827999,21.256001,11.465,5.7504,12.418,12.754
15.103,0.7619,4.5528,-5.8615,-9.2409,-0.19417,-6.5041,3.1562,-8.479,-5.8615,-9.2409,-4.6405,24.761999,19.712999,25.459999,16.827999,21.9,9.533,2.5908,15.686,11.465
12.575,-0.50794,3.9024,-2.6409,-6.6007,1.1003,-3.9024,3.1562,-5.89,-2.6409,-6.6007,-1.3725,21.587,17.160999,21.650999,13.592,19.968,10.177,0.06319,15.033,8.2448
10.047,-1.1429,5.2033,0.57971,-4.6205,1.1003,-2.6016,1.868,-2.6537,0.57971,-4.6205,-0.71895,20.952,16.523001,19.111,12.298,19.968,6.3124,-0.56872,16.34,8.2448
6.2559,-0.50794,5.2033,-0.06441,-1.3201,1.1003,0.0,-1.3527,-0.06472,-0.06441,-1.3201,1.2418,17.778,14.609,14.667,10.356,17.391001,3.7359,3.2227,11.765,8.2448
5.624,0.7619,5.2033,-0.06441,1.9802,1.1003,4.5528,-3.9291,1.2298,-0.06441,1.9802,4.5098,9.5238,5.6778,7.0476,3.2362,9.6618,-0.12882,1.9589,5.2288,4.38
-4.4866,-5.5873,0.65041,1.2238,1.9802,0.45307,4.5528,-0.70853,2.5243,1.2238,1.9802,4.5098,-2.5397,-7.0813,-5.6508,-9.0615,-3.8647,-2.0612,-2.4645,-0.65359,-2.0612
-16.493,-9.3968,-7.8049,4.4444,3.9604,-2.1359,2.6016,2.5121,1.877,4.4444,3.9604,2.549,-15.873,-17.289,-22.794001,-20.065001,-19.968,-2.7053,-5.624,-9.8039,-9.7907
-19.021,-9.3968,-13.659,5.7327,3.9604,-4.0777,-0.65041,3.8003,-0.06472,5.7327,3.9604,-0.71895,-24.761999,-24.306,-32.952,-25.243,-28.986,-3.9936,-9.4155,-14.379,-14.3
-20.284,-9.3968,-18.862,3.1562,3.9604,-7.3139,-4.5528,3.1562,-2.6537,3.1562,3.9604,-5.9477,-28.570999,-25.582001,-34.856998,-25.243,-31.562,-7.2142,-10.047,-16.34,-15.588
-13.965,-9.3968,-18.862,-0.70853,-2.6403,-11.197,-9.7561,-1.3527,-5.2427,-0.70853,-2.6403,-11.83,-24.127001,-19.841,-27.238001,-18.122999,-25.764999,-10.435,-8.7836,-14.379,-14.3
-8.91,-9.3968,-14.309,-0.06441,-7.2607,-11.197,-11.057,-1.3527,-8.479,-0.06441,-7.2607,-11.83,-15.238,-12.185,-15.175,-10.356,-15.459,-5.2818,-8.1517,-8.4967,-11.723
-5.1185,-6.8571,-7.8049,0.57971,-4.6205,-6.0194,-7.8049,2.5121,-7.8317,0.57971,-4.6205,-7.9085,-8.254,-4.5295,-7.5556,-4.5307,-7.7295,2.4477,-11.943,-7.8431,-10.435
3.0964,3.3016,1.9512,1.868,0.66007,0.45307,0.0,3.8003,-3.301,1.868,0.66007,-0.06536,0.63492,5.0399,0.06349,5.8252,2.5765,4.38,-3.0964,-3.9216,-2.0612
6.2559,7.746,10.407,3.1562,0.0,4.9838,3.9024,5.7327,1.2298,3.1562,0.0,5.817,5.0794,10.144,3.873,13.592,9.6618,1.1594,6.3823,-1.3072,4.38
13.207,12.825,19.511999,2.5121,0.66007,7.5728,8.4553,1.2238,5.1133,2.5121,0.66007,10.392,8.254,13.333,7.6825,19.417,16.747,-2.7053,10.174,-1.3072,8.2448
10.679,14.095,21.462999,0.57971,1.3201,6.2783,9.1057,-0.06441,4.466,0.57971,1.3201,10.392,10.159,13.333,10.857,18.122999,18.68,-3.3494,8.91,1.3072,7.6006
4.3602,9.6508,17.561001,0.57971,1.9802,4.9838,8.4553,3.1562,2.5243,0.57971,1.9802,10.392,11.429,10.781,11.492,12.298,16.103001,3.0918,6.3823,3.268,5.0242
4.9921,7.746,11.707,2.5121,-0.66007,4.3366,7.8049,0.57971,0.58252,2.5121,-0.66007,10.392,9.5238,5.6778,10.222,4.5307,9.6618,3.7359,1.327,4.5752,3.0918
3.0964,7.1111,7.8049,-0.70853,-3.3003,3.0421,5.8537,-0.70853,-0.06472,-0.70853,-3.3003,9.085,5.0794,-2.6156,6.4127,-3.2362,2.5765,0.5153,2.5908,7.1895,0.5153
3.0964,2.6667,8.4553,-1.3527,-2.6403,1.7476,2.6016,-0.70853,-0.06472,-1.3527,-2.6403,6.4706,1.9048,-9.6332,1.9683,-8.4142,-1.2882,1.1594,3.2227,3.9216,-2.7053
1.8325,-6.8571,4.5528,-1.9968,-5.9406,1.1003,-4.5528,1.2238,-3.301,-1.9968,-5.9406,1.2418,-3.1746,-14.099,-3.746,-14.239,-6.4412,1.1594,-0.56872,-1.3072,-7.2142
1.8325,-10.667,-1.3008,-1.3527,-7.2607,1.1003,-6.5041,0.57971,-4.5955,-1.3527,-7.2607,-1.3725,-6.3492,-15.375,-6.2857,-16.827999,-10.306,-0.12882,-3.7283,-0.65359,-8.5024
3.0964,-8.127,-3.9024,-0.06441,-1.3201,-0.84142,-1.9512,0.57971,-1.3592,-0.06441,-1.3201,0.58824,-8.254,-10.909,-6.9206,-13.592,-10.95,-4.6377,-4.9921,-4.5752,-5.9259
6.2559,-3.6825,-1.3008,0.57971,3.9604,-0.84142,3.9024,-3.9291,1.877,0.57971,3.9604,3.8562,-6.3492,-1.3397,-6.2857,-5.178,-7.0853,-6.57,-0.56872,-6.5359,0.5153
-5.7504,0.7619,-1.9512,1.2238,2.6403,-2.1359,3.252,-1.3527,1.877,1.2238,2.6403,1.2418,-5.0794,8.8676,-9.4603,4.5307,-2.5765,-2.0612,0.6951,-9.1503,5.6683
-10.806,9.0159,0.65041,4.4444,6.6007,0.45307,7.1545,1.2238,5.7605,4.4444,6.6007,3.2026,-1.2698,17.799,-8.8254,16.181,3.2206,-4.6377,6.3823,-5.8824,10.821
-10.806,17.905001,3.9024,3.8003,8.5809,2.3948,11.707,-0.06441,9.644,3.8003,8.5809,5.1634,3.1746,23.541,-7.5556,25.243,9.0177,-6.57,12.701,-7.8431,15.33
-8.91,17.27,3.9024,8.3092,11.881,3.6893,13.008,5.0886,11.586,8.3092,11.881,5.817,5.7143,20.989,-4.381,25.243,11.594,-3.3494,15.229,-9.1503,16.618
-0.06319,14.73,3.252,11.53,13.201,6.9256,11.707,6.3768,12.233,11.53,13.201,5.1634,5.7143,13.333,3.2381,20.065001,11.594,-2.0612,14.597,-3.268,12.11
4.3602,12.19,0.0,10.242,8.5809,3.6893,8.4553,5.0886,8.9968,10.242,8.5809,1.2418,3.8095,3.764,8.3175,11.65,7.7295,-1.4171,9.5419,1.3072,5.6683
-1.327,6.4762,-7.1545,4.4444,1.9802,-3.4304,0.0,4.4444,3.1715,4.4444,1.9802,-7.2549,-1.2698,-5.1675,5.7778,1.2945,-1.9324,0.5153,4.4866,0.0,0.5153
-6.3823,-2.4127,-12.358,-1.3527,-3.9604,-7.9612,-7.8049,0.57971,-3.301,-1.3527,-3.9604,-12.484,-3.1746,-8.9952,0.06349,-7.767,-11.594,-0.77295,-1.2006,-0.65359,-1.4171
-8.278,-13.206,-16.26,-7.1498,-9.2409,-13.139,-17.561001,-6.5056,-9.1262,-7.1498,-9.2409,-18.365999,-3.8095,-12.185,-5.0159,-16.827999,-18.68,-6.57,-8.1517,0.0,-5.9259
-10.806,-16.381001,-18.211,-11.659,-15.182,-15.081,-20.813,-9.7262,-13.657,-11.659,-15.182,-20.98,-1.9048,-10.271,-6.9206,-19.417,-19.323999,-5.2818,-7.5197,4.5752,-6.57
-17.757,-20.825001,-23.415001,-14.235,-17.822001,-18.316999,-20.813,-9.7262,-12.362,-14.235,-17.822001,-21.634001,-2.5397,-7.7193,-11.365,-19.417,-18.68,-2.0612,-5.624,0.0,-6.57
-14.597,-18.921,-20.163,-14.879,-13.861,-17.67,-14.309,-9.0821,-6.5372,-14.879,-13.861,-17.059,-3.8095,-5.1675,-10.095,-15.534,-14.815,-1.4171,-3.7283,-1.9608,-3.9936
-1.327,-8.127,-8.4553,-11.659,-9.2409,-8.6084,-5.2033,-8.438,-2.6537,-11.659,-9.2409,-7.2549,-1.2698,-0.0638,-0.57143,-6.4725,-5.153,-0.12882,-0.56872,2.6144,1.1594
4.3602,1.3968,0.0,-6.5056,-3.9604,0.45307,3.9024,-3.9291,1.877,-6.5056,-3.9604,2.549,1.2698,5.6778,5.1429,3.2362,1.9324,3.0918,0.06319,3.268,6.3124
8.1517,13.46,13.008,0.57971,5.2805,11.456,16.910999,3.8003,7.055,0.57971,5.2805,16.275,2.5397,10.781,7.0476,13.592,9.6618,3.7359,8.278,1.9608,10.821
16.367001,26.794001,31.219999,10.886,16.502001,24.400999,30.569,10.886,16.117001,10.886,16.502001,31.306999,5.7143,15.247,10.857,24.594999,20.612,5.0242,17.125,3.9216,14.686
27.108999,38.222,42.926998,19.259001,24.422001,32.816002,40.325001,14.75,20.646999,19.259001,24.422001,40.458,9.5238,16.523001,17.841,30.421,28.341,3.0918,20.284,5.8824,15.974
37.220001,35.682999,42.276001,23.124001,27.723,36.699001,41.625999,13.462,23.236,23.124001,27.723,42.417999,10.159,12.695,22.285999,27.832001,28.341,6.9565,18.389,6.5359,12.11
24.580999,26.794001,31.870001,28.277,29.702999,35.404999,38.374001,19.903,23.236,28.277,29.702999,39.150002,7.619,5.0399,19.111,18.122999,21.256001,15.974,13.965,5.8824,6.9565
15.103,17.27,20.813,29.565001,27.063,32.167999,29.919001,24.412001,17.410999,29.565001,27.063,32.613998,5.0794,-3.8915,17.205999,3.8835,10.95,18.551001,5.7504,8.4967,-2.7053
13.839,7.1111,13.008,24.412001,27.063,25.049,22.114,20.548,10.939,24.412001,27.063,26.732,3.1746,-10.909,14.032,-8.4142,0.64412,15.33,-3.7283,9.8039,-10.435
11.311,-0.50794,7.1545,20.548,24.422001,21.812,14.309,17.971001,7.7023,20.548,24.422001,20.85,-1.9048,-15.375,7.6825,-17.476,-9.0177,12.754,-8.7836,7.8431,-15.588
6.8878,-8.127,1.9512,19.259001,20.462,15.987,8.4553,15.395,5.7605,19.259001,20.462,14.967,-8.254,-18.565001,1.3333,-22.006001,-16.103001,7.6006,-6.8878,7.1895,-17.52
-1.9589,-12.571,-6.5041,11.53,11.881,3.6893,-0.65041,7.0209,0.58252,11.53,11.881,4.5098,-15.873,-21.115999,-6.9206,-23.948,-19.968,3.7359,-10.047,-0.65359,-19.452
-0.06319,-13.841,-7.1545,7.0209,5.9406,-2.1359,-3.9024,3.1562,-0.06472,7.0209,5.9406,-0.06536,-14.603,-16.650999,-3.1111,-18.77,-14.171,1.8035,-7.5197,-1.9608,-16.232
1.8325,-10.032,-5.8537,1.868,3.9604,-4.0777,-3.252,-3.285,2.5243,1.868,3.9604,-2.0261,-10.794,-12.185,1.3333,-11.003,-5.7971,1.8035,-3.0964,0.65359,-11.723
-8.278,0.12698,-10.407,-1.9968,5.2805,-9.9029,0.65041,-4.5733,7.055,-1.9968,5.2805,-5.2941,-10.159,-8.9952,-2.4762,-3.2362,-1.9324,1.1594,-0.56872,-3.268,-8.5024
-13.333,9.0159,-15.61,-4.5733,9.901,-11.197,3.9024,-8.438,12.88,-4.5733,9.901,-5.9477,-8.8889,-4.5295,-5.6508,5.178,-0.64412,-3.9936,7.6461,-3.9216,1.1594
-12.701,14.095,-13.659,-7.7939,5.2805,-12.492,3.252,-12.303,12.88,-7.7939,5.2805,-7.2549,-7.619,-0.70175,-6.2857,10.356,1.9324,-8.5024,12.701,-3.268,8.2448
-4.4866,17.27,-4.5528,-9.7262,-1.9802,-12.492,0.65041,-12.303,8.9968,-9.7262,-1.9802,-8.5621,-3.1746,4.4019,-1.2063,14.239,9.0177,-10.435,12.701,-5.2288,10.821
-0.6951,14.73,3.9024,-7.7939,-3.9604,-8.6084,-1.9512,-9.7262,7.055,-7.7939,-3.9604,-9.2157,5.7143,10.781,6.4127,18.122999,16.103001,-5.9259,10.174,-0.65359,12.754
1.2006,8.381,8.4553,-5.2174,-0.66007,-4.0777,-4.5528,-7.7939,4.466,-5.2174,-0.66007,-7.9085,12.063,12.057,10.857,16.181,18.68,-0.77295,8.91,4.5752,11.465
4.9921,7.746,14.309,-1.9968,0.0,-1.4887,-3.9024,-2.6409,2.5243,-1.9968,0.0,-3.9869,19.048,12.057,15.302,13.592,20.612,1.8035,5.7504,9.1503,8.2448
10.679,6.4762,17.561001,3.8003,2.6403,4.3366,-0.65041,3.8003,1.877,3.8003,2.6403,1.8954,23.492001,12.057,17.841,11.003,20.612,1.8035,1.9589,13.725,5.0242
11.311,1.3968,13.659,7.0209,6.6007,7.5728,-0.65041,-1.3527,2.5243,7.0209,6.6007,5.1634,22.857,9.5056,14.667,5.8252,14.815,1.1594,-1.2006,13.725,1.1594
-5.1185,-7.4921,1.9512,6.3768,6.6007,1.7476,-3.9024,0.57971,0.58252,6.3768,6.6007,1.8954,15.238,3.126,0.69841,-3.2362,1.9324,5.0242,-5.624,5.2288,-3.3494
-12.701,-8.127,-3.9024,7.0209,3.3003,-0.19417,-4.5528,2.5121,-1.3592,7.0209,3.3003,0.58824,6.3492,-3.2536,-8.1905,-8.4142,-9.0177,4.38,-11.311,-1.3072,-8.5024
-8.278,-8.127,-5.2033,4.4444,4.6205,-0.84142,-1.3008,-0.70853,-0.06472,4.4444,4.6205,1.8954,2.5397,-5.1675,-8.8254,-9.7087,-13.527,-0.12882,-9.4155,0.0,-7.8583
-10.806,-9.3968,-11.707,2.5121,4.6205,-3.4304,-2.6016,-0.70853,-0.71197,2.5121,4.6205,-0.71895,-2.5397,-6.4434,-12.635,-11.003,-17.391001,-0.77295,-6.2559,-2.6144,-6.57
-11.438,-8.127,-16.26,-0.70853,3.9604,-6.0194,-3.252,-3.285,-1.3592,-0.70853,3.9604,-3.3333,-5.0794,-4.5295,-13.27,-9.0615,-18.035,-2.7053,-4.3602,-0.65359,-4.6377
-8.278,-4.9524,-14.959,-2.6409,2.6403,-6.0194,-2.6016,-5.8615,-0.06472,-2.6409,2.6403,-3.9869,-6.3492,-3.8915,-10.095,-7.1197,-15.459,-3.9936,-3.0964,0.0,-3.9936
-0.6951,-3.6825,-11.057,-2.6409,0.66007,-6.0194,-2.6016,-3.9291,1.2298,-2.6409,0.66007,-3.9869,-8.254,-3.2536,-6.2857,-5.8252,-10.95,-7.2142,-2.4645,-3.268,-2.7053
6.8878,-1.7778,-7.1545,-2.6409,-0.66007,-2.1359,-3.9024,-7.1498,0.58252,-2.6409,-0.66007,-3.9869,-8.8889,-3.8915,-2.4762,-3.8835,-6.4412,-5.2818,-4.3602,-3.9216,-3.9936
-7.6461,1.3968,-7.1545,-5.8615,-0.66007,-4.7249,-4.5528,-5.8615,1.2298,-5.8615,-0.66007,-7.2549,-10.159,-4.5295,-5.0159,-0.64725,-4.5089,-0.12882,-1.2006,-4.5752,-3.3494
-12.701,3.3016,-5.2033,-7.1498,0.66007,-6.6667,-0.65041,-3.9291,4.466,-7.1498,0.66007,-6.6013,-8.8889,-3.8915,-5.6508,2.589,-1.2882,0.5153,3.2227,-5.2288,-0.12882
-2.5908,5.2063,1.9512,-2.6409,1.9802,-1.4887,2.6016,-3.285,6.4078,-2.6409,1.9802,-2.0261,-3.8095,-0.70175,0.69841,6.4725,5.7971,-3.3494,5.7504,-2.6144,3.0918
-0.6951,9.6508,5.8537,-1.9968,3.9604,1.1003,4.5528,-1.9968,7.055,-1.9968,3.9604,0.58824,1.2698,3.126,5.7778,10.356,10.95,-3.3494,7.6461,3.268,5.6683
4.3602,9.6508,7.8049,-0.06441,4.6205,6.2783,5.8537,-0.06441,7.055,-0.06441,4.6205,4.5098,3.8095,5.6778,8.3175,11.003,12.882,-1.4171,7.6461,1.9608,6.3124
7.5197,7.1111,8.4553,5.0886,5.2805,12.751,7.8049,5.7327,5.1133,5.0886,5.2805,9.085,3.8095,5.6778,7.6825,7.767,11.594,2.4477,2.5908,1.3072,4.38
13.207,2.0317,7.1545,8.3092,5.9406,15.34,9.1057,5.7327,5.1133,8.3092,5.9406,11.699,-1.2698,1.8501,6.4127,1.2945,5.7971,0.5153,0.6951,2.6144,1.1594
9.4155,2.6667,5.2033,9.5974,6.6007,15.987,10.407,2.5121,5.7605,9.5974,6.6007,12.353,-8.254,-3.8915,-0.57143,-4.5307,-1.2882,4.38,0.06319,0.65359,-1.4171
-2.5908,-5.5873,-0.65041,2.5121,4.6205,6.2783,2.6016,0.57971,5.1133,2.5121,4.6205,4.5098,-13.333,-8.9952,-6.9206,-9.7087,-8.3736,5.0242,-0.56872,-1.3072,-3.3494
-7.0142,-8.127,-4.5528,-3.9291,-1.9802,-3.4304,-3.9024,-1.9968,2.5243,-3.9291,-1.9802,-2.6797,-15.238,-12.823,-7.5556,-11.65,-9.6618,-0.12882,-1.2006,-2.6144,-3.9936
-1.327,-4.9524,-6.5041,-6.5056,-5.2805,-4.7249,-5.8537,-2.6409,-0.06472,-6.5056,-5.2805,-5.2941,-13.333,-12.185,-5.0159,-10.356,-8.3736,-1.4171,-0.56872,-1.3072,-3.3494
-1.9589,-5.5873,-9.7561,-5.2174,-5.2805,-2.7832,-6.5041,-0.70853,-1.3592,-5.2174,-5.2805,-5.2941,-14.603,-14.099,-6.9206,-12.298,-11.594,2.4477,-3.0964,-2.6144,-3.3494
-5.7504,-6.2222,-13.008,-3.9291,-3.9604,-0.84142,-6.5041,0.57971,-0.71197,-3.9291,-3.9604,-5.9477,-16.507999,-15.375,-10.095,-14.887,-16.103001,2.4477,-3.0964,-5.8824,-3.9936
-1.9589,-6.8571,-11.707,-7.1498,-4.6205,-2.1359,-7.1545,-5.2174,-2.6537,-7.1498,-4.6205,-6.6013,-13.968,-11.547,-7.5556,-12.945,-14.815,-5.9259,-0.56872,-4.5752,-1.4171
-10.174,-5.5873,-11.707,-11.659,-6.6007,-8.6084,-10.407,-8.438,-7.1845,-11.659,-6.6007,-11.176,-13.333,-6.4434,-12.635,-9.0615,-14.171,-7.2142,-3.0964,-9.1503,0.5153
-13.965,-7.4921,-10.407,-11.014,-8.5809,-11.197,-12.358,-11.014,-7.8317,-11.014,-8.5809,-12.484,-10.794,-0.0638,-15.175,-6.4725,-12.238,-7.8583,-3.0964,-9.8039,2.4477
-15.861,-8.7619,-9.1057,-11.014,-6.6007,-12.492,-11.707,-11.659,-5.89,-11.014,-6.6007,-12.484,-7.619,3.126,-15.81,-4.5307,-10.306,-10.435,-4.9921,-10.458,3.7359
-15.229,-9.3968,-10.407,-11.659,-4.6205,-14.434,-11.057,-8.438,-5.2427,-11.659,-4.6205,-12.484,-3.8095,3.764,-15.175,-5.178,-9.6618,-7.8583,-5.624,-9.1503,2.4477
-12.701,-8.7619,-13.659,-11.659,-5.9406,-13.139,-9.1057,-7.7939,-5.2427,-11.659,-5.9406,-12.484,1.2698,4.4019,-12.635,-8.4142,-10.306,-5.2818,-6.2559,-5.2288,0.5153
-10.174,-15.746,-16.910999,-9.7262,-8.5809,-11.197,-9.7561,-8.438,-7.1845,-9.7262,-8.5809,-12.484,4.4444,3.764,-8.1905,-12.298,-9.6618,-6.57,-8.1517,-2.6144,-1.4171
-5.7504,-18.285999,-14.309,-10.37,-10.561,-10.55,-10.407,-8.438,-9.7735,-10.37,-10.561,-11.83,7.619,4.4019,-1.8413,-11.65,-5.7971,-5.9259,-9.4155,-1.3072,-0.77295
-3.2227,-8.7619,-6.5041,-11.659,-11.221,-7.9612,-9.1057,-8.438,-10.421,-11.659,-11.221,-9.2157,13.333,10.144,4.5079,-3.2362,2.5765,-4.6377,-8.1517,3.9216,3.0918
6.2559,-2.4127,4.5528,-11.014,-10.561,-2.1359,-6.5041,-7.7939,-10.421,-11.014,-10.561,-4.6405,19.683001,15.885,11.492,7.1197,11.594,-3.9936,-3.7283,7.8431,8.8889
8.1517,1.3968,12.358,-10.37,-13.201,1.1003,-5.2033,-5.2174,-9.7735,-10.37,-13.201,-0.06536,20.952,17.160999,12.127,12.945,15.459,3.0918,3.8547,9.8039,12.11
7.5197,7.746,16.910999,-6.5056,-11.221,6.9256,1.3008,-1.9968,-6.5372,-6.5056,-11.221,5.817,20.952,15.885,11.492,14.887,16.103001,9.533,5.7504,11.765,10.177
9.4155,9.6508,14.959,-3.285,-5.9406,7.5728,5.2033,1.868,-2.6537,-3.285,-5.9406,7.1242,20.316999,14.609,13.397,13.592,14.815,6.3124,3.8547,13.725,6.9565
5.624,7.746,9.1057,-2.6409,-3.3003,6.9256,5.2033,3.8003,-1.3592,-2.6409,-3.3003,5.817,15.238,9.5056,10.857,10.356,10.306,6.9565,2.5908,10.458,2.4477
4.9921,4.5714,3.9024,-0.06441,0.0,5.6311,1.9512,2.5121,-1.3592,-0.06441,0.0,3.8562,13.968,7.5917,10.857,9.0615,7.0853,5.0242,0.6951,11.111,-1.4171
-0.6951,3.3016,0.0,1.868,3.9604,2.3948,1.9512,1.868,0.58252,1.868,3.9604,3.2026,11.429,5.0399,8.9524,5.8252,2.5765,2.4477,-1.2006,13.072,-3.3494
-0.6951,1.3968,-1.9512,1.868,7.2607,2.3948,4.5528,0.57971,3.8188,1.868,7.2607,4.5098,3.8095,-1.9777,1.9683,-1.2945,-5.153,-2.0612,-1.8325,5.8824,-5.2818
3.0964,-3.0476,-2.6016,3.8003,8.5809,3.6893,7.8049,-2.6409,7.055,3.8003,8.5809,7.1242,-3.1746,-8.3573,-3.1111,-9.7087,-10.95,-2.7053,-1.2006,-0.65359,-7.2142
-6.3823,-8.127,-9.1057,5.0886,7.2607,1.7476,5.8537,-0.06441,7.055,5.0886,7.2607,4.5098,-5.0794,-13.461,-5.6508,-17.476,-15.459,3.7359,-2.4645,0.0,-9.7907
-6.3823,-11.302,-12.358,-0.06441,0.66007,-3.4304,-0.65041,1.868,0.58252,-0.06441,0.66007,-2.0261,-0.63492,-14.099,-0.57143,-20.065001,-14.171,9.533,-7.5197,7.1895,-9.7907
6.2559,-8.127,-7.1545,-3.9291,-2.6403,-6.0194,-3.252,-0.06441,-5.2427,-3.9291,-2.6403,-3.3333,9.5238,-7.0813,10.857,-11.65,-4.5089,12.754,-10.047,18.301001,-9.1465
8.1517,-2.4127,-1.9512,-7.7939,-6.6007,-5.3722,-5.2033,2.5121,-10.421,-7.7939,-6.6007,-5.9477,17.143,-0.0638,18.476,-0.64725,5.7971,12.754,-11.943,26.797001,-7.2142
6.8878,5.2063,1.9512,-9.0821,-11.881,-4.0777,-5.8537,0.57971,-13.01,-9.0821,-11.881,-5.9477,19.048,5.6778,16.570999,7.767,11.594,10.821,-8.1517,20.261,-1.4171
3.7283,7.1111,7.1545,-5.8615,-10.561,-0.84142,-1.3008,-2.6409,-7.1845,-5.8615,-10.561,-0.71895,15.873,7.5917,9.5873,11.65,13.527,1.8035,-3.0964,9.8039,2.4477
5.624,9.0159,13.008,-1.9968,-1.3201,4.3366,7.1545,-3.285,-0.71197,-1.9968,-1.3201,6.4706,10.794,5.6778,6.4127,11.65,14.171,-6.57,0.6951,3.9216,4.38
6.2559,10.921,16.26,-0.70853,-0.66007,6.9256,10.407,-4.5733,1.2298,-0.70853,-0.66007,9.7386,6.3492,5.6778,7.6825,12.298,15.459,-3.3494,6.3823,0.0,6.3124
3.7283,9.6508,14.959,1.2238,1.3201,5.6311,11.707,-1.9968,6.4078,1.2238,1.3201,8.4314,1.9048,5.0399,9.5873,11.65,15.459,-2.0612,8.91,-3.268,6.9565
13.207,9.0159,16.26,0.57971,3.9604,6.2783,9.7561,-1.9968,8.9968,0.57971,3.9604,7.1242,1.2698,4.4019,15.937,11.003,16.747,-4.6377,6.3823,1.9608,3.7359
7.5197,7.1111,13.008,-1.9968,2.6403,3.0421,7.8049,-1.9968,7.7023,-1.9968,2.6403,5.1634,-2.5397,1.8501,9.5873,7.1197,12.882,-0.77295,1.327,-4.5752,1.1594
3.7283,0.12698,7.8049,-1.3527,0.66007,1.7476,5.2033,0.57971,5.7605,-1.3527,0.66007,3.8562,-5.0794,-0.70175,3.873,1.2945,5.7971,1.1594,0.06319,-8.4967,-2.0612
6.2559,-3.6825,8.4553,1.2238,2.6403,4.9838,7.1545,3.1562,7.055,1.2238,2.6403,7.1242,-3.8095,-0.70175,3.873,0.0,3.2206,1.8035,2.5908,-3.268,-2.7053
12.575,3.3016,8.4553,5.0886,5.2805,9.5146,10.407,4.4444,8.3495,5.0886,5.2805,9.7386,-2.5397,0.57416,3.2381,2.589,1.9324,-2.0612,1.327,-1.3072,-2.7053
0.56872,3.9365,1.3008,-0.06441,3.3003,3.0421,6.5041,-0.06441,7.055,-0.06441,3.3003,4.5098,-5.0794,-1.3397,-3.746,1.2945,-2.5765,-1.4171,-3.7283,-1.3072,-5.2818
-6.3823,4.5714,-1.9512,-1.9968,3.3003,-0.84142,4.5528,-1.3527,5.1133,-1.9968,3.3003,1.8954,-3.8095,-0.0638,-8.1905,3.2362,-2.5765,3.7359,1.327,-5.2288,-3.3494
-1.9589,7.1111,-0.65041,0.57971,4.6205,1.1003,5.2033,-0.06441,3.8188,0.57971,4.6205,3.2026,-1.2698,2.488,-5.0159,5.178,1.2882,3.0918,5.1185,-5.2288,-2.0612
-3.8547,6.4762,0.0,2.5121,4.6205,-0.84142,3.9024,2.5121,3.1715,2.5121,4.6205,3.2026,-1.9048,3.126,-2.4762,4.5307,2.5765,0.5153,1.9589,-3.268,-1.4171
-8.278,-0.50794,-1.9512,-1.3527,3.9604,-4.7249,-2.6016,2.5121,-0.06472,-1.3527,3.9604,-1.3725,-3.8095,3.126,-5.0159,1.2945,1.2882,0.5153,-0.56872,-5.8824,-0.77295
-7.0142,-9.3968,-2.6016,-3.285,-2.6403,-5.3722,-9.7561,1.2238,-3.301,-3.285,-2.6403,-5.9477,-3.8095,3.126,-3.1111,-1.9417,1.2882,1.8035,-3.7283,-3.9216,-2.7053
-5.7504,-13.206,-4.5528,-5.8615,-8.5809,-11.197,-16.26,-2.6409,-5.89,-5.8615,-8.5809,-12.484,-2.5397,4.4019,-0.57143,-1.9417,1.9324,-2.0612,-5.624,-1.9608,-2.7053
-0.6951,-11.302,-5.2033,-6.5056,-7.9208,-11.197,-14.959,-5.8615,-4.5955,-6.5056,-7.9208,-13.137,-1.9048,5.0399,2.6032,0.0,3.2206,-7.2142,-4.3602,-2.6144,-0.12882
-9.5419,-11.937,-10.407,-7.7939,-5.2805,-11.845,-12.358,-7.7939,-2.6537,-7.7939,-5.2805,-13.137,-6.9841,-0.70175,-6.2857,-5.8252,-5.153,-4.6377,-1.2006,-9.8039,-0.77295
-13.965,-9.3968,-13.008,-9.0821,-3.9604,-13.139,-7.8049,-9.0821,-0.06472,-9.0821,-3.9604,-11.176,-9.5238,-4.5295,-10.73,-9.0615,-10.306,-2.7053,1.327,-11.111,-1.4171
-5.7504,-4.9524,-8.4553,-9.7262,-6.6007,-11.845,-6.5041,-9.0821,1.2298,-9.7262,-6.6007,-9.8693,-4.4444,-2.6156,-4.381,-5.178,-5.153,-5.9259,1.327,-5.8824,-1.4171
-5.7504,0.7619,-5.8537,-8.438,-8.5809,-9.2557,-6.5041,-8.438,-0.71197,-8.438,-8.5809,-9.8693,-2.5397,-0.0638,-2.4762,1.2945,-1.2882,-3.9936,1.9589,-5.2288,0.5153
-5.7504,4.5714,-5.8537,-7.1498,-7.2607,-9.2557,-6.5041,-7.1498,-0.71197,-7.1498,-7.2607,-9.8693,-3.1746,1.2121,-3.746,5.8252,0.0,-6.57,3.8547,-6.5359,3.0918
-0.6951,9.0159,-2.6016,-7.1498,-5.9406,-7.3139,-4.5528,-4.5733,1.877,-7.1498,-5.9406,-7.2549,-1.2698,5.0399,-0.57143,12.298,3.8647,-5.9259,8.91,-3.268,7.6006
3.7283,11.556,-0.65041,-7.7939,-8.5809,-6.0194,-4.5528,-4.5733,-0.06472,-7.7939,-8.5809,-7.2549,0.63492,7.5917,1.9683,14.887,6.4412,-4.6377,9.5419,-2.6144,9.533
-1.9589,5.2063,-3.9024,-6.5056,-10.561,-8.6084,-7.1545,-3.285,-3.9482,-6.5056,-10.561,-9.2157,-1.2698,5.6778,-0.57143,9.7087,4.5089,1.8035,6.3823,-3.9216,7.6006
-4.4866,0.12698,-4.5528,-3.285,-7.2607,-6.0194,-5.8537,0.57971,-4.5955,-3.285,-7.2607,-7.9085,-5.7143,-0.0638,-3.1111,0.64725,-0.64412,5.0242,2.5908,-3.268,3.0918
-1.327,-4.9524,-1.9512,-0.70853,0.0,-3.4304,-2.6016,-1.3527,-2.0065,-0.70853,0.0,-2.6797,-11.429,-6.4434,-7.5556,-9.0615,-6.4412,3.0918,-3.0964,-5.8824,-2.7053
1.8325,-11.937,1.9512,-0.06441,0.0,-1.4887,-3.9024,-0.70853,-0.71197,-0.06441,0.0,-0.71895,-12.063,-7.7193,-7.5556,-11.65,-6.4412,1.1594,-4.3602,-5.8824,-1.4171
-1.327,-11.937,1.9512,-2.6409,-2.6403,-2.7832,-5.2033,1.868,-2.0065,-2.6409,-2.6403,-2.6797,-10.794,-5.1675,-7.5556,-9.7087,-5.153,-0.12882,-1.2006,-8.4967,0.5153
0.56872,-4.9524,3.252,-1.9968,-3.3003,-4.0777,-3.252,-0.06441,-0.71197,-1.9968,-3.3003,-3.3333,-5.7143,-0.70175,-4.381,-5.178,-1.9324,-3.9936,2.5908,-7.1895,3.0918
-1.327,-1.7778,0.65041,-5.8615,-5.2805,-8.6084,-5.8537,-2.6409,-1.3592,-5.8615,-5.2805,-7.9085,1.2698,3.126,-0.57143,0.0,1.2882,-2.0612,3.8547,-5.2288,6.3124
3.0964,2.6667,-1.3008,-8.438,-3.9604,-10.55,-7.1545,-5.8615,-0.71197,-8.438,-3.9604,-11.176,6.3492,7.5917,4.5079,6.4725,4.5089,-7.8583,8.91,-1.3072,9.533
-1.327,3.9365,-6.5041,-9.0821,-3.3003,-9.9029,-6.5041,-8.438,0.58252,-9.0821,-3.3003,-11.83,6.3492,7.5917,1.9683,7.767,1.9324,-7.2142,9.5419,0.65359,10.821
-8.278,3.9365,-13.659,-7.7939,-5.9406,-7.9612,-5.8537,-3.9291,-0.06472,-7.7939,-5.9406,-10.523,2.5397,5.0399,-4.381,3.8835,-3.2206,-0.12882,7.0142,-1.9608,7.6006
-3.8547,1.3968,-14.959,-1.3527,-3.9604,-1.4887,-3.9024,1.868,0.58252,-1.3527,-3.9604,-5.9477,-0.63492,1.2121,-3.1111,-1.2945,-5.7971,3.7359,1.9589,-0.65359,1.8035
1.2006,-4.9524,-12.358,4.4444,0.0,4.3366,-1.9512,5.7327,1.2298,4.4444,0.0,-1.3725,-4.4444,-3.8915,-2.4762,-6.4725,-7.7295,4.38,-0.56872,-0.65359,-2.7053
9.4155,-6.2222,-5.8537,8.9533,3.3003,8.8673,0.0,5.7327,1.2298,8.9533,3.3003,3.2026,-7.619,-7.0813,-1.8413,-8.4142,-7.7295,3.0918,-1.2006,-0.65359,-5.2818
3.0964,-4.9524,-2.6016,10.242,6.6007,7.5728,1.9512,10.886,0.58252,10.242,6.6007,3.8562,-10.794,-9.6332,-6.2857,-9.0615,-7.7295,5.0242,-1.8325,-5.8824,-6.57
-5.7504,-4.9524,-4.5528,8.3092,4.6205,1.7476,0.0,8.9533,-0.71197,8.3092,4.6205,1.2418,-13.968,-10.909,-11.365,-9.7087,-9.6618,3.7359,-4.3602,-9.1503,-7.2142
-10.174,-4.9524,-7.1545,7.0209,4.6205,-1.4887,1.3008,3.8003,-2.0065,7.0209,4.6205,1.8954,-15.238,-10.909,-15.175,-9.7087,-12.882,-0.12882,-6.2559,-8.4967,-6.57
-5.1185,-0.50794,-5.2033,8.3092,5.9406,1.7476,4.5528,1.2238,-0.06472,8.3092,5.9406,5.1634,-13.333,-8.9952,-15.175,-7.767,-12.238,-7.8583,-3.0964,-8.4967,-3.9936
-10.806,0.12698,-3.9024,5.7327,6.6007,-0.19417,5.2033,1.868,1.877,5.7327,6.6007,5.1634,-10.159,-6.4434,-14.54,-5.8252,-10.306,-6.57,1.9589,-4.5752,-1.4171
-15.229,-6.2222,-5.2033,-3.285,3.9604,-9.9029,-1.3008,-3.285,1.2298,-3.285,3.9604,-3.3333,-5.0794,-2.6156,-12.635,-2.589,-7.0853,-3.3494,1.9589,-6.5359,1.1594
-1.327,-5.5873,-2.6016,-6.5056,-3.9604,-10.55,-6.5041,-10.37,-2.6537,-6.5056,-3.9604,-7.9085,2.5397,3.764,-2.4762,3.2362,-0.64412,-7.2142,2.5908,-2.6144,4.38
-1.9589,0.12698,-0.65041,-5.8615,-5.9406,-7.3139,-6.5041,-3.9291,-3.9482,-5.8615,-5.9406,-8.5621,6.3492,7.5917,2.6032,7.767,3.2206,-1.4171,4.4866,1.3072,6.9565
0.56872,2.6667,0.0,-4.5733,-4.6205,-3.4304,-5.8537,-0.06441,-2.0065,-4.5733,-4.6205,-7.9085,5.7143,7.5917,5.1429,8.4142,3.8647,0.5153,2.5908,2.6144,7.6006
8.1517,5.2063,0.65041,-0.70853,-0.66007,1.7476,-1.9512,2.5121,-1.3592,-0.70853,-0.66007,-3.3333,5.7143,6.9537,7.6825,6.4725,3.2206,1.1594,3.2227,4.5752,6.9565
10.047,3.9365,-3.252,1.2238,0.66007,4.3366,-0.65041,4.4444,-0.71197,1.2238,0.66007,-1.3725,3.8095,3.764,7.0476,1.9417,0.64412,0.5153,3.8547,2.6144,4.38
9.4155,-1.7778,-11.057,3.8003,-1.3201,6.9256,-1.3008,4.4444,-0.06472,3.8003,-1.3201,-1.3725,-1.9048,-1.3397,3.2381,-3.8835,-4.5089,3.0918,2.5908,1.3072,3.0918
-3.2227,-8.7619,-18.862,3.1562,-3.9604,2.3948,-7.1545,6.3768,-2.6537,3.1562,-3.9604,-6.6013,-10.794,-7.7193,-7.5556,-11.003,-12.882,6.3124,-3.0964,-3.9216,-3.3494
-12.07,-11.302,-20.163,2.5121,-3.9604,-2.1359,-10.407,5.7327,-7.8317,2.5121,-3.9604,-8.5621,-17.143,-12.823,-17.079,-14.887,-18.68,1.8035,-11.943,-8.4967,-9.7907
-12.701,-8.7619,-11.057,5.0886,1.3201,-0.84142,-5.2033,3.8003,-4.5955,5.0886,1.3201,-3.9869,-15.238,-12.185,-18.349001,-11.65,-15.459,-1.4171,-6.2559,-6.5359,-8.5024
-8.91,-4.3175,-1.3008,6.3768,5.2805,1.1003,1.9512,1.2238,-0.06472,6.3768,5.2805,2.549,-9.5238,-11.547,-15.81,-9.0615,-9.6618,-3.3494,-0.56872,-5.2288,-7.2142
-8.278,-5.5873,0.65041,3.8003,5.2805,-1.4887,1.9512,-1.3527,-0.71197,3.8003,5.2805,2.549,-4.4444,-12.185,-10.095,-11.003,-6.4412,-3.9936,-4.9921,-2.6144,-11.079
0.56872,-4.3175,5.2033,7.0209,5.9406,2.3948,3.9024,2.5121,-1.3592,7.0209,5.9406,5.817,5.0794,-7.0813,2.6032,-6.4725,1.9324,-3.3494,-7.5197,5.8824,-9.7907
9.4155,-7.4921,9.7561,7.6651,3.9604,4.3366,1.9512,5.7327,-1.3592,7.6651,3.9604,6.4706,12.063,-1.9777,11.492,-1.9417,9.0177,-1.4171,-6.8878,7.1895,-6.57
10.047,-3.6825,13.659,5.7327,0.0,3.6893,3.252,5.7327,-2.0065,5.7327,0.0,6.4706,16.507999,5.0399,15.302,4.5307,13.527,6.9565,-1.2006,8.4967,-0.77295
6.2559,5.8413,16.26,4.4444,0.66007,3.0421,5.8537,5.0886,-1.3592,4.4444,0.66007,6.4706,18.413,11.419,14.032,11.65,16.103001,9.533,2.5908,9.1503,5.6683
8.1517,12.825,16.910999,5.0886,6.6007,6.2783,9.7561,4.4444,2.5243,5.0886,6.6007,9.085,17.143,16.523001,11.492,15.534,15.459,6.3124,5.1185,5.2288,10.177
10.047,16.0,14.309,7.0209,8.5809,8.8673,11.707,6.3768,4.466,7.0209,8.5809,10.392,15.873,18.437,10.857,16.827999,14.815,3.0918,5.7504,4.5752,11.465
6.2559,16.635,5.8537,4.4444,5.2805,5.6311,9.1057,5.7327,3.8188,4.4444,5.2805,6.4706,12.698,16.523001,7.0476,15.534,10.306,1.1594,4.4866,2.6144,11.465
0.56872,10.921,-2.6016,1.2238,4.6205,1.1003,5.8537,1.2238,4.466,1.2238,4.6205,1.8954,5.7143,13.333,1.3333,12.298,4.5089,-3.3494,7.6461,0.0,11.465
-1.327,5.2063,-4.5528,0.57971,2.6403,-0.84142,2.6016,-1.9968,4.466,0.57971,2.6403,-0.71895,-2.5397,7.5917,-6.2857,7.767,-1.2882,-3.9936,5.7504,-5.2288,7.6006
-5.1185,4.5714,-1.9512,3.1562,4.6205,0.45307,3.9024,-0.70853,4.466,3.1562,4.6205,1.2418,-8.254,1.8501,-12.0,3.2362,-5.7971,-3.3494,6.3823,-9.1503,5.6683
-1.9589,3.3016,3.252,5.0886,7.2607,4.9838,7.8049,1.2238,6.4078,5.0886,7.2607,5.817,-9.5238,-3.2536,-8.8254,-1.2945,-5.7971,-5.9259,5.1185,-4.5752,2.4477
5.624,1.3968,5.8537,4.4444,7.9208,6.9256,9.1057,1.868,6.4078,4.4444,7.9208,8.4314,-8.8889,-10.909,-5.0159,-9.0615,-7.0853,-2.7053,-1.2006,-2.6144,-3.9936
3.0964,-1.7778,7.8049,5.7327,3.9604,10.162,6.5041,6.3768,3.1715,5.7327,3.9604,9.085,-6.3492,-15.375,-1.8413,-12.945,-5.7971,6.3124,-3.7283,2.6144,-9.1465
3.7283,-1.1429,9.7561,8.3092,1.3201,11.456,6.5041,10.242,-0.71197,8.3092,1.3201,10.392,-3.8095,-17.289,1.3333,-13.592,-3.2206,10.177,-3.7283,5.2288,-10.435
10.679,-2.4127,12.358,8.9533,3.9604,10.162,6.5041,4.4444,0.58252,8.9533,3.9604,10.392,1.9048,-12.185,7.6825,-9.0615,1.9324,3.0918,-1.8325,11.765,-9.1465
4.9921,-1.7778,11.707,8.9533,5.9406,9.5146,7.1545,4.4444,1.2298,8.9533,5.9406,10.392,1.9048,-6.4434,5.1429,-3.8835,4.5089,5.6683,-2.4645,6.5359,-7.2142
5.624,2.0317,9.7561,5.0886,4.6205,10.162,6.5041,2.5121,1.2298,5.0886,4.6205,9.085,1.2698,-1.9777,3.2381,0.64725,4.5089,5.6683,-1.8325,1.9608,-3.9936
2.4645,2.0317,5.8537,3.1562,1.9802,4.9838,3.252,1.868,-0.71197,3.1562,1.9802,6.4706,1.9048,3.126,2.6032,3.8835,3.8647,2.4477,0.6951,2.6144,1.1594
-3.2227,1.3968,0.0,2.5121,0.0,-0.19417,0.65041,1.2238,-2.6537,2.5121,0.0,3.2026,0.63492,6.9537,0.69841,6.4725,2.5765,-0.77295,2.5908,0.0,5.6683
0.56872,3.3016,-1.3008,3.8003,3.9604,-1.4887,1.9512,-1.3527,-0.71197,3.8003,3.9604,3.8562,0.0,10.144,2.6032,9.0615,3.8647,-6.57,3.8547,0.0,8.8889
2.4645,9.6508,1.9512,7.6651,8.5809,1.7476,6.5041,-2.6409,1.877,7.6651,8.5809,7.7778,-1.9048,11.419,2.6032,11.65,5.153,-5.9259,5.7504,-1.3072,10.821
-4.4866,7.746,2.6016,3.1562,10.561,0.45307,8.4553,-7.1498,5.1133,3.1562,10.561,7.7778,-7.619,6.9537,-4.381,9.0615,1.2882,-3.9936,4.4866,-5.2288,9.533
-6.3823,3.3016,1.9512,2.5121,7.9208,-0.84142,5.2033,-3.285,5.1133,2.5121,7.9208,3.8562,-10.794,1.8501,-6.9206,3.8835,-1.2882,-3.9936,5.1185,-4.5752,6.9565
-1.327,0.12698,2.6016,5.0886,3.3003,1.7476,0.0,1.868,0.58252,5.0886,3.3003,1.2418,-11.429,-4.5295,-6.2857,-0.64725,-2.5765,-2.0612,1.9589,-5.8824,2.4477
3.7283,-1.7778,3.9024,4.4444,-0.66007,3.6893,-3.9024,1.868,-4.5955,4.4444,-0.66007,-0.06536,-9.5238,-8.9952,-4.381,-4.5307,-2.5765,-0.12882,-3.7283,-4.5752,-3.3494
5.624,-0.50794,5.2033,3.8003,-1.9802,2.3948,-3.9024,2.5121,-4.5955,3.8003,-1.9802,-1.3725,-5.7143,-12.185,-0.57143,-6.4725,-1.9324,-0.12882,-4.9921,0.65359,-4.6377
8.1517,3.3016,6.5041,1.868,-1.3201,2.3948,-1.3008,3.1562,-3.9482,1.868,-1.3201,-0.71895,-2.5397,-12.185,1.9683,-6.4725,-1.2882,-0.12882,-4.9921,3.268,-5.2818
7.5197,2.6667,5.8537,-0.70853,-3.9604,2.3948,0.0,2.5121,-2.6537,-0.70853,-3.9604,-0.71895,-1.9048,-10.909,1.3333,-7.1197,-2.5765,-2.7053,-6.2559,2.6144,-5.9259
4.9921,-1.1429,7.1545,1.2238,-2.6403,3.6893,1.9512,4.4444,-1.3592,1.2238,-2.6403,1.2418,-0.63492,-5.8054,0.69841,-5.8252,-1.9324,0.5153,-4.3602,0.65359,-5.9259
-2.5908,-2.4127,3.252,3.1562,-1.3201,1.7476,0.65041,7.0209,-2.0065,3.1562,-1.3201,0.58824,-0.63492,-1.9777,-1.8413,-4.5307,-2.5765,3.0918,-1.2006,0.65359,-5.9259
-2.5908,-2.4127,-2.6016,1.2238,-1.9802,2.3948,-0.65041,5.7327,-3.9482,1.2238,-1.9802,-0.71895,-1.9048,-0.0638,-2.4762,-3.8835,-3.2206,3.7359,-0.56872,-2.6144,-5.9259
-1.9589,-0.50794,-5.8537,3.1562,-0.66007,3.6893,0.0,6.3768,-2.6537,3.1562,-0.66007,0.58824,-1.9048,3.126,-2.4762,-0.64725,-3.8647,1.1594,-0.56872,-3.9216,-3.3494
-6.3823,3.3016,-4.5528,5.7327,-1.3201,3.0421,3.252,7.6651,-0.06472,5.7327,-1.3201,3.2026,-2.5397,5.0399,-6.2857,2.589,-3.8647,-0.77295,3.2227,-3.9216,0.5153
-7.0142,5.2063,-1.3008,4.4444,-0.66007,2.3948,3.9024,3.8003,1.2298,4.4444,-0.66007,3.2026,-4.4444,4.4019,-9.4603,3.2362,-3.8647,-4.6377,3.8547,-5.8824,1.1594
-8.278,5.2063,0.0,5.0886,3.3003,-0.19417,4.5528,1.2238,1.2298,5.0886,3.3003,3.2026,-6.3492,1.2121,-10.095,0.64725,-4.5089,-5.2818,1.9589,-5.2288,1.1594
-10.174,0.12698,-2.6016,5.7327,4.6205,-2.7832,2.6016,-0.70853,2.5243,5.7327,4.6205,1.2418,-7.619,-2.6156,-7.5556,-2.589,-5.153,-7.8583,0.06319,-4.5752,0.5153
-6.3823,-3.0476,-4.5528,3.8003,3.3003,-3.4304,0.0,-2.6409,1.877,3.8003,3.3003,-0.71895,-5.7143,-5.1675,-1.8413,-4.5307,-4.5089,-7.2142,-2.4645,1.3072,-2.0612
-7.0142,-4.9524,-5.8537,0.57971,0.66007,-4.7249,-3.252,-2.6409,-2.0065,0.57971,0.66007,-2.6797,-5.7143,-8.9952,-3.1111,-8.4142,-5.7971,-0.12882,-6.8878,-1.3072,-3.9936
-1.327,-4.9524,-0.65041,2.5121,-3.3003,-0.84142,-3.252,-0.06441,-3.9482,2.5121,-3.3003,-0.06536,0.0,-5.1675,0.69841,-5.8252,-1.9324,3.7359,-4.9921,1.3072,-2.7053
8.1517,-2.4127,7.1545,3.1562,-3.3003,4.3366,-1.3008,1.2238,-3.9482,3.1562,-3.3003,4.5098,7.619,-0.0638,7.6825,-1.2945,4.5089,5.6683,-3.7283,7.1895,-0.77295
11.311,2.6667,10.407,-0.06441,-3.3003,4.3366,-1.3008,0.57971,-5.89,-0.06441,-3.3003,3.2026,11.429,3.764,9.5873,2.589,8.3736,5.0242,-4.3602,8.4967,0.5153
4.3602,1.3968,9.7561,-0.70853,-3.9604,3.0421,-1.3008,3.1562,-5.2427,-0.70853,-3.9604,2.549,11.429,6.9537,5.7778,5.8252,8.3736,5.0242,-2.4645,4.5752,1.8035
5.624,4.5714,11.707,-1.3527,-1.9802,4.3366,1.9512,1.2238,-1.3592,-1.3527,-1.9802,4.5098,10.794,8.8676,5.7778,9.7087,10.95,5.0242,1.327,2.6144,2.4477
11.311,11.556,15.61,-0.06441,-0.66007,8.8673,7.8049,3.8003,1.877,-0.06441,-0.66007,9.085,10.794,9.5056,10.222,12.945,13.527,5.6683,4.4866,3.9216,2.4477
16.367001,14.095,16.26,4.4444,5.9406,14.045,13.659,8.3092,8.9968,4.4444,5.9406,13.66,8.8889,8.8676,14.032,11.65,12.238,-0.12882,8.278,7.1895,1.8035
16.997999,16.635,15.61,12.174,15.182,19.871,20.813,10.886,14.175,12.174,15.182,19.542,5.7143,6.9537,11.492,9.7087,8.3736,3.7359,10.174,3.268,1.1594
11.311,16.0,11.707,14.75,15.182,18.576,20.813,12.818,14.175,14.75,15.182,18.889,1.2698,2.488,8.9524,5.178,3.2206,10.821,7.6461,0.0,-0.77295
11.311,8.381,6.5041,12.818,13.201,15.34,15.61,11.53,11.586,12.818,13.201,14.967,-0.63492,-0.70175,9.5873,2.589,0.0,8.8889,6.3823,2.6144,0.5153
9.4155,3.9365,1.3008,10.242,10.561,12.751,9.7561,9.5974,8.9968,10.242,10.561,9.7386,-1.2698,-0.70175,8.3175,0.64725,-2.5765,5.6683,3.2227,1.9608,1.8035
6.8878,3.3016,1.3008,10.242,7.9208,12.104,7.8049,7.0209,5.7605,10.242,7.9208,9.085,-1.9048,-0.70175,5.1429,-0.64725,-3.8647,3.7359,3.8547,1.9608,1.8035
6.8878,2.6667,3.9024,8.9533,9.2409,13.398,7.8049,5.7327,6.4078,8.9533,9.2409,10.392,0.0,-0.0638,2.6032,-0.64725,-3.2206,1.8035,3.8547,1.9608,2.4477
1.2006,3.3016,5.8537,7.6651,9.901,9.5146,5.8537,5.0886,5.1133,7.6651,9.901,9.085,4.4444,4.4019,1.9683,1.2945,0.0,0.5153,0.06319,4.5752,1.8035
4.9921,3.9365,8.4553,5.7327,3.3003,4.9838,0.65041,5.7327,-0.06472,5.7327,3.3003,4.5098,10.794,8.8676,7.6825,5.178,7.7295,0.5153,-1.2006,7.1895,3.0918
3.7283,0.12698,5.2033,0.57971,-4.6205,0.45307,-5.2033,6.3768,-5.2427,0.57971,-4.6205,-2.6797,13.333,10.144,10.222,6.4725,10.306,6.9565,-3.7283,7.8431,1.1594
6.8878,-3.6825,4.5528,-1.9968,-7.2607,0.45307,-5.8537,4.4444,-5.89,-1.9968,-7.2607,-3.3333,14.603,11.419,13.397,7.767,12.238,10.177,-3.0964,11.765,0.5153
1.8325,-4.3175,0.65041,-5.2174,-9.2409,-0.84142,-6.5041,3.8003,-6.5372,-5.2174,-9.2409,-3.9869,10.159,8.2297,7.6825,5.8252,8.3736,11.465,-5.624,9.1503,-2.7053
-0.06319,-0.50794,-0.65041,-7.1498,-9.2409,-2.7832,-3.9024,2.5121,-3.301,-7.1498,-9.2409,-3.9869,6.9841,6.3158,3.873,6.4725,5.7971,8.2448,-3.7283,7.8431,-2.0612
1.8325,3.3016,2.6016,-9.0821,-9.2409,-4.7249,-1.9512,-0.06441,-1.3592,-9.0821,-9.2409,-4.6405,5.7143,3.764,3.873,6.4725,5.153,3.0918,-3.0964,8.4967,-0.77295
4.3602,3.3016,5.2033,-11.014,-12.541,-5.3722,-3.9024,-2.6409,-3.301,-11.014,-12.541,-5.9477,8.254,5.6778,5.7778,6.4725,5.7971,3.0918,1.9589,6.5359,1.8035
6.8878,-0.50794,3.252,-11.659,-13.861,-5.3722,-7.8049,-4.5733,-5.2427,-11.659,-13.861,-7.9085,12.063,8.2297,8.9524,5.8252,7.7295,4.38,2.5908,7.1895,2.4477
4.9921,-0.50794,0.0,-6.5056,-9.901,-2.1359,-7.1545,-1.9968,-6.5372,-6.5056,-9.901,-5.9477,13.968,8.2297,10.222,3.2362,6.4412,4.38,-1.8325,9.1503,0.5153
2.4645,-4.3175,-1.9512,-1.9968,-7.2607,-0.84142,-7.1545,-1.9968,-5.89,-1.9968,-7.2607,-3.3333,13.968,8.2297,8.3175,1.9417,3.8647,-0.77295,-3.7283,9.1503,-0.77295
-2.5908,-6.8571,-2.6016,-5.2174,-5.9406,-2.7832,-6.5041,-5.2174,-5.89,-5.2174,-5.9406,-3.3333,11.429,9.5056,3.2381,3.2362,1.2882,-2.0612,-2.4645,5.2288,1.1594
-6.3823,-2.4127,-4.5528,-5.8615,-4.6205,-5.3722,-4.5528,-5.8615,-3.9482,-5.8615,-4.6205,-3.3333,7.619,12.695,-1.8413,6.4725,0.0,-5.2818,1.327,0.0,5.6683
-11.438,2.0317,-5.2033,-3.285,-2.6403,-6.6667,-2.6016,-5.2174,-2.6537,-3.285,-2.6403,-2.6797,2.5397,12.057,-6.2857,8.4142,-1.2882,-5.9259,2.5908,-4.5752,6.9565
-12.701,1.3968,-5.8537,-2.6409,-2.6403,-6.6667,-3.9024,-5.8615,-3.9482,-2.6409,-2.6403,-3.9869,-1.9048,8.8676,-6.9206,6.4725,-3.2206,-7.2142,1.327,-4.5752,6.3124
-4.4866,0.12698,-3.252,-0.70853,-0.66007,-4.0777,-3.252,-3.285,-3.9482,-0.70853,-0.66007,-1.3725,-6.3492,4.4019,-6.2857,3.2362,-3.8647,-7.2142,-0.56872,-7.1895,4.38
2.4645,1.3968,0.0,-0.70853,-2.6403,-2.1359,-2.6016,-5.2174,-5.2427,-0.70853,-2.6403,-0.71895,-5.0794,3.126,-2.4762,2.589,-1.2882,-2.0612,1.327,-4.5752,3.7359
-3.8547,-4.3175,-3.252,-3.9291,-5.2805,-7.9612,-7.8049,-6.5056,-6.5372,-3.9291,-5.2805,-7.2549,-2.5397,0.57416,-1.2063,0.64725,-1.2882,-0.12882,0.06319,-1.9608,1.8035
-9.5419,-9.3968,-7.8049,-7.1498,-4.6205,-11.845,-11.057,-5.8615,-5.2427,-7.1498,-4.6205,-11.176,-2.5397,-3.2536,-1.8413,-2.589,-3.2206,-0.12882,-1.8325,-1.9608,-0.77295
-3.8547,-8.127,-9.1057,-5.8615,-2.6403,-8.6084,-7.8049,-3.9291,-3.9482,-5.8615,-2.6403,-9.8693,-1.9048,-6.4434,-0.57143,-5.8252,-3.8647,-4.6377,-2.4645,0.0,-2.7053
-1.327,-7.4921,-9.1057,-2.6409,0.0,-4.7249,-5.2033,-1.3527,-2.0065,-2.6409,0.0,-7.2549,-0.63492,-7.0813,0.06349,-7.1197,-3.2206,-1.4171,-4.9921,1.9608,-5.2818
2.4645,-1.7778,-5.2033,3.8003,4.6205,1.1003,0.65041,4.4444,3.1715,3.8003,4.6205,-2.0261,2.5397,-3.2536,2.6032,-2.589,0.64412,2.4477,-2.4645,4.5752,-3.3494
-1.327,1.3968,-2.6016,2.5121,4.6205,-0.84142,3.9024,3.1562,5.1133,2.5121,4.6205,-0.06536,1.2698,-3.2536,0.69841,-0.64725,0.64412,5.6683,-1.2006,1.9608,-5.2818
-0.06319,4.5714,2.6016,-0.06441,2.6403,-1.4887,4.5528,1.2238,4.466,-0.06441,2.6403,1.2418,3.1746,1.2121,3.2381,3.2362,3.8647,6.9565,0.06319,3.9216,-3.9936
4.9921,9.6508,7.1545,-1.3527,1.3201,0.45307,5.2033,-0.06441,0.58252,-1.3527,1.3201,1.8954,8.254,6.9537,6.4127,6.4725,7.0853,6.9565,-1.2006,10.458,-1.4171
6.2559,3.9365,6.5041,3.1562,1.3201,4.9838,5.2033,1.2238,-1.3592,3.1562,1.3201,5.1634,8.254,8.8676,2.6032,3.8835,3.2206,8.2448,-1.2006,11.765,-2.0612
2.4645,-4.3175,5.2033,3.8003,0.66007,4.3366,3.252,3.8003,-5.2427,3.8003,0.66007,5.1634,7.619,7.5917,-2.4762,-0.64725,-1.9324,1.8035,-6.2559,10.458,-3.9936
-4.4866,-7.4921,3.252,-3.285,-3.9604,-2.7832,-3.252,-0.06441,-9.1262,-3.285,-3.9604,-0.06536,6.9841,8.2297,-5.0159,-1.2945,-3.2206,-1.4171,-7.5197,5.2288,-1.4171
-10.174,-8.7619,0.65041,-8.438,-11.221,-9.2557,-9.7561,-7.1498,-12.362,-8.438,-11.221,-6.6013,5.7143,8.8676,-5.6508,1.9417,-0.64412,-0.77295,-5.624,0.0,1.8035
-5.7504,-4.9524,0.0,-8.438,-15.182,-11.197,-13.008,-9.7262,-13.01,-8.438,-15.182,-10.523,5.7143,9.5056,0.06349,6.4725,4.5089,-3.3494,-3.7283,-1.9608,3.7359
-4.4866,-1.7778,-1.9512,-9.7262,-12.541,-11.845,-11.707,-11.659,-8.479,-9.7262,-12.541,-11.176,3.8095,7.5917,3.2381,9.0615,6.4412,-5.9259,0.6951,-3.268,6.3124
-5.7504,7.1111,-4.5528,-5.8615,-3.9604,-6.6667,-3.9024,-7.7939,-2.6537,-5.8615,-3.9604,-6.6013,0.0,2.488,0.06349,6.4725,3.2206,-5.9259,0.6951,-6.5359,4.38
-2.5908,3.9365,-5.2033,-2.6409,1.3201,-2.7832,1.3008,-4.5733,1.877,-2.6409,1.3201,-1.3725,-5.0794,-4.5295,-3.1111,1.2945,-1.9324,-7.8583,3.8547,-7.1895,2.4477
3.0964,1.3968,1.9512,1.2238,3.9604,3.0421,5.8537,0.57971,6.4078,1.2238,3.9604,4.5098,-5.0794,-5.1675,-1.2063,0.64725,0.0,-3.3494,7.6461,-4.5752,2.4477
10.679,1.3968,10.407,3.8003,3.9604,7.5728,7.1545,1.868,5.1133,3.8003,3.9604,8.4314,-3.1746,-6.4434,3.2381,-1.2945,3.2206,1.1594,3.8547,-2.6144,-0.77295
11.943,-1.7778,9.7561,3.8003,3.3003,10.162,3.9024,5.7327,2.5243,3.8003,3.3003,7.7778,-5.0794,-10.271,3.873,-4.5307,1.2882,1.8035,0.06319,-2.6144,-3.9936
7.5197,-2.4127,0.0,2.5121,1.9802,8.8673,-0.65041,7.6651,2.5243,2.5121,1.9802,2.549,-8.8889,-11.547,0.69841,-6.4725,-3.8647,3.7359,-1.2006,-2.6144,-5.9259
0.56872,-4.3175,-11.707,0.57971,3.9604,3.6893,-3.252,5.7327,3.1715,0.57971,3.9604,-2.6797,-13.968,-14.737,-5.6508,-10.356,-11.594,5.6683,-1.8325,-5.8824,-6.57
8.1517,2.0317,-11.707,3.1562,6.6007,6.9256,1.9512,5.7327,5.7605,3.1562,6.6007,-0.06536,-13.968,-12.823,-5.0159,-9.7087,-13.527,-0.12882,-1.8325,-5.2288,-4.6377
3.0964,1.3968,-8.4553,6.3768,7.2607,8.8673,3.9024,7.0209,7.7023,6.3768,7.2607,3.2026,-14.603,-11.547,-8.1905,-10.356,-14.815,-0.77295,0.06319,-5.2288,-5.2818
-10.806,-4.3175,-5.8537,1.868,5.9406,0.45307,0.65041,6.3768,5.7605,1.868,5.9406,-0.06536,-15.238,-10.909,-13.905,-11.003,-14.171,1.1594,-1.8325,-11.111,-7.8583
-7.6461,-4.3175,-0.65041,-1.9968,1.3201,-4.7249,-1.9512,2.5121,3.1715,-1.9968,1.3201,-3.9869,-10.159,-7.0813,-8.8254,-7.1197,-7.7295,1.1594,-1.8325,-10.458,-5.2818
-2.5908,-4.9524,1.9512,-1.9968,-3.9604,-6.6667,-7.8049,-1.3527,-0.06472,-1.9968,-3.9604,-7.9085,-4.4444,-5.1675,-0.57143,-3.2362,-0.64412,0.5153,1.327,-3.9216,-2.7053
5.624,-3.6825,4.5528,-1.3527,-2.6403,-4.7249,-8.4553,-3.9291,-0.71197,-1.3527,-2.6403,-7.2549,0.0,-2.6156,5.1429,1.2945,5.7971,-3.9936,2.5908,-1.3072,-0.77295
-0.06319,-4.3175,-3.252,-0.70853,-2.6403,-4.7249,-9.1057,-2.6409,-0.71197,-0.70853,-2.6403,-8.5621,-0.63492,-3.2536,1.9683,1.2945,3.2206,-3.3494,-1.8325,-2.6144,-0.77295
-3.8547,-1.1429,-13.008,-0.06441,1.9802,-4.0777,-2.6016,-0.70853,1.877,-0.06441,1.9802,-5.2941,-3.1746,-4.5295,-3.1111,-1.2945,-2.5765,-2.0612,0.06319,-2.6144,1.1594
-7.0142,-6.8571,-18.862,-0.06441,0.66007,-5.3722,-1.9512,-3.9291,1.2298,-0.06441,0.66007,-4.6405,-5.7143,-5.1675,-8.8254,-7.1197,-9.0177,-5.9259,0.6951,-4.5752,-0.12882
-10.174,-12.571,-16.26,0.57971,-2.6403,-7.9612,-4.5528,-3.9291,-0.71197,0.57971,-2.6403,-5.9477,-3.8095,-1.3397,-11.365,-7.767,-10.306,-3.3494,-1.2006,-6.5359,0.5153
-7.0142,-11.302,-8.4553,-0.70853,-1.3201,-7.3139,-7.1545,-3.9291,-2.0065,-0.70853,-1.3201,-5.9477,0.0,3.126,-8.8254,-3.8835,-5.7971,-3.3494,-3.7283,-6.5359,1.8035
-1.327,-8.7619,-4.5528,-4.5733,-3.3003,-6.6667,-10.407,-8.438,-2.6537,-4.5733,-3.3003,-7.9085,2.5397,5.0399,-4.381,-1.2945,-3.2206,-6.57,-1.8325,-3.9216,3.0918
-3.8547,-4.9524,-2.6016,-6.5056,-5.2805,-8.6084,-9.1057,-6.5056,-2.0065,-6.5056,-5.2805,-8.5621,3.1746,3.764,-2.4762,-1.9417,-2.5765,-5.2818,-0.56872,-3.9216,3.0918
4.3602,2.6667,3.252,-5.8615,-2.6403,-6.6667,-3.252,-7.1498,1.2298,-5.8615,-2.6403,-4.6405,6.3492,3.126,3.873,-1.2945,0.64412,-9.7907,-0.56872,0.0,3.0918
-0.06319,5.2063,3.252,-7.7939,-3.9604,-8.6084,-1.3008,-9.0821,1.2298,-7.7939,-3.9604,-3.9869,8.8889,4.4019,5.1429,-0.64725,2.5765,-5.2818,3.8547,3.268,5.0242
-7.0142,2.0317,1.3008,-10.37,-6.6007,-12.492,-5.2033,-8.438,0.58252,-10.37,-6.6007,-7.9085,8.8889,5.0399,2.6032,1.2945,4.5089,1.1594,7.0142,1.3072,5.0242
-5.1185,1.3968,0.65041,-12.303,-11.221,-14.434,-9.1057,-8.438,-2.0065,-12.303,-11.221,-11.83,9.5238,6.3158,3.2381,5.178,8.3736,0.5153,6.3823,-0.65359,3.7359
-2.5908,4.5714,1.9512,-12.303,-11.881,-15.081,-8.4553,-10.37,-0.71197,-12.303,-11.881,-11.83,8.254,5.6778,3.873,8.4142,10.306,-4.6377,7.0142,1.3072,5.0242
-8.278,7.1111,1.9512,-7.7939,-4.6205,-12.492,-1.9512,-7.1498,3.8188,-7.7939,-4.6205,-7.2549,1.9048,-0.70175,-5.0159,5.8252,4.5089,-2.7053,7.0142,-2.6144,1.8035
-8.91,5.8413,-3.252,-0.06441,5.2805,-4.7249,7.1545,-1.3527,10.291,-0.06441,5.2805,0.58824,-4.4444,-8.3573,-10.73,-1.9417,-3.8647,-2.0612,5.1185,-5.8824,-2.7053
-2.5908,3.3016,-9.1057,5.7327,14.521,4.3366,14.959,2.5121,12.88,5.7327,14.521,7.7778,-7.619,-14.099,-10.73,-9.0615,-9.6618,-0.77295,3.2227,-5.2288,-4.6377
2.4645,-0.50794,-8.4553,7.6651,13.201,7.5728,15.61,3.8003,12.233,7.6651,13.201,10.392,-6.3492,-12.823,-5.6508,-8.4142,-8.3736,-2.0612,2.5908,0.65359,-3.9936
5.624,-0.50794,-2.6016,7.6651,8.5809,8.2201,13.659,5.0886,8.3495,7.6651,8.5809,9.7386,-4.4444,-5.8054,-2.4762,-0.64725,-3.2206,0.5153,1.9589,-0.65359,-0.12882
3.7283,4.5714,-0.65041,6.3768,5.9406,5.6311,8.4553,0.57971,4.466,6.3768,5.9406,5.1634,-2.5397,4.4019,-3.1111,8.4142,0.64412,1.1594,3.8547,-3.9216,6.9565
0.56872,8.381,0.0,5.7327,6.6007,3.6893,6.5041,-1.3527,4.466,5.7327,6.6007,3.8562,0.63492,10.781,-2.4762,14.887,3.2206,-0.77295,7.6461,-2.6144,12.11
0.56872,8.381,-1.3008,8.3092,9.901,5.6311,5.2033,-0.06441,5.1133,8.3092,9.901,3.8562,1.9048,11.419,-0.57143,13.592,2.5765,-2.7053,5.1185,-1.9608,13.398
8.1517,5.8413,-1.3008,7.0209,11.881,4.9838,3.252,-2.6409,5.1133,7.0209,11.881,3.2026,1.9048,12.057,3.2381,12.298,3.2206,-5.9259,3.8547,-0.65359,12.754
-1.9589,3.9365,-2.6016,1.868,4.6205,-3.4304,-2.6016,-3.9291,1.2298,1.868,4.6205,-3.9869,0.63492,12.057,1.9683,11.65,3.2206,-2.0612,2.5908,0.0,11.465
-12.07,-2.4127,-4.5528,-7.1498,-4.6205,-15.728,-12.358,-9.0821,-3.9482,-7.1498,-4.6205,-15.098,-1.9048,11.419,-1.2063,11.003,3.2206,-0.77295,1.327,-3.268,10.821
-7.6461,-4.9524,-3.252,-11.659,-8.5809,-19.612,-18.211,-13.591,-7.1845,-11.659,-8.5809,-19.02,1.2698,11.419,2.6032,11.003,5.7971,-5.2818,0.06319,0.65359,9.533
-8.278,-7.4921,-6.5041,-11.014,-9.2409,-17.67,-19.511999,-9.7262,-8.479,-11.014,-9.2409,-19.02,0.0,5.6778,-1.2063,3.8835,0.0,-5.9259,-1.2006,-0.65359,6.3124
-8.278,-9.3968,-10.407,-5.2174,-1.9802,-11.197,-12.358,-8.438,-5.89,-5.2174,-1.9802,-11.83,-4.4444,-3.2536,-8.8254,-7.767,-10.306,-3.9936,-4.9921,-5.2288,1.1594
-12.07,-10.032,-11.057,0.57971,3.3003,-3.4304,-2.6016,-3.9291,-0.06472,0.57971,3.3003,-2.0261,-5.7143,-8.9952,-13.27,-17.476,-16.747,-1.4171,-4.3602,-5.2288,-3.9936
-13.965,-11.937,-10.407,3.8003,7.9208,0.45307,3.9024,3.1562,2.5243,3.8003,7.9208,4.5098,-5.0794,-10.909,-14.54,-22.653999,-18.035,-1.4171,-4.3602,-5.8824,-6.57
-1.9589,-11.937,-3.9024,4.4444,5.9406,3.6893,4.5528,4.4444,0.58252,4.4444,5.9406,6.4706,2.5397,-3.2536,-5.6508,-16.181,-9.0177,-1.4171,-4.9921,1.3072,-3.9936
8.1517,-6.2222,7.1545,2.5121,1.3201,5.6311,3.252,5.0886,-3.9482,2.5121,1.3201,6.4706,12.698,6.9537,6.4127,-4.5307,5.153,5.6683,-6.2559,8.4967,-1.4171
13.207,-4.3175,14.309,1.868,0.0,6.2783,-0.65041,6.3768,-6.5372,1.868,0.0,4.5098,18.413,11.419,16.570999,3.2362,14.815,9.533,-7.5197,13.072,-0.77295
22.054001,-0.50794,22.114,3.8003,0.66007,10.162,1.9512,8.3092,-5.89,3.8003,0.66007,7.1242,20.952,13.333,24.190001,9.7087,22.544001,10.821,-4.3602,15.686,0.5153
27.740999,7.1111,26.016001,5.0886,2.6403,12.104,4.5528,10.242,-2.6537,5.0886,2.6403,8.4314,21.587,13.333,28.0,14.239,27.052999,11.465,0.06319,15.686,0.5153
28.372999,14.095,26.667,1.868,0.66007,9.5146,5.8537,5.7327,1.2298,1.868,0.66007,7.7778,21.587,13.971,30.540001,18.122999,29.629999,11.465,4.4866,15.686,1.8035
20.790001,16.635,22.114,-3.285,-1.3201,4.3366,3.9024,3.1562,1.877,-3.285,-1.3201,3.2026,19.048,12.057,28.0,19.417,28.986,11.465,3.8547,14.379,1.1594
13.207,17.905001,16.26,-3.9291,-3.9604,-0.19417,1.3008,1.868,0.58252,-3.9291,-3.9604,-1.3725,15.238,8.8676,22.921,18.77,26.409,8.2448,3.8547,11.111,1.8035
14.471,15.365,13.008,-1.3527,-0.66007,-0.84142,1.3008,-3.285,3.1715,-1.3527,-0.66007,-2.0261,13.333,6.9537,20.381001,17.476,23.188,-0.12882,3.2227,9.8039,2.4477
16.367001,9.6508,11.057,8.3092,8.5809,9.5146,3.252,1.868,3.8188,8.3092,8.5809,5.817,10.159,3.764,15.937,10.356,16.103001,-1.4171,0.6951,10.458,1.8035
-0.06319,-4.9524,1.9512,14.75,12.541,12.751,3.252,10.242,1.2298,14.75,12.541,9.085,2.5397,-4.5295,3.2381,-1.9417,1.9324,4.38,-5.624,4.5752,-2.7053
-10.174,-15.746,-6.5041,16.683001,15.182,11.456,3.9024,14.106,0.58252,16.683001,15.182,9.085,-2.5397,-10.909,-5.0159,-12.298,-9.0177,7.6006,-8.1517,-1.3072,-7.8583
-5.1185,-15.746,-9.7561,21.191999,18.482,13.398,8.4553,14.75,2.5243,21.191999,18.482,12.353,-1.2698,-12.823,-1.8413,-18.77,-13.527,8.2448,-7.5197,3.268,-11.079
-7.0142,-12.571,-13.008,22.48,17.822001,13.398,10.407,14.106,5.7605,22.48,17.822001,13.007,-1.9048,-14.099,-3.746,-22.653999,-17.391001,6.9565,-3.0964,4.5752,-9.7907
-5.7504,-6.8571,-12.358,19.259001,17.822001,11.456,11.707,10.886,7.7023,19.259001,17.822001,13.66,-5.7143,-14.737,-8.8254,-22.006001,-20.612,-0.12882,0.06319,-1.3072,-8.5024
-4.4866,0.12698,-6.5041,14.75,14.521,7.5728,7.8049,6.3768,5.1133,14.75,14.521,11.046,-5.7143,-10.909,-8.8254,-14.887,-15.459,-1.4171,-0.56872,-2.6144,-6.57
3.7283,10.286,3.9024,9.5974,12.541,5.6311,7.8049,1.868,5.1133,9.5974,12.541,9.7386,-0.63492,-3.2536,0.69841,-1.9417,-1.2882,0.5153,0.6951,3.9216,-3.3494
11.311,14.095,11.707,3.8003,6.6007,3.6893,4.5528,-0.70853,4.466,3.8003,6.6007,6.4706,1.9048,2.488,8.3175,9.0615,10.306,5.0242,3.8547,3.9216,-0.77295
20.790001,17.27,20.163,-2.6409,-0.66007,2.3948,4.5528,-3.9291,3.1715,-2.6409,-0.66007,5.1634,5.7143,6.3158,17.841,17.476,20.612,4.38,8.91,4.5752,3.0918
13.839,21.079,20.163,-6.5056,-4.6205,-1.4887,3.252,-3.9291,2.5243,-6.5056,-4.6205,3.2026,5.7143,6.3158,19.111,20.712,23.833,5.0242,9.5419,4.5752,4.38
6.2559,19.174999,14.959,-6.5056,-5.2805,-5.3722,3.252,-3.9291,2.5243,-6.5056,-5.2805,0.58824,2.5397,3.764,14.667,19.417,21.256001,3.7359,8.91,1.3072,4.38
2.4645,12.825,7.8049,-5.8615,-2.6403,-4.7249,1.9512,-3.285,1.2298,-5.8615,-2.6403,-1.3725,-1.9048,-0.70175,8.3175,13.592,14.815,0.5153,4.4866,-1.3072,2.4477
0.56872,4.5714,3.252,-0.06441,0.66007,-0.19417,3.252,-1.3527,-0.06472,-0.06441,0.66007,2.549,-6.3492,-3.8915,0.06349,5.8252,5.7971,-2.7053,-2.4645,-4.5752,-0.77295
-3.8547,0.12698,1.3008,8.3092,6.6007,4.9838,7.8049,3.8003,1.877,8.3092,6.6007,9.085,-9.5238,-7.0813,-8.8254,-1.2945,-3.2206,-6.57,-2.4645,-3.9216,-2.7053
-22.18,-8.7619,-7.1545,8.3092,7.9208,1.1003,6.5041,2.5121,1.2298,8.3092,7.9208,7.7778,-17.778,-12.185,-25.968,-11.65,-16.747,-4.6377,-6.2559,-14.379,-7.2142
-29.763,-13.841,-13.659,7.6651,11.221,-0.84142,4.5528,2.5121,0.58252,7.6651,11.221,5.1634,-20.316999,-14.737,-32.952,-19.417,-25.121,-2.7053,-10.679,-17.646999,-9.7907
-19.021,-14.476,-14.309,8.3092,10.561,1.1003,1.9512,3.8003,-0.71197,8.3092,10.561,3.8562,-15.873,-12.185,-27.238001,-20.712,-26.409,-3.9936,-10.047,-11.111,-9.7907
-3.2227,-13.841,-9.1057,7.0209,1.9802,3.0421,-1.3008,3.1562,-3.9482,7.0209,1.9802,1.8954,-11.429,-9.6332,-17.714001,-19.417,-22.544001,-1.4171,-8.7836,-6.5359,-8.5024
5.624,-10.667,-3.252,3.8003,-2.6403,4.3366,-5.2033,1.868,-7.1845,3.8003,-2.6403,-0.71895,-8.254,-9.6332,-6.9206,-15.534,-16.103001,1.1594,-8.7836,-1.3072,-7.2142
1.8325,-8.127,-3.252,-0.70853,-3.9604,-1.4887,-9.1057,0.57971,-10.421,-0.70853,-3.9604,-6.6013,-7.619,-10.909,-0.57143,-11.65,-10.95,4.38,-6.8878,-0.65359,-5.9259
3.7283,-0.50794,-3.252,-5.2174,-5.2805,-5.3722,-11.057,-0.70853,-11.068,-5.2174,-5.2805,-10.523,-5.0794,-8.3573,5.7778,-5.178,-3.8647,2.4477,-4.9921,1.9608,-3.3494
4.9921,-2.4127,-5.8537,-4.5733,-5.9406,-5.3722,-12.358,-1.3527,-9.1262,-4.5733,-5.9406,-12.484,-1.2698,-5.1675,12.762,-0.64725,1.2882,1.1594,-1.8325,7.1895,-1.4171
6.2559,-7.4921,-11.707,-3.9291,-5.9406,-5.3722,-14.309,-3.285,-5.89,-3.9291,-5.9406,-13.137,3.1746,-2.6156,14.032,0.64725,3.2206,1.1594,-1.8325,7.8431,-0.12882
1.2006,-7.4921,-18.211,-3.285,-3.3003,-3.4304,-9.7561,-2.6409,-2.6537,-3.285,-3.3003,-11.176,6.3492,-0.0638,10.857,0.64725,1.9324,5.0242,-0.56872,8.4967,0.5153
-4.4866,-3.0476,-20.163,-0.70853,0.0,0.45307,-3.252,-0.70853,1.2298,-0.70853,0.0,-7.2549,5.7143,3.126,4.5079,2.589,1.2882,2.4477,1.327,5.2288,2.4477
-7.6461,3.9365,-12.358,0.57971,0.66007,0.45307,1.9512,-1.9968,5.1133,0.57971,0.66007,-2.6797,2.5397,4.4019,-2.4762,7.1197,2.5765,-3.9936,3.2227,-1.3072,5.0242
-5.7504,7.746,-1.3008,-1.9968,-0.66007,2.3948,1.9512,-3.9291,7.055,-1.9968,-0.66007,0.58824,1.2698,5.6778,-5.6508,11.003,4.5089,-7.8583,7.0142,-3.268,6.9565
-1.327,9.0159,5.8537,-4.5733,0.0,0.45307,1.9512,-6.5056,7.055,-4.5733,0.0,1.2418,1.2698,6.9537,-3.746,11.65,6.4412,-7.8583,10.806,-1.3072,8.8889
-8.91,2.6667,1.3008,-5.2174,-4.6205,-4.0777,-2.6016,-3.9291,1.877,-5.2174,-4.6205,-2.6797,-5.0794,1.8501,-7.5556,2.589,-1.2882,-2.0612,3.8547,-0.65359,1.8035
-10.806,-4.9524,-2.6016,-1.3527,-5.2805,-4.7249,-2.6016,-0.70853,1.2298,-1.3527,-5.2805,-2.6797,-12.698,-5.1675,-12.0,-6.4725,-10.95,-0.12882,-2.4645,-1.3072,-5.2818
-4.4866,-4.3175,-1.9512,-1.3527,-1.9802,-1.4887,0.0,-0.70853,2.5243,-1.3527,-1.9802,-0.06536,-17.778,-8.3573,-13.27,-8.4142,-14.171,-0.12882,-1.2006,-5.8824,-6.57
-2.5908,0.7619,0.65041,-3.285,0.66007,-2.1359,0.65041,-0.06441,3.1715,-3.285,0.66007,-0.06536,-18.413,-8.9952,-11.365,-5.178,-10.95,-3.9936,-0.56872,-9.1503,-5.9259
-2.5908,3.9365,3.252,-3.9291,-1.3201,-3.4304,1.3008,-1.3527,2.5243,-3.9291,-1.3201,-0.06536,-15.873,-7.7193,-8.1905,0.0,-5.153,-3.9936,2.5908,-9.1503,-3.3494
-5.7504,3.9365,2.6016,-4.5733,-3.3003,-4.0777,0.0,-1.9968,2.5243,-4.5733,-3.3003,-2.0261,-12.698,-7.0813,-6.2857,1.9417,-2.5765,-0.77295,5.7504,-8.4967,-0.77295
1.2006,7.746,3.9024,-3.9291,0.66007,-2.1359,2.6016,-1.9968,4.466,-3.9291,0.66007,-0.71895,-6.9841,-3.8915,-1.2063,3.8835,1.2882,-3.3494,7.0142,-4.5752,1.8035
1.2006,10.286,3.9024,-2.6409,2.6403,1.1003,5.2033,-1.3527,5.7605,-2.6409,2.6403,1.8954,-1.9048,-0.70175,0.69841,5.8252,2.5765,-3.3494,7.6461,-0.65359,5.6683
1.2006,7.746,3.252,-1.9968,2.6403,2.3948,5.2033,-0.70853,7.055,-1.9968,2.6403,1.8954,0.63492,3.126,0.06349,7.767,1.9324,-4.6377,11.438,-5.2288,10.821
-5.7504,7.1111,0.65041,-1.9968,1.9802,2.3948,3.252,-1.9968,7.055,-1.9968,1.9802,0.58824,1.2698,6.3158,-4.381,9.7087,0.64412,-2.7053,12.701,-7.1895,14.042
-12.701,3.9365,-8.4553,-1.9968,1.3201,-0.19417,1.3008,-3.9291,5.1133,-1.9968,1.3201,-2.0261,-2.5397,3.764,-10.73,5.178,-5.7971,-4.6377,10.806,-8.4967,11.465
-12.701,-2.4127,-18.862,-1.9968,3.3003,-1.4887,0.0,-1.9968,4.466,-1.9968,3.3003,-2.6797,-0.63492,2.488,-10.095,-1.2945,-10.306,-8.5024,5.7504,-4.5752,8.2448
-9.5419,-5.5873,-19.511999,3.8003,5.2805,3.0421,3.252,3.8003,4.466,3.8003,5.2805,1.2418,2.5397,0.57416,-6.2857,-5.8252,-9.0177,-2.0612,0.6951,0.65359,5.0242
-0.06319,-5.5873,-10.407,7.0209,3.9604,9.5146,3.9024,6.3768,2.5243,7.0209,3.9604,5.1634,5.7143,-1.3397,1.3333,-9.0615,-4.5089,4.38,-1.2006,5.2288,0.5153
4.3602,-8.127,1.3008,1.868,1.9802,6.9256,2.6016,4.4444,1.2298,1.868,1.9802,5.1634,10.159,-1.3397,8.9524,-10.356,0.64412,5.0242,-2.4645,9.8039,-3.3494
9.4155,-6.2222,11.057,-1.9968,-0.66007,6.2783,0.0,3.8003,-1.3592,-1.9968,-0.66007,3.8562,11.429,-1.3397,10.222,-8.4142,3.8647,5.0242,-4.9921,7.1895,-5.9259
8.7836,-0.50794,14.959,-0.70853,-3.3003,8.2201,1.3008,5.0886,-1.3592,-0.70853,-3.3003,5.817,6.9841,-1.9777,6.4127,-6.4725,2.5765,5.6683,-1.8325,0.65359,-5.9259
11.943,4.5714,14.959,4.4444,2.6403,10.809,7.8049,0.57971,4.466,4.4444,2.6403,10.392,1.9048,-3.2536,1.9683,-5.178,-0.64412,-1.4171,1.327,-1.9608,-4.6377
3.0964,5.2063,9.1057,6.3768,5.2805,9.5146,11.057,2.5121,7.055,6.3768,5.2805,12.353,-5.7143,-4.5295,-6.2857,-5.8252,-6.4412,-0.12882,1.327,-7.1895,-5.9259
-1.327,4.5714,5.8537,4.4444,5.2805,7.5728,9.7561,2.5121,7.7023,4.4444,5.2805,9.7386,-6.9841,-1.3397,-6.2857,-2.589,-5.153,1.8035,1.9589,-6.5359,-4.6377
8.7836,7.1111,5.2033,1.868,3.3003,5.6311,5.2033,-0.06441,5.1133,1.868,3.3003,6.4706,-3.1746,4.4019,1.9683,3.8835,0.64412,-3.3494,1.9589,-3.268,0.5153
3.7283,3.9365,1.3008,-1.3527,-1.3201,-0.84142,-0.65041,-1.9968,1.2298,-1.3527,-1.3201,-0.71895,-1.2698,5.6778,3.2381,5.8252,1.9324,-2.0612,3.2227,-1.9608,3.7359
-7.0142,1.3968,-4.5528,-5.8615,-4.6205,-8.6084,-4.5528,-4.5733,-0.06472,-5.8615,-4.6205,-7.2549,-0.63492,5.6778,1.3333,4.5307,0.64412,-0.77295,5.7504,-0.65359,6.9565
-12.701,-0.50794,-11.707,-9.0821,-3.3003,-12.492,-3.9024,-8.438,-0.06472,-9.0821,-3.3003,-9.8693,-1.2698,3.764,-3.746,0.64725,-2.5765,-2.7053,3.8547,-3.268,7.6006
-11.438,-2.4127,-13.659,-6.5056,-1.9802,-8.6084,-1.9512,-9.7262,0.58252,-6.5056,-1.9802,-5.9477,-1.2698,2.488,-6.2857,-1.2945,-3.8647,-4.6377,3.8547,-2.6144,6.9565
-5.1185,-1.7778,-9.7561,-0.70853,2.6403,-2.7832,2.6016,-3.9291,0.58252,-0.70853,2.6403,-0.06536,1.2698,3.764,-3.1111,0.0,-1.9324,-4.6377,3.8547,1.9608,6.9565
0.56872,0.12698,-3.252,-0.70853,2.6403,-0.19417,3.252,-1.9968,0.58252,-0.70853,2.6403,1.2418,5.0794,5.0399,2.6032,0.64725,1.9324,-1.4171,2.5908,5.8824,5.0242
1.8325,-1.7778,0.0,-1.9968,-1.3201,-1.4887,-1.3008,-2.6409,-2.6537,-1.9968,-1.3201,-2.0261,6.3492,3.126,5.7778,-1.9417,2.5765,3.7359,-3.0964,10.458,1.1594
-1.9589,-1.7778,0.0,-5.2174,-7.9208,-4.0777,-7.1545,-2.6409,-7.1845,-5.2174,-7.9208,-7.2549,5.7143,-0.0638,7.0476,-4.5307,1.9324,5.0242,-4.9921,11.111,-0.77295
-3.2227,-3.6825,1.3008,-3.285,-4.6205,-4.7249,-3.252,-0.70853,-3.301,-3.285,-4.6205,-5.2941,3.1746,-5.1675,5.7778,-7.1197,1.2882,1.8035,-1.2006,13.072,-2.0612
0.56872,-3.6825,5.2033,0.57971,2.6403,0.45307,2.6016,0.57971,2.5243,0.57971,2.6403,1.2418,-3.8095,-11.547,0.06349,-11.65,-2.5765,0.5153,-1.8325,5.8824,-5.9259
-1.9589,-1.7778,6.5041,1.2238,3.9604,-0.84142,3.252,1.2238,2.5243,1.2238,3.9604,1.8954,-10.159,-17.927,-6.2857,-14.239,-7.0853,3.7359,-4.9921,-1.9608,-9.1465
-0.6951,-3.0476,5.8537,-1.9968,0.66007,-1.4887,-1.3008,2.5121,-0.06472,-1.9968,0.66007,-1.3725,-12.063,-19.841,-5.6508,-14.887,-9.6618,5.0242,-4.3602,-1.9608,-11.079
5.624,-6.8571,1.3008,-3.285,-5.2805,-1.4887,-7.8049,3.1562,-5.2427,-3.285,-5.2805,-7.2549,-10.794,-17.927,0.06349,-15.534,-10.306,5.6683,-4.9921,1.9608,-11.723
6.2559,-10.667,-5.2033,-3.9291,-7.9208,-3.4304,-12.358,3.8003,-8.479,-3.9291,-7.9208,-10.523,-10.159,-14.737,1.3333,-14.887,-11.594,6.3124,-8.1517,2.6144,-12.367
1.8325,-9.3968,-12.358,-2.6409,-3.9604,-3.4304,-8.4553,-0.06441,-5.2427,-2.6409,-3.9604,-7.9085,-10.794,-10.271,-2.4762,-13.592,-12.882,1.1594,-8.1517,-1.3072,-11.079
-5.7504,-4.3175,-15.61,1.2238,3.3003,-3.4304,1.3008,-0.70853,1.877,1.2238,3.3003,-2.0261,-10.159,-3.8915,-8.8254,-9.7087,-12.238,-4.6377,-4.3602,-5.8824,-5.9259
-7.6461,0.7619,-12.358,5.7327,11.881,1.1003,7.8049,-0.70853,8.3495,5.7327,11.881,4.5098,-6.3492,5.0399,-12.635,-2.589,-8.3736,-10.435,0.06319,-6.5359,0.5153
-17.125,-0.50794,-9.1057,8.3092,12.541,1.1003,7.8049,-2.6409,8.9968,8.3092,12.541,5.1634,-5.0794,9.5056,-21.524,1.2945,-8.3736,-10.435,3.2227,-15.686,3.7359
-20.284,-1.1429,-4.5528,5.7327,6.6007,-2.7832,3.252,-1.3527,6.4078,5.7327,6.6007,1.8954,-1.2698,11.419,-20.889,3.8835,-5.153,-9.7907,1.9589,-16.34,5.6683
-11.438,3.3016,2.6016,1.2238,5.2805,-4.7249,2.6016,-0.70853,4.466,1.2238,5.2805,-0.06536,5.7143,13.333,-8.1905,7.1197,3.2206,-6.57,4.4866,-6.5359,7.6006
-7.0142,7.746,6.5041,-1.3527,2.6403,-5.3722,3.252,-3.285,5.1133,-1.3527,2.6403,0.58824,6.9841,10.144,-1.8413,7.767,7.0853,-3.3494,3.2227,-3.268,6.9565
-1.9589,12.19,11.707,-0.70853,2.6403,-2.7832,6.5041,-3.285,5.7605,-0.70853,2.6403,3.8562,4.4444,5.0399,1.9683,8.4142,9.6618,-1.4171,5.7504,0.65359,6.9565
4.9921,13.46,14.959,-1.3527,0.66007,1.1003,7.8049,-0.70853,5.1133,-1.3527,0.66007,6.4706,1.9048,1.2121,5.1429,7.767,9.6618,1.1594,8.278,2.6144,5.0242
12.575,12.825,17.561001,-2.6409,-3.3003,4.9838,7.8049,1.868,1.877,-2.6409,-3.3003,7.7778,1.2698,-1.3397,10.222,7.1197,9.6618,4.38,7.6461,9.1503,4.38
17.629999,7.1111,16.26,-2.6409,-4.6205,5.6311,5.2033,2.5121,-0.71197,-2.6409,-4.6205,6.4706,0.63492,-4.5295,12.127,3.2362,6.4412,8.2448,3.8547,11.111,2.4477
13.839,2.6667,11.707,-0.70853,-3.9604,7.5728,4.5528,7.0209,-5.2427,-0.70853,-3.9604,7.1242,0.63492,-7.7193,10.857,-2.589,0.64412,18.551001,-3.7283,15.033,-3.9936
14.471,-3.0476,4.5528,3.1562,-3.9604,11.456,3.252,13.462,-9.7735,3.1562,-3.9604,9.085,4.4444,-7.7193,12.762,-7.1197,-3.8647,24.992001,-11.943,22.875999,-11.079
16.367001,-9.3968,-2.6016,5.7327,-3.9604,14.045,-0.65041,16.683001,-13.01,5.7327,-3.9604,8.4314,8.8889,-5.1675,14.667,-8.4142,-4.5089,26.924,-17.629999,26.797001,-16.232
12.575,-12.571,-10.407,7.6651,-1.3201,13.398,-3.252,14.106,-13.657,7.6651,-1.3201,5.817,10.794,-0.0638,12.127,-7.767,-3.2206,16.618,-21.422001,21.569,-15.588
3.0964,-14.476,-17.561001,10.242,2.6403,10.809,-1.9512,7.6651,-9.1262,10.242,2.6403,5.817,6.9841,3.126,1.3333,-7.767,-3.8647,7.6006,-17.629999,7.8431,-14.3
-3.2227,-5.5873,-13.008,13.462,5.9406,14.045,5.8537,10.242,-3.9482,13.462,5.9406,11.046,4.4444,5.6778,-3.746,-3.8835,-0.64412,1.8035,-13.207,1.9608,-11.079
-5.7504,-1.7778,-2.6016,12.174,6.6007,12.751,10.407,9.5974,-0.06472,12.174,6.6007,13.66,0.0,3.126,-6.9206,-1.2945,1.9324,-3.9936,-8.7836,-7.8431,-9.1465
3.0964,2.0317,12.358,8.9533,5.9406,13.398,12.358,3.8003,2.5243,8.9533,5.9406,16.275,-0.63492,3.764,-3.1111,3.8835,8.3736,-4.6377,-5.624,-12.418,-5.9259
10.679,7.746,22.764,3.1562,1.3201,10.162,9.7561,2.5121,2.5243,3.1562,1.3201,13.66,4.4444,9.5056,5.7778,12.945,16.747,-5.9259,0.06319,-8.4967,2.4477
15.103,11.556,26.667,-0.70853,-1.3201,5.6311,7.8049,-2.6409,1.2298,-0.70853,-1.3201,9.7386,10.794,14.609,14.032,19.417,22.544001,-7.8583,7.0142,-3.268,10.177
10.679,12.825,24.065001,-4.5733,-5.2805,1.7476,4.5528,-6.5056,-0.06472,-4.5733,-5.2805,5.817,12.698,15.885,16.570999,21.358999,23.833,-6.57,8.278,0.0,14.042
6.8878,15.365,18.211,-5.8615,-3.9604,-0.84142,3.252,-5.8615,-0.71197,-5.8615,-3.9604,3.2026,13.968,17.160999,16.570999,22.653999,22.544001,-0.12882,11.438,3.9216,17.261999
3.7283,14.095,11.707,-5.8615,-3.9604,-2.7832,1.3008,-7.1498,-0.06472,-5.8615,-3.9604,0.58824,13.333,14.609,13.397,20.065001,17.391001,3.0918,15.229,5.8824,17.907
0.56872,9.0159,5.2033,-4.5733,-3.3003,-3.4304,0.0,-4.5733,1.2298,-4.5733,-3.3003,-0.71895,8.8889,9.5056,8.9524,14.239,9.0177,1.8035,13.965,7.1895,15.974
-1.9589,3.3016,-3.9024,-0.06441,3.9604,-2.1359,-0.65041,-0.06441,2.5243,-0.06441,3.9604,-0.71895,0.0,-0.0638,0.06349,3.8835,-3.2206,1.8035,8.91,1.3072,8.8889
-0.6951,-0.50794,-11.057,7.0209,12.541,3.6893,3.9024,3.8003,5.7605,7.0209,12.541,3.8562,-6.3492,-8.9952,-6.2857,-6.4725,-14.171,3.7359,5.1185,-1.9608,1.8035
-0.06319,-3.0476,-14.309,7.6651,11.221,4.9838,5.2033,1.868,7.055,7.6651,11.221,5.1634,-10.159,-14.737,-8.8254,-14.887,-20.612,-2.0612,1.327,-1.9608,-3.9936
-1.327,-4.3175,-11.057,6.3768,8.5809,4.9838,7.1545,2.5121,8.3495,6.3768,8.5809,7.1242,-12.063,-17.927,-9.4603,-17.476,-18.035,-2.0612,-3.0964,-3.9216,-7.8583
3.0964,-1.7778,-1.9512,8.3092,9.901,8.8673,9.1057,3.8003,9.644,8.3092,9.901,9.7386,-10.159,-15.375,-4.381,-13.592,-9.0177,-3.9936,-0.56872,-4.5752,-7.8583
4.3602,6.4762,7.1545,9.5974,13.861,6.9256,12.358,5.0886,8.9968,9.5974,13.861,11.046,-6.3492,-11.547,0.69841,-7.767,0.0,-3.3494,2.5908,-0.65359,-5.9259
11.943,7.746,13.008,6.3768,11.881,5.6311,12.358,1.2238,8.9968,6.3768,11.881,11.046,-1.9048,-6.4434,3.873,-0.64725,7.0853,-2.7053,3.2227,0.0,-4.6377
10.047,6.4762,13.659,3.8003,4.6205,6.2783,7.8049,1.868,5.1133,3.8003,4.6205,7.1242,5.0794,4.4019,5.7778,7.1197,12.238,1.8035,2.5908,0.0,-2.0612
0.56872,7.1111,10.407,-0.70853,-0.66007,-2.1359,1.3008,-1.3527,0.58252,-0.70853,-0.66007,-0.71895,11.429,14.609,6.4127,14.887,17.391001,0.5153,1.327,1.3072,1.8035
0.56872,5.8413,9.1057,-6.5056,-7.2607,-8.6084,-5.8537,-3.9291,-3.301,-6.5056,-7.2607,-9.2157,15.873,21.627001,8.3175,22.006001,20.612,-4.6377,1.9589,2.6144,5.6683
-2.5908,3.9365,4.5528,-9.0821,-13.201,-14.434,-11.057,-5.8615,-7.1845,-9.0821,-13.201,-15.098,15.238,22.264999,6.4127,22.006001,18.68,-3.9936,2.5908,1.9608,6.9565
-9.5419,1.3968,-2.6016,-9.7262,-13.861,-18.316999,-12.358,-8.438,-7.1845,-9.7262,-13.861,-18.365999,11.429,19.712999,1.9683,17.476,12.882,-5.9259,3.8547,2.6144,8.8889
-8.91,2.0317,-11.057,-9.0821,-13.201,-17.023001,-12.358,-9.0821,-7.1845,-9.0821,-13.201,-19.02,4.4444,13.971,-3.746,11.003,4.5089,-7.8583,3.2227,-1.9608,8.2448
-10.174,-4.3175,-18.862,-7.7939,-11.221,-12.492,-13.659,-4.5733,-5.2427,-7.7939,-11.221,-17.059,-4.4444,6.3158,-13.905,1.9417,-8.3736,-4.6377,4.4866,-8.4967,8.2448
-2.5908,-5.5873,-14.959,-4.5733,-7.9208,-2.7832,-9.7561,-3.9291,-0.71197,-4.5733,-7.9208,-11.176,-10.794,1.2121,-18.983999,-3.2362,-14.815,-5.2818,8.278,-12.418,9.533
2.4645,-1.1429,-3.9024,-1.3527,-7.9208,2.3948,-7.1545,-0.06441,1.2298,-1.3527,-7.9208,-5.9477,-12.063,-0.0638,-13.905,-3.2362,-11.594,-7.2142,9.5419,-11.765,10.177
3.0964,-0.50794,3.9024,-3.285,-9.2409,-2.1359,-5.8537,1.868,-1.3592,-3.285,-9.2409,-6.6013,-12.698,-3.8915,-8.8254,-5.178,-8.3736,-7.8583,7.6461,-11.111,7.6006
2.4645,-2.4127,5.2033,-6.5056,-11.221,-4.7249,-5.8537,0.57971,-2.0065,-6.5056,-11.221,-6.6013,-12.698,-8.9952,-4.381,-9.7087,-7.0853,-5.2818,1.327,-10.458,3.0918
5.624,-4.3175,5.2033,-4.5733,-12.541,-2.7832,-5.2033,-0.06441,-2.6537,-4.5733,-12.541,-5.2941,-8.8889,-13.461,4.5079,-12.298,-4.5089,-1.4171,-1.2006,-2.6144,-0.77295
12.575,-1.7778,3.252,-1.9968,-11.221,-2.1359,-5.8537,-0.06441,-4.5955,-1.9968,-11.221,-4.6405,-1.9048,-13.461,11.492,-9.0615,0.0,-0.12882,-1.8325,1.3072,-2.7053
11.943,-1.7778,4.5528,-1.3527,-7.2607,-0.84142,-5.2033,2.5121,-6.5372,-1.3527,-7.2607,-2.6797,5.7143,-7.7193,14.667,-1.2945,6.4412,4.38,-2.4645,5.2288,-2.7053
6.2559,-1.1429,9.7561,-2.6409,-6.6007,-2.7832,-4.5528,0.57971,-7.8317,-2.6409,-6.6007,-2.6797,13.333,0.57416,14.667,7.767,13.527,6.3124,-1.8325,9.8039,0.5153
1.2006,2.0317,13.659,-0.70853,-5.9406,-6.0194,-3.9024,0.57971,-9.7735,-0.70853,-5.9406,-2.6797,17.143,8.8676,12.762,13.592,19.323999,6.3124,-4.3602,9.1503,1.8035
-1.327,2.0317,14.309,3.8003,-4.6205,-5.3722,-1.9512,3.1562,-11.068,3.8003,-4.6205,-1.3725,16.507999,12.057,8.9524,14.239,19.968,4.38,-3.7283,8.4967,3.7359
0.56872,5.2063,9.7561,6.3768,1.9802,-1.4887,3.252,3.8003,-7.1845,6.3768,1.9802,3.2026,12.063,11.419,2.6032,8.4142,12.882,3.7359,-2.4645,5.8824,1.8035
-7.6461,2.0317,-2.6016,8.9533,6.6007,-1.4887,6.5041,8.3092,-2.6537,8.9533,6.6007,3.8562,3.8095,5.6778,-8.1905,-1.9417,-0.64412,2.4477,-2.4645,1.3072,-2.0612
-10.806,1.3968,-9.7561,9.5974,7.2607,1.1003,7.1545,10.242,-0.06472,9.5974,7.2607,5.1634,-3.1746,1.2121,-15.175,-7.767,-10.95,-0.77295,-2.4645,-3.9216,-4.6377
0.56872,1.3968,-7.8049,10.242,5.2805,8.2201,7.8049,7.6651,2.5243,10.242,5.2805,8.4314,-6.9841,1.8501,-17.079,-5.8252,-13.527,-3.3494,1.327,-10.458,-3.9936
1.2006,-0.50794,-6.5041,7.0209,1.3201,5.6311,1.9512,8.3092,1.2298,7.0209,1.3201,4.5098,-8.8889,1.8501,-15.175,-2.589,-11.594,-2.0612,1.9589,-11.111,-2.7053
0.56872,0.7619,-2.6016,3.1562,-1.9802,4.3366,-3.252,8.3092,-3.9482,3.1562,-1.9802,0.58824,-9.5238,0.57416,-10.095,0.64725,-7.0853,3.7359,-0.56872,-9.8039,-1.4171
4.3602,0.12698,4.5528,3.8003,-5.2805,6.2783,-5.8537,11.53,-5.2427,3.8003,-5.2805,-0.06536,-10.159,-0.70175,-4.381,2.589,-1.9324,6.9565,-0.56872,-9.1503,-0.77295
10.047,0.7619,11.707,7.6651,-3.3003,9.5146,-1.3008,14.75,-3.301,7.6651,-3.3003,3.8562,-8.8889,-2.6156,1.9683,3.2362,1.9324,7.6006,-2.4645,-7.1895,-1.4171
18.261999,2.0317,16.26,10.886,3.3003,15.987,6.5041,16.683001,0.58252,10.886,3.3003,11.046,-5.7143,-2.6156,7.6825,1.9417,3.8647,5.6683,1.327,-1.9608,-0.12882
13.839,1.3968,14.309,10.886,5.9406,14.693,9.7561,12.818,-0.06472,10.886,5.9406,13.007,-3.1746,-3.2536,5.1429,-0.64725,2.5765,4.38,0.6951,-5.2288,0.5153
3.7283,-3.0476,8.4553,7.6651,1.3201,6.2783,3.252,7.6651,-3.9482,7.6651,1.3201,7.1242,0.0,-0.0638,1.3333,0.0,2.5765,1.8035,-1.2006,-8.4967,1.1594
-1.327,-3.0476,5.8537,1.868,-1.9802,-0.84142,-2.6016,1.2238,-6.5372,1.868,-1.9802,1.2418,5.0794,6.9537,1.9683,6.4725,6.4412,-3.3494,-0.56872,-7.1895,5.0242
2.4645,0.12698,2.6016,-2.6409,-3.9604,-4.7249,-7.1545,-3.285,-9.7735,-2.6409,-3.9604,-3.3333,8.8889,11.419,4.5079,11.003,9.6618,-8.5024,-2.4645,-4.5752,6.3124
6.2559,0.7619,3.252,-1.9968,-3.3003,-2.1359,-7.1545,-3.285,-9.7735,-1.9968,-3.3003,-3.3333,13.968,13.971,8.9524,12.945,12.882,-5.2818,-3.0964,1.9608,6.3124
1.8325,1.3968,1.3008,-0.70853,-1.9802,-4.0777,-5.8537,-1.9968,-7.8317,-0.70853,-1.9802,-3.9869,15.873,12.057,8.9524,10.356,12.238,0.5153,-7.5197,3.9216,1.1594
-3.8547,5.8413,-1.9512,1.2238,-3.3003,-6.0194,-3.9024,-1.9968,-6.5372,1.2238,-3.3003,-5.2941,15.238,11.419,7.0476,7.767,9.0177,1.8035,-6.2559,5.2288,-0.12882
-6.3823,-2.4127,-8.4553,-0.06441,-7.2607,-7.3139,-7.8049,-1.9968,-7.1845,-0.06441,-7.2607,-9.2157,10.794,7.5917,5.1429,2.589,3.8647,1.1594,-6.8878,3.9216,-2.7053
-4.4866,-12.571,-16.26,-2.6409,-7.9208,-8.6084,-12.358,-0.70853,-7.1845,-2.6409,-7.9208,-11.83,3.8095,2.488,3.2381,-3.8835,-2.5765,0.5153,-4.3602,4.5752,-3.3494
-7.0142,-16.381001,-26.016001,-4.5733,-9.2409,-8.6084,-15.61,-1.3527,-9.1262,-4.5733,-9.2409,-14.444,-4.4444,-2.6156,-1.2063,-9.7087,-10.306,1.8035,-1.2006,5.8824,-3.3494
-13.333,-18.921,-33.171001,-5.2174,-15.182,-10.55,-20.813,-1.9968,-9.7735,-5.2174,-15.182,-19.02,-11.429,-7.0813,-6.2857,-13.592,-15.459,4.38,-1.2006,3.9216,-4.6377
-12.07,-15.111,-29.919001,-5.2174,-13.861,-9.9029,-16.910999,-0.70853,-6.5372,-5.2174,-13.861,-17.712,-12.698,-9.6332,-5.6508,-14.887,-16.747,3.0918,-1.8325,3.268,-5.2818
-5.1185,-11.302,-21.462999,-5.8615,-6.6007,-4.7249,-8.4553,1.2238,0.58252,-5.8615,-6.6007,-11.83,-12.698,-12.185,-6.2857,-17.476,-18.68,-1.4171,-2.4645,1.3072,-6.57
-3.2227,-6.2222,-13.008,-3.9291,-0.66007,-1.4887,0.65041,0.57971,3.8188,-3.9291,-0.66007,-4.6405,-10.794,-14.737,-7.5556,-18.122999,-19.323999,-2.0612,0.06319,1.9608,-6.57
-11.438,-9.3968,-11.057,-3.285,0.0,-3.4304,0.0,1.868,3.1715,-3.285,0.0,-4.6405,-8.8889,-17.289,-13.27,-19.417,-21.256001,3.7359,-1.2006,-2.6144,-9.1465
-8.91,-11.937,-9.1057,-3.9291,-1.9802,-4.0777,-2.6016,3.8003,0.58252,-3.9291,-1.9802,-4.6405,-2.5397,-16.650999,-10.095,-16.827999,-15.459,5.6683,-5.624,-1.3072,-9.7907
2.4645,-6.8571,-3.9024,-2.6409,-3.9604,0.45307,-3.252,4.4444,-2.0065,-2.6409,-3.9604,-2.0261,7.619,-11.547,1.9683,-9.7087,-4.5089,6.9565,-4.3602,5.8824,-6.57
6.2559,-3.0476,-0.65041,1.2238,-1.3201,3.6893,0.0,6.3768,-3.301,1.2238,-1.3201,2.549,12.063,-8.3573,7.6825,-5.8252,2.5765,8.8889,-4.9921,7.8431,-6.57
10.047,2.6667,3.9024,5.7327,3.9604,7.5728,5.2033,8.3092,-1.3592,5.7327,3.9604,9.085,15.238,-4.5295,13.397,-0.64725,7.7295,7.6006,-4.9921,9.1503,-5.9259
15.103,9.0159,11.057,8.9533,7.2607,12.104,11.707,7.0209,1.2298,8.9533,7.2607,15.621,19.683001,1.2121,19.746,6.4725,14.815,8.8889,-1.8325,11.765,-2.0612
18.893999,12.19,17.561001,10.242,7.2607,12.751,13.008,7.6651,1.877,10.242,7.2607,17.582001,22.857,5.0399,27.365,12.945,21.9,4.38,0.6951,16.34,1.8035
11.943,10.286,13.659,8.3092,3.9604,7.5728,7.1545,6.3768,-3.301,8.3092,3.9604,13.66,19.683001,3.126,24.825001,12.298,21.256001,5.6683,-1.8325,11.765,1.1594
3.0964,0.12698,5.2033,5.7327,0.66007,3.0421,-1.3008,1.868,-5.89,5.7327,0.66007,6.4706,13.968,-0.70175,15.937,7.767,13.527,4.38,0.6951,9.1503,0.5153
-13.965,-6.8571,-5.8537,2.5121,-1.3201,-4.7249,-7.1545,-2.6409,-5.2427,2.5121,-1.3201,-1.3725,6.3492,-5.8054,1.9683,0.64725,1.9324,-0.77295,0.06319,5.8824,-0.77295
-27.235001,-8.127,-14.309,0.57971,0.0,-11.197,-8.4553,-5.8615,-5.2427,0.57971,0.0,-7.2549,0.0,-9.6332,-12.0,-5.8252,-9.0177,-5.2818,-1.8325,0.65359,-2.7053
-25.972,-10.667,-18.211,-0.06441,-1.9802,-11.197,-11.057,-7.1498,-4.5955,-0.06441,-1.9802,-11.176,-6.3492,-12.185,-18.983999,-9.7087,-15.459,-11.723,0.06319,-1.9608,-2.7053
-27.867001,-17.016001,-24.065001,-0.06441,-2.6403,-11.197,-16.26,-5.2174,-6.5372,-0.06441,-2.6403,-15.098,-17.143,-18.565001,-25.968,-18.77,-23.833,-10.435,-5.624,-7.1895,-7.8583
-28.499001,-20.825001,-26.016001,-0.06441,-0.66007,-12.492,-19.511999,-2.6409,-6.5372,-0.06441,-0.66007,-18.365999,-23.492001,-21.754,-25.968,-23.301001,-27.697001,-5.9259,-8.1517,-9.1503,-13.011
-20.916,-18.921,-20.813,0.57971,-3.3003,-11.197,-19.511999,-1.3527,-7.1845,0.57971,-3.3003,-19.02,-22.222,-19.841,-20.254,-22.006001,-23.188,-3.9936,-7.5197,-5.8824,-13.011
-10.806,-11.937,-14.309,-2.6409,-7.9208,-11.197,-18.211,-3.9291,-8.479,-2.6409,-7.9208,-19.02,-19.048,-17.289,-15.81,-18.77,-18.035,-5.2818,-9.4155,-7.8431,-12.367
-0.06319,-8.127,-6.5041,-5.8615,-11.221,-9.9029,-14.959,-6.5056,-8.479,-5.8615,-11.221,-16.405001,-10.794,-10.271,-9.4603,-13.592,-10.306,-5.2818,-8.7836,-6.5359,-8.5024
1.8325,-10.032,-3.252,-6.5056,-13.201,-7.9612,-14.309,-1.3527,-9.1262,-6.5056,-13.201,-14.444,-3.8095,-3.8915,-4.381,-11.003,-7.0853,-0.77295,-10.047,-3.9216,-6.57
-1.9589,-8.7619,-2.6016,-8.438,-14.521,-7.3139,-13.008,-0.70853,-10.421,-8.438,-14.521,-12.484,1.9048,1.2121,-1.8413,-8.4142,-5.153,2.4477,-10.047,-3.268,-3.3494
1.8325,-1.1429,1.9512,-7.1498,-14.521,-5.3722,-9.1057,-3.285,-9.1262,-7.1498,-14.521,-8.5621,10.794,11.419,5.1429,0.64725,1.9324,-0.12882,-2.4645,0.0,3.7359
6.8878,9.0159,11.057,-6.5056,-10.561,-0.19417,-0.65041,-1.9968,-3.9482,-6.5056,-10.561,-1.3725,19.683001,22.903,10.222,14.887,12.238,-0.12882,5.7504,3.268,12.754
6.8878,16.0,16.26,-7.7939,-7.9208,1.7476,3.9024,-3.285,0.58252,-7.7939,-7.9208,1.2418,24.761999,30.558001,12.762,25.243,19.323999,-3.9936,10.806,7.1895,19.839001
3.7283,17.27,16.26,-5.8615,-7.2607,0.45307,6.5041,-3.285,3.1715,-5.8615,-7.2607,1.8954,24.127001,31.834,10.222,29.125999,21.256001,-4.6377,13.965,1.9608,21.771
4.3602,17.27,16.26,-3.285,-2.6403,3.6893,11.057,-4.5733,6.4078,-3.285,-2.6403,5.817,19.048,27.368,7.6825,27.832001,19.968,-3.9936,11.438,-1.3072,19.195
4.3602,14.095,13.659,-0.70853,7.2607,4.3366,15.61,-5.2174,11.586,-0.70853,7.2607,8.4314,12.063,20.351,4.5079,22.653999,15.459,-9.1465,10.174,-3.268,14.686
6.2559,14.095,14.959,5.7327,17.162001,10.809,24.065001,-1.3527,18.705999,5.7327,17.162001,16.275,6.3492,14.609,1.3333,18.122999,12.238,-7.8583,11.438,-4.5752,11.465
11.943,17.905001,20.163,10.886,26.403,17.929001,31.870001,2.5121,23.236,10.886,26.403,25.424999,2.5397,10.144,0.06349,16.181,10.95,-7.2142,10.174,-4.5752,8.8889
0.56872,17.905001,18.211,15.395,27.723,18.576,31.870001,2.5121,22.589001,15.395,27.723,27.386,-4.4444,3.764,-8.1905,9.0615,3.2206,-4.6377,12.07,-9.1503,5.0242
-5.1185,16.0,12.358,14.75,23.101999,15.987,26.016001,1.868,19.353001,14.75,23.101999,24.118,-9.5238,-1.3397,-11.365,3.2362,-2.5765,-3.9936,12.701,-10.458,2.4477
4.9921,8.381,6.5041,12.818,19.802,19.223,19.511999,2.5121,14.822,12.818,19.802,20.85,-10.794,-4.5295,-8.1905,-5.178,-7.7295,-2.0612,5.1185,-9.8039,-2.0612
5.624,-2.4127,-1.9512,14.75,17.162001,17.929001,13.659,8.9533,12.233,14.75,17.162001,16.927999,-12.698,-10.271,-5.6508,-15.534,-13.527,3.7359,-1.8325,-7.1895,-9.1465
8.1517,-2.4127,-1.3008,16.039,19.142,17.282,15.61,12.818,11.586,16.039,19.142,18.235001,-9.5238,-9.6332,1.3333,-15.534,-10.306,5.0242,-3.7283,-1.3072,-10.435
16.997999,5.2063,9.1057,15.395,19.802,19.223,18.211,11.53,10.939,15.395,19.802,21.503,-2.5397,-1.9777,10.222,-3.8835,0.0,8.2448,-1.2006,3.9216,-4.6377
14.471,12.825,16.26,10.242,13.201,14.045,15.61,7.6651,7.7023,10.242,13.201,17.582001,0.0,3.126,12.762,7.767,8.3736,10.177,1.9589,4.5752,1.8035
14.471,14.73,20.813,5.7327,7.2607,9.5146,9.7561,1.2238,5.7605,5.7327,7.2607,12.353,0.63492,6.3158,14.032,15.534,14.815,7.6006,7.0142,6.5359,7.6006
10.047,12.19,15.61,1.2238,3.9604,3.0421,2.6016,1.2238,1.877,1.2238,3.9604,4.5098,-3.1746,2.488,9.5873,16.181,13.527,4.38,8.91,1.3072,8.2448
-5.1185,3.9365,0.0,-4.5733,-0.66007,-5.3722,-6.5041,-1.9968,-0.71197,-4.5733,-0.66007,-6.6013,-10.794,-3.8915,-2.4762,7.767,3.2206,3.7359,3.8547,-7.8431,3.7359
-17.125,-0.50794,-16.26,-5.2174,-2.6403,-11.845,-11.057,-4.5733,-3.301,-5.2174,-2.6403,-13.137,-15.238,-8.9952,-12.635,-0.64725,-7.0853,-0.12882,0.6951,-9.8039,0.5153
-22.18,-7.4921,-25.365999,-3.9291,-3.9604,-15.728,-12.358,-5.2174,-0.71197,-3.9291,-3.9604,-15.752,-18.413,-11.547,-18.983999,-7.767,-14.171,-5.2818,0.06319,-13.072,-1.4171
-20.284,-14.476,-26.016001,-3.285,-0.66007,-13.786,-13.008,-6.5056,0.58252,-3.285,-0.66007,-14.444,-20.316999,-13.461,-21.524,-13.592,-17.391001,-7.8583,-2.4645,-13.072,-4.6377
-10.806,-13.841,-16.910999,-0.06441,3.3003,-6.6667,-7.8049,-2.6409,1.877,-0.06441,3.3003,-7.2549,-20.316999,-14.099,-18.349001,-16.181,-16.103001,-9.7907,-4.3602,-11.111,-5.2818
-0.6951,-11.302,-7.1545,1.868,5.9406,1.7476,-2.6016,-2.6409,5.1133,1.868,5.9406,-0.71895,-19.683001,-13.461,-13.905,-16.181,-13.527,-7.2142,-6.2559,-7.1895,-7.2142
-0.6951,-8.7619,-1.3008,1.2238,3.9604,3.0421,-1.3008,-2.6409,4.466,1.2238,3.9604,1.2418,-19.683001,-14.099,-13.27,-16.181,-12.238,-0.77295,-4.9921,-9.8039,-9.1465
3.0964,-2.4127,8.4553,1.2238,5.2805,6.2783,2.6016,1.868,4.466,1.2238,5.2805,5.817,-14.603,-9.6332,-7.5556,-9.7087,-5.7971,2.4477,-3.0964,-8.4967,-7.2142
7.5197,6.4762,18.211,3.1562,7.2607,9.5146,8.4553,4.4444,3.8188,3.1562,7.2607,10.392,-5.7143,-2.6156,2.6032,-0.64725,4.5089,4.38,-2.4645,-0.65359,-4.6377
11.311,9.6508,20.163,1.868,4.6205,10.809,9.1057,1.2238,2.5243,1.868,4.6205,11.046,2.5397,5.0399,10.857,7.1197,11.594,6.9565,-2.4645,4.5752,-1.4171
15.103,7.746,19.511999,1.868,5.9406,8.2201,11.057,1.2238,3.8188,1.868,5.9406,11.046,10.794,13.971,18.476,14.887,18.035,6.9565,1.327,10.458,4.38
11.943,11.556,17.561001,-0.70853,6.6007,5.6311,13.659,0.57971,5.1133,-0.70853,6.6007,11.046,13.333,19.075001,19.111,19.417,19.323999,8.8889,5.1185,11.111,7.6006
14.471,16.635,18.211,-0.06441,10.561,8.2201,16.910999,2.5121,6.4078,-0.06441,10.561,14.314,14.603,21.627001,20.381001,23.301001,21.256001,8.8889,6.3823,13.072,10.177
15.735,17.27,18.862,5.0886,8.5809,11.456,15.61,5.0886,5.1133,5.0886,8.5809,15.621,14.603,22.264999,21.650999,24.594999,22.544001,7.6006,6.3823,15.686,10.177
14.471,14.095,17.561001,4.4444,5.9406,8.2201,12.358,3.8003,4.466,4.4444,5.9406,13.007,10.794,18.437,17.841,21.358999,20.612,8.2448,3.8547,10.458,8.8889
8.1517,9.6508,11.057,1.2238,8.5809,4.9838,9.7561,-0.06441,7.055,1.2238,8.5809,7.7778,3.1746,8.8676,10.222,12.298,12.882,8.8889,5.1185,2.6144,5.0242
6.8878,10.286,5.8537,-2.6409,11.881,1.1003,9.7561,-4.5733,10.291,-2.6409,11.881,4.5098,-1.9048,-0.0638,5.7778,5.178,5.7971,2.4477,4.4866,0.65359,1.1594
3.7283,7.1111,-0.65041,-5.2174,7.9208,-4.7249,5.2033,-7.7939,10.291,-5.2174,7.9208,-0.71895,-3.8095,-5.8054,-0.57143,0.0,-0.64412,-0.77295,3.2227,-2.6144,-0.12882
-6.3823,2.0317,-6.5041,-6.5056,1.3201,-9.2557,0.0,-6.5056,8.9968,-6.5056,1.3201,-5.9477,-2.5397,-5.8054,-7.5556,-3.2362,-5.7971,-0.77295,2.5908,-4.5752,-1.4171
-5.7504,0.7619,-3.9024,-10.37,-1.9802,-10.55,-2.6016,-9.7262,5.7605,-10.37,-1.9802,-7.9085,2.5397,-3.8915,-6.2857,-2.589,-4.5089,-0.77295,1.9589,-3.9216,-0.77295
-0.06319,0.7619,0.65041,-11.659,-2.6403,-7.9612,-4.5528,-10.37,1.2298,-11.659,-2.6403,-6.6013,8.8889,-0.70175,0.06349,-1.2945,-0.64412,-2.7053,1.327,-0.65359,1.1594
1.8325,-1.1429,-0.65041,-11.014,-4.6205,-6.6667,-5.2033,-8.438,-0.06472,-11.014,-4.6205,-5.9477,12.063,-0.70175,1.9683,-2.589,-1.9324,-2.0612,0.06319,-2.6144,0.5153
6.2559,-4.3175,-5.8537,-12.303,-9.2409,-4.7249,-8.4553,-9.7262,-0.71197,-12.303,-9.2409,-7.9085,15.238,-1.9777,4.5079,-5.178,-4.5089,-5.9259,1.9589,-2.6144,0.5153
-1.9589,-9.3968,-13.008,-16.167,-11.881,-9.9029,-14.309,-11.014,-2.0065,-16.167,-11.881,-13.791,16.507999,-3.2536,1.3333,-7.767,-7.0853,-7.2142,0.06319,-1.9608,-1.4171
-5.1185,-6.2222,-10.407,-16.167,-11.881,-9.2557,-14.959,-11.014,-5.2427,-16.167,-11.881,-14.444,23.492001,0.57416,2.6032,-4.5307,-2.5765,-0.77295,-1.2006,0.65359,-0.77295
-0.6951,-6.8571,-2.6016,-12.303,-11.221,-5.3722,-12.358,-9.0821,-7.8317,-12.303,-11.221,-10.523,34.285999,5.6778,10.222,1.9417,7.7295,1.8035,-1.8325,8.4967,0.5153
7.5197,-5.5873,3.9024,-12.947,-7.9208,-6.0194,-8.4553,-12.303,-5.2427,-12.947,-7.9208,-6.6013,40.634998,8.8676,16.570999,5.8252,13.527,-1.4171,-3.0964,13.072,0.5153
-4.4866,-3.0476,-1.3008,-12.947,-5.9406,-10.55,-3.9024,-11.659,-2.0065,-12.947,-5.9406,-5.9477,37.459999,5.0399,8.9524,4.5307,7.7295,-2.0612,-2.4645,14.379,-0.12882
-15.861,2.6667,-9.1057,-9.7262,-1.3201,-9.9029,0.65041,-11.014,3.1715,-9.7262,-1.3201,-5.2941,27.937,-1.9777,-5.6508,0.64725,-3.8647,-2.7053,-3.0964,6.5359,-2.0612
-19.021,3.3016,-14.309,-6.5056,2.6403,-7.3139,2.6016,-5.8615,8.3495,-6.5056,2.6403,-4.6405,12.698,-12.185,-19.618999,-6.4725,-16.103001,-4.6377,1.327,-3.9216,-3.3494
-12.701,0.7619,-11.057,-5.2174,0.0,-4.0777,-0.65041,-3.285,6.4078,-5.2174,0.0,-4.6405,1.9048,-19.202999,-24.063,-11.003,-21.256001,-8.5024,4.4866,-9.8039,-2.7053
-3.8547,3.9365,-0.65041,-7.1498,-1.3201,-2.7832,0.65041,-5.8615,4.466,-7.1498,-1.3201,-2.0261,0.63492,-18.565001,-18.349001,-9.7087,-18.035,-7.2142,5.1185,-7.8431,-0.12882
-0.06319,0.12698,1.3008,-9.0821,-3.9604,-4.0777,-1.9512,-4.5733,3.1715,-9.0821,-3.9604,-3.3333,5.7143,-14.737,-10.73,-9.7087,-14.815,-0.77295,1.9589,-1.9608,0.5153
1.2006,-7.4921,-3.252,-9.0821,-5.2805,-4.7249,-4.5528,-4.5733,-0.06472,-9.0821,-5.2805,-3.9869,15.873,-9.6332,-2.4762,-10.356,-12.238,3.7359,-2.4645,6.5359,-0.77295
1.8325,-11.937,-7.8049,-6.5056,-6.6007,-4.0777,-8.4553,-0.70853,-6.5372,-6.5056,-6.6007,-5.9477,29.841,-4.5295,7.0476,-11.003,-9.0177,12.11,-11.311,20.261,-5.2818
6.8878,-18.921,-12.358,-5.2174,-10.561,-1.4887,-13.659,5.7327,-14.951,-5.2174,-10.561,-8.5621,41.904999,-0.70175,15.937,-12.945,-5.7971,21.127001,-18.261999,33.987,-11.723
10.047,-20.825001,-13.659,-3.285,-9.2409,-0.84142,-16.26,5.0886,-16.893,-3.285,-9.2409,-9.8693,47.618999,1.8501,19.746,-12.298,-1.9324,22.415001,-20.790001,35.293999,-16.232
-0.6951,-22.094999,-15.61,-6.5056,-10.561,-7.3139,-18.862,1.868,-16.893,-6.5056,-10.561,-14.444,45.714001,1.8501,15.302,-12.945,-1.2882,21.771,-25.212999,28.757999,-19.452
-3.8547,-14.476,-11.707,-7.7939,-9.901,-11.845,-14.309,-1.9968,-13.01,-7.7939,-9.901,-14.444,43.174999,1.8501,14.667,-11.003,1.9324,12.11,-20.790001,23.528999,-18.808001
-8.278,-7.4921,-7.8049,-6.5056,-1.9802,-11.845,-5.8537,-4.5733,-3.301,-6.5056,-1.9802,-9.2157,36.189999,-0.70175,8.9524,-8.4142,1.9324,1.8035,-12.575,14.379,-14.3
-14.597,-4.9524,-8.4553,-3.285,3.9604,-10.55,-1.3008,-5.2174,2.5243,-3.285,3.9604,-5.9477,26.667,-5.1675,0.69841,-7.767,-1.2882,-1.4171,-6.2559,4.5752,-9.7907
-14.597,-1.1429,-5.8537,-0.70853,3.3003,-8.6084,0.65041,-5.2174,6.4078,-0.70853,3.3003,-4.6405,20.316999,-5.8054,-3.1111,-3.8835,-1.2882,-5.9259,0.06319,0.65359,-4.6377
-12.701,0.7619,-4.5528,-3.285,-0.66007,-7.9612,0.65041,-7.1498,6.4078,-3.285,-0.66007,-5.2941,14.603,-6.4434,-6.9206,-2.589,-2.5765,-7.8583,3.8547,-4.5752,-1.4171
-10.806,-0.50794,-5.2033,-5.2174,-1.9802,-8.6084,-0.65041,-10.37,5.7605,-5.2174,-1.9802,-5.9477,5.7143,-8.3573,-11.365,-3.2362,-5.7971,-9.7907,5.7504,-10.458,-0.77295
-1.327,1.3968,-3.9024,-3.285,0.66007,-4.7249,1.3008,-13.591,5.7605,-3.285,0.66007,-2.0261,-3.1746,-9.6332,-13.905,-2.589,-8.3736,-15.588,7.6461,-12.418,1.8035
-7.0142,2.0317,-6.5041,-1.9968,0.0,-2.7832,0.65041,-8.438,5.1133,-1.9968,0.0,-0.71895,-10.794,-8.3573,-18.349001,-1.9417,-11.594,-12.367,7.6461,-16.34,5.0242
-10.174,5.2063,-6.5041,-4.5733,0.0,-1.4887,1.3008,-5.8615,3.8188,-4.5733,0.0,-0.06536,-10.794,-2.6156,-16.444,1.9417,-9.6618,-8.5024,8.278,-15.686,8.2448
-2.5908,3.9365,-2.6016,-7.1498,-4.6205,-0.84142,-1.9512,-7.7939,1.877,-7.1498,-4.6205,-0.71895,-5.7143,3.764,-6.9206,5.178,-3.8647,-10.435,7.6461,-11.765,10.177
4.3602,0.12698,1.3008,-5.2174,-5.9406,1.7476,-1.9512,-3.9291,0.58252,-5.2174,-5.9406,0.58824,0.63492,8.2297,1.9683,7.767,1.9324,-7.8583,5.1185,-8.4967,9.533
7.5197,-1.7778,0.65041,-3.9291,-2.6403,6.2783,-1.3008,-1.3527,-0.06472,-3.9291,-2.6403,2.549,3.1746,8.2297,4.5079,5.178,2.5765,-0.12882,-0.56872,-4.5752,6.3124
1.2006,-4.9524,-3.252,-3.285,-2.6403,2.3948,-3.252,-0.06441,-2.6537,-3.285,-2.6403,0.58824,1.9048,6.3158,3.2381,0.0,0.0,1.8035,-4.3602,-2.6144,1.1594
-1.9589,-6.2222,-3.9024,-0.06441,0.0,-0.84142,-1.9512,2.5121,-1.3592,-0.06441,0.0,-0.06536,1.2698,5.0399,2.6032,-2.589,0.0,0.5153,-3.0964,-2.6144,0.5153
