C3,C4,Cz,F1,F2,F3,F4,F7,F8,Fp1,Fp2,Fz,O1,O2,P3,P4,Pz,T3,T4,T5,T6
3.7283,6.7302,6.8293,3.9216,3.9409,11.447,13.527,6.7314,8.6731,3.9216,3.9409,11.765,-9.5238,-1.9683,-6.5719,2.8986,0.06441,-11.723,3.873,-15.686,2.7697
1.8325,1.9683,0.97561,-1.9608,2.9557,9.4959,12.56,0.90615,7.7023,-1.9608,2.9557,10.784,-14.286,-6.7302,-10.363,-4.8309,-4.7665,-15.588,4.8254,-18.627001,-4.9597
2.7804,2.9206,4.878,6.8627,5.9113,12.423,15.459,0.90615,11.586,6.8627,5.9113,15.686,-8.5714,-2.9206,-7.5197,-3.8647,-2.8341,-0.12882,3.873,-10.784,-4.9597
-0.06319,0.06349,3.9024,5.8824,2.9557,9.4959,12.56,0.90615,5.7605,5.8824,2.9557,13.725,-6.6667,-0.06349,-8.4676,-4.8309,-3.8003,3.7359,1.0159,-10.784,4.7021
-4.8025,-7.5556,-2.9268,-2.9412,-2.9557,3.6423,2.8986,0.90615,-1.0356,-2.9412,-2.9557,5.8824,-8.5714,-4.8254,-10.363,-11.594,-8.6312,0.83736,-0.88889,-7.8431,0.83736
-6.6983,-11.365,-7.8049,-3.9216,-7.8818,-1.2358,-4.8309,-0.06472,-4.9191,-3.9216,-7.8818,-3.9216,-6.6667,-6.7302,-9.4155,-12.56,-9.5974,-2.0612,-2.7937,-2.9412,-0.12882
-11.438,-10.413,-11.707,-4.902,-10.837,-8.065,-13.527,-3.9482,-5.89,-4.902,-10.837,-10.784,-6.6667,-3.873,-11.311,-8.6957,-9.5974,-5.9259,-2.7937,-6.8627,8.5668
-8.594,-1.8413,-8.7805,-0.98039,-10.837,-8.065,-11.594,-0.06472,-1.0356,-0.98039,-10.837,-10.784,-2.8571,-0.06349,-5.624,0.0,-4.7665,-3.9936,5.7778,-3.9216,5.6683
-6.6983,-4.6984,-10.732,-3.9216,-11.823,-5.1382,-10.628,-4.9191,-4.9191,-3.9216,-11.823,-12.745,-0.95238,-1.0159,-1.8325,-2.8986,-4.7665,-0.12882,1.9683,1.9608,-10.757
-12.385,-14.222,-19.511999,-11.765,-14.778,-12.943,-10.628,-4.9191,-10.744,-11.765,-14.778,-19.608,-3.8095,-9.5873,-4.6761,-10.628,-10.564,-8.8245,-10.413,-0.98039,-21.385
-11.438,-17.079,-19.511999,-16.667,-11.823,-14.894,-15.459,-4.9191,-11.715,-16.667,-11.823,-20.587999,-2.8571,-9.5873,-2.7804,-8.6957,-8.6312,-8.8245,-10.413,0.98039,-11.723
-5.7504,-11.365,-11.707,-16.667,-12.808,-8.065,-16.424999,-2.9773,-8.8026,-16.667,-12.808,-16.667,1.9048,-0.06349,1.9589,-0.96618,-1.868,-3.9936,-7.5556,5.8824,-5.9259
2.7804,-1.8413,-1.9512,-7.8431,-8.867,-3.187,-4.8309,2.8479,-3.9482,-7.8431,-8.867,-7.8431,2.8571,1.8413,7.6461,4.8309,4.8953,10.499,-3.746,8.8235,1.8035
5.624,6.7302,5.8537,0.0,-5.9113,-0.26016,4.8309,0.90615,-0.06472,0.0,-5.9113,0.0,2.8571,4.6984,9.5419,6.7633,7.7939,8.5668,-2.7937,4.902,1.8035
8.4676,11.492,11.707,4.902,-1.9704,3.6423,5.7971,2.8479,0.90615,4.902,-1.9704,5.8824,2.8571,3.746,6.6983,8.6957,9.7262,0.83736,1.9683,-2.9412,-2.0612
12.259,15.302,15.61,4.902,2.9557,12.423,9.6618,4.7896,3.8188,4.902,2.9557,11.765,0.95238,6.6032,4.8025,11.594,10.692,-7.8583,6.7302,-8.8235,4.7021
13.207,15.302,15.61,4.902,8.867,12.423,8.6957,5.7605,8.6731,4.902,8.867,13.725,0.0,6.6032,1.9589,11.594,10.692,-1.095,6.7302,-10.784,2.7697
13.207,10.54,15.61,7.8431,8.867,9.4959,12.56,7.7023,7.7023,7.8431,8.867,12.745,0.0,2.7937,1.9589,8.6957,9.7262,7.6006,4.8254,-8.8235,-0.12882
14.155,9.5873,16.584999,8.8235,6.8966,12.423,16.424999,6.7314,6.7314,8.8235,6.8966,14.706,-0.95238,1.8413,2.9068,7.7295,8.7601,-0.12882,6.7302,-4.902,4.7021
10.363,5.7778,10.732,2.9412,0.98522,11.447,11.594,8.6731,0.90615,2.9412,0.98522,10.784,-0.95238,1.8413,1.9589,3.8647,5.8615,7.6006,4.8254,-1.9608,7.6006
2.7804,-0.88889,0.97561,3.9216,-4.9261,4.6179,0.0,8.6731,-3.9482,3.9216,-4.9261,2.9412,0.95238,3.746,0.06319,-0.96618,1.0306,10.499,-2.7937,4.902,-3.0274
-1.0111,-3.746,-3.9024,4.902,-2.9557,0.71545,-1.9324,5.7605,-3.9482,4.902,-2.9557,0.0,2.8571,-0.06349,-0.88468,-3.8647,-2.8341,9.533,-4.6984,10.784,-5.9259
-4.8025,-6.6032,-7.8049,0.98039,-3.9409,0.71545,-4.8309,-0.06472,-3.9482,0.98039,-3.9409,-3.9216,0.95238,-2.9206,-3.7283,-4.8309,-5.7327,7.6006,-6.6032,10.784,1.8035
-4.8025,-11.365,-7.8049,-5.8824,-4.9261,1.6911,-6.7633,-2.9773,-7.8317,-5.8824,-4.9261,-5.8824,0.0,0.88889,-3.7283,-4.8309,-5.7327,8.5668,-4.6984,5.8824,1.8035
-8.594,-15.175,-10.732,-15.686,-13.793,-4.1626,-15.459,-5.89,-11.715,-15.686,-13.793,-11.765,2.8571,1.8413,-3.7283,-4.8309,-3.8003,-2.0612,-8.5079,0.0,-3.9936
-8.594,-12.317,-8.7805,-11.765,-13.793,-12.943,-14.493,-8.8026,-11.715,-11.765,-13.793,-12.745,7.619,5.6508,0.06319,-1.9324,0.06441,-5.9259,-13.27,2.9412,1.8035
-3.8547,-4.6984,-4.878,-5.8824,-7.8818,-10.992,-6.7633,-7.8317,-8.8026,-5.8824,-7.8818,-8.8235,8.5714,10.413,5.7504,2.8986,3.9291,-1.095,-6.6032,8.8235,2.7697
0.88468,1.0159,-1.9512,-4.902,-4.9261,-4.1626,0.0,-4.9191,-7.8317,-4.902,-4.9261,-2.9412,8.5714,10.413,8.594,6.7633,6.8277,-3.0274,-2.7937,11.765,5.6683
2.7804,2.9206,-0.97561,0.0,-1.9704,-0.26016,4.8309,-3.9482,-8.8026,0.0,-1.9704,-0.98039,7.619,3.746,8.594,3.8647,4.8953,1.8035,-3.746,12.745,4.7021
8.4676,7.6825,3.9024,7.8431,7.8818,8.5203,4.8309,0.90615,-1.0356,7.8431,7.8818,6.8627,4.7619,-0.06349,8.594,4.8309,5.8615,3.7359,-0.88889,9.8039,0.83736
6.5719,10.54,6.8293,11.765,10.837,11.447,4.8309,3.8188,7.7023,11.765,10.837,10.784,2.8571,-0.06349,6.6983,6.7633,5.8615,-0.12882,1.0159,5.8824,-3.0274
4.6761,10.54,6.8293,14.706,15.764,10.472,13.527,3.8188,11.586,14.706,15.764,13.725,0.95238,0.88889,1.0111,6.7633,4.8953,-2.0612,5.7778,-3.9216,-0.12882
7.5197,10.54,11.707,14.706,18.719,13.398,21.256001,4.7896,14.498,14.706,18.719,19.608,-0.95238,1.8413,-1.8325,6.7633,4.8953,-2.0612,7.6825,-5.8824,1.8035
10.363,11.492,14.634,15.686,17.733999,13.398,23.188,4.7896,14.498,15.686,17.733999,22.549,-1.9048,0.88889,0.06319,4.8309,4.8953,3.7359,8.6349,-3.9216,-2.0612
12.259,12.444,17.561001,14.706,20.690001,16.325001,17.391001,12.557,13.528,14.706,20.690001,22.549,-0.95238,2.7937,1.9589,5.7971,5.8615,5.6683,11.492,-5.8824,-2.0612
6.5719,7.6825,12.683,12.745,15.764,10.472,10.628,9.644,10.615,12.745,15.764,15.686,2.8571,2.7937,1.9589,2.8986,4.8953,-1.095,3.873,-5.8824,-0.12882
0.88468,2.9206,4.878,4.902,7.8818,3.6423,8.6957,3.8188,5.7605,4.902,7.8818,6.8627,1.9048,-0.06349,-1.8325,0.0,1.0306,-9.7907,2.9206,-6.8627,2.7697
-0.06319,1.9683,0.97561,-1.9608,0.98522,-1.2358,0.96618,1.877,2.8479,-1.9608,0.98522,0.98039,3.8095,3.746,1.0111,0.96618,1.0306,3.7359,5.7778,2.9412,6.6345
-1.9589,0.06349,-1.9512,0.0,-3.9409,-7.0894,-1.9324,-1.0356,0.90615,0.0,-3.9409,-3.9216,2.8571,4.6984,2.9068,0.96618,1.0306,11.465,2.9206,3.9216,5.6683
-1.9589,-1.8413,-2.9268,1.9608,-7.8818,-9.0407,-6.7633,0.90615,-2.0065,1.9608,-7.8818,-7.8431,2.8571,2.7937,2.9068,-0.96618,0.06441,7.6006,-1.8413,0.98039,1.8035
-2.9068,-5.6508,-4.878,-6.8627,-9.8522,-10.016,-7.7295,-1.0356,-6.8608,-6.8627,-9.8522,-9.8039,2.8571,-0.06349,3.8547,-3.8647,-1.868,6.6345,-3.746,7.8431,1.8035
-7.6461,-12.317,-11.707,-10.784,-12.808,-11.967,-15.459,-6.8608,-12.686,-10.784,-12.808,-15.686,0.0,-2.9206,-0.88468,-7.7295,-5.7327,3.7359,-9.4603,7.8431,2.7697
-5.7504,-14.222,-12.683,-10.784,-12.808,-10.016,-20.290001,-5.89,-12.686,-10.784,-12.808,-15.686,0.0,-1.9683,-0.88468,-6.7633,-5.7327,6.6345,-7.5556,7.8431,6.6345
-6.6983,-12.317,-11.707,-11.765,-13.793,-10.016,-21.256001,-7.8317,-14.628,-11.765,-13.793,-16.667,0.0,-1.0159,-0.88468,-4.8309,-4.7665,3.7359,-6.6032,9.8039,2.7697
-7.6461,-7.5556,-9.7561,-11.765,-12.808,-10.016,-10.628,-7.8317,-10.744,-11.765,-12.808,-15.686,1.9048,-0.06349,-0.88468,-1.9324,-2.8341,-3.0274,-5.6508,9.8039,-1.095
-7.6461,-2.7937,-8.7805,-10.784,-7.8818,-10.016,-8.6957,-6.8608,-3.9482,-10.784,-7.8818,-12.745,0.0,-4.8254,-0.88468,-1.9324,-2.8341,-3.9936,-1.8413,7.8431,-4.9597
-3.8547,-5.6508,-7.8049,-6.8627,-2.9557,-2.2114,-11.594,-5.89,-5.89,-6.8627,-2.9557,-6.8627,-2.8571,-8.6349,-2.7804,-4.8309,-3.8003,-5.9259,-2.7937,2.9412,-7.8583
-2.9068,-7.5556,-6.8293,-2.9412,0.0,1.6911,-6.7633,-4.9191,-3.9482,-2.9412,0.0,-3.9216,-5.7143,-9.5873,-4.6761,-7.7295,-6.6989,-3.0274,-4.6984,-10.784,-14.622
0.88468,0.06349,0.0,2.9412,3.9409,4.6179,3.8647,0.90615,1.877,2.9412,3.9409,3.9216,-2.8571,-9.5873,-4.6761,-3.8647,-2.8341,-4.9597,-0.88889,-12.745,-10.757
-0.06319,2.9206,1.9512,9.8039,9.8522,1.6911,8.6957,3.8188,9.644,9.8039,9.8522,6.8627,-2.8571,-5.7778,-5.624,-2.8986,-2.8341,-5.9259,1.9683,-9.8039,-9.7907
-3.8547,3.873,0.0,13.725,12.808,-0.26016,11.594,0.90615,21.294001,13.725,12.808,6.8627,-6.6667,-7.6825,-8.4676,-3.8647,-5.7327,-6.8921,5.7778,-11.765,-4.9597
-2.9068,6.7302,0.0,10.784,14.778,1.6911,10.628,0.90615,24.207001,10.784,14.778,6.8627,-4.7619,-5.7778,-7.5197,0.0,-3.8003,-3.0274,6.7302,-9.8039,1.8035
-2.9068,7.6825,1.9512,11.765,17.733999,2.6667,13.527,4.7896,23.236,11.765,17.733999,7.8431,-2.8571,-1.0159,-5.624,2.8986,-2.8341,-1.095,11.492,-4.902,3.7359
-5.7504,7.6825,1.9512,3.9216,16.749001,0.71545,15.459,-0.06472,21.294001,3.9216,16.749001,7.8431,-4.7619,1.8413,-7.5197,2.8986,-3.8003,-6.8921,10.54,-3.9216,6.6345
-7.6461,6.7302,0.0,-3.9216,8.867,-1.2358,13.527,-2.0065,17.410999,-3.9216,8.867,4.902,-3.8095,-0.06349,-6.5719,0.96618,-3.8003,-7.8583,4.8254,-2.9412,2.7697
-9.5419,3.873,-1.9512,-10.784,-0.98522,-7.0894,7.7295,-9.7735,10.615,-10.784,-0.98522,-0.98039,-0.95238,-0.06349,-5.624,0.0,-4.7665,-6.8921,6.7302,-2.9412,6.6345
-5.7504,4.8254,0.0,-13.725,-7.8818,-9.0407,2.8986,-10.744,3.8188,-13.725,-7.8818,-5.8824,2.8571,4.6984,1.0111,3.8647,0.06441,-3.9936,3.873,0.98039,10.499
-4.8025,-2.7937,-3.9024,-14.706,-12.808,-10.016,-8.6957,-10.744,-3.9482,-14.706,-12.808,-11.765,1.9048,3.746,0.06319,0.96618,-0.90177,-3.0274,-0.88889,2.9412,9.533
-3.8547,-6.6032,-6.8293,-11.765,-15.764,-10.016,-10.628,-8.8026,-3.9482,-11.765,-15.764,-13.725,3.8095,3.746,2.9068,-0.96618,-0.90177,-1.095,-0.88889,5.8824,8.5668
-1.0111,-8.5079,-5.8537,-9.8039,-10.837,-10.016,-9.6618,-2.9773,-3.9482,-9.8039,-10.837,-10.784,4.7619,4.6984,5.7504,-2.8986,0.06441,4.7021,-2.7937,12.745,5.6683
-3.8547,-10.413,-5.8537,-12.745,-8.867,-9.0407,-10.628,-6.8608,-5.89,-12.745,-8.867,-8.8235,1.9048,1.8413,1.0111,-4.8309,-2.8341,0.83736,-3.746,3.9216,6.6345
-1.0111,-6.6032,-2.9268,-11.765,-8.867,-2.2114,-8.6957,-6.8608,-2.0065,-11.765,-8.867,-3.9216,2.8571,-0.06349,0.06319,-2.8986,-1.868,1.8035,1.0159,1.9608,2.7697
0.88468,-6.6032,-0.97561,-5.8824,-3.9409,0.71545,-9.6618,-3.9482,-2.9773,-5.8824,-3.9409,-0.98039,1.9048,-3.873,1.0111,-5.7971,-1.868,6.6345,-0.88889,0.98039,-4.9597
3.7283,-6.6032,-0.97561,-1.9608,3.9409,5.5935,-1.9324,-2.9773,-2.0065,-1.9608,3.9409,2.9412,2.8571,-3.873,2.9068,-4.8309,-0.90177,6.6345,-2.7937,-0.98039,-9.7907
-1.0111,-12.317,-7.8049,4.902,0.98522,1.6911,0.0,-1.0356,-1.0356,4.902,0.98522,0.0,2.8571,-4.8254,1.0111,-7.7295,-2.8341,-3.9936,-7.5556,-2.9412,-18.486
-1.0111,-11.365,-5.8537,3.9216,3.9409,-0.26016,-2.8986,0.90615,0.90615,3.9216,3.9409,0.0,2.8571,-2.9206,1.9589,-4.8309,-1.868,-6.8921,-2.7937,1.9608,-12.689
6.5719,1.0159,4.878,10.784,10.837,6.5691,1.9324,7.7023,6.7314,10.784,10.837,7.8431,5.7143,3.746,7.6461,3.8647,5.8615,0.83736,1.0159,1.9608,-3.9936
6.5719,5.7778,7.8049,10.784,3.9409,5.5935,3.8647,6.7314,4.7896,10.784,3.9409,7.8431,5.7143,1.8413,7.6461,5.7971,6.8277,-0.12882,1.0159,2.9412,1.8035
3.7283,5.7778,5.8537,-1.9608,0.0,2.6667,5.7971,0.90615,-0.06472,-1.9608,0.0,4.902,7.619,0.88889,6.6983,4.8309,5.8615,1.8035,1.0159,4.902,-0.12882
5.624,7.6825,6.8293,0.0,3.9409,2.6667,5.7971,4.7896,-0.06472,0.0,3.9409,2.9412,11.429,8.5079,11.438,8.6957,9.7262,9.533,1.0159,11.765,1.8035
7.5197,6.7302,5.8537,6.8627,4.9261,3.6423,2.8986,6.7314,0.90615,6.8627,4.9261,1.9608,12.381,8.5079,14.281,7.7295,9.7262,14.364,-0.88889,18.627001,1.8035
4.6761,3.873,2.9268,0.98039,-1.9704,6.5691,-3.8647,-2.0065,-1.0356,0.98039,-1.9704,-1.9608,10.476,6.6032,11.438,3.8647,4.8953,11.465,-4.6984,16.667,-0.12882
10.363,6.7302,7.8049,-3.9216,-0.98522,8.5203,5.7971,2.8479,-1.0356,-3.9216,-0.98522,1.9608,14.286,12.317,14.281,6.7633,8.7601,22.093,-1.8413,15.686,8.5668
12.259,6.7302,11.707,0.98039,-4.9261,4.6179,2.8986,2.8479,-3.9482,0.98039,-4.9261,1.9608,16.190001,11.365,14.281,7.7295,10.692,17.261999,-0.88889,14.706,3.7359
7.5197,0.06349,4.878,11.765,-4.9261,0.71545,-5.7971,8.6731,-6.8608,11.765,-4.9261,-2.9412,10.476,3.746,7.6461,0.96618,4.8953,1.8035,-1.8413,11.765,-0.12882
1.8325,-5.6508,-1.9512,8.8235,-1.9704,-0.26016,-7.7295,12.557,-7.8317,8.8235,-1.9704,-6.8627,2.8571,-0.06349,1.0111,-3.8647,-1.868,-1.095,-4.6984,9.8039,4.7021
3.7283,-3.746,-0.97561,8.8235,-1.9704,3.6423,-5.7971,12.557,-10.744,8.8235,-1.9704,-3.9216,2.8571,3.746,3.8547,-1.9324,0.06441,9.533,-5.6508,10.784,8.5668
-1.9589,-6.6032,-4.878,-1.9608,-6.8966,-0.26016,-8.6957,8.6731,-15.599,-1.9608,-6.8966,-7.8431,-1.9048,-1.9683,-3.7283,-6.7633,-5.7327,2.7697,-9.4603,4.902,-1.095
-1.9589,-3.746,-0.97561,-6.8627,-5.9113,-0.26016,-4.8309,0.90615,-15.599,-6.8627,-5.9113,-3.9216,-5.7143,-4.8254,-4.6761,-3.8647,-3.8003,0.83736,-3.746,0.98039,-3.9936
3.7283,1.9683,6.8293,-7.8431,-1.9704,1.6911,-0.96618,0.90615,-13.657,-7.8431,-1.9704,2.9412,-1.9048,1.8413,1.0111,2.8986,1.9968,5.6683,2.9206,0.0,-2.0612
0.88468,2.9206,4.878,-0.98039,-7.8818,-3.187,0.0,-2.0065,-9.7735,-0.98039,-7.8818,2.9412,-2.8571,0.88889,-0.88468,3.8647,2.963,-3.0274,-2.7937,-4.902,-3.0274
0.88468,3.873,4.878,1.9608,-3.9409,-4.1626,0.0,-4.9191,-4.9191,1.9608,-3.9409,2.9412,-1.9048,1.8413,1.9589,5.7971,4.8953,-7.8583,4.8254,-6.8627,3.7359
2.7804,8.6349,7.8049,3.9216,1.9704,1.6911,5.7971,-2.0065,-2.0065,3.9216,1.9704,5.8824,-0.95238,0.88889,2.9068,8.6957,5.8615,-5.9259,9.5873,-7.8431,8.5668
2.7804,12.444,9.7561,-3.9216,3.9409,5.5935,10.628,-0.06472,-1.0356,-3.9216,3.9409,8.8235,-3.8095,-0.06349,1.0111,9.6618,5.8615,-3.9936,7.6825,-7.8431,9.533
-1.0111,11.492,5.8537,-5.8824,2.9557,3.6423,4.8309,-1.0356,-2.9773,-5.8824,2.9557,7.8431,-5.7143,-1.0159,-2.7804,7.7295,1.9968,-3.9936,6.7302,-10.784,3.7359
-3.8547,7.6825,2.9268,1.9608,3.9409,-0.26016,5.7971,-1.0356,-3.9482,1.9608,3.9409,7.8431,-4.7619,-1.9683,-5.624,3.8647,-0.90177,-7.8583,3.873,-10.784,-8.8245
-2.9068,4.8254,1.9512,3.9216,3.9409,2.6667,6.7633,-2.9773,-1.0356,3.9216,3.9409,7.8431,-1.9048,0.88889,-4.6761,2.8986,-0.90177,-10.757,-0.88889,-7.8431,-4.9597
-0.06319,6.7302,3.9024,3.9216,4.9261,4.6179,6.7633,1.877,2.8479,3.9216,4.9261,9.8039,-1.9048,2.7937,-3.7283,3.8647,0.06441,-4.9597,-1.8413,-4.902,4.7021
-0.06319,2.9206,1.9512,1.9608,7.8818,4.6179,2.8986,1.877,1.877,1.9608,7.8818,7.8431,-3.8095,0.88889,-4.6761,0.0,-2.8341,-3.0274,1.0159,-5.8824,2.7697
1.8325,1.0159,1.9512,1.9608,5.9113,6.5691,3.8647,3.8188,-0.06472,1.9608,5.9113,7.8431,-3.8095,-0.06349,-5.624,-1.9324,-3.8003,-0.12882,4.8254,-7.8431,7.6006
3.7283,-0.88889,1.9512,9.8039,3.9409,5.5935,3.8647,5.7605,-1.0356,9.8039,3.9409,4.902,-4.7619,-2.9206,-2.7804,-2.8986,-3.8003,2.7697,-1.8413,-4.902,3.7359
-0.06319,-2.7937,0.0,8.8235,4.9261,-1.2358,-1.9324,3.8188,-1.0356,8.8235,4.9261,0.98039,-3.8095,-1.0159,-3.7283,-3.8647,-4.7665,2.7697,-0.88889,-7.8431,6.6345
-4.8025,-2.7937,-1.9512,-5.8824,1.9704,-4.1626,-3.8647,2.8479,-2.0065,-5.8824,1.9704,-0.98039,-4.7619,0.88889,-5.624,-3.8647,-5.7327,1.8035,5.7778,-5.8824,6.6345
-5.7504,-4.6984,-2.9268,-5.8824,-3.9409,-2.2114,-0.96618,-2.0065,-2.9773,-5.8824,-3.9409,-0.98039,-6.6667,-5.7778,-5.624,-7.7295,-7.6651,-4.9597,2.9206,-1.9608,-1.095
-8.594,-10.413,-5.8537,-5.8824,-8.867,-2.2114,-3.8647,-8.8026,-2.9773,-5.8824,-8.867,-4.902,-8.5714,-11.492,-8.4676,-14.493,-10.564,-14.622,-3.746,-6.8627,-9.7907
-5.7504,-10.413,-4.878,-2.9412,-4.9261,0.71545,-5.7971,-3.9482,-5.89,-2.9412,-4.9261,-5.8824,-8.5714,-10.54,-6.5719,-14.493,-8.6312,-7.8583,-4.6984,-4.902,-12.689
-5.7504,-10.413,-5.8537,-0.98039,-1.9704,-8.065,-10.628,-2.0065,-5.89,-0.98039,-1.9704,-8.8235,-8.5714,-11.492,-5.624,-13.527,-6.6989,-6.8921,-3.746,-2.9412,-12.689
-3.8547,-8.5079,-5.8537,1.9608,-1.9704,-10.016,-8.6957,-2.0065,-4.9191,1.9608,-1.9704,-7.8431,-8.5714,-9.5873,-2.7804,-9.6618,-4.7665,-3.9936,0.06349,-0.98039,-8.8245
5.624,-1.8413,2.9268,0.98039,4.9261,0.71545,3.8647,4.7896,2.8479,0.98039,4.9261,0.98039,-2.8571,-5.7778,3.8547,-3.8647,2.963,3.7359,-2.7937,1.9608,-9.7907
9.4155,2.9206,5.8537,0.98039,4.9261,5.5935,8.6957,3.8188,2.8479,0.98039,4.9261,2.9412,-0.95238,0.88889,6.6983,0.96618,6.8277,4.7021,0.06349,2.9412,-3.9936
11.311,1.9683,3.9024,7.8431,2.9557,8.5203,1.9324,3.8188,-2.0065,7.8431,2.9557,1.9608,-0.95238,-0.06349,7.6461,2.8986,6.8277,9.533,0.06349,3.9216,-2.0612
10.363,2.9206,4.878,9.8039,1.9704,6.5691,-1.9324,7.7023,-2.0065,9.8039,1.9704,2.9412,2.8571,1.8413,7.6461,6.7633,7.7939,3.7359,-0.88889,2.9412,3.7359
9.4155,6.7302,7.8049,4.902,2.9557,8.5203,0.96618,4.7896,-2.9773,4.902,2.9557,6.8627,3.8095,4.6984,5.7504,10.628,9.7262,-0.12882,-1.8413,2.9412,3.7359
6.5719,11.492,9.7561,6.8627,2.9557,9.4959,5.7971,2.8479,-5.89,6.8627,2.9557,9.8039,2.8571,8.5079,3.8547,11.594,9.7262,-3.0274,3.873,1.9608,4.7021
7.5197,16.254,10.732,9.8039,5.9113,11.447,14.493,2.8479,-0.06472,9.8039,5.9113,13.725,1.9048,13.27,3.8547,16.424999,10.692,-0.12882,13.397,0.98039,17.261999
2.7804,10.54,3.9024,3.9216,1.9704,4.6179,8.6957,3.8188,7.7023,3.9216,1.9704,7.8431,0.95238,7.5556,2.9068,10.628,6.8277,2.7697,5.7778,0.98039,9.533
-1.0111,2.9206,-0.97561,3.9216,0.0,-1.2358,0.96618,3.8188,6.7314,3.9216,0.0,1.9608,0.0,4.6984,1.0111,5.7971,3.9291,3.7359,-1.8413,-3.9216,-3.0274
-4.8025,1.9683,-1.9512,4.902,3.9409,-3.187,-1.9324,-1.0356,1.877,4.902,3.9409,0.0,0.0,7.5556,-3.7283,3.8647,1.0306,-3.0274,0.06349,-12.745,0.83736
-4.8025,0.06349,-2.9268,0.98039,7.8818,-1.2358,0.96618,0.90615,2.8479,0.98039,7.8818,0.98039,-1.9048,0.88889,-5.624,-0.96618,-1.868,-3.9936,-0.88889,-12.745,7.6006
-1.9589,0.06349,-3.9024,2.9412,6.8966,0.71545,7.7295,1.877,4.7896,2.9412,6.8966,1.9608,-4.7619,-1.9683,-3.7283,-4.8309,-4.7665,-3.9936,2.9206,-8.8235,5.6683
-2.9068,-1.8413,-6.8293,5.8824,1.9704,0.71545,3.8647,3.8188,5.7605,5.8824,1.9704,0.98039,-5.7143,-8.6349,-2.7804,-10.628,-8.6312,-2.0612,0.06349,0.0,3.7359
0.88468,-3.746,-3.9024,5.8824,1.9704,0.71545,0.0,8.6731,7.7023,5.8824,1.9704,0.98039,-5.7143,-12.444,0.06319,-14.493,-8.6312,2.7697,-4.6984,6.8627,-6.8921
3.7283,-7.5556,-2.9268,-1.9608,1.9704,2.6667,-2.8986,0.90615,2.8479,-1.9608,1.9704,0.98039,-6.6667,-14.349,1.9589,-16.424999,-7.6651,8.5668,-2.7937,10.784,-11.723
3.7283,-8.5079,-3.9024,-7.8431,-7.8818,1.6911,-4.8309,-3.9482,-5.89,-7.8431,-7.8818,-1.9608,-4.7619,-11.492,2.9068,-14.493,-4.7665,4.7021,-4.6984,9.8039,-13.655
4.6761,-1.8413,-0.97561,1.9608,3.9409,1.6911,0.96618,2.8479,7.7023,1.9608,3.9409,-0.98039,-3.8095,-9.5873,1.9589,-6.7633,-1.868,5.6683,0.06349,3.9216,-10.757
-1.0111,1.0159,-0.97561,4.902,10.837,-6.1138,3.8647,-3.9482,8.6731,4.902,10.837,-1.9608,-8.5714,-9.5873,-2.7804,-2.8986,-2.8341,1.8035,7.6825,3.9216,-3.9936
-1.9589,3.873,0.97561,2.9412,9.8522,-4.1626,4.8309,-7.8317,9.644,2.9412,9.8522,0.0,-5.7143,-1.0159,-3.7283,2.8986,-0.90177,-2.0612,9.5873,0.0,-3.0274
-3.8547,3.873,0.97561,6.8627,11.823,-3.187,3.8647,-4.9191,12.557,6.8627,11.823,1.9608,-2.8571,2.7937,-4.6761,4.8309,1.0306,-5.9259,5.7778,-4.902,-3.9936
-1.9589,2.9206,1.9512,5.8824,11.823,-5.1382,5.7971,-2.0065,12.557,5.8824,11.823,1.9608,2.8571,0.88889,1.0111,6.7633,3.9291,-3.0274,-0.88889,2.9412,-2.0612
0.88468,2.9206,4.878,0.98039,6.8966,-6.1138,5.7971,-4.9191,11.586,0.98039,6.8966,2.9412,5.7143,5.6508,4.8025,10.628,7.7939,-2.0612,2.9206,5.8824,7.6006
-1.0111,3.873,4.878,-3.9216,4.9261,-4.1626,0.0,-8.8026,9.644,-3.9216,4.9261,0.98039,6.6667,11.365,2.9068,12.56,8.7601,-3.0274,5.7778,0.0,15.33
-0.06319,7.6825,4.878,-2.9412,8.867,0.71545,1.9324,-7.8317,11.586,-2.9412,8.867,2.9412,8.5714,14.222,4.8025,13.527,8.7601,-0.12882,8.6349,0.98039,19.195
-1.0111,6.7302,-0.97561,3.9216,7.8818,0.71545,2.8986,-2.0065,8.6731,3.9216,7.8818,1.9608,4.7619,10.413,2.9068,9.6618,4.8953,1.8035,8.6349,1.9608,19.195
-1.9589,0.06349,-6.8293,5.8824,4.9261,-0.26016,0.96618,4.7896,5.7605,5.8824,4.9261,-1.9608,0.0,3.746,0.06319,2.8986,-0.90177,-2.0612,3.873,-0.98039,7.6006
-2.9068,-4.6984,-7.8049,5.8824,3.9409,0.71545,-4.8309,2.8479,6.7314,5.8824,3.9409,-3.9216,-4.7619,-0.06349,-3.7283,-3.8647,-5.7327,0.83736,-1.8413,-2.9412,-2.0612
0.88468,-2.7937,-2.9268,8.8235,7.8818,4.6179,-0.96618,3.8188,6.7314,8.8235,7.8818,0.98039,-5.7143,-1.9683,-1.8325,-5.7971,-4.7665,5.6683,0.06349,0.0,1.8035
5.624,1.0159,2.9268,9.8039,12.808,10.472,1.9324,10.615,9.644,9.8039,12.808,6.8627,-4.7619,-6.7302,1.0111,-7.7295,-3.8003,8.5668,-0.88889,4.902,-2.0612
1.8325,-1.8413,0.0,10.784,9.8522,5.5935,7.7295,9.644,1.877,10.784,9.8522,6.8627,-8.5714,-14.349,-3.7283,-13.527,-7.6651,5.6683,-1.8413,-3.9216,-8.8245
2.7804,-4.6984,0.0,4.902,4.9261,6.5691,7.7295,5.7605,1.877,4.902,4.9261,7.8431,-10.476,-15.302,-5.624,-15.459,-9.5974,5.6683,-2.7937,-8.8235,-11.723
6.5719,-2.7937,2.9268,2.9412,4.9261,12.423,3.8647,6.7314,4.7896,2.9412,4.9261,9.8039,-8.5714,-13.397,-2.7804,-10.628,-5.7327,6.6345,0.06349,-5.8824,-3.9936
7.5197,-3.746,3.9024,9.8039,7.8818,14.374,0.0,8.6731,5.7605,9.8039,7.8818,8.8235,-4.7619,-10.54,0.06319,-8.6957,-2.8341,6.6345,-4.6984,-4.902,-13.655
4.6761,-4.6984,3.9024,15.686,6.8966,11.447,3.8647,11.586,4.7896,15.686,6.8966,6.8627,-0.95238,-6.7302,1.0111,-5.7971,1.0306,1.8035,-7.5556,-3.9216,-24.283001
6.5719,1.0159,7.8049,11.765,9.8522,10.472,6.7633,12.557,3.8188,11.765,9.8522,9.8039,5.7143,-2.9206,6.6983,2.8986,6.8277,1.8035,0.06349,1.9608,-11.723
10.363,4.8254,10.732,9.8039,8.867,14.374,10.628,6.7314,3.8188,9.8039,8.867,11.765,10.476,1.8413,13.333,8.6957,12.625,10.499,2.9206,7.8431,-4.9597
14.155,7.6825,12.683,14.706,10.837,13.398,4.8309,4.7896,9.644,14.706,10.837,11.765,12.381,3.746,16.177,12.56,15.523,8.5668,7.6825,10.784,-1.095
11.311,6.7302,10.732,12.745,6.8966,7.5447,-2.8986,2.8479,7.7023,12.745,6.8966,6.8627,9.5238,5.6508,14.281,9.6618,12.625,4.7021,5.7778,11.765,-0.12882
6.5719,4.8254,8.7805,8.8235,2.9557,4.6179,0.0,4.7896,1.877,8.8235,2.9557,4.902,4.7619,3.746,8.594,4.8309,7.7939,6.6345,-0.88889,3.9216,4.7021
3.7283,1.9683,5.8537,5.8824,5.9113,-1.2358,1.9324,6.7314,5.7605,5.8824,5.9113,3.9216,3.8095,0.88889,4.8025,0.96618,3.9291,5.6683,1.9683,1.9608,1.8035
-1.9589,-2.7937,-0.97561,0.0,6.8966,-5.1382,1.9324,1.877,2.8479,0.0,6.8966,0.0,0.0,-1.9683,-0.88468,-3.8647,-2.8341,-0.12882,3.873,0.0,-1.095
-12.385,-8.5079,-12.683,-1.9608,-1.9704,-10.016,-6.7633,-3.9482,-2.9773,-1.9608,-1.9704,-10.784,-7.619,-5.7778,-10.363,-9.6618,-11.53,-6.8921,-2.7937,-7.8431,-3.9936
-15.229,-13.27,-16.584999,-4.902,-4.9261,-10.992,-4.8309,-8.8026,-1.0356,-4.902,-4.9261,-13.725,-7.619,-4.8254,-13.207,-11.594,-13.462,-6.8921,-6.6032,-8.8235,-5.9259
-15.229,-14.222,-16.584999,-9.8039,-5.9113,-11.967,-9.6618,-9.7735,0.90615,-9.8039,-5.9113,-14.706,-6.6667,-4.8254,-13.207,-10.628,-13.462,-4.9597,-4.6984,-7.8431,-3.0274
-13.333,-8.5079,-13.659,-7.8431,0.98522,-10.992,-7.7295,-7.8317,-4.9191,-7.8431,0.98522,-11.765,-5.7143,-3.873,-13.207,-5.7971,-11.53,-10.757,1.9683,-7.8431,5.6683
-8.594,1.0159,-7.8049,-2.9412,0.0,-8.065,-1.9324,-2.9773,1.877,-2.9412,0.0,-7.8431,-2.8571,2.7937,-9.4155,1.9324,-5.7327,-10.757,2.9206,-5.8824,11.465
-6.6983,3.873,-3.9024,-1.9608,-3.9409,-10.016,-3.8647,-1.0356,3.8188,-1.9608,-3.9409,-8.8235,-0.95238,7.5556,-6.5719,6.7633,-1.868,-4.9597,1.0159,-1.9608,9.533
-5.7504,2.9206,-2.9268,-3.9216,0.0,-8.065,-0.96618,-2.0065,-2.9773,-3.9216,0.0,-6.8627,0.95238,5.6508,-5.624,6.7633,-0.90177,-6.8921,1.9683,-4.902,4.7021
-2.9068,1.9683,-1.9512,-0.98039,0.98522,-1.2358,-0.96618,-2.9773,0.90615,-0.98039,0.98522,-0.98039,2.8571,4.6984,-2.7804,4.8309,0.06441,0.83736,-1.8413,0.0,0.83736
4.6761,3.873,3.9024,3.9216,3.9409,5.5935,0.96618,0.90615,3.8188,3.9216,3.9409,5.8824,7.619,9.4603,4.8025,6.7633,5.8615,7.6006,-1.8413,1.9608,6.6345
7.5197,5.7778,7.8049,4.902,3.9409,7.5447,3.8647,6.7314,0.90615,4.902,3.9409,8.8235,9.5238,9.4603,8.594,8.6957,8.7601,6.6345,-2.7937,0.98039,9.533
11.311,7.6825,11.707,2.9412,4.9261,11.447,6.7633,5.7605,-0.06472,2.9412,4.9261,11.765,10.476,7.5556,12.385,9.6618,12.625,6.6345,0.06349,7.8431,4.7021
11.311,12.444,14.634,4.902,4.9261,14.374,10.628,9.644,-3.9482,4.902,4.9261,13.725,11.429,6.6032,14.281,11.594,14.557,6.6345,-0.88889,10.784,-0.12882
14.155,15.302,18.537001,18.627001,12.808,16.325001,15.459,8.6731,6.7314,18.627001,12.808,19.608,12.381,13.27,16.177,14.493,17.455999,14.364,3.873,13.725,3.7359
15.103,10.54,18.537001,19.608,14.778,16.325001,10.628,6.7314,9.644,19.608,14.778,20.587999,9.5238,7.5556,14.281,10.628,14.557,9.533,4.8254,10.784,5.6683
14.155,8.6349,16.584999,7.8431,15.764,18.275999,14.493,3.8188,6.7314,7.8431,15.764,21.569,6.6667,0.88889,11.438,6.7633,11.659,0.83736,2.9206,8.8235,0.83736
14.155,8.6349,15.61,11.765,15.764,15.35,12.56,5.7605,8.6731,11.765,15.764,18.627001,6.6667,1.8413,12.385,5.7971,11.659,1.8035,5.7778,9.8039,2.7697
12.259,8.6349,12.683,13.725,10.837,6.5691,7.7295,5.7605,4.7896,13.725,10.837,13.725,7.619,2.7937,10.49,6.7633,10.692,-3.9936,8.6349,9.8039,4.7021
5.624,6.7302,7.8049,0.0,0.98522,0.71545,3.8647,-2.0065,-0.06472,0.0,0.98522,7.8431,3.8095,2.7937,5.7504,5.7971,6.8277,-9.7907,9.5873,2.9412,9.533
5.624,6.7302,8.7805,-1.9608,3.9409,5.5935,2.8986,-3.9482,1.877,-1.9608,3.9409,8.8235,3.8095,4.6984,2.9068,7.7295,6.8277,-1.095,9.5873,-3.9216,6.6345
3.7283,4.8254,6.8293,-4.902,0.0,3.6423,3.8647,-3.9482,-1.0356,-4.902,0.0,4.902,2.8571,9.4603,1.0111,8.6957,5.8615,-1.095,3.873,-4.902,5.6683
2.7804,4.8254,2.9268,-1.9608,-1.9704,0.71545,0.96618,0.90615,-2.9773,-1.9608,-1.9704,0.98039,1.9048,9.4603,-0.88468,8.6957,3.9291,2.7697,0.06349,-3.9216,12.432
-2.9068,1.0159,-2.9268,-3.9216,-6.8966,-6.1138,-9.6618,-2.0065,-9.7735,-3.9216,-6.8966,-6.8627,0.95238,4.6984,-4.6761,4.8309,-0.90177,1.8035,-3.746,-3.9216,9.533
-3.8547,1.0159,-5.8537,-4.902,-7.8818,-9.0407,-7.7295,-0.06472,-8.8026,-4.902,-7.8818,-8.8235,2.8571,4.6984,-3.7283,3.8647,-1.868,3.7359,-3.746,0.0,8.5668
-4.8025,-1.8413,-7.8049,-0.98039,-6.8966,-6.1138,-4.8309,2.8479,-7.8317,-0.98039,-6.8966,-8.8235,4.7619,6.6032,-2.7804,1.9324,-2.8341,6.6345,-4.6984,4.902,4.7021
-9.5419,-8.5079,-9.7561,-3.9216,-9.8522,-7.0894,-9.6618,2.8479,-9.7735,-3.9216,-9.8522,-11.765,1.9048,1.8413,-5.624,-2.8986,-5.7327,0.83736,-8.5079,2.9412,-2.0612
-7.6461,-10.413,-5.8537,-2.9412,-6.8966,-7.0894,-9.6618,7.7023,-8.8026,-2.9412,-6.8966,-10.784,5.7143,-0.06349,0.06319,-3.8647,-1.868,7.6006,-10.413,8.8235,-9.7907
-5.7504,-8.5079,-3.9024,-3.9216,-7.8818,-8.065,-8.6957,7.7023,-7.8317,-3.9216,-7.8818,-10.784,8.5714,-0.06349,4.8025,-1.9324,1.0306,8.5668,-14.222,11.765,-10.757
-0.06319,-5.6508,-1.9512,-6.8627,-5.9113,-5.1382,-6.7633,2.8479,-6.8608,-6.8627,-5.9113,-8.8235,8.5714,-1.0159,7.6461,-0.96618,2.963,14.364,-9.4603,13.725,-12.689
5.624,1.9683,2.9268,0.0,-0.98522,0.71545,-0.96618,10.615,-2.9773,0.0,-0.98522,-2.9412,10.476,1.8413,10.49,2.8986,5.8615,20.160999,-4.6984,16.667,-3.0274
9.4155,2.9206,7.8049,5.8824,2.9557,6.5691,1.9324,10.615,-0.06472,5.8824,2.9557,2.9412,8.5714,0.88889,10.49,2.8986,6.8277,13.398,-4.6984,10.784,-7.8583
13.207,3.873,12.683,4.902,2.9557,11.447,5.7971,1.877,-2.0065,4.902,2.9557,7.8431,4.7619,-1.9683,10.49,1.9324,7.7939,11.465,0.06349,8.8235,-11.723
15.103,4.8254,14.634,3.9216,3.9409,13.398,10.628,6.7314,2.8479,3.9216,3.9409,9.8039,4.7619,-3.873,12.385,0.96618,8.7601,8.5668,0.06349,11.765,-11.723
5.624,0.06349,2.9268,-2.9412,0.0,2.6667,-0.96618,1.877,2.8479,-2.9412,0.0,-0.98039,1.9048,-7.6825,4.8025,-3.8647,1.9968,-3.0274,-1.8413,7.8431,-11.723
-0.06319,-2.7937,-6.8293,-7.8431,-3.9409,-6.1138,-6.7633,-2.0065,-1.0356,-7.8431,-3.9409,-10.784,-0.95238,-4.8254,0.06319,-1.9324,-1.868,-5.9259,1.0159,4.902,0.83736
-1.0111,-0.88889,-7.8049,-7.8431,-2.9557,-5.1382,-7.7295,0.90615,-1.0356,-7.8431,-2.9557,-10.784,-0.95238,0.88889,-1.8325,1.9324,-1.868,-4.9597,1.0159,0.0,7.6006
-7.6461,-1.8413,-8.7805,-8.8235,-7.8818,-10.992,-8.6957,-7.8317,-2.9773,-8.8235,-7.8818,-11.765,-4.7619,1.8413,-9.4155,0.96618,-6.6989,-6.8921,2.9206,-6.8627,10.499
-15.229,-4.6984,-11.707,-11.765,-12.808,-13.919,-10.628,-14.628,-6.8608,-11.765,-12.808,-12.745,-9.5238,1.8413,-16.051001,-2.8986,-13.462,-12.689,1.9683,-10.784,11.465
-18.073,-5.6508,-11.707,-11.765,-11.823,-14.894,-14.493,-13.657,-8.8026,-11.765,-11.823,-11.765,-11.429,-0.06349,-18.893999,-3.8647,-15.395,-13.655,1.9683,-12.745,10.499
-20.916,-6.6032,-12.683,-14.706,-13.793,-19.771999,-8.6957,-10.744,-9.7735,-14.706,-13.793,-11.765,-14.286,-1.0159,-21.738001,-3.8647,-17.327,-12.689,2.9206,-13.725,8.5668
-21.864,-7.5556,-13.659,-19.608,-16.749001,-16.846001,-5.7971,-10.744,-7.8317,-19.608,-16.749001,-12.745,-13.333,-0.06349,-22.686001,-4.8309,-18.292999,-7.8583,1.9683,-19.608,9.533
-23.76,-9.4603,-15.61,-12.745,-7.8818,-13.919,-6.7633,-12.686,-4.9191,-12.745,-7.8818,-10.784,-14.286,-0.06349,-24.580999,-7.7295,-19.259001,-9.7907,0.06349,-23.528999,10.499
-22.812,-6.6032,-14.634,-5.8824,3.9409,-13.919,-0.96618,-7.8317,1.877,-5.8824,3.9409,-6.8627,-13.333,2.7937,-22.686001,-5.7971,-16.361,-13.655,1.9683,-20.587999,15.33
-16.177,-5.6508,-9.7561,-1.9608,7.8818,-10.016,2.8986,-3.9482,7.7023,-1.9608,7.8818,-0.98039,-13.333,-3.873,-16.997999,-6.7633,-12.496,-10.757,1.9683,-20.587999,3.7359
-12.385,-12.317,-6.8293,-2.9412,3.9409,-5.1382,-3.8647,-7.8317,3.8188,-2.9412,3.9409,0.0,-12.381,-13.397,-13.207,-13.527,-11.53,-15.588,-1.8413,-19.608,-16.554001
-0.06319,-7.5556,1.9512,4.902,7.8818,2.6667,3.8647,-2.0065,4.7896,4.902,7.8818,7.8431,-3.8095,-4.8254,-0.88468,-8.6957,-2.8341,-7.8583,-0.88889,-8.8235,-8.8245
7.5197,-1.8413,6.8293,12.745,8.867,7.5447,11.594,0.90615,7.7023,12.745,8.867,11.765,1.9048,-2.9206,8.594,-4.8309,4.8953,-0.12882,0.06349,0.98039,-4.9597
11.311,1.0159,9.7561,6.8627,4.9261,6.5691,10.628,-2.0065,0.90615,6.8627,4.9261,10.784,3.8095,-5.7778,13.333,-1.9324,8.7601,-3.9936,-0.88889,4.902,-8.8245
18.893999,3.873,13.659,9.8039,9.8522,11.447,9.6618,13.528,0.90615,9.8039,9.8522,12.745,5.7143,-6.7302,20.916,1.9324,12.625,8.5668,-1.8413,10.784,-14.622
20.790001,8.6349,14.634,13.725,9.8522,15.35,10.628,16.440001,2.8479,13.725,9.8522,13.725,8.5714,-1.0159,19.968,7.7295,15.523,12.432,0.06349,11.765,-12.689
18.893999,11.492,13.659,8.8235,5.9113,14.374,10.628,10.615,-0.06472,8.8235,5.9113,10.784,8.5714,0.88889,16.177,10.628,14.557,13.398,1.9683,9.8039,-10.757
14.155,8.6349,9.7561,2.9412,1.9704,11.447,3.8647,6.7314,-3.9482,2.9412,1.9704,6.8627,4.7619,2.7937,9.5419,10.628,10.692,2.7697,1.0159,5.8824,-3.0274
9.4155,5.7778,6.8293,0.98039,-4.9261,6.5691,-0.96618,-1.0356,-7.8317,0.98039,-4.9261,0.0,1.9048,6.6032,3.8547,11.594,7.7939,-3.0274,1.0159,4.902,6.6345
7.5197,4.8254,4.878,-0.98039,-6.8966,1.6911,-4.8309,0.90615,-6.8608,-0.98039,-6.8966,-3.9216,-0.95238,3.746,1.9589,10.628,4.8953,3.7359,4.8254,4.902,5.6683
-1.9589,0.06349,-0.97561,-12.745,-14.778,-7.0894,-17.391001,-9.7735,-14.628,-12.745,-14.778,-11.765,-1.9048,4.6984,-2.7804,5.7971,0.06441,-2.0612,1.9683,0.98039,5.6683
-14.281,-3.746,-10.732,-19.608,-20.690001,-17.820999,-18.357,-17.540001,-14.628,-19.608,-20.690001,-19.608,-6.6667,3.746,-13.207,-1.9324,-8.6312,-12.689,-0.88889,-10.784,7.6006
-13.333,-0.88889,-9.7561,-15.686,-14.778,-12.943,-9.6618,-6.8608,-7.8317,-15.686,-14.778,-15.686,-6.6667,4.6984,-13.207,-0.96618,-8.6312,-9.7907,-1.8413,-9.8039,5.6683
-11.438,0.06349,-6.8293,-13.725,-11.823,-7.0894,-3.8647,-5.89,-6.8608,-13.725,-11.823,-11.765,-8.5714,-0.06349,-13.207,-1.9324,-8.6312,-4.9597,0.06349,-10.784,3.7359
-10.49,-4.6984,-7.8049,-11.765,-12.808,-7.0894,-1.9324,-3.9482,-4.9191,-11.765,-12.808,-10.784,-10.476,-2.9206,-12.259,-5.7971,-10.564,-3.9936,0.06349,-9.8039,6.6345
-8.594,-11.365,-8.7805,-3.9216,-6.8966,-5.1382,-8.6957,5.7605,-3.9482,-3.9216,-6.8966,-10.784,-9.5238,-1.9683,-13.207,-8.6957,-9.5974,-3.0274,-3.746,-14.706,2.7697
-7.6461,-13.27,-7.8049,-0.98039,-7.8818,-6.1138,-9.6618,2.8479,-7.8317,-0.98039,-7.8818,-8.8235,-9.5238,-5.7778,-11.311,-9.6618,-8.6312,-3.0274,-4.6984,-18.627001,7.6006
0.88468,-3.746,0.0,-0.98039,-4.9261,0.71545,0.0,-2.9773,-5.89,-0.98039,-4.9261,-1.9608,-3.8095,-4.8254,0.06319,-1.9324,1.0306,-3.0274,1.0159,-8.8235,10.499
2.7804,2.9206,4.878,0.0,3.9409,-0.26016,0.96618,-1.0356,0.90615,0.0,3.9409,1.9608,2.8571,-1.9683,7.6461,2.8986,7.7939,-1.095,3.873,-7.8431,-3.0274
8.4676,9.5873,8.7805,5.8824,4.9261,1.6911,5.7971,3.8188,5.7605,5.8824,4.9261,5.8824,12.381,5.6508,16.177,8.6957,15.523,-1.095,-1.8413,-0.98039,-8.8245
16.051001,11.492,13.659,8.8235,6.8966,6.5691,15.459,5.7605,4.7896,8.8235,6.8966,10.784,17.143,8.5079,23.76,14.493,20.354,11.465,4.8254,10.784,-3.9936
16.997999,7.6825,13.659,1.9608,0.98522,9.4959,11.594,5.7605,4.7896,1.9608,0.98522,10.784,16.190001,4.6984,22.812,10.628,17.455999,18.229,2.9206,16.667,-8.8245
15.103,5.7778,10.732,1.9608,0.98522,10.472,7.7295,7.7023,1.877,1.9608,0.98522,9.8039,10.476,1.8413,15.229,5.7971,11.659,12.432,-2.7937,19.608,-10.757
12.259,1.9683,6.8293,0.98039,0.98522,10.472,1.9324,6.7314,-2.0065,0.98039,0.98522,7.8431,3.8095,-3.873,9.5419,-0.96618,4.8953,10.499,-7.5556,19.608,-13.655
8.4676,-1.8413,0.97561,-4.902,-1.9704,11.447,-0.96618,-2.0065,-4.9191,-4.902,-1.9704,4.902,0.0,-9.5873,2.9068,-5.7971,-1.868,0.83736,-8.5079,15.686,-12.689
5.624,-1.8413,0.97561,3.9216,-0.98522,11.447,-2.8986,3.8188,-4.9191,3.9216,-0.98522,3.9216,1.9048,-3.873,1.9589,-4.8309,-1.868,7.6006,-6.6032,14.706,-4.9597
5.624,-0.88889,0.97561,11.765,0.98522,8.5203,0.0,12.557,-2.0065,11.765,0.98522,6.8627,3.8095,1.8413,2.9068,-3.8647,-0.90177,16.296,-3.746,15.686,2.7697
0.88468,-3.746,-1.9512,8.8235,-2.9557,3.6423,1.9324,7.7023,-3.9482,8.8235,-2.9557,3.9216,0.0,-1.0159,-0.88468,-8.6957,-4.7665,5.6683,-9.4603,13.725,-3.0274
-3.8547,-9.4603,-5.8537,1.9608,-5.9113,1.6911,-1.9324,1.877,-11.715,1.9608,-5.9113,-0.98039,-2.8571,-3.873,-4.6761,-12.56,-8.6312,-3.9936,-9.4603,6.8627,-2.0612
-2.9068,-10.413,-3.9024,0.0,-6.8966,1.6911,-7.7295,-2.9773,-11.715,0.0,-6.8966,-1.9608,-2.8571,-1.0159,-4.6761,-10.628,-7.6651,-4.9597,-4.6984,2.9412,8.5668
-4.8025,-7.5556,-3.9024,-3.9216,-5.9113,-2.2114,-12.56,-2.0065,-8.8026,-3.9216,-5.9113,-4.902,-1.9048,4.6984,-4.6761,-4.8309,-4.7665,-1.095,0.06349,-2.9412,10.499
-10.49,-7.5556,-7.8049,-2.9412,-8.867,-11.967,-8.6957,-2.9773,-5.89,-2.9412,-8.867,-8.8235,-3.8095,4.6984,-7.5197,-1.9324,-4.7665,-2.0612,3.873,-6.8627,15.33
-16.177,-11.365,-9.7561,-6.8627,-12.808,-17.820999,-7.7295,-8.8026,-3.9482,-6.8627,-12.808,-12.745,-1.9048,5.6508,-8.4676,-2.8986,-5.7327,-6.8921,1.9683,-12.745,12.432
-14.281,-8.5079,-7.8049,-9.8039,-10.837,-15.87,-0.96618,-7.8317,-1.0356,-9.8039,-10.837,-8.8235,0.95238,5.6508,-3.7283,-1.9324,-2.8341,-6.8921,1.0159,-7.8431,5.6683
-8.594,1.0159,-2.9268,-5.8824,-1.9704,-10.992,2.8986,-5.89,-0.06472,-5.8824,-1.9704,-3.9216,3.8095,9.4603,3.8547,5.7971,2.963,-4.9597,5.7778,-1.9608,13.398
-4.8025,6.7302,-1.9512,-1.9608,0.98522,-8.065,2.8986,-6.8608,-2.0065,-1.9608,0.98522,-2.9412,1.9048,6.6032,2.9068,7.7295,3.9291,-8.8245,3.873,-7.8431,10.499
0.88468,7.6825,1.9512,0.98039,6.8966,-1.2358,2.8986,-5.89,3.8188,0.98039,6.8966,0.0,0.95238,1.8413,2.9068,8.6957,4.8953,-2.0612,2.9206,-9.8039,-2.0612
7.5197,6.7302,4.878,3.9216,7.8818,2.6667,6.7633,-3.9482,5.7605,3.9216,7.8818,3.9216,1.9048,0.88889,5.7504,7.7295,6.8277,6.6345,1.0159,-0.98039,-3.0274
14.155,9.5873,6.8293,8.8235,5.9113,6.5691,9.6618,4.7896,7.7023,8.8235,5.9113,6.8627,6.6667,1.8413,12.385,8.6957,11.659,4.7021,2.9206,2.9412,-1.095
18.893999,12.444,7.8049,16.667,9.8522,11.447,11.594,14.498,9.644,16.667,9.8522,10.784,8.5714,3.746,16.177,11.594,13.591,6.6345,8.6349,7.8431,-4.9597
15.103,6.7302,4.878,14.706,10.837,13.398,8.6957,13.528,8.6731,14.706,10.837,7.8431,3.8095,-3.873,14.281,4.8309,7.7939,8.5668,2.9206,11.765,-10.757
10.363,0.06349,0.0,4.902,8.867,5.5935,5.7971,5.7605,8.6731,4.902,8.867,2.9412,1.9048,-6.7302,8.594,-1.9324,1.9968,10.499,-1.8413,13.725,-12.689
5.624,1.9683,-0.97561,1.9608,8.867,0.71545,8.6957,0.90615,6.7314,1.9608,8.867,2.9412,1.9048,-1.0159,3.8547,-2.8986,-0.90177,8.5668,-0.88889,11.765,-10.757
-0.06319,-4.6984,-5.8537,4.902,5.9113,0.71545,3.8647,-1.0356,3.8188,4.902,5.9113,0.98039,-2.8571,-6.7302,-3.7283,-11.594,-8.6312,2.7697,-4.6984,2.9412,-7.8583
-5.7504,-14.222,-11.707,-1.9608,0.0,0.71545,-0.96618,-2.0065,4.7896,-1.9608,0.0,-1.9608,-6.6667,-8.6349,-9.4155,-18.357,-14.428,-4.9597,-6.6032,0.0,-4.9597
-11.438,-16.127001,-14.634,0.0,0.98522,-0.26016,-5.7971,-2.9773,5.7605,0.0,0.98522,-5.8824,-7.619,-8.6349,-14.155,-18.357,-16.361,-8.8245,-3.746,-3.9216,-2.0612
-13.333,-15.175,-14.634,3.9216,2.9557,-7.0894,-11.594,-2.9773,2.8479,3.9216,2.9557,-8.8235,-6.6667,-5.7778,-16.051001,-15.459,-16.361,-6.8921,-0.88889,-1.9608,2.7697
-12.385,-8.5079,-9.7561,-3.9216,-0.98522,-7.0894,-10.628,-6.8608,-2.9773,-3.9216,-0.98522,-8.8235,-5.7143,-0.06349,-12.259,-9.6618,-11.53,-6.8921,3.873,-3.9216,7.6006
-14.281,-2.7937,-6.8293,-7.8431,-1.9704,-6.1138,-2.8986,-9.7735,-0.06472,-7.8431,-1.9704,-5.8824,-6.6667,-1.0159,-12.259,-6.7633,-9.5974,-10.757,5.7778,-14.706,2.7697
-14.281,5.7778,-1.9512,-5.8824,-0.98522,-9.0407,3.8647,-14.628,9.644,-5.8824,-0.98522,-2.9412,-4.7619,1.8413,-11.311,0.0,-5.7327,-14.622,10.54,-17.646999,5.6683
-3.8547,15.302,7.8049,-1.9608,1.9704,-6.1138,7.7295,-10.744,8.6731,-1.9608,1.9704,2.9412,2.8571,10.413,-1.8325,12.56,4.8953,-9.7907,11.492,-6.8627,18.229
0.88468,16.254,6.8293,-1.9608,0.0,-4.1626,8.6957,-5.89,6.7314,-1.9608,0.0,1.9608,3.8095,14.222,1.9589,16.424999,8.7601,-3.9936,12.444,-4.902,24.025999
-0.06319,10.54,-0.97561,-4.902,-3.9409,-8.065,2.8986,-5.89,3.8188,-4.902,-3.9409,-3.9216,4.7619,11.365,1.9589,14.493,5.8615,-3.9936,12.444,-3.9216,20.160999
5.624,2.9206,-0.97561,-10.784,-3.9409,-3.187,-6.7633,-5.89,-1.0356,-10.784,-3.9409,-4.902,9.5238,11.365,11.438,11.594,8.7601,-1.095,5.7778,13.725,14.364
12.259,-2.7937,1.9512,-0.98039,-3.9409,-0.26016,-13.527,-3.9482,-3.9482,-0.98039,-3.9409,-1.9608,12.381,5.6508,16.177,7.7295,11.659,3.7359,-1.8413,18.627001,7.6006
11.311,-3.746,3.9024,0.98039,-6.8966,-0.26016,-7.7295,1.877,-4.9191,0.98039,-6.8966,-1.9608,10.476,1.8413,12.385,2.8986,8.7601,9.533,-3.746,12.745,-5.9259
11.311,-6.6032,2.9268,0.98039,0.0,5.5935,-3.8647,8.6731,-1.0356,0.98039,0.0,1.9608,6.6667,-3.873,9.5419,-1.9324,3.9291,20.160999,-4.6984,10.784,-13.655
6.5719,-13.27,-2.9268,7.8431,0.98522,7.5447,0.0,5.7605,-2.9773,7.8431,0.98522,1.9608,2.8571,-9.5873,5.7504,-11.594,-2.8341,18.229,-10.413,9.8039,-17.52
4.6761,-16.127001,-4.878,2.9412,5.9113,12.423,-0.96618,6.7314,-2.9773,2.9412,5.9113,2.9412,0.0,-11.492,1.9589,-16.424999,-6.6989,7.6006,-11.365,9.8039,-17.52
3.7283,-18.983999,-4.878,10.784,7.8818,8.5203,-3.8647,9.644,2.8479,10.784,7.8818,3.9216,-3.8095,-13.397,-0.88468,-21.256001,-9.5974,1.8035,-14.222,9.8039,-12.689
1.8325,-20.889,-4.878,16.667,7.8818,6.5691,-6.7633,11.586,1.877,16.667,7.8818,4.902,-5.7143,-14.349,-5.624,-26.087,-14.428,-1.095,-16.127001,1.9608,-20.419001
-1.9589,-19.937,-5.8537,10.784,11.823,4.6179,-5.7971,5.7605,2.8479,10.784,11.823,3.9216,-10.476,-17.205999,-11.311,-26.087,-18.292999,2.7697,-10.413,-3.9216,-21.385
-10.49,-18.983999,-9.7561,2.9412,10.837,1.6911,-2.8986,0.90615,7.7023,2.9412,10.837,0.98039,-17.143,-20.063,-18.893999,-23.188,-23.124001,-2.0612,-3.746,-10.784,-11.723
-20.916,-17.079,-16.584999,3.9216,8.867,-6.1138,-2.8986,-2.9773,7.7023,3.9216,8.867,-5.8824,-22.857,-20.063,-27.424999,-19.323999,-26.023001,-18.486,2.9206,-22.549,-15.588
-26.603001,-17.079,-19.511999,-0.98039,1.9704,-13.919,-8.6957,-7.8317,3.8188,-0.98039,1.9704,-12.745,-22.857,-14.349,-31.216,-10.628,-24.09,-22.351,3.873,-32.353001,-6.8921
-20.916,-13.27,-14.634,0.98039,0.0,-12.943,-6.7633,-4.9191,4.7896,0.98039,0.0,-13.725,-12.381,-3.873,-20.790001,-1.9324,-14.428,-11.723,-1.8413,-22.549,1.8035
-18.073,-7.5556,-10.732,-5.8824,-7.8818,-18.797001,-4.8309,-3.9482,3.8188,-5.8824,-7.8818,-15.686,-3.8095,-1.0159,-12.259,1.9324,-6.6989,-4.9597,1.0159,-13.725,-4.9597
-12.385,0.06349,-6.8293,-13.725,-6.8966,-18.797001,-5.7971,-4.9191,2.8479,-13.725,-6.8966,-14.706,1.9048,0.88889,-3.7283,6.7633,0.06441,-2.0612,4.8254,-8.8235,-3.0274
-2.9068,10.54,-0.97561,-8.8235,0.0,-11.967,-3.8647,-2.0065,5.7605,-8.8235,0.0,-11.765,8.5714,6.6032,8.594,14.493,9.7262,2.7697,7.6825,2.9412,7.6006
3.7283,17.205999,2.9268,-8.8235,1.9704,-10.016,5.7971,-2.9773,8.6731,-8.8235,1.9704,-5.8824,14.286,12.317,16.177,18.357,15.523,0.83736,12.444,7.8431,17.261999
5.624,14.349,4.878,-10.784,-3.9409,-9.0407,2.8986,-4.9191,1.877,-10.784,-3.9409,-5.8824,16.190001,12.317,17.125,14.493,15.523,4.7021,6.7302,13.725,10.499
7.5197,10.54,6.8293,-9.8039,-7.8818,-8.065,0.0,-4.9191,-2.0065,-9.8039,-7.8818,-6.8627,16.190001,13.27,17.125,12.56,15.523,11.465,2.9206,21.569,10.499
8.4676,9.5873,7.8049,-6.8627,-10.837,-4.1626,0.96618,-2.0065,-2.9773,-6.8627,-10.837,-3.9216,16.190001,14.222,15.229,10.628,13.591,14.364,4.8254,23.528999,7.6006
10.363,7.6825,6.8293,-6.8627,-8.867,4.6179,-0.96618,-0.06472,-7.8317,-6.8627,-8.867,0.0,16.190001,10.413,13.333,6.7633,10.692,14.364,-2.7937,22.549,2.7697
7.5197,7.6825,6.8293,-3.9216,-7.8818,6.5691,4.8309,3.8188,-5.89,-3.9216,-7.8818,2.9412,12.381,7.5556,5.7504,3.8647,5.8615,6.6345,-9.4603,16.667,2.7697
2.7804,8.6349,8.7805,-1.9608,-2.9557,6.5691,6.7633,3.8188,-4.9191,-1.9608,-2.9557,6.8627,10.476,9.4603,-0.88468,3.8647,3.9291,2.7697,-4.6984,12.745,-0.12882
4.6761,3.873,11.707,-0.98039,-3.9409,5.5935,0.0,1.877,-10.744,-0.98039,-3.9409,9.8039,11.429,10.413,1.0111,2.8986,4.8953,6.6345,-4.6984,16.667,-1.095
4.6761,-4.6984,10.732,-0.98039,-6.8966,7.5447,-3.8647,0.90615,-7.8317,-0.98039,-6.8966,7.8431,9.5238,4.6984,0.06319,-1.9324,2.963,-0.12882,-11.365,12.745,-3.0274
-1.0111,-9.4603,5.8537,1.9608,-5.9113,4.6179,-5.7971,-4.9191,-6.8608,1.9608,-5.9113,3.9216,4.7619,1.8413,-4.6761,-4.8309,-0.90177,-1.095,-11.365,8.8235,-4.9597
-7.6461,-10.413,-0.97561,2.9412,-6.8966,-2.2114,-9.6618,-5.89,-7.8317,2.9412,-6.8966,-3.9216,-0.95238,-1.0159,-8.4676,-3.8647,-4.7665,-3.0274,-9.4603,0.0,-3.9936
-14.281,-12.317,-10.732,-0.98039,-7.8818,-4.1626,-12.56,-2.9773,-10.744,-0.98039,-7.8818,-9.8039,-8.5714,-5.7778,-16.051001,-8.6957,-11.53,-10.757,-9.4603,-11.765,-10.757
-10.49,-9.4603,-8.7805,0.98039,0.98522,-0.26016,-9.6618,-0.06472,-6.8608,0.98039,0.98522,-5.8824,-7.619,-4.8254,-9.4155,-4.8309,-6.6989,-3.9936,-7.5556,-6.8627,-6.8921
-1.0111,-6.6032,-1.9512,3.9216,2.9557,-2.2114,-4.8309,-2.0065,-1.0356,3.9216,2.9557,0.0,-4.7619,-1.9683,1.9589,0.0,1.0306,6.6345,-3.746,-1.9608,-0.12882
4.6761,-1.8413,5.8537,5.8824,5.9113,0.71545,-4.8309,3.8188,2.8479,5.8824,5.9113,3.9216,-0.95238,0.88889,6.6983,5.7971,6.8277,4.7021,1.0159,-5.8824,2.7697
7.5197,1.9683,8.7805,0.98039,5.9113,2.6667,-2.8986,3.8188,0.90615,0.98039,5.9113,5.8824,-0.95238,1.8413,7.6461,9.6618,8.7601,1.8035,4.8254,-11.765,0.83736
10.363,5.7778,8.7805,1.9608,1.9704,2.6667,3.8647,0.90615,0.90615,1.9608,1.9704,4.902,0.95238,4.6984,10.49,13.527,9.7262,-0.12882,3.873,-5.8824,1.8035
9.4155,9.5873,5.8537,-0.98039,3.9409,0.71545,3.8647,0.90615,0.90615,-0.98039,3.9409,3.9216,2.8571,7.5556,10.49,13.527,8.7601,3.7359,4.8254,0.0,8.5668
4.6761,7.6825,0.0,-1.9608,-1.9704,-2.2114,2.8986,-0.06472,-1.0356,-1.9608,-1.9704,-0.98039,0.95238,2.7937,4.8025,8.6957,2.963,3.7359,2.9206,1.9608,9.533
5.624,8.6349,0.97561,0.0,-0.98522,2.6667,4.8309,0.90615,2.8479,0.0,-0.98522,1.9608,0.95238,0.88889,2.9068,7.7295,2.963,0.83736,1.9683,5.8824,5.6683
5.624,8.6349,3.9024,-3.9216,2.9557,2.6667,5.7971,-3.9482,2.8479,-3.9216,2.9557,2.9412,0.95238,3.746,1.9589,7.7295,3.9291,-3.0274,5.7778,6.8627,12.432
3.7283,12.444,3.9024,-0.98039,1.9704,-0.26016,10.628,-8.8026,2.8479,-0.98039,1.9704,2.9412,0.95238,4.6984,1.0111,8.6957,2.963,-10.757,8.6349,3.9216,18.229
0.88468,13.397,2.9268,-3.9216,0.0,-1.2358,5.7971,-10.744,3.8188,-3.9216,0.0,1.9608,-0.95238,5.6508,-0.88468,6.7633,1.0306,-5.9259,8.6349,6.8627,12.432
-6.6983,11.492,-0.97561,-7.8431,-2.9557,-8.065,1.9324,-8.8026,2.8479,-7.8431,-2.9557,-1.9608,-1.9048,2.7937,-7.5197,3.8647,-1.868,-6.8921,5.7778,-1.9608,-0.12882
-9.5419,8.6349,0.0,-3.9216,0.0,-10.992,3.8647,-5.89,2.8479,-3.9216,0.0,-1.9608,-1.9048,0.88889,-11.311,2.8986,-1.868,-8.8245,0.06349,-12.745,0.83736
-9.5419,8.6349,4.878,-5.8824,2.9557,-2.2114,6.7633,-8.8026,3.8188,-5.8824,2.9557,2.9412,-3.8095,2.7937,-14.155,1.9324,-2.8341,-18.486,4.8254,-15.686,6.6345
-9.5419,9.5873,6.8293,-3.9216,5.9113,2.6667,12.56,-12.686,4.7896,-3.9216,5.9113,6.8627,-5.7143,-1.9683,-16.051001,0.0,-3.8003,-18.486,8.6349,-15.686,15.33
-10.49,0.06349,0.0,-0.98039,5.9113,-3.187,12.56,-8.8026,4.7896,-0.98039,5.9113,3.9216,-6.6667,-8.6349,-13.207,-6.7633,-5.7327,-11.723,3.873,-13.725,1.8035
-12.385,-9.4603,-8.7805,6.8627,5.9113,-5.1382,7.7295,-2.0065,6.7314,6.8627,5.9113,-1.9608,-9.5238,-10.54,-13.207,-12.56,-10.564,-9.7907,2.9206,-10.784,-7.8583
-16.177,-11.365,-15.61,6.8627,8.867,-8.065,-0.96618,0.90615,9.644,6.8627,8.867,-9.8039,-17.143,-17.205999,-15.103,-16.424999,-16.361,-3.9936,2.9206,-14.706,-11.723
-20.916,-12.317,-20.488001,4.902,6.8966,-12.943,-5.7971,2.8479,8.6731,4.902,6.8966,-13.725,-18.094999,-17.205999,-16.997999,-18.357,-19.259001,-6.8921,-0.88889,-22.549,-21.385
-21.864,-12.317,-21.462999,2.9412,0.98522,-15.87,-9.6618,-1.0356,3.8188,2.9412,0.98522,-15.686,-18.094999,-18.159,-16.051001,-16.424999,-17.327,-8.8245,-2.7937,-22.549,-18.486
-11.438,-7.5556,-11.707,0.98039,0.98522,-10.016,-8.6957,-0.06472,2.8479,0.98039,0.98522,-10.784,-10.476,-10.54,-3.7283,-5.7971,-5.7327,-1.095,-1.8413,-11.765,-12.689
-2.9068,-3.746,-1.9512,2.9412,-0.98522,-3.187,-4.8309,-1.0356,0.90615,2.9412,-0.98522,-4.902,-4.7619,-1.0159,3.8547,3.8647,3.9291,1.8035,2.9206,-7.8431,-1.095
5.624,1.0159,4.878,2.9412,4.9261,3.6423,3.8647,2.8479,3.8188,2.9412,4.9261,2.9412,-0.95238,-0.06349,7.6461,11.594,9.7262,3.7359,5.7778,-5.8824,1.8035
11.311,5.7778,8.7805,1.9608,0.98522,4.6179,4.8309,3.8188,2.8479,1.9608,0.98522,4.902,2.8571,4.6984,9.5419,18.357,13.591,-3.0274,9.5873,-4.902,3.7359
17.945999,10.54,13.659,0.98039,-4.9261,8.5203,4.8309,2.8479,-2.0065,0.98039,-4.9261,7.8431,7.619,12.317,14.281,23.188,17.455999,0.83736,10.54,0.98039,18.229
21.738001,14.349,17.561001,0.98039,0.98522,15.35,5.7971,1.877,2.8479,0.98039,0.98522,12.745,12.381,18.983999,16.177,24.155001,19.388,5.6683,5.7778,6.8627,20.160999
18.893999,14.349,16.584999,3.9216,2.9557,16.325001,8.6957,0.90615,4.7896,3.9216,2.9557,14.706,10.476,18.032,13.333,19.323999,15.523,4.7021,4.8254,10.784,14.364
12.259,10.54,11.707,-3.9216,-4.9261,9.4959,8.6957,-3.9482,-2.9773,-3.9216,-4.9261,10.784,4.7619,9.4603,5.7504,10.628,7.7939,0.83736,5.7778,7.8431,14.364
10.363,12.444,11.707,-7.8431,-3.9409,8.5203,9.6618,0.90615,-2.9773,-7.8431,-3.9409,9.8039,6.6667,12.317,6.6983,9.6618,6.8277,0.83736,3.873,11.765,14.364
5.624,15.302,11.707,-7.8431,-4.9261,4.6179,8.6957,-2.0065,-2.9773,-7.8431,-4.9261,7.8431,4.7619,11.365,1.9589,7.7295,4.8953,-2.0612,1.0159,8.8235,13.398
-1.9589,14.349,6.8293,-6.8627,-8.867,-0.26016,8.6957,-6.8608,-5.89,-6.8627,-8.867,4.902,0.0,2.7937,-4.6761,0.96618,-1.868,-8.8245,1.9683,0.0,9.533
-9.5419,5.7778,0.97561,-2.9412,-4.9261,-3.187,10.628,-3.9482,-2.9773,-2.9412,-4.9261,5.8824,-0.95238,-3.873,-12.259,-7.7295,-7.6651,-8.8245,-2.7937,-5.8824,3.7359
-12.385,-7.5556,-3.9024,0.0,-1.9704,-1.2358,1.9324,-2.9773,-3.9482,0.0,-1.9704,3.9216,-5.7143,-7.6825,-16.997999,-16.424999,-12.496,-12.689,-5.6508,-8.8235,-1.095
-12.385,-15.175,-7.8049,2.9412,0.0,0.71545,-3.8647,-2.0065,-2.9773,2.9412,0.0,0.98039,-11.429,-14.349,-17.945999,-23.188,-17.327,-11.723,-9.4603,-10.784,-12.689
-12.385,-16.127001,-12.683,2.9412,0.98522,0.71545,-6.7633,2.8479,0.90615,2.9412,0.98522,-3.9216,-12.381,-18.159,-14.155,-23.188,-17.327,-3.0274,-10.413,-6.8627,-22.351
-8.594,-10.413,-11.707,5.8824,2.9557,-2.2114,-5.7971,6.7314,0.90615,5.8824,2.9557,-4.902,-9.5238,-13.397,-6.5719,-15.459,-10.564,5.6683,-5.6508,-5.8824,-17.52
-2.9068,-7.5556,-9.7561,9.8039,2.9557,-1.2358,-3.8647,9.644,3.8188,9.8039,2.9557,-3.9216,-4.7619,-8.6349,1.0111,-9.6618,-3.8003,4.7021,-2.7937,-2.9412,-15.588
3.7283,-4.6984,-5.8537,11.765,8.867,3.6423,0.0,7.7023,4.7896,11.765,8.867,0.0,-1.9048,-5.7778,6.6983,-4.8309,1.9968,3.7359,-1.8413,0.0,-15.588
11.311,5.7778,3.9024,12.745,15.764,10.472,7.7295,12.557,7.7023,12.745,15.764,7.8431,1.9048,-1.0159,14.281,2.8986,9.7262,14.364,-0.88889,4.902,-8.8245
16.051001,10.54,8.7805,10.784,12.808,12.423,17.391001,13.528,10.615,10.784,12.808,11.765,3.8095,1.8413,18.073,7.7295,13.591,20.160999,5.7778,10.784,2.7697
12.259,5.7778,4.878,7.8431,6.8966,5.5935,2.8986,9.644,5.7605,7.8431,6.8966,5.8824,1.9048,0.88889,12.385,5.7971,8.7601,10.499,6.7302,2.9412,-2.0612
9.4155,2.9206,1.9512,7.8431,3.9409,6.5691,-5.7971,9.644,4.7896,7.8431,3.9409,0.98039,1.9048,1.8413,8.594,6.7633,5.8615,8.5668,6.7302,1.9608,2.7697
8.4676,4.8254,2.9268,8.8235,2.9557,7.5447,0.0,8.6731,6.7314,8.8235,2.9557,1.9608,5.7143,6.6032,6.6983,10.628,6.8277,2.7697,7.6825,2.9412,8.5668
3.7283,6.7302,1.9512,3.9216,-1.9704,2.6667,0.96618,-0.06472,3.8188,3.9216,-1.9704,0.0,4.7619,11.365,1.0111,13.527,3.9291,2.7697,8.6349,-1.9608,4.7021
4.6761,9.5873,4.878,-1.9608,-2.9557,3.6423,1.9324,-2.0065,0.90615,-1.9608,-2.9557,1.9608,3.8095,13.27,0.06319,14.493,3.9291,3.7359,10.54,4.902,14.364
5.624,11.492,9.7561,-0.98039,-1.9704,8.5203,2.8986,-0.06472,0.90615,-0.98039,-1.9704,5.8824,6.6667,12.317,-0.88468,14.493,4.8953,-1.095,4.8254,5.8824,16.296
6.5719,11.492,10.732,-4.902,-2.9557,10.472,5.7971,-0.06472,-0.06472,-4.902,-2.9557,8.8235,8.5714,11.365,1.0111,12.56,4.8953,1.8035,4.8254,13.725,16.296
2.7804,7.6825,7.8049,-3.9216,-5.9113,3.6423,3.8647,-2.0065,-2.0065,-3.9216,-5.9113,4.902,7.619,12.317,-1.8325,8.6957,2.963,-3.9936,5.7778,7.8431,15.33
-1.0111,1.0159,3.9024,0.98039,-2.9557,-0.26016,-0.96618,-3.9482,-2.9773,0.98039,-2.9557,2.9412,3.8095,8.5079,-6.5719,2.8986,-0.90177,-10.757,1.9683,0.0,8.5668
-0.06319,0.06349,4.878,0.98039,-0.98522,2.6667,-0.96618,-2.9773,-2.9773,0.98039,-0.98522,2.9412,2.8571,4.6984,-5.624,0.96618,1.0306,-3.9936,-2.7937,0.98039,2.7697
3.7283,2.9206,6.8293,7.8431,1.9704,6.5691,4.8309,3.8188,-0.06472,7.8431,1.9704,7.8431,1.9048,0.88889,-2.7804,1.9324,2.963,1.8035,1.0159,-0.98039,-2.0612
-2.9068,1.0159,0.97561,0.98039,0.0,2.6667,0.96618,-2.9773,1.877,0.98039,0.0,2.9412,-3.8095,-1.9683,-7.5197,-1.9324,-1.868,-7.8583,-0.88889,-5.8824,-3.9936
-1.9589,-0.88889,0.0,0.98039,6.8966,4.6179,3.8647,-3.9482,3.8188,0.98039,6.8966,2.9412,-4.7619,-4.8254,-5.624,-4.8309,-1.868,-4.9597,0.06349,-5.8824,-2.0612
-0.06319,-5.6508,-0.97561,7.8431,9.8522,6.5691,3.8647,4.7896,4.7896,7.8431,9.8522,4.902,-5.7143,-9.5873,-0.88468,-8.6957,-1.868,4.7021,0.06349,-3.9216,-12.689
-3.8547,-10.413,-4.878,9.8039,10.837,1.6911,8.6957,9.644,4.7896,9.8039,10.837,3.9216,-7.619,-10.54,-2.7804,-13.527,-5.7327,4.7021,-5.6508,-4.902,-19.452
-3.8547,-12.317,-6.8293,11.765,14.778,-1.2358,2.8986,10.615,2.8479,11.765,14.778,1.9608,-9.5238,-15.302,-1.8325,-16.424999,-7.6651,6.6345,-5.6508,-5.8824,-16.554001
1.8325,-7.5556,-4.878,15.686,11.823,2.6667,5.7971,12.557,8.6731,15.686,11.823,4.902,-8.5714,-14.349,1.9589,-14.493,-5.7327,12.432,-0.88889,-1.9608,-12.689
1.8325,-5.6508,-7.8049,11.765,5.9113,1.6911,1.9324,8.6731,9.644,11.765,5.9113,1.9608,-6.6667,-12.444,2.9068,-12.56,-6.6989,8.5668,4.8254,-0.98039,-5.9259
4.6761,-0.88889,-7.8049,7.8431,5.9113,0.71545,-1.9324,5.7605,7.7023,7.8431,5.9113,-0.98039,0.0,-5.7778,6.6983,-5.7971,-2.8341,6.6345,4.8254,1.9608,-5.9259
7.5197,5.7778,-3.9024,-1.9608,-2.9557,0.71545,0.0,0.90615,2.8479,-1.9608,-2.9557,-2.9412,6.6667,9.4603,10.49,6.7633,2.963,4.7021,6.7302,7.8431,10.499
11.311,9.5873,0.97561,-7.8431,-7.8818,3.6423,-1.9324,-0.06472,-3.9482,-7.8431,-7.8818,-2.9412,11.429,12.317,14.281,11.594,7.7939,11.465,3.873,12.745,14.364
14.155,12.444,5.8537,-6.8627,-11.823,4.6179,3.8647,-2.9773,-9.7735,-6.8627,-11.823,0.98039,13.333,10.413,14.281,12.56,9.7262,10.499,1.0159,11.765,8.5668
8.4676,14.349,5.8537,-7.8431,-13.793,0.71545,-0.96618,-2.9773,-10.744,-7.8431,-13.793,0.0,14.286,18.032,8.594,16.424999,9.7262,-3.9936,1.9683,8.8235,18.229
4.6761,16.254,4.878,-8.8235,-7.8818,-1.2358,-3.8647,-8.8026,-8.8026,-8.8235,-7.8818,0.0,15.238,22.794001,4.8025,21.256001,11.659,-7.8583,3.873,8.8235,21.127001
2.7804,16.254,7.8049,-2.9412,-2.9557,-4.1626,0.96618,-9.7735,-6.8608,-2.9412,-2.9557,2.9412,14.286,23.746,5.7504,22.222,12.625,-2.0612,3.873,10.784,22.093
3.7283,16.254,12.683,-3.9216,-2.9557,-2.2114,8.6957,-4.9191,-6.8608,-3.9216,-2.9557,8.8235,11.429,22.794001,4.8025,19.323999,12.625,-3.0274,2.9206,7.8431,17.261999
2.7804,14.349,13.659,-7.8431,-0.98522,2.6667,8.6957,-6.8608,-2.9773,-7.8431,-0.98522,9.8039,5.7143,10.413,0.06319,13.527,8.7601,-6.8921,-0.88889,2.9412,9.533
4.6761,16.254,17.561001,3.9216,3.9409,7.5447,13.527,-0.06472,2.8479,3.9216,3.9409,14.706,1.9048,4.6984,1.0111,13.527,8.7601,0.83736,3.873,2.9412,10.499
4.6761,15.302,18.537001,10.784,9.8522,7.5447,20.290001,3.8188,4.7896,10.784,9.8522,17.646999,1.9048,4.6984,1.9589,10.628,8.7601,4.7021,1.0159,2.9412,4.7021
-1.0111,4.8254,10.732,7.8431,13.793,5.5935,20.290001,4.7896,4.7896,7.8431,13.793,15.686,0.95238,1.8413,-2.7804,0.96618,3.9291,-3.0274,-3.746,-5.8824,-7.8583
-1.9589,-8.5079,3.9024,9.8039,12.808,5.5935,8.6957,5.7605,5.7605,9.8039,12.808,9.8039,0.0,-2.9206,-3.7283,-8.6957,-0.90177,-4.9597,-5.6508,-7.8431,-14.622
-0.06319,-18.032,-2.9268,6.8627,10.837,3.6423,-1.9324,4.7896,6.7314,6.8627,10.837,3.9216,-2.8571,-10.54,-1.8325,-16.424999,-4.7665,0.83736,-5.6508,-4.902,-16.554001
1.8325,-20.889,-5.8537,5.8824,11.823,1.6911,-6.7633,6.7314,3.8188,5.8824,11.823,-0.98039,-2.8571,-11.492,2.9068,-17.391001,-4.7665,4.7021,-4.6984,0.98039,-14.622
-0.06319,-18.032,-7.8049,0.0,4.9261,-3.187,-7.7295,4.7896,2.8479,0.0,4.9261,-5.8824,0.95238,-5.7778,5.7504,-12.56,-1.868,9.533,-0.88889,5.8824,-14.622
4.6761,-11.365,-4.878,0.98039,0.98522,1.6911,-2.8986,2.8479,2.8479,0.98039,0.98522,-3.9216,3.8095,-4.8254,11.438,-6.7633,2.963,21.127001,-1.8413,11.765,-13.655
12.259,-5.6508,1.9512,10.784,7.8818,9.4959,3.8647,11.586,3.8188,10.784,7.8818,2.9412,8.5714,-4.8254,18.073,-3.8647,8.7601,19.195,-4.6984,12.745,-15.588
16.051001,-1.8413,6.8293,16.667,12.808,9.4959,7.7295,17.410999,4.7896,16.667,12.808,7.8431,12.381,-3.873,19.968,-1.9324,11.659,16.296,-4.6984,17.646999,-13.655
16.997999,5.7778,11.707,17.646999,10.837,13.398,5.7971,17.410999,4.7896,17.646999,10.837,9.8039,16.190001,5.6508,22.812,5.7971,14.557,19.195,-1.8413,24.51,-3.9936
12.259,9.5873,7.8049,4.902,3.9409,7.5447,-2.8986,11.586,2.8479,4.902,3.9409,4.902,13.333,2.7937,19.968,6.7633,10.692,19.195,1.9683,28.431,0.83736
2.7804,9.5873,0.0,-7.8431,-6.8966,-0.26016,-5.7971,0.90615,-3.9482,-7.8431,-6.8966,-2.9412,8.5714,-1.9683,8.594,3.8647,1.9968,10.499,3.873,19.608,-1.095
-4.8025,8.6349,-4.878,-10.784,-13.793,-8.065,-7.7295,-5.89,-12.686,-10.784,-13.793,-7.8431,4.7619,-1.9683,-3.7283,0.96618,-4.7665,2.7697,-1.8413,6.8627,-3.9936
-8.594,4.8254,-6.8293,-11.765,-18.719,-10.992,-11.594,-9.7735,-14.628,-11.765,-18.719,-9.8039,2.8571,0.88889,-7.5197,-0.96618,-7.6651,-1.095,-6.6032,6.8627,3.7359
-11.438,-0.88889,-6.8293,-16.667,-18.719,-10.992,-12.56,-12.686,-16.57,-16.667,-18.719,-9.8039,0.95238,2.7937,-10.363,-2.8986,-9.5974,-5.9259,-8.5079,5.8824,1.8035
-7.6461,0.06349,-1.9512,-20.587999,-17.733999,-4.1626,-4.8309,-10.744,-16.57,-20.587999,-17.733999,-5.8824,3.8095,10.413,-7.5197,0.96618,-4.7665,-3.0274,-6.6032,5.8824,7.6006
-3.8547,4.8254,3.9024,-15.686,-16.749001,-6.1138,-0.96618,-7.8317,-9.7735,-15.686,-16.749001,0.0,4.7619,14.222,-4.6761,7.7295,1.0306,-7.8583,0.06349,-0.98039,20.160999
-1.0111,11.492,9.7561,-12.745,-10.837,-7.0894,0.0,-7.8317,-2.0065,-12.745,-10.837,2.9412,5.7143,15.175,-1.8325,14.493,7.7939,-10.757,2.9206,-5.8824,21.127001
2.7804,13.397,13.659,-8.8235,-2.9557,-1.2358,5.7971,-3.9482,-0.06472,-8.8235,-2.9557,7.8431,2.8571,11.365,1.0111,14.493,10.692,-8.8245,7.6825,-9.8039,16.296
5.624,7.6825,12.683,-4.902,0.0,3.6423,3.8647,-4.9191,-0.06472,-4.902,0.0,7.8431,0.0,7.5556,1.0111,9.6618,8.7601,-9.7907,7.6825,-13.725,13.398
8.4676,-0.88889,9.7561,0.0,3.9409,5.5935,-0.96618,2.8479,1.877,0.0,3.9409,6.8627,0.95238,3.746,2.9068,2.8986,7.7939,-5.9259,3.873,-12.745,0.83736
6.5719,-13.27,1.9512,5.8824,3.9409,1.6911,-7.7295,7.7023,-0.06472,5.8824,3.9409,-0.98039,-5.7143,-3.873,1.0111,-7.7295,1.0306,-8.8245,-6.6032,-11.765,-10.757
0.88468,-21.841,-7.8049,9.8039,2.9557,-1.2358,-8.6957,12.557,1.877,9.8039,2.9557,-6.8627,-11.429,-11.492,-1.8325,-17.391001,-6.6989,4.7021,-7.5556,-7.8431,-12.689
-9.5419,-26.603001,-16.584999,4.902,3.9409,-4.1626,-7.7295,11.586,0.90615,4.902,3.9409,-8.8235,-14.286,-13.397,-9.4155,-24.155001,-15.395,7.6006,-9.4603,-6.8627,-16.554001
-21.864,-30.413,-25.365999,-0.98039,0.0,-10.016,-17.391001,2.8479,-2.9773,-0.98039,0.0,-15.686,-16.190001,-20.063,-19.841999,-31.884001,-26.023001,-3.9936,-15.175,-9.8039,-21.385
-27.551001,-37.078999,-32.195,-4.902,-0.98522,-12.943,-27.052999,-1.0356,-2.0065,-4.902,-0.98522,-21.569,-19.048,-27.683001,-26.476999,-38.646999,-33.751999,-8.8245,-15.175,-18.627001,-19.452
-28.499001,-39.937,-33.171001,-5.8824,-4.9261,-17.820999,-28.018999,-1.0356,-3.9482,-5.8824,-4.9261,-25.49,-20.952,-24.825001,-25.528999,-39.613998,-34.717999,-8.8245,-12.317,-18.627001,-20.419001
-21.864,-35.174999,-27.316999,-0.98039,-5.9113,-17.820999,-26.087,0.90615,-7.8317,-0.98039,-5.9113,-23.528999,-16.190001,-18.159,-15.103,-31.884001,-26.989,-0.12882,-4.6984,-9.8039,-22.351
-18.073,-29.459999,-22.438999,-0.98039,-6.8966,-15.87,-25.121,-2.0065,-8.8026,-0.98039,-6.8966,-21.569,-12.381,-15.302,-10.363,-26.087,-21.191999,-0.12882,-5.6508,-4.902,-15.588
-12.385,-23.746,-16.584999,-2.9412,-7.8818,-10.992,-23.188,-2.9773,-4.9191,-2.9412,-7.8818,-16.667,-10.476,-16.254,-4.6761,-21.256001,-16.361,-5.9259,-7.5556,-2.9412,-9.7907
-1.9589,-18.032,-8.7805,-1.9608,-9.8522,-3.187,-21.256001,0.90615,-3.9482,-1.9608,-9.8522,-9.8039,-6.6667,-12.444,2.9068,-14.493,-8.6312,0.83736,-2.7937,-1.9608,-4.9597
1.8325,-15.175,-5.8537,-1.9608,-7.8818,-0.26016,-18.357,1.877,-8.8026,-1.9608,-7.8818,-6.8627,-5.7143,-9.5873,4.8025,-11.594,-6.6989,2.7697,-1.8413,0.98039,-3.0274
6.5719,-9.4603,-0.97561,0.98039,-1.9704,4.6179,-10.628,6.7314,-6.8608,0.98039,-1.9704,-0.98039,-3.8095,-1.9683,6.6983,-6.7633,-1.868,6.6345,1.0159,2.9412,-0.12882
13.207,-2.7937,5.8537,3.9216,3.9409,12.423,0.96618,8.6731,-3.9482,3.9216,3.9409,7.8431,-1.9048,-2.9206,8.594,-1.9324,2.963,5.6683,2.9206,3.9216,3.7359
14.155,4.8254,11.707,2.9412,3.9409,16.325001,10.628,9.644,0.90615,2.9412,3.9409,12.745,-1.9048,-6.7302,8.594,0.0,3.9291,6.6345,3.873,-1.9608,4.7021
13.207,12.444,15.61,4.902,2.9557,16.325001,13.527,2.8479,1.877,4.902,2.9557,17.646999,-2.8571,-3.873,5.7504,3.8647,4.8953,6.6345,6.7302,-5.8824,0.83736
8.4676,18.159,15.61,6.8627,6.8966,14.374,22.222,6.7314,4.7896,6.8627,6.8966,20.587999,-3.8095,-3.873,0.06319,4.8309,3.9291,-1.095,6.7302,-5.8824,-3.0274
11.311,22.921,18.537001,6.8627,10.837,13.398,32.849998,7.7023,10.615,6.8627,10.837,24.51,-1.9048,-1.9683,2.9068,8.6957,6.8277,-2.0612,8.6349,-1.9608,-2.0612
10.363,21.968,18.537001,10.784,18.719,11.447,30.917999,4.7896,10.615,10.784,18.719,25.49,-1.9048,-0.06349,1.9589,8.6957,6.8277,-4.9597,7.6825,-4.902,-9.7907
9.4155,21.968,16.584999,3.9216,20.690001,17.301001,29.952,1.877,11.586,3.9216,20.690001,24.51,-2.8571,-0.06349,1.0111,10.628,7.7939,-3.9936,9.5873,-4.902,-3.9936
9.4155,21.016001,12.683,7.8431,15.764,14.374,34.783001,2.8479,10.615,7.8431,15.764,19.608,-2.8571,1.8413,1.0111,11.594,7.7939,-2.0612,10.54,-4.902,4.7021
7.5197,12.444,5.8537,9.8039,8.867,5.5935,20.290001,3.8188,8.6731,9.8039,8.867,8.8235,-1.9048,8.5079,1.0111,11.594,6.8277,-3.9936,8.6349,-3.9216,12.432
5.624,5.7778,0.0,2.9412,3.9409,2.6667,6.7633,-3.9482,8.6731,2.9412,3.9409,0.0,0.0,5.6508,1.9589,7.7295,5.8615,-3.0274,4.8254,0.0,6.6345
0.88468,5.7778,-4.878,-2.9412,0.0,-1.2358,5.7971,-4.9191,4.7896,-2.9412,0.0,-5.8824,3.8095,7.5556,0.06319,8.6957,3.9291,-3.0274,7.6825,-0.98039,7.6006
-3.8547,4.8254,-9.7561,-10.784,-3.9409,-10.016,0.0,-3.9482,-2.9773,-10.784,-3.9409,-11.765,6.6667,11.365,1.0111,7.7295,1.9968,-1.095,10.54,1.9608,13.398
-6.6983,1.9683,-12.683,-14.706,-9.8522,-15.87,-7.7295,-7.8317,-3.9482,-14.706,-9.8522,-16.667,5.7143,4.6984,2.9068,5.7971,0.06441,0.83736,5.7778,7.8431,6.6345
-9.5419,-1.8413,-14.634,-15.686,-12.808,-20.747999,-14.493,-10.744,-2.9773,-15.686,-12.808,-22.549,7.619,6.6032,2.9068,5.7971,0.06441,-1.095,-2.7937,10.784,4.7021
-12.385,-3.746,-15.61,-15.686,-15.764,-24.65,-23.188,-8.8026,-7.8317,-15.686,-15.764,-27.451,8.5714,8.5079,1.0111,6.7633,0.06441,-1.095,-5.6508,10.784,8.5668
-12.385,-5.6508,-13.659,-16.667,-18.719,-22.698999,-23.188,-12.686,-12.686,-16.667,-18.719,-26.471001,7.619,6.6032,1.0111,5.7971,-0.90177,-3.9936,-2.7937,8.8235,9.533
-10.49,-4.6984,-8.7805,-16.667,-15.764,-17.820999,-24.155001,-11.715,-12.686,-16.667,-15.764,-20.587999,7.619,12.317,1.0111,8.6957,1.0306,0.83736,-2.7937,3.9216,10.499
-8.594,-2.7937,-2.9268,-18.627001,-14.778,-10.992,-16.424999,-6.8608,-13.657,-18.627001,-14.778,-12.745,6.6667,9.4603,1.0111,7.7295,2.963,-2.0612,-4.6984,0.98039,-0.12882
-4.8025,2.9206,6.8293,-7.8431,-10.837,-5.1382,-3.8647,-2.0065,-10.744,-7.8431,-10.837,-2.9412,6.6667,7.5556,1.0111,9.6618,6.8277,-5.9259,-5.6508,1.9608,-3.0274
-1.9589,9.5873,13.659,8.8235,-0.98522,1.6911,4.8309,1.877,-1.0356,8.8235,-0.98522,8.8235,3.8095,6.6032,-1.8325,12.56,7.7939,-5.9259,-1.8413,-4.902,5.6683
2.7804,15.302,18.537001,10.784,7.8818,8.5203,13.527,5.7605,6.7314,10.784,7.8818,16.667,6.6667,10.413,0.06319,17.391001,13.591,-1.095,0.06349,-8.8235,2.7697
12.259,21.016001,25.365999,11.765,9.8522,16.325001,20.290001,11.586,6.7314,11.765,9.8522,21.569,9.5238,17.079,7.6461,24.155001,20.354,3.7359,3.873,-4.902,6.6345
19.841999,25.778,28.292999,11.765,12.808,18.275999,19.323999,8.6731,6.7314,11.765,12.808,22.549,9.5238,16.127001,16.177,28.018999,26.150999,2.7697,5.7778,0.0,14.364
27.424999,30.540001,32.195,6.8627,8.867,17.301001,21.256001,4.7896,6.7314,6.8627,8.867,21.569,15.238,18.983999,24.708,30.917999,30.982,4.7021,6.7302,5.8824,10.499
25.528999,28.635,27.316999,8.8235,4.9261,10.472,17.391001,2.8479,6.7314,8.8235,4.9261,16.667,14.286,18.983999,22.812,28.986,27.118,10.499,6.7302,10.784,11.465
12.259,13.397,6.8293,2.9412,-1.9704,-2.2114,2.8986,-2.0065,4.7896,2.9412,-1.9704,0.0,7.619,9.4603,13.333,16.424999,12.625,8.5668,6.7302,7.8431,9.533
-1.9589,-4.6984,-11.707,-5.8824,-8.867,-12.943,-10.628,-2.9773,0.90615,-5.8824,-8.867,-14.706,2.8571,3.746,1.9589,2.8986,-0.90177,-0.12882,2.9206,1.9608,6.6345
-9.5419,-14.222,-22.438999,-14.706,-16.749001,-14.894,-20.290001,-5.89,-5.89,-14.706,-16.749001,-24.51,0.95238,-1.0159,-2.7804,-7.7295,-9.5974,-0.12882,-3.746,5.8824,5.6683
-17.125,-23.746,-30.243999,-19.608,-21.674999,-22.698999,-27.052999,-11.715,-12.686,-19.608,-21.674999,-30.392,-3.8095,-8.6349,-7.5197,-17.391001,-18.292999,1.8035,-9.4603,5.8824,3.7359
-19.021,-22.794001,-30.243999,-18.627001,-16.749001,-22.698999,-24.155001,-13.657,-12.686,-18.627001,-16.749001,-29.412001,-3.8095,-7.6825,-6.5719,-18.357,-18.292999,3.7359,-7.5556,10.784,-1.095
-20.916,-25.650999,-32.195,-13.725,-20.690001,-21.724001,-22.222,-11.715,-16.57,-13.725,-20.690001,-28.431,-8.5714,-14.349,-8.4676,-23.188,-21.191999,3.7359,-9.4603,7.8431,-8.8245
-19.968,-23.746,-27.316999,-7.8431,-15.764,-14.894,-21.256001,-4.9191,-14.628,-7.8431,-15.764,-23.528999,-10.476,-15.302,-11.311,-22.222,-21.191999,-3.9936,-15.175,1.9608,-3.9936
-14.281,-16.127001,-15.61,-6.8627,-1.9704,-4.1626,-16.424999,0.90615,-5.89,-6.8627,-1.9704,-10.784,-8.5714,-13.397,-11.311,-17.391001,-15.395,0.83736,-15.175,3.9216,-11.723
-7.6461,-8.5079,-4.878,0.98039,3.9409,3.6423,-0.96618,0.90615,-2.9773,0.98039,3.9409,0.98039,-7.619,-12.444,-8.4676,-10.628,-9.5974,4.7021,-12.317,3.9216,-17.52
-2.9068,-1.8413,1.9512,12.745,11.823,5.5935,7.7295,7.7023,2.8479,12.745,11.823,7.8431,-7.619,-7.6825,-7.5197,-1.9324,-3.8003,2.7697,-12.317,1.9608,-14.622
0.88468,3.873,6.8293,13.725,9.8522,4.6179,5.7971,10.615,4.7896,13.725,9.8522,9.8039,-7.619,-4.8254,-5.624,3.8647,1.0306,-0.12882,-7.5556,-1.9608,-10.757
8.4676,13.397,14.634,14.706,6.8966,8.5203,14.493,4.7896,4.7896,14.706,6.8966,13.725,-3.8095,5.6508,1.0111,15.459,10.692,-0.12882,1.9683,-6.8627,1.8035
12.259,18.159,18.537001,6.8627,11.823,10.472,15.459,1.877,10.615,6.8627,11.823,14.706,0.95238,11.365,3.8547,21.256001,15.523,-4.9597,10.54,-14.706,14.364
10.363,16.254,15.61,1.9608,12.808,8.5203,7.7295,2.8479,14.498,1.9608,12.808,11.765,2.8571,10.413,3.8547,19.323999,14.557,-8.8245,13.397,-18.627001,18.229
5.624,12.444,8.7805,0.0,7.8818,-0.26016,3.8647,-1.0356,8.6731,0.0,7.8818,3.9216,4.7619,12.317,1.9589,16.424999,10.692,-8.8245,16.254,-14.706,21.127001
6.5719,15.302,6.8293,0.98039,1.9704,-4.1626,8.6957,-1.0356,7.7023,0.98039,1.9704,0.98039,6.6667,13.27,6.6983,17.391001,10.692,0.83736,20.063,-1.9608,25.958
1.8325,7.6825,-0.97561,-3.9216,-1.9704,-6.1138,0.96618,-3.9482,5.7605,-3.9216,-1.9704,-5.8824,5.7143,9.4603,4.8025,7.7295,4.8953,2.7697,11.492,0.0,10.499
-6.6983,-5.6508,-11.707,-13.725,-10.837,-13.919,-10.628,-10.744,2.8479,-13.725,-10.837,-15.686,4.7619,5.6508,0.06319,-1.9324,-2.8341,-3.9936,3.873,3.9216,2.7697
-8.594,-11.365,-16.584999,-20.587999,-11.823,-17.820999,-12.56,-12.686,-0.06472,-20.587999,-11.823,-18.627001,2.8571,-1.0159,-0.88468,-9.6618,-8.6312,-4.9597,0.06349,10.784,2.7697
-11.438,-15.175,-20.488001,-10.784,-13.793,-15.87,-10.628,-8.8026,-2.9773,-10.784,-13.793,-19.608,-0.95238,-7.6825,-3.7283,-15.459,-14.428,-0.12882,-4.6984,10.784,1.8035
-11.438,-18.983999,-20.488001,-4.902,-11.823,-13.919,-17.391001,-11.715,-9.7735,-4.902,-11.823,-16.667,-3.8095,-6.7302,-5.624,-19.323999,-17.327,3.7359,-2.7937,15.686,4.7021
-12.385,-21.841,-19.511999,-6.8627,-9.8522,-10.992,-17.391001,-5.89,-10.744,-6.8627,-9.8522,-13.725,-5.7143,-13.397,-7.5197,-23.188,-18.292999,3.7359,-13.27,11.765,-14.622
-9.5419,-16.127001,-14.634,-6.8627,-6.8966,-3.187,-9.6618,1.877,-10.744,-6.8627,-6.8966,-8.8235,-5.7143,-15.302,-7.5197,-20.290001,-15.395,5.6683,-14.222,5.8824,-14.622
-10.49,-8.5079,-9.7561,-7.8431,-7.8818,-6.1138,-6.7633,-0.06472,-8.8026,-7.8431,-7.8818,-6.8627,-5.7143,-14.349,-9.4155,-13.527,-12.496,-2.0612,-7.5556,-0.98039,-12.689
-3.8547,0.06349,-0.97561,-1.9608,0.98522,-0.26016,-0.96618,2.8479,-2.9773,-1.9608,0.98522,0.98039,-0.95238,-5.7778,-5.624,-3.8647,-3.8003,0.83736,-10.413,-0.98039,-13.655
7.5197,7.6825,10.732,12.745,9.8522,15.35,7.7295,8.6731,2.8479,12.745,9.8522,13.725,2.8571,2.7937,4.8025,7.7295,6.8277,15.33,-10.413,2.9412,-6.8921
9.4155,12.444,16.584999,14.706,9.8522,17.301001,16.424999,10.615,4.7896,14.706,9.8522,18.627001,1.9048,2.7937,4.8025,11.594,10.692,5.6683,-2.7937,-3.9216,-1.095
10.363,12.444,18.537001,12.745,12.808,16.325001,20.290001,9.644,4.7896,12.745,12.808,20.587999,1.9048,5.6508,2.9068,11.594,11.659,-1.095,0.06349,-5.8824,-3.9936
15.103,18.159,22.438999,13.725,17.733999,18.275999,15.459,3.8188,7.7023,13.725,17.733999,23.528999,5.7143,12.317,6.6983,17.391001,15.523,-3.9936,8.6349,-6.8627,6.6345
20.790001,21.968,25.365999,16.667,19.704,21.202999,18.357,7.7023,15.469,16.667,19.704,25.49,6.6667,11.365,12.385,20.290001,18.422001,1.8035,13.397,-2.9412,19.195
18.893999,20.063,21.462999,21.569,17.733999,18.275999,20.290001,8.6731,14.498,21.569,17.733999,20.587999,7.619,11.365,9.5419,18.357,16.49,0.83736,11.492,-6.8627,17.261999
8.4676,10.54,8.7805,7.8431,8.867,4.6179,9.6618,-0.06472,12.557,7.8431,8.867,8.8235,4.7619,7.5556,1.9589,10.628,6.8277,-5.9259,11.492,-9.8039,8.5668
-1.9589,1.9683,-1.9512,-6.8627,-2.9557,-5.1382,1.9324,-2.0065,9.644,-6.8627,-2.9557,0.0,1.9048,4.6984,-3.7283,1.9324,-1.868,-6.8921,11.492,-4.902,7.6006
-8.594,-8.5079,-9.7561,-6.8627,-4.9261,-9.0407,-1.9324,-3.9482,1.877,-6.8627,-4.9261,-6.8627,-1.9048,-1.9683,-6.5719,-8.6957,-9.5974,-1.095,4.8254,2.9412,6.6345
-14.281,-18.983999,-17.561001,-12.745,-9.8522,-17.820999,-14.493,-13.657,-3.9482,-12.745,-9.8522,-16.667,-6.6667,-7.6825,-9.4155,-16.424999,-16.361,-2.0612,-0.88889,-0.98039,6.6345
-14.281,-21.841,-20.488001,-19.608,-13.793,-17.820999,-20.290001,-14.628,-8.8026,-19.608,-13.793,-19.608,-6.6667,-8.6349,-9.4155,-17.391001,-17.327,-2.0612,-3.746,0.0,9.533
-13.333,-22.794001,-21.462999,-17.646999,-15.764,-17.820999,-21.256001,-10.744,-14.628,-17.646999,-15.764,-20.587999,-1.9048,-7.6825,-5.624,-18.357,-15.395,1.8035,-9.4603,8.8235,-1.095
-8.594,-20.889,-16.584999,-11.765,-9.8522,-11.967,-15.459,-2.0065,-8.8026,-11.765,-9.8522,-14.706,2.8571,-3.873,0.06319,-15.459,-9.5974,2.7697,-10.413,13.725,-3.9936
-3.8547,-18.032,-11.707,-9.8039,-9.8522,-2.2114,-12.56,-2.0065,-4.9191,-9.8039,-9.8522,-9.8039,0.95238,-8.6349,2.9068,-14.493,-6.6989,1.8035,-11.365,10.784,-13.655
-0.06319,-16.127001,-6.8293,-6.8627,-5.9113,4.6179,-7.7295,0.90615,-4.9191,-6.8627,-5.9113,-4.902,0.0,-7.6825,2.9068,-10.628,-3.8003,3.7359,-12.317,5.8824,-13.655
5.624,-11.365,0.0,6.8627,1.9704,7.5447,0.0,12.557,-1.0356,6.8627,1.9704,2.9412,0.95238,-1.0159,3.8547,-7.7295,0.06441,12.432,-9.4603,5.8824,-9.7907
6.5719,-9.4603,0.97561,8.8235,4.9261,8.5203,5.7971,13.528,-0.06472,8.8235,4.9261,5.8824,-5.7143,-6.7302,0.06319,-9.6618,-1.868,10.499,-7.5556,0.98039,-19.452
3.7283,-5.6508,3.9024,4.902,6.8966,9.4959,5.7971,5.7605,1.877,4.902,6.8966,8.8235,-5.7143,-8.6349,-2.7804,-9.6618,-2.8341,0.83736,-7.5556,-4.902,-19.452
3.7283,2.9206,6.8293,6.8627,11.823,11.447,6.7633,4.7896,2.8479,6.8627,11.823,12.745,-3.8095,-7.6825,-1.8325,-3.8647,0.06441,-4.9597,-4.6984,-3.9216,-9.7907
6.5719,13.397,12.683,11.765,15.764,13.398,13.527,5.7605,11.586,11.765,15.764,17.646999,0.0,-0.06349,1.0111,6.7633,5.8615,2.7697,3.873,0.0,-3.0274
9.4155,20.063,16.584999,11.765,18.719,11.447,15.459,3.8188,15.469,11.765,18.719,18.627001,7.619,10.413,5.7504,16.424999,12.625,-2.0612,11.492,-1.9608,2.7697
9.4155,20.063,15.61,6.8627,10.837,7.5447,14.493,3.8188,9.644,6.8627,10.837,14.706,9.5238,14.222,7.6461,18.357,13.591,0.83736,14.349,-3.9216,11.465
4.6761,16.254,9.7561,2.9412,3.9409,3.6423,12.56,-5.89,9.644,2.9412,3.9409,8.8235,9.5238,9.4603,5.7504,14.493,8.7601,-1.095,11.492,0.0,9.533
-1.0111,9.5873,2.9268,-0.98039,0.98522,-2.2114,8.6957,-7.8317,2.8479,-0.98039,0.98522,2.9412,5.7143,6.6032,1.0111,7.7295,2.963,-3.9936,11.492,0.98039,10.499
-1.9589,6.7302,0.97561,-7.8431,-4.9261,-6.1138,4.8309,-8.8026,-2.0065,-7.8431,-4.9261,0.0,7.619,8.5079,1.0111,5.7971,2.963,-3.9936,11.492,0.0,8.5668
1.8325,4.8254,2.9268,-11.765,-0.98522,-1.2358,-2.8986,-2.0065,0.90615,-11.765,-0.98522,0.0,12.381,11.365,3.8547,8.6957,5.8615,-6.8921,9.5873,3.9216,10.499
2.7804,-2.7937,-1.9512,-15.686,-1.9704,3.6423,-8.6957,-2.9773,-2.0065,-15.686,-1.9704,-4.902,11.429,7.5556,6.6983,3.8647,4.8953,-4.9597,4.8254,11.765,8.5668
6.5719,-4.6984,0.97561,0.98039,-2.9557,1.6911,0.0,0.90615,-3.9482,0.98039,-2.9557,-2.9412,10.476,3.746,9.5419,0.96618,4.8953,10.499,-1.8413,12.745,4.7021
11.311,0.06349,8.7805,11.765,0.98522,1.6911,0.96618,9.644,-2.0065,11.765,0.98522,3.9216,9.5238,7.5556,9.5419,3.8647,8.7601,15.33,-2.7937,8.8235,6.6345
15.103,1.9683,13.659,8.8235,0.98522,10.472,3.8647,9.644,-2.9773,8.8235,0.98522,10.784,9.5238,4.6984,10.49,3.8647,9.7262,18.229,-7.5556,10.784,-3.0274
14.155,4.8254,13.659,4.902,1.9704,13.398,9.6618,7.7023,-3.9482,4.902,1.9704,11.765,11.429,5.6508,11.438,7.7295,11.659,16.296,-7.5556,15.686,0.83736
12.259,3.873,9.7561,1.9608,1.9704,11.447,4.8309,11.586,-6.8608,1.9608,1.9704,5.8824,12.381,9.4603,10.49,8.6957,11.659,5.6683,-8.5079,11.765,0.83736
4.6761,-1.8413,5.8537,0.98039,0.0,2.6667,-5.7971,9.644,-11.715,0.98039,0.0,-2.9412,8.5714,6.6032,5.7504,4.8309,7.7939,3.7359,-12.317,6.8627,-4.9597
3.7283,-1.8413,5.8537,2.9412,1.9704,2.6667,-4.8309,4.7896,-4.9191,2.9412,1.9704,-0.98039,7.619,5.6508,4.8025,2.8986,6.8277,11.465,-12.317,5.8824,-4.9597
-1.0111,-3.746,1.9512,1.9608,-0.98522,1.6911,0.0,2.8479,-2.0065,1.9608,-0.98522,-0.98039,3.8095,1.8413,1.0111,-0.96618,1.0306,4.7021,-9.4603,4.902,-11.723
-7.6461,-9.4603,-4.878,4.902,0.98522,-1.2358,-6.7633,-1.0356,-4.9191,4.902,0.98522,-4.902,0.95238,-2.9206,-5.624,-7.7295,-4.7665,-4.9597,-11.365,0.98039,-14.622
-10.49,-13.27,-8.7805,0.0,-2.9557,-9.0407,-7.7295,-5.89,-4.9191,0.0,-2.9557,-8.8235,-1.9048,-3.873,-9.4155,-9.6618,-7.6651,-6.8921,-6.6032,-4.902,-3.0274
-10.49,-13.27,-7.8049,-5.8824,-5.9113,-11.967,-9.6618,-6.8608,-2.9773,-5.8824,-5.9113,-9.8039,-2.8571,-2.9206,-9.4155,-10.628,-8.6312,-3.9936,-1.8413,-3.9216,-0.12882
-3.8547,-9.4603,-1.9512,-7.8431,1.9704,-3.187,-4.8309,-4.9191,1.877,-7.8431,1.9704,-2.9412,-2.8571,-3.873,-5.624,-8.6957,-4.7665,-4.9597,3.873,-3.9216,-3.9936
-1.0111,-2.7937,1.9512,3.9216,8.867,3.6423,1.9324,0.90615,10.615,3.9216,8.867,1.9608,-1.9048,-0.06349,-3.7283,-3.8647,-0.90177,-3.9936,9.5873,-8.8235,0.83736
-1.0111,0.06349,1.9512,13.725,9.8522,1.6911,4.8309,6.7314,13.528,13.725,9.8522,3.9216,-2.8571,-4.8254,-3.7283,-3.8647,-1.868,-6.8921,10.54,-7.8431,-3.0274
-1.9589,-0.88889,-0.97561,3.9216,2.9557,-1.2358,4.8309,0.90615,10.615,3.9216,2.9557,1.9608,-6.6667,-9.5873,-4.6761,-7.7295,-5.7327,-7.8583,6.7302,-4.902,-10.757
1.8325,2.9206,0.0,0.98039,0.98522,1.6911,5.7971,-4.9191,7.7023,0.98039,0.98522,3.9216,-10.476,-10.54,-1.8325,-4.8309,-5.7327,-0.12882,10.54,-1.9608,-6.8921
2.7804,6.7302,3.9024,-7.8431,-0.98522,6.5691,4.8309,-2.0065,5.7605,-7.8431,-0.98522,7.8431,-13.333,-9.5873,-6.5719,-0.96618,-5.7327,-3.9936,14.349,-14.706,-5.9259
3.7283,8.6349,8.7805,0.98039,7.8818,9.4959,3.8647,6.7314,3.8188,0.98039,7.8818,12.745,-10.476,-3.873,-8.4676,4.8309,-1.868,-1.095,12.444,-17.646999,2.7697
3.7283,12.444,10.732,9.8039,7.8818,9.4959,11.594,5.7605,4.7896,9.8039,7.8818,14.706,-10.476,-4.8254,-4.6761,7.7295,1.9968,0.83736,7.6825,-14.706,3.7359
1.8325,14.349,7.8049,7.8431,7.8818,5.5935,14.493,6.7314,11.586,7.8431,7.8818,12.745,-8.5714,-4.8254,-4.6761,8.6957,1.9968,-4.9597,4.8254,-11.765,1.8035
-5.7504,8.6349,-0.97561,0.98039,1.9704,-1.2358,8.6957,-2.0065,6.7314,0.98039,1.9704,2.9412,-9.5238,-3.873,-8.4676,3.8647,-2.8341,-6.8921,1.0159,-11.765,0.83736
-3.8547,6.7302,-0.97561,0.0,1.9704,-1.2358,7.7295,-5.89,3.8188,0.0,1.9704,0.98039,-5.7143,1.8413,-5.624,5.7971,0.06441,-6.8921,3.873,-6.8627,5.6683
-0.06319,7.6825,4.878,6.8627,6.8966,4.6179,9.6618,1.877,3.8188,6.8627,6.8966,6.8627,-0.95238,5.6508,0.06319,5.7971,3.9291,-2.0612,0.06349,1.9608,1.8035
-3.8547,1.0159,2.9268,1.9608,5.9113,3.6423,6.7633,0.90615,-2.0065,1.9608,5.9113,7.8431,-2.8571,-1.9683,-2.7804,-1.9324,-0.90177,-3.0274,-3.746,-0.98039,-3.9936
-11.438,-6.6032,-5.8537,-2.9412,-0.98522,-5.1382,1.9324,-7.8317,-2.9773,-2.9412,-0.98522,1.9608,-7.619,-6.7302,-10.363,-9.6618,-8.6312,-6.8921,-2.7937,-9.8039,-1.095
-16.177,-10.413,-10.732,-5.8824,-0.98522,-10.016,-1.9324,-6.8608,-2.0065,-5.8824,-0.98522,-2.9412,-8.5714,-6.7302,-14.155,-11.594,-11.53,-10.757,-4.6984,-13.725,-6.8921
-11.438,-9.4603,-8.7805,-4.902,0.98522,-9.0407,-3.8647,-7.8317,-0.06472,-4.902,0.98522,-3.9216,-2.8571,-5.7778,-7.5197,-6.7633,-5.7327,-9.7907,-6.6032,-5.8824,-3.0274
-7.6461,-9.4603,-6.8293,-0.98039,-3.9409,-10.992,-7.7295,-7.8317,-1.0356,-0.98039,-3.9409,-9.8039,0.95238,-3.873,-2.7804,-3.8647,-1.868,-5.9259,-5.6508,-3.9216,-1.095
-4.8025,-7.5556,-6.8293,-5.8824,-7.8818,-13.919,-8.6957,-10.744,-4.9191,-5.8824,-7.8818,-13.725,-0.95238,-2.9206,-0.88468,-2.8986,0.06441,-5.9259,-0.88889,-3.9216,-0.12882
-2.9068,-0.88889,-5.8537,-6.8627,-9.8522,-11.967,-7.7295,-11.715,-2.9773,-6.8627,-9.8522,-12.745,-4.7619,-5.7778,0.06319,-0.96618,0.06441,-3.9936,1.0159,-0.98039,4.7021
2.7804,6.7302,-0.97561,-5.8824,-3.9409,-5.1382,2.8986,-8.8026,2.8479,-5.8824,-3.9409,-4.902,-7.619,-4.8254,1.9589,0.96618,1.0306,-3.9936,9.5873,-2.9412,9.533
11.311,8.6349,4.878,0.98039,3.9409,4.6179,2.8986,1.877,7.7023,0.98039,3.9409,0.98039,-4.7619,-4.8254,8.594,2.8986,4.8953,0.83736,9.5873,4.902,1.8035
13.207,4.8254,1.9512,-0.98039,1.9704,5.5935,0.0,1.877,5.7605,-0.98039,1.9704,0.0,-4.7619,-5.7778,9.5419,0.0,2.963,6.6345,6.7302,6.8627,-1.095
7.5197,-0.88889,-3.9024,-6.8627,-6.8966,-2.2114,-1.9324,2.8479,1.877,-6.8627,-6.8966,-6.8627,-6.6667,-6.7302,2.9068,-2.8986,-1.868,2.7697,7.6825,1.9608,-6.8921
6.5719,-3.746,-3.9024,-4.902,-6.8966,0.71545,0.0,-1.0356,1.877,-4.902,-6.8966,-4.902,-5.7143,-7.6825,1.9589,-2.8986,-1.868,0.83736,7.6825,1.9608,-10.757
5.624,-2.7937,0.0,-1.9608,-4.9261,4.6179,1.9324,-0.06472,0.90615,-1.9608,-4.9261,0.0,-2.8571,-3.873,2.9068,-1.9324,-0.90177,5.6683,2.9206,0.98039,1.8035
-0.06319,-2.7937,-0.97561,2.9412,-2.9557,3.6423,1.9324,0.90615,-2.0065,2.9412,-2.9557,2.9412,-3.8095,-3.873,-3.7283,-3.8647,-3.8003,3.7359,-0.88889,-4.902,1.8035
-8.594,-8.5079,-6.8293,0.0,-4.9261,-2.2114,-0.96618,-2.0065,-4.9191,0.0,-4.9261,0.0,-1.9048,-5.7778,-10.363,-10.628,-9.5974,-6.8921,-8.5079,-7.8431,-4.9597
-12.385,-9.4603,-8.7805,-0.98039,-2.9557,-5.1382,-0.96618,-2.0065,-8.8026,-0.98039,-2.9557,-0.98039,0.0,-1.9683,-11.311,-10.628,-9.5974,-6.8921,-10.413,-6.8627,-3.9936
-14.281,-12.317,-11.707,0.98039,-0.98522,-5.1382,0.96618,-3.9482,-8.8026,0.98039,-0.98522,-1.9608,-1.9048,-0.06349,-14.155,-9.6618,-11.53,-9.7907,-8.5079,-5.8824,-3.9936
-15.229,-13.27,-12.683,-0.98039,-3.9409,-4.1626,-6.7633,-4.9191,-7.8317,-0.98039,-3.9409,-4.902,-3.8095,-0.06349,-12.259,-7.7295,-11.53,-6.8921,-10.413,-2.9412,-2.0612
-7.6461,-6.6032,-4.878,-4.902,-0.98522,1.6911,-4.8309,-3.9482,-2.9773,-4.902,-0.98522,-1.9608,0.95238,2.7937,-3.7283,1.9324,-1.868,-4.9597,-6.6032,2.9412,7.6006
-1.9589,0.06349,1.9512,-1.9608,-3.9409,0.71545,-0.96618,-4.9191,-4.9191,-1.9608,-3.9409,-1.9608,4.7619,6.6032,4.8025,8.6957,5.8615,6.6345,-0.88889,6.8627,11.465
2.7804,1.9683,5.8537,0.0,-9.8522,-0.26016,-0.96618,-2.9773,-7.8317,0.0,-9.8522,0.0,6.6667,7.5556,11.438,9.6618,10.692,11.465,-1.8413,10.784,3.7359
2.7804,0.06349,3.9024,1.9608,-3.9409,-1.2358,-4.8309,2.8479,-6.8608,1.9608,-3.9409,-1.9608,6.6667,9.4603,10.49,7.7295,10.692,4.7021,-5.6508,7.8431,-1.095
1.8325,-2.7937,1.9512,3.9216,-1.9704,-3.187,-10.628,5.7605,-11.715,3.9216,-1.9704,-2.9412,3.8095,4.6984,9.5419,3.8647,6.8277,2.7697,-4.6984,6.8627,1.8035
0.88468,-2.7937,-0.97561,-0.98039,-4.9261,-5.1382,-9.6618,4.7896,-9.7735,-0.98039,-4.9261,-4.902,0.95238,-1.0159,6.6983,-0.96618,2.963,0.83736,-8.5079,5.8824,-3.0274
-1.0111,-0.88889,-3.9024,-4.902,-5.9113,-5.1382,-6.7633,0.90615,-3.9482,-4.902,-5.9113,-6.8627,-0.95238,-4.8254,1.9589,-2.8986,0.06441,2.7697,-3.746,5.8824,-1.095
3.7283,1.9683,0.0,-6.8627,-8.867,-0.26016,-3.8647,-0.06472,-2.9773,-6.8627,-8.867,-3.9216,0.0,-4.8254,5.7504,-1.9324,2.963,11.465,2.9206,8.8235,-6.8921
3.7283,5.7778,2.9268,-4.902,-9.8522,0.71545,0.0,2.8479,-4.9191,-4.902,-9.8522,-1.9608,0.0,-0.06349,2.9068,0.96618,2.963,-0.12882,2.9206,1.9608,-3.0274
1.8325,6.7302,1.9512,-6.8627,-10.837,-0.26016,-2.8986,1.877,-2.9773,-6.8627,-10.837,-1.9608,1.9048,-0.06349,-0.88468,1.9324,1.0306,-0.12882,1.9683,0.98039,3.7359
6.5719,9.5873,5.8537,1.9608,-7.8818,4.6179,0.96618,5.7605,-2.9773,1.9608,-7.8818,4.902,5.7143,2.7937,3.8547,3.8647,2.963,10.499,2.9206,9.8039,3.7359
7.5197,8.6349,7.8049,1.9608,-5.9113,4.6179,5.7971,-0.06472,-4.9191,1.9608,-5.9113,5.8824,5.7143,5.6508,5.7504,4.8309,1.9968,13.398,0.06349,11.765,-2.0612
2.7804,7.6825,6.8293,-6.8627,-6.8966,-0.26016,2.8986,-2.9773,-5.89,-6.8627,-6.8966,2.9412,5.7143,9.4603,2.9068,6.7633,1.9968,7.6006,-0.88889,9.8039,5.6683
0.88468,7.6825,5.8537,-1.9608,-7.8818,0.71545,2.8986,-0.06472,-0.06472,-1.9608,-7.8818,2.9412,6.6667,10.413,1.9589,7.7295,1.9968,-1.095,5.7778,2.9412,14.364
-0.06319,5.7778,3.9024,-5.8824,-8.867,2.6667,6.7633,-2.9773,-2.9773,-5.8824,-8.867,2.9412,4.7619,3.746,1.0111,4.8309,1.0306,-8.8245,2.9206,-2.9412,5.6683
-3.8547,0.06349,-0.97561,-15.686,-10.837,-2.2114,0.0,-7.8317,-6.8608,-15.686,-10.837,0.0,-0.95238,0.88889,-3.7283,0.0,-2.8341,-11.723,-1.8413,-8.8235,3.7359
-2.9068,-5.6508,-1.9512,-10.784,-5.9113,-0.26016,-7.7295,-3.9482,-2.9773,-10.784,-5.9113,-2.9412,-1.9048,0.88889,-0.88468,-0.96618,-0.90177,1.8035,1.0159,-3.9216,4.7021
-2.9068,-9.4603,-1.9512,-0.98039,-0.98522,-2.2114,-6.7633,0.90615,-2.0065,-0.98039,-0.98522,-3.9216,-1.9048,0.88889,-1.8325,-1.9324,-0.90177,5.6683,-1.8413,-2.9412,0.83736
-5.7504,-13.27,-6.8293,5.8824,-2.9557,-9.0407,-11.594,1.877,-1.0356,5.8824,-2.9557,-9.8039,-4.7619,-2.9206,-4.6761,-3.8647,-3.8003,-1.095,2.9206,-6.8627,-3.0274
-7.6461,-17.079,-11.707,0.98039,-4.9261,-10.992,-15.459,-2.9773,-4.9191,0.98039,-4.9261,-13.725,-7.619,-5.7778,-6.5719,-8.6957,-7.6651,-3.9936,-3.746,-8.8235,0.83736
-8.594,-15.175,-12.683,-5.8824,-5.9113,-10.016,-12.56,-2.9773,-2.9773,-5.8824,-5.9113,-13.725,-3.8095,-2.9206,-5.624,-8.6957,-6.6989,-4.9597,-10.413,-5.8824,-4.9597
-7.6461,-9.4603,-13.659,-4.902,-3.9409,-10.016,-5.7971,-2.9773,-2.9773,-4.902,-3.9409,-11.765,-1.9048,-6.7302,-2.7804,-9.6618,-5.7327,-4.9597,-3.746,0.0,-8.8245
-5.7504,-5.6508,-12.683,-3.9216,-0.98522,-8.065,-0.96618,-1.0356,0.90615,-3.9216,-0.98522,-9.8039,-0.95238,-5.7778,-0.88468,-8.6957,-4.7665,-6.8921,-1.8413,2.9412,-3.0274
-1.9589,-2.7937,-9.7561,0.0,3.9409,-6.1138,-1.9324,2.8479,4.7896,0.0,3.9409,-5.8824,0.95238,-3.873,1.0111,-5.7971,-2.8341,-0.12882,1.9683,4.902,0.83736
-2.9068,-2.7937,-8.7805,0.98039,-2.9557,-5.1382,-3.8647,-2.0065,0.90615,0.98039,-2.9557,-6.8627,-0.95238,-5.7778,-0.88468,-8.6957,-4.7665,-3.0274,-1.8413,1.9608,-3.9936
2.7804,1.0159,-1.9512,0.0,0.0,1.6911,-1.9324,-2.0065,1.877,0.0,0.0,-0.98039,2.8571,-1.9683,1.9589,-4.8309,-0.90177,2.7697,1.0159,4.902,-6.8921
2.7804,5.7778,1.9512,0.0,-1.9704,1.6911,1.9324,0.90615,1.877,0.0,-1.9704,0.0,1.9048,1.8413,1.0111,0.96618,0.06441,2.7697,12.444,1.9608,2.7697
-2.9068,2.9206,-0.97561,0.98039,4.9261,-2.2114,0.0,-1.0356,2.8479,0.98039,4.9261,-0.98039,-0.95238,-1.0159,-5.624,-1.9324,-2.8341,-2.0612,5.7778,-0.98039,-7.8583
-6.6983,1.0159,-4.878,-2.9412,8.867,-3.187,1.9324,-2.0065,5.7605,-2.9412,8.867,-0.98039,-1.9048,-1.9683,-11.311,-2.8986,-6.6989,-4.9597,-1.8413,-5.8824,-13.655
-3.8547,3.873,-1.9512,0.0,5.9113,-1.2358,3.8647,1.877,7.7023,0.0,5.9113,1.9608,-2.8571,-0.06349,-9.4155,0.96618,-4.7665,-5.9259,1.9683,-3.9216,-1.095
3.7283,5.7778,5.8537,7.8431,4.9261,7.5447,5.7971,6.7314,8.6731,7.8431,4.9261,7.8431,0.0,4.6984,-1.8325,4.8309,1.0306,5.6683,4.8254,0.98039,3.7359
6.5719,5.7778,10.732,10.784,4.9261,11.447,3.8647,9.644,2.8479,10.784,4.9261,9.8039,-0.95238,1.8413,2.9068,2.8986,2.963,8.5668,1.9683,2.9412,1.8035
2.7804,0.06349,7.8049,7.8431,4.9261,5.5935,-1.9324,3.8188,-0.06472,7.8431,4.9261,5.8824,-3.8095,-1.9683,-0.88468,-1.9324,1.0306,0.83736,-0.88889,-8.8235,-0.12882
0.88468,-2.7937,4.878,5.8824,5.9113,3.6423,0.96618,4.7896,-2.0065,5.8824,5.9113,3.9216,-2.8571,-1.0159,1.0111,-0.96618,1.9968,-1.095,0.06349,-8.8235,-0.12882
-0.06319,-0.88889,2.9268,8.8235,5.9113,0.71545,4.8309,7.7023,-2.0065,8.8235,5.9113,3.9216,0.95238,1.8413,2.9068,1.9324,3.9291,1.8035,0.06349,-3.9216,5.6683
-0.06319,-2.7937,0.0,-0.98039,-4.9261,-0.26016,0.96618,-0.06472,-4.9191,-0.98039,-4.9261,-0.98039,3.8095,0.88889,5.7504,3.8647,5.8615,1.8035,-3.746,0.98039,5.6683
-1.9589,-6.6032,-4.878,-7.8431,-6.8966,-4.1626,-4.8309,-4.9191,-2.9773,-7.8431,-6.8966,-5.8824,0.0,-1.0159,1.9589,0.0,1.9968,-3.9936,-4.6984,-1.9608,0.83736
-1.0111,-5.6508,-4.878,3.9216,2.9557,-4.1626,-3.8647,-1.0356,6.7314,3.9216,2.9557,-1.9608,-1.9048,-1.0159,-1.8325,-0.96618,-0.90177,-3.9936,-2.7937,-1.9608,-3.0274
2.7804,0.06349,0.0,10.784,8.867,-2.2114,3.8647,-2.0065,11.586,10.784,8.867,3.9216,-1.9048,2.7937,0.06319,1.9324,0.06441,-0.12882,1.9683,0.98039,1.8035
1.8325,1.9683,0.0,3.9216,10.837,-0.26016,5.7971,-2.0065,11.586,3.9216,10.837,3.9216,-2.8571,-1.9683,-0.88468,-0.96618,-1.868,-3.0274,2.9206,3.9216,2.7697
-1.9589,0.06349,-5.8537,0.98039,7.8818,-1.2358,2.8986,-2.9773,8.6731,0.98039,7.8818,-0.98039,-4.7619,-8.6349,-2.7804,-6.7633,-6.6989,-0.12882,1.0159,5.8824,-8.8245
-1.0111,0.06349,-6.8293,-0.98039,6.8966,-0.26016,1.9324,-2.9773,7.7023,-0.98039,6.8966,-1.9608,-2.8571,-9.5873,-1.8325,-6.7633,-6.6989,5.6683,2.9206,-0.98039,-12.689
-1.9589,1.9683,-4.878,3.9216,8.867,-1.2358,1.9324,-3.9482,9.644,3.9216,8.867,0.0,-3.8095,-7.6825,-4.6761,-5.7971,-6.6989,-4.9597,5.7778,-5.8824,-10.757
-1.9589,1.0159,-0.97561,7.8431,7.8818,-1.2358,4.8309,-2.0065,7.7023,7.8431,7.8818,3.9216,-3.8095,-8.6349,-4.6761,-6.7633,-6.6989,-7.8583,4.8254,-2.9412,0.83736
-0.06319,1.0159,0.97561,5.8824,8.867,0.71545,4.8309,0.90615,9.644,5.8824,8.867,5.8824,-2.8571,-6.7302,-3.7283,-5.7971,-4.7665,2.7697,2.9206,-0.98039,1.8035
0.88468,2.9206,2.9268,0.0,6.8966,6.5691,5.7971,-0.06472,8.6731,0.0,6.8966,5.8824,0.0,-1.0159,-2.7804,-2.8986,-2.8341,1.8035,-0.88889,1.9608,1.8035
-1.0111,1.0159,0.97561,1.9608,0.98522,4.6179,-1.9324,-1.0356,1.877,1.9608,0.98522,0.98039,-2.8571,-1.9683,-2.7804,-1.9324,-2.8341,-2.0612,1.0159,0.0,-0.12882
0.88468,1.9683,2.9268,6.8627,1.9704,2.6667,2.8986,1.877,1.877,6.8627,1.9704,1.9608,0.0,2.7937,1.9589,0.96618,1.0306,2.7697,4.8254,5.8824,3.7359
-0.06319,2.9206,3.9024,10.784,7.8818,1.6911,5.7971,3.8188,3.8188,10.784,7.8818,3.9216,4.7619,3.746,2.9068,3.8647,2.963,5.6683,1.9683,3.9216,1.8035
-0.06319,1.9683,4.878,10.784,7.8818,0.71545,0.0,0.90615,-1.0356,10.784,7.8818,4.902,4.7619,8.5079,1.9589,7.7295,2.963,5.6683,4.8254,-1.9608,6.6345
-1.0111,2.9206,3.9024,-5.8824,-3.9409,2.6667,-2.8986,-4.9191,-2.0065,-5.8824,-3.9409,0.98039,5.7143,13.27,1.0111,11.594,2.963,-3.0274,1.0159,0.0,19.195
-2.9068,-0.88889,0.0,-11.765,-3.9409,-3.187,-4.8309,-9.7735,-2.9773,-11.765,-3.9409,-4.902,4.7619,6.6032,-0.88468,7.7295,1.0306,-3.9936,0.06349,-0.98039,12.432
-2.9068,1.9683,-0.97561,-0.98039,1.9704,-5.1382,-2.8986,-1.0356,1.877,-0.98039,1.9704,-3.9216,6.6667,8.5079,0.06319,10.628,3.9291,-2.0612,1.9683,1.9608,6.6345
-3.8547,1.9683,-3.9024,4.902,0.98522,-10.016,-2.8986,1.877,-0.06472,4.902,0.98522,-5.8824,6.6667,5.6508,-1.8325,9.6618,3.9291,-3.9936,1.9683,1.9608,7.6006
-2.9068,0.06349,-3.9024,-1.9608,-0.98522,-6.1138,0.0,-2.9773,-2.9773,-1.9608,-0.98522,-4.902,7.619,8.5079,0.06319,7.7295,3.9291,-1.095,-0.88889,2.9412,0.83736
6.5719,2.9206,2.9268,1.9608,3.9409,-0.26016,7.7295,1.877,0.90615,1.9608,3.9409,1.9608,11.429,9.4603,10.49,6.7633,8.7601,13.398,-4.6984,14.706,-2.0612
11.311,5.7778,4.878,1.9608,5.9113,0.71545,4.8309,5.7605,0.90615,1.9608,5.9113,2.9412,11.429,2.7937,15.229,4.8309,8.7601,22.093,-2.7937,14.706,-2.0612
7.5197,3.873,1.9512,-5.8824,0.0,0.71545,0.96618,-0.06472,-2.0065,-5.8824,0.0,0.0,9.5238,-1.9683,11.438,0.96618,4.8953,15.33,-2.7937,11.765,-3.0274
7.5197,3.873,2.9268,-0.98039,-2.9557,1.6911,0.0,2.8479,-1.0356,-0.98039,-2.9557,0.0,8.5714,-2.9206,11.438,-0.96618,3.9291,12.432,-6.6032,15.686,-9.7907
7.5197,1.9683,2.9268,-0.98039,-0.98522,4.6179,3.8647,4.7896,-2.0065,-0.98039,-0.98522,2.9412,7.619,-2.9206,10.49,-2.8986,2.963,4.7021,-6.6032,15.686,-14.622
7.5197,1.9683,4.878,0.0,1.9704,6.5691,4.8309,1.877,-0.06472,0.0,1.9704,2.9412,8.5714,1.8413,11.438,-1.9324,4.8953,4.7021,-4.6984,16.667,-6.8921
9.4155,6.7302,8.7805,6.8627,4.9261,2.6667,3.8647,3.8188,2.8479,6.8627,4.9261,4.902,10.476,8.5079,10.49,3.8647,6.8277,9.533,-0.88889,13.725,4.7021
6.5719,8.6349,8.7805,4.902,4.9261,5.5935,4.8309,3.8188,1.877,4.902,4.9261,5.8824,6.6667,5.6508,5.7504,3.8647,4.8953,5.6683,-1.8413,9.8039,9.533
0.88468,1.0159,4.878,-7.8431,-0.98522,3.6423,-1.9324,-2.0065,-2.0065,-7.8431,-0.98522,1.9608,-3.8095,-2.9206,-3.7283,-1.9324,-3.8003,-6.8921,-1.8413,0.98039,0.83736
-1.0111,-0.88889,4.878,-3.9216,0.98522,4.6179,-5.7971,-4.9191,-2.9773,-3.9216,0.98522,2.9412,-5.7143,-1.9683,-6.5719,-0.96618,-4.7665,-8.8245,1.9683,0.0,2.7697
0.88468,2.9206,8.7805,5.8824,5.9113,7.5447,0.96618,-4.9191,2.8479,5.8824,5.9113,6.8627,-2.8571,0.88889,-2.7804,3.8647,-0.90177,-2.0612,2.9206,0.98039,6.6345
0.88468,-1.8413,6.8293,2.9412,3.9409,4.6179,4.8309,-1.0356,3.8188,2.9412,3.9409,6.8627,-5.7143,0.88889,-4.6761,2.8986,-0.90177,-0.12882,1.0159,-2.9412,4.7021
-1.9589,-6.6032,2.9268,0.98039,3.9409,-1.2358,-0.96618,0.90615,1.877,0.98039,3.9409,1.9608,-7.619,1.8413,-7.5197,1.9324,-1.868,-15.588,2.9206,-12.745,6.6345
-1.0111,-4.6984,-0.97561,-5.8824,3.9409,2.6667,2.8986,-4.9191,3.8188,-5.8824,3.9409,0.0,-5.7143,4.6984,-5.624,3.8647,0.06441,-10.757,5.7778,-10.784,16.296
-3.8547,-1.8413,-4.878,1.9608,0.98522,0.71545,3.8647,-2.9773,3.8188,1.9608,0.98522,0.0,-7.619,-1.0159,-5.624,0.96618,-2.8341,-4.9597,6.7302,-11.765,12.432
-4.8025,3.873,-2.9268,12.745,9.8522,-6.1138,8.6957,-2.9773,7.7023,12.745,9.8522,1.9608,-7.619,-4.8254,-3.7283,0.96618,-0.90177,-8.8245,12.444,-15.686,11.465
-4.8025,3.873,-0.97561,5.8824,10.837,-5.1382,4.8309,-2.9773,6.7314,5.8824,10.837,2.9412,-6.6667,-4.8254,-3.7283,-1.9324,-0.90177,-8.8245,10.54,-19.608,2.7697
-0.06319,3.873,2.9268,2.9412,6.8966,-0.26016,5.7971,-1.0356,8.6731,2.9412,6.8966,4.902,-1.9048,-1.9683,-0.88468,-0.96618,1.9968,-5.9259,5.7778,-14.706,-5.9259
5.624,9.5873,7.8049,-0.98039,7.8818,4.6179,7.7295,-1.0356,10.615,-0.98039,7.8818,7.8431,0.95238,2.7937,5.7504,4.8309,6.8277,-1.095,8.6349,-7.8431,-3.9936
7.5197,10.54,8.7805,3.9216,9.8522,3.6423,7.7295,1.877,8.6731,3.9216,9.8522,8.8235,0.95238,-0.06349,7.6461,6.7633,8.7601,-3.0274,6.7302,-1.9608,-1.095
9.4155,12.444,11.707,5.8824,9.8522,5.5935,10.628,2.8479,6.7314,5.8824,9.8522,9.8039,3.8095,3.746,11.438,10.628,10.692,1.8035,3.873,7.8431,-1.095
9.4155,11.492,10.732,-1.9608,5.9113,5.5935,6.7633,0.90615,4.7896,-1.9608,5.9113,7.8431,3.8095,4.6984,10.49,12.56,10.692,6.6345,2.9206,4.902,1.8035
10.363,10.54,11.707,4.902,0.98522,7.5447,4.8309,3.8188,0.90615,4.902,0.98522,8.8235,3.8095,3.746,7.6461,12.56,9.7262,8.5668,-1.8413,0.0,1.8035
9.4155,10.54,12.683,3.9216,-2.9557,7.5447,8.6957,2.8479,-1.0356,3.9216,-2.9557,8.8235,0.95238,1.8413,3.8547,9.6618,6.8277,6.6345,-3.746,1.9608,4.7021
6.5719,8.6349,10.732,3.9216,7.8818,4.6179,5.7971,3.8188,0.90615,3.9216,7.8818,7.8431,0.0,0.88889,-0.88468,6.7633,2.963,-2.0612,-4.6984,3.9216,-3.0274
2.7804,2.9206,4.878,6.8627,8.867,4.6179,1.9324,3.8188,0.90615,6.8627,8.867,4.902,-2.8571,1.8413,-2.7804,1.9324,0.06441,-1.095,-6.6032,3.9216,-8.8245
-1.0111,-4.6984,-1.9512,1.9608,1.9704,3.6423,-1.9324,-1.0356,-2.9773,1.9608,1.9704,0.98039,-5.7143,-1.9683,-5.624,-4.8309,-4.7665,-3.0274,-4.6984,1.9608,-3.9936
-4.8025,-13.27,-7.8049,-3.9216,-5.9113,-1.2358,-2.8986,-3.9482,-4.9191,-3.9216,-5.9113,-5.8824,-10.476,-6.7302,-8.4676,-10.628,-8.6312,-6.8921,-0.88889,-1.9608,-2.0612
-8.594,-20.889,-13.659,-7.8431,-8.867,-5.1382,-8.6957,-4.9191,-3.9482,-7.8431,-8.867,-10.784,-13.333,-8.6349,-13.207,-17.391001,-13.462,-7.8583,-1.8413,-5.8824,-2.0612
-12.385,-20.889,-18.537001,-12.745,-11.823,-9.0407,-18.357,-2.9773,-4.9191,-12.745,-11.823,-15.686,-15.238,-9.5873,-14.155,-20.290001,-16.361,-11.723,-3.746,-4.902,0.83736
-16.177,-17.079,-22.438999,-15.686,-10.837,-12.943,-18.357,-6.8608,-5.89,-15.686,-10.837,-18.627001,-18.094999,-12.444,-15.103,-19.323999,-18.292999,-9.7907,1.0159,-10.784,7.6006
-14.281,-8.5079,-18.537001,-5.8824,-6.8966,-7.0894,-8.6957,-5.89,-1.0356,-5.8824,-6.8966,-12.745,-15.238,-12.444,-13.207,-13.527,-14.428,-5.9259,3.873,-18.627001,9.533
-9.5419,-3.746,-10.732,-0.98039,-1.9704,-5.1382,-0.96618,-1.0356,1.877,-0.98039,-1.9704,-6.8627,-11.429,-8.6349,-8.4676,-7.7295,-9.5974,-4.9597,5.7778,-16.667,0.83736
-2.9068,1.9683,-2.9268,-0.98039,0.98522,-2.2114,2.8986,3.8188,5.7605,-0.98039,0.98522,-0.98039,-6.6667,-3.873,-2.7804,-0.96618,-2.8341,-2.0612,3.873,-11.765,-4.9597
2.7804,5.7778,1.9512,0.98039,0.0,1.6911,7.7295,0.90615,1.877,0.98039,0.0,2.9412,-3.8095,-1.9683,2.9068,5.7971,3.9291,-1.095,7.6825,-11.765,-5.9259
6.5719,12.444,6.8293,-0.98039,0.0,2.6667,13.527,3.8188,0.90615,-0.98039,0.0,6.8627,-0.95238,2.7937,5.7504,13.527,8.7601,1.8035,5.7778,-7.8431,-0.12882
6.5719,17.205999,10.732,8.8235,6.8966,4.6179,13.527,4.7896,4.7896,8.8235,6.8966,9.8039,2.8571,5.6508,4.8025,17.391001,10.692,4.7021,1.9683,-0.98039,3.7359
6.5719,15.302,11.707,14.706,11.823,3.6423,3.8647,5.7605,5.7605,14.706,11.823,9.8039,2.8571,5.6508,4.8025,15.459,9.7262,6.6345,1.0159,4.902,1.8035
7.5197,10.54,9.7561,4.902,7.8818,8.5203,0.96618,8.6731,4.7896,4.902,7.8818,8.8235,2.8571,5.6508,4.8025,11.594,7.7939,6.6345,1.9683,7.8431,4.7021
7.5197,1.0159,3.9024,-0.98039,1.9704,9.4959,4.8309,3.8188,-0.06472,-0.98039,1.9704,6.8627,0.95238,3.746,3.8547,4.8309,3.9291,4.7021,-3.746,9.8039,-0.12882
7.5197,-7.5556,-2.9268,5.8824,0.0,3.6423,7.7295,2.8479,-2.9773,5.8824,0.0,0.98039,-0.95238,-4.8254,2.9068,-4.8309,-0.90177,1.8035,-12.317,10.784,-12.689
7.5197,-7.5556,-4.878,8.8235,1.9704,4.6179,2.8986,3.8188,-2.0065,8.8235,1.9704,0.0,-1.9048,-8.6349,2.9068,-9.6618,-2.8341,4.7021,-10.413,12.745,-3.9936
-3.8547,-11.365,-8.7805,-2.9412,-0.98522,3.6423,-3.8647,-1.0356,-2.9773,-2.9412,-0.98522,-3.9216,-5.7143,-12.444,-5.624,-16.424999,-9.5974,-2.0612,-7.5556,4.902,-10.757
-6.6983,-13.27,-9.7561,2.9412,-1.9704,3.6423,0.96618,-0.06472,-5.89,2.9412,-1.9704,-0.98039,-8.5714,-15.302,-11.311,-22.222,-13.462,-4.9597,-4.6984,-4.902,-16.554001
-3.8547,-14.222,-9.7561,8.8235,0.98522,2.6667,0.96618,-1.0356,0.90615,8.8235,0.98522,0.0,-7.619,-13.397,-9.4155,-22.222,-12.496,-2.0612,-7.5556,-5.8824,-12.689
-2.9068,-18.983999,-14.634,7.8431,2.9557,-2.2114,-7.7295,-2.9773,1.877,7.8431,2.9557,-4.902,-7.619,-12.444,-8.4676,-24.155001,-14.428,-4.9597,-6.6032,-3.9216,-9.7907
-0.06319,-18.983999,-14.634,5.8824,-0.98522,-2.2114,-11.594,3.8188,1.877,5.8824,-0.98522,-8.8235,-5.7143,-10.54,-3.7283,-20.290001,-11.53,-2.0612,-0.88889,-0.98039,-9.7907
-1.0111,-21.841,-16.584999,2.9412,-0.98522,-2.2114,-12.56,5.7605,-0.06472,2.9412,-0.98522,-9.8039,-4.7619,-12.444,-1.8325,-17.391001,-9.5974,-3.0274,-2.7937,-3.9216,-9.7907
-5.7504,-18.983999,-15.61,-0.98039,-0.98522,-4.1626,-13.527,3.8188,-0.06472,-0.98039,-0.98522,-10.784,-4.7619,-9.5873,-2.7804,-10.628,-7.6651,1.8035,0.06349,-7.8431,-5.9259
-7.6461,-2.7937,-6.8293,0.0,-1.9704,-3.187,-5.7971,0.90615,1.877,0.0,-1.9704,-4.902,0.0,-0.06349,-0.88468,2.8986,-0.90177,-0.12882,4.8254,-7.8431,8.5668
-3.8547,12.444,3.9024,2.9412,1.9704,0.71545,5.7971,-1.0356,4.7896,2.9412,1.9704,2.9412,7.619,10.413,3.8547,16.424999,8.7601,-3.9936,9.5873,-2.9412,13.398
4.6761,17.205999,11.707,1.9608,0.0,2.6667,9.6618,0.90615,2.8479,1.9608,0.0,6.8627,10.476,14.222,7.6461,21.256001,13.591,-1.095,11.492,1.9608,10.499
15.103,22.921,18.537001,2.9412,1.9704,6.5691,10.628,2.8479,5.7605,2.9412,1.9704,10.784,13.333,19.937,16.177,26.087,18.422001,-0.12882,11.492,5.8824,15.33
15.103,21.016001,17.561001,4.902,0.98522,5.5935,6.7633,2.8479,-0.06472,4.902,0.98522,10.784,13.333,15.175,14.281,22.222,16.49,3.7359,6.7302,4.902,7.6006
14.155,19.111,16.584999,5.8824,4.9261,8.5203,13.527,2.8479,1.877,5.8824,4.9261,13.725,14.286,13.27,12.385,18.357,14.557,5.6683,5.7778,5.8824,7.6006
13.207,19.111,16.584999,6.8627,2.9557,13.398,15.459,2.8479,4.7896,6.8627,2.9557,15.686,12.381,14.222,11.438,15.459,11.659,6.6345,3.873,3.9216,7.6006
14.155,13.397,16.584999,3.9216,2.9557,15.35,10.628,2.8479,1.877,3.9216,2.9557,16.667,7.619,7.5556,10.49,8.6957,8.7601,8.5668,1.9683,5.8824,5.6683
14.155,8.6349,15.61,8.8235,5.9113,15.35,9.6618,5.7605,-0.06472,8.8235,5.9113,14.706,6.6667,3.746,11.438,3.8647,6.8277,12.432,-2.7937,10.784,5.6683
14.155,7.6825,14.634,12.745,10.837,15.35,9.6618,11.586,2.8479,12.745,10.837,14.706,6.6667,4.6984,12.385,2.8986,7.7939,18.229,-6.6032,11.765,5.6683
7.5197,5.7778,7.8049,6.8627,10.837,7.5447,3.8647,5.7605,-1.0356,6.8627,10.837,8.8235,4.7619,4.6984,5.7504,2.8986,4.8953,6.6345,-2.7937,6.8627,4.7021
2.7804,2.9206,2.9268,7.8431,3.9409,-0.26016,6.7633,-0.06472,-2.0065,7.8431,3.9409,2.9412,3.8095,6.6032,1.0111,2.8986,1.0306,0.83736,1.9683,4.902,1.8035
-1.0111,-3.746,-0.97561,0.98039,-2.9557,0.71545,0.0,0.90615,-2.9773,0.98039,-2.9557,-0.98039,-0.95238,1.8413,-2.7804,0.0,-1.868,-4.9597,0.06349,2.9412,0.83736
-0.06319,-3.746,0.0,6.8627,0.98522,4.6179,-1.9324,5.7605,1.877,6.8627,0.98522,0.98039,-3.8095,0.88889,-4.6761,0.0,-1.868,-0.12882,-0.88889,-4.902,-4.9597
0.88468,0.06349,0.97561,12.745,-1.9704,4.6179,3.8647,9.644,8.6731,12.745,-1.9704,1.9608,-1.9048,-1.0159,-2.7804,0.96618,-0.90177,6.6345,-2.7937,-6.8627,-8.8245
1.8325,0.06349,-0.97561,7.8431,2.9557,0.71545,2.8986,8.6731,7.7023,7.8431,2.9557,0.0,0.0,-2.9206,2.9068,0.96618,1.0306,7.6006,1.0159,0.98039,-7.8583
2.7804,-6.6032,-2.9268,4.902,8.867,-0.26016,-4.8309,0.90615,2.8479,4.902,8.867,-2.9412,1.9048,-3.873,4.8025,-2.8986,1.9968,5.6683,2.9206,2.9412,-10.757
12.259,-4.6984,3.9024,8.8235,8.867,5.5935,-1.9324,9.644,2.8479,8.8235,8.867,1.9608,8.5714,-0.06349,14.281,0.96618,8.7601,10.499,2.9206,9.8039,-3.0274
13.207,-0.88889,5.8537,9.8039,4.9261,5.5935,-0.96618,10.615,3.8188,9.8039,4.9261,0.98039,10.476,2.7937,16.177,4.8309,10.692,8.5668,3.873,6.8627,3.7359
15.103,1.9683,8.7805,8.8235,4.9261,8.5203,4.8309,9.644,9.644,8.8235,4.9261,5.8824,15.238,8.5079,18.073,9.6618,14.557,5.6683,8.6349,6.8627,0.83736
14.155,4.8254,9.7561,0.98039,5.9113,9.4959,2.8986,7.7023,8.6731,0.98039,5.9113,7.8431,19.048,15.175,19.021,10.628,14.557,3.7359,6.7302,13.725,3.7359
11.311,4.8254,8.7805,4.902,6.8966,5.5935,0.96618,6.7314,5.7605,4.902,6.8966,6.8627,17.143,12.317,17.125,8.6957,12.625,7.6006,3.873,15.686,3.7359
6.5719,5.7778,7.8049,7.8431,4.9261,1.6911,5.7971,3.8188,5.7605,7.8431,4.9261,6.8627,13.333,8.5079,11.438,8.6957,9.7262,6.6345,8.6349,13.725,11.465
2.7804,7.6825,7.8049,0.98039,0.98522,1.6911,7.7295,-2.0065,0.90615,0.98039,0.98522,4.902,10.476,13.27,7.6461,11.594,6.8277,9.533,9.5873,11.765,21.127001
1.8325,11.492,9.7561,-1.9608,0.0,1.6911,9.6618,-3.9482,-2.0065,-1.9608,0.0,5.8824,5.7143,15.175,4.8025,12.56,6.8277,2.7697,8.6349,8.8235,20.160999
-0.06319,12.444,8.7805,-1.9608,0.98522,-0.26016,8.6957,-2.0065,0.90615,-1.9608,0.98522,4.902,2.8571,9.4603,1.0111,12.56,5.8615,-3.0274,7.6825,3.9216,18.229
0.88468,11.492,7.8049,2.9412,0.0,-1.2358,5.7971,-3.9482,3.8188,2.9412,0.0,3.9216,0.95238,4.6984,1.0111,10.628,4.8953,5.6683,4.8254,3.9216,14.364
-2.9068,8.6349,5.8537,4.902,-0.98522,-1.2358,1.9324,-2.9773,2.8479,4.902,-0.98522,2.9412,-0.95238,3.746,-3.7283,8.6957,2.963,-1.095,-0.88889,-2.9412,3.7359
-7.6461,3.873,1.9512,-0.98039,2.9557,-2.2114,2.8986,0.90615,-2.9773,-0.98039,2.9557,0.98039,-3.8095,-1.9683,-10.363,2.8986,-1.868,-9.7907,-6.6032,-7.8431,-1.095
-10.49,0.06349,-2.9268,-0.98039,0.0,-3.187,1.9324,0.90615,-3.9482,-0.98039,0.0,-0.98039,-5.7143,-1.9683,-10.363,-0.96618,-4.7665,-5.9259,-6.6032,-4.902,0.83736
-10.49,-1.8413,-5.8537,-3.9216,0.0,-3.187,2.8986,0.90615,-2.9773,-3.9216,0.0,-1.9608,-5.7143,-2.9206,-9.4155,-2.8986,-5.7327,-2.0612,-2.7937,-4.902,3.7359
-5.7504,-3.746,-6.8293,4.902,3.9409,-1.2358,-2.8986,1.877,-4.9191,4.902,3.9409,-3.9216,-2.8571,-1.9683,-4.6761,-4.8309,-4.7665,-3.9936,-2.7937,-3.9216,-2.0612
-6.6983,-6.6032,-8.7805,1.9608,0.0,-0.26016,-2.8986,-1.0356,-2.9773,1.9608,0.0,-3.9216,-2.8571,-4.8254,-7.5197,-9.6618,-6.6989,-5.9259,-4.6984,-14.706,-10.757
-3.8547,-3.746,-4.878,1.9608,0.98522,2.6667,0.96618,2.8479,4.7896,1.9608,0.98522,0.98039,-0.95238,-5.7778,-5.624,-8.6957,-4.7665,-2.0612,-2.7937,-11.765,-8.8245
1.8325,-1.8413,1.9512,3.9216,5.9113,2.6667,1.9324,6.7314,4.7896,3.9216,5.9113,4.902,2.8571,-2.9206,0.06319,-5.7971,0.06441,1.8035,-5.6508,-1.9608,-13.655
4.6761,-1.8413,5.8537,5.8824,2.9557,1.6911,3.8647,8.6731,1.877,5.8824,2.9557,4.902,4.7619,-0.06349,2.9068,-2.8986,1.9968,2.7697,-3.746,2.9412,-9.7907
6.5719,2.9206,7.8049,3.9216,4.9261,0.71545,3.8647,3.8188,1.877,3.9216,4.9261,3.9216,5.7143,4.6984,7.6461,3.8647,5.8615,5.6683,4.8254,8.8235,2.7697
3.7283,3.873,5.8537,-1.9608,1.9704,0.71545,3.8647,-1.0356,-2.9773,-1.9608,1.9704,1.9608,5.7143,8.5079,5.7504,4.8309,4.8953,5.6683,2.9206,5.8824,6.6345
-0.06319,-0.88889,0.97561,-4.902,-2.9557,-1.2358,-0.96618,1.877,-2.0065,-4.902,-2.9557,-1.9608,3.8095,5.6508,2.9068,0.96618,1.0306,2.7697,-1.8413,3.9216,4.7021
1.8325,-3.746,0.0,-0.98039,-2.9557,-0.26016,-3.8647,5.7605,-1.0356,-0.98039,-2.9557,-2.9412,6.6667,4.6984,5.7504,0.0,2.963,5.6683,0.06349,13.725,0.83736
-1.9589,-10.413,-4.878,-2.9412,-5.9113,-0.26016,-8.6957,2.8479,-4.9191,-2.9412,-5.9113,-5.8824,5.7143,3.746,2.9068,-6.7633,-1.868,7.6006,-4.6984,14.706,0.83736
-3.8547,-15.175,-7.8049,-2.9412,-6.8966,-0.26016,-9.6618,4.7896,-5.89,-2.9412,-6.8966,-3.9216,1.9048,-4.8254,-2.7804,-13.527,-7.6651,5.6683,-9.4603,7.8431,-3.0274
-6.6983,-15.175,-8.7805,-4.902,-6.8966,-3.187,-10.628,3.8188,-8.8026,-4.902,-6.8966,-4.902,-2.8571,-11.492,-7.5197,-17.391001,-11.53,9.533,-12.317,1.9608,-9.7907
-9.5419,-13.27,-9.7561,0.0,-4.9261,-7.0894,-9.6618,4.7896,-8.8026,0.0,-4.9261,-6.8627,-3.8095,-12.444,-10.363,-17.391001,-12.496,7.6006,-14.222,0.98039,-10.757
-11.438,-8.5079,-8.7805,1.9608,-5.9113,-6.1138,-10.628,3.8188,-6.8608,1.9608,-5.9113,-7.8431,-1.9048,-7.6825,-12.259,-13.527,-11.53,1.8035,-13.27,1.9608,-7.8583
-6.6983,-7.5556,-5.8537,0.0,-6.8966,1.6911,-7.7295,-2.0065,-8.8026,0.0,-6.8966,-4.902,0.0,-5.7778,-9.4155,-10.628,-7.6651,2.7697,-11.365,3.9216,-6.8921
-4.8025,-4.6984,-0.97561,-4.902,-5.9113,-0.26016,-0.96618,-1.0356,-9.7735,-4.902,-5.9113,-0.98039,-0.95238,-2.9206,-8.4676,-5.7971,-4.7665,-6.8921,-6.6032,-1.9608,-5.9259
-3.8547,-1.8413,0.97561,0.98039,-0.98522,-2.2114,-4.8309,2.8479,-8.8026,0.98039,-0.98522,0.0,-0.95238,-3.873,-7.5197,-2.8986,-2.8341,-3.9936,-8.5079,-4.902,-4.9597
-4.8025,-0.88889,-0.97561,2.9412,-0.98522,-6.1138,-12.56,2.8479,-5.89,2.9412,-0.98522,-3.9216,-0.95238,-2.9206,-4.6761,0.0,-1.868,-0.12882,-9.4603,-1.9608,-5.9259
-9.5419,-2.7937,-5.8537,-8.8235,-6.8966,-12.943,-12.56,-2.9773,-7.8317,-8.8235,-6.8966,-10.784,-1.9048,-0.06349,-6.5719,0.96618,-2.8341,-3.9936,-4.6984,-7.8431,-4.9597
-13.333,-9.4603,-12.683,-11.765,-10.837,-14.894,-11.594,-8.8026,-10.744,-11.765,-10.837,-14.706,-2.8571,-2.9206,-8.4676,-4.8309,-6.6989,-7.8583,-5.6508,-6.8627,-9.7907
-13.333,-12.317,-12.683,-11.765,-10.837,-10.016,-5.7971,-6.8608,-2.9773,-11.765,-10.837,-11.765,-0.95238,-2.9206,-7.5197,-6.7633,-6.6989,-6.8921,-3.746,-3.9216,-10.757
-16.177,-14.222,-13.659,-10.784,-4.9261,-8.065,-3.8647,-5.89,2.8479,-10.784,-4.9261,-10.784,-4.7619,-4.8254,-10.363,-8.6957,-9.5974,-3.0274,-3.746,-4.902,-2.0612
-19.968,-16.127001,-17.561001,-3.9216,0.0,-9.0407,-4.8309,-2.9773,2.8479,-3.9216,0.0,-10.784,-11.429,-10.54,-17.945999,-14.493,-17.327,-9.7907,-2.7937,-10.784,-2.0612
-19.021,-14.222,-17.561001,4.902,2.9557,-5.1382,-3.8647,-3.9482,6.7314,4.902,2.9557,-5.8824,-16.190001,-15.302,-19.841999,-19.323999,-20.225,-9.7907,0.06349,-11.765,-6.8921
-16.177,-14.222,-15.61,2.9412,2.9557,-0.26016,-1.9324,-3.9482,4.7896,2.9412,2.9557,-2.9412,-20.0,-21.968,-21.738001,-24.155001,-23.124001,-11.723,-1.8413,-12.745,-8.8245
-14.281,-16.127001,-13.659,4.902,5.9113,-2.2114,1.9324,-4.9191,2.8479,4.902,5.9113,-0.98039,-23.809999,-29.587,-22.686001,-29.952,-24.09,-8.8245,1.0159,-20.587999,-15.588
-8.594,-14.222,-9.7561,4.902,10.837,-1.2358,4.8309,-1.0356,7.7023,4.902,10.837,2.9412,-23.809999,-33.396999,-19.841999,-30.917999,-21.191999,-4.9597,-3.746,-23.528999,-23.316999
-0.06319,-6.6032,-3.9024,-5.8824,8.867,4.6179,1.9324,-5.89,5.7605,-5.8824,8.867,5.8824,-19.048,-25.778,-12.259,-22.222,-13.462,-3.9936,-2.7937,-17.646999,-9.7907
10.363,3.873,5.8537,1.9608,6.8966,11.447,11.594,0.90615,9.644,1.9608,6.8966,10.784,-8.5714,-11.492,0.06319,-4.8309,-0.90177,-0.12882,5.7778,-6.8627,4.7021
9.4155,4.8254,5.8537,13.725,2.9557,4.6179,7.7295,6.7314,7.7023,13.725,2.9557,6.8627,-2.8571,-5.7778,3.8547,2.8986,3.9291,2.7697,4.8254,-1.9608,2.7697
-1.0111,0.06349,-3.9024,-4.902,-5.9113,-10.016,-11.594,-2.9773,-2.9773,-4.902,-5.9113,-6.8627,-3.8095,-2.9206,-1.8325,3.8647,0.06441,-4.9597,1.0159,-7.8431,-2.0612
-8.594,-1.8413,-7.8049,-22.549,-11.823,-11.967,-17.391001,-12.686,-10.744,-22.549,-11.823,-14.706,-0.95238,6.6032,-6.5719,8.6957,-0.90177,-14.622,0.06349,-8.8235,7.6006
-10.49,-2.7937,-7.8049,-17.646999,-13.793,-11.967,-14.493,-14.628,-9.7735,-17.646999,-13.793,-16.667,1.9048,11.365,-8.4676,11.594,0.06441,-12.689,1.0159,-3.9216,4.7021
-14.281,-4.6984,-12.683,-16.667,-16.749001,-17.820999,-11.594,-16.57,-10.744,-16.667,-16.749001,-19.608,0.0,10.413,-11.311,7.7295,-3.8003,-6.8921,1.9683,-3.9216,4.7021
-15.229,-2.7937,-14.634,-20.587999,-14.778,-14.894,-12.56,-14.628,-5.89,-20.587999,-14.778,-18.627001,0.0,11.365,-12.259,5.7971,-6.6989,-16.554001,1.0159,-4.902,7.6006
-12.385,6.7302,-8.7805,-11.765,-6.8966,-9.0407,-3.8647,-9.7735,1.877,-11.765,-6.8966,-8.8235,1.9048,11.365,-9.4155,9.6618,-2.8341,-16.554001,4.8254,-3.9216,11.465
-9.5419,9.5873,-5.8537,1.9608,-3.9409,-7.0894,0.96618,-3.9482,-1.0356,1.9608,-3.9409,-4.902,0.95238,8.5079,-7.5197,9.6618,-0.90177,-7.8583,1.9683,-4.902,13.398
-9.5419,3.873,-7.8049,-1.9608,-1.9704,-8.065,-0.96618,-6.8608,0.90615,-1.9608,-1.9704,-5.8824,-5.7143,0.88889,-7.5197,2.8986,-3.8003,-5.9259,5.7778,-4.902,11.465
-9.5419,-1.8413,-7.8049,-8.8235,-0.98522,-6.1138,-2.8986,-8.8026,2.8479,-8.8235,-0.98522,-5.8824,-11.429,-10.54,-11.311,-5.7971,-9.5974,-7.8583,6.7302,-11.765,-3.0274
-1.9589,0.06349,-2.9268,-3.9216,4.9261,2.6667,1.9324,-0.06472,10.615,-3.9216,4.9261,-0.98039,-16.190001,-15.302,-11.311,-9.6618,-9.5974,-3.9936,3.873,-16.667,-11.723
6.5719,5.7778,2.9268,8.8235,12.808,9.4959,11.594,8.6731,13.528,8.8235,12.808,7.8431,-15.238,-11.492,-4.6761,-5.7971,-4.7665,2.7697,2.9206,-7.8431,-11.723
11.311,9.5873,7.8049,11.765,7.8818,12.423,13.527,13.528,12.557,11.765,7.8818,10.784,-9.5238,-8.6349,-0.88468,0.0,1.0306,4.7021,3.873,-8.8235,-4.9597
19.841999,15.302,16.584999,12.745,11.823,20.228001,22.222,13.528,9.644,12.745,11.823,17.646999,0.0,1.8413,7.6461,11.594,10.692,15.33,4.8254,-3.9216,6.6345
19.841999,15.302,20.488001,9.8039,11.823,14.374,15.459,1.877,5.7605,9.8039,11.823,17.646999,8.5714,10.413,12.385,18.357,17.455999,8.5668,7.6825,2.9412,6.6345
17.945999,14.349,21.462999,3.9216,6.8966,9.4959,4.8309,-1.0356,3.8188,3.9216,6.8966,14.706,14.286,17.079,15.229,22.222,21.32,-1.095,9.5873,4.902,10.499
13.207,13.397,18.537001,0.98039,-1.9704,3.6423,5.7971,-2.0065,-2.0065,0.98039,-1.9704,8.8235,19.048,22.794001,17.125,23.188,22.287001,-4.9597,4.8254,7.8431,10.499
11.311,11.492,14.634,-5.8824,-5.9113,-0.26016,1.9324,-3.9482,-2.9773,-5.8824,-5.9113,2.9412,22.857,24.698,20.916,23.188,23.253,0.83736,3.873,17.646999,16.296
6.5719,8.6349,6.8293,-12.745,-10.837,-3.187,-4.8309,-3.9482,-2.9773,-12.745,-10.837,-4.902,21.905001,22.794001,19.968,20.290001,19.388,5.6683,3.873,20.587999,15.33
1.8325,1.0159,0.97561,-16.667,-13.793,-5.1382,-9.6618,-6.8608,-8.8026,-16.667,-13.793,-9.8039,15.238,19.937,13.333,13.527,12.625,6.6345,-2.7937,16.667,7.6006
-6.6983,-7.5556,-5.8537,-20.587999,-19.704,-12.943,-12.56,-12.686,-14.628,-20.587999,-19.704,-14.706,4.7619,9.4603,1.0111,2.8986,1.9968,-5.9259,-0.88889,6.8627,5.6683
-3.8547,-5.6508,-3.9024,-13.725,-15.764,-10.016,-8.6957,-5.89,-11.715,-13.725,-15.764,-7.8431,2.8571,3.746,-0.88468,0.96618,0.06441,-4.9597,0.06349,5.8824,5.6683
0.88468,-1.8413,-0.97561,0.98039,-2.9557,-1.2358,-2.8986,1.877,-1.0356,0.98039,-2.9557,0.0,-0.95238,-2.9206,-0.88468,-0.96618,-0.90177,3.7359,-0.88889,3.9216,2.7697
6.5719,3.873,2.9268,9.8039,9.8522,7.5447,3.8647,7.7023,7.7023,9.8039,9.8522,8.8235,-2.8571,-3.873,1.0111,0.96618,0.06441,6.6345,1.0159,1.9608,3.7359
12.259,3.873,9.7561,10.784,17.733999,16.325001,9.6618,11.586,8.6731,10.784,17.733999,16.667,-7.619,-10.54,3.8547,0.96618,1.9968,13.398,2.9206,1.9608,-6.8921
17.945999,7.6825,17.561001,18.627001,22.66,22.179001,17.391001,11.586,11.586,18.627001,22.66,23.528999,-9.5238,-11.492,6.6983,3.8647,5.8615,15.33,1.9683,0.0,-11.723
27.424999,19.111,28.292999,18.627001,18.719,26.080999,24.155001,8.6731,10.615,18.627001,18.719,30.392,2.8571,-2.9206,19.021,15.459,18.422001,15.33,1.9683,6.8627,-2.0612
22.686001,16.254,24.389999,17.646999,13.793,19.252001,15.459,10.615,3.8188,17.646999,13.793,23.528999,7.619,2.7937,20.916,17.391001,20.354,11.465,-6.6032,7.8431,-3.9936
11.311,8.6349,11.707,12.745,8.867,3.6423,0.96618,12.557,-2.9773,12.745,8.867,7.8431,7.619,6.6032,19.021,13.527,16.49,8.5668,-10.413,7.8431,-3.9936
3.7283,3.873,3.9024,-1.9608,-1.9704,-10.016,-4.8309,7.7023,-7.8317,-1.9608,-1.9704,-4.902,10.476,14.222,17.125,13.527,14.557,6.6345,-5.6508,10.784,4.7021
-0.06319,-1.8413,-0.97561,-4.902,-6.8966,-10.016,-5.7971,3.8188,-8.8026,-4.902,-6.8966,-7.8431,11.429,13.27,13.333,6.7633,8.7601,3.7359,-6.6032,8.8235,5.6683
3.7283,-2.7937,0.97561,-8.8235,-6.8966,-5.1382,-3.8647,4.7896,-6.8608,-8.8235,-6.8966,-5.8824,15.238,14.222,14.281,4.8309,8.7601,6.6345,-7.5556,14.706,8.5668
5.624,-0.88889,3.9024,-12.745,-8.867,-1.2358,-3.8647,-0.06472,-6.8608,-12.745,-8.867,-4.902,17.143,20.889,13.333,8.6957,10.692,5.6683,-3.746,14.706,11.465
-0.06319,1.9683,0.97561,-14.706,-9.8522,-2.2114,-7.7295,-3.9482,-4.9191,-14.706,-9.8522,-6.8627,12.381,15.175,5.7504,7.7295,5.8615,1.8035,4.8254,7.8431,9.533
-3.8547,1.9683,-2.9268,-4.902,-6.8966,-7.0894,-7.7295,-7.8317,-5.89,-4.902,-6.8966,-7.8431,6.6667,6.6032,-1.8325,2.8986,0.06441,1.8035,4.8254,2.9412,3.7359
-4.8025,3.873,-3.9024,-1.9608,-5.9113,-8.065,-2.8986,-8.8026,0.90615,-1.9608,-5.9113,-5.8824,0.0,1.8413,-7.5197,0.0,-3.8003,-3.9936,9.5873,-1.9608,8.5668
-1.9589,1.9683,-2.9268,-6.8627,-4.9261,-6.1138,5.7971,-10.744,2.8479,-6.8627,-4.9261,-0.98039,-5.7143,-3.873,-9.4155,-3.8647,-5.7327,-5.9259,11.492,-3.9216,5.6683
3.7283,1.0159,1.9512,-7.8431,0.98522,2.6667,6.7633,-7.8317,8.6731,-7.8431,0.98522,4.902,-10.476,-10.54,-5.624,-5.7971,-4.7665,-2.0612,11.492,-6.8627,-7.8583
10.363,3.873,9.7561,8.8235,7.8818,10.472,7.7295,0.90615,12.557,8.8235,7.8818,9.8039,-11.429,-12.444,0.06319,-2.8986,-0.90177,3.7359,7.6825,-5.8824,-3.0274
12.259,2.9206,11.707,10.784,4.9261,7.5447,5.7971,7.7023,7.7023,10.784,4.9261,6.8627,-5.7143,-4.8254,7.6461,0.0,4.8953,-3.0274,2.9206,-3.9216,-3.0274
14.155,7.6825,14.634,0.98039,-4.9261,5.5935,2.8986,7.7023,-1.0356,0.98039,-4.9261,3.9216,6.6667,8.5079,16.177,8.6957,12.625,-1.095,6.7302,3.9216,-2.0612
16.051001,12.444,16.584999,-6.8627,-5.9113,9.4959,3.8647,6.7314,-2.9773,-6.8627,-5.9113,4.902,17.143,17.079,21.864,17.391001,19.388,6.6345,7.6825,9.8039,10.499
9.4155,9.5873,8.7805,-12.745,-5.9113,4.6179,-0.96618,-0.06472,0.90615,-12.745,-5.9113,0.0,16.190001,16.127001,16.177,13.527,13.591,5.6683,5.7778,4.902,6.6345
-1.0111,-0.88889,-1.9512,1.9608,-5.9113,-5.1382,-7.7295,-2.0065,-0.06472,1.9608,-5.9113,-5.8824,12.381,12.317,5.7504,2.8986,2.963,-7.8583,-0.88889,2.9412,-4.9597
-7.6461,-7.5556,-8.7805,1.9608,-9.8522,-8.065,-6.7633,-0.06472,-4.9191,1.9608,-9.8522,-9.8039,10.476,12.317,0.06319,-2.8986,-4.7665,-4.9597,-6.6032,7.8431,-5.9259
-8.594,-7.5556,-9.7561,-6.8627,-12.808,-5.1382,-4.8309,-2.0065,-7.8317,-6.8627,-12.808,-10.784,7.619,10.413,-3.7283,-3.8647,-7.6651,-1.095,-4.6984,3.9216,3.7359
-12.385,-12.317,-14.634,-12.745,-10.837,-12.943,-14.493,-2.0065,-10.744,-12.745,-10.837,-17.646999,0.95238,1.8413,-10.363,-9.6618,-13.462,-3.0274,-7.5556,-3.9216,-3.9936
-12.385,-7.5556,-16.584999,-7.8431,-1.9704,-15.87,-13.527,-1.0356,-1.0356,-7.8431,-1.9704,-17.646999,-3.8095,-1.9683,-13.207,-7.7295,-14.428,-3.0274,-3.746,-8.8235,-3.0274
-12.385,0.06349,-13.659,-6.8627,-2.9557,-11.967,-2.8986,-2.9773,-0.06472,-6.8627,-2.9557,-11.765,-6.6667,-1.9683,-14.155,-1.9324,-13.462,-3.9936,1.9683,-8.8235,4.7021
-9.5419,3.873,-6.8293,-5.8824,-4.9261,-7.0894,1.9324,-7.8317,-1.0356,-5.8824,-4.9261,-4.902,-9.5238,-4.8254,-12.259,0.96618,-9.5974,-0.12882,6.7302,-4.902,7.6006
-2.9068,3.873,1.9512,3.9216,5.9113,-0.26016,4.8309,-2.0065,6.7314,3.9216,5.9113,5.8824,-6.6667,-1.9683,-5.624,3.8647,-2.8341,7.6006,10.54,-1.9608,9.533
3.7283,-1.8413,6.8293,8.8235,12.808,11.447,4.8309,8.6731,9.644,8.8235,12.808,14.706,-2.8571,1.8413,-3.7283,0.96618,0.06441,5.6683,5.7778,-8.8235,0.83736
9.4155,-8.5079,5.8537,10.784,10.837,12.423,1.9324,11.586,3.8188,10.784,10.837,13.725,0.0,-2.9206,1.0111,-4.8309,1.9968,2.7697,-0.88889,-3.9216,-7.8583
16.051001,-6.6032,8.7805,8.8235,4.9261,10.472,5.7971,8.6731,-1.0356,8.8235,4.9261,11.765,5.7143,-3.873,13.333,-2.8986,7.7939,12.432,-3.746,6.8627,-4.9597
17.945999,1.9683,12.683,5.8824,1.9704,8.5203,3.8647,4.7896,-2.0065,5.8824,1.9704,11.765,10.476,3.746,20.916,3.8647,12.625,13.398,-2.7937,14.706,2.7697
14.155,2.9206,9.7561,7.8431,3.9409,6.5691,0.0,2.8479,2.8479,7.8431,3.9409,9.8039,10.476,2.7937,20.916,3.8647,11.659,4.7021,-1.8413,17.646999,0.83736
8.4676,1.0159,3.9024,7.8431,3.9409,2.6667,-0.96618,2.8479,3.8188,7.8431,3.9409,3.9216,10.476,2.7937,16.177,2.8986,6.8277,8.5668,-3.746,12.745,-1.095
0.88468,-1.8413,-1.9512,0.98039,2.9557,-1.2358,-4.8309,0.90615,0.90615,0.98039,2.9557,-1.9608,8.5714,4.6984,10.49,0.96618,2.963,6.6345,-3.746,11.765,0.83736
-2.9068,-1.8413,-3.9024,0.0,3.9409,-7.0894,-2.8986,-5.89,2.8479,0.0,3.9409,-4.902,5.7143,3.746,6.6983,0.0,0.06441,3.7359,0.06349,14.706,-2.0612
-4.8025,1.0159,-2.9268,-3.9216,2.9557,-9.0407,-1.9324,-14.628,0.90615,-3.9216,2.9557,-5.8824,5.7143,6.6032,4.8025,2.8986,1.0306,-3.9936,-1.8413,8.8235,-0.12882
-3.8547,1.9683,-3.9024,-0.98039,6.8966,-6.1138,0.96618,-11.715,3.8188,-0.98039,6.8966,-4.902,4.7619,9.4603,3.8547,4.8309,1.9968,-3.0274,0.06349,4.902,3.7359
-8.594,0.06349,-9.7561,2.9412,6.8966,-10.016,0.0,-11.715,2.8479,2.9412,6.8966,-8.8235,0.95238,7.5556,0.06319,3.8647,-2.8341,-0.12882,1.9683,1.9608,10.499
-10.49,-0.88889,-11.707,6.8627,6.8966,-8.065,0.0,-12.686,1.877,6.8627,6.8966,-7.8431,-2.8571,5.6508,-4.6761,0.96618,-5.7327,-2.0612,3.873,-4.902,14.364
-11.438,-1.8413,-9.7561,7.8431,13.793,-3.187,0.96618,-3.9482,5.7605,7.8431,13.793,-3.9216,-2.8571,2.7937,-8.4676,-1.9324,-7.6651,-9.7907,1.9683,-5.8824,5.6683
-13.333,-7.5556,-11.707,8.8235,13.793,-5.1382,0.0,-1.0356,4.7896,8.8235,13.793,-4.902,-6.6667,-4.8254,-12.259,-6.7633,-10.564,-10.757,1.9683,-9.8039,-1.095
-4.8025,-7.5556,-4.878,12.745,6.8966,-0.26016,0.96618,1.877,0.90615,12.745,6.8966,-1.9608,-4.7619,-6.7302,-3.7283,-5.7971,-4.7665,1.8035,5.7778,-2.9412,0.83736
2.7804,1.0159,4.878,14.706,12.808,5.5935,10.628,6.7314,10.615,14.706,12.808,5.8824,0.95238,-3.873,2.9068,0.96618,2.963,4.7021,3.873,0.98039,-1.095
2.7804,5.7778,8.7805,13.725,19.704,8.5203,12.56,7.7023,18.382,13.725,19.704,9.8039,1.9048,-1.0159,1.0111,2.8986,2.963,0.83736,-1.8413,0.0,-4.9597
0.88468,4.8254,5.8537,15.686,18.719,10.472,10.628,3.8188,14.498,15.686,18.719,9.8039,1.9048,0.88889,-0.88468,0.0,1.0306,-2.0612,1.0159,-4.902,-8.8245
0.88468,4.8254,5.8537,7.8431,8.867,5.5935,8.6957,-1.0356,6.7314,7.8431,8.867,7.8431,2.8571,2.7937,1.0111,-0.96618,1.0306,-1.095,2.9206,-2.9412,-9.7907
0.88468,2.9206,5.8537,4.902,3.9409,0.71545,3.8647,-0.06472,1.877,4.902,3.9409,5.8824,4.7619,3.746,1.9589,0.96618,1.9968,-3.9936,2.9206,2.9412,-2.0612
0.88468,0.06349,4.878,3.9216,-0.98522,-3.187,-0.96618,-0.06472,-2.0065,3.9216,-0.98522,2.9412,6.6667,5.6508,4.8025,1.9324,2.963,-3.9936,1.0159,7.8431,7.6006
0.88468,-5.6508,0.0,-1.9608,-6.8966,-3.187,-5.7971,2.8479,-4.9191,-1.9608,-6.8966,-3.9216,7.619,4.6984,7.6461,-1.9324,1.9968,5.6683,-3.746,14.706,5.6683
0.88468,-8.5079,-2.9268,0.98039,-8.867,-3.187,-6.7633,5.7605,-8.8026,0.98039,-8.867,-8.8235,8.5714,2.7937,6.6983,-3.8647,1.0306,11.465,-7.5556,13.725,2.7697
-0.06319,-10.413,-4.878,0.0,-11.823,-4.1626,-11.594,6.7314,-10.744,0.0,-11.823,-9.8039,6.6667,0.88889,7.6461,-5.7971,0.06441,11.465,-13.27,19.608,-5.9259
4.6761,-10.413,-2.9268,-4.902,-3.9409,3.6423,-7.7295,8.6731,-7.8317,-4.902,-3.9409,-3.9216,7.619,1.8413,10.49,-8.6957,-0.90177,16.296,-15.175,21.569,-12.689
2.7804,-12.317,-2.9268,0.0,-2.9557,1.6911,-7.7295,7.7023,-6.8608,0.0,-2.9557,-3.9216,7.619,-1.9683,7.6461,-11.594,-2.8341,12.432,-11.365,14.706,-11.723
-2.9068,-14.222,-5.8537,0.98039,-4.9261,-4.1626,-8.6957,7.7023,-7.8317,0.98039,-4.9261,-5.8824,0.95238,-7.6825,0.06319,-13.527,-6.6989,6.6345,-11.365,5.8824,-10.757
-6.6983,-14.222,-8.7805,-2.9412,-6.8966,-9.0407,-9.6618,4.7896,-7.8317,-2.9412,-6.8966,-10.784,-1.9048,-7.6825,-3.7283,-13.527,-8.6312,6.6345,-11.365,2.9412,-8.8245
-11.438,-13.27,-13.659,-9.8039,-13.793,-13.919,-14.493,-4.9191,-10.744,-9.8039,-13.793,-17.646999,-4.7619,-7.6825,-6.5719,-10.628,-10.564,-2.0612,-7.5556,2.9412,-2.0612
-17.125,-13.27,-17.561001,-15.686,-19.704,-13.919,-15.459,-5.89,-15.599,-15.686,-19.704,-20.587999,-6.6667,-6.7302,-13.207,-10.628,-14.428,-4.9597,-9.4603,-2.9412,-0.12882
-15.229,-11.365,-14.634,-6.8627,-16.749001,-11.967,-11.594,-2.0065,-10.744,-6.8627,-16.749001,-14.706,-4.7619,-3.873,-13.207,-9.6618,-13.462,0.83736,-7.5556,-3.9216,3.7359
-17.125,-10.413,-14.634,-9.8039,-12.808,-15.87,-9.6618,-4.9191,-7.8317,-9.8039,-12.808,-12.745,-8.5714,-6.7302,-15.103,-11.594,-15.395,-3.9936,-5.6508,-3.9216,2.7697
-19.021,-9.4603,-14.634,-15.686,-11.823,-18.797001,-10.628,-11.715,-8.8026,-15.686,-11.823,-13.725,-11.429,-6.7302,-16.997999,-10.628,-16.361,-13.655,-2.7937,-7.8431,-2.0612
-13.333,-2.7937,-7.8049,-16.667,-8.867,-14.894,-2.8986,-8.8026,-2.0065,-16.667,-8.867,-8.8235,-9.5238,-2.9206,-14.155,-4.8309,-10.564,-9.7907,2.9206,-12.745,-3.9936
-4.8025,1.0159,-0.97561,-7.8431,-5.9113,-2.2114,3.8647,-7.8317,1.877,-7.8431,-5.9113,0.98039,-6.6667,-4.8254,-10.363,-1.9324,-6.6989,-7.8583,1.0159,-10.784,-3.0274
-1.0111,2.9206,6.8293,-0.98039,0.98522,5.5935,8.6957,-5.89,3.8188,-0.98039,0.98522,9.8039,-4.7619,-2.9206,-7.5197,0.96618,-2.8341,-8.8245,1.9683,-6.8627,3.7359
-1.0111,4.8254,7.8049,-2.9412,4.9261,9.4959,7.7295,-2.9773,5.7605,-2.9412,4.9261,12.745,-6.6667,-0.06349,-8.4676,1.9324,-1.868,-7.8583,8.6349,-8.8235,11.465
-8.594,-0.88889,-0.97561,-2.9412,0.98522,4.6179,4.8309,-5.89,4.7896,-2.9412,0.98522,7.8431,-12.381,-7.6825,-16.997999,-5.7971,-10.564,-18.486,5.7778,-18.627001,1.8035
-5.7504,0.06349,-2.9268,1.9608,4.9261,2.6667,8.6957,-1.0356,3.8188,1.9608,4.9261,7.8431,-11.429,-7.6825,-16.051001,-5.7971,-9.5974,-12.689,4.8254,-17.646999,-5.9259
-0.06319,0.06349,-0.97561,-0.98039,1.9704,7.5447,5.7971,5.7605,3.8188,-0.98039,1.9704,7.8431,-8.5714,-5.7778,-9.4155,-4.8309,-5.7327,-1.095,1.9683,-10.784,-4.9597
-4.8025,-8.5079,-8.7805,-8.8235,-6.8966,-2.2114,-4.8309,1.877,-4.9191,-8.8235,-6.8966,-2.9412,-13.333,-13.397,-10.363,-13.527,-11.53,-3.9936,-4.6984,-11.765,-6.8921
-5.7504,-13.27,-11.707,-6.8627,-9.8522,-8.065,-8.6957,-1.0356,-7.8317,-6.8627,-9.8522,-8.8235,-11.429,-16.254,-5.624,-17.391001,-12.496,-2.0612,-6.6032,-2.9412,-6.8921
-1.9589,-13.27,-11.707,0.0,-7.8818,-5.1382,-5.7971,-2.0065,-4.9191,0.0,-7.8818,-9.8039,-6.6667,-12.444,1.0111,-15.459,-9.5974,5.6683,-4.6984,0.98039,-5.9259
-0.06319,-10.413,-10.732,0.0,-6.8966,-7.0894,-11.594,-0.06472,-4.9191,0.0,-6.8966,-10.784,-4.7619,-9.5873,3.8547,-12.56,-6.6989,4.7021,-1.8413,3.9216,-2.0612
-1.9589,-9.4603,-9.7561,-8.8235,-9.8522,-8.065,-15.459,-2.9773,-4.9191,-8.8235,-9.8522,-11.765,-3.8095,-5.7778,3.8547,-9.6618,-4.7665,1.8035,-6.6032,3.9216,-8.8245
0.88468,-4.6984,-0.97561,-3.9216,-5.9113,-3.187,-6.7633,-3.9482,-3.9482,-3.9216,-5.9113,-4.902,-0.95238,-2.9206,2.9068,-3.8647,1.0306,0.83736,-3.746,3.9216,-9.7907
4.6761,1.9683,6.8293,-2.9412,-0.98522,2.6667,0.0,-2.9773,-2.9773,-2.9412,-0.98522,1.9608,1.9048,-0.06349,4.8025,2.8986,5.8615,-2.0612,0.06349,4.902,1.8035
1.8325,5.7778,8.7805,-9.8039,-0.98522,2.6667,1.9324,-7.8317,-2.0065,-9.8039,-0.98522,3.9216,0.95238,2.7937,1.9589,7.7295,6.8277,-8.8245,1.9683,0.0,8.5668
-0.06319,10.54,10.732,-7.8431,-2.9557,1.6911,5.7971,-12.686,-3.9482,-7.8431,-2.9557,5.8824,-0.95238,3.746,-1.8325,8.6957,5.8615,-8.8245,6.7302,-1.9608,6.6345
2.7804,19.111,17.561001,-6.8627,-0.98522,4.6179,14.493,-10.744,1.877,-6.8627,-0.98522,11.765,1.9048,10.413,-0.88468,15.459,10.692,-8.8245,11.492,-2.9412,10.499
4.6761,20.063,21.462999,-4.902,1.9704,9.4959,12.56,-6.8608,3.8188,-4.902,1.9704,15.686,0.0,9.4603,-2.7804,15.459,10.692,-15.588,13.397,-7.8431,12.432
6.5719,16.254,20.488001,7.8431,7.8818,12.423,13.527,1.877,4.7896,7.8431,7.8818,19.608,-3.8095,3.746,-3.7283,10.628,7.7939,-5.9259,10.54,-8.8235,15.33
5.624,7.6825,13.659,13.725,6.8966,12.423,12.56,6.7314,3.8188,13.725,6.8966,18.627001,-8.5714,-4.8254,-4.6761,1.9324,2.963,0.83736,1.9683,-10.784,0.83736
3.7283,3.873,7.8049,9.8039,7.8818,7.5447,8.6957,9.644,3.8188,9.8039,7.8818,12.745,-9.5238,-6.7302,-4.6761,-1.9324,0.06441,0.83736,-2.7937,-13.725,-9.7907
4.6761,3.873,5.8537,7.8431,10.837,10.472,9.6618,8.6731,4.7896,7.8431,10.837,8.8235,-5.7143,-4.8254,-0.88468,-0.96618,1.9968,2.7697,1.0159,-9.8039,-8.8245
4.6761,0.06349,1.9512,7.8431,5.9113,8.5203,1.9324,6.7314,0.90615,7.8431,5.9113,3.9216,-2.8571,-1.9683,0.06319,0.0,1.9968,1.8035,1.9683,-3.9216,-6.8921
4.6761,-4.6984,-0.97561,8.8235,2.9557,3.6423,-3.8647,7.7023,-1.0356,8.8235,2.9557,0.0,-1.9048,-3.873,0.06319,-2.8986,1.0306,6.6345,-2.7937,0.0,-5.9259
2.7804,-5.6508,-2.9268,5.8824,0.0,4.6179,-4.8309,10.615,-2.9773,5.8824,0.0,-0.98039,-0.95238,-4.8254,3.8547,-3.8647,0.06441,16.296,-6.6032,8.8235,-3.0274
-1.0111,-5.6508,-6.8293,6.8627,-4.9261,-0.26016,-6.7633,8.6731,-10.744,6.8627,-4.9261,-5.8824,-0.95238,-3.873,2.9068,-2.8986,-1.868,13.398,-5.6508,6.8627,-0.12882
-7.6461,-7.5556,-13.659,-6.8627,-15.764,-9.0407,-13.527,-0.06472,-10.744,-6.8627,-15.764,-13.725,-0.95238,-0.06349,0.06319,-2.8986,-5.7327,3.7359,-3.746,2.9412,-2.0612
-1.0111,-5.6508,-10.732,-11.765,-13.793,-7.0894,-10.628,-4.9191,-7.8317,-11.765,-13.793,-13.725,3.8095,2.7937,6.6983,-0.96618,-0.90177,5.6683,1.0159,9.8039,-3.0274
3.7283,-7.5556,-6.8293,-15.686,-14.778,-4.1626,-14.493,-6.8608,-9.7735,-15.686,-14.778,-13.725,7.619,1.8413,13.333,-0.96618,3.9291,4.7021,-4.6984,15.686,-3.0274
