C3,C4,Cz,F1,F2,F3,F4,F7,F8,Fp1,Fp2,Fz,O1,O2,P3,P4,Pz,T3,T4,T5,T6
-0.12638,-4.3381,-1.8862,9.7386,1.3201,-0.26016,-5.2033,9.644,5.1382,9.7386,1.3201,-4.6434,-1.2698,-6.4127,-1.7778,-3.8647,-5.7327,-0.83736,11.556,0.0,6.9565
4.297,-1.1483,0.71545,5.1634,8.5809,1.6911,0.0,16.117001,9.6911,5.1634,8.5809,-2.6534,-1.9048,-7.6825,-0.50794,-4.5089,-4.4444,-10.499,14.095,-2.6273,-0.12882
16.302999,11.611,10.472,8.4314,17.162001,14.699,9.1057,20.646999,17.496,8.4314,17.162001,8.6235,8.8889,5.6508,13.46,8.3736,8.438,11.401,20.444,11.166,6.9565
2.4013,0.12759,-5.1382,13.66,14.521,1.6911,-0.65041,7.7023,11.642,13.66,14.521,-1.99,-0.63492,-4.5079,2.0317,-2.5765,-2.5121,10.757,-1.1429,-1.9704,-3.9936
-3.9179,-4.3381,-7.7398,18.889,14.521,-9.3659,-2.6016,3.1715,15.545,18.889,14.521,-6.6335,-6.9841,-14.032,-3.0476,-7.7295,-7.6651,-2.1256,2.6667,-6.5681,-3.3494
6.1927,9.697,13.073,25.424999,21.782,1.0407,9.7561,9.644,24.0,25.424999,21.782,5.9701,0.0,-3.2381,9.0159,5.7971,7.7939,7.5362,16.0,1.9704,6.9565
6.1927,15.439,20.228001,22.809999,21.782,6.2439,14.309,10.291,23.35,22.809999,21.782,9.9502,0.0,6.2857,10.286,14.815,14.235,24.927999,16.0,-0.65681,12.754
12.512,19.266001,22.829,22.157,25.743,12.098,19.511999,12.88,27.252001,22.157,25.743,15.257,7.619,13.905,15.365,21.256001,18.743999,32.013,23.618999,10.509,23.059999
4.9289,16.715,14.374,14.314,22.441999,8.1951,17.561001,3.1715,23.35,14.314,22.441999,11.277,5.0794,11.365,7.746,17.391001,11.014,-12.432,18.540001,0.0,21.771
-0.75829,12.887,7.2195,11.046,20.462,2.3415,13.659,-0.06472,18.797001,11.046,20.462,8.6235,3.1746,8.1905,1.3968,11.594,4.5733,-29.179001,15.365,-6.5681,13.398
1.1374,8.4211,3.9675,12.353,18.482,1.0407,11.057,1.2298,13.593,12.353,18.482,5.9701,6.3492,8.1905,3.3016,7.7295,3.9291,-15.008,10.921,-7.225,5.6683
4.297,2.0415,0.06504,14.314,17.162001,1.0407,6.5041,1.877,14.894,14.314,17.162001,1.99,6.9841,5.6508,5.8413,3.2206,2.6409,12.045,10.286,-7.8818,1.1594
6.8246,1.4035,0.71545,13.007,18.482,2.9919,5.8537,5.1133,18.797001,13.007,18.482,1.99,7.619,0.57143,9.0159,0.64412,3.285,9.4686,10.921,2.6273,-0.77295
-0.75829,1.4035,0.71545,11.046,16.502001,-2.8618,6.5041,7.055,15.545,11.046,16.502001,0.0,2.5397,-5.7778,2.6667,-3.2206,0.06441,-1.4815,4.5714,0.65681,-7.8583
-7.7093,0.12759,0.06504,8.4314,15.182,-8.065,3.9024,4.466,10.341,8.4314,15.182,-3.3167,0.0,-7.6825,-4.3175,-5.153,-3.1562,-0.19324,2.0317,0.65681,-7.2142
0.50553,3.3174,7.2195,16.275,19.802,-0.26016,5.2033,10.291,14.894,16.275,19.802,2.6534,2.5397,-1.9683,0.7619,1.9324,1.9968,-5.9903,4.5714,3.2841,5.0242
7.4566,2.6794,7.8699,26.077999,21.782,4.2927,4.5528,13.528,14.894,26.077999,21.782,4.6434,0.0,-2.6032,2.6667,1.2882,1.3527,-4.7021,3.3016,1.9704,7.6006
6.1927,-0.51037,2.6667,20.85,14.521,2.9919,1.3008,8.3495,6.439,20.85,14.521,0.0,-1.9048,-1.9683,2.0317,-1.2882,-1.2238,2.3833,2.6667,-2.6273,4.38
6.8246,0.76555,4.6179,20.195999,11.221,10.797,3.252,12.88,7.7398,20.195999,11.221,2.6534,-1.2698,-1.9683,4.5714,0.0,0.70853,10.113,5.2063,0.65681,2.4477
-0.75829,0.76555,3.9675,20.85,11.881,6.2439,0.65041,10.291,5.1382,20.85,11.881,-0.66335,-5.0794,-6.4127,-0.50794,-3.2206,-1.2238,-12.432,-0.50794,-4.5977,-3.9936
-2.654,3.3174,5.9187,18.889,13.201,1.6911,1.9512,9.644,2.5366,18.889,13.201,-1.99,-7.619,-5.7778,-4.3175,0.64412,-0.57971,-49.791,-3.0476,-12.479,1.1594
-5.1817,-1.1483,3.3171,14.967,11.881,-0.26016,0.65041,8.3495,1.8862,14.967,11.881,-1.99,-9.5238,-5.1429,-6.2222,0.64412,-2.5121,-0.19324,-1.7778,-9.1954,4.38
-10.237,-7.5279,-5.1382,10.392,11.881,-4.1626,-3.9024,2.5243,3.187,10.392,11.881,-5.9701,-11.429,-6.4127,-7.4921,-2.5765,-5.7327,37.166,2.0317,-7.225,2.4477
-4.5498,-7.5279,-6.439,13.66,15.182,-2.8618,-5.2033,3.8188,4.4878,13.66,15.182,-5.3068,-8.8889,-4.5079,-4.9524,-2.5765,-6.3768,17.198,-3.0476,-5.2545,0.5153
-2.0221,-6.89,-4.4878,14.967,9.901,-3.5122,-5.8537,5.1133,1.8862,14.967,9.901,-7.2968,-5.0794,-5.7778,-3.0476,-5.153,-5.7327,8.1804,-3.0476,-0.65681,-3.9936
-1.3902,-0.51037,2.0163,17.582001,10.561,-3.5122,1.3008,5.1133,5.7886,17.582001,10.561,-5.3068,0.63492,-3.873,-0.50794,-2.5765,0.06441,-1.4815,1.3968,-3.9409,-4.6377
4.297,6.5072,9.1707,22.157,17.162001,4.9431,7.1545,11.586,10.341,22.157,17.162001,1.99,7.619,3.1111,3.9365,5.153,7.1498,-16.940001,5.2063,1.3136,1.8035
-7.0774,2.0415,1.3659,11.699,17.822001,-1.561,3.252,3.1715,5.7886,11.699,17.822001,-0.66335,1.9048,-0.06349,-4.3175,1.9324,1.9968,-0.19324,-4.9524,-5.9113,-0.12882
-14.028,-3.7002,-4.4878,9.085,15.182,-4.813,-0.65041,-3.301,3.187,9.085,15.182,-4.6434,-4.4444,-4.5079,-9.3968,-3.2206,-1.2238,1.095,-7.4921,-13.793,-5.2818
-5.8136,-0.51037,1.3659,15.621,16.502001,2.3415,3.252,0.58252,7.0894,15.621,16.502001,-0.66335,-2.5397,-0.69841,-3.0476,0.64412,2.6409,-9.2109,2.0317,-5.9113,-0.77295
-0.75829,2.6794,6.5691,12.353,12.541,0.39024,3.252,2.5243,5.7886,12.353,12.541,1.99,-2.5397,-1.3333,0.7619,1.9324,3.9291,-20.160999,5.2063,-6.5681,-2.7053
1.1374,3.9553,8.5203,7.7778,3.3003,0.39024,4.5528,5.1133,0.58537,7.7778,3.3003,3.3167,-1.2698,-3.2381,2.6667,3.2206,4.5733,-0.83736,3.3016,-3.2841,2.4477
4.297,7.1451,8.5203,14.967,1.9802,4.9431,9.1057,8.3495,1.2358,14.967,1.9802,7.2968,3.1746,2.4762,7.1111,7.7295,7.7939,22.351,6.4762,10.509,6.9565
-1.3902,-1.7863,0.71545,11.046,7.2607,1.0407,0.65041,1.2298,-3.3171,11.046,7.2607,0.66335,-2.5397,-5.1429,0.7619,-1.9324,-0.57971,-13.72,-10.667,3.2841,-8.5024
-0.75829,-6.89,-1.8862,3.8562,8.5809,4.2927,-3.9024,0.58252,-8.5203,3.8562,8.5809,-2.6534,-4.4444,-10.857,-1.7778,-8.3736,-6.3768,-17.584999,-18.285999,-5.2545,-13.655
2.4013,1.4035,3.9675,6.4706,8.5809,10.146,3.252,1.2298,-5.2683,6.4706,8.5809,1.99,4.4444,-0.69841,4.5714,0.64412,0.70853,1.7391,-7.4921,5.9113,-6.57
3.0332,5.8692,7.2195,9.7386,7.9208,8.1951,5.8537,1.2298,-4.6179,9.7386,7.9208,5.9701,6.3492,5.6508,6.4762,7.0853,5.8615,18.486,-1.7778,7.8818,3.7359
5.5608,3.3174,3.9675,18.235001,13.861,6.2439,2.6016,5.7605,-1.3659,18.235001,13.861,5.9701,3.1746,1.8413,3.3016,3.2206,2.6409,4.3156,-8.7619,7.225,0.5153
11.88,4.5933,9.8211,27.386,13.861,11.447,1.9512,14.175,2.5366,27.386,13.861,8.6235,6.3492,3.746,9.0159,5.7971,7.1498,-7.2786,2.0317,9.1954,-0.77295
11.248,2.0415,10.472,18.889,7.2607,11.447,-1.9512,11.586,-3.3171,18.889,7.2607,5.9701,4.4444,2.4762,9.0159,4.5089,8.438,-0.19324,-3.0476,1.3136,-3.9936
2.4013,-4.9761,0.71545,14.314,1.9802,4.9431,-5.8537,5.7605,-7.2195,14.314,1.9802,-1.99,-3.8095,-6.4127,1.3968,-3.2206,0.06441,11.401,-15.111,-3.2841,-5.9259
-2.0221,-7.5279,-7.0894,14.967,9.2409,3.6423,-4.5528,1.2298,-6.5691,14.967,9.2409,-4.6434,-7.619,-11.492,-2.4127,-9.0177,-5.0886,4.3156,-16.381001,-3.2841,-10.435
-3.2859,-5.614,-9.0407,9.7386,16.502001,2.9919,-0.65041,1.2298,1.2358,9.7386,16.502001,-4.6434,-5.7143,-10.857,-2.4127,-9.6618,-5.0886,3.6715,-10.032,-3.9409,-11.079
-2.654,-3.7002,-6.439,9.7386,14.521,-5.4634,-1.3008,0.58252,3.187,9.7386,14.521,-5.9701,-0.63492,-3.873,0.7619,-3.2206,-1.2238,13.333,1.3968,-1.9704,-0.77295
5.5608,3.3174,3.3171,16.927999,15.842,-4.813,1.3008,3.1715,5.1382,16.927999,15.842,-2.6534,6.3492,7.5556,9.0159,7.0853,9.0821,-0.19324,7.746,11.166,8.2448
11.248,7.1451,5.2683,15.621,15.182,4.9431,4.5528,5.1133,7.7398,15.621,15.182,0.0,8.8889,9.4603,11.556,8.3736,11.659,-2.7697,10.921,7.8818,7.6006
-1.3902,0.76555,-7.7398,8.4314,7.9208,-2.8618,-1.9512,-0.71197,3.187,8.4314,7.9208,-6.6335,0.63492,1.2063,-1.7778,-2.5765,0.70853,-34.976002,-2.4127,-9.8522,-9.7907
-11.501,-6.89,-12.943,3.2026,-2.6403,-10.667,-9.7561,-7.1845,-3.9675,3.2026,-2.6403,-11.94,-5.7143,-4.5079,-10.032,-5.7971,-5.0886,-36.908001,-11.302,-13.136,-7.2142
-7.0774,-8.8038,-5.7886,3.2026,-3.9604,-9.3659,-7.8049,-6.5372,-8.5203,3.2026,-3.9604,-10.614,-0.63492,-2.6032,-3.6825,-2.5765,-1.2238,15.266,-5.5873,0.0,0.5153
3.0332,-3.7002,2.6667,1.8954,0.66007,-2.2114,-3.9024,-0.71197,-5.9187,1.8954,0.66007,-5.9701,5.7143,1.2063,5.2063,1.2882,3.9291,17.198,7.746,13.793,2.4477
-0.12638,-6.252,-1.8862,-4.6405,-1.3201,-4.813,-9.1057,-6.5372,-8.5203,-4.6405,-1.3201,-8.6235,-0.63492,-3.2381,0.12698,-1.9324,-1.868,-0.19324,-1.1429,0.0,1.8035
-8.9731,-10.08,-8.3902,-2.6797,-1.9802,-10.016,-14.959,-5.89,-11.772,-2.6797,-1.9802,-11.277,-7.619,-5.7778,-9.3968,-7.0853,-8.3092,-22.738001,-13.206,-13.136,-6.57
-5.1817,-1.7863,-5.7886,12.353,3.9604,-6.7642,-7.1545,4.466,-8.5203,12.353,3.9604,-3.9801,-3.8095,-0.69841,-6.8571,-3.2206,-5.7327,-8.5668,-11.302,-1.3136,-7.2142
-3.2859,-4.3381,-5.7886,18.889,7.2607,-2.8618,-5.2033,3.8188,-7.2195,18.889,7.2607,-2.6534,-3.8095,1.2063,-4.9524,-3.2206,-5.0886,1.095,-9.3968,0.0,0.5153
-0.75829,-6.252,-1.8862,11.046,9.2409,3.6423,-1.9512,-0.06472,-4.6179,11.046,9.2409,-0.66335,-2.5397,3.1111,-1.7778,-1.9324,-3.1562,16.554001,-3.0476,2.6273,3.0918
11.248,0.76555,8.5203,11.699,13.201,11.447,4.5528,8.9968,1.2358,11.699,13.201,6.6335,5.0794,6.2857,9.0159,2.5765,3.9291,12.689,3.3016,9.8522,3.0918
9.9842,-4.3381,5.9187,9.7386,5.2805,4.2927,-0.65041,8.9968,-3.9675,9.7386,5.2805,1.3267,3.8095,-1.9683,7.1111,-6.4412,-0.57971,-14.364,-13.206,1.9704,-13.655
6.8246,-8.1659,5.2683,10.392,-0.66007,2.3415,-2.6016,4.466,-8.5203,10.392,-0.66007,0.0,1.9048,-7.0476,5.2063,-9.0177,-3.1562,-4.058,-14.476,2.6273,-10.435
8.7204,-5.614,7.2195,16.275,1.9802,7.5447,1.9512,8.9968,-5.2683,16.275,1.9802,4.6434,3.1746,-4.5079,9.0159,-4.5089,0.70853,21.063,-9.3968,6.5681,-2.0612
6.8246,-4.9761,3.3171,13.66,9.901,6.8943,2.6016,6.4078,-2.6667,13.66,9.901,3.9801,-1.9048,-7.6825,5.2063,-7.0853,-1.2238,18.486,-3.0476,0.0,-7.8583
6.1927,-0.51037,4.6179,9.085,16.502001,11.447,6.5041,7.7023,3.187,9.085,16.502001,7.2968,-2.5397,-3.2381,1.3968,-5.153,-1.2238,11.401,5.2063,0.65681,-3.9936
3.6651,0.12759,2.0163,11.046,15.842,10.797,5.8537,8.3495,1.8862,11.046,15.842,6.6335,-2.5397,-1.3333,-3.6825,-5.153,-2.5121,-13.076,-1.7778,-1.3136,-8.5024
0.50553,1.4035,2.0163,14.967,8.5809,4.9431,1.9512,5.7605,1.2358,14.967,8.5809,3.9801,-1.9048,0.57143,-4.3175,-1.2882,-0.57971,-7.9227,-5.5873,0.0,-0.12882
3.0332,2.6794,4.6179,13.007,9.2409,8.1951,3.252,6.4078,3.8374,13.007,9.2409,5.3068,3.1746,4.381,1.3968,4.5089,4.5733,25.572001,5.2063,5.9113,10.821
1.1374,0.76555,2.0163,6.4706,1.9802,2.3415,3.252,1.2298,-0.06504,6.4706,1.9802,0.66335,0.63492,0.57143,0.12698,1.2882,2.6409,20.419001,8.381,-1.3136,3.7359
-1.3902,-1.1483,0.06504,7.1242,-1.3201,-2.2114,1.9512,-1.3592,-1.3659,7.1242,-1.3201,-1.99,-3.1746,-1.9683,-3.6825,-2.5765,-1.868,2.3833,-3.0476,-5.9113,-5.2818
1.7694,-1.7863,2.0163,7.1242,5.2805,1.6911,-0.65041,4.466,-2.0163,7.1242,5.2805,-1.3267,0.63492,5.6508,-0.50794,1.2882,0.70853,-16.940001,6.4762,-1.9704,-0.12882
6.1927,6.5072,5.9187,7.1242,4.6205,3.6423,0.0,7.055,0.58537,7.1242,4.6205,0.66335,7.619,13.905,6.4762,10.95,9.0821,-23.382,6.4762,7.225,6.9565
1.7694,6.5072,1.3659,-3.3333,4.6205,-0.26016,-1.3008,1.2298,0.58537,-3.3333,4.6205,-1.99,8.254,13.27,5.8413,11.594,8.438,4.9597,-4.9524,5.9113,4.38
1.1374,1.4035,0.06504,1.2418,6.6007,2.3415,-1.3008,-0.06472,-1.3659,1.2418,6.6007,-0.66335,6.9841,10.73,3.9365,8.3736,5.2174,21.063,-1.1429,1.3136,6.3124
-5.1817,-6.89,-3.8374,1.8954,-1.3201,-2.2114,-7.8049,-3.9482,-7.2195,1.8954,-1.3201,-3.3167,0.0,-0.06349,-4.3175,-1.9324,-2.5121,17.841999,-7.4921,-4.5977,-2.0612
-11.501,-10.08,-7.7398,-0.06536,-6.6007,-10.016,-6.5041,-7.8317,-11.772,-0.06536,-6.6007,-7.2968,-8.254,-9.5873,-13.206,-9.6618,-8.9533,-16.296,-12.571,-10.509,-10.435
-8.3412,-3.0622,-3.8374,3.8562,0.0,-5.4634,1.9512,-3.9482,-6.5691,3.8562,0.0,-2.6534,-9.5238,-6.4127,-10.667,-5.153,-6.3768,-5.9903,-4.3175,-6.5681,-6.57
-2.654,2.6794,1.3659,1.2418,6.6007,1.0407,2.6016,-2.6537,-0.06504,1.2418,6.6007,1.3267,-8.8889,-2.6032,-5.5873,-3.2206,-1.868,-7.9227,-3.0476,-4.5977,-5.9259
6.8246,9.059,12.423,8.4314,7.9208,6.8943,13.659,5.1133,6.439,8.4314,7.9208,11.277,1.2698,7.5556,5.2063,5.7971,7.7939,5.6039,3.3016,9.8522,7.6006
3.0332,5.2313,11.122,11.046,7.9208,5.5935,9.7561,5.7605,4.4878,11.046,7.9208,11.94,0.63492,4.381,2.0317,1.9324,5.2174,-4.7021,-3.6825,1.3136,5.0242
1.7694,3.3174,8.5203,7.7778,11.221,10.146,5.2033,3.1715,2.5366,7.7778,11.221,12.604,-0.63492,3.1111,-1.7778,0.0,1.9968,-16.940001,7.1111,-7.225,1.1594
-0.75829,5.8692,5.2683,3.2026,12.541,8.8455,6.5041,-1.3592,1.2358,3.2026,12.541,9.9502,3.8095,5.6508,-1.1429,3.8647,3.285,9.4686,3.3016,-1.3136,-0.12882
-2.654,9.697,6.5691,7.1242,11.221,0.39024,7.1545,-2.6537,3.8374,7.1242,11.221,6.6335,10.794,10.73,4.5714,12.238,9.0821,21.063,-2.4127,7.225,10.177
0.50553,9.059,7.2195,11.699,9.2409,-1.561,7.8049,0.58252,7.0894,11.699,9.2409,5.9701,12.063,9.4603,7.746,12.882,9.7262,13.977,9.6508,12.479,14.042
5.5608,3.9553,5.2683,7.7778,5.2805,1.6911,6.5041,0.58252,3.187,7.7778,5.2805,6.6335,12.698,6.2857,7.746,6.4412,4.5733,4.3156,-1.7778,9.1954,5.0242
11.248,-0.51037,2.0163,-0.06536,2.6403,4.2927,1.9512,-1.3592,-3.3171,-0.06536,2.6403,4.6434,9.5238,5.6508,7.746,1.9324,0.06441,-5.3462,-1.1429,5.9113,1.8035
9.9842,-3.7002,2.6667,1.8954,2.6403,7.5447,-0.65041,5.7605,-7.2195,1.8954,2.6403,3.9801,5.7143,5.0159,5.2063,1.9324,0.06441,8.8245,2.6667,4.5977,5.6683
-1.3902,-1.7863,5.9187,5.1634,5.2805,6.8943,0.0,10.291,-5.2683,5.1634,5.2805,3.9801,2.5397,8.8254,2.6667,4.5089,3.285,0.45089,0.7619,-1.9704,4.38
-3.9179,4.5933,7.8699,9.085,9.2409,1.0407,4.5528,10.291,2.5366,9.085,9.2409,4.6434,1.2698,8.8254,3.3016,5.7971,5.8615,-15.008,1.3968,-2.6273,-0.77295
1.7694,3.9553,5.9187,9.7386,11.221,-0.91057,3.9024,7.7023,2.5366,9.7386,11.221,3.3167,-0.63492,0.57143,5.8413,2.5765,4.5733,13.333,-5.5873,0.65681,-5.2818
8.7204,-1.7863,0.71545,-1.3725,5.9406,-0.91057,-3.9024,-0.06472,-3.9675,-1.3725,5.9406,-1.99,-1.9048,-3.2381,8.381,0.0,3.285,10.113,-2.4127,6.5681,-3.3494
13.144,-1.7863,2.0163,0.58824,4.6205,-0.26016,-5.2033,1.877,-5.2683,0.58824,4.6205,-3.3167,1.2698,0.57143,10.286,4.5089,4.5733,15.91,-1.1429,13.793,6.9565
5.5608,-3.7002,0.71545,-0.06536,-1.9802,-0.91057,-1.9512,-0.71197,-8.5203,-0.06536,-1.9802,-4.6434,-2.5397,-1.3333,4.5714,1.2882,0.70853,10.757,-1.7778,0.65681,2.4477
0.50553,-4.9761,-3.187,-5.2941,-6.6007,-1.561,-4.5528,-4.5955,-9.1707,-5.2941,-6.6007,-7.2968,-8.8889,-5.1429,-2.4127,-4.5089,-5.0886,-37.551998,-5.5873,-13.136,-8.5024
-0.75829,3.9553,-0.58537,-8.5621,-4.6205,-2.2114,-1.3008,-5.89,-3.3171,-8.5621,-4.6205,-3.3167,-1.2698,1.2063,1.3968,0.64412,0.06441,-7.2786,-6.2222,-1.3136,-4.6377
-3.9179,6.5072,1.3659,-6.6013,-13.201,-7.4146,3.252,-5.89,-0.71545,-6.6013,-13.201,-1.3267,4.4444,6.2857,1.3968,4.5089,3.285,-4.7021,-3.0476,3.9409,-0.12882
-3.2859,7.7831,10.472,6.4706,2.6403,1.0407,7.1545,2.5243,3.187,6.4706,2.6403,7.9602,7.619,9.4603,3.9365,8.3736,8.438,9.4686,5.8413,9.8522,8.8889
-2.0221,6.5072,14.374,9.085,15.182,10.146,6.5041,1.2298,1.2358,9.085,15.182,11.277,3.8095,5.0159,3.9365,5.153,7.7939,1.7391,0.7619,3.2841,6.3124
10.616,11.611,19.577,12.353,15.182,12.098,9.7561,3.1715,3.8374,12.353,15.182,13.93,9.5238,10.095,13.46,10.306,14.235,14.622,5.8413,9.8522,8.2448
10.616,7.7831,9.8211,7.1242,5.9406,3.6423,2.6016,-0.06472,2.5366,7.1242,5.9406,3.9801,6.9841,8.1905,9.6508,7.7295,9.0821,14.622,10.921,7.8818,5.0242
6.8246,1.4035,-1.2358,1.2418,-0.66007,-2.8618,-2.6016,-2.0065,-2.0163,1.2418,-0.66007,-3.9801,3.8095,3.746,2.0317,1.2882,0.70853,-1.4815,0.12698,1.3136,-0.77295
7.4566,2.6794,0.06504,0.58824,1.3201,0.39024,0.65041,3.1715,1.2358,0.58824,1.3201,0.0,9.5238,6.9206,3.9365,3.2206,0.70853,-5.3462,0.12698,9.1954,3.7359
-3.2859,-0.51037,-4.4878,-2.6797,-4.6205,-0.26016,-3.252,3.1715,0.58537,-2.6797,-4.6205,-2.6534,1.9048,-0.06349,-3.6825,-3.2206,-6.3768,-27.246,-7.4921,1.3136,-5.2818
-10.237,-3.7002,-7.7398,-3.9869,-5.9406,4.2927,-5.8537,1.877,-0.06504,-3.9869,-5.9406,-3.9801,-4.4444,-4.5079,-8.7619,-5.153,-8.3092,-12.432,-8.7619,0.65681,-3.9936
-13.397,-4.9761,-9.6911,-3.3333,0.66007,-1.561,-5.2033,2.5243,-0.06504,-3.3333,0.66007,-6.6335,-7.619,-7.6825,-10.032,-5.7971,-8.9533,19.129999,3.3016,1.9704,3.7359
-12.765,-7.5279,-10.992,-3.9869,-1.9802,-10.667,-2.6016,-0.71197,-3.3171,-3.9869,-1.9802,-10.614,-9.5238,-10.222,-9.3968,-9.0177,-9.5974,22.351,5.2063,-4.5977,-1.4171
-7.0774,-7.5279,-8.3902,-3.3333,-8.5809,-10.016,-0.65041,-1.3592,-5.2683,-3.3333,-8.5809,-11.94,-8.254,-10.222,-5.5873,-7.0853,-6.3768,-1.4815,3.3016,-3.9409,-4.6377
-3.9179,-8.8038,-7.7398,-5.2941,-13.861,-10.667,-7.8049,-2.0065,-9.1707,-5.2941,-13.861,-13.267,-6.3492,-7.6825,-2.4127,-7.7295,-5.7327,-33.042999,1.3968,-4.5977,-7.8583
1.1374,-4.3381,-1.2358,-9.8693,-9.2409,-9.3659,-5.2033,-1.3592,-3.9675,-9.8693,-9.2409,-8.6235,5.7143,3.1111,8.381,-0.64412,1.9968,-15.652,0.7619,7.225,-1.4171
3.6651,3.3174,0.71545,0.58824,1.3201,-8.7154,0.0,3.1715,5.7886,0.58824,1.3201,-5.3068,12.063,5.6508,12.825,3.8647,6.5056,22.995001,-4.3175,13.793,1.8035
-2.654,-0.51037,-7.7398,-1.3725,-3.3003,-11.967,-6.5041,-2.6537,0.58537,-1.3725,-3.3003,-8.6235,1.2698,0.57143,2.6667,-0.64412,-0.57971,17.841999,-8.127,6.5681,1.1594
-1.3902,-4.9761,-6.439,-4.6405,-3.9604,-1.561,-6.5041,-2.0065,-4.6179,-4.6405,-3.9604,-5.3068,-2.5397,1.2063,-1.7778,0.0,-1.868,-2.7697,-5.5873,-1.3136,3.7359
-0.12638,-3.7002,-1.8862,-2.0261,-5.2805,4.9431,-5.2033,-0.06472,-6.5691,-2.0261,-5.2805,-1.3267,-3.1746,2.4762,-2.4127,1.9324,-1.868,-20.160999,-1.1429,-3.2841,1.1594
-2.654,-3.7002,-1.2358,-4.6405,-5.2805,2.9919,-5.8537,-2.6537,-6.5691,-4.6405,-5.2805,-1.99,-3.1746,0.57143,-3.0476,1.2882,-3.8003,-2.1256,-1.7778,-3.2841,-4.6377
-2.0221,-1.7863,0.06504,-9.8693,-3.3003,1.6911,-1.3008,0.58252,-3.3171,-9.8693,-3.3003,0.66335,1.9048,1.2063,0.12698,3.2206,-1.2238,6.248,-2.4127,3.2841,-2.7053
-3.9179,-5.614,-6.439,-8.5621,-9.2409,-1.561,-3.9024,-1.3592,-10.472,-8.5621,-9.2409,-2.6534,0.63492,-1.3333,-4.9524,0.0,-5.7327,-4.7021,-5.5873,5.2545,-5.2818
8.0885,5.2313,3.3171,10.392,3.9604,10.797,8.4553,9.644,3.8374,10.392,3.9604,10.614,9.5238,8.8254,4.5714,11.594,3.9291,-11.787,3.3016,5.2545,10.177
0.50553,5.8692,3.9675,9.085,7.2607,6.8943,8.4553,0.58252,8.3902,9.085,7.2607,12.604,6.9841,8.8254,2.6667,10.95,3.9291,11.401,5.2063,2.6273,15.33
-4.5498,3.3174,3.9675,-0.71895,-2.6403,4.2927,5.8537,-7.8317,1.8862,-0.71895,-2.6403,8.6235,3.1746,3.746,0.7619,5.153,1.3527,12.045,4.5714,1.9704,3.7359
-0.75829,2.0415,3.3171,-11.83,-7.9208,6.2439,2.6016,-9.7735,-3.3171,-11.83,-7.9208,5.9701,2.5397,-0.06349,1.3968,1.2882,0.06441,-6.6345,-6.2222,8.5386,-8.5024
3.0332,0.76555,2.6667,-14.444,-8.5809,1.6911,0.65041,-6.5372,-5.2683,-14.444,-8.5809,5.3068,5.7143,5.6508,3.3016,3.2206,1.9968,2.3833,-4.3175,11.166,-2.7053
3.0332,1.4035,2.0163,-0.71895,0.66007,-4.1626,0.0,-2.6537,1.2358,-0.71895,0.66007,5.9701,5.0794,6.9206,3.3016,5.153,2.6409,3.0274,3.9365,1.9704,6.3124
-5.8136,0.76555,-2.5366,1.8954,6.6007,-6.1138,0.65041,-3.9482,1.2358,1.8954,6.6007,3.3167,-6.9841,-2.6032,-5.5873,-1.9324,-4.4444,3.0274,5.8413,-6.5681,5.0242
-7.0774,3.9553,0.06504,5.1634,7.9208,-3.5122,5.8537,1.2298,5.7886,5.1634,7.9208,5.3068,-10.794,-4.5079,-6.8571,-1.9324,-4.4444,7.5362,10.286,-7.8818,3.0918
-5.1817,2.0415,2.0163,5.1634,1.3201,-2.2114,3.252,0.58252,1.8862,5.1634,1.3201,4.6434,-8.254,-1.9683,-6.2222,-1.2882,-2.5121,13.333,5.8413,-1.9704,0.5153
-2.654,-0.51037,-1.8862,-0.71895,-3.3003,-3.5122,3.252,-2.6537,-0.06504,-0.71895,-3.3003,1.3267,-10.794,-4.5079,-9.3968,-5.153,-7.6651,-31.111,0.12698,-1.9704,-2.7053
-4.5498,-4.9761,-6.439,1.8954,-1.3201,-4.813,3.252,-4.5955,7.7398,1.8954,-1.3201,-0.66335,-11.429,-4.5079,-10.667,-6.4412,-10.886,-6.6345,-1.1429,-4.5977,-0.77295
-11.501,-9.4418,-12.943,-1.3725,5.2805,-8.065,-1.3008,-9.1262,7.7398,-1.3725,5.2805,-3.9801,-10.794,-6.4127,-11.937,-9.6618,-13.462,23.639,-3.6825,-4.5977,-2.7053
-2.654,-3.7002,-9.0407,-0.06536,7.2607,-3.5122,0.0,-2.0065,9.6911,-0.06536,7.2607,-0.66335,-5.7143,-5.7778,-4.3175,-6.4412,-8.3092,-17.584999,2.6667,0.65681,-3.9936
3.0332,3.3174,-0.58537,7.1242,6.6007,4.2927,8.4553,4.466,7.7398,7.1242,6.6007,5.9701,-2.5397,-1.9683,0.7619,-2.5765,-2.5121,6.248,2.6667,1.9704,-0.77295
-5.1817,-1.1483,-1.8862,6.4706,11.881,2.3415,2.6016,-1.3592,3.8374,6.4706,11.881,2.6534,-10.159,-7.6825,-7.4921,-6.4412,-7.0209,17.841999,-0.50794,-4.5977,-0.77295
-7.0774,-3.0622,-5.1382,0.58824,13.201,3.6423,0.65041,-2.6537,7.7398,0.58824,13.201,0.0,-15.873,-12.762,-11.937,-9.0177,-10.242,-8.5668,4.5714,-12.479,-7.2142
-3.2859,0.12759,-5.7886,-0.71895,7.9208,8.1951,3.252,-0.06472,11.642,-0.71895,7.9208,0.0,-10.159,-7.6825,-7.4921,-3.8647,-5.7327,-15.008,3.9365,-5.2545,-3.9936
-6.4455,-3.0622,-10.341,2.549,5.2805,0.39024,0.65041,-3.301,6.439,2.549,5.2805,-2.6534,-6.3492,-7.0476,-8.127,-5.7971,-8.3092,3.6715,-4.3175,-1.3136,-0.12882
-2.654,0.76555,-3.8374,9.085,7.2607,-0.26016,2.6016,3.1715,9.6911,9.085,7.2607,2.6534,2.5397,-5.1429,-4.3175,-6.4412,-5.7327,19.129999,6.4762,8.5386,-2.0612
-4.5498,3.9553,5.2683,1.8954,7.2607,2.9919,3.9024,-0.71197,11.642,1.8954,7.2607,5.3068,6.9841,-3.873,-3.6825,-3.2206,-0.57971,12.689,4.5714,9.8522,3.0918
-3.9179,3.3174,7.8699,-5.2941,-1.3201,7.5447,5.8537,-10.421,8.3902,-5.2941,-1.3201,4.6434,5.0794,-4.5079,-4.3175,-2.5765,1.9968,-40.772999,-1.7778,-1.9704,-0.77295
2.4013,3.3174,8.5203,1.2418,-3.3003,6.2439,9.1057,-8.479,7.7398,1.2418,-3.3003,5.3068,8.8889,1.8413,2.0317,1.9324,5.2174,-15.652,6.4762,2.6273,1.8035
4.297,2.0415,5.2683,-2.6797,-1.3201,-2.8618,5.2033,-5.2427,5.7886,-2.6797,-1.3201,1.3267,12.063,3.1111,5.8413,2.5765,3.9291,18.486,8.381,12.479,5.0242
3.0332,-0.51037,0.06504,-12.484,-2.6403,-7.4146,-3.9024,-7.8317,-0.06504,-12.484,-2.6403,-5.3068,8.254,-3.2381,2.6667,-2.5765,-2.5121,13.977,1.3968,9.1954,-2.0612
2.4013,-3.7002,2.0163,-15.098,-3.9604,-6.7642,-11.707,-6.5372,-4.6179,-15.098,-3.9604,-4.6434,6.9841,-2.6032,2.0317,-3.2206,-2.5121,12.689,-13.206,5.9113,-2.7053
3.0332,0.76555,5.9187,-5.2941,-6.6007,-3.5122,-4.5528,-0.06472,-2.0163,-5.2941,-6.6007,0.0,8.254,2.4762,2.6667,1.2882,2.6409,-26.601999,-4.3175,5.9113,1.8035
-3.9179,1.4035,3.9675,-0.71895,-4.6205,-2.2114,0.65041,-0.06472,1.2358,-0.71895,-4.6205,1.99,6.3492,4.381,-0.50794,2.5765,3.285,-7.2786,-3.0476,0.65681,4.38
-17.82,-10.718,-7.0894,-10.523,-9.901,-7.4146,-9.1057,-7.1845,-10.472,-10.523,-9.901,-6.6335,-3.8095,-3.2381,-12.571,-7.7295,-7.0209,1.7391,-9.3968,-9.8522,-2.0612
-11.501,-11.994,-5.7886,-7.9085,-11.221,-7.4146,-9.7561,-3.9482,-12.423,-7.9085,-11.221,-5.9701,-7.619,-5.1429,-10.667,-10.306,-8.9533,-1.4815,-5.5873,-5.9113,-5.2818
8.0885,-3.7002,7.2195,1.2418,-0.66007,4.2927,-1.9512,5.1133,-5.2683,1.2418,-0.66007,3.3167,-2.5397,-0.06349,4.5714,-3.8647,1.3527,22.351,-1.7778,3.2841,-0.12882
9.9842,-3.7002,5.2683,-3.3333,-4.6205,1.0407,-4.5528,1.2298,-7.8699,-3.3333,-4.6205,0.66335,-4.4444,-5.1429,5.8413,-6.4412,0.70853,4.3156,-13.206,-1.3136,-7.8583
9.9842,-3.7002,2.0163,-1.3725,-10.561,2.3415,-5.8537,-1.3592,-6.5691,-1.3725,-10.561,0.66335,0.63492,-2.6032,9.0159,-3.8647,1.9968,-9.2109,-3.6825,1.9704,-6.57
10.616,-3.7002,-1.2358,-4.6405,-6.6007,1.0407,-4.5528,2.5243,-0.06504,-4.6405,-6.6007,-1.3267,6.3492,-1.9683,10.921,-0.64412,2.6409,-7.2786,1.3968,9.8522,1.1594
6.8246,0.12759,-1.2358,-14.444,-2.6403,0.39024,-0.65041,3.1715,4.4878,-14.444,-2.6403,-1.3267,4.4444,-3.873,6.4762,-0.64412,0.70853,4.3156,3.3016,5.2545,4.38
7.4566,5.8692,6.5691,-0.06536,1.9802,3.6423,3.9024,5.7605,9.6911,-0.06536,1.9802,3.9801,5.0794,1.2063,4.5714,1.9324,3.285,12.045,11.556,3.2841,1.8035
5.5608,8.4211,8.5203,3.8562,5.9406,2.9919,10.407,1.2298,9.0407,3.8562,5.9406,6.6335,4.4444,6.2857,3.3016,5.153,5.2174,11.401,1.3968,0.0,-2.0612
2.4013,7.7831,5.2683,-0.71895,-1.3201,2.3415,14.959,-3.9482,-2.6667,-0.71895,-1.3201,5.3068,2.5397,5.6508,2.0317,7.0853,5.2174,-8.5668,-2.4127,0.65681,3.0918
2.4013,8.4211,3.3171,-3.3333,3.9604,8.1951,13.008,-2.0065,5.7886,-3.3333,3.9604,9.9502,2.5397,2.4762,2.0317,3.8647,3.9291,-19.517,-1.1429,3.2841,0.5153
5.5608,13.525,10.472,5.817,16.502001,9.4959,15.61,5.1133,20.747999,5.817,16.502001,17.91,8.254,6.2857,7.1111,8.3736,9.7262,12.689,12.19,5.9113,4.38
0.50553,12.249,10.472,11.046,7.2607,1.6911,13.659,5.1133,15.545,11.046,7.2607,13.267,7.619,7.5556,4.5714,9.0177,11.014,18.486,11.556,0.65681,2.4477
-8.3412,6.5072,2.6667,3.2026,-1.3201,-6.7642,1.3008,-2.0065,3.187,3.2026,-1.3201,1.99,1.2698,-0.06349,-5.5873,3.2206,4.5733,-16.296,3.3016,-6.5681,-5.9259
-4.5498,3.9553,1.3659,-3.9869,-1.9802,1.6911,0.0,-2.0065,0.58537,-3.9869,-1.9802,2.6534,0.0,1.8413,-4.3175,4.5089,4.5733,-12.432,0.7619,-5.2545,-0.77295
0.50553,2.0415,-0.58537,-9.2157,-3.9604,5.5935,0.0,-0.71197,-2.6667,-9.2157,-3.9604,3.9801,0.63492,2.4762,0.7619,5.153,4.5733,1.7391,-6.8571,-0.65681,1.8035
4.9289,6.5072,2.6667,-4.6405,-0.66007,4.2927,2.6016,-0.71197,-1.3659,-4.6405,-0.66007,5.3068,3.8095,5.6508,7.1111,9.6618,9.7262,16.554001,0.7619,2.6273,1.1594
11.248,11.611,9.8211,3.8562,3.9604,3.6423,6.5041,3.1715,1.8862,3.8562,3.9604,7.9602,8.254,10.73,13.46,16.103001,16.167,18.486,4.5714,10.509,6.9565
10.616,10.335,10.472,0.58824,2.6403,7.5447,4.5528,-0.71197,-0.06504,0.58824,2.6403,7.2968,5.0794,7.5556,10.286,13.527,14.235,16.554001,3.3016,4.5977,5.0242
6.8246,5.2313,5.2683,0.58824,-1.9802,6.2439,-0.65041,-2.6537,-4.6179,0.58824,-1.9802,3.9801,-0.63492,3.1111,4.5714,7.7295,9.0821,-16.296,-1.1429,-3.2841,-0.77295
3.6651,4.5933,4.6179,-0.71895,-7.9208,3.6423,-2.6016,0.58252,-5.2683,-0.71895,-7.9208,2.6534,-1.9048,1.8413,1.3968,5.7971,7.1498,-23.382,-7.4921,-5.9113,-3.9936
4.9289,4.5933,7.8699,1.2418,-3.9604,6.2439,-0.65041,5.1133,-5.2683,1.2418,-3.9604,5.3068,-1.2698,1.2063,1.3968,5.153,7.7939,-11.143,-0.50794,0.0,0.5153
7.4566,2.6794,7.8699,3.8562,-0.66007,7.5447,1.3008,5.7605,-2.6667,3.8562,-0.66007,4.6434,-1.2698,-1.3333,3.9365,1.9324,6.5056,4.9597,-1.1429,4.5977,0.5153
11.88,0.76555,5.9187,5.817,-1.9802,3.6423,2.6016,9.644,-0.71545,5.817,-1.9802,2.6534,-0.63492,-5.1429,8.381,-1.2882,5.2174,17.198,-2.4127,5.2545,-3.9936
18.830999,0.12759,9.1707,7.7778,1.9802,9.4959,2.6016,11.586,2.5366,7.7778,1.9802,4.6434,2.5397,-5.1429,13.46,-1.9324,5.2174,19.129999,3.3016,13.136,1.1594
16.934999,-3.0622,5.9187,0.58824,-5.9406,10.797,-0.65041,7.055,-3.3171,0.58824,-5.9406,1.3267,-1.2698,-7.6825,9.6508,-7.0853,-1.2238,-9.8551,4.5714,9.1954,1.1594
4.9289,-5.614,0.06504,4.5098,-7.2607,2.9919,-5.2033,5.1133,-5.2683,4.5098,-7.2607,-1.99,-6.3492,-10.222,-0.50794,-10.95,-6.3768,0.45089,-3.6825,-1.9704,-3.3494
-0.12638,-2.4242,1.3659,13.007,2.6403,1.6911,-3.9024,11.586,-0.06504,13.007,2.6403,1.3267,-3.1746,-5.1429,-2.4127,-5.7971,-2.5121,26.860001,0.7619,0.0,1.8035
1.1374,-3.0622,-3.187,1.8954,0.66007,6.8943,-5.8537,9.644,-0.06504,1.8954,0.66007,-1.3267,-2.5397,-3.873,-2.4127,-5.153,-1.2238,13.333,3.9365,-3.9409,-3.3494
1.1374,-6.252,-6.439,0.58824,-5.9406,4.2927,-8.4553,5.1133,-2.0163,0.58824,-5.9406,-6.6335,-6.3492,-8.9524,-3.6825,-8.3736,-4.4444,-5.9903,4.5714,-9.8522,-7.8583
6.1927,-4.9761,-3.187,7.1242,1.3201,0.39024,-5.2033,5.1133,0.58537,7.1242,1.3201,-3.9801,-5.0794,-9.5873,-0.50794,-9.0177,-5.0886,-31.754999,-0.50794,-7.8818,-9.1465
8.7204,-1.7863,-1.8862,11.046,10.561,2.3415,0.0,9.644,1.8862,11.046,10.561,0.66335,-1.9048,-6.4127,2.0317,-6.4412,-4.4444,-3.4138,-6.2222,-0.65681,-4.6377
-5.8136,-6.252,-8.3902,2.549,-7.2607,-6.1138,-5.2033,0.58252,-6.5691,2.549,-7.2607,-5.9701,-6.3492,-6.4127,-5.5873,-7.7295,-8.3092,9.4686,-9.3968,-3.9409,-3.9936
-15.924,-9.4418,-10.341,-0.71895,-12.541,-14.569,-7.8049,-4.5955,-8.5203,-0.71895,-12.541,-8.6235,-8.254,-5.1429,-10.032,-6.4412,-8.3092,4.9597,-5.5873,-5.2545,-2.0612
-12.765,-1.7863,-1.2358,6.4706,2.6403,-4.813,3.252,3.8188,3.187,6.4706,2.6403,2.6534,-0.63492,3.1111,-4.9524,1.9324,0.06441,21.063,5.8413,3.9409,3.7359
-8.3412,-1.7863,-0.58537,3.2026,7.2607,0.39024,1.3008,2.5243,-0.06504,3.2026,7.2607,1.3267,-1.2698,1.8413,-4.9524,-1.2882,-1.2238,-11.143,10.286,-0.65681,-4.6377
-2.0221,-1.7863,0.06504,-4.6405,3.3003,-3.5122,-5.2033,-0.71197,-3.9675,-4.6405,3.3003,-4.6434,-1.2698,0.57143,-2.4127,-1.9324,-0.57971,-31.754999,-4.9524,-4.5977,-3.9936
-0.12638,3.9553,4.6179,-11.176,-0.66007,-2.2114,0.65041,-2.0065,-2.6667,-11.176,-0.66007,-1.99,2.5397,2.4762,2.0317,2.5765,4.5733,3.0274,-11.937,1.9704,-2.0612
-2.0221,0.76555,0.71545,-4.6405,1.9802,-1.561,3.9024,-3.9482,-5.2683,-4.6405,1.9802,1.3267,0.63492,-1.9683,0.12698,0.0,0.70853,13.977,-8.7619,5.9113,-3.3494
-1.3902,-2.4242,-3.8374,7.1242,5.9406,-3.5122,2.6016,-0.06472,-2.0163,7.1242,5.9406,2.6534,1.9048,-1.9683,-0.50794,-1.9324,-3.1562,-2.1256,-2.4127,7.8818,-0.12882
-0.12638,-3.7002,-4.4878,7.7778,3.3003,-3.5122,1.3008,-0.06472,-0.71545,7.7778,3.3003,0.66335,2.5397,-1.3333,0.7619,-3.2206,-3.1562,-4.7021,3.3016,3.2841,-0.77295
-0.75829,-0.51037,-0.58537,4.5098,-4.6205,-4.1626,-0.65041,-0.06472,-0.71545,4.5098,-4.6205,-1.3267,5.0794,0.57143,3.3016,-0.64412,0.70853,3.0274,0.12698,1.9704,-9.7907
8.7204,10.973,12.423,6.4706,5.9406,1.0407,7.1545,7.055,7.7398,6.4706,5.9406,7.2968,14.603,12.0,14.73,14.171,12.947,9.4686,3.3016,13.136,10.821
8.7204,7.7831,10.472,7.7778,9.2409,4.9431,7.1545,10.939,4.4878,7.7778,9.2409,9.2869,10.159,8.8254,10.286,10.306,8.438,15.266,8.381,9.1954,14.042
-0.12638,-1.7863,1.3659,0.58824,4.6205,3.6423,-0.65041,2.5243,-1.3659,0.58824,4.6205,3.3167,-0.63492,-1.9683,-1.7778,-2.5765,-5.0886,-4.058,-2.4127,-1.3136,-0.77295
-0.12638,-2.4242,1.3659,-0.06536,5.9406,0.39024,0.0,-2.0065,0.58537,-0.06536,5.9406,1.3267,-3.8095,-4.5079,-2.4127,-3.2206,-4.4444,-10.499,-3.0476,-6.5681,-1.4171
1.7694,2.0415,5.9187,0.58824,5.9406,1.6911,3.9024,-0.06472,2.5366,0.58824,5.9406,3.9801,-1.9048,-2.6032,0.7619,0.64412,0.06441,22.351,5.2063,-1.3136,3.0918
-0.12638,4.5933,5.9187,1.2418,4.6205,5.5935,7.8049,3.1715,7.7398,1.2418,4.6205,7.2968,-1.9048,-0.69841,-2.4127,1.9324,-0.57971,8.8245,10.286,-3.2841,5.0242
-5.1817,2.6794,-0.58537,-1.3725,-3.9604,1.0407,3.9024,3.8188,5.7886,-1.3725,-3.9604,3.9801,-4.4444,-1.9683,-9.3968,0.0,-5.0886,4.3156,11.556,-3.9409,-1.4171
-10.237,-2.4242,-5.1382,-1.3725,-6.6007,-6.7642,-2.6016,-2.0065,0.58537,-1.3725,-6.6007,-2.6534,-8.254,-4.5079,-13.841,-3.8647,-8.9533,-11.787,-0.50794,-6.5681,-7.8583
-3.2859,1.4035,2.6667,6.4706,0.0,-2.8618,0.0,-2.6537,-0.06504,6.4706,0.0,0.0,-1.9048,2.4762,-3.6825,2.5765,-1.2238,0.45089,3.3016,0.65681,5.0242
-4.5498,-3.7002,-5.1382,-0.71895,0.0,-8.065,-4.5528,-5.89,-5.9187,-0.71895,0.0,-5.9701,-5.0794,-1.3333,-4.9524,-1.9324,-5.0886,-24.025999,5.8413,-5.2545,3.7359
-1.3902,-1.7863,-7.0894,-2.0261,4.6205,-2.8618,1.3008,-2.0065,2.5366,-2.0261,4.6205,-2.6534,-2.5397,1.8413,-3.6825,0.0,-4.4444,6.8921,3.3016,0.0,6.3124
-2.0221,-2.4242,-5.7886,-0.06536,1.3201,0.39024,-1.9512,-0.71197,3.8374,-0.06536,1.3201,-3.3167,-1.2698,-0.06349,-3.6825,-2.5765,-5.7327,14.622,-0.50794,2.6273,3.7359
-8.9731,-9.4418,-10.341,-2.0261,-1.9802,-13.268,-11.707,-5.89,-2.6667,-2.0261,-1.9802,-11.94,-5.0794,-10.222,-8.7619,-12.238,-11.53,-7.9227,-11.302,-6.5681,-8.5024
-3.2859,-8.8038,-5.7886,-2.6797,-1.3201,-13.919,-10.407,-5.89,-7.8699,-2.6797,-1.3201,-11.94,0.63492,-6.4127,-2.4127,-9.0177,-6.3768,-5.3462,-9.3968,-3.9409,-6.57
4.297,-2.4242,-3.8374,-7.9085,0.66007,-3.5122,-5.2033,-2.0065,-5.9187,-7.9085,0.66007,-6.6335,6.3492,-0.06349,2.6667,-2.5765,-1.868,-26.601999,-1.1429,1.3136,1.8035
5.5608,-0.51037,-5.7886,-4.6405,0.66007,-0.26016,-2.6016,-2.0065,-2.6667,-4.6405,0.66007,-5.3068,9.5238,3.746,4.5714,1.2882,0.70853,-4.058,3.9365,3.2841,5.6683
6.1927,5.8692,2.0163,7.1242,0.66007,-1.561,1.9512,1.877,5.1382,7.1242,0.66007,-1.3267,14.603,5.6508,10.921,5.7971,7.7939,25.572001,14.095,11.166,8.2448
6.1927,6.5072,9.8211,2.549,2.6403,-1.561,1.3008,0.58252,1.2358,2.549,2.6403,-0.66335,10.159,4.381,10.921,5.153,9.7262,13.977,4.5714,9.1954,4.38
-2.0221,0.12759,6.5691,-10.523,-2.6403,-2.8618,-4.5528,-8.479,-6.5691,-10.523,-2.6403,-4.6434,-3.1746,-1.3333,0.12698,-3.2206,0.06441,6.8921,-10.032,-0.65681,-7.2142
-1.3902,-1.7863,2.0163,-2.6797,-6.6007,-2.8618,-2.6016,-3.301,-0.71545,-2.6797,-6.6007,-2.6534,-7.619,-2.6032,-5.5873,-5.7971,-5.7327,-17.584999,-3.0476,-5.9113,-5.9259
-1.3902,-2.4242,-3.187,5.817,-1.3201,-4.1626,-1.3008,1.2298,1.2358,5.817,-1.3201,-2.6534,-6.3492,-1.9683,-5.5873,-4.5089,-6.3768,-14.364,-0.50794,-3.9409,0.5153
-6.4455,-7.5279,-8.3902,-3.9869,-2.6403,-6.7642,-7.8049,-6.5372,-5.2683,-3.9869,-2.6403,-9.9502,-6.9841,-3.873,-4.9524,-5.153,-6.3768,5.6039,-6.2222,-5.2545,-1.4171
0.50553,-1.7863,1.3659,-3.9869,0.0,-1.561,-5.2033,-3.9482,-3.3171,-3.9869,0.0,-5.9701,-1.9048,1.2063,3.9365,1.2882,2.6409,3.0274,4.5714,-1.3136,3.7359
1.1374,-1.1483,5.9187,-7.9085,-3.3003,-3.5122,-6.5041,-4.5955,-2.6667,-7.9085,-3.3003,-5.9701,2.5397,3.1111,7.1111,1.9324,3.285,13.977,3.9365,4.5977,5.6683
-0.75829,-5.614,-3.187,-12.484,-7.2607,-6.7642,-12.358,-6.5372,-5.2683,-12.484,-7.2607,-9.9502,4.4444,1.8413,2.0317,-2.5765,-4.4444,19.129999,2.0317,3.9409,-1.4171
-7.7093,-10.718,-18.146,-13.137,-13.861,-13.268,-12.358,-7.8317,-11.772,-13.137,-13.861,-15.257,-0.63492,-2.6032,-7.4921,-8.3736,-12.818,-1.4815,-3.0476,-3.9409,-7.2142
-7.7093,-5.614,-15.545,-2.6797,-9.901,-12.618,-5.8537,-3.301,-7.2195,-2.6797,-9.901,-11.94,0.63492,0.57143,-4.9524,-1.9324,-7.0209,-16.296,0.12698,-1.9704,4.38
-7.0774,0.76555,-6.439,0.58824,-3.9604,-9.3659,-3.252,-3.9482,-2.6667,0.58824,-3.9604,-7.9602,-0.63492,3.1111,-2.4127,1.9324,0.06441,-14.364,-8.7619,-0.65681,0.5153
-5.8136,2.6794,0.06504,0.58824,2.6403,-8.065,-1.9512,-3.301,-0.71545,0.58824,2.6403,-3.9801,-3.8095,5.0159,-2.4127,5.7971,3.9291,-4.058,-6.2222,-3.9409,4.38
-0.75829,0.12759,4.6179,4.5098,2.6403,-0.26016,-3.252,-2.0065,-2.6667,4.5098,2.6403,-1.3267,-4.4444,6.2857,-1.7778,6.4412,3.9291,5.6039,3.3016,-4.5977,8.8889
4.9289,-0.51037,7.8699,-2.6797,-1.3201,8.8455,1.3008,-0.06472,-0.06504,-2.6797,-1.3201,3.3167,0.0,6.9206,2.0317,4.5089,3.9291,9.4686,10.286,1.3136,7.6006
6.1927,-1.7863,2.6667,-7.2549,-3.3003,6.2439,2.6016,0.58252,2.5366,-7.2549,-3.3003,3.3167,1.9048,3.746,2.0317,1.9324,1.3527,-4.058,4.5714,-0.65681,5.6683
-1.3902,-0.51037,-4.4878,-0.71895,-1.9802,1.0407,0.65041,-1.3592,0.58537,-0.71895,-1.9802,1.3267,-3.1746,-1.3333,-4.3175,0.0,-1.868,1.7391,-5.5873,-3.9409,-1.4171
-1.3902,7.7831,1.3659,9.7386,7.2607,7.5447,5.2033,1.877,4.4878,9.7386,7.2607,6.6335,-6.3492,1.8413,-3.6825,6.4412,2.6409,2.3833,2.6667,-5.2545,1.8035
3.0332,14.801,9.8211,13.007,13.861,12.748,10.407,6.4078,9.6911,13.007,13.861,11.94,-4.4444,5.0159,0.7619,10.95,7.1498,10.757,5.2063,-1.3136,1.8035
-2.0221,8.4211,11.772,4.5098,8.5809,4.2927,10.407,1.877,7.0894,4.5098,8.5809,9.9502,-9.5238,0.57143,-1.1429,7.0853,3.285,22.995001,-3.0476,-3.9409,5.0242
-4.5498,0.12759,9.8211,1.2418,4.6205,-2.2114,6.5041,-0.71197,5.1382,1.2418,4.6205,7.9602,-13.968,-3.2381,-3.6825,-1.2882,-2.5121,-9.2109,1.3968,-13.793,0.5153
3.6651,3.9553,15.024,13.007,9.901,8.8455,10.407,4.466,10.341,13.007,9.901,15.257,-7.619,-0.06349,1.3968,1.2882,0.70853,-16.940001,8.381,-9.8522,3.0918
6.8246,5.2313,11.122,12.353,8.5809,17.301001,7.8049,1.2298,9.0407,12.353,8.5809,15.257,-1.2698,1.2063,5.2063,4.5089,4.5733,2.3833,7.1111,3.2841,11.465
-1.3902,2.0415,-0.58537,2.549,6.6007,8.8455,4.5528,-1.3592,1.2358,2.549,6.6007,6.6335,-1.2698,-2.6032,1.3968,0.64412,1.9968,11.401,6.4762,-4.5977,7.6006
-3.9179,-3.7002,-12.293,-1.3725,4.6205,-4.813,1.9512,-0.71197,-0.06504,-1.3725,4.6205,-1.3267,-0.63492,-6.4127,-1.1429,-6.4412,-2.5121,-0.83736,2.0317,-8.5386,-8.5024
-2.0221,-7.5279,-20.098,1.2418,-0.66007,-10.016,0.0,1.877,0.58537,1.2418,-0.66007,-4.6434,2.5397,-5.1429,0.12698,-5.7971,-3.1562,-13.72,-8.7619,1.3136,-10.435
0.50553,-5.614,-18.797001,-4.6405,-2.6403,-4.1626,-1.3008,3.1715,1.2358,-4.6405,-2.6403,-3.9801,2.5397,-3.873,1.3968,-3.2206,-1.868,-8.5668,-6.8571,4.5977,-5.2818
-3.2859,-5.614,-16.846001,-12.484,-5.9406,-2.8618,-6.5041,-5.89,-3.9675,-12.484,-5.9406,-7.2968,-1.2698,-4.5079,-1.1429,-3.2206,-3.1562,11.401,-2.4127,-3.2841,-3.9936
-4.5498,-3.7002,-9.6911,-0.06536,-1.9802,-6.7642,-3.252,-2.0065,-2.0163,-0.06536,-1.9802,-6.6335,0.0,-3.2381,-1.7778,-1.2882,-1.868,15.91,-3.6825,-3.9409,-0.77295
7.4566,9.697,7.8699,16.927999,9.901,4.9431,9.7561,14.822,10.992,16.927999,9.901,6.6335,6.3492,6.9206,7.746,9.6618,10.37,8.8245,9.0159,3.9409,8.8889
7.4566,15.439,15.024,11.046,13.861,9.4959,14.309,10.939,12.943,11.046,13.861,11.277,3.8095,6.9206,9.0159,12.238,14.235,10.757,10.921,2.6273,7.6006
-0.12638,5.8692,6.5691,-0.06536,3.9604,-1.561,6.5041,-0.71197,3.8374,-0.06536,3.9604,2.6534,-4.4444,-1.3333,1.3968,4.5089,5.2174,-7.2786,9.6508,-7.8818,0.5153
4.297,3.3174,2.6667,-4.6405,2.6403,-2.2114,3.9024,-2.6537,1.8862,-4.6405,2.6403,0.66335,-0.63492,2.4762,3.3016,4.5089,3.9291,-26.601999,0.12698,-7.225,-0.12882
7.4566,3.3174,1.3659,3.2026,7.2607,3.6423,2.6016,-3.301,1.2358,3.2026,7.2607,1.99,4.4444,5.6508,5.8413,7.0853,4.5733,-2.1256,-6.8571,-1.3136,6.3124
2.4013,1.4035,-3.187,2.549,3.9604,-1.561,-0.65041,-4.5955,1.2358,2.549,3.9604,-1.3267,1.2698,-1.9683,1.3968,0.0,-1.868,3.6715,-5.5873,0.0,-0.77295
6.1927,7.7831,5.9187,5.1634,7.9208,1.6911,7.1545,1.877,8.3902,5.1634,7.9208,5.9701,6.9841,-0.06349,5.8413,1.9324,1.9968,-7.9227,3.3016,6.5681,2.4477
-3.2859,-2.4242,2.6667,-2.0261,2.6403,-0.91057,-0.65041,-4.5955,-0.71545,-2.0261,2.6403,0.0,1.9048,-9.5873,-1.7778,-10.306,-5.7327,3.0274,-7.4921,-0.65681,-10.435
-5.1817,-14.545,-6.439,-5.9477,-5.9406,-3.5122,-13.008,-8.479,-11.772,-5.9477,-5.9406,-8.6235,-3.8095,-17.205999,-8.127,-20.612,-14.75,-19.517,-22.73,-7.225,-24.605
-2.654,-15.821,-9.6911,-5.2941,-15.182,-4.1626,-14.959,-9.1262,-15.675,-5.2941,-15.182,-10.614,-0.63492,-15.302,-3.6825,-18.68,-12.174,-5.9903,-18.921,3.2841,-18.808001
2.4013,-3.7002,-3.8374,-6.6013,-7.2607,-0.91057,-5.8537,-1.3592,-5.9187,-6.6013,-7.2607,-4.6434,9.5238,-1.9683,5.8413,-5.153,0.70853,11.401,0.12698,9.1954,-5.9259
5.5608,4.5933,1.3659,1.2418,3.9604,-0.26016,1.3008,5.1133,2.5366,1.2418,3.9604,-0.66335,12.063,5.6508,9.6508,3.2206,8.438,3.0274,2.6667,3.9409,-2.0612
-3.9179,-1.7863,-5.1382,1.2418,-0.66007,-6.1138,-5.2033,-2.6537,-2.0163,1.2418,-0.66007,-7.2968,5.0794,1.8413,2.0317,0.0,3.9291,12.689,-0.50794,-0.65681,0.5153
-8.3412,-6.252,-10.341,-5.9477,-7.2607,-9.3659,-9.1057,-3.9482,-5.2683,-5.9477,-7.2607,-11.94,-0.63492,-2.6032,-4.3175,-3.8647,-3.1562,5.6039,2.0317,-2.6273,0.5153
-4.5498,-0.51037,-4.4878,-3.9869,-1.3201,-1.561,-6.5041,1.877,-0.71545,-3.9869,-1.3201,-7.2968,-4.4444,-0.69841,-5.5873,0.0,-1.868,4.9597,1.3968,-4.5977,3.0918
-7.0774,-2.4242,-7.0894,-3.9869,-1.9802,-4.813,-10.407,-1.3592,-3.3171,-3.9869,-1.9802,-11.277,-13.333,-7.0476,-10.667,-4.5089,-7.0209,-38.195999,1.3968,-13.793,-0.12882
-3.2859,-4.9761,-7.0894,-4.6405,-2.6403,-6.7642,-9.7561,0.58252,-3.3171,-4.6405,-2.6403,-11.277,-15.238,-7.6825,-9.3968,-7.0853,-8.3092,-40.129002,-1.7778,-10.509,-6.57
0.50553,-1.7863,-1.2358,0.58824,1.9802,-0.91057,-3.252,4.466,2.5366,0.58824,1.9802,-3.3167,-6.9841,1.8413,-2.4127,-1.2882,-3.1562,19.129999,3.9365,-1.3136,-3.3494
-5.1817,-5.614,-5.1382,2.549,-6.6007,-4.1626,-1.9512,0.58252,-2.6667,2.549,-6.6007,-4.6434,-5.0794,0.57143,-6.2222,-3.8647,-5.7327,22.351,-9.3968,-3.9409,-2.7053
-9.6051,-4.3381,-3.187,4.5098,-7.9208,-8.065,-3.252,0.58252,-5.9187,4.5098,-7.9208,-3.9801,-1.2698,1.8413,-8.7619,-1.9324,-5.0886,10.757,-8.127,-2.6273,4.38
-11.501,-2.4242,-0.58537,-2.6797,-0.66007,-6.7642,-2.6016,-1.3592,-3.3171,-2.6797,-0.66007,-1.3267,1.2698,6.9206,-9.3968,0.64412,-3.1562,-2.7697,2.0317,-3.2841,8.2448
-7.0774,-5.614,-3.8374,-7.2549,-4.6205,-0.26016,-3.9024,-4.5955,-5.2683,-7.2549,-4.6205,-2.6534,-1.9048,2.4762,-10.032,-4.5089,-5.7327,-52.367001,-8.7619,-11.823,-5.2818
-2.654,-6.89,-4.4878,1.2418,-6.6007,4.2927,-1.9512,-3.9482,-5.2683,1.2418,-6.6007,-1.3267,1.2698,3.1111,-3.6825,-3.8647,-3.8003,-16.940001,-4.9524,-7.225,-8.5024
-4.5498,-6.89,-3.8374,-3.9869,-2.6403,-0.91057,-1.3008,-7.1845,-6.5691,-3.9869,-2.6403,-1.99,0.63492,2.4762,-3.6825,-2.5765,-2.5121,13.977,-5.5873,-3.2841,-3.3494
-2.654,-0.51037,2.0163,-2.6797,1.9802,1.6911,1.9512,-1.3592,-0.71545,-2.6797,1.9802,3.3167,0.0,3.1111,-2.4127,1.9324,2.6409,-0.83736,3.9365,-8.5386,1.8035
-0.75829,5.2313,3.9675,3.8562,2.6403,2.9919,1.3008,1.877,2.5366,3.8562,2.6403,3.3167,3.8095,5.6508,2.0317,4.5089,5.8615,10.113,2.6667,-7.225,3.0918
-2.0221,3.9553,-2.5366,-4.6405,-3.3003,-3.5122,-0.65041,0.58252,-0.06504,-4.6405,-3.3003,-2.6534,6.9841,3.746,2.0317,3.8647,3.9291,11.401,-4.3175,-0.65681,5.6683
4.9289,4.5933,-4.4878,-4.6405,-2.6403,2.9919,4.5528,4.466,3.8374,-4.6405,-2.6403,1.99,7.619,1.8413,4.5714,2.5765,3.285,-25.313999,-2.4127,-0.65681,1.1594
6.8246,4.5933,-0.58537,3.8562,6.6007,12.748,8.4553,1.877,6.439,3.8562,6.6007,6.6335,1.2698,2.4762,3.9365,2.5765,2.6409,-19.517,4.5714,-1.3136,-1.4171
5.5608,12.249,5.9187,9.7386,9.901,11.447,11.057,2.5243,8.3902,9.7386,9.901,9.9502,-3.8095,6.2857,3.3016,7.7295,5.2174,17.198,10.286,-3.2841,-0.12882
9.9842,19.266001,10.472,6.4706,11.221,10.146,13.008,7.055,8.3902,6.4706,11.221,13.267,0.0,11.365,8.381,15.459,11.014,31.368999,8.381,5.2545,10.177
2.4013,12.887,-0.58537,1.8954,1.9802,1.6911,3.9024,3.1715,3.8374,1.8954,1.9802,3.9801,-1.2698,5.0159,3.3016,10.306,3.9291,12.689,5.8413,-3.2841,0.5153
7.4566,13.525,2.0163,11.046,6.6007,6.2439,11.057,9.644,11.642,11.046,6.6007,8.6235,10.159,12.0,9.0159,16.103001,9.0821,-5.9903,11.556,2.6273,13.398
1.7694,5.2313,0.71545,5.1634,5.2805,-0.26016,6.5041,1.2298,7.0894,5.1634,5.2805,2.6534,10.159,15.175,5.8413,16.103001,8.438,15.266,8.381,2.6273,21.127001
-9.6051,-3.7002,-6.439,-5.9477,-11.221,-10.667,-4.5528,-9.7735,-3.3171,-5.9477,-11.221,-9.9502,0.63492,7.5556,-5.5873,7.0853,-0.57971,-24.67,1.3968,-11.166,8.8889
-0.75829,0.12759,-2.5366,-4.6405,-3.9604,-3.5122,-3.9024,-8.479,3.8374,-4.6405,-3.9604,-8.6235,6.3492,11.365,1.3968,9.0177,2.6409,-16.296,9.0159,-3.2841,10.177
-0.75829,-2.4242,-7.7398,-6.6013,3.9604,-5.4634,-3.9024,-8.479,1.2358,-6.6013,3.9604,-10.614,5.7143,6.9206,3.9365,5.153,0.06441,3.6715,3.3016,2.6273,5.6683
8.7204,7.1451,0.71545,-3.9869,9.901,-0.91057,4.5528,-0.71197,7.0894,-3.9869,9.901,-1.3267,11.429,8.1905,13.46,7.7295,7.1498,0.45089,5.8413,9.1954,1.1594
14.408,15.439,14.374,-3.9869,10.561,6.8943,11.707,1.877,13.593,-3.9869,10.561,7.9602,18.413,12.635,20.444,14.815,17.455999,8.8245,4.5714,14.45,11.465
4.297,5.8692,13.073,-5.9477,-3.3003,-0.26016,3.9024,-7.8317,3.187,-5.9477,-3.3003,3.3167,11.429,7.5556,12.19,9.6618,12.947,10.113,2.0317,7.8818,12.754
-0.75829,-3.0622,5.9187,-7.2549,-9.901,-5.4634,-2.6016,-13.01,-7.8699,-7.2549,-9.901,-1.99,1.9048,4.381,3.3016,3.2206,6.5056,-13.72,0.12698,-3.2841,3.0918
6.1927,0.12759,7.8699,3.2026,1.3201,2.9919,1.3008,-6.5372,-7.2195,3.2026,1.3201,3.9801,3.1746,7.5556,7.1111,4.5089,7.7939,-21.448999,-2.4127,-4.5977,-3.3494
7.4566,-2.4242,3.9675,-0.06536,0.66007,6.2439,-1.9512,-7.8317,-4.6179,-0.06536,0.66007,5.3068,3.8095,7.5556,7.746,3.2206,5.8615,-27.889999,-6.8571,-6.5681,-4.6377
3.6651,2.0415,8.5203,-0.06536,3.3003,5.5935,1.9512,-6.5372,3.187,-0.06536,3.3003,8.6235,8.254,9.4603,8.381,6.4412,9.7262,-0.83736,3.3016,-3.2841,-2.0612
6.1927,11.611,19.577,9.7386,7.9208,8.1951,9.1057,0.58252,13.593,9.7386,7.9208,15.92,13.333,10.73,11.556,10.95,14.235,20.419001,8.381,6.5681,7.6006
9.3523,11.611,20.228001,2.549,5.9406,16.65,10.407,0.58252,12.293,2.549,5.9406,17.247,10.159,6.2857,7.746,7.7295,9.0821,12.045,9.0159,11.166,14.686
4.297,5.2313,10.472,-3.9869,4.6205,13.398,8.4553,-0.06472,3.187,-3.9869,4.6205,11.94,1.9048,-3.2381,-1.7778,0.0,-0.57971,-11.787,12.825,3.2841,6.9565
-4.5498,0.76555,1.3659,-4.6405,-1.3201,0.39024,5.2033,1.877,-2.0163,-4.6405,-1.3201,6.6335,-3.8095,-10.222,-9.3968,-7.0853,-8.9533,-9.2109,0.7619,-3.9409,-5.9259
-3.9179,-1.1483,0.06504,5.817,-1.3201,-4.1626,2.6016,5.1133,-1.3659,5.817,-1.3201,3.9801,-1.2698,-8.3175,-5.5873,-6.4412,-8.3092,8.1804,1.3968,3.9409,-1.4171
2.4013,2.0415,2.0163,11.046,4.6205,-4.813,3.9024,6.4078,1.2358,11.046,4.6205,2.6534,2.5397,-8.3175,1.3968,-5.7971,-4.4444,27.504,-1.1429,7.8818,-1.4171
7.4566,5.2313,6.5691,3.8562,0.66007,-0.91057,5.2033,4.466,1.8862,3.8562,0.66007,3.9801,3.1746,-5.7778,3.9365,-3.8647,-1.2238,20.419001,-5.5873,9.1954,-6.57
4.9289,2.6794,7.2195,-0.71895,-3.9604,3.6423,1.3008,3.8188,-0.06504,-0.71895,-3.9604,3.9801,1.2698,-3.2381,0.12698,-3.2206,-1.868,-2.7697,2.0317,5.9113,-7.2142
-3.2859,-4.9761,-1.2358,-7.9085,-9.901,4.9431,-1.3008,-1.3592,-6.5691,-7.9085,-9.901,-0.66335,-8.254,-7.0476,-10.667,-7.7295,-8.3092,-35.619999,-5.5873,-7.225,-7.2142
-5.1817,-4.9761,-3.187,-12.484,-4.6205,5.5935,1.9512,-0.71197,-6.5691,-12.484,-4.6205,-1.3267,-8.8889,-4.5079,-11.302,-5.153,-6.3768,4.9597,-6.2222,-3.9409,1.8035
-3.2859,-4.3381,-3.187,-8.5621,-1.9802,-3.5122,-3.252,1.2298,-3.9675,-8.5621,-1.9802,-5.9701,-3.1746,-2.6032,-5.5873,-3.2206,-3.1562,39.742001,-1.7778,1.9704,2.4477
-2.654,-4.3381,-1.2358,-0.06536,-1.3201,-8.7154,-7.1545,3.8188,-5.2683,-0.06536,-1.3201,-8.6235,-2.5397,-3.873,-2.4127,-5.7971,-3.1562,22.995001,-2.4127,-1.9704,-7.8583
1.7694,0.12759,4.6179,9.085,5.9406,-0.91057,-0.65041,10.939,-1.3659,9.085,5.9406,-1.3267,0.0,-3.873,0.7619,-6.4412,0.06441,9.4686,2.0317,0.0,-13.655
-0.12638,-5.614,0.71545,8.4314,0.0,1.6911,-3.9024,8.9968,-3.3171,8.4314,0.0,-2.6534,1.2698,-7.6825,-1.1429,-9.6618,-0.57971,-19.517,-7.4921,-1.9704,-13.011
5.5608,-7.5279,1.3659,7.7778,0.66007,5.5935,-5.2033,8.3495,-4.6179,7.7778,0.66007,-2.6534,9.5238,-1.3333,6.4762,-5.153,3.9291,7.5362,-12.571,5.2545,-10.435
13.144,-6.252,2.0163,5.817,0.66007,9.4959,-8.4553,7.055,-4.6179,5.817,0.66007,-1.99,14.603,3.1111,12.19,-2.5765,5.8615,14.622,-8.127,9.1954,-10.435
16.302999,-2.4242,3.9675,7.1242,-2.6403,8.8455,-4.5528,7.7023,-2.0163,7.1242,-2.6403,0.0,16.507999,7.5556,14.73,3.2206,8.438,8.8245,-0.50794,8.5386,-0.77295
15.671,5.2313,7.8699,9.7386,7.9208,14.699,6.5041,12.233,3.8374,9.7386,7.9208,7.9602,20.316999,13.905,16.635,10.95,13.591,12.689,6.4762,10.509,9.533
1.1374,2.6794,-0.58537,4.5098,8.5809,11.447,1.9512,2.5243,1.2358,4.5098,8.5809,4.6434,9.5238,6.9206,3.9365,5.153,5.8615,-10.499,-1.7778,-1.3136,-0.12882
-1.3902,3.9553,0.06504,12.353,11.221,8.1951,3.9024,0.58252,3.187,12.353,11.221,5.9701,2.5397,7.5556,-0.50794,7.7295,4.5733,-20.160999,3.3016,-7.225,5.6683
9.9842,16.077,14.374,26.732,21.122,20.552999,21.462999,12.233,14.894,26.732,21.122,23.216999,4.4444,15.81,8.381,18.035,13.591,3.0274,14.73,2.6273,21.771
13.144,14.163,16.976,19.542,20.462,25.106001,25.365999,7.7023,13.593,19.542,20.462,26.534,-0.63492,10.73,9.6508,13.527,11.014,19.775,14.73,4.5977,14.686
14.408,13.525,16.976,8.4314,19.142,22.504,20.163,1.2298,14.894,8.4314,19.142,23.881001,-1.9048,8.8254,12.19,11.594,9.7262,14.622,8.381,-2.6273,8.8889
15.039,17.351999,16.976,8.4314,19.802,19.252001,22.114,4.466,22.049,8.4314,19.802,23.881001,3.8095,11.365,14.73,13.527,12.303,6.8921,19.174999,-3.2841,13.398
12.512,17.351999,15.675,24.118,25.083,16.65,22.764,10.939,24.65,24.118,25.083,23.216999,6.9841,12.0,12.19,10.306,9.7262,-31.754999,21.079,0.65681,10.177
-0.12638,7.1451,7.2195,20.195999,16.502001,8.8455,14.309,5.1133,15.545,20.195999,16.502001,13.93,2.5397,6.9206,2.0317,1.9324,0.70853,-21.448999,6.4762,0.65681,6.9565
-3.2859,1.4035,3.3171,11.046,4.6205,2.3415,8.4553,1.2298,9.0407,11.046,4.6205,6.6335,2.5397,2.4762,1.3968,-1.2882,-1.2238,17.198,1.3968,10.509,5.6683
3.0332,-3.0622,-0.58537,7.1242,7.2607,-3.5122,0.65041,1.877,5.1382,7.1242,7.2607,-1.3267,6.3492,-0.06349,6.4762,-3.8647,0.06441,5.6039,0.12698,11.166,-1.4171
3.6651,-6.252,-9.0407,0.58824,7.2607,-10.667,-5.2033,-0.06472,1.2358,0.58824,7.2607,-9.9502,8.8889,-1.3333,7.746,-3.2206,-1.2238,20.419001,6.4762,20.361,-0.12882
-2.0221,-8.1659,-15.545,-0.06536,7.9208,-15.22,-7.1545,-0.71197,-2.0163,-0.06536,7.9208,-12.604,6.9841,-1.3333,2.6667,-3.2206,-3.8003,-3.4138,2.0317,11.823,3.7359
-7.0774,-10.08,-15.545,-1.3725,4.6205,-15.87,-7.8049,-2.0065,-7.2195,-1.3725,4.6205,-13.93,2.5397,-4.5079,-5.5873,-7.7295,-8.3092,-26.601999,-15.111,-1.9704,-9.7907
-10.237,-6.89,-8.3902,3.8562,5.9406,-8.7154,-4.5528,-0.06472,-5.2683,3.8562,5.9406,-8.6235,1.2698,-5.1429,-6.8571,-7.0853,-5.7327,21.063,-8.127,2.6273,-13.011
-8.3412,2.6794,-1.2358,11.046,9.901,-1.561,3.252,5.7605,3.187,11.046,9.901,-0.66335,-5.0794,-5.1429,-6.8571,-1.9324,-1.2238,32.013,2.6667,-3.9409,-3.3494
-4.5498,5.2313,-2.5366,5.817,7.2607,4.2927,11.057,5.1133,5.1382,5.817,7.2607,3.3167,-10.794,-6.4127,-6.8571,-1.2882,-1.2238,11.401,-2.4127,-10.509,-8.5024
-0.12638,7.7831,0.06504,12.353,12.541,5.5935,11.707,5.1133,9.6911,12.353,12.541,7.9602,-11.429,-3.873,-3.0476,5.153,1.9968,7.5362,2.0317,-4.5977,3.0918
1.1374,8.4211,1.3659,14.967,13.201,2.3415,7.8049,7.055,7.7398,14.967,13.201,7.2968,-17.778,-6.4127,-6.2222,5.153,0.06441,-44.638,10.286,-13.793,8.2448
0.50553,8.4211,5.2683,9.085,19.142,7.5447,8.4553,1.877,11.642,9.085,19.142,9.9502,-19.048,-5.1429,-8.127,3.8647,-1.868,-34.332001,11.556,-17.733999,10.821
-7.7093,7.1451,4.6179,10.392,18.482,6.2439,5.8537,-4.5955,10.341,10.392,18.482,9.9502,-22.857,-5.7778,-13.206,0.64412,-5.0886,16.554001,9.6508,-17.077,8.2448
-8.9731,9.059,4.6179,17.582001,9.2409,7.5447,7.8049,0.58252,9.6911,17.582001,9.2409,9.9502,-22.222,-3.2381,-13.206,2.5765,-4.4444,20.419001,14.095,-13.136,16.618
-7.7093,9.697,2.6667,11.699,5.9406,2.9919,7.8049,1.877,10.341,11.699,5.9406,7.2968,-17.143,-3.2381,-10.667,1.9324,-4.4444,-2.1256,15.365,-17.077,12.11
-10.869,1.4035,-3.187,-5.2941,0.0,-4.813,-1.3008,-4.5955,3.8374,-5.2941,0.0,-1.3267,-15.238,-5.1429,-10.667,-5.153,-7.6651,-12.432,5.2063,-20.361,-2.0612
-7.7093,-0.51037,-3.8374,-3.3333,1.3201,-9.3659,-3.9024,-5.89,5.1382,-3.3333,1.3201,-3.9801,-5.7143,3.746,-3.0476,0.0,-1.2238,-13.076,-1.7778,-6.5681,-0.12882
-8.3412,-4.9761,-6.439,-3.9869,3.9604,-12.618,-7.8049,-6.5372,3.8374,-3.9869,3.9604,-7.9602,0.0,8.8254,0.7619,1.9324,1.3527,-16.296,1.3968,-3.9409,3.7359
-9.6051,-10.08,-10.992,-5.9477,-1.9802,-11.317,-10.407,-5.89,-3.3171,-5.9477,-1.9802,-11.277,-1.9048,3.1111,-3.6825,-3.2206,-4.4444,-42.705002,-3.6825,-10.509,-0.77295
-14.66,-14.545,-12.293,-6.6013,-11.221,-7.4146,-12.358,-12.362,-9.8211,-6.6013,-11.221,-10.614,-5.0794,-1.3333,-9.3968,-7.7295,-8.9533,-5.3462,-5.5873,-5.9113,-3.3494
-10.869,-16.459,-13.593,-2.0261,-8.5809,-2.2114,-11.057,1.2298,-11.122,-2.0261,-8.5809,-7.2968,-5.0794,-5.7778,-10.667,-13.527,-12.818,13.333,-10.667,1.9704,-11.723
-8.3412,-23.476999,-18.797001,-1.3725,-12.541,-6.7642,-16.910999,8.9968,-21.528,-1.3725,-12.541,-10.614,-3.8095,-13.397,-11.302,-20.612,-19.259001,4.9597,-18.285999,5.9113,-14.944
-2.0221,-23.476999,-18.146,-2.0261,-18.482,-2.8618,-17.561001,13.528,-23.48,-2.0261,-18.482,-9.9502,0.63492,-11.492,-5.5873,-19.968,-17.327,10.113,-18.285999,7.8818,-9.7907
0.50553,-21.563,-18.797001,-2.6797,-13.861,-3.5122,-18.211,17.410999,-19.577,-2.6797,-13.861,-11.94,0.63492,-10.222,-3.6825,-19.323999,-16.683001,7.5362,-15.746,9.1954,-13.655
3.6651,-15.821,-14.244,-1.3725,-9.901,-5.4634,-13.659,18.058001,-16.976,-1.3725,-9.901,-10.614,5.7143,-2.6032,1.3968,-11.594,-11.53,32.657001,-6.2222,20.361,-9.1465
0.50553,-16.459,-14.894,-5.9477,-13.201,-7.4146,-14.309,12.233,-21.528,-5.9477,-13.201,-12.604,3.1746,-3.873,-3.0476,-12.882,-13.462,22.995001,-10.667,11.166,-13.011
-7.7093,-22.201,-20.747999,-13.791,-15.842,-8.7154,-18.211,5.1133,-28.683001,-13.791,-15.842,-16.584,-5.0794,-13.397,-12.571,-19.968,-20.548,-0.83736,-22.73,2.6273,-22.028999
-5.8136,-12.632,-15.545,-11.176,-14.521,-2.2114,-13.008,5.7605,-20.878,-11.176,-14.521,-8.6235,-6.3492,-10.857,-11.302,-15.459,-15.395,4.9597,-22.73,-3.2841,-20.097
-2.0221,-4.3381,-9.0407,-9.2157,-15.842,3.6423,-9.7561,7.7023,-14.374,-9.2157,-15.842,-1.3267,-5.0794,-5.7778,-7.4921,-6.4412,-6.3768,-0.19324,-19.556,-8.5386,-9.1465
-3.9179,-0.51037,-7.7398,-13.137,-17.822001,1.0407,-6.5041,7.055,-10.472,-13.137,-17.822001,-1.3267,-6.3492,-1.3333,-6.8571,-2.5765,-2.5121,-22.738001,-12.571,-12.479,-5.2818
-2.0221,2.0415,-0.58537,-10.523,-9.2409,-2.8618,0.0,5.7605,-3.9675,-10.523,-9.2409,-0.66335,-2.5397,1.2063,-1.1429,1.2882,2.6409,-0.19324,-1.7778,-7.225,-0.77295
-7.7093,-4.3381,-3.8374,-13.137,-11.881,-10.667,-6.5041,-4.5955,-9.1707,-13.137,-11.881,-5.9701,-5.7143,-1.9683,-4.3175,-1.9324,-1.868,19.129999,-1.1429,-9.1954,0.5153
-7.7093,-4.3381,-5.7886,-13.137,-7.9208,-11.317,-5.2033,-5.89,-5.9187,-13.137,-7.9208,-5.9701,-1.9048,8.1905,-3.6825,3.2206,0.06441,1.7391,1.3968,-7.225,-0.77295
-7.0774,0.12759,-5.7886,-11.83,-11.221,-9.3659,-3.9024,-5.89,-2.0163,-11.83,-11.221,-6.6335,3.8095,12.0,-3.0476,7.0853,1.9968,-23.382,5.8413,-1.3136,3.0918
-12.133,-0.51037,-8.3902,-16.405001,-19.142,-11.967,-5.2033,-12.362,-6.5691,-16.405001,-19.142,-9.9502,0.63492,4.381,-7.4921,1.9324,-3.8003,-21.448999,-1.1429,-3.2841,5.0242
-9.6051,0.76555,-3.8374,-22.288,-15.842,-14.569,-2.6016,-14.304,-3.9675,-22.288,-15.842,-8.6235,3.1746,3.1111,-4.9524,3.2206,-2.5121,-14.364,-2.4127,-1.3136,8.2448
-0.75829,6.5072,5.2683,-22.288,-4.6205,-10.667,0.65041,-9.7735,1.8862,-22.288,-4.6205,-3.3167,12.698,8.1905,5.8413,11.594,5.8615,-3.4138,10.286,10.509,12.754
3.6651,6.5072,6.5691,-12.484,-5.9406,-10.667,-1.9512,-8.479,-0.71545,-12.484,-5.9406,-3.9801,12.698,12.0,10.921,16.747,11.014,11.401,14.095,13.136,18.551001
-2.654,-1.1483,0.71545,-15.098,-24.422001,-19.122,-11.057,-14.951,-9.1707,-15.098,-24.422001,-11.94,1.9048,5.0159,3.3016,9.0177,3.9291,-0.83736,3.9365,3.2841,8.8889
-2.654,-1.7863,0.06504,-24.247999,-22.441999,-12.618,-10.407,-14.951,-11.772,-24.247999,-22.441999,-10.614,-2.5397,-2.6032,0.12698,0.64412,-1.2238,-4.7021,0.7619,3.9409,-3.3494
-0.75829,-1.7863,1.3659,-22.288,-11.881,-2.8618,-7.1545,-9.7735,-9.8211,-22.288,-11.881,-5.9701,0.0,-3.873,0.12698,-3.8647,-2.5121,6.8921,-7.4921,4.5977,-5.2818
-0.12638,-5.614,2.0163,-16.405001,-8.5809,-5.4634,-5.2033,-5.89,-10.472,-16.405001,-8.5809,-4.6434,-0.63492,-5.7778,-1.1429,-7.7295,-4.4444,-7.2786,-6.8571,-0.65681,-7.2142
6.1927,-1.7863,9.1707,-6.6013,-7.2607,-1.561,-0.65041,0.58252,-7.8699,-6.6013,-7.2607,1.3267,3.8095,-4.5079,3.9365,-6.4412,-0.57971,0.45089,-8.7619,3.9409,-7.8583
6.8246,0.76555,9.1707,-2.6797,-14.521,3.6423,1.9512,1.2298,-9.8211,-2.6797,-14.521,4.6434,3.8095,-3.873,4.5714,-4.5089,0.06441,-4.7021,-17.016001,12.479,-5.2818
4.9289,3.3174,7.8699,-10.523,-13.861,4.2927,3.252,1.2298,-6.5691,-10.523,-13.861,5.3068,7.619,1.2063,5.8413,1.2882,3.285,5.6039,-12.571,11.166,-3.3494
4.9289,2.6794,5.9187,-14.444,-6.6007,7.5447,-0.65041,-2.0065,-5.9187,-14.444,-6.6007,2.6534,12.063,2.4762,8.381,4.5089,5.8615,-0.19324,0.7619,5.2545,-2.0612
6.8246,6.5072,7.2195,-1.3725,-4.6205,6.2439,1.3008,2.5243,2.5366,-1.3725,-4.6205,4.6434,13.333,7.5556,9.6508,10.306,8.438,14.622,9.0159,10.509,6.9565
-7.0774,0.76555,-1.8862,-5.9477,-13.861,-5.4634,-2.6016,-3.9482,0.58537,-5.9477,-13.861,-2.6534,1.9048,6.2857,-3.0476,6.4412,0.06441,22.995001,3.9365,-2.6273,5.6683
-17.82,-5.614,-10.992,-14.444,-14.521,-13.919,-7.1545,-7.1845,-7.2195,-14.444,-14.521,-9.9502,-5.7143,2.4762,-11.302,2.5765,-5.7327,-1.4815,-0.50794,-10.509,3.7359
-9.6051,0.76555,-5.1382,-2.6797,4.6205,-7.4146,-0.65041,1.2298,1.8862,-2.6797,4.6205,-3.3167,-1.9048,3.746,-4.3175,5.153,0.70853,-4.058,9.0159,-5.9113,2.4477
-4.5498,0.12759,-3.187,-1.3725,3.9604,-3.5122,-1.9512,1.877,2.5366,-1.3725,3.9604,-3.3167,-5.7143,-0.06349,-3.6825,1.2882,0.06441,-14.364,1.3968,-9.8522,-2.0612
4.9289,3.9553,2.6667,0.58824,-3.3003,1.6911,1.9512,5.7605,5.1382,0.58824,-3.3003,0.66335,-4.4444,1.2063,1.3968,3.2206,3.285,-20.160999,-2.4127,-3.9409,1.1594
11.248,12.249,9.8211,7.7778,4.6205,10.797,11.057,10.291,10.341,7.7778,4.6205,9.9502,0.63492,7.5556,5.8413,11.594,9.0821,-19.517,3.9365,0.0,14.686
-2.0221,5.8692,2.6667,4.5098,1.3201,2.3415,7.1545,1.877,2.5366,4.5098,1.3201,3.3167,-1.9048,5.6508,-1.7778,9.0177,3.9291,10.113,0.12698,-1.3136,12.11
-6.4455,-1.1483,-1.8862,-8.5621,-4.6205,-1.561,-2.6016,-6.5372,-0.71545,-8.5621,-4.6205,-4.6434,-3.1746,2.4762,-4.3175,3.8647,-0.57971,3.0274,6.4762,0.0,1.8035
6.8246,2.0415,6.5691,-0.71895,-1.3201,2.3415,2.6016,1.877,3.187,-0.71895,-1.3201,1.99,2.5397,6.2857,4.5714,8.3736,6.5056,1.7391,2.6667,3.2841,6.3124
5.5608,-2.4242,4.6179,-3.3333,-7.9208,1.6911,1.9512,1.2298,-3.9675,-3.3333,-7.9208,1.3267,-1.2698,0.57143,2.0317,2.5765,2.6409,7.5362,-5.5873,-0.65681,0.5153
1.7694,-8.1659,-4.4878,-9.2157,-10.561,-1.561,-5.8537,-1.3592,-9.1707,-9.2157,-10.561,-4.6434,-3.1746,-5.1429,-1.1429,-3.8647,-2.5121,9.4686,-4.3175,0.65681,-3.9936
-3.2859,-13.907,-12.293,-4.6405,-9.901,-10.667,-16.26,-2.0065,-13.724,-4.6405,-9.901,-11.94,-5.0794,-10.857,-4.9524,-9.0177,-7.6651,13.333,-15.746,9.1954,-11.723
-3.2859,-12.632,-7.0894,0.58824,-6.6007,-8.7154,-18.862,-2.0065,-13.724,0.58824,-6.6007,-9.9502,-3.8095,-10.222,-3.6825,-9.6618,-5.0886,5.6039,-16.381001,7.225,-20.097
4.9289,-3.0622,5.9187,5.1634,3.3003,3.6423,-6.5041,1.877,-3.9675,5.1634,3.3003,1.99,2.5397,-0.06349,4.5714,-0.64412,3.9291,-12.432,0.12698,-3.9409,-5.9259
9.3523,0.76555,7.2195,1.8954,-5.2805,8.1951,0.0,4.466,-0.71545,1.8954,-5.2805,5.3068,3.8095,1.2063,7.746,1.2882,6.5056,5.6039,2.6667,-6.5681,-0.77295
13.144,4.5933,6.5691,-0.71895,-9.901,9.4959,2.6016,3.8188,-4.6179,-0.71895,-9.901,5.9701,5.7143,2.4762,10.921,3.2206,7.1498,19.775,-5.5873,7.8818,-0.77295
11.248,8.4211,7.8699,1.8954,7.2607,14.699,7.8049,4.466,7.7398,1.8954,7.2607,11.94,4.4444,5.0159,7.1111,5.7971,7.1498,10.757,2.6667,2.6273,-0.12882
4.9289,7.7831,9.8211,5.817,16.502001,14.699,7.1545,-0.71197,18.146,5.817,16.502001,13.267,0.0,3.1111,0.7619,5.7971,4.5733,-13.076,13.46,-1.3136,7.6006
-3.9179,2.6794,5.9187,6.4706,4.6205,3.6423,3.252,-5.2427,14.244,6.4706,4.6205,6.6335,-6.9841,-8.9524,-6.2222,-2.5765,-2.5121,-12.432,7.746,-7.8818,3.7359
3.0332,6.5072,5.2683,11.046,-2.6403,8.1951,7.1545,0.58252,14.894,11.046,-2.6403,7.2968,-2.5397,-9.5873,0.12698,-3.2206,-0.57971,4.9597,10.286,0.65681,-5.2818
3.0332,7.7831,0.06504,1.8954,-1.9802,8.8455,5.8537,-1.3592,12.943,1.8954,-1.9802,4.6434,-0.63492,-4.5079,2.0317,1.9324,1.9968,-3.4138,5.8413,-3.2841,-1.4171
1.7694,7.1451,-0.58537,-5.2941,7.2607,4.2927,6.5041,-2.6537,13.593,-5.2941,7.2607,3.3167,0.0,-1.3333,1.3968,3.8647,3.285,9.4686,0.7619,-3.2841,3.7359
1.7694,5.2313,1.3659,-1.3725,4.6205,-2.8618,4.5528,-3.9482,14.894,-1.3725,4.6205,1.99,-5.7143,-6.4127,-0.50794,-0.64412,0.70853,-23.382,-1.1429,-3.2841,-2.7053
3.0332,6.5072,5.9187,5.1634,9.2409,1.6911,7.8049,-7.1845,16.195,5.1634,9.2409,4.6434,-5.0794,-7.0476,1.3968,0.0,0.70853,-20.160999,16.0,-0.65681,3.7359
-3.9179,0.12759,-0.58537,-1.3725,11.221,-2.8618,3.9024,-14.304,10.341,-1.3725,11.221,-0.66335,-0.63492,-7.0476,1.3968,-3.8647,-3.8003,12.045,9.0159,3.2841,2.4477
-10.237,-2.4242,-9.6911,-5.9477,4.6205,-11.317,-3.252,-17.540001,8.3902,-5.9477,4.6205,-7.2968,1.9048,-5.7778,-1.1429,-2.5765,-5.7327,3.0274,4.5714,1.9704,3.0918
-5.1817,1.4035,-9.0407,1.2418,5.2805,-9.3659,-3.252,-8.479,12.943,1.2418,5.2805,-6.6335,3.1746,1.8413,0.7619,5.153,0.06441,-39.485001,11.556,-1.3136,10.177
1.7694,8.4211,3.3171,7.1242,6.6007,-2.8618,5.2033,3.8188,16.195,7.1242,6.6007,0.66335,8.8889,10.73,8.381,11.594,9.0821,-5.9903,12.825,2.6273,13.398
-0.12638,7.7831,7.2195,1.2418,1.9802,-2.2114,7.8049,-0.06472,16.195,1.2418,1.9802,1.99,7.619,9.4603,7.746,9.0177,7.7939,37.810001,11.556,3.2841,8.2448
-5.8136,-1.7863,-3.8374,-5.2941,-11.221,-11.967,-1.9512,-11.068,5.1382,-5.2941,-11.221,-7.9602,0.63492,-1.9683,-1.1429,-3.2206,-3.8003,8.1804,3.9365,-3.2841,-3.9936
0.50553,-2.4242,-9.0407,-8.5621,-9.2409,-9.3659,-5.2033,-10.421,4.4878,-8.5621,-9.2409,-10.614,4.4444,-3.2381,3.3016,-3.2206,-3.8003,4.9597,6.4762,1.9704,-2.0612
-2.654,-3.7002,-14.894,-18.365999,-5.2805,-7.4146,-9.1057,-10.421,1.2358,-18.365999,-5.2805,-14.594,7.619,-1.9683,3.9365,-3.2206,-4.4444,-34.332001,0.7619,0.0,-5.2818
-4.5498,-4.3381,-12.293,-14.444,-3.3003,-13.268,-6.5041,-8.479,-0.06504,-14.444,-3.3003,-13.93,8.254,0.57143,3.3016,-2.5765,-3.8003,-18.229,-4.9524,5.9113,-3.3494
-1.3902,-1.1483,-6.439,-6.6013,-9.2409,-13.919,1.3008,-3.9482,-0.71545,-6.6013,-9.2409,-10.614,8.254,0.57143,3.9365,-1.9324,-1.868,31.368999,-8.127,11.823,-3.9936
-0.12638,0.76555,-5.1382,1.8954,-3.9604,-11.317,-2.6016,0.58252,1.2358,1.8954,-3.9604,-9.2869,7.619,1.2063,2.0317,-1.9324,-3.8003,6.248,-3.6825,7.225,-3.9936
3.6651,-1.7863,-5.1382,6.4706,1.9802,-6.1138,-5.2033,5.1133,3.187,6.4706,1.9802,-5.9701,6.9841,1.2063,2.6667,-3.2206,-5.0886,2.3833,3.3016,5.2545,-2.0612
2.4013,-6.252,-8.3902,-5.9477,-3.9604,-5.4634,-7.1545,1.2298,-0.06504,-5.9477,-3.9604,-7.2968,1.2698,-2.6032,0.7619,-6.4412,-7.6651,22.995001,-4.9524,5.2545,-2.7053
3.6651,-3.0622,-3.187,-2.6797,-5.2805,-1.561,-6.5041,2.5243,-0.06504,-2.6797,-5.2805,-3.3167,-3.8095,-3.873,1.3968,-3.8647,-3.8003,19.775,-1.7778,3.2841,-0.77295
7.4566,5.2313,7.8699,-0.71895,0.0,4.9431,0.65041,3.8188,2.5366,-0.71895,0.0,2.6534,-5.7143,-2.6032,5.2063,2.5765,4.5733,13.333,3.9365,1.9704,1.1594
7.4566,7.7831,12.423,-2.0261,6.6007,10.146,4.5528,3.1715,1.2358,-2.0261,6.6007,5.9701,-6.3492,-2.6032,5.2063,3.2206,7.1498,20.419001,3.3016,5.9113,-3.9936
8.7204,4.5933,9.8211,1.2418,1.9802,10.146,4.5528,6.4078,0.58537,1.2418,1.9802,6.6335,-3.8095,-3.2381,2.6667,1.9324,3.9291,4.9597,3.9365,2.6273,-1.4171
11.88,2.6794,9.8211,5.1634,0.66007,12.748,5.8537,10.291,3.8374,5.1634,0.66007,8.6235,2.5397,-1.9683,3.9365,-1.2882,1.3527,-7.9227,8.381,1.9704,-6.57
13.144,3.3174,9.1707,5.817,1.3201,15.35,3.9024,7.7023,1.8862,5.817,1.3201,8.6235,5.0794,-0.69841,4.5714,-3.2206,0.06441,-13.076,-6.2222,5.9113,-11.723
4.297,3.9553,3.9675,-1.3725,-5.2805,6.8943,5.2033,1.877,-2.0163,-1.3725,-5.2805,5.3068,6.3492,-0.06349,2.0317,-0.64412,0.06441,10.113,-2.4127,3.9409,-3.3494
1.7694,8.4211,2.6667,3.2026,-3.9604,8.8455,11.057,1.877,2.5366,3.2026,-3.9604,5.9701,8.254,3.1111,2.0317,4.5089,2.6409,21.707001,-3.0476,3.9409,6.9565
-0.75829,5.2313,-2.5366,-2.0261,-4.6205,4.9431,5.2033,-0.71197,-0.71545,-2.0261,-4.6205,0.0,3.1746,-1.9683,-2.4127,1.9324,-0.57971,2.3833,-14.476,0.0,-0.12882
-4.5498,-3.0622,-7.0894,-3.9869,-5.9406,-5.4634,-2.6016,-0.71197,-5.2683,-3.9869,-5.9406,-6.6335,1.9048,-8.3175,-4.3175,-5.153,-3.1562,8.8245,-0.50794,-0.65681,-9.1465
-2.0221,-7.5279,-5.7886,1.2418,2.6403,-6.1138,-8.4553,-0.71197,-3.9675,1.2418,2.6403,-7.2968,1.2698,-9.5873,-3.0476,-8.3736,-3.8003,-0.83736,1.3968,-3.2841,-9.7907
9.9842,-0.51037,2.6667,11.046,11.881,2.9919,-2.6016,6.4078,1.2358,11.046,11.881,0.66335,12.063,2.4762,7.1111,1.9324,5.8615,-16.296,-3.0476,3.9409,-0.77295
6.1927,-1.7863,2.0163,9.085,0.0,0.39024,-5.8537,3.8188,-4.6179,9.085,0.0,-3.9801,12.698,5.0159,7.1111,3.8647,7.7939,6.8921,-3.6825,7.225,3.0918
-0.75829,-3.7002,-1.8862,0.58824,-8.5809,-2.2114,-11.707,1.2298,-13.724,0.58824,-8.5809,-9.9502,7.619,1.2063,2.0317,1.9324,5.2174,26.860001,-13.206,3.9409,-3.9936
8.0885,4.5933,5.9187,4.5098,-5.9406,6.8943,-3.9024,8.3495,-7.2195,4.5098,-5.9406,0.0,13.333,4.381,7.746,6.4412,9.7262,20.419001,-2.4127,8.5386,-0.12882
7.4566,-0.51037,3.3171,-0.71895,-11.881,4.9431,-3.252,5.1133,-11.772,-0.71895,-11.881,0.66335,6.3492,-5.1429,2.0317,-3.8647,1.9968,-6.6345,-4.9524,3.2841,-9.1465
9.9842,-3.7002,3.9675,-0.71895,-13.201,8.1951,1.3008,8.9968,-13.073,-0.71895,-13.201,5.3068,2.5397,-8.9524,-0.50794,-9.0177,-1.868,-34.332001,-18.921,3.2841,-11.079
9.9842,-1.1483,6.5691,9.7386,1.9802,12.098,6.5041,13.528,-7.8699,9.7386,1.9802,12.604,4.4444,-3.873,1.3968,-7.0853,-0.57971,4.9597,-18.285999,11.823,-7.2142
-1.3902,-5.614,1.3659,5.817,11.221,8.8455,2.6016,7.055,-3.9675,5.817,11.221,11.277,-1.9048,-5.1429,-6.2222,-10.95,-7.6651,17.841999,-10.032,3.2841,-10.435
-7.0774,-10.718,-4.4878,3.2026,8.5809,4.2927,-2.6016,5.7605,-2.0163,3.2026,8.5809,7.2968,-8.8889,-5.7778,-11.302,-12.238,-12.818,21.707001,-3.6825,-7.8818,-7.8583
-8.9731,-10.718,-9.0407,7.7778,0.0,-0.26016,-3.252,3.8188,-5.2683,7.7778,0.0,3.3167,-15.873,-8.9524,-13.206,-10.306,-13.462,21.063,-1.7778,-9.8522,-3.9936
-4.5498,-2.4242,-6.439,12.353,3.9604,4.9431,0.0,3.8188,1.2358,12.353,3.9604,5.3068,-14.603,-8.3175,-11.302,-3.8647,-8.9533,-25.313999,10.286,-12.479,2.4477
-7.0774,5.8692,-2.5366,6.4706,2.6403,6.8943,5.8537,0.58252,7.0894,6.4706,2.6403,8.6235,-10.159,-3.2381,-10.032,0.64412,-3.8003,-29.823,9.6508,-11.823,1.8035
-12.133,12.887,3.3171,-3.3333,5.2805,6.2439,18.862,-2.0065,10.341,-3.3333,5.2805,14.594,-5.0794,2.4762,-6.8571,6.4412,3.285,-1.4815,8.381,-0.65681,9.533
-9.6051,11.611,6.5691,3.8562,10.561,2.9919,20.163,-2.6537,10.992,3.8562,10.561,13.93,-3.8095,3.1111,-2.4127,7.0853,7.1498,15.91,7.746,-4.5977,10.821
-4.5498,3.3174,3.3171,9.085,12.541,-2.8618,9.1057,-5.2427,7.7398,9.085,12.541,5.9701,-5.7143,3.1111,-0.50794,3.2206,7.1498,-13.076,5.8413,-12.479,2.4477
2.4013,1.4035,4.6179,7.1242,11.881,-4.813,1.9512,-7.1845,3.8374,7.1242,11.881,3.3167,-0.63492,5.0159,5.8413,3.8647,10.37,-16.940001,3.3016,-7.225,2.4477
6.8246,3.3174,7.2195,4.5098,7.9208,-0.26016,-0.65041,-4.5955,1.2358,4.5098,7.9208,3.9801,3.1746,4.381,10.286,3.8647,11.659,4.9597,2.0317,-1.3136,0.5153
9.3523,6.5072,10.472,-2.0261,-1.3201,4.9431,1.3008,-3.9482,-1.3659,-2.0261,-1.3201,3.9801,3.1746,-0.06349,10.921,4.5089,12.303,6.248,5.8413,3.9409,3.0918
11.88,8.4211,13.073,1.2418,3.9604,6.2439,2.6016,-0.71197,-0.71545,1.2418,3.9604,3.9801,7.619,1.8413,13.46,6.4412,15.523,14.622,-3.0476,8.5386,-0.77295
6.1927,10.335,13.724,-0.71895,8.5809,5.5935,5.8537,1.2298,5.1382,-0.71895,8.5809,4.6434,7.619,5.0159,9.6508,9.6618,17.455999,2.3833,0.12698,7.8818,1.8035
0.50553,9.059,13.073,5.1634,9.2409,10.797,9.1057,3.8188,7.7398,5.1634,9.2409,7.2968,1.2698,5.0159,1.3968,9.0177,12.303,0.45089,10.921,3.2841,8.2448
-0.12638,0.76555,7.8699,10.392,5.2805,9.4959,8.4553,4.466,1.2358,10.392,5.2805,4.6434,-6.9841,-2.6032,-4.9524,-1.9324,-0.57971,-3.4138,7.746,5.2545,6.9565
6.1927,-8.1659,2.6667,10.392,2.6403,7.5447,3.252,7.055,-0.06504,10.392,2.6403,-0.66335,-6.9841,-5.1429,-3.0476,-11.594,-8.9533,-5.9903,5.2063,7.225,-0.77295
6.1927,-18.372999,-7.0894,2.549,-5.2805,-4.813,-13.008,4.466,-5.2683,2.549,-5.2805,-10.614,-9.5238,-9.5873,-3.6825,-19.968,-16.039,12.045,0.7619,1.3136,-12.367
-1.3902,-22.839001,-16.195,-5.2941,-21.782,-11.317,-18.211,-1.3592,-8.5203,-5.2941,-21.782,-15.92,-11.429,-11.492,-9.3968,-23.188,-21.836,6.8921,-9.3968,-3.9409,-13.011
-3.2859,-18.372999,-17.496,-3.9869,-3.3003,-6.1138,-13.659,1.2298,-6.5691,-3.9869,-3.3003,-13.93,-8.254,-9.5873,-10.032,-18.035,-19.903,-0.83736,-15.111,-0.65681,-4.6377
-0.12638,-10.08,-10.341,-2.6797,15.842,1.0407,-5.2033,8.3495,0.58537,-2.6797,15.842,-7.2968,-5.7143,-8.3175,-6.8571,-13.527,-13.462,-22.738001,-8.7619,-4.5977,-7.8583
-5.8136,-10.718,-9.6911,-3.3333,2.6403,-4.813,-1.9512,1.877,-4.6179,-3.3333,2.6403,-10.614,-5.7143,-8.9524,-6.2222,-13.527,-10.886,-0.19324,-8.7619,-7.8818,-13.011
-5.1817,-7.5279,-8.3902,1.2418,-1.9802,-8.065,-4.5528,-0.06472,-3.9675,1.2418,-1.9802,-10.614,0.63492,-4.5079,-2.4127,-6.4412,-5.0886,10.113,-0.50794,-0.65681,-3.9936
-2.0221,2.6794,-1.2358,8.4314,0.66007,1.6911,0.0,5.1133,3.8374,8.4314,0.66007,-1.3267,4.4444,3.1111,1.3968,5.7971,4.5733,-2.1256,9.6508,1.9704,7.6006
-10.237,8.4211,2.6667,7.1242,3.3003,1.6911,1.9512,1.877,2.5366,7.1242,3.3003,1.99,2.5397,5.6508,-3.0476,11.594,8.438,-5.3462,3.9365,-5.9113,9.533
-12.133,11.611,8.5203,2.549,11.221,-1.561,3.9024,-2.0065,4.4878,2.549,11.221,3.3167,5.0794,9.4603,0.12698,13.527,13.591,-11.787,7.746,-5.2545,5.6683
-2.654,10.335,11.772,-1.3725,3.9604,1.6911,8.4553,-1.3592,5.7886,-1.3725,3.9604,5.9701,5.7143,11.365,5.8413,12.882,14.235,1.095,3.9365,3.2841,8.8889
5.5608,8.4211,9.1707,-5.2941,-0.66007,6.2439,9.1057,-3.301,-0.06504,-5.2941,-0.66007,6.6335,6.9841,13.27,10.286,13.527,13.591,12.045,0.7619,7.225,9.533
14.408,11.611,7.8699,-2.6797,-5.2805,13.398,7.8049,2.5243,1.2358,-2.6797,-5.2805,9.9502,8.254,16.444,14.73,16.103001,14.879,-12.432,2.0317,9.1954,6.9565
11.248,10.335,7.2195,6.4706,-1.9802,6.8943,5.8537,4.466,1.2358,6.4706,-1.9802,9.2869,6.9841,15.175,13.46,18.035,14.879,-5.3462,3.3016,0.65681,13.398
1.1374,3.9553,3.9675,7.1242,2.6403,-4.813,1.3008,-3.301,-0.06504,7.1242,2.6403,3.3167,5.0794,14.54,9.0159,14.171,10.37,6.248,3.9365,-3.9409,14.686
-2.0221,-3.7002,-3.8374,-0.71895,-0.66007,-10.016,-3.9024,-8.479,-2.6667,-0.71895,-0.66007,-3.3167,-3.1746,4.381,-0.50794,2.5765,-1.868,0.45089,-1.7778,-6.5681,2.4477
0.50553,-2.4242,-5.1382,-3.9869,3.9604,-0.26016,2.6016,-2.6537,-0.71545,-3.9869,3.9604,1.3267,-3.1746,1.2063,-3.6825,-2.5765,-7.0209,0.45089,2.0317,0.0,0.5153
0.50553,2.6794,1.3659,-0.71895,11.221,6.2439,8.4553,-0.06472,5.1382,-0.71895,11.221,8.6235,1.9048,3.1111,-3.0476,0.0,-4.4444,11.401,12.19,6.5681,3.0918
-4.5498,2.0415,2.6667,1.8954,7.2607,2.3415,3.9024,-3.301,3.187,1.8954,7.2607,6.6335,-1.9048,1.2063,-4.9524,-0.64412,-1.868,-3.4138,1.3968,-0.65681,-0.77295
-7.0774,-1.1483,1.3659,0.58824,1.3201,-1.561,-1.9512,-5.2427,-2.0163,0.58824,1.3201,1.3267,-6.3492,-1.3333,-7.4921,-3.2206,-1.868,-29.179001,-11.937,-9.8522,-5.2818
1.1374,3.9553,8.5203,9.085,3.3003,3.6423,4.5528,5.1133,3.187,9.085,3.3003,7.2968,1.2698,3.1111,0.12698,3.2206,5.2174,2.3833,0.7619,-1.9704,1.8035
0.50553,1.4035,4.6179,8.4314,5.2805,-0.91057,1.9512,0.58252,1.2358,8.4314,5.2805,4.6434,-3.1746,-1.9683,-3.0476,-3.2206,-0.57971,13.977,8.381,-4.5977,0.5153
1.7694,1.4035,3.3171,7.7778,12.541,-0.26016,3.252,3.1715,7.0894,7.7778,12.541,2.6534,-8.8889,-5.7778,-5.5873,-8.3736,-5.7327,4.3156,8.381,-7.8818,-4.6377
2.4013,-0.51037,2.6667,7.7778,6.6007,1.6911,1.9512,5.1133,6.439,7.7778,6.6007,-0.66335,-8.254,-4.5079,-3.6825,-7.0853,-5.7327,-4.058,6.4762,-5.2545,-0.12882
-2.0221,-3.7002,-1.8862,-3.9869,-5.9406,-3.5122,-1.3008,-2.6537,-2.6667,-3.9869,-5.9406,-5.9701,-10.794,-6.4127,-4.3175,-8.3736,-6.3768,-4.7021,5.8413,-4.5977,-5.9259
-5.1817,-1.1483,-2.5366,-3.3333,-8.5809,-6.7642,-0.65041,-5.89,-2.0163,-3.3333,-8.5809,-4.6434,-10.159,-4.5079,-4.9524,-5.153,-4.4444,-10.499,-4.9524,-5.9113,-2.7053
-8.3412,0.12759,-1.8862,-0.06536,-3.9604,-4.813,-2.6016,-7.8317,-0.71545,-0.06536,-3.9604,-1.3267,-10.159,-1.9683,-6.2222,-2.5765,-3.8003,-16.940001,-4.3175,-10.509,5.0242
-10.869,-2.4242,-2.5366,-0.71895,-1.3201,-8.065,-1.9512,-5.89,-2.0163,-0.71895,-1.3201,-1.3267,-11.429,-4.5079,-9.3968,-5.153,-7.0209,-16.296,-0.50794,-11.823,0.5153
-7.0774,2.0415,-1.8862,3.8562,7.9208,-5.4634,0.65041,1.2298,3.187,3.8562,7.9208,0.66335,-6.3492,-0.69841,-7.4921,-0.64412,-3.8003,6.248,-3.0476,-4.5977,-1.4171
-7.0774,1.4035,-6.439,-0.06536,9.2409,-5.4634,-2.6016,-0.06472,3.8374,-0.06536,9.2409,-3.3167,-6.9841,-0.69841,-7.4921,1.2882,-3.1562,15.91,-2.4127,-5.9113,-0.12882
-7.0774,-4.3381,-9.6911,1.8954,-1.3201,-6.1138,-4.5528,-2.0065,-5.2683,1.8954,-1.3201,-6.6335,-9.5238,-3.873,-8.127,-3.8647,-5.7327,-7.2786,0.12698,-7.225,-5.2818
-0.75829,-3.0622,-3.8374,10.392,4.6205,-2.8618,1.3008,3.1715,-2.0163,10.392,4.6205,-0.66335,-5.0794,1.2063,-1.1429,0.0,-1.2238,-22.093,2.6667,1.9704,2.4477
3.6651,4.5933,4.6179,11.046,9.901,4.2927,7.1545,2.5243,7.7398,11.046,9.901,5.9701,-0.63492,6.9206,6.4762,7.0853,6.5056,2.3833,7.1111,4.5977,12.11
0.50553,3.3174,2.6667,-0.71895,3.3003,2.9919,1.3008,-5.89,4.4878,-0.71895,3.3003,1.3267,-0.63492,3.1111,6.4762,3.2206,5.2174,12.045,2.6667,-3.9409,2.4477
-0.12638,2.6794,0.71545,-3.9869,-4.6205,-2.8618,-3.252,-8.479,3.8374,-3.9869,-4.6205,-3.3167,0.63492,-0.06349,5.2063,1.2882,3.9291,0.45089,0.12698,-1.9704,-4.6377
3.0332,6.5072,3.9675,-2.0261,1.9802,-4.813,-0.65041,-4.5955,7.7398,-2.0261,1.9802,-1.99,3.8095,2.4762,6.4762,5.7971,7.7939,-6.6345,12.19,-1.9704,2.4477
5.5608,6.5072,6.5691,-7.9085,3.3003,-1.561,1.3008,0.58252,3.8374,-7.9085,3.3003,-1.3267,5.0794,1.2063,6.4762,5.7971,7.7939,-5.9903,10.286,0.0,6.9565
3.6651,-3.0622,3.3171,-3.9869,-2.6403,-0.91057,-3.9024,1.2298,-1.3659,-3.9869,-2.6403,-3.9801,0.63492,-4.5079,3.9365,-2.5765,1.3527,4.9597,-1.7778,7.8818,0.5153
-0.12638,-13.907,-3.187,1.2418,-1.9802,-0.91057,-11.707,1.2298,-5.2683,1.2418,-1.9802,-7.9602,-8.254,-10.857,-2.4127,-14.815,-9.5974,-13.72,-9.3968,1.9704,-9.7907
2.4013,-16.459,-7.7398,3.2026,-1.9802,-3.5122,-7.8049,3.1715,-3.3171,3.2026,-1.9802,-7.2968,-10.159,-11.492,-3.6825,-18.68,-15.395,-11.787,-6.2222,-3.2841,-11.079
3.0332,-10.08,-11.642,1.2418,-9.2409,-6.1138,-4.5528,4.466,-0.06504,1.2418,-9.2409,-6.6335,-7.619,-8.9524,-1.7778,-14.171,-14.106,-0.83736,-3.6825,-4.5977,-9.7907
-0.12638,-2.4242,-10.992,-1.3725,0.66007,-7.4146,-5.8537,2.5243,-0.71545,-1.3725,0.66007,-7.2968,-5.7143,-8.9524,-1.7778,-8.3736,-10.242,6.248,-17.016001,-5.2545,-7.8583
-8.3412,-3.7002,-10.341,-6.6013,0.0,-7.4146,-7.1545,-2.6537,-7.2195,-6.6013,0.0,-8.6235,-6.3492,-7.6825,-6.8571,-5.7971,-8.9533,8.1804,-8.127,-5.9113,-1.4171
-5.1817,0.76555,-2.5366,-0.71895,1.9802,-4.1626,0.0,1.2298,-2.6667,-0.71895,1.9802,-1.99,-1.9048,-0.06349,-4.3175,0.64412,-3.1562,8.1804,2.6667,-1.3136,5.6683
-5.1817,1.4035,-0.58537,5.1634,11.221,-3.5122,3.252,1.2298,1.2358,5.1634,11.221,1.3267,-1.2698,1.2063,-5.5873,-0.64412,-2.5121,-16.940001,-0.50794,-3.2841,-0.12882
-8.3412,-6.252,-6.439,-0.06536,1.9802,-6.1138,-2.6016,-5.2427,-2.0163,-0.06536,1.9802,-4.6434,-5.0794,-1.9683,-10.032,-6.4412,-8.3092,-30.466999,0.7619,-10.509,-7.8583
-4.5498,-0.51037,-4.4878,-2.0261,-7.2607,-4.1626,3.252,-3.9482,3.187,-2.0261,-7.2607,-1.99,-0.63492,-0.06349,-4.3175,-0.64412,-3.1562,12.689,-1.7778,-4.5977,-2.0612
0.50553,3.3174,0.71545,-7.2549,-0.66007,1.0407,5.8537,-1.3592,5.1382,-7.2549,-0.66007,2.6534,1.9048,-2.6032,0.7619,0.64412,0.70853,-2.1256,2.6667,1.9704,2.4477
-0.12638,3.9553,5.9187,-7.9085,7.9208,7.5447,3.252,-5.2427,3.187,-7.9085,7.9208,6.6335,-0.63492,-7.6825,-1.1429,-3.2206,-0.57971,-9.8551,0.12698,1.9704,-2.7053
-3.2859,2.6794,7.2195,1.8954,5.2805,1.0407,4.5528,-5.89,1.8862,1.8954,5.2805,7.2968,-0.63492,-8.3175,-3.0476,-3.2206,-1.2238,24.927999,-2.4127,9.8522,-0.77295
-3.2859,1.4035,2.6667,5.817,1.3201,-6.7642,0.65041,-4.5955,0.58537,5.817,1.3201,4.6434,-1.2698,-7.0476,-5.5873,-2.5765,-3.1562,15.266,3.9365,5.2545,1.1594
4.297,5.8692,5.2683,3.8562,3.3003,1.0407,3.252,1.877,5.1382,3.8562,3.3003,8.6235,2.5397,0.57143,0.7619,3.8647,1.9968,10.757,10.286,4.5977,6.3124
4.9289,2.0415,6.5691,-7.2549,-0.66007,6.2439,1.9512,-1.3592,1.2358,-7.2549,-0.66007,8.6235,0.63492,5.6508,2.6667,5.7971,3.285,-15.008,9.6508,3.9409,5.6683
5.5608,2.0415,9.1707,-3.3333,-9.901,11.447,5.2033,1.2298,-0.71545,-3.3333,-9.901,10.614,-3.1746,8.1905,2.0317,6.4412,3.285,-15.652,0.7619,-2.6273,5.0242
4.9289,0.76555,9.1707,-0.06536,-7.9208,10.146,7.1545,1.2298,-3.3171,-0.06536,-7.9208,9.9502,-5.7143,5.6508,1.3968,3.2206,0.70853,-10.499,3.9365,-5.9113,3.7359
8.7204,2.0415,11.122,6.4706,7.9208,10.797,6.5041,2.5243,2.5366,6.4706,7.9208,11.277,-1.2698,5.6508,5.2063,3.2206,3.9291,8.8245,0.12698,1.3136,5.6683
7.4566,3.3174,12.423,11.046,9.901,10.146,5.2033,4.466,1.8862,11.046,9.901,11.277,-0.63492,6.2857,4.5714,5.153,6.5056,21.707001,-5.5873,-1.9704,1.1594
4.297,7.1451,11.122,10.392,5.2805,8.8455,5.2033,8.3495,-0.71545,10.392,5.2805,11.277,1.9048,6.2857,3.3016,7.0853,7.1498,14.622,-4.3175,-0.65681,-2.0612
1.1374,2.6794,4.6179,1.2418,-1.9802,4.2927,0.0,3.8188,-7.8699,1.2418,-1.9802,4.6434,4.4444,3.746,2.6667,3.8647,2.6409,-2.7697,-8.127,1.9704,-3.9936
-3.9179,-11.356,-3.187,-11.83,-18.482,-6.7642,-11.707,-8.479,-20.878,-11.83,-18.482,-6.6335,1.2698,-4.5079,-2.4127,-7.0853,-6.3768,-9.2109,-15.746,2.6273,-13.011
-2.654,-9.4418,3.3171,-10.523,-12.541,-6.7642,-6.5041,-7.8317,-15.024,-10.523,-12.541,-3.3167,6.3492,-3.2381,0.12698,-7.7295,-3.8003,1.7391,-15.111,8.5386,-15.588
0.50553,2.0415,11.772,-2.0261,4.6205,-2.2114,3.252,1.877,-0.71545,-2.0261,4.6205,5.3068,7.619,2.4762,0.7619,1.2882,2.6409,1.7391,-5.5873,5.9113,-3.9936
-2.0221,6.5072,9.8211,-0.06536,3.3003,2.3415,5.8537,2.5243,6.439,-0.06536,3.3003,5.9701,1.9048,1.2063,-2.4127,3.2206,1.3527,-13.72,3.9365,0.65681,8.2448
-10.237,5.8692,3.9675,-5.9477,-9.901,-4.1626,5.2033,-6.5372,3.8374,-5.9477,-9.901,-0.66335,-2.5397,-5.1429,-4.9524,0.0,-1.868,-5.3462,0.7619,-3.9409,5.6683
-4.5498,12.249,8.5203,1.8954,-0.66007,-4.813,8.4553,-0.06472,8.3902,1.8954,-0.66007,1.3267,0.0,-2.6032,1.3968,3.8647,1.9968,-0.19324,12.825,-1.3136,2.4477
-0.75829,5.2313,6.5691,4.5098,9.2409,-4.1626,3.252,5.1133,10.341,4.5098,9.2409,-1.3267,-3.1746,-3.2381,0.12698,1.9324,-0.57971,8.8245,13.46,2.6273,8.8889
-8.9731,-6.252,-1.2358,-0.06536,6.6007,-13.268,-9.1057,-2.0065,3.187,-0.06536,6.6007,-9.9502,-10.159,-8.3175,-8.7619,-5.153,-7.6651,12.045,0.7619,-5.9113,3.7359
-15.924,-9.4418,-3.187,-13.137,2.6403,-16.52,-12.358,-8.479,-2.6667,-13.137,2.6403,-14.594,-8.8889,-7.0476,-11.937,-6.4412,-8.9533,10.113,0.7619,-8.5386,1.8035
-15.924,-6.252,-1.8862,-17.712,-7.9208,-14.569,-9.7561,-9.1262,-4.6179,-17.712,-7.9208,-15.257,-8.254,-4.5079,-11.302,-4.5089,-7.0209,10.113,5.8413,-7.8818,0.5153
-12.133,-4.3381,-3.8374,-5.2941,-12.541,-15.87,-9.1057,-4.5955,-3.9675,-5.2941,-12.541,-15.257,-8.8889,-1.3333,-10.667,-1.2882,-7.6651,-50.435001,16.0,-13.793,0.5153
-0.75829,-2.4242,-1.8862,2.549,-3.3003,-6.7642,-5.2033,-1.3592,3.187,2.549,-3.3003,-8.6235,-5.7143,6.2857,-5.5873,5.153,-4.4444,-34.332001,9.0159,-6.5681,7.6006
3.0332,-2.4242,0.71545,3.2026,-0.66007,-3.5122,-3.9024,-2.0065,3.187,3.2026,-0.66007,-5.9701,-3.1746,8.1905,0.12698,8.3736,-0.57971,4.3156,0.7619,-1.9704,10.821
-1.3902,-3.0622,0.71545,-0.71895,2.6403,-8.065,-5.8537,-3.9482,-0.71545,-0.71895,2.6403,-7.9602,-3.8095,6.2857,2.6667,7.7295,1.9968,14.622,-4.3175,-10.509,6.3124
-0.75829,-1.1483,5.2683,-2.6797,11.221,-3.5122,-1.9512,-1.3592,2.5366,-2.6797,11.221,-2.6534,1.2698,10.73,6.4762,9.6618,7.1498,16.554001,-5.5873,-6.5681,7.6006
-0.12638,0.76555,8.5203,3.2026,10.561,4.2927,4.5528,5.7605,3.8374,3.2026,10.561,3.9801,5.7143,12.0,5.8413,9.0177,7.7939,10.113,5.8413,0.0,4.38
8.7204,5.8692,10.472,14.967,9.901,7.5447,12.358,11.586,9.0407,14.967,9.901,9.9502,5.7143,10.095,3.9365,8.3736,5.2174,-29.179001,11.556,0.65681,2.4477
11.88,9.059,12.423,14.967,11.881,10.146,12.358,8.9968,9.6911,14.967,11.881,11.94,8.254,10.095,5.8413,9.6618,5.8615,-0.19324,3.3016,7.8818,4.38
9.9842,10.335,13.073,12.353,2.6403,11.447,10.407,6.4078,7.7398,12.353,2.6403,9.9502,10.159,6.9206,9.0159,9.0177,6.5056,23.639,2.6667,12.479,8.2448
2.4013,3.9553,5.9187,5.817,-3.9604,2.9919,3.252,2.5243,-0.06504,5.817,-3.9604,2.6534,4.4444,-3.2381,4.5714,-0.64412,-1.2238,21.063,0.12698,5.9113,-0.12882
-0.12638,-0.51037,0.71545,-0.06536,7.2607,5.5935,1.9512,2.5243,-0.71545,-0.06536,7.2607,3.3167,-0.63492,-10.857,-1.1429,-9.0177,-9.5974,15.266,-0.50794,0.0,-11.723
0.50553,0.76555,1.3659,-1.3725,3.9604,13.398,4.5528,5.1133,4.4878,-1.3725,3.9604,7.2968,-4.4444,-17.205999,-6.2222,-13.527,-12.818,-27.246,-11.302,0.0,-14.3
7.4566,7.1451,11.772,1.8954,10.561,17.301001,10.407,8.3495,10.992,1.8954,10.561,13.93,-2.5397,-10.222,-1.7778,-3.8647,-3.8003,-22.093,3.9365,5.2545,6.9565
4.297,7.7831,16.325001,10.392,11.221,14.049,9.7561,2.5243,4.4878,10.392,11.221,12.604,-3.8095,-3.873,-0.50794,3.2206,3.285,1.7391,13.46,-0.65681,14.042
1.7694,3.9553,12.423,14.314,5.2805,3.6423,1.9512,-1.3592,0.58537,14.314,5.2805,5.9701,-3.1746,-0.06349,0.7619,4.5089,3.9291,7.5362,2.6667,-5.2545,3.0918
9.3523,5.2313,14.374,13.007,10.561,6.8943,1.3008,6.4078,7.7398,13.007,10.561,7.9602,7.619,9.4603,10.921,11.594,10.37,26.860001,9.6508,11.166,5.6683
7.4566,2.0415,10.472,-0.71895,1.9802,11.447,3.252,0.58252,1.8862,-0.71895,1.9802,7.9602,10.159,10.73,10.921,9.6618,8.438,24.927999,6.4762,12.479,6.3124
4.297,-4.3381,3.3171,-10.523,-9.901,6.8943,1.3008,-5.2427,-4.6179,-10.523,-9.901,2.6534,5.7143,2.4762,3.3016,-0.64412,-1.2238,-13.076,-10.667,0.0,-4.6377
-2.0221,-9.4418,-1.8862,-1.3725,-9.2409,-0.26016,-5.8537,-0.71197,-4.6179,-1.3725,-9.2409,-2.6534,1.9048,-2.6032,-3.6825,-3.8647,-5.0886,-16.940001,-6.8571,-5.2545,-1.4171
-5.1817,-6.252,0.71545,7.7778,3.3003,-2.8618,-6.5041,3.1715,-0.71545,7.7778,3.3003,-2.6534,5.0794,2.4762,-1.1429,2.5765,2.6409,-7.9227,9.6508,0.65681,6.3124
-0.75829,2.6794,10.472,7.7778,7.9208,1.6911,0.0,5.7605,5.1382,7.7778,7.9208,1.99,12.698,11.365,10.286,12.238,15.523,16.554001,14.095,13.136,8.8889
11.248,7.7831,15.675,10.392,9.2409,6.8943,0.65041,10.939,4.4878,10.392,9.2409,3.9801,19.683001,15.175,21.714001,16.103001,21.32,-4.7021,14.095,21.674999,11.465
8.7204,-4.3381,5.9187,-3.9869,-9.2409,1.0407,-11.707,0.58252,-13.073,-3.9869,-9.2409,-7.9602,13.333,6.2857,16.0,1.2882,8.438,1.095,-13.206,9.1954,-7.8583
4.9289,-13.907,-0.58537,-9.8693,-22.441999,-1.561,-18.211,-2.6537,-20.228001,-9.8693,-22.441999,-13.267,9.5238,1.2063,9.0159,-7.0853,-1.2238,19.775,-33.523998,3.9409,-16.232
8.0885,-11.356,2.6667,-3.9869,-9.901,1.0407,-14.959,4.466,-11.122,-3.9869,-9.901,-8.6235,11.429,7.5556,10.286,-1.9324,2.6409,17.198,-18.285999,11.166,-5.2818
6.8246,-10.718,1.3659,-9.2157,-5.2805,-2.2114,-11.057,1.2298,-11.122,-9.2157,-5.2805,-7.9602,8.8889,6.9206,8.381,-1.2882,3.285,3.0274,-3.0476,5.9113,-7.2142
10.616,-0.51037,4.6179,-0.06536,0.66007,-3.5122,-4.5528,3.1715,-6.5691,-0.06536,0.66007,-4.6434,10.794,11.365,11.556,7.7295,11.014,-13.076,2.6667,9.1954,-2.0612
8.7204,4.5933,7.2195,5.1634,-2.6403,-4.813,-1.9512,3.8188,-3.3171,5.1634,-2.6403,-2.6534,8.254,9.4603,10.286,9.6618,12.947,17.198,-3.0476,10.509,0.5153
1.7694,2.0415,4.6179,-5.2941,-7.9208,-0.26016,0.0,0.58252,-4.6179,-5.2941,-7.9208,-0.66335,3.1746,1.8413,4.5714,1.2882,4.5733,30.080999,-7.4921,10.509,-6.57
3.0332,2.0415,2.6667,3.2026,-2.6403,6.2439,5.2033,5.1133,-0.06504,3.2026,-2.6403,5.3068,3.8095,-1.9683,3.3016,-2.5765,-2.5121,26.216,-0.50794,10.509,-0.12882
-0.12638,-3.7002,-3.8374,3.8562,-3.3003,2.9919,0.65041,-0.06472,-4.6179,3.8562,-3.3003,1.3267,-2.5397,-9.5873,-3.0476,-10.306,-10.886,11.401,-4.9524,0.0,-3.9936
3.0332,2.0415,-2.5366,3.2026,5.9406,4.2927,3.252,1.877,1.2358,3.2026,5.9406,3.9801,1.9048,-2.6032,0.12698,-3.2206,-4.4444,1.7391,0.7619,6.5681,1.1594
1.7694,4.5933,-3.187,-2.0261,10.561,-2.2114,3.252,-2.6537,1.8862,-2.0261,10.561,1.99,3.8095,0.57143,2.0317,3.2206,1.3527,-13.076,3.3016,7.225,3.0918
-2.654,1.4035,-5.1382,-3.9869,5.2805,-6.7642,-1.9512,-6.5372,-0.71545,-3.9869,5.2805,-2.6534,0.0,1.8413,0.7619,3.8647,2.6409,-20.805,1.3968,-3.9409,1.1594
-3.9179,-0.51037,-7.7398,-7.2549,-5.2805,-7.4146,-4.5528,-12.362,-1.3659,-7.2549,-5.2805,-3.9801,-1.9048,5.0159,-1.7778,3.2206,0.70853,-34.332001,2.6667,-9.8522,3.7359
1.1374,3.3174,-3.8374,-3.9869,-2.6403,-0.26016,1.3008,-7.1845,5.1382,-3.9869,-2.6403,3.3167,3.8095,8.1905,2.0317,5.153,3.9291,1.7391,5.2063,2.6273,3.7359
1.1374,2.6794,-1.8862,-2.0261,1.3201,3.6423,4.5528,-3.301,7.7398,-2.0261,1.3201,5.9701,3.8095,6.9206,2.0317,4.5089,4.5733,15.266,3.9365,0.0,6.3124
1.1374,3.3174,2.0163,-4.6405,5.2805,5.5935,4.5528,-0.06472,4.4878,-4.6405,5.2805,6.6335,3.1746,7.5556,2.6667,6.4412,7.7939,6.248,5.8413,-6.5681,6.9565
3.6651,7.7831,7.2195,6.4706,4.6205,5.5935,5.8537,4.466,5.7886,6.4706,4.6205,9.2869,5.7143,9.4603,6.4762,10.306,11.659,16.554001,10.921,4.5977,7.6006
4.9289,5.8692,1.3659,7.1242,1.3201,2.9919,3.9024,6.4078,-2.6667,7.1242,1.3201,5.9701,0.63492,5.6508,2.6667,7.0853,7.1498,-5.9903,1.3968,-1.3136,1.8035
11.248,8.4211,2.0163,7.7778,3.9604,4.9431,7.1545,8.9968,-1.3659,7.7778,3.9604,8.6235,2.5397,8.8254,7.1111,10.306,10.37,8.1804,-6.2222,0.0,0.5153
8.7204,8.4211,3.9675,8.4314,8.5809,2.9919,10.407,3.8188,0.58537,8.4314,8.5809,8.6235,3.8095,8.8254,7.746,9.0177,11.014,24.283001,-4.9524,1.9704,-5.2818
-2.654,-1.1483,-1.8862,-8.5621,1.9802,-1.561,3.9024,-4.5955,-2.0163,-8.5621,1.9802,1.99,-3.1746,0.57143,-1.7778,-1.2882,0.70853,3.6715,-12.571,-3.2841,-11.723
-7.7093,-4.9761,-5.1382,-3.9869,-0.66007,1.6911,3.9024,-2.6537,3.8374,-3.9869,-0.66007,1.99,-6.3492,-3.873,-9.3968,-5.7971,-7.0209,-2.7697,-10.667,-5.9113,-5.9259
-7.0774,-1.7863,-7.7398,9.085,2.6403,1.6911,9.1057,3.8188,7.7398,9.085,2.6403,3.9801,-6.3492,-5.7778,-12.571,-5.153,-11.53,8.1804,5.8413,-5.2545,5.0242
-3.9179,-1.1483,-10.341,5.817,9.2409,-0.91057,7.8049,1.877,9.0407,5.817,9.2409,1.99,-6.9841,-7.6825,-10.667,-4.5089,-12.174,-13.72,15.365,-3.2841,7.6006
-8.3412,-6.252,-13.593,-7.2549,1.9802,-6.1138,-3.9024,-6.5372,-0.06504,-7.2549,1.9802,-7.9602,-8.254,-9.5873,-10.032,-6.4412,-12.174,-6.6345,9.0159,-5.9113,1.1594
-8.9731,-2.4242,-9.6911,-4.6405,-4.6205,-7.4146,-7.1545,-2.0065,1.2358,-4.6405,-4.6205,-9.2869,-3.1746,-3.2381,-5.5873,1.2882,-5.7327,1.7391,9.6508,-5.9113,1.8035
-2.654,3.3174,-3.187,-3.9869,-0.66007,3.6423,-4.5528,0.58252,8.3902,-3.9869,-0.66007,-3.3167,3.1746,3.746,0.7619,7.7295,1.9968,17.198,-1.1429,3.9409,5.0242
-2.0221,-0.51037,-4.4878,-0.71895,1.3201,3.6423,-2.6016,-2.0065,2.5366,-0.71895,1.3201,-2.6534,2.5397,4.381,0.7619,7.0853,2.6409,25.572001,-1.7778,0.65681,6.3124
-4.5498,-4.9761,-8.3902,3.8562,-1.3201,-4.813,-0.65041,-3.9482,-2.0163,3.8562,-1.3201,-4.6434,0.63492,-1.3333,-0.50794,0.64412,-0.57971,16.554001,-0.50794,-5.2545,1.1594
3.0332,-0.51037,-1.8862,8.4314,6.6007,-3.5122,5.8537,1.2298,1.2358,8.4314,6.6007,1.99,6.3492,2.4762,5.8413,1.9324,3.9291,4.3156,-1.1429,0.0,5.0242
12.512,7.7831,9.8211,7.1242,13.201,7.5447,12.358,7.7023,8.3902,7.1242,13.201,11.277,17.778,10.73,16.635,9.0177,14.235,21.707001,10.286,12.479,12.11
1.1374,0.12759,1.3659,-3.3333,5.2805,6.2439,0.0,2.5243,-2.0163,-3.3333,5.2805,3.3167,12.063,3.746,7.1111,2.5765,8.438,19.775,-1.7778,8.5386,3.7359
-7.7093,-6.89,-5.1382,-2.6797,-6.6007,2.9919,-5.2033,1.2298,-10.472,-2.6797,-6.6007,-4.6434,6.9841,-0.06349,0.12698,-1.9324,3.9291,-2.1256,-4.3175,5.2545,-5.9259
-5.1817,-7.5279,-7.0894,3.8562,-6.6007,2.9919,-3.9024,1.877,-5.2683,3.8562,-6.6007,-3.9801,6.3492,-0.69841,0.12698,-3.2206,2.6409,-1.4815,-1.7778,3.9409,-10.435
-3.2859,-8.8038,-10.992,0.58824,-3.9604,-4.1626,-8.4553,1.2298,-4.6179,0.58824,-3.9604,-5.9701,3.8095,-0.06349,-1.7778,-7.0853,-2.5121,18.486,-10.032,3.9409,-10.435
6.1927,-2.4242,-7.0894,6.4706,-3.9604,-0.26016,-3.252,7.055,-3.9675,6.4706,-3.9604,-0.66335,10.159,6.9206,3.9365,-1.9324,0.06441,49.403999,-10.667,11.166,-2.0612
3.0332,-6.252,-12.293,4.5098,-9.2409,-2.8618,-7.8049,3.8188,-5.2683,4.5098,-9.2409,-5.3068,8.8889,3.1111,2.0317,-5.153,-5.0886,51.337002,-8.127,15.764,-0.12882
-8.3412,-14.545,-19.447001,-8.5621,-5.2805,-10.016,-16.910999,-3.9482,-7.8699,-8.5621,-5.2805,-13.267,1.2698,-3.873,-7.4921,-12.238,-13.462,37.810001,-6.2222,0.65681,-7.8583
-15.924,-13.907,-20.747999,-8.5621,-9.2409,-5.4634,-14.959,-5.2427,-7.2195,-8.5621,-9.2409,-12.604,-6.3492,-6.4127,-15.746,-12.882,-17.327,33.945,-1.7778,-10.509,-7.8583
-12.765,-4.9761,-16.846001,1.2418,-5.2805,-6.7642,-7.8049,-0.06472,-3.3171,1.2418,-5.2805,-8.6235,-5.0794,-3.873,-13.206,-5.7971,-11.53,3.6715,5.8413,-5.9113,0.5153
-10.237,0.76555,-10.341,-4.6405,-11.221,-12.618,-5.8537,-3.301,-5.2683,-4.6405,-11.221,-9.2869,0.0,3.1111,-6.8571,2.5765,-2.5121,-18.872999,4.5714,-9.8522,-0.12882
-8.3412,2.6794,-6.439,-5.2941,-7.2607,-11.967,-4.5528,-6.5372,-0.71545,-5.2941,-7.2607,-8.6235,0.63492,8.1905,-3.6825,8.3736,1.9968,6.8921,5.2063,-7.225,8.2448
-12.133,-1.7863,-9.0407,-0.71895,3.9604,-11.317,-4.5528,-7.1845,0.58537,-0.71895,3.9604,-7.9602,-2.5397,3.746,-8.7619,4.5089,-3.8003,46.827999,2.0317,-3.9409,10.177
-13.397,-1.7863,-9.6911,0.58824,1.3201,-2.8618,1.3008,-5.89,1.8862,0.58824,1.3201,-4.6434,-4.4444,0.57143,-12.571,1.9324,-7.6651,44.250999,0.7619,-5.9113,6.3124
3.0332,11.611,2.6667,7.7778,5.2805,11.447,13.659,5.7605,15.545,7.7778,5.2805,7.2968,5.7143,10.095,1.3968,12.882,3.9291,31.368999,14.73,5.2545,15.974
8.0885,9.697,1.3659,6.4706,4.6205,4.2927,7.8049,6.4078,11.642,6.4706,4.6205,4.6434,6.3492,6.2857,5.2063,9.6618,3.285,17.841999,14.095,13.793,12.754
3.6651,1.4035,-5.7886,-3.9869,1.9802,-3.5122,1.3008,0.58252,-1.3659,-3.9869,1.9802,-1.99,0.63492,-0.69841,0.7619,1.9324,-3.1562,22.995001,2.6667,7.8818,7.6006
0.50553,1.4035,-6.439,-2.6797,9.2409,1.0407,5.2033,1.2298,3.187,-2.6797,9.2409,-0.66335,-0.63492,-2.6032,-1.7778,-0.64412,-4.4444,26.860001,-1.7778,-3.9409,3.7359
-5.8136,-3.0622,-12.293,0.58824,9.901,1.0407,1.9512,1.877,6.439,0.58824,9.901,-3.3167,-7.619,-10.222,-9.3968,-9.0177,-10.886,-13.72,-3.6825,-17.733999,-10.435
-2.654,1.4035,-9.0407,7.1242,9.901,1.6911,3.252,3.8188,9.6911,7.1242,9.901,0.0,-5.7143,-10.222,-7.4921,-6.4412,-8.9533,16.554001,3.9365,-3.2841,-5.9259
-0.75829,2.0415,-5.7886,7.7778,1.3201,2.3415,3.9024,3.8188,8.3902,7.7778,1.3201,2.6534,-2.5397,-10.222,-3.0476,-5.153,-5.0886,49.403999,-3.0476,7.225,-2.7053
3.0332,0.76555,-3.187,7.7778,7.9208,6.8943,7.1545,6.4078,8.3902,7.7778,7.9208,7.2968,-5.0794,-10.857,-1.7778,-6.4412,-2.5121,35.233002,0.12698,0.0,-2.0612
4.297,-1.1483,-2.5366,8.4314,15.182,10.797,9.7561,4.466,8.3902,8.4314,15.182,11.277,-9.5238,-14.667,-3.6825,-11.594,-5.7327,24.283001,7.746,-6.5681,-3.9936
0.50553,-1.7863,-3.8374,4.5098,14.521,14.049,13.008,3.8188,3.187,4.5098,14.521,12.604,-10.794,-18.476,-6.8571,-16.747,-9.5974,2.3833,0.7619,-7.8818,-8.5024
1.1374,2.6794,-1.2358,4.5098,9.2409,10.146,15.61,5.1133,4.4878,4.5098,9.2409,11.94,-7.619,-12.762,-4.3175,-12.238,-5.7327,15.91,2.6667,-1.9704,-7.8583
-0.75829,2.6794,-5.1382,4.5098,4.6205,-1.561,6.5041,1.2298,6.439,4.5098,4.6205,4.6434,-8.8889,-8.3175,-3.6825,-7.7295,-4.4444,21.063,5.8413,-2.6273,-2.7053
-0.75829,1.4035,-6.439,3.8562,5.2805,-3.5122,0.65041,-1.3592,6.439,3.8562,5.2805,1.3267,-8.254,-8.9524,-3.6825,-6.4412,-3.8003,1.095,6.4762,-5.9113,-2.0612
-0.75829,4.5933,-1.8862,0.58824,1.9802,1.0407,5.2033,-3.9482,4.4878,0.58824,1.9802,4.6434,-1.9048,-8.3175,0.7619,-4.5089,-0.57971,11.401,5.8413,3.9409,-6.57
1.7694,8.4211,3.3171,-5.2941,0.0,5.5935,8.4553,-5.2427,5.1382,-5.2941,0.0,6.6335,3.8095,-2.6032,6.4762,1.2882,4.5733,17.841999,-3.0476,3.2841,1.1594
6.1927,12.249,7.2195,-3.3333,7.2607,1.6911,11.057,-7.8317,7.7398,-3.3333,7.2607,5.3068,8.254,5.0159,10.286,7.0853,9.7262,6.8921,-2.4127,-2.6273,5.6683
13.776,19.266001,15.024,6.4706,11.221,4.2927,16.910999,-5.2427,12.943,6.4706,11.221,10.614,13.968,12.0,16.0,14.815,16.812,0.45089,12.19,10.509,10.177
15.671,24.370001,17.625999,5.817,15.842,6.8943,18.862,0.58252,18.146,5.817,15.842,14.594,20.316999,20.254,19.174999,22.544001,23.253,-12.432,17.905001,9.8522,21.771
2.4013,14.163,7.2195,-5.9477,6.6007,-2.8618,9.1057,-7.1845,8.3902,-5.9477,6.6007,3.3167,10.159,14.54,8.381,14.815,14.879,-5.3462,10.921,-1.9704,13.398
-2.654,9.697,2.0163,-8.5621,0.66007,-4.813,3.9024,-14.951,6.439,-8.5621,0.66007,-1.99,1.2698,8.8254,2.6667,9.0177,7.1498,1.095,4.5714,-1.3136,1.8035
1.1374,7.1451,1.3659,-6.6013,0.66007,-3.5122,0.65041,-13.01,5.7886,-6.6013,0.66007,-1.99,-2.5397,6.2857,2.0317,8.3736,3.285,10.757,2.0317,5.9113,9.533
2.4013,0.76555,-1.2358,-0.06536,-5.2805,-5.4634,-3.252,-7.1845,-0.71545,-0.06536,-5.2805,-3.9801,-5.0794,-0.69841,-0.50794,1.2882,-1.868,-1.4815,2.0317,0.65681,3.7359
3.0332,3.9553,1.3659,4.5098,1.3201,-2.8618,2.6016,-2.0065,5.7886,4.5098,1.3201,-1.99,-1.9048,-3.873,0.7619,0.0,0.06441,-7.2786,5.8413,-3.9409,-4.6377
5.5608,10.973,10.472,5.1634,13.861,3.6423,10.407,6.4078,14.894,5.1634,13.861,5.3068,0.63492,-4.5079,3.3016,3.8647,5.2174,-27.889999,14.095,0.65681,1.1594
3.0332,6.5072,9.8211,-2.0261,5.9406,-0.26016,5.8537,5.1133,7.0894,-2.0261,5.9406,1.3267,-5.0794,-11.492,0.12698,-0.64412,1.3527,-13.076,1.3968,6.5681,3.7359
1.7694,-0.51037,5.2683,-5.2941,-9.2409,-2.2114,0.65041,-2.0065,-4.6179,-5.2941,-9.2409,-4.6434,-7.619,-17.841,-1.7778,-8.3736,-4.4444,9.4686,-11.302,-1.3136,-1.4171
7.4566,2.6794,9.1707,-2.0261,-7.9208,5.5935,3.9024,3.1715,-3.9675,-2.0261,-7.9208,0.0,-3.1746,-14.667,5.2063,-7.7295,0.06441,14.622,-3.6825,-1.9704,-8.5024
9.9842,0.12759,11.122,6.4706,-5.2805,1.6911,2.6016,7.055,-3.3171,6.4706,-5.2805,2.6534,-4.4444,-9.5873,7.1111,-6.4412,3.9291,1.095,-5.5873,-3.2841,-11.079
7.4566,1.4035,11.772,11.699,11.881,-0.91057,0.65041,9.644,3.8374,11.699,11.881,3.3167,-1.2698,0.57143,8.381,0.64412,9.7262,8.8245,0.12698,3.2841,-5.2818
1.1374,-0.51037,4.6179,-0.06536,14.521,-4.1626,-5.8537,5.1133,-0.06504,-0.06536,14.521,-1.99,0.63492,4.381,4.5714,0.64412,7.7939,-7.2786,2.0317,0.0,-7.2142
-2.654,-8.1659,-5.1382,-2.6797,0.0,-4.813,-9.7561,-0.71197,-10.472,-2.6797,0.0,-8.6235,0.63492,1.2063,0.7619,-4.5089,1.9968,-21.448999,-11.937,-4.5977,-16.232
-2.654,-13.27,-9.6911,-5.2941,-9.2409,-4.813,-13.008,-3.9482,-15.675,-5.2941,-9.2409,-11.94,0.0,-0.69841,0.12698,-5.7971,-0.57971,-10.499,-17.016001,-5.2545,-13.011
1.1374,-6.89,-3.8374,0.58824,-8.5809,-2.2114,-6.5041,-1.3592,-8.5203,0.58824,-8.5809,-4.6434,3.1746,5.6508,4.5714,1.9324,4.5733,-0.19324,-7.4921,1.9704,2.4477
1.7694,0.76555,0.06504,-1.3725,-15.182,-1.561,0.0,-1.3592,-1.3659,-1.3725,-15.182,0.66335,3.1746,6.2857,3.9365,5.7971,5.8615,-10.499,-3.6825,6.5681,10.177
4.297,4.5933,1.3659,-2.6797,-11.221,4.9431,1.3008,-2.0065,-0.71545,-2.6797,-11.221,4.6434,1.9048,3.1111,2.6667,4.5089,5.2174,-11.787,-2.4127,5.9113,0.5153
13.144,8.4211,9.1707,7.7778,11.881,19.902,5.8537,3.8188,3.8374,7.7778,11.881,13.267,8.8889,9.4603,9.6508,9.0177,11.014,-7.9227,7.746,5.2545,-1.4171
4.9289,3.3174,5.2683,0.58824,14.521,8.8455,3.252,-0.71197,1.8862,0.58824,14.521,9.9502,4.4444,6.2857,4.5714,5.153,6.5056,-8.5668,0.12698,-5.9113,-0.12882
-3.2859,-2.4242,0.06504,-9.8693,-2.6403,-4.1626,-5.2033,-7.8317,-3.9675,-9.8693,-2.6403,1.99,-2.5397,-1.9683,-3.0476,-0.64412,0.70853,-5.9903,-8.127,-7.8818,-2.7053
-0.75829,1.4035,5.2683,-1.3725,-8.5809,-0.26016,2.6016,-3.9482,-2.0163,-1.3725,-8.5809,5.9701,-2.5397,0.57143,-0.50794,4.5089,5.8615,-1.4815,-8.127,1.3136,5.0242
-2.0221,1.4035,5.9187,5.1634,-1.3201,6.2439,5.2033,-7.8317,-3.3171,5.1634,-1.3201,7.2968,-4.4444,-0.06349,-3.0476,4.5089,3.9291,10.113,-4.9524,0.65681,6.3124
-1.3902,1.4035,5.2683,6.4706,-0.66007,4.2927,1.9512,-5.89,-4.6179,6.4706,-0.66007,7.2968,-6.9841,-5.7778,-4.9524,-0.64412,-1.868,-17.584999,-1.7778,0.0,-2.7053
-4.5498,-7.5279,0.71545,-4.6405,-6.6007,-2.8618,-3.9024,-5.2427,-13.073,-4.6405,-6.6007,1.3267,-12.698,-16.570999,-10.667,-14.171,-10.886,-19.517,-17.650999,2.6273,-18.808001
-8.9731,-18.372999,-5.7886,-17.059,-11.881,-9.3659,-14.309,-6.5372,-19.577,-17.059,-11.881,-7.9602,-15.873,-21.650999,-14.476,-19.323999,-15.395,1.095,-25.905001,-0.65681,-23.961
-9.6051,-17.097,-7.0894,-13.791,-15.182,-8.7154,-15.61,-2.0065,-18.275999,-13.791,-15.182,-10.614,-8.254,-7.6825,-10.032,-9.0177,-9.5974,8.1804,-17.650999,0.65681,-9.7907
-13.397,-16.459,-12.943,-0.71895,-12.541,-10.016,-17.561001,0.58252,-17.625999,-0.71895,-12.541,-14.594,-7.619,-4.5079,-11.302,-5.7971,-10.886,14.622,-12.571,-2.6273,-3.9936
-13.397,-15.183,-16.195,5.817,-4.6205,-11.317,-15.61,2.5243,-12.423,5.817,-4.6205,-13.93,-9.5238,-5.1429,-14.476,-9.0177,-14.75,6.8921,-5.5873,-4.5977,-7.2142
-10.237,-10.718,-12.943,1.8954,-4.6205,-3.5122,-7.8049,7.7023,-6.5691,1.8954,-4.6205,-6.6335,-9.5238,-6.4127,-15.111,-14.815,-17.327,-16.296,-3.0476,0.0,-16.232
-5.1817,-10.718,-6.439,4.5098,-5.9406,4.2927,-1.3008,9.644,-5.9187,4.5098,-5.9406,-0.66335,-4.4444,-6.4127,-8.7619,-15.459,-12.818,-2.7697,-8.127,-1.3136,-9.7907
-4.5498,-15.821,-7.7398,5.817,-2.6403,1.0407,-6.5041,8.3495,-7.8699,5.817,-2.6403,-3.9801,-5.7143,-8.3175,-7.4921,-16.103001,-11.53,12.045,-12.571,-10.509,-7.8583
-7.0774,-15.183,-10.341,3.2026,6.6007,-0.26016,-9.1057,5.1133,-1.3659,3.2026,6.6007,-6.6335,-3.8095,-5.7778,-6.8571,-12.238,-9.5974,13.977,-0.50794,-7.8818,-6.57
-12.133,-14.545,-15.545,0.58824,0.66007,-9.3659,-13.008,-1.3592,-0.06504,0.58824,0.66007,-10.614,-5.0794,-8.3175,-8.7619,-10.306,-10.886,-6.6345,3.3016,-9.1954,-2.0612
-19.716,-15.183,-17.496,-7.2549,-9.2409,-17.820999,-16.26,-7.8317,-5.9187,-7.2549,-9.2409,-13.267,-6.9841,-8.9524,-12.571,-10.95,-12.174,3.6715,2.6667,-9.1954,-4.6377
-17.188,-15.183,-14.244,-5.2941,-5.9406,-10.667,-12.358,3.8188,-8.5203,-5.2941,-5.9406,-8.6235,-6.9841,-7.0476,-13.841,-11.594,-13.462,5.6039,2.0317,-7.225,-3.9936
-8.9731,-17.097,-11.642,2.549,-1.9802,0.39024,-11.707,14.175,-15.675,2.549,-1.9802,-3.9801,-10.159,-10.857,-14.476,-16.747,-16.683001,-10.499,-11.302,-9.8522,-9.7907
0.50553,-10.08,-4.4878,2.549,-4.6205,9.4959,-8.4553,14.822,-15.024,2.549,-4.6205,0.66335,-6.9841,-6.4127,-8.7619,-10.306,-11.53,-0.19324,-8.7619,-2.6273,-2.7053
3.0332,-8.8038,-5.1382,3.8562,0.0,4.2927,-5.8537,15.469,-12.423,3.8562,0.0,-0.66335,-7.619,-7.0476,-7.4921,-8.3736,-10.886,21.707001,-4.3175,1.3136,0.5153
-2.0221,-7.5279,-6.439,5.817,0.66007,-5.4634,-4.5528,12.233,-12.423,5.817,0.66007,-2.6534,-12.063,-5.7778,-11.302,-9.0177,-12.174,18.486,-3.6825,-9.8522,-10.435
-7.7093,-0.51037,0.06504,3.2026,-2.6403,-2.8618,-1.9512,8.9968,-8.5203,3.2026,-2.6403,0.66335,-8.8889,0.57143,-10.667,-0.64412,-5.7327,3.6715,-3.0476,-14.45,-8.5024
-5.1817,9.059,9.8211,0.58824,1.3201,4.9431,5.2033,7.055,-0.06504,0.58824,1.3201,7.2968,-1.9048,6.2857,-5.5873,7.7295,3.285,-9.2109,0.12698,-13.136,-0.77295
-4.5498,7.1451,10.472,-7.9085,-4.6205,6.2439,4.5528,0.58252,-4.6179,-7.9085,-4.6205,7.9602,0.0,7.5556,-4.3175,5.7971,3.285,-3.4138,-3.0476,-12.479,-0.12882
8.7204,10.335,12.423,-2.6797,-7.2607,10.797,8.4553,5.1133,-5.2683,-2.6797,-7.2607,11.277,8.8889,11.365,6.4762,9.6618,8.438,11.401,2.6667,5.2545,8.8889
11.248,9.697,7.8699,-3.3333,-3.3003,2.3415,5.2033,2.5243,-7.8699,-3.3333,-3.3003,6.6335,10.794,10.095,9.0159,7.7295,8.438,12.689,2.6667,-1.9704,7.6006
9.3523,10.973,5.9187,-3.9869,1.3201,-2.8618,5.2033,1.2298,-8.5203,-3.9869,1.3201,3.9801,9.5238,10.095,9.0159,9.6618,8.438,0.45089,5.8413,-7.8818,10.177
11.88,16.715,11.122,3.8562,2.6403,3.6423,12.358,9.644,0.58537,3.8562,2.6403,7.9602,10.159,13.27,11.556,14.171,12.947,1.095,11.556,1.3136,10.821
-0.12638,7.1451,2.6667,-7.2549,-9.2409,-2.2114,1.9512,1.877,-6.5691,-7.2549,-9.2409,-1.3267,-1.2698,4.381,-0.50794,3.8647,4.5733,-10.499,2.0317,-7.225,-5.2818
-3.9179,4.5933,-0.58537,-7.2549,-14.521,-3.5122,-2.6016,1.2298,-10.472,-7.2549,-14.521,-3.9801,-5.0794,3.1111,-4.3175,0.0,1.3527,-1.4815,-13.841,-6.5681,-12.367
1.1374,6.5072,2.6667,-0.71895,0.0,2.3415,0.65041,7.7023,-3.9675,-0.71895,0.0,1.3267,3.1746,8.8254,2.0317,3.2206,4.5733,17.841999,-11.937,5.2545,-4.6377
6.8246,5.2313,2.0163,-0.71895,5.9406,4.9431,0.0,8.3495,0.58537,-0.71895,5.9406,1.99,7.619,8.1905,5.8413,3.2206,4.5733,12.045,2.0317,7.8818,3.7359
6.8246,4.5933,0.71545,-1.3725,3.3003,-1.561,-1.9512,6.4078,1.2358,-1.3725,3.3003,-2.6534,7.619,5.6508,6.4762,3.8647,4.5733,-6.6345,0.12698,-1.9704,5.0242
3.0332,2.6794,-1.2358,-8.5621,-1.3201,-7.4146,-4.5528,-1.3592,-3.3171,-8.5621,-1.3201,-8.6235,6.3492,4.381,4.5714,5.7971,5.2174,-12.432,3.9365,-5.9113,7.6006
-0.12638,2.6794,-0.58537,-8.5621,-5.2805,-4.1626,-1.3008,-5.89,-0.06504,-8.5621,-5.2805,-6.6335,9.5238,6.9206,2.6667,9.6618,5.2174,6.248,8.381,-1.9704,15.974
-5.8136,-1.7863,-4.4878,-8.5621,-13.861,-1.561,-1.9512,-8.479,-3.3171,-8.5621,-13.861,-4.6434,8.254,2.4762,-3.0476,3.8647,-1.2238,5.6039,1.3968,-1.3136,8.8889
-2.0221,-2.4242,-3.8374,-9.2157,-12.541,-0.91057,-0.65041,-4.5955,-2.6667,-9.2157,-12.541,-2.6534,7.619,-1.9683,-1.7778,0.64412,-2.5121,-14.364,-0.50794,9.8522,6.3124
-3.9179,1.4035,-2.5366,-11.176,0.0,0.39024,0.0,-3.9482,1.8862,-11.176,0.0,-1.3267,5.7143,-3.2381,-1.1429,1.2882,-1.2238,6.8921,-4.3175,2.6273,4.38
-7.0774,3.3174,-1.8862,-5.9477,3.9604,-2.8618,-1.9512,-8.479,-1.3659,-5.9477,3.9604,-2.6534,3.8095,-0.69841,-1.7778,3.8647,1.3527,0.45089,5.8413,-7.225,1.8035
-6.4455,0.12759,-5.1382,-0.06536,-6.6007,-4.813,-4.5528,-6.5372,-3.3171,-0.06536,-6.6007,-3.9801,5.0794,1.8413,-1.7778,5.153,1.3527,-0.83736,3.3016,-3.2841,5.0242
-4.5498,-6.89,-9.0407,-1.3725,-9.901,-2.8618,-5.8537,1.2298,-6.5691,-1.3725,-9.901,-3.3167,3.8095,1.8413,-4.3175,-2.5765,-7.0209,2.3833,-8.7619,3.2841,0.5153
0.50553,-9.4418,-7.0894,5.817,-1.3201,0.39024,-3.252,6.4078,-5.2683,5.817,-1.3201,-0.66335,5.7143,1.2063,-2.4127,-9.0177,-11.53,8.1804,-8.127,7.225,-4.6377
2.4013,-7.5279,-2.5366,3.2026,-0.66007,6.2439,-2.6016,5.1133,-3.9675,3.2026,-0.66007,0.66335,7.619,4.381,-0.50794,-7.0853,-7.6651,17.841999,-6.8571,3.9409,-1.4171
-0.75829,-7.5279,-3.8374,-2.0261,-9.2409,2.9919,-1.3008,1.2298,-8.5203,-2.0261,-9.2409,-1.3267,5.0794,4.381,-2.4127,-4.5089,-3.8003,-2.1256,-6.8571,1.3136,-3.3494
-6.4455,-7.5279,-7.7398,-5.9477,-8.5809,0.39024,-3.252,-0.71197,-6.5691,-5.9477,-8.5809,-4.6434,1.2698,0.57143,-7.4921,-3.8647,-5.0886,-15.008,-7.4921,-0.65681,-12.367
-5.1817,-4.3381,-7.7398,-0.06536,-3.9604,3.6423,-4.5528,3.1715,-2.6667,-0.06536,-3.9604,-2.6534,4.4444,1.8413,-5.5873,0.64412,-2.5121,-4.058,-4.9524,0.65681,-5.2818
-2.654,-3.7002,-5.7886,1.8954,0.0,5.5935,-1.3008,5.7605,-0.71545,1.8954,0.0,-0.66335,7.619,-0.06349,-1.7778,-1.2882,-2.5121,12.045,-11.302,-1.3136,-3.9936
-3.2859,-1.7863,-2.5366,-2.0261,-0.66007,4.9431,1.9512,-0.06472,-2.0163,-2.0261,-0.66007,0.0,5.0794,-4.5079,-2.4127,-5.153,-3.1562,1.095,-7.4921,-3.9409,-6.57
4.297,6.5072,3.9675,7.1242,5.9406,4.2927,5.8537,3.8188,2.5366,7.1242,5.9406,3.3167,10.794,-0.06349,4.5714,1.2882,3.9291,-2.7697,5.8413,7.8818,-2.7053
-1.3902,-0.51037,-3.187,0.58824,-5.9406,-3.5122,-1.9512,-0.06472,-2.0163,0.58824,-5.9406,-3.3167,5.7143,-1.3333,-1.1429,-1.9324,-0.57971,-3.4138,2.0317,-1.3136,-5.2818
-7.7093,-6.89,-7.0894,-7.2549,-13.201,-0.91057,-9.7561,-1.3592,-4.6179,-7.2549,-13.201,-6.6335,-1.9048,-3.2381,-6.8571,-2.5765,-5.0886,-3.4138,-4.9524,-2.6273,0.5153
-0.75829,-3.7002,-2.5366,2.549,-1.9802,3.6423,-4.5528,5.1133,1.2358,2.549,-1.9802,-1.99,-1.9048,-4.5079,-2.4127,-2.5765,-1.868,-11.787,-4.3175,1.9704,0.5153
3.6651,-3.0622,-2.5366,1.2418,4.6205,1.0407,-3.252,4.466,5.7886,1.2418,4.6205,-0.66335,-3.8095,-8.9524,0.12698,-9.0177,-3.8003,-15.652,0.7619,-5.9113,-7.8583
12.512,1.4035,4.6179,2.549,9.901,5.5935,0.0,7.7023,9.6911,2.549,9.901,3.9801,3.1746,-5.1429,8.381,-6.4412,0.70853,-27.246,5.2063,-0.65681,-2.7053
11.88,5.8692,10.472,1.8954,7.9208,7.5447,4.5528,3.8188,9.0407,1.8954,7.9208,5.3068,7.619,-2.6032,10.921,-1.9324,5.2174,-0.83736,-1.1429,3.9409,-0.12882
1.7694,4.5933,8.5203,1.8954,-4.6205,-0.91057,4.5528,-3.301,1.2358,1.8954,-4.6205,-0.66335,5.0794,-4.5079,5.2063,-0.64412,3.9291,8.1804,0.12698,-0.65681,-4.6377
-0.12638,7.7831,7.8699,2.549,-3.3003,-6.1138,4.5528,-2.6537,0.58537,2.549,-3.3003,-1.99,13.333,3.746,5.8413,9.0177,9.0821,-18.229,5.8413,0.0,0.5153
-2.0221,3.3174,0.06504,-4.6405,-3.3003,-9.3659,-5.8537,-5.2427,-0.71545,-4.6405,-3.3003,-7.2968,19.683001,10.095,5.2063,13.527,11.014,-26.601999,9.0159,4.5977,7.6006
0.50553,0.76555,-1.8862,-8.5621,-5.2805,-6.1138,-7.1545,-5.89,-2.6667,-8.5621,-5.2805,-8.6235,23.492001,11.365,6.4762,12.238,9.7262,-30.466999,-2.4127,7.225,5.0242
4.297,0.12759,2.0163,-9.2157,-0.66007,-0.26016,-5.8537,-9.1262,-2.6667,-9.2157,-0.66007,-6.6335,25.396999,10.095,9.0159,7.0853,6.5056,-4.058,-9.3968,10.509,-0.12882
5.5608,-3.0622,2.6667,-14.444,0.0,1.0407,-3.9024,-11.068,0.58537,-14.444,0.0,-5.9701,20.316999,6.9206,8.381,2.5765,2.6409,-6.6345,-1.7778,10.509,3.0918
6.1927,2.0415,2.6667,-5.2941,-3.9604,-10.667,-0.65041,-4.5955,1.8862,-5.2941,-3.9604,-6.6335,18.413,7.5556,10.921,5.153,5.2174,1.095,2.6667,13.136,1.8035
5.5608,7.7831,2.0163,1.2418,-6.6007,-15.87,1.9512,-3.301,1.2358,1.2418,-6.6007,-6.6335,16.507999,11.365,11.556,12.238,9.7262,4.9597,3.3016,14.45,10.177
-0.75829,7.1451,-0.58537,-3.3333,-12.541,-14.569,-1.3008,-8.479,-1.3659,-3.3333,-12.541,-8.6235,8.254,10.095,3.9365,14.171,8.438,-33.688,2.0317,1.3136,14.042
-3.9179,5.8692,0.71545,-7.2549,-7.2607,-11.317,-3.252,-10.421,1.2358,-7.2549,-7.2607,-7.9602,5.0794,7.5556,0.12698,11.594,6.5056,-26.601999,4.5714,-2.6273,5.6683
5.5608,8.4211,6.5691,-2.6797,0.0,-4.1626,3.252,-7.1845,5.1382,-2.6797,0.0,-1.99,11.429,11.365,7.746,12.238,9.7262,6.8921,16.635,9.1954,9.533
0.50553,-1.1483,-2.5366,-6.6013,5.2805,-9.3659,-1.9512,-12.362,5.7886,-6.6013,5.2805,-5.9701,1.9048,3.746,1.3968,1.9324,-0.57971,6.8921,2.6667,0.0,7.6006
-0.75829,-2.4242,-4.4878,-1.3725,6.6007,-4.813,0.65041,-10.421,14.244,-1.3725,6.6007,-1.99,-5.0794,-1.3333,-3.0476,-2.5765,-5.7327,0.45089,3.3016,-5.9113,3.0918
-0.12638,3.3174,-1.8862,2.549,9.901,5.5935,7.8049,-7.8317,16.195,2.549,9.901,3.9801,-6.9841,-3.2381,-4.9524,-1.2882,-5.7327,-18.872999,16.0,-5.2545,6.9565
-4.5498,7.1451,0.71545,7.1242,15.842,4.2927,9.1057,-8.479,22.698999,7.1242,15.842,5.3068,-10.159,-8.3175,-7.4921,-1.9324,-5.7327,-22.093,22.349001,-5.2545,8.8889
-3.2859,6.5072,3.3171,9.7386,12.541,-1.561,7.8049,-7.1845,24.65,9.7386,12.541,4.6434,-6.9841,-10.222,-2.4127,-1.2882,-1.2238,-4.058,17.27,-0.65681,9.533
-5.1817,0.12759,-1.8862,-1.3725,4.6205,-6.7642,1.3008,-10.421,14.244,-1.3725,4.6205,-3.3167,-8.8889,-14.667,-3.6825,-6.4412,-4.4444,-10.499,9.0159,-5.2545,0.5153
-3.9179,0.76555,-1.8862,-5.2941,7.9208,-6.1138,1.3008,-11.715,11.642,-5.2941,7.9208,-3.3167,-8.254,-14.667,-4.3175,-6.4412,-5.0886,-11.787,10.921,-5.2545,-1.4171
-7.0774,2.0415,-1.8862,-3.9869,5.2805,-4.1626,1.3008,-12.362,14.894,-3.9869,5.2805,-2.6534,-10.159,-14.667,-8.127,-7.7295,-6.3768,-23.382,6.4762,-3.9409,-3.3494
-6.4455,-0.51037,-1.8862,-0.71895,-4.6205,-1.561,-1.3008,-12.362,12.293,-0.71895,-4.6205,-3.9801,-10.159,-11.492,-7.4921,-7.0853,-4.4444,-29.823,5.2063,-3.9409,-6.57
-2.0221,0.76555,1.3659,3.8562,-3.3003,-0.26016,-2.6016,-11.068,9.6911,3.8562,-3.3003,-2.6534,-3.8095,-3.873,-0.50794,-0.64412,3.285,-32.398998,8.381,-4.5977,-0.12882
2.4013,5.2313,6.5691,-1.3725,1.9802,0.39024,1.9512,-8.479,9.6911,-1.3725,1.9802,1.3267,1.2698,-1.3333,5.2063,4.5089,9.0821,-28.535,9.0159,0.0,8.2448
-1.3902,7.1451,4.6179,-7.2549,-2.6403,-5.4634,4.5528,-9.1262,8.3902,-7.2549,-2.6403,0.0,-0.63492,-4.5079,3.9365,1.9324,7.1498,-34.976002,8.381,7.225,4.38
-0.12638,9.697,3.9675,-3.9869,7.2607,-6.1138,4.5528,-4.5955,11.642,-3.9869,7.2607,0.0,1.2698,-3.2381,2.6667,1.9324,5.8615,-52.367001,-3.6825,-6.5681,-1.4171
-0.75829,7.1451,2.0163,-5.9477,9.2409,-2.8618,5.2033,-6.5372,10.341,-5.9477,9.2409,0.0,2.5397,-0.69841,2.0317,1.9324,3.9291,-18.229,-6.2222,-14.45,-1.4171
1.7694,7.7831,2.6667,-1.3725,6.6007,6.2439,9.7561,-4.5955,12.293,-1.3725,6.6007,4.6434,5.7143,6.2857,3.3016,5.7971,5.2174,8.1804,8.381,-0.65681,3.0918
-3.9179,1.4035,-6.439,1.8954,2.6403,0.39024,4.5528,-3.9482,5.7886,1.8954,2.6403,-0.66335,-1.9048,3.1111,-5.5873,0.0,-4.4444,-7.9227,9.6508,1.9704,0.5153
-8.9731,-6.252,-12.943,-2.0261,-11.221,-4.1626,-1.3008,-7.1845,0.58537,-2.0261,-11.221,-6.6335,-7.619,-1.9683,-11.302,-5.7971,-11.53,-24.025999,7.1111,0.65681,1.1594
-0.75829,-1.1483,-7.0894,2.549,-2.6403,-2.2114,-0.65041,0.58252,5.1382,2.549,-2.6403,-3.9801,-2.5397,2.4762,-4.9524,-1.2882,-6.3768,-48.501999,7.746,1.3136,5.0242
-0.12638,1.4035,-4.4878,0.58824,3.9604,-3.5122,-0.65041,0.58252,8.3902,0.58824,3.9604,-3.3167,1.2698,0.57143,-2.4127,-1.2882,-5.7327,-10.499,-1.1429,5.9113,6.3124
-4.5498,-4.9761,-7.0894,-3.9869,0.0,-1.561,-3.9024,-3.301,4.4878,-3.9869,0.0,-4.6434,-2.5397,-7.6825,-7.4921,-9.6618,-11.53,8.8245,-8.7619,0.65681,-7.8583
-6.4455,-9.4418,-9.6911,2.549,-0.66007,-4.813,-5.2033,-2.6537,2.5366,2.549,-0.66007,-5.9701,-3.8095,-13.397,-8.7619,-13.527,-14.106,-0.19324,-9.3968,-0.65681,-9.1465
-5.1817,-3.0622,-5.7886,7.7778,5.9406,-2.2114,0.0,0.58252,4.4878,7.7778,5.9406,-3.3167,-0.63492,-12.127,-3.6825,-8.3736,-8.3092,-0.83736,0.7619,1.3136,-5.9259
-3.9179,0.76555,-1.2358,3.8562,4.6205,1.0407,4.5528,0.58252,3.187,3.8562,4.6205,0.0,-3.8095,-11.492,-3.0476,-5.7971,-5.0886,-10.499,7.1111,1.9704,-2.0612
1.7694,1.4035,-0.58537,-2.0261,1.3201,2.9919,5.8537,3.1715,1.2358,-2.0261,1.3201,2.6534,-6.9841,-12.762,-3.6825,-7.7295,-6.3768,-27.246,-0.50794,-2.6273,-9.1465
3.6651,-3.0622,-3.187,-0.06536,1.3201,3.6423,3.252,5.1133,1.8862,-0.06536,1.3201,1.3267,-9.5238,-11.492,-4.3175,-9.6618,-7.6651,-22.093,-7.4921,-7.8818,-7.8583
5.5608,0.76555,2.0163,12.353,3.9604,7.5447,5.8537,11.586,9.0407,12.353,3.9604,4.6434,-3.1746,-2.6032,1.3968,-1.9324,-0.57971,6.248,1.3968,0.65681,3.0918
0.50553,2.6794,2.6667,11.046,2.6403,8.8455,3.9024,5.7605,7.7398,11.046,2.6403,3.9801,-3.1746,-0.06349,0.7619,0.0,1.9968,8.8245,3.3016,-0.65681,3.7359
-1.3902,-4.3381,-1.2358,1.8954,-3.3003,1.0407,-4.5528,-0.71197,-5.9187,1.8954,-3.3003,-2.6534,-3.8095,-3.2381,-1.1429,-3.8647,-1.2238,-30.466999,5.2063,-5.9113,-0.12882
8.0885,0.76555,3.3171,-2.0261,-4.6205,0.39024,0.0,-2.6537,-5.2683,-2.0261,-4.6205,-1.3267,10.794,6.2857,9.0159,3.2206,7.1498,-28.535,2.6667,1.9704,1.1594
1.7694,-1.7863,-2.5366,-2.6797,-4.6205,-7.4146,-2.6016,-7.8317,-3.9675,-2.6797,-4.6205,-5.3068,14.603,9.4603,6.4762,3.8647,3.9291,1.7391,-16.381001,5.9113,3.0918
-7.0774,-9.4418,-10.992,-0.71895,-6.6007,-13.268,-7.8049,-7.8317,-7.2195,-0.71895,-6.6007,-10.614,7.619,5.0159,-2.4127,-2.5765,-5.0886,6.248,-17.016001,5.9113,-2.0612
-5.8136,-11.994,-9.6911,-9.2157,-10.561,-2.8618,-9.1057,-3.301,-11.772,-9.2157,-10.561,-9.2869,1.9048,4.381,-4.9524,-3.2206,-7.0209,-16.296,-6.8571,-4.5977,-4.6377
1.1374,-6.252,-1.2358,-3.3333,-4.6205,4.2927,-5.2033,3.8188,-3.9675,-3.3333,-4.6205,-3.3167,5.7143,7.5556,0.7619,2.5765,-1.868,-13.72,6.4762,1.3136,3.0918
8.0885,0.76555,3.9675,-0.06536,0.0,-1.561,-3.9024,5.1133,2.5366,-0.06536,0.0,-0.66335,13.333,6.9206,7.746,4.5089,1.9968,7.5362,13.46,14.45,3.7359
3.0332,-3.7002,-3.187,-5.2941,-7.9208,-11.317,-11.057,-4.5955,-6.5691,-5.2941,-7.9208,-9.2869,11.429,-1.3333,3.9365,-2.5765,-3.1562,8.8245,-1.1429,9.8522,-6.57
-2.0221,-7.5279,-8.3902,-6.6013,-10.561,-13.268,-14.959,-8.479,-11.772,-6.6013,-10.561,-11.94,8.8889,-6.4127,-1.1429,-6.4412,-5.7327,-9.2109,-14.476,7.8818,-8.5024
1.1374,0.12759,0.06504,-0.71895,-3.3003,-6.1138,-1.9512,-1.3592,-5.2683,-0.71895,-3.3003,-2.6534,11.429,-5.1429,2.0317,-2.5765,1.3527,-0.19324,-15.746,11.823,-5.9259
-0.12638,2.6794,7.2195,-2.6797,-11.221,-0.26016,3.9024,-0.71197,-2.6667,-2.6797,-11.221,1.3267,10.794,-5.7778,3.9365,0.64412,5.8615,3.6715,-9.3968,17.733999,-1.4171
1.7694,5.8692,12.423,-5.2941,-8.5809,7.5447,5.8537,-2.0065,-2.0163,-5.2941,-8.5809,5.3068,11.429,-2.6032,7.746,2.5765,9.7262,-31.111,2.0317,6.5681,2.4477
6.1927,5.8692,11.122,-5.2941,1.3201,6.2439,5.8537,-2.0065,-1.3659,-5.2941,1.3201,5.9701,12.698,-1.3333,10.286,1.9324,10.37,-33.042999,6.4762,-1.3136,-2.0612
8.0885,5.2313,7.8699,-9.2157,5.2805,-1.561,3.252,0.58252,1.8862,-9.2157,5.2805,2.6534,16.507999,4.381,14.095,4.5089,12.303,1.7391,9.6508,9.1954,-0.12882
7.4566,10.335,9.1707,-0.06536,0.66007,-0.91057,3.252,0.58252,4.4878,-0.06536,0.66007,1.99,16.507999,9.4603,13.46,10.95,15.523,-0.19324,8.381,7.225,3.0918
11.248,16.077,16.976,11.046,3.9604,8.1951,9.7561,3.8188,8.3902,11.046,3.9604,9.9502,15.873,15.175,15.365,18.68,20.676001,1.095,11.556,7.8818,11.465
8.0885,12.887,15.024,3.2026,7.9208,9.4959,9.1057,3.1715,8.3902,3.2026,7.9208,9.9502,9.5238,12.635,10.921,14.815,15.523,-11.787,-0.50794,1.3136,6.3124
3.6651,3.9553,4.6179,-5.2941,-2.6403,9.4959,4.5528,-3.9482,1.8862,-5.2941,-2.6403,5.3068,6.9841,8.8254,7.746,6.4412,6.5056,-29.823,-10.032,-0.65681,-2.0612
1.7694,0.76555,-0.58537,-3.9869,-0.66007,2.9919,2.6016,-5.2427,-2.6667,-3.9869,-0.66007,2.6534,8.254,11.365,6.4762,7.0853,3.9291,-18.229,-6.8571,-1.3136,-1.4171
1.7694,0.12759,0.06504,-1.3725,-1.3201,-4.1626,0.65041,-1.3592,-7.8699,-1.3725,-1.3201,0.66335,6.3492,12.635,5.2063,9.6618,5.8615,-7.9227,0.12698,-1.9704,8.2448
4.9289,2.6794,3.9675,-1.3725,-4.6205,3.6423,-0.65041,3.8188,-4.6179,-1.3725,-4.6205,3.9801,6.3492,12.635,7.746,11.594,9.7262,11.401,2.0317,5.2545,10.821
4.297,2.0415,3.3171,3.2026,0.0,7.5447,0.0,6.4078,-2.6667,3.2026,0.0,5.9701,4.4444,9.4603,5.2063,8.3736,7.1498,13.333,2.0317,5.9113,2.4477
4.297,-1.7863,0.06504,8.4314,-1.3201,10.146,1.9512,7.7023,-2.0163,8.4314,-1.3201,6.6335,0.63492,5.0159,1.3968,2.5765,0.70853,-1.4815,2.6667,5.2545,-0.77295
2.4013,-6.252,-3.8374,-2.6797,-5.9406,8.1951,-6.5041,3.1715,-3.3171,-2.6797,-5.9406,1.99,-3.8095,-3.873,0.12698,-7.7295,-5.0886,-13.72,-6.2222,3.2841,-7.8583
10.616,-0.51037,6.5691,2.549,7.9208,14.699,1.3008,8.3495,0.58537,2.549,7.9208,9.2869,-1.2698,-5.1429,6.4762,-5.7971,1.3527,-22.738001,-4.9524,1.3136,-3.3494
7.4566,-3.0622,6.5691,10.392,9.2409,8.1951,3.252,7.7023,-2.0163,10.392,9.2409,8.6235,-4.4444,-8.9524,2.0317,-8.3736,-1.2238,-15.652,-3.6825,-0.65681,-5.9259
1.1374,-6.252,-0.58537,7.7778,1.3201,1.6911,-2.6016,1.877,-5.2683,7.7778,1.3201,2.6534,-6.3492,-9.5873,-3.0476,-8.3736,-5.0886,2.3833,-4.9524,1.3136,-8.5024
-0.75829,-6.252,-5.1382,6.4706,-3.9604,-0.26016,-5.8537,-0.06472,-7.8699,6.4706,-3.9604,-2.6534,-3.1746,-5.7778,-1.7778,-5.153,-5.0886,-15.652,-3.6825,4.5977,-5.2818
1.7694,-3.7002,-5.7886,-0.71895,-1.3201,-2.8618,-4.5528,1.2298,-2.6667,-0.71895,-1.3201,-5.9701,2.5397,1.8413,4.5714,0.0,-1.2238,-7.2786,1.3968,5.9113,1.8035
7.4566,3.3174,1.3659,3.2026,9.2409,2.3415,5.2033,5.7605,4.4878,3.2026,9.2409,0.66335,15.238,16.444,15.365,10.95,9.7262,12.045,7.1111,10.509,10.177
-5.8136,-6.252,-9.0407,-5.2941,-6.6007,-7.4146,-5.2033,-6.5372,-3.9675,-5.2941,-6.6007,-8.6235,10.794,13.905,6.4762,5.7971,5.2174,-24.025999,-6.2222,3.2841,1.8035
-10.869,-9.4418,-10.992,-17.712,-14.521,-13.919,-11.707,-15.599,-11.772,-17.712,-14.521,-15.92,8.254,13.27,2.6667,7.0853,6.5056,-18.872999,-8.127,3.9409,2.4477
-8.3412,-4.9761,-3.187,-16.405001,-7.2607,-17.820999,-11.057,-17.540001,-12.423,-16.405001,-7.2607,-14.594,8.8889,14.54,3.3016,9.6618,9.7262,0.45089,-6.2222,5.9113,0.5153
-2.654,0.76555,2.6667,-8.5621,-5.9406,-13.919,-5.8537,-12.362,-9.8211,-8.5621,-5.9406,-7.9602,6.9841,14.54,4.5714,9.0177,9.0821,-9.2109,-14.476,7.8818,-7.2142
4.9289,7.7831,9.8211,3.8562,-1.9802,2.3415,7.8049,-4.5955,-0.06504,3.8562,-1.9802,6.6335,7.619,17.714001,10.286,12.882,12.303,-13.076,-1.1429,7.225,1.1594
9.3523,11.611,13.073,3.8562,7.2607,12.748,14.309,4.466,5.1382,3.8562,7.2607,13.93,6.9841,18.349001,14.095,14.815,14.879,-13.72,4.5714,2.6273,8.8889
9.3523,6.5072,10.472,1.8954,5.2805,12.098,9.7561,5.7605,1.2358,1.8954,5.2805,10.614,1.2698,12.0,11.556,9.0177,11.014,-1.4815,4.5714,1.3136,7.6006
11.248,3.3174,11.772,7.1242,1.9802,9.4959,4.5528,10.291,-2.6667,7.1242,1.9802,8.6235,-2.5397,6.9206,9.0159,4.5089,8.438,18.486,7.746,9.1954,10.177
11.248,5.8692,15.024,11.046,5.9406,13.398,7.8049,11.586,-3.9675,11.046,5.9406,13.93,-5.0794,-0.69841,5.8413,0.64412,5.2174,20.419001,-1.1429,3.9409,8.2448
-2.654,-1.7863,3.9675,4.5098,5.9406,3.6423,3.9024,3.8188,-2.0163,4.5098,5.9406,8.6235,-20.316999,-17.205999,-9.3968,-14.171,-11.53,3.6715,-8.7619,-12.479,-8.5024
-12.765,-10.718,-9.0407,1.2418,-0.66007,-9.3659,-0.65041,-0.71197,-2.0163,1.2418,-0.66007,-2.6534,-31.746,-27.365,-18.921,-21.9,-22.48,-5.9903,-12.571,-16.42,-16.232
-10.237,-8.1659,-9.6911,0.58824,-4.6205,-10.016,-2.6016,-1.3592,-4.6179,0.58824,-4.6205,-7.2968,-30.476,-21.016001,-15.746,-14.815,-17.971001,-13.72,0.7619,-13.136,-7.2142
-0.12638,2.0415,-1.2358,1.8954,1.3201,-0.26016,2.6016,4.466,0.58537,1.8954,1.3201,0.0,-18.413,-8.3175,-6.2222,-2.5765,-8.3092,-13.076,8.381,-2.6273,2.4477
-3.9179,-1.1483,-5.7886,-11.176,-3.3003,-3.5122,-4.5528,-1.3592,-2.0163,-11.176,-3.3003,-3.3167,-17.143,-7.0476,-8.127,-5.153,-10.886,1.095,4.5714,1.3136,-0.77295
-8.3412,-6.89,-9.6911,-17.059,-8.5809,-10.667,-9.7561,-7.1845,-4.6179,-17.059,-8.5809,-9.2869,-17.778,-4.5079,-9.3968,-5.7971,-12.818,10.113,0.7619,-3.9409,-3.3494
-8.3412,-9.4418,-7.0894,-3.3333,-10.561,-10.667,-6.5041,-3.9482,-5.9187,-3.3333,-10.561,-9.2869,-15.873,-1.9683,-6.8571,-4.5089,-8.9533,-10.499,-0.50794,-8.5386,-2.0612
-2.654,-7.5279,-4.4878,-1.3725,-0.66007,-4.1626,-5.8537,1.2298,-2.0163,-1.3725,-0.66007,-6.6335,-14.603,-3.873,-3.6825,-5.153,-5.7327,-20.805,-10.667,-6.5681,-7.8583
-0.75829,-6.252,-5.1382,-5.9477,0.66007,-0.91057,-8.4553,-1.3592,-6.5691,-5.9477,0.66007,-7.2968,-12.063,-0.06349,-1.7778,-2.5765,-2.5121,7.5362,-10.667,-0.65681,-4.6377
-1.3902,-6.252,-7.0894,-2.6797,-3.9604,-3.5122,-10.407,-2.6537,-7.2195,-2.6797,-3.9604,-10.614,-13.333,1.2063,-0.50794,-0.64412,-0.57971,-6.6345,-3.0476,-4.5977,-0.77295
8.0885,7.1451,3.9675,-1.3725,4.6205,1.6911,-0.65041,3.8188,5.1382,-1.3725,4.6205,-1.3267,-6.9841,7.5556,8.381,9.6618,9.7262,14.622,7.746,3.2841,5.0242
2.4013,6.5072,3.3171,-2.6797,0.0,1.0407,1.3008,-2.0065,3.8374,-2.6797,0.0,0.66335,-12.063,1.2063,2.6667,6.4412,5.8615,19.775,6.4762,-2.6273,6.3124
1.1374,2.0415,3.3171,6.4706,-3.9604,1.0407,3.9024,-0.06472,0.58537,6.4706,-3.9604,3.3167,-17.143,-1.9683,-1.1429,2.5765,-0.57971,0.45089,3.3016,-5.9113,5.6683
5.5608,3.3174,6.5691,8.4314,1.9802,7.5447,11.707,1.877,5.1382,8.4314,1.9802,9.2869,-12.698,1.2063,1.3968,1.2882,-0.57971,-7.2786,-1.1429,-2.6273,2.4477
0.50553,-1.1483,-1.2358,1.2418,8.5809,2.9919,7.1545,-1.3592,8.3902,1.2418,8.5809,5.3068,-13.333,-3.873,-3.0476,-4.5089,-5.7327,-22.093,-2.4127,-7.225,-0.77295
-1.3902,-1.1483,0.71545,2.549,6.6007,3.6423,4.5528,-1.3592,7.0894,2.549,6.6007,4.6434,-12.063,-7.6825,-2.4127,-3.8647,-3.8003,4.9597,3.9365,-9.8522,-0.77295
-0.75829,-1.7863,2.6667,-0.06536,1.9802,4.2927,-1.3008,-3.9482,-2.0163,-0.06536,1.9802,2.6534,-13.333,-17.205999,-3.6825,-9.6618,-5.7327,-8.5668,5.8413,-9.1954,-9.7907
8.7204,5.2313,9.1707,3.8562,7.2607,11.447,6.5041,8.9968,3.187,3.8562,7.2607,9.9502,-5.0794,-14.032,3.3016,-6.4412,-1.2238,-16.940001,10.286,2.6273,-3.9936
6.1927,5.2313,7.2195,9.085,11.221,10.146,5.2033,12.233,5.7886,9.085,11.221,10.614,-5.7143,-10.222,2.0317,-6.4412,-1.868,4.9597,-3.0476,0.0,0.5153
4.297,6.5072,9.1707,11.046,6.6007,8.1951,7.1545,12.233,6.439,11.046,6.6007,13.267,-5.7143,-5.1429,2.0317,-4.5089,-1.2238,15.91,2.0317,4.5977,0.5153
1.7694,7.1451,8.5203,3.2026,3.3003,6.8943,9.7561,10.939,3.8374,3.2026,3.3003,13.267,-5.0794,-0.06349,0.12698,-0.64412,-1.2238,5.6039,6.4762,-1.3136,7.6006
-5.8136,1.4035,-0.58537,0.58824,-4.6205,1.6911,2.6016,2.5243,-2.0163,0.58824,-4.6205,5.3068,-6.3492,1.8413,-5.5873,-2.5765,-5.0886,6.248,4.5714,-5.9113,6.9565
-4.5498,-1.1483,-3.8374,3.8562,-7.2607,2.3415,1.9512,2.5243,-3.9675,3.8562,-7.2607,2.6534,-0.63492,8.8254,-3.6825,1.9324,-2.5121,12.689,0.12698,5.2545,-0.12882
-2.654,-1.1483,-3.187,-1.3725,-1.9802,3.6423,0.65041,2.5243,-5.9187,-1.3725,-1.9802,1.3267,1.2698,13.27,-1.7778,5.7971,0.70853,-11.787,-4.9524,7.225,-5.9259
2.4013,5.2313,3.9675,-3.3333,5.2805,4.2927,3.9024,5.1133,2.5366,-3.3333,5.2805,4.6434,3.1746,20.254,3.3016,15.459,7.7939,18.486,5.2063,9.8522,12.754
-0.75829,7.1451,5.2683,1.2418,3.3003,0.39024,5.2033,5.1133,7.0894,1.2418,3.3003,4.6434,0.63492,24.063,2.0317,20.612,11.659,7.5362,16.635,-8.5386,13.398
-7.0774,9.059,2.6667,9.085,3.9604,-2.8618,3.9024,0.58252,5.7886,9.085,3.9604,2.6534,-4.4444,23.429001,-1.1429,22.544001,12.303,1.095,18.540001,-15.107,12.754
-10.237,8.4211,0.06504,-0.71895,3.9604,-2.8618,1.9512,-2.6537,5.7886,-0.71895,3.9604,0.0,-9.5238,20.889,-4.9524,21.9,9.7262,-9.2109,23.618999,-10.509,14.042
-6.4455,7.7831,-1.2358,-4.6405,3.9604,-0.26016,0.65041,-5.2427,3.187,-4.6405,3.9604,-1.3267,-10.159,15.81,-6.2222,18.68,5.8615,-18.229,3.3016,-4.5977,10.821
3.0332,8.4211,3.3171,1.8954,7.2607,2.3415,3.252,-0.71197,5.1382,1.8954,7.2607,1.3267,-4.4444,14.54,0.12698,16.747,7.1498,-8.5668,-1.1429,5.2545,8.2448
5.5608,7.1451,5.2683,5.1634,7.9208,3.6423,3.9024,-0.06472,8.3902,5.1634,7.9208,3.9801,-2.5397,11.365,3.9365,16.103001,7.7939,5.6039,10.286,6.5681,21.771
-4.5498,-0.51037,-0.58537,-0.71895,0.66007,-2.2114,-0.65041,-7.1845,1.8862,-0.71895,0.66007,-0.66335,-10.794,-3.2381,-4.3175,2.5765,-1.2238,-2.7697,1.3968,-4.5977,10.821
-5.8136,-6.89,-4.4878,-7.9085,-7.2607,-4.1626,-3.252,-5.89,-5.9187,-7.9085,-7.2607,-3.9801,-12.698,-14.667,-6.8571,-8.3736,-8.3092,-4.058,-3.0476,-5.2545,-9.1465
4.9289,-2.4242,0.06504,0.58824,-3.3003,2.3415,1.3008,3.8188,-2.6667,0.58824,-3.3003,1.3267,-3.1746,-12.127,2.6667,-5.7971,-4.4444,23.639,3.3016,8.5386,-6.57
2.4013,-6.252,-5.1382,1.2418,-1.3201,-0.26016,-4.5528,0.58252,-5.9187,1.2418,-1.3201,-2.6534,-5.7143,-16.570999,-1.1429,-9.6618,-8.3092,22.351,-1.7778,5.9113,-6.57
-1.3902,-12.632,-10.341,-1.3725,-4.6205,1.0407,-11.057,-0.06472,-9.1707,-1.3725,-4.6205,-6.6335,-8.254,-17.205999,-6.2222,-13.527,-12.174,-2.1256,-9.3968,1.3136,-9.1465
3.0332,-8.8038,-5.1382,2.549,3.3003,9.4959,-3.9024,7.055,-3.9675,2.549,3.3003,0.66335,0.0,-7.6825,-1.1429,-8.3736,-5.0886,16.554001,-4.3175,7.225,-0.77295
3.6651,-6.89,-3.8374,3.2026,-2.6403,6.8943,-5.8537,7.7023,-3.9675,3.2026,-2.6403,0.66335,5.0794,-0.06349,1.3968,-4.5089,-1.2238,15.91,-5.5873,9.1954,0.5153
3.6651,-3.0622,-3.187,0.58824,-5.2805,2.3415,-7.1545,6.4078,-5.2683,0.58824,-5.2805,-3.3167,6.3492,1.2063,3.3016,-5.153,0.06441,-1.4815,-1.7778,7.225,-10.435
7.4566,-3.7002,-0.58537,-2.6797,-0.66007,3.6423,-6.5041,5.7605,-8.5203,-2.6797,-0.66007,-3.3167,5.7143,1.8413,5.8413,-4.5089,1.3527,-6.6345,-3.6825,7.225,-7.2142
6.1927,-1.7863,2.0163,-0.71895,-1.3201,5.5935,-2.6016,5.7605,-6.5691,-0.71895,-1.3201,-1.3267,0.0,3.1111,5.2063,-1.2882,2.6409,17.198,-4.3175,7.225,3.7359
3.0332,5.2313,3.9675,9.7386,5.9406,6.2439,6.5041,10.939,2.5366,9.7386,5.9406,3.9801,-3.1746,6.9206,3.3016,1.2882,3.9291,19.775,2.6667,11.823,1.8035
-2.654,1.4035,-0.58537,10.392,5.9406,2.9919,0.65041,7.7023,4.4878,10.392,5.9406,0.0,-10.794,1.2063,-3.6825,-3.2206,-0.57971,-2.1256,1.3968,-1.9704,-7.8583
8.7204,7.1451,7.8699,13.007,8.5809,7.5447,7.1545,12.233,10.341,13.007,8.5809,6.6335,-1.9048,5.0159,6.4762,3.2206,7.7939,-11.143,12.825,0.65681,1.8035
13.144,10.335,11.772,13.007,11.881,13.398,11.057,13.528,12.293,13.007,11.881,11.94,3.1746,3.746,11.556,3.8647,9.7262,-4.7021,3.3016,8.5386,3.7359
