C3,C4,Cz,F1,F2,F3,F4,F7,F8,Fp1,Fp2,Fz,O1,O2,P3,P4,Pz,T3,T4,T5,T6
-1.0742,-5.641,-0.97561,-1.9608,-6.8627,-0.26016,-1.9324,0.91057,-8.8026,-1.9608,-6.8627,-0.98039,1.9048,0.88889,-0.8254,-3.8835,-1.868,1.7225,-4.6349,-0.98522,-1.095
-1.0742,-5.641,0.0,0.0,-5.8824,-1.2358,-4.8309,3.8374,-10.744,0.0,-5.8824,-1.9608,3.8095,0.88889,0.12698,-2.9126,-0.90177,2.6794,-7.4921,1.9704,-1.095
-0.12638,-5.641,-0.97561,0.98039,-4.902,0.71545,-4.8309,5.7886,-9.7735,0.98039,-4.902,-1.9608,1.9048,-0.06349,0.12698,-2.9126,0.06441,4.5933,-7.4921,2.9557,-3.0274
-1.0742,-5.641,-5.8537,0.98039,-5.8824,1.6911,-5.7971,7.7398,-8.8026,0.98039,-5.8824,-2.9412,0.95238,-1.0159,-0.8254,-3.8835,-0.90177,6.5072,-6.5397,3.9409,-3.9936
-4.8657,-7.5641,-9.7561,0.0,-4.902,0.71545,-6.7633,4.813,-6.8608,0.0,-4.902,-3.9216,-1.9048,-3.873,-4.6349,-5.8252,-4.7665,2.6794,-5.5873,-0.98522,-6.8921
-7.7093,-9.4872,-10.732,-1.9608,-7.8431,-2.2114,-7.7295,0.91057,-5.89,-1.9608,-7.8431,-5.8824,-3.8095,-6.7302,-7.4921,-9.7087,-8.6312,-1.1483,-4.6349,-2.9557,-9.7907
-8.6572,-9.4872,-9.7561,-4.902,-6.8627,-6.1138,-8.6957,-2.0163,-5.89,-4.902,-6.8627,-8.8235,0.0,-3.873,-7.4921,-9.7087,-10.564,-0.19139,-2.7302,-1.9704,-8.8245
-10.553,-9.4872,-10.732,-8.8235,-10.784,-10.016,-9.6618,-4.9431,-6.8608,-8.8235,-10.784,-11.765,4.7619,-1.0159,-6.5397,-7.767,-8.6312,-2.1053,-1.7778,0.0,-5.9259
-8.6572,-7.5641,-10.732,-9.8039,-10.784,-10.992,-7.7295,-6.8943,-5.89,-9.8039,-10.784,-10.784,1.9048,1.8413,-4.6349,-3.8835,-5.7327,-1.1483,-0.8254,0.98522,-1.095
-7.7093,-6.6026,-8.7805,-10.784,-10.784,-10.016,-7.7295,-6.8943,-5.89,-10.784,-10.784,-10.784,-2.8571,-1.0159,-4.6349,-5.8252,-7.6651,-3.0622,-1.7778,0.98522,-2.0612
-5.8136,-5.641,-6.8293,-8.8235,-9.8039,-9.0407,-6.7633,-7.8699,-7.8317,-8.8235,-9.8039,-8.8235,-1.9048,-0.06349,-5.5873,-4.8544,-7.6651,-0.19139,-3.6825,0.98522,-0.12882
-5.8136,-4.6795,-3.9024,-8.8235,-8.8235,-8.065,-5.7971,-8.8455,-7.8317,-8.8235,-8.8235,-7.8431,-4.7619,-3.873,-6.5397,-5.8252,-7.6651,-1.1483,-4.6349,-0.98522,-2.0612
0.82148,1.0897,3.9024,-6.8627,-7.8431,-2.2114,-0.96618,-5.9187,-9.7735,-6.8627,-7.8431,-1.9608,0.95238,-1.0159,1.0794,1.9417,1.0306,0.76555,-3.6825,2.9557,1.8035
1.7694,3.9744,4.878,-5.8824,-4.902,-1.2358,1.9324,-6.8943,-4.9191,-5.8824,-4.902,-0.98039,1.9048,3.746,1.0794,5.8252,3.9291,-1.1483,-1.7778,0.0,5.6683
1.7694,3.0128,2.9268,-6.8627,-0.98039,-2.2114,2.8986,-10.797,0.90615,-6.8627,-0.98039,-0.98039,0.0,0.88889,0.12698,2.9126,1.0306,-3.0622,1.0794,-1.9704,3.7359
0.82148,3.0128,2.9268,-8.8235,0.0,-4.1626,1.9324,-13.724,2.8479,-8.8235,0.0,-2.9412,-1.9048,-1.0159,0.12698,1.9417,-0.90177,-5.933,2.0317,0.0,4.7021
-2.97,0.12821,-0.97561,-13.725,-3.9216,-7.0894,-0.96618,-18.601999,1.877,-13.725,-3.9216,-5.8824,-1.9048,-1.9683,-2.7302,0.0,-3.8003,-9.7608,1.0794,-1.9704,4.7021
-5.8136,-0.83333,-3.9024,-12.745,-4.902,-9.0407,-2.8986,-19.577,1.877,-12.745,-4.902,-7.8431,-3.8095,-4.8254,-6.5397,-2.9126,-8.6312,-12.632,2.0317,-2.9557,3.7359
-6.7615,-0.83333,-5.8537,-11.765,-4.902,-9.0407,-3.8647,-19.577,0.90615,-11.765,-4.902,-8.8235,-0.95238,-2.9206,-7.4921,-1.9417,-8.6312,-13.589,2.9841,-3.9409,4.7021
-8.6572,-2.7564,-8.7805,-10.784,-3.9216,-8.065,-2.8986,-18.601999,0.90615,-10.784,-3.9216,-6.8627,-1.9048,-4.8254,-9.3968,-3.8835,-10.564,-12.632,2.0317,-3.9409,1.8035
-8.6572,-4.6795,-10.732,-8.8235,-4.902,-6.1138,-1.9324,-15.675,0.90615,-8.8235,-4.902,-5.8824,-5.7143,-6.7302,-9.3968,-6.7961,-13.462,-10.718,0.12698,-2.9557,-1.095
-3.9179,-1.7949,-5.8537,-1.9608,1.9608,-1.2358,1.9324,-10.797,1.877,-1.9608,1.9608,-2.9412,0.95238,-3.873,-4.6349,-3.8835,-8.6312,-5.933,-0.8254,0.98522,-2.0612
-2.97,-0.83333,-3.9024,-0.98039,0.0,-1.2358,0.96618,-5.9187,-0.06472,-0.98039,0.0,-2.9412,2.8571,-2.9206,-2.7302,-2.9126,-4.7665,-4.9761,-2.7302,0.0,-3.0274
-0.12638,0.12821,-0.97561,2.9412,2.9412,1.6911,1.9324,0.91057,-1.0356,2.9412,2.9412,0.98039,-1.9048,-1.9683,0.12698,-1.9417,-0.90177,-1.1483,-4.6349,0.0,-3.9936
6.5087,1.0897,1.9512,8.8235,3.9216,7.5447,1.9324,9.6911,-0.06472,8.8235,3.9216,4.902,-1.9048,0.88889,2.9841,0.0,1.9968,2.6794,-5.5873,0.98522,-3.9936
10.3,1.0897,5.8537,14.706,10.784,12.423,4.8309,15.545,-1.0356,14.706,10.784,9.8039,-1.9048,-3.873,5.8413,0.0,1.9968,7.4641,-4.6349,3.9409,-3.0274
7.4566,1.0897,4.878,12.745,6.8627,10.472,3.8647,14.569,-1.0356,12.745,6.8627,8.8235,-6.6667,-8.6349,2.9841,-1.9417,1.0306,7.4641,-3.6825,1.9704,-5.9259
5.5608,3.9744,4.878,9.8039,4.902,7.5447,4.8309,11.642,0.90615,9.8039,4.902,6.8627,-6.6667,-6.7302,2.0317,0.0,1.9968,5.5502,-0.8254,-0.98522,-3.9936
2.7172,5.8974,4.878,5.8824,3.9216,3.6423,5.7971,6.7642,2.8479,5.8824,3.9216,4.902,-4.7619,-3.873,0.12698,1.9417,3.9291,1.7225,2.9841,-2.9557,-0.12882
-0.12638,2.0513,3.9024,0.98039,2.9412,-0.26016,2.8986,0.91057,3.8188,0.98039,2.9412,0.98039,-2.8571,-2.9206,-2.7302,-0.97087,1.0306,-3.0622,4.8889,-6.8966,-0.12882
-2.97,-2.7564,0.0,-2.9412,-3.9216,-4.1626,-4.8309,-2.9919,-0.06472,-2.9412,-3.9216,-3.9216,-3.8095,-5.7778,-4.6349,-5.8252,-3.8003,-4.0191,2.0317,-6.8966,-3.0274
-3.9179,-2.7564,-2.9268,-2.9412,-2.9412,-6.1138,-3.8647,-3.9675,0.90615,-2.9412,-2.9412,-3.9216,0.0,-3.873,-3.6825,-4.8544,-3.8003,-4.0191,2.9841,-3.9409,-1.095
-6.7615,-0.83333,-4.878,-1.9608,-2.9412,-7.0894,-0.96618,-4.9431,2.8479,-1.9608,-2.9412,-2.9412,0.95238,-1.9683,-7.4921,-5.8252,-5.7327,-5.933,3.9365,-3.9409,-0.12882
-4.8657,2.0513,0.0,-0.98039,0.0,-7.0894,2.8986,-3.9675,4.7896,-0.98039,0.0,0.0,0.95238,0.88889,-5.5873,-2.9126,-2.8341,-6.89,4.8889,-1.9704,1.8035
-2.0221,5.8974,5.8537,-1.9608,1.9608,-5.1382,5.7971,-2.0163,5.7605,-1.9608,1.9608,0.98039,3.8095,5.6508,-0.8254,3.8835,3.9291,-6.89,5.8413,0.98522,5.6683
-0.12638,7.8205,9.7561,-0.98039,-0.98039,-2.2114,2.8986,-0.06504,3.8188,-0.98039,-0.98039,0.98039,4.7619,5.6508,1.0794,7.767,6.8277,-4.9761,5.8413,1.9704,6.6345
1.7694,5.8974,11.707,0.0,-0.98039,1.6911,1.9324,1.8862,1.877,0.0,-0.98039,1.9608,5.7143,4.6984,2.0317,7.767,6.8277,-1.1483,4.8889,2.9557,6.6345
-0.12638,3.0128,6.8293,0.0,-1.9608,2.6667,0.0,1.8862,0.90615,0.0,-1.9608,0.98039,7.619,4.6984,1.0794,5.8252,2.963,-0.19139,3.9365,2.9557,5.6683
-2.0221,-3.7179,-3.9024,-2.9412,-2.9412,-0.26016,-4.8309,0.91057,-1.0356,-2.9412,-2.9412,-2.9412,3.8095,4.6984,-1.7778,1.9417,-0.90177,-0.19139,2.0317,2.9557,4.7021
-5.8136,-8.5256,-12.683,-7.8431,-8.8235,-4.1626,-10.628,-1.0407,-5.89,-7.8431,-8.8235,-8.8235,0.0,1.8413,-4.6349,-0.97087,-6.6989,-2.1053,0.12698,0.98522,3.7359
-7.7093,-8.5256,-15.61,-6.8627,-6.8627,-5.1382,-10.628,-0.06504,-6.8608,-6.8627,-6.8627,-9.8039,-3.8095,-1.9683,-8.4444,-2.9126,-9.5974,-1.1483,-0.8254,-0.98522,2.7697
-7.7093,-7.5641,-13.659,-1.9608,-3.9216,-1.2358,-8.6957,4.813,-2.9773,-1.9608,-3.9216,-7.8431,-5.7143,-4.8254,-9.3968,-5.8252,-10.564,0.76555,-0.8254,-4.9261,-1.095
-3.9179,-8.5256,-10.732,2.9412,0.98039,1.6911,-5.7971,10.667,-1.0356,2.9412,0.98039,-3.9216,-3.8095,-4.8254,-7.4921,-8.7379,-10.564,6.5072,-0.8254,-3.9409,-3.9936
-0.12638,-8.5256,-9.7561,4.902,0.98039,4.6179,-3.8647,16.52,-0.06472,4.902,0.98039,-1.9608,-3.8095,-6.7302,-5.5873,-10.68,-11.53,9.378,-2.7302,-0.98522,-4.9597
1.7694,-6.6026,-8.7805,8.8235,3.9216,8.5203,-0.96618,21.398001,-0.06472,8.8235,3.9216,0.98039,-8.5714,-10.54,-6.5397,-11.65,-13.462,13.206,-1.7778,-0.98522,-5.9259
1.7694,-6.6026,-8.7805,11.765,3.9216,9.4959,-0.96618,23.35,0.90615,11.765,3.9216,1.9608,-9.5238,-13.397,-6.5397,-12.621,-13.462,13.206,-0.8254,0.98522,-7.8583
2.7172,-4.6795,-6.8293,13.725,7.8431,9.4959,0.96618,21.398001,2.8479,13.725,7.8431,3.9216,-8.5714,-10.54,-3.6825,-8.7379,-10.564,13.206,0.12698,2.9557,-6.8921
3.6651,-2.7564,-2.9268,15.686,9.8039,9.4959,2.8986,20.423,2.8479,15.686,9.8039,4.902,-8.5714,-10.54,-0.8254,-6.7961,-6.6989,13.206,2.0317,1.9704,-7.8583
3.6651,0.12821,-0.97561,12.745,10.784,8.5203,4.8309,17.496,4.7896,12.745,10.784,5.8824,-6.6667,-10.54,0.12698,-5.8252,-3.8003,12.249,1.0794,0.0,-7.8583
3.6651,2.0513,0.0,13.725,15.686,8.5203,8.6957,14.569,11.586,13.725,15.686,7.8431,-3.8095,-6.7302,1.0794,-2.9126,-0.90177,9.378,2.9841,-0.98522,-3.9936
7.4566,5.8974,4.878,18.627001,21.569,11.447,12.56,14.569,18.382,18.627001,21.569,12.745,0.95238,-0.06349,6.7937,0.97087,3.9291,9.378,5.8413,1.9704,-0.12882
9.3523,6.859,5.8537,16.667,20.587999,12.423,11.594,10.667,16.440001,16.667,20.587999,12.745,0.0,-0.06349,7.746,1.9417,5.8615,6.5072,5.8413,1.9704,-0.12882
6.5087,5.8974,2.9268,12.745,16.667,9.4959,8.6957,6.7642,15.469,12.745,16.667,8.8235,-1.9048,-1.9683,6.7937,2.9126,3.9291,4.5933,5.8413,2.9557,0.83736
3.6651,4.9359,0.97561,9.8039,14.706,4.6179,7.7295,1.8862,12.557,9.8039,14.706,6.8627,-1.9048,-0.06349,4.8889,3.8835,3.9291,2.6794,6.7937,1.9704,3.7359
1.7694,5.8974,1.9512,6.8627,11.765,1.6911,6.7633,-2.0163,12.557,6.8627,11.765,5.8824,1.9048,0.88889,4.8889,5.8252,4.8953,-0.19139,9.6508,1.9704,4.7021
-1.0742,5.8974,0.97561,0.98039,9.8039,-3.187,5.7971,-7.8699,10.615,0.98039,9.8039,1.9608,3.8095,2.7937,3.9365,8.7379,3.9291,-3.0622,9.6508,3.9409,8.5668
-3.9179,3.9744,-3.9024,-4.902,2.9412,-7.0894,0.96618,-11.772,7.7023,-4.902,2.9412,-3.9216,0.0,1.8413,2.0317,7.767,1.0306,-5.933,7.746,3.9409,9.533
-0.12638,5.8974,-1.9512,-2.9412,1.9608,-6.1138,2.8986,-11.772,5.7605,-2.9412,1.9608,-1.9608,3.8095,2.7937,4.8889,8.7379,3.9291,-4.0191,6.7937,6.8966,8.5668
1.7694,5.8974,1.9512,-0.98039,2.9412,-4.1626,2.8986,-10.797,4.7896,-0.98039,2.9412,-0.98039,4.7619,2.7937,7.746,8.7379,6.8277,-4.0191,3.9365,5.9113,7.6006
1.7694,3.9744,4.878,-0.98039,2.9412,-3.187,3.8647,-10.797,1.877,-0.98039,2.9412,0.0,3.8095,3.746,6.7937,7.767,6.8277,-4.9761,2.0317,5.9113,7.6006
-2.0221,2.0513,1.9512,-0.98039,0.0,-3.187,2.8986,-9.8211,0.90615,-0.98039,0.0,0.0,5.7143,1.8413,2.9841,5.8252,4.8953,-6.89,2.0317,4.9261,4.7021
-0.12638,0.12821,0.0,1.9608,3.9216,1.6911,3.8647,-4.9431,0.90615,1.9608,3.9216,1.9608,0.95238,-1.9683,0.12698,1.9417,1.0306,-4.0191,-0.8254,2.9557,1.8035
2.7172,-2.7564,0.0,3.9216,1.9608,4.6179,2.8986,1.8862,-2.0065,3.9216,1.9608,1.9608,-6.6667,-6.7302,-0.8254,-1.9417,-2.8341,2.6794,-4.6349,2.9557,-2.0612
7.4566,-2.7564,5.8537,6.8627,0.98039,9.4959,1.9324,8.7154,-4.9191,6.8627,0.98039,3.9216,-5.7143,-9.5873,2.0317,-3.8835,-0.90177,9.378,-7.4921,4.9261,-7.8583
7.4566,-2.7564,7.8049,11.765,0.0,12.423,1.9324,15.545,-6.8608,11.765,0.0,5.8824,-4.7619,-9.5873,3.9365,-4.8544,1.0306,14.163,-10.349,6.8966,-11.723
5.5608,-5.641,1.9512,11.765,0.0,12.423,-0.96618,19.447001,-8.8026,11.765,0.0,2.9412,-8.5714,-11.492,1.0794,-8.7379,-1.868,16.077,-11.302,4.9261,-13.655
6.5087,-8.5256,-1.9512,12.745,0.98039,13.398,-2.8986,21.398001,-7.8317,12.745,0.98039,3.9216,-7.619,-10.54,-0.8254,-11.65,-4.7665,17.033001,-9.3968,0.98522,-12.689
6.5087,-11.41,-2.9268,10.784,0.0,10.472,-4.8309,19.447001,-5.89,10.784,0.0,1.9608,-2.8571,-7.6825,-1.7778,-12.621,-6.6989,15.12,-7.4921,0.0,-12.689
3.6651,-8.5256,-0.97561,5.8824,0.98039,5.5935,-3.8647,14.569,-3.9482,5.8824,0.98039,0.98039,2.8571,-1.9683,-0.8254,-9.7087,-4.7665,13.206,-4.6349,0.0,-10.757
3.6651,-4.6795,2.9268,2.9412,-1.9608,4.6179,-3.8647,11.642,-3.9482,2.9412,-1.9608,1.9608,7.619,2.7937,2.0317,-6.7961,-0.90177,13.206,-2.7302,2.9557,-6.8921
4.613,-2.7564,3.9024,0.98039,-3.9216,3.6423,-3.8647,9.6911,-4.9191,0.98039,-3.9216,0.98039,7.619,4.6984,2.9841,-2.9126,1.9968,10.335,-2.7302,0.98522,-2.0612
3.6651,-2.7564,0.97561,-2.9412,-8.8235,0.71545,-6.7633,4.813,-5.89,-2.9412,-8.8235,-2.9412,1.9048,4.6984,1.0794,0.97087,3.9291,4.5933,-3.6825,-4.9261,0.83736
4.613,0.12821,0.97561,-1.9608,-5.8824,0.71545,-4.8309,5.7886,-4.9191,-1.9608,-5.8824,-1.9608,0.0,3.746,2.9841,4.8544,7.7939,4.5933,-2.7302,-4.9261,3.7359
3.6651,2.0513,0.97561,-0.98039,-4.902,0.71545,-4.8309,6.7642,-3.9482,-0.98039,-4.902,-2.9412,3.8095,5.6508,6.7937,8.7379,9.7262,3.6364,-1.7778,-0.98522,5.6683
0.82148,1.0897,1.9512,-2.9412,-3.9216,-3.187,-5.7971,4.813,-4.9191,-2.9412,-3.9216,-5.8824,6.6667,8.5079,5.8413,8.7379,8.7601,4.5933,-0.8254,1.9704,7.6006
-2.0221,-3.7179,0.97561,-5.8824,-6.8627,-5.1382,-8.6957,1.8862,-6.8608,-5.8824,-6.8627,-6.8627,4.7619,6.6032,2.0317,4.8544,3.9291,2.6794,-1.7778,0.98522,4.7021
-2.0221,-6.6026,-0.97561,-2.9412,-3.9216,-4.1626,-7.7295,2.8618,-6.8608,-2.9412,-3.9216,-3.9216,9.5238,7.5556,1.0794,2.9126,2.963,0.76555,-1.7778,0.0,3.7359
-4.8657,-6.6026,-8.7805,-2.9412,-3.9216,-5.1382,-4.8309,-0.06504,-4.9191,-2.9412,-3.9216,-4.902,3.8095,6.6032,-2.7302,2.9126,0.06441,-3.0622,-0.8254,-4.9261,4.7021
-6.7615,-3.7179,-11.707,-0.98039,0.98039,-6.1138,-1.9324,-2.9919,-1.0356,-0.98039,0.98039,-3.9216,-6.6667,-0.06349,-5.5873,2.9126,-2.8341,-5.933,0.12698,-6.8966,3.7359
-4.8657,0.12821,-5.8537,2.9412,4.902,-4.1626,1.9324,-2.0163,2.8479,2.9412,4.902,0.0,-4.7619,0.88889,-3.6825,3.8835,-1.868,-6.89,2.9841,-4.9261,4.7021
-3.9179,2.0513,-0.97561,0.98039,3.9216,-3.187,1.9324,-2.9919,2.8479,0.98039,3.9216,0.0,0.0,1.8413,-3.6825,3.8835,-1.868,-5.933,2.9841,-3.9409,6.6345
-2.0221,0.12821,2.9268,1.9608,2.9412,-0.26016,2.8986,-0.06504,0.90615,1.9608,2.9412,1.9608,-3.8095,-2.9206,-4.6349,1.9417,-2.8341,-2.1053,0.12698,-4.9261,3.7359
3.6651,2.0513,7.8049,7.8431,6.8627,7.5447,7.7295,7.7398,0.90615,7.8431,6.8627,7.8431,-3.8095,-4.8254,-2.7302,-0.97087,-1.868,2.6794,-1.7778,-3.9409,-2.0612
7.4566,3.0128,6.8293,13.725,9.8039,12.423,10.628,14.569,0.90615,13.725,9.8039,12.745,-1.9048,-3.873,-1.7778,-1.9417,-1.868,7.4641,-4.6349,-0.98522,-3.0274
4.613,0.12821,0.0,12.745,5.8824,10.472,5.7971,15.545,-2.0065,12.745,5.8824,8.8235,-1.9048,-4.8254,-1.7778,-3.8835,-3.8003,7.4641,-7.4921,-1.9704,-4.9597
0.82148,-3.7179,-5.8537,7.8431,3.9216,5.5935,0.0,10.667,-4.9191,7.8431,3.9216,1.9608,-4.7619,-5.7778,-3.6825,-6.7961,-5.7327,5.5502,-7.4921,-2.9557,-5.9259
-2.97,-4.6795,-8.7805,5.8824,1.9608,2.6667,-2.8986,9.6911,-3.9482,5.8824,1.9608,-1.9608,-4.7619,-5.7778,-3.6825,-5.8252,-4.7665,6.5072,-5.5873,-1.9704,-4.9597
-3.9179,-6.6026,-8.7805,3.9216,0.0,0.71545,-4.8309,9.6911,-4.9191,3.9216,0.0,-3.9216,-1.9048,-2.9206,-1.7778,-5.8252,-4.7665,8.4211,-2.7302,-0.98522,-3.9936
-6.7615,-8.5256,-11.707,-3.9216,-8.8235,-5.1382,-10.628,5.7886,-8.8026,-3.9216,-8.8235,-10.784,-3.8095,-6.7302,-4.6349,-6.7961,-8.6312,6.5072,-3.6825,-2.9557,-4.9597
-6.7615,-9.4872,-11.707,-6.8627,-11.765,-9.0407,-14.493,1.8862,-10.744,-6.8627,-11.765,-13.725,-6.6667,-9.5873,-6.5397,-7.767,-9.5974,5.5502,-3.6825,-3.9409,-3.0274
-2.97,-9.4872,-9.7561,-6.8627,-14.706,-7.0894,-15.459,1.8862,-9.7735,-6.8627,-14.706,-12.745,-2.8571,-1.9683,-2.7302,-3.8835,-5.7327,5.5502,-2.7302,0.0,-1.095
-2.0221,-10.449,-12.683,-8.8235,-15.686,-7.0894,-17.391001,-1.0407,-12.686,-8.8235,-15.686,-13.725,-3.8095,-5.7778,-0.8254,-2.9126,-2.8341,7.4641,-2.7302,1.9704,-2.0612
-2.97,-7.5641,-11.707,-12.745,-18.627001,-10.992,-19.323999,-4.9431,-14.628,-12.745,-18.627001,-15.686,-1.9048,-4.8254,1.0794,0.0,1.9968,4.5933,-3.6825,2.9557,-2.0612
-3.9179,-4.6795,-5.8537,-15.686,-18.627001,-12.943,-18.357,-7.8699,-17.540001,-15.686,-18.627001,-14.706,3.8095,0.88889,2.9841,4.8544,4.8953,1.7225,-4.6349,4.9261,0.83736
-2.97,-2.7564,0.0,-13.725,-17.646999,-12.943,-14.493,-8.8455,-15.599,-13.725,-17.646999,-11.765,3.8095,5.6508,4.8889,7.767,6.8277,-1.1483,-4.6349,5.9113,4.7021
-3.9179,-3.7179,2.9268,-10.784,-12.745,-11.967,-9.6618,-9.8211,-12.686,-10.784,-12.745,-7.8431,5.7143,5.6508,5.8413,6.7961,7.7939,-2.1053,-5.5873,5.9113,3.7359
-2.0221,-2.7564,4.878,-5.8824,-7.8431,-8.065,-4.8309,-7.8699,-9.7735,-5.8824,-7.8431,-2.9412,5.7143,4.6984,4.8889,4.8544,6.8277,-2.1053,-6.5397,5.9113,1.8035
2.7172,3.0128,8.7805,-1.9608,-2.9412,-1.2358,3.8647,-3.9675,-3.9482,-1.9608,-2.9412,4.902,4.7619,4.6984,4.8889,3.8835,5.8615,-4.0191,-5.5873,3.9409,-0.12882
6.5087,7.8205,15.61,0.98039,3.9216,4.6179,10.628,-2.9919,-0.06472,0.98039,3.9216,12.745,4.7619,3.746,4.8889,4.8544,8.7601,-5.933,-3.6825,0.98522,-1.095
7.4566,8.7821,16.584999,2.9412,7.8431,5.5935,10.628,-2.0163,2.8479,2.9412,7.8431,13.725,3.8095,3.746,4.8889,4.8544,9.7262,-9.7608,-0.8254,-3.9409,-1.095
3.6651,6.859,11.707,4.902,8.8235,3.6423,8.6957,-2.0163,4.7896,4.902,8.8235,10.784,5.7143,4.6984,1.0794,1.9417,5.8615,-10.718,2.0317,-5.9113,-1.095
-5.8136,3.0128,2.9268,3.9216,7.8431,-0.26016,6.7633,-2.0163,6.7314,3.9216,7.8431,5.8824,-1.9048,-2.9206,-5.5873,-5.8252,-1.868,-12.632,3.9365,-7.8818,-4.9597
-9.6051,1.0897,-2.9268,3.9216,5.8824,-2.2114,5.7971,-0.06504,5.7605,3.9216,5.8824,3.9216,-5.7143,-5.7778,-11.302,-8.7379,-6.6989,-12.632,3.9365,-11.823,-4.9597
-8.6572,2.0513,-2.9268,3.9216,1.9608,-1.2358,2.8986,1.8862,3.8188,3.9216,1.9608,1.9608,-4.7619,-4.8254,-11.302,-6.7961,-7.6651,-9.7608,3.9365,-12.808,-3.0274
-3.9179,3.9744,0.97561,2.9412,0.0,0.71545,1.9324,1.8862,-0.06472,2.9412,0.0,1.9608,-3.8095,-1.9683,-7.4921,-2.9126,-3.8003,-6.89,4.8889,-9.8522,0.83736
-3.9179,-0.83333,-2.9268,0.98039,-2.9412,-1.2358,-1.9324,2.8618,-1.0356,0.98039,-2.9412,-1.9608,-5.7143,-1.9683,-7.4921,-1.9417,-4.7665,-2.1053,3.9365,-7.8818,2.7697
-2.97,-4.6795,-4.878,4.902,3.9216,-0.26016,-0.96618,4.813,0.90615,4.902,3.9216,-0.98039,-3.8095,-1.9683,-6.5397,-2.9126,-5.7327,1.7225,2.9841,-4.9261,1.8035
-0.12638,-4.6795,-0.97561,7.8431,5.8824,3.6423,0.96618,8.7154,1.877,7.8431,5.8824,2.9412,-1.9048,-3.873,-2.7302,-2.9126,-3.8003,5.5502,2.0317,-0.98522,-0.12882
1.7694,-2.7564,3.9024,10.784,6.8627,7.5447,2.8986,8.7154,-0.06472,10.784,6.8627,6.8627,1.9048,-1.0159,1.0794,0.0,0.06441,8.4211,-0.8254,3.9409,0.83736
2.7172,-1.7949,5.8537,12.745,8.8235,9.4959,2.8986,9.6911,-0.06472,12.745,8.8235,7.8431,2.8571,2.7937,4.8889,2.9126,3.9291,8.4211,-2.7302,4.9261,1.8035
3.6651,2.0513,6.8293,13.725,10.784,8.5203,5.7971,7.7398,0.90615,13.725,10.784,7.8431,3.8095,5.6508,7.746,5.8252,6.8277,9.378,-1.7778,6.8966,2.7697
5.5608,3.0128,5.8537,11.765,11.765,6.5691,5.7971,6.7642,1.877,11.765,11.765,6.8627,7.619,6.6032,10.603,4.8544,6.8277,12.249,-1.7778,10.837,0.83736
6.5087,1.0897,5.8537,2.9412,5.8824,0.71545,2.8986,-0.06504,0.90615,2.9412,5.8824,2.9412,9.5238,8.5079,12.508,2.9126,6.8277,11.292,-1.7778,11.823,0.83736
5.5608,-0.83333,5.8537,-4.902,0.98039,-4.1626,0.0,-6.8943,-1.0356,-4.902,0.98039,-1.9608,7.619,6.6032,12.508,0.0,4.8953,8.4211,-0.8254,11.823,-1.095
3.6651,0.12821,3.9024,-6.8627,-2.9412,-5.1382,-0.96618,-8.8455,-2.0065,-6.8627,-2.9412,-1.9608,7.619,5.6508,11.556,-2.9126,3.9291,5.5502,-0.8254,10.837,-3.0274
3.6651,3.0128,3.9024,-5.8824,-0.98039,-4.1626,2.8986,-10.797,-1.0356,-5.8824,-0.98039,0.98039,10.476,5.6508,10.603,-0.97087,5.8615,0.76555,1.0794,9.8522,-1.095
2.7172,4.9359,4.878,-5.8824,-0.98039,-2.2114,3.8647,-11.772,-0.06472,-5.8824,-0.98039,2.9412,11.429,7.5556,10.603,2.9126,7.7939,-2.1053,2.0317,10.837,2.7697
0.82148,4.9359,5.8537,-8.8235,0.0,-4.1626,3.8647,-16.65,-0.06472,-8.8235,0.0,1.9608,9.5238,4.6984,8.6984,3.8835,6.8277,-5.933,2.9841,9.8522,2.7697
-3.9179,4.9359,3.9024,-11.765,-5.8824,-9.0407,0.0,-21.528,-2.0065,-11.765,-5.8824,-1.9608,6.6667,3.746,4.8889,4.8544,5.8615,-12.632,3.9365,4.9261,4.7021
-4.8657,4.9359,1.9512,-11.765,-3.9216,-10.016,0.0,-22.504,-1.0356,-11.765,-3.9216,-2.9412,4.7619,1.8413,2.0317,4.8544,4.8953,-14.545,5.8413,1.9704,7.6006
-4.8657,0.12821,-2.9268,-9.8039,-1.9608,-8.065,-2.8986,-18.601999,-0.06472,-9.8039,-1.9608,-4.902,2.8571,-0.06349,0.12698,0.97087,1.0306,-14.545,2.9841,0.0,4.7021
-2.97,-3.7179,-6.8293,-6.8627,-0.98039,-6.1138,-2.8986,-12.748,-2.0065,-6.8627,-0.98039,-3.9216,0.95238,1.8413,-1.7778,-2.9126,-2.8341,-8.8038,-0.8254,0.98522,2.7697
-2.0221,-2.7564,-3.9024,-4.902,-2.9412,-4.1626,-1.9324,-7.8699,-2.9773,-4.902,-2.9412,-3.9216,0.0,1.8413,-2.7302,-2.9126,-4.7665,-4.9761,-0.8254,0.0,0.83736
-0.12638,1.0897,1.9512,-1.9608,-0.98039,-2.2114,0.96618,-2.9919,-2.9773,-1.9608,-0.98039,-1.9608,4.7619,4.6984,-0.8254,0.97087,-1.868,-1.1483,0.12698,2.9557,1.8035
-0.12638,3.0128,3.9024,-0.98039,0.0,-1.2358,0.0,-2.0163,-2.0065,-0.98039,0.0,-1.9608,4.7619,4.6984,-0.8254,2.9126,0.06441,-2.1053,-0.8254,1.9704,2.7697
2.7172,6.859,5.8537,1.9608,0.98039,1.6911,1.9324,-0.06504,-1.0356,1.9608,0.98039,0.0,1.9048,2.7937,0.12698,3.8835,1.9968,0.76555,1.0794,1.9704,2.7697
4.613,8.7821,3.9024,2.9412,0.98039,3.6423,3.8647,2.8618,0.90615,2.9412,0.98039,0.98039,0.95238,3.746,1.0794,5.8252,3.9291,3.6364,2.9841,2.9557,2.7697
1.7694,5.8974,-0.97561,0.0,0.0,0.71545,1.9324,0.91057,-0.06472,0.0,0.0,-1.9608,2.8571,5.6508,0.12698,4.8544,2.963,3.6364,2.0317,2.9557,0.83736
1.7694,4.9359,0.97561,0.98039,-0.98039,-0.26016,1.9324,-1.0407,-0.06472,0.98039,-0.98039,-0.98039,2.8571,6.6032,2.0317,4.8544,2.963,2.6794,2.0317,3.9409,0.83736
7.4566,9.7436,9.7561,2.9412,0.98039,4.6179,4.8309,0.91057,0.90615,2.9412,0.98039,4.902,5.7143,9.4603,6.7937,9.7087,8.7601,2.6794,3.9365,5.9113,4.7021
11.248,14.551,15.61,3.9216,2.9412,8.5203,8.6957,-0.06504,2.8479,3.9216,2.9412,8.8235,8.5714,12.317,9.6508,15.534,13.591,3.6364,7.746,7.8818,8.5668
11.248,15.513,15.61,2.9412,1.9608,8.5203,9.6618,-0.06504,4.7896,2.9412,1.9608,8.8235,9.5238,14.222,11.556,15.534,14.557,3.6364,7.746,8.867,10.499
11.248,14.551,14.634,1.9608,2.9412,7.5447,10.628,-0.06504,4.7896,1.9608,2.9412,8.8235,7.619,10.413,11.556,13.592,11.659,3.6364,7.746,9.8522,8.5668
9.3523,11.667,12.683,1.9608,2.9412,6.5691,8.6957,-1.0407,4.7896,1.9608,2.9412,8.8235,6.6667,7.5556,10.603,9.7087,9.7262,0.76555,7.746,6.8966,7.6006
9.3523,9.7436,13.659,1.9608,5.8824,6.5691,9.6618,-2.9919,5.7605,1.9608,5.8824,10.784,11.429,5.6508,9.6508,7.767,8.7601,-0.19139,6.7937,4.9261,7.6006
7.4566,10.705,13.659,0.98039,4.902,7.5447,9.6618,-4.9431,6.7314,0.98039,4.902,10.784,8.5714,4.6984,8.6984,6.7961,8.7601,-4.9761,6.7937,3.9409,7.6006
6.5087,11.667,14.634,0.98039,7.8431,6.5691,11.594,-7.8699,7.7023,0.98039,7.8431,12.745,3.8095,6.6032,5.8413,7.767,8.7601,-6.89,7.746,1.9704,7.6006
2.7172,5.8974,8.7805,0.0,4.902,5.5935,7.7295,-8.8455,7.7023,0.0,4.902,10.784,-1.9048,1.8413,2.0317,2.9126,2.963,-8.8038,5.8413,-0.98522,2.7697
2.7172,0.12821,4.878,3.9216,6.8627,6.5691,6.7633,-3.9675,6.7314,3.9216,6.8627,10.784,-1.9048,-0.06349,0.12698,-0.97087,-0.90177,-6.89,4.8889,-0.98522,0.83736
1.7694,-0.83333,2.9268,5.8824,6.8627,6.5691,5.7971,0.91057,6.7314,5.8824,6.8627,10.784,-0.95238,0.88889,-3.6825,-0.97087,-3.8003,-4.9761,3.9365,-1.9704,1.8035
-2.0221,-2.7564,-1.9512,6.8627,5.8824,3.6423,2.8986,3.8374,4.7896,6.8627,5.8824,7.8431,-4.7619,-1.9683,-8.4444,-4.8544,-9.5974,-4.9761,2.9841,-4.9261,0.83736
-6.7615,-6.6026,-8.7805,5.8824,3.9216,1.6911,0.0,4.813,2.8479,5.8824,3.9216,4.902,-10.476,-5.7778,-14.159,-9.7087,-16.361,-5.933,1.0794,-9.8522,-3.0274
-10.553,-9.4872,-12.683,7.8431,6.8627,-0.26016,0.0,7.7398,4.7896,7.8431,6.8627,2.9412,-12.381,-10.54,-16.063,-12.621,-18.292999,-1.1483,1.0794,-11.823,-6.8921
-12.449,-12.372,-16.584999,5.8824,3.9216,-4.1626,-4.8309,5.7886,2.8479,5.8824,3.9216,-2.9412,-12.381,-13.397,-16.063,-13.592,-17.327,2.6794,-0.8254,-10.837,-9.7907
-10.553,-12.372,-15.61,3.9216,2.9412,-6.1138,-5.7971,4.813,1.877,3.9216,2.9412,-5.8824,-10.476,-11.492,-13.206,-13.592,-13.462,-1.1483,-1.7778,-11.823,-10.757
-9.6051,-9.4872,-12.683,2.9412,4.902,-5.1382,-2.8986,3.8374,2.8479,2.9412,4.902,-4.902,-12.381,-12.444,-14.159,-11.65,-12.496,-2.1053,-0.8254,-14.778,-10.757
-9.6051,-6.6026,-10.732,2.9412,4.902,-5.1382,-1.9324,1.8862,1.877,2.9412,4.902,-3.9216,-5.7143,-8.6349,-12.254,-8.7379,-9.5974,-3.0622,0.12698,-11.823,-7.8583
-9.6051,-6.6026,-10.732,1.9608,2.9412,-7.0894,-2.8986,-0.06504,0.90615,1.9608,2.9412,-4.902,-4.7619,-6.7302,-10.349,-6.7961,-8.6312,-4.9761,0.12698,-9.8522,-4.9597
-11.501,-7.5641,-12.683,-1.9608,-2.9412,-10.992,-6.7633,-3.9675,-1.0356,-1.9608,-2.9412,-10.784,-9.5238,-4.8254,-10.349,-5.8252,-9.5974,-7.8469,-0.8254,-9.8522,-2.0612
-8.6572,-7.5641,-11.707,-2.9412,-1.9608,-10.992,-7.7295,-4.9431,-2.9773,-2.9412,-1.9608,-10.784,-9.5238,-4.8254,-8.4444,-4.8544,-8.6312,-6.89,-1.7778,-7.8818,-0.12882
-8.6572,-5.641,-10.732,-5.8824,-6.8627,-11.967,-9.6618,-6.8943,-5.89,-5.8824,-6.8627,-12.745,-5.7143,-2.9206,-7.4921,-2.9126,-7.6651,-9.7608,-3.6825,-6.8966,1.8035
-5.8136,-1.7949,-4.878,-8.8235,-8.8235,-10.992,-7.7295,-9.8211,-6.8608,-8.8235,-8.8235,-9.8039,0.95238,6.6032,-4.6349,3.8835,-1.868,-8.8038,-0.8254,-3.9409,6.6345
-4.8657,0.12821,0.0,-6.8627,-4.902,-8.065,-3.8647,-8.8455,-2.9773,-6.8627,-4.902,-4.902,0.95238,4.6984,-1.7778,4.8544,1.9968,-8.8038,1.0794,-2.9557,5.6683
-2.0221,2.0513,1.9512,2.9412,0.98039,-3.187,0.0,-2.0163,-1.0356,2.9412,0.98039,0.0,-1.9048,1.8413,0.12698,3.8835,2.963,-5.933,0.12698,-0.98522,3.7359
-0.12638,3.9744,1.9512,3.9216,1.9608,-1.2358,1.9324,0.91057,-0.06472,3.9216,1.9608,0.98039,6.6667,7.5556,6.7937,5.8252,5.8615,-3.0622,1.0794,3.9409,5.6683
2.7172,4.9359,4.878,6.8627,3.9216,0.71545,3.8647,2.8618,-0.06472,6.8627,3.9216,1.9608,10.476,9.4603,9.6508,6.7961,7.7939,-1.1483,2.0317,6.8966,5.6683
2.7172,3.0128,5.8537,6.8627,3.9216,-0.26016,3.8647,0.91057,-0.06472,6.8627,3.9216,1.9608,7.619,10.413,9.6508,4.8544,5.8615,-2.1053,1.0794,7.8818,4.7021
2.7172,0.12821,5.8537,7.8431,7.8431,0.71545,2.8986,-0.06504,-1.0356,7.8431,7.8431,2.9412,4.7619,7.5556,7.746,1.9417,3.9291,-1.1483,-0.8254,7.8818,1.8035
3.6651,-0.83333,5.8537,9.8039,5.8824,2.6667,0.96618,1.8862,-1.0356,9.8039,5.8824,3.9216,2.8571,0.88889,4.8889,-0.97087,1.0306,-0.19139,-0.8254,4.9261,-2.0612
4.613,1.0897,5.8537,9.8039,6.8627,5.5935,1.9324,6.7642,-1.0356,9.8039,6.8627,5.8824,-0.95238,-1.9683,2.0317,-1.9417,0.06441,1.7225,-0.8254,2.9557,-3.9936
6.5087,2.0513,8.7805,12.745,9.8039,8.5203,4.8309,13.593,0.90615,12.745,9.8039,8.8235,0.0,-1.9683,3.9365,0.0,1.9968,6.5072,-1.7778,4.9261,-3.0274
7.4566,2.0513,8.7805,16.667,8.8235,11.447,4.8309,18.472,-0.06472,16.667,8.8235,8.8235,0.0,-1.0159,4.8889,0.97087,1.0306,8.4211,-1.7778,2.9557,-3.0274
10.3,1.0897,8.7805,17.646999,9.8039,13.398,4.8309,21.398001,-0.06472,17.646999,9.8039,9.8039,-1.9048,-3.873,5.8413,-1.9417,-0.90177,12.249,-1.7778,2.9557,-3.0274
11.248,1.0897,7.8049,16.667,11.765,14.374,4.8309,22.374001,0.90615,16.667,11.765,10.784,-3.8095,-4.8254,6.7937,-0.97087,0.06441,14.163,-1.7778,1.9704,-2.0612
10.3,1.0897,6.8293,13.725,7.8431,13.398,4.8309,21.398001,-0.06472,13.725,7.8431,8.8235,-4.7619,-2.9206,5.8413,0.97087,-0.90177,14.163,-1.7778,0.98522,-0.12882
6.5087,-2.7564,2.9268,10.784,2.9412,9.4959,0.96618,18.472,-2.0065,10.784,2.9412,4.902,-5.7143,-4.8254,2.0317,-3.8835,-5.7327,11.292,-2.7302,0.98522,-3.9936
5.5608,-4.6795,0.97561,11.765,7.8431,10.472,1.9324,18.472,-1.0356,11.765,7.8431,5.8824,0.0,-3.873,2.0317,-4.8544,-5.7327,11.292,-3.6825,3.9409,-4.9597
8.4044,1.0897,4.878,14.706,9.8039,13.398,5.7971,20.423,2.8479,14.706,9.8039,8.8235,1.9048,0.88889,6.7937,0.0,0.06441,13.206,-1.7778,6.8966,-0.12882
7.4566,3.0128,5.8537,14.706,10.784,12.423,6.7633,16.52,1.877,14.706,10.784,8.8235,-2.8571,-1.9683,5.8413,0.97087,1.9968,13.206,-0.8254,4.9261,-0.12882
4.613,1.0897,4.878,9.8039,6.8627,8.5203,4.8309,12.618,0.90615,9.8039,6.8627,5.8824,-3.8095,-2.9206,2.0317,-0.97087,1.9968,9.378,-1.7778,2.9557,-3.0274
6.5087,3.0128,9.7561,9.8039,9.8039,10.472,8.6957,10.667,2.8479,9.8039,9.8039,9.8039,0.0,-0.06349,2.0317,0.0,5.8615,7.4641,-0.8254,1.9704,-3.0274
9.3523,3.0128,9.7561,10.784,10.784,13.398,8.6957,10.667,3.8188,10.784,10.784,10.784,4.7619,2.7937,5.8413,0.0,8.7601,6.5072,-1.7778,5.9113,-2.0612
8.4044,1.0897,6.8293,6.8627,9.8039,10.472,6.7633,6.7642,1.877,6.8627,9.8039,6.8627,7.619,2.7937,8.6984,0.0,9.7262,6.5072,-1.7778,6.8966,-3.0274
4.613,0.12821,1.9512,1.9608,2.9412,4.6179,1.9324,-0.06504,-0.06472,1.9608,2.9412,0.0,7.619,3.746,9.6508,0.97087,11.659,2.6794,-1.7778,4.9261,-2.0612
6.5087,3.0128,2.9268,2.9412,3.9216,2.6667,2.8986,-2.0163,0.90615,2.9412,3.9216,-0.98039,11.429,9.4603,15.365,6.7961,16.49,1.7225,0.12698,7.8818,3.7359
9.3523,4.9359,3.9024,5.8824,5.8824,2.6667,1.9324,-0.06504,1.877,5.8824,5.8824,0.0,11.429,11.365,20.127001,11.65,19.388,1.7225,2.9841,10.837,7.6006
8.4044,6.859,4.878,8.8235,7.8431,1.6911,1.9324,-1.0407,2.8479,8.8235,7.8431,0.0,12.381,11.365,19.174999,12.621,19.388,-1.1483,4.8889,10.837,10.499
8.4044,9.7436,9.7561,15.686,12.745,6.5691,6.7633,2.8618,5.7605,15.686,12.745,6.8627,13.333,12.317,16.316999,13.592,19.388,0.76555,6.7937,10.837,11.465
5.5608,10.705,10.732,17.646999,13.725,9.4959,8.6957,5.7886,4.7896,17.646999,13.725,10.784,12.381,13.27,12.508,13.592,17.455999,3.6364,5.8413,9.8522,11.465
1.7694,5.8974,4.878,18.627001,12.745,7.5447,4.8309,5.7886,1.877,18.627001,12.745,7.8431,7.619,10.413,6.7937,9.7087,13.591,1.7225,3.9365,4.9261,5.6683
0.82148,3.0128,1.9512,17.646999,9.8039,6.5691,1.9324,7.7398,0.90615,17.646999,9.8039,5.8824,1.9048,3.746,5.8413,6.7961,9.7262,1.7225,1.0794,0.98522,1.8035
8.4044,5.8974,4.878,19.608,9.8039,11.447,2.8986,14.569,-1.0356,19.608,9.8039,6.8627,6.6667,4.6984,11.556,9.7087,12.625,6.5072,0.12698,5.9113,5.6683
12.196,3.0128,3.9024,17.646999,5.8824,11.447,0.0,17.496,-2.9773,17.646999,5.8824,5.8824,8.5714,4.6984,13.46,6.7961,10.692,8.4211,-0.8254,8.867,4.7021
14.092,0.12821,3.9024,16.667,7.8431,10.472,0.0,18.472,-2.9773,16.667,7.8431,5.8824,11.429,8.5079,13.46,4.8544,7.7939,14.163,-1.7778,12.808,4.7021
15.039,1.0897,7.8049,15.686,7.8431,11.447,1.9324,19.447001,-1.0356,15.686,7.8431,7.8431,11.429,9.4603,12.508,4.8544,7.7939,15.12,0.12698,9.8522,3.7359
12.196,3.0128,7.8049,13.725,5.8824,10.472,3.8647,17.496,-1.0356,13.725,5.8824,8.8235,6.6667,0.88889,7.746,2.9126,4.8953,11.292,1.0794,3.9409,0.83736
5.5608,3.9744,4.878,11.765,3.9216,7.5447,4.8309,14.569,-0.06472,11.765,3.9216,7.8431,-2.8571,-4.8254,2.0317,0.97087,1.0306,7.4641,1.0794,-0.98522,-2.0612
2.7172,5.8974,3.9024,11.765,10.784,8.5203,7.7295,15.545,2.8479,11.765,10.784,10.784,-7.619,-7.6825,-1.7778,0.0,-1.868,9.378,1.0794,-1.9704,-3.0274
1.7694,3.9744,2.9268,10.784,7.8431,9.4959,7.7295,16.52,2.8479,10.784,7.8431,9.8039,-6.6667,-7.6825,-3.6825,-2.9126,-6.6989,12.249,0.12698,-1.9704,-5.9259
-2.0221,-2.7564,-1.9512,7.8431,2.9412,4.6179,2.8986,12.618,-0.06472,7.8431,2.9412,4.902,-8.5714,-10.54,-9.3968,-7.767,-12.496,7.4641,-1.7778,-4.9261,-6.8921
-6.7615,-8.5256,-9.7561,0.98039,-2.9412,-2.2114,-2.8986,6.7642,-2.0065,0.98039,-2.9412,-2.9412,-13.333,-12.444,-17.016001,-11.65,-19.259001,1.7225,-2.7302,-10.837,-6.8921
-2.97,-5.641,-7.8049,3.9216,1.9608,0.71545,0.96618,9.6911,2.8479,3.9216,1.9608,0.0,-8.5714,-6.7302,-16.063,-6.7961,-18.292999,4.5933,-0.8254,-8.867,-1.095
-2.0221,-3.7179,-7.8049,5.8824,2.9412,3.6423,3.8647,11.642,5.7605,5.8824,2.9412,2.9412,-6.6667,-3.873,-17.016001,-6.7961,-18.292999,6.5072,2.0317,-7.8818,-2.0612
-2.0221,-1.7949,-7.8049,6.8627,3.9216,5.5935,5.7971,11.642,6.7314,6.8627,3.9216,4.902,-4.7619,-4.8254,-17.016001,-6.7961,-16.361,4.5933,2.0317,-8.867,-3.0274
-3.9179,-0.83333,-7.8049,7.8431,6.8627,5.5935,5.7971,9.6911,7.7023,7.8431,6.8627,3.9216,-5.7143,-8.6349,-15.111,-5.8252,-14.428,3.6364,2.9841,-8.867,-3.0274
-7.7093,-3.7179,-11.707,4.902,3.9216,3.6423,1.9324,7.7398,7.7023,4.902,3.9216,-0.98039,-5.7143,-8.6349,-16.063,-7.767,-14.428,1.7225,2.9841,-10.837,-3.9936
-7.7093,-2.7564,-11.707,4.902,5.8824,3.6423,2.8986,8.7154,7.7023,4.902,5.8824,0.0,-12.381,-6.7302,-15.111,-5.8252,-12.496,3.6364,3.9365,-11.823,-3.0274
-3.9179,0.12821,-8.7805,4.902,3.9216,3.6423,2.8986,7.7398,8.6731,4.902,3.9216,0.0,-13.333,-7.6825,-11.302,-2.9126,-8.6312,3.6364,5.8413,-9.8522,-3.0274
-2.97,1.0897,-7.8049,1.9608,2.9412,0.71545,2.8986,3.8374,8.6731,1.9608,2.9412,-0.98039,-9.5238,-6.7302,-7.4921,-0.97087,-6.6989,2.6794,7.746,-7.8818,-3.0274
1.7694,4.9359,-1.9512,2.9412,5.8824,3.6423,5.7971,5.7886,11.586,2.9412,5.8824,1.9608,-2.8571,-1.9683,-0.8254,4.8544,1.0306,3.6364,9.6508,-0.98522,0.83736
9.3523,7.8205,5.8537,7.8431,8.8235,8.5203,9.6618,11.642,12.557,7.8431,8.8235,7.8431,-0.95238,-0.06349,6.7937,7.767,5.8615,11.292,8.6984,1.9704,3.7359
9.3523,5.8974,4.878,7.8431,6.8627,9.4959,7.7295,12.618,10.615,7.8431,6.8627,6.8627,-6.6667,-4.8254,5.8413,3.8835,3.9291,12.249,5.8413,-0.98522,-0.12882
7.4566,5.8974,1.9512,8.8235,8.8235,8.5203,8.6957,11.642,10.615,8.8235,8.8235,5.8824,-4.7619,-4.8254,5.8413,2.9126,4.8953,11.292,5.8413,-0.98522,-1.095
4.613,4.9359,0.97561,6.8627,5.8824,7.5447,6.7633,11.642,8.6731,6.8627,5.8824,4.902,-3.8095,-4.8254,4.8889,2.9126,4.8953,7.4641,4.8889,-2.9557,-1.095
1.7694,3.0128,-0.97561,3.9216,3.9216,5.5935,4.8309,8.7154,6.7314,3.9216,3.9216,3.9216,-5.7143,-3.873,2.0317,0.97087,1.9968,3.6364,4.8889,-5.9113,-2.0612
2.7172,3.9744,1.9512,2.9412,2.9412,3.6423,3.8647,5.7886,6.7314,2.9412,2.9412,3.9216,-3.8095,-3.873,2.0317,1.9417,1.9968,3.6364,4.8889,-2.9557,0.83736
3.6651,3.9744,3.9024,1.9608,4.902,2.6667,2.8986,3.8374,7.7023,1.9608,4.902,3.9216,2.8571,0.88889,3.9365,4.8544,3.9291,4.5933,4.8889,0.0,5.6683
0.82148,2.0513,0.97561,-1.9608,0.0,-2.2114,0.0,-2.0163,5.7605,-1.9608,0.0,0.0,-2.8571,0.88889,2.9841,4.8544,2.963,-0.19139,4.8889,-2.9557,6.6345
-0.12638,1.0897,-0.97561,-5.8824,-3.9216,-5.1382,-3.8647,-5.9187,2.8479,-5.8824,-3.9216,-2.9412,-6.6667,-1.9683,2.9841,3.8835,1.0306,-3.0622,2.9841,-2.9557,4.7021
0.82148,1.0897,0.97561,-6.8627,-4.902,-6.1138,-3.8647,-6.8943,-1.0356,-6.8627,-4.902,-3.9216,-1.9048,-0.06349,4.8889,3.8835,1.9968,-4.0191,2.0317,0.98522,3.7359
1.7694,3.0128,4.878,-6.8627,-5.8824,-5.1382,-3.8647,-5.9187,-1.0356,-6.8627,-5.8824,-3.9216,2.8571,1.8413,6.7937,4.8544,2.963,-1.1483,2.0317,3.9409,1.8035
1.7694,3.9744,7.8049,-8.8235,-4.902,-5.1382,-0.96618,-5.9187,1.877,-8.8235,-4.902,-2.9412,2.8571,0.88889,5.8413,3.8835,3.9291,1.7225,2.0317,4.9261,1.8035
1.7694,4.9359,6.8293,-9.8039,-8.8235,-5.1382,-1.9324,-5.9187,0.90615,-9.8039,-8.8235,-4.902,1.9048,1.8413,4.8889,5.8252,3.9291,-0.19139,1.0794,4.9261,4.7021
1.7694,4.9359,3.9024,-10.784,-9.8039,-5.1382,-3.8647,-5.9187,-2.0065,-10.784,-9.8039,-6.8627,4.7619,5.6508,4.8889,6.7961,3.9291,1.7225,0.12698,5.9113,6.6345
-2.0221,1.0897,-2.9268,-13.725,-13.725,-8.065,-9.6618,-6.8943,-4.9191,-13.725,-13.725,-9.8039,1.9048,2.7937,2.0317,2.9126,0.06441,-0.19139,-1.7778,4.9261,4.7021
-1.0742,-1.7949,-4.878,-13.725,-12.745,-9.0407,-9.6618,-6.8943,-6.8608,-13.725,-12.745,-9.8039,5.7143,-1.0159,1.0794,-0.97087,-2.8341,1.7225,-2.7302,5.9113,1.8035
2.7172,-0.83333,0.0,-13.725,-12.745,-6.1138,-7.7295,-4.9431,-5.89,-13.725,-12.745,-7.8431,5.7143,-1.0159,2.9841,0.0,-0.90177,4.5933,-3.6825,5.9113,1.8035
3.6651,-1.7949,2.9268,-12.745,-11.765,-5.1382,-5.7971,-4.9431,-6.8608,-12.745,-11.765,-4.902,-3.8095,-0.06349,1.0794,0.97087,0.06441,5.5502,-3.6825,3.9409,3.7359
1.7694,-0.83333,3.9024,-11.765,-9.8039,-3.187,-4.8309,-4.9431,-6.8608,-11.765,-9.8039,-2.9412,-1.9048,0.88889,-0.8254,1.9417,0.06441,1.7225,-3.6825,0.98522,2.7697
-1.0742,-0.83333,1.9512,-8.8235,-5.8824,-3.187,-0.96618,-5.9187,-6.8608,-8.8235,-5.8824,0.0,-5.7143,-4.8254,-4.6349,-1.9417,-1.868,-3.0622,-4.6349,-2.9557,-3.0274
-3.9179,-0.83333,-0.97561,-7.8431,-5.8824,-1.2358,-0.96618,-5.9187,-5.89,-7.8431,-5.8824,0.98039,-6.6667,-5.7778,-8.4444,-4.8544,-5.7327,-5.933,-5.5873,-5.9113,-6.8921
1.7694,4.9359,3.9024,-2.9412,-1.9608,4.6179,1.9324,-0.06504,-2.9773,-2.9412,-1.9608,5.8824,4.7619,2.7937,-2.7302,1.9417,1.9968,0.76555,-3.6825,0.0,-1.095
1.7694,6.859,5.8537,-2.9412,-0.98039,3.6423,1.9324,-1.0407,-1.0356,-2.9412,-0.98039,6.8627,4.7619,4.6984,-1.7778,4.8544,4.8953,1.7225,-1.7778,1.9704,2.7697
-2.97,3.0128,1.9512,-5.8824,-2.9412,-0.26016,-0.96618,-3.9675,-3.9482,-5.8824,-2.9412,2.9412,1.9048,-0.06349,-3.6825,1.9417,2.963,-3.0622,-2.7302,0.0,1.8035
-2.0221,2.0513,1.9512,-4.902,-3.9216,0.71545,-0.96618,-3.9675,-2.9773,-4.902,-3.9216,2.9412,2.8571,-0.06349,-2.7302,0.0,2.963,-3.0622,-1.7778,1.9704,-1.095
-2.0221,2.0513,2.9268,-4.902,-4.902,-0.26016,0.0,-6.8943,-2.0065,-4.902,-4.902,1.9608,6.6667,0.88889,-1.7778,0.0,2.963,-5.933,-0.8254,3.9409,-2.0612
-3.9179,2.0513,2.9268,-5.8824,-2.9412,-1.2358,2.8986,-9.8211,-0.06472,-5.8824,-2.9412,1.9608,0.0,2.7937,-4.6349,0.97087,1.9968,-8.8038,2.0317,0.98522,-0.12882
-4.8657,3.0128,3.9024,-6.8627,-2.9412,-1.2358,2.8986,-12.748,1.877,-6.8627,-2.9412,2.9412,-4.7619,0.88889,-3.6825,0.97087,1.9968,-10.718,2.9841,-0.98522,1.8035
-4.8657,3.0128,3.9024,-10.784,-4.902,-3.187,1.9324,-17.625999,-0.06472,-10.784,-4.902,1.9608,0.0,2.7937,-1.7778,1.9417,1.9968,-11.675,2.9841,0.0,2.7697
-3.9179,0.12821,1.9512,-12.745,-8.8235,-2.2114,-0.96618,-14.699,-1.0356,-12.745,-8.8235,0.0,-0.95238,-1.0159,-0.8254,-0.97087,0.06441,-8.8038,2.0317,1.9704,0.83736
-0.12638,-0.83333,1.9512,-9.8039,-7.8431,0.71545,-0.96618,-7.8699,-1.0356,-9.8039,-7.8431,0.98039,-0.95238,-4.8254,1.0794,-2.9126,-0.90177,-4.0191,1.0794,4.9261,-1.095
-1.0742,-1.7949,0.97561,-9.8039,-8.8235,0.71545,-0.96618,-5.9187,-1.0356,-9.8039,-8.8235,-0.98039,-1.9048,-6.7302,1.0794,-4.8544,-2.8341,-2.1053,1.0794,3.9409,-4.9597
0.82148,0.12821,2.9268,-5.8824,-5.8824,0.71545,1.9324,-3.9675,-0.06472,-5.8824,-5.8824,0.98039,-1.9048,-5.7778,2.9841,-4.8544,-2.8341,0.76555,2.0317,3.9409,-5.9259
1.7694,0.12821,1.9512,-8.8235,-7.8431,-0.26016,0.0,-4.9431,-0.06472,-8.8235,-7.8431,-1.9608,-3.8095,-7.6825,3.9365,-3.8835,-2.8341,1.7225,1.0794,2.9557,-5.9259
0.82148,-1.7949,-0.97561,-9.8039,-8.8235,-3.187,-2.8986,-4.9431,-2.0065,-9.8039,-8.8235,-5.8824,-4.7619,-7.6825,2.9841,-2.9126,-1.868,1.7225,0.12698,2.9557,-5.9259
-0.12638,-4.6795,-2.9268,-9.8039,-9.8039,-3.187,-4.8309,-3.9675,-2.0065,-9.8039,-9.8039,-5.8824,-0.95238,-3.873,2.9841,-3.8835,-3.8003,1.7225,0.12698,3.9409,-4.9597
-2.0221,-7.5641,-4.878,-8.8235,-8.8235,-4.1626,-5.7971,-4.9431,-2.9773,-8.8235,-8.8235,-6.8627,-2.8571,-4.8254,0.12698,-6.7961,-6.6989,-0.19139,-0.8254,1.9704,-5.9259
-1.0742,-4.6795,-2.9268,-5.8824,-5.8824,-2.2114,-3.8647,-2.9919,-0.06472,-5.8824,-5.8824,-4.902,-3.8095,-2.9206,1.0794,-3.8835,-3.8003,1.7225,0.12698,2.9557,-3.0274
-2.97,-2.7564,-2.9268,-5.8824,-6.8627,-3.187,-3.8647,-2.0163,-1.0356,-5.8824,-6.8627,-4.902,-2.8571,-1.0159,1.0794,-0.97087,-0.90177,1.7225,-0.8254,1.9704,-1.095
-4.8657,-0.83333,-3.9024,-5.8824,-6.8627,-5.1382,-3.8647,-4.9431,-2.9773,-5.8824,-6.8627,-5.8824,2.8571,-0.06349,1.0794,0.0,1.9968,-1.1483,-0.8254,0.98522,-2.0612
-0.12638,3.9744,0.97561,-0.98039,-0.98039,-1.2358,0.96618,-1.0407,-0.06472,-0.98039,-0.98039,0.0,2.8571,2.7937,3.9365,4.8544,6.8277,-1.1483,1.0794,0.98522,1.8035
0.82148,5.8974,2.9268,-0.98039,-0.98039,-1.2358,2.8986,-2.9919,0.90615,-0.98039,-0.98039,0.0,0.95238,4.6984,3.9365,6.7961,8.7601,-4.0191,2.0317,-0.98522,5.6683
-2.0221,4.9359,1.9512,-4.902,-3.9216,-7.0894,0.0,-10.797,-1.0356,-4.902,-3.9216,-2.9412,5.7143,10.413,2.9841,8.7379,9.7262,-9.7608,2.0317,-0.98522,9.533
-3.9179,3.0128,1.9512,-7.8431,-4.902,-10.992,-2.8986,-17.625999,-2.0065,-7.8431,-4.902,-4.902,8.5714,10.413,2.9841,9.7087,10.692,-13.589,1.0794,0.0,11.465
-6.7615,-0.83333,-0.97561,-12.745,-8.8235,-14.894,-6.7633,-21.528,-2.9773,-12.745,-8.8235,-8.8235,7.619,11.365,2.9841,9.7087,10.692,-17.416,1.0794,0.0,10.499
-6.7615,-1.7949,-3.9024,-16.667,-11.765,-15.87,-8.6957,-23.48,-4.9191,-16.667,-11.765,-10.784,8.5714,13.27,1.0794,10.68,11.659,-16.459,2.0317,-1.9704,11.465
-5.8136,0.12821,-2.9268,-17.646999,-14.706,-13.919,-7.7295,-20.552999,-4.9191,-17.646999,-14.706,-9.8039,8.5714,14.222,0.12698,11.65,10.692,-16.459,2.9841,-3.9409,12.432
-2.97,2.0513,0.0,-14.706,-11.765,-10.016,-3.8647,-15.675,-3.9482,-14.706,-11.765,-5.8824,3.8095,10.413,-2.7302,9.7087,6.8277,-11.675,2.9841,-4.9261,11.465
-5.8136,0.12821,-1.9512,-12.745,-9.8039,-9.0407,-3.8647,-11.772,-2.9773,-12.745,-9.8039,-6.8627,0.0,3.746,-3.6825,5.8252,2.963,-8.8038,2.9841,-5.9113,7.6006
-2.0221,0.12821,-0.97561,-9.8039,-6.8627,-6.1138,-3.8647,-4.9431,-2.0065,-9.8039,-6.8627,-6.8627,2.8571,4.6984,0.12698,5.8252,3.9291,-1.1483,2.9841,-0.98522,6.6345
-1.0742,-1.7949,-0.97561,-10.784,-7.8431,-5.1382,-5.7971,-2.9919,-2.0065,-10.784,-7.8431,-6.8627,0.0,4.6984,-0.8254,3.8835,2.963,1.7225,0.12698,0.0,2.7697
0.82148,-2.7564,-0.97561,-7.8431,-5.8824,-2.2114,-3.8647,0.91057,-1.0356,-7.8431,-5.8824,-3.9216,0.0,-0.06349,-0.8254,0.0,-0.90177,6.5072,-0.8254,1.9704,-1.095
3.6651,-1.7949,0.97561,-5.8824,-3.9216,1.6911,-0.96618,3.8374,-1.0356,-5.8824,-3.9216,0.0,-2.8571,-3.873,0.12698,-2.9126,-2.8341,8.4211,-0.8254,1.9704,-3.9936
3.6651,-3.7179,-0.97561,-4.902,-4.902,3.6423,-2.8986,7.7398,-2.0065,-4.902,-4.902,-0.98039,-7.619,-6.7302,-3.6825,-6.7961,-6.6989,11.292,-1.7778,-0.98522,-7.8583
1.7694,-6.6026,-3.9024,-0.98039,-7.8431,3.6423,-4.8309,12.618,-2.9773,-0.98039,-7.8431,-3.9216,-8.5714,-9.5873,-5.5873,-11.65,-10.564,13.206,-4.6349,-1.9704,-12.689
0.82148,-6.6026,-4.878,3.9216,-1.9608,4.6179,-2.8986,17.496,-1.0356,3.9216,-1.9608,-0.98039,-4.7619,-6.7302,-3.6825,-10.68,-8.6312,14.163,-4.6349,0.0,-11.723
-3.9179,-9.4872,-6.8293,2.9412,-1.9608,2.6667,-4.8309,13.593,-1.0356,2.9412,-1.9608,-2.9412,-2.8571,-4.8254,-3.6825,-9.7087,-8.6312,11.292,-2.7302,-1.9704,-9.7907
-6.7615,-11.41,-9.7561,1.9608,-3.9216,-0.26016,-6.7633,11.642,-2.0065,1.9608,-3.9216,-4.902,-4.7619,-6.7302,-5.5873,-11.65,-8.6312,6.5072,-3.6825,-5.9113,-9.7907
-9.6051,-11.41,-14.634,-0.98039,-3.9216,-5.1382,-7.7295,5.7886,-2.9773,-0.98039,-3.9216,-8.8235,-7.619,-7.6825,-10.349,-11.65,-12.496,0.76555,-2.7302,-8.867,-10.757
-13.397,-13.333,-18.537001,-5.8824,-5.8824,-10.016,-9.6618,-1.0407,-2.9773,-5.8824,-5.8824,-11.765,-12.381,-9.5873,-16.063,-12.621,-17.327,-5.933,-3.6825,-11.823,-8.8245
-10.553,-14.295,-16.584999,-4.902,-3.9216,-10.016,-5.7971,-2.9919,-2.0065,-4.902,-3.9216,-9.8039,-7.619,-4.8254,-14.159,-11.65,-16.361,-5.933,-3.6825,-6.8966,-3.9936
-9.6051,-13.333,-14.634,-3.9216,-4.902,-9.0407,-6.7633,-2.9919,-2.0065,-3.9216,-4.902,-9.8039,1.9048,1.8413,-9.3968,-8.7379,-13.462,-4.9761,-3.6825,-1.9704,-1.095
-10.553,-12.372,-13.659,-3.9216,-4.902,-9.0407,-8.6957,-4.9431,-4.9191,-3.9216,-4.902,-10.784,-0.95238,-0.06349,-10.349,-6.7961,-13.462,-6.89,-2.7302,-3.9409,0.83736
-11.501,-8.5256,-13.659,-6.8627,-7.8431,-10.016,-8.6957,-4.9431,-3.9482,-6.8627,-7.8431,-11.765,-5.7143,-1.9683,-11.302,-5.8252,-12.496,-6.89,-1.7778,-6.8966,-0.12882
-10.553,-6.6026,-11.707,-5.8824,-6.8627,-9.0407,-5.7971,-4.9431,-2.9773,-5.8824,-6.8627,-9.8039,-6.6667,-1.0159,-7.4921,-4.8544,-8.6312,-4.9761,0.12698,-5.9113,-0.12882
-9.6051,-8.5256,-10.732,-7.8431,-7.8431,-8.065,-5.7971,-5.9187,-3.9482,-7.8431,-7.8431,-9.8039,-4.7619,-3.873,-4.6349,-6.7961,-8.6312,-5.933,-0.8254,-5.9113,-3.0274
-5.8136,-7.5641,-5.8537,-4.902,-3.9216,-6.1138,-3.8647,-4.9431,-3.9482,-4.902,-3.9216,-6.8627,-10.476,-10.54,-4.6349,-8.7379,-9.5974,-5.933,-2.7302,-5.9113,-3.9936
-3.9179,-5.641,-1.9512,-3.9216,-3.9216,-3.187,-1.9324,-4.9431,-3.9482,-3.9216,-3.9216,-2.9412,-12.381,-13.397,-5.5873,-9.7087,-8.6312,-5.933,-5.5873,-4.9261,-4.9597
-2.97,-5.641,-0.97561,-2.9412,-0.98039,-3.187,0.96618,-6.8943,-2.0065,-2.9412,-0.98039,-0.98039,-8.5714,-11.492,-5.5873,-9.7087,-8.6312,-6.89,-5.5873,-5.9113,-6.8921
1.7694,0.12821,3.9024,0.98039,4.902,1.6911,8.6957,-2.0163,2.8479,0.98039,4.902,4.902,0.0,-3.873,-0.8254,-3.8835,-1.868,-3.0622,-4.6349,-1.9704,-3.0274
3.6651,3.9744,6.8293,4.902,8.8235,4.6179,11.594,0.91057,3.8188,4.902,8.8235,8.8235,2.8571,1.8413,2.0317,-0.97087,2.963,-1.1483,-3.6825,0.0,-2.0612
0.82148,3.9744,7.8049,2.9412,5.8824,2.6667,9.6618,-1.0407,1.877,2.9412,5.8824,7.8431,5.7143,4.6984,2.0317,-0.97087,4.8953,-4.9761,-3.6825,0.0,-3.9936
-1.0742,3.9744,10.732,1.9608,6.8627,1.6911,9.6618,-2.0163,2.8479,1.9608,6.8627,8.8235,8.5714,4.6984,2.0317,0.0,6.8277,-4.9761,-2.7302,0.98522,-3.9936
-2.0221,2.0513,10.732,3.9216,8.8235,1.6911,10.628,-2.0163,3.8188,3.9216,8.8235,9.8039,4.7619,2.7937,-0.8254,-2.9126,4.8953,-4.9761,-3.6825,-0.98522,-4.9597
-4.8657,-0.83333,5.8537,0.98039,6.8627,-2.2114,6.7633,-5.9187,3.8188,0.98039,6.8627,5.8824,5.7143,3.746,-2.7302,-3.8835,1.9968,-8.8038,-2.7302,-2.9557,-3.0274
-6.7615,1.0897,2.9268,-1.9608,6.8627,-6.1138,4.8309,-8.8455,3.8188,-1.9608,6.8627,3.9216,10.476,10.413,-2.7302,2.9126,3.9291,-11.675,0.12698,-1.9704,3.7359
-10.553,3.0128,-0.97561,-5.8824,2.9412,-11.967,1.9324,-13.724,2.8479,-5.8824,2.9412,-0.98039,5.7143,9.4603,-2.7302,6.7961,3.9291,-15.502,2.9841,-1.9704,9.533
-12.449,1.0897,-3.9024,-10.784,0.0,-17.820999,0.0,-19.577,0.90615,-10.784,0.0,-5.8824,3.8095,6.6032,-3.6825,6.7961,1.0306,-18.372999,4.8889,-2.9557,11.465
-12.449,0.12821,-3.9024,-11.765,-1.9608,-19.771999,-0.96618,-22.504,-0.06472,-11.765,-1.9608,-6.8627,6.6667,8.5079,-1.7778,6.7961,1.0306,-19.33,2.9841,0.0,12.432
-8.6572,2.0513,-0.97561,-11.765,0.98039,-16.846001,0.96618,-22.504,0.90615,-11.765,0.98039,-4.902,12.381,11.365,2.0317,7.767,2.963,-17.416,2.9841,3.9409,12.432
-4.8657,3.0128,1.9512,-12.745,-0.98039,-13.919,0.0,-20.552999,-0.06472,-12.745,-0.98039,-3.9216,16.190001,15.175,3.9365,10.68,5.8615,-14.545,2.0317,5.9113,13.398
0.82148,4.9359,3.9024,-11.765,-1.9608,-8.065,0.96618,-14.699,-1.0356,-11.765,-1.9608,-0.98039,18.094999,18.032,7.746,11.65,9.7262,-9.7608,2.0317,8.867,14.364
0.82148,2.0513,1.9512,-9.8039,-4.902,-5.1382,-1.9324,-7.8699,-3.9482,-9.8039,-4.902,-1.9608,13.333,14.222,5.8413,8.7379,7.7939,-3.0622,-1.7778,7.8818,10.499
-2.0221,-2.7564,-2.9268,-6.8627,-2.9412,-3.187,-5.7971,-2.0163,-5.89,-6.8627,-2.9412,-3.9216,10.476,9.4603,2.9841,2.9126,1.9968,1.7225,-3.6825,5.9113,4.7021
-2.97,-7.5641,-7.8049,-3.9216,-4.902,-3.187,-8.6957,2.8618,-5.89,-3.9216,-4.902,-5.8824,6.6667,3.746,-0.8254,-4.8544,-3.8003,3.6364,-4.6349,5.9113,-1.095
-2.97,-8.5256,-8.7805,-0.98039,-3.9216,0.71545,-5.7971,7.7398,-3.9482,-0.98039,-3.9216,-4.902,-1.9048,-0.06349,-5.5873,-7.767,-7.6651,5.5502,-5.5873,0.0,-4.9597
-0.12638,-6.6026,-4.878,2.9412,-0.98039,4.6179,-3.8647,11.642,-2.0065,2.9412,-0.98039,-1.9608,-0.95238,1.8413,-4.6349,-7.767,-6.6989,6.5072,-4.6349,-0.98522,-5.9259
1.7694,-4.6795,-2.9268,4.902,0.98039,7.5447,-2.8986,13.593,-0.06472,4.902,0.98039,0.0,-4.7619,-4.8254,-2.7302,-6.7961,-3.8003,8.4211,-2.7302,-1.9704,-7.8583
1.7694,-2.7564,-3.9024,4.902,0.98039,6.5691,-1.9324,12.618,1.877,4.902,0.98039,0.98039,-9.5238,-8.6349,-3.6825,-5.8252,-3.8003,9.378,-0.8254,-5.9113,-9.7907
4.613,1.0897,-0.97561,6.8627,1.9608,8.5203,0.0,12.618,2.8479,6.8627,1.9608,2.9412,-5.7143,-6.7302,1.0794,-0.97087,0.06441,12.249,-0.8254,0.0,-5.9259
8.4044,1.0897,2.9268,7.8431,2.9412,9.4959,0.96618,11.642,0.90615,7.8431,2.9412,4.902,-3.8095,-2.9206,5.8413,1.9417,3.9291,12.249,-1.7778,3.9409,-2.0612
7.4566,-1.7949,3.9024,7.8431,0.98039,9.4959,-0.96618,10.667,-1.0356,7.8431,0.98039,4.902,-2.8571,-2.9206,6.7937,0.97087,3.9291,10.335,-3.6825,3.9409,-2.0612
7.4566,-1.7949,6.8293,5.8824,1.9608,7.5447,-0.96618,7.7398,-2.0065,5.8824,1.9608,3.9216,0.95238,-3.873,7.746,0.97087,5.8615,8.4211,-6.5397,4.9261,-2.0612
6.5087,-0.83333,7.8049,5.8824,0.0,6.5691,-0.96618,6.7642,-2.9773,5.8824,0.0,3.9216,1.9048,1.8413,7.746,2.9126,5.8615,4.5933,-5.5873,4.9261,-1.095
3.6651,0.12821,4.878,5.8824,1.9608,6.5691,0.0,4.813,-2.0065,5.8824,1.9608,3.9216,1.9048,3.746,4.8889,2.9126,5.8615,1.7225,-5.5873,2.9557,-1.095
-1.0742,-0.83333,0.0,5.8824,1.9608,4.6179,-0.96618,1.8862,-0.06472,5.8824,1.9608,1.9608,0.0,2.7937,1.0794,0.97087,2.963,-2.1053,-4.6349,-0.98522,-2.0612
-3.9179,-3.7179,-2.9268,4.902,0.98039,1.6911,-2.8986,-1.0407,-0.06472,4.902,0.98039,-0.98039,-2.8571,0.88889,-2.7302,-1.9417,0.06441,-4.0191,-1.7778,-3.9409,-1.095
-4.8657,-5.641,-3.9024,3.9216,0.0,0.71545,-5.7971,-0.06504,0.90615,3.9216,0.0,-1.9608,-5.7143,-1.0159,-5.5873,-3.8835,-3.8003,-4.9761,0.12698,-5.9113,-0.12882
-5.8136,-7.5641,-5.8537,5.8824,0.98039,1.6911,-6.7633,1.8862,-0.06472,5.8824,0.98039,-1.9608,-7.619,-1.9683,-7.4921,-4.8544,-6.6989,-3.0622,2.0317,-7.8818,-1.095
-4.8657,-6.6026,-5.8537,0.98039,-6.8627,0.71545,-7.7295,0.91057,-5.89,0.98039,-6.8627,-3.9216,-1.9048,1.8413,-5.5873,-1.9417,-6.6989,-0.19139,1.0794,-3.9409,1.8035
-3.9179,-5.641,-7.8049,2.9412,-2.9412,0.71545,-5.7971,3.8374,0.90615,2.9412,-2.9412,-3.9216,1.9048,2.7937,-5.5873,-3.8835,-8.6312,2.6794,2.0317,-0.98522,-0.12882
-2.97,-2.7564,-6.8293,6.8627,-0.98039,2.6667,-3.8647,5.7886,5.7605,6.8627,-0.98039,-2.9412,5.7143,1.8413,-2.7302,-3.8835,-6.6989,3.6364,3.9365,3.9409,-1.095
-3.9179,-0.83333,-5.8537,2.9412,0.98039,0.71545,-1.9324,1.8862,6.7314,2.9412,0.98039,-2.9412,1.9048,-4.8254,-3.6825,-5.8252,-6.6989,0.76555,4.8889,0.98522,-3.9936
-7.7093,-2.7564,-8.7805,-1.9608,1.9608,-3.187,-2.8986,-4.9431,9.644,-1.9608,1.9608,-5.8824,-1.9048,-8.6349,-5.5873,-8.7379,-8.6312,-2.1053,4.8889,-1.9704,-5.9259
-7.7093,-7.5641,-10.732,-4.902,-1.9608,-7.0894,-5.7971,-8.8455,5.7605,-4.902,-1.9608,-8.8235,-8.5714,-11.492,-6.5397,-11.65,-9.5974,-3.0622,1.0794,-2.9557,-8.8245
-4.8657,-10.449,-9.7561,-4.902,-3.9216,-7.0894,-6.7633,-7.8699,1.877,-4.902,-3.9216,-8.8235,-13.333,-14.349,-5.5873,-13.592,-9.5974,-1.1483,-2.7302,-2.9557,-11.723
-1.0742,-6.6026,-4.878,-3.9216,-4.902,-4.1626,-4.8309,-2.9919,0.90615,-3.9216,-4.902,-5.8824,-6.6667,-9.5873,0.12698,-8.7379,-4.7665,2.6794,-4.6349,0.98522,-8.8245
1.7694,-2.7564,-0.97561,-4.902,-1.9608,-3.187,-1.9324,-4.9431,0.90615,-4.902,-1.9608,-1.9608,-6.6667,-9.5873,2.0317,-5.8252,0.06441,0.76555,-5.5873,-1.9704,-6.8921
5.5608,-0.83333,1.9512,-4.902,-0.98039,-0.26016,0.96618,-3.9675,2.8479,-4.902,-0.98039,1.9608,-1.9048,-3.873,4.8889,-3.8835,2.963,1.7225,-3.6825,-0.98522,-6.8921
8.4044,0.12821,4.878,-2.9412,1.9608,2.6667,3.8647,-2.9919,5.7605,-2.9412,1.9608,5.8824,0.95238,-0.06349,5.8413,-2.9126,4.8953,4.5933,-2.7302,1.9704,-4.9597
4.613,-1.7949,3.9024,-6.8627,0.0,-1.2358,3.8647,-6.8943,7.7023,-6.8627,0.0,2.9412,1.9048,-1.9683,3.9365,-3.8835,1.9968,-0.19139,0.12698,0.0,-3.9936
1.7694,0.12821,3.9024,-7.8431,2.9412,-5.1382,5.7971,-11.772,9.644,-7.8431,2.9412,1.9608,4.7619,-1.0159,3.9365,-1.9417,2.963,-4.0191,3.9365,1.9704,-0.12882
-1.0742,3.0128,1.9512,-9.8039,1.9608,-8.065,4.8309,-17.625999,11.586,-9.8039,1.9608,-0.98039,-1.9048,0.88889,2.0317,2.9126,3.9291,-12.632,7.746,-2.9557,4.7021
-1.0742,5.8974,0.97561,-10.784,0.98039,-10.992,5.7971,-24.455,11.586,-10.784,0.98039,-1.9608,-5.7143,0.88889,1.0794,6.7961,5.8615,-18.372999,10.603,-6.8966,7.6006
-0.12638,9.7436,3.9024,-12.745,0.0,-10.016,6.7633,-25.431,11.586,-12.745,0.0,-0.98039,-1.9048,0.88889,0.12698,7.767,5.8615,-20.287001,12.508,-5.9113,6.6345
2.7172,11.667,8.7805,-8.8235,1.9608,-5.1382,8.6957,-21.528,11.586,-8.8235,1.9608,0.98039,0.95238,4.6984,2.0317,10.68,7.7939,-17.416,12.508,-4.9261,8.5668
2.7172,10.705,9.7561,-6.8627,0.0,-3.187,6.7633,-13.724,9.644,-6.8627,0.0,0.0,0.0,-1.9683,1.0794,8.7379,4.8953,-11.675,8.6984,-3.9409,6.6345
2.7172,7.8205,8.7805,-3.9216,1.9608,-0.26016,7.7295,-5.9187,8.6731,-3.9216,1.9608,0.0,-2.8571,-4.8254,0.12698,3.8835,1.0306,-6.89,6.7937,-4.9261,1.8035
4.613,7.8205,4.878,1.9608,5.8824,3.6423,8.6957,2.8618,8.6731,1.9608,5.8824,1.9608,-0.95238,-2.9206,-0.8254,1.9417,-1.868,-0.19139,3.9365,-4.9261,0.83736
2.7172,5.8974,-0.97561,3.9216,8.8235,3.6423,7.7295,6.7642,7.7023,3.9216,8.8235,0.0,-0.95238,-3.873,-5.5873,1.9417,-5.7327,1.7225,2.0317,-7.8818,-0.12882
-0.12638,5.8974,-4.878,2.9412,6.8627,2.6667,5.7971,7.7398,7.7023,2.9412,6.8627,-1.9608,-3.8095,-4.8254,-8.4444,0.97087,-7.6651,2.6794,2.9841,-8.867,-2.0612
0.82148,6.859,-0.97561,2.9412,5.8824,3.6423,5.7971,8.7154,7.7023,2.9412,5.8824,-0.98039,-7.619,-4.8254,-7.4921,0.97087,-7.6651,3.6364,2.9841,-8.867,-1.095
-0.12638,5.8974,1.9512,0.98039,4.902,2.6667,5.7971,5.7886,6.7314,0.98039,4.902,0.0,-12.381,-7.6825,-8.4444,-0.97087,-6.6989,1.7225,2.0317,-8.867,-3.0274
-0.12638,5.8974,3.9024,-0.98039,0.98039,1.6911,2.8986,2.8618,6.7314,-0.98039,0.98039,0.0,-6.6667,-3.873,-5.5873,0.97087,-3.8003,-0.19139,2.9841,-7.8818,-2.0612
-1.0742,3.0128,2.9268,-1.9608,0.98039,-0.26016,0.0,0.91057,3.8188,-1.9608,0.98039,-1.9608,-2.8571,-1.9683,-2.7302,-0.97087,-3.8003,0.76555,1.0794,-3.9409,-1.095
-1.0742,0.12821,1.9512,-3.9216,-1.9608,-1.2358,-1.9324,-1.0407,1.877,-3.9216,-1.9608,-2.9412,-0.95238,-2.9206,-0.8254,-2.9126,-4.7665,-0.19139,-0.8254,-1.9704,-3.9936
1.7694,3.9744,6.8293,-3.9216,-0.98039,0.71545,2.8986,-1.0407,0.90615,-3.9216,-0.98039,0.0,2.8571,2.7937,2.9841,0.0,0.06441,-1.1483,-0.8254,0.0,-1.095
1.7694,5.8974,4.878,-3.9216,-1.9608,1.6911,4.8309,-2.0163,-0.06472,-3.9216,-1.9608,0.98039,5.7143,6.6032,5.8413,2.9126,3.9291,-2.1053,-2.7302,1.9704,-1.095
2.7172,6.859,3.9024,-1.9608,0.0,4.6179,6.7633,-0.06504,-1.0356,-1.9608,0.0,4.902,14.286,12.317,6.7937,5.8252,7.7939,-0.19139,-5.5873,5.9113,2.7697
3.6651,6.859,6.8293,-3.9216,-1.9608,5.5935,4.8309,0.91057,-4.9191,-3.9216,-1.9608,6.8627,19.048,18.032,9.6508,9.7087,13.591,1.7225,-7.4921,6.8966,7.6006
11.248,7.8205,13.659,-2.9412,-3.9216,7.5447,4.8309,1.8862,-10.744,-2.9412,-3.9216,8.8235,18.094999,20.889,17.27,15.534,22.287001,5.5502,-10.349,10.837,12.432
9.3523,4.9359,13.659,-6.8627,-8.8235,4.6179,0.96618,-2.9919,-15.599,-6.8627,-8.8235,7.8431,20.0,24.698,19.174999,16.504999,23.253,2.6794,-11.302,12.808,15.33
3.6651,2.0513,7.8049,-8.8235,-7.8431,-2.2114,-1.9324,-9.8211,-16.57,-8.8235,-7.8431,2.9412,19.048,18.983999,13.46,13.592,18.422001,-4.9761,-7.4921,8.867,14.364
-1.0742,0.12821,1.9512,-12.745,-13.725,-9.0407,-8.6957,-17.625999,-18.511,-12.745,-13.725,-3.9216,13.333,12.317,7.746,12.621,12.625,-10.718,-2.7302,4.9261,13.398
-3.9179,-2.7564,-2.9268,-15.686,-14.706,-13.919,-12.56,-20.552999,-16.57,-15.686,-14.706,-8.8235,12.381,12.317,3.9365,11.65,6.8277,-14.545,0.12698,4.9261,13.398
-5.8136,-5.641,-7.8049,-15.686,-12.745,-14.894,-12.56,-20.552999,-10.744,-15.686,-12.745,-9.8039,6.6667,10.413,0.12698,6.7961,0.06441,-13.589,2.9841,3.9409,12.432
-2.97,-3.7179,-5.8537,-9.8039,-8.8235,-10.016,-8.6957,-14.699,-2.9773,-9.8039,-8.8235,-5.8824,5.7143,8.5079,-0.8254,5.8252,-1.868,-9.7608,7.746,3.9409,10.499
-3.9179,-1.7949,-4.878,-4.902,-3.9216,-7.0894,-4.8309,-10.797,1.877,-4.902,-3.9216,-0.98039,0.95238,0.88889,-6.5397,1.9417,-4.7665,-10.718,9.6508,-1.9704,4.7021
-4.8657,-3.7179,-6.8293,-0.98039,0.0,-4.1626,-3.8647,-6.8943,3.8188,-0.98039,0.0,1.9608,-1.9048,-1.9683,-10.349,-2.9126,-8.6312,-10.718,9.6508,-6.8966,-2.0612
-3.9179,-4.6795,-7.8049,0.98039,1.9608,-1.2358,-1.9324,-2.9919,4.7896,0.98039,1.9608,2.9412,-7.619,-10.54,-10.349,-7.767,-10.564,-7.8469,9.6508,-6.8966,-8.8245
-2.0221,-4.6795,-7.8049,3.9216,2.9412,1.6911,0.96618,2.8618,4.7896,3.9216,2.9412,4.902,-10.476,-13.397,-8.4444,-9.7087,-10.564,2.6794,6.7937,-3.9409,-9.7907
0.82148,-2.7564,-6.8293,6.8627,5.8824,2.6667,3.8647,9.6911,4.7896,6.8627,5.8824,5.8824,-8.5714,-8.6349,-5.5873,-7.767,-9.5974,14.163,3.9365,1.9704,-8.8245
-0.12638,-4.6795,-8.7805,6.8627,5.8824,4.6179,1.9324,14.569,4.7896,6.8627,5.8824,3.9216,-11.429,-13.397,-6.5397,-10.68,-14.428,19.903999,1.0794,4.9261,-12.689
-2.97,-8.5256,-11.707,7.8431,7.8431,3.6423,-0.96618,14.569,3.8188,7.8431,7.8431,0.98039,-14.286,-15.302,-11.302,-17.476,-21.191999,18.947001,0.12698,0.98522,-14.622
-7.7093,-10.449,-15.61,1.9608,1.9608,-0.26016,-4.8309,8.7154,2.8479,1.9608,1.9608,-3.9216,-14.286,-15.302,-15.111,-18.447001,-24.09,13.206,1.0794,-0.98522,-13.655
-9.6051,-11.41,-16.584999,0.98039,0.98039,-2.2114,-5.7971,6.7642,0.90615,0.98039,0.98039,-6.8627,-15.238,-17.205999,-17.968,-20.388,-26.023001,10.335,0.12698,-2.9557,-16.554001
-14.344,-13.333,-17.561001,-1.9608,0.0,-5.1382,-7.7295,1.8862,0.90615,-1.9608,0.0,-9.8039,-18.094999,-20.063,-21.778,-23.301001,-26.989,3.6364,0.12698,-9.8522,-18.486
-10.553,-8.5256,-14.634,0.0,3.9216,-5.1382,-4.8309,1.8862,2.8479,0.0,3.9216,-8.8235,-11.429,-13.397,-16.063,-17.476,-19.259001,3.6364,2.0317,-6.8966,-11.723
-9.6051,-4.6795,-11.707,-2.9412,0.98039,-7.0894,-3.8647,-2.9919,2.8479,-2.9412,0.98039,-8.8235,-4.7619,-12.444,-12.254,-12.621,-14.428,2.6794,2.0317,-3.9409,-8.8245
-9.6051,-5.641,-10.732,-4.902,0.98039,-9.0407,-4.8309,-5.9187,1.877,-4.902,0.98039,-10.784,-6.6667,-10.54,-12.254,-9.7087,-13.462,-1.1483,2.9841,-5.9113,-4.9597
-9.6051,-5.641,-9.7561,-4.902,-0.98039,-10.992,-6.7633,-6.8943,-0.06472,-4.902,-0.98039,-11.765,-10.476,-12.444,-11.302,-7.767,-12.496,-1.1483,3.9365,-3.9409,-3.0274
-9.6051,-5.641,-8.7805,-5.8824,0.0,-11.967,-6.7633,-9.8211,0.90615,-5.8824,0.0,-12.745,-10.476,-12.444,-9.3968,-4.8544,-10.564,-3.0622,6.7937,-2.9557,-0.12882
-5.8136,-1.7949,-4.878,-0.98039,2.9412,-9.0407,-4.8309,-6.8943,2.8479,-0.98039,2.9412,-10.784,-6.6667,-4.8254,-5.5873,0.0,-3.8003,-3.0622,8.6984,-3.9409,3.7359
-3.9179,3.9744,-0.97561,6.8627,4.902,-4.1626,-1.9324,-2.9919,3.8188,6.8627,4.902,-5.8824,-4.7619,-1.9683,-0.8254,5.8252,2.963,-3.0622,10.603,-2.9557,3.7359
-0.12638,8.7821,3.9024,11.765,10.784,-0.26016,2.8986,-0.06504,4.7896,11.765,10.784,-0.98039,0.95238,2.7937,2.9841,10.68,8.7601,-4.9761,13.46,-1.9704,4.7021
3.6651,11.667,8.7805,13.725,10.784,1.6911,3.8647,0.91057,4.7896,13.725,10.784,1.9608,4.7619,7.5556,8.6984,15.534,14.557,-3.0622,11.556,0.98522,10.499
7.4566,9.7436,12.683,15.686,12.745,3.6423,4.8309,1.8862,1.877,15.686,12.745,5.8824,5.7143,6.6032,12.508,14.563,15.523,-1.1483,6.7937,4.9261,12.432
12.196,9.7436,14.634,22.549,16.667,10.472,7.7295,6.7642,0.90615,22.549,16.667,12.745,5.7143,9.4603,16.316999,14.563,16.49,0.76555,2.0317,6.8966,12.432
17.882999,13.59,18.537001,27.451,22.549,17.301001,13.527,9.6911,1.877,27.451,22.549,19.608,13.333,17.079,20.127001,17.476,21.32,3.6364,0.12698,10.837,13.398
17.882999,13.59,18.537001,28.431,22.549,19.252001,14.493,10.667,1.877,28.431,22.549,20.587999,12.381,9.4603,20.127001,15.534,19.388,4.5933,-2.7302,13.793,10.499
14.092,10.705,16.584999,27.451,22.549,16.325001,13.527,8.7154,0.90615,27.451,22.549,18.627001,6.6667,4.6984,16.316999,11.65,14.557,4.5933,-2.7302,10.837,7.6006
7.4566,7.8205,10.732,17.646999,16.667,8.5203,7.7295,0.91057,2.8479,17.646999,16.667,10.784,3.8095,6.6032,8.6984,9.7087,9.7262,-2.1053,0.12698,3.9409,7.6006
-1.0742,3.0128,0.0,10.784,11.765,-1.2358,0.96618,-7.8699,2.8479,10.784,11.765,1.9608,0.95238,7.5556,-0.8254,5.8252,2.963,-10.718,4.8889,-3.9409,7.6006
-6.7615,-1.7949,-7.8049,6.8627,7.8431,-7.0894,-4.8309,-11.772,2.8479,6.8627,7.8431,-3.9216,0.0,3.746,-7.4921,0.97087,-3.8003,-14.545,5.8413,-6.8966,7.6006
-10.553,-3.7179,-9.7561,3.9216,7.8431,-10.992,-6.7633,-13.724,3.8188,3.9216,7.8431,-7.8431,-2.8571,-1.9683,-10.349,-1.9417,-6.6989,-17.416,4.8889,-7.8818,4.7021
-12.449,-2.7564,-8.7805,3.9216,6.8627,-11.967,-5.7971,-13.724,3.8188,3.9216,6.8627,-7.8431,0.95238,-0.06349,-10.349,-0.97087,-5.7327,-15.502,4.8889,-5.9113,5.6683
-15.292,-3.7179,-9.7561,1.9608,4.902,-12.943,-4.8309,-14.699,1.877,1.9608,4.902,-8.8235,-0.95238,2.7937,-13.206,-1.9417,-7.6651,-14.545,4.8889,-6.8966,5.6683
-14.344,-6.6026,-11.707,1.9608,3.9216,-11.967,-4.8309,-14.699,-0.06472,1.9608,3.9216,-8.8235,-9.5238,-4.8254,-14.159,-4.8544,-10.564,-12.632,2.9841,-6.8966,2.7697
-6.7615,-4.6795,-5.8537,5.8824,6.8627,-5.1382,-1.9324,-5.9187,-0.06472,5.8824,6.8627,-4.902,-6.6667,-7.6825,-8.4444,-4.8544,-8.6312,-6.89,0.12698,-2.9557,-1.095
0.82148,-1.7949,1.9512,5.8824,5.8824,-1.2358,-0.96618,-0.06504,-2.0065,5.8824,5.8824,-1.9608,-4.7619,-3.873,-3.6825,-2.9126,-3.8003,-2.1053,-1.7778,-2.9557,-1.095
1.7694,-0.83333,6.8293,5.8824,0.98039,-0.26016,-3.8647,4.813,-6.8608,5.8824,0.98039,-3.9216,1.9048,2.7937,0.12698,0.0,1.9968,-0.19139,-5.5873,-1.9704,0.83736
2.7172,1.0897,9.7561,5.8824,0.0,1.6911,-3.8647,8.7154,-10.744,5.8824,0.0,-2.9412,7.619,3.746,4.8889,3.8835,9.7262,4.5933,-9.3968,2.9557,2.7697
4.613,2.0513,10.732,7.8431,-0.98039,4.6179,-4.8309,13.593,-13.657,7.8431,-0.98039,-1.9608,6.6667,3.746,8.6984,6.7961,14.557,7.4641,-15.111,2.9557,2.7697
8.4044,2.0513,11.707,10.784,2.9412,9.4959,-0.96618,16.52,-14.628,10.784,2.9412,1.9608,8.5714,9.4603,10.603,5.8252,13.591,10.335,-17.968,2.9557,2.7697
13.144,-0.83333,8.7805,11.765,2.9412,13.398,0.96618,18.472,-13.657,11.765,2.9412,5.8824,11.429,8.5079,12.508,0.97087,10.692,11.292,-19.872999,6.8966,-1.095
18.830999,-0.83333,12.683,13.725,6.8627,17.301001,5.7971,19.447001,-9.7735,13.725,6.8627,13.725,11.429,5.6508,16.316999,-3.8835,11.659,11.292,-18.921,8.867,-5.9259
16.934999,-0.83333,16.584999,10.784,6.8627,17.301001,8.6957,15.545,-3.9482,10.784,6.8627,15.686,8.5714,1.8413,13.46,-8.7379,9.7262,6.5072,-16.063,6.8966,-10.757
9.3523,1.0897,14.634,10.784,9.8039,14.374,12.56,8.7154,2.8479,10.784,9.8039,16.667,4.7619,1.8413,5.8413,-8.7379,7.7939,-2.1053,-8.4444,0.98522,-10.757
0.82148,2.0513,8.7805,9.8039,10.784,10.472,14.493,2.8618,7.7023,9.8039,10.784,15.686,6.6667,4.6984,0.12698,-4.8544,5.8615,-10.718,-1.7778,-1.9704,-5.9259
-5.8136,3.9744,2.9268,8.8235,12.745,6.5691,15.459,-1.0407,10.615,8.8235,12.745,12.745,3.8095,4.6984,-2.7302,0.0,4.8953,-14.545,3.9365,-5.9113,-0.12882
-8.6572,5.8974,-0.97561,4.902,7.8431,1.6911,11.594,-2.9919,10.615,4.902,7.8431,8.8235,-1.9048,0.88889,-6.5397,1.9417,1.9968,-14.545,6.7937,-9.8522,3.7359
-4.8657,6.859,0.0,0.98039,2.9412,-0.26016,7.7295,-2.0163,8.6731,0.98039,2.9412,4.902,-2.8571,1.8413,-4.6349,5.8252,1.0306,-9.7608,8.6984,-8.867,7.6006
-1.0742,4.9359,-0.97561,-0.98039,-1.9608,-1.2358,0.96618,0.91057,3.8188,-0.98039,-1.9608,0.0,0.95238,5.6508,0.12698,7.767,1.9968,-3.0622,9.6508,-2.9557,9.533
1.7694,-0.83333,-3.9024,-3.9216,-4.902,-0.26016,-2.8986,1.8862,0.90615,-3.9216,-4.902,-2.9412,2.8571,5.6508,2.0317,4.8544,1.0306,3.6364,7.746,1.9704,7.6006
4.613,-1.7949,-4.878,-0.98039,-2.9412,1.6911,-0.96618,6.7642,-1.0356,-0.98039,-2.9412,-0.98039,7.619,2.7937,6.7937,2.9126,1.0306,12.249,2.9841,10.837,4.7021
5.5608,-1.7949,-4.878,-0.98039,-3.9216,2.6667,0.0,10.667,-2.9773,-0.98039,-3.9216,-0.98039,6.6667,0.88889,10.603,0.97087,1.9968,17.99,-3.6825,13.793,0.83736
3.6651,-3.7179,-5.8537,0.0,-3.9216,1.6911,-0.96618,12.618,-5.89,0.0,-3.9216,-1.9608,5.7143,4.6984,10.603,0.0,1.9968,20.861,-8.4444,11.823,-1.095
4.613,-3.7179,-4.878,0.98039,-5.8824,2.6667,-5.7971,14.569,-9.7735,0.98039,-5.8824,-3.9216,6.6667,8.5079,13.46,2.9126,6.8277,23.732,-11.302,14.778,-1.095
8.4044,-2.7564,0.0,0.0,-7.8431,3.6423,-5.7971,15.545,-12.686,0.0,-7.8431,-2.9412,7.619,4.6984,15.365,3.8835,9.7262,24.688999,-12.254,16.749001,-3.0274
10.3,-2.7564,2.9268,-1.9608,-10.784,4.6179,-5.7971,17.496,-12.686,-1.9608,-10.784,-1.9608,7.619,1.8413,14.413,0.0,6.8277,27.559999,-12.254,12.808,-6.8921
11.248,-5.641,1.9512,-2.9412,-10.784,5.5935,-6.7633,15.545,-13.657,-2.9412,-10.784,-0.98039,5.7143,-2.9206,11.556,-4.8544,1.9968,27.559999,-11.302,9.8522,-9.7907
8.4044,-10.449,-0.97561,-6.8627,-15.686,2.6667,-10.628,11.642,-13.657,-6.8627,-15.686,-2.9412,0.95238,-6.7302,5.8413,-9.7087,-3.8003,19.903999,-10.349,5.9113,-12.689
3.6651,-13.333,-2.9268,-8.8235,-15.686,-0.26016,-11.594,6.7642,-13.657,-8.8235,-15.686,-2.9412,1.9048,-3.873,1.0794,-13.592,-7.6651,14.163,-9.3968,0.98522,-14.622
-0.12638,-13.333,-3.9024,-9.8039,-14.706,-1.2358,-9.6618,1.8862,-10.744,-9.8039,-14.706,-1.9608,-4.7619,-7.6825,-1.7778,-14.563,-7.6651,8.4211,-8.4444,-1.9704,-15.588
-1.0742,-11.41,-5.8537,-9.8039,-10.784,-2.2114,-5.7971,0.91057,-7.8317,-9.8039,-10.784,0.0,-3.8095,-6.7302,-1.7778,-13.592,-7.6651,5.5502,-5.5873,1.9704,-13.655
-4.8657,-13.333,-9.7561,-13.725,-14.706,-5.1382,-8.6957,-3.9675,-8.8026,-13.725,-14.706,-3.9216,-2.8571,-7.6825,-4.6349,-15.534,-10.564,1.7225,-3.6825,0.0,-12.689
-5.8136,-12.372,-10.732,-14.706,-16.667,-5.1382,-10.628,-3.9675,-8.8026,-14.706,-16.667,-6.8627,-4.7619,-6.7302,-8.4444,-14.563,-13.462,-0.19139,-1.7778,-1.9704,-9.7907
-8.6572,-9.4872,-11.707,-13.725,-18.627001,-5.1382,-12.56,-3.9675,-6.8608,-13.725,-18.627001,-8.8235,-6.6667,-6.7302,-11.302,-11.65,-14.428,-4.0191,0.12698,-3.9409,-6.8921
-9.6051,-7.5641,-12.683,-10.784,-14.706,-3.187,-10.628,-1.0407,-4.9191,-10.784,-14.706,-8.8235,-8.5714,-8.6349,-12.254,-7.767,-13.462,-4.9761,1.0794,-4.9261,-3.9936
-5.8136,-3.7179,-9.7561,-7.8431,-10.784,1.6911,-5.7971,2.8618,-2.9773,-7.8431,-10.784,-4.902,-8.5714,-5.7778,-11.302,-1.9417,-9.5974,-4.0191,2.0317,-6.8966,-0.12882
-0.12638,1.0897,-4.878,-0.98039,-5.8824,6.5691,0.0,7.7398,-1.0356,-0.98039,-5.8824,1.9608,-1.9048,0.88889,-8.4444,2.9126,-6.6989,-0.19139,1.0794,-3.9409,4.7021
0.82148,2.0513,-0.97561,3.9216,-1.9608,9.4959,3.8647,9.6911,-0.06472,3.9216,-1.9608,5.8824,-4.7619,-2.9206,-8.4444,1.9417,-6.6989,2.6794,0.12698,-2.9557,4.7021
0.82148,0.12821,0.0,5.8824,-1.9608,10.472,2.8986,10.667,1.877,5.8824,-1.9608,4.902,-5.7143,-5.7778,-6.5397,0.0,-6.6989,2.6794,1.0794,-2.9557,1.8035
1.7694,-4.6795,0.0,3.9216,0.0,8.5203,2.8986,8.7154,1.877,3.9216,0.0,3.9216,-2.8571,-5.7778,-3.6825,-3.8835,-5.7327,2.6794,0.12698,-1.9704,-2.0612
0.82148,-4.6795,0.0,3.9216,0.0,7.5447,2.8986,7.7398,3.8188,3.9216,0.0,2.9412,-4.7619,-3.873,-1.7778,-5.8252,-5.7327,3.6364,1.0794,0.98522,-5.9259
0.82148,0.12821,1.9512,6.8627,0.98039,6.5691,4.8309,6.7642,4.7896,6.8627,0.98039,3.9216,-1.9048,-1.0159,0.12698,-3.8835,-2.8341,5.5502,3.9365,1.9704,-5.9259
0.82148,0.12821,0.97561,4.902,0.98039,5.5935,3.8647,7.7398,5.7605,4.902,0.98039,2.9412,-0.95238,-5.7778,2.0317,-5.8252,-1.868,4.5933,2.0317,2.9557,-8.8245
2.7172,-0.83333,0.97561,6.8627,4.902,6.5691,4.8309,8.7154,6.7314,6.8627,4.902,3.9216,-0.95238,-5.7778,5.8413,-4.8544,1.9968,6.5072,1.0794,3.9409,-7.8583
1.7694,-0.83333,0.97561,3.9216,0.98039,2.6667,1.9324,4.813,5.7605,3.9216,0.98039,0.0,0.0,-1.9683,7.746,-1.9417,4.8953,2.6794,2.0317,2.9557,-5.9259
-0.12638,-0.83333,0.97561,0.98039,-1.9608,-1.2358,1.9324,-0.06504,4.7896,0.98039,-1.9608,-2.9412,-0.95238,0.88889,4.8889,-0.97087,3.9291,0.76555,2.9841,-1.9704,-3.9936
-2.0221,2.0513,0.97561,-4.902,-4.902,-5.1382,0.96618,-3.9675,4.7896,-4.902,-4.902,-4.902,-0.95238,0.88889,3.9365,0.97087,5.8615,-3.0622,3.9365,-3.9409,-3.0274
-0.12638,5.8974,1.9512,-11.765,-4.902,-8.065,0.0,-6.8943,3.8188,-11.765,-4.902,-5.8824,2.8571,2.7937,7.746,5.8252,9.7262,-4.0191,4.8889,-0.98522,1.8035
-0.12638,3.9744,0.97561,-13.725,-8.8235,-9.0407,-3.8647,-6.8943,0.90615,-13.725,-8.8235,-6.8627,2.8571,-0.06349,5.8413,3.8835,6.8277,-4.9761,3.9365,-1.9704,1.8035
0.82148,2.0513,3.9024,-8.8235,-4.902,-4.1626,-1.9324,-2.0163,0.90615,-8.8235,-4.902,-1.9608,-1.9048,-1.0159,3.9365,3.8835,5.8615,-2.1053,3.9365,-1.9704,2.7697
1.7694,2.0513,6.8293,-6.8627,-1.9608,-1.2358,0.0,0.91057,2.8479,-6.8627,-1.9608,1.9608,-1.9048,3.746,3.9365,3.8835,5.8615,-1.1483,2.9841,-0.98522,4.7021
-2.0221,2.0513,4.878,-7.8431,-2.9412,-4.1626,0.0,-1.0407,3.8188,-7.8431,-2.9412,-0.98039,1.9048,3.746,1.0794,4.8544,2.963,-4.0191,2.0317,-1.9704,5.6683
-4.8657,1.0897,1.9512,-8.8235,-3.9216,-8.065,-1.9324,-2.9919,0.90615,-8.8235,-3.9216,-4.902,1.9048,-1.0159,-2.7302,0.97087,-1.868,-5.933,0.12698,-1.9704,5.6683
-2.97,0.12821,-0.97561,-6.8627,-5.8824,-7.0894,-4.8309,-0.06504,-2.9773,-6.8627,-5.8824,-5.8824,0.95238,1.8413,-3.6825,0.97087,-3.8003,-3.0622,-1.7778,-0.98522,6.6345
1.7694,2.0513,0.97561,-3.9216,-1.9608,-3.187,-1.9324,2.8618,-3.9482,-3.9216,-1.9608,-1.9608,6.6667,9.4603,-0.8254,2.9126,-1.868,3.6364,-1.7778,2.9557,9.533
5.5608,-1.7949,0.97561,0.98039,0.0,0.71545,-2.8986,5.7886,-3.9482,0.98039,0.0,0.0,10.476,9.4603,2.0317,0.97087,-2.8341,9.378,-3.6825,7.8818,5.6683
7.4566,-4.6795,0.0,6.8627,3.9216,4.6179,-3.8647,8.7154,-4.9191,6.8627,3.9216,1.9608,8.5714,6.6032,3.9365,-3.8835,-2.8341,9.378,-5.5873,9.8522,1.8035
5.5608,-5.641,0.0,5.8824,1.9608,3.6423,-4.8309,5.7886,-3.9482,5.8824,1.9608,0.98039,4.7619,2.7937,2.9841,-5.8252,-2.8341,5.5502,-2.7302,6.8966,-2.0612
2.7172,-4.6795,0.97561,9.8039,6.8627,3.6423,-3.8647,6.7642,-2.0065,9.8039,6.8627,1.9608,-0.95238,-1.0159,1.0794,-4.8544,-3.8003,5.5502,-0.8254,1.9704,-1.095
-2.97,-4.6795,-1.9512,9.8039,4.902,1.6911,-4.8309,7.7398,-2.0065,9.8039,4.902,-0.98039,-1.9048,1.8413,-0.8254,-2.9126,-4.7665,3.6364,1.0794,0.0,1.8035
-4.8657,-1.7949,-4.878,6.8627,4.902,-0.26016,-3.8647,3.8374,-1.0356,6.8627,4.902,-1.9608,-6.6667,-1.9683,-3.6825,-0.97087,-4.7665,0.76555,3.9365,-2.9557,2.7697
-2.97,-0.83333,-5.8537,9.8039,5.8824,1.6911,-2.8986,5.7886,0.90615,9.8039,5.8824,-1.9608,-6.6667,-6.7302,-4.6349,-1.9417,-5.7327,0.76555,2.9841,-2.9557,0.83736
-1.0742,-2.7564,-6.8293,9.8039,6.8627,2.6667,-2.8986,5.7886,-1.0356,9.8039,6.8627,-1.9608,-3.8095,-5.7778,-4.6349,-2.9126,-5.7327,1.7225,-0.8254,-0.98522,-1.095
-1.0742,-5.641,-6.8293,4.902,3.9216,-1.2358,-5.7971,2.8618,-2.0065,4.902,3.9216,-3.9216,-4.7619,-3.873,-3.6825,-3.8835,-4.7665,1.7225,-3.6825,0.98522,-1.095
-1.0742,-5.641,-5.8537,2.9412,2.9412,-2.2114,-5.7971,1.8862,-3.9482,2.9412,2.9412,-3.9216,-3.8095,-2.9206,-1.7778,-1.9417,-1.868,1.7225,-3.6825,0.98522,-1.095
-0.12638,-1.7949,-2.9268,2.9412,2.9412,-0.26016,-2.8986,-0.06504,-2.0065,2.9412,2.9412,-1.9608,0.95238,0.88889,1.0794,1.9417,2.963,0.76555,-2.7302,0.98522,2.7697
2.7172,2.0513,0.97561,4.902,3.9216,3.6423,0.0,0.91057,0.90615,4.902,3.9216,0.98039,5.7143,7.5556,3.9365,6.7961,8.7601,-0.19139,-0.8254,3.9409,5.6683
4.613,3.9744,2.9268,4.902,3.9216,4.6179,2.8986,1.8862,1.877,4.902,3.9216,3.9216,4.7619,6.6032,6.7937,6.7961,9.7262,0.76555,1.0794,6.8966,4.7021
1.7694,1.0897,0.97561,3.9216,3.9216,1.6911,1.9324,0.91057,0.90615,3.9216,3.9216,2.9412,3.8095,6.6032,6.7937,2.9126,8.7601,-1.1483,-1.7778,4.9261,0.83736
1.7694,2.0513,4.878,3.9216,4.902,-0.26016,2.8986,-0.06504,0.90615,3.9216,4.902,2.9412,6.6667,6.6032,6.7937,3.8835,8.7601,-1.1483,-1.7778,5.9113,-1.095
3.6651,7.8205,9.7561,2.9412,2.9412,0.71545,4.8309,-1.0407,1.877,2.9412,2.9412,4.902,9.5238,6.6032,7.746,6.7961,9.7262,-1.1483,1.0794,7.8818,0.83736
4.613,9.7436,11.707,0.98039,2.9412,-0.26016,6.7633,-4.9431,3.8188,0.98039,2.9412,4.902,8.5714,10.413,6.7937,9.7087,10.692,-3.0622,2.9841,6.8966,3.7359
5.5608,9.7436,8.7805,0.0,0.98039,-0.26016,5.7971,-5.9187,3.8188,0.0,0.98039,3.9216,9.5238,11.365,7.746,12.621,12.625,-3.0622,3.9365,7.8818,8.5668
7.4566,9.7436,9.7561,-1.9608,-0.98039,0.71545,4.8309,-6.8943,1.877,-1.9608,-0.98039,3.9216,6.6667,11.365,6.7937,14.563,13.591,-4.0191,4.8889,4.9261,9.533
7.4566,8.7821,12.683,-6.8627,-5.8824,-1.2358,2.8986,-9.8211,-0.06472,-6.8627,-5.8824,2.9412,5.7143,10.413,6.7937,12.621,12.625,-4.9761,4.8889,1.9704,8.5668
7.4566,6.859,14.634,-6.8627,-4.902,-3.187,3.8647,-9.8211,-0.06472,-6.8627,-4.902,2.9412,7.619,8.5079,7.746,8.7379,11.659,-4.0191,4.8889,2.9557,8.5668
5.5608,5.8974,14.634,-10.784,-6.8627,-4.1626,1.9324,-11.772,-0.06472,-10.784,-6.8627,0.98039,10.476,7.5556,8.6984,6.7961,11.659,-5.933,3.9365,1.9704,5.6683
5.5608,9.7436,11.707,-10.784,-6.8627,-5.1382,2.8986,-13.724,-1.0356,-10.784,-6.8627,0.0,11.429,13.27,10.603,11.65,14.557,-4.9761,6.7937,1.9704,8.5668
4.613,9.7436,4.878,-14.706,-10.784,-6.1138,0.0,-15.675,-2.0065,-14.706,-10.784,-1.9608,7.619,9.4603,9.6508,11.65,13.591,-5.933,6.7937,0.98522,6.6345
8.4044,11.667,8.7805,-15.686,-12.745,-4.1626,0.96618,-14.699,-3.9482,-15.686,-12.745,0.0,8.5714,8.5079,13.46,14.563,16.49,-2.1053,6.7937,3.9409,8.5668
11.248,12.628,14.634,-15.686,-14.706,-1.2358,1.9324,-13.724,-4.9191,-15.686,-14.706,2.9412,13.333,14.222,15.365,16.504999,17.455999,-1.1483,4.8889,6.8966,12.432
12.196,14.551,20.488001,-13.725,-11.765,-0.26016,4.8309,-12.748,-4.9191,-13.725,-11.765,4.902,11.429,15.175,15.365,17.476,16.49,-0.19139,4.8889,7.8818,14.364
12.196,16.474001,22.438999,-10.784,-9.8039,-0.26016,4.8309,-11.772,-3.9482,-10.784,-9.8039,3.9216,13.333,18.032,17.27,18.447001,17.455999,1.7225,3.9365,9.8522,16.296
9.3523,14.551,14.634,-9.8039,-6.8627,-1.2358,3.8647,-10.797,-4.9191,-9.8039,-6.8627,2.9412,14.286,16.127001,16.316999,17.476,14.557,1.7225,2.9841,11.823,15.33
8.4044,12.628,7.8049,-7.8431,-4.902,-0.26016,5.7971,-8.8455,-2.0065,-7.8431,-4.902,3.9216,9.5238,11.365,13.46,13.592,8.7601,0.76555,3.9365,9.8522,11.465
9.3523,12.628,8.7805,-2.9412,-1.9608,3.6423,8.6957,-4.9431,0.90615,-2.9412,-1.9608,7.8431,8.5714,10.413,12.508,11.65,7.7939,-0.19139,3.9365,9.8522,9.533
8.4044,10.705,10.732,0.98039,3.9216,4.6179,9.6618,-3.9675,3.8188,0.98039,3.9216,9.8039,10.476,6.6032,10.603,8.7379,7.7939,-2.1053,2.9841,9.8522,6.6345
6.5087,7.8205,11.707,3.9216,3.9216,5.5935,9.6618,-2.9919,6.7314,3.9216,3.9216,8.8235,7.619,6.6032,9.6508,4.8544,5.8615,-1.1483,2.0317,8.867,2.7697
3.6651,4.9359,8.7805,6.8627,6.8627,5.5935,8.6957,-1.0407,8.6731,6.8627,6.8627,7.8431,4.7619,0.88889,4.8889,0.97087,4.8953,-2.1053,2.0317,5.9113,-2.0612
-1.0742,1.0897,0.0,9.8039,7.8431,2.6667,4.8309,-0.06504,9.644,9.8039,7.8431,3.9216,2.8571,-4.8254,-0.8254,-3.8835,0.06441,-4.9761,2.9841,0.98522,-5.9259
-5.8136,-3.7179,-8.7805,12.745,11.765,-0.26016,3.8647,0.91057,9.644,12.745,11.765,1.9608,-0.95238,-4.8254,-7.4921,-6.7961,-5.7327,-3.0622,2.9841,-3.9409,-6.8921
-8.6572,-5.641,-10.732,12.745,10.784,-1.2358,2.8986,1.8862,11.586,12.745,10.784,0.98039,-5.7143,-3.873,-12.254,-8.7379,-8.6312,-4.0191,2.0317,-7.8818,-7.8583
-8.6572,-6.6026,-6.8293,13.725,10.784,-0.26016,3.8647,2.8618,11.586,13.725,10.784,3.9216,-5.7143,-3.873,-14.159,-9.7087,-10.564,-4.0191,2.9841,-8.867,-8.8245
-6.7615,-4.6795,-1.9512,14.706,9.8039,2.6667,5.7971,5.7886,11.586,14.706,9.8039,6.8627,-5.7143,-1.9683,-13.206,-5.8252,-7.6651,-1.1483,1.0794,-8.867,-5.9259
-8.6572,0.12821,0.0,15.686,10.784,2.6667,6.7633,6.7642,9.644,15.686,10.784,6.8627,-2.8571,1.8413,-13.206,0.97087,-4.7665,-0.19139,2.0317,-9.8522,-1.095
-11.501,0.12821,-2.9268,12.745,7.8431,0.71545,4.8309,5.7886,8.6731,12.745,7.8431,4.902,-6.6667,-1.9683,-14.159,0.97087,-4.7665,-1.1483,2.0317,-11.823,-1.095
-12.449,-3.7179,-7.8049,9.8039,5.8824,-1.2358,2.8986,3.8374,8.6731,9.8039,5.8824,0.98039,-11.429,-2.9206,-15.111,-1.9417,-6.6989,-2.1053,2.0317,-12.808,-3.0274
-13.397,-5.641,-13.659,4.902,1.9608,-5.1382,0.0,-0.06504,6.7314,4.902,1.9608,-3.9216,-11.429,-5.7778,-15.111,-2.9126,-9.5974,-4.0191,1.0794,-13.793,-3.0274
-14.344,-7.5641,-17.561001,-0.98039,-1.9608,-9.0407,-3.8647,-2.0163,4.7896,-0.98039,-1.9608,-8.8235,-11.429,-10.54,-16.063,-4.8544,-11.53,-3.0622,0.12698,-15.764,-3.0274
-12.449,-5.641,-16.584999,-6.8627,-6.8627,-11.967,-5.7971,-3.9675,2.8479,-6.8627,-6.8627,-11.765,-8.5714,-10.54,-15.111,-4.8544,-10.564,-2.1053,0.12698,-12.808,-3.0274
-12.449,-5.641,-12.683,-6.8627,-8.8235,-11.967,-5.7971,-2.0163,-0.06472,-6.8627,-8.8235,-10.784,-12.381,-11.492,-15.111,-4.8544,-12.496,-4.0191,0.12698,-12.808,-2.0612
-11.501,-5.641,-8.7805,-6.8627,-8.8235,-10.016,-2.8986,-2.9919,-1.0356,-6.8627,-8.8235,-7.8431,-14.286,-9.5873,-13.206,-4.8544,-12.496,-3.0622,0.12698,-10.837,-1.095
-10.553,-7.5641,-8.7805,-5.8824,-8.8235,-8.065,-3.8647,-0.06504,-1.0356,-5.8824,-8.8235,-7.8431,-9.5238,-7.6825,-10.349,-6.7961,-12.496,-3.0622,-1.7778,-7.8818,-2.0612
-5.8136,-6.6026,-6.8293,-6.8627,-9.8039,-5.1382,-2.8986,1.8862,-2.9773,-6.8627,-9.8039,-5.8824,-7.619,-9.5873,-7.4921,-7.767,-11.53,-2.1053,-3.6825,-4.9261,-3.0274
-2.97,-7.5641,-7.8049,-7.8431,-11.765,-3.187,-3.8647,1.8862,-3.9482,-7.8431,-11.765,-5.8824,-7.619,-11.492,-5.5873,-9.7087,-12.496,0.76555,-4.6349,-1.9704,-4.9597
-1.0742,-8.5256,-6.8293,-9.8039,-12.745,-2.2114,-4.8309,0.91057,-7.8317,-9.8039,-12.745,-4.902,-8.5714,-7.6825,-3.6825,-7.767,-10.564,1.7225,-4.6349,-1.9704,-3.9936
-0.12638,-7.5641,-4.878,-11.765,-17.646999,-1.2358,-5.7971,1.8862,-10.744,-11.765,-17.646999,-4.902,-5.7143,-2.9206,-0.8254,-5.8252,-8.6312,0.76555,-4.6349,0.98522,-4.9597
-1.0742,-8.5256,-6.8293,-8.8235,-15.686,-0.26016,-4.8309,2.8618,-11.715,-8.8235,-15.686,-5.8824,-0.95238,-1.0159,2.0317,-6.7961,-8.6312,2.6794,-4.6349,4.9261,-4.9597
-3.9179,-9.4872,-9.7561,-8.8235,-14.706,-1.2358,-7.7295,2.8618,-10.744,-8.8235,-14.706,-7.8431,0.0,-3.873,1.0794,-7.767,-8.6312,0.76555,-5.5873,5.9113,-5.9259
-2.97,-8.5256,-9.7561,-6.8627,-12.745,-0.26016,-7.7295,1.8862,-10.744,-6.8627,-12.745,-7.8431,-3.8095,-4.8254,1.0794,-6.7961,-6.6989,0.76555,-6.5397,4.9261,-5.9259
0.82148,-2.7564,-5.8537,-5.8824,-11.765,0.71545,-3.8647,2.8618,-6.8608,-5.8824,-11.765,-5.8824,-2.8571,-1.9683,2.0317,-1.9417,-1.868,1.7225,-3.6825,3.9409,-3.9936
8.4044,5.8974,2.9268,0.98039,-2.9412,6.5691,4.8309,5.7886,-1.0356,0.98039,-2.9412,1.9608,2.8571,2.7937,6.7937,4.8544,5.8615,4.5933,0.12698,2.9557,0.83736
13.144,9.7436,9.7561,2.9412,-2.9412,9.4959,6.7633,7.7398,-0.06472,2.9412,-2.9412,5.8824,0.95238,4.6984,9.6508,8.7379,10.692,5.5502,2.9841,1.9704,4.7021
11.248,7.8205,10.732,4.902,-0.98039,10.472,3.8647,7.7398,-2.0065,4.902,-0.98039,4.902,-1.9048,2.7937,10.603,8.7379,10.692,5.5502,2.0317,2.9557,4.7021
10.3,7.8205,13.659,8.8235,-1.9608,11.447,2.8986,10.667,-5.89,8.8235,-1.9608,5.8824,0.0,5.6508,11.556,9.7087,13.591,6.5072,1.0794,5.9113,5.6683
11.248,11.667,15.61,6.8627,-0.98039,11.447,5.7971,8.7154,-3.9482,6.8627,-0.98039,6.8627,8.5714,12.317,13.46,13.592,17.455999,5.5502,2.0317,6.8966,7.6006
10.3,11.667,14.634,6.8627,0.98039,9.4959,5.7971,8.7154,-2.9773,6.8627,0.98039,6.8627,9.5238,8.5079,11.556,12.621,16.49,3.6364,1.0794,5.9113,7.6006
10.3,9.7436,12.683,5.8824,-0.98039,7.5447,2.8986,7.7398,-2.9773,5.8824,-0.98039,3.9216,4.7619,5.6508,10.603,11.65,15.523,4.5933,-0.8254,2.9557,5.6683
10.3,5.8974,10.732,6.8627,0.98039,8.5203,2.8986,10.667,-2.0065,6.8627,0.98039,3.9216,3.8095,7.5556,8.6984,7.767,12.625,8.4211,-1.7778,1.9704,2.7697
10.3,3.9744,9.7561,9.8039,1.9608,10.472,3.8647,13.593,-2.0065,9.8039,1.9608,4.902,7.619,8.5079,9.6508,6.7961,10.692,10.335,-2.7302,5.9113,3.7359
6.5087,3.9744,9.7561,5.8824,3.9216,5.5935,4.8309,6.7642,-2.0065,5.8824,3.9216,3.9216,2.8571,5.6508,7.746,6.7961,9.7262,6.5072,0.12698,3.9409,3.7359
-0.12638,3.9744,5.8537,4.902,6.8627,0.71545,4.8309,3.8374,2.8479,4.902,6.8627,0.98039,0.95238,4.6984,2.0317,4.8544,5.8615,1.7225,1.0794,0.0,4.7021
-2.0221,4.9359,1.9512,5.8824,9.8039,0.71545,6.7633,2.8618,4.7896,5.8824,9.8039,1.9608,1.9048,4.6984,-3.6825,3.8835,1.9968,-1.1483,2.9841,-1.9704,3.7359
-3.9179,2.0513,0.0,5.8824,9.8039,0.71545,6.7633,0.91057,7.7023,5.8824,9.8039,2.9412,-4.7619,-1.9683,-7.4921,-0.97087,-2.8341,-1.1483,2.9841,-3.9409,-1.095
-0.12638,1.0897,1.9512,11.765,12.745,4.6179,8.6957,5.7886,8.6731,11.765,12.745,6.8627,-4.7619,-0.06349,-4.6349,-2.9126,-2.8341,3.6364,1.0794,-1.9704,-2.0612
5.5608,4.9359,8.7805,14.706,14.706,10.472,10.628,10.667,9.644,14.706,14.706,10.784,-0.95238,-0.06349,2.9841,0.0,2.963,7.4641,-1.7778,4.9261,-3.0274
7.4566,5.8974,10.732,14.706,16.667,10.472,10.628,10.667,8.6731,14.706,16.667,12.745,0.95238,-0.06349,5.8413,0.0,3.9291,7.4641,-2.7302,6.8966,-2.0612
2.7172,2.0513,4.878,8.8235,9.8039,5.5935,4.8309,5.7886,5.7605,8.8235,9.8039,7.8431,-1.9048,-3.873,2.0317,-2.9126,-0.90177,2.6794,-3.6825,1.9704,-3.9936
3.6651,2.0513,2.9268,6.8627,4.902,1.6911,0.96618,2.8618,2.8479,6.8627,4.902,3.9216,0.0,-3.873,2.0317,-2.9126,-0.90177,0.76555,-3.6825,2.9557,-4.9597
4.613,2.0513,1.9512,6.8627,2.9412,1.6911,0.0,2.8618,0.90615,6.8627,2.9412,3.9216,0.0,-2.9206,2.9841,-3.8835,-1.868,2.6794,-2.7302,2.9557,-4.9597
4.613,0.12821,0.97561,6.8627,2.9412,4.6179,0.0,4.813,0.90615,6.8627,2.9412,5.8824,0.95238,-5.7778,1.0794,-6.7961,-3.8003,2.6794,-1.7778,1.9704,-6.8921
1.7694,-2.7564,0.0,4.902,-0.98039,4.6179,-1.9324,2.8618,0.90615,4.902,-0.98039,3.9216,1.9048,-5.7778,-0.8254,-7.767,-4.7665,-1.1483,0.12698,0.0,-6.8921
-3.9179,-6.6026,-2.9268,0.98039,-3.9216,2.6667,-3.8647,-1.0407,1.877,0.98039,-3.9216,0.98039,-1.9048,-6.7302,-5.5873,-8.7379,-7.6651,-4.9761,0.12698,-6.8966,-4.9597
-7.7093,-12.372,-7.8049,-0.98039,-1.9608,0.71545,-6.7633,-0.06504,1.877,-0.98039,-1.9608,-1.9608,-8.5714,-11.492,-11.302,-12.621,-14.428,-6.89,-1.7778,-11.823,-4.9597
-7.7093,-13.333,-10.732,-1.9608,-6.8627,-0.26016,-9.6618,1.8862,-2.0065,-1.9608,-6.8627,-3.9216,-9.5238,-8.6349,-12.254,-11.65,-16.361,-5.933,-1.7778,-10.837,-2.0612
-7.7093,-10.449,-11.707,-5.8824,-10.784,-4.1626,-9.6618,-1.0407,-4.9191,-5.8824,-10.784,-6.8627,-6.6667,-2.9206,-10.349,-8.7379,-15.395,-3.0622,-1.7778,-7.8818,-0.12882
-11.501,-12.372,-16.584999,-10.784,-14.706,-9.0407,-14.493,-2.9919,-6.8608,-10.784,-14.706,-12.745,-5.7143,-6.7302,-11.302,-10.68,-18.292999,-3.0622,-4.6349,-5.9113,-2.0612
-11.501,-13.333,-17.561001,-12.745,-17.646999,-10.016,-15.459,-3.9675,-9.7735,-12.745,-17.646999,-14.706,-4.7619,-6.7302,-10.349,-9.7087,-17.327,-2.1053,-6.5397,-3.9409,-1.095
-10.553,-12.372,-15.61,-16.667,-18.627001,-9.0407,-16.424999,-5.9187,-9.7735,-16.667,-18.627001,-14.706,-0.95238,-0.06349,-7.4921,-6.7961,-11.53,-3.0622,-7.4921,-1.9704,-0.12882
-10.553,-12.372,-14.634,-15.686,-13.725,-10.016,-14.493,-7.8699,-8.8026,-15.686,-13.725,-13.725,-2.8571,-2.9206,-6.5397,-6.7961,-8.6312,-4.0191,-7.4921,0.0,-4.9597
-8.6572,-8.5256,-10.732,-11.765,-7.8431,-8.065,-7.7295,-4.9431,-4.9191,-11.765,-7.8431,-9.8039,0.95238,-1.9683,-3.6825,-3.8835,-4.7665,-3.0622,-6.5397,2.9557,-4.9597
-8.6572,-4.6795,-6.8293,-7.8431,-4.902,-6.1138,-1.9324,-4.9431,-2.9773,-7.8431,-4.902,-3.9216,2.8571,-1.9683,-4.6349,-4.8544,-4.7665,-3.0622,-4.6349,1.9704,-3.0274
-10.553,-6.6026,-7.8049,-7.8431,-4.902,-5.1382,-1.9324,-7.8699,-1.0356,-7.8431,-4.902,-1.9608,-2.8571,-7.6825,-8.4444,-9.7087,-9.5974,-6.89,-5.5873,-0.98522,-5.9259
-6.7615,-6.6026,-3.9024,-9.8039,-1.9608,-6.1138,0.0,-12.748,-0.06472,-9.8039,-1.9608,0.0,-3.8095,-9.5873,-7.4921,-9.7087,-8.6312,-9.7608,-3.6825,0.0,-6.8921
-3.9179,-2.7564,0.97561,-10.784,0.98039,-5.1382,4.8309,-16.65,2.8479,-10.784,0.98039,2.9412,0.95238,-1.9683,-4.6349,-3.8835,-2.8341,-13.589,-0.8254,0.0,-3.0274
-2.0221,2.0513,4.878,-9.8039,3.9216,-4.1626,8.6957,-20.552999,5.7605,-9.8039,3.9216,4.902,4.7619,3.746,-3.6825,4.8544,2.963,-18.372999,2.9841,-2.9557,3.7359
-2.0221,6.859,6.8293,-9.8039,2.9412,-5.1382,8.6957,-22.504,6.7314,-9.8039,2.9412,5.8824,5.7143,9.4603,-0.8254,11.65,7.7939,-19.33,6.7937,-0.98522,10.499
-3.9179,6.859,5.8537,-11.765,1.9608,-6.1138,6.7633,-22.504,7.7023,-11.765,1.9608,3.9216,5.7143,11.365,0.12698,11.65,8.7601,-19.33,8.6984,-2.9557,11.465
-3.9179,4.9359,4.878,-10.784,0.98039,-7.0894,5.7971,-19.577,6.7314,-10.784,0.98039,1.9608,6.6667,11.365,1.0794,10.68,8.7601,-18.372999,9.6508,-3.9409,11.465
-1.0742,3.9744,3.9024,-9.8039,0.0,-4.1626,2.8986,-13.724,4.7896,-9.8039,0.0,0.0,8.5714,12.317,3.9365,10.68,8.7601,-12.632,7.746,0.0,11.465
0.82148,1.0897,1.9512,-9.8039,-1.9608,-2.2114,0.0,-7.8699,1.877,-9.8039,-1.9608,-1.9608,3.8095,5.6508,2.9841,4.8544,4.8953,-5.933,4.8889,1.9704,6.6345
0.82148,-0.83333,-0.97561,-9.8039,-5.8824,-1.2358,-3.8647,-3.9675,0.90615,-9.8039,-5.8824,-4.902,0.95238,-0.06349,1.0794,0.97087,1.0306,-0.19139,2.9841,1.9704,1.8035
1.7694,-0.83333,0.0,-8.8235,-4.902,-0.26016,-2.8986,2.8618,0.90615,-8.8235,-4.902,-3.9216,0.95238,-1.9683,1.0794,-0.97087,0.06441,7.4641,2.9841,1.9704,-1.095
2.7172,-4.6795,-1.9512,-10.784,-8.8235,-0.26016,-4.8309,5.7886,0.90615,-10.784,-8.8235,-5.8824,-4.7619,-3.873,0.12698,-3.8835,-2.8341,10.335,2.0317,0.0,-3.9936
4.613,-5.641,-3.9024,-8.8235,-5.8824,1.6911,-3.8647,5.7886,1.877,-8.8235,-5.8824,-3.9216,-5.7143,-11.492,0.12698,-7.767,-6.6989,13.206,1.0794,0.98522,-7.8583
9.3523,-1.7949,-0.97561,-6.8627,-4.902,6.5691,0.0,10.667,2.8479,-6.8627,-4.902,0.0,-9.5238,-14.349,4.8889,-6.7961,-3.8003,17.033001,1.0794,3.9409,-9.7907
13.144,3.0128,2.9268,-7.8431,-3.9216,8.5203,4.8309,8.7154,5.7605,-7.8431,-3.9216,2.9412,-10.476,-10.54,9.6508,-2.9126,1.0306,16.077,3.9365,4.9261,-8.8245
13.144,6.859,7.8049,-9.8039,-4.902,7.5447,5.7971,6.7642,6.7314,-9.8039,-4.902,2.9412,-6.6667,-10.54,11.556,0.0,3.9291,13.206,2.9841,5.9113,-7.8583
13.144,9.7436,12.683,-5.8824,-0.98039,9.4959,7.7295,5.7886,6.7314,-5.8824,-0.98039,6.8627,-2.8571,-7.6825,14.413,2.9126,8.7601,10.335,2.0317,6.8966,-4.9597
9.3523,9.7436,13.659,-2.9412,1.9608,8.5203,9.6618,3.8374,6.7314,-2.9412,1.9608,9.8039,-0.95238,-3.873,13.46,3.8835,10.692,3.6364,0.12698,3.9409,-3.9936
8.4044,9.7436,14.634,-1.9608,5.8824,8.5203,11.594,-0.06504,6.7314,-1.9608,5.8824,12.745,1.9048,-1.9683,11.556,3.8835,10.692,-3.0622,-1.7778,2.9557,-3.9936
12.196,10.705,18.537001,-0.98039,5.8824,9.4959,14.493,-4.9431,6.7314,-0.98039,5.8824,16.667,4.7619,1.8413,14.413,3.8835,11.659,-6.89,-2.7302,4.9261,-3.0274
16.934999,13.59,24.389999,2.9412,11.765,10.472,17.391001,-6.8943,8.6731,2.9412,11.765,20.587999,9.5238,6.6032,18.222,5.8252,15.523,-6.89,-0.8254,7.8818,-3.0274
15.987,13.59,25.365999,1.9608,13.725,8.5203,16.424999,-11.772,11.586,1.9608,13.725,18.627001,10.476,5.6508,18.222,6.7961,15.523,-10.718,2.9841,7.8818,-1.095
9.3523,9.7436,18.537001,0.98039,10.784,4.6179,11.594,-15.675,12.557,0.98039,10.784,13.725,6.6667,2.7937,12.508,5.8252,12.625,-16.459,7.746,3.9409,-0.12882
1.7694,5.8974,10.732,-0.98039,7.8431,-1.2358,4.8309,-20.552999,11.586,-0.98039,7.8431,6.8627,6.6667,1.8413,6.7937,5.8252,10.692,-23.158001,9.6508,0.0,1.8035
-6.7615,3.9744,1.9512,-6.8627,2.9412,-10.016,0.0,-27.382,10.615,-6.8627,2.9412,0.0,6.6667,2.7937,2.9841,5.8252,7.7939,-26.028999,10.603,-0.98522,4.7021
-7.7093,3.0128,-0.97561,-6.8627,2.9412,-13.919,-0.96618,-27.382,7.7023,-6.8627,2.9412,-3.9216,12.381,9.4603,3.9365,6.7961,8.7601,-22.201,10.603,4.9261,9.533
-7.7093,2.0513,-2.9268,-6.8627,0.98039,-14.894,-4.8309,-24.455,4.7896,-6.8627,0.98039,-6.8627,19.048,16.127001,5.8413,9.7087,10.692,-21.243999,10.603,7.8818,13.398
-9.6051,2.0513,-4.878,-9.8039,0.0,-17.820999,-5.7971,-27.382,3.8188,-9.8039,0.0,-9.8039,12.381,14.222,1.0794,9.7087,7.7939,-24.115,12.508,2.9557,15.33
-7.7093,4.9359,-2.9268,-6.8627,0.0,-13.919,-4.8309,-24.455,6.7314,-6.8627,0.0,-8.8235,10.476,13.27,0.12698,11.65,8.7601,-24.115,13.46,-2.9557,17.261999
-2.97,6.859,0.0,-2.9412,0.98039,-9.0407,-2.8986,-18.601999,2.8479,-2.9412,0.98039,-4.902,7.619,12.317,2.0317,12.621,8.7601,-19.33,12.508,-1.9704,17.261999
-2.0221,6.859,0.0,0.0,1.9608,-5.1382,-2.8986,-12.748,-1.0356,0.0,1.9608,-2.9412,6.6667,14.222,2.0317,13.592,8.7601,-13.589,9.6508,0.0,17.261999
2.7172,8.7821,2.9268,4.902,6.8627,-1.2358,0.96618,-5.9187,-2.9773,4.902,6.8627,0.0,9.5238,13.27,6.7937,18.447001,12.625,-5.933,6.7937,5.9113,19.195
3.6651,11.667,2.9268,9.8039,7.8431,1.6911,2.8986,-0.06504,-1.0356,9.8039,7.8431,0.98039,11.429,12.317,8.6984,20.388,15.523,-0.19139,2.9841,12.808,19.195
5.5608,14.551,6.8293,12.745,10.784,4.6179,7.7295,3.8374,-0.06472,12.745,10.784,4.902,10.476,15.175,10.603,20.388,16.49,2.6794,2.0317,14.778,19.195
5.5608,10.705,6.8293,8.8235,10.784,2.6667,6.7633,-0.06504,-0.06472,8.8235,10.784,4.902,10.476,14.222,10.603,17.476,15.523,2.6794,1.0794,14.778,17.261999
4.613,6.859,3.9024,7.8431,9.8039,0.71545,4.8309,-0.06504,-1.0356,7.8431,9.8039,2.9412,10.476,9.4603,10.603,13.592,12.625,4.5933,1.0794,15.764,12.432
6.5087,4.9359,4.878,8.8235,10.784,2.6667,4.8309,1.8862,2.8479,8.8235,10.784,3.9216,5.7143,4.6984,10.603,10.68,10.692,7.4641,2.0317,14.778,8.5668
10.3,7.8205,9.7561,11.765,15.686,6.5691,10.628,5.7886,10.615,11.765,15.686,8.8235,3.8095,4.6984,11.556,8.7379,10.692,8.4211,3.9365,12.808,5.6683
11.248,8.7821,10.732,14.706,18.627001,10.472,14.493,8.7154,12.557,14.706,18.627001,12.745,0.95238,-1.9683,8.6984,3.8835,5.8615,8.4211,5.8413,8.867,-1.095
9.3523,7.8205,10.732,15.686,16.667,10.472,13.527,7.7398,12.557,15.686,16.667,13.725,-3.8095,-4.8254,4.8889,0.0,1.9968,3.6364,5.8413,1.9704,-4.9597
9.3523,6.859,9.7561,15.686,18.627001,10.472,13.527,9.6911,12.557,15.686,18.627001,14.706,-6.6667,-6.7302,3.9365,-0.97087,1.0306,5.5502,6.7937,-1.9704,-6.8921
12.196,7.8205,11.707,15.686,18.627001,13.398,13.527,12.618,14.498,15.686,18.627001,15.686,-3.8095,-5.7778,5.8413,0.97087,1.9968,9.378,7.746,-1.9704,-4.9597
11.248,4.9359,7.8049,15.686,16.667,13.398,11.594,12.618,12.557,15.686,16.667,15.686,-5.7143,-3.873,2.9841,0.0,0.06441,10.335,6.7937,-5.9113,-4.9597
7.4566,1.0897,1.9512,12.745,11.765,10.472,5.7971,14.569,8.6731,12.745,11.765,10.784,-6.6667,-3.873,-0.8254,-2.9126,-4.7665,9.378,4.8889,-8.867,-3.9936
4.613,1.0897,0.0,7.8431,9.8039,5.5935,4.8309,10.667,7.7023,7.8431,9.8039,7.8431,-7.619,-4.8254,-4.6349,-3.8835,-7.6651,6.5072,4.8889,-11.823,-2.0612
0.82148,3.0128,-1.9512,0.98039,3.9216,0.71545,1.9324,6.7642,5.7605,0.98039,3.9216,2.9412,-5.7143,-2.9206,-5.5873,-0.97087,-5.7327,2.6794,4.8889,-10.837,-0.12882
-0.12638,3.9744,-1.9512,-3.9216,-1.9608,-3.187,0.0,5.7886,1.877,-3.9216,-1.9608,-0.98039,0.0,3.746,-2.7302,3.8835,-0.90177,5.5502,2.9841,-5.9113,2.7697
-2.0221,0.12821,-3.9024,-8.8235,-7.8431,-7.0894,-4.8309,4.813,-2.9773,-8.8235,-7.8431,-4.902,0.0,0.88889,-3.6825,0.0,-2.8341,8.4211,-1.7778,-5.9113,0.83736
-4.8657,-3.7179,-6.8293,-7.8431,-6.8627,-8.065,-6.7633,4.813,-5.89,-7.8431,-6.8627,-7.8431,-2.8571,-5.7778,-8.4444,-5.8252,-8.6312,8.4211,-3.6825,-6.8966,-3.0274
-11.501,-8.5256,-12.683,-7.8431,-9.8039,-10.016,-11.594,5.7886,-6.8608,-7.8431,-9.8039,-11.765,-8.5714,-6.7302,-16.063,-7.767,-14.428,6.5072,-5.5873,-9.8522,-3.9936
-18.136,-16.218,-21.462999,-9.8039,-10.784,-12.943,-17.391001,4.813,-8.8026,-9.8039,-10.784,-17.646999,-10.476,-11.492,-21.778,-11.65,-20.225,4.5933,-5.5873,-11.823,-5.9259
-20.032,-19.103001,-26.341,-11.765,-15.686,-14.894,-22.222,5.7886,-9.7735,-11.765,-15.686,-21.569,-10.476,-10.54,-23.683001,-13.592,-21.191999,3.6364,-6.5397,-10.837,-5.9259
-20.979,-20.063999,-29.268,-11.765,-15.686,-15.87,-23.188,6.7642,-8.8026,-11.765,-15.686,-23.528999,-10.476,-6.7302,-24.635,-15.534,-23.124001,4.5933,-6.5397,-13.793,-5.9259
-20.032,-21.025999,-30.243999,-8.8235,-12.745,-12.943,-20.290001,10.667,-7.8317,-8.8235,-12.745,-21.569,-14.286,-9.5873,-25.587,-19.417,-26.989,7.4641,-7.4921,-15.764,-9.7907
-20.032,-21.025999,-29.268,-6.8627,-12.745,-10.016,-19.323999,13.593,-7.8317,-6.8627,-12.745,-19.608,-18.094999,-14.349,-26.540001,-22.33,-29.886999,10.335,-8.4444,-13.793,-12.689
-18.136,-20.063999,-27.316999,-7.8431,-12.745,-9.0407,-18.357,11.642,-8.8026,-7.8431,-12.745,-17.646999,-17.143,-18.159,-25.587,-22.33,-27.955,11.292,-7.4921,-14.778,-15.588
-17.188,-19.103001,-28.292999,-3.9216,-10.784,-7.0894,-16.424999,15.545,-8.8026,-3.9216,-10.784,-15.686,-18.094999,-19.111,-24.635,-21.358999,-26.023001,13.206,-7.4921,-12.808,-17.52
-12.449,-18.141001,-24.389999,0.0,-6.8627,-3.187,-10.628,19.447001,-9.7735,0.0,-6.8627,-10.784,-18.094999,-20.063,-23.683001,-21.358999,-26.023001,16.077,-9.3968,-8.867,-18.486
-8.6572,-16.218,-19.511999,1.9608,-7.8431,0.71545,-8.6957,22.374001,-11.715,1.9608,-7.8431,-6.8627,-15.238,-16.254,-21.778,-21.358999,-24.09,17.99,-11.302,-7.8818,-18.486
-2.97,-15.256,-14.634,5.8824,-5.8824,5.5935,-8.6957,24.325001,-13.657,5.8824,-5.8824,-2.9412,-12.381,-19.111,-17.968,-20.388,-20.225,18.947001,-12.254,-4.9261,-19.452
-1.0742,-13.333,-9.7561,7.8431,-5.8824,9.4959,-9.6618,25.301001,-13.657,7.8431,-5.8824,0.0,-9.5238,-17.205999,-12.254,-17.476,-15.395,17.033001,-12.254,-3.9409,-17.52
0.82148,-13.333,-6.8293,8.8235,-5.8824,10.472,-8.6957,22.374001,-15.599,8.8235,-5.8824,1.9608,-6.6667,-12.444,-9.3968,-14.563,-11.53,14.163,-11.302,-2.9557,-13.655
-1.0742,-12.372,-5.8537,3.9216,-9.8039,6.5691,-8.6957,15.545,-15.599,3.9216,-9.8039,0.0,-10.476,-12.444,-9.3968,-13.592,-10.564,11.292,-10.349,-5.9113,-11.723
0.82148,-8.5256,-0.97561,1.9608,-6.8627,4.6179,-5.7971,10.667,-12.686,1.9608,-6.8627,0.98039,-7.619,-5.7778,-6.5397,-8.7379,-7.6651,9.378,-6.5397,-3.9409,-7.8583
3.6651,-3.7179,1.9512,3.9216,-4.902,5.5935,-2.8986,8.7154,-9.7735,3.9216,-4.902,2.9412,0.0,-1.0159,-1.7778,-5.8252,-3.8003,6.5072,-6.5397,-1.9704,-5.9259
4.613,-0.83333,3.9024,5.8824,-0.98039,5.5935,0.96618,7.7398,-5.89,5.8824,-0.98039,4.902,-2.8571,-3.873,-0.8254,-6.7961,-3.8003,5.5502,-5.5873,-1.9704,-7.8583
3.6651,1.0897,3.9024,6.8627,0.98039,7.5447,2.8986,9.6911,-1.0356,6.8627,0.98039,5.8824,-5.7143,-3.873,-0.8254,-6.7961,-3.8003,6.5072,-2.7302,-2.9557,-7.8583
-0.12638,-2.7564,0.97561,4.902,0.98039,5.5935,2.8986,9.6911,0.90615,4.902,0.98039,2.9412,-8.5714,-5.7778,-3.6825,-7.767,-5.7327,5.5502,-1.7778,-8.867,-7.8583
-1.0742,-4.6795,-0.97561,5.8824,0.98039,5.5935,1.9324,12.618,0.90615,5.8824,0.98039,2.9412,-9.5238,-5.7778,-4.6349,-7.767,-5.7327,5.5502,-0.8254,-11.823,-6.8921
2.7172,-3.7179,1.9512,7.8431,0.98039,8.5203,1.9324,15.545,-1.0356,7.8431,0.98039,4.902,-6.6667,-3.873,-0.8254,-5.8252,-2.8341,7.4641,-1.7778,-7.8818,-4.9597
0.82148,-4.6795,-0.97561,4.902,-2.9412,5.5935,-1.9324,14.569,-6.8608,4.902,-2.9412,0.98039,-5.7143,-4.8254,0.12698,-5.8252,-3.8003,11.292,-6.5397,-3.9409,-5.9259
-1.0742,-4.6795,-4.878,2.9412,-4.902,1.6911,-6.7633,12.618,-9.7735,2.9412,-4.902,-3.9216,-2.8571,-5.7778,-0.8254,-5.8252,-5.7327,12.249,-8.4444,0.0,-5.9259
-2.97,-5.641,-7.8049,0.98039,-5.8824,-0.26016,-7.7295,9.6911,-11.715,0.98039,-5.8824,-6.8627,-3.8095,-6.7302,-2.7302,-4.8544,-6.6989,12.249,-9.3968,3.9409,-3.9936
-5.8136,-7.5641,-11.707,-0.98039,-7.8431,-2.2114,-9.6618,6.7642,-11.715,-0.98039,-7.8431,-8.8235,-2.8571,-3.873,-2.7302,-5.8252,-7.6651,10.335,-8.4444,3.9409,-5.9259
-2.97,-4.6795,-6.8293,-1.9608,-6.8627,-2.2114,-7.7295,3.8374,-11.715,-1.9608,-6.8627,-7.8431,-2.8571,-2.9206,0.12698,-1.9417,-4.7665,10.335,-7.4921,6.8966,-3.0274
-2.97,-3.7179,-5.8537,-3.9216,-7.8431,-2.2114,-8.6957,-0.06504,-12.686,-3.9216,-7.8431,-7.8431,-1.9048,-1.0159,1.0794,0.97087,-0.90177,8.4211,-7.4921,8.867,-1.095
-2.97,-4.6795,-7.8049,-6.8627,-9.8039,-6.1138,-8.6957,-4.9431,-13.657,-6.8627,-9.8039,-10.784,2.8571,2.7937,2.0317,0.97087,1.9968,7.4641,-6.5397,7.8818,-2.0612
-3.9179,-5.641,-6.8293,-11.765,-10.784,-10.016,-8.6957,-10.797,-9.7735,-11.765,-10.784,-11.765,6.6667,7.5556,3.9365,2.9126,3.9291,3.6364,-4.6349,6.8966,0.83736
-3.9179,-5.641,-5.8537,-7.8431,-7.8431,-10.016,-5.7971,-10.797,-8.8026,-7.8431,-7.8431,-9.8039,8.5714,9.4603,4.8889,2.9126,4.8953,2.6794,-3.6825,9.8522,4.7021
-5.8136,-2.7564,-4.878,-8.8235,-8.8235,-10.992,-4.8309,-11.772,-8.8026,-8.8235,-8.8235,-9.8039,9.5238,10.413,5.8413,4.8544,5.8615,0.76555,-2.7302,11.823,6.6345
-5.8136,-3.7179,-4.878,-9.8039,-7.8431,-12.943,-4.8309,-15.675,-6.8608,-9.8039,-7.8431,-9.8039,9.5238,5.6508,5.8413,1.9417,2.963,-1.1483,-0.8254,12.808,3.7359
-2.0221,-2.7564,-2.9268,-8.8235,-6.8627,-11.967,-4.8309,-15.675,-4.9191,-8.8235,-6.8627,-7.8431,6.6667,3.746,7.746,1.9417,2.963,-1.1483,1.0794,12.808,3.7359
1.7694,4.9359,2.9268,-7.8431,-1.9608,-9.0407,1.9324,-13.724,-0.06472,-7.8431,-1.9608,-3.9216,8.5714,7.5556,10.603,8.7379,8.7601,-2.1053,3.9365,11.823,6.6345
5.5608,12.628,8.7805,-3.9216,2.9412,-3.187,8.6957,-12.748,5.7605,-3.9216,2.9412,1.9608,11.429,11.365,14.413,15.534,15.523,-4.0191,6.7937,9.8522,10.499
7.4566,15.513,11.707,-0.98039,8.8235,0.71545,13.527,-11.772,10.615,-0.98039,8.8235,6.8627,14.286,14.222,15.365,19.417,18.422001,-6.89,8.6984,8.867,12.432
5.5608,14.551,12.683,0.0,11.765,-0.26016,14.493,-13.724,10.615,0.0,11.765,7.8431,7.619,11.365,13.46,17.476,17.455999,-9.7608,8.6984,6.8966,13.398
1.7694,11.667,9.7561,-1.9608,11.765,-1.2358,13.527,-17.625999,10.615,-1.9608,11.765,6.8627,4.7619,10.413,9.6508,14.563,14.557,-14.545,8.6984,2.9557,12.432
2.7172,8.7821,9.7561,-2.9412,9.8039,-1.2358,11.594,-18.601999,8.6731,-2.9412,9.8039,7.8431,5.7143,9.4603,8.6984,10.68,10.692,-12.632,8.6984,3.9409,9.533
4.613,5.8974,6.8293,-1.9608,3.9216,1.6911,6.7633,-12.748,5.7605,-1.9608,3.9216,4.902,5.7143,6.6032,8.6984,6.7961,6.8277,-5.933,5.8413,6.8966,7.6006
5.5608,2.0513,3.9024,-0.98039,0.98039,1.6911,0.96618,-5.9187,-0.06472,-0.98039,0.98039,0.98039,4.7619,4.6984,7.746,3.8835,4.8953,0.76555,1.0794,7.8818,4.7021
6.5087,-0.83333,0.97561,2.9412,1.9608,3.6423,-2.8986,2.8618,-0.06472,2.9412,1.9608,-1.9608,6.6667,3.746,9.6508,1.9417,5.8615,8.4211,-0.8254,10.837,0.83736
5.5608,-1.7949,-0.97561,2.9412,1.9608,3.6423,-2.8986,5.7886,0.90615,2.9412,1.9608,-2.9412,2.8571,-1.0159,7.746,0.0,3.9291,10.335,-1.7778,9.8522,-2.0612
1.7694,-2.7564,-2.9268,-0.98039,-0.98039,0.71545,-4.8309,6.7642,1.877,-0.98039,-0.98039,-5.8824,-3.8095,-4.8254,2.9841,-2.9126,-0.90177,8.4211,-0.8254,2.9557,-5.9259
0.82148,-2.7564,-1.9512,0.98039,2.9412,1.6911,-2.8986,6.7642,2.8479,0.98039,2.9412,-2.9412,-1.9048,-1.9683,0.12698,-2.9126,-1.868,8.4211,1.0794,0.0,-4.9597
-3.9179,-3.7179,-3.9024,-0.98039,4.902,-1.2358,-2.8986,2.8618,6.7314,-0.98039,4.902,-1.9608,-6.6667,-5.7778,-4.6349,-5.8252,-5.7327,2.6794,2.0317,-5.9113,-6.8921
-4.8657,-1.7949,-1.9512,-2.9412,5.8824,-4.1626,0.0,-2.0163,8.6731,-2.9412,5.8824,-0.98039,-6.6667,-5.7778,-6.5397,-6.7961,-6.6989,-1.1483,2.9841,-7.8818,-5.9259
-2.97,0.12821,0.97561,-5.8824,5.8824,-4.1626,2.8986,-7.8699,11.586,-5.8824,5.8824,0.98039,-7.619,-3.873,-5.5873,-4.8544,-5.7327,-4.0191,2.9841,-7.8818,-3.9936
-0.12638,3.9744,5.8537,-7.8431,8.8235,-3.187,7.7295,-11.772,12.557,-7.8431,8.8235,4.902,-3.8095,4.6984,-2.7302,0.0,0.06441,-6.89,4.8889,-7.8818,-0.12882
0.82148,7.8205,7.8049,-8.8235,10.784,-3.187,10.628,-15.675,16.440001,-8.8235,10.784,5.8824,-1.9048,1.8413,0.12698,3.8835,3.9291,-7.8469,6.7937,-4.9261,1.8035
-0.12638,8.7821,7.8049,-12.745,9.8039,-6.1138,12.56,-22.504,17.410999,-12.745,9.8039,4.902,-1.9048,-0.06349,-0.8254,4.8544,4.8953,-11.675,6.7937,-4.9261,2.7697
-1.0742,10.705,8.7805,-12.745,8.8235,-6.1138,13.527,-25.431,17.410999,-12.745,8.8235,5.8824,0.0,3.746,-1.7778,7.767,6.8277,-16.459,10.603,-5.9113,5.6683
-1.0742,10.705,9.7561,-13.725,6.8627,-6.1138,12.56,-25.431,16.440001,-13.725,6.8627,5.8824,1.9048,6.6032,-0.8254,9.7087,8.7601,-19.33,12.508,-5.9113,7.6006
2.7172,12.628,12.683,-10.784,5.8824,-4.1626,12.56,-23.48,13.528,-10.784,5.8824,6.8627,4.7619,11.365,3.9365,11.65,12.625,-18.372999,12.508,-1.9704,8.5668
4.613,13.59,13.659,-8.8235,3.9216,-2.2114,11.594,-22.504,11.586,-8.8235,3.9216,7.8431,10.476,12.317,8.6984,13.592,13.591,-16.459,11.556,1.9704,8.5668
3.6651,14.551,13.659,-3.9216,8.8235,-1.2358,14.493,-20.552999,12.557,-3.9216,8.8235,10.784,14.286,13.27,8.6984,14.563,12.625,-14.545,11.556,4.9261,12.432
0.82148,13.59,10.732,-0.98039,9.8039,-0.26016,13.527,-18.601999,13.528,-0.98039,9.8039,9.8039,12.381,13.27,8.6984,14.563,10.692,-14.545,12.508,6.8966,14.364
-2.0221,12.628,6.8293,0.0,8.8235,-1.2358,10.628,-17.625999,10.615,0.0,8.8235,6.8627,8.5714,12.317,5.8413,14.563,7.7939,-16.459,10.603,4.9261,14.364
-2.97,9.7436,2.9268,0.98039,5.8824,-1.2358,5.7971,-14.699,8.6731,0.98039,5.8824,2.9412,7.619,10.413,2.9841,12.621,4.8953,-15.502,9.6508,2.9557,10.499
1.7694,8.7821,4.878,5.8824,8.8235,1.6911,6.7633,-10.797,8.6731,5.8824,8.8235,3.9216,11.429,13.27,6.7937,13.592,8.7601,-11.675,6.7937,5.9113,10.499
2.7172,7.8205,3.9024,3.9216,7.8431,-0.26016,2.8986,-8.8455,9.644,3.9216,7.8431,0.98039,10.476,10.413,9.6508,13.592,11.659,-10.718,7.746,6.8966,10.499
1.7694,5.8974,0.97561,2.9412,4.902,-4.1626,-0.96618,-8.8455,7.7023,2.9412,4.902,-2.9412,10.476,7.5556,9.6508,10.68,9.7262,-9.7608,8.6984,6.8966,10.499
-1.0742,2.0513,-0.97561,0.98039,-0.98039,-6.1138,-5.7971,-7.8699,3.8188,0.98039,-0.98039,-6.8627,9.5238,6.6032,7.746,6.7961,5.8615,-8.8038,5.8413,7.8818,8.5668
-2.0221,1.0897,-1.9512,1.9608,-0.98039,-5.1382,-6.7633,-5.9187,1.877,1.9608,-0.98039,-6.8627,7.619,3.746,4.8889,2.9126,1.9968,-7.8469,4.8889,5.9113,5.6683
-6.7615,-4.6795,-6.8293,1.9608,-1.9608,-6.1138,-8.6957,-4.9431,0.90615,1.9608,-1.9608,-8.8235,-0.95238,-1.0159,-1.7778,-1.9417,-4.7665,-7.8469,2.0317,0.98522,1.8035
-7.7093,-8.5256,-8.7805,3.9216,-0.98039,-6.1138,-8.6957,-2.9919,-0.06472,3.9216,-0.98039,-8.8235,-0.95238,-0.06349,-3.6825,-5.8252,-7.6651,-4.9761,1.0794,-1.9704,0.83736
-6.7615,-8.5256,-9.7561,4.902,-2.9412,-6.1138,-7.7295,-1.0407,-2.0065,4.902,-2.9412,-7.8431,0.95238,2.7937,-1.7778,-4.8544,-5.7327,-1.1483,-1.7778,-0.98522,1.8035
-3.9179,-5.641,-6.8293,4.902,-3.9216,-4.1626,-6.7633,1.8862,-4.9191,4.902,-3.9216,-5.8824,3.8095,3.746,1.0794,-1.9417,-0.90177,1.7225,-3.6825,1.9704,0.83736
-2.0221,-2.7564,-4.878,6.8627,-0.98039,-1.2358,-5.7971,7.7398,-3.9482,6.8627,-0.98039,-2.9412,3.8095,2.7937,2.0317,0.0,1.0306,4.5933,-3.6825,2.9557,0.83736
-2.97,-2.7564,-3.9024,9.8039,1.9608,1.6911,-4.8309,9.6911,-1.0356,9.8039,1.9608,0.0,1.9048,1.8413,-0.8254,-0.97087,-0.90177,6.5072,-1.7778,0.0,-0.12882
0.82148,-0.83333,0.97561,12.745,6.8627,6.5691,2.8986,12.618,3.8188,12.745,6.8627,5.8824,4.7619,1.8413,0.12698,0.0,0.06441,10.335,-2.7302,1.9704,-0.12882
2.7172,2.0513,3.9024,11.765,9.8039,7.5447,7.7295,11.642,8.6731,11.765,9.8039,8.8235,-0.95238,0.88889,0.12698,0.0,-0.90177,8.4211,-0.8254,0.0,-2.0612
6.5087,4.9359,8.7805,10.784,13.725,10.472,12.56,10.667,11.586,10.784,13.725,12.745,-2.8571,0.88889,0.12698,2.9126,1.0306,9.378,5.8413,0.0,0.83736
9.3523,5.8974,10.732,4.902,7.8431,11.447,10.628,8.7154,9.644,4.902,7.8431,12.745,1.9048,2.7937,2.9841,4.8544,2.963,7.4641,5.8413,-1.9704,3.7359
8.4044,3.0128,7.8049,-1.9608,2.9412,7.5447,6.7633,2.8618,6.7314,-1.9608,2.9412,7.8431,0.95238,-1.9683,2.0317,0.97087,1.0306,6.5072,0.12698,-0.98522,0.83736
6.5087,1.0897,6.8293,-6.8627,0.98039,6.5691,4.8309,-0.06504,8.6731,-6.8627,0.98039,5.8824,0.0,-0.06349,1.0794,-0.97087,0.06441,3.6364,-0.8254,0.0,-0.12882
7.4566,0.12821,6.8293,-6.8627,1.9608,6.5691,5.7971,-1.0407,9.644,-6.8627,1.9608,5.8824,-2.8571,-1.0159,2.0317,-1.9417,1.0306,2.6794,-1.7778,0.0,0.83736
8.4044,0.12821,7.8049,-8.8235,-0.98039,6.5691,3.8647,-0.06504,8.6731,-8.8235,-0.98039,3.9216,1.9048,-1.9683,2.9841,-2.9126,1.0306,3.6364,-0.8254,1.9704,-2.0612
6.5087,-0.83333,4.878,-10.784,-1.9608,4.6179,2.8986,0.91057,5.7605,-10.784,-1.9608,1.9608,-2.8571,-6.7302,-0.8254,-7.767,-3.8003,1.7225,-1.7778,0.0,-7.8583
1.7694,-1.7949,0.0,-13.725,-5.8824,0.71545,-1.9324,-1.0407,2.8479,-13.725,-5.8824,-3.9216,-7.619,-8.6349,-5.5873,-10.68,-7.6651,-0.19139,-2.7302,-3.9409,-10.757
-0.12638,-2.7564,-0.97561,-9.8039,-5.8824,-1.2358,-3.8647,1.8862,0.90615,-9.8039,-5.8824,-4.902,-4.7619,-7.6825,-5.5873,-10.68,-6.6989,1.7225,-1.7778,-4.9261,-8.8245
-0.12638,-2.7564,-0.97561,-6.8627,-6.8627,-0.26016,-4.8309,5.7886,0.90615,-6.8627,-6.8627,-3.9216,-7.619,-9.5873,-3.6825,-7.767,-3.8003,2.6794,-1.7778,-3.9409,-7.8583
0.82148,2.0513,2.9268,-2.9412,-2.9412,1.6911,-1.9324,8.7154,0.90615,-2.9412,-2.9412,0.0,-5.7143,-5.7778,-1.7778,-1.9417,1.0306,4.5933,-1.7778,-3.9409,-6.8921
2.7172,3.9744,6.8293,1.9608,0.0,4.6179,0.96618,13.593,-1.0356,1.9608,0.0,3.9216,-2.8571,-7.6825,0.12698,-1.9417,1.9968,7.4641,-3.6825,-1.9704,-5.9259
2.7172,3.0128,4.878,2.9412,-1.9608,3.6423,-1.9324,12.618,-4.9191,2.9412,-1.9608,1.9608,-1.9048,-8.6349,-0.8254,-1.9417,0.06441,8.4211,-4.6349,-0.98522,-5.9259
0.82148,2.0513,1.9512,0.98039,-3.9216,-1.2358,-3.8647,7.7398,-6.8608,0.98039,-3.9216,-1.9608,-2.8571,-4.8254,-2.7302,1.9417,0.06441,6.5072,-2.7302,-2.9557,-2.0612
-2.0221,1.0897,-3.9024,-1.9608,-5.8824,-5.1382,-7.7295,4.813,-6.8608,-1.9608,-5.8824,-5.8824,-4.7619,-3.873,-5.5873,3.8835,-0.90177,3.6364,-2.7302,-5.9113,0.83736
-4.8657,-0.83333,-6.8293,-2.9412,-7.8431,-8.065,-10.628,3.8374,-7.8317,-2.9412,-7.8431,-9.8039,-2.8571,-0.06349,-6.5397,4.8544,-1.868,0.76555,-1.7778,-5.9113,3.7359
-6.7615,-2.7564,-8.7805,-1.9608,-8.8235,-7.0894,-12.56,4.813,-6.8608,-1.9608,-8.8235,-10.784,2.8571,4.6984,-5.5873,5.8252,-0.90177,-0.19139,-3.6825,-3.9409,4.7021
-6.7615,-1.7949,-7.8049,0.98039,-3.9216,-5.1382,-9.6618,5.7886,-3.9482,0.98039,-3.9216,-8.8235,4.7619,5.6508,-2.7302,3.8835,0.06441,0.76555,-2.7302,0.98522,2.7697
-5.8136,-2.7564,-6.8293,0.98039,-4.902,-5.1382,-10.628,3.8374,-4.9191,0.98039,-4.902,-7.8431,9.5238,3.746,-0.8254,1.9417,1.0306,0.76555,-1.7778,1.9704,0.83736
-3.9179,-3.7179,-5.8537,3.9216,-1.9608,-3.187,-7.7295,3.8374,-4.9191,3.9216,-1.9608,-4.902,7.619,2.7937,0.12698,0.97087,1.0306,1.7225,2.0317,0.0,-1.095
-3.9179,-8.5256,-6.8293,6.8627,2.9412,-0.26016,-3.8647,4.813,-1.0356,6.8627,2.9412,-0.98039,1.9048,-0.06349,-1.7778,-4.8544,-1.868,-1.1483,2.9841,-2.9557,-5.9259
-3.9179,-14.295,-8.7805,11.765,11.765,1.6911,0.0,7.7398,3.8188,11.765,11.765,1.9608,-2.8571,-2.9206,-6.5397,-11.65,-8.6312,-0.19139,0.12698,-4.9261,-8.8245
-3.9179,-15.256,-7.8049,14.706,10.784,4.6179,-0.96618,9.6911,2.8479,14.706,10.784,2.9412,-5.7143,-5.7778,-8.4444,-14.563,-11.53,1.7225,-4.6349,-6.8966,-11.723
-0.12638,-9.4872,-1.9512,15.686,9.8039,8.5203,0.96618,13.593,-1.0356,15.686,9.8039,4.902,-4.7619,-6.7302,-4.6349,-9.7087,-5.7327,6.5072,-6.5397,-5.9113,-9.7907
4.613,0.12821,3.9024,16.667,9.8039,14.374,3.8647,17.496,-2.0065,16.667,9.8039,8.8235,-2.8571,-2.9206,2.0317,-0.97087,3.9291,11.292,-7.4921,-4.9261,-5.9259
8.4044,6.859,6.8293,16.667,11.765,15.35,5.7971,17.496,-0.06472,16.667,11.765,10.784,-0.95238,-0.06349,4.8889,3.8835,6.8277,12.249,-4.6349,-2.9557,-4.9597
8.4044,4.9359,6.8293,10.784,6.8627,13.398,4.8309,13.593,-1.0356,10.784,6.8627,8.8235,-0.95238,-0.06349,3.9365,1.9417,3.9291,11.292,-2.7302,-2.9557,-4.9597
7.4566,0.12821,3.9024,8.8235,5.8824,10.472,2.8986,10.667,-0.06472,8.8235,5.8824,6.8627,-0.95238,1.8413,1.0794,-1.9417,-0.90177,8.4211,-1.7778,-0.98522,-4.9597
3.6651,-6.6026,-3.9024,5.8824,4.902,5.5935,-1.9324,7.7398,-1.0356,5.8824,4.902,0.98039,0.0,-2.9206,-0.8254,-7.767,-7.6651,6.5072,-4.6349,0.98522,-5.9259
-1.0742,-12.372,-10.732,3.9216,0.98039,1.6911,-6.7633,4.813,-2.0065,3.9216,0.98039,-3.9216,1.9048,-4.8254,-1.7778,-11.65,-12.496,3.6364,-7.4921,1.9704,-5.9259
-5.8136,-13.333,-13.659,2.9412,1.9608,-1.2358,-4.8309,3.8374,-0.06472,2.9412,1.9608,-5.8824,0.0,-4.8254,-4.6349,-14.563,-16.361,2.6794,-7.4921,0.98522,-5.9259
-7.7093,-14.295,-15.61,-0.98039,-0.98039,-4.1626,-4.8309,0.91057,-0.06472,-0.98039,-0.98039,-7.8431,-2.8571,-8.6349,-8.4444,-17.476,-19.259001,-1.1483,-6.5397,-0.98522,-8.8245
-7.7093,-14.295,-13.659,-1.9608,-0.98039,-4.1626,-2.8986,-1.0407,-0.06472,-1.9608,-0.98039,-5.8824,-6.6667,-13.397,-10.349,-18.447001,-20.225,-2.1053,-4.6349,-2.9557,-9.7907
-8.6572,-14.295,-13.659,-4.902,-5.8824,-4.1626,-3.8647,-3.9675,-1.0356,-4.902,-5.8824,-6.8627,-13.333,-16.254,-12.254,-18.447001,-20.225,-4.0191,-2.7302,-2.9557,-8.8245
-7.7093,-11.41,-13.659,-3.9216,-1.9608,-4.1626,-2.8986,-3.9675,-1.0356,-3.9216,-1.9608,-4.902,-10.476,-9.5873,-11.302,-13.592,-16.361,-4.9761,-2.7302,-0.98522,-4.9597
-7.7093,-8.5256,-10.732,-2.9412,-1.9608,-3.187,-1.9324,-2.9919,-1.0356,-2.9412,-1.9608,-2.9412,-7.619,-10.54,-10.349,-10.68,-12.496,-4.9761,-2.7302,-1.9704,-2.0612
-6.7615,-5.641,-5.8537,-2.9412,-0.98039,-3.187,0.96618,-4.9431,-1.0356,-2.9412,-0.98039,-0.98039,-6.6667,-10.54,-9.3968,-8.7379,-9.5974,-4.0191,-2.7302,-1.9704,-1.095
-6.7615,-3.7179,-2.9268,-4.902,0.0,-4.1626,0.96618,-4.9431,-1.0356,-4.902,0.0,0.0,-2.8571,-6.7302,-8.4444,-7.767,-6.6989,-5.933,-1.7778,-1.9704,-0.12882
-3.9179,-2.7564,0.0,-3.9216,0.0,-5.1382,1.9324,-5.9187,-2.9773,-3.9216,0.0,0.98039,0.95238,1.8413,-8.4444,-5.8252,-5.7327,-6.89,-2.7302,-1.9704,0.83736
-4.8657,-1.7949,-1.9512,-3.9216,-1.9608,-6.1138,0.96618,-4.9431,-4.9191,-3.9216,-1.9608,0.98039,-2.8571,-2.9206,-10.349,-4.8544,-4.7665,-4.9761,-5.5873,-2.9557,0.83736
-6.7615,0.12821,-4.878,-2.9412,0.0,-5.1382,1.9324,-2.0163,-3.9482,-2.9412,0.0,0.98039,-7.619,-7.6825,-12.254,-4.8544,-4.7665,-4.0191,-2.7302,-5.9113,-0.12882
-8.6572,-0.83333,-7.8049,-0.98039,-0.98039,-5.1382,-1.9324,0.91057,-2.9773,-0.98039,-0.98039,-1.9608,-3.8095,-1.0159,-11.302,-1.9417,-3.8003,-2.1053,0.12698,-7.8818,0.83736
-8.6572,-5.641,-8.7805,-0.98039,0.0,-7.0894,-6.7633,1.8862,-2.9773,-0.98039,0.0,-5.8824,-7.619,-7.6825,-12.254,-3.8835,-5.7327,-1.1483,0.12698,-12.808,-2.0612
-6.7615,-9.4872,-7.8049,-0.98039,-2.9412,-7.0894,-8.6957,1.8862,-4.9191,-0.98039,-2.9412,-7.8431,-13.333,-11.492,-12.254,-8.7379,-9.5974,-0.19139,-2.7302,-12.808,-4.9597
-2.0221,-8.5256,-3.9024,0.98039,-2.9412,-4.1626,-7.7295,4.813,-6.8608,0.98039,-2.9412,-4.902,-7.619,-7.6825,-6.5397,-7.767,-6.6989,1.7225,-4.6349,-6.8966,-5.9259
2.7172,-1.7949,1.9512,4.902,0.98039,1.6911,-3.8647,8.7154,-5.89,4.902,0.98039,0.0,-2.8571,-4.8254,2.0317,-1.9417,1.0306,6.5072,-4.6349,0.0,-3.0274
6.5087,4.9359,4.878,5.8824,1.9608,5.5935,0.0,10.667,-3.9482,5.8824,1.9608,2.9412,0.0,-0.06349,6.7937,2.9126,5.8615,8.4211,-4.6349,3.9409,-1.095
7.4566,9.7436,6.8293,4.902,0.98039,5.5935,1.9324,8.7154,-2.9773,4.902,0.98039,1.9608,0.0,1.8413,9.6508,7.767,10.692,7.4641,-0.8254,3.9409,0.83736
7.4566,10.705,6.8293,0.98039,-0.98039,1.6911,0.0,4.813,-2.0065,0.98039,-0.98039,-2.9412,0.95238,3.746,11.556,9.7087,12.625,4.5933,0.12698,3.9409,2.7697
8.4044,6.859,6.8293,-1.9608,-1.9608,-0.26016,-2.8986,0.91057,-3.9482,-1.9608,-1.9608,-5.8824,4.7619,3.746,13.46,7.767,12.625,3.6364,2.9841,5.9113,1.8035
10.3,3.9744,11.707,-2.9412,-6.8627,1.6911,-4.8309,1.8862,-7.8317,-2.9412,-6.8627,-4.902,4.7619,4.6984,16.316999,8.7379,13.591,4.5933,4.8889,7.8818,2.7697
9.3523,3.9744,14.634,-0.98039,-5.8824,3.6423,-3.8647,1.8862,-9.7735,-0.98039,-5.8824,-1.9608,6.6667,7.5556,15.365,8.7379,14.557,5.5502,1.0794,10.837,3.7359
3.6651,3.0128,9.7561,-3.9216,-7.8431,1.6911,-4.8309,-0.06504,-9.7735,-3.9216,-7.8431,-3.9216,7.619,8.5079,11.556,6.7961,10.692,4.5933,0.12698,7.8818,1.8035
4.613,1.0897,7.8049,-3.9216,-7.8431,1.6911,-4.8309,-1.0407,-10.744,-3.9216,-7.8431,-2.9412,8.5714,8.5079,11.556,4.8544,8.7601,4.5933,1.0794,8.867,1.8035
5.5608,-0.83333,6.8293,-2.9412,-11.765,1.6911,-5.7971,-0.06504,-11.715,-2.9412,-11.765,-1.9608,10.476,7.5556,11.556,2.9126,7.7939,3.6364,-2.7302,11.823,-0.12882
3.6651,-2.7564,5.8537,-3.9216,-12.745,-0.26016,-4.8309,-3.9675,-13.657,-3.9216,-12.745,-1.9608,6.6667,4.6984,8.6984,0.0,4.8953,-0.19139,-1.7778,8.867,-0.12882
4.613,1.0897,6.8293,-4.902,-10.784,0.71545,-2.8986,-2.9919,-12.686,-4.902,-10.784,0.0,6.6667,4.6984,8.6984,3.8835,6.8277,0.76555,1.0794,8.867,4.7021
6.5087,4.9359,8.7805,-2.9412,-8.8235,2.6667,-0.96618,-0.06504,-10.744,-2.9412,-8.8235,3.9216,7.619,5.6508,9.6508,7.767,8.7601,4.5933,2.0317,8.867,8.5668
5.5608,4.9359,6.8293,-3.9216,-9.8039,0.71545,0.0,-2.0163,-10.744,-3.9216,-9.8039,3.9216,5.7143,7.5556,7.746,8.7379,6.8277,3.6364,2.0317,4.9261,8.5668
7.4566,4.9359,5.8537,-1.9608,-4.902,0.71545,4.8309,-1.0407,-5.89,-1.9608,-4.902,6.8627,5.7143,2.7937,8.6984,6.7961,5.8615,4.5933,3.9365,5.9113,5.6683
5.5608,3.0128,3.9024,1.9608,0.0,1.6911,8.6957,0.91057,-1.0356,1.9608,0.0,8.8235,-3.8095,-5.7778,3.9365,0.97087,0.06441,3.6364,-3.6825,2.9557,0.83736
2.7172,2.0513,0.97561,2.9412,0.0,1.6911,7.7295,2.8618,-0.06472,2.9412,0.0,7.8431,-8.5714,-6.7302,1.0794,-1.9417,-3.8003,3.6364,-2.7302,0.98522,-0.12882
1.7694,1.0897,0.97561,5.8824,1.9608,2.6667,6.7633,4.813,-0.06472,5.8824,1.9608,8.8235,-3.8095,-2.9206,0.12698,0.0,-4.7665,5.5502,8.6984,2.9557,0.83736
-2.0221,-1.7949,-1.9512,4.902,0.98039,1.6911,3.8647,3.8374,-2.0065,4.902,0.98039,6.8627,-2.8571,-1.9683,-2.7302,-1.9417,-8.6312,1.7225,10.603,2.9557,0.83736
-2.97,-5.641,-4.878,5.8824,2.9412,0.71545,1.9324,0.91057,-2.0065,5.8824,2.9412,6.8627,-4.7619,-6.7302,-5.5873,-5.8252,-11.53,-1.1483,4.8889,1.9704,-1.095
-2.0221,-7.5641,-5.8537,6.8627,4.902,2.6667,1.9324,1.8862,-0.06472,6.8627,4.902,6.8627,-4.7619,-11.492,-5.5873,-8.7379,-12.496,-2.1053,2.9841,1.9704,-5.9259
-2.0221,-3.7179,-3.9024,8.8235,7.8431,2.6667,4.8309,1.8862,-0.06472,8.8235,7.8431,8.8235,-6.6667,-12.444,-5.5873,-8.7379,-10.564,-2.1053,-6.5397,0.0,-6.8921
-2.0221,2.0513,-0.97561,9.8039,6.8627,2.6667,6.7633,0.91057,2.8479,9.8039,6.8627,8.8235,-6.6667,-5.7778,-3.6825,-1.9417,-4.7665,-5.933,0.12698,0.0,-3.0274
-0.12638,6.859,1.9512,11.765,8.8235,3.6423,6.7633,-1.0407,1.877,11.765,8.8235,8.8235,-4.7619,-0.06349,-0.8254,4.8544,0.06441,-7.8469,5.8413,-3.9409,1.8035
0.82148,7.8205,3.9024,11.765,7.8431,4.6179,3.8647,1.8862,0.90615,11.765,7.8431,7.8431,-0.95238,1.8413,0.12698,7.767,1.9968,-5.933,8.6984,-1.9704,4.7021
1.7694,3.0128,3.9024,10.784,7.8431,5.5935,1.9324,1.8862,0.90615,10.784,7.8431,5.8824,-1.9048,-1.9683,-1.7778,2.9126,1.0306,-3.0622,6.7937,-1.9704,-0.12882
-0.12638,-3.7179,0.97561,11.765,6.8627,4.6179,0.0,2.8618,1.877,11.765,6.8627,3.9216,-3.8095,-4.8254,-1.7778,-2.9126,-1.868,-4.0191,2.0317,0.0,-3.0274
-2.0221,-4.6795,-0.97561,10.784,7.8431,4.6179,0.96618,3.8374,3.8188,10.784,7.8431,2.9412,-4.7619,-3.873,-3.6825,-4.8544,-4.7665,-3.0622,-0.8254,-0.98522,-2.0612
-4.8657,-2.7564,-1.9512,7.8431,6.8627,3.6423,0.0,3.8374,2.8479,7.8431,6.8627,0.0,-5.7143,-3.873,-6.5397,-2.9126,-5.7327,-6.89,-1.7778,-5.9113,-2.0612
-2.0221,2.0513,0.97561,6.8627,9.8039,3.6423,0.96618,2.8618,4.7896,6.8627,9.8039,0.98039,-1.9048,4.6984,-4.6349,3.8835,-0.90177,-5.933,-0.8254,-7.8818,1.8035
1.7694,4.9359,1.9512,5.8824,6.8627,3.6423,0.96618,2.8618,3.8188,5.8824,6.8627,0.0,-2.8571,0.88889,-1.7778,5.8252,1.9968,-4.0191,0.12698,-6.8966,1.8035
1.7694,3.9744,0.97561,2.9412,4.902,1.6911,0.96618,0.91057,3.8188,2.9412,4.902,-2.9412,-3.8095,-1.9683,0.12698,2.9126,1.0306,-3.0622,0.12698,-5.9113,0.83736
0.82148,3.0128,0.0,0.98039,6.8627,-0.26016,2.8986,-0.06504,3.8188,0.98039,6.8627,-3.9216,-1.9048,-1.0159,0.12698,1.9417,0.06441,-3.0622,-0.8254,-3.9409,0.83736
1.7694,4.9359,0.97561,1.9608,6.8627,0.71545,3.8647,1.8862,4.7896,1.9608,6.8627,-3.9216,0.95238,-0.06349,2.0317,2.9126,1.9968,-4.0191,-0.8254,-2.9557,1.8035
2.7172,6.859,2.9268,0.98039,6.8627,-0.26016,4.8309,-0.06504,4.7896,0.98039,6.8627,-3.9216,1.9048,0.88889,2.9841,3.8835,1.9968,-2.1053,1.0794,-1.9704,1.8035
0.82148,9.7436,3.9024,-2.9412,1.9608,-2.2114,1.9324,-2.0163,4.7896,-2.9412,1.9608,-6.8627,-0.95238,0.88889,2.0317,6.7961,3.9291,-3.0622,2.0317,-1.9704,1.8035
1.7694,10.705,5.8537,-3.9216,-1.9608,-3.187,1.9324,-2.9919,3.8188,-3.9216,-1.9608,-6.8627,-0.95238,0.88889,3.9365,9.7087,6.8277,-2.1053,3.9365,0.0,2.7697
3.6651,8.7821,6.8293,-6.8627,-3.9216,-3.187,0.0,-4.9431,0.90615,-6.8627,-3.9216,-5.8824,2.8571,-0.06349,7.746,7.767,8.7601,-2.1053,5.8413,2.9557,0.83736
3.6651,5.8974,6.8293,-5.8824,-1.9608,-3.187,1.9324,-5.9187,0.90615,-5.8824,-1.9608,-3.9216,1.9048,0.88889,6.7937,4.8544,7.7939,-2.1053,1.0794,3.9409,3.7359
1.7694,4.9359,7.8049,-8.8235,-3.9216,-5.1382,2.8986,-9.8211,1.877,-8.8235,-3.9216,-0.98039,-0.95238,1.8413,4.8889,2.9126,4.8953,-4.0191,5.8413,1.9704,5.6683
2.7172,6.859,9.7561,-6.8627,-1.9608,-3.187,5.7971,-12.748,1.877,-6.8627,-1.9608,2.9412,0.95238,5.6508,3.9365,5.8252,5.8615,-5.933,10.603,0.0,8.5668
0.82148,9.7436,9.7561,-6.8627,-0.98039,-1.2358,6.7633,-12.748,1.877,-6.8627,-0.98039,5.8824,-0.95238,4.6984,-0.8254,6.7961,3.9291,-9.7608,8.6984,-4.9261,10.499
1.7694,10.705,10.732,-2.9412,0.98039,1.6911,8.6957,-8.8455,2.8479,-2.9412,0.98039,7.8431,-1.9048,4.6984,-2.7302,6.7961,1.9968,-8.8038,8.6984,-4.9261,11.465
3.6651,10.705,10.732,1.9608,1.9608,4.6179,8.6957,-2.9919,4.7896,1.9608,1.9608,10.784,-1.9048,3.746,-2.7302,6.7961,2.963,-5.933,9.6508,-4.9261,10.499
2.7172,7.8205,8.7805,4.902,3.9216,6.5691,7.7295,0.91057,3.8188,4.902,3.9216,12.745,-1.9048,0.88889,-2.7302,5.8252,3.9291,-2.1053,8.6984,-6.8966,10.499
0.82148,3.9744,4.878,5.8824,0.98039,6.5691,4.8309,4.813,0.90615,5.8824,0.98039,10.784,-0.95238,1.8413,-2.7302,3.8835,1.9968,1.7225,3.9365,-6.8966,8.5668
2.7172,3.9744,5.8537,5.8824,1.9608,6.5691,5.7971,5.7886,-0.06472,5.8824,1.9608,10.784,-1.9048,-1.0159,-1.7778,1.9417,2.963,2.6794,1.0794,-2.9557,2.7697
3.6651,3.9744,5.8537,4.902,3.9216,5.5935,5.7971,7.7398,0.90615,4.902,3.9216,9.8039,-4.7619,-4.8254,-2.7302,-0.97087,1.0306,3.6364,-1.7778,-3.9409,-2.0612
4.613,3.9744,5.8537,7.8431,3.9216,5.5935,5.7971,10.667,0.90615,7.8431,3.9216,8.8235,-1.9048,-1.9683,-0.8254,-0.97087,1.9968,7.4641,-4.6349,-1.9704,-3.0274
4.613,3.9744,4.878,9.8039,4.902,7.5447,5.7971,12.618,0.90615,9.8039,4.902,9.8039,0.0,0.88889,-0.8254,0.0,1.9968,9.378,-0.8254,-0.98522,-2.0612
2.7172,1.0897,0.0,8.8235,2.9412,9.4959,3.8647,13.593,-1.0356,8.8235,2.9412,8.8235,-5.7143,1.8413,-3.6825,0.0,-0.90177,7.4641,-3.6825,-4.9261,-1.095
6.5087,2.0513,2.9268,9.8039,2.9412,13.398,3.8647,14.569,-4.9191,9.8039,2.9412,10.784,-4.7619,4.6984,-1.7778,3.8835,1.9968,9.378,2.0317,-4.9261,1.8035
8.4044,3.9744,5.8537,10.784,4.902,15.35,4.8309,14.569,0.90615,10.784,4.902,12.745,0.0,4.6984,0.12698,4.8544,3.9291,10.335,7.746,-3.9409,1.8035
7.4566,3.0128,5.8537,8.8235,8.8235,11.447,6.7633,10.667,5.7605,8.8235,8.8235,10.784,1.9048,4.6984,2.0317,3.8835,3.9291,9.378,4.8889,-2.9557,-1.095
3.6651,1.0897,0.97561,3.9216,7.8431,5.5935,5.7971,4.813,9.644,3.9216,7.8431,5.8824,3.8095,2.7937,3.9365,0.97087,3.9291,5.5502,3.9365,-2.9557,-4.9597
-0.12638,1.0897,0.0,-1.9608,8.8235,-0.26016,6.7633,-1.0407,12.557,-1.9608,8.8235,1.9608,2.8571,1.8413,4.8889,0.0,4.8953,1.7225,5.8413,-0.98522,-3.0274
-1.0742,3.9744,2.9268,-2.9412,10.784,-2.2114,7.7295,-4.9431,15.469,-2.9412,10.784,0.98039,0.95238,0.88889,4.8889,3.8835,6.8277,0.76555,3.9365,0.0,0.83736
-0.12638,4.9359,4.878,-2.9412,9.8039,-3.187,7.7295,-8.8455,14.498,-2.9412,9.8039,1.9608,1.9048,0.88889,2.9841,4.8544,5.8615,-1.1483,2.9841,-0.98522,1.8035
-2.97,3.0128,2.9268,-3.9216,6.8627,-3.187,5.7971,-9.8211,11.586,-3.9216,6.8627,0.98039,3.8095,-1.0159,0.12698,1.9417,1.9968,-4.0191,0.12698,0.98522,0.83736
-4.8657,-1.7949,-1.9512,-2.9412,8.8235,-4.1626,2.8986,-8.8455,8.6731,-2.9412,8.8235,-0.98039,0.0,-4.8254,-0.8254,-0.97087,0.06441,-4.9761,-1.7778,0.98522,-2.0612
-2.0221,-1.7949,-2.9268,0.0,6.8627,-1.2358,0.96618,-5.9187,5.7605,0.0,6.8627,-0.98039,1.9048,-1.0159,2.0317,-0.97087,2.963,-0.19139,-6.5397,1.9704,-3.0274
-1.0742,-1.7949,-1.9512,2.9412,6.8627,1.6911,0.96618,-1.0407,4.7896,2.9412,6.8627,0.98039,1.9048,-1.0159,1.0794,0.0,2.963,1.7225,-6.5397,0.98522,-3.0274
-0.12638,-2.7564,-0.97561,6.8627,7.8431,2.6667,0.0,1.8862,5.7605,6.8627,7.8431,0.98039,0.95238,0.88889,1.0794,0.0,2.963,1.7225,-2.7302,0.98522,-1.095
-0.12638,-2.7564,0.0,6.8627,9.8039,2.6667,0.96618,2.8618,6.7314,6.8627,9.8039,0.98039,5.7143,6.6032,2.0317,2.9126,3.9291,-0.19139,2.0317,-2.9557,1.8035
-2.0221,-1.7949,-3.9024,6.8627,9.8039,0.71545,0.96618,3.8374,6.7314,6.8627,9.8039,0.98039,5.7143,3.746,2.0317,1.9417,2.963,-0.19139,1.0794,0.0,2.7697
-6.7615,-3.7179,-11.707,5.8824,4.902,-2.2114,-1.9324,2.8618,2.8479,5.8824,4.902,-2.9412,0.95238,0.88889,2.0317,0.0,0.06441,-0.19139,-0.8254,2.9557,1.8035
-7.7093,-6.6026,-14.634,0.98039,0.98039,-5.1382,-5.7971,-0.06504,-1.0356,0.98039,0.98039,-6.8627,0.0,0.88889,1.0794,0.0,-2.8341,1.7225,-2.7302,3.9409,3.7359
-6.7615,-4.6795,-9.7561,0.0,-1.9608,-4.1626,-5.7971,-0.06504,-1.0356,0.0,-1.9608,-5.8824,3.8095,3.746,2.0317,1.9417,-0.90177,1.7225,-2.7302,7.8818,7.6006
-6.7615,-5.641,-5.8537,-0.98039,-2.9412,-6.1138,-4.8309,-2.9919,-2.0065,-0.98039,-2.9412,-5.8824,5.7143,6.6032,2.0317,0.97087,-1.868,0.76555,-2.7302,7.8818,6.6345
-8.6572,-6.6026,-5.8537,-5.8824,-4.902,-10.016,-6.7633,-6.8943,-2.0065,-5.8824,-4.902,-8.8235,1.9048,0.88889,-1.7778,-2.9126,-3.8003,-2.1053,-2.7302,3.9409,0.83736
-5.8136,-3.7179,-2.9268,-3.9216,0.0,-8.065,-2.8986,-6.8943,-1.0356,-3.9216,0.0,-4.902,0.95238,-1.9683,-0.8254,-2.9126,-1.868,-1.1483,-0.8254,2.9557,-1.095
-2.0221,1.0897,0.0,-2.9412,0.0,-3.187,-0.96618,-4.9431,0.90615,-2.9412,0.0,-0.98039,3.8095,-2.9206,2.0317,-0.97087,2.963,-2.1053,-3.6825,3.9409,-2.0612
-0.12638,3.0128,0.97561,-1.9608,1.9608,-1.2358,1.9324,-2.9919,2.8479,-1.9608,1.9608,0.98039,6.6667,-1.9683,2.9841,0.0,3.9291,-1.1483,-0.8254,3.9409,-2.0612
-2.97,-0.83333,-3.9024,-5.8824,0.0,-5.1382,0.0,-6.8943,2.8479,-5.8824,0.0,-1.9608,1.9048,-0.06349,-2.7302,-2.9126,-1.868,-4.0191,2.9841,0.0,-1.095
-3.9179,-3.7179,-3.9024,-6.8627,0.0,-7.0894,0.96618,-10.797,1.877,-6.8627,0.0,-2.9412,0.0,4.6984,-5.5873,-4.8544,-4.7665,-7.8469,7.746,0.0,-1.095
-2.0221,-1.7949,-0.97561,-5.8824,0.0,-7.0894,0.96618,-11.772,1.877,-5.8824,0.0,-1.9608,-0.95238,0.88889,-3.6825,-2.9126,-3.8003,-9.7608,5.8413,0.98522,-0.12882
-1.0742,1.0897,1.9512,-8.8235,-0.98039,-6.1138,0.0,-12.748,0.90615,-8.8235,-0.98039,-1.9608,3.8095,3.746,0.12698,2.9126,1.9968,-10.718,3.9365,1.9704,3.7359
-0.12638,6.859,5.8537,-7.8431,-1.9608,-3.187,0.96618,-12.748,0.90615,-7.8431,-1.9608,0.98039,7.619,10.413,2.9841,9.7087,6.8277,-9.7608,6.7937,2.9557,10.499
0.82148,8.7821,7.8049,-4.902,-0.98039,-0.26016,2.8986,-8.8455,2.8479,-4.902,-0.98039,3.9216,6.6667,11.365,2.9841,12.621,8.7601,-10.718,5.8413,0.0,12.432
-0.12638,5.8974,4.878,-3.9216,-0.98039,0.71545,1.9324,-8.8455,1.877,-3.9216,-0.98039,3.9216,3.8095,9.4603,0.12698,9.7087,7.7939,-9.7608,5.8413,-3.9409,9.533
0.82148,3.9744,2.9268,-1.9608,-0.98039,1.6911,1.9324,-4.9431,1.877,-1.9608,-0.98039,3.9216,8.5714,12.317,2.0317,7.767,9.7262,-8.8038,4.8889,-1.9704,5.6683
0.82148,3.0128,1.9512,-0.98039,0.98039,2.6667,1.9324,-1.0407,2.8479,-0.98039,0.98039,3.9216,4.7619,7.5556,1.0794,5.8252,8.7601,-4.0191,2.0317,-4.9261,2.7697
-1.0742,2.0513,0.97561,0.0,0.98039,2.6667,0.0,1.8862,1.877,0.0,0.98039,1.9608,0.95238,3.746,0.12698,3.8835,5.8615,-2.1053,-2.7302,-6.8966,1.8035
-0.12638,2.0513,0.97561,3.9216,1.9608,3.6423,1.9324,4.813,-0.06472,3.9216,1.9608,2.9412,4.7619,5.6508,0.12698,4.8544,5.8615,0.76555,-2.7302,-2.9557,1.8035
0.82148,0.12821,1.9512,5.8824,0.98039,4.6179,1.9324,7.7398,-1.0356,5.8824,0.98039,3.9216,5.7143,6.6032,1.0794,2.9126,5.8615,1.7225,-1.7778,-0.98522,-0.12882
-2.0221,-5.641,-0.97561,2.9412,0.0,0.71545,-1.9324,6.7642,-4.9191,2.9412,0.0,0.0,2.8571,3.746,0.12698,-2.9126,1.9968,2.6794,-8.4444,0.0,-3.0274
-4.8657,-12.372,-7.8049,-1.9608,-5.8824,-3.187,-9.6618,4.813,-8.8026,-1.9608,-5.8824,-6.8627,-1.9048,-1.9683,-3.6825,-8.7379,-3.8003,1.7225,-9.3968,0.98522,-6.8921
-4.8657,-14.295,-11.707,0.0,-6.8627,-3.187,-11.594,4.813,-9.7735,0.0,-6.8627,-7.8431,-3.8095,-7.6825,-5.5873,-12.621,-8.6312,3.6364,-6.5397,0.98522,-12.689
-2.0221,-10.449,-8.7805,0.98039,-5.8824,-2.2114,-8.6957,6.7642,-8.8026,0.98039,-5.8824,-5.8824,-1.9048,-9.5873,-3.6825,-11.65,-8.6312,6.5072,-7.4921,2.9557,-13.655
1.7694,-5.641,-3.9024,1.9608,-0.98039,0.71545,-2.8986,7.7398,-6.8608,1.9608,-0.98039,-1.9608,3.8095,-2.9206,1.0794,-5.8252,-3.8003,6.5072,-6.5397,8.867,-7.8583
4.613,-1.7949,0.0,0.98039,-1.9608,1.6911,-1.9324,5.7886,-4.9191,0.98039,-1.9608,0.0,11.429,2.7937,5.8413,0.0,0.06441,8.4211,-7.4921,13.793,-1.095
5.5608,0.12821,2.9268,0.98039,-0.98039,2.6667,-0.96618,3.8374,-4.9191,0.98039,-0.98039,0.98039,14.286,8.5079,8.6984,3.8835,2.963,8.4211,-4.6349,15.764,3.7359
