C3,C4,Cz,F1,F2,F3,F4,F7,F8,Fp1,Fp2,Fz,O1,O2,P3,P4,Pz,T3,T4,T5,T6
-2.0221,0.12698,1.0356,-1.9608,-2.9557,0.70853,5.8252,9.644,10.615,-1.9608,-2.9557,0.0,2.8571,1.8413,1.0794,-2.8846,0.06441,3.7359,8.6572,1.9704,-4.9359
3.6651,2.0317,3.9482,0.98039,0.98522,4.5733,9.7087,1.877,15.469,0.98039,0.98522,3.9801,1.9048,0.88889,2.9841,-2.8846,0.06441,8.5668,10.553,1.9704,-5.8974
7.4566,2.0317,3.9482,2.9412,3.9409,5.5395,10.68,3.8188,12.557,2.9412,3.9409,6.9652,-3.8095,-4.8254,2.0317,-4.8077,-1.868,8.5668,8.6572,-0.98522,-8.7821
5.5608,1.0794,2.0065,4.902,5.9113,4.5733,8.7379,14.498,10.615,4.902,5.9113,6.9652,-8.5714,-9.5873,-1.7778,-7.6923,-4.7665,8.5668,3.9179,-4.9261,-11.667
5.5608,1.0794,1.0356,10.784,8.867,11.337,8.7379,5.7605,9.644,10.784,8.867,9.9502,-13.333,-14.349,-5.5873,-10.577,-8.6312,7.6006,3.9179,-8.867,-12.628
3.6651,-0.8254,0.06472,8.8235,4.9261,9.4042,5.8252,0.90615,4.7896,8.8235,4.9261,8.9552,-14.286,-15.302,-7.4921,-12.5,-9.5974,4.7021,2.0221,-8.867,-13.59
1.7694,-6.5397,-2.8479,0.0,-0.98522,1.6747,-1.9417,-7.8317,-2.0065,0.0,-0.98522,1.99,-12.381,-15.302,-7.4921,-14.423,-10.564,3.7359,-4.613,-6.8966,-14.551
0.82148,-14.159,-6.7314,-8.8235,-10.837,-6.0548,-14.563,-5.89,-11.715,-8.8235,-10.837,-8.9552,-8.5714,-12.444,-6.5397,-16.346001,-10.564,0.83736,-10.3,-1.9704,-14.551
-8.6572,-22.73,-17.410999,-12.745,-18.719,-18.615,-26.214001,1.877,-16.57,-12.745,-18.719,-21.891001,-6.6667,-10.54,-10.349,-19.231001,-13.462,-0.12882,-14.092,0.0,-14.551
-13.397,-23.683001,-21.294001,-14.706,-21.674999,-21.514,-30.097,-3.9482,-14.628,-14.706,-21.674999,-28.856001,-2.8571,-5.7778,-12.254,-15.385,-12.496,0.83736,-11.248,1.9704,-9.7436
-6.7615,-17.016001,-14.498,-18.627001,-20.690001,-13.784,-25.243,-22.395,-15.599,-18.627001,-20.690001,-23.881001,3.8095,0.88889,-5.5873,-7.6923,-4.7665,1.8035,-9.3523,5.9113,-4.9359
-2.0221,-10.349,-7.7023,-18.627001,-18.719,-13.784,-17.476,-7.8317,-14.628,-18.627001,-18.719,-18.905001,7.619,3.746,1.0794,-2.8846,1.9968,3.7359,-6.5087,7.8818,-2.0513
-1.0742,-7.4921,-4.7896,-15.686,-13.793,-9.9195,-10.68,-20.452999,-11.715,-15.686,-13.793,-14.925,5.7143,2.7937,0.12698,-3.8462,0.06441,-0.12882,-2.7172,5.9113,-3.0128
-3.9179,-6.5397,-3.8188,-11.765,-8.867,-7.9871,-5.8252,-14.628,-9.7735,-11.765,-8.867,-8.9552,2.8571,-0.06349,-3.6825,-7.6923,-3.8003,-0.12882,-1.7694,2.9557,-5.8974
-6.7615,-5.5873,-3.8188,-5.8824,0.98522,-5.0886,0.97087,-2.9773,-2.9773,-5.8824,0.98522,-1.99,0.0,-3.873,-9.3968,-9.6154,-7.6651,-0.12882,0.12638,0.0,-8.7821
-7.7093,-7.4921,-6.7314,-1.9608,3.9409,-1.2238,1.9417,-1.0356,1.877,-1.9608,3.9409,0.99502,-6.6667,-10.54,-15.111,-14.423,-13.462,-3.9936,0.12638,-4.9261,-12.628
-8.6572,-7.4921,-6.7314,0.0,3.9409,-0.25765,2.9126,5.7605,5.7605,0.0,3.9409,1.99,-14.286,-16.254,-17.968,-18.268999,-18.292999,-5.9259,-1.7694,-10.837,-16.474001
-11.501,-4.6349,-6.7314,1.9608,3.9409,-0.25765,3.8835,-0.06472,7.7023,1.9608,3.9409,1.99,-20.0,-19.111,-20.825001,-19.231001,-20.225,-5.9259,3.9179,-15.764,-15.513
-15.292,-5.5873,-9.644,2.9412,3.9409,-0.25765,1.9417,1.877,6.7314,2.9412,3.9409,0.0,-22.857,-21.968,-24.635,-21.153999,-24.09,-3.9936,4.8657,-18.719,-13.59
-17.188,-6.5397,-14.498,6.8627,5.9113,0.70853,0.97087,-3.9482,4.7896,6.8627,5.9113,-1.99,-24.761999,-22.921,-27.492001,-21.153999,-26.023001,-1.095,2.97,-19.704,-13.59
-17.188,-8.4444,-19.353001,2.9412,2.9557,-1.2238,-4.8544,-0.06472,2.8479,2.9412,2.9557,-6.9652,-25.714001,-21.968,-28.444,-20.191999,-27.955,-0.12882,2.0221,-18.719,-10.705
-14.344,-10.349,-19.353001,0.0,0.0,-8.9533,-8.7379,18.382,-1.0356,0.0,0.0,-10.945,-21.905001,-18.159,-25.587,-17.308001,-26.023001,3.7359,-1.7694,-13.793,-8.7821
-12.449,-11.302,-17.410999,0.0,-3.9409,-7.0209,-11.65,8.6731,-3.9482,0.0,-3.9409,-10.945,-20.0,-15.302,-22.73,-15.385,-23.124001,4.7021,-3.6651,-10.837,-5.8974
-7.7093,-11.302,-13.528,0.0,-2.9557,-2.19,-8.7379,5.7605,-6.8608,0.0,-2.9557,-6.9652,-18.094999,-14.349,-18.921,-13.462,-20.225,7.6006,-6.5087,-6.8966,-3.9744
-6.7615,-12.254,-11.586,0.98039,-2.9557,0.70853,-6.7961,12.557,-5.89,0.98039,-2.9557,-1.99,-17.143,-14.349,-16.063,-14.423,-20.225,9.533,-9.3523,-4.9261,-4.9359
0.82148,-11.302,-6.7314,7.8431,1.9704,7.4718,0.0,17.410999,-3.9482,7.8431,1.9704,5.9701,-11.429,-10.54,-10.349,-13.462,-16.361,14.364,-11.248,0.98522,-6.859
6.5087,-12.254,-2.8479,8.8235,1.9704,13.269,0.0,14.498,-5.89,8.8235,1.9704,9.9502,-7.619,-8.6349,-6.5397,-14.423,-15.395,15.33,-14.092,3.9409,-8.7821
12.196,-10.349,1.0356,12.745,0.98522,24.863001,2.9126,-5.89,-7.8317,12.745,0.98522,14.925,-3.8095,-5.7778,-2.7302,-12.5,-12.496,14.364,-13.144,7.8818,-6.859
4.613,-6.5397,0.06472,9.8039,0.0,8.438,1.9417,22.264999,-8.8026,9.8039,0.0,9.9502,-0.95238,-3.873,-1.7778,-10.577,-9.5974,11.465,-10.3,7.8818,-3.9744
-2.0221,-2.7302,-0.90615,3.9216,-1.9704,-5.0886,1.9417,24.207001,-9.7735,3.9216,-1.9704,2.9851,0.0,-1.0159,-0.8254,-4.8077,-6.6989,6.6345,-5.5608,5.9113,0.83333
-0.12638,2.9841,1.0356,0.0,-1.9704,-4.1224,0.97087,-1.0356,-8.8026,0.0,-1.9704,-0.99502,2.8571,2.7937,2.9841,2.8846,0.06441,3.7359,0.12638,6.8966,8.5256
-3.9179,2.0317,-1.877,-7.8431,-7.8818,-7.9871,-6.7961,-12.686,-11.715,-7.8431,-7.8818,-9.9502,1.9048,2.7937,1.0794,6.7308,1.9968,-2.0612,-0.82148,1.9704,11.41
-10.553,2.0317,-5.7605,-13.725,-12.808,-16.683001,-12.621,-6.8608,-15.599,-13.725,-12.808,-17.91,2.8571,5.6508,-0.8254,10.577,3.9291,-3.9936,4.8657,-1.9704,16.218
-12.449,2.9841,-7.7023,-14.706,-11.823,-15.717,-13.592,-8.8026,-11.715,-14.706,-11.823,-19.9,3.8095,7.5556,-2.7302,13.462,5.8615,-3.9936,11.501,-2.9557,20.063999
-12.449,2.9841,-8.6731,-7.8431,-5.9113,-11.852,-9.7087,-13.657,-6.8608,-7.8431,-5.9113,-16.915001,0.95238,5.6508,-5.5873,12.5,3.9291,-5.9259,10.553,-7.8818,18.141001
-13.397,2.0317,-7.7023,-7.8431,-6.8966,-11.852,-8.7379,-2.9773,-6.8608,-7.8431,-6.8966,-14.925,0.0,3.746,-4.6349,10.577,3.9291,-5.9259,7.7093,-7.8818,14.295
-12.449,0.12698,-7.7023,-5.8824,-1.9704,-16.683001,-7.767,10.615,-3.9482,-5.8824,-1.9704,-14.925,-2.8571,0.88889,-6.5397,6.7308,1.0306,-4.9597,6.7615,-8.867,9.4872
-9.6051,0.12698,-3.8188,-1.9608,-0.98522,-12.818,-5.8252,7.7023,-2.9773,-1.9608,-0.98522,-9.9502,-4.7619,-1.9683,-7.4921,2.8846,0.06441,-7.8583,4.8657,-9.8522,4.6795
-6.7615,2.0317,-0.90615,1.9608,3.9409,-6.0548,0.0,-2.9773,0.90615,1.9608,3.9409,-4.9751,-4.7619,-1.9683,-7.4921,2.8846,0.06441,-10.757,3.9179,-11.823,2.7564
-7.7093,3.9365,1.0356,7.8431,8.867,-3.1562,3.8835,1.877,4.7896,7.8431,8.867,-0.99502,-2.8571,-0.06349,-6.5397,2.8846,0.06441,-6.8921,3.9179,-9.8522,1.7949
-1.0742,5.8413,4.9191,10.784,11.823,8.438,7.767,-12.686,1.877,10.784,11.823,5.9701,0.0,2.7937,-3.6825,3.8462,1.9968,-3.0274,2.97,-2.9557,3.7179
4.613,4.8889,7.8317,9.8039,8.867,12.303,6.7961,-4.9191,-2.0065,9.8039,8.867,7.9602,0.0,3.746,-1.7778,4.8077,1.0306,-2.0612,-0.82148,-0.98522,3.7179
-0.12638,3.9365,5.89,9.8039,3.9409,-0.25765,2.9126,23.236,-7.8317,9.8039,3.9409,1.99,0.95238,3.746,-1.7778,5.7692,0.06441,3.7359,-4.613,0.98522,7.5641
-2.0221,1.0794,1.0356,2.9412,-2.9557,-1.2238,-2.9126,12.557,-13.657,2.9412,-2.9557,-1.99,1.9048,3.746,-2.7302,3.8462,-1.868,4.7021,-7.4566,4.9261,6.6026
1.7694,-0.8254,-1.877,1.9608,-4.9261,1.6747,-4.8544,3.8188,-16.57,1.9608,-4.9261,-1.99,4.7619,4.6984,0.12698,1.9231,-1.868,6.6345,-13.144,9.8522,3.7179
5.5608,0.12698,0.06472,5.8824,-2.9557,2.6409,-3.8835,14.498,-17.540001,5.8824,-2.9557,-0.99502,9.5238,8.5079,5.8413,4.8077,1.0306,13.398,-11.248,14.778,5.641
9.3523,2.0317,2.9773,7.8431,-3.9409,4.5733,-3.8835,12.557,-17.540001,7.8431,-3.9409,0.99502,13.333,12.317,10.603,8.6538,5.8615,15.33,-9.3523,17.733999,8.5256
11.248,2.9841,4.9191,5.8824,-5.9113,5.5395,-3.8835,12.557,-21.424,5.8824,-5.9113,0.99502,18.094999,16.127001,14.413,11.538,9.7262,18.229,-13.144,21.674999,11.41
10.3,2.9841,4.9191,3.9216,-9.8522,9.4042,-6.7961,5.7605,-24.337,3.9216,-9.8522,0.99502,18.094999,14.222,14.413,10.577,9.7262,15.33,-15.039,18.719,9.4872
8.4044,1.0794,2.0065,3.9216,-8.867,6.5056,-6.7961,-2.9773,-19.482,3.9216,-8.867,-0.99502,11.429,9.4603,9.6508,7.6923,6.8277,4.7021,-14.092,9.8522,6.6026
3.6651,-0.8254,0.06472,5.8824,-5.9113,3.6071,-7.767,2.8479,-14.628,5.8824,-5.9113,-1.99,8.5714,7.5556,7.746,4.8077,4.8953,4.7021,-12.196,6.8966,5.641
1.7694,-0.8254,2.0065,6.8627,-0.98522,5.5395,-3.8835,10.615,-13.657,6.8627,-0.98522,0.99502,7.619,5.6508,6.7937,3.8462,3.9291,7.6006,-9.3523,6.8966,4.6795
0.82148,1.0794,2.9773,7.8431,0.98522,5.5395,0.0,20.323999,-10.744,7.8431,0.98522,4.9751,2.8571,1.8413,3.9365,1.9231,1.9968,4.7021,-4.613,2.9557,3.7179
-2.97,1.0794,2.0065,8.8235,2.9557,3.6071,2.9126,11.586,-6.8608,8.8235,2.9557,6.9652,-2.8571,-4.8254,-2.7302,-1.9231,-2.8341,0.83736,-2.7172,-4.9261,-0.12821
-1.0742,2.9841,4.9191,9.8039,3.9409,8.438,7.767,11.586,-0.06472,9.8039,3.9409,11.94,-4.7619,-5.7778,-2.7302,-1.9231,-2.8341,-2.0612,0.12638,-7.8818,-2.0513
6.5087,7.746,11.715,6.8627,6.8966,18.1,14.563,-2.0065,4.7896,6.8627,6.8966,19.9,-2.8571,-2.9206,2.0317,2.8846,1.9968,-3.0274,4.8657,-6.8966,1.7949
4.613,8.6984,11.715,4.902,5.9113,13.269,13.592,5.7605,4.7896,4.902,5.9113,17.91,-2.8571,-1.9683,2.0317,3.8462,2.963,-5.9259,2.97,-5.9113,2.7564
1.7694,4.8889,7.8317,5.8824,5.9113,4.5733,9.7087,10.615,2.8479,5.8824,5.9113,12.935,-1.9048,-1.9683,0.12698,0.96154,1.9968,-6.8921,-1.7694,-4.9261,0.83333
2.7172,2.9841,4.9191,3.9216,4.9261,3.6071,6.7961,-0.06472,2.8479,3.9216,4.9261,7.9602,-0.95238,-0.06349,1.0794,1.9231,1.0306,-9.7907,2.0221,-4.9261,1.7949
6.5087,2.9841,4.9191,2.9412,5.9113,14.235,6.7961,-31.132999,4.7896,2.9412,5.9113,7.9602,0.95238,1.8413,2.0317,3.8462,2.963,-10.757,5.8136,-1.9704,3.7179
-3.9179,1.0794,0.06472,-0.98039,4.9261,1.6747,3.8835,-12.686,5.7605,-0.98039,4.9261,2.9851,1.9048,3.746,-1.7778,4.8077,1.9968,-11.723,5.8136,-2.9557,4.6795
-11.501,0.12698,-3.8188,-0.98039,3.9409,-11.852,0.0,11.586,5.7605,-0.98039,3.9409,-1.99,1.9048,3.746,-3.6825,4.8077,1.0306,-12.689,6.7615,-3.9409,4.6795
-5.8136,0.12698,-2.8479,0.0,1.9704,-7.0209,-1.9417,0.90615,4.7896,0.0,1.9704,-1.99,2.8571,4.6984,-1.7778,4.8077,1.9968,-9.7907,5.8136,-1.9704,4.6795
1.7694,1.0794,1.0356,-1.9608,0.0,2.6409,-2.9126,-13.657,2.8479,-1.9608,0.0,0.0,8.5714,8.5079,4.8889,7.6923,6.8277,-4.9597,5.8136,4.9261,6.6026
4.613,2.0317,3.9482,-0.98039,0.0,-0.25765,0.0,2.8479,1.877,-0.98039,0.0,0.0,11.429,10.413,8.6984,8.6538,9.7262,0.83736,7.7093,7.8818,7.5641
1.7694,1.0794,2.0065,-3.9216,-0.98522,-6.0548,-0.97087,6.7314,5.7605,-3.9216,-0.98522,-2.9851,10.476,8.5079,8.6984,6.7308,8.7601,0.83736,8.6572,6.8966,4.6795
5.5608,2.9841,3.9482,-2.9412,0.98522,-2.19,1.9417,-2.9773,5.7605,-2.9412,0.98522,-0.99502,10.476,7.5556,11.556,6.7308,10.692,-0.12882,9.6051,5.9113,2.7564
5.5608,3.9365,5.89,-2.9412,2.9557,-0.25765,1.9417,-1.0356,5.7605,-2.9412,2.9557,-0.99502,9.5238,6.6032,13.46,5.7692,11.659,-2.0612,7.7093,3.9409,0.83333
6.5087,2.0317,5.89,-2.9412,3.9409,1.6747,1.9417,-13.657,6.7314,-2.9412,3.9409,0.0,6.6667,3.746,13.46,2.8846,9.7262,-2.0612,6.7615,1.9704,-2.0513
11.248,3.9365,9.7735,4.902,5.9113,8.438,6.7961,-1.0356,9.644,4.902,5.9113,6.9652,7.619,3.746,16.316999,1.9231,11.659,0.83736,5.8136,4.9261,-3.9744
9.3523,6.7937,11.715,2.9412,5.9113,3.6071,8.7379,7.7023,8.6731,2.9412,5.9113,7.9602,7.619,4.6984,15.365,2.8846,11.659,0.83736,-0.82148,1.9704,-3.0128
12.196,7.746,12.686,-0.98039,2.9557,9.4042,6.7961,-14.628,4.7896,-0.98039,2.9557,7.9602,5.7143,5.6508,14.413,5.7692,11.659,-3.0274,-0.82148,0.0,0.83333
8.4044,4.8889,8.8026,-1.9608,2.9557,3.6071,4.8544,1.877,0.90615,-1.9608,2.9557,5.9701,7.619,7.5556,12.508,5.7692,11.659,-3.0274,-1.7694,0.98522,1.7949
2.7172,0.12698,3.9482,-3.9216,0.0,-7.0209,0.0,16.440001,-2.0065,-3.9216,0.0,0.99502,5.7143,6.6032,7.746,2.8846,7.7939,-3.0274,-5.5608,-0.98522,-1.0897
4.613,-0.8254,5.89,-1.9608,0.0,-4.1224,0.0,0.90615,-2.9773,-1.9608,0.0,1.99,5.7143,7.5556,7.746,3.8462,7.7939,-2.0612,-6.5087,0.0,-1.0897
5.5608,1.0794,7.8317,0.98039,-0.98522,-0.25765,0.0,1.877,-0.06472,0.98039,-0.98522,3.9801,5.7143,7.5556,7.746,5.7692,8.7601,-3.0274,-3.6651,0.98522,1.7949
4.613,2.0317,6.8608,0.0,0.98522,5.5395,0.97087,-19.482,2.8479,0.0,0.98522,4.9751,4.7619,6.6032,4.8889,5.7692,6.8277,-7.8583,-0.82148,0.0,2.7564
-0.12638,1.0794,3.9482,-3.9216,0.98522,1.6747,1.9417,-7.8317,3.8188,-3.9216,0.98522,3.9801,2.8571,2.7937,-0.8254,2.8846,2.963,-9.7907,0.12638,-1.9704,1.7949
0.82148,4.8889,5.89,-5.8824,1.9704,-0.25765,5.8252,-12.686,5.7605,-5.8824,1.9704,5.9701,2.8571,3.746,0.12698,4.8077,2.963,-8.8245,3.9179,-0.98522,2.7564
0.82148,7.746,7.8317,-7.8431,4.9261,0.70853,9.7087,-30.162001,7.7023,-7.8431,4.9261,7.9602,3.8095,3.746,1.0794,6.7308,4.8953,-11.723,8.6572,-0.98522,3.7179
-2.0221,7.746,5.89,-7.8431,0.98522,-4.1224,7.767,-11.715,7.7023,-7.8431,0.98522,4.9751,4.7619,3.746,2.0317,6.7308,4.8953,-11.723,9.6051,0.98522,1.7949
-2.97,6.7937,2.9773,-10.784,-1.9704,-10.886,4.8544,-1.0356,2.8479,-10.784,-1.9704,0.99502,4.7619,2.7937,0.12698,5.7692,3.9291,-11.723,9.6051,0.98522,1.7949
-0.12638,7.746,5.89,-7.8431,-4.9261,-6.0548,5.8252,-0.06472,-2.9773,-7.8431,-4.9261,1.99,3.8095,3.746,2.0317,5.7692,4.8953,-7.8583,7.7093,1.9704,1.7949
-2.0221,4.8889,3.9482,-8.8235,-7.8818,-6.0548,1.9417,-0.06472,-8.8026,-8.8235,-7.8818,-0.99502,0.0,-0.06349,0.12698,1.9231,1.9968,-6.8921,2.97,0.98522,-1.0897
1.7694,3.9365,4.9191,-7.8431,-8.867,-2.19,0.97087,-1.0356,-9.7735,-7.8431,-8.867,-0.99502,2.8571,1.8413,3.9365,1.9231,2.963,-3.0274,0.12638,3.9409,-1.0897
13.144,5.8413,8.8026,-1.9608,-3.9409,11.337,3.8835,-4.9191,-9.7735,-1.9608,-3.9409,5.9701,8.5714,6.6032,10.603,4.8077,7.7939,7.6006,3.9179,10.837,2.7564
15.039,2.0317,6.8608,-0.98039,-5.9113,15.201,0.0,-1.0356,-12.686,-0.98039,-5.9113,4.9751,7.619,5.6508,8.6984,2.8846,5.8615,6.6345,0.12638,9.8522,1.7949
6.5087,-3.6825,1.0356,0.0,-7.8818,3.6071,-5.8252,14.498,-17.540001,0.0,-7.8818,-0.99502,2.8571,2.7937,2.9841,-1.9231,0.06441,6.6345,-7.4566,5.9113,-3.0128
-2.0221,-7.4921,-3.8188,0.0,-9.8522,-7.9871,-10.68,20.323999,-17.540001,0.0,-9.8522,-6.9652,-2.8571,-1.9683,-2.7302,-6.7308,-5.7327,5.6683,-9.3523,0.98522,-6.859
-0.12638,-6.5397,-3.8188,0.98039,-6.8966,-4.1224,-8.7379,12.557,-13.657,0.98039,-6.8966,-4.9751,-5.7143,-3.873,-2.7302,-6.7308,-6.6989,7.6006,-6.5087,0.98522,-7.8205
2.7172,-4.6349,-2.8479,2.9412,-3.9409,6.5056,-3.8835,7.7023,-8.8026,2.9412,-3.9409,0.0,-6.6667,-4.8254,-2.7302,-4.8077,-5.7327,6.6345,-2.7172,-2.9557,-4.9359
3.6651,-4.6349,-2.8479,8.8235,0.0,8.438,-0.97087,13.528,-5.89,8.8235,0.0,3.9801,-8.5714,-5.7778,-2.7302,-4.8077,-5.7327,5.6683,0.12638,-5.9113,-5.8974
3.6651,-2.7302,-0.90615,10.784,1.9704,8.438,0.97087,17.410999,-3.9482,10.784,1.9704,5.9701,-6.6667,-4.8254,-0.8254,-2.8846,-3.8003,5.6683,2.97,-3.9409,-4.9359
3.6651,-0.8254,-1.877,7.8431,2.9557,13.269,1.9417,-1.0356,-1.0356,7.8431,2.9557,4.9751,-6.6667,-4.8254,-1.7778,-0.96154,-3.8003,3.7359,4.8657,-3.9409,-3.9744
-2.97,-1.7778,-6.7314,5.8824,1.9704,5.5395,-0.97087,0.90615,-2.0065,5.8824,1.9704,0.99502,-6.6667,-5.7778,-5.5873,-1.9231,-6.6989,2.7697,0.12638,-3.9409,-5.8974
-11.501,-3.6825,-10.615,3.9216,1.9704,-7.0209,-2.9126,17.410999,-2.9773,3.9216,1.9704,-2.9851,-7.619,-5.7778,-10.349,-1.9231,-8.6312,-0.12882,1.0742,-5.9113,-3.9744
-10.553,-4.6349,-9.644,6.8627,2.9557,-6.0548,-1.9417,15.469,-2.0065,6.8627,2.9557,-1.99,-8.5714,-6.7302,-11.302,-2.8846,-9.5974,-3.0274,5.8136,-8.867,-3.0128
-12.449,-4.6349,-8.6731,6.8627,3.9409,-2.19,-0.97087,-0.06472,-1.0356,6.8627,3.9409,-0.99502,-8.5714,-8.6349,-13.206,-4.8077,-10.564,-3.0274,5.8136,-9.8522,-4.9359
-11.501,-4.6349,-8.6731,7.8431,3.9409,0.70853,0.0,4.7896,-1.0356,7.8431,3.9409,0.99502,-10.476,-11.492,-15.111,-7.6923,-12.496,-1.095,3.9179,-11.823,-7.8205
-7.7093,-3.6825,-6.7314,9.8039,5.9113,2.6409,0.97087,12.557,1.877,9.8039,5.9113,1.99,-10.476,-13.397,-13.206,-10.577,-13.462,2.7697,2.97,-8.867,-9.7436
-3.9179,-4.6349,-6.7314,7.8431,7.8818,5.5395,1.9417,5.7605,2.8479,7.8431,7.8818,2.9851,-12.381,-15.302,-13.206,-14.423,-15.395,5.6683,2.0221,-8.867,-11.667
-2.0221,-6.5397,-7.7023,10.784,7.8818,10.37,1.9417,-9.7735,3.8188,10.784,7.8818,2.9851,-15.238,-17.205999,-13.206,-16.346001,-16.361,4.7021,-0.82148,-9.8522,-12.628
-6.7615,-9.3968,-10.615,9.8039,2.9557,-0.25765,-2.9126,9.644,-1.0356,9.8039,2.9557,-1.99,-18.094999,-18.159,-16.063,-16.346001,-17.327,1.8035,-3.6651,-11.823,-12.628
-7.7093,-13.206,-12.557,1.9608,-2.9557,-5.0886,-8.7379,12.557,-6.8608,1.9608,-2.9557,-6.9652,-18.094999,-18.159,-16.063,-17.308001,-18.292999,0.83736,-6.5087,-10.837,-12.628
-2.0221,-9.3968,-7.7023,5.8824,0.98522,-2.19,-4.8544,20.323999,-6.8608,5.8824,0.98522,-1.99,-11.429,-11.492,-10.349,-11.538,-11.53,7.6006,-5.5608,-6.8966,-6.859
-0.12638,-4.6349,-4.7896,11.765,2.9557,2.6409,0.0,15.469,-5.89,11.765,2.9557,0.99502,-8.5714,-6.7302,-6.5397,-5.7692,-6.6989,9.533,-7.4566,-5.9113,-4.9359
3.6651,1.0794,0.06472,7.8431,2.9557,5.5395,1.9417,-1.0356,-6.8608,7.8431,2.9557,2.9851,-4.7619,-1.0159,-1.7778,-0.96154,-0.90177,10.499,-3.6651,-3.9409,-2.0513
-2.97,2.0317,-1.877,0.0,-0.98522,-2.19,0.0,-2.9773,-2.0065,0.0,-0.98522,-1.99,-4.7619,-0.06349,-3.6825,-0.96154,-1.868,4.7021,2.0221,-4.9261,-0.12821
-7.7093,2.9841,-3.8188,-6.8627,-7.8818,-7.0209,-2.9126,-5.89,1.877,-6.8627,-7.8818,-6.9652,-7.619,-1.0159,-6.5397,-1.9231,-3.8003,-1.095,2.97,-8.867,1.7949
-4.8657,2.9841,-3.8188,-6.8627,-7.8818,-0.25765,-3.8835,-16.57,5.7605,-6.8627,-7.8818,-5.9701,-6.6667,-0.06349,-6.5397,-0.96154,-3.8003,-3.0274,3.9179,-7.8818,3.7179
-6.7615,-1.7778,-7.7023,-6.8627,-5.9113,-7.9871,-6.7961,5.7605,10.615,-6.8627,-5.9113,-8.9552,-8.5714,-1.9683,-9.3968,-2.8846,-6.6989,-3.9936,3.9179,-8.867,1.7949
-4.8657,-4.6349,-5.7605,-5.8824,-3.9409,-7.0209,-3.8835,3.8188,11.586,-5.8824,-3.9409,-5.9701,-4.7619,0.88889,-7.4921,-1.9231,-4.7665,-3.0274,4.8657,-4.9261,4.6795
-4.8657,-5.5873,-3.8188,-10.784,-2.9557,-3.1562,-1.9417,-9.7735,10.615,-10.784,-2.9557,-4.9751,-2.8571,0.88889,-6.5397,0.0,-2.8341,-6.8921,4.8657,-4.9261,6.6026
-7.7093,-3.6825,-3.8188,-7.8431,-3.9409,-8.9533,-0.97087,-4.9191,11.586,-7.8431,-3.9409,-5.9701,-2.8571,-1.0159,-7.4921,0.96154,-1.868,-9.7907,5.8136,-5.9113,5.641
-2.0221,4.8889,2.9773,-4.902,-1.9704,-1.2238,3.8835,-20.452999,14.498,-4.902,-1.9704,-0.99502,1.9048,0.88889,-0.8254,5.7692,3.9291,-9.7907,7.7093,-1.9704,3.7179
0.82148,11.556,10.744,-1.9608,2.9557,-3.1562,8.7379,-25.306999,14.498,-1.9608,2.9557,3.9801,6.6667,2.7937,4.8889,9.6154,10.692,-3.0274,7.7093,5.9113,2.7564
3.6651,13.46,13.657,-0.98039,2.9557,1.6747,8.7379,-9.7735,12.557,-0.98039,2.9557,4.9751,8.5714,2.7937,9.6508,11.538,14.557,3.7359,3.9179,7.8818,0.83333
6.5087,9.6508,10.744,-3.9216,-0.98522,-3.1562,3.8835,7.7023,5.7605,-3.9216,-0.98522,0.99502,7.619,-0.06349,11.556,6.7308,13.591,8.5668,-6.5087,10.837,-5.8974
12.196,6.7937,9.7735,-5.8824,-3.9409,1.6747,1.9417,3.8188,-0.06472,-5.8824,-3.9409,0.99502,8.5714,-0.06349,15.365,5.7692,14.557,13.398,-8.4044,12.808,-7.8205
15.987,2.0317,9.7735,2.9412,-1.9704,7.4718,1.9417,15.469,-2.0065,2.9412,-1.9704,3.9801,9.5238,1.8413,17.27,3.8462,14.557,18.229,-8.4044,13.793,-6.859
7.4566,-10.349,1.0356,2.9412,-7.8818,0.70853,-6.7961,15.469,-7.8317,2.9412,-7.8818,-1.99,4.7619,-1.0159,8.6984,-6.7308,3.9291,13.398,-15.039,7.8818,-11.667
0.82148,-18.921,-7.7023,3.9216,-4.9261,0.70853,-9.7087,4.7896,-8.8026,3.9216,-4.9261,-4.9751,-0.95238,-3.873,0.12698,-14.423,-6.6989,9.533,-17.882999,3.9409,-11.667
-4.8657,-23.683001,-14.498,0.98039,-3.9409,-2.19,-13.592,-2.9773,-7.8317,0.98039,-3.9409,-9.9502,-4.7619,-6.7302,-6.5397,-19.231001,-13.462,6.6345,-16.934999,0.98522,-10.705
-2.97,-23.683001,-15.469,-0.98039,-4.9261,-6.0548,-13.592,-4.9191,-6.8608,-0.98039,-4.9261,-10.945,-7.619,-6.7302,-8.4444,-19.231001,-15.395,1.8035,-13.144,-0.98522,-7.8205
-2.97,-16.063,-10.615,0.0,-2.9557,-7.0209,-9.7087,2.8479,-5.89,0.0,-2.9557,-7.9602,-8.5714,-5.7778,-7.4921,-13.462,-13.462,3.7359,-9.3523,-0.98522,-1.0897
-2.97,-6.5397,-3.8188,0.0,0.0,-1.2238,-3.8835,-3.9482,-3.9482,0.0,0.0,-2.9851,-6.6667,-2.9206,-5.5873,-4.8077,-7.6651,4.7021,-3.6651,0.0,4.6795
-3.9179,2.0317,-0.90615,-0.98039,-0.98522,-1.2238,-0.97087,6.7314,-2.9773,-0.98039,-0.98522,0.0,-6.6667,-0.06349,-4.6349,1.9231,-3.8003,2.7697,1.0742,-1.9704,8.5256
0.82148,7.746,2.9773,0.0,-2.9557,4.5733,1.9417,6.7314,-4.9191,0.0,-2.9557,3.9801,-3.8095,3.746,-0.8254,7.6923,1.0306,1.8035,2.97,-3.9409,10.449
5.5608,5.8413,4.9191,0.98039,-4.9261,11.337,0.97087,8.6731,-12.686,0.98039,-4.9261,6.9652,-3.8095,0.88889,2.9841,5.7692,1.9968,3.7359,-0.82148,-4.9261,6.6026
12.196,5.8413,8.8026,8.8235,0.0,14.235,4.8544,12.557,-11.715,8.8235,0.0,10.945,0.0,1.8413,7.746,3.8462,3.9291,6.6345,-1.7694,-0.98522,2.7564
15.039,7.746,13.657,12.745,7.8818,20.997999,11.65,10.615,-5.89,12.745,7.8818,15.92,2.8571,2.7937,9.6508,4.8077,6.8277,5.6683,0.12638,0.0,2.7564
10.3,9.6508,13.657,10.784,10.837,11.337,13.592,26.149,1.877,10.784,10.837,13.93,4.7619,1.8413,7.746,3.8462,6.8277,3.7359,3.9179,-0.98522,-1.0897
3.6651,8.6984,11.715,7.8431,11.823,3.6071,12.621,25.177999,3.8188,7.8431,11.823,10.945,3.8095,-0.06349,2.9841,1.9231,4.8953,-1.095,1.0742,-3.9409,-5.8974
6.5087,10.603,14.628,7.8431,10.837,12.303,13.592,8.6731,5.7605,7.8431,10.837,14.925,3.8095,-1.0159,2.0317,0.96154,4.8953,-4.9597,2.0221,-3.9409,-7.8205
5.5608,11.556,16.57,16.667,14.778,19.066,17.476,-1.0356,7.7023,16.667,14.778,18.905001,3.8095,-1.9683,2.0317,0.96154,5.8615,-2.0612,5.8136,-1.9704,-8.7821
1.7694,11.556,13.657,18.627001,14.778,12.303,15.534,7.7023,7.7023,18.627001,14.778,15.92,2.8571,-1.9683,0.12698,2.8846,5.8615,-2.0612,4.8657,-2.9557,-5.8974
-2.0221,9.6508,10.744,14.706,12.808,0.70853,11.65,15.469,2.8479,14.706,12.808,8.9552,2.8571,-1.0159,0.12698,4.8077,6.8277,-3.0274,0.12638,-0.98522,-3.9744
-0.12638,7.746,8.8026,5.8824,6.8966,-0.25765,5.8252,-7.8317,-2.0065,5.8824,6.8966,3.9801,6.6667,2.7937,3.9365,7.6923,9.7262,-2.0612,-3.6651,4.9261,-0.12821
4.613,5.8413,8.8026,1.9608,2.9557,5.5395,2.9126,-13.657,-5.89,1.9608,2.9557,2.9851,9.5238,7.5556,8.6984,9.6154,12.625,-1.095,-5.5608,8.867,4.6795
0.82148,3.9365,6.8608,1.9608,-1.9704,-0.25765,-1.9417,2.8479,-11.715,1.9608,-1.9704,0.0,12.381,11.365,9.6508,10.577,13.591,-0.12882,-7.4566,10.837,9.4872
-2.97,0.12698,2.9773,-3.9216,-7.8818,-9.9195,-6.7961,10.615,-14.628,-3.9216,-7.8818,-4.9751,14.286,14.222,7.746,10.577,12.625,-2.0612,-8.4044,11.823,13.333
1.7694,1.0794,4.9191,-9.8039,-11.823,-7.0209,-7.767,-8.8026,-16.57,-9.8039,-11.823,-5.9701,19.048,19.937,12.508,14.423,16.49,-3.9936,-6.5087,13.793,17.179001
5.5608,2.0317,5.89,-16.667,-16.749001,-5.0886,-8.7379,-21.424,-19.482,-16.667,-16.749001,-6.9652,24.761999,25.650999,17.27,18.268999,20.354,-3.0274,-3.6651,18.719,21.987
1.7694,0.12698,2.0065,-15.686,-15.764,-8.9533,-9.7087,-12.686,-15.599,-15.686,-15.764,-10.945,22.857,25.650999,16.316999,16.346001,17.455999,-1.095,-0.82148,14.778,21.987
5.5608,2.9841,3.9482,-7.8431,-5.9113,-1.2238,-3.8835,-21.424,-2.9773,-7.8431,-5.9113,-4.9751,21.905001,24.698,18.222,17.308001,17.455999,-1.095,5.8136,10.837,21.987
9.3523,8.6984,7.8317,0.0,1.9704,6.5056,4.8544,-13.657,7.7023,0.0,1.9704,2.9851,18.094999,20.889,15.365,16.346001,16.49,-1.095,9.6051,6.8966,17.179001
6.5087,12.508,12.686,3.9216,7.8818,4.5733,10.68,-1.0356,15.469,3.9216,7.8818,7.9602,14.286,17.079,11.556,15.385,14.557,-0.12882,15.292,3.9409,15.256
6.5087,15.365,15.599,8.8235,15.764,5.5395,17.476,8.6731,19.353001,8.8235,15.764,12.935,10.476,14.222,9.6508,13.462,13.591,3.7359,17.188,1.9704,12.372
2.7172,11.556,9.7735,10.784,14.778,2.6409,14.563,12.557,19.353001,10.784,14.778,10.945,2.8571,5.6508,2.9841,7.6923,6.8277,0.83736,12.449,-4.9261,2.7564
2.7172,9.6508,7.8317,15.686,16.749001,4.5733,14.563,11.586,18.382,15.686,16.749001,10.945,0.0,1.8413,1.0794,4.8077,2.963,0.83736,9.6051,-4.9261,-3.0128
2.7172,6.7937,5.89,9.8039,14.778,10.37,11.65,-2.9773,15.469,9.8039,14.778,9.9502,-3.8095,-3.873,-1.7778,-0.96154,-1.868,-3.9936,6.7615,-5.9113,-6.859
3.6651,6.7937,4.9191,7.8431,13.793,8.438,9.7087,0.90615,12.557,7.8431,13.793,8.9552,-0.95238,-1.9683,0.12698,0.0,-0.90177,-3.9936,5.8136,-1.9704,-3.0128
2.7172,5.8413,5.89,6.8627,8.867,7.4718,6.7961,-0.06472,8.6731,6.8627,8.867,6.9652,6.6667,1.8413,3.9365,2.8846,2.963,-0.12882,3.9179,6.8966,0.83333
-1.0742,1.0794,2.0065,1.9608,1.9704,3.6071,0.0,-10.744,2.8479,1.9608,1.9704,1.99,8.5714,2.7937,3.9365,0.96154,2.963,-2.0612,0.12638,8.867,-0.12821
-3.9179,-2.7302,-0.90615,-7.8431,-5.9113,-6.0548,-4.8544,-7.8317,-2.0065,-7.8431,-5.9113,-4.9751,11.429,3.746,3.9365,0.96154,2.963,-3.0274,-3.6651,13.793,0.83333
-5.8136,-3.6825,-2.8479,-17.646999,-8.867,-14.75,-7.767,-10.744,-2.0065,-17.646999,-8.867,-10.945,11.429,3.746,2.9841,0.0,1.9968,-6.8921,-1.7694,12.808,4.6795
-3.9179,-2.7302,-2.8479,-21.569,-9.8522,-12.818,-7.767,-32.104,-2.0065,-21.569,-9.8522,-10.945,9.5238,4.6984,3.9365,0.0,2.963,-7.8583,-0.82148,11.823,5.641
-0.12638,1.0794,2.9773,-10.784,-1.9704,-13.784,-0.97087,-8.8026,1.877,-10.784,-1.9704,-4.9751,14.286,8.5079,9.6508,3.8462,7.7939,-2.0612,2.97,16.749001,7.5641
3.6651,2.9841,5.89,-4.902,1.9704,-6.0548,1.9417,-7.8317,6.7314,-4.902,1.9704,0.0,13.333,8.5079,9.6508,4.8077,7.7939,1.8035,2.97,16.749001,6.6026
3.6651,2.0317,6.8608,-6.8627,1.9704,-2.19,0.97087,-7.8317,5.7605,-6.8627,1.9704,0.99502,10.476,6.6032,5.8413,2.8846,5.8615,2.7697,-0.82148,13.793,3.7179
6.5087,2.9841,6.8608,-0.98039,7.8818,4.5733,4.8544,-8.8026,9.644,-0.98039,7.8818,4.9751,8.5714,5.6508,4.8889,1.9231,4.8953,6.6345,4.8657,11.823,3.7179
3.6651,-0.8254,2.0065,4.902,10.837,1.6747,4.8544,13.528,8.6731,4.902,10.837,4.9751,2.8571,-0.06349,1.0794,-3.8462,0.06441,7.6006,4.8657,5.9113,-1.0897
8.4044,-2.7302,2.0065,15.686,18.719,8.438,8.7379,19.353001,13.528,15.686,18.719,10.945,-0.95238,-3.873,0.12698,-6.7308,-2.8341,8.5668,3.9179,1.9704,-3.9744
9.3523,-1.7778,2.9773,21.569,20.690001,15.201,9.7087,9.644,16.440001,21.569,20.690001,13.93,-5.7143,-9.5873,-0.8254,-8.6538,-5.7327,10.499,5.8136,-1.9704,-8.7821
6.5087,1.0794,2.0065,23.528999,23.645,12.303,11.65,16.440001,18.382,23.528999,23.645,12.935,-10.476,-13.397,-2.7302,-9.6154,-6.6989,8.5668,6.7615,-5.9113,-12.628
7.4566,4.8889,1.0356,21.569,21.674999,11.337,11.65,10.615,17.410999,21.569,21.674999,10.945,-10.476,-13.397,0.12698,-5.7692,-4.7665,5.6683,7.7093,-6.8966,-10.705
6.5087,6.7937,1.0356,20.587999,21.674999,12.303,10.68,7.7023,18.382,20.587999,21.674999,8.9552,-11.429,-13.397,0.12698,-3.8462,-3.8003,1.8035,9.6051,-8.867,-7.8205
12.196,10.603,5.89,22.549,22.66,22.931,12.621,-4.9191,20.323999,22.549,22.66,11.94,-10.476,-11.492,4.8889,0.96154,-0.90177,1.8035,15.292,-7.8818,-2.0513
5.5608,8.6984,3.9482,18.627001,19.704,6.5056,8.7379,15.469,20.323999,18.627001,19.704,5.9701,-10.476,-10.54,2.0317,0.96154,-2.8341,0.83736,14.344,-7.8818,-0.12821
0.82148,7.746,2.9773,16.667,18.719,-3.1562,5.8252,27.120001,19.353001,16.667,18.719,2.9851,-9.5238,-8.6349,1.0794,1.9231,-2.8341,-0.12882,14.344,-6.8966,2.7564
2.7172,8.6984,2.9773,13.725,16.749001,1.6747,5.8252,7.7023,17.410999,13.725,16.749001,2.9851,-7.619,-6.7302,2.0317,3.8462,-1.868,1.8035,12.449,-3.9409,4.6795
0.82148,4.8889,0.06472,3.9216,10.837,-1.2238,0.97087,-2.0065,13.528,3.9216,10.837,-1.99,-9.5238,-6.7302,-0.8254,0.96154,-4.7665,0.83736,7.7093,-4.9261,0.83333
0.82148,2.9841,0.06472,0.98039,8.867,0.70853,0.0,-12.686,10.615,0.98039,8.867,-1.99,-9.5238,-5.7778,-2.7302,0.96154,-4.7665,-0.12882,4.8657,-4.9261,0.83333
2.7172,2.0317,2.9773,3.9216,8.867,4.5733,0.0,-2.9773,7.7023,3.9216,8.867,0.99502,-8.5714,-5.7778,-2.7302,-0.96154,-3.8003,2.7697,-2.7172,-3.9409,-2.0513
-0.12638,-2.7302,-1.877,6.8627,6.8966,5.5395,-2.9126,-8.8026,6.7314,6.8627,6.8966,0.0,-8.5714,-4.8254,-4.6349,-2.8846,-5.7327,5.6683,-3.6651,-3.9409,-3.0128
-4.8657,-8.4444,-9.644,4.902,2.9557,-4.1224,-7.767,-2.9773,2.8479,4.902,2.9557,-6.9652,-8.5714,-4.8254,-7.4921,-5.7692,-7.6651,5.6683,-3.6651,-1.9704,-3.9744
-5.8136,-11.302,-13.528,3.9216,2.9557,-10.886,-9.7087,12.557,2.8479,3.9216,2.9557,-10.945,-7.619,-1.9683,-6.5397,-5.7692,-7.6651,6.6345,-6.5087,-0.98522,-3.0128
-2.97,-13.206,-12.557,0.0,1.9704,-9.9195,-10.68,6.7314,0.90615,0.0,1.9704,-10.945,-8.5714,-2.9206,-6.5397,-6.7308,-7.6651,3.7359,-9.3523,-4.9261,-4.9359
-2.0221,-11.302,-9.644,-1.9608,-1.9704,-7.9871,-9.7087,3.8188,-0.06472,-1.9608,-1.9704,-8.9552,-6.6667,-1.9683,-3.6825,-5.7692,-5.7327,8.5668,-11.248,-4.9261,-6.859
-1.0742,-9.3968,-7.7023,-1.9608,-3.9409,-3.1562,-8.7379,-7.8317,-1.0356,-1.9608,-3.9409,-5.9701,-4.7619,-0.06349,-1.7778,-3.8462,-3.8003,7.6006,-11.248,-3.9409,-5.8974
-4.8657,-12.254,-9.644,-10.784,-11.823,-8.9533,-13.592,-3.9482,-4.9191,-10.784,-11.823,-10.945,-5.7143,-0.06349,-3.6825,-3.8462,-4.7665,-0.12882,-13.144,-6.8966,-3.9744
0.82148,-9.3968,-5.7605,-9.8039,-10.837,-5.0886,-11.65,-2.9773,-5.89,-9.8039,-10.837,-6.9652,0.95238,3.746,1.0794,-0.96154,0.06441,2.7697,-11.248,-1.9704,-1.0897
1.7694,-6.5397,-1.877,-5.8824,-7.8818,-2.19,-6.7961,-7.8317,-2.0065,-5.8824,-7.8818,-3.9801,4.7619,5.6508,3.9365,1.9231,1.9968,1.8035,-6.5087,0.98522,1.7949
-3.9179,-5.5873,-4.7896,-8.8235,-8.867,-7.0209,-6.7961,-12.686,-1.0356,-8.8235,-8.867,-6.9652,0.95238,1.8413,-2.7302,0.0,-1.868,-5.9259,-2.7172,-3.9409,1.7949
-7.7093,-1.7778,-4.7896,-14.706,-11.823,-7.0209,-5.8252,-17.540001,0.90615,-14.706,-11.823,-7.9602,0.0,1.8413,-5.5873,1.9231,-2.8341,-12.689,2.0221,-7.8818,4.6795
-8.6572,2.0317,-3.8188,-16.667,-8.867,-12.818,-3.8835,-8.8026,5.7605,-16.667,-8.867,-8.9552,4.7619,5.6508,-3.6825,4.8077,-0.90177,-13.655,5.8136,-2.9557,9.4872
-5.8136,3.9365,-1.877,-12.745,-4.9261,-8.9533,-0.97087,-10.744,14.498,-12.745,-4.9261,-5.9701,6.6667,8.5079,-1.7778,7.6923,1.0306,-13.655,9.6051,-1.9704,12.372
-8.6572,2.9841,-3.8188,-16.667,-5.9113,-13.784,-2.9126,-19.482,14.498,-16.667,-5.9113,-7.9602,3.8095,5.6508,-4.6349,6.7308,-0.90177,-15.588,9.6051,-5.9113,12.372
-12.449,2.9841,-5.7605,-18.627001,-8.867,-15.717,-2.9126,-21.424,14.498,-18.627001,-8.867,-8.9552,0.0,2.7937,-10.349,5.7692,-3.8003,-16.554001,8.6572,-8.867,12.372
-11.501,4.8889,-3.8188,-15.686,-4.9261,-8.9533,0.0,-29.191,16.440001,-15.686,-4.9261,-4.9751,-1.9048,1.8413,-11.302,5.7692,-3.8003,-14.622,6.7615,-9.8522,12.372
-15.292,2.0317,-6.7314,-9.8039,-2.9557,-14.75,0.97087,-8.8026,15.469,-9.8039,-2.9557,-4.9751,-2.8571,0.88889,-14.159,2.8846,-6.6989,-10.757,6.7615,-7.8818,8.5256
-17.188,-3.6825,-11.586,-8.8235,-4.9261,-20.548,-2.9126,-4.9191,11.586,-8.8235,-4.9261,-8.9552,-4.7619,-1.9683,-16.063,-2.8846,-11.53,-6.8921,3.9179,-6.8966,2.7564
-13.397,-8.4444,-15.469,-9.8039,-6.8966,-8.9533,-5.8252,-22.395,7.7023,-9.8039,-6.8966,-8.9552,-7.619,-5.7778,-16.063,-8.6538,-15.395,-3.9936,-2.7172,-5.9113,-2.0513
-7.7093,-7.4921,-14.498,-6.8627,-4.9261,-5.0886,-4.8544,-9.7735,8.6731,-6.8627,-4.9261,-5.9701,-2.8571,-3.873,-10.349,-6.7308,-13.462,2.7697,-1.7694,0.98522,-1.0897
-6.7615,-7.4921,-13.528,-2.9412,-1.9704,-7.0209,-2.9126,0.90615,8.6731,-2.9412,-1.9704,-4.9751,-0.95238,-3.873,-7.4921,-7.6923,-11.53,6.6345,-3.6651,3.9409,-2.0513
-9.6051,-10.349,-16.440001,-5.8824,-6.8966,-10.886,-6.7961,-5.89,4.7896,-5.8824,-6.8966,-9.9502,-2.8571,-5.7778,-7.4921,-9.6154,-12.496,3.7359,-5.5608,1.9704,-5.8974
-11.501,-11.302,-17.410999,-8.8235,-6.8966,-9.9195,-6.7961,-4.9191,2.8479,-8.8235,-6.8966,-10.945,-4.7619,-8.6349,-9.3968,-11.538,-13.462,3.7359,-6.5087,0.98522,-9.7436
-10.553,-10.349,-17.410999,-10.784,-5.9113,-6.0548,-5.8252,-15.599,5.7605,-10.784,-5.9113,-9.9502,-6.6667,-10.54,-8.4444,-12.5,-13.462,3.7359,-3.6651,2.9557,-11.667
-6.7615,-8.4444,-15.469,-11.765,-4.9261,-5.0886,-3.8835,-6.8608,6.7314,-11.765,-4.9261,-7.9602,-8.5714,-12.444,-6.5397,-12.5,-12.496,2.7697,0.12638,0.0,-10.705
-8.6572,-4.6349,-12.557,-8.8235,-3.9409,-9.9195,-1.9417,5.7605,10.615,-8.8235,-3.9409,-6.9652,-8.5714,-11.492,-6.5397,-10.577,-10.564,-0.12882,3.9179,-4.9261,-8.7821
-9.6051,-3.6825,-11.586,-9.8039,-4.9261,-9.9195,-2.9126,-7.8317,11.586,-9.8039,-4.9261,-7.9602,-9.5238,-10.54,-8.4444,-7.6923,-9.5974,-3.0274,6.7615,-7.8818,-5.8974
-4.8657,-2.7302,-9.644,-11.765,-5.9113,-3.1562,-4.8544,-27.249001,9.644,-11.765,-5.9113,-8.9552,-8.5714,-6.7302,-6.5397,-2.8846,-5.7327,-5.9259,7.7093,-8.867,0.83333
-7.7093,-3.6825,-10.615,-6.8627,-2.9557,-7.9871,-6.7961,-1.0356,8.6731,-6.8627,-2.9557,-9.9502,-9.5238,-5.7778,-6.5397,-1.9231,-5.7327,-6.8921,7.7093,-9.8522,2.7564
-8.6572,-4.6349,-8.6731,-8.8235,-4.9261,-13.784,-6.7961,-2.0065,5.7605,-8.8235,-4.9261,-8.9552,-7.619,-2.9206,-6.5397,-1.9231,-5.7327,-8.8245,4.8657,-8.867,3.7179
-7.7093,-4.6349,-5.7605,-7.8431,-6.8966,-10.886,-5.8252,-6.8608,2.8479,-7.8431,-6.8966,-4.9751,-6.6667,-1.0159,-6.5397,-1.9231,-4.7665,-10.757,0.12638,-7.8818,4.6795
-8.6572,-1.7778,-3.8188,-2.9412,-4.9261,-1.2238,-1.9417,-9.7735,2.8479,-2.9412,-4.9261,-0.99502,-3.8095,1.8413,-6.5397,0.0,-2.8341,-9.7907,2.97,-6.8966,5.641
-12.449,2.0317,-1.877,-2.9412,-1.9704,-4.1224,1.9417,-1.0356,4.7896,-2.9412,-1.9704,0.99502,-0.95238,3.746,-8.4444,2.8846,-1.868,-9.7907,5.8136,-3.9409,6.6026
-12.449,2.0317,-1.877,-3.9216,0.0,-7.0209,3.8835,1.877,5.7605,-3.9216,0.0,1.99,0.0,2.7937,-9.3968,1.9231,-2.8341,-6.8921,2.0221,-1.9704,4.6795
-5.8136,1.0794,0.06472,-7.8431,-0.98522,0.70853,3.8835,-18.511,5.7605,-7.8431,-0.98522,3.9801,0.95238,1.8413,-6.5397,0.0,-1.868,-4.9597,2.0221,-1.9704,1.7949
-0.12638,0.12698,2.9773,-3.9216,-0.98522,4.5733,5.8252,-11.715,3.8188,-3.9216,-0.98522,5.9701,1.9048,0.88889,-2.7302,-2.8846,-1.868,-1.095,1.0742,-0.98522,-1.0897
4.613,0.12698,2.9773,0.98039,-0.98522,3.6071,4.8544,12.557,3.8188,0.98039,-0.98522,4.9751,3.8095,0.88889,1.0794,-2.8846,0.06441,5.6683,2.0221,2.9557,-3.0128
4.613,-0.8254,0.06472,-3.9216,-4.9261,-2.19,0.0,5.7605,-0.06472,-3.9216,-4.9261,-1.99,1.9048,-1.0159,1.0794,-3.8462,-0.90177,6.6345,2.0221,2.9557,-4.9359
5.5608,-0.8254,1.0356,-7.8431,-8.867,3.6071,-3.8835,-15.599,-2.9773,-7.8431,-8.867,-3.9801,1.9048,-2.9206,2.9841,-2.8846,1.0306,2.7697,2.0221,3.9409,-5.8974
3.6651,0.12698,2.0065,-4.902,-6.8966,-4.1224,-2.9126,-13.657,-1.0356,-4.902,-6.8966,-2.9851,1.9048,-2.9206,3.9365,-2.8846,1.9968,-0.12882,2.97,3.9409,-4.9359
2.7172,-0.8254,1.0356,-4.902,-4.9261,-6.0548,-1.9417,-4.9191,1.877,-4.902,-4.9261,-2.9851,2.8571,-2.9206,3.9365,-2.8846,1.9968,-1.095,2.97,5.9113,-4.9359
-1.0742,-2.7302,-1.877,-1.9608,-0.98522,-7.9871,0.0,5.7605,2.8479,-1.9608,-0.98522,-2.9851,2.8571,-2.9206,2.0317,-4.8077,0.06441,1.8035,3.9179,6.8966,-3.0128
-6.7615,-4.6349,-6.7314,-4.902,-0.98522,-8.9533,-0.97087,5.7605,1.877,-4.902,-0.98522,-4.9751,0.95238,-4.8254,-3.6825,-8.6538,-5.7327,-0.12882,2.97,3.9409,-4.9359
-6.7615,-3.6825,-6.7314,-0.98039,2.9557,-1.2238,2.9126,-2.0065,4.7896,-0.98039,2.9557,0.0,-1.9048,-4.8254,-6.5397,-8.6538,-8.6312,-3.9936,2.97,0.0,-3.0128
-8.6572,-4.6349,-6.7314,-0.98039,0.98522,3.6071,2.9126,-12.686,1.877,-0.98039,0.98522,2.9851,-6.6667,-7.6825,-11.302,-10.577,-10.564,-9.7907,1.0742,-5.9113,-5.8974
-5.8136,-2.7302,-3.8188,4.902,3.9409,9.4042,4.8544,-9.7735,1.877,4.902,3.9409,7.9602,-5.7143,-6.7302,-10.349,-8.6538,-9.5974,-7.8583,0.12638,-4.9261,-5.8974
-8.6572,-0.8254,-3.8188,6.8627,3.9409,4.5733,4.8544,-9.7735,0.90615,6.8627,3.9409,5.9701,-4.7619,-3.873,-11.302,-4.8077,-7.6651,-9.7907,-1.7694,-4.9261,-3.0128
-9.6051,2.9841,-1.877,3.9216,2.9557,0.70853,4.8544,-5.89,-0.06472,3.9216,2.9557,3.9801,-6.6667,-3.873,-11.302,-1.9231,-5.7327,-14.622,-0.82148,-7.8818,-0.12821
-2.0221,10.603,7.8317,5.8824,8.867,3.6071,11.65,3.8188,4.7896,5.8824,8.867,8.9552,-2.8571,0.88889,-3.6825,5.7692,2.963,-11.723,7.7093,-5.9113,3.7179
-2.97,11.556,9.7735,2.9412,6.8966,-3.1562,9.7087,2.8479,4.7896,2.9412,6.8966,7.9602,-0.95238,1.8413,-2.7302,7.6923,4.8953,-12.689,8.6572,-5.9113,5.641
-3.9179,10.603,8.8026,2.9412,4.9261,-2.19,9.7087,-0.06472,2.8479,2.9412,4.9261,7.9602,-2.8571,-0.06349,-2.7302,5.7692,3.9291,-13.655,5.8136,-6.8966,4.6795
0.82148,10.603,9.7735,3.9216,5.9113,4.5733,9.7087,-7.8317,3.8188,3.9216,5.9113,8.9552,-2.8571,-1.0159,-0.8254,3.8462,3.9291,-13.655,5.8136,-6.8966,1.7949
1.7694,6.7937,7.8317,5.8824,5.9113,7.4718,8.7379,-7.8317,2.8479,5.8824,5.9113,7.9602,-2.8571,-3.873,-0.8254,-0.96154,1.9968,-11.723,2.97,-6.8966,-2.0513
-1.0742,2.9841,6.8608,7.8431,4.9261,4.5733,6.7961,6.7314,-0.06472,7.8431,4.9261,6.9652,-0.95238,-3.873,-0.8254,-3.8462,1.0306,-7.8583,1.0742,-3.9409,-3.9744
1.7694,1.0794,7.8317,7.8431,5.9113,5.5395,5.8252,-2.9773,-3.9482,7.8431,5.9113,7.9602,1.9048,-1.9683,2.0317,-3.8462,2.963,-2.0612,-1.7694,0.0,-4.9359
10.3,2.0317,10.744,5.8824,5.9113,13.269,5.8252,-10.744,-5.89,5.8824,5.9113,10.945,6.6667,2.7937,7.746,0.0,6.8277,2.7697,-2.7172,5.9113,-3.0128
10.3,2.9841,9.7735,2.9412,3.9409,3.6071,3.8835,4.7896,-8.8026,2.9412,3.9409,7.9602,8.5714,4.6984,10.603,2.8846,8.7601,3.7359,-3.6651,10.837,0.83333
4.613,1.0794,4.9191,-4.902,-2.9557,-7.0209,-1.9417,1.877,-11.715,-4.902,-2.9557,-0.99502,5.7143,3.746,8.6984,2.8846,6.8277,2.7697,-3.6651,8.867,1.7949
2.7172,1.0794,3.9482,-5.8824,-5.9113,-4.1224,-3.8835,-8.8026,-12.686,-5.8824,-5.9113,-2.9851,2.8571,1.8413,7.746,2.8846,5.8615,1.8035,-2.7172,6.8966,3.7179
2.7172,0.12698,2.0065,-3.9216,-5.9113,-4.1224,-4.8544,-3.9482,-9.7735,-3.9216,-5.9113,-4.9751,0.95238,-0.06349,5.8413,1.9231,3.9291,3.7359,0.12638,6.8966,3.7179
1.7694,1.0794,2.9773,-0.98039,-0.98522,-1.2238,-1.9417,-5.89,-5.89,-0.98039,-0.98522,-1.99,0.95238,0.88889,6.7937,2.8846,4.8953,2.7697,2.0221,6.8966,3.7179
3.6651,2.0317,3.9482,-0.98039,-0.98522,0.70853,-0.97087,-0.06472,-6.8608,-0.98039,-0.98522,-0.99502,0.95238,2.7937,7.746,4.8077,5.8615,-0.12882,-2.7172,4.9261,2.7564
4.613,3.9365,5.89,0.98039,0.98522,-3.1562,-0.97087,10.615,-4.9191,0.98039,0.98522,0.0,3.8095,5.6508,8.6984,7.6923,8.7601,2.7697,1.0742,4.9261,3.7179
8.4044,5.8413,10.744,3.9216,1.9704,3.6071,1.9417,10.615,-3.9482,3.9216,1.9704,3.9801,6.6667,8.5079,10.603,10.577,12.625,6.6345,2.97,5.9113,4.6795
10.3,5.8413,11.715,3.9216,0.98522,11.337,1.9417,2.8479,-4.9191,3.9216,0.98522,5.9701,7.619,9.4603,11.556,10.577,12.625,7.6006,0.12638,6.8966,3.7179
4.613,-0.8254,4.9191,5.8824,0.0,7.4718,-0.97087,5.7605,-8.8026,5.8824,0.0,1.99,4.7619,5.6508,6.7937,4.8077,6.8277,6.6345,-2.7172,2.9557,-0.12821
-1.0742,-4.6349,-1.877,6.8627,0.0,1.6747,-3.8835,12.557,-6.8608,6.8627,0.0,-0.99502,1.9048,3.746,0.12698,0.96154,1.9968,0.83736,-2.7172,-1.9704,-1.0897
-5.8136,-6.5397,-5.7605,6.8627,-2.9557,0.70853,-4.8544,-2.0065,-7.8317,6.8627,-2.9557,-1.99,-1.9048,1.8413,-5.5873,-0.96154,-2.8341,-5.9259,-0.82148,-7.8818,-0.12821
-3.9179,-3.6825,-2.8479,6.8627,-0.98522,7.4718,-2.9126,6.7314,-6.8608,6.8627,-0.98522,0.99502,-2.8571,-0.06349,-6.5397,-0.96154,-3.8003,-5.9259,1.0742,-9.8522,0.83333
-5.8136,-3.6825,-2.8479,1.9608,0.0,-3.1562,-1.9417,19.353001,-5.89,1.9608,0.0,0.0,-7.619,-4.8254,-11.302,-5.7692,-8.6312,-6.8921,2.97,-12.808,-1.0897
-6.7615,-2.7302,-1.877,-1.9608,-2.9557,-3.1562,-0.97087,4.7896,-5.89,-1.9608,-2.9557,0.0,-10.476,-7.6825,-14.159,-8.6538,-11.53,-8.8245,4.8657,-14.778,-3.9744
-0.12638,1.0794,3.9482,-1.9608,-1.9704,3.6071,2.9126,-4.9191,-6.8608,-1.9608,-1.9704,3.9801,-7.619,-4.8254,-10.349,-3.8462,-7.6651,-6.8921,6.7615,-10.837,-1.0897
-1.0742,2.0317,2.0065,-4.902,-8.867,-5.0886,-2.9126,5.7605,-10.744,-4.902,-8.867,-1.99,-4.7619,-1.9683,-8.4444,-1.9231,-5.7327,-1.095,2.97,-3.9409,1.7949
-1.0742,-0.8254,-0.90615,-7.8431,-10.837,-7.9871,-6.7961,6.7314,-15.599,-7.8431,-10.837,-6.9652,-2.8571,-1.9683,-5.5873,-1.9231,-4.7665,5.6683,-1.7694,0.98522,1.7949
4.613,2.0317,2.0065,-6.8627,-8.867,0.70853,-5.8252,-0.06472,-12.686,-6.8627,-8.867,-4.9751,0.95238,1.8413,1.0794,1.9231,0.06441,11.465,-2.7172,4.9261,1.7949
12.196,7.746,8.8026,0.0,-3.9409,14.235,1.9417,-17.540001,-8.8026,0.0,-3.9409,3.9801,6.6667,6.6032,9.6508,6.7308,6.8277,13.398,-2.7172,9.8522,3.7179
10.3,5.8413,7.8317,3.9216,-1.9704,6.5056,0.97087,14.498,-8.8026,3.9216,-1.9704,3.9801,10.476,8.5079,14.413,7.6923,9.7262,12.432,-8.4044,13.793,2.7564
9.3523,-3.6825,0.06472,3.9216,-4.9261,1.6747,-6.7961,26.149,-11.715,3.9216,-4.9261,-1.99,10.476,6.6032,14.413,3.8462,7.7939,14.364,-9.3523,13.793,1.7949
5.5608,-16.063,-7.7023,1.9608,-10.837,0.70853,-16.504999,12.557,-18.511,1.9608,-10.837,-9.9502,7.619,3.746,10.603,-3.8462,1.9968,14.364,-13.144,12.808,-3.9744
0.82148,-20.825001,-13.528,3.9216,-11.823,-7.9871,-22.33,16.440001,-20.452999,3.9216,-11.823,-15.92,6.6667,2.7937,6.7937,-6.7308,-1.868,13.398,-15.039,12.808,-6.859
-3.9179,-21.778,-16.440001,-0.98039,-12.808,-10.886,-22.33,12.557,-19.482,-0.98039,-12.808,-17.91,5.7143,0.88889,2.9841,-7.6923,-3.8003,13.398,-13.144,12.808,-6.859
-7.7093,-21.778,-19.353001,-9.8039,-13.793,-10.886,-22.33,4.7896,-17.540001,-9.8039,-13.793,-19.9,0.95238,-4.8254,-2.7302,-12.5,-8.6312,7.6006,-10.3,5.9113,-10.705
-4.8657,-19.872999,-18.382,-10.784,-10.837,-7.9871,-17.476,-2.9773,-15.599,-10.784,-10.837,-14.925,-4.7619,-9.5873,-4.6349,-13.462,-11.53,2.7697,-6.5087,0.0,-10.705
8.4044,-5.5873,-3.8188,-1.9608,-1.9704,14.235,-3.8835,-22.395,-5.89,-1.9608,-1.9704,0.99502,-0.95238,-3.873,3.9365,-2.8846,-1.868,5.6683,0.12638,3.9409,-3.9744
6.5087,5.8413,5.89,0.98039,2.9557,7.4718,5.8252,12.557,1.877,0.98039,2.9557,5.9701,1.9048,-0.06349,6.7937,5.7692,4.8953,6.6345,5.8136,2.9557,2.7564
3.6651,13.46,10.744,0.0,0.98522,1.6747,9.7087,19.353001,2.8479,0.0,0.98522,6.9652,2.8571,3.746,6.7937,11.538,8.7601,4.7021,8.6572,0.0,7.5641
11.248,18.222,16.57,3.9216,2.9557,10.37,14.563,16.440001,2.8479,3.9216,2.9557,11.94,8.5714,8.5079,12.508,17.308001,14.557,7.6006,7.7093,3.9409,11.41
14.092,13.46,12.686,5.8824,1.9704,14.235,11.65,18.382,-1.0356,5.8824,1.9704,11.94,7.619,7.5556,11.556,12.5,11.659,7.6006,2.97,3.9409,7.5641
14.092,7.746,8.8026,7.8431,5.9113,16.167,10.68,16.440001,-2.0065,7.8431,5.9113,11.94,1.9048,4.6984,5.8413,5.7692,4.8953,6.6345,0.12638,-0.98522,2.7564
16.934999,6.7937,13.657,14.706,10.837,20.997999,12.621,24.207001,2.8479,14.706,10.837,16.915001,0.95238,3.746,6.7937,3.8462,3.9291,11.465,-1.7694,-0.98522,0.83333
15.039,4.8889,14.628,15.686,13.793,22.931,14.563,18.382,5.7605,15.686,13.793,18.905001,-0.95238,1.8413,4.8889,0.96154,1.9968,12.432,-5.5608,-1.9704,-2.0513
15.039,2.9841,12.686,13.725,11.823,27.761999,13.592,2.8479,5.7605,13.725,11.823,17.91,0.0,2.7937,3.9365,0.0,1.9968,11.465,-8.4044,-0.98522,-3.0128
8.4044,-3.6825,2.0065,12.745,7.8818,10.37,5.8252,15.469,3.8188,12.745,7.8818,8.9552,1.9048,3.746,1.0794,-2.8846,-0.90177,9.533,-7.4566,1.9704,-3.9744
2.7172,-10.349,-9.644,5.8824,0.98522,-0.25765,-4.8544,17.410999,-0.06472,5.8824,0.98522,-1.99,1.9048,1.8413,-2.7302,-6.7308,-4.7665,7.6006,-9.3523,3.9409,-4.9359
-1.0742,-12.254,-12.557,-1.9608,-4.9261,-3.1562,-10.68,0.90615,-3.9482,-1.9608,-4.9261,-7.9602,1.9048,1.8413,-0.8254,-5.7692,-3.8003,7.6006,-12.196,6.8966,-3.9744
-4.8657,-13.206,-11.586,-7.8431,-10.837,-11.852,-14.563,-2.9773,-5.89,-7.8431,-10.837,-13.93,2.8571,-0.06349,1.0794,-6.7308,-2.8341,5.6683,-12.196,8.867,-4.9359
-2.0221,-13.206,-8.6731,-12.745,-13.793,-13.784,-14.563,-8.8026,-6.8608,-12.745,-13.793,-15.92,5.7143,-0.06349,5.8413,-6.7308,0.06441,6.6345,-10.3,12.808,-5.8974
1.7694,-10.349,-3.8188,-14.706,-13.793,-9.9195,-12.621,-11.715,-3.9482,-14.706,-13.793,-14.925,6.6667,-1.0159,8.6984,-4.8077,2.963,8.5668,-6.5087,13.793,-3.9744
-0.12638,-5.5873,-2.8479,-15.686,-12.808,-11.852,-10.68,-8.8026,-1.0356,-15.686,-12.808,-13.93,5.7143,-1.9683,6.7937,-1.9231,3.9291,3.7359,-1.7694,11.823,-2.0513
-2.0221,1.0794,-0.90615,-16.667,-10.837,-13.784,-5.8252,-2.0065,0.90615,-16.667,-10.837,-10.945,4.7619,-1.9683,4.8889,1.9231,4.8953,2.7697,2.97,7.8818,0.83333
-4.8657,5.8413,2.0065,-16.667,-7.8818,-8.9533,0.97087,-17.540001,3.8188,-16.667,-7.8818,-4.9751,1.9048,-2.9206,2.0317,3.8462,2.963,-4.9597,6.7615,3.9409,2.7564
-9.6051,5.8413,1.0356,-9.8039,-0.98522,-9.9195,3.8835,-14.628,6.7314,-9.8039,-0.98522,-1.99,0.0,-1.9683,-1.7778,1.9231,0.06441,-12.689,8.6572,-0.98522,2.7564
-4.8657,8.6984,2.9773,-0.98039,4.9261,-4.1224,8.7379,-6.8608,13.528,-0.98039,4.9261,2.9851,3.8095,1.8413,1.0794,4.8077,1.0306,-9.7907,10.553,0.0,3.7179
-2.97,10.603,4.9191,-1.9608,7.8818,2.6409,11.65,-28.219999,14.498,-1.9608,7.8818,5.9701,1.9048,3.746,0.12698,5.7692,1.9968,-10.757,9.6051,-2.9557,4.6795
0.82148,11.556,5.89,-1.9608,8.867,7.4718,10.68,-17.540001,12.557,-1.9608,8.867,6.9652,1.9048,6.6032,-0.8254,8.6538,3.9291,-11.723,7.7093,-5.9113,6.6026
-2.0221,9.6508,3.9482,0.98039,6.8966,1.6747,8.7379,-1.0356,7.7023,0.98039,6.8966,5.9701,1.9048,7.5556,-1.7778,9.6154,4.8953,-8.8245,4.8657,-6.8966,8.5256
-3.9179,9.6508,3.9482,-0.98039,3.9409,-6.0548,6.7961,10.615,6.7314,-0.98039,3.9409,2.9851,3.8095,9.4603,-0.8254,11.538,6.8277,-6.8921,2.97,-4.9261,7.5641
-0.12638,11.556,7.8317,-1.9608,3.9409,-3.1562,8.7379,2.8479,6.7314,-1.9608,3.9409,4.9751,8.5714,13.27,3.9365,13.462,10.692,-6.8921,-0.82148,-2.9557,8.5256
1.7694,10.603,8.8026,-1.9608,0.98522,-2.19,7.767,-4.9191,2.8479,-1.9608,0.98522,4.9751,11.429,16.127001,6.7937,13.462,13.591,-3.9936,1.0742,-0.98522,8.5256
3.6651,2.9841,5.89,-2.9412,-0.98522,2.6409,3.8835,-12.686,-0.06472,-2.9412,-0.98522,3.9801,11.429,14.222,5.8413,8.6538,11.659,-2.0612,1.0742,0.98522,5.641
3.6651,-3.6825,2.9773,-2.9412,-1.9704,2.6409,-0.97087,1.877,-2.9773,-2.9412,-1.9704,1.99,9.5238,10.413,4.8889,2.8846,7.7939,2.7697,-3.6651,1.9704,1.7949
4.613,-5.5873,3.9482,-2.9412,-4.9261,0.70853,-3.8835,3.8188,-4.9191,-2.9412,-4.9261,0.99502,9.5238,8.5079,5.8413,1.9231,6.8277,5.6683,-6.5087,4.9261,-0.12821
2.7172,-4.6349,1.0356,-3.9216,-5.9113,-0.25765,-5.8252,-13.657,-6.8608,-3.9216,-5.9113,-3.9801,10.476,6.6032,4.8889,0.96154,5.8615,2.7697,-7.4566,6.8966,-1.0897
-0.12638,-1.7778,-0.90615,-0.98039,-4.9261,4.5733,-3.8835,-17.540001,-5.89,-0.98039,-4.9261,-4.9751,12.381,6.6032,4.8889,1.9231,5.8615,2.7697,-5.5608,10.837,-1.0897
-2.97,1.0794,-3.8188,-3.9216,-4.9261,-7.9871,-3.8835,14.498,-5.89,-3.9216,-4.9261,-8.9552,13.333,6.6032,5.8413,4.8077,5.8615,7.6006,-4.613,10.837,0.83333
-1.0742,1.0794,-3.8188,-4.902,-4.9261,-11.852,-5.8252,23.236,-5.89,-4.902,-4.9261,-9.9502,10.476,2.7937,5.8413,2.8846,3.9291,7.6006,-4.613,7.8818,-2.0513
5.5608,3.9365,3.9482,3.9216,0.98522,-0.25765,0.0,14.498,-2.0065,3.9216,0.98522,-2.9851,9.5238,1.8413,8.6984,2.8846,4.8953,11.465,-2.7172,8.867,-2.0513
6.5087,2.9841,4.9191,9.8039,4.9261,8.438,2.9126,6.7314,-0.06472,9.8039,4.9261,2.9851,4.7619,-1.0159,3.9365,0.0,0.06441,9.533,-3.6651,4.9261,-3.0128
-2.0221,0.12698,-1.877,11.765,7.8818,8.438,4.8544,8.6731,-1.0356,11.765,7.8818,3.9801,-3.8095,-6.7302,-7.4921,-6.7308,-10.564,6.6345,-6.5087,0.0,-5.8974
-6.7615,-1.7778,-6.7314,9.8039,6.8966,7.4718,4.8544,18.382,-0.06472,9.8039,6.8966,5.9701,-11.429,-9.5873,-15.111,-9.6154,-17.327,1.8035,-7.4566,-7.8818,-4.9359
-2.0221,-1.7778,-3.8188,13.725,6.8966,12.303,5.8252,11.586,-3.9482,13.725,6.8966,8.9552,-15.238,-7.6825,-13.206,-6.7308,-15.395,1.8035,-10.3,-12.808,-3.0128
8.4044,0.12698,3.9482,14.706,5.9113,17.134001,4.8544,3.8188,-6.8608,14.706,5.9113,10.945,-11.429,-1.9683,-3.6825,-0.96154,-6.6989,3.7359,-8.4044,-8.867,0.83333
10.3,0.12698,4.9191,10.784,3.9409,5.5395,0.97087,15.469,-6.8608,10.784,3.9409,5.9701,-4.7619,4.6984,3.9365,4.8077,1.0306,2.7697,-3.6651,-3.9409,5.641
3.6651,-0.8254,2.0065,1.9608,0.98522,-4.1224,-0.97087,12.557,-5.89,1.9608,0.98522,0.0,-3.8095,6.6032,3.9365,5.7692,3.9291,-2.0612,-0.82148,-5.9113,8.5256
-1.0742,2.0317,2.0065,-0.98039,1.9704,-3.1562,2.9126,-2.0065,-2.9773,-0.98039,1.9704,0.99502,-0.95238,7.5556,3.9365,5.7692,6.8277,-4.9597,2.0221,-4.9261,6.6026
-3.9179,2.0317,1.0356,-2.9412,2.9557,-3.1562,3.8835,-2.9773,-1.0356,-2.9412,2.9557,0.99502,-1.9048,3.746,0.12698,2.8846,4.8953,-7.8583,0.12638,-5.9113,1.7949
1.7694,4.8889,5.89,0.0,5.9113,4.5733,6.7961,0.90615,3.8188,0.0,5.9113,5.9701,0.0,3.746,2.9841,3.8462,6.8277,-2.0612,5.8136,-1.9704,1.7949
7.4566,4.8889,8.8026,3.9216,8.867,12.303,8.7379,-0.06472,5.7605,3.9216,8.867,10.945,2.8571,3.746,5.8413,3.8462,7.7939,0.83736,8.6572,0.98522,1.7949
8.4044,2.9841,7.8317,10.784,8.867,13.269,8.7379,8.6731,3.8188,10.784,8.867,11.94,3.8095,1.8413,4.8889,1.9231,5.8615,1.8035,4.8657,0.98522,-2.0513
1.7694,1.0794,3.9482,13.725,8.867,5.5395,6.7961,16.440001,2.8479,13.725,8.867,9.9502,3.8095,-1.0159,0.12698,-0.96154,2.963,1.8035,2.97,0.98522,-3.9744
0.82148,-0.8254,1.0356,7.8431,5.9113,7.4718,3.8835,-2.0065,0.90615,7.8431,5.9113,7.9602,-0.95238,-4.8254,-4.6349,-3.8462,-0.90177,-3.9936,2.0221,-2.9557,-4.9359
-11.501,-9.3968,-8.6731,1.9608,1.9704,-9.9195,-3.8835,-0.06472,-2.9773,1.9608,1.9704,-2.9851,-7.619,-11.492,-14.159,-10.577,-9.5974,-6.8921,-1.7694,-9.8522,-8.7821
-16.24,-12.254,-12.557,-0.98039,0.0,-15.717,-8.7379,2.8479,-2.9773,-0.98039,0.0,-8.9552,-6.6667,-10.54,-15.111,-11.538,-11.53,-6.8921,-1.7694,-8.867,-6.859
-12.449,-9.3968,-11.586,4.902,3.9409,-10.886,-4.8544,1.877,1.877,4.902,3.9409,-6.9652,-5.7143,-7.6825,-14.159,-8.6538,-10.564,-4.9597,2.97,-7.8818,-1.0897
-15.292,-5.5873,-11.586,-2.9412,-1.9704,-11.852,-5.8252,-8.8026,-0.06472,-2.9412,-1.9704,-9.9502,-9.5238,-6.7302,-17.016001,-6.7308,-12.496,-4.9597,2.97,-12.808,1.7949
-16.24,-3.6825,-10.615,-5.8824,-3.9409,-10.886,-5.8252,-12.686,-3.9482,-5.8824,-3.9409,-9.9502,-10.476,-4.8254,-17.968,-5.7692,-13.462,-7.8583,0.12638,-11.823,1.7949
-8.6572,0.12698,-6.7314,0.0,0.0,-3.1562,-3.8835,-9.7735,-2.9773,0.0,0.0,-5.9701,-5.7143,0.88889,-11.302,0.0,-8.6312,-5.9259,3.9179,-4.9261,5.641
-1.0742,2.0317,-1.877,5.8824,1.9704,0.70853,-0.97087,-6.8608,-2.0065,5.8824,1.9704,-1.99,-2.8571,4.6984,-4.6349,3.8462,-4.7665,0.83736,5.8136,0.98522,9.4872
5.5608,2.9841,0.06472,2.9412,0.0,4.5733,-0.97087,-0.06472,-5.89,2.9412,0.0,0.0,0.0,6.6032,2.0317,6.7308,0.06441,4.7021,2.0221,5.9113,10.449
6.5087,5.8413,2.0065,4.902,4.9261,2.6409,2.9126,13.528,-2.9773,4.902,4.9261,2.9851,0.95238,8.5079,3.9365,7.6923,1.9968,8.5668,2.0221,6.8966,10.449
8.4044,7.746,5.89,5.8824,7.8818,1.6747,5.8252,17.410999,4.7896,5.8824,7.8818,3.9801,2.8571,9.4603,7.746,8.6538,4.8953,7.6006,5.8136,8.867,7.5641
8.4044,6.7937,5.89,2.9412,3.9409,3.6071,3.8835,-2.9773,2.8479,2.9412,3.9409,2.9851,2.8571,7.5556,9.6508,5.7692,4.8953,6.6345,4.8657,10.837,4.6795
7.4566,2.9841,4.9191,1.9608,0.98522,-0.25765,0.97087,0.90615,-2.0065,1.9608,0.98522,0.0,0.95238,2.7937,7.746,0.96154,1.9968,3.7359,1.0742,8.867,-1.0897
7.4566,0.12698,1.0356,-0.98039,-1.9704,2.6409,-2.9126,-5.89,-2.9773,-0.98039,-1.9704,-0.99502,0.0,-0.06349,5.8413,-2.8846,0.06441,5.6683,1.0742,9.8522,-3.0128
3.6651,-2.7302,-1.877,0.98039,-0.98522,7.4718,-3.8835,-12.686,-3.9482,0.98039,-0.98522,0.0,-0.95238,-2.9206,1.0794,-3.8462,-2.8341,3.7359,1.0742,6.8966,-3.0128
-7.7093,-7.4921,-9.644,-2.9412,-3.9409,0.70853,-7.767,-0.06472,-5.89,-2.9412,-3.9409,-4.9751,-7.619,-8.6349,-8.4444,-8.6538,-9.5974,-3.9936,-0.82148,0.0,-6.859
-11.501,-9.3968,-10.615,-1.9608,-4.9261,-5.0886,-7.767,-5.89,-6.8608,-1.9608,-4.9261,-5.9701,-10.476,-12.444,-12.254,-11.538,-12.496,-7.8583,-0.82148,-3.9409,-7.8205
-2.97,-2.7302,-1.877,1.9608,-1.9704,0.70853,-2.9126,-2.0065,-2.9773,1.9608,-1.9704,0.0,-6.6667,-8.6349,-3.6825,-5.7692,-6.6989,-3.0274,3.9179,-0.98522,-3.0128
1.7694,1.0794,2.0065,0.98039,-1.9704,-3.1562,-0.97087,6.7314,-2.9773,0.98039,-1.9704,0.0,-2.8571,-5.7778,1.0794,-1.9231,-1.868,-0.12882,4.8657,0.98522,-1.0897
-0.12638,0.12698,1.0356,-1.9608,-3.9409,-9.9195,-4.8544,3.8188,-2.9773,-1.9608,-3.9409,-4.9751,-3.8095,-5.7778,-0.8254,-0.96154,-1.868,-1.095,3.9179,-0.98522,-1.0897
-4.8657,1.0794,-1.877,-3.9216,-2.9557,-8.9533,-2.9126,-8.8026,-2.0065,-3.9216,-2.9557,-4.9751,-3.8095,-5.7778,-3.6825,-0.96154,-2.8341,-2.0612,1.0742,-4.9261,-2.0513
-1.0742,2.9841,2.0065,-3.9216,-1.9704,-0.25765,0.0,-13.657,-1.0356,-3.9216,-1.9704,0.99502,-0.95238,-1.9683,0.12698,1.9231,1.0306,-0.12882,2.0221,-1.9704,-0.12821
4.613,2.0317,5.89,-0.98039,0.98522,1.6747,1.9417,-1.0356,-2.0065,-0.98039,0.98522,4.9751,0.0,-1.0159,4.8889,2.8846,3.9291,2.7697,0.12638,0.0,1.7949
9.3523,1.0794,9.7735,1.9608,1.9704,3.6071,2.9126,15.469,-2.0065,1.9608,1.9704,5.9701,2.8571,1.8413,10.603,2.8846,6.8277,6.6345,-3.6651,3.9409,2.7564
21.674999,3.9365,16.57,6.8627,5.9113,22.931,7.767,-17.540001,-0.06472,6.8627,5.9113,12.935,7.619,5.6508,18.222,5.7692,12.625,10.499,-0.82148,9.8522,2.7564
13.144,2.9841,9.7735,9.8039,3.9409,12.303,4.8544,10.615,-0.06472,9.8039,3.9409,6.9652,4.7619,4.6984,14.413,3.8462,9.7262,9.533,0.12638,6.8966,0.83333
3.6651,2.0317,2.0065,8.8235,3.9409,2.6409,1.9417,28.091,-2.0065,8.8235,3.9409,2.9851,0.95238,0.88889,6.7937,0.96154,3.9291,8.5668,2.97,3.9409,-0.12821
-1.0742,2.0317,-0.90615,8.8235,6.8966,2.6409,1.9417,11.586,2.8479,8.8235,6.8966,2.9851,-3.8095,-1.9683,-0.8254,-0.96154,-0.90177,1.8035,6.7615,-1.9704,0.83333
-2.97,2.0317,0.06472,9.8039,7.8818,5.5395,3.8835,2.8479,5.7605,9.8039,7.8818,4.9751,-7.619,-4.8254,-4.6349,-2.8846,-4.7665,-3.0274,6.7615,-5.9113,-0.12821
-2.0221,0.12698,2.0065,10.784,7.8818,4.5733,4.8544,4.7896,7.7023,10.784,7.8818,5.9701,-8.5714,-7.6825,-3.6825,-4.8077,-5.7327,-3.0274,4.8657,-6.8966,-3.9744
2.7172,-0.8254,2.9773,6.8627,5.9113,7.4718,4.8544,-6.8608,6.7314,6.8627,5.9113,5.9701,-6.6667,-6.7302,0.12698,-4.8077,-3.8003,-3.9936,2.97,-4.9261,-3.9744
3.6651,1.0794,2.9773,3.9216,5.9113,3.6071,3.8835,-6.8608,8.6731,3.9216,5.9113,2.9851,-0.95238,-1.9683,2.9841,-0.96154,0.06441,-3.9936,3.9179,-0.98522,-0.12821
-2.0221,2.9841,-0.90615,-2.9412,0.98522,-6.0548,0.0,2.8479,6.7314,-2.9412,0.98522,-3.9801,0.0,-1.0159,2.0317,1.9231,1.0306,-7.8583,3.9179,-0.98522,2.7564
-2.97,4.8889,0.06472,-6.8627,-2.9557,-6.0548,-0.97087,-9.7735,3.8188,-6.8627,-2.9557,-5.9701,-0.95238,-0.06349,0.12698,3.8462,2.963,-10.757,4.8657,-3.9409,5.641
-3.9179,3.9365,0.06472,-2.9412,-3.9409,-7.0209,-0.97087,2.8479,4.7896,-2.9412,-3.9409,-3.9801,0.95238,-0.06349,-0.8254,2.8846,2.963,-8.8245,5.8136,-2.9557,4.6795
-5.8136,-4.6349,-5.7605,-6.8627,-7.8818,-8.9533,-5.8252,4.7896,-2.9773,-6.8627,-7.8818,-6.9652,-2.8571,-2.9206,-3.6825,-2.8846,-2.8341,-1.095,-0.82148,-0.98522,-0.12821
-6.7615,-11.302,-9.644,-7.8431,-10.837,-6.0548,-11.65,-1.0356,-5.89,-7.8431,-10.837,-8.9552,-7.619,-7.6825,-7.4921,-9.6154,-8.6312,-1.095,-7.4566,-1.9704,-6.859
-4.8657,-13.206,-11.586,-1.9608,-5.9113,0.70853,-10.68,-9.7735,-5.89,-1.9608,-5.9113,-6.9652,-8.5714,-8.6349,-8.4444,-11.538,-11.53,-0.12882,-6.5087,-0.98522,-7.8205
-2.97,-11.302,-9.644,3.9216,-7.8818,1.6747,-9.7087,4.7896,-5.89,3.9216,-7.8818,-5.9701,-7.619,-7.6825,-5.5873,-8.6538,-8.6312,2.7697,-4.613,0.98522,-4.9359
2.7172,-7.4921,-4.7896,3.9216,-5.9113,6.5056,-5.8252,-4.9191,-3.9482,3.9216,-5.9113,-1.99,-6.6667,-4.8254,0.12698,-3.8462,-2.8341,4.7021,-4.613,1.9704,-3.0128
2.7172,-6.5397,-2.8479,-0.98039,-6.8966,-1.2238,-7.767,4.7896,-4.9191,-0.98039,-6.8966,-4.9751,-4.7619,-2.9206,2.9841,-1.9231,-0.90177,5.6683,-2.7172,2.9557,-2.0513
7.4566,-4.6349,0.06472,0.0,-5.9113,-6.0548,-5.8252,20.323999,-2.0065,0.0,-5.9113,-4.9751,-0.95238,0.88889,7.746,0.96154,3.9291,9.533,-0.82148,4.9261,0.83333
10.3,-0.8254,2.0065,-1.9608,-3.9409,-0.25765,-1.9417,-3.9482,-1.0356,-1.9608,-3.9409,-1.99,-0.95238,0.88889,8.6984,0.96154,5.8615,7.6006,-0.82148,3.9409,1.7949
6.5087,2.9841,2.0065,-1.9608,-1.9704,2.6409,0.97087,0.90615,0.90615,-1.9608,-1.9704,-0.99502,-1.9048,-1.0159,6.7937,1.9231,5.8615,5.6683,1.0742,0.98522,1.7949
4.613,7.746,5.89,0.0,0.0,-0.25765,4.8544,7.7023,5.7605,0.0,0.0,0.99502,0.95238,0.88889,7.746,3.8462,7.7939,6.6345,4.8657,1.9704,3.7179
6.5087,11.556,11.715,2.9412,3.9409,8.438,9.7087,-8.8026,9.644,2.9412,3.9409,7.9602,1.9048,1.8413,8.6984,5.7692,10.692,1.8035,6.7615,1.9704,4.6795
5.5608,11.556,13.657,0.0,6.8966,11.337,14.563,-6.8608,11.586,0.0,6.8966,12.935,2.8571,0.88889,6.7937,4.8077,9.7262,-3.0274,6.7615,0.0,1.7949
-2.0221,7.746,8.8026,0.98039,7.8818,4.5733,14.563,4.7896,17.410999,0.98039,7.8818,10.945,0.95238,-1.9683,2.0317,0.96154,5.8615,-3.9936,7.7093,-2.9557,-1.0897
-3.9179,7.746,6.8608,-0.98039,6.8966,0.70853,13.592,4.7896,18.382,-0.98039,6.8966,8.9552,-0.95238,-3.873,-0.8254,-0.96154,2.963,-5.9259,7.7093,-5.9113,-2.0513
-4.8657,5.8413,3.9482,-5.8824,1.9704,-2.19,7.767,-6.8608,15.469,-5.8824,1.9704,3.9801,-2.8571,-4.8254,-3.6825,-3.8462,-0.90177,-10.757,6.7615,-7.8818,-4.9359
-11.501,3.9365,-1.877,-10.784,-1.9704,-11.852,1.9417,-8.8026,12.557,-10.784,-1.9704,-2.9851,-4.7619,-5.7778,-8.4444,-4.8077,-5.7327,-15.588,4.8657,-10.837,-3.9744
-12.449,0.12698,-5.7605,-17.646999,-4.9261,-8.9533,-1.9417,-38.900002,11.586,-17.646999,-4.9261,-5.9701,-4.7619,-3.873,-9.3968,-4.8077,-6.6989,-19.452,3.9179,-12.808,-2.0513
-10.553,-2.7302,-6.7314,-10.784,-2.9557,-7.0209,-0.97087,-22.395,10.615,-10.784,-2.9557,-3.9801,0.95238,1.8413,-5.5873,-2.8846,-4.7665,-14.622,0.12638,-5.9113,0.83333
-7.7093,-5.5873,-7.7023,-8.8235,-4.9261,-5.0886,-2.9126,-11.715,8.6731,-8.8235,-4.9261,-3.9801,7.619,6.6032,-0.8254,-1.9231,-2.8341,-6.8921,-4.613,0.98522,1.7949
-10.553,-8.4444,-9.644,-14.706,-8.867,-14.75,-7.767,-4.9191,1.877,-14.706,-8.867,-9.9502,10.476,8.5079,-0.8254,-1.9231,-2.8341,-8.8245,-4.613,5.9113,2.7564
-7.7093,-6.5397,-8.6731,-18.627001,-15.764,-15.717,-9.7087,-2.9773,-2.0065,-18.627001,-15.764,-12.935,13.333,11.365,2.9841,0.0,1.0306,-8.8245,-2.7172,9.8522,3.7179
-2.0221,-1.7778,-5.7605,-19.608,-14.778,-12.818,-6.7961,-15.599,0.90615,-19.608,-14.778,-11.94,16.190001,14.222,5.8413,4.8077,4.8953,-3.9936,-2.7172,11.823,5.641
-2.0221,-0.8254,-6.7314,-19.608,-13.793,-14.75,-6.7961,-8.8026,2.8479,-19.608,-13.793,-11.94,17.143,15.175,4.8889,6.7308,5.8615,-0.12882,-1.7694,11.823,7.5641
-3.9179,-0.8254,-5.7605,-16.667,-9.8522,-13.784,-5.8252,-9.7735,2.8479,-16.667,-9.8522,-10.945,17.143,17.079,5.8413,8.6538,6.8277,0.83736,-1.7694,10.837,9.4872
0.82148,-0.8254,-0.90615,-11.765,-3.9409,-4.1224,-2.9126,-24.337,4.7896,-11.765,-3.9409,-4.9751,19.048,18.032,8.6984,11.538,10.692,-0.12882,0.12638,13.793,10.449
3.6651,-3.6825,-0.90615,-7.8431,-1.9704,2.6409,-1.9417,-26.278,3.8188,-7.8431,-1.9704,-1.99,17.143,16.127001,8.6984,9.6154,9.7262,0.83736,-0.82148,12.808,7.5641
-5.8136,-5.5873,-6.7314,-7.8431,-2.9557,-10.886,-3.8835,1.877,3.8188,-7.8431,-2.9557,-6.9652,10.476,10.413,2.0317,3.8462,2.963,-2.0612,-1.7694,5.9113,2.7564
-3.9179,2.0317,0.06472,-1.9608,3.9409,-7.0209,3.8835,8.6731,9.644,-1.9608,3.9409,0.0,9.5238,9.4603,2.9841,6.7308,4.8953,-1.095,1.0742,5.9113,4.6795
4.613,11.556,12.686,3.9216,10.837,7.4718,14.563,-0.06472,13.528,3.9216,10.837,12.935,9.5238,8.5079,8.6984,10.577,9.7262,0.83736,3.9179,6.8966,5.641
10.3,17.27,20.452999,10.784,13.793,14.235,19.417,7.7023,13.528,10.784,13.793,18.905001,10.476,8.5079,13.46,14.423,14.557,3.7359,6.7615,6.8966,7.5641
16.934999,18.222,22.395,13.725,16.749001,20.032,20.388,2.8479,11.586,13.725,16.749001,22.886,10.476,8.5079,17.27,16.346001,16.49,7.6006,5.8136,8.867,10.449
9.3523,11.556,13.657,9.8039,13.793,13.269,13.592,8.6731,9.644,9.8039,13.793,17.91,7.619,5.6508,11.556,12.5,11.659,3.7359,3.9179,5.9113,8.5256
-0.12638,2.0317,4.9191,10.784,10.837,7.4718,7.767,3.8188,5.7605,10.784,10.837,11.94,1.9048,0.88889,2.9841,4.8077,4.8953,-1.095,-0.82148,0.0,3.7179
-1.0742,-0.8254,4.9191,5.8824,8.867,10.37,4.8544,-17.540001,6.7314,5.8824,8.867,9.9502,-2.8571,-3.873,0.12698,0.0,1.9968,-6.8921,1.0742,-5.9113,-1.0897
-1.0742,1.0794,5.89,3.9216,7.8818,4.5733,5.8252,-7.8317,5.7605,3.9216,7.8818,8.9552,-4.7619,-4.8254,-0.8254,0.0,1.0306,-6.8921,4.8657,-8.867,-0.12821
-5.8136,1.0794,1.0356,-0.98039,1.9704,-7.0209,0.97087,7.7023,2.8479,-0.98039,1.9704,1.99,-8.5714,-5.7778,-3.6825,-1.9231,-1.868,-6.8921,3.9179,-12.808,-0.12821
2.7172,4.8889,2.0065,-1.9608,2.9557,-5.0886,1.9417,3.8188,2.8479,-1.9608,2.9557,0.99502,-3.8095,-1.0159,2.0317,1.9231,2.963,-2.0612,3.9179,-7.8818,2.7564
8.4044,7.746,2.9773,-2.9412,1.9704,-2.19,0.0,1.877,1.877,-2.9412,1.9704,-0.99502,1.9048,5.6508,5.8413,6.7308,6.8277,2.7697,2.97,0.0,5.641
2.7172,1.0794,-3.8188,-6.8627,-3.9409,-6.0548,-6.7961,-17.540001,-3.9482,-6.8627,-3.9409,-8.9552,2.8571,5.6508,2.0317,3.8462,3.9291,-1.095,-1.7694,0.98522,1.7949
-1.0742,-3.6825,-8.6731,-4.902,-3.9409,-2.19,-9.7087,-19.482,-4.9191,-4.902,-3.9409,-9.9502,5.7143,8.5079,-0.8254,1.9231,1.9968,-2.0612,-2.7172,2.9557,0.83333
-9.6051,-6.5397,-11.586,0.0,-0.98522,-9.9195,-8.7379,2.8479,-3.9482,0.0,-0.98522,-7.9602,3.8095,7.5556,-6.5397,0.96154,-1.868,-1.095,-0.82148,-1.9704,1.7949
-5.8136,-3.6825,-2.8479,1.9608,1.9704,-7.0209,-1.9417,10.615,-3.9482,1.9608,1.9704,-1.99,4.7619,7.5556,-2.7302,2.8846,1.9968,-0.12882,1.0742,-0.98522,2.7564
1.7694,0.12698,5.89,1.9608,3.9409,-0.25765,2.9126,2.8479,-2.0065,1.9608,3.9409,1.99,5.7143,7.5556,3.9365,4.8077,6.8277,-2.0612,0.12638,1.9704,2.7564
3.6651,3.9365,8.8026,1.9608,2.9557,-1.2238,3.8835,1.877,-4.9191,1.9608,2.9557,0.99502,6.6667,5.6508,4.8889,4.8077,7.7939,2.7697,-4.613,3.9409,-0.12821
5.5608,4.8889,5.89,6.8627,0.98522,3.6071,2.9126,-4.9191,-11.715,6.8627,0.98522,2.9851,4.7619,2.7937,3.9365,3.8462,5.8615,10.499,-5.5608,4.9261,-1.0897
5.5608,1.0794,0.06472,9.8039,0.0,9.4042,-0.97087,3.8188,-20.452999,9.8039,0.0,1.99,1.9048,-2.9206,2.0317,-0.96154,1.9968,11.465,-5.5608,3.9409,-3.9744
5.5608,2.9841,2.0065,15.686,2.9557,8.438,-0.97087,31.974001,-20.452999,15.686,2.9557,1.99,3.8095,-2.9206,3.9365,1.9231,3.9291,15.33,-7.4566,7.8818,-4.9359
3.6651,6.7937,5.89,16.667,5.9113,6.5056,0.0,25.177999,-19.482,16.667,5.9113,1.99,2.8571,-2.9206,5.8413,4.8077,6.8277,14.364,-8.4044,7.8818,-3.0128
1.7694,5.8413,6.8608,9.8039,2.9557,5.5395,-1.9417,12.557,-18.511,9.8039,2.9557,-0.99502,-0.95238,-6.7302,2.9841,2.8846,5.8615,8.5668,-8.4044,1.9704,-5.8974
4.613,5.8413,7.8317,13.725,6.8966,2.6409,2.9126,25.177999,-14.628,13.725,6.8966,2.9851,-1.9048,-5.7778,3.9365,1.9231,4.8953,9.533,-6.5087,2.9557,-5.8974
11.248,3.9365,9.7735,19.608,8.867,10.37,6.7961,28.091,-13.657,19.608,8.867,9.9502,-2.8571,-5.7778,4.8889,0.0,3.9291,13.398,-6.5087,2.9557,-4.9359
10.3,-1.7778,5.89,18.627001,7.8818,14.235,5.8252,19.353001,-15.599,18.627001,7.8818,10.945,-9.5238,-11.492,-0.8254,-7.6923,-3.8003,6.6345,-8.4044,-4.9261,-9.7436
7.4566,-2.7302,4.9191,12.745,5.9113,11.337,2.9126,11.586,-15.599,12.745,5.9113,8.9552,-11.429,-13.397,-3.6825,-9.6154,-6.6989,-1.095,-9.3523,-9.8522,-10.705
6.5087,-0.8254,3.9482,12.745,9.8522,13.269,3.8835,11.586,-14.628,12.745,9.8522,10.945,-9.5238,-8.6349,-3.6825,-7.6923,-6.6989,0.83736,-7.4566,-8.867,-8.7821
10.3,2.0317,3.9482,16.667,14.778,26.795,7.767,-10.744,-7.8317,16.667,14.778,15.92,-7.619,-4.8254,-4.6349,-4.8077,-5.7327,0.83736,-3.6651,-8.867,-6.859
1.7694,2.0317,1.0356,19.608,16.749001,19.066,8.7379,-2.0065,-6.8608,19.608,16.749001,15.92,-6.6667,-2.9206,-10.349,-3.8462,-7.6651,0.83736,-2.7172,-8.867,-3.9744
-9.6051,-0.8254,-1.877,18.627001,12.808,1.6747,5.8252,28.091,-10.744,18.627001,12.808,9.9502,-8.5714,-4.8254,-16.063,-6.7308,-11.53,2.7697,-9.3523,-9.8522,-4.9359
-8.6572,-4.6349,-2.8479,11.765,8.867,-3.1562,0.97087,20.323999,-12.686,11.765,8.867,4.9751,-11.429,-5.7778,-17.968,-9.6154,-13.462,0.83736,-11.248,-11.823,-7.8205
-0.12638,-3.6825,1.0356,9.8039,5.9113,1.6747,0.0,12.557,-13.657,9.8039,5.9113,5.9701,-7.619,-2.9206,-10.349,-5.7692,-7.6651,2.7697,-8.4044,-5.9113,-4.9359
3.6651,-3.6825,2.0065,6.8627,3.9409,3.6071,-0.97087,0.90615,-15.599,6.8627,3.9409,4.9751,-4.7619,-0.06349,-4.6349,-3.8462,-3.8003,2.7697,-8.4044,-1.9704,-3.9744
8.4044,-3.6825,2.9773,6.8627,3.9409,3.6071,-0.97087,2.8479,-16.57,6.8627,3.9409,4.9751,0.95238,2.7937,2.0317,-2.8846,1.0306,6.6345,-10.3,3.9409,-3.9744
12.196,-4.6349,5.89,8.8235,2.9557,6.5056,0.0,3.8188,-14.628,8.8235,2.9557,5.9701,5.7143,5.6508,8.6984,-0.96154,5.8615,13.398,-10.3,10.837,-3.0128
14.092,-5.5873,5.89,6.8627,1.9704,11.337,-1.9417,-4.9191,-14.628,6.8627,1.9704,3.9801,9.5238,7.5556,12.508,0.96154,8.7601,11.465,-9.3523,12.808,-2.0513
6.5087,-5.5873,2.0065,-2.9412,-3.9409,2.6409,-7.767,-5.89,-14.628,-2.9412,-3.9409,-3.9801,8.5714,6.6032,8.6984,0.96154,7.7939,4.7021,-7.4566,11.823,-2.0513
-1.0742,-3.6825,-0.90615,-2.9412,-3.9409,-7.0209,-6.7961,7.7023,-8.8026,-2.9412,-3.9409,-6.9652,4.7619,1.8413,3.9365,-0.96154,5.8615,6.6345,-4.613,7.8818,-3.9744
-0.12638,0.12698,3.9482,-2.9412,-2.9557,1.6747,-0.97087,-8.8026,-2.9773,-2.9412,-2.9557,0.99502,2.8571,-0.06349,2.0317,-1.9231,3.9291,4.7021,-0.82148,4.9261,-3.9744
-0.12638,0.12698,5.89,2.9412,2.9557,2.6409,4.8544,4.7896,2.8479,2.9412,2.9557,6.9652,0.0,-1.9683,0.12698,-2.8846,1.0306,4.7021,2.0221,1.9704,-3.0128
-3.9179,-1.7778,2.9773,5.8824,4.9261,0.70853,4.8544,11.586,6.7314,5.8824,4.9261,5.9701,-9.5238,-9.5873,-7.4921,-7.6923,-6.6989,-1.095,2.0221,-5.9113,-6.859
-2.97,1.0794,2.0065,6.8627,7.8818,0.70853,7.767,0.90615,9.644,6.8627,7.8818,6.9652,-15.238,-12.444,-10.349,-5.7692,-10.564,-3.9936,5.8136,-12.808,-5.8974
-5.8136,2.9841,-2.8479,-0.98039,2.9557,-4.1224,4.8544,0.90615,11.586,-0.98039,2.9557,0.0,-18.094999,-13.397,-12.254,-3.8462,-12.496,-4.9597,7.7093,-17.733999,-3.0128
0.82148,8.6984,1.0356,-1.9608,0.98522,2.6409,5.8252,-2.9773,11.586,-1.9608,0.98522,0.99502,-15.238,-8.6349,-7.4921,2.8846,-6.6989,-3.0274,9.6051,-13.793,1.7949
9.3523,13.46,6.8608,0.98039,0.98522,8.438,7.767,2.8479,11.586,0.98039,0.98522,3.9801,-10.476,-3.873,-0.8254,8.6538,-1.868,0.83736,11.501,-9.8522,5.641
2.7172,11.556,2.9773,0.98039,-0.98522,0.70853,3.8835,9.644,9.644,0.98039,-0.98522,0.99502,-10.476,-3.873,-1.7778,6.7308,-2.8341,-3.0274,10.553,-11.823,6.6026
-1.0742,9.6508,1.0356,-1.9608,-2.9557,2.6409,0.97087,-14.628,10.615,-1.9608,-2.9557,0.0,-8.5714,-1.9683,-1.7778,7.6923,-0.90177,-8.8245,7.7093,-11.823,8.5256
-1.0742,6.7937,-0.90615,-2.9412,-1.9704,-2.19,-0.97087,-0.06472,10.615,-2.9412,-1.9704,-2.9851,-3.8095,1.8413,0.12698,8.6538,1.9968,-6.8921,7.7093,-8.867,7.5641
-0.12638,0.12698,-4.7896,-6.8627,-3.9409,-2.19,-3.8835,0.90615,9.644,-6.8627,-3.9409,-5.9701,-0.95238,3.746,1.0794,4.8077,1.9968,-4.9597,8.6572,-5.9113,6.6026
-2.97,-5.5873,-5.7605,-10.784,-7.8818,-9.9195,-5.8252,-0.06472,7.7023,-10.784,-7.8818,-8.9552,0.95238,3.746,2.0317,1.9231,1.0306,-3.9936,7.7093,-1.9704,5.641
2.7172,-5.5873,1.0356,-9.8039,-3.9409,-6.0548,0.0,-2.0065,9.644,-9.8039,-3.9409,-3.9801,5.7143,6.6032,6.7937,0.96154,3.9291,1.8035,5.8136,4.9261,4.6795
5.5608,-2.7302,4.9191,-3.9216,-0.98522,-3.1562,5.8252,6.7314,11.586,-3.9216,-0.98522,1.99,6.6667,5.6508,9.6508,-0.96154,4.8953,5.6683,5.8136,8.867,2.7564
7.4566,1.0794,6.8608,-2.9412,0.98522,-0.25765,8.7379,8.6731,9.644,-2.9412,0.98522,4.9751,4.7619,2.7937,7.746,-0.96154,4.8953,7.6006,5.8136,6.8966,0.83333
0.82148,2.9841,3.9482,-7.8431,-0.98522,-1.2238,4.8544,3.8188,7.7023,-7.8431,-0.98522,1.99,2.8571,0.88889,3.9365,-0.96154,1.9968,5.6683,6.7615,6.8966,-1.0897
-3.9179,3.9365,2.0065,-8.8235,-1.9704,-2.19,3.8835,-1.0356,7.7023,-8.8235,-1.9704,0.0,-1.9048,-4.8254,-1.7778,-2.8846,-0.90177,0.83736,7.7093,1.9704,-3.9744
0.82148,8.6984,4.9191,-3.9216,-0.98522,10.37,7.767,-16.57,9.644,-3.9216,-0.98522,5.9701,-6.6667,-10.54,-2.7302,-1.9231,-0.90177,2.7697,10.553,-3.9409,-3.9744
-4.8657,7.746,0.06472,-1.9608,-2.9557,0.70853,5.8252,9.644,9.644,-1.9608,-2.9557,1.99,-12.381,-16.254,-7.4921,-5.7692,-6.6989,-2.0612,10.553,-7.8818,-6.859
-10.553,2.0317,-7.7023,-5.8824,-6.8966,-8.9533,0.0,10.615,10.615,-5.8824,-6.8966,-4.9751,-18.094999,-21.016001,-15.111,-10.577,-14.428,-11.723,10.553,-12.808,-7.8205
-6.7615,2.0317,-6.7314,-2.9412,0.0,-2.19,2.9126,-7.8317,14.498,-2.9412,0.0,-0.99502,-17.143,-18.159,-14.159,-8.6538,-14.428,-11.723,14.344,-12.808,-3.0128
-4.8657,-0.8254,-4.7896,-0.98039,2.9557,8.438,3.8835,-16.57,15.469,-0.98039,2.9557,3.9801,-16.190001,-15.302,-15.111,-8.6538,-14.428,-12.689,14.344,-12.808,-2.0513
-7.7093,-5.5873,-5.7605,-1.9608,0.98522,1.6747,2.9126,0.90615,12.557,-1.9608,0.98522,1.99,-14.286,-14.349,-14.159,-9.6154,-14.428,-8.8245,11.501,-9.8522,-0.12821
-4.8657,-5.5873,-6.7314,-3.9216,-0.98522,-6.0548,0.97087,14.498,8.6731,-3.9216,-0.98522,-1.99,-6.6667,-6.7302,-6.5397,-5.7692,-8.6312,-2.0612,9.6051,-2.9557,2.7564
-3.9179,-7.4921,-9.644,-11.765,-7.8818,-8.9533,-6.7961,-7.8317,0.90615,-11.765,-7.8818,-9.9502,-3.8095,-3.873,-1.7778,-2.8846,-4.7665,-3.0274,4.8657,-1.9704,4.6795
1.7694,-2.7302,-4.7896,-10.784,-10.837,-6.0548,-9.7087,-8.8026,-4.9191,-10.784,-10.837,-9.9502,4.7619,3.746,6.7937,6.7308,4.8953,-0.12882,3.9179,0.98522,10.449
7.4566,3.9365,2.9773,-8.8235,-10.837,-0.25765,-6.7961,-14.628,-2.9773,-8.8235,-10.837,-6.9652,15.238,13.27,15.365,15.385,15.523,0.83736,3.9179,7.8818,15.256
10.3,6.7937,4.9191,-8.8235,-6.8966,1.6747,-3.8835,-18.511,-2.0065,-8.8235,-6.8966,-5.9701,19.048,17.079,16.316999,18.268999,18.422001,4.7021,0.12638,10.837,15.256
-0.12638,3.9365,-2.8479,-7.8431,-5.9113,-6.0548,-6.7961,-7.8317,-2.9773,-7.8431,-5.9113,-10.945,18.094999,17.079,10.603,15.385,13.591,3.7359,1.0742,11.823,13.333
-11.501,-4.6349,-10.615,-6.8627,-5.9113,-18.615,-10.68,9.644,-6.8608,-6.8627,-5.9113,-14.925,16.190001,14.222,2.9841,8.6538,6.8277,1.8035,-2.7172,10.837,6.6026
-13.397,-12.254,-12.557,-4.902,-7.8818,-15.717,-13.592,2.8479,-11.715,-4.902,-7.8818,-14.925,11.429,10.413,-0.8254,1.9231,1.0306,-2.0612,-11.248,6.8966,1.7949
-5.8136,-15.111,-7.7023,0.0,-4.9261,-5.0886,-11.65,-3.9482,-8.8026,0.0,-4.9261,-9.9502,10.476,8.5079,0.12698,-2.8846,0.06441,-1.095,-11.248,9.8522,-2.0513
-0.12638,-15.111,-3.8188,1.9608,-5.9113,-0.25765,-10.68,-0.06472,-7.8317,1.9608,-5.9113,-6.9652,8.5714,4.6984,2.9841,-5.7692,-1.868,-1.095,-10.3,9.8522,-5.8974
-1.0742,-11.302,-3.8188,1.9608,-5.9113,-3.1562,-7.767,8.6731,-8.8026,1.9608,-5.9113,-5.9701,5.7143,1.8413,1.0794,-5.7692,-2.8341,-0.12882,-6.5087,7.8818,-4.9359
-2.97,-7.4921,-5.7605,-2.9412,-6.8966,-2.19,-6.7961,-4.9191,-5.89,-2.9412,-6.8966,-5.9701,-0.95238,-2.9206,-0.8254,-8.6538,-5.7327,-1.095,-3.6651,3.9409,-6.859
5.5608,-1.7778,-1.877,-2.9412,-6.8966,3.6071,-2.9126,-9.7735,-6.8608,-2.9412,-6.8966,-0.99502,-2.8571,-3.873,3.9365,-5.7692,-3.8003,0.83736,0.12638,4.9261,-5.8974
9.3523,3.9365,4.9191,-3.9216,-6.8966,1.6747,-0.97087,1.877,-5.89,-3.9216,-6.8966,0.99502,0.95238,-0.06349,9.6508,0.0,1.9968,3.7359,2.97,8.867,-1.0897
13.144,4.8889,7.8317,-3.9216,-6.8966,3.6071,-1.9417,-2.0065,-7.8317,-3.9216,-6.8966,1.99,3.8095,2.7937,13.46,3.8462,6.8277,7.6006,2.97,11.823,2.7564
11.248,1.0794,6.8608,-4.902,-11.823,3.6071,-4.8544,4.7896,-15.599,-4.902,-11.823,0.0,1.9048,1.8413,12.508,2.8846,6.8277,5.6683,0.12638,9.8522,1.7949
10.3,2.0317,11.715,1.9608,-5.9113,8.438,1.9417,7.7023,-12.686,1.9608,-5.9113,5.9701,3.8095,3.746,13.46,5.7692,9.7262,6.6345,-0.82148,11.823,2.7564
13.144,7.746,19.482,11.765,5.9113,14.235,11.65,17.410999,-6.8608,11.765,5.9113,16.915001,6.6667,6.6032,16.316999,9.6154,14.557,8.5668,2.0221,12.808,4.6795
11.248,10.603,21.424,12.745,5.9113,19.066,13.592,10.615,-4.9191,12.745,5.9113,19.9,3.8095,6.6032,13.46,10.577,13.591,4.7021,2.97,4.9261,6.6026
5.5608,9.6508,17.540001,7.8431,3.9409,13.269,9.7087,13.528,-6.8608,7.8431,3.9409,14.925,0.0,2.7937,7.746,7.6923,10.692,0.83736,-4.613,-0.98522,1.7949
8.4044,11.556,16.57,7.8431,1.9704,11.337,7.767,17.410999,-5.89,7.8431,1.9704,11.94,3.8095,5.6508,10.603,10.577,14.557,2.7697,-3.6651,0.98522,3.7179
14.092,11.556,14.628,6.8627,-0.98522,18.1,6.7961,3.8188,-7.8317,6.8627,-0.98522,10.945,10.476,10.413,14.413,12.5,17.455999,6.6345,-1.7694,4.9261,5.641
10.3,7.746,8.8026,3.9216,-3.9409,17.134001,1.9417,0.90615,-9.7735,3.9216,-3.9409,6.9652,9.5238,8.5079,10.603,10.577,14.557,2.7697,-4.613,3.9409,4.6795
7.4566,6.7937,7.8317,9.8039,-0.98522,10.37,2.9126,13.528,-9.7735,9.8039,-0.98522,6.9652,10.476,9.4603,9.6508,10.577,13.591,1.8035,-5.5608,1.9704,5.641
11.248,5.8413,11.715,13.725,0.98522,8.438,3.8835,15.469,-6.8608,13.725,0.98522,9.9502,15.238,11.365,14.413,10.577,15.523,5.6683,-6.5087,5.9113,5.641
16.934999,2.9841,14.628,10.784,2.9557,10.37,4.8544,18.382,-7.8317,10.784,2.9557,11.94,18.094999,11.365,19.174999,9.6154,17.455999,6.6345,-8.4044,12.808,5.641
11.248,-3.6825,8.8026,4.902,-1.9704,3.6071,0.0,16.440001,-10.744,4.902,-1.9704,6.9652,16.190001,7.5556,14.413,3.8462,11.659,3.7359,-10.3,10.837,1.7949
7.4566,-7.4921,5.89,9.8039,-0.98522,4.5733,1.9417,16.440001,-11.715,9.8039,-0.98522,8.9552,16.190001,5.6508,11.556,-0.96154,6.8277,9.533,-11.248,12.808,-2.0513
12.196,-3.6825,9.7735,11.765,0.0,13.269,5.8252,16.440001,-10.744,11.765,0.0,13.93,16.190001,5.6508,13.46,0.0,7.7939,13.398,-10.3,16.749001,-2.0513
13.144,-0.8254,10.744,9.8039,-0.98522,18.1,6.7961,4.7896,-10.744,9.8039,-0.98522,13.93,16.190001,5.6508,13.46,0.96154,7.7939,11.465,-12.196,17.733999,-2.0513
10.3,2.0317,8.8026,6.8627,0.0,13.269,3.8835,7.7023,-8.8026,6.8627,0.0,9.9502,18.094999,9.4603,13.46,4.8077,9.7262,10.499,-9.3523,18.719,0.83333
7.4566,3.9365,4.9191,3.9216,-0.98522,1.6747,0.97087,12.557,-6.8608,3.9216,-0.98522,2.9851,18.094999,10.413,12.508,7.6923,10.692,10.499,-5.5608,16.749001,2.7564
2.7172,3.9365,2.9773,0.0,-5.9113,-1.2238,-2.9126,1.877,-6.8608,0.0,-5.9113,-3.9801,14.286,8.5079,7.746,7.6923,8.7601,8.5668,-1.7694,12.808,1.7949
1.7694,3.9365,2.9773,-1.9608,-5.9113,-1.2238,-2.9126,5.7605,-6.8608,-1.9608,-5.9113,-4.9751,10.476,5.6508,4.8889,6.7308,6.8277,8.5668,-2.7172,8.867,1.7949
-0.12638,0.12698,0.06472,-6.8627,-4.9261,1.6747,-2.9126,-4.9191,-7.8317,-6.8627,-4.9261,-4.9751,6.6667,2.7937,0.12698,1.9231,1.0306,5.6683,-5.5608,5.9113,-2.0513
-4.8657,-4.6349,-4.7896,-4.902,-3.9409,-4.1224,-3.8835,4.7896,-6.8608,-4.902,-3.9409,-5.9701,0.95238,-1.0159,-6.5397,-3.8462,-4.7665,1.8035,-3.6651,-0.98522,-4.9359
-7.7093,-6.5397,-9.644,-1.9608,0.0,-7.9871,-1.9417,7.7023,-2.0065,-1.9608,0.0,-6.9652,-4.7619,-4.8254,-11.302,-7.6923,-9.5974,-0.12882,-0.82148,-6.8966,-4.9359
-8.6572,-5.5873,-10.615,-1.9608,0.0,-6.0548,-1.9417,-11.715,1.877,-1.9608,0.0,-5.9701,-7.619,-3.873,-12.254,-6.7308,-10.564,-3.0274,0.12638,-9.8522,-4.9359
-9.6051,-2.7302,-8.6731,-3.9216,1.9704,-8.9533,0.0,-1.0356,4.7896,-3.9216,1.9704,-4.9751,-6.6667,-1.9683,-10.349,-2.8846,-8.6312,-3.0274,2.0221,-9.8522,-0.12821
-8.6572,-1.7778,-5.7605,-1.9608,2.9557,-7.9871,-0.97087,2.8479,4.7896,-1.9608,2.9557,-3.9801,-4.7619,0.88889,-8.4444,0.96154,-4.7665,-3.0274,1.0742,-8.867,1.7949
-8.6572,-1.7778,-3.8188,0.98039,5.9113,1.6747,0.0,-21.424,3.8188,0.98039,5.9113,-0.99502,-2.8571,1.8413,-7.4921,2.8846,-2.8341,-5.9259,0.12638,-8.867,3.7179
-5.8136,1.0794,2.0065,4.902,9.8522,-1.2238,3.8835,3.8188,7.7023,4.902,9.8522,3.9801,0.95238,6.6032,-3.6825,7.6923,2.963,-4.9597,0.12638,-6.8966,6.6026
-2.0221,2.9841,6.8608,12.745,15.764,-0.25765,10.68,16.440001,9.644,12.745,15.764,9.9502,6.6667,12.317,1.0794,8.6538,7.7939,-4.9597,1.0742,-2.9557,7.5641
-0.12638,0.12698,2.9773,9.8039,15.764,1.6747,10.68,-0.06472,13.528,9.8039,15.764,8.9552,9.5238,13.27,1.0794,4.8077,4.8953,-8.8245,0.12638,-1.9704,5.641
-2.97,-3.6825,-3.8188,7.8431,14.778,-2.19,6.7961,4.7896,13.528,7.8431,14.778,3.9801,9.5238,13.27,-2.7302,0.96154,0.06441,-11.723,-0.82148,-1.9704,4.6795
-5.8136,-8.4444,-8.6731,3.9216,10.837,2.6409,0.0,-25.306999,7.7023,3.9216,10.837,0.99502,8.5714,11.365,-6.5397,-3.8462,-2.8341,-12.689,-4.613,-2.9557,0.83333
-10.553,-12.254,-11.586,4.902,9.8522,-3.1562,-3.8835,-9.7735,3.8188,4.902,9.8522,-1.99,4.7619,6.6032,-12.254,-8.6538,-8.6312,-9.7907,-8.4044,-2.9557,-3.0128
-13.397,-14.159,-11.586,1.9608,4.9261,-7.0209,-5.8252,-0.06472,1.877,1.9608,4.9261,-1.99,-0.95238,0.88889,-17.016001,-13.462,-12.496,-6.8921,-10.3,-5.9113,-7.8205
-12.449,-11.302,-9.644,0.98039,4.9261,-10.886,-4.8544,-4.9191,1.877,0.98039,4.9261,-1.99,-4.7619,-3.873,-16.063,-14.423,-13.462,-4.9597,-4.613,-6.8966,-7.8205
-8.6572,-6.5397,-9.644,0.0,4.9261,-12.818,-2.9126,-8.8026,4.7896,0.0,4.9261,-3.9801,-3.8095,-5.7778,-12.254,-11.538,-12.496,-1.095,0.12638,-0.98522,-5.8974
-8.6572,-4.6349,-13.528,-1.9608,4.9261,-10.886,-4.8544,-13.657,5.7605,-1.9608,4.9261,-8.9552,-2.8571,-6.7302,-11.302,-10.577,-12.496,3.7359,-2.7172,2.9557,-6.859
-11.501,-6.5397,-18.382,1.9608,3.9409,-12.818,-7.767,-1.0356,2.8479,1.9608,3.9409,-11.94,-5.7143,-8.6349,-13.206,-12.5,-15.395,9.533,-2.7172,1.9704,-5.8974
-14.344,-6.5397,-19.353001,0.98039,3.9409,-10.886,-10.68,-2.0065,-0.06472,0.98039,3.9409,-11.94,-11.429,-10.54,-17.016001,-11.538,-17.327,5.6683,-3.6651,-3.9409,-3.9744
-14.344,-5.5873,-15.469,1.9608,3.9409,-11.852,-10.68,0.90615,0.90615,1.9608,3.9409,-10.945,-16.190001,-11.492,-17.968,-10.577,-18.292999,2.7697,-1.7694,-8.867,-2.0513
-8.6572,-7.4921,-12.557,0.0,-0.98522,-6.0548,-10.68,-4.9191,-2.9773,0.0,-0.98522,-9.9502,-21.905001,-17.205999,-18.921,-14.423,-21.191999,0.83736,-3.6651,-12.808,-3.9744
-2.97,-10.349,-9.644,-1.9608,-0.98522,-4.1224,-8.7379,0.90615,-1.0356,-1.9608,-0.98522,-8.9552,-23.809999,-21.016001,-17.016001,-18.268999,-23.124001,1.8035,-4.613,-12.808,-7.8205
-3.9179,-13.206,-11.586,-3.9216,1.9704,-10.886,-6.7961,7.7023,2.8479,-3.9216,1.9704,-10.945,-23.809999,-21.968,-15.111,-22.115,-23.124001,1.8035,-3.6651,-10.837,-12.628
-4.8657,-12.254,-13.528,-1.9608,5.9113,-8.9533,-3.8835,-6.8608,7.7023,-1.9608,5.9113,-9.9502,-22.857,-22.921,-14.159,-22.115,-22.158001,-1.095,-1.7694,-9.8522,-13.59
-10.553,-8.4444,-14.498,-2.9412,5.9113,-14.75,-3.8835,-7.8317,9.644,-2.9412,5.9113,-10.945,-21.905001,-20.063,-15.111,-18.268999,-20.225,-5.9259,1.0742,-10.837,-12.628
-15.292,-1.7778,-9.644,-4.902,5.9113,-10.886,0.0,-12.686,8.6731,-4.902,5.9113,-5.9701,-20.0,-17.205999,-17.968,-14.423,-18.292999,-10.757,-0.82148,-12.808,-10.705
-14.344,2.9841,-2.8479,-9.8039,3.9409,-0.25765,4.8544,-32.104,10.615,-9.8039,3.9409,0.0,-18.094999,-15.302,-17.968,-10.577,-16.361,-15.588,3.9179,-14.778,-6.859
-10.553,1.0794,-1.877,-5.8824,4.9261,3.6071,5.8252,-30.162001,15.469,-5.8824,4.9261,1.99,-17.143,-14.349,-17.968,-8.6538,-16.361,-16.554001,10.553,-13.793,-5.8974
-15.292,-3.6825,-8.6731,-2.9412,6.8966,-7.0209,2.9126,-2.9773,20.323999,-2.9412,6.8966,-2.9851,-16.190001,-13.397,-21.778,-10.577,-20.225,-18.486,10.553,-16.749001,-6.859
-18.136,-10.349,-16.440001,0.0,9.8522,-10.886,0.0,-2.9773,22.264999,0.0,9.8522,-5.9701,-17.143,-13.397,-25.587,-12.5,-24.09,-19.452,8.6572,-18.719,-6.859
-21.927,-15.111,-24.207001,-2.9412,6.8966,-10.886,-6.7961,-18.511,22.264999,-2.9412,6.8966,-10.945,-22.857,-18.159,-31.302,-16.346001,-29.886999,-23.316999,5.8136,-25.615999,-8.7821
-20.979,-15.111,-24.207001,-6.8627,1.9704,-13.784,-11.65,-17.540001,19.353001,-6.8627,1.9704,-13.93,-24.761999,-20.063,-32.254002,-16.346001,-29.886999,-25.25,3.9179,-27.586,-8.7821
-19.084,-10.349,-22.264999,-11.765,-3.9409,-16.683001,-13.592,-16.57,15.469,-11.765,-3.9409,-17.91,-23.809999,-19.111,-28.444,-13.462,-26.023001,-22.351,5.8136,-26.601,-5.8974
-22.875,-2.7302,-20.323999,-12.745,-4.9261,-21.514,-10.68,-24.337,18.382,-12.745,-4.9261,-17.91,-20.0,-15.302,-24.635,-6.7308,-20.225,-22.351,10.553,-23.645,-2.0513
-20.032,4.8889,-13.528,-14.706,-1.9704,-18.615,-3.8835,-36.958,22.264999,-14.706,-1.9704,-12.935,-11.429,-8.6349,-17.016001,0.96154,-11.53,-22.351,15.292,-15.764,4.6795
-17.188,8.6984,-7.7023,-21.569,-6.8966,-21.514,-0.97087,-35.015999,20.323999,-21.569,-6.8966,-11.94,-5.7143,-2.9206,-8.4444,5.7692,-3.8003,-20.419001,17.188,-7.8818,8.5256
-4.8657,10.603,1.0356,-19.608,-4.9261,-17.649,4.8544,-16.57,22.264999,-19.608,-4.9261,-6.9652,1.9048,2.7937,2.9841,10.577,3.9291,-15.588,20.032,1.9704,11.41
4.613,11.556,7.8317,-14.706,-2.9557,-7.9871,6.7961,-10.744,23.236,-14.706,-2.9557,-2.9851,7.619,8.5079,12.508,13.462,10.692,-7.8583,20.032,6.8966,16.218
6.5087,12.508,8.8026,-11.765,-1.9704,-9.9195,5.8252,-5.89,23.236,-11.765,-1.9704,-4.9751,12.381,13.27,16.316999,17.308001,15.523,-3.0274,20.979,10.837,19.103001
5.5608,14.413,6.8608,-12.745,-3.9409,-10.886,1.9417,-9.7735,18.382,-12.745,-3.9409,-6.9652,16.190001,17.079,18.222,22.115,19.388,-3.0274,18.136,13.793,21.025999
13.144,21.079,13.657,-2.9412,0.98522,0.70853,7.767,-18.511,19.353001,-2.9412,0.98522,0.99502,22.857,22.794001,24.889,27.885,27.118,0.83736,18.136,19.704,22.948999
12.196,23.937,17.540001,3.9216,3.9409,2.6409,11.65,-2.9773,19.353001,3.9216,3.9409,6.9652,24.761999,23.746,26.794001,29.808001,30.016001,3.7359,17.188,19.704,21.987
10.3,22.032,17.540001,2.9412,5.9113,6.5056,13.592,-9.7735,18.382,2.9412,5.9113,8.9552,20.952,18.983999,22.983999,25.0,26.150999,1.8035,14.344,15.764,16.218
2.7172,16.316999,13.657,2.9412,5.9113,3.6071,11.65,-6.8608,15.469,2.9412,5.9113,8.9552,15.238,13.27,15.365,16.346001,18.422001,-0.12882,4.8657,10.837,7.5641
-2.97,10.603,7.8317,6.8627,6.8966,0.70853,7.767,10.615,10.615,6.8627,6.8966,7.9602,11.429,10.413,9.6508,9.6154,11.659,2.7697,2.0221,7.8818,3.7179
-2.97,2.9841,1.0356,6.8627,3.9409,5.5395,1.9417,-3.9482,4.7896,6.8627,3.9409,6.9652,8.5714,6.6032,5.8413,2.8846,4.8953,2.7697,0.12638,7.8818,-2.0513
-2.97,-4.6349,-3.8188,5.8824,1.9704,5.5395,-1.9417,-0.06472,0.90615,5.8824,1.9704,3.9801,3.8095,-0.06349,0.12698,-6.7308,-3.8003,3.7359,-7.4566,5.9113,-10.705
-2.97,-8.4444,-4.7896,4.902,0.98522,-0.25765,-1.9417,14.498,-0.06472,4.902,0.98522,1.99,0.0,-5.7778,-2.7302,-14.423,-9.5974,7.6006,-11.248,3.9409,-18.396999
-1.0742,-8.4444,-2.8479,1.9608,-1.9704,-2.19,-0.97087,11.586,-2.0065,1.9608,-1.9704,1.99,-3.8095,-10.54,-2.7302,-18.268999,-12.496,6.6345,-11.248,1.9704,-20.320999
2.7172,-4.6349,1.0356,4.902,2.9557,1.6747,2.9126,8.6731,1.877,4.902,2.9557,4.9751,-6.6667,-11.492,-1.7778,-15.385,-10.564,6.6345,-5.5608,-0.98522,-18.396999
7.4566,2.0317,5.89,6.8627,7.8818,11.337,8.7379,-11.715,9.644,6.8627,7.8818,9.9502,-7.619,-11.492,0.12698,-9.6154,-6.6989,7.6006,2.97,-0.98522,-13.59
5.5608,2.9841,5.89,3.9216,7.8818,11.337,8.7379,-1.0356,8.6731,3.9216,7.8818,9.9502,-11.429,-13.397,-0.8254,-6.7308,-6.6989,5.6683,5.8136,-3.9409,-11.667
5.5608,3.9365,7.8317,4.902,5.9113,7.4718,9.7087,20.323999,8.6731,4.902,5.9113,10.945,-14.286,-15.302,-1.7778,-4.8077,-5.7327,5.6683,5.8136,-6.8966,-11.667
12.196,7.746,13.657,10.784,8.867,13.269,15.534,17.410999,10.615,10.784,8.867,16.915001,-12.381,-13.397,2.0317,-0.96154,-1.868,7.6006,8.6572,-5.9113,-7.8205
21.674999,15.365,21.424,15.686,12.808,22.931,21.358999,9.644,14.498,15.686,12.808,24.875999,-9.5238,-10.54,8.6984,4.8077,3.9291,10.499,10.553,-1.9704,-2.0513
29.257999,19.174999,26.278,24.51,17.733999,34.525002,26.214001,12.557,14.498,24.51,17.733999,32.835999,-7.619,-8.6349,13.46,7.6923,7.7939,14.364,10.553,0.98522,-1.0897
23.57,17.27,26.278,22.549,15.764,26.795,24.271999,26.149,10.615,22.549,15.764,30.846001,-6.6667,-7.6825,13.46,6.7308,8.7601,14.364,6.7615,0.0,-3.0128
15.039,9.6508,20.452999,15.686,12.808,17.134001,18.447001,12.557,7.7023,15.686,12.808,23.881001,-9.5238,-9.5873,9.6508,2.8846,5.8615,13.398,4.8657,-2.9557,-5.8974
10.3,2.9841,16.57,12.745,10.837,20.997999,13.592,-0.06472,4.7896,12.745,10.837,22.886,-6.6667,-6.7302,6.7937,0.96154,3.9291,11.465,2.97,-1.9704,-5.8974
7.4566,0.12698,13.657,14.706,11.823,17.134001,12.621,15.469,5.7605,14.706,11.823,20.896,-3.8095,-3.873,5.8413,0.0,3.9291,8.5668,1.0742,-0.98522,-6.859
9.3523,0.12698,11.715,12.745,10.837,16.167,10.68,14.498,4.7896,12.745,10.837,17.91,-1.9048,-3.873,7.746,-1.9231,3.9291,12.432,-2.7172,2.9557,-8.7821
17.882999,0.12698,12.686,10.784,9.8522,22.931,10.68,13.528,1.877,10.784,9.8522,19.9,0.0,-2.9206,11.556,-2.8846,4.8953,15.33,-1.7694,4.9261,-8.7821
22.622,0.12698,13.657,11.765,10.837,24.863001,12.621,23.236,0.90615,11.765,10.837,21.891001,1.9048,-1.9683,13.46,-4.8077,3.9291,17.261999,-2.7172,8.867,-7.8205
22.622,2.0317,10.744,12.745,9.8522,22.931,13.592,28.091,-0.06472,12.745,9.8522,21.891001,1.9048,-1.9683,12.508,-6.7308,2.963,19.195,-6.5087,8.867,-11.667
20.726999,3.9365,10.744,12.745,8.867,21.965,14.563,11.586,-1.0356,12.745,8.867,19.9,-0.95238,-3.873,9.6508,-7.6923,1.9968,14.364,-7.4566,1.9704,-13.59
17.882999,11.556,16.57,13.725,7.8818,17.134001,14.563,14.498,-0.06472,13.725,7.8818,18.905001,0.95238,-1.0159,11.556,0.0,8.7601,9.533,-5.5608,-0.98522,-8.7821
14.092,11.556,18.511,10.784,3.9409,10.37,9.7087,7.7023,-4.9191,10.784,3.9409,13.93,4.7619,2.7937,12.508,5.7692,13.591,6.6345,-3.6651,-0.98522,-3.9744
6.5087,2.0317,10.744,3.9216,0.98522,4.5733,-0.97087,2.8479,-4.9191,3.9216,0.98522,4.9751,2.8571,2.7937,6.7937,2.8846,10.692,1.8035,-2.7172,-3.9409,-3.0128
5.5608,-3.6825,6.8608,4.902,2.9557,3.6071,-1.9417,3.8188,-2.9773,4.902,2.9557,2.9851,1.9048,1.8413,3.9365,0.96154,6.8277,-3.0274,0.12638,-5.9113,0.83333
-0.12638,-6.5397,2.0065,0.98039,1.9704,-3.1562,-1.9417,3.8188,-0.06472,0.98039,1.9704,0.0,0.95238,1.8413,2.0317,0.96154,2.963,-10.757,2.97,-5.9113,3.7179
-5.8136,-3.6825,-0.90615,-2.9412,0.98522,-5.0886,-2.9126,-4.9191,0.90615,-2.9412,0.98522,-2.9851,0.95238,3.746,0.12698,4.8077,1.9968,-16.554001,7.7093,-5.9113,11.41
-7.7093,0.12698,-2.8479,-2.9412,-2.9557,-7.0209,-5.8252,-9.7735,0.90615,-2.9412,-2.9557,-7.9602,0.0,5.6508,0.12698,10.577,2.963,-20.419001,11.501,-7.8818,20.063999
-6.7615,2.0317,-5.7605,-5.8824,-5.9113,-8.9533,-8.7379,-6.8608,-1.0356,-5.8824,-5.9113,-10.945,-0.95238,6.6032,-1.7778,11.538,2.963,-18.486,13.397,-7.8818,21.025999
-3.9179,4.8889,-3.8188,-8.8235,-10.837,-6.0548,-9.7087,-13.657,-4.9191,-8.8235,-10.837,-9.9502,-0.95238,6.6032,0.12698,13.462,3.9291,-10.757,9.6051,-2.9557,18.141001
3.6651,9.6508,3.9482,-2.9412,-7.8818,2.6409,-3.8835,-6.8608,-6.8608,-2.9412,-7.8818,-2.9851,0.0,6.6032,4.8889,14.423,7.7939,-3.0274,3.9179,0.0,17.179001
8.4044,15.365,12.686,1.9608,-3.9409,4.5733,2.9126,6.7314,-3.9482,1.9608,-3.9409,4.9751,3.8095,8.5079,11.556,18.268999,13.591,2.7697,8.6572,4.9261,19.103001
11.248,14.413,12.686,3.9216,-3.9409,5.5395,4.8544,7.7023,-7.8317,3.9216,-3.9409,5.9701,6.6667,10.413,13.46,18.268999,15.523,10.499,8.6572,10.837,18.141001
7.4566,5.8413,2.0065,3.9216,-7.8818,-0.25765,-2.9126,18.382,-15.599,3.9216,-7.8818,-2.9851,3.8095,6.6032,8.6984,11.538,9.7262,13.398,0.12638,9.8522,11.41
-0.12638,-3.6825,-9.644,1.9608,-12.808,-8.9533,-12.621,20.323999,-25.306999,1.9608,-12.808,-13.93,0.0,3.746,2.0317,4.8077,3.9291,18.229,-9.3523,7.8818,6.6026
-0.12638,-10.349,-13.528,2.9412,-13.793,-7.0209,-19.417,21.294001,-32.104,2.9412,-13.793,-17.91,0.0,1.8413,1.0794,0.96154,1.9968,21.127001,-15.987,8.867,1.7949
7.4566,-15.111,-10.615,0.98039,-16.749001,-1.2238,-22.33,20.323999,-35.987,0.98039,-16.749001,-16.915001,0.0,0.88889,2.9841,-0.96154,1.0306,22.093,-18.830999,8.867,-1.0897
15.039,-13.206,-2.8479,-0.98039,-19.704,11.337,-18.447001,3.8188,-36.958,-0.98039,-19.704,-7.9602,-0.95238,-0.06349,6.7937,-1.9231,1.9968,23.059999,-19.778999,7.8818,-1.0897
13.144,-7.4921,1.0356,0.0,-15.764,8.438,-13.592,23.236,-33.074001,0.0,-15.764,-2.9851,-1.9048,-1.9683,5.8413,-2.8846,1.0306,23.059999,-15.987,5.9113,-3.0128
6.5087,-4.6349,-1.877,-0.98039,-13.793,2.6409,-11.65,24.207001,-29.191,-0.98039,-13.793,-4.9751,-4.7619,-4.8254,2.0317,-4.8077,-1.868,17.261999,-11.248,0.98522,-5.8974
-3.9179,-6.5397,-9.644,-8.8235,-18.719,-8.9533,-16.504999,8.6731,-28.219999,-8.8235,-18.719,-14.925,-5.7143,-6.7302,-4.6349,-6.7308,-5.7327,8.5668,-9.3523,-1.9704,-6.859
-12.449,-10.349,-14.498,-12.745,-19.704,-19.580999,-19.417,-0.06472,-27.249001,-12.745,-19.704,-22.886,-5.7143,-6.7302,-9.3968,-7.6923,-8.6312,1.8035,-8.4044,-4.9261,-3.9744
-16.24,-13.206,-19.353001,-17.646999,-21.674999,-25.378,-25.243,-1.0356,-25.306999,-17.646999,-21.674999,-29.851,-4.7619,-4.8254,-11.302,-7.6923,-10.564,-3.0274,-6.5087,-4.9261,-2.0513
-18.136,-13.206,-20.323999,-17.646999,-19.704,-23.445999,-25.243,-7.8317,-24.337,-17.646999,-19.704,-28.856001,0.0,0.88889,-11.302,-1.9231,-6.6989,-4.9597,-4.613,-2.9557,5.641
-20.979,-10.349,-19.353001,-18.627001,-19.704,-25.378,-24.271999,-4.9191,-22.395,-18.627001,-19.704,-28.856001,6.6667,8.5079,-8.4444,4.8077,-0.90177,-9.7907,-0.82148,0.0,12.372
-16.24,-10.349,-19.353001,-14.706,-18.719,-18.615,-23.301001,-21.424,-21.424,-14.706,-18.719,-26.865999,14.286,15.175,-2.7302,10.577,5.8615,-9.7907,0.12638,4.9261,17.179001
-14.344,-14.159,-20.323999,-12.745,-19.704,-19.580999,-28.155001,-9.7735,-23.365999,-12.745,-19.704,-28.856001,20.0,18.032,2.0317,11.538,8.7601,-6.8921,-1.7694,11.823,19.103001
-17.188,-19.872999,-21.294001,-11.765,-20.690001,-23.445999,-29.125999,3.8188,-25.306999,-11.765,-20.690001,-29.851,20.952,18.032,1.0794,8.6538,5.8615,-5.9259,-3.6651,13.793,17.179001
-15.292,-21.778,-20.323999,-9.8039,-16.749001,-21.514,-25.243,-3.9482,-18.511,-9.8039,-16.749001,-26.865999,20.0,15.175,-0.8254,3.8462,1.9968,-6.8921,-3.6651,14.778,13.333
-11.501,-17.968,-15.469,-6.8627,-11.823,-13.784,-17.476,-10.744,-13.657,-6.8627,-11.823,-18.905001,17.143,11.365,0.12698,1.9231,1.9968,-3.0274,-4.613,13.793,9.4872
-5.8136,-13.206,-9.644,-4.902,-8.867,-8.9533,-12.621,1.877,-10.744,-4.902,-8.867,-11.94,18.094999,9.4603,2.9841,1.9231,1.9968,5.6683,-7.4566,17.733999,5.641
-0.12638,-7.4921,-5.7605,0.98039,-5.9113,-5.0886,-7.767,16.440001,-7.8317,0.98039,-5.9113,-6.9652,20.0,10.413,6.7937,2.8846,2.963,14.364,-7.4566,23.645,6.6026
0.82148,-6.5397,-9.644,0.98039,-6.8966,-1.2238,-10.68,5.7605,-12.686,0.98039,-6.8966,-7.9602,18.094999,7.5556,5.8413,0.96154,1.0306,16.296,-12.196,23.645,1.7949
2.7172,-6.5397,-12.557,-1.9608,-10.837,5.5395,-13.592,-8.8026,-19.482,-1.9608,-10.837,-9.9502,18.094999,8.5079,6.7937,1.9231,1.9968,13.398,-14.092,21.674999,-0.12821
-0.12638,-5.5873,-12.557,-1.9608,-12.808,-2.19,-15.534,-2.0065,-23.365999,-1.9608,-12.808,-12.935,20.0,12.317,7.746,5.7692,4.8953,13.398,-11.248,20.690001,2.7564
-4.8657,-8.4444,-14.498,-2.9412,-16.749001,-9.9195,-20.388,9.644,-24.337,-2.9412,-16.749001,-17.91,20.952,15.175,4.8889,5.7692,4.8953,12.432,-12.196,20.690001,3.7179
-10.553,-13.206,-18.382,-7.8431,-17.733999,-12.818,-23.301001,-6.8608,-22.395,-7.8431,-17.733999,-21.891001,19.048,15.175,0.12698,2.8846,1.9968,8.5668,-11.248,16.749001,3.7179
-16.24,-18.921,-24.207001,-12.745,-18.719,-19.580999,-26.214001,-6.8608,-17.540001,-12.745,-18.719,-25.871,15.238,13.27,-5.5873,-3.8462,-4.7665,3.7359,-12.196,10.837,0.83333
-20.032,-27.492001,-31.003,-16.667,-16.749001,-24.412001,-26.214001,-2.0065,-13.657,-16.667,-16.749001,-27.861,10.476,9.4603,-13.206,-11.538,-12.496,-3.0274,-11.248,4.9261,-3.0128
-21.927,-30.349001,-31.003,-14.706,-11.823,-18.615,-22.33,-7.8317,-7.8317,-14.706,-11.823,-22.886,6.6667,7.5556,-17.016001,-15.385,-16.361,-11.723,-9.3523,-0.98522,-3.9744
-22.875,-30.349001,-26.149,-9.8039,-5.9113,-17.649,-15.534,-10.744,-4.9191,-9.8039,-5.9113,-15.92,1.9048,5.6508,-19.872999,-18.268999,-18.292999,-15.588,-5.5608,-5.9113,-3.9744
-20.979,-23.683001,-19.353001,-7.8431,-3.9409,-7.9871,-8.7379,-24.337,-0.06472,-7.8431,-3.9409,-8.9552,-1.9048,3.746,-20.825001,-18.268999,-19.259001,-15.588,-2.7172,-9.8522,-3.9744
-14.344,-14.159,-9.644,-2.9412,-0.98522,-1.2238,-0.97087,-4.9191,0.90615,-2.9412,-0.98522,-0.99502,-5.7143,1.8413,-18.921,-15.385,-18.292999,-10.757,-0.82148,-10.837,-4.9359
-6.7615,-5.5873,-1.877,2.9412,1.9704,-0.25765,3.8835,15.469,-0.06472,2.9412,1.9704,5.9701,-9.5238,-1.0159,-15.111,-10.577,-14.428,-7.8583,-1.7694,-11.823,-4.9359
1.7694,2.9841,5.89,4.902,4.9261,6.5056,9.7087,7.7023,0.90615,4.902,4.9261,10.945,-9.5238,-0.06349,-7.4921,-3.8462,-6.6989,-2.0612,0.12638,-8.867,-3.0128
7.4566,9.6508,11.715,1.9608,4.9261,14.235,11.65,-6.8608,6.7314,1.9608,4.9261,12.935,-5.7143,3.746,0.12698,2.8846,1.0306,1.8035,3.9179,-4.9261,-0.12821
2.7172,12.508,9.7735,-5.8824,-1.9704,3.6071,7.767,-1.0356,5.7605,-5.8824,-1.9704,4.9751,-8.5714,1.8413,-1.7778,4.8077,1.9968,-2.0612,2.0221,-9.8522,-1.0897
-2.97,13.46,7.8317,-8.8235,-5.9113,-7.0209,4.8544,9.644,5.7605,-8.8235,-5.9113,0.0,-7.619,2.7937,-3.6825,7.6923,3.9291,-3.9936,2.0221,-9.8522,2.7564
0.82148,13.46,9.7735,-6.8627,-2.9557,-0.25765,7.767,-8.8026,9.644,-6.8627,-2.9557,3.9801,-2.8571,5.6508,-1.7778,8.6538,6.8277,-3.0274,2.97,-6.8966,4.6795
-0.12638,6.7937,5.89,-7.8431,-1.9704,-0.25765,6.7961,-6.8608,7.7023,-7.8431,-1.9704,2.9851,-3.8095,3.746,-2.7302,3.8462,3.9291,-4.9597,-4.613,-6.8966,-0.12821
0.82148,2.0317,4.9191,-6.8627,0.0,-1.2238,4.8544,-0.06472,4.7896,-6.8627,0.0,3.9801,-3.8095,0.88889,-2.7302,0.0,1.9968,-3.0274,-3.6651,-3.9409,-2.0513
7.4566,4.8889,8.8026,-2.9412,3.9409,0.70853,8.7379,2.8479,6.7314,-2.9412,3.9409,7.9602,0.0,2.7937,2.9841,1.9231,5.8615,0.83736,1.0742,1.9704,1.7949
7.4566,8.6984,9.7735,-1.9608,3.9409,1.6747,9.7087,-2.9773,9.644,-1.9608,3.9409,6.9652,1.9048,1.8413,4.8889,2.8846,7.7939,3.7359,2.0221,3.9409,1.7949
9.3523,13.46,13.657,3.9216,7.8818,13.269,14.563,-21.424,11.586,3.9216,7.8818,12.935,3.8095,1.8413,8.6984,4.8077,9.7262,3.7359,4.8657,6.8966,2.7564
7.4566,11.556,12.686,4.902,12.808,7.4718,15.534,-6.8608,13.528,4.902,12.808,13.93,0.95238,-1.0159,6.7937,1.9231,5.8615,0.83736,3.9179,6.8966,-0.12821
5.5608,6.7937,10.744,5.8824,13.793,4.5733,14.563,4.7896,12.557,5.8824,13.793,12.935,-2.8571,-3.873,2.9841,-1.9231,1.9968,-0.12882,3.9179,1.9704,-2.0513
3.6651,6.7937,11.715,3.9216,11.823,4.5733,12.621,5.7605,11.586,3.9216,11.823,10.945,-2.8571,-5.7778,2.0317,-1.9231,1.9968,-3.0274,2.97,0.0,-2.0513
2.7172,8.6984,12.686,4.902,10.837,3.6071,14.563,5.7605,11.586,4.902,10.837,11.94,-5.7143,-7.6825,1.0794,-2.8846,1.0306,-5.9259,4.8657,-2.9557,-3.0128
2.7172,9.6508,14.628,12.745,14.778,9.4042,17.476,0.90615,15.469,12.745,14.778,16.915001,-4.7619,-8.6349,1.0794,-1.9231,1.9968,-4.9597,6.7615,-4.9261,-3.0128
1.7694,7.746,11.715,12.745,17.733999,9.4042,18.447001,-2.0065,18.382,12.745,17.733999,15.92,-2.8571,-6.7302,0.12698,-1.9231,1.0306,-4.9597,7.7093,-3.9409,-3.9744
-1.0742,4.8889,6.8608,3.9216,14.778,3.6071,12.621,-4.9191,12.557,3.9216,14.778,8.9552,0.0,-4.8254,-1.7778,-0.96154,0.06441,-6.8921,2.97,-2.9557,-4.9359
-3.9179,4.8889,2.9773,4.902,12.808,1.6747,10.68,-1.0356,16.440001,4.902,12.808,5.9701,1.9048,-3.873,-3.6825,0.96154,-0.90177,-4.9597,7.7093,-0.98522,-2.0513
-10.553,-0.8254,-3.8188,-4.902,2.9557,-4.1224,2.9126,-20.452999,14.498,-4.902,2.9557,0.0,-5.7143,-7.6825,-10.349,-3.8462,-7.6651,-9.7907,10.553,-7.8818,-3.9744
-10.553,-5.5873,-7.7023,-12.745,-3.9409,-4.1224,-2.9126,-31.132999,9.644,-12.745,-3.9409,-4.9751,-12.381,-11.492,-14.159,-6.7308,-11.53,-14.622,6.7615,-14.778,-5.8974
-11.501,-8.4444,-8.6731,-8.8235,-1.9704,-9.9195,-2.9126,-2.9773,13.528,-8.8235,-1.9704,-5.9701,-15.238,-13.397,-15.111,-8.6538,-13.462,-10.757,5.8136,-15.764,-5.8974
-10.553,-9.3968,-7.7023,-5.8824,0.98522,-8.9533,-0.97087,8.6731,15.469,-5.8824,0.98522,-3.9801,-17.143,-15.302,-15.111,-9.6154,-14.428,-7.8583,4.8657,-15.764,-4.9359
-8.6572,-9.3968,-6.7314,-2.9412,1.9704,-2.19,0.97087,-2.0065,11.586,-2.9412,1.9704,-0.99502,-19.048,-16.254,-15.111,-10.577,-15.395,-3.0274,2.97,-14.778,-4.9359
-7.7093,-6.5397,-5.7605,0.0,0.0,-1.2238,0.97087,3.8188,7.7023,0.0,0.0,0.99502,-16.190001,-14.349,-11.302,-8.6538,-13.462,-0.12882,1.0742,-10.837,-4.9359
-1.0742,1.0794,2.0065,0.0,1.9704,5.5395,5.8252,-6.8608,4.7896,0.0,1.9704,5.9701,-12.381,-11.492,-5.5873,-4.8077,-7.6651,0.83736,-0.82148,-8.867,-0.12821
3.6651,4.8889,7.8317,0.98039,1.9704,11.337,7.767,-2.0065,4.7896,0.98039,1.9704,9.9502,-12.381,-9.5873,-1.7778,-1.9231,-3.8003,2.7697,-1.7694,-8.867,-0.12821
12.196,5.8413,11.715,6.8627,5.9113,17.134001,10.68,-8.8026,3.8188,6.8627,5.9113,12.935,-6.6667,-6.7302,5.8413,-0.96154,1.0306,9.533,-1.7694,0.98522,-1.0897
7.4566,2.0317,7.8317,4.902,2.9557,5.5395,4.8544,8.6731,-0.06472,4.902,2.9557,5.9701,-4.7619,-7.6825,5.8413,-4.8077,0.06441,8.5668,-5.5608,4.9261,-3.0128
3.6651,-2.7302,2.9773,1.9608,1.9704,-1.2238,1.9417,5.7605,-1.0356,1.9608,1.9704,1.99,-6.6667,-9.5873,2.9841,-10.577,-3.8003,5.6683,-7.4566,3.9409,-6.859
4.613,-3.6825,1.0356,2.9412,0.98522,3.6071,0.0,-0.06472,-0.06472,2.9412,0.98522,1.99,-2.8571,-5.7778,2.9841,-11.538,-3.8003,4.7021,-6.5087,5.9113,-6.859
0.82148,-10.349,-4.7896,-1.9608,-1.9704,-1.2238,-5.8252,-2.0065,-1.0356,-1.9608,-1.9704,-2.9851,-2.8571,-5.7778,-0.8254,-14.423,-6.6989,-1.095,-6.5087,3.9409,-8.7821
-3.9179,-17.016001,-9.644,-5.8824,-3.9409,-7.9871,-10.68,0.90615,-2.0065,-5.8824,-3.9409,-6.9652,-2.8571,-5.7778,-3.6825,-17.308001,-9.5974,-2.0612,-8.4044,1.9704,-10.705
-2.97,-17.968,-11.586,-3.9216,-3.9409,-7.0209,-10.68,-1.0356,-2.0065,-3.9216,-3.9409,-6.9652,0.95238,-1.0159,-1.7778,-14.423,-6.6989,-3.9936,-7.4566,0.98522,-8.7821
-3.9179,-12.254,-9.644,-6.8627,-7.8818,-8.9533,-10.68,-15.599,-2.0065,-6.8627,-7.8818,-7.9602,4.7619,3.746,-0.8254,-7.6923,-2.8341,-8.8245,-5.5608,0.98522,-3.9744
-2.97,-4.6349,-5.7605,-12.745,-9.8522,-4.1224,-5.8252,-27.249001,-0.06472,-12.745,-9.8522,-5.9701,4.7619,7.5556,-0.8254,0.0,1.0306,-13.655,2.97,-2.9557,2.7564
-11.501,0.12698,-6.7314,-15.686,-8.867,-11.852,-2.9126,-23.365999,3.8188,-15.686,-8.867,-6.9652,0.95238,5.6508,-7.4921,2.8846,-0.90177,-17.52,9.6051,-8.867,4.6795
-12.449,5.8413,-1.877,-11.765,-4.9261,-12.818,3.8835,-6.8608,12.557,-11.765,-4.9261,-2.9851,2.8571,8.5079,-6.5397,8.6538,2.963,-15.588,13.397,-8.867,10.449
-8.6572,7.746,2.9773,-12.745,-5.9113,-10.886,6.7961,-7.8317,11.586,-12.745,-5.9113,0.0,0.95238,7.5556,-5.5873,10.577,4.8953,-17.52,15.292,-10.837,12.372
-4.8657,13.46,8.8026,-19.608,-10.837,-9.9195,6.7961,-33.074001,9.644,-19.608,-10.837,-1.99,1.9048,8.5079,-1.7778,15.385,9.7262,-19.452,14.344,-14.778,14.295
3.6651,22.032,15.599,-22.549,-11.823,-3.1562,9.7087,-23.365999,10.615,-22.549,-11.823,0.0,4.7619,11.365,5.8413,23.077,17.455999,-14.622,18.136,-11.823,19.103001
3.6651,22.983999,13.657,-25.49,-14.778,-8.9533,4.8544,-5.89,7.7023,-25.49,-14.778,-3.9801,2.8571,9.4603,6.7937,24.038,18.422001,-14.622,15.292,-11.823,19.103001
5.5608,20.127001,12.686,-19.608,-13.793,-3.1562,4.8544,-14.628,3.8188,-19.608,-13.793,-0.99502,4.7619,10.413,8.6984,21.153999,18.422001,-12.689,11.501,-8.867,15.256
6.5087,15.365,12.686,-13.725,-10.837,4.5733,3.8835,-7.8317,0.90615,-13.725,-10.837,1.99,9.5238,12.317,10.603,20.191999,19.388,-5.9259,6.7615,-0.98522,12.372
0.82148,5.8413,7.8317,-14.706,-13.793,-2.19,-1.9417,-3.9482,-6.8608,-14.706,-13.793,-1.99,5.7143,7.5556,5.8413,12.5,13.591,-3.9936,-0.82148,-0.98522,7.5641
2.7172,-1.7778,2.9773,-19.608,-19.704,-5.0886,-9.7087,-2.9773,-13.657,-19.608,-19.704,-8.9552,6.6667,6.6032,5.8413,7.6923,8.7601,1.8035,-7.4566,3.9409,2.7564
8.4044,-4.6349,0.06472,-16.667,-19.704,-1.2238,-10.68,-6.8608,-14.628,-16.667,-19.704,-8.9552,10.476,8.5079,8.6984,4.8077,7.7939,11.465,-11.248,10.837,-0.12821
6.5087,-9.3968,-6.7314,-16.667,-21.674999,-4.1224,-15.534,-3.9482,-14.628,-16.667,-21.674999,-14.925,7.619,3.746,4.8889,-2.8846,1.0306,11.465,-15.039,10.837,-5.8974
-1.0742,-14.159,-12.557,-17.646999,-18.719,-13.784,-18.447001,6.7314,-12.686,-17.646999,-18.719,-20.896,0.95238,-1.9683,-1.7778,-10.577,-7.6651,8.5668,-15.987,6.8966,-10.705
-4.8657,-14.159,-13.528,-17.646999,-12.808,-12.818,-16.504999,-4.9191,-7.8317,-17.646999,-12.808,-19.9,-2.8571,-7.6825,-5.5873,-17.308001,-13.462,7.6006,-14.092,4.9261,-16.474001
-9.6051,-16.063,-16.440001,-16.667,-10.837,-8.9533,-14.563,-8.8026,-5.89,-16.667,-10.837,-17.91,-11.429,-14.349,-13.206,-24.038,-22.158001,1.8035,-12.196,-1.9704,-22.243999
-8.6572,-13.206,-14.498,-11.765,-7.8818,-6.0548,-8.7379,-7.8317,-1.0356,-11.765,-7.8818,-11.94,-13.333,-16.254,-14.159,-23.077,-22.158001,0.83736,-5.5608,-2.9557,-21.282
-1.0742,-7.4921,-8.6731,-9.8039,-5.9113,2.6409,-3.8835,-10.744,3.8188,-9.8039,-5.9113,-4.9751,-13.333,-15.302,-10.349,-19.231001,-18.292999,-1.095,-0.82148,-5.9113,-18.396999
-2.0221,0.12698,-2.8479,-12.745,-6.8966,-5.0886,-0.97087,2.8479,4.7896,-12.745,-6.8966,-4.9751,-11.429,-11.492,-6.5397,-10.577,-10.564,-5.9259,2.97,-8.867,-10.705
-2.0221,9.6508,3.9482,-14.706,-5.9113,-8.9533,1.9417,-2.9773,5.7605,-14.706,-5.9113,-3.9801,-5.7143,-3.873,1.0794,0.96154,0.06441,-6.8921,8.6572,-6.8966,-3.0128
3.6651,20.127001,10.744,-11.765,-0.98522,-3.1562,5.8252,-9.7735,10.615,-11.765,-0.98522,0.99502,0.0,3.746,7.746,13.462,11.659,-6.8921,14.344,-4.9261,10.449
2.7172,21.079,9.7735,-6.8627,-1.9704,-0.25765,4.8544,-10.744,11.586,-6.8627,-1.9704,1.99,0.95238,6.6032,6.7937,17.308001,14.557,-8.8245,15.292,-4.9261,15.256
-0.12638,15.365,6.8608,-3.9216,-2.9557,-1.2238,1.9417,-6.8608,7.7023,-3.9216,-2.9557,0.99502,0.0,5.6508,4.8889,15.385,13.591,-8.8245,11.501,-4.9261,10.449
1.7694,10.603,5.89,-4.902,-4.9261,-1.2238,-0.97087,-2.0065,2.8479,-4.902,-4.9261,0.0,0.0,4.6984,7.746,15.385,14.557,-4.9597,2.97,-4.9261,8.5256
8.4044,8.6984,7.8317,-0.98039,-3.9409,0.70853,0.0,4.7896,-0.06472,-0.98039,-3.9409,0.99502,3.8095,6.6032,12.508,16.346001,17.455999,2.7697,2.0221,0.0,9.4872
8.4044,7.746,7.8317,3.9216,-1.9704,4.5733,0.97087,7.7023,-1.0356,3.9216,-1.9704,2.9851,5.7143,6.6032,13.46,15.385,17.455999,5.6683,2.97,2.9557,8.5256
12.196,6.7937,9.7735,11.765,3.9409,18.1,5.8252,3.8188,2.8479,11.765,3.9409,11.94,5.7143,5.6508,14.413,12.5,16.49,8.5668,2.97,6.8966,6.6026
13.144,2.9841,8.8026,12.745,3.9409,18.1,4.8544,6.7314,1.877,12.745,3.9409,10.945,3.8095,0.88889,13.46,6.7308,12.625,9.533,0.12638,6.8966,-0.12821
9.3523,2.0317,7.8317,8.8235,3.9409,5.5395,2.9126,19.353001,-0.06472,8.8235,3.9409,5.9701,0.0,-2.9206,11.556,2.8846,9.7262,11.465,-2.7172,4.9261,-4.9359
7.4566,1.0794,3.9482,7.8431,1.9704,1.6747,0.97087,14.498,-2.0065,7.8431,1.9704,0.99502,-0.95238,-3.873,7.746,0.96154,5.8615,7.6006,-5.5608,2.9557,-5.8974
2.7172,1.0794,-0.90615,16.667,7.8818,5.5395,3.8835,12.557,2.8479,16.667,7.8818,3.9801,0.0,-1.9683,2.0317,-0.96154,1.9968,6.6345,-4.613,2.9557,-4.9359
-6.7615,-2.7302,-7.7023,17.646999,11.823,2.6409,3.8835,14.498,6.7314,17.646999,11.823,2.9851,-4.7619,-4.8254,-6.5397,-6.7308,-5.7327,2.7697,-3.6651,-3.9409,-8.7821
-8.6572,-6.5397,-8.6731,15.686,12.808,-0.25765,2.9126,13.528,7.7023,15.686,12.808,0.99502,-7.619,-7.6825,-11.302,-11.538,-11.53,-1.095,-3.6651,-7.8818,-12.628
-5.8136,-5.5873,-3.8188,12.745,13.793,7.4718,4.8544,-12.686,9.644,12.745,13.793,3.9801,-8.5714,-8.6349,-10.349,-10.577,-12.496,-4.9597,-3.6651,-8.867,-12.628
-2.0221,-0.8254,0.06472,11.765,15.764,7.4718,9.7087,-3.9482,12.557,11.765,15.764,7.9602,-7.619,-6.7302,-8.4444,-8.6538,-10.564,-5.9259,-1.7694,-7.8818,-10.705
-2.0221,-2.7302,-0.90615,11.765,16.749001,3.6071,10.68,6.7314,9.644,11.765,16.749001,7.9602,-5.7143,-6.7302,-7.4921,-10.577,-12.496,-2.0612,-2.7172,-3.9409,-12.628
-0.12638,-4.6349,-2.8479,19.608,18.719,5.5395,10.68,17.410999,3.8188,19.608,18.719,9.9502,-2.8571,-4.8254,-5.5873,-10.577,-12.496,5.6683,-3.6651,0.98522,-12.628
4.613,-3.6825,-2.8479,25.49,19.704,13.269,8.7379,11.586,-1.0356,25.49,19.704,10.945,-1.9048,-4.8254,-3.6825,-9.6154,-11.53,10.499,-3.6651,3.9409,-10.705
6.5087,-1.7778,-1.877,21.569,14.778,8.438,4.8544,15.469,-4.9191,21.569,14.778,7.9602,-3.8095,-6.7302,-1.7778,-8.6538,-11.53,9.533,-4.613,4.9261,-9.7436
10.3,2.9841,2.0065,20.587999,12.808,12.303,4.8544,15.469,-7.8317,20.587999,12.808,9.9502,-1.9048,-3.873,2.0317,-3.8462,-5.7327,10.499,-3.6651,5.9113,-4.9359
11.248,6.7937,4.9191,20.587999,9.8522,10.37,4.8544,32.945,-9.7735,20.587999,9.8522,8.9552,1.9048,-0.06349,5.8413,1.9231,-0.90177,15.33,-3.6651,7.8818,-1.0897
13.144,7.746,4.9191,17.646999,8.867,14.235,4.8544,16.440001,-12.686,17.646999,8.867,7.9602,3.8095,1.8413,7.746,4.8077,2.963,17.261999,-6.5087,9.8522,2.7564
13.144,9.6508,7.8317,15.686,7.8818,10.37,5.8252,22.264999,-12.686,15.686,7.8818,6.9652,7.619,7.5556,10.603,11.538,9.7262,15.33,-4.613,11.823,7.5641
9.3523,6.7937,9.7735,10.784,3.9409,2.6409,2.9126,23.236,-15.599,10.784,3.9409,3.9801,8.5714,9.4603,9.6508,11.538,10.692,9.533,-3.6651,9.8522,8.5256
4.613,2.9841,9.7735,5.8824,0.98522,3.6071,0.97087,3.8188,-17.540001,5.8824,0.98522,3.9801,7.619,8.5079,6.7937,9.6154,9.7262,5.6683,-5.5608,7.8818,9.4872
6.5087,-0.8254,11.715,10.784,5.9113,6.5056,2.9126,6.7314,-17.540001,10.784,5.9113,7.9602,10.476,9.4603,8.6984,5.7692,9.7262,6.6345,-8.4044,10.837,3.7179
8.4044,-3.6825,10.744,12.745,5.9113,12.303,2.9126,6.7314,-17.540001,12.745,5.9113,10.945,14.286,12.317,10.603,4.8077,11.659,6.6345,-11.248,11.823,1.7949
6.5087,-5.5873,7.8317,9.8039,2.9557,6.5056,-0.97087,12.557,-19.482,9.8039,2.9557,6.9652,16.190001,12.317,11.556,2.8846,12.625,5.6683,-14.092,10.837,0.83333
3.6651,-8.4444,2.9773,6.8627,1.9704,0.70853,-4.8544,10.615,-18.511,6.8627,1.9704,0.99502,14.286,9.4603,9.6508,0.0,10.692,2.7697,-15.039,8.867,-3.0128
4.613,-4.6349,3.9482,8.8235,5.9113,2.6409,-2.9126,0.90615,-12.686,8.8235,5.9113,0.99502,15.238,10.413,10.603,0.96154,10.692,-1.095,-9.3523,10.837,0.83333
5.5608,0.12698,3.9482,12.745,10.837,1.6747,0.0,5.7605,-4.9191,12.745,10.837,0.99502,15.238,10.413,11.556,1.9231,10.692,-3.0274,-2.7172,10.837,2.7564
4.613,2.0317,2.0065,11.765,10.837,2.6409,0.97087,4.7896,-1.0356,11.765,10.837,1.99,12.381,7.5556,8.6984,0.96154,6.8277,-4.9597,0.12638,5.9113,0.83333
6.5087,3.9365,2.9773,12.745,11.823,7.4718,6.7961,3.8188,1.877,12.745,11.823,7.9602,9.5238,4.6984,5.8413,1.9231,2.963,-7.8583,4.8657,2.9557,1.7949
2.7172,5.8413,2.9773,14.706,14.778,9.4042,10.68,-1.0356,6.7314,14.706,14.778,11.94,1.9048,-1.0159,0.12698,0.0,-2.8341,-8.8245,7.7093,-1.9704,0.83333
3.6651,9.6508,5.89,20.587999,20.690001,15.201,17.476,-3.9482,12.557,20.587999,20.690001,17.91,-3.8095,-4.8254,-1.7778,0.0,-4.7665,-4.9597,12.449,-5.9113,1.7949
-1.0742,7.746,2.0065,21.569,19.704,9.4042,15.534,12.557,13.528,21.569,19.704,14.925,-9.5238,-9.5873,-6.5397,-2.8846,-10.564,-3.9936,15.292,-8.867,0.83333
-2.0221,3.9365,-0.90615,20.587999,18.719,11.337,13.592,-2.9773,12.557,20.587999,18.719,13.93,-12.381,-11.492,-9.3968,-4.8077,-14.428,-1.095,18.136,-7.8818,0.83333
-2.97,0.12698,-3.8188,16.667,13.793,15.201,8.7379,-3.9482,13.528,16.667,13.793,11.94,-17.143,-15.302,-14.159,-8.6538,-18.292999,-3.9936,19.084,-11.823,-1.0897
-17.188,-7.4921,-12.557,8.8235,6.8966,-2.19,1.9417,17.410999,9.644,8.8235,6.8966,2.9851,-27.618999,-24.825001,-26.540001,-19.231001,-27.955,-7.8583,11.501,-20.690001,-9.7436
-18.136,-6.5397,-12.557,11.765,10.837,-5.0886,1.9417,20.323999,14.498,11.765,10.837,1.99,-27.618999,-26.73,-27.492001,-22.115,-30.853001,-4.9597,14.344,-20.690001,-12.628
-11.501,-5.5873,-10.615,15.686,14.778,3.6071,3.8835,12.557,15.469,15.686,14.778,3.9801,-25.714001,-24.825001,-22.73,-21.153999,-28.921,0.83736,14.344,-15.764,-11.667
-4.8657,-4.6349,-9.644,11.765,11.823,5.5395,0.97087,4.7896,10.615,11.765,11.823,1.99,-21.905001,-21.016001,-17.016001,-18.268999,-24.09,2.7697,8.6572,-13.793,-10.705
2.7172,-1.7778,-3.8188,11.765,9.8522,9.4042,1.9417,-0.06472,6.7314,11.765,9.8522,3.9801,-14.286,-14.349,-8.4444,-12.5,-15.395,5.6683,5.8136,-6.8966,-6.859
6.5087,-3.6825,1.0356,7.8431,2.9557,8.438,0.0,-10.744,0.90615,7.8431,2.9557,1.99,-10.476,-11.492,-2.7302,-9.6154,-9.5974,6.6345,0.12638,-3.9409,-6.859
2.7172,-7.4921,2.0065,-0.98039,-2.9557,-2.19,-4.8544,2.8479,-7.8317,-0.98039,-2.9557,-2.9851,-8.5714,-10.54,0.12698,-11.538,-6.6989,3.7359,-6.5087,-3.9409,-6.859
6.5087,-4.6349,6.8608,-2.9412,-4.9261,-4.1224,-5.8252,7.7023,-12.686,-2.9412,-4.9261,-2.9851,-1.9048,-5.7778,6.7937,-6.7308,1.0306,6.6345,-10.3,1.9704,-3.0128
12.196,0.12698,9.7735,-0.98039,-4.9261,-3.1562,-6.7961,5.7605,-13.657,-0.98039,-4.9261,-2.9851,5.7143,0.88889,15.365,2.8846,10.692,10.499,-11.248,8.867,4.6795
18.830999,3.9365,12.686,2.9412,-3.9409,1.6747,-5.8252,10.615,-12.686,2.9412,-3.9409,-1.99,15.238,8.5079,23.937,10.577,20.354,13.398,-9.3523,16.749001,9.4872
16.934999,2.9841,10.744,0.98039,-4.9261,2.6409,-8.7379,-4.9191,-14.628,0.98039,-4.9261,-4.9751,15.238,9.4603,23.937,13.462,21.32,12.432,-8.4044,16.749001,7.5641
15.039,4.8889,9.7735,1.9608,-1.9704,1.6747,-5.8252,-2.0065,-10.744,1.9608,-1.9704,-2.9851,14.286,9.4603,21.079,15.385,21.32,9.533,-3.6651,12.808,10.449
11.248,9.6508,11.715,5.8824,0.98522,-3.1562,0.97087,11.586,-4.9191,5.8824,0.98522,0.99502,15.238,10.413,19.174999,18.268999,22.287001,11.465,2.0221,11.823,11.41
8.4044,10.603,11.715,7.8431,4.9261,3.6071,4.8544,-4.9191,-2.0065,7.8431,4.9261,3.9801,10.476,8.5079,13.46,17.308001,17.455999,8.5668,5.8136,7.8818,11.41
3.6651,8.6984,5.89,8.8235,4.9261,2.6409,3.8835,12.557,0.90615,8.8235,4.9261,3.9801,6.6667,4.6984,6.7937,13.462,10.692,5.6683,9.6051,3.9409,12.372
-2.0221,2.9841,-1.877,8.8235,5.9113,-0.25765,2.9126,13.528,4.7896,8.8235,5.9113,1.99,0.95238,-1.0159,-2.7302,5.7692,0.06441,3.7359,11.501,-1.9704,10.449
-6.7615,-2.7302,-7.7023,5.8824,6.8966,3.6071,0.97087,-14.628,6.7314,5.8824,6.8966,-0.99502,-7.619,-7.6825,-11.302,-2.8846,-10.564,-1.095,8.6572,-7.8818,3.7179
-14.344,-4.6349,-13.528,3.9216,7.8818,-4.1224,-0.97087,-2.9773,9.644,3.9216,7.8818,-4.9751,-13.333,-12.444,-19.872999,-8.6538,-18.292999,-3.9936,9.6051,-12.808,-1.0897
-20.979,-5.5873,-19.353001,0.98039,6.8966,-10.886,-1.9417,6.7314,9.644,0.98039,6.8966,-7.9602,-19.048,-16.254,-27.492001,-12.5,-25.056,-6.8921,4.8657,-19.704,-3.9744
-20.032,-3.6825,-17.410999,1.9608,7.8818,-7.9871,0.97087,1.877,9.644,1.9608,7.8818,-2.9851,-25.714001,-19.111,-31.302,-11.538,-27.955,-8.8245,8.6572,-26.601,-3.0128
-5.8136,2.9841,-5.7605,7.8431,11.823,8.438,9.7087,-11.715,11.586,7.8431,11.823,9.9502,-25.714001,-17.205999,-24.635,-5.7692,-21.191999,-2.0612,13.397,-25.615999,1.7949
3.6651,7.746,5.89,12.745,14.778,14.235,12.621,-2.0065,11.586,12.745,14.778,15.92,-20.952,-13.397,-14.159,-0.96154,-12.496,4.7021,12.449,-18.719,2.7564
2.7172,7.746,10.744,11.765,10.837,4.5733,9.7087,25.177999,8.6731,11.765,10.837,11.94,-16.190001,-9.5873,-7.4921,0.0,-6.6989,8.5668,7.7093,-11.823,1.7949
-0.12638,3.9365,7.8317,4.902,2.9557,-2.19,4.8544,16.440001,1.877,4.902,2.9557,6.9652,-16.190001,-11.492,-6.5397,-2.8846,-6.6989,5.6683,2.0221,-10.837,-2.0513
0.82148,3.9365,10.744,1.9608,3.9409,2.6409,6.7961,-8.8026,-0.06472,1.9608,3.9409,8.9552,-12.381,-7.6825,-3.6825,-1.9231,-3.8003,4.7021,0.12638,-6.8966,-3.9744
3.6651,2.9841,13.657,2.9412,6.8966,8.438,9.7087,-4.9191,1.877,2.9412,6.8966,13.93,-6.6667,-3.873,-0.8254,-0.96154,-0.90177,8.5668,-1.7694,-0.98522,-4.9359
11.248,2.0317,15.599,10.784,10.837,12.303,11.65,16.440001,1.877,10.784,10.837,16.915001,0.0,-0.06349,3.9365,-0.96154,1.9968,14.364,-4.613,5.9113,-5.8974
15.987,2.0317,15.599,13.725,7.8818,16.167,9.7087,16.440001,-1.0356,13.725,7.8818,15.92,2.8571,2.7937,7.746,0.0,4.8953,16.296,-7.4566,7.8818,-7.8205
15.987,3.9365,13.657,9.8039,3.9409,13.269,8.7379,14.498,-5.89,9.8039,3.9409,13.93,1.9048,2.7937,6.7937,-0.96154,4.8953,12.432,-10.3,5.9113,-8.7821
16.934999,9.6508,16.57,7.8431,5.9113,16.167,11.65,4.7896,-3.9482,7.8431,5.9113,16.915001,4.7619,5.6508,8.6984,2.8846,7.7939,7.6006,-8.4044,5.9113,-6.859
14.092,15.365,21.424,11.765,10.837,15.201,17.476,7.7023,0.90615,11.765,10.837,20.896,9.5238,7.5556,9.6508,5.7692,10.692,6.6345,-4.613,6.8966,-3.9744
10.3,17.27,20.452999,12.745,13.793,16.167,19.417,8.6731,7.7023,12.745,13.793,21.891001,9.5238,6.6032,6.7937,7.6923,9.7262,3.7359,2.0221,6.8966,-4.9359
-0.12638,15.365,13.657,9.8039,14.778,7.4718,19.417,3.8188,12.557,9.8039,14.778,17.91,3.8095,2.7937,-1.7778,5.7692,4.8953,-3.9936,8.6572,-0.98522,-3.9744
-16.24,10.603,3.9482,5.8824,10.837,-6.0548,12.621,3.8188,14.498,5.8824,10.837,7.9602,-2.8571,-2.9206,-11.302,1.9231,-1.868,-9.7907,11.501,-10.837,-5.8974
-19.084,6.7937,0.06472,3.9216,12.808,1.6747,11.65,-24.337,17.410999,3.9216,12.808,6.9652,-6.6667,-4.8254,-16.063,1.9231,-3.8003,-10.757,12.449,-15.764,-5.8974
-16.24,3.9365,-2.8479,2.9412,11.823,0.70853,8.7379,-9.7735,16.440001,2.9412,11.823,3.9801,-7.619,-4.8254,-17.016001,1.9231,-4.7665,-11.723,13.397,-17.733999,-4.9359
-16.24,2.0317,-8.6731,2.9412,8.867,-10.886,4.8544,11.586,13.528,2.9412,8.867,-1.99,-9.5238,-4.8254,-17.968,2.8846,-6.6989,-9.7907,13.397,-19.704,-0.12821
-12.449,-1.7778,-11.586,-2.9412,2.9557,-13.784,-2.9126,2.8479,8.6731,-2.9412,2.9557,-7.9602,-9.5238,-5.7778,-13.206,1.9231,-5.7327,-5.9259,8.6572,-15.764,-0.12821
-2.97,-1.7778,-9.644,-5.8824,-2.9557,-13.784,-7.767,-4.9191,3.8188,-5.8824,-2.9557,-11.94,-5.7143,-2.9206,-4.6349,2.8846,-1.868,-1.095,9.6051,-7.8818,-0.12821
2.7172,0.12698,-4.7896,-12.745,-5.9113,-12.818,-8.7379,-8.8026,-1.0356,-12.745,-5.9113,-11.94,-1.9048,0.88889,2.9841,6.7308,3.9291,-2.0612,9.6051,-1.9704,3.7179
5.5608,2.0317,2.0065,-12.745,-4.9261,-4.1224,-4.8544,-11.715,-3.9482,-12.745,-4.9261,-5.9701,2.8571,4.6984,6.7937,9.6154,8.7601,-1.095,2.97,2.9557,4.6795
6.5087,2.0317,4.9191,-7.8431,-4.9261,3.6071,-2.9126,-12.686,-6.8608,-7.8431,-4.9261,-1.99,4.7619,6.6032,8.6984,10.577,10.692,-0.12882,-1.7694,4.9261,5.641
4.613,1.0794,5.89,-5.8824,-7.8818,3.6071,-4.8544,-9.7735,-9.7735,-5.8824,-7.8818,-2.9851,10.476,12.317,12.508,12.5,13.591,1.8035,-5.5608,8.867,7.5641
-2.0221,-4.6349,1.0356,-7.8431,-12.808,-7.9871,-9.7087,2.8479,-15.599,-7.8431,-12.808,-7.9602,15.238,15.175,13.46,10.577,14.557,3.7359,-11.248,11.823,4.6795
-2.0221,-9.3968,-1.877,-8.8235,-12.808,-7.9871,-10.68,-8.8026,-16.57,-8.8235,-12.808,-8.9552,19.048,16.127001,15.365,6.7308,15.523,1.8035,-15.987,15.764,0.83333
0.82148,-13.206,-5.7605,-1.9608,-4.9261,-1.2238,-5.8252,-11.715,-12.686,-1.9608,-4.9261,-3.9801,16.190001,13.27,13.46,0.96154,10.692,2.7697,-16.934999,16.749001,-4.9359
-3.9179,-15.111,-11.586,0.98039,-2.9557,-7.0209,-3.8835,5.7605,-8.8026,0.98039,-2.9557,-3.9801,12.381,8.5079,6.7937,-4.8077,4.8953,1.8035,-16.934999,10.837,-9.7436
3.6651,-11.302,-5.7605,2.9412,-0.98522,-3.1562,-0.97087,10.615,-7.8317,2.9412,-0.98522,1.99,10.476,6.6032,8.6984,-3.8462,5.8615,2.7697,-14.092,7.8818,-8.7821
15.039,-1.7778,4.9191,4.902,0.98522,11.337,1.9417,4.7896,-4.9191,4.902,0.98522,8.9552,14.286,8.5079,15.365,2.8846,12.625,6.6345,-6.5087,11.823,-3.9744
17.882999,3.9365,9.7735,3.9216,0.0,13.269,1.9417,9.644,-4.9191,3.9216,0.0,10.945,14.286,9.4603,17.27,6.7308,15.523,7.6006,-1.7694,13.793,-0.12821
16.934999,7.746,10.744,0.0,-2.9557,12.303,1.9417,4.7896,-2.0065,0.0,-2.9557,9.9502,11.429,7.5556,17.27,7.6923,14.557,4.7021,2.0221,11.823,3.7179
17.882999,11.556,13.657,1.9608,-2.9557,14.235,4.8544,-4.9191,-1.0356,1.9608,-2.9557,9.9502,10.476,7.5556,19.174999,9.6154,15.523,5.6683,6.7615,12.808,10.449
24.518,15.365,18.511,0.98039,-3.9409,23.896999,7.767,-13.657,-0.06472,0.98039,-3.9409,12.935,13.333,10.413,25.841,14.423,20.354,8.5668,9.6051,15.764,15.256
14.092,14.413,14.628,-2.9412,-5.9113,5.5395,5.8252,12.557,-2.0065,-2.9412,-5.9113,5.9701,15.238,12.317,22.983999,16.346001,21.32,6.6345,8.6572,15.764,16.218
-1.0742,10.603,6.8608,-9.8039,-6.8966,-10.886,0.97087,0.90615,-1.0356,-9.8039,-6.8966,-2.9851,11.429,12.317,13.46,14.423,16.49,1.8035,7.7093,11.823,15.256
-7.7093,5.8413,1.0356,-8.8235,-2.9557,-8.9533,0.0,-17.540001,0.90615,-8.8235,-2.9557,-3.9801,10.476,12.317,5.8413,13.462,11.659,-4.9597,7.7093,5.9113,16.218
-14.344,0.12698,-3.8188,-1.9608,-0.98522,-11.852,-0.97087,1.877,1.877,-1.9608,-0.98522,-3.9801,7.619,11.365,-1.7778,9.6154,5.8615,-9.7907,4.8657,0.0,15.256
-17.188,-5.5873,-7.7023,-0.98039,-0.98522,-7.9871,-2.9126,-2.9773,0.90615,-0.98039,-0.98522,-2.9851,4.7619,6.6032,-7.4921,4.8077,0.06441,-9.7907,-4.613,-2.9557,9.4872
-20.032,-13.206,-13.528,-3.9216,-0.98522,-8.9533,-6.7961,-1.0356,-0.06472,-3.9216,-0.98522,-5.9701,0.95238,1.8413,-12.254,-2.8846,-5.7327,-9.7907,-5.5608,-3.9409,1.7949
-18.136,-19.872999,-21.294001,-3.9216,-3.9409,-8.9533,-12.621,0.90615,-2.0065,-3.9216,-3.9409,-9.9502,-1.9048,-1.0159,-14.159,-9.6154,-12.496,-9.7907,-5.5608,-2.9557,-3.0128
-10.553,-20.825001,-22.264999,-3.9216,-6.8966,-3.1562,-14.563,-15.599,-3.9482,-3.9216,-6.8966,-11.94,-0.95238,-1.9683,-11.302,-12.5,-14.428,-4.9597,-9.3523,0.98522,-6.859
-7.7093,-14.159,-19.353001,-7.8431,-10.837,-7.0209,-13.592,-13.657,-4.9191,-7.8431,-10.837,-13.93,0.95238,-1.9683,-6.5397,-9.6154,-11.53,-3.0274,-11.248,3.9409,-6.859
-0.12638,-2.7302,-6.7314,-2.9412,-5.9113,-4.1224,-6.7961,-4.9191,-3.9482,-2.9412,-5.9113,-7.9602,6.6667,1.8413,2.0317,-2.8846,-1.868,0.83736,-10.3,9.8522,-3.9744
2.7172,2.9841,2.0065,-0.98039,-3.9409,-3.1562,-2.9126,5.7605,-2.9773,-0.98039,-3.9409,-2.9851,8.5714,1.8413,7.746,-0.96154,3.9291,2.7697,-10.3,11.823,-7.8205
5.5608,2.0317,5.89,-1.9608,-5.9113,-2.19,-2.9126,0.90615,-3.9482,-1.9608,-5.9113,-0.99502,9.5238,-0.06349,11.556,-1.9231,6.8277,4.7021,-10.3,11.823,-9.7436
10.3,-0.8254,5.89,-5.8824,-10.837,-1.2238,-8.7379,1.877,-6.8608,-5.8824,-10.837,-5.9701,12.381,3.746,17.27,-2.8846,11.659,5.6683,-11.248,14.778,-8.7821
10.3,-2.7302,3.9482,-9.8039,-12.808,-7.0209,-11.65,-4.9191,-7.8317,-9.8039,-12.808,-11.94,17.143,8.5079,21.079,-0.96154,15.523,4.7021,-9.3523,18.719,-5.8974
7.4566,-4.6349,1.0356,-13.725,-11.823,-14.75,-12.621,-3.9482,-6.8608,-13.725,-11.823,-16.915001,22.857,15.175,22.983999,2.8846,19.388,2.7697,-8.4044,25.615999,-0.12821
6.5087,-8.4444,-1.877,-12.745,-10.837,-10.886,-13.592,-19.482,-9.7735,-12.745,-10.837,-16.915001,22.857,17.079,20.127001,4.8077,18.422001,2.7697,-7.4566,20.690001,4.6795
3.6651,-11.302,-4.7896,-9.8039,-8.867,-10.886,-12.621,-5.89,-8.8026,-9.8039,-8.867,-13.93,20.0,15.175,15.365,3.8462,15.523,0.83736,-7.4566,13.793,7.5641
2.7172,-10.349,-2.8479,-5.8824,-4.9261,-1.2238,-6.7961,-10.744,-5.89,-5.8824,-4.9261,-6.9652,17.143,13.27,11.556,3.8462,12.625,-3.0274,-4.613,11.823,8.5256
-3.9179,-8.4444,-5.7605,-4.902,-4.9261,-0.25765,-5.8252,-15.599,-4.9191,-4.902,-4.9261,-5.9701,11.429,10.413,3.9365,3.8462,6.8277,-8.8245,-2.7172,4.9261,7.5641
-3.9179,-0.8254,-3.8188,-5.8824,-3.9409,-2.19,-3.8835,-8.8026,-3.9482,-5.8824,-3.9409,-5.9701,12.381,12.317,3.9365,9.6154,8.7601,-11.723,1.0742,3.9409,12.372
0.82148,12.508,3.9482,-8.8235,-2.9557,-6.0548,0.97087,-2.9773,-2.0065,-8.8235,-2.9557,-4.9751,18.094999,17.079,10.603,20.191999,15.523,-13.655,3.9179,6.8966,19.103001
2.7172,23.937,10.744,-10.784,-1.9704,-7.0209,6.7961,-15.599,1.877,-10.784,-1.9704,-1.99,21.905001,20.889,16.316999,28.846001,22.287001,-12.689,5.8136,9.8522,21.987
9.3523,31.556,17.540001,-3.9216,1.9704,-2.19,15.534,-18.511,7.7023,-3.9216,1.9704,5.9701,25.714001,25.650999,22.983999,36.537998,29.049999,-9.7907,12.449,12.808,27.756001
15.987,33.459999,23.365999,-1.9608,1.9704,4.5733,19.417,-7.8317,7.7023,-1.9608,1.9704,11.94,26.667,26.603001,26.794001,39.423,32.915001,-4.9597,15.292,13.793,29.679001
19.778999,31.556,26.278,-2.9412,1.9704,5.5395,20.388,5.7605,5.7605,-2.9412,1.9704,15.92,27.618999,26.603001,29.650999,36.537998,33.881001,-1.095,14.344,16.749001,27.756001
27.362,27.746,29.191,4.902,4.9261,17.134001,20.388,10.615,7.7023,4.902,4.9261,22.886,28.570999,26.603001,32.507999,33.653999,34.847,4.7021,14.344,18.719,26.795
26.414,18.222,24.337,8.8235,5.9113,23.896999,16.504999,3.8188,5.7605,8.8235,5.9113,22.886,24.761999,21.841,28.698,25.962,29.049999,9.533,10.553,17.733999,22.948999
15.987,6.7937,12.686,3.9216,1.9704,12.303,6.7961,8.6731,1.877,3.9216,1.9704,12.935,19.048,17.079,20.127001,16.346001,19.388,9.533,5.8136,15.764,15.256
11.248,-2.7302,5.89,-0.98039,0.98522,6.5056,1.9417,4.7896,-2.9773,-0.98039,0.98522,6.9652,16.190001,13.27,15.365,8.6538,12.625,7.6006,1.0742,13.793,12.372
11.248,-8.4444,2.0065,-2.9412,0.0,8.438,-1.9417,-11.715,-5.89,-2.9412,0.0,4.9751,13.333,11.365,11.556,2.8846,6.8277,5.6683,-2.7172,14.778,9.4872
8.4044,-12.254,-3.8188,2.9412,0.0,7.4718,-5.8252,-5.89,-7.8317,2.9412,0.0,2.9851,15.238,13.27,8.6984,0.96154,2.963,7.6006,-6.5087,16.749001,7.5641
3.6651,-14.159,-8.6731,4.902,0.0,4.5733,-7.767,-0.06472,-8.8026,4.902,0.0,0.99502,17.143,13.27,4.8889,-1.9231,-0.90177,8.5668,-11.248,15.764,5.641
1.7694,-15.111,-11.586,6.8627,0.0,1.6747,-8.7379,9.644,-11.715,6.8627,0.0,-0.99502,14.286,10.413,2.0317,-5.7692,-3.8003,9.533,-15.987,16.749001,1.7949
-2.97,-15.111,-14.498,5.8824,-0.98522,-4.1224,-11.65,12.557,-14.628,5.8824,-0.98522,-5.9701,12.381,8.5079,-0.8254,-7.6923,-7.6651,8.5668,-19.778999,17.733999,-0.12821
-10.553,-17.968,-22.264999,0.98039,-5.9113,-12.818,-17.476,5.7605,-17.540001,0.98039,-5.9113,-15.92,6.6667,3.746,-10.349,-12.5,-15.395,3.7359,-21.674999,11.823,-3.0128
-20.979,-18.921,-28.091,-5.8824,-10.837,-16.683001,-22.33,-8.8026,-16.57,-5.8824,-10.837,-22.886,0.95238,-0.06349,-19.872999,-16.346001,-23.124001,-2.0612,-20.726999,4.9261,-5.8974
-29.51,-23.683001,-31.974001,-9.8039,-12.808,-23.445999,-26.214001,-9.7735,-15.599,-9.8039,-12.808,-28.856001,-9.5238,-7.6825,-30.349001,-24.038,-30.853001,-7.8583,-22.622,-6.8966,-13.59
-30.458,-26.540001,-31.974001,-8.8235,-12.808,-24.412001,-28.155001,-5.89,-18.511,-8.8235,-12.808,-29.851,-17.143,-14.349,-33.206001,-27.885,-34.717999,-11.723,-19.778999,-15.764,-16.474001
-21.927,-22.73,-23.236,-7.8431,-10.837,-17.649,-24.271999,-7.8317,-17.540001,-7.8431,-10.837,-23.881001,-17.143,-13.397,-24.635,-23.077,-27.955,-9.7907,-14.092,-16.749001,-13.59
-8.6572,-17.016001,-12.557,-3.9216,-2.9557,-2.19,-16.504999,-29.191,-8.8026,-3.9216,-2.9557,-14.925,-15.238,-14.349,-16.063,-19.231001,-20.225,-10.757,-10.3,-14.778,-11.667
-2.97,-16.063,-7.7023,-2.9412,-3.9409,-0.25765,-12.621,-14.628,-4.9191,-2.9412,-3.9409,-10.945,-14.286,-13.397,-9.3968,-17.308001,-16.361,-7.8583,-6.5087,-11.823,-9.7436
-7.7093,-19.872999,-8.6731,-5.8824,-5.9113,-11.852,-12.621,15.469,-4.9191,-5.8824,-5.9113,-12.935,-16.190001,-15.302,-10.349,-19.231001,-16.361,-3.9936,-5.5608,-11.823,-8.7821
-11.501,-20.825001,-8.6731,-13.725,-11.823,-16.683001,-14.563,7.7023,-3.9482,-13.725,-11.823,-14.925,-18.094999,-18.159,-13.206,-20.191999,-19.259001,-6.8921,-4.613,-13.793,-8.7821
-5.8136,-13.206,-2.8479,-13.725,-10.837,-9.9195,-6.7961,-1.0356,-3.9482,-13.725,-10.837,-9.9502,-17.143,-15.302,-11.302,-15.385,-15.395,-3.0274,0.12638,-10.837,-3.0128
-11.501,-10.349,-8.6731,-14.706,-11.823,-10.886,-6.7961,-5.89,-2.9773,-14.706,-11.823,-11.94,-19.048,-14.349,-15.111,-15.385,-17.327,-6.8921,2.97,-13.793,-2.0513
