C3,C4,Cz,F1,F2,F3,F4,F7,F8,Fp1,Fp2,Fz,O1,O2,P3,P4,Pz,T3,T4,T5,T6
-0.9901,-4.1077,-2.1122,1.9608,2.8479,2.0139,-1.0101,4.813,7.0034,1.9608,2.8479,-2.9412,-4.7209,-2.89,-4.0201,-5.0,-6.0,0.93333,10.55,-2.7967,-1.8211
2.9703,1.9529,2.8383,2.9412,3.8188,5.1389,2.0202,3.8374,9.0236,2.9412,3.8188,0.98039,0.0638,2.0361,2.0101,2.0,1.0,3.9333,13.463,2.0813,3.0569
4.9505,5.9933,6.7987,2.9412,3.8188,5.1389,4.0404,5.7886,9.0236,2.9412,3.8188,1.9608,7.7193,9.9179,7.0352,9.0,6.0,6.9333,7.6375,8.9106,11.837
9.901,13.064,12.739,4.902,7.7023,8.2639,10.101,6.7642,13.064,4.902,7.7023,5.8824,17.289,18.785,13.065,16.0,12.0,15.933,8.6084,17.691,21.593
7.9208,11.044,10.759,4.902,8.6731,6.1806,9.0909,3.8374,14.074,4.902,8.6731,4.902,16.332001,17.799999,11.055,15.0,9.0,12.933,13.463,16.715,22.569
3.9604,7.0034,6.7987,4.902,8.6731,5.1389,10.101,4.813,15.084,4.902,8.6731,4.902,8.6762,10.903,5.0251,11.0,3.0,6.9333,9.5793,9.8862,19.642
0.9901,9.0236,4.8185,4.902,8.6731,5.1389,10.101,3.8374,15.084,4.902,8.6731,4.902,1.0207,4.0066,-1.005,7.0,-1.0,0.93333,8.6084,5.0081,14.764
4.9505,10.034,6.7987,4.902,9.644,6.1806,11.111,5.7886,15.084,4.902,9.644,6.8627,-0.89314,1.0509,0.0,5.0,-1.0,0.93333,15.405,2.0813,8.9106
11.881,8.0135,8.7789,6.8627,9.644,8.2639,12.121,7.7398,15.084,6.8627,9.644,8.8235,1.9777,4.0066,3.0151,6.0,2.0,1.9333,14.434,3.0569,10.862
13.861,13.064,12.739,7.8431,10.615,13.472,15.152,10.667,17.104,7.8431,10.615,11.765,6.7624,9.9179,8.0402,12.0,9.0,-0.06667,5.6958,6.9593,14.764
10.891,13.064,13.729,6.8627,7.7023,11.389,12.121,9.6911,13.064,6.8627,7.7023,9.8039,8.6762,11.888,11.055,15.0,12.0,4.9333,11.521,8.9106,15.74
12.871,12.054,14.719,6.8627,6.7314,12.431,12.121,8.7154,10.034,6.8627,6.7314,9.8039,9.6332,12.874,12.06,17.0,14.0,15.933,18.316999,9.8862,16.715
10.891,16.094,15.71,6.8627,8.6731,11.389,13.131,11.642,12.054,6.8627,8.6731,10.784,10.59,13.859,12.06,19.0,15.0,21.933001,16.375,11.837,18.667
7.9208,12.054,11.749,5.8824,7.7023,8.2639,10.101,12.618,12.054,5.8824,7.7023,7.8431,7.7193,10.903,9.0452,15.0,12.0,13.933,14.434,12.813,14.764
6.9307,8.0135,7.7888,3.9216,6.7314,6.1806,8.0808,6.7642,9.0236,3.9216,6.7314,4.902,7.7193,9.9179,8.0402,12.0,9.0,10.933,8.6084,12.813,14.764
1.9802,8.0135,4.8185,1.9608,5.7605,0.97222,5.0505,1.8862,8.0135,1.9608,5.7605,0.98039,5.8054,8.9327,5.0251,10.0,6.0,6.9333,5.6958,9.8862,15.74
0.0,1.9529,-0.13201,-0.98039,4.7896,-2.1528,1.0101,0.91057,7.0034,-0.98039,4.7896,-2.9412,3.8915,5.977,2.0101,6.0,1.0,0.93333,6.6667,7.935,11.837
-1.9802,-3.0976,-3.1023,-2.9412,2.8479,-3.1944,-1.0101,-2.0163,4.9832,-2.9412,2.8479,-4.902,1.9777,3.0213,0.0,1.0,-2.0,-0.06667,3.754,5.0081,6.9593
-0.9901,-5.1178,-5.0825,-2.9412,1.877,-4.2361,-2.0202,-3.9675,2.963,-2.9412,1.877,-4.902,0.0638,1.0509,-1.005,-2.0,-1.0,4.9333,-4.0129,2.0813,2.0813
-1.9802,-5.1178,-6.0726,-1.9608,0.90615,-4.2361,-3.0303,-2.0163,1.9529,-1.9608,0.90615,-5.8824,-0.89314,-1.9048,-1.005,-3.0,-2.0,-4.0667,3.754,2.0813,-2.7967
-4.9505,-5.1178,-6.0726,-2.9412,0.90615,-4.2361,-2.0202,-0.06504,-0.06734,-2.9412,0.90615,-5.8824,-2.807,-3.8752,-3.0151,-5.0,-4.0,-4.0667,0.84142,0.13008,-4.748
-7.9208,-9.1582,-7.0627,-2.9412,-0.06472,-5.2778,-5.0505,-2.0163,-1.0774,-2.9412,-0.06472,-6.8627,-5.6778,-6.8309,-6.0302,-8.0,-9.0,-4.0667,-7.8964,-2.7967,-7.6748
-12.871,-12.189,-10.033,-3.9216,-2.0065,-8.4028,-9.0909,-5.9187,-4.1077,-3.9216,-2.0065,-8.8235,-6.6348,-7.8161,-9.0452,-10.0,-12.0,-5.0667,-7.8964,-2.7967,-8.6504
-12.871,-12.189,-12.013,-4.902,-2.9773,-8.4028,-9.0909,-6.8943,-5.1178,-4.902,-2.9773,-9.8039,-5.6778,-6.8309,-9.0452,-10.0,-13.0,-5.0667,-10.809,-1.8211,-7.6748
-7.9208,-7.138,-10.033,-3.9216,-2.9773,-3.1944,-5.0505,-3.9675,-4.1077,-3.9216,-2.9773,-6.8627,-5.6778,-5.8456,-8.0402,-9.0,-11.0,-2.0667,-11.78,-4.748,-6.6992
-7.9208,-7.138,-8.0528,-3.9216,-2.9773,-4.2361,-3.0303,-3.9675,-3.0976,-3.9216,-2.9773,-6.8627,-5.6778,-4.8604,-7.0352,-6.0,-9.0,-4.0667,-12.751,-5.7236,-3.7724
-6.9307,-6.1279,-5.0825,-3.9216,-2.0065,-5.2778,-2.0202,-4.9431,-3.0976,-3.9216,-2.0065,-4.902,-3.764,-1.9048,-6.0302,-3.0,-6.0,-12.067,-7.8964,-4.748,-0.84553
-6.9307,-5.1178,-4.0924,-3.9216,-2.0065,-6.3194,-4.0404,-5.9187,-4.1077,-3.9216,-2.0065,-4.902,-3.764,-1.9048,-6.0302,-3.0,-4.0,-9.0667,-1.1003,-7.6748,-3.7724
-4.9505,-4.1077,-2.1122,-2.9412,-2.0065,-4.2361,-4.0404,-3.9675,-5.1178,-2.9412,-2.0065,-4.902,-3.764,-2.89,-4.0201,-3.0,-2.0,-6.0667,-7.8964,-9.626,-6.6992
-6.9307,-5.1178,-1.1221,-3.9216,-2.0065,-5.2778,-3.0303,-4.9431,-4.1077,-3.9216,-2.0065,-4.902,-1.8501,-1.9048,-2.0101,-2.0,1.0,-3.0667,-13.722,-8.6504,-5.7236
-6.9307,-3.0976,-1.1221,-3.9216,-1.0356,-5.2778,-1.0101,-5.9187,-2.0875,-3.9216,-1.0356,-3.9216,1.0207,2.0361,0.0,1.0,5.0,-4.0667,-6.9256,-6.6992,-1.8211
-9.901,-4.1077,-4.0924,-4.902,-1.0356,-8.4028,-1.0101,-8.8455,-0.06734,-4.902,-1.0356,-5.8824,-1.8501,-0.91954,-4.0201,0.0,3.0,-13.067,-3.0421,-8.6504,-2.7967
-9.901,-4.1077,-6.0726,-3.9216,-0.06472,-9.4444,0.0,-8.8455,1.9529,-3.9216,-0.06472,-5.8824,-3.764,-1.9048,-5.0251,-1.0,0.0,-12.067,-4.9838,-6.6992,-2.7967
-10.891,-7.138,-9.0429,-5.8824,-2.0065,-10.486,-3.0303,-9.8211,-1.0774,-5.8824,-2.0065,-7.8431,-7.5917,-6.8309,-9.0452,-6.0,-5.0,-14.067,-4.0129,-7.6748,-7.6748
-11.881,-6.1279,-9.0429,-2.9412,0.90615,-7.3611,0.0,-6.8943,0.94276,-2.9412,0.90615,-5.8824,-10.463,-8.8013,-11.055,-7.0,-7.0,-13.067,-4.0129,-9.626,-7.6748
-5.9406,-0.06734,-2.1122,3.9216,8.6731,-1.1111,7.0707,-3.9675,7.0034,3.9216,8.6731,1.9608,-6.6348,-5.8456,-6.0302,-3.0,-1.0,-8.0667,-0.12945,-6.6992,-3.7724
-9.901,-2.0875,-3.1023,2.9412,5.7605,-3.1944,3.0303,-4.9431,2.963,2.9412,5.7605,0.98039,-11.419,-10.772,-9.0452,-6.0,-2.0,-12.067,-9.8382,-11.577,-10.602
-8.9109,-4.1077,-5.0825,1.9608,2.8479,-3.1944,1.0101,-2.9919,-1.0774,1.9608,2.8479,-0.98039,-14.29,-14.713,-11.055,-9.0,-4.0,-9.0667,-18.576,-16.455,-15.48
-3.9604,-1.0774,-0.13201,3.9216,4.7896,-0.06944,4.0404,-0.06504,0.94276,3.9216,4.7896,1.9608,-9.5056,-9.7865,-6.0302,-6.0,-1.0,-5.0667,-9.8382,-11.577,-15.48
-6.9307,-3.0976,-1.1221,1.9608,5.7605,-3.1944,4.0404,-4.9431,2.963,1.9608,5.7605,0.98039,-13.333,-14.713,-9.0452,-9.0,-3.0,-16.066999,-4.9838,-13.528,-18.407
-3.9604,-2.0875,-0.13201,5.8824,8.6731,-0.06944,6.0606,-2.9919,3.9731,5.8824,8.6731,2.9412,-14.29,-15.698,-10.05,-9.0,-4.0,-21.066999,-10.809,-15.48,-17.431
-3.9604,-4.1077,-2.1122,5.8824,7.7023,-0.06944,2.0202,-1.0407,0.94276,5.8824,7.7023,1.9608,-17.160999,-16.683001,-13.065,-12.0,-7.0,-15.067,-9.8382,-17.431,-17.431
-9.901,-6.1279,-6.0726,2.9412,4.7896,-4.2361,-1.0101,-3.9675,-1.0774,2.9412,4.7896,-2.9412,-18.118,-18.653999,-15.075,-14.0,-10.0,-6.0667,-8.8673,-17.431,-18.407
-10.891,-8.1481,-8.0528,0.98039,1.877,-6.3194,-3.0303,-4.9431,-2.0875,0.98039,1.877,-4.902,-18.118,-19.639,-14.07,-16.0,-11.0,-4.0667,-9.8382,-16.455,-20.358
-7.9208,-8.1481,-7.0627,0.0,0.90615,-5.2778,-1.0101,-4.9431,-1.0774,0.0,0.90615,-3.9216,-18.118,-20.624001,-12.06,-17.0,-12.0,-9.0667,-9.8382,-16.455,-22.309
-2.9703,-5.1178,-1.1221,0.98039,1.877,-2.1528,1.0101,-3.9675,0.94276,0.98039,1.877,0.98039,-15.247,-18.653999,-7.0352,-14.0,-6.0,-20.066999,-9.8382,-14.504,-20.358
1.9802,-3.0976,3.8284,2.9412,3.8188,-0.06944,2.0202,-2.9919,-0.06734,2.9412,3.8188,2.9412,-11.419,-14.713,-1.005,-10.0,0.0,-16.066999,-13.722,-10.602,-18.407
1.9802,-1.0774,5.8086,3.9216,3.8188,2.0139,1.0101,-0.06504,-1.0774,3.9216,3.8188,4.902,-6.6348,-9.7865,1.005,-6.0,4.0,-1.0667,-15.663,-7.6748,-15.48
0.9901,-3.0976,1.8482,0.0,-1.0356,-1.1111,-3.0303,-1.0407,-5.1178,0.0,-1.0356,0.98039,-7.5917,-9.7865,-1.005,-7.0,1.0,-4.0667,-15.663,-8.6504,-16.455
1.9802,-3.0976,0.85809,0.0,-1.0356,-1.1111,-2.0202,-1.0407,-4.1077,0.0,-1.0356,0.0,-8.5486,-8.8013,-2.0101,-7.0,0.0,-7.0667,-5.9547,-9.626,-13.528
1.9802,-2.0875,0.85809,2.9412,1.877,0.97222,2.0202,0.91057,-0.06734,2.9412,1.877,1.9608,-8.5486,-7.8161,-3.0151,-6.0,-1.0,-4.0667,-5.9547,-10.602,-12.553
1.9802,-1.0774,1.8482,1.9608,1.877,4.0972,5.0505,2.8618,1.9529,1.9608,1.877,4.902,-8.5486,-7.8161,-5.0251,-6.0,0.0,-10.067,-1.1003,-11.577,-11.577
-2.9703,-2.0875,-0.13201,-0.98039,-0.06472,-0.06944,3.0303,-2.9919,0.94276,-0.98039,-0.06472,1.9608,-11.419,-9.7865,-8.0402,-7.0,-1.0,-10.067,-4.0129,-15.48,-12.553
-1.9802,-0.06734,0.85809,0.98039,1.877,0.97222,5.0505,-0.06504,2.963,0.98039,1.877,3.9216,-9.5056,-8.8013,-6.0302,-5.0,1.0,-9.0667,-3.0421,-14.504,-9.626
1.9802,1.9529,2.8383,1.9608,1.877,2.0139,6.0606,-0.06504,3.9731,1.9608,1.877,4.902,-7.5917,-5.8456,-3.0151,-3.0,3.0,-9.0667,-4.9838,-11.577,-8.6504
0.9901,-1.0774,1.8482,0.0,-1.0356,0.97222,2.0202,-1.0407,-0.06734,0.0,-1.0356,1.9608,-7.5917,-6.8309,-4.0201,-3.0,2.0,-8.0667,-11.78,-12.553,-11.577
3.9604,0.94276,3.8284,2.9412,0.90615,3.0556,3.0303,1.8862,0.94276,2.9412,0.90615,4.902,-4.7209,-4.8604,-1.005,-1.0,4.0,-3.0667,-4.0129,-7.6748,-12.553
3.9604,-0.06734,3.8284,3.9216,1.877,5.1389,4.0404,1.8862,-0.06734,3.9216,1.877,5.8824,-4.7209,-4.8604,0.0,-1.0,4.0,-3.0667,-4.0129,-5.7236,-11.577
2.9703,2.963,4.8185,3.9216,1.877,5.1389,5.0505,1.8862,-1.0774,3.9216,1.877,7.8431,-5.6778,-4.8604,-1.005,0.0,5.0,0.93333,-9.8382,-4.748,-8.6504
8.9109,4.9832,7.7888,4.902,3.8188,7.2222,9.0909,4.813,-0.06734,4.902,3.8188,10.784,-4.7209,-4.8604,2.0101,3.0,7.0,4.9333,-8.8673,-4.748,-6.6992
7.9208,3.9731,8.7789,5.8824,3.8188,9.3056,9.0909,6.7642,-1.0774,5.8824,3.8188,11.765,-2.807,-1.9048,4.0201,4.0,8.0,6.9333,-4.0129,-0.84553,-4.748
4.9505,2.963,6.7987,4.902,1.877,7.2222,5.0505,4.813,-1.0774,4.902,1.877,7.8431,1.0207,1.0509,6.0302,6.0,9.0,2.9333,-2.0712,3.0569,-2.7967
2.9703,-0.06734,3.8284,0.98039,-0.06472,3.0556,0.0,2.8618,-1.0774,0.98039,-0.06472,1.9608,0.0638,0.06568,4.0201,4.0,7.0,2.9333,-0.12945,0.13008,-3.7724
0.0,-2.0875,0.85809,-0.98039,-1.0356,-1.1111,-1.0101,-0.06504,-1.0774,-0.98039,-1.0356,0.0,-0.89314,-0.91954,1.005,1.0,3.0,1.9333,-2.0712,-2.7967,-5.7236
-2.9703,-3.0976,-2.1122,0.0,-1.0356,-4.2361,0.0,-2.9919,-1.0774,0.0,-1.0356,0.0,-3.764,-3.8752,-4.0201,-3.0,-3.0,-4.0667,-4.9838,-6.6992,-9.626
0.9901,-1.0774,-1.1221,1.9608,1.877,0.97222,3.0303,-2.0163,-1.0774,1.9608,1.877,4.902,-4.7209,-4.8604,-6.0302,-4.0,-5.0,-10.067,-5.9547,-7.6748,-11.577
1.9802,0.94276,0.85809,0.98039,1.877,0.97222,3.0303,-1.0407,-2.0875,0.98039,1.877,5.8824,-1.8501,-1.9048,-5.0251,-1.0,-4.0,-9.0667,-22.459999,-4.748,-6.6992
0.0,1.9529,-0.13201,-3.9216,-2.9773,-3.1944,0.0,-5.9187,-6.1279,-3.9216,-2.9773,0.98039,-1.8501,-0.91954,-4.0201,1.0,-3.0,-4.0667,-16.634001,-3.7724,-3.7724
4.9505,3.9731,2.8383,-1.9608,-1.0356,-3.1944,1.0101,-4.9431,-2.0875,-1.9608,-1.0356,1.9608,2.9346,3.0213,3.0151,6.0,4.0,-4.0667,5.6958,2.0813,2.0813
0.0,2.963,2.8383,0.0,1.877,-3.1944,3.0303,-2.0163,2.963,0.0,1.877,1.9608,4.8485,4.9918,5.0251,8.0,7.0,6.9333,7.6375,4.0325,5.0081
-2.9703,2.963,0.85809,-2.9412,0.90615,-4.2361,3.0303,-4.9431,2.963,-2.9412,0.90615,0.0,3.8915,3.0213,5.0251,7.0,6.0,10.933,6.6667,2.0813,1.1057
-0.9901,0.94276,-1.1221,-3.9216,-1.0356,-4.2361,2.0202,-6.8943,-0.06734,-3.9216,-1.0356,0.0,0.0638,-0.91954,1.005,3.0,3.0,-4.0667,-1.1003,-1.8211,-2.7967
-1.9802,1.9529,-0.13201,0.0,-0.06472,-0.06944,1.0101,-1.0407,-0.06734,0.0,-0.06472,1.9608,-0.89314,-0.91954,0.0,2.0,2.0,-5.0667,0.84142,-3.7724,-1.8211
-2.9703,-2.0875,-3.1023,0.0,-1.0356,-2.1528,-2.0202,-2.0163,-0.06734,0.0,-1.0356,-0.98039,-0.89314,-0.91954,-3.0151,-1.0,-1.0,-7.0667,7.6375,-3.7724,-2.7967
-4.9505,-5.1178,-7.0627,-0.98039,-2.0065,-3.1944,-3.0303,-2.9919,-1.0774,-0.98039,-2.0065,-3.9216,-2.807,-2.89,-6.0302,-4.0,-7.0,-5.0667,1.8123,-3.7724,-2.7967
0.0,2.963,-2.1122,0.98039,0.90615,0.97222,3.0303,-0.06504,-0.06734,0.98039,0.90615,1.9608,-1.8501,-1.9048,-4.0201,0.0,-5.0,-4.0667,-3.0421,0.13008,-0.84553
0.0,3.9731,-0.13201,0.0,0.90615,-0.06944,4.0404,-2.9919,0.94276,0.0,0.90615,2.9412,-3.764,-3.8752,-4.0201,-1.0,-5.0,-8.0667,-4.0129,-0.84553,-1.8211
0.0,0.94276,-0.13201,-0.98039,-0.06472,-1.1111,1.0101,-2.9919,-2.0875,-0.98039,-0.06472,0.98039,-5.6778,-5.8456,-4.0201,-3.0,-5.0,-5.0667,-4.9838,-2.7967,-3.7724
0.0,-1.0774,-0.13201,-0.98039,-2.0065,-0.06944,-2.0202,2.8618,-4.1077,-0.98039,-2.0065,0.0,-1.8501,-2.89,0.0,-3.0,-3.0,3.9333,-7.8964,1.1057,-3.7724
1.9802,-3.0976,0.85809,-2.9412,-4.9191,0.97222,-4.0404,4.813,-6.1279,-2.9412,-4.9191,-1.9608,1.9777,-0.91954,3.0151,-3.0,-1.0,6.9333,-1.1003,5.9837,-2.7967
6.9307,-3.0976,1.8482,-3.9216,-5.89,2.0139,-4.0404,3.8374,-7.138,-3.9216,-5.89,-1.9608,3.8915,1.0509,4.0201,-1.0,0.0,3.9333,-0.12945,5.9837,-1.8211
5.9406,-2.0875,1.8482,-4.902,-5.89,-1.1111,-6.0606,0.91057,-8.1481,-4.902,-5.89,-2.9412,1.9777,0.06568,2.0101,-1.0,-1.0,1.9333,-1.1003,4.0325,-2.7967
4.9505,0.94276,2.8383,-2.9412,-2.9773,-0.06944,-4.0404,0.91057,-2.0875,-2.9412,-2.9773,-0.98039,3.8915,2.0361,3.0151,2.0,2.0,-2.0667,2.7832,5.9837,-1.8211
5.9406,5.9933,6.7987,0.0,0.90615,3.0556,2.0202,1.8862,0.94276,0.0,0.90615,3.9216,7.7193,5.977,7.0352,7.0,7.0,-6.0667,4.7249,8.9106,5.9837
6.9307,9.0236,8.7789,0.0,0.90615,3.0556,4.0404,1.8862,1.9529,0.0,0.90615,4.902,6.7624,5.977,9.0452,10.0,10.0,-2.0667,4.7249,7.935,8.9106
8.9109,11.044,10.759,0.0,0.90615,4.0972,5.0505,1.8862,2.963,0.0,0.90615,5.8824,5.8054,4.9918,9.0452,11.0,12.0,6.9333,5.6958,5.9837,8.9106
9.901,12.054,11.749,0.0,1.877,5.1389,5.0505,0.91057,2.963,0.0,1.877,5.8824,5.8054,5.977,10.05,11.0,13.0,4.9333,-1.1003,5.9837,7.935
-2.9703,1.9529,1.8482,-3.9216,-2.0065,-4.2361,-1.0101,-4.9431,-0.06734,-3.9216,-2.0065,-1.9608,0.0638,0.06568,1.005,3.0,5.0,-4.0667,-5.9547,1.1057,1.1057
-10.891,-5.1178,-6.0726,-4.902,-2.9773,-8.4028,-5.0505,-5.9187,-1.0774,-4.902,-2.9773,-6.8627,-2.807,-3.8752,-4.0201,-3.0,-2.0,-10.067,1.8123,-0.84553,-2.7967
-4.9505,-1.0774,-3.1023,-3.9216,-2.0065,-4.2361,-1.0101,-4.9431,-0.06734,-3.9216,-2.0065,-3.9216,0.0638,-0.91954,-3.0151,-1.0,-1.0,-8.0667,-3.0421,1.1057,-0.84553
-4.9505,-2.0875,-3.1023,-4.902,-2.9773,-5.2778,-1.0101,-5.9187,-2.0875,-4.902,-2.9773,-2.9412,1.9777,2.0361,-3.0151,0.0,0.0,-3.0667,-3.0421,2.0813,2.0813
-5.9406,-3.0976,-3.1023,-3.9216,-2.9773,-5.2778,-2.0202,-4.9431,-1.0774,-3.9216,-2.9773,-2.9412,5.8054,5.977,-1.005,4.0,2.0,-6.0667,14.434,4.0325,5.9837
-5.9406,-2.0875,-4.0924,-3.9216,-2.9773,-5.2778,-3.0303,-4.9431,-3.0976,-3.9216,-2.9773,-3.9216,5.8054,7.9475,-1.005,6.0,2.0,-6.0667,11.521,4.0325,9.8862
-8.9109,-2.0875,-5.0825,-5.8824,-5.89,-7.3611,-6.0606,-6.8943,-5.1178,-5.8824,-5.89,-6.8627,3.8915,5.977,-4.0201,5.0,0.0,-13.067,4.7249,0.13008,8.9106
-4.9505,-0.06734,-2.1122,-5.8824,-5.89,-5.2778,-6.0606,-6.8943,-3.0976,-5.8824,-5.89,-4.902,3.8915,6.9622,-1.005,6.0,1.0,-8.0667,6.6667,1.1057,9.8862
-0.9901,5.9933,4.8185,-3.9216,-2.9773,-0.06944,0.0,-2.9919,-1.0774,-3.9216,-2.9773,1.9608,6.7624,8.9327,4.0201,9.0,6.0,0.93333,4.7249,5.0081,11.837
1.9802,4.9832,7.7888,-0.98039,-1.0356,2.0139,1.0101,-1.0407,-1.0774,-0.98039,-1.0356,3.9216,4.8485,6.9622,5.0251,8.0,7.0,-1.0667,3.754,4.0325,9.8862
-0.9901,0.94276,2.8383,-2.9412,-2.0065,-3.1944,-2.0202,-3.9675,-0.06734,-2.9412,-2.0065,-0.98039,-0.89314,2.0361,-1.005,4.0,3.0,-2.0667,0.84142,-4.748,6.9593
-4.9505,2.963,0.85809,-2.9412,-2.0065,-4.2361,-3.0303,-4.9431,1.9529,-2.9412,-2.0065,-2.9412,-2.807,0.06568,-2.0101,4.0,3.0,-10.067,-3.0421,-6.6992,5.0081
-0.9901,0.94276,0.85809,-1.9608,-1.0356,-2.1528,-2.0202,-3.9675,1.9529,-1.9608,-1.0356,-1.9608,-0.89314,1.0509,1.005,3.0,5.0,-11.067,4.7249,-3.7724,2.0813
4.9505,0.94276,3.8284,0.0,-0.06472,0.97222,0.0,-2.0163,0.94276,0.0,-0.06472,0.98039,2.9346,3.0213,4.0201,2.0,7.0,-5.0667,4.7249,0.13008,3.0569
3.9604,-0.06734,4.8185,1.9608,1.877,2.0139,1.0101,-1.0407,-0.06734,1.9608,1.877,3.9216,3.8915,3.0213,3.0151,1.0,5.0,-8.0667,-4.0129,1.1057,2.0813
2.9703,-0.06734,5.8086,0.98039,-0.06472,0.97222,0.0,-2.0163,-4.1077,0.98039,-0.06472,3.9216,1.9777,1.0509,0.0,1.0,5.0,-10.067,-0.12945,-0.84553,1.1057
-1.9802,-3.0976,2.8383,-0.98039,-2.9773,-2.1528,-2.0202,-2.9919,-7.138,-0.98039,-2.9773,0.98039,-0.89314,0.06568,-5.0251,0.0,3.0,-1.0667,-1.1003,-4.748,0.13008
-1.9802,-1.0774,1.8482,-0.98039,-2.9773,-2.1528,-1.0101,-0.06504,-5.1178,-0.98039,-2.9773,0.0,-0.89314,1.0509,-5.0251,1.0,3.0,1.9333,-4.0129,-5.7236,1.1057
1.9802,0.94276,2.8383,-0.98039,-2.0065,-1.1111,1.0101,-1.0407,-1.0774,-0.98039,-2.0065,0.0,-0.89314,1.0509,-3.0151,3.0,5.0,-2.0667,6.6667,-6.6992,1.1057
-2.9703,-0.06734,2.8383,-3.9216,-2.9773,-4.2361,-2.0202,-3.9675,-2.0875,-3.9216,-2.9773,-2.9412,1.0207,3.0213,-3.0151,4.0,5.0,-0.06667,4.7249,-5.7236,4.0325
-2.9703,-0.06734,0.85809,-3.9216,-2.0065,-5.2778,-1.0101,-2.9919,-0.06734,-3.9216,-2.0065,-3.9216,1.0207,3.0213,-2.0101,2.0,3.0,3.9333,-0.12945,-3.7724,4.0325
5.9406,0.94276,0.85809,-3.9216,-3.9482,-2.1528,-1.0101,-3.9675,0.94276,-3.9216,-3.9482,-2.9412,3.8915,4.0066,3.0151,1.0,3.0,-8.0667,-4.0129,1.1057,1.1057
0.9901,-0.06734,-2.1122,-4.902,-4.9191,-6.3194,-3.0303,-3.9675,-0.06734,-4.902,-4.9191,-6.8627,4.8485,4.0066,3.0151,0.0,2.0,-0.06667,-0.12945,2.0813,1.1057
-2.9703,-1.0774,-3.1023,-1.9608,-1.0356,-4.2361,1.0101,0.91057,4.9832,-1.9608,-1.0356,-3.9216,6.7624,6.9622,5.0251,3.0,3.0,7.9333,2.7832,3.0569,5.9837
-3.9604,-4.1077,-5.0825,-3.9216,-3.9482,-6.3194,-2.0202,-2.0163,2.963,-3.9216,-3.9482,-6.8627,7.7193,6.9622,4.0201,3.0,3.0,2.9333,2.7832,3.0569,5.0081
-3.9604,-4.1077,-5.0825,-5.8824,-5.89,-8.4028,-5.0505,-2.0163,-2.0875,-5.8824,-5.89,-8.8235,8.6762,6.9622,4.0201,3.0,3.0,-0.06667,4.7249,6.9593,2.0813
-1.9802,-3.0976,-4.0924,-4.902,-5.89,-7.3611,-5.0505,-0.06504,-4.1077,-4.902,-5.89,-7.8431,7.7193,6.9622,4.0201,2.0,3.0,6.9333,7.6375,7.935,2.0813
-0.9901,-1.0774,-4.0924,-4.902,-4.9191,-8.4028,-4.0404,-2.9919,-1.0774,-4.902,-4.9191,-7.8431,5.8054,5.977,2.0101,1.0,2.0,7.9333,9.5793,5.9837,2.0813
-5.9406,-2.0875,-6.0726,-5.8824,-2.9773,-9.4444,-3.0303,-1.0407,0.94276,-5.8824,-2.9773,-8.8235,1.9777,4.0066,-3.0151,-1.0,-1.0,5.9333,2.7832,0.13008,2.0813
-3.9604,-7.138,-7.0627,-4.902,-2.9773,-7.3611,-5.0505,-3.9675,-0.06734,-4.902,-2.9773,-8.8235,0.0638,3.0213,-4.0201,-1.0,-1.0,-12.067,-3.0421,-3.7724,2.0813
-8.9109,-11.178,-9.0429,-5.8824,-4.9191,-10.486,-7.0707,-9.8211,-4.1077,-5.8824,-4.9191,-10.784,-1.8501,1.0509,-5.0251,-3.0,-3.0,-11.067,-1.1003,-5.7236,0.13008
-12.871,-14.209,-13.003,-5.8824,-5.89,-11.528,-10.101,-7.8699,-4.1077,-5.8824,-5.89,-12.745,-1.8501,-0.91954,-6.0302,-6.0,-6.0,-2.0667,-0.12945,-4.748,-1.8211
-9.901,-9.1582,-11.023,-3.9216,-2.9773,-8.4028,-7.0707,-4.9431,-2.0875,-3.9216,-2.9773,-9.8039,1.0207,0.06568,-4.0201,-5.0,-6.0,0.93333,1.8123,-0.84553,-1.8211
-4.9505,-4.1077,-7.0627,0.0,0.90615,-3.1944,-2.0202,-1.0407,1.9529,0.0,0.90615,-3.9216,7.7193,5.977,2.0101,0.0,-3.0,5.9333,4.7249,7.935,4.0325
2.9703,2.963,-0.13201,3.9216,3.8188,5.1389,3.0303,5.7886,4.9832,3.9216,3.8188,1.9608,17.289,14.844,11.055,6.0,6.0,12.933,11.521,17.691,8.9106
9.901,8.0135,7.7888,4.902,3.8188,9.3056,7.0707,8.7154,5.9933,4.902,3.8188,7.8431,23.987,21.740999,18.09,13.0,14.0,12.933,15.405,22.569,13.789
16.832001,10.034,12.739,2.9412,1.877,8.2639,7.0707,6.7642,5.9933,2.9412,1.877,6.8627,22.073,21.740999,21.106001,16.0,18.0,7.9333,12.492,20.618,13.789
12.871,7.0034,9.769,0.0,-1.0356,6.1806,3.0303,3.8374,1.9529,0.0,-1.0356,3.9216,15.375,15.829,16.08,15.0,16.0,9.9333,5.6958,14.764,10.862
2.9703,-0.06734,3.8284,-2.9412,-3.9482,0.97222,-1.0101,1.8862,-1.0774,-2.9412,-3.9482,0.0,10.59,10.903,10.05,9.0,8.0,13.933,-2.0712,9.8862,7.935
3.9604,-2.0875,0.85809,-3.9216,-5.89,-0.06944,-2.0202,2.8618,-3.0976,-3.9216,-5.89,0.0,7.7193,8.9327,7.0352,5.0,5.0,11.933,4.7249,6.9593,6.9593
5.9406,0.94276,0.85809,-1.9608,-3.9482,3.0556,1.0101,5.7886,-1.0774,-1.9608,-3.9482,1.9608,8.6762,8.9327,6.0302,4.0,4.0,10.933,9.5793,7.935,5.9837
2.9703,0.94276,-0.13201,0.0,-1.0356,3.0556,4.0404,2.8618,-1.0774,0.0,-1.0356,2.9412,6.7624,5.977,5.0251,1.0,1.0,-0.06667,1.8123,7.935,2.0813
-1.9802,-5.1178,-4.0924,-0.98039,-1.0356,-2.1528,0.0,-2.9919,-2.0875,-0.98039,-1.0356,-1.9608,2.9346,1.0509,-1.005,-3.0,-3.0,-1.0667,-0.12945,3.0569,-1.8211
-3.9604,-8.1481,-6.0726,0.0,-0.06472,-3.1944,0.0,-2.0163,0.94276,0.0,-0.06472,-2.9412,1.9777,1.0509,-2.0101,-3.0,-3.0,-1.0667,-3.0421,2.0813,-2.7967
0.9901,-5.1178,-2.1122,0.98039,0.90615,2.0139,1.0101,0.91057,2.963,0.98039,0.90615,0.0,2.9346,1.0509,1.005,-1.0,-1.0,3.9333,1.8123,5.0081,-1.8211
8.9109,-0.06734,2.8383,1.9608,0.90615,5.1389,2.0202,4.813,1.9529,1.9608,0.90615,2.9412,4.8485,3.0213,7.0352,2.0,3.0,0.93333,9.5793,6.9593,-0.84553
5.9406,-3.0976,0.85809,-0.98039,-2.9773,0.97222,-2.0202,3.8374,-3.0976,-0.98039,-2.9773,-0.98039,3.8915,1.0509,5.0251,-1.0,1.0,8.9333,6.6667,5.0081,-1.8211
-5.9406,-11.178,-6.0726,-4.902,-4.9191,-6.3194,-7.0707,0.91057,-5.1178,-4.902,-4.9191,-7.8431,0.0638,-3.8752,-1.005,-9.0,-6.0,12.933,-4.9838,3.0569,-7.6748
-5.9406,-10.168,-8.0528,-4.902,-4.9191,-5.2778,-6.0606,0.91057,-4.1077,-4.902,-4.9191,-7.8431,-0.89314,-3.8752,-3.0151,-9.0,-7.0,3.9333,-9.8382,2.0813,-6.6992
-3.9604,-7.138,-7.0627,-4.902,-4.9191,-4.2361,-4.0404,2.8618,-2.0875,-4.902,-4.9191,-6.8627,0.0638,-2.89,-1.005,-6.0,-5.0,4.9333,-4.0129,1.1057,-3.7724
1.9802,-7.138,-4.0924,-4.902,-6.8608,-4.2361,-5.0505,2.8618,-3.0976,-4.902,-6.8608,-7.8431,1.9777,-2.89,2.0101,-7.0,-3.0,3.9333,-2.0712,4.0325,-6.6992
2.9703,-6.1279,-2.1122,-5.8824,-7.8317,-1.1111,-7.0707,4.813,-6.1279,-5.8824,-7.8317,-7.8431,2.9346,-2.89,4.0201,-5.0,-1.0,8.9333,-4.9838,5.0081,-5.7236
2.9703,-4.1077,-1.1221,-5.8824,-8.8026,2.0139,-8.0808,7.7398,-7.138,-5.8824,-8.8026,-6.8627,1.9777,-2.89,2.0101,-4.0,-2.0,5.9333,-1.1003,5.0081,-5.7236
3.9604,-5.1178,-0.13201,-5.8824,-7.8317,3.0556,-8.0808,5.7886,-8.1481,-5.8824,-7.8317,-3.9216,2.9346,-0.91954,2.0101,-4.0,-2.0,1.9333,1.8123,5.9837,-3.7724
2.9703,-4.1077,0.85809,-5.8824,-7.8317,-0.06944,-7.0707,0.91057,-8.1481,-5.8824,-7.8317,-2.9412,2.9346,1.0509,2.0101,-1.0,0.0,0.93333,-2.0712,5.0081,-0.84553
0.9901,-1.0774,1.8482,-5.8824,-7.8317,-2.1528,-7.0707,-1.0407,-7.138,-5.8824,-7.8317,-2.9412,2.9346,0.06568,2.0101,-1.0,2.0,5.9333,-11.78,4.0325,-1.8211
2.9703,-1.0774,1.8482,-3.9216,-5.89,-0.06944,-5.0505,1.8862,-6.1279,-3.9216,-5.89,-0.98039,1.9777,-0.91954,3.0151,-2.0,2.0,12.933,-8.8673,3.0569,-2.7967
6.9307,0.94276,3.8284,-0.98039,-3.9482,6.1806,0.0,3.8374,-4.1077,-0.98039,-3.9482,3.9216,1.0207,-1.9048,6.0302,-1.0,3.0,10.933,5.6958,4.0325,-4.748
5.9406,2.963,3.8284,-0.98039,-3.9482,7.2222,1.0101,5.7886,-4.1077,-0.98039,-3.9482,4.902,1.0207,-2.89,7.0352,-1.0,3.0,9.9333,3.754,4.0325,-4.748
2.9703,-1.0774,1.8482,-0.98039,-2.9773,6.1806,-1.0101,5.7886,-4.1077,-0.98039,-2.9773,3.9216,1.0207,-2.89,6.0302,-3.0,2.0,5.9333,-3.0421,5.0081,-3.7724
2.9703,-0.06734,2.8383,0.0,-1.0356,5.1389,0.0,3.8374,-3.0976,0.0,-1.0356,4.902,0.0638,-3.8752,5.0251,-1.0,2.0,1.9333,-4.9838,4.0325,-3.7724
5.9406,-1.0774,2.8383,0.98039,-1.0356,7.2222,0.0,3.8374,-3.0976,0.98039,-1.0356,5.8824,-1.8501,-5.8456,4.0201,-3.0,0.0,4.9333,-6.9256,1.1057,-6.6992
7.9208,-4.1077,1.8482,0.98039,-1.0356,8.2639,0.0,6.7642,-2.0875,0.98039,-1.0356,5.8824,-2.807,-6.8309,3.0151,-5.0,-1.0,1.9333,-8.8673,1.1057,-9.626
5.9406,-2.0875,-0.13201,0.98039,-1.0356,9.3056,0.0,6.7642,-4.1077,0.98039,-1.0356,5.8824,-4.7209,-6.8309,1.005,-5.0,-3.0,4.9333,-12.751,-0.84553,-10.602
7.9208,1.9529,-1.1221,1.9608,-1.0356,9.3056,0.0,7.7398,-5.1178,1.9608,-1.0356,4.902,-3.764,-4.8604,1.005,-3.0,-2.0,2.9333,-4.9838,0.13008,-6.6992
5.9406,-0.06734,-4.0924,0.0,-3.9482,5.1389,-2.0202,4.813,-5.1178,0.0,-3.9482,1.9608,-1.8501,-3.8752,2.0101,-3.0,-3.0,3.9333,-0.12945,3.0569,-4.748
-4.9505,-6.1279,-8.0528,-1.9608,-4.9191,-0.06944,-1.0101,2.8618,-4.1077,-1.9608,-4.9191,-0.98039,-3.764,-5.8456,-3.0151,-6.0,-7.0,12.933,-0.12945,1.1057,-5.7236
-1.9802,-6.1279,-7.0627,-2.9412,-4.9191,0.97222,-1.0101,2.8618,-1.0774,-2.9412,-4.9191,-1.9608,-4.7209,-6.8309,-4.0201,-6.0,-8.0,6.9333,1.8123,-1.8211,-5.7236
-2.9703,-6.1279,-8.0528,-2.9412,-3.9482,-0.06944,-4.0404,3.8374,-1.0774,-2.9412,-3.9482,-2.9412,-6.6348,-6.8309,-6.0302,-8.0,-8.0,2.9333,-2.0712,-3.7724,-5.7236
-6.9307,-8.1481,-10.033,-0.98039,-4.9191,-1.1111,-5.0505,2.8618,-4.1077,-0.98039,-4.9191,-3.9216,-6.6348,-7.8161,-7.0352,-9.0,-8.0,5.9333,-3.0421,-4.748,-5.7236
0.0,-0.06734,-6.0726,-0.98039,-4.9191,0.97222,-3.0303,2.8618,-4.1077,-0.98039,-4.9191,-1.9608,-2.807,-2.89,-1.005,-4.0,-4.0,-2.0667,-4.0129,0.13008,0.13008
-0.9901,-3.0976,-9.0429,-4.902,-8.8026,-4.2361,-6.0606,-1.0407,-8.1481,-4.902,-8.8026,-5.8824,-4.7209,-4.8604,-4.0201,-6.0,-8.0,-10.067,-6.9256,-3.7724,-1.8211
-5.9406,-5.1178,-10.033,-4.902,-8.8026,-4.2361,-5.0505,-2.0163,-6.1279,-4.902,-8.8026,-5.8824,-8.5486,-8.8013,-8.0402,-9.0,-10.0,-4.0667,1.8123,-7.6748,-5.7236
-8.9109,-0.06734,-8.0528,-3.9216,-5.89,-3.1944,-3.0303,-1.0407,-3.0976,-3.9216,-5.89,-2.9412,-6.6348,-5.8456,-8.0402,-7.0,-9.0,8.9333,-0.12945,-6.6992,-0.84553
-6.9307,-5.1178,-8.0528,-4.902,-5.89,-4.2361,-3.0303,-2.9919,-3.0976,-4.902,-5.89,-3.9216,-7.5917,-5.8456,-10.05,-7.0,-10.0,4.9333,1.8123,-7.6748,0.13008
-7.9208,-8.1481,-10.033,-4.902,-6.8608,-5.2778,-4.0404,-2.0163,-4.1077,-4.902,-6.8608,-4.902,-8.5486,-6.8309,-12.06,-7.0,-10.0,-2.0667,3.754,-9.626,-0.84553
-9.901,-5.1178,-11.023,-4.902,-5.89,-4.2361,-4.0404,-0.06504,-4.1077,-4.902,-5.89,-4.902,-7.5917,-5.8456,-12.06,-7.0,-11.0,-5.0667,-7.8964,-9.626,-0.84553
-9.901,-4.1077,-11.023,-3.9216,-5.89,-2.1528,-3.0303,-1.0407,-4.1077,-3.9216,-5.89,-2.9412,-8.5486,-7.8161,-13.065,-8.0,-11.0,-3.0667,-7.8964,-11.577,-1.8211
-2.9703,-4.1077,-7.0627,-2.9412,-5.89,3.0556,-2.0202,-0.06504,-5.1178,-2.9412,-5.89,0.98039,-9.5056,-8.8013,-10.05,-8.0,-9.0,-6.0667,-4.9838,-10.602,-3.7724
-4.9505,-5.1178,-6.0726,-0.98039,-4.9191,4.0972,0.0,0.91057,-6.1279,-0.98039,-4.9191,3.9216,-11.419,-10.772,-10.05,-10.0,-8.0,-6.0667,-0.12945,-8.6504,-5.7236
-6.9307,-6.1279,-5.0825,1.9608,-2.0065,5.1389,2.0202,4.813,-5.1178,1.9608,-2.0065,5.8824,-12.376,-13.727,-12.06,-12.0,-10.0,6.9333,-0.12945,-9.626,-8.6504
-6.9307,-9.1582,-8.0528,0.98039,-2.0065,3.0556,0.0,2.8618,-3.0976,0.98039,-2.0065,2.9412,-12.376,-13.727,-12.06,-14.0,-12.0,7.9333,-5.9547,-7.6748,-10.602
-5.9406,-8.1481,-9.0429,-0.98039,-3.9482,3.0556,-3.0303,0.91057,-4.1077,-0.98039,-3.9482,0.0,-11.419,-12.742,-12.06,-13.0,-13.0,-1.0667,-2.0712,-7.6748,-10.602
-9.901,-10.168,-12.013,-3.9216,-5.89,-1.1111,-5.0505,-3.9675,-7.138,-3.9216,-5.89,-2.9412,-9.5056,-9.7865,-14.07,-12.0,-15.0,-9.0667,-11.78,-8.6504,-7.6748
-14.851,-7.138,-12.013,-3.9216,-6.8608,-4.2361,-3.0303,-3.9675,-5.1178,-3.9216,-6.8608,-3.9216,-7.5917,-7.8161,-13.065,-10.0,-14.0,-5.0667,-9.8382,-7.6748,-5.7236
-6.9307,-4.1077,-9.0429,-2.9412,-3.9482,-3.1944,1.0101,-4.9431,-3.0976,-2.9412,-3.9482,-0.98039,-4.7209,-5.8456,-8.0402,-8.0,-9.0,-5.0667,-9.8382,-4.748,-4.748
-8.9109,-3.0976,-7.0627,-3.9216,-2.9773,-4.2361,1.0101,-6.8943,-3.0976,-3.9216,-2.9773,0.0,-2.807,-2.89,-6.0302,-6.0,-5.0,-14.067,-2.0712,-2.7967,-3.7724
-4.9505,-5.1178,-5.0825,-4.902,-2.0065,-2.1528,2.0202,-7.8699,-1.0774,-4.902,-2.0065,0.98039,2.9346,1.0509,0.0,-4.0,0.0,-14.067,12.492,2.0813,0.13008
-5.9406,-3.0976,-3.1023,-5.8824,-2.9773,-2.1528,3.0303,-8.8455,-1.0774,-5.8824,-2.9773,0.98039,2.9346,1.0509,1.005,-1.0,2.0,-3.0667,1.8123,2.0813,0.13008
-3.9604,-0.06734,-2.1122,-4.902,-2.9773,-2.1528,4.0404,-8.8455,-4.1077,-4.902,-2.9773,0.98039,1.0207,0.06568,0.0,-2.0,1.0,-4.0667,-7.8964,0.13008,-0.84553
-3.9604,-3.0976,-2.1122,-4.902,-3.9482,-2.1528,1.0101,-5.9187,-4.1077,-4.902,-3.9482,0.0,1.9777,1.0509,0.0,-3.0,0.0,-6.0667,-12.751,1.1057,-0.84553
-5.9406,-3.0976,-1.1221,-8.8235,-7.8317,-8.4028,-3.0303,-9.8211,-6.1279,-8.8235,-7.8317,-3.9216,2.9346,2.0361,0.0,-1.0,2.0,2.9333,-5.9547,2.0813,-1.8211
-3.9604,-1.0774,-0.13201,-8.8235,-8.8026,-10.486,-5.0505,-11.772,-9.1582,-8.8235,-8.8026,-4.902,4.8485,3.0213,3.0151,1.0,4.0,0.93333,-2.0712,5.0081,-0.84553
-2.9703,-3.0976,-2.1122,-6.8627,-5.89,-9.4444,-4.0404,-10.797,-7.138,-6.8627,-5.89,-4.902,2.9346,1.0509,2.0101,-2.0,1.0,-5.0667,-10.809,3.0569,-4.748
-6.9307,-2.0875,-5.0825,-6.8627,-5.89,-8.4028,-5.0505,-8.8455,-9.1582,-6.8627,-5.89,-5.8824,-0.89314,-2.89,-3.0151,-6.0,-4.0,-10.067,-16.634001,-0.84553,-7.6748
-2.9703,-7.138,-5.0825,-6.8627,-7.8317,-7.3611,-7.0707,-10.797,-9.1582,-6.8627,-7.8317,-5.8824,-0.89314,-1.9048,-3.0151,-6.0,-5.0,-16.066999,-5.9547,-1.8211,-4.748
-1.9802,-6.1279,-1.1221,-5.8824,-5.89,-5.2778,-5.0505,-9.8211,-7.138,-5.8824,-5.89,-3.9216,2.9346,3.0213,0.0,0.0,0.0,-1.0667,4.7249,1.1057,1.1057
-3.9604,-2.0875,-1.1221,-7.8431,-8.8026,-7.3611,-5.0505,-12.748,-10.168,-7.8431,-8.8026,-4.902,4.8485,4.0066,1.005,1.0,2.0,-2.0667,-3.0421,3.0569,2.0813
0.0,2.963,1.8482,-6.8627,-7.8317,-6.3194,-3.0303,-7.8699,-12.189,-6.8627,-7.8317,-2.9412,5.8054,4.0066,3.0151,3.0,4.0,-4.0667,-8.8673,5.0081,3.0569
2.9703,1.9529,2.8383,-4.902,-5.89,-5.2778,-3.0303,-5.9187,-9.1582,-4.902,-5.89,-1.9608,4.8485,3.0213,3.0151,2.0,4.0,1.9333,-4.0129,5.0081,3.0569
2.9703,1.9529,1.8482,-6.8627,-6.8608,-6.3194,-4.0404,-8.8455,-8.1481,-6.8627,-6.8608,-2.9412,1.9777,1.0509,1.005,1.0,2.0,3.9333,-12.751,3.0569,0.13008
2.9703,1.9529,0.85809,-7.8431,-7.8317,-6.3194,-6.0606,-7.8699,-8.1481,-7.8431,-7.8317,-4.902,0.0638,0.06568,0.0,0.0,0.0,5.9333,2.7832,-0.84553,0.13008
-1.9802,-0.06734,-1.1221,-7.8431,-7.8317,-9.4444,-7.0707,-6.8943,-7.138,-7.8431,-7.8317,-8.8235,-0.89314,-0.91954,-1.005,-1.0,-1.0,-1.0667,6.6667,-0.84553,0.13008
-1.9802,-0.06734,-0.13201,-7.8431,-6.8608,-9.4444,-6.0606,-7.8699,-5.1178,-7.8431,-6.8608,-8.8235,-0.89314,-1.9048,2.0101,0.0,1.0,-12.067,-0.12945,2.0813,0.13008
0.9901,-1.0774,-0.13201,-6.8627,-6.8608,-7.3611,-6.0606,-7.8699,-5.1178,-6.8627,-6.8608,-8.8235,-1.8501,-2.89,2.0101,0.0,1.0,-7.0667,-0.12945,1.1057,-2.7967
-2.9703,-2.0875,-2.1122,-6.8627,-6.8608,-9.4444,-7.0707,-6.8943,-5.1178,-6.8627,-6.8608,-9.8039,-3.764,-4.8604,-1.005,-3.0,-2.0,-3.0667,-5.9547,-0.84553,-3.7724
-5.9406,-2.0875,-4.0924,-7.8431,-7.8317,-9.4444,-7.0707,-7.8699,-7.138,-7.8431,-7.8317,-10.784,-4.7209,-6.8309,-4.0201,-5.0,-5.0,-3.0667,-12.751,-2.7967,-5.7236
-4.9505,-4.1077,-6.0726,-7.8431,-8.8026,-9.4444,-7.0707,-6.8943,-7.138,-7.8431,-8.8026,-9.8039,-6.6348,-7.8161,-5.0251,-7.0,-6.0,-0.06667,-11.78,-4.748,-7.6748
-4.9505,-5.1178,-6.0726,-6.8627,-6.8608,-8.4028,-7.0707,-6.8943,-6.1279,-6.8627,-6.8608,-8.8235,-5.6778,-6.8309,-7.0352,-6.0,-6.0,-3.0667,-2.0712,-4.748,-6.6992
3.9604,-2.0875,-2.1122,-5.8824,-3.9482,-4.2361,-4.0404,-6.8943,-4.1077,-5.8824,-3.9482,-4.902,-5.6778,-5.8456,-4.0201,-4.0,-3.0,-6.0667,0.84142,-3.7724,-6.6992
2.9703,-2.0875,-0.13201,-4.902,-2.9773,-3.1944,-4.0404,-4.9431,-3.0976,-4.902,-2.9773,-3.9216,-6.6348,-7.8161,-3.0151,-5.0,-3.0,-4.0667,-0.12945,-4.748,-7.6748
1.9802,-0.06734,1.8482,-1.9608,-2.0065,-1.1111,-1.0101,-2.0163,-4.1077,-1.9608,-2.0065,-0.98039,-5.6778,-6.8309,-1.005,-3.0,-1.0,-4.0667,-4.0129,-2.7967,-7.6748
2.9703,1.9529,3.8284,0.0,-0.06472,2.0139,0.0,-2.0163,-1.0774,0.0,-0.06472,0.98039,-3.764,-4.8604,2.0101,-1.0,3.0,-4.0667,-3.0421,-2.7967,-6.6992
3.9604,2.963,2.8383,0.0,0.90615,0.97222,1.0101,-3.9675,0.94276,0.0,0.90615,1.9608,-1.8501,-1.9048,2.0101,1.0,4.0,-3.0667,-4.9838,-2.7967,-2.7967
0.9901,1.9529,2.8383,0.98039,1.877,2.0139,4.0404,-2.9919,-0.06734,0.98039,1.877,3.9216,-1.8501,-1.9048,0.0,1.0,3.0,-4.0667,-1.1003,-2.7967,-2.7967
-0.9901,-0.06734,1.8482,0.98039,1.877,0.97222,2.0202,-2.0163,2.963,0.98039,1.877,3.9216,-2.807,-2.89,-3.0151,-1.0,1.0,-3.0667,3.754,-2.7967,-3.7724
2.9703,1.9529,2.8383,-0.98039,-1.0356,-1.1111,1.0101,-3.9675,1.9529,-0.98039,-1.0356,2.9412,-0.89314,-1.9048,-1.005,-2.0,1.0,-7.0667,-3.0421,-0.84553,-4.748
0.0,2.963,2.8383,-3.9216,-4.9191,-3.1944,-3.0303,-4.9431,-3.0976,-3.9216,-4.9191,0.0,0.0638,-1.9048,-1.005,-3.0,0.0,-1.0667,-1.1003,0.13008,-3.7724
3.9604,4.9832,5.8086,-2.9412,-3.9482,-1.1111,-2.0202,-1.0407,-2.0875,-2.9412,-3.9482,0.98039,1.9777,1.0509,3.0151,0.0,3.0,-6.0667,8.6084,2.0813,-0.84553
6.9307,3.9731,7.7888,-2.9412,-2.9773,0.97222,0.0,-3.9675,-1.0774,-2.9412,-2.9773,2.9412,2.9346,2.0361,6.0302,2.0,6.0,-7.0667,2.7832,1.1057,0.13008
1.9802,7.0034,8.7789,-5.8824,-3.9482,-4.2361,1.0101,-7.8699,0.94276,-5.8824,-3.9482,0.98039,2.9346,3.0213,5.0251,3.0,8.0,2.9333,4.7249,1.1057,-0.84553
0.9901,7.0034,7.7888,-7.8431,-3.9482,-6.3194,2.0202,-8.8455,3.9731,-7.8431,-3.9482,0.0,1.9777,1.0509,4.0201,2.0,6.0,1.9333,9.5793,2.0813,-1.8211
2.9703,2.963,6.7987,-7.8431,-4.9191,-3.1944,2.0202,-7.8699,1.9529,-7.8431,-4.9191,0.0,-1.8501,-1.9048,2.0101,0.0,4.0,3.9333,6.6667,-0.84553,-2.7967
6.9307,3.9731,7.7888,-6.8627,-5.89,-0.06944,3.0303,-2.9919,-3.0976,-6.8627,-5.89,0.98039,-2.807,-2.89,2.0101,-1.0,2.0,-0.06667,-1.1003,-1.8211,-3.7724
1.9802,0.94276,4.8185,-6.8627,-6.8608,-3.1944,-2.0202,-3.9675,-3.0976,-6.8627,-6.8608,-1.9608,-4.7209,-4.8604,-1.005,-3.0,-2.0,1.9333,-3.0421,-4.748,-4.748
-0.9901,0.94276,1.8482,-6.8627,-5.89,-4.2361,-5.0505,-5.9187,-3.0976,-6.8627,-5.89,-3.9216,-6.6348,-5.8456,-5.0251,-5.0,-5.0,-0.06667,-6.9256,-6.6992,-4.748
-0.9901,-0.06734,0.85809,-5.8824,-3.9482,-3.1944,-2.0202,-5.9187,-0.06734,-5.8824,-3.9482,-1.9608,-7.5917,-7.8161,-5.0251,-6.0,-6.0,-5.0667,-9.8382,-5.7236,-6.6992
4.9505,1.9529,5.8086,-2.9412,-0.06472,2.0139,4.0404,-3.9675,1.9529,-2.9412,-0.06472,3.9216,-6.6348,-6.8309,-2.0101,-5.0,-4.0,-6.0667,-9.8382,-4.748,-7.6748
1.9802,0.94276,6.7987,-1.9608,-0.06472,4.0972,4.0404,-2.9919,0.94276,-1.9608,-0.06472,4.902,-7.5917,-6.8309,-3.0151,-5.0,-2.0,-7.0667,0.84142,-7.6748,-8.6504
4.9505,2.963,9.769,0.0,-0.06472,6.1806,5.0505,1.8862,0.94276,0.0,-0.06472,6.8627,-4.7209,-4.8604,2.0101,0.0,3.0,-0.06667,13.463,-5.7236,-5.7236
10.891,8.0135,12.739,0.0,-0.06472,9.3056,7.0707,2.8618,2.963,0.0,-0.06472,8.8235,1.0207,1.0509,9.0452,6.0,8.0,8.9333,11.521,2.0813,-0.84553
10.891,4.9832,9.769,-2.9412,-2.0065,6.1806,4.0404,-0.06504,1.9529,-2.9412,-2.0065,5.8824,1.9777,2.0361,8.0402,5.0,6.0,6.9333,4.7249,5.0081,2.0813
0.9901,-4.1077,0.85809,-5.8824,-2.9773,-1.1111,-1.0101,-2.0163,-1.0774,-5.8824,-2.9773,-0.98039,-3.764,-3.8752,-1.005,-3.0,-3.0,-1.0667,-4.0129,-0.84553,-2.7967
-1.9802,-6.1279,-3.1023,-5.8824,-3.9482,-4.2361,-4.0404,-3.9675,-4.1077,-5.8824,-3.9482,-4.902,-8.5486,-7.8161,-6.0302,-6.0,-9.0,-6.0667,-13.722,-5.7236,-7.6748
-3.9604,-5.1178,-4.0924,-5.8824,-3.9482,-6.3194,-6.0606,-6.8943,-6.1279,-5.8824,-3.9482,-5.8824,-8.5486,-6.8309,-7.0352,-7.0,-10.0,-4.0667,-8.8673,-7.6748,-6.6992
-7.9208,-8.1481,-6.0726,-6.8627,-3.9482,-8.4028,-5.0505,-9.8211,-4.1077,-6.8627,-3.9482,-6.8627,-8.5486,-6.8309,-9.0452,-9.0,-10.0,-5.0667,1.8123,-9.626,-8.6504
-8.9109,-13.199,-10.033,-9.8039,-6.8608,-12.569,-9.0909,-11.772,-6.1279,-9.8039,-6.8608,-10.784,-9.5056,-8.8013,-11.055,-11.0,-13.0,-14.067,1.8123,-10.602,-10.602
-9.901,-15.219,-12.013,-11.765,-10.744,-12.569,-12.121,-10.797,-10.168,-11.765,-10.744,-12.745,-11.419,-10.772,-13.065,-14.0,-16.0,-12.067,-1.1003,-11.577,-12.553
-9.901,-13.199,-12.013,-11.765,-12.686,-10.486,-12.121,-8.8455,-11.178,-11.765,-12.686,-11.765,-9.5056,-9.7865,-11.055,-13.0,-16.0,-10.067,-7.8964,-8.6504,-10.602
-10.891,-10.168,-10.033,-11.765,-11.715,-12.569,-12.121,-7.8699,-12.189,-11.765,-11.715,-11.765,-7.5917,-8.8013,-9.0452,-12.0,-14.0,-4.0667,-11.78,-5.7236,-9.626
-13.861,-12.189,-12.013,-11.765,-10.744,-13.611,-13.131,-7.8699,-9.1582,-11.765,-10.744,-13.725,-10.463,-9.7865,-13.065,-13.0,-15.0,-11.067,-7.8964,-11.577,-10.602
-14.851,-11.178,-13.993,-12.745,-10.744,-15.694,-13.131,-9.8211,-7.138,-12.745,-10.744,-16.667,-12.376,-10.772,-16.08,-13.0,-16.0,-11.067,-6.9256,-14.504,-10.602
-16.832001,-10.168,-14.983,-14.706,-12.686,-17.778,-12.121,-10.797,-10.168,-14.706,-12.686,-17.646999,-11.419,-9.7865,-15.075,-11.0,-16.0,-7.0667,-10.809,-13.528,-10.602
-13.861,-13.199,-15.974,-14.706,-12.686,-15.694,-13.131,-8.8455,-10.168,-14.706,-12.686,-15.686,-9.5056,-7.8161,-14.07,-13.0,-17.0,-8.0667,-2.0712,-11.577,-9.626
-12.871,-18.249001,-16.964001,-15.686,-15.599,-14.653,-17.172001,-11.772,-11.178,-15.686,-15.599,-14.706,-8.5486,-7.8161,-12.06,-15.0,-17.0,-4.0667,2.7832,-10.602,-9.626
-8.9109,-16.229,-13.993,-15.686,-15.599,-12.569,-18.181999,-11.772,-13.199,-15.686,-15.599,-14.706,-7.5917,-6.8309,-10.05,-13.0,-14.0,-5.0667,-2.0712,-10.602,-10.602
-5.9406,-13.199,-12.013,-13.725,-14.628,-11.528,-17.172001,-7.8699,-12.189,-13.725,-14.628,-14.706,-3.764,-4.8604,-7.0352,-11.0,-12.0,-5.0667,-8.8673,-5.7236,-9.626
-6.9307,-6.1279,-10.033,-9.8039,-10.744,-8.4028,-11.111,-2.0163,-11.178,-9.8039,-10.744,-11.765,2.9346,0.06568,-4.0201,-8.0,-10.0,-0.06667,-11.78,2.0813,-6.6992
-5.9406,-8.1481,-11.023,-8.8235,-8.8026,-7.3611,-11.111,-1.0407,-10.168,-8.8235,-8.8026,-11.765,5.8054,3.0213,-3.0151,-7.0,-9.0,3.9333,-8.8673,5.9837,-4.748
-8.9109,-15.219,-13.993,-11.765,-12.686,-12.569,-16.162001,-5.9187,-12.189,-11.765,-12.686,-15.686,0.0638,-0.91954,-6.0302,-9.0,-11.0,-3.0667,-8.8673,2.0813,-4.748
-7.9208,-16.229,-13.993,-12.745,-13.657,-11.528,-17.172001,-5.9187,-12.189,-12.745,-13.657,-15.686,-5.6778,-5.8456,-8.0402,-10.0,-13.0,1.9333,-2.0712,-2.7967,-5.7236
-7.9208,-12.189,-12.013,-12.745,-13.657,-10.486,-14.141,-6.8943,-11.178,-12.745,-13.657,-12.745,-10.463,-10.772,-10.05,-11.0,-15.0,1.9333,-9.8382,-3.7724,-6.6992
-11.881,-11.178,-12.013,-13.725,-13.657,-11.528,-14.141,-6.8943,-12.189,-13.725,-13.657,-12.745,-10.463,-10.772,-11.055,-11.0,-15.0,-0.06667,-0.12945,-5.7236,-6.6992
-9.901,-12.189,-12.013,-12.745,-11.715,-12.569,-12.121,-8.8455,-9.1582,-12.745,-11.715,-11.765,-11.419,-11.757,-10.05,-10.0,-13.0,-7.0667,2.7832,-9.626,-9.626
-11.881,-13.199,-13.003,-12.745,-10.744,-14.653,-10.101,-9.8211,-10.168,-12.745,-10.744,-12.745,-11.419,-11.757,-12.06,-11.0,-14.0,-12.067,-5.9547,-11.577,-8.6504
-11.881,-12.189,-13.993,-13.725,-12.686,-13.611,-14.141,-8.8455,-10.168,-13.725,-12.686,-14.706,-8.5486,-8.8013,-11.055,-10.0,-13.0,-12.067,-6.9256,-8.6504,-6.6992
-11.881,-12.189,-13.003,-14.706,-13.657,-12.569,-15.152,-7.8699,-10.168,-14.706,-13.657,-15.686,-5.6778,-5.8456,-10.05,-9.0,-13.0,-4.0667,-1.1003,-5.7236,-3.7724
-7.9208,-8.1481,-10.033,-12.745,-11.715,-9.4444,-9.0909,-5.9187,-9.1582,-12.745,-11.715,-10.784,-3.764,-2.89,-9.0452,-7.0,-12.0,1.9333,-5.9547,-3.7724,-1.8211
-10.891,-11.178,-10.033,-10.784,-9.7735,-9.4444,-7.0707,-4.9431,-8.1481,-10.784,-9.7735,-8.8235,-5.6778,-5.8456,-10.05,-9.0,-13.0,1.9333,-1.1003,-3.7724,-5.7236
-8.9109,-10.168,-7.0627,-9.8039,-7.8317,-7.3611,-6.0606,-4.9431,-7.138,-9.8039,-7.8317,-5.8824,-7.5917,-7.8161,-9.0452,-9.0,-12.0,-6.0667,-2.0712,-5.7236,-7.6748
-3.9604,-9.1582,-4.0924,-7.8431,-6.8608,-4.2361,-5.0505,-6.8943,-4.1077,-7.8431,-6.8608,-2.9412,-8.5486,-8.8013,-7.0352,-8.0,-10.0,-10.067,-6.9256,-7.6748,-7.6748
-2.9703,-6.1279,-3.1023,-7.8431,-5.89,-4.2361,-4.0404,-3.9675,-4.1077,-7.8431,-5.89,-2.9412,-6.6348,-5.8456,-5.0251,-6.0,-8.0,-7.0667,-0.12945,-6.6992,-4.748
-5.9406,-10.168,-8.0528,-9.8039,-7.8317,-7.3611,-8.0808,-4.9431,-7.138,-9.8039,-7.8317,-6.8627,-7.5917,-5.8456,-7.0352,-6.0,-10.0,-10.067,-4.0129,-6.6992,-5.7236
-11.881,-10.168,-13.003,-12.745,-11.715,-11.528,-12.121,-7.8699,-12.189,-12.745,-11.715,-11.765,-9.5056,-7.8161,-12.06,-8.0,-12.0,-6.0667,-7.8964,-9.626,-6.6992
-15.842,-12.189,-14.983,-14.706,-13.657,-14.653,-14.141,-9.8211,-14.209,-14.706,-13.657,-13.725,-9.5056,-7.8161,-15.075,-9.0,-15.0,-7.0667,-13.722,-10.602,-5.7236
-12.871,-12.189,-12.013,-11.765,-11.715,-10.486,-13.131,-5.9187,-11.178,-11.765,-11.715,-10.784,-7.5917,-4.8604,-13.065,-7.0,-12.0,-9.0667,-5.9547,-7.6748,-1.8211
-4.9505,-10.168,-7.0627,-8.8235,-8.8026,-6.3194,-8.0808,-2.9919,-9.1582,-8.8235,-8.8026,-4.902,-4.7209,-2.89,-7.0352,-5.0,-8.0,-4.0667,2.7832,-4.748,1.1057
-0.9901,-7.138,-2.1122,-6.8627,-6.8608,-3.1944,-2.0202,-3.9675,-7.138,-6.8627,-6.8608,0.0,-0.89314,-0.91954,-2.0101,-2.0,-3.0,2.9333,0.84142,-2.7967,1.1057
0.0,-2.0875,0.85809,-5.8824,-5.89,0.97222,1.0101,-2.9919,-6.1279,-5.8824,-5.89,3.9216,0.0638,0.06568,0.0,0.0,1.0,1.9333,2.7832,-0.84553,0.13008
-1.9802,0.94276,1.8482,-5.8824,-5.89,-0.06944,1.0101,-3.9675,-5.1178,-5.8824,-5.89,3.9216,1.0207,0.06568,2.0101,2.0,2.0,-3.0667,2.7832,1.1057,0.13008
-0.9901,4.9832,3.8284,-5.8824,-5.89,-1.1111,2.0202,-3.9675,-4.1077,-5.8824,-5.89,2.9412,0.0638,1.0509,1.005,5.0,3.0,-8.0667,0.84142,0.13008,2.0813
1.9802,5.9933,4.8185,-5.8824,-5.89,-2.1528,3.0303,-2.9919,-3.0976,-5.8824,-5.89,2.9412,0.0638,2.0361,0.0,7.0,3.0,1.9333,5.6958,0.13008,5.9837
-0.9901,1.9529,0.85809,-9.8039,-8.8026,-4.2361,0.0,-3.9675,-7.138,-9.8039,-8.8026,-1.9608,-0.89314,1.0509,-5.0251,5.0,0.0,3.9333,-3.0421,-2.7967,5.0081
-2.9703,2.963,-0.13201,-9.8039,-8.8026,-4.2361,-3.0303,-5.9187,-7.138,-9.8039,-8.8026,-1.9608,-0.89314,1.0509,-5.0251,5.0,-1.0,-4.0667,-0.12945,-0.84553,5.0081
-3.9604,2.963,-0.13201,-7.8431,-8.8026,-3.1944,-4.0404,-1.0407,-7.138,-7.8431,-8.8026,-0.98039,-0.89314,2.0361,-4.0201,5.0,-1.0,0.93333,1.8123,0.13008,7.935
-1.9802,-0.06734,-0.13201,-7.8431,-9.7735,-2.1528,-6.0606,-0.06504,-10.168,-7.8431,-9.7735,-2.9412,-0.89314,2.0361,-3.0151,4.0,-1.0,6.9333,2.7832,-1.8211,8.9106
5.9406,2.963,3.8284,-6.8627,-8.8026,2.0139,-4.0404,-0.06504,-9.1582,-6.8627,-8.8026,0.0,1.9777,4.9918,4.0201,7.0,4.0,6.9333,5.6958,1.1057,10.862
8.9109,9.0236,7.7888,-3.9216,-4.9191,3.0556,1.0101,-0.06504,-6.1279,-3.9216,-4.9191,2.9412,6.7624,8.9327,10.05,12.0,10.0,2.9333,4.7249,5.9837,13.789
9.901,11.044,10.759,-1.9608,-2.0065,6.1806,6.0606,1.8862,-3.0976,-1.9608,-2.0065,7.8431,9.6332,10.903,13.065,14.0,14.0,4.9333,4.7249,9.8862,12.813
11.881,13.064,12.739,-0.98039,-1.0356,7.2222,7.0707,2.8618,-3.0976,-0.98039,-1.0356,9.8039,11.547,10.903,14.07,14.0,15.0,12.933,7.6375,11.837,11.837
4.9505,2.963,5.8086,-4.902,-5.89,2.0139,0.0,-1.0407,-8.1481,-4.902,-5.89,3.9216,9.6332,8.9327,9.0452,9.0,11.0,7.9333,-4.0129,9.8862,8.9106
5.9406,-0.06734,1.8482,-5.8824,-7.8317,-0.06944,-2.0202,-2.0163,-10.168,-5.8824,-7.8317,0.98039,7.7193,8.9327,5.0251,7.0,8.0,0.93333,-8.8673,7.935,8.9106
-0.9901,-2.0875,-2.1122,-6.8627,-8.8026,-1.1111,-4.0404,-3.9675,-11.178,-6.8627,-8.8026,-0.98039,2.9346,4.9918,0.0,2.0,2.0,0.93333,1.8123,5.0081,6.9593
-1.9802,-0.06734,-1.1221,-4.902,-7.8317,-0.06944,-2.0202,-2.9919,-9.1582,-4.902,-7.8317,0.0,3.8915,4.9918,1.005,3.0,2.0,5.9333,9.5793,5.9837,8.9106
2.9703,4.9832,1.8482,-3.9216,-6.8608,2.0139,0.0,-1.0407,-7.138,-3.9216,-6.8608,3.9216,7.7193,7.9475,6.0302,6.0,5.0,6.9333,3.754,9.8862,10.862
3.9604,4.9832,1.8482,-5.8824,-8.8026,0.97222,-2.0202,-3.9675,-10.168,-5.8824,-8.8026,2.9412,9.6332,8.9327,9.0452,8.0,7.0,6.9333,3.754,10.862,11.837
2.9703,4.9832,0.85809,-5.8824,-8.8026,-1.1111,-4.0404,-3.9675,-10.168,-5.8824,-8.8026,0.98039,9.6332,9.9179,9.0452,9.0,7.0,3.9333,-0.12945,10.862,9.8862
0.9901,1.9529,-1.1221,-6.8627,-8.8026,-2.1528,-3.0303,-4.9431,-7.138,-6.8627,-8.8026,0.0,6.7624,4.9918,5.0251,5.0,3.0,-3.0667,5.6958,8.9106,5.0081
4.9505,5.9933,3.8284,-2.9412,-5.89,5.1389,4.0404,-2.9919,-5.1178,-2.9412,-5.89,5.8824,4.8485,4.0066,5.0251,6.0,3.0,-0.06667,5.6958,6.9593,5.9837
8.9109,9.0236,7.7888,-0.98039,-2.9773,9.3056,7.0707,1.8862,-2.0875,-0.98039,-2.9773,11.765,5.8054,4.9918,5.0251,7.0,3.0,4.9333,-4.9838,7.935,9.8862
6.9307,8.0135,4.8185,-0.98039,-3.9482,5.1389,5.0505,1.8862,-3.0976,-0.98039,-3.9482,9.8039,4.8485,4.9918,4.0201,6.0,3.0,5.9333,-0.12945,5.9837,9.8862
1.9802,2.963,0.85809,-0.98039,-5.89,4.0972,1.0101,1.8862,-6.1279,-0.98039,-5.89,5.8824,6.7624,6.9622,5.0251,6.0,4.0,6.9333,2.7832,6.9593,10.862
0.9901,0.94276,-0.13201,-1.9608,-6.8608,2.0139,-1.0101,1.8862,-8.1481,-1.9608,-6.8608,3.9216,9.6332,10.903,6.0302,8.0,7.0,-0.06667,1.8123,9.8862,14.764
2.9703,7.0034,2.8383,-2.9412,-6.8608,2.0139,1.0101,-1.0407,-7.138,-2.9412,-6.8608,3.9216,12.504,13.859,9.0452,13.0,11.0,-2.0667,7.6375,11.837,18.667
0.0,5.9933,1.8482,-1.9608,-5.89,2.0139,1.0101,-1.0407,-5.1178,-1.9608,-5.89,3.9216,9.6332,11.888,7.0352,13.0,11.0,-0.06667,5.6958,8.9106,14.764
0.0,1.9529,-0.13201,-1.9608,-4.9191,0.97222,0.0,-2.9919,-4.1077,-1.9608,-4.9191,2.9412,6.7624,7.9475,5.0251,9.0,8.0,4.9333,-2.0712,6.9593,11.837
3.9604,1.9529,-1.1221,-1.9608,-3.9482,3.0556,3.0303,-2.0163,-4.1077,-1.9608,-3.9482,2.9412,6.7624,6.9622,5.0251,8.0,6.0,-0.06667,-3.0421,6.9593,11.837
3.9604,0.94276,-2.1122,-2.9412,-5.89,2.0139,0.0,-3.9675,-6.1279,-2.9412,-5.89,0.98039,4.8485,4.9918,3.0151,4.0,3.0,-6.0667,0.84142,6.9593,6.9593
-0.9901,-1.0774,-2.1122,-0.98039,-4.9191,3.0556,-2.0202,-3.9675,-6.1279,-0.98039,-4.9191,0.98039,3.8915,4.9918,0.0,2.0,2.0,-2.0667,3.754,5.9837,6.9593
-0.9901,2.963,1.8482,0.98039,-3.9482,7.2222,-1.0101,-0.06504,-4.1077,0.98039,-3.9482,3.9216,2.9346,4.9918,0.0,2.0,2.0,1.9333,-1.1003,5.0081,7.935
0.9901,7.0034,5.8086,0.98039,-2.9773,7.2222,3.0303,0.91057,-2.0875,0.98039,-2.9773,6.8627,3.8915,6.9622,2.0101,6.0,4.0,-0.06667,0.84142,3.0569,8.9106
2.9703,10.034,7.7888,0.0,-2.9773,5.1389,4.0404,-0.06504,-1.0774,0.0,-2.9773,6.8627,6.7624,10.903,5.0251,9.0,6.0,-1.0667,1.8123,3.0569,13.789
6.9307,9.0236,7.7888,0.98039,-1.0356,6.1806,7.0707,-0.06504,1.9529,0.98039,-1.0356,7.8431,7.7193,10.903,8.0402,11.0,9.0,-6.0667,7.6375,4.0325,14.764
2.9703,4.9832,4.8185,0.98039,-2.0065,5.1389,3.0303,-0.06504,-1.0774,0.98039,-2.0065,4.902,7.7193,10.903,6.0302,11.0,8.0,1.9333,-4.9838,5.0081,13.789
2.9703,3.9731,4.8185,0.0,-3.9482,6.1806,0.0,-0.06504,-5.1178,0.0,-3.9482,3.9216,8.6762,10.903,6.0302,11.0,7.0,4.9333,-4.0129,6.9593,13.789
5.9406,5.9933,5.8086,0.0,-4.9191,6.1806,1.0101,-1.0407,-4.1077,0.0,-4.9191,4.902,7.7193,8.9327,6.0302,10.0,7.0,-6.0667,3.754,6.9593,11.837
5.9406,4.9832,5.8086,0.0,-3.9482,5.1389,0.0,0.91057,-6.1279,0.0,-3.9482,3.9216,5.8054,5.977,5.0251,6.0,4.0,-0.06667,2.7832,6.9593,7.935
5.9406,3.9731,4.8185,1.9608,-1.0356,6.1806,2.0202,3.8374,-6.1279,1.9608,-1.0356,5.8824,3.8915,4.0066,4.0201,3.0,2.0,3.9333,-7.8964,5.0081,5.0081
4.9505,4.9832,4.8185,4.902,0.90615,9.3056,5.0505,4.813,-4.1077,4.902,0.90615,7.8431,2.9346,3.0213,5.0251,2.0,3.0,3.9333,-4.9838,2.0813,3.0569
7.9208,5.9933,7.7888,4.902,0.90615,10.347,5.0505,5.7886,-1.0774,4.902,0.90615,8.8235,4.8485,4.9918,7.0352,3.0,6.0,5.9333,-1.1003,3.0569,5.9837
8.9109,4.9832,7.7888,2.9412,-0.06472,8.2639,1.0101,1.8862,-3.0976,2.9412,-0.06472,5.8824,4.8485,4.9918,7.0352,5.0,7.0,6.9333,1.8123,3.0569,5.0081
9.901,3.9731,7.7888,1.9608,-0.06472,6.1806,2.0202,0.91057,-3.0976,1.9608,-0.06472,5.8824,3.8915,4.0066,7.0352,4.0,7.0,0.93333,3.754,2.0813,4.0325
5.9406,3.9731,6.7987,0.98039,-0.06472,3.0556,2.0202,0.91057,-2.0875,0.98039,-0.06472,4.902,3.8915,3.0213,7.0352,5.0,8.0,1.9333,1.8123,4.0325,5.0081
6.9307,4.9832,5.8086,0.0,-1.0356,3.0556,1.0101,0.91057,-3.0976,0.0,-1.0356,3.9216,3.8915,4.0066,7.0352,6.0,8.0,-5.0667,-4.0129,5.0081,4.0325
8.9109,3.9731,6.7987,1.9608,-1.0356,4.0972,1.0101,-0.06504,-2.0875,1.9608,-1.0356,4.902,3.8915,3.0213,8.0402,6.0,8.0,-0.06667,-0.12945,6.9593,3.0569
5.9406,4.9832,6.7987,4.902,1.877,5.1389,2.0202,2.8618,-1.0774,4.902,1.877,5.8824,2.9346,2.0361,7.0352,5.0,7.0,7.9333,0.84142,5.9837,2.0813
9.901,8.0135,9.769,7.8431,4.7896,11.389,6.0606,8.7154,-0.06734,7.8431,4.7896,10.784,2.9346,2.0361,9.0452,7.0,8.0,4.9333,1.8123,5.0081,3.0569
10.891,5.9933,6.7987,5.8824,0.90615,10.347,5.0505,7.7398,-3.0976,5.8824,0.90615,7.8431,1.0207,0.06568,6.0302,3.0,6.0,5.9333,-1.1003,1.1057,0.13008
3.9604,1.9529,0.85809,2.9412,-0.06472,6.1806,2.0202,4.813,-2.0875,2.9412,-0.06472,3.9216,-0.89314,-2.89,1.005,-2.0,1.0,4.9333,1.8123,-0.84553,-3.7724
0.9901,1.9529,-0.13201,1.9608,-0.06472,2.0139,3.0303,-1.0407,0.94276,1.9608,-0.06472,2.9412,-0.89314,-2.89,0.0,-1.0,-1.0,-6.0667,5.6958,0.13008,-1.8211
0.0,-1.0774,-3.1023,0.0,-1.0356,-2.1528,1.0101,-2.9919,0.94276,0.0,-1.0356,-0.98039,-3.764,-2.89,-3.0151,-1.0,-4.0,-5.0667,8.6084,-3.7724,-0.84553
-3.9604,-1.0774,-5.0825,0.0,-1.0356,-3.1944,-2.0202,-2.0163,0.94276,0.0,-1.0356,-2.9412,-4.7209,-3.8752,-7.0352,-2.0,-7.0,-3.0667,5.6958,-4.748,-0.84553
-7.9208,-4.1077,-9.0429,-0.98039,-2.0065,-3.1944,-2.0202,-3.9675,-0.06734,-0.98039,-2.0065,-3.9216,-7.5917,-6.8309,-11.055,-6.0,-11.0,-2.0667,-2.0712,-7.6748,-3.7724
-5.9406,-6.1279,-9.0429,0.98039,0.90615,-0.06944,-1.0101,0.91057,0.94276,0.98039,0.90615,-1.9608,-7.5917,-6.8309,-10.05,-8.0,-11.0,-1.0667,-12.751,-8.6504,-4.748
-8.9109,-10.168,-10.033,0.0,-1.0356,-1.1111,-5.0505,-1.0407,-4.1077,0.0,-1.0356,-3.9216,-9.5056,-9.7865,-11.055,-10.0,-11.0,-3.0667,-5.9547,-10.602,-8.6504
-5.9406,-9.1582,-9.0429,-1.9608,-3.9482,-3.1944,-6.0606,-4.9431,-8.1481,-1.9608,-3.9482,-4.902,-8.5486,-8.8013,-8.0402,-10.0,-9.0,-4.0667,-1.1003,-9.626,-6.6992
-1.9802,-3.0976,-4.0924,1.9608,-0.06472,2.0139,-1.0101,2.8618,-4.1077,1.9608,-0.06472,0.0,-4.7209,-4.8604,-4.0201,-5.0,-4.0,-6.0667,0.84142,-5.7236,-3.7724
1.9802,-2.0875,-1.1221,6.8627,4.7896,6.1806,2.0202,6.7642,1.9529,6.8627,4.7896,5.8824,-5.6778,-5.8456,-4.0201,-4.0,-4.0,-2.0667,0.84142,-4.748,-2.7967
0.9901,-8.1481,-4.0924,5.8824,2.8479,3.0556,-1.0101,2.8618,-0.06734,5.8824,2.8479,2.9412,-9.5056,-9.7865,-8.0402,-9.0,-9.0,-4.0667,3.754,-8.6504,-5.7236
-6.9307,-4.1077,-7.0627,3.9216,0.90615,-1.1111,-2.0202,0.91057,-3.0976,3.9216,0.90615,-0.98039,-11.419,-10.772,-11.055,-8.0,-9.0,1.9333,-4.9838,-11.577,-5.7236
-10.891,-7.138,-9.0429,1.9608,-0.06472,-3.1944,-4.0404,-0.06504,-2.0875,1.9608,-0.06472,-3.9216,-12.376,-11.757,-12.06,-9.0,-10.0,1.9333,-0.12945,-11.577,-8.6504
-5.9406,-9.1582,-8.0528,2.9412,0.90615,-0.06944,-5.0505,1.8862,-1.0774,2.9412,0.90615,-3.9216,-9.5056,-10.772,-8.0402,-10.0,-9.0,3.9333,0.84142,-7.6748,-8.6504
-2.9703,-9.1582,-8.0528,1.9608,-0.06472,-0.06944,-6.0606,3.8374,-3.0976,1.9608,-0.06472,-3.9216,-8.5486,-9.7865,-7.0352,-9.0,-9.0,-2.0667,-4.9838,-5.7236,-7.6748
-1.9802,-8.1481,-8.0528,1.9608,-0.06472,0.97222,-7.0707,3.8374,-1.0774,1.9608,-0.06472,-2.9412,-9.5056,-8.8013,-9.0452,-10.0,-10.0,-1.0667,-5.9547,-7.6748,-9.626
-0.9901,-7.138,-6.0726,2.9412,0.90615,2.0139,-4.0404,2.8618,-1.0774,2.9412,0.90615,-0.98039,-8.5486,-8.8013,-8.0402,-9.0,-9.0,0.93333,-1.1003,-7.6748,-9.626
-2.9703,-7.138,-6.0726,2.9412,-0.06472,-0.06944,-4.0404,1.8862,-1.0774,2.9412,-0.06472,-2.9412,-8.5486,-7.8161,-8.0402,-7.0,-8.0,-1.0667,-7.8964,-7.6748,-8.6504
0.0,-6.1279,-6.0726,2.9412,0.90615,0.97222,-4.0404,0.91057,-1.0774,2.9412,0.90615,-2.9412,-5.6778,-5.8456,-5.0251,-5.0,-6.0,-2.0667,-6.9256,-2.7967,-4.748
-0.9901,-6.1279,-7.0627,1.9608,-0.06472,-2.1528,-6.0606,0.91057,-1.0774,1.9608,-0.06472,-4.902,-4.7209,-5.8456,-4.0201,-5.0,-7.0,3.9333,-5.9547,-0.84553,-5.7236
-6.9307,-6.1279,-8.0528,0.98039,-0.06472,-5.2778,-7.0707,0.91057,-2.0875,0.98039,-0.06472,-7.8431,-6.6348,-6.8309,-8.0402,-7.0,-8.0,3.9333,-4.9838,-4.748,-7.6748
-6.9307,-3.0976,-5.0825,0.98039,0.90615,-3.1944,-4.0404,2.8618,-1.0774,0.98039,0.90615,-5.8824,-6.6348,-6.8309,-6.0302,-7.0,-6.0,-3.0667,0.84142,-6.6992,-8.6504
-0.9901,-2.0875,-2.1122,2.9412,1.877,2.0139,1.0101,3.8374,-0.06734,2.9412,1.877,-0.98039,-3.764,-2.89,-3.0151,-5.0,-3.0,-2.0667,5.6958,-4.748,-7.6748
0.9901,-4.1077,-2.1122,1.9608,1.877,0.97222,-2.0202,-0.06504,0.94276,1.9608,1.877,-2.9412,0.0638,1.0509,0.0,-2.0,-1.0,-8.0667,0.84142,-0.84553,-2.7967
-3.9604,-8.1481,-6.0726,0.98039,-0.06472,-4.2361,-6.0606,-1.0407,0.94276,0.98039,-0.06472,-7.8431,1.0207,1.0509,-2.0101,-1.0,-2.0,-3.0667,-1.1003,-0.84553,-2.7967
-5.9406,-7.138,-7.0627,0.0,-0.06472,-6.3194,-4.0404,-1.0407,0.94276,0.0,-0.06472,-8.8235,1.0207,1.0509,-3.0151,-3.0,-4.0,3.9333,-5.9547,-1.8211,-4.748
-4.9505,-10.168,-9.0429,-2.9412,-1.0356,-8.4028,-6.0606,-3.9675,-0.06734,-2.9412,-1.0356,-9.8039,-0.89314,-0.91954,-7.0352,-7.0,-7.0,1.9333,-0.12945,-3.7724,-6.6992
-3.9604,-9.1582,-8.0528,-0.98039,-1.0356,-4.2361,-5.0505,-2.0163,0.94276,-0.98039,-1.0356,-7.8431,-0.89314,-1.9048,-8.0402,-8.0,-9.0,-7.0667,-3.0421,-3.7724,-6.6992
-6.9307,-5.1178,-7.0627,1.9608,1.877,-1.1111,-1.0101,0.91057,2.963,1.9608,1.877,-3.9216,-1.8501,-1.9048,-10.05,-8.0,-11.0,-4.0667,-4.0129,-4.748,-5.7236
-9.901,-2.0875,-7.0627,4.902,4.7896,-0.06944,2.0202,3.8374,4.9832,4.902,4.7896,-0.98039,-4.7209,-3.8752,-14.07,-9.0,-14.0,5.9333,-0.12945,-8.6504,-5.7236
-9.901,-6.1279,-8.0528,2.9412,5.7605,-3.1944,1.0101,-0.06504,5.9933,2.9412,5.7605,-2.9412,-8.5486,-7.8161,-14.07,-11.0,-15.0,2.9333,-0.12945,-9.626,-6.6992
-6.9307,-11.178,-9.0429,0.98039,3.8188,-4.2361,-1.0101,0.91057,3.9731,0.98039,3.8188,-4.902,-8.5486,-8.8013,-11.055,-13.0,-16.0,-3.0667,0.84142,-7.6748,-6.6992
-4.9505,-8.1481,-8.0528,0.0,1.877,-3.1944,-1.0101,2.8618,0.94276,0.0,1.877,-4.902,-6.6348,-7.8161,-8.0402,-12.0,-14.0,-9.0667,0.84142,-3.7724,-6.6992
-2.9703,-6.1279,-7.0627,0.98039,1.877,-1.1111,-1.0101,1.8862,2.963,0.98039,1.877,-3.9216,-2.807,-5.8456,-4.0201,-10.0,-11.0,-3.0667,-6.9256,0.13008,-5.7236
1.9802,-4.1077,-4.0924,0.98039,1.877,2.0139,-3.0303,2.8618,1.9529,0.98039,1.877,-3.9216,0.0638,-2.89,0.0,-7.0,-7.0,4.9333,-5.9547,3.0569,-3.7724
0.9901,-4.1077,-5.0825,1.9608,1.877,-0.06944,-3.0303,3.8374,1.9529,1.9608,1.877,-3.9216,2.9346,1.0509,2.0101,-4.0,-5.0,2.9333,2.7832,5.0081,-1.8211
-3.9604,-7.138,-7.0627,1.9608,1.877,-1.1111,-2.0202,1.8862,3.9731,1.9608,1.877,-3.9216,0.0638,-1.9048,-2.0101,-5.0,-6.0,2.9333,8.6084,2.0813,-4.748
-1.9802,-3.0976,-4.0924,3.9216,4.7896,2.0139,3.0303,1.8862,4.9832,3.9216,4.7896,0.98039,-0.89314,-1.9048,-4.0201,-5.0,-6.0,1.9333,5.6958,-0.84553,-3.7724
-0.9901,-0.06734,-3.1023,3.9216,3.8188,6.1806,3.0303,4.813,1.9529,3.9216,3.8188,2.9412,-1.8501,-0.91954,-5.0251,-4.0,-6.0,-0.06667,-0.12945,-3.7724,-0.84553
0.0,-3.0976,-2.1122,2.9412,2.8479,5.1389,1.0101,4.813,1.9529,2.9412,2.8479,1.9608,-0.89314,-0.91954,-4.0201,-4.0,-6.0,0.93333,-0.12945,-2.7967,-1.8211
-0.9901,-4.1077,-3.1023,1.9608,2.8479,3.0556,2.0202,4.813,1.9529,1.9608,2.8479,0.98039,-1.8501,-2.89,-3.0151,-5.0,-6.0,1.9333,-4.0129,-0.84553,-4.748
-2.9703,-7.138,-6.0726,0.98039,1.877,-0.06944,1.0101,1.8862,1.9529,0.98039,1.877,-1.9608,-2.807,-5.8456,-4.0201,-8.0,-8.0,0.93333,-6.9256,0.13008,-6.6992
0.9901,-7.138,-4.0924,1.9608,3.8188,0.97222,3.0303,0.91057,3.9731,1.9608,3.8188,-0.98039,-1.8501,-3.8752,-2.0101,-7.0,-6.0,0.93333,-4.0129,0.13008,-5.7236
-0.9901,-3.0976,-2.1122,1.9608,4.7896,0.97222,2.0202,-0.06504,4.9832,1.9608,4.7896,-0.98039,-1.8501,-2.89,-1.005,-4.0,-3.0,-3.0667,-0.12945,-0.84553,-2.7967
-4.9505,-5.1178,-3.1023,0.0,2.8479,-2.1528,-1.0101,-2.0163,2.963,0.0,2.8479,-3.9216,-2.807,-3.8752,-3.0151,-5.0,-4.0,-1.0667,0.84142,-1.8211,-5.7236
-4.9505,-3.0976,-3.1023,0.0,2.8479,-3.1944,-2.0202,-0.06504,2.963,0.0,2.8479,-4.902,1.0207,-1.9048,-2.0101,-4.0,-3.0,4.9333,-0.12945,0.13008,-5.7236
-2.9703,-2.0875,-0.13201,1.9608,5.7605,-0.06944,1.0101,1.8862,5.9933,1.9608,5.7605,-2.9412,6.7624,4.0066,1.005,-2.0,0.0,2.9333,0.84142,2.0813,-2.7967
2.9703,1.9529,4.8185,4.902,7.7023,4.0972,4.0404,4.813,10.034,4.902,7.7023,1.9608,8.6762,5.977,2.0101,0.0,1.0,-0.06667,8.6084,3.0569,-0.84553
0.9901,1.9529,4.8185,2.9412,6.7314,2.0139,5.0505,1.8862,9.0236,2.9412,6.7314,0.98039,1.0207,0.06568,-3.0151,-3.0,-2.0,-1.0667,7.6375,-2.7967,-4.748
-5.9406,-2.0875,-0.13201,0.98039,3.8188,-1.1111,1.0101,2.8618,4.9832,0.98039,3.8188,-2.9412,-5.6778,-7.8161,-7.0352,-8.0,-7.0,-4.0667,0.84142,-4.748,-8.6504
0.9901,-3.0976,-1.1221,0.98039,2.8479,-1.1111,0.0,1.8862,4.9832,0.98039,2.8479,-3.9216,-3.764,-4.8604,-4.0201,-6.0,-6.0,-9.0667,-1.1003,-1.8211,-5.7236
-2.9703,-6.1279,-5.0825,0.0,1.877,-5.2778,-1.0101,-1.0407,3.9731,0.0,1.877,-6.8627,-6.6348,-5.8456,-8.0402,-8.0,-9.0,-4.0667,-9.8382,-5.7236,-6.6992
-12.871,-10.168,-9.0429,-0.98039,0.90615,-7.3611,-4.0404,-2.0163,-0.06734,-0.98039,0.90615,-9.8039,-10.463,-8.8013,-13.065,-10.0,-14.0,2.9333,-3.0421,-8.6504,-7.6748
-15.842,-12.189,-12.013,-2.9412,-1.0356,-9.4444,-11.111,-2.0163,-2.0875,-2.9412,-1.0356,-14.706,-9.5056,-7.8161,-12.06,-11.0,-14.0,-1.0667,1.8123,-7.6748,-6.6992
-9.901,-13.199,-12.013,-3.9216,-2.0065,-9.4444,-12.121,-2.9919,-3.0976,-3.9216,-2.0065,-14.706,-6.6348,-6.8309,-8.0402,-11.0,-12.0,-10.067,-3.0421,-4.748,-5.7236
-6.9307,-11.178,-10.033,-1.9608,-0.06472,-6.3194,-6.0606,0.91057,-1.0774,-1.9608,-0.06472,-9.8039,-5.6778,-6.8309,-5.0251,-11.0,-8.0,-5.0667,-3.0421,-3.7724,-8.6504
-5.9406,-6.1279,-6.0726,1.9608,2.8479,-1.1111,-1.0101,1.8862,1.9529,1.9608,2.8479,-4.902,-4.7209,-4.8604,-2.0101,-6.0,-3.0,-0.06667,-12.751,-2.7967,-5.7236
-4.9505,-6.1279,-4.0924,1.9608,3.8188,0.97222,-2.0202,0.91057,2.963,1.9608,3.8188,-3.9216,-6.6348,-5.8456,-4.0201,-6.0,-3.0,-4.0667,-7.8964,-5.7236,-4.748
-1.9802,-4.1077,-1.1221,1.9608,3.8188,2.0139,-1.0101,0.91057,2.963,1.9608,3.8188,-2.9412,-5.6778,-5.8456,-3.0151,-5.0,-1.0,-4.0667,-0.12945,-4.748,-6.6992
-0.9901,-3.0976,-0.13201,1.9608,2.8479,2.0139,-1.0101,3.8374,1.9529,1.9608,2.8479,-1.9608,-2.807,-2.89,-1.005,-4.0,1.0,-8.0667,-2.0712,-3.7724,-5.7236
0.0,-2.0875,-0.13201,0.98039,1.877,2.0139,-1.0101,3.8374,0.94276,0.98039,1.877,-1.9608,-2.807,-2.89,0.0,-3.0,1.0,-3.0667,0.84142,-3.7724,-5.7236
-4.9505,-7.138,-1.1221,0.98039,2.8479,2.0139,-1.0101,2.8618,1.9529,0.98039,2.8479,-1.9608,-3.764,-4.8604,-1.005,-5.0,-1.0,-1.0667,1.8123,-2.7967,-6.6992
-6.9307,-8.1481,-2.1122,1.9608,5.7605,-1.1111,0.0,-0.06504,5.9933,1.9608,5.7605,-2.9412,-3.764,-5.8456,-1.005,-7.0,-3.0,-1.0667,4.7249,0.13008,-4.748
-3.9604,-3.0976,-3.1023,-0.98039,3.8188,-4.2361,-1.0101,-2.9919,4.9832,-0.98039,3.8188,-4.902,-0.89314,-3.8752,0.0,-6.0,-3.0,-3.0667,1.8123,4.0325,-1.8211
-8.9109,-7.138,-8.0528,-2.9412,2.8479,-6.3194,-3.0303,-3.9675,4.9832,-2.9412,2.8479,-7.8431,-1.8501,-4.8604,-3.0151,-9.0,-8.0,-4.0667,-2.0712,1.1057,-4.748
-6.9307,-5.1178,-5.0825,-1.9608,3.8188,-4.2361,2.0202,-1.0407,7.0034,-1.9608,3.8188,-3.9216,1.0207,-0.91954,-1.005,-5.0,-5.0,-3.0667,-0.12945,1.1057,-0.84553
-3.9604,-0.06734,-1.1221,-0.98039,3.8188,-3.1944,3.0303,-1.0407,5.9933,-0.98039,3.8188,-1.9608,5.8054,4.9918,3.0151,1.0,1.0,-10.067,-1.1003,4.0325,5.0081
-0.9901,1.9529,-0.13201,-0.98039,1.877,-1.1111,2.0202,-2.0163,3.9731,-0.98039,1.877,-1.9608,6.7624,7.9475,3.0151,4.0,4.0,-13.067,4.7249,3.0569,5.0081
-1.9802,-1.0774,-1.1221,-0.98039,1.877,-2.1528,2.0202,-5.9187,2.963,-0.98039,1.877,-2.9412,2.9346,4.9918,-2.0101,2.0,1.0,-5.0667,2.7832,-1.8211,3.0569
-11.881,-5.1178,-5.0825,-0.98039,1.877,-6.3194,-1.0101,-3.9675,2.963,-0.98039,1.877,-5.8824,-2.807,0.06568,-7.0352,-3.0,-4.0,-3.0667,4.7249,-4.748,-0.84553
-12.871,-2.0875,-5.0825,0.0,1.877,-6.3194,-3.0303,-2.9919,1.9529,0.0,1.877,-5.8824,-3.764,-3.8752,-6.0302,-4.0,-6.0,-1.0667,-4.0129,-3.7724,-2.7967
-4.9505,-0.06734,-2.1122,0.0,2.8479,-2.1528,-1.0101,-2.9919,2.963,0.0,2.8479,-2.9412,0.0638,-1.9048,1.005,-1.0,-1.0,-1.0667,-2.0712,4.0325,0.13008
-0.9901,0.94276,-2.1122,0.98039,3.8188,-0.06944,3.0303,-1.0407,5.9933,0.98039,3.8188,-0.98039,3.8915,2.0361,5.0251,2.0,2.0,-6.0667,4.7249,6.9593,3.0569
-0.9901,1.9529,-3.1023,1.9608,3.8188,0.97222,4.0404,-1.0407,8.0135,1.9608,3.8188,0.98039,4.8485,4.0066,4.0201,3.0,2.0,-7.0667,-0.12945,5.9837,5.9837
1.9802,2.963,-2.1122,2.9412,5.7605,2.0139,5.0505,-1.0407,7.0034,2.9412,5.7605,2.9412,6.7624,6.9622,4.0201,6.0,3.0,-6.0667,1.8123,5.9837,9.8862
1.9802,3.9731,-1.1221,2.9412,5.7605,4.0972,4.0404,-0.06504,2.963,2.9412,5.7605,3.9216,7.7193,7.9475,3.0151,7.0,3.0,-4.0667,0.84142,5.0081,9.8862
-4.9505,-0.06734,-4.0924,3.9216,4.7896,4.0972,3.0303,3.8374,0.94276,3.9216,4.7896,2.9412,5.8054,5.977,0.0,3.0,0.0,2.9333,-1.1003,3.0569,5.9837
-6.9307,-0.06734,-7.0627,2.9412,4.7896,0.97222,2.0202,0.91057,0.94276,2.9412,4.7896,0.98039,5.8054,5.977,0.0,1.0,-2.0,2.9333,-4.0129,3.0569,5.9837
-8.9109,-3.0976,-11.023,0.98039,3.8188,-3.1944,-1.0101,-2.9919,1.9529,0.98039,3.8188,-2.9412,1.9777,2.0361,-3.0151,-1.0,-5.0,-0.06667,-1.1003,-1.8211,4.0325
-3.9604,-4.1077,-8.0528,2.9412,4.7896,-0.06944,-1.0101,-1.0407,3.9731,2.9412,4.7896,-0.98039,1.9777,3.0213,-1.005,1.0,-2.0,-3.0667,7.6375,-1.8211,5.9837
-1.9802,-2.0875,-4.0924,1.9608,3.8188,-0.06944,0.0,-1.0407,3.9731,1.9608,3.8188,0.98039,1.0207,3.0213,-1.005,3.0,0.0,-6.0667,7.6375,-0.84553,6.9593
-1.9802,0.94276,-2.1122,1.9608,1.877,-0.06944,1.0101,1.8862,0.94276,1.9608,1.877,0.0,1.0207,2.0361,-1.005,2.0,1.0,-0.06667,3.754,-0.84553,3.0569
-0.9901,-1.0774,-2.1122,0.98039,-1.0356,-1.1111,-3.0303,1.8862,-2.0875,0.98039,-1.0356,-2.9412,1.9777,3.0213,2.0101,2.0,2.0,4.9333,-3.0421,1.1057,5.0081
-0.9901,-4.1077,-6.0726,-1.9608,-3.9482,-5.2778,-9.0909,-2.9919,-4.1077,-1.9608,-3.9482,-7.8431,-0.89314,-0.91954,0.0,0.0,0.0,-1.0667,-5.9547,-2.7967,1.1057
-4.9505,-4.1077,-8.0528,-0.98039,-2.9773,-7.3611,-6.0606,-2.9919,-3.0976,-0.98039,-2.9773,-8.8235,-2.807,-2.89,-3.0151,-3.0,-1.0,-1.0667,-4.0129,-4.748,-2.7967
-10.891,-2.0875,-8.0528,0.0,-2.0065,-7.3611,-5.0505,-2.0163,-1.0774,0.0,-2.0065,-8.8235,-1.8501,-2.89,-3.0151,-2.0,-1.0,-0.06667,-1.1003,-3.7724,-0.84553
-6.9307,-2.0875,-5.0825,0.0,-1.0356,-6.3194,-5.0505,-2.0163,-0.06734,0.0,-1.0356,-5.8824,-2.807,-3.8752,-1.005,-1.0,0.0,-3.0667,0.84142,-2.7967,-1.8211
-5.9406,-3.0976,-7.0627,0.0,-1.0356,-4.2361,-7.0707,-3.9675,-2.0875,0.0,-1.0356,-5.8824,-5.6778,-5.8456,-3.0151,-3.0,-2.0,-7.0667,-1.1003,-6.6992,-2.7967
-5.9406,-2.0875,-6.0726,1.9608,0.90615,-3.1944,-5.0505,-2.0163,-0.06734,1.9608,0.90615,-4.902,-5.6778,-4.8604,-4.0201,-2.0,-3.0,-10.067,3.754,-7.6748,0.13008
-9.901,-3.0976,-7.0627,1.9608,2.8479,-6.3194,-3.0303,-3.9675,1.9529,1.9608,2.8479,-4.902,-6.6348,-4.8604,-6.0302,-3.0,-4.0,-6.0667,-8.8673,-7.6748,-2.7967
-8.9109,-5.1178,-8.0528,1.9608,1.877,-7.3611,-3.0303,-4.9431,0.94276,1.9608,1.877,-5.8824,-5.6778,-4.8604,-4.0201,-3.0,-4.0,-5.0667,-7.8964,-4.748,-3.7724
-1.9802,-1.0774,-4.0924,2.9412,2.8479,-1.1111,0.0,-0.06504,1.9529,2.9412,2.8479,-0.98039,-2.807,-1.9048,1.005,0.0,0.0,-2.0667,-3.0421,-1.8211,0.13008
0.0,1.9529,-0.13201,3.9216,1.877,0.97222,0.0,0.91057,0.94276,3.9216,1.877,0.98039,0.0638,1.0509,5.0251,3.0,5.0,-0.06667,9.5793,0.13008,3.0569
6.9307,7.0034,3.8284,3.9216,2.8479,2.0139,0.0,-0.06504,-0.06734,3.9216,2.8479,3.9216,2.9346,4.0066,9.0452,8.0,10.0,-3.0667,9.5793,3.0569,5.0081
2.9703,2.963,1.8482,4.902,3.8188,2.0139,0.0,1.8862,0.94276,4.902,3.8188,2.9412,2.9346,2.0361,8.0402,6.0,10.0,-5.0667,2.7832,3.0569,3.0569
-3.9604,0.94276,-2.1122,4.902,5.7605,0.97222,1.0101,1.8862,2.963,4.902,5.7605,0.98039,-0.89314,-0.91954,2.0101,3.0,7.0,-6.0667,-0.12945,-0.84553,-0.84553
-8.9109,-0.06734,-5.0825,5.8824,6.7314,-0.06944,4.0404,1.8862,2.963,5.8824,6.7314,0.98039,-3.764,-4.8604,-1.005,-1.0,3.0,-1.0667,-9.8382,-4.748,-6.6992
-6.9307,-5.1178,-7.0627,4.902,5.7605,-2.1528,1.0101,-1.0407,0.94276,4.902,5.7605,-0.98039,-6.6348,-7.8161,-3.0151,-5.0,-1.0,0.93333,-4.9838,-5.7236,-9.626
-3.9604,-5.1178,-4.0924,4.902,2.8479,-3.1944,-1.0101,-1.0407,0.94276,4.902,2.8479,-1.9608,-3.764,-4.8604,-1.005,-4.0,0.0,-3.0667,1.8123,-3.7724,-7.6748
-1.9802,-1.0774,-1.1221,3.9216,2.8479,-0.06944,0.0,-0.06504,1.9529,3.9216,2.8479,-0.98039,-1.8501,-2.89,0.0,-2.0,1.0,0.93333,-0.12945,-1.8211,-7.6748
2.9703,1.9529,0.85809,4.902,2.8479,0.97222,1.0101,2.8618,1.9529,4.902,2.8479,0.0,0.0638,-0.91954,3.0151,1.0,3.0,3.9333,-0.12945,0.13008,-3.7724
2.9703,2.963,0.85809,3.9216,3.8188,-0.06944,2.0202,1.8862,1.9529,3.9216,3.8188,-0.98039,0.0638,-0.91954,3.0151,0.0,2.0,0.93333,-1.1003,1.1057,-3.7724
5.9406,7.0034,1.8482,3.9216,5.7605,-1.1111,4.0404,-2.0163,5.9933,3.9216,5.7605,0.0,0.0638,-1.9048,3.0151,1.0,3.0,-1.0667,2.7832,1.1057,-4.748
3.9604,7.0034,3.8284,5.8824,7.7023,-0.06944,5.0505,-0.06504,8.0135,5.8824,7.7023,0.98039,0.0638,-1.9048,6.0302,3.0,7.0,1.9333,2.7832,3.0569,-4.748
9.901,7.0034,7.7888,7.8431,9.644,6.1806,7.0707,2.8618,10.034,7.8431,9.644,3.9216,3.8915,2.0361,11.055,7.0,13.0,-4.0667,1.8123,5.9837,-2.7967
10.891,9.0236,10.759,7.8431,8.6731,6.1806,7.0707,2.8618,7.0034,7.8431,8.6731,4.902,4.8485,4.0066,12.06,10.0,17.0,-3.0667,-3.0421,4.0325,-0.84553
11.881,8.0135,11.749,8.8235,8.6731,8.2639,6.0606,7.7398,5.9933,8.8235,8.6731,5.8824,3.8915,3.0213,13.065,10.0,17.0,2.9333,1.8123,4.0325,-2.7967
13.861,12.054,14.719,10.784,9.644,11.389,7.0707,9.6911,4.9832,10.784,9.644,7.8431,5.8054,4.9918,14.07,12.0,18.0,8.9333,3.754,5.9837,2.0813
15.842,14.074,17.690001,10.784,10.615,11.389,7.0707,6.7642,3.9731,10.784,10.615,9.8039,8.6762,7.9475,17.084999,15.0,20.0,10.933,0.84142,8.9106,5.9837
12.871,10.034,15.71,9.8039,8.6731,9.3056,6.0606,6.7642,3.9731,9.8039,8.6731,8.8235,7.7193,6.9622,16.08,11.0,18.0,8.9333,2.7832,8.9106,3.0569
12.871,11.044,13.729,9.8039,8.6731,8.2639,7.0707,9.6911,4.9832,9.8039,8.6731,7.8431,6.7624,5.977,15.075,10.0,16.0,10.933,-4.0129,7.935,3.0569
8.9109,11.044,11.749,6.8627,6.7314,5.1389,6.0606,7.7398,1.9529,6.8627,6.7314,5.8824,5.8054,5.977,11.055,9.0,13.0,11.933,-4.0129,6.9593,3.0569
8.9109,8.0135,10.759,8.8235,7.7023,5.1389,5.0505,6.7642,1.9529,8.8235,7.7023,5.8824,3.8915,4.0066,9.0452,9.0,11.0,5.9333,2.7832,5.9837,3.0569
6.9307,3.9731,8.7789,7.8431,7.7023,4.0972,2.0202,5.7886,2.963,7.8431,7.7023,4.902,1.9777,2.0361,6.0302,6.0,10.0,-0.06667,-3.0421,4.0325,1.1057
4.9505,2.963,8.7789,6.8627,6.7314,4.0972,2.0202,5.7886,1.9529,6.8627,6.7314,5.8824,1.0207,1.0509,4.0201,5.0,9.0,6.9333,-1.1003,3.0569,-0.84553
4.9505,3.9731,7.7888,6.8627,7.7023,5.1389,4.0404,5.7886,3.9731,6.8627,7.7023,5.8824,1.0207,1.0509,4.0201,3.0,9.0,4.9333,1.8123,1.1057,-3.7724
-0.9901,-0.06734,3.8284,4.902,5.7605,-0.06944,2.0202,2.8618,1.9529,4.902,5.7605,0.98039,0.0638,0.06568,1.005,0.0,6.0,-1.0667,-4.9838,0.13008,-5.7236
-0.9901,-1.0774,1.8482,4.902,4.7896,-0.06944,-1.0101,3.8374,2.963,4.902,4.7896,-0.98039,0.0638,0.06568,-1.005,0.0,4.0,-7.0667,-2.0712,0.13008,-4.748
0.0,2.963,1.8482,2.9412,2.8479,-3.1944,-4.0404,-0.06504,2.963,2.9412,2.8479,-3.9216,0.0638,1.0509,0.0,1.0,3.0,-1.0667,-11.78,-0.84553,-4.748
0.0,0.94276,-0.13201,1.9608,2.8479,-4.2361,-4.0404,-1.0407,0.94276,1.9608,2.8479,-4.902,0.0638,1.0509,0.0,1.0,2.0,6.9333,-4.0129,0.13008,-3.7724
-2.9703,-1.0774,0.85809,2.9412,3.8188,-4.2361,-4.0404,-0.06504,-0.06734,2.9412,3.8188,-4.902,0.0638,1.0509,1.005,2.0,3.0,0.93333,7.6375,1.1057,-1.8211
-1.9802,1.9529,3.8284,3.9216,4.7896,-4.2361,-3.0303,-1.0407,0.94276,3.9216,4.7896,-3.9216,2.9346,4.0066,3.0151,6.0,7.0,-4.0667,2.7832,3.0569,3.0569
5.9406,3.9731,6.7987,4.902,5.7605,-1.1111,-3.0303,0.91057,2.963,4.902,5.7605,-2.9412,5.8054,6.9622,7.0352,10.0,11.0,-5.0667,-3.0421,5.9837,6.9593
4.9505,1.9529,6.7987,4.902,4.7896,-1.1111,-4.0404,0.91057,1.9529,4.902,4.7896,-3.9216,5.8054,6.9622,7.0352,9.0,11.0,-6.0667,-3.0421,5.9837,5.9837
4.9505,3.9731,8.7789,4.902,4.7896,-0.06944,-4.0404,2.8618,0.94276,4.902,4.7896,-2.9412,5.8054,8.9327,6.0302,12.0,13.0,2.9333,-2.0712,5.0081,6.9593
1.9802,3.9731,7.7888,3.9216,2.8479,-0.06944,-4.0404,0.91057,-0.06734,3.9216,2.8479,-2.9412,6.7624,9.9179,4.0201,12.0,13.0,5.9333,-3.0421,5.0081,7.935
0.0,4.9832,4.8185,1.9608,0.90615,-4.2361,-5.0505,-2.9919,-3.0976,1.9608,0.90615,-3.9216,6.7624,8.9327,3.0151,9.0,11.0,1.9333,-5.9547,5.0081,5.0081
3.9604,3.9731,5.8086,2.9412,2.8479,-2.1528,-3.0303,0.91057,-3.0976,2.9412,2.8479,-2.9412,6.7624,7.9475,7.0352,7.0,11.0,3.9333,1.8123,7.935,1.1057
13.861,5.9933,9.769,5.8824,5.7605,3.0556,3.0303,2.8618,1.9529,5.8824,5.7605,1.9608,8.6762,6.9622,12.06,8.0,12.0,6.9333,6.6667,10.862,1.1057
12.871,9.0236,11.749,5.8824,5.7605,2.0139,3.0303,2.8618,0.94276,5.8824,5.7605,1.9608,7.7193,6.9622,13.065,9.0,12.0,0.93333,-1.1003,11.837,4.0325
7.9208,8.0135,10.759,6.8627,6.7314,3.0556,3.0303,4.813,0.94276,6.8627,6.7314,1.9608,7.7193,6.9622,13.065,11.0,12.0,3.9333,-9.8382,12.813,5.0081
5.9406,7.0034,9.769,7.8431,7.7023,3.0556,3.0303,3.8374,2.963,7.8431,7.7023,2.9412,5.8054,5.977,10.05,10.0,10.0,7.9333,0.84142,8.9106,5.0081
2.9703,2.963,6.7987,6.8627,5.7605,0.97222,2.0202,3.8374,0.94276,6.8627,5.7605,0.98039,2.9346,4.9918,6.0302,8.0,7.0,10.933,6.6667,5.0081,7.935
3.9604,2.963,6.7987,5.8824,6.7314,0.97222,2.0202,5.7886,2.963,5.8824,6.7314,0.98039,4.8485,8.9327,6.0302,11.0,9.0,6.9333,1.8123,5.0081,12.813
0.0,2.963,3.8284,2.9412,3.8188,-4.2361,-3.0303,0.91057,-0.06734,2.9412,3.8188,-2.9412,5.8054,8.9327,4.0201,10.0,9.0,1.9333,-5.9547,5.0081,9.8862
4.9505,1.9529,3.8284,1.9608,1.877,-4.2361,-3.0303,-2.0163,-3.0976,1.9608,1.877,-2.9412,4.8485,6.9622,4.0201,9.0,8.0,-6.0667,-0.12945,5.0081,5.9837
1.9802,1.9529,3.8284,2.9412,4.7896,-3.1944,1.0101,-0.06504,-1.0774,2.9412,4.7896,0.0,1.9777,4.9918,0.0,6.0,4.0,2.9333,-3.0421,2.0813,4.0325
0.9901,-0.06734,1.8482,2.9412,4.7896,-3.1944,2.0202,-2.9919,-2.0875,2.9412,4.7896,0.0,1.0207,2.0361,-2.0101,2.0,0.0,-0.06667,-5.9547,2.0813,0.13008
2.9703,-2.0875,2.8383,3.9216,4.7896,-2.1528,0.0,-1.0407,-2.0875,3.9216,4.7896,-0.98039,0.0638,0.06568,-2.0101,0.0,-1.0,-0.06667,-2.0712,3.0569,-0.84553
4.9505,5.9933,7.7888,6.8627,6.7314,3.0556,4.0404,3.8374,-0.06734,6.8627,6.7314,2.9412,1.0207,1.0509,2.0101,5.0,3.0,9.9333,1.8123,4.0325,2.0813
8.9109,13.064,12.739,5.8824,6.7314,4.0972,5.0505,2.8618,1.9529,5.8824,6.7314,5.8824,2.9346,5.977,8.0402,12.0,9.0,0.93333,-6.9256,5.9837,8.9106
10.891,14.074,15.71,5.8824,7.7023,4.0972,7.0707,1.8862,4.9832,5.8824,7.7023,7.8431,4.8485,9.9179,11.055,19.0,14.0,-1.0667,-0.12945,5.9837,14.764
10.891,16.094,17.690001,5.8824,9.644,3.0556,10.101,-1.0407,8.0135,5.8824,9.644,8.8235,9.6332,14.844,13.065,24.0,20.0,4.9333,15.405,8.9106,19.642
7.9208,16.094,16.700001,4.902,8.6731,0.97222,8.0808,-1.0407,5.9933,4.902,8.6731,6.8627,12.504,17.799999,13.065,24.0,22.0,7.9333,16.375,10.862,21.593
8.9109,15.084,15.71,4.902,6.7314,4.0972,6.0606,1.8862,4.9832,4.902,6.7314,5.8824,12.504,17.799999,12.06,23.0,22.0,-0.06667,7.6375,7.935,20.618
20.792,15.084,17.690001,7.8431,8.6731,7.2222,7.0707,4.813,7.0034,7.8431,8.6731,7.8431,12.504,17.799999,15.075,24.0,24.0,-2.0667,9.5793,6.9593,20.618
8.9109,12.054,12.739,8.8235,9.644,6.1806,6.0606,5.7886,7.0034,8.8235,9.644,5.8824,10.59,14.844,10.05,20.0,18.0,11.933,9.5793,5.9837,17.691
0.0,10.034,8.7789,6.8627,8.6731,4.0972,4.0404,3.8374,5.9933,6.8627,8.6731,2.9412,6.7624,9.9179,5.0251,14.0,11.0,12.933,4.7249,5.0081,12.813
4.9505,7.0034,7.7888,4.902,6.7314,2.0139,3.0303,1.8862,3.9731,4.902,6.7314,1.9608,4.8485,6.9622,4.0201,10.0,8.0,0.93333,-1.1003,3.0569,8.9106
2.9703,1.9529,5.8086,3.9216,5.7605,-1.1111,0.0,-0.06504,0.94276,3.9216,5.7605,-0.98039,5.8054,7.9475,6.0302,8.0,8.0,-0.06667,-7.8964,5.0081,6.9593
-3.9604,-1.0774,-0.13201,0.98039,2.8479,-4.2361,-4.0404,-1.0407,-1.0774,0.98039,2.8479,-5.8824,4.8485,6.9622,3.0151,5.0,6.0,-3.0667,-2.0712,5.0081,5.0081
-3.9604,-3.0976,-2.1122,0.98039,1.877,-4.2361,-4.0404,-0.06504,-3.0976,0.98039,1.877,-6.8627,4.8485,5.977,3.0151,5.0,7.0,-8.0667,-3.0421,5.9837,4.0325
-3.9604,-6.1279,-4.0924,-0.98039,0.90615,-4.2361,-7.0707,-1.0407,-2.0875,-0.98039,0.90615,-7.8431,3.8915,4.9918,1.005,2.0,5.0,0.93333,-7.8964,3.0569,3.0569
-5.9406,-7.138,-4.0924,0.0,0.90615,-4.2361,-9.0909,-1.0407,-3.0976,0.0,0.90615,-6.8627,2.9346,4.0066,0.0,0.0,3.0,3.9333,-4.9838,0.13008,1.1057
1.9802,0.94276,1.8482,2.9412,1.877,-0.06944,-3.0303,0.91057,-2.0875,2.9412,1.877,-0.98039,5.8054,6.9622,5.0251,4.0,7.0,7.9333,-0.12945,3.0569,4.0325
4.9505,0.94276,-0.13201,0.98039,0.90615,-1.1111,-4.0404,-0.06504,-1.0774,0.98039,0.90615,-2.9412,5.8054,6.9622,5.0251,4.0,6.0,0.93333,1.8123,3.0569,5.9837
-4.9505,-6.1279,-7.0627,-0.98039,-0.06472,-5.2778,-7.0707,-2.0163,-0.06734,-0.98039,-0.06472,-7.8431,1.9777,3.0213,-1.005,-1.0,0.0,-9.0667,-1.1003,0.13008,4.0325
-7.9208,-6.1279,-10.033,0.98039,1.877,-5.2778,-4.0404,-1.0407,0.94276,0.98039,1.877,-7.8431,0.0638,1.0509,-2.0101,-3.0,-1.0,-12.067,-5.9547,-2.7967,1.1057
-11.881,-9.1582,-11.023,1.9608,2.8479,-7.3611,-5.0505,-2.0163,0.94276,1.9608,2.8479,-8.8235,-0.89314,0.06568,-5.0251,-5.0,-3.0,-11.067,-13.722,-3.7724,0.13008
-16.832001,-10.168,-11.023,0.0,1.877,-9.4444,-8.0808,-3.9675,-2.0875,0.0,1.877,-8.8235,-1.8501,-0.91954,-7.0352,-5.0,-5.0,-2.0667,-11.78,-3.7724,-0.84553
-9.901,-12.189,-9.0429,0.98039,0.90615,-5.2778,-9.0909,-3.9675,-5.1178,0.98039,0.90615,-5.8824,-2.807,-2.89,-5.0251,-6.0,-5.0,0.93333,1.8123,-1.8211,-2.7967
-2.9703,-10.168,-6.0726,3.9216,2.8479,-0.06944,-6.0606,3.8374,-5.1178,3.9216,2.8479,-2.9412,1.0207,1.0509,-1.005,-3.0,-1.0,-2.0667,-4.0129,2.0813,-0.84553
0.0,-4.1077,-1.1221,2.9412,2.8479,-0.06944,-4.0404,5.7886,-5.1178,2.9412,2.8479,-2.9412,7.7193,6.9622,5.0251,4.0,5.0,-3.0667,-8.8673,5.9837,2.0813
0.9901,-3.0976,1.8482,1.9608,0.90615,-3.1944,-2.0202,3.8374,-4.1077,1.9608,0.90615,-2.9412,16.332001,14.844,10.05,9.0,12.0,8.9333,-6.9256,11.837,7.935
11.881,9.0236,10.759,4.902,5.7605,4.0972,5.0505,4.813,3.9731,4.902,5.7605,3.9216,23.987,22.726,17.084999,15.0,19.0,4.9333,-2.0712,16.715,14.764
6.9307,9.0236,10.759,5.8824,6.7314,5.1389,6.0606,3.8374,4.9832,5.8824,6.7314,5.8824,20.159,19.77,15.075,14.0,19.0,0.93333,2.7832,11.837,12.813
-2.9703,-0.06734,4.8185,3.9216,4.7896,-0.06944,3.0303,0.91057,3.9731,3.9216,4.7896,1.9608,11.547,11.888,9.0452,9.0,13.0,3.9333,4.7249,5.0081,7.935
1.9802,0.94276,4.8185,4.902,5.7605,0.97222,2.0202,1.8862,3.9731,4.902,5.7605,2.9412,10.59,10.903,8.0402,8.0,12.0,-4.0667,8.6084,5.0081,8.9106
1.9802,2.963,4.8185,3.9216,4.7896,2.0139,0.0,2.8618,2.963,3.9216,4.7896,2.9412,9.6332,8.9327,6.0302,7.0,10.0,-8.0667,7.6375,3.0569,5.9837
-0.9901,2.963,3.8284,3.9216,5.7605,-0.06944,0.0,1.8862,3.9731,3.9216,5.7605,1.9608,7.7193,6.9622,6.0302,5.0,8.0,-6.0667,-4.0129,1.1057,2.0813
2.9703,7.0034,7.7888,5.8824,7.7023,3.0556,5.0505,-0.06504,7.0034,5.8824,7.7023,6.8627,8.6762,7.9475,9.0452,7.0,9.0,-3.0667,2.7832,4.0325,1.1057
1.9802,5.9933,7.7888,4.902,6.7314,3.0556,6.0606,0.91057,7.0034,4.902,6.7314,5.8824,6.7624,4.9918,7.0352,5.0,7.0,-3.0667,2.7832,3.0569,0.13008
0.9901,2.963,5.8086,3.9216,4.7896,2.0139,6.0606,0.91057,5.9933,3.9216,4.7896,5.8824,4.8485,4.0066,5.0251,3.0,6.0,-2.0667,5.6958,1.1057,1.1057
5.9406,1.9529,5.8086,2.9412,4.7896,2.0139,4.0404,0.91057,4.9832,2.9412,4.7896,3.9216,4.8485,3.0213,6.0302,2.0,6.0,0.93333,2.7832,2.0813,-0.84553
1.9802,-0.06734,3.8284,3.9216,4.7896,2.0139,0.0,3.8374,2.963,3.9216,4.7896,2.9412,2.9346,1.0509,5.0251,1.0,6.0,8.9333,-9.8382,3.0569,-4.748
-1.9802,-2.0875,1.8482,4.902,4.7896,2.0139,-1.0101,3.8374,1.9529,4.902,4.7896,0.98039,1.9777,0.06568,3.0151,0.0,6.0,10.933,-8.8673,2.0813,-3.7724
4.9505,2.963,3.8284,4.902,3.8188,2.0139,-1.0101,3.8374,2.963,4.902,3.8188,0.0,3.8915,3.0213,7.0352,4.0,10.0,4.9333,0.84142,3.0569,0.13008
3.9604,0.94276,3.8284,1.9608,2.8479,-0.06944,0.0,2.8618,2.963,1.9608,2.8479,-1.9608,5.8054,4.9918,9.0452,5.0,12.0,0.93333,7.6375,4.0325,3.0569
0.0,-1.0774,1.8482,0.0,0.90615,-3.1944,-1.0101,-0.06504,2.963,0.0,0.90615,-4.902,4.8485,3.0213,9.0452,3.0,11.0,-3.0667,6.6667,4.0325,0.13008
1.9802,0.94276,2.8383,0.98039,1.877,-1.1111,-1.0101,1.8862,2.963,0.98039,1.877,-2.9412,3.8915,2.0361,7.0352,2.0,8.0,-1.0667,5.6958,5.0081,-1.8211
5.9406,-1.0774,3.8284,1.9608,3.8188,2.0139,0.0,2.8618,3.9731,1.9608,3.8188,0.0,4.8485,2.0361,8.0402,1.0,7.0,3.9333,-4.0129,4.0325,-2.7967
6.9307,-0.06734,3.8284,3.9216,4.7896,4.0972,2.0202,3.8374,4.9832,3.9216,4.7896,2.9412,4.8485,4.0066,8.0402,2.0,7.0,4.9333,-7.8964,5.9837,-0.84553
0.0,-1.0774,0.85809,1.9608,3.8188,-0.06944,1.0101,0.91057,3.9731,1.9608,3.8188,0.0,3.8915,3.0213,4.0201,2.0,5.0,5.9333,-1.1003,5.0081,-1.8211
-2.9703,-1.0774,-0.13201,1.9608,3.8188,-1.1111,-1.0101,-0.06504,3.9731,1.9608,3.8188,-0.98039,1.9777,0.06568,2.0101,0.0,3.0,2.9333,4.7249,3.0569,-5.7236
0.0,1.9529,0.85809,1.9608,2.8479,-1.1111,-2.0202,-0.06504,0.94276,1.9608,2.8479,-0.98039,1.9777,0.06568,4.0201,1.0,5.0,-0.06667,-4.0129,2.0813,-4.748
0.0,-1.0774,0.85809,0.0,1.877,-3.1944,-1.0101,-3.9675,-0.06734,0.0,1.877,-0.98039,1.9777,0.06568,5.0251,0.0,4.0,-8.0667,-0.12945,3.0569,-2.7967
-0.9901,0.94276,1.8482,0.0,2.8479,-2.1528,2.0202,-2.9919,1.9529,0.0,2.8479,0.0,3.8915,2.0361,5.0251,0.0,4.0,-1.0667,-7.8964,3.0569,-0.84553
0.9901,4.9832,3.8284,0.0,1.877,-2.1528,4.0404,-2.0163,2.963,0.0,1.877,0.0,6.7624,4.9918,6.0302,3.0,6.0,2.9333,-9.8382,5.0081,1.1057
-1.9802,-3.0976,-1.1221,-3.9216,-2.9773,-8.4028,-5.0505,-7.8699,-0.06734,-3.9216,-2.9773,-6.8627,3.8915,1.0509,3.0151,-2.0,3.0,-9.0667,-6.9256,1.1057,-3.7724
-7.9208,-8.1481,-4.0924,-4.902,-4.9191,-9.4444,-10.101,-6.8943,-3.0976,-4.902,-4.9191,-10.784,1.0207,-1.9048,0.0,-4.0,1.0,-5.0667,2.7832,-0.84553,-6.6992
-0.9901,-1.0774,-1.1221,-2.9412,-3.9482,-6.3194,-6.0606,-1.0407,-4.1077,-2.9412,-3.9482,-7.8431,1.9777,0.06568,3.0151,-2.0,5.0,-4.0667,2.7832,0.13008,-4.748
0.9901,-3.0976,-0.13201,-2.9412,-4.9191,-5.2778,-9.0909,-2.0163,-3.0976,-2.9412,-4.9191,-5.8824,1.0207,-1.9048,3.0151,-3.0,5.0,-1.0667,4.7249,-0.84553,-4.748
-0.9901,-2.0875,-0.13201,-1.9608,-3.9482,-4.2361,-8.0808,-2.9919,-0.06734,-1.9608,-3.9482,-3.9216,0.0638,-2.89,2.0101,-2.0,3.0,5.9333,1.8123,-0.84553,-2.7967
0.0,3.9731,0.85809,-2.9412,-3.9482,-5.2778,-4.0404,-4.9431,-1.0774,-2.9412,-3.9482,-3.9216,1.0207,-1.9048,4.0201,0.0,3.0,0.93333,-5.9547,1.1057,-1.8211
-3.9604,-0.06734,-2.1122,-4.902,-4.9191,-9.4444,-5.0505,-6.8943,0.94276,-4.902,-4.9191,-6.8627,1.0207,-2.89,4.0201,-2.0,3.0,-0.06667,-4.9838,1.1057,-3.7724
-1.9802,-0.06734,-0.13201,-3.9216,-2.0065,-8.4028,-1.0101,-4.9431,3.9731,-3.9216,-2.0065,-6.8627,2.9346,-0.91954,5.0251,0.0,6.0,-9.0667,-4.0129,1.1057,-2.7967
0.0,1.9529,1.8482,-1.9608,-1.0356,-4.2361,-1.0101,-1.0407,3.9731,-1.9608,-1.0356,-3.9216,4.8485,2.0361,6.0302,0.0,8.0,-8.0667,-1.1003,2.0813,-2.7967
0.9901,-0.06734,1.8482,-0.98039,-2.0065,-0.06944,-1.0101,0.91057,-0.06734,-0.98039,-2.0065,-1.9608,2.9346,-0.91954,4.0201,-1.0,5.0,1.9333,10.55,-0.84553,-4.748
6.9307,5.9933,5.8086,1.9608,-0.06472,6.1806,1.0101,5.7886,-3.0976,1.9608,-0.06472,2.9412,1.9777,-0.91954,6.0302,1.0,7.0,-0.06667,0.84142,0.13008,-2.7967
7.9208,8.0135,6.7987,2.9412,-0.06472,5.1389,3.0303,4.813,-1.0774,2.9412,-0.06472,4.902,2.9346,0.06568,7.0352,3.0,8.0,-7.0667,-1.1003,2.0813,-0.84553
9.901,11.044,6.7987,0.98039,-0.06472,4.0972,5.0505,1.8862,3.9731,0.98039,-0.06472,4.902,1.9777,0.06568,7.0352,5.0,7.0,-3.0667,-1.1003,1.1057,0.13008
6.9307,9.0236,4.8185,0.0,-0.06472,2.0139,5.0505,-1.0407,7.0034,0.0,-0.06472,4.902,1.0207,-0.91954,4.0201,3.0,4.0,-5.0667,8.6084,1.1057,0.13008
1.9802,4.9832,2.8383,1.9608,0.90615,2.0139,5.0505,-0.06504,5.9933,1.9608,0.90615,4.902,0.0638,-0.91954,3.0151,3.0,3.0,-1.0667,13.463,0.13008,0.13008
2.9703,10.034,4.8185,2.9412,2.8479,3.0556,7.0707,-1.0407,5.9933,2.9412,2.8479,5.8824,1.0207,0.06568,4.0201,5.0,5.0,2.9333,11.521,-0.84553,2.0813
1.9802,10.034,5.8086,1.9608,2.8479,0.97222,7.0707,-1.0407,7.0034,1.9608,2.8479,4.902,1.9777,1.0509,4.0201,5.0,6.0,-0.06667,11.521,0.13008,2.0813
3.9604,10.034,6.7987,0.98039,0.90615,2.0139,7.0707,-0.06504,7.0034,0.98039,0.90615,3.9216,2.9346,2.0361,5.0251,5.0,7.0,-3.0667,4.7249,1.1057,1.1057
3.9604,12.054,6.7987,1.9608,1.877,2.0139,9.0909,0.91057,5.9933,1.9608,1.877,4.902,1.9777,1.0509,4.0201,5.0,6.0,-1.0667,4.7249,1.1057,1.1057
8.9109,9.0236,6.7987,3.9216,2.8479,5.1389,8.0808,1.8862,4.9832,3.9216,2.8479,6.8627,0.0638,0.06568,4.0201,4.0,4.0,-3.0667,9.5793,0.13008,0.13008
6.9307,7.0034,6.7987,4.902,3.8188,5.1389,7.0707,0.91057,5.9933,4.902,3.8188,8.8235,-1.8501,-1.9048,0.0,3.0,1.0,0.93333,3.754,-2.7967,0.13008
1.9802,8.0135,6.7987,3.9216,4.7896,4.0972,11.111,0.91057,5.9933,3.9216,4.7896,8.8235,-5.6778,-3.8752,-6.0302,1.0,-3.0,0.93333,5.6958,-7.6748,0.13008
1.9802,9.0236,8.7789,5.8824,5.7605,6.1806,13.131,2.8618,9.0236,5.8824,5.7605,11.765,-7.5917,-5.8456,-7.0352,0.0,-5.0,-0.06667,12.492,-8.6504,0.13008
5.9406,12.054,11.749,8.8235,10.615,10.347,17.172001,5.7886,15.084,8.8235,10.615,16.667,-7.5917,-6.8309,-4.0201,-1.0,-4.0,-0.06667,10.55,-6.6992,-2.7967
7.9208,16.094,13.729,10.784,12.557,12.431,20.202,5.7886,16.094,10.784,12.557,19.608,-6.6348,-5.8456,-2.0101,0.0,-1.0,-4.0667,14.434,-6.6992,-1.8211
8.9109,14.074,12.739,9.8039,11.586,10.347,16.162001,2.8618,13.064,9.8039,11.586,17.646999,-5.6778,-4.8604,0.0,1.0,1.0,-12.067,14.434,-4.748,-0.84553
7.9208,12.054,10.759,7.8431,9.644,8.2639,13.131,3.8374,11.044,7.8431,9.644,13.725,-4.7209,-3.8752,0.0,2.0,2.0,-2.0667,7.6375,-3.7724,-1.8211
4.9505,8.0135,8.7789,7.8431,7.7023,7.2222,10.101,5.7886,7.0034,7.8431,7.7023,10.784,-4.7209,-3.8752,-1.005,2.0,1.0,10.933,-1.1003,-4.748,-1.8211
8.9109,14.074,10.759,10.784,8.6731,12.431,14.141,8.7154,9.0236,10.784,8.6731,14.706,-2.807,-0.91954,1.005,6.0,3.0,9.9333,0.84142,-1.8211,1.1057
7.9208,11.044,10.759,9.8039,8.6731,11.389,15.152,7.7398,9.0236,9.8039,8.6731,14.706,-2.807,-2.89,1.005,4.0,2.0,9.9333,5.6958,-0.84553,0.13008
12.871,10.034,12.739,8.8235,7.7023,11.389,14.141,7.7398,12.054,8.8235,7.7023,15.686,-0.89314,-1.9048,4.0201,4.0,2.0,8.9333,9.5793,0.13008,0.13008
14.851,10.034,11.749,6.8627,7.7023,8.2639,12.121,4.813,11.044,6.8627,7.7023,13.725,-0.89314,-0.91954,3.0151,1.0,-1.0,2.9333,11.521,1.1057,0.13008
9.901,8.0135,8.7789,6.8627,7.7023,7.2222,10.101,5.7886,9.0236,6.8627,7.7023,11.765,-1.8501,-2.89,1.005,-2.0,-3.0,2.9333,8.6084,0.13008,-2.7967
11.881,11.044,10.759,6.8627,6.7314,8.2639,11.111,5.7886,8.0135,6.8627,6.7314,12.745,-1.8501,-2.89,1.005,-2.0,0.0,1.9333,-0.12945,-2.7967,-4.748
10.891,9.0236,10.759,7.8431,6.7314,9.3056,12.121,8.7154,8.0135,7.8431,6.7314,13.725,-2.807,-2.89,0.0,-1.0,1.0,5.9333,11.521,-4.748,-4.748
12.871,10.034,11.749,9.8039,8.6731,9.3056,14.141,8.7154,10.034,9.8039,8.6731,15.686,-0.89314,-1.9048,3.0151,2.0,4.0,7.9333,9.5793,-2.7967,-3.7724
14.851,12.054,12.739,10.784,11.586,10.347,16.162001,7.7398,13.064,10.784,11.586,16.667,0.0638,-0.91954,6.0302,3.0,5.0,-2.0667,9.5793,-0.84553,-2.7967
7.9208,12.054,10.759,11.765,12.557,9.3056,16.162001,8.7154,13.064,11.765,12.557,14.706,-3.764,-3.8752,2.0101,1.0,1.0,-3.0667,16.375,-3.7724,-6.6992
5.9406,13.064,9.769,11.765,11.586,9.3056,15.152,7.7398,11.044,11.765,11.586,15.686,-2.807,-2.89,0.0,1.0,0.0,8.9333,-0.12945,-0.84553,-3.7724
10.891,11.044,9.769,11.765,11.586,10.347,16.162001,7.7398,8.0135,11.765,11.586,16.667,-0.89314,-0.91954,1.005,0.0,-1.0,11.933,4.7249,-0.84553,0.13008
6.9307,7.0034,6.7987,11.765,11.586,11.389,14.141,7.7398,9.0236,11.765,11.586,14.706,-2.807,-1.9048,-1.005,-3.0,-4.0,14.933,14.434,-3.7724,0.13008
2.9703,2.963,1.8482,8.8235,8.6731,7.2222,9.0909,5.7886,7.0034,8.8235,8.6731,10.784,-4.7209,-3.8752,-4.0201,-6.0,-8.0,3.9333,6.6667,-7.6748,-2.7967
2.9703,4.9832,1.8482,8.8235,6.7314,7.2222,7.0707,6.7642,4.9832,8.8235,6.7314,9.8039,-2.807,-1.9048,-4.0201,-4.0,-6.0,0.93333,3.754,-6.6992,-0.84553
7.9208,8.0135,5.8086,9.8039,8.6731,9.3056,9.0909,6.7642,5.9933,9.8039,8.6731,12.745,0.0638,1.0509,0.0,1.0,-1.0,1.9333,-4.0129,-2.7967,0.13008
10.891,9.0236,8.7789,9.8039,8.6731,11.389,12.121,6.7642,7.0034,9.8039,8.6731,15.686,2.9346,2.0361,3.0151,3.0,3.0,1.9333,4.7249,-0.84553,0.13008
11.881,7.0034,9.769,10.784,8.6731,13.472,11.111,7.7398,3.9731,10.784,8.6731,16.667,2.9346,2.0361,4.0201,1.0,2.0,0.93333,12.492,0.13008,-0.84553
9.901,5.9933,6.7987,10.784,7.7023,12.431,7.0707,7.7398,2.963,10.784,7.7023,15.686,1.9777,0.06568,1.005,-1.0,-1.0,4.9333,7.6375,0.13008,-1.8211
12.871,4.9832,5.8086,10.784,8.6731,13.472,8.0808,7.7398,3.9731,10.784,8.6731,15.686,-1.8501,-1.9048,-1.005,-2.0,-4.0,-0.06667,-0.12945,-1.8211,-2.7967
7.9208,5.9933,4.8185,13.725,11.586,14.514,12.121,9.6911,7.0034,13.725,11.586,17.646999,-5.6778,-3.8752,-6.0302,-3.0,-7.0,6.9333,-9.8382,-6.6992,-2.7967
8.9109,10.034,6.7987,16.667,15.469,17.639,16.162001,12.618,9.0236,16.667,15.469,20.587999,-5.6778,-2.89,-7.0352,-1.0,-6.0,6.9333,9.5793,-7.6748,-0.84553
8.9109,5.9933,5.8086,16.667,14.498,16.597,16.162001,13.593,7.0034,16.667,14.498,19.608,-3.764,-0.91954,-5.0251,0.0,-5.0,-1.0667,17.346001,-6.6992,2.0813
5.9406,7.0034,5.8086,14.706,11.586,14.514,13.131,10.667,4.9832,14.706,11.586,17.646999,1.0207,3.0213,0.0,4.0,0.0,10.933,13.463,-2.7967,4.0325
4.9505,7.0034,3.8284,11.765,7.7023,12.431,8.0808,8.7154,0.94276,11.765,7.7023,12.745,5.8054,6.9622,4.0201,7.0,4.0,10.933,6.6667,2.0813,7.935
1.9802,1.9529,-1.1221,8.8235,4.7896,9.3056,3.0303,9.6911,-1.0774,8.8235,4.7896,7.8431,6.7624,6.9622,5.0251,5.0,4.0,5.9333,4.7249,5.0081,9.8862
3.9604,-0.06734,-1.1221,8.8235,4.7896,9.3056,3.0303,9.6911,0.94276,8.8235,4.7896,7.8431,7.7193,7.9475,7.0352,4.0,4.0,4.9333,4.7249,6.9593,9.8862
0.0,-3.0976,-4.0924,5.8824,0.90615,5.1389,2.0202,6.7642,-3.0976,5.8824,0.90615,3.9216,2.9346,4.9918,0.0,0.0,-1.0,6.9333,-2.0712,4.0325,6.9593
2.9703,-0.06734,-3.1023,6.8627,2.8479,5.1389,4.0404,11.642,-0.06734,6.8627,2.8479,4.902,2.9346,4.9918,-2.0101,-2.0,-5.0,8.9333,-0.12945,4.0325,5.9837
3.9604,1.9529,-2.1122,7.8431,4.7896,7.2222,5.0505,10.667,1.9529,7.8431,4.7896,6.8627,1.0207,3.0213,-5.0251,-5.0,-9.0,8.9333,8.6084,2.0813,5.0081
0.9901,-0.06734,-4.0924,8.8235,4.7896,7.2222,4.0404,8.7154,2.963,8.8235,4.7896,5.8824,-1.8501,-0.91954,-10.05,-8.0,-13.0,6.9333,13.463,-2.7967,0.13008
1.9802,0.94276,-3.1023,10.784,6.7314,8.2639,4.0404,8.7154,3.9731,10.784,6.7314,6.8627,-0.89314,-1.9048,-8.0402,-7.0,-11.0,3.9333,10.55,-2.7967,0.13008
1.9802,2.963,-1.1221,11.765,8.6731,8.2639,6.0606,9.6911,3.9731,11.765,8.6731,8.8235,0.0638,-0.91954,-3.0151,-5.0,-6.0,8.9333,-1.1003,1.1057,0.13008
4.9505,2.963,-0.13201,10.784,7.7023,9.3056,7.0707,8.7154,1.9529,10.784,7.7023,8.8235,1.0207,-0.91954,2.0101,-3.0,-3.0,5.9333,-4.0129,5.9837,1.1057
11.881,4.9832,2.8383,10.784,7.7023,11.389,6.0606,9.6911,2.963,10.784,7.7023,10.784,4.8485,2.0361,8.0402,3.0,0.0,6.9333,6.6667,12.813,6.9593
12.871,3.9731,2.8383,8.8235,6.7314,11.389,4.0404,10.667,1.9529,8.8235,6.7314,7.8431,9.6332,8.9327,9.0452,7.0,0.0,10.933,13.463,15.74,14.764
10.891,2.963,1.8482,6.8627,3.8188,10.347,1.0101,8.7154,-0.06734,6.8627,3.8188,5.8824,13.461,12.874,9.0452,9.0,-1.0,11.933,3.754,17.691,18.667
7.9208,1.9529,0.85809,6.8627,3.8188,7.2222,0.0,6.7642,-1.0774,6.8627,3.8188,5.8824,14.418,14.844,8.0402,7.0,-2.0,16.933001,8.6084,17.691,18.667
10.891,3.9731,2.8383,9.8039,6.7314,10.347,2.0202,9.6911,-0.06734,9.8039,6.7314,8.8235,15.375,15.829,9.0452,7.0,0.0,15.933,12.492,16.715,17.691
16.832001,3.9731,4.8185,11.765,9.644,15.556,4.0404,12.618,2.963,11.765,9.644,11.765,15.375,14.844,12.06,8.0,3.0,12.933,3.754,17.691,16.715
15.842,7.0034,7.7888,12.745,9.644,18.681,8.0808,13.593,4.9832,12.745,9.644,13.725,13.461,13.859,12.06,11.0,6.0,12.933,-0.12945,17.691,17.691
16.832001,11.044,10.759,14.706,10.615,19.722,13.131,16.52,7.0034,14.706,10.615,17.646999,12.504,13.859,13.065,14.0,9.0,17.933001,11.521,17.691,18.667
14.851,12.054,11.749,14.706,12.557,19.722,14.141,18.472,9.0236,14.706,12.557,17.646999,12.504,13.859,12.06,16.0,10.0,23.933001,13.463,16.715,19.642
10.891,7.0034,7.7888,10.784,8.6731,15.556,8.0808,14.569,7.0034,10.784,8.6731,12.745,9.6332,10.903,9.0452,13.0,6.0,20.933001,13.463,15.74,18.667
12.871,11.044,8.7789,10.784,6.7314,13.472,5.0505,12.618,7.0034,10.784,6.7314,10.784,10.59,11.888,11.055,13.0,7.0,12.933,19.288,16.715,19.642
14.851,13.064,11.749,11.765,7.7023,16.597,9.0909,13.593,9.0236,11.765,7.7023,13.725,12.504,12.874,14.07,17.0,9.0,15.933,8.6084,17.691,18.667
17.822001,16.094,15.71,12.745,9.644,18.681,15.152,14.569,12.054,12.745,9.644,16.667,14.418,15.829,17.084999,20.0,13.0,16.933001,11.521,19.642,20.618
15.842,19.125,15.71,12.745,10.615,19.722,16.162001,13.593,13.064,12.745,10.615,18.627001,16.332001,18.785,17.084999,23.0,15.0,14.933,17.346001,18.667,22.569
13.861,16.094,11.749,11.765,8.6731,16.597,13.131,13.593,11.044,11.765,8.6731,15.686,17.289,19.77,17.084999,23.0,15.0,15.933,2.7832,18.667,22.569
12.871,16.094,9.769,9.8039,8.6731,15.556,14.141,13.593,10.034,9.8039,8.6731,14.706,20.159,20.754999,19.094999,22.0,16.0,19.933001,9.5793,21.593,23.545
18.812,18.114,14.719,10.784,9.644,19.722,18.181999,13.593,12.054,10.784,9.644,19.608,22.073,22.726,23.115999,24.0,18.0,18.933001,28.025999,25.496,26.472
21.782,14.074,16.700001,11.765,10.615,20.764,18.181999,14.569,12.054,11.765,10.615,21.569,21.115999,22.726,23.115999,24.0,19.0,18.933001,21.23,22.569,26.472
22.771999,20.135,19.67,13.725,10.615,22.847,18.181999,15.545,10.034,13.725,10.615,22.549,19.202999,21.740999,23.115999,27.0,21.0,12.933,11.521,19.642,25.496
22.771999,19.125,18.68,15.686,11.586,23.889,16.162001,17.496,11.044,15.686,11.586,22.549,16.332001,19.77,21.106001,25.0,21.0,15.933,18.316999,15.74,24.52
18.812,18.114,14.719,13.725,12.557,18.681,18.181999,15.545,14.074,13.725,12.557,19.608,15.375,17.799999,19.094999,22.0,18.0,20.933001,16.375,15.74,21.593
15.842,20.135,12.739,11.765,11.586,15.556,18.181999,13.593,12.054,11.765,11.586,17.646999,14.418,16.813999,18.09,21.0,17.0,18.933001,14.434,17.691,19.642
17.822001,16.094,11.749,10.784,10.615,16.597,17.172001,15.545,12.054,10.784,10.615,17.646999,14.418,15.829,17.084999,19.0,15.0,20.933001,10.55,17.691,16.715
14.851,10.034,8.7789,8.8235,7.7023,12.431,13.131,13.593,9.0236,8.8235,7.7023,14.706,12.504,14.844,15.075,16.0,12.0,20.933001,1.8123,15.74,16.715
12.871,8.0135,6.7987,7.8431,6.7314,11.389,11.111,12.618,7.0034,7.8431,6.7314,12.745,12.504,14.844,14.07,15.0,11.0,19.933001,12.492,16.715,17.691
12.871,7.0034,7.7888,8.8235,8.6731,12.431,9.0909,14.569,9.0236,8.8235,8.6731,11.765,12.504,12.874,15.075,16.0,13.0,18.933001,16.375,16.715,15.74
12.871,10.034,9.769,9.8039,10.615,11.389,11.111,13.593,9.0236,9.8039,10.615,11.765,13.461,13.859,16.08,17.0,14.0,14.933,4.7249,18.667,15.74
16.832001,10.034,9.769,7.8431,9.644,10.347,11.111,9.6911,10.034,7.8431,9.644,10.784,11.547,10.903,16.08,15.0,14.0,12.933,9.5793,18.667,12.813
8.9109,4.9832,6.7987,4.902,6.7314,6.1806,7.0707,8.7154,10.034,4.902,6.7314,6.8627,9.6332,9.9179,11.055,12.0,11.0,18.933001,13.463,15.74,13.789
10.891,10.034,8.7789,5.8824,6.7314,6.1806,9.0909,12.618,10.034,5.8824,6.7314,7.8431,15.375,15.829,15.075,16.0,15.0,23.933001,11.521,19.642,18.667
17.822001,14.074,11.749,8.8235,8.6731,12.431,10.101,15.545,11.044,8.8235,8.6731,10.784,22.073,21.740999,20.101,20.0,19.0,20.933001,5.6958,24.52,21.593
13.861,8.0135,8.7789,7.8431,7.7023,9.3056,7.0707,12.618,11.044,7.8431,7.7023,6.8627,21.115999,21.740999,16.08,19.0,17.0,14.933,16.375,20.618,22.569
9.901,12.054,8.7789,7.8431,5.7605,9.3056,10.101,11.642,11.044,7.8431,5.7605,8.8235,18.246,20.754999,15.075,21.0,17.0,9.9333,11.521,18.667,22.569
6.9307,13.064,8.7789,5.8824,5.7605,8.2639,9.0909,8.7154,10.034,5.8824,5.7605,8.8235,16.332001,17.799999,15.075,19.0,16.0,11.933,16.375,18.667,19.642
6.9307,7.0034,6.7987,5.8824,4.7896,7.2222,6.0606,8.7154,8.0135,5.8824,4.7896,7.8431,13.461,13.859,12.06,12.0,12.0,17.933001,21.23,15.74,12.813
8.9109,3.9731,6.7987,4.902,3.8188,8.2639,5.0505,8.7154,3.9731,4.902,3.8188,6.8627,10.59,9.9179,10.05,9.0,9.0,13.933,10.55,11.837,10.862
8.9109,3.9731,8.7789,2.9412,1.877,7.2222,2.0202,7.7398,2.963,2.9412,1.877,5.8824,9.6332,10.903,11.055,10.0,11.0,8.9333,1.8123,10.862,10.862
7.9208,5.9933,8.7789,1.9608,0.90615,5.1389,1.0101,6.7642,4.9832,1.9608,0.90615,3.9216,8.6762,9.9179,9.0452,12.0,12.0,11.933,9.5793,7.935,9.8862
9.901,10.034,9.769,2.9412,2.8479,7.2222,6.0606,6.7642,7.0034,2.9412,2.8479,5.8824,10.59,11.888,11.055,15.0,13.0,11.933,2.7832,10.862,13.789
7.9208,9.0236,7.7888,1.9608,1.877,5.1389,3.0303,7.7398,5.9933,1.9608,1.877,2.9412,9.6332,9.9179,11.055,13.0,11.0,8.9333,4.7249,13.789,11.837
4.9505,4.9832,4.8185,1.9608,1.877,3.0556,1.0101,6.7642,4.9832,1.9608,1.877,0.98039,7.7193,7.9475,9.0452,9.0,8.0,11.933,8.6084,11.837,9.8862
9.901,5.9933,5.8086,4.902,3.8188,7.2222,4.0404,10.667,8.0135,4.902,3.8188,3.9216,7.7193,7.9475,10.05,8.0,9.0,12.933,7.6375,10.862,8.9106
10.891,3.9731,4.8185,3.9216,3.8188,8.2639,3.0303,12.618,7.0034,3.9216,3.8188,3.9216,7.7193,6.9622,10.05,8.0,9.0,9.9333,7.6375,10.862,8.9106
3.9604,-3.0976,0.85809,1.9608,0.90615,3.0556,-2.0202,5.7886,4.9832,1.9608,0.90615,0.0,4.8485,4.9918,6.0302,4.0,5.0,9.9333,11.521,7.935,6.9593
0.9901,-4.1077,1.8482,1.9608,1.877,3.0556,-1.0101,5.7886,4.9832,1.9608,1.877,0.98039,1.9777,2.0361,3.0151,3.0,2.0,8.9333,8.6084,5.0081,4.0325
1.9802,-0.06734,3.8284,4.902,4.7896,5.1389,2.0202,8.7154,7.0034,4.902,4.7896,3.9216,1.9777,2.0361,3.0151,5.0,2.0,12.933,8.6084,5.0081,5.9837
3.9604,3.9731,4.8185,3.9216,4.7896,5.1389,2.0202,7.7398,8.0135,3.9216,4.7896,2.9412,1.0207,1.0509,3.0151,5.0,1.0,4.9333,9.5793,5.0081,5.0081
6.9307,1.9529,2.8383,4.902,5.7605,6.1806,4.0404,7.7398,8.0135,4.902,5.7605,2.9412,-0.89314,0.06568,3.0151,4.0,0.0,-5.0667,6.6667,3.0569,5.0081
8.9109,9.0236,5.8086,6.8627,7.7023,8.2639,11.111,9.6911,10.034,6.8627,7.7023,6.8627,1.0207,2.0361,6.0302,7.0,4.0,9.9333,-2.0712,5.0081,5.0081
11.881,8.0135,6.7987,5.8824,6.7314,9.3056,11.111,8.7154,9.0236,5.8824,6.7314,6.8627,2.9346,2.0361,7.0352,6.0,6.0,12.933,2.7832,5.0081,2.0813
14.851,8.0135,9.769,5.8824,7.7023,7.2222,10.101,6.7642,10.034,5.8824,7.7023,6.8627,6.7624,5.977,10.05,7.0,10.0,7.9333,4.7249,8.9106,5.9837
9.901,5.9933,10.759,5.8824,7.7023,7.2222,8.0808,7.7398,10.034,5.8824,7.7023,6.8627,8.6762,6.9622,11.055,7.0,11.0,11.933,12.492,10.862,5.9837
6.9307,7.0034,10.759,4.902,6.7314,7.2222,8.0808,7.7398,7.0034,4.902,6.7314,6.8627,5.8054,4.0066,10.05,5.0,10.0,12.933,8.6084,7.935,0.13008
10.891,12.054,13.729,4.902,7.7023,7.2222,10.101,4.813,7.0034,4.902,7.7023,8.8235,6.7624,4.9918,13.065,8.0,13.0,4.9333,5.6958,8.9106,5.0081
11.881,11.044,15.71,6.8627,8.6731,8.2639,11.111,6.7642,7.0034,6.8627,8.6731,9.8039,8.6762,7.9475,14.07,10.0,14.0,6.9333,5.6958,8.9106,7.935
13.861,16.094,17.690001,8.8235,9.644,9.3056,11.111,8.7154,8.0135,8.8235,9.644,11.765,11.547,9.9179,16.08,12.0,17.0,10.933,11.521,9.8862,10.862
13.861,17.104,19.67,8.8235,9.644,7.2222,11.111,5.7886,9.0236,8.8235,9.644,12.745,10.59,10.903,16.08,15.0,18.0,7.9333,14.434,9.8862,11.837
12.871,17.104,20.66,9.8039,9.644,8.2639,13.131,7.7398,8.0135,9.8039,9.644,12.745,9.6332,9.9179,15.075,17.0,19.0,2.9333,3.754,6.9593,10.862
12.871,19.125,20.66,10.784,9.644,8.2639,12.121,7.7398,8.0135,10.784,9.644,12.745,7.7193,8.9327,14.07,17.0,21.0,4.9333,7.6375,4.0325,7.935
12.871,20.135,20.66,10.784,9.644,10.347,12.121,6.7642,9.0236,10.784,9.644,13.725,5.8054,6.9622,13.065,16.0,21.0,6.9333,10.55,3.0569,8.9106
10.891,19.125,18.68,12.745,11.586,10.347,14.141,10.667,11.044,12.745,11.586,14.706,4.8485,5.977,12.06,14.0,19.0,5.9333,9.5793,2.0813,7.935
10.891,20.135,17.690001,12.745,10.615,12.431,13.131,14.569,10.034,12.745,10.615,14.706,6.7624,7.9475,13.065,14.0,19.0,6.9333,13.463,4.0325,8.9106
9.901,15.084,14.719,9.8039,6.7314,10.347,9.0909,13.593,7.0034,9.8039,6.7314,10.784,6.7624,7.9475,12.06,13.0,18.0,5.9333,11.521,5.0081,7.935
7.9208,11.044,12.739,7.8431,3.8188,7.2222,6.0606,9.6911,5.9933,7.8431,3.8188,7.8431,4.8485,5.977,9.0452,11.0,16.0,10.933,6.6667,3.0569,5.0081
8.9109,13.064,12.739,8.8235,3.8188,12.431,7.0707,9.6911,5.9933,8.8235,3.8188,10.784,3.8915,4.9918,8.0402,10.0,14.0,9.9333,3.754,1.1057,4.0325
9.901,12.054,10.759,9.8039,5.7605,14.514,7.0707,11.642,5.9933,9.8039,5.7605,11.765,0.0638,1.0509,5.0251,7.0,10.0,1.9333,11.521,-2.7967,0.13008
7.9208,9.0236,6.7987,9.8039,6.7314,11.389,6.0606,12.618,5.9933,9.8039,6.7314,8.8235,-0.89314,0.06568,4.0201,5.0,6.0,5.9333,-0.12945,-2.7967,0.13008
4.9505,4.9832,1.8482,6.8627,5.7605,7.2222,3.0303,9.6911,2.963,6.8627,5.7605,2.9412,-0.89314,-0.91954,2.0101,2.0,4.0,1.9333,-0.12945,-2.7967,-0.84553
2.9703,3.9731,-0.13201,4.902,3.8188,3.0556,1.0101,7.7398,4.9832,4.902,3.8188,-0.98039,1.0207,1.0509,3.0151,3.0,4.0,2.9333,1.8123,0.13008,1.1057
-2.9703,3.9731,-2.1122,0.0,-1.0356,-2.1528,-3.0303,2.8618,1.9529,0.0,-1.0356,-5.8824,1.9777,1.0509,2.0101,3.0,4.0,3.9333,2.7832,1.1057,0.13008
-2.9703,5.9933,-0.13201,0.0,-1.0356,-2.1528,-2.0202,0.91057,2.963,0.0,-1.0356,-3.9216,1.9777,1.0509,0.0,2.0,4.0,-0.06667,6.6667,1.1057,2.0813
1.9802,9.0236,2.8383,1.9608,1.877,0.97222,0.0,1.8862,4.9832,1.9608,1.877,-0.98039,1.0207,2.0361,1.005,5.0,7.0,1.9333,4.7249,0.13008,4.0325
7.9208,4.9832,4.8185,2.9412,1.877,2.0139,-1.0101,6.7642,4.9832,2.9412,1.877,-0.98039,1.9777,4.0066,4.0201,7.0,10.0,0.93333,10.55,1.1057,4.0325
6.9307,5.9933,5.8086,2.9412,2.8479,0.97222,1.0101,5.7886,4.9832,2.9412,2.8479,0.0,3.8915,5.977,6.0302,9.0,10.0,6.9333,13.463,3.0569,5.0081
8.9109,10.034,7.7888,2.9412,2.8479,2.0139,3.0303,5.7886,5.9933,2.9412,2.8479,1.9608,5.8054,8.9327,8.0402,11.0,10.0,3.9333,5.6958,6.9593,10.862
5.9406,11.044,6.7987,0.98039,1.877,2.0139,3.0303,4.813,3.9731,0.98039,1.877,1.9608,2.9346,4.9918,6.0302,7.0,6.0,1.9333,-10.809,5.0081,7.935
6.9307,11.044,8.7789,1.9608,1.877,0.97222,6.0606,2.8618,4.9832,1.9608,1.877,4.902,1.0207,2.0361,5.0251,5.0,4.0,4.9333,-2.0712,3.0569,4.0325
12.871,13.064,12.739,3.9216,4.7896,6.1806,7.0707,5.7886,5.9933,3.9216,4.7896,8.8235,3.8915,3.0213,10.05,6.0,7.0,6.9333,4.7249,5.9837,3.0569
12.871,12.054,12.739,3.9216,3.8188,7.2222,7.0707,6.7642,5.9933,3.9216,3.8188,7.8431,4.8485,3.0213,11.055,7.0,8.0,13.933,10.55,6.9593,3.0569
10.891,9.0236,7.7888,1.9608,1.877,4.0972,2.0202,10.667,4.9832,1.9608,1.877,2.9412,5.8054,5.977,11.055,8.0,8.0,19.933001,13.463,7.935,6.9593
8.9109,10.034,4.8185,0.0,-0.06472,2.0139,-1.0101,8.7154,2.963,0.0,-0.06472,0.0,4.8485,5.977,9.0452,9.0,7.0,16.933001,9.5793,6.9593,7.935
10.891,12.054,6.7987,0.0,0.90615,2.0139,2.0202,4.813,5.9933,0.0,0.90615,1.9608,3.8915,5.977,7.0352,11.0,7.0,8.9333,12.492,4.0325,8.9106
8.9109,10.034,6.7987,0.0,0.90615,0.97222,3.0303,1.8862,7.0034,0.0,0.90615,0.98039,2.9346,5.977,6.0302,10.0,8.0,8.9333,-1.1003,2.0813,8.9106
9.901,13.064,6.7987,1.9608,1.877,2.0139,6.0606,3.8374,7.0034,1.9608,1.877,2.9412,3.8915,5.977,8.0402,11.0,9.0,9.9333,-0.12945,5.0081,6.9593
7.9208,10.034,3.8284,2.9412,2.8479,2.0139,4.0404,5.7886,4.9832,2.9412,2.8479,2.9412,6.7624,6.9622,9.0452,10.0,8.0,11.933,8.6084,6.9593,5.9837
12.871,12.054,4.8185,4.902,5.7605,5.1389,6.0606,7.7398,8.0135,4.902,5.7605,5.8824,9.6332,8.9327,13.065,11.0,11.0,16.933001,18.316999,10.862,6.9593
12.871,10.034,4.8185,5.8824,5.7605,7.2222,7.0707,10.667,7.0034,5.8824,5.7605,5.8824,9.6332,9.9179,14.07,12.0,11.0,16.933001,12.492,12.813,9.8862
9.901,10.034,2.8383,4.902,5.7605,7.2222,7.0707,10.667,7.0034,4.902,5.7605,4.902,8.6762,8.9327,12.06,11.0,8.0,7.9333,-0.12945,11.837,10.862
5.9406,10.034,0.85809,3.9216,3.8188,2.0139,7.0707,6.7642,7.0034,3.9216,3.8188,2.9412,8.6762,8.9327,10.05,10.0,7.0,8.9333,7.6375,11.837,12.813
2.9703,11.044,0.85809,0.98039,2.8479,-2.1528,6.0606,1.8862,8.0135,0.98039,2.8479,0.98039,9.6332,9.9179,7.0352,9.0,6.0,15.933,-1.1003,8.9106,14.764
-1.9802,8.0135,-2.1122,-0.98039,1.877,-4.2361,4.0404,-1.0407,9.0236,-0.98039,1.877,-0.98039,6.7624,7.9475,2.0101,7.0,2.0,11.933,13.463,4.0325,10.862
0.9901,10.034,0.85809,0.98039,2.8479,-0.06944,7.0707,1.8862,10.034,0.98039,2.8479,2.9412,4.8485,6.9622,0.0,7.0,3.0,7.9333,23.172001,0.13008,8.9106
6.9307,12.054,4.8185,3.9216,5.7605,5.1389,9.0909,2.8618,11.044,3.9216,5.7605,5.8824,2.9346,5.977,0.0,7.0,4.0,3.9333,11.521,-2.7967,6.9593
6.9307,9.0236,4.8185,2.9412,5.7605,4.0972,8.0808,-0.06504,11.044,2.9412,5.7605,5.8824,3.8915,5.977,2.0101,7.0,5.0,0.93333,4.7249,-0.84553,5.9837
0.0,2.963,0.85809,1.9608,2.8479,-0.06944,2.0202,-0.06504,5.9933,1.9608,2.8479,0.98039,1.9777,4.0066,0.0,4.0,4.0,-4.0667,2.7832,-0.84553,2.0813
-4.9505,-1.0774,-4.0924,0.98039,-0.06472,-2.1528,-3.0303,0.91057,3.9731,0.98039,-0.06472,-3.9216,2.9346,3.0213,0.0,0.0,2.0,2.9333,-1.1003,1.1057,-0.84553
0.9901,2.963,-1.1221,1.9608,-0.06472,-1.1111,-1.0101,-0.06504,3.9731,1.9608,-0.06472,-2.9412,6.7624,5.977,5.0251,4.0,6.0,6.9333,4.7249,5.9837,2.0813
3.9604,4.9832,1.8482,1.9608,0.90615,0.97222,-1.0101,2.8618,1.9529,1.9608,0.90615,-1.9608,8.6762,7.9475,8.0402,6.0,7.0,7.9333,8.6084,9.8862,5.0081
5.9406,7.0034,3.8284,2.9412,1.877,2.0139,3.0303,2.8618,1.9529,2.9412,1.877,0.0,11.547,10.903,11.055,7.0,9.0,4.9333,11.521,11.837,5.9837
7.9208,10.034,5.8086,3.9216,1.877,3.0556,2.0202,2.8618,2.963,3.9216,1.877,1.9608,13.461,12.874,13.065,10.0,12.0,13.933,1.8123,13.789,10.862
7.9208,9.0236,7.7888,2.9412,1.877,3.0556,1.0101,1.8862,2.963,2.9412,1.877,1.9608,16.332001,17.799999,15.075,14.0,14.0,10.933,4.7249,15.74,16.715
16.832001,14.074,12.739,4.902,1.877,7.2222,5.0505,2.8618,2.963,4.902,1.877,5.8824,19.202999,19.77,19.094999,19.0,19.0,8.9333,4.7249,19.642,18.667
21.782,13.064,14.719,5.8824,3.8188,8.2639,7.0707,3.8374,5.9933,5.8824,3.8188,6.8627,18.246,18.785,17.084999,18.0,18.0,10.933,19.288,17.691,16.715
12.871,14.074,15.71,5.8824,4.7896,5.1389,9.0909,3.8374,7.0034,5.8824,4.7896,7.8431,20.159,20.754999,18.09,21.0,19.0,16.933001,12.492,18.667,22.569
11.881,20.135,17.690001,7.8431,7.7023,7.2222,12.121,4.813,10.034,7.8431,7.7023,10.784,23.030001,23.711,21.106001,25.0,23.0,16.933001,11.521,21.593,26.472
12.871,17.104,15.71,8.8235,9.644,9.3056,12.121,5.7886,11.044,8.8235,9.644,11.765,22.073,22.726,20.101,24.0,22.0,12.933,14.434,21.593,23.545
11.881,16.094,14.719,8.8235,8.6731,8.2639,12.121,4.813,7.0034,8.8235,8.6731,10.784,22.073,20.754999,20.101,19.0,22.0,5.9333,6.6667,22.569,18.667
11.881,13.064,12.739,6.8627,7.7023,6.1806,10.101,3.8374,5.9933,6.8627,7.7023,8.8235,23.030001,20.754999,20.101,18.0,21.0,10.933,6.6667,24.52,18.667
7.9208,8.0135,9.769,5.8824,6.7314,4.0972,9.0909,2.8618,4.9832,5.8824,6.7314,6.8627,22.073,20.754999,18.09,16.0,19.0,11.933,7.6375,23.545,18.667
5.9406,7.0034,6.7987,5.8824,6.7314,4.0972,7.0707,2.8618,5.9933,5.8824,6.7314,5.8824,19.202999,18.785,15.075,15.0,16.0,9.9333,8.6084,20.618,18.667
7.9208,8.0135,5.8086,5.8824,6.7314,4.0972,5.0505,2.8618,7.0034,5.8824,6.7314,4.902,16.332001,15.829,15.075,14.0,15.0,2.9333,10.55,16.715,16.715
11.881,11.044,8.7789,9.8039,9.644,9.3056,10.101,5.7886,9.0236,9.8039,9.644,8.8235,15.375,16.813999,16.08,17.0,17.0,9.9333,15.405,14.764,18.667
9.901,14.074,10.759,10.784,10.615,10.347,12.121,6.7642,9.0236,10.784,10.615,10.784,16.332001,18.785,17.084999,19.0,19.0,15.933,12.492,15.74,20.618
2.9703,11.044,6.7987,6.8627,6.7314,5.1389,6.0606,3.8374,4.9832,6.8627,6.7314,5.8824,13.461,16.813999,11.055,17.0,15.0,16.933001,8.6084,13.789,20.618
1.9802,4.9832,3.8284,5.8824,6.7314,5.1389,5.0505,3.8374,3.9731,5.8824,6.7314,4.902,11.547,13.859,8.0402,14.0,10.0,6.9333,11.521,11.837,18.667
2.9703,3.9731,2.8383,5.8824,6.7314,5.1389,3.0303,2.8618,3.9731,5.8824,6.7314,2.9412,7.7193,10.903,6.0302,11.0,6.0,-0.06667,9.5793,7.935,14.764
5.9406,7.0034,4.8185,7.8431,8.6731,8.2639,5.0505,6.7642,8.0135,7.8431,8.6731,5.8824,9.6332,11.888,6.0302,12.0,6.0,2.9333,11.521,8.9106,15.74
3.9604,5.9933,5.8086,9.8039,10.615,9.3056,7.0707,8.7154,10.034,9.8039,10.615,7.8431,9.6332,11.888,5.0251,10.0,5.0,11.933,11.521,8.9106,15.74
4.9505,2.963,4.8185,10.784,10.615,10.347,8.0808,8.7154,9.0236,10.784,10.615,9.8039,6.7624,7.9475,4.0201,6.0,3.0,6.9333,12.492,7.935,9.8862
10.891,4.9832,5.8086,11.765,11.586,11.389,8.0808,10.667,7.0034,11.765,11.586,10.784,6.7624,7.9475,5.0251,7.0,3.0,2.9333,4.7249,8.9106,10.862
8.9109,8.0135,7.7888,10.784,12.557,12.431,11.111,8.7154,8.0135,10.784,12.557,12.745,6.7624,10.903,5.0251,10.0,4.0,6.9333,0.84142,7.935,14.764
5.9406,11.044,8.7789,10.784,12.557,12.431,13.131,8.7154,10.034,10.784,12.557,14.706,6.7624,9.9179,5.0251,11.0,6.0,1.9333,2.7832,6.9593,15.74
7.9208,11.044,9.769,9.8039,11.586,12.431,14.141,7.7398,10.034,9.8039,11.586,14.706,6.7624,10.903,6.0302,12.0,8.0,7.9333,15.405,5.9837,15.74
8.9109,12.054,10.759,10.784,12.557,12.431,14.141,7.7398,11.044,10.784,12.557,15.686,6.7624,9.9179,7.0352,11.0,10.0,9.9333,20.259001,5.9837,14.764
6.9307,9.0236,10.759,9.8039,12.557,11.389,14.141,8.7154,13.064,9.8039,12.557,14.706,6.7624,7.9475,8.0402,9.0,10.0,7.9333,11.521,5.0081,7.935
5.9406,8.0135,8.7789,6.8627,10.615,6.1806,13.131,3.8374,12.054,6.8627,10.615,12.745,8.6762,9.9179,8.0402,10.0,11.0,4.9333,10.55,5.9837,8.9106
5.9406,11.044,9.769,7.8431,10.615,6.1806,14.141,2.8618,11.044,7.8431,10.615,13.725,9.6332,11.888,8.0402,13.0,13.0,-0.06667,10.55,7.935,10.862
7.9208,11.044,10.759,8.8235,11.586,7.2222,15.152,1.8862,12.054,8.8235,11.586,14.706,6.7624,8.9327,7.0352,12.0,12.0,4.9333,8.6084,5.0081,8.9106
3.9604,10.034,9.769,10.784,12.557,9.3056,16.162001,4.813,12.054,10.784,12.557,14.706,1.9777,4.0066,3.0151,7.0,8.0,1.9333,8.6084,1.1057,5.0081
0.9901,10.034,8.7789,10.784,11.586,9.3056,14.141,5.7886,11.044,10.784,11.586,13.725,-0.89314,1.0509,1.005,5.0,5.0,2.9333,5.6958,-2.7967,2.0813
1.9802,5.9933,6.7987,7.8431,8.6731,6.1806,10.101,2.8618,9.0236,7.8431,8.6731,9.8039,-2.807,-1.9048,0.0,1.0,2.0,1.9333,0.84142,-2.7967,-0.84553
3.9604,8.0135,7.7888,7.8431,7.7023,7.2222,11.111,3.8374,10.034,7.8431,7.7023,10.784,1.0207,1.0509,3.0151,2.0,3.0,2.9333,0.84142,3.0569,-0.84553
11.881,11.044,10.759,7.8431,8.6731,8.2639,15.152,2.8618,11.044,7.8431,8.6731,13.725,3.8915,4.0066,6.0302,5.0,4.0,5.9333,0.84142,5.9837,3.0569
2.9703,3.9731,4.8185,4.902,6.7314,4.0972,11.111,0.91057,8.0135,4.902,6.7314,8.8235,1.0207,2.0361,1.005,2.0,-1.0,0.93333,12.492,3.0569,2.0813
-2.9703,-0.06734,-0.13201,2.9412,4.7896,3.0556,5.0505,-1.0407,7.0034,2.9412,4.7896,4.902,-1.8501,-0.91954,-4.0201,-1.0,-5.0,-4.0667,8.6084,0.13008,-0.84553
-0.9901,-1.0774,-2.1122,0.98039,2.8479,0.97222,4.0404,-2.0163,9.0236,0.98039,2.8479,2.9412,-1.8501,-0.91954,-2.0101,-3.0,-5.0,-4.0667,2.7832,0.13008,-1.8211
-0.9901,-2.0875,-2.1122,-0.98039,0.90615,-1.1111,3.0303,-1.0407,7.0034,-0.98039,0.90615,0.98039,1.0207,1.0509,0.0,-1.0,-3.0,8.9333,2.7832,2.0813,-0.84553
-2.9703,-1.0774,-1.1221,-1.9608,-0.06472,-2.1528,1.0101,-2.9919,2.963,-1.9608,-0.06472,-0.98039,3.8915,3.0213,1.005,0.0,0.0,7.9333,-3.0421,5.0081,2.0813
2.9703,-0.06734,0.85809,0.0,0.90615,-0.06944,2.0202,-2.0163,0.94276,0.0,0.90615,0.98039,5.8054,4.0066,3.0151,1.0,1.0,-1.0667,-2.0712,8.9106,3.0569
0.0,-4.1077,-2.1122,0.98039,-0.06472,-0.06944,-2.0202,0.91057,0.94276,0.98039,-0.06472,-0.98039,4.8485,3.0213,0.0,-1.0,-3.0,0.93333,-2.0712,6.9593,1.1057
-5.9406,-5.1178,-4.0924,0.98039,-1.0356,-1.1111,-4.0404,1.8862,0.94276,0.98039,-1.0356,-2.9412,5.8054,4.9918,-1.005,-1.0,-4.0,7.9333,-3.0421,7.935,3.0569
0.9901,-0.06734,-0.13201,2.9412,0.90615,3.0556,2.0202,3.8374,1.9529,2.9412,0.90615,2.9412,11.547,9.9179,4.0201,2.0,0.0,6.9333,7.6375,12.813,5.9837
9.901,8.0135,5.8086,5.8824,5.7605,8.2639,9.0909,4.813,4.9832,5.8824,5.7605,9.8039,17.289,13.859,11.055,6.0,5.0,1.9333,8.6084,17.691,7.935
15.842,13.064,12.739,9.8039,10.615,14.514,16.162001,8.7154,11.044,9.8039,10.615,15.686,23.987,18.785,18.09,10.0,11.0,7.9333,0.84142,25.496,9.8862
14.851,14.074,15.71,10.784,11.586,16.597,19.191999,9.6911,11.044,10.784,11.586,18.627001,23.987,17.799999,18.09,10.0,12.0,16.933001,7.6375,25.496,8.9106
12.871,9.0236,12.739,9.8039,9.644,12.431,14.141,6.7642,5.9933,9.8039,9.644,14.706,16.332001,10.903,14.07,7.0,9.0,14.933,7.6375,21.593,5.9837
7.9208,5.9933,10.759,7.8431,7.7023,9.3056,9.0909,5.7886,2.963,7.8431,7.7023,11.765,10.59,4.9918,10.05,4.0,6.0,13.933,-3.0421,16.715,3.0569
6.9307,4.9832,10.759,5.8824,6.7314,8.2639,9.0909,4.813,3.9731,5.8824,6.7314,11.765,7.7193,3.0213,8.0402,3.0,4.0,7.9333,4.7249,12.813,2.0813
13.861,5.9933,12.739,6.8627,9.644,12.431,14.141,3.8374,8.0135,6.8627,9.644,15.686,8.6762,4.9918,11.055,6.0,6.0,1.9333,0.84142,13.789,5.0081
9.901,10.034,13.729,9.8039,13.528,13.472,17.172001,6.7642,10.034,9.8039,13.528,18.627001,9.6332,6.9622,11.055,8.0,7.0,12.933,-0.12945,13.789,5.9837
9.901,8.0135,12.739,8.8235,10.615,12.431,13.131,6.7642,8.0135,8.8235,10.615,15.686,9.6332,6.9622,11.055,8.0,7.0,12.933,10.55,13.789,5.9837
12.871,12.054,14.719,7.8431,8.6731,12.431,12.121,6.7642,7.0034,7.8431,8.6731,14.706,9.6332,6.9622,12.06,9.0,9.0,3.9333,11.521,13.789,5.0081
10.891,10.034,13.729,6.8627,8.6731,11.389,13.131,6.7642,8.0135,6.8627,8.6731,13.725,9.6332,6.9622,11.055,9.0,8.0,6.9333,3.754,11.837,3.0569
15.842,8.0135,11.749,6.8627,7.7023,11.389,12.121,5.7886,7.0034,6.8627,7.7023,12.745,9.6332,6.9622,11.055,8.0,8.0,1.9333,-1.1003,11.837,3.0569
6.9307,4.9832,7.7888,5.8824,6.7314,9.3056,10.101,3.8374,5.9933,5.8824,6.7314,9.8039,7.7193,4.9918,8.0402,5.0,5.0,3.9333,2.7832,8.9106,2.0813
0.0,5.9933,6.7987,5.8824,6.7314,7.2222,9.0909,3.8374,7.0034,5.8824,6.7314,8.8235,5.8054,4.0066,6.0302,4.0,2.0,4.9333,8.6084,8.9106,1.1057
3.9604,4.9832,7.7888,3.9216,6.7314,5.1389,8.0808,1.8862,7.0034,3.9216,6.7314,7.8431,5.8054,5.977,6.0302,4.0,2.0,-1.0667,11.521,9.8862,5.0081
4.9505,4.9832,7.7888,2.9412,4.7896,5.1389,5.0505,1.8862,4.9832,2.9412,4.7896,5.8824,5.8054,5.977,4.0201,6.0,0.0,2.9333,8.6084,8.9106,6.9593
4.9505,7.0034,6.7987,1.9608,1.877,4.0972,3.0303,2.8618,3.9731,1.9608,1.877,4.902,4.8485,4.9918,3.0151,5.0,0.0,-0.06667,2.7832,6.9593,5.9837
0.0,0.94276,1.8482,0.0,-1.0356,0.97222,0.0,1.8862,0.94276,0.0,-1.0356,0.98039,2.9346,3.0213,0.0,1.0,-3.0,-1.0667,-5.9547,5.0081,3.0569
0.9901,-1.0774,3.8284,0.0,-0.06472,3.0556,3.0303,1.8862,2.963,0.0,-0.06472,3.9216,2.9346,2.0361,1.005,1.0,-2.0,3.9333,-4.9838,4.0325,2.0813
3.9604,4.9832,7.7888,0.98039,1.877,7.2222,6.0606,5.7886,5.9933,0.98039,1.877,7.8431,4.8485,4.0066,4.0201,5.0,2.0,5.9333,6.6667,5.0081,5.0081
6.9307,3.9731,7.7888,-0.98039,0.90615,6.1806,3.0303,3.8374,4.9832,-0.98039,0.90615,5.8824,5.8054,4.9918,7.0352,5.0,4.0,4.9333,14.434,8.9106,6.9593
3.9604,1.9529,3.8284,-1.9608,-1.0356,3.0556,1.0101,1.8862,1.9529,-1.9608,-1.0356,2.9412,6.7624,4.0066,7.0352,3.0,3.0,5.9333,10.55,10.862,5.9837
3.9604,5.9933,4.8185,-0.98039,-0.06472,4.0972,5.0505,4.813,4.9832,-0.98039,-0.06472,2.9412,7.7193,5.977,8.0402,5.0,3.0,6.9333,6.6667,10.862,8.9106
4.9505,8.0135,3.8284,-0.98039,-1.0356,3.0556,4.0404,1.8862,2.963,-0.98039,-1.0356,2.9412,4.8485,4.0066,5.0251,4.0,0.0,-1.0667,5.6958,7.935,6.9593
-3.9604,-2.0875,-3.1023,-3.9216,-2.9773,-0.06944,-2.0202,-2.0163,-0.06734,-3.9216,-2.9773,-0.98039,-1.8501,-1.9048,-4.0201,-3.0,-6.0,-5.0667,-1.1003,-1.8211,0.13008
-3.9604,-4.1077,-5.0825,-0.98039,-1.0356,2.0139,1.0101,4.813,-1.0774,-0.98039,-1.0356,0.98039,-0.89314,-1.9048,-3.0151,-3.0,-6.0,-5.0667,4.7249,-0.84553,-0.84553
-2.9703,-1.0774,-3.1023,-0.98039,-2.0065,3.0556,-1.0101,3.8374,-2.0875,-0.98039,-2.0065,0.98039,1.9777,0.06568,1.005,-1.0,-3.0,-0.06667,1.8123,3.0569,-0.84553
-0.9901,-1.0774,-3.1023,-1.9608,-2.9773,2.0139,-2.0202,1.8862,-2.0875,-1.9608,-2.9773,0.98039,2.9346,1.0509,3.0151,0.0,0.0,1.9333,-4.9838,4.0325,0.13008
-1.9802,-4.1077,-6.0726,-4.902,-4.9191,-1.1111,-3.0303,-0.06504,-2.0875,-4.902,-4.9191,-0.98039,1.0207,-0.91954,1.005,-3.0,-2.0,-0.06667,-3.0421,3.0569,-2.7967
-2.9703,-8.1481,-9.0429,-5.8824,-6.8608,-4.2361,-8.0808,-1.0407,-3.0976,-5.8824,-6.8608,-5.8824,0.0638,-1.9048,0.0,-5.0,-4.0,-1.0667,1.8123,3.0569,-4.748
-3.9604,-6.1279,-9.0429,-4.902,-5.89,-4.2361,-7.0707,-0.06504,-5.1178,-4.902,-5.89,-4.902,1.9777,-0.91954,2.0101,-4.0,-3.0,5.9333,-0.12945,5.0081,-4.748
-5.9406,-6.1279,-9.0429,-3.9216,-3.9482,-4.2361,-6.0606,-0.06504,-5.1178,-3.9216,-3.9482,-3.9216,0.0638,-2.89,-1.005,-5.0,-5.0,3.9333,-4.0129,4.0325,-6.6992
-3.9604,-5.1178,-8.0528,-2.9412,-1.0356,-1.1111,-3.0303,-2.0163,-2.0875,-2.9412,-1.0356,0.0,-0.89314,-2.89,-2.0101,-6.0,-6.0,-1.0667,-4.0129,3.0569,-5.7236
-5.9406,-4.1077,-9.0429,-2.9412,-2.0065,-1.1111,-3.0303,-1.0407,-1.0774,-2.9412,-2.0065,-0.98039,-1.8501,-2.89,-4.0201,-7.0,-8.0,-4.0667,-1.1003,2.0813,-4.748
-5.9406,-5.1178,-10.033,-2.9412,-3.9482,-1.1111,-4.0404,-0.06504,-2.0875,-2.9412,-3.9482,-2.9412,-2.807,-3.8752,-7.0352,-8.0,-9.0,-3.0667,4.7249,-0.84553,-4.748
-1.9802,-3.0976,-9.0429,0.0,-2.0065,-0.06944,-3.0303,2.8618,-0.06734,0.0,-2.0065,-1.9608,0.0638,-1.9048,-5.0251,-8.0,-8.0,1.9333,-1.1003,0.13008,-3.7724
-3.9604,-3.0976,-9.0429,-1.9608,-2.9773,-2.1528,-3.0303,0.91057,-1.0774,-1.9608,-2.9773,-2.9412,0.0638,-1.9048,-6.0302,-8.0,-9.0,4.9333,-1.1003,-1.8211,-4.748
-0.9901,-1.0774,-7.0627,-2.9412,-2.9773,-2.1528,0.0,-0.06504,-1.0774,-2.9412,-2.9773,-0.98039,1.9777,2.0361,-3.0151,-4.0,-7.0,-4.0667,1.8123,-0.84553,-1.8211
-1.9802,-3.0976,-8.0528,-2.9412,-3.9482,-1.1111,-2.0202,-0.06504,-2.0875,-2.9412,-3.9482,-1.9608,1.9777,2.0361,-4.0201,-6.0,-7.0,-5.0667,-7.8964,-0.84553,-3.7724
-3.9604,-4.1077,-9.0429,-3.9216,-5.89,-2.1528,-6.0606,-2.9919,-4.1077,-3.9216,-5.89,-3.9216,1.0207,0.06568,-6.0302,-8.0,-9.0,-2.0667,-16.634001,-1.8211,-6.6992
-7.9208,-3.0976,-10.033,-3.9216,-5.89,-2.1528,-6.0606,-3.9675,-5.1178,-3.9216,-5.89,-2.9412,-0.89314,-0.91954,-9.0452,-8.0,-8.0,-7.0667,-4.0129,-5.7236,-6.6992
-14.851,-8.1481,-13.003,-3.9216,-6.8608,-4.2361,-8.0808,-2.9919,-5.1178,-3.9216,-6.8608,-3.9216,-1.8501,-1.9048,-12.06,-9.0,-9.0,-5.0667,3.754,-8.6504,-6.6992
-16.832001,-11.178,-13.003,-5.8824,-7.8317,-6.3194,-7.0707,-3.9675,-4.1077,-5.8824,-7.8317,-5.8824,-4.7209,-3.8752,-14.07,-10.0,-11.0,-6.0667,-0.12945,-10.602,-5.7236
-12.871,-6.1279,-10.033,-7.8431,-8.8026,-7.3611,-7.0707,-5.9187,-6.1279,-7.8431,-8.8026,-5.8824,-6.6348,-6.8309,-13.065,-11.0,-11.0,-15.067,-6.9256,-11.577,-7.6748
-13.861,-10.168,-11.023,-8.8235,-9.7735,-9.4444,-10.101,-6.8943,-8.1481,-8.8235,-9.7735,-7.8431,-8.5486,-8.8013,-13.065,-13.0,-12.0,-13.067,-17.605,-11.577,-9.626
-9.901,-11.178,-12.013,-8.8235,-7.8317,-7.3611,-11.111,-6.8943,-6.1279,-8.8235,-7.8317,-7.8431,-5.6778,-7.8161,-8.0402,-13.0,-10.0,-13.067,-4.0129,-8.6504,-9.626
-7.9208,-10.168,-10.033,-6.8627,-6.8608,-8.4028,-10.101,-6.8943,-6.1279,-6.8627,-6.8608,-7.8431,-3.764,-4.8604,-5.0251,-10.0,-7.0,-10.067,6.6667,-5.7236,-7.6748
-7.9208,-7.138,-9.0429,-5.8824,-6.8608,-9.4444,-7.0707,-6.8943,-8.1481,-5.8824,-6.8608,-6.8627,-3.764,-4.8604,-7.0352,-9.0,-7.0,-8.0667,-5.9547,-6.6992,-8.6504
-5.9406,-6.1279,-7.0627,-4.902,-7.8317,-6.3194,-7.0707,-4.9431,-9.1582,-4.902,-7.8317,-4.902,-6.6348,-6.8309,-10.05,-10.0,-11.0,-11.067,-17.605,-8.6504,-8.6504
-7.9208,-5.1178,-5.0825,-2.9412,-5.89,-3.1944,-6.0606,-1.0407,-6.1279,-2.9412,-5.89,-2.9412,-8.5486,-9.7865,-11.055,-10.0,-14.0,-7.0667,-8.8673,-9.626,-9.626
-6.9307,-2.0875,-3.1023,-2.9412,-3.9482,-2.1528,-5.0505,-0.06504,-4.1077,-2.9412,-3.9482,-0.98039,-8.5486,-8.8013,-9.0452,-10.0,-12.0,-4.0667,-1.1003,-9.626,-9.626
0.0,-3.0976,-1.1221,-2.9412,-3.9482,0.97222,-5.0505,-0.06504,-4.1077,-2.9412,-3.9482,-0.98039,-6.6348,-7.8161,-6.0302,-9.0,-7.0,-9.0667,-9.8382,-8.6504,-10.602
1.9802,-4.1077,-0.13201,-1.9608,-2.9773,0.97222,-4.0404,-0.06504,-4.1077,-1.9608,-2.9773,0.98039,-5.6778,-6.8309,-5.0251,-8.0,-5.0,-3.0667,-7.8964,-8.6504,-9.626
0.9901,-3.0976,0.85809,0.0,-1.0356,3.0556,-1.0101,2.8618,-4.1077,0.0,-1.0356,2.9412,-6.6348,-5.8456,-5.0251,-7.0,-4.0,-0.06667,-5.9547,-8.6504,-9.626
-4.9505,-6.1279,-2.1122,0.0,-1.0356,2.0139,-2.0202,0.91057,-4.1077,0.0,-1.0356,1.9608,-10.463,-10.772,-10.05,-10.0,-8.0,-4.0667,-4.0129,-12.553,-11.577
-3.9604,-6.1279,-3.1023,1.9608,-0.06472,2.0139,-2.0202,3.8374,-2.0875,1.9608,-0.06472,2.9412,-12.376,-11.757,-11.055,-11.0,-9.0,-4.0667,-4.0129,-13.528,-11.577
-3.9604,-5.1178,-5.0825,2.9412,-0.06472,0.97222,-2.0202,5.7886,-5.1178,2.9412,-0.06472,1.9608,-13.333,-12.742,-11.055,-12.0,-10.0,-11.067,-4.9838,-14.504,-12.553
0.0,-7.138,-7.0627,2.9412,-0.06472,0.97222,-4.0404,3.8374,-5.1178,2.9412,-0.06472,0.98039,-14.29,-13.727,-12.06,-12.0,-11.0,-11.067,-6.9256,-14.504,-13.528
-3.9604,-6.1279,-8.0528,1.9608,-1.0356,-0.06944,-6.0606,1.8862,-4.1077,1.9608,-1.0356,-1.9608,-14.29,-12.742,-14.07,-12.0,-13.0,0.93333,-20.518,-15.48,-12.553
-11.881,-8.1481,-12.013,-0.98039,-3.9482,-4.2361,-9.0909,-1.0407,-8.1481,-0.98039,-3.9482,-5.8824,-16.204,-14.713,-18.09,-14.0,-16.0,1.9333,-23.43,-16.455,-14.504
-15.842,-15.219,-15.974,-2.9412,-4.9191,-8.4028,-13.131,-2.0163,-10.168,-2.9412,-4.9191,-10.784,-19.075001,-17.667999,-21.106001,-19.0,-21.0,-8.0667,-13.722,-19.382,-17.431
-13.861,-16.229,-18.944,-4.902,-5.89,-11.528,-14.141,-4.9431,-10.168,-4.902,-5.89,-13.725,-20.032,-18.653999,-20.101,-22.0,-23.0,-12.067,-13.722,-21.333,-17.431
-16.832001,-21.278999,-22.903999,-4.902,-5.89,-13.611,-15.152,-6.8943,-9.1582,-4.902,-5.89,-15.686,-22.903,-21.608999,-23.115999,-25.0,-26.0,-19.066999,-9.8382,-24.26,-18.407
-18.812,-22.290001,-22.903999,-3.9216,-5.89,-12.569,-15.152,-4.9431,-7.138,-3.9216,-5.89,-14.706,-23.860001,-23.58,-24.121,-26.0,-27.0,-13.067,-6.9256,-24.26,-19.382
-14.851,-18.249001,-18.944,-3.9216,-7.8317,-11.528,-16.162001,-3.9675,-10.168,-3.9216,-7.8317,-13.725,-19.075001,-18.653999,-19.094999,-22.0,-21.0,-4.0667,-13.722,-20.358,-16.455
-9.901,-12.189,-13.993,-2.9412,-5.89,-8.4028,-14.141,-2.9919,-10.168,-2.9412,-5.89,-10.784,-14.29,-13.727,-13.065,-16.0,-14.0,-6.0667,-10.809,-16.455,-13.528
-11.881,-12.189,-13.003,-2.9412,-4.9191,-7.3611,-11.111,-3.9675,-8.1481,-2.9412,-4.9191,-9.8039,-14.29,-12.742,-13.065,-14.0,-10.0,-8.0667,-6.9256,-16.455,-13.528
-5.9406,-9.1582,-10.033,-1.9608,-2.9773,-5.2778,-8.0808,-3.9675,-6.1279,-1.9608,-2.9773,-6.8627,-13.333,-12.742,-13.065,-12.0,-8.0,-14.067,-9.8382,-16.455,-13.528
-7.9208,-9.1582,-10.033,-0.98039,-1.0356,-3.1944,-6.0606,-2.9919,-5.1178,-0.98039,-1.0356,-3.9216,-14.29,-12.742,-15.075,-13.0,-11.0,-15.067,-14.693,-17.431,-13.528
-15.842,-13.199,-13.003,0.0,-2.0065,-5.2778,-7.0707,-2.9919,-4.1077,0.0,-2.0065,-4.902,-15.247,-13.727,-18.09,-15.0,-14.0,-9.0667,-1.1003,-17.431,-13.528
-13.861,-14.209,-13.993,-0.98039,-3.9482,-6.3194,-9.0909,-1.0407,-7.138,-0.98039,-3.9482,-7.8431,-14.29,-13.727,-15.075,-14.0,-14.0,-8.0667,-3.0421,-14.504,-13.528
-8.9109,-12.189,-13.003,0.0,-3.9482,-4.2361,-9.0909,-1.0407,-8.1481,0.0,-3.9482,-6.8627,-12.376,-12.742,-11.055,-13.0,-12.0,-7.0667,-11.78,-12.553,-9.626
-3.9604,-3.0976,-8.0528,1.9608,-1.0356,0.97222,-3.0303,-0.06504,-5.1178,1.9608,-1.0356,-1.9608,-9.5056,-8.8013,-8.0402,-8.0,-8.0,-7.0667,-14.693,-10.602,-6.6992
-6.9307,-5.1178,-8.0528,0.98039,-2.9773,-2.1528,-2.0202,-1.0407,-5.1178,0.98039,-2.9773,-2.9412,-7.5917,-6.8309,-8.0402,-6.0,-7.0,-10.067,-9.8382,-9.626,-5.7236
-6.9307,-10.168,-11.023,0.0,-2.9773,-5.2778,-6.0606,-2.9919,-6.1279,0.0,-2.9773,-4.902,-7.5917,-5.8456,-9.0452,-7.0,-9.0,-7.0667,-2.0712,-9.626,-3.7724
-6.9307,-9.1582,-10.033,0.0,-2.9773,-4.2361,-6.0606,-0.06504,-5.1178,0.0,-2.9773,-4.902,-6.6348,-4.8604,-8.0402,-6.0,-8.0,-3.0667,-3.0421,-8.6504,-3.7724
-7.9208,-9.1582,-9.0429,-0.98039,-2.9773,-4.2361,-6.0606,-2.9919,-6.1279,-0.98039,-2.9773,-5.8824,-6.6348,-6.8309,-8.0402,-7.0,-8.0,-4.0667,-9.8382,-8.6504,-6.6992
-3.9604,-5.1178,-7.0627,-0.98039,-2.9773,-4.2361,-4.0404,-2.9919,-5.1178,-0.98039,-2.9773,-4.902,-6.6348,-6.8309,-5.0251,-6.0,-6.0,-10.067,-9.8382,-6.6992,-7.6748
-5.9406,-6.1279,-7.0627,0.98039,-2.0065,-3.1944,-5.0505,-1.0407,-4.1077,0.98039,-2.0065,-5.8824,-7.5917,-6.8309,-6.0302,-6.0,-5.0,-12.067,-2.0712,-8.6504,-6.6992
-6.9307,-6.1279,-8.0528,0.0,-2.9773,-3.1944,-6.0606,-2.0163,-6.1279,0.0,-2.9773,-6.8627,-8.5486,-6.8309,-8.0402,-4.0,-4.0,-7.0667,-2.0712,-9.626,-5.7236
-8.9109,-10.168,-11.023,-0.98039,-4.9191,-5.2778,-11.111,-0.06504,-6.1279,-0.98039,-4.9191,-9.8039,-7.5917,-4.8604,-9.0452,-4.0,-6.0,4.9333,-3.0421,-8.6504,-2.7967
-12.871,-15.219,-13.993,-4.902,-9.7735,-9.4444,-16.162001,-2.0163,-8.1481,-4.902,-9.7735,-13.725,-9.5056,-6.8309,-12.06,-8.0,-12.0,1.9333,2.7832,-8.6504,-3.7724
-8.9109,-9.1582,-10.033,-3.9216,-7.8317,-7.3611,-11.111,-1.0407,-7.138,-3.9216,-7.8317,-9.8039,-11.419,-9.7865,-13.065,-9.0,-13.0,-3.0667,-6.9256,-12.553,-6.6992
-2.9703,-5.1178,-8.0528,-0.98039,-3.9482,-2.1528,-6.0606,-0.06504,-3.0976,-0.98039,-3.9482,-5.8824,-12.376,-9.7865,-12.06,-9.0,-13.0,-12.067,-7.8964,-13.528,-6.6992
-6.9307,-6.1279,-10.033,-0.98039,-2.9773,-3.1944,-7.0707,-1.0407,-3.0976,-0.98039,-2.9773,-5.8824,-12.376,-10.772,-14.07,-10.0,-14.0,-7.0667,-0.12945,-14.504,-5.7236
-11.881,-8.1481,-13.003,-2.9412,-3.9482,-5.2778,-10.101,-2.0163,-3.0976,-2.9412,-3.9482,-9.8039,-12.376,-8.8013,-15.075,-8.0,-12.0,-4.0667,2.7832,-14.504,-3.7724
-11.881,-9.1582,-14.983,-4.902,-5.89,-9.4444,-13.131,-2.9919,-3.0976,-4.902,-5.89,-13.725,-10.463,-7.8161,-14.07,-7.0,-10.0,-9.0667,-8.8673,-13.528,-2.7967
-10.891,-12.189,-15.974,-6.8627,-6.8608,-12.569,-14.141,-6.8943,-4.1077,-6.8627,-6.8608,-15.686,-9.5056,-6.8309,-12.06,-9.0,-10.0,-10.067,-6.9256,-12.553,-4.748
-14.851,-14.209,-16.964001,-6.8627,-6.8608,-12.569,-14.141,-8.8455,-4.1077,-6.8627,-6.8608,-14.706,-7.5917,-5.8456,-12.06,-11.0,-11.0,-10.067,-4.0129,-11.577,-5.7236
-16.832001,-11.178,-15.974,-4.902,-5.89,-12.569,-13.131,-5.9187,-4.1077,-4.902,-5.89,-14.706,-8.5486,-6.8309,-13.065,-12.0,-12.0,-11.067,0.84142,-11.577,-5.7236
-14.851,-10.168,-14.983,-4.902,-6.8608,-10.486,-13.131,-4.9431,-4.1077,-4.902,-6.8608,-13.725,-6.6348,-4.8604,-12.06,-9.0,-10.0,-9.0667,-0.12945,-11.577,-4.748
-11.881,-11.178,-13.003,-5.8824,-6.8608,-11.528,-14.141,-6.8943,-4.1077,-5.8824,-6.8608,-13.725,-4.7209,-2.89,-9.0452,-6.0,-6.0,-4.0667,-0.12945,-9.626,-1.8211
0.0,-6.1279,-6.0726,-5.8824,-4.9191,-7.3611,-10.101,-7.8699,-4.1077,-5.8824,-4.9191,-8.8235,-3.764,-0.91954,-4.0201,-2.0,-1.0,-5.0667,-7.8964,-7.6748,-0.84553
-5.9406,-6.1279,-7.0627,-4.902,-3.9482,-7.3611,-8.0808,-5.9187,-2.0875,-4.902,-3.9482,-8.8235,-4.7209,-2.89,-5.0251,-3.0,-2.0,-3.0667,-6.9256,-7.6748,-0.84553
-8.9109,-7.138,-8.0528,-4.902,-2.9773,-8.4028,-7.0707,-5.9187,0.94276,-4.902,-2.9773,-8.8235,-6.6348,-3.8752,-7.0352,-3.0,-4.0,-0.06667,3.754,-9.626,-0.84553
-6.9307,-6.1279,-7.0627,-5.8824,-3.9482,-8.4028,-7.0707,-5.9187,-0.06734,-5.8824,-3.9482,-9.8039,-5.6778,-3.8752,-6.0302,-3.0,-4.0,-9.0667,1.8123,-7.6748,-0.84553
-4.9505,-4.1077,-5.0825,-4.902,-3.9482,-6.3194,-6.0606,-4.9431,-1.0774,-4.902,-3.9482,-8.8235,-2.807,-2.89,-1.005,-2.0,-1.0,-6.0667,-5.9547,-2.7967,-1.8211
-5.9406,-6.1279,-6.0726,-2.9412,-2.9773,-6.3194,-5.0505,-3.9675,-2.0875,-2.9412,-2.9773,-6.8627,-3.764,-3.8752,-2.0101,-4.0,-2.0,-4.0667,-10.809,-3.7724,-5.7236
-8.9109,-7.138,-7.0627,-2.9412,-1.0356,-7.3611,-3.0303,-6.8943,-0.06734,-2.9412,-1.0356,-5.8824,-4.7209,-4.8604,-3.0151,-4.0,-2.0,-5.0667,-8.8673,-6.6992,-5.7236
