C3,C4,Cz,F1,F2,F3,F4,F7,F8,Fp1,Fp2,Fz,O1,O2,P3,P4,Pz,T3,T4,T5,T6
2.9851,9.9832,-1.1277,11.823,11.586,3.0556,1.0152,11.699,14.213,11.823,11.586,0.0,13.591,18.785,8.0,15.776,6.9652,10.988,15.48,7.935,19.739
-2.9851,2.9481,-2.1227,5.9113,4.7896,-4.2361,-5.0761,7.7778,7.1066,5.9113,4.7896,-5.9113,1.9968,7.9475,-4.0,7.8548,0.0,1.943,6.6992,-2.7967,10.915
-5.9701,1.943,-0.13267,1.9704,1.877,-9.4444,-6.0914,-0.06536,2.0305,1.9704,1.877,-7.8818,-5.7327,2.0361,-9.0,3.8944,-3.9801,-8.1072,1.8211,-9.626,7.9739
-3.9801,6.9682,5.8375,3.9409,3.8188,-5.2778,-2.0305,1.8954,4.0609,3.9409,3.8188,-2.9557,-5.7327,1.0509,-7.0,4.8845,-2.9851,-13.132,8.6504,-6.6992,13.856
-7.9602,5.9631,4.8425,6.8966,4.7896,-2.1528,1.0152,5.817,6.0914,6.8966,4.7896,-0.98522,-13.462,-9.7865,-13.0,-3.0363,-8.9552,-13.132,10.602,-8.6504,9.9346
-12.935,3.9531,2.8524,7.8818,6.7314,-1.1111,3.0457,5.817,5.0761,7.8818,6.7314,-0.98522,-23.124001,-23.58,-18.0,-10.957,-12.935,-19.162001,5.7236,-13.528,-7.7124
-4.9751,9.9832,8.8226,9.8522,8.6731,3.0556,7.1066,9.7386,9.1371,9.8522,8.6731,3.9409,-20.225,-21.608999,-10.0,-4.0264,-3.9801,1.943,6.6992,-8.6504,-4.7712
3.9801,16.013,13.798,11.823,10.615,5.1389,11.168,11.699,12.183,11.823,10.615,6.8966,-8.6312,-10.772,1.0,6.8647,6.9652,26.063999,9.626,3.0569,6.0131
7.9602,17.018,13.798,10.837,10.615,5.1389,12.183,9.7386,14.213,10.837,10.615,6.8966,6.8277,4.9918,9.0,13.795,12.935,21.039,13.528,8.9106,9.9346
5.9701,17.018,9.8176,9.8522,10.615,3.0556,13.198,9.7386,15.228,9.8522,10.615,5.9113,23.253,23.711,13.0,20.726,15.92,-6.0972,15.48,8.9106,17.778
3.9801,16.013,4.8425,9.8522,10.615,2.0139,11.168,10.719,15.228,9.8522,10.615,2.9557,30.982,34.548,14.0,24.686001,15.92,-13.132,21.333,11.837,23.66
3.9801,11.993,0.86235,10.837,10.615,2.0139,7.1066,12.68,14.213,10.837,10.615,-0.98522,26.150999,30.608,11.0,21.716,12.935,-3.0821,23.285,10.862,24.641001
1.99,5.9631,-2.1227,9.8522,8.6731,2.0139,3.0457,12.68,11.168,9.8522,8.6731,-3.9409,16.49,20.754999,4.0,14.785,5.9701,11.993,12.553,8.9106,21.698999
-0.99502,0.93802,-4.1128,8.867,5.7605,0.97222,0.0,13.66,6.0914,8.867,5.7605,-3.9409,8.7601,13.859,-3.0,7.8548,0.0,0.93802,3.7724,4.0325,13.856
-5.9701,-4.0871,-6.1028,7.8818,5.7605,-1.1111,-1.0152,9.7386,3.0457,7.8818,5.7605,-4.9261,-0.90177,4.0066,-10.0,0.92409,-4.9751,-11.122,0.84553,-5.7236,5.0327
-10.945,-9.1122,-12.073,7.8818,7.7023,-6.3194,-3.0457,1.8954,3.0457,7.8818,7.7023,-7.8818,-12.496,-10.772,-17.0,-10.957,-12.935,-3.0821,-0.13008,-12.553,-9.6732
-4.9751,-4.0871,-8.0929,10.837,11.586,-3.1944,1.0152,6.7974,5.0761,10.837,11.586,-4.9261,-15.395,-18.653999,-10.0,-11.947,-8.9552,10.988,5.7236,-4.748,-8.6928
0.99502,3.9531,-0.13267,17.733999,14.498,4.0972,3.0457,14.641,7.1066,17.733999,14.498,0.0,-12.496,-18.653999,-4.0,-5.0165,0.99502,11.993,13.528,-1.8211,-3.7908
5.9701,9.9832,6.8325,24.631001,20.323999,10.347,8.1218,17.582001,9.1371,24.631001,20.323999,5.9113,-0.90177,-9.7865,6.0,5.8746,9.9502,8.9782,16.455,-1.8211,1.1111
4.9751,9.9832,8.8226,26.601,22.264999,10.347,10.152,17.582001,10.152,26.601,22.264999,7.8818,8.7601,-0.91954,11.0,10.825,12.935,-3.0821,4.748,5.9837,4.0523
6.9652,10.988,10.813,23.645,20.323999,11.389,10.152,16.601,9.1371,23.645,20.323999,8.867,20.354,13.859,16.0,16.766001,17.91,8.9782,1.8211,11.837,8.9542
11.94,12.998,14.793,20.690001,18.382,12.431,12.183,18.562,11.168,20.690001,18.382,10.837,33.881001,28.636999,23.0,24.686001,24.875999,11.993,6.6992,17.691,17.778
10.945,10.988,12.803,14.778,12.557,9.3056,8.1218,15.621,7.1066,14.778,12.557,7.8818,34.847,30.608,22.0,23.695999,23.881001,5.9631,8.6504,12.813,15.817
5.9701,6.9682,8.8226,5.9113,3.8188,4.0972,1.0152,9.7386,3.0457,5.9113,3.8188,1.9704,26.150999,24.695999,12.0,17.756001,16.915001,5.9631,7.6748,4.0325,14.837
-2.9851,-0.067,0.86235,-2.9557,-4.9191,-3.1944,-6.0914,5.817,-2.0305,-2.9557,-4.9191,-5.9113,9.7262,10.903,-2.0,6.8647,3.9801,-3.0821,3.7724,-2.7967,8.9542
-6.9652,-4.0871,-2.1227,-7.8818,-9.7735,-5.2778,-8.1218,2.8758,-4.0609,-7.8818,-9.7735,-7.8818,-6.6989,-3.8752,-13.0,-5.0165,-6.9652,-14.137,1.8211,-8.6504,-4.7712
-1.99,1.943,3.8474,-3.9409,-7.8317,-0.06944,-2.0305,8.7582,0.0,-3.9409,-7.8317,-2.9557,-12.496,-8.8013,-12.0,-6.9967,-5.9701,-11.122,5.7236,-7.6748,-6.732
1.99,3.9531,5.8375,0.98522,-3.9482,3.0556,1.0152,13.66,3.0457,0.98522,-3.9482,-0.98522,-20.225,-16.683001,-9.0,-9.967,-4.9751,-3.0821,3.7724,-3.7724,-8.6928
5.9701,6.9682,6.8325,8.867,3.8188,7.2222,6.0914,15.621,8.1218,8.867,3.8188,2.9557,-22.158001,-16.683001,-5.0,-6.9967,-0.99502,10.988,7.6748,-3.7724,-2.8105
5.9701,12.998,7.8275,15.764,9.644,9.3056,8.1218,16.601,10.152,15.764,9.644,4.9261,-15.395,-8.8013,-1.0,2.9043,4.9751,24.054001,11.577,-8.6504,4.0523
9.9502,23.049,14.793,20.690001,14.498,12.431,12.183,16.601,13.198,20.690001,14.498,8.867,2.963,8.9327,10.0,17.756001,17.91,9.9832,19.382,0.13008,11.895
8.9552,27.069,16.783001,23.645,18.382,12.431,15.228,16.601,17.259001,23.645,18.382,9.8522,22.287001,27.652,19.0,27.657,27.861,-12.127,25.236,5.0081,16.797001
9.9502,22.044001,14.793,26.601,23.236,12.431,17.259001,18.562,20.305,26.601,23.236,11.823,31.948,35.534,22.0,28.646999,30.846001,-3.0821,17.431,8.9106,17.778
11.94,22.044001,14.793,27.586,26.149,14.514,20.305,20.523001,23.35,27.586,26.149,13.793,33.881001,35.534,24.0,30.627001,30.846001,9.9832,17.431,12.813,26.601
13.93,23.049,14.793,27.586,26.149,16.597,19.289,20.523001,24.365,27.586,26.149,13.793,30.982,29.622,23.0,30.627001,26.865999,10.988,27.187,15.74,32.484001
11.94,15.008,10.813,20.690001,19.353001,13.472,12.183,19.542,17.259001,20.690001,19.353001,7.8818,22.287001,17.799999,18.0,19.736,16.915001,14.003,21.333,14.764,21.698999
4.9751,0.93802,1.8574,9.8522,6.7314,4.0972,1.0152,17.582001,7.1066,9.8522,6.7314,-2.9557,6.8277,2.0361,4.0,0.92409,-0.99502,8.9782,4.748,5.0081,2.0915
0.99502,-3.0821,-1.1277,3.9409,0.90615,0.97222,-1.0152,13.66,5.0761,3.9409,0.90615,-4.9261,-5.7327,-8.8013,-4.0,-9.967,-12.935,-0.067,-0.13008,2.0813,-4.7712
4.9751,1.943,4.8425,4.9261,2.8479,6.1806,5.0761,14.641,8.1218,4.9261,2.8479,1.9704,-15.395,-12.742,-8.0,-11.947,-15.92,2.9481,7.6748,-0.84553,-4.7712
6.9652,2.9481,6.8325,5.9113,2.8479,7.2222,7.1066,16.601,7.1066,5.9113,2.8479,5.9113,-28.921,-18.653999,-16.0,-13.927,-17.91,11.993,3.7724,-11.577,-4.7712
11.94,6.9682,12.803,10.837,5.7605,11.389,8.1218,18.562,6.0914,10.837,5.7605,8.867,-32.785999,-16.683001,-13.0,-7.9868,-10.945,16.013,-0.13008,-12.553,-4.7712
15.92,10.988,15.788,14.778,8.6731,14.514,8.1218,19.542,5.0761,14.778,8.6731,10.837,-20.225,-6.8309,-4.0,2.9043,1.99,14.003,1.8211,-9.626,-2.8105
15.92,15.008,18.773001,18.719,11.586,15.556,9.1371,19.542,7.1066,18.719,11.586,11.823,0.06441,6.9622,9.0,14.785,13.93,0.93802,3.7724,3.0569,6.0131
17.91,18.023001,22.753,21.674999,15.469,18.681,12.183,20.523001,9.1371,21.674999,15.469,14.778,24.219,24.695999,22.0,25.677,25.871,9.9832,7.6748,9.8862,13.856
20.896,23.049,25.738001,20.690001,17.410999,20.764,16.243999,20.523001,12.183,20.690001,17.410999,18.719,41.610001,38.488998,31.0,33.597,34.826,11.993,17.431,16.715,20.719
19.9,23.049,25.738001,21.674999,18.382,21.806,17.259001,20.523001,12.183,21.674999,18.382,19.704,42.576,38.488998,31.0,33.597,32.835999,9.9832,16.455,18.667,21.698999
16.915001,18.023001,21.757999,22.66,20.323999,21.806,18.274,18.562,11.168,22.66,20.323999,20.690001,30.982,27.652,23.0,24.686001,24.875999,20.034,10.602,15.74,19.739
9.9502,12.998,14.793,21.674999,21.294001,18.681,16.243999,14.641,10.152,21.674999,21.294001,17.733999,17.455999,13.859,13.0,13.795,12.935,14.003,7.6748,5.0081,12.876
1.99,5.9631,5.8375,15.764,16.440001,12.431,10.152,11.699,7.1066,15.764,16.440001,11.823,1.0306,-2.89,2.0,1.9142,0.0,-2.0771,3.7724,2.0813,5.0327
-5.9701,-2.0771,-2.1227,7.8818,9.644,5.1389,4.0609,6.7974,3.0457,7.8818,9.644,3.9409,-17.327,-23.58,-14.0,-13.927,-16.915001,-7.1022,-3.0569,-10.602,-5.7516
-9.9502,-6.0972,-7.0978,3.9409,7.7023,-0.06944,5.0761,4.8366,7.1066,3.9409,7.7023,1.9704,-34.717999,-41.313999,-25.0,-25.809,-30.846001,-11.122,-1.1057,-19.382,-13.595
-10.945,-7.1022,-10.083,1.9704,6.7314,-3.1944,5.0761,-1.0458,8.1218,1.9704,6.7314,0.98522,-47.278999,-51.166,-32.0,-30.759001,-35.820999,-4.0871,2.7967,-21.333,-19.476999
-12.935,-7.1022,-12.073,2.9557,4.7896,-2.1528,2.0305,-3.0065,5.0761,2.9557,4.7896,0.0,-45.346001,-41.313999,-28.0,-22.837999,-26.865999,-14.137,-1.1057,-27.187,-24.379
-4.9751,0.93802,-4.1128,9.8522,8.6731,5.1389,5.0761,2.8758,8.1218,9.8522,8.6731,6.8966,-22.158001,-10.772,-10.0,-1.0561,-3.9801,-11.122,-2.0813,-21.333,-9.6732
2.9851,9.9832,7.8275,11.823,12.557,8.2639,10.152,2.8758,11.168,11.823,12.557,10.837,3.9291,17.799999,9.0,17.756001,17.91,0.93802,-0.13008,-5.7236,6.0131
10.945,18.023001,18.773001,13.793,15.469,13.472,15.228,6.7974,14.213,13.793,15.469,15.764,26.150999,37.504002,23.0,32.606998,32.835999,-1.072,8.6504,9.8862,18.757999
13.93,22.044001,23.747999,18.719,19.353001,15.556,18.274,8.7582,16.243999,18.719,19.353001,19.704,37.745998,45.386002,29.0,37.557999,36.816002,4.9581,16.455,16.715,30.523001
10.945,18.023001,17.778,20.690001,19.353001,12.431,17.259001,12.68,14.213,20.690001,19.353001,17.733999,31.948,36.519001,22.0,28.646999,25.871,11.993,14.504,17.691,28.562
0.0,5.9631,6.8325,17.733999,13.528,5.1389,8.1218,10.719,7.1066,17.733999,13.528,8.867,13.591,13.859,5.0,6.8647,3.9801,3.9531,5.7236,11.837,10.915
-0.99502,-0.067,1.8574,17.733999,13.528,5.1389,7.1066,9.7386,6.0914,17.733999,13.528,7.8818,1.0306,-2.89,-3.0,-7.9868,-9.9502,-2.0771,1.8211,8.9106,3.0719
2.9851,1.943,4.8425,17.733999,15.469,9.3056,11.168,11.699,10.152,17.733999,15.469,12.808,-2.8341,-11.757,-4.0,-12.937,-14.925,9.9832,5.7236,5.9837,5.0327
1.99,-0.067,3.8474,18.719,18.382,11.389,12.183,12.68,12.183,18.719,18.382,11.823,-15.395,-27.521,-13.0,-20.858,-20.896,14.003,4.748,-0.84553,-7.7124
0.0,-3.0821,0.86235,18.719,17.410999,11.389,9.1371,15.621,10.152,18.719,17.410999,7.8818,-29.886999,-44.269001,-19.0,-28.778999,-25.871,15.008,1.8211,-9.626,-23.399
3.9801,2.9481,4.8425,19.704,17.410999,13.472,11.168,16.601,10.152,19.704,17.410999,9.8522,-32.785999,-47.224998,-17.0,-29.768999,-21.891001,14.003,0.84553,-13.528,-29.281
4.9751,5.9631,6.8325,20.690001,19.353001,13.472,16.243999,12.68,13.198,20.690001,19.353001,12.808,-26.989,-38.358002,-14.0,-23.827999,-14.925,-7.1022,2.7967,-18.407,-30.261
9.9502,10.988,10.813,21.674999,22.264999,15.556,20.305,11.699,17.259001,21.674999,22.264999,15.764,-13.462,-16.683001,-5.0,-7.9868,-3.9801,-18.157,9.626,-14.504,-16.535999
14.925,14.003,13.798,25.615999,24.207001,20.764,21.32,20.523001,20.305,25.615999,24.207001,17.733999,2.963,6.9622,6.0,8.8449,6.9652,-1.072,10.602,1.1057,0.13072
7.9602,10.988,6.8325,23.645,22.264999,16.597,16.243999,22.483999,18.274,23.645,22.264999,11.823,6.8277,16.813999,6.0,14.785,6.9652,7.9732,10.602,7.935,9.9346
6.9652,12.998,6.8325,21.674999,22.264999,15.556,15.228,16.601,18.274,21.674999,22.264999,10.837,10.692,21.740999,9.0,19.736,8.9552,31.089001,18.407,10.862,18.757999
1.99,8.9782,1.8574,22.66,24.207001,16.597,15.228,10.719,20.305,22.66,24.207001,11.823,8.7601,16.813999,7.0,15.776,5.9701,18.023001,20.358,6.9593,16.797001
-4.9751,2.9481,-7.0978,23.645,24.207001,16.597,13.198,12.68,20.305,23.645,24.207001,9.8522,3.9291,5.977,1.0,7.8548,-2.9851,-7.1022,20.358,2.0813,16.797001
-11.94,-5.0921,-17.048,22.66,21.294001,11.389,7.1066,12.68,14.213,22.66,21.294001,3.9409,-4.7665,-6.8309,-8.0,-5.0165,-13.93,-13.132,4.748,-0.84553,3.0719
-9.9502,-7.1022,-18.042999,19.704,17.410999,10.347,3.0457,16.601,8.1218,19.704,17.410999,1.9704,-4.7665,-9.7865,-7.0,-11.947,-16.915001,-1.072,-3.0569,4.0325,-10.654
2.9851,-0.067,-10.083,21.674999,17.410999,16.597,9.1371,19.542,11.168,21.674999,17.410999,8.867,0.06441,-9.7865,2.0,-10.957,-10.945,15.008,3.7724,12.813,-7.7124
1.99,-2.0771,-10.083,20.690001,18.382,17.639,11.168,18.562,12.183,20.690001,18.382,9.8522,-6.6989,-17.667999,1.0,-16.898001,-12.935,15.008,4.748,7.935,-17.516001
-4.9751,-7.1022,-14.063,16.749001,16.440001,14.514,10.152,13.66,12.183,16.749001,16.440001,7.8818,-12.496,-19.639,-6.0,-17.888,-14.925,6.9682,-2.0813,-5.7236,-20.458
1.99,3.9531,-5.1078,19.704,19.353001,20.764,17.259001,17.582001,15.228,19.704,19.353001,16.749001,0.06441,-1.9048,5.0,-0.06601,0.99502,12.998,8.6504,1.1057,-2.8105
5.9701,9.9832,-0.13267,19.704,18.382,19.722,15.228,16.601,14.213,19.704,18.382,17.733999,13.591,14.844,17.0,14.785,13.93,0.93802,14.504,16.715,6.0131
0.99502,4.9581,-4.1128,15.764,14.498,11.389,8.1218,11.699,8.1218,15.764,14.498,10.837,14.557,15.829,16.0,13.795,11.94,-11.122,5.7236,15.74,2.0915
2.9851,5.9631,-2.1227,16.749001,15.469,12.431,8.1218,10.719,7.1066,16.749001,15.469,12.808,17.455999,19.77,18.0,15.776,12.935,-3.0821,1.8211,16.715,11.895
10.945,9.9832,3.8474,17.733999,16.440001,16.597,10.152,10.719,9.1371,17.733999,16.440001,15.764,24.219,25.681,26.0,21.716,17.91,14.003,7.6748,28.423,23.66
18.905001,12.998,7.8275,18.719,17.410999,18.681,12.183,13.66,11.168,18.719,17.410999,16.749001,24.219,23.711,27.0,21.716,17.91,36.113998,11.577,31.35,25.621
24.875999,19.028,15.788,22.66,20.323999,23.889,18.274,24.444,17.259001,22.66,20.323999,22.66,28.084,26.667,29.0,22.705999,18.905001,22.044001,19.382,33.300999,24.641001
22.886,19.028,17.778,22.66,21.294001,24.931,20.305,18.562,19.289,22.66,21.294001,23.645,25.184999,22.726,24.0,18.746,12.935,0.93802,13.528,27.447001,19.739
18.905001,12.998,12.803,22.66,20.323999,24.931,17.259001,13.66,20.305,22.66,20.323999,20.690001,13.591,10.903,15.0,10.825,2.9851,10.988,10.602,22.569,16.797001
21.891001,12.998,11.808,22.66,21.294001,29.097,17.259001,20.523001,22.334999,22.66,21.294001,20.690001,10.692,6.9622,15.0,5.8746,0.99502,18.023001,14.504,23.545,6.9935
18.905001,4.9581,4.8425,19.704,19.353001,24.931,12.183,18.562,17.259001,19.704,19.353001,14.778,3.9291,-1.9048,12.0,-1.0561,-0.99502,28.073999,5.7236,14.764,-4.7712
20.896,7.9732,5.8375,19.704,17.410999,23.889,12.183,20.523001,15.228,19.704,17.410999,13.793,8.7601,4.9918,20.0,4.8845,7.9602,20.034,7.6748,18.667,1.1111
15.92,8.9782,2.8524,18.719,16.440001,19.722,11.168,17.582001,15.228,18.719,16.440001,11.823,13.591,11.888,22.0,9.835,12.935,9.9832,14.504,19.642,6.9935
8.9552,2.9481,-3.1177,15.764,12.557,13.472,7.1066,12.68,13.198,15.764,12.557,6.8966,12.625,7.9475,14.0,4.8845,8.9552,15.008,9.626,9.8862,2.0915
3.9801,-5.0921,-8.0929,9.8522,7.7023,7.2222,1.0152,8.7582,10.152,9.8522,7.7023,1.9704,7.7939,2.0361,7.0,-2.0462,2.9851,1.943,-1.1057,6.9593,-5.7516
2.9851,-5.0921,-8.0929,8.867,6.7314,6.1806,0.0,6.7974,9.1371,8.867,6.7314,0.98522,8.7601,5.977,6.0,-0.06601,1.99,1.943,-4.0325,10.862,-2.8105
6.9652,1.943,-2.1227,13.793,9.644,11.389,4.0609,11.699,11.168,13.793,9.644,5.9113,16.49,15.829,11.0,7.8548,8.9552,27.069,0.84553,15.74,2.0915
6.9652,5.9631,-0.13267,16.749001,10.615,13.472,5.0761,15.621,13.198,16.749001,10.615,7.8818,20.354,18.785,12.0,11.815,11.94,17.018,7.6748,16.715,9.9346
4.9751,3.9531,-1.1277,17.733999,9.644,12.431,5.0761,18.562,13.198,17.733999,9.644,6.8966,20.354,15.829,11.0,8.8449,7.9602,8.9782,8.6504,15.74,9.9346
0.0,-2.0771,-6.1028,13.793,8.6731,10.347,3.0457,13.66,12.183,13.793,8.6731,4.9261,10.692,5.977,4.0,-1.0561,-2.9851,6.9682,6.6992,8.9106,6.9935
3.9801,0.93802,-1.1277,16.749001,12.557,14.514,8.1218,13.66,14.213,16.749001,12.557,10.837,6.8277,2.0361,4.0,-3.0363,-5.9701,9.9832,7.6748,9.8862,4.0523
8.9552,7.9732,3.8474,19.704,16.440001,19.722,14.213,26.405001,17.259001,19.704,16.440001,16.749001,5.8615,4.9918,6.0,3.8944,-0.99502,23.049,12.553,12.813,6.0131
0.99502,3.9531,-1.1277,17.733999,14.498,13.472,10.152,19.542,13.198,17.733999,14.498,10.837,-0.90177,2.0361,0.0,5.8746,-0.99502,16.013,5.7236,3.0569,8.9542
0.0,6.9682,-0.13267,16.749001,15.469,11.389,11.168,10.719,13.198,16.749001,15.469,11.823,1.9968,9.9179,2.0,13.795,6.9652,1.943,1.8211,3.0569,14.837
2.9851,10.988,3.8474,16.749001,15.469,11.389,11.168,10.719,12.183,16.749001,15.469,12.808,9.7262,18.785,5.0,19.736,12.935,-0.067,3.7724,5.9837,18.757999
10.945,14.003,9.8176,19.704,16.440001,15.556,15.228,13.66,13.198,19.704,16.440001,16.749001,22.287001,26.667,14.0,23.695999,19.9,2.9481,3.7724,9.8862,16.797001
13.93,16.013,13.798,21.674999,19.353001,18.681,20.305,17.582001,17.259001,21.674999,19.353001,20.690001,28.084,26.667,19.0,21.716,21.891001,15.008,5.7236,12.813,9.9346
14.925,16.013,14.793,23.645,22.264999,19.722,22.334999,19.542,18.274,23.645,22.264999,21.674999,23.253,19.77,18.0,15.776,17.91,18.023001,11.577,17.691,8.9542
16.915001,17.018,16.783001,23.645,24.207001,23.889,24.365,21.503,20.305,23.645,24.207001,23.645,13.591,12.874,13.0,10.825,11.94,21.039,16.455,19.642,9.9346
6.9652,11.993,10.813,21.674999,25.177999,19.722,23.35,20.523001,22.334999,21.674999,25.177999,19.704,-3.8003,-4.8604,-4.0,-4.0264,-3.9801,-2.0771,15.48,2.0813,-0.84967
5.9701,9.9832,10.813,21.674999,27.120001,18.681,25.381001,17.582001,26.396,21.674999,27.120001,21.674999,-9.5974,-14.713,-7.0,-12.937,-10.945,-5.0921,10.602,0.13008,-4.7712
14.925,17.018,19.768,22.66,26.149,21.806,28.426001,17.582001,28.426001,22.66,26.149,25.615999,-6.6989,-13.727,-1.0,-8.9769,-6.9652,14.003,9.626,6.9593,3.0719
18.905001,21.039,23.747999,23.645,23.236,23.889,27.410999,18.562,26.396,23.645,23.236,25.615999,-3.8003,-7.8161,2.0,0.92409,0.0,8.9782,10.602,6.9593,10.915
16.915001,19.028,21.757999,19.704,19.353001,21.806,22.334999,17.582001,22.334999,19.704,19.353001,21.674999,0.06441,-0.91954,5.0,8.8449,6.9652,11.993,11.577,4.0325,10.915
14.925,22.044001,19.768,15.764,17.410999,19.722,21.32,13.66,22.334999,15.764,17.410999,19.704,8.7601,13.859,10.0,19.736,14.925,20.034,14.504,7.935,16.797001
14.925,25.059,18.773001,14.778,16.440001,19.722,22.334999,13.66,21.32,14.778,16.440001,19.704,17.455999,27.652,16.0,26.667,21.891001,17.018,17.431,15.74,22.68
22.886,29.079,24.743,17.733999,18.382,24.931,25.381001,18.562,22.334999,17.733999,18.382,24.631001,28.084,37.504002,25.0,33.597,31.841,10.988,24.26,23.545,32.484001
25.871,27.069,25.738001,20.690001,19.353001,27.014,26.396,21.503,20.305,20.690001,19.353001,25.615999,29.049999,33.563,26.0,30.627001,33.831001,1.943,22.309,21.593,26.601
22.886,18.023001,21.757999,20.690001,18.382,27.014,22.334999,25.424999,15.228,20.690001,18.382,23.645,18.422001,20.754999,19.0,19.736,25.871,2.9481,10.602,19.642,10.915
19.9,11.993,17.778,19.704,17.410999,25.972,18.274,20.523001,14.213,19.704,17.410999,20.690001,8.7601,9.9179,11.0,10.825,16.915001,18.023001,7.6748,10.862,2.0915
13.93,7.9732,11.808,19.704,18.382,23.889,17.259001,14.641,16.243999,19.704,18.382,18.719,1.0306,4.0066,5.0,3.8944,9.9502,17.018,9.626,2.0813,2.0915
18.905001,11.993,13.798,24.631001,24.207001,29.097,24.365,21.503,24.365,24.631001,24.207001,23.645,1.0306,0.06568,11.0,4.8845,10.945,25.059,15.48,16.715,12.876
17.91,14.003,14.793,26.601,26.149,31.181,26.396,23.464001,25.381001,26.601,26.149,24.631001,2.963,-3.8752,13.0,2.9043,10.945,4.9581,15.48,16.715,11.895
12.935,14.003,13.798,26.601,24.207001,29.097,22.334999,23.464001,22.334999,26.601,24.207001,21.674999,3.9291,-5.8456,9.0,0.92409,9.9502,4.9581,13.528,5.0081,5.0327
12.935,17.018,16.783001,25.615999,23.236,27.014,22.334999,22.483999,21.32,25.615999,23.236,21.674999,7.7939,2.0361,8.0,8.8449,12.935,10.988,16.455,6.9593,9.9346
8.9552,11.993,12.803,18.719,16.440001,19.722,17.259001,16.601,15.228,18.719,16.440001,16.749001,10.692,9.9179,7.0,11.815,12.935,16.013,8.6504,5.9837,10.915
9.9502,11.993,11.808,11.823,11.586,13.472,16.243999,10.719,12.183,11.823,11.586,13.793,16.49,21.740999,11.0,18.746,15.92,6.9682,5.7236,12.813,18.757999
5.9701,11.993,11.808,4.9261,6.7314,9.3056,13.198,4.8366,7.1066,4.9261,6.7314,9.8522,18.422001,27.652,9.0,20.726,15.92,-8.1072,4.748,8.9106,14.837
0.0,6.9682,7.8275,0.98522,0.90615,5.1389,7.1066,0.91503,4.0609,0.98522,0.90615,4.9261,13.591,24.695999,4.0,17.756001,12.935,-9.1122,-0.13008,4.0325,10.915
1.99,3.9531,4.8425,0.0,-2.0065,4.0972,5.0761,1.8954,3.0457,0.0,-2.0065,2.9557,12.625,21.740999,3.0,14.785,10.945,-1.072,1.8211,5.9837,12.876
0.99502,-0.067,1.8574,0.0,-2.9773,3.0556,2.0305,2.8758,3.0457,0.0,-2.9773,0.0,7.7939,14.844,0.0,6.8647,4.9751,-9.1122,0.84553,3.0569,6.0131
8.9552,5.9631,9.8176,2.9557,0.90615,9.3056,7.1066,6.7974,5.0761,2.9557,0.90615,5.9113,5.8615,6.9622,3.0,4.8845,4.9751,-0.067,2.7967,5.0081,6.9935
9.9502,5.9631,10.813,3.9409,2.8479,10.347,7.1066,3.8562,4.0609,3.9409,2.8479,7.8818,-0.90177,-4.8604,2.0,-2.0462,0.99502,6.9682,2.7967,4.0325,-1.8301
15.92,10.988,14.793,8.867,7.7023,14.514,9.1371,15.621,7.1066,8.867,7.7023,11.823,-0.90177,-4.8604,9.0,1.9142,6.9652,16.013,12.553,13.789,5.0327
22.886,16.013,20.763,12.808,11.586,16.597,12.183,13.66,10.152,12.808,11.586,14.778,5.8615,3.0213,18.0,9.835,14.925,21.039,18.407,21.593,14.837
24.875999,16.013,22.753,10.837,12.557,13.472,12.183,6.7974,10.152,10.837,12.557,14.778,15.523,11.888,24.0,14.785,19.9,15.008,10.602,21.593,17.778
25.871,17.018,22.753,12.808,15.469,14.514,14.213,8.7582,12.183,12.808,15.469,15.764,26.150999,24.695999,26.0,19.736,21.891001,22.044001,10.602,24.52,19.739
14.925,10.988,12.803,13.793,15.469,11.389,9.1371,9.7386,9.1371,13.793,15.469,10.837,25.184999,27.652,16.0,16.766001,14.925,5.9631,6.6992,19.642,15.817
3.9801,4.9581,4.8425,10.837,11.586,6.1806,4.0609,7.7778,7.1066,10.837,11.586,4.9261,21.32,25.681,6.0,13.795,7.9602,-13.132,4.748,14.764,18.757999
3.9801,2.9481,2.8524,8.867,9.644,5.1389,4.0609,10.719,8.1218,8.867,9.644,2.9557,18.422001,23.711,4.0,11.815,5.9701,4.9581,10.602,13.789,15.817
-6.9652,-9.1122,-10.083,0.98522,0.90615,-7.3611,-6.0914,0.91503,2.0305,0.98522,0.90615,-9.8522,5.8615,8.9327,-7.0,-3.0363,-5.9701,1.943,2.7967,-3.7724,-1.8301
-13.93,-12.127,-18.042999,-4.9261,-2.9773,-15.694,-10.152,-5.9477,-1.0152,-4.9261,-2.9773,-15.764,-2.8341,-0.91954,-12.0,-10.957,-13.93,-3.0821,-1.1057,-11.577,-7.7124
-15.92,-9.1122,-18.042999,-4.9261,-2.9773,-15.694,-7.1066,-3.9869,1.0152,-4.9261,-2.9773,-11.823,-8.6312,-7.8161,-14.0,-14.917,-17.91,4.9581,-1.1057,-10.602,-4.7712
-19.9,-11.122,-22.023001,-5.9113,-4.9191,-17.778,-8.1218,-4.9673,0.0,-5.9113,-4.9191,-13.793,-14.428,-13.727,-17.0,-18.878,-21.891001,-5.0921,0.84553,-10.602,-7.7124
-15.92,-8.1072,-18.042999,-6.8966,-4.9191,-15.694,-8.1218,-6.9281,1.0152,-6.8966,-4.9191,-12.808,-9.5974,-8.8013,-11.0,-11.947,-13.93,-21.173,0.84553,-5.7236,-2.8105
-6.9652,-1.072,-10.083,-4.9261,-2.9773,-11.528,-4.0609,-3.0065,5.0761,-4.9261,-2.9773,-8.867,-2.8341,-2.89,-2.0,-2.0462,-3.9801,-16.146999,4.748,1.1057,3.0719
-1.99,0.93802,-5.1078,-3.9409,-1.0356,-9.4444,-3.0457,-0.06536,3.0457,-3.9409,-1.0356,-8.867,2.963,4.0066,6.0,5.8746,4.9751,3.9531,6.6992,7.935,7.9739
2.9851,6.9682,1.8574,-0.98522,0.90615,-6.3194,0.0,5.817,4.0609,-0.98522,0.90615,-3.9409,12.625,15.829,12.0,14.785,11.94,18.023001,12.553,14.764,16.797001
3.9801,8.9782,5.8375,0.0,2.8479,-5.2778,2.0305,-2.0261,7.1066,0.0,2.8479,-0.98522,18.422001,25.681,11.0,18.746,14.925,4.9581,12.553,11.837,19.739
2.9851,6.9682,5.8375,1.9704,4.7896,-6.3194,1.0152,-4.9673,9.1371,1.9704,4.7896,-2.9557,17.455999,26.667,6.0,15.776,11.94,-11.122,7.6748,-0.84553,14.837
-0.99502,2.9481,1.8574,0.0,2.8479,-9.4444,-2.0305,-3.0065,7.1066,0.0,2.8479,-5.9113,11.659,17.799999,0.0,9.835,3.9801,-9.1122,6.6992,-3.7724,13.856
-0.99502,0.93802,-0.13267,0.98522,4.7896,-9.4444,-2.0305,-3.0065,7.1066,0.98522,4.7896,-4.9261,7.7939,9.9179,-1.0,3.8944,-1.99,19.028,6.6992,4.0325,11.895
-7.9602,-4.0871,-6.1028,-2.9557,0.90615,-14.653,-5.0761,-4.9673,4.0609,-2.9557,0.90615,-9.8522,-2.8341,-1.9048,-9.0,-5.0165,-9.9502,9.9832,9.626,-2.7967,4.0523
-16.915001,-9.1122,-13.068,-9.8522,-5.89,-22.986,-12.183,-11.83,-2.0305,-9.8522,-5.89,-18.719,-15.395,-13.727,-19.0,-12.937,-17.91,-24.188,4.748,-14.504,-6.732
-9.9502,-6.0972,-8.0929,-11.823,-9.7735,-19.861,-12.183,-10.85,-1.0152,-11.823,-9.7735,-18.719,-14.428,-13.727,-12.0,-9.967,-11.94,-18.157,0.84553,-6.6992,-7.7124
-9.9502,-9.1122,-10.083,-13.793,-13.657,-21.944,-16.243999,-11.83,-3.0457,-13.793,-13.657,-22.66,-15.395,-16.683001,-9.0,-10.957,-7.9602,-13.132,-5.0081,-5.7236,-13.595
-16.915001,-11.122,-14.063,-16.749001,-14.628,-26.111,-18.274,-15.752,-6.0914,-16.749001,-14.628,-25.615999,-8.6312,-9.7865,-8.0,-6.0066,-1.99,-19.162001,-5.9837,-12.553,-9.6732
-14.925,-5.0921,-10.083,-16.749001,-14.628,-25.069,-15.228,-17.712,-6.0914,-16.749001,-14.628,-22.66,8.7601,7.9475,1.0,8.8449,9.9502,-10.117,1.8211,-5.7236,10.915
-8.9552,-3.0821,-6.1028,-12.808,-11.715,-19.861,-11.168,-14.771,-5.0761,-12.808,-11.715,-18.719,22.287001,23.711,7.0,16.766001,16.915001,-9.1122,3.7724,1.1057,17.778
-2.9851,-2.0771,-1.1277,-5.9113,-6.8608,-11.528,-8.1218,-6.9281,-4.0609,-5.9113,-6.8608,-11.823,28.084,31.593,9.0,16.766001,16.915001,-6.0972,1.8211,2.0813,7.9739
-8.9552,-8.1072,-8.0929,-4.9261,-7.8317,-9.4444,-12.183,-3.9869,-8.1218,-4.9261,-7.8317,-12.808,18.422001,21.740999,0.0,8.8449,5.9701,-13.132,-4.0325,-2.7967,-2.8105
-11.94,-9.1122,-13.068,-2.9557,-6.8608,-6.3194,-11.168,7.7778,-8.1218,-2.9557,-6.8608,-11.823,6.8277,11.888,-8.0,2.9043,-3.9801,-8.1072,-5.0081,-6.6992,1.1111
-14.925,-15.142,-19.038,0.0,-2.9773,-9.4444,-13.198,1.8954,-8.1218,0.0,-2.9773,-12.808,-14.428,-5.8456,-21.0,-10.957,-17.91,-7.1022,-5.9837,-15.48,-5.7516
-13.93,-16.146999,-18.042999,1.9704,0.90615,-6.3194,-11.168,-3.9869,-8.1218,1.9704,0.90615,-9.8522,-27.955,-17.667999,-28.0,-20.858,-24.875999,-6.0972,-6.9593,-18.407,-12.614
-9.9502,-15.142,-14.063,4.9261,2.8479,-0.06944,-9.1371,2.8758,-7.1066,4.9261,2.8479,-4.9261,-29.886999,-24.565001,-29.0,-24.818001,-26.865999,-3.0821,-7.935,-15.48,-15.556
-8.9552,-13.132,-13.068,5.9113,3.8188,0.97222,-9.1371,6.7974,-6.0914,5.9113,3.8188,-4.9261,-26.989,-26.535,-25.0,-24.818001,-22.886,-11.122,-7.935,-17.431,-14.575
-4.9751,-9.1122,-9.0879,5.9113,1.877,0.97222,-9.1371,5.817,-7.1066,5.9113,1.877,-4.9261,-15.395,-20.624001,-13.0,-16.898001,-9.9502,-7.1022,-4.0325,-13.528,-10.654
-3.9801,-6.0972,-4.1128,2.9557,-0.06472,-2.1528,-8.1218,1.8954,-6.0914,2.9557,-0.06472,-3.9409,-6.6989,-12.742,-2.0,-7.9868,1.99,-0.067,-5.9837,-8.6504,-9.6732
-7.9602,-5.0921,-3.1177,0.0,-0.06472,-6.3194,-6.0914,-5.9477,-5.0761,0.0,-0.06472,-3.9409,0.06441,-5.8456,0.0,-1.0561,4.9751,-11.122,-4.0325,-8.6504,-2.8105
-11.94,-8.1072,-6.1028,-4.9261,-2.9773,-9.4444,-8.1218,-8.8889,-7.1066,-4.9261,-2.9773,-5.9113,1.9968,-0.91954,-3.0,-1.0561,1.99,-8.1072,-4.0325,-8.6504,-0.84967
-19.9,-16.146999,-14.063,-6.8966,-7.8317,-14.653,-14.213,-10.85,-12.183,-6.8966,-7.8317,-11.823,-4.7665,-3.8752,-14.0,-8.9769,-7.9602,-4.0871,-7.935,-16.455,-11.634
-25.871,-19.162001,-17.048,-10.837,-9.7735,-18.819,-16.243999,-14.771,-13.198,-10.837,-9.7735,-15.764,-6.6989,-3.8752,-19.0,-13.927,-12.935,-24.188,-9.8862,-15.48,-14.575
-32.835999,-24.188,-22.023001,-14.778,-13.657,-27.153,-20.305,-20.653999,-15.228,-14.778,-13.657,-21.674999,-16.361,-11.757,-28.0,-22.837999,-21.891001,-35.243,-14.764,-20.358,-17.516001
-33.831001,-22.177999,-23.018,-16.749001,-15.599,-28.194,-18.274,-20.653999,-14.213,-16.749001,-15.599,-21.674999,-23.124001,-18.653999,-31.0,-25.809,-26.865999,-32.228001,-11.837,-29.138,-18.497
-26.865999,-15.142,-16.052999,-11.823,-9.7735,-22.986,-12.183,-17.712,-10.152,-11.823,-9.7735,-14.778,-21.191999,-16.683001,-26.0,-22.837999,-23.881001,-27.202999,-6.9593,-28.163,-13.595
-24.875999,-17.152,-15.058,-9.8522,-7.8317,-18.819,-10.152,-15.752,-10.152,-9.8522,-7.8317,-10.837,-28.921,-25.549999,-29.0,-26.799,-27.861,-15.142,-7.935,-27.187,-18.497
-22.886,-21.173,-19.038,-9.8522,-7.8317,-14.653,-10.152,-7.9085,-9.1371,-9.8522,-7.8317,-10.837,-34.717999,-34.417,-33.0,-31.749001,-30.846001,-12.127,-5.0081,-27.187,-26.34
-20.896,-20.167999,-21.028,-9.8522,-6.8608,-15.694,-13.198,-11.83,-8.1218,-9.8522,-6.8608,-12.808,-33.751999,-37.373001,-30.0,-32.738998,-26.865999,-14.137,-7.935,-26.211,-32.222
-10.945,-11.122,-14.063,-6.8966,-2.9773,-12.569,-9.1371,-12.81,-3.0457,-6.8966,-2.9773,-8.867,-22.158001,-26.535,-17.0,-18.878,-10.945,-7.1022,-5.9837,-18.407,-21.438
1.99,0.93802,-1.1277,0.0,3.8188,-3.1944,0.0,-3.9869,4.0609,0.0,3.8188,-0.98522,-0.90177,-5.8456,2.0,1.9142,8.9552,-0.067,3.7724,-4.748,-3.7908
4.9751,4.9581,1.8574,1.9704,4.7896,0.97222,2.0305,-3.0065,5.0761,1.9704,4.7896,1.9704,9.7262,4.9918,9.0,9.835,15.92,-10.117,5.7236,0.13008,1.1111
0.99502,0.93802,-3.1177,-0.98522,1.877,-2.1528,-2.0305,-3.9869,1.0152,-0.98522,1.877,-0.98522,6.8277,5.977,2.0,6.8647,8.9552,-12.127,2.7967,-0.84553,2.0915
-7.9602,-5.0921,-11.078,-2.9557,-2.9773,-6.3194,-8.1218,-4.9673,-4.0609,-2.9557,-2.9773,-7.8818,0.06441,3.0213,-9.0,-0.06601,-3.9801,-12.127,0.84553,-12.553,-0.84967
-10.945,-8.1072,-15.058,-3.9409,-4.9191,-6.3194,-11.168,-5.9477,-8.1218,-3.9409,-4.9191,-11.823,-6.6989,-0.91954,-16.0,-6.0066,-12.935,-23.183001,-1.1057,-23.285,-1.8301
-7.9602,-7.1022,-14.063,-0.98522,-2.0065,-3.1944,-8.1218,-3.9869,-7.1066,-0.98522,-2.0065,-8.867,-9.5974,-2.89,-16.0,-7.9868,-15.92,-21.173,-2.0813,-19.382,-2.8105
-5.9701,-8.1072,-14.063,0.0,-1.0356,-3.1944,-8.1218,-3.0065,-6.0914,0.0,-1.0356,-8.867,-11.53,-5.8456,-14.0,-9.967,-15.92,-8.1072,-5.0081,-12.553,-5.7516
-2.9851,-6.0972,-10.083,0.0,-1.0356,-1.1111,-5.0761,-1.0458,-3.0457,0.0,-1.0356,-6.8966,-10.564,-8.8013,-8.0,-7.9868,-10.945,6.9682,7.6748,-6.6992,-2.8105
0.0,-4.0871,-7.0978,0.98522,-1.0356,-0.06944,-4.0609,0.91503,-4.0609,0.98522,-1.0356,-3.9409,-8.6312,-9.7865,-5.0,-6.0066,-5.9701,4.9581,8.6504,-6.6992,-0.84967
-0.99502,-6.0972,-8.0929,-2.9557,-4.9191,-5.2778,-8.1218,-3.0065,-9.1371,-2.9557,-4.9191,-7.8818,-4.7665,-7.8161,-3.0,-6.0066,-1.99,-2.0771,-4.0325,-3.7724,-8.6928
-0.99502,-1.072,-5.1078,-3.9409,-5.89,-6.3194,-7.1066,-4.9673,-8.1218,-3.9409,-5.89,-8.867,2.963,-2.89,2.0,-0.06601,4.9751,-11.122,0.84553,4.0325,-3.7908
1.99,3.9531,-0.13267,-3.9409,-4.9191,-3.1944,-4.0609,-2.0261,-4.0609,-3.9409,-4.9191,-5.9113,12.625,6.9622,7.0,6.8647,11.94,-13.132,2.7967,8.9106,2.0915
3.9801,4.9581,3.8474,-3.9409,-6.8608,-1.1111,-2.0305,1.8954,-4.0609,-3.9409,-6.8608,-2.9557,15.523,11.888,7.0,12.805,13.93,-3.0821,-1.1057,7.935,15.817
0.99502,0.93802,2.8524,-3.9409,-4.9191,-2.1528,-2.0305,2.8758,-3.0457,-3.9409,-4.9191,-1.9704,11.659,11.888,1.0,10.825,9.9502,-5.0921,-0.13008,-3.7724,13.856
-2.9851,-2.0771,-0.13267,-3.9409,-3.9482,-5.2778,-3.0457,1.8954,-6.0914,-3.9409,-3.9482,-3.9409,11.659,13.859,0.0,6.8647,5.9701,3.9531,-3.0569,-1.8211,4.0523
-6.9652,-8.1072,-5.1078,-3.9409,-3.9482,-8.4028,-5.0761,-3.9869,-10.152,-3.9409,-3.9482,-5.9113,3.9291,7.9475,-5.0,-1.0561,-0.99502,10.988,-11.837,-2.7967,-7.7124
-0.99502,-3.0821,1.8574,0.98522,-0.06472,-2.1528,3.0457,-3.0065,2.0305,0.98522,-0.06472,0.98522,0.06441,6.9622,-4.0,-0.06601,0.0,9.9832,-8.9106,-1.8211,-3.7908
0.0,-1.072,4.8425,2.9557,-0.06472,-1.1111,6.0914,-0.06536,0.0,2.9557,-0.06472,3.9409,-2.8341,1.0509,-4.0,-2.0462,0.0,-7.1022,-6.9593,-3.7724,-3.7908
-2.9851,-5.0921,0.86235,1.9704,0.90615,-3.1944,1.0152,-3.0065,-4.0609,1.9704,0.90615,1.9704,-5.7327,-4.8604,-3.0,-4.0264,-2.9851,-18.157,-5.9837,-3.7724,-2.8105
-2.9851,-8.1072,-3.1177,1.9704,4.7896,-3.1944,-4.0609,-2.0261,6.0914,1.9704,4.7896,-0.98522,-1.868,-2.89,0.0,-4.0264,-1.99,-11.122,-2.0813,-1.8211,-3.7908
1.99,-3.0821,-1.1277,5.9113,6.7314,0.97222,-4.0609,1.8954,11.168,5.9113,6.7314,0.0,10.692,8.9327,8.0,4.8845,7.9602,5.9631,4.748,0.13008,3.0719
8.9552,4.9581,3.8474,11.823,9.644,6.1806,2.0305,8.7582,9.1371,11.823,9.644,4.9261,26.150999,20.754999,19.0,16.766001,18.905001,5.9631,8.6504,7.935,12.876
8.9552,6.9682,4.8425,10.837,9.644,4.0972,3.0457,7.7778,9.1371,10.837,9.644,4.9261,30.016001,24.695999,21.0,19.736,20.896,-0.067,9.626,14.764,20.719
5.9701,2.9481,1.8574,8.867,8.6731,0.97222,0.0,3.8562,7.1066,8.867,8.6731,1.9704,24.219,21.740999,16.0,17.756001,15.92,8.9782,8.6504,13.789,23.66
3.9801,-1.072,-0.13267,9.8522,10.615,2.0139,-1.0152,3.8562,7.1066,9.8522,10.615,2.9557,16.49,21.740999,10.0,14.785,11.94,1.943,3.7724,9.8862,16.797001
-2.9851,-10.117,-7.0978,4.9261,2.8479,-1.1111,-10.152,1.8954,-3.0457,4.9261,2.8479,-3.9409,2.963,12.874,-3.0,3.8944,0.99502,-3.0821,-5.9837,-5.7236,2.0915
0.0,-10.117,-5.1078,4.9261,0.90615,-0.06944,-11.168,3.8562,-6.0914,4.9261,0.90615,-3.9409,0.06441,7.9475,-3.0,0.92409,-2.9851,8.9782,-5.9837,-4.748,2.0915
-0.99502,-11.122,-6.1028,2.9557,-0.06472,-1.1111,-11.168,1.8954,-6.0914,2.9557,-0.06472,-3.9409,-6.6989,-0.91954,-5.0,-6.0066,-8.9552,14.003,-5.9837,-2.7967,-3.7908
-5.9701,-12.127,-8.0929,2.9557,1.877,-2.1528,-10.152,-0.06536,-4.0609,2.9557,1.877,-3.9409,-14.428,-11.757,-10.0,-11.947,-14.925,-7.1022,-7.935,-8.6504,-10.654
-5.9701,-10.117,-6.1028,4.9261,2.8479,-1.1111,-8.1218,-1.0458,-4.0609,4.9261,2.8479,-0.98522,-16.361,-18.653999,-11.0,-13.927,-15.92,-20.167999,-11.837,-11.577,-12.614
0.99502,-6.0972,-1.1277,7.8818,7.7023,3.0556,-3.0457,-0.06536,1.0152,7.8818,7.7023,4.9261,-7.6651,-14.713,-3.0,-9.967,-7.9602,-6.0972,-5.9837,-2.7967,-7.7124
-3.9801,-11.122,-9.0879,7.8818,6.7314,-1.1111,-6.0914,6.7974,1.0152,7.8818,6.7314,-0.98522,-4.7665,-15.698,-3.0,-13.927,-8.9552,3.9531,-1.1057,-2.7967,-10.654
-7.9602,-12.127,-15.058,7.8818,6.7314,-6.3194,-10.152,2.8758,-1.0152,7.8818,6.7314,-7.8818,-0.90177,-9.7865,-2.0,-10.957,-6.9652,16.013,-1.1057,1.1057,-7.7124
-0.99502,-3.0821,-8.0929,12.808,11.586,-1.1111,-4.0609,2.8758,2.0305,12.808,11.586,-1.9704,11.659,7.9475,8.0,2.9043,3.9801,7.9732,5.7236,12.813,5.0327
3.9801,1.943,-1.1277,13.793,12.557,-0.06944,1.0152,6.7974,3.0457,13.793,12.557,1.9704,19.388,17.799999,14.0,10.825,10.945,1.943,5.7236,14.764,6.9935
-3.9801,-5.0921,-6.1028,10.837,11.586,-5.2778,-3.0457,2.8758,1.0152,10.837,11.586,-3.9409,11.659,8.9327,5.0,2.9043,4.9751,-10.117,-3.0569,2.0813,-1.8301
-5.9701,-8.1072,-9.0879,12.808,12.557,-5.2778,-3.0457,3.8562,1.0152,12.808,12.557,-3.9409,5.8615,0.06568,0.0,-4.0264,0.0,-3.0821,-5.0081,-0.84553,-1.8301
0.0,-3.0821,-5.1078,16.749001,15.469,-0.06944,2.0305,7.7778,4.0609,16.749001,15.469,1.9704,4.8953,-0.91954,2.0,-3.0363,-0.99502,14.003,1.8211,5.9837,5.0327
-4.9751,-8.1072,-10.083,12.808,11.586,-5.2778,-3.0457,3.8562,0.0,12.808,11.586,-3.9409,-9.5974,-12.742,-10.0,-12.937,-12.935,-1.072,-5.0081,-2.7967,-7.7124
-11.94,-10.117,-16.052999,5.9113,6.7314,-10.486,-8.1218,-1.0458,-4.0609,5.9113,6.7314,-9.8522,-18.292999,-21.608999,-18.0,-18.878,-21.891001,-8.1072,-10.862,-13.528,-15.556
-8.9552,-1.072,-12.073,2.9557,5.7605,-10.486,-5.0761,-3.9869,1.0152,2.9557,5.7605,-8.867,-11.53,-17.667999,-12.0,-11.947,-14.925,-2.0771,-1.1057,-11.577,-7.7124
-0.99502,7.9732,-3.1177,3.9409,10.615,-4.2361,5.0761,0.91503,12.183,3.9409,10.615,-0.98522,1.0306,-5.8456,1.0,0.92409,0.0,2.9481,8.6504,-3.7724,0.13072
-3.9801,4.9581,-3.1177,0.98522,6.7314,-8.4028,2.0305,-2.0261,8.1218,0.98522,6.7314,-2.9557,-0.90177,-5.8456,-1.0,5.8746,2.9851,1.943,3.7724,-0.84553,8.9542
-6.9652,3.9531,-4.1128,-0.98522,3.8188,-11.528,0.0,-0.06536,3.0457,-0.98522,3.8188,-5.9113,-0.90177,-0.91954,-4.0,7.8548,2.9851,-10.117,2.7967,-6.6992,6.9935
-7.9602,4.9581,-1.1277,-2.9557,2.8479,-11.528,1.0152,-6.9281,3.0457,-2.9557,2.8479,-4.9261,1.0306,4.9918,-4.0,6.8647,1.99,-21.173,4.748,-11.577,-0.84967
-5.9701,0.93802,-3.1177,-2.9557,1.877,-12.569,-2.0305,-9.8693,2.0305,-2.9557,1.877,-5.9113,0.06441,5.977,-5.0,2.9043,-1.99,1.943,2.7967,-9.626,-0.84967
-6.9652,-4.0871,-7.0978,-1.9704,-0.06472,-11.528,-4.0609,-3.0065,1.0152,-1.9704,-0.06472,-7.8818,0.06441,6.9622,-4.0,0.92409,-4.9751,5.9631,-2.0813,-2.7967,7.9739
-8.9552,-4.0871,-5.1078,1.9704,2.8479,-8.4028,-2.0305,-1.0458,4.0609,1.9704,2.8479,-3.9409,0.06441,5.977,-5.0,1.9142,-4.9751,-17.152,-0.13008,-2.7967,11.895
-2.9851,2.9481,4.8425,4.9261,6.7314,-1.1111,4.0609,0.91503,5.0761,4.9261,6.7314,4.9261,-2.8341,4.0066,-4.0,3.8944,-1.99,-10.117,5.7236,-3.7724,10.915
-0.99502,1.943,6.8325,4.9261,6.7314,-0.06944,3.0457,2.8758,0.0,4.9261,6.7314,5.9113,-12.496,-6.8309,-8.0,-2.0462,-3.9801,3.9531,-1.1057,-9.626,-1.8301
-6.9652,-7.1022,-0.13267,0.98522,0.90615,-4.2361,-3.0457,-0.06536,-6.0914,0.98522,0.90615,0.0,-25.056,-18.653999,-16.0,-12.937,-10.945,-5.0921,-12.813,-17.431,-12.614
-6.9652,-8.1072,-1.1277,0.0,-2.9773,-3.1944,-3.0457,-1.0458,-6.0914,0.0,-2.9773,0.0,-23.124001,-18.653999,-13.0,-11.947,-7.9602,-13.132,-5.9837,-17.431,-13.595
-6.9652,-7.1022,-0.13267,-1.9704,-3.9482,-5.2778,-3.0457,-2.0261,-7.1066,-1.9704,-3.9482,0.0,-14.428,-18.653999,-7.0,-9.967,-3.9801,-12.127,-4.0325,-14.504,-15.556
-4.9751,-2.0771,2.8524,0.0,-2.0065,-4.2361,-1.0152,-2.0261,-7.1066,0.0,-2.0065,1.9704,-6.6989,-18.653999,-2.0,-5.0165,0.0,-7.1022,-4.0325,-9.626,-7.7124
-4.9751,-1.072,1.8574,3.9409,-0.06472,0.97222,-1.0152,0.91503,-7.1066,3.9409,-0.06472,4.9261,1.0306,-9.7865,1.0,-0.06601,2.9851,-6.0972,-5.9837,-4.748,-4.7712
-5.9701,-0.067,1.8574,4.9261,0.90615,2.0139,1.0152,1.8954,-6.0914,4.9261,0.90615,5.9113,12.625,8.9327,4.0,9.835,8.9552,-6.0972,-2.0813,-0.84553,4.0523
-1.99,4.9581,5.8375,4.9261,3.8188,3.0556,6.0914,7.7778,-1.0152,4.9261,3.8188,7.8818,26.150999,30.608,9.0,19.736,16.915001,-8.1072,3.7724,2.0813,18.757999
-1.99,1.943,4.8425,2.9557,0.90615,-3.1944,2.0305,1.8954,-2.0305,2.9557,0.90615,1.9704,25.184999,32.577999,9.0,17.756001,13.93,-14.137,-1.1057,5.9837,17.778
0.0,2.9481,5.8375,1.9704,-0.06472,-3.1944,1.0152,-1.0458,-3.0457,1.9704,-0.06472,0.98522,20.354,25.681,9.0,13.795,9.9502,-12.127,0.84553,13.789,18.757999
1.99,4.9581,6.8325,1.9704,-0.06472,-0.06944,0.0,-0.06536,-1.0152,1.9704,-0.06472,1.9704,10.692,14.844,5.0,7.8548,4.9751,5.9631,8.6504,8.9106,12.876
5.9701,8.9782,10.813,2.9557,0.90615,4.0972,3.0457,2.8758,1.0152,2.9557,0.90615,4.9261,-0.90177,4.0066,1.0,3.8944,1.99,4.9581,11.577,2.0813,10.915
6.9652,9.9832,13.798,5.9113,4.7896,6.1806,9.1371,4.8366,6.0914,5.9113,4.7896,8.867,-15.395,-5.8456,-4.0,-0.06601,0.0,-0.067,7.6748,0.13008,6.0131
5.9701,8.9782,14.793,4.9261,6.7314,6.1806,12.183,5.817,7.1066,4.9261,6.7314,10.837,-17.327,-8.8013,-5.0,-2.0462,0.99502,-3.0821,3.7724,-4.748,-0.84967
9.9502,10.988,16.783001,2.9557,4.7896,6.1806,13.198,3.8562,4.0609,2.9557,4.7896,13.793,-1.868,0.06568,4.0,2.9043,8.9552,-5.0921,2.7967,-2.7967,2.0915
6.9652,8.9782,13.798,-3.9409,-2.9773,2.0139,6.0914,0.91503,-2.0305,-3.9409,-2.9773,7.8818,10.692,5.977,8.0,6.8647,10.945,-7.1022,2.7967,-0.84553,6.9935
1.99,3.9531,5.8375,-11.823,-11.715,-5.2778,-2.0305,-3.0065,-6.0914,-11.823,-11.715,-1.9704,10.692,5.977,5.0,5.8746,5.9701,10.988,-2.0813,-1.8211,7.9739
6.9652,7.9732,9.8176,-11.823,-10.744,-3.1944,0.0,2.8758,-3.0457,-11.823,-10.744,0.0,15.523,6.9622,13.0,10.825,10.945,11.993,-0.13008,10.862,2.0915
7.9602,9.9832,12.803,-9.8522,-9.7735,-1.1111,0.0,-3.0065,-3.0457,-9.8522,-9.7735,0.98522,16.49,8.9327,15.0,13.795,13.93,-13.132,8.6504,13.789,6.9935
8.9552,8.9782,12.803,-6.8966,-8.8026,-1.1111,-1.0152,-6.9281,-4.0609,-6.8966,-8.8026,0.98522,16.49,16.813999,14.0,15.776,12.935,-13.132,8.6504,9.8862,16.797001
15.92,7.9732,15.788,-5.9113,-7.8317,3.0556,-1.0152,-2.0261,-4.0609,-5.9113,-7.8317,2.9557,15.523,17.799999,16.0,15.776,12.935,-2.0771,8.6504,11.837,18.757999
13.93,2.9481,12.803,-3.9409,-6.8608,4.0972,-4.0609,0.91503,-5.0761,-3.9409,-6.8608,0.98522,6.8277,11.888,11.0,9.835,6.9652,2.9481,3.7724,8.9106,17.778
16.915001,6.9682,15.788,3.9409,0.90615,9.3056,1.0152,5.817,0.0,3.9409,0.90615,5.9113,6.8277,16.813999,13.0,12.805,9.9502,7.9732,6.6992,12.813,20.719
22.886,17.018,21.757999,9.8522,6.7314,14.514,10.152,6.7974,5.0761,9.8522,6.7314,13.793,16.49,29.622,22.0,23.695999,20.896,21.039,16.455,21.593,26.601
15.92,10.988,13.798,7.8818,4.7896,8.2639,7.1066,0.91503,1.0152,7.8818,4.7896,7.8818,9.7262,19.77,16.0,16.766001,15.92,19.028,10.602,15.74,13.856
12.935,6.9682,9.8176,7.8818,3.8188,6.1806,5.0761,-0.06536,1.0152,7.8818,3.8188,6.8966,2.963,7.9475,11.0,7.8548,10.945,7.9732,5.7236,8.9106,4.0523
15.92,11.993,14.793,9.8522,7.7023,13.472,12.183,4.8366,5.0761,9.8522,7.7023,15.764,5.8615,2.0361,15.0,7.8548,14.925,2.9481,8.6504,13.789,5.0327
15.92,12.998,16.783001,4.9261,4.7896,12.431,14.213,4.8366,4.0609,4.9261,4.7896,16.749001,8.7601,-2.89,19.0,7.8548,17.91,2.9481,12.553,18.667,6.0131
6.9652,3.9531,5.8375,-5.9113,-7.8317,3.0556,5.0761,-1.0458,-5.0761,-5.9113,-7.8317,7.8818,2.963,-11.757,11.0,0.92409,8.9552,-0.067,3.7724,8.9106,-3.7908
2.9851,5.9631,4.8425,-9.8522,-11.715,3.0556,5.0761,-1.0458,-5.0761,-9.8522,-11.715,6.8966,7.7939,-0.91954,10.0,6.8647,7.9602,1.943,3.7724,6.9593,4.0523
-0.99502,4.9581,0.86235,-12.808,-13.657,0.97222,3.0457,-8.8889,-4.0609,-12.808,-13.657,4.9261,6.8277,8.9327,5.0,9.835,4.9751,6.9682,1.8211,7.935,14.837
-5.9701,-0.067,-5.1078,-13.793,-14.628,-1.1111,1.0152,-9.8693,-5.0761,-13.793,-14.628,1.9704,1.0306,11.888,-4.0,6.8647,-0.99502,-0.067,2.7967,0.13008,15.817
-1.99,1.943,-3.1177,-9.8522,-10.744,2.0139,4.0609,-3.9869,-2.0305,-9.8522,-10.744,4.9261,2.963,16.813999,-3.0,7.8548,0.99502,-4.0871,8.6504,-0.84553,16.797001
-2.9851,3.9531,-3.1177,-7.8818,-7.8317,2.0139,6.0914,-3.9869,0.0,-7.8818,-7.8317,5.9113,6.8277,19.77,-2.0,8.8449,1.99,1.943,12.553,-2.7967,16.797001
-5.9701,0.93802,-7.0978,-5.9113,-3.9482,2.0139,5.0761,-3.9869,1.0152,-5.9113,-3.9482,2.9557,5.8615,18.785,-3.0,6.8647,0.0,5.9631,8.6504,-0.84553,11.895
-9.9502,-9.1122,-12.073,-4.9261,-3.9482,-2.1528,-2.0305,-5.9477,-2.0305,-4.9261,-3.9482,-3.9409,0.06441,10.903,-6.0,-1.0561,-4.9751,-3.0821,1.8211,0.13008,5.0327
-9.9502,-11.122,-13.068,-1.9704,-2.9773,-2.1528,-6.0914,-3.9869,-3.0457,-1.9704,-2.9773,-4.9261,-2.8341,4.9918,-7.0,-4.0264,-4.9751,-17.152,-0.13008,-3.7724,6.0131
-4.9751,-8.1072,-9.0879,0.0,-2.9773,0.97222,-4.0609,-2.0261,-4.0609,0.0,-2.9773,-0.98522,-5.7327,-6.8309,-3.0,-6.9967,-2.9851,-12.127,1.8211,-3.7724,-0.84967
6.9652,1.943,0.86235,4.9261,0.90615,8.2639,3.0457,5.817,2.0305,4.9261,0.90615,6.8966,0.06441,-9.7865,9.0,-3.0363,5.9701,9.9832,9.626,5.9837,5.0327
13.93,7.9732,7.8275,5.9113,3.8188,12.431,8.1218,17.582001,8.1218,5.9113,3.8188,10.837,3.9291,-8.8013,15.0,0.92409,10.945,19.028,13.528,20.618,6.9935
8.9552,2.9481,4.8425,1.9704,1.877,7.2222,4.0609,10.719,5.0761,1.9704,1.877,4.9261,1.0306,-8.8013,9.0,-0.06601,6.9652,19.028,5.7236,15.74,2.0915
3.9801,-2.0771,1.8574,-0.98522,-0.06472,3.0556,0.0,1.8954,1.0152,-0.98522,-0.06472,0.0,1.9968,1.0509,5.0,1.9142,5.9701,17.018,-3.0569,3.0569,1.1111
10.945,3.9531,8.8226,1.9704,1.877,6.1806,1.0152,3.8562,1.0152,1.9704,1.877,4.9261,11.659,18.785,11.0,13.795,13.93,12.998,-1.1057,8.9106,6.9935
15.92,10.988,17.778,5.9113,3.8188,11.389,4.0609,12.68,3.0457,5.9113,3.8188,8.867,21.32,30.608,19.0,23.695999,21.891001,17.018,6.6992,18.667,16.797001
13.93,10.988,20.763,5.9113,3.8188,10.347,5.0761,11.699,3.0457,5.9113,3.8188,9.8522,21.32,31.593,17.0,24.686001,21.891001,11.993,8.6504,14.764,21.698999
12.935,7.9732,19.768,6.8966,2.8479,10.347,6.0914,10.719,1.0152,6.8966,2.8479,10.837,15.523,26.667,13.0,19.736,17.91,15.008,3.7724,8.9106,15.817
20.896,9.9832,22.753,8.867,3.8188,15.556,9.1371,12.68,1.0152,8.867,3.8188,15.764,11.659,22.726,15.0,15.776,16.915001,28.073999,1.8211,14.764,10.915
25.871,15.008,26.733,12.808,9.644,21.806,15.228,16.601,5.0761,12.808,9.644,22.66,8.7601,18.785,17.0,12.805,16.915001,31.089001,6.6992,21.593,7.9739
18.905001,11.993,23.747999,13.793,9.644,18.681,13.198,14.641,3.0457,13.793,9.644,20.690001,3.9291,9.9179,14.0,6.8647,12.935,12.998,5.7236,18.667,4.0523
17.91,9.9832,20.763,13.793,9.644,17.639,11.168,14.641,4.0609,13.793,9.644,18.719,1.9968,3.0213,13.0,4.8845,12.935,14.003,4.748,14.764,5.0327
13.93,5.9631,17.778,10.837,6.7314,15.556,8.1218,10.719,3.0457,10.837,6.7314,14.778,1.0306,-0.91954,13.0,2.9043,12.935,2.9481,0.84553,7.935,-1.8301
14.925,7.9732,17.778,8.867,5.7605,14.514,8.1218,13.66,2.0305,8.867,5.7605,14.778,4.8953,-2.89,16.0,3.8944,16.915001,5.9631,1.8211,9.8862,-4.7712
11.94,5.9631,13.798,6.8966,6.7314,12.431,9.1371,6.7974,2.0305,6.8966,6.7314,13.793,3.9291,-9.7865,13.0,0.92409,12.935,5.9631,0.84553,8.9106,-8.6928
4.9751,3.9531,9.8176,9.8522,8.6731,12.431,11.168,2.8758,3.0457,9.8522,8.6731,14.778,-2.8341,-14.713,5.0,-4.0264,4.9751,4.9581,1.8211,5.0081,-6.732
-0.99502,1.943,4.8425,11.823,11.586,12.431,12.183,8.7582,5.0761,11.823,11.586,14.778,-6.6989,-10.772,-1.0,-5.0165,-0.99502,5.9631,2.7967,5.0081,-2.8105
-9.9502,0.93802,-0.13267,9.8522,10.615,5.1389,10.152,3.8562,5.0761,9.8522,10.615,9.8522,-7.6651,-3.8752,-7.0,-5.0165,-4.9751,2.9481,1.8211,-2.7967,-1.8301
-8.9552,3.9531,-1.1277,10.837,12.557,5.1389,12.183,5.817,7.1066,10.837,12.557,10.837,-6.6989,4.0066,-5.0,-1.0561,-2.9851,6.9682,1.8211,-0.84553,2.0915
-3.9801,3.9531,-2.1227,12.808,13.528,7.2222,12.183,4.8366,10.152,12.808,13.528,10.837,-7.6651,4.9918,-3.0,-1.0561,-2.9851,6.9682,1.8211,-1.8211,1.1111
3.9801,7.9732,0.86235,12.808,15.469,10.347,14.213,7.7778,14.213,12.808,15.469,12.808,-2.8341,6.9622,7.0,4.8845,1.99,9.9832,5.7236,6.9593,6.9935
6.9652,7.9732,1.8574,11.823,16.440001,10.347,15.228,7.7778,17.259001,11.823,16.440001,12.808,1.9968,5.977,13.0,7.8548,6.9652,6.9682,12.553,13.789,11.895
6.9652,10.988,4.8425,13.793,17.410999,11.389,16.243999,6.7974,18.274,13.793,17.410999,14.778,5.8615,5.977,13.0,11.815,11.94,3.9531,12.553,5.9837,13.856
8.9552,11.993,8.8226,15.764,17.410999,14.514,16.243999,8.7582,16.243999,15.764,17.410999,15.764,6.8277,2.0361,13.0,9.835,13.93,10.988,6.6992,2.0813,9.9346
10.945,9.9832,10.813,16.749001,17.410999,14.514,13.198,10.719,13.198,16.749001,17.410999,13.793,6.8277,0.06568,13.0,4.8845,12.935,10.988,2.7967,11.837,2.0915
12.935,8.9782,11.808,19.704,19.353001,17.639,14.213,19.542,13.198,19.704,19.353001,14.778,10.692,4.9918,14.0,4.8845,14.925,10.988,4.748,12.813,0.13072
10.945,6.9682,10.813,17.733999,19.353001,16.597,13.198,15.621,12.183,17.733999,19.353001,13.793,8.7601,4.9918,10.0,3.8944,12.935,4.9581,9.626,6.9593,-0.84967
8.9552,9.9832,12.803,18.719,22.264999,17.639,16.243999,8.7582,15.228,18.719,22.264999,16.749001,4.8953,2.0361,8.0,3.8944,9.9502,-0.067,10.602,6.9593,0.13072
7.9602,10.988,13.798,21.674999,24.207001,20.764,18.274,12.68,16.243999,21.674999,24.207001,19.704,-0.90177,-2.89,4.0,1.9142,4.9751,5.9631,3.7724,5.0081,1.1111
4.9751,5.9631,8.8226,18.719,19.353001,16.597,14.213,10.719,12.183,18.719,19.353001,15.764,-6.6989,-8.8013,-3.0,-3.0363,-1.99,11.993,2.7967,-3.7724,1.1111
8.9552,4.9581,8.8226,15.764,16.440001,13.472,14.213,10.719,12.183,15.764,16.440001,15.764,-3.8003,-4.8604,0.0,-3.0363,-0.99502,12.998,6.6992,-0.84553,1.1111
8.9552,5.9631,7.8275,10.837,13.528,9.3056,12.183,7.7778,12.183,10.837,13.528,12.808,1.0306,2.0361,3.0,0.92409,1.99,6.9682,7.6748,5.9837,2.0915
11.94,9.9832,6.8325,10.837,10.615,8.2639,10.152,7.7778,13.198,10.837,10.615,9.8522,7.7939,9.9179,9.0,7.8548,6.9652,7.9732,12.553,12.813,8.9542
16.915001,10.988,7.8275,9.8522,8.6731,10.347,8.1218,9.7386,14.213,9.8522,8.6731,8.867,18.422001,19.77,18.0,16.766001,13.93,18.023001,13.528,17.691,15.817
25.871,14.003,15.788,10.837,10.615,15.556,11.168,11.699,14.213,10.837,10.615,13.793,28.084,28.636999,29.0,24.686001,23.881001,28.073999,12.553,25.496,24.641001
24.875999,11.993,16.783001,11.823,10.615,17.639,11.168,8.7582,11.168,11.823,10.615,16.749001,25.184999,24.695999,28.0,21.716,24.875999,19.028,9.626,23.545,15.817
26.865999,17.018,23.747999,16.749001,15.469,22.847,15.228,13.66,14.213,16.749001,15.469,23.645,26.150999,25.681,30.0,21.716,28.856001,12.998,13.528,22.569,11.895
27.861,21.039,27.728001,18.719,16.440001,25.972,16.243999,19.542,15.228,18.719,16.440001,25.615999,21.32,20.754999,26.0,20.726,27.861,12.998,15.48,12.813,11.895
18.905001,11.993,19.768,17.733999,13.528,20.764,12.183,15.621,13.198,17.733999,13.528,20.690001,5.8615,2.0361,13.0,3.8944,13.93,4.9581,9.626,1.1057,-3.7908
12.935,1.943,11.808,17.733999,12.557,16.597,10.152,9.7386,10.152,17.733999,12.557,17.733999,-9.5974,-17.667999,2.0,-14.917,-1.99,14.003,4.748,-0.84553,-19.476999
10.945,-4.0871,6.8325,15.764,10.615,14.514,7.1066,7.7778,8.1218,15.764,10.615,16.749001,-24.09,-34.417,-7.0,-28.778999,-13.93,27.069,-5.9837,-0.84553,-26.34
11.94,-5.0921,6.8325,15.764,12.557,13.472,7.1066,9.7386,9.1371,15.764,12.557,14.778,-31.82,-45.255001,-11.0,-34.719002,-18.905001,-0.067,-9.8862,-4.748,-31.242001
14.925,-0.067,9.8176,13.793,12.557,11.389,8.1218,7.7778,11.168,13.793,12.557,12.808,-24.09,-35.402,-5.0,-25.809,-12.935,-7.1022,-3.0569,-1.8211,-22.417999
9.9502,3.9531,5.8375,9.8522,11.586,4.0972,7.1066,5.817,10.152,9.8522,11.586,5.9113,-9.5974,-12.742,2.0,-7.9868,-3.9801,-0.067,1.8211,7.935,-4.7712
5.9701,7.9732,0.86235,8.867,12.557,0.97222,8.1218,4.8366,13.198,8.867,12.557,2.9557,9.7262,13.859,11.0,11.815,8.9552,7.9732,8.6504,14.764,12.876
3.9801,9.9832,-2.1227,5.9113,10.615,-3.1944,3.0457,5.817,9.1371,5.9113,10.615,-0.98522,22.287001,28.636999,16.0,21.716,17.91,6.9682,8.6504,14.764,16.797001
13.93,18.023001,5.8375,5.9113,8.6731,0.97222,5.0761,6.7974,9.1371,5.9113,8.6731,2.9557,32.915001,38.488998,27.0,31.617001,28.856001,25.059,14.504,23.545,25.621
19.9,25.059,14.793,7.8818,7.7023,5.1389,11.168,7.7778,13.198,7.8818,7.7023,8.867,35.813,36.519001,29.0,30.627001,30.846001,21.039,16.455,28.423,25.621
14.925,21.039,13.798,5.9113,5.7605,2.0139,11.168,4.8366,14.213,5.9113,5.7605,6.8966,25.184999,19.77,18.0,19.736,21.891001,-5.0921,12.553,21.593,14.837
9.9502,15.008,10.813,4.9261,3.8188,-2.1528,7.1066,8.7582,13.198,4.9261,3.8188,1.9704,14.557,6.9622,10.0,8.8449,14.925,-3.0821,7.6748,12.813,6.0131
1.99,6.9682,5.8375,1.9704,1.877,-10.486,1.0152,1.8954,10.152,1.9704,1.877,-4.9261,1.9968,-3.8752,1.0,-4.0264,6.9652,-0.067,2.7967,2.0813,-5.7516
0.0,2.9481,1.8574,1.9704,-0.06472,-12.569,-4.0609,-3.9869,7.1066,1.9704,-0.06472,-8.867,-12.496,-17.667999,-3.0,-12.937,-0.99502,2.9481,3.7724,0.13008,-6.732
6.9652,2.9481,2.8524,3.9409,0.90615,-7.3611,-5.0761,1.8954,5.0761,3.9409,0.90615,-6.8966,-17.327,-25.549999,-3.0,-14.917,-3.9801,10.988,7.6748,1.1057,-3.7908
8.9552,1.943,0.86235,4.9261,-0.06472,-4.2361,-4.0609,6.7974,5.0761,4.9261,-0.06472,-5.9113,-18.292999,-26.535,-4.0,-14.917,-6.9652,0.93802,13.528,-0.84553,-6.732
9.9502,3.9531,-0.13267,4.9261,-0.06472,-2.1528,-2.0305,5.817,7.1066,4.9261,-0.06472,-3.9409,-15.395,-18.653999,-1.0,-7.9868,-5.9701,6.9682,13.528,5.0081,0.13072
11.94,11.993,4.8425,5.9113,1.877,-0.06944,2.0305,5.817,10.152,5.9113,1.877,0.0,1.0306,4.0066,11.0,10.825,6.9652,5.9631,13.528,9.8862,22.68
4.9751,10.988,0.86235,2.9557,-0.06472,-3.1944,-3.0457,-0.06536,6.0914,2.9557,-0.06472,-3.9409,15.523,22.726,17.0,22.705999,16.915001,-5.0921,9.626,10.862,29.542
4.9751,12.998,-0.13267,5.9113,3.8188,0.97222,0.0,1.8954,6.0914,5.9113,3.8188,0.0,29.049999,40.459999,23.0,33.597,25.871,-5.0921,12.553,19.642,35.424999
11.94,18.023001,7.8275,14.778,12.557,8.2639,9.1371,5.817,11.168,14.778,12.557,8.867,39.678001,49.327,29.0,40.528,34.826,-4.0871,18.407,26.472,37.386002
12.935,15.008,8.8226,16.749001,14.498,10.347,10.152,6.7974,12.183,16.749001,14.498,10.837,34.847,42.43,24.0,36.568001,33.831001,-3.0821,17.431,19.642,32.484001
11.94,9.9832,9.8176,17.733999,15.469,11.389,8.1218,9.7386,11.168,17.733999,15.469,10.837,27.118,30.608,19.0,28.646999,27.861,9.9832,13.528,10.862,27.582001
11.94,6.9682,9.8176,17.733999,15.469,13.472,6.0914,10.719,10.152,17.733999,15.469,10.837,20.354,20.754999,15.0,19.736,22.886,20.034,9.626,7.935,14.837
13.93,7.9732,12.803,18.719,15.469,17.639,7.1066,13.66,9.1371,18.719,15.469,12.808,10.692,9.9179,13.0,11.815,18.905001,8.9782,5.7236,8.9106,5.0327
20.896,8.9782,15.788,21.674999,16.440001,21.806,11.168,13.66,10.152,21.674999,16.440001,17.733999,3.9291,0.06568,13.0,4.8845,14.925,16.013,4.748,16.715,1.1111
15.92,1.943,9.8176,19.704,14.498,15.556,7.1066,5.817,8.1218,19.704,14.498,14.778,-6.6989,-16.683001,3.0,-12.937,0.0,4.9581,1.8211,5.0081,-7.7124
16.915001,3.9531,9.8176,17.733999,16.440001,16.597,9.1371,7.7778,11.168,17.733999,16.440001,15.764,-11.53,-28.506001,1.0,-21.848,-7.9602,-0.067,7.6748,-0.84553,-10.654
14.925,7.9732,9.8176,14.778,13.528,14.514,9.1371,9.7386,11.168,14.778,13.528,14.778,-12.496,-28.506001,5.0,-16.898001,-3.9801,9.9832,8.6504,4.0325,-11.634
12.935,12.998,8.8226,13.793,10.615,13.472,7.1066,13.66,7.1066,13.793,10.615,10.837,-1.868,-11.757,12.0,0.92409,8.9552,21.039,6.6992,7.935,-2.8105
13.93,14.003,9.8176,13.793,8.6731,11.389,4.0609,13.66,5.0761,13.793,8.6731,7.8818,17.455999,13.859,24.0,20.726,23.881001,9.9832,2.7967,14.764,7.9739
18.905001,12.998,9.8176,13.793,6.7314,11.389,2.0305,14.641,4.0609,13.793,6.7314,6.8966,41.610001,38.488998,39.0,33.597,37.811001,5.9631,-3.0569,23.545,16.797001
17.91,6.9682,5.8375,10.837,4.7896,8.2639,0.0,11.699,2.0305,10.837,4.7896,5.9113,50.306,43.415001,43.0,32.606998,37.811001,24.054001,-0.13008,32.325001,27.582001
17.91,4.9581,3.8474,10.837,5.7605,9.3056,0.0,12.68,2.0305,10.837,5.7605,5.9113,48.374001,39.474998,42.0,26.667,30.846001,36.113998,5.7236,44.033001,27.582001
11.94,-2.0771,0.86235,10.837,5.7605,7.2222,-4.0609,9.7386,-2.0305,10.837,5.7605,2.9557,33.881001,25.681,28.0,12.805,16.915001,22.044001,-2.0813,30.374001,12.876
4.9751,-12.127,-5.1078,11.823,3.8188,3.0556,-10.152,8.7582,-9.1371,11.823,3.8188,-1.9704,8.7601,4.0066,8.0,-4.0264,0.99502,0.93802,-13.789,7.935,-6.732
4.9751,-16.146999,-6.1028,14.778,4.7896,7.2222,-9.1371,14.641,-9.1371,14.778,4.7896,-0.98522,-4.7665,-9.7865,-3.0,-17.888,-9.9502,-3.0821,-15.74,-0.84553,-16.535999
3.9801,-19.162001,-9.0879,14.778,4.7896,3.0556,-10.152,6.7974,-9.1371,14.778,4.7896,-2.9557,-18.292999,-22.594,-14.0,-31.749001,-22.886,-4.0871,-16.715,-6.6992,-24.379
12.935,-8.1072,1.8574,14.778,6.7314,7.2222,-4.0609,4.8366,-3.0457,14.778,6.7314,2.9557,-22.158001,-25.549999,-12.0,-30.759001,-20.896,12.998,-7.935,-1.8211,-25.358999
13.93,1.943,8.8226,17.733999,10.615,10.347,3.0457,11.699,3.0457,17.733999,10.615,9.8522,-30.853001,-30.476,-13.0,-24.818001,-13.93,20.034,-3.0569,-5.7236,-29.281
1.99,-3.0821,1.8574,11.823,5.7605,2.0139,0.0,6.7974,-1.0152,11.823,5.7605,3.9409,-45.346001,-44.269001,-21.0,-25.809,-13.93,9.9832,-8.9106,-22.309,-41.046001
3.9801,-2.0771,1.8574,5.9113,0.90615,-0.06944,-1.0152,4.8366,-1.0152,5.9113,0.90615,3.9409,-32.785999,-37.373001,-7.0,-17.888,-2.9851,4.9581,-11.837,-8.6504,-36.144001
0.0,-9.1122,-3.1177,-4.9261,-8.8026,-7.3611,-7.1066,-4.9673,-6.0914,-4.9261,-8.8026,-4.9261,-14.428,-29.490999,2.0,-14.917,0.99502,-11.122,-12.813,-0.84553,-29.281
-5.9701,-15.142,-10.083,-11.823,-14.628,-12.569,-15.228,-7.9085,-10.152,-11.823,-14.628,-12.808,4.8953,-16.683001,6.0,-13.927,0.99502,-15.142,-10.862,1.1057,-17.516001
-8.9552,-19.162001,-17.048,-15.764,-18.511,-15.694,-21.32,-8.8889,-13.198,-15.764,-18.511,-18.719,16.49,-5.8456,7.0,-11.947,-1.99,4.9581,-8.9106,5.0081,-4.7712
-6.9652,-20.167999,-18.042999,-14.778,-19.482,-13.611,-22.334999,-7.9085,-14.213,-14.778,-19.482,-18.719,24.219,4.0066,10.0,-6.9967,-0.99502,14.003,-7.935,11.837,5.0327
-8.9552,-22.177999,-17.048,-9.8522,-15.599,-13.611,-21.32,-5.9477,-14.213,-9.8522,-15.599,-15.764,20.354,4.9918,6.0,-7.9868,-4.9751,-4.0871,-13.789,12.813,4.0523
-6.9652,-19.162001,-11.078,-2.9557,-7.8317,-7.3611,-16.243999,-2.0261,-11.168,-2.9557,-7.8317,-8.867,13.591,1.0509,3.0,-8.9769,-6.9652,-14.137,-16.715,6.9593,-1.8301
-5.9701,-12.127,-8.0929,1.9704,-2.9773,-2.1528,-10.152,-0.06536,-8.1218,1.9704,-2.9773,-2.9557,1.0306,-3.8752,-2.0,-9.967,-10.945,-2.0771,-12.813,2.0813,-3.7908
-8.9552,-10.117,-11.078,3.9409,-1.0356,-3.1944,-9.1371,0.91503,-7.1066,3.9409,-1.0356,-2.9557,-20.225,-16.683001,-14.0,-13.927,-18.905001,7.9732,-11.837,-11.577,-13.595
-8.9552,-6.0972,-9.0879,2.9557,1.877,-3.1944,-6.0914,-2.0261,-4.0609,2.9557,1.877,-2.9557,-39.549,-25.549999,-21.0,-14.917,-20.896,-6.0972,-6.9593,-19.382,-15.556
-8.9552,-4.0871,-7.0978,0.0,0.90615,-3.1944,-4.0609,-7.9085,-2.0305,0.0,0.90615,-0.98522,-51.143002,-31.461,-27.0,-15.908,-20.896,-15.142,-7.935,-29.138,-18.497
-13.93,-8.1072,-9.0879,-4.9261,-2.9773,-5.2778,-7.1066,-10.85,-5.0761,-4.9261,-2.9773,-2.9557,-54.042,-35.402,-31.0,-19.868,-21.891001,-9.1122,-9.8862,-36.943001,-20.458
-13.93,-12.127,-12.073,-9.8522,-8.8026,-6.3194,-9.1371,-8.8889,-10.152,-9.8522,-8.8026,-3.9409,-41.480999,-30.476,-26.0,-20.858,-18.905001,-0.067,-8.9106,-26.211,-25.358999
-20.896,-21.173,-20.033001,-18.719,-17.540001,-16.736,-18.274,-18.693001,-17.259001,-18.719,-17.540001,-13.793,-31.82,-27.521,-24.0,-24.818001,-19.9,-4.0871,-16.715,-22.309,-34.182999
-23.881001,-26.198,-25.007999,-25.615999,-21.424,-24.028,-23.35,-24.575001,-17.259001,-25.615999,-21.424,-19.704,-23.124001,-27.521,-21.0,-26.799,-19.9,-25.193001,-22.569,-20.358,-38.105
-23.881001,-28.208,-23.018,-24.631001,-23.365999,-24.028,-25.381001,-22.614,-17.259001,-24.631001,-23.365999,-20.690001,-17.327,-29.490999,-18.0,-27.789,-19.9,-27.202999,-23.545,-14.504,-34.182999
-21.891001,-26.198,-21.028,-22.66,-24.337,-19.861,-23.35,-19.673,-19.289,-22.66,-24.337,-18.719,-17.327,-33.431999,-16.0,-28.778999,-21.891001,-13.132,-18.667,-10.602,-27.32
-15.92,-19.162001,-15.058,-14.778,-17.540001,-11.528,-16.243999,-15.752,-14.213,-14.778,-17.540001,-10.837,-14.428,-30.476,-12.0,-26.799,-20.896,-15.142,-11.837,-2.7967,-24.379
-19.9,-18.157,-15.058,-11.823,-11.715,-13.611,-12.183,-16.732,-11.168,-11.823,-11.715,-7.8818,-14.428,-26.535,-15.0,-25.809,-23.881001,-24.188,-17.691,-11.577,-19.476999
-21.891001,-20.167999,-16.052999,-13.793,-9.7735,-16.736,-11.168,-22.614,-10.152,-13.793,-9.7735,-8.867,-14.428,-18.653999,-17.0,-24.818001,-26.865999,-14.137,-17.691,-14.504,-13.595
-18.905001,-17.152,-12.073,-12.808,-8.8026,-15.694,-9.1371,-19.673,-8.1218,-12.808,-8.8026,-7.8818,-13.462,-8.8013,-14.0,-17.888,-21.891001,-17.152,-11.837,-9.626,-5.7516
-18.905001,-12.127,-12.073,-12.808,-7.8317,-14.653,-8.1218,-10.85,-8.1218,-12.808,-7.8317,-9.8522,-15.395,-3.8752,-15.0,-9.967,-15.92,-18.157,-7.935,-6.6992,1.1111
-18.905001,-6.0972,-9.0879,-8.867,-4.9191,-12.569,-5.0761,-12.81,-5.0761,-8.867,-4.9191,-6.8966,-22.158001,-3.8752,-21.0,-5.0165,-11.94,-8.1072,-6.9593,-20.358,-3.7908
-19.9,-5.0921,-7.0978,-8.867,-4.9191,-11.528,-5.0761,-20.653999,-4.0609,-8.867,-4.9191,-5.9113,-27.955,-9.7865,-26.0,-6.0066,-11.94,-22.177999,-4.0325,-34.015999,-12.614
-12.935,-1.072,-2.1227,-7.8818,-3.9482,-6.3194,-2.0305,-17.712,-2.0305,-7.8818,-3.9482,-1.9704,-20.225,-7.8161,-18.0,-2.0462,-4.9751,-22.177999,-3.0569,-25.236,-15.556
-7.9602,-3.0821,-1.1277,-6.8966,-4.9191,-3.1944,-3.0457,-11.83,-2.0305,-6.8966,-4.9191,-0.98522,-10.564,-6.8309,-10.0,-2.0462,0.0,-0.067,-5.9837,-14.504,-17.516001
-9.9502,-5.0921,-4.1128,-8.867,-8.8026,-4.2361,-6.0914,-11.83,-4.0609,-8.867,-8.8026,-2.9557,-10.564,-11.757,-9.0,-6.0066,-2.9851,0.93802,-7.935,-12.553,-14.575
-11.94,-6.0972,-7.0978,-13.793,-12.686,-9.4444,-7.1066,-17.712,-5.0761,-13.793,-12.686,-5.9113,-15.395,-19.639,-10.0,-11.947,-7.9602,-12.127,-8.9106,-14.504,-15.556
-5.9701,-6.0972,-6.1028,-15.764,-15.599,-8.4028,-7.1066,-16.732,-8.1218,-15.764,-15.599,-4.9261,-16.361,-24.565001,-6.0,-13.927,-9.9502,-15.142,-11.837,-9.626,-17.516001
-3.9801,-9.1122,-6.1028,-18.719,-19.482,-8.4028,-10.152,-15.752,-14.213,-18.719,-19.482,-6.8966,-16.361,-26.535,-5.0,-16.898001,-11.94,-12.127,-13.789,-3.7724,-19.476999
-2.9851,-8.1072,-4.1128,-20.690001,-22.395,-7.3611,-10.152,-14.771,-16.243999,-20.690001,-22.395,-5.9113,-8.6312,-17.667999,-3.0,-12.937,-9.9502,-15.142,-9.8862,-1.8211,-13.595
2.9851,-3.0821,0.86235,-17.733999,-20.452999,-2.1528,-7.1066,-8.8889,-16.243999,-17.733999,-20.452999,-1.9704,1.0306,-2.89,2.0,-4.0264,-3.9801,5.9631,-6.9593,1.1057,-5.7516
2.9851,0.93802,1.8574,-14.778,-17.540001,-1.1111,-6.0914,-8.8889,-15.228,-14.778,-17.540001,-1.9704,3.9291,4.9918,2.0,1.9142,0.0,-1.072,-6.9593,-2.7967,-3.7908
3.9801,2.9481,1.8574,-11.823,-14.628,-1.1111,-4.0609,-5.9477,-14.213,-11.823,-14.628,-0.98522,1.0306,3.0213,3.0,2.9043,2.9851,0.93802,-8.9106,-2.7967,-3.7908
11.94,6.9682,6.8325,-6.8966,-9.7735,6.1806,2.0305,0.91503,-10.152,-6.8966,-9.7735,3.9409,3.9291,4.9918,9.0,8.8449,10.945,22.044001,-6.9593,4.0325,4.0523
7.9602,-0.067,1.8574,-5.9113,-6.8608,5.1389,1.0152,7.7778,-8.1218,-5.9113,-6.8608,0.98522,0.06441,0.06568,7.0,7.8548,9.9502,-5.0921,-6.9593,6.9593,-0.84967
0.99502,-6.0972,-4.1128,-6.8966,-6.8608,0.97222,-3.0457,0.91503,-8.1218,-6.8966,-6.8608,-2.9557,-5.7327,-5.8456,0.0,1.9142,2.9851,-20.167999,-10.862,-2.7967,-12.614
-0.99502,-5.0921,-4.1128,-6.8966,-6.8608,-1.1111,-4.0609,-4.9673,-6.0914,-6.8966,-6.8608,-3.9409,-8.6312,-10.772,-4.0,-2.0462,-0.99502,-14.137,-8.9106,-12.553,-15.556
-4.9751,-6.0972,-7.0978,-6.8966,-7.8317,-4.2361,-4.0609,-5.9477,-6.0914,-6.8966,-7.8317,-6.8966,-15.395,-17.667999,-7.0,-6.9967,-6.9652,-14.137,-9.8862,-17.431,-13.595
-3.9801,-4.0871,-6.1028,-5.9113,-7.8317,-3.1944,-3.0457,-5.9477,-9.1371,-5.9113,-7.8317,-3.9409,-14.428,-16.683001,-3.0,-5.0165,-5.9701,-4.0871,-12.813,-8.6504,-6.732
0.99502,-0.067,0.86235,-2.9557,-7.8317,-0.06944,-2.0305,-4.9673,-12.183,-2.9557,-7.8317,0.0,-3.8003,-6.8309,5.0,2.9043,1.99,10.988,-8.9106,5.9837,1.1111
4.9751,3.9531,8.8226,-0.98522,-6.8608,2.0139,-2.0305,-1.0458,-11.168,-0.98522,-6.8608,0.98522,5.8615,4.9918,11.0,11.815,9.9502,-2.0771,-3.0569,11.837,10.915
0.0,0.93802,5.8375,-7.8818,-11.715,-5.2778,-7.1066,-5.9477,-14.213,-7.8818,-11.715,-5.9113,8.7601,11.888,8.0,11.815,8.9552,-20.167999,-11.837,3.0569,8.9542
-4.9751,-7.1022,-2.1227,-14.778,-17.540001,-12.569,-12.183,-10.85,-17.259001,-14.778,-17.540001,-12.808,8.7601,12.874,4.0,4.8845,3.9801,-16.146999,-20.618,-3.7724,-0.84967
-8.9552,-8.1072,-8.0929,-19.704,-19.482,-16.736,-14.213,-15.752,-17.259001,-19.704,-19.482,-15.764,1.9968,5.977,-3.0,-1.0561,-0.99502,-3.0821,-18.667,-7.6748,0.13072
-11.94,-7.1022,-11.078,-20.690001,-21.424,-17.778,-17.259001,-15.752,-19.289,-20.690001,-21.424,-16.749001,-7.6651,-3.8752,-9.0,-5.0165,-3.9801,-10.117,-16.715,-7.6748,-7.7124
-2.9851,1.943,-1.1277,-16.749001,-18.511,-10.486,-12.183,-9.8693,-15.228,-16.749001,-18.511,-9.8522,-4.7665,-2.89,-3.0,0.92409,3.9801,-2.0771,-6.9593,-1.8211,-7.7124
4.9751,7.9732,7.8275,-12.808,-13.657,-6.3194,-4.0609,-7.9085,-9.1371,-12.808,-13.657,-2.9557,1.9968,1.0509,5.0,6.8647,10.945,8.9782,-2.0813,6.9593,1.1111
2.9851,7.9732,7.8275,-12.808,-9.7735,-7.3611,0.0,-8.8889,-4.0609,-12.808,-9.7735,-1.9704,6.8277,4.9918,7.0,10.825,11.94,-8.1072,5.7236,6.9593,12.876
-1.99,-0.067,0.86235,-13.793,-9.7735,-10.486,-3.0457,-10.85,-4.0609,-13.793,-9.7735,-4.9261,3.9291,4.9918,4.0,5.8746,5.9701,-11.122,-0.13008,0.13008,6.0131
-1.99,-4.0871,-2.1227,-12.808,-8.8026,-8.4028,-1.0152,-10.85,-2.0305,-12.808,-8.8026,-3.9409,-0.90177,1.0509,2.0,-0.06601,0.99502,-2.0771,-9.8862,-2.7967,-2.8105
-3.9801,-5.0921,-3.1177,-8.867,-5.89,-6.3194,2.0305,-10.85,2.0305,-8.867,-5.89,-0.98522,-5.7327,-5.8456,-3.0,-4.0264,-3.9801,-8.1072,-6.9593,-5.7236,-2.8105
-4.9751,-6.0972,-5.1078,-6.8966,-3.9482,-4.2361,3.0457,-3.0065,3.0457,-6.8966,-3.9482,-0.98522,-6.6989,-8.8013,-4.0,-5.0165,-5.9701,-5.0921,-5.9837,-1.8211,-4.7712
-5.9701,-6.0972,-8.0929,-11.823,-7.8317,-9.4444,-1.0152,-10.85,0.0,-11.823,-7.8317,-5.9113,1.9968,-0.91954,1.0,0.92409,-0.99502,1.943,-5.0081,6.9593,-2.8105
-11.94,-9.1122,-14.063,-17.733999,-13.657,-16.736,-7.1066,-20.653999,-5.0761,-17.733999,-13.657,-13.793,6.8277,5.977,1.0,3.8944,-0.99502,-2.0771,4.748,8.9106,2.0915
-11.94,-11.122,-18.042999,-20.690001,-17.540001,-19.861,-12.183,-17.712,-9.1371,-20.690001,-17.540001,-17.733999,13.591,12.874,3.0,2.9043,-0.99502,-8.1072,-2.0813,8.9106,1.1111
-16.915001,-19.162001,-26.003,-26.601,-24.337,-27.153,-21.32,-17.712,-16.243999,-26.601,-24.337,-25.615999,8.7601,7.9475,-5.0,-5.0165,-8.9552,-21.173,-21.593,3.0569,-6.732
-24.875999,-22.177999,-31.973,-30.542,-27.249001,-33.403,-25.381001,-21.634001,-18.274,-30.542,-27.249001,-32.512001,-2.8341,-2.89,-16.0,-10.957,-17.91,-13.132,-23.545,-5.7236,-9.6732
-27.861,-21.173,-31.973,-30.542,-27.249001,-36.528,-25.381001,-25.556,-18.274,-30.542,-27.249001,-33.498001,-12.496,-8.8013,-22.0,-11.947,-19.9,-16.146999,-17.691,-16.455,-7.7124
-27.861,-18.157,-27.993,-26.601,-23.365999,-34.444,-21.32,-24.575001,-16.243999,-26.601,-23.365999,-29.556999,-19.259001,-11.757,-26.0,-9.967,-20.896,-28.208,-9.8862,-26.211,-3.7908
-24.875999,-16.146999,-25.007999,-24.631001,-20.452999,-31.319,-17.259001,-21.634001,-12.183,-24.631001,-20.452999,-25.615999,-26.989,-17.667999,-29.0,-10.957,-22.886,-16.146999,-6.9593,-30.114,-9.6732
-19.9,-12.127,-22.023001,-22.66,-20.452999,-28.194,-14.213,-18.693001,-10.152,-22.66,-20.452999,-22.66,-30.853001,-22.594,-27.0,-11.947,-21.891001,-16.146999,-4.0325,-21.333,-14.575
-18.905001,-10.117,-21.028,-22.66,-20.452999,-27.153,-15.228,-17.712,-10.152,-22.66,-20.452999,-23.645,-30.853001,-28.506001,-26.0,-14.917,-21.891001,-28.208,-5.0081,-19.382,-15.556
-13.93,-9.1122,-17.048,-21.674999,-16.57,-24.028,-13.198,-15.752,-7.1066,-21.674999,-16.57,-21.674999,-23.124001,-30.476,-19.0,-14.917,-16.915001,-18.157,-7.935,-19.382,-16.535999
-4.9751,-6.0972,-9.0879,-19.704,-14.628,-20.903,-11.168,-12.81,-6.0914,-19.704,-14.628,-18.719,-14.428,-25.549999,-10.0,-11.947,-8.9552,-3.0821,-6.9593,-9.626,-11.634
0.0,-1.072,-1.1277,-15.764,-11.715,-16.736,-8.1218,-9.8693,-4.0609,-15.764,-11.715,-14.778,-3.8003,-15.698,-1.0,-6.0066,-0.99502,-3.0821,-5.0081,-3.7724,-6.732
-0.99502,2.9481,1.8574,-12.808,-7.8317,-15.694,-6.0914,-10.85,-1.0152,-12.808,-7.8317,-11.823,5.8615,-1.9048,5.0,0.92409,6.9652,-9.1122,0.84553,-0.84553,-5.7516
-1.99,5.9631,2.8524,-12.808,-8.8026,-16.736,-4.0609,-13.791,-1.0152,-12.808,-8.8026,-10.837,12.625,10.903,7.0,7.8548,12.935,0.93802,-0.13008,-1.8211,-3.7908
-0.99502,7.9732,4.8425,-12.808,-7.8317,-15.694,-1.0152,-14.771,0.0,-12.808,-7.8317,-6.8966,12.625,14.844,5.0,8.8449,12.935,-1.072,-0.13008,-5.7236,-1.8301
-9.9502,4.9581,2.8524,-16.749001,-8.8026,-19.861,0.0,-19.673,1.0152,-16.749001,-8.8026,-7.8818,2.963,7.9475,-7.0,1.9142,2.9851,-12.127,3.7724,-20.358,-5.7516
-18.905001,-0.067,-2.1227,-18.719,-11.715,-24.028,-3.0457,-22.614,-1.0152,-18.719,-11.715,-9.8522,-6.6989,2.0361,-19.0,-4.0264,-5.9701,-33.233002,1.8211,-29.138,-10.654
-19.9,-4.0871,-4.1128,-19.704,-13.657,-21.944,-4.0609,-21.634001,-4.0609,-19.704,-13.657,-10.837,-14.428,-4.8604,-24.0,-8.9769,-11.94,-37.252998,-5.0081,-26.211,-13.595
-18.905001,-7.1022,-6.1028,-18.719,-12.686,-19.861,-4.0609,-24.575001,-4.0609,-18.719,-12.686,-10.837,-24.09,-15.698,-29.0,-15.908,-19.9,-35.243,-11.837,-33.041,-17.516001
-15.92,-10.117,-8.0929,-15.764,-10.744,-15.694,-3.0457,-22.614,-4.0609,-15.764,-10.744,-8.867,-35.683998,-31.461,-32.0,-24.818001,-27.861,-24.188,-10.862,-37.918999,-25.358999
-7.9602,-10.117,-6.1028,-12.808,-8.8026,-9.4444,-1.0152,-12.81,-4.0609,-12.808,-8.8026,-3.9409,-42.448002,-41.313999,-28.0,-29.768999,-28.856001,-2.0771,-10.862,-25.236,-29.281
-2.9851,-7.1022,-2.1227,-9.8522,-5.89,-5.2778,2.0305,-13.791,-1.0152,-9.8522,-5.89,0.98522,-36.651001,-38.358002,-22.0,-25.809,-22.886,1.943,-8.9106,-22.309,-27.32
-2.9851,-7.1022,-3.1177,-7.8818,-4.9191,-4.2361,0.0,-12.81,-3.0457,-7.8818,-4.9191,0.0,-28.921,-27.521,-18.0,-20.858,-15.92,6.9682,-7.935,-23.285,-24.379
-5.9701,-6.0972,-4.1128,-7.8818,-5.89,-4.2361,-2.0305,-12.81,-6.0914,-7.8818,-5.89,-0.98522,-22.158001,-16.683001,-17.0,-13.927,-11.94,-12.127,-10.862,-20.358,-16.535999
-6.9652,-3.0821,-2.1227,-7.8818,-5.89,-1.1111,2.0305,-11.83,-4.0609,-7.8818,-5.89,1.9704,-13.462,-4.8604,-14.0,-5.0165,-5.9701,-27.202999,-8.9106,-13.528,-8.6928
-4.9751,-0.067,-0.13267,-5.9113,-2.9773,2.0139,6.0914,-6.9281,0.0,-5.9113,-2.9773,4.9261,-4.7665,2.0361,-12.0,-1.0561,-0.99502,-17.152,-3.0569,-11.577,-5.7516
-9.9502,-3.0821,-3.1177,-6.8966,-3.9482,0.97222,4.0609,-6.9281,-1.0152,-6.8966,-3.9482,1.9704,-7.6651,-3.8752,-18.0,-6.9967,-6.9652,-18.157,-5.9837,-22.309,-12.614
-20.896,-13.132,-12.073,-10.837,-10.744,-6.3194,-6.0914,-10.85,-9.1371,-10.837,-10.744,-5.9113,-22.158001,-17.667999,-31.0,-18.878,-19.9,-30.218,-12.813,-36.943001,-22.417999
-19.9,-10.117,-9.0879,-9.8522,-8.8026,-4.2361,-4.0609,-9.8693,-8.1218,-9.8522,-8.8026,-3.9409,-28.921,-15.698,-32.0,-17.888,-22.886,-26.198,-6.9593,-36.943001,-18.497
-18.905001,-12.127,-11.078,-9.8522,-7.8317,-6.3194,-4.0609,-12.81,-5.0761,-9.8522,-7.8317,-3.9409,-34.717999,-18.653999,-34.0,-20.858,-25.871,-18.157,-13.789,-37.918999,-20.458
-24.875999,-18.157,-20.033001,-14.778,-11.715,-13.611,-10.152,-18.693001,-10.152,-14.778,-11.715,-12.808,-43.414001,-27.521,-39.0,-26.799,-31.841,-23.183001,-24.52,-43.771999,-27.32
-22.886,-16.146999,-22.023001,-15.764,-12.686,-15.694,-10.152,-15.752,-10.152,-15.764,-12.686,-14.778,-40.514999,-26.535,-33.0,-23.827999,-28.856001,-24.188,-15.74,-39.869999,-23.399
-21.891001,-17.152,-24.013,-14.778,-12.686,-15.694,-9.1371,-9.8693,-9.1371,-14.778,-12.686,-14.778,-35.683998,-28.506001,-29.0,-23.827999,-27.861,-14.137,-11.837,-34.015999,-23.399
-18.905001,-18.157,-24.013,-16.749001,-13.657,-17.778,-10.152,-15.752,-8.1218,-16.749001,-13.657,-15.764,-27.955,-30.476,-23.0,-21.848,-24.875999,-23.183001,-12.813,-26.211,-17.516001
-9.9502,-12.127,-16.052999,-16.749001,-12.686,-16.736,-9.1371,-14.771,-7.1066,-16.749001,-12.686,-14.778,-13.462,-20.624001,-9.0,-10.957,-12.935,-21.173,-5.9837,-10.602,-7.7124
-8.9552,-12.127,-13.068,-16.749001,-12.686,-16.736,-12.183,-15.752,-9.1371,-16.749001,-12.686,-14.778,-6.6989,-10.772,-6.0,-6.9967,-7.9602,-13.132,-5.0081,-11.577,-10.654
-11.94,-9.1122,-10.083,-13.793,-7.8317,-14.653,-7.1066,-13.791,-5.0761,-13.793,-7.8317,-9.8522,-2.8341,0.06568,-7.0,-3.0363,-3.9801,-17.152,-4.0325,-15.48,-7.7124
-18.905001,-9.1122,-13.068,-13.793,-6.8608,-15.694,-7.1066,-8.8889,-3.0457,-13.793,-6.8608,-11.823,-8.6312,1.0509,-14.0,-3.0363,-7.9602,-13.132,-7.935,-19.382,-0.84967
-20.896,-12.127,-17.048,-17.733999,-11.715,-17.778,-11.168,-11.83,-6.0914,-17.733999,-11.715,-16.749001,-15.395,-1.9048,-19.0,-6.0066,-12.935,1.943,-11.837,-18.407,0.13072
-17.91,-6.0972,-12.073,-19.704,-12.686,-17.778,-10.152,-13.791,-5.0761,-19.704,-12.686,-15.764,-14.428,-1.9048,-16.0,-4.0264,-10.945,-11.122,-5.0081,-13.528,-2.8105
-0.99502,9.9832,3.8474,-14.778,-6.8608,-8.4028,1.0152,-10.85,1.0152,-14.778,-6.8608,-4.9261,1.0306,10.903,1.0,10.825,4.9751,-12.127,4.748,-0.84553,6.0131
11.94,18.023001,12.803,-9.8522,-2.9773,-1.1111,4.0609,-1.0458,5.0761,-9.8522,-2.9773,0.0,9.7262,17.799999,11.0,19.736,13.93,0.93802,12.553,6.9593,13.856
2.9851,4.9581,1.8574,-14.778,-8.8026,-8.4028,-5.0761,-4.9673,-1.0152,-14.778,-8.8026,-9.8522,-3.8003,1.0509,-3.0,6.8647,0.0,3.9531,1.8211,-6.6992,3.0719
-2.9851,-4.0871,-7.0978,-14.778,-9.7735,-10.486,-9.1371,-3.9869,-3.0457,-14.778,-9.7735,-12.808,-11.53,-9.7865,-8.0,-4.0264,-9.9502,-2.0771,-6.9593,-9.626,-7.7124
-3.9801,-12.127,-13.068,-13.793,-9.7735,-8.4028,-12.183,-3.9869,-5.0761,-13.793,-9.7735,-12.808,-9.5974,-13.727,-6.0,-9.967,-12.935,-5.0921,-6.9593,-3.7724,-13.595
-9.9502,-18.157,-18.042999,-13.793,-12.686,-10.486,-16.243999,-7.9085,-9.1371,-13.793,-12.686,-15.764,-7.6651,-15.698,-6.0,-13.927,-15.92,-8.1072,-13.789,-5.7236,-13.595
-8.9552,-16.146999,-15.058,-9.8522,-10.744,-5.2778,-12.183,-3.0065,-8.1218,-9.8522,-10.744,-10.837,3.9291,-3.8752,-1.0,-6.9967,-7.9602,-0.067,-10.862,-0.84553,-4.7712
-17.91,-21.173,-20.033001,-6.8966,-6.8608,-4.2361,-10.152,-1.0458,-7.1066,-6.8966,-6.8608,-9.8522,3.9291,0.06568,-6.0,-7.9868,-9.9502,11.993,-9.8862,1.1057,-6.732
-26.865999,-25.193001,-26.997999,-0.98522,-0.06472,-1.1111,-5.0761,0.91503,-3.0457,-0.98522,-0.06472,-5.9113,-0.90177,-0.91954,-13.0,-11.947,-16.915001,-3.0821,-6.9593,-3.7724,-7.7124
-30.846001,-25.193001,-28.988001,0.98522,3.8188,-0.06944,-3.0457,-0.06536,-3.0457,0.98522,3.8188,-3.9409,-2.8341,0.06568,-16.0,-12.937,-17.91,-17.152,-8.9106,-4.748,-7.7124
-27.861,-18.157,-25.007999,0.98522,2.8479,-1.1111,-3.0457,5.817,-3.0457,0.98522,2.8479,-3.9409,-2.8341,2.0361,-14.0,-8.9769,-13.93,-19.162001,-5.9837,-7.6748,-6.732
-17.91,-4.0871,-15.058,-1.9704,-1.0356,-5.2778,-5.0761,2.8758,-4.0609,-1.9704,-1.0356,-8.867,1.0306,4.0066,-5.0,-0.06601,-3.9801,-10.117,-1.1057,-5.7236,1.1111
0.0,7.9732,-1.1277,-6.8966,-3.9482,-8.4028,-5.0761,-3.0065,-3.0457,-6.8966,-3.9482,-11.823,6.8277,6.9622,6.0,10.825,7.9602,0.93802,-1.1057,3.0569,10.915
14.925,16.013,10.813,-9.8522,-6.8608,-9.4444,-6.0914,-4.9673,-4.0609,-9.8522,-6.8608,-12.808,14.557,8.9327,17.0,17.756001,16.915001,0.93802,1.8211,12.813,16.797001
21.891001,17.018,17.778,-16.749001,-13.657,-12.569,-12.183,-7.9085,-10.152,-16.749001,-13.657,-17.733999,14.557,4.9918,19.0,16.766001,16.915001,18.023001,6.6992,12.813,9.9346
32.835999,23.049,32.702999,-12.808,-12.686,-6.3194,-9.1371,-4.9673,-9.1371,-12.808,-12.686,-10.837,18.422001,6.9622,27.0,20.726,22.886,25.059,9.626,21.593,10.915
36.816002,26.063999,41.658001,-7.8818,-5.89,2.0139,-4.0609,-1.0458,-3.0457,-7.8818,-5.89,-2.9557,17.455999,6.9622,29.0,22.705999,25.871,5.9631,13.528,19.642,14.837
25.871,18.023001,36.682999,-8.867,-7.8317,-1.1111,-5.0761,-4.9673,-4.0609,-8.867,-7.8317,-2.9557,4.8953,-0.91954,16.0,13.795,16.915001,-1.072,11.577,6.9593,6.0131
21.891001,17.018,36.682999,-6.8966,-3.9482,2.0139,1.0152,-3.0065,-1.0152,-6.8966,-3.9482,2.9557,7.7939,6.9622,16.0,13.795,17.91,8.9782,10.602,10.862,4.0523
18.905001,18.023001,33.698002,-2.9557,-0.06472,5.1389,6.0914,-1.0458,2.0305,-2.9557,-0.06472,6.8966,17.455999,19.77,19.0,18.746,19.9,5.9631,10.602,18.667,13.856
5.9701,7.9732,19.768,-4.9261,-2.9773,-1.1111,-1.0152,-4.9673,-3.0457,-4.9261,-2.9773,-0.98522,17.455999,18.785,11.0,11.815,11.94,-2.0771,-1.1057,8.9106,8.9542
-3.9801,-2.0771,7.8275,-6.8966,-4.9191,-4.2361,-7.1066,-8.8889,-7.1066,-6.8966,-4.9191,-5.9113,16.49,13.859,5.0,3.8944,2.9851,-9.1122,-10.862,0.13008,5.0327
-7.9602,-8.1072,-1.1277,-3.9409,-1.0356,-3.1944,-6.0914,0.91503,-6.0914,-3.9409,-1.0356,-5.9113,5.8615,3.0213,-4.0,-4.0264,-6.9652,-13.132,-11.837,-3.7724,0.13072
-8.9552,-11.122,-6.1028,1.9704,2.8479,-1.1111,-4.0609,-1.0458,-4.0609,1.9704,2.8479,-3.9409,-11.53,-11.757,-12.0,-11.947,-14.925,-14.137,-9.8862,-8.6504,-5.7516
-1.99,-7.1022,0.86235,5.9113,6.7314,5.1389,2.0305,-3.9869,0.0,5.9113,6.7314,3.9409,-20.225,-21.608999,-12.0,-12.937,-13.93,-10.117,-1.1057,-8.6504,-6.732
0.0,-4.0871,5.8375,3.9409,4.7896,4.0972,2.0305,-3.0065,0.0,3.9409,4.7896,3.9409,-23.124001,-25.549999,-9.0,-10.957,-9.9502,0.93802,1.8211,-8.6504,-8.6928
-0.99502,-4.0871,5.8375,2.9557,3.8188,-0.06944,-1.0152,-3.0065,-1.0152,2.9557,3.8188,-0.98522,-16.361,-20.624001,-5.0,-6.0066,-3.9801,14.003,-2.0813,-9.626,-8.6928
-1.99,-0.067,6.8325,2.9557,6.7314,-0.06944,2.0305,-1.0458,2.0305,2.9557,6.7314,0.0,-3.8003,-5.8456,1.0,3.8944,4.9751,9.9832,-3.0569,-4.748,-0.84967
-5.9701,-1.072,0.86235,2.9557,7.7023,-1.1111,3.0457,-1.0458,2.0305,2.9557,7.7023,0.0,1.0306,0.06568,1.0,3.8944,2.9851,-7.1022,-5.9837,0.13008,0.13072
-3.9801,1.943,3.8474,1.9704,8.6731,-0.06944,6.0914,-2.0261,3.0457,1.9704,8.6731,2.9557,7.7939,5.977,6.0,6.8647,2.9851,-7.1022,-0.13008,5.9837,5.0327
-6.9652,0.93802,2.8524,0.0,7.7023,-3.1944,4.0609,-3.0065,3.0457,0.0,7.7023,-0.98522,5.8615,1.0509,5.0,1.9142,0.0,-5.0921,2.7967,7.935,1.1111
-8.9552,-2.0771,-1.1277,-2.9557,5.7605,-6.3194,1.0152,-6.9281,3.0457,-2.9557,5.7605,-4.9261,1.9968,-6.8309,1.0,-6.0066,-3.9801,-3.0821,5.7236,2.0813,-6.732
-4.9751,2.9481,0.86235,0.98522,7.7023,-1.1111,6.0914,-3.0065,8.1218,0.98522,7.7023,-0.98522,1.0306,-9.7865,2.0,-6.9967,-2.9851,0.93802,3.7724,3.0569,-9.6732
-3.9801,4.9581,1.8574,4.9261,9.644,3.0556,9.1371,-0.06536,11.168,4.9261,9.644,2.9557,-4.7665,-11.757,-2.0,-5.0165,-3.9801,0.93802,2.7967,0.13008,-4.7712
-1.99,5.9631,4.8425,4.9261,8.6731,2.0139,9.1371,-3.0065,9.1371,4.9261,8.6731,3.9409,-6.6989,-8.8013,-3.0,-1.0561,-0.99502,-10.117,1.8211,-3.7724,2.0915
-0.99502,3.9531,4.8425,5.9113,8.6731,0.97222,6.0914,-1.0458,6.0914,5.9113,8.6731,2.9557,-4.7665,-3.8752,-1.0,2.9043,2.9851,-11.122,-0.13008,-6.6992,2.0915
0.0,-0.067,-0.13267,4.9261,4.7896,-1.1111,2.0305,-2.0261,3.0457,4.9261,4.7896,-0.98522,-8.6312,-0.91954,-3.0,2.9043,0.99502,-7.1022,0.84553,-10.602,0.13072
4.9751,-0.067,-1.1277,6.8966,8.6731,5.1389,5.0761,3.8562,6.0914,6.8966,8.6731,1.9704,-11.53,1.0509,-2.0,3.8944,0.0,1.943,8.6504,-5.7236,2.0915
2.9851,-0.067,-3.1177,8.867,12.557,6.1806,5.0761,7.7778,7.1066,8.867,12.557,1.9704,-13.462,-2.89,-3.0,0.92409,-4.9751,0.93802,13.528,-2.7967,5.0327
-4.9751,-6.0972,-8.0929,5.9113,9.644,0.97222,-1.0152,-3.9869,2.0305,5.9113,9.644,-2.9557,-15.395,-10.772,-8.0,-6.9967,-12.935,3.9531,3.7724,-6.6992,2.0915
-6.9652,-10.117,-10.083,7.8818,9.644,0.97222,-3.0457,-5.9477,1.0152,7.8818,9.644,-1.9704,-7.6651,-13.727,-7.0,-11.947,-15.92,3.9531,-4.0325,-5.7236,-5.7516
-3.9801,-10.117,-9.0879,11.823,11.586,6.1806,-1.0152,2.8758,1.0152,11.823,11.586,1.9704,3.9291,-9.7865,-1.0,-12.937,-14.925,-5.0921,-1.1057,1.1057,-2.8105
-3.9801,-14.137,-11.078,10.837,8.6731,6.1806,-4.0609,3.8562,-3.0457,10.837,8.6731,0.0,7.7939,-7.8161,-1.0,-15.908,-15.92,-13.132,-5.0081,0.13008,0.13072
-8.9552,-19.162001,-16.052999,6.8966,4.7896,0.97222,-8.1218,0.91503,-7.1066,6.8966,4.7896,-4.9261,1.9968,-9.7865,-7.0,-20.858,-20.896,-5.0921,-5.9837,-3.7724,-5.7516
-9.9502,-17.152,-16.052999,4.9261,2.8479,-1.1111,-6.0914,-1.0458,-5.0761,4.9261,2.8479,-4.9261,1.9968,-3.8752,-7.0,-15.908,-17.91,-1.072,1.8211,-0.84553,-2.8105
-15.92,-18.157,-21.028,0.98522,-0.06472,-6.3194,-8.1218,-6.9281,-5.0761,0.98522,-0.06472,-8.867,-3.8003,-2.89,-12.0,-10.957,-15.92,-4.0871,-0.13008,-3.7724,-0.84967
-19.9,-19.162001,-24.013,-2.9557,-0.06472,-10.486,-10.152,-11.83,-4.0609,-2.9557,-0.06472,-10.837,-7.6651,0.06568,-13.0,-6.0066,-12.935,-14.137,-6.9593,-3.7724,1.1111
-16.915001,-15.142,-20.033001,-1.9704,0.90615,-9.4444,-7.1066,-8.8889,-3.0457,-1.9704,0.90615,-7.8818,-5.7327,5.977,-11.0,0.92409,-5.9701,-4.0871,-7.935,-6.6992,4.0523
-14.925,-12.127,-16.052999,-1.9704,-0.06472,-9.4444,-8.1218,-8.8889,-5.0761,-1.9704,-0.06472,-8.867,-4.7665,9.9179,-9.0,5.8746,-0.99502,-8.1072,-5.0081,-11.577,6.0131
-9.9502,-9.1122,-11.078,-0.98522,-1.0356,-5.2778,-7.1066,-6.9281,-6.0914,-0.98522,-1.0356,-6.8966,2.963,14.844,-3.0,8.8449,3.9801,-8.1072,-4.0325,-7.6748,6.0131
-6.9652,-8.1072,-9.0879,4.9261,1.877,-0.06944,-4.0609,-4.9673,-4.0609,4.9261,1.877,-3.9409,6.8277,13.859,0.0,6.8647,2.9851,-9.1122,-6.9593,-0.84553,4.0523
-5.9701,-9.1122,-8.0929,10.837,8.6731,4.0972,-1.0152,-0.06536,-1.0152,10.837,8.6731,-0.98522,5.8615,6.9622,1.0,0.92409,-2.9851,-7.1022,-6.9593,6.9593,-0.84967
-3.9801,-10.117,-7.0978,10.837,10.615,4.0972,-1.0152,1.8954,-2.0305,10.837,10.615,-0.98522,5.8615,1.0509,2.0,-4.0264,-6.9652,-5.0921,-6.9593,11.837,-3.7908
5.9701,-0.067,3.8474,15.764,16.440001,11.389,6.0914,7.7778,4.0609,15.764,16.440001,6.8966,21.32,11.888,14.0,3.8944,2.9851,5.9631,2.7967,26.472,7.9739
5.9701,-0.067,5.8375,14.778,14.498,12.431,3.0457,15.621,1.0152,14.778,14.498,3.9409,24.219,14.844,15.0,5.8746,4.9751,14.003,1.8211,29.398001,10.915
1.99,-1.072,1.8574,10.837,8.6731,9.3056,-2.0305,7.7778,-3.0457,10.837,8.6731,0.0,18.422001,12.874,8.0,5.8746,1.99,12.998,1.8211,18.667,7.9739
0.0,4.9581,3.8474,8.867,6.7314,9.3056,0.0,-0.06536,-2.0305,8.867,6.7314,1.9704,15.523,13.859,5.0,9.835,3.9801,0.93802,2.7967,7.935,8.9542
-0.99502,8.9782,7.8275,8.867,6.7314,8.2639,4.0609,-0.06536,1.0152,8.867,6.7314,3.9409,14.557,16.813999,6.0,15.776,9.9502,-7.1022,-0.13008,-0.84553,14.837
-1.99,15.008,10.813,7.8818,8.6731,7.2222,8.1218,-1.0458,5.0761,7.8818,8.6731,4.9261,16.49,22.726,9.0,21.716,15.92,-6.0972,5.7236,1.1057,23.66
-0.99502,15.008,10.813,3.9409,5.7605,5.1389,6.0914,-3.0065,2.0305,3.9409,5.7605,3.9409,18.422001,28.636999,12.0,23.695999,19.9,-3.0821,1.8211,5.0081,21.698999
5.9701,14.003,11.808,4.9261,4.7896,8.2639,6.0914,2.8758,1.0152,4.9261,4.7896,2.9557,24.219,33.563,20.0,25.677,24.875999,-0.067,-0.13008,11.837,19.739
11.94,11.993,12.803,6.8966,4.7896,10.347,5.0761,6.7974,0.0,6.8966,4.7896,2.9557,22.287001,31.593,24.0,22.705999,23.881001,9.9832,-0.13008,19.642,16.797001
16.915001,12.998,16.783001,8.867,5.7605,12.431,8.1218,7.7778,2.0305,8.867,5.7605,7.8818,18.422001,26.667,24.0,21.716,21.891001,19.028,5.7236,23.545,19.739
17.91,12.998,18.773001,11.823,9.644,15.556,11.168,5.817,5.0761,11.823,9.644,11.823,16.49,18.785,23.0,16.766001,18.905001,22.044001,12.553,28.423,16.797001
12.935,8.9782,16.783001,12.808,10.615,14.514,13.198,5.817,5.0761,12.808,10.615,13.793,19.388,13.859,21.0,8.8449,12.935,1.943,8.6504,24.52,5.0327
17.91,9.9832,19.768,13.793,13.528,18.681,17.259001,7.7778,9.1371,13.793,13.528,17.733999,28.084,16.813999,25.0,6.8647,14.925,4.9581,4.748,27.447001,3.0719
22.886,18.023001,25.738001,16.749001,16.440001,22.847,22.334999,15.621,12.183,16.749001,16.440001,21.674999,34.847,22.726,30.0,14.785,21.891001,24.054001,6.6992,32.325001,13.856
19.9,21.039,24.743,17.733999,17.410999,20.764,21.32,15.621,11.168,17.733999,17.410999,20.690001,33.881001,27.652,28.0,22.705999,25.871,24.054001,8.6504,26.472,19.739
5.9701,12.998,13.798,11.823,12.557,10.347,13.198,2.8758,5.0761,11.823,12.557,11.823,21.32,20.754999,16.0,20.726,18.905001,3.9531,5.7236,13.789,17.778
4.9751,15.008,12.803,6.8966,9.644,9.3056,13.198,-2.0261,4.0609,6.8966,9.644,11.823,18.422001,23.711,15.0,26.667,20.896,-3.0821,9.626,12.813,27.582001
7.9602,19.028,16.783001,5.9113,10.615,13.472,17.259001,2.8758,9.1371,5.9113,10.615,14.778,18.422001,28.636999,18.0,30.627001,23.881001,-3.0821,16.455,14.764,31.503
15.92,23.049,19.768,6.8966,11.586,15.556,20.305,4.8366,14.213,6.8966,11.586,16.749001,21.32,32.577999,22.0,32.606998,26.865999,16.013,20.358,21.593,34.444
16.915001,18.023001,19.768,4.9261,8.6731,14.514,16.243999,6.7974,11.168,4.9261,8.6731,14.778,22.287001,32.577999,21.0,27.657,23.881001,23.049,10.602,14.764,24.641001
16.915001,9.9832,16.783001,2.9557,4.7896,12.431,9.1371,4.8366,4.0609,2.9557,4.7896,11.823,18.422001,26.667,19.0,19.736,18.905001,15.008,4.748,12.813,16.797001
18.905001,5.9631,15.788,5.9113,2.8479,17.639,7.1066,11.699,1.0152,5.9113,2.8479,12.808,15.523,18.785,19.0,12.805,14.925,15.008,1.8211,16.715,10.915
13.93,1.943,9.8176,7.8818,0.90615,19.722,2.0305,13.66,-3.0457,7.8818,0.90615,10.837,5.8615,4.9918,11.0,0.92409,3.9801,2.9481,-5.9837,8.9106,-5.7516
13.93,6.9682,10.813,8.867,2.8479,21.806,5.0761,14.641,0.0,8.867,2.8479,11.823,1.9968,-2.89,8.0,-5.0165,-0.99502,11.993,-2.0813,6.9593,-7.7124
8.9552,8.9782,5.8375,5.9113,1.877,16.597,5.0761,10.719,2.0305,5.9113,1.877,8.867,-0.90177,-9.7865,5.0,-6.9967,-4.9751,6.9682,6.6992,6.9593,-3.7908
8.9552,8.9782,4.8425,6.8966,0.90615,14.514,6.0914,9.7386,5.0761,6.8966,0.90615,8.867,2.963,-11.757,7.0,-4.0264,-2.9851,19.028,7.6748,10.862,2.0915
10.945,12.998,7.8275,4.9261,-0.06472,13.472,7.1066,8.7582,4.0609,4.9261,-0.06472,9.8522,11.659,-5.8456,13.0,6.8647,6.9652,12.998,6.6992,15.74,8.9542
19.9,20.034,14.793,5.9113,1.877,16.597,10.152,9.7386,6.0914,5.9113,1.877,11.823,25.184999,13.859,25.0,22.705999,22.886,7.9732,9.626,28.423,17.778
27.861,25.059,20.763,8.867,6.7314,22.847,16.243999,17.582001,11.168,8.867,6.7314,16.749001,36.778999,34.548,34.0,37.557999,35.820999,18.023001,13.528,36.228001,28.562
25.871,22.044001,17.778,9.8522,6.7314,20.764,16.243999,14.641,11.168,9.8522,6.7314,15.764,37.745998,42.43,31.0,40.528,36.816002,25.059,13.528,27.447001,31.503
10.945,6.9682,3.8474,3.9409,0.90615,9.3056,6.0914,2.8758,3.0457,3.9409,0.90615,4.9261,22.287001,28.636999,15.0,25.677,21.891001,17.018,10.602,7.935,23.66
6.9652,3.9531,0.86235,1.9704,-0.06472,8.2639,4.0609,2.8758,2.0305,1.9704,-0.06472,3.9409,13.591,19.77,9.0,15.776,11.94,3.9531,10.602,3.0569,16.797001
7.9602,1.943,1.8574,0.0,-2.0065,9.3056,3.0457,3.8562,2.0305,0.0,-2.0065,5.9113,2.963,8.9327,5.0,2.9043,2.9851,14.003,6.6992,3.0569,-2.8105
-2.9851,-11.122,-7.0978,-5.9113,-7.8317,2.0139,-6.0914,-1.0458,-6.0914,-5.9113,-7.8317,-1.9704,-21.191999,-17.667999,-10.0,-19.868,-16.915001,4.9581,-10.862,-8.6504,-24.379
-4.9751,-14.137,-8.0929,-5.9113,-6.8608,2.0139,-7.1066,-3.9869,-7.1066,-5.9113,-6.8608,0.0,-29.886999,-31.461,-16.0,-29.768999,-25.871,-10.117,-16.715,-8.6504,-23.399
-0.99502,-10.117,-3.1177,-1.9704,-3.9482,6.1806,-4.0609,-1.0458,-5.0761,-1.9704,-3.9482,3.9409,-23.124001,-30.476,-11.0,-30.759001,-25.871,-7.1022,-13.789,0.13008,-20.458
-0.99502,-7.1022,-3.1177,0.0,-2.0065,6.1806,-2.0305,-0.06536,-2.0305,0.0,-2.0065,3.9409,-17.327,-27.521,-10.0,-26.799,-23.881001,-5.0921,-6.9593,1.1057,-17.516001
-2.9851,-4.0871,-4.1128,0.98522,-1.0356,5.1389,0.0,0.91503,1.0152,0.98522,-1.0356,3.9409,-9.5974,-19.639,-10.0,-16.898001,-18.905001,-4.0871,-4.0325,-4.748,-11.634
-5.9701,-6.0972,-7.0978,-0.98522,-3.9482,0.97222,-4.0609,-1.0458,-2.0305,-0.98522,-3.9482,0.0,-3.8003,-8.8013,-10.0,-6.9967,-11.94,-9.1122,-4.0325,-11.577,-5.7516
-4.9751,-4.0871,-5.1078,-2.9557,-5.89,-1.1111,-7.1066,-3.0065,-3.0457,-2.9557,-5.89,-2.9557,8.7601,10.903,-1.0,8.8449,2.9851,-1.072,0.84553,-8.6504,6.9935
-0.99502,-2.0771,-2.1227,-2.9557,-7.8317,-3.1944,-9.1371,-1.0458,-5.0761,-2.9557,-7.8317,-4.9261,14.557,23.711,8.0,18.746,13.93,11.993,-0.13008,4.0325,14.837
1.99,-1.072,0.86235,-0.98522,-4.9191,-2.1528,-7.1066,-1.0458,-5.0761,-0.98522,-4.9191,-3.9409,15.523,25.681,13.0,20.726,16.915001,4.9581,0.84553,13.789,19.739
-0.99502,-6.0972,-3.1177,0.0,-2.0065,-2.1528,-7.1066,0.91503,-6.0914,0.0,-2.0065,-3.9409,8.7601,17.799999,7.0,12.805,10.945,-3.0821,-1.1057,8.9106,12.876
-7.9602,-15.142,-10.083,-2.9557,-3.9482,-4.2361,-12.183,2.8758,-8.1218,-2.9557,-3.9482,-8.867,-1.868,4.9918,-4.0,-0.06601,-0.99502,8.9782,-8.9106,-2.7967,-3.7908
-16.915001,-19.162001,-15.058,-7.8818,-6.8608,-13.611,-17.259001,-7.9085,-10.152,-7.8818,-6.8608,-15.764,-8.6312,-6.8309,-10.0,-10.957,-9.9502,-8.1072,-11.837,-5.7236,-13.595
-19.9,-18.157,-15.058,-9.8522,-8.8026,-19.861,-18.274,-15.752,-11.168,-9.8522,-8.8026,-19.704,-11.53,-15.698,-12.0,-17.888,-14.925,-18.157,-12.813,-6.6992,-19.476999
-17.91,-15.142,-14.063,-10.837,-6.8608,-20.903,-16.243999,-13.791,-8.1218,-10.837,-6.8608,-19.704,-12.496,-18.653999,-14.0,-20.858,-17.91,-15.142,-10.862,-10.602,-20.458
-17.91,-13.132,-16.052999,-9.8522,-6.8608,-18.819,-12.183,-10.85,-5.0761,-9.8522,-6.8608,-17.733999,-15.395,-21.608999,-19.0,-24.818001,-23.881001,-9.1122,-5.0081,-15.48,-18.497
-19.9,-19.162001,-21.028,-10.837,-8.8026,-17.778,-13.198,-7.9085,-6.0914,-10.837,-8.8026,-16.749001,-26.023001,-31.461,-28.0,-34.719002,-34.826,8.9782,-11.837,-19.382,-25.358999
-27.861,-21.173,-25.007999,-13.793,-11.715,-21.944,-16.243999,-13.791,-9.1371,-13.793,-11.715,-19.704,-37.617001,-39.342999,-39.0,-37.689999,-43.780998,-17.152,-9.8862,-25.236,-24.379
-26.865999,-13.132,-19.038,-12.808,-8.8026,-20.903,-12.183,-13.791,-6.0914,-12.808,-8.8026,-15.764,-31.82,-27.521,-35.0,-23.827999,-32.835999,-26.198,-0.13008,-31.089001,-10.654
-23.881001,-8.1072,-16.052999,-14.778,-9.7735,-22.986,-12.183,-16.732,-5.0761,-14.778,-9.7735,-16.749001,-13.462,-5.8456,-22.0,-6.0066,-14.925,-22.177999,-1.1057,-28.163,1.1111
-24.875999,-10.117,-19.038,-16.749001,-12.686,-27.153,-16.243999,-18.693001,-7.1066,-16.749001,-12.686,-20.690001,1.0306,10.903,-11.0,2.9043,-2.9851,-23.183001,-5.9837,-20.358,3.0719
-18.905001,-7.1022,-16.052999,-14.778,-10.744,-22.986,-15.228,-12.81,-6.0914,-14.778,-10.744,-18.719,12.625,21.740999,0.0,8.8449,5.9701,-4.0871,-5.0081,-6.6992,3.0719
-15.92,-10.117,-16.052999,-14.778,-12.686,-20.903,-16.243999,-9.8693,-9.1371,-14.778,-12.686,-16.749001,7.7939,13.859,-3.0,2.9043,1.99,-2.0771,-5.0081,-1.8211,-0.84967
-14.925,-14.137,-16.052999,-16.749001,-15.599,-19.861,-18.274,-9.8693,-11.168,-16.749001,-15.599,-16.749001,-1.868,0.06568,-9.0,-6.0066,-5.9701,-6.0972,-8.9106,-2.7967,-6.732
-14.925,-18.157,-16.052999,-16.749001,-15.599,-19.861,-19.289,-7.9085,-10.152,-16.749001,-15.599,-17.733999,-8.6312,-12.742,-13.0,-15.908,-14.925,-16.146999,-12.813,-4.748,-13.595
-16.915001,-22.177999,-20.033001,-17.733999,-15.599,-21.944,-21.32,-7.9085,-11.168,-17.733999,-15.599,-19.704,-17.327,-26.535,-21.0,-28.778999,-25.871,-16.146999,-12.813,-11.577,-23.399
-14.925,-23.183001,-23.018,-16.749001,-13.657,-17.778,-20.305,0.91503,-10.152,-16.749001,-13.657,-17.733999,-24.09,-36.388,-27.0,-38.68,-36.816002,-7.1022,-12.813,-13.528,-29.281
-11.94,-21.173,-22.023001,-11.823,-8.8026,-9.4444,-12.183,1.8954,-5.0761,-11.823,-8.8026,-10.837,-34.717999,-43.284,-32.0,-44.619999,-43.780998,7.9732,-4.0325,-17.431,-31.242001
-12.935,-19.162001,-19.038,-8.867,-6.8608,-6.3194,-7.1066,-3.9869,-3.0457,-8.867,-6.8608,-6.8966,-38.583,-41.313999,-36.0,-39.669998,-41.791,-1.072,-5.0081,-28.163,-27.32
-15.92,-16.146999,-17.048,-8.867,-5.89,-8.4028,-6.0914,-7.9085,-1.0152,-8.867,-5.89,-6.8966,-31.82,-31.461,-34.0,-28.778999,-31.841,-31.223,-9.8862,-33.041,-23.399
-11.94,-10.117,-14.063,-10.837,-6.8608,-9.4444,-6.0914,-7.9085,-2.0305,-10.837,-6.8608,-7.8818,-19.259001,-16.683001,-22.0,-13.927,-16.915001,-19.162001,-7.935,-22.309,-18.497
-3.9801,-4.0871,-7.0978,-9.8522,-8.8026,-7.3611,-7.1066,-3.9869,-4.0609,-9.8522,-8.8026,-7.8818,-1.868,4.0066,-9.0,1.9142,-0.99502,1.943,-4.0325,-12.553,-1.8301
-5.9701,-5.0921,-9.0879,-9.8522,-10.744,-8.4028,-11.168,-1.0458,-7.1066,-9.8522,-10.744,-10.837,8.7601,16.813999,-4.0,7.8548,4.9751,-14.137,-1.1057,-12.553,8.9542
-9.9502,-10.117,-14.063,-11.823,-14.628,-11.528,-15.228,-3.9869,-11.168,-11.823,-14.628,-14.778,6.8277,15.829,-6.0,3.8944,0.0,-12.127,-3.0569,-11.577,6.9935
-8.9552,-15.142,-16.052999,-10.837,-14.628,-13.611,-17.259001,-4.9673,-13.198,-10.837,-14.628,-17.733999,-0.90177,6.9622,-8.0,-4.0264,-6.9652,-5.0921,-6.9593,-5.7236,-1.8301
-4.9751,-16.146999,-15.058,-5.9113,-10.744,-10.486,-14.213,-0.06536,-11.168,-5.9113,-10.744,-14.778,-6.6989,-1.9048,-9.0,-11.947,-12.935,1.943,-7.935,2.0813,-4.7712
-3.9801,-18.157,-14.063,-4.9261,-8.8026,-7.3611,-12.183,0.91503,-10.152,-4.9261,-8.8026,-13.793,-14.428,-12.742,-16.0,-20.858,-19.9,10.988,-9.8862,-9.626,-13.595
-3.9801,-16.146999,-11.078,-2.9557,-5.89,-5.2778,-8.1218,1.8954,-7.1066,-2.9557,-5.89,-9.8522,-22.158001,-23.58,-21.0,-28.778999,-25.871,1.943,-11.837,-13.528,-21.438
-0.99502,-14.137,-8.0929,3.9409,2.8479,-0.06944,-1.0152,6.7974,0.0,3.9409,2.8479,-1.9704,-26.023001,-34.417,-19.0,-36.700001,-29.851,-5.0921,-11.837,-3.7724,-27.32
1.99,-14.137,-4.1128,10.837,9.644,5.1389,2.0305,15.621,3.0457,10.837,9.644,3.9409,-33.751999,-52.151001,-19.0,-45.611,-35.820999,6.9682,-9.8862,-0.84553,-35.162998
6.9652,-6.0972,4.8425,15.764,14.498,10.347,8.1218,13.66,8.1218,15.764,14.498,10.837,-35.683998,-62.002998,-14.0,-41.650002,-28.856001,15.008,-4.0325,-1.8211,-33.202999
5.9701,1.943,8.8226,13.793,12.557,8.2639,9.1371,6.7974,8.1218,13.793,12.557,10.837,-26.023001,-52.151001,-8.0,-25.809,-14.925,19.028,-3.0569,-2.7967,-26.34
6.9652,12.998,13.798,7.8818,9.644,7.2222,10.152,4.8366,9.1371,7.8818,9.644,8.867,-1.868,-17.667999,5.0,-0.06601,6.9652,10.988,5.7236,2.0813,-7.7124
15.92,25.059,24.743,10.837,12.557,13.472,17.259001,8.7582,13.198,10.837,12.557,16.749001,29.049999,23.711,23.0,25.677,30.846001,-3.0821,14.504,9.8862,16.797001
5.9701,16.013,18.773001,3.9409,6.7314,4.0972,9.1371,2.8758,5.0761,3.9409,6.7314,8.867,33.881001,34.548,20.0,26.667,31.841,-19.162001,3.7724,6.9593,15.817
0.0,4.9581,8.8226,-1.9704,-2.9773,-6.3194,-1.0152,-2.0261,-4.0609,-1.9704,-2.9773,-0.98522,23.253,27.652,12.0,17.756001,22.886,-5.0921,-5.9837,5.0081,11.895
7.9602,4.9581,9.8176,-2.9557,-5.89,-3.1944,-3.0457,-0.06536,-8.1218,-2.9557,-5.89,-1.9704,16.49,25.681,13.0,15.776,18.905001,15.008,-5.9837,14.764,13.856
6.9652,0.93802,4.8425,-4.9261,-7.8317,-5.2778,-7.1066,-2.0261,-11.168,-4.9261,-7.8317,-4.9261,3.9291,14.844,5.0,8.8449,8.9552,24.054001,-6.9593,5.9837,7.9739
2.9851,-2.0771,1.8574,-3.9409,-6.8608,-7.3611,-6.0914,-3.9869,-10.152,-3.9409,-6.8608,-4.9261,-3.8003,5.977,-1.0,-1.0561,-0.99502,6.9682,-8.9106,4.0325,-0.84967
1.99,-3.0821,-0.13267,-3.9409,-6.8608,-6.3194,-4.0609,-0.06536,-10.152,-3.9409,-6.8608,-3.9409,-8.6312,-3.8752,-2.0,-8.9769,-6.9652,8.9782,-7.935,9.8862,-5.7516
0.99502,-2.0771,-0.13267,-3.9409,-7.8317,-6.3194,-4.0609,-0.06536,-12.183,-3.9409,-7.8317,-3.9409,-8.6312,-7.8161,0.0,-11.947,-8.9552,-0.067,-0.13008,8.9106,-7.7124
5.9701,3.9531,4.8425,-0.98522,-6.8608,-2.1528,0.0,2.8758,-11.168,-0.98522,-6.8608,0.0,-1.868,-7.8161,8.0,-6.9967,-0.99502,2.9481,0.84553,15.74,-6.732
7.9602,7.9732,8.8226,2.9557,-2.0065,0.97222,3.0457,-0.06536,-9.1371,2.9557,-2.0065,3.9409,3.9291,-12.742,12.0,-2.0462,6.9652,1.943,-2.0813,10.862,-11.634
11.94,14.003,15.788,3.9409,0.90615,4.0972,7.1066,-0.06536,-6.0914,3.9409,0.90615,6.8966,9.7262,-8.8013,16.0,7.8548,18.905001,14.003,-3.0569,10.862,-10.654
15.92,22.044001,21.757999,6.8966,3.8188,7.2222,10.152,5.817,-3.0457,6.8966,3.8188,10.837,21.32,7.9475,24.0,21.716,32.835999,14.003,0.84553,14.764,1.1111
11.94,23.049,21.757999,5.9113,4.7896,5.1389,11.168,0.91503,0.0,5.9113,4.7896,10.837,28.084,22.726,24.0,29.636999,37.811001,3.9531,7.6748,11.837,12.876
9.9502,22.044001,17.778,7.8818,6.7314,6.1806,12.183,0.91503,2.0305,7.8818,6.7314,12.808,30.016001,32.577999,23.0,32.606998,35.820999,2.9481,13.528,15.74,25.621
5.9701,20.034,13.798,8.867,6.7314,6.1806,11.168,0.91503,2.0305,8.867,6.7314,11.823,24.219,33.563,17.0,30.627001,27.861,9.9832,12.553,13.789,27.582001
6.9652,20.034,14.793,7.8818,5.7605,7.2222,10.152,-0.06536,2.0305,7.8818,5.7605,12.808,18.422001,30.608,13.0,28.646999,21.891001,10.988,11.577,6.9593,27.582001
7.9602,17.018,15.788,5.9113,6.7314,7.2222,10.152,3.8562,2.0305,5.9113,6.7314,12.808,15.523,29.622,13.0,25.677,19.9,15.008,10.602,7.935,24.641001
2.9851,7.9732,8.8226,0.98522,4.7896,-0.06944,5.0761,0.91503,3.0457,0.98522,4.7896,4.9261,7.7939,22.726,9.0,16.766001,12.935,2.9481,5.7236,5.0081,17.778
2.9851,5.9631,6.8325,-0.98522,3.8188,-2.1528,2.0305,-2.0261,3.0457,-0.98522,3.8188,1.9704,1.9968,17.799999,7.0,11.815,9.9502,-0.067,8.6504,3.0569,19.739
2.9851,4.9581,6.8325,1.9704,2.8479,2.0139,2.0305,2.8758,0.0,1.9704,2.8479,4.9261,-3.8003,8.9327,4.0,6.8647,6.9652,5.9631,4.748,3.0569,15.817
1.99,1.943,2.8524,1.9704,1.877,4.0972,2.0305,7.7778,-1.0152,1.9704,1.877,4.9261,-2.8341,-4.8604,2.0,-0.06601,2.9851,9.9832,1.8211,-1.8211,5.0327
5.9701,4.9581,4.8425,2.9557,3.8188,5.1389,4.0609,6.7974,2.0305,2.9557,3.8188,4.9261,8.7601,-5.8456,9.0,1.9142,9.9502,8.9782,4.748,1.1057,-0.84967
7.9602,6.9682,6.8325,3.9409,3.8188,4.0972,5.0761,-0.06536,3.0457,3.9409,3.8188,4.9261,17.455999,3.0213,15.0,9.835,18.905001,9.9832,2.7967,8.9106,-0.84967
3.9801,5.9631,3.8474,1.9704,0.90615,-0.06944,2.0305,-1.0458,0.0,1.9704,0.90615,1.9704,20.354,11.888,14.0,15.776,21.891001,12.998,0.84553,8.9106,6.9935
2.9851,7.9732,2.8524,-0.98522,-2.0065,-3.1944,1.0152,-2.0261,-2.0305,-0.98522,-2.0065,0.98522,24.219,23.711,16.0,21.716,22.886,14.003,7.6748,13.789,19.739
-3.9801,2.9481,-2.1227,-5.9113,-4.9191,-8.4028,-4.0609,-3.9869,-6.0914,-5.9113,-4.9191,-4.9261,19.388,22.726,7.0,17.756001,14.925,6.9682,8.6504,7.935,18.757999
-4.9751,-2.0771,-3.1177,-8.867,-8.8026,-7.3611,-8.1218,-3.9869,-11.168,-8.867,-8.8026,-5.9113,11.659,18.785,0.0,11.815,6.9652,-6.0972,2.7967,1.1057,16.797001
-0.99502,-1.072,0.86235,-7.8818,-10.744,-2.1528,-8.1218,-0.06536,-13.198,-7.8818,-10.744,-2.9557,6.8277,16.813999,0.0,8.8449,3.9801,-8.1072,-3.0569,0.13008,13.856
0.0,0.93802,4.8425,-8.867,-9.7735,-0.06944,-5.0761,-1.0458,-11.168,-8.867,-9.7735,0.98522,-2.8341,10.903,-5.0,4.8845,-0.99502,-2.0771,-4.0325,-3.7724,3.0719
-6.9652,-2.0771,0.86235,-12.808,-11.715,-6.3194,-6.0914,-7.9085,-11.168,-12.808,-11.715,-2.9557,-20.225,-4.8604,-17.0,-6.9967,-13.93,-0.067,-7.935,-13.528,-5.7516
-13.93,-4.0871,-4.1128,-12.808,-11.715,-12.569,-5.0761,-9.8693,-10.152,-12.808,-11.715,-5.9113,-31.82,-18.653999,-22.0,-14.917,-21.891001,0.93802,-5.0081,-16.455,-6.732
-6.9652,2.9481,0.86235,-6.8966,-6.8608,-7.3611,1.0152,-3.9869,-6.0914,-6.8966,-6.8608,0.0,-22.158001,-18.653999,-9.0,-5.0165,-12.935,4.9581,5.7236,-0.84553,4.0523
-5.9701,0.93802,0.86235,-6.8966,-7.8317,-7.3611,-3.0457,-3.9869,-9.1371,-6.8966,-7.8317,-1.9704,-13.462,-18.653999,-4.0,-0.06601,-4.9751,7.9732,0.84553,-0.84553,-0.84967
-7.9602,-2.0771,-0.13267,-7.8818,-7.8317,-8.4028,-7.1066,0.91503,-10.152,-7.8818,-7.8317,-4.9261,-3.8003,-12.742,-4.0,2.9043,0.0,-8.1072,-5.0081,-8.6504,-6.732
-8.9552,-3.0821,-2.1227,-6.8966,-3.9482,-8.4028,-5.0761,-3.0065,-6.0914,-6.8966,-3.9482,-2.9557,3.9291,-2.89,-4.0,4.8845,2.9851,-14.137,-5.9837,-6.6992,-2.8105
-11.94,-9.1122,-5.1078,-4.9261,-3.9482,-7.3611,-6.0914,-6.9281,-7.1066,-4.9261,-3.9482,-2.9557,1.9968,-0.91954,-7.0,0.92409,0.0,-2.0771,-9.8862,-4.748,-4.7712
-14.925,-13.132,-7.0978,-3.9409,-3.9482,-6.3194,-8.1218,-8.8889,-11.168,-3.9409,-3.9482,-3.9409,-1.868,1.0509,-12.0,-3.0363,-4.9751,-10.117,-16.715,-10.602,-9.6732
-16.915001,-14.137,-10.083,-4.9261,-4.9191,-8.4028,-10.152,-8.8889,-14.213,-4.9261,-4.9191,-6.8966,-6.6989,0.06568,-16.0,-7.9868,-11.94,-17.152,-18.667,-17.431,-10.654
-17.91,-14.137,-12.073,-5.9113,-2.9773,-10.486,-10.152,-10.85,-12.183,-5.9113,-2.9773,-6.8966,-8.6312,-2.89,-17.0,-10.957,-14.925,-0.067,-12.813,-15.48,-9.6732
-16.915001,-13.132,-11.078,-3.9409,-0.06472,-11.528,-9.1371,-11.83,-10.152,-3.9409,-0.06472,-6.8966,-14.428,-8.8013,-17.0,-15.908,-18.905001,-1.072,-9.8862,-12.553,-12.614
-12.935,-10.117,-8.0929,0.0,1.877,-6.3194,-5.0761,-5.9477,-8.1218,0.0,1.877,-2.9557,-14.428,-9.7865,-14.0,-13.927,-18.905001,-10.117,-13.789,-9.626,-8.6928
-11.94,-9.1122,-7.0978,0.98522,1.877,-6.3194,-4.0609,-3.0065,-7.1066,0.98522,1.877,-2.9557,-22.158001,-13.727,-16.0,-13.927,-18.905001,-10.117,-17.691,-14.504,-7.7124
-8.9552,-6.0972,-5.1078,0.0,3.8188,-8.4028,-3.0457,-4.9673,-4.0609,0.0,3.8188,-3.9409,-26.989,-17.667999,-13.0,-9.967,-13.93,-9.1122,-10.862,-11.577,-7.7124
-5.9701,-3.0821,-3.1177,-0.98522,3.8188,-8.4028,-3.0457,-6.9281,-3.0457,-0.98522,3.8188,-4.9261,-17.327,-13.727,-4.0,-2.0462,-1.99,-12.127,-4.0325,-6.6992,-6.732
0.0,-0.067,-0.13267,0.98522,3.8188,-2.1528,-1.0152,-2.0261,-3.0457,0.98522,3.8188,-2.9557,2.963,2.0361,8.0,9.835,12.935,-5.0921,-1.1057,-4.748,-0.84967
5.9701,0.93802,2.8524,1.9704,1.877,0.97222,-2.0305,0.91503,-6.0914,1.9704,1.877,-2.9557,15.523,12.874,16.0,16.766001,20.896,-5.0921,-5.9837,0.13008,4.0523
4.9751,-0.067,2.8524,0.0,-1.0356,-0.06944,-4.0609,0.91503,-9.1371,0.0,-1.0356,-3.9409,21.32,16.813999,18.0,15.776,20.896,-10.117,-4.0325,1.1057,1.1111
8.9552,0.93802,3.8474,2.9557,0.90615,2.0139,-2.0305,4.8366,-5.0761,2.9557,0.90615,-0.98522,25.184999,20.754999,22.0,15.776,20.896,16.013,-1.1057,11.837,4.0523
9.9502,1.943,3.8474,1.9704,-1.0356,-0.06944,-3.0457,6.7974,-6.0914,1.9704,-1.0356,-1.9704,21.32,17.799999,20.0,12.805,16.915001,27.069,-4.0325,11.837,3.0719
8.9552,1.943,5.8375,0.98522,-1.0356,-0.06944,-2.0305,-1.0458,-7.1066,0.98522,-1.0356,0.0,16.49,11.888,16.0,6.8647,10.945,10.988,-3.0569,8.9106,1.1111
6.9652,2.9481,7.8275,2.9557,2.8479,3.0556,2.0305,-4.9673,-6.0914,2.9557,2.8479,5.9113,5.8615,2.0361,9.0,-1.0561,2.9851,-12.127,-3.0569,5.0081,-4.7712
2.9851,1.943,8.8226,1.9704,3.8188,3.0556,5.0761,-3.0065,-5.0761,1.9704,3.8188,9.8522,-7.6651,-8.8013,-1.0,-9.967,-7.9602,-12.127,-5.9837,0.13008,-13.595
2.9851,4.9581,9.8176,0.98522,4.7896,4.0972,7.1066,-2.0261,-1.0152,0.98522,4.7896,11.823,-15.395,-13.727,-7.0,-10.957,-12.935,0.93802,0.84553,-5.7236,-12.614
0.99502,2.9481,5.8375,-2.9557,1.877,0.97222,5.0761,-3.9869,-1.0152,-2.9557,1.877,8.867,-19.259001,-19.639,-8.0,-11.947,-13.93,0.93802,0.84553,-9.626,-10.654
3.9801,5.9631,6.8325,-4.9261,-0.06472,-0.06944,6.0914,-4.9673,0.0,-4.9261,-0.06472,8.867,-5.7327,-8.8013,3.0,0.92409,0.0,-6.0972,0.84553,-4.748,0.13072
5.9701,9.9832,8.8226,-3.9409,1.877,-0.06944,8.1218,-3.9869,4.0609,-3.9409,1.877,9.8522,11.659,8.9327,14.0,14.785,13.93,0.93802,3.7724,5.0081,10.915
5.9701,10.988,9.8176,-2.9557,0.90615,2.0139,8.1218,-3.0065,4.0609,-2.9557,0.90615,11.823,22.287001,20.754999,16.0,22.705999,19.9,17.018,8.6504,11.837,17.778
1.99,8.9782,3.8474,-3.9409,-1.0356,0.97222,6.0914,-2.0261,1.0152,-3.9409,-1.0356,8.867,24.219,24.695999,11.0,21.716,16.915001,9.9832,9.626,8.9106,17.778
-4.9751,2.9481,-4.1128,-4.9261,-3.9482,-5.2778,1.0152,-3.9869,-3.0457,-4.9261,-3.9482,2.9557,19.388,20.754999,4.0,13.795,9.9502,6.9682,0.84553,0.13008,8.9542
-2.9851,3.9531,-3.1177,-2.9557,-2.0065,-4.2361,2.0305,-3.9869,-1.0152,-2.9557,-2.0065,4.9261,11.659,13.859,0.0,7.8548,6.9652,6.9682,-4.0325,-3.7724,1.1111
-0.99502,2.9481,-1.1277,-2.9557,0.90615,-1.1111,6.0914,0.91503,3.0457,-2.9557,0.90615,6.8966,1.0306,3.0213,-3.0,0.92409,1.99,-3.0821,-1.1057,-5.7236,-9.6732
2.9851,3.9531,2.8524,-0.98522,3.8188,3.0556,10.152,3.8562,9.1371,-0.98522,3.8188,8.867,-5.7327,-5.8456,-3.0,-6.0066,-2.9851,-9.1122,4.748,0.13008,-14.575
8.9552,3.9531,5.8375,2.9557,5.7605,7.2222,10.152,8.7582,11.168,2.9557,5.7605,10.837,-15.395,-19.639,-5.0,-13.927,-9.9502,10.988,8.6504,0.13008,-17.516001
6.9652,-0.067,0.86235,1.9704,2.8479,6.1806,4.0609,8.7582,5.0761,1.9704,2.8479,7.8818,-29.886999,-38.358002,-14.0,-25.809,-19.9,19.028,6.6992,-11.577,-22.417999
10.945,2.9481,1.8574,3.9409,3.8188,10.347,4.0609,12.68,5.0761,3.9409,3.8188,9.8522,-30.853001,-40.327999,-10.0,-22.837999,-17.91,15.008,9.626,-10.602,-19.476999
11.94,6.9682,3.8474,4.9261,3.8188,12.431,7.1066,8.7582,7.1066,4.9261,3.8188,10.837,-23.124001,-29.490999,-2.0,-9.967,-6.9652,3.9531,8.6504,-6.6992,-11.634
6.9652,7.9732,-0.13267,0.98522,1.877,7.2222,6.0914,4.8366,7.1066,0.98522,1.877,6.8966,-8.6312,-10.772,4.0,4.8845,3.9801,1.943,5.7236,-2.7967,-0.84967
5.9701,8.9782,-2.1227,0.0,2.8479,4.0972,5.0761,6.7974,8.1218,0.0,2.8479,2.9557,7.7939,10.903,12.0,16.766001,12.935,14.003,7.6748,5.9837,9.9346
3.9801,6.9682,-4.1128,-0.98522,1.877,0.97222,3.0457,1.8954,7.1066,-0.98522,1.877,1.9704,19.388,21.740999,16.0,18.746,14.925,6.9682,7.6748,18.667,12.876
0.99502,4.9581,-3.1177,-4.9261,-1.0356,-1.1111,1.0152,-0.06536,4.0609,-4.9261,-1.0356,1.9704,26.150999,24.695999,14.0,16.766001,14.925,16.013,4.748,15.74,11.895
-4.9751,-1.072,-7.0978,-7.8818,-5.89,-4.2361,-2.0305,-3.9869,0.0,-7.8818,-5.89,-0.98522,19.388,17.799999,2.0,7.8548,5.9701,10.988,2.7967,-3.7724,5.0327
-9.9502,-7.1022,-12.073,-6.8966,-5.89,-5.2778,-4.0609,-3.0065,-1.0152,-6.8966,-5.89,-1.9704,8.7601,10.903,-8.0,1.9142,-2.9851,-11.122,3.7724,-12.553,0.13072
-15.92,-12.127,-18.042999,-7.8818,-5.89,-9.4444,-6.0914,-5.9477,-2.0305,-7.8818,-5.89,-5.9113,-1.868,4.0066,-16.0,-4.0264,-10.945,-26.198,-3.0569,-21.333,-4.7712
-13.93,-13.132,-17.048,-5.9113,-3.9482,-9.4444,-5.0761,-5.9477,1.0152,-5.9113,-3.9482,-4.9261,-6.6989,3.0213,-15.0,-6.9967,-12.935,-17.152,-3.0569,-17.431,-2.8105
-13.93,-14.137,-18.042999,-4.9261,-4.9191,-9.4444,-8.1218,-3.9869,0.0,-4.9261,-4.9191,-6.8966,-19.259001,-7.8161,-19.0,-13.927,-18.905001,-2.0771,-3.0569,-16.455,-8.6928
-11.94,-11.122,-16.052999,-3.9409,-3.9482,-8.4028,-7.1066,-2.0261,-1.0152,-3.9409,-3.9482,-6.8966,-36.651001,-23.58,-23.0,-20.858,-23.881001,1.943,-5.9837,-16.455,-17.516001
-5.9701,-4.0871,-10.083,-0.98522,-1.0356,-4.2361,-2.0305,6.7974,3.0457,-0.98522,-1.0356,-2.9557,-38.583,-33.431999,-18.0,-21.848,-18.905001,-1.072,-6.9593,-15.48,-24.379
-0.99502,1.943,-4.1128,2.9557,3.8188,-2.1528,0.0,6.7974,6.0914,2.9557,3.8188,-0.98522,-26.989,-33.431999,-7.0,-15.908,-8.9552,0.93802,-4.0325,-7.6748,-26.34
1.99,4.9581,-3.1177,5.9113,6.7314,-4.2361,-1.0152,1.8954,7.1066,5.9113,6.7314,-2.9557,-6.6989,-20.624001,3.0,-6.9967,1.99,3.9531,1.8211,3.0569,-20.458
5.9701,6.9682,-0.13267,5.9113,6.7314,-5.2778,0.0,2.8758,7.1066,5.9113,6.7314,-3.9409,14.557,1.0509,13.0,6.8647,12.935,11.993,4.748,16.715,-7.7124
6.9652,7.9732,2.8524,3.9409,6.7314,-5.2778,1.0152,3.8562,9.1371,3.9409,6.7314,-5.9113,26.150999,17.799999,15.0,15.776,17.91,15.008,7.6748,15.74,5.0327
11.94,7.9732,4.8425,2.9557,6.7314,-6.3194,1.0152,3.8562,11.168,2.9557,6.7314,-5.9113,30.982,30.608,16.0,21.716,19.9,-4.0871,9.626,8.9106,16.797001
15.92,6.9682,5.8375,4.9261,6.7314,-4.2361,0.0,4.8366,9.1371,4.9261,6.7314,-5.9113,29.049999,33.563,16.0,22.705999,18.905001,-10.117,8.6504,9.8862,18.757999
12.935,4.9581,5.8375,9.8522,6.7314,-0.06944,-1.0152,17.582001,6.0914,9.8522,6.7314,-4.9261,24.219,30.608,13.0,17.756001,16.915001,1.943,6.6992,10.862,15.817
10.945,0.93802,5.8375,11.823,7.7023,2.0139,0.0,14.641,7.1066,11.823,7.7023,-2.9557,13.591,19.77,8.0,10.825,9.9502,15.008,4.748,7.935,13.856
6.9652,-1.072,2.8524,8.867,6.7314,0.97222,-1.0152,6.7974,4.0609,8.867,6.7314,-2.9557,-2.8341,4.0066,-3.0,1.9142,-1.99,12.998,2.7967,4.0325,10.915
5.9701,5.9631,5.8375,8.867,6.7314,3.0556,4.0609,8.7582,6.0914,8.867,6.7314,1.9704,-8.6312,-0.91954,-7.0,1.9142,-4.9751,16.013,4.748,5.9837,11.895
8.9552,18.023001,12.803,7.8818,6.7314,4.0972,11.168,6.7974,9.1371,7.8818,6.7314,7.8818,-4.7665,0.06568,-1.0,7.8548,0.99502,27.069,14.504,5.9837,15.817
6.9652,21.039,12.803,4.9261,3.8188,0.97222,11.168,0.91503,9.1371,4.9261,3.8188,6.8966,-6.6989,-4.8604,0.0,9.835,2.9851,10.988,17.431,3.0569,11.895
5.9701,22.044001,12.803,3.9409,3.8188,-0.06944,10.152,-3.0065,10.152,3.9409,3.8188,6.8966,-0.90177,-0.91954,6.0,14.785,9.9502,-9.1122,14.504,5.0081,8.9542
4.9751,20.034,12.803,2.9557,2.8479,0.97222,7.1066,-1.0458,8.1218,2.9557,2.8479,5.9113,12.625,10.903,11.0,20.726,16.915001,-16.146999,10.602,3.0569,8.9542
2.9851,14.003,8.8226,0.98522,-1.0356,-1.1111,2.0305,-2.0261,3.0457,0.98522,-1.0356,2.9557,18.422001,18.785,10.0,20.726,18.905001,-19.162001,7.6748,-0.84553,8.9542
3.9801,11.993,6.8325,1.9704,-2.9773,-1.1111,3.0457,-0.06536,5.0761,1.9704,-2.9773,2.9557,21.32,23.711,10.0,20.726,19.9,-9.1122,11.577,-1.8211,9.9346
2.9851,8.9782,4.8425,0.0,-2.9773,-0.06944,4.0609,3.8562,6.0914,0.0,-2.9773,2.9557,17.455999,21.740999,7.0,15.776,15.92,2.9481,9.626,-3.7724,10.915
1.99,6.9682,3.8474,0.98522,-1.0356,-1.1111,4.0609,-1.0458,7.1066,0.98522,-1.0356,1.9704,12.625,17.799999,5.0,11.815,10.945,1.943,5.7236,0.13008,14.837
0.99502,5.9631,1.8574,2.9557,1.877,2.0139,3.0457,-1.0458,8.1218,2.9557,1.877,1.9704,7.7939,9.9179,1.0,6.8647,3.9801,-9.1122,4.748,-3.7724,13.856
-3.9801,-3.0821,-7.0978,4.9261,0.90615,0.97222,-2.0305,4.8366,5.0761,4.9261,0.90615,-2.9557,-7.6651,-10.772,-10.0,-9.967,-11.94,-5.0921,-0.13008,-10.602,-0.84967
-3.9801,-6.0972,-11.078,8.867,2.8479,3.0556,-3.0457,8.7582,3.0457,8.867,2.8479,-2.9557,-24.09,-28.506001,-18.0,-22.837999,-23.881001,5.9631,-0.13008,-10.602,-11.634
-2.9851,-2.0771,-11.078,11.823,6.7314,4.0972,1.0152,10.719,7.1066,11.823,6.7314,-0.98522,-30.853001,-32.446999,-20.0,-23.827999,-27.861,7.9732,5.7236,-7.6748,-11.634
-0.99502,0.93802,-10.083,11.823,7.7023,3.0556,3.0457,9.7386,8.1218,11.823,7.7023,-0.98522,-26.989,-24.565001,-18.0,-16.898001,-26.865999,1.943,11.577,-3.7724,0.13072
-2.9851,1.943,-9.0879,7.8818,3.8188,-1.1111,0.0,7.7778,5.0761,7.8818,3.8188,-3.9409,-16.361,-11.757,-16.0,-7.9868,-21.891001,-4.0871,13.528,-4.748,8.9542
-0.99502,6.9682,-3.1177,5.9113,1.877,-3.1944,1.0152,2.8758,7.1066,5.9113,1.877,-3.9409,-0.90177,5.977,-7.0,5.8746,-7.9602,1.943,12.553,-1.8211,14.837
5.9701,15.008,7.8275,7.8818,5.7605,-0.06944,8.1218,2.8758,13.198,7.8818,5.7605,1.9704,15.523,22.726,5.0,19.736,8.9552,-0.067,13.528,6.9593,24.641001
8.9552,20.034,15.788,10.837,10.615,4.0972,12.183,6.7974,16.243999,10.837,10.615,7.8818,23.253,26.667,9.0,24.686001,16.915001,1.943,14.504,3.0569,27.582001
11.94,21.039,20.763,11.823,11.586,7.2222,13.198,13.66,14.213,11.823,11.586,10.837,22.287001,22.726,11.0,21.716,18.905001,11.993,14.504,1.1057,19.739
13.93,20.034,23.747999,11.823,12.557,7.2222,14.213,8.7582,14.213,11.823,12.557,12.808,12.625,13.859,8.0,15.776,15.92,2.9481,13.528,-0.84553,10.915
17.91,21.039,24.743,12.808,13.528,11.389,18.274,7.7778,15.228,12.808,13.528,16.749001,3.9291,4.9918,7.0,12.805,12.935,-0.067,17.431,3.0569,7.9739
9.9502,12.998,16.783001,13.793,13.528,9.3056,16.243999,10.719,13.198,13.793,13.528,15.764,-10.564,-9.7865,-3.0,1.9142,0.99502,7.9732,13.528,1.1057,3.0719
3.9801,7.9732,10.813,14.778,13.528,9.3056,16.243999,10.719,13.198,14.778,13.528,15.764,-18.292999,-20.624001,-10.0,-6.0066,-6.9652,-1.072,8.6504,-1.8211,-0.84967
7.9602,8.9782,10.813,15.764,14.498,12.431,15.228,15.621,13.198,15.764,14.498,14.778,-16.361,-20.624001,-9.0,-6.9967,-7.9602,-6.0972,4.748,-4.748,-1.8301
11.94,7.9732,11.808,13.793,11.586,11.389,11.168,14.641,12.183,13.793,11.586,12.808,-13.462,-18.653999,-7.0,-6.9967,-6.9652,3.9531,0.84553,-5.7236,-4.7712
14.925,10.988,15.788,15.764,10.615,13.472,11.168,14.641,11.168,15.764,10.615,12.808,-1.868,-5.8456,3.0,0.92409,0.99502,10.988,4.748,2.0813,-0.84967
22.886,19.028,22.753,16.749001,14.498,20.764,16.243999,18.562,15.228,16.749001,14.498,17.733999,13.591,14.844,16.0,14.785,13.93,20.034,16.455,12.813,13.856
27.861,25.059,27.728001,18.719,17.410999,23.889,19.289,19.542,18.274,18.719,17.410999,21.674999,25.184999,31.593,25.0,26.667,23.881001,23.049,22.309,23.545,25.621
22.886,20.034,21.757999,15.764,14.498,15.556,13.198,17.582001,13.198,15.764,14.498,13.793,21.32,32.577999,22.0,23.695999,19.9,26.063999,14.504,27.447001,22.68
11.94,14.003,15.788,12.808,11.586,7.2222,7.1066,14.641,10.152,12.808,11.586,4.9261,11.659,24.695999,12.0,17.756001,12.935,15.008,9.626,20.618,16.797001
4.9751,15.008,16.783001,11.823,12.557,4.0972,7.1066,2.8758,9.1371,11.823,12.557,4.9261,8.7601,20.754999,5.0,17.756001,11.94,-12.127,11.577,4.0325,21.698999
2.9851,15.008,16.783001,12.808,13.528,4.0972,7.1066,-0.06536,7.1066,12.808,13.528,4.9261,1.9968,10.903,-1.0,13.795,7.9602,-16.146999,7.6748,-1.8211,19.739
2.9851,11.993,15.788,15.764,13.528,9.3056,9.1371,6.7974,5.0761,15.764,13.528,8.867,-6.6989,-4.8604,-8.0,2.9043,0.0,-6.0972,1.8211,-4.748,8.9542
5.9701,14.003,18.773001,19.704,19.353001,14.514,16.243999,7.7778,12.183,19.704,19.353001,15.764,-10.564,-12.742,-8.0,-3.0363,-1.99,0.93802,6.6992,-6.6992,0.13072
6.9652,15.008,20.763,19.704,21.294001,14.514,19.289,9.7386,14.213,19.704,21.294001,18.719,-13.462,-16.683001,-7.0,-7.9868,-2.9851,1.943,8.6504,-8.6504,-7.7124
0.0,6.9682,10.813,14.778,13.528,9.3056,12.183,4.8366,7.1066,14.778,13.528,11.823,-24.09,-26.535,-14.0,-17.888,-9.9502,-13.132,2.7967,-20.358,-22.417999
-2.9851,1.943,4.8425,11.823,7.7023,6.1806,8.1218,0.91503,4.0609,11.823,7.7023,8.867,-27.955,-29.490999,-16.0,-18.878,-9.9502,-18.157,-5.0081,-20.358,-25.358999
-1.99,1.943,1.8574,9.8522,6.7314,6.1806,7.1066,4.8366,5.0761,9.8522,6.7314,6.8966,-18.292999,-21.608999,-10.0,-13.927,-5.9701,-1.072,-5.9837,-15.48,-17.516001
-6.9652,-2.0771,-5.1078,5.9113,1.877,-1.1111,1.0152,1.8954,2.0305,5.9113,1.877,0.98522,-9.5974,-16.683001,-8.0,-11.947,-8.9552,-5.0921,-1.1057,-9.626,-12.614
-9.9502,-3.0821,-9.0879,4.9261,1.877,-3.1944,2.0305,0.91503,4.0609,4.9261,1.877,0.0,-0.90177,-5.8456,-6.0,-6.9967,-9.9502,-14.137,0.84553,5.0081,-2.8105
-7.9602,-3.0821,-9.0879,3.9409,2.8479,-3.1944,2.0305,-1.0458,4.0609,3.9409,2.8479,0.98522,10.692,8.9327,-1.0,0.92409,-4.9751,-15.142,-1.1057,7.935,9.9346
-3.9801,0.93802,-6.1028,6.8966,6.7314,2.0139,5.0761,4.8366,5.0761,6.8966,6.7314,4.9261,16.49,18.785,3.0,11.815,0.99502,-19.162001,2.7967,5.0081,21.698999
-6.9652,1.943,-6.1028,11.823,9.644,5.1389,7.1066,2.8758,4.0609,11.823,9.644,7.8818,13.591,19.77,1.0,14.785,2.9851,-21.173,-1.1057,2.0813,21.698999
-6.9652,-0.067,-5.1078,15.764,12.557,9.3056,9.1371,2.8758,5.0761,15.764,12.557,10.837,9.7262,17.799999,-2.0,13.795,4.9751,-11.122,-3.0569,-5.7236,18.757999
0.0,2.9481,-0.13267,20.690001,17.410999,15.556,15.228,11.699,11.168,20.690001,17.410999,15.764,7.7939,16.813999,1.0,13.795,7.9602,1.943,2.7967,-3.7724,19.739
0.99502,0.93802,-2.1227,19.704,15.469,14.514,12.183,10.719,10.152,19.704,15.469,12.808,-2.8341,4.9918,-3.0,6.8647,2.9851,-1.072,1.8211,-3.7724,12.876
2.9851,-1.072,-1.1277,21.674999,17.410999,16.597,12.183,13.66,9.1371,21.674999,17.410999,13.793,-18.292999,-11.757,-9.0,-3.0363,-4.9751,1.943,-3.0569,-6.6992,-0.84967
7.9602,0.93802,1.8574,23.645,19.353001,19.722,14.213,16.601,7.1066,23.645,19.353001,15.764,-31.82,-26.535,-14.0,-11.947,-11.94,7.9732,-4.0325,-12.553,-8.6928
10.945,4.9581,5.8375,23.645,17.410999,21.806,16.243999,18.562,7.1066,23.645,17.410999,17.733999,-36.651001,-30.476,-16.0,-13.927,-12.935,-1.072,-2.0813,-17.431,-11.634
4.9751,1.943,2.8524,21.674999,15.469,17.639,15.228,13.66,6.0914,21.674999,15.469,15.764,-38.583,-29.490999,-20.0,-14.917,-16.915001,-15.142,-4.0325,-23.285,-13.595
-3.9801,-6.0972,-6.1028,16.749001,10.615,10.347,9.1371,8.7582,2.0305,16.749001,10.615,9.8522,-35.683998,-28.506001,-21.0,-19.868,-21.891001,-15.142,-5.0081,-21.333,-18.497
-11.94,-12.127,-13.068,8.867,1.877,2.0139,2.0305,2.8758,-3.0457,8.867,1.877,0.98522,-26.023001,-24.565001,-18.0,-21.848,-23.881001,-10.117,-8.9106,-15.48,-24.379
-12.935,-10.117,-13.068,4.9261,-0.06472,-1.1111,0.0,-0.06536,-2.0305,4.9261,-0.06472,-0.98522,-9.5974,-12.742,-13.0,-13.927,-18.905001,-2.0771,-8.9106,-9.626,-14.575
-13.93,-9.1122,-12.073,1.9704,-0.06472,-3.1944,-1.0152,5.817,-1.0152,1.9704,-0.06472,-3.9409,4.8953,-0.91954,-5.0,-4.0264,-10.945,-3.0821,-10.862,-0.84553,-3.7908
-14.925,-13.132,-14.063,-0.98522,-2.9773,-7.3611,-4.0609,-3.0065,-6.0914,-0.98522,-2.9773,-5.9113,13.591,3.0213,1.0,-1.0561,-5.9701,-8.1072,-11.837,7.935,3.0719
-10.945,-14.137,-12.073,0.0,-3.9482,-6.3194,-6.0914,-4.9673,-7.1066,0.0,-3.9482,-5.9113,19.388,4.9918,8.0,-0.06601,-1.99,8.9782,-9.8862,11.837,3.0719
-8.9552,-14.137,-10.083,1.9704,-3.9482,-3.1944,-9.1371,-1.0458,-9.1371,1.9704,-3.9482,-7.8818,16.49,4.0066,8.0,-1.0561,-0.99502,-3.0821,-11.837,9.8862,2.0915
-7.9602,-13.132,-9.0879,2.9557,-3.9482,-3.1944,-10.152,-2.0261,-11.168,2.9557,-3.9482,-7.8818,8.7601,1.0509,4.0,-5.0165,-4.9751,-21.173,-13.789,7.935,-0.84967
0.0,-7.1022,-3.1177,7.8818,0.90615,3.0556,-5.0761,0.91503,-9.1371,7.8818,0.90615,-0.98522,3.9291,0.06568,6.0,-6.0066,-4.9751,-8.1072,-13.789,9.8862,0.13072
9.9502,-2.0771,6.8325,13.793,8.6731,9.3056,1.0152,5.817,-5.0761,13.793,8.6731,7.8818,-2.8341,-5.8456,8.0,-7.9868,-2.9851,2.9481,-9.8862,12.813,-5.7516
14.925,-0.067,12.803,12.808,8.6731,12.431,4.0609,5.817,-5.0761,12.808,8.6731,10.837,-8.6312,-14.713,7.0,-11.947,-0.99502,5.9631,-10.862,8.9106,-15.556
11.94,1.943,13.798,9.8522,5.7605,11.389,5.0761,2.8758,-6.0914,9.8522,5.7605,11.823,-7.6651,-13.727,5.0,-9.967,1.99,5.9631,-10.862,1.1057,-17.516001
12.935,8.9782,18.773001,7.8818,5.7605,11.389,10.152,1.8954,-3.0457,7.8818,5.7605,15.764,-0.90177,-3.8752,9.0,-1.0561,8.9552,4.9581,-4.0325,1.1057,-9.6732
9.9502,10.988,16.783001,5.9113,2.8479,8.2639,9.1371,-0.06536,-3.0457,5.9113,2.8479,13.793,0.06441,-0.91954,6.0,2.9043,8.9552,2.9481,-0.13008,-0.84553,-1.8301
7.9602,7.9732,12.803,2.9557,-0.06472,5.1389,6.0914,-1.0458,-1.0152,2.9557,-0.06472,9.8522,0.06441,-0.91954,3.0,1.9142,3.9801,2.9481,-1.1057,-1.8211,0.13072
7.9602,4.9581,8.8226,0.98522,-0.06472,5.1389,5.0761,-3.0065,0.0,0.98522,-0.06472,7.8818,1.9968,4.0066,3.0,1.9142,2.9851,0.93802,2.7967,-0.84553,1.1111
4.9751,-0.067,2.8524,-0.98522,-2.9773,0.97222,1.0152,-3.0065,0.0,-0.98522,-2.9773,1.9704,2.963,4.9918,1.0,1.9142,-0.99502,-1.072,0.84553,7.935,5.0327
3.9801,-1.072,-2.1227,-3.9409,-2.9773,-1.1111,-1.0152,4.8366,2.0305,-3.9409,-2.9773,-1.9704,6.8277,9.9179,2.0,3.8944,-0.99502,-5.0921,1.8211,9.8862,10.915
3.9801,0.93802,-2.1227,-3.9409,-1.0356,-1.1111,0.0,-0.06536,4.0609,-3.9409,-1.0356,-0.98522,15.523,17.799999,6.0,8.8449,0.99502,-12.127,7.6748,4.0325,19.739
5.9701,2.9481,0.86235,0.98522,1.877,4.0972,4.0609,-3.9869,6.0914,0.98522,1.877,3.9409,21.32,22.726,11.0,9.835,4.9751,-7.1022,7.6748,5.0081,17.778
6.9652,1.943,2.8524,4.9261,2.8479,6.1806,7.1066,-2.0261,7.1066,4.9261,2.8479,7.8818,21.32,21.740999,14.0,6.8647,6.9652,-8.1072,-3.0569,10.862,6.0131
6.9652,0.93802,4.8425,3.9409,1.877,5.1389,4.0609,-3.0065,4.0609,3.9409,1.877,5.9113,14.557,12.874,14.0,3.8944,6.9652,-7.1022,-6.9593,14.764,0.13072
11.94,4.9581,11.808,6.8966,6.7314,10.347,8.1218,-0.06536,8.1218,6.8966,6.7314,9.8522,15.523,9.9179,18.0,5.8746,12.935,2.9481,1.8211,12.813,1.1111
18.905001,9.9832,19.768,11.823,12.557,17.639,14.213,4.8366,15.228,11.823,12.557,17.733999,17.455999,6.9622,24.0,7.8548,16.915001,17.018,8.6504,21.593,1.1111
14.925,9.9832,17.778,11.823,13.528,18.681,14.213,4.8366,15.228,11.823,13.528,17.733999,8.7601,0.06568,17.0,4.8845,11.94,4.9581,10.602,11.837,-0.84967
15.92,11.993,16.783001,12.808,11.586,18.681,13.198,4.8366,14.213,12.808,11.586,16.749001,1.0306,-2.89,12.0,5.8746,9.9502,-0.067,13.528,5.9837,3.0719
16.915001,17.018,18.773001,11.823,10.615,16.597,14.213,5.817,12.183,11.823,10.615,15.764,1.0306,2.0361,13.0,13.795,13.93,-0.067,14.504,5.0081,12.876
12.935,16.013,13.798,9.8522,8.6731,11.389,12.183,3.8562,9.1371,9.8522,8.6731,11.823,-1.868,4.0066,7.0,14.785,10.945,-8.1072,10.602,-2.7967,13.856
7.9602,11.993,6.8325,10.837,8.6731,10.347,11.168,2.8758,8.1218,10.837,8.6731,8.867,-8.6312,0.06568,-1.0,8.8449,1.99,-6.0972,5.7236,-7.6748,8.9542
13.93,14.003,7.8275,13.793,11.586,17.639,14.213,14.641,8.1218,13.793,11.586,13.793,-1.868,4.9918,3.0,8.8449,1.99,7.9732,9.626,3.0569,10.915
15.92,16.013,10.813,14.778,12.557,18.681,15.228,11.699,9.1371,14.778,12.557,15.764,4.8953,9.9179,7.0,9.835,3.9801,26.063999,9.626,6.9593,10.915
13.93,16.013,9.8176,13.793,11.586,16.597,15.228,5.817,10.152,13.793,11.586,14.778,2.963,6.9622,5.0,6.8647,0.99502,11.993,10.602,5.0081,7.9739
12.935,9.9832,6.8325,14.778,12.557,17.639,15.228,11.699,11.168,14.778,12.557,12.808,-5.7327,-1.9048,1.0,-3.0363,-4.9751,15.008,7.6748,5.0081,-1.8301
16.915001,6.9682,6.8325,17.733999,16.440001,21.806,16.243999,15.621,12.183,17.733999,16.440001,15.764,-7.6651,-4.8604,5.0,-5.0165,-2.9851,12.998,3.7724,11.837,-3.7908
19.9,6.9682,8.8226,19.704,17.410999,23.889,16.243999,16.601,11.168,19.704,17.410999,17.733999,-2.8341,-2.89,11.0,-2.0462,2.9851,5.9631,3.7724,15.74,0.13072
18.905001,7.9732,8.8226,23.645,19.353001,24.931,16.243999,17.582001,11.168,23.645,19.353001,18.719,1.0306,-0.91954,13.0,1.9142,5.9701,15.008,7.6748,14.764,3.0719
20.896,9.9832,10.813,24.631001,20.323999,29.097,18.274,21.503,11.168,24.631001,20.323999,21.674999,5.8615,0.06568,17.0,7.8548,10.945,23.049,7.6748,16.715,6.9935
19.9,11.993,13.798,24.631001,20.323999,30.139,19.289,23.464001,11.168,24.631001,20.323999,23.645,6.8277,-1.9048,18.0,11.815,14.925,30.084,8.6504,19.642,11.895
10.945,8.9782,7.8275,19.704,15.469,22.847,15.228,16.601,8.1218,19.704,15.469,18.719,1.0306,-9.7865,10.0,8.8449,8.9552,12.998,8.6504,10.862,12.876
5.9701,9.9832,6.8325,17.733999,13.528,18.681,13.198,12.68,7.1066,17.733999,13.528,15.764,2.963,-3.8752,7.0,11.815,8.9552,-1.072,13.528,5.0081,16.797001
9.9502,14.003,8.8226,17.733999,12.557,20.764,13.198,14.641,6.0914,17.733999,12.557,15.764,9.7262,10.903,11.0,17.756001,11.94,1.943,13.528,5.9837,15.817
8.9552,10.988,6.8325,15.764,9.644,20.764,10.152,15.621,4.0609,15.764,9.644,13.793,11.659,18.785,12.0,16.766001,9.9502,1.943,10.602,8.9106,8.9542
6.9652,4.9581,1.8574,11.823,4.7896,17.639,4.0609,14.641,1.0152,11.823,4.7896,7.8818,13.591,23.711,12.0,13.795,7.9602,15.008,1.8211,7.935,4.0523
8.9552,6.9682,3.8474,8.867,2.8479,16.597,4.0609,14.641,0.0,8.867,2.8479,7.8818,20.354,27.652,18.0,13.795,12.935,16.013,-2.0813,10.862,6.9935
12.935,9.9832,6.8325,9.8522,4.7896,17.639,7.1066,12.68,1.0152,9.8522,4.7896,9.8522,18.422001,21.740999,21.0,10.825,13.93,11.993,1.8211,19.642,7.9739
15.92,12.998,10.813,12.808,8.6731,21.806,11.168,13.66,4.0609,12.808,8.6731,13.793,10.692,8.9327,18.0,5.8746,9.9502,7.9732,8.6504,17.691,4.0523
14.925,7.9732,7.8275,12.808,6.7314,21.806,9.1371,14.641,3.0457,12.808,6.7314,13.793,-0.90177,-7.8161,11.0,-6.0066,1.99,5.9631,3.7724,7.935,-3.7908
15.92,4.9581,7.8275,13.793,8.6731,22.847,9.1371,14.641,4.0609,13.793,8.6731,14.778,1.0306,-14.713,12.0,-12.937,0.0,6.9682,-3.0569,10.862,-14.575
17.91,7.9732,10.813,12.808,8.6731,22.847,11.168,12.68,3.0457,12.808,8.6731,16.749001,8.7601,-13.727,16.0,-10.957,2.9851,7.9732,-2.0813,14.764,-14.575
16.915001,9.9832,11.808,10.837,7.7023,18.681,11.168,8.7582,2.0305,10.837,7.7023,15.764,9.7262,-7.8161,18.0,-3.0363,7.9602,8.9782,2.7967,18.667,-4.7712
15.92,14.003,10.813,12.808,7.7023,18.681,11.168,11.699,3.0457,12.808,7.7023,15.764,3.9291,-0.91954,13.0,6.8647,9.9502,27.069,9.626,10.862,6.0131
11.94,14.003,8.8226,10.837,4.7896,17.639,9.1371,12.68,0.0,10.837,4.7896,12.808,-3.8003,2.0361,5.0,13.795,6.9652,28.073999,10.602,5.0081,14.837
11.94,19.028,12.803,13.793,7.7023,20.764,11.168,14.641,1.0152,13.793,7.7023,15.764,6.8277,19.77,10.0,24.686001,12.935,9.9832,13.528,13.789,27.582001
15.92,24.054001,18.773001,14.778,8.6731,21.806,14.213,15.621,3.0457,14.778,8.6731,18.719,24.219,39.474998,21.0,35.577999,23.881001,-1.072,15.48,19.642,36.404999
11.94,14.003,13.798,10.837,4.7896,15.556,9.1371,18.562,0.0,10.837,4.7896,11.823,25.184999,36.519001,20.0,30.627001,21.891001,0.93802,6.6992,16.715,28.562
13.93,6.9682,10.813,9.8522,4.7896,15.556,6.0914,15.621,0.0,9.8522,4.7896,8.867,24.219,29.622,21.0,20.726,19.9,15.008,0.84553,17.691,13.856
14.925,3.9531,9.8176,7.8818,3.8188,14.514,5.0761,10.719,-2.0305,7.8818,3.8188,7.8818,15.523,15.829,18.0,10.825,14.925,18.023001,-4.0325,17.691,2.0915
20.896,7.9732,13.798,8.867,5.7605,17.639,9.1371,13.66,1.0152,8.867,5.7605,11.823,10.692,4.9918,21.0,4.8845,13.93,22.044001,-1.1057,24.52,-4.7712
25.871,9.9832,15.788,8.867,6.7314,19.722,11.168,15.621,4.0609,8.867,6.7314,12.808,8.7601,-2.89,22.0,-1.0561,10.945,25.059,-0.13008,24.52,-9.6732
