C3,C4,Cz,F1,F2,F3,F4,F7,F8,Fp1,Fp2,Fz,O1,O2,P3,P4,Pz,T3,T4,T5,T6
-3.8547,1.9048,-0.13008,1.868,10.615,-1.0845,1.8501,2.8205,-3.9103,1.868,10.615,3.8374,-6.7624,-6.6986,-5.7143,-3.8915,-5.8974,-1.9777,-1.8957,0.0,-5.8054
-0.06319,-2.8571,2.7967,4.7665,11.586,2.7432,8.5486,3.7821,1.859,4.7665,11.586,7.7398,-5.8054,-6.6986,-6.6667,-2.9346,-3.9744,1.8501,2.8436,-2.8986,0.89314
0.88468,-4.7619,1.8211,10.564,8.6731,4.6571,12.376,2.8205,3.7821,10.564,8.6731,8.7154,-2.9346,-6.6986,-6.6667,-5.8054,-3.0128,13.333,7.5829,-2.8986,-3.8915
6.5719,-3.8095,-0.13008,11.53,10.615,10.399,14.29,6.6667,-1.0256,11.53,10.615,10.667,-1.9777,-7.6555,-1.9048,-7.7193,-2.0513,10.463,0.0,-2.8986,-7.7193
0.88468,-1.9048,-1.1057,13.462,9.644,9.4418,9.5056,9.5513,-4.8718,13.462,9.644,9.6911,0.89314,-5.7416,0.95238,-4.8485,-0.12821,12.376,-33.174999,0.0,-3.8915
4.6761,8.5714,5.7236,12.496,9.644,10.399,-2.9346,14.359,-2.9487,12.496,9.644,7.7398,6.6348,1.9139,8.5714,4.7209,8.5256,0.89314,-21.801001,7.7295,1.8501
9.4155,9.5238,9.626,8.6312,6.7314,5.614,-6.7624,14.359,-1.0256,8.6312,6.7314,3.8374,10.463,7.6555,15.238,9.5056,14.295,3.764,15.166,11.594,4.7209
13.207,11.429,10.602,11.53,1.877,6.571,1.8501,13.397,-0.0641,11.53,1.877,3.8374,15.247,12.44,19.048,14.29,18.141001,9.5056,30.332001,14.493,8.5486
13.207,8.5714,6.6992,9.5974,-3.9482,5.614,-4.8485,8.5897,-2.9487,9.5974,-3.9482,-0.06504,12.376,10.526,14.286,11.419,12.372,6.6348,-6.6351,11.594,1.8501
6.5719,-2.8571,-0.13008,6.6989,-4.9191,4.6571,-3.8915,6.6667,-5.8333,6.6989,-4.9191,-2.9919,5.6778,2.8708,5.7143,3.764,5.641,16.204,-5.6872,4.8309,-1.9777
18.893999,-2.8571,5.7236,9.5974,-2.0065,7.5279,1.8501,13.397,-2.9487,9.5974,-2.0065,3.8374,5.6778,3.8278,7.619,4.7209,8.5256,17.160999,3.7915,6.7633,1.8501
10.363,2.8571,6.6992,13.462,-0.06472,12.313,0.89314,16.282,-4.8718,13.462,-0.06472,5.7886,6.6348,1.9139,8.5714,1.8501,7.5641,16.204,-0.94787,9.6618,-0.0638
3.7283,4.7619,6.6992,17.327,1.877,11.356,2.807,23.013,-1.9872,17.327,1.877,7.7398,6.6348,2.8708,9.5238,0.89314,6.6026,8.5486,4.7393,4.8309,1.8501
9.4155,2.8571,5.7236,12.496,-0.06472,15.183,-3.8915,16.282,-3.9103,12.496,-0.06472,7.7398,7.5917,7.6555,7.619,1.8501,8.5256,4.7209,12.322,1.9324,2.807
5.624,1.9048,3.7724,11.53,-1.0356,15.183,6.6348,13.397,-7.7564,11.53,-1.0356,5.7886,11.419,10.526,7.619,3.764,9.4872,11.419,7.5829,6.7633,1.8501
9.4155,5.7143,5.7236,16.361,-1.0356,12.313,17.160999,15.321,-2.9487,16.361,-1.0356,6.7642,10.463,9.5694,9.5238,4.7209,9.4872,21.945999,-14.218,10.628,-0.0638
3.7283,5.7143,3.7724,13.462,-2.0065,8.4848,-6.7624,10.513,-1.0256,13.462,-2.0065,2.8618,1.8501,4.7847,1.9048,1.8501,3.7179,25.774,-14.218,6.7633,-1.0207
2.7804,4.7619,-0.13008,10.564,-2.0065,-6.8262,-21.115999,5.7051,-8.7179,10.564,-2.0065,-2.0163,-1.9777,2.8708,0.0,0.89314,-0.12821,2.807,0.94787,3.8647,0.89314
-0.06319,-3.8095,-3.0569,3.8003,-5.89,-10.654,-18.246,2.8205,-10.641,3.8003,-5.89,-4.9431,-1.9777,0.95694,-0.95238,0.89314,-0.12821,-5.8054,0.94787,-0.96618,-1.0207
-9.5419,-11.429,-5.9837,3.8003,-8.8026,-2.9984,-21.115999,1.859,-10.641,3.8003,-8.8026,-6.8943,-2.9346,-1.9139,-1.9048,-1.0207,-1.0897,-4.8485,5.6872,-2.8986,-4.8485
-6.6983,-10.476,-5.0081,6.6989,-8.8026,-2.9984,3.764,-2.9487,-6.7949,6.6989,-8.8026,-5.9187,-1.9777,-0.95694,-0.95238,-0.0638,-0.12821,-0.0638,15.166,0.96618,0.89314
0.88468,-3.8095,-1.1057,4.7665,-1.0356,-2.9984,15.247,-1.0256,-6.7949,4.7665,-1.0356,-2.9919,5.6778,6.6986,5.7143,6.6348,6.6026,-3.8915,11.374,11.594,10.463
-13.333,-8.5714,-9.8862,-2.963,-2.0065,-7.7831,-5.8054,-8.7179,-14.487,-2.963,-2.0065,-8.8455,1.8501,0.95694,0.0,0.89314,-0.12821,-2.9346,-32.227001,3.8647,1.8501
-19.968,-13.333,-17.691,-0.06441,-5.89,-10.654,-20.159,-14.487,-16.41,-0.06441,-5.89,-16.65,-4.8485,-4.7847,-5.7143,-5.8054,-5.8974,-10.59,-11.374,-1.9324,-1.9777
-6.6983,-8.5714,-11.837,8.6312,0.90615,-7.7831,-22.073,-2.9487,-13.526,8.6312,0.90615,-11.772,-1.0207,0.95694,-1.9048,-1.9777,-2.0513,-1.9777,20.853001,4.8309,1.8501
2.7804,0.0,-2.0813,7.6651,2.8479,-2.9984,-25.900999,5.7051,-4.8718,7.6651,2.8479,-4.9431,3.764,5.7416,1.9048,4.7209,3.7179,20.989,4.7393,7.7295,2.807
7.5197,-3.8095,-0.13008,3.8003,1.877,-1.0845,-8.6762,-1.9872,-7.7564,3.8003,1.877,-4.9431,-0.0638,0.0,0.95238,2.807,1.7949,11.419,2.8436,5.7971,-1.9777
-1.0111,-6.6667,-2.0813,4.7665,0.90615,4.6571,9.5056,-0.0641,-11.603,4.7665,0.90615,-5.9187,-7.7193,-6.6986,-3.8095,-2.9346,-3.9744,-1.9777,-4.7393,0.0,-5.8054
2.7804,0.95238,2.7967,7.6651,1.877,11.356,9.5056,4.7436,-1.9872,7.6651,1.877,-0.06504,-5.8054,-4.7847,0.0,-0.0638,-2.0513,-19.202999,-14.218,1.9324,-1.0207
2.7804,5.7143,5.7236,9.5974,5.7605,5.614,12.376,4.7436,0.89744,9.5974,5.7605,2.8618,-1.9777,-3.8278,4.7619,1.8501,1.7949,-1.0207,-20.853001,4.8309,-1.0207
-1.0111,0.95238,1.8211,4.7665,4.7896,2.7432,0.89314,-2.9487,-1.9872,4.7665,4.7896,-1.0407,-4.8485,-5.7416,2.8571,-1.0207,-0.12821,-0.0638,-6.6351,3.8647,-1.9777
-2.9068,-1.9048,-2.0813,-2.963,-0.06472,-10.654,-11.547,-9.6795,-4.8718,-2.963,-0.06472,-6.8943,-5.8054,-6.6986,0.0,-1.9777,-1.0897,-4.8485,-18.009001,1.9324,-7.7193
9.4155,2.8571,-1.1057,-0.06441,-2.0065,-6.8262,-24.944,-6.7949,-1.0256,-0.06441,-2.0065,-4.9431,-2.9346,-2.8708,2.8571,0.89314,1.7949,0.89314,-15.166,-1.9324,-7.7193
6.5719,-0.95238,-1.1057,1.868,4.7896,-0.12759,-13.461,0.89744,1.859,1.868,4.7896,-2.0163,0.89314,1.9139,4.7619,1.8501,2.7564,9.5056,27.488001,0.0,2.807
-9.5419,-7.619,-6.9593,5.7327,1.877,-2.0415,12.376,7.6282,3.7821,5.7327,1.877,-5.9187,-1.0207,1.9139,0.95238,-1.0207,-0.12821,13.333,25.591999,0.96618,3.764
-5.7504,-1.9048,-8.9106,0.90177,2.8479,-1.0845,4.7209,6.6667,6.6667,0.90177,2.8479,-8.8455,-1.0207,1.9139,1.9048,-0.0638,0.83333,-1.9777,5.6872,3.8647,4.7209
-8.594,-6.6667,-12.813,-3.9291,-1.0356,-5.8692,-1.9777,1.859,3.7821,-3.9291,-1.0356,-11.772,-6.7624,-2.8708,-6.6667,-4.8485,-4.9359,-7.7193,-6.6351,0.0,-0.0638
-4.8025,-11.429,-13.789,-4.8953,-2.0065,0.82935,2.807,-1.0256,4.7436,-4.8953,-2.0065,-8.8455,-13.461,-7.6555,-11.429,-10.59,-10.705,-1.9777,-5.6872,-8.6957,-5.8054
5.624,-6.6667,-7.935,3.8003,0.90615,1.7863,4.7209,-2.9487,9.5513,3.8003,0.90615,-0.06504,-15.375,-11.483,-7.619,-11.547,-10.705,-1.0207,6.6351,-10.628,-3.8915
6.5719,-1.9048,-5.0081,-0.06441,4.7896,3.7002,3.764,2.8205,13.397,-0.06441,4.7896,3.8374,-12.504,-12.44,-2.8571,-9.6332,-8.7821,-11.547,0.94787,-2.8986,-1.9777
-5.7504,5.7143,-3.0569,-0.06441,10.615,7.5279,-1.9777,6.6667,15.321,-0.06441,10.615,5.7886,-10.59,-10.526,-2.8571,-6.7624,-5.8974,2.807,0.0,-5.7971,-3.8915
2.7804,9.5238,1.8211,4.7665,13.528,2.7432,0.89314,1.859,14.359,4.7665,13.528,10.667,-8.6762,-5.7416,-3.8095,-2.9346,-3.9744,6.6348,-9.4787,-8.6957,-3.8915
-1.0111,3.8095,2.7967,3.8003,12.557,-0.12759,20.989,1.859,14.359,3.8003,12.557,12.618,-6.7624,-4.7847,-3.8095,-4.8485,-3.0128,5.6778,6.6351,-2.8986,-2.9346
-7.6461,3.8095,-0.13008,-5.8615,10.615,-0.12759,22.903,-6.7949,10.513,-5.8615,10.615,10.667,-6.7624,-6.6986,-4.7619,-4.8485,-3.9744,4.7209,8.5308,-5.7971,-3.8915
3.7283,10.476,1.8211,-1.0306,15.469,1.7863,16.204,-6.7949,17.243999,-1.0306,15.469,14.569,-5.8054,-5.7416,-2.8571,-1.0207,-3.0128,-17.289,-6.6351,-9.6618,-0.0638
-3.8547,12.381,1.8211,10.564,10.615,2.7432,20.989,-1.0256,13.397,10.564,10.615,14.569,-5.8054,-5.7416,-2.8571,-0.0638,-4.9359,-20.159,-5.6872,-7.7295,-1.9777
-3.8547,4.7619,3.7724,12.496,10.615,7.5279,22.903,-0.0641,11.474,12.496,10.615,14.569,-5.8054,-2.8708,-5.7143,-0.0638,-3.0128,-12.504,6.6351,-9.6618,1.8501
-1.9589,0.0,2.7967,10.564,15.469,8.4848,5.6778,-3.9103,11.474,10.564,15.469,11.642,-2.9346,1.9139,-7.619,0.89314,-1.0897,-4.8485,19.905001,-8.6957,0.89314
-9.5419,5.7143,-1.1057,0.90177,23.236,-2.0415,-10.59,-6.7949,13.397,0.90177,23.236,6.7642,0.89314,5.7416,-5.7143,5.6778,0.83333,-1.9777,13.27,-5.7971,6.6348
-6.6983,9.5238,-1.1057,-0.06441,25.177999,-7.7831,19.075001,-7.7564,15.321,-0.06441,25.177999,5.7886,3.764,7.6555,-1.9048,8.5486,3.7179,1.8501,8.5308,-8.6957,7.5917
-5.7504,5.7143,-3.0569,-7.7939,16.440001,-8.74,21.945999,-19.295,6.6667,-7.7939,16.440001,1.8862,-0.0638,2.8708,-3.8095,1.8501,-0.12821,-16.332001,3.7915,-10.628,-0.0638
1.8325,3.8095,-0.13008,-1.9968,16.440001,-13.525,18.118,-18.333,8.5897,-1.9968,16.440001,1.8862,-0.0638,0.0,0.0,0.89314,-1.0897,-16.332001,4.7393,-2.8986,-1.9777
-7.6461,0.95238,-2.0813,-3.9291,10.615,-18.309,15.247,-9.6795,7.6282,-3.9291,10.615,-2.9919,0.89314,-0.95694,-1.9048,-0.0638,-1.0897,-6.7624,-23.697001,-1.9324,-3.8915
-10.49,-0.95238,-3.0569,-8.7601,9.644,-17.351999,5.6778,-11.603,1.859,-8.7601,9.644,-7.8699,3.764,1.9139,-0.95238,0.89314,-0.12821,-11.547,-10.427,-1.9324,-1.0207
-10.49,-2.8571,-5.9837,-6.8277,7.7023,-8.74,-14.418,-9.6795,-2.9487,-6.8277,7.7023,-9.8211,-0.0638,-1.9139,-5.7143,-4.8485,-3.9744,-6.7624,5.6872,-3.8647,-5.8054
-6.6983,-3.8095,-5.9837,0.90177,11.586,-0.12759,-34.514,-5.8333,-1.0256,0.90177,11.586,-6.8943,2.807,-0.95694,-3.8095,-6.7624,-3.0128,-8.6762,-13.27,0.96618,-6.7624
-5.7504,-14.286,-8.9106,-0.06441,9.644,-6.8262,2.807,-7.7564,3.7821,-0.06441,9.644,-7.8699,0.89314,-1.9139,-5.7143,-10.59,-5.8974,-1.9777,-18.009001,0.96618,-5.8054
-1.9589,-20.952,-8.9106,-1.0306,8.6731,-3.9553,21.945999,-4.8718,-0.0641,-1.0306,8.6731,-10.797,0.89314,-1.9139,0.0,-12.504,-6.859,-3.8915,0.94787,0.96618,-5.8054
0.88468,-14.286,-6.9593,-0.06441,10.615,-7.7831,4.7209,-1.0256,-1.9872,-0.06441,10.615,-8.8455,1.8501,0.0,0.0,-10.59,-5.8974,-8.6762,1.8957,-2.8986,-1.9777
-7.6461,-12.381,-7.935,-2.963,5.7605,-11.611,-10.59,-1.9872,-1.0256,-2.963,5.7605,-9.8211,-1.9777,-1.9139,-7.619,-10.59,-8.7821,1.8501,-15.166,-7.7295,-3.8915
-1.0111,-8.5714,-5.9837,-5.8615,2.8479,-4.9123,-5.8054,-7.7564,-2.9487,-5.8615,2.8479,-6.8943,-1.9777,-1.9139,-6.6667,-5.8054,-5.8974,0.89314,1.8957,-4.8309,-5.8054
-4.8025,-0.95238,-2.0813,-4.8953,0.90615,-6.8262,6.6348,-2.9487,2.8205,-4.8953,0.90615,-2.9919,0.89314,0.95694,-4.7619,-0.0638,-3.9744,-10.59,15.166,-1.9324,-1.0207
-1.9589,4.7619,2.7967,-0.06441,4.7896,6.571,-8.6762,-0.0641,1.859,-0.06441,4.7896,0.91057,2.807,1.9139,0.0,2.807,-2.0513,-10.59,-3.7915,0.96618,2.807
-0.06319,3.8095,1.8211,-0.06441,5.7605,5.614,-34.514,-4.8718,-6.7949,-0.06441,5.7605,-1.0407,-0.0638,-0.95694,-0.95238,0.89314,-3.0128,-1.0207,-17.062,-3.8647,-1.0207
2.7804,8.5714,6.6992,4.7665,2.8479,-2.9984,-2.9346,-1.0256,-1.9872,4.7665,2.8479,3.8374,5.6778,5.7416,3.8095,6.6348,4.6795,0.89314,-3.7915,-0.96618,-0.0638
-1.9589,2.8571,7.6748,4.7665,0.90615,-3.9553,24.816999,-1.0256,1.859,4.7665,0.90615,6.7642,7.5917,7.6555,3.8095,6.6348,5.641,-0.0638,4.7393,0.0,2.807
-1.9589,0.0,2.7967,2.8341,4.7896,-3.9553,10.463,-4.8718,3.7821,2.8341,4.7896,6.7642,4.7209,3.8278,-1.9048,3.764,1.7949,0.89314,12.322,-0.96618,2.807
0.88468,4.7619,3.7724,3.8003,9.644,2.7432,3.764,-4.8718,7.6282,3.8003,9.644,8.7154,4.7209,4.7847,-1.9048,4.7209,0.83333,-1.9777,10.427,2.8986,6.6348
-5.7504,1.9048,1.8211,2.8341,3.8188,5.614,4.7209,-6.7949,4.7436,2.8341,3.8188,4.813,0.89314,1.9139,-5.7143,-0.0638,-3.0128,-4.8485,0.94787,-5.7971,5.6778
-1.9589,9.5238,6.6992,4.7665,9.644,5.614,13.333,-2.9487,11.474,4.7665,9.644,9.6911,1.8501,6.6986,-2.8571,3.764,0.83333,-6.7624,3.7915,-5.7971,7.5917
-1.0111,13.333,8.6504,4.7665,16.440001,3.7002,-1.0207,-1.0256,16.282,4.7665,16.440001,12.618,3.764,9.5694,0.0,6.6348,3.7179,-13.461,17.062,-3.8647,5.6778
0.88468,12.381,7.6748,2.8341,15.469,6.571,8.5486,-0.0641,17.243999,2.8341,15.469,12.618,5.6778,10.526,-0.95238,5.6778,1.7949,-16.332001,11.374,-1.9324,7.5917
1.8325,9.5238,1.8211,2.8341,6.7314,7.5279,7.5917,-4.8718,12.436,2.8341,6.7314,6.7642,-0.0638,2.8708,-6.6667,-1.9777,-6.859,-22.073,-8.5308,0.96618,3.764
10.363,0.95238,2.7967,12.496,9.644,8.4848,15.247,-0.0641,9.5513,12.496,9.644,10.667,-1.9777,2.8708,-6.6667,-2.9346,-7.8205,4.7209,19.905001,-0.96618,4.7209
0.88468,-2.8571,-1.1057,2.8341,4.7896,1.7863,18.118,3.7821,4.7436,2.8341,4.7896,7.7398,-5.8054,0.0,-11.429,-5.8054,-10.705,13.333,14.218,-4.8309,3.764
-6.6983,-2.8571,-6.9593,-3.9291,-4.9191,-3.9553,4.7209,5.7051,3.7821,-3.9291,-4.9191,0.91057,-13.461,-7.6555,-13.333,-11.547,-15.513,-7.7193,4.7393,-8.6957,-1.0207
-0.06319,0.0,-2.0813,0.90177,1.877,3.7002,9.5056,5.7051,6.6667,0.90177,1.877,3.8374,-10.59,-8.6124,-9.5238,-11.547,-13.59,7.5917,3.7915,-3.8647,-1.9777
0.88468,0.0,2.7967,5.7327,9.644,6.571,-9.6332,8.5897,6.6667,5.7327,9.644,4.813,-7.7193,-9.5694,-5.7143,-8.6762,-9.7436,8.5486,3.7915,0.96618,-3.8915
-1.9589,-2.8571,-0.13008,0.90177,7.7023,2.7432,-1.9777,7.6282,5.7051,0.90177,7.7023,1.8862,-10.59,-11.483,-6.6667,-7.7193,-9.7436,3.764,-4.7393,0.0,-6.7624
3.7283,-3.8095,-2.0813,-1.0306,-2.9773,3.7002,4.7209,0.89744,-1.0256,-1.0306,-2.9773,-0.06504,-9.6332,-9.5694,-5.7143,-5.8054,-7.8205,3.764,-12.322,-5.7971,-9.6332
6.5719,-1.9048,-2.0813,-0.06441,-1.0356,-0.12759,-1.9777,2.8205,-1.0256,-0.06441,-1.0356,-1.0407,-4.8485,-3.8278,-0.95238,-1.0207,-3.0128,-11.547,5.6872,-1.9324,-3.8915
5.624,6.6667,-0.13008,-0.06441,6.7314,-2.0415,-1.0207,2.8205,2.8205,-0.06441,6.7314,-1.0407,-4.8485,-1.9139,0.95238,1.8501,-2.0513,2.807,-26.540001,0.0,-1.0207
0.88468,-6.6667,-3.0569,-0.06441,-0.06472,-0.12759,0.89314,1.859,-0.0641,-0.06441,-0.06472,-2.9919,-7.7193,-5.7416,-3.8095,-4.8485,-5.8974,15.247,-1.8957,-4.8309,-4.8485
-1.9589,-15.238,-6.9593,-2.963,-5.89,-0.12759,0.89314,-6.7949,-0.0641,-2.963,-5.89,-7.8699,-9.6332,-9.5694,-4.7619,-9.6332,-8.7821,5.6778,15.166,-3.8647,-7.7193
2.7804,-6.6667,-4.0325,-8.7601,1.877,-1.0845,-10.59,-1.0256,-3.9103,-8.7601,1.877,-7.8699,-8.6762,-9.5694,-0.95238,-6.7624,-7.8205,4.7209,-9.4787,3.8647,-4.8485
-1.0111,-1.9048,-2.0813,-4.8953,2.8479,-0.12759,-13.461,5.7051,-0.0641,-4.8953,2.8479,-5.9187,-7.7193,-9.5694,0.0,-2.9346,-6.859,-3.8915,-10.427,6.7633,-3.8915
-12.385,-4.7619,-5.0081,-4.8953,-1.0356,-3.9553,-3.8915,-0.0641,-1.9872,-4.8953,-1.0356,-5.9187,-8.6762,-8.6124,-3.8095,-3.8915,-6.859,1.8501,15.166,-2.8986,-0.0638
-9.5419,-4.7619,-3.0569,-2.963,-4.9191,-5.8692,14.29,-1.0256,-1.0256,-2.963,-4.9191,-2.9919,-6.7624,-4.7847,-1.9048,-1.0207,-3.0128,5.6778,25.591999,-6.7633,3.764
-1.0111,5.7143,4.748,4.7665,1.877,-1.0845,10.463,0.89744,3.7821,4.7665,1.877,2.8618,-4.8485,0.0,1.9048,5.6778,0.83333,-7.7193,6.6351,-1.9324,6.6348
-0.06319,13.333,6.6992,3.8003,8.6731,-4.9123,-7.7193,-2.9487,0.89744,3.8003,8.6731,1.8862,-6.7624,-0.95694,-1.9048,7.5917,-1.0897,-0.0638,-12.322,-6.7633,4.7209
3.7283,9.5238,5.7236,5.7327,1.877,3.7002,-7.7193,0.89744,0.89744,5.7327,1.877,1.8862,-4.8485,-0.95694,2.8571,7.5917,0.83333,-4.8485,-9.4787,-4.8309,-1.0207
7.5197,2.8571,7.6748,3.8003,-0.06472,14.226,-1.9777,0.89744,1.859,3.8003,-0.06472,3.8374,0.89314,1.9139,8.5714,8.5486,6.6026,1.8501,0.0,-0.96618,-1.0207
-0.06319,1.9048,5.7236,4.7665,4.7896,3.7002,8.5486,2.8205,3.7821,4.7665,4.7896,2.8618,3.764,3.8278,5.7143,8.5486,9.4872,6.6348,10.427,0.96618,2.807
-8.594,1.9048,4.748,5.7327,7.7023,-1.0845,20.032,0.89744,3.7821,5.7327,7.7023,1.8862,5.6778,6.6986,0.95238,11.419,10.449,0.89314,21.801001,0.96618,5.6778
-7.6461,4.7619,3.7724,2.8341,0.90615,-7.7831,14.29,-3.9103,3.7821,2.8341,0.90615,0.91057,3.764,8.6124,-2.8571,12.376,7.5641,-3.8915,12.322,-5.7971,10.463
-0.06319,4.7619,3.7724,2.8341,2.8479,-3.9553,-2.9346,-9.6795,0.89744,2.8341,2.8479,-1.0407,0.89314,8.6124,-4.7619,10.463,3.7179,-13.461,-3.7915,-11.594,5.6778
-0.06319,0.95238,3.7724,2.8341,5.7605,1.7863,-18.246,-2.9487,1.859,2.8341,5.7605,0.91057,1.8501,8.6124,-1.9048,4.7209,1.7949,-19.202999,8.5308,-6.7633,5.6778
5.624,3.8095,8.6504,2.8341,13.528,-2.9984,-9.6332,1.859,8.5897,2.8341,13.528,5.7886,4.7209,10.526,1.9048,2.807,3.7179,-10.59,-4.7393,-0.96618,7.5917
1.8325,6.6667,6.6992,0.90177,4.7896,-2.9984,18.118,-10.641,5.7051,0.90177,4.7896,3.8374,0.89314,4.7847,0.0,2.807,3.7179,-2.9346,-23.697001,-6.7633,5.6778
-9.5419,8.5714,4.748,-3.9291,0.90615,-0.12759,3.764,-11.603,2.8205,-3.9291,0.90615,-0.06504,-2.9346,0.0,-2.8571,3.764,4.6795,0.89314,21.801001,-10.628,3.764
-8.594,6.6667,4.748,-5.8615,1.877,-2.0415,-0.0638,-6.7949,4.7436,-5.8615,1.877,0.91057,1.8501,2.8708,-0.95238,5.6778,8.5256,-9.6332,23.697001,-7.7295,2.807
-2.9068,4.7619,5.7236,0.90177,-0.06472,-0.12759,10.463,-1.0256,5.7051,0.90177,-0.06472,3.8374,6.6348,6.6986,0.0,6.6348,7.5641,-10.59,7.5829,0.0,6.6348
0.88468,-1.9048,4.748,0.90177,3.8188,6.571,11.419,0.89744,4.7436,0.90177,3.8188,4.813,3.764,5.7416,-1.9048,0.89314,0.83333,2.807,15.166,5.7971,4.7209
14.155,3.8095,10.602,5.7327,10.615,10.399,9.5056,0.89744,7.6282,5.7327,10.615,8.7154,6.6348,7.6555,5.7143,3.764,2.7564,-8.6762,6.6351,4.8309,5.6778
25.528999,11.429,16.455,3.8003,4.7896,12.313,-1.9777,-3.9103,7.6282,3.8003,4.7896,7.7398,8.5486,7.6555,12.381,9.5056,7.5641,-8.6762,2.8436,0.0,4.7209
18.893999,11.429,14.504,-1.0306,-1.0356,6.571,-5.8054,-3.9103,6.6667,-1.0306,-1.0356,4.813,9.5056,6.6986,12.381,11.419,11.41,3.764,-11.374,1.9324,5.6778
3.7283,11.429,9.626,1.868,-5.89,0.82935,-4.8485,2.8205,5.7051,1.868,-5.89,1.8862,9.5056,5.7416,11.429,10.463,11.41,0.89314,-3.7915,8.6957,5.6778
-0.06319,2.8571,3.7724,-2.963,-4.9191,-2.0415,8.5486,1.859,2.8205,-2.963,-4.9191,0.91057,14.29,4.7847,13.333,4.7209,10.449,2.807,3.7915,15.459,3.764
0.88468,1.9048,1.8211,-1.9968,-1.0356,-2.9984,14.29,0.89744,2.8205,-1.9968,-1.0356,0.91057,16.204,5.7416,11.429,1.8501,8.5256,-2.9346,18.009001,11.594,4.7209
4.6761,1.9048,4.748,7.6651,4.7896,7.5279,9.5056,3.7821,6.6667,7.6651,4.7896,5.7886,14.29,6.6986,8.5714,3.764,5.641,3.764,24.645,7.7295,9.5056
4.6761,-5.7143,1.8211,5.7327,3.8188,5.614,-3.8915,-0.0641,1.859,5.7327,3.8188,4.813,3.764,2.8708,-0.95238,-1.0207,-2.0513,-1.0207,7.5829,2.8986,0.89314
0.88468,0.95238,-1.1057,7.6651,-2.9773,8.4848,-15.375,5.7051,-3.9103,7.6651,-2.9773,1.8862,-1.0207,2.8708,-4.7619,0.89314,-4.9359,-1.0207,-7.5829,-1.9324,-3.8915
10.363,5.7143,1.8211,7.6651,-3.9482,17.097,-13.461,3.7821,-3.9103,7.6651,-3.9482,6.7642,0.89314,6.6986,1.9048,7.5917,1.7949,7.5917,-34.123001,5.7971,-1.0207
1.8325,0.95238,0.84553,0.90177,-7.8317,3.7002,-3.8915,5.7051,-3.9103,0.90177,-7.8317,1.8862,1.8501,5.7416,7.619,7.5917,7.5641,-1.9777,-14.218,4.8309,-0.0638
1.8325,1.9048,4.748,5.7327,-3.9482,2.7432,14.29,10.513,6.6667,5.7327,-3.9482,4.813,6.6348,8.6124,13.333,9.5056,13.333,10.463,26.540001,5.7971,3.764
6.5719,1.9048,8.6504,12.496,1.877,8.4848,21.945999,11.474,10.513,12.496,1.877,11.642,7.5917,7.6555,13.333,5.6778,10.449,6.6348,22.749001,5.7971,6.6348
9.4155,1.9048,9.626,12.496,1.877,12.313,10.463,12.436,2.8205,12.496,1.877,13.593,0.89314,0.0,3.8095,-1.0207,2.7564,-7.7193,8.5308,1.9324,2.807
14.155,7.619,8.6504,7.6651,4.7896,15.183,-3.8915,8.5897,0.89744,7.6651,4.7896,12.618,-4.8485,-5.7416,-2.8571,-3.8915,-3.9744,12.376,1.8957,-1.9324,-1.0207
7.5197,15.238,6.6992,6.6989,8.6731,16.139999,2.807,13.397,3.7821,6.6989,8.6731,10.667,-3.8915,-5.7416,-0.95238,-0.0638,-3.9744,7.5917,-25.591999,1.9324,0.89314
-3.8547,-1.9048,-2.0813,1.868,-2.0065,2.7432,-3.8915,4.7436,-0.0641,1.868,-2.0065,0.91057,-8.6762,-11.483,-2.8571,-4.8485,-8.7821,1.8501,-24.645,-3.8647,-8.6762
0.88468,-9.5238,-1.1057,1.868,-4.9191,-2.0415,-4.8485,-0.0641,-3.9103,1.868,-4.9191,-0.06504,-7.7193,-10.526,1.9048,-4.8485,-4.9359,-1.0207,13.27,-3.8647,-9.6332
5.624,-0.95238,6.6992,7.6651,4.7896,0.82935,4.7209,4.7436,1.859,7.6651,4.7896,8.7154,-1.9777,-3.8278,6.6667,2.807,3.7179,6.6348,17.062,0.0,-2.9346
3.7283,0.0,2.7967,8.6312,4.7896,-4.9123,16.204,3.7821,0.89744,8.6312,4.7896,8.7154,1.8501,0.0,5.7143,2.807,4.6795,7.5917,0.94787,4.8309,-1.9777
4.6761,1.9048,2.7967,7.6651,4.7896,6.571,10.463,3.7821,-0.0641,7.6651,4.7896,8.7154,3.764,1.9139,4.7619,2.807,2.7564,3.764,4.7393,6.7633,1.8501
7.5197,3.8095,5.7236,4.7665,2.8479,18.054001,-8.6762,1.859,-3.9103,4.7665,2.8479,8.7154,2.807,0.95694,1.9048,3.764,0.83333,-2.9346,-11.374,3.8647,-1.9777
4.6761,0.95238,5.7236,-0.06441,-1.0356,10.399,7.5917,2.8205,-3.9103,-0.06441,-1.0356,4.813,2.807,1.9139,-0.95238,2.807,0.83333,4.7209,-7.5829,0.0,-0.0638
2.7804,-0.95238,0.84553,0.90177,-2.0065,7.5279,9.5056,7.6282,-5.8333,0.90177,-2.0065,-0.06504,0.89314,0.0,-2.8571,-1.0207,-1.0897,16.204,-4.7393,1.9324,2.807
0.88468,-4.7619,-6.9593,-4.8953,-5.89,-2.9984,-13.461,-5.8333,-15.449,-4.8953,-5.89,-5.9187,-3.8915,-6.6986,-5.7143,-8.6762,-9.7436,7.5917,-2.8436,3.8647,-4.8485
-5.7504,-6.6667,-5.0081,-3.9291,-2.9773,-13.525,-4.8485,-5.8333,-9.6795,-3.9291,-2.9773,-5.9187,-0.0638,-6.6986,0.95238,-8.6762,-8.7821,-6.7624,-2.8436,5.7971,-7.7193
-7.6461,-4.7619,-0.13008,-3.9291,-4.9191,-13.525,4.7209,-3.9103,-4.8718,-3.9291,-4.9191,-3.9675,8.5486,0.95694,7.619,-2.9346,0.83333,3.764,-11.374,9.6618,-1.9777
-10.49,-13.333,-7.935,-9.7262,-11.715,-12.568,-25.900999,-5.8333,-12.564,-9.7262,-11.715,-13.724,5.6778,-0.95694,1.9048,-5.8054,-2.0513,8.5486,4.7393,9.6618,-0.0638
-10.49,-18.094999,-17.691,-9.7262,-12.686,-6.8262,-21.115999,-7.7564,-16.41,-9.7262,-12.686,-20.552999,-0.0638,-4.7847,-8.5714,-10.59,-10.705,5.6778,-4.7393,2.8986,-3.8915
-12.385,-9.5238,-16.715,-5.8615,-11.715,-9.697,6.6348,-6.7949,-14.487,-5.8615,-11.715,-14.699,-1.0207,-0.95694,-14.286,-8.6762,-11.667,5.6778,-33.174999,-6.7633,-3.8915
-1.9589,-6.6667,-7.935,0.90177,-2.0065,-8.74,3.764,-7.7564,-7.7564,0.90177,-2.0065,-7.8699,2.807,3.8278,-9.5238,-4.8485,-6.859,2.807,-8.5308,-3.8647,-4.8485
-4.8025,-1.9048,-3.0569,0.90177,-0.06472,-3.9553,-5.8054,-0.0641,-5.8333,0.90177,-0.06472,-7.8699,6.6348,4.7847,-1.9048,-1.9777,-1.0897,-2.9346,17.062,0.96618,-1.0207
-8.594,7.619,-1.1057,-1.9968,1.877,-3.9553,-13.461,4.7436,-4.8718,-1.9968,1.877,-6.8943,9.5056,8.6124,3.8095,5.6778,4.6795,-1.0207,13.27,4.8309,6.6348
-5.7504,-4.7619,-6.9593,-9.7262,-11.715,-11.611,-18.246,-7.7564,-8.7179,-9.7262,-11.715,-14.699,0.89314,1.9139,2.8571,1.8501,1.7949,-11.547,2.8436,4.8309,-1.9777
-6.6983,-12.381,-8.9106,-9.7262,-15.599,-2.9984,-14.418,-5.8333,-13.526,-9.7262,-15.599,-13.724,-1.0207,0.95694,-0.95238,0.89314,0.83333,2.807,-15.166,1.9324,-7.7193
-6.6983,-2.8571,-6.9593,-1.0306,-7.8317,0.82935,-8.6762,-1.9872,-5.8333,-1.0306,-7.8317,-7.8699,3.764,3.8278,1.9048,1.8501,3.7179,19.075001,-16.114,5.7971,0.89314
-1.0111,-3.8095,-6.9593,1.868,-5.89,-2.0415,4.7209,-2.9487,-3.9103,1.868,-5.89,-6.8943,5.6778,4.7847,2.8571,0.89314,1.7949,4.7209,-18.957001,8.6957,6.6348
0.88468,-5.7143,-5.0081,-3.9291,-2.9773,-2.9984,4.7209,-1.9872,-5.8333,-3.9291,-2.9773,-4.9431,6.6348,5.7416,0.0,0.89314,-0.12821,-6.7624,3.7915,4.8309,3.764
-0.06319,-0.95238,-0.13008,-8.7601,-4.9191,-1.0845,0.89314,-5.8333,-5.8333,-8.7601,-4.9191,-2.9919,5.6778,6.6986,-2.8571,3.764,1.7949,6.6348,5.6872,2.8986,2.807
5.624,7.619,9.626,-3.9291,-2.9773,6.571,5.6778,-2.9487,0.89744,-3.9291,-2.9773,4.813,11.419,11.483,6.6667,12.376,10.449,9.5056,0.0,10.628,6.6348
11.311,7.619,10.602,-2.963,-2.0065,-3.9553,-16.332001,-1.9872,-4.8718,-2.963,-2.0065,3.8374,9.5056,9.5694,10.476,11.419,11.41,-11.547,9.4787,6.7633,3.764
2.7804,14.286,11.577,-8.7601,-3.9482,-2.0415,-22.073,1.859,-7.7564,-8.7601,-3.9482,3.8374,9.5056,10.526,10.476,12.376,10.449,15.247,-3.7915,4.8309,6.6348
6.5719,10.476,13.528,-5.8615,-8.8026,3.7002,4.7209,-1.0256,-5.8333,-5.8615,-8.8026,5.7886,7.5917,8.6124,10.476,9.5056,8.5256,21.945999,-22.749001,7.7295,5.6778
12.259,6.6667,15.48,-0.06441,-12.686,5.614,17.160999,-1.9872,1.859,-0.06441,-12.686,9.6911,6.6348,6.6986,11.429,7.5917,8.5256,5.6778,2.8436,11.594,1.8501
14.155,11.429,14.504,-3.9291,-5.89,7.5279,15.247,-1.0256,1.859,-3.9291,-5.89,11.642,7.5917,7.6555,11.429,8.5486,8.5256,-1.9777,28.436001,10.628,7.5917
15.103,7.619,10.602,-4.8953,-3.9482,3.7002,9.5056,0.89744,-4.8718,-4.8953,-3.9482,8.7154,5.6778,3.8278,3.8095,3.764,4.6795,-3.8915,4.7393,4.8309,5.6778
11.311,0.95238,10.602,1.868,-4.9191,5.614,-3.8915,-0.0641,-2.9487,1.868,-4.9191,7.7398,4.7209,0.95694,3.8095,-1.0207,3.7179,13.333,-9.4787,5.7971,0.89314
2.7804,-2.8571,8.6504,-1.9968,0.90615,0.82935,-5.8054,1.859,-2.9487,-1.9968,0.90615,4.813,4.7209,-1.9139,8.5714,-2.9346,4.6795,9.5056,-5.6872,10.628,-5.8054
6.5719,0.95238,7.6748,-4.8953,0.90615,4.6571,-20.159,4.7436,-7.7564,-4.8953,0.90615,2.8618,3.764,-4.7847,13.333,-2.9346,5.641,18.118,-20.853001,14.493,-13.461
16.051001,4.7619,10.602,1.868,6.7314,11.356,-1.9777,5.7051,-1.9872,1.868,6.7314,7.7398,11.419,1.9139,19.048,2.807,11.41,21.945999,-12.322,21.256001,-7.7193
4.6761,0.0,1.8211,0.90177,-2.0065,1.7863,7.5917,8.5897,-2.9487,0.90177,-2.0065,0.91057,8.5486,0.95694,9.5238,1.8501,6.6026,8.5486,-2.8436,8.6957,-1.0207
-2.9068,-11.429,-6.9593,-6.8277,-11.715,-12.568,3.764,-5.8333,-4.8718,-6.8277,-11.715,-6.8943,-0.0638,-3.8278,-1.9048,-2.9346,-0.12821,4.7209,8.5308,0.96618,-5.8054
-3.8547,-12.381,-7.935,-1.9968,-3.9482,-15.439,-3.8915,-7.7564,-1.9872,-1.9968,-3.9482,-6.8943,-2.9346,-4.7847,-5.7143,-3.8915,-3.0128,5.6778,10.427,0.96618,-6.7624
12.259,-0.95238,-1.1057,7.6651,-1.0356,3.7002,-4.8485,6.6667,-1.0256,7.6651,-1.0356,0.91057,-0.0638,-1.9139,0.95238,0.89314,-0.12821,7.5917,2.8436,6.7633,-1.0207
9.4155,0.95238,1.8211,3.8003,-2.0065,12.313,-12.504,9.5513,-1.9872,3.8003,-2.0065,3.8374,-0.0638,-0.95694,4.7619,0.89314,0.83333,0.89314,-5.6872,9.6618,2.807
-7.6461,-8.5714,-5.9837,-2.963,-2.0065,4.6571,-17.289,4.7436,-8.7179,-2.963,-2.0065,-6.8943,-5.8054,-4.7847,-2.8571,-5.8054,-3.9744,-23.030001,-14.218,-3.8647,-1.9777
-12.385,-13.333,-10.862,-1.0306,-3.9482,-0.12759,-9.6332,5.7051,-7.7564,-1.0306,-3.9482,-10.797,-1.9777,-1.9139,-3.8095,-5.8054,-3.0128,-1.9777,-12.322,-5.7971,-6.7624
-10.49,-10.476,-12.813,6.6989,-2.9773,-2.0415,-7.7193,4.7436,-0.0641,6.6989,-2.9773,-8.8455,1.8501,0.0,1.9048,-3.8915,-0.12821,13.333,-10.427,0.96618,-6.7624
2.7804,1.9048,-5.9837,9.5974,2.8479,0.82935,11.419,5.7051,5.7051,9.5974,2.8479,-2.0163,2.807,4.7847,1.9048,1.8501,3.7179,16.204,-9.4787,1.9324,0.89314
-1.9589,0.0,-5.9837,7.6651,2.8479,-2.0415,10.463,3.7821,2.8205,7.6651,2.8479,-2.9919,-2.9346,2.8708,-8.5714,-0.0638,-1.0897,6.6348,-9.4787,-2.8986,-1.9777
-14.281,-12.381,-13.789,-1.9968,-3.9482,-13.525,0.89314,-2.9487,-4.8718,-1.9968,-3.9482,-10.797,-14.418,-7.6555,-19.048,-10.59,-12.628,-11.547,0.94787,-17.391001,-7.7193
-3.8547,-8.5714,-10.862,0.90177,-5.89,-11.611,-5.8054,-2.9487,-2.9487,0.90177,-5.89,-7.8699,-9.6332,-4.7847,-10.476,-7.7193,-8.7821,-20.159,9.4787,-13.527,-1.0207
-12.385,-2.8571,-10.862,4.7665,2.8479,-2.9984,-13.461,-0.0641,0.89744,4.7665,2.8479,-6.8943,-6.7624,-2.8708,-4.7619,-5.8054,-5.8974,-14.418,5.6872,-7.7295,2.807
-5.7504,-2.8571,-11.837,0.90177,4.7896,0.82935,-12.504,-1.0256,0.89744,0.90177,4.7896,-5.9187,-1.9777,-1.9139,-2.8571,-7.7193,-4.9359,-5.8054,5.6872,-4.8309,2.807
-3.8547,-4.7619,-11.837,-0.06441,3.8188,0.82935,-1.0207,0.89744,-0.0641,-0.06441,3.8188,-2.0163,-2.9346,-3.8278,-3.8095,-12.504,-6.859,5.6778,-15.166,-0.96618,-2.9346
-10.49,-13.333,-13.789,2.8341,0.90615,-0.12759,12.376,3.7821,-2.9487,2.8341,0.90615,-3.9675,-11.547,-11.483,-10.476,-17.289,-11.667,-0.0638,-9.4787,-8.6957,-10.59
-7.6461,-13.333,-7.935,5.7327,0.90615,4.6571,7.5917,4.7436,-3.9103,5.7327,0.90615,-2.0163,-12.504,-10.526,-9.5238,-12.504,-7.8205,-8.6762,6.6351,-12.56,-6.7624
4.6761,-2.8571,4.748,4.7665,3.8188,3.7002,5.6778,3.7821,3.7821,4.7665,3.8188,4.813,-0.0638,-1.9139,3.8095,-0.0638,3.7179,-1.0207,-2.8436,2.8986,-1.0207
5.624,-0.95238,2.7967,-0.06441,-1.0356,-1.0845,-13.461,-4.8718,0.89744,-0.06441,-1.0356,0.91057,-1.0207,-2.8708,0.0,-1.0207,0.83333,12.376,-8.5308,1.9324,-2.9346
-4.8025,-3.8095,-6.9593,0.90177,0.90615,-0.12759,-13.461,5.7051,-3.9103,0.90177,0.90615,-3.9675,-5.8054,-2.8708,-6.6667,-5.8054,-4.9359,-0.0638,-5.6872,0.96618,-3.8915
-9.5419,-5.7143,-12.813,-1.0306,2.8479,-1.0845,-5.8054,7.6282,-3.9103,-1.0306,2.8479,-5.9187,-6.7624,-1.9139,-5.7143,-8.6762,-6.859,-9.6332,-1.8957,-3.8647,-0.0638
-6.6983,-6.6667,-12.813,4.7665,6.7314,-0.12759,-1.9777,5.7051,-0.0641,4.7665,6.7314,-3.9675,-2.9346,1.9139,-4.7619,-5.8054,-4.9359,-10.59,-4.7393,-5.7971,0.89314
-12.385,-12.381,-13.789,-1.9968,1.877,-4.9123,4.7209,-0.0641,4.7436,-1.9968,1.877,-8.8455,-5.8054,-1.9139,-9.5238,-7.7193,-8.7821,3.764,12.322,-5.7971,2.807
-11.438,-19.048,-12.813,-5.8615,-7.8317,-16.396,-1.9777,-6.7949,-1.9872,-5.8615,-7.8317,-13.724,-7.7193,-3.8278,-10.476,-9.6332,-8.7821,7.5917,3.7915,-7.7295,-1.9777
-7.6461,-15.238,-7.935,-1.9968,-6.8608,-12.568,-13.461,-1.9872,-3.9103,-1.9968,-6.8608,-11.772,-4.8485,-2.8708,-6.6667,-7.7193,-5.8974,-0.0638,-3.7915,-3.8647,-5.8054
-2.9068,-13.333,-9.8862,-5.8615,-12.686,-3.9553,-12.504,-2.9487,-5.8333,-5.8615,-12.686,-11.772,-5.8054,-4.7847,-8.5714,-9.6332,-9.7436,-1.9777,-3.7915,-6.7633,-6.7624
-4.8025,-10.476,-8.9106,-1.9968,-3.9482,-0.12759,-15.375,0.89744,-0.0641,-1.9968,-3.9482,-9.8211,-3.8915,-2.8708,-4.7619,-9.6332,-9.7436,-6.7624,3.7915,-2.8986,-3.8915
-2.9068,-2.8571,-4.0325,0.90177,4.7896,3.7002,-22.073,2.8205,2.8205,0.90177,4.7896,-5.9187,-2.9346,-0.95694,-3.8095,-5.8054,-7.8205,-16.332001,4.7393,-2.8986,3.764
-2.9068,0.0,-2.0813,-2.963,-3.9482,-3.9553,-1.9777,-0.0641,-1.0256,-2.963,-3.9482,-5.9187,-1.0207,0.0,-4.7619,-2.9346,-4.9359,-0.0638,-3.7915,-6.7633,2.807
-8.594,0.95238,-2.0813,-6.8277,-3.9482,-7.7831,5.6778,2.8205,-1.9872,-6.8277,-3.9482,-4.9431,-4.8485,-4.7847,-6.6667,-3.8915,-5.8974,12.376,-1.8957,-6.7633,-4.8485
-3.8547,-3.8095,-2.0813,-1.0306,-0.06472,-6.8262,-1.9777,6.6667,4.7436,-1.0306,-0.06472,-3.9675,-5.8054,-7.6555,-6.6667,-3.8915,-6.859,5.6778,-3.7915,-2.8986,-4.8485
-0.06319,-0.95238,-0.13008,4.7665,-1.0356,-7.7831,-0.0638,0.89744,6.6667,4.7665,-1.0356,-1.0407,-1.9777,-1.9139,-2.8571,2.807,0.83333,4.7209,6.6351,1.9324,1.8501
-0.06319,2.8571,0.84553,-0.06441,-2.9773,-0.12759,2.807,5.7051,2.8205,-0.06441,-2.9773,-2.9919,-3.8915,-2.8708,-3.8095,3.764,0.83333,-1.9777,7.5829,-6.7633,-1.0207
0.88468,4.7619,-1.1057,2.8341,-0.06472,8.4848,-0.0638,6.6667,3.7821,2.8341,-0.06472,-1.0407,-6.7624,-3.8278,-4.7619,-1.0207,-3.0128,-10.59,-4.7393,-8.6957,-1.9777
-1.9589,-4.7619,-5.9837,1.868,-1.0356,5.614,-1.0207,9.5513,0.89744,1.868,-1.0356,-2.9919,-9.6332,-5.7416,-7.619,-9.6332,-7.8205,-2.9346,4.7393,-5.7971,-4.8485
-1.0111,-7.619,-13.789,-2.963,-5.89,-2.9984,-9.6332,6.6667,-3.9103,-2.963,-5.89,-10.797,-12.504,-10.526,-8.5714,-16.332001,-13.59,-11.547,2.8436,-4.8309,-6.7624
-14.281,-12.381,-18.667,-7.7939,-7.8317,-16.396,-17.289,2.8205,-1.9872,-7.7939,-7.8317,-16.65,-11.547,-11.483,-12.381,-17.289,-15.513,6.6348,0.94787,-6.7633,-6.7624
-15.229,-14.286,-18.667,-5.8615,-0.06472,-24.051001,-5.8054,2.8205,1.859,-5.8615,-0.06472,-16.65,-8.6762,-12.44,-12.381,-17.289,-15.513,20.989,-14.218,-5.7971,-8.6762
-9.5419,-7.619,-16.715,-0.06441,-2.0065,-4.9123,-6.7624,13.397,2.8205,-0.06441,-2.0065,-11.772,-9.6332,-15.311,-11.429,-15.375,-16.474001,14.29,-19.905001,-4.8309,-11.547
-10.49,-12.381,-15.74,4.7665,-4.9191,5.614,4.7209,18.205,-1.0256,4.7665,-4.9191,-9.8211,-9.6332,-16.268,-9.5238,-16.332001,-14.551,6.6348,1.8957,-5.7971,-12.504
-10.49,-16.190001,-12.813,-1.9968,-4.9191,-7.7831,4.7209,10.513,0.89744,-1.9968,-4.9191,-7.8699,-8.6762,-13.397,-6.6667,-14.418,-11.667,8.5486,12.322,-3.8647,-8.6762
1.8325,-4.7619,-5.0081,-1.0306,2.8479,-0.12759,-1.0207,6.6667,5.7051,-1.0306,2.8479,-0.06504,-4.8485,-5.7416,0.95238,-6.7624,-4.9359,-6.7624,10.427,0.96618,-3.8915
0.88468,3.8095,-5.0081,3.8003,4.7896,3.7002,-8.6762,12.436,1.859,3.8003,4.7896,1.8862,-4.8485,-8.6124,0.0,-8.6762,-6.859,-7.7193,-8.5308,0.96618,-6.7624
4.6761,-2.8571,-2.0813,3.8003,-2.0065,4.6571,-4.8485,11.474,0.89744,3.8003,-2.0065,3.8374,-5.8054,-16.268,-0.95238,-13.461,-7.8205,4.7209,-10.427,-0.96618,-13.461
0.88468,-9.5238,-0.13008,2.8341,1.877,1.7863,-6.7624,11.474,-1.0256,2.8341,1.877,3.8374,-3.8915,-14.354,0.0,-10.59,-4.9359,16.204,-17.062,0.96618,-13.461
6.5719,-5.7143,-0.13008,0.90177,5.7605,2.7432,5.6778,4.7436,4.7436,0.90177,5.7605,6.7642,1.8501,-7.6555,4.7619,-4.8485,-0.12821,6.6348,-6.6351,4.8309,-3.8915
6.5719,-2.8571,-3.0569,-3.9291,0.90615,-1.0845,16.204,-1.0256,3.7821,-3.9291,0.90615,4.813,5.6778,-3.8278,4.7619,-0.0638,1.7949,-1.9777,9.4787,2.8986,-1.0207
-4.8025,-1.9048,-4.0325,-3.9291,-7.8317,1.7863,7.5917,-2.9487,-0.0641,-3.9291,-7.8317,2.8618,6.6348,-0.95694,0.95238,2.807,2.7564,1.8501,6.6351,0.96618,-4.8485
0.88468,4.7619,6.6992,4.7665,-1.0356,10.399,-0.0638,2.8205,0.89744,4.7665,-1.0356,9.6911,10.463,8.6124,5.7143,10.463,10.449,-3.8915,10.427,2.8986,5.6778
1.8325,9.5238,10.602,-1.0306,4.7896,3.7002,-1.9777,-1.0256,-0.0641,-1.0306,4.7896,10.667,9.5056,12.44,3.8095,11.419,10.449,1.8501,-12.322,2.8986,9.5056
-3.8547,1.9048,5.7236,-4.8953,2.8479,-9.697,-1.0207,-8.7179,-0.0641,-4.8953,2.8479,4.813,7.5917,12.44,0.95238,7.5917,7.5641,7.5917,-10.427,2.8986,3.764
-2.9068,-0.95238,1.8211,-3.9291,-1.0356,-6.8262,-14.418,-10.641,-4.8718,-3.9291,-1.0356,0.91057,3.764,8.6124,-0.95238,2.807,1.7949,-6.7624,4.7393,0.96618,-1.9777
3.7283,0.0,-0.13008,-5.8615,-2.0065,2.7432,-3.8915,-12.564,-3.9103,-5.8615,-2.0065,0.91057,-1.9777,2.8708,0.0,-1.9777,-3.9744,-7.7193,-1.8957,0.96618,-1.9777
-0.06319,-0.95238,-3.0569,-6.8277,-3.9482,-2.9984,15.247,-10.641,1.859,-6.8277,-3.9482,-1.0407,-5.8054,0.0,-0.95238,-2.9346,-6.859,-7.7193,-3.7915,0.96618,2.807
-4.8025,4.7619,-1.1057,-12.625,-6.8608,-11.611,10.463,-9.6795,2.8205,-12.625,-6.8608,-2.0163,-3.8915,2.8708,-3.8095,1.8501,-3.0128,-8.6762,11.374,-4.8309,7.5917
0.88468,11.429,6.6992,-8.7601,-3.9482,-3.9553,-5.8054,-9.6795,-1.0256,-8.7601,-3.9482,0.91057,5.6778,9.5694,2.8571,11.419,8.5256,-13.461,20.853001,0.0,9.5056
6.5719,11.429,11.577,-1.0306,-0.06472,1.7863,-19.202999,-10.641,-3.9103,-1.0306,-0.06472,0.91057,5.6778,5.7416,9.5238,13.333,11.41,-11.547,4.7393,3.8647,3.764
9.4155,14.286,12.553,2.8341,1.877,7.5279,-10.59,-9.6795,0.89744,2.8341,1.877,2.8618,4.7209,5.7416,10.476,13.333,9.4872,9.5056,-5.6872,5.7971,6.6348
1.8325,6.6667,4.748,-3.9291,-2.9773,1.7863,17.160999,-10.641,0.89744,-3.9291,-2.9773,-1.0407,3.764,3.8278,6.6667,7.5917,4.6795,4.7209,-3.7915,6.7633,3.764
9.4155,1.9048,2.7967,-10.692,-2.0065,-0.12759,22.903,-10.641,4.7436,-10.692,-2.0065,-0.06504,8.5486,6.6986,9.5238,6.6348,6.6026,-1.0207,17.062,9.6618,9.5056
3.7283,0.0,2.7967,-8.7601,-6.8608,-6.8262,1.8501,-9.6795,0.89744,-8.7601,-6.8608,-3.9675,5.6778,5.7416,5.7143,6.6348,5.641,0.89314,9.4787,4.8309,7.5917
-3.8547,4.7619,3.7724,-7.7939,-5.89,-8.74,-3.8915,-9.6795,-1.0256,-7.7939,-5.89,-2.9919,2.807,3.8278,1.9048,4.7209,4.6795,-10.59,-11.374,0.96618,5.6778
-4.8025,5.7143,5.7236,-3.9291,-0.06472,-1.0845,-7.7193,-10.641,3.7821,-3.9291,-0.06472,0.91057,3.764,2.8708,2.8571,2.807,2.7564,-13.461,7.5829,1.9324,7.5917
-7.6461,-1.9048,-1.1057,-4.8953,0.90615,-5.8692,-3.8915,-10.641,0.89744,-4.8953,0.90615,-0.06504,1.8501,0.0,-4.7619,-2.9346,-3.0128,-7.7193,12.322,-2.8986,5.6778
-12.385,-6.6667,-9.8862,-6.8277,-2.9773,-12.568,-6.7624,-10.641,-0.0641,-6.8277,-2.9773,-5.9187,-1.9777,-3.8278,-12.381,-9.6332,-9.7436,-7.7193,3.7915,-8.6957,-2.9346
-8.594,-0.95238,-7.935,-12.625,-6.8608,-9.697,-3.8915,-13.526,-1.9872,-12.625,-6.8608,-7.8699,-2.9346,-5.7416,-9.5238,-9.6332,-10.705,-6.7624,-4.7393,-7.7295,-7.7193
-1.9589,-1.9048,-0.13008,-10.692,-2.0065,-0.12759,14.29,-4.8718,-0.0641,-10.692,-2.0065,-2.0163,-1.9777,-8.6124,-4.7619,-4.8485,-8.7821,-1.0207,-6.6351,-2.8986,-8.6762
11.311,0.0,4.748,-1.0306,1.877,4.6571,14.29,-7.7564,8.5897,-1.0306,1.877,3.8374,1.8501,-4.7847,4.7619,1.8501,-1.0897,-16.332001,7.5829,4.8309,-3.8915
-1.0111,5.7143,1.8211,-0.06441,1.877,-2.0415,5.6778,-6.7949,2.8205,-0.06441,1.877,2.8618,5.6778,0.95694,4.7619,8.5486,4.6795,-0.0638,-3.7915,4.8309,2.807
-5.7504,5.7143,1.8211,-1.0306,-2.0065,-6.8262,-5.8054,-7.7564,2.8205,-1.0306,-2.0065,0.91057,6.6348,3.8278,5.7143,11.419,7.5641,9.5056,-6.6351,7.7295,7.5917
-1.9589,6.6667,4.748,-4.8953,-1.0356,-6.8262,-9.6332,-6.7949,-1.9872,-4.8953,-1.0356,0.91057,4.7209,2.8708,8.5714,12.376,8.5256,-2.9346,9.4787,7.7295,5.6778
3.7283,6.6667,6.6992,-3.9291,-0.06472,-2.0415,-16.332001,0.89744,-1.9872,-3.9291,-0.06472,0.91057,2.807,3.8278,13.333,13.333,10.449,-7.7193,7.5829,4.8309,7.5917
5.624,8.5714,7.6748,4.7665,2.8479,2.7432,10.463,9.5513,5.7051,4.7665,2.8479,3.8374,0.89314,3.8278,8.5714,12.376,8.5256,5.6778,5.6872,1.9324,8.5486
3.7283,11.429,6.6992,11.53,4.7896,4.6571,23.860001,7.6282,3.7821,11.53,4.7896,6.7642,-1.0207,3.8278,0.95238,8.5486,2.7564,11.419,-1.8957,-0.96618,5.6778
0.88468,8.5714,5.7236,0.90177,3.8188,9.4418,14.29,-1.9872,0.89744,0.90177,3.8188,4.813,-1.9777,1.9139,-2.8571,2.807,-2.0513,0.89314,1.8957,-2.8986,4.7209
1.8325,1.9048,7.6748,-1.9968,-2.0065,8.4848,12.376,-1.9872,2.8205,-1.9968,-2.0065,5.7886,-1.9777,0.95694,0.0,0.89314,-0.12821,-9.6332,9.4787,0.96618,1.8501
16.997999,6.6667,11.577,2.8341,1.877,7.5279,10.463,-1.9872,7.6282,2.8341,1.877,9.6911,4.7209,6.6986,9.5238,7.5917,6.6026,-0.0638,5.6872,4.8309,5.6778
3.7283,6.6667,5.7236,-4.8953,-2.0065,-3.9553,-20.159,-5.8333,4.7436,-4.8953,-2.0065,-1.0407,3.764,4.7847,3.8095,6.6348,2.7564,3.764,-1.8957,-0.96618,3.764
-1.0111,9.5238,8.6504,-1.9968,0.90615,-7.7831,-21.115999,0.89744,0.89744,-1.9968,0.90615,-1.0407,5.6778,7.6555,3.8095,9.5056,5.641,-3.8915,1.8957,1.9324,6.6348
1.8325,11.429,14.504,4.7665,-2.0065,6.571,18.118,0.89744,1.859,4.7665,-2.0065,5.7886,4.7209,8.6124,4.7619,12.376,10.449,-1.0207,4.7393,1.9324,10.463
7.5197,7.619,11.577,5.7327,-2.0065,5.614,19.075001,-2.9487,-1.9872,5.7327,-2.0065,5.7886,1.8501,9.5694,3.8095,8.5486,8.5256,-25.900999,11.374,-2.8986,7.5917
12.259,-0.95238,9.626,7.6651,4.7896,3.7002,5.6778,2.8205,-2.9487,7.6651,4.7896,6.7642,4.7209,10.526,7.619,4.7209,7.5641,-6.7624,7.5829,-1.9324,6.6348
12.259,-4.7619,4.748,-1.9968,-3.9482,0.82935,-3.8915,6.6667,-6.7949,-1.9968,-3.9482,1.8862,-0.0638,5.7416,2.8571,-1.0207,1.7949,21.945999,-2.8436,-2.8986,3.764
0.88468,-4.7619,1.8211,2.8341,-6.8608,11.356,-17.289,8.5897,-6.7949,2.8341,-6.8608,-1.0407,-0.0638,2.8708,-0.95238,-3.8915,-0.12821,17.160999,-6.6351,2.8986,-0.0638
-4.8025,-2.8571,-0.13008,3.8003,-1.0356,12.313,-29.729,4.7436,-4.8718,3.8003,-1.0356,-1.0407,3.764,3.8278,1.9048,-3.8915,1.7949,5.6778,-18.009001,3.8647,-2.9346
2.7804,-4.7619,-1.1057,-0.06441,-0.06472,1.7863,-1.0207,2.8205,-2.9487,-0.06441,-0.06472,-2.0163,3.764,6.6986,2.8571,-2.9346,1.7949,-0.0638,-10.427,3.8647,-2.9346
8.4676,-11.429,-1.1057,5.7327,-0.06472,2.7432,22.903,2.8205,-3.9103,5.7327,-0.06472,0.91057,0.89314,6.6986,2.8571,-4.8485,-1.0897,2.807,5.6872,4.8309,2.807
2.7804,-5.7143,-2.0813,4.7665,8.6731,6.571,8.5486,5.7051,-0.0641,4.7665,8.6731,2.8618,-1.9777,5.7416,-3.8095,-5.8054,-4.9359,9.5056,0.0,-1.9324,1.8501
-4.8025,6.6667,-3.0569,1.868,6.7314,-11.611,3.764,7.6282,0.89744,1.868,6.7314,-0.06504,-1.9777,4.7847,-5.7143,-3.8915,-5.8974,1.8501,-5.6872,-0.96618,0.89314
-1.0111,0.95238,-3.0569,7.6651,3.8188,-1.0845,-12.504,10.513,-0.0641,7.6651,3.8188,-1.0407,-1.9777,4.7847,-4.7619,-4.8485,-4.9359,-9.6332,-13.27,-1.9324,-0.0638
3.7283,-9.5238,-5.9837,11.53,-1.0356,14.226,-2.9346,14.359,-5.8333,11.53,-1.0356,-1.0407,-3.8915,-0.95694,-0.95238,-9.6332,-5.8974,-1.9777,-18.009001,-5.7971,-4.8485
6.5719,-5.7143,-4.0325,12.496,0.90615,11.356,-8.6762,13.397,-5.8333,12.496,0.90615,2.8618,-3.8915,-4.7847,0.95238,-9.6332,-3.0128,15.247,16.114,-0.96618,-5.8054
6.5719,-8.5714,-2.0813,11.53,10.615,12.313,12.376,11.474,5.7051,11.53,10.615,8.7154,-3.8915,-6.6986,0.95238,-8.6762,-3.0128,11.419,12.322,0.0,-7.7193
14.155,-10.476,-3.0569,4.7665,5.7605,10.399,16.204,2.8205,2.8205,4.7665,5.7605,6.7642,-3.8915,-7.6555,-0.95238,-6.7624,-4.9359,3.764,3.7915,0.0,-7.7193
0.88468,-0.95238,-3.0569,8.6312,0.90615,4.6571,-3.8915,5.7051,1.859,8.6312,0.90615,3.8374,-1.9777,-4.7847,-4.7619,-3.8915,-4.9359,15.247,7.5829,0.96618,-3.8915
-1.0111,11.429,-0.13008,10.564,5.7605,14.226,0.89314,8.5897,1.859,10.564,5.7605,6.7642,-0.0638,-2.8708,-1.9048,-1.0207,-3.0128,7.5917,-34.123001,1.9324,-4.8485
5.624,11.429,1.8211,9.5974,2.8479,11.356,9.5056,9.5513,5.7051,9.5974,2.8479,11.642,2.807,-0.95694,3.8095,1.8501,1.7949,-4.8485,-18.957001,2.8986,-1.9777
2.7804,4.7619,3.7724,13.462,7.7023,15.183,-2.9346,14.359,3.7821,13.462,7.7023,14.569,8.5486,4.7847,5.7143,6.6348,6.6026,0.89314,22.749001,5.7971,6.6348
2.7804,4.7619,7.6748,1.868,14.498,7.5279,8.5486,6.6667,2.8205,1.868,14.498,14.569,11.419,8.6124,7.619,10.463,9.4872,13.333,19.905001,8.6957,3.764
8.4676,9.5238,13.528,8.6312,12.557,5.614,24.816999,1.859,11.474,8.6312,12.557,14.569,10.463,7.6555,9.5238,14.29,12.372,17.160999,10.427,8.6957,-1.9777
11.311,11.429,12.553,7.6651,13.528,6.571,16.204,3.7821,11.474,7.6651,13.528,11.642,7.5917,6.6986,10.476,13.333,10.449,-0.0638,-4.7393,2.8986,-1.0207
16.997999,8.5714,11.577,13.462,14.498,16.139999,15.247,7.6282,10.513,13.462,14.498,12.618,8.5486,6.6986,7.619,9.5056,8.5256,5.6778,-10.427,2.8986,-1.0207
10.363,4.7619,7.6748,16.361,6.7314,19.011,12.376,9.5513,8.5897,16.361,6.7314,10.667,4.7209,2.8708,0.95238,4.7209,5.641,5.6778,-19.905001,-2.8986,-3.8915
2.7804,6.6667,7.6748,14.428,12.557,6.571,8.5486,8.5897,11.474,14.428,12.557,9.6911,2.807,2.8708,1.9048,3.764,5.641,5.6778,12.322,-1.9324,-5.8054
3.7283,1.9048,6.6992,7.6651,7.7023,-2.0415,-5.8054,-1.0256,8.5897,7.6651,7.7023,5.7886,-0.0638,0.95694,0.0,0.89314,1.7949,-7.7193,11.374,-6.7633,-6.7624
8.4676,1.9048,7.6748,4.7665,9.644,4.6571,2.807,2.8205,7.6282,4.7665,9.644,7.7398,-0.0638,0.95694,-0.95238,1.8501,-0.12821,-1.9777,-7.5829,-12.56,-1.9777
6.5719,8.5714,12.553,9.5974,13.528,19.011,22.903,15.321,8.5897,9.5974,13.528,14.569,6.6348,5.7416,1.9048,4.7209,2.7564,6.6348,8.5308,-0.96618,0.89314
6.5719,6.6667,8.6504,11.53,7.7023,20.924999,4.7209,10.513,4.7436,11.53,7.7023,8.7154,5.6778,4.7847,0.0,1.8501,0.83333,1.8501,-11.374,-3.8647,-1.9777
-1.0111,-0.95238,2.7967,14.428,1.877,11.356,-4.8485,10.513,4.7436,14.428,1.877,0.91057,4.7209,1.9139,-0.95238,-2.9346,-2.0513,0.89314,-9.4787,-6.7633,-5.8054
-2.9068,-0.95238,0.84553,13.462,-0.06472,4.6571,6.6348,12.436,3.7821,13.462,-0.06472,-1.0407,7.5917,0.95694,2.8571,-3.8915,-2.0513,0.89314,17.062,5.7971,-5.8054
-1.0111,-0.95238,-2.0813,2.8341,1.877,-1.0845,11.419,5.7051,3.7821,2.8341,1.877,-1.0407,9.5056,2.8708,1.9048,-1.0207,-1.0897,-0.0638,-6.6351,4.8309,-1.9777
-0.06319,0.95238,-0.13008,-1.0306,4.7896,-2.9984,-1.0207,2.8205,1.859,-1.0306,4.7896,-1.0407,14.29,6.6986,2.8571,3.764,4.6795,1.8501,-10.427,4.8309,-1.0207
3.7283,-3.8095,3.7724,-1.9968,-1.0356,-2.9984,-13.461,1.859,-0.0641,-1.9968,-1.0356,-2.9919,13.333,6.6986,5.7143,5.6778,7.5641,14.29,20.853001,6.7633,2.807
-2.9068,-6.6667,-0.13008,0.90177,-3.9482,-2.0415,-19.202999,7.6282,-1.9872,0.90177,-3.9482,-6.8943,6.6348,3.8278,3.8095,3.764,5.641,9.5056,9.4787,4.8309,0.89314
5.624,2.8571,1.8211,7.6651,2.8479,5.614,-0.0638,11.474,-2.9487,7.6651,2.8479,-2.0163,6.6348,4.7847,4.7619,7.5917,8.5256,2.807,-5.6872,3.8647,3.764
10.363,5.7143,6.6992,11.53,7.7023,8.4848,7.5917,9.5513,3.7821,11.53,7.7023,6.7642,4.7209,4.7847,4.7619,10.463,10.449,-1.9777,-1.8957,3.8647,6.6348
12.259,12.381,7.6748,14.428,9.644,14.226,8.5486,10.513,5.7051,14.428,9.644,8.7154,0.89314,1.9139,3.8095,9.5056,6.6026,-2.9346,-13.27,4.8309,7.5917
16.997999,9.5238,5.7236,7.6651,1.877,12.313,14.29,9.5513,1.859,7.6651,1.877,6.7642,-2.9346,-1.9139,2.8571,3.764,0.83333,6.6348,0.94787,1.9324,2.807
6.5719,8.5714,4.748,4.7665,3.8188,3.7002,9.5056,11.474,-0.0641,4.7665,3.8188,3.8374,-1.9777,-1.9139,6.6667,0.89314,2.7564,7.5917,26.540001,1.9324,1.8501
-1.9589,0.0,3.7724,0.90177,3.8188,2.7432,-1.0207,5.7051,0.89744,0.90177,3.8188,3.8374,-1.9777,-0.95694,3.8095,-1.0207,2.7564,-0.0638,15.166,0.0,3.764
-1.9589,-1.9048,0.84553,4.7665,3.8188,5.614,-1.9777,3.7821,0.89744,4.7665,3.8188,2.8618,-3.8915,0.0,-1.9048,-0.0638,1.7949,1.8501,9.4787,-2.8986,5.6778
-2.9068,0.0,-3.0569,-1.9968,1.877,-0.12759,-7.7193,-0.0641,-3.9103,-1.9968,1.877,-2.0163,-3.8915,1.9139,-6.6667,-0.0638,-0.12821,7.5917,2.8436,-4.8309,3.764
1.8325,1.9048,0.84553,-5.8615,-2.9773,-6.8262,-10.59,-1.0256,-7.7564,-5.8615,-2.9773,-2.0163,-1.0207,1.9139,-3.8095,2.807,2.7564,3.764,-1.8957,-2.8986,2.807
11.311,9.5238,9.626,-0.06441,-2.9773,6.571,4.7209,-1.0256,-7.7564,-0.06441,-2.9773,4.813,4.7209,4.7847,3.8095,9.5056,10.449,-1.9777,-4.7393,0.96618,5.6778
10.363,7.619,9.626,5.7327,-1.0356,15.183,13.333,7.6282,-4.8718,5.7327,-1.0356,8.7154,8.5486,5.7416,8.5714,9.5056,12.372,1.8501,-10.427,2.8986,6.6348
8.4676,6.6667,6.6992,5.7327,-3.9482,3.7002,13.333,7.6282,-8.7179,5.7327,-3.9482,9.6911,6.6348,5.7416,7.619,4.7209,7.5641,6.6348,-5.6872,0.96618,0.89314
7.5197,1.9048,7.6748,-5.8615,-2.0065,-1.0845,6.6348,0.89744,-9.6795,-5.8615,-2.0065,7.7398,2.807,3.8278,4.7619,1.8501,3.7179,1.8501,11.374,-1.9324,1.8501
6.5719,-0.95238,10.602,-1.0306,1.877,7.5279,-6.7624,9.5513,-4.8718,-1.0306,1.877,8.7154,2.807,3.8278,4.7619,-1.0207,1.7949,0.89314,9.4787,5.7971,1.8501
14.155,0.0,13.528,11.53,4.7896,12.313,-13.461,6.6667,-4.8718,11.53,4.7896,11.642,2.807,1.9139,6.6667,-0.0638,2.7564,-11.547,4.7393,3.8647,-1.0207
3.7283,3.8095,12.553,11.53,8.6731,4.6571,-12.504,5.7051,-5.8333,11.53,8.6731,10.667,7.5917,8.6124,3.8095,4.7209,6.6026,-1.9777,-12.322,0.0,0.89314
-5.7504,-0.95238,2.7967,2.8341,-2.0065,5.614,8.5486,0.89744,-7.7564,2.8341,-2.0065,1.8862,11.419,13.397,-0.95238,4.7209,6.6026,7.5917,-27.488001,0.96618,1.8501
-4.8025,-1.9048,-5.9837,-4.8953,-8.8026,-3.9553,7.5917,-3.9103,-8.7179,-4.8953,-8.8026,-5.9187,7.5917,11.483,-5.7143,-1.0207,-1.0897,-1.0207,-13.27,-3.8647,-1.0207
-1.9589,1.9048,-5.0081,-2.963,-2.0065,-4.9123,11.419,-0.0641,-0.0641,-2.963,-2.0065,-0.06504,8.5486,12.44,-1.9048,0.89314,-0.12821,-1.0207,4.7393,0.96618,8.5486
5.624,9.5238,5.7236,3.8003,2.8479,0.82935,14.29,0.89744,3.7821,3.8003,2.8479,6.7642,13.333,18.181999,6.6667,8.5486,8.5256,4.7209,7.5829,4.8309,9.5056
6.5719,2.8571,9.626,2.8341,3.8188,2.7432,-1.9777,-2.9487,-0.0641,2.8341,3.8188,7.7398,12.376,19.139,8.5714,11.419,11.41,4.7209,3.7915,0.0,6.6348
5.624,-2.8571,9.626,-1.0306,3.8188,2.7432,-0.0638,-3.9103,-1.0256,-1.0306,3.8188,6.7642,9.5056,17.225,7.619,10.463,9.4872,-3.8915,10.427,1.9324,10.463
4.6761,6.6667,8.6504,2.8341,12.557,6.571,-6.7624,0.89744,2.8205,2.8341,12.557,6.7642,7.5917,13.397,8.5714,9.5056,7.5641,-10.59,-6.6351,4.8309,10.463
0.88468,3.8095,2.7967,2.8341,6.7314,4.6571,-1.0207,-3.9103,5.7051,2.8341,6.7314,2.8618,-1.0207,5.7416,3.8095,4.7209,1.7949,-11.547,-9.4787,2.8986,7.5917
1.8325,-0.95238,-4.0325,-1.0306,1.877,-3.9553,22.903,-6.7949,5.7051,-1.0306,1.877,-0.06504,-7.7193,-0.95694,0.95238,-0.0638,-3.0128,-6.7624,5.6872,-1.9324,5.6778
-3.8547,2.8571,-7.935,2.8341,5.7605,-5.8692,21.945999,-1.9872,0.89744,2.8341,5.7605,-1.0407,-8.6762,-3.8278,0.0,-1.9777,-3.0128,1.8501,8.5308,-2.8986,8.5486
-3.8547,-9.5238,-13.789,-0.06441,4.7896,-3.9553,0.89314,-5.8333,-1.9872,-0.06441,4.7896,-6.8943,-10.59,-8.6124,-2.8571,-5.8054,-3.9744,-8.6762,-1.8957,-0.96618,2.807
-11.438,-20.952,-20.618,-11.659,-6.8608,-13.525,-23.987,-6.7949,-3.9103,-11.659,-6.8608,-16.65,-15.375,-14.354,-12.381,-11.547,-10.705,-4.8485,-4.7393,-7.7295,-5.8054
-17.125,-15.238,-18.667,-15.523,-10.744,-13.525,-31.643,-9.6795,-9.6795,-15.523,-10.744,-20.552999,-19.202999,-14.354,-12.381,-10.59,-10.705,-4.8485,-11.374,-4.8309,-4.8485
-9.5419,-9.5238,-14.764,-9.7262,-3.9482,-20.223,-1.9777,-13.526,-5.8333,-9.7262,-3.9482,-17.625999,-15.375,-10.526,-7.619,-5.8054,-6.859,-0.0638,-10.427,0.0,-1.9777
-14.281,-12.381,-14.764,-6.8277,-1.0356,-18.309,-11.547,-14.487,-3.9103,-6.8277,-1.0356,-14.699,-11.547,-7.6555,-7.619,-6.7624,-6.859,-3.8915,-2.8436,-6.7633,-2.9346
-14.281,-8.5714,-12.813,-7.7939,-3.9482,-5.8692,-9.6332,-12.564,-5.8333,-7.7939,-3.9482,-13.724,-9.6332,-6.6986,-7.619,-3.8915,-5.8974,-8.6762,10.427,-10.628,1.8501
-11.438,-2.8571,-8.9106,-12.625,-2.9773,-8.74,6.6348,-13.526,-0.0641,-12.625,-2.9773,-13.724,-10.59,-4.7847,-9.5238,-1.9777,-4.9359,-3.8915,6.6351,-10.628,5.6778
-13.333,-5.7143,-8.9106,-10.692,-3.9482,-9.697,-1.9777,-6.7949,2.8205,-10.692,-3.9482,-12.748,-6.7624,-3.8278,-10.476,-1.9777,-4.9359,-0.0638,-7.5829,-7.7295,6.6348
-10.49,-7.619,-11.837,-10.692,-3.9482,-8.74,-8.6762,-3.9103,-0.0641,-10.692,-3.9482,-12.748,-3.8915,-4.7847,-7.619,-8.6762,-8.7821,-22.073,-2.8436,-4.8309,-0.0638
-0.06319,-4.7619,-7.935,-6.8277,-3.9482,-7.7831,-14.418,-5.8333,-1.0256,-6.8277,-3.9482,-4.9431,-1.0207,-3.8278,-3.8095,-9.6332,-5.8974,-2.9346,14.218,-0.96618,-0.0638
0.88468,-3.8095,-3.0569,-5.8615,-2.9773,-1.0845,3.764,-1.0256,2.8205,-5.8615,-2.9773,-2.0163,1.8501,-1.9139,0.95238,-1.9777,0.83333,7.5917,7.5829,3.8647,5.6778
-3.8547,-4.7619,-2.0813,-5.8615,-5.89,-7.7831,-4.8485,-4.8718,-0.0641,-5.8615,-5.89,-7.8699,-4.8485,-5.7416,-0.95238,-1.9777,0.83333,-6.7624,-0.94787,-4.8309,0.89314
1.8325,-0.95238,-0.13008,-10.692,-8.8026,-14.482,-4.8485,-7.7564,-1.0256,-10.692,-8.8026,-10.797,-6.7624,-7.6555,0.95238,0.89314,1.7949,-1.0207,2.8436,-4.8309,2.807
3.7283,5.7143,1.8211,-8.7601,-8.8026,-7.7831,10.463,-9.6795,2.8205,-8.7601,-8.8026,-6.8943,-1.9777,-3.8278,4.7619,3.764,5.641,16.204,-7.5829,3.8647,7.5917
-1.0111,5.7143,0.84553,-4.8953,-6.8608,-2.0415,-1.0207,-4.8718,4.7436,-4.8953,-6.8608,-5.9187,0.89314,-0.95694,3.8095,4.7209,4.6795,4.7209,1.8957,4.8309,6.6348
-0.06319,-5.7143,-5.0081,-10.692,-5.89,-9.697,-6.7624,-11.603,0.89744,-10.692,-5.89,-11.772,-3.8915,-5.7416,-1.9048,0.89314,-2.0513,-4.8485,15.166,0.96618,-1.0207
-7.6461,-2.8571,-4.0325,-12.625,-3.9482,-13.525,-10.59,-11.603,0.89744,-12.625,-3.9482,-12.748,-0.0638,-3.8278,1.9048,3.764,-0.12821,-2.9346,10.427,4.8309,2.807
-5.7504,7.619,0.84553,-8.7601,-2.9773,-5.8692,-2.9346,-2.9487,1.859,-8.7601,-2.9773,-6.8943,4.7209,1.9139,5.7143,8.5486,4.6795,-2.9346,-8.5308,9.6618,6.6348
0.88468,6.6667,1.8211,-7.7939,-3.9482,-1.0845,-7.7193,-3.9103,1.859,-7.7939,-3.9482,-3.9675,4.7209,2.8708,3.8095,7.5917,2.7564,-1.9777,2.8436,6.7633,2.807
2.7804,16.190001,6.6992,-2.963,2.8479,4.6571,17.160999,-1.9872,10.513,-2.963,2.8479,4.813,5.6778,6.6986,6.6667,13.333,5.641,8.5486,22.749001,4.8309,4.7209
-1.0111,14.286,8.6504,5.7327,8.6731,7.5279,21.945999,-2.9487,11.474,5.7327,8.6731,10.667,6.6348,5.7416,4.7619,13.333,7.5641,-4.8485,16.114,2.8986,2.807
-2.9068,10.476,6.6992,5.7327,7.7023,4.6571,13.333,-9.6795,11.474,5.7327,7.7023,12.618,2.807,1.9139,-0.95238,7.5917,4.6795,-7.7193,8.5308,-0.96618,1.8501
-1.9589,15.238,5.7236,3.8003,7.7023,2.7432,8.5486,-8.7179,10.513,3.8003,7.7023,14.569,0.89314,0.95694,-1.9048,8.5486,4.6795,-7.7193,-24.645,-1.9324,1.8501
0.88468,12.381,6.6992,6.6989,10.615,5.614,6.6348,-8.7179,10.513,6.6989,10.615,13.593,-1.0207,-0.95694,-2.8571,9.5056,3.7179,-1.9777,0.94787,0.0,8.5486
1.8325,9.5238,6.6992,12.496,14.498,6.571,20.032,0.89744,7.6282,12.496,14.498,14.569,1.8501,0.95694,1.9048,7.5917,2.7564,2.807,23.697001,5.7971,5.6778
4.6761,-0.95238,1.8211,6.6989,5.7605,5.614,19.075001,1.859,3.7821,6.6989,5.7605,9.6911,1.8501,-2.8708,3.8095,-2.9346,-0.12821,-10.59,7.5829,1.9324,-8.6762
1.8325,4.7619,3.7724,6.6989,5.7605,13.27,-1.9777,-0.0641,4.7436,6.6989,5.7605,10.667,1.8501,-0.95694,4.7619,-1.0207,1.7949,-7.7193,10.427,1.9324,-3.8915
2.7804,12.381,8.6504,15.395,9.644,17.097,3.764,3.7821,9.5513,15.395,9.644,16.52,2.807,3.8278,3.8095,6.6348,6.6026,5.6778,6.6351,0.0,2.807
14.155,7.619,11.577,14.428,14.498,15.183,26.73,-1.0256,11.474,14.428,14.498,18.472,3.764,2.8708,3.8095,7.5917,8.5256,6.6348,-11.374,-2.8986,2.807
13.207,10.476,16.455,12.496,14.498,14.226,27.687,-1.0256,9.5513,12.496,14.498,19.447001,7.5917,6.6986,11.429,12.376,14.295,-5.8054,-1.8957,0.96618,6.6348
9.4155,16.190001,18.407,13.462,14.498,10.399,16.204,5.7051,7.6282,13.462,14.498,20.423,11.419,9.5694,14.286,15.247,20.063999,-12.504,12.322,8.6957,4.7209
1.8325,12.381,11.577,12.496,9.644,7.5279,12.376,4.7436,4.7436,12.496,9.644,14.569,10.463,10.526,8.5714,14.29,17.179001,-1.9777,14.218,3.8647,4.7209
1.8325,16.190001,10.602,12.496,10.615,6.571,9.5056,1.859,1.859,12.496,10.615,12.618,8.5486,10.526,4.7619,16.204,14.295,5.6778,-5.6872,0.0,4.7209
11.311,11.429,6.6992,9.5974,6.7314,2.7432,4.7209,-1.0256,1.859,9.5974,6.7314,5.7886,9.5056,8.6124,8.5714,12.376,9.4872,-1.0207,1.8957,6.7633,4.7209
-1.0111,-5.7143,-9.8862,1.868,-1.0356,-10.654,-10.59,-2.9487,-3.9103,1.868,-1.0356,-9.8211,5.6778,2.8708,3.8095,1.8501,-0.12821,0.89314,-4.7393,6.7633,3.764
-17.125,-20.952,-22.569,2.8341,-2.0065,-18.309,-19.202999,-2.9487,-5.8333,2.8341,-2.0065,-23.48,3.764,0.95694,0.0,-5.8054,-6.859,-1.0207,-2.8436,7.7295,0.89314
-15.229,-27.618999,-26.472,8.6312,2.8479,-15.439,-30.686001,-7.7564,-6.7949,8.6312,2.8479,-26.407,-0.0638,-2.8708,-1.9048,-15.375,-12.628,-2.9346,1.8957,3.8647,-3.8915
-4.8025,-20.952,-14.764,15.395,6.7314,-5.8692,-23.987,0.89744,-1.9872,15.395,6.7314,-16.65,-1.9777,-4.7847,-1.9048,-17.289,-13.59,-3.8915,3.7915,4.8309,-5.8054
1.8325,-13.333,-4.0325,17.327,17.410999,1.7863,-13.461,6.6667,1.859,17.327,17.410999,-7.8699,1.8501,-1.9139,-3.8095,-13.461,-10.705,1.8501,-15.166,3.8647,-3.8915
9.4155,-6.6667,-1.1057,20.225,26.149,2.7432,-22.073,2.8205,4.7436,20.225,26.149,-3.9675,3.764,0.0,-0.95238,-8.6762,-6.859,10.463,-1.8957,-0.96618,-1.0207
0.88468,-8.5714,-6.9593,22.158001,25.177999,-2.9984,1.8501,-1.0256,4.7436,22.158001,25.177999,-5.9187,2.807,-2.8708,1.9048,-8.6762,-6.859,3.764,23.697001,0.0,2.807
3.7283,1.9048,-5.0081,27.955,35.858002,-5.8692,12.376,0.89744,12.436,27.955,35.858002,-2.0163,7.5917,2.8708,6.6667,-0.0638,-2.0513,10.463,10.427,6.7633,6.6348
-2.9068,7.619,-5.9837,28.921,31.974001,-3.9553,-1.9777,1.859,11.474,28.921,31.974001,-0.06504,2.807,2.8708,0.0,1.8501,-3.9744,2.807,2.8436,3.8647,2.807
-11.438,-3.8095,-10.862,18.292999,24.207001,1.7863,0.89314,-1.9872,8.5897,18.292999,24.207001,-3.9675,-7.7193,-2.8708,-9.5238,-2.9346,-10.705,-4.8485,-4.7393,0.96618,-1.0207
-1.9589,-2.8571,-5.9837,17.327,23.236,7.5279,-1.9777,-1.9872,4.7436,17.327,23.236,-3.9675,-6.7624,-1.9139,-6.6667,-0.0638,-7.8205,-5.8054,9.4787,0.0,3.764
-1.9589,6.6667,1.8211,18.292999,22.264999,4.6571,-1.9777,-2.9487,3.7821,18.292999,22.264999,0.91057,-5.8054,0.0,-4.7619,3.764,-2.0513,1.8501,15.166,-0.96618,6.6348
3.7283,2.8571,3.7724,11.53,23.236,-0.12759,5.6778,-6.7949,11.474,11.53,23.236,4.813,-7.7193,-1.9139,-1.9048,3.764,-2.0513,-6.7624,6.6351,-1.9324,10.463
3.7283,-1.9048,-2.0813,9.5974,11.586,-4.9123,6.6348,-9.6795,5.7051,9.5974,11.586,1.8862,-10.59,-4.7847,-5.7143,-2.9346,-6.859,-0.0638,0.0,-3.8647,3.764
-1.9589,-6.6667,-4.0325,11.53,2.8479,-1.0845,-12.504,-11.603,-1.9872,11.53,2.8479,-1.0407,-11.547,-9.5694,-6.6667,-7.7193,-8.7821,0.89314,4.7393,0.0,-4.8485
11.311,5.7143,6.6992,7.6651,7.7023,8.4848,7.5917,-2.9487,1.859,7.6651,7.7023,7.7398,-7.7193,-7.6555,2.8571,-3.8915,-3.9744,5.6778,1.8957,4.8309,-1.0207
3.7283,0.95238,7.6748,1.868,4.7896,8.4848,20.032,-3.9103,3.7821,1.868,4.7896,9.6911,-8.6762,-6.6986,0.95238,-6.7624,-5.8974,3.764,-1.8957,1.9324,-4.8485
-0.06319,-2.8571,6.6992,4.7665,3.8188,7.5279,1.8501,-2.9487,-0.0641,4.7665,3.8188,9.6911,-4.8485,-3.8278,-1.9048,-6.7624,-4.9359,-7.7193,4.7393,0.0,-7.7193
10.363,0.95238,7.6748,2.8341,0.90615,8.4848,-1.0207,-7.7564,0.89744,2.8341,0.90615,9.6911,-5.8054,-3.8278,-0.95238,-3.8915,-2.0513,-5.8054,-18.009001,-6.7633,-8.6762
6.5719,9.5238,9.626,1.868,-0.06472,4.6571,-9.6332,-3.9103,-1.9872,1.868,-0.06472,9.6911,-4.8485,0.95694,0.95238,0.89314,1.7949,5.6778,-7.5829,-8.6957,-3.8915
-1.9589,6.6667,7.6748,-1.0306,-3.9482,1.7863,-1.9777,-3.9103,-2.9487,-1.0306,-3.9482,7.7398,-2.9346,5.7416,1.9048,2.807,3.7179,-2.9346,-10.427,-1.9324,0.89314
-6.6983,-3.8095,2.7967,-6.8277,-2.0065,-1.0845,-0.0638,-11.603,-1.0256,-6.8277,-2.0065,3.8374,-1.9777,6.6986,0.95238,-1.9777,1.7949,-4.8485,0.0,-0.96618,-1.9777
-1.9589,-5.7143,3.7724,-1.0306,-2.0065,-0.12759,11.419,-1.0256,2.8205,-1.0306,-2.0065,7.7398,3.764,12.44,4.7619,0.89314,6.6026,2.807,15.166,2.8986,0.89314
1.8325,-5.7143,0.84553,-1.9968,-2.9773,1.7863,4.7209,-5.8333,-4.8718,-1.9968,-2.9773,3.8374,0.89314,7.6555,-1.9048,-2.9346,4.6795,-0.0638,-14.218,-1.9324,-0.0638
-1.9589,-6.6667,-3.0569,-5.8615,-6.8608,5.614,-4.8485,-6.7949,-13.526,-5.8615,-6.8608,0.91057,2.807,4.7847,-5.7143,-7.7193,-0.12821,-4.8485,-20.853001,-2.8986,-6.7624
-17.125,-20.952,-12.813,-8.7601,-13.657,-4.9123,-24.944,-7.7564,-15.449,-8.7601,-13.657,-8.8455,2.807,0.0,-8.5714,-17.289,-6.859,-17.289,-10.427,-6.7633,-10.59
-19.968,-28.570999,-14.764,-7.7939,-11.715,-18.309,-28.771999,-20.256001,-15.449,-7.7939,-11.715,-13.724,2.807,-1.9139,-8.5714,-19.202999,-6.859,-8.6762,-10.427,-10.628,-14.418
-11.438,-19.048,-6.9593,-6.8277,-13.657,-17.351999,-15.375,-19.295,-15.449,-6.8277,-13.657,-11.772,3.764,-0.95694,-1.9048,-13.461,-1.0897,-5.8054,-14.218,-5.7971,-15.375
-6.6983,-10.476,-1.1057,-15.523,-11.715,-7.7831,-9.6332,-13.526,-4.8718,-15.523,-11.715,-5.9187,3.764,-0.95694,1.9048,-8.6762,1.7949,-13.461,-18.957001,-3.8647,-9.6332
-7.6461,-7.619,-3.0569,-17.455999,-12.686,-11.611,-4.8485,-10.641,-4.8718,-17.455999,-12.686,-6.8943,2.807,-2.8708,0.0,-7.7193,-0.12821,-6.7624,-12.322,-4.8309,-8.6762
-0.06319,1.9048,1.8211,-13.591,-10.744,-5.8692,-1.9777,-2.9487,-0.0641,-13.591,-10.744,-2.9919,7.5917,3.8278,4.7619,0.89314,5.641,-1.9777,0.0,1.9324,-4.8485
7.5197,8.5714,7.6748,-19.388,-8.8026,1.7863,10.463,-6.7949,4.7436,-19.388,-8.8026,-1.0407,11.419,7.6555,7.619,7.5917,9.4872,-7.7193,-0.94787,2.8986,-1.0207
4.6761,9.5238,9.626,-17.455999,-8.8026,-3.9553,-13.461,-8.7179,2.8205,-17.455999,-8.8026,-2.0163,8.5486,5.7416,5.7143,6.6348,6.6026,-7.7193,-3.7915,0.96618,-1.0207
7.5197,7.619,8.6504,-18.422001,-11.715,-8.74,-2.9346,-9.6795,6.6667,-18.422001,-11.715,-2.9919,6.6348,3.8278,4.7619,4.7209,2.7564,-16.332001,13.27,1.9324,-1.9777
4.6761,0.0,4.748,-22.287001,-15.599,-3.9553,13.333,-4.8718,5.7051,-22.287001,-15.599,-5.9187,5.6778,2.8708,0.95238,2.807,1.7949,-1.0207,4.7393,-0.96618,-0.0638
1.8325,3.8095,5.7236,-22.287001,-18.511,-5.8692,-5.8054,4.7436,6.6667,-22.287001,-18.511,-4.9431,10.463,4.7847,3.8095,6.6348,4.6795,14.29,-10.427,0.96618,4.7209
0.88468,4.7619,3.7724,-24.219,-22.395,-10.654,-1.9777,3.7821,2.8205,-24.219,-22.395,-6.8943,6.6348,0.95694,1.9048,5.6778,1.7949,3.764,0.94787,-0.96618,-1.0207
5.624,8.5714,3.7724,-18.422001,-21.424,-2.0415,9.5056,4.7436,2.8205,-18.422001,-21.424,-2.9919,0.89314,0.0,-4.7619,3.764,-3.0128,3.764,0.94787,-6.7633,-0.0638
2.7804,11.429,4.748,-12.625,-16.57,-6.8262,4.7209,8.5897,6.6667,-12.625,-16.57,0.91057,0.89314,0.0,-3.8095,1.8501,-3.9744,0.89314,2.8436,-6.7633,4.7209
3.7283,5.7143,2.7967,-11.659,-15.599,-7.7831,-6.7624,5.7051,1.859,-11.659,-15.599,0.91057,-5.8054,-6.6986,-6.6667,-2.9346,-7.8205,-2.9346,6.6351,-10.628,-1.9777
2.7804,4.7619,2.7967,-19.388,-14.628,10.399,10.463,9.5513,-1.0256,-19.388,-14.628,2.8618,-11.547,-12.44,-6.6667,-3.8915,-7.8205,0.89314,4.7393,-10.628,-4.8485
14.155,17.143,10.602,-9.7262,-8.8026,16.139999,24.816999,20.128,10.513,-9.7262,-8.8026,13.593,-6.7624,-10.526,1.9048,1.8501,-2.0513,9.5056,-6.6351,-2.8986,-1.0207
1.8325,10.476,3.7724,-4.8953,-13.657,3.7002,3.764,19.167,10.513,-4.8953,-13.657,6.7642,-12.504,-16.268,-6.6667,-3.8915,-8.7821,-0.0638,-7.5829,-8.6957,-4.8485
1.8325,4.7619,-1.1057,-8.7601,-18.511,-1.0845,-1.9777,8.5897,5.7051,-8.7601,-18.511,1.8862,-15.375,-21.052999,-8.5714,-9.6332,-13.59,-2.9346,2.8436,-7.7295,-8.6762
-0.06319,-3.8095,-1.1057,-5.8615,-16.57,-4.9123,10.463,9.5513,4.7436,-5.8615,-16.57,3.8374,-14.418,-19.139,-7.619,-9.6332,-11.667,8.5486,18.957001,-6.7633,-7.7193
-3.8547,-5.7143,-3.0569,-1.0306,-5.89,2.7432,10.463,13.397,6.6667,-1.0306,-5.89,6.7642,-11.547,-13.397,-8.5714,-8.6762,-8.7821,22.903,16.114,-2.8986,-2.9346
-6.6983,-6.6667,-9.8862,-3.9291,-2.0065,2.7432,-1.9777,13.397,1.859,-3.9291,-2.0065,2.8618,-7.7193,-10.526,-8.5714,-8.6762,-8.7821,12.376,-1.8957,3.8647,-2.9346
-18.073,-13.333,-20.618,-7.7939,-12.686,-1.0845,8.5486,8.5897,-6.7949,-7.7939,-12.686,-3.9675,-8.6762,-11.483,-12.381,-11.547,-12.628,-0.0638,-16.114,-0.96618,-1.0207
-18.073,-18.094999,-23.545,-8.7601,-10.744,-9.697,-2.9346,9.5513,-11.603,-8.7601,-10.744,-8.8455,-9.6332,-12.44,-11.429,-14.418,-15.513,0.89314,-22.749001,-3.8647,-9.6332
-11.438,-16.190001,-17.691,-14.557,-11.715,-10.654,-17.289,5.7051,-15.449,-14.557,-11.715,-7.8699,-9.6332,-11.483,-8.5714,-12.504,-13.59,-6.7624,-12.322,0.0,-16.332001
-13.333,-19.048,-13.789,-4.8953,-16.57,-7.7831,-16.332001,3.7821,-12.564,-4.8953,-16.57,-6.8943,-10.59,-11.483,-10.476,-10.59,-10.705,5.6778,2.8436,0.0,-15.375
-13.333,-18.094999,-12.813,-6.8277,-11.715,-11.611,-15.375,4.7436,-13.526,-6.8277,-11.715,-9.8211,-5.8054,-5.7416,-6.6667,-6.7624,-3.9744,15.247,6.6351,5.7971,-8.6762
-11.438,-23.809999,-17.691,-17.455999,-10.744,-18.309,-19.202999,3.7821,-17.372,-17.455999,-10.744,-15.675,-3.8915,-3.8278,-6.6667,-9.6332,-4.9359,9.5056,-10.427,0.0,-7.7193
-7.6461,-26.667,-20.618,-17.455999,-17.540001,-18.309,-31.643,1.859,-20.256001,-17.455999,-17.540001,-18.601999,-3.8915,-3.8278,-7.619,-12.504,-7.8205,8.5486,-37.915001,-4.8309,-11.547
-7.6461,-21.905001,-15.74,-15.523,-11.715,-9.697,-14.418,-0.0641,-13.526,-15.523,-11.715,-10.797,-0.0638,-0.95694,-2.8571,-8.6762,-4.9359,4.7209,-18.957001,0.0,-3.8915
-10.49,-18.094999,-13.789,-9.7262,-8.8026,-5.8692,1.8501,1.859,-14.487,-9.7262,-8.8026,-7.8699,-0.0638,0.0,-6.6667,-9.6332,-5.8974,-3.8915,4.7393,-3.8647,-1.9777
-4.8025,-14.286,-9.8862,-2.963,-5.89,-0.12759,-7.7193,8.5897,-13.526,-2.963,-5.89,-4.9431,6.6348,7.6555,-2.8571,-4.8485,-2.0513,-1.9777,-3.7915,-0.96618,-1.9777
-1.0111,-7.619,-5.9837,-2.963,-3.9482,1.7863,-9.6332,8.5897,-12.564,-2.963,-3.9482,-2.9919,10.463,10.526,2.8571,0.89314,2.7564,4.7209,-5.6872,1.9324,-0.0638
-2.9068,-12.381,-7.935,-11.659,-6.8608,-3.9553,-8.6762,3.7821,-13.526,-11.659,-6.8608,-5.9187,8.5486,5.7416,2.8571,-1.0207,0.83333,7.5917,-14.218,6.7633,-2.9346
-4.8025,-8.5714,-7.935,-13.591,-16.57,-6.8262,-17.289,-6.7949,-18.333,-13.591,-16.57,-9.8211,6.6348,0.95694,1.9048,-4.8485,-2.0513,6.6348,-12.322,7.7295,-7.7193
4.6761,-1.9048,1.8211,-7.7939,-6.8608,-2.0415,-9.6332,1.859,-8.7179,-7.7939,-6.8608,-0.06504,10.463,6.6986,8.5714,0.89314,3.7179,17.160999,-5.6872,9.6618,1.8501
5.624,-6.6667,2.7967,-8.7601,-8.8026,-2.9984,-10.59,7.6282,-8.7179,-8.7601,-8.8026,-1.0407,6.6348,0.95694,6.6667,-2.9346,0.83333,8.5486,-2.8436,1.9324,0.89314
9.4155,0.95238,3.7724,-5.8615,-7.8317,1.7863,-15.375,7.6282,-9.6795,-5.8615,-7.8317,-1.0407,1.8501,-1.9139,6.6667,-2.9346,-1.0897,1.8501,5.6872,0.96618,0.89314
8.4676,-2.8571,-0.13008,-0.06441,-11.715,5.614,-7.7193,5.7051,-8.7179,-0.06441,-11.715,-3.9675,-5.8054,-6.6986,0.95238,-6.7624,-6.859,-0.0638,8.5308,-1.9324,0.89314
6.5719,-1.9048,0.84553,-2.963,-8.8026,5.614,3.764,7.6282,-5.8333,-2.963,-8.8026,-2.9919,-8.6762,-6.6986,-0.95238,-5.8054,-7.8205,0.89314,-14.218,1.9324,-1.9777
3.7283,10.476,5.7236,-4.8953,-6.8608,0.82935,10.463,1.859,-0.0641,-4.8953,-6.8608,-0.06504,-5.8054,-1.9139,0.95238,3.764,-2.0513,-5.8054,-8.5308,2.8986,4.7209
-3.8547,12.381,3.7724,-7.7939,-7.8317,-4.9123,2.807,-2.9487,1.859,-7.7939,-7.8317,-1.0407,-3.8915,-1.9139,-0.95238,6.6348,-2.0513,-1.0207,7.5829,0.0,2.807
-5.7504,11.429,-1.1057,-6.8277,-3.9482,-1.0845,-0.0638,-0.0641,6.6667,-6.8277,-3.9482,-1.0407,-6.7624,-4.7847,-4.7619,1.8501,-6.859,11.419,27.488001,1.9324,0.89314
-9.5419,8.5714,-6.9593,-2.963,-1.0356,-2.9984,-3.8915,-1.9872,8.5897,-2.963,-1.0356,-3.9675,-15.375,-8.6124,-14.286,-6.7624,-16.474001,6.6348,14.218,-7.7295,-0.0638
-8.594,9.5238,-5.0081,-0.06441,7.7023,2.7432,1.8501,-5.8333,11.474,-0.06441,7.7023,0.91057,-12.504,-4.7847,-13.333,-1.9777,-14.551,1.8501,-6.6351,-8.6957,5.6778
-7.6461,9.5238,-2.0813,-7.7939,6.7314,-4.9123,17.160999,-7.7564,12.436,-7.7939,6.7314,1.8862,-7.7193,-2.8708,-10.476,1.8501,-11.667,0.89314,7.5829,-1.9324,10.463
-2.9068,9.5238,0.84553,-6.8277,-0.06472,-10.654,25.774,-7.7564,13.397,-6.8277,-0.06472,2.8618,-3.8915,-2.8708,-5.7143,1.8501,-7.8205,-8.6762,11.374,2.8986,5.6778
-4.8025,9.5238,2.7967,-1.0306,3.8188,-5.8692,22.903,-1.0256,12.436,-1.0306,3.8188,3.8374,-1.0207,-1.9139,-3.8095,0.89314,-5.8974,-11.547,-1.8957,2.8986,3.764
-1.0111,8.5714,0.84553,-2.963,3.8188,-8.74,-2.9346,-13.526,4.7436,-2.963,3.8188,-0.06504,-2.9346,-1.9139,-4.7619,-1.0207,-6.859,-20.159,0.0,-3.8647,-1.0207
-1.0111,6.6667,2.7967,-1.9968,5.7605,-4.9123,-12.504,-17.372,8.5897,-1.9968,5.7605,0.91057,-0.0638,0.0,-2.8571,4.7209,-1.0897,-16.332001,21.801001,-0.96618,3.764
-20.916,-1.9048,-5.0081,-13.591,1.877,-10.654,0.89314,-20.256001,4.7436,-13.591,1.877,-7.8699,-6.7624,-7.6555,-10.476,0.89314,-4.9359,2.807,9.4787,-6.7633,0.89314
-17.125,7.619,0.84553,-11.659,-2.9773,-9.697,11.419,-14.487,-0.0641,-11.659,-2.9773,-6.8943,-7.7193,-4.7847,-8.5714,6.6348,-1.0897,7.5917,2.8436,-5.7971,4.7209
-1.0111,16.190001,11.577,-7.7939,-1.0356,-4.9123,27.687,-14.487,2.8205,-7.7939,-1.0356,3.8374,-2.9346,0.95694,3.8095,15.247,7.5641,-9.6332,12.322,6.7633,8.5486
5.624,15.238,14.504,-1.0306,3.8188,-3.9553,24.816999,-11.603,9.5513,-1.0306,3.8188,7.7398,0.89314,3.8278,4.7619,18.118,11.41,-0.0638,0.94787,4.8309,11.419
0.88468,18.094999,12.553,0.90177,5.7605,-1.0845,-7.7193,-8.7179,4.7436,0.90177,5.7605,6.7642,4.7209,8.6124,2.8571,20.989,12.372,3.764,-1.8957,0.0,17.160999
-2.9068,10.476,6.6992,-2.963,-2.9773,-2.0415,-8.6762,-12.564,-1.9872,-2.963,-2.9773,1.8862,1.8501,3.8278,0.95238,13.333,6.6026,-11.547,11.374,0.0,11.419
6.5719,10.476,10.602,0.90177,-1.0356,3.7002,-0.0638,-5.8333,-0.0641,0.90177,-1.0356,3.8374,3.764,4.7847,8.5714,13.333,9.4872,-7.7193,18.957001,10.628,9.5056
4.6761,7.619,12.553,-2.963,-2.9773,8.4848,5.6778,0.89744,1.859,-2.963,-2.9773,3.8374,5.6778,7.6555,9.5238,14.29,11.41,9.5056,17.062,13.527,9.5056
16.051001,10.476,15.48,-5.8615,-6.8608,8.4848,15.247,-3.9103,-0.0641,-5.8615,-6.8608,5.7886,10.463,11.483,13.333,18.118,15.256,-1.9777,0.94787,8.6957,12.376
3.7283,11.429,10.602,-6.8277,-9.7735,-7.7831,12.376,-8.7179,-1.9872,-6.8277,-9.7735,-0.06504,8.5486,9.5694,10.476,15.247,13.333,-0.0638,8.5308,3.8647,8.5486
-6.6983,4.7619,1.8211,-10.692,-11.715,-13.525,-15.375,-12.564,-8.7179,-10.692,-11.715,-8.8455,3.764,4.7847,3.8095,6.6348,5.641,3.764,13.27,0.0,7.5917
1.8325,3.8095,8.6504,-4.8953,-5.89,-2.9984,-28.771999,-4.8718,-4.8718,-4.8953,-5.89,-2.0163,9.5056,9.5694,10.476,8.5486,11.41,-1.9777,4.7393,8.6957,9.5056
16.051001,6.6667,17.431,-1.9968,-10.744,6.571,-16.332001,0.89744,2.8205,-1.9968,-10.744,4.813,11.419,11.483,18.094999,15.247,17.179001,1.8501,-8.5308,12.56,15.247
10.363,5.7143,12.553,-6.8277,-14.628,7.5279,4.7209,-0.0641,-5.8333,-6.8277,-14.628,-0.06504,5.6778,7.6555,11.429,13.333,12.372,-1.0207,0.94787,5.7971,10.463
5.624,8.5714,8.6504,-2.963,-12.686,8.4848,10.463,1.859,-6.7949,-2.963,-12.686,0.91057,7.5917,10.526,9.5238,12.376,10.449,-9.6332,7.5829,4.8309,6.6348
14.155,15.238,9.626,-1.9968,-7.8317,9.4418,13.333,0.89744,-6.7949,-1.9968,-7.8317,4.813,8.5486,10.526,7.619,11.419,11.41,-4.8485,3.7915,0.96618,9.5056
20.790001,8.5714,14.504,2.8341,-3.9482,13.27,0.89314,7.6282,-2.9487,2.8341,-3.9482,9.6911,7.5917,9.5694,9.5238,9.5056,13.333,12.376,11.374,2.8986,8.5486
16.051001,5.7143,17.431,7.6651,2.8479,15.183,-1.9777,10.513,-0.0641,7.6651,2.8479,14.569,9.5056,10.526,11.429,10.463,14.295,13.333,12.322,6.7633,8.5486
23.632999,18.094999,21.333,6.6989,3.8188,19.011,-1.0207,11.474,-0.0641,6.6989,3.8188,17.496,15.247,12.44,17.143,14.29,17.179001,4.7209,4.7393,13.527,9.5056
15.103,10.476,14.504,5.7327,-2.9773,14.226,-2.9346,5.7051,-1.0256,5.7327,-2.9773,10.667,15.247,9.5694,17.143,8.5486,13.333,10.463,-1.8957,21.256001,2.807
0.88468,0.0,6.6992,3.8003,-3.9482,0.82935,11.419,3.7821,-4.8718,3.8003,-3.9482,5.7886,8.5486,4.7847,9.5238,0.89314,6.6026,3.764,-18.957001,9.6618,-2.9346
9.4155,7.619,12.553,0.90177,2.8479,6.571,18.118,8.5897,-4.8718,0.90177,2.8479,9.6911,7.5917,7.6555,11.429,4.7209,9.4872,1.8501,-13.27,9.6618,5.6778
14.155,15.238,17.431,0.90177,5.7605,20.924999,12.376,8.5897,-0.0641,0.90177,5.7605,14.569,8.5486,10.526,11.429,8.5486,11.41,6.6348,5.6872,7.7295,3.764
14.155,17.143,15.48,9.5974,9.644,20.924999,18.118,7.6282,5.7051,9.5974,9.644,16.52,6.6348,9.5694,8.5714,9.5056,10.449,2.807,7.5829,3.8647,1.8501
14.155,12.381,14.504,7.6651,10.615,10.399,-0.0638,7.6282,4.7436,7.6651,10.615,12.618,3.764,6.6986,8.5714,8.5486,10.449,-8.6762,-8.5308,4.8309,1.8501
19.841999,10.476,19.382,10.564,10.615,16.139999,11.419,1.859,4.7436,10.564,10.615,15.545,7.5917,7.6555,16.190001,12.376,15.256,-3.8915,-2.8436,8.6957,2.807
10.363,7.619,16.455,3.8003,6.7314,11.356,14.29,-0.0641,1.859,3.8003,6.7314,10.667,8.5486,5.7416,12.381,11.419,13.333,10.463,12.322,9.6618,3.764
6.5719,5.7143,11.577,-0.06441,2.8479,-3.9553,-6.7624,-1.9872,-6.7949,-0.06441,2.8479,2.8618,8.5486,5.7416,9.5238,9.5056,11.41,10.463,-5.6872,3.8647,1.8501
10.363,7.619,12.553,0.90177,3.8188,1.7863,15.247,0.89744,-1.0256,0.90177,3.8188,5.7886,12.376,10.526,11.429,14.29,15.256,4.7209,-10.427,5.7971,3.764
6.5719,6.6667,10.602,2.8341,5.7605,-0.12759,9.5056,5.7051,-1.9872,2.8341,5.7605,3.8374,9.5056,8.6124,10.476,13.333,14.295,8.5486,-0.94787,7.7295,4.7209
6.5719,6.6667,11.577,8.6312,2.8479,-1.0845,5.6778,7.6282,0.89744,8.6312,2.8479,5.7886,5.6778,5.7416,13.333,11.419,13.333,-3.8915,2.8436,6.7633,5.6778
0.88468,0.95238,3.7724,3.8003,0.90615,4.6571,2.807,-1.0256,-1.0256,3.8003,0.90615,2.8618,-1.0207,0.0,1.9048,3.764,4.6795,-1.9777,-8.5308,-2.8986,-1.9777
-4.8025,-6.6667,-2.0813,-3.9291,5.7605,-0.12759,-2.9346,-3.9103,-4.8718,-3.9291,5.7605,-2.9919,-1.9777,-3.8278,-4.7619,-1.9777,-1.0897,-1.0207,-11.374,-3.8647,-9.6332
-3.8547,-0.95238,-2.0813,2.8341,2.8479,-6.8262,-2.9346,-1.0256,-5.8333,2.8341,2.8479,-3.9675,1.8501,-2.8708,-0.95238,-1.0207,1.7949,-5.8054,-1.8957,2.8986,-6.7624
-2.9068,2.8571,-3.0569,1.868,1.877,-5.8692,-4.8485,0.89744,-3.9103,1.868,1.877,-2.9919,5.6778,0.0,2.8571,1.8501,4.6795,1.8501,-19.905001,2.8986,-0.0638
-2.9068,-4.7619,-5.9837,-3.9291,0.90615,-9.697,-1.9777,-0.0641,-2.9487,-3.9291,0.90615,-6.8943,5.6778,0.0,4.7619,-0.0638,3.7179,2.807,-8.5308,1.9324,1.8501
-11.438,-14.286,-12.813,-4.8953,-5.89,-12.568,-8.6762,-4.8718,-9.6795,-4.8953,-5.89,-13.724,-3.8915,-2.8708,-4.7619,-5.8054,-3.9744,-9.6332,12.322,-7.7295,-1.0207
-8.594,-7.619,-10.862,-1.9968,-12.686,-3.9553,-31.643,-8.7179,-12.564,-1.9968,-12.686,-14.699,-7.7193,-1.9139,-7.619,-4.8485,-3.9744,0.89314,-1.8957,-7.7295,-3.8915
-3.8547,-9.5238,-9.8862,3.8003,-2.9773,-3.9553,-6.7624,-1.0256,-3.9103,3.8003,-2.9773,-10.797,-5.8054,1.9139,-4.7619,-1.9777,-1.0897,8.5486,-14.218,-3.8647,-2.9346
-8.594,-15.238,-13.789,-1.0306,-2.0065,-12.568,3.764,2.8205,-4.8718,-1.0306,-2.0065,-11.772,-7.7193,-0.95694,-6.6667,-4.8485,-4.9359,-1.0207,-2.8436,-3.8647,-1.9777
-11.438,-11.429,-12.813,-3.9291,-4.9191,-5.8692,-11.547,0.89744,-6.7949,-3.9291,-4.9191,-13.724,-10.59,-6.6986,-9.5238,-6.7624,-7.8205,-13.461,-13.27,-6.7633,-6.7624
-13.333,-8.5714,-9.8862,-2.963,-5.89,-2.0415,-17.289,6.6667,-7.7564,-2.963,-5.89,-11.772,-9.6332,-8.6124,-10.476,-6.7624,-7.8205,6.6348,5.6872,-9.6618,-6.7624
-10.49,-8.5714,-10.862,4.7665,-3.9482,-8.74,-11.547,7.6282,-3.9103,4.7665,-3.9482,-11.772,-5.8054,-8.6124,-6.6667,-7.7193,-8.7821,17.160999,11.374,-5.7971,-3.8915
-8.594,-5.7143,-17.691,-3.9291,-2.9773,-7.7831,-9.6332,-0.0641,-2.9487,-3.9291,-2.9773,-14.699,-11.547,-12.44,-9.5238,-12.504,-15.513,-3.8915,-9.4787,-8.6957,-6.7624
0.88468,-10.476,-12.813,-0.06441,1.877,4.6571,-11.547,2.8205,2.8205,-0.06441,1.877,-7.8699,-13.461,-14.354,-10.476,-15.375,-18.396999,-17.289,-7.5829,-13.527,-9.6332
6.5719,-5.7143,-1.1057,4.7665,1.877,8.4848,5.6778,8.5897,3.7821,4.7665,1.877,0.91057,-10.59,-12.44,-8.5714,-11.547,-14.551,-6.7624,-16.114,-10.628,-10.59
-4.8025,-5.7143,-4.0325,3.8003,-0.06472,-2.0415,1.8501,10.513,9.5513,3.8003,-0.06472,-2.9919,-13.461,-12.44,-13.333,-11.547,-15.513,11.419,-7.5829,-7.7295,-7.7193
-0.06319,-11.429,-7.935,6.6989,2.8479,1.7863,-10.59,11.474,6.6667,6.6989,2.8479,-3.9675,-15.375,-13.397,-11.429,-13.461,-16.474001,10.463,13.27,-3.8647,-6.7624
0.88468,-11.429,-10.862,5.7327,-2.9773,5.614,-5.8054,13.397,-3.9103,5.7327,-2.9773,-5.9187,-17.289,-16.268,-9.5238,-17.289,-19.358999,-3.8915,-1.8957,-2.8986,-16.332001
5.624,-10.476,-8.9106,6.6989,-0.06472,5.614,11.419,16.282,-0.0641,6.6989,-0.06472,-2.0163,-16.332001,-14.354,-10.476,-17.289,-18.396999,7.5917,-2.8436,-9.6618,-15.375
10.363,2.8571,1.8211,14.428,4.7896,13.27,-2.9346,21.09,5.7051,14.428,4.7896,6.7642,-9.6332,-7.6555,-4.7619,-10.59,-10.705,12.376,11.374,-5.7971,-4.8485
9.4155,1.9048,1.8211,10.564,1.877,14.226,-1.0207,13.397,1.859,10.564,1.877,6.7642,-11.547,-9.5694,-3.8095,-13.461,-11.667,10.463,-13.27,-1.9324,-9.6332
7.5197,-4.7619,-1.1057,8.6312,1.877,17.097,1.8501,12.436,2.8205,8.6312,1.877,4.813,-12.504,-15.311,-2.8571,-19.202999,-14.551,10.463,-15.166,-3.8647,-16.332001
7.5197,-1.9048,1.8211,12.496,4.7896,13.27,-6.7624,15.321,5.7051,12.496,4.7896,6.7642,-9.6332,-12.44,-0.95238,-18.246,-10.705,7.5917,3.7915,-1.9324,-13.461
8.4676,-5.7143,-0.13008,12.496,5.7605,0.82935,-5.8054,10.513,4.7436,12.496,5.7605,3.8374,-8.6762,-10.526,-2.8571,-19.202999,-10.705,-4.8485,8.5308,-2.8986,-10.59
-2.9068,-10.476,-5.9837,6.6989,9.644,-2.9984,6.6348,11.474,2.8205,6.6989,9.644,1.8862,-6.7624,-7.6555,-4.7619,-18.246,-10.705,3.764,-8.5308,-3.8647,-5.8054
1.8325,-12.381,-5.9837,1.868,4.7896,4.6571,4.7209,2.8205,1.859,1.868,4.7896,-0.06504,-1.9777,-3.8278,1.9048,-12.504,-4.9359,-0.0638,-17.062,-0.96618,-9.6332
3.7283,-12.381,-5.9837,6.6989,1.877,9.4418,5.6778,3.7821,1.859,6.6989,1.877,-1.0407,1.8501,-0.95694,-0.95238,-6.7624,-1.0897,10.463,3.7915,-4.8309,-9.6332
-2.9068,-7.619,-9.8862,8.6312,4.7896,4.6571,0.89314,9.5513,0.89744,8.6312,4.7896,-2.9919,-0.0638,-2.8708,-4.7619,-5.8054,-2.0513,10.463,3.7915,-4.8309,-6.7624
-9.5419,-3.8095,-14.764,1.868,2.8479,-2.9984,-17.289,-3.9103,-0.0641,1.868,2.8479,-9.8211,-3.8915,-5.7416,-6.6667,-5.8054,-4.9359,-7.7193,-4.7393,-0.96618,-9.6332
-6.6983,-6.6667,-12.813,6.6989,0.90615,-7.7831,-15.375,3.7821,6.6667,6.6989,0.90615,-8.8455,-1.9777,-2.8708,-4.7619,-3.8915,-3.9744,-1.0207,3.7915,-1.9324,-5.8054
-8.594,-13.333,-11.837,3.8003,4.7896,-11.611,6.6348,6.6667,6.6667,3.8003,4.7896,-6.8943,-6.7624,-5.7416,-8.5714,-6.7624,-7.8205,3.764,3.7915,-5.7971,-5.8054
-2.9068,-9.5238,-6.9593,3.8003,3.8188,-5.8692,2.807,-1.9872,2.8205,3.8003,3.8188,-5.9187,-9.6332,-7.6555,-8.5714,-6.7624,-7.8205,-7.7193,-7.5829,-8.6957,-5.8054
-1.9589,-10.476,-5.0081,3.8003,1.877,6.571,-9.6332,-1.9872,4.7436,3.8003,1.877,-4.9431,-4.8485,-3.8278,-1.9048,-4.8485,-3.0128,-3.8915,-17.062,-5.7971,-2.9346
-1.0111,-11.429,-7.935,1.868,4.7896,11.356,-1.0207,-1.9872,2.8205,1.868,4.7896,-3.9675,-0.0638,-0.95694,3.8095,-7.7193,-2.0513,-5.8054,0.94787,-0.96618,0.89314
-3.8547,-11.429,-12.813,3.8003,0.90615,2.7432,-13.461,-1.9872,-2.9487,3.8003,0.90615,-6.8943,-6.7624,-5.7416,-1.9048,-13.461,-9.7436,-1.9777,6.6351,-2.8986,-1.9777
-11.438,-9.5238,-13.789,-2.963,-4.9191,-1.0845,-4.8485,-4.8718,-1.9872,-2.963,-4.9191,-7.8699,-8.6762,-2.8708,-8.5714,-11.547,-10.705,5.6778,4.7393,-5.7971,-1.0207
-8.594,-2.8571,-7.935,2.8341,0.90615,3.7002,4.7209,3.7821,10.513,2.8341,0.90615,-2.9919,-1.9777,4.7847,-6.6667,-2.9346,-3.9744,-1.9777,12.322,-4.8309,4.7209
-1.9589,-0.95238,-8.9106,2.8341,2.8479,-1.0845,-4.8485,4.7436,8.5897,2.8341,2.8479,-2.9919,-1.9777,5.7416,-8.5714,-0.0638,-3.9744,-15.375,6.6351,-7.7295,4.7209
-1.9589,-3.8095,-10.862,2.8341,3.8188,-5.8692,4.7209,0.89744,3.7821,2.8341,3.8188,-2.9919,-3.8915,2.8708,-12.381,-2.9346,-7.8205,-11.547,-0.94787,-9.6618,4.7209
-7.6461,-7.619,-10.862,2.8341,1.877,-4.9123,-2.9346,-1.0256,-2.9487,2.8341,1.877,-3.9675,-6.7624,-2.8708,-10.476,-7.7193,-10.705,-3.8915,-5.6872,-5.7971,-0.0638
3.7283,-5.7143,-5.9837,7.6651,6.7314,0.82935,-8.6762,-2.9487,3.7821,7.6651,6.7314,-0.06504,-1.9777,-2.8708,-0.95238,-6.7624,-6.859,0.89314,10.427,2.8986,-0.0638
2.7804,0.95238,-4.0325,7.6651,5.7605,-2.0415,12.376,-1.0256,11.474,7.6651,5.7605,2.8618,1.8501,0.0,2.8571,-2.9346,-3.9744,0.89314,12.322,8.6957,4.7209
-16.177,0.0,-11.837,-2.963,4.7896,-2.9984,10.463,3.7821,5.7051,-2.963,4.7896,-2.9919,-1.9777,-8.6124,-5.7143,-7.7193,-9.7436,13.333,-8.5308,0.96618,-2.9346
-10.49,-1.9048,-11.837,-1.0306,8.6731,0.82935,-9.6332,4.7436,5.7051,-1.0306,8.6731,-3.9675,-0.0638,-7.6555,-7.619,-9.6332,-10.705,11.419,-15.166,-2.8986,-8.6762
-8.594,-9.5238,-11.837,-0.06441,0.90615,-2.9984,-1.9777,-4.8718,1.859,-0.06441,0.90615,-5.9187,-3.8915,-8.6124,-12.381,-13.461,-12.628,-3.8915,-3.7915,-5.7971,-13.461
-3.8547,-7.619,-6.9593,1.868,-5.89,-2.9984,-6.7624,-3.9103,-1.0256,1.868,-5.89,-3.9675,-4.8485,-7.6555,-9.5238,-9.6332,-7.8205,-7.7193,5.6872,-6.7633,-9.6332
-1.0111,-6.6667,-4.0325,5.7327,6.7314,-5.8692,-8.6762,-1.9872,-0.0641,5.7327,6.7314,-2.9919,-3.8915,-3.8278,-1.9048,-3.8915,-1.0897,1.8501,-7.5829,-2.8986,-7.7193
5.624,-6.6667,-6.9593,-4.8953,6.7314,-3.9553,11.419,-8.7179,5.7051,-4.8953,6.7314,-3.9675,-5.8054,-2.8708,1.9048,-2.9346,-2.0513,-4.8485,-12.322,2.8986,-6.7624
-6.6983,-0.95238,-6.9593,-3.9291,3.8188,-1.0845,13.333,-3.9103,7.6282,-3.9291,3.8188,-2.9919,-6.7624,-4.7847,-1.9048,-1.9777,-4.9359,-9.6332,3.7915,0.0,-1.0207
-15.229,-1.9048,-5.9837,0.90177,5.7605,-2.0415,1.8501,0.89744,9.5513,0.90177,5.7605,-2.9919,-6.7624,-4.7847,-5.7143,-1.9777,-4.9359,-4.8485,11.374,-3.8647,1.8501
-2.9068,-4.7619,-4.0325,1.868,6.7314,0.82935,-4.8485,0.89744,3.7821,1.868,6.7314,-2.0163,-3.8915,0.0,-4.7619,-0.0638,-2.0513,2.807,6.6351,-0.96618,3.764
-4.8025,-0.95238,-3.0569,1.868,0.90615,2.7432,-7.7193,2.8205,0.89744,1.868,0.90615,-2.0163,-1.0207,2.8708,-6.6667,2.807,-0.12821,-4.8485,-0.94787,-5.7971,1.8501
-2.9068,0.0,-5.0081,1.868,-9.7735,-1.0845,-8.6762,-4.8718,-1.0256,1.868,-9.7735,-2.0163,-2.9346,0.95694,-8.5714,1.8501,-1.0897,-7.7193,-3.7915,-9.6618,0.89314
-0.06319,-2.8571,-4.0325,-1.0306,-4.9191,1.7863,-1.0207,-9.6795,-2.9487,-1.0306,-4.9191,-3.9675,-2.9346,0.95694,-6.6667,1.8501,-1.0897,-1.9777,-3.7915,-1.9324,0.89314
-0.06319,-6.6667,-3.0569,0.90177,1.877,-2.9984,0.89314,-4.8718,-1.9872,0.90177,1.877,-2.9919,-1.9777,1.9139,-3.8095,0.89314,-0.12821,1.8501,13.27,-1.9324,4.7209
6.5719,-3.8095,1.8211,0.90177,0.90615,0.82935,7.5917,-1.9872,0.89744,0.90177,0.90615,1.8862,0.89314,2.8708,2.8571,0.89314,1.7949,-1.9777,5.6872,0.96618,3.764
5.624,-6.6667,0.84553,-1.0306,-1.0356,2.7432,-16.332001,-1.9872,-1.0256,-1.0306,-1.0356,-2.0163,-8.6762,-5.7416,-1.9048,-8.6762,-4.9359,-2.9346,-3.7915,-4.8309,-4.8485
-1.9589,-3.8095,-0.13008,-4.8953,-3.9482,-5.8692,-10.59,-3.9103,2.8205,-4.8953,-3.9482,-1.0407,-8.6762,-6.6986,-1.9048,-9.6332,-4.9359,-4.8485,6.6351,-0.96618,-2.9346
0.88468,0.95238,3.7724,-2.963,-1.0356,3.7002,0.89314,-1.0256,2.8205,-2.963,-1.0356,4.813,-1.0207,-1.9139,2.8571,-4.8485,1.7949,-3.8915,15.166,4.8309,3.764
0.88468,0.0,0.84553,-4.8953,-3.9482,7.5279,3.764,-3.9103,1.859,-4.8953,-3.9482,1.8862,-0.0638,-1.9139,2.8571,-3.8915,1.7949,1.8501,-0.94787,5.7971,-0.0638
-9.5419,-4.7619,-5.9837,-11.659,-9.7735,-8.74,1.8501,-7.7564,-3.9103,-11.659,-9.7735,-6.8943,-4.8485,-4.7847,-5.7143,-6.7624,-3.9744,-3.8915,-16.114,-5.7971,-7.7193
-6.6983,4.7619,0.84553,-6.8277,2.8479,-9.697,-0.0638,-7.7564,3.7821,-6.8277,2.8479,-2.0163,-0.0638,1.9139,-5.7143,1.8501,-0.12821,6.6348,-11.374,-6.7633,1.8501
-1.0111,13.333,3.7724,-1.9968,0.90615,-14.482,-1.0207,-15.449,4.7436,-1.9968,0.90615,-0.06504,2.807,2.8708,-0.95238,7.5917,3.7179,3.764,19.905001,-2.8986,9.5056
-5.7504,12.381,3.7724,-4.8953,-1.0356,-13.525,6.6348,-7.7564,3.7821,-4.8953,-1.0356,0.91057,1.8501,0.0,0.95238,9.5056,4.6795,-6.7624,21.801001,-0.96618,7.5917
-1.9589,3.8095,5.7236,0.90177,2.8479,1.7863,12.376,3.7821,4.7436,0.90177,2.8479,4.813,6.6348,2.8708,4.7619,13.333,8.5256,0.89314,13.27,5.7971,4.7209
9.4155,6.6667,10.602,4.7665,2.8479,13.27,-1.9777,3.7821,7.6282,4.7665,2.8479,11.642,12.376,10.526,10.476,17.160999,13.333,1.8501,15.166,9.6618,11.419
12.259,13.333,8.6504,-1.9968,-2.9773,6.571,3.764,-2.9487,0.89744,-1.9968,-2.9773,7.7398,10.463,9.5694,9.5238,16.204,12.372,-6.7624,6.6351,4.8309,11.419
-5.7504,6.6667,3.7724,-10.692,-8.8026,-10.654,10.463,-9.6795,-1.0256,-10.692,-8.8026,1.8862,2.807,4.7847,4.7619,11.419,6.6026,-12.504,4.7393,-0.96618,5.6778
-8.594,8.5714,2.7967,-7.7939,8.6731,-8.74,-1.0207,-7.7564,4.7436,-7.7939,8.6731,1.8862,0.89314,4.7847,0.0,10.463,4.6795,-24.944,1.8957,-0.96618,6.6348
-1.0111,12.381,4.748,4.7665,12.557,1.7863,6.6348,2.8205,7.6282,4.7665,12.557,5.7886,7.5917,9.5694,2.8571,13.333,8.5256,5.6778,-1.8957,6.7633,9.5056
2.7804,8.5714,5.7236,6.6989,5.7605,1.7863,18.118,1.859,3.7821,6.6989,5.7605,6.7642,5.6778,8.6124,3.8095,12.376,8.5256,22.903,10.427,5.7971,9.5056
7.5197,9.5238,7.6748,2.8341,2.8479,-2.9984,0.89314,-0.0641,2.8205,2.8341,2.8479,7.7398,1.8501,4.7847,4.7619,11.419,6.6026,4.7209,13.27,4.8309,7.5917
3.7283,12.381,7.6748,-2.963,0.90615,2.7432,3.764,-1.9872,-1.0256,-2.963,0.90615,4.813,-0.0638,1.9139,3.8095,10.463,4.6795,5.6778,-3.7915,4.8309,1.8501
2.7804,5.7143,6.6992,-1.9968,-2.0065,6.571,12.376,-0.0641,-2.9487,-1.9968,-2.0065,4.813,1.8501,1.9139,4.7619,8.5486,6.6026,10.463,7.5829,3.8647,3.764
7.5197,1.9048,11.577,1.868,-0.06472,7.5279,3.764,5.7051,-3.9103,1.868,-0.06472,7.7398,7.5917,4.7847,10.476,9.5056,11.41,10.463,-13.27,9.6618,0.89314
6.5719,-0.95238,10.602,-1.0306,-4.9191,1.7863,-1.0207,0.89744,-2.9487,-1.0306,-4.9191,3.8374,6.6348,4.7847,8.5714,5.6778,9.4872,-1.0207,-7.5829,8.6957,1.8501
10.363,0.95238,10.602,2.8341,-0.06472,1.7863,-6.7624,1.859,-1.0256,2.8341,-0.06472,4.813,9.5056,7.6555,9.5238,7.5917,9.4872,-21.115999,15.166,8.6957,4.7209
5.624,3.8095,5.7236,2.8341,6.7314,5.614,-4.8485,-2.9487,-2.9487,2.8341,6.7314,4.813,9.5056,4.7847,4.7619,4.7209,4.6795,-23.030001,-12.322,9.6618,2.807
-1.9589,5.7143,4.748,1.868,2.8479,-1.0845,-5.8054,1.859,-1.0256,1.868,2.8479,3.8374,9.5056,4.7847,-3.8095,2.807,0.83333,6.6348,2.8436,0.96618,6.6348
-2.9068,7.619,10.602,5.7327,3.8188,3.7002,-0.0638,4.7436,-0.0641,5.7327,3.8188,9.6911,9.5056,9.5694,-3.8095,3.764,3.7179,14.29,22.749001,-4.8309,4.7209
0.88468,9.5238,9.626,3.8003,-0.06472,7.5279,13.333,-1.0256,0.89744,3.8003,-0.06472,11.642,8.5486,10.526,-1.9048,3.764,5.641,6.6348,6.6351,-0.96618,1.8501
-4.8025,1.9048,2.7967,4.7665,0.90615,3.7002,10.463,-2.9487,2.8205,4.7665,0.90615,5.7886,4.7209,9.5694,-2.8571,2.807,3.7179,2.807,9.4787,-0.96618,13.333
-2.9068,0.0,1.8211,10.564,3.8188,7.5279,8.5486,-2.9487,4.7436,10.564,3.8188,4.813,7.5917,12.44,-2.8571,2.807,4.6795,-2.9346,-11.374,0.0,7.5917
2.7804,-1.9048,-0.13008,0.90177,4.7896,-3.9553,-1.9777,-3.9103,-0.0641,0.90177,4.7896,1.8862,4.7209,7.6555,0.95238,-1.0207,2.7564,-11.547,-24.645,3.8647,-3.8915
4.6761,-3.8095,-0.13008,-3.9291,8.6731,-6.8262,-20.159,1.859,-1.0256,-3.9291,8.6731,-0.06504,1.8501,3.8278,3.8095,-1.9777,1.7949,-13.461,-14.218,4.8309,-5.8054
1.8325,-4.7619,-3.0569,2.8341,3.8188,2.7432,7.5917,1.859,-1.9872,2.8341,3.8188,1.8862,3.764,4.7847,2.8571,-1.0207,0.83333,0.89314,7.5829,2.8986,0.89314
6.5719,-5.7143,-5.0081,7.6651,-2.0065,9.4418,16.204,0.89744,-1.9872,7.6651,-2.0065,2.8618,5.6778,6.6986,0.95238,-1.9777,-1.0897,-0.0638,12.322,0.96618,3.764
-1.0111,-4.7619,-5.9837,4.7665,-0.06472,2.7432,-2.9346,-1.0256,-2.9487,4.7665,-0.06472,0.91057,4.7209,3.8278,-0.95238,-3.8915,-2.0513,-4.8485,2.8436,1.9324,0.89314
-7.6461,-2.8571,-3.0569,0.90177,3.8188,1.7863,-1.9777,-3.9103,-1.9872,0.90177,3.8188,0.91057,4.7209,2.8708,-3.8095,-2.9346,-1.0897,-3.8915,9.4787,-2.8986,0.89314
-1.9589,6.6667,2.7967,1.868,7.7023,5.614,5.6778,-3.9103,5.7051,1.868,7.7023,6.7642,4.7209,2.8708,-0.95238,-1.0207,-1.0897,-4.8485,-7.5829,0.96618,4.7209
-0.06319,10.476,3.7724,7.6651,14.498,4.6571,3.764,0.89744,7.6282,7.6651,14.498,9.6911,3.764,0.95694,-0.95238,-1.9777,-3.0128,-4.8485,-2.8436,2.8986,4.7209
4.6761,9.5238,1.8211,14.428,15.469,7.5279,13.333,1.859,6.6667,14.428,15.469,9.6911,3.764,1.9139,-2.8571,-0.0638,-3.0128,-4.8485,1.8957,-3.8647,6.6348
5.624,4.7619,-1.1057,16.361,0.90615,4.6571,17.160999,1.859,7.6282,16.361,0.90615,5.7886,-0.0638,-1.9139,-5.7143,-4.8485,-6.859,8.5486,-9.4787,-6.7633,-0.0638
4.6761,-2.8571,-1.1057,8.6312,-1.0356,5.614,10.463,3.7821,5.7051,8.6312,-1.0356,5.7886,-1.0207,-5.7416,-1.9048,-7.7193,-6.859,8.5486,1.8957,0.0,-6.7624
-4.8025,-5.7143,-4.0325,0.90177,0.90615,2.7432,5.6778,10.513,-1.9872,0.90177,0.90615,0.91057,-1.0207,-4.7847,-0.95238,-5.8054,-3.9744,11.419,-2.8436,0.96618,-9.6332
-5.7504,-7.619,-5.9837,3.8003,-1.0356,-5.8692,-8.6762,12.436,-7.7564,3.8003,-1.0356,-4.9431,-0.0638,-1.9139,0.0,-3.8915,-3.0128,1.8501,-12.322,2.8986,-7.7193
-0.06319,-9.5238,-6.9593,8.6312,-4.9191,-2.9984,-23.030001,7.6282,-8.7179,8.6312,-4.9191,-7.8699,-2.9346,-3.8278,-0.95238,-6.7624,-5.8974,-2.9346,-14.218,3.8647,-6.7624
7.5197,-9.5238,-3.0569,10.564,-0.06472,0.82935,-11.547,2.8205,-6.7949,10.564,-0.06472,-2.0163,-1.9777,-4.7847,0.0,-6.7624,-5.8974,4.7209,-14.218,3.8647,-1.9777
-6.6983,-13.333,-8.9106,-3.9291,-10.744,-4.9123,-1.0207,-6.7949,-8.7179,-3.9291,-10.744,-10.797,-7.7193,-8.6124,-7.619,-11.547,-10.705,-0.0638,-8.5308,-5.7971,-4.8485
-11.438,-14.286,-12.813,-10.692,-9.7735,-8.74,-4.8485,-6.7949,-5.8333,-10.692,-9.7735,-16.65,-8.6762,-8.6124,-6.6667,-12.504,-12.628,1.8501,1.8957,-2.8986,-3.8915
-12.385,-10.476,-10.862,-7.7939,-4.9191,-5.8692,-6.7624,0.89744,1.859,-7.7939,-4.9191,-12.748,-4.8485,-6.6986,-3.8095,-9.6332,-9.7436,6.6348,12.322,1.9324,-1.0207
-17.125,-4.7619,-9.8862,-8.7601,-1.0356,-15.439,-6.7624,0.89744,4.7436,-8.7601,-1.0356,-9.8211,-3.8915,-4.7847,-4.7619,-6.7624,-7.8205,-5.8054,3.7915,-0.96618,2.807
-12.385,-0.95238,-5.9837,-3.9291,3.8188,-25.965,-6.7624,-8.7179,2.8205,-3.9291,3.8188,-7.8699,-5.8054,-3.8278,-8.5714,-5.8054,-7.8205,-8.6762,2.8436,-7.7295,0.89314
-9.5419,0.95238,-3.0569,-1.9968,-0.06472,-15.439,-20.159,-10.641,1.859,-1.9968,-0.06472,-7.8699,-1.9777,-1.9139,-8.5714,-3.8915,-4.9359,-1.0207,-9.4787,-9.6618,-3.8915
-6.6983,-3.8095,-6.9593,-3.9291,-8.8026,-4.9123,-1.0207,-6.7949,-0.0641,-3.9291,-8.8026,-8.8455,-2.9346,-2.8708,-8.5714,-5.8054,-6.859,-3.8915,-2.8436,-7.7295,-1.9777
-11.438,-8.5714,-9.8862,-8.7601,-3.9482,-5.8692,9.5056,-1.9872,0.89744,-8.7601,-3.9482,-8.8455,-1.0207,0.95694,-6.6667,-6.7624,-8.7821,-8.6762,9.4787,0.96618,1.8501
-5.7504,-3.8095,-8.9106,-9.7262,0.90615,-7.7831,3.764,-0.0641,5.7051,-9.7262,0.90615,-7.8699,3.764,6.6986,-0.95238,-3.8915,-7.8205,-8.6762,0.94787,8.6957,1.8501
-10.49,0.95238,-7.935,-3.9291,-0.06472,-11.611,-1.0207,-4.8718,2.8205,-3.9291,-0.06472,-8.8455,3.764,9.5694,-1.9048,-1.9777,-7.8205,-6.7624,2.8436,-0.96618,0.89314
-16.177,-7.619,-10.862,-2.963,-0.06472,-13.525,-11.547,-3.9103,1.859,-2.963,-0.06472,-7.8699,4.7209,10.526,-3.8095,-1.0207,-5.8974,-0.0638,19.905001,-5.7971,5.6778
-9.5419,-12.381,-14.764,6.6989,-3.9482,-6.8262,-14.418,-0.0641,-1.9872,6.6989,-3.9482,-7.8699,5.6778,9.5694,-3.8095,-1.0207,-4.9359,5.6778,9.4787,0.0,5.6778
-5.7504,-10.476,-10.862,-0.06441,-3.9482,-0.12759,-3.8915,-0.0641,-4.8718,-0.06441,-3.9482,-5.9187,-0.0638,6.6986,-3.8095,-1.9777,-6.859,3.764,4.7393,-0.96618,6.6348
3.7283,-3.8095,1.8211,-2.963,-1.0356,7.5279,-1.9777,1.859,-3.9103,-2.963,-1.0356,0.91057,0.89314,8.6124,1.9048,4.7209,-1.0897,4.7209,-4.7393,0.96618,10.463
7.5197,2.8571,5.7236,-1.9968,-3.9482,9.4418,-1.9777,-0.0641,-1.9872,-1.9968,-3.9482,2.8618,-2.9346,3.8278,2.8571,5.6778,-0.12821,-8.6762,-5.6872,-0.96618,8.5486
2.7804,5.7143,5.7236,-1.0306,-4.9191,3.7002,7.5917,-0.0641,0.89744,-1.0306,-4.9191,3.8374,-2.9346,3.8278,1.9048,8.5486,2.7564,-7.7193,15.166,-0.96618,10.463
7.5197,10.476,10.602,-0.06441,-1.0356,5.614,9.5056,2.8205,-0.0641,-0.06441,-1.0356,6.7642,2.807,6.6986,5.7143,15.247,8.5256,14.29,13.27,2.8986,6.6348
11.311,11.429,14.504,5.7327,-1.0356,9.4418,-7.7193,10.513,-2.9487,5.7327,-1.0356,6.7642,1.8501,3.8278,6.6667,13.333,7.5641,15.247,-2.8436,1.9324,2.807
18.893999,12.381,15.48,11.53,0.90615,11.356,2.807,8.5897,-1.9872,11.53,0.90615,11.642,-0.0638,-0.95694,8.5714,6.6348,3.7179,-8.6762,-3.7915,7.7295,2.807
16.051001,11.429,13.528,8.6312,-0.06472,13.27,5.6778,9.5513,-1.0256,8.6312,-0.06472,13.593,-0.0638,-2.8708,5.7143,2.807,0.83333,-2.9346,11.374,5.7971,1.8501
17.945999,8.5714,15.48,8.6312,0.90615,19.011,14.29,13.397,-0.0641,8.6312,0.90615,13.593,3.764,2.8708,11.429,9.5056,7.5641,13.333,2.8436,9.6618,1.8501
10.363,5.7143,15.48,3.8003,-3.9482,6.571,4.7209,4.7436,-6.7949,3.8003,-3.9482,6.7642,3.764,0.95694,12.381,10.463,10.449,19.075001,-14.218,10.628,-2.9346
4.6761,9.5238,17.431,-1.0306,-4.9191,0.82935,-5.8054,0.89744,-6.7949,-1.0306,-4.9191,7.7398,3.764,0.95694,12.381,11.419,10.449,20.989,-6.6351,7.7295,-1.9777
16.997999,14.286,24.26,6.6989,4.7896,13.27,11.419,7.6282,3.7821,6.6989,4.7896,17.496,2.807,2.8708,12.381,13.333,12.372,10.463,5.6872,5.7971,-1.0207
24.580999,17.143,30.114,11.53,14.498,22.839001,21.945999,8.5897,5.7051,11.53,14.498,24.325001,4.7209,5.7416,15.238,15.247,17.179001,12.376,2.8436,7.7295,-0.0638
25.528999,22.857,29.138,1.868,8.6731,23.796,19.075001,5.7051,-1.0256,1.868,8.6731,25.301001,8.5486,7.6555,20.0,17.160999,21.025999,-7.7193,-2.8436,12.56,-1.0207
9.4155,21.905001,17.431,-3.9291,6.7314,5.614,11.419,2.8205,-2.9487,-3.9291,6.7314,14.569,6.6348,3.8278,14.286,14.29,15.256,9.5056,-4.7393,12.56,-1.9777
-2.9068,16.190001,7.6748,-4.8953,2.8479,-2.9984,11.419,1.859,-1.9872,-4.8953,2.8479,7.7398,4.7209,3.8278,6.6667,10.463,8.5256,17.160999,-4.7393,9.6618,-4.8485
1.8325,17.143,9.626,5.7327,4.7896,-0.12759,14.29,1.859,1.859,5.7327,4.7896,7.7398,8.5486,8.6124,10.476,14.29,11.41,5.6778,-20.853001,12.56,-0.0638
2.7804,5.7143,4.748,4.7665,0.90615,-3.9553,1.8501,-2.9487,-1.0256,4.7665,0.90615,-1.0407,6.6348,10.526,3.8095,10.463,9.4872,8.5486,-4.7393,7.7295,4.7209
-8.594,-11.429,-7.935,-5.8615,-3.9482,-13.525,-23.030001,-6.7949,-5.8333,-5.8615,-3.9482,-12.748,1.8501,7.6555,-3.8095,3.764,2.7564,8.5486,-2.8436,6.7633,-0.0638
-15.229,-20.952,-18.667,-8.7601,-6.8608,-21.18,-3.8915,-4.8718,-10.641,-8.7601,-6.8608,-16.65,-0.0638,2.8708,-8.5714,-2.9346,-4.9359,-9.6332,-12.322,-0.96618,-5.8054
-18.073,-13.333,-16.715,-7.7939,-1.0356,-14.482,-5.8054,-4.8718,-11.603,-7.7939,-1.0356,-14.699,3.764,2.8708,-7.619,-3.8915,-4.9359,-4.8485,-6.6351,0.0,-5.8054
-7.6461,-6.6667,-5.9837,-1.9968,2.8479,-2.0415,-8.6762,-4.8718,-9.6795,-1.9968,2.8479,-5.9187,7.5917,5.7416,-1.9048,-1.9777,0.83333,5.6778,3.7915,0.96618,-1.9777
0.88468,-2.8571,-2.0813,5.7327,4.7896,4.6571,4.7209,-1.0256,-5.8333,5.7327,4.7896,-2.9919,4.7209,1.9139,-0.95238,-1.9777,0.83333,-1.0207,-40.757999,-1.9324,-2.9346
0.88468,-0.95238,-2.0813,-0.06441,4.7896,-2.0415,-11.547,1.859,-1.9872,-0.06441,4.7896,-2.0163,2.807,0.0,1.9048,-2.9346,1.7949,-1.0207,-8.5308,4.8309,-0.0638
-0.06319,-6.6667,-4.0325,-4.8953,-0.06472,-1.0845,6.6348,-3.9103,-0.0641,-4.8953,-0.06472,-2.9919,6.6348,1.9139,3.8095,-4.8485,3.7179,2.807,13.27,1.9324,-1.0207
-1.9589,-15.238,-4.0325,-1.0306,-1.0356,5.614,17.160999,-5.8333,-0.0641,-1.0306,-1.0356,-1.0407,11.419,5.7416,6.6667,-3.8915,6.6026,6.6348,-15.166,3.8647,0.89314
2.7804,-2.8571,1.8211,3.8003,-1.0356,5.614,-7.7193,3.7821,-1.9872,3.8003,-1.0356,2.8618,13.333,9.5694,9.5238,0.89314,9.4872,7.5917,-22.749001,3.8647,1.8501
17.945999,3.8095,8.6504,6.6989,3.8188,11.356,1.8501,4.7436,-2.9487,6.6989,3.8188,7.7398,10.463,7.6555,13.333,2.807,11.41,-25.900999,3.7915,1.9324,4.7209
16.051001,0.0,7.6748,5.7327,7.7023,9.4418,2.807,1.859,-1.9872,5.7327,7.7023,9.6911,6.6348,3.8278,8.5714,-0.0638,8.5256,-2.9346,1.8957,1.9324,3.764
4.6761,4.7619,4.748,2.8341,2.8479,4.6571,1.8501,-2.9487,-1.0256,2.8341,2.8479,9.6911,3.764,3.8278,1.9048,0.89314,4.6795,8.5486,11.374,-2.8986,3.764
14.155,11.429,8.6504,3.8003,10.615,7.5279,12.376,-5.8333,5.7051,3.8003,10.615,13.593,10.463,11.483,9.5238,8.5486,11.41,-1.0207,18.009001,5.7971,8.5486
6.5719,11.429,8.6504,1.868,2.8479,1.7863,16.204,-5.8333,-2.9487,1.868,2.8479,9.6911,8.5486,9.5694,9.5238,7.5917,10.449,6.6348,-8.5308,8.6957,7.5917
-1.9589,7.619,9.626,-0.06441,-4.9191,-1.0845,7.5917,-4.8718,-7.7564,-0.06441,-4.9191,7.7398,1.8501,4.7847,3.8095,4.7209,6.6026,2.807,-0.94787,0.96618,3.764
-0.06319,2.8571,7.6748,-1.0306,-2.0065,5.614,-4.8485,-1.9872,-1.0256,-1.0306,-2.0065,5.7886,-0.0638,4.7847,2.8571,3.764,4.6795,4.7209,2.8436,0.0,-0.0638
1.8325,-0.95238,3.7724,-3.9291,3.8188,3.7002,-2.9346,-5.8333,-1.0256,-3.9291,3.8188,0.91057,0.89314,1.9139,2.8571,-0.0638,2.7564,-1.9777,-2.8436,1.9324,-2.9346
4.6761,2.8571,5.7236,-2.963,2.8479,-1.0845,-13.461,-5.8333,6.6667,-2.963,2.8479,-0.06504,4.7209,0.0,7.619,-0.0638,3.7179,-7.7193,-24.645,7.7295,3.764
4.6761,-0.95238,0.84553,-8.7601,-2.9773,-1.0845,-12.504,-6.7949,-3.9103,-8.7601,-2.9773,-4.9431,0.89314,-5.7416,6.6667,-3.8915,-0.12821,-3.8915,-1.8957,5.7971,1.8501
4.6761,-6.6667,-3.0569,-11.659,-7.8317,-2.0415,15.247,-8.7179,-9.6795,-11.659,-7.8317,-6.8943,-2.9346,-9.5694,0.95238,-7.7193,-3.9744,2.807,10.427,0.0,-1.9777
-0.06319,-7.619,-2.0813,-1.0306,-4.9191,-8.74,11.419,-5.8333,1.859,-1.0306,-4.9191,-2.0163,0.89314,-4.7847,0.0,-2.9346,-0.12821,11.419,14.218,-1.9324,-1.0207
7.5197,-4.7619,-1.1057,0.90177,-1.0356,-3.9553,-6.7624,-7.7564,1.859,0.90177,-1.0356,-1.0407,2.807,-1.9139,5.7143,-1.0207,3.7179,-2.9346,13.27,2.8986,-0.0638
8.4676,8.5714,-1.1057,-5.8615,-4.9191,-3.9553,-30.686001,-4.8718,-1.9872,-5.8615,-4.9191,-1.0407,0.89314,-0.95694,6.6667,-0.0638,1.7949,-1.9777,-18.957001,8.6957,-1.0207
4.6761,3.8095,0.84553,-1.0306,-2.0065,-2.9984,-2.9346,5.7051,-0.0641,-1.0306,-2.0065,1.8862,-1.9777,-2.8708,4.7619,-1.0207,-0.12821,-1.9777,-21.801001,2.8986,-2.9346
-1.9589,-2.8571,-0.13008,0.90177,3.8188,-2.9984,25.774,-0.0641,4.7436,0.90177,3.8188,1.8862,-4.8485,-4.7847,0.95238,-2.9346,-1.0897,-5.8054,19.905001,-4.8309,-3.8915
-1.0111,1.9048,1.8211,-1.9968,3.8188,9.4418,23.860001,-4.8718,3.7821,-1.9968,3.8188,3.8374,-2.9346,-4.7847,3.8095,-0.0638,-0.12821,1.8501,29.384001,1.9324,-0.0638
2.7804,1.9048,3.7724,-1.0306,4.7896,13.27,4.7209,1.859,7.6282,-1.0306,4.7896,5.7886,-3.8915,-5.7416,3.8095,0.89314,-0.12821,-3.8915,9.4787,0.0,2.807
8.4676,17.143,14.504,9.5974,10.615,13.27,9.5056,10.513,17.243999,9.5974,10.615,15.545,0.89314,2.8708,8.5714,10.463,8.5256,11.419,9.4787,-0.96618,10.463
7.5197,15.238,11.577,4.7665,2.8479,3.7002,7.5917,4.7436,9.5513,4.7665,2.8479,12.618,-1.9777,0.95694,4.7619,8.5486,6.6026,11.419,-26.540001,0.0,4.7209
0.88468,5.7143,2.7967,-9.7262,1.877,-7.7831,-0.0638,-11.603,7.6282,-9.7262,1.877,4.813,-7.7193,-4.7847,-3.8095,-0.0638,-2.0513,-2.9346,-4.7393,-6.7633,3.764
9.4155,4.7619,6.6992,-1.0306,0.90615,5.614,4.7209,-9.6795,6.6667,-1.0306,0.90615,7.7398,-3.8915,-4.7847,0.0,-0.0638,-1.0897,-16.332001,25.591999,-4.8309,0.89314
5.624,3.8095,9.626,8.6312,6.7314,9.4418,0.89314,4.7436,6.6667,8.6312,6.7314,9.6911,-2.9346,-3.8278,0.95238,2.807,2.7564,-1.0207,22.749001,-1.9324,1.8501
4.6761,9.5238,10.602,3.8003,8.6731,7.5279,20.032,8.5897,2.8205,3.8003,8.6731,9.6911,-1.9777,-3.8278,1.9048,5.6778,5.641,-0.0638,4.7393,2.8986,5.6778
-0.06319,4.7619,3.7724,-1.0306,1.877,6.571,11.419,0.89744,-1.0256,-1.0306,1.877,4.813,-3.8915,-4.7847,0.0,1.8501,2.7564,-2.9346,1.8957,-1.9324,-4.8485
-3.8547,2.8571,2.7967,0.90177,-1.0356,0.82935,-1.9777,-1.0256,2.8205,0.90177,-1.0356,1.8862,-2.9346,-0.95694,0.0,2.807,1.7949,-12.504,4.7393,-2.8986,-2.9346
-0.06319,9.5238,8.6504,-1.9968,-0.06472,-6.8262,4.7209,0.89744,3.7821,-1.9968,-0.06472,5.7886,4.7209,3.8278,4.7619,8.5486,6.6026,1.8501,0.94787,3.8647,6.6348
2.7804,10.476,5.7236,-1.9968,-2.9773,-9.697,-21.115999,-3.9103,-1.0256,-1.9968,-2.9773,-0.06504,5.6778,3.8278,2.8571,9.5056,7.5641,8.5486,4.7393,1.9324,7.5917
-3.8547,6.6667,-1.1057,-1.0306,-9.7735,-9.697,-13.461,-6.7949,-5.8333,-1.0306,-9.7735,-6.8943,6.6348,5.7416,2.8571,9.5056,7.5641,7.5917,-6.6351,2.8986,4.7209
-6.6983,-4.7619,-6.9593,-1.9968,-12.686,-5.8692,7.5917,-0.0641,-1.9872,-1.9968,-12.686,-10.797,9.5056,8.6124,2.8571,7.5917,5.641,1.8501,0.0,4.8309,3.764
-11.438,-8.5714,-12.813,-10.692,-15.599,-9.697,-4.8485,-2.9487,-4.8718,-10.692,-15.599,-16.65,2.807,4.7847,-1.9048,0.89314,-2.0513,-12.504,-5.6872,-1.9324,1.8501
-12.385,-1.9048,-11.837,-15.523,-15.599,-15.439,-10.59,-5.8333,-2.9487,-15.523,-15.599,-16.65,-2.9346,0.95694,-6.6667,-1.0207,-4.9359,-8.6762,8.5308,-4.8309,3.764
-9.5419,-5.7143,-13.789,-15.523,-19.482,-11.611,-15.375,-6.7949,-3.9103,-15.523,-19.482,-18.601999,-6.7624,-2.8708,-9.5238,-2.9346,-6.859,-0.0638,19.905001,-5.7971,3.764
-7.6461,-10.476,-14.764,-8.7601,-23.365999,-15.439,-26.858,0.89744,-12.564,-8.7601,-23.365999,-20.552999,-6.7624,-5.7416,-5.7143,-3.8915,-5.8974,-4.8485,0.94787,-2.8986,2.807
-0.06319,-6.6667,-9.8862,1.868,-15.599,-8.74,-24.944,6.6667,-2.9487,1.868,-15.599,-15.675,-2.9346,-6.6986,0.0,-3.8915,-4.9359,1.8501,2.8436,2.8986,5.6778
-2.9068,-9.5238,-11.837,-7.7939,-20.452999,-4.9123,-11.547,3.7821,-9.6795,-7.7939,-20.452999,-12.748,-5.8054,-12.44,-3.8095,-11.547,-10.705,6.6348,-3.7915,-0.96618,-2.9346
-6.6983,-17.143,-14.764,-9.7262,-23.365999,-6.8262,-5.8054,8.5897,-10.641,-9.7262,-23.365999,-11.772,-9.6332,-17.225,-8.5714,-15.375,-15.513,13.333,-10.427,-5.7971,-13.461
8.4676,-15.238,-6.9593,-5.8615,-18.511,0.82935,-24.944,8.5897,-10.641,-5.8615,-18.511,-8.8455,-8.6762,-14.354,-0.95238,-10.59,-8.7821,10.463,-2.8436,-2.8986,-12.504
8.4676,-11.429,-4.0325,1.868,-23.365999,7.5279,-23.030001,13.397,-15.449,1.868,-23.365999,-7.8699,-6.7624,-12.44,2.8571,-5.8054,-4.9359,5.6778,0.94787,-0.96618,-9.6332
-5.7504,-7.619,-5.0081,1.868,-14.628,3.7002,-14.418,14.359,-10.641,1.868,-14.628,-4.9431,-6.7624,-13.397,0.95238,-7.7193,-6.859,4.7209,-15.166,-0.96618,-9.6332
-8.594,-7.619,-5.9837,0.90177,-6.8608,0.82935,-18.246,11.474,-5.8333,0.90177,-6.8608,-3.9675,-8.6762,-13.397,-6.6667,-9.6332,-10.705,4.7209,-4.7393,0.96618,-9.6332
-1.0111,-3.8095,-5.9837,2.8341,-12.686,8.4848,-7.7193,5.7051,-1.0256,2.8341,-12.686,-2.0163,-7.7193,-10.526,-9.5238,-8.6762,-11.667,9.5056,5.6872,-1.9324,-6.7624
0.88468,1.9048,-5.9837,1.868,-16.57,3.7002,-1.0207,8.5897,-2.9487,1.868,-16.57,-4.9431,-5.8054,-9.5694,-6.6667,-4.8485,-8.7821,-11.547,-9.4787,-4.8309,-2.9346
1.8325,0.0,-5.0081,-0.06441,-18.511,-2.9984,-4.8485,4.7436,-10.641,-0.06441,-18.511,-5.9187,-7.7193,-9.5694,-2.8571,-2.9346,-5.8974,3.764,-5.6872,-0.96618,-3.8915
-4.8025,-8.5714,-6.9593,-1.9968,-11.715,-5.8692,-22.073,2.8205,-7.7564,-1.9968,-11.715,-6.8943,-8.6762,-4.7847,-4.7619,-3.8915,-4.9359,12.376,-21.801001,-6.7633,-4.8485
-0.06319,-15.238,-9.8862,-8.7601,-14.628,-8.74,-8.6762,-1.0256,-5.8333,-8.7601,-14.628,-9.8211,-5.8054,-1.9139,-6.6667,-6.7624,-6.859,-2.9346,3.7915,-7.7295,-3.8915
-5.7504,-16.190001,-7.935,-12.625,-12.686,-10.654,-5.8054,-2.9487,-6.7949,-12.625,-12.686,-11.772,-2.9346,0.95694,-6.6667,-5.8054,-5.8974,8.5486,24.645,-1.9324,-0.0638
-11.438,-9.5238,-5.0081,-10.692,-6.8608,-5.8692,-25.900999,-1.0256,-7.7564,-10.692,-6.8608,-12.748,0.89314,5.7416,-3.8095,-1.0207,-2.0513,6.6348,5.6872,2.8986,2.807
-8.594,-4.7619,-6.9593,-5.8615,-12.686,-9.697,-17.289,-1.9872,-3.9103,-5.8615,-12.686,-11.772,1.8501,7.6555,-1.9048,0.89314,-1.0897,0.89314,-0.94787,0.96618,4.7209
-4.8025,-7.619,-12.813,-6.8277,-12.686,-13.525,-21.115999,-8.7179,-5.8333,-6.8277,-12.686,-14.699,-1.9777,0.95694,-3.8095,-3.8915,-5.8974,-13.461,-4.7393,-3.8647,4.7209
-6.6983,-5.7143,-9.8862,-6.8277,-12.686,-6.8262,-20.159,-6.7949,-7.7564,-6.8277,-12.686,-9.8211,-3.8915,-1.9139,-6.6667,-5.8054,-6.859,-6.7624,0.0,-3.8647,1.8501
-3.8547,-4.7619,-4.0325,1.868,-6.8608,-1.0845,-3.8915,-5.8333,-5.8333,1.868,-6.8608,-5.9187,-2.9346,-0.95694,-2.8571,-1.9777,-3.0128,-0.0638,0.94787,0.96618,-1.9777
-1.9589,-5.7143,-3.0569,-1.9968,-0.06472,-2.9984,6.6348,-6.7949,-1.0256,-1.9968,-0.06472,-5.9187,-1.9777,0.95694,0.0,1.8501,-0.12821,-2.9346,-17.062,-0.96618,-2.9346
-1.0111,0.0,2.7967,-6.8277,4.7896,5.614,11.419,-1.9872,6.6667,-6.8277,4.7896,-0.06504,4.7209,7.6555,3.8095,7.5917,5.641,0.89314,-8.5308,5.7971,6.6348
-1.0111,-4.7619,-0.13008,-3.9291,3.8188,3.7002,1.8501,-6.7949,1.859,-3.9291,3.8188,-2.9919,2.807,4.7847,-2.8571,2.807,0.83333,-6.7624,3.7915,-1.9324,0.89314
-17.125,-6.6667,-11.837,-6.8277,-2.9773,-15.439,-21.115999,-13.526,-4.8718,-6.8277,-2.9773,-13.724,-2.9346,0.95694,-14.286,-3.8915,-7.8205,-5.8054,4.7393,-12.56,-6.7624
-22.812,-2.8571,-14.764,-9.7262,-2.0065,-20.223,-26.858,-9.6795,-0.0641,-9.7262,-2.0065,-13.724,1.8501,5.7416,-12.381,-0.0638,-5.8974,-11.547,0.0,-1.9324,3.764
-12.385,-0.95238,-5.9837,-7.7939,-2.0065,-9.697,-4.8485,-9.6795,-1.0256,-7.7939,-2.0065,-9.8211,6.6348,6.6986,-5.7143,4.7209,0.83333,-15.375,-11.374,1.9324,7.5917
-5.7504,-5.7143,-1.1057,-8.7601,2.8479,-7.7831,9.5056,-12.564,0.89744,-8.7601,2.8479,-8.8455,3.764,6.6986,-4.7619,5.6778,2.7564,-12.504,-1.8957,-2.8986,0.89314
-8.594,-11.429,-7.935,-9.7262,5.7605,-9.697,3.764,-19.295,-0.0641,-9.7262,5.7605,-8.8455,0.89314,5.7416,-8.5714,2.807,-2.0513,-10.59,3.7915,-5.7971,-0.0638
-15.229,-14.286,-14.764,-6.8277,4.7896,-18.309,2.807,-18.333,-0.0641,-6.8277,4.7896,-9.8211,1.8501,3.8278,-7.619,-4.8485,-6.859,-24.944,-12.322,-5.7971,0.89314
-18.073,-8.5714,-16.715,-7.7939,3.8188,-24.051001,-11.547,-11.603,-2.9487,-7.7939,3.8188,-11.772,-3.8915,-2.8708,-15.238,-10.59,-14.551,-13.461,-15.166,-8.6957,-0.0638
-5.7504,-12.381,-15.74,-5.8615,4.7896,-13.525,-27.815001,-10.641,-1.0256,-5.8615,4.7896,-10.797,-10.59,-5.7416,-18.094999,-13.461,-17.436001,-5.8054,9.4787,-8.6957,-4.8485
-13.333,-10.476,-14.764,-1.9968,9.644,-6.8262,-3.8915,-3.9103,6.6667,-1.9968,9.644,-8.8455,-8.6762,-2.8708,-14.286,-10.59,-14.551,-4.8485,7.5829,-5.7971,-6.7624
-14.281,-9.5238,-16.715,-1.9968,7.7023,-2.9984,10.463,-6.7949,9.5513,-1.9968,7.7023,-5.9187,-6.7624,-4.7847,-13.333,-11.547,-13.59,-2.9346,-1.8957,-7.7295,-5.8054
-6.6983,-6.6667,-11.837,3.8003,12.557,0.82935,13.333,-4.8718,4.7436,3.8003,12.557,-1.0407,-3.8915,-7.6555,-7.619,-13.461,-11.667,-3.8915,-0.94787,-5.7971,-7.7193
-7.6461,-2.8571,-5.9837,3.8003,20.323999,0.82935,17.160999,-0.0641,8.5897,3.8003,20.323999,2.8618,2.807,-0.95694,-0.95238,-6.7624,-3.0128,-1.0207,0.94787,3.8647,-6.7624
-1.9589,-2.8571,-3.0569,-2.963,18.382,-3.9553,16.204,-2.9487,16.282,-2.963,18.382,5.7886,9.5056,6.6986,3.8095,-1.9777,1.7949,1.8501,9.4787,4.8309,-0.0638
4.6761,7.619,1.8211,2.8341,19.353001,1.7863,4.7209,1.859,15.321,2.8341,19.353001,9.6911,13.333,7.6555,5.7143,1.8501,2.7564,-8.6762,1.8957,4.8309,8.5486
2.7804,12.381,1.8211,7.6651,14.498,3.7002,4.7209,4.7436,11.474,7.6651,14.498,9.6911,4.7209,1.9139,-0.95238,0.89314,-2.0513,-6.7624,-16.114,0.0,2.807
2.7804,3.8095,1.8211,12.496,20.323999,7.5279,26.73,3.7821,11.474,12.496,20.323999,11.642,-2.9346,-3.8278,-4.7619,-1.9777,-6.859,-5.8054,1.8957,-6.7633,-1.0207
2.7804,3.8095,0.84553,8.6312,26.149,12.313,21.945999,1.859,10.513,8.6312,26.149,12.618,-3.8915,-5.7416,-1.9048,-2.9346,-7.8205,-4.8485,6.6351,-0.96618,-1.0207
3.7283,3.8095,1.8211,8.6312,24.207001,8.4848,15.247,6.6667,17.243999,8.6312,24.207001,14.569,-1.9777,-6.6986,0.95238,-1.9777,-5.8974,12.376,-2.8436,3.8647,-2.9346
22.686001,16.190001,12.553,17.327,25.177999,17.097,23.860001,11.474,19.167,17.327,25.177999,24.325001,1.8501,-2.8708,5.7143,4.7209,2.7564,16.204,14.218,7.7295,-1.9777
24.580999,16.190001,16.455,20.225,27.120001,18.054001,36.299999,16.282,20.128,20.225,27.120001,25.301001,-0.0638,1.9139,5.7143,9.5056,6.6026,4.7209,16.114,0.96618,2.807
11.311,8.5714,6.6992,12.496,31.003,3.7002,20.989,12.436,17.243999,12.496,31.003,15.545,-2.9346,0.95694,0.95238,5.6778,2.7564,0.89314,13.27,-4.8309,3.764
10.363,9.5238,3.7724,6.6989,26.149,2.7432,29.601,6.6667,16.282,6.6989,26.149,12.618,0.89314,0.0,3.8095,2.807,0.83333,-1.9777,7.5829,1.9324,3.764
25.528999,6.6667,6.6992,10.564,20.323999,13.27,28.643999,4.7436,16.282,10.564,20.323999,15.545,1.8501,0.0,5.7143,3.764,2.7564,-0.0638,2.8436,3.8647,0.89314
34.060001,10.476,12.553,21.191999,29.061001,21.882,12.376,14.359,22.051001,21.191999,29.061001,22.374001,3.764,3.8278,6.6667,8.5486,7.5641,5.6778,-7.5829,0.96618,3.764
27.424999,13.333,9.626,24.09,26.149,18.054001,11.419,15.321,12.436,24.09,26.149,18.472,4.7209,4.7847,2.8571,8.5486,8.5256,13.333,-1.8957,-2.8986,3.764
20.790001,6.6667,6.6992,7.6651,16.440001,8.4848,14.29,8.5897,3.7821,7.6651,16.440001,7.7398,0.89314,1.9139,0.95238,5.6778,6.6026,-0.0638,6.6351,-5.7971,2.807
27.424999,8.5714,9.626,-0.06441,11.586,2.7432,5.6778,2.8205,-1.0256,-0.06441,11.586,6.7642,0.89314,3.8278,5.7143,5.6778,6.6026,-6.7624,8.5308,2.8986,4.7209
29.320999,1.9048,8.6504,5.7327,13.528,7.5279,-1.0207,3.7821,0.89744,5.7327,13.528,10.667,-0.0638,3.8278,2.8571,3.764,5.641,5.6778,2.8436,4.8309,-0.0638
29.320999,-0.95238,7.6748,11.53,12.557,12.313,20.989,12.436,-1.9872,11.53,12.557,12.618,2.807,5.7416,3.8095,3.764,7.5641,8.5486,-6.6351,4.8309,-2.9346
27.424999,0.0,4.748,7.6651,6.7314,4.6571,13.333,12.436,-2.9487,7.6651,6.7314,9.6911,4.7209,3.8278,7.619,1.8501,6.6026,6.6348,-24.645,5.7971,-4.8485
30.268999,-3.8095,4.748,3.8003,5.7605,4.6571,-5.8054,5.7051,-6.7949,3.8003,5.7605,5.7886,3.764,0.95694,11.429,2.807,6.6026,-2.9346,-21.801001,8.6957,-4.8485
28.372999,-0.95238,8.6504,3.8003,9.644,7.5279,1.8501,7.6282,-6.7949,3.8003,9.644,8.7154,3.764,0.0,10.476,5.6778,9.4872,4.7209,-1.8957,2.8986,-1.0207
23.632999,5.7143,12.553,13.462,9.644,11.356,-4.8485,11.474,-7.7564,13.462,9.644,11.642,3.764,-1.9139,10.476,7.5917,10.449,11.419,-12.322,2.8986,3.764
21.738001,11.429,12.553,17.327,8.6731,21.882,13.333,13.397,-7.7564,17.327,8.6731,13.593,3.764,-0.95694,10.476,5.6778,7.5641,15.247,3.7915,4.8309,2.807
20.790001,7.619,8.6504,7.6651,1.877,10.399,11.419,10.513,-2.9487,7.6651,1.877,9.6911,3.764,-0.95694,9.5238,1.8501,2.7564,19.075001,8.5308,10.628,-2.9346
12.259,-4.7619,3.7724,0.90177,1.877,-2.9984,6.6348,5.7051,0.89744,0.90177,1.877,2.8618,3.764,-1.9139,7.619,-1.0207,0.83333,7.5917,-13.27,7.7295,-6.7624
4.6761,-6.6667,0.84553,0.90177,3.8188,3.7002,-2.9346,-1.9872,-2.9487,0.90177,3.8188,-0.06504,3.764,-2.8708,6.6667,-1.9777,0.83333,-7.7193,-4.7393,5.7971,-6.7624
8.4676,1.9048,1.8211,-1.0306,1.877,-0.12759,-6.7624,-1.0256,-6.7949,-1.0306,1.877,0.91057,0.89314,-1.9139,2.8571,-0.0638,1.7949,7.5917,-14.218,0.96618,-1.9777
-0.06319,0.0,-0.13008,-0.06441,-5.89,-4.9123,-2.9346,7.6282,-1.9872,-0.06441,-5.89,-1.0407,-3.8915,-4.7847,-3.8095,-2.9346,-3.0128,7.5917,7.5829,-2.8986,2.807
1.8325,3.8095,-0.13008,6.6989,-2.0065,3.7002,1.8501,10.513,-0.0641,6.6989,-2.0065,-0.06504,-4.8485,-2.8708,-0.95238,-1.0207,-1.0897,-7.7193,-1.8957,2.8986,6.6348
11.311,7.619,2.7967,6.6989,4.7896,5.614,11.419,7.6282,4.7436,6.6989,4.7896,3.8374,-3.8915,-0.95694,0.95238,1.8501,1.7949,1.8501,-3.7915,0.96618,2.807
6.5719,5.7143,2.7967,1.868,-2.9773,9.4418,10.463,-0.0641,-1.0256,1.868,-2.9773,3.8374,-5.8054,-1.9139,-0.95238,1.8501,1.7949,6.6348,9.4787,-4.8309,-1.0207
0.88468,5.7143,5.7236,3.8003,1.877,6.571,10.463,-0.0641,4.7436,3.8003,1.877,4.813,-1.9777,3.8278,0.95238,6.6348,5.641,0.89314,11.374,-1.9324,4.7209
-2.9068,7.619,5.7236,4.7665,6.7314,2.7432,3.764,2.8205,6.6667,4.7665,6.7314,4.813,-0.0638,4.7847,2.8571,8.5486,6.6026,5.6778,5.6872,0.96618,10.463
5.624,0.95238,2.7967,-1.9968,-4.9191,1.7863,-7.7193,-1.9872,-1.9872,-1.9968,-4.9191,1.8862,-1.9777,2.8708,0.95238,1.8501,2.7564,1.8501,1.8957,0.96618,9.5056
-6.6983,-6.6667,-1.1057,-1.9968,-5.89,-1.0845,-13.461,0.89744,-4.8718,-1.9968,-5.89,-3.9675,-1.9777,2.8708,3.8095,-1.9777,0.83333,-10.59,3.7915,3.8647,2.807
-14.281,-4.7619,-3.0569,-4.8953,-9.7735,-0.12759,-6.7624,0.89744,-4.8718,-4.8953,-9.7735,-6.8943,-1.0207,0.95694,0.95238,-1.0207,0.83333,3.764,-20.853001,-1.9324,0.89314
-5.7504,-1.9048,-2.0813,-7.7939,-12.686,-2.0415,8.5486,-4.8718,-4.8718,-7.7939,-12.686,-5.9187,-2.9346,2.8708,-2.8571,0.89314,-0.12821,-2.9346,-8.5308,-4.8309,-0.0638
-3.8547,1.9048,0.84553,-1.9968,-4.9191,-1.0845,5.6778,-2.9487,-1.9872,-1.9968,-4.9191,-1.0407,-3.8915,3.8278,-3.8095,1.8501,-0.12821,-12.504,16.114,-3.8647,2.807
-9.5419,3.8095,1.8211,1.868,-8.8026,-7.7831,-8.6762,-1.9872,-0.0641,1.868,-8.8026,-2.0163,-5.8054,0.0,-3.8095,0.89314,-0.12821,1.8501,10.427,-6.7633,3.764
-12.385,-1.9048,-0.13008,-1.0306,-6.8608,-6.8262,-14.418,-1.0256,-2.9487,-1.0306,-6.8608,-2.9919,-5.8054,0.95694,-1.9048,-1.0207,-1.0897,4.7209,9.4787,-4.8309,1.8501
-15.229,-13.333,-6.9593,-13.591,-6.8608,-9.697,-10.59,-4.8718,-6.7949,-13.591,-6.8608,-9.8211,-8.6762,-0.95694,-3.8095,-5.8054,-5.8974,2.807,11.374,-4.8309,-1.0207
-16.177,-10.476,-10.862,-13.591,-14.628,-10.654,-18.246,-9.6795,-9.6795,-13.591,-14.628,-15.675,-6.7624,-1.9139,-6.6667,-6.7624,-6.859,-0.0638,1.8957,-3.8647,4.7209
-13.333,-4.7619,-7.935,-9.7262,-16.57,-6.8262,-8.6762,-7.7564,-8.7179,-9.7262,-16.57,-13.724,-0.0638,4.7847,-3.8095,-2.9346,-0.12821,-4.8485,-37.915001,0.0,0.89314
-5.7504,-9.5238,-5.0081,-8.7601,-12.686,-1.0845,-2.9346,-4.8718,-7.7564,-8.7601,-12.686,-12.748,1.8501,7.6555,0.95238,-2.9346,2.7564,-15.375,-7.5829,1.9324,-1.9777
-9.5419,-13.333,-8.9106,-2.963,-15.599,-2.0415,-15.375,0.89744,-6.7949,-2.963,-15.599,-12.748,-2.9346,3.8278,-6.6667,-9.6332,-4.9359,-6.7624,26.540001,-8.6957,-3.8915
-12.385,-6.6667,-8.9106,2.8341,-16.57,-1.0845,-17.289,5.7051,-2.9487,2.8341,-16.57,-8.8455,-2.9346,2.8708,-11.429,-10.59,-7.8205,4.7209,15.166,-8.6957,-3.8915
5.624,-4.7619,-5.0081,-1.9968,-11.715,7.5279,-23.987,2.8205,-6.7949,-1.9968,-11.715,-5.9187,1.8501,3.8278,-4.7619,-8.6762,-3.9744,-13.461,5.6872,-2.8986,-2.9346
-2.9068,-8.5714,-0.13008,-2.963,-8.8026,8.4848,-4.8485,6.6667,-1.9872,-2.963,-8.8026,-3.9675,6.6348,6.6986,0.95238,-4.8485,2.7564,0.89314,0.0,-1.9324,0.89314
-8.594,-9.5238,2.7967,-1.0306,-7.8317,2.7432,-3.8915,3.7821,2.8205,-1.0306,-7.8317,-1.0407,4.7209,6.6986,3.8095,-1.9777,6.6026,16.204,-4.7393,-2.8986,5.6778
-2.9068,-6.6667,3.7724,-1.0306,-9.7735,1.7863,3.764,-1.0256,-2.9487,-1.0306,-9.7735,0.91057,0.89314,3.8278,5.7143,-3.8915,3.7179,6.6348,-29.384001,-3.8647,-1.0207
-5.7504,-4.7619,1.8211,-1.9968,-8.8026,-1.0845,4.7209,-0.0641,-4.8718,-1.9968,-8.8026,2.8618,2.807,0.95694,5.7143,-4.8485,2.7564,1.8501,-1.8957,2.8986,-6.7624
-2.9068,-1.9048,3.7724,0.90177,-6.8608,-2.9984,-5.8054,2.8205,-1.0256,0.90177,-6.8608,0.91057,4.7209,0.0,7.619,-1.9777,4.6795,2.807,14.218,3.8647,-7.7193
-1.0111,0.0,4.748,-0.06441,-9.7735,2.7432,-9.6332,6.6667,-0.0641,-0.06441,-9.7735,-0.06504,1.8501,-1.9139,4.7619,-1.0207,1.7949,5.6778,8.5308,1.9324,-6.7624
-1.0111,8.5714,4.748,-0.06441,-8.8026,12.313,-26.858,4.7436,-1.9872,-0.06441,-8.8026,-2.0163,0.89314,-2.8708,3.8095,-0.0638,0.83333,-8.6762,12.322,4.8309,-3.8915
1.8325,0.0,5.7236,0.90177,-1.0356,9.4418,-13.461,-1.0256,2.8205,0.90177,-1.0356,-1.0407,-0.0638,-3.8278,7.619,0.89314,1.7949,-13.461,-13.27,6.7633,0.89314
-10.49,-8.5714,0.84553,0.90177,-3.9482,0.82935,16.204,4.7436,1.859,0.90177,-3.9482,-0.06504,-3.8915,-2.8708,-0.95238,-1.0207,-1.0897,10.463,-0.94787,0.96618,1.8501
-12.385,-6.6667,-5.9837,-4.8953,-5.89,0.82935,0.89314,2.8205,-1.9872,-4.8953,-5.89,-4.9431,-5.8054,-0.95694,-9.5238,-2.9346,-5.8974,8.5486,3.7915,-5.7971,-1.0207
-9.5419,-2.8571,-3.0569,-2.963,-8.8026,-0.12759,-3.8915,-1.0256,-1.0256,-2.963,-8.8026,-5.9187,-0.0638,2.8708,-5.7143,-0.0638,-2.0513,6.6348,6.6351,-0.96618,3.764
1.8325,1.9048,4.748,5.7327,-2.9773,-1.0845,-0.0638,2.8205,0.89744,5.7327,-2.9773,-0.06504,3.764,4.7847,0.95238,3.764,2.7564,5.6778,1.8957,5.7971,4.7209
-4.8025,1.9048,2.7967,3.8003,-3.9482,0.82935,1.8501,0.89744,-2.9487,3.8003,-3.9482,0.91057,3.764,1.9139,0.0,0.89314,0.83333,-1.0207,-24.645,5.7971,-5.8054
-9.5419,2.8571,-1.1057,-2.963,2.8479,3.7002,-5.8054,-3.9103,-1.0256,-2.963,2.8479,1.8862,1.8501,0.95694,-3.8095,-1.0207,-2.0513,-2.9346,-5.6872,-1.9324,-5.8054
-8.594,7.619,1.8211,-1.0306,9.644,2.7432,-4.8485,-1.9872,7.6282,-1.0306,9.644,2.8618,0.89314,2.8708,-3.8095,1.8501,-0.12821,-1.9777,21.801001,-5.7971,1.8501
-4.8025,5.7143,6.6992,1.868,7.7023,2.7432,7.5917,-2.9487,10.513,1.868,7.7023,3.8374,1.8501,2.8708,0.0,6.6348,4.6795,-23.030001,7.5829,-1.9324,11.419
-1.0111,9.5238,11.577,0.90177,6.7314,3.7002,5.6778,-1.0256,10.513,0.90177,6.7314,7.7398,4.7209,4.7847,2.8571,11.419,8.5256,-10.59,11.374,-0.96618,13.333
-4.8025,8.5714,7.6748,-3.9291,-1.0356,0.82935,7.5917,-8.7179,4.7436,-3.9291,-1.0356,4.813,2.807,4.7847,0.95238,10.463,5.641,14.29,10.427,0.96618,2.807
-6.6983,0.95238,0.84553,-9.7262,1.877,-2.0415,7.5917,-10.641,4.7436,-9.7262,1.877,0.91057,-0.0638,0.95694,0.95238,4.7209,1.7949,3.764,-0.94787,-0.96618,-1.0207
-5.7504,-0.95238,-0.13008,-2.963,9.644,-9.697,-0.0638,-7.7564,6.6667,-2.963,9.644,-0.06504,0.89314,0.95694,1.9048,3.764,1.7949,-6.7624,-15.166,-1.9324,-1.0207
-8.594,4.7619,5.7236,2.8341,10.615,-1.0845,10.463,-3.9103,8.5897,2.8341,10.615,2.8618,3.764,3.8278,0.0,7.5917,3.7179,1.8501,9.4787,2.8986,6.6348
-2.9068,8.5714,8.6504,2.8341,4.7896,11.356,10.463,-1.0256,6.6667,2.8341,4.7896,10.667,3.764,4.7847,2.8571,6.6348,3.7179,-2.9346,14.218,4.8309,7.5917
-1.9589,6.6667,4.748,1.868,5.7605,5.614,14.29,-4.8718,6.6667,1.868,5.7605,10.667,0.89314,1.9139,0.0,2.807,0.83333,-10.59,9.4787,1.9324,6.6348
0.88468,2.8571,4.748,-3.9291,9.644,-4.9123,-0.0638,-10.641,8.5897,-3.9291,9.644,5.7886,2.807,1.9139,0.0,3.764,2.7564,-9.6332,10.427,-1.9324,3.764
-9.5419,3.8095,7.6748,-5.8615,8.6731,-4.9123,-6.7624,-15.449,4.7436,-5.8615,8.6731,0.91057,6.6348,6.6986,1.9048,4.7209,6.6026,-6.7624,-2.8436,2.8986,-1.9777
-13.333,0.95238,9.626,-5.8615,6.7314,2.7432,-8.6762,-8.7179,0.89744,-5.8615,6.7314,-0.06504,11.419,9.5694,3.8095,4.7209,7.5641,1.8501,5.6872,5.7971,0.89314
-2.9068,-3.8095,5.7236,-1.9968,2.8479,-2.9984,6.6348,-5.8333,-0.0641,-1.9968,2.8479,-0.06504,10.463,6.6986,7.619,-0.0638,4.6795,5.6778,3.7915,9.6618,1.8501
-1.9589,0.95238,1.8211,1.868,-2.0065,-6.8262,12.376,-0.0641,-1.9872,1.868,-2.0065,1.8862,6.6348,0.0,8.5714,-3.8915,0.83333,-1.0207,-32.227001,4.8309,-2.9346
-0.06319,0.0,-1.1057,-2.963,5.7605,-4.9123,10.463,-4.8718,-1.9872,-2.963,5.7605,0.91057,1.8501,-4.7847,3.8095,-7.7193,-3.0128,-1.9777,-28.436001,2.8986,-5.8054
-8.594,2.8571,-2.0813,-8.7601,4.7896,-6.8262,9.5056,-15.449,2.8205,-8.7601,4.7896,-2.0163,-1.0207,-6.6986,-3.8095,-4.8485,-3.9744,-3.8915,-4.7393,0.0,-1.0207
-8.594,4.7619,2.7967,-7.7939,3.8188,-6.8262,-0.0638,-12.564,5.7051,-7.7939,3.8188,-1.0407,0.89314,-2.8708,0.0,4.7209,3.7179,1.8501,27.488001,2.8986,8.5486
-3.8547,4.7619,5.7236,-1.0306,5.7605,-2.9984,-14.418,-7.7564,4.7436,-1.0306,5.7605,0.91057,3.764,1.9139,6.6667,10.463,9.4872,1.8501,33.174999,6.7633,6.6348
1.8325,12.381,9.626,6.6989,10.615,8.4848,5.6778,1.859,13.397,6.6989,10.615,8.7154,8.5486,5.7416,12.381,15.247,13.333,0.89314,17.062,8.6957,9.5056
1.8325,9.5238,3.7724,0.90177,4.7896,0.82935,25.774,-3.9103,6.6667,0.90177,4.7896,6.7642,2.807,-0.95694,5.7143,7.5917,6.6026,-11.547,-30.332001,-1.9324,4.7209
-11.438,-2.8571,-5.0081,-4.8953,-2.9773,-7.7831,4.7209,-11.603,2.8205,-4.8953,-2.9773,-1.0407,-2.9346,-6.6986,-3.8095,-4.8485,-3.0128,-4.8485,-1.8957,-6.7633,-6.7624
-11.438,-1.9048,-4.0325,-5.8615,5.7605,-5.8692,1.8501,-5.8333,2.8205,-5.8615,5.7605,-0.06504,-1.0207,-5.7416,-3.8095,-5.8054,-4.9359,15.247,28.436001,0.0,-2.9346
1.8325,10.476,3.7724,-6.8277,5.7605,-1.0845,13.333,-9.6795,0.89744,-6.8277,5.7605,4.813,-2.9346,-3.8278,-0.95238,0.89314,-3.0128,-1.0207,13.27,-1.9324,0.89314
5.624,16.190001,9.626,-4.8953,4.7896,-1.0845,0.89314,-7.7564,1.859,-4.8953,4.7896,6.7642,-1.0207,-0.95694,5.7143,5.6778,1.7949,-12.504,11.374,1.9324,6.6348
0.88468,6.6667,5.7236,-0.06441,0.90615,-5.8692,4.7209,0.89744,6.6667,-0.06441,0.90615,3.8374,1.8501,2.8708,4.7619,6.6348,2.7564,-4.8485,-1.8957,4.8309,10.463
-8.594,-0.95238,-3.0569,-3.9291,3.8188,-5.8692,-0.0638,-5.8333,6.6667,-3.9291,3.8188,-1.0407,0.89314,2.8708,0.0,3.764,1.7949,4.7209,4.7393,1.9324,5.6778
-18.073,-2.8571,-9.8862,-1.9968,8.6731,-11.611,-1.0207,-11.603,6.6667,-1.9968,8.6731,-4.9431,-1.0207,1.9139,-4.7619,-0.0638,-1.0897,4.7209,5.6872,-5.7971,0.89314
-14.281,-0.95238,-9.8862,-1.9968,5.7605,-12.568,9.5056,-9.6795,6.6667,-1.9968,5.7605,-4.9431,-1.9777,0.95694,-7.619,-1.0207,-3.9744,-4.8485,-1.8957,-6.7633,3.764
-10.49,-1.9048,-9.8862,-7.7939,4.7896,-8.74,7.5917,-4.8718,-1.0256,-7.7939,4.7896,-7.8699,-2.9346,-1.9139,-7.619,-2.9346,-5.8974,-15.375,-4.7393,-1.9324,0.89314
-11.438,-5.7143,-13.789,-8.7601,-2.9773,-11.611,-6.7624,-4.8718,-5.8333,-8.7601,-2.9773,-13.724,-4.8485,-2.8708,-6.6667,-6.7624,-6.859,-1.0207,-12.322,0.0,-4.8485
-9.5419,-5.7143,-14.764,-7.7939,-8.8026,-12.568,-13.461,-1.9872,-4.8718,-7.7939,-8.8026,-15.675,-2.9346,-0.95694,-3.8095,-5.8054,-4.9359,11.419,3.7915,0.0,-2.9346
-7.6461,-5.7143,-9.8862,-4.8953,-4.9191,-9.697,-11.547,2.8205,-0.0641,-4.8953,-4.9191,-11.772,-1.0207,1.9139,-0.95238,-2.9346,-2.0513,-9.6332,12.322,-4.8309,7.5917
-1.9589,5.7143,-2.0813,-0.06441,3.8188,-2.0415,-1.9777,0.89744,0.89744,-0.06441,3.8188,-1.0407,1.8501,4.7847,1.9048,0.89314,1.7949,-4.8485,11.374,0.0,10.463
-5.7504,-1.9048,-3.0569,2.8341,2.8479,2.7432,5.6778,4.7436,-2.9487,2.8341,2.8479,2.8618,2.807,3.8278,-2.8571,-3.8915,-1.0897,5.6778,-13.27,0.96618,-4.8485
1.8325,-5.7143,-0.13008,4.7665,1.877,7.5279,0.89314,4.7436,0.89744,4.7665,1.877,4.813,2.807,3.8278,-2.8571,-5.8054,-2.0513,1.8501,-4.7393,1.9324,-10.59
8.4676,1.9048,2.7967,3.8003,3.8188,11.356,8.5486,8.5897,1.859,3.8003,3.8188,6.7642,2.807,3.8278,1.9048,-2.9346,-1.0897,-0.0638,0.94787,1.9324,-3.8915
9.4155,9.5238,7.6748,9.5974,5.7605,12.313,8.5486,12.436,-1.0256,9.5974,5.7605,9.6911,2.807,3.8278,2.8571,0.89314,0.83333,4.7209,0.94787,0.96618,0.89314
5.624,9.5238,8.6504,7.6651,3.8188,6.571,4.7209,4.7436,5.7051,7.6651,3.8188,9.6911,3.764,5.7416,5.7143,5.6778,5.641,10.463,-3.7915,2.8986,3.764
2.7804,1.9048,6.6992,-1.0306,9.644,2.7432,17.160999,-0.0641,7.6282,-1.0306,9.644,6.7642,6.6348,9.5694,6.6667,9.5056,9.4872,8.5486,2.8436,3.8647,2.807
3.7283,2.8571,4.748,-0.06441,5.7605,1.7863,13.333,1.859,2.8205,-0.06441,5.7605,4.813,9.5056,12.44,7.619,11.419,11.41,11.419,9.4787,5.7971,3.764
12.259,8.5714,7.6748,3.8003,4.7896,1.7863,9.5056,4.7436,-0.0641,3.8003,4.7896,8.7154,8.5486,10.526,9.5238,9.5056,9.4872,-1.9777,9.4787,9.6618,8.5486
-0.06319,9.5238,3.7724,4.7665,-0.06472,2.7432,4.7209,6.6667,-1.0256,4.7665,-0.06472,6.7642,4.7209,8.6124,3.8095,4.7209,3.7179,-2.9346,-9.4787,5.7971,6.6348
-13.333,9.5238,-3.0569,2.8341,-4.9191,-1.0845,-14.418,2.8205,-1.9872,2.8341,-4.9191,-2.0163,3.764,8.6124,-2.8571,2.807,-0.12821,-5.8054,-11.374,4.8309,1.8501
-7.6461,3.8095,-3.0569,-0.06441,-2.9773,3.7002,-5.8054,-2.9487,-1.9872,-0.06441,-2.9773,-5.9187,9.5056,10.526,0.0,6.6348,2.7564,-1.9777,-6.6351,2.8986,4.7209
4.6761,-0.95238,-1.1057,-3.9291,-3.9482,3.7002,-5.8054,-6.7949,-1.9872,-3.9291,-3.9482,-3.9675,10.463,9.5694,4.7619,4.7209,1.7949,2.807,0.94787,4.8309,6.6348
-5.7504,-8.5714,-6.9593,-1.9968,-4.9191,-13.525,-4.8485,-2.9487,-8.7179,-1.9968,-4.9191,-7.8699,7.5917,6.6986,1.9048,-1.9777,-2.0513,-3.8915,10.427,7.7295,1.8501
-12.385,-13.333,-11.837,-3.9291,-6.8608,-18.309,-3.8915,-2.9487,-9.6795,-3.9291,-6.8608,-9.8211,7.5917,4.7847,-3.8095,-4.8485,-5.8974,-5.8054,4.7393,0.96618,-0.0638
-10.49,-7.619,-9.8862,-6.8277,-5.89,-9.697,-4.8485,-4.8718,-6.7949,-6.8277,-5.89,-9.8211,6.6348,1.9139,-6.6667,-4.8485,-6.859,-10.59,-10.427,-4.8309,1.8501
-6.6983,-6.6667,-5.9837,-1.0306,-6.8608,-5.8692,3.764,-6.7949,-1.9872,-1.0306,-6.8608,-7.8699,4.7209,0.95694,-5.7143,-4.8485,-5.8974,6.6348,-0.94787,0.96618,1.8501
-3.8547,0.95238,-2.0813,-3.9291,-2.0065,2.7432,-6.7624,-4.8718,1.859,-3.9291,-2.0065,-2.0163,3.764,1.9139,-2.8571,-2.9346,-3.9744,4.7209,0.94787,3.8647,-1.9777
-0.06319,5.7143,0.84553,1.868,5.7605,5.614,-17.289,3.7821,-0.0641,1.868,5.7605,2.8618,0.89314,1.9139,-2.8571,-0.0638,-3.9744,-2.9346,7.5829,1.9324,1.8501
-2.9068,-3.8095,-3.0569,5.7327,-0.06472,8.4848,-4.8485,-1.0256,-5.8333,5.7327,-0.06472,0.91057,-7.7193,-3.8278,-7.619,-3.8915,-8.7821,-16.332001,-4.7393,-5.7971,-1.9777
-4.8025,-6.6667,-1.1057,3.8003,-2.9773,5.614,4.7209,-1.9872,-8.7179,3.8003,-2.9773,-0.06504,-11.547,-5.7416,-8.5714,-2.9346,-6.859,-8.6762,5.6872,-9.6618,-1.9777
-1.0111,0.95238,5.7236,3.8003,-0.06472,-0.12759,2.807,-3.9103,-5.8333,3.8003,-0.06472,1.8862,-8.6762,-2.8708,-4.7619,0.89314,-3.0128,-1.9777,5.6872,-8.6957,0.89314
-3.8547,0.0,1.8211,2.8341,-4.9191,-4.9123,1.8501,-1.9872,-6.7949,2.8341,-4.9191,-0.06504,-11.547,-7.6555,-8.5714,-4.8485,-7.8205,-9.6332,-17.062,-7.7295,-3.8915
-2.9068,-0.95238,-1.1057,2.8341,-4.9191,-1.0845,-3.8915,3.7821,-3.9103,2.8341,-4.9191,2.8618,-11.547,-10.526,-8.5714,-9.6332,-9.7436,1.8501,-0.94787,-3.8647,-1.0207
-1.0111,-4.7619,-1.1057,0.90177,-0.06472,-4.9123,-5.8054,2.8205,0.89744,0.90177,-0.06472,1.8862,-12.504,-9.5694,-3.8095,-8.6762,-7.8205,-9.6332,4.7393,-3.8647,0.89314
-1.0111,-0.95238,-0.13008,-1.9968,-1.0356,-2.9984,-8.6762,-1.9872,-1.0256,-1.9968,-1.0356,0.91057,-12.504,-9.5694,-4.7619,-5.8054,-6.859,-5.8054,-11.374,-8.6957,-3.8915
2.7804,0.95238,-1.1057,-2.963,-4.9191,-2.0415,0.89314,-3.9103,-0.0641,-2.963,-4.9191,-1.0407,-11.547,-9.5694,-5.7143,-7.7193,-7.8205,5.6778,-16.114,-7.7295,-12.504
7.5197,-3.8095,-1.1057,-2.963,-2.9773,1.7863,9.5056,0.89744,-3.9103,-2.963,-2.9773,0.91057,-5.8054,-6.6986,0.95238,-6.7624,-4.9359,7.5917,4.7393,1.9324,-10.59
8.4676,-9.5238,-2.0813,-0.06441,-3.9482,6.571,6.6348,7.6282,-1.9872,-0.06441,-3.9482,0.91057,-0.0638,-5.7416,5.7143,-5.8054,-3.0128,8.5486,6.6351,10.628,-4.8485
