C3,C4,Cz,F1,F2,F3,F4,F7,F8,Fp1,Fp2,Fz,O1,O2,P3,P4,Pz,T3,T4,T5,T6
-2.0126,0.7619,1.3008,-2.0065,1.9608,10.797,-1.2882,-7.7939,1.877,-2.0065,1.9608,0.66007,2.5276,2.4762,1.3968,3.2206,3.8647,3.0769,3.873,4.5752,1.1538
0.50314,-1.1429,0.0,-3.9482,-2.6144,-21.724001,-7.0853,-14.879,9.644,-3.9482,-2.6144,-3.9604,1.8957,4.381,1.3968,1.2882,3.2206,4.359,1.3333,4.5752,1.7949
-2.0126,-9.3968,-5.2033,-7.1845,-3.9216,-23.024,-10.306,-7.7939,-2.0065,-7.1845,-3.9216,-10.561,-0.63191,1.8413,-1.7778,-5.153,-1.2882,-7.8205,-3.1111,1.3072,0.51282
-2.0126,-4.3175,-2.6016,-1.3592,-3.268,1.0407,-2.5765,-2.6409,2.5243,-1.3592,-3.268,-6.6007,-0.63191,1.8413,-1.1429,-5.153,0.64412,4.359,-3.1111,0.65359,-1.4103
6.7925,5.2063,5.8537,3.8188,5.2288,25.756001,8.3736,-2.6409,-0.06472,3.8188,5.2288,7.2607,0.0,3.1111,1.3968,-2.5765,3.8647,1.7949,-0.57143,-0.65359,1.1538
-3.2704,-9.3968,-5.2033,-2.0065,-1.9608,-1.561,-10.306,-2.6409,-7.8317,-2.0065,-1.9608,-5.2805,-4.4234,0.57143,-6.8571,-10.306,-4.5089,-14.872,-4.381,-5.2288,-2.6923
-7.044,-13.206,-8.4553,-7.8317,-1.9608,-3.5122,-10.95,-1.9968,7.055,-7.8317,-1.9608,-5.9406,-5.0553,-0.69841,-8.7619,-12.238,-7.0853,-7.1795,-3.1111,-6.5359,-1.4103
-3.8994,-7.4921,-7.8049,-2.6537,-3.268,-10.016,-3.8647,-16.167,-2.0065,-2.6537,-3.268,-4.6205,-3.1596,-0.69841,-5.5873,-10.95,-5.7971,-7.8205,-5.6508,-6.5359,-3.3333
-0.75472,-12.571,-5.2033,-2.6537,0.65359,10.797,-16.103001,7.0209,7.055,-2.6537,0.65359,-2.6403,-5.0553,-3.2381,-5.5873,-12.238,-5.153,-1.4103,-6.9206,-5.8824,-5.2564
1.761,-4.9524,-1.9512,5.7605,-0.65359,6.8943,-2.5765,13.462,2.5243,5.7605,-0.65359,0.0,-5.6872,-4.5079,-3.6825,-8.3736,-3.8647,0.51282,-4.381,-1.9608,-4.6154
-3.8994,-4.3175,-8.4553,12.233,3.9216,-11.967,1.9324,5.7327,1.877,12.233,3.9216,-3.9604,-8.2148,-3.873,-8.7619,-9.0177,-9.0177,-6.5385,-1.8413,-4.5752,-2.6923
-7.044,3.3016,-7.1545,-5.2427,-7.1895,-0.91057,-1.2882,-7.7939,8.9968,-5.2427,-7.1895,-5.9406,-5.6872,-1.3333,-8.127,-1.2882,-5.153,-2.0513,0.69841,-4.5752,-0.12821
0.50314,6.4762,0.65041,-7.8317,-6.5359,-5.4634,1.9324,-5.8615,-3.9482,-7.8317,-6.5359,-3.3003,0.0,1.8413,1.3968,5.7971,4.5089,3.7179,1.9683,2.6144,3.0769
8.0503,11.556,5.8537,-15.599,-7.8431,14.699,21.256001,-17.455999,-29.191,-15.599,-7.8431,7.2607,-1.8957,-1.9683,2.6667,1.9324,3.8647,10.128,-4.381,0.0,-2.0513
1.761,-5.5873,4.5528,-18.834999,-5.8824,-16.52,-0.64412,-9.7262,1.877,-18.834999,-5.8824,5.9406,-1.2638,-3.873,-1.7778,-4.5089,0.0,3.7179,-4.381,0.0,-3.9744
-5.1572,-1.7778,3.9024,8.9968,0.0,-0.91057,5.7971,5.0886,6.4078,8.9968,0.0,3.9604,0.0,-3.2381,-2.4127,-3.8647,0.0,-3.9744,-3.1111,0.65359,-3.3333
-4.5283,4.5714,3.252,5.7605,-5.8824,-4.813,8.3736,-0.06441,3.1715,5.7605,-5.8824,0.0,0.0,-3.2381,0.12698,-3.2206,0.0,-3.3333,-3.746,0.65359,-4.6154
-2.0126,5.2063,3.252,-10.421,-5.2288,-4.813,5.7971,-5.8615,3.8188,-10.421,-5.2288,-0.66007,2.5276,-0.06349,3.9365,0.64412,2.5765,-4.6154,0.06349,1.9608,-0.76923
1.761,8.381,1.9512,-11.715,0.0,4.9431,11.594,-5.8615,10.291,-11.715,0.0,2.6403,4.4234,4.381,5.2063,5.153,5.7971,3.7179,5.1429,3.268,4.359
-0.75472,5.8413,-1.9512,-9.1262,3.268,6.8943,11.594,-8.438,5.1133,-9.1262,3.268,2.6403,-1.8957,-0.69841,-1.7778,0.0,-0.64412,1.1538,4.5079,-2.6144,-0.12821
8.0503,9.0159,5.8537,-10.421,9.8039,-5.4634,14.815,-9.7262,19.353001,-10.421,9.8039,7.2607,-0.63191,-0.69841,2.6667,1.2882,2.5765,9.4872,7.6825,0.65359,0.51282
20.629,19.174999,17.561001,8.9968,15.033,22.504,36.715,5.7327,10.291,8.9968,15.033,15.842,3.1596,1.8413,14.095,6.4412,11.594,6.9231,10.222,5.8824,4.359
4.2767,-1.1429,7.8049,-0.71197,0.0,-0.26016,0.0,12.818,14.175,-0.71197,0.0,0.0,-2.5276,-1.9683,7.746,0.64412,5.7971,-4.6154,5.7778,-1.3072,-0.76923
-0.75472,0.7619,0.0,-2.6537,-3.9216,-14.569,-3.8647,-1.3527,3.8188,-2.6537,-3.9216,-5.9406,-5.0553,-2.6032,0.7619,-0.64412,0.64412,-5.2564,3.873,-2.6144,1.1538
2.3899,0.12698,-1.3008,8.3495,-2.6144,4.9431,3.8647,3.8003,7.055,8.3495,-2.6144,-3.3003,-5.6872,-1.9683,-0.50794,-2.5765,-1.9324,-0.76923,3.873,-1.9608,1.1538
-0.75472,9.6508,2.6016,1.2298,0.65359,12.098,19.968,7.0209,-20.777,1.2298,0.65359,4.6205,-10.111,-3.873,-6.8571,-0.64412,-1.9324,-3.3333,0.06349,-8.4967,-0.76923
10.566,5.8413,5.8537,-6.5372,-3.268,5.5935,-10.306,1.868,8.9968,-6.5372,-3.268,-0.66007,-4.4234,1.8413,0.12698,5.7971,4.5089,1.1538,11.492,-1.9608,4.359
7.4214,-2.4127,5.8537,5.1133,-2.6144,-11.967,-6.4412,-9.0821,12.88,5.1133,-2.6144,0.66007,-2.5276,0.57143,-0.50794,1.2882,4.5089,7.5641,5.7778,-0.65359,1.7949
13.082,2.6667,8.4553,3.1715,-5.2288,6.2439,4.5089,1.868,-0.71197,3.1715,-5.2288,2.6403,1.2638,-0.69841,4.5714,-0.64412,5.153,-1.4103,-0.57143,2.6144,-2.0513
6.1635,2.6667,5.8537,-1.3592,-1.3072,15.35,1.9324,12.818,20.0,-1.3592,-1.3072,0.0,5.0553,0.57143,4.5714,-0.64412,3.8647,18.462,4.5079,5.8824,0.51282
2.3899,-3.6825,0.65041,-1.3592,-3.9216,12.748,1.9324,-5.2174,-3.9482,-1.3592,-3.9216,1.3201,4.4234,-1.3333,3.9365,-5.153,0.0,-0.76923,-0.57143,3.9216,-3.3333
5.5346,-4.9524,-1.9512,-6.5372,-6.5359,-16.52,-8.3736,-0.70853,-7.8317,-6.5372,-6.5359,-1.3201,5.6872,-2.6032,6.4762,-6.4412,0.0,-4.6154,-6.9206,5.8824,-6.5385
9.9371,-0.50794,6.5041,-9.7735,-4.5752,4.2927,-1.9324,-10.37,3.1715,-9.7735,-4.5752,2.6403,11.374,0.57143,12.19,-0.64412,6.4412,12.051,-6.2857,9.8039,-3.9744
9.3082,-4.9524,4.5528,-3.301,-9.8039,13.398,-14.815,-4.5733,-4.5955,-3.301,-9.8039,-1.9802,12.006,3.1111,12.825,-0.64412,7.7295,9.4872,-10.095,10.458,-3.9744
2.3899,-13.206,0.0,1.2298,-7.1895,7.5447,-12.238,8.9533,-11.715,1.2298,-7.1895,-1.3201,8.2148,-1.3333,7.1111,-6.4412,2.5765,6.2821,-12.0,8.4967,-7.8205
11.824,-6.8571,3.9024,-3.9482,-2.6144,-0.26016,3.2206,-1.9968,-7.1845,-3.9482,-2.6144,4.6205,6.951,-1.3333,8.381,-5.153,1.9324,6.2821,-9.4603,7.1895,-7.1795
-0.75472,2.6667,-3.9024,-3.301,-3.9216,12.098,13.527,-13.591,-21.424,-3.301,-3.9216,1.3201,-3.1596,-8.3175,-3.6825,-10.306,-7.7295,12.051,-13.27,0.0,-12.308
-8.9308,-11.937,-8.4553,-4.5955,-7.8431,8.8455,-10.95,3.8003,12.233,-4.5955,-7.8431,-6.6007,-3.1596,-7.6825,-4.3175,-11.594,-9.0177,-0.12821,-8.8254,1.9608,-11.026
-3.8994,-9.3968,-2.6016,-3.9482,-4.5752,-10.016,-5.7971,9.5974,-8.479,-3.9482,-4.5752,-3.9604,-1.2638,-3.873,-1.7778,-5.153,-3.2206,-1.4103,-5.0159,1.9608,-5.2564
-3.2704,-1.7778,1.3008,-3.9482,-7.1895,-2.2114,-4.5089,1.2238,-6.5372,-3.9482,-7.1895,-2.6403,-1.8957,-2.6032,-2.4127,-2.5765,-1.2882,-4.6154,0.06349,-1.9608,-3.3333
-4.5283,10.921,5.2033,10.291,5.2288,-10.016,30.917999,7.6651,-11.715,10.291,5.2288,9.901,-0.63191,-0.69841,-4.3175,1.2882,-0.64412,3.7179,3.873,0.65359,0.51282
-10.818,2.0317,-3.9024,-5.89,2.6144,12.098,9.0177,-3.285,3.8188,-5.89,2.6144,3.3003,-5.6872,-3.873,-11.937,-2.5765,-8.3736,3.0769,3.873,-6.5359,-2.6923
-2.0126,9.6508,5.2033,8.9968,16.34,18.601999,17.391001,2.5121,22.589001,8.9968,16.34,15.182,0.63191,1.2063,-4.3175,4.5089,0.0,-5.8974,15.937,-1.3072,6.2821
-1.3836,14.73,4.5528,1.2298,7.8431,-3.5122,17.391001,-1.3527,15.469,1.2298,7.8431,7.2607,0.63191,-0.06349,-1.7778,4.5089,0.64412,-6.5385,8.9524,-1.3072,3.0769
-4.5283,7.1111,7.1545,11.586,11.765,8.8455,9.6618,3.8003,12.233,11.586,11.765,7.2607,1.2638,1.2063,-0.50794,3.8647,2.5765,-7.1795,11.492,-0.65359,4.359
6.7925,12.825,16.910999,18.058001,15.033,16.0,19.323999,12.174,14.822,18.058001,15.033,19.142,4.4234,5.0159,7.1111,9.0177,9.0177,-3.3333,14.032,3.9216,8.8462
6.1635,12.825,12.358,12.233,12.418,18.601999,18.68,11.53,20.646999,12.233,12.418,15.182,0.0,1.2063,4.5714,7.7295,5.7971,3.0769,11.492,3.268,5.0
4.2767,10.921,10.407,10.939,10.458,5.5935,12.238,1.868,12.88,10.939,10.458,9.901,-1.8957,-0.06349,1.3968,8.3736,5.153,-5.2564,12.127,-1.9608,5.641
9.3082,17.905001,14.309,6.4078,9.8039,2.9919,25.764999,4.4444,-16.246,6.4078,9.8039,12.541,-1.2638,1.2063,2.6667,11.594,8.3736,4.359,5.1429,-1.3072,3.0769
10.566,7.746,13.008,10.939,11.765,-5.4634,6.4412,5.7327,7.055,10.939,11.765,13.201,1.2638,2.4762,4.5714,11.594,9.0177,6.9231,4.5079,5.8824,4.359
8.0503,7.746,13.008,-3.301,5.8824,27.707001,4.5089,-1.9968,5.1133,-3.301,5.8824,15.842,-2.5276,0.57143,1.3968,8.3736,7.0853,10.128,2.6032,0.65359,1.1538
6.1635,4.5714,8.4553,3.8188,1.9608,-13.919,3.8647,7.6651,-2.6537,3.8188,1.9608,4.6205,-8.2148,-3.873,-4.3175,3.8647,2.5765,-9.1026,-1.8413,-5.2288,-2.0513
-3.8994,4.5714,1.9512,11.586,1.3072,-0.26016,-0.64412,1.2238,-6.5372,11.586,1.3072,2.6403,-10.111,-4.5079,-9.3968,3.8647,-1.2882,1.7949,-0.57143,-3.268,-2.6923
1.761,2.6667,1.3008,7.055,4.5752,21.854,1.9324,5.7327,0.58252,7.055,4.5752,8.5809,-12.006,-7.6825,-10.032,0.64412,-3.8647,4.359,-2.4762,-3.268,-5.2564
3.6478,-4.3175,-2.6016,1.877,1.3072,18.601999,-3.2206,-3.285,3.1715,1.877,1.3072,7.2607,-17.694,-12.762,-13.841,-7.0853,-9.6618,-0.76923,-8.8254,-11.765,-11.026
-0.75472,-4.9524,2.6016,9.644,11.765,16.65,6.4412,-0.06441,-2.0065,9.644,11.765,12.541,-15.166,-11.492,-11.937,-10.95,-9.0177,11.41,-9.4603,-5.8824,-11.026
-3.2704,-11.937,-0.65041,1.877,-2.6144,-21.724001,-4.5089,3.1562,-10.421,1.877,-2.6144,1.3201,-12.638,-12.762,-6.8571,-14.815,-9.6618,-0.76923,-13.27,-2.6144,-15.513
4.2767,-0.50794,6.5041,10.939,1.3072,1.0407,12.882,1.868,-29.837999,10.939,1.3072,4.6205,-6.3191,-9.5873,1.3968,-9.6618,-1.9324,3.0769,-12.0,0.0,-9.1026
-0.12579,-14.476,-7.1545,-6.5372,-9.8039,-10.667,-15.459,-2.6409,-12.362,-6.5372,-9.8039,-12.541,-4.4234,-8.3175,-1.1429,-12.238,-7.7295,1.1538,-12.0,0.65359,-9.7436
-1.3836,-15.111,-13.659,-7.8317,-4.5752,1.6911,-12.238,-5.2174,-1.3592,-7.8317,-4.5752,-11.221,-2.5276,-5.1429,-1.7778,-12.238,-8.3736,-1.4103,-9.4603,0.0,-5.8974
2.3899,-4.9524,-1.3008,-3.9482,1.3072,-4.813,7.0853,-1.9968,2.5243,-3.9482,1.3072,1.3201,1.2638,-0.69841,3.9365,-7.0853,-1.2882,8.8462,-8.1905,3.268,-3.3333
9.9371,-3.0476,6.5041,-0.71197,-1.9608,6.8943,-12.238,8.9533,-7.8317,-0.71197,-1.9608,2.6403,3.1596,0.57143,9.6508,-0.64412,5.7971,-0.12821,-6.9206,4.5752,-0.76923
8.6792,-1.1429,13.008,9.644,-1.9608,4.9431,-4.5089,8.9533,-3.9482,9.644,-1.9608,2.6403,6.951,3.1111,14.095,5.7971,12.238,-3.9744,-1.2063,5.2288,2.4359
11.824,7.1111,20.813,6.4078,1.9608,5.5935,1.9324,6.3768,-0.71197,6.4078,1.9608,9.2409,10.111,7.5556,17.905001,13.527,18.035,0.51282,3.873,5.8824,7.5641
17.483999,16.635,24.065001,5.7605,3.9216,19.902,7.7295,0.57971,-3.301,5.7605,3.9216,16.502001,14.534,12.635,22.349001,20.612,22.544001,-0.76923,10.222,9.1503,14.615
17.483999,27.429001,23.415001,2.5243,5.8824,12.748,30.917999,-0.06441,-13.01,2.5243,5.8824,18.482,17.694,16.444,24.254,25.121,24.476999,-5.2564,10.857,9.1503,17.179001
11.195,22.349001,20.163,-0.71197,4.5752,6.8943,14.171,-9.7262,0.58252,-0.71197,4.5752,14.521,22.117001,20.254,22.349001,27.052999,25.121,-2.6923,15.302,13.072,21.025999
4.2767,22.983999,16.26,15.469,5.2288,-4.813,5.7971,10.886,6.4078,15.469,5.2288,13.861,22.117001,23.429001,16.0,31.562,24.476999,-12.308,15.302,10.458,22.308001
-13.333,17.905001,11.057,11.586,-1.9608,8.1951,7.7295,4.4444,-11.068,11.586,-1.9608,8.5809,13.902,17.079,2.0317,25.121,16.747,-8.4615,8.9524,1.9608,18.462
-8.3019,4.5714,7.8049,-0.06472,-6.5359,11.447,-4.5089,1.868,-9.7735,-0.06472,-6.5359,5.9406,8.8468,10.095,-1.1429,12.238,9.6618,-3.9744,1.9683,0.65359,6.9231
-2.6415,-6.2222,0.0,-11.715,-10.458,1.6911,-7.7295,-6.5056,-19.482,-11.715,-10.458,-1.9802,3.7915,3.1111,-6.8571,1.9324,0.64412,-1.4103,-6.2857,-2.6144,-0.76923
-13.333,-13.841,-9.1057,-9.1262,-16.993,0.39024,-22.544001,-5.2174,-16.246,-9.1262,-16.993,-9.2409,1.2638,0.57143,-14.476,-4.5089,-7.0853,3.0769,-10.095,-4.5752,-3.9744
-14.591,-4.9524,-8.4553,0.58252,-11.765,10.146,-6.4412,13.462,-14.951,0.58252,-11.765,-4.6205,2.5276,1.2063,-16.381001,-2.5765,-7.7295,5.0,-6.9206,1.3072,-2.0513
-16.478001,-15.746,-21.462999,-3.9482,-22.222,-39.935001,-16.103001,14.75,-31.780001,-3.9482,-22.222,-17.162001,-6.3191,-12.762,-22.73,-19.323999,-21.9,0.51282,-19.618999,-3.268,-16.795
-24.653999,-38.603001,-33.820999,-14.951,-21.569,-16.52,-25.764999,-9.0821,-22.718,-14.951,-21.569,-23.761999,-15.798,-24.825001,-29.714001,-38.002998,-34.138,-2.0513,-32.317001,-5.8824,-30.256001
-28.427999,-38.603001,-33.820999,-17.540001,-22.222,-15.87,-23.833,-9.0821,-13.01,-17.540001,-22.222,-22.441999,-22.117001,-28.0,-30.349001,-40.580002,-36.715,-3.3333,-30.413,-8.4967,-32.820999
-22.767,-30.983999,-30.569,-16.246,-18.954,-11.317,-13.527,-7.7939,-27.249001,-16.246,-18.954,-19.142,-23.381001,-26.73,-26.540001,-35.426998,-33.493999,-2.0513,-27.238001,-9.8039,-28.974001
-18.365,-15.746,-22.764,-13.657,-11.111,-9.3659,-11.594,-2.6409,-7.1845,-13.657,-11.111,-11.221,-14.534,-12.127,-18.285999,-20.612,-21.9,2.4359,-13.27,-5.2288,-13.59
-15.22,-8.7619,-14.959,-7.1845,-7.1895,-6.1138,-8.3736,-5.8615,-2.0065,-7.1845,-7.1895,-8.5809,-5.6872,-0.69841,-8.127,-7.0853,-9.6618,9.4872,-0.57143,-1.3072,-0.12821
-8.9308,-10.032,-12.358,-2.6537,-6.5359,2.3415,-9.0177,-2.6409,-0.06472,-2.6537,-6.5359,-9.901,2.5276,5.0159,3.3016,0.64412,0.0,-1.4103,5.7778,2.6144,6.9231
0.50314,-2.4127,-6.5041,-2.6537,-7.8431,-22.374001,-6.4412,5.0886,2.5243,-2.6537,-7.8431,-15.842,8.8468,10.095,14.73,9.0177,10.306,-0.12821,1.9683,8.4967,9.4872
8.6792,5.2063,1.3008,1.2298,-1.9608,-32.130001,0.0,5.0886,14.822,1.2298,-1.9608,-11.881,16.43,18.349001,22.983999,15.459,17.391001,10.128,8.3175,11.111,17.820999
8.0503,0.12698,-3.9024,-11.715,-7.8431,1.6911,-11.594,-6.5056,1.2298,-11.715,-7.8431,-14.521,16.43,17.079,18.540001,11.594,12.882,-5.8974,5.7778,7.1895,12.692
12.453,13.46,5.8537,-1.3592,-3.268,3.6423,-1.2882,-1.9968,-7.1845,-1.3592,-3.268,-9.2409,22.749001,22.794001,22.983999,18.68,19.323999,-0.76923,10.222,13.072,19.743999
10.566,10.921,10.407,-3.9482,-3.9216,-15.87,-5.153,-3.285,16.764,-3.9482,-3.9216,-9.2409,25.908001,27.872999,23.618999,23.188,22.544001,4.359,21.650999,9.8039,26.795
11.195,10.286,11.057,-4.5955,1.3072,-4.1626,0.0,-7.7939,11.586,-4.5955,1.3072,-3.9604,24.013,27.238001,19.809999,22.544001,21.256001,-0.12821,21.650999,7.1895,26.153999
12.453,17.905001,16.910999,-6.5372,1.3072,12.748,9.6618,-7.7939,14.822,-6.5372,1.3072,2.6403,18.957001,23.429001,16.0,20.612,18.68,-9.1026,23.556,3.9216,24.231001
8.6792,12.19,16.26,1.877,9.8039,5.5935,14.171,0.57971,21.294001,1.877,9.8039,11.221,11.374,18.983999,7.746,17.391001,14.171,1.7949,22.921,-1.3072,21.667
-0.12579,9.6508,7.1545,-7.1845,0.0,-11.317,0.0,0.57971,18.058001,-7.1845,0.0,1.9802,7.5829,15.81,0.7619,13.527,7.0853,-1.4103,19.111,-4.5752,17.179001
1.1321,9.6508,7.1545,-3.9482,5.2288,6.2439,8.3736,-4.5733,24.531,-3.9482,5.2288,2.6403,6.3191,13.905,-1.1429,12.882,6.4412,-11.667,19.746,-3.268,17.820999
-13.333,7.1111,-0.65041,-3.301,-0.65359,-2.8618,5.153,0.57971,12.88,-3.301,-0.65359,-1.9802,1.2638,8.8254,-10.032,9.6618,0.0,-5.8974,15.937,-6.5359,11.41
-15.22,10.286,-2.6016,-3.9482,-1.9608,-9.3659,3.2206,-5.8615,7.055,-3.9482,-1.9608,-3.9604,-2.5276,5.6508,-13.841,7.7295,-3.8647,-3.3333,9.5873,-7.8431,10.128
-1.3836,3.3016,0.65041,-25.306999,-8.4967,-9.3659,-7.7295,-16.812,8.3495,-25.306999,-8.4967,-1.9802,-0.63191,4.381,-7.4921,8.3736,-1.2882,3.7179,8.9524,-2.6144,6.9231
-4.5283,0.7619,-1.3008,-8.479,-11.111,-14.569,-7.7295,-11.659,1.2298,-8.479,-11.111,-5.2805,-3.1596,3.1111,-7.4921,5.153,-1.9324,-5.2564,4.5079,-3.9216,3.7179
-3.8994,-1.1429,-1.3008,9.644,-9.1503,3.6423,-12.882,6.3768,-5.2427,9.644,-9.1503,-4.6205,1.8957,5.6508,-1.1429,3.8647,0.64412,1.7949,1.3333,5.8824,4.359
-0.75472,-9.3968,-7.1545,-5.2427,-14.379,-23.024,-15.459,-3.285,0.58252,-5.2427,-14.379,-11.221,-1.2638,0.57143,0.12698,-3.2206,-2.5765,6.9231,-1.8413,5.2288,-0.12821
-2.6415,-10.667,-7.8049,-8.479,-15.033,-17.820999,-14.171,-3.285,-8.479,-8.479,-15.033,-10.561,-3.7915,-1.9683,-2.4127,-5.7971,-5.153,3.0769,-5.0159,1.9608,-2.0513
-5.1572,-8.127,-6.5041,-7.8317,-10.458,6.2439,-9.0177,-1.3527,-6.5372,-7.8317,-10.458,-4.6205,-7.5829,-4.5079,-6.2222,-7.7295,-8.3736,4.359,-4.381,0.65359,-3.3333
-9.5597,-6.8571,-11.707,-9.1262,-8.4967,6.8943,-6.4412,-10.37,-7.1845,-9.1262,-8.4967,-5.9406,-10.742,-5.1429,-11.302,-8.3736,-11.594,1.1538,-4.381,-5.2288,-2.6923
-5.1572,-3.0476,-4.5528,8.3495,-2.6144,-11.317,-3.8647,-1.3527,-1.3592,8.3495,-2.6144,1.3201,-6.3191,-1.9683,-7.4921,-5.7971,-5.7971,-3.9744,-5.6508,-2.6144,-2.6923
0.50314,-5.5873,2.6016,10.291,3.268,1.6911,1.9324,12.818,1.2298,10.291,3.268,9.901,-2.5276,-0.06349,-3.0476,-7.7295,-2.5765,-3.9744,-5.6508,-1.3072,-1.4103
-11.447,-6.2222,0.0,1.877,-0.65359,8.8455,2.5765,-5.8615,-6.5372,1.877,-0.65359,6.6007,-3.1596,-0.06349,-6.2222,-7.0853,-2.5765,-9.7436,-9.4603,-6.5359,-2.6923
-3.8994,-0.50794,2.6016,-9.1262,3.9216,-1.561,7.7295,-8.438,1.877,-9.1262,3.9216,5.2805,0.63191,3.1111,-1.1429,-4.5089,0.64412,-7.8205,-8.1905,-4.5752,-0.12821
7.4214,11.556,9.1057,12.233,9.8039,8.8455,30.917999,-0.70853,-14.951,12.233,9.8039,13.201,7.5829,9.4603,7.746,3.2206,5.153,-3.3333,0.06349,0.65359,5.641
1.761,-3.0476,1.9512,11.586,15.033,-4.813,5.153,-0.06441,10.291,11.586,15.033,9.901,6.951,8.1905,4.5714,-1.2882,1.2882,-7.1795,3.2381,1.3072,6.2821
3.6478,-3.6825,-3.9024,5.7605,10.458,5.5935,0.0,7.6651,17.410999,5.7605,10.458,1.9802,6.3191,5.0159,5.2063,-3.2206,-1.2882,-3.3333,0.06349,4.5752,1.7949
9.3082,-3.6825,-1.9512,17.410999,12.418,15.35,5.7971,14.106,5.7605,17.410999,12.418,3.9604,0.0,-1.9683,4.5714,-7.0853,-3.2206,0.51282,0.06349,3.9216,-2.0513
-11.447,-14.476,-16.26,-3.301,-3.9216,-12.618,-15.459,1.2238,2.5243,-3.301,-3.9216,-15.182,-12.006,-12.762,-9.3968,-17.391001,-16.747,-3.9744,-6.9206,-7.8431,-11.667
-17.107,-13.841,-18.862,-11.715,-8.4967,-17.820999,-11.594,-6.5056,-5.2427,-11.715,-8.4967,-19.802,-18.325001,-17.841,-18.285999,-19.968,-21.9,-5.2564,-8.8254,-13.072,-14.231
-11.447,-13.206,-16.910999,-11.068,-5.2288,3.6423,-14.171,-7.7939,-1.3592,-11.068,-5.2288,-15.842,-19.589001,-18.476,-19.556,-21.256001,-23.833,-3.3333,-5.6508,-12.418,-13.59
-15.849,-13.841,-24.065001,1.877,-1.3072,-10.667,-5.7971,8.9533,-0.71197,1.877,-1.3072,-14.521,-19.589001,-19.746,-22.094999,-23.188,-25.764999,0.51282,-6.2857,-8.4967,-14.231
-7.673,-16.381001,-20.813,8.3495,1.3072,-8.065,1.9324,3.8003,1.2298,8.3495,1.3072,-10.561,-18.957001,-19.746,-19.556,-24.476999,-22.544001,3.7179,-10.73,-6.5359,-14.872
-17.107,-27.809999,-19.511999,1.2298,-3.268,-9.3659,-24.476999,-1.3527,1.877,1.2298,-3.268,-15.182,-20.853001,-21.016001,-24.0,-26.409,-23.188,-0.76923,-11.365,-11.111,-16.795
-13.333,-13.841,-7.8049,5.1133,-3.9216,-8.7154,-14.815,2.5121,-3.9482,5.1133,-3.9216,-9.2409,-17.694,-15.937,-18.921,-18.035,-14.815,3.7179,-6.9206,-9.8039,-12.308
0.50314,-3.0476,1.3008,-5.89,-1.3072,-2.2114,-3.2206,-5.2174,3.1715,-5.89,-1.3072,-5.9406,-7.5829,-7.6825,-4.9524,-9.0177,-4.5089,-5.8974,0.06349,-3.9216,-5.2564
8.6792,-1.7778,2.6016,-2.0065,-0.65359,8.1951,-3.2206,-5.2174,5.1133,-2.0065,-0.65359,-3.3003,0.63191,-3.873,7.1111,-4.5089,2.5765,8.8462,0.06349,3.268,-2.0513
9.9371,-1.7778,2.6016,-2.6537,-1.3072,4.2927,-4.5089,-0.70853,1.2298,-2.6537,-1.3072,-3.3003,5.6872,1.2063,14.095,-1.2882,5.7971,5.641,-1.8413,6.5359,-1.4103
14.969,5.8413,3.9024,-0.71197,0.65359,-19.771999,-0.64412,-3.9291,11.586,-0.71197,0.65359,3.3003,1.2638,-0.69841,11.556,0.0,3.8647,2.4359,0.69841,2.6144,0.51282
6.7925,1.3968,1.3008,5.1133,-2.6144,21.202999,8.3736,9.5974,-14.304,5.1133,-2.6144,0.0,0.63191,-3.2381,13.46,-1.9324,3.2206,11.41,-0.57143,1.9608,-2.0513
13.711,-12.571,4.5528,-1.3592,1.9608,11.447,-8.3736,-1.9968,1.877,-1.3592,1.9608,1.3201,1.8957,-3.2381,17.27,-5.153,5.153,7.5641,1.9683,3.9216,-3.3333
18.113001,-7.4921,6.5041,4.466,-3.9216,19.252001,-9.0177,14.106,2.5243,4.466,-3.9216,3.3003,-0.63191,-7.0476,17.27,-6.4412,4.5089,2.4359,-4.381,3.9216,-8.4615
16.226,-1.1429,7.1545,6.4078,0.0,7.5447,6.4412,-1.9968,-2.6537,6.4078,0.0,5.2805,1.8957,-4.5079,16.0,-3.8647,5.7971,6.9231,-4.381,5.2288,-3.9744
13.711,9.6508,3.9024,-0.06472,0.0,6.8943,13.527,-4.5733,1.877,-0.06472,0.0,7.9208,3.1596,-3.2381,13.46,-1.9324,2.5765,6.2821,-6.2857,7.1895,-3.9744
13.082,3.3016,10.407,14.175,14.379,18.601999,14.815,23.768,6.4078,14.175,14.379,18.482,6.3191,3.746,14.095,2.5765,6.4412,13.974,8.3175,8.4967,3.0769
15.597,6.4762,16.910999,5.7605,13.072,11.447,9.6618,8.9533,21.941999,5.7605,13.072,19.802,6.951,4.381,15.365,7.0853,10.306,3.0769,8.3175,7.1895,2.4359
13.082,14.73,18.211,5.1133,9.8039,19.902,16.747,1.2238,10.939,5.1133,9.8039,17.822001,3.7915,3.1111,11.556,9.0177,10.95,-0.12821,1.3333,5.2288,1.7949
13.082,20.444,25.365999,11.586,14.379,4.9431,17.391001,9.5974,12.88,11.586,14.379,23.101999,8.8468,8.8254,16.0,17.391001,18.035,4.359,7.6825,7.8431,6.2821
13.711,14.73,19.511999,7.7023,9.8039,22.504,8.3736,-3.9291,6.4078,7.7023,9.8039,12.541,6.3191,7.5556,11.556,16.103001,15.459,3.7179,2.6032,3.268,3.7179
10.566,27.429001,22.114,1.877,16.34,29.007999,18.68,0.57971,0.58252,1.877,16.34,19.802,8.2148,10.095,10.921,21.256001,18.68,-4.6154,7.6825,5.8824,8.8462
6.7925,13.46,17.561001,16.764,13.725,-2.8618,9.6618,8.3092,14.175,16.764,13.725,13.861,9.4787,9.4603,10.286,16.103001,14.815,-0.12821,6.4127,7.8431,5.641
3.6478,8.381,8.4553,7.7023,9.1503,14.699,5.7971,1.868,4.466,7.7023,9.1503,5.9406,4.4234,5.0159,3.9365,8.3736,7.0853,0.51282,1.9683,-1.9608,1.7949
1.1321,7.746,4.5528,12.233,13.072,0.39024,4.5089,7.6651,12.88,12.233,13.072,7.9208,4.4234,7.5556,2.0317,8.3736,4.5089,-3.9744,7.0476,0.0,5.641
3.0189,16.635,7.8049,18.705999,16.34,16.0,32.849998,9.5974,-10.421,18.705999,16.34,14.521,2.5276,1.8413,1.3968,4.5089,2.5765,-2.0513,3.873,-0.65359,1.1538
2.3899,-0.50794,1.9512,3.1715,12.418,11.447,5.7971,-3.9291,12.233,3.1715,12.418,6.6007,-1.2638,-1.9683,-3.6825,-4.5089,-4.5089,-5.2564,3.2381,-4.5752,-2.0513
-15.22,0.12698,-6.5041,1.2298,7.8431,-4.813,6.4412,-1.3527,4.466,1.2298,7.8431,-1.3201,-3.1596,-5.1429,-10.667,-8.3736,-10.95,3.7179,0.69841,-4.5752,-3.9744
-8.3019,-1.1429,-9.7561,3.1715,0.65359,9.4959,1.2882,-7.1498,-0.06472,3.1715,0.65359,-6.6007,-0.63191,-4.5079,-8.127,-7.7295,-12.238,-2.6923,2.6032,-1.9608,-3.3333
-10.818,-4.3175,-13.659,3.8188,5.8824,-16.52,-1.9324,-1.3527,6.4078,3.8188,5.8824,-9.2409,-1.2638,-3.873,-12.571,-7.0853,-14.171,-3.9744,1.9683,0.0,-2.6923
-16.478001,-0.50794,-13.659,5.1133,2.6144,-15.87,1.9324,3.1562,5.1133,5.1133,2.6144,-6.6007,-3.1596,-3.873,-15.111,-5.153,-14.171,1.1538,0.69841,-1.9608,-3.3333
-10.818,3.9365,-4.5528,6.4078,12.418,12.098,7.0853,-2.6409,10.939,6.4078,12.418,-1.3201,-4.4234,-3.873,-13.206,-0.64412,-9.0177,-5.8974,4.5079,-7.1895,-0.12821
-8.3019,12.825,-1.3008,-4.5955,2.6144,-12.618,3.8647,-0.70853,-8.479,-4.5955,2.6144,-3.3003,-5.0553,-3.873,-10.667,3.8647,-5.153,-2.6923,-2.4762,-5.8824,-3.3333
-10.189,5.8413,-1.3008,1.2298,0.65359,-5.4634,9.6618,7.0209,-22.070999,1.2298,0.65359,-3.3003,-5.0553,-3.873,-9.3968,2.5765,-5.7971,-5.2564,-0.57143,-4.5752,-2.0513
-4.5283,-7.4921,-5.8537,11.586,0.0,-10.667,-15.459,-0.70853,3.1715,11.586,0.0,-5.2805,-6.951,-5.1429,-7.4921,-1.9324,-8.3736,-0.76923,0.06349,-8.4967,-3.3333
3.6478,-7.4921,-8.4553,-3.9482,-3.9216,-3.5122,-17.391001,-0.06441,-8.479,-3.9482,-3.9216,-7.9208,-5.0553,-4.5079,-2.4127,-1.2882,-5.7971,0.51282,-3.746,-5.2288,-2.6923
10.566,-2.4127,0.65041,-0.71197,-0.65359,8.8455,-3.2206,5.7327,-2.6537,-0.71197,-0.65359,0.66007,1.2638,0.57143,6.4762,4.5089,3.8647,7.5641,0.06349,0.65359,1.1538
10.566,1.3968,6.5041,-2.0065,-1.3072,7.5447,-2.5765,-5.2174,-2.6537,-2.0065,-1.3072,0.66007,2.5276,3.746,9.6508,8.3736,9.6618,-5.8974,2.6032,0.65359,3.0769
5.5346,2.6667,11.707,-11.715,-1.9608,6.8943,2.5765,-7.1498,5.1133,-11.715,-1.9608,4.6205,1.8957,2.4762,7.746,7.0853,9.0177,0.51282,1.3333,0.0,3.0769
14.969,10.286,22.764,1.877,9.1503,13.398,10.306,0.57971,5.1133,1.877,9.1503,21.122,6.951,5.6508,14.73,7.7295,13.527,3.7179,0.69841,5.2288,3.7179
11.824,10.286,17.561001,1.2298,8.4967,19.252001,14.815,-7.1498,1.877,1.2298,8.4967,19.142,8.8468,4.381,14.73,5.7971,12.882,-5.2564,0.06349,7.1895,2.4359
3.6478,19.809999,9.7561,-5.89,1.3072,-1.561,28.986,-1.3527,-20.777,-5.89,1.3072,11.221,3.1596,1.8413,7.1111,5.153,7.7295,-6.5385,-1.8413,0.0,1.1538
-5.1572,-4.9524,-2.6016,1.877,2.6144,-11.317,-6.4412,-1.3527,3.8188,1.877,2.6144,0.66007,-1.8957,-3.873,-3.6825,-3.8647,-1.9324,0.51282,-3.746,-4.5752,-4.6154
-3.8994,-1.7778,-3.9024,7.7023,0.0,-0.26016,-9.6618,10.242,1.877,7.7023,0.0,-3.3003,-3.7915,-4.5079,-5.5873,-1.2882,-1.9324,-3.3333,-3.746,-5.8824,-7.8205
1.761,1.3968,3.252,1.2298,5.8824,2.3415,3.8647,3.8003,-8.479,1.2298,5.8824,5.2805,-5.0553,-6.4127,-6.8571,-1.2882,-0.64412,12.051,-6.9206,-5.8824,-6.5385
-4.5283,-6.8571,-3.9024,-2.0065,-5.8824,6.2439,-17.391001,-0.70853,0.58252,-2.0065,-5.8824,-3.9604,-10.111,-12.762,-12.571,-7.0853,-7.7295,8.2051,-10.095,-7.8431,-12.949
-3.2704,-2.4127,-7.1545,-2.6537,0.0,-8.065,-1.2882,6.3768,-3.9482,-2.6537,0.0,-1.9802,-12.006,-13.397,-14.476,-6.4412,-9.0177,5.641,-3.1111,-9.8039,-9.7436
-5.7862,-1.7778,-12.358,3.1715,-0.65359,-15.22,-6.4412,10.242,12.233,3.1715,-0.65359,-5.2805,-12.006,-10.857,-13.206,-3.2206,-9.0177,-1.4103,0.06349,-7.1895,-6.5385
0.50314,4.5714,-4.5528,14.822,5.8824,6.2439,5.153,13.462,-7.8317,14.822,5.8824,1.9802,-7.5829,-6.4127,-4.9524,1.2882,-2.5765,4.359,4.5079,-1.3072,-3.3333
8.6792,-6.8571,-3.252,5.7605,2.6144,14.699,-9.0177,14.75,17.410999,5.7605,2.6144,0.66007,-7.5829,-7.6825,0.12698,-3.8647,-2.5765,8.8462,1.3333,0.65359,-5.2564
-0.12579,-6.8571,-9.7561,-14.951,-5.2288,13.398,-5.153,-13.591,-2.0065,-14.951,-5.2288,-7.2607,-13.27,-11.492,-5.5873,-10.306,-9.0177,4.359,-6.9206,-5.2288,-8.4615
-4.5283,-11.302,-9.7561,-5.2427,-4.5752,-6.1138,-11.594,-3.9291,-4.5955,-5.2427,-4.5752,-8.5809,-10.111,-10.222,-3.0476,-9.0177,-6.4412,3.7179,-3.1111,-2.6144,-7.8205
-6.4151,-9.3968,-7.1545,4.466,-5.8824,-11.317,-7.7295,7.6651,-0.71197,4.466,-5.8824,-10.561,-7.5829,-6.4127,-0.50794,-5.153,-1.9324,4.359,-3.746,1.3072,-3.9744
-3.8994,-7.4921,-3.252,3.1715,-3.9216,-10.667,-7.7295,5.0886,-10.421,3.1715,-3.9216,-7.2607,-5.0553,-3.873,2.0317,-3.8647,0.64412,5.641,-4.381,0.65359,-2.0513
1.1321,0.7619,6.5041,-2.6537,1.9608,2.3415,5.153,-7.1498,3.1715,-2.6537,1.9608,2.6403,0.0,-0.06349,7.746,1.2882,7.7295,0.51282,-3.1111,5.2288,0.51282
8.6792,0.12698,11.057,-20.129,0.65359,-4.1626,2.5765,-11.014,3.1715,-20.129,0.65359,7.9208,1.2638,2.4762,8.381,3.2206,10.306,12.051,3.2381,3.9216,4.359
-2.0126,10.286,8.4553,8.3495,1.9608,8.1951,10.306,-3.9291,1.2298,8.3495,1.9608,7.9208,1.2638,5.0159,2.6667,8.3736,7.7295,-3.3333,9.5873,1.9608,8.8462
6.7925,7.746,9.1057,14.822,3.268,4.2927,10.306,-3.9291,5.7605,14.822,3.268,7.2607,3.7915,6.9206,4.5714,9.0177,7.7295,-5.2564,10.857,4.5752,10.769
-2.0126,4.5714,5.2033,-3.9482,-0.65359,-4.1626,1.2882,-5.2174,2.5243,-3.9482,-0.65359,3.9604,2.5276,5.0159,2.0317,5.7971,5.153,1.1538,9.5873,0.65359,7.5641
1.1321,3.9365,6.5041,1.2298,5.2288,2.3415,9.6618,-1.3527,1.877,1.2298,5.2288,7.2607,2.5276,5.6508,3.3016,5.7971,7.7295,-3.9744,7.0476,0.65359,8.2051
16.226,6.4762,12.358,-10.421,1.9608,8.8455,3.8647,11.53,4.466,-10.421,1.9608,8.5809,5.0553,8.1905,8.381,10.306,12.238,-3.3333,5.7778,-0.65359,8.2051
-11.447,6.4762,2.6016,-6.5372,0.65359,-11.317,3.2206,-6.5056,-3.301,-6.5372,0.65359,-1.9802,0.0,2.4762,-4.9524,7.0853,4.5089,-3.3333,1.9683,-6.5359,3.7179
-15.22,-1.1429,-4.5528,1.877,-3.9216,-15.22,-10.306,-6.5056,1.877,1.877,-3.9216,-9.901,-6.3191,-5.1429,-10.667,2.5765,-1.2882,-11.026,-2.4762,-11.111,-4.6154
-10.189,-1.1429,-3.9024,5.7605,1.3072,-3.5122,1.2882,-2.6409,10.291,5.7605,1.3072,-1.3201,-9.4787,-10.857,-13.206,-2.5765,-5.153,-10.385,-3.746,-11.111,-11.026
-24.653999,-4.9524,-15.61,-7.8317,-6.5359,-7.4146,2.5765,-7.1498,-22.718,-7.8317,-6.5359,-5.2805,-21.485001,-24.825001,-25.27,-15.459,-19.323999,-9.1026,-18.983999,-18.954,-25.768999
-14.591,-15.111,-14.309,-15.599,-4.5752,-5.4634,-9.6618,-0.70853,-8.479,-15.599,-4.5752,-3.3003,-20.221001,-25.459999,-20.825001,-18.68,-19.323999,-3.3333,-18.349001,-16.34,-25.128
-5.7862,-2.4127,-8.4553,-14.304,-3.9216,-9.3659,2.5765,-25.184999,-7.8317,-14.304,-3.9216,-1.9802,-15.798,-17.841,-15.746,-13.527,-13.527,-11.026,-11.365,-11.111,-16.795
-13.962,-1.1429,-5.2033,18.058001,7.1895,-3.5122,5.153,8.3092,-2.6537,18.058001,7.1895,-1.3201,-11.374,-7.6825,-14.476,-6.4412,-9.0177,-1.4103,-1.2063,-7.8431,-5.8974
-13.333,0.12698,0.0,20.0,15.033,6.2439,5.153,7.0209,17.410999,20.0,15.033,2.6403,-3.7915,1.2063,-10.032,0.0,-2.5765,-0.76923,10.857,-4.5752,5.0
-10.189,9.6508,0.0,6.4078,9.1503,-4.813,13.527,-1.3527,10.939,6.4078,9.1503,1.3201,-2.5276,3.746,-8.127,0.0,-3.2206,-2.6923,7.6825,-1.3072,8.2051
-2.6415,-3.6825,-3.9024,2.5243,7.1895,2.9919,-8.3736,4.4444,14.175,2.5243,7.1895,-2.6403,2.5276,7.5556,-3.0476,0.64412,-2.5765,7.5641,14.032,2.6144,11.41
-5.7862,-1.1429,-6.5041,-20.777,-1.9608,-4.1626,-3.8647,-29.049999,-2.0065,-20.777,-1.9608,-9.2409,4.4234,10.095,-1.7778,3.8647,0.0,-3.9744,12.127,1.9608,12.692
-5.7862,-1.7778,-5.2033,-14.951,-8.4967,-1.561,-7.0853,-11.014,0.58252,-14.951,-8.4967,-13.201,6.951,10.095,2.0317,5.7971,3.8647,-7.8205,8.3175,3.9216,12.051
3.6478,2.0317,1.3008,-11.068,-7.1895,-6.1138,-5.153,-5.2174,5.7605,-11.068,-7.1895,-11.881,15.798,17.079,11.556,12.238,12.238,-2.0513,12.127,10.458,16.538
6.1635,8.381,5.8537,3.1715,-2.6144,-13.268,10.95,16.039,-9.1262,3.1715,-2.6144,-3.9604,18.325001,19.618999,14.73,14.815,15.459,8.8462,14.032,13.725,20.385
-2.6415,-3.0476,-2.6016,-11.715,-11.765,-21.073,-11.594,-12.947,3.1715,-11.715,-11.765,-15.182,13.902,15.175,10.286,9.6618,9.6618,-5.8974,10.222,7.1895,15.897
4.2767,3.3016,-0.65041,-20.129,-7.8431,-17.820999,-8.3736,-20.676001,2.5243,-20.129,-7.8431,-11.881,16.43,16.444,14.73,14.171,13.527,3.7179,10.857,13.725,17.179001
4.9057,10.921,3.252,-11.715,-12.418,-7.4146,-3.2206,-6.5056,0.58252,-11.715,-12.418,-10.561,20.853001,18.983999,18.540001,20.612,18.035,1.1538,11.492,15.686,18.462
6.7925,17.905001,11.057,-11.068,-3.9216,5.5935,2.5765,-12.947,2.5243,-11.068,-3.9216,-3.3003,22.749001,20.889,19.174999,26.409,23.833,-14.231,12.127,13.072,20.385
1.1321,10.921,7.8049,-17.540001,-7.8431,-14.569,-2.5765,-9.0821,-0.06472,-17.540001,-7.8431,-3.9604,20.221001,16.444,16.0,19.968,18.68,-1.4103,9.5873,12.418,14.615
4.9057,28.063,16.910999,-11.715,1.9608,-11.317,21.9,-3.9291,-9.7735,-11.715,1.9608,7.2607,24.645,19.618999,19.809999,25.121,24.476999,3.0769,5.7778,13.072,15.897
5.5346,14.73,16.26,-18.834999,-2.6144,-24.976,0.0,-16.167,15.469,-18.834999,-2.6144,5.9406,20.221001,15.81,17.27,21.9,23.188,-0.12821,7.0476,8.4967,12.051
13.711,6.4762,22.114,5.1133,4.5752,12.748,-6.4412,-16.812,8.3495,5.1133,4.5752,13.201,18.957001,16.444,17.905001,21.256001,24.476999,1.1538,9.5873,11.765,15.256
12.453,22.349001,27.966999,18.705999,11.111,12.098,14.171,12.174,1.877,18.705999,11.111,23.761999,18.957001,17.714001,16.635,25.121,26.409,-9.1026,8.3175,15.033,16.538
1.761,16.635,16.910999,8.9968,9.8039,-4.1626,10.95,3.1562,7.7023,8.9968,9.8039,23.101999,12.638,15.175,7.746,18.68,16.747,-3.3333,8.9524,9.1503,14.615
5.5346,15.365,16.26,18.058001,9.8039,21.854,10.95,5.7327,0.58252,18.058001,9.8039,21.122,12.638,13.27,9.0159,17.391001,16.747,3.7179,7.0476,7.1895,15.256
14.34,22.349001,21.462999,7.7023,8.4967,34.210999,6.4412,5.0886,-1.3592,7.7023,8.4967,23.761999,13.902,17.079,14.73,18.035,21.256001,-0.76923,1.9683,8.4967,13.333
8.0503,7.746,14.959,9.644,8.4967,33.561001,7.7295,-5.8615,-3.9482,9.644,8.4967,20.462,12.638,15.175,12.19,12.238,16.747,0.51282,1.3333,9.8039,12.051
23.145,13.46,21.462999,22.589001,16.34,-6.1138,18.035,17.971001,17.410999,22.589001,16.34,21.782,15.166,17.079,20.444,14.815,21.256001,5.0,6.4127,15.033,13.333
13.711,2.6667,13.659,28.414,16.993,-6.1138,-5.7971,12.174,14.175,28.414,16.993,13.861,8.8468,10.095,13.46,5.7971,12.882,-0.12821,1.3333,9.1503,7.5641
8.0503,-7.4921,4.5528,16.117001,12.418,16.65,-4.5089,4.4444,1.2298,16.117001,12.418,9.2409,7.5829,6.9206,8.381,-0.64412,6.4412,3.0769,-1.8413,5.8824,4.359
16.855,-5.5873,0.65041,14.822,15.033,21.854,7.7295,16.683001,7.055,14.822,15.033,9.901,9.4787,5.6508,10.921,-3.2206,5.153,9.4872,-4.381,7.8431,1.7949
6.7925,-12.571,-9.1057,7.055,5.8824,25.106001,-5.153,-1.9968,4.466,7.055,5.8824,1.3201,5.6872,-0.06349,6.4762,-9.0177,-1.9324,5.0,-11.365,4.5752,-4.6154
16.855,-7.4921,0.0,7.055,13.725,1.0407,-0.64412,7.0209,1.877,7.055,13.725,1.9802,10.111,2.4762,12.19,-3.8647,4.5089,10.128,-5.0159,11.765,-0.12821
5.5346,-9.3968,-4.5528,8.9968,0.65359,-13.268,-16.103001,7.6651,-1.3592,8.9968,0.65359,-6.6007,6.3191,-0.69841,6.4762,-4.5089,-0.64412,-5.2564,-8.8254,7.1895,-5.2564
-3.8994,-4.9524,-6.5041,5.1133,0.0,-22.374001,-11.594,4.4444,-7.8317,5.1133,0.0,-10.561,1.8957,-3.2381,-2.4127,-3.2206,-3.8647,6.2821,-7.5556,2.6144,-3.9744
-4.5283,-3.6825,-10.407,-5.89,2.6144,-20.423,-7.0853,-7.1498,5.1133,-5.89,2.6144,-14.521,-3.1596,-5.7778,-8.127,-3.2206,-6.4412,-0.12821,-6.2857,0.65359,-5.8974
-3.8994,1.3968,-7.1545,-3.301,4.5752,11.447,16.747,-1.3527,-18.834999,-3.301,4.5752,-5.9406,-5.6872,-7.6825,-11.302,-3.2206,-7.7295,3.7179,-3.746,-2.6144,-5.2564
-2.6415,-3.6825,-3.252,-13.657,3.9216,1.0407,-1.9324,-9.7262,8.9968,-13.657,3.9216,-4.6205,-3.1596,-7.0476,-9.3968,-1.9324,-5.7971,-6.5385,0.69841,-1.9608,-7.1795
1.761,2.0317,1.3008,8.3495,3.268,10.797,-7.7295,1.868,4.466,8.3495,3.268,-3.3003,-1.8957,-3.873,-5.5873,1.9324,-1.9324,-9.1026,-3.1111,0.0,-7.8205
-10.189,0.7619,-1.3008,-5.2427,-4.5752,-6.7642,0.0,-0.70853,-9.7735,-5.2427,-4.5752,-7.9208,-5.6872,-6.4127,-10.667,-0.64412,-3.8647,5.0,-3.1111,-4.5752,-8.4615
-8.9308,6.4762,-3.252,-11.715,-4.5752,-15.87,1.2882,-5.2174,-5.2427,-11.715,-4.5752,-9.2409,-6.3191,-7.0476,-8.127,0.64412,-2.5765,-0.76923,-6.9206,-4.5752,-10.385
1.761,-4.9524,-1.9512,-3.9482,-5.2288,-4.813,-3.2206,1.868,1.877,-3.9482,-5.2288,-5.9406,-3.7915,-5.7778,-1.7778,-4.5089,-2.5765,3.0769,-3.1111,-1.3072,-10.385
10.566,-9.3968,0.65041,-13.657,-7.1895,-20.423,-8.3736,-12.303,14.175,-13.657,-7.1895,-5.9406,4.4234,-0.69841,8.381,-3.8647,1.9324,12.051,0.69841,7.8431,-7.1795
3.6478,9.6508,-1.3008,1.2298,-9.1503,12.098,17.391001,12.818,-39.547001,1.2298,-9.1503,-6.6007,3.1596,-0.06349,7.746,-1.2882,1.2882,-3.3333,-6.9206,5.2288,-6.5385
-3.8994,-11.302,-9.7561,-7.1845,-13.072,-1.561,-16.103001,5.0886,1.877,-7.1845,-13.072,-15.842,1.2638,-0.69841,2.6667,-6.4412,-3.8647,-0.76923,-5.0159,2.6144,-6.5385
1.761,-7.4921,-4.5528,-7.1845,-5.8824,-17.820999,-10.306,-3.9291,5.7605,-7.1845,-5.8824,-11.221,1.8957,-0.06349,5.2063,-4.5089,-0.64412,1.1538,-5.6508,5.8824,-3.9744
-5.7862,-6.2222,-7.8049,-7.8317,-9.8039,-5.4634,-3.8647,-2.6409,-1.3592,-7.8317,-9.8039,-9.2409,-1.8957,-4.5079,0.7619,-8.3736,-5.153,8.2051,-8.1905,2.6144,-9.1026
1.761,-11.937,-7.1545,-29.191,-5.8824,12.098,-19.968,-10.37,-3.301,-29.191,-5.8824,-7.2607,-1.8957,-6.4127,1.3968,-12.238,-6.4412,13.974,-6.9206,0.65359,-9.1026
-1.3836,-10.667,-11.707,-2.0065,-9.1503,-36.682999,-11.594,-11.014,-3.9482,-2.0065,-9.1503,-9.901,-1.8957,-3.873,-1.1429,-10.95,-9.0177,-4.6154,-8.8254,-3.268,-6.5385
-6.4151,-4.3175,-9.1057,12.88,0.65359,-17.171,1.9324,5.0886,2.5243,12.88,0.65359,-5.9406,1.8957,3.1111,-1.7778,-6.4412,-5.7971,-6.5385,-1.8413,2.6144,2.4359
-5.7862,-8.7619,-11.057,-2.0065,-5.2288,5.5935,-7.7295,1.868,-1.3592,-2.0065,-5.2288,-5.2805,-0.63191,2.4762,-6.2222,-9.0177,-9.6618,-2.6923,-2.4762,-0.65359,2.4359
-12.075,-13.206,-16.26,-0.06472,-3.268,-17.171,-9.0177,12.818,-3.9482,-0.06472,-3.268,-6.6007,-5.0553,-0.69841,-16.381001,-15.459,-18.68,0.51282,-8.1905,-4.5752,-0.12821
-13.333,-6.2222,-13.659,-4.5955,-5.2288,12.748,9.0177,-5.8615,-28.544001,-4.5955,-5.2288,-0.66007,-7.5829,-1.9683,-22.094999,-14.815,-20.612,0.51282,-10.095,-9.1503,-0.76923
-18.993999,2.6667,-9.7561,-12.362,-4.5752,9.4959,14.815,-8.438,0.58252,-12.362,-4.5752,2.6403,-8.2148,-0.69841,-25.905001,-12.238,-18.68,1.1538,-5.0159,-10.458,1.7949
-20.252001,-23.365,-14.959,-7.1845,-7.1895,-36.033001,-22.544001,-0.70853,-1.3592,-7.1845,-7.1895,-9.901,-11.374,-3.873,-29.079,-21.9,-24.476999,-0.12821,-2.4762,-11.111,-2.0513
-13.333,-21.459999,-11.707,8.3495,-6.5359,-8.065,-10.95,3.1562,-11.715,8.3495,-6.5359,0.66007,-10.742,-2.6032,-23.365,-20.612,-22.544001,-4.6154,-3.746,-8.4967,0.51282
-8.9308,-11.302,-9.7561,6.4078,-6.5359,16.0,-1.2882,3.1562,-11.068,6.4078,-6.5359,2.6403,-11.374,-8.3175,-20.190001,-21.256001,-22.544001,1.1538,-9.4603,-6.5359,-7.8205
4.9057,-13.841,-5.2033,-9.1262,-5.2288,12.098,-2.5765,-5.2174,-4.5955,-9.1262,-5.2288,6.6007,-9.4787,-8.3175,-9.3968,-16.103001,-16.747,10.769,-4.381,-1.9608,-8.4615
3.0189,-3.0476,0.65041,0.58252,0.0,7.5447,5.7971,0.57971,5.1133,0.58252,0.0,9.2409,-6.951,-2.6032,-2.4127,-8.3736,-9.6618,12.692,1.3333,-0.65359,-0.12821
0.50314,2.0317,3.252,10.291,2.6144,6.8943,6.4412,8.3092,6.4078,10.291,2.6144,11.881,-5.6872,-0.06349,3.3016,-1.9324,-3.2206,5.641,3.873,0.0,1.1538
13.711,-0.50794,3.9024,12.88,7.1895,6.2439,6.4412,5.7327,8.9968,12.88,7.1895,12.541,0.0,0.57143,12.19,0.0,1.2882,8.8462,5.7778,7.1895,1.7949
9.9371,5.8413,-0.65041,-9.1262,-2.6144,8.1951,15.459,-0.70853,-15.599,-9.1262,-2.6144,6.6007,-1.2638,-2.6032,13.46,-1.2882,-0.64412,15.897,-3.1111,6.5359,-3.3333
9.3082,-5.5873,-3.252,10.291,-1.3072,1.0407,-5.7971,1.2238,0.58252,10.291,-1.3072,-1.9802,-1.2638,-2.6032,14.73,-0.64412,0.0,9.4872,0.06349,6.5359,-2.0513
24.403,-4.3175,0.0,-3.301,-7.8431,7.5447,-14.815,4.4444,-3.301,-3.301,-7.8431,-9.901,3.1596,-0.69841,21.714001,3.2206,5.153,8.2051,-1.8413,7.8431,-3.3333
9.9371,2.6667,0.0,0.58252,-2.6144,4.2927,-1.2882,5.0886,0.58252,0.58252,-2.6144,-7.9208,5.0553,1.8413,18.540001,6.4412,6.4412,12.692,1.3333,9.8039,1.7949
9.9371,-1.7778,-5.8537,-2.0065,-5.8824,-6.7642,-13.527,2.5121,3.8188,-2.0065,-5.8824,-13.861,3.1596,-1.9683,15.365,2.5765,2.5765,3.0769,-3.746,6.5359,-4.6154
9.3082,-4.3175,-6.5041,3.1715,3.9216,-25.625999,-16.103001,6.3768,3.8188,3.1715,3.9216,-7.2607,1.2638,-3.2381,10.286,-0.64412,-0.64412,8.2051,0.69841,6.5359,-5.2564
-2.0126,-8.127,-9.1057,1.877,1.3072,4.9431,-10.306,5.7327,6.4078,1.877,1.3072,-9.901,-3.1596,-5.1429,2.6667,-3.2206,-5.7971,8.2051,2.6032,1.3072,-6.5385
-4.5283,-0.50794,-5.8537,-2.0065,1.9608,1.6911,2.5765,2.5121,-1.3592,-2.0065,1.9608,-8.5809,-6.3191,-5.1429,-3.0476,-2.5765,-6.4412,-0.12821,5.7778,0.0,-3.9744
-5.1572,10.921,-4.5528,5.1133,1.3072,-17.820999,16.103001,-1.9968,-16.893,5.1133,1.3072,-6.6007,-9.4787,-7.6825,-8.127,-2.5765,-8.3736,8.8462,7.0476,-0.65359,-4.6154
-15.22,-10.667,-16.910999,-0.06472,-1.9608,-0.91057,-5.7971,3.1562,8.9968,-0.06472,-1.9608,-13.861,-17.062,-10.222,-21.459999,-12.882,-19.323999,6.9231,5.7778,-9.8039,-3.9744
-25.283001,-5.5873,-20.163,-12.362,-5.2288,-15.87,-12.238,-2.6409,4.466,-12.362,-5.2288,-15.842,-20.221001,-13.397,-29.079,-14.815,-24.476999,-6.5385,2.6032,-13.725,-9.7436
-26.541,-7.4921,-24.065001,-0.71197,-1.9608,-12.618,-3.8647,7.6651,-3.301,-0.71197,-1.9608,-13.861,-22.117001,-13.397,-30.983999,-15.459,-25.121,-4.6154,2.6032,-15.033,-9.1026
-25.283001,-6.2222,-22.764,14.175,9.1503,-13.919,1.2882,11.53,3.8188,14.175,9.1503,-9.2409,-22.749001,-12.127,-29.714001,-15.459,-23.833,-3.9744,7.0476,-15.033,-4.6154
-18.365,-2.4127,-8.4553,-0.71197,15.686,-2.2114,9.0177,0.57971,15.469,-0.71197,15.686,0.66007,-15.798,-8.3175,-21.459999,-13.527,-16.103001,-2.0513,8.3175,-11.765,-2.6923
-7.044,5.2063,0.65041,16.764,20.915001,16.65,27.052999,15.395,5.7605,16.764,20.915001,11.881,-11.374,-6.4127,-13.206,-11.594,-10.306,-0.12821,8.9524,-9.8039,-2.0513
0.50314,-4.3175,2.6016,7.055,20.915001,0.39024,9.0177,-8.438,21.941999,7.055,20.915001,10.561,-7.5829,-5.7778,-3.6825,-9.6618,-5.153,3.0769,7.6825,-7.8431,-1.4103
6.7925,5.2063,12.358,5.1133,18.301001,-7.4146,9.6618,1.2238,9.644,5.1133,18.301001,15.182,0.0,0.57143,7.746,1.9324,7.0853,2.4359,6.4127,1.3072,1.7949
4.2767,12.19,14.959,21.294001,16.34,-1.561,11.594,14.75,12.88,21.294001,16.34,15.182,3.1596,3.1111,10.286,9.0177,12.882,-4.6154,7.0476,-1.3072,3.0769
3.0189,10.921,16.910999,16.117001,22.875999,23.805,16.103001,8.9533,12.88,16.117001,22.875999,20.462,5.0553,3.1111,10.286,10.306,14.171,-0.76923,8.9524,-1.9608,3.0769
3.0189,7.1111,13.008,8.9968,15.033,7.5447,8.3736,9.5974,14.175,8.9968,15.033,15.182,4.4234,1.2063,10.921,9.0177,12.882,-7.1795,4.5079,-1.3072,0.51282
5.5346,7.746,11.707,12.233,16.993,8.1951,7.0853,-0.06441,6.4078,12.233,16.993,13.861,7.5829,4.381,12.19,10.95,14.171,-3.3333,3.873,-1.9608,2.4359
4.2767,2.6667,9.7561,3.8188,9.1503,-0.26016,-4.5089,-14.235,1.2298,3.8188,9.1503,10.561,7.5829,3.746,11.556,9.0177,11.594,-11.667,0.69841,-5.2288,0.51282
11.824,10.921,15.61,-0.06472,11.111,12.098,9.6618,-16.812,4.466,-0.06472,11.111,16.502001,10.742,8.1905,14.095,14.171,14.815,-3.3333,5.1429,-1.9608,6.2821
6.1635,17.905001,13.659,20.0,10.458,0.39024,7.0853,3.1562,-3.9482,20.0,10.458,11.221,15.798,13.27,12.825,17.391001,14.815,-11.667,3.873,2.6144,10.769
4.9057,9.6508,11.707,19.353001,6.5359,13.398,2.5765,-3.285,-3.301,19.353001,6.5359,7.9208,11.374,11.365,7.746,16.747,12.238,-12.949,3.873,-0.65359,10.128
4.2767,4.5714,12.358,5.1133,4.5752,10.146,-0.64412,-9.0821,2.5243,5.1133,4.5752,5.2805,9.4787,8.8254,3.3016,14.815,10.95,-6.5385,7.0476,-1.9608,7.5641
3.0189,13.46,12.358,5.1133,4.5752,7.5447,5.153,-3.285,2.5243,5.1133,4.5752,3.9604,6.951,10.095,0.12698,16.747,10.95,-0.76923,7.0476,-1.9608,8.2051
0.50314,3.9365,3.252,0.58252,3.268,14.049,3.2206,-8.438,-1.3592,0.58252,3.268,2.6403,2.5276,3.746,-4.9524,5.153,1.2882,-4.6154,2.6032,-3.268,4.359
-2.0126,-3.6825,-5.8537,11.586,1.3072,12.098,-1.2882,15.395,-1.3592,11.586,1.3072,-3.3003,1.8957,-0.06349,-6.2222,-3.8647,-4.5089,1.7949,0.69841,1.3072,-2.0513
-7.044,12.19,-5.2033,1.877,-3.9216,-13.919,34.138,-1.3527,-46.019001,1.877,-3.9216,-5.9406,-1.8957,-4.5079,-8.127,-4.5089,-5.7971,6.2821,-5.0159,-1.3072,-3.3333
-1.3836,-19.556,-10.407,-4.5955,-6.5359,-7.4146,-16.103001,-4.5733,2.5243,-4.5955,-6.5359,-13.201,-1.2638,-5.1429,-4.3175,-14.171,-7.7295,-0.76923,-8.1905,-0.65359,-7.1795
-5.1572,-23.365,-12.358,-1.3592,-9.8039,8.8455,-26.409,10.886,2.5243,-1.3592,-9.8039,-13.201,-2.5276,-7.0476,-3.6825,-18.68,-10.306,2.4359,-10.095,3.268,-11.026
-10.818,-15.111,-16.26,-6.5372,-15.686,-7.4146,-11.594,-0.06441,-16.893,-6.5372,-15.686,-21.782,-0.63191,-4.5079,-1.1429,-15.459,-10.306,-5.8974,-10.095,5.2288,-9.1026
-5.1572,-30.349001,-24.715,-16.246,-18.301001,-28.228001,-30.274,-14.235,-18.188,-16.246,-18.301001,-31.023001,0.63191,-6.4127,0.12698,-19.323999,-12.238,3.7179,-13.905,4.5752,-11.026
-3.2704,-27.809999,-26.016001,-26.601999,-30.065001,4.2927,-33.493999,-19.388,-24.013,-26.601999,-30.065001,-31.683001,1.8957,-5.1429,0.7619,-18.035,-12.882,3.0769,-18.349001,4.5752,-11.026
3.6478,-20.825001,-14.959,-13.657,-22.222,-16.52,-27.697001,-9.0821,-17.540001,-13.657,-22.222,-26.403,5.6872,0.57143,6.4762,-12.238,-6.4412,6.2821,-10.095,9.1503,-2.0513
-6.4151,-19.556,-19.511999,-22.070999,-27.451,-37.984001,-27.052999,3.1562,-24.013,-22.070999,-27.451,-29.042999,0.63191,-5.7778,0.7619,-16.747,-13.527,1.7949,-15.175,5.2288,-8.4615
-5.7862,-6.8571,-13.008,-7.8317,-13.072,-17.171,3.2206,-7.7939,-22.718,-7.8317,-13.072,-15.182,3.7915,-3.873,2.6667,-9.0177,-7.7295,-1.4103,-9.4603,4.5752,-3.3333
-8.9308,-16.381001,-12.358,-11.715,-12.418,0.39024,-20.612,-8.438,5.1133,-11.715,-12.418,-12.541,-2.5276,-8.3175,-4.9524,-10.306,-10.306,5.0,-7.5556,-3.268,-7.1795
-0.75472,0.7619,-1.3008,-12.362,0.0,-4.1626,7.0853,-18.743999,7.7023,-12.362,0.0,2.6403,-8.2148,-14.032,-7.4921,-5.7971,-7.0853,-9.7436,-2.4762,-5.8824,-9.7436
-17.736,-3.6825,-5.2033,-8.479,-2.6144,6.8943,-3.8647,-8.438,-0.06472,-8.479,-2.6144,3.9604,-18.325001,-22.285999,-18.921,-9.6618,-14.171,-25.128,-10.095,-13.072,-16.795
-17.107,-3.6825,-8.4553,-7.8317,-5.2288,-13.268,-1.9324,-11.014,2.5243,-7.8317,-5.2288,-0.66007,-24.013,-24.825001,-21.459999,-10.306,-17.391001,-14.231,-10.095,-15.686,-18.077
-3.2704,10.286,3.9024,1.2298,5.8824,-20.423,18.68,-8.438,5.7605,1.2298,5.8824,9.901,-13.902,-14.032,-8.7619,2.5765,-3.8647,-6.5385,1.3333,-9.1503,-6.5385
-2.6415,14.73,11.707,-7.8317,11.765,6.2439,16.747,-2.6409,12.233,-7.8317,11.765,15.842,-6.3191,-5.1429,1.3968,10.95,7.7295,-7.8205,10.222,-6.5359,2.4359
4.9057,24.254,20.163,5.7605,16.34,14.049,24.476999,-11.659,18.705999,5.7605,16.34,19.802,1.2638,2.4762,10.286,19.968,18.68,-2.6923,15.937,-3.268,9.4872
12.453,28.698,26.016001,7.7023,19.608,9.4959,28.341,9.5974,23.236,7.7023,19.608,24.422001,7.5829,8.1905,17.905001,25.121,25.121,-4.6154,17.841,4.5752,13.333
15.597,25.524,27.316999,18.705999,24.183001,27.707001,32.849998,16.039,21.294001,18.705999,24.183001,30.363001,6.951,8.8254,16.0,22.544001,23.188,-0.12821,21.016001,1.3072,13.333
23.145,36.317001,32.52,19.353001,25.49,23.153999,48.308998,13.462,31.65,19.353001,25.49,35.644001,10.111,13.27,19.174999,25.764999,27.052999,5.641,21.016001,1.9608,16.538
11.824,26.794001,26.667,10.291,25.49,-4.1626,44.444,12.174,8.3495,10.291,25.49,30.363001,8.2148,10.095,14.095,19.323999,22.544001,2.4359,18.476,2.6144,12.692
18.742001,19.174999,24.715,6.4078,16.34,15.35,13.527,1.2238,22.589001,6.4078,16.34,27.063,14.534,12.635,19.809999,18.68,23.833,-1.4103,11.492,6.5359,9.4872
11.195,20.444,23.415001,14.175,20.261,32.910999,27.052999,10.886,25.177999,14.175,20.261,27.723,15.166,16.444,13.46,20.612,21.9,-0.12821,16.570999,5.2288,15.897
4.9057,18.540001,18.862,14.175,11.111,19.902,18.035,11.53,10.939,14.175,11.111,20.462,12.638,15.175,7.746,16.747,16.747,-2.0513,13.397,4.5752,13.333
8.0503,16.635,18.211,7.7023,7.8431,20.552999,13.527,1.2238,3.8188,7.7023,7.8431,20.462,10.742,13.905,5.2063,12.238,13.527,-0.12821,8.9524,4.5752,13.333
1.761,3.3016,7.1545,1.2298,-2.6144,16.65,0.64412,-8.438,-9.1262,1.2298,-2.6144,8.5809,5.6872,7.5556,-0.50794,0.0,1.9324,5.0,0.06349,1.3072,4.359
6.1635,5.2063,5.2033,-1.3592,-1.9608,7.5447,10.306,-1.9968,-14.951,-1.3592,-1.9608,8.5809,3.7915,5.6508,0.12698,-1.2882,-0.64412,3.0769,-3.1111,0.65359,3.0769
3.6478,-4.3175,-2.6016,1.877,-3.268,-5.4634,-7.7295,2.5121,7.7023,1.877,-3.268,0.0,6.951,5.0159,3.3016,-3.8647,-2.5765,3.0769,-0.57143,5.8824,3.0769
6.1635,-5.5873,-5.2033,1.877,-10.458,-8.065,-12.882,1.2238,-11.068,1.877,-10.458,-3.3003,6.951,3.1111,7.746,-3.2206,-1.9324,3.0769,-3.746,8.4967,1.1538
1.1321,-9.3968,-4.5528,-4.5955,-12.418,-8.7154,-15.459,-3.285,-16.893,-4.5955,-12.418,-8.5809,5.0553,3.746,8.381,-5.153,-1.2882,3.7179,-8.8254,8.4967,-0.12821
11.195,-11.302,-0.65041,-5.89,-9.8039,27.056999,-18.68,-9.7262,-6.5372,-5.89,-9.8039,-0.66007,6.3191,5.0159,9.6508,-5.153,0.0,15.256,-6.2857,11.765,1.1538
8.0503,-10.032,-3.252,-11.068,-13.072,-11.317,-10.95,-3.285,-15.599,-11.068,-13.072,-5.9406,5.0553,5.0159,10.286,-3.8647,0.0,3.7179,-8.8254,9.1503,0.51282
-0.75472,-3.6825,-9.1057,-9.1262,-15.033,-18.472,-17.391001,-1.3527,-9.1262,-9.1262,-15.033,-16.502001,3.1596,7.5556,6.4762,1.2882,0.64412,-11.026,-8.1905,4.5752,5.0
8.0503,-1.1429,0.0,-9.1262,-11.111,6.2439,-7.0853,-1.3527,-11.068,-9.1262,-11.111,-9.901,5.6872,9.4603,11.556,7.0853,7.7295,4.359,0.06349,10.458,8.8462
0.50314,0.7619,0.65041,-13.01,-18.301001,-17.171,-18.035,-2.6409,-14.304,-13.01,-18.301001,-13.201,5.6872,9.4603,9.0159,6.4412,8.3736,3.0769,-2.4762,9.8039,6.9231
1.1321,-6.8571,-4.5528,-18.188,-18.301001,7.5447,-18.68,-23.253,-16.893,-18.188,-18.301001,-14.521,1.2638,5.0159,1.3968,-0.64412,1.2882,0.51282,-9.4603,1.9608,3.0769
0.50314,-3.6825,0.65041,-33.722,-12.418,-12.618,-12.238,-9.0821,-4.5955,-33.722,-12.418,-5.2805,1.8957,5.6508,-1.7778,1.2882,1.9324,-5.2564,-11.365,4.5752,1.7949
-13.962,5.2063,2.6016,9.644,-0.65359,-27.577,-12.238,0.57971,8.3495,9.644,-0.65359,-1.3201,1.2638,8.1905,-11.937,5.153,1.9324,-7.8205,-0.57143,0.65359,7.5641
-15.849,3.3016,-1.9512,14.175,-2.6144,-4.813,3.2206,0.57971,-11.715,14.175,-2.6144,-4.6205,0.0,7.5556,-18.285999,3.8647,-3.8647,-18.718,-4.381,-5.2288,6.2821
-13.333,-6.8571,-7.1545,-7.1845,1.3072,-1.561,-5.153,-2.6409,1.2298,-7.1845,1.3072,-2.6403,1.2638,7.5556,-18.921,-1.2882,-9.0177,-21.282,-4.381,-3.268,5.641
-18.365,-12.571,-17.561001,-6.5372,-8.4967,-1.561,-14.171,-1.9968,-2.0065,-6.5372,-8.4967,-11.221,-5.0553,-1.9683,-23.365,-12.882,-19.323999,-11.026,-12.0,-7.1895,-3.3333
-6.4151,-18.921,-16.26,-7.8317,-8.4967,-5.4634,-10.306,-5.8615,-12.362,-7.8317,-8.4967,-12.541,-6.3191,-6.4127,-18.921,-18.035,-18.68,-5.2564,-12.0,-4.5752,-5.8974
-5.7862,-13.841,-11.707,-13.01,-11.111,10.797,-10.306,-10.37,-10.421,-13.01,-11.111,-6.6007,-10.742,-12.127,-15.746,-19.323999,-17.391001,-0.76923,-10.095,-7.1895,-9.1026
-1.3836,-12.571,-9.7561,-7.8317,-8.4967,-11.317,-8.3736,3.1562,-12.362,-7.8317,-8.4967,-8.5809,-12.006,-14.032,-10.032,-16.103001,-13.527,1.1538,-6.9206,-1.9608,-9.1026
0.50314,0.12698,-3.9024,8.3495,-5.8824,-14.569,1.2882,12.818,-8.479,8.3495,-5.8824,-4.6205,-10.111,-14.032,-3.6825,-9.0177,-7.0853,-0.12821,-6.2857,-0.65359,-8.4615
9.9371,-1.7778,1.3008,1.877,-6.5359,8.1951,-6.4412,5.7327,8.3495,1.877,-6.5359,1.9802,-8.8468,-14.032,3.9365,-5.7971,-0.64412,13.333,-1.8413,1.3072,-8.4615
8.6792,-6.8571,1.9512,-5.89,-9.8039,15.35,-7.7295,9.5974,1.2298,-5.89,-9.8039,0.66007,-8.8468,-15.302,7.1111,-5.153,1.9324,8.2051,-7.5556,0.65359,-11.667
14.34,5.2063,5.2033,-5.2427,-11.111,6.8943,-3.2206,7.6651,-14.951,-5.2427,-11.111,2.6403,-4.4234,-9.5873,12.825,3.8647,8.3736,17.179001,-6.2857,6.5359,-5.8974
13.711,1.3968,1.3008,-7.1845,-9.8039,10.146,-4.5089,8.3092,-12.362,-7.1845,-9.8039,0.66007,-3.7915,-6.4127,12.825,6.4412,7.7295,19.743999,-3.1111,4.5752,-4.6154
13.711,4.5714,5.2033,3.8188,-5.2288,0.39024,-8.3736,9.5974,7.055,3.8188,-5.2288,0.66007,1.2638,0.57143,16.0,14.171,13.527,17.179001,2.6032,9.1503,0.51282
14.969,16.0,11.057,7.7023,0.0,12.098,8.3736,9.5974,-7.1845,7.7023,0.0,9.901,0.63191,1.8413,16.0,17.391001,17.391001,16.538,0.06349,8.4967,5.641
8.0503,9.0159,9.1057,5.1133,-1.3072,2.9919,16.747,18.615,-13.657,5.1133,-1.3072,6.6007,-3.7915,-1.9683,9.0159,12.882,12.882,10.128,0.69841,0.0,0.51282
1.1321,-0.50794,3.252,1.877,1.3072,-5.4634,0.0,8.9533,2.5243,1.877,1.3072,1.9802,-4.4234,-0.69841,0.12698,9.0177,7.0853,8.2051,-0.57143,-1.3072,0.51282
-3.2704,5.2063,-2.6016,2.5243,0.65359,-11.317,0.0,4.4444,8.9968,2.5243,0.65359,-1.9802,-7.5829,-2.6032,-5.5873,4.5089,-0.64412,-0.76923,-0.57143,-5.8824,-0.76923
-2.6415,3.9365,0.65041,10.939,5.2288,2.9919,14.171,1.2238,3.8188,10.939,5.2288,5.2805,-5.0553,-1.3333,-5.5873,2.5765,-1.9324,2.4359,1.3333,-3.9216,0.51282
-17.107,-6.8571,-13.008,-0.06472,3.268,-4.1626,0.0,3.8003,8.3495,-0.06472,3.268,-4.6205,-10.742,-5.1429,-15.111,-7.7295,-13.527,2.4359,-1.8413,-10.458,-3.9744
-10.818,-8.127,-11.707,-0.06472,7.1895,-0.26016,4.5089,5.0886,7.055,-0.06472,7.1895,-3.3003,-11.374,-8.9524,-15.111,-12.882,-14.815,-4.6154,1.3333,-9.8039,-3.9744
-17.107,-10.667,-16.26,-5.89,-1.3072,-5.4634,-6.4412,-7.1498,1.877,-5.89,-1.3072,-8.5809,-16.43,-14.032,-21.459999,-18.035,-22.544001,-7.8205,-3.746,-17.646999,-9.1026
-14.591,-11.302,-18.211,-0.06472,2.6144,1.6911,1.2882,-2.6409,5.7605,-0.06472,2.6144,-7.9208,-16.43,-13.397,-20.825001,-19.323999,-23.833,-21.282,-2.4762,-17.646999,-9.1026
-18.365,-12.571,-17.561001,8.3495,1.3072,-7.4146,-9.6618,8.9533,11.586,8.3495,1.3072,-10.561,-16.43,-14.032,-20.825001,-18.035,-21.256001,-16.153999,-1.2063,-19.608,-9.1026
-10.818,-7.4921,-11.707,8.9968,4.5752,2.3415,-1.9324,10.886,1.2298,8.9968,4.5752,-1.9802,-16.43,-15.302,-15.111,-16.747,-15.459,-11.026,-3.746,-17.646999,-11.026
-0.75472,-3.0476,-2.6016,6.4078,6.5359,0.39024,2.5765,6.3768,1.877,6.4078,6.5359,3.9604,-7.5829,-8.9524,-6.2222,-10.306,-6.4412,-1.4103,-1.8413,-8.4967,-7.8205
-12.704,-10.032,-9.1057,-2.6537,-2.6144,-2.8618,-10.95,-7.1498,-8.479,-2.6537,-2.6144,-5.2805,-16.43,-17.841,-15.746,-14.815,-12.238,0.51282,-12.635,-19.608,-17.436001
-2.0126,-3.6825,0.65041,2.5243,-5.2288,12.098,-12.238,22.48,-13.01,2.5243,-5.2288,-3.9604,-6.951,-9.5873,-4.9524,-3.8647,-1.9324,3.7179,-12.0,-6.5359,-11.667
0.50314,7.1111,5.8537,12.88,-5.8824,2.3415,-11.594,21.836,-6.5372,12.88,-5.8824,-3.3003,2.5276,1.2063,2.0317,10.306,7.7295,2.4359,-2.4762,1.3072,-1.4103
-7.044,3.3016,0.0,1.2298,-9.1503,-3.5122,-10.95,2.5121,-13.01,1.2298,-9.1503,-10.561,-3.1596,-3.2381,-5.5873,8.3736,2.5765,1.1538,-3.1111,-6.5359,-3.9744
-3.8994,5.8413,2.6016,-2.6537,-5.8824,4.2927,-7.7295,10.242,-2.6537,-2.6537,-5.8824,-7.9208,2.5276,1.8413,0.12698,10.95,6.4412,5.641,-0.57143,1.3072,-0.76923
-3.8994,-4.9524,-6.5041,3.1715,-5.8824,-7.4146,-12.882,3.1562,-7.1845,3.1715,-5.8824,-10.561,-2.5276,-3.2381,-5.5873,0.0,-2.5765,-10.385,0.06349,-3.268,-3.9744
4.2767,-10.032,-4.5528,-15.599,-2.6144,15.35,-7.7295,3.8003,-3.9482,-15.599,-2.6144,-1.9802,-3.1596,-3.2381,-3.6825,-7.0853,-7.0853,12.692,2.6032,-1.9608,-3.9744
-5.7862,-11.302,-5.2033,7.7023,5.2288,1.0407,0.64412,7.6651,-0.06472,7.7023,5.2288,-0.66007,-3.7915,-1.9683,-9.3968,-9.0177,-11.594,12.051,4.5079,-4.5752,-0.12821
-16.478001,-8.127,-12.358,15.469,2.6144,-11.967,-4.5089,10.886,8.3495,15.469,2.6144,-7.2607,-9.4787,-3.2381,-17.016001,-7.7295,-16.747,-14.872,4.5079,-11.111,-0.76923
-14.591,-1.1429,-14.959,10.291,9.1503,-8.065,6.4412,10.886,7.7023,10.291,9.1503,-5.9406,-8.8468,-3.2381,-15.111,-5.7971,-15.459,-6.5385,8.9524,-11.765,1.7949
-7.673,-0.50794,-8.4553,-5.2427,0.65359,2.3415,0.0,0.57971,11.586,-5.2427,0.65359,-3.9604,-6.951,-0.06349,-6.2222,-3.8647,-10.306,-6.5385,7.0476,-8.4967,1.7949
9.3082,13.46,9.1057,-0.06472,9.1503,14.699,14.171,-0.06441,13.528,-0.06472,9.1503,3.3003,-1.2638,5.6508,6.4762,7.7295,2.5765,3.7179,11.492,-2.6144,8.2051
4.9057,9.0159,9.7561,-2.0065,7.1895,-11.967,4.5089,-9.0821,14.822,-2.0065,7.1895,3.9604,0.0,6.2857,7.1111,9.6618,3.8647,2.4359,10.857,-1.9608,8.8462
5.5346,9.6508,9.7561,16.764,11.765,16.0,10.306,6.3768,7.055,16.764,11.765,8.5809,2.5276,10.095,10.286,12.238,7.0853,-10.385,10.857,0.65359,12.051
6.1635,28.063,11.707,16.764,12.418,2.9919,28.986,8.9533,0.58252,16.764,12.418,11.221,9.4787,13.905,13.46,19.968,12.238,0.51282,10.222,3.9216,14.615
-1.3836,0.12698,-2.6016,8.3495,2.6144,-2.2114,-5.153,10.886,1.2298,8.3495,2.6144,-2.6403,8.2148,12.0,6.4762,11.594,3.8647,-1.4103,6.4127,3.268,12.051
1.761,2.0317,-5.8537,-2.0065,-5.8824,-0.91057,2.5765,5.7327,-29.191,-2.0065,-5.8824,-6.6007,6.951,7.5556,6.4762,8.3736,3.2206,-2.6923,-2.4762,1.9608,5.641
3.0189,-0.50794,-11.707,-5.2427,-9.8039,2.9919,-18.68,-14.235,-11.068,-5.2427,-9.8039,-12.541,6.3191,3.1111,2.6667,3.2206,-1.2882,-7.8205,-12.0,0.65359,-0.76923
-9.5597,-24.0,-24.065001,-2.0065,-10.458,-4.813,-26.409,-7.1498,-8.479,-2.0065,-10.458,-17.822001,0.63191,-3.873,-9.3968,-10.306,-14.815,5.641,-10.73,-1.3072,-7.1795
-7.673,-8.127,-18.211,-2.0065,-9.1503,-30.829,-8.3736,0.57971,-19.482,-2.0065,-9.1503,-15.182,2.5276,-1.9683,-4.3175,-7.0853,-10.95,3.0769,-15.81,1.9608,-8.4615
-3.8994,-5.5873,-11.707,-8.479,-12.418,0.39024,-11.594,-1.3527,-27.249001,-8.479,-12.418,-11.221,2.5276,-5.1429,-2.4127,-7.7295,-8.3736,5.641,-18.983999,1.9608,-11.667
-1.3836,-6.2222,-4.5528,-10.421,-13.725,0.39024,-8.3736,2.5121,-11.715,-10.421,-13.725,-4.6205,3.1596,-4.5079,-0.50794,-8.3736,-4.5089,8.2051,-14.54,1.3072,-11.026
14.34,-11.302,7.1545,1.2298,3.268,-8.7154,-5.7971,5.0886,8.9968,1.2298,3.268,7.9208,5.0553,-3.873,6.4762,-7.7295,1.2882,1.7949,-11.365,4.5752,-11.026
10.566,-3.6825,9.7561,6.4078,6.5359,38.764,7.0853,-8.438,-2.6537,6.4078,6.5359,15.842,1.8957,-6.4127,5.8413,-6.4412,0.64412,9.4872,-7.5556,2.6144,-13.59
12.453,7.746,16.26,5.7605,13.072,29.007999,14.171,7.6651,7.055,5.7605,13.072,21.782,2.5276,-2.6032,10.921,-1.2882,6.4412,6.2821,-2.4762,4.5752,-6.5385
13.082,7.1111,15.61,3.1715,1.9608,-0.26016,9.0177,12.174,1.2298,3.1715,1.9608,13.861,1.2638,-3.2381,12.825,0.0,7.0853,7.5641,-3.1111,3.268,-8.4615
14.969,6.4762,18.211,3.8188,2.6144,10.146,5.7971,-5.2174,-2.6537,3.8188,2.6144,12.541,0.63191,-3.2381,12.19,1.2882,9.0177,3.7179,0.69841,3.268,-5.8974
9.3082,7.1111,19.511999,-5.2427,-1.9608,14.699,7.7295,1.2238,1.877,-5.2427,-1.9608,13.861,-0.63191,-3.2381,10.286,1.2882,8.3736,3.0769,-3.746,1.3072,-7.8205
6.1635,9.0159,17.561001,1.2298,1.9608,-8.7154,21.9,-7.7939,-12.362,1.2298,1.9608,15.182,0.0,-1.9683,7.746,0.0,7.0853,7.5641,-3.746,1.3072,-5.8974
4.9057,6.4762,11.707,-0.71197,6.5359,8.1951,9.0177,7.6651,9.644,-0.71197,6.5359,13.861,-1.8957,-2.6032,3.3016,-1.2882,3.2206,1.1538,-1.2063,-1.3072,-5.2564
3.0189,0.12698,8.4553,16.117001,12.418,23.153999,6.4412,12.818,13.528,16.117001,12.418,14.521,-2.5276,-2.6032,-0.50794,-1.9324,0.0,-7.8205,5.1429,-0.65359,-2.0513
-3.2704,10.921,7.1545,8.3495,9.8039,1.6911,12.882,5.7327,-2.0065,8.3495,9.8039,10.561,-2.5276,-0.69841,-4.3175,-1.2882,-1.2882,-7.1795,7.6825,-3.268,-0.12821
-1.3836,0.12698,5.8537,7.7023,12.418,1.6911,10.95,-1.3527,16.764,7.7023,12.418,13.201,-3.7915,-1.3333,-3.6825,-2.5765,-1.9324,4.359,7.6825,-4.5752,-0.12821
-1.3836,5.8413,10.407,14.822,15.686,17.951,19.323999,-1.9968,16.117001,14.822,15.686,21.122,-3.7915,-1.3333,-3.0476,0.0,0.64412,-5.8974,7.6825,-2.6144,1.1538
-2.0126,11.556,12.358,13.528,18.301001,6.8943,21.256001,1.868,23.236,13.528,18.301001,21.122,-2.5276,-0.69841,-1.7778,3.2206,2.5765,1.1538,7.6825,-2.6144,1.7949
3.6478,10.921,11.057,13.528,15.686,8.1951,24.476999,5.0886,-4.5955,13.528,15.686,17.822001,-0.63191,0.57143,1.3968,1.9324,1.9324,-2.6923,4.5079,-0.65359,1.1538
8.6792,6.4762,10.407,10.939,14.379,19.252001,10.95,11.53,11.586,10.939,14.379,19.142,1.2638,3.1111,5.2063,2.5765,3.8647,1.1538,1.3333,0.65359,2.4359
10.566,7.1111,11.057,11.586,13.725,17.301001,16.747,8.9533,1.2298,11.586,13.725,19.142,1.2638,3.1111,5.8413,4.5089,4.5089,3.0769,3.2381,1.9608,2.4359
2.3899,10.921,5.8537,10.939,7.8431,7.5447,7.7295,8.3092,-7.8317,10.939,7.8431,11.881,0.63191,1.2063,2.6667,5.153,2.5765,1.1538,-1.2063,1.3072,0.51282
-7.673,-4.3175,-3.9024,12.233,5.8824,4.9431,-3.8647,5.7327,10.291,12.233,5.8824,1.9802,-1.8957,-3.2381,-1.7778,0.0,-1.9324,2.4359,-1.8413,-3.268,-2.0513
-5.1572,-0.50794,-5.2033,1.2298,-3.9216,8.1951,-7.7295,0.57971,-1.3592,1.2298,-3.9216,-0.66007,-3.7915,-3.873,0.7619,-2.5765,-3.8647,5.0,-3.1111,-0.65359,-6.5385
8.6792,-3.0476,-1.9512,-3.301,1.3072,-8.7154,-5.7971,8.9533,-3.301,-3.301,1.3072,0.0,0.63191,-3.873,7.746,-4.5089,-2.5765,14.615,-1.2063,7.8431,-3.9744
2.3899,-6.8571,-9.7561,-1.3592,-8.4967,2.9919,-9.6618,0.57971,-3.301,-1.3592,-8.4967,-9.2409,-4.4234,-10.222,0.7619,-10.306,-10.95,7.5641,-3.746,0.65359,-10.385
1.761,0.12698,-6.5041,-1.3592,0.0,2.9919,9.0177,-7.7939,8.9968,-1.3592,0.0,-3.9604,-3.7915,-7.0476,1.3968,-9.0177,-9.0177,7.5641,-0.57143,1.3072,-5.2564
-5.1572,-28.444,-18.862,-5.2427,-5.2288,-13.919,-26.409,14.106,-2.6537,-5.2427,-5.2288,-15.182,-8.2148,-13.397,-5.5873,-21.256001,-18.68,1.7949,-7.5556,-4.5752,-13.59
-11.447,-32.889,-26.667,-7.1845,-9.8039,1.6911,-25.764999,-1.9968,-11.068,-7.1845,-9.8039,-18.482,-12.638,-16.570999,-14.476,-28.986,-27.052999,-5.8974,-10.73,-10.458,-16.153999
-9.5597,-27.174999,-24.065001,-13.01,-6.5359,-21.073,-10.306,-16.167,0.58252,-13.01,-6.5359,-16.502001,-10.742,-14.667,-13.206,-26.409,-26.409,-4.6154,-6.2857,-8.4967,-12.949
-19.622999,-29.079,-29.919001,-2.6537,-11.111,-21.724001,-24.476999,-11.014,-14.951,-2.6537,-11.111,-23.101999,-12.006,-14.667,-18.921,-25.121,-28.986,-8.4615,-12.0,-8.4967,-14.231
-29.056999,-28.444,-34.472,-16.246,-18.954,-40.584999,-25.764999,-20.676001,-9.1262,-16.246,-18.954,-31.683001,-17.694,-18.476,-26.540001,-25.764999,-30.917999,-20.0,-13.27,-17.646999,-16.153999
-24.025,-26.540001,-29.919001,-20.129,-22.222,-14.569,-33.493999,-25.829,-13.01,-20.129,-22.222,-31.023001,-16.43,-15.937,-24.635,-21.9,-27.697001,-16.795,-10.095,-13.725,-13.59
-22.138,-27.174999,-27.316999,-18.834999,-20.261,-25.625999,-27.052999,-11.659,-14.951,-18.834999,-20.261,-31.023001,-12.006,-10.222,-18.921,-17.391001,-23.188,-11.667,-7.5556,-9.1503,-8.4615
0.50314,11.556,-2.6016,-1.3592,-2.6144,-2.2114,9.0177,3.1562,12.88,-1.3592,-2.6144,-7.2607,3.7915,6.2857,4.5714,6.4412,-1.2882,-7.8205,10.857,5.2288,9.4872
1.761,16.635,5.2033,-1.3592,1.9608,3.6423,18.035,-14.235,-2.0065,-1.3592,1.9608,2.6403,6.3191,11.365,6.4762,13.527,5.153,-11.667,16.570999,3.268,17.179001
-5.1572,5.8413,3.252,-9.1262,3.9216,-15.22,0.64412,-18.743999,14.175,-9.1262,3.9216,-2.6403,8.2148,12.635,5.2063,15.459,6.4412,-0.76923,18.476,2.6144,16.538
8.6792,21.714001,13.659,-2.0065,11.765,-31.48,16.747,-18.1,20.646999,-2.0065,11.765,7.9208,14.534,17.079,16.0,25.764999,17.391001,1.7949,23.556,10.458,21.667
3.0189,28.063,13.008,-0.71197,5.8824,-5.4634,12.882,0.57971,16.764,-0.71197,5.8824,5.2805,15.798,17.714001,16.635,29.629999,19.323999,-7.1795,20.381001,9.8039,20.385
3.0189,26.159,15.61,3.1715,10.458,21.854,13.527,-2.6409,18.705999,3.1715,10.458,11.221,13.27,17.714001,12.825,31.562,19.968,-7.1795,21.650999,5.8824,23.59
14.969,28.698,22.114,-1.3592,5.2288,21.202999,15.459,6.3768,8.3495,-1.3592,5.2288,19.802,12.638,16.444,15.365,32.206001,21.256001,-2.6923,14.032,7.1895,17.820999
11.824,33.778,25.365999,6.4078,14.379,16.65,33.493999,0.57971,20.646999,6.4078,14.379,26.403,10.742,13.905,13.46,29.629999,20.612,0.51282,12.762,7.1895,17.179001
6.7925,24.889,17.561001,3.1715,3.268,20.552999,22.544001,-14.879,3.8188,3.1715,3.268,19.142,4.4234,5.6508,6.4762,19.968,12.238,6.2821,2.6032,3.9216,5.641
13.082,5.2063,16.26,15.469,7.8431,17.951,3.2206,15.395,3.8188,15.469,7.8431,20.462,5.6872,6.2857,8.381,11.594,10.95,18.462,0.69841,8.4967,5.0
15.597,7.746,16.910999,5.1133,2.6144,1.0407,10.306,13.462,6.4078,5.1133,2.6144,16.502001,4.4234,4.381,7.746,7.0853,7.7295,6.9231,-2.4762,6.5359,4.359
6.1635,-5.5873,7.1545,-1.3592,0.65359,10.146,2.5765,-0.70853,-2.0065,-1.3592,0.65359,11.221,-1.2638,0.57143,0.7619,-2.5765,-1.9324,6.2821,-5.6508,2.6144,0.51282
4.9057,-4.9524,1.9512,-5.89,-1.3072,0.39024,1.2882,2.5121,-9.7735,-5.89,-1.3072,3.9604,2.5276,2.4762,3.9365,-3.8647,-3.8647,5.0,-6.2857,6.5359,1.1538
-0.12579,-17.650999,-11.707,-5.89,-9.8039,-15.22,-14.171,-8.438,-5.89,-5.89,-9.8039,-13.201,-1.8957,-3.2381,1.3968,-12.882,-10.95,3.7179,-15.81,1.9608,-5.2564
-4.5283,-21.459999,-16.26,-7.8317,-16.34,-11.967,-26.409,-6.5056,-25.955,-7.8317,-16.34,-21.782,-1.8957,-5.7778,1.3968,-17.391001,-12.882,4.359,-20.889,3.268,-7.1795
-2.6415,-17.016001,-14.309,-13.657,-16.34,-14.569,-24.476999,-5.2174,-18.834999,-13.657,-16.34,-22.441999,3.7915,-3.2381,5.8413,-14.171,-9.6618,-2.6923,-22.159,7.1895,-8.4615
2.3899,-21.459999,-9.7561,-9.7735,-11.765,-6.7642,-26.409,-1.9968,-9.1262,-9.7735,-11.765,-17.162001,7.5829,-1.9683,9.6508,-13.527,-5.7971,6.2821,-18.349001,11.111,-8.4615
6.1635,-10.667,1.3008,-18.188,-7.8431,-5.4634,-17.391001,-11.014,5.1133,-18.188,-7.8431,-5.2805,9.4787,0.57143,14.095,-5.7971,4.5089,1.1538,-10.095,9.8039,-3.3333
13.711,7.1111,13.659,1.877,1.3072,-11.967,3.8647,2.5121,-13.657,1.877,1.3072,2.6403,16.43,8.1905,21.079,5.7971,16.103001,4.359,1.9683,13.725,5.0
10.566,9.0159,13.659,3.1715,-5.2288,1.6911,-8.3736,-2.6409,-9.7735,3.1715,-5.2288,-2.6403,17.062,13.905,18.540001,8.3736,14.815,-7.1795,1.9683,10.458,9.4872
9.3082,5.8413,11.707,3.1715,0.65359,-0.91057,-3.8647,-0.70853,13.528,3.1715,0.65359,-0.66007,18.325001,19.618999,17.27,12.238,16.103001,3.7179,11.492,12.418,17.179001
11.195,13.46,8.4553,-3.9482,-6.5359,15.35,0.0,0.57971,4.466,-3.9482,-6.5359,-3.9604,20.221001,22.159,17.27,19.323999,17.391001,-0.12821,19.746,11.765,19.743999
4.9057,15.365,3.252,-16.246,-5.8824,-7.4146,-9.0177,-4.5733,10.939,-16.246,-5.8824,-8.5809,18.957001,22.794001,10.921,20.612,16.103001,2.4359,18.476,9.8039,22.308001
6.1635,22.983999,5.2033,-15.599,-9.8039,-13.268,15.459,-12.303,-13.01,-15.599,-9.8039,-6.6007,18.325001,23.429001,11.556,23.188,16.103001,-2.6923,19.111,9.1503,22.308001
0.50314,12.825,2.6016,-10.421,-0.65359,-26.927,-0.64412,-10.37,20.646999,-10.421,-0.65359,-7.9208,15.798,24.063,5.8413,22.544001,12.882,3.0769,24.190001,5.8824,26.153999
-3.8994,22.349001,7.1545,-0.06472,4.5752,-19.771999,13.527,-12.303,24.531,-0.06472,4.5752,1.9802,12.006,22.159,-1.1429,24.476999,11.594,-5.2564,28.635,1.9608,26.153999
-0.75472,22.983999,10.407,-0.71197,7.8431,4.2927,19.323999,-12.947,16.117001,-0.71197,7.8431,11.881,6.3191,15.81,-4.3175,19.323999,7.7295,-11.667,21.650999,1.3072,21.025999
-2.6415,13.46,9.7561,1.877,9.8039,15.35,9.0177,0.57971,26.472,1.877,9.8039,13.861,1.2638,10.73,-7.4921,14.171,3.2206,-6.5385,21.650999,0.65359,18.462
-0.12579,16.635,7.1545,1.877,9.8039,24.455,17.391001,-7.1498,21.941999,1.877,9.8039,17.162001,-1.2638,6.2857,-7.4921,11.594,0.64412,-1.4103,13.397,-0.65359,13.974
-2.0126,13.46,10.407,-1.3592,13.725,4.2927,21.256001,-3.9291,20.646999,-1.3592,13.725,19.802,2.5276,9.4603,-2.4127,13.527,5.7971,-5.8974,19.746,1.9608,15.256
-12.075,7.746,4.5528,21.294001,11.111,-4.1626,16.103001,22.48,5.7605,21.294001,11.111,11.881,-4.4234,1.2063,-8.7619,5.7971,1.2882,-10.385,8.3175,-3.268,4.359
-5.7862,0.7619,4.5528,17.410999,9.8039,-0.26016,11.594,8.9533,3.8188,17.410999,9.8039,9.2409,-3.7915,-3.873,-4.9524,0.64412,2.5765,-0.12821,-2.4762,-1.3072,-2.0513
3.0189,7.1111,9.1057,-2.6537,4.5752,18.601999,3.8647,-0.06441,9.644,-2.6537,4.5752,7.2607,1.2638,-0.69841,2.0317,6.4412,10.306,6.9231,-3.1111,0.0,-0.76923
3.0189,-2.4127,5.2033,-3.9482,1.3072,-1.561,-2.5765,4.4444,-4.5955,-3.9482,1.3072,-1.3201,5.0553,-1.3333,7.1111,3.8647,10.95,1.1538,-3.1111,7.1895,-2.0513
1.1321,5.2063,4.5528,7.055,-5.2288,4.2927,5.7971,10.886,-25.955,7.055,-5.2288,-2.6403,11.374,-1.3333,13.46,3.8647,13.527,-2.6923,-9.4603,11.765,-5.8974
11.195,-4.9524,5.8537,18.058001,1.3072,-2.8618,-7.0853,21.191999,-13.01,18.058001,1.3072,-4.6205,18.957001,1.2063,21.079,4.5089,18.035,8.8462,-12.0,17.646999,-7.1795
8.0503,-15.746,-1.9512,0.58252,-7.8431,1.6911,-18.035,8.9533,-7.1845,0.58252,-7.8431,-12.541,18.325001,-1.9683,18.540001,-5.153,10.306,8.2051,-17.079,19.608,-12.949
6.7925,-17.650999,-4.5528,-13.01,-6.5359,1.0407,-9.0177,-9.0821,-23.365999,-13.01,-6.5359,-10.561,14.534,-7.0476,12.19,-12.882,3.8647,-2.6923,-24.063,15.033,-16.795
0.50314,-17.650999,-5.2033,-7.1845,-13.725,-19.771999,-18.035,-6.5056,-18.834999,-7.1845,-13.725,-16.502001,13.27,-5.7778,9.6508,-12.882,1.9324,7.5641,-20.254,12.418,-17.436001
6.1635,-15.746,0.0,-12.362,-11.765,-8.065,-18.68,-4.5733,-22.718,-12.362,-11.765,-12.541,15.166,0.57143,10.286,-7.7295,5.7971,6.2821,-17.714001,11.765,-10.385
-1.3836,-10.032,-0.65041,1.2298,-7.1895,-13.919,-14.815,-5.8615,-4.5955,1.2298,-7.1895,-7.2607,12.638,1.2063,3.3016,-4.5089,3.2206,-7.8205,-13.905,6.5359,-9.1026
-0.12579,-4.3175,-5.8537,-7.8317,-1.3072,-0.26016,0.0,-11.014,-15.599,-7.8317,-1.3072,-0.66007,8.2148,0.57143,-4.9524,-6.4412,-3.2206,5.0,-10.095,0.65359,-7.8205
7.4214,-0.50794,-2.6016,-4.5955,5.8824,-6.7642,0.64412,-9.7262,1.877,-4.5955,5.8824,9.2409,5.6872,1.2063,-4.9524,-6.4412,-5.153,-7.1795,-11.365,0.65359,-7.1795
0.50314,-0.50794,-0.65041,17.410999,-2.6144,0.39024,-5.7971,6.3768,-18.834999,17.410999,-2.6144,-0.66007,6.3191,6.2857,-3.6825,-0.64412,0.0,-14.231,-13.27,2.6144,-3.3333
-7.673,2.6667,2.6016,8.3495,-7.8431,0.39024,-7.7295,4.4444,-33.722,8.3495,-7.8431,-3.9604,5.0553,6.2857,-3.0476,3.2206,3.8647,-3.3333,-7.5556,0.0,-2.0513
6.1635,2.6667,13.659,-7.1845,-1.9608,8.1951,-11.594,-7.1498,-2.0065,-7.1845,-1.9608,5.2805,6.951,8.1905,6.4762,7.7295,11.594,-0.12821,-4.381,1.9608,0.51282
13.082,9.6508,17.561001,3.8188,-3.9216,-3.5122,4.5089,-5.2174,-3.301,3.8188,-3.9216,7.2607,11.374,13.27,14.095,13.527,17.391001,5.641,-0.57143,7.1895,5.641
14.969,12.825,9.7561,3.1715,3.268,16.0,14.815,9.5974,-2.0065,3.1715,3.268,9.2409,12.006,11.365,14.73,10.95,13.527,6.2821,-3.1111,9.1503,3.7179
13.711,-4.3175,5.2033,6.4078,2.6144,24.455,0.64412,14.75,-5.2427,6.4078,2.6144,7.9208,12.638,9.4603,15.365,3.2206,8.3736,11.41,-5.6508,10.458,-0.12821
10.566,0.7619,10.407,5.1133,-4.5752,8.8455,-0.64412,-1.9968,-2.6537,5.1133,-4.5752,4.6205,16.43,13.27,19.809999,9.0177,14.171,12.692,-3.1111,12.418,3.7179
16.855,5.8413,16.910999,1.2298,-2.6144,-15.22,-5.7971,5.0886,-10.421,1.2298,-2.6144,5.2805,18.957001,17.079,22.983999,14.815,19.968,13.333,-1.8413,14.379,8.2051
13.711,10.286,15.61,-5.89,-2.6144,14.049,-3.2206,8.3092,-5.89,-5.89,-2.6144,6.6007,17.062,16.444,19.809999,14.171,17.391001,14.615,-1.8413,12.418,8.8462
9.3082,17.27,11.057,-7.1845,0.65359,15.35,17.391001,1.2238,-20.129,-7.1845,0.65359,7.9208,13.902,15.175,12.19,12.238,12.238,8.2051,0.69841,9.8039,10.128
3.6478,-0.50794,0.65041,1.877,-1.9608,-10.667,-3.2206,1.2238,-6.5372,1.877,-1.9608,0.0,7.5829,9.4603,2.6667,0.0,0.64412,2.4359,-4.381,5.8824,2.4359
7.4214,-2.4127,6.5041,12.88,10.458,9.4959,6.4412,14.106,1.2298,12.88,10.458,10.561,4.4234,6.9206,3.3016,-5.153,0.64412,9.4872,-1.2063,4.5752,3.7179
3.6478,2.0317,3.9024,10.291,1.9608,19.252001,16.747,4.4444,-15.599,10.291,1.9608,7.9208,-0.63191,3.1111,-0.50794,-10.306,-5.153,1.7949,-7.5556,0.0,-0.76923
-13.333,-20.190001,-10.407,1.877,2.6144,13.398,-10.95,4.4444,3.8188,1.877,2.6144,-1.3201,-10.111,-2.6032,-13.206,-19.968,-16.747,-5.2564,-6.2857,-11.111,-2.0513
-15.849,-20.190001,-16.910999,-11.068,-1.3072,-21.073,-9.0177,1.868,-1.3592,-11.068,-1.3072,-7.2607,-10.111,-2.6032,-13.841,-19.968,-18.68,-9.1026,-5.6508,-11.765,-1.4103
-3.8994,-16.381001,-15.61,4.466,-1.9608,-8.7154,-7.0853,1.868,-7.1845,4.466,-1.9608,-12.541,-9.4787,-1.3333,-10.667,-16.103001,-15.459,-1.4103,-4.381,-7.8431,1.1538
-4.5283,-8.127,-9.1057,-2.6537,4.5752,16.0,-5.153,2.5121,10.939,-2.6537,4.5752,-5.2805,-8.8468,-0.69841,-10.667,-10.95,-12.238,0.51282,5.7778,-10.458,4.359
-8.9308,-9.3968,-12.358,-0.71197,0.0,-21.724001,-2.5765,-5.8615,-0.06472,-0.71197,0.0,-9.2409,-12.006,-4.5079,-15.746,-10.95,-14.815,-3.9744,2.6032,-13.072,1.7949
-15.849,-8.127,-15.61,4.466,3.268,6.2439,-3.2206,3.1562,8.3495,4.466,3.268,-9.901,-15.166,-5.7778,-22.094999,-8.3736,-16.103001,-7.8205,1.9683,-16.993,1.1538
-16.478001,3.9365,-10.407,2.5243,9.1503,-8.7154,1.2882,3.1562,29.061001,2.5243,9.1503,-8.5809,-8.2148,1.2063,-18.921,4.5089,-7.7295,-9.7436,15.937,-15.686,10.128
-18.365,7.746,-9.7561,-4.5955,1.3072,-10.667,0.64412,-11.659,3.1715,-4.5955,1.3072,-11.221,-7.5829,1.8413,-17.650999,9.6618,-4.5089,-10.385,18.476,-16.34,13.333
-7.044,29.333,4.5528,-6.5372,0.65359,-4.1626,23.833,-7.7939,5.1133,-6.5372,0.65359,-0.66007,-2.5276,5.6508,-7.4921,19.968,5.7971,-7.8205,21.016001,-11.111,15.897
-13.962,10.286,0.65041,-14.304,2.6144,-32.130001,7.0853,-17.455999,18.705999,-14.304,2.6144,0.66007,-3.1596,3.1111,-11.302,10.95,-1.2882,-5.2564,21.650999,-9.1503,14.615
-3.8994,9.0159,3.9024,1.877,7.8431,-4.1626,11.594,-7.7939,27.120001,1.877,7.8431,9.901,3.1596,5.0159,-5.5873,9.0177,0.64412,3.0769,20.381001,-2.6144,12.692
6.7925,14.73,11.707,8.9968,14.379,27.707001,23.188,-1.9968,12.88,8.9968,14.379,19.142,7.5829,6.2857,2.0317,9.6618,5.7971,-7.1795,17.841,1.3072,12.051
9.3082,11.556,14.959,17.410999,11.111,11.447,12.882,15.395,21.294001,17.410999,11.111,19.802,8.8468,6.9206,5.8413,9.0177,6.4412,-3.9744,17.205999,8.4967,10.769
7.4214,28.063,17.561001,10.939,13.072,12.098,34.138,3.8003,-6.5372,10.939,13.072,25.743,5.6872,6.9206,3.3016,10.306,5.7971,6.9231,13.397,5.8824,12.692
-3.2704,-5.5873,0.65041,-14.304,0.0,34.862,-3.8647,-6.5056,5.1133,-14.304,0.0,9.901,-5.0553,-4.5079,-5.5873,-5.153,-7.7295,-1.4103,3.873,0.0,-1.4103
-0.75472,-10.032,-3.252,8.3495,0.65359,-19.122,-1.2882,1.868,8.9968,8.3495,0.65359,1.3201,-6.3191,-8.3175,-4.9524,-9.0177,-8.3736,5.641,1.3333,2.6144,-5.2564
-1.3836,-5.5873,-7.8049,-2.6537,-10.458,-18.472,-7.7295,-11.659,0.58252,-2.6537,-10.458,-8.5809,-5.6872,-8.3175,-1.1429,-10.95,-8.3736,2.4359,-1.8413,3.268,-7.1795
-8.3019,-17.016001,-16.26,-15.599,-13.072,-10.667,-18.035,-12.303,-6.5372,-15.599,-13.072,-16.502001,-12.638,-11.492,-8.127,-17.391001,-14.171,-3.3333,-2.4762,-3.9216,-9.7436
-6.4151,-10.667,-11.057,-15.599,-9.1503,-29.528,-5.7971,-11.659,-9.1262,-15.599,-9.1503,-13.861,-10.111,-8.3175,-7.4921,-12.238,-10.95,-3.3333,-2.4762,-4.5752,-7.1795
-12.075,-12.571,-14.959,-24.013,-14.379,-8.065,-21.256001,-18.743999,-2.6537,-24.013,-14.379,-21.122,-8.2148,-3.873,-8.127,-7.0853,-8.3736,1.7949,1.3333,-4.5752,-1.4103
-11.447,-4.3175,-15.61,-13.657,-13.072,-34.731998,-16.103001,-17.455999,-11.715,-13.657,-13.072,-21.122,-5.6872,-0.69841,-6.2222,0.0,-3.8647,-2.6923,6.4127,-5.2288,4.359
-3.8994,8.381,-6.5041,-11.715,-10.458,-2.8618,-6.4412,-11.659,-0.06472,-11.715,-10.458,-13.861,-3.1596,3.1111,-0.50794,6.4412,3.8647,-7.1795,6.4127,-4.5752,5.0
-1.3836,11.556,-1.3008,-13.657,-5.8824,-13.268,14.171,-0.06441,-12.362,-13.657,-5.8824,-7.9208,-3.1596,4.381,-0.50794,8.3736,5.153,-0.12821,10.857,-7.1895,7.5641
-3.8994,5.2063,0.65041,-3.9482,0.0,-0.91057,-6.4412,-12.303,6.4078,-3.9482,0.0,-5.9406,-3.1596,6.2857,-1.7778,9.0177,5.153,-3.3333,14.667,-8.4967,10.769
-0.12579,6.4762,4.5528,-11.068,1.9608,15.35,1.2882,-11.014,17.410999,-11.068,1.9608,0.0,-2.5276,6.2857,-2.4127,9.6618,5.153,-0.76923,17.841,-7.1895,10.769
-12.704,6.4762,-5.2033,-0.06472,-0.65359,-29.528,0.64412,4.4444,14.822,-0.06472,-0.65359,-6.6007,-11.374,0.57143,-15.746,5.153,-4.5089,-17.436001,16.570999,-16.993,8.2051
-18.993999,14.095,-5.2033,10.291,11.111,2.3415,10.95,1.2238,16.117001,10.291,11.111,-0.66007,-15.798,-2.6032,-23.365,6.4412,-7.7295,-14.231,15.302,-22.222,6.2821
-9.5597,20.444,1.3008,7.055,14.379,12.098,12.238,0.57971,26.472,7.055,14.379,5.2805,-12.006,1.2063,-19.556,12.238,-2.5765,-7.1795,21.650999,-16.993,8.8462
-19.622999,15.365,-3.9024,12.233,14.379,-11.967,18.68,5.7327,21.294001,12.233,14.379,1.9802,-15.798,-3.2381,-25.905001,6.4412,-7.7295,-10.385,17.841,-19.608,6.2821
-25.283001,5.2063,-12.358,1.2298,7.8431,-1.561,4.5089,5.0886,15.469,1.2298,7.8431,-3.3003,-22.117001,-9.5873,-30.349001,-2.5765,-16.747,-5.8974,8.9524,-22.222,-2.0513
-13.962,12.19,-6.5041,18.058001,11.765,11.447,17.391001,18.615,9.644,18.058001,11.765,1.3201,-15.166,-5.7778,-20.825001,0.0,-9.6618,5.641,9.5873,-13.072,1.7949
-17.736,-8.127,-14.309,4.466,-1.9608,-41.886002,-10.95,8.3092,3.8188,4.466,-1.9608,-14.521,-17.694,-11.492,-18.285999,-8.3736,-12.882,-2.6923,0.69841,-14.379,-7.1795
1.761,-10.032,-5.8537,-1.3592,1.9608,-21.073,-1.9324,9.5974,5.7605,-1.3592,1.9608,-9.2409,-12.638,-10.222,-5.5873,-9.0177,-5.7971,3.7179,-3.746,-4.5752,-9.1026
-2.0126,-16.381001,-12.358,-12.362,-5.2288,-6.7642,-13.527,3.8003,-3.9482,-12.362,-5.2288,-15.182,-13.27,-14.032,-6.2222,-16.747,-9.6618,8.8462,-8.8254,-4.5752,-14.231
0.50314,-16.381001,-13.659,-2.0065,-1.9608,0.39024,-12.238,-7.1498,1.877,-2.0065,-1.9608,-11.881,-9.4787,-12.127,-2.4127,-15.459,-9.0177,7.5641,-8.1905,1.9608,-13.59
-1.3836,-6.8571,-2.6016,2.5243,5.2288,-12.618,-3.2206,12.174,-0.71197,2.5243,5.2288,1.3201,-8.2148,-10.857,-1.1429,-10.95,-4.5089,10.128,-5.0159,3.9216,-11.667
6.1635,-0.50794,1.9512,0.58252,3.9216,8.8455,4.5089,12.174,5.7605,0.58252,3.9216,3.9604,-4.4234,-8.3175,5.2063,-8.3736,0.64412,5.0,-10.095,4.5752,-12.949
6.1635,-17.016001,-3.252,8.3495,6.5359,14.049,-1.2882,2.5121,8.9968,8.3495,6.5359,-0.66007,-1.8957,-8.3175,5.2063,-14.171,-2.5765,5.641,-9.4603,9.1503,-11.667
1.1321,-23.365,-6.5041,-12.362,-5.2288,-11.317,-10.95,-4.5733,-11.715,-12.362,-5.2288,-7.2607,-8.8468,-16.570999,-1.7778,-23.833,-10.306,3.7179,-17.079,2.6144,-20.0
-2.6415,-30.349001,-9.1057,-6.5372,-5.2288,-14.569,-7.0853,-11.014,-14.304,-6.5372,-5.2288,-5.2805,-14.534,-25.459999,-7.4921,-31.562,-16.747,7.5641,-25.968,-1.3072,-30.256001
-7.673,-25.27,-14.959,-5.89,-1.9608,21.202999,-7.7295,-0.70853,-5.89,-5.89,-1.9608,0.66007,-17.694,-28.0,-12.571,-30.917999,-20.612,-4.6154,-24.063,-5.8824,-33.462002
-7.673,-16.381001,-14.959,-13.657,1.3072,-19.122,3.2206,-5.8615,-1.3592,-13.657,1.3072,-2.6403,-22.117001,-29.27,-16.381001,-25.764999,-21.9,-3.3333,-20.889,-10.458,-31.538
-8.3019,0.12698,-5.8537,7.7023,6.5359,-9.3659,7.0853,17.327,12.88,7.7023,6.5359,2.6403,-15.798,-17.841,-10.667,-9.0177,-10.306,-1.4103,-5.6508,-11.111,-17.436001
3.0189,19.174999,7.8049,29.709,16.34,13.398,28.341,18.615,-1.3592,29.709,16.34,13.861,-5.6872,-4.5079,0.12698,5.7971,3.2206,2.4359,3.2381,-3.268,-2.6923
1.761,4.5714,3.9024,9.644,9.1503,8.1951,5.7971,11.53,1.877,9.644,9.1503,7.2607,-6.3191,-3.2381,-1.7778,3.8647,0.64412,7.5641,6.4127,-5.2288,-0.76923
-2.0126,6.4762,0.0,19.353001,11.765,16.65,4.5089,14.75,16.764,19.353001,11.765,7.2607,-8.8468,-3.2381,-6.8571,3.8647,-0.64412,3.7179,10.857,-11.765,1.1538
-0.12579,13.46,0.65041,5.1133,9.1503,-1.561,9.0177,6.3768,3.1715,5.1133,9.1503,9.2409,-7.5829,-1.9683,-4.9524,9.0177,0.0,8.8462,7.6825,-6.5359,1.1538
-0.75472,2.6667,-1.3008,23.882999,14.379,2.9919,4.5089,19.903,18.058001,23.882999,14.379,9.2409,-7.5829,-2.6032,-4.9524,5.7971,-1.2882,3.0769,12.762,-7.8431,3.0769
0.50314,-3.6825,-5.8537,10.291,6.5359,19.902,2.5765,26.989,5.1133,10.291,6.5359,4.6205,-10.742,-7.6825,-4.9524,-1.2882,-5.7971,-3.9744,6.4127,-6.5359,-2.0513
1.1321,-5.5873,-4.5528,16.117001,7.1895,8.1951,3.8647,16.039,3.1715,16.117001,7.1895,7.2607,-10.111,-9.5873,-4.9524,-3.2206,-5.7971,15.256,1.3333,-4.5752,-4.6154
0.50314,-11.302,-6.5041,12.88,3.268,16.0,-7.7295,10.242,-2.0065,12.88,3.268,1.3201,-5.6872,-8.3175,-2.4127,-4.5089,-4.5089,4.359,-1.2063,-2.6144,-3.9744
3.6478,-3.0476,-4.5528,-2.6537,-2.6144,10.146,-7.7295,-3.9291,-11.715,-2.6537,-2.6144,-2.6403,0.63191,-3.873,3.3016,1.2882,0.64412,3.7179,-1.2063,4.5752,-3.3333
3.6478,11.556,1.3008,9.644,-1.9608,-20.423,10.95,11.53,-9.7735,9.644,-1.9608,-0.66007,7.5829,0.57143,7.746,9.6618,7.7295,6.9231,0.69841,8.4967,2.4359
6.7925,6.4762,7.8049,6.4078,-7.1895,-8.7154,-3.2206,2.5121,-25.955,6.4078,-7.1895,1.3201,9.4787,1.8413,11.556,10.306,11.594,10.128,-3.746,10.458,2.4359
14.34,4.5714,13.008,-11.715,-5.8824,17.951,-5.7971,-7.1498,-16.246,-11.715,-5.8824,3.3003,10.742,1.8413,12.825,9.0177,11.594,9.4872,-7.5556,11.765,1.1538
-0.12579,2.0317,8.4553,0.58252,-3.9216,2.9919,-1.2882,-4.5733,0.58252,0.58252,-3.9216,2.6403,9.4787,1.2063,8.381,6.4412,8.3736,5.0,-9.4603,10.458,0.51282
3.0189,-1.1429,6.5041,-3.301,-1.9608,8.1951,-1.9324,-1.9968,-5.2427,-3.301,-1.9608,2.6403,12.638,5.6508,11.556,7.0853,10.95,0.51282,-8.1905,11.111,2.4359
8.6792,1.3968,5.8537,-7.8317,-0.65359,0.39024,3.2206,-12.947,3.8188,-7.8317,-0.65359,1.9802,13.27,6.9206,14.73,6.4412,11.594,6.9231,-6.2857,12.418,2.4359
4.9057,-1.1429,6.5041,-2.0065,-0.65359,1.0407,1.9324,3.8003,-3.301,-2.0065,-0.65359,3.3003,12.006,5.0159,13.46,1.9324,10.306,4.359,-6.9206,12.418,3.0769
4.2767,-6.2222,3.9024,-13.657,-9.1503,-6.7642,-5.7971,-0.06441,-14.304,-13.657,-9.1503,0.0,9.4787,2.4762,12.19,-1.9324,7.0853,-1.4103,-6.2857,9.1503,0.51282
10.566,-4.3175,4.5528,-0.71197,-3.9216,-4.1626,-5.7971,-12.947,1.877,-0.71197,-3.9216,1.3201,3.1596,-0.69841,9.6508,-4.5089,5.153,4.359,-3.1111,5.8824,0.51282
-3.8994,-4.3175,-4.5528,-11.068,-11.111,0.39024,1.9324,-14.235,-3.9482,-11.068,-11.111,-7.9208,-5.0553,-5.1429,0.12698,-5.7971,-1.9324,-0.12821,-5.0159,-1.3072,-4.6154
-8.3019,-4.3175,-13.008,-4.5955,-5.8824,-10.016,-6.4412,2.5121,-3.301,-4.5955,-5.8824,-9.901,-6.951,-5.7778,-5.5873,-9.0177,-7.7295,-0.76923,0.06349,-2.6144,-2.0513
-3.2704,-4.3175,-13.659,-7.8317,-9.8039,-7.4146,-12.238,10.886,3.8188,-7.8317,-9.8039,-11.881,-8.2148,-7.0476,-6.8571,-10.306,-10.95,-4.6154,0.06349,-1.9608,-3.9744
-0.12579,-10.667,-13.008,-4.5955,-4.5752,-4.1626,-7.7295,-7.1498,-5.2427,-4.5955,-4.5752,-11.881,-7.5829,-7.0476,-6.2222,-9.6618,-9.6618,8.2051,-0.57143,-1.9608,-2.6923
-6.4151,-6.8571,-8.4553,1.2298,0.65359,-10.016,-9.0177,-0.70853,9.644,1.2298,0.65359,-7.9208,-8.2148,-4.5079,-7.4921,-5.153,-7.0853,1.7949,6.4127,-3.9216,1.7949
-4.5283,-3.0476,-4.5528,-7.8317,1.3072,1.0407,1.9324,-1.9968,2.5243,-7.8317,1.3072,-3.9604,-10.111,-3.873,-7.4921,-3.8647,-5.153,1.7949,3.2381,-8.4967,1.1538
6.7925,-1.1429,3.9024,2.5243,7.1895,2.9919,1.2882,-9.0821,8.9968,2.5243,7.1895,2.6403,-2.5276,1.2063,2.6667,0.64412,3.2206,-5.2564,5.1429,-1.3072,6.2821
3.0189,-1.1429,7.8049,10.939,3.268,11.447,3.8647,6.3768,7.7023,10.939,3.268,5.2805,0.63191,3.746,5.2063,1.2882,5.153,-11.026,8.3175,1.9608,9.4872
9.9371,-1.7778,7.1545,1.2298,1.9608,0.39024,1.9324,-8.438,-0.06472,1.2298,1.9608,7.9208,-0.63191,1.8413,5.8413,0.64412,3.8647,1.1538,4.5079,-0.65359,6.9231
13.082,24.889,19.511999,9.644,6.5359,21.202999,29.629999,5.7327,-13.657,9.644,6.5359,17.822001,8.2148,12.0,15.365,16.103001,17.391001,-2.0513,9.5873,3.268,13.333
11.195,10.286,18.211,2.5243,4.5752,22.504,7.7295,1.868,9.644,2.5243,4.5752,14.521,7.5829,10.73,12.825,13.527,16.747,-9.1026,7.0476,1.3072,10.769
11.195,22.349001,22.114,8.9968,7.1895,0.39024,10.306,1.2238,13.528,8.9968,7.1895,16.502001,9.4787,10.73,14.095,18.035,21.256001,-3.3333,7.0476,1.3072,9.4872
16.226,16.635,29.268,9.644,13.072,22.504,18.035,6.3768,5.1133,9.644,13.072,23.761999,9.4787,9.4603,17.27,16.747,24.476999,1.1538,5.1429,1.3072,7.5641
14.34,3.3016,24.715,14.822,8.4967,-4.1626,5.7971,12.818,4.466,14.822,8.4967,21.122,8.2148,8.1905,14.73,10.95,19.323999,-4.6154,1.9683,-2.6144,5.0
11.195,13.46,22.114,14.175,16.993,31.610001,19.323999,3.8003,12.88,14.175,16.993,25.083,10.111,10.73,10.286,10.95,14.815,-0.12821,5.7778,3.268,9.4872
20.0,17.905001,18.211,8.3495,9.8039,17.301001,16.747,4.4444,12.233,8.3495,9.8039,23.101999,12.638,12.635,10.921,12.238,12.238,4.359,7.6825,5.2288,8.8462
3.0189,10.921,8.4553,5.1133,8.4967,12.098,7.0853,9.5974,12.88,5.1133,8.4967,15.182,8.8468,8.1905,0.7619,7.7295,5.153,4.359,4.5079,1.3072,5.641
-2.0126,5.8413,-0.65041,-7.8317,-5.2288,8.1951,3.2206,-0.06441,-7.1845,-7.8317,-5.2288,3.9604,3.7915,-0.06349,-3.6825,-1.9324,-3.8647,-4.6154,-9.4603,0.65359,-5.8974
1.1321,3.9365,-1.9512,7.055,-0.65359,-6.1138,-1.2882,7.6651,-5.89,7.055,-0.65359,3.9604,3.7915,-2.6032,-3.0476,-5.7971,-5.153,8.8462,-16.444,3.268,-9.1026
-7.044,-14.476,-11.707,3.1715,-7.1895,5.5935,-7.0853,3.8003,-22.718,3.1715,-7.1895,-4.6205,-3.7915,-9.5873,-10.032,-14.815,-13.527,7.5641,-20.889,1.3072,-15.513
-2.6415,-22.094999,-16.910999,-7.8317,-13.725,-6.7642,-20.612,-3.9291,-11.715,-7.8317,-13.725,-16.502001,-5.0553,-10.222,-7.4921,-16.747,-14.815,6.9231,-22.794001,4.5752,-16.795
-2.6415,-18.921,-18.211,-6.5372,-20.261,-23.674999,-28.341,7.0209,-28.544001,-6.5372,-20.261,-22.441999,-8.2148,-13.397,-6.2222,-18.035,-15.459,13.974,-28.507999,5.2288,-20.0
6.7925,-7.4921,-13.659,-10.421,-18.954,9.4959,-12.238,-1.9968,-33.722,-10.421,-18.954,-15.182,-8.2148,-12.127,-2.4127,-12.882,-11.594,8.8462,-22.159,8.4967,-16.795
-5.7862,-13.206,-12.358,-5.2427,-18.954,-9.3659,-19.968,4.4444,-24.66,-5.2427,-18.954,-16.502001,-10.111,-10.857,-6.8571,-10.95,-10.306,3.0769,-18.983999,1.3072,-14.231
0.50314,2.6667,2.6016,-7.1845,-11.111,-1.561,6.4412,-1.9968,-20.129,-7.1845,-11.111,1.3201,-7.5829,-7.6825,-1.1429,-3.8647,0.0,4.359,-11.365,1.9608,-10.385
1.1321,-6.8571,-1.3008,-6.5372,-7.1895,-4.813,-7.0853,-3.9291,-16.246,-6.5372,-7.1895,-1.3201,-9.4787,-9.5873,-3.0476,-6.4412,-2.5765,-2.6923,-12.0,-0.65359,-12.949
1.1321,-10.032,-1.9512,0.58252,-4.5752,8.8455,-13.527,5.0886,0.58252,0.58252,-4.5752,0.0,-4.4234,-5.7778,-1.7778,-4.5089,-0.64412,-1.4103,-7.5556,0.65359,-8.4615
5.5346,-1.7778,4.5528,5.7605,0.65359,18.601999,3.8647,3.8003,8.3495,5.7605,0.65359,5.2805,-2.5276,-5.7778,3.3016,-3.2206,2.5765,3.0769,-7.5556,3.268,-7.8205
4.2767,-1.1429,6.5041,-4.5955,0.0,-4.813,-5.153,0.57971,3.8188,-4.5955,0.0,1.3201,-1.2638,-2.6032,5.8413,0.64412,5.7971,-0.76923,-1.2063,1.9608,-3.3333
9.9371,3.9365,8.4553,5.1133,1.3072,2.3415,4.5089,-3.9291,-5.2427,5.1133,1.3072,5.2805,6.951,3.1111,10.286,2.5765,9.6618,7.5641,-1.8413,3.9216,-0.12821
11.824,0.12698,7.1545,-4.5955,-3.9216,23.805,2.5765,-12.303,3.8188,-4.5955,-3.9216,5.2805,9.4787,4.381,10.286,1.2882,7.7295,-6.5385,0.06349,3.9216,0.51282
2.3899,2.0317,7.1545,-5.89,0.65359,-10.016,1.2882,-4.5733,1.877,-5.89,0.65359,0.0,13.27,10.095,9.0159,2.5765,8.3736,-6.5385,5.1429,3.268,8.8462
2.3899,23.618999,9.1057,-1.3592,0.65359,-15.22,30.274,-9.0821,-29.837999,-1.3592,0.65359,1.9802,15.798,15.81,9.6508,9.6618,9.6618,-10.385,8.9524,1.9608,12.051
-0.12579,14.095,5.2033,-0.06472,11.111,2.9919,9.6618,-5.8615,20.646999,-0.06472,11.111,5.2805,17.062,20.254,3.9365,10.306,5.153,-20.0,17.205999,-0.65359,19.743999
-10.818,-1.1429,0.65041,-1.3592,5.8824,-5.4634,0.0,-20.676001,22.589001,-1.3592,5.8824,-1.3201,13.902,17.079,-1.1429,3.8647,-0.64412,-4.6154,15.302,-1.3072,14.615
0.50314,7.746,9.1057,-3.301,9.8039,5.5935,16.103001,-11.014,10.291,-3.301,9.8039,7.9208,17.062,17.079,7.1111,5.7971,6.4412,-4.6154,14.032,3.268,15.256
8.0503,10.921,8.4553,-2.6537,7.8431,-36.682999,12.882,-9.7262,25.825001,-2.6537,7.8431,3.3003,18.957001,18.349001,13.46,9.0177,10.95,-10.385,12.762,8.4967,16.538
-2.6415,3.3016,1.3008,-8.479,0.0,2.9919,3.2206,-14.879,-2.6537,-8.479,0.0,-6.6007,13.902,15.81,7.746,8.3736,7.7295,-0.12821,6.4127,2.6144,12.051
0.50314,10.921,7.1545,-10.421,-1.3072,9.4959,1.9324,-11.014,-0.06472,-10.421,-1.3072,-1.9802,14.534,16.444,9.0159,14.171,11.594,-3.9744,8.9524,4.5752,14.615
3.0189,26.159,10.407,-13.657,6.5359,-6.7642,30.917999,-9.0821,2.5243,-13.657,6.5359,5.9406,6.3191,10.73,2.6667,15.459,9.6618,-1.4103,8.9524,0.0,12.051
-12.075,3.9365,-6.5041,3.1715,6.5359,2.9919,-1.9324,-11.014,12.233,3.1715,6.5359,-7.2607,-3.1596,3.1111,-9.3968,5.153,-3.8647,-3.9744,7.0476,-5.2288,4.359
-7.673,-11.302,-13.008,7.7023,3.9216,-14.569,-14.815,-3.9291,13.528,7.7023,3.9216,-7.9208,-4.4234,-0.69841,-9.3968,-3.8647,-10.306,-3.9744,-0.57143,-1.3072,0.51282
-2.6415,2.6667,-3.9024,8.3495,4.5752,-30.179001,7.0853,5.7327,-5.89,8.3495,4.5752,0.66007,-3.7915,-2.6032,-3.6825,-1.2882,-5.7971,5.641,-6.9206,1.3072,-1.4103
1.761,-2.4127,2.6016,-6.5372,-1.9608,5.5935,-5.153,-1.3527,-5.2427,-6.5372,-1.9608,0.0,-2.5276,-1.3333,1.3968,0.64412,0.64412,9.4872,-6.2857,0.65359,-3.3333
11.195,5.8413,13.659,-2.6537,7.8431,1.0407,10.95,-5.8615,-2.0065,-2.6537,7.8431,11.221,-1.2638,-1.9683,6.4762,4.5089,6.4412,8.2051,-6.2857,1.3072,-1.4103
9.3082,7.746,11.707,2.5243,2.6144,-10.667,-1.2882,0.57971,-8.479,2.5243,2.6144,9.2409,-2.5276,-2.6032,4.5714,3.8647,3.2206,3.7179,-9.4603,2.6144,-3.9744
4.2767,7.746,4.5528,18.058001,9.8039,30.959,17.391001,12.818,-20.777,18.058001,9.8039,13.861,-3.7915,-3.873,0.12698,1.2882,-1.9324,3.0769,-8.1905,2.6144,-3.3333
5.5346,-1.1429,0.0,9.644,3.9216,12.098,0.64412,15.395,-2.0065,9.644,3.9216,9.901,-2.5276,-5.1429,2.6667,-1.9324,-3.8647,1.7949,-10.73,1.3072,-9.1026
11.195,3.3016,6.5041,16.764,14.379,2.3415,7.0853,10.886,1.877,16.764,14.379,18.482,3.1596,-1.3333,7.746,-1.2882,0.64412,11.41,-6.2857,6.5359,-4.6154
5.5346,-4.9524,0.0,3.8188,2.6144,24.455,1.9324,-1.3527,-9.1262,3.8188,2.6144,8.5809,1.2638,-4.5079,5.2063,-6.4412,-3.8647,-3.3333,-10.73,5.2288,-7.8205
1.1321,-13.841,-3.9024,-1.3592,0.0,-4.813,-11.594,0.57971,-2.0065,-1.3592,0.0,-0.66007,2.5276,-3.873,3.9365,-10.306,-4.5089,1.7949,-8.8254,3.268,-7.1795
-0.75472,-2.4127,1.3008,-5.89,-1.9608,-2.8618,-3.2206,-5.8615,-9.7735,-5.89,-1.9608,0.0,6.3191,0.57143,4.5714,-4.5089,0.0,-1.4103,-8.8254,2.6144,-3.3333
-3.2704,-2.4127,0.0,-1.3592,-1.3072,-13.919,-2.5765,-17.455999,-2.0065,-1.3592,-1.3072,0.66007,4.4234,0.57143,2.0317,-4.5089,0.64412,-3.9744,-5.0159,-1.3072,-0.12821
4.2767,-1.7778,1.9512,-6.5372,-1.3072,-3.5122,0.0,-15.523,-7.8317,-6.5372,-1.3072,0.66007,5.0553,0.57143,5.8413,-5.153,3.2206,-2.6923,-4.381,-1.3072,-3.3333
-1.3836,-10.667,0.65041,-4.5955,1.9608,0.39024,-5.7971,-5.8615,5.1133,-4.5955,1.9608,-1.3201,3.1596,1.2063,1.3968,-3.8647,3.2206,-8.4615,0.69841,-2.6144,-0.12821
-5.1572,6.4762,6.5041,10.291,9.1503,-5.4634,21.256001,6.3768,-15.599,10.291,9.1503,7.2607,0.0,2.4762,-4.9524,1.9324,5.153,-9.1026,2.6032,-9.1503,3.0769
0.50314,6.4762,12.358,17.410999,15.033,12.748,3.8647,2.5121,10.291,17.410999,15.033,10.561,4.4234,6.9206,0.12698,10.95,12.882,-5.8974,8.3175,-2.6144,5.0
9.3082,20.444,22.764,15.469,19.608,27.056999,16.747,-0.70853,20.0,15.469,19.608,18.482,6.951,10.095,5.8413,21.256001,20.612,2.4359,14.667,0.65359,11.41
20.629,21.079,22.764,18.705999,18.954,18.601999,16.747,14.75,8.9968,18.705999,18.954,21.122,6.951,8.1905,12.825,20.612,21.256001,2.4359,12.762,3.9216,9.4872
25.031,14.73,18.862,25.825001,19.608,12.748,7.7295,18.615,5.7605,25.825001,19.608,16.502001,8.8468,7.5556,20.444,17.391001,20.612,12.051,9.5873,11.765,8.2051
28.805,23.618999,24.715,26.472,20.915001,16.65,11.594,16.039,18.058001,26.472,20.915001,17.822001,15.166,12.635,28.698,25.121,27.052999,17.179001,17.205999,16.993,13.974
25.66,20.444,22.764,21.294001,27.451,29.007999,9.6618,13.462,14.822,21.294001,27.451,21.122,10.742,8.8254,23.618999,21.9,22.544001,20.385,15.937,14.379,11.41
15.597,14.73,15.61,23.882999,19.608,12.748,6.4412,14.75,5.7605,23.882999,19.608,11.881,5.6872,4.381,18.540001,16.103001,15.459,10.128,8.3175,13.072,5.641
20.0,8.381,11.057,27.767,20.261,13.398,5.153,20.548,5.7605,27.767,20.261,9.901,5.0553,0.57143,18.540001,9.0177,10.306,13.974,8.3175,15.033,4.359
6.7925,-8.127,-4.5528,10.939,11.111,-9.3659,-9.0177,10.242,5.7605,10.939,11.111,-2.6403,-1.8957,-8.3175,8.381,-4.5089,-3.2206,13.974,-3.746,9.1503,-8.4615
5.5346,-0.50794,-3.9024,15.469,15.033,13.398,0.64412,5.7327,0.58252,15.469,15.033,2.6403,-1.8957,-7.0476,6.4762,-2.5765,-1.9324,13.974,-3.746,7.1895,-7.1795
3.0189,0.12698,-3.9024,15.469,11.111,18.601999,5.7971,20.548,-13.01,15.469,11.111,3.3003,-3.1596,-8.9524,3.9365,-5.153,-3.8647,4.359,-6.2857,4.5752,-8.4615
2.3899,-8.127,-5.2033,14.822,12.418,-4.813,-2.5765,3.8003,-4.5955,14.822,12.418,-0.66007,-6.3191,-9.5873,-2.4127,-9.6618,-7.7295,4.359,-3.746,0.65359,-6.5385
-7.673,-2.4127,-5.2033,7.055,11.765,-13.919,-5.7971,10.242,8.3495,7.055,11.765,-1.9802,-6.951,-9.5873,-8.127,-10.95,-9.0177,1.7949,-3.1111,-2.6144,-7.8205
-9.5597,0.7619,-2.6016,16.117001,11.765,-23.024,12.882,16.039,-14.304,16.117001,11.765,2.6403,-9.4787,-10.222,-13.206,-10.95,-9.6618,-3.9744,-4.381,-6.5359,-9.1026
-15.849,-11.937,-6.5041,7.055,10.458,7.5447,-3.8647,0.57971,-2.0065,7.055,10.458,0.0,-11.374,-10.222,-20.825001,-14.815,-14.171,-12.308,-3.1111,-13.725,-9.1026
-21.509001,-6.2222,-7.8049,16.764,9.8039,8.1951,-3.2206,5.7327,-0.06472,16.764,9.8039,3.9604,-10.742,-8.3175,-26.540001,-12.238,-15.459,-12.949,-4.381,-16.34,-6.5385
-11.447,9.6508,-3.252,6.4078,13.072,8.8455,25.121,-3.285,-9.1262,6.4078,13.072,9.901,-8.2148,-3.2381,-24.0,-1.9324,-10.306,-16.153999,1.3333,-16.34,-0.12821
-18.365,0.7619,-2.6016,6.4078,13.072,13.398,1.9324,-0.06441,11.586,6.4078,13.072,5.2805,0.0,5.6508,-17.650999,3.2206,-4.5089,-4.6154,10.857,-9.1503,7.5641
-14.591,3.3016,-1.9512,19.353001,11.111,-10.016,2.5765,5.0886,8.9968,19.353001,11.111,-0.66007,-1.2638,4.381,-13.206,5.153,-2.5765,-11.026,8.9524,-9.8039,5.641
-6.4151,12.19,-1.9512,7.055,10.458,5.5935,7.0853,-3.9291,8.9968,7.055,10.458,0.0,1.8957,6.9206,-4.3175,11.594,1.2882,-7.8205,13.397,-5.2288,9.4872
-2.6415,16.0,-4.5528,-3.9482,7.1895,-43.187,3.8647,1.868,-3.9482,-3.9482,7.1895,-5.2805,3.7915,5.0159,3.3016,11.594,2.5765,-5.8974,4.5079,0.65359,6.9231
-2.0126,3.9365,-9.1057,-9.7735,-11.111,-13.919,-3.2206,-14.879,-3.9482,-9.7735,-11.111,-15.842,1.8957,-0.06349,5.8413,8.3736,1.9324,1.7949,1.3333,0.65359,-0.12821
7.4214,10.921,-5.8537,-27.896,-16.993,-8.7154,-1.2882,-19.388,-13.657,-27.896,-16.993,-16.502001,0.63191,-1.9683,10.286,10.95,6.4412,19.103001,-1.8413,3.268,-3.9744
-3.2704,-3.6825,-14.309,-16.893,-23.528999,-14.569,-16.747,-3.9291,-24.66,-16.893,-23.528999,-23.101999,-4.4234,-8.3175,4.5714,3.2206,-1.9324,1.1538,-3.746,0.65359,-11.026
4.2767,-11.937,-9.7561,-1.3592,-13.725,-9.3659,-19.968,6.3768,-9.7735,-1.3592,-13.725,-17.162001,0.0,-4.5079,10.286,3.8647,1.9324,2.4359,0.06349,5.2288,-4.6154
13.082,-4.3175,-1.3008,-7.8317,-13.072,0.39024,-16.103001,3.8003,-2.0065,-7.8317,-13.072,-11.881,8.2148,3.746,19.809999,9.0177,9.6618,9.4872,0.69841,11.765,2.4359
13.082,-1.7778,4.5528,-1.3592,-1.3072,11.447,-5.153,12.174,-1.3592,-1.3592,-1.3072,0.0,11.374,7.5556,19.809999,9.0177,12.238,12.051,9.5873,12.418,8.2051
16.226,-3.0476,5.2033,-7.8317,-1.3072,-14.569,0.64412,-9.0821,1.877,-7.8317,-1.3072,1.3201,8.8468,5.0159,17.27,4.5089,8.3736,10.128,10.857,11.111,6.2821
4.2767,0.12698,3.252,-5.2427,4.5752,15.35,12.882,3.8003,12.233,-5.2427,4.5752,10.561,5.6872,1.8413,7.1111,-1.9324,0.0,2.4359,10.222,7.1895,4.359
-0.12579,-1.1429,3.252,14.175,7.8431,9.4959,18.68,17.327,27.120001,14.175,7.8431,12.541,5.0553,-0.06349,0.7619,-6.4412,-3.8647,4.359,14.667,6.5359,3.7179
-3.2704,5.8413,3.252,3.8188,2.6144,1.0407,19.323999,18.615,10.291,3.8188,2.6144,11.881,2.5276,-0.69841,-6.2222,-5.7971,-7.7295,5.0,14.032,2.6144,3.0769
-8.3019,7.746,1.9512,-6.5372,-0.65359,8.8455,9.6618,2.5121,14.822,-6.5372,-0.65359,10.561,-1.8957,-0.69841,-13.206,-3.8647,-10.306,0.51282,8.3175,-3.9216,3.7179
-7.673,-0.50794,-3.252,-5.89,-0.65359,-0.91057,1.2882,5.0886,12.233,-5.89,-0.65359,6.6007,-2.5276,1.8413,-17.016001,0.0,-9.0177,-3.9744,13.397,-5.8824,6.9231
-18.993999,2.6667,-9.7561,4.466,2.6144,21.202999,4.5089,3.1562,21.941999,4.466,2.6144,4.6205,-5.6872,3.1111,-23.365,5.7971,-9.0177,-11.667,14.032,-12.418,7.5641
-13.333,7.746,-8.4553,-2.0065,-4.5752,-0.26016,-3.2206,5.7327,12.233,-2.0065,-4.5752,-3.3003,-4.4234,5.0159,-17.016001,9.6618,-5.153,-6.5385,11.492,-10.458,8.8462
-10.189,1.3968,-6.5041,-16.893,-13.725,-17.820999,-5.153,-3.285,-9.1262,-16.893,-13.725,-7.9208,-4.4234,1.8413,-13.206,3.8647,-4.5089,-3.3333,5.7778,-9.1503,5.0
-12.704,-2.4127,-5.8537,-16.893,-16.34,-31.48,-11.594,-13.591,5.7605,-16.893,-16.34,-11.881,-5.6872,-0.06349,-11.937,-0.64412,-5.7971,-2.6923,0.06349,-12.418,1.7949
-4.5283,2.6667,-5.8537,-9.1262,-15.033,7.5447,1.9324,2.5121,-3.301,-9.1262,-15.033,-7.9208,-2.5276,-0.69841,-6.2222,-3.2206,-5.7971,-7.8205,1.3333,-6.5359,1.1538
-15.849,-17.650999,-18.862,-25.955,-23.528999,-13.268,-22.544001,-9.0821,3.8188,-25.955,-23.528999,-22.441999,-5.6872,-5.1429,-11.302,-12.238,-14.171,-4.6154,0.06349,-7.8431,-5.2564
-15.22,-7.4921,-16.910999,-20.777,-15.686,-38.633999,-7.7295,-16.167,-4.5955,-20.777,-15.686,-21.782,-6.3191,-4.5079,-11.302,-9.6618,-12.238,-0.12821,1.9683,-6.5359,-2.0513
-13.962,-7.4921,-18.211,-22.718,-23.528999,-10.016,-8.3736,-13.591,-9.1262,-22.718,-23.528999,-24.422001,-11.374,-10.857,-10.667,-15.459,-17.391001,-6.5385,-1.8413,-6.5359,-9.1026
-12.075,-20.825001,-20.813,-24.66,-18.301001,-19.771999,-14.171,-16.167,13.528,-24.66,-18.301001,-22.441999,-10.111,-10.857,-11.302,-22.544001,-21.256001,2.4359,-0.57143,-1.3072,-9.1026
-17.107,-33.523998,-31.219999,-27.249001,-24.183001,-12.618,-28.341,-18.743999,-2.0065,-27.249001,-24.183001,-25.083,-13.902,-17.205999,-14.476,-31.562,-28.986,-4.6154,-7.5556,-3.9216,-14.872
-12.704,-18.921,-21.462999,-20.129,-18.954,-14.569,-10.95,-13.591,-5.89,-20.129,-18.954,-20.462,-11.374,-14.032,-10.032,-22.544001,-19.323999,-0.76923,-6.2857,0.65359,-11.667
-9.5597,-14.476,-14.959,-15.599,-20.261,-10.016,-19.968,-14.879,-3.9482,-15.599,-20.261,-20.462,-8.8468,-10.222,-7.4921,-16.103001,-13.527,-3.3333,-5.0159,0.0,-7.1795
-10.189,-4.9524,-11.057,-14.304,-16.993,-19.122,-16.747,-1.3527,1.2298,-14.304,-16.993,-16.502001,-6.951,-5.1429,-6.8571,-8.3736,-9.6618,-11.667,3.873,1.3072,-0.76923
-8.9308,-10.032,-9.7561,-15.599,-13.072,-27.577,-12.238,-7.1498,5.7605,-15.599,-13.072,-13.861,-6.3191,-2.6032,-7.4921,-7.0853,-8.3736,-2.0513,6.4127,0.65359,1.1538
-3.2704,-5.5873,-5.2033,-20.777,-14.379,2.3415,-12.238,-9.0821,-5.2427,-20.777,-14.379,-11.221,-5.6872,-0.06349,-3.0476,-2.5765,-2.5765,-5.2564,0.69841,-1.3072,3.0769
1.761,4.5714,3.252,-11.068,-12.418,-2.2114,-5.7971,-14.235,-9.1262,-11.068,-12.418,-4.6205,-1.2638,5.0159,2.6667,5.7971,5.153,-1.4103,3.2381,1.9608,8.2051
-4.5283,0.7619,0.65041,-6.5372,-20.261,-8.7154,-13.527,-11.014,-6.5372,-6.5372,-20.261,-8.5809,-1.2638,5.6508,0.12698,5.7971,4.5089,-11.667,2.6032,-1.9608,9.4872
3.0189,11.556,6.5041,-6.5372,-15.033,5.5935,-3.2206,-7.1498,-1.3592,-6.5372,-15.033,-3.3003,-0.63191,7.5556,0.7619,9.6618,5.7971,-9.7436,2.6032,-3.9216,11.41
-7.044,5.8413,1.3008,-15.599,-12.418,-4.813,-11.594,0.57971,-7.1845,-15.599,-12.418,-5.2805,-2.5276,6.2857,-6.2222,9.0177,1.9324,-12.308,7.0476,-4.5752,9.4872
-7.673,-4.9524,-6.5041,-10.421,-15.033,-6.7642,-12.238,-7.7939,-14.304,-10.421,-15.033,-7.9208,-10.111,-0.06349,-11.937,0.0,-3.8647,-10.385,-5.6508,-11.765,2.4359
-2.6415,-18.921,-5.2033,-16.246,-15.686,-9.3659,-9.6618,-11.659,-4.5955,-16.246,-15.686,-1.9802,-15.798,-10.857,-11.937,-14.815,-10.306,-7.8205,-14.54,-14.379,-7.8205
1.761,-8.7619,6.5041,-8.479,-3.9216,-0.91057,9.0177,-1.3527,-14.304,-8.479,-3.9216,10.561,-15.166,-9.5873,-10.667,-14.815,-7.7295,-4.6154,-12.635,-13.072,-5.2564
-10.818,-17.650999,-1.9512,-8.479,-13.725,2.9919,-12.882,2.5121,-1.3592,-8.479,-13.725,0.66007,-12.006,-7.0476,-13.841,-12.882,-9.0177,-2.6923,-16.444,-12.418,-7.1795
-10.818,1.3968,-3.252,-7.1845,-9.1503,0.39024,2.5765,1.2238,-11.715,-7.1845,-9.1503,-1.9802,-1.2638,1.8413,-10.032,-0.64412,-1.9324,-2.6923,-9.4603,-5.8824,1.7949
-13.333,-4.3175,-9.1057,-18.188,-19.608,-8.065,-15.459,-5.8615,-11.715,-18.188,-19.608,-13.201,0.63191,2.4762,-8.7619,-0.64412,-4.5089,-6.5385,-13.27,-5.2288,-1.4103
-5.1572,7.746,-5.2033,-23.365999,-18.954,-15.22,-8.3736,-15.523,-13.657,-23.365999,-18.954,-14.521,5.0553,4.381,-3.0476,3.2206,0.0,1.7949,-13.27,0.65359,1.1538
-9.5597,4.5714,-5.8537,-22.070999,-20.261,-10.016,1.2882,-21.965,-25.955,-22.070999,-20.261,-13.201,8.8468,6.9206,-1.1429,6.4412,2.5765,-0.76923,-12.0,5.8824,0.51282
5.5346,-10.032,-5.8537,-11.715,-16.993,-19.122,-16.747,-6.5056,-13.657,-11.715,-16.993,-17.822001,12.638,8.1905,7.1111,4.5089,5.153,-5.2564,-12.0,13.725,2.4359
-7.673,-17.016001,-10.407,-12.362,-15.033,-4.813,-28.986,-6.5056,-3.301,-12.362,-15.033,-19.142,9.4787,4.381,2.0317,-5.7971,0.0,-2.0513,-15.175,8.4967,-3.9744
-1.3836,-17.650999,-5.8537,-13.657,-13.072,-2.2114,-13.527,-9.7262,-16.893,-13.657,-13.072,-10.561,7.5829,1.2063,5.8413,-11.594,0.0,6.2821,-18.983999,10.458,-8.4615
7.4214,-12.571,2.6016,-13.01,-9.1503,1.0407,-11.594,7.0209,-13.657,-13.01,-9.1503,-4.6205,7.5829,0.57143,10.286,-8.3736,4.5089,5.641,-16.444,11.111,-7.8205
3.6478,-9.3968,1.3008,-7.8317,-10.458,-5.4634,-7.0853,1.2238,-14.951,-7.8317,-10.458,-5.2805,3.1596,-2.6032,7.1111,-7.0853,3.2206,0.51282,-15.175,7.1895,-9.7436
4.2767,-8.7619,0.65041,3.8188,-5.8824,-6.1138,-3.8647,-5.2174,-14.304,3.8188,-5.8824,-1.9802,-0.63191,-3.2381,3.9365,-7.7295,-1.2882,2.4359,-12.0,5.2288,-7.1795
11.195,0.7619,6.5041,3.1715,3.268,-0.91057,5.153,0.57971,1.877,3.1715,3.268,9.2409,1.2638,-0.06349,7.746,-1.9324,3.2206,0.51282,-6.9206,3.9216,-3.9744
6.1635,-1.7778,4.5528,-3.301,-3.268,2.3415,-0.64412,1.868,-2.6537,-3.301,-3.268,3.9604,-2.5276,-3.2381,4.5714,-2.5765,2.5765,-3.3333,-8.1905,1.9608,-3.9744
6.1635,5.8413,12.358,2.5243,-1.3072,2.3415,6.4412,11.53,1.877,2.5243,-1.3072,11.221,0.0,-0.06349,7.1111,3.2206,8.3736,-0.76923,-4.381,4.5752,-1.4103
7.4214,12.19,16.26,8.9968,6.5359,22.504,17.391001,8.9533,-0.06472,8.9968,6.5359,16.502001,-0.63191,-0.69841,3.9365,3.8647,9.0177,0.51282,-3.746,-0.65359,-0.12821
3.0189,-4.9524,9.1057,10.939,5.8824,14.699,-1.2882,16.683001,-2.0065,10.939,5.8824,10.561,-3.1596,-3.873,-1.7778,-3.2206,2.5765,5.0,-5.0159,-2.6144,-5.8974
5.5346,-2.4127,11.707,18.058001,14.379,4.2927,5.7971,8.9533,12.88,18.058001,14.379,14.521,-3.7915,-3.873,-1.1429,-1.2882,3.8647,0.51282,-1.8413,-3.268,-2.6923
2.3899,3.3016,4.5528,-0.71197,1.9608,19.252001,9.6618,3.8003,10.939,-0.71197,1.9608,7.2607,-5.0553,-5.1429,-1.1429,-1.2882,0.64412,3.0769,-3.746,-5.8824,-2.6923
-2.0126,-1.7778,-0.65041,-3.301,6.5359,-0.91057,3.8647,4.4444,2.5243,-3.301,6.5359,4.6205,-1.8957,-2.6032,0.12698,0.0,1.2882,6.9231,0.69841,-1.3072,-0.76923
4.2767,5.8413,0.65041,-0.71197,-0.65359,-16.52,-0.64412,12.818,3.1715,-0.71197,-0.65359,0.0,1.2638,1.2063,7.1111,5.153,3.8647,-0.76923,1.9683,0.0,1.7949
3.0189,7.1111,3.252,13.528,0.65359,12.748,3.8647,4.4444,4.466,13.528,0.65359,3.9604,5.0553,3.1111,8.381,5.7971,5.153,1.1538,1.3333,3.268,3.7179
0.50314,4.5714,0.0,6.4078,5.2288,11.447,7.7295,2.5121,14.822,6.4078,5.2288,4.6205,6.3191,1.2063,7.1111,4.5089,3.8647,4.359,2.6032,3.9216,3.0769
1.1321,-0.50794,-9.1057,-4.5955,-2.6144,1.6911,-5.153,-0.70853,1.877,-4.5955,-2.6144,-7.9208,8.8468,3.746,8.381,1.2882,0.64412,3.0769,-1.2063,8.4967,1.7949
-0.75472,-8.127,-11.057,-7.8317,-4.5752,-10.016,-11.594,-1.9968,8.3495,-7.8317,-4.5752,-13.201,12.006,5.6508,8.381,0.0,0.0,1.1538,5.1429,11.111,4.359
1.761,-3.0476,-6.5041,-9.1262,-3.9216,-0.26016,-0.64412,-8.438,5.1133,-9.1262,-3.9216,-8.5809,9.4787,5.0159,7.1111,0.64412,0.64412,7.5641,5.1429,6.5359,4.359
6.1635,-8.7619,-1.9512,0.58252,0.0,-4.813,-5.153,1.2238,3.1715,0.58252,0.0,-3.3003,8.8468,4.381,9.6508,-2.5765,1.2882,5.0,2.6032,9.1503,3.0769
-2.6415,-4.3175,0.0,3.8188,-0.65359,-17.171,-1.9324,1.868,-0.71197,3.8188,-0.65359,-0.66007,4.4234,3.746,3.3016,-3.2206,-1.2882,-2.0513,3.873,5.2288,3.0769
-7.044,-9.3968,-6.5041,5.7605,5.2288,8.1951,-5.153,-2.6409,9.644,5.7605,5.2288,3.3003,-4.4234,-1.9683,-8.7619,-7.7295,-10.306,-3.9744,3.873,-1.3072,1.1538
-5.7862,9.0159,-1.3008,7.7023,9.8039,10.797,21.256001,8.9533,-5.89,7.7023,9.8039,10.561,-6.3191,-2.6032,-10.667,-1.2882,-7.0853,3.7179,1.3333,-3.9216,-2.6923
-0.75472,-1.1429,-2.6016,-7.1845,7.1895,0.39024,-0.64412,-13.591,27.767,-7.1845,7.1895,4.6205,-6.3191,-1.9683,-8.7619,0.64412,-3.2206,-0.76923,8.3175,-5.2288,-1.4103
1.1321,7.1111,3.252,6.4078,3.268,9.4959,-0.64412,-0.06441,14.822,6.4078,3.268,1.9802,-1.2638,3.746,0.7619,8.3736,5.153,-16.153999,12.127,-3.9216,1.1538
8.0503,14.095,13.659,12.88,10.458,8.8455,12.882,4.4444,-0.71197,12.88,10.458,13.861,2.5276,3.1111,7.746,7.7295,9.0177,0.51282,3.2381,1.3072,0.51282
2.3899,7.746,9.7561,-3.301,1.9608,1.0407,7.7295,-5.8615,1.877,-3.301,1.9608,7.9208,-0.63191,1.2063,5.2063,5.153,5.153,-6.5385,2.6032,-0.65359,-0.76923
2.3899,-0.50794,2.6016,3.1715,4.5752,6.2439,0.64412,-3.285,4.466,3.1715,4.5752,3.9604,3.1596,6.9206,5.2063,5.7971,4.5089,1.1538,6.4127,0.0,4.359
0.50314,-1.7778,-4.5528,-7.8317,-2.6144,-12.618,-5.153,0.57971,-1.3592,-7.8317,-2.6144,-3.3003,3.1596,5.6508,6.4762,0.0,0.64412,8.2051,-0.57143,0.0,-0.12821
6.7925,7.1111,0.65041,-0.71197,-1.9608,-7.4146,18.68,3.1562,-28.544001,-0.71197,-1.9608,0.0,3.7915,6.9206,10.286,0.64412,3.8647,1.7949,-5.0159,1.3072,1.7949
1.1321,-7.4921,-1.9512,8.9968,0.65359,-6.7642,-8.3736,7.6651,2.5243,8.9968,0.65359,-5.2805,3.7915,8.8254,7.1111,0.0,2.5765,-0.12821,-1.8413,2.6144,3.7179
-5.1572,-12.571,-5.2033,-0.06472,-5.2288,-8.7154,-15.459,1.868,-3.9482,-0.06472,-5.2288,-10.561,1.2638,8.8254,-0.50794,-1.2882,1.2882,-2.0513,-1.8413,-1.9608,4.359
-2.6415,4.5714,4.5528,-6.5372,-8.4967,-11.967,-2.5765,-10.37,-20.129,-6.5372,-8.4967,-6.6007,4.4234,12.0,0.7619,7.0853,9.0177,1.1538,-2.4762,-2.6144,8.2051
-3.2704,4.5714,3.9024,-3.301,-6.5359,-6.1138,-14.815,-5.2174,-3.9482,-3.301,-6.5359,-10.561,6.951,13.905,0.7619,11.594,10.306,-2.6923,1.9683,0.0,9.4872
-3.8994,4.5714,0.0,-11.715,-9.8039,1.6911,-7.0853,-10.37,-11.068,-11.715,-9.8039,-11.221,4.4234,12.635,-3.6825,10.306,6.4412,-9.7436,2.6032,-5.2288,10.128
-2.0126,-1.1429,-5.8537,-6.5372,-7.8431,-21.073,-8.3736,-14.879,-5.2427,-6.5372,-7.8431,-11.221,5.6872,12.635,-4.3175,7.7295,3.8647,-3.9744,0.06349,-2.6144,9.4872
-18.993999,-6.2222,-13.659,-1.3592,-6.5359,-15.22,-10.95,0.57971,-9.1262,-1.3592,-6.5359,-14.521,1.2638,8.8254,-15.111,1.2882,-3.8647,-5.2564,0.06349,-6.5359,8.2051
-15.849,-9.3968,-9.7561,-2.0065,-7.8431,-1.561,-18.68,5.0886,-13.01,-2.0065,-7.8431,-13.201,-0.63191,4.381,-13.841,-1.2882,-3.8647,-6.5385,-0.57143,-5.8824,3.7179
-3.8994,-1.7778,-0.65041,-6.5372,-4.5752,-3.5122,-9.0177,-6.5056,-2.6537,-6.5372,-4.5752,-9.901,1.2638,3.746,-4.9524,2.5765,2.5765,-1.4103,-0.57143,-2.6144,3.7179
-3.8994,14.73,1.3008,-16.246,-5.8824,-18.472,0.0,-9.7262,-6.5372,-16.246,-5.8824,-9.2409,2.5276,6.9206,-1.7778,11.594,5.7971,-2.0513,7.0476,0.65359,9.4872
8.6792,-0.50794,-2.6016,-6.5372,-0.65359,8.1951,-1.2882,1.2238,4.466,-6.5372,-0.65359,-3.9604,-1.8957,2.4762,-3.0476,5.153,0.0,12.051,10.857,-2.6144,6.9231
1.761,7.1111,-2.6016,-2.6537,-0.65359,11.447,12.882,-9.0821,-5.89,-2.6537,-0.65359,7.9208,-10.742,-5.7778,-10.032,1.2882,-5.7971,1.1538,1.3333,-9.1503,-2.6923
-1.3836,-0.50794,-1.9512,17.410999,6.5359,-4.813,4.5089,18.615,7.7023,17.410999,6.5359,5.2805,-12.006,-10.222,-10.032,-1.9324,-6.4412,-2.0513,0.06349,-4.5752,-3.9744
5.5346,-6.2222,1.3008,18.058001,2.6144,19.902,-5.153,28.921,8.3495,18.058001,2.6144,6.6007,-8.2148,-9.5873,-2.4127,-3.2206,-4.5089,3.0769,-0.57143,-0.65359,-9.1026
4.9057,0.7619,3.252,12.233,7.8431,5.5935,10.95,10.242,7.055,12.233,7.8431,11.881,-8.2148,-10.857,-3.6825,-7.7295,-7.0853,5.641,-0.57143,-0.65359,-7.1795
2.3899,-6.8571,-1.3008,1.877,5.2288,4.2927,1.2882,16.039,10.291,1.877,5.2288,9.2409,-11.374,-13.397,-6.2222,-12.882,-12.238,9.4872,-0.57143,-1.9608,-7.1795
1.761,-1.1429,-5.8537,3.1715,6.5359,20.552999,18.68,5.0886,-9.1262,3.1715,6.5359,7.9208,-11.374,-13.397,-6.2222,-12.882,-12.238,4.359,-4.381,-5.8824,-11.026
-1.3836,-5.5873,-8.4553,-6.5372,6.5359,2.3415,-3.2206,-12.303,5.7605,-6.5372,6.5359,1.9802,-8.2148,-12.127,-6.8571,-13.527,-10.306,2.4359,-1.2063,-7.8431,-9.1026
-5.7862,-3.6825,-2.6016,16.117001,13.072,-10.016,20.612,14.106,-3.9482,16.117001,13.072,5.2805,-5.6872,-8.3175,-4.9524,-9.6618,-5.7971,2.4359,5.1429,-3.9216,-5.8974
-7.673,-8.127,-1.9512,16.764,15.033,-5.4634,7.0853,17.327,20.646999,16.764,15.033,7.2607,-6.951,-8.3175,-9.3968,-9.6618,-7.0853,-2.6923,10.222,-6.5359,-3.3333
-5.1572,3.9365,0.0,14.822,16.34,13.398,12.238,5.7327,22.589001,14.822,16.34,11.221,-8.2148,-7.6825,-14.476,-5.7971,-8.3736,-6.5385,16.570999,-9.8039,-2.6923
-7.044,12.825,3.9024,16.764,22.222,14.049,32.206001,12.174,16.764,16.764,22.222,19.142,-9.4787,-7.6825,-17.650999,-1.9324,-7.0853,-7.1795,11.492,-12.418,-2.6923
-0.75472,19.174999,11.057,18.058001,24.837,24.455,31.562,2.5121,24.531,18.058001,24.837,24.422001,-4.4234,-0.06349,-11.302,8.3736,1.9324,-9.1026,18.476,-9.1503,4.359
0.50314,14.095,14.309,17.410999,28.105,23.805,25.764999,-0.70853,31.65,17.410999,28.105,27.723,-3.7915,-1.3333,-5.5873,7.0853,4.5089,-2.0513,16.570999,-6.5359,3.7179
2.3899,18.540001,14.959,14.175,19.608,11.447,21.256001,7.6651,17.410999,14.175,19.608,23.761999,-4.4234,-2.6032,-1.1429,8.3736,5.7971,-4.6154,13.397,-5.8824,2.4359
0.50314,18.540001,13.659,9.644,22.222,1.6911,25.121,0.57971,10.939,9.644,22.222,19.802,-2.5276,-1.9683,-0.50794,12.238,6.4412,3.7179,17.205999,-2.6144,5.0
-0.75472,15.365,8.4553,0.58252,7.1895,-0.26016,10.95,-3.9291,12.233,0.58252,7.1895,10.561,-4.4234,-3.2381,0.7619,11.594,3.8647,8.2051,12.762,-4.5752,1.1538
2.3899,10.286,4.5528,4.466,1.3072,1.6911,-2.5765,-2.6409,4.466,4.466,1.3072,-3.9604,-1.2638,-0.69841,5.8413,11.594,5.153,3.7179,9.5873,2.6144,2.4359
-2.6415,2.6667,-6.5041,-7.1845,-10.458,-15.22,-10.95,-4.5733,-6.5372,-7.1845,-10.458,-18.482,0.0,-0.69841,5.2063,6.4412,0.0,-4.6154,5.7778,5.8824,1.1538
3.6478,0.7619,-4.5528,-9.1262,-3.268,-12.618,-6.4412,-3.285,2.5243,-9.1262,-3.268,-9.901,0.0,-1.3333,5.8413,1.9324,-0.64412,6.2821,0.06349,7.1895,-0.12821
-6.4151,3.3016,-5.8537,-4.5955,-7.1895,-4.1626,16.103001,-7.7939,-35.015999,-4.5955,-7.1895,-9.2409,-3.7915,-8.9524,-0.50794,-4.5089,-5.153,-0.12821,-6.9206,3.9216,-9.7436
-7.044,-26.540001,-17.561001,-18.834999,-13.725,-4.1626,-27.052999,-19.388,-10.421,-18.834999,-13.725,-23.101999,-12.638,-18.476,-8.7619,-18.035,-15.459,1.1538,-14.54,-4.5752,-20.0
-10.818,-18.921,-15.61,-19.482,-17.646999,-38.633999,-28.341,-7.1498,-16.893,-19.482,-17.646999,-23.761999,-15.798,-22.921,-11.302,-18.68,-16.103001,-11.667,-17.714001,-7.8431,-24.487
-15.849,-11.302,-17.561001,-9.7735,-18.301001,-34.731998,-13.527,1.2238,-20.777,-9.7735,-18.301001,-21.782,-11.374,-16.570999,-10.032,-14.815,-12.238,-4.6154,-16.444,-7.1895,-18.077
-8.9308,-12.571,-13.659,1.2298,-8.4967,-7.4146,-14.171,-1.9968,2.5243,1.2298,-8.4967,-18.482,-0.63191,-3.2381,-3.0476,-7.7295,-4.5089,-0.12821,-3.746,-2.6144,-5.2564
2.3899,7.746,4.5528,0.58252,1.3072,-12.618,6.4412,-1.3527,6.4078,0.58252,1.3072,0.0,7.5829,6.2857,5.2063,3.2206,6.4412,0.51282,5.1429,2.6144,5.641
9.3082,4.5714,12.358,6.4078,4.5752,-0.26016,5.7971,-1.9968,9.644,6.4078,4.5752,7.2607,11.374,11.365,9.6508,6.4412,11.594,3.0769,12.127,3.9216,11.41
22.516001,5.8413,20.163,0.58252,3.9216,17.301001,13.527,5.7327,-5.89,0.58252,3.9216,17.822001,13.27,10.095,14.095,5.153,14.815,4.359,4.5079,6.5359,8.2051
11.195,17.27,24.065001,15.469,5.8824,19.902,15.459,6.3768,-12.362,15.469,5.8824,24.422001,13.902,10.73,12.19,9.6618,17.391001,-2.0513,1.9683,5.2288,8.8462
6.7925,7.1111,22.114,15.469,5.8824,21.202999,-3.2206,0.57971,5.1133,15.469,5.8824,19.802,17.062,17.079,13.46,15.459,20.612,-4.6154,6.4127,5.2288,13.974
1.761,4.5714,15.61,-2.0065,5.2288,6.2439,-3.8647,-9.7262,-0.06472,-2.0065,5.2288,11.221,15.798,14.54,11.556,14.815,18.035,-5.8974,1.9683,4.5752,12.051
11.195,18.540001,21.462999,6.4078,5.8824,-10.667,9.0177,-6.5056,-2.6537,6.4078,5.8824,14.521,21.485001,17.079,21.079,20.612,25.121,0.51282,3.2381,12.418,13.333
18.742001,13.46,23.415001,-1.3592,13.725,22.504,6.4412,-3.9291,4.466,-1.3592,13.725,17.822001,22.117001,17.714001,22.349001,20.612,26.409,7.5641,6.4127,13.725,13.974
9.3082,12.825,7.8049,6.4078,8.4967,4.9431,6.4412,5.7327,5.1133,6.4078,8.4967,11.881,11.374,8.8254,10.286,10.306,9.6618,2.4359,3.2381,7.8431,5.641
4.9057,12.825,1.9512,21.294001,23.528999,-1.561,19.323999,2.5121,11.586,21.294001,23.528999,17.822001,5.0553,3.1111,2.0317,3.8647,-0.64412,1.7949,2.6032,5.2288,3.7179
-1.3836,3.3016,-5.2033,14.822,15.033,4.9431,19.323999,7.0209,16.764,14.822,15.033,15.182,-2.5276,-8.9524,-6.2222,-9.0177,-11.594,-0.76923,-5.0159,3.268,-7.8205
1.761,-7.4921,-4.5528,9.644,11.765,0.39024,0.64412,-3.9291,-3.301,9.644,11.765,9.901,-6.951,-15.302,-6.8571,-16.747,-14.171,8.2051,-10.095,-0.65359,-14.872
11.824,-8.127,4.5528,1.2298,8.4967,19.902,5.153,10.886,11.586,1.2298,8.4967,13.201,-1.8957,-13.397,6.4762,-13.527,-5.7971,10.769,-7.5556,10.458,-13.59
8.0503,-14.476,1.3008,9.644,5.2288,-4.1626,0.64412,16.039,12.88,9.644,5.2288,4.6205,-2.5276,-14.032,6.4762,-16.103001,-7.0853,6.2821,-6.2857,9.1503,-13.59
2.3899,-11.937,-5.8537,0.58252,-1.9608,-10.667,-3.8647,-3.285,-6.5372,0.58252,-1.9608,-3.9604,-3.1596,-13.397,2.6667,-16.747,-9.0177,3.7179,-4.381,3.9216,-11.667
-5.7862,-17.016001,-11.057,-9.7735,-7.1895,6.8943,-10.95,-0.70853,-4.5955,-9.7735,-7.1895,-9.901,-3.7915,-12.127,0.12698,-16.103001,-9.6618,-2.6923,-5.0159,3.9216,-9.1026
-0.75472,-4.3175,-5.8537,-7.1845,-8.4967,-11.317,-10.95,-1.3527,-9.1262,-7.1845,-8.4967,-12.541,-2.5276,-10.222,3.3016,-9.6618,-3.8647,4.359,-3.1111,1.3072,-7.1795
4.9057,-5.5873,-1.3008,-8.479,-11.765,-0.91057,-16.103001,-1.3527,-1.3592,-8.479,-11.765,-11.881,-0.63191,-3.873,7.746,-2.5765,3.2206,3.7179,3.2381,2.6144,1.1538
4.9057,0.7619,1.3008,-0.71197,-9.8039,-6.7642,-9.6618,4.4444,-6.5372,-0.71197,-9.8039,-8.5809,-0.63191,-3.2381,7.746,0.0,3.8647,1.7949,3.2381,1.3072,1.7949
0.50314,6.4762,-3.252,3.1715,-2.6144,-2.8618,8.3736,-5.8615,-0.71197,3.1715,-2.6144,0.66007,-0.63191,-0.69841,2.0317,-1.9324,-2.5765,3.0769,0.69841,0.65359,1.7949
1.761,-9.3968,-11.057,-0.71197,-1.3072,10.146,-6.4412,-3.285,-10.421,-0.71197,-1.3072,0.66007,-6.3191,-5.1429,-4.3175,-9.6618,-10.95,-1.4103,-3.746,-3.268,1.1538
1.761,-8.127,-3.252,-2.6537,0.0,-9.3659,-16.747,14.106,2.5243,-2.6537,0.0,-1.9802,-1.8957,-1.9683,3.9365,-3.8647,-1.9324,4.359,-4.381,0.65359,-0.76923
9.9371,3.3016,9.7561,10.939,0.0,6.2439,-2.5765,11.53,-8.479,10.939,0.0,2.6403,3.7915,3.746,12.825,5.153,10.95,1.1538,-6.2857,3.268,1.7949
16.226,6.4762,18.211,1.2298,-7.1895,14.699,-7.0853,5.7327,-7.1845,1.2298,-7.1895,3.9604,8.2148,8.8254,19.174999,12.882,19.323999,-2.6923,-5.6508,5.2288,4.359
18.113001,18.540001,25.365999,1.877,-0.65359,-2.8618,2.5765,1.868,-7.1845,1.877,-0.65359,7.9208,14.534,15.81,23.618999,24.476999,29.629999,3.7179,-1.2063,9.8039,12.692
13.082,24.254,16.910999,-5.2427,-11.111,6.2439,-9.0177,-1.9968,-10.421,-5.2427,-11.111,-1.3201,17.062,19.618999,22.349001,29.629999,28.341,1.1538,-2.4762,9.8039,13.974
1.761,9.0159,5.8537,-14.304,-8.4967,-0.91057,-7.7295,-7.1498,-14.304,-14.304,-8.4967,-4.6205,15.166,16.444,14.095,21.9,20.612,5.641,-0.57143,7.1895,12.051
9.9371,5.2063,7.8049,-2.6537,-4.5752,-11.967,-1.2882,7.0209,0.58252,-2.6537,-4.5752,2.6403,18.957001,17.079,19.174999,17.391001,21.256001,6.9231,-5.6508,13.072,8.2051
5.5346,-4.3175,6.5041,3.1715,-4.5752,-30.829,-14.815,5.7327,4.466,3.1715,-4.5752,-3.3003,15.798,13.27,16.0,8.3736,16.103001,6.9231,-12.0,14.379,3.0769
5.5346,-5.5873,5.8537,-13.01,-2.6144,-1.561,-6.4412,-5.8615,-7.1845,-13.01,-2.6144,0.0,13.27,11.365,11.556,5.153,10.95,8.2051,-9.4603,9.8039,3.7179
9.3082,2.0317,3.9024,4.466,-1.9608,10.797,-2.5765,-0.70853,-2.6537,4.466,-1.9608,-0.66007,14.534,12.0,12.19,6.4412,10.95,14.615,-7.5556,14.379,2.4359
10.566,1.3968,3.9024,1.2298,-3.268,1.6911,-3.8647,-3.285,-9.7735,1.2298,-3.268,-1.9802,14.534,12.635,12.19,7.7295,11.594,8.2051,-6.2857,15.686,2.4359
6.1635,5.8413,5.2033,-2.0065,0.65359,12.098,-2.5765,-0.70853,3.8188,-2.0065,0.65359,2.6403,10.742,12.0,7.746,10.306,11.594,3.0769,-0.57143,9.1503,5.0
14.969,9.0159,11.707,4.466,9.8039,15.35,10.306,-0.70853,10.939,4.466,9.8039,11.881,10.742,11.365,8.381,10.306,12.238,3.7179,0.06349,10.458,5.0
4.2767,6.4762,5.2033,5.7605,15.033,16.65,9.6618,5.0886,6.4078,5.7605,15.033,14.521,3.7915,6.9206,-2.4127,3.8647,2.5765,11.41,-5.0159,3.9216,2.4359
3.0189,3.3016,3.9024,27.767,20.261,6.2439,17.391001,10.886,8.9968,27.767,20.261,15.842,0.0,3.1111,-5.5873,1.2882,-0.64412,3.0769,-0.57143,0.65359,1.1538
-8.3019,-4.3175,-1.9512,21.294001,13.072,4.2927,3.2206,3.8003,7.055,21.294001,13.072,7.9208,-1.8957,1.2063,-8.7619,-2.5765,-4.5089,-9.1026,-3.1111,-4.5752,-2.0513
-1.3836,-2.4127,0.0,12.88,12.418,8.1951,4.5089,5.0886,1.877,12.88,12.418,6.6007,-2.5276,-0.69841,-4.3175,-3.8647,-3.8647,-0.76923,-2.4762,-4.5752,-1.4103
1.761,-4.9524,-1.3008,12.233,9.1503,17.301001,-0.64412,5.7327,2.5243,12.233,9.1503,4.6205,-3.7915,-1.9683,-3.6825,-6.4412,-5.153,6.2821,-1.2063,-7.1895,-3.9744
1.1321,5.2063,0.0,5.7605,9.1503,-5.4634,23.833,5.7327,-19.482,5.7605,9.1503,5.9406,-2.5276,-3.2381,-1.7778,-6.4412,-4.5089,-3.3333,-4.381,-5.2288,-3.3333
-5.1572,-3.6825,-9.7561,-0.71197,0.0,7.5447,2.5765,1.2238,-10.421,-0.71197,0.0,-3.3003,-5.6872,-6.4127,-7.4921,-10.95,-11.594,-5.8974,-5.0159,-8.4967,-8.4615
-8.3019,-16.381001,-17.561001,10.291,5.2288,-14.569,-12.238,2.5121,1.877,10.291,5.2288,-7.9208,-9.4787,-10.222,-15.746,-17.391001,-18.68,-4.6154,-8.8254,-13.072,-10.385
-15.22,-16.381001,-20.163,-9.1262,-9.8039,-11.967,-13.527,-3.9291,-4.5955,-9.1262,-9.8039,-15.182,-13.902,-14.032,-19.556,-18.68,-19.968,-5.8974,-12.635,-18.301001,-15.513
-10.189,-11.937,-13.008,3.1715,-2.6144,6.8943,-8.3736,-3.9291,-7.8317,3.1715,-2.6144,-9.901,-8.8468,-8.9524,-12.571,-12.238,-11.594,-9.7436,-11.365,-14.379,-11.667
-6.4151,-8.127,-9.7561,2.5243,0.0,-4.813,-5.7971,-0.06441,-3.9482,2.5243,0.0,-9.901,-5.6872,-8.9524,-9.3968,-10.95,-8.3736,-5.2564,-12.635,-11.765,-12.308
-7.044,-5.5873,-6.5041,-2.6537,-3.9216,-1.561,-6.4412,10.886,-1.3592,-2.6537,-3.9216,-11.221,-4.4234,-8.9524,-8.7619,-10.95,-7.7295,-11.026,-13.905,-9.1503,-12.308
-10.818,-13.206,-9.1057,-8.479,-7.8431,-7.4146,-17.391001,-6.5056,-3.9482,-8.479,-7.8431,-14.521,-5.6872,-9.5873,-13.841,-12.238,-10.95,-7.1795,-7.5556,-10.458,-10.385
-5.1572,-8.7619,-5.2033,-14.304,-5.2288,-13.919,-10.95,-10.37,1.2298,-14.304,-5.2288,-11.221,-4.4234,-7.0476,-11.937,-7.7295,-9.6618,1.7949,-3.746,-7.8431,-5.8974
-6.4151,4.5714,4.5528,-3.9482,-0.65359,-6.7642,1.9324,-10.37,5.7605,-3.9482,-0.65359,1.3201,-5.0553,-5.7778,-9.3968,-1.2882,-4.5089,-11.026,1.9683,-7.8431,-2.0513
-10.818,4.5714,3.252,-8.479,1.3072,2.3415,5.7971,-8.438,3.1715,-8.479,1.3072,-0.66007,-6.3191,-5.1429,-10.032,0.64412,-3.2206,-9.7436,4.5079,-8.4967,-1.4103
-9.5597,1.3968,-0.65041,-8.479,0.65359,5.5935,0.0,-11.659,10.291,-8.479,0.65359,-0.66007,-5.0553,-3.873,-10.032,-0.64412,-5.153,-3.9744,7.6825,-5.8824,1.1538
-10.818,8.381,0.0,1.877,0.0,-0.91057,10.95,9.5974,-6.5372,1.877,0.0,3.3003,-2.5276,1.8413,-8.127,5.153,-2.5765,-7.8205,10.857,-4.5752,5.641
-12.075,3.9365,-1.3008,-6.5372,0.0,-13.919,-2.5765,-6.5056,8.3495,-6.5372,0.0,1.3201,-2.5276,3.746,-9.3968,5.153,-3.8647,-9.1026,12.127,-5.8824,7.5641
-0.75472,10.286,9.7561,-3.301,5.8824,10.797,6.4412,-19.388,16.764,-3.301,5.8824,13.201,5.6872,12.635,4.5714,14.171,6.4412,-2.0513,18.476,0.65359,14.615
9.9371,14.095,13.659,11.586,9.8039,8.1951,18.035,11.53,20.0,11.586,9.8039,15.182,6.3191,11.365,11.556,14.171,9.6618,-3.3333,14.032,5.2288,13.974
14.969,5.8413,11.057,4.466,5.8824,17.951,2.5765,9.5974,14.175,4.466,5.8824,13.201,3.1596,6.9206,15.365,7.0853,7.7295,5.0,7.6825,6.5359,6.2821
11.824,-0.50794,6.5041,1.877,4.5752,17.301001,-1.2882,0.57971,-8.479,1.877,4.5752,9.901,0.63191,2.4762,12.19,1.2882,3.8647,11.41,2.6032,4.5752,1.7949
4.2767,-4.9524,0.65041,5.1133,-2.6144,2.9919,-4.5089,10.886,-11.715,5.1133,-2.6144,5.2805,-5.0553,-3.873,7.1111,-3.2206,-1.9324,12.692,-3.1111,2.6144,-3.9744
9.3082,-2.4127,3.252,4.466,3.9216,7.5447,-3.8647,6.3768,-0.06472,4.466,3.9216,5.9406,-5.0553,-4.5079,8.381,-0.64412,0.64412,7.5641,-2.4762,2.6144,-3.3333
4.9057,-3.6825,-5.2033,-3.301,-9.8039,-8.065,-13.527,-3.285,-7.8317,-3.301,-9.8039,-9.901,-6.951,-7.0476,5.2063,-1.2882,-1.9324,5.641,-4.381,0.65359,-5.8974
6.1635,-10.667,-6.5041,2.5243,-7.8431,-20.423,-14.815,3.1562,-6.5372,2.5243,-7.8431,-11.881,-3.1596,-4.5079,5.2063,-1.2882,-1.9324,6.9231,-1.2063,3.268,-1.4103
4.2767,0.7619,-1.9512,-4.5955,-2.6144,-0.26016,5.153,7.0209,-19.482,-4.5955,-2.6144,-5.2805,-3.7915,-5.7778,4.5714,-1.2882,0.0,5.0,-3.1111,1.3072,-3.9744
-4.5283,-17.650999,-11.707,-7.1845,-3.9216,6.2439,-19.323999,1.868,-7.1845,-7.1845,-3.9216,-12.541,-9.4787,-12.762,-3.6825,-11.594,-9.0177,3.7179,-6.9206,-1.9608,-10.385
-3.8994,-1.7778,-9.1057,-4.5955,-1.9608,-2.2114,-7.0853,1.868,-4.5955,-4.5955,-1.9608,-8.5809,-8.8468,-8.9524,-5.5873,-7.7295,-7.7295,-2.0513,-5.6508,-4.5752,-6.5385
2.3899,-1.7778,-3.9024,3.8188,4.5752,12.748,6.4412,-5.2174,2.5243,3.8188,4.5752,0.0,-8.2148,-5.7778,-6.8571,-5.153,-7.0853,1.1538,2.6032,-5.8824,-2.0513
-10.189,-0.50794,-5.2033,5.1133,7.8431,5.5935,3.8647,7.6651,14.175,5.1133,7.8431,3.9604,-10.742,-5.1429,-16.381001,-5.153,-11.594,-5.8974,7.0476,-11.111,1.1538
-24.025,0.7619,-9.7561,0.58252,0.0,-17.820999,2.5765,4.4444,6.4078,0.58252,0.0,-6.6007,-11.374,-2.6032,-20.825001,-5.153,-12.882,-14.872,7.0476,-14.379,2.4359
-17.736,-4.3175,-8.4553,-9.7735,-7.8431,-4.813,-6.4412,-9.0821,-2.0065,-9.7735,-7.8431,-15.182,-5.6872,-1.9683,-11.937,-3.8647,-6.4412,-11.026,7.6825,-9.1503,1.7949
-14.591,0.12698,-4.5528,-14.951,-5.8824,-9.3659,-3.2206,-20.032,4.466,-14.951,-5.8824,-13.201,-5.0553,-0.06349,-9.3968,0.64412,-1.9324,-14.872,8.9524,-9.1503,3.7179
-6.4151,16.635,1.9512,-10.421,-1.9608,1.0407,18.035,-20.032,-7.8317,-10.421,-1.9608,-5.2805,0.0,5.0159,-2.4127,9.6618,4.5089,-13.59,17.841,-3.268,12.051
-8.9308,16.0,1.9512,-5.89,2.6144,-15.22,7.7295,-12.947,19.353001,-5.89,2.6144,-5.9406,6.3191,11.365,2.6667,14.815,8.3736,-8.4615,23.556,2.6144,15.897
-0.12579,27.429001,9.1057,-3.301,11.765,-4.1626,25.764999,-12.947,14.175,-3.301,11.765,5.9406,12.006,16.444,10.921,21.256001,14.815,-6.5385,28.635,7.1895,22.308001
8.6792,33.143002,12.358,-0.71197,9.1503,-4.1626,13.527,-1.9968,20.646999,-0.71197,9.1503,9.901,15.798,18.349001,18.540001,27.697001,18.68,1.1538,28.0,12.418,23.59
26.289,14.73,18.211,12.88,17.646999,14.699,11.594,7.6651,23.236,12.88,17.646999,19.802,13.902,15.81,24.889,22.544001,21.256001,5.0,28.0,13.725,19.743999
18.742001,10.921,13.008,11.586,5.2288,21.854,12.882,8.3092,2.5243,11.586,5.2288,14.521,5.6872,5.6508,19.174999,12.238,13.527,13.974,13.397,9.1503,7.5641
16.855,10.286,14.309,13.528,7.1895,24.455,5.7971,17.327,5.1133,13.528,7.1895,15.182,2.5276,3.1111,16.0,10.95,12.238,14.615,6.4127,9.8039,6.2821
16.226,0.7619,13.659,6.4078,-2.6144,1.0407,-7.0853,10.886,7.055,6.4078,-2.6144,8.5809,-2.5276,-2.6032,11.556,5.153,8.3736,15.897,2.6032,7.1895,1.1538
9.3082,-4.3175,8.4553,3.8188,-0.65359,2.9919,-5.7971,10.886,15.469,3.8188,-0.65359,7.2607,-7.5829,-5.7778,5.2063,-3.8647,0.64412,12.051,-3.746,3.268,-3.9744
16.226,7.746,9.7561,5.7605,6.5359,-3.5122,12.882,12.174,-0.71197,5.7605,6.5359,13.201,-2.5276,-0.69841,9.6508,0.0,2.5765,10.769,1.9683,9.8039,-0.12821
-2.6415,11.556,-3.252,8.9968,2.6144,4.9431,19.968,2.5121,-2.6537,8.9968,2.6144,3.3003,-8.8468,-2.6032,-2.4127,-2.5765,-6.4412,6.2821,-3.1111,1.9608,-2.0513
-11.447,-14.476,-14.959,-0.71197,1.9608,-14.569,-5.7971,0.57971,3.8188,-0.71197,1.9608,-5.2805,-12.638,-7.6825,-13.206,-12.882,-15.459,-6.5385,-3.746,-5.8824,-5.2564
-10.818,-17.016001,-11.057,-3.301,0.0,8.8455,-10.306,1.868,1.2298,-3.301,0.0,-2.6403,-9.4787,-7.0476,-11.937,-10.306,-12.238,1.7949,-4.381,-2.6144,-4.6154
-11.447,-12.571,-9.1057,4.466,-4.5752,-2.2114,-5.7971,-0.70853,-7.1845,4.466,-4.5752,-5.2805,-8.8468,-10.222,-9.3968,-10.95,-10.95,-0.12821,-10.73,-2.6144,-8.4615
-10.818,-18.921,-7.8049,-9.7735,-10.458,-0.26016,-24.476999,-3.9291,-13.01,-9.7735,-10.458,-7.9208,-4.4234,-12.127,-3.0476,-11.594,-6.4412,-2.0513,-12.635,-0.65359,-12.308
